Photon Energy (eV)	#1	#2	#3	#4	#5	#6	#7	#8	#9	#10	#11	#12	#13	#14	#15	#16	#17	#18	#19	#20	#21	#22	#23	#24	#25	#26	#27	#28	#29	#30	#31	#32	#33	#34	#35	#36	#37	#38	#39	#40	#41	#42	#43	#44	#45	#46	#47	#48	#49	#50	#51	#52	#53	#54	#55	#56	#57	#58	#59	#60	#61	#62	#63	#64	#65	#66	#67	#68	#69	#70	#71	#72	#73	#74	#75	#76	#77	#78	#79	#80	#81	#82	#83	#84	#85	#86	#87	#88	#89	#90	#91	#92	#93	#94	#95	#96	#97	#98	#99	#100	#101	#102	#103	#104	#105	#106	#107	#108	#109	#110	#111	#112	#113	#114	#115	#116	#117	#118	#119	#120	#121	#122	#123	#124	#125	#126	#127	#128	#129	#130	#131	#132	#133	#134	#135	#136	#137	#138	#139	#140	#141	#142	#143	#144	#145	#146	#147	#148	#149	#150	#151	#152	#153	#154	#155	#156	#157	#158	#159	#160	#161	#162	#163	#164	#165	#166	#167	#168	#169	#170	#171	
5.300160E+2	-7.278703E-3	-1.018684E-2	-2.310717E-3	-1.099010E-2	2.053829E-3	-8.098191E-3	-8.374160E-3	5.640235E-4	-3.295609E-3	-5.691450E-3	-6.159477E-3	-6.940741E-3	-8.628133E-3	-2.863692E-3	-1.201679E-2	-1.087165E-2	-7.253636E-3	-8.095385E-3	-1.046357E-2	-4.008722E-3	-7.499621E-3	-2.993924E-3	-5.065422E-3	-1.393952E-2	-1.297052E-2	-1.110676E-2	-1.047592E-2	-5.845581E-3	-6.793050E-3	-4.148875E-3	-1.222345E-2	-7.440417E-3	-8.619138E-3	-9.870877E-3	-5.883666E-3	8.094324E-4	-4.662586E-3	-7.686372E-3	-9.879251E-3	-5.253319E-3	-1.692218E-2	-5.249762E-3	-7.443855E-3	-3.033186E-3	-4.347192E-3	-8.217565E-3	-5.215254E-3	-4.303478E-3	-1.097911E-2	-6.748781E-3	-3.306691E-3	-5.621118E-3	1.586570E-4	-6.222255E-3	-7.029970E-3	-1.097561E-2	-6.017186E-3	-9.699736E-4	-1.045374E-2	-1.254141E-2	-8.425313E-3	-5.345007E-3	-6.874198E-3	-1.469142E-2	-6.779765E-3	-1.193239E-2	-5.218727E-3	-4.451477E-3	-5.626417E-3	-3.451185E-3	-8.770985E-3	-1.050046E-2	-2.000353E-3	-1.022133E-2	-7.618107E-3	-1.126531E-2	3.557196E-3	-8.591248E-3	-4.039904E-3	-1.091112E-2	-1.028997E-2	-5.849125E-3	-1.656480E-3	-7.348749E-3	-2.364004E-3	-1.609440E-2	-3.367987E-3	-1.053792E-2	-4.562139E-3	-5.160790E-3	-8.354983E-3	-1.001952E-2	-1.822920E-2	-5.701615E-3	-6.158438E-3	-9.114249E-3	-1.346799E-2	-1.786477E-2	-5.544898E-3	-1.130297E-2	-1.055827E-2	-1.607841E-2	-1.730821E-2	-7.938196E-3	-4.986621E-3	-5.626217E-3	-1.606012E-2	-5.025227E-3	1.721716E-3	1.102126E-3	-3.412786E-3	-1.216759E-2	-1.372379E-2	-6.341237E-3	-8.668865E-3	-7.602335E-3	-1.808268E-2	-3.617829E-3	-4.410589E-3	-7.862363E-3	-3.416827E-3	-1.135956E-2	-5.852423E-3	-1.056798E-2	-9.436328E-3	-8.452671E-3	-8.645999E-3	-1.385371E-2	-5.284547E-3	-7.952119E-3	-4.560968E-3	-1.262111E-2	-5.021986E-3	-1.032637E-3	-1.041410E-2	-8.931837E-3	-2.376715E-3	-1.489906E-3	-6.047281E-3	-4.765160E-3	-8.103505E-3	-9.550448E-3	-5.268903E-3	-1.824716E-2	-1.103979E-2	-5.228999E-3	-9.971379E-3	-6.787350E-3	-1.021598E-2	-3.256758E-3	-1.147234E-2	-9.240694E-4	-7.103155E-3	-3.713099E-3	-2.176089E-3	-5.563827E-3	2.367455E-8	-5.441028E-3	1.722236E-4	-1.448536E-2	-4.957656E-3	2.027484E-4	-1.028898E-2	-1.254021E-2	-4.074024E-3	-3.192624E-3	-8.362171E-3	-8.768470E-3	-1.058469E-2	-5.112634E-3	-8.591315E-3
5.305180E+2	1.915542E-4	-5.045821E-3	-6.747250E-3	-1.648503E-3	-1.082917E-2	-5.398772E-3	2.002507E-3	-7.171272E-3	-5.093264E-3	-7.243670E-3	-1.042398E-3	-4.832168E-3	-2.477363E-3	-9.632459E-3	-3.422022E-3	-3.576222E-3	-6.716337E-3	-2.792022E-4	-1.652159E-3	-8.102734E-3	-5.699700E-3	-2.521200E-3	-7.598086E-3	-3.132477E-3	-1.772959E-3	-4.859168E-3	-1.047590E-2	4.175391E-3	-2.264395E-3	-4.148854E-3	-2.991762E-3	-6.127405E-3	-1.139954E-2	-4.935433E-3	-8.125112E-3	-6.205392E-3	-7.074246E-3	-5.233236E-3	1.646565E-3	8.624885E-4	-4.668200E-3	-1.040411E-2	2.213011E-3	-1.007802E-2	-5.433975E-3	-4.930551E-3	-1.241764E-3	-8.380527E-3	-4.182507E-3	-3.019189E-3	2.528621E-3	-1.047978E-3	-3.173141E-3	-4.822236E-3	-1.156833E-3	1.591881E-3	-8.346410E-3	-2.028130E-3	-1.045372E-2	-7.838211E-4	-6.296796E-3	-1.274586E-2	-1.366134E-2	1.461451E-3	-7.336986E-3	9.321940E-4	-2.207922E-3	-6.156314E-3	-5.150956E-3	-9.860288E-4	4.249865E-3	2.500105E-3	-6.572636E-3	-6.388375E-3	-8.204148E-3	-1.689797E-3	-9.360994E-4	-5.154766E-3	-3.070310E-3	-3.035453E-3	-9.079427E-3	1.288756E-3	-4.872072E-4	6.260043E-3	-8.442482E-4	-6.647682E-3	-2.862806E-3	-2.269705E-3	-8.554128E-3	-2.778848E-3	-4.133511E-3	-7.833466E-3	3.645858E-3	-4.146635E-3	-2.163801E-3	-1.047007E-2	-3.993954E-3	-3.141047E-3	-1.529626E-3	-9.635325E-3	-1.370133E-3	3.999201E-3	-1.604157E-3	-7.426007E-3	-2.109729E-3	-6.733008E-3	-5.483965E-3	-1.043015E-3	-6.977487E-3	-9.580035E-3	-1.226762E-2	-1.622342E-2	2.744787E-3	-5.820061E-3	-5.609300E-3	-8.802718E-3	1.602264E-3	-1.068527E-2	-1.268041E-2	-2.684750E-3	-1.025058E-2	-3.721257E-3	-3.657733E-3	2.528021E-8	-1.110157E-2	-1.792970E-3	-3.881881E-3	-5.154884E-3	-8.874132E-3	-5.210037E-3	-1.378932E-3	-1.378616E-2	-6.412741E-3	-1.394107E-2	-1.260650E-2	3.645762E-4	-3.473741E-3	-3.166146E-3	-9.737129E-3	-5.348603E-3	-4.558247E-3	-7.014926E-3	-4.232391E-3	-4.504537E-3	-7.393606E-3	-3.418952E-3	6.910568E-4	-1.131220E-2	-4.284141E-3	-9.427502E-3	-3.529946E-3	-9.996732E-3	7.476643E-4	-3.126848E-3	-6.923951E-3	-2.685972E-3	-5.692245E-3	-1.373220E-2	-6.544945E-3	-1.175513E-2	-8.610658E-3	-1.013862E-2	-9.186576E-3	-9.171191E-3	-7.067243E-3	-7.367703E-4	-4.665214E-3	-5.636852E-3	5.292344E-3	-6.292416E-3	-1.327747E-2
5.310250E+2	-4.980112E-3	1.808891E-3	3.234982E-3	-6.594056E-3	-4.667729E-3	1.079772E-3	9.102791E-4	2.014415E-3	-4.494074E-3	-2.069669E-3	-4.738001E-4	1.493598E-3	1.110559E-3	1.301665E-3	3.740330E-3	-2.288766E-3	-5.641741E-3	-3.628958E-3	-7.159312E-3	2.644054E-3	1.049947E-3	-2.048476E-3	-8.104614E-3	-2.662635E-3	2.706067E-3	-6.941782E-4	4.246983E-3	-1.029934E-2	-1.761181E-3	1.327631E-3	3.675604E-3	-2.188355E-3	-2.780736E-4	-6.032222E-3	8.685452E-3	-3.507413E-3	-1.286200E-3	8.013445E-3	-1.097685E-3	-7.605493E-3	5.251709E-3	-1.813578E-3	-9.254524E-3	-2.446119E-3	-2.716997E-3	-2.739182E-3	3.228493E-3	-5.209528E-3	1.045617E-3	3.907180E-3	-3.306680E-3	-4.477877E-3	-5.552997E-3	3.111148E-3	-6.496083E-3	-6.954022E-3	1.552806E-3	-7.318958E-3	5.077522E-3	-6.074750E-3	-4.434369E-4	-2.384725E-3	6.700156E-3	-3.615135E-3	1.021642E-3	1.491534E-3	-3.412195E-3	8.050545E-3	-1.180756E-2	-3.944238E-3	-2.260562E-3	-3.500177E-3	8.573058E-4	7.300752E-4	1.172042E-3	-1.126523E-3	-3.744429E-3	-2.700074E-3	-5.979039E-3	-1.066504E-3	-3.631769E-3	3.073256E-3	-9.256854E-3	-7.893127E-3	2.195118E-3	1.224565E-3	-2.862791E-3	-3.728823E-3	-9.694626E-3	-2.183411E-3	-2.550497E-3	9.108690E-4	-5.590285E-3	-6.738285E-3	-6.657722E-4	8.285478E-4	-1.012421E-2	6.871046E-3	-3.824192E-4	-1.297060E-3	-3.788070E-3	-9.712335E-3	-1.604154E-3	-5.377462E-3	-4.411284E-3	-1.752445E-3	1.566847E-3	-1.611822E-3	-8.608549E-3	-2.458608E-3	-6.733368E-3	6.083804E-3	-1.078298E-2	-3.214067E-3	-4.997361E-3	3.801138E-3	-4.806810E-3	2.944771E-3	5.513375E-4	-4.410557E-3	-2.277874E-3	-4.308810E-3	-1.463075E-3	3.108236E-3	2.775403E-3	2.561164E-4	-4.940575E-3	6.926877E-3	-4.686327E-3	6.306858E-3	-2.651796E-3	7.766875E-3	7.723949E-5	3.097974E-3	-1.096219E-2	-6.197588E-3	-7.861587E-3	-2.048674E-3	1.024860E-4	-3.014653E-3	-2.532373E-3	1.098743E-3	-5.787148E-3	-8.398171E-4	-2.532080E-3	-6.435692E-3	-7.601911E-3	-2.262430E-3	3.625035E-3	-1.714110E-3	9.177862E-3	-3.948272E-3	-9.346086E-4	3.322245E-3	-5.736971E-3	1.918566E-3	-2.069922E-3	7.772832E-4	-8.611782E-3	-1.039001E-2	-2.870236E-3	-5.272057E-3	-3.123398E-3	-4.117675E-3	-6.568358E-3	-7.367553E-4	-3.608977E-3	-8.142078E-3	7.799293E-3	1.258484E-2	7.810341E-3
5.315130E+2	-8.427987E-3	-5.045821E-3	-4.528977E-3	-3.743048E-8	-9.708914E-3	5.938675E-3	-2.912788E-3	5.640206E-4	-8.089329E-3	-3.104373E-3	9.476695E-5	4.392935E-4	-3.502471E-3	-2.343027E-3	-3.899513E-3	-5.721935E-3	8.059981E-4	2.791352E-4	3.304312E-3	-9.382278E-4	3.299838E-3	-1.103028E-3	1.013109E-3	-7.831123E-4	-9.051355E-3	-3.817931E-3	-4.813250E-3	-8.350627E-4	3.270728E-3	-8.629639E-3	5.983375E-4	-4.376700E-4	-2.779956E-4	2.118583E-8	-1.148724E-2	1.349004E-3	3.054783E-3	-5.233266E-3	-5.488507E-3	-4.312394E-3	-3.501124E-3	3.913450E-3	-1.408265E-3	8.121098E-3	1.630200E-3	-1.095659E-3	-2.235101E-3	3.397531E-3	3.986455E-8	-3.551993E-3	-5.057302E-3	6.668929E-4	-2.221185E-3	-3.422226E-3	9.788367E-4	5.613481E-3	-2.523320E-3	-4.144451E-3	-9.258991E-3	7.446442E-3	-3.636178E-3	2.549154E-3	-1.653335E-3	1.461451E-3	3.807774E-3	-4.101746E-3	5.018026E-3	-8.997681E-3	3.407550E-3	-1.303243E-8	9.946664E-4	-5.000296E-4	-4.858036E-3	-2.007736E-3	-2.930066E-3	6.195905E-3	-1.497782E-3	1.006401E-2	1.777542E-3	-3.035450E-3	2.421195E-3	-1.001287E-2	-4.872179E-4	-7.348743E-3	-6.416544E-3	-1.399493E-3	1.178777E-3	2.593949E-3	1.140544E-2	-1.290196E-2	-4.661200E-3	-1.821736E-3	1.215289E-3	-2.073307E-3	-9.154469E-3	3.540255E-3	4.644127E-4	-1.963184E-3	-9.560595E-4	-2.408820E-3	2.982098E-3	3.019800E-3	2.448474E-3	1.280353E-3	2.493293E-3	3.781593E-3	-1.135959E-2	9.480061E-5	8.246080E-3	1.610846E-3	-1.752551E-3	5.069554E-4	-7.842149E-3	6.688719E-3	-7.139274E-4	2.000564E-4	-2.975634E-3	-2.608196E-3	-2.802560E-8	-2.109398E-3	-5.694919E-4	-7.834109E-4	7.315151E-4	1.864924E-3	4.995689E-3	-4.866683E-3	-2.293815E-3	-2.255271E-3	6.082232E-3	-8.226355E-4	-7.743082E-3	-3.883529E-4	6.103681E-3	-4.130677E-3	9.317854E-3	3.645628E-4	-6.764631E-3	-3.724808E-3	-6.662234E-3	-7.682632E-3	2.111132E-8	3.127129E-3	1.986642E-3	5.344192E-4	4.152559E-3	3.217838E-3	3.060500E-3	9.049772E-3	1.647716E-3	-1.199866E-3	-7.765834E-3	-2.436158E-3	1.308484E-3	1.563460E-3	-8.704398E-3	-5.563792E-3	-1.552418E-3	-3.886457E-3	-8.611779E-4	5.536254E-3	-3.913948E-3	-4.663759E-3	-9.186834E-4	3.743344E-3	1.413446E-3	-1.227885E-3	-4.137105E-3	-3.131542E-3	-6.406534E-3	-8.652138E-3	7.809741E-4
5.320070E+2	5.363252E-3	3.522539E-3	-6.470092E-4	7.143582E-3	4.294291E-3	-5.938645E-3	-1.820447E-3	-1.369797E-3	4.494059E-3	8.278476E-3	6.349022E-3	7.819290E-3	6.748685E-3	4.946409E-3	9.470212E-3	5.864980E-3	1.880552E-3	6.420510E-3	2.753540E-3	3.667565E-3	5.549686E-3	6.933294E-3	-6.179775E-9	4.385472E-3	7.745004E-3	1.023904E-2	1.274097E-2	2.505249E-3	3.270774E-3	-2.157413E-3	3.675563E-3	5.689719E-3	9.731273E-3	6.032220E-3	3.081910E-3	5.126143E-3	-2.250940E-3	-8.177118E-4	9.330392E-3	1.332917E-3	1.167052E-3	-1.240820E-3	4.023895E-4	3.424552E-3	5.433974E-4	4.382701E-3	-2.483577E-4	6.794930E-4	5.750954E-3	1.243183E-3	3.695735E-3	4.668372E-3	5.870305E-3	-1.555578E-3	-4.360371E-3	-2.932407E-3	-4.270216E-3	-4.673533E-3	6.272237E-3	1.567689E-3	4.345692E-3	5.756445E-4	4.350961E-4	6.076545E-3	-9.290189E-5	8.203553E-3	-2.207925E-3	-6.724601E-3	5.784906E-3	-2.465173E-3	-9.041850E-5	-5.000235E-4	1.428833E-3	2.372842E-3	1.172017E-3	-3.942854E-3	-3.744435E-3	-2.700095E-3	8.079802E-4	8.285914E-3	4.842352E-3	-1.001289E-2	1.851342E-3	1.905229E-3	7.767429E-3	1.277058E-2	1.684254E-4	1.134855E-3	6.272993E-3	3.175837E-3	9.058555E-3	1.457391E-3	4.131928E-3	4.146634E-3	1.830899E-3	3.766329E-4	3.250889E-3	3.337371E-3	-3.250495E-3	5.929459E-3	-1.370163E-3	1.183435E-2	1.207350E-2	6.401740E-3	5.370234E-3	1.374273E-2	1.449327E-2	-2.180712E-3	2.809111E-3	5.171521E-3	4.888609E-3	3.548879E-3	6.861916E-3	3.561527E-3	7.852997E-3	5.001550E-3	8.926896E-3	5.468814E-3	-5.513215E-3	4.218845E-3	1.138950E-2	6.267359E-3	-1.463115E-3	-4.351472E-3	2.775389E-3	7.940391E-3	7.234388E-3	2.094195E-3	-2.891536E-3	-2.742070E-4	2.439578E-3	3.689238E-3	1.467977E-3	9.810364E-3	3.288684E-3	4.739327E-3	1.078678E-2	-5.401018E-3	1.332464E-3	9.238564E-3	-5.064496E-4	2.620018E-3	5.096157E-3	9.238111E-3	9.014208E-3	5.027871E-3	-4.936322E-4	-5.655916E-4	5.108006E-3	6.513554E-3	2.823971E-3	1.092042E-3	3.551600E-3	3.908405E-4	1.978270E-4	5.947541E-3	-1.034958E-3	-7.773001E-4	1.722375E-3	1.190681E-2	3.392098E-3	6.285962E-3	1.286122E-2	5.989333E-3	7.898641E-3	1.719098E-3	2.728716E-3	8.768419E-3	-3.064014E-3	-5.112591E-3	3.124111E-3
5.325170E+2	1.513200E-2	1.494706E-2	1.099897E-2	1.208911E-2	1.885769E-2	1.241716E-2	1.019461E-2	5.398610E-3	1.647822E-2	9.830686E-3	1.231887E-3	2.020728E-3	6.748722E-3	8.591104E-3	6.127788E-3	1.659359E-2	1.692516E-2	5.303900E-3	1.321718E-2	6.738066E-3	3.299852E-3	1.733333E-3	1.975502E-2	1.613227E-2	1.334376E-2	1.023899E-2	8.777117E-3	1.029934E-2	4.277125E-3	1.775715E-2	7.265707E-3	1.050413E-2	1.084348E-2	1.480629E-2	1.372865E-2	2.428226E-3	1.221919E-2	1.095714E-2	5.488487E-3	1.497580E-2	1.867274E-2	1.479482E-2	1.549124E-2	4.011676E-3	1.032457E-2	1.260026E-2	5.711985E-3	1.381651E-2	8.365003E-3	8.169600E-3	5.446318E-3	5.811708E-3	4.918361E-3	1.291115E-2	1.806442E-2	1.365668E-2	1.960433E-2	1.913505E-2	1.881669E-2	1.038585E-2	1.445603E-2	1.735079E-2	1.505362E-2	9.307112E-3	9.380236E-3	5.406855E-3	8.028743E-3	1.827953E-2	1.339247E-2	1.084664E-2	5.877434E-3	1.250059E-2	1.114489E-2	1.551452E-2	1.640826E-2	1.182858E-2	6.365549E-3	9.082169E-3	1.050373E-2	9.762616E-3	1.573762E-2	2.151287E-2	1.003642E-2	1.442535E-2	-3.377506E-4	1.014643E-2	7.746382E-3	1.280764E-2	5.132460E-3	1.984917E-2	1.064164E-2	1.730646E-2	1.482641E-2	1.451321E-2	1.631158E-2	1.483888E-2	2.387085E-2	1.276059E-2	1.166350E-2	1.871472E-2	1.410454E-2	6.937394E-3	5.994543E-3	1.305957E-2	3.644107E-3	-3.412654E-3	1.684355E-2	9.765975E-3	2.809128E-3	4.154150E-3	1.927772E-2	1.825138E-2	2.274221E-2	5.125118E-3	1.213646E-2	7.402308E-3	1.533596E-2	8.497708E-3	2.205291E-2	1.284822E-2	5.125275E-3	1.390568E-2	1.170483E-2	9.946271E-3	9.991421E-3	6.915818E-3	1.252788E-2	1.224279E-2	1.565431E-2	7.952140E-3	1.389520E-2	1.533952E-2	3.785829E-3	6.196046E-3	2.137624E-2	9.660959E-3	9.689893E-3	1.583055E-2	2.101169E-2	1.157249E-2	1.570055E-2	9.719486E-3	8.205643E-3	1.381899E-2	7.798712E-3	6.837933E-3	1.431536E-2	1.187780E-2	4.119363E-3	9.084682E-3	1.076629E-2	1.621319E-2	2.430016E-3	1.563400E-3	2.334358E-2	5.947484E-3	1.034952E-2	2.305970E-2	1.412331E-2	1.918743E-2	1.696040E-2	1.358573E-2	1.065642E-2	1.609640E-2	8.397539E-3	4.174936E-3	1.804475E-2	1.691052E-2	6.963606E-3	1.258494E-2	1.015336E-2
5.330280E+2	1.455735E-2	9.806034E-3	1.432641E-2	2.143073E-2	1.213615E-2	2.105524E-2	1.456371E-2	2.231956E-2	2.306964E-2	1.500467E-2	1.203465E-2	2.521504E-2	1.699995E-2	1.900452E-2	1.472261E-2	1.101472E-2	1.477595E-2	3.042765E-2	7.710035E-3	2.516108E-2	1.589916E-2	1.402419E-2	2.785967E-2	1.848161E-2	1.502334E-2	1.180090E-2	2.463255E-2	2.087711E-2	2.591431E-2	3.269314E-2	1.957461E-2	1.794452E-2	1.529205E-2	2.577399E-2	1.821147E-2	2.239337E-2	2.090123E-2	1.341022E-2	2.140504E-2	2.203248E-2	1.808927E-2	2.567622E-2	7.645051E-3	1.692716E-2	2.390951E-2	2.191342E-2	2.061276E-2	1.109849E-2	2.038972E-2	1.616158E-2	1.945112E-2	2.124600E-2	1.253390E-2	1.757784E-2	2.820898E-2	1.818099E-2	1.611057E-2	2.019314E-2	1.702464E-2	2.743431E-2	2.243795E-2	2.623177E-2	2.236287E-2	1.853731E-2	1.216635E-2	1.994950E-2	3.151289E-2	2.339390E-2	1.529440E-2	2.169333E-2	1.998336E-2	2.550119E-2	1.457407E-2	1.387184E-2	2.051034E-2	2.928976E-2	2.770875E-2	2.037358E-2	1.729077E-2	1.370044E-2	1.755354E-2	2.091797E-2	1.354426E-2	1.823580E-2	2.144480E-2	2.274208E-2	2.138662E-2	1.815768E-2	1.083519E-2	2.163560E-2	3.544275E-2	1.785303E-2	1.239586E-2	3.109983E-2	2.330225E-2	1.935838E-2	2.554272E-2	2.041687E-2	2.428295E-2	1.649120E-2	1.313736E-2	2.015921E-2	2.372493E-2	8.962462E-3	2.493333E-2	2.702432E-2	3.623316E-2	1.886822E-2	1.803265E-2	2.246648E-2	2.149137E-2	3.244683E-2	1.921329E-2	1.919752E-2	1.152450E-2	1.460446E-2	1.487814E-2	1.556506E-2	1.764230E-2	8.821166E-3	1.594532E-2	3.094509E-2	1.389952E-2	2.610905E-2	2.386836E-2	1.818605E-2	1.782135E-2	2.770738E-2	3.599494E-2	1.727532E-2	2.853284E-2	2.815486E-2	1.630223E-2	2.943110E-2	1.753951E-2	1.950417E-2	2.230490E-2	2.812254E-2	2.408659E-2	1.740738E-2	1.975230E-2	2.087574E-2	9.760400E-3	1.152855E-2	1.873722E-2	8.044589E-3	3.386313E-2	2.375569E-2	1.796036E-2	1.576964E-2	2.718050E-2	2.326970E-2	1.364556E-2	1.504785E-2	3.046542E-2	1.630768E-2	1.241946E-2	3.705099E-2	2.394072E-2	2.783316E-2	2.270085E-2	1.115248E-2	1.837316E-2	3.799486E-2	9.395197E-3	2.382175E-2	1.857294E-2	5.636885E-3	1.531991E-2	3.146226E-2	7.810327E-3
5.331580E+2	2.375150E-2	2.180178E-2	2.874522E-2	2.033170E-2	3.454129E-2	2.321471E-2	3.258634E-2	2.763758E-2	4.164513E-2	3.052678E-2	3.534599E-2	2.732362E-2	2.776374E-2	1.535984E-2	3.429966E-2	2.045592E-2	2.820857E-2	1.758661E-2	2.808653E-2	3.590786E-2	2.264887E-2	2.820595E-2	2.076811E-2	3.351743E-2	2.062212E-2	3.679101E-2	2.972898E-2	3.423841E-2	3.195256E-2	2.522516E-2	3.906377E-2	2.757329E-2	4.476405E-2	2.193529E-2	3.222025E-2	3.912093E-2	3.006562E-2	1.684456E-2	3.128428E-2	3.661625E-2	3.267735E-2	3.369406E-2	3.118368E-2	2.925560E-2	3.097366E-2	2.136555E-2	2.557963E-2	3.556060E-2	1.097908E-2	2.628475E-2	2.703709E-2	4.411167E-2	2.062536E-2	1.757782E-2	3.621788E-2	2.622421E-2	2.193364E-2	3.500738E-2	4.271092E-2	3.331316E-2	3.148409E-2	2.968550E-2	3.019420E-2	2.361390E-2	2.554015E-2	2.722080E-2	2.910428E-2	5.805870E-2	2.765672E-2	3.155393E-2	3.734452E-2	3.350158E-2	3.800686E-2	4.289318E-2	3.516062E-2	3.323261E-2	4.006540E-2	3.166492E-2	2.553216E-2	3.142084E-2	3.208058E-2	3.162488E-2	4.394576E-2	2.694541E-2	1.688567E-2	2.956470E-2	1.683993E-2	2.399408E-2	3.250560E-2	2.759034E-2	3.438729E-2	3.752777E-2	3.038203E-2	2.850817E-2	2.679762E-2	2.749339E-2	3.613134E-2	3.455168E-2	1.969403E-2	2.872062E-2	3.151355E-2	4.366473E-2	2.879074E-2	2.279023E-2	2.263178E-2	3.366515E-2	3.329537E-2	3.934835E-2	3.543099E-2	3.772672E-2	2.093798E-2	4.461446E-2	2.568306E-2	2.545192E-2	3.600134E-2	3.261006E-2	1.579374E-2	2.919511E-2	2.260425E-2	4.218822E-2	2.164010E-2	3.035748E-2	1.828883E-2	4.165018E-2	2.997425E-2	2.740713E-2	2.576155E-2	3.688954E-2	4.915655E-2	2.550172E-2	4.126129E-2	1.708710E-2	2.511010E-2	3.562711E-2	1.973193E-2	2.005106E-2	1.572315E-2	2.812252E-2	3.515624E-2	2.674311E-2	2.988166E-2	3.253915E-2	2.116200E-2	2.710357E-2	2.785268E-2	3.519518E-2	4.097144E-2	3.450232E-2	2.685818E-2	2.194034E-2	3.671134E-2	2.326964E-2	2.766498E-2	3.439509E-2	2.631107E-2	4.508590E-2	2.949614E-2	3.394185E-2	3.324146E-2	3.010831E-2	3.000687E-2	2.575209E-2	3.270417E-2	3.743338E-2	2.386225E-2	3.020698E-2	4.392366E-2	2.567901E-2	2.618315E-2	2.792274E-2	7.810288E-2
5.333130E+2	4.960995E-2	3.722486E-2	2.486322E-2	2.857424E-2	4.742423E-2	4.588956E-2	2.985568E-2	3.779011E-2	5.962144E-2	3.828786E-2	3.875742E-2	4.102932E-2	3.237677E-2	3.045933E-2	3.429963E-2	3.933832E-2	4.325314E-2	3.210256E-2	5.066583E-2	4.563113E-2	4.289788E-2	4.758769E-2	3.596428E-2	2.928858E-2	4.133754E-2	4.512105E-2	5.917480E-2	5.149680E-2	4.151324E-2	3.518245E-2	4.675694E-2	4.289182E-2	4.921270E-2	4.003194E-2	3.502201E-2	2.994777E-2	4.935911E-2	3.254436E-2	4.390781E-2	3.896838E-2	4.376423E-2	4.915697E-2	4.204769E-2	3.571333E-2	2.336612E-2	4.985307E-2	3.750026E-2	3.963758E-2	3.084602E-2	3.054717E-2	2.762060E-2	4.696993E-2	3.728438E-2	3.671126E-2	4.209102E-2	4.029980E-2	3.474443E-2	3.659468E-2	3.315325E-2	3.096166E-2	2.935553E-2	2.869873E-2	4.011392E-2	4.392033E-2	5.228769E-2	4.567873E-2	4.114738E-2	4.044220E-2	3.003410E-2	3.993543E-2	4.439749E-2	4.400196E-2	3.914997E-2	5.110678E-2	5.274087E-2	3.717550E-2	3.781872E-2	4.295629E-2	3.862144E-2	4.323442E-2	4.116000E-2	5.303855E-2	4.979227E-2	3.511071E-2	4.424042E-2	3.901143E-2	2.997506E-2	4.004422E-2	4.790296E-2	4.664548E-2	5.021786E-2	4.791166E-2	3.961815E-2	3.317312E-2	3.478697E-2	3.608039E-2	4.894915E-2	3.396270E-2	3.632885E-2	4.150590E-2	3.006273E-2	3.289134E-2	3.588285E-2	5.198230E-2	3.701638E-2	4.916025E-2	2.624458E-2	5.413952E-2	3.434362E-2	3.416599E-2	3.920099E-2	4.258664E-2	4.332794E-2	3.691831E-2	4.395631E-2	3.321027E-2	4.326112E-2	2.969994E-2	4.575984E-2	3.183292E-2	3.359911E-2	4.210883E-2	3.420013E-2	4.910993E-2	4.052077E-2	3.457912E-2	4.111257E-2	4.993776E-2	3.838799E-2	3.701859E-2	5.017114E-2	3.572753E-2	2.093796E-2	4.388848E-2	4.330063E-2	3.645643E-2	2.833826E-2	5.829355E-2	4.069100E-2	3.432844E-2	3.849164E-2	2.848232E-2	3.981906E-2	4.542708E-2	4.912201E-2	3.881525E-2	4.037908E-2	4.128961E-2	2.586957E-2	3.428175E-2	4.306524E-2	2.377370E-2	3.607666E-2	3.439519E-2	3.283939E-2	4.853931E-2	5.330008E-2	3.031446E-2	3.685846E-2	5.513532E-2	3.313805E-2	2.940199E-2	3.380658E-2	4.192541E-2	3.783042E-2	3.462749E-2	4.445177E-2	3.945797E-2	4.289582E-2	4.562032E-2	2.421183E-2
5.334630E+2	5.650554E-2	4.579324E-2	5.481007E-2	4.505944E-2	6.814906E-2	4.211043E-2	5.880114E-2	5.132693E-2	8.179220E-2	3.414864E-2	5.467731E-2	4.471939E-2	6.364298E-2	5.961710E-2	5.483178E-2	4.577549E-2	5.776042E-2	4.885170E-2	5.507169E-2	4.767816E-2	5.729712E-2	5.751499E-2	4.052323E-2	5.043293E-2	5.925371E-2	5.240988E-2	5.577721E-2	5.261028E-2	6.113771E-2	4.215260E-2	5.291130E-2	6.477538E-2	4.810051E-2	5.374144E-2	4.398770E-2	4.289814E-2	6.479390E-2	5.609410E-2	5.817786E-2	4.179114E-2	6.302054E-2	5.087510E-2	6.136147E-2	5.215123E-2	3.586423E-2	5.094873E-2	5.091101E-2	4.416770E-2	3.973383E-2	4.919513E-2	4.571015E-2	4.696987E-2	5.299151E-2	3.997793E-2	7.038907E-2	5.186195E-2	5.861903E-2	4.294360E-2	5.645009E-2	4.565857E-2	4.904419E-2	5.090111E-2	5.003362E-2	5.268909E-2	6.621864E-2	5.015341E-2	4.415816E-2	6.317320E-2	6.046436E-2	5.620545E-2	5.687579E-2	5.450245E-2	5.972511E-2	5.493978E-2	5.508495E-2	4.449796E-2	6.028525E-2	5.670227E-2	6.286085E-2	4.766451E-2	7.324058E-2	5.006440E-2	5.271554E-2	4.545345E-2	4.778645E-2	5.160703E-2	3.351143E-2	5.074430E-2	5.645709E-2	4.902740E-2	5.549469E-2	5.829544E-2	4.885429E-2	5.183302E-2	4.677095E-2	5.777381E-2	5.898062E-2	5.045329E-2	3.690249E-2	4.595301E-2	4.650465E-2	4.758215E-2	4.854747E-2	4.122730E-2	5.312716E-2	4.694666E-2	6.208605E-2	6.494846E-2	5.772261E-2	5.502164E-2	5.026957E-2	6.489369E-2	5.156220E-2	5.307550E-2	5.129942E-2	4.761466E-2	5.424806E-2	4.282511E-2	4.024660E-2	4.563997E-2	5.353076E-2	6.678657E-2	4.297875E-2	6.589431E-2	7.049489E-2	4.277558E-2	5.064083E-2	5.090430E-2	5.334432E-2	4.305119E-2	3.998839E-2	4.330020E-2	4.504365E-2	3.717612E-2	5.809957E-2	4.247178E-2	4.863210E-2	4.320804E-2	4.991568E-2	4.774869E-2	5.216627E-2	4.673801E-2	5.225719E-2	4.817566E-2	5.155282E-2	4.605540E-2	4.037907E-2	6.561094E-2	6.640396E-2	5.022280E-2	6.000899E-2	6.056823E-2	5.177834E-2	3.791285E-2	4.352207E-2	5.026601E-2	4.450294E-2	4.741489E-2	4.254218E-2	5.195016E-2	3.522549E-2	4.765151E-2	6.246868E-2	4.866344E-2	3.383948E-2	5.280075E-2	3.177635E-2	6.263173E-2	5.375909E-2	5.859851E-2	7.341664E-2
5.336130E+2	6.569968E-2	6.407249E-2	6.645613E-2	6.813869E-2	8.271237E-2	6.910428E-2	8.119279E-2	7.259895E-2	7.939529E-2	5.018815E-2	6.548016E-2	7.213083E-2	7.748224E-2	7.003049E-2	8.204851E-2	6.894928E-2	7.710344E-2	7.565032E-2	7.985395E-2	7.735963E-2	6.044685E-2	7.736934E-2	5.926508E-2	8.520321E-2	6.989131E-2	8.468867E-2	6.993385E-2	8.434329E-2	8.277483E-2	6.853936E-2	6.368150E-2	6.915215E-2	7.034352E-2	7.183806E-2	7.760888E-2	7.959078E-2	9.276926E-2	7.768126E-2	6.750825E-2	7.425183E-2	7.585804E-2	7.378327E-2	7.584680E-2	6.565369E-2	7.498901E-2	8.107981E-2	6.730185E-2	7.361247E-2	5.750941E-2	6.731037E-2	7.663738E-2	8.012509E-2	6.869834E-2	7.544476E-2	8.427114E-2	7.196982E-2	8.132916E-2	6.357774E-2	9.408328E-2	6.858594E-2	7.086132E-2	6.175572E-2	6.413005E-2	8.545613E-2	9.352309E-2	7.308590E-2	8.088956E-2	8.533576E-2	7.330213E-2	7.296852E-2	7.966239E-2	8.100365E-2	8.944467E-2	7.684263E-2	7.207927E-2	7.322451E-2	8.893016E-2	7.781222E-2	8.516091E-2	6.784589E-2	8.595165E-2	8.099530E-2	8.253241E-2	6.613883E-2	8.425932E-2	7.469915E-2	5.776090E-2	7.554887E-2	7.926795E-2	6.510518E-2	7.871270E-2	8.507499E-2	7.947947E-2	8.034115E-2	6.924115E-2	9.031373E-2	8.573070E-2	7.518915E-2	5.869975E-2	7.930593E-2	7.455233E-2	7.206727E-2	6.526469E-2	6.888278E-2	8.189632E-2	9.011148E-2	6.091093E-2	7.461952E-2	8.055778E-2	8.299866E-2	6.410526E-2	7.452634E-2	6.979518E-2	6.714787E-2	7.149279E-2	6.682065E-2	5.974142E-2	5.847433E-2	6.781268E-2	8.936222E-2	6.776761E-2	6.737407E-2	6.437673E-2	8.205702E-2	7.216027E-2	5.968097E-2	7.604959E-2	8.473304E-2	7.847103E-2	7.102080E-2	9.090207E-2	7.533834E-2	6.544078E-2	7.073796E-2	8.331262E-2	8.075103E-2	7.111990E-2	6.555708E-2	7.697464E-2	1.025965E-1	7.242515E-2	6.296533E-2	7.868808E-2	7.062181E-2	6.978368E-2	9.190978E-2	8.717539E-2	7.296381E-2	6.739254E-2	6.410697E-2	7.324624E-2	7.115320E-2	6.691917E-2	6.839940E-2	6.251348E-2	8.767771E-2	7.917394E-2	8.265214E-2	6.269373E-2	9.108327E-2	6.653684E-2	8.354237E-2	5.916150E-2	6.887758E-2	7.474632E-2	7.588553E-2	7.613998E-2	8.893683E-2	7.548556E-2	6.803715E-2	1.085629E-1
5.337580E+2	1.369544E-1	1.017734E-1	8.531130E-2	9.396538E-2	9.727565E-2	8.907981E-2	1.221533E-1	1.161100E-1	9.677232E-2	9.054571E-2	8.765441E-2	1.095579E-1	1.082358E-1	8.929536E-2	1.044903E-1	1.118640E-1	1.163266E-1	9.798234E-2	1.167517E-1	1.152292E-1	1.027449E-1	9.958743E-2	1.053602E-1	1.256123E-1	1.107625E-1	1.117614E-1	1.033434E-1	1.027151E-1	9.485126E-2	9.791348E-2	8.829943E-2	1.072294E-1	1.042641E-1	1.003538E-1	9.778159E-2	1.038727E-1	1.217093E-1	9.387150E-2	9.495060E-2	1.137690E-1	1.108696E-1	1.012732E-1	9.636762E-2	1.026390E-1	1.119399E-1	1.150458E-1	1.129974E-1	1.093998E-1	9.776635E-2	1.046061E-1	1.046470E-1	1.138519E-1	9.202117E-2	9.457818E-2	1.024244E-1	1.121859E-1	9.821583E-2	7.892096E-2	1.197700E-1	1.079738E-1	1.075778E-1	1.027068E-1	1.147728E-1	9.699384E-2	1.124693E-1	1.072052E-1	9.353489E-2	1.080671E-1	1.042079E-1	9.909894E-2	1.192676E-1	1.025046E-1	1.168784E-1	1.080542E-1	1.148578E-1	1.070203E-1	1.282466E-1	9.695869E-2	1.137635E-1	9.245780E-2	1.113740E-1	1.184695E-1	1.082565E-1	9.553380E-2	1.187061E-1	9.306768E-2	7.796881E-2	8.916717E-2	1.112033E-1	9.666529E-2	1.087907E-1	1.156802E-1	9.309046E-2	1.088494E-1	9.520654E-2	1.020646E-1	1.269703E-1	1.252500E-1	1.045890E-1	8.430890E-2	1.098539E-1	9.067566E-2	1.037649E-1	1.016596E-1	1.077888E-1	9.730596E-2	1.184923E-1	1.104598E-1	1.104614E-1	9.062861E-2	1.094863E-1	1.039313E-1	9.920326E-2	8.955940E-2	1.069842E-1	9.502934E-2	1.165076E-1	9.381143E-2	9.317366E-2	1.083467E-1	1.349657E-1	9.205183E-2	8.851795E-2	1.007064E-1	1.182318E-1	1.144955E-1	1.072810E-1	1.117960E-1	1.233402E-1	9.569982E-2	1.201776E-1	1.027166E-1	1.113341E-1	9.862017E-2	1.014002E-1	1.108274E-1	1.133528E-1	1.085790E-1	1.040338E-1	1.078481E-1	1.266174E-1	1.009981E-1	1.103012E-1	1.022299E-1	1.104993E-1	1.118200E-1	1.221246E-1	1.148190E-1	1.049610E-1	1.098730E-1	1.066040E-1	9.988297E-2	1.145850E-1	1.111979E-1	9.218760E-2	1.296938E-1	1.107401E-1	1.230714E-1	1.014467E-1	1.147454E-1	6.966814E-2	1.084832E-1	9.498906E-2	1.205355E-1	8.771658E-2	1.078116E-1	1.030749E-1	9.770541E-2	1.038969E-1	1.128709E-1	1.038769E-1
5.339090E+2	1.541931E-1	1.269072E-1	1.296769E-1	1.533117E-1	1.801745E-1	1.517057E-1	1.636603E-1	1.446341E-1	1.944440E-1	1.252117E-1	1.587254E-1	1.485667E-1	1.784569E-1	1.444864E-1	1.479420E-1	1.453373E-1	1.539384E-1	1.543713E-1	1.619105E-1	1.551462E-1	1.526924E-1	1.411873E-1	1.463899E-1	1.617924E-1	1.594714E-1	1.403961E-1	1.435484E-1	1.617281E-1	1.330938E-1	1.531767E-1	1.590758E-1	1.558113E-1	1.732173E-1	1.562889E-1	1.594202E-1	1.686247E-1	1.458262E-1	1.537269E-1	1.712405E-1	1.739857E-1	1.528832E-1	1.740062E-1	1.663801E-1	1.584109E-1	1.434569E-1	1.566809E-1	1.557130E-1	1.701018E-1	1.286121E-1	1.173935E-1	1.688356E-1	1.447208E-1	1.591328E-1	1.337783E-1	1.600884E-1	1.529045E-1	1.727515E-1	1.408235E-1	1.687528E-1	1.450100E-1	1.437624E-1	1.500722E-1	1.586285E-1	1.565289E-1	1.542625E-1	1.575451E-1	1.621807E-1	1.972859E-1	1.607894E-1	1.469233E-1	1.642979E-1	1.615075E-1	1.786036E-1	1.743104E-1	1.693567E-1	1.447592E-1	1.714948E-1	1.593063E-1	1.724229E-1	1.397121E-1	1.579818E-1	1.565381E-1	1.456741E-1	1.434369E-1	1.577121E-1	1.334787E-1	1.340458E-1	1.392630E-1	1.830578E-1	1.335848E-1	1.694740E-1	1.539366E-1	1.630908E-1	1.627559E-1	1.461386E-1	1.648853E-1	1.604083E-1	1.435073E-1	1.499044E-1	1.443443E-1	1.514426E-1	1.367075E-1	1.610087E-1	1.457038E-1	1.883423E-1	1.277426E-1	1.613847E-1	1.713310E-1	1.512386E-1	1.481091E-1	1.604017E-1	1.845417E-1	1.791932E-1	1.359463E-1	1.761314E-1	1.586492E-1	1.494682E-1	1.503507E-1	1.461007E-1	1.641505E-1	2.089979E-1	1.696103E-1	1.631365E-1	1.672221E-1	1.692988E-1	1.237162E-1	1.522754E-1	1.673721E-1	1.568423E-1	1.428642E-1	1.577264E-1	1.691235E-1	1.586186E-1	1.280514E-1	1.551149E-1	1.365293E-1	1.621680E-1	1.538357E-1	1.513869E-1	1.708641E-1	1.635894E-1	1.608364E-1	1.486524E-1	1.668206E-1	1.682303E-1	1.745682E-1	1.499655E-1	1.408369E-1	1.588422E-1	1.494686E-1	1.473746E-1	1.608717E-1	1.656160E-1	1.569283E-1	1.539098E-1	1.780413E-1	1.500680E-1	1.453539E-1	1.520839E-1	1.547887E-1	1.291600E-1	1.468074E-1	1.423917E-1	1.817394E-1	1.680338E-1	1.534906E-1	1.442705E-1	1.666001E-1	1.740899E-1	1.718627E-1	1.601109E-1
5.340800E+2	2.599253E-1	2.502921E-1	2.378186E-1	2.263960E-1	2.966816E-1	2.720982E-1	2.608729E-1	2.485768E-1	2.963098E-1	2.219661E-1	2.320706E-1	2.566309E-1	2.681552E-1	2.397701E-1	2.749541E-1	2.543400E-1	2.662352E-1	2.732903E-1	2.819667E-1	2.830832E-1	2.773362E-1	2.570051E-1	2.492169E-1	2.529473E-1	2.669681E-1	2.773215E-1	2.545368E-1	2.574841E-1	2.327254E-1	2.666898E-1	2.739593E-1	2.582263E-1	3.055635E-1	2.379979E-1	2.698099E-1	2.716883E-1	2.760571E-1	2.425291E-1	2.689349E-1	2.638408E-1	2.544161E-1	2.868283E-1	2.701919E-1	2.775855E-1	2.537668E-1	2.536483E-1	2.565414E-1	2.525478E-1	2.185363E-1	2.154286E-1	2.837917E-1	2.641938E-1	2.628947E-1	2.238452E-1	2.636699E-1	2.579688E-1	2.886308E-1	2.487555E-1	2.804584E-1	3.002098E-1	2.698758E-1	2.655245E-1	2.546930E-1	2.686754E-1	2.707255E-1	2.794792E-1	2.567192E-1	2.683205E-1	2.782311E-1	2.366544E-1	2.711775E-1	2.900131E-1	2.900527E-1	2.668504E-1	2.947628E-1	2.399513E-1	3.377474E-1	2.574923E-1	2.863479E-1	2.386510E-1	2.947778E-1	2.808565E-1	2.509102E-1	2.011382E-1	2.777692E-1	2.421158E-1	2.345800E-1	2.316725E-1	2.748717E-1	2.526798E-1	2.787050E-1	2.954855E-1	2.914245E-1	2.710868E-1	2.485020E-1	2.493990E-1	2.774404E-1	2.489293E-1	2.577442E-1	2.366211E-1	2.916817E-1	2.370948E-1	2.724566E-1	2.558139E-1	2.781026E-1	2.511510E-1	2.906488E-1	2.856782E-1	2.762889E-1	2.554393E-1	2.705334E-1	2.965846E-1	2.768278E-1	2.354954E-1	2.930086E-1	2.642815E-1	2.813119E-1	2.321305E-1	2.409280E-1	2.550469E-1	2.978361E-1	2.342424E-1	2.904264E-1	2.747672E-1	2.780944E-1	2.461522E-1	2.824948E-1	2.707915E-1	2.741003E-1	2.273218E-1	2.748276E-1	2.698983E-1	2.643127E-1	2.308019E-1	2.833725E-1	2.338679E-1	2.811885E-1	2.331750E-1	2.706929E-1	2.461345E-1	2.608314E-1	2.688490E-1	2.688867E-1	2.584383E-1	3.092158E-1	2.813604E-1	2.945009E-1	2.697962E-1	2.819291E-1	2.404869E-1	2.559209E-1	2.894008E-1	2.626300E-1	2.606995E-1	2.726066E-1	2.747365E-1	2.628780E-1	2.743843E-1	2.611091E-1	2.835642E-1	2.377064E-1	2.885454E-1	2.719225E-1	2.923552E-1	2.693028E-1	2.487775E-1	2.356383E-1	2.605476E-1	3.144768E-1	2.426531E-1	2.889805E-1
5.342040E+2	4.242703E-1	3.965255E-1	3.958708E-1	4.187229E-1	4.529580E-1	4.070677E-1	4.148846E-1	4.066676E-1	5.443824E-1	3.833963E-1	4.822405E-1	4.411317E-1	4.818935E-1	4.209642E-1	4.458953E-1	4.320061E-1	4.741726E-1	4.480395E-1	4.521379E-1	4.811309E-1	4.519270E-1	4.215133E-1	4.361302E-1	4.404260E-1	4.679640E-1	4.361124E-1	4.385730E-1	4.361920E-1	4.350083E-1	4.414407E-1	4.196151E-1	4.634945E-1	4.796145E-1	4.441894E-1	4.726577E-1	4.368055E-1	4.477688E-1	4.009995E-1	4.681669E-1	4.764813E-1	4.604002E-1	4.460397E-1	5.031646E-1	4.495966E-1	4.189595E-1	4.190944E-1	4.671394E-1	4.663646E-1	4.025670E-1	3.758014E-1	5.008663E-1	4.568370E-1	4.713693E-1	3.717793E-1	4.510773E-1	4.188333E-1	4.918566E-1	4.180611E-1	4.536915E-1	4.730462E-1	4.497341E-1	4.273560E-1	4.447337E-1	4.435873E-1	4.746749E-1	4.746858E-1	4.722916E-1	4.825597E-1	4.398923E-1	3.904800E-1	4.567249E-1	4.810217E-1	4.843736E-1	4.360503E-1	4.787703E-1	4.201957E-1	4.955751E-1	4.239171E-1	4.807478E-1	4.301293E-1	5.235794E-1	4.622782E-1	4.508588E-1	3.851288E-1	4.636803E-1	4.216029E-1	3.543118E-1	4.237878E-1	4.676241E-1	4.497814E-1	4.734204E-1	5.211986E-1	4.489246E-1	4.312506E-1	4.642143E-1	4.749201E-1	5.003585E-1	4.562392E-1	4.722753E-1	4.484118E-1	4.652875E-1	4.197525E-1	4.553325E-1	4.176501E-1	4.771852E-1	4.304523E-1	4.751444E-1	4.694308E-1	4.399422E-1	4.395797E-1	4.553781E-1	4.968426E-1	4.473952E-1	3.631888E-1	4.753609E-1	4.665439E-1	4.671741E-1	4.078063E-1	4.520853E-1	4.661797E-1	4.567200E-1	4.404782E-1	4.698405E-1	5.066402E-1	4.779232E-1	4.300618E-1	4.561206E-1	4.582999E-1	4.798999E-1	3.781379E-1	4.899379E-1	4.691177E-1	4.497410E-1	4.089376E-1	4.258810E-1	4.542473E-1	4.907089E-1	4.454907E-1	4.490363E-1	4.550226E-1	4.553156E-1	4.498854E-1	4.518300E-1	4.389249E-1	4.587091E-1	4.418502E-1	4.828705E-1	4.705883E-1	4.445607E-1	4.106962E-1	4.174153E-1	4.542203E-1	4.538547E-1	4.371704E-1	4.358135E-1	5.009332E-1	4.295058E-1	4.650806E-1	4.574579E-1	4.569329E-1	3.843492E-1	4.436664E-1	4.571233E-1	4.782117E-1	4.419090E-1	3.985845E-1	4.859762E-1	4.628480E-1	4.983162E-1	4.621023E-1	5.045439E-1
5.343650E+2	7.523858E-1	7.398330E-1	6.942296E-1	6.951244E-1	8.853774E-1	7.331533E-1	7.261849E-1	6.977079E-1	8.685551E-1	6.669332E-1	8.296367E-1	7.985350E-1	7.914806E-1	7.375335E-1	7.538761E-1	7.487156E-1	8.083775E-1	7.724150E-1	7.836691E-1	7.753879E-1	7.660114E-1	6.999487E-1	7.729783E-1	7.909497E-1	8.106090E-1	7.313090E-1	8.026822E-1	7.518535E-1	7.313872E-1	7.650531E-1	7.175940E-1	7.803680E-1	8.304982E-1	7.781547E-1	7.657216E-1	7.886245E-1	8.201326E-1	7.100891E-1	7.947309E-1	8.034404E-1	8.087637E-1	7.816437E-1	8.453799E-1	7.971414E-1	7.536928E-1	7.817617E-1	7.894929E-1	7.898075E-1	6.801808E-1	7.610151E-1	8.358150E-1	7.998212E-1	7.874144E-1	6.611133E-1	7.655584E-1	7.631825E-1	8.284305E-1	7.519102E-1	7.917945E-1	7.887377E-1	7.642204E-1	7.539782E-1	7.809595E-1	7.311079E-1	7.716836E-1	7.806399E-1	8.046826E-1	8.741016E-1	7.579841E-1	7.089773E-1	8.180532E-1	8.045366E-1	8.495831E-1	7.662362E-1	8.069360E-1	7.130933E-1	8.438064E-1	7.572579E-1	7.725901E-1	7.121783E-1	8.486217E-1	7.680184E-1	7.747520E-1	6.861563E-1	7.635696E-1	7.207492E-1	6.407587E-1	7.627853E-1	8.052257E-1	7.749104E-1	7.863361E-1	8.015633E-1	7.697595E-1	7.329187E-1	7.658121E-1	7.840516E-1	8.096583E-1	7.825171E-1	8.049709E-1	7.352480E-1	8.125014E-1	7.096536E-1	7.861304E-1	7.372253E-1	8.483079E-1	7.857343E-1	7.812657E-1	8.448987E-1	7.536553E-1	7.625878E-1	7.841128E-1	8.147207E-1	8.008805E-1	6.493280E-1	8.339466E-1	7.474312E-1	7.679422E-1	6.819210E-1	7.531072E-1	7.831667E-1	8.621870E-1	7.377862E-1	8.138529E-1	8.255438E-1	8.403896E-1	7.143788E-1	7.684351E-1	8.226840E-1	8.310749E-1	6.858034E-1	7.814184E-1	7.959084E-1	7.519892E-1	6.862092E-1	7.689968E-1	7.085309E-1	8.378985E-1	7.388213E-1	8.100284E-1	7.811922E-1	8.002210E-1	7.607393E-1	7.778114E-1	7.705809E-1	8.069180E-1	7.839472E-1	8.051142E-1	7.850681E-1	7.787233E-1	7.166603E-1	7.441116E-1	7.309364E-1	8.256499E-1	7.525890E-1	7.942771E-1	8.324584E-1	7.006631E-1	7.796254E-1	8.000341E-1	7.877459E-1	7.157294E-1	8.086565E-1	7.999663E-1	7.494178E-1	7.477114E-1	7.311067E-1	7.669464E-1	7.991802E-1	8.885569E-1	7.440827E-1	8.841242E-1
5.345160E+2	1.202897E+0	1.137977E+0	1.125686E+0	1.156709E+0	1.282509E+0	1.283828E+0	1.197504E+0	1.171494E+0	1.377285E+0	1.105691E+0	1.293587E+0	1.242918E+0	1.279440E+0	1.177502E+0	1.258104E+0	1.208331E+0	1.334400E+0	1.388225E+0	1.275456E+0	1.305050E+0	1.240737E+0	1.254928E+0	1.213161E+0	1.265990E+0	1.270267E+0	1.347212E+0	1.264191E+0	1.216159E+0	1.183252E+0	1.263415E+0	1.200207E+0	1.220228E+0	1.326517E+0	1.223441E+0	1.289654E+0	1.292072E+0	1.286068E+0	1.091789E+0	1.324916E+0	1.274824E+0	1.255159E+0	1.274743E+0	1.339693E+0	1.262098E+0	1.193301E+0	1.252352E+0	1.257376E+0	1.276328E+0	1.053470E+0	1.325247E+0	1.314896E+0	1.315442E+0	1.212932E+0	1.120316E+0	1.259971E+0	1.235216E+0	1.358913E+0	1.176231E+0	1.252953E+0	1.238465E+0	1.292086E+0	1.144741E+0	1.259195E+0	1.184310E+0	1.309419E+0	1.294664E+0	1.299656E+0	1.371909E+0	1.205879E+0	1.106852E+0	1.242316E+0	1.303059E+0	1.330244E+0	1.198820E+0	1.261680E+0	1.113575E+0	1.306617E+0	1.178474E+0	1.241865E+0	1.111379E+0	1.371597E+0	1.216517E+0	1.239544E+0	1.092242E+0	1.247344E+0	1.094944E+0	1.007027E+0	1.182035E+0	1.269997E+0	1.213775E+0	1.267058E+0	1.262281E+0	1.299135E+0	1.178165E+0	1.221206E+0	1.205267E+0	1.302308E+0	1.218928E+0	1.279922E+0	1.112137E+0	1.273355E+0	1.112186E+0	1.260799E+0	1.138743E+0	1.341988E+0	1.180308E+0	1.285396E+0	1.286927E+0	1.245702E+0	1.189875E+0	1.280537E+0	1.326268E+0	1.249648E+0	1.094952E+0	1.313082E+0	1.225179E+0	1.206961E+0	1.081229E+0	1.163844E+0	1.295177E+0	1.283600E+0	1.184335E+0	1.302714E+0	1.348968E+0	1.272243E+0	1.173896E+0	1.284547E+0	1.243611E+0	1.310875E+0	1.046117E+0	1.347196E+0	1.297454E+0	1.205827E+0	1.070879E+0	1.187204E+0	1.121947E+0	1.301915E+0	1.180773E+0	1.195619E+0	1.259652E+0	1.222111E+0	1.188735E+0	1.196560E+0	1.189731E+0	1.238990E+0	1.269038E+0	1.254714E+0	1.205884E+0	1.163802E+0	1.117756E+0	1.209006E+0	1.200194E+0	1.249036E+0	1.178229E+0	1.293395E+0	1.288306E+0	1.210377E+0	1.263620E+0	1.233552E+0	1.240051E+0	1.050241E+0	1.269153E+0	1.237617E+0	1.255331E+0	1.173242E+0	1.115202E+0	1.247025E+0	1.215054E+0	1.302195E+0	1.160564E+0	1.364456E+0
5.346620E+2	1.662028E+0	1.523552E+0	1.523867E+0	1.562241E+0	1.835919E+0	1.731389E+0	1.626769E+0	1.597905E+0	1.891407E+0	1.454937E+0	1.663726E+0	1.654092E+0	1.716656E+0	1.619033E+0	1.614791E+0	1.600140E+0	1.742215E+0	1.798579E+0	1.682436E+0	1.657647E+0	1.599819E+0	1.743253E+0	1.608258E+0	1.622153E+0	1.647067E+0	1.798596E+0	1.684356E+0	1.654856E+0	1.547564E+0	1.612917E+0	1.544342E+0	1.625075E+0	1.755249E+0	1.775113E+0	1.701511E+0	1.683822E+0	1.649270E+0	1.769335E+0	1.686061E+0	1.666705E+0	1.633866E+0	1.784449E+0	1.730194E+0	1.732928E+0	1.539991E+0	1.701577E+0	1.631384E+0	1.694453E+0	1.412119E+0	1.731776E+0	1.739126E+0	1.644136E+0	1.583716E+0	1.618717E+0	1.635859E+0	1.560464E+0	1.803798E+0	1.685735E+0	1.678868E+0	1.631755E+0	1.658189E+0	1.563135E+0	1.615258E+0	1.588131E+0	1.687785E+0	1.726470E+0	1.688044E+0	1.745832E+0	1.583881E+0	1.570792E+0	1.674717E+0	1.704078E+0	1.731460E+0	1.686160E+0	1.725800E+0	1.475193E+0	1.727865E+0	1.563855E+0	1.675266E+0	1.490890E+0	1.743851E+0	1.600771E+0	1.662243E+0	1.501595E+0	1.630311E+0	1.535791E+0	1.322776E+0	1.606632E+0	1.663485E+0	1.571059E+0	1.650681E+0	1.721357E+0	1.666154E+0	1.563802E+0	1.614681E+0	1.605239E+0	1.708020E+0	1.635315E+0	1.729633E+0	1.461230E+0	1.670865E+0	1.406494E+0	1.656944E+0	1.499800E+0	1.739578E+0	1.566579E+0	1.733710E+0	1.654432E+0	1.550715E+0	1.512881E+0	1.631964E+0	1.772407E+0	1.640187E+0	1.358680E+0	1.671054E+0	1.611701E+0	1.585094E+0	1.398757E+0	1.630815E+0	1.690981E+0	1.770501E+0	1.477532E+0	1.707078E+0	1.696468E+0	1.709644E+0	1.556062E+0	1.577805E+0	1.621526E+0	1.763754E+0	1.343362E+0	1.697863E+0	1.673758E+0	1.598935E+0	1.484982E+0	1.561562E+0	1.517317E+0	1.705049E+0	1.566292E+0	1.635943E+0	1.639502E+0	1.619182E+0	1.537116E+0	1.596650E+0	1.599261E+0	1.646754E+0	1.597862E+0	1.619012E+0	1.630657E+0	1.604737E+0	1.493143E+0	1.562706E+0	1.545461E+0	1.608492E+0	1.574558E+0	1.669665E+0	1.709620E+0	1.603140E+0	1.599931E+0	1.594732E+0	1.608631E+0	1.409280E+0	1.705925E+0	1.622899E+0	1.684880E+0	1.550382E+0	1.474249E+0	1.547009E+0	1.584581E+0	1.751765E+0	1.522773E+0	1.697175E+0
5.348120E+2	1.905099E+0	1.691492E+0	1.753460E+0	1.684236E+0	2.049886E+0	1.928440E+0	1.790616E+0	1.710549E+0	2.117310E+0	1.609641E+0	1.843394E+0	1.854933E+0	1.943205E+0	1.820012E+0	1.843508E+0	1.741329E+0	1.995288E+0	2.035859E+0	1.881246E+0	1.966742E+0	1.808160E+0	1.894998E+0	1.804801E+0	1.784726E+0	1.817827E+0	2.112013E+0	1.875189E+0	1.805171E+0	1.791107E+0	1.911140E+0	1.775137E+0	1.880238E+0	1.950985E+0	1.939629E+0	1.910523E+0	1.947682E+0	1.926610E+0	2.022496E+0	1.929749E+0	1.878404E+0	1.874279E+0	2.059344E+0	1.956525E+0	1.943689E+0	1.720939E+0	1.850041E+0	1.858376E+0	1.902830E+0	1.622812E+0	2.008830E+0	1.928774E+0	1.915663E+0	1.740307E+0	1.946784E+0	1.887334E+0	1.851526E+0	1.937726E+0	1.958208E+0	1.860465E+0	1.812825E+0	1.893921E+0	1.741742E+0	1.850199E+0	1.819809E+0	1.837682E+0	1.955797E+0	1.933123E+0	1.969736E+0	1.746968E+0	1.948453E+0	1.925912E+0	1.889586E+0	2.020654E+0	1.946805E+0	1.898671E+0	1.694302E+0	1.963764E+0	1.791643E+0	1.893903E+0	1.665140E+0	2.015627E+0	1.982651E+0	1.907792E+0	1.584882E+0	1.875493E+0	1.856452E+0	1.480903E+0	1.755458E+0	1.827151E+0	1.905122E+0	1.852256E+0	1.903348E+0	1.844067E+0	1.747292E+0	1.804929E+0	1.809067E+0	1.944872E+0	1.847337E+0	1.893116E+0	1.685254E+0	1.886542E+0	1.691988E+0	1.870216E+0	1.701585E+0	1.975486E+0	1.781852E+0	1.932306E+0	1.928071E+0	1.816040E+0	1.740262E+0	1.879346E+0	1.882427E+0	1.842517E+0	1.529635E+0	1.839948E+0	1.785152E+0	1.769129E+0	1.612294E+0	1.797315E+0	1.864146E+0	1.943621E+0	1.754275E+0	1.939165E+0	1.927100E+0	1.932229E+0	1.708208E+0	1.754609E+0	1.915841E+0	1.951603E+0	1.905500E+0	1.910427E+0	1.885792E+0	1.751911E+0	1.683254E+0	1.831778E+0	1.645827E+0	1.889889E+0	1.761287E+0	1.839498E+0	1.796462E+0	1.870389E+0	1.720688E+0	1.783222E+0	1.855795E+0	1.820556E+0	1.812651E+0	1.868990E+0	1.886313E+0	1.796536E+0	1.619644E+0	1.709901E+0	1.717840E+0	1.838974E+0	1.735782E+0	1.915958E+0	1.818399E+0	1.689561E+0	1.750206E+0	1.788495E+0	1.785187E+0	1.581493E+0	1.759456E+0	1.859916E+0	1.818513E+0	1.740946E+0	1.659420E+0	1.768300E+0	1.838240E+0	1.872097E+0	1.765820E+0	2.004119E+0
5.349630E+2	2.111965E+0	1.917703E+0	1.888776E+0	1.917777E+0	2.189359E+0	2.127657E+0	2.023268E+0	1.931006E+0	2.298874E+0	1.795908E+0	2.111760E+0	2.049449E+0	2.145667E+0	1.984544E+0	2.014926E+0	1.925433E+0	2.154866E+0	2.216748E+0	2.129065E+0	2.114127E+0	1.938201E+0	2.162087E+0	1.982593E+0	2.002749E+0	2.086569E+0	2.277052E+0	2.052999E+0	2.034543E+0	1.918919E+0	2.029136E+0	1.998749E+0	2.004975E+0	2.146175E+0	2.204497E+0	2.107203E+0	2.036180E+0	2.077583E+0	2.243766E+0	2.175629E+0	2.017658E+0	2.090766E+0	2.220848E+0	2.167171E+0	2.119218E+0	1.957861E+0	2.004531E+0	1.996951E+0	2.090829E+0	1.693916E+0	2.178797E+0	2.214706E+0	2.039141E+0	1.974485E+0	2.085387E+0	2.025088E+0	1.934974E+0	2.114750E+0	2.062972E+0	2.067149E+0	2.024460E+0	2.063136E+0	1.998796E+0	1.986990E+0	1.961030E+0	2.124661E+0	2.123036E+0	2.113171E+0	2.152718E+0	1.914334E+0	2.168347E+0	2.110372E+0	2.060591E+0	2.156681E+0	2.152692E+0	2.099091E+0	1.859337E+0	2.128335E+0	1.982127E+0	2.027706E+0	1.876797E+0	2.222637E+0	2.184294E+0	2.090790E+0	1.791191E+0	2.011759E+0	2.191286E+0	1.625895E+0	1.963138E+0	2.025037E+0	2.171894E+0	2.010563E+0	2.116491E+0	2.012263E+0	2.011123E+0	1.999169E+0	1.935159E+0	2.063576E+0	2.170081E+0	2.111090E+0	1.875362E+0	2.050961E+0	2.049464E+0	1.988756E+0	1.816308E+0	2.222898E+0	2.159823E+0	2.093887E+0	2.052656E+0	2.042764E+0	1.947800E+0	2.028770E+0	2.070010E+0	1.930151E+0	1.754795E+0	2.056565E+0	2.009622E+0	1.932557E+0	1.833404E+0	1.975392E+0	2.079874E+0	2.181662E+0	1.953457E+0	2.071395E+0	2.133486E+0	2.120956E+0	1.857285E+0	1.970580E+0	2.059367E+0	2.155608E+0	2.070570E+0	2.035166E+0	2.033165E+0	2.000386E+0	1.939355E+0	1.941950E+0	1.835034E+0	2.049498E+0	1.979195E+0	2.078109E+0	2.023437E+0	1.947878E+0	1.901724E+0	1.979640E+0	1.963899E+0	1.982202E+0	1.996067E+0	2.045511E+0	1.993779E+0	1.951257E+0	1.806309E+0	1.970412E+0	1.888201E+0	2.013932E+0	1.889972E+0	2.004984E+0	2.115390E+0	1.951922E+0	2.002048E+0	1.948673E+0	1.987680E+0	1.688474E+0	2.037459E+0	1.956374E+0	1.954961E+0	1.919540E+0	1.785158E+0	1.909312E+0	1.944712E+0	2.096884E+0	1.920378E+0	2.067382E+0
5.351140E+2	2.041288E+0	1.948549E+0	1.856052E+0	1.882055E+0	2.160231E+0	2.157351E+0	1.963193E+0	1.866706E+0	2.231159E+0	1.869898E+0	1.991792E+0	1.978286E+0	2.144130E+0	1.873643E+0	1.974817E+0	1.874793E+0	2.218806E+0	2.153101E+0	2.039852E+0	2.003078E+0	1.970154E+0	2.092125E+0	1.909655E+0	1.970796E+0	1.931483E+0	2.152623E+0	1.998070E+0	2.005037E+0	1.899795E+0	2.032119E+0	1.939769E+0	2.013290E+0	2.120590E+0	2.057530E+0	2.094316E+0	2.076107E+0	2.055881E+0	2.187343E+0	2.124039E+0	2.001663E+0	2.097765E+0	2.138952E+0	2.130352E+0	2.086931E+0	1.892110E+0	1.995767E+0	1.930895E+0	2.052775E+0	1.749858E+0	2.130844E+0	2.078742E+0	2.050003E+0	1.933549E+0	2.069048E+0	1.887871E+0	1.976700E+0	2.077481E+0	2.062440E+0	2.030711E+0	1.938630E+0	2.012586E+0	1.900117E+0	1.993252E+0	1.945803E+0	1.982567E+0	2.102342E+0	2.127623E+0	2.090777E+0	1.901022E+0	2.125947E+0	2.062628E+0	2.045094E+0	2.141248E+0	2.119831E+0	2.114328E+0	1.795127E+0	2.102495E+0	1.957579E+0	1.935112E+0	1.806411E+0	2.148791E+0	2.103995E+0	2.007185E+0	1.725868E+0	1.977818E+0	2.201782E+0	1.702178E+0	1.875107E+0	1.974285E+0	2.252879E+0	1.948297E+0	2.078782E+0	1.998167E+0	1.947364E+0	1.959720E+0	1.977188E+0	2.094225E+0	2.040515E+0	2.014724E+0	1.830892E+0	2.013237E+0	2.048487E+0	1.944174E+0	1.843961E+0	2.056615E+0	1.982181E+0	2.062157E+0	2.082810E+0	1.955229E+0	1.958483E+0	1.913656E+0	2.053787E+0	1.975439E+0	1.693811E+0	2.059627E+0	1.955602E+0	1.910127E+0	1.944969E+0	1.896553E+0	1.972301E+0	2.107631E+0	1.929367E+0	1.999515E+0	2.146538E+0	2.059902E+0	1.905438E+0	1.864181E+0	2.005241E+0	2.046724E+0	2.013535E+0	2.002711E+0	2.084426E+0	1.974892E+0	2.065340E+0	1.888235E+0	1.865112E+0	1.974902E+0	2.085349E+0	1.996321E+0	1.886320E+0	1.978774E+0	1.906790E+0	1.923154E+0	1.889690E+0	2.005901E+0	2.073901E+0	1.990421E+0	2.011876E+0	1.886005E+0	2.070621E+0	1.830628E+0	1.804533E+0	1.891686E+0	2.111003E+0	1.983618E+0	2.040570E+0	1.841183E+0	1.960593E+0	1.904236E+0	1.941719E+0	1.678037E+0	1.949860E+0	1.929915E+0	1.971241E+0	1.778860E+0	1.926614E+0	1.853330E+0	1.897115E+0	2.024184E+0	1.942796E+0	2.118930E+0
5.352600E+2	1.786149E+0	1.655510E+0	1.612600E+0	1.630383E+0	1.902010E+0	1.894430E+0	1.742552E+0	1.742940E+0	2.077759E+0	1.623614E+0	1.879212E+0	1.839117E+0	1.830955E+0	1.705465E+0	1.806739E+0	1.700558E+0	1.927587E+0	1.988400E+0	1.861420E+0	1.848018E+0	1.742462E+0	1.900200E+0	1.736415E+0	1.746669E+0	1.842462E+0	1.966238E+0	1.844045E+0	1.777894E+0	1.740789E+0	1.796133E+0	1.771033E+0	1.795326E+0	1.901497E+0	1.934694E+0	1.886988E+0	1.926639E+0	1.845576E+0	1.904254E+0	1.936882E+0	1.829949E+0	1.869026E+0	1.912731E+0	1.877456E+0	1.889679E+0	1.693773E+0	1.827581E+0	1.853902E+0	1.837145E+0	1.512500E+0	1.929445E+0	1.855247E+0	1.831632E+0	1.773623E+0	1.829183E+0	1.734097E+0	1.789696E+0	1.944130E+0	1.815888E+0	1.841349E+0	1.783430E+0	1.774196E+0	1.745192E+0	1.850201E+0	1.729353E+0	1.887279E+0	1.846724E+0	1.910847E+0	1.920296E+0	1.693716E+0	1.882387E+0	1.829882E+0	1.834082E+0	1.923492E+0	1.906832E+0	1.827180E+0	1.688670E+0	1.877267E+0	1.769553E+0	1.825549E+0	1.613946E+0	1.962361E+0	1.939822E+0	1.803145E+0	1.607745E+0	1.755433E+0	1.977684E+0	1.785535E+0	1.686880E+0	1.810049E+0	1.974195E+0	1.922967E+0	1.849245E+0	1.761917E+0	1.793422E+0	1.807924E+0	1.721390E+0	1.850131E+0	1.844393E+0	1.863286E+0	1.646895E+0	1.794179E+0	1.843306E+0	1.813985E+0	1.666757E+0	1.967428E+0	1.845493E+0	1.845348E+0	1.850698E+0	1.742639E+0	1.756028E+0	1.747631E+0	1.799789E+0	1.785463E+0	1.525984E+0	1.865647E+0	1.799557E+0	1.685811E+0	1.753136E+0	1.746039E+0	1.804891E+0	1.885533E+0	1.746046E+0	1.887588E+0	1.892289E+0	1.895037E+0	1.687202E+0	1.790601E+0	1.831748E+0	1.925284E+0	1.937307E+0	1.867152E+0	1.910839E+0	1.815422E+0	1.888754E+0	1.761623E+0	1.647467E+0	1.843814E+0	1.867446E+0	1.838270E+0	1.732278E+0	1.812653E+0	1.743506E+0	1.758865E+0	1.722032E+0	1.758569E+0	1.848249E+0	1.796129E+0	1.822966E+0	1.693715E+0	1.933838E+0	1.696137E+0	1.727419E+0	1.768878E+0	1.875317E+0	1.774711E+0	1.817251E+0	1.760971E+0	1.812906E+0	1.752843E+0	1.777453E+0	1.517304E+0	1.893895E+0	1.765105E+0	1.824132E+0	1.647659E+0	1.856867E+0	1.665840E+0	1.748052E+0	1.909702E+0	1.842510E+0	1.929139E+0
5.354170E+2	1.589626E+0	1.480711E+0	1.407407E+0	1.488061E+0	1.727811E+0	1.601276E+0	1.507163E+0	1.516201E+0	1.734411E+0	1.413548E+0	1.605164E+0	1.509124E+0	1.653097E+0	1.527396E+0	1.541733E+0	1.486418E+0	1.620784E+0	1.771222E+0	1.649397E+0	1.651504E+0	1.567873E+0	1.668560E+0	1.553557E+0	1.537577E+0	1.540690E+0	1.690306E+0	1.540523E+0	1.588609E+0	1.526932E+0	1.582548E+0	1.494080E+0	1.542794E+0	1.647928E+0	1.625952E+0	1.605691E+0	1.619606E+0	1.564378E+0	1.665323E+0	1.614706E+0	1.572618E+0	1.600022E+0	1.749512E+0	1.643883E+0	1.618449E+0	1.464456E+0	1.573933E+0	1.582212E+0	1.650058E+0	1.366114E+0	1.669969E+0	1.644593E+0	1.596118E+0	1.510888E+0	1.656515E+0	1.524799E+0	1.563984E+0	1.670448E+0	1.619070E+0	1.599419E+0	1.578259E+0	1.640098E+0	1.495045E+0	1.574015E+0	1.505059E+0	1.634291E+0	1.657671E+0	1.614585E+0	1.692986E+0	1.486888E+0	1.692573E+0	1.617751E+0	1.583073E+0	1.672593E+0	1.654398E+0	1.639660E+0	1.421117E+0	1.678438E+0	1.543726E+0	1.574912E+0	1.415579E+0	1.708139E+0	1.628136E+0	1.637103E+0	1.407420E+0	1.589281E+0	1.702682E+0	1.621347E+0	1.523950E+0	1.543161E+0	1.716355E+0	1.591054E+0	1.662881E+0	1.592748E+0	1.556024E+0	1.487848E+0	1.504907E+0	1.670124E+0	1.602332E+0	1.591398E+0	1.467348E+0	1.605097E+0	1.623918E+0	1.555121E+0	1.455246E+0	1.662476E+0	1.673387E+0	1.601507E+0	1.677758E+0	1.552349E+0	1.501182E+0	1.521277E+0	1.640089E+0	1.596665E+0	1.316463E+0	1.558462E+0	1.503666E+0	1.488503E+0	1.486596E+0	1.492431E+0	1.580524E+0	1.641230E+0	1.565667E+0	1.664286E+0	1.616900E+0	1.664130E+0	1.512004E+0	1.513755E+0	1.639410E+0	1.592056E+0	1.639513E+0	1.626586E+0	1.604435E+0	1.524763E+0	1.651241E+0	1.474962E+0	1.483415E+0	1.613453E+0	1.644515E+0	1.532013E+0	1.585238E+0	1.601960E+0	1.484377E+0	1.539642E+0	1.582316E+0	1.578693E+0	1.646732E+0	1.555039E+0	1.596155E+0	1.510818E+0	1.706034E+0	1.496519E+0	1.497578E+0	1.522133E+0	1.731680E+0	1.564025E+0	1.610622E+0	1.484124E+0	1.585418E+0	1.493454E+0	1.593163E+0	1.337784E+0	1.661516E+0	1.538564E+0	1.570331E+0	1.472556E+0	1.644192E+0	1.479407E+0	1.541366E+0	1.633942E+0	1.650196E+0	1.570647E+0
5.355630E+2	1.363220E+0	1.238512E+0	1.232163E+0	1.234738E+0	1.472952E+0	1.458210E+0	1.299633E+0	1.283658E+0	1.487539E+0	1.196238E+0	1.419809E+0	1.285618E+0	1.361964E+0	1.282157E+0	1.359809E+0	1.300596E+0	1.446158E+0	1.441822E+0	1.366878E+0	1.402794E+0	1.320384E+0	1.414709E+0	1.265841E+0	1.283847E+0	1.350892E+0	1.468519E+0	1.298732E+0	1.338083E+0	1.331695E+0	1.313200E+0	1.275088E+0	1.313456E+0	1.341533E+0	1.416471E+0	1.370343E+0	1.365994E+0	1.337197E+0	1.468092E+0	1.444567E+0	1.286115E+0	1.412126E+0	1.423643E+0	1.422982E+0	1.461704E+0	1.273178E+0	1.289059E+0	1.320455E+0	1.366931E+0	1.165874E+0	1.415293E+0	1.356913E+0	1.361172E+0	1.265290E+0	1.339650E+0	1.313368E+0	1.283980E+0	1.413652E+0	1.364583E+0	1.355697E+0	1.292550E+0	1.372438E+0	1.275983E+0	1.389716E+0	1.339376E+0	1.440369E+0	1.463584E+0	1.405030E+0	1.377591E+0	1.248195E+0	1.414009E+0	1.310674E+0	1.345062E+0	1.470838E+0	1.381706E+0	1.372435E+0	1.248758E+0	1.425130E+0	1.320844E+0	1.358214E+0	1.218686E+0	1.441205E+0	1.403290E+0	1.311457E+0	1.190225E+0	1.286855E+0	1.432400E+0	1.375821E+0	1.314324E+0	1.390895E+0	1.516275E+0	1.357289E+0	1.382512E+0	1.312747E+0	1.358542E+0	1.332557E+0	1.323675E+0	1.409867E+0	1.409158E+0	1.339581E+0	1.199410E+0	1.370074E+0	1.416777E+0	1.335772E+0	1.235536E+0	1.447857E+0	1.387834E+0	1.390571E+0	1.425737E+0	1.358248E+0	1.283470E+0	1.347501E+0	1.426143E+0	1.361399E+0	1.125704E+0	1.360198E+0	1.359620E+0	1.275632E+0	1.296281E+0	1.289546E+0	1.294603E+0	1.420841E+0	1.389983E+0	1.309847E+0	1.436620E+0	1.352726E+0	1.286602E+0	1.244847E+0	1.371676E+0	1.372494E+0	1.387786E+0	1.361199E+0	1.387159E+0	1.296687E+0	1.429730E+0	1.268872E+0	1.282721E+0	1.364441E+0	1.414318E+0	1.385647E+0	1.309832E+0	1.265159E+0	1.291170E+0	1.355663E+0	1.299671E+0	1.393344E+0	1.427115E+0	1.396879E+0	1.338802E+0	1.287383E+0	1.480801E+0	1.263544E+0	1.276809E+0	1.301188E+0	1.408051E+0	1.384791E+0	1.371763E+0	1.249705E+0	1.376587E+0	1.287288E+0	1.283281E+0	1.136870E+0	1.351883E+0	1.325805E+0	1.332817E+0	1.255053E+0	1.468356E+0	1.256003E+0	1.360987E+0	1.387430E+0	1.325742E+0	1.394917E+0
5.357090E+2	1.112106E+0	1.054577E+0	1.065238E+0	1.013838E+0	1.182245E+0	1.187731E+0	1.179482E+0	9.795635E-1	1.180744E+0	9.478832E-1	1.124724E+0	1.049983E+0	1.137460E+0	1.016094E+0	1.114859E+0	1.026801E+0	1.131835E+0	1.139780E+0	1.116302E+0	1.139754E+0	1.106195E+0	1.184966E+0	1.090579E+0	1.098715E+0	1.102305E+0	1.228506E+0	1.157731E+0	1.094238E+0	1.032799E+0	1.107086E+0	1.058141E+0	1.080175E+0	1.138564E+0	1.177377E+0	1.159089E+0	1.085404E+0	1.099886E+0	1.206106E+0	1.136114E+0	1.109697E+0	1.143706E+0	1.175663E+0	1.152589E+0	1.125313E+0	1.017240E+0	1.119776E+0	1.098436E+0	1.127746E+0	9.368822E-1	1.159550E+0	1.129332E+0	1.127944E+0	1.050150E+0	1.120314E+0	1.105669E+0	1.055251E+0	1.188297E+0	1.119091E+0	1.123327E+0	1.119125E+0	1.111698E+0	1.072212E+0	1.151643E+0	1.091548E+0	1.156179E+0	1.172732E+0	1.167783E+0	1.132666E+0	1.006181E+0	1.138405E+0	1.126756E+0	1.121550E+0	1.201074E+0	1.167061E+0	1.109317E+0	1.035844E+0	1.142049E+0	1.089615E+0	1.104184E+0	9.686313E-1	1.179112E+0	1.133241E+0	1.170557E+0	9.523442E-1	1.171865E+0	1.203056E+0	1.116149E+0	1.021533E+0	1.091503E+0	1.167924E+0	1.141996E+0	1.108708E+0	1.115871E+0	1.099896E+0	1.095873E+0	1.038498E+0	1.107254E+0	1.152966E+0	1.090631E+0	1.016525E+0	1.119575E+0	1.139608E+0	1.101224E+0	9.958562E-1	1.172825E+0	1.139356E+0	1.177872E+0	1.156652E+0	1.079330E+0	1.029133E+0	1.038690E+0	1.171637E+0	1.072023E+0	9.484963E-1	1.096460E+0	1.099140E+0	1.106247E+0	1.061540E+0	1.043103E+0	1.106482E+0	1.168565E+0	1.134392E+0	1.162255E+0	1.168691E+0	1.166221E+0	1.043265E+0	1.048989E+0	1.148407E+0	1.166696E+0	1.131123E+0	1.173453E+0	1.160562E+0	1.061656E+0	1.143167E+0	1.074294E+0	1.024061E+0	1.102816E+0	1.146691E+0	1.108907E+0	1.104444E+0	1.069156E+0	1.087315E+0	1.135406E+0	1.088952E+0	1.150266E+0	1.182759E+0	1.079969E+0	1.099548E+0	1.113381E+0	1.192833E+0	1.082456E+0	1.047975E+0	1.115571E+0	1.148915E+0	1.127221E+0	1.125421E+0	1.087218E+0	1.112305E+0	1.092491E+0	1.103542E+0	9.401284E-1	1.173039E+0	1.078320E+0	1.096987E+0	1.030567E+0	1.176598E+0	1.044220E+0	1.065365E+0	1.173508E+0	1.160565E+0	1.064540E+0
5.358650E+2	9.132827E-1	8.883515E-1	8.439638E-1	8.764610E-1	9.878808E-1	9.582821E-1	1.031477E+0	8.509638E-1	1.060902E+0	8.392290E-1	1.005324E+0	8.544122E-1	9.232090E-1	8.828010E-1	9.262494E-1	8.632974E-1	9.496884E-1	1.023093E+0	1.006709E+0	8.987200E-1	8.834554E-1	9.835846E-1	1.079942E+0	9.023094E-1	9.477781E-1	1.019216E+0	1.060899E+0	8.654250E-1	8.697650E-1	9.482669E-1	9.027410E-1	8.902251E-1	9.856435E-1	9.788622E-1	9.472760E-1	9.488852E-1	8.920004E-1	1.022613E+0	1.026894E+0	9.022332E-1	9.406401E-1	1.008434E+0	1.001097E+0	8.957687E-1	8.726967E-1	8.814682E-1	9.047252E-1	9.370337E-1	7.936312E-1	9.773316E-1	9.723618E-1	9.232966E-1	9.159261E-1	9.462478E-1	9.625767E-1	8.863440E-1	9.443100E-1	9.148665E-1	9.919087E-1	8.998465E-1	9.196009E-1	9.167964E-1	9.407189E-1	8.820214E-1	9.511149E-1	1.020034E+0	9.612427E-1	9.638889E-1	8.806561E-1	9.688044E-1	9.043161E-1	9.495428E-1	9.930379E-1	9.606247E-1	9.563691E-1	8.398277E-1	9.482756E-1	8.775353E-1	8.792435E-1	8.209615E-1	1.033842E+0	9.482503E-1	9.179902E-1	8.195219E-1	8.897060E-1	1.003101E+0	9.484234E-1	8.620044E-1	9.050234E-1	9.785628E-1	8.971497E-1	9.338210E-1	9.199685E-1	9.044858E-1	9.310917E-1	8.780567E-1	9.183309E-1	9.497790E-1	9.346080E-1	8.464245E-1	9.483886E-1	9.765384E-1	8.687033E-1	8.094374E-1	9.898527E-1	9.390262E-1	9.875006E-1	9.649354E-1	9.455802E-1	8.597443E-1	8.864969E-1	9.470432E-1	9.302758E-1	8.046447E-1	9.544953E-1	9.184837E-1	8.764383E-1	8.813223E-1	8.870795E-1	9.799172E-1	9.851934E-1	9.522474E-1	9.307184E-1	1.007686E+0	9.719435E-1	9.090464E-1	9.060655E-1	9.420515E-1	9.638871E-1	9.539822E-1	9.666171E-1	9.345462E-1	9.216566E-1	1.003239E+0	8.819071E-1	8.982864E-1	9.563702E-1	9.567240E-1	9.373280E-1	9.544877E-1	9.248124E-1	8.611459E-1	9.244767E-1	9.057169E-1	9.503351E-1	9.631412E-1	9.431334E-1	9.609731E-1	9.215824E-1	9.984572E-1	9.315512E-1	8.922282E-1	9.456554E-1	9.671684E-1	9.841922E-1	9.723211E-1	8.662556E-1	9.153928E-1	9.100929E-1	9.278973E-1	8.112297E-1	9.528277E-1	9.057959E-1	8.892312E-1	8.948758E-1	9.914269E-1	8.646521E-1	8.943801E-1	9.620917E-1	9.127988E-1	9.801899E-1
5.360070E+2	9.167306E-1	7.335489E-1	7.513506E-1	6.934760E-1	8.909788E-1	8.281721E-1	8.933039E-1	7.291330E-1	8.961192E-1	7.041864E-1	8.404394E-1	7.769225E-1	8.391492E-1	7.323269E-1	7.968502E-1	7.564401E-1	7.879596E-1	8.857506E-1	8.734360E-1	7.866462E-1	7.835607E-1	8.228572E-1	9.087306E-1	7.721549E-1	7.926934E-1	8.750023E-1	8.813929E-1	7.318114E-1	7.962991E-1	7.725210E-1	7.750362E-1	7.698643E-1	8.227130E-1	8.461540E-1	8.077478E-1	8.091290E-1	7.974629E-1	8.244035E-1	8.891333E-1	7.935607E-1	8.087635E-1	8.463596E-1	8.502086E-1	8.053599E-1	7.395642E-1	7.614922E-1	7.835326E-1	7.848243E-1	6.702472E-1	8.388039E-1	8.533216E-1	8.232592E-1	7.464805E-1	8.025141E-1	9.193288E-1	7.692150E-1	7.946564E-1	8.027015E-1	8.819951E-1	7.793321E-1	7.546419E-1	7.490450E-1	8.514416E-1	7.583368E-1	8.118048E-1	8.499974E-1	8.648979E-1	8.246615E-1	7.313577E-1	8.233605E-1	9.292731E-1	7.995365E-1	8.392959E-1	8.423488E-1	9.112458E-1	6.961955E-1	8.061747E-1	7.739494E-1	8.254322E-1	7.141472E-1	8.704117E-1	8.602160E-1	8.069076E-1	6.905110E-1	7.539451E-1	8.188902E-1	8.297023E-1	7.608397E-1	8.052258E-1	8.469631E-1	8.179974E-1	8.092147E-1	8.217737E-1	7.743849E-1	7.982689E-1	8.052931E-1	8.269342E-1	8.184435E-1	8.124282E-1	7.641539E-1	8.052474E-1	8.085723E-1	8.226044E-1	7.607839E-1	8.747754E-1	8.344333E-1	8.188699E-1	8.266944E-1	7.911705E-1	7.636052E-1	7.752590E-1	8.390560E-1	7.708841E-1	7.066595E-1	8.045747E-1	8.296561E-1	7.464262E-1	7.949994E-1	8.104445E-1	7.751125E-1	8.644648E-1	8.077056E-1	8.352510E-1	8.317607E-1	8.742495E-1	7.471649E-1	7.398501E-1	8.183346E-1	8.418436E-1	8.525240E-1	8.393324E-1	8.133839E-1	8.020552E-1	8.638287E-1	7.465243E-1	7.435290E-1	7.792105E-1	8.360396E-1	7.928086E-1	8.121175E-1	7.657810E-1	7.931942E-1	7.643363E-1	8.058541E-1	8.069182E-1	8.352312E-1	8.217005E-1	7.845021E-1	7.752631E-1	8.884121E-1	7.494060E-1	8.045262E-1	7.746190E-1	8.393593E-1	7.646030E-1	8.462714E-1	7.756974E-1	7.936168E-1	7.803994E-1	7.932061E-1	7.272101E-1	8.670546E-1	8.115418E-1	8.016365E-1	7.761470E-1	8.661782E-1	7.680031E-1	7.866537E-1	8.183634E-1	8.325713E-1	8.302328E-1
5.362630E+2	6.840044E-1	5.758908E-1	6.127077E-1	5.593970E-1	6.613257E-1	6.111411E-1	6.699325E-1	5.782946E-1	6.768081E-1	5.205077E-1	6.891999E-1	5.924219E-1	6.397624E-1	5.818519E-1	6.216115E-1	5.401512E-1	6.230066E-1	6.724783E-1	6.790329E-1	6.167453E-1	5.792707E-1	6.200577E-1	6.731903E-1	6.161577E-1	6.112927E-1	6.500905E-1	6.724410E-1	6.343851E-1	5.834495E-1	6.112123E-1	6.191224E-1	5.939205E-1	6.436570E-1	6.224141E-1	5.998572E-1	6.229672E-1	6.127278E-1	6.674051E-1	7.381998E-1	5.818608E-1	6.401254E-1	7.003206E-1	6.721594E-1	6.081050E-1	5.814357E-1	6.278202E-1	6.186302E-1	5.909398E-1	5.437265E-1	6.203558E-1	6.660064E-1	6.043200E-1	5.841745E-1	6.121136E-1	7.345910E-1	6.118695E-1	6.123944E-1	6.048261E-1	6.830753E-1	5.835676E-1	6.333174E-1	5.911607E-1	6.499147E-1	5.783484E-1	6.072982E-1	6.587062E-1	6.842509E-1	6.496330E-1	5.830097E-1	6.675627E-1	7.431830E-1	6.570299E-1	6.941262E-1	6.468655E-1	6.914925E-1	5.305954E-1	6.320590E-1	5.923060E-1	6.368497E-1	5.423581E-1	6.827712E-1	6.550015E-1	7.040101E-1	5.119636E-1	6.176780E-1	6.834868E-1	7.776674E-1	5.901251E-1	6.523928E-1	6.623661E-1	7.077115E-1	6.414328E-1	6.355923E-1	6.043726E-1	6.469712E-1	6.145719E-1	6.068024E-1	6.317462E-1	6.695989E-1	5.373537E-1	6.630737E-1	6.504001E-1	7.111565E-1	5.574645E-1	6.377173E-1	6.064331E-1	7.172211E-1	6.816273E-1	6.220807E-1	5.982859E-1	6.009293E-1	6.246027E-1	6.261965E-1	5.268461E-1	6.840260E-1	6.333955E-1	5.861998E-1	6.112462E-1	6.527666E-1	6.255362E-1	7.033027E-1	6.267363E-1	6.794302E-1	6.353208E-1	6.871877E-1	6.073116E-1	6.143950E-1	6.090796E-1	6.438215E-1	6.693506E-1	6.452241E-1	6.357172E-1	6.027194E-1	6.877585E-1	5.870245E-1	5.603354E-1	6.344115E-1	6.382507E-1	6.249198E-1	6.195657E-1	6.361247E-1	6.157081E-1	5.959043E-1	5.983398E-1	5.905787E-1	6.132003E-1	6.125974E-1	6.295248E-1	5.785224E-1	6.580386E-1	6.186220E-1	5.908143E-1	6.490050E-1	6.822356E-1	6.168264E-1	6.327372E-1	6.101050E-1	6.366030E-1	6.047190E-1	6.289375E-1	5.429940E-1	6.529274E-1	6.180730E-1	6.084803E-1	5.800944E-1	6.829723E-1	6.016391E-1	6.062748E-1	6.504016E-1	6.614945E-1	6.357567E-1
5.365140E+2	6.265412E-1	5.176264E-1	4.779470E-1	4.989510E-1	5.901890E-1	5.452763E-1	6.229640E-1	5.212464E-1	6.354626E-1	5.049858E-1	6.078943E-1	5.375992E-1	5.126475E-1	4.792790E-1	5.022392E-1	4.942324E-1	5.343511E-1	5.591420E-1	5.782519E-1	5.317946E-1	5.054743E-1	5.661671E-1	6.113926E-1	5.085574E-1	5.105149E-1	5.553366E-1	5.959951E-1	5.169166E-1	4.687223E-1	5.350391E-1	5.370626E-1	5.488402E-1	5.702551E-1	5.566080E-1	5.398997E-1	5.010182E-1	5.442362E-1	5.805656E-1	5.872664E-1	5.494000E-1	5.070817E-1	5.456908E-1	5.858513E-1	5.212191E-1	5.341596E-1	5.281143E-1	5.366762E-1	5.352209E-1	4.741920E-1	5.670764E-1	6.146554E-1	5.414396E-1	4.927885E-1	5.421128E-1	6.246027E-1	5.208807E-1	5.687214E-1	5.455691E-1	5.600207E-1	5.194890E-1	5.348739E-1	5.127120E-1	5.747338E-1	5.040452E-1	5.415442E-1	5.597041E-1	5.939270E-1	5.683695E-1	5.345114E-1	5.719149E-1	6.173149E-1	5.470247E-1	5.495286E-1	5.860851E-1	5.977305E-1	4.770853E-1	5.826328E-1	5.181755E-1	5.321356E-1	5.005183E-1	6.065039E-1	5.842174E-1	5.508335E-1	4.515403E-1	5.209224E-1	5.874459E-1	6.291391E-1	5.050112E-1	5.263625E-1	5.837633E-1	6.264481E-1	5.545364E-1	5.184395E-1	5.001883E-1	5.076570E-1	5.445195E-1	5.516299E-1	5.646060E-1	5.525811E-1	4.628655E-1	5.445962E-1	5.749865E-1	6.336494E-1	4.975443E-1	5.744252E-1	5.450053E-1	6.132220E-1	5.655730E-1	5.247587E-1	4.940079E-1	5.151478E-1	5.688343E-1	5.191511E-1	4.799376E-1	6.069239E-1	5.541714E-1	4.763303E-1	5.345152E-1	6.263033E-1	5.196820E-1	5.518224E-1	5.650418E-1	6.393776E-1	5.756428E-1	5.817230E-1	5.120266E-1	5.514026E-1	5.370725E-1	5.750219E-1	5.563754E-1	5.688537E-1	5.425149E-1	5.160320E-1	5.824260E-1	6.341619E-1	4.925265E-1	5.499449E-1	5.907591E-1	6.120052E-1	5.320426E-1	5.206505E-1	5.239221E-1	5.694733E-1	5.241296E-1	5.255554E-1	6.156140E-1	5.652090E-1	5.599548E-1	5.389768E-1	5.886181E-1	5.921475E-1	4.975674E-1	5.273168E-1	5.743597E-1	5.764691E-1	5.205026E-1	4.828056E-1	5.464372E-1	5.230796E-1	5.411156E-1	4.605401E-1	5.841872E-1	5.315352E-1	5.573838E-1	5.152416E-1	5.989817E-1	5.250587E-1	5.373797E-1	5.927425E-1	5.730070E-1	6.006101E-1
5.367710E+2	5.937869E-1	4.673577E-1	4.790567E-1	4.478467E-1	6.137144E-1	5.771292E-1	6.256950E-1	4.666157E-1	5.671522E-1	4.491065E-1	5.800349E-1	4.991172E-1	5.346872E-1	5.032307E-1	5.156086E-1	5.105400E-1	5.499332E-1	5.474177E-1	5.413540E-1	5.190009E-1	4.901756E-1	5.590761E-1	5.906244E-1	5.080872E-1	5.172333E-1	5.391968E-1	5.699470E-1	5.247109E-1	4.989137E-1	5.056648E-1	4.893653E-1	5.168902E-1	5.541287E-1	5.253501E-1	5.617533E-1	5.425671E-1	5.374835E-1	5.359191E-1	6.015367E-1	5.037671E-1	5.438441E-1	5.124739E-1	5.484304E-1	5.382442E-1	4.732993E-1	5.220874E-1	4.959477E-1	5.587767E-1	4.428235E-1	5.388377E-1	5.644715E-1	5.391532E-1	5.113510E-1	5.234460E-1	6.181958E-1	5.254054E-1	5.320354E-1	5.185865E-1	5.480734E-1	5.130225E-1	5.279567E-1	4.890291E-1	5.460189E-1	5.105066E-1	5.376431E-1	5.267039E-1	5.493679E-1	5.581404E-1	5.055077E-1	5.359235E-1	6.184000E-1	5.235234E-1	5.455279E-1	5.636346E-1	5.883547E-1	5.069383E-1	5.382610E-1	4.926470E-1	5.117745E-1	4.734455E-1	5.713969E-1	5.651833E-1	5.783116E-1	4.874677E-1	4.986339E-1	5.386375E-1	6.139834E-1	4.811786E-1	5.223704E-1	5.801908E-1	6.222265E-1	5.299427E-1	4.970503E-1	5.141836E-1	5.176434E-1	5.192106E-1	5.326820E-1	5.363366E-1	5.606117E-1	4.673121E-1	5.281541E-1	5.304241E-1	5.789386E-1	4.755219E-1	5.784527E-1	5.389185E-1	5.944202E-1	5.627292E-1	4.845257E-1	5.230023E-1	4.968849E-1	5.095174E-1	5.232680E-1	4.570049E-1	5.793872E-1	5.121586E-1	5.015085E-1	5.183607E-1	6.235464E-1	5.317632E-1	5.501140E-1	4.980593E-1	5.702459E-1	5.725347E-1	5.334309E-1	4.956342E-1	5.238769E-1	5.356225E-1	5.373320E-1	5.344387E-1	5.694907E-1	5.262040E-1	4.947074E-1	5.302764E-1	5.974388E-1	4.930734E-1	5.219725E-1	5.253879E-1	5.511224E-1	5.699698E-1	5.064690E-1	5.122591E-1	5.513342E-1	5.168001E-1	5.298094E-1	5.522625E-1	5.717250E-1	5.107466E-1	5.167321E-1	5.382241E-1	5.714974E-1	5.076484E-1	5.346067E-1	5.303888E-1	5.509492E-1	5.769079E-1	5.035048E-1	5.438463E-1	5.065450E-1	5.160883E-1	4.521909E-1	5.793208E-1	5.497241E-1	5.534531E-1	5.441755E-1	5.479004E-1	5.947727E-1	5.392589E-1	5.434396E-1	5.647475E-1	6.451292E-1
5.370280E+2	6.592946E-1	4.879219E-1	5.450503E-1	4.973025E-1	5.901890E-1	5.468958E-1	5.683501E-1	4.917561E-1	6.120928E-1	4.930855E-1	5.663891E-1	5.244203E-1	5.808177E-1	4.917759E-1	5.404381E-1	5.036738E-1	5.682013E-1	5.669586E-1	5.699909E-1	5.655700E-1	5.158243E-1	5.770398E-1	6.281083E-1	5.287617E-1	5.390681E-1	5.704346E-1	6.084526E-1	5.386290E-1	5.215570E-1	5.624218E-1	5.462949E-1	5.265189E-1	5.847131E-1	5.357695E-1	5.774430E-1	5.765618E-1	5.659414E-1	5.893969E-1	6.180024E-1	5.484593E-1	5.706857E-1	5.892159E-1	6.214606E-1	5.828613E-1	5.352470E-1	5.056528E-1	5.078683E-1	5.547000E-1	4.600762E-1	5.633470E-1	6.041519E-1	5.643056E-1	5.375298E-1	5.547131E-1	6.459593E-1	5.128382E-1	5.675568E-1	5.667327E-1	6.024329E-1	5.465314E-1	5.550952E-1	5.581035E-1	5.997943E-1	5.183523E-1	5.861228E-1	5.641788E-1	6.125946E-1	5.905320E-1	5.359381E-1	5.640267E-1	6.520372E-1	5.830264E-1	5.752474E-1	5.855376E-1	6.334769E-1	5.108813E-1	5.652213E-1	4.995204E-1	5.801294E-1	5.010105E-1	5.780554E-1	5.978983E-1	6.145596E-1	5.375482E-1	5.685403E-1	5.811475E-1	6.670290E-1	5.341932E-1	5.446109E-1	5.944818E-1	6.607480E-1	5.714781E-1	5.510088E-1	5.390632E-1	5.461050E-1	5.354810E-1	5.967710E-1	5.981759E-1	6.122367E-1	5.262363E-1	5.363749E-1	5.793941E-1	6.270637E-1	5.359543E-1	5.911112E-1	6.036661E-1	6.296732E-1	5.581775E-1	5.399824E-1	5.402975E-1	5.500136E-1	5.688345E-1	5.420889E-1	4.429326E-1	6.032525E-1	5.427682E-1	5.289760E-1	5.390586E-1	6.533180E-1	5.490217E-1	5.575168E-1	5.615165E-1	6.574838E-1	5.905624E-1	6.089216E-1	5.033180E-1	5.482270E-1	5.559199E-1	6.145066E-1	5.673437E-1	6.032206E-1	5.529999E-1	5.470912E-1	5.886219E-1	6.484125E-1	4.941674E-1	5.367819E-1	6.131079E-1	5.917106E-1	5.530488E-1	5.378703E-1	5.365996E-1	5.554807E-1	5.598602E-1	5.577637E-1	5.951000E-1	5.900879E-1	5.656107E-1	5.246417E-1	6.184433E-1	6.694532E-1	5.313383E-1	5.553553E-1	6.200901E-1	6.322564E-1	5.659720E-1	5.221339E-1	5.277825E-1	5.411642E-1	5.565868E-1	4.975922E-1	6.006120E-1	6.009853E-1	5.686136E-1	5.242211E-1	6.053671E-1	6.259335E-1	5.455222E-1	5.743584E-1	5.435111E-1	6.615305E-1
5.372590E+2	7.092879E-1	5.918850E-1	6.127087E-1	5.868718E-1	7.027754E-1	6.554108E-1	7.207231E-1	5.792609E-1	7.019745E-1	5.706958E-1	6.926112E-1	6.103451E-1	6.192596E-1	6.000756E-1	6.302062E-1	6.324173E-1	6.482599E-1	6.830856E-1	6.784824E-1	6.535913E-1	6.247184E-1	6.540940E-1	7.035825E-1	6.542176E-1	6.325677E-1	6.901790E-1	6.877300E-1	6.009819E-1	5.940165E-1	5.952809E-1	6.088648E-1	6.376877E-1	6.497739E-1	6.536721E-1	6.799876E-1	6.661354E-1	6.493854E-1	6.948798E-1	7.167947E-1	6.067939E-1	6.272875E-1	6.831392E-1	6.890593E-1	6.356972E-1	5.944769E-1	6.201500E-1	6.389952E-1	6.724799E-1	5.651619E-1	6.640457E-1	6.735925E-1	6.226124E-1	5.713237E-1	6.270470E-1	7.132341E-1	6.043293E-1	6.747015E-1	6.408037E-1	7.236961E-1	6.594043E-1	6.258678E-1	6.020153E-1	6.483486E-1	6.111157E-1	6.758387E-1	6.687740E-1	7.547028E-1	6.604296E-1	6.367381E-1	6.877772E-1	7.366728E-1	6.320289E-1	6.844105E-1	6.561740E-1	6.774276E-1	5.919913E-1	6.792393E-1	6.379619E-1	6.557568E-1	6.029027E-1	6.658231E-1	6.484589E-1	6.952405E-1	6.562169E-1	6.126122E-1	6.656436E-1	7.584697E-1	6.543257E-1	6.181763E-1	7.010719E-1	7.314570E-1	6.933522E-1	6.458009E-1	6.064462E-1	6.649470E-1	6.231586E-1	6.642040E-1	6.759172E-1	6.661570E-1	5.773772E-1	6.490497E-1	6.523587E-1	7.258471E-1	5.805110E-1	7.119413E-1	7.049380E-1	7.448363E-1	6.656982E-1	6.068568E-1	6.338932E-1	6.363482E-1	6.626257E-1	6.391361E-1	5.565542E-1	7.207412E-1	6.387970E-1	6.209917E-1	6.198286E-1	7.795710E-1	6.416442E-1	6.469249E-1	6.343744E-1	7.249692E-1	6.788357E-1	6.483320E-1	6.114100E-1	6.387451E-1	6.554732E-1	6.862977E-1	6.512528E-1	6.674989E-1	6.741628E-1	6.138453E-1	6.640068E-1	7.278892E-1	5.843968E-1	6.256356E-1	6.678635E-1	6.925670E-1	6.574929E-1	6.482807E-1	6.238219E-1	6.228532E-1	6.271990E-1	6.580330E-1	6.518148E-1	6.659100E-1	6.453619E-1	6.240002E-1	7.171754E-1	7.404052E-1	5.887980E-1	6.394714E-1	6.488180E-1	6.987266E-1	6.885670E-1	6.385661E-1	6.505941E-1	6.253878E-1	6.316673E-1	5.581284E-1	6.766520E-1	7.013025E-1	6.505928E-1	5.766021E-1	7.247214E-1	6.919511E-1	6.025172E-1	7.114022E-1	6.756531E-1	7.271371E-1
5.375110E+2	7.885874E-1	6.878506E-1	6.958934E-1	6.407235E-1	8.080792E-1	7.326136E-1	7.698762E-1	6.508127E-1	7.559039E-1	6.353714E-1	7.409393E-1	7.152462E-1	7.079330E-1	6.625565E-1	7.056496E-1	6.877769E-1	7.390649E-1	7.461746E-1	7.869732E-1	7.109069E-1	7.070643E-1	7.344575E-1	8.266712E-1	7.355048E-1	6.975134E-1	7.766032E-1	8.162724E-1	7.162233E-1	6.699985E-1	6.868881E-1	6.940019E-1	7.085904E-1	7.170592E-1	7.743155E-1	7.881360E-1	7.120011E-1	6.874900E-1	7.321669E-1	8.205272E-1	7.427528E-1	6.943927E-1	7.730538E-1	7.463965E-1	7.401954E-1	6.292543E-1	7.204045E-1	7.298895E-1	7.304642E-1	6.054187E-1	7.881880E-1	7.477009E-1	7.140756E-1	6.936481E-1	6.989135E-1	8.200188E-1	6.807396E-1	7.370086E-1	7.402704E-1	7.852240E-1	6.935010E-1	7.450633E-1	6.592482E-1	7.574654E-1	6.766498E-1	7.349063E-1	7.420460E-1	7.896283E-1	7.530588E-1	6.876138E-1	7.370802E-1	8.294469E-1	7.120328E-1	7.369912E-1	7.733546E-1	7.694313E-1	6.573306E-1	7.769686E-1	6.792001E-1	7.372011E-1	6.462192E-1	7.596433E-1	7.751562E-1	7.349960E-1	7.106520E-1	6.809986E-1	7.858263E-1	8.438481E-1	7.467353E-1	7.202556E-1	7.266777E-1	8.391041E-1	7.261434E-1	7.478844E-1	6.976723E-1	7.108856E-1	6.859793E-1	7.606161E-1	7.448248E-1	7.315489E-1	6.546449E-1	7.447996E-1	7.052464E-1	8.307096E-1	6.470891E-1	7.625759E-1	7.326080E-1	8.006552E-1	7.498944E-1	7.188588E-1	6.593271E-1	7.298769E-1	7.650366E-1	7.185383E-1	6.123227E-1	7.886649E-1	6.844114E-1	6.562414E-1	7.106951E-1	8.148559E-1	6.980232E-1	7.551250E-1	7.389613E-1	8.028799E-1	7.503252E-1	7.754453E-1	6.365119E-1	6.969734E-1	7.120156E-1	7.371487E-1	7.362588E-1	7.661443E-1	6.980456E-1	7.255657E-1	7.750191E-1	8.490209E-1	6.095511E-1	7.122962E-1	7.488784E-1	8.106430E-1	7.269279E-1	7.313410E-1	6.679396E-1	7.265038E-1	6.917893E-1	7.315644E-1	7.284396E-1	7.369930E-1	7.302037E-1	6.862847E-1	7.778537E-1	8.113569E-1	6.739801E-1	7.224665E-1	7.707637E-1	7.824078E-1	7.564838E-1	6.882435E-1	7.075966E-1	7.183952E-1	6.771716E-1	6.311884E-1	7.344414E-1	7.420915E-1	7.061815E-1	6.988228E-1	7.556655E-1	8.482807E-1	7.465697E-1	7.456638E-1	8.066143E-1	7.997727E-1
5.377580E+2	9.494847E-1	7.626815E-1	7.524600E-1	8.171153E-1	9.184251E-1	8.454480E-1	9.375417E-1	8.872229E-1	9.146947E-1	7.455785E-1	9.490356E-1	9.340106E-1	8.996307E-1	7.890801E-1	8.703831E-1	8.448445E-1	9.013308E-1	9.147826E-1	9.235507E-1	8.721088E-1	8.011098E-1	8.961296E-1	9.249402E-1	8.008170E-1	8.386028E-1	8.885381E-1	9.012125E-1	8.459397E-1	7.822100E-1	8.228051E-1	8.022179E-1	8.153825E-1	8.521852E-1	9.086693E-1	8.906805E-1	8.080498E-1	8.191677E-1	8.940711E-1	9.440174E-1	8.283737E-1	8.770355E-1	9.488731E-1	8.737468E-1	8.458681E-1	8.085760E-1	7.938143E-1	8.083668E-1	8.409966E-1	7.125954E-1	8.819605E-1	8.953352E-1	8.198290E-1	8.112125E-1	8.272471E-1	9.438892E-1	8.039013E-1	8.930670E-1	8.661910E-1	9.614432E-1	8.469373E-1	8.004048E-1	7.821015E-1	8.718030E-1	8.109492E-1	8.285221E-1	9.020153E-1	8.841668E-1	8.695551E-1	7.684443E-1	8.534349E-1	9.558569E-1	8.105368E-1	8.564418E-1	8.439916E-1	9.130036E-1	7.356234E-1	8.320118E-1	8.156785E-1	8.390059E-1	7.554945E-1	8.867555E-1	8.834146E-1	8.875888E-1	8.467399E-1	8.132141E-1	9.254279E-1	9.746946E-1	7.948854E-1	8.314579E-1	9.059151E-1	9.198401E-1	8.452848E-1	8.290648E-1	8.236263E-1	8.287287E-1	7.876675E-1	8.653877E-1	8.779271E-1	9.013383E-1	7.941717E-1	8.550567E-1	8.546039E-1	9.745791E-1	7.254463E-1	9.092983E-1	9.041618E-1	9.639987E-1	8.693616E-1	8.167246E-1	8.002295E-1	8.328147E-1	8.862056E-1	8.491095E-1	6.873754E-1	9.355259E-1	8.512628E-1	7.986141E-1	7.975236E-1	9.995492E-1	8.372444E-1	9.100225E-1	8.476602E-1	9.274266E-1	8.933034E-1	8.720288E-1	8.122253E-1	8.642469E-1	8.603794E-1	8.974811E-1	8.859777E-1	9.048835E-1	8.197915E-1	8.233794E-1	8.689916E-1	9.685088E-1	7.686841E-1	8.576440E-1	8.673280E-1	9.662325E-1	8.290380E-1	8.012340E-1	8.114495E-1	8.612499E-1	8.269256E-1	8.178565E-1	8.617791E-1	9.064074E-1	8.320135E-1	8.301331E-1	8.812136E-1	9.537899E-1	7.989807E-1	7.992931E-1	8.657418E-1	9.301847E-1	9.044046E-1	8.108861E-1	8.184903E-1	8.398207E-1	8.428052E-1	7.136419E-1	9.084204E-1	9.046936E-1	8.010749E-1	7.866230E-1	8.946664E-1	9.787304E-1	7.973012E-1	8.768586E-1	8.726851E-1	9.684753E-1
5.380160E+2	1.056366E+0	8.335137E-1	9.088487E-1	8.896491E-1	1.025970E+0	9.447853E-1	1.015093E+0	1.055466E+0	9.997819E-1	8.185329E-1	9.842869E-1	1.073705E+0	1.005219E+0	9.005041E-1	9.343670E-1	9.139365E-1	9.722555E-1	1.035376E+0	9.940422E-1	9.243070E-1	9.059541E-1	9.774382E-1	1.083487E+0	1.066295E+0	9.360215E-1	1.031190E+0	9.935142E-1	1.084217E+0	8.511470E-1	9.412970E-1	8.776100E-1	9.633165E-1	9.450501E-1	9.481531E-1	9.523195E-1	9.731671E-1	9.257637E-1	1.001027E+0	1.042810E+0	9.972639E-1	9.709835E-1	1.010725E+0	1.028257E+0	9.949837E-1	8.525907E-1	9.143386E-1	9.404875E-1	9.356736E-1	8.161122E-1	9.490934E-1	1.034217E+0	9.055749E-1	8.764209E-1	9.397149E-1	1.095524E+0	9.119817E-1	9.571208E-1	9.460823E-1	9.357569E-1	9.227741E-1	9.105547E-1	8.847262E-1	9.433293E-1	9.124819E-1	9.550154E-1	9.652199E-1	9.901468E-1	9.519552E-1	8.602110E-1	9.540132E-1	1.036695E+0	8.885405E-1	9.941804E-1	9.775993E-1	1.054232E+0	8.555996E-1	9.589473E-1	8.917724E-1	9.223900E-1	8.263762E-1	9.932866E-1	9.922672E-1	9.635924E-1	9.398244E-1	9.312443E-1	1.029342E+0	1.108068E+0	9.106410E-1	8.890561E-1	9.732040E-1	1.115611E+0	9.846475E-1	9.403850E-1	9.143344E-1	9.460721E-1	8.694695E-1	9.055131E-1	9.491899E-1	1.021797E+0	8.681045E-1	9.324306E-1	9.569507E-1	1.088053E+0	8.621876E-1	1.027252E+0	1.003220E+0	1.042732E+0	9.677802E-1	9.124152E-1	8.882304E-1	9.379662E-1	9.708716E-1	9.020444E-1	7.843184E-1	1.043836E+0	9.466925E-1	8.649935E-1	8.838466E-1	1.034283E+0	9.580558E-1	9.384965E-1	9.334450E-1	1.078858E+0	9.666576E-1	1.034112E+0	8.706249E-1	9.028894E-1	9.309365E-1	9.716642E-1	9.567240E-1	1.018167E+0	9.491097E-1	8.854979E-1	9.722590E-1	1.054014E+0	8.676631E-1	9.333342E-1	9.511373E-1	1.060324E+0	9.293978E-1	9.075923E-1	9.503962E-1	9.068561E-1	9.364090E-1	9.217726E-1	9.957223E-1	9.632741E-1	9.604073E-1	9.354237E-1	1.000514E+0	1.058100E+0	9.179335E-1	9.041583E-1	9.683411E-1	1.035825E+0	9.303040E-1	8.522845E-1	8.977742E-1	8.785740E-1	9.119708E-1	7.955738E-1	1.017309E+0	9.757969E-1	9.116905E-1	8.933795E-1	9.909359E-1	1.115519E+0	8.956334E-1	9.813120E-1	9.812292E-1	9.755037E-1
5.382740E+2	1.321846E+0	1.030015E+0	1.096849E+0	1.097912E+0	1.273547E+0	1.154257E+0	1.272324E+0	1.244499E+0	1.256843E+0	9.747882E-1	1.200343E+0	1.319354E+0	1.178977E+0	1.055144E+0	1.111038E+0	1.118210E+0	1.190939E+0	1.209009E+0	1.228647E+0	1.180184E+0	1.121042E+0	1.193473E+0	1.257229E+0	1.256593E+0	1.041838E+0	1.216014E+0	1.269287E+0	1.205026E+0	1.082111E+0	1.060785E+0	1.090964E+0	1.147574E+0	1.211410E+0	1.165862E+0	1.135554E+0	1.183072E+0	1.088311E+0	1.179120E+0	1.277715E+0	1.311988E+0	1.182802E+0	1.200862E+0	1.177939E+0	1.265622E+0	1.044954E+0	1.150456E+0	1.132706E+0	1.191167E+0	9.462927E-1	1.190984E+0	1.231451E+0	1.163386E+0	1.087752E+0	1.144580E+0	1.247159E+0	1.300065E+0	1.181309E+0	1.101631E+0	1.217112E+0	1.211423E+0	1.128194E+0	1.071721E+0	1.149556E+0	1.120621E+0	1.130545E+0	1.195664E+0	1.235224E+0	1.228705E+0	1.063238E+0	1.160594E+0	1.312302E+0	1.208555E+0	1.182215E+0	1.204843E+0	1.251717E+0	1.070766E+0	1.145982E+0	1.096981E+0	1.147332E+0	1.003087E+0	1.215429E+0	1.185586E+0	1.174650E+0	1.147222E+0	1.055354E+0	1.208304E+0	1.318731E+0	1.120752E+0	1.121157E+0	1.157800E+0	1.288690E+0	1.214185E+0	1.104206E+0	1.094714E+0	1.133821E+0	1.099511E+0	1.170229E+0	1.092893E+0	1.177247E+0	1.019304E+0	1.136987E+0	1.087701E+0	1.264345E+0	1.013781E+0	1.231514E+0	1.201890E+0	1.240154E+0	1.164049E+0	1.136962E+0	1.072879E+0	1.081857E+0	1.158453E+0	1.158483E+0	9.537083E-1	1.244545E+0	1.080534E+0	1.073288E+0	1.088801E+0	1.274108E+0	1.105906E+0	1.207289E+0	1.147319E+0	1.228096E+0	1.199152E+0	1.176213E+0	1.062219E+0	1.084455E+0	1.129559E+0	1.133193E+0	1.165125E+0	1.202092E+0	1.168717E+0	1.116357E+0	1.187056E+0	1.297374E+0	1.056872E+0	1.112690E+0	1.088025E+0	1.253427E+0	1.144122E+0	1.099038E+0	1.105063E+0	1.177383E+0	1.053679E+0	1.187944E+0	1.200256E+0	1.174746E+0	1.090498E+0	1.069879E+0	1.181521E+0	1.305372E+0	1.092332E+0	1.104916E+0	1.130155E+0	1.264314E+0	1.176647E+0	1.083077E+0	1.095207E+0	1.087323E+0	1.112188E+0	9.923147E-1	1.220489E+0	1.181944E+0	1.090810E+0	1.063492E+0	1.204595E+0	1.267622E+0	1.123612E+0	1.176851E+0	1.136969E+0	1.266048E+0
5.385110E+2	1.514926E+0	1.190529E+0	1.248801E+0	1.225947E+0	1.448866E+0	1.302725E+0	1.445454E+0	1.513781E+0	1.482746E+0	1.151740E+0	1.433456E+0	1.521251E+0	1.365036E+0	1.240505E+0	1.345963E+0	1.323340E+0	1.382222E+0	1.423398E+0	1.398822E+0	1.330126E+0	1.288435E+0	1.333399E+0	1.463392E+0	1.494820E+0	1.287623E+0	1.411248E+0	1.465216E+0	1.452209E+0	1.252192E+0	1.330128E+0	1.315603E+0	1.355035E+0	1.350428E+0	1.342440E+0	1.370901E+0	1.415098E+0	1.330445E+0	1.390087E+0	1.495610E+0	1.470061E+0	1.291336E+0	1.373245E+0	1.401256E+0	1.546828E+0	1.220471E+0	1.267693E+0	1.273270E+0	1.367839E+0	1.149145E+0	1.352954E+0	1.407678E+0	1.377178E+0	1.246727E+0	1.294383E+0	1.523730E+0	1.485058E+0	1.411322E+0	1.333367E+0	1.439326E+0	1.435994E+0	1.312308E+0	1.251312E+0	1.341161E+0	1.344456E+0	1.338395E+0	1.345566E+0	1.463444E+0	1.436127E+0	1.282907E+0	1.372598E+0	1.476149E+0	1.479068E+0	1.419973E+0	1.370757E+0	1.462681E+0	1.307339E+0	1.390868E+0	1.333119E+0	1.335429E+0	1.197029E+0	1.421232E+0	1.372958E+0	1.344197E+0	1.366595E+0	1.296480E+0	1.455492E+0	1.532937E+0	1.540002E+0	1.268859E+0	1.369788E+0	1.430636E+0	1.458483E+0	1.332190E+0	1.266280E+0	1.343544E+0	1.296109E+0	1.341319E+0	1.367932E+0	1.370554E+0	1.185513E+0	1.351216E+0	1.318350E+0	1.488254E+0	1.389179E+0	1.409307E+0	1.342452E+0	1.468129E+0	1.490593E+0	1.295723E+0	1.273297E+0	1.321491E+0	1.360232E+0	1.304347E+0	1.093911E+0	1.419557E+0	1.271993E+0	1.221612E+0	1.273564E+0	1.553078E+0	1.356736E+0	1.392938E+0	1.311836E+0	1.494746E+0	1.390620E+0	1.457637E+0	1.204121E+0	1.297252E+0	1.306434E+0	1.327027E+0	1.370237E+0	1.432477E+0	1.292210E+0	1.248938E+0	1.395138E+0	1.472220E+0	1.193584E+0	1.297525E+0	1.306485E+0	1.443456E+0	1.249733E+0	1.267185E+0	1.278490E+0	1.281035E+0	1.279974E+0	1.362352E+0	1.366176E+0	1.329351E+0	1.281673E+0	1.205325E+0	1.364074E+0	1.503403E+0	1.258158E+0	1.361190E+0	1.416846E+0	1.425147E+0	1.312481E+0	1.238322E+0	1.350676E+0	1.282122E+0	1.332879E+0	1.107646E+0	1.370133E+0	1.390846E+0	1.317656E+0	1.183220E+0	1.373066E+0	1.465672E+0	1.270170E+0	1.364032E+0	1.382375E+0	1.554247E+0
5.387700E+2	1.792471E+0	1.482997E+0	1.457317E+0	1.437508E+0	1.749097E+0	1.619093E+0	1.723437E+0	1.759379E+0	1.709246E+0	1.328690E+0	1.677372E+0	1.728945E+0	1.582363E+0	1.493550E+0	1.552239E+0	1.564091E+0	1.590695E+0	1.629411E+0	1.602586E+0	1.629500E+0	1.480126E+0	1.589616E+0	1.699436E+0	1.722705E+0	1.499256E+0	1.605965E+0	1.654913E+0	1.760635E+0	1.430821E+0	1.543216E+0	1.552037E+0	1.527473E+0	1.631800E+0	1.623760E+0	1.578234E+0	1.688675E+0	1.585600E+0	1.600070E+0	1.729968E+0	1.784784E+0	1.541085E+0	1.596602E+0	1.681303E+0	1.801618E+0	1.394357E+0	1.556404E+0	1.523107E+0	1.561270E+0	1.333177E+0	1.676366E+0	1.658596E+0	1.570964E+0	1.458059E+0	1.497849E+0	1.733563E+0	1.743448E+0	1.550491E+0	1.559812E+0	1.700969E+0	1.687607E+0	1.516114E+0	1.474324E+0	1.572968E+0	1.568286E+0	1.576896E+0	1.611248E+0	1.661552E+0	1.642408E+0	1.415563E+0	1.556496E+0	1.817403E+0	1.722079E+0	1.687447E+0	1.628662E+0	1.661338E+0	1.534335E+0	1.549818E+0	1.487759E+0	1.530315E+0	1.363401E+0	1.608267E+0	1.597205E+0	1.620735E+0	1.571813E+0	1.475300E+0	1.646004E+0	1.830499E+0	1.806046E+0	1.534036E+0	1.669909E+0	1.714530E+0	1.705511E+0	1.571357E+0	1.448731E+0	1.473367E+0	1.414065E+0	1.512964E+0	1.527538E+0	1.594839E+0	1.424544E+0	1.559156E+0	1.589640E+0	1.766366E+0	1.688271E+0	1.642913E+0	1.505706E+0	1.646162E+0	1.785846E+0	1.499608E+0	1.412163E+0	1.518511E+0	1.622343E+0	1.543141E+0	1.304476E+0	1.661263E+0	1.524071E+0	1.439978E+0	1.466404E+0	1.757621E+0	1.688103E+0	1.605352E+0	1.503380E+0	1.719147E+0	1.732522E+0	1.576426E+0	1.426451E+0	1.496814E+0	1.530190E+0	1.589658E+0	1.593993E+0	1.630402E+0	1.600942E+0	1.533107E+0	1.574819E+0	1.670087E+0	1.701058E+0	1.515822E+0	1.593673E+0	1.688828E+0	1.634833E+0	1.461165E+0	1.484882E+0	1.526686E+0	1.562155E+0	1.565928E+0	1.590018E+0	1.635600E+0	1.514142E+0	1.505873E+0	1.572848E+0	1.713080E+0	1.507658E+0	1.481757E+0	1.598595E+0	1.686874E+0	1.547884E+0	1.540528E+0	1.493698E+0	1.507407E+0	1.487140E+0	1.312214E+0	1.597646E+0	1.584314E+0	1.583807E+0	1.384759E+0	1.598512E+0	1.644711E+0	1.526334E+0	1.597174E+0	1.610083E+0	1.720606E+0
5.390290E+2	1.962562E+0	1.618379E+0	1.649758E+0	1.701820E+0	1.917138E+0	1.785373E+0	1.903117E+0	1.921822E+0	1.900997E+0	1.510820E+0	1.896274E+0	1.922406E+0	1.838132E+0	1.617991E+0	1.709331E+0	1.743903E+0	1.783052E+0	1.879534E+0	1.867480E+0	1.796839E+0	1.702412E+0	1.882235E+0	1.992726E+0	1.917700E+0	1.686817E+0	1.855344E+0	1.834418E+0	1.932662E+0	1.605933E+0	1.680627E+0	1.675125E+0	1.768629E+0	1.793620E+0	1.800341E+0	1.783324E+0	1.880773E+0	1.706183E+0	1.817907E+0	1.967621E+0	1.994605E+0	1.761072E+0	1.893834E+0	1.899188E+0	1.928426E+0	1.597587E+0	1.772249E+0	1.716816E+0	1.781425E+0	1.681373E+0	1.826080E+0	1.922355E+0	1.849356E+0	1.669388E+0	1.728385E+0	1.941260E+0	1.962121E+0	1.736831E+0	1.736523E+0	1.853292E+0	1.901595E+0	1.712999E+0	1.656880E+0	1.756746E+0	1.693814E+0	1.770814E+0	1.805336E+0	1.864477E+0	1.795841E+0	1.613363E+0	1.795615E+0	1.974740E+0	1.887086E+0	1.854911E+0	1.845502E+0	1.926214E+0	1.666702E+0	1.787960E+0	1.625710E+0	1.689808E+0	1.541097E+0	1.785616E+0	1.759590E+0	1.790279E+0	1.770504E+0	1.698192E+0	1.834937E+0	1.985086E+0	1.967517E+0	1.670329E+0	1.838423E+0	1.885501E+0	1.902254E+0	1.728376E+0	1.659691E+0	1.715047E+0	1.631451E+0	1.730869E+0	1.730138E+0	1.784705E+0	1.625218E+0	1.745818E+0	1.753688E+0	1.910744E+0	1.958679E+0	1.856383E+0	1.776316E+0	1.861211E+0	2.004301E+0	1.688816E+0	1.640560E+0	1.690628E+0	1.811953E+0	1.730177E+0	1.476470E+0	1.865036E+0	1.701728E+0	1.630876E+0	1.647632E+0	1.977596E+0	1.879675E+0	1.784739E+0	1.737234E+0	1.937520E+0	1.988642E+0	1.797347E+0	1.557086E+0	1.712786E+0	1.722048E+0	1.748200E+0	1.790328E+0	1.814329E+0	1.764630E+0	1.629531E+0	1.776711E+0	1.950173E+0	1.967370E+0	1.706145E+0	1.738943E+0	1.875784E+0	1.878729E+0	1.701228E+0	1.642591E+0	1.670242E+0	1.719282E+0	1.669241E+0	1.819287E+0	1.826935E+0	1.760746E+0	1.613635E+0	1.779055E+0	1.884106E+0	1.935581E+0	1.610737E+0	1.776824E+0	1.888660E+0	1.919126E+0	1.610905E+0	1.639315E+0	1.676368E+0	1.683260E+0	1.463554E+0	1.750332E+0	1.761251E+0	1.710145E+0	1.588296E+0	1.765019E+0	1.894525E+0	1.793771E+0	1.684915E+0	1.751663E+0	1.936170E+0
5.392780E+2	2.257350E+0	1.754904E+0	1.791168E+0	1.817215E+0	2.088535E+0	1.957052E+0	2.170177E+0	2.114238E+0	2.113112E+0	1.631889E+0	2.012258E+0	2.091618E+0	1.943720E+0	1.799185E+0	1.890301E+0	1.889813E+0	1.957673E+0	2.036977E+0	2.016721E+0	1.966234E+0	1.804109E+0	2.000415E+0	2.131516E+0	2.169081E+0	1.799353E+0	2.007888E+0	2.057526E+0	2.123061E+0	1.805197E+0	1.884253E+0	1.853605E+0	1.945014E+0	1.989914E+0	1.970339E+0	1.977205E+0	1.986538E+0	1.845578E+0	2.004341E+0	2.142151E+0	2.203950E+0	1.905787E+0	1.988332E+0	2.021707E+0	2.216671E+0	1.794299E+0	1.893869E+0	1.922945E+0	1.934996E+0	2.020675E+0	2.066906E+0	2.039647E+0	1.974543E+0	1.828836E+0	1.897318E+0	2.136143E+0	2.107402E+0	1.952284E+0	1.918001E+0	2.069539E+0	2.042684E+0	1.842836E+0	1.819696E+0	1.922770E+0	1.924574E+0	1.987580E+0	1.921677E+0	2.012606E+0	1.971441E+0	1.770743E+0	1.960286E+0	2.221050E+0	2.123098E+0	2.011509E+0	2.004843E+0	2.089127E+0	1.858772E+0	1.954216E+0	1.824538E+0	1.847849E+0	1.660712E+0	1.998679E+0	1.952909E+0	1.972106E+0	1.924557E+0	1.867892E+0	2.002878E+0	2.197780E+0	2.164007E+0	1.895587E+0	1.999207E+0	2.079687E+0	2.098456E+0	1.829971E+0	1.835407E+0	1.895309E+0	1.825785E+0	1.906417E+0	1.887388E+0	1.949331E+0	1.729168E+0	1.928611E+0	1.860934E+0	2.164541E+0	2.074421E+0	2.020940E+0	1.906921E+0	2.093886E+0	2.178379E+0	1.841595E+0	1.825208E+0	1.815146E+0	1.997002E+0	1.813692E+0	1.615631E+0	2.088997E+0	1.881783E+0	1.750358E+0	1.806144E+0	2.153468E+0	2.055142E+0	1.930526E+0	1.909977E+0	2.097731E+0	2.078157E+0	1.959430E+0	1.783000E+0	1.827656E+0	1.971413E+0	1.945024E+0	1.898369E+0	2.011618E+0	1.998800E+0	1.772775E+0	1.930060E+0	2.091583E+0	2.137442E+0	1.824617E+0	1.946785E+0	2.007385E+0	2.078286E+0	1.802523E+0	1.753647E+0	1.859407E+0	1.877323E+0	1.829063E+0	1.977362E+0	1.948368E+0	1.907241E+0	1.790108E+0	1.966232E+0	2.070487E+0	2.148285E+0	1.855798E+0	1.963843E+0	2.061362E+0	2.078555E+0	1.765111E+0	1.854362E+0	1.854630E+0	1.841155E+0	1.610720E+0	1.895719E+0	1.927709E+0	1.943172E+0	1.700538E+0	1.971801E+0	2.073565E+0	2.067472E+0	1.921397E+0	1.882624E+0	2.027550E+0
5.395160E+2	2.352735E+0	1.851438E+0	1.981385E+0	1.936459E+0	2.278417E+0	2.016981E+0	2.260293E+0	2.285859E+0	2.256326E+0	1.734857E+0	2.224334E+0	2.241853E+0	2.037004E+0	1.941332E+0	2.025427E+0	2.031432E+0	2.088777E+0	2.207258E+0	2.172575E+0	2.127949E+0	1.961599E+0	2.087872E+0	2.273347E+0	2.232044E+0	1.979631E+0	2.174487E+0	2.218911E+0	2.206569E+0	1.961690E+0	1.926078E+0	1.982334E+0	2.058368E+0	2.179536E+0	2.098657E+0	2.096561E+0	2.154888E+0	2.046230E+0	2.134847E+0	2.290340E+0	2.357788E+0	2.030075E+0	2.139524E+0	2.216055E+0	2.287706E+0	1.994268E+0	1.979880E+0	1.982052E+0	2.061835E+0	2.125239E+0	2.054119E+0	2.190780E+0	2.159182E+0	1.928315E+0	1.993918E+0	2.224775E+0	2.269774E+0	2.075733E+0	2.014824E+0	2.230824E+0	2.244326E+0	2.030145E+0	1.886796E+0	1.982290E+0	2.001181E+0	2.012658E+0	2.054796E+0	2.187837E+0	2.104985E+0	1.835885E+0	2.061852E+0	2.330098E+0	2.206601E+0	2.088093E+0	2.141736E+0	2.250281E+0	1.961287E+0	2.034534E+0	1.919290E+0	2.017526E+0	1.782291E+0	2.093107E+0	2.098645E+0	2.098390E+0	2.096573E+0	1.898791E+0	2.136182E+0	2.332667E+0	2.333266E+0	1.987974E+0	2.100441E+0	2.240103E+0	2.238910E+0	1.948099E+0	1.930261E+0	1.979192E+0	1.939226E+0	2.136021E+0	2.011067E+0	2.082408E+0	1.912608E+0	1.997768E+0	1.984827E+0	2.275988E+0	2.276204E+0	2.110124E+0	2.024242E+0	2.194360E+0	2.275093E+0	1.979150E+0	1.942204E+0	1.952949E+0	2.044155E+0	1.968972E+0	1.674008E+0	2.102459E+0	1.942403E+0	1.858398E+0	1.887925E+0	2.285238E+0	2.200692E+0	2.040434E+0	1.991060E+0	2.262327E+0	2.227971E+0	2.077103E+0	1.820910E+0	1.991225E+0	2.016358E+0	1.966559E+0	2.072765E+0	2.079080E+0	2.059964E+0	1.904891E+0	2.066373E+0	2.205042E+0	2.248454E+0	1.931575E+0	2.046240E+0	2.126079E+0	2.178057E+0	1.912935E+0	1.852025E+0	1.977570E+0	1.967563E+0	1.989494E+0	2.059418E+0	2.049069E+0	2.048078E+0	1.860798E+0	2.040793E+0	2.199681E+0	2.200204E+0	1.908506E+0	2.027167E+0	2.128427E+0	2.187915E+0	1.841700E+0	1.899965E+0	1.872201E+0	1.948546E+0	1.655596E+0	2.035023E+0	2.082593E+0	2.012798E+0	1.798313E+0	1.997835E+0	2.151198E+0	2.164548E+0	2.034211E+0	2.084376E+0	2.294662E+0
5.397860E+2	2.368256E+0	1.894850E+0	1.972515E+0	1.872715E+0	2.199442E+0	2.073669E+0	2.265752E+0	2.267491E+0	2.137084E+0	1.758137E+0	2.191360E+0	2.245017E+0	2.087236E+0	1.879890E+0	1.946646E+0	2.000532E+0	2.068356E+0	2.116812E+0	2.199006E+0	2.105940E+0	1.956650E+0	2.053361E+0	2.260684E+0	2.238151E+0	1.947159E+0	2.185423E+0	2.253454E+0	2.182074E+0	1.851992E+0	1.993782E+0	1.954642E+0	2.102134E+0	2.080557E+0	2.158980E+0	2.090398E+0	2.079346E+0	1.967128E+0	2.050951E+0	2.224479E+0	2.322501E+0	2.006734E+0	2.115467E+0	2.146647E+0	2.209042E+0	1.885047E+0	1.952488E+0	1.887680E+0	2.053683E+0	2.044722E+0	2.025348E+0	2.159851E+0	2.098023E+0	1.924030E+0	1.982252E+0	2.281371E+0	2.258714E+0	2.003529E+0	2.031755E+0	2.169297E+0	2.171428E+0	1.916805E+0	1.927748E+0	1.992729E+0	1.924571E+0	2.000396E+0	2.039695E+0	2.133044E+0	2.074299E+0	1.914336E+0	2.079603E+0	2.306771E+0	2.238102E+0	2.075519E+0	2.055768E+0	2.220395E+0	1.897077E+0	1.979491E+0	1.949724E+0	1.989408E+0	1.818717E+0	2.054367E+0	2.076636E+0	2.101314E+0	1.997501E+0	1.918551E+0	2.122013E+0	2.268505E+0	2.268093E+0	1.982841E+0	2.119493E+0	2.209499E+0	2.220328E+0	1.895110E+0	1.922484E+0	1.922272E+0	1.889514E+0	2.021776E+0	2.008121E+0	2.116253E+0	1.819221E+0	1.941184E+0	1.924594E+0	2.216717E+0	2.206044E+0	2.098617E+0	1.999335E+0	2.172033E+0	2.294434E+0	1.967186E+0	1.885236E+0	1.941881E+0	2.074575E+0	1.958973E+0	1.667749E+0	2.148353E+0	1.989816E+0	1.861600E+0	1.895497E+0	2.242781E+0	2.212768E+0	2.038157E+0	1.914678E+0	2.197037E+0	2.234191E+0	2.082099E+0	1.875215E+0	1.900707E+0	2.063236E+0	2.037156E+0	2.012441E+0	2.089264E+0	2.037245E+0	1.918799E+0	2.018872E+0	2.219839E+0	2.204705E+0	1.961740E+0	2.031713E+0	2.132845E+0	2.176894E+0	1.912423E+0	1.895129E+0	1.897236E+0	1.950159E+0	1.982199E+0	2.040716E+0	2.076317E+0	1.984162E+0	1.890454E+0	2.013542E+0	2.138791E+0	2.282359E+0	1.915238E+0	2.006059E+0	2.196676E+0	2.201150E+0	1.872748E+0	1.951267E+0	1.937305E+0	1.970841E+0	1.659250E+0	1.983923E+0	2.025824E+0	1.964507E+0	1.797815E+0	2.025341E+0	2.171268E+0	2.157033E+0	1.999111E+0	1.928638E+0	2.125959E+0
5.400240E+2	2.245854E+0	1.794316E+0	1.841083E+0	1.839196E+0	2.183196E+0	1.934919E+0	2.154344E+0	2.187721E+0	2.186217E+0	1.669660E+0	2.090723E+0	2.114815E+0	2.298927E+0	1.828865E+0	1.906055E+0	1.908267E+0	2.065133E+0	2.098389E+0	2.048665E+0	2.042991E+0	1.881955E+0	1.958813E+0	2.156840E+0	2.142300E+0	1.940443E+0	2.097958E+0	2.138502E+0	2.179287E+0	2.154411E+0	1.926572E+0	1.914638E+0	1.993595E+0	2.182316E+0	1.973078E+0	2.034921E+0	2.056682E+0	1.990280E+0	2.033775E+0	2.223929E+0	2.183723E+0	1.954807E+0	2.054761E+0	2.122503E+0	2.192015E+0	2.005137E+0	1.959061E+0	1.924434E+0	1.962173E+0	2.088118E+0	1.986453E+0	2.047816E+0	2.011130E+0	1.929268E+0	1.958452E+0	2.218900E+0	2.193369E+0	2.009938E+0	1.933347E+0	2.051023E+0	2.125575E+0	1.948730E+0	1.808347E+0	1.998993E+0	1.925954E+0	1.973090E+0	2.025152E+0	2.112565E+0	2.038494E+0	1.783103E+0	1.994802E+0	2.208571E+0	2.124595E+0	2.022365E+0	1.963230E+0	2.100258E+0	1.897076E+0	2.026110E+0	1.792625E+0	1.886632E+0	1.776382E+0	2.035000E+0	1.936849E+0	2.037587E+0	1.990424E+0	1.915513E+0	2.027543E+0	2.342261E+0	2.164980E+0	1.864220E+0	2.046848E+0	2.133510E+0	2.111570E+0	1.893653E+0	1.857176E+0	1.906791E+0	1.893580E+0	2.011743E+0	1.922135E+0	2.031357E+0	1.778084E+0	1.985673E+0	1.901580E+0	2.131610E+0	2.107199E+0	1.955923E+0	1.936802E+0	2.100348E+0	2.180656E+0	1.851382E+0	1.814017E+0	1.897054E+0	1.967091E+0	1.912504E+0	1.571329E+0	2.107354E+0	1.976611E+0	1.713734E+0	1.883380E+0	2.144650E+0	2.053413E+0	1.988041E+0	1.878249E+0	2.052191E+0	2.196893E+0	1.940556E+0	1.843452E+0	1.868946E+0	1.900370E+0	1.951607E+0	1.945533E+0	2.032621E+0	1.932394E+0	1.782044E+0	2.004410E+0	2.199015E+0	2.159859E+0	1.820231E+0	1.923319E+0	2.088567E+0	2.157639E+0	1.891661E+0	1.793709E+0	1.874950E+0	1.844342E+0	1.862487E+0	1.935132E+0	2.014710E+0	1.927603E+0	1.823226E+0	2.054680E+0	2.050893E+0	2.128125E+0	1.881589E+0	1.980262E+0	2.034063E+0	2.107334E+0	1.741826E+0	1.842445E+0	1.816396E+0	1.840246E+0	1.623766E+0	1.921876E+0	1.993303E+0	1.991459E+0	1.743443E+0	1.952649E+0	2.083599E+0	2.157034E+0	1.909702E+0	1.929818E+0	2.125959E+0
5.402790E+2	2.113114E+0	1.679497E+0	1.736268E+0	1.777650E+0	2.046526E+0	1.852859E+0	2.006343E+0	2.039786E+0	2.134686E+0	1.609125E+0	1.891152E+0	2.062098E+0	2.130804E+0	1.785127E+0	1.767583E+0	1.786816E+0	1.971105E+0	1.977237E+0	1.962202E+0	1.872582E+0	1.716363E+0	1.863798E+0	2.046925E+0	2.004160E+0	1.860940E+0	1.878253E+0	1.929552E+0	1.998355E+0	2.061318E+0	1.792649E+0	1.705898E+0	1.815460E+0	2.071101E+0	1.879305E+0	1.892031E+0	1.918547E+0	1.765511E+0	1.905235E+0	2.094951E+0	2.058585E+0	1.944884E+0	1.976871E+0	1.957132E+0	2.027638E+0	2.065452E+0	1.747051E+0	1.715824E+0	1.874744E+0	2.051000E+0	1.839401E+0	1.897845E+0	1.817341E+0	1.828359E+0	1.843183E+0	1.989313E+0	2.027473E+0	1.920843E+0	1.808483E+0	1.960819E+0	1.927461E+0	2.081762E+0	1.706709E+0	1.794858E+0	1.774583E+0	1.932411E+0	1.929509E+0	1.939145E+0	1.810617E+0	1.738410E+0	1.877953E+0	2.029538E+0	1.886584E+0	1.905773E+0	1.882186E+0	1.984817E+0	1.742743E+0	2.012071E+0	1.755809E+0	1.792583E+0	1.638559E+0	1.949653E+0	1.890452E+0	1.918318E+0	1.906595E+0	1.747328E+0	1.928879E+0	2.037126E+0	2.054574E+0	1.801491E+0	1.901550E+0	2.020589E+0	1.955814E+0	1.841151E+0	1.763878E+0	1.752496E+0	1.669416E+0	1.900845E+0	1.802577E+0	1.951053E+0	1.629107E+0	1.739531E+0	1.730186E+0	2.044483E+0	1.899784E+0	1.869616E+0	1.825571E+0	1.950521E+0	2.036728E+0	1.767653E+0	1.706687E+0	1.765336E+0	1.876849E+0	1.743705E+0	1.495237E+0	1.884003E+0	1.715528E+0	1.665207E+0	1.715276E+0	2.023910E+0	1.994157E+0	1.863326E+0	1.753101E+0	1.965498E+0	2.024077E+0	1.876719E+0	1.648784E+0	1.746140E+0	1.855914E+0	1.867253E+0	1.811170E+0	1.919977E+0	1.843270E+0	1.691187E+0	1.806138E+0	1.943593E+0	2.002916E+0	1.780191E+0	1.847892E+0	1.905916E+0	1.969173E+0	1.741747E+0	1.685693E+0	1.754719E+0	1.751347E+0	1.728792E+0	1.823512E+0	1.829303E+0	1.792421E+0	1.673941E+0	1.886011E+0	1.990533E+0	1.980946E+0	1.717845E+0	1.846593E+0	1.959877E+0	1.972651E+0	1.623327E+0	1.748652E+0	1.730621E+0	1.764255E+0	1.558533E+0	1.870778E+0	1.815262E+0	1.833115E+0	1.699042E+0	1.861291E+0	1.984835E+0	1.926552E+0	1.789370E+0	1.820093E+0	1.947886E+0
5.405130E+2	2.021176E+0	1.581821E+0	1.683585E+0	1.613348E+0	1.938980E+0	1.798873E+0	1.900384E+0	1.934390E+0	1.990279E+0	1.583253E+0	1.855906E+0	1.971433E+0	2.007277E+0	1.641421E+0	1.778091E+0	1.749053E+0	1.893739E+0	1.830960E+0	1.891159E+0	1.872070E+0	1.646618E+0	1.770198E+0	1.927382E+0	1.893738E+0	1.837424E+0	1.880335E+0	1.925021E+0	1.968848E+0	1.956151E+0	1.732901E+0	1.717694E+0	1.771258E+0	2.005484E+0	1.801436E+0	1.774917E+0	1.790662E+0	1.746220E+0	1.805638E+0	1.914929E+0	1.986135E+0	1.845103E+0	1.838282E+0	1.890737E+0	1.933118E+0	1.925255E+0	1.745954E+0	1.737677E+0	1.817664E+0	1.997671E+0	1.768540E+0	1.834825E+0	1.800764E+0	1.762680E+0	1.749386E+0	1.970626E+0	1.915876E+0	1.837570E+0	1.688909E+0	1.911237E+0	1.891010E+0	2.003008E+0	1.644047E+0	1.744738E+0	1.668431E+0	1.909567E+0	1.795267E+0	1.878329E+0	1.844148E+0	1.600998E+0	1.832593E+0	2.032790E+0	1.859083E+0	1.816044E+0	1.773768E+0	1.915670E+0	1.692049E+0	1.928377E+0	1.625708E+0	1.720833E+0	1.533221E+0	1.957521E+0	1.855953E+0	1.758710E+0	1.761794E+0	1.759486E+0	1.858554E+0	2.002264E+0	1.974325E+0	1.787236E+0	1.854504E+0	1.863338E+0	1.927941E+0	1.951013E+0	1.634293E+0	1.707057E+0	1.693370E+0	1.912549E+0	1.781963E+0	1.785852E+0	1.645231E+0	1.755489E+0	1.737528E+0	1.949748E+0	1.882880E+0	1.881122E+0	1.746434E+0	1.927605E+0	2.000317E+0	1.949789E+0	1.650224E+0	1.719405E+0	1.769877E+0	1.879568E+0	1.478035E+0	1.824036E+0	1.692724E+0	1.674367E+0	1.659746E+0	1.906477E+0	1.964245E+0	1.816631E+0	1.780713E+0	1.875520E+0	1.944502E+0	1.818996E+0	1.576552E+0	1.700614E+0	1.755396E+0	1.814604E+0	1.724517E+0	1.829603E+0	1.810646E+0	1.642049E+0	1.762770E+0	1.981964E+0	1.977214E+0	1.713825E+0	1.799841E+0	1.934206E+0	1.930077E+0	1.718448E+0	1.627377E+0	1.753164E+0	1.686759E+0	1.658301E+0	1.734217E+0	1.765921E+0	1.861427E+0	1.669494E+0	1.753856E+0	1.944994E+0	1.905339E+0	1.685882E+0	1.732851E+0	1.853642E+0	1.955960E+0	1.550361E+0	1.650713E+0	1.699104E+0	1.670973E+0	1.742224E+0	1.816641E+0	1.714951E+0	1.773035E+0	1.631198E+0	1.727693E+0	1.895583E+0	1.877698E+0	1.766808E+0	1.746942E+0	1.947884E+0
5.407740E+2	1.963133E+0	1.518983E+0	1.604279E+0	1.580376E+0	1.851599E+0	1.698995E+0	1.886189E+0	1.816910E+0	1.876429E+0	1.448216E+0	1.842256E+0	1.819087E+0	1.852997E+0	1.548744E+0	1.693098E+0	1.684252E+0	1.804543E+0	1.787413E+0	1.778265E+0	1.721614E+0	1.599818E+0	1.718670E+0	1.853427E+0	1.827956E+0	1.768560E+0	1.768399E+0	1.815168E+0	1.868082E+0	1.889232E+0	1.602464E+0	1.594095E+0	1.706919E+0	1.913174E+0	1.732337E+0	1.768191E+0	1.697312E+0	1.750558E+0	1.711443E+0	1.808451E+0	1.834185E+0	1.792584E+0	1.716863E+0	1.773046E+0	1.993589E+0	1.880156E+0	1.586533E+0	1.723771E+0	1.700794E+0	1.921341E+0	1.660913E+0	1.770638E+0	1.715019E+0	1.671292E+0	1.632247E+0	1.943929E+0	1.940510E+0	1.781669E+0	1.636532E+0	1.881371E+0	1.819288E+0	1.905096E+0	1.607540E+0	1.716547E+0	1.687815E+0	1.815393E+0	1.734300E+0	1.767532E+0	1.689009E+0	1.646643E+0	1.703913E+0	1.932967E+0	1.892085E+0	1.785750E+0	1.761722E+0	1.835384E+0	1.599108E+0	1.855362E+0	1.572198E+0	1.730531E+0	1.485476E+0	1.837066E+0	1.711410E+0	1.713692E+0	1.644763E+0	1.656146E+0	1.758836E+0	1.927999E+0	1.878022E+0	1.682305E+0	1.788409E+0	1.853310E+0	1.783661E+0	1.850387E+0	1.572096E+0	1.664614E+0	1.593940E+0	1.831739E+0	1.689501E+0	1.760610E+0	1.585196E+0	1.645235E+0	1.634200E+0	1.866671E+0	1.830135E+0	1.779279E+0	1.703824E+0	1.797165E+0	1.955374E+0	1.957404E+0	1.583587E+0	1.619234E+0	1.729317E+0	1.831343E+0	1.394642E+0	1.850958E+0	1.621300E+0	1.594253E+0	1.595129E+0	1.829291E+0	1.826174E+0	1.710704E+0	1.645575E+0	1.791026E+0	1.858718E+0	1.820658E+0	1.546837E+0	1.606391E+0	1.651970E+0	1.858277E+0	1.681191E+0	1.724592E+0	1.672012E+0	1.582245E+0	1.690995E+0	1.904681E+0	1.894093E+0	1.731924E+0	1.673570E+0	1.813055E+0	1.776036E+0	1.897737E+0	1.595940E+0	1.616861E+0	1.638657E+0	1.749457E+0	1.711893E+0	1.746965E+0	1.718889E+0	1.604244E+0	1.729688E+0	1.845452E+0	1.846870E+0	1.691487E+0	1.756304E+0	1.840587E+0	1.805737E+0	1.826174E+0	1.564174E+0	1.621083E+0	1.623193E+0	1.758402E+0	1.683418E+0	1.694004E+0	1.703407E+0	1.588296E+0	1.701659E+0	1.853329E+0	1.867676E+0	1.634777E+0	1.674973E+0	1.840103E+0
5.410290E+2	1.916593E+0	1.842299E+0	1.565458E+0	1.546310E+0	1.809590E+0	1.711953E+0	1.770951E+0	1.808206E+0	1.870434E+0	1.413029E+0	1.753558E+0	1.808546E+0	1.901176E+0	1.469600E+0	1.542688E+0	1.624173E+0	1.739530E+0	1.746653E+0	1.702813E+0	1.675044E+0	1.561572E+0	1.672816E+0	1.806318E+0	1.856618E+0	1.695217E+0	1.694989E+0	1.719466E+0	1.801831E+0	1.767459E+0	1.588024E+0	1.580246E+0	1.633390E+0	1.815862E+0	1.693404E+0	1.702631E+0	1.695149E+0	1.689302E+0	1.729596E+0	1.838090E+0	1.893461E+0	1.696304E+0	1.726031E+0	1.754335E+0	1.817465E+0	1.808972E+0	1.602969E+0	1.583209E+0	1.630122E+0	1.882649E+0	1.695016E+0	1.750214E+0	1.696726E+0	1.600848E+0	1.612186E+0	1.861704E+0	1.760537E+0	1.739160E+0	1.587326E+0	1.835972E+0	1.786367E+0	1.825809E+0	1.542904E+0	1.608993E+0	1.539213E+0	1.766355E+0	1.692349E+0	1.828952E+0	1.703215E+0	1.535382E+0	1.673343E+0	1.827711E+0	1.800083E+0	1.650302E+0	1.677396E+0	1.788504E+0	1.595167E+0	1.812115E+0	1.488249E+0	1.592850E+0	1.430836E+0	1.846752E+0	1.659066E+0	1.695570E+0	1.670890E+0	1.558379E+0	1.726300E+0	1.849696E+0	1.823552E+0	1.668050E+0	1.688370E+0	1.755690E+0	1.757973E+0	1.828514E+0	1.537883E+0	1.644138E+0	1.621057E+0	1.841214E+0	1.622946E+0	1.693500E+0	1.575743E+0	1.622019E+0	1.574458E+0	1.783084E+0	1.786602E+0	1.809200E+0	1.642395E+0	1.704919E+0	1.914984E+0	1.910646E+0	1.473712E+0	1.562783E+0	1.627919E+0	1.704885E+0	1.350342E+0	1.759170E+0	1.636305E+0	1.584181E+0	1.531021E+0	1.836457E+0	1.749088E+0	1.665717E+0	1.559788E+0	1.775660E+0	1.793442E+0	1.732399E+0	1.447970E+0	1.576219E+0	1.569820E+0	1.746407E+0	1.694356E+0	1.641861E+0	1.676669E+0	1.487676E+0	1.666730E+0	1.804920E+0	1.843236E+0	1.631553E+0	1.642840E+0	1.813671E+0	1.786540E+0	1.833924E+0	1.592896E+0	1.581620E+0	1.612549E+0	1.763433E+0	1.665437E+0	1.694246E+0	1.676472E+0	1.532565E+0	1.637127E+0	1.750143E+0	1.811087E+0	1.655038E+0	1.707640E+0	1.747412E+0	1.789047E+0	1.854119E+0	1.572462E+0	1.552875E+0	1.568589E+0	1.723440E+0	1.645701E+0	1.631720E+0	1.680948E+0	1.581310E+0	1.658437E+0	1.768828E+0	1.749929E+0	1.684080E+0	1.646657E+0	1.823701E+0
5.412850E+2	1.721791E+0	1.690924E+0	1.376908E+0	1.472122E+0	1.688602E+0	1.573204E+0	1.686299E+0	1.652534E+0	1.678088E+0	1.303860E+0	1.584696E+0	1.685192E+0	1.694615E+0	1.407121E+0	1.469632E+0	1.476977E+0	1.599829E+0	1.614336E+0	1.611395E+0	1.555298E+0	1.476525E+0	1.542817E+0	1.645240E+0	1.653635E+0	1.527814E+0	1.582536E+0	1.641886E+0	1.684364E+0	1.681914E+0	1.444143E+0	1.395099E+0	1.534915E+0	1.697421E+0	1.612792E+0	1.548533E+0	1.538127E+0	1.538814E+0	1.556897E+0	1.682768E+0	1.679876E+0	1.576680E+0	1.562239E+0	1.650524E+0	1.666004E+0	1.730179E+0	1.450669E+0	1.422278E+0	1.539070E+0	1.700191E+0	1.499476E+0	1.600247E+0	1.578398E+0	1.468528E+0	1.471716E+0	1.693519E+0	1.665025E+0	1.595914E+0	1.494735E+0	1.641233E+0	1.597661E+0	1.735881E+0	1.468403E+0	1.548430E+0	1.509675E+0	1.647107E+0	1.523435E+0	1.594111E+0	1.539553E+0	1.385133E+0	1.517547E+0	1.711068E+0	1.654077E+0	1.615436E+0	1.498341E+0	1.647273E+0	1.514617E+0	1.615533E+0	1.408720E+0	1.477960E+0	1.382601E+0	1.624002E+0	1.541290E+0	1.537716E+0	1.541336E+0	1.471248E+0	1.590896E+0	1.740573E+0	1.671803E+0	1.540307E+0	1.596666E+0	1.592636E+0	1.632277E+0	1.688025E+0	1.436291E+0	1.480360E+0	1.440728E+0	1.616622E+0	1.456863E+0	1.539772E+0	1.412314E+0	1.471624E+0	1.449586E+0	1.703045E+0	1.600183E+0	1.692396E+0	1.476377E+0	1.673778E+0	1.701649E+0	1.718720E+0	1.379609E+0	1.491945E+0	1.498640E+0	1.630189E+0	1.229422E+0	1.601907E+0	1.463452E+0	1.438147E+0	1.385127E+0	1.718472E+0	1.670269E+0	1.544419E+0	1.486933E+0	1.626975E+0	1.657302E+0	1.689662E+0	1.401862E+0	1.437528E+0	1.482830E+0	1.601028E+0	1.516114E+0	1.554668E+0	1.550847E+0	1.415360E+0	1.545389E+0	1.688725E+0	1.691761E+0	1.531179E+0	1.555120E+0	1.662388E+0	1.585239E+0	1.716421E+0	1.406791E+0	1.447912E+0	1.424731E+0	1.576261E+0	1.506154E+0	1.473886E+0	1.539026E+0	1.466325E+0	1.561022E+0	1.637361E+0	1.665417E+0	1.547367E+0	1.473128E+0	1.601413E+0	1.579541E+0	1.714917E+0	1.465197E+0	1.414398E+0	1.485773E+0	1.625850E+0	1.513090E+0	1.572189E+0	1.510813E+0	1.432151E+0	1.559218E+0	1.617251E+0	1.674145E+0	1.561242E+0	1.522774E+0	1.617510E+0
5.415140E+2	1.546529E+0	1.488138E+0	1.319785E+0	1.273754E+0	1.485835E+0	1.422577E+0	1.450368E+0	1.460602E+0	1.546263E+0	1.195204E+0	1.444827E+0	1.434272E+0	1.554685E+0	1.250919E+0	1.281503E+0	1.362823E+0	1.445085E+0	1.426190E+0	1.425806E+0	1.357249E+0	1.312285E+0	1.417071E+0	1.497328E+0	1.512203E+0	1.383922E+0	1.434677E+0	1.439167E+0	1.487283E+0	1.487180E+0	1.270884E+0	1.311500E+0	1.373853E+0	1.545612E+0	1.367118E+0	1.425258E+0	1.395671E+0	1.328515E+0	1.374877E+0	1.507134E+0	1.502047E+0	1.385285E+0	1.448842E+0	1.502651E+0	1.519235E+0	1.510102E+0	1.330145E+0	1.324928E+0	1.333860E+0	1.518772E+0	1.352422E+0	1.449693E+0	1.415482E+0	1.344775E+0	1.307448E+0	1.522131E+0	1.501147E+0	1.453828E+0	1.341304E+0	1.450081E+0	1.417766E+0	1.487907E+0	1.284371E+0	1.380840E+0	1.307996E+0	1.503338E+0	1.377447E+0	1.480300E+0	1.416235E+0	1.289565E+0	1.440636E+0	1.511956E+0	1.515069E+0	1.396540E+0	1.430440E+0	1.476746E+0	1.292692E+0	1.511063E+0	1.311516E+0	1.307796E+0	1.253140E+0	1.463600E+0	1.375930E+0	1.364074E+0	1.410144E+0	1.301041E+0	1.396191E+0	1.542535E+0	1.486501E+0	1.394888E+0	1.369193E+0	1.457019E+0	1.460667E+0	1.564066E+0	1.308785E+0	1.304096E+0	1.285711E+0	1.447203E+0	1.366755E+0	1.367114E+0	1.252221E+0	1.328000E+0	1.333040E+0	1.474575E+0	1.484439E+0	1.479505E+0	1.391707E+0	1.470478E+0	1.529847E+0	1.564854E+0	1.313993E+0	1.286070E+0	1.408398E+0	1.400807E+0	1.226296E+0	1.464226E+0	1.326010E+0	1.272883E+0	1.285176E+0	1.478098E+0	1.547156E+0	1.401479E+0	1.335338E+0	1.487615E+0	1.508730E+0	1.503153E+0	1.265597E+0	1.290901E+0	1.357180E+0	1.427534E+0	1.359817E+0	1.410840E+0	1.409294E+0	1.261453E+0	1.396168E+0	1.466191E+0	1.534270E+0	1.396801E+0	1.326600E+0	1.516023E+0	1.442866E+0	1.515356E+0	1.267336E+0	1.325086E+0	1.317996E+0	1.491791E+0	1.348075E+0	1.391551E+0	1.386311E+0	1.265631E+0	1.436063E+0	1.497050E+0	1.546970E+0	1.341562E+0	1.375806E+0	1.458979E+0	1.479393E+0	1.533802E+0	1.300931E+0	1.298657E+0	1.317863E+0	1.469815E+0	1.408458E+0	1.337381E+0	1.414796E+0	1.317413E+0	1.387799E+0	1.506869E+0	1.535103E+0	1.439239E+0	1.344619E+0	1.577676E+0
5.417760E+2	1.282197E+0	1.264789E+0	1.092966E+0	1.101209E+0	1.246100E+0	1.211486E+0	1.233003E+0	1.295262E+0	1.296393E+0	1.041533E+0	1.192383E+0	1.254513E+0	1.323520E+0	1.189478E+0	1.121544E+0	1.140953E+0	1.276909E+0	1.317319E+0	1.307400E+0	1.186835E+0	1.107543E+0	1.164165E+0	1.237981E+0	1.257062E+0	1.134218E+0	1.246211E+0	1.233612E+0	1.232863E+0	1.256214E+0	1.180771E+0	1.091478E+0	1.140572E+0	1.264794E+0	1.237697E+0	1.151244E+0	1.171201E+0	1.179955E+0	1.182065E+0	1.265092E+0	1.342099E+0	1.207893E+0	1.246104E+0	1.215964E+0	1.290277E+0	1.245466E+0	1.149908E+0	1.175918E+0	1.106908E+0	1.264686E+0	1.154754E+0	1.226199E+0	1.180535E+0	1.119641E+0	1.087648E+0	1.330451E+0	1.303585E+0	1.173157E+0	1.134434E+0	1.258331E+0	1.215538E+0	1.248986E+0	1.141289E+0	1.163651E+0	1.156618E+0	1.267626E+0	1.201819E+0	1.264730E+0	1.157671E+0	1.062287E+0	1.176863E+0	1.298739E+0	1.270058E+0	1.242225E+0	1.215795E+0	1.211869E+0	1.118081E+0	1.303809E+0	1.097470E+0	1.157513E+0	1.046897E+0	1.254774E+0	1.158818E+0	1.181665E+0	1.189138E+0	1.130326E+0	1.215127E+0	1.323785E+0	1.265688E+0	1.220953E+0	1.248908E+0	1.307687E+0	1.225118E+0	1.281635E+0	1.079163E+0	1.098868E+0	1.124366E+0	1.281129E+0	1.194782E+0	1.201913E+0	1.113248E+0	1.181959E+0	1.098473E+0	1.260797E+0	1.195591E+0	1.250500E+0	1.154851E+0	1.237803E+0	1.289205E+0	1.333239E+0	1.080509E+0	1.074662E+0	1.198506E+0	1.245531E+0	1.228380E+0	1.224964E+0	1.096739E+0	1.074204E+0	1.106470E+0	1.276313E+0	1.223843E+0	1.214123E+0	1.130279E+0	1.290093E+0	1.297994E+0	1.317757E+0	1.018163E+0	1.101924E+0	1.116510E+0	1.227717E+0	1.173901E+0	1.183635E+0	1.167552E+0	1.046821E+0	1.184990E+0	1.287509E+0	1.237333E+0	1.170278E+0	1.166805E+0	1.188854E+0	1.270154E+0	1.269211E+0	1.049282E+0	1.121931E+0	1.104526E+0	1.232913E+0	1.155005E+0	1.196663E+0	1.152149E+0	1.104976E+0	1.193350E+0	1.335024E+0	1.283359E+0	1.146414E+0	1.163573E+0	1.264909E+0	1.212331E+0	1.311287E+0	1.108162E+0	1.128143E+0	1.105363E+0	1.312734E+0	1.153572E+0	1.182496E+0	1.166051E+0	1.120861E+0	1.175125E+0	1.296141E+0	1.295224E+0	1.169330E+0	1.184161E+0	1.373828E+0
5.420320E+2	1.133367E+0	1.067717E+0	9.737337E-1	9.374557E-1	1.125112E+0	1.016049E+0	1.072984E+0	1.085440E+0	1.142394E+0	9.090782E-1	1.082649E+0	1.114822E+0	1.147711E+0	1.123873E+0	9.606293E-1	9.813121E-1	1.095836E+0	1.132521E+0	1.064534E+0	1.050198E+0	9.896498E-1	1.045984E+0	1.114385E+0	1.122209E+0	1.022802E+0	1.112409E+0	1.077887E+0	1.095351E+0	1.109788E+0	1.141438E+0	9.596696E-1	9.755702E-1	1.145793E+0	1.100603E+0	1.011156E+0	1.015795E+0	1.014996E+0	1.098169E+0	1.177827E+0	1.147336E+0	1.085937E+0	1.085177E+0	1.056021E+0	1.131771E+0	1.125920E+0	1.134568E+0	1.002574E+0	1.026728E+0	1.153326E+0	1.107335E+0	1.028381E+0	1.078211E+0	9.901766E-1	1.020914E+0	1.121152E+0	1.116079E+0	1.105027E+0	1.066183E+0	1.129300E+0	1.103841E+0	1.131918E+0	1.031262E+0	1.011723E+0	9.604782E-1	1.056433E+0	1.083239E+0	1.037717E+0	1.026967E+0	9.576814E-1	1.037828E+0	1.170701E+0	1.091050E+0	1.042189E+0	1.008811E+0	1.129828E+0	9.496650E-1	1.107788E+0	9.659024E-1	1.024680E+0	8.938119E-1	1.076212E+0	1.050560E+0	1.036674E+0	1.026921E+0	9.646781E-1	1.052958E+0	1.152525E+0	1.114428E+0	1.028773E+0	1.009528E+0	1.112445E+0	1.076463E+0	1.216984E+0	9.661672E-1	9.915116E-1	9.431363E-1	1.043165E+0	9.815820E-1	1.040153E+0	9.192452E-1	9.919106E-1	1.042158E+0	1.130605E+0	1.083432E+0	1.102628E+0	1.028677E+0	1.088563E+0	1.135603E+0	1.183721E+0	9.441848E-1	1.030388E+0	1.089505E+0	1.097314E+0	9.974890E-1	1.038940E+0	9.947079E-1	9.959221E-1	9.969250E-1	1.096031E+0	1.120289E+0	1.011959E+0	1.041557E+0	1.092575E+0	1.158124E+0	1.075188E+0	9.320991E-1	1.001877E+0	9.889296E-1	1.059010E+0	1.021439E+0	1.075445E+0	1.037652E+0	9.856302E-1	1.066748E+0	1.135135E+0	1.187569E+0	1.033706E+0	1.008685E+0	1.076313E+0	1.124866E+0	1.153232E+0	9.747371E-1	9.996232E-1	9.574800E-1	1.096182E+0	1.049419E+0	1.114326E+0	1.059955E+0	1.018470E+0	1.075077E+0	1.132758E+0	1.122574E+0	1.055007E+0	9.929653E-1	1.096953E+0	1.100096E+0	1.149317E+0	9.972679E-1	9.715812E-1	1.025730E+0	1.109211E+0	1.034342E+0	1.059028E+0	1.034098E+0	9.911565E-1	1.049876E+0	1.108653E+0	1.163070E+0	1.079082E+0	1.056739E+0	1.127805E+0
5.422780E+2	1.018441E+0	1.032872E+0	8.761294E-1	8.451393E-1	1.013087E+0	9.928342E-1	1.010178E+0	1.028876E+0	1.080076E+0	8.180152E-1	9.763268E-1	1.026262E+0	1.022646E+0	1.016093E+0	8.551033E-1	9.238056E-1	1.000733E+0	1.028677E+0	9.665067E-1	9.140726E-1	8.506071E-1	9.580567E-1	1.003960E+0	1.055958E+0	9.701742E-1	1.001514E+0	9.657668E-1	1.034112E+0	1.000092E+0	1.021951E+0	9.047922E-1	9.348672E-1	1.016784E+0	1.018894E+0	9.926647E-1	9.720876E-1	9.117768E-1	9.603046E-1	9.895723E-1	1.064537E+0	9.896558E-1	9.786537E-1	9.709195E-1	1.043123E+0	1.023218E+0	1.046367E+0	9.037322E-1	8.939974E-1	1.050333E+0	9.592173E-1	9.332657E-1	8.958572E-1	9.211623E-1	9.336479E-1	9.972819E-1	1.043186E+0	9.751720E-1	9.746523E-1	1.028945E+0	9.615738E-1	9.940981E-1	1.051491E+0	9.245344E-1	8.737141E-1	1.008510E+0	1.026187E+0	9.985764E-1	9.786641E-1	8.682936E-1	9.313343E-1	1.016079E+0	1.051048E+0	1.009040E+0	9.808846E-1	1.005594E+0	8.640481E-1	1.006127E+0	1.048869E+0	9.505076E-1	8.283453E-1	9.751279E-1	1.036879E+0	9.980869E-1	9.060743E-1	8.795743E-1	1.001527E+0	1.055525E+0	1.030773E+0	9.489342E-1	1.024414E+0	1.038041E+0	1.000497E+0	1.055594E+0	9.900105E-1	8.801602E-1	8.690178E-1	1.022546E+0	1.048723E+0	9.845126E-1	8.386422E-1	9.662813E-1	9.270791E-1	1.039421E+0	1.024023E+0	1.031280E+0	9.229769E-1	9.792750E-1	1.071318E+0	1.066826E+0	9.523231E-1	9.080808E-1	9.896295E-1	9.690945E-1	9.834164E-1	9.814199E-1	9.364894E-1	8.622468E-1	9.408904E-1	1.056335E+0	9.960254E-1	9.692485E-1	8.976032E-1	1.037160E+0	1.071094E+0	1.060756E+0	8.219581E-1	8.388384E-1	9.517174E-1	1.031490E+0	9.539826E-1	9.946188E-1	9.683324E-1	8.864252E-1	9.330176E-1	1.009617E+0	1.036639E+0	9.349798E-1	9.505781E-1	9.963662E-1	1.049597E+0	1.049404E+0	8.677385E-1	9.021917E-1	8.947229E-1	9.703888E-1	9.317670E-1	9.241781E-1	9.304300E-1	9.018099E-1	9.737742E-1	1.042744E+0	1.073178E+0	9.759371E-1	9.243700E-1	9.942813E-1	1.064411E+0	1.046855E+0	8.749734E-1	8.604893E-1	8.769331E-1	1.059113E+0	9.388365E-1	9.002841E-1	9.173060E-1	9.083451E-1	9.457481E-1	1.015172E+0	1.059728E+0	9.562434E-1	9.930275E-1	1.010651E+0
5.425400E+2	1.080501E+0	1.019162E+0	8.384181E-1	8.462385E-1	1.009726E+0	9.410058E-1	1.010724E+0	1.039512E+0	9.860004E-1	8.531985E-1	9.609757E-1	9.967417E-1	1.036485E+0	9.562161E-1	8.636988E-1	9.160824E-1	1.001807E+0	1.015836E+0	9.510871E-1	1.001582E+0	8.717557E-1	9.041660E-1	9.973748E-1	9.727894E-1	9.209045E-1	9.661116E-1	9.912486E-1	1.053597E+0	9.774478E-1	9.771434E-1	8.888933E-1	9.059791E-1	9.967649E-1	1.018894E+0	9.517593E-1	9.397119E-1	9.252818E-1	9.539264E-1	1.004940E+0	9.925574E-1	9.844038E-1	9.763629E-1	9.624701E-1	1.012596E+0	1.038976E+0	1.018975E+0	9.086987E-1	9.483578E-1	1.026284E+0	1.014095E+0	9.402675E-1	9.467335E-1	9.045032E-1	9.453147E-1	9.812642E-1	9.924136E-1	9.623618E-1	9.402624E-1	9.948951E-1	1.007429E+0	1.016448E+0	1.014489E+0	9.015623E-1	9.138656E-1	1.038602E+0	1.057510E+0	9.534151E-1	8.905815E-1	8.630635E-1	9.683111E-1	1.046461E+0	9.850445E-1	9.393141E-1	9.918362E-1	9.376164E-1	8.623584E-1	9.640024E-1	1.012541E+0	8.802130E-1	8.189923E-1	1.010841E+0	1.034500E+0	9.682698E-1	9.093402E-1	8.831202E-1	9.962781E-1	1.038854E+0	1.021533E+0	9.169993E-1	1.027392E+0	1.013768E+0	9.720780E-1	1.047330E+0	1.056357E+0	8.981362E-1	8.531994E-1	1.023660E+0	9.851156E-1	9.346077E-1	8.614333E-1	9.261435E-1	8.849652E-1	1.018145E+0	9.594944E-1	9.984830E-1	1.029783E+0	9.833880E-1	1.010447E+0	1.020068E+0	1.033712E+0	8.743217E-1	9.308193E-1	1.014383E+0	9.683014E-1	1.007120E+0	8.122507E-1	8.567530E-1	9.227175E-1	9.587510E-1	1.033420E+0	9.652622E-1	9.475467E-1	9.822930E-1	1.034416E+0	1.024121E+0	1.038654E+0	9.097708E-1	9.159553E-1	9.531186E-1	1.015406E+0	9.220671E-1	9.176532E-1	8.470216E-1	9.753568E-1	1.010165E+0	1.026796E+0	9.388193E-1	9.550479E-1	1.044949E+0	1.015755E+0	1.056495E+0	9.230125E-1	8.337820E-1	8.805223E-1	9.861884E-1	9.740011E-1	9.822296E-1	9.592762E-1	8.454568E-1	9.902297E-1	1.015740E+0	1.048479E+0	9.243461E-1	9.149890E-1	9.770699E-1	1.010884E+0	1.075834E+0	8.651281E-1	8.641060E-1	8.578212E-1	9.985769E-1	9.394445E-1	8.997328E-1	9.403281E-1	8.938782E-1	9.010515E-1	1.026263E+0	1.007117E+0	9.537359E-1	8.797644E-1	1.010650E+0
5.427650E+2	1.064411E+0	1.092850E+0	9.371317E-1	9.127287E-1	1.050615E+0	1.033865E+0	1.050046E+0	1.105745E+0	1.107041E+0	8.656159E-1	1.028635E+0	1.050510E+0	1.049299E+0	1.048375E+0	9.162221E-1	9.014911E-1	1.038881E+0	1.109072E+0	9.648541E-1	9.754828E-1	9.608518E-1	9.538019E-1	1.057147E+0	1.098714E+0	1.026721E+0	1.084815E+0	1.028056E+0	1.031885E+0	1.040851E+0	1.049832E+0	9.371035E-1	9.672553E-1	1.055708E+0	1.077023E+0	9.842593E-1	1.019573E+0	9.802682E-1	9.985725E-1	1.057629E+0	9.972624E-1	1.011830E+0	1.035351E+0	9.962691E-1	1.097133E+0	1.085167E+0	1.121421E+0	9.320432E-1	9.814283E-1	1.078042E+0	1.090818E+0	9.980374E-1	1.011901E+0	9.811334E-1	9.415808E-1	1.083778E+0	1.052235E+0	1.017098E+0	9.815304E-1	1.034918E+0	1.030356E+0	1.137240E+0	1.105763E+0	9.751770E-1	9.115581E-1	1.001267E+0	1.037933E+0	1.035910E+0	9.894612E-1	9.377129E-1	9.786648E-1	1.160936E+0	1.076049E+0	1.007897E+0	1.056449E+0	1.019071E+0	9.029136E-1	1.102733E+0	1.063106E+0	9.369336E-1	8.229304E-1	1.080449E+0	1.096956E+0	9.869784E-1	9.664972E-1	8.947715E-1	1.028293E+0	1.162123E+0	1.077465E+0	9.871427E-1	1.088130E+0	1.071813E+0	1.101603E+0	1.060941E+0	1.104043E+0	9.086212E-1	8.974905E-1	1.113941E+0	1.048722E+0	9.753343E-1	9.359214E-1	9.899767E-1	1.004451E+0	1.089067E+0	1.064484E+0	1.049693E+0	1.027570E+0	1.020992E+0	1.086679E+0	1.083680E+0	1.062706E+0	9.650840E-1	9.977416E-1	1.042027E+0	1.068893E+0	1.019359E+0	9.622973E-1	9.075680E-1	9.535114E-1	1.055232E+0	1.005230E+0	1.010820E+0	1.028043E+0	1.013019E+0	1.081040E+0	1.085735E+0	1.079124E+0	9.357080E-1	9.584831E-1	1.024311E+0	1.018696E+0	1.078626E+0	9.817300E-1	9.012597E-1	1.018213E+0	1.029349E+0	1.084761E+0	9.541767E-1	1.067352E+0	1.065858E+0	1.098610E+0	1.064091E+0	1.133460E+0	9.514251E-1	9.739729E-1	1.035412E+0	1.107944E+0	1.037911E+0	1.030543E+0	8.894517E-1	1.058622E+0	1.085633E+0	1.046967E+0	9.725729E-1	1.015830E+0	1.054816E+0	1.081678E+0	1.100155E+0	1.111270E+0	9.524631E-1	9.674855E-1	1.069549E+0	1.148706E+0	9.873726E-1	9.526811E-1	9.592293E-1	1.027774E+0	1.055838E+0	1.063485E+0	1.018080E+0	1.010725E+0	1.022365E+0
5.430170E+2	1.243697E+0	1.184817E+0	1.044719E+0	1.040214E+0	1.178885E+0	1.094331E+0	1.192589E+0	1.192768E+0	1.202915E+0	1.001693E+0	1.172484E+0	1.168591E+0	1.233821E+0	1.182188E+0	1.047055E+0	1.039676E+0	1.147954E+0	1.201192E+0	1.120707E+0	1.148965E+0	1.016199E+0	1.112639E+0	1.159468E+0	1.196448E+0	1.100625E+0	1.175925E+0	1.153201E+0	1.179972E+0	1.213947E+0	1.197201E+0	1.030959E+0	1.087177E+0	1.172485E+0	1.198765E+0	1.091847E+0	1.144221E+0	1.069502E+0	1.135945E+0	1.218441E+0	1.211784E+0	1.120948E+0	1.188835E+0	1.143537E+0	1.259164E+0	1.235141E+0	1.222772E+0	1.090987E+0	1.064778E+0	1.207178E+0	1.187256E+0	1.122913E+0	1.116511E+0	1.045866E+0	1.066182E+0	1.196969E+0	1.218630E+0	1.133560E+0	1.135493E+0	1.163947E+0	1.160865E+0	1.244199E+0	1.241444E+0	1.108831E+0	1.045857E+0	1.190727E+0	1.188393E+0	1.127438E+0	1.111072E+0	1.044221E+0	1.154182E+0	1.183722E+0	1.220056E+0	1.123347E+0	1.151181E+0	1.159714E+0	1.031338E+0	1.195971E+0	1.215786E+0	1.093035E+0	9.769992E-1	1.165190E+0	1.195103E+0	1.141325E+0	1.120006E+0	1.084230E+0	1.157398E+0	1.244471E+0	1.214135E+0	1.142828E+0	1.217945E+0	1.240143E+0	1.192327E+0	1.157192E+0	1.242954E+0	1.081891E+0	1.021776E+0	1.191406E+0	1.187714E+0	1.106119E+0	9.742779E-1	1.088627E+0	1.080354E+0	1.185822E+0	1.240660E+0	1.156714E+0	1.134375E+0	1.195499E+0	1.202164E+0	1.224497E+0	1.213783E+0	1.050311E+0	1.127022E+0	1.179657E+0	1.181471E+0	1.136236E+0	1.079334E+0	1.040326E+0	1.098896E+0	1.180383E+0	1.228442E+0	1.090547E+0	1.167296E+0	1.176520E+0	1.199774E+0	1.195085E+0	1.212318E+0	1.053224E+0	1.107813E+0	1.140372E+0	1.189255E+0	1.165817E+0	1.132601E+0	1.045894E+0	1.127677E+0	1.195428E+0	1.238425E+0	1.086910E+0	1.156189E+0	1.151955E+0	1.190217E+0	1.210968E+0	1.256178E+0	1.038492E+0	1.073834E+0	1.127782E+0	1.213530E+0	1.084115E+0	1.127263E+0	1.023413E+0	1.165581E+0	1.182530E+0	1.274791E+0	1.117814E+0	1.211648E+0	1.204374E+0	1.206576E+0	1.224869E+0	1.210764E+0	1.025835E+0	1.045752E+0	1.123302E+0	1.194938E+0	1.089895E+0	1.089125E+0	1.005125E+0	1.172670E+0	1.182063E+0	1.216307E+0	1.159303E+0	1.128709E+0	1.141863E+0
5.432800E+2	1.373565E+0	1.370465E+0	1.176706E+0	1.179789E+0	1.365407E+0	1.290846E+0	1.324209E+0	1.377448E+0	1.391066E+0	1.118627E+0	1.282784E+0	1.390519E+0	1.421419E+0	1.371714E+0	1.193167E+0	1.182153E+0	1.317743E+0	1.421164E+0	1.231952E+0	1.263599E+0	1.189439E+0	1.285655E+0	1.358538E+0	1.329422E+0	1.241716E+0	1.389903E+0	1.286273E+0	1.323607E+0	1.364904E+0	1.372946E+0	1.210979E+0	1.220227E+0	1.366556E+0	1.373150E+0	1.295254E+0	1.289911E+0	1.254234E+0	1.286075E+0	1.381999E+0	1.413607E+0	1.319346E+0	1.378400E+0	1.279942E+0	1.383035E+0	1.325893E+0	1.374518E+0	1.174927E+0	1.275426E+0	1.417345E+0	1.358282E+0	1.348741E+0	1.281142E+0	1.191514E+0	1.227651E+0	1.383843E+0	1.388039E+0	1.297188E+0	1.240781E+0	1.411849E+0	1.313124E+0	1.383081E+0	1.362325E+0	1.280078E+0	1.216616E+0	1.295488E+0	1.373533E+0	1.317721E+0	1.263370E+0	1.168317E+0	1.242435E+0	1.446309E+0	1.346059E+0	1.283946E+0	1.314357E+0	1.396464E+0	1.176097E+0	1.398169E+0	1.351770E+0	1.233139E+0	1.109902E+0	1.375830E+0	1.403290E+0	1.317889E+0	1.191315E+0	1.186557E+0	1.288603E+0	1.370767E+0	1.379011E+0	1.226656E+0	1.325129E+0	1.329849E+0	1.322943E+0	1.408024E+0	1.340922E+0	1.195238E+0	1.152841E+0	1.348006E+0	1.353797E+0	1.269025E+0	1.147714E+0	1.244342E+0	1.239995E+0	1.341345E+0	1.390715E+0	1.309192E+0	1.282687E+0	1.346502E+0	1.333007E+0	1.443606E+0	1.388766E+0	1.175939E+0	1.282666E+0	1.282587E+0	1.358158E+0	1.340008E+0	1.222778E+0	1.113115E+0	1.222577E+0	1.387128E+0	1.377447E+0	1.273348E+0	1.285986E+0	1.347704E+0	1.351454E+0	1.317202E+0	1.362929E+0	1.220499E+0	1.215100E+0	1.287543E+0	1.382849E+0	1.253006E+0	1.255512E+0	1.164568E+0	1.236105E+0	1.366437E+0	1.394278E+0	1.260780E+0	1.327718E+0	1.302625E+0	1.385684E+0	1.394815E+0	1.378896E+0	1.187230E+0	1.248823E+0	1.325284E+0	1.402978E+0	1.211472E+0	1.279413E+0	1.205820E+0	1.307508E+0	1.384797E+0	1.344854E+0	1.287730E+0	1.329489E+0	1.315946E+0	1.344710E+0	1.391495E+0	1.390578E+0	1.218049E+0	1.176802E+0	1.302818E+0	1.386558E+0	1.242576E+0	1.222764E+0	1.215144E+0	1.312161E+0	1.366914E+0	1.323408E+0	1.295511E+0	1.295066E+0	1.341024E+0
5.435540E+2	1.617781E+0	1.486997E+0	1.247137E+0	1.335849E+0	1.513285E+0	1.403142E+0	1.535567E+0	1.500728E+0	1.578621E+0	1.227799E+0	1.397068E+0	1.486459E+0	1.615167E+0	1.477410E+0	1.335935E+0	1.282143E+0	1.448310E+0	1.569116E+0	1.413139E+0	1.435547E+0	1.289783E+0	1.415184E+0	1.506954E+0	1.473200E+0	1.378324E+0	1.439881E+0	1.484468E+0	1.524027E+0	1.538001E+0	1.516331E+0	1.308425E+0	1.346279E+0	1.512245E+0	1.571665E+0	1.358013E+0	1.367073E+0	1.360350E+0	1.405297E+0	1.534030E+0	1.526041E+0	1.413295E+0	1.464879E+0	1.446520E+0	1.525693E+0	1.541621E+0	1.530653E+0	1.275258E+0	1.439410E+0	1.553803E+0	1.537302E+0	1.421099E+0	1.470929E+0	1.374289E+0	1.441383E+0	1.472474E+0	1.528793E+0	1.418310E+0	1.425427E+0	1.468001E+0	1.470091E+0	1.479928E+0	1.507380E+0	1.387628E+0	1.311686E+0	1.433127E+0	1.544686E+0	1.430926E+0	1.428738E+0	1.273872E+0	1.440139E+0	1.510870E+0	1.448564E+0	1.383396E+0	1.536123E+0	1.451549E+0	1.283119E+0	1.484104E+0	1.507398E+0	1.309250E+0	1.202934E+0	1.472680E+0	1.532369E+0	1.403830E+0	1.341556E+0	1.355246E+0	1.446047E+0	1.492016E+0	1.549725E+0	1.406293E+0	1.513896E+0	1.546728E+0	1.412026E+0	1.445944E+0	1.543067E+0	1.336550E+0	1.305599E+0	1.471725E+0	1.422115E+0	1.409561E+0	1.337269E+0	1.348795E+0	1.374172E+0	1.537898E+0	1.442956E+0	1.497918E+0	1.386172E+0	1.460490E+0	1.503106E+0	1.549083E+0	1.489991E+0	1.328688E+0	1.352628E+0	1.507264E+0	1.468135E+0	1.442197E+0	1.350016E+0	1.300352E+0	1.349286E+0	1.575681E+0	1.506312E+0	1.436786E+0	1.397621E+0	1.471701E+0	1.549761E+0	1.535903E+0	1.549912E+0	1.321603E+0	1.394872E+0	1.453258E+0	1.514471E+0	1.393019E+0	1.409878E+0	1.301785E+0	1.467426E+0	1.513331E+0	1.526615E+0	1.401191E+0	1.461813E+0	1.508644E+0	1.455121E+0	1.479396E+0	1.552834E+0	1.294508E+0	1.384875E+0	1.454114E+0	1.533907E+0	1.393327E+0	1.385181E+0	1.266620E+0	1.381040E+0	1.526169E+0	1.525801E+0	1.407174E+0	1.456127E+0	1.498741E+0	1.498386E+0	1.534836E+0	1.503544E+0	1.308991E+0	1.366555E+0	1.485472E+0	1.537422E+0	1.425574E+0	1.316533E+0	1.274013E+0	1.453617E+0	1.480462E+0	1.508170E+0	1.386594E+0	1.375294E+0	1.446466E+0
5.437640E+2	1.670650E+0	1.600669E+0	1.354168E+0	1.358925E+0	1.590018E+0	1.490061E+0	1.619124E+0	1.607572E+0	1.628352E+0	1.311101E+0	1.664292E+0	1.635109E+0	1.655148E+0	1.603935E+0	1.656331E+0	1.431058E+0	1.616486E+0	1.658444E+0	1.655452E+0	1.500028E+0	1.423429E+0	1.483727E+0	1.643720E+0	1.622621E+0	1.508216E+0	1.568477E+0	1.668501E+0	1.597517E+0	1.628074E+0	1.700542E+0	1.497671E+0	1.439064E+0	1.613454E+0	1.640212E+0	1.606250E+0	1.548378E+0	1.433182E+0	1.517648E+0	1.614159E+0	1.655885E+0	1.473398E+0	1.598891E+0	1.502048E+0	1.654849E+0	1.633997E+0	1.691718E+0	1.413835E+0	1.453454E+0	1.661502E+0	1.664111E+0	1.547728E+0	1.461214E+0	1.437594E+0	1.469852E+0	1.650805E+0	1.663519E+0	1.572039E+0	1.510083E+0	1.595237E+0	1.592371E+0	1.644356E+0	1.651945E+0	1.463853E+0	1.423372E+0	1.617017E+0	1.651519E+0	1.530882E+0	1.487838E+0	1.353751E+0	1.552552E+0	1.667122E+0	1.584070E+0	1.501130E+0	1.560215E+0	1.623247E+0	1.405344E+0	1.591381E+0	1.609511E+0	1.425600E+0	1.319101E+0	1.573158E+0	1.644194E+0	1.482758E+0	1.480911E+0	1.410461E+0	1.516370E+0	1.688536E+0	1.624626E+0	1.486134E+0	1.619891E+0	1.530368E+0	1.534448E+0	1.682196E+0	1.693382E+0	1.447906E+0	1.405478E+0	1.611608E+0	1.595857E+0	1.494455E+0	1.561291E+0	1.466306E+0	1.501984E+0	1.607804E+0	1.609402E+0	1.559481E+0	1.509026E+0	1.591516E+0	1.616317E+0	1.737204E+0	1.610040E+0	1.409485E+0	1.503201E+0	1.524907E+0	1.549440E+0	1.559072E+0	1.481455E+0	1.344299E+0	1.482555E+0	1.602145E+0	1.636902E+0	1.463553E+0	1.552739E+0	1.581438E+0	1.622491E+0	1.584197E+0	1.610873E+0	1.422708E+0	1.466882E+0	1.581885E+0	1.635673E+0	1.522851E+0	1.533954E+0	1.348141E+0	1.496342E+0	1.597187E+0	1.601533E+0	1.466459E+0	1.529978E+0	1.606422E+0	1.589321E+0	1.625765E+0	1.680625E+0	1.389349E+0	1.460005E+0	1.554989E+0	1.681728E+0	1.506468E+0	1.502830E+0	1.419366E+0	1.521939E+0	1.620418E+0	1.643744E+0	1.467178E+0	1.518270E+0	1.525449E+0	1.599109E+0	1.649197E+0	1.665218E+0	1.404064E+0	1.417519E+0	1.555923E+0	1.688283E+0	1.492269E+0	1.469825E+0	1.404713E+0	1.518453E+0	1.538031E+0	1.600237E+0	1.481856E+0	1.587665E+0	1.720605E+0
5.440170E+2	1.699380E+0	1.654938E+0	1.396315E+0	1.430914E+0	1.689163E+0	1.582378E+0	1.677018E+0	1.687829E+0	1.758982E+0	1.353010E+0	1.718876E+0	1.720512E+0	1.772525E+0	1.680470E+0	1.745145E+0	1.488991E+0	1.666456E+0	1.702552E+0	1.694553E+0	1.581907E+0	1.451326E+0	1.614672E+0	1.710074E+0	1.664911E+0	1.593877E+0	1.699676E+0	1.747782E+0	1.657642E+0	1.689963E+0	1.678637E+0	1.734106E+0	1.454382E+0	1.677957E+0	1.647888E+0	1.750823E+0	1.561870E+0	1.548459E+0	1.593202E+0	1.699232E+0	1.703870E+0	1.605274E+0	1.622370E+0	1.703634E+0	1.725883E+0	1.718223E+0	1.703221E+0	1.750094E+0	1.511889E+0	1.751949E+0	1.695014E+0	1.699446E+0	1.548674E+0	1.460912E+0	1.531917E+0	1.701530E+0	1.737918E+0	1.617456E+0	1.584680E+0	1.677672E+0	1.595308E+0	1.698633E+0	1.672174E+0	1.618913E+0	1.467218E+0	1.647665E+0	1.669979E+0	1.639271E+0	1.581605E+0	1.397972E+0	1.571288E+0	1.709983E+0	1.627573E+0	1.535995E+0	1.652210E+0	1.677749E+0	1.460544E+0	1.641369E+0	1.658604E+0	1.491043E+0	1.333867E+0	1.671819E+0	1.674532E+0	1.561099E+0	1.549498E+0	1.505695E+0	1.639178E+0	1.709756E+0	1.689313E+0	1.579658E+0	1.727669E+0	1.674428E+0	1.661238E+0	1.731777E+0	1.684053E+0	1.489848E+0	1.445252E+0	1.700219E+0	1.628839E+0	1.532312E+0	1.546837E+0	1.491937E+0	1.553891E+0	1.695445E+0	1.688271E+0	1.601485E+0	1.611960E+0	1.682004E+0	1.742609E+0	1.689902E+0	1.676168E+0	1.485859E+0	1.565056E+0	1.607250E+0	1.683908E+0	1.592728E+0	1.469455E+0	1.407018E+0	1.542126E+0	1.680433E+0	1.674297E+0	1.501138E+0	1.592694E+0	1.558391E+0	1.670357E+0	1.650248E+0	1.725113E+0	1.444940E+0	1.497324E+0	1.619575E+0	1.659803E+0	1.608764E+0	1.576477E+0	1.444563E+0	1.594958E+0	1.690917E+0	1.722383E+0	1.593709E+0	1.662392E+0	1.632868E+0	1.672762E+0	1.640960E+0	1.696850E+0	1.481080E+0	1.467790E+0	1.606647E+0	1.692584E+0	1.552673E+0	1.486424E+0	1.394649E+0	1.616557E+0	1.716257E+0	1.704230E+0	1.579896E+0	1.666016E+0	1.585983E+0	1.603718E+0	1.671970E+0	1.661078E+0	1.433517E+0	1.508524E+0	1.638373E+0	1.747901E+0	1.549591E+0	1.589985E+0	1.438638E+0	1.618650E+0	1.620418E+0	1.663499E+0	1.498570E+0	1.607722E+0	1.701862E+0
5.442700E+2	1.751675E+0	1.647509E+0	1.481167E+0	1.461136E+0	1.710449E+0	1.573742E+0	1.668825E+0	1.705230E+0	1.723027E+0	1.420793E+0	1.766638E+0	1.679392E+0	1.766372E+0	1.618512E+0	1.740369E+0	1.497146E+0	1.675589E+0	1.782390E+0	1.760089E+0	1.590609E+0	1.515673E+0	1.594342E+0	1.717671E+0	1.676657E+0	1.603954E+0	1.676248E+0	1.712106E+0	1.682140E+0	1.722674E+0	1.710498E+0	1.737184E+0	1.547169E+0	1.724667E+0	1.763047E+0	1.738493E+0	1.558633E+0	1.509392E+0	1.606450E+0	1.720635E+0	1.706694E+0	1.614610E+0	1.668190E+0	1.744681E+0	1.742322E+0	1.718224E+0	1.713632E+0	1.779399E+0	1.579839E+0	1.710648E+0	1.656650E+0	1.726871E+0	1.579540E+0	1.528026E+0	1.557116E+0	1.740502E+0	1.668044E+0	1.647736E+0	1.564050E+0	1.683647E+0	1.669379E+0	1.765146E+0	1.700788E+0	1.779719E+0	1.481060E+0	1.664936E+0	1.696265E+0	1.759703E+0	1.546938E+0	1.469766E+0	1.593966E+0	1.702927E+0	1.662574E+0	1.573146E+0	1.640160E+0	1.688295E+0	1.466739E+0	1.652601E+0	1.698366E+0	1.755254E+0	1.326483E+0	1.606451E+0	1.705462E+0	1.707847E+0	1.565827E+0	1.492523E+0	1.619762E+0	1.741076E+0	1.716551E+0	1.555704E+0	1.646687E+0	1.640654E+0	1.652494E+0	1.733231E+0	1.752995E+0	1.656624E+0	1.450674E+0	1.705790E+0	1.666530E+0	1.627532E+0	1.554064E+0	1.519017E+0	1.556341E+0	1.728883E+0	1.710290E+0	1.656723E+0	1.582628E+0	1.622070E+0	1.660689E+0	1.795924E+0	1.682781E+0	1.506333E+0	1.567085E+0	1.687241E+0	1.686514E+0	1.672891E+0	1.442448E+0	1.459205E+0	1.556765E+0	1.703037E+0	1.641506E+0	1.535876E+0	1.570954E+0	1.649471E+0	1.715117E+0	1.676892E+0	1.707183E+0	1.499461E+0	1.479930E+0	1.626158E+0	1.682835E+0	1.596040E+0	1.640552E+0	1.443174E+0	1.573791E+0	1.706264E+0	1.701057E+0	1.552026E+0	1.666866E+0	1.643938E+0	1.642421E+0	1.706295E+0	1.701417E+0	1.468641E+0	1.478785E+0	1.676530E+0	1.693188E+0	1.611314E+0	1.497736E+0	1.454462E+0	1.636614E+0	1.636834E+0	1.632659E+0	1.556903E+0	1.628493E+0	1.606160E+0	1.670482E+0	1.700426E+0	1.698389E+0	1.468137E+0	1.472121E+0	1.573665E+0	1.680985E+0	1.545733E+0	1.545066E+0	1.420674E+0	1.623563E+0	1.625170E+0	1.659738E+0	1.551214E+0	1.627781E+0	1.748725E+0
5.445240E+2	1.629275E+0	1.630943E+0	1.388554E+0	1.366069E+0	1.656115E+0	1.576979E+0	1.616942E+0	1.581950E+0	1.621163E+0	1.352493E+0	1.663727E+0	1.651979E+0	1.621830E+0	1.606014E+0	1.716018E+0	1.442215E+0	1.542875E+0	1.664028E+0	1.698960E+0	1.383860E+0	1.364030E+0	1.535254E+0	1.717167E+0	1.613222E+0	1.511016E+0	1.655943E+0	1.648683E+0	1.623681E+0	1.600400E+0	1.667184E+0	1.640765E+0	1.449132E+0	1.650708E+0	1.657760E+0	1.695906E+0	1.530034E+0	1.456817E+0	1.506854E+0	1.693194E+0	1.658707E+0	1.544004E+0	1.584576E+0	1.646902E+0	1.631949E+0	1.607912E+0	1.641316E+0	1.714829E+0	1.461154E+0	1.685030E+0	1.619356E+0	1.702361E+0	1.509802E+0	1.429976E+0	1.486650E+0	1.709004E+0	1.613248E+0	1.578442E+0	1.562457E+0	1.702165E+0	1.593543E+0	1.690118E+0	1.642076E+0	1.678956E+0	1.427527E+0	1.578010E+0	1.614603E+0	1.700089E+0	1.529324E+0	1.322848E+0	1.521984E+0	1.678518E+0	1.653572E+0	1.563999E+0	1.579930E+0	1.640827E+0	1.422809E+0	1.636315E+0	1.591836E+0	1.620972E+0	1.319593E+0	1.564685E+0	1.593038E+0	1.638859E+0	1.492887E+0	1.419072E+0	1.572530E+0	1.683488E+0	1.608091E+0	1.446213E+0	1.575230E+0	1.613215E+0	1.627902E+0	1.633092E+0	1.662283E+0	1.628164E+0	1.416325E+0	1.561451E+0	1.607044E+0	1.663675E+0	1.505702E+0	1.429069E+0	1.491211E+0	1.677208E+0	1.659079E+0	1.565236E+0	1.543336E+0	1.636760E+0	1.645900E+0	1.692619E+0	1.659890E+0	1.649117E+0	1.562521E+0	1.589017E+0	1.650552E+0	1.650251E+0	1.459852E+0	1.411138E+0	1.497700E+0	1.694765E+0	1.597783E+0	1.502281E+0	1.490454E+0	1.591313E+0	1.586438E+0	1.628603E+0	1.590384E+0	1.592629E+0	1.453833E+0	1.583082E+0	1.626899E+0	1.662226E+0	1.509488E+0	1.401915E+0	1.521122E+0	1.703522E+0	1.608095E+0	1.460974E+0	1.539473E+0	1.536318E+0	1.549647E+0	1.595380E+0	1.633463E+0	1.477452E+0	1.372968E+0	1.594493E+0	1.623200E+0	1.494621E+0	1.423077E+0	1.382786E+0	1.556910E+0	1.606121E+0	1.578728E+0	1.535591E+0	1.571040E+0	1.521291E+0	1.555369E+0	1.647646E+0	1.636200E+0	1.360661E+0	1.413421E+0	1.647246E+0	1.679765E+0	1.497778E+0	1.449049E+0	1.436641E+0	1.515503E+0	1.571832E+0	1.582703E+0	1.512775E+0	1.479120E+0	1.495668E+0
5.447660E+2	1.532160E+0	1.520699E+0	1.259892E+0	1.306723E+0	1.480233E+0	1.405840E+0	1.470030E+0	1.505080E+0	1.542669E+0	1.249530E+0	1.495429E+0	1.513868E+0	1.571598E+0	1.518022E+0	1.547461E+0	1.339649E+0	1.471951E+0	1.589214E+0	1.584961E+0	1.402794E+0	1.304182E+0	1.410929E+0	1.562674E+0	1.460515E+0	1.427593E+0	1.491947E+0	1.575636E+0	1.540730E+0	1.500261E+0	1.503885E+0	1.600246E+0	1.392671E+0	1.496674E+0	1.528340E+0	1.508750E+0	1.422652E+0	1.424019E+0	1.461718E+0	1.577937E+0	1.560856E+0	1.451223E+0	1.490077E+0	1.593789E+0	1.545652E+0	1.555203E+0	1.536132E+0	1.585690E+0	1.379162E+0	1.610264E+0	1.521855E+0	1.677853E+0	1.410908E+0	1.368574E+0	1.354584E+0	1.591007E+0	1.525276E+0	1.524290E+0	1.433893E+0	1.579707E+0	1.513589E+0	1.542187E+0	1.514783E+0	1.546865E+0	1.339839E+0	1.457645E+0	1.564264E+0	1.590501E+0	1.414529E+0	1.303829E+0	1.466766E+0	1.656813E+0	1.549573E+0	1.467410E+0	1.457273E+0	1.562891E+0	1.358597E+0	1.532405E+0	1.516237E+0	1.540977E+0	1.270861E+0	1.515653E+0	1.585307E+0	1.495617E+0	1.400346E+0	1.304078E+0	1.410360E+0	1.577395E+0	1.543402E+0	1.388047E+0	1.500793E+0	1.610580E+0	1.496737E+0	1.563095E+0	1.532182E+0	1.586220E+0	1.273508E+0	1.562565E+0	1.495736E+0	1.592544E+0	1.436215E+0	1.350247E+0	1.383479E+0	1.546005E+0	1.513119E+0	1.508273E+0	1.416055E+0	1.563900E+0	1.543501E+0	1.557242E+0	1.518985E+0	1.556699E+0	1.399778E+0	1.484322E+0	1.515562E+0	1.558461E+0	1.355419E+0	1.300351E+0	1.378060E+0	1.534884E+0	1.495953E+0	1.455580E+0	1.427587E+0	1.566073E+0	1.521784E+0	1.539234E+0	1.555546E+0	1.571981E+0	1.346549E+0	1.418562E+0	1.525987E+0	1.543852E+0	1.442501E+0	1.350458E+0	1.438512E+0	1.619115E+0	1.513487E+0	1.430810E+0	1.536121E+0	1.468052E+0	1.480209E+0	1.551820E+0	1.598981E+0	1.552077E+0	1.349147E+0	1.474170E+0	1.532095E+0	1.562147E+0	1.451358E+0	1.286886E+0	1.434520E+0	1.566939E+0	1.491527E+0	1.378575E+0	1.473128E+0	1.558088E+0	1.505298E+0	1.508963E+0	1.570396E+0	1.548744E+0	1.311040E+0	1.527744E+0	1.596430E+0	1.541874E+0	1.384476E+0	1.328388E+0	1.399100E+0	1.548066E+0	1.511931E+0	1.400800E+0	1.367035E+0	1.561276E+0
5.450200E+2	1.479869E+0	1.430445E+0	1.185025E+0	1.194626E+0	1.419742E+0	1.353473E+0	1.439991E+0	1.378899E+0	1.483344E+0	1.152774E+0	1.480647E+0	1.430055E+0	1.453198E+0	1.419614E+0	1.486822E+0	1.240945E+0	1.416606E+0	1.466386E+0	1.450036E+0	1.305048E+0	1.222287E+0	1.311654E+0	1.478081E+0	1.424804E+0	1.332415E+0	1.411248E+0	1.456154E+0	1.377609E+0	1.392077E+0	1.443642E+0	1.495109E+0	1.302074E+0	1.482776E+0	1.495437E+0	1.461679E+0	1.368693E+0	1.289445E+0	1.382729E+0	1.438532E+0	1.449356E+0	1.303593E+0	1.428226E+0	1.494202E+0	1.393603E+0	1.432941E+0	1.441356E+0	1.444629E+0	1.305323E+0	1.417874E+0	1.447794E+0	1.503962E+0	1.335448E+0	1.312885E+0	1.318185E+0	1.529604E+0	1.459925E+0	1.337370E+0	1.331255E+0	1.472781E+0	1.401895E+0	1.499086E+0	1.456561E+0	1.468549E+0	1.280766E+0	1.409725E+0	1.432260E+0	1.511613E+0	1.382706E+0	1.189238E+0	1.296668E+0	1.435459E+0	1.393065E+0	1.342815E+0	1.360353E+0	1.472642E+0	1.262276E+0	1.450404E+0	1.448486E+0	1.457111E+0	1.122209E+0	1.404886E+0	1.459800E+0	1.445340E+0	1.325771E+0	1.187063E+0	1.370998E+0	1.497573E+0	1.438836E+0	1.335010E+0	1.400158E+0	1.502403E+0	1.431154E+0	1.437192E+0	1.408304E+0	1.481858E+0	1.220180E+0	1.418224E+0	1.438606E+0	1.516826E+0	1.331154E+0	1.280128E+0	1.286029E+0	1.438608E+0	1.441929E+0	1.437500E+0	1.355736E+0	1.424061E+0	1.438822E+0	1.441433E+0	1.455402E+0	1.433836E+0	1.329310E+0	1.406100E+0	1.439987E+0	1.448929E+0	1.388431E+0	1.197805E+0	1.277603E+0	1.491882E+0	1.452234E+0	1.359340E+0	1.310074E+0	1.492550E+0	1.477027E+0	1.416565E+0	1.379834E+0	1.455527E+0	1.321418E+0	1.424544E+0	1.427270E+0	1.394927E+0	1.332986E+0	1.239667E+0	1.336791E+0	1.461258E+0	1.401385E+0	1.318916E+0	1.365711E+0	1.425621E+0	1.340757E+0	1.438372E+0	1.483868E+0	1.514246E+0	1.274022E+0	1.376937E+0	1.415653E+0	1.428277E+0	1.328622E+0	1.263653E+0	1.387728E+0	1.494928E+0	1.435076E+0	1.282121E+0	1.393981E+0	1.479749E+0	1.439101E+0	1.479465E+0	1.438251E+0	1.481571E+0	1.263259E+0	1.406147E+0	1.469898E+0	1.447621E+0	1.302496E+0	1.237097E+0	1.353419E+0	1.451942E+0	1.419858E+0	1.336456E+0	1.363497E+0	1.537844E+0
5.452800E+2	1.401145E+0	1.411594E+0	1.139550E+0	1.134179E+0	1.310516E+0	1.295707E+0	1.381007E+0	1.358592E+0	1.382679E+0	1.112417E+0	1.349308E+0	1.376286E+0	1.405016E+0	1.372234E+0	1.429046E+0	1.174000E+0	1.366100E+0	1.414463E+0	1.443978E+0	1.280999E+0	1.155241E+0	1.264855E+0	1.418310E+0	1.314858E+0	1.268587E+0	1.322219E+0	1.389333E+0	1.375382E+0	1.379498E+0	1.409788E+0	1.426383E+0	1.227669E+0	1.368780E+0	1.447729E+0	1.418533E+0	1.247282E+0	1.218060E+0	1.295887E+0	1.396818E+0	1.414077E+0	1.284335E+0	1.335448E+0	1.383146E+0	1.356617E+0	1.394358E+0	1.329598E+0	1.420293E+0	1.241899E+0	1.362451E+0	1.372666E+0	1.407097E+0	1.258850E+0	1.210552E+0	1.239316E+0	1.425490E+0	1.378991E+0	1.360079E+0	1.283635E+0	1.444107E+0	1.313713E+0	1.364990E+0	1.371702E+0	1.377188E+0	1.247999E+0	1.320006E+0	1.348362E+0	1.406841E+0	1.262233E+0	1.142641E+0	1.308503E+0	1.381748E+0	1.359062E+0	1.246797E+0	1.307237E+0	1.361889E+0	1.230170E+0	1.350429E+0	1.412158E+0	1.376636E+0	1.086769E+0	1.299565E+0	1.413997E+0	1.356473E+0	1.288754E+0	1.176933E+0	1.348429E+0	1.400579E+0	1.381928E+0	1.303076E+0	1.376339E+0	1.389478E+0	1.312014E+0	1.397818E+0	1.372535E+0	1.418444E+0	1.214303E+0	1.384231E+0	1.369700E+0	1.482410E+0	1.244993E+0	1.244823E+0	1.267909E+0	1.452792E+0	1.400449E+0	1.322999E+0	1.267191E+0	1.404087E+0	1.378522E+0	1.374557E+0	1.394868E+0	1.419999E+0	1.254782E+0	1.329051E+0	1.344608E+0	1.421392E+0	1.337413E+0	1.197349E+0	1.250342E+0	1.371141E+0	1.354432E+0	1.285877E+0	1.240742E+0	1.438782E+0	1.357673E+0	1.378260E+0	1.359856E+0	1.354952E+0	1.189485E+0	1.307881E+0	1.341168E+0	1.404476E+0	1.230464E+0	1.188673E+0	1.314591E+0	1.405351E+0	1.368029E+0	1.259134E+0	1.302015E+0	1.345675E+0	1.277740E+0	1.390764E+0	1.406790E+0	1.436511E+0	1.203016E+0	1.354453E+0	1.383069E+0	1.398065E+0	1.301470E+0	1.187527E+0	1.326019E+0	1.406506E+0	1.370053E+0	1.285485E+0	1.332420E+0	1.368177E+0	1.374063E+0	1.373383E+0	1.415453E+0	1.389078E+0	1.218666E+0	1.341960E+0	1.383518E+0	1.418405E+0	1.241854E+0	1.164263E+0	1.303318E+0	1.405997E+0	1.317144E+0	1.278797E+0	1.372936E+0	1.502700E+0
5.455390E+2	1.342533E+0	1.286494E+0	1.101285E+0	1.120991E+0	1.285310E+0	1.202848E+0	1.290347E+0	1.313149E+0	1.341332E+0	1.101552E+0	1.294724E+0	1.274018E+0	1.348122E+0	1.313918E+0	1.380343E+0	1.107050E+0	1.276372E+0	1.315087E+0	1.308502E+0	1.243638E+0	1.086845E+0	1.175511E+0	1.320546E+0	1.305927E+0	1.177328E+0	1.306082E+0	1.394998E+0	1.299668E+0	1.300998E+0	1.307727E+0	1.363297E+0	1.203159E+0	1.287592E+0	1.311729E+0	1.301981E+0	1.239189E+0	1.159215E+0	1.243884E+0	1.303514E+0	1.337863E+0	1.257493E+0	1.263859E+0	1.383754E+0	1.326090E+0	1.292198E+0	1.364658E+0	1.352742E+0	1.190262E+0	1.327424E+0	1.292750E+0	1.356328E+0	1.249702E+0	1.143439E+0	1.184715E+0	1.368893E+0	1.305597E+0	1.280302E+0	1.214327E+0	1.329413E+0	1.251986E+0	1.278252E+0	1.296213E+0	1.310881E+0	1.102163E+0	1.270413E+0	1.275647E+0	1.346020E+0	1.213360E+0	1.125525E+0	1.193625E+0	1.350280E+0	1.239056E+0	1.202218E+0	1.294097E+0	1.357785E+0	1.196938E+0	1.254944E+0	1.284515E+0	1.336399E+0	1.100057E+0	1.235405E+0	1.359274E+0	1.304442E+0	1.177707E+0	1.130325E+0	1.245565E+0	1.358643E+0	1.294385E+0	1.188449E+0	1.288807E+0	1.335125E+0	1.289609E+0	1.339482E+0	1.302565E+0	1.362019E+0	1.122106E+0	1.297293E+0	1.296079E+0	1.323519E+0	1.192740E+0	1.196468E+0	1.193475E+0	1.296260E+0	1.315432E+0	1.321274E+0	1.206317E+0	1.344154E+0	1.319355E+0	1.339217E+0	1.347055E+0	1.322597E+0	1.186339E+0	1.250237E+0	1.319592E+0	1.328992E+0	1.277395E+0	1.115406E+0	1.162505E+0	1.330342E+0	1.306684E+0	1.169704E+0	1.237214E+0	1.380076E+0	1.285562E+0	1.283341E+0	1.248179E+0	1.333776E+0	1.187553E+0	1.271390E+0	1.328556E+0	1.312829E+0	1.155320E+0	1.112183E+0	1.205642E+0	1.398775E+0	1.335217E+0	1.188928E+0	1.326042E+0	1.357358E+0	1.314500E+0	1.293013E+0	1.387010E+0	1.358773E+0	1.165454E+0	1.271198E+0	1.297394E+0	1.353638E+0	1.203621E+0	1.130681E+0	1.211349E+0	1.310138E+0	1.326706E+0	1.192958E+0	1.321867E+0	1.317729E+0	1.296362E+0	1.335090E+0	1.320622E+0	1.335345E+0	1.175439E+0	1.263158E+0	1.345191E+0	1.322500E+0	1.122815E+0	1.169250E+0	1.225225E+0	1.352652E+0	1.260149E+0	1.223646E+0	1.188881E+0	1.441779E+0
5.457780E+2	1.283921E+0	1.264789E+0	1.066901E+0	1.075382E+0	1.252262E+0	1.226061E+0	1.283794E+0	1.248848E+0	1.256244E+0	9.985887E-1	1.307233E+0	1.324626E+0	1.286102E+0	1.213950E+0	1.325432E+0	1.321194E+0	1.213506E+0	1.278795E+0	1.280414E+0	1.291745E+0	1.083695E+0	1.176457E+0	1.266348E+0	1.299352E+0	1.176209E+0	1.199354E+0	1.283441E+0	1.257357E+0	1.202878E+0	1.282336E+0	1.259186E+0	1.270999E+0	1.236988E+0	1.272794E+0	1.304783E+0	1.253218E+0	1.110018E+0	1.206105E+0	1.289243E+0	1.263064E+0	1.193889E+0	1.231788E+0	1.304685E+0	1.323743E+0	1.237859E+0	1.242492E+0	1.275754E+0	1.159457E+0	1.285599E+0	1.201109E+0	1.266463E+0	1.199400E+0	1.109647E+0	1.137581E+0	1.259438E+0	1.224660E+0	1.177815E+0	1.161416E+0	1.278640E+0	1.230823E+0	1.218655E+0	1.236018E+0	1.311403E+0	1.080933E+0	1.236979E+0	1.204055E+0	1.319527E+0	1.170173E+0	1.073697E+0	1.181301E+0	1.321526E+0	1.298060E+0	1.161068E+0	1.191154E+0	1.292152E+0	1.251011E+0	1.259438E+0	1.261934E+0	1.311189E+0	1.077416E+0	1.247511E+0	1.258749E+0	1.269362E+0	1.164096E+0	1.126781E+0	1.221426E+0	1.296503E+0	1.279794E+0	1.135414E+0	1.203057E+0	1.279192E+0	1.269932E+0	1.246148E+0	1.236218E+0	1.301097E+0	1.067422E+0	1.223730E+0	1.234831E+0	1.258127E+0	1.174951E+0	1.135052E+0	1.130793E+0	1.266876E+0	1.252438E+0	1.236692E+0	1.172560E+0	1.329465E+0	1.275551E+0	1.319646E+0	1.241761E+0	1.275553E+0	1.140711E+0	1.247884E+0	1.281543E+0	1.336945E+0	1.157358E+0	1.076035E+0	1.145846E+0	1.326483E+0	1.243976E+0	1.192483E+0	1.233690E+0	1.246749E+0	1.270642E+0	1.285006E+0	1.235373E+0	1.292488E+0	1.138259E+0	1.255237E+0	1.304974E+0	1.306465E+0	1.190852E+0	1.068609E+0	1.176212E+0	1.275998E+0	1.223113E+0	1.147243E+0	1.228822E+0	1.324149E+0	1.272489E+0	1.287444E+0	1.265816E+0	1.293991E+0	1.112316E+0	1.197667E+0	1.235853E+0	1.279594E+0	1.183258E+0	1.061971E+0	1.188721E+0	1.304841E+0	1.293442E+0	1.195761E+0	1.229823E+0	1.333159E+0	1.195640E+0	1.260572E+0	1.295231E+0	1.346194E+0	1.114916E+0	1.234457E+0	1.252120E+0	1.277853E+0	1.144714E+0	1.132334E+0	1.209013E+0	1.300369E+0	1.203154E+0	1.204426E+0	1.175902E+0	1.448808E+0
5.460060E+2	1.230480E+0	1.247081E+0	1.018654E+0	1.023729E+0	1.242739E+0	1.182331E+0	1.214981E+0	1.170047E+0	1.253847E+0	1.005315E+0	1.211146E+0	1.284035E+0	1.266625E+0	1.204059E+0	1.241869E+0	1.249529E+0	1.180732E+0	1.267629E+0	1.261689E+0	1.250804E+0	1.058046E+0	1.142894E+0	1.300285E+0	1.257063E+0	1.204203E+0	1.189983E+0	1.233045E+0	1.247335E+0	1.233572E+0	1.250471E+0	1.253031E+0	1.268810E+0	1.230316E+0	1.190536E+0	1.244820E+0	1.288291E+0	1.131722E+0	1.164892E+0	1.243689E+0	1.254127E+0	1.120949E+0	1.172228E+0	1.231656E+0	1.256816E+0	1.205799E+0	1.300564E+0	1.217642E+0	1.272253E+0	1.263117E+0	1.193649E+0	1.269965E+0	1.234841E+0	1.074425E+0	1.118448E+0	1.288270E+0	1.324195E+0	1.205184E+0	1.166708E+0	1.303130E+0	1.220241E+0	1.283572E+0	1.196055E+0	1.246141E+0	1.224002E+0	1.232520E+0	1.207411E+0	1.290623E+0	1.266210E+0	1.060385E+0	1.158621E+0	1.316100E+0	1.213056E+0	1.156496E+0	1.167059E+0	1.289809E+0	1.213273E+0	1.226300E+0	1.243769E+0	1.285012E+0	1.123684E+0	1.180928E+0	1.237930E+0	1.219669E+0	1.100952E+0	1.039144E+0	1.183114E+0	1.279833E+0	1.270554E+0	1.137695E+0	1.217942E+0	1.237505E+0	1.142046E+0	1.250524E+0	1.281313E+0	1.311086E+0	1.062903E+0	1.189734E+0	1.201260E+0	1.290821E+0	1.147714E+0	1.136020E+0	1.136670E+0	1.282579E+0	1.224269E+0	1.172825E+0	1.196355E+0	1.294797E+0	1.222643E+0	1.241353E+0	1.227515E+0	1.222427E+0	1.139188E+0	1.195537E+0	1.224211E+0	1.261680E+0	1.131550E+0	1.071457E+0	1.059018E+0	1.278519E+0	1.261809E+0	1.123007E+0	1.143206E+0	1.207793E+0	1.248262E+0	1.223395E+0	1.222053E+0	1.298312E+0	1.127628E+0	1.154132E+0	1.222161E+0	1.308374E+0	1.151241E+0	1.037086E+0	1.173630E+0	1.279285E+0	1.228035E+0	1.118173E+0	1.213738E+0	1.282946E+0	1.234561E+0	1.177034E+0	1.223726E+0	1.216253E+0	1.076124E+0	1.197058E+0	1.247317E+0	1.207326E+0	1.114254E+0	1.054061E+0	1.171752E+0	1.239716E+0	1.214812E+0	1.126786E+0	1.192301E+0	1.245324E+0	1.212331E+0	1.281272E+0	1.212838E+0	1.301239E+0	1.061222E+0	1.236543E+0	1.247253E+0	1.225490E+0	1.106532E+0	1.028073E+0	1.131411E+0	1.220619E+0	1.246371E+0	1.204426E+0	1.216017E+0	1.341027E+0
5.467600E+2	1.337362E+0	1.233943E+0	1.097403E+0	1.080878E+0	1.208572E+0	1.203388E+0	1.271779E+0	1.255136E+0	1.295792E+0	1.043603E+0	1.282786E+0	1.301956E+0	1.264573E+0	1.246749E+0	1.306333E+0	1.350379E+0	1.222101E+0	1.249207E+0	1.306298E+0	1.378743E+0	1.083697E+0	1.157548E+0	1.244061E+0	1.324253E+0	1.164451E+0	1.249334E+0	1.273250E+0	1.251790E+0	1.244137E+0	1.273870E+0	1.283803E+0	1.287193E+0	1.285366E+0	1.264569E+0	1.319911E+0	1.295309E+0	1.098440E+0	1.135455E+0	1.232164E+0	1.328927E+0	1.182218E+0	1.246108E+0	1.315548E+0	1.322569E+0	1.298179E+0	1.262763E+0	1.251913E+0	1.307134E+0	1.258934E+0	1.279962E+0	1.291554E+0	1.273713E+0	1.122974E+0	1.152515E+0	1.302154E+0	1.314645E+0	1.224982E+0	1.130731E+0	1.295365E+0	1.310773E+0	1.277188E+0	1.247368E+0	1.279032E+0	1.313070E+0	1.255369E+0	1.269496E+0	1.302065E+0	1.340087E+0	1.063712E+0	1.176370E+0	1.298199E+0	1.300061E+0	1.154210E+0	1.239338E+0	1.286879E+0	1.300017E+0	1.236971E+0	1.282059E+0	1.274832E+0	1.297936E+0	1.258405E+0	1.343215E+0	1.326074E+0	1.238131E+0	1.098413E+0	1.214601E+0	1.323280E+0	1.271525E+0	1.183888E+0	1.232831E+0	1.302411E+0	1.316386E+0	1.255873E+0	1.290640E+0	1.334056E+0	1.229220E+0	1.251594E+0	1.244253E+0	1.316060E+0	1.292242E+0	1.157297E+0	1.141568E+0	1.271945E+0	1.274460E+0	1.245899E+0	1.218492E+0	1.263656E+0	1.288635E+0	1.279411E+0	1.290083E+0	1.250651E+0	1.168596E+0	1.233768E+0	1.257567E+0	1.376108E+0	1.152556E+0	1.084732E+0	1.163513E+0	1.288993E+0	1.220391E+0	1.197039E+0	1.214302E+0	1.275281E+0	1.248884E+0	1.271130E+0	1.211807E+0	1.320016E+0	1.158557E+0	1.242075E+0	1.290714E+0	1.287373E+0	1.147164E+0	1.096424E+0	1.162269E+0	1.304498E+0	1.209442E+0	1.230064E+0	1.229384E+0	1.287865E+0	1.246231E+0	1.303653E+0	1.299284E+0	1.348926E+0	1.093076E+0	1.196451E+0	1.256367E+0	1.310988E+0	1.104638E+0	1.068892E+0	1.237574E+0	1.331847E+0	1.244046E+0	1.175013E+0	1.238032E+0	1.324850E+0	1.203698E+0	1.267299E+0	1.288493E+0	1.335859E+0	1.144495E+0	1.243851E+0	1.309303E+0	1.318088E+0	1.204795E+0	1.036553E+0	1.179546E+0	1.295613E+0	1.306496E+0	1.170165E+0	1.237253E+0	1.329310E+0
5.475120E+2	1.424130E+0	1.368751E+0	1.141768E+0	1.153961E+0	1.343002E+0	1.286528E+0	1.338956E+0	1.289459E+0	1.373089E+0	1.077234E+0	1.362384E+0	1.368379E+0	1.395790E+0	1.329020E+0	1.420451E+0	1.414320E+0	1.310221E+0	1.397157E+0	1.430212E+0	1.416613E+0	1.215539E+0	1.283291E+0	1.400073E+0	1.410240E+0	1.254033E+0	1.332634E+0	1.360456E+0	1.409900E+0	1.362390E+0	1.424226E+0	1.347401E+0	1.396174E+0	1.345979E+0	1.335312E+0	1.345126E+0	1.390278E+0	1.186227E+0	1.307665E+0	1.373218E+0	1.406550E+0	1.277333E+0	1.346901E+0	1.378319E+0	1.429414E+0	1.314479E+0	1.349322E+0	1.384527E+0	1.429898E+0	1.357225E+0	1.366275E+0	1.414097E+0	1.425197E+0	1.235302E+0	1.258917E+0	1.364620E+0	1.375471E+0	1.279720E+0	1.259826E+0	1.387358E+0	1.364860E+0	1.382019E+0	1.316443E+0	1.416341E+0	1.427523E+0	1.327809E+0	1.364582E+0	1.404433E+0	1.411690E+0	1.133608E+0	1.264621E+0	1.399652E+0	1.396063E+0	1.320527E+0	1.328595E+0	1.349583E+0	1.445337E+0	1.379635E+0	1.348334E+0	1.370819E+0	1.412626E+0	1.352225E+0	1.360464E+0	1.370505E+0	1.405246E+0	1.199727E+0	1.303294E+0	1.425833E+0	1.367340E+0	1.244336E+0	1.373363E+0	1.416391E+0	1.342074E+0	1.377401E+0	1.364764E+0	1.446403E+0	1.414970E+0	1.318470E+0	1.314925E+0	1.396940E+0	1.474015E+0	1.234187E+0	1.254688E+0	1.417331E+0	1.370743E+0	1.352345E+0	1.281579E+0	1.401733E+0	1.445079E+0	1.359880E+0	1.364860E+0	1.386794E+0	1.404342E+0	1.378454E+0	1.396205E+0	1.398140E+0	1.431042E+0	1.141500E+0	1.240247E+0	1.415245E+0	1.374568E+0	1.207859E+0	1.273057E+0	1.383916E+0	1.419214E+0	1.370489E+0	1.366005E+0	1.403122E+0	1.345096E+0	1.248657E+0	1.416854E+0	1.374564E+0	1.312016E+0	1.147415E+0	1.259857E+0	1.378495E+0	1.374041E+0	1.252553E+0	1.313192E+0	1.386878E+0	1.389187E+0	1.374051E+0	1.444316E+0	1.449985E+0	1.281808E+0	1.308268E+0	1.410822E+0	1.334091E+0	1.298078E+0	1.143535E+0	1.291567E+0	1.332906E+0	1.420962E+0	1.274269E+0	1.318349E+0	1.378261E+0	1.352194E+0	1.345957E+0	1.411826E+0	1.398381E+0	1.199100E+0	1.335697E+0	1.375607E+0	1.380925E+0	1.263752E+0	1.192696E+0	1.293497E+0	1.362687E+0	1.355349E+0	1.251222E+0	1.298605E+0	1.394918E+0
5.482600E+2	1.548253E+0	1.475570E+0	1.283184E+0	1.273754E+0	1.498156E+0	1.384244E+0	1.467300E+0	1.428695E+0	1.433612E+0	1.167780E+0	1.548305E+0	1.524412E+0	1.528545E+0	1.457103E+0	1.564175E+0	1.529761E+0	1.468728E+0	1.496537E+0	1.566237E+0	1.506168E+0	1.269537E+0	1.392017E+0	1.521642E+0	1.480252E+0	1.362649E+0	1.492988E+0	1.499755E+0	1.514564E+0	1.587820E+0	1.509362E+0	1.517675E+0	1.490711E+0	1.515582E+0	1.494889E+0	1.466163E+0	1.517623E+0	1.334304E+0	1.419033E+0	1.487926E+0	1.545801E+0	1.342104E+0	1.459150E+0	1.518343E+0	1.515126E+0	1.423157E+0	1.495045E+0	1.525094E+0	1.511439E+0	1.491065E+0	1.477100E+0	1.498127E+0	1.521234E+0	1.357628E+0	1.367183E+0	1.528538E+0	1.495115E+0	1.402586E+0	1.366170E+0	1.485923E+0	1.534166E+0	1.546978E+0	1.455574E+0	1.578190E+0	1.551211E+0	1.414740E+0	1.488757E+0	1.549551E+0	1.523639E+0	1.296220E+0	1.384429E+0	1.485914E+0	1.544572E+0	1.406829E+0	1.457820E+0	1.516008E+0	1.508984E+0	1.434115E+0	1.481869E+0	1.454684E+0	1.531748E+0	1.424860E+0	1.464560E+0	1.527189E+0	1.486356E+0	1.263556E+0	1.428204E+0	1.582449E+0	1.530274E+0	1.333298E+0	1.453157E+0	1.535646E+0	1.500561E+0	1.446912E+0	1.476205E+0	1.536786E+0	1.507620E+0	1.453893E+0	1.461576E+0	1.476098E+0	1.513482E+0	1.312530E+0	1.357032E+0	1.530300E+0	1.470098E+0	1.435201E+0	1.414947E+0	1.546861E+0	1.470111E+0	1.532232E+0	1.409621E+0	1.476450E+0	1.578237E+0	1.460211E+0	1.481682E+0	1.571925E+0	1.510267E+0	1.218865E+0	1.326568E+0	1.538745E+0	1.540826E+0	1.345670E+0	1.346503E+0	1.504072E+0	1.482622E+0	1.450422E+0	1.460775E+0	1.532812E+0	1.536474E+0	1.374288E+0	1.496922E+0	1.552124E+0	1.533371E+0	1.232247E+0	1.408047E+0	1.523195E+0	1.575831E+0	1.401190E+0	1.403703E+0	1.533855E+0	1.489547E+0	1.478382E+0	1.477785E+0	1.533422E+0	1.474660E+0	1.422513E+0	1.485638E+0	1.492252E+0	1.424772E+0	1.300728E+0	1.410353E+0	1.524051E+0	1.495558E+0	1.399884E+0	1.422122E+0	1.459571E+0	1.507020E+0	1.451006E+0	1.464163E+0	1.539960E+0	1.480312E+0	1.446855E+0	1.454691E+0	1.483445E+0	1.473756E+0	1.272516E+0	1.403028E+0	1.460393E+0	1.515059E+0	1.352333E+0	1.384734E+0	1.530816E+0
5.490430E+2	1.514349E+0	1.453864E+0	1.245473E+0	1.195724E+0	1.439904E+0	1.376146E+0	1.432894E+0	1.464469E+0	1.460573E+0	1.202445E+0	1.528407E+0	1.480130E+0	1.494713E+0	1.451898E+0	1.512128E+0	1.519892E+0	1.421982E+0	1.495419E+0	1.527688E+0	1.512821E+0	1.291584E+0	1.375000E+0	1.433505E+0	1.543687E+0	1.386723E+0	1.467997E+0	1.447659E+0	1.493964E+0	1.422269E+0	1.439160E+0	1.478695E+0	1.512592E+0	1.461087E+0	1.437310E+0	1.542931E+0	1.491721E+0	1.328997E+0	1.359670E+0	1.505490E+0	1.543918E+0	1.355525E+0	1.405318E+0	1.499633E+0	1.547415E+0	1.427506E+0	1.432592E+0	1.544466E+0	1.506455E+0	1.454468E+0	1.458981E+0	1.494039E+0	1.541814E+0	1.292895E+0	1.308383E+0	1.545088E+0	1.501651E+0	1.393853E+0	1.350828E+0	1.439924E+0	1.487135E+0	1.494295E+0	1.477777E+0	1.491003E+0	1.523520E+0	1.438699E+0	1.463582E+0	1.501978E+0	1.510571E+0	1.241540E+0	1.369637E+0	1.519553E+0	1.530567E+0	1.427975E+0	1.453441E+0	1.537693E+0	1.516870E+0	1.413334E+0	1.486780E+0	1.529831E+0	1.494827E+0	1.427890E+0	1.459204E+0	1.490358E+0	1.497787E+0	1.281286E+0	1.373621E+0	1.509697E+0	1.453912E+0	1.415417E+0	1.465659E+0	1.446466E+0	1.502202E+0	1.450316E+0	1.490721E+0	1.503329E+0	1.496771E+0	1.483430E+0	1.393257E+0	1.505925E+0	1.517931E+0	1.328968E+0	1.299247E+0	1.513075E+0	1.447564E+0	1.447281E+0	1.387280E+0	1.492807E+0	1.489454E+0	1.500696E+0	1.436583E+0	1.471468E+0	1.523989E+0	1.417861E+0	1.486894E+0	1.497269E+0	1.454450E+0	1.245417E+0	1.312435E+0	1.454939E+0	1.516665E+0	1.304668E+0	1.345917E+0	1.513400E+0	1.506866E+0	1.422669E+0	1.449505E+0	1.523284E+0	1.477516E+0	1.395826E+0	1.476081E+0	1.484665E+0	1.439004E+0	1.262844E+0	1.418891E+0	1.536348E+0	1.491068E+0	1.378703E+0	1.451197E+0	1.471744E+0	1.482546E+0	1.438373E+0	1.469670E+0	1.460865E+0	1.496193E+0	1.391521E+0	1.473573E+0	1.482182E+0	1.434389E+0	1.233500E+0	1.388755E+0	1.464220E+0	1.488504E+0	1.371846E+0	1.435022E+0	1.476187E+0	1.435651E+0	1.487230E+0	1.545520E+0	1.539958E+0	1.483953E+0	1.394144E+0	1.503356E+0	1.529750E+0	1.447925E+0	1.279000E+0	1.328372E+0	1.455113E+0	1.462448E+0	1.336456E+0	1.463783E+0	1.591737E+0
5.498070E+2	1.501133E+0	1.520129E+0	1.172270E+0	1.141873E+0	1.368769E+0	1.290307E+0	1.405040E+0	1.403070E+0	1.421625E+0	1.134149E+0	1.438003E+0	1.461156E+0	1.494715E+0	1.427948E+0	1.466768E+0	1.497147E+0	1.349983E+0	1.434566E+0	1.452239E+0	1.420194E+0	1.207437E+0	1.331509E+0	1.367653E+0	1.462399E+0	1.254592E+0	1.434677E+0	1.449924E+0	1.474479E+0	1.390064E+0	1.415265E+0	1.500749E+0	1.436439E+0	1.395470E+0	1.414277E+0	1.440946E+0	1.416720E+0	1.233493E+0	1.330721E+0	1.413831E+0	1.415959E+0	1.303593E+0	1.372101E+0	1.412119E+0	1.491644E+0	1.420984E+0	1.430947E+0	1.445626E+0	1.460702E+0	1.395389E+0	1.408366E+0	1.489957E+0	1.516087E+0	1.262910E+0	1.262651E+0	1.442041E+0	1.427251E+0	1.312911E+0	1.288927E+0	1.402887E+0	1.454807E+0	1.454919E+0	1.406732E+0	1.440880E+0	1.507829E+0	1.367930E+0	1.355631E+0	1.486323E+0	1.466244E+0	1.197796E+0	1.333647E+0	1.426777E+0	1.425065E+0	1.324528E+0	1.389920E+0	1.426349E+0	1.436887E+0	1.392551E+0	1.386140E+0	1.478927E+0	1.449541E+0	1.358886E+0	1.458608E+0	1.440664E+0	1.399259E+0	1.271154E+0	1.364700E+0	1.481406E+0	1.452455E+0	1.275131E+0	1.432314E+0	1.438554E+0	1.405468E+0	1.445456E+0	1.460654E+0	1.517813E+0	1.455193E+0	1.392033E+0	1.383834E+0	1.516251E+0	1.423986E+0	1.287380E+0	1.284070E+0	1.435062E+0	1.402495E+0	1.371331E+0	1.376766E+0	1.395858E+0	1.434271E+0	1.406636E+0	1.411148E+0	1.423323E+0	1.467713E+0	1.377867E+0	1.358160E+0	1.475854E+0	1.449049E+0	1.222526E+0	1.253876E+0	1.496292E+0	1.416567E+0	1.275058E+0	1.361780E+0	1.434392E+0	1.423564E+0	1.397690E+0	1.401860E+0	1.444412E+0	1.430154E+0	1.340190E+0	1.427272E+0	1.412111E+0	1.434342E+0	1.223440E+0	1.335243E+0	1.440978E+0	1.442397E+0	1.295334E+0	1.402585E+0	1.483428E+0	1.423028E+0	1.416596E+0	1.412368E+0	1.460351E+0	1.455882E+0	1.372076E+0	1.400565E+0	1.401618E+0	1.430429E+0	1.163307E+0	1.379502E+0	1.439864E+0	1.468844E+0	1.353901E+0	1.363494E+0	1.415060E+0	1.396511E+0	1.426165E+0	1.440326E+0	1.472272E+0	1.424342E+0	1.404060E+0	1.416365E+0	1.456990E+0	1.418163E+0	1.257548E+0	1.351945E+0	1.427648E+0	1.425498E+0	1.278797E+0	1.308045E+0	1.577679E+0
5.505060E+2	1.391951E+0	1.348760E+0	1.102948E+0	1.177041E+0	1.337963E+0	1.258453E+0	1.311101E+0	1.289459E+0	1.385074E+0	1.104656E+0	1.380578E+0	1.401586E+0	1.369651E+0	1.265496E+0	1.363152E+0	1.441354E+0	1.351056E+0	1.373149E+0	1.378995E+0	1.351108E+0	1.180891E+0	1.248312E+0	1.329156E+0	1.305928E+0	1.246195E+0	1.303480E+0	1.312320E+0	1.330288E+0	1.326158E+0	1.361993E+0	1.344835E+0	1.393111E+0	1.275357E+0	1.383021E+0	1.339521E+0	1.341174E+0	1.183332E+0	1.265470E+0	1.350713E+0	1.398551E+0	1.260411E+0	1.266151E+0	1.366248E+0	1.361901E+0	1.292743E+0	1.359727E+0	1.306053E+0	1.343826E+0	1.391730E+0	1.295948E+0	1.392505E+0	1.362317E+0	1.147724E+0	1.173981E+0	1.392388E+0	1.401611E+0	1.234299E+0	1.193162E+0	1.347932E+0	1.315477E+0	1.372973E+0	1.329762E+0	1.354215E+0	1.332457E+0	1.253695E+0	1.366260E+0	1.382151E+0	1.374183E+0	1.132657E+0	1.255748E+0	1.389883E+0	1.311558E+0	1.259944E+0	1.288621E+0	1.358957E+0	1.364791E+0	1.350992E+0	1.327718E+0	1.370818E+0	1.359955E+0	1.326804E+0	1.329532E+0	1.385708E+0	1.360608E+0	1.146537E+0	1.313794E+0	1.383906E+0	1.382903E+0	1.209550E+0	1.358474E+0	1.373650E+0	1.381422E+0	1.318580E+0	1.318112E+0	1.380989E+0	1.381075E+0	1.305094E+0	1.318463E+0	1.385469E+0	1.336712E+0	1.148592E+0	1.212084E+0	1.357556E+0	1.330797E+0	1.298258E+0	1.266637E+0	1.359429E+0	1.367142E+0	1.296810E+0	1.303818E+0	1.316508E+0	1.348066E+0	1.318462E+0	1.323759E+0	1.353468E+0	1.330209E+0	1.151113E+0	1.204403E+0	1.328136E+0	1.354434E+0	1.247721E+0	1.223114E+0	1.392146E+0	1.334050E+0	1.371602E+0	1.315800E+0	1.335894E+0	1.371674E+0	1.282757E+0	1.285778E+0	1.380290E+0	1.344635E+0	1.131189E+0	1.226814E+0	1.339030E+0	1.352167E+0	1.216353E+0	1.305926E+0	1.364736E+0	1.390938E+0	1.337078E+0	1.342894E+0	1.324568E+0	1.360599E+0	1.280314E+0	1.378846E+0	1.335868E+0	1.369344E+0	1.161327E+0	1.301335E+0	1.346143E+0	1.374088E+0	1.231653E+0	1.277313E+0	1.350962E+0	1.376368E+0	1.338709E+0	1.334095E+0	1.383396E+0	1.291927E+0	1.320041E+0	1.333636E+0	1.383682E+0	1.333939E+0	1.131835E+0	1.249290E+0	1.345787E+0	1.365998E+0	1.194398E+0	1.308043E+0	1.413663E+0
5.512510E+2	1.375287E+0	1.349902E+0	1.131231E+0	1.114947E+0	1.325080E+0	1.251974E+0	1.287070E+0	1.293810E+0	1.374886E+0	1.059642E+0	1.386264E+0	1.374703E+0	1.406555E+0	1.309233E+0	1.327341E+0	1.330209E+0	1.312907E+0	1.375944E+0	1.358614E+0	1.347014E+0	1.197089E+0	1.242165E+0	1.401087E+0	1.353859E+0	1.242834E+0	1.268596E+0	1.369513E+0	1.311358E+0	1.326160E+0	1.313700E+0	1.323809E+0	1.376478E+0	1.274245E+0	1.315569E+0	1.351854E+0	1.304483E+0	1.182368E+0	1.229164E+0	1.323273E+0	1.377380E+0	1.220732E+0	1.300511E+0	1.323396E+0	1.334310E+0	1.288395E+0	1.320283E+0	1.327408E+0	1.355606E+0	1.309648E+0	1.287420E+0	1.292722E+0	1.383468E+0	1.218643E+0	1.207582E+0	1.344330E+0	1.370443E+0	1.288454E+0	1.262470E+0	1.376605E+0	1.309011E+0	1.278784E+0	1.331242E+0	1.359436E+0	1.350915E+0	1.252023E+0	1.307529E+0	1.356259E+0	1.375318E+0	1.113639E+0	1.244410E+0	1.353537E+0	1.341561E+0	1.249083E+0	1.238792E+0	1.343721E+0	1.358032E+0	1.338631E+0	1.339008E+0	1.411056E+0	1.373740E+0	1.280197E+0	1.380691E+0	1.387463E+0	1.327948E+0	1.173386E+0	1.341082E+0	1.423312E+0	1.366852E+0	1.212401E+0	1.297739E+0	1.329849E+0	1.376501E+0	1.355039E+0	1.371502E+0	1.399469E+0	1.376553E+0	1.292833E+0	1.249553E+0	1.328682E+0	1.352835E+0	1.224999E+0	1.215510E+0	1.372754E+0	1.357425E+0	1.245899E+0	1.307036E+0	1.385280E+0	1.380796E+0	1.288654E+0	1.351124E+0	1.286627E+0	1.388625E+0	1.271408E+0	1.342522E+0	1.379778E+0	1.397433E+0	1.130053E+0	1.227627E+0	1.346882E+0	1.357311E+0	1.194191E+0	1.260131E+0	1.434942E+0	1.334669E+0	1.306102E+0	1.308116E+0	1.367655E+0	1.358630E+0	1.284550E+0	1.332393E+0	1.373290E+0	1.302696E+0	1.102911E+0	1.284641E+0	1.403161E+0	1.372947E+0	1.187282E+0	1.257879E+0	1.324149E+0	1.326170E+0	1.339613E+0	1.390055E+0	1.368617E+0	1.367469E+0	1.215898E+0	1.308254E+0	1.331128E+0	1.384050E+0	1.140568E+0	1.232944E+0	1.367852E+0	1.346866E+0	1.284926E+0	1.279656E+0	1.317728E+0	1.412627E+0	1.336125E+0	1.319586E+0	1.333277E+0	1.369737E+0	1.282469E+0	1.320860E+0	1.336829E+0	1.342924E+0	1.154286E+0	1.236521E+0	1.375890E+0	1.335307E+0	1.243701E+0	1.238434E+0	1.362114E+0
5.520210E+2	1.375289E+0	1.248795E+0	1.113486E+0	1.068239E+0	1.287550E+0	1.205547E+0	1.259219E+0	1.319431E+0	1.316165E+0	1.017733E+0	1.284490E+0	1.309336E+0	1.303020E+0	1.240502E+0	1.316836E+0	1.333640E+0	1.301086E+0	1.287732E+0	1.355864E+0	1.347526E+0	1.386531E+0	1.225145E+0	1.321560E+0	1.303110E+0	1.257393E+0	1.260788E+0	1.295899E+0	1.330287E+0	1.324649E+0	1.328137E+0	1.321757E+0	1.280189E+0	1.318733E+0	1.279926E+0	1.301981E+0	1.325526E+0	1.320798E+0	1.201690E+0	1.329856E+0	1.352446E+0	1.287836E+0	1.216323E+0	1.283562E+0	1.341354E+0	1.331867E+0	1.326312E+0	1.363173E+0	1.337029E+0	1.293966E+0	1.292217E+0	1.349325E+0	1.338306E+0	1.229590E+0	1.181448E+0	1.352874E+0	1.260856E+0	1.272149E+0	1.240778E+0	1.279236E+0	1.319592E+0	1.343705E+0	1.256739E+0	1.289475E+0	1.317685E+0	1.230292E+0	1.259988E+0	1.335180E+0	1.294623E+0	1.119343E+0	1.216798E+0	1.355164E+0	1.310559E+0	1.190216E+0	1.236601E+0	1.316764E+0	1.346204E+0	1.272355E+0	1.295317E+0	1.388272E+0	1.303350E+0	1.276565E+0	1.290274E+0	1.304440E+0	1.320870E+0	1.154135E+0	1.250814E+0	1.340962E+0	1.313352E+0	1.192441E+0	1.304885E+0	1.325102E+0	1.327318E+0	1.309830E+0	1.296860E+0	1.341045E+0	1.326385E+0	1.250478E+0	1.309038E+0	1.332698E+0	1.272789E+0	1.181479E+0	1.120509E+0	1.323615E+0	1.334382E+0	1.264310E+0	1.254464E+0	1.295971E+0	1.360885E+0	1.317469E+0	1.288048E+0	1.360230E+0	1.349082E+0	1.242590E+0	1.290404E+0	1.337559E+0	1.277995E+0	1.107621E+0	1.166542E+0	1.285686E+0	1.292878E+0	1.166856E+0	1.226640E+0	1.346057E+0	1.312914E+0	1.311095E+0	1.304528E+0	1.312072E+0	1.287107E+0	1.237888E+0	1.256713E+0	1.304556E+0	1.321336E+0	1.102448E+0	1.225263E+0	1.352186E+0	1.281076E+0	1.168085E+0	1.264024E+0	1.296477E+0	1.317998E+0	1.283897E+0	1.283565E+0	1.274297E+0	1.291427E+0	1.280314E+0	1.294981E+0	1.280779E+0	1.283937E+0	1.102011E+0	1.283850E+0	1.272545E+0	1.354932E+0	1.166039E+0	1.268517E+0	1.322477E+0	1.250319E+0	1.295763E+0	1.317514E+0	1.344643E+0	1.308763E+0	1.237068E+0	1.296527E+0	1.340690E+0	1.310919E+0	1.134331E+0	1.167758E+0	1.286635E+0	1.275807E+0	1.227824E+0	1.217197E+0	1.413661E+0
5.527650E+2	1.364943E+0	1.289352E+0	1.101839E+0	1.297382E+0	1.297073E+0	1.227680E+0	1.248296E+0	1.331036E+0	1.329947E+0	1.015663E+0	1.303822E+0	1.359944E+0	1.268677E+0	1.288405E+0	1.369361E+0	1.307461E+0	1.307534E+0	1.310619E+0	1.316760E+0	1.331151E+0	1.336582E+0	1.166529E+0	1.304841E+0	1.274448E+0	1.357050E+0	1.268596E+0	1.292503E+0	1.222284E+0	1.303010E+0	1.301751E+0	1.280727E+0	1.342340E+0	1.344867E+0	1.327086E+0	1.358575E+0	1.282899E+0	1.274494E+0	1.271355E+0	1.322175E+0	1.329866E+0	1.280251E+0	1.262143E+0	1.317359E+0	1.313174E+0	1.252530E+0	1.310973E+0	1.317476E+0	1.344279E+0	1.321672E+0	1.311398E+0	1.262963E+0	1.297151E+0	1.320499E+0	1.131514E+0	1.323509E+0	1.296045E+0	1.320480E+0	1.203214E+0	1.320453E+0	1.299017E+0	1.317098E+0	1.267595E+0	1.316102E+0	1.324146E+0	1.353999E+0	1.303617E+0	1.346022E+0	1.339518E+0	1.380381E+0	1.276948E+0	1.349193E+0	1.298059E+0	1.367391E+0	1.284240E+0	1.329656E+0	1.323672E+0	1.336386E+0	1.266352E+0	1.286465E+0	1.355527E+0	1.303802E+0	1.277189E+0	1.283395E+0	1.280046E+0	1.189596E+0	1.272334E+0	1.355614E+0	1.290492E+0	1.266006E+0	1.325128E+0	1.281305E+0	1.281953E+0	1.280663E+0	1.336774E+0	1.332058E+0	1.332262E+0	1.238778E+0	1.300203E+0	1.351053E+0	1.307808E+0	1.139404E+0	1.198372E+0	1.309431E+0	1.327212E+0	1.246474E+0	1.213513E+0	1.304785E+0	1.320492E+0	1.300616E+0	1.289575E+0	1.342522E+0	1.328799E+0	1.289643E+0	1.245582E+0	1.351633E+0	1.289400E+0	1.076951E+0	1.167552E+0	1.252055E+0	1.335449E+0	1.212414E+0	1.209601E+0	1.297775E+0	1.263182E+0	1.234495E+0	1.270209E+0	1.329545E+0	1.319002E+0	1.261220E+0	1.265486E+0	1.324921E+0	1.315511E+0	1.075100E+0	1.184989E+0	1.330260E+0	1.325373E+0	1.142306E+0	1.216531E+0	1.306930E+0	1.274239E+0	1.310233E+0	1.291171E+0	1.338042E+0	1.341819E+0	1.229874E+0	1.311272E+0	1.311582E+0	1.306561E+0	1.089653E+0	1.220090E+0	1.320197E+0	1.286889E+0	1.227727E+0	1.215751E+0	1.321882E+0	1.298667E+0	1.306629E+0	1.339794E+0	1.348776E+0	1.312857E+0	1.240197E+0	1.273411E+0	1.323049E+0	1.278912E+0	1.093923E+0	1.230626E+0	1.290333E+0	1.307125E+0	1.196069E+0	1.195959E+0	1.423035E+0
5.535100E+2	1.276450E+0	1.221376E+0	1.077993E+0	1.294085E+0	1.268505E+0	1.163975E+0	1.273417E+0	1.290426E+0	1.292197E+0	1.008937E+0	1.250945E+0	1.254516E+0	1.247662E+0	1.219677E+0	1.261448E+0	1.240088E+0	1.254877E+0	1.205102E+0	1.252880E+0	1.205260E+0	1.267734E+0	1.134856E+0	1.237473E+0	1.253774E+0	1.256272E+0	1.232672E+0	1.260224E+0	1.252348E+0	1.277850E+0	1.183759E+0	1.223798E+0	1.265309E+0	1.280920E+0	1.231666E+0	1.252109E+0	1.275340E+0	1.228673E+0	1.215916E+0	1.257960E+0	1.263536E+0	1.258660E+0	1.179100E+0	1.247347E+0	1.319044E+0	1.216124E+0	1.213455E+0	1.247442E+0	1.298980E+0	1.298669E+0	1.223484E+0	1.237870E+0	1.229125E+0	1.237682E+0	1.094650E+0	1.244491E+0	1.242756E+0	1.241287E+0	1.128085E+0	1.202179E+0	1.227883E+0	1.248455E+0	1.225658E+0	1.232045E+0	1.281690E+0	1.225278E+0	1.251039E+0	1.298449E+0	1.281555E+0	1.295268E+0	1.171933E+0	1.258590E+0	1.227056E+0	1.223939E+0	1.203200E+0	1.239998E+0	1.275232E+0	1.263369E+0	1.225114E+0	1.254471E+0	1.288089E+0	1.231772E+0	1.223654E+0	1.261177E+0	1.246294E+0	1.215431E+0	1.165795E+0	1.281856E+0	1.278820E+0	1.285965E+0	1.235213E+0	1.295022E+0	1.281410E+0	1.242260E+0	1.172463E+0	1.287117E+0	1.241419E+0	1.264969E+0	1.167690E+0	1.259849E+0	1.216643E+0	1.226933E+0	1.129813E+0	1.260291E+0	1.281117E+0	1.230938E+0	1.156511E+0	1.276583E+0	1.233454E+0	1.266905E+0	1.248372E+0	1.272788E+0	1.246162E+0	1.199066E+0	1.201800E+0	1.299619E+0	1.258789E+0	1.165304E+0	1.128175E+0	1.300020E+0	1.263537E+0	1.211845E+0	1.149081E+0	1.234678E+0	1.257587E+0	1.266692E+0	1.245106E+0	1.260199E+0	1.274058E+0	1.194813E+0	1.228742E+0	1.270190E+0	1.243279E+0	1.069072E+0	1.162271E+0	1.279834E+0	1.275611E+0	1.141211E+0	1.184125E+0	1.230058E+0	1.311583E+0	1.254016E+0	1.234373E+0	1.214179E+0	1.310668E+0	1.135682E+0	1.235250E+0	1.202587E+0	1.217760E+0	1.010067E+0	1.166096E+0	1.235478E+0	1.248078E+0	1.149217E+0	1.209888E+0	1.213870E+0	1.271615E+0	1.205721E+0	1.228901E+0	1.257835E+0	1.257344E+0	1.161918E+0	1.301395E+0	1.244228E+0	1.272175E+0	1.060498E+0	1.138285E+0	1.278185E+0	1.257644E+0	1.074903E+0	1.181802E+0	1.261362E+0
5.542580E+2	1.163823E+0	1.089423E+0	9.659696E-1	1.143521E+0	1.161521E+0	1.051681E+0	1.100837E+0	1.163759E+0	1.113632E+0	9.111477E-1	1.119606E+0	1.137489E+0	1.175901E+0	1.111376E+0	1.136345E+0	1.162841E+0	1.119478E+0	1.139779E+0	1.180735E+0	1.131053E+0	1.168742E+0	1.044093E+0	1.141231E+0	1.147581E+0	1.165011E+0	1.109285E+0	1.122623E+0	1.100919E+0	1.149540E+0	1.131980E+0	1.157637E+0	1.163330E+0	1.183606E+0	1.117055E+0	1.140597E+0	1.169583E+0	1.153426E+0	1.015254E+0	1.160263E+0	1.160977E+0	1.197974E+0	1.088613E+0	1.124223E+0	1.154078E+0	1.137876E+0	1.084167E+0	1.137673E+0	1.171686E+0	1.131370E+0	1.139837E+0	1.159676E+0	1.157098E+0	1.157243E+0	1.018114E+0	1.157993E+0	1.150764E+0	1.132978E+0	1.031263E+0	1.172907E+0	1.174974E+0	1.145754E+0	1.128954E+0	1.158953E+0	1.194465E+0	1.098783E+0	1.097781E+0	1.176213E+0	1.173582E+0	1.172121E+0	1.057548E+0	1.151170E+0	1.164552E+0	1.151924E+0	1.089852E+0	1.166161E+0	1.190179E+0	1.163954E+0	1.104343E+0	1.156544E+0	1.150265E+0	1.131899E+0	1.135621E+0	1.155941E+0	1.092243E+0	1.160719E+0	1.118561E+0	1.161616E+0	1.163553E+0	1.154233E+0	1.164946E+0	1.074979E+0	1.095045E+0	1.178580E+0	1.162615E+0	1.130326E+0	1.127531E+0	1.118400E+0	1.110562E+0	1.154303E+0	1.202746E+0	1.140370E+0	9.789870E-1	1.133140E+0	1.169472E+0	1.157289E+0	1.043618E+0	1.171996E+0	1.128776E+0	1.164146E+0	1.143077E+0	1.169298E+0	1.156934E+0	1.140249E+0	1.089220E+0	1.127057E+0	1.126148E+0	1.121355E+0	1.008536E+0	1.102646E+0	1.111084E+0	1.138383E+0	1.095613E+0	1.137017E+0	1.161853E+0	1.159003E+0	1.099104E+0	1.183443E+0	1.132944E+0	1.107468E+0	1.093830E+0	1.214821E+0	1.090661E+0	1.125164E+0	1.040417E+0	1.145000E+0	1.153664E+0	1.131886E+0	1.099199E+0	1.169174E+0	1.141787E+0	1.159306E+0	1.170985E+0	1.152508E+0	1.146672E+0	1.111982E+0	1.139921E+0	1.148682E+0	1.140837E+0	1.130681E+0	1.094618E+0	1.133287E+0	1.201706E+0	1.135198E+0	1.057456E+0	1.143838E+0	1.173769E+0	1.161216E+0	1.106607E+0	1.159662E+0	1.145406E+0	1.091990E+0	1.150531E+0	1.155487E+0	1.127869E+0	1.026077E+0	1.098993E+0	1.131891E+0	1.111086E+0	1.099972E+0	1.066178E+0	1.165295E+0
5.550140E+2	1.042001E+0	1.032871E+0	1.034737E+0	1.045709E+0	1.022609E+0	9.356076E-1	9.948860E-1	1.030326E+0	1.063898E+0	8.387115E-1	1.085492E+0	1.045766E+0	1.044173E+0	9.718362E-1	1.036073E+0	1.032381E+0	1.023837E+0	1.052684E+0	1.045259E+0	1.058386E+0	1.017999E+0	9.826381E-1	1.041950E+0	1.051728E+0	1.050236E+0	1.014010E+0	1.022960E+0	1.063061E+0	1.062487E+0	1.015977E+0	1.103787E+0	1.043411E+0	1.094633E+0	1.026572E+0	1.016199E+0	1.057884E+0	1.049724E+0	9.352830E-1	1.053238E+0	1.025960E+0	1.066098E+0	9.929718E-1	1.065074E+0	1.054278E+0	1.006916E+0	1.068281E+0	1.059693E+0	1.045299E+0	1.102614E+0	9.821265E-1	1.062810E+0	1.009043E+0	1.030636E+0	9.308477E-1	1.068294E+0	1.043187E+0	1.082900E+0	9.328550E-1	1.037905E+0	1.023301E+0	1.060082E+0	1.037184E+0	1.116665E+0	1.040782E+0	1.051975E+0	9.948643E-1	1.030491E+0	1.046857E+0	1.045170E+0	9.372507E-1	1.036695E+0	1.027047E+0	1.018757E+0	9.441975E-1	1.030792E+0	1.065697E+0	1.040951E+0	9.806309E-1	1.092065E+0	1.022284E+0	1.041105E+0	1.002974E+0	1.055382E+0	1.035630E+0	1.037118E+0	9.805342E-1	1.097458E+0	1.037096E+0	1.024781E+0	1.005359E+0	1.053344E+0	1.051870E+0	1.052191E+0	1.073461E+0	1.101366E+0	1.045276E+0	1.045952E+0	1.008673E+0	1.060230E+0	1.060996E+0	1.072670E+0	9.079812E-1	1.042461E+0	1.049119E+0	1.033582E+0	9.877244E-1	1.039206E+0	1.026376E+0	1.067369E+0	1.048971E+0	1.054739E+0	1.026639E+0	1.087903E+0	9.599630E-1	1.103192E+0	1.071532E+0	1.054062E+0	9.328135E-1	1.081696E+0	1.081169E+0	1.066059E+0	9.757499E-1	1.056912E+0	1.048093E+0	1.026341E+0	9.802542E-1	1.086572E+0	1.026623E+0	1.032088E+0	1.025278E+0	1.064625E+0	1.023671E+0	1.057019E+0	9.794877E-1	1.056754E+0	1.021874E+0	1.086909E+0	1.029917E+0	1.040645E+0	1.060683E+0	1.047378E+0	1.042182E+0	1.067514E+0	1.022530E+0	1.062758E+0	9.987389E-1	1.054496E+0	1.022059E+0	1.061971E+0	9.773738E-1	1.048039E+0	1.058560E+0	1.056129E+0	1.010553E+0	1.036418E+0	1.019517E+0	1.088769E+0	1.105571E+0	1.040303E+0	1.007528E+0	1.067984E+0	1.031301E+0	1.066193E+0	1.074527E+0	1.121859E+0	9.703066E-1	1.017813E+0	1.050333E+0	9.863259E-1	9.635315E-1	1.127805E+0
5.557600E+2	1.001776E+0	9.957417E-1	9.676334E-1	1.031422E+0	9.509120E-1	8.994360E-1	9.823247E-1	9.892319E-1	1.032738E+0	7.926620E-1	9.467613E-1	1.014137E+0	9.754901E-1	9.307029E-1	1.000260E+0	9.611432E-1	9.367930E-1	9.767542E-1	9.665066E-1	9.626884E-1	1.029248E+0	9.140929E-1	9.254468E-1	9.638628E-1	1.030640E+0	9.718387E-1	1.013899E+0	9.979248E-1	9.789576E-1	9.915819E-1	9.904418E-1	9.768835E-1	9.889798E-1	9.432174E-1	9.635266E-1	9.877363E-1	1.021265E+0	8.984864E-1	9.577384E-1	1.016551E+0	1.003077E+0	9.523092E-1	9.691090E-1	1.015531E+0	9.938745E-1	9.762440E-1	1.010024E+0	1.022196E+0	9.975285E-1	9.080680E-1	9.612750E-1	9.610248E-1	9.858943E-1	8.627141E-1	9.871376E-1	9.883922E-1	1.031656E+0	9.037559E-1	9.614435E-1	9.586348E-1	9.728130E-1	9.222236E-1	1.003892E+0	1.002476E+0	9.856636E-1	9.696943E-1	9.919535E-1	1.054812E+0	9.648150E-1	9.209808E-1	1.001430E+0	9.610439E-1	1.018757E+0	9.140809E-1	9.815672E-1	9.964155E-1	9.836609E-1	9.300649E-1	9.650512E-1	9.957037E-1	1.020525E+0	9.958363E-1	1.010364E+0	9.866384E-1	1.004190E+0	8.944639E-1	9.898503E-1	9.787320E-1	1.000829E+0	9.642713E-1	1.005852E+0	9.387396E-1	9.943434E-1	9.760157E-1	1.003995E+0	9.738703E-1	1.022545E+0	9.580238E-1	9.982794E-1	9.753891E-1	9.827233E-1	8.526452E-1	9.994012E-1	9.733220E-1	1.030130E+0	9.191033E-1	1.003953E+0	1.022394E+0	9.667848E-1	9.792831E-1	9.993959E-1	9.967277E-1	9.961495E-1	9.891496E-1	1.025478E+0	1.012713E+0	9.679972E-1	8.510336E-1	1.014435E+0	9.770407E-1	9.635534E-1	8.817390E-1	9.850365E-1	9.722517E-1	9.941466E-1	9.874257E-1	1.022521E+0	1.008259E+0	9.818347E-1	9.452073E-1	1.019440E+0	9.595948E-1	9.879475E-1	8.777697E-1	9.865961E-1	9.458618E-1	9.903764E-1	9.628700E-1	9.668470E-1	9.894977E-1	9.511489E-1	9.879218E-1	9.851121E-1	9.886309E-1	1.074912E+0	9.293532E-1	9.283247E-1	9.564479E-1	9.897993E-1	9.213233E-1	9.431998E-1	9.638009E-1	9.989291E-1	9.454756E-1	1.056003E+0	9.890128E-1	1.048926E+0	9.578849E-1	1.018085E+0	9.856873E-1	9.589153E-1	9.528278E-1	1.006113E+0	9.554880E-1	9.811795E-1	9.118578E-1	9.586607E-1	9.883284E-1	9.470512E-1	9.186985E-1	1.027054E+0
5.560190E+2	9.994775E-1	9.877446E-1	9.853799E-1	9.891096E-1	1.009165E+0	8.557060E-1	9.320802E-1	9.607080E-1	9.698222E-1	8.081846E-1	9.837185E-1	9.898880E-1	9.375602E-1	9.109175E-1	9.697008E-1	9.474098E-1	9.432409E-1	9.890370E-1	9.637530E-1	9.550127E-1	9.923508E-1	9.140929E-1	9.907898E-1	9.751392E-1	9.953682E-1	9.255028E-1	1.018429E+0	9.628511E-1	9.724162E-1	9.706714E-1	9.868517E-1	1.009708E+0	9.923161E-1	9.794110E-1	9.719314E-1	9.753259E-1	9.826799E-1	9.269426E-1	9.659718E-1	9.958514E-1	9.727337E-1	9.299738E-1	9.835945E-1	9.603460E-1	9.552930E-1	9.609045E-1	9.871766E-1	9.741783E-1	9.677280E-1	9.634789E-1	9.694439E-1	9.736009E-1	9.787545E-1	8.701809E-1	9.380164E-1	9.964357E-1	9.745904E-1	9.275643E-1	9.357565E-1	1.006841E+0	9.946305E-1	9.389986E-1	1.016422E+0	9.987823E-1	9.917932E-1	9.982202E-1	9.714800E-1	9.780954E-1	1.004278E+0	9.081618E-1	9.862391E-1	9.720443E-1	9.684618E-1	9.228421E-1	1.009110E+0	9.552975E-1	9.493993E-1	9.639390E-1	1.029044E+0	9.814292E-1	9.951027E-1	9.660946E-1	9.969171E-1	9.762960E-1	9.510005E-1	9.464208E-1	9.878297E-1	9.709512E-1	9.888541E-1	9.654623E-1	9.958268E-1	9.622402E-1	9.841351E-1	9.754973E-1	1.005493E+0	9.788407E-1	9.846488E-1	9.185643E-1	9.896747E-1	9.592691E-1	9.440363E-1	8.913311E-1	1.004975E+0	1.052704E+0	9.323139E-1	8.759381E-1	9.863259E-1	9.876911E-1	9.803776E-1	9.716532E-1	9.944154E-1	9.916574E-1	9.561554E-1	9.448474E-1	1.010791E+0	1.022316E+0	9.895123E-1	8.808178E-1	1.008370E+0	1.017311E+0	1.007973E+0	9.187559E-1	9.510190E-1	9.859280E-1	9.713883E-1	9.428577E-1	9.457659E-1	1.008742E+0	1.021319E+0	9.633056E-1	9.920738E-1	9.858079E-1	9.921204E-1	8.751881E-1	1.007425E+0	9.770322E-1	9.832465E-1	9.516957E-1	1.011741E+0	9.912479E-1	1.030158E+0	9.772725E-1	9.737103E-1	9.327439E-1	9.570197E-1	9.987379E-1	9.502417E-1	9.819007E-1	1.043187E+0	8.668151E-1	9.749696E-1	9.935392E-1	9.849099E-1	9.437173E-1	9.984354E-1	9.608093E-1	9.759609E-1	9.273113E-1	9.906995E-1	1.013900E+0	9.583934E-1	9.716856E-1	9.807580E-1	1.039152E+0	9.926531E-1	9.108753E-1	9.850679E-1	9.776798E-1	1.028108E+0	9.163398E-1	1.057513E+0
5.565140E+2	9.466117E-1	9.643242E-1	9.437867E-1	1.006145E+0	9.637954E-1	8.719016E-1	9.539253E-1	9.263830E-1	1.039929E+0	9.768574E-1	1.019538E+0	9.719654E-1	9.836913E-1	9.744398E-1	1.010767E+0	1.007491E+0	9.733303E-1	9.527471E-1	9.791731E-1	9.985113E-1	1.006299E+0	9.131475E-1	9.517869E-1	1.021655E+0	9.852907E-1	9.458072E-1	9.736942E-1	9.706458E-1	1.006633E+0	1.000543E+0	1.027369E+0	9.939518E-1	9.928718E-1	9.969585E-1	9.909832E-1	1.000687E+0	9.416811E-1	8.901461E-1	1.013721E+0	9.713874E-1	1.035754E+0	9.437187E-1	9.407418E-1	9.474303E-1	1.001482E+0	9.767917E-1	9.856861E-1	9.800689E-1	9.614540E-1	9.640120E-1	9.793639E-1	9.873200E-1	1.014452E+0	8.571146E-1	1.023978E+0	9.778354E-1	9.740079E-1	9.058721E-1	9.990770E-1	9.868530E-1	9.829238E-1	1.005113E+0	9.741327E-1	1.010782E+0	1.002938E+0	9.422874E-1	9.895447E-1	9.837786E-1	9.985735E-1	9.121059E-1	9.889519E-1	1.017046E+0	1.015327E+0	9.978601E-1	1.020244E+0	9.817704E-1	9.555773E-1	9.614843E-1	1.013530E+0	1.009486E+0	9.890497E-1	1.006543E+0	9.817164E-1	1.011134E+0	9.621454E-1	9.411730E-1	9.741895E-1	9.806777E-1	1.017938E+0	9.737992E-1	9.736640E-1	9.644269E-1	1.001149E+0	9.615023E-1	1.014980E+0	9.964664E-1	9.930088E-1	9.656805E-1	9.902484E-1	1.027087E+0	1.033015E+0	8.741919E-1	9.999078E-1	9.891982E-1	9.438216E-1	8.753843E-1	9.769248E-1	1.015567E+0	1.001038E+0	9.818269E-1	9.944159E-1	9.850670E-1	1.072611E+0	9.239996E-1	9.630623E-1	1.013913E+0	1.002331E+0	8.540624E-1	9.752908E-1	9.712874E-1	9.891798E-1	9.028916E-1	9.905236E-1	1.005821E+0	1.000252E+0	1.011503E+0	1.012993E+0	9.811965E-1	9.938003E-1	9.287551E-1	1.008621E+0	9.881380E-1	9.944373E-1	8.695084E-1	9.887887E-1	9.879695E-1	9.832462E-1	9.354924E-1	9.539324E-1	9.626570E-1	9.683687E-1	9.483680E-1	1.010506E+0	1.000083E+0	9.946961E-1	9.902915E-1	9.828215E-1	9.802036E-1	1.005123E+0	9.490914E-1	1.003562E+0	9.985791E-1	9.551891E-1	9.818252E-1	9.800373E-1	9.700180E-1	9.531918E-1	1.006595E+0	9.850156E-1	9.774960E-1	1.018929E+0	9.735101E-1	9.906797E-1	9.903012E-1	9.961455E-1	9.039983E-1	9.824272E-1	1.052838E+0	1.002203E+0	9.387556E-1	1.015336E+0
5.570100E+2	1.008672E+0	1.010594E+0	1.029745E+0	1.021531E+0	1.029890E+0	1.033325E+0	1.030385E+0	1.011472E+0	1.012365E+0	1.044120E+0	1.005324E+0	1.035750E+0	1.056475E+0	1.009846E+0	1.003125E+0	1.036672E+0	9.937480E-1	1.000761E+0	9.918394E-1	1.007723E+0	1.019349E+0	1.009111E+0	1.030807E+0	9.995726E-1	1.003766E+0	9.926636E-1	1.025791E+0	1.044133E+0	1.038837E+0	1.008011E+0	1.002751E+0	9.790703E-1	9.606200E-1	1.039732E+0	1.048700E+0	9.764048E-1	1.014032E+0	9.902321E-1	9.802412E-1	1.048541E+0	9.855708E-1	1.033633E+0	1.047571E+0	1.009660E+0	1.000395E+0	9.888442E-1	1.010024E+0	1.020386E+0	1.024715E+0	1.012497E+0	1.015543E+0	1.012472E+0	9.911297E-1	9.593152E-1	1.021309E+0	9.873868E-1	1.031074E+0	9.831176E-1	1.011621E+0	9.845010E-1	1.036136E+0	1.006595E+0	1.008591E+0	1.027858E+0	1.001266E+0	9.903897E-1	1.043738E+0	9.928708E-1	9.904896E-1	9.402087E-1	9.965477E-1	1.009546E+0	1.047333E+0	9.217466E-1	1.026690E+0	1.009934E+0	1.012306E+0	1.005178E+0	9.936536E-1	1.053296E+0	1.018103E+0	9.958364E-1	1.017965E+0	1.048151E+0	1.017869E+0	9.474704E-1	9.837875E-1	1.003050E+0	1.019078E+0	9.398573E-1	1.049122E+0	9.966713E-1	1.025454E+0	1.011780E+0	1.000000E+0	1.031267E+0	1.062671E+0	9.650917E-1	1.077438E+0	1.017637E+0	1.023344E+0	8.825167E-1	9.831907E-1	1.014293E+0	1.033582E+0	9.772099E-1	1.015703E+0	1.057664E+0	1.060301E+0	1.000139E+0	1.006591E+0	9.962207E-1	9.961503E-1	9.599626E-1	9.918228E-1	1.009712E+0	1.021557E+0	9.085824E-1	1.027115E+0	1.009832E+0	9.874718E-1	9.675236E-1	1.048133E+0	1.008307E+0	1.013019E+0	1.015602E+0	1.034696E+0	9.691148E-1	9.776475E-1	1.000050E+0	9.876189E-1	1.033574E+0	1.000463E+0	9.428285E-1	1.009069E+0	1.027889E+0	1.001895E+0	1.008686E+0	1.016045E+0	9.999995E-1	1.017496E+0	1.041673E+0	1.014134E+0	1.021155E+0	9.624883E-1	1.008392E+0	1.034357E+0	9.898188E-1	9.902934E-1	8.904694E-1	1.005680E+0	1.030334E+0	1.000612E+0	9.530978E-1	9.764766E-1	1.023546E+0	1.034436E+0	9.869039E-1	1.036169E+0	1.006163E+0	1.046066E+0	9.309285E-1	1.009420E+0	1.041398E+0	1.006622E+0	9.393630E-1	1.010947E+0	9.520007E-1	9.771340E-1	9.552736E-1	1.022366E+0
5.575470E+2	1.045448E+0	1.022589E+0	1.011999E+0	1.022629E+0	1.008045E+0	1.058699E+0	1.039669E+0	1.045312E+0	1.002778E+0	1.017215E+0	9.928153E-1	1.048401E+0	1.047249E+0	1.027549E+0	1.002170E+0	1.045685E+0	1.016852E+0	1.018627E+0	1.061230E+0	1.008235E+0	1.063898E+0	1.078602E+0	9.811659E-1	1.016959E+0	1.063114E+0	1.076485E+0	9.884168E-1	1.043576E+0	9.829827E-1	1.020956E+0	9.924933E-1	1.017586E+0	1.053485E+0	1.000798E+0	1.002190E+0	9.844991E-1	9.947386E-1	1.034879E+0	9.967071E-1	1.007142E+0	1.008912E+0	1.033061E+0	1.021015E+0	1.028447E+0	1.025935E+0	1.014044E+0	1.014494E+0	1.028087E+0	1.010599E+0	1.069506E+0	9.974536E-1	1.016474E+0	1.013977E+0	1.047983E+0	1.038928E+0	9.873870E-1	1.049708E+0	1.071474E+0	9.871297E-1	9.839131E-1	1.010594E+0	1.030277E+0	1.019554E+0	1.000630E+0	1.021885E+0	1.013882E+0	1.028685E+0	9.996900E-1	1.031857E+0	1.018107E+0	1.042663E+0	1.018545E+0	9.981816E-1	1.031261E+0	1.007938E+0	1.005428E+0	1.030279E+0	1.030215E+0	1.012560E+0	1.038036E+0	9.787594E-1	1.006543E+0	1.002764E+0	1.000792E+0	9.976047E-1	9.490448E-1	1.015110E+0	1.009860E+0	1.011665E+0	9.964268E-1	1.028015E+0	9.988572E-1	9.972601E-1	1.024738E+0	9.965047E-1	1.010024E+0	9.952378E-1	9.497791E-1	1.045890E+0	9.998485E-1	1.019959E+0	8.781093E-1	1.013079E+0	1.019927E+0	1.020347E+0	9.334915E-1	9.769250E-1	9.859846E-1	9.890767E-1	9.935258E-1	1.061933E+0	1.028161E+0	1.012030E+0	9.865437E-1	1.004061E+0	1.016914E+0	1.005535E+0	9.353376E-1	1.023256E+0	1.032269E+0	1.027904E+0	9.316823E-1	9.773554E-1	1.017010E+0	1.010799E+0	9.889626E-1	1.002935E+0	1.013092E+0	1.034481E+0	9.825004E-1	1.000347E+0	9.689150E-1	1.005563E+0	9.345669E-1	9.975581E-1	1.032811E+0	1.028770E+0	9.360512E-1	9.729964E-1	1.029174E+0	1.018509E+0	1.002628E+0	1.018280E+0	1.045892E+0	1.043920E+0	1.002359E+0	1.020733E+0	1.047511E+0	1.017974E+0	9.454919E-1	1.025271E+0	9.814421E-1	1.002855E+0	9.718583E-1	1.025142E+0	1.020092E+0	1.044268E+0	1.045978E+0	9.674479E-1	1.040746E+0	9.766588E-1	1.028867E+0	9.774512E-1	1.000409E+0	9.896600E-1	9.315042E-1	1.045804E+0	1.010249E+0	1.023093E+0	9.552734E-1	9.473863E-1
5.580060E+2	1.000627E+0	9.837463E-1	9.870434E-1	1.020432E+0	1.024850E+0	1.011190E+0	9.965245E-1	1.044346E+0	9.997822E-1	1.060160E+0	9.672300E-1	1.053146E+0	1.003681E+0	1.090029E+0	9.973955E-1	9.787387E-1	1.021150E+0	1.027002E+0	1.022679E+0	1.011305E+0	9.577029E-1	1.018565E+0	9.963619E-1	1.019778E+0	1.000407E+0	9.916228E-1	9.629355E-1	1.024091E+0	1.007136E+0	1.020458E+0	1.032497E+0	9.930775E-1	9.611763E-1	9.975077E-1	1.015078E+0	1.021191E+0	9.932923E-1	1.009857E+0	1.006586E+0	1.026431E+0	1.014164E+0	9.958355E-1	1.001701E+0	9.938089E-1	9.987651E-1	9.926791E-1	1.004560E+0	1.013591E+0	9.771384E-1	9.597496E-1	9.922018E-1	1.006756E+0	1.041107E+0	1.093249E+0	9.753911E-1	1.014533E+0	1.015352E+0	1.055601E+0	1.023568E+0	9.515803E-1	1.004741E+0	1.029782E+0	1.002848E+0	1.005246E+0	9.806489E-1	1.044086E+0	1.023867E+0	1.008215E+0	1.008083E+0	1.059030E+0	1.082810E+0	9.880451E-1	1.009612E+0	1.012644E+0	1.020830E+0	1.012750E+0	9.904008E-1	1.040032E+0	9.757166E-1	1.006533E+0	9.527323E-1	1.001189E+0	1.006272E+0	1.004058E+0	1.023947E+0	1.021995E+0	9.893448E-1	1.025423E+0	1.024781E+0	1.019651E+0	9.868558E-1	1.040939E+0	1.025941E+0	1.013854E+0	9.910119E-1	9.761291E-1	9.818625E-1	1.040477E+0	1.001147E+0	1.019860E+0	9.967466E-1	1.065175E+0	1.029796E+0	9.876620E-1	9.794949E-1	1.040298E+0	1.030980E+0	1.006465E+0	9.841830E-1	9.879305E-1	1.038136E+0	9.946998E-1	1.056143E+0	9.875860E-1	1.005896E+0	1.045723E+0	9.615872E-1	9.752181E-1	9.995491E-1	1.009832E+0	9.760825E-1	9.804500E-1	1.000399E+0	1.009551E+0	1.023010E+0	9.981836E-1	1.016169E+0	1.003426E+0	9.860228E-1	9.890811E-1	1.004802E+0	1.013186E+0	1.003707E+0	9.325009E-1	1.005780E+0	9.808602E-1	1.022737E+0	9.550481E-1	9.828366E-1	1.005251E+0	1.008886E+0	1.010742E+0	1.000142E+0	1.011994E+0	1.036020E+0	9.685711E-1	1.011847E+0	9.592761E-1	9.858445E-1	9.357217E-1	9.977375E-1	1.027310E+0	1.000612E+0	9.917924E-1	1.025736E+0	9.734720E-1	1.041680E+0	1.009186E+0	1.023769E+0	1.010714E+0	1.000143E+0	1.025826E+0	9.686318E-1	9.768254E-1	1.013605E+0	9.536070E-1	1.035769E+0	9.920859E-1	9.930109E-1	9.387555E-1	9.965917E-1
5.585160E+2	9.989027E-1	1.035156E+0	1.016435E+0	9.885603E-1	1.000204E+0	1.041423E+0	9.708559E-1	9.839141E-1	1.024349E+0	1.042051E+0	9.649555E-1	1.018354E+0	1.030847E+0	9.978698E-1	1.000260E+0	9.662927E-1	1.019001E+0	9.985281E-1	9.874338E-1	9.892997E-1	1.021150E+0	1.061584E+0	9.619175E-1	1.020717E+0	1.011045E+0	1.027025E+0	9.719951E-1	9.851202E-1	9.769446E-1	1.001041E+0	9.971092E-1	1.012774E+0	1.002881E+0	1.036443E+0	9.831385E-1	9.996076E-1	9.739980E-1	1.054504E+0	9.939625E-1	1.006202E+0	9.523104E-1	1.055969E+0	1.011358E+0	1.056626E+0	1.016697E+0	9.904872E-1	1.005554E+0	1.032615E+0	1.069154E+0	1.027948E+0	9.986209E-1	1.017045E+0	9.773264E-1	1.059182E+0	9.951464E-1	9.949272E-1	9.943888E-1	1.042374E+0	1.014011E+0	1.027416E+0	1.007933E+0	1.002647E+0	1.007547E+0	1.002477E+0	1.026342E+0	1.011644E+0	1.012426E+0	1.027535E+0	1.010936E+0	1.023531E+0	1.038865E+0	1.002046E+0	1.038760E+0	1.033999E+0	9.962178E-1	1.007118E+0	1.067348E+0	9.835762E-1	1.011591E+0	9.755227E-1	1.010235E+0	1.014870E+0	1.020303E+0	1.004058E+0	1.034585E+0	1.068179E+0	1.039865E+0	1.003537E+0	1.036757E+0	1.020246E+0	1.001631E+0	1.027276E+0	1.008927E+0	1.019037E+0	1.029461E+0	1.027651E+0	9.957950E-1	1.007496E+0	9.736137E-1	9.898422E-1	1.023828E+0	1.073009E+0	1.058165E+0	9.912467E-1	1.018621E+0	1.026463E+0	9.822131E-1	9.831400E-1	9.950576E-1	9.965785E-1	1.008805E+0	1.023597E+0	9.879159E-1	1.030846E+0	9.973301E-1	1.025917E+0	1.016979E+0	1.089307E+0	9.863170E-1	9.787661E-1	9.846239E-1	9.839755E-1	1.010824E+0	9.753604E-1	1.005248E+0	1.019700E+0	1.003994E+0	1.023241E+0	1.032686E+0	9.967593E-1	9.908011E-1	9.654197E-1	9.796026E-1	1.071910E+0	9.739900E-1	1.002187E+0	1.040289E+0	1.043327E+0	1.029575E+0	1.056598E+0	9.911596E-1	1.030518E+0	9.991049E-1	1.020698E+0	1.025081E+0	9.890853E-1	1.013032E+0	1.028280E+0	9.675545E-1	1.034453E+0	9.802647E-1	1.018237E+0	1.020800E+0	1.019347E+0	1.019208E+0	1.006854E+0	1.010632E+0	1.029396E+0	1.017568E+0	9.697609E-1	1.045544E+0	9.899354E-1	1.003908E+0	9.987243E-1	1.035555E+0	9.791474E-1	1.014116E+0	9.895804E-1	1.020587E+0	9.434753E-1	1.005964E+0
5.590100E+2	9.822390E-1	9.985979E-1	9.831615E-1	1.053951E+0	9.962831E-1	1.009571E+0	9.839633E-1	1.013889E+0	9.752146E-1	1.014111E+0	1.000775E+0	9.630039E-1	9.944554E-1	1.027028E+0	9.897557E-1	9.941883E-1	9.926728E-1	1.008577E+0	9.775206E-1	1.035358E+0	1.001349E+0	1.018565E+0	9.755941E-1	1.008971E+0	9.869706E-1	9.874577E-1	1.029189E+0	9.879038E-1	1.025251E+0	1.000045E+0	1.000187E+0	9.952638E-1	1.036802E+0	1.030959E+0	9.887418E-1	1.001226E+0	1.018372E+0	1.048616E+0	9.396268E-1	9.939702E-1	1.048008E+0	1.023897E+0	9.890261E-1	1.027859E+0	1.004199E+0	1.018427E+0	9.986002E-1	1.015401E+0	1.041968E+0	1.014627E+0	1.002706E+0	1.058775E+0	9.782783E-1	1.028382E+0	1.004757E+0	1.044192E+0	9.850715E-1	9.936992E-1	1.038503E+0	1.029768E+0	1.002080E+0	9.898177E-1	9.903180E-1	1.014013E+0	9.756335E-1	9.836781E-1	9.702752E-1	1.003668E+0	1.028054E+0	1.043254E+0	9.732189E-1	1.014046E+0	9.833220E-1	1.033452E+0	9.645731E-1	9.986685E-1	1.008374E+0	1.029723E+0	1.037285E+0	1.010471E+0	1.027184E+0	9.672844E-1	9.694393E-1	1.020388E+0	1.010270E+0	1.011499E+0	1.010058E+0	1.033207E+0	9.557781E-1	1.032751E+0	1.027488E+0	1.027823E+0	1.017677E+0	9.848268E-1	1.013982E+0	9.901395E-1	9.696022E-1	1.074047E+0	1.010899E+0	9.742778E-1	9.788541E-1	1.069582E+0	9.892699E-1	1.021463E+0	1.000209E+0	1.077929E+0	1.016292E+0	9.985002E-1	1.018436E+0	1.005226E+0	9.844536E-1	1.003319E+0	1.019088E+0	1.045960E+0	1.014463E+0	9.803029E-1	1.009197E+0	1.049426E+0	1.024358E+0	1.043199E+0	1.006264E+0	1.056834E+0	1.001497E+0	9.940095E-1	9.885955E-1	1.009454E+0	1.011405E+0	1.056103E+0	9.776468E-1	1.073539E+0	1.031531E+0	9.893032E-1	9.893389E-1	1.040416E+0	9.964621E-1	1.026796E+0	9.826980E-1	1.071822E+0	9.711524E-1	1.020422E+0	1.040793E+0	1.015813E+0	1.010506E+0	1.012911E+0	9.946962E-1	1.030112E+0	1.055682E+0	1.007919E+0	9.991912E-1	1.110560E+0	1.014682E+0	9.859789E-1	9.882746E-1	1.025210E+0	9.913134E-1	1.048295E+0	1.012702E+0	9.708398E-1	9.829487E-1	9.934228E-1	1.002752E+0	1.020351E+0	1.044146E+0	1.002092E+0	9.637188E-1	1.092117E+0	9.898210E-1	1.020270E+0	1.035628E+0	1.064998E+0	1.010650E+0
5.595340E+2	1.034530E+0	9.911718E-1	1.022535E+0	1.020981E+0	9.626754E-1	1.066797E+0	1.005263E+0	1.055949E+0	1.057307E+0	1.068438E+0	1.014421E+0	1.020990E+0	1.015470E+0	1.000474E+0	1.032252E+0	1.062850E+0	1.032971E+0	1.024211E+0	1.009462E+0	1.040987E+0	9.990989E-1	1.039364E+0	9.923100E-1	9.976933E-1	9.813711E-1	1.025464E+0	9.702970E-1	1.019081E+0	1.007639E+0	1.015977E+0	1.006854E+0	1.055226E+0	1.036802E+0	9.755718E-1	1.003311E+0	1.057345E+0	1.060817E+0	1.043219E+0	1.026345E+0	1.004790E+0	1.025834E+0	1.029624E+0	9.884227E-1	1.012008E+0	1.012894E+0	1.033219E+0	9.951233E-1	1.024915E+0	9.923004E-1	1.056719E+0	1.030715E+0	1.013615E+0	1.038725E+0	1.032117E+0	1.032521E+0	1.038663E+0	1.012440E+0	1.033909E+0	1.000869E+0	1.047404E+0	1.016448E+0	1.033237E+0	1.022687E+0	1.025550E+0	1.014640E+0	1.050797E+0	1.052169E+0	9.883248E-1	1.003328E+0	1.028954E+0	9.710482E-1	1.019547E+0	1.019899E+0	1.064664E+0	1.041341E+0	1.053869E+0	1.048252E+0	1.001250E+0	1.012076E+0	1.006534E+0	1.002972E+0	1.027362E+0	1.033750E+0	1.015489E+0	1.015842E+0	1.043512E+0	9.954070E-1	1.020074E+0	9.563481E-1	1.056570E+0	1.006908E+0	1.011974E+0	9.962876E-1	9.786069E-1	1.011984E+0	1.024035E+0	1.011399E+0	1.048722E+0	9.850860E-1	9.965129E-1	1.041720E+0	1.123449E+0	1.014599E+0	1.067557E+0	1.032431E+0	1.056346E+0	1.043320E+0	9.882605E-1	1.047252E+0	1.006243E+0	1.012125E+0	1.036779E+0	9.973268E-1	1.092347E+0	1.068313E+0	1.000709E+0	1.032545E+0	1.062046E+0	1.029320E+0	1.016736E+0	1.003986E+0	1.092675E+0	1.029478E+0	9.996045E-1	1.080184E+0	1.013039E+0	1.012993E+0	1.008260E+0	1.006363E+0	1.056538E+0	1.034077E+0	1.034156E+0	1.018078E+0	1.055904E+0	1.005780E+0	1.059060E+0	9.843431E-1	1.028800E+0	1.035724E+0	9.649907E-1	1.026613E+0	1.035589E+0	9.845939E-1	1.012451E+0	1.024474E+0	1.069933E+0	1.007701E+0	1.003959E+0	1.002157E+0	1.090504E+0	1.024742E+0	1.004124E+0	1.026968E+0	1.060973E+0	1.032857E+0	1.009732E+0	9.971774E-1	1.038205E+0	1.034102E+0	1.029827E+0	9.891830E-1	1.052592E+0	1.020444E+0	9.768253E-1	1.000635E+0	1.083766E+0	1.027319E+0	1.009622E+0	9.938467E-1	1.099213E+0	9.473866E-1
5.600180E+2	1.027634E+0	1.028873E+0	1.043055E+0	9.435008E-1	1.026530E+0	1.027926E+0	9.927014E-1	1.008570E+0	9.554405E-1	9.784102E-1	1.017832E+0	9.677486E-1	9.939424E-1	9.879771E-1	9.859361E-1	1.009206E+0	1.024911E+0	1.023093E+0	9.973463E-1	9.852056E-1	1.002251E+0	9.675109E-1	9.948425E-1	9.887655E-1	1.014964E+0	1.057742E+0	1.011635E+0	9.834504E-1	9.940533E-1	1.036389E+0	9.730047E-1	1.041659E+0	1.008442E+0	1.016152E+0	1.012837E+0	1.005543E+0	1.013067E+0	1.020158E+0	9.884743E-1	1.001967E+0	1.023500E+0	9.826627E-1	9.817835E-1	9.996799E-1	1.026478E+0	1.058419E+0	1.026912E+0	9.805209E-1	9.938686E-1	1.005037E+0	1.020795E+0	9.798886E-1	9.616197E-1	1.033514E+0	9.785945E-1	1.003976E+0	9.903125E-1	1.024386E+0	9.948954E-1	1.018598E+0	9.781343E-1	1.010048E+0	9.824863E-1	1.004320E+0	9.923507E-1	1.023390E+0	9.835226E-1	1.041742E+0	1.009510E+0	1.040294E+0	9.721337E-1	9.900450E-1	9.644611E-1	1.019215E+0	9.973895E-1	1.011624E+0	9.982640E-1	1.019414E+0	9.500228E-1	9.893050E-1	1.036868E+0	9.982158E-1	1.017964E+0	9.801065E-1	1.014829E+0	1.047186E+0	9.610544E-1	9.889461E-1	9.951265E-1	1.016673E+0	9.979372E-1	1.011974E+0	1.031774E+0	1.019555E+0	9.835218E-1	1.011381E+0	1.019758E+0	1.064624E+0	1.011472E+0	1.030422E+0	9.730512E-1	1.072029E+0	9.760986E-1	9.738340E-1	1.004813E+0	1.104491E+0	1.010416E+0	1.010447E+0	9.988631E-1	1.058126E+0	9.744920E-1	1.008388E+0	9.732115E-1	1.056384E+0	9.746886E-1	1.016914E+0	9.950066E-1	1.114548E+0	9.791503E-1	9.747395E-1	9.794988E-1	1.085037E+0	1.026186E+0	9.909011E-1	9.813796E-1	9.920365E-1	1.024639E+0	1.018408E+0	9.955945E-1	1.036794E+0	9.990740E-1	1.066194E+0	1.012980E+0	1.127159E+0	1.026608E+0	9.868754E-1	1.005734E+0	1.050031E+0	1.043720E+0	1.033842E+0	9.896403E-1	9.990781E-1	1.001696E+0	1.003747E+0	9.886195E-1	9.854653E-1	9.887453E-1	1.055995E+0	9.878222E-1	1.089990E+0	9.601435E-1	1.005132E+0	1.030333E+0	1.006449E+0	1.006151E+0	1.055778E+0	1.013736E+0	1.012295E+0	9.813981E-1	9.979731E-1	1.016842E+0	9.984514E-1	1.000602E+0	9.998468E-1	9.926528E-1	1.101448E+0	1.001440E+0	1.016512E+0	9.813126E-1	1.081515E+0	9.965923E-1
5.605150E+2	1.007523E+0	9.866021E-1	9.881524E-1	1.015486E+0	9.918016E-1	1.060319E+0	9.992555E-1	9.810133E-1	9.997820E-1	9.815149E-1	1.009304E+0	9.666945E-1	9.770282E-1	1.015573E+0	9.969178E-1	9.602849E-1	9.889120E-1	9.901536E-1	9.907379E-1	9.877643E-1	9.748007E-1	9.793290E-1	9.999077E-1	9.680914E-1	1.007126E+0	1.002556E+0	1.011634E+0	1.002936E+0	9.875116E-1	9.452806E-1	9.740302E-1	9.563135E-1	1.006218E+0	9.635075E-1	1.002751E+0	9.888155E-1	1.009692E+0	1.009857E+0	9.791437E-1	9.657429E-1	9.575617E-1	9.906804E-1	1.006530E+0	9.756099E-1	9.976786E-1	1.020618E+0	9.802227E-1	9.778030E-1	9.692969E-1	9.581510E-1	1.038884E+0	9.678843E-1	1.014452E+0	1.049849E+0	9.833996E-1	9.843704E-1	1.009529E+0	1.006926E+0	9.829478E-1	9.974354E-1	9.946307E-1	9.814305E-1	9.694337E-1	9.683240E-1	1.005724E+0	9.870333E-1	9.401675E-1	1.012760E+0	9.543542E-1	1.004796E+0	1.016079E+0	9.670438E-1	9.821787E-1	1.006073E+0	9.393745E-1	9.885296E-1	9.898390E-1	9.973226E-1	9.466290E-1	9.681392E-1	1.005392E+0	1.019035E+0	9.717777E-1	9.637759E-1	9.737963E-1	1.008349E+0	1.019151E+0	9.889459E-1	1.017938E+0	1.002382E+0	9.488629E-1	9.704382E-1	9.651767E-1	1.030959E+0	9.790279E-1	9.675424E-1	9.913364E-1	9.957167E-1	9.650093E-1	9.948456E-1	9.749853E-1	1.025509E+0	9.725524E-1	9.267179E-1	1.017471E+0	1.050812E+0	1.005128E+0	9.899669E-1	9.618921E-1	1.003191E+0	9.589960E-1	9.708717E-1	9.532146E-1	9.839378E-1	9.912107E-1	9.292870E-1	9.913427E-1	1.090315E+0	9.852143E-1	9.724379E-1	1.035308E+0	1.077398E+0	9.757088E-1	1.008929E+0	9.769389E-1	9.951098E-1	9.918191E-1	9.589660E-1	9.920055E-1	9.671444E-1	9.627981E-1	9.712452E-1	9.809938E-1	1.080173E+0	1.006328E+0	9.578929E-1	9.662429E-1	1.026006E+0	9.914461E-1	9.859963E-1	9.795112E-1	9.798084E-1	9.913308E-1	9.606879E-1	9.685659E-1	9.800348E-1	9.585346E-1	9.660634E-1	1.004134E+0	1.056565E+0	1.021035E+0	9.713614E-1	9.927609E-1	1.036349E+0	9.812242E-1	9.688669E-1	9.547446E-1	9.801671E-1	1.020152E+0	9.943324E-1	9.719622E-1	9.881102E-1	9.983970E-1	9.605421E-1	1.011610E+0	1.086224E+0	9.095442E-1	9.833177E-1	9.896682E-1	1.069718E+0	9.380161E-1
5.610010E+2	9.483352E-1	9.906006E-1	9.887069E-1	9.176744E-1	9.867603E-1	9.631415E-1	1.095376E+0	9.684438E-1	9.632300E-1	1.008937E+0	1.024087E+0	9.640582E-1	9.596012E-1	9.582990E-1	1.011720E+0	9.911833E-1	9.932106E-1	9.672633E-1	1.018825E+0	9.806000E-1	9.617512E-1	1.000129E+0	1.124517E+0	9.826578E-1	9.505775E-1	9.676737E-1	1.035984E+0	9.762127E-1	1.000595E+0	9.806286E-1	1.006854E+0	9.453697E-1	9.483859E-1	9.629588E-1	9.803372E-1	9.893550E-1	9.976309E-1	9.715889E-1	1.109221E+0	9.779747E-1	9.756509E-1	9.809447E-1	1.028257E+0	9.885253E-1	9.601834E-1	9.455650E-1	9.916465E-1	9.524345E-1	9.917779E-1	9.682743E-1	9.542723E-1	9.661692E-1	9.901777E-1	9.691135E-1	1.007960E+0	9.702949E-1	9.635260E-1	9.550766E-1	1.011621E+0	9.656893E-1	9.717493E-1	9.720557E-1	1.005980E+0	9.420179E-1	9.867780E-1	9.545925E-1	9.841251E-1	9.633203E-1	9.605361E-1	1.021559E+0	9.314435E-1	1.002045E+0	9.724632E-1	9.562439E-1	9.762933E-1	9.750118E-1	9.499608E-1	9.678662E-1	1.017892E+0	9.612480E-1	9.836019E-1	9.970257E-1	9.811317E-1	9.757512E-1	9.981117E-1	1.015172E+0	1.024203E+0	9.753275E-1	9.757372E-1	9.761808E-1	9.836897E-1	9.873804E-1	9.462180E-1	9.796438E-1	9.740346E-1	9.865238E-1	9.946799E-1	9.698026E-1	9.495219E-1	9.903984E-1	9.904602E-1	1.045097E+0	9.583677E-1	9.553971E-1	1.016896E+0	9.816371E-1	9.557724E-1	9.763137E-1	9.635227E-1	9.955607E-1	9.656376E-1	9.612388E-1	9.761529E-1	9.875857E-1	9.783599E-1	9.382901E-1	9.744055E-1	1.040340E+0	9.620588E-1	9.735892E-1	1.001708E+0	1.002777E+0	9.888769E-1	1.004578E+0	9.491852E-1	1.013552E+0	9.425900E-1	9.594495E-1	9.824333E-1	1.005534E+0	9.882553E-1	9.840606E-1	1.022715E+0	1.069846E+0	9.822110E-1	9.606270E-1	1.000798E+0	9.930414E-1	9.908313E-1	9.498205E-1	9.288644E-1	9.585096E-1	9.959953E-1	9.776375E-1	1.004420E+0	9.770180E-1	9.763057E-1	9.790726E-1	9.967195E-1	1.030339E+0	9.919129E-1	9.839624E-1	9.966861E-1	1.009381E+0	9.634196E-1	9.625362E-1	9.614713E-1	9.931223E-1	9.607301E-1	9.656652E-1	9.735276E-1	1.019742E+0	1.005562E+0	1.013884E+0	9.971426E-1	1.017950E+0	9.977434E-1	9.958434E-1	9.554081E-1	1.036682E+0	1.062198E+0
