Photon Energy (eV)	#1	#2	#3	#4	#5	#6	#7	#8	#9	#10	#11	#12	#13	#14	#15	#16	#17	#18	#19	#20	#21	#22	#23	#24	#25	#26	#27	#28	#29	#30	#31	#32	#33	#34	#35	#36	#37	#38	#39	#40	#41	#42	#43	#44	#45	#46	#47	#48	#49	#50	#51	#52	#53	#54	#55	#56	#57	#58	#59	#60	#61	#62	#63	#64	#65	#66	#67	#68	#69	#70	#71	#72	#73	#74	#75	#76	#77	#78	#79	#80	#81	#82	#83	#84	#85	#86	#87	#88	#89	#90	#91	#92	#93	#94	#95	#96	#97	#98	#99	#100	#101	#102	#103	#104	#105	#106	#107	#108	#109	#110	#111	#112	#113	#114	#115	#116	#117	#118	#119	#120	#121	#122	#123	#124	#125	#126	#127	#128	#129	#130	#131	#132	#133	#134	#135	#136	#137	#138	#139	#140	#141	#142	#143	#144	#145	#146	#147	#148	#149	#150	#151	#152	#153	#154	#155	#156	#157	#158	#159	#160	#161	#162	#163	#164	#165	#166	
5.290120E+2	-9.249240E-3	-2.658375E-2	-7.928270E-3	-9.839358E-3	-1.556456E-2	-1.534388E-2	-4.084541E-2	-3.310763E-2	-5.642089E-3	-2.732521E-2	-1.317247E-2	-1.153118E-2	-2.399318E-2	-1.729426E-2	-1.104838E-2	-2.584452E-2	-1.693077E-2	-1.831467E-2	-1.653420E-2	-1.583965E-2	-2.691575E-2	-2.779213E-2	-1.388669E-2	-2.370989E-2	-1.902495E-2	-2.418661E-2	-1.157929E-2	-3.770606E-2	-2.867989E-2	-2.070521E-2	-2.420494E-2	-1.175329E-2	-1.917928E-2	-2.849544E-2	-2.863711E-2	-2.404421E-2	-3.733625E-2	-2.396955E-2	-1.050802E-2	-3.643693E-2	-1.343598E-2	-2.593167E-2	-6.586859E-3	3.581634E-3	-1.656554E-2	-2.509800E-2	-1.987723E-2	-2.532419E-2	-1.658814E-2	-1.628152E-2	-2.366246E-2	-3.878456E-2	-1.184000E-2	-2.273445E-2	-1.722366E-2	-2.196904E-2	-3.537948E-2	-2.514543E-2	-1.184251E-2	-3.802892E-2	-1.892425E-2	-2.638387E-2	-3.103454E-2	-1.828079E-2	-1.811622E-2	-1.680645E-2	-2.938017E-2	-2.122014E-2	-1.899272E-2	-1.738239E-2	-3.353464E-2	-3.001512E-2	3.772503E-3	-1.591999E-2	-2.189250E-2	-1.979760E-2	-7.716391E-3	-2.323940E-2	-9.072689E-3	-1.579585E-2	-6.997894E-3	-2.859109E-2	-2.809331E-2	-1.429930E-2	-1.943930E-2	-3.199072E-2	-1.932144E-2	-2.379935E-2	-2.611391E-2	-3.571428E-2	-2.831362E-2	-1.263604E-2	-1.638766E-2	-2.056912E-2	-1.721275E-2	-2.999691E-2	-7.395097E-3	-1.908466E-2	-1.208787E-2	-9.867415E-3	-1.536637E-2	-1.629597E-2	-2.833078E-2	-1.556418E-2	-2.072635E-2	-1.875044E-2	-2.776935E-2	-2.458048E-2	-3.591446E-2	-2.078246E-2	-1.615395E-2	-4.262046E-2	-2.708372E-2	-2.687895E-2	-2.708588E-2	-1.136561E-2	-2.989663E-2	-1.854207E-2	-2.194674E-2	-2.246608E-2	-2.016353E-2	-9.600348E-3	-3.010915E-2	-1.636570E-2	-3.429323E-2	-2.475593E-2	-2.861662E-2	-9.663843E-3	-2.276995E-2	-2.163081E-2	-4.615542E-2	-2.644748E-2	-1.733799E-2	-4.534154E-2	-2.928860E-2	-9.083302E-3	-2.242784E-2	-1.079773E-2	-3.319106E-2	-1.575631E-2	-3.382954E-2	-3.049377E-2	-2.578678E-2	-1.386444E-2	-1.906717E-2	-1.391452E-2	-2.562361E-2	-1.501982E-2	-1.419167E-2	-1.352378E-2	-1.952760E-2	-1.604940E-2	-3.388445E-2	-2.432118E-2	-3.372349E-2	-1.820135E-2	-7.878765E-3	-1.749552E-2	-2.486779E-2	-1.599263E-2	-2.297430E-2	-3.317291E-2	-1.537683E-2	-3.017170E-3	-1.550928E-2	-9.372251E-3
5.295010E+2	-1.179636E-2	-7.000135E-3	1.732037E-2	-7.740977E-4	-9.923760E-3	2.689662E-2	-7.196507E-3	-2.598748E-3	-2.277010E-3	-6.595003E-3	-1.303831E-3	-4.945326E-3	1.085886E-3	-1.124102E-2	3.023944E-2	6.519278E-3	2.345879E-2	1.472695E-3	-3.956974E-3	-1.125619E-2	1.285678E-2	-1.925607E-3	-6.957975E-3	-1.775327E-2	1.089031E-2	1.499130E-2	-1.043341E-2	-1.328652E-3	-1.144833E-2	9.001947E-3	2.469807E-2	-3.435060E-3	1.343985E-2	1.210147E-2	7.855582E-3	9.069770E-3	-1.852994E-2	-2.451048E-4	4.752314E-3	1.465918E-2	4.958338E-3	-7.899077E-3	-1.009720E-2	-2.298637E-3	-1.796093E-2	-9.775247E-3	2.499866E-2	7.537429E-3	7.209380E-3	5.194905E-3	8.227766E-4	-1.822874E-3	1.932137E-3	-1.149307E-2	-8.440134E-3	-6.816005E-3	2.032909E-2	1.574882E-2	4.373052E-3	-2.965634E-3	-1.006320E-3	1.761427E-2	-6.240335E-3	-3.443418E-3	-1.835408E-2	-1.850015E-2	5.235296E-3	2.059580E-2	-1.061782E-2	-1.410587E-2	-6.796021E-3	-2.314595E-3	6.715261E-3	-1.549504E-3	5.902291E-3	-1.137705E-5	-2.235432E-3	-7.981101E-3	-1.396708E-2	-4.671912E-3	-1.055409E-2	-4.642333E-3	-4.200200E-3	-4.007288E-3	-7.209608E-4	1.516082E-3	-3.573239E-3	3.926272E-3	-8.428458E-3	-1.214194E-2	5.017545E-3	-7.976367E-3	-9.408381E-3	-9.431612E-3	-4.727065E-3	-4.844617E-3	-5.419520E-3	1.671374E-2	-1.307640E-2	-6.353730E-3	1.344671E-2	-8.214999E-4	2.366400E-2	2.768646E-4	1.321337E-2	-3.640042E-3	-1.124757E-2	2.081873E-2	1.403802E-2	-6.125996E-3	1.063804E-2	3.937788E-3	6.038293E-3	7.510487E-4	1.444247E-2	-1.531915E-2	4.560073E-3	-1.010037E-2	-8.526686E-3	8.688155E-4	8.047867E-4	-1.126579E-2	-1.025751E-2	8.231077E-3	2.415329E-3	4.923391E-3	1.046478E-2	-7.089838E-3	-1.077474E-2	4.008196E-3	-5.482158E-3	-9.929460E-3	2.516544E-3	1.523486E-2	7.229943E-3	-1.342155E-2	-1.251534E-2	1.413349E-2	8.720223E-3	3.642230E-3	3.123161E-3	-6.067762E-3	-1.848346E-2	3.942972E-3	2.998709E-3	1.012134E-2	-5.256083E-3	-1.169437E-3	-1.812199E-2	-3.038476E-3	-3.430141E-3	3.089461E-3	-2.963067E-3	9.707456E-3	1.187847E-3	-5.512010E-3	-1.432049E-2	-5.160275E-3	-8.923802E-3	-2.428861E-3	-4.995589E-3	9.593725E-3	-1.417475E-2	-1.713417E-3	5.422384E-3	1.127175E-2
5.300010E+2	2.381083E-2	1.896304E-2	1.174958E-2	4.503768E-3	3.573827E-2	3.404003E-2	5.473263E-3	2.966453E-2	2.881863E-2	4.099293E-2	3.896594E-2	8.259270E-3	1.595321E-2	1.476087E-2	1.514715E-3	3.498806E-2	2.127301E-2	-1.327931E-3	2.255138E-2	1.611104E-2	2.183005E-3	2.953911E-2	3.500063E-2	2.201066E-2	1.751458E-2	1.336427E-2	2.557751E-2	1.655938E-2	1.463294E-2	3.118016E-2	3.436612E-2	4.590884E-2	4.748050E-2	1.833045E-2	4.853754E-2	2.216726E-2	2.285290E-2	3.431104E-2	1.958769E-2	2.305010E-2	9.632145E-3	2.355546E-2	2.410176E-2	9.248838E-3	1.118662E-2	3.178796E-2	3.504942E-2	1.186143E-2	1.775577E-2	2.339665E-2	1.004903E-2	3.619922E-2	3.363449E-2	2.153749E-2	2.612344E-2	3.846892E-2	2.731307E-2	1.311361E-2	3.421088E-2	2.346557E-2	2.625932E-2	1.492689E-2	3.886500E-2	1.958502E-2	4.728361E-2	4.387772E-2	1.700153E-2	2.038467E-2	2.966841E-2	3.073984E-2	2.854103E-2	3.020388E-2	2.597591E-2	2.667754E-2	2.305461E-2	1.781918E-2	2.574421E-2	4.680256E-2	2.081112E-2	2.887807E-2	7.021938E-3	2.901402E-2	3.238078E-2	3.130020E-2	1.999803E-2	3.660847E-2	3.030639E-2	4.915823E-2	4.887508E-2	5.964963E-2	3.486054E-2	2.260188E-2	1.439431E-2	2.790082E-2	1.817859E-2	3.171697E-2	2.114214E-2	2.924886E-2	2.487159E-2	2.863583E-2	2.535860E-2	2.876081E-2	2.337141E-2	2.105325E-2	1.757945E-2	2.611835E-2	4.372017E-2	1.699860E-2	2.945805E-2	2.001866E-2	1.032853E-2	3.583146E-2	1.762093E-2	3.777206E-2	2.389828E-2	3.146950E-2	3.043326E-2	4.278508E-2	2.984256E-2	1.138517E-2	2.034634E-2	9.047921E-3	3.584493E-2	3.141641E-2	1.606083E-2	3.323969E-2	3.207329E-2	2.700865E-2	3.539323E-2	1.853019E-2	3.120144E-2	3.409018E-2	7.145531E-3	4.442801E-2	1.950734E-2	1.385530E-2	1.076818E-2	2.134024E-2	2.348236E-2	3.751585E-2	3.811849E-2	2.952899E-2	2.276668E-2	3.686284E-2	3.512219E-2	2.992962E-2	1.668626E-2	2.763427E-2	2.232417E-2	1.145171E-2	7.776826E-3	3.661551E-2	1.441497E-2	3.537025E-2	2.383484E-2	1.796365E-2	3.259651E-2	1.847471E-2	3.534276E-2	3.461239E-2	1.845626E-2	2.666887E-2	2.137730E-2	3.209594E-2	4.059198E-2	1.586315E-2
5.305030E+2	6.459166E-3	2.966910E-3	3.642414E-3	1.745460E-2	-2.414332E-3	-2.413120E-3	1.643165E-2	2.169134E-2	4.163958E-3	1.020804E-2	2.024693E-2	1.540891E-2	1.286997E-2	9.152017E-3	9.432845E-3	-1.189065E-3	7.004975E-3	1.246429E-2	1.306837E-2	1.225943E-3	1.374140E-2	9.225958E-3	6.577229E-3	2.562142E-2	1.451632E-2	1.380891E-2	1.280625E-2	2.044784E-2	5.670765E-3	1.550057E-2	8.833343E-3	-3.265253E-3	4.338002E-3	1.410101E-2	1.065401E-2	1.388684E-2	3.752827E-2	7.861082E-3	1.814212E-2	3.083032E-2	8.633157E-3	2.570689E-2	1.729795E-2	1.293409E-2	2.612109E-2	1.283006E-2	8.659073E-3	1.303761E-2	4.873265E-3	6.093889E-3	2.328030E-2	2.041271E-2	2.209087E-3	2.709873E-2	1.091095E-3	1.826155E-2	1.589054E-2	1.067221E-2	1.476874E-3	1.274078E-2	2.701493E-2	1.820323E-2	2.107368E-2	2.385155E-2	1.985036E-2	1.830594E-2	1.192329E-2	6.528892E-3	1.425817E-2	9.937240E-3	2.800853E-3	1.810602E-2	6.920851E-3	-5.172262E-3	3.007781E-2	1.850026E-2	2.468782E-3	9.145525E-3	5.943890E-3	1.093392E-2	2.646925E-2	7.739702E-3	2.614064E-2	1.643073E-2	4.837915E-3	1.801791E-2	2.943331E-2	1.259166E-2	2.126672E-2	1.102957E-2	-9.925253E-3	1.107541E-2	1.762867E-2	1.379795E-2	2.743106E-2	-2.066870E-3	1.686781E-2	1.277838E-2	9.720088E-3	6.713531E-3	1.487027E-2	2.279739E-3	-1.763016E-3	9.231503E-3	3.009447E-2	1.698846E-2	1.101529E-2	-7.912758E-3	1.480557E-2	2.398905E-2	1.774985E-3	1.887695E-2	1.804406E-2	2.433694E-2	1.302906E-2	5.312601E-3	1.272049E-2	2.795734E-2	1.228328E-2	-8.524804E-3	5.832448E-3	2.348864E-2	4.287678E-3	2.329846E-2	2.777761E-2	1.380842E-2	3.186316E-3	1.405515E-2	-8.681148E-3	2.494364E-2	2.957431E-2	7.810573E-3	1.587038E-2	1.886335E-2	1.532846E-2	1.285506E-2	2.738008E-2	4.712033E-3	2.256645E-2	1.835911E-2	1.554880E-2	1.198150E-2	2.398616E-3	8.241197E-3	9.636318E-4	1.811499E-2	7.438101E-3	7.100032E-3	2.423730E-2	9.145155E-3	8.167925E-3	8.084700E-3	1.631534E-2	-5.624465E-5	3.911826E-2	1.552525E-2	1.778922E-2	3.355832E-3	2.544311E-2	1.988340E-2	1.416965E-2	2.231760E-2	7.314065E-3	-3.077131E-2	1.226612E-2	-7.315296E-3
5.310050E+2	-1.585994E-2	4.288635E-3	-1.119052E-3	9.221113E-3	-4.936851E-3	-3.383504E-3	1.390355E-2	-8.226805E-3	-7.512027E-3	-8.548095E-3	-4.570607E-3	5.751778E-3	-4.468571E-4	3.498637E-3	-1.429448E-2	1.238977E-3	-1.323832E-2	6.499250E-3	3.570686E-3	5.875944E-3	2.013471E-2	-1.372687E-2	4.507492E-3	8.476731E-5	1.017576E-2	-1.146943E-2	-3.826650E-3	1.743639E-2	5.490034E-3	2.220817E-2	1.444736E-3	-1.674818E-4	-1.539131E-2	-1.203114E-2	3.697465E-3	1.865458E-3	-7.629598E-3	7.016809E-3	6.973138E-3	-8.538386E-3	-3.350148E-3	-7.193347E-3	-5.173965E-3	-6.866504E-3	4.309376E-3	9.282856E-3	7.416785E-4	1.981339E-3	1.206653E-2	-9.073599E-3	-8.227137E-3	-1.039977E-2	8.031952E-3	2.206145E-3	-4.335146E-3	-3.469322E-3	2.667619E-3	-3.992616E-3	4.828331E-3	4.826709E-3	-2.747390E-3	7.942222E-3	5.252865E-3	-1.024738E-2	-1.275965E-2	7.930720E-3	5.964042E-3	1.002134E-2	-1.865332E-2	-5.575629E-3	9.921376E-3	-3.217223E-4	-6.033175E-5	1.268240E-2	-9.813598E-3	-4.837727E-3	-2.028318E-3	-8.960500E-3	3.573337E-4	-2.245350E-2	-4.662726E-3	-3.547504E-3	5.846468E-5	-1.251817E-2	1.014466E-2	1.020026E-2	-1.838997E-2	1.314283E-3	5.165445E-3	-2.506849E-4	1.682387E-3	6.006796E-3	1.612157E-2	3.831785E-3	-7.216815E-3	8.500363E-3	9.983659E-3	-9.081672E-3	4.452867E-3	-1.197207E-2	-2.189759E-7	-4.750876E-3	-4.570745E-3	9.094229E-3	-8.384768E-3	-8.924718E-3	1.792880E-2	-1.550713E-3	1.405363E-2	2.624944E-3	7.865653E-3	-5.494193E-3	4.687935E-4	-1.376515E-2	4.292807E-3	4.439462E-3	-6.215286E-3	-1.025372E-2	-2.275429E-3	1.030812E-2	-2.098579E-3	3.931925E-3	8.858764E-3	-1.544165E-2	7.722031E-3	-1.192261E-2	1.178540E-2	-1.433433E-4	-2.545392E-3	9.798714E-4	1.063829E-2	-1.222627E-3	-8.601988E-3	-1.989299E-3	-6.468654E-3	-4.266244E-4	-7.518935E-3	-1.139841E-2	-6.299952E-3	-1.759659E-2	-1.252438E-2	-1.078720E-2	1.495906E-2	-1.831386E-2	6.625520E-3	-8.060977E-3	1.042167E-2	-2.054222E-3	-1.610254E-2	1.614499E-3	1.804727E-2	-1.703849E-2	3.029452E-3	-9.467193E-4	5.649407E-4	5.220637E-3	-9.564742E-3	-3.860144E-3	-6.714613E-3	-4.604545E-3	-2.827084E-4	-2.449742E-3	6.167013E-4	-8.569225E-3	4.164710E-3	2.175866E-2
5.315030E+2	-1.187388E-2	-1.242156E-2	-1.438713E-2	-2.318959E-2	-3.043645E-3	-1.205622E-2	-1.478136E-2	-1.473555E-2	-2.870000E-2	-7.532756E-3	-2.085637E-2	-2.430485E-2	-1.736128E-2	-5.241319E-3	-1.809850E-2	-2.135567E-2	-1.689943E-2	-5.288322E-3	-2.396365E-2	-8.302498E-3	-1.183273E-2	1.266595E-2	-8.986555E-3	-2.059528E-2	-9.397244E-3	-1.488862E-2	-7.260181E-3	-1.926160E-2	-4.173271E-3	-2.751946E-2	-1.974199E-2	-1.096232E-3	-2.178321E-2	-1.902483E-2	-2.976811E-2	-2.058472E-2	1.270950E-2	-1.106461E-2	-1.979704E-2	-2.083399E-2	-1.061801E-2	-1.100889E-2	-2.443654E-2	-5.195916E-3	-1.232574E-2	-7.775888E-3	-2.694838E-2	-1.234274E-2	-5.639158E-3	-1.718833E-2	-2.296182E-3	-2.005037E-2	-2.904188E-2	-1.106445E-2	-2.681168E-3	-2.062908E-2	-1.345266E-2	-1.349459E-2	-1.998568E-2	-1.334722E-2	-1.680715E-2	-2.637209E-2	-2.224883E-2	3.624007E-3	-3.224219E-3	-1.835624E-2	-6.311181E-3	4.306201E-3	-7.381655E-3	-7.978714E-3	-1.568009E-3	-2.014330E-2	-2.005402E-2	-2.187074E-2	-1.483764E-2	-2.684275E-2	-2.090963E-2	-8.573824E-3	-1.119045E-2	-2.346096E-2	1.227262E-3	-1.143547E-2	-3.492494E-2	-3.606990E-3	-2.689365E-2	-7.409799E-3	-1.657525E-2	-2.419889E-2	-2.118162E-2	-2.329658E-2	-1.959105E-2	-2.178065E-2	-1.961741E-2	-2.593164E-2	-1.694079E-2	-1.170889E-2	-3.086059E-2	-1.767626E-2	-2.898444E-2	-2.619173E-2	-2.539322E-2	-1.550041E-2	-1.298109E-2	-2.190871E-2	-2.418323E-2	-7.446065E-3	-1.466127E-2	-1.643340E-2	-2.763364E-2	-1.126770E-2	-2.163923E-2	-1.380841E-2	-9.578360E-3	-8.246403E-3	-2.025314E-2	-9.154673E-3	-8.485733E-3	-8.530368E-3	-6.016607E-3	-9.553654E-3	-2.445504E-2	-9.226563E-3	-2.133039E-2	-1.933449E-2	-5.096892E-3	-1.715150E-2	8.091910E-3	-4.616062E-3	-6.871957E-3	-2.041915E-2	-7.408034E-3	-1.194076E-2	-1.136237E-3	-1.688656E-2	-1.130849E-2	-9.687108E-3	6.271073E-3	-2.466450E-2	-1.877611E-2	-1.787163E-2	-2.367848E-2	-5.157303E-4	-2.270756E-3	-1.227087E-2	-1.021190E-2	-2.098293E-2	-8.858126E-3	5.954689E-3	9.297701E-3	-1.460823E-2	-1.716138E-2	-4.792844E-3	-1.891549E-2	-8.246518E-3	-1.266236E-2	-1.600466E-2	-1.607600E-2	-9.863686E-3	-1.760134E-2	-1.523638E-2	-1.473473E-2	-1.895357E-2	-8.059079E-3	-2.301084E-2	-3.695278E-2	-1.546363E-2
5.320070E+2	-8.679530E-4	9.344483E-3	-6.781246E-3	-5.726560E-3	-2.409005E-2	-2.731726E-2	8.365766E-3	-1.486300E-2	-7.151723E-3	-4.250150E-3	-1.683436E-2	2.187956E-3	-4.923366E-3	-1.190069E-2	-1.881343E-2	-2.221202E-3	-8.175973E-3	-9.757455E-3	4.183386E-3	-1.331777E-3	-1.848192E-2	-1.713455E-2	-2.411584E-2	-1.900733E-3	-1.770237E-2	2.842339E-3	-1.548144E-2	-1.039863E-3	4.141180E-3	-3.070930E-2	-2.367927E-2	-2.346213E-2	-2.520396E-2	4.396822E-3	-1.279763E-2	-1.125155E-2	-6.540256E-3	-1.438858E-2	-2.369016E-2	-1.509294E-3	3.334874E-3	1.847649E-4	-1.023627E-2	-1.768553E-2	-1.423722E-2	-2.396881E-2	-2.629471E-2	-1.226804E-2	-1.842548E-2	1.233229E-3	-1.274353E-2	2.785791E-3	-1.500788E-2	-2.344779E-2	-6.494197E-4	-1.185174E-2	-2.857094E-2	1.101409E-3	-3.018660E-2	-3.787797E-4	-1.992592E-2	-3.140598E-2	-1.238430E-2	-1.840122E-2	-1.888174E-2	-1.561682E-2	-1.336229E-2	-3.316286E-2	-1.329802E-2	-1.495452E-2	-4.823131E-3	-2.606710E-3	-2.471903E-2	3.813387E-3	-1.616974E-2	5.354356E-3	-3.134996E-3	-1.424434E-2	-8.430472E-3	1.470549E-3	-1.076722E-2	-7.273032E-3	-8.149254E-3	-1.843150E-2	-7.051999E-3	-2.802684E-2	-8.150899E-3	-1.737836E-2	-2.049777E-2	-1.778428E-2	3.665953E-3	-8.351861E-3	-2.465357E-2	-1.986881E-2	-1.630716E-2	-2.512651E-4	-5.014365E-3	-1.312682E-2	-1.977882E-3	-4.573030E-3	-1.955033E-2	-9.411008E-3	-8.557485E-3	-1.562339E-2	-8.550726E-3	-1.838555E-2	-2.020321E-2	1.054000E-2	-1.644795E-2	-1.647823E-2	-9.599302E-3	3.903633E-3	-1.804248E-2	-1.538952E-2	-6.645621E-3	-6.946464E-3	-8.482592E-3	-1.841328E-2	-1.023291E-2	-1.299519E-3	1.910059E-3	-1.949940E-2	-4.161690E-5	-1.364865E-2	-2.447994E-2	-1.579938E-2	-3.652822E-2	-1.598925E-2	-1.995530E-3	-2.236563E-2	-1.682331E-2	-9.774702E-3	-1.374077E-2	-2.283985E-2	-5.951568E-3	-1.108438E-2	-5.613629E-3	-5.183306E-3	-6.348684E-3	-1.495416E-2	-3.758262E-3	-1.014188E-3	4.847421E-3	-2.433167E-3	-1.602698E-2	-1.106862E-2	8.452221E-3	-2.424245E-2	-4.635672E-3	-1.193972E-2	-7.824801E-3	-1.101356E-2	-1.925981E-3	-2.369199E-2	-1.639113E-2	-8.722589E-3	-2.385822E-2	-9.133341E-3	-1.091052E-2	-1.946219E-2	-2.298457E-2	-3.251708E-3	-5.144213E-3	-1.300526E-3	-2.234418E-2	-1.472313E-2
5.325120E+2	1.937737E-2	1.044238E-2	-2.496663E-3	8.350120E-3	2.423493E-2	-4.226705E-4	1.864905E-2	2.217586E-2	1.830026E-2	3.050238E-3	-2.475247E-3	9.173449E-3	1.681562E-2	1.826577E-2	2.106779E-2	7.864145E-3	3.507725E-3	1.425215E-2	1.080995E-3	1.351719E-2	8.314501E-3	9.148149E-3	7.861711E-3	1.624232E-2	-6.972403E-3	5.537849E-3	1.019723E-2	4.892559E-3	1.436657E-2	1.043125E-3	-1.716060E-3	-2.729393E-3	1.629940E-2	1.062166E-2	4.582530E-4	8.891148E-3	-3.054625E-3	4.789097E-4	4.539959E-3	-1.220996E-3	8.456243E-4	2.585870E-3	1.513113E-2	6.282025E-3	1.947235E-2	1.271706E-2	3.671492E-3	1.551716E-2	-1.252175E-3	6.624772E-3	1.277720E-2	1.165986E-2	1.008210E-2	1.789738E-2	6.115000E-3	8.004713E-3	1.120276E-2	1.996590E-3	1.712566E-2	1.368749E-2	6.136780E-3	2.547534E-2	6.716456E-3	3.312223E-3	4.201948E-3	-8.347100E-4	8.929485E-3	-7.453918E-3	2.501695E-2	1.932004E-2	5.458546E-3	7.091558E-3	1.448853E-3	1.339170E-3	3.678766E-3	9.815651E-3	7.811767E-3	7.051079E-3	1.554834E-2	2.509967E-2	-1.736518E-3	1.873571E-2	1.678782E-2	5.132325E-3	1.912530E-2	1.084630E-3	6.271101E-3	-1.613830E-3	9.145148E-4	1.850856E-2	1.260349E-2	1.106084E-2	2.192246E-2	3.027063E-2	1.679494E-2	8.651211E-3	6.959592E-4	2.284303E-4	1.708205E-2	2.360861E-2	6.634567E-3	1.573921E-2	9.167697E-3	1.344043E-2	9.577838E-4	1.404000E-2	1.217133E-3	2.120023E-3	7.640788E-3	8.021732E-3	1.678527E-2	-6.267651E-4	1.253249E-2	1.419968E-3	-1.677975E-3	1.564335E-3	5.366413E-3	-4.902622E-3	6.872527E-3	1.928194E-2	1.782351E-2	1.312362E-2	1.274729E-2	1.844531E-3	9.894270E-3	1.765793E-2	-4.568588E-4	-3.561467E-3	1.824548E-2	1.595368E-2	4.454890E-3	1.741427E-2	1.528454E-2	8.531033E-3	1.095157E-2	1.699260E-2	3.656408E-3	1.185817E-2	9.846770E-3	6.661490E-3	1.700021E-2	7.368145E-3	1.569225E-3	-2.164665E-3	-4.039992E-4	-4.138894E-3	-3.260443E-3	1.796947E-3	-2.807307E-3	2.089884E-2	1.395190E-2	1.104625E-3	2.392924E-2	1.218495E-2	-1.928900E-3	9.731075E-3	2.131249E-2	2.368242E-2	8.232198E-3	3.228816E-3	3.334599E-2	-7.522729E-4	1.344681E-2	3.628655E-2	1.236105E-2	-2.019248E-3
5.330080E+2	4.394673E-2	3.788641E-2	6.004317E-2	5.895936E-2	5.767765E-2	4.947850E-2	4.656758E-2	5.452355E-2	4.524740E-2	4.325002E-2	4.865797E-2	4.259751E-2	5.116959E-2	3.593687E-2	4.781865E-2	5.727724E-2	5.495878E-2	3.923510E-2	3.366956E-2	2.635463E-2	4.385024E-2	4.270648E-2	3.340292E-2	4.233670E-2	3.611367E-2	3.997477E-2	3.881804E-2	5.230747E-2	4.001212E-2	4.986859E-2	3.732102E-2	4.851053E-2	4.245865E-2	4.710490E-2	3.594454E-2	4.572285E-2	4.181742E-2	5.436275E-2	4.637878E-2	4.107018E-2	3.313994E-2	5.600151E-2	5.344044E-2	5.077591E-2	3.377282E-2	3.868968E-2	1.185316E-2	5.674518E-2	5.100751E-2	3.715778E-2	4.669404E-2	5.219262E-2	4.532499E-2	3.923026E-2	3.153122E-2	4.697242E-2	4.678346E-2	3.601779E-2	3.841268E-2	3.636325E-2	1.846846E-2	5.516820E-2	4.620088E-2	4.353597E-2	6.400234E-2	5.274418E-2	3.621859E-2	2.084618E-2	5.901939E-2	3.842146E-2	3.045553E-2	3.979384E-2	3.278362E-2	4.755194E-2	5.060335E-2	4.164127E-2	5.865866E-2	4.488183E-2	4.500586E-2	5.113260E-2	3.912156E-2	5.321861E-2	4.492841E-2	3.368221E-2	4.826913E-2	4.374228E-2	5.242276E-2	4.993250E-2	3.102228E-2	5.635895E-2	4.853345E-2	5.604707E-2	3.208763E-2	3.542953E-2	4.546585E-2	4.403283E-2	4.997881E-2	5.984058E-2	3.958781E-2	3.151695E-2	2.905827E-2	2.625537E-2	2.517474E-2	3.315572E-2	4.834650E-2	5.743820E-2	3.649761E-2	5.150592E-2	5.290571E-2	5.825029E-2	4.541778E-2	3.494006E-2	3.610552E-2	2.116626E-2	5.323088E-2	3.375087E-2	4.222170E-2	2.949887E-2	6.297592E-2	4.965170E-2	4.882317E-2	4.044551E-2	2.695028E-2	5.530720E-2	6.042372E-2	5.596713E-2	5.920299E-2	4.771510E-2	5.731285E-2	3.518364E-2	3.210972E-2	4.679717E-2	5.912592E-2	6.790758E-2	5.928260E-2	2.076965E-2	4.402139E-2	2.450564E-2	4.125122E-2	6.065352E-2	4.001713E-2	6.035089E-2	5.384386E-2	1.906431E-2	4.066249E-2	5.102823E-2	3.749527E-2	4.496317E-2	6.064386E-2	4.791206E-2	1.638096E-2	4.627060E-2	3.892494E-2	5.356605E-2	2.507947E-2	5.557808E-2	4.687919E-2	3.052419E-2	5.204401E-2	3.942824E-2	6.251211E-2	5.875418E-2	5.622355E-2	4.654911E-2	3.732821E-2	4.495071E-2
5.332150E+2	4.047378E-2	4.593087E-2	2.378073E-2	4.960026E-2	2.473966E-2	4.292954E-2	4.912196E-2	3.260286E-2	7.331179E-3	4.276710E-2	4.578409E-2	1.699200E-2	3.196568E-2	3.796536E-2	2.212061E-2	2.244159E-2	1.888356E-2	2.398162E-2	3.481209E-2	4.135287E-2	2.018873E-2	2.954042E-2	4.167051E-2	2.572978E-2	2.596467E-2	3.194976E-2	3.435985E-2	4.628428E-2	2.632587E-2	2.551880E-2	3.785709E-2	1.995259E-2	1.427186E-2	7.254482E-3	3.009370E-2	5.978276E-2	4.590724E-2	5.126191E-2	3.299347E-2	2.130635E-2	4.171192E-2	2.547273E-2	4.592202E-2	2.955149E-2	5.085101E-3	3.493876E-2	2.616831E-2	3.693095E-2	5.398278E-2	3.485260E-2	2.317520E-2	4.156230E-2	2.880905E-2	4.866181E-2	4.349458E-2	4.939652E-2	2.329158E-2	4.090442E-2	4.506764E-2	3.015734E-2	3.706448E-2	2.694011E-2	2.976052E-2	6.140779E-2	1.968723E-2	2.167630E-2	2.816045E-2	1.344387E-2	4.980156E-2	1.864596E-2	1.156632E-2	5.317690E-2	4.593680E-2	5.118078E-2	8.557267E-3	3.370432E-2	3.120898E-2	3.760422E-2	3.521024E-2	4.371310E-2	3.368170E-2	5.565541E-2	3.476435E-2	4.411772E-2	4.379335E-2	4.424799E-2	2.975131E-2	3.033153E-2	3.499612E-2	3.931663E-2	2.790416E-2	3.373999E-2	3.737328E-2	1.075927E-2	3.709950E-2	1.935066E-2	3.670037E-2	4.362891E-2	1.417172E-2	4.986765E-2	4.235716E-2	4.618970E-2	4.111545E-2	2.712141E-2	2.153193E-2	3.552752E-2	3.370667E-2	4.615598E-2	3.202412E-2	4.011068E-2	2.708666E-2	2.167802E-2	4.134252E-2	3.443423E-2	3.681751E-2	4.523599E-2	3.369740E-2	3.636900E-2	4.020847E-2	3.086364E-2	4.701756E-2	2.773335E-3	3.023666E-2	3.546531E-2	2.188210E-2	3.531947E-2	2.829098E-2	6.005026E-2	4.996913E-2	2.004592E-2	3.172647E-2	2.774322E-2	4.256315E-2	4.890151E-2	6.217415E-2	3.709628E-2	4.430017E-2	3.774884E-2	2.703021E-2	2.711915E-2	2.382686E-2	2.827687E-2	3.586726E-2	3.967810E-2	3.514945E-2	3.940060E-2	2.131688E-2	5.659985E-2	4.181193E-2	3.553391E-2	2.391282E-2	3.819042E-2	1.449083E-2	2.493194E-2	6.089716E-3	4.860538E-2	3.103422E-2	3.914859E-2	3.356252E-2	3.346091E-2	5.386062E-2	2.981540E-2	2.171211E-2	1.614433E-2	2.099940E-2	5.833629E-2
5.334160E+2	2.140593E-2	2.192686E-2	4.085364E-2	2.074993E-2	7.555795E-3	1.201877E-2	2.236101E-2	2.048334E-2	8.414417E-4	1.288928E-2	2.407162E-2	7.673677E-3	2.610397E-2	2.515596E-2	2.777734E-2	4.098879E-3	2.889537E-3	1.275228E-2	7.934410E-4	1.572136E-2	7.806939E-3	-7.837166E-4	4.010931E-2	2.127803E-2	6.107579E-3	1.856563E-2	1.247144E-2	1.563316E-2	1.285140E-2	3.140973E-3	-1.703279E-3	2.288159E-3	1.328396E-2	3.116244E-2	1.732833E-2	3.636231E-2	2.320721E-2	1.050820E-2	1.144533E-2	2.846406E-2	1.413455E-2	2.233804E-2	1.612073E-2	2.406022E-2	3.082605E-2	1.981044E-2	6.896919E-4	-4.830392E-3	1.936042E-2	9.048721E-3	2.447361E-2	2.243319E-2	2.799719E-2	1.911683E-2	8.756987E-3	3.105974E-2	2.009599E-2	6.845176E-3	-4.860581E-3	1.967896E-2	1.228081E-2	1.168689E-2	2.204024E-2	1.822322E-2	6.957802E-3	1.917161E-2	-4.086079E-3	2.058722E-2	3.338385E-2	5.603012E-3	4.480000E-3	1.502685E-2	8.223456E-3	4.844427E-3	2.537895E-2	-7.576919E-3	2.459129E-2	1.184408E-2	1.779184E-2	2.441530E-2	-4.001688E-3	3.398800E-2	7.510111E-3	2.247077E-2	1.682501E-2	1.728834E-2	2.611157E-2	2.484366E-2	1.277258E-2	2.458927E-2	3.021127E-2	1.164205E-2	1.252287E-2	1.470267E-2	2.599581E-2	2.208944E-2	8.259498E-4	8.576604E-3	-6.296792E-3	1.313027E-2	5.107219E-3	3.066491E-2	2.268785E-2	8.042748E-3	2.057291E-2	3.636110E-2	1.310142E-2	2.629058E-2	3.000377E-2	1.439786E-2	1.276127E-2	1.384234E-2	1.286018E-2	-1.924643E-3	-8.626175E-4	8.851595E-3	2.057114E-2	4.313094E-2	2.152489E-2	1.369507E-2	3.470486E-2	2.487284E-2	3.341111E-2	2.688329E-2	2.180118E-2	4.420860E-2	1.383896E-3	1.198717E-2	6.029077E-3	-9.083162E-3	2.415454E-2	9.713127E-3	7.047203E-3	1.704781E-2	1.235469E-2	8.233693E-3	2.082846E-2	1.028321E-2	1.964589E-2	2.042653E-2	1.048063E-2	1.747378E-2	1.242802E-2	1.310107E-2	-6.270903E-3	-8.002869E-4	2.287395E-2	1.951832E-2	1.487820E-2	3.625374E-2	1.410851E-2	1.151977E-2	8.343868E-3	1.464001E-2	2.132632E-2	-2.293423E-3	2.304385E-2	9.450328E-3	9.613242E-3	3.412071E-2	2.703503E-2	2.745632E-2	1.309484E-2	3.395421E-2	7.525929E-3	2.428719E-2
5.336130E+2	2.630827E-2	1.055102E-2	1.275842E-2	1.481993E-2	4.130934E-3	2.315810E-2	9.568788E-3	7.075825E-3	-5.269556E-3	-3.013663E-3	-1.402752E-3	1.906245E-3	5.450387E-3	-5.979786E-4	-9.813882E-3	1.660030E-2	6.723256E-3	1.119982E-2	1.342697E-2	1.118946E-2	-1.126753E-2	1.769507E-2	-2.413527E-3	8.416471E-3	4.445861E-3	-4.058813E-3	-1.790775E-2	2.390419E-2	-8.498508E-3	9.305587E-3	-1.375227E-2	1.207326E-2	6.835145E-3	2.342338E-2	1.322888E-2	2.399143E-2	-7.152971E-3	1.093291E-2	-3.156029E-3	-1.542552E-3	-1.651822E-3	5.778996E-3	2.044453E-2	3.100803E-3	1.386402E-2	-1.186968E-2	-5.295443E-3	8.489175E-4	1.020970E-2	1.079428E-2	2.929681E-3	1.415573E-2	1.004238E-2	2.019529E-2	1.556727E-3	-1.462468E-3	-4.164125E-3	2.603677E-2	-5.764835E-3	-1.170517E-2	-1.479007E-2	-3.245911E-3	1.011795E-2	5.681053E-3	1.248743E-2	-5.922185E-3	-6.223940E-3	1.016051E-2	1.752972E-2	-5.229983E-3	3.019634E-3	1.404494E-2	-1.275930E-2	9.401566E-3	2.245494E-2	-1.350152E-2	-8.887949E-4	8.374997E-3	7.975584E-3	-1.059260E-2	-1.141541E-2	3.441193E-2	2.165069E-2	1.710960E-2	1.519732E-2	-4.567520E-3	-1.344504E-2	-5.174162E-3	-6.183261E-5	-1.930652E-2	1.281045E-2	1.933623E-2	-3.335201E-2	-1.984535E-2	2.278605E-3	1.162687E-2	3.399867E-3	-9.718227E-3	1.095443E-2	1.679193E-2	7.521651E-3	4.348450E-3	6.658522E-4	-4.652945E-3	2.176519E-2	-4.596687E-3	6.154563E-3	8.644794E-3	1.365325E-2	-4.458344E-3	1.994606E-2	-7.116428E-3	5.472336E-3	7.599230E-4	-3.885315E-3	4.046520E-3	1.084554E-3	1.661246E-4	6.714462E-3	7.934280E-3	1.413621E-2	-4.067435E-3	1.232910E-2	1.136458E-2	1.887556E-2	-5.052979E-3	-1.692359E-2	9.767765E-3	1.214100E-2	9.509157E-4	1.707167E-2	-7.842300E-3	1.110463E-2	4.073522E-3	1.104296E-2	1.722300E-2	-8.076362E-3	5.476811E-3	1.870877E-2	-2.056436E-2	-1.753237E-2	9.603407E-3	6.721586E-3	1.989147E-2	1.278794E-2	1.118307E-2	9.900244E-3	1.061190E-2	1.258564E-3	1.108660E-2	3.575416E-3	2.153070E-2	6.546178E-3	6.296153E-3	1.188037E-2	-1.030353E-2	3.209874E-2	3.472326E-3	1.245358E-3	2.042861E-2	8.145806E-3	9.255094E-3	-2.018056E-2	1.021374E-2	-1.283205E-2	5.219187E-2
5.338050E+2	5.023048E-3	1.570208E-2	3.324701E-2	4.460750E-2	7.630268E-3	4.806799E-2	2.244462E-2	1.920371E-2	3.604207E-2	4.120271E-2	1.229198E-2	5.121626E-3	3.120854E-2	3.976485E-2	3.614337E-2	5.007144E-2	1.669822E-2	2.277978E-2	2.678150E-2	3.940694E-2	4.302094E-2	2.463049E-2	2.853789E-2	3.359395E-2	2.593184E-2	3.160298E-2	3.537648E-2	2.652720E-2	3.551574E-2	2.319108E-2	1.411461E-2	3.740611E-2	6.595864E-3	3.339357E-2	3.746296E-2	2.942928E-2	2.145173E-2	3.823431E-2	3.781253E-2	3.828883E-2	2.421667E-2	1.329438E-2	2.287428E-2	3.701978E-2	2.772870E-2	3.919959E-2	1.441152E-2	2.299449E-2	4.013304E-2	5.928291E-3	2.730406E-2	5.986776E-2	3.844610E-2	2.332649E-2	2.555550E-2	5.681519E-2	3.851460E-2	2.047970E-2	4.745993E-2	1.206098E-2	2.723517E-2	3.698049E-2	2.292063E-2	2.679675E-2	3.667413E-2	2.844576E-2	2.554695E-2	3.161228E-2	1.869630E-2	3.967126E-2	3.268715E-2	1.792785E-2	2.453443E-2	3.175743E-2	2.362432E-2	3.320943E-2	3.129161E-2	2.694641E-2	3.600987E-2	2.830197E-2	2.582758E-2	3.565008E-2	2.960998E-2	4.003301E-2	2.611772E-2	2.309260E-2	2.355341E-2	4.871112E-2	1.146929E-2	3.187438E-2	2.770935E-2	3.790566E-2	9.189099E-3	2.117515E-2	3.306682E-2	4.352943E-2	3.500832E-2	4.375215E-2	2.610919E-2	2.436869E-2	5.756831E-2	1.304909E-2	3.320297E-2	4.861496E-2	2.306181E-2	2.654316E-2	2.314478E-2	1.345087E-2	3.362645E-2	3.604235E-2	3.015153E-2	2.516754E-2	5.110343E-2	-1.691603E-3	2.047668E-2	2.959953E-3	2.011159E-2	3.269003E-2	4.960457E-2	2.851742E-2	4.286632E-2	4.694984E-2	3.932248E-2	3.896178E-2	3.775351E-2	3.593916E-2	9.470337E-3	3.920548E-2	4.142262E-2	2.669142E-2	4.837900E-2	4.285573E-2	2.583875E-2	4.635753E-2	1.610501E-2	2.548006E-2	3.009689E-2	4.353792E-2	3.412854E-2	2.708735E-2	3.381182E-2	4.620221E-2	9.109795E-3	3.398379E-2	2.661450E-2	3.386284E-2	3.747066E-2	2.646629E-2	4.129080E-2	3.661844E-2	2.585501E-2	3.986406E-2	4.479816E-2	2.591184E-2	3.303558E-2	1.985663E-2	1.691905E-2	1.176365E-2	3.841771E-2	2.806522E-2	2.739979E-2	3.443919E-2	2.574288E-2	1.986728E-2	3.221022E-2	2.473762E-2
5.340070E+2	9.054897E-2	9.642466E-2	8.733506E-2	7.294855E-2	8.045317E-2	7.866005E-2	9.983211E-2	6.958786E-2	6.969807E-2	6.229666E-2	7.966098E-2	9.032765E-2	9.415759E-2	7.819492E-2	8.967831E-2	7.611071E-2	9.625796E-2	7.347870E-2	6.825346E-2	9.668806E-2	7.829760E-2	1.106067E-1	7.060818E-2	8.571788E-2	6.180062E-2	8.325496E-2	5.950073E-2	8.599846E-2	9.109383E-2	8.500104E-2	6.625671E-2	7.116741E-2	7.491900E-2	8.118169E-2	6.857149E-2	1.011615E-1	1.132060E-1	9.163180E-2	8.526331E-2	1.099556E-1	9.525898E-2	6.020882E-2	8.198967E-2	5.785592E-2	8.230168E-2	7.431884E-2	5.642302E-2	7.128074E-2	6.908611E-2	6.476141E-2	7.221761E-2	8.196647E-2	6.927676E-2	9.882449E-2	8.391730E-2	8.056302E-2	7.878435E-2	8.393453E-2	7.169891E-2	8.466291E-2	8.917403E-2	6.549354E-2	5.487119E-2	8.470416E-2	7.349498E-2	8.391444E-2	5.776021E-2	7.848521E-2	9.840514E-2	1.000302E-1	7.582419E-2	9.053914E-2	5.599506E-2	8.969234E-2	7.306642E-2	8.333164E-2	1.017913E-1	9.461191E-2	7.410007E-2	9.209277E-2	8.367948E-2	8.055847E-2	8.076177E-2	8.309202E-2	9.375042E-2	8.175302E-2	9.371358E-2	5.817426E-2	6.783013E-2	8.652368E-2	8.369452E-2	1.078202E-1	8.145198E-2	8.747606E-2	6.870393E-2	7.342700E-2	9.383405E-2	9.020406E-2	7.648397E-2	8.265453E-2	6.710691E-2	7.742473E-2	9.864588E-2	7.785942E-2	5.989387E-2	8.184343E-2	1.002962E-1	8.977239E-2	1.054372E-1	6.230648E-2	8.865620E-2	4.950041E-2	8.726211E-2	8.362978E-2	9.619719E-2	8.127577E-2	7.892730E-2	7.712400E-2	1.092072E-1	8.222656E-2	6.915403E-2	7.676790E-2	8.287154E-2	9.719972E-2	8.785532E-2	9.494470E-2	6.706961E-2	9.677543E-2	6.972109E-2	7.072540E-2	7.757857E-2	9.488223E-2	7.095366E-2	7.499323E-2	5.630491E-2	8.021130E-2	9.452057E-2	1.107466E-1	7.401792E-2	8.660100E-2	8.368218E-2	8.729114E-2	8.751448E-2	1.009413E-1	8.244772E-2	1.043810E-1	8.662053E-2	1.099626E-1	8.631979E-2	8.642392E-2	8.622142E-2	6.351610E-2	8.268249E-2	8.785235E-2	4.231717E-2	6.829772E-2	9.139176E-2	7.675637E-2	7.748138E-2	8.770142E-2	7.427847E-2	8.922160E-2	7.090839E-2	9.673976E-2	8.261317E-2	1.062473E-1
5.342040E+2	1.062244E-1	1.177706E-1	8.722299E-2	8.020226E-2	9.689287E-2	1.070464E-1	9.264869E-2	8.354694E-2	9.021975E-2	8.529819E-2	6.750648E-2	9.809621E-2	1.087024E-1	9.643828E-2	9.913537E-2	8.170669E-2	7.925704E-2	9.335294E-2	1.067515E-1	1.055860E-1	1.003570E-1	9.047295E-2	9.586617E-2	9.985841E-2	1.080047E-1	1.058330E-1	1.103109E-1	8.173811E-2	1.029666E-1	9.405911E-2	9.965208E-2	8.530066E-2	8.107493E-2	7.440340E-2	1.120947E-1	1.103195E-1	9.133315E-2	8.964203E-2	9.787730E-2	8.673613E-2	7.820543E-2	8.807801E-2	8.857355E-2	1.069047E-1	1.068997E-1	8.265808E-2	8.760277E-2	8.703205E-2	1.146152E-1	6.888152E-2	9.384912E-2	1.028543E-1	9.312786E-2	8.348962E-2	8.013543E-2	8.999822E-2	5.994360E-2	1.090130E-1	7.729093E-2	6.022779E-2	6.662440E-2	1.050645E-1	8.116146E-2	9.817697E-2	1.214248E-1	1.075669E-1	7.818803E-2	9.486242E-2	9.691861E-2	8.432038E-2	7.610054E-2	9.952800E-2	1.002295E-1	8.971276E-2	9.615710E-2	1.020317E-1	9.162370E-2	9.464472E-2	7.992492E-2	9.166418E-2	8.245880E-2	8.763719E-2	1.081970E-1	8.165039E-2	8.354752E-2	8.758404E-2	8.183874E-2	8.810450E-2	8.642188E-2	1.042398E-1	1.044062E-1	1.055690E-1	7.497588E-2	8.955533E-2	8.366331E-2	1.171791E-1	1.006719E-1	1.084550E-1	1.065563E-1	1.141716E-1	9.708529E-2	9.264064E-2	1.054834E-1	7.977649E-2	9.198950E-2	8.327024E-2	1.009528E-1	6.569150E-2	9.181288E-2	9.453476E-2	9.834458E-2	9.061710E-2	1.002086E-1	8.356354E-2	7.630836E-2	9.648075E-2	8.862092E-2	1.020342E-1	1.021533E-1	8.916526E-2	9.476879E-2	8.519003E-2	1.095383E-1	9.343143E-2	1.399468E-1	8.217597E-2	7.776727E-2	1.010835E-1	1.121886E-1	6.519819E-2	1.066426E-1	9.788176E-2	1.140812E-1	1.028327E-1	9.203584E-2	1.022838E-1	8.534429E-2	8.411873E-2	1.269645E-1	1.137455E-1	1.012481E-1	7.881483E-2	9.515158E-2	1.073799E-1	1.085497E-1	9.757352E-2	8.049054E-2	1.098909E-1	9.830583E-2	1.198649E-1	8.620272E-2	8.069014E-2	8.755583E-2	8.644874E-2	9.894762E-2	8.995376E-2	1.183838E-1	8.594202E-2	1.117224E-1	8.908728E-2	9.430960E-2	7.231633E-2	6.987890E-2	8.120146E-2	8.471567E-2	9.678689E-2
5.344070E+2	7.755541E-2	8.916423E-2	1.169162E-1	1.278430E-1	1.206853E-1	1.172312E-1	8.798998E-2	1.329970E-1	1.324600E-1	1.073409E-1	1.054382E-1	1.252450E-1	1.388851E-1	1.163473E-1	1.039139E-1	1.366068E-1	1.355843E-1	1.161724E-1	9.288237E-2	9.949126E-2	1.074670E-1	1.202277E-1	1.258621E-1	1.251362E-1	1.267252E-1	1.100535E-1	1.138576E-1	1.266630E-1	1.170439E-1	1.053863E-1	1.101722E-1	1.213547E-1	1.178533E-1	1.172331E-1	1.138419E-1	1.211697E-1	1.185227E-1	1.068803E-1	1.180919E-1	8.547463E-2	1.199153E-1	1.435516E-1	1.093314E-1	1.203218E-1	1.185233E-1	1.148304E-1	9.649315E-2	8.533544E-2	1.130053E-1	1.224705E-1	1.028570E-1	1.316942E-1	1.183181E-1	1.221468E-1	1.276339E-1	1.235234E-1	1.187706E-1	1.155449E-1	1.338479E-1	1.122653E-1	9.525920E-2	1.335104E-1	1.184216E-1	1.440154E-1	1.197549E-1	1.186553E-1	1.098550E-1	1.319524E-1	1.508136E-1	1.183263E-1	1.227857E-1	1.265094E-1	1.376155E-1	1.261459E-1	1.085453E-1	1.155864E-1	1.456410E-1	1.206945E-1	1.225722E-1	1.002062E-1	1.324663E-1	1.152670E-1	1.286984E-1	1.174292E-1	1.314429E-1	1.253813E-1	1.080866E-1	1.228501E-1	1.139000E-1	9.958021E-2	1.034290E-1	8.893971E-2	1.046373E-1	1.075951E-1	1.287572E-1	1.198888E-1	1.215299E-1	1.051309E-1	1.132013E-1	1.284871E-1	1.057662E-1	1.173554E-1	1.190171E-1	1.422208E-1	1.089928E-1	1.049450E-1	1.149383E-1	1.087142E-1	1.440271E-1	1.117753E-1	1.295942E-1	8.581328E-2	1.139089E-1	1.283292E-1	1.185816E-1	1.238678E-1	1.079798E-1	1.152344E-1	1.376830E-1	1.301886E-1	9.674476E-2	7.910618E-2	1.409948E-1	1.128236E-1	1.260334E-1	1.073772E-1	1.178561E-1	1.137960E-1	1.289325E-1	1.165740E-1	1.077401E-1	1.366011E-1	1.310791E-1	1.277901E-1	1.395490E-1	1.298043E-1	1.214357E-1	1.137930E-1	1.149823E-1	1.110484E-1	1.319774E-1	1.241829E-1	1.204209E-1	1.055503E-1	8.791232E-2	1.088079E-1	1.171416E-1	1.280900E-1	1.220263E-1	1.477300E-1	9.276921E-2	1.335773E-1	1.435523E-1	9.643698E-2	1.187763E-1	1.090078E-1	1.231147E-1	1.259416E-1	1.176589E-1	1.284372E-1	1.377223E-1	1.181319E-1	1.179553E-1	1.348566E-1	4.882653E-2	1.689980E-1
5.346150E+2	1.844297E-1	1.779527E-1	1.998505E-1	1.640778E-1	2.016286E-1	1.730358E-1	1.851631E-1	1.990982E-1	2.029644E-1	1.738136E-1	1.909369E-1	2.096487E-1	1.898407E-1	1.811945E-1	1.756985E-1	1.879687E-1	1.927886E-1	1.921664E-1	1.853543E-1	1.702047E-1	1.638832E-1	1.887344E-1	2.001947E-1	1.685046E-1	1.931551E-1	2.234496E-1	1.728804E-1	1.762381E-1	1.654773E-1	2.017010E-1	1.896454E-1	1.827970E-1	2.006726E-1	2.029262E-1	1.799695E-1	1.588240E-1	1.741916E-1	1.963447E-1	1.700961E-1	1.602338E-1	1.875497E-1	2.064072E-1	1.817855E-1	1.813436E-1	1.786972E-1	1.859364E-1	1.704617E-1	1.911173E-1	1.761217E-1	1.768076E-1	1.720579E-1	1.906603E-1	1.845504E-1	2.113942E-1	1.939333E-1	1.969463E-1	1.952653E-1	2.118898E-1	1.828499E-1	2.042194E-1	1.906365E-1	1.866395E-1	1.800925E-1	2.019884E-1	2.059129E-1	2.041161E-1	1.757631E-1	2.004304E-1	1.889212E-1	2.002301E-1	1.891420E-1	1.812591E-1	1.823207E-1	1.722596E-1	1.832674E-1	1.905018E-1	1.820470E-1	1.847030E-1	2.154896E-1	1.938635E-1	2.165769E-1	1.888679E-1	1.827259E-1	2.022492E-1	1.998538E-1	1.815864E-1	1.742301E-1	2.158648E-1	1.772048E-1	1.921158E-1	2.047267E-1	2.152820E-1	1.768790E-1	1.779887E-1	1.770554E-1	2.035413E-1	1.757945E-1	2.035610E-1	1.917005E-1	1.999245E-1	1.761840E-1	1.825298E-1	2.026308E-1	1.609817E-1	1.971075E-1	1.872772E-1	1.997977E-1	1.779959E-1	2.071161E-1	2.015874E-1	1.890003E-1	2.109235E-1	1.825542E-1	1.755933E-1	2.241487E-1	1.924812E-1	1.991645E-1	1.923286E-1	1.741446E-1	2.195788E-1	1.922682E-1	2.047158E-1	2.108633E-1	1.930195E-1	1.696845E-1	2.102909E-1	1.615366E-1	1.699299E-1	1.962660E-1	1.946690E-1	1.960836E-1	2.180572E-1	2.030250E-1	1.884382E-1	1.734164E-1	2.027811E-1	1.696632E-1	2.071532E-1	2.227494E-1	1.780158E-1	1.856670E-1	1.913749E-1	1.763538E-1	1.833441E-1	2.202923E-1	2.048325E-1	1.669769E-1	1.893675E-1	1.796027E-1	2.086681E-1	1.656544E-1	1.928231E-1	1.951816E-1	1.897073E-1	1.848324E-1	1.867328E-1	1.973912E-1	1.919226E-1	1.717819E-1	1.852987E-1	1.918987E-1	1.626184E-1	1.560763E-1	2.306259E-1	1.443458E-1	2.224554E-1
5.348180E+2	3.944451E-1	3.735502E-1	4.093253E-1	3.818174E-1	3.869991E-1	4.101496E-1	4.438047E-1	3.986050E-1	3.935052E-1	3.986314E-1	3.950225E-1	3.954604E-1	4.054482E-1	3.769449E-1	3.976687E-1	3.992692E-1	3.962473E-1	3.935809E-1	4.020429E-1	3.903223E-1	3.854622E-1	4.440046E-1	4.362345E-1	3.924234E-1	3.873224E-1	4.260791E-1	4.168055E-1	4.091127E-1	4.298598E-1	4.228635E-1	4.228153E-1	3.990829E-1	3.958824E-1	4.333733E-1	3.368575E-1	4.346893E-1	3.919970E-1	4.021391E-1	3.725022E-1	4.128459E-1	4.358849E-1	4.011400E-1	3.872484E-1	3.681478E-1	3.890733E-1	4.357728E-1	4.051128E-1	4.017583E-1	4.506355E-1	3.863998E-1	3.909864E-1	4.011841E-1	3.935878E-1	3.784336E-1	4.097810E-1	4.279744E-1	3.552209E-1	3.800255E-1	3.754152E-1	4.067977E-1	3.902825E-1	4.000965E-1	3.775241E-1	3.821599E-1	3.921697E-1	4.052015E-1	4.210758E-1	4.074430E-1	4.403899E-1	3.608832E-1	4.124621E-1	3.864170E-1	4.226151E-1	4.011519E-1	3.801058E-1	3.788031E-1	4.390834E-1	4.204226E-1	4.085013E-1	4.134934E-1	4.045671E-1	4.284923E-1	4.100857E-1	3.778717E-1	4.137129E-1	4.067668E-1	3.829745E-1	3.491814E-1	3.892676E-1	4.161369E-1	3.822018E-1	4.082296E-1	4.099376E-1	4.060561E-1	4.403630E-1	4.247254E-1	3.972321E-1	4.055202E-1	4.327042E-1	4.225053E-1	4.253401E-1	3.736894E-1	3.834626E-1	3.620387E-1	3.772935E-1	4.328549E-1	4.082114E-1	3.839013E-1	4.235816E-1	3.824735E-1	3.792215E-1	4.045205E-1	4.460902E-1	3.983828E-1	3.853854E-1	3.873187E-1	4.164070E-1	3.865018E-1	4.543459E-1	3.700150E-1	4.690377E-1	4.121131E-1	3.984165E-1	4.024296E-1	3.990721E-1	4.416952E-1	3.841690E-1	3.761878E-1	4.219110E-1	3.972012E-1	3.974634E-1	3.728947E-1	4.401649E-1	3.531547E-1	3.903865E-1	3.896983E-1	3.987715E-1	3.900196E-1	4.062060E-1	3.844019E-1	4.048782E-1	3.855207E-1	3.700599E-1	3.815330E-1	4.026109E-1	4.026806E-1	4.114877E-1	4.034490E-1	3.881935E-1	3.861754E-1	3.733436E-1	3.948787E-1	4.241642E-1	3.945473E-1	3.658755E-1	3.817784E-1	4.065630E-1	4.139263E-1	3.957316E-1	3.926734E-1	3.937121E-1	3.734958E-1	4.119781E-1	4.003288E-1	4.265915E-1	3.219536E-1
5.350100E+2	7.735964E-1	7.743946E-1	7.490214E-1	7.363767E-1	7.679784E-1	7.847932E-1	7.170137E-1	7.211212E-1	7.393584E-1	7.619072E-1	7.650828E-1	8.227188E-1	7.801059E-1	7.660454E-1	7.784700E-1	7.832834E-1	8.076123E-1	7.913188E-1	8.212670E-1	7.740722E-1	7.861246E-1	7.738624E-1	7.936561E-1	7.955872E-1	7.356217E-1	7.495968E-1	7.901366E-1	7.915920E-1	7.863027E-1	7.819375E-1	7.387769E-1	8.218935E-1	7.722488E-1	7.723692E-1	7.661897E-1	8.031097E-1	7.730834E-1	7.689000E-1	7.425845E-1	7.281320E-1	7.830258E-1	7.196924E-1	8.152368E-1	7.799628E-1	7.974452E-1	8.307507E-1	7.450256E-1	8.124604E-1	7.698666E-1	7.686488E-1	7.385667E-1	7.905139E-1	8.112262E-1	7.812812E-1	7.345328E-1	7.830309E-1	7.714132E-1	7.824939E-1	7.998438E-1	7.767653E-1	7.391522E-1	7.470535E-1	8.096923E-1	7.368150E-1	8.152843E-1	8.160203E-1	7.791003E-1	7.893118E-1	7.875031E-1	7.431449E-1	7.621185E-1	7.714603E-1	8.313045E-1	7.743689E-1	7.839855E-1	7.237311E-1	8.196764E-1	7.272956E-1	8.052746E-1	7.024038E-1	8.007536E-1	7.352548E-1	8.271123E-1	7.508749E-1	7.963330E-1	7.526902E-1	7.532985E-1	8.278034E-1	7.753457E-1	7.811483E-1	7.972296E-1	7.629648E-1	7.785460E-1	7.648181E-1	8.014257E-1	7.569853E-1	7.833330E-1	7.444823E-1	8.177001E-1	7.690156E-1	7.766508E-1	8.132444E-1	7.449850E-1	7.891570E-1	7.766151E-1	8.217553E-1	7.908940E-1	7.997166E-1	7.497968E-1	7.234284E-1	7.839772E-1	7.951987E-1	8.374556E-1	7.694106E-1	7.680491E-1	7.934726E-1	7.642961E-1	7.718837E-1	8.444781E-1	7.407888E-1	7.632273E-1	8.127489E-1	7.925289E-1	7.485420E-1	7.808621E-1	7.559644E-1	7.448260E-1	7.402464E-1	7.654043E-1	7.758376E-1	7.739689E-1	8.141041E-1	7.506540E-1	8.128117E-1	7.313576E-1	7.687826E-1	7.580126E-1	7.787280E-1	7.257019E-1	7.701993E-1	7.707033E-1	7.401581E-1	7.965155E-1	7.867700E-1	7.745034E-1	7.597852E-1	7.510564E-1	7.755805E-1	7.884858E-1	7.372346E-1	7.710993E-1	8.057398E-1	8.118028E-1	7.914182E-1	8.043687E-1	7.920126E-1	7.984279E-1	7.688405E-1	7.584644E-1	7.453880E-1	7.986299E-1	7.607862E-1	7.894511E-1	7.350541E-1	8.035022E-1	8.799559E-1
5.352080E+2	1.089497E+0	1.109682E+0	1.156121E+0	1.133230E+0	1.112444E+0	1.096818E+0	1.241746E+0	1.087000E+0	1.139077E+0	1.078983E+0	1.120169E+0	1.110729E+0	1.154402E+0	1.141059E+0	1.141760E+0	1.122315E+0	1.110628E+0	1.104094E+0	1.138470E+0	1.052558E+0	1.157719E+0	1.111939E+0	1.162154E+0	1.128272E+0	1.159882E+0	1.109193E+0	1.128772E+0	1.103470E+0	1.153270E+0	1.127861E+0	1.126428E+0	1.141909E+0	1.183895E+0	1.154458E+0	1.170508E+0	1.139018E+0	1.168936E+0	1.116029E+0	1.071356E+0	1.047574E+0	1.078964E+0	1.186145E+0	1.139112E+0	1.125875E+0	1.151395E+0	1.125388E+0	1.132069E+0	1.130593E+0	1.093376E+0	1.139727E+0	1.107715E+0	1.087503E+0	1.205977E+0	1.130001E+0	1.133748E+0	1.146961E+0	1.136203E+0	1.143141E+0	1.132118E+0	1.102459E+0	1.078967E+0	1.176398E+0	1.095277E+0	1.106763E+0	1.137935E+0	1.181670E+0	1.129185E+0	1.154116E+0	1.180894E+0	1.115762E+0	1.160086E+0	1.143114E+0	1.117794E+0	1.054653E+0	1.054182E+0	1.109810E+0	1.200390E+0	1.137560E+0	1.136144E+0	1.094078E+0	1.218713E+0	1.144295E+0	1.148144E+0	1.106086E+0	1.150723E+0	1.151575E+0	1.141707E+0	1.088207E+0	1.121374E+0	1.202663E+0	1.111515E+0	1.129954E+0	1.171099E+0	1.158108E+0	1.150070E+0	1.178840E+0	1.113421E+0	1.100043E+0	1.144337E+0	1.127563E+0	1.126537E+0	1.109638E+0	1.080613E+0	1.180401E+0	1.137143E+0	1.228494E+0	1.164859E+0	1.128727E+0	1.113138E+0	1.089380E+0	1.175046E+0	1.089932E+0	1.117995E+0	1.174919E+0	1.184564E+0	1.075661E+0	1.104946E+0	1.078802E+0	1.126826E+0	1.081942E+0	1.060226E+0	1.177842E+0	1.160137E+0	1.067160E+0	1.081720E+0	1.180291E+0	1.092484E+0	1.086024E+0	1.171396E+0	1.143666E+0	1.106063E+0	1.114908E+0	1.220250E+0	1.157058E+0	1.082864E+0	1.040470E+0	1.159116E+0	1.085013E+0	1.084530E+0	1.135788E+0	1.069221E+0	1.117928E+0	1.120381E+0	1.083894E+0	1.147669E+0	1.055095E+0	1.125793E+0	1.079278E+0	1.145817E+0	1.094902E+0	1.123926E+0	1.089159E+0	1.169162E+0	1.144553E+0	1.083445E+0	1.198148E+0	1.115015E+0	1.157823E+0	1.082217E+0	1.106951E+0	1.134586E+0	1.083017E+0	1.144546E+0	1.083726E+0	1.186682E+0	1.074521E+0
5.354110E+2	1.334419E+0	1.280723E+0	1.410657E+0	1.308151E+0	1.308615E+0	1.251868E+0	1.320923E+0	1.291003E+0	1.384385E+0	1.340703E+0	1.379581E+0	1.369145E+0	1.306128E+0	1.376941E+0	1.314023E+0	1.331701E+0	1.348482E+0	1.353687E+0	1.379090E+0	1.287617E+0	1.380474E+0	1.403120E+0	1.365372E+0	1.319729E+0	1.361521E+0	1.311183E+0	1.379970E+0	1.334922E+0	1.320245E+0	1.294209E+0	1.326207E+0	1.343823E+0	1.326315E+0	1.331702E+0	1.325403E+0	1.381478E+0	1.349048E+0	1.315393E+0	1.305263E+0	1.359311E+0	1.318031E+0	1.385212E+0	1.365446E+0	1.316057E+0	1.327053E+0	1.357607E+0	1.328172E+0	1.310442E+0	1.361313E+0	1.326434E+0	1.348481E+0	1.393735E+0	1.327542E+0	1.414204E+0	1.320391E+0	1.357277E+0	1.390638E+0	1.289120E+0	1.419348E+0	1.343906E+0	1.293966E+0	1.389177E+0	1.281870E+0	1.362898E+0	1.303599E+0	1.314006E+0	1.337269E+0	1.337874E+0	1.389237E+0	1.295359E+0	1.297439E+0	1.321062E+0	1.428582E+0	1.361002E+0	1.316649E+0	1.359497E+0	1.413671E+0	1.358118E+0	1.323155E+0	1.359447E+0	1.421096E+0	1.378327E+0	1.383340E+0	1.388690E+0	1.342457E+0	1.383052E+0	1.348211E+0	1.283476E+0	1.317739E+0	1.332516E+0	1.340338E+0	1.329769E+0	1.400047E+0	1.341423E+0	1.373161E+0	1.309496E+0	1.425568E+0	1.273023E+0	1.335620E+0	1.291289E+0	1.331713E+0	1.303663E+0	1.318616E+0	1.372969E+0	1.331878E+0	1.433804E+0	1.385558E+0	1.304590E+0	1.358875E+0	1.302330E+0	1.299264E+0	1.309935E+0	1.348088E+0	1.338589E+0	1.341630E+0	1.271493E+0	1.278245E+0	1.290621E+0	1.337011E+0	1.368423E+0	1.377738E+0	1.373061E+0	1.372942E+0	1.259055E+0	1.359582E+0	1.312467E+0	1.339738E+0	1.314877E+0	1.386141E+0	1.307606E+0	1.325265E+0	1.280024E+0	1.352992E+0	1.298024E+0	1.320071E+0	1.328045E+0	1.324287E+0	1.353858E+0	1.341745E+0	1.408608E+0	1.413508E+0	1.205671E+0	1.323186E+0	1.356397E+0	1.403966E+0	1.301564E+0	1.269420E+0	1.380078E+0	1.383325E+0	1.308887E+0	1.352310E+0	1.298132E+0	1.403476E+0	1.377065E+0	1.349347E+0	1.325410E+0	1.286840E+0	1.322735E+0	1.259729E+0	1.304900E+0	1.322491E+0	1.309465E+0	1.218522E+0	1.326162E+0	1.282928E+0	1.110600E+0
5.356150E+2	1.462708E+0	1.440351E+0	1.469296E+0	1.451182E+0	1.372149E+0	1.411542E+0	1.446822E+0	1.405252E+0	1.368721E+0	1.377652E+0	1.391796E+0	1.493418E+0	1.464623E+0	1.461713E+0	1.406575E+0	1.424537E+0	1.439350E+0	1.397662E+0	1.456253E+0	1.413800E+0	1.454574E+0	1.476648E+0	1.464245E+0	1.473252E+0	1.481582E+0	1.411874E+0	1.403871E+0	1.421092E+0	1.412521E+0	1.403834E+0	1.407181E+0	1.379329E+0	1.477252E+0	1.506219E+0	1.385086E+0	1.430204E+0	1.421790E+0	1.452811E+0	1.462415E+0	1.407527E+0	1.442535E+0	1.456324E+0	1.403163E+0	1.407770E+0	1.470450E+0	1.400151E+0	1.383941E+0	1.456008E+0	1.474113E+0	1.391397E+0	1.351381E+0	1.430776E+0	1.425609E+0	1.473967E+0	1.473750E+0	1.411114E+0	1.454596E+0	1.457445E+0	1.521299E+0	1.386638E+0	1.389950E+0	1.510618E+0	1.455009E+0	1.454846E+0	1.424148E+0	1.434423E+0	1.398653E+0	1.443545E+0	1.430953E+0	1.426283E+0	1.518018E+0	1.368658E+0	1.481557E+0	1.472253E+0	1.426383E+0	1.397156E+0	1.477318E+0	1.427799E+0	1.422795E+0	1.334066E+0	1.434810E+0	1.446670E+0	1.379195E+0	1.457395E+0	1.386627E+0	1.431714E+0	1.408047E+0	1.384302E+0	1.484388E+0	1.456802E+0	1.442892E+0	1.392122E+0	1.355734E+0	1.361375E+0	1.384855E+0	1.455635E+0	1.443622E+0	1.361064E+0	1.465175E+0	1.444042E+0	1.361456E+0	1.403131E+0	1.344051E+0	1.461201E+0	1.393243E+0	1.457682E+0	1.500925E+0	1.410507E+0	1.371059E+0	1.439914E+0	1.439066E+0	1.401805E+0	1.402808E+0	1.430746E+0	1.411349E+0	1.384489E+0	1.427443E+0	1.381046E+0	1.447865E+0	1.425174E+0	1.424840E+0	1.515777E+0	1.484356E+0	1.408535E+0	1.405766E+0	1.419809E+0	1.457502E+0	1.362878E+0	1.455396E+0	1.443678E+0	1.402445E+0	1.404082E+0	1.416718E+0	1.396211E+0	1.315377E+0	1.444515E+0	1.416445E+0	1.367827E+0	1.423372E+0	1.423276E+0	1.407816E+0	1.369589E+0	1.415222E+0	1.431759E+0	1.482075E+0	1.383788E+0	1.380310E+0	1.434106E+0	1.408771E+0	1.403375E+0	1.401337E+0	1.415246E+0	1.432169E+0	1.372876E+0	1.438598E+0	1.373032E+0	1.443321E+0	1.402452E+0	1.386631E+0	1.353634E+0	1.427830E+0	1.354854E+0	1.331694E+0	1.432667E+0	1.278501E+0	1.195913E+0
5.358130E+2	1.528004E+0	1.561228E+0	1.561971E+0	1.539400E+0	1.442315E+0	1.485972E+0	1.592208E+0	1.633272E+0	1.476301E+0	1.521916E+0	1.625385E+0	1.545210E+0	1.578158E+0	1.592982E+0	1.480651E+0	1.602362E+0	1.521900E+0	1.563994E+0	1.493544E+0	1.503808E+0	1.556284E+0	1.565330E+0	1.594050E+0	1.501068E+0	1.578988E+0	1.511057E+0	1.508617E+0	1.577124E+0	1.540122E+0	1.471427E+0	1.523477E+0	1.564168E+0	1.527030E+0	1.596117E+0	1.535065E+0	1.644205E+0	1.593345E+0	1.517125E+0	1.490121E+0	1.493355E+0	1.537407E+0	1.566257E+0	1.517176E+0	1.452190E+0	1.646587E+0	1.515200E+0	1.572801E+0	1.573940E+0	1.633965E+0	1.589607E+0	1.499195E+0	1.548871E+0	1.585107E+0	1.498592E+0	1.552413E+0	1.509892E+0	1.563926E+0	1.575029E+0	1.607195E+0	1.567137E+0	1.527653E+0	1.517814E+0	1.503984E+0	1.462939E+0	1.520158E+0	1.557551E+0	1.550779E+0	1.530769E+0	1.556490E+0	1.523391E+0	1.576363E+0	1.526190E+0	1.638188E+0	1.497953E+0	1.498361E+0	1.558021E+0	1.668192E+0	1.562137E+0	1.592893E+0	1.472856E+0	1.574583E+0	1.569084E+0	1.551149E+0	1.476603E+0	1.596932E+0	1.506817E+0	1.460309E+0	1.591814E+0	1.546783E+0	1.576814E+0	1.522584E+0	1.508442E+0	1.545842E+0	1.526002E+0	1.551846E+0	1.572573E+0	1.603318E+0	1.518876E+0	1.579001E+0	1.555651E+0	1.506420E+0	1.508310E+0	1.453041E+0	1.540129E+0	1.531732E+0	1.666920E+0	1.560572E+0	1.505737E+0	1.520968E+0	1.492134E+0	1.616367E+0	1.512960E+0	1.507332E+0	1.553712E+0	1.529754E+0	1.533397E+0	1.486220E+0	1.522515E+0	1.551004E+0	1.515588E+0	1.554876E+0	1.568271E+0	1.529976E+0	1.477686E+0	1.491918E+0	1.569039E+0	1.520181E+0	1.443929E+0	1.608574E+0	1.484260E+0	1.577725E+0	1.486926E+0	1.553113E+0	1.530388E+0	1.459130E+0	1.441081E+0	1.492610E+0	1.477184E+0	1.521372E+0	1.584853E+0	1.549904E+0	1.473028E+0	1.467268E+0	1.506323E+0	1.614651E+0	1.411343E+0	1.559202E+0	1.475063E+0	1.563495E+0	1.448652E+0	1.501769E+0	1.504206E+0	1.578538E+0	1.530869E+0	1.523426E+0	1.548435E+0	1.449105E+0	1.499792E+0	1.511923E+0	1.523050E+0	1.524370E+0	1.494473E+0	1.591603E+0	1.565247E+0	1.466890E+0	1.462129E+0
5.360120E+2	1.660717E+0	1.681389E+0	1.700553E+0	1.681758E+0	1.599796E+0	1.610703E+0	1.668478E+0	1.704159E+0	1.665458E+0	1.685827E+0	1.672306E+0	1.783972E+0	1.719135E+0	1.700916E+0	1.647644E+0	1.655668E+0	1.643811E+0	1.597382E+0	1.681072E+0	1.645412E+0	1.687385E+0	1.670224E+0	1.628318E+0	1.712644E+0	1.703909E+0	1.648117E+0	1.627583E+0	1.662876E+0	1.664059E+0	1.707659E+0	1.578353E+0	1.613658E+0	1.618165E+0	1.662071E+0	1.683651E+0	1.705378E+0	1.655690E+0	1.648993E+0	1.689719E+0	1.679872E+0	1.662588E+0	1.683340E+0	1.597679E+0	1.689313E+0	1.628966E+0	1.703665E+0	1.736924E+0	1.673570E+0	1.666573E+0	1.720406E+0	1.687413E+0	1.618331E+0	1.684374E+0	1.665463E+0	1.695382E+0	1.630450E+0	1.662099E+0	1.681901E+0	1.765931E+0	1.678935E+0	1.595282E+0	1.669475E+0	1.613732E+0	1.626188E+0	1.636190E+0	1.638185E+0	1.645312E+0	1.647282E+0	1.662444E+0	1.670589E+0	1.659912E+0	1.617279E+0	1.687435E+0	1.645610E+0	1.642237E+0	1.654109E+0	1.726322E+0	1.709960E+0	1.648698E+0	1.630070E+0	1.723379E+0	1.690053E+0	1.630998E+0	1.635753E+0	1.692121E+0	1.612194E+0	1.598097E+0	1.644379E+0	1.644150E+0	1.719314E+0	1.623122E+0	1.691535E+0	1.641292E+0	1.732973E+0	1.685225E+0	1.646731E+0	1.709986E+0	1.597664E+0	1.713872E+0	1.633499E+0	1.665599E+0	1.714742E+0	1.598331E+0	1.654250E+0	1.703385E+0	1.677110E+0	1.738057E+0	1.554977E+0	1.665059E+0	1.659892E+0	1.581317E+0	1.582919E+0	1.672263E+0	1.637595E+0	1.572307E+0	1.627890E+0	1.625018E+0	1.575646E+0	1.616864E+0	1.603281E+0	1.630874E+0	1.678170E+0	1.740448E+0	1.588557E+0	1.644252E+0	1.675872E+0	1.672043E+0	1.590150E+0	1.669591E+0	1.753539E+0	1.545822E+0	1.628083E+0	1.669923E+0	1.624910E+0	1.557025E+0	1.596983E+0	1.553864E+0	1.582679E+0	1.642401E+0	1.628996E+0	1.562416E+0	1.537079E+0	1.625271E+0	1.653985E+0	1.664289E+0	1.555678E+0	1.625472E+0	1.643602E+0	1.632886E+0	1.660826E+0	1.680611E+0	1.647569E+0	1.648944E+0	1.613881E+0	1.689990E+0	1.671388E+0	1.585340E+0	1.623224E+0	1.639304E+0	1.649349E+0	1.578063E+0	1.565460E+0	1.619059E+0	1.699697E+0	1.613461E+0	1.759116E+0
5.362050E+2	1.658486E+0	1.748751E+0	1.748863E+0	1.715689E+0	1.640828E+0	1.641669E+0	1.729962E+0	1.665451E+0	1.654202E+0	1.630230E+0	1.642236E+0	1.767061E+0	1.723146E+0	1.651984E+0	1.707440E+0	1.739174E+0	1.659178E+0	1.649750E+0	1.725026E+0	1.701562E+0	1.783925E+0	1.710879E+0	1.737653E+0	1.649144E+0	1.765791E+0	1.603118E+0	1.749507E+0	1.710840E+0	1.687919E+0	1.756387E+0	1.612848E+0	1.709149E+0	1.689029E+0	1.668096E+0	1.665146E+0	1.781462E+0	1.723636E+0	1.662120E+0	1.722563E+0	1.709508E+0	1.703072E+0	1.681390E+0	1.691998E+0	1.685129E+0	1.732751E+0	1.718774E+0	1.664296E+0	1.752677E+0	1.729160E+0	1.665391E+0	1.549488E+0	1.723424E+0	1.661593E+0	1.763478E+0	1.645310E+0	1.705674E+0	1.675032E+0	1.698325E+0	1.742986E+0	1.706321E+0	1.619506E+0	1.774533E+0	1.650700E+0	1.615250E+0	1.665723E+0	1.686521E+0	1.723209E+0	1.677846E+0	1.639829E+0	1.736191E+0	1.663140E+0	1.596930E+0	1.712819E+0	1.608711E+0	1.656166E+0	1.587757E+0	1.739758E+0	1.647547E+0	1.657297E+0	1.685691E+0	1.785065E+0	1.707198E+0	1.657048E+0	1.674626E+0	1.651362E+0	1.672808E+0	1.628768E+0	1.647771E+0	1.692412E+0	1.700380E+0	1.681787E+0	1.651667E+0	1.698927E+0	1.664399E+0	1.729548E+0	1.677702E+0	1.689518E+0	1.634494E+0	1.719468E+0	1.663625E+0	1.634225E+0	1.647419E+0	1.667834E+0	1.664965E+0	1.639055E+0	1.757758E+0	1.708315E+0	1.638325E+0	1.632135E+0	1.638645E+0	1.658580E+0	1.696106E+0	1.694903E+0	1.669063E+0	1.695381E+0	1.648538E+0	1.651060E+0	1.674543E+0	1.706169E+0	1.699622E+0	1.685120E+0	1.688642E+0	1.681046E+0	1.569277E+0	1.614055E+0	1.687061E+0	1.642060E+0	1.605593E+0	1.671689E+0	1.752976E+0	1.605615E+0	1.644509E+0	1.666406E+0	1.656246E+0	1.646469E+0	1.646205E+0	1.608011E+0	1.582664E+0	1.671644E+0	1.730842E+0	1.579040E+0	1.612916E+0	1.731816E+0	1.695980E+0	1.695876E+0	1.597720E+0	1.677397E+0	1.684451E+0	1.640969E+0	1.670153E+0	1.651001E+0	1.695617E+0	1.679602E+0	1.734629E+0	1.692039E+0	1.649089E+0	1.657316E+0	1.675821E+0	1.583046E+0	1.619990E+0	1.625857E+0	1.613975E+0	1.603325E+0	1.602374E+0	1.607689E+0	1.677722E+0
5.364090E+2	1.334320E+0	1.392942E+0	1.441136E+0	1.356468E+0	1.309191E+0	1.265471E+0	1.321992E+0	1.433426E+0	1.372532E+0	1.373549E+0	1.383987E+0	1.399868E+0	1.373505E+0	1.420947E+0	1.411490E+0	1.411108E+0	1.402521E+0	1.365650E+0	1.326229E+0	1.359586E+0	1.403329E+0	1.432299E+0	1.381620E+0	1.399906E+0	1.408366E+0	1.349267E+0	1.420410E+0	1.443232E+0	1.287959E+0	1.399651E+0	1.423494E+0	1.403391E+0	1.404983E+0	1.377132E+0	1.324700E+0	1.464621E+0	1.360590E+0	1.410270E+0	1.413360E+0	1.357591E+0	1.414014E+0	1.405970E+0	1.368527E+0	1.380973E+0	1.379463E+0	1.380962E+0	1.367352E+0	1.408963E+0	1.381764E+0	1.389398E+0	1.414965E+0	1.387274E+0	1.381456E+0	1.417021E+0	1.383266E+0	1.389338E+0	1.429704E+0	1.417298E+0	1.421978E+0	1.327743E+0	1.363716E+0	1.325287E+0	1.401989E+0	1.368061E+0	1.408155E+0	1.462694E+0	1.345311E+0	1.363316E+0	1.436312E+0	1.425877E+0	1.373029E+0	1.335761E+0	1.412520E+0	1.295920E+0	1.365565E+0	1.361963E+0	1.475915E+0	1.423494E+0	1.371371E+0	1.314840E+0	1.449675E+0	1.395288E+0	1.473606E+0	1.342521E+0	1.360942E+0	1.421863E+0	1.380825E+0	1.381895E+0	1.405261E+0	1.404165E+0	1.418659E+0	1.382890E+0	1.419944E+0	1.336357E+0	1.423111E+0	1.378571E+0	1.386501E+0	1.320531E+0	1.387725E+0	1.326255E+0	1.409772E+0	1.283639E+0	1.331076E+0	1.344819E+0	1.379793E+0	1.408792E+0	1.456429E+0	1.379984E+0	1.392282E+0	1.349379E+0	1.368836E+0	1.357991E+0	1.426804E+0	1.451653E+0	1.291379E+0	1.333790E+0	1.421309E+0	1.372614E+0	1.397155E+0	1.395364E+0	1.316652E+0	1.407118E+0	1.404352E+0	1.403441E+0	1.397290E+0	1.428062E+0	1.351302E+0	1.342259E+0	1.385593E+0	1.389648E+0	1.337731E+0	1.343338E+0	1.374576E+0	1.338616E+0	1.330626E+0	1.384601E+0	1.305835E+0	1.295938E+0	1.332360E+0	1.428833E+0	1.333187E+0	1.321375E+0	1.336639E+0	1.347921E+0	1.386943E+0	1.283564E+0	1.372337E+0	1.352842E+0	1.448817E+0	1.367269E+0	1.435303E+0	1.370494E+0	1.416976E+0	1.338958E+0	1.443497E+0	1.406685E+0	1.369445E+0	1.342492E+0	1.348927E+0	1.337434E+0	1.373054E+0	1.349457E+0	1.404062E+0	1.363187E+0	1.264748E+0	1.402639E+0
5.366080E+2	1.143764E+0	1.107385E+0	1.095430E+0	1.113269E+0	1.101178E+0	1.099869E+0	1.117655E+0	1.109250E+0	1.126468E+0	1.100234E+0	1.066687E+0	1.134765E+0	1.114743E+0	1.219359E+0	1.057419E+0	1.134686E+0	1.140981E+0	1.080247E+0	1.180941E+0	1.123486E+0	1.131487E+0	1.128502E+0	1.134956E+0	1.049149E+0	1.164571E+0	1.164704E+0	1.119957E+0	1.163276E+0	1.119698E+0	1.169839E+0	1.112095E+0	1.097736E+0	1.155842E+0	1.088264E+0	1.101810E+0	1.229173E+0	1.108412E+0	1.125962E+0	1.115922E+0	1.134333E+0	1.122223E+0	1.141600E+0	1.097903E+0	1.043492E+0	1.148197E+0	1.131925E+0	1.176134E+0	1.105910E+0	1.183191E+0	1.153609E+0	1.117490E+0	1.159825E+0	1.136694E+0	1.184797E+0	1.106965E+0	1.156880E+0	1.156814E+0	1.160901E+0	1.189065E+0	1.169711E+0	1.094057E+0	1.131175E+0	1.141129E+0	1.092614E+0	1.161528E+0	1.178478E+0	1.135899E+0	1.133220E+0	1.132614E+0	1.134510E+0	1.107819E+0	1.118068E+0	1.171864E+0	1.145240E+0	1.172389E+0	1.124099E+0	1.218198E+0	1.117155E+0	1.124063E+0	1.156413E+0	1.222167E+0	1.155936E+0	1.150304E+0	1.158449E+0	1.100627E+0	1.139372E+0	1.113705E+0	1.135314E+0	1.132583E+0	1.151743E+0	1.139217E+0	1.117681E+0	1.113347E+0	1.093391E+0	1.137543E+0	1.089505E+0	1.089690E+0	1.096917E+0	1.142957E+0	1.133271E+0	1.099364E+0	1.105521E+0	1.127404E+0	1.190225E+0	1.142839E+0	1.126323E+0	1.153874E+0	1.095441E+0	1.107823E+0	1.135641E+0	1.117229E+0	1.171111E+0	1.184985E+0	1.167505E+0	1.144254E+0	1.120786E+0	1.039174E+0	1.081605E+0	1.076338E+0	1.138046E+0	1.108500E+0	1.134439E+0	1.113815E+0	1.102980E+0	1.117677E+0	1.133627E+0	1.121116E+0	1.095450E+0	1.117074E+0	1.162468E+0	1.063935E+0	1.091847E+0	1.212794E+0	1.116799E+0	1.068001E+0	1.079084E+0	1.115133E+0	1.104079E+0	1.132047E+0	1.102266E+0	1.092492E+0	1.110731E+0	1.125440E+0	1.132210E+0	1.180022E+0	1.068968E+0	1.084670E+0	1.082704E+0	1.098056E+0	1.109569E+0	1.156927E+0	1.130276E+0	1.117610E+0	1.159982E+0	1.109157E+0	1.165639E+0	1.109714E+0	1.067944E+0	1.124292E+0	1.104462E+0	1.126683E+0	1.049052E+0	1.155581E+0	1.091516E+0	1.026740E+0	1.062442E+0
5.368180E+2	9.559997E-1	9.360095E-1	9.428915E-1	9.191356E-1	9.171407E-1	9.037971E-1	9.652888E-1	9.312449E-1	9.173962E-1	9.195708E-1	9.285083E-1	8.981397E-1	9.313651E-1	9.231959E-1	9.099817E-1	9.622843E-1	9.457658E-1	9.474686E-1	8.828578E-1	9.134209E-1	9.342127E-1	9.133893E-1	9.810354E-1	8.999709E-1	9.109779E-1	9.077141E-1	9.222005E-1	9.656425E-1	9.331047E-1	9.132757E-1	8.982762E-1	8.655053E-1	9.473407E-1	9.247147E-1	9.457252E-1	9.586147E-1	9.487371E-1	8.980093E-1	8.745293E-1	9.196084E-1	9.098178E-1	8.809645E-1	9.129468E-1	9.034102E-1	8.856727E-1	9.404839E-1	9.227297E-1	9.455366E-1	9.450630E-1	8.890027E-1	8.461918E-1	9.245883E-1	9.548015E-1	8.989305E-1	9.490029E-1	8.966978E-1	8.971065E-1	9.147428E-1	9.852107E-1	9.085551E-1	8.879663E-1	9.277883E-1	8.968659E-1	9.124253E-1	9.253175E-1	9.045633E-1	9.077804E-1	9.478295E-1	8.773222E-1	9.361481E-1	9.586743E-1	8.920640E-1	9.379066E-1	8.667812E-1	9.248347E-1	8.901259E-1	9.251033E-1	9.100917E-1	8.905870E-1	8.670315E-1	9.508746E-1	9.242054E-1	8.935030E-1	9.013771E-1	9.133666E-1	9.297990E-1	9.135854E-1	9.022238E-1	9.333162E-1	9.096777E-1	9.440993E-1	8.501638E-1	8.948599E-1	9.518495E-1	9.141327E-1	9.265573E-1	9.076479E-1	9.345005E-1	9.723758E-1	9.321108E-1	8.936842E-1	9.333475E-1	8.829270E-1	9.412803E-1	9.394164E-1	8.911779E-1	9.833396E-1	8.778191E-1	8.997301E-1	8.877532E-1	9.597687E-1	8.963634E-1	8.740375E-1	9.462682E-1	9.630251E-1	9.481982E-1	9.122102E-1	9.298654E-1	8.971068E-1	8.953903E-1	9.144844E-1	9.604205E-1	9.340992E-1	8.933561E-1	9.971134E-1	9.262112E-1	8.997539E-1	8.953601E-1	9.156273E-1	8.613919E-1	8.865112E-1	9.294623E-1	9.572936E-1	8.877657E-1	8.764521E-1	8.648773E-1	8.855134E-1	8.851714E-1	9.173625E-1	9.452155E-1	9.177733E-1	8.811166E-1	9.040002E-1	8.817485E-1	9.677661E-1	8.936631E-1	9.291075E-1	8.902177E-1	9.453290E-1	9.315003E-1	9.025183E-1	9.249594E-1	9.782774E-1	9.451353E-1	9.900903E-1	9.399078E-1	9.792076E-1	9.108456E-1	8.886068E-1	8.717714E-1	9.045681E-1	9.040066E-1	9.162978E-1	9.109914E-1	9.086804E-1	9.710747E-1
5.370170E+2	8.797713E-1	9.192423E-1	8.606084E-1	9.079991E-1	8.976487E-1	8.041277E-1	9.111911E-1	9.145380E-1	9.117768E-1	8.601284E-1	8.605514E-1	9.181936E-1	9.063975E-1	9.111923E-1	8.869328E-1	8.914270E-1	8.712098E-1	8.049052E-1	9.260561E-1	8.912191E-1	9.004943E-1	9.108795E-1	9.361136E-1	9.333821E-1	9.034780E-1	8.848222E-1	8.802623E-1	8.908514E-1	8.855953E-1	8.743339E-1	8.608133E-1	8.931757E-1	8.704619E-1	8.454948E-1	8.827279E-1	9.190370E-1	8.914853E-1	8.751456E-1	8.834536E-1	8.655009E-1	8.772447E-1	8.749038E-1	8.503069E-1	8.960432E-1	8.926174E-1	9.153573E-1	8.598977E-1	9.145415E-1	8.674507E-1	8.739275E-1	8.789020E-1	9.095008E-1	9.002615E-1	9.014139E-1	8.735295E-1	9.156570E-1	9.046870E-1	8.507638E-1	9.026553E-1	8.400338E-1	8.707159E-1	9.120817E-1	8.627091E-1	9.123217E-1	9.108813E-1	8.865141E-1	8.784654E-1	8.732490E-1	8.476147E-1	8.893770E-1	9.039271E-1	8.141889E-1	8.606479E-1	8.511788E-1	8.814983E-1	8.677091E-1	9.570253E-1	8.143798E-1	8.717659E-1	8.771944E-1	9.090426E-1	9.403548E-1	8.993834E-1	8.811451E-1	8.735520E-1	8.799261E-1	9.293644E-1	8.980492E-1	8.665573E-1	8.427420E-1	9.241907E-1	8.705458E-1	9.113056E-1	8.512980E-1	8.581909E-1	8.887319E-1	8.851075E-1	8.139779E-1	8.887236E-1	8.902632E-1	8.973602E-1	8.879355E-1	8.582662E-1	9.017742E-1	9.108159E-1	9.114726E-1	9.127941E-1	9.358213E-1	8.848509E-1	8.688708E-1	8.819566E-1	8.393962E-1	8.299858E-1	9.121624E-1	9.355652E-1	9.022243E-1	9.283362E-1	7.668317E-1	8.955255E-1	9.050412E-1	8.503985E-1	8.916041E-1	9.122469E-1	8.505580E-1	8.520814E-1	9.257191E-1	7.835793E-1	8.749598E-1	8.939449E-1	8.486169E-1	9.110129E-1	8.677466E-1	9.608093E-1	8.652985E-1	9.008306E-1	8.740818E-1	8.382264E-1	8.612858E-1	8.945145E-1	8.640927E-1	8.850411E-1	8.690047E-1	9.003085E-1	9.084344E-1	9.475766E-1	8.335016E-1	8.749304E-1	8.772565E-1	8.696888E-1	8.933471E-1	9.196586E-1	8.854524E-1	9.056146E-1	8.808539E-1	9.306811E-1	8.938784E-1	8.945132E-1	8.972335E-1	8.752394E-1	8.330221E-1	8.911205E-1	8.628447E-1	9.031935E-1	8.362996E-1	8.471154E-1	9.097759E-1
5.372010E+2	9.452948E-1	1.049411E+0	1.021503E+0	8.933231E-1	9.622777E-1	9.637421E-1	1.009670E+0	9.104154E-1	1.005569E+0	9.185955E-1	9.413327E-1	1.008670E+0	9.630540E-1	9.575557E-1	9.423818E-1	9.857754E-1	9.053674E-1	9.683626E-1	9.387619E-1	9.126028E-1	9.460025E-1	9.494147E-1	9.850399E-1	9.057658E-1	9.946885E-1	9.535946E-1	9.433289E-1	9.868620E-1	9.211972E-1	9.483887E-1	9.679200E-1	9.444437E-1	9.993143E-1	9.387601E-1	9.449206E-1	1.012750E+0	9.808467E-1	9.349829E-1	9.369954E-1	9.120701E-1	9.998026E-1	9.613847E-1	9.746720E-1	9.656601E-1	9.525913E-1	1.003142E+0	1.027082E+0	9.838507E-1	9.469070E-1	9.479670E-1	8.916189E-1	9.839405E-1	9.614527E-1	9.723895E-1	9.515174E-1	9.708715E-1	9.483604E-1	9.547460E-1	1.033377E+0	9.223171E-1	9.585801E-1	9.586599E-1	9.529938E-1	9.697074E-1	1.001214E+0	9.796365E-1	9.428364E-1	9.441487E-1	1.038017E+0	9.530939E-1	9.872256E-1	9.609100E-1	1.000138E+0	9.154504E-1	9.504700E-1	9.469876E-1	9.736601E-1	9.512345E-1	9.730386E-1	9.675181E-1	9.713356E-1	1.016707E+0	9.793287E-1	9.708206E-1	9.904278E-1	9.213495E-1	9.975151E-1	9.271424E-1	1.001596E+0	1.012433E+0	9.352988E-1	9.709873E-1	9.375580E-1	9.455857E-1	9.858501E-1	9.900740E-1	1.012183E+0	8.895632E-1	9.511310E-1	9.467967E-1	9.931363E-1	9.526843E-1	9.315060E-1	9.652272E-1	9.860808E-1	9.232721E-1	9.964060E-1	9.774772E-1	9.534938E-1	9.230099E-1	9.570094E-1	9.228725E-1	9.607918E-1	9.805050E-1	9.469416E-1	9.320854E-1	9.402932E-1	8.789120E-1	9.692290E-1	9.848451E-1	9.484492E-1	9.996904E-1	9.440601E-1	9.954458E-1	9.966448E-1	1.021219E+0	9.092241E-1	9.506915E-1	9.859385E-1	9.612323E-1	9.617354E-1	9.249748E-1	9.610651E-1	9.531065E-1	9.653920E-1	9.323096E-1	8.975085E-1	9.458755E-1	9.827463E-1	9.847985E-1	9.792573E-1	9.389727E-1	9.669457E-1	9.975665E-1	1.013021E+0	9.423404E-1	9.390360E-1	9.892061E-1	9.264277E-1	9.474692E-1	9.600805E-1	9.499700E-1	9.881202E-1	9.679774E-1	9.751387E-1	9.897836E-1	9.534750E-1	9.864393E-1	9.472777E-1	9.411780E-1	9.389126E-1	9.202020E-1	8.986229E-1	9.182119E-1	9.276439E-1	9.923744E-1
5.374220E+2	1.099740E+0	1.059519E+0	1.082448E+0	1.102945E+0	1.049986E+0	1.070933E+0	1.105003E+0	1.132562E+0	1.035413E+0	1.027935E+0	1.095441E+0	1.078989E+0	1.102364E+0	1.081342E+0	1.058450E+0	1.063068E+0	1.056938E+0	1.027194E+0	1.056885E+0	1.072108E+0	1.039950E+0	1.050644E+0	1.079421E+0	1.068873E+0	1.053417E+0	1.062694E+0	1.046024E+0	1.085656E+0	1.054050E+0	1.044592E+0	1.048791E+0	1.033611E+0	1.097543E+0	1.048498E+0	1.065968E+0	1.119728E+0	1.080480E+0	1.062165E+0	1.033312E+0	1.036302E+0	1.068550E+0	1.076350E+0	1.054049E+0	1.035514E+0	1.101261E+0	1.080597E+0	1.116067E+0	1.116847E+0	1.080325E+0	1.092175E+0	1.077240E+0	1.031452E+0	1.051013E+0	1.029139E+0	1.004422E+0	1.056474E+0	1.105865E+0	1.004080E+0	1.124955E+0	1.071708E+0	9.926281E-1	1.047776E+0	1.009970E+0	1.051099E+0	1.058318E+0	1.101719E+0	1.066600E+0	1.094136E+0	1.049390E+0	1.040161E+0	1.098841E+0	1.039141E+0	1.068148E+0	1.023531E+0	1.077545E+0	1.013676E+0	1.081602E+0	1.113537E+0	1.108150E+0	1.070298E+0	1.074510E+0	1.097261E+0	1.078347E+0	1.068702E+0	1.080408E+0	1.064654E+0	1.075941E+0	1.052944E+0	1.032908E+0	1.154046E+0	1.078177E+0	1.023619E+0	1.100060E+0	1.044104E+0	1.077307E+0	1.041507E+0	1.075385E+0	1.063984E+0	1.098235E+0	1.105854E+0	1.053029E+0	1.044464E+0	1.069689E+0	1.068792E+0	1.039170E+0	1.083921E+0	1.132937E+0	1.086696E+0	1.111166E+0	1.075978E+0	1.052549E+0	1.048991E+0	1.081784E+0	1.106917E+0	1.029142E+0	1.074076E+0	1.043119E+0	1.006670E+0	1.043468E+0	1.096255E+0	1.029366E+0	1.078481E+0	1.087118E+0	1.045123E+0	1.011099E+0	1.017537E+0	1.024419E+0	9.973128E-1	1.126852E+0	1.058217E+0	1.077127E+0	1.095553E+0	1.102008E+0	1.030509E+0	1.042835E+0	1.054166E+0	1.021704E+0	9.799355E-1	1.044403E+0	1.080701E+0	1.119236E+0	1.022591E+0	1.075103E+0	1.076832E+0	1.084781E+0	1.025802E+0	1.061161E+0	1.044372E+0	1.048245E+0	1.086776E+0	1.113522E+0	1.101690E+0	1.058848E+0	1.049334E+0	1.089337E+0	1.060376E+0	1.106442E+0	1.058696E+0	1.097305E+0	1.095675E+0	1.002019E+0	9.650264E-1	1.079748E+0	1.023038E+0	1.038896E+0	1.051830E+0
5.376060E+2	1.070379E+0	1.049727E+0	1.055669E+0	1.030893E+0	1.025309E+0	1.049754E+0	1.018432E+0	1.064592E+0	1.013422E+0	1.042549E+0	1.003099E+0	9.951281E-1	1.110763E+0	1.058377E+0	1.067624E+0	1.074756E+0	1.039659E+0	1.042819E+0	1.066095E+0	1.051538E+0	1.115614E+0	1.057570E+0	1.075565E+0	1.066772E+0	1.104295E+0	1.023921E+0	1.065022E+0	1.110060E+0	1.092685E+0	1.095230E+0	1.032810E+0	1.039343E+0	1.037782E+0	1.017610E+0	1.034274E+0	1.063675E+0	1.014306E+0	1.038260E+0	9.911093E-1	1.043820E+0	1.062623E+0	1.052747E+0	1.022708E+0	9.975669E-1	1.027199E+0	1.040582E+0	1.032447E+0	1.069790E+0	1.073099E+0	1.032271E+0	1.052151E+0	1.018873E+0	1.042269E+0	1.075890E+0	1.088433E+0	1.073679E+0	1.089328E+0	1.062638E+0	1.031403E+0	9.966599E-1	9.963909E-1	1.087492E+0	1.075219E+0	1.045105E+0	1.050775E+0	1.091652E+0	1.066212E+0	1.056533E+0	1.062874E+0	1.099096E+0	1.070202E+0	1.023106E+0	1.121056E+0	1.013953E+0	1.014668E+0	1.071442E+0	1.085517E+0	1.045137E+0	1.064049E+0	1.050799E+0	1.097812E+0	1.108428E+0	1.094185E+0	1.058676E+0	1.073162E+0	1.062335E+0	1.027364E+0	1.087196E+0	1.012810E+0	1.068815E+0	1.037828E+0	1.060156E+0	1.034231E+0	9.769532E-1	1.029521E+0	1.050407E+0	1.054592E+0	1.003056E+0	1.104728E+0	1.079566E+0	1.099971E+0	1.015577E+0	1.059540E+0	1.041608E+0	1.069396E+0	1.065015E+0	1.103698E+0	1.035058E+0	1.035720E+0	1.074637E+0	1.088129E+0	1.056440E+0	9.752551E-1	1.086948E+0	1.102371E+0	1.026261E+0	1.070779E+0	1.046458E+0	1.062704E+0	1.071601E+0	1.059657E+0	1.049170E+0	1.082464E+0	1.039004E+0	1.049496E+0	1.072428E+0	1.020035E+0	1.001378E+0	1.061386E+0	1.071335E+0	1.040483E+0	1.013295E+0	1.064893E+0	1.031371E+0	1.013019E+0	1.027457E+0	1.028121E+0	1.060769E+0	1.026201E+0	1.092639E+0	1.087217E+0	1.044938E+0	1.053550E+0	1.063151E+0	1.107944E+0	1.011715E+0	1.077087E+0	1.102659E+0	1.093847E+0	1.018154E+0	1.046446E+0	1.091292E+0	1.139477E+0	1.034845E+0	1.015599E+0	9.946251E-1	1.050511E+0	1.034904E+0	1.029987E+0	1.051701E+0	1.022416E+0	1.052655E+0	1.074898E+0	9.806524E-1	9.784332E-1	1.093602E+0
5.378110E+2	1.090119E+0	1.156954E+0	1.115550E+0	1.091019E+0	1.067020E+0	1.116393E+0	1.138093E+0	1.131892E+0	1.131242E+0	1.096783E+0	1.107339E+0	1.169795E+0	1.129107E+0	1.167784E+0	1.041673E+0	1.114061E+0	1.098490E+0	1.152855E+0	1.103502E+0	1.125681E+0	1.067000E+0	1.165424E+0	1.114156E+0	1.130386E+0	1.122712E+0	1.070658E+0	1.082721E+0	1.175268E+0	1.114538E+0	1.129705E+0	1.087325E+0	1.068903E+0	1.108710E+0	1.100627E+0	1.065633E+0	1.111223E+0	1.117375E+0	1.083202E+0	1.043781E+0	1.080882E+0	1.150248E+0	1.105774E+0	1.102745E+0	1.094992E+0	1.116745E+0	1.154137E+0	1.154861E+0	1.087569E+0	1.171416E+0	1.116514E+0	1.116858E+0	1.082246E+0	1.076657E+0	1.123988E+0	1.067864E+0	1.111361E+0	1.130517E+0	1.136854E+0	1.142530E+0	1.108140E+0	1.089304E+0	1.105805E+0	1.096915E+0	1.123064E+0	1.056724E+0	1.152535E+0	1.124809E+0	1.127805E+0	1.134111E+0	1.113841E+0	1.098022E+0	1.126619E+0	1.152923E+0	1.096509E+0	1.133817E+0	1.106513E+0	1.101626E+0	1.072931E+0	1.086341E+0	1.191583E+0	1.088441E+0	1.076587E+0	1.093338E+0	1.125651E+0	1.095631E+0	1.044568E+0	1.102187E+0	1.108615E+0	1.120159E+0	1.101474E+0	1.135867E+0	1.084427E+0	1.170945E+0	1.060066E+0	1.105942E+0	1.139573E+0	1.176574E+0	1.032991E+0	1.107748E+0	1.143908E+0	1.136462E+0	1.075620E+0	1.119570E+0	1.138478E+0	1.117828E+0	1.148517E+0	1.110159E+0	1.104756E+0	1.095192E+0	1.062737E+0	1.111828E+0	1.073135E+0	1.140899E+0	1.133620E+0	1.104742E+0	1.091691E+0	1.115870E+0	1.111448E+0	1.101843E+0	1.104763E+0	1.157915E+0	1.116724E+0	1.172226E+0	1.096339E+0	1.098443E+0	1.151767E+0	1.140679E+0	1.083466E+0	1.053905E+0	1.118798E+0	1.117304E+0	1.070974E+0	1.151392E+0	1.025036E+0	1.139578E+0	1.083920E+0	1.074747E+0	1.101260E+0	1.115540E+0	1.134627E+0	1.069265E+0	1.072735E+0	1.116642E+0	1.152338E+0	1.191286E+0	1.074139E+0	1.122669E+0	1.128690E+0	1.112749E+0	1.110765E+0	1.115121E+0	1.125508E+0	1.166008E+0	1.090207E+0	1.208199E+0	1.161793E+0	1.087627E+0	1.107166E+0	1.091577E+0	1.094487E+0	1.090239E+0	1.081015E+0	1.151086E+0	1.103995E+0	1.008556E+0	1.062085E+0
5.380050E+2	1.193646E+0	1.266897E+0	1.186688E+0	1.149472E+0	1.166465E+0	1.204064E+0	1.178581E+0	1.196324E+0	1.155350E+0	1.169063E+0	1.232059E+0	1.231598E+0	1.192323E+0	1.216798E+0	1.151528E+0	1.203678E+0	1.135752E+0	1.197012E+0	1.215520E+0	1.181416E+0	1.210282E+0	1.178576E+0	1.185985E+0	1.170269E+0	1.209883E+0	1.198016E+0	1.183147E+0	1.231155E+0	1.208810E+0	1.165289E+0	1.172460E+0	1.128721E+0	1.163057E+0	1.139015E+0	1.119177E+0	1.198424E+0	1.234090E+0	1.165941E+0	1.177530E+0	1.143238E+0	1.182417E+0	1.168521E+0	1.160604E+0	1.175105E+0	1.184141E+0	1.136721E+0	1.152054E+0	1.240976E+0	1.236514E+0	1.170843E+0	1.221745E+0	1.174298E+0	1.186875E+0	1.212265E+0	1.141251E+0	1.184911E+0	1.179869E+0	1.197609E+0	1.205866E+0	1.181167E+0	1.154889E+0	1.220754E+0	1.188493E+0	1.136631E+0	1.153083E+0	1.208515E+0	1.186874E+0	1.189070E+0	1.244262E+0	1.170301E+0	1.165508E+0	1.166264E+0	1.227702E+0	1.202928E+0	1.157655E+0	1.171640E+0	1.218413E+0	1.219849E+0	1.205217E+0	1.139468E+0	1.189450E+0	1.232084E+0	1.217006E+0	1.147464E+0	1.154394E+0	1.171921E+0	1.207316E+0	1.172381E+0	1.210924E+0	1.168925E+0	1.170322E+0	1.188818E+0	1.188731E+0	1.103531E+0	1.184346E+0	1.211156E+0	1.232254E+0	1.184349E+0	1.183683E+0	1.200238E+0	1.123151E+0	1.164873E+0	1.159922E+0	1.162385E+0	1.190069E+0	1.192140E+0	1.189708E+0	1.254296E+0	1.215345E+0	1.159562E+0	1.182071E+0	1.170472E+0	1.202376E+0	1.196043E+0	1.266718E+0	1.125651E+0	1.132512E+0	1.113481E+0	1.213159E+0	1.172462E+0	1.200719E+0	1.126331E+0	1.163321E+0	1.134385E+0	1.153141E+0	1.249488E+0	1.120098E+0	1.158198E+0	1.164939E+0	1.111810E+0	1.209168E+0	1.176194E+0	1.213153E+0	1.137850E+0	1.171941E+0	1.102862E+0	1.114912E+0	1.170442E+0	1.162334E+0	1.225672E+0	1.181788E+0	1.163481E+0	1.169664E+0	1.184266E+0	1.247620E+0	1.122526E+0	1.205015E+0	1.230182E+0	1.194208E+0	1.194724E+0	1.201922E+0	1.223921E+0	1.117686E+0	1.155829E+0	1.229299E+0	1.191672E+0	1.138537E+0	1.143443E+0	1.139368E+0	1.127207E+0	1.193878E+0	1.131698E+0	1.165679E+0	1.171397E+0	1.165281E+0	1.070754E+0
5.382060E+2	1.469694E+0	1.455297E+0	1.475041E+0	1.416234E+0	1.397930E+0	1.405117E+0	1.388232E+0	1.435534E+0	1.417470E+0	1.339721E+0	1.422263E+0	1.413285E+0	1.466081E+0	1.549651E+0	1.442563E+0	1.397377E+0	1.406958E+0	1.462844E+0	1.455235E+0	1.439134E+0	1.434810E+0	1.441990E+0	1.433974E+0	1.394700E+0	1.396243E+0	1.396138E+0	1.429134E+0	1.455658E+0	1.389663E+0	1.377089E+0	1.412198E+0	1.328354E+0	1.433808E+0	1.409162E+0	1.422817E+0	1.456978E+0	1.435734E+0	1.384572E+0	1.417746E+0	1.385084E+0	1.449745E+0	1.421869E+0	1.355111E+0	1.454316E+0	1.470324E+0	1.462133E+0	1.430924E+0	1.450938E+0	1.439225E+0	1.384516E+0	1.398215E+0	1.454999E+0	1.403155E+0	1.392519E+0	1.355923E+0	1.461509E+0	1.409259E+0	1.434431E+0	1.448379E+0	1.428711E+0	1.379512E+0	1.467966E+0	1.371685E+0	1.374791E+0	1.428528E+0	1.465684E+0	1.393642E+0	1.454131E+0	1.439440E+0	1.345315E+0	1.397980E+0	1.413777E+0	1.435674E+0	1.409245E+0	1.393395E+0	1.424617E+0	1.408749E+0	1.371589E+0	1.456173E+0	1.389176E+0	1.488178E+0	1.453556E+0	1.428315E+0	1.424229E+0	1.448329E+0	1.402834E+0	1.383384E+0	1.330541E+0	1.400703E+0	1.396719E+0	1.417941E+0	1.354718E+0	1.407152E+0	1.307336E+0	1.447606E+0	1.456758E+0	1.434557E+0	1.312346E+0	1.453672E+0	1.376637E+0	1.398872E+0	1.377768E+0	1.344702E+0	1.412242E+0	1.480986E+0	1.392797E+0	1.444137E+0	1.436683E+0	1.439207E+0	1.406899E+0	1.435825E+0	1.366021E+0	1.431118E+0	1.404481E+0	1.381976E+0	1.370758E+0	1.357926E+0	1.350925E+0	1.462435E+0	1.462998E+0	1.425725E+0	1.437375E+0	1.389414E+0	1.414420E+0	1.413230E+0	1.405737E+0	1.346949E+0	1.341124E+0	1.451939E+0	1.408252E+0	1.377536E+0	1.348693E+0	1.375911E+0	1.407265E+0	1.429916E+0	1.381038E+0	1.403069E+0	1.409262E+0	1.366949E+0	1.448765E+0	1.379868E+0	1.306928E+0	1.387482E+0	1.382910E+0	1.455459E+0	1.352486E+0	1.436707E+0	1.410573E+0	1.439867E+0	1.397716E+0	1.439737E+0	1.384692E+0	1.414584E+0	1.371482E+0	1.446421E+0	1.452884E+0	1.402636E+0	1.430452E+0	1.385398E+0	1.376760E+0	1.374608E+0	1.336320E+0	1.408316E+0	1.367175E+0	1.321159E+0	1.375529E+0
5.384110E+2	1.704239E+0	1.703368E+0	1.703954E+0	1.650269E+0	1.662189E+0	1.600204E+0	1.659631E+0	1.658182E+0	1.670700E+0	1.542441E+0	1.682397E+0	1.643749E+0	1.763480E+0	1.720033E+0	1.634638E+0	1.715757E+0	1.668321E+0	1.665430E+0	1.652829E+0	1.680436E+0	1.665508E+0	1.743716E+0	1.607158E+0	1.702447E+0	1.687510E+0	1.634167E+0	1.618897E+0	1.656766E+0	1.579671E+0	1.644959E+0	1.607112E+0	1.668650E+0	1.668991E+0	1.570567E+0	1.641595E+0	1.698349E+0	1.624847E+0	1.701693E+0	1.627188E+0	1.616078E+0	1.690094E+0	1.612673E+0	1.650202E+0	1.612828E+0	1.620233E+0	1.706185E+0	1.604535E+0	1.665411E+0	1.684644E+0	1.622641E+0	1.629786E+0	1.671746E+0	1.729971E+0	1.697294E+0	1.683518E+0	1.604667E+0	1.675608E+0	1.698534E+0	1.663140E+0	1.655309E+0	1.646742E+0	1.723447E+0	1.593376E+0	1.659597E+0	1.672976E+0	1.710666E+0	1.684516E+0	1.669980E+0	1.657237E+0	1.632176E+0	1.668114E+0	1.601624E+0	1.726081E+0	1.661661E+0	1.624780E+0	1.617870E+0	1.684704E+0	1.572934E+0	1.664779E+0	1.686205E+0	1.707052E+0	1.626319E+0	1.711125E+0	1.675061E+0	1.735872E+0	1.677655E+0	1.590491E+0	1.663716E+0	1.662558E+0	1.640035E+0	1.666391E+0	1.628142E+0	1.671157E+0	1.651333E+0	1.642239E+0	1.630102E+0	1.644604E+0	1.584906E+0	1.700567E+0	1.677971E+0	1.651264E+0	1.580259E+0	1.574997E+0	1.686138E+0	1.715516E+0	1.702843E+0	1.718946E+0	1.684078E+0	1.554195E+0	1.647277E+0	1.705376E+0	1.572370E+0	1.703661E+0	1.685559E+0	1.627845E+0	1.690159E+0	1.620795E+0	1.496874E+0	1.608452E+0	1.596523E+0	1.677136E+0	1.653276E+0	1.663587E+0	1.589799E+0	1.610919E+0	1.680081E+0	1.629987E+0	1.578279E+0	1.606865E+0	1.677551E+0	1.659646E+0	1.608383E+0	1.643011E+0	1.626340E+0	1.535822E+0	1.621828E+0	1.547084E+0	1.530727E+0	1.592639E+0	1.715963E+0	1.635154E+0	1.559418E+0	1.670622E+0	1.743408E+0	1.747004E+0	1.478754E+0	1.591810E+0	1.594876E+0	1.670718E+0	1.532387E+0	1.617166E+0	1.701355E+0	1.724504E+0	1.608878E+0	1.649583E+0	1.572204E+0	1.684217E+0	1.628164E+0	1.585666E+0	1.685247E+0	1.634201E+0	1.536566E+0	1.569850E+0	1.532063E+0	1.455637E+0	1.543585E+0
5.386060E+2	1.631525E+0	1.591693E+0	1.598026E+0	1.682834E+0	1.565636E+0	1.530081E+0	1.635422E+0	1.550559E+0	1.603983E+0	1.602151E+0	1.594342E+0	1.646535E+0	1.616665E+0	1.606117E+0	1.592803E+0	1.624438E+0	1.617217E+0	1.646583E+0	1.552183E+0	1.625362E+0	1.550208E+0	1.630273E+0	1.583778E+0	1.575596E+0	1.642830E+0	1.597914E+0	1.538551E+0	1.650597E+0	1.565643E+0	1.591725E+0	1.644909E+0	1.584939E+0	1.588642E+0	1.567994E+0	1.564560E+0	1.699486E+0	1.611091E+0	1.541678E+0	1.514030E+0	1.557484E+0	1.591216E+0	1.634082E+0	1.582538E+0	1.559445E+0	1.559121E+0	1.599228E+0	1.606975E+0	1.613255E+0	1.592882E+0	1.542518E+0	1.601020E+0	1.641251E+0	1.547636E+0	1.564866E+0	1.601088E+0	1.629150E+0	1.609997E+0	1.560813E+0	1.641923E+0	1.598414E+0	1.528778E+0	1.615138E+0	1.585534E+0	1.577383E+0	1.589773E+0	1.633021E+0	1.603078E+0	1.505773E+0	1.618792E+0	1.542745E+0	1.535315E+0	1.534748E+0	1.644963E+0	1.565712E+0	1.592153E+0	1.618825E+0	1.624904E+0	1.572020E+0	1.604082E+0	1.615239E+0	1.626309E+0	1.607358E+0	1.645690E+0	1.602627E+0	1.574487E+0	1.568844E+0	1.518761E+0	1.545023E+0	1.636321E+0	1.603698E+0	1.604659E+0	1.603846E+0	1.659520E+0	1.551197E+0	1.550845E+0	1.599654E+0	1.622065E+0	1.548962E+0	1.688273E+0	1.629200E+0	1.548458E+0	1.501464E+0	1.527530E+0	1.650773E+0	1.602212E+0	1.592866E+0	1.638150E+0	1.644335E+0	1.588319E+0	1.590236E+0	1.601548E+0	1.583168E+0	1.596637E+0	1.572191E+0	1.592313E+0	1.646600E+0	1.554789E+0	1.515760E+0	1.565229E+0	1.574491E+0	1.517186E+0	1.586508E+0	1.579869E+0	1.538910E+0	1.543571E+0	1.578932E+0	1.565506E+0	1.544295E+0	1.535966E+0	1.537904E+0	1.539343E+0	1.595270E+0	1.599919E+0	1.612629E+0	1.553606E+0	1.536653E+0	1.509563E+0	1.455845E+0	1.509572E+0	1.648214E+0	1.532681E+0	1.528422E+0	1.611721E+0	1.540386E+0	1.617112E+0	1.519890E+0	1.535384E+0	1.528483E+0	1.527388E+0	1.517587E+0	1.511115E+0	1.578109E+0	1.600305E+0	1.557779E+0	1.613761E+0	1.565995E+0	1.583966E+0	1.519967E+0	1.525192E+0	1.559766E+0	1.485555E+0	1.527857E+0	1.620275E+0	1.602104E+0	1.506487E+0	1.541376E+0
5.388120E+2	1.460307E+0	1.427991E+0	1.366488E+0	1.340586E+0	1.372741E+0	1.341263E+0	1.370071E+0	1.408029E+0	1.369943E+0	1.379050E+0	1.401554E+0	1.508863E+0	1.439086E+0	1.431261E+0	1.430495E+0	1.408738E+0	1.429952E+0	1.395255E+0	1.408438E+0	1.389708E+0	1.444040E+0	1.385169E+0	1.321206E+0	1.363187E+0	1.405943E+0	1.384205E+0	1.404168E+0	1.472457E+0	1.386415E+0	1.411671E+0	1.409325E+0	1.413243E+0	1.452212E+0	1.428303E+0	1.384925E+0	1.442109E+0	1.399526E+0	1.367129E+0	1.391918E+0	1.353559E+0	1.382269E+0	1.435238E+0	1.411176E+0	1.377510E+0	1.416671E+0	1.422202E+0	1.366459E+0	1.375538E+0	1.416340E+0	1.449846E+0	1.379900E+0	1.387445E+0	1.398424E+0	1.360834E+0	1.396235E+0	1.455777E+0	1.454583E+0	1.415069E+0	1.418586E+0	1.389600E+0	1.390092E+0	1.428439E+0	1.375394E+0	1.388188E+0	1.364088E+0	1.453963E+0	1.372185E+0	1.418131E+0	1.389100E+0	1.376803E+0	1.456253E+0	1.392176E+0	1.424195E+0	1.424421E+0	1.362560E+0	1.438558E+0	1.429149E+0	1.414643E+0	1.475348E+0	1.385315E+0	1.491124E+0	1.475518E+0	1.359764E+0	1.369887E+0	1.367689E+0	1.389785E+0	1.367841E+0	1.352405E+0	1.423766E+0	1.365036E+0	1.415227E+0	1.457589E+0	1.350747E+0	1.417873E+0	1.442634E+0	1.432319E+0	1.360866E+0	1.290361E+0	1.408717E+0	1.486276E+0	1.425181E+0	1.352956E+0	1.340863E+0	1.423771E+0	1.431779E+0	1.458560E+0	1.371912E+0	1.377108E+0	1.371203E+0	1.397320E+0	1.460363E+0	1.388529E+0	1.337360E+0	1.429119E+0	1.345936E+0	1.373325E+0	1.359541E+0	1.372377E+0	1.431695E+0	1.404384E+0	1.409322E+0	1.345528E+0	1.358523E+0	1.378539E+0	1.328619E+0	1.362426E+0	1.319688E+0	1.352546E+0	1.427910E+0	1.390784E+0	1.395536E+0	1.359805E+0	1.416831E+0	1.280905E+0	1.398647E+0	1.402448E+0	1.381883E+0	1.355968E+0	1.394407E+0	1.376786E+0	1.469936E+0	1.365231E+0	1.331309E+0	1.384959E+0	1.393506E+0	1.332738E+0	1.401917E+0	1.409286E+0	1.374239E+0	1.401950E+0	1.416664E+0	1.443850E+0	1.483921E+0	1.360399E+0	1.397318E+0	1.453307E+0	1.366589E+0	1.364219E+0	1.324008E+0	1.401985E+0	1.401330E+0	1.362366E+0	1.444727E+0	1.316728E+0	1.299653E+0	1.375098E+0
5.390080E+2	1.255325E+0	1.217009E+0	1.265475E+0	1.284844E+0	1.196892E+0	1.209877E+0	1.202312E+0	1.273056E+0	1.205402E+0	1.252480E+0	1.213770E+0	1.229904E+0	1.266195E+0	1.290296E+0	1.198222E+0	1.196426E+0	1.228261E+0	1.214135E+0	1.183565E+0	1.267490E+0	1.262043E+0	1.240583E+0	1.288940E+0	1.199210E+0	1.277232E+0	1.198537E+0	1.213943E+0	1.196690E+0	1.203944E+0	1.270196E+0	1.227547E+0	1.193488E+0	1.238553E+0	1.192842E+0	1.242114E+0	1.224106E+0	1.223755E+0	1.217728E+0	1.215802E+0	1.169177E+0	1.276005E+0	1.265199E+0	1.191205E+0	1.217041E+0	1.217836E+0	1.228118E+0	1.272281E+0	1.272633E+0	1.227369E+0	1.236482E+0	1.202881E+0	1.233743E+0	1.254516E+0	1.214469E+0	1.213776E+0	1.261276E+0	1.196448E+0	1.263942E+0	1.297778E+0	1.228156E+0	1.197392E+0	1.283488E+0	1.218863E+0	1.286843E+0	1.244278E+0	1.222541E+0	1.182603E+0	1.229226E+0	1.230502E+0	1.201661E+0	1.204159E+0	1.229774E+0	1.276903E+0	1.212999E+0	1.273567E+0	1.189765E+0	1.261351E+0	1.167819E+0	1.256918E+0	1.242578E+0	1.293199E+0	1.158800E+0	1.250219E+0	1.279528E+0	1.244743E+0	1.261336E+0	1.185456E+0	1.187007E+0	1.228929E+0	1.218862E+0	1.234799E+0	1.293478E+0	1.196703E+0	1.220010E+0	1.239031E+0	1.238219E+0	1.239220E+0	1.160563E+0	1.278076E+0	1.302639E+0	1.226554E+0	1.204566E+0	1.263188E+0	1.212919E+0	1.220165E+0	1.235395E+0	1.308543E+0	1.238809E+0	1.177224E+0	1.219649E+0	1.266574E+0	1.224307E+0	1.260448E+0	1.233016E+0	1.268024E+0	1.260694E+0	1.172277E+0	1.213763E+0	1.230182E+0	1.272567E+0	1.225528E+0	1.237181E+0	1.188464E+0	1.220143E+0	1.206622E+0	1.230478E+0	1.223557E+0	1.216664E+0	1.240960E+0	1.261758E+0	1.195250E+0	1.239634E+0	1.257986E+0	1.233413E+0	1.139324E+0	1.217891E+0	1.259288E+0	1.190393E+0	1.184882E+0	1.224259E+0	1.239358E+0	1.204742E+0	1.212524E+0	1.236137E+0	1.320067E+0	1.199561E+0	1.199295E+0	1.294341E+0	1.205677E+0	1.233197E+0	1.212929E+0	1.238648E+0	1.317157E+0	1.228231E+0	1.216181E+0	1.243949E+0	1.233747E+0	1.205310E+0	1.167451E+0	1.212283E+0	1.218903E+0	1.173831E+0	1.248233E+0	1.193015E+0	1.167124E+0	1.222904E+0
5.392090E+2	1.103849E+0	1.173768E+0	1.182842E+0	1.065726E+0	1.049617E+0	1.052281E+0	1.145134E+0	1.094034E+0	1.066316E+0	1.089234E+0	1.068133E+0	1.123464E+0	1.149119E+0	1.131717E+0	1.040217E+0	1.087744E+0	1.119585E+0	1.083193E+0	1.101084E+0	1.057874E+0	1.115722E+0	1.138785E+0	1.054107E+0	1.100362E+0	1.113725E+0	1.064723E+0	1.074969E+0	1.118912E+0	1.106694E+0	1.115677E+0	1.021934E+0	1.056756E+0	1.154562E+0	1.088013E+0	1.057173E+0	1.176604E+0	1.093217E+0	1.123048E+0	1.056518E+0	1.102665E+0	1.115286E+0	1.101231E+0	1.048385E+0	1.145830E+0	1.088709E+0	1.128342E+0	1.117833E+0	1.029098E+0	1.145979E+0	1.127026E+0	1.085399E+0	1.066970E+0	1.094506E+0	1.085134E+0	1.074181E+0	1.099556E+0	1.148002E+0	1.070176E+0	1.102957E+0	1.106956E+0	1.061672E+0	1.074282E+0	1.039029E+0	1.036852E+0	1.120860E+0	1.106515E+0	1.088257E+0	1.088590E+0	1.129591E+0	1.068032E+0	1.093287E+0	1.047447E+0	1.134403E+0	1.146868E+0	1.133403E+0	1.062711E+0	1.159100E+0	1.021930E+0	1.119418E+0	1.045074E+0	1.191229E+0	1.151053E+0	1.135087E+0	1.101211E+0	1.144873E+0	1.072833E+0	1.097401E+0	1.112695E+0	1.103850E+0	1.107362E+0	1.031355E+0	1.086953E+0	1.113278E+0	1.136325E+0	1.069849E+0	1.160866E+0	1.105261E+0	1.009919E+0	1.134723E+0	1.124313E+0	1.090250E+0	1.084767E+0	1.141382E+0	1.139363E+0	1.111553E+0	1.101738E+0	1.168711E+0	1.093526E+0	1.095847E+0	1.085377E+0	1.093476E+0	1.079421E+0	1.098277E+0	1.110892E+0	1.171460E+0	1.075055E+0	1.078053E+0	1.020907E+0	1.121124E+0	1.117487E+0	1.075859E+0	1.127629E+0	1.061156E+0	1.074542E+0	1.101298E+0	1.047419E+0	1.074980E+0	1.110707E+0	1.149705E+0	1.115846E+0	1.033880E+0	1.047591E+0	1.116104E+0	1.053229E+0	9.825772E-1	1.098775E+0	1.067293E+0	1.070430E+0	1.041572E+0	1.135123E+0	1.151931E+0	1.003789E+0	1.087997E+0	1.117793E+0	1.115232E+0	1.077183E+0	1.128382E+0	1.133224E+0	1.098559E+0	1.083526E+0	1.091621E+0	1.103147E+0	1.092982E+0	1.078241E+0	1.115518E+0	1.097128E+0	1.105956E+0	1.105758E+0	1.118725E+0	1.082316E+0	1.053059E+0	1.058306E+0	1.095859E+0	1.088166E+0	1.070014E+0	9.192650E-1
5.394100E+2	1.065852E+0	1.031137E+0	1.085699E+0	1.078092E+0	1.019949E+0	1.059313E+0	1.038078E+0	1.050811E+0	1.009915E+0	1.002700E+0	1.067427E+0	1.008941E+0	1.046554E+0	1.124939E+0	1.075886E+0	1.068418E+0	1.043192E+0	1.047643E+0	1.051883E+0	1.063674E+0	1.091050E+0	1.069090E+0	1.070650E+0	1.004907E+0	1.115427E+0	1.031864E+0	1.035854E+0	1.055116E+0	1.030795E+0	1.044436E+0	1.016492E+0	1.030451E+0	1.027805E+0	1.005537E+0	1.058421E+0	1.042067E+0	1.081268E+0	9.661236E-1	1.002337E+0	1.055658E+0	1.049615E+0	1.078326E+0	1.019447E+0	1.038678E+0	1.070371E+0	1.054377E+0	1.076630E+0	1.048602E+0	1.080282E+0	1.035277E+0	1.036540E+0	1.078477E+0	1.097577E+0	1.048254E+0	1.050988E+0	1.043937E+0	1.063179E+0	1.063122E+0	1.078846E+0	1.098174E+0	1.054507E+0	1.036147E+0	1.051699E+0	1.025498E+0	1.118648E+0	1.077178E+0	1.068231E+0	1.071862E+0	1.075012E+0	1.071944E+0	1.086540E+0	1.039593E+0	1.079140E+0	1.063522E+0	1.022161E+0	1.107099E+0	1.155344E+0	1.061678E+0	1.115901E+0	1.004352E+0	1.079645E+0	1.034990E+0	1.036331E+0	1.063077E+0	1.128733E+0	1.040148E+0	1.058226E+0	1.025251E+0	1.016465E+0	1.085075E+0	1.105949E+0	1.067290E+0	1.029601E+0	9.981899E-1	1.068937E+0	1.080654E+0	1.081989E+0	9.795397E-1	1.067120E+0	1.080365E+0	1.039365E+0	9.974797E-1	1.021497E+0	1.064137E+0	1.042236E+0	1.087303E+0	1.108934E+0	1.045931E+0	1.025956E+0	1.034105E+0	9.962114E-1	1.065668E+0	1.092006E+0	1.095146E+0	1.070549E+0	1.079910E+0	1.048760E+0	1.002430E+0	1.064263E+0	1.080625E+0	1.022393E+0	1.089314E+0	1.094822E+0	1.027834E+0	1.092890E+0	1.019757E+0	1.044016E+0	1.008295E+0	1.062808E+0	1.039759E+0	1.071022E+0	1.020020E+0	1.120742E+0	1.030829E+0	9.957577E-1	9.982825E-1	1.061738E+0	1.049646E+0	1.060698E+0	1.082272E+0	1.061347E+0	1.004136E+0	1.069722E+0	1.068105E+0	1.133821E+0	1.017996E+0	1.051892E+0	1.021024E+0	1.012307E+0	1.043579E+0	1.015162E+0	1.046219E+0	1.105997E+0	1.041748E+0	1.100203E+0	1.073196E+0	1.043366E+0	1.092662E+0	1.009451E+0	1.050520E+0	9.820890E-1	9.910470E-1	1.067223E+0	1.029875E+0	1.060809E+0	9.411283E-1
5.396110E+2	9.942788E-1	1.013334E+0	1.026011E+0	1.048391E+0	1.036862E+0	9.705482E-1	9.991878E-1	9.910762E-1	1.020608E+0	9.585344E-1	1.002333E+0	1.022003E+0	1.011646E+0	1.084888E+0	9.657340E-1	9.682772E-1	1.056855E+0	1.012407E+0	1.001131E+0	9.830036E-1	1.039068E+0	1.058339E+0	1.003817E+0	9.780052E-1	1.009675E+0	1.042603E+0	9.894418E-1	1.012306E+0	1.041729E+0	1.032295E+0	1.027018E+0	1.017635E+0	1.029431E+0	1.013152E+0	1.017550E+0	1.021887E+0	1.027380E+0	9.879598E-1	1.031576E+0	9.485100E-1	1.052481E+0	1.019529E+0	1.002762E+0	1.059304E+0	1.076432E+0	1.027626E+0	9.969395E-1	1.068871E+0	1.022432E+0	9.680774E-1	9.969520E-1	1.072082E+0	1.025597E+0	1.010983E+0	1.017379E+0	1.061506E+0	1.041660E+0	1.014752E+0	1.017555E+0	1.063406E+0	9.895209E-1	1.025077E+0	1.016010E+0	9.759988E-1	1.019175E+0	1.050386E+0	9.993034E-1	1.047093E+0	1.050032E+0	9.998075E-1	9.814457E-1	1.040968E+0	1.101131E+0	1.061955E+0	1.075952E+0	1.035647E+0	1.012938E+0	1.038225E+0	1.028558E+0	1.050996E+0	1.092916E+0	1.055739E+0	1.046008E+0	1.044774E+0	1.015517E+0	1.039113E+0	9.935013E-1	1.020803E+0	1.009340E+0	1.016470E+0	9.798582E-1	1.014308E+0	1.049843E+0	1.028557E+0	9.930058E-1	1.025146E+0	9.901308E-1	1.040025E+0	1.045338E+0	1.015512E+0	1.015632E+0	1.013307E+0	1.026584E+0	1.020767E+0	1.018588E+0	1.066351E+0	1.076752E+0	9.548619E-1	1.067060E+0	1.038421E+0	1.024284E+0	1.020650E+0	1.064119E+0	1.062577E+0	1.029470E+0	9.724569E-1	1.038236E+0	9.677852E-1	1.061197E+0	1.051728E+0	1.010556E+0	9.875608E-1	1.031723E+0	1.018309E+0	1.052341E+0	1.046365E+0	9.808286E-1	9.949308E-1	1.038784E+0	9.951129E-1	9.858997E-1	9.699534E-1	1.045989E+0	1.016078E+0	9.848033E-1	1.046379E+0	9.735708E-1	1.024705E+0	9.951412E-1	1.005465E+0	1.033806E+0	1.008363E+0	1.033377E+0	9.773269E-1	1.034396E+0	9.949441E-1	9.847261E-1	1.009616E+0	1.086625E+0	1.029883E+0	1.016001E+0	1.024836E+0	1.062092E+0	1.059725E+0	1.044353E+0	1.046594E+0	1.054461E+0	1.038406E+0	1.021911E+0	1.003590E+0	1.024292E+0	9.939500E-1	9.998445E-1	9.900644E-1	9.387716E-1	9.796651E-1
5.398180E+2	7.986000E-1	7.824297E-1	8.226344E-1	8.160002E-1	7.882556E-1	7.862843E-1	8.502874E-1	8.392790E-1	7.875642E-1	8.155601E-1	8.272136E-1	8.192765E-1	8.292169E-1	8.386547E-1	7.863890E-1	7.999936E-1	8.128153E-1	8.497340E-1	8.221905E-1	7.814482E-1	8.163250E-1	8.123112E-1	8.069103E-1	7.716061E-1	8.200686E-1	7.919995E-1	7.922251E-1	8.196728E-1	8.389943E-1	8.503149E-1	8.539815E-1	7.840204E-1	8.049369E-1	8.014513E-1	7.979240E-1	8.166099E-1	7.835957E-1	8.006601E-1	7.918610E-1	7.668927E-1	8.234644E-1	8.207273E-1	7.660623E-1	8.241470E-1	8.359607E-1	7.835578E-1	8.049838E-1	8.517982E-1	8.604720E-1	8.096978E-1	7.776244E-1	8.307866E-1	8.130877E-1	8.006594E-1	8.097918E-1	8.172053E-1	8.410715E-1	8.352465E-1	7.883622E-1	8.186697E-1	8.021963E-1	8.547504E-1	7.940661E-1	7.507560E-1	7.798308E-1	8.289344E-1	7.646076E-1	7.645165E-1	7.937927E-1	8.464487E-1	8.038832E-1	7.913824E-1	8.560276E-1	7.695153E-1	7.285924E-1	7.627088E-1	8.224365E-1	7.622284E-1	8.415570E-1	8.256912E-1	8.347794E-1	8.379130E-1	8.140160E-1	8.137816E-1	7.859982E-1	7.803131E-1	8.185004E-1	7.840567E-1	8.107544E-1	8.159098E-1	7.923041E-1	7.897578E-1	8.324540E-1	7.943263E-1	8.534142E-1	7.872797E-1	8.321089E-1	7.838072E-1	8.291069E-1	8.145158E-1	7.829300E-1	7.766178E-1	8.175977E-1	8.330794E-1	7.950997E-1	8.202489E-1	8.449743E-1	8.253864E-1	7.729918E-1	8.334885E-1	8.565847E-1	7.871803E-1	8.303227E-1	7.564324E-1	7.938482E-1	8.168138E-1	7.686710E-1	7.438858E-1	8.192895E-1	7.501182E-1	8.137148E-1	8.125030E-1	8.159211E-1	8.090934E-1	8.047537E-1	7.827368E-1	7.985996E-1	8.114156E-1	8.656384E-1	7.932402E-1	8.111864E-1	7.443838E-1	8.309270E-1	7.788902E-1	7.784164E-1	7.739235E-1	7.637981E-1	7.546630E-1	7.781911E-1	9.054161E-1	8.473962E-1	8.230919E-1	7.814411E-1	8.124870E-1	8.379439E-1	7.589669E-1	8.030924E-1	8.211984E-1	7.892686E-1	7.816001E-1	8.221771E-1	8.362786E-1	8.147041E-1	7.607196E-1	8.018616E-1	8.262317E-1	7.946611E-1	8.186567E-1	7.987752E-1	7.933472E-1	8.199222E-1	7.557900E-1	7.966312E-1	7.151998E-1	8.258435E-1	7.670922E-1
5.400140E+2	6.321063E-1	6.915252E-1	7.030561E-1	6.901769E-1	6.785412E-1	6.610342E-1	6.542414E-1	6.566366E-1	6.621634E-1	5.814662E-1	6.709831E-1	7.047145E-1	6.915529E-1	7.002062E-1	6.770069E-1	6.685747E-1	6.848185E-1	7.086073E-1	6.283443E-1	6.776852E-1	7.357287E-1	7.003962E-1	6.352203E-1	6.524908E-1	6.812757E-1	6.440550E-1	6.990587E-1	6.772344E-1	7.273577E-1	6.621779E-1	6.590796E-1	6.703494E-1	6.533225E-1	7.101563E-1	6.697820E-1	7.034838E-1	7.148949E-1	6.541368E-1	6.649560E-1	6.575443E-1	6.322461E-1	6.454708E-1	7.043117E-1	6.929614E-1	7.058437E-1	6.412017E-1	6.624657E-1	6.510741E-1	6.774781E-1	7.016555E-1	6.636710E-1	6.608750E-1	6.944200E-1	7.495606E-1	6.401393E-1	6.526147E-1	6.373247E-1	6.692203E-1	6.626195E-1	6.653349E-1	6.425239E-1	6.931957E-1	6.766317E-1	6.775510E-1	6.799427E-1	6.571164E-1	6.970325E-1	6.417703E-1	7.089843E-1	6.617395E-1	6.551233E-1	6.591968E-1	6.944511E-1	6.361184E-1	6.438896E-1	6.759016E-1	7.201549E-1	6.618229E-1	6.265031E-1	6.087243E-1	6.623286E-1	7.000917E-1	6.812566E-1	7.066265E-1	6.723650E-1	6.797864E-1	6.612743E-1	6.785866E-1	7.002608E-1	6.715208E-1	6.814569E-1	6.598692E-1	6.784436E-1	6.458248E-1	7.510165E-1	7.032282E-1	6.499471E-1	6.569547E-1	7.013697E-1	6.754010E-1	6.992155E-1	7.241933E-1	6.797135E-1	7.287641E-1	6.809681E-1	6.813767E-1	6.777715E-1	6.855923E-1	6.652658E-1	6.782303E-1	6.912028E-1	6.865540E-1	6.846542E-1	6.806358E-1	6.861983E-1	6.452221E-1	6.642113E-1	6.178344E-1	6.541529E-1	7.131022E-1	7.232463E-1	6.896545E-1	6.925494E-1	6.825300E-1	6.570221E-1	6.985528E-1	6.471949E-1	6.427056E-1	6.851956E-1	6.697678E-1	6.823616E-1	6.411024E-1	6.872769E-1	6.528214E-1	6.412579E-1	6.559120E-1	6.418136E-1	6.459338E-1	6.676755E-1	6.970748E-1	6.330228E-1	6.529358E-1	6.222658E-1	6.676945E-1	7.308374E-1	5.861827E-1	6.669469E-1	6.466463E-1	6.630034E-1	6.549096E-1	6.396943E-1	6.953857E-1	7.050945E-1	6.800682E-1	6.395000E-1	6.781674E-1	7.266088E-1	6.521777E-1	7.109429E-1	7.071200E-1	6.667131E-1	6.289777E-1	7.015686E-1	7.146785E-1	6.408179E-1	7.463836E-1
5.402100E+2	5.346894E-1	5.071997E-1	5.385264E-1	5.440877E-1	5.296145E-1	4.958032E-1	5.344784E-1	5.685626E-1	5.406277E-1	5.187432E-1	5.471460E-1	5.574457E-1	4.995574E-1	5.415829E-1	5.693423E-1	5.610111E-1	5.138159E-1	5.205668E-1	5.596997E-1	5.480635E-1	5.298312E-1	5.626203E-1	5.154224E-1	5.215836E-1	5.542748E-1	5.660267E-1	5.404650E-1	5.127011E-1	5.029000E-1	5.733437E-1	5.322032E-1	5.252227E-1	5.076130E-1	5.062999E-1	5.681907E-1	5.250245E-1	5.672438E-1	5.412357E-1	5.585648E-1	5.514440E-1	4.944319E-1	5.015621E-1	5.094005E-1	5.266479E-1	5.251027E-1	5.232140E-1	5.594107E-1	5.327393E-1	5.782065E-1	5.235246E-1	5.981346E-1	5.487460E-1	5.581094E-1	5.666468E-1	5.402942E-1	5.420181E-1	5.429127E-1	5.270330E-1	5.522761E-1	5.298785E-1	5.263866E-1	5.477787E-1	5.473203E-1	5.327309E-1	5.468649E-1	5.957708E-1	5.247192E-1	5.240378E-1	5.313969E-1	5.163292E-1	4.899442E-1	5.116049E-1	5.795257E-1	5.154682E-1	5.098506E-1	5.218191E-1	5.619636E-1	5.509817E-1	5.642859E-1	5.844677E-1	5.732693E-1	5.281866E-1	5.730457E-1	5.492331E-1	5.700947E-1	5.576508E-1	5.374931E-1	5.342012E-1	5.596472E-1	5.048827E-1	5.362332E-1	5.409322E-1	5.374319E-1	5.473096E-1	5.450451E-1	5.485093E-1	5.677329E-1	5.294494E-1	5.592132E-1	5.651122E-1	5.629982E-1	5.028116E-1	5.200838E-1	5.495396E-1	5.220156E-1	5.820307E-1	5.503622E-1	5.104500E-1	5.361994E-1	4.855129E-1	4.916316E-1	5.233436E-1	5.418521E-1	5.309812E-1	5.433965E-1	4.870588E-1	5.469497E-1	5.189520E-1	5.648654E-1	5.385658E-1	5.747526E-1	5.892403E-1	5.227056E-1	5.387210E-1	5.449709E-1	5.803912E-1	5.213629E-1	5.521352E-1	5.680845E-1	5.196627E-1	5.309719E-1	5.163980E-1	5.433451E-1	5.280908E-1	5.079476E-1	5.345030E-1	5.712255E-1	5.018513E-1	5.135669E-1	5.581781E-1	5.937045E-1	5.462245E-1	5.288831E-1	5.514469E-1	5.668193E-1	5.506967E-1	5.750980E-1	5.169795E-1	5.510100E-1	5.758923E-1	5.318345E-1	5.542634E-1	5.550054E-1	5.351961E-1	5.736671E-1	5.505954E-1	5.578912E-1	5.303740E-1	5.512039E-1	5.004771E-1	5.336193E-1	5.108467E-1	4.837148E-1	4.856295E-1	5.576251E-1	5.120489E-1
5.404120E+2	4.877687E-1	4.799897E-1	4.811469E-1	5.107771E-1	5.004650E-1	4.434639E-1	5.059417E-1	4.569423E-1	4.536421E-1	4.714832E-1	4.748492E-1	4.733543E-1	4.771166E-1	5.020388E-1	4.674061E-1	4.883643E-1	4.626337E-1	4.751940E-1	4.580998E-1	4.638207E-1	5.076565E-1	4.934512E-1	5.086109E-1	4.925324E-1	5.246776E-1	4.544774E-1	4.963556E-1	5.208621E-1	4.791541E-1	4.978194E-1	4.660708E-1	4.747912E-1	5.257363E-1	4.757525E-1	4.899693E-1	5.017210E-1	4.939019E-1	4.900673E-1	5.059592E-1	5.035876E-1	4.434355E-1	5.356170E-1	4.878484E-1	4.880321E-1	5.331773E-1	5.502911E-1	4.558613E-1	4.866912E-1	5.063062E-1	4.783784E-1	4.711638E-1	4.953077E-1	5.061972E-1	5.324830E-1	4.738470E-1	5.493832E-1	4.494132E-1	5.410697E-1	4.921075E-1	4.460593E-1	4.797891E-1	4.975334E-1	5.039847E-1	4.594091E-1	5.083514E-1	4.622024E-1	5.070199E-1	4.561298E-1	5.191902E-1	4.595341E-1	5.150211E-1	4.700163E-1	4.981183E-1	5.037168E-1	4.551438E-1	4.760899E-1	5.168578E-1	4.893415E-1	4.723110E-1	5.028075E-1	5.318073E-1	4.841093E-1	4.774890E-1	5.232493E-1	4.916464E-1	4.891896E-1	4.756681E-1	4.836887E-1	4.688459E-1	5.246855E-1	5.004492E-1	5.116848E-1	5.152344E-1	5.243959E-1	5.092049E-1	4.815344E-1	5.096914E-1	4.502925E-1	5.165070E-1	4.506801E-1	4.785882E-1	4.980150E-1	4.504908E-1	4.694988E-1	4.456318E-1	4.745282E-1	4.809207E-1	4.951986E-1	4.892501E-1	5.122204E-1	4.715690E-1	4.859757E-1	4.873615E-1	4.912244E-1	4.712479E-1	4.891741E-1	4.682055E-1	4.569499E-1	4.782649E-1	4.832820E-1	4.863550E-1	4.712996E-1	4.904973E-1	4.395308E-1	4.933996E-1	4.776750E-1	4.778332E-1	4.868195E-1	4.932449E-1	5.067286E-1	4.877629E-1	5.029344E-1	5.115140E-1	4.920708E-1	4.630449E-1	4.581338E-1	4.748612E-1	4.988810E-1	4.612806E-1	4.963835E-1	4.770456E-1	4.798833E-1	4.832414E-1	5.056522E-1	4.955959E-1	4.928928E-1	4.764939E-1	4.939367E-1	4.945783E-1	4.888553E-1	4.957568E-1	5.133279E-1	4.843677E-1	4.796711E-1	4.612762E-1	5.077500E-1	4.613489E-1	4.863430E-1	5.238134E-1	4.986589E-1	4.996910E-1	4.789286E-1	4.818166E-1	5.060231E-1	4.169077E-1	4.100504E-1
5.406090E+2	4.800282E-1	4.491194E-1	4.960562E-1	4.515299E-1	4.440597E-1	4.707098E-1	4.485613E-1	4.690858E-1	4.699201E-1	4.812565E-1	4.587365E-1	4.851939E-1	4.841878E-1	4.864521E-1	4.832001E-1	4.672962E-1	4.613968E-1	4.850379E-1	5.062462E-1	5.219555E-1	4.769664E-1	5.007929E-1	5.041890E-1	4.867624E-1	5.122270E-1	4.971996E-1	4.811291E-1	4.930934E-1	4.811341E-1	4.862894E-1	4.461244E-1	4.394914E-1	5.006017E-1	4.776729E-1	5.233279E-1	4.907443E-1	4.089752E-1	4.870830E-1	5.037568E-1	4.871283E-1	4.866849E-1	4.916842E-1	4.765780E-1	4.803081E-1	4.928704E-1	4.918471E-1	4.772866E-1	4.953955E-1	4.754564E-1	4.770782E-1	5.143476E-1	4.688246E-1	5.034677E-1	4.574266E-1	4.521989E-1	5.044249E-1	4.694310E-1	5.102709E-1	4.787709E-1	4.950766E-1	4.454674E-1	5.056831E-1	4.729244E-1	4.682723E-1	4.326627E-1	4.864171E-1	4.655305E-1	4.523789E-1	4.770782E-1	4.870189E-1	5.164777E-1	4.671293E-1	4.896896E-1	4.744302E-1	4.535098E-1	4.744559E-1	4.551378E-1	4.442872E-1	5.098238E-1	4.449177E-1	5.268705E-1	4.934208E-1	4.711713E-1	4.976055E-1	4.631845E-1	4.855248E-1	4.696433E-1	4.766203E-1	4.884308E-1	4.683451E-1	4.752653E-1	4.615328E-1	5.259338E-1	4.612880E-1	4.643531E-1	5.068665E-1	4.502566E-1	4.565358E-1	5.145434E-1	4.751165E-1	4.620572E-1	4.547412E-1	4.846225E-1	4.764764E-1	5.332323E-1	5.086947E-1	4.538868E-1	5.109937E-1	4.888053E-1	4.595314E-1	4.722507E-1	4.565013E-1	4.865512E-1	4.758987E-1	4.874145E-1	4.746451E-1	4.380197E-1	4.611753E-1	5.149527E-1	4.900617E-1	5.269891E-1	5.037949E-1	4.816425E-1	4.758373E-1	4.775491E-1	4.747780E-1	4.824674E-1	4.779975E-1	4.774722E-1	4.921578E-1	4.890152E-1	4.640329E-1	4.958910E-1	4.920551E-1	4.841952E-1	4.652227E-1	4.797695E-1	4.589370E-1	4.523215E-1	4.580579E-1	4.933801E-1	4.584889E-1	4.750051E-1	5.361770E-1	4.966292E-1	4.549104E-1	4.862232E-1	4.737431E-1	4.946040E-1	4.840053E-1	4.398622E-1	4.804868E-1	4.877693E-1	5.125020E-1	5.258569E-1	4.646710E-1	5.032852E-1	5.023713E-1	4.711557E-1	4.604228E-1	5.027493E-1	4.866105E-1	5.002760E-1	5.232593E-1	5.299813E-1	5.093424E-1
5.408060E+2	4.131921E-1	3.945613E-1	4.484601E-1	4.447293E-1	4.193138E-1	4.477686E-1	4.387992E-1	4.124096E-1	4.081954E-1	4.096127E-1	4.253818E-1	4.119401E-1	4.159167E-1	4.171126E-1	4.094937E-1	4.245603E-1	4.255118E-1	4.104679E-1	4.130198E-1	4.404750E-1	4.322149E-1	4.170487E-1	4.356568E-1	4.557682E-1	4.303585E-1	4.357624E-1	3.701755E-1	3.842191E-1	4.318975E-1	4.368866E-1	4.071423E-1	4.251132E-1	4.854222E-1	4.142710E-1	4.197387E-1	4.374570E-1	4.084941E-1	4.253519E-1	3.621655E-1	3.918276E-1	4.188760E-1	4.262887E-1	4.719915E-1	4.335485E-1	4.374966E-1	4.596130E-1	4.275780E-1	4.390312E-1	4.298742E-1	4.611061E-1	4.329996E-1	4.690409E-1	4.257062E-1	4.719888E-1	4.255683E-1	4.044464E-1	4.689018E-1	4.163672E-1	4.380864E-1	4.029157E-1	4.146758E-1	4.211751E-1	4.494187E-1	4.461231E-1	4.198176E-1	4.364685E-1	4.645323E-1	4.277536E-1	4.107423E-1	3.927714E-1	4.258362E-1	4.001398E-1	4.381097E-1	4.467034E-1	4.347893E-1	4.334216E-1	4.579919E-1	4.263633E-1	4.498563E-1	4.196793E-1	4.501265E-1	4.163813E-1	4.431831E-1	4.078174E-1	4.711911E-1	4.255549E-1	4.055644E-1	4.242774E-1	3.935860E-1	4.558810E-1	4.592001E-1	4.158246E-1	4.232210E-1	4.197389E-1	4.502820E-1	4.505058E-1	4.523117E-1	4.132560E-1	4.213057E-1	4.161300E-1	4.087228E-1	4.192735E-1	4.329311E-1	4.311736E-1	4.484330E-1	4.166670E-1	4.744205E-1	4.067074E-1	4.756228E-1	4.510873E-1	3.813654E-1	3.910745E-1	4.259099E-1	4.625274E-1	4.735826E-1	4.383572E-1	4.237745E-1	4.127199E-1	4.578353E-1	4.491394E-1	4.256500E-1	4.275579E-1	4.478984E-1	4.353092E-1	4.471649E-1	4.538183E-1	4.223467E-1	4.350075E-1	4.478583E-1	4.446414E-1	4.414226E-1	4.105132E-1	4.438246E-1	4.322370E-1	4.002071E-1	4.224678E-1	4.278086E-1	4.180991E-1	4.251930E-1	4.491047E-1	4.384308E-1	4.111571E-1	4.325383E-1	4.359307E-1	4.108628E-1	4.245667E-1	4.098930E-1	4.115304E-1	4.054942E-1	4.257605E-1	4.303571E-1	4.456857E-1	4.622965E-1	4.003307E-1	4.677976E-1	4.393900E-1	4.136309E-1	4.242560E-1	4.187403E-1	4.503843E-1	4.157013E-1	4.202196E-1	4.156313E-1	4.132828E-1	4.409918E-1	3.839012E-1
5.410240E+2	3.408245E-1	3.594694E-1	3.983033E-1	3.488720E-1	3.221180E-1	3.504951E-1	3.526943E-1	3.578817E-1	3.427598E-1	3.365070E-1	3.293696E-1	3.591079E-1	3.648339E-1	3.668014E-1	3.411789E-1	3.516584E-1	3.495170E-1	3.614203E-1	3.525884E-1	3.584440E-1	3.746825E-1	3.383515E-1	3.706372E-1	3.354479E-1	3.569804E-1	3.893344E-1	3.389782E-1	3.560166E-1	3.647293E-1	3.526437E-1	3.602553E-1	3.485749E-1	3.436623E-1	3.487224E-1	3.472319E-1	4.161843E-1	3.553940E-1	3.666245E-1	3.305887E-1	3.881408E-1	3.744819E-1	3.706003E-1	3.765724E-1	3.531213E-1	3.561272E-1	4.174333E-1	3.839373E-1	3.387164E-1	3.838955E-1	3.695635E-1	3.333625E-1	3.707937E-1	3.673290E-1	4.051887E-1	3.478849E-1	3.465656E-1	3.629126E-1	3.407400E-1	3.692413E-1	3.493948E-1	3.365508E-1	3.674161E-1	3.756430E-1	3.720386E-1	3.865168E-1	3.894380E-1	3.252595E-1	4.074840E-1	3.564208E-1	3.887971E-1	3.619260E-1	3.218721E-1	3.735346E-1	3.091881E-1	3.476920E-1	3.881530E-1	3.466597E-1	3.856220E-1	3.688178E-1	3.941486E-1	3.943556E-1	3.804302E-1	3.471416E-1	3.759950E-1	3.940447E-1	3.324257E-1	3.496622E-1	3.403593E-1	3.697518E-1	3.463473E-1	3.579602E-1	3.727932E-1	3.785481E-1	3.676507E-1	3.373102E-1	3.736900E-1	3.522483E-1	3.523252E-1	3.913351E-1	3.388313E-1	3.543845E-1	3.290059E-1	3.435848E-1	3.986372E-1	3.399389E-1	3.791050E-1	3.757607E-1	3.524367E-1	3.514450E-1	3.392246E-1	3.407501E-1	3.409219E-1	3.567185E-1	3.571291E-1	3.606382E-1	3.424203E-1	3.613956E-1	3.422755E-1	4.027595E-1	3.817582E-1	3.510011E-1	3.870751E-1	3.412827E-1	3.803055E-1	3.664719E-1	3.736505E-1	3.313084E-1	3.283521E-1	3.672743E-1	3.394706E-1	3.609965E-1	3.436035E-1	3.968243E-1	4.037071E-1	3.536771E-1	3.453505E-1	3.614568E-1	3.676449E-1	3.550059E-1	4.100096E-1	3.813602E-1	3.926459E-1	3.894283E-1	3.524025E-1	3.802088E-1	3.504711E-1	3.667421E-1	3.904520E-1	3.740360E-1	3.543141E-1	3.650981E-1	3.610720E-1	3.524007E-1	3.915655E-1	3.547877E-1	3.548114E-1	3.459924E-1	3.582808E-1	3.918121E-1	3.451568E-1	3.632385E-1	3.597796E-1	3.470975E-1	3.779592E-1	3.274873E-1	3.768104E-1
5.415040E+2	3.777381E-1	3.728254E-1	3.882272E-1	3.993226E-1	3.808484E-1	3.966816E-1	3.767898E-1	3.326906E-1	3.511932E-1	3.897004E-1	3.717485E-1	3.549741E-1	4.229437E-1	3.798199E-1	3.539753E-1	3.856481E-1	3.674213E-1	3.865727E-1	3.808827E-1	3.813767E-1	3.569077E-1	3.867158E-1	3.888498E-1	3.764206E-1	3.701569E-1	3.552199E-1	3.609299E-1	4.047695E-1	3.838679E-1	3.373432E-1	3.604610E-1	3.766667E-1	3.344901E-1	3.556967E-1	3.920042E-1	3.983199E-1	3.916767E-1	3.545181E-1	3.646733E-1	3.582718E-1	3.701450E-1	3.487711E-1	3.661487E-1	3.478391E-1	3.709952E-1	3.912611E-1	3.627714E-1	3.619007E-1	3.845427E-1	4.050409E-1	3.640592E-1	3.670519E-1	3.527040E-1	3.498343E-1	3.860310E-1	3.752394E-1	4.125864E-1	3.678064E-1	3.929966E-1	3.528467E-1	3.816381E-1	3.964906E-1	3.633731E-1	3.739280E-1	3.983125E-1	3.759344E-1	3.359310E-1	3.965040E-1	3.827088E-1	3.649314E-1	3.656392E-1	3.673713E-1	3.803811E-1	3.456881E-1	3.692294E-1	3.555864E-1	3.675165E-1	3.511292E-1	3.694877E-1	3.684638E-1	3.395534E-1	4.026862E-1	3.950062E-1	3.776448E-1	3.890612E-1	3.535774E-1	3.594135E-1	3.531712E-1	3.613907E-1	3.714705E-1	3.300213E-1	3.564209E-1	3.742743E-1	3.553068E-1	3.232117E-1	4.197566E-1	3.394742E-1	3.467468E-1	4.058579E-1	3.908312E-1	3.900585E-1	3.893871E-1	3.752854E-1	3.795933E-1	3.963347E-1	3.859978E-1	4.164108E-1	3.954590E-1	3.613982E-1	3.545122E-1	3.890502E-1	3.591845E-1	3.546246E-1	3.376621E-1	3.883342E-1	3.451605E-1	4.138664E-1	3.886798E-1	3.723544E-1	4.057414E-1	3.455591E-1	4.002473E-1	3.819984E-1	3.577738E-1	3.714149E-1	4.121246E-1	3.576602E-1	3.804437E-1	3.707631E-1	3.714952E-1	3.889888E-1	3.712315E-1	3.783702E-1	3.653592E-1	3.948368E-1	3.590428E-1	3.672109E-1	4.001055E-1	3.570236E-1	3.715663E-1	3.799349E-1	3.627177E-1	3.657836E-1	3.700169E-1	3.645206E-1	3.811849E-1	3.505658E-1	4.051758E-1	3.646843E-1	3.736085E-1	3.795690E-1	4.042208E-1	3.953203E-1	3.772241E-1	3.648812E-1	3.561019E-1	3.528545E-1	3.536440E-1	3.830974E-1	3.861547E-1	3.413209E-1	3.863117E-1	3.923020E-1	3.715755E-1	3.737326E-1	3.927520E-1
5.420110E+2	4.610046E-1	4.820506E-1	5.008941E-1	4.918262E-1	4.922937E-1	4.376088E-1	4.840679E-1	4.927384E-1	4.493869E-1	4.471247E-1	4.751934E-1	4.874819E-1	4.814251E-1	5.015720E-1	4.814922E-1	4.848635E-1	4.736174E-1	4.869471E-1	4.765435E-1	4.836603E-1	4.845598E-1	4.582684E-1	4.936936E-1	4.552767E-1	5.025456E-1	4.689384E-1	4.931627E-1	5.003569E-1	4.910703E-1	4.992533E-1	4.635985E-1	4.769718E-1	4.726479E-1	4.465592E-1	5.068013E-1	5.084814E-1	4.952057E-1	4.764711E-1	4.587520E-1	4.759880E-1	4.993305E-1	5.259724E-1	4.854307E-1	4.294017E-1	4.823153E-1	4.777992E-1	4.783569E-1	4.685491E-1	4.679799E-1	4.945271E-1	4.806547E-1	4.692236E-1	5.299049E-1	5.005564E-1	4.784248E-1	4.696850E-1	4.703806E-1	4.595246E-1	4.787740E-1	4.514880E-1	4.603083E-1	5.090923E-1	4.591446E-1	4.501532E-1	4.851810E-1	4.849039E-1	4.946501E-1	5.114824E-1	4.908608E-1	4.890355E-1	5.098896E-1	4.303666E-1	4.737230E-1	4.756903E-1	4.675335E-1	4.795952E-1	4.571113E-1	4.959670E-1	4.853580E-1	4.600503E-1	4.936308E-1	5.015629E-1	4.345939E-1	4.929190E-1	5.098692E-1	5.004404E-1	4.755764E-1	4.842618E-1	5.089045E-1	4.637156E-1	5.152156E-1	4.953260E-1	4.291668E-1	4.766146E-1	4.960309E-1	5.218530E-1	4.975673E-1	4.442333E-1	4.988629E-1	4.809963E-1	4.657558E-1	4.818511E-1	4.979471E-1	5.104031E-1	4.776564E-1	5.128899E-1	4.887490E-1	5.192832E-1	4.657123E-1	4.971377E-1	4.954994E-1	4.988932E-1	4.819176E-1	4.740838E-1	4.972446E-1	4.857494E-1	5.149384E-1	5.112080E-1	4.803516E-1	5.043287E-1	5.017390E-1	5.118004E-1	4.914835E-1	5.007039E-1	4.909172E-1	5.293382E-1	4.663756E-1	4.818825E-1	4.865746E-1	5.045174E-1	5.125529E-1	4.852117E-1	5.191988E-1	4.578681E-1	4.581308E-1	5.033069E-1	5.052150E-1	4.808592E-1	4.659371E-1	4.940543E-1	4.950603E-1	4.619265E-1	4.779745E-1	4.790934E-1	5.278557E-1	4.583432E-1	5.124160E-1	4.789623E-1	4.823067E-1	4.699581E-1	5.056584E-1	5.046046E-1	4.939391E-1	5.076572E-1	4.977358E-1	4.815652E-1	4.551805E-1	4.643985E-1	4.853518E-1	4.789385E-1	5.130885E-1	4.940397E-1	4.632470E-1	4.805573E-1	4.596491E-1	5.436283E-1
5.425080E+2	6.393550E-1	6.637799E-1	6.992466E-1	6.452488E-1	6.584552E-1	6.519028E-1	7.061192E-1	6.820623E-1	6.385614E-1	6.607604E-1	6.750182E-1	6.962091E-1	6.415123E-1	6.683822E-1	6.434767E-1	7.164251E-1	6.549789E-1	6.453602E-1	6.682870E-1	6.819076E-1	6.797759E-1	6.941128E-1	7.043116E-1	6.603820E-1	6.577032E-1	6.804948E-1	6.622924E-1	6.455882E-1	6.479118E-1	6.977877E-1	6.588101E-1	6.688208E-1	6.486293E-1	6.681100E-1	6.543057E-1	7.356107E-1	6.626112E-1	6.450655E-1	6.420202E-1	6.793857E-1	6.720238E-1	6.714357E-1	6.445938E-1	6.510430E-1	6.557860E-1	6.790869E-1	6.797552E-1	6.879227E-1	6.459770E-1	6.290489E-1	6.744303E-1	6.849929E-1	6.666281E-1	6.566337E-1	6.618375E-1	6.847865E-1	6.422354E-1	6.801667E-1	6.233393E-1	6.886369E-1	6.199949E-1	6.844354E-1	6.466140E-1	6.632621E-1	7.025096E-1	6.818344E-1	6.951322E-1	6.752081E-1	7.095066E-1	6.197601E-1	6.791002E-1	6.326046E-1	6.833554E-1	6.917026E-1	6.623180E-1	6.096607E-1	6.846892E-1	6.378357E-1	7.096883E-1	6.932922E-1	7.095321E-1	6.939652E-1	6.741734E-1	6.859163E-1	7.030179E-1	6.307024E-1	6.453644E-1	6.670020E-1	7.042760E-1	6.522307E-1	6.834022E-1	6.632915E-1	6.912871E-1	6.750516E-1	6.749536E-1	6.961370E-1	6.781018E-1	5.971340E-1	6.510524E-1	6.564946E-1	6.938371E-1	6.927113E-1	6.778866E-1	6.424009E-1	6.984130E-1	6.537223E-1	6.791900E-1	6.694705E-1	6.594967E-1	6.743235E-1	6.438411E-1	6.563114E-1	6.700670E-1	6.575546E-1	7.247969E-1	6.524202E-1	6.354489E-1	6.862662E-1	6.636144E-1	6.247797E-1	6.566584E-1	6.623077E-1	6.654220E-1	6.668759E-1	6.293784E-1	6.658226E-1	6.797003E-1	6.594342E-1	6.817055E-1	6.488930E-1	6.721263E-1	6.471968E-1	7.308698E-1	6.478500E-1	6.511893E-1	6.698132E-1	6.697720E-1	6.242560E-1	6.654860E-1	7.013381E-1	6.586037E-1	6.343347E-1	6.755741E-1	6.370323E-1	7.291852E-1	6.386484E-1	6.346304E-1	6.524610E-1	6.526785E-1	6.760157E-1	7.342771E-1	7.095367E-1	6.738673E-1	6.705632E-1	6.476621E-1	6.451259E-1	6.547431E-1	7.145083E-1	6.691570E-1	6.770811E-1	6.554636E-1	6.344148E-1	6.834138E-1	6.282500E-1	5.708285E-1	7.420917E-1
5.430120E+2	8.979590E-1	9.180581E-1	9.203505E-1	9.078686E-1	8.612039E-1	8.415480E-1	9.107593E-1	9.622299E-1	8.651431E-1	8.477696E-1	8.993357E-1	9.158443E-1	9.232094E-1	9.349823E-1	8.550180E-1	8.869098E-1	8.801954E-1	9.112813E-1	9.618185E-1	8.511565E-1	8.998962E-1	9.096971E-1	9.075971E-1	8.949951E-1	9.195090E-1	8.663787E-1	9.009596E-1	8.967512E-1	8.689843E-1	9.119946E-1	9.171884E-1	8.817615E-1	8.926532E-1	8.893492E-1	9.401961E-1	9.327216E-1	9.173020E-1	8.611611E-1	9.380147E-1	9.149387E-1	9.102319E-1	9.566329E-1	8.844086E-1	9.104992E-1	9.054992E-1	8.741787E-1	9.473150E-1	8.999917E-1	8.686778E-1	8.875907E-1	8.755883E-1	9.086997E-1	9.147033E-1	9.116001E-1	8.841663E-1	9.178077E-1	8.757694E-1	8.810063E-1	9.585238E-1	8.691023E-1	7.752657E-1	9.383498E-1	9.224151E-1	8.679029E-1	8.740288E-1	9.106295E-1	8.831802E-1	9.093028E-1	8.761739E-1	8.603427E-1	8.838253E-1	8.723137E-1	9.126103E-1	8.523435E-1	8.778687E-1	9.184530E-1	9.266841E-1	8.740050E-1	8.779721E-1	9.002034E-1	9.421768E-1	9.324112E-1	8.840386E-1	9.042723E-1	9.198539E-1	8.865989E-1	9.026429E-1	8.952319E-1	9.175447E-1	9.173372E-1	8.915119E-1	9.058942E-1	8.647184E-1	8.657594E-1	8.810195E-1	9.261650E-1	9.494346E-1	8.769335E-1	9.525560E-1	9.220479E-1	8.596737E-1	8.728605E-1	8.782737E-1	8.720977E-1	8.998974E-1	9.422336E-1	9.448339E-1	8.859348E-1	8.515668E-1	9.225338E-1	9.160613E-1	8.976112E-1	9.645466E-1	8.942671E-1	9.270217E-1	9.029753E-1	8.482030E-1	9.078424E-1	9.029206E-1	9.116412E-1	8.717281E-1	9.545197E-1	8.811732E-1	9.290234E-1	9.058224E-1	8.884302E-1	8.584849E-1	8.851731E-1	9.347090E-1	8.905181E-1	9.320260E-1	8.754026E-1	9.212725E-1	9.011096E-1	8.842284E-1	8.440729E-1	9.250256E-1	8.685973E-1	8.605286E-1	9.332784E-1	8.919361E-1	9.058020E-1	9.150379E-1	9.125387E-1	9.344873E-1	8.851939E-1	9.407430E-1	8.990146E-1	9.241238E-1	8.795142E-1	8.947813E-1	9.196252E-1	9.137773E-1	9.327180E-1	8.955950E-1	9.321282E-1	8.255798E-1	8.987571E-1	8.536119E-1	9.210055E-1	8.824492E-1	8.458161E-1	9.071168E-1	9.326487E-1	9.155738E-1	8.919446E-1
5.435330E+2	9.256754E-1	9.410384E-1	9.487227E-1	9.537706E-1	9.441397E-1	9.415731E-1	9.680061E-1	9.812093E-1	9.208274E-1	9.427959E-1	9.311965E-1	1.012670E+0	9.742149E-1	9.973680E-1	9.264787E-1	9.755700E-1	9.772811E-1	9.419145E-1	9.280961E-1	9.350736E-1	9.972379E-1	9.885484E-1	9.877347E-1	9.274940E-1	1.026690E+0	9.386501E-1	9.237117E-1	9.906625E-1	9.348185E-1	9.196998E-1	9.581040E-1	9.085372E-1	9.886451E-1	9.604370E-1	9.949697E-1	9.720312E-1	1.006392E+0	9.375251E-1	9.704259E-1	9.132428E-1	9.791947E-1	9.976922E-1	9.555198E-1	9.675249E-1	9.783227E-1	1.015749E+0	1.009097E+0	9.878384E-1	1.018314E+0	9.596137E-1	9.461288E-1	1.000926E+0	9.738160E-1	9.418196E-1	9.368234E-1	9.885862E-1	9.405453E-1	9.384664E-1	9.897415E-1	9.785141E-1	9.545756E-1	9.495610E-1	9.649215E-1	9.025309E-1	9.051002E-1	9.811002E-1	9.711133E-1	9.933211E-1	9.827779E-1	9.617788E-1	9.666237E-1	9.544233E-1	9.558909E-1	9.470427E-1	9.050059E-1	9.652438E-1	1.030335E+0	9.688827E-1	9.596848E-1	9.659243E-1	9.783526E-1	1.000317E+0	1.020095E+0	9.456542E-1	1.000132E+0	9.890750E-1	9.190071E-1	9.239039E-1	9.804128E-1	9.581729E-1	1.004641E+0	9.236379E-1	9.790695E-1	9.594563E-1	1.007153E+0	1.037018E+0	9.771659E-1	9.374367E-1	9.580486E-1	9.819693E-1	9.519060E-1	9.504194E-1	9.380597E-1	1.004122E+0	1.022735E+0	1.043286E+0	9.461285E-1	9.960756E-1	9.562278E-1	9.218114E-1	9.198388E-1	9.609507E-1	9.581325E-1	9.987615E-1	9.485484E-1	1.003082E+0	9.667084E-1	9.177942E-1	1.026099E+0	9.315332E-1	9.317843E-1	9.554800E-1	9.949470E-1	9.486046E-1	9.804234E-1	9.809294E-1	9.347129E-1	9.714611E-1	9.213115E-1	9.539299E-1	1.005324E+0	9.303179E-1	9.978171E-1	9.117151E-1	9.834186E-1	9.390452E-1	9.431460E-1	8.905538E-1	9.468398E-1	9.529828E-1	1.025537E+0	9.112506E-1	9.774491E-1	9.499732E-1	9.726759E-1	8.888202E-1	9.989866E-1	9.774435E-1	1.003375E+0	8.997265E-1	9.458331E-1	9.502205E-1	1.019826E+0	9.210716E-1	9.238445E-1	9.445598E-1	9.521090E-1	8.998121E-1	9.948244E-1	9.938645E-1	1.026352E+0	9.126958E-1	9.904642E-1	9.929061E-1	8.756646E-1	9.407963E-1
5.440170E+2	9.116529E-1	8.833777E-1	9.787908E-1	9.589743E-1	9.819427E-1	8.887980E-1	8.908187E-1	9.488408E-1	9.496266E-1	9.040043E-1	9.146183E-1	9.579072E-1	9.337787E-1	9.407825E-1	8.987302E-1	9.059232E-1	9.555469E-1	9.501059E-1	9.399611E-1	9.423073E-1	9.733787E-1	9.683397E-1	1.006423E+0	9.989076E-1	9.711459E-1	9.238768E-1	9.834605E-1	9.551928E-1	1.008590E+0	9.439870E-1	9.178544E-1	9.202548E-1	9.458095E-1	9.689010E-1	9.194229E-1	1.024998E+0	9.659512E-1	9.172805E-1	9.206162E-1	9.532492E-1	9.214734E-1	9.796906E-1	9.161924E-1	9.487693E-1	9.515229E-1	9.810985E-1	9.993190E-1	9.238203E-1	9.829245E-1	9.562082E-1	9.415929E-1	9.580219E-1	9.663390E-1	9.413342E-1	8.909764E-1	9.302661E-1	9.895796E-1	9.195380E-1	1.002101E+0	9.634177E-1	9.317655E-1	9.772202E-1	9.447140E-1	9.188905E-1	9.252202E-1	9.747739E-1	9.251417E-1	9.597528E-1	9.697189E-1	9.301924E-1	9.849345E-1	9.428431E-1	1.017159E+0	9.024114E-1	9.163695E-1	9.521098E-1	9.742966E-1	9.354960E-1	9.700100E-1	9.640257E-1	9.413875E-1	1.016116E+0	1.006986E+0	9.646641E-1	9.837137E-1	9.141819E-1	9.643475E-1	9.202253E-1	9.159067E-1	1.001672E+0	1.019617E+0	9.136464E-1	9.496544E-1	9.272128E-1	1.038996E+0	9.780856E-1	9.618550E-1	9.084691E-1	1.011790E+0	9.765466E-1	1.002173E+0	9.468795E-1	9.747756E-1	9.778193E-1	9.826257E-1	9.677734E-1	9.894755E-1	9.811070E-1	9.763193E-1	9.176015E-1	9.133077E-1	9.398777E-1	9.898610E-1	1.004721E+0	9.503493E-1	9.668806E-1	9.219209E-1	9.237785E-1	9.703121E-1	9.355405E-1	9.642313E-1	9.448743E-1	9.692621E-1	8.717414E-1	9.518333E-1	9.171380E-1	9.560503E-1	9.219591E-1	9.691400E-1	8.918664E-1	9.642818E-1	9.930749E-1	9.806568E-1	9.540663E-1	9.336870E-1	9.201478E-1	9.771286E-1	8.981605E-1	9.694148E-1	9.613137E-1	9.671340E-1	9.208136E-1	9.169494E-1	9.341440E-1	9.690042E-1	8.604816E-1	9.921580E-1	9.234988E-1	9.198563E-1	9.508583E-1	9.135029E-1	9.452595E-1	9.843298E-1	9.109820E-1	9.949396E-1	9.811258E-1	9.804364E-1	9.173768E-1	9.516453E-1	9.390226E-1	9.564940E-1	9.306202E-1	1.006458E+0	9.761581E-1	9.563923E-1	1.039424E+0
5.445020E+2	9.662381E-1	9.569587E-1	8.970552E-1	9.247428E-1	8.715557E-1	9.143784E-1	8.940896E-1	9.059965E-1	9.231897E-1	8.763938E-1	8.986176E-1	9.184277E-1	9.079329E-1	9.008555E-1	8.902283E-1	9.590689E-1	8.753313E-1	8.403233E-1	9.049714E-1	8.776224E-1	9.230072E-1	8.612366E-1	9.250396E-1	9.240350E-1	9.332779E-1	9.442568E-1	9.020151E-1	9.096887E-1	8.941729E-1	9.421518E-1	9.128509E-1	9.139418E-1	9.069854E-1	9.072256E-1	8.886085E-1	9.234997E-1	9.025401E-1	9.353979E-1	9.111259E-1	9.041689E-1	9.592196E-1	9.320593E-1	9.019770E-1	9.213718E-1	9.405505E-1	8.842051E-1	9.287174E-1	9.547241E-1	9.146262E-1	9.126695E-1	8.537028E-1	8.943999E-1	9.074334E-1	9.099317E-1	9.036918E-1	9.206628E-1	9.283325E-1	1.013085E+0	9.508223E-1	9.163817E-1	8.790572E-1	9.154536E-1	9.017304E-1	9.233762E-1	8.811651E-1	9.134633E-1	9.337560E-1	9.222373E-1	9.283990E-1	8.518905E-1	8.947538E-1	8.584194E-1	9.773067E-1	9.415779E-1	8.709044E-1	8.881406E-1	8.935824E-1	9.064092E-1	9.366303E-1	9.228867E-1	9.295418E-1	9.368048E-1	9.388931E-1	9.193496E-1	9.404857E-1	9.285712E-1	9.404738E-1	8.972876E-1	9.454993E-1	9.658066E-1	8.962615E-1	9.289300E-1	9.206305E-1	9.109124E-1	9.002367E-1	9.322950E-1	9.193520E-1	9.074885E-1	9.562434E-1	9.689555E-1	9.220566E-1	9.165695E-1	8.559981E-1	9.184990E-1	9.517068E-1	9.122365E-1	9.775712E-1	9.534960E-1	8.879306E-1	8.907080E-1	9.325422E-1	8.648476E-1	9.124135E-1	9.395987E-1	9.538452E-1	8.902878E-1	9.260020E-1	8.587386E-1	9.263626E-1	8.890429E-1	9.561112E-1	9.157859E-1	9.494252E-1	9.007820E-1	8.601139E-1	9.119119E-1	9.163456E-1	9.115034E-1	9.382892E-1	9.241256E-1	8.976743E-1	8.931729E-1	9.775197E-1	8.978869E-1	9.199375E-1	9.382144E-1	9.111993E-1	9.102944E-1	9.487582E-1	9.331801E-1	9.254275E-1	8.912495E-1	9.174679E-1	8.986846E-1	9.816095E-1	8.555212E-1	9.459259E-1	9.005626E-1	9.301599E-1	8.662732E-1	9.046133E-1	8.879217E-1	8.958196E-1	9.481535E-1	9.347339E-1	9.110254E-1	8.690947E-1	9.233783E-1	9.395428E-1	9.423341E-1	9.285985E-1	9.456484E-1	9.359805E-1	9.123748E-1	9.264719E-1	9.929056E-1
5.450090E+2	8.383401E-1	8.836409E-1	9.134129E-1	8.609551E-1	8.890951E-1	8.094628E-1	9.198238E-1	8.818336E-1	8.898527E-1	8.521065E-1	9.236972E-1	8.713480E-1	8.986908E-1	8.654270E-1	8.622682E-1	8.736082E-1	8.327849E-1	8.917257E-1	9.031282E-1	8.677467E-1	9.322711E-1	8.650014E-1	8.940415E-1	8.743419E-1	9.063050E-1	8.629560E-1	8.853301E-1	8.863009E-1	8.760238E-1	9.047946E-1	9.359128E-1	8.844738E-1	9.320362E-1	8.800677E-1	8.610700E-1	9.433145E-1	8.947510E-1	8.465368E-1	8.732916E-1	8.994388E-1	8.344133E-1	8.843654E-1	8.809474E-1	8.917918E-1	9.361416E-1	9.170317E-1	9.345027E-1	8.671225E-1	9.482832E-1	8.250412E-1	9.034921E-1	9.135962E-1	9.120527E-1	8.931542E-1	8.930477E-1	9.017481E-1	8.776601E-1	8.726568E-1	9.486931E-1	9.314273E-1	8.843065E-1	8.642014E-1	8.909703E-1	7.945452E-1	8.992870E-1	8.834126E-1	9.117977E-1	8.817425E-1	8.802032E-1	8.985188E-1	9.299612E-1	8.662620E-1	9.529448E-1	8.877888E-1	8.736678E-1	8.904111E-1	9.714439E-1	8.364984E-1	8.879986E-1	8.877122E-1	9.070867E-1	8.949028E-1	9.355273E-1	8.836570E-1	8.984337E-1	8.314686E-1	8.351808E-1	9.322851E-1	8.767826E-1	9.299783E-1	8.652656E-1	8.597050E-1	8.239305E-1	8.934102E-1	8.833577E-1	8.876181E-1	8.473737E-1	8.882879E-1	9.087371E-1	9.685671E-1	8.777362E-1	8.653751E-1	8.333181E-1	8.597993E-1	8.862418E-1	9.083662E-1	8.450139E-1	9.187655E-1	8.950937E-1	8.707191E-1	9.020949E-1	8.834032E-1	8.641652E-1	9.145833E-1	9.583945E-1	8.665003E-1	8.455291E-1	8.546990E-1	8.640571E-1	8.869851E-1	9.018800E-1	8.914687E-1	9.071643E-1	9.337806E-1	9.135329E-1	9.059531E-1	8.506779E-1	8.702102E-1	9.186651E-1	8.813290E-1	8.892611E-1	8.910888E-1	9.039613E-1	9.007441E-1	8.405395E-1	8.355031E-1	8.990899E-1	8.325983E-1	9.575943E-1	9.303651E-1	9.119010E-1	8.625907E-1	9.027035E-1	8.737947E-1	9.417893E-1	8.204720E-1	8.460811E-1	8.797954E-1	9.317651E-1	8.719770E-1	8.723051E-1	8.772783E-1	8.697533E-1	8.228353E-1	9.067423E-1	8.928530E-1	8.826618E-1	8.598492E-1	8.893601E-1	8.074073E-1	8.558514E-1	8.604521E-1	8.192399E-1	8.433468E-1	8.159167E-1	8.848337E-1
5.455130E+2	8.718470E-1	9.763848E-1	8.936715E-1	8.598920E-1	8.621754E-1	8.670517E-1	8.964208E-1	8.840304E-1	9.029456E-1	8.631217E-1	8.643693E-1	8.787701E-1	9.282066E-1	9.272868E-1	8.572857E-1	8.998167E-1	8.271414E-1	8.856671E-1	8.782658E-1	8.790076E-1	9.472403E-1	9.068338E-1	9.167391E-1	8.550635E-1	9.436874E-1	8.647015E-1	8.491672E-1	8.828461E-1	8.328759E-1	9.195729E-1	9.010736E-1	8.654741E-1	9.106300E-1	8.748998E-1	8.524842E-1	9.448384E-1	8.948113E-1	8.575261E-1	8.320100E-1	8.297293E-1	8.800729E-1	8.905776E-1	8.630740E-1	9.230293E-1	8.331379E-1	8.818313E-1	9.083694E-1	8.776817E-1	8.642114E-1	8.595559E-1	8.450494E-1	9.434165E-1	8.733548E-1	9.237794E-1	9.116380E-1	9.010110E-1	8.944038E-1	8.480129E-1	9.107849E-1	8.524738E-1	8.806276E-1	9.020005E-1	9.142537E-1	8.842703E-1	9.113855E-1	9.410260E-1	8.474503E-1	9.189700E-1	9.440717E-1	8.581869E-1	9.162860E-1	8.500654E-1	8.891992E-1	8.874471E-1	8.887550E-1	8.838779E-1	8.742541E-1	8.594949E-1	8.984687E-1	9.388274E-1	9.381685E-1	8.740565E-1	9.138933E-1	8.719556E-1	8.692137E-1	8.744637E-1	8.553174E-1	8.693106E-1	8.471516E-1	9.022523E-1	9.044214E-1	8.868690E-1	9.090874E-1	8.714307E-1	9.061526E-1	8.961913E-1	8.640473E-1	8.599269E-1	8.911784E-1	9.217905E-1	8.908322E-1	9.015598E-1	8.867729E-1	9.423271E-1	8.844423E-1	9.385805E-1	9.485076E-1	9.025845E-1	8.670043E-1	8.507057E-1	8.805520E-1	8.648504E-1	8.343460E-1	9.188185E-1	8.955113E-1	8.814570E-1	9.020201E-1	8.404239E-1	8.383092E-1	9.264444E-1	8.515946E-1	9.336392E-1	8.969401E-1	8.175307E-1	9.214017E-1	8.607786E-1	8.549716E-1	8.680458E-1	8.930633E-1	8.446007E-1	8.828510E-1	9.074511E-1	8.831943E-1	8.606884E-1	8.733827E-1	8.440618E-1	8.018433E-1	8.434984E-1	8.526021E-1	8.503732E-1	8.675338E-1	8.291961E-1	9.068986E-1	8.796564E-1	9.058229E-1	8.450253E-1	8.654266E-1	8.769510E-1	9.057839E-1	8.408002E-1	8.501058E-1	8.676328E-1	9.028907E-1	8.707573E-1	9.128408E-1	9.104132E-1	9.017576E-1	8.237323E-1	8.901937E-1	8.253618E-1	8.684679E-1	8.601218E-1	9.414786E-1	8.758142E-1	8.623088E-1	9.361802E-1
5.460060E+2	9.538613E-1	9.515818E-1	9.527129E-1	9.357220E-1	9.298398E-1	8.768833E-1	9.090202E-1	9.540328E-1	9.074965E-1	9.052528E-1	9.394534E-1	9.450088E-1	9.383505E-1	9.413680E-1	8.912476E-1	9.510158E-1	9.014832E-1	9.386902E-1	9.237269E-1	9.015431E-1	9.234666E-1	9.603597E-1	9.669821E-1	9.107128E-1	9.570802E-1	8.887842E-1	8.923211E-1	9.384425E-1	9.274445E-1	9.192289E-1	8.931854E-1	9.102187E-1	8.716664E-1	8.976080E-1	9.620153E-1	1.005040E+0	9.139709E-1	9.473894E-1	9.061572E-1	8.726240E-1	9.193668E-1	9.347189E-1	9.300882E-1	9.253367E-1	9.471829E-1	9.530307E-1	9.462656E-1	9.573522E-1	9.170889E-1	9.194203E-1	9.634543E-1	8.975364E-1	9.084458E-1	9.586655E-1	9.146080E-1	9.517313E-1	9.083553E-1	9.362219E-1	9.607048E-1	9.886027E-1	8.564954E-1	9.540175E-1	9.357995E-1	9.814123E-1	9.731920E-1	9.953970E-1	9.157437E-1	8.988665E-1	9.460191E-1	9.501560E-1	9.464686E-1	9.398609E-1	1.000645E+0	9.520098E-1	9.395719E-1	9.437201E-1	9.777787E-1	9.458967E-1	9.179037E-1	9.855546E-1	9.378643E-1	9.091476E-1	1.004966E+0	9.797871E-1	8.961908E-1	8.924090E-1	9.558654E-1	9.344431E-1	9.266163E-1	9.611811E-1	9.603358E-1	9.764399E-1	9.040949E-1	9.187171E-1	9.431982E-1	9.482206E-1	9.129906E-1	8.893651E-1	9.973020E-1	9.641925E-1	9.330906E-1	9.205979E-1	8.998756E-1	9.101419E-1	9.411939E-1	9.942260E-1	9.403502E-1	9.856815E-1	8.919420E-1	9.364633E-1	9.177055E-1	9.141626E-1	9.335241E-1	9.160630E-1	1.015633E+0	9.280801E-1	9.012492E-1	8.935557E-1	9.501055E-1	9.938617E-1	8.939526E-1	9.400733E-1	9.717936E-1	9.384030E-1	9.225803E-1	9.414361E-1	8.857408E-1	9.219457E-1	9.375102E-1	9.839171E-1	9.347587E-1	9.241272E-1	9.730649E-1	9.269868E-1	8.880868E-1	9.265800E-1	9.845582E-1	8.855965E-1	8.834419E-1	9.577745E-1	9.491997E-1	9.086809E-1	9.847891E-1	9.808273E-1	1.024206E+0	9.102276E-1	9.546171E-1	9.196188E-1	9.508243E-1	8.961031E-1	9.524590E-1	9.314542E-1	9.428697E-1	9.219684E-1	9.440317E-1	9.439887E-1	9.695099E-1	9.288926E-1	9.617482E-1	8.636106E-1	9.107820E-1	8.766377E-1	9.750876E-1	9.207261E-1	9.179676E-1	1.038063E+0
5.465380E+2	8.721939E-1	9.311489E-1	9.147059E-1	8.841941E-1	8.634900E-1	8.376096E-1	8.851762E-1	8.645284E-1	8.644301E-1	8.625991E-1	8.726081E-1	8.812255E-1	8.763280E-1	8.794741E-1	8.362226E-1	8.557102E-1	8.415032E-1	8.894449E-1	9.040778E-1	9.103388E-1	8.991264E-1	8.664566E-1	9.151846E-1	8.360510E-1	9.443422E-1	8.749243E-1	8.731345E-1	9.485372E-1	8.498539E-1	8.773501E-1	8.784963E-1	8.370717E-1	8.893223E-1	8.445365E-1	9.088242E-1	8.720129E-1	9.127786E-1	8.892309E-1	8.784172E-1	8.498802E-1	8.483205E-1	9.356126E-1	9.044152E-1	8.379543E-1	8.519581E-1	8.609982E-1	8.795413E-1	9.002005E-1	8.909426E-1	9.372726E-1	9.072041E-1	8.745589E-1	8.819214E-1	9.278786E-1	9.013678E-1	8.710953E-1	9.162106E-1	8.700590E-1	9.244645E-1	8.838417E-1	8.887939E-1	8.878564E-1	9.125908E-1	8.624630E-1	9.109290E-1	8.651024E-1	9.069667E-1	9.486849E-1	9.140770E-1	9.430919E-1	8.889690E-1	8.897772E-1	9.740988E-1	8.404766E-1	8.843382E-1	8.680629E-1	8.848880E-1	8.525312E-1	8.787377E-1	9.219747E-1	9.491302E-1	8.742675E-1	9.168469E-1	9.410847E-1	9.305497E-1	8.901780E-1	8.797980E-1	8.634707E-1	9.428719E-1	8.946967E-1	8.846162E-1	8.220107E-1	8.993943E-1	8.665193E-1	8.598561E-1	8.790852E-1	8.699568E-1	8.358016E-1	8.989259E-1	9.018639E-1	8.741518E-1	8.624742E-1	9.229476E-1	9.030469E-1	9.346982E-1	8.870748E-1	9.122240E-1	9.264526E-1	9.568211E-1	8.780587E-1	8.802745E-1	8.713773E-1	8.969855E-1	9.089553E-1	8.643260E-1	8.662209E-1	8.385810E-1	8.473746E-1	8.523221E-1	8.783826E-1	8.831837E-1	8.187572E-1	9.189464E-1	9.177033E-1	8.564363E-1	9.067089E-1	8.511894E-1	9.120196E-1	9.282484E-1	8.713126E-1	8.970047E-1	8.998351E-1	9.116052E-1	8.581423E-1	8.941465E-1	8.533856E-1	8.814149E-1	8.597048E-1	8.748182E-1	9.275697E-1	8.597468E-1	8.737434E-1	8.859980E-1	9.151479E-1	8.946023E-1	8.586824E-1	8.675822E-1	8.924518E-1	8.952982E-1	8.662751E-1	9.213253E-1	8.902905E-1	8.667011E-1	9.001432E-1	8.809700E-1	9.313690E-1	9.118805E-1	8.904448E-1	8.930064E-1	8.695017E-1	8.985437E-1	8.446939E-1	8.852183E-1	8.767236E-1	8.530974E-1	9.393813E-1
5.470110E+2	8.899566E-1	8.770361E-1	9.100787E-1	8.705792E-1	9.028211E-1	8.290951E-1	8.943134E-1	8.489558E-1	8.650914E-1	8.954504E-1	8.764150E-1	8.737900E-1	8.935458E-1	9.066881E-1	8.057669E-1	8.194486E-1	8.616383E-1	9.277992E-1	8.825656E-1	9.156173E-1	9.047985E-1	8.821059E-1	8.670957E-1	8.975801E-1	9.560478E-1	8.748984E-1	8.834742E-1	8.554718E-1	8.438202E-1	8.884097E-1	8.208245E-1	8.851911E-1	8.550265E-1	8.947991E-1	8.134312E-1	9.449336E-1	8.796874E-1	8.659300E-1	8.614013E-1	8.542631E-1	8.949404E-1	8.849987E-1	8.916145E-1	8.663587E-1	8.665426E-1	8.850742E-1	9.235576E-1	9.143415E-1	8.728286E-1	8.558386E-1	8.554034E-1	8.857969E-1	9.123546E-1	8.661866E-1	8.861384E-1	8.656228E-1	9.165916E-1	8.657876E-1	9.000384E-1	8.990414E-1	8.807576E-1	9.141932E-1	8.905246E-1	9.031871E-1	8.967846E-1	8.688477E-1	8.932151E-1	8.919730E-1	9.089591E-1	8.496410E-1	8.765687E-1	8.171023E-1	8.889119E-1	8.342105E-1	8.898948E-1	8.898056E-1	9.128250E-1	8.106955E-1	8.978323E-1	9.083628E-1	9.276347E-1	8.865816E-1	8.750969E-1	9.171303E-1	9.042473E-1	9.162756E-1	8.986803E-1	8.975422E-1	8.218626E-1	9.384313E-1	9.046611E-1	9.033834E-1	9.160443E-1	8.580785E-1	8.534474E-1	8.762847E-1	8.377195E-1	8.523082E-1	9.347490E-1	9.193219E-1	8.849770E-1	8.580893E-1	8.322751E-1	8.781223E-1	8.722100E-1	8.329902E-1	8.671968E-1	8.796486E-1	8.702557E-1	8.645123E-1	9.089441E-1	8.612634E-1	8.691834E-1	9.458651E-1	8.669179E-1	9.001096E-1	8.796080E-1	8.134773E-1	8.651440E-1	8.893569E-1	8.488809E-1	8.753253E-1	8.890582E-1	8.916511E-1	8.494149E-1	9.199481E-1	8.228501E-1	8.712430E-1	8.719823E-1	8.932101E-1	8.918588E-1	9.374935E-1	8.925978E-1	8.956331E-1	8.649123E-1	8.348492E-1	9.001279E-1	8.462584E-1	8.553961E-1	9.392871E-1	8.982865E-1	8.407646E-1	8.626781E-1	9.048539E-1	8.929058E-1	7.797200E-1	8.906535E-1	8.725681E-1	8.667379E-1	8.614265E-1	8.421490E-1	8.762405E-1	8.469902E-1	8.837136E-1	9.072175E-1	8.670039E-1	9.066893E-1	8.844037E-1	8.868965E-1	8.537262E-1	8.809114E-1	8.222147E-1	8.611121E-1	8.349655E-1	8.801261E-1	1.016565E+0
5.475070E+2	9.045067E-1	9.289922E-1	1.022450E+0	9.139977E-1	8.819850E-1	9.480411E-1	9.499752E-1	9.706267E-1	9.185294E-1	9.590606E-1	9.227386E-1	9.650981E-1	9.434060E-1	9.591651E-1	9.246295E-1	9.429641E-1	9.433649E-1	9.609079E-1	9.759971E-1	9.658026E-1	9.095272E-1	9.378605E-1	9.152163E-1	9.527009E-1	9.356797E-1	8.953377E-1	9.379136E-1	9.270926E-1	9.285064E-1	9.478325E-1	8.914989E-1	9.162002E-1	9.528349E-1	9.330081E-1	9.304163E-1	9.472313E-1	9.738758E-1	9.301392E-1	9.695267E-1	9.444703E-1	9.660162E-1	9.375135E-1	9.435714E-1	8.950838E-1	9.378150E-1	9.351410E-1	9.952027E-1	9.701852E-1	9.486713E-1	9.588781E-1	9.154055E-1	9.810855E-1	9.278607E-1	9.308649E-1	9.331874E-1	9.924337E-1	9.743518E-1	9.545949E-1	9.823146E-1	9.746887E-1	9.184719E-1	9.503337E-1	9.384633E-1	9.126273E-1	9.731150E-1	9.419340E-1	9.708441E-1	9.067510E-1	9.399137E-1	9.434421E-1	9.626740E-1	9.228041E-1	9.441904E-1	9.098908E-1	9.358651E-1	9.462757E-1	9.804059E-1	9.225845E-1	9.606159E-1	9.490224E-1	1.014661E+0	9.595818E-1	9.412826E-1	9.281393E-1	9.299023E-1	9.308033E-1	9.305348E-1	8.740424E-1	9.368870E-1	9.499115E-1	8.975374E-1	9.277801E-1	9.929895E-1	9.138200E-1	9.378805E-1	9.890924E-1	9.296967E-1	9.105747E-1	9.159951E-1	8.937236E-1	9.091432E-1	9.622139E-1	9.299318E-1	8.921128E-1	9.663260E-1	9.497642E-1	9.359645E-1	9.421508E-1	9.565289E-1	9.692775E-1	9.123333E-1	9.570841E-1	9.297363E-1	1.006042E+0	9.492702E-1	9.254385E-1	9.338668E-1	9.050980E-1	9.644350E-1	9.431882E-1	9.484840E-1	9.669488E-1	9.775039E-1	9.247914E-1	9.600098E-1	9.237496E-1	8.727556E-1	9.720200E-1	9.324984E-1	9.415342E-1	9.289846E-1	9.850560E-1	9.816590E-1	8.813207E-1	9.295513E-1	9.051420E-1	9.163220E-1	9.048243E-1	8.627592E-1	9.624130E-1	9.462287E-1	8.802511E-1	9.130019E-1	9.538963E-1	1.033014E+0	9.038105E-1	9.235877E-1	1.001089E+0	9.345083E-1	9.836698E-1	9.794917E-1	9.358788E-1	9.398928E-1	9.410572E-1	9.329993E-1	9.328418E-1	9.694379E-1	9.107199E-1	9.302757E-1	9.362872E-1	9.572987E-1	9.562673E-1	9.791361E-1	9.490840E-1	1.059199E+0	7.838809E-1
5.480090E+2	9.988634E-1	9.868062E-1	9.909501E-1	1.002068E+0	9.654439E-1	9.878305E-1	1.016199E+0	1.013464E+0	9.996161E-1	9.810471E-1	9.682506E-1	1.019783E+0	9.838817E-1	1.013084E+0	1.000020E+0	1.015801E+0	9.825133E-1	9.971308E-1	1.014276E+0	1.042111E+0	1.010692E+0	1.038287E+0	9.658345E-1	1.007927E+0	1.065953E+0	9.826296E-1	1.039940E+0	1.016564E+0	9.785469E-1	9.968476E-1	9.969738E-1	9.804381E-1	1.015630E+0	9.453847E-1	1.014584E+0	1.000518E+0	9.406737E-1	9.866000E-1	9.835632E-1	9.688104E-1	9.994855E-1	1.028257E+0	9.859905E-1	9.595446E-1	1.042443E+0	9.733693E-1	9.520691E-1	1.026598E+0	1.038087E+0	1.042042E+0	9.742484E-1	1.016780E+0	1.021622E+0	1.012084E+0	9.938482E-1	1.028935E+0	9.742203E-1	9.876211E-1	1.101563E+0	1.023264E+0	1.015513E+0	1.002221E+0	9.582423E-1	9.915354E-1	9.771015E-1	9.836696E-1	1.034224E+0	1.099633E+0	1.049829E+0	9.380828E-1	1.033892E+0	9.424908E-1	1.106688E+0	9.537786E-1	9.837464E-1	9.847685E-1	1.021335E+0	9.782494E-1	1.009955E+0	9.939203E-1	1.015146E+0	1.007073E+0	9.932706E-1	9.984424E-1	9.787663E-1	1.028966E+0	1.004396E+0	9.839639E-1	9.695800E-1	9.722772E-1	1.023237E+0	1.015928E+0	1.043953E+0	9.295284E-1	1.041602E+0	9.733596E-1	1.014063E+0	1.002461E+0	9.992594E-1	1.058628E+0	1.058101E+0	9.694469E-1	9.365809E-1	1.050796E+0	1.037711E+0	1.026055E+0	1.048946E+0	9.765371E-1	9.966102E-1	9.846798E-1	9.644500E-1	9.738383E-1	1.009483E+0	1.057628E+0	1.016794E+0	9.849043E-1	1.029820E+0	9.606567E-1	1.056700E+0	9.669955E-1	9.885918E-1	9.702942E-1	1.034023E+0	9.481922E-1	9.875513E-1	9.889284E-1	9.552312E-1	9.905002E-1	1.069234E+0	9.947644E-1	9.859367E-1	9.937056E-1	1.048801E+0	9.609135E-1	9.700751E-1	1.045039E+0	1.044597E+0	9.773939E-1	9.936553E-1	1.044976E+0	1.040615E+0	9.986077E-1	1.007931E+0	1.054856E+0	1.058639E+0	9.736694E-1	9.666998E-1	1.037148E+0	1.015498E+0	9.874743E-1	1.005304E+0	1.002026E+0	1.011993E+0	9.873257E-1	9.994772E-1	1.054501E+0	1.026423E+0	9.870189E-1	1.010323E+0	1.030016E+0	1.019643E+0	9.455777E-1	1.040421E+0	1.017943E+0	9.457740E-1	1.020255E+0
5.485450E+2	1.190790E+0	1.151603E+0	1.195307E+0	1.211334E+0	1.139517E+0	1.165062E+0	1.155996E+0	1.138652E+0	1.270567E+0	1.197829E+0	1.172263E+0	1.230166E+0	1.264650E+0	1.221749E+0	1.177745E+0	1.167298E+0	1.202193E+0	1.222105E+0	1.177870E+0	1.184724E+0	1.191274E+0	1.195554E+0	1.171916E+0	1.214043E+0	1.241924E+0	1.175219E+0	1.167001E+0	1.202336E+0	1.206514E+0	1.192477E+0	1.211321E+0	1.204807E+0	1.209710E+0	1.150682E+0	1.096785E+0	1.228766E+0	1.130349E+0	1.158370E+0	1.168645E+0	1.149285E+0	1.234173E+0	1.192029E+0	1.177821E+0	1.171151E+0	1.199322E+0	1.133745E+0	1.202692E+0	1.199426E+0	1.208535E+0	1.172723E+0	1.157459E+0	1.240794E+0	1.218780E+0	1.211631E+0	1.144085E+0	1.191708E+0	1.207747E+0	1.185842E+0	1.180774E+0	1.148932E+0	1.125614E+0	1.135675E+0	1.161602E+0	1.250736E+0	1.284036E+0	1.210855E+0	1.194381E+0	1.176852E+0	1.191634E+0	1.232543E+0	1.203628E+0	1.156567E+0	1.189355E+0	1.218901E+0	1.149473E+0	1.250001E+0	1.240370E+0	1.133206E+0	1.202174E+0	1.179089E+0	1.252120E+0	1.223917E+0	1.190566E+0	1.235728E+0	1.250778E+0	1.153988E+0	1.169485E+0	1.193562E+0	1.198738E+0	1.191006E+0	1.193131E+0	1.231039E+0	1.226156E+0	1.216425E+0	1.193396E+0	1.201066E+0	1.194168E+0	1.143718E+0	1.185281E+0	1.195469E+0	1.171381E+0	1.175350E+0	1.153945E+0	1.194465E+0	1.181880E+0	1.205804E+0	1.233555E+0	1.161280E+0	1.179143E+0	1.176016E+0	1.226002E+0	1.195660E+0	1.162683E+0	1.226354E+0	1.156193E+0	1.120730E+0	1.221159E+0	1.201944E+0	1.153002E+0	1.156640E+0	1.190756E+0	1.187109E+0	1.132595E+0	1.197181E+0	1.216020E+0	1.205634E+0	1.085123E+0	1.224632E+0	1.188578E+0	1.183824E+0	1.148472E+0	1.146262E+0	1.206522E+0	1.177929E+0	1.090838E+0	1.162775E+0	1.174950E+0	1.171087E+0	1.130357E+0	1.215326E+0	1.200230E+0	1.123769E+0	1.127556E+0	1.209553E+0	1.205059E+0	1.063885E+0	1.145198E+0	1.149277E+0	1.231724E+0	1.202270E+0	1.195863E+0	1.215867E+0	1.184115E+0	1.158274E+0	1.217073E+0	1.202310E+0	1.155805E+0	1.234044E+0	1.171321E+0	1.170544E+0	1.160513E+0	1.160637E+0	1.208143E+0	1.164829E+0	1.068162E+0	1.249474E+0
5.490490E+2	1.534495E+0	1.491057E+0	1.557366E+0	1.515952E+0	1.490307E+0	1.468032E+0	1.449191E+0	1.471948E+0	1.468085E+0	1.448165E+0	1.435286E+0	1.489220E+0	1.462129E+0	1.503380E+0	1.471123E+0	1.480265E+0	1.455304E+0	1.440029E+0	1.491862E+0	1.455448E+0	1.519142E+0	1.510832E+0	1.482140E+0	1.428731E+0	1.546360E+0	1.476782E+0	1.401159E+0	1.405494E+0	1.452814E+0	1.459106E+0	1.455538E+0	1.457511E+0	1.478537E+0	1.460721E+0	1.415110E+0	1.521737E+0	1.480868E+0	1.406048E+0	1.452318E+0	1.408948E+0	1.536338E+0	1.479705E+0	1.445876E+0	1.506155E+0	1.443399E+0	1.442720E+0	1.518020E+0	1.493479E+0	1.540796E+0	1.469187E+0	1.434191E+0	1.528513E+0	1.531485E+0	1.470426E+0	1.491250E+0	1.455478E+0	1.506391E+0	1.463414E+0	1.518293E+0	1.449667E+0	1.422803E+0	1.490362E+0	1.409699E+0	1.475212E+0	1.527311E+0	1.472312E+0	1.437595E+0	1.428634E+0	1.465184E+0	1.463174E+0	1.460503E+0	1.482811E+0	1.470998E+0	1.431804E+0	1.430924E+0	1.415708E+0	1.505001E+0	1.447894E+0	1.435507E+0	1.460847E+0	1.537320E+0	1.464560E+0	1.460100E+0	1.579141E+0	1.436831E+0	1.466579E+0	1.516363E+0	1.489050E+0	1.453607E+0	1.476104E+0	1.464769E+0	1.487942E+0	1.455815E+0	1.379024E+0	1.497216E+0	1.484277E+0	1.548979E+0	1.413556E+0	1.490177E+0	1.488145E+0	1.476428E+0	1.462703E+0	1.403689E+0	1.505842E+0	1.493854E+0	1.540895E+0	1.504053E+0	1.497416E+0	1.411145E+0	1.442961E+0	1.447952E+0	1.468449E+0	1.518859E+0	1.496065E+0	1.499716E+0	1.453309E+0	1.429915E+0	1.381252E+0	1.464224E+0	1.461368E+0	1.536384E+0	1.460248E+0	1.455842E+0	1.477293E+0	1.478307E+0	1.488760E+0	1.474547E+0	1.415187E+0	1.437235E+0	1.446498E+0	1.475892E+0	1.469494E+0	1.549847E+0	1.423220E+0	1.438546E+0	1.398412E+0	1.440486E+0	1.503226E+0	1.391022E+0	1.459357E+0	1.483781E+0	1.441757E+0	1.377254E+0	1.478934E+0	1.549955E+0	1.311365E+0	1.466305E+0	1.455773E+0	1.504357E+0	1.459981E+0	1.431120E+0	1.458973E+0	1.501045E+0	1.445898E+0	1.502686E+0	1.485823E+0	1.388632E+0	1.482018E+0	1.425556E+0	1.450794E+0	1.431101E+0	1.402474E+0	1.445802E+0	1.461911E+0	1.502013E+0	1.407608E+0
5.495150E+2	1.686718E+0	1.715181E+0	1.737065E+0	1.655821E+0	1.647790E+0	1.554795E+0	1.653230E+0	1.704007E+0	1.638713E+0	1.666345E+0	1.692697E+0	1.633903E+0	1.632914E+0	1.666027E+0	1.652762E+0	1.694582E+0	1.711966E+0	1.652475E+0	1.703827E+0	1.650842E+0	1.731523E+0	1.616910E+0	1.682477E+0	1.607748E+0	1.724655E+0	1.550215E+0	1.632200E+0	1.724583E+0	1.655230E+0	1.703312E+0	1.624065E+0	1.682834E+0	1.716217E+0	1.649417E+0	1.665318E+0	1.707128E+0	1.705724E+0	1.701016E+0	1.644420E+0	1.561678E+0	1.714121E+0	1.733561E+0	1.663038E+0	1.579089E+0	1.678635E+0	1.712226E+0	1.686122E+0	1.695554E+0	1.715511E+0	1.652952E+0	1.665808E+0	1.704873E+0	1.712958E+0	1.677034E+0	1.648922E+0	1.707580E+0	1.731707E+0	1.559510E+0	1.733497E+0	1.715321E+0	1.606684E+0	1.702432E+0	1.613188E+0	1.618378E+0	1.701056E+0	1.626915E+0	1.678122E+0	1.708003E+0	1.737113E+0	1.666591E+0	1.690576E+0	1.572604E+0	1.697424E+0	1.584531E+0	1.654852E+0	1.626332E+0	1.710339E+0	1.645690E+0	1.620435E+0	1.623677E+0	1.745789E+0	1.676965E+0	1.658725E+0	1.709142E+0	1.638657E+0	1.688060E+0	1.666315E+0	1.613336E+0	1.677740E+0	1.598596E+0	1.623179E+0	1.567051E+0	1.661444E+0	1.614375E+0	1.618218E+0	1.610620E+0	1.625740E+0	1.642334E+0	1.754881E+0	1.655558E+0	1.677934E+0	1.615758E+0	1.630429E+0	1.702385E+0	1.698727E+0	1.699063E+0	1.677385E+0	1.623831E+0	1.643848E+0	1.686628E+0	1.672273E+0	1.671559E+0	1.681845E+0	1.735353E+0	1.638539E+0	1.656381E+0	1.649036E+0	1.589193E+0	1.642833E+0	1.687540E+0	1.639456E+0	1.696518E+0	1.641279E+0	1.634479E+0	1.669101E+0	1.642258E+0	1.612355E+0	1.688678E+0	1.654596E+0	1.675748E+0	1.674046E+0	1.586679E+0	1.723364E+0	1.629596E+0	1.606571E+0	1.645739E+0	1.590567E+0	1.651563E+0	1.570061E+0	1.745960E+0	1.654106E+0	1.581010E+0	1.647078E+0	1.670111E+0	1.701749E+0	1.631533E+0	1.679880E+0	1.714995E+0	1.592002E+0	1.628778E+0	1.690360E+0	1.644633E+0	1.619665E+0	1.614943E+0	1.677843E+0	1.606495E+0	1.594641E+0	1.657901E+0	1.532858E+0	1.687709E+0	1.608520E+0	1.580887E+0	1.643230E+0	1.540226E+0	1.504871E+0	1.569756E+0
5.500160E+2	1.498410E+0	1.516583E+0	1.557100E+0	1.483021E+0	1.426079E+0	1.481371E+0	1.515282E+0	1.458886E+0	1.474808E+0	1.516753E+0	1.447154E+0	1.528464E+0	1.531894E+0	1.539443E+0	1.408886E+0	1.512591E+0	1.500348E+0	1.468073E+0	1.522428E+0	1.496493E+0	1.444907E+0	1.514403E+0	1.562733E+0	1.422663E+0	1.534797E+0	1.447714E+0	1.398330E+0	1.461985E+0	1.489499E+0	1.532256E+0	1.461984E+0	1.434393E+0	1.526150E+0	1.456177E+0	1.522874E+0	1.490149E+0	1.500389E+0	1.501098E+0	1.441346E+0	1.461022E+0	1.579089E+0	1.522591E+0	1.457920E+0	1.499362E+0	1.448536E+0	1.441643E+0	1.541776E+0	1.484938E+0	1.505511E+0	1.494302E+0	1.458062E+0	1.490636E+0	1.508402E+0	1.519321E+0	1.491352E+0	1.513701E+0	1.546401E+0	1.488487E+0	1.527493E+0	1.523703E+0	1.460567E+0	1.499845E+0	1.518068E+0	1.466807E+0	1.505176E+0	1.443482E+0	1.496016E+0	1.519540E+0	1.515558E+0	1.513162E+0	1.522048E+0	1.505141E+0	1.569815E+0	1.495785E+0	1.457385E+0	1.473478E+0	1.529113E+0	1.401800E+0	1.520937E+0	1.494978E+0	1.545673E+0	1.537692E+0	1.464393E+0	1.566416E+0	1.544734E+0	1.441987E+0	1.499831E+0	1.469929E+0	1.471296E+0	1.505355E+0	1.514781E+0	1.534433E+0	1.488241E+0	1.438318E+0	1.507881E+0	1.532447E+0	1.585123E+0	1.398826E+0	1.550511E+0	1.576867E+0	1.477053E+0	1.426143E+0	1.480536E+0	1.474694E+0	1.579135E+0	1.561125E+0	1.589532E+0	1.455386E+0	1.401579E+0	1.452695E+0	1.467740E+0	1.416816E+0	1.544094E+0	1.509151E+0	1.488366E+0	1.482105E+0	1.455339E+0	1.430201E+0	1.474762E+0	1.452700E+0	1.506363E+0	1.537797E+0	1.525662E+0	1.550728E+0	1.443630E+0	1.511147E+0	1.500007E+0	1.436754E+0	1.532162E+0	1.464922E+0	1.498804E+0	1.450617E+0	1.522486E+0	1.487616E+0	1.418690E+0	1.406042E+0	1.459223E+0	1.414450E+0	1.426033E+0	1.500761E+0	1.446675E+0	1.367177E+0	1.475432E+0	1.534521E+0	1.536853E+0	1.426360E+0	1.451097E+0	1.500772E+0	1.499407E+0	1.474006E+0	1.465441E+0	1.456532E+0	1.617189E+0	1.486256E+0	1.459818E+0	1.479356E+0	1.431727E+0	1.553101E+0	1.462693E+0	1.460069E+0	1.497549E+0	1.412409E+0	1.448969E+0	1.447085E+0	1.519924E+0	1.566051E+0
5.505060E+2	1.473766E+0	1.485844E+0	1.520388E+0	1.486244E+0	1.464683E+0	1.422517E+0	1.465073E+0	1.524258E+0	1.470363E+0	1.498021E+0	1.501869E+0	1.480896E+0	1.487981E+0	1.487441E+0	1.448896E+0	1.477587E+0	1.479882E+0	1.481013E+0	1.452232E+0	1.447043E+0	1.563197E+0	1.472512E+0	1.476118E+0	1.495918E+0	1.557568E+0	1.449888E+0	1.441039E+0	1.502003E+0	1.421918E+0	1.508820E+0	1.439023E+0	1.431308E+0	1.462475E+0	1.462941E+0	1.474665E+0	1.443479E+0	1.497003E+0	1.425733E+0	1.438325E+0	1.419919E+0	1.470548E+0	1.496134E+0	1.418362E+0	1.439253E+0	1.495169E+0	1.454723E+0	1.515131E+0	1.521894E+0	1.497572E+0	1.442227E+0	1.469761E+0	1.393956E+0	1.506735E+0	1.431147E+0	1.474876E+0	1.480205E+0	1.445725E+0	1.486716E+0	1.521240E+0	1.489765E+0	1.402383E+0	1.495748E+0	1.459960E+0	1.441396E+0	1.490475E+0	1.543376E+0	1.514209E+0	1.454683E+0	1.509731E+0	1.490357E+0	1.473605E+0	1.507643E+0	1.557579E+0	1.467084E+0	1.446836E+0	1.468740E+0	1.550358E+0	1.396997E+0	1.440687E+0	1.446935E+0	1.520807E+0	1.508462E+0	1.470036E+0	1.476804E+0	1.510638E+0	1.497376E+0	1.480436E+0	1.470285E+0	1.532443E+0	1.445922E+0	1.466458E+0	1.448004E+0	1.465702E+0	1.370607E+0	1.522673E+0	1.440292E+0	1.481906E+0	1.481073E+0	1.462226E+0	1.457867E+0	1.483338E+0	1.491776E+0	1.416809E+0	1.442771E+0	1.514986E+0	1.541347E+0	1.578047E+0	1.437128E+0	1.460572E+0	1.491124E+0	1.366251E+0	1.409703E+0	1.530633E+0	1.514974E+0	1.480742E+0	1.383754E+0	1.473005E+0	1.405136E+0	1.488342E+0	1.508723E+0	1.455200E+0	1.524343E+0	1.472901E+0	1.467803E+0	1.485502E+0	1.451377E+0	1.440283E+0	1.355226E+0	1.547764E+0	1.491709E+0	1.418762E+0	1.405067E+0	1.593305E+0	1.430814E+0	1.461846E+0	1.426701E+0	1.475590E+0	1.414298E+0	1.453520E+0	1.496304E+0	1.482877E+0	1.385878E+0	1.430519E+0	1.514830E+0	1.513007E+0	1.396063E+0	1.495980E+0	1.442068E+0	1.399834E+0	1.433394E+0	1.434894E+0	1.486734E+0	1.541148E+0	1.474573E+0	1.485117E+0	1.459091E+0	1.489130E+0	1.486202E+0	1.432126E+0	1.446444E+0	1.475087E+0	1.422369E+0	1.424599E+0	1.381455E+0	1.366904E+0	1.463952E+0
5.510140E+2	1.247149E+0	1.216420E+0	1.198660E+0	1.223803E+0	1.139616E+0	1.145655E+0	1.223310E+0	1.211128E+0	1.140157E+0	1.111845E+0	1.195582E+0	1.224751E+0	1.226420E+0	1.254208E+0	1.137039E+0	1.186534E+0	1.204466E+0	1.218474E+0	1.215130E+0	1.140541E+0	1.224082E+0	1.159255E+0	1.194345E+0	1.179225E+0	1.210011E+0	1.124836E+0	1.178401E+0	1.183407E+0	1.159746E+0	1.194158E+0	1.157513E+0	1.135448E+0	1.216445E+0	1.168603E+0	1.225631E+0	1.179713E+0	1.182895E+0	1.152579E+0	1.173799E+0	1.176454E+0	1.156536E+0	1.205314E+0	1.199968E+0	1.211129E+0	1.235959E+0	1.276619E+0	1.193571E+0	1.202862E+0	1.191663E+0	1.216914E+0	1.183446E+0	1.178059E+0	1.174881E+0	1.191923E+0	1.190068E+0	1.211156E+0	1.199975E+0	1.204940E+0	1.233434E+0	1.225908E+0	1.234571E+0	1.215152E+0	1.162981E+0	1.171278E+0	1.261262E+0	1.171845E+0	1.246578E+0	1.224015E+0	1.257291E+0	1.206058E+0	1.153702E+0	1.218774E+0	1.231017E+0	1.223358E+0	1.187501E+0	1.173886E+0	1.228522E+0	1.188680E+0	1.210553E+0	1.189192E+0	1.228168E+0	1.248530E+0	1.178646E+0	1.242247E+0	1.271000E+0	1.114087E+0	1.153314E+0	1.161459E+0	1.183429E+0	1.187069E+0	1.185611E+0	1.184945E+0	1.261221E+0	1.165685E+0	1.169510E+0	1.205903E+0	1.201991E+0	1.129832E+0	1.201765E+0	1.198846E+0	1.114765E+0	1.207379E+0	1.186418E+0	1.201881E+0	1.203444E+0	1.300404E+0	1.234813E+0	1.201547E+0	1.182999E+0	1.210046E+0	1.179625E+0	1.184540E+0	1.174150E+0	1.216642E+0	1.206604E+0	1.177190E+0	1.187180E+0	1.145618E+0	1.186226E+0	1.214189E+0	1.163264E+0	1.228531E+0	1.188574E+0	1.165025E+0	1.197614E+0	1.191867E+0	1.139971E+0	1.161533E+0	1.239588E+0	1.202650E+0	1.182169E+0	1.138971E+0	1.268800E+0	1.221151E+0	1.101436E+0	1.199908E+0	1.175578E+0	1.197557E+0	1.199822E+0	1.275819E+0	1.220277E+0	1.173991E+0	1.173806E+0	1.184962E+0	1.305143E+0	1.163499E+0	1.190411E+0	1.182427E+0	1.231674E+0	1.193087E+0	1.273577E+0	1.207367E+0	1.185644E+0	1.175359E+0	1.231170E+0	1.224529E+0	1.201655E+0	1.168750E+0	1.202719E+0	1.174841E+0	1.191076E+0	1.181790E+0	1.247777E+0	1.139507E+0	1.159382E+0	1.172225E+0
5.515000E+2	1.037683E+0	1.010598E+0	1.016889E+0	1.009450E+0	1.016713E+0	9.610317E-1	1.005352E+0	1.031418E+0	1.058836E+0	9.966549E-1	1.027731E+0	1.028712E+0	1.078366E+0	1.105980E+0	1.036880E+0	1.022308E+0	1.018047E+0	1.063835E+0	9.719172E-1	9.978616E-1	1.030977E+0	1.015041E+0	1.029942E+0	9.438223E-1	1.030259E+0	1.016241E+0	9.910462E-1	1.024707E+0	1.047286E+0	1.058560E+0	1.021916E+0	9.851720E-1	1.008441E+0	1.017440E+0	9.949657E-1	1.009776E+0	1.068741E+0	1.008760E+0	1.017409E+0	9.844271E-1	1.015790E+0	1.020583E+0	1.001694E+0	1.008366E+0	1.025616E+0	1.012373E+0	1.011969E+0	1.009571E+0	1.011701E+0	1.025096E+0	9.922394E-1	1.022489E+0	1.023603E+0	1.027176E+0	1.010172E+0	9.631125E-1	1.060353E+0	1.034555E+0	1.056010E+0	1.040323E+0	9.859625E-1	1.063518E+0	1.011409E+0	9.930735E-1	1.015377E+0	1.017585E+0	1.016057E+0	1.030448E+0	1.056641E+0	1.065761E+0	1.037173E+0	1.001795E+0	1.021321E+0	1.018852E+0	9.980624E-1	1.066173E+0	1.034139E+0	9.860525E-1	9.837875E-1	1.003428E+0	1.026021E+0	1.015401E+0	1.022973E+0	9.985196E-1	9.967645E-1	9.862885E-1	9.871218E-1	1.032927E+0	1.064110E+0	1.023307E+0	9.848149E-1	1.043119E+0	1.009525E+0	9.912526E-1	1.003133E+0	9.810688E-1	9.867415E-1	9.782004E-1	1.044894E+0	1.023623E+0	1.031577E+0	1.007764E+0	9.968642E-1	9.842564E-1	1.071897E+0	1.066242E+0	9.990073E-1	9.854313E-1	1.003588E+0	1.026858E+0	1.030305E+0	9.578377E-1	1.001401E+0	1.044566E+0	1.023500E+0	9.848868E-1	1.060967E+0	1.006192E+0	1.064304E+0	1.024100E+0	9.502305E-1	1.054673E+0	1.017666E+0	1.009652E+0	1.019902E+0	1.036580E+0	9.584351E-1	1.013867E+0	1.040829E+0	9.582575E-1	9.946585E-1	9.892022E-1	1.020186E+0	1.014619E+0	9.772704E-1	9.675060E-1	9.887709E-1	9.364409E-1	1.001865E+0	1.088456E+0	9.924517E-1	9.466059E-1	9.900138E-1	1.006252E+0	1.028018E+0	1.026383E+0	1.018984E+0	9.767377E-1	1.041822E+0	1.003133E+0	1.073975E+0	1.050613E+0	1.032934E+0	1.008363E+0	1.052140E+0	1.022675E+0	1.029745E+0	1.016389E+0	1.014840E+0	1.027980E+0	1.020604E+0	9.078332E-1	9.743049E-1	1.029412E+0	8.723531E-1	9.762543E-1
5.520100E+2	1.010550E+0	9.719469E-1	1.009584E+0	9.681223E-1	9.674043E-1	9.781326E-1	9.980230E-1	9.946829E-1	9.555655E-1	9.983859E-1	1.002690E+0	1.010332E+0	1.022370E+0	1.013045E+0	1.002076E+0	9.566281E-1	9.880111E-1	9.687523E-1	1.010570E+0	9.416697E-1	1.013587E+0	1.008614E+0	1.000430E+0	9.811507E-1	1.031168E+0	9.481508E-1	1.000203E+0	9.870722E-1	9.626062E-1	9.695812E-1	1.004286E+0	9.361700E-1	1.011773E+0	9.516417E-1	9.578751E-1	9.773397E-1	1.009905E+0	1.022757E+0	9.519171E-1	9.533385E-1	9.587655E-1	9.825617E-1	9.418718E-1	9.668235E-1	9.728499E-1	9.948032E-1	1.008679E+0	1.003743E+0	9.775131E-1	9.917504E-1	9.794390E-1	9.632558E-1	1.015443E+0	9.616871E-1	9.926035E-1	9.853180E-1	9.916018E-1	9.584480E-1	9.961363E-1	9.720786E-1	9.984222E-1	1.025337E+0	9.589818E-1	9.567927E-1	1.001773E+0	1.012628E+0	1.012799E+0	9.830116E-1	1.013576E+0	9.246094E-1	9.583208E-1	9.547514E-1	1.030259E+0	9.704589E-1	1.003193E+0	9.609756E-1	9.943324E-1	9.829630E-1	9.542535E-1	9.656733E-1	1.009984E+0	9.729308E-1	9.780050E-1	1.023894E+0	9.905862E-1	9.364960E-1	9.084795E-1	9.563447E-1	9.840916E-1	1.032644E+0	9.512867E-1	1.065856E+0	9.695316E-1	9.527076E-1	9.620697E-1	9.855575E-1	9.977400E-1	9.317934E-1	1.013547E+0	9.897891E-1	9.489844E-1	9.681993E-1	1.019218E+0	1.015066E+0	9.706185E-1	1.022461E+0	1.038790E+0	9.551282E-1	9.340784E-1	9.535068E-1	9.783013E-1	9.308655E-1	9.991160E-1	1.009820E+0	1.039899E+0	1.034196E+0	9.754481E-1	9.611031E-1	1.004659E+0	9.897154E-1	9.884200E-1	9.946146E-1	1.011684E+0	9.432209E-1	9.971036E-1	9.374901E-1	9.441005E-1	9.390839E-1	1.026368E+0	1.000319E+0	9.918394E-1	9.181274E-1	1.002438E+0	9.775712E-1	9.285490E-1	9.404655E-1	9.539855E-1	9.162410E-1	9.028908E-1	1.020007E+0	9.701891E-1	9.145144E-1	9.673408E-1	1.019077E+0	9.935624E-1	9.353021E-1	9.277488E-1	9.185019E-1	1.014620E+0	9.661586E-1	9.763611E-1	9.182199E-1	1.023530E+0	9.775722E-1	1.031379E+0	1.017423E+0	9.973997E-1	9.648162E-1	9.740395E-1	9.478929E-1	9.483371E-1	9.702528E-1	9.594795E-1	9.509784E-1	9.083044E-1	1.152921E+0
5.525090E+2	1.106090E+0	1.100294E+0	1.074419E+0	1.072068E+0	1.062570E+0	1.014836E+0	1.073649E+0	1.035880E+0	1.001036E+0	1.074496E+0	1.034238E+0	1.066599E+0	1.025204E+0	1.078915E+0	1.055574E+0	1.105198E+0	1.078613E+0	1.003416E+0	1.063070E+0	1.073317E+0	1.028513E+0	1.100688E+0	1.021350E+0	1.086966E+0	1.054989E+0	1.010905E+0	1.064305E+0	1.068736E+0	1.019650E+0	1.023898E+0	1.083523E+0	1.070026E+0	1.037510E+0	1.025431E+0	1.062233E+0	1.037251E+0	1.041992E+0	1.034327E+0	1.060768E+0	1.011982E+0	1.097670E+0	1.062957E+0	1.010093E+0	1.028695E+0	1.060720E+0	1.061262E+0	1.030535E+0	1.064880E+0	1.018112E+0	1.064147E+0	1.080134E+0	1.022245E+0	1.047228E+0	1.127022E+0	1.021201E+0	9.951869E-1	1.052255E+0	1.103413E+0	1.059849E+0	1.079738E+0	1.032707E+0	1.097869E+0	1.021642E+0	1.029826E+0	1.095443E+0	1.082147E+0	1.044456E+0	1.026356E+0	1.086104E+0	1.100666E+0	1.077416E+0	1.052601E+0	1.037729E+0	1.071687E+0	1.016715E+0	1.017945E+0	1.089715E+0	1.124197E+0	1.057991E+0	1.025466E+0	1.098604E+0	1.010459E+0	1.028154E+0	1.022384E+0	1.090174E+0	1.039712E+0	1.049650E+0	1.062792E+0	1.080725E+0	1.074797E+0	1.051823E+0	9.962405E-1	1.028222E+0	1.061418E+0	1.038071E+0	1.100456E+0	1.038440E+0	1.006768E+0	1.067933E+0	1.019071E+0	1.070545E+0	1.061443E+0	1.073836E+0	1.063084E+0	1.065178E+0	1.059753E+0	1.127857E+0	1.098549E+0	1.046993E+0	1.076548E+0	1.029501E+0	1.040733E+0	1.046565E+0	1.030688E+0	1.090782E+0	1.030750E+0	1.054198E+0	9.622075E-1	1.010430E+0	1.099514E+0	1.103120E+0	1.033469E+0	1.070368E+0	1.003496E+0	1.030840E+0	1.057056E+0	1.017205E+0	1.016518E+0	1.114277E+0	1.019456E+0	1.051950E+0	1.018694E+0	1.102409E+0	1.004413E+0	1.039538E+0	1.038254E+0	1.018363E+0	1.041965E+0	9.473426E-1	1.098543E+0	1.036180E+0	1.001270E+0	1.069969E+0	1.022068E+0	1.117978E+0	1.009593E+0	1.020481E+0	1.046961E+0	1.086591E+0	1.079882E+0	1.052221E+0	1.053887E+0	1.109641E+0	1.080547E+0	1.118570E+0	1.059409E+0	1.077586E+0	1.047142E+0	1.042052E+0	1.010474E+0	1.080245E+0	1.016450E+0	1.005153E+0	1.065613E+0	1.015360E+0	1.069037E+0
5.530150E+2	9.535769E-1	9.841659E-1	9.978966E-1	9.991814E-1	9.473156E-1	1.007628E+0	9.268723E-1	9.871339E-1	9.838590E-1	9.534677E-1	9.711681E-1	1.032023E+0	1.004472E+0	1.017431E+0	9.642910E-1	9.535568E-1	9.431104E-1	1.018020E+0	9.389395E-1	9.456158E-1	9.917442E-1	9.611129E-1	9.986660E-1	9.557071E-1	1.023354E+0	9.890997E-1	9.437451E-1	9.100849E-1	9.369102E-1	1.033596E+0	9.484955E-1	9.763305E-1	9.587518E-1	1.055102E+0	9.565401E-1	1.018427E+0	1.050809E+0	9.601656E-1	9.979467E-1	9.783764E-1	9.655213E-1	9.878485E-1	1.018581E+0	9.323282E-1	9.997836E-1	1.024165E+0	1.021240E+0	1.014301E+0	1.043830E+0	9.842560E-1	9.422712E-1	9.698938E-1	9.906585E-1	1.043696E+0	9.379941E-1	1.014285E+0	9.802121E-1	9.782840E-1	9.967395E-1	9.810088E-1	9.822079E-1	1.024091E+0	9.828450E-1	9.497644E-1	9.857985E-1	9.649528E-1	9.825762E-1	9.732998E-1	9.716096E-1	1.028857E+0	9.884049E-1	9.474623E-1	1.011640E+0	1.003250E+0	9.606849E-1	1.019908E+0	1.036665E+0	9.626730E-1	1.005320E+0	1.023488E+0	1.068189E+0	9.800162E-1	1.014643E+0	9.858644E-1	9.586023E-1	9.693918E-1	1.011533E+0	9.676603E-1	9.782008E-1	9.779970E-1	1.021440E+0	1.023635E+0	9.676351E-1	9.940302E-1	9.516293E-1	9.753768E-1	9.416473E-1	9.709157E-1	9.579554E-1	9.584616E-1	9.929193E-1	9.345032E-1	1.025143E+0	9.799036E-1	9.875673E-1	1.049618E+0	9.940060E-1	1.005162E+0	9.854609E-1	9.775596E-1	9.694826E-1	9.903507E-1	9.762893E-1	1.035021E+0	9.899679E-1	9.804436E-1	1.009799E+0	9.637375E-1	9.813244E-1	9.900118E-1	1.003520E+0	9.766578E-1	1.011103E+0	9.933339E-1	9.524521E-1	1.035028E+0	1.018015E+0	9.143858E-1	1.040069E+0	1.008377E+0	9.724171E-1	9.715973E-1	1.019156E+0	9.587344E-1	9.871080E-1	9.793513E-1	1.012424E+0	9.845956E-1	9.597584E-1	1.005486E+0	1.006821E+0	9.690707E-1	1.038606E+0	1.015733E+0	1.007272E+0	9.526908E-1	1.006817E+0	9.717289E-1	1.011573E+0	9.775743E-1	1.042378E+0	9.842623E-1	1.069304E+0	9.675417E-1	1.037235E+0	9.745969E-1	9.888167E-1	9.769206E-1	1.008931E+0	9.446589E-1	1.008372E+0	9.802599E-1	9.387740E-1	9.517326E-1	8.687354E-1	1.043995E+0
5.534770E+2	9.697056E-1	9.247390E-1	9.606784E-1	9.502479E-1	9.013412E-1	9.097910E-1	9.669213E-1	9.225765E-1	9.671838E-1	9.207946E-1	9.557510E-1	9.496678E-1	9.541520E-1	9.710531E-1	9.676603E-1	9.335395E-1	9.329602E-1	9.443662E-1	9.489672E-1	8.996820E-1	9.421698E-1	9.612370E-1	9.469607E-1	9.481511E-1	9.516522E-1	9.458870E-1	9.165563E-1	9.847012E-1	9.516433E-1	9.584116E-1	9.158027E-1	9.215870E-1	9.192066E-1	9.716837E-1	9.183133E-1	9.213723E-1	9.312262E-1	8.926432E-1	9.746619E-1	9.104638E-1	9.199915E-1	9.222990E-1	9.456304E-1	9.458442E-1	9.963543E-1	9.848161E-1	9.382865E-1	9.514259E-1	9.697231E-1	9.509415E-1	8.609521E-1	9.318999E-1	9.453899E-1	9.414107E-1	9.234751E-1	9.341816E-1	9.760514E-1	9.252690E-1	9.697242E-1	9.818749E-1	9.358073E-1	9.869443E-1	9.594424E-1	9.366721E-1	9.704739E-1	9.360435E-1	9.118682E-1	8.977974E-1	9.497999E-1	9.425945E-1	9.905328E-1	8.896311E-1	9.370628E-1	9.571886E-1	9.648532E-1	9.132359E-1	1.002412E+0	9.876758E-1	1.002645E+0	9.547389E-1	9.682540E-1	9.506998E-1	9.374039E-1	9.674164E-1	9.690230E-1	9.830531E-1	9.146141E-1	9.260962E-1	9.351374E-1	9.462664E-1	9.818782E-1	9.483419E-1	9.072427E-1	8.472120E-1	9.257761E-1	9.336981E-1	9.038271E-1	8.891151E-1	9.715317E-1	9.570881E-1	9.386148E-1	9.380500E-1	8.966233E-1	9.728774E-1	9.870006E-1	9.708658E-1	9.626743E-1	8.976533E-1	9.682960E-1	9.267970E-1	9.403291E-1	9.621291E-1	9.493671E-1	1.009584E+0	9.137881E-1	8.801852E-1	9.396785E-1	8.757635E-1	9.149338E-1	9.636126E-1	9.209608E-1	9.672759E-1	9.859008E-1	9.259721E-1	9.205264E-1	9.559843E-1	9.111861E-1	9.258535E-1	1.004278E+0	9.099025E-1	9.346785E-1	9.550410E-1	9.738973E-1	9.206556E-1	9.146718E-1	8.958638E-1	8.944822E-1	9.028215E-1	9.036247E-1	1.007686E+0	1.009275E+0	9.577572E-1	9.613302E-1	9.229198E-1	9.297935E-1	8.829469E-1	9.552938E-1	9.478434E-1	9.308753E-1	9.371235E-1	8.955661E-1	9.667157E-1	9.997089E-1	9.161682E-1	9.434917E-1	9.513339E-1	8.719665E-1	9.531888E-1	9.461608E-1	8.969407E-1	9.774960E-1	9.089528E-1	9.524978E-1	9.572841E-1	8.981821E-1	9.257605E-1
5.540290E+2	8.889374E-1	8.812423E-1	9.099639E-1	9.423946E-1	9.000043E-1	9.254105E-1	9.253361E-1	9.054713E-1	8.673120E-1	8.986780E-1	9.178222E-1	9.528778E-1	9.252629E-1	9.109492E-1	9.135959E-1	9.517145E-1	9.192239E-1	9.255412E-1	8.845351E-1	9.138514E-1	9.208638E-1	9.485921E-1	8.583381E-1	9.333460E-1	9.406431E-1	9.225379E-1	9.249882E-1	9.452625E-1	9.192105E-1	8.848438E-1	9.378796E-1	9.142702E-1	9.379460E-1	9.444207E-1	9.056694E-1	9.275409E-1	9.150039E-1	8.970818E-1	9.080114E-1	9.165883E-1	8.932132E-1	9.153472E-1	8.967025E-1	8.701518E-1	9.299204E-1	8.867251E-1	9.448266E-1	9.506824E-1	9.225313E-1	9.013347E-1	9.257866E-1	9.390390E-1	9.096443E-1	9.576497E-1	9.444986E-1	8.861059E-1	9.221308E-1	9.079082E-1	8.758951E-1	9.363458E-1	9.581779E-1	9.252499E-1	9.458774E-1	9.099101E-1	9.113315E-1	9.193160E-1	8.737906E-1	9.121575E-1	9.399054E-1	9.096960E-1	8.765374E-1	8.890299E-1	9.666572E-1	9.217414E-1	8.982158E-1	9.161791E-1	8.911558E-1	9.738231E-1	8.987403E-1	8.959963E-1	9.257704E-1	9.598819E-1	9.022353E-1	8.672318E-1	9.289718E-1	9.247821E-1	9.129671E-1	9.258947E-1	9.383918E-1	9.076882E-1	8.981547E-1	9.480836E-1	9.631883E-1	9.062250E-1	9.203768E-1	9.276930E-1	9.056203E-1	8.825259E-1	9.505466E-1	9.345269E-1	9.296721E-1	9.165230E-1	8.848440E-1	8.869038E-1	9.418987E-1	8.910578E-1	9.322423E-1	9.559828E-1	8.975611E-1	9.017258E-1	9.185944E-1	8.851026E-1	9.254230E-1	9.248584E-1	9.293222E-1	9.304316E-1	8.608196E-1	8.972291E-1	9.465412E-1	9.246816E-1	9.334627E-1	9.444064E-1	9.400169E-1	9.291106E-1	8.954957E-1	9.231248E-1	9.148210E-1	8.979775E-1	9.213644E-1	8.712010E-1	9.317880E-1	9.293742E-1	8.773017E-1	9.049893E-1	8.722697E-1	9.326407E-1	9.053443E-1	8.960036E-1	8.826242E-1	9.164263E-1	9.386313E-1	9.401107E-1	9.150050E-1	9.014432E-1	9.081558E-1	9.218903E-1	9.106660E-1	9.491300E-1	9.062843E-1	9.192401E-1	9.504189E-1	8.732136E-1	9.463685E-1	9.227302E-1	9.263758E-1	9.110767E-1	9.395176E-1	8.766243E-1	8.921876E-1	9.255424E-1	9.231143E-1	9.082674E-1	9.692400E-1	8.910206E-1	8.838689E-1	1.030365E+0
5.550140E+2	9.638324E-1	9.422919E-1	9.129627E-1	8.801199E-1	9.309633E-1	1.015144E+0	8.730263E-1	9.413849E-1	9.183493E-1	9.287677E-1	9.029610E-1	9.166395E-1	9.488393E-1	9.463531E-1	9.319690E-1	9.752571E-1	9.512605E-1	8.911715E-1	8.833111E-1	9.181319E-1	9.357593E-1	9.347319E-1	9.526497E-1	9.191580E-1	1.001027E+0	9.225408E-1	9.148486E-1	9.551853E-1	9.591562E-1	9.326337E-1	9.123082E-1	9.127859E-1	9.436827E-1	9.673512E-1	9.405736E-1	9.554246E-1	9.344209E-1	9.275924E-1	9.165590E-1	9.129812E-1	8.968007E-1	9.342470E-1	9.196564E-1	9.459078E-1	9.272282E-1	9.612537E-1	9.193781E-1	9.514220E-1	9.108834E-1	9.466619E-1	8.910324E-1	9.671322E-1	9.086897E-1	9.601660E-1	9.510689E-1	9.201358E-1	9.451355E-1	9.298824E-1	9.462627E-1	9.451075E-1	9.219432E-1	9.121273E-1	9.474977E-1	9.081353E-1	9.576227E-1	9.200807E-1	9.046595E-1	9.319350E-1	9.126731E-1	9.624794E-1	9.703593E-1	9.222134E-1	9.205313E-1	9.363870E-1	9.247700E-1	9.668778E-1	9.753972E-1	9.103766E-1	9.391127E-1	9.451387E-1	9.266010E-1	9.315327E-1	9.132007E-1	9.804938E-1	9.176089E-1	9.380997E-1	9.249870E-1	9.897919E-1	9.187483E-1	9.665914E-1	9.299738E-1	9.151575E-1	9.547357E-1	9.287210E-1	9.602544E-1	9.397628E-1	9.752734E-1	9.594063E-1	9.987662E-1	9.286688E-1	1.005630E+0	9.003541E-1	9.423166E-1	9.704760E-1	9.562674E-1	9.212925E-1	9.435284E-1	8.853605E-1	8.890891E-1	9.690726E-1	9.922369E-1	9.071192E-1	9.131753E-1	9.699634E-1	8.878318E-1	9.179713E-1	9.344452E-1	9.460274E-1	9.306704E-1	9.331360E-1	9.408426E-1	9.170078E-1	9.498955E-1	9.163080E-1	9.107606E-1	9.491716E-1	9.088372E-1	8.777691E-1	9.591823E-1	9.450734E-1	9.665226E-1	9.432649E-1	9.639122E-1	9.502770E-1	9.040178E-1	9.598815E-1	9.172564E-1	9.136275E-1	9.388111E-1	9.655454E-1	9.407624E-1	9.245399E-1	9.281809E-1	9.304769E-1	9.283479E-1	8.898927E-1	9.089834E-1	9.149896E-1	9.727934E-1	9.396097E-1	9.335136E-1	9.838310E-1	9.617456E-1	9.003986E-1	9.550037E-1	9.338431E-1	9.264685E-1	9.379190E-1	9.260864E-1	9.193001E-1	9.025919E-1	8.864312E-1	8.678776E-1	9.065762E-1	8.720258E-1	8.870470E-1
5.560410E+2	1.009994E+0	1.010500E+0	1.087562E+0	1.032937E+0	1.030782E+0	1.018318E+0	1.065141E+0	1.029182E+0	1.009513E+0	1.004527E+0	9.767614E-1	9.892708E-1	9.917363E-1	9.938933E-1	1.019944E+0	9.588882E-1	1.015242E+0	9.758063E-1	1.011542E+0	9.962030E-1	1.053588E+0	1.006115E+0	1.051631E+0	1.011806E+0	9.940224E-1	9.983714E-1	9.881039E-1	1.011107E+0	1.023805E+0	1.012000E+0	9.922253E-1	1.031518E+0	1.013494E+0	1.027355E+0	1.004475E+0	1.020172E+0	9.823742E-1	1.035648E+0	1.023912E+0	1.008260E+0	9.821988E-1	9.873867E-1	1.015971E+0	9.882640E-1	9.991439E-1	1.033841E+0	1.015673E+0	1.026831E+0	1.016116E+0	1.037694E+0	1.057264E+0	1.021773E+0	1.069798E+0	9.843822E-1	1.007922E+0	1.002167E+0	1.011926E+0	9.889113E-1	1.022214E+0	1.015424E+0	9.880649E-1	1.030712E+0	9.909171E-1	9.791501E-1	1.005733E+0	1.039172E+0	1.025839E+0	1.007430E+0	1.006339E+0	1.050586E+0	1.045866E+0	1.020013E+0	9.995068E-1	1.057080E+0	9.875650E-1	1.009788E+0	9.796828E-1	1.009213E+0	1.031623E+0	9.803805E-1	1.031157E+0	1.035312E+0	1.042100E+0	9.988259E-1	1.003091E+0	9.526457E-1	1.056865E+0	9.658669E-1	1.041311E+0	1.027214E+0	1.007642E+0	9.784124E-1	1.017372E+0	1.032836E+0	1.012861E+0	9.872278E-1	9.878867E-1	9.762250E-1	1.047417E+0	1.065220E+0	1.007945E+0	9.982534E-1	9.434794E-1	1.011100E+0	1.002263E+0	1.077285E+0	1.021754E+0	9.938074E-1	1.033322E+0	1.006169E+0	9.912338E-1	1.036484E+0	1.027912E+0	1.031374E+0	1.024631E+0	9.465876E-1	1.009787E+0	1.006078E+0	1.054369E+0	1.058325E+0	1.002330E+0	1.043144E+0	1.000557E+0	9.746661E-1	1.040018E+0	1.023559E+0	9.714001E-1	9.995402E-1	1.013801E+0	9.835306E-1	1.008695E+0	1.057474E+0	1.004692E+0	9.994112E-1	1.056001E+0	9.772939E-1	9.792411E-1	1.022119E+0	9.937977E-1	1.056148E+0	9.369366E-1	1.020252E+0	9.918858E-1	1.018976E+0	1.083616E+0	9.709985E-1	9.964384E-1	9.884088E-1	1.043326E+0	1.030479E+0	9.867038E-1	1.049621E+0	1.035162E+0	9.738711E-1	1.008120E+0	1.006649E+0	1.023171E+0	1.048500E+0	1.014195E+0	1.025877E+0	1.035911E+0	1.007097E+0	1.006531E+0	9.133326E-1	8.825637E-1	9.712762E-1
5.570330E+2	1.049596E+0	1.020774E+0	1.070151E+0	1.087928E+0	1.064890E+0	1.048773E+0	1.027196E+0	1.047329E+0	1.043777E+0	1.060620E+0	1.090173E+0	1.086067E+0	1.039981E+0	1.050852E+0	1.051921E+0	1.079075E+0	1.051452E+0	1.073656E+0	1.098562E+0	1.080270E+0	1.070907E+0	1.076026E+0	1.057299E+0	1.059415E+0	1.043795E+0	1.082827E+0	1.076849E+0	1.051689E+0	1.040982E+0	1.055811E+0	1.060844E+0	1.002351E+0	9.991512E-1	1.043956E+0	1.064776E+0	1.048226E+0	1.045878E+0	1.027573E+0	1.045238E+0	1.071110E+0	1.059412E+0	1.079148E+0	1.092236E+0	1.057346E+0	1.057110E+0	1.062415E+0	1.070868E+0	1.062955E+0	1.087123E+0	1.089438E+0	1.022766E+0	1.057725E+0	1.012113E+0	1.021233E+0	1.048302E+0	1.047670E+0	1.050674E+0	1.114165E+0	1.081803E+0	9.862341E-1	1.019630E+0	1.049855E+0	1.024663E+0	1.057441E+0	1.049931E+0	1.066397E+0	1.088730E+0	1.008604E+0	1.017812E+0	1.093823E+0	1.073585E+0	1.063157E+0	1.061569E+0	1.028603E+0	1.003003E+0	1.040159E+0	1.119887E+0	1.070860E+0	1.073132E+0	1.054458E+0	1.097063E+0	1.078202E+0	1.103556E+0	1.046921E+0	1.088827E+0	1.076265E+0	1.054809E+0	1.036202E+0	1.060162E+0	1.037597E+0	1.042276E+0	1.076986E+0	1.064840E+0	1.047199E+0	1.018768E+0	1.078597E+0	1.070036E+0	1.077048E+0	1.024986E+0	1.069494E+0	1.017963E+0	1.101428E+0	1.032772E+0	1.080517E+0	1.093780E+0	1.053792E+0	1.073676E+0	1.074356E+0	1.079792E+0	1.008280E+0	1.018346E+0	1.036229E+0	1.037702E+0	1.027477E+0	1.085513E+0	1.080565E+0	1.040531E+0	9.972754E-1	1.033864E+0	1.023860E+0	1.033897E+0	1.015253E+0	1.101155E+0	1.075656E+0	1.076652E+0	1.051292E+0	1.060458E+0	1.005104E+0	1.103936E+0	1.059368E+0	1.060201E+0	1.007569E+0	1.076308E+0	1.073831E+0	1.042103E+0	1.000944E+0	1.050673E+0	1.050721E+0	1.046214E+0	1.057929E+0	1.079949E+0	9.895902E-1	1.017129E+0	1.072701E+0	1.022517E+0	1.019483E+0	1.068159E+0	1.016371E+0	1.017245E+0	1.076752E+0	1.087150E+0	1.058547E+0	1.066058E+0	1.123443E+0	1.126578E+0	1.045897E+0	1.062308E+0	9.957912E-1	1.084585E+0	1.065108E+0	1.061493E+0	1.018464E+0	9.697638E-1	1.006486E+0	1.058384E+0	1.025625E+0
5.580230E+2	1.028697E+0	1.141802E+0	1.089037E+0	1.017686E+0	1.068596E+0	1.001870E+0	1.054671E+0	1.092324E+0	1.059052E+0	1.007619E+0	1.080296E+0	1.063547E+0	1.090743E+0	1.029640E+0	1.022678E+0	1.047929E+0	1.050965E+0	1.016616E+0	1.081025E+0	9.843116E-1	1.059748E+0	1.033635E+0	1.067897E+0	1.039897E+0	1.053145E+0	1.020557E+0	1.034883E+0	1.047277E+0	1.089858E+0	1.026524E+0	1.075225E+0	1.010917E+0	1.085372E+0	1.006199E+0	1.042097E+0	1.034770E+0	1.071467E+0	1.090161E+0	1.022281E+0	1.015001E+0	1.035057E+0	1.070474E+0	1.100234E+0	1.070446E+0	1.055997E+0	1.078157E+0	1.039739E+0	1.070961E+0	1.075175E+0	1.038407E+0	1.047991E+0	1.062497E+0	1.068036E+0	1.048615E+0	1.068938E+0	1.044893E+0	1.068912E+0	1.046507E+0	1.084805E+0	1.065532E+0	1.059896E+0	1.067422E+0	1.046044E+0	1.053821E+0	1.032917E+0	1.081951E+0	1.081654E+0	1.070886E+0	1.070231E+0	1.054699E+0	1.082744E+0	1.047967E+0	1.042991E+0	1.066323E+0	1.081023E+0	1.030080E+0	1.085342E+0	1.042608E+0	1.033503E+0	1.076625E+0	1.090606E+0	1.086284E+0	1.079286E+0	1.012638E+0	1.037365E+0	1.101199E+0	1.036512E+0	1.038605E+0	1.037999E+0	1.118343E+0	1.016437E+0	1.030678E+0	1.087570E+0	1.056379E+0	1.028202E+0	1.034145E+0	1.098383E+0	9.816943E-1	1.049859E+0	1.069516E+0	1.040472E+0	1.029318E+0	1.026973E+0	1.056842E+0	1.060888E+0	1.084616E+0	1.112412E+0	1.066755E+0	1.077372E+0	1.066665E+0	1.066679E+0	1.026734E+0	1.027960E+0	1.041307E+0	1.085986E+0	1.071494E+0	1.044739E+0	1.086956E+0	1.029495E+0	9.786431E-1	1.059264E+0	1.093877E+0	1.051879E+0	1.087785E+0	1.042319E+0	1.073310E+0	1.052324E+0	1.036400E+0	1.044222E+0	1.081513E+0	1.033530E+0	1.016976E+0	1.059780E+0	1.033817E+0	1.049728E+0	1.026821E+0	1.003444E+0	1.078865E+0	1.012263E+0	1.025615E+0	1.072670E+0	9.837735E-1	1.064845E+0	1.048657E+0	1.066883E+0	1.072904E+0	1.096689E+0	1.097998E+0	1.072519E+0	1.041845E+0	1.004787E+0	9.890842E-1	9.964679E-1	1.082904E+0	1.059784E+0	1.034876E+0	1.081454E+0	1.074697E+0	1.099247E+0	1.049384E+0	1.067832E+0	1.030142E+0	1.062670E+0	1.120303E+0	1.069586E+0	1.237301E+0
5.590160E+2	1.058943E+0	1.003389E+0	9.303230E-1	1.038934E+0	1.004764E+0	9.904847E-1	1.054630E+0	9.843091E-1	1.101997E+0	1.099789E+0	1.031986E+0	9.915980E-1	1.003438E+0	1.068313E+0	1.059893E+0	9.871360E-1	1.011856E+0	1.117209E+0	1.041025E+0	1.107232E+0	9.591346E-1	1.000900E+0	1.012185E+0	1.036378E+0	9.673679E-1	1.053167E+0	1.060328E+0	9.894788E-1	9.669887E-1	1.088187E+0	1.021518E+0	1.128157E+0	1.020354E+0	1.010718E+0	1.042409E+0	1.013867E+0	1.050856E+0	1.021945E+0	1.083999E+0	1.076059E+0	1.133318E+0	1.013396E+0	9.752003E-1	1.067884E+0	1.030601E+0	9.776075E-1	1.009516E+0	9.371492E-1	9.881710E-1	9.864653E-1	1.055159E+0	9.518337E-1	1.031719E+0	1.027955E+0	9.792702E-1	1.099029E+0	1.001222E+0	1.012626E+0	9.890210E-1	1.051356E+0	1.052288E+0	1.014633E+0	1.045000E+0	1.091543E+0	1.042466E+0	9.730831E-1	1.025327E+0	1.068987E+0	1.053039E+0	9.287159E-1	9.509083E-1	1.057620E+0	1.008745E+0	9.898654E-1	1.105423E+0	1.036916E+0	9.485351E-1	9.931193E-1	1.023889E+0	1.047401E+0	9.288023E-1	9.087871E-1	9.596221E-1	1.093889E+0	1.024137E+0	1.007008E+0	1.013860E+0	1.043640E+0	1.003387E+0	9.425661E-1	1.105517E+0	1.050682E+0	9.122943E-1	1.028640E+0	1.059538E+0	1.032574E+0	9.628005E-1	1.123101E+0	9.284252E-1	9.325748E-1	9.983186E-1	1.054123E+0	1.169615E+0	9.941612E-1	9.449036E-1	9.719564E-1	9.163878E-1	1.023738E+0	1.022864E+0	1.048088E+0	1.012910E+0	1.108331E+0	1.067828E+0	1.005020E+0	9.867156E-1	1.052951E+0	1.109679E+0	1.066434E+0	1.005060E+0	1.081354E+0	1.030204E+0	9.863113E-1	9.564968E-1	1.016474E+0	1.034754E+0	9.795430E-1	1.092159E+0	1.183209E+0	9.574947E-1	1.059315E+0	9.992633E-1	1.045342E+0	1.018007E+0	1.037675E+0	1.075879E+0	1.102419E+0	1.144040E+0	1.038664E+0	1.126290E+0	9.783365E-1	1.031051E+0	1.141733E+0	1.082954E+0	1.027745E+0	9.904800E-1	1.124832E+0	1.019064E+0	1.033103E+0	9.878325E-1	9.920739E-1	1.037426E+0	1.045704E+0	9.941982E-1	9.966536E-1	9.241381E-1	1.067659E+0	9.670812E-1	1.066468E+0	9.836983E-1	1.014788E+0	1.009058E+0	1.149599E+0	1.123917E+0	1.162282E+0	1.233572E+0	8.483855E-1
