Photon Energy (eV)	#1	#2	#3	#4	#5	#6	#7	#8	#9	#10	#11	#12	#13	#14	#15	#16	#17	#18	#19	#20	#21	#22	#23	#24	#25	#26	#27	#28	#29	#30	#31	#32	#33	#34	#35	#36	#37	#38	#39	#40	#41	#42	#43	#44	#45	#46	#47	#48	#49	#50	#51	#52	#53	#54	#55	#56	#57	#58	#59	#60	#61	#62	#63	#64	#65	#66	#67	#68	#69	#70	#71	#72	#73	#74	#75	#76	#77	#78	#79	#80	#81	#82	#83	#84	#85	#86	#87	#88	#89	#90	#91	#92	#93	#94	#95	#96	#97	#98	#99	#100	#101	#102	#103	#104	#105	#106	#107	#108	#109	#110	#111	#112	#113	#114	#115	#116	#117	#118	#119	#120	#121	#122	#123	#124	#125	#126	#127	#128	#129	#130	#131	#132	#133	#134	#135	#136	#137	#138	#139	#140	#141	#142	#143	#144	#145	#146	#147	#148	#149	#150	#151	#152	#153	#154	#155	#156	#157	#158	#159	#160	#161	#162	#163	#164	#165	
5.290120E+2	-2.700982E-2	-3.295992E-2	-4.540858E-2	-2.971560E-2	-2.156988E-2	-1.771099E-2	-2.992120E-2	-1.124861E-2	-3.940639E-2	-7.645866E-3	-3.128002E-2	-1.755282E-2	-3.012391E-2	-2.315129E-2	-2.486287E-2	-1.446237E-2	-3.211324E-2	-1.119295E-2	-1.758590E-2	-3.559733E-2	-2.570845E-2	-2.847517E-2	-1.992468E-2	-3.677086E-2	-1.365122E-2	-2.827957E-2	-2.071868E-2	-2.381519E-2	-2.208753E-2	-2.846531E-2	-1.264879E-2	-2.588331E-3	-2.510344E-2	-2.492179E-2	-8.208444E-3	-2.229956E-2	-2.529035E-2	-2.207067E-2	-3.270726E-2	-1.470182E-2	-2.304169E-2	-1.252238E-2	-3.546494E-2	-2.759464E-2	-2.247464E-2	-2.283652E-2	-2.303492E-2	-3.046476E-2	-2.439707E-2	-3.609140E-2	-1.418501E-2	-1.794490E-2	-6.429891E-3	-1.647290E-2	-9.445814E-3	-2.460501E-2	-2.248507E-2	-2.803415E-2	-1.927469E-2	-3.065243E-2	-4.263710E-2	-2.952075E-2	-2.282643E-2	-2.440982E-2	-1.888553E-2	-2.545994E-2	-2.079499E-2	-2.685903E-2	-2.378930E-2	-2.607133E-2	-2.250090E-2	-2.672165E-2	-3.187371E-2	-2.203818E-2	-3.094052E-3	-2.693631E-2	-2.069394E-2	-2.768426E-2	-2.367290E-2	-2.167978E-2	-2.728647E-2	-2.275344E-2	-2.063680E-2	-2.280101E-2	-1.706610E-2	-1.946549E-2	-6.773965E-4	-1.219071E-2	-1.759745E-2	-2.811241E-2	-2.837974E-2	-1.197573E-2	-9.556570E-3	-1.120195E-2	-3.218604E-2	-1.525003E-2	-1.222368E-2	-2.207921E-2	-2.166261E-2	-2.947674E-2	-3.229363E-2	-1.437270E-2	-9.686199E-3	-2.769291E-2	-1.508345E-2	-2.539649E-2	-2.490199E-2	-1.850510E-2	-2.252895E-2	-3.729771E-2	-2.360200E-2	-3.959160E-2	-1.723267E-2	-1.828378E-2	-2.528331E-2	-1.225973E-2	-3.282375E-2	-2.810524E-2	-1.605889E-2	-2.796049E-2	-1.896701E-2	-1.707443E-2	-1.762803E-2	-2.142804E-2	-1.746062E-2	-2.421842E-2	-3.664474E-2	-2.229899E-2	-2.098381E-2	-2.064440E-3	-3.067787E-2	-1.966298E-2	-1.431981E-2	-6.107274E-3	-2.669867E-2	-3.241137E-2	-1.909090E-2	-3.015462E-2	-1.200122E-2	-2.753367E-2	-3.104368E-2	-1.090708E-2	-1.935237E-2	-3.705878E-2	-1.397331E-2	-1.490578E-2	-1.965657E-2	-2.817684E-2	-2.836075E-2	-2.165420E-2	-2.992788E-2	-2.735404E-2	-2.635891E-2	-2.156883E-2	-2.549921E-2	-1.841247E-2	-7.333857E-3	-1.789295E-2	-2.245383E-2	-2.253124E-2	-2.522580E-2	-2.155090E-2	-2.419153E-2	-3.218704E-2	-5.957838E-2
5.295010E+2	-2.970219E-3	-1.056157E-2	4.629854E-4	-8.557466E-3	6.364915E-3	4.282542E-3	-1.446222E-2	9.958036E-3	1.219721E-2	-4.239621E-3	4.090604E-3	-1.053923E-3	-9.457710E-3	-7.318356E-3	-6.104686E-3	-9.395827E-3	-5.644425E-3	1.834205E-3	-1.555076E-2	1.879451E-3	2.191737E-2	3.920523E-3	-6.347761E-3	3.117701E-4	-9.784973E-3	7.276134E-3	5.213257E-3	-3.214265E-3	-8.732646E-3	5.865096E-3	-6.255121E-3	-6.614769E-3	1.700961E-3	5.823367E-4	-9.673329E-3	3.546178E-3	7.471076E-3	1.980250E-3	2.760348E-3	3.164283E-3	-3.411113E-3	-1.638495E-2	1.505441E-3	7.012867E-3	-6.381932E-3	-5.044478E-3	-1.296782E-2	-4.530888E-3	-5.902554E-3	6.627760E-3	-3.929694E-3	1.652721E-3	-2.067876E-3	-1.734299E-2	2.593510E-2	1.388462E-3	3.786681E-3	-2.120355E-4	-7.011994E-3	1.141471E-2	-9.588055E-3	8.482607E-3	6.920591E-3	1.324802E-3	1.094199E-2	-1.902763E-3	-3.060357E-3	-1.241393E-2	4.091383E-4	1.216873E-2	-4.074863E-3	-2.012720E-2	-9.560704E-3	3.860035E-3	3.558010E-3	-2.326900E-3	4.081441E-3	6.621879E-3	6.894718E-3	2.192699E-3	-1.277984E-2	-5.484581E-3	4.370359E-3	-2.037220E-2	-5.541492E-4	1.842798E-2	-2.911115E-3	3.296986E-3	-3.480854E-3	4.023127E-3	6.306580E-3	-7.981988E-3	1.025922E-2	1.722059E-2	-5.192413E-3	-2.406123E-2	-1.296814E-2	-1.102409E-3	-2.419860E-4	6.749614E-3	8.699258E-3	8.652059E-3	-4.407808E-3	9.153957E-3	-6.764051E-3	1.232532E-2	6.048892E-3	7.489833E-3	-4.187552E-3	5.175750E-3	4.514280E-3	5.547793E-3	7.048315E-3	-7.403283E-3	1.016505E-2	-1.997088E-2	4.871348E-3	-2.989629E-3	-7.986087E-3	-1.492490E-3	-4.878609E-3	5.204446E-3	2.375366E-4	-5.731251E-3	4.524749E-4	5.191204E-3	2.080478E-3	-9.802158E-3	-2.189411E-2	5.048537E-3	4.594673E-3	1.472002E-3	-2.498488E-3	1.484118E-2	-3.167518E-3	8.918727E-3	-6.703606E-3	2.095064E-3	-5.452019E-3	1.417240E-2	1.994175E-3	2.811697E-3	2.807029E-3	-1.791353E-2	1.744420E-3	-1.823218E-2	1.666326E-2	6.878641E-4	5.154540E-3	1.387649E-2	2.451440E-3	1.534332E-2	-1.119558E-2	3.620869E-3	-6.975457E-4	-8.504261E-3	-5.351284E-3	-1.183681E-2	-3.962884E-4	1.538174E-3	1.373536E-3	-1.605282E-2	-9.573380E-4	-2.251341E-2	-3.229254E-3
5.300010E+2	2.051341E-2	2.896026E-2	4.810367E-2	4.508054E-2	1.400342E-2	2.180753E-2	3.775878E-2	3.787087E-2	2.202484E-2	2.452805E-2	3.892021E-2	4.532602E-2	3.437494E-2	3.143204E-2	4.492693E-2	2.992843E-2	2.834571E-2	6.173790E-3	2.605125E-2	2.412511E-2	1.451918E-2	1.608388E-2	3.491255E-2	3.616037E-2	1.546570E-2	1.887335E-2	3.504392E-3	3.772264E-2	2.445455E-2	1.187636E-2	3.382177E-2	2.187411E-2	1.710447E-2	2.121285E-2	3.819245E-2	1.574440E-2	2.066142E-2	3.359309E-2	3.170192E-2	4.329584E-3	1.638801E-2	3.009842E-2	4.028493E-2	2.594586E-2	2.927177E-2	1.201502E-2	3.434574E-2	2.901437E-2	2.296474E-2	1.713454E-2	2.218045E-2	2.486524E-2	1.183700E-2	1.077680E-2	1.178222E-2	3.886460E-2	2.450419E-2	3.879928E-2	1.727840E-2	3.821441E-2	3.693340E-2	1.815053E-2	1.560290E-2	2.551412E-2	2.261198E-2	2.563518E-2	1.896170E-2	1.199759E-2	2.834797E-2	2.161157E-2	3.083173E-2	3.948002E-2	3.207330E-2	3.194768E-2	1.748234E-2	2.813048E-2	1.089196E-2	1.225240E-2	4.116228E-2	2.309313E-2	3.147884E-2	2.414545E-2	1.964351E-2	2.186969E-2	1.456445E-2	2.065277E-2	-3.890328E-3	1.771443E-2	1.933991E-2	2.826747E-2	9.614843E-3	1.273169E-2	3.418525E-2	3.454705E-3	2.932710E-2	2.775084E-2	1.859319E-2	1.667599E-2	2.784258E-2	2.439100E-2	4.155152E-2	2.830508E-2	2.424825E-2	4.882843E-2	1.214392E-2	3.519099E-2	3.246268E-2	2.659048E-2	2.332904E-2	1.432622E-2	2.706648E-2	2.836714E-2	3.267539E-2	2.537348E-2	1.362436E-2	3.383570E-2	2.229101E-2	2.556556E-2	2.009759E-2	4.006763E-2	2.837172E-2	3.026547E-2	2.237650E-2	2.653814E-2	1.359342E-2	3.757397E-2	1.688799E-2	5.052435E-2	1.663478E-2	1.362189E-2	3.195595E-2	3.092593E-2	1.195223E-2	1.933885E-2	3.489944E-2	1.700067E-2	4.409082E-2	2.888074E-2	1.316427E-2	2.649868E-2	4.334771E-2	3.177247E-2	1.376008E-2	4.264905E-2	2.155628E-2	3.254540E-2	9.080001E-3	3.869117E-2	4.171012E-2	3.219917E-2	1.412908E-2	4.001868E-2	4.271957E-2	1.303140E-2	2.499511E-2	2.117285E-2	1.737359E-2	3.344040E-2	3.308735E-2	2.080756E-2	2.214675E-2	2.752764E-2	1.467241E-2	4.415343E-2	2.421084E-2
5.305030E+2	7.780634E-3	2.470830E-2	1.522705E-2	2.044622E-2	1.258831E-2	1.507944E-2	1.601776E-2	1.441876E-2	8.601806E-3	1.920124E-2	8.361522E-3	-3.631837E-3	3.147863E-2	7.879259E-3	2.167552E-2	2.134967E-2	1.467820E-2	2.252434E-2	7.022526E-4	1.959607E-2	2.025312E-2	9.203325E-5	3.899824E-3	2.305595E-2	9.819868E-3	5.363519E-3	2.637486E-2	2.494347E-3	1.874604E-2	2.332303E-2	7.105630E-3	-2.415546E-3	2.465694E-2	1.475426E-2	2.193250E-2	9.849104E-3	2.056799E-2	1.703111E-2	1.779355E-2	2.487374E-2	2.512736E-2	9.728981E-3	7.496267E-3	3.935585E-3	1.875531E-2	1.231984E-2	5.903935E-3	2.019726E-3	8.027234E-3	1.146253E-2	1.172120E-2	1.973433E-2	1.037651E-2	2.337350E-2	2.741740E-2	2.396087E-2	6.380124E-3	1.703944E-2	2.309102E-2	-1.056433E-4	9.178893E-3	2.388123E-2	2.727918E-2	9.992552E-3	-4.226392E-3	1.841944E-2	1.879166E-2	2.904161E-2	1.259942E-2	2.433543E-2	4.275712E-3	5.891990E-3	3.063859E-3	2.052330E-2	5.501596E-3	-4.107201E-3	2.282348E-2	1.347335E-2	1.267961E-2	2.573344E-2	1.648199E-2	9.783774E-3	2.009085E-2	2.509181E-2	3.522387E-2	2.384937E-2	1.101744E-2	3.890344E-3	-1.149397E-2	1.383814E-2	2.025718E-2	8.933313E-3	2.036506E-2	1.395447E-2	3.571020E-2	2.319065E-2	1.035435E-2	9.599277E-3	-4.652135E-4	3.794302E-3	5.639044E-3	-1.653367E-3	-1.794659E-4	2.161573E-2	1.251339E-2	6.832517E-3	-3.754157E-3	4.186170E-3	1.850687E-2	1.184497E-2	1.599974E-2	7.684335E-3	9.261558E-3	5.678278E-3	6.488435E-3	-7.088184E-4	1.727755E-2	9.027900E-3	1.015341E-2	1.515621E-2	1.524771E-2	2.155409E-2	1.269242E-2	3.654936E-2	1.736422E-2	2.092174E-2	1.877203E-2	3.080658E-3	2.394013E-2	1.985165E-2	2.079694E-2	1.040681E-2	1.302858E-2	2.526555E-2	8.928123E-3	1.533067E-2	2.317605E-3	-4.802199E-3	9.501829E-3	2.912513E-2	8.447741E-3	1.128942E-2	2.195135E-2	1.560252E-2	6.052369E-3	5.842411E-4	2.074332E-3	3.320738E-2	1.636859E-2	2.236706E-2	1.106290E-2	1.902760E-2	5.197690E-3	2.450621E-2	3.845285E-3	2.456143E-2	9.893671E-3	2.344996E-2	1.403443E-2	-5.414486E-3	2.325231E-2	3.208887E-2	5.236640E-2	2.325769E-2	-2.324146E-2
5.310050E+2	5.363348E-3	-1.400083E-2	-2.804573E-3	-1.137363E-2	-8.333486E-3	9.384167E-3	8.138187E-3	-9.698362E-3	-7.603535E-3	-2.347759E-3	1.542155E-3	-6.491401E-3	-8.960616E-3	4.178777E-3	-5.223139E-3	1.582135E-3	-6.406404E-3	-5.956754E-4	1.441987E-2	-2.496815E-3	-7.620024E-3	1.135200E-2	2.480925E-3	-2.161569E-3	-2.499223E-3	1.344623E-2	-4.632321E-3	3.699792E-3	-5.919137E-5	-1.160162E-2	1.590404E-3	7.603710E-5	1.724405E-3	5.549435E-3	-3.192484E-3	1.060790E-3	-1.022263E-2	-9.895418E-3	6.228652E-3	1.322240E-2	-1.105812E-2	-7.990800E-3	4.479496E-4	2.431348E-3	-2.393636E-3	6.041378E-3	1.517961E-3	1.125670E-2	-3.177396E-3	8.146032E-3	-4.686909E-3	5.946392E-3	-7.103369E-5	4.658267E-3	-2.356112E-2	-1.414179E-2	-1.186748E-3	-1.225658E-2	-1.761691E-3	-4.873076E-3	1.777364E-2	1.299699E-3	-9.098262E-3	-9.597849E-4	-1.844225E-2	4.003006E-3	-3.160336E-3	5.458185E-3	8.691591E-3	-8.639000E-3	5.445631E-3	9.102184E-3	2.883441E-3	-4.565364E-3	-1.974511E-2	9.198938E-3	-4.712225E-3	-3.863913E-3	-1.505508E-2	-4.467047E-3	1.173049E-2	7.397464E-3	-8.423246E-3	1.474534E-2	-4.605206E-3	-1.669275E-2	-4.442979E-3	-5.579272E-4	6.502370E-3	-3.049233E-3	-1.281475E-2	-2.450940E-3	-1.939789E-2	-1.817547E-2	-1.767439E-3	-6.453191E-4	-2.384019E-2	-1.605570E-3	-7.876586E-3	-9.166822E-3	5.867219E-4	-9.461093E-3	1.018409E-2	-7.686020E-3	-2.244951E-3	2.211769E-3	5.190160E-3	-2.800694E-3	1.773756E-2	3.982547E-3	2.468065E-3	2.130097E-3	-2.767009E-3	-8.329646E-3	3.044303E-3	-8.368401E-4	5.577535E-3	7.675697E-3	-5.829623E-3	-7.062075E-3	-4.949225E-3	-9.008713E-3	-8.245574E-3	-7.256088E-3	-6.959219E-3	-2.380026E-2	-1.191580E-2	-5.968070E-4	8.838705E-3	-5.704982E-3	-1.539606E-3	1.251864E-2	1.429951E-2	-1.511684E-3	-2.313771E-3	-3.687161E-3	-1.291413E-2	6.271222E-3	1.217972E-2	-1.299045E-3	-4.934072E-3	8.606423E-3	-1.262904E-3	1.181044E-2	-5.200296E-3	-1.178840E-2	1.092232E-2	-5.472476E-3	-1.638560E-2	-1.997476E-3	1.514991E-2	1.433707E-3	1.323743E-2	3.683109E-5	-6.384260E-3	-1.317148E-3	-1.407784E-2	-3.497624E-3	-9.398176E-3	8.458791E-3	-1.364722E-2	1.644400E-2	-1.293200E-2	2.580750E-2	3.927764E-2
5.315030E+2	-2.331154E-2	2.534390E-3	-1.057938E-2	-1.913164E-2	7.160439E-3	-2.143035E-2	-1.978978E-2	3.801098E-4	-2.326588E-2	-2.921434E-2	-1.664243E-2	-1.618487E-2	-2.090552E-2	-1.134715E-2	-1.186366E-2	-1.368096E-2	-1.143128E-2	-2.250408E-2	9.219065E-4	-1.272527E-2	-2.175833E-2	-2.130978E-2	-1.015770E-2	2.640921E-3	-6.847105E-3	-6.509447E-3	-9.398405E-3	-1.277392E-2	-1.026239E-2	-1.246282E-2	-6.675047E-3	-1.630153E-2	-2.458301E-2	-1.139899E-2	-2.981721E-2	-1.726588E-2	-1.048124E-2	-2.120905E-2	-1.487457E-2	-2.952456E-2	-1.694913E-2	2.510136E-3	-2.524752E-2	-2.043103E-2	-1.118540E-2	-1.450198E-2	-1.908012E-2	-2.102655E-2	3.084469E-3	-2.452385E-4	-1.279241E-2	-1.865200E-2	-1.192870E-2	-5.175768E-3	-2.650071E-2	-2.397002E-2	-1.171766E-2	-8.665342E-3	-1.758204E-2	-1.979360E-2	-2.566949E-2	-1.712593E-2	-1.181296E-2	-1.520853E-2	-1.599313E-2	-1.272612E-2	-1.046211E-2	-7.713475E-3	-2.154313E-2	-1.564436E-2	7.899564E-3	-2.134552E-2	-2.040913E-2	-2.294714E-2	-8.580811E-3	-1.268485E-2	-2.754369E-2	-1.124293E-2	-1.213818E-2	-2.605975E-2	-6.275290E-3	-9.963650E-3	-1.582160E-2	-1.603484E-2	-2.099617E-2	-2.540575E-2	-6.866213E-3	-6.757909E-3	-2.705944E-4	-4.618717E-3	-7.305398E-3	3.682078E-3	-2.022402E-2	-1.496055E-2	-2.252750E-2	-1.452577E-2	-5.266278E-3	-1.294596E-2	3.219254E-3	-2.978197E-2	-2.858141E-2	-2.328117E-2	-2.323113E-2	-1.567489E-2	-1.642255E-3	-1.288014E-2	-8.360761E-3	-1.960157E-2	-2.440370E-2	-1.679636E-2	-1.111389E-2	-3.536967E-3	-3.054078E-2	3.226053E-3	-1.083669E-2	-5.585976E-3	-2.067648E-2	-9.879025E-3	-4.809433E-4	-8.671990E-3	5.355219E-4	-1.414634E-2	-7.658287E-3	-1.332916E-2	-1.322989E-2	-1.900744E-2	-7.460698E-3	-1.162116E-2	-6.393100E-3	-1.054633E-2	-2.447943E-2	-1.847497E-2	-1.477799E-2	-3.264481E-2	-1.514303E-2	-3.233188E-3	-4.159810E-3	-1.124771E-2	-4.104195E-3	-2.197514E-2	-1.598065E-3	-2.759411E-2	1.041998E-3	-7.512382E-4	-1.176088E-3	-2.639534E-3	-1.409383E-2	-2.846362E-2	-8.466651E-3	-1.047509E-2	-1.516651E-2	-2.186130E-2	-2.667868E-2	-1.960547E-2	2.369094E-3	-2.142894E-2	-2.299357E-2	-1.270139E-2	-1.589468E-2	-2.334620E-2	-6.897781E-3	-3.337021E-2	-5.433721E-3	-2.695337E-2	-8.859477E-3
5.320070E+2	2.044926E-3	-1.923137E-2	-4.562026E-3	-1.360544E-2	-1.138193E-2	-9.082652E-3	-1.674157E-2	-2.524365E-2	1.033204E-2	-2.534290E-3	-1.326692E-2	-1.330906E-3	-3.816937E-3	-1.482101E-2	-3.447003E-2	-2.153515E-2	-2.617185E-3	-1.352306E-2	-1.560250E-2	-1.135404E-2	-1.181724E-2	5.215452E-4	-1.312933E-2	-1.990589E-2	-1.360888E-2	-1.669905E-2	-5.443012E-3	-4.337275E-3	4.055702E-4	-1.240746E-2	-1.131893E-2	-1.425640E-2	-8.302066E-3	-7.210828E-3	-1.493434E-2	-4.867492E-3	-1.041582E-2	-1.221637E-3	-9.703746E-3	1.890261E-4	3.906682E-3	-6.253124E-3	-2.543248E-3	2.303918E-4	-1.377209E-2	-1.543893E-3	-9.973512E-3	-1.443063E-4	-9.181418E-3	-1.023864E-2	-1.419890E-2	-2.156771E-2	-1.515992E-2	-2.117371E-2	-4.933250E-3	-1.242724E-2	-1.828359E-2	-2.034247E-2	-1.763852E-2	-1.084048E-2	1.189683E-3	-7.057299E-3	-1.188996E-2	-6.723613E-4	-1.898442E-3	-1.610588E-2	-1.749578E-2	-2.516564E-2	-2.162374E-2	-2.711867E-2	-1.749025E-2	-3.105248E-3	-1.207279E-3	-1.563373E-2	-9.910821E-3	-1.197232E-2	-2.196273E-2	-1.444614E-2	-1.698741E-2	-9.126625E-3	-1.708117E-2	-1.062774E-2	-1.889561E-2	-7.843817E-3	-6.110356E-3	-1.393100E-2	-1.124029E-2	-2.240290E-2	-9.026578E-3	-2.110107E-2	-1.528175E-2	-1.326428E-2	-2.034609E-2	-1.496711E-2	-1.594861E-2	-2.182055E-2	2.867555E-3	-5.654097E-3	-2.109211E-2	5.709445E-3	-5.164590E-3	-5.941580E-3	-1.046440E-2	-2.089743E-2	-2.714409E-4	-1.720418E-2	-1.292547E-2	-1.561898E-2	-1.905005E-2	-3.345020E-3	-1.040489E-2	-1.382411E-2	4.181984E-3	-2.456932E-2	-9.372765E-3	-1.011196E-2	-1.865038E-2	-6.446231E-3	-6.723055E-3	-1.278776E-2	-2.908220E-2	-2.933376E-2	-8.360090E-3	-1.404019E-2	-1.659118E-2	-7.590895E-3	-2.882726E-3	-1.454120E-2	-1.807206E-2	-3.454373E-2	-8.483528E-4	-1.483569E-2	-1.477669E-2	-2.876475E-2	-3.036499E-3	-1.093963E-2	-1.865937E-2	-5.873755E-3	-9.540769E-3	-2.698691E-2	-2.893933E-2	-2.439208E-2	-2.952459E-2	-1.831442E-2	-1.583395E-2	-6.016241E-3	-2.085337E-2	-1.794013E-2	-2.417793E-2	-2.694761E-2	-9.531284E-3	-2.048507E-2	-8.001683E-3	-1.962352E-2	-1.578465E-2	-4.463711E-3	5.339603E-3	-1.644274E-2	-1.067194E-2	-3.612447E-3	-1.965377E-2	-2.379236E-2	-3.206731E-2	-4.315602E-2	-2.912798E-2
5.325120E+2	1.758926E-2	2.055074E-2	-4.391552E-4	1.685702E-2	1.168211E-3	-2.329682E-3	1.900004E-2	-1.643714E-2	1.711991E-2	2.252581E-3	8.274880E-3	9.197504E-4	7.411128E-3	1.314772E-2	1.592194E-2	6.214066E-3	1.518862E-2	1.728342E-2	6.643867E-3	1.657283E-2	1.021437E-2	1.781498E-2	8.266171E-3	-3.330704E-3	2.110583E-2	6.528835E-3	5.099917E-3	2.238702E-4	-2.464393E-3	2.387273E-2	-5.619916E-3	2.022643E-2	1.280173E-2	1.432723E-3	5.700856E-3	1.423245E-2	7.709550E-3	1.792317E-3	-1.198903E-3	-1.552659E-3	9.038005E-3	8.137165E-4	1.352113E-2	8.469620E-3	8.180615E-3	1.355063E-2	2.328873E-2	1.387570E-2	8.581996E-3	3.204428E-3	1.589127E-2	5.965939E-3	1.344392E-2	2.135680E-2	-6.938266E-4	1.093013E-2	1.900207E-2	1.367186E-2	2.289951E-2	1.663611E-2	1.281903E-2	1.889918E-3	5.824944E-3	4.419019E-3	2.589176E-2	8.137081E-3	1.722021E-2	2.565469E-2	1.690805E-2	1.935761E-2	-4.386619E-3	1.682542E-2	2.503022E-2	8.853401E-3	1.478884E-2	2.069816E-2	3.711569E-2	2.488962E-2	7.116961E-3	1.031394E-2	3.731455E-3	7.502722E-3	1.967254E-2	5.345029E-3	-4.563380E-4	1.256486E-2	1.901088E-2	1.700768E-2	1.602716E-2	1.075269E-2	2.760303E-2	1.032586E-2	4.715044E-3	2.467531E-2	1.258470E-2	2.536141E-2	2.248319E-2	1.711198E-2	2.027667E-2	2.778117E-2	9.563091E-3	1.775278E-2	1.353666E-2	-7.646868E-3	1.348834E-3	-1.079787E-3	6.240640E-3	1.825986E-2	1.059678E-2	2.210961E-2	-4.927786E-3	1.322331E-2	-2.626776E-3	2.430822E-2	1.217060E-2	1.563851E-2	2.213317E-2	5.150969E-3	6.827592E-3	2.750970E-3	1.372209E-2	1.253924E-2	6.585531E-3	-1.302772E-3	2.283080E-2	1.093010E-2	2.116346E-2	5.255311E-3	1.792946E-2	1.433741E-2	1.976980E-4	-2.349745E-3	7.092654E-3	9.582933E-3	6.531925E-3	9.021282E-3	1.511939E-2	1.483125E-2	-3.747618E-3	7.998567E-3	1.272552E-2	8.413270E-3	1.057941E-2	3.975957E-3	6.830579E-3	2.045250E-2	1.586385E-2	7.466650E-3	1.415768E-2	-7.368333E-3	1.183234E-2	-6.122894E-3	1.108017E-2	1.960251E-2	1.715617E-2	8.392246E-3	1.714969E-2	5.481156E-3	1.169314E-2	2.409985E-2	1.865198E-2	1.870579E-2	8.543093E-3	3.159121E-2	6.054806E-2
5.330080E+2	3.811480E-2	3.465734E-2	3.249737E-2	5.767821E-2	5.237924E-2	6.812526E-2	3.921609E-2	3.684230E-2	6.197969E-2	4.285477E-2	4.344071E-2	2.860940E-2	4.953627E-2	2.963393E-2	3.207185E-2	4.941199E-2	4.880035E-2	4.024287E-2	4.892946E-2	4.319959E-2	4.308056E-2	5.034646E-2	4.051558E-2	2.990076E-2	6.075320E-2	4.459779E-2	4.372141E-2	2.660054E-2	4.150266E-2	5.134565E-2	4.023447E-2	3.705296E-2	4.122416E-2	7.772037E-2	4.417157E-2	4.213530E-2	5.491957E-2	4.552640E-2	3.466026E-2	2.912647E-2	5.175403E-2	4.920454E-2	6.460331E-2	6.225279E-2	5.140358E-2	2.683943E-2	3.111220E-2	5.683570E-2	4.029195E-2	5.836009E-2	4.188685E-2	4.803782E-2	4.476173E-2	4.041849E-2	4.310161E-2	4.129485E-2	4.484226E-2	4.852001E-2	5.786760E-2	4.125910E-2	2.598408E-2	2.106733E-2	6.028112E-2	3.536913E-2	4.746199E-2	4.185761E-2	4.427387E-2	4.404669E-2	5.776770E-2	2.435676E-2	6.233849E-2	4.740361E-2	4.988640E-2	6.288972E-2	4.234177E-2	3.766419E-2	4.116184E-2	3.898784E-2	2.764830E-2	5.121333E-2	2.986615E-2	4.781747E-2	5.040395E-2	5.548349E-2	4.039948E-2	3.098712E-2	3.627874E-2	4.554649E-2	3.601712E-2	3.515520E-2	4.032663E-2	7.788266E-2	5.311471E-2	4.548954E-2	5.603616E-2	3.435408E-2	3.427072E-2	4.614701E-2	5.753896E-2	5.067579E-2	5.167697E-2	5.216777E-2	5.695782E-2	5.042592E-2	7.310365E-2	5.521895E-2	4.347723E-2	4.026472E-2	1.828565E-2	5.129645E-2	2.500346E-2	4.520101E-2	4.721804E-2	3.720664E-2	5.941755E-2	3.314367E-2	5.484304E-2	4.106093E-2	3.229579E-2	3.149324E-2	4.644806E-2	4.266272E-2	2.667940E-2	4.803495E-2	5.982234E-2	5.111792E-2	5.753093E-2	5.312909E-2	3.482078E-2	6.866801E-2	5.439196E-2	5.643133E-2	4.655010E-2	2.765043E-2	3.696784E-2	6.911960E-2	3.967312E-2	3.773553E-2	4.971984E-2	4.727024E-2	4.893762E-2	5.166817E-2	6.283727E-2	4.384729E-2	6.386391E-2	3.678837E-2	5.556706E-2	5.402263E-2	3.384159E-2	6.625898E-2	3.746817E-2	5.817554E-2	2.629252E-2	4.577170E-2	4.434379E-2	4.226820E-2	4.431935E-2	3.338065E-2	3.388538E-2	5.865394E-2	3.530464E-2	6.051048E-2	1.588536E-2	2.452016E-2	4.087411E-2
5.332150E+2	3.978969E-2	1.411304E-2	3.574394E-2	1.168167E-2	5.664505E-2	5.974441E-2	4.255736E-2	5.580835E-2	2.057060E-2	1.183725E-2	2.637138E-2	1.403119E-2	3.603404E-2	4.818839E-2	4.165577E-2	2.400445E-2	3.411294E-2	2.060038E-2	1.977429E-2	2.784409E-2	2.871292E-2	2.176016E-2	1.906218E-2	3.324394E-2	3.588182E-2	2.561470E-2	2.528225E-2	2.131389E-2	4.480934E-2	4.170016E-2	1.785092E-2	3.686022E-2	3.623505E-2	3.128866E-2	1.909976E-2	3.179176E-2	4.933119E-2	3.681027E-2	3.858751E-2	3.748926E-2	3.040280E-2	3.180063E-2	1.536993E-2	3.873395E-2	2.136104E-2	2.646428E-2	3.110141E-2	4.942047E-2	3.274633E-2	4.037483E-2	2.483216E-2	1.655704E-2	3.854788E-2	4.904124E-2	2.703725E-2	4.170067E-2	5.444634E-2	2.472365E-2	2.021884E-2	3.589504E-2	4.735246E-2	3.128903E-2	2.096280E-2	2.651314E-2	4.426505E-2	2.995597E-2	2.446388E-2	4.507657E-2	3.482144E-2	4.749393E-2	1.368006E-2	5.008825E-2	3.087090E-2	4.300148E-2	4.207256E-2	3.742759E-2	4.915194E-2	3.218692E-2	2.299858E-2	4.795727E-2	6.673674E-2	4.057129E-2	2.628572E-2	3.550987E-2	4.410187E-2	4.026966E-2	2.230877E-2	3.719132E-2	2.761580E-2	4.303782E-2	3.482471E-2	2.872173E-2	4.106707E-2	2.880403E-2	2.992517E-2	4.993680E-2	2.588586E-2	2.844222E-2	3.669601E-2	1.944923E-2	4.372271E-2	4.621674E-2	4.268942E-2	2.797636E-2	5.023711E-2	1.819676E-2	2.116247E-2	4.414214E-2	2.797229E-2	3.417125E-2	4.443046E-2	3.587103E-2	2.626755E-2	2.291544E-2	2.033205E-2	3.573905E-2	2.760764E-2	4.399838E-2	4.377957E-2	3.874610E-2	4.966252E-2	3.299214E-2	4.167221E-2	2.563728E-2	2.758341E-2	5.072236E-2	3.559056E-2	4.764804E-2	3.854799E-2	4.028387E-2	2.072953E-2	3.648102E-2	3.872117E-2	2.859404E-2	3.455787E-2	1.597047E-2	4.604724E-2	4.329152E-2	4.725253E-2	4.045044E-2	4.917340E-2	2.697668E-2	3.396932E-2	4.049905E-2	2.704159E-2	3.571432E-2	4.471295E-2	2.628798E-2	3.937869E-2	2.059395E-2	2.229666E-2	4.582665E-2	4.312630E-2	5.595119E-2	3.664904E-2	3.671044E-2	3.227723E-2	4.900046E-2	4.332127E-2	3.635662E-2	4.202162E-2	3.628785E-2	3.314078E-2	-4.143545E-3	2.643802E-2
5.334160E+2	1.146943E-2	1.539034E-3	1.421617E-2	3.709609E-2	3.763194E-2	1.994227E-2	1.180852E-2	1.465312E-2	1.193753E-2	1.412386E-2	2.522584E-2	2.259309E-2	3.250207E-3	1.619527E-2	1.549133E-2	1.118983E-2	1.889286E-2	-1.256091E-2	1.986303E-2	2.676729E-2	1.591322E-2	6.872379E-3	2.704895E-2	9.778906E-3	3.170091E-2	1.972049E-2	2.210402E-2	2.167139E-2	1.082616E-2	2.760965E-3	3.424934E-2	1.432432E-2	1.500957E-2	5.686007E-3	1.389304E-2	2.012916E-2	2.849499E-3	2.561508E-2	9.407390E-3	3.608154E-2	9.033710E-3	1.587328E-2	1.050756E-2	3.059595E-2	2.725106E-2	6.392535E-3	8.267528E-3	2.982959E-2	7.044351E-3	4.183073E-2	-5.230170E-3	1.100850E-2	-7.670184E-6	3.110663E-2	3.411315E-2	1.207972E-2	1.032930E-4	1.143476E-2	4.207320E-2	1.793861E-2	1.332685E-2	2.635777E-2	1.507974E-2	6.370872E-3	2.625207E-2	3.172390E-2	-2.390680E-3	9.686093E-3	2.090504E-2	3.674464E-2	1.638716E-2	1.233440E-2	7.160558E-3	4.435258E-2	4.854755E-3	1.409989E-2	2.591162E-2	1.232658E-2	1.080230E-2	9.982378E-3	2.511094E-2	2.396219E-2	6.265685E-3	4.014358E-3	2.986071E-2	1.441837E-2	2.039242E-3	3.876417E-3	1.398729E-2	1.042166E-2	1.266965E-2	1.242970E-2	2.303963E-2	3.023448E-2	8.435052E-3	7.753856E-3	2.310765E-2	3.129131E-2	3.753542E-3	1.166997E-2	2.541060E-2	1.617617E-2	3.174245E-2	1.993863E-2	5.599685E-3	5.391274E-3	3.711275E-3	1.660030E-2	2.533645E-2	9.330640E-3	7.023849E-3	2.182966E-2	-1.888311E-3	4.610265E-2	-7.471152E-4	1.870891E-2	2.681369E-2	-5.402128E-3	1.524925E-2	1.573148E-2	1.320061E-2	8.301852E-3	1.082023E-2	-6.867913E-3	2.348907E-2	1.202798E-2	1.911454E-2	4.335643E-2	1.634839E-2	2.835270E-2	1.633431E-2	2.687156E-2	1.348003E-2	1.734344E-2	1.323872E-2	1.933942E-2	1.228647E-3	-5.539085E-3	6.673811E-3	7.676369E-3	1.746108E-2	-3.408288E-3	1.239419E-2	1.484603E-2	1.202831E-2	1.684328E-2	2.036657E-2	-7.809277E-4	2.416060E-2	4.268495E-2	1.966877E-2	1.483793E-2	3.388700E-2	3.824775E-2	6.992895E-3	4.305811E-3	3.289697E-2	2.740869E-3	2.617347E-2	2.050438E-2	2.954075E-2	3.819634E-2	2.286060E-2	-1.290036E-2	3.651487E-2
5.336130E+2	-2.064416E-3	9.845154E-3	-1.943694E-3	-6.771424E-3	6.550601E-3	-4.894619E-3	5.265859E-3	4.542868E-3	-1.497711E-2	-5.237989E-3	8.009574E-3	5.897134E-3	-1.857929E-3	-3.281939E-3	-1.000567E-2	-1.078019E-3	1.038306E-2	5.380499E-3	6.786634E-3	9.152328E-3	1.361674E-2	1.309525E-2	6.628576E-3	3.792412E-3	2.523272E-2	-1.095491E-2	5.286337E-3	1.567437E-2	1.248853E-2	-9.877811E-3	5.465596E-3	9.258434E-3	-2.438170E-3	2.611942E-3	7.894871E-3	5.530987E-3	1.235656E-2	2.463022E-2	-8.713398E-3	1.934926E-2	2.849291E-2	-7.033116E-3	-6.251674E-3	-1.477707E-3	4.288786E-3	-4.171877E-3	-1.236896E-2	3.873001E-3	-6.420431E-3	1.336037E-3	-2.836634E-3	1.291579E-2	3.688435E-3	8.071481E-3	2.232983E-2	-1.646471E-2	3.535852E-3	1.647255E-2	-4.318163E-3	-9.164061E-3	-3.084010E-3	1.430207E-3	5.765015E-4	1.320175E-2	-5.508162E-3	-7.132170E-3	-4.504114E-3	1.625599E-2	-6.731590E-3	-9.132288E-4	-1.171381E-4	-2.225996E-3	8.997631E-4	1.616849E-2	1.575916E-2	-2.570542E-2	-2.811193E-3	2.132488E-2	1.120845E-2	-2.294666E-3	-4.012347E-3	-8.486451E-3	-1.187128E-2	-1.130285E-3	1.486308E-3	-5.041214E-3	-7.527871E-3	1.193802E-2	6.313241E-3	-9.355679E-3	-6.012140E-3	1.146650E-2	-2.548816E-4	7.865445E-3	-1.146733E-3	-1.291895E-3	8.557195E-3	6.650108E-3	-3.255620E-3	1.446242E-2	2.697694E-3	8.912619E-3	1.856785E-2	1.458078E-2	-1.096397E-2	1.576219E-2	-2.282202E-3	-8.589995E-3	-1.362060E-2	-2.412015E-3	-3.108483E-3	8.980584E-3	-1.387807E-3	2.804100E-3	1.092028E-2	-6.264543E-4	3.539382E-3	-5.611921E-3	2.484176E-3	2.817881E-3	1.238586E-3	-1.402988E-2	1.706297E-2	1.383121E-2	-8.998848E-3	-1.623855E-3	3.294323E-3	-1.183328E-2	4.262114E-3	1.464130E-2	-6.810716E-3	-1.453734E-2	2.545630E-4	-4.179378E-3	5.282930E-3	1.556268E-2	2.515796E-3	3.325284E-2	1.390372E-2	1.355738E-2	3.733261E-3	-8.737436E-3	2.874655E-3	3.274951E-3	-1.014872E-2	1.242795E-3	3.801983E-3	9.547548E-3	-4.780486E-3	8.426408E-3	6.389313E-3	1.704874E-2	4.731449E-3	1.995354E-2	9.259352E-3	1.423775E-2	-9.996944E-3	7.168762E-3	7.378859E-3	1.468030E-4	9.458632E-3	1.090365E-2	-1.749245E-2	-2.953026E-2	-6.335059E-3
5.338050E+2	2.188201E-2	2.669724E-2	4.305750E-2	2.090005E-2	5.474535E-2	4.699507E-2	4.777600E-2	4.004219E-2	1.205834E-2	3.414044E-2	3.553240E-2	4.890999E-2	3.261802E-2	2.005747E-2	1.953020E-2	3.548962E-2	2.044260E-2	1.818360E-2	1.581396E-2	4.511253E-2	4.300088E-2	2.266629E-2	1.320695E-2	5.583391E-3	2.365172E-2	4.071183E-2	3.896495E-2	2.831318E-2	1.736970E-2	2.603988E-2	1.225879E-2	3.378912E-2	2.314538E-2	5.043754E-2	2.627080E-2	2.757182E-2	2.062766E-2	2.931878E-2	2.560104E-2	2.199755E-2	4.662512E-2	2.774940E-2	2.133366E-2	5.120312E-2	4.355757E-2	1.486688E-2	2.577818E-2	3.721148E-2	2.844528E-2	3.759150E-2	2.380628E-2	3.170244E-2	3.424724E-2	3.852459E-2	2.025146E-2	2.203314E-2	2.091680E-2	2.088979E-2	3.495267E-2	3.346840E-2	3.820423E-2	2.981477E-2	3.024961E-2	2.215632E-2	2.431047E-2	4.307273E-2	2.048824E-2	4.055937E-2	3.935738E-2	3.420888E-2	2.384729E-2	4.182148E-2	4.271633E-2	3.294422E-2	3.272406E-2	5.096737E-2	2.040825E-2	2.847618E-2	2.717341E-2	3.276949E-2	4.949732E-2	3.121810E-2	2.922739E-2	3.837502E-2	2.943095E-2	2.975532E-2	2.663838E-2	1.815702E-2	3.343206E-2	2.741757E-2	3.616821E-2	2.132001E-2	5.268687E-2	2.290754E-2	3.625193E-2	3.593933E-2	1.036579E-2	3.567911E-2	1.698524E-2	2.340177E-2	1.857316E-2	3.126204E-2	3.475496E-2	3.764046E-2	3.010998E-2	1.205673E-2	3.816235E-2	1.251328E-2	3.105411E-2	1.708917E-2	3.848838E-2	1.014972E-2	2.571593E-2	3.365877E-2	2.754230E-2	3.800832E-2	3.055871E-2	1.734544E-2	3.433160E-2	3.295373E-2	2.947376E-2	1.596697E-2	4.615967E-2	3.151058E-2	2.861575E-2	3.291148E-2	2.372055E-2	4.974120E-2	2.431788E-2	3.546116E-2	2.651079E-2	4.799441E-2	4.462746E-2	2.700351E-2	5.751557E-3	3.393059E-2	4.461771E-2	1.897670E-2	2.975213E-2	3.356100E-2	2.993058E-2	3.531497E-2	3.069951E-2	4.495850E-2	1.019203E-2	4.120279E-2	1.834091E-2	3.559889E-2	2.519418E-2	2.981626E-2	2.356781E-2	4.547834E-2	1.126351E-2	3.053344E-2	2.711142E-2	3.585015E-2	3.697672E-3	2.916010E-2	3.254905E-2	4.245131E-2	3.228823E-2	4.777624E-2	1.467254E-2	5.458226E-2	5.121604E-2
5.340070E+2	7.050374E-2	6.811609E-2	7.939178E-2	1.084909E-1	9.444109E-2	6.746125E-2	6.953837E-2	9.039920E-2	9.677184E-2	7.069876E-2	8.759268E-2	9.436327E-2	6.820558E-2	8.626554E-2	6.606969E-2	8.283586E-2	1.013385E-1	6.854284E-2	8.925277E-2	8.746087E-2	8.706164E-2	7.237853E-2	6.685384E-2	7.106127E-2	7.536276E-2	6.625167E-2	1.021134E-1	1.031579E-1	6.640150E-2	1.020089E-1	1.017647E-1	9.802767E-2	8.975431E-2	7.964397E-2	7.721408E-2	8.174312E-2	9.991892E-2	7.500751E-2	8.359105E-2	7.719997E-2	7.001906E-2	8.791793E-2	6.528843E-2	9.635269E-2	9.756325E-2	7.302199E-2	8.314637E-2	8.859339E-2	7.310811E-2	9.049244E-2	7.588549E-2	7.284221E-2	8.234989E-2	8.981983E-2	8.618614E-2	9.518908E-2	7.114584E-2	6.867190E-2	9.162009E-2	8.351364E-2	8.726261E-2	7.523983E-2	8.516973E-2	6.210216E-2	7.108221E-2	8.805171E-2	8.294745E-2	7.845716E-2	8.828332E-2	7.657973E-2	7.446399E-2	8.947512E-2	8.120309E-2	8.158660E-2	7.855020E-2	8.347730E-2	8.350234E-2	1.018772E-1	8.034327E-2	7.537110E-2	8.269001E-2	6.790849E-2	5.370334E-2	9.614450E-2	8.449324E-2	9.724861E-2	1.003112E-1	7.294364E-2	8.030325E-2	6.959075E-2	9.067631E-2	9.968311E-2	8.141336E-2	8.264201E-2	5.287177E-2	1.001831E-1	8.138812E-2	7.709518E-2	6.890746E-2	6.317864E-2	9.569602E-2	9.031370E-2	7.883576E-2	8.638981E-2	5.118280E-2	8.019253E-2	6.827519E-2	1.013250E-1	8.113380E-2	7.385868E-2	8.829973E-2	7.285905E-2	5.750633E-2	9.700931E-2	6.632888E-2	7.402575E-2	8.400212E-2	9.154847E-2	9.684795E-2	1.047849E-1	1.024339E-1	8.900438E-2	7.855234E-2	6.975026E-2	8.202643E-2	7.766764E-2	8.326508E-2	8.310942E-2	7.288308E-2	8.598728E-2	1.028944E-1	9.188689E-2	9.098795E-2	7.948511E-2	5.870404E-2	7.562384E-2	6.075236E-2	9.290180E-2	8.909844E-2	1.026084E-1	8.528775E-2	7.606183E-2	7.883840E-2	8.795496E-2	7.449300E-2	9.807331E-2	9.314295E-2	9.475595E-2	8.678702E-2	8.946926E-2	8.072667E-2	9.092150E-2	8.536750E-2	9.758537E-2	7.391518E-2	9.193795E-2	7.770267E-2	9.879074E-2	8.227919E-2	7.579784E-2	9.883067E-2	1.072781E-1	9.009919E-2	5.335490E-2	8.154344E-2
5.342040E+2	1.007728E-1	9.245164E-2	9.450948E-2	1.066880E-1	1.032834E-1	8.252178E-2	8.357773E-2	8.874878E-2	7.727003E-2	1.059202E-1	7.421830E-2	8.918856E-2	8.394532E-2	9.235288E-2	9.671924E-2	8.690299E-2	9.604867E-2	8.958579E-2	1.128702E-1	1.051075E-1	9.008459E-2	8.162081E-2	1.015802E-1	8.374021E-2	1.074427E-1	1.192038E-1	7.057774E-2	8.923372E-2	1.030587E-1	9.198906E-2	1.005318E-1	1.042161E-1	1.104586E-1	1.210808E-1	9.347381E-2	1.061627E-1	9.463610E-2	9.620494E-2	9.657724E-2	1.136759E-1	9.283705E-2	9.551386E-2	1.073728E-1	1.011213E-1	8.841035E-2	1.015749E-1	1.161505E-1	9.835796E-2	7.967569E-2	7.252254E-2	8.855338E-2	1.021715E-1	8.082673E-2	9.119210E-2	1.173479E-1	8.866681E-2	1.048645E-1	8.401692E-2	8.290536E-2	8.185698E-2	9.517186E-2	1.054439E-1	8.461552E-2	1.034999E-1	9.933611E-2	9.350606E-2	1.129591E-1	1.233103E-1	7.294725E-2	9.916239E-2	8.728436E-2	1.219249E-1	1.123854E-1	9.192052E-2	7.123908E-2	9.532863E-2	1.022206E-1	9.923892E-2	9.398074E-2	9.996012E-2	1.037656E-1	9.964743E-2	8.688705E-2	7.647793E-2	8.064500E-2	6.700157E-2	8.942055E-2	1.041884E-1	7.951369E-2	9.842282E-2	8.510330E-2	8.726025E-2	7.931475E-2	1.064405E-1	1.131748E-1	1.234121E-1	9.573867E-2	7.705511E-2	1.072627E-1	8.609759E-2	9.438734E-2	7.460838E-2	1.104657E-1	9.346305E-2	9.851882E-2	1.007500E-1	1.143889E-1	9.712263E-2	1.023455E-1	7.652485E-2	1.204545E-1	1.039110E-1	1.046537E-1	8.696668E-2	1.143692E-1	6.008969E-2	1.015889E-1	8.805954E-2	8.134229E-2	9.547788E-2	1.186875E-1	8.284177E-2	9.114270E-2	9.073861E-2	8.476097E-2	7.373963E-2	9.985681E-2	1.246261E-1	9.189805E-2	1.064585E-1	1.083102E-1	1.312461E-1	9.512174E-2	7.810958E-2	1.065348E-1	9.865355E-2	1.104539E-1	9.830458E-2	7.682580E-2	9.381437E-2	9.318738E-2	9.375542E-2	1.051494E-1	9.847777E-2	9.455058E-2	1.165350E-1	6.818168E-2	9.937589E-2	1.012325E-1	8.943759E-2	1.022559E-1	1.132248E-1	6.703074E-2	8.263943E-2	1.144950E-1	1.275956E-1	1.301951E-1	8.431236E-2	1.126884E-1	1.215762E-1	1.105074E-1	8.379443E-2	6.968688E-2	9.103230E-2	1.463235E-1
5.344070E+2	1.075520E-1	1.075339E-1	1.083631E-1	1.100955E-1	1.278818E-1	1.394206E-1	1.080577E-1	9.727605E-2	1.118037E-1	9.016994E-2	1.222173E-1	1.214267E-1	1.284790E-1	1.457875E-1	1.162959E-1	1.026649E-1	1.270195E-1	1.478062E-1	1.145728E-1	1.159675E-1	1.142476E-1	9.307773E-2	1.001008E-1	1.237686E-1	1.612494E-1	1.195824E-1	1.251025E-1	1.231060E-1	1.253180E-1	1.352136E-1	1.285742E-1	1.152152E-1	1.271933E-1	1.286221E-1	1.184933E-1	1.561883E-1	1.210059E-1	1.375547E-1	1.131426E-1	1.343752E-1	1.438050E-1	1.270618E-1	1.607195E-1	1.369182E-1	1.386307E-1	1.131316E-1	1.426149E-1	1.346212E-1	1.345907E-1	1.337748E-1	1.374808E-1	1.009187E-1	1.089782E-1	1.292225E-1	1.172640E-1	1.263951E-1	1.346902E-1	1.204318E-1	1.449771E-1	1.211609E-1	1.263178E-1	1.374500E-1	1.344056E-1	1.292100E-1	1.369613E-1	1.248476E-1	1.182842E-1	1.153852E-1	1.349802E-1	1.210011E-1	1.237201E-1	1.314295E-1	1.345360E-1	1.391910E-1	1.443060E-1	1.152120E-1	1.166091E-1	1.172354E-1	1.245423E-1	1.394620E-1	1.348999E-1	1.391608E-1	1.250106E-1	1.210021E-1	1.370118E-1	1.117850E-1	1.392698E-1	1.342294E-1	1.415073E-1	1.284767E-1	1.387962E-1	1.196721E-1	1.367287E-1	1.463985E-1	1.188085E-1	1.582833E-1	1.107809E-1	1.176043E-1	1.262343E-1	1.128774E-1	1.178316E-1	1.313125E-1	1.122574E-1	1.025927E-1	1.383261E-1	1.224560E-1	1.339073E-1	1.213421E-1	1.090803E-1	1.359754E-1	1.393407E-1	1.057443E-1	1.016537E-1	1.087119E-1	1.467457E-1	1.194225E-1	1.036016E-1	1.035781E-1	1.246754E-1	1.484482E-1	1.148925E-1	1.049037E-1	1.415615E-1	1.301325E-1	1.436471E-1	1.150321E-1	1.461906E-1	1.018535E-1	1.241057E-1	1.528066E-1	1.332126E-1	1.377495E-1	1.329745E-1	1.325099E-1	1.556600E-1	1.177682E-1	1.216486E-1	1.177691E-1	1.341320E-1	1.408603E-1	1.224417E-1	1.119387E-1	1.462162E-1	1.366861E-1	1.251278E-1	1.483787E-1	1.457479E-1	1.341370E-1	1.260714E-1	1.448102E-1	1.081015E-1	1.288385E-1	1.435625E-1	1.496627E-1	1.156270E-1	1.188178E-1	1.209203E-1	1.255654E-1	1.603519E-1	1.212299E-1	1.058821E-1	1.318587E-1	1.481574E-1	5.713523E-2	8.993595E-2
5.346150E+2	1.575211E-1	1.725822E-1	1.980125E-1	1.852443E-1	1.927089E-1	1.948812E-1	1.973630E-1	2.067922E-1	1.696995E-1	1.847605E-1	1.825086E-1	1.957944E-1	2.035397E-1	1.822650E-1	1.576647E-1	1.795987E-1	1.881444E-1	1.791382E-1	2.324954E-1	1.873684E-1	1.849893E-1	1.822554E-1	2.198344E-1	1.891648E-1	2.012764E-1	2.008220E-1	2.181030E-1	2.279908E-1	2.119027E-1	2.076505E-1	2.030436E-1	2.067431E-1	1.915149E-1	1.955936E-1	1.824750E-1	2.118155E-1	2.161148E-1	1.953026E-1	1.835314E-1	1.972204E-1	2.063548E-1	2.075042E-1	2.068117E-1	2.091860E-1	2.104643E-1	1.952346E-1	2.125345E-1	1.865187E-1	1.862431E-1	2.003624E-1	2.057036E-1	2.134725E-1	2.154082E-1	2.149682E-1	1.971351E-1	2.122004E-1	2.278546E-1	1.897289E-1	1.983452E-1	2.103684E-1	2.282760E-1	1.997249E-1	2.100312E-1	1.909453E-1	2.310085E-1	2.206834E-1	1.927876E-1	1.891722E-1	2.090178E-1	1.944418E-1	1.878550E-1	2.298277E-1	2.020462E-1	2.121091E-1	2.042369E-1	2.132603E-1	2.047189E-1	2.077801E-1	1.878089E-1	2.041414E-1	1.990803E-1	2.370251E-1	2.321850E-1	2.299121E-1	2.249163E-1	2.264122E-1	2.146620E-1	1.956240E-1	2.170632E-1	2.479820E-1	2.155347E-1	2.019668E-1	2.161185E-1	1.998041E-1	2.099287E-1	2.143772E-1	2.026795E-1	2.110441E-1	2.141317E-1	2.101009E-1	2.166343E-1	2.075146E-1	1.951232E-1	1.933623E-1	2.176711E-1	2.097850E-1	2.132159E-1	1.940164E-1	2.240894E-1	1.991950E-1	2.093069E-1	2.242779E-1	2.117650E-1	2.117425E-1	1.986233E-1	2.014281E-1	2.332357E-1	1.954112E-1	2.391967E-1	2.048237E-1	2.301085E-1	1.966319E-1	2.113820E-1	1.945981E-1	2.131471E-1	2.074969E-1	2.305189E-1	1.987551E-1	1.940420E-1	2.201377E-1	1.910262E-1	2.361323E-1	2.155937E-1	2.225317E-1	1.957866E-1	1.961106E-1	2.014793E-1	2.213994E-1	1.904589E-1	2.047924E-1	2.318143E-1	2.075093E-1	2.197287E-1	2.511875E-1	2.358774E-1	2.232834E-1	2.074263E-1	2.138022E-1	2.145423E-1	1.990063E-1	1.945669E-1	2.321985E-1	2.276807E-1	2.272371E-1	2.422156E-1	1.984771E-1	2.210493E-1	1.940697E-1	2.123275E-1	2.137692E-1	2.272970E-1	2.016228E-1	1.917269E-1	1.837857E-1	1.995862E-1
5.348180E+2	3.917666E-1	3.744529E-1	3.723114E-1	4.390739E-1	4.463974E-1	4.220634E-1	3.954559E-1	4.026196E-1	4.088417E-1	3.984594E-1	3.844042E-1	4.002607E-1	4.281044E-1	3.944269E-1	3.982616E-1	4.120559E-1	3.945544E-1	4.017184E-1	4.209782E-1	3.990149E-1	4.485478E-1	4.558882E-1	4.396303E-1	4.006332E-1	4.231329E-1	4.403318E-1	4.096425E-1	4.374330E-1	4.209942E-1	3.932425E-1	3.961268E-1	4.113406E-1	4.545737E-1	4.419240E-1	4.189939E-1	4.309837E-1	4.327271E-1	4.676307E-1	4.354915E-1	3.723034E-1	4.478212E-1	4.160481E-1	4.283893E-1	4.157273E-1	4.479567E-1	4.390969E-1	4.006661E-1	4.174391E-1	4.122378E-1	4.368541E-1	4.123219E-1	4.526782E-1	4.065280E-1	4.259940E-1	4.424533E-1	4.380371E-1	4.254364E-1	4.584916E-1	4.374756E-1	4.093939E-1	4.034070E-1	4.182643E-1	4.551441E-1	4.042773E-1	4.569449E-1	4.051124E-1	4.226303E-1	4.219554E-1	4.065913E-1	4.267421E-1	4.395189E-1	4.396042E-1	4.467978E-1	4.722546E-1	4.025441E-1	4.065109E-1	4.316468E-1	4.061051E-1	4.772931E-1	4.091960E-1	4.443947E-1	4.307324E-1	4.382953E-1	4.284777E-1	4.180304E-1	4.104886E-1	4.715789E-1	4.244987E-1	4.602216E-1	4.146423E-1	4.317693E-1	4.208958E-1	4.151839E-1	4.416943E-1	4.665301E-1	4.598422E-1	4.132284E-1	4.328809E-1	4.365803E-1	4.244408E-1	4.253023E-1	3.979587E-1	4.584700E-1	4.052716E-1	4.451393E-1	4.346004E-1	4.428080E-1	4.301177E-1	4.251962E-1	4.293039E-1	4.184811E-1	4.300754E-1	3.952303E-1	4.394849E-1	4.253276E-1	4.314610E-1	4.503688E-1	4.167198E-1	4.184413E-1	4.168278E-1	4.539963E-1	4.414193E-1	3.830740E-1	4.105207E-1	4.569891E-1	4.018309E-1	4.412023E-1	4.359521E-1	4.109170E-1	4.179544E-1	4.418640E-1	3.910755E-1	4.249275E-1	3.991297E-1	4.118349E-1	3.794734E-1	4.286020E-1	4.380690E-1	4.007473E-1	4.150774E-1	4.698523E-1	4.116419E-1	4.279250E-1	4.792166E-1	4.399636E-1	4.436157E-1	4.429251E-1	4.544814E-1	4.187028E-1	4.631134E-1	4.053676E-1	4.534842E-1	4.302006E-1	4.394079E-1	4.095151E-1	4.013841E-1	4.582207E-1	3.969500E-1	4.260250E-1	3.891557E-1	3.927307E-1	4.453839E-1	4.366064E-1	3.805634E-1	4.547557E-1
5.350100E+2	7.227087E-1	7.527123E-1	8.012674E-1	7.613846E-1	8.221822E-1	7.740438E-1	7.982240E-1	7.716752E-1	7.603111E-1	7.763213E-1	8.042958E-1	7.857792E-1	7.917325E-1	7.248499E-1	7.439015E-1	7.843619E-1	7.979080E-1	7.368013E-1	8.325247E-1	8.335963E-1	8.130391E-1	8.109172E-1	7.566285E-1	7.678502E-1	8.088822E-1	7.917227E-1	8.033819E-1	8.484048E-1	7.896159E-1	7.794452E-1	8.087140E-1	7.788048E-1	7.913461E-1	8.136715E-1	7.844847E-1	7.964420E-1	8.041993E-1	8.829622E-1	7.965302E-1	8.048273E-1	8.179902E-1	7.737673E-1	8.699107E-1	8.139829E-1	8.336375E-1	7.993721E-1	8.412684E-1	8.234057E-1	7.970276E-1	7.896980E-1	8.333377E-1	8.484952E-1	7.829452E-1	8.050159E-1	8.183281E-1	8.005049E-1	9.034678E-1	7.933722E-1	8.225357E-1	7.711588E-1	8.097489E-1	8.219605E-1	7.929258E-1	7.651810E-1	8.491052E-1	8.177887E-1	7.990636E-1	8.343005E-1	7.844528E-1	7.483735E-1	8.101450E-1	8.137811E-1	8.146260E-1	7.876098E-1	8.178504E-1	8.390886E-1	8.379769E-1	8.326380E-1	8.289567E-1	8.017845E-1	8.005137E-1	7.412718E-1	8.023510E-1	7.899736E-1	8.099525E-1	7.873902E-1	8.061357E-1	7.998682E-1	8.074741E-1	8.105636E-1	7.877955E-1	8.253978E-1	8.160559E-1	8.191101E-1	7.995585E-1	8.256765E-1	7.811666E-1	8.091160E-1	8.169407E-1	8.219825E-1	7.628827E-1	8.587915E-1	7.937688E-1	7.599677E-1	8.149372E-1	8.045156E-1	7.820179E-1	8.152869E-1	7.880642E-1	7.824635E-1	8.385490E-1	8.506562E-1	8.339033E-1	7.852957E-1	8.488874E-1	8.198951E-1	7.659311E-1	7.198875E-1	7.746772E-1	8.124290E-1	7.449375E-1	7.927344E-1	7.951766E-1	7.899452E-1	7.881486E-1	7.797861E-1	7.720642E-1	7.947354E-1	8.106030E-1	8.515307E-1	8.148271E-1	7.940717E-1	8.082461E-1	7.644521E-1	7.230549E-1	7.792677E-1	8.017830E-1	8.144783E-1	7.885163E-1	7.412863E-1	8.696013E-1	7.395835E-1	7.853108E-1	8.546939E-1	7.868494E-1	8.217832E-1	7.507935E-1	8.136341E-1	8.066637E-1	7.949785E-1	8.075076E-1	7.941373E-1	7.812008E-1	7.753150E-1	7.778295E-1	8.337416E-1	7.629638E-1	8.083453E-1	7.731151E-1	7.939848E-1	7.966245E-1	8.417641E-1	7.415536E-1	7.969485E-1	8.261239E-1
5.352080E+2	1.106004E+0	1.186069E+0	1.147913E+0	1.141904E+0	1.147702E+0	1.169700E+0	1.102508E+0	1.096183E+0	1.179065E+0	1.165257E+0	1.086898E+0	1.147395E+0	1.153597E+0	1.101528E+0	1.111184E+0	1.171949E+0	1.097642E+0	1.170628E+0	1.170978E+0	1.164899E+0	1.126130E+0	1.157078E+0	1.157448E+0	1.094345E+0	1.140670E+0	1.163033E+0	1.113876E+0	1.147874E+0	1.122403E+0	1.147770E+0	1.148727E+0	1.118172E+0	1.117122E+0	1.187477E+0	1.187146E+0	1.182510E+0	1.122566E+0	1.209505E+0	1.098007E+0	1.095179E+0	1.160606E+0	1.153705E+0	1.136054E+0	1.168827E+0	1.192318E+0	1.121963E+0	1.191017E+0	1.185548E+0	1.152020E+0	1.094708E+0	1.106693E+0	1.165169E+0	1.111256E+0	1.116476E+0	1.217967E+0	1.155293E+0	1.163315E+0	1.118371E+0	1.131113E+0	1.181546E+0	1.130454E+0	1.184190E+0	1.143727E+0	1.140534E+0	1.165409E+0	1.151054E+0	1.149499E+0	1.140088E+0	1.170857E+0	1.156619E+0	1.217483E+0	1.168118E+0	1.161498E+0	1.135065E+0	1.176242E+0	1.173790E+0	1.164756E+0	1.174766E+0	1.179084E+0	1.176694E+0	1.148518E+0	1.171651E+0	1.176286E+0	1.086974E+0	1.128216E+0	1.115320E+0	1.137960E+0	1.091481E+0	1.227543E+0	1.162985E+0	1.178138E+0	1.103973E+0	1.158318E+0	1.090034E+0	1.122098E+0	1.168481E+0	1.112318E+0	1.138841E+0	1.134305E+0	1.085534E+0	1.132536E+0	1.108313E+0	1.128583E+0	1.161529E+0	1.172564E+0	1.131283E+0	1.116562E+0	1.165509E+0	1.145753E+0	1.132506E+0	1.173661E+0	1.154442E+0	1.154024E+0	1.191262E+0	1.146068E+0	1.208043E+0	1.115134E+0	1.118512E+0	1.143530E+0	1.167594E+0	1.184381E+0	1.132151E+0	1.072277E+0	1.125692E+0	1.136919E+0	1.111857E+0	1.137466E+0	1.110720E+0	1.191735E+0	1.191171E+0	1.112038E+0	1.078418E+0	1.131323E+0	1.104367E+0	1.104581E+0	1.131217E+0	1.133452E+0	1.118672E+0	1.123723E+0	1.140012E+0	1.246777E+0	1.071529E+0	1.157667E+0	1.162137E+0	1.097867E+0	1.188578E+0	1.132155E+0	1.143464E+0	1.168382E+0	1.220115E+0	1.100873E+0	1.187330E+0	1.132667E+0	1.106551E+0	1.095463E+0	1.100634E+0	1.186371E+0	1.115426E+0	1.112746E+0	1.113241E+0	1.124556E+0	1.155932E+0	1.146504E+0	1.112915E+0	1.129897E+0
5.354110E+2	1.361094E+0	1.301309E+0	1.364432E+0	1.376066E+0	1.383362E+0	1.318053E+0	1.354718E+0	1.336945E+0	1.356699E+0	1.283976E+0	1.318709E+0	1.353328E+0	1.343227E+0	1.351938E+0	1.416711E+0	1.300651E+0	1.299471E+0	1.301302E+0	1.355388E+0	1.389278E+0	1.338127E+0	1.359945E+0	1.319884E+0	1.365976E+0	1.364695E+0	1.338664E+0	1.366809E+0	1.413987E+0	1.349943E+0	1.314226E+0	1.364555E+0	1.349411E+0	1.401662E+0	1.369126E+0	1.263442E+0	1.357212E+0	1.359289E+0	1.396849E+0	1.258590E+0	1.327118E+0	1.286004E+0	1.357302E+0	1.377364E+0	1.308719E+0	1.378581E+0	1.371398E+0	1.356417E+0	1.310641E+0	1.285107E+0	1.362253E+0	1.341178E+0	1.378326E+0	1.267018E+0	1.340318E+0	1.352830E+0	1.364829E+0	1.364650E+0	1.285215E+0	1.308632E+0	1.332561E+0	1.288071E+0	1.346122E+0	1.300080E+0	1.347622E+0	1.362825E+0	1.311777E+0	1.358205E+0	1.291241E+0	1.383448E+0	1.290222E+0	1.335967E+0	1.393465E+0	1.377912E+0	1.281100E+0	1.272043E+0	1.379311E+0	1.400178E+0	1.308979E+0	1.362887E+0	1.347368E+0	1.346193E+0	1.378387E+0	1.236836E+0	1.304480E+0	1.278524E+0	1.268105E+0	1.355591E+0	1.360679E+0	1.371447E+0	1.278010E+0	1.263247E+0	1.397269E+0	1.300916E+0	1.336547E+0	1.357038E+0	1.358972E+0	1.301746E+0	1.281569E+0	1.326103E+0	1.296394E+0	1.323275E+0	1.329993E+0	1.291588E+0	1.299477E+0	1.379380E+0	1.326552E+0	1.290563E+0	1.341974E+0	1.315765E+0	1.335153E+0	1.353208E+0	1.301498E+0	1.352290E+0	1.380506E+0	1.286819E+0	1.326589E+0	1.319985E+0	1.343703E+0	1.319552E+0	1.350619E+0	1.353472E+0	1.320519E+0	1.306648E+0	1.375946E+0	1.328880E+0	1.295755E+0	1.336691E+0	1.297235E+0	1.365591E+0	1.329375E+0	1.342053E+0	1.347518E+0	1.319738E+0	1.366420E+0	1.316755E+0	1.319335E+0	1.323082E+0	1.284814E+0	1.262907E+0	1.307700E+0	1.391688E+0	1.264616E+0	1.351041E+0	1.360809E+0	1.316092E+0	1.331149E+0	1.316431E+0	1.318515E+0	1.318914E+0	1.362914E+0	1.315836E+0	1.368040E+0	1.361849E+0	1.361731E+0	1.317651E+0	1.372416E+0	1.379330E+0	1.369656E+0	1.401708E+0	1.311075E+0	1.296328E+0	1.294732E+0	1.331201E+0	1.399100E+0	1.362224E+0
5.356150E+2	1.395937E+0	1.392609E+0	1.440498E+0	1.454125E+0	1.438094E+0	1.463048E+0	1.448484E+0	1.408229E+0	1.437561E+0	1.395133E+0	1.418416E+0	1.405450E+0	1.430757E+0	1.382225E+0	1.460919E+0	1.411790E+0	1.397806E+0	1.435646E+0	1.373704E+0	1.398603E+0	1.414616E+0	1.419740E+0	1.405772E+0	1.421770E+0	1.424365E+0	1.400366E+0	1.408216E+0	1.465605E+0	1.376709E+0	1.384314E+0	1.418815E+0	1.422659E+0	1.366843E+0	1.482317E+0	1.381121E+0	1.433546E+0	1.432087E+0	1.477800E+0	1.358922E+0	1.386555E+0	1.448949E+0	1.392119E+0	1.399941E+0	1.378004E+0	1.417041E+0	1.476014E+0	1.429739E+0	1.361931E+0	1.379814E+0	1.374331E+0	1.394844E+0	1.396667E+0	1.361345E+0	1.436931E+0	1.397419E+0	1.355711E+0	1.436696E+0	1.397470E+0	1.369021E+0	1.352285E+0	1.361728E+0	1.408632E+0	1.396765E+0	1.442677E+0	1.390480E+0	1.477668E+0	1.394944E+0	1.390927E+0	1.425590E+0	1.380553E+0	1.428203E+0	1.450138E+0	1.446608E+0	1.432704E+0	1.422699E+0	1.419561E+0	1.446507E+0	1.394217E+0	1.395108E+0	1.444191E+0	1.428977E+0	1.379413E+0	1.375296E+0	1.395069E+0	1.416090E+0	1.389011E+0	1.435552E+0	1.413244E+0	1.422697E+0	1.443037E+0	1.436024E+0	1.464409E+0	1.367647E+0	1.402373E+0	1.413627E+0	1.359274E+0	1.348724E+0	1.356662E+0	1.393476E+0	1.337946E+0	1.330578E+0	1.440022E+0	1.365634E+0	1.359091E+0	1.394438E+0	1.409177E+0	1.393366E+0	1.435085E+0	1.356918E+0	1.406454E+0	1.412727E+0	1.394630E+0	1.365009E+0	1.384105E+0	1.428714E+0	1.387079E+0	1.389770E+0	1.361910E+0	1.403346E+0	1.423976E+0	1.377354E+0	1.392605E+0	1.449591E+0	1.416208E+0	1.442130E+0	1.351835E+0	1.444923E+0	1.426339E+0	1.418614E+0	1.351153E+0	1.410694E+0	1.360787E+0	1.389540E+0	1.308415E+0	1.378017E+0	1.391613E+0	1.366576E+0	1.381189E+0	1.363981E+0	1.352082E+0	1.485151E+0	1.413894E+0	1.367398E+0	1.464054E+0	1.419197E+0	1.396883E+0	1.378431E+0	1.418365E+0	1.418562E+0	1.402513E+0	1.456936E+0	1.389603E+0	1.424889E+0	1.388831E+0	1.469234E+0	1.422183E+0	1.484710E+0	1.441046E+0	1.365414E+0	1.372760E+0	1.364627E+0	1.484972E+0	1.319869E+0	1.438203E+0	1.574136E+0
5.358130E+2	1.595290E+0	1.553581E+0	1.541507E+0	1.526391E+0	1.548344E+0	1.559948E+0	1.551835E+0	1.488609E+0	1.508355E+0	1.584294E+0	1.554582E+0	1.551905E+0	1.631172E+0	1.451112E+0	1.584435E+0	1.546719E+0	1.595078E+0	1.461737E+0	1.533894E+0	1.540493E+0	1.490123E+0	1.557112E+0	1.582247E+0	1.573709E+0	1.531142E+0	1.533680E+0	1.570132E+0	1.597526E+0	1.483339E+0	1.569043E+0	1.545586E+0	1.544471E+0	1.467425E+0	1.565577E+0	1.452674E+0	1.580703E+0	1.474295E+0	1.599887E+0	1.437989E+0	1.497844E+0	1.429426E+0	1.429759E+0	1.536093E+0	1.473061E+0	1.496511E+0	1.510057E+0	1.550349E+0	1.494409E+0	1.498846E+0	1.491791E+0	1.542107E+0	1.560772E+0	1.472129E+0	1.520316E+0	1.538116E+0	1.600553E+0	1.609641E+0	1.510047E+0	1.509008E+0	1.425355E+0	1.516619E+0	1.543381E+0	1.609026E+0	1.480421E+0	1.494698E+0	1.552590E+0	1.544997E+0	1.520098E+0	1.516581E+0	1.467114E+0	1.560358E+0	1.633810E+0	1.555452E+0	1.501970E+0	1.481281E+0	1.511051E+0	1.554591E+0	1.560362E+0	1.473901E+0	1.584430E+0	1.519277E+0	1.546119E+0	1.493744E+0	1.452366E+0	1.537048E+0	1.451979E+0	1.536685E+0	1.486178E+0	1.532632E+0	1.508044E+0	1.536816E+0	1.495969E+0	1.553487E+0	1.468744E+0	1.515496E+0	1.533867E+0	1.498098E+0	1.495556E+0	1.535659E+0	1.530823E+0	1.444493E+0	1.586958E+0	1.486919E+0	1.493688E+0	1.481834E+0	1.521381E+0	1.505022E+0	1.516670E+0	1.492776E+0	1.500883E+0	1.558352E+0	1.535457E+0	1.457900E+0	1.538904E+0	1.511916E+0	1.544682E+0	1.531245E+0	1.519419E+0	1.560104E+0	1.509681E+0	1.549516E+0	1.492082E+0	1.485506E+0	1.515841E+0	1.558113E+0	1.529579E+0	1.501132E+0	1.502412E+0	1.502946E+0	1.555268E+0	1.575228E+0	1.520627E+0	1.499963E+0	1.484498E+0	1.429553E+0	1.511107E+0	1.476004E+0	1.525862E+0	1.461628E+0	1.523148E+0	1.602020E+0	1.498948E+0	1.513554E+0	1.531988E+0	1.494848E+0	1.548348E+0	1.488614E+0	1.543796E+0	1.513728E+0	1.582287E+0	1.410087E+0	1.486493E+0	1.476725E+0	1.472261E+0	1.538915E+0	1.539507E+0	1.521430E+0	1.523056E+0	1.532952E+0	1.551741E+0	1.451706E+0	1.514664E+0	1.525304E+0	1.645409E+0	1.550267E+0
5.360120E+2	1.617211E+0	1.701152E+0	1.619312E+0	1.716804E+0	1.725188E+0	1.727172E+0	1.628118E+0	1.618158E+0	1.700181E+0	1.687929E+0	1.698712E+0	1.661589E+0	1.627135E+0	1.613799E+0	1.685418E+0	1.638351E+0	1.612108E+0	1.650020E+0	1.680931E+0	1.648952E+0	1.666734E+0	1.662447E+0	1.612114E+0	1.692572E+0	1.653440E+0	1.648097E+0	1.704730E+0	1.669268E+0	1.639978E+0	1.635118E+0	1.654934E+0	1.614045E+0	1.615161E+0	1.662225E+0	1.656761E+0	1.688991E+0	1.598760E+0	1.742312E+0	1.656503E+0	1.591145E+0	1.646729E+0	1.723674E+0	1.626718E+0	1.632334E+0	1.667074E+0	1.744923E+0	1.644616E+0	1.678601E+0	1.594037E+0	1.627554E+0	1.669371E+0	1.621549E+0	1.648640E+0	1.607307E+0	1.601395E+0	1.678325E+0	1.676895E+0	1.617945E+0	1.657884E+0	1.580081E+0	1.685018E+0	1.662372E+0	1.638952E+0	1.703983E+0	1.657745E+0	1.697223E+0	1.581414E+0	1.613620E+0	1.685774E+0	1.544475E+0	1.688118E+0	1.704272E+0	1.582970E+0	1.619733E+0	1.588431E+0	1.743737E+0	1.695852E+0	1.624936E+0	1.657373E+0	1.667894E+0	1.644634E+0	1.661399E+0	1.685054E+0	1.627902E+0	1.677384E+0	1.620216E+0	1.675330E+0	1.580270E+0	1.681895E+0	1.674783E+0	1.592860E+0	1.630538E+0	1.607754E+0	1.663449E+0	1.677117E+0	1.680664E+0	1.694087E+0	1.657552E+0	1.718819E+0	1.656269E+0	1.617749E+0	1.622546E+0	1.596582E+0	1.661433E+0	1.596224E+0	1.585549E+0	1.625465E+0	1.651099E+0	1.631811E+0	1.597307E+0	1.676182E+0	1.709264E+0	1.658118E+0	1.654518E+0	1.620041E+0	1.635681E+0	1.643039E+0	1.652106E+0	1.635544E+0	1.717424E+0	1.621346E+0	1.636650E+0	1.628299E+0	1.657201E+0	1.672343E+0	1.610197E+0	1.630791E+0	1.678103E+0	1.603708E+0	1.605551E+0	1.650252E+0	1.596978E+0	1.676140E+0	1.614545E+0	1.562178E+0	1.604381E+0	1.618234E+0	1.568168E+0	1.585040E+0	1.579135E+0	1.626122E+0	1.568356E+0	1.642339E+0	1.680362E+0	1.605661E+0	1.604353E+0	1.614891E+0	1.654141E+0	1.685263E+0	1.724640E+0	1.574334E+0	1.706917E+0	1.633643E+0	1.629903E+0	1.691388E+0	1.651682E+0	1.680299E+0	1.637353E+0	1.630088E+0	1.621486E+0	1.604164E+0	1.583367E+0	1.521932E+0	1.689529E+0	1.743858E+0
5.362050E+2	1.644909E+0	1.646293E+0	1.702590E+0	1.675800E+0	1.671774E+0	1.740495E+0	1.674720E+0	1.650456E+0	1.635941E+0	1.687114E+0	1.682151E+0	1.714315E+0	1.653054E+0	1.700946E+0	1.625076E+0	1.725787E+0	1.638754E+0	1.652703E+0	1.727403E+0	1.710701E+0	1.734627E+0	1.788567E+0	1.668405E+0	1.674368E+0	1.674139E+0	1.704602E+0	1.719860E+0	1.675731E+0	1.668685E+0	1.638011E+0	1.713565E+0	1.624687E+0	1.621496E+0	1.644366E+0	1.703191E+0	1.665344E+0	1.589505E+0	1.819226E+0	1.540129E+0	1.717554E+0	1.616834E+0	1.651087E+0	1.669812E+0	1.714470E+0	1.701512E+0	1.758934E+0	1.698304E+0	1.623611E+0	1.617797E+0	1.646950E+0	1.713960E+0	1.724862E+0	1.650802E+0	1.700681E+0	1.647773E+0	1.759717E+0	1.678012E+0	1.709485E+0	1.705820E+0	1.603564E+0	1.638076E+0	1.726425E+0	1.650902E+0	1.709603E+0	1.752595E+0	1.710278E+0	1.690749E+0	1.704884E+0	1.727212E+0	1.615136E+0	1.644808E+0	1.673778E+0	1.743706E+0	1.710174E+0	1.706197E+0	1.701740E+0	1.802819E+0	1.660905E+0	1.662687E+0	1.728985E+0	1.628021E+0	1.697461E+0	1.671792E+0	1.700915E+0	1.679111E+0	1.628177E+0	1.708832E+0	1.646544E+0	1.710192E+0	1.669792E+0	1.639017E+0	1.696686E+0	1.698481E+0	1.638195E+0	1.700188E+0	1.667589E+0	1.667108E+0	1.660804E+0	1.703048E+0	1.657214E+0	1.584074E+0	1.681673E+0	1.578695E+0	1.644392E+0	1.611216E+0	1.700849E+0	1.668653E+0	1.698481E+0	1.644775E+0	1.690576E+0	1.706069E+0	1.705398E+0	1.697335E+0	1.716467E+0	1.712948E+0	1.613547E+0	1.664139E+0	1.629176E+0	1.696730E+0	1.739416E+0	1.613590E+0	1.601650E+0	1.685788E+0	1.684368E+0	1.671446E+0	1.615531E+0	1.724511E+0	1.703730E+0	1.696262E+0	1.654563E+0	1.692223E+0	1.647728E+0	1.629795E+0	1.588640E+0	1.660993E+0	1.634178E+0	1.676613E+0	1.626666E+0	1.661316E+0	1.628796E+0	1.716621E+0	1.623121E+0	1.718810E+0	1.726807E+0	1.644530E+0	1.683874E+0	1.652971E+0	1.631199E+0	1.716999E+0	1.729206E+0	1.633773E+0	1.674394E+0	1.597137E+0	1.649101E+0	1.605599E+0	1.728908E+0	1.713755E+0	1.625655E+0	1.627758E+0	1.576197E+0	1.624894E+0	1.657297E+0	1.646076E+0	1.685600E+0	1.729234E+0
5.364090E+2	1.391112E+0	1.471819E+0	1.402817E+0	1.390427E+0	1.416559E+0	1.429620E+0	1.337519E+0	1.376967E+0	1.335957E+0	1.350320E+0	1.408484E+0	1.376941E+0	1.412329E+0	1.367121E+0	1.401702E+0	1.388917E+0	1.366173E+0	1.338913E+0	1.402715E+0	1.409147E+0	1.381977E+0	1.428400E+0	1.356779E+0	1.387764E+0	1.339436E+0	1.376270E+0	1.450125E+0	1.423892E+0	1.404000E+0	1.352651E+0	1.460998E+0	1.358475E+0	1.296558E+0	1.428815E+0	1.354279E+0	1.346217E+0	1.401621E+0	1.441203E+0	1.368894E+0	1.422254E+0	1.381544E+0	1.371115E+0	1.386655E+0	1.363000E+0	1.396075E+0	1.387115E+0	1.379679E+0	1.370280E+0	1.374453E+0	1.316661E+0	1.436998E+0	1.375843E+0	1.318828E+0	1.411551E+0	1.411736E+0	1.384163E+0	1.368618E+0	1.426647E+0	1.366340E+0	1.351327E+0	1.375114E+0	1.412585E+0	1.400708E+0	1.358271E+0	1.415803E+0	1.387858E+0	1.408879E+0	1.381830E+0	1.431500E+0	1.356782E+0	1.370674E+0	1.434742E+0	1.444845E+0	1.399193E+0	1.383938E+0	1.403157E+0	1.422126E+0	1.352347E+0	1.415059E+0	1.434355E+0	1.363129E+0	1.357394E+0	1.387507E+0	1.357103E+0	1.452880E+0	1.386266E+0	1.379437E+0	1.436471E+0	1.401593E+0	1.372670E+0	1.453925E+0	1.383125E+0	1.388145E+0	1.376098E+0	1.382258E+0	1.441615E+0	1.382040E+0	1.311772E+0	1.415028E+0	1.323716E+0	1.327260E+0	1.440557E+0	1.377083E+0	1.324587E+0	1.384835E+0	1.417936E+0	1.317878E+0	1.352665E+0	1.378166E+0	1.407998E+0	1.442669E+0	1.408228E+0	1.416418E+0	1.394647E+0	1.351741E+0	1.378565E+0	1.363670E+0	1.379309E+0	1.449491E+0	1.400112E+0	1.321651E+0	1.424110E+0	1.354229E+0	1.333314E+0	1.364284E+0	1.388411E+0	1.442743E+0	1.326068E+0	1.387626E+0	1.382723E+0	1.358902E+0	1.447507E+0	1.328171E+0	1.365739E+0	1.353449E+0	1.368525E+0	1.436017E+0	1.353348E+0	1.327846E+0	1.396288E+0	1.453821E+0	1.362892E+0	1.393336E+0	1.452116E+0	1.353927E+0	1.515640E+0	1.337115E+0	1.418588E+0	1.398791E+0	1.432009E+0	1.400593E+0	1.377086E+0	1.414796E+0	1.389084E+0	1.384191E+0	1.465507E+0	1.421085E+0	1.359320E+0	1.344126E+0	1.393638E+0	1.301066E+0	1.341710E+0	1.357448E+0	1.507665E+0	1.429179E+0
5.366080E+2	1.119304E+0	1.062658E+0	1.107128E+0	1.182411E+0	1.133446E+0	1.090571E+0	1.126030E+0	1.042186E+0	1.159292E+0	1.117256E+0	1.124103E+0	1.152598E+0	1.171392E+0	1.089046E+0	1.163516E+0	1.121735E+0	1.164399E+0	1.125802E+0	1.183660E+0	1.127938E+0	1.169569E+0	1.108709E+0	1.101299E+0	1.041782E+0	1.145618E+0	1.076104E+0	1.118521E+0	1.186141E+0	1.056098E+0	1.117449E+0	1.165510E+0	1.171469E+0	1.136045E+0	1.170973E+0	1.177177E+0	1.120256E+0	1.118324E+0	1.151978E+0	1.079883E+0	1.095251E+0	1.101769E+0	1.093522E+0	1.138002E+0	1.147678E+0	1.159291E+0	1.122267E+0	1.130648E+0	1.114596E+0	1.067596E+0	1.131359E+0	1.142603E+0	1.151343E+0	1.115722E+0	1.116808E+0	1.142941E+0	1.181812E+0	1.172752E+0	1.062436E+0	1.177997E+0	1.122802E+0	1.126113E+0	1.155048E+0	1.125207E+0	1.127163E+0	1.122127E+0	1.175853E+0	1.148416E+0	1.076339E+0	1.170488E+0	1.095797E+0	1.102886E+0	1.176454E+0	1.186532E+0	1.130364E+0	1.109668E+0	1.213732E+0	1.163758E+0	1.186190E+0	1.185447E+0	1.227547E+0	1.131631E+0	1.133782E+0	1.127286E+0	1.059852E+0	1.099934E+0	1.145081E+0	1.185235E+0	1.113708E+0	1.128929E+0	1.156323E+0	1.143614E+0	1.076695E+0	1.126079E+0	1.149287E+0	1.081667E+0	1.129316E+0	1.133521E+0	1.159794E+0	1.146939E+0	1.061223E+0	1.063600E+0	1.191379E+0	1.080465E+0	1.072582E+0	1.143793E+0	1.120928E+0	1.140217E+0	1.137889E+0	1.063165E+0	1.131385E+0	1.195138E+0	1.127432E+0	1.178983E+0	1.114885E+0	1.192531E+0	1.099321E+0	1.124737E+0	1.088030E+0	1.080838E+0	1.172856E+0	1.110151E+0	1.116881E+0	1.142154E+0	1.138578E+0	1.171494E+0	1.097979E+0	1.176500E+0	1.123155E+0	1.084027E+0	1.106073E+0	1.092674E+0	1.116724E+0	1.117147E+0	1.113742E+0	1.099791E+0	1.157363E+0	1.137028E+0	1.185429E+0	1.050794E+0	1.127199E+0	1.147021E+0	1.066651E+0	1.122910E+0	1.170010E+0	1.144019E+0	1.145923E+0	1.143399E+0	1.171058E+0	1.166031E+0	1.139710E+0	1.138862E+0	1.167398E+0	1.111855E+0	1.103475E+0	1.089653E+0	1.128778E+0	1.138799E+0	1.142817E+0	1.138864E+0	1.132097E+0	1.092149E+0	1.160371E+0	1.135067E+0	1.126363E+0	1.153848E+0
5.368180E+2	9.210362E-1	9.229521E-1	9.204240E-1	8.790824E-1	9.049573E-1	8.977363E-1	9.621963E-1	9.409479E-1	8.843209E-1	9.233362E-1	8.975752E-1	8.908773E-1	8.805058E-1	9.242008E-1	8.979738E-1	9.107172E-1	9.344720E-1	9.380996E-1	9.035084E-1	9.372062E-1	9.136804E-1	9.479915E-1	8.516158E-1	9.268579E-1	8.619807E-1	9.194235E-1	9.293946E-1	9.683485E-1	8.814830E-1	9.142096E-1	9.478181E-1	9.497677E-1	8.915243E-1	9.355860E-1	9.384848E-1	9.037981E-1	9.630056E-1	9.363793E-1	9.396268E-1	9.296627E-1	9.403174E-1	8.985590E-1	9.104831E-1	8.954750E-1	9.721696E-1	9.555440E-1	9.470218E-1	9.280278E-1	9.018454E-1	8.878435E-1	9.237272E-1	9.491989E-1	8.740047E-1	8.827020E-1	9.273186E-1	9.736025E-1	9.502000E-1	9.350853E-1	9.837466E-1	9.239879E-1	9.133930E-1	9.759367E-1	9.899075E-1	9.186394E-1	9.359370E-1	9.736325E-1	9.238304E-1	9.361842E-1	9.570974E-1	8.873742E-1	9.312875E-1	9.540839E-1	9.835500E-1	9.096747E-1	9.055275E-1	9.355029E-1	9.715385E-1	9.842352E-1	9.474342E-1	9.961882E-1	9.001103E-1	9.279728E-1	9.617388E-1	9.087307E-1	9.189500E-1	9.172770E-1	9.085529E-1	9.415884E-1	9.140423E-1	9.438390E-1	9.420150E-1	9.092106E-1	9.610895E-1	9.092118E-1	9.226034E-1	9.341035E-1	9.439836E-1	9.057737E-1	9.298232E-1	9.195364E-1	8.644853E-1	9.484416E-1	8.720486E-1	9.643592E-1	9.373602E-1	9.294987E-1	9.322421E-1	9.645906E-1	8.835987E-1	9.229887E-1	9.783458E-1	9.675268E-1	9.186461E-1	9.147272E-1	9.520555E-1	9.593950E-1	8.924128E-1	9.353880E-1	9.319646E-1	9.359367E-1	9.235157E-1	9.281528E-1	9.442977E-1	9.806768E-1	9.447409E-1	9.053145E-1	9.095388E-1	9.053278E-1	9.265448E-1	9.657642E-1	9.004282E-1	9.581485E-1	8.856929E-1	9.643551E-1	9.212996E-1	9.007853E-1	9.293149E-1	9.274749E-1	8.963616E-1	8.812753E-1	9.545803E-1	9.249753E-1	9.417167E-1	9.748241E-1	8.825855E-1	9.421838E-1	8.890739E-1	9.553692E-1	8.832861E-1	9.645462E-1	8.915178E-1	9.091139E-1	9.267088E-1	9.561684E-1	9.668271E-1	9.493079E-1	9.623174E-1	9.350812E-1	9.696077E-1	9.421449E-1	8.972836E-1	9.529750E-1	9.698066E-1	9.786136E-1	7.908105E-1
5.370170E+2	8.689279E-1	9.191156E-1	9.085935E-1	8.889402E-1	8.804254E-1	8.787311E-1	9.457689E-1	8.243260E-1	9.233706E-1	9.143354E-1	8.841817E-1	8.528983E-1	9.028740E-1	8.132895E-1	9.018606E-1	9.067725E-1	8.748973E-1	8.669127E-1	9.253203E-1	9.071022E-1	8.724660E-1	8.669553E-1	9.129060E-1	9.038052E-1	9.148475E-1	8.751192E-1	8.841751E-1	9.177765E-1	8.975164E-1	9.020419E-1	9.316364E-1	8.929555E-1	8.880119E-1	9.445754E-1	8.770437E-1	9.443362E-1	8.481725E-1	8.848931E-1	8.949538E-1	9.067721E-1	8.960178E-1	8.684092E-1	9.068945E-1	9.068043E-1	9.084936E-1	9.084984E-1	9.422012E-1	9.357622E-1	8.796420E-1	8.714142E-1	9.636265E-1	9.251398E-1	8.701487E-1	9.437411E-1	9.495239E-1	9.397715E-1	9.008610E-1	8.991190E-1	9.228010E-1	9.626117E-1	8.852149E-1	9.157850E-1	8.590369E-1	9.049550E-1	8.590975E-1	8.983447E-1	8.668517E-1	8.990829E-1	9.695092E-1	8.364066E-1	9.397673E-1	9.026071E-1	9.145160E-1	9.000538E-1	8.834637E-1	9.541135E-1	9.573566E-1	9.456005E-1	8.843203E-1	9.093090E-1	8.650911E-1	9.233430E-1	9.073484E-1	8.332814E-1	9.243634E-1	8.889757E-1	8.561776E-1	9.105210E-1	9.384535E-1	8.942538E-1	9.192919E-1	8.875770E-1	8.630602E-1	8.644431E-1	9.281967E-1	9.355725E-1	9.401133E-1	8.930551E-1	8.840878E-1	8.562792E-1	9.115629E-1	8.835685E-1	8.531496E-1	9.148849E-1	8.951165E-1	8.747633E-1	8.837984E-1	9.003216E-1	9.207690E-1	8.853704E-1	9.156880E-1	8.835908E-1	9.408698E-1	8.959938E-1	8.995487E-1	9.638373E-1	9.034724E-1	8.427182E-1	9.320002E-1	9.196437E-1	8.307128E-1	8.849592E-1	8.997713E-1	8.949201E-1	8.962461E-1	8.533562E-1	8.806498E-1	8.376007E-1	8.409859E-1	8.968143E-1	9.382338E-1	9.355136E-1	9.040715E-1	9.125858E-1	8.840150E-1	9.221575E-1	9.302151E-1	9.341975E-1	8.562860E-1	8.732475E-1	9.124976E-1	8.269260E-1	8.736285E-1	9.758959E-1	9.022313E-1	8.948737E-1	8.876860E-1	9.011071E-1	8.832311E-1	9.143448E-1	8.808594E-1	9.111691E-1	8.943455E-1	8.797838E-1	9.044435E-1	9.056033E-1	9.462280E-1	8.973599E-1	9.221221E-1	9.384194E-1	8.302544E-1	9.678268E-1	8.829648E-1	8.631764E-1	8.913077E-1
5.372010E+2	9.269456E-1	9.720375E-1	9.561619E-1	1.039953E+0	9.418357E-1	9.950612E-1	9.934173E-1	9.244843E-1	9.113276E-1	9.400514E-1	9.209199E-1	9.382880E-1	9.666220E-1	9.380480E-1	1.010802E+0	9.596201E-1	8.916863E-1	9.601382E-1	9.852456E-1	9.978422E-1	9.768476E-1	1.008864E+0	9.778610E-1	9.570197E-1	9.930962E-1	9.927036E-1	1.020948E+0	9.983073E-1	9.816173E-1	9.295005E-1	1.033481E+0	9.519198E-1	9.756205E-1	1.004104E+0	9.788862E-1	9.633590E-1	9.807073E-1	9.861391E-1	9.866782E-1	1.008240E+0	1.004541E+0	9.483823E-1	1.001770E+0	9.995357E-1	9.713301E-1	9.855959E-1	9.936495E-1	1.025818E+0	9.734116E-1	9.722711E-1	1.010711E+0	9.984352E-1	9.296118E-1	9.846150E-1	9.440883E-1	1.009826E+0	1.012690E+0	9.934412E-1	9.784177E-1	9.535650E-1	1.024461E+0	1.031798E+0	1.018583E+0	1.017071E+0	9.733516E-1	9.616198E-1	9.476605E-1	9.594071E-1	1.003204E+0	9.280549E-1	9.724611E-1	1.030923E+0	9.906242E-1	9.867118E-1	9.396358E-1	1.047911E+0	1.043510E+0	1.018855E+0	9.867947E-1	9.971063E-1	1.021609E+0	9.346721E-1	9.601824E-1	9.418884E-1	9.777204E-1	9.219903E-1	1.025996E+0	9.311221E-1	9.925645E-1	1.016003E+0	1.008503E+0	1.015883E+0	9.547459E-1	1.004378E+0	9.523540E-1	9.945123E-1	1.004959E+0	9.706153E-1	9.661371E-1	9.623612E-1	9.724041E-1	9.642331E-1	9.856846E-1	1.042729E+0	9.750738E-1	9.717451E-1	1.013985E+0	9.725619E-1	9.407151E-1	9.966073E-1	9.594843E-1	9.978432E-1	9.928768E-1	9.749838E-1	1.011685E+0	9.906116E-1	9.877260E-1	9.336882E-1	9.816826E-1	1.060264E+0	9.782889E-1	9.782521E-1	9.322769E-1	9.542865E-1	9.561207E-1	9.475864E-1	1.001254E+0	9.390134E-1	1.018277E+0	9.839301E-1	9.660458E-1	9.848859E-1	9.519366E-1	8.937347E-1	1.006752E+0	1.011238E+0	9.460024E-1	1.011434E+0	9.038800E-1	9.573860E-1	9.860479E-1	9.577395E-1	9.637908E-1	9.730135E-1	9.657929E-1	9.141446E-1	9.704379E-1	1.006692E+0	9.671363E-1	9.900443E-1	9.969928E-1	9.992337E-1	9.671232E-1	9.204342E-1	9.941614E-1	9.833455E-1	1.008865E+0	9.661602E-1	1.007342E+0	9.942051E-1	9.562869E-1	9.764573E-1	9.112248E-1	9.898311E-1	1.210608E+0
5.374220E+2	1.047560E+0	1.082008E+0	1.067622E+0	1.093754E+0	1.074965E+0	1.076177E+0	1.075974E+0	1.056797E+0	1.044425E+0	9.851711E-1	1.109915E+0	1.063998E+0	1.090233E+0	9.956582E-1	1.095593E+0	1.099308E+0	1.058560E+0	1.066236E+0	1.127598E+0	1.125241E+0	1.069263E+0	1.103355E+0	1.090641E+0	1.099469E+0	1.103513E+0	1.101040E+0	1.096710E+0	1.130568E+0	1.079604E+0	1.050952E+0	1.134796E+0	1.079855E+0	1.050360E+0	1.107403E+0	1.074744E+0	1.145991E+0	1.060743E+0	1.122197E+0	1.009992E+0	1.093477E+0	1.105577E+0	1.066774E+0	1.100311E+0	1.110228E+0	1.120974E+0	1.133269E+0	1.128343E+0	1.053514E+0	1.095896E+0	1.071525E+0	1.097786E+0	1.026884E+0	1.056209E+0	1.113147E+0	1.133249E+0	1.080391E+0	1.142690E+0	1.104330E+0	1.128520E+0	1.088323E+0	1.087636E+0	1.076549E+0	1.101576E+0	1.038594E+0	1.089007E+0	1.082475E+0	1.047499E+0	1.047810E+0	1.114594E+0	1.073000E+0	1.106294E+0	1.119440E+0	1.089217E+0	1.056153E+0	1.095529E+0	1.118471E+0	1.160989E+0	1.115379E+0	1.088293E+0	1.115974E+0	1.138718E+0	1.049236E+0	1.142702E+0	1.105614E+0	1.037361E+0	1.047360E+0	1.105098E+0	1.099002E+0	1.027347E+0	1.087893E+0	1.107297E+0	1.094601E+0	1.100167E+0	1.065899E+0	1.083394E+0	1.126245E+0	1.048007E+0	1.130232E+0	1.116342E+0	1.053762E+0	1.094524E+0	1.097334E+0	1.055583E+0	1.098196E+0	1.069892E+0	1.047784E+0	1.122785E+0	1.075111E+0	1.097266E+0	1.097730E+0	1.152053E+0	1.109896E+0	1.128186E+0	1.073790E+0	1.023108E+0	1.077625E+0	1.091277E+0	1.058269E+0	1.077413E+0	1.145211E+0	1.083985E+0	1.034931E+0	1.098341E+0	1.102026E+0	1.109726E+0	1.050730E+0	1.135810E+0	1.099198E+0	1.068578E+0	1.109663E+0	1.144536E+0	1.037204E+0	1.051547E+0	1.070408E+0	1.132703E+0	1.067928E+0	1.124202E+0	1.054863E+0	1.081459E+0	1.082009E+0	1.126947E+0	1.062205E+0	1.049113E+0	1.154873E+0	1.064987E+0	1.074969E+0	1.055857E+0	1.099951E+0	1.086069E+0	1.104969E+0	1.032272E+0	1.045961E+0	1.075254E+0	1.026676E+0	1.056896E+0	1.102712E+0	1.113048E+0	1.082198E+0	1.080718E+0	1.070898E+0	1.014255E+0	1.071483E+0	1.025367E+0	1.112511E+0	1.155414E+0
5.376060E+2	9.983045E-1	1.044751E+0	1.022878E+0	1.042913E+0	1.060833E+0	1.070631E+0	1.031974E+0	9.980771E-1	9.965179E-1	1.027541E+0	1.038893E+0	1.046106E+0	1.066388E+0	1.014167E+0	1.027658E+0	1.060164E+0	1.027377E+0	1.033509E+0	1.004031E+0	1.102223E+0	1.095782E+0	1.128470E+0	1.051303E+0	1.063396E+0	1.101357E+0	1.059891E+0	1.075568E+0	1.125726E+0	1.045085E+0	1.050849E+0	1.087273E+0	1.070953E+0	1.039069E+0	1.138572E+0	1.125506E+0	1.051471E+0	1.076476E+0	1.083203E+0	1.044259E+0	1.033821E+0	1.039181E+0	9.946057E-1	1.089155E+0	1.050630E+0	1.083165E+0	1.028736E+0	1.073864E+0	1.073398E+0	1.094388E+0	1.086173E+0	1.112454E+0	1.009410E+0	1.068373E+0	1.079868E+0	1.087439E+0	1.110279E+0	1.060779E+0	1.060685E+0	1.096185E+0	1.105585E+0	1.069014E+0	1.121791E+0	1.123757E+0	1.072496E+0	1.109859E+0	1.068224E+0	1.100529E+0	1.081686E+0	1.140663E+0	1.028791E+0	1.121053E+0	1.133740E+0	1.130380E+0	1.066835E+0	1.091696E+0	1.070093E+0	1.047723E+0	1.106749E+0	1.098511E+0	1.101641E+0	1.073851E+0	1.036632E+0	1.066776E+0	1.009233E+0	1.044490E+0	1.049742E+0	1.113214E+0	1.071247E+0	1.116532E+0	1.121635E+0	1.035526E+0	1.074171E+0	1.068552E+0	1.099064E+0	1.057402E+0	1.079771E+0	1.062276E+0	9.815987E-1	1.083771E+0	1.010356E+0	1.083375E+0	1.026532E+0	1.074833E+0	1.062269E+0	1.060353E+0	1.039748E+0	1.055443E+0	1.035133E+0	1.095201E+0	1.052045E+0	1.067021E+0	1.097475E+0	1.102339E+0	1.051037E+0	1.092333E+0	1.044561E+0	1.102369E+0	1.098248E+0	1.076448E+0	1.101889E+0	1.081584E+0	1.039098E+0	1.068250E+0	1.074736E+0	1.096732E+0	1.085775E+0	1.171137E+0	1.006107E+0	1.078491E+0	1.064332E+0	1.145306E+0	1.068137E+0	1.026451E+0	1.044148E+0	1.067324E+0	1.085996E+0	1.053236E+0	1.058971E+0	1.022898E+0	1.094987E+0	1.106541E+0	1.069006E+0	1.071040E+0	1.150635E+0	9.838944E-1	1.122768E+0	1.082440E+0	1.171925E+0	1.128711E+0	1.045023E+0	1.078225E+0	1.108164E+0	1.051732E+0	9.921877E-1	1.132191E+0	1.035990E+0	1.144979E+0	1.051009E+0	1.032647E+0	1.103673E+0	1.081560E+0	1.047597E+0	1.097322E+0	1.045771E+0	1.121490E+0
5.378110E+2	1.181777E+0	1.107282E+0	1.075123E+0	1.095407E+0	1.187133E+0	1.176319E+0	1.106885E+0	1.089416E+0	1.130855E+0	1.133218E+0	1.161420E+0	1.110131E+0	1.194859E+0	1.163916E+0	1.158003E+0	1.118847E+0	1.112840E+0	1.086442E+0	1.094138E+0	1.127685E+0	1.104857E+0	1.112149E+0	1.161567E+0	1.112278E+0	1.130855E+0	1.085674E+0	1.079935E+0	1.146956E+0	1.090430E+0	1.083732E+0	1.134212E+0	1.093812E+0	1.097159E+0	1.131750E+0	1.128077E+0	1.148500E+0	1.092716E+0	1.188713E+0	1.083459E+0	1.122871E+0	1.156903E+0	1.080696E+0	1.158990E+0	1.163924E+0	1.116542E+0	1.125080E+0	1.104397E+0	1.108924E+0	1.092525E+0	1.090511E+0	1.175372E+0	1.058910E+0	1.076561E+0	1.137337E+0	1.079852E+0	1.113246E+0	1.139665E+0	1.106713E+0	1.098841E+0	1.129015E+0	1.120279E+0	1.132169E+0	1.135151E+0	1.173094E+0	1.088301E+0	1.101423E+0	1.155255E+0	1.091765E+0	1.146145E+0	1.074447E+0	1.161997E+0	1.149939E+0	1.141107E+0	1.120746E+0	1.163589E+0	1.125897E+0	1.169330E+0	1.075750E+0	1.168206E+0	1.162025E+0	1.110179E+0	1.015739E+0	1.156581E+0	1.123537E+0	1.155376E+0	1.113194E+0	1.156328E+0	1.115361E+0	1.155494E+0	1.094221E+0	1.158338E+0	1.058622E+0	1.147180E+0	1.103122E+0	1.129426E+0	1.150082E+0	1.081491E+0	1.117149E+0	1.139233E+0	1.119008E+0	1.089401E+0	1.117406E+0	1.116448E+0	1.122466E+0	1.151483E+0	1.122374E+0	1.169828E+0	1.132191E+0	1.105651E+0	1.139379E+0	1.144206E+0	1.117164E+0	1.164811E+0	1.100951E+0	1.103002E+0	1.127838E+0	1.098365E+0	1.096069E+0	1.083367E+0	1.133601E+0	1.139047E+0	1.107892E+0	1.106025E+0	1.116565E+0	1.192713E+0	1.116231E+0	1.137012E+0	1.123724E+0	1.125234E+0	1.107329E+0	1.185869E+0	1.083006E+0	1.137700E+0	1.155426E+0	1.146146E+0	1.135959E+0	1.136455E+0	1.069109E+0	1.080669E+0	1.103387E+0	1.146610E+0	1.074411E+0	1.156892E+0	1.192868E+0	1.113731E+0	1.125615E+0	1.107334E+0	1.090390E+0	1.131987E+0	1.065201E+0	1.115366E+0	1.163281E+0	1.122724E+0	1.082571E+0	1.142879E+0	1.185792E+0	1.130444E+0	1.066616E+0	1.170925E+0	1.107924E+0	1.161458E+0	1.062568E+0	1.100385E+0	1.178906E+0	1.035867E+0
5.380050E+2	1.275108E+0	1.156862E+0	1.139562E+0	1.204185E+0	1.132581E+0	1.255191E+0	1.137919E+0	1.138839E+0	1.201096E+0	1.170701E+0	1.137945E+0	1.167748E+0	1.174816E+0	1.130568E+0	1.157218E+0	1.205340E+0	1.148328E+0	1.220142E+0	1.214197E+0	1.227777E+0	1.195370E+0	1.234177E+0	1.152938E+0	1.190237E+0	1.194799E+0	1.142448E+0	1.215594E+0	1.185798E+0	1.160938E+0	1.120292E+0	1.223102E+0	1.224776E+0	1.178856E+0	1.173828E+0	1.188548E+0	1.204168E+0	1.174793E+0	1.225697E+0	1.150034E+0	1.209639E+0	1.182652E+0	1.103288E+0	1.143870E+0	1.181967E+0	1.148123E+0	1.185152E+0	1.174483E+0	1.148189E+0	1.143002E+0	1.129261E+0	1.172393E+0	1.184804E+0	1.175528E+0	1.195040E+0	1.153342E+0	1.180122E+0	1.236494E+0	1.170951E+0	1.154879E+0	1.191908E+0	1.114039E+0	1.163926E+0	1.108052E+0	1.191523E+0	1.163436E+0	1.215713E+0	1.115942E+0	1.219521E+0	1.194016E+0	1.159214E+0	1.248622E+0	1.243949E+0	1.249636E+0	1.193365E+0	1.150141E+0	1.247999E+0	1.180275E+0	1.184061E+0	1.224590E+0	1.220993E+0	1.206879E+0	1.160748E+0	1.185213E+0	1.206242E+0	1.231564E+0	1.181803E+0	1.185066E+0	1.208761E+0	1.196682E+0	1.189467E+0	1.174782E+0	1.247934E+0	1.172845E+0	1.174725E+0	1.216274E+0	1.214898E+0	1.189532E+0	1.174253E+0	1.232764E+0	1.138240E+0	1.172118E+0	1.177533E+0	1.150867E+0	1.164217E+0	1.171219E+0	1.169963E+0	1.141806E+0	1.205137E+0	1.144697E+0	1.185708E+0	1.186426E+0	1.190365E+0	1.214765E+0	1.152840E+0	1.229565E+0	1.202690E+0	1.191168E+0	1.145942E+0	1.137491E+0	1.193416E+0	1.151826E+0	1.141068E+0	1.170846E+0	1.154564E+0	1.163395E+0	1.193237E+0	1.178723E+0	1.172501E+0	1.204670E+0	1.181024E+0	1.212453E+0	1.158491E+0	1.155785E+0	1.144633E+0	1.152931E+0	1.176457E+0	1.203627E+0	1.211419E+0	1.133024E+0	1.149991E+0	1.175469E+0	1.183255E+0	1.119723E+0	1.251657E+0	1.175045E+0	1.209568E+0	1.216410E+0	1.167192E+0	1.235010E+0	1.140591E+0	1.216513E+0	1.172660E+0	1.165712E+0	1.110981E+0	1.160341E+0	1.247694E+0	1.207883E+0	1.205997E+0	1.157806E+0	1.211886E+0	1.140839E+0	1.137655E+0	1.251194E+0	1.130394E+0	1.242423E+0
5.382060E+2	1.431664E+0	1.459262E+0	1.424087E+0	1.496759E+0	1.501662E+0	1.385629E+0	1.418246E+0	1.400126E+0	1.388489E+0	1.408928E+0	1.442176E+0	1.396256E+0	1.435847E+0	1.363075E+0	1.428853E+0	1.509066E+0	1.425174E+0	1.321591E+0	1.390938E+0	1.466434E+0	1.446231E+0	1.376003E+0	1.342623E+0	1.492076E+0	1.398271E+0	1.447419E+0	1.383607E+0	1.442831E+0	1.370323E+0	1.368943E+0	1.398727E+0	1.405522E+0	1.383427E+0	1.451409E+0	1.382277E+0	1.424523E+0	1.341317E+0	1.443957E+0	1.325321E+0	1.420530E+0	1.442299E+0	1.376369E+0	1.379665E+0	1.359921E+0	1.364132E+0	1.394245E+0	1.377831E+0	1.428354E+0	1.426428E+0	1.295112E+0	1.384248E+0	1.385352E+0	1.319779E+0	1.395207E+0	1.430995E+0	1.441166E+0	1.445532E+0	1.345886E+0	1.443249E+0	1.397480E+0	1.383227E+0	1.454308E+0	1.389250E+0	1.372705E+0	1.388876E+0	1.439605E+0	1.422730E+0	1.407530E+0	1.451260E+0	1.324747E+0	1.421053E+0	1.446447E+0	1.423493E+0	1.348489E+0	1.402997E+0	1.376770E+0	1.403934E+0	1.397303E+0	1.400667E+0	1.486728E+0	1.478820E+0	1.405649E+0	1.393294E+0	1.331942E+0	1.378875E+0	1.351848E+0	1.445121E+0	1.426430E+0	1.424136E+0	1.381285E+0	1.380603E+0	1.431589E+0	1.382184E+0	1.373784E+0	1.465018E+0	1.408724E+0	1.441411E+0	1.325793E+0	1.400709E+0	1.364027E+0	1.400097E+0	1.333680E+0	1.384791E+0	1.425932E+0	1.422500E+0	1.388480E+0	1.386843E+0	1.377774E+0	1.378504E+0	1.415444E+0	1.465910E+0	1.386497E+0	1.429000E+0	1.482778E+0	1.317628E+0	1.396873E+0	1.438187E+0	1.362596E+0	1.377738E+0	1.444361E+0	1.402442E+0	1.378007E+0	1.370226E+0	1.415886E+0	1.443392E+0	1.432982E+0	1.422068E+0	1.388164E+0	1.401747E+0	1.358813E+0	1.428698E+0	1.416777E+0	1.424166E+0	1.344872E+0	1.377415E+0	1.430127E+0	1.445964E+0	1.435491E+0	1.370844E+0	1.414271E+0	1.441458E+0	1.341352E+0	1.447376E+0	1.476613E+0	1.388505E+0	1.475629E+0	1.406375E+0	1.461376E+0	1.413156E+0	1.454661E+0	1.428766E+0	1.444237E+0	1.365557E+0	1.360649E+0	1.399291E+0	1.374970E+0	1.464279E+0	1.386083E+0	1.402424E+0	1.401835E+0	1.410994E+0	1.339515E+0	1.354091E+0	1.473894E+0	1.323223E+0
5.384110E+2	1.605487E+0	1.628177E+0	1.643154E+0	1.658544E+0	1.753225E+0	1.758068E+0	1.617450E+0	1.600865E+0	1.692933E+0	1.637302E+0	1.669757E+0	1.746243E+0	1.646374E+0	1.681638E+0	1.685671E+0	1.647383E+0	1.635244E+0	1.622138E+0	1.673118E+0	1.703117E+0	1.675665E+0	1.667506E+0	1.615504E+0	1.594655E+0	1.547581E+0	1.618602E+0	1.572213E+0	1.580972E+0	1.614126E+0	1.621315E+0	1.645884E+0	1.644734E+0	1.594176E+0	1.661825E+0	1.607328E+0	1.583426E+0	1.737244E+0	1.672060E+0	1.552497E+0	1.641388E+0	1.603593E+0	1.633062E+0	1.592325E+0	1.611763E+0	1.638771E+0	1.649092E+0	1.639574E+0	1.605234E+0	1.649617E+0	1.529473E+0	1.665602E+0	1.621277E+0	1.535132E+0	1.552451E+0	1.621421E+0	1.633495E+0	1.645537E+0	1.603565E+0	1.640677E+0	1.674216E+0	1.626506E+0	1.650233E+0	1.595638E+0	1.642873E+0	1.628376E+0	1.605729E+0	1.590220E+0	1.638479E+0	1.680074E+0	1.497297E+0	1.661025E+0	1.709373E+0	1.659549E+0	1.649750E+0	1.612612E+0	1.673584E+0	1.699925E+0	1.707940E+0	1.646742E+0	1.693429E+0	1.654984E+0	1.633701E+0	1.679075E+0	1.571272E+0	1.670109E+0	1.571437E+0	1.645069E+0	1.621317E+0	1.645519E+0	1.652155E+0	1.660690E+0	1.615952E+0	1.681934E+0	1.643865E+0	1.635738E+0	1.697544E+0	1.566665E+0	1.658591E+0	1.671268E+0	1.584497E+0	1.537096E+0	1.594838E+0	1.614061E+0	1.643224E+0	1.612707E+0	1.559733E+0	1.589719E+0	1.602712E+0	1.586444E+0	1.599286E+0	1.613336E+0	1.577459E+0	1.659173E+0	1.608760E+0	1.574576E+0	1.657528E+0	1.618132E+0	1.546340E+0	1.590352E+0	1.703456E+0	1.592739E+0	1.596749E+0	1.615092E+0	1.600502E+0	1.646235E+0	1.616159E+0	1.646410E+0	1.584270E+0	1.665587E+0	1.647940E+0	1.627835E+0	1.676469E+0	1.587482E+0	1.529821E+0	1.551351E+0	1.579936E+0	1.618292E+0	1.574273E+0	1.562285E+0	1.585980E+0	1.596211E+0	1.589135E+0	1.639748E+0	1.734811E+0	1.630861E+0	1.602419E+0	1.590296E+0	1.621462E+0	1.655595E+0	1.595844E+0	1.632456E+0	1.644799E+0	1.562557E+0	1.574357E+0	1.628781E+0	1.660310E+0	1.693725E+0	1.570581E+0	1.551098E+0	1.593853E+0	1.600181E+0	1.596175E+0	1.649552E+0	1.653510E+0	1.697069E+0
5.386060E+2	1.603365E+0	1.625134E+0	1.575439E+0	1.647364E+0	1.553516E+0	1.606843E+0	1.625774E+0	1.614722E+0	1.660167E+0	1.591618E+0	1.614437E+0	1.615319E+0	1.578668E+0	1.599771E+0	1.557833E+0	1.595698E+0	1.560367E+0	1.591658E+0	1.600893E+0	1.600528E+0	1.580760E+0	1.579159E+0	1.579412E+0	1.553251E+0	1.604452E+0	1.550705E+0	1.567529E+0	1.561249E+0	1.508357E+0	1.515170E+0	1.586567E+0	1.604280E+0	1.551031E+0	1.651615E+0	1.603037E+0	1.614248E+0	1.517964E+0	1.605570E+0	1.523179E+0	1.523349E+0	1.514259E+0	1.529501E+0	1.544515E+0	1.583226E+0	1.645613E+0	1.563769E+0	1.555478E+0	1.544596E+0	1.551656E+0	1.471495E+0	1.555391E+0	1.574917E+0	1.543251E+0	1.544187E+0	1.516372E+0	1.621765E+0	1.590003E+0	1.543879E+0	1.559886E+0	1.580579E+0	1.548173E+0	1.569629E+0	1.509772E+0	1.589165E+0	1.579996E+0	1.558274E+0	1.510222E+0	1.550286E+0	1.573654E+0	1.457052E+0	1.597282E+0	1.607015E+0	1.556139E+0	1.569303E+0	1.549223E+0	1.585993E+0	1.579020E+0	1.530431E+0	1.569194E+0	1.610748E+0	1.573937E+0	1.598670E+0	1.552879E+0	1.462918E+0	1.510004E+0	1.536206E+0	1.613665E+0	1.566361E+0	1.616460E+0	1.558914E+0	1.570566E+0	1.608580E+0	1.537588E+0	1.639189E+0	1.594664E+0	1.526095E+0	1.569729E+0	1.575439E+0	1.605665E+0	1.543669E+0	1.434283E+0	1.552437E+0	1.523212E+0	1.523713E+0	1.540347E+0	1.537978E+0	1.581783E+0	1.630940E+0	1.512142E+0	1.565159E+0	1.579270E+0	1.638023E+0	1.628542E+0	1.570596E+0	1.635739E+0	1.570696E+0	1.544473E+0	1.489305E+0	1.591716E+0	1.634007E+0	1.606305E+0	1.565393E+0	1.556249E+0	1.560296E+0	1.604991E+0	1.564849E+0	1.639470E+0	1.561483E+0	1.520650E+0	1.555276E+0	1.528236E+0	1.570962E+0	1.518964E+0	1.583692E+0	1.546751E+0	1.547480E+0	1.562415E+0	1.571091E+0	1.495597E+0	1.591641E+0	1.548970E+0	1.518776E+0	1.599478E+0	1.612249E+0	1.535592E+0	1.619906E+0	1.554087E+0	1.589764E+0	1.565207E+0	1.521333E+0	1.544027E+0	1.668900E+0	1.489922E+0	1.521226E+0	1.524286E+0	1.644830E+0	1.637924E+0	1.570440E+0	1.554529E+0	1.584533E+0	1.479773E+0	1.529464E+0	1.523592E+0	1.487283E+0	1.744375E+0
5.388120E+2	1.418609E+0	1.405706E+0	1.368409E+0	1.435792E+0	1.442651E+0	1.402003E+0	1.378961E+0	1.414962E+0	1.417766E+0	1.387268E+0	1.330727E+0	1.378655E+0	1.373168E+0	1.391570E+0	1.383831E+0	1.413234E+0	1.461812E+0	1.434383E+0	1.385946E+0	1.418208E+0	1.373635E+0	1.470301E+0	1.406670E+0	1.382227E+0	1.367082E+0	1.367399E+0	1.360098E+0	1.415678E+0	1.358904E+0	1.304113E+0	1.358658E+0	1.390078E+0	1.322503E+0	1.425966E+0	1.372812E+0	1.364086E+0	1.344906E+0	1.399665E+0	1.313893E+0	1.370904E+0	1.392213E+0	1.388665E+0	1.355082E+0	1.438927E+0	1.482070E+0	1.371611E+0	1.386338E+0	1.397515E+0	1.334216E+0	1.316174E+0	1.394041E+0	1.360692E+0	1.296466E+0	1.347574E+0	1.389799E+0	1.377414E+0	1.407750E+0	1.401192E+0	1.405890E+0	1.391469E+0	1.416125E+0	1.357811E+0	1.376807E+0	1.407809E+0	1.338074E+0	1.424781E+0	1.327632E+0	1.402581E+0	1.413660E+0	1.325876E+0	1.474351E+0	1.485052E+0	1.366324E+0	1.339361E+0	1.402009E+0	1.448702E+0	1.430312E+0	1.429905E+0	1.353652E+0	1.406294E+0	1.409009E+0	1.377179E+0	1.400872E+0	1.407049E+0	1.358748E+0	1.346929E+0	1.378637E+0	1.360717E+0	1.373154E+0	1.414792E+0	1.383211E+0	1.321740E+0	1.410303E+0	1.392734E+0	1.389018E+0	1.426396E+0	1.372500E+0	1.375085E+0	1.341708E+0	1.323696E+0	1.357925E+0	1.343471E+0	1.311183E+0	1.284747E+0	1.388658E+0	1.372029E+0	1.314650E+0	1.382672E+0	1.371483E+0	1.367292E+0	1.434311E+0	1.380511E+0	1.388389E+0	1.396199E+0	1.404637E+0	1.347850E+0	1.370763E+0	1.344297E+0	1.365304E+0	1.474466E+0	1.399544E+0	1.324486E+0	1.370246E+0	1.346691E+0	1.408215E+0	1.371138E+0	1.379216E+0	1.384334E+0	1.330106E+0	1.384050E+0	1.443700E+0	1.390906E+0	1.348900E+0	1.371052E+0	1.318981E+0	1.376638E+0	1.375173E+0	1.328798E+0	1.310865E+0	1.386545E+0	1.388436E+0	1.295628E+0	1.464497E+0	1.415399E+0	1.431159E+0	1.382854E+0	1.398468E+0	1.357451E+0	1.412145E+0	1.406389E+0	1.321692E+0	1.436283E+0	1.404179E+0	1.320362E+0	1.402309E+0	1.401399E+0	1.372838E+0	1.365606E+0	1.368397E+0	1.372623E+0	1.346864E+0	1.381829E+0	1.422067E+0	1.308654E+0	1.432939E+0
5.390080E+2	1.228884E+0	1.228530E+0	1.169096E+0	1.224476E+0	1.228121E+0	1.251358E+0	1.234728E+0	1.173028E+0	1.239197E+0	1.225294E+0	1.240947E+0	1.202416E+0	1.190743E+0	1.225015E+0	1.223563E+0	1.226203E+0	1.243703E+0	1.224994E+0	1.251587E+0	1.236222E+0	1.229147E+0	1.198899E+0	1.183437E+0	1.219801E+0	1.180309E+0	1.278613E+0	1.209775E+0	1.221575E+0	1.189350E+0	1.164635E+0	1.199879E+0	1.180253E+0	1.212109E+0	1.226112E+0	1.187015E+0	1.252796E+0	1.169957E+0	1.255829E+0	1.173827E+0	1.163222E+0	1.229372E+0	1.211619E+0	1.223475E+0	1.283236E+0	1.253904E+0	1.221665E+0	1.241736E+0	1.232014E+0	1.195467E+0	1.140192E+0	1.188823E+0	1.244458E+0	1.198391E+0	1.201760E+0	1.174786E+0	1.236557E+0	1.223794E+0	1.234802E+0	1.191796E+0	1.267471E+0	1.154245E+0	1.272379E+0	1.197915E+0	1.197790E+0	1.164516E+0	1.239152E+0	1.245252E+0	1.217302E+0	1.204866E+0	1.178220E+0	1.219846E+0	1.269707E+0	1.164063E+0	1.184622E+0	1.262842E+0	1.257171E+0	1.248004E+0	1.234705E+0	1.233188E+0	1.311868E+0	1.201884E+0	1.257178E+0	1.183568E+0	1.228567E+0	1.198344E+0	1.194696E+0	1.227212E+0	1.211678E+0	1.219685E+0	1.254153E+0	1.202162E+0	1.201624E+0	1.268164E+0	1.209228E+0	1.220682E+0	1.215590E+0	1.211699E+0	1.157893E+0	1.210014E+0	1.211880E+0	1.245225E+0	1.214611E+0	1.205765E+0	1.202283E+0	1.159993E+0	1.267822E+0	1.210603E+0	1.224149E+0	1.180920E+0	1.216142E+0	1.232811E+0	1.227208E+0	1.243869E+0	1.231561E+0	1.322314E+0	1.236799E+0	1.226588E+0	1.158748E+0	1.242871E+0	1.286749E+0	1.238340E+0	1.190955E+0	1.177722E+0	1.207354E+0	1.211601E+0	1.171820E+0	1.264315E+0	1.230462E+0	1.204375E+0	1.271894E+0	1.217309E+0	1.193174E+0	1.224575E+0	1.123994E+0	1.203341E+0	1.193303E+0	1.234334E+0	1.199677E+0	1.197545E+0	1.184011E+0	1.197608E+0	1.213154E+0	1.211024E+0	1.288450E+0	1.240663E+0	1.289333E+0	1.228223E+0	1.258627E+0	1.213763E+0	1.243123E+0	1.209464E+0	1.285150E+0	1.245839E+0	1.155797E+0	1.229455E+0	1.319308E+0	1.251226E+0	1.186195E+0	1.206570E+0	1.217034E+0	1.193494E+0	1.207425E+0	1.220641E+0	1.228786E+0	1.256644E+0
5.392090E+2	1.044509E+0	1.159870E+0	1.067284E+0	1.116360E+0	1.136153E+0	1.065518E+0	1.060766E+0	1.063540E+0	1.156075E+0	1.107679E+0	1.056082E+0	1.112986E+0	1.068971E+0	1.054172E+0	1.053387E+0	1.063483E+0	1.054996E+0	1.089345E+0	1.083396E+0	1.120337E+0	1.102142E+0	1.090199E+0	1.092345E+0	1.055873E+0	1.111424E+0	1.059953E+0	1.092898E+0	1.093854E+0	1.124113E+0	1.096206E+0	1.053694E+0	1.096589E+0	1.049587E+0	1.120421E+0	1.075036E+0	1.116821E+0	1.075811E+0	1.141753E+0	1.051056E+0	1.028707E+0	1.086455E+0	1.088460E+0	1.085687E+0	1.024619E+0	1.070584E+0	1.118145E+0	1.143137E+0	1.135776E+0	1.090228E+0	1.071900E+0	1.082827E+0	1.041013E+0	1.009117E+0	1.086566E+0	1.092125E+0	1.068311E+0	1.120469E+0	1.098035E+0	1.029288E+0	1.076200E+0	1.065961E+0	1.020243E+0	1.062902E+0	1.069341E+0	1.056364E+0	1.138286E+0	1.143746E+0	1.068725E+0	1.122913E+0	1.046248E+0	1.094416E+0	1.112523E+0	1.157930E+0	1.051049E+0	1.085942E+0	1.133391E+0	1.110486E+0	1.078539E+0	1.098229E+0	1.106731E+0	1.142570E+0	1.137861E+0	1.094297E+0	1.033922E+0	1.088599E+0	1.083919E+0	1.124676E+0	1.067216E+0	1.126978E+0	1.053224E+0	1.050098E+0	1.090314E+0	1.033414E+0	1.102780E+0	1.072667E+0	1.128569E+0	1.105915E+0	1.085056E+0	1.109342E+0	1.112093E+0	1.111886E+0	1.098984E+0	1.006656E+0	1.100579E+0	1.078423E+0	1.028289E+0	1.116298E+0	1.067479E+0	1.045402E+0	1.089347E+0	1.068861E+0	1.126109E+0	1.140943E+0	1.068152E+0	1.094191E+0	1.050744E+0	1.058289E+0	1.072385E+0	1.128382E+0	1.141014E+0	1.118671E+0	1.051242E+0	1.067286E+0	1.127865E+0	1.083964E+0	1.053477E+0	1.104311E+0	1.053279E+0	1.095395E+0	1.079102E+0	1.111290E+0	1.076761E+0	1.076620E+0	1.074637E+0	1.085198E+0	1.103387E+0	1.091716E+0	1.100136E+0	1.044374E+0	1.073229E+0	1.069324E+0	1.068635E+0	1.113437E+0	1.194307E+0	1.065159E+0	1.094026E+0	1.102643E+0	1.102561E+0	1.134330E+0	1.119193E+0	1.062451E+0	1.183275E+0	1.109613E+0	1.084620E+0	1.095079E+0	1.101125E+0	1.117822E+0	1.116304E+0	1.056707E+0	1.099900E+0	1.051351E+0	1.143323E+0	1.074712E+0	1.052582E+0	1.207991E+0
5.394100E+2	1.084973E+0	1.076638E+0	1.016791E+0	1.078607E+0	1.148201E+0	1.122104E+0	1.022581E+0	1.030749E+0	1.091055E+0	1.046705E+0	1.035967E+0	1.099788E+0	1.067685E+0	1.056750E+0	1.094228E+0	1.033499E+0	1.095517E+0	1.005572E+0	1.015296E+0	1.011965E+0	1.053602E+0	1.083679E+0	1.037510E+0	1.018185E+0	1.037066E+0	1.029418E+0	1.086388E+0	1.013368E+0	1.061904E+0	9.995816E-1	1.055483E+0	1.020082E+0	1.002656E+0	1.110782E+0	1.058303E+0	1.071606E+0	1.052476E+0	1.037309E+0	9.781291E-1	9.982777E-1	1.047257E+0	1.023533E+0	1.065646E+0	1.093874E+0	1.136923E+0	1.039341E+0	1.072484E+0	1.061756E+0	9.643117E-1	1.036465E+0	1.079029E+0	1.007312E+0	1.005045E+0	1.056039E+0	1.040367E+0	1.074967E+0	1.023832E+0	1.033219E+0	1.061471E+0	1.064169E+0	1.055246E+0	1.054680E+0	1.011980E+0	1.076516E+0	1.084686E+0	1.050211E+0	1.027793E+0	1.066845E+0	1.028370E+0	1.034061E+0	1.062006E+0	1.098969E+0	1.069002E+0	1.108685E+0	1.050290E+0	1.043472E+0	1.048337E+0	1.006745E+0	1.061474E+0	1.099701E+0	1.022745E+0	1.022999E+0	1.028508E+0	1.075730E+0	1.089074E+0	1.042588E+0	1.007549E+0	1.043389E+0	1.036301E+0	1.033498E+0	1.070013E+0	1.070966E+0	1.033357E+0	1.078984E+0	1.021454E+0	1.082057E+0	1.016115E+0	9.792737E-1	1.057483E+0	1.066192E+0	9.999898E-1	1.034230E+0	9.897359E-1	1.032025E+0	1.077489E+0	1.051172E+0	1.065683E+0	1.057469E+0	1.063398E+0	1.060430E+0	1.080524E+0	9.947789E-1	1.064408E+0	1.045165E+0	1.072391E+0	1.031704E+0	1.035738E+0	1.009607E+0	1.040505E+0	1.051313E+0	1.052004E+0	1.064984E+0	1.045512E+0	1.025303E+0	1.048698E+0	1.047273E+0	1.025195E+0	9.819774E-1	1.031008E+0	1.058405E+0	1.074852E+0	1.019410E+0	1.035114E+0	9.955473E-1	9.919034E-1	1.025202E+0	1.078409E+0	1.049557E+0	9.993402E-1	1.039781E+0	1.078510E+0	1.033288E+0	1.072419E+0	1.098070E+0	1.064401E+0	1.088005E+0	1.076485E+0	1.110439E+0	1.054212E+0	1.012536E+0	9.935772E-1	1.090126E+0	1.018457E+0	1.074199E+0	1.020463E+0	1.133366E+0	1.055546E+0	1.100319E+0	1.070256E+0	1.034208E+0	1.018716E+0	1.064762E+0	1.033380E+0	1.144659E+0	1.171267E+0
5.396110E+2	9.583857E-1	1.011914E+0	1.005561E+0	1.048377E+0	1.049532E+0	1.024144E+0	9.970440E-1	1.008641E+0	1.025316E+0	9.776659E-1	1.013404E+0	1.026213E+0	9.910580E-1	1.009319E+0	9.683952E-1	1.043746E+0	1.066732E+0	1.008328E+0	1.016370E+0	1.004680E+0	1.043806E+0	9.999629E-1	1.055565E+0	1.045417E+0	1.027172E+0	1.018224E+0	1.010699E+0	1.019798E+0	9.574838E-1	1.002959E+0	1.024307E+0	9.978994E-1	1.000687E+0	1.021639E+0	1.005112E+0	1.035806E+0	1.035112E+0	1.046480E+0	9.914332E-1	1.058732E+0	1.038322E+0	9.753580E-1	1.014180E+0	1.001210E+0	1.041036E+0	1.033824E+0	1.044186E+0	9.967087E-1	1.011267E+0	9.810266E-1	1.048820E+0	1.001462E+0	9.573956E-1	1.007910E+0	1.027918E+0	1.042946E+0	9.870722E-1	1.021024E+0	9.896089E-1	9.850577E-1	1.025699E+0	1.008340E+0	9.722389E-1	9.869645E-1	1.004704E+0	1.018825E+0	1.004684E+0	1.009229E+0	1.065231E+0	9.610317E-1	9.832086E-1	1.037096E+0	1.032620E+0	1.054801E+0	1.039852E+0	1.042123E+0	1.026141E+0	1.044384E+0	9.974699E-1	1.035329E+0	9.943598E-1	9.809087E-1	1.051010E+0	1.006550E+0	9.442842E-1	9.666569E-1	1.016693E+0	1.016271E+0	1.091940E+0	1.017453E+0	1.012558E+0	1.031927E+0	1.058955E+0	1.029499E+0	1.094295E+0	1.035124E+0	1.021433E+0	9.833357E-1	1.019847E+0	9.790420E-1	9.825354E-1	1.024175E+0	1.020984E+0	1.030449E+0	1.021715E+0	1.002452E+0	1.050506E+0	9.794601E-1	1.038495E+0	1.064265E+0	1.085668E+0	1.029819E+0	9.356267E-1	1.078623E+0	1.028601E+0	1.006473E+0	1.053187E+0	1.035537E+0	9.699228E-1	1.013271E+0	9.989718E-1	9.808630E-1	1.075878E+0	9.709025E-1	1.050724E+0	9.811062E-1	1.078028E+0	1.022773E+0	1.001584E+0	1.061035E+0	1.019759E+0	9.986399E-1	1.007816E+0	1.033302E+0	9.981209E-1	9.840049E-1	1.029302E+0	1.021006E+0	9.876287E-1	9.822161E-1	1.020494E+0	9.675989E-1	1.055486E+0	1.099574E+0	1.066085E+0	1.000354E+0	9.483533E-1	1.039038E+0	1.022297E+0	9.885255E-1	9.780176E-1	1.046889E+0	1.003532E+0	9.969036E-1	1.037714E+0	1.028135E+0	9.933074E-1	1.027956E+0	1.022070E+0	9.948101E-1	9.663654E-1	9.878775E-1	1.022698E+0	1.072646E+0	1.109360E+0
5.398180E+2	8.540612E-1	8.550900E-1	8.025318E-1	8.120311E-1	8.485560E-1	8.075852E-1	8.264548E-1	8.143317E-1	8.253757E-1	7.850303E-1	7.933601E-1	8.309761E-1	8.026511E-1	8.227997E-1	8.213635E-1	8.193743E-1	7.835083E-1	7.952852E-1	8.229062E-1	8.368315E-1	8.369188E-1	8.286001E-1	8.311636E-1	7.977606E-1	7.968532E-1	7.962796E-1	7.745196E-1	8.305480E-1	7.918296E-1	8.029339E-1	7.746050E-1	7.845014E-1	7.634139E-1	8.286891E-1	8.028381E-1	7.960164E-1	7.855325E-1	8.415513E-1	7.629859E-1	8.091929E-1	8.098273E-1	7.695510E-1	8.553694E-1	7.859120E-1	8.355096E-1	8.237244E-1	8.421873E-1	8.238310E-1	7.972008E-1	7.674748E-1	8.433948E-1	7.960171E-1	7.981053E-1	8.542794E-1	8.173380E-1	7.756396E-1	8.331129E-1	7.976072E-1	8.049685E-1	8.067300E-1	7.661818E-1	7.850498E-1	8.226600E-1	7.767610E-1	8.516230E-1	8.365989E-1	8.097227E-1	8.159913E-1	8.168997E-1	7.722403E-1	8.163553E-1	7.969613E-1	8.544788E-1	8.199738E-1	7.761114E-1	8.173574E-1	8.371836E-1	8.239826E-1	8.211646E-1	8.210460E-1	8.512564E-1	8.191976E-1	7.634398E-1	8.144400E-1	8.543965E-1	7.828365E-1	8.001341E-1	8.446833E-1	8.325524E-1	8.343832E-1	8.155554E-1	8.351023E-1	8.234540E-1	8.155438E-1	8.427885E-1	8.180248E-1	7.744989E-1	8.211658E-1	7.517112E-1	7.911635E-1	7.781566E-1	8.224362E-1	8.291051E-1	8.174909E-1	7.684328E-1	7.894115E-1	8.070784E-1	7.784976E-1	7.901287E-1	8.292230E-1	8.446599E-1	8.487827E-1	8.448928E-1	7.669786E-1	8.640848E-1	8.075446E-1	8.420646E-1	7.919458E-1	8.307532E-1	8.161454E-1	8.168967E-1	7.945541E-1	7.714852E-1	8.141889E-1	7.670999E-1	8.092955E-1	8.665138E-1	8.119416E-1	7.900706E-1	8.001914E-1	8.114574E-1	7.649788E-1	8.257941E-1	7.778875E-1	7.842633E-1	8.245016E-1	8.280470E-1	8.181176E-1	7.696589E-1	7.951449E-1	8.694102E-1	8.086179E-1	8.293154E-1	8.716584E-1	8.393898E-1	8.082490E-1	7.447748E-1	8.207952E-1	8.261029E-1	7.819806E-1	8.247264E-1	7.884279E-1	8.568051E-1	8.459239E-1	7.810606E-1	8.365860E-1	8.645452E-1	7.888956E-1	8.178069E-1	7.978099E-1	8.376311E-1	8.163139E-1	7.951987E-1	7.432677E-1	1.061493E+0
5.400140E+2	6.991248E-1	6.817723E-1	6.410521E-1	6.310927E-1	6.672443E-1	6.198970E-1	6.858232E-1	6.780859E-1	6.700692E-1	6.500372E-1	6.902965E-1	6.890478E-1	6.694909E-1	6.947492E-1	6.286612E-1	6.332954E-1	6.746096E-1	6.843169E-1	6.767817E-1	6.646546E-1	6.487290E-1	6.668219E-1	6.299567E-1	6.523415E-1	6.521261E-1	6.774402E-1	6.852130E-1	6.929942E-1	6.576831E-1	6.723591E-1	6.540040E-1	6.563485E-1	6.478903E-1	6.790393E-1	6.992657E-1	6.399199E-1	6.649105E-1	6.763759E-1	6.176285E-1	6.291625E-1	6.788271E-1	6.356966E-1	6.486275E-1	6.589076E-1	7.289062E-1	6.862588E-1	7.029709E-1	6.724466E-1	6.879520E-1	6.470646E-1	6.724520E-1	6.071631E-1	6.626562E-1	6.508122E-1	6.583275E-1	6.533656E-1	7.369302E-1	6.490161E-1	6.461472E-1	6.864951E-1	6.458014E-1	6.054902E-1	7.030467E-1	7.148754E-1	6.758094E-1	6.629863E-1	6.726764E-1	6.556694E-1	6.457043E-1	6.171498E-1	6.568364E-1	7.056818E-1	7.466867E-1	6.633878E-1	6.660076E-1	6.999714E-1	7.185180E-1	7.049893E-1	7.344750E-1	6.870665E-1	6.554061E-1	6.420991E-1	6.753798E-1	6.570466E-1	6.706707E-1	6.506370E-1	6.723709E-1	7.241163E-1	7.578864E-1	6.790965E-1	6.717159E-1	6.768236E-1	6.672273E-1	6.772709E-1	6.789117E-1	6.872763E-1	6.780591E-1	6.892706E-1	6.736611E-1	6.540817E-1	6.612924E-1	7.041458E-1	6.300662E-1	6.730485E-1	6.399082E-1	6.583361E-1	6.844762E-1	6.921576E-1	6.942581E-1	6.426913E-1	6.944822E-1	6.358866E-1	6.432252E-1	6.361051E-1	6.937180E-1	6.412369E-1	6.694115E-1	6.700113E-1	7.203914E-1	7.038202E-1	6.874248E-1	6.309814E-1	6.706463E-1	6.818154E-1	6.793099E-1	6.802112E-1	7.273809E-1	6.928732E-1	6.583605E-1	6.422596E-1	7.145290E-1	6.652753E-1	6.639898E-1	6.408071E-1	6.590735E-1	6.549145E-1	6.671238E-1	6.773690E-1	6.229292E-1	6.354368E-1	6.416514E-1	6.390453E-1	6.873261E-1	6.607330E-1	6.424404E-1	6.353023E-1	7.175526E-1	6.769917E-1	6.957312E-1	6.752645E-1	6.484743E-1	6.864234E-1	6.481285E-1	6.590471E-1	6.869645E-1	6.934150E-1	6.962884E-1	6.885217E-1	6.360430E-1	6.237213E-1	6.390281E-1	6.715152E-1	6.575197E-1	7.383455E-1	6.829047E-1
5.402100E+2	5.312682E-1	5.604209E-1	5.289736E-1	5.023778E-1	4.952859E-1	5.368698E-1	5.067706E-1	4.971219E-1	5.167882E-1	5.717729E-1	4.912608E-1	5.515002E-1	5.456471E-1	5.008043E-1	5.540277E-1	5.586291E-1	5.677146E-1	5.413129E-1	5.414835E-1	5.365399E-1	6.003150E-1	5.032414E-1	5.319497E-1	5.374398E-1	5.165893E-1	5.201143E-1	4.948672E-1	5.057082E-1	5.246081E-1	5.199322E-1	5.286933E-1	5.506880E-1	5.623347E-1	5.736514E-1	5.850782E-1	5.369818E-1	5.127436E-1	5.256664E-1	5.133020E-1	5.029052E-1	4.891342E-1	4.999013E-1	5.012179E-1	5.239774E-1	5.629288E-1	5.637181E-1	5.586104E-1	5.649707E-1	5.021265E-1	5.231360E-1	5.275719E-1	5.698726E-1	5.675759E-1	5.627422E-1	5.289903E-1	5.652375E-1	5.738083E-1	5.326608E-1	5.194795E-1	5.298010E-1	5.621266E-1	5.635372E-1	5.537655E-1	5.180348E-1	5.667783E-1	5.592044E-1	5.482072E-1	5.173018E-1	5.654995E-1	5.271828E-1	5.454494E-1	5.381931E-1	5.351803E-1	5.846839E-1	5.497964E-1	4.968464E-1	5.636561E-1	4.829742E-1	5.395572E-1	5.478926E-1	5.508753E-1	5.616373E-1	5.656762E-1	5.206917E-1	5.303478E-1	4.868604E-1	5.496727E-1	5.296205E-1	5.609711E-1	5.877967E-1	5.406161E-1	5.483230E-1	5.583836E-1	5.296141E-1	5.067754E-1	5.553975E-1	5.944256E-1	5.388066E-1	5.491394E-1	5.163561E-1	5.481824E-1	5.005115E-1	5.365826E-1	5.346640E-1	5.801883E-1	5.338480E-1	5.268551E-1	5.359399E-1	5.410195E-1	5.782782E-1	5.722745E-1	5.292050E-1	5.519375E-1	5.233145E-1	5.640524E-1	5.446573E-1	5.139612E-1	4.587180E-1	5.368577E-1	5.627284E-1	5.545704E-1	4.888127E-1	5.016251E-1	5.405682E-1	5.326997E-1	5.545412E-1	5.448007E-1	5.524548E-1	5.333161E-1	5.419563E-1	5.456267E-1	5.420747E-1	5.653703E-1	5.333985E-1	4.968219E-1	5.417560E-1	5.647473E-1	5.573977E-1	5.381803E-1	5.501049E-1	5.569082E-1	5.585122E-1	5.025776E-1	5.728630E-1	5.556275E-1	5.394111E-1	4.860873E-1	5.650391E-1	5.717507E-1	5.735832E-1	4.970383E-1	5.581994E-1	5.557741E-1	5.562746E-1	5.525037E-1	6.004660E-1	5.413903E-1	5.374824E-1	5.002775E-1	5.520583E-1	5.580091E-1	5.024982E-1	5.571603E-1	5.279720E-1	5.966519E-1
5.404120E+2	4.526039E-1	5.117755E-1	4.535063E-1	4.802675E-1	5.200432E-1	5.027771E-1	4.723104E-1	5.218869E-1	4.286746E-1	5.043801E-1	4.907095E-1	4.872599E-1	4.801132E-1	4.749269E-1	4.587699E-1	4.708349E-1	4.637587E-1	5.289183E-1	4.781664E-1	4.793828E-1	4.912407E-1	4.777732E-1	4.766900E-1	4.917298E-1	5.112596E-1	4.498223E-1	4.930394E-1	4.997174E-1	4.737181E-1	4.990176E-1	5.151282E-1	5.292105E-1	4.876544E-1	5.387214E-1	5.056579E-1	4.943586E-1	5.176531E-1	4.823093E-1	4.365231E-1	5.129318E-1	5.205270E-1	4.644293E-1	4.835114E-1	5.410757E-1	4.946609E-1	4.903721E-1	5.259304E-1	5.005118E-1	4.559439E-1	4.582247E-1	4.821955E-1	4.799797E-1	4.792596E-1	4.703889E-1	4.671445E-1	4.927602E-1	5.212632E-1	4.542735E-1	4.922230E-1	4.974473E-1	4.959489E-1	5.006490E-1	5.104001E-1	4.512587E-1	4.668525E-1	5.068231E-1	4.928135E-1	4.731263E-1	5.138913E-1	5.003757E-1	4.792236E-1	4.970631E-1	4.596585E-1	5.248637E-1	5.032475E-1	5.181599E-1	4.965720E-1	5.226698E-1	4.990810E-1	4.969649E-1	5.097172E-1	4.556827E-1	4.882615E-1	4.635714E-1	5.030346E-1	5.006001E-1	5.227452E-1	4.955072E-1	4.884586E-1	4.825542E-1	4.791867E-1	4.787606E-1	4.615431E-1	5.377465E-1	4.831752E-1	4.999131E-1	4.893276E-1	4.886461E-1	5.196438E-1	4.636709E-1	4.814117E-1	4.970531E-1	4.368831E-1	5.164494E-1	4.917049E-1	4.760589E-1	4.844899E-1	5.148147E-1	5.115518E-1	5.198026E-1	5.222938E-1	5.182710E-1	4.963168E-1	4.893015E-1	5.215385E-1	5.029181E-1	4.959773E-1	4.885576E-1	4.508033E-1	4.845256E-1	4.954989E-1	5.195646E-1	4.645751E-1	4.901305E-1	4.794760E-1	5.072202E-1	4.780604E-1	4.817715E-1	4.863054E-1	4.750110E-1	5.386707E-1	5.031239E-1	4.809913E-1	5.091967E-1	4.809841E-1	4.700323E-1	4.642010E-1	4.808556E-1	4.819142E-1	4.843744E-1	4.925738E-1	5.109239E-1	5.076283E-1	5.125453E-1	4.899374E-1	4.509872E-1	4.806900E-1	4.816642E-1	4.697050E-1	5.078769E-1	4.712971E-1	4.841355E-1	4.734731E-1	4.769111E-1	4.855876E-1	5.068869E-1	5.133829E-1	4.828286E-1	5.335730E-1	4.789377E-1	4.996657E-1	4.921110E-1	5.111117E-1	5.313924E-1	3.978628E-1
5.406090E+2	4.821312E-1	4.694943E-1	4.734348E-1	4.594320E-1	5.041470E-1	5.023637E-1	4.373953E-1	4.999959E-1	4.935229E-1	4.649027E-1	4.935793E-1	4.704644E-1	4.329641E-1	5.226076E-1	5.060126E-1	4.372835E-1	4.796142E-1	4.952655E-1	4.795007E-1	5.026970E-1	4.523423E-1	4.684796E-1	4.876458E-1	4.985480E-1	4.643028E-1	4.721201E-1	4.702834E-1	4.681932E-1	5.045815E-1	4.831922E-1	4.842130E-1	4.733495E-1	4.658283E-1	4.952652E-1	4.434104E-1	4.716509E-1	4.488598E-1	5.293697E-1	4.783993E-1	4.720946E-1	4.736605E-1	4.954213E-1	4.844970E-1	4.974273E-1	5.195878E-1	5.105247E-1	4.897282E-1	5.021807E-1	4.844828E-1	4.793052E-1	5.053477E-1	4.371352E-1	4.798474E-1	4.561333E-1	4.923981E-1	5.129230E-1	5.054208E-1	4.720723E-1	4.759056E-1	5.098603E-1	4.773320E-1	4.787324E-1	5.017702E-1	4.960007E-1	4.727024E-1	5.017799E-1	4.732214E-1	5.618148E-1	4.915515E-1	4.730379E-1	5.065552E-1	5.110896E-1	4.832199E-1	4.851528E-1	5.121899E-1	4.822817E-1	4.987001E-1	5.116798E-1	4.729824E-1	5.254572E-1	5.016372E-1	5.240565E-1	4.669099E-1	4.742107E-1	4.611867E-1	4.696850E-1	4.980283E-1	5.171204E-1	5.344605E-1	4.767295E-1	4.691265E-1	4.940352E-1	4.964656E-1	4.657837E-1	4.867487E-1	5.210943E-1	4.822816E-1	5.185814E-1	4.923797E-1	4.774515E-1	4.712532E-1	4.863766E-1	4.936467E-1	5.072491E-1	4.700324E-1	4.527644E-1	4.911180E-1	4.668278E-1	5.346062E-1	5.178731E-1	4.765438E-1	4.879880E-1	4.586037E-1	4.716302E-1	5.114502E-1	4.773199E-1	4.805320E-1	4.856419E-1	4.852522E-1	5.155172E-1	4.850513E-1	4.558059E-1	5.095434E-1	4.846724E-1	4.971313E-1	4.942674E-1	4.936080E-1	5.384329E-1	4.826974E-1	4.787073E-1	4.941733E-1	4.800035E-1	4.665943E-1	4.806040E-1	4.601484E-1	5.305931E-1	4.969407E-1	4.642270E-1	4.416371E-1	4.884921E-1	4.672735E-1	4.977641E-1	4.939136E-1	4.823835E-1	4.611819E-1	5.103988E-1	4.904135E-1	4.878261E-1	4.642542E-1	5.419805E-1	4.501958E-1	4.840455E-1	5.062279E-1	4.876748E-1	4.956042E-1	5.150581E-1	4.543000E-1	5.162825E-1	4.644949E-1	4.826783E-1	5.030279E-1	5.133643E-1	4.936521E-1	4.975880E-1	5.015453E-1
5.408060E+2	4.240262E-1	4.194577E-1	4.167001E-1	4.471028E-1	4.103949E-1	4.455379E-1	4.466614E-1	4.255655E-1	4.316678E-1	4.190452E-1	4.275241E-1	4.346121E-1	4.310657E-1	4.209230E-1	4.387488E-1	4.381406E-1	4.345298E-1	3.949965E-1	4.105832E-1	4.330953E-1	4.226403E-1	4.393447E-1	4.239798E-1	4.431185E-1	4.311596E-1	4.287169E-1	4.213474E-1	4.711791E-1	4.147220E-1	4.050527E-1	4.555473E-1	4.451036E-1	4.350050E-1	4.398095E-1	4.077104E-1	4.267837E-1	4.463337E-1	4.274065E-1	4.420436E-1	4.096495E-1	4.514660E-1	4.412331E-1	4.339382E-1	4.163110E-1	4.393748E-1	4.325657E-1	4.366156E-1	4.242419E-1	3.693624E-1	4.483458E-1	4.387763E-1	4.352259E-1	4.031382E-1	4.303452E-1	4.494007E-1	4.003318E-1	4.341622E-1	3.973978E-1	4.266625E-1	4.082529E-1	4.107553E-1	4.405048E-1	4.467179E-1	4.418906E-1	4.370417E-1	3.961956E-1	4.180922E-1	4.737759E-1	4.509223E-1	4.479640E-1	4.494558E-1	4.641989E-1	4.461890E-1	4.468241E-1	4.030564E-1	4.272822E-1	4.363109E-1	4.494487E-1	4.338676E-1	4.267468E-1	4.549550E-1	4.280703E-1	3.952865E-1	4.184289E-1	4.516388E-1	4.410571E-1	4.729410E-1	4.149961E-1	4.510680E-1	4.424673E-1	4.220023E-1	4.353366E-1	4.167415E-1	4.085100E-1	4.264299E-1	4.606102E-1	4.391373E-1	3.943576E-1	4.392922E-1	4.289299E-1	4.089835E-1	4.337804E-1	4.156574E-1	4.338035E-1	3.982870E-1	4.756454E-1	4.050693E-1	4.286262E-1	4.264738E-1	4.381377E-1	4.241321E-1	4.857843E-1	4.332435E-1	4.439636E-1	4.230834E-1	4.282155E-1	4.437610E-1	4.022605E-1	4.399531E-1	4.489467E-1	4.334910E-1	4.226063E-1	4.524131E-1	4.463669E-1	4.511760E-1	3.897762E-1	4.307767E-1	4.122766E-1	4.589048E-1	4.495238E-1	4.397477E-1	4.605760E-1	4.466344E-1	4.144385E-1	4.329795E-1	4.382614E-1	4.560757E-1	4.505588E-1	4.341000E-1	4.229850E-1	4.382809E-1	4.157315E-1	4.579396E-1	4.201047E-1	4.403468E-1	4.495094E-1	4.313512E-1	4.066414E-1	4.661227E-1	4.593438E-1	4.173694E-1	4.129438E-1	4.208174E-1	4.149278E-1	4.959680E-1	4.452874E-1	4.539629E-1	4.492272E-1	4.396994E-1	4.256406E-1	4.450096E-1	4.558765E-1	4.589946E-1	4.210890E-1	4.304715E-1
5.410240E+2	3.467870E-1	3.839763E-1	3.542168E-1	3.514817E-1	3.628826E-1	3.881131E-1	3.315600E-1	3.487032E-1	3.661234E-1	3.698255E-1	3.461929E-1	3.419742E-1	3.552059E-1	3.928077E-1	3.531073E-1	3.525732E-1	3.655414E-1	3.448890E-1	3.489437E-1	3.884224E-1	3.768313E-1	3.691222E-1	3.219576E-1	3.646182E-1	3.689635E-1	3.701492E-1	3.741260E-1	3.834931E-1	3.728170E-1	3.914266E-1	3.672105E-1	3.703248E-1	3.835331E-1	3.837442E-1	3.870311E-1	3.525957E-1	3.516280E-1	3.690358E-1	3.273338E-1	3.487591E-1	4.227972E-1	3.568863E-1	3.641794E-1	3.420029E-1	3.680917E-1	4.059972E-1	3.844852E-1	3.400297E-1	3.476633E-1	3.733301E-1	3.807701E-1	3.359587E-1	3.721246E-1	3.456729E-1	3.822447E-1	3.783289E-1	4.059672E-1	3.701775E-1	3.273484E-1	3.533670E-1	3.503987E-1	3.571927E-1	3.538398E-1	3.714939E-1	3.854414E-1	3.804418E-1	3.611913E-1	3.531626E-1	3.873674E-1	3.520313E-1	3.766677E-1	3.888582E-1	3.852805E-1	3.892467E-1	3.776040E-1	3.783377E-1	3.615568E-1	3.890635E-1	3.875675E-1	3.846900E-1	3.429229E-1	3.475326E-1	3.627441E-1	3.686940E-1	3.711428E-1	3.751766E-1	3.879021E-1	3.777791E-1	3.534249E-1	4.051215E-1	3.558905E-1	3.251018E-1	3.646043E-1	3.489974E-1	3.679213E-1	3.863868E-1	3.389409E-1	3.708869E-1	3.491331E-1	3.394979E-1	3.638917E-1	3.675335E-1	3.722185E-1	3.616645E-1	3.738442E-1	3.552470E-1	3.472862E-1	3.316096E-1	3.672201E-1	3.558049E-1	3.439347E-1	3.929095E-1	4.093356E-1	3.317610E-1	3.807279E-1	3.871196E-1	3.805523E-1	3.860498E-1	3.535881E-1	3.899846E-1	3.761945E-1	3.656219E-1	3.795848E-1	3.713943E-1	3.920930E-1	3.958219E-1	4.083774E-1	3.894406E-1	3.651149E-1	3.711074E-1	3.587988E-1	3.632251E-1	3.726347E-1	3.343425E-1	3.526611E-1	3.346441E-1	3.630798E-1	3.617545E-1	3.649445E-1	3.336804E-1	3.928260E-1	3.699503E-1	3.756966E-1	4.109706E-1	3.762676E-1	3.622096E-1	3.801275E-1	3.272724E-1	4.176350E-1	3.523905E-1	3.561426E-1	3.633275E-1	3.581397E-1	3.896053E-1	3.350009E-1	3.899552E-1	3.733040E-1	3.500556E-1	3.667830E-1	3.945679E-1	3.272380E-1	3.732034E-1	3.867687E-1	3.381421E-1	3.256046E-1
5.415040E+2	3.631244E-1	3.396965E-1	3.717210E-1	3.909096E-1	4.131901E-1	3.631106E-1	3.617334E-1	3.573745E-1	3.843814E-1	3.644675E-1	3.501156E-1	3.803429E-1	3.820617E-1	3.712785E-1	4.012996E-1	3.400460E-1	3.386700E-1	3.649924E-1	3.844373E-1	3.699237E-1	3.652863E-1	3.876109E-1	3.660548E-1	3.633780E-1	3.489562E-1	3.797281E-1	3.872479E-1	3.690348E-1	3.677592E-1	3.685687E-1	3.625292E-1	3.519695E-1	3.836579E-1	3.967332E-1	3.892106E-1	4.038973E-1	3.890398E-1	3.586286E-1	3.477502E-1	3.907881E-1	3.537310E-1	3.648598E-1	4.131489E-1	3.699395E-1	3.938086E-1	4.063336E-1	4.076569E-1	3.693116E-1	3.193437E-1	3.282168E-1	3.744930E-1	3.840624E-1	3.468536E-1	3.969215E-1	3.536535E-1	3.715770E-1	3.865241E-1	3.852266E-1	4.126297E-1	3.798949E-1	3.698214E-1	4.035559E-1	3.817598E-1	3.480857E-1	3.504284E-1	4.336752E-1	3.747542E-1	3.361627E-1	3.770299E-1	4.153185E-1	3.560486E-1	3.611507E-1	3.836956E-1	3.708263E-1	3.687739E-1	3.667317E-1	3.759818E-1	3.709304E-1	3.699345E-1	4.358555E-1	3.770671E-1	4.078514E-1	3.518553E-1	3.433260E-1	3.901281E-1	3.853963E-1	4.072178E-1	3.973437E-1	3.993717E-1	3.506821E-1	3.433842E-1	3.799377E-1	3.561833E-1	3.971306E-1	4.075285E-1	4.007143E-1	3.852752E-1	3.653070E-1	3.816737E-1	3.354931E-1	3.516729E-1	3.660249E-1	3.983857E-1	3.777422E-1	3.832484E-1	3.845369E-1	3.664463E-1	3.595486E-1	3.907199E-1	3.766905E-1	4.247630E-1	3.964247E-1	3.925993E-1	3.968956E-1	3.805949E-1	3.327396E-1	3.833498E-1	3.762727E-1	3.577549E-1	3.956084E-1	4.106203E-1	3.401955E-1	3.960279E-1	3.727570E-1	3.927748E-1	3.554970E-1	3.912983E-1	3.594845E-1	3.851099E-1	4.233148E-1	4.104104E-1	3.800046E-1	4.043023E-1	3.639372E-1	3.723085E-1	3.610089E-1	4.004421E-1	3.991312E-1	3.756703E-1	3.979054E-1	3.921095E-1	3.484937E-1	3.792277E-1	3.842108E-1	4.032974E-1	3.785715E-1	3.879696E-1	3.852541E-1	3.875181E-1	3.901004E-1	3.786958E-1	3.597889E-1	3.550851E-1	3.748025E-1	3.921445E-1	3.913292E-1	4.006765E-1	3.826585E-1	3.724272E-1	3.626981E-1	3.535556E-1	4.030615E-1	4.026073E-1	4.109477E-1	3.556369E-1
5.420110E+2	5.037861E-1	4.820517E-1	4.560219E-1	4.917260E-1	4.952521E-1	5.088552E-1	4.704396E-1	4.924428E-1	4.564373E-1	4.371402E-1	4.680631E-1	5.167377E-1	4.603572E-1	4.815145E-1	4.532095E-1	5.003508E-1	4.684567E-1	4.892858E-1	5.138638E-1	5.225746E-1	5.134814E-1	4.791047E-1	4.779077E-1	4.668685E-1	4.991957E-1	4.719240E-1	4.875511E-1	4.647026E-1	4.893134E-1	4.973358E-1	4.961300E-1	4.529483E-1	4.576938E-1	4.733129E-1	5.093650E-1	4.938339E-1	4.799587E-1	4.800787E-1	4.562356E-1	4.734866E-1	4.946012E-1	4.430372E-1	5.176195E-1	4.835986E-1	4.841756E-1	4.702685E-1	4.784809E-1	4.589717E-1	4.711588E-1	4.778759E-1	4.961960E-1	4.980639E-1	4.805080E-1	4.788168E-1	4.662419E-1	5.072063E-1	4.320412E-1	5.030492E-1	5.028768E-1	4.722546E-1	5.117276E-1	4.986346E-1	4.969967E-1	4.925143E-1	4.696247E-1	5.053219E-1	4.919047E-1	4.927562E-1	5.205517E-1	4.847960E-1	4.664595E-1	5.375523E-1	4.949284E-1	4.878785E-1	5.124140E-1	4.814316E-1	5.070650E-1	5.103967E-1	5.241500E-1	5.005707E-1	4.782033E-1	4.842004E-1	5.013776E-1	5.067419E-1	5.123354E-1	4.627932E-1	4.745782E-1	4.876480E-1	4.933690E-1	5.005449E-1	4.803020E-1	4.853910E-1	5.121590E-1	4.835175E-1	5.164386E-1	5.079719E-1	4.500265E-1	4.827183E-1	4.872947E-1	5.099268E-1	5.014414E-1	4.958583E-1	4.937675E-1	5.124817E-1	4.969060E-1	4.878393E-1	4.956581E-1	4.771179E-1	4.924876E-1	4.718904E-1	5.311130E-1	4.801131E-1	5.030741E-1	4.848924E-1	5.246739E-1	4.847328E-1	4.705770E-1	4.794468E-1	4.731120E-1	4.868103E-1	4.937407E-1	4.488744E-1	4.781394E-1	4.627731E-1	5.152905E-1	4.997808E-1	4.909965E-1	5.248164E-1	4.652104E-1	4.898843E-1	4.929185E-1	4.947875E-1	4.739895E-1	4.918382E-1	4.275481E-1	5.040070E-1	4.796768E-1	4.766167E-1	4.933839E-1	5.077129E-1	4.954268E-1	4.840249E-1	4.793508E-1	5.582423E-1	4.809128E-1	5.062345E-1	5.200833E-1	4.827286E-1	5.192986E-1	4.929161E-1	4.742853E-1	4.758598E-1	5.112930E-1	4.988731E-1	5.257389E-1	5.202941E-1	4.893677E-1	4.904648E-1	5.001968E-1	4.809910E-1	4.761543E-1	5.560537E-1	5.174298E-1	4.810252E-1	5.693100E-1
5.425080E+2	6.825765E-1	6.937260E-1	6.567729E-1	6.901663E-1	7.164009E-1	6.577956E-1	6.566523E-1	6.735506E-1	6.712855E-1	6.720079E-1	6.508500E-1	6.783981E-1	6.533356E-1	6.850024E-1	6.832303E-1	6.722320E-1	6.823830E-1	6.260154E-1	6.667306E-1	6.583563E-1	6.649032E-1	7.189437E-1	6.706648E-1	6.341630E-1	7.304560E-1	6.539010E-1	7.167286E-1	6.974113E-1	6.450208E-1	6.371234E-1	6.759294E-1	6.848106E-1	6.511055E-1	6.977236E-1	7.295217E-1	6.870579E-1	6.510503E-1	6.725038E-1	6.448954E-1	6.925988E-1	6.599455E-1	7.048893E-1	6.914838E-1	6.585355E-1	6.502836E-1	6.422608E-1	6.754854E-1	6.606554E-1	6.252674E-1	6.508341E-1	6.506635E-1	6.848038E-1	6.690575E-1	6.761936E-1	6.441215E-1	6.823007E-1	6.492563E-1	6.811932E-1	7.088897E-1	7.051341E-1	6.562381E-1	6.908480E-1	7.035874E-1	6.570312E-1	6.975705E-1	6.715342E-1	6.992632E-1	6.622266E-1	7.144835E-1	6.386147E-1	6.773267E-1	6.924951E-1	6.577814E-1	6.681551E-1	6.281634E-1	7.166614E-1	7.319153E-1	6.794437E-1	6.770869E-1	6.837185E-1	6.561000E-1	6.341488E-1	6.829398E-1	6.844997E-1	6.734805E-1	6.456780E-1	6.632124E-1	6.737137E-1	6.754229E-1	6.883482E-1	6.896359E-1	6.595610E-1	6.225776E-1	6.580381E-1	6.739607E-1	7.200447E-1	6.754890E-1	6.230597E-1	6.771753E-1	6.595897E-1	6.548692E-1	6.812410E-1	7.188723E-1	6.762912E-1	6.701779E-1	7.273343E-1	6.798593E-1	6.410719E-1	6.563295E-1	6.718091E-1	7.296302E-1	7.111598E-1	6.737588E-1	6.708844E-1	6.739299E-1	6.363684E-1	6.565937E-1	6.986712E-1	6.978308E-1	6.632821E-1	6.764075E-1	6.328371E-1	7.376681E-1	6.505014E-1	6.705262E-1	6.499076E-1	7.009190E-1	6.541793E-1	7.191615E-1	6.638621E-1	7.067086E-1	6.865700E-1	6.708253E-1	6.748266E-1	6.635212E-1	6.382021E-1	6.902699E-1	6.105827E-1	7.085949E-1	6.617098E-1	6.736770E-1	6.292962E-1	6.695547E-1	6.646254E-1	6.439858E-1	6.399630E-1	6.682884E-1	7.118414E-1	6.963778E-1	6.499745E-1	6.387664E-1	7.030674E-1	6.808438E-1	6.269467E-1	7.096080E-1	7.347851E-1	6.726281E-1	6.676088E-1	6.344254E-1	6.965011E-1	6.927310E-1	6.946534E-1	6.233941E-1	5.580635E-1	6.851780E-1
5.430120E+2	8.972396E-1	9.126826E-1	8.565121E-1	9.277157E-1	9.572999E-1	8.820323E-1	8.954771E-1	8.773947E-1	8.496029E-1	9.352329E-1	8.700987E-1	8.941334E-1	9.139647E-1	9.095887E-1	9.232066E-1	9.226771E-1	9.123732E-1	8.583555E-1	9.191924E-1	8.603962E-1	9.176644E-1	9.403174E-1	9.164992E-1	8.834866E-1	8.575782E-1	8.775512E-1	9.252457E-1	9.311528E-1	9.505688E-1	8.702901E-1	9.304873E-1	9.218493E-1	8.769492E-1	8.747393E-1	9.277343E-1	9.634519E-1	8.604744E-1	9.412529E-1	8.769188E-1	9.328427E-1	8.819068E-1	9.241044E-1	9.352074E-1	8.535472E-1	9.067918E-1	8.841009E-1	9.228008E-1	9.047618E-1	8.545606E-1	8.085416E-1	9.082611E-1	9.004019E-1	8.563059E-1	8.814252E-1	8.990009E-1	9.220728E-1	9.348270E-1	8.885312E-1	9.220039E-1	9.073175E-1	8.612829E-1	8.832796E-1	8.925990E-1	9.089642E-1	8.678476E-1	8.839219E-1	9.032638E-1	9.011978E-1	9.564882E-1	8.854523E-1	8.652617E-1	9.049382E-1	8.988879E-1	8.720875E-1	9.175567E-1	9.552353E-1	8.939447E-1	9.370083E-1	9.530452E-1	9.534912E-1	8.634733E-1	8.893765E-1	9.364791E-1	8.713804E-1	9.002458E-1	9.311929E-1	8.775525E-1	8.999950E-1	9.057767E-1	8.563168E-1	9.465369E-1	9.074925E-1	9.161516E-1	8.521698E-1	8.601050E-1	9.403076E-1	8.583820E-1	8.872097E-1	9.053627E-1	8.862877E-1	9.017070E-1	8.869537E-1	8.894383E-1	8.897796E-1	9.183090E-1	9.196863E-1	9.065041E-1	8.532818E-1	9.639879E-1	8.849920E-1	9.035010E-1	9.145766E-1	9.385041E-1	9.138638E-1	8.764471E-1	9.260106E-1	8.630054E-1	8.720910E-1	8.859405E-1	9.059302E-1	8.959124E-1	8.288378E-1	8.506389E-1	8.933263E-1	9.462398E-1	9.345460E-1	9.425323E-1	8.990082E-1	9.449030E-1	9.354111E-1	9.236312E-1	8.802049E-1	8.886369E-1	8.451416E-1	8.545647E-1	9.131195E-1	9.223636E-1	8.863528E-1	9.077603E-1	8.567737E-1	8.928270E-1	8.843838E-1	8.739291E-1	9.343965E-1	8.686804E-1	9.256791E-1	9.046330E-1	9.200820E-1	8.876514E-1	8.886515E-1	8.571809E-1	9.070262E-1	8.800264E-1	9.042652E-1	8.833754E-1	8.952808E-1	9.368385E-1	9.035078E-1	9.425531E-1	8.936982E-1	8.613663E-1	9.048234E-1	9.176423E-1	9.212112E-1	9.343933E-1
5.435330E+2	9.637744E-1	9.890980E-1	9.629112E-1	1.013395E+0	9.706283E-1	9.502544E-1	9.119153E-1	9.648200E-1	9.511821E-1	9.092089E-1	9.214551E-1	9.866131E-1	1.021545E+0	9.428595E-1	1.020964E+0	9.377873E-1	9.992123E-1	9.274597E-1	9.564118E-1	9.399747E-1	1.020675E+0	1.022525E+0	9.636959E-1	9.383144E-1	9.571434E-1	9.940324E-1	1.007231E+0	9.428223E-1	9.842192E-1	9.511865E-1	1.033731E+0	1.017698E+0	9.100415E-1	9.951481E-1	9.981976E-1	1.004435E+0	9.880044E-1	9.586820E-1	9.694052E-1	9.238847E-1	1.002138E+0	9.296586E-1	9.676822E-1	9.302869E-1	9.637410E-1	1.038997E+0	9.305176E-1	9.061425E-1	8.808374E-1	9.211842E-1	9.472726E-1	9.667008E-1	9.304453E-1	9.557873E-1	9.548551E-1	9.658252E-1	1.042434E+0	9.264235E-1	1.008899E+0	9.987592E-1	9.461764E-1	9.573222E-1	1.007131E+0	9.585015E-1	9.600399E-1	9.810209E-1	9.526668E-1	9.144898E-1	9.392527E-1	9.474128E-1	9.659214E-1	9.744940E-1	1.005794E+0	9.650388E-1	9.332606E-1	9.827084E-1	9.291636E-1	9.915269E-1	9.915905E-1	1.001962E+0	9.025339E-1	9.442060E-1	9.743980E-1	9.489190E-1	9.801813E-1	9.043513E-1	9.970005E-1	9.539367E-1	1.027629E+0	9.240153E-1	9.668138E-1	9.357733E-1	9.265138E-1	8.704652E-1	9.832993E-1	9.974929E-1	9.751739E-1	9.357363E-1	9.157151E-1	9.339207E-1	9.049631E-1	1.000776E+0	9.657474E-1	9.258127E-1	9.683450E-1	9.461602E-1	9.244844E-1	9.551597E-1	9.716185E-1	9.697359E-1	1.015713E+0	9.486337E-1	9.338574E-1	9.477747E-1	9.735200E-1	9.420895E-1	9.868031E-1	9.413690E-1	9.781838E-1	1.070201E+0	9.544508E-1	9.525908E-1	9.457245E-1	9.481156E-1	9.729139E-1	9.470295E-1	1.057532E+0	9.540347E-1	9.347055E-1	1.008198E+0	1.002030E+0	9.452443E-1	9.284863E-1	9.517836E-1	1.014032E+0	9.578801E-1	9.758402E-1	9.338481E-1	9.635981E-1	9.830254E-1	9.696275E-1	9.544563E-1	9.913480E-1	1.065051E+0	9.392558E-1	9.016268E-1	9.530914E-1	9.794393E-1	9.807988E-1	9.504589E-1	9.803373E-1	9.175644E-1	9.988347E-1	9.644155E-1	9.706605E-1	9.868398E-1	9.721839E-1	9.458905E-1	1.005895E+0	9.840539E-1	9.684214E-1	9.883390E-1	9.182923E-1	9.335665E-1	9.691125E-1
5.440170E+2	9.542924E-1	9.364894E-1	9.365447E-1	9.534902E-1	9.690160E-1	9.822963E-1	9.732292E-1	9.223032E-1	1.018660E+0	9.231062E-1	9.715250E-1	9.433147E-1	9.912743E-1	9.367031E-1	9.405966E-1	9.062689E-1	9.541247E-1	9.440136E-1	9.747615E-1	9.352204E-1	9.633578E-1	1.000021E+0	9.261987E-1	9.685075E-1	9.489309E-1	9.454061E-1	9.291202E-1	9.564226E-1	9.135690E-1	9.488787E-1	9.677843E-1	9.723822E-1	9.007124E-1	9.336653E-1	9.654303E-1	9.641430E-1	9.359604E-1	9.956748E-1	9.025678E-1	9.383254E-1	9.379651E-1	8.663704E-1	9.163758E-1	9.149668E-1	9.301938E-1	9.762220E-1	9.678221E-1	9.236144E-1	9.271419E-1	9.379049E-1	9.724159E-1	9.512540E-1	9.145599E-1	9.348175E-1	9.548971E-1	9.393745E-1	9.674692E-1	8.683210E-1	9.770001E-1	9.251548E-1	9.668757E-1	9.323449E-1	9.356250E-1	9.683079E-1	9.256590E-1	8.850521E-1	9.427281E-1	9.304548E-1	1.023913E+0	8.876771E-1	9.436511E-1	9.904362E-1	9.615100E-1	9.129098E-1	9.424150E-1	8.825652E-1	9.766575E-1	9.309728E-1	9.285246E-1	1.001571E+0	9.280134E-1	9.515049E-1	9.754575E-1	8.693378E-1	9.311986E-1	9.065618E-1	1.032312E+0	9.595868E-1	9.591028E-1	9.375287E-1	9.152246E-1	9.122840E-1	9.392173E-1	9.309477E-1	9.492146E-1	9.663276E-1	9.504355E-1	9.541535E-1	9.010914E-1	9.811558E-1	9.448442E-1	9.301326E-1	9.513047E-1	9.223163E-1	1.000385E+0	8.526555E-1	9.360732E-1	9.198274E-1	8.963063E-1	9.673100E-1	1.014408E+0	9.852684E-1	9.516668E-1	9.322716E-1	9.285155E-1	9.437567E-1	9.516719E-1	9.348287E-1	9.656704E-1	9.534631E-1	9.132118E-1	9.342232E-1	9.370631E-1	9.370688E-1	1.007012E+0	9.207869E-1	9.778664E-1	9.504476E-1	9.283361E-1	9.795345E-1	9.397150E-1	9.036596E-1	9.572647E-1	9.303266E-1	9.343319E-1	9.549653E-1	1.001928E+0	9.248620E-1	9.436071E-1	9.367433E-1	9.469913E-1	8.982472E-1	9.214944E-1	9.907965E-1	9.776209E-1	9.466359E-1	9.363113E-1	9.652507E-1	9.616827E-1	9.354868E-1	9.249505E-1	9.539808E-1	9.424828E-1	9.952605E-1	9.300210E-1	9.528619E-1	9.554223E-1	9.702036E-1	9.138819E-1	9.402922E-1	9.199792E-1	9.233371E-1	9.373699E-1	9.117661E-1	7.647334E-1
5.445020E+2	9.660301E-1	8.889154E-1	8.350456E-1	9.448867E-1	1.025466E+0	9.270626E-1	8.608561E-1	9.370985E-1	9.233729E-1	9.216499E-1	9.160797E-1	9.130346E-1	9.269593E-1	9.049029E-1	9.599925E-1	9.409899E-1	8.942880E-1	8.389224E-1	9.083924E-1	9.448619E-1	9.033610E-1	9.380214E-1	9.529257E-1	8.933573E-1	9.285543E-1	8.798566E-1	9.015333E-1	9.051770E-1	8.503421E-1	9.152154E-1	9.676641E-1	8.794174E-1	8.694681E-1	9.320977E-1	9.246531E-1	9.207432E-1	8.814361E-1	9.452142E-1	8.974455E-1	9.299459E-1	8.448811E-1	8.875965E-1	9.618454E-1	8.824126E-1	9.720370E-1	8.698703E-1	9.011527E-1	9.341273E-1	8.537661E-1	9.010655E-1	9.612501E-1	9.495293E-1	9.244818E-1	8.974106E-1	9.094714E-1	9.153830E-1	9.355758E-1	9.149481E-1	8.990836E-1	8.912034E-1	9.162645E-1	8.928619E-1	9.170879E-1	8.849050E-1	8.922797E-1	8.997310E-1	9.008558E-1	8.145665E-1	9.799510E-1	8.859938E-1	9.008761E-1	8.858886E-1	9.247478E-1	8.856022E-1	9.225650E-1	8.826573E-1	8.941893E-1	9.129106E-1	8.926852E-1	9.400176E-1	9.474155E-1	8.886262E-1	9.389005E-1	9.039226E-1	8.563592E-1	8.914835E-1	9.188612E-1	9.088595E-1	9.604836E-1	9.422683E-1	9.397847E-1	8.999622E-1	8.908654E-1	8.576754E-1	9.250253E-1	9.628175E-1	9.213891E-1	8.750673E-1	9.432656E-1	9.251369E-1	8.965820E-1	9.317302E-1	8.899286E-1	9.601566E-1	9.337810E-1	9.445420E-1	9.085976E-1	9.370256E-1	9.044592E-1	8.810482E-1	9.505526E-1	9.204285E-1	9.595053E-1	9.184600E-1	9.250991E-1	9.306598E-1	9.329783E-1	8.538171E-1	9.259420E-1	9.859732E-1	9.613586E-1	8.411228E-1	9.252444E-1	9.091807E-1	9.261076E-1	8.879958E-1	9.323110E-1	9.279986E-1	9.084979E-1	9.043777E-1	8.765941E-1	8.688679E-1	8.689654E-1	8.505691E-1	8.406982E-1	8.720545E-1	9.096546E-1	9.033406E-1	9.177835E-1	8.912117E-1	9.416862E-1	8.579978E-1	9.363722E-1	9.913613E-1	9.065522E-1	9.137858E-1	8.912393E-1	9.103677E-1	9.199840E-1	9.403033E-1	9.070638E-1	9.453688E-1	9.225421E-1	8.997775E-1	8.934366E-1	9.452839E-1	9.625976E-1	9.146070E-1	9.594932E-1	8.970897E-1	8.485922E-1	8.616331E-1	8.845607E-1	9.156328E-1	9.851923E-1
5.450090E+2	8.688631E-1	8.801966E-1	8.741354E-1	8.541385E-1	8.844838E-1	8.919626E-1	9.130076E-1	8.068049E-1	8.926101E-1	8.561564E-1	8.595555E-1	8.847543E-1	9.012379E-1	8.619929E-1	8.990249E-1	8.909366E-1	9.073100E-1	8.763370E-1	9.162875E-1	9.535118E-1	9.029328E-1	8.988505E-1	8.507647E-1	8.773870E-1	8.542400E-1	8.843495E-1	8.711067E-1	9.019817E-1	8.731767E-1	9.150416E-1	9.175225E-1	8.554458E-1	8.860753E-1	9.268035E-1	8.495437E-1	9.049116E-1	8.702166E-1	9.233734E-1	8.553108E-1	9.323905E-1	8.474998E-1	8.133957E-1	8.975668E-1	8.727726E-1	8.668887E-1	8.393854E-1	9.123268E-1	8.778837E-1	7.951719E-1	8.598061E-1	8.613855E-1	9.225948E-1	8.194758E-1	8.285453E-1	8.751801E-1	9.004636E-1	9.218742E-1	8.726529E-1	8.936207E-1	8.556217E-1	8.690386E-1	8.625520E-1	8.631496E-1	8.586158E-1	8.667015E-1	8.601090E-1	8.924944E-1	9.151681E-1	9.123952E-1	8.127004E-1	8.577165E-1	8.970998E-1	8.841009E-1	8.830381E-1	8.964577E-1	8.942458E-1	9.128586E-1	8.862541E-1	8.976857E-1	9.681789E-1	8.632363E-1	8.897440E-1	8.582167E-1	8.787498E-1	8.320365E-1	8.579037E-1	8.911937E-1	9.025174E-1	9.540501E-1	8.672772E-1	8.873100E-1	8.763077E-1	8.536665E-1	8.877275E-1	8.926150E-1	9.015319E-1	9.051972E-1	8.604386E-1	9.013004E-1	8.839551E-1	8.250240E-1	8.693193E-1	8.495045E-1	8.499814E-1	8.646743E-1	8.539912E-1	8.687618E-1	8.578302E-1	8.480592E-1	9.258267E-1	8.900136E-1	8.994873E-1	9.116065E-1	8.632402E-1	9.274141E-1	8.878081E-1	8.948558E-1	8.365069E-1	8.720837E-1	9.371320E-1	8.481176E-1	8.371996E-1	9.063316E-1	8.727261E-1	8.536489E-1	8.525877E-1	9.195548E-1	8.705160E-1	8.970009E-1	8.479733E-1	8.979985E-1	9.109244E-1	9.020232E-1	8.356879E-1	8.710145E-1	8.672595E-1	8.429715E-1	8.868644E-1	8.635509E-1	8.566638E-1	8.671008E-1	8.471072E-1	8.662589E-1	9.223107E-1	8.460068E-1	9.117523E-1	8.591754E-1	8.652591E-1	8.968192E-1	8.987681E-1	7.912933E-1	8.870737E-1	8.315749E-1	9.024779E-1	8.883598E-1	9.179523E-1	9.384319E-1	8.745343E-1	9.431367E-1	8.632105E-1	8.603369E-1	9.380895E-1	8.817028E-1	8.547333E-1	1.033359E+0
5.455130E+2	8.878041E-1	8.766408E-1	9.133096E-1	8.837997E-1	9.095442E-1	8.821274E-1	8.563750E-1	8.335201E-1	8.976603E-1	8.765084E-1	8.927825E-1	8.511896E-1	8.601535E-1	8.080027E-1	8.651927E-1	8.593216E-1	8.498660E-1	9.007001E-1	9.121798E-1	9.282423E-1	9.109873E-1	8.494483E-1	8.800533E-1	9.197910E-1	8.756438E-1	8.752104E-1	8.643714E-1	8.621910E-1	8.613239E-1	8.776243E-1	9.008766E-1	8.755518E-1	8.805701E-1	8.665023E-1	8.476353E-1	8.975575E-1	9.305765E-1	9.114740E-1	8.761730E-1	8.972204E-1	8.709783E-1	8.740696E-1	8.631257E-1	9.246809E-1	8.734028E-1	8.830558E-1	9.254979E-1	8.856558E-1	8.443285E-1	8.406128E-1	8.650468E-1	8.795760E-1	8.573845E-1	9.142810E-1	8.849829E-1	8.615690E-1	9.575286E-1	8.483980E-1	9.140592E-1	8.911180E-1	8.755552E-1	8.719456E-1	9.148045E-1	9.302589E-1	8.667588E-1	9.189606E-1	8.752475E-1	8.740653E-1	8.695883E-1	8.835345E-1	8.739731E-1	9.600564E-1	9.263535E-1	8.931427E-1	8.747478E-1	9.189261E-1	9.296697E-1	9.506655E-1	8.741414E-1	9.273502E-1	9.165782E-1	8.740686E-1	8.895884E-1	8.674648E-1	9.185865E-1	8.581968E-1	8.752134E-1	9.066082E-1	8.886352E-1	8.321163E-1	9.017943E-1	9.063643E-1	8.633451E-1	8.939039E-1	8.698173E-1	8.777778E-1	9.039665E-1	8.561546E-1	8.495469E-1	8.724109E-1	8.661895E-1	8.462134E-1	8.873776E-1	8.822531E-1	8.656966E-1	8.550072E-1	8.776155E-1	8.578736E-1	8.852433E-1	8.327278E-1	9.252035E-1	8.959629E-1	9.278138E-1	8.501393E-1	9.233919E-1	9.276336E-1	8.914081E-1	8.073835E-1	8.992963E-1	9.195513E-1	8.923367E-1	8.782815E-1	9.229593E-1	8.720447E-1	8.882776E-1	8.777386E-1	9.239357E-1	9.544866E-1	9.114384E-1	8.825933E-1	9.497366E-1	9.012793E-1	8.798471E-1	8.597150E-1	8.312829E-1	8.645992E-1	9.563072E-1	8.427705E-1	8.838546E-1	8.807401E-1	8.992486E-1	8.588898E-1	9.041880E-1	9.014089E-1	9.102910E-1	8.474862E-1	8.556282E-1	8.963802E-1	9.038836E-1	8.902814E-1	8.965584E-1	8.851632E-1	8.913150E-1	8.820113E-1	8.677298E-1	9.313400E-1	9.216369E-1	8.662902E-1	8.582533E-1	8.884156E-1	9.227010E-1	8.551703E-1	9.338561E-1	9.632656E-1	8.351187E-1
5.460060E+2	9.351706E-1	9.831236E-1	9.228795E-1	9.345801E-1	9.969730E-1	9.550927E-1	9.248484E-1	9.157104E-1	8.997357E-1	9.511187E-1	9.154855E-1	8.883460E-1	8.992253E-1	8.768863E-1	9.246954E-1	9.471304E-1	8.966990E-1	9.052667E-1	9.165901E-1	9.435824E-1	9.569826E-1	9.530956E-1	8.960435E-1	9.148261E-1	9.561945E-1	9.872195E-1	9.444673E-1	9.537658E-1	8.815514E-1	8.878113E-1	9.165786E-1	9.198201E-1	9.778962E-1	9.290110E-1	9.223870E-1	9.681167E-1	9.246369E-1	9.831881E-1	9.088435E-1	9.179413E-1	9.937287E-1	9.163684E-1	8.877839E-1	9.515193E-1	9.013053E-1	9.486053E-1	8.993139E-1	9.312510E-1	9.414842E-1	8.894613E-1	9.034713E-1	9.162697E-1	9.164711E-1	9.619065E-1	8.894835E-1	9.409995E-1	9.396100E-1	9.412469E-1	9.468000E-1	9.681559E-1	8.902230E-1	9.785848E-1	9.350445E-1	9.029069E-1	9.545199E-1	9.338355E-1	9.236162E-1	9.560722E-1	9.967034E-1	9.398691E-1	9.839310E-1	9.766916E-1	9.394432E-1	9.242621E-1	9.431776E-1	9.426198E-1	9.115055E-1	9.553463E-1	9.512067E-1	1.045525E+0	9.017605E-1	9.557158E-1	9.854018E-1	9.063266E-1	9.763994E-1	9.422560E-1	9.773278E-1	8.795493E-1	9.190454E-1	9.590149E-1	9.240560E-1	9.727266E-1	9.356554E-1	9.696863E-1	9.174827E-1	8.992362E-1	9.461734E-1	9.305007E-1	9.125342E-1	9.080466E-1	9.206606E-1	9.537484E-1	8.957225E-1	9.660663E-1	8.952335E-1	9.100620E-1	9.330485E-1	9.426068E-1	9.210100E-1	9.720657E-1	9.750328E-1	9.511667E-1	9.825891E-1	9.384071E-1	9.962957E-1	8.866494E-1	9.260234E-1	9.258691E-1	8.949671E-1	9.678725E-1	9.448254E-1	8.956215E-1	9.399276E-1	8.977174E-1	9.337583E-1	9.746625E-1	9.531459E-1	9.692960E-1	9.391595E-1	9.244266E-1	9.441188E-1	9.375291E-1	9.327754E-1	9.137030E-1	9.008767E-1	9.374730E-1	9.670735E-1	9.100169E-1	8.710257E-1	9.442289E-1	9.741550E-1	9.087290E-1	9.726885E-1	1.050464E+0	9.062271E-1	9.024214E-1	9.171921E-1	9.349582E-1	9.643252E-1	9.758295E-1	9.084244E-1	1.006157E+0	9.258665E-1	8.964805E-1	9.494479E-1	9.751695E-1	9.242627E-1	9.168301E-1	1.032480E+0	9.870641E-1	8.941786E-1	9.102396E-1	9.794752E-1	9.434182E-1	1.084852E+0
5.465380E+2	9.009540E-1	9.165919E-1	8.537356E-1	9.523756E-1	9.110200E-1	9.086355E-1	8.142627E-1	8.704307E-1	8.886903E-1	9.165842E-1	8.832477E-1	9.174889E-1	8.894222E-1	8.610201E-1	8.905470E-1	8.666108E-1	9.032929E-1	8.707939E-1	8.931640E-1	8.617288E-1	8.549797E-1	8.999994E-1	9.121066E-1	8.888224E-1	8.841759E-1	9.049789E-1	9.261807E-1	9.059877E-1	8.559468E-1	8.577402E-1	9.066789E-1	8.815013E-1	8.468114E-1	9.390962E-1	8.927680E-1	9.675606E-1	9.042741E-1	8.669879E-1	8.503058E-1	8.691754E-1	9.212092E-1	8.949913E-1	8.524262E-1	8.752273E-1	9.216647E-1	9.119630E-1	8.896908E-1	8.879026E-1	8.817799E-1	8.423708E-1	9.018167E-1	9.435296E-1	8.935796E-1	9.170579E-1	9.586671E-1	8.268691E-1	9.490267E-1	8.336905E-1	9.026369E-1	9.003682E-1	8.574858E-1	8.930821E-1	9.138295E-1	8.987508E-1	8.818358E-1	8.785288E-1	9.128392E-1	8.744613E-1	9.141420E-1	8.396901E-1	8.670080E-1	9.032277E-1	9.413415E-1	9.118222E-1	9.080692E-1	9.182958E-1	9.190333E-1	9.246758E-1	8.889009E-1	9.516322E-1	8.914149E-1	8.859646E-1	8.563374E-1	8.763028E-1	8.970269E-1	8.563923E-1	9.006230E-1	9.107779E-1	8.775858E-1	9.009506E-1	9.162646E-1	9.286766E-1	8.800148E-1	9.113032E-1	8.846205E-1	8.907634E-1	8.878055E-1	8.582187E-1	8.930191E-1	9.025705E-1	8.806031E-1	9.091810E-1	9.302662E-1	8.411183E-1	8.748533E-1	9.087162E-1	8.538615E-1	8.744943E-1	9.024879E-1	9.104417E-1	8.794768E-1	8.866062E-1	8.960904E-1	8.742411E-1	9.323511E-1	9.235879E-1	8.721780E-1	8.372029E-1	8.923713E-1	9.194760E-1	9.023616E-1	8.895057E-1	8.902176E-1	9.136383E-1	9.183301E-1	8.523616E-1	9.400955E-1	8.993257E-1	8.704189E-1	8.348544E-1	9.305529E-1	8.948820E-1	8.209116E-1	8.787248E-1	8.639058E-1	9.177760E-1	9.143652E-1	8.542367E-1	8.630637E-1	8.764510E-1	9.476516E-1	8.574418E-1	9.181799E-1	9.603595E-1	8.292444E-1	8.750196E-1	8.551355E-1	9.129648E-1	8.891849E-1	9.081283E-1	8.760605E-1	8.915920E-1	8.543005E-1	9.346116E-1	8.853049E-1	8.741087E-1	9.224023E-1	8.522856E-1	8.469500E-1	8.924498E-1	8.747932E-1	8.390806E-1	8.751623E-1	8.947811E-1	1.038278E+0
5.470110E+2	8.730874E-1	9.176956E-1	8.698552E-1	8.957618E-1	8.790018E-1	8.627147E-1	8.669450E-1	8.678035E-1	8.779878E-1	8.435358E-1	8.936855E-1	9.167152E-1	9.110046E-1	8.357334E-1	8.752495E-1	8.928247E-1	8.756634E-1	8.759216E-1	9.171698E-1	9.016946E-1	8.885434E-1	8.999324E-1	8.347820E-1	8.759120E-1	8.769938E-1	8.848596E-1	8.941509E-1	8.926466E-1	8.540768E-1	8.018258E-1	8.976532E-1	8.913714E-1	8.192180E-1	9.487146E-1	8.772200E-1	9.084934E-1	8.571690E-1	8.667318E-1	9.169398E-1	8.795790E-1	9.023292E-1	8.784245E-1	8.803690E-1	8.436590E-1	9.458157E-1	8.870600E-1	8.963694E-1	8.896514E-1	8.658440E-1	8.321587E-1	8.543806E-1	9.039045E-1	8.856574E-1	8.944559E-1	8.709999E-1	9.056417E-1	9.106269E-1	8.780002E-1	8.834845E-1	8.656657E-1	8.885502E-1	8.894008E-1	8.816854E-1	9.291411E-1	8.469425E-1	9.174258E-1	8.579090E-1	8.179521E-1	9.446720E-1	8.777068E-1	9.295767E-1	9.453912E-1	9.408536E-1	9.371825E-1	8.418964E-1	8.870066E-1	9.020604E-1	8.878275E-1	9.256432E-1	8.715786E-1	8.672545E-1	8.666188E-1	8.995364E-1	8.654008E-1	8.564245E-1	8.834288E-1	9.032668E-1	9.072343E-1	9.001771E-1	8.618134E-1	8.176696E-1	8.869663E-1	8.781886E-1	8.561558E-1	9.172945E-1	8.690988E-1	8.977582E-1	8.682702E-1	8.912965E-1	8.664713E-1	8.812436E-1	8.918761E-1	9.199711E-1	8.810927E-1	8.996830E-1	8.720941E-1	8.877631E-1	8.422118E-1	9.316416E-1	9.239190E-1	8.959506E-1	8.642573E-1	8.920583E-1	8.879824E-1	8.476201E-1	9.104365E-1	8.830454E-1	8.513949E-1	9.098703E-1	9.193509E-1	9.351961E-1	8.822730E-1	8.869324E-1	8.543656E-1	9.033682E-1	8.649449E-1	9.005201E-1	8.644342E-1	8.665443E-1	9.057159E-1	8.968679E-1	8.570487E-1	8.990156E-1	8.148517E-1	8.316540E-1	8.649465E-1	9.217080E-1	8.332790E-1	8.610609E-1	8.616271E-1	9.213493E-1	8.914217E-1	9.019512E-1	9.326722E-1	8.222373E-1	8.528393E-1	8.841629E-1	9.424679E-1	8.569313E-1	8.441946E-1	8.942956E-1	8.427725E-1	8.635408E-1	8.614742E-1	9.007286E-1	9.205475E-1	9.414643E-1	8.697784E-1	8.943990E-1	8.502880E-1	8.967590E-1	8.962269E-1	8.583078E-1	8.105802E-1	1.092439E+0
5.475070E+2	9.365086E-1	9.795254E-1	9.765701E-1	8.865993E-1	9.119976E-1	9.107776E-1	9.224241E-1	8.980447E-1	9.966851E-1	9.465239E-1	9.662210E-1	9.181917E-1	9.259533E-1	9.269831E-1	9.695181E-1	9.625535E-1	8.786606E-1	9.284235E-1	9.403151E-1	9.849907E-1	9.187346E-1	9.634740E-1	9.059239E-1	9.950178E-1	9.574714E-1	9.574497E-1	9.204001E-1	9.303781E-1	9.211100E-1	9.175247E-1	9.379260E-1	9.109117E-1	9.063926E-1	9.914675E-1	8.891473E-1	9.965109E-1	9.376566E-1	9.305025E-1	9.049125E-1	9.354444E-1	9.244323E-1	9.165138E-1	9.466104E-1	9.362693E-1	9.628915E-1	9.513358E-1	9.641927E-1	9.695177E-1	8.834592E-1	8.999381E-1	9.385218E-1	9.395797E-1	8.944419E-1	9.126889E-1	9.463990E-1	9.209431E-1	9.535579E-1	9.595729E-1	9.829818E-1	9.273373E-1	9.329944E-1	9.844616E-1	9.632510E-1	9.440971E-1	9.373734E-1	9.335162E-1	9.067913E-1	9.387816E-1	9.715083E-1	9.237042E-1	9.838051E-1	9.650184E-1	1.011021E+0	9.924983E-1	9.651490E-1	9.834648E-1	9.537430E-1	9.277524E-1	9.643143E-1	9.844498E-1	9.623405E-1	9.642158E-1	9.233140E-1	9.069006E-1	9.333112E-1	9.297034E-1	9.501534E-1	9.240317E-1	9.519646E-1	9.407493E-1	9.143295E-1	9.998878E-1	9.577416E-1	1.002313E+0	9.335572E-1	1.033363E+0	9.361296E-1	9.197995E-1	9.800480E-1	8.779483E-1	9.096283E-1	9.783454E-1	9.353046E-1	9.759355E-1	9.351946E-1	9.519006E-1	9.659800E-1	9.484576E-1	9.631370E-1	9.045812E-1	9.973506E-1	9.763241E-1	9.588916E-1	9.621475E-1	8.982500E-1	9.034536E-1	9.416041E-1	9.165488E-1	9.447580E-1	9.605296E-1	9.225257E-1	9.144557E-1	9.098426E-1	9.085075E-1	9.671082E-1	9.656149E-1	1.009217E+0	9.280226E-1	9.432417E-1	9.407767E-1	9.514915E-1	9.574144E-1	9.175986E-1	9.470752E-1	8.551322E-1	9.042598E-1	9.191499E-1	9.283292E-1	9.288837E-1	9.417799E-1	9.584572E-1	9.329952E-1	9.875859E-1	9.924342E-1	9.706873E-1	1.005598E+0	9.243848E-1	1.009393E+0	9.732699E-1	9.668044E-1	9.620965E-1	9.533279E-1	9.261685E-1	9.368303E-1	9.427618E-1	9.062976E-1	9.824384E-1	9.172640E-1	9.242718E-1	9.711066E-1	9.117435E-1	9.381224E-1	9.314556E-1	9.452624E-1	1.011033E+0
5.480090E+2	9.945753E-1	1.032273E+0	9.667927E-1	1.074184E+0	1.035212E+0	1.035440E+0	9.955869E-1	9.293175E-1	1.018265E+0	1.023668E+0	9.868318E-1	9.869410E-1	9.733160E-1	9.550846E-1	9.876685E-1	1.004697E+0	1.014183E+0	1.012371E+0	9.853996E-1	1.028607E+0	1.030584E+0	1.019025E+0	1.024913E+0	9.764994E-1	1.072474E+0	1.031045E+0	9.768482E-1	1.037499E+0	9.671857E-1	1.004626E+0	1.035154E+0	1.025916E+0	9.958692E-1	1.020363E+0	9.965701E-1	1.015619E+0	9.812949E-1	9.948330E-1	1.019958E+0	9.696716E-1	9.861713E-1	9.873465E-1	9.702711E-1	1.013738E+0	1.009693E+0	1.003258E+0	1.040466E+0	9.688024E-1	9.504076E-1	9.151670E-1	1.056041E+0	9.817512E-1	9.485553E-1	1.022942E+0	1.010262E+0	1.017607E+0	9.887635E-1	9.875728E-1	1.055659E+0	1.011202E+0	9.960583E-1	9.558020E-1	1.052560E+0	9.949831E-1	1.039541E+0	1.072626E+0	9.887434E-1	1.045258E+0	1.031870E+0	9.666155E-1	1.021127E+0	1.001848E+0	1.006269E+0	9.842990E-1	1.027195E+0	1.036648E+0	9.629398E-1	9.975540E-1	1.016773E+0	1.009757E+0	1.013089E+0	1.017980E+0	1.059574E+0	9.570587E-1	9.949539E-1	1.019858E+0	1.021330E+0	9.643937E-1	1.045297E+0	1.051849E+0	9.995717E-1	1.043807E+0	9.721857E-1	9.682487E-1	1.031331E+0	1.058876E+0	1.016153E+0	1.017546E+0	9.991047E-1	9.963460E-1	9.317457E-1	9.871394E-1	9.938676E-1	1.055524E+0	1.006544E+0	9.674146E-1	1.036152E+0	1.042892E+0	9.967402E-1	9.680771E-1	1.087486E+0	1.054811E+0	1.020102E+0	1.006075E+0	9.763764E-1	1.012298E+0	9.667232E-1	9.811955E-1	1.066689E+0	1.032986E+0	9.980896E-1	1.000727E+0	9.803724E-1	1.014077E+0	1.005652E+0	9.686245E-1	9.921863E-1	9.715756E-1	1.016452E+0	9.949416E-1	9.841906E-1	1.090739E+0	1.046325E+0	9.606559E-1	9.912949E-1	9.987636E-1	1.011458E+0	1.023258E+0	9.669640E-1	1.035403E+0	1.012607E+0	9.922204E-1	1.053538E+0	1.014573E+0	1.002586E+0	1.023594E+0	9.461611E-1	1.014369E+0	1.008284E+0	1.001440E+0	9.483911E-1	9.766261E-1	9.660155E-1	9.460866E-1	9.980316E-1	1.056195E+0	1.070757E+0	9.646867E-1	9.922863E-1	1.010876E+0	9.204284E-1	1.070222E+0	9.993523E-1	1.078587E+0	1.187735E+0
5.485450E+2	1.184026E+0	1.180953E+0	1.170117E+0	1.215532E+0	1.168424E+0	1.219048E+0	1.125265E+0	1.171786E+0	1.233953E+0	1.154761E+0	1.177940E+0	1.187766E+0	1.191822E+0	1.166363E+0	1.228306E+0	1.167728E+0	1.185889E+0	1.173157E+0	1.177357E+0	1.181625E+0	1.264864E+0	1.165636E+0	1.218470E+0	1.168634E+0	1.155645E+0	1.173835E+0	1.248715E+0	1.241963E+0	1.154276E+0	1.185963E+0	1.243605E+0	1.187651E+0	1.137033E+0	1.245888E+0	1.173261E+0	1.210385E+0	1.225473E+0	1.249205E+0	1.128751E+0	1.229670E+0	1.136495E+0	1.148853E+0	1.180858E+0	1.164203E+0	1.231485E+0	1.205969E+0	1.240471E+0	1.266763E+0	1.180340E+0	1.140013E+0	1.189598E+0	1.144092E+0	1.139009E+0	1.198658E+0	1.249191E+0	1.218458E+0	1.296395E+0	1.200928E+0	1.217118E+0	1.164324E+0	1.145530E+0	1.169209E+0	1.171685E+0	1.217536E+0	1.141386E+0	1.148202E+0	1.170604E+0	1.231632E+0	1.236249E+0	1.130609E+0	1.245979E+0	1.166080E+0	1.170664E+0	1.161029E+0	1.223153E+0	1.180600E+0	1.185968E+0	1.219545E+0	1.175381E+0	1.217967E+0	1.171235E+0	1.198130E+0	1.202112E+0	1.161369E+0	1.199222E+0	1.165397E+0	1.165136E+0	1.167939E+0	1.235621E+0	1.188330E+0	1.230510E+0	1.207603E+0	1.215878E+0	1.182784E+0	1.170812E+0	1.194334E+0	1.148622E+0	1.197815E+0	1.217083E+0	1.218219E+0	1.175243E+0	1.178702E+0	1.185958E+0	1.141672E+0	1.188165E+0	1.125776E+0	1.143489E+0	1.179209E+0	1.144714E+0	1.206898E+0	1.228411E+0	1.210203E+0	1.200323E+0	1.143031E+0	1.196499E+0	1.203878E+0	1.192741E+0	1.180913E+0	1.219455E+0	1.204031E+0	1.228522E+0	1.101496E+0	1.166046E+0	1.110674E+0	1.215575E+0	1.188250E+0	1.150024E+0	1.229770E+0	1.176724E+0	1.141886E+0	1.237014E+0	1.193535E+0	1.149370E+0	1.193274E+0	1.176473E+0	1.208107E+0	1.170610E+0	1.157942E+0	1.177598E+0	1.123619E+0	1.222905E+0	1.147677E+0	1.159438E+0	1.264841E+0	1.165590E+0	1.232075E+0	1.175560E+0	1.139220E+0	1.178450E+0	1.220447E+0	1.189283E+0	1.228182E+0	1.152896E+0	1.155241E+0	1.163436E+0	1.233731E+0	1.241370E+0	1.158789E+0	1.181445E+0	1.223723E+0	1.188203E+0	1.135358E+0	1.214169E+0	1.266008E+0	1.280822E+0
5.490490E+2	1.512632E+0	1.500860E+0	1.451709E+0	1.410215E+0	1.551249E+0	1.501926E+0	1.487336E+0	1.393675E+0	1.442539E+0	1.500874E+0	1.480048E+0	1.457243E+0	1.438392E+0	1.405813E+0	1.538137E+0	1.470277E+0	1.520275E+0	1.502477E+0	1.460350E+0	1.478674E+0	1.498663E+0	1.457104E+0	1.447889E+0	1.482290E+0	1.511261E+0	1.477811E+0	1.476148E+0	1.469236E+0	1.419203E+0	1.446498E+0	1.489630E+0	1.442737E+0	1.484685E+0	1.526676E+0	1.496179E+0	1.490711E+0	1.468241E+0	1.527669E+0	1.413658E+0	1.445959E+0	1.530018E+0	1.417383E+0	1.488445E+0	1.504409E+0	1.540665E+0	1.495043E+0	1.472068E+0	1.460897E+0	1.432928E+0	1.415417E+0	1.496850E+0	1.490553E+0	1.505784E+0	1.453686E+0	1.479547E+0	1.495416E+0	1.392734E+0	1.424910E+0	1.493791E+0	1.443940E+0	1.466124E+0	1.491592E+0	1.488286E+0	1.471604E+0	1.484303E+0	1.501634E+0	1.449775E+0	1.430605E+0	1.439809E+0	1.431191E+0	1.536236E+0	1.452114E+0	1.437845E+0	1.476969E+0	1.410417E+0	1.507314E+0	1.524945E+0	1.492594E+0	1.543786E+0	1.509170E+0	1.434795E+0	1.448543E+0	1.456044E+0	1.427278E+0	1.482504E+0	1.375146E+0	1.507362E+0	1.498860E+0	1.422401E+0	1.452025E+0	1.403037E+0	1.463859E+0	1.427609E+0	1.375515E+0	1.437222E+0	1.447185E+0	1.495470E+0	1.398948E+0	1.435945E+0	1.418611E+0	1.422162E+0	1.442682E+0	1.408237E+0	1.470499E+0	1.482974E+0	1.424867E+0	1.482367E+0	1.468855E+0	1.486640E+0	1.495253E+0	1.430864E+0	1.455705E+0	1.520308E+0	1.413234E+0	1.448170E+0	1.514311E+0	1.475484E+0	1.440353E+0	1.439946E+0	1.477539E+0	1.459460E+0	1.412189E+0	1.477269E+0	1.477551E+0	1.458911E+0	1.424580E+0	1.481626E+0	1.458567E+0	1.440114E+0	1.506039E+0	1.532868E+0	1.441970E+0	1.484860E+0	1.435798E+0	1.416723E+0	1.407125E+0	1.432947E+0	1.390651E+0	1.416348E+0	1.459852E+0	1.555991E+0	1.377167E+0	1.442136E+0	1.599732E+0	1.421279E+0	1.425306E+0	1.413552E+0	1.485240E+0	1.494583E+0	1.511432E+0	1.420017E+0	1.533788E+0	1.422267E+0	1.423209E+0	1.439361E+0	1.393461E+0	1.483984E+0	1.409952E+0	1.448479E+0	1.525197E+0	1.396711E+0	1.394416E+0	1.398586E+0	1.540472E+0	1.676941E+0
5.495150E+2	1.689138E+0	1.709614E+0	1.603955E+0	1.705618E+0	1.714128E+0	1.787285E+0	1.650077E+0	1.671610E+0	1.742835E+0	1.596059E+0	1.637949E+0	1.672091E+0	1.698064E+0	1.684009E+0	1.667509E+0	1.638856E+0	1.661040E+0	1.675215E+0	1.673410E+0	1.645460E+0	1.631094E+0	1.656024E+0	1.647503E+0	1.631358E+0	1.633346E+0	1.661680E+0	1.670989E+0	1.651982E+0	1.657025E+0	1.672799E+0	1.690570E+0	1.667090E+0	1.555487E+0	1.750102E+0	1.689299E+0	1.617032E+0	1.671977E+0	1.706763E+0	1.557030E+0	1.668011E+0	1.649868E+0	1.650567E+0	1.687491E+0	1.713654E+0	1.776074E+0	1.634057E+0	1.622430E+0	1.641638E+0	1.618521E+0	1.570389E+0	1.565483E+0	1.681149E+0	1.627641E+0	1.665363E+0	1.653663E+0	1.660059E+0	1.731181E+0	1.664166E+0	1.641454E+0	1.633005E+0	1.594273E+0	1.659046E+0	1.645701E+0	1.688999E+0	1.643835E+0	1.678214E+0	1.686511E+0	1.639166E+0	1.669097E+0	1.549091E+0	1.664889E+0	1.697055E+0	1.626802E+0	1.625088E+0	1.683959E+0	1.660048E+0	1.654269E+0	1.662780E+0	1.745032E+0	1.693213E+0	1.587640E+0	1.625982E+0	1.672857E+0	1.588849E+0	1.632642E+0	1.616127E+0	1.686673E+0	1.636090E+0	1.784657E+0	1.622474E+0	1.654005E+0	1.680983E+0	1.660158E+0	1.645226E+0	1.598494E+0	1.674748E+0	1.685557E+0	1.671923E+0	1.706379E+0	1.587816E+0	1.656493E+0	1.650104E+0	1.608903E+0	1.671586E+0	1.678292E+0	1.610932E+0	1.615603E+0	1.644237E+0	1.656663E+0	1.647217E+0	1.645180E+0	1.667899E+0	1.700943E+0	1.621914E+0	1.673733E+0	1.682273E+0	1.691344E+0	1.556921E+0	1.631897E+0	1.694558E+0	1.696809E+0	1.617363E+0	1.678078E+0	1.684240E+0	1.672574E+0	1.643868E+0	1.643133E+0	1.609253E+0	1.700496E+0	1.635417E+0	1.667541E+0	1.648639E+0	1.626231E+0	1.570126E+0	1.561266E+0	1.613837E+0	1.677743E+0	1.617950E+0	1.576803E+0	1.588487E+0	1.712095E+0	1.590131E+0	1.690002E+0	1.708655E+0	1.594836E+0	1.665976E+0	1.589224E+0	1.640845E+0	1.656613E+0	1.701217E+0	1.572669E+0	1.686643E+0	1.597612E+0	1.613888E+0	1.642661E+0	1.692403E+0	1.720098E+0	1.672007E+0	1.623219E+0	1.600118E+0	1.604685E+0	1.695100E+0	1.679418E+0	1.696171E+0	1.867537E+0
5.500160E+2	1.553680E+0	1.416039E+0	1.395722E+0	1.486052E+0	1.483150E+0	1.498345E+0	1.511335E+0	1.495878E+0	1.531888E+0	1.430915E+0	1.425329E+0	1.456047E+0	1.512489E+0	1.423341E+0	1.534556E+0	1.454375E+0	1.437555E+0	1.442480E+0	1.477672E+0	1.548514E+0	1.486350E+0	1.448162E+0	1.478843E+0	1.486491E+0	1.499924E+0	1.497987E+0	1.481404E+0	1.520036E+0	1.508990E+0	1.459814E+0	1.515597E+0	1.507325E+0	1.458084E+0	1.532772E+0	1.470696E+0	1.455068E+0	1.531359E+0	1.524833E+0	1.452072E+0	1.396961E+0	1.471611E+0	1.442349E+0	1.549074E+0	1.485332E+0	1.517944E+0	1.508914E+0	1.513043E+0	1.498014E+0	1.440737E+0	1.409223E+0	1.473933E+0	1.462335E+0	1.425965E+0	1.469278E+0	1.507913E+0	1.521501E+0	1.524847E+0	1.530356E+0	1.479420E+0	1.503168E+0	1.479098E+0	1.474010E+0	1.464444E+0	1.453502E+0	1.511979E+0	1.521510E+0	1.478997E+0	1.453709E+0	1.589991E+0	1.394776E+0	1.518367E+0	1.530565E+0	1.512434E+0	1.487616E+0	1.463622E+0	1.514271E+0	1.573696E+0	1.492635E+0	1.539384E+0	1.579006E+0	1.508926E+0	1.479149E+0	1.442655E+0	1.457742E+0	1.503096E+0	1.412439E+0	1.506247E+0	1.427587E+0	1.535129E+0	1.509431E+0	1.514013E+0	1.594643E+0	1.465970E+0	1.432177E+0	1.476376E+0	1.464418E+0	1.487072E+0	1.438576E+0	1.479473E+0	1.464328E+0	1.488508E+0	1.552657E+0	1.467788E+0	1.493619E+0	1.519136E+0	1.481927E+0	1.442025E+0	1.445120E+0	1.471172E+0	1.480005E+0	1.435645E+0	1.491201E+0	1.475250E+0	1.426323E+0	1.404155E+0	1.474631E+0	1.505873E+0	1.384663E+0	1.455445E+0	1.611227E+0	1.527689E+0	1.452156E+0	1.403831E+0	1.451822E+0	1.467954E+0	1.427427E+0	1.565051E+0	1.426507E+0	1.397890E+0	1.477135E+0	1.513926E+0	1.429833E+0	1.457752E+0	1.511134E+0	1.425997E+0	1.455739E+0	1.492775E+0	1.524901E+0	1.396875E+0	1.489687E+0	1.494814E+0	1.427790E+0	1.452968E+0	1.482794E+0	1.423105E+0	1.474890E+0	1.489907E+0	1.458107E+0	1.455510E+0	1.514811E+0	1.497172E+0	1.456957E+0	1.453836E+0	1.528054E+0	1.430512E+0	1.440635E+0	1.557065E+0	1.430116E+0	1.498621E+0	1.472690E+0	1.439140E+0	1.498537E+0	1.459280E+0	1.441242E+0	1.586051E+0
5.505060E+2	1.521745E+0	1.519500E+0	1.428849E+0	1.552128E+0	1.475108E+0	1.483460E+0	1.493139E+0	1.412095E+0	1.429623E+0	1.520173E+0	1.471130E+0	1.482303E+0	1.463898E+0	1.410332E+0	1.505211E+0	1.528856E+0	1.442848E+0	1.537872E+0	1.501039E+0	1.429412E+0	1.459521E+0	1.531441E+0	1.455680E+0	1.484795E+0	1.475390E+0	1.456394E+0	1.496925E+0	1.384549E+0	1.453885E+0	1.425836E+0	1.478020E+0	1.423827E+0	1.418115E+0	1.399114E+0	1.422456E+0	1.459090E+0	1.443306E+0	1.497495E+0	1.442454E+0	1.431856E+0	1.437674E+0	1.496780E+0	1.467688E+0	1.464680E+0	1.525693E+0	1.473905E+0	1.462638E+0	1.443593E+0	1.450390E+0	1.423191E+0	1.432943E+0	1.497431E+0	1.397001E+0	1.466844E+0	1.451556E+0	1.507612E+0	1.570840E+0	1.405430E+0	1.476703E+0	1.453070E+0	1.459149E+0	1.459308E+0	1.463449E+0	1.481108E+0	1.502862E+0	1.471843E+0	1.448390E+0	1.442738E+0	1.585055E+0	1.476328E+0	1.471023E+0	1.514584E+0	1.516987E+0	1.422199E+0	1.458051E+0	1.443810E+0	1.551969E+0	1.437630E+0	1.481627E+0	1.441496E+0	1.480258E+0	1.446414E+0	1.491972E+0	1.409566E+0	1.477493E+0	1.501692E+0	1.470222E+0	1.500363E+0	1.517179E+0	1.452086E+0	1.443214E+0	1.468539E+0	1.447628E+0	1.425780E+0	1.488191E+0	1.464463E+0	1.428712E+0	1.422832E+0	1.499131E+0	1.505976E+0	1.370668E+0	1.518382E+0	1.392208E+0	1.479128E+0	1.479951E+0	1.506026E+0	1.429722E+0	1.502722E+0	1.487428E+0	1.453698E+0	1.464687E+0	1.509930E+0	1.436146E+0	1.494246E+0	1.417454E+0	1.447818E+0	1.434560E+0	1.446343E+0	1.492905E+0	1.452186E+0	1.547223E+0	1.437796E+0	1.461811E+0	1.439268E+0	1.494975E+0	1.460597E+0	1.423061E+0	1.377772E+0	1.447135E+0	1.465010E+0	1.471954E+0	1.471707E+0	1.492290E+0	1.428602E+0	1.389161E+0	1.475383E+0	1.435182E+0	1.431074E+0	1.394338E+0	1.431362E+0	1.475638E+0	1.421061E+0	1.453320E+0	1.543738E+0	1.480417E+0	1.467430E+0	1.458671E+0	1.380541E+0	1.427827E+0	1.464075E+0	1.484893E+0	1.400378E+0	1.432039E+0	1.430055E+0	1.448123E+0	1.421286E+0	1.457965E+0	1.455255E+0	1.532640E+0	1.473588E+0	1.473516E+0	1.477844E+0	1.486249E+0	1.491334E+0	1.636452E+0
5.510140E+2	1.218859E+0	1.175762E+0	1.132812E+0	1.193265E+0	1.237028E+0	1.150550E+0	1.216259E+0	1.178633E+0	1.202495E+0	1.150980E+0	1.196628E+0	1.180190E+0	1.253637E+0	1.191350E+0	1.212798E+0	1.209056E+0	1.212610E+0	1.200029E+0	1.176192E+0	1.191142E+0	1.207746E+0	1.182594E+0	1.172028E+0	1.178348E+0	1.194159E+0	1.230506E+0	1.170622E+0	1.230795E+0	1.169362E+0	1.157507E+0	1.193380E+0	1.168557E+0	1.162422E+0	1.223994E+0	1.168553E+0	1.164205E+0	1.211041E+0	1.218007E+0	1.222948E+0	1.204750E+0	1.204013E+0	1.151406E+0	1.192242E+0	1.210719E+0	1.201150E+0	1.190581E+0	1.227627E+0	1.146142E+0	1.127015E+0	1.165820E+0	1.208199E+0	1.155813E+0	1.188216E+0	1.164487E+0	1.187663E+0	1.187970E+0	1.226408E+0	1.090606E+0	1.255291E+0	1.152091E+0	1.180543E+0	1.203453E+0	1.192115E+0	1.148074E+0	1.204032E+0	1.173506E+0	1.198326E+0	1.185065E+0	1.211989E+0	1.156894E+0	1.219544E+0	1.182549E+0	1.249341E+0	1.146243E+0	1.207802E+0	1.259471E+0	1.192101E+0	1.169733E+0	1.221132E+0	1.282629E+0	1.170443E+0	1.139041E+0	1.165224E+0	1.097925E+0	1.176715E+0	1.153599E+0	1.293054E+0	1.158045E+0	1.251137E+0	1.179419E+0	1.162767E+0	1.155903E+0	1.158417E+0	1.218439E+0	1.228468E+0	1.219383E+0	1.200382E+0	1.172442E+0	1.215001E+0	1.164894E+0	1.264237E+0	1.233386E+0	1.180703E+0	1.157796E+0	1.246361E+0	1.119864E+0	1.204737E+0	1.144154E+0	1.190282E+0	1.132507E+0	1.248072E+0	1.170517E+0	1.247689E+0	1.209605E+0	1.251354E+0	1.185134E+0	1.155630E+0	1.166304E+0	1.231037E+0	1.197859E+0	1.254429E+0	1.162157E+0	1.259127E+0	1.166254E+0	1.189936E+0	1.183066E+0	1.185704E+0	1.178786E+0	1.273555E+0	1.240674E+0	1.217464E+0	1.181122E+0	1.191385E+0	1.154158E+0	1.238973E+0	1.148147E+0	1.195024E+0	1.112687E+0	1.124858E+0	1.219039E+0	1.228291E+0	1.169992E+0	1.168199E+0	1.230568E+0	1.178896E+0	1.119820E+0	1.171066E+0	1.214298E+0	1.198580E+0	1.256000E+0	1.155204E+0	1.249397E+0	1.178527E+0	1.224169E+0	1.218560E+0	1.204110E+0	1.220986E+0	1.205002E+0	1.197000E+0	1.186428E+0	1.103113E+0	1.126001E+0	1.101309E+0	1.238415E+0	1.276786E+0
5.515000E+2	9.777711E-1	1.011148E+0	1.022283E+0	1.070084E+0	1.024504E+0	1.047912E+0	1.029395E+0	9.731519E-1	9.591960E-1	1.003363E+0	9.732928E-1	9.443266E-1	9.954875E-1	9.733998E-1	1.013637E+0	9.639712E-1	1.082707E+0	9.930292E-1	1.019353E+0	9.714863E-1	1.071795E+0	1.022191E+0	9.777684E-1	9.691650E-1	9.472042E-1	9.464726E-1	1.011065E+0	9.985964E-1	9.910376E-1	1.011178E+0	1.028857E+0	9.748479E-1	1.020370E+0	1.078122E+0	9.929279E-1	9.730827E-1	9.913663E-1	1.041271E+0	9.698454E-1	1.025574E+0	9.522681E-1	9.991792E-1	1.031703E+0	1.026660E+0	9.665843E-1	9.929023E-1	1.034627E+0	9.508260E-1	9.841275E-1	9.762515E-1	9.855778E-1	9.497245E-1	9.774493E-1	1.009347E+0	9.917544E-1	1.012520E+0	1.072009E+0	1.013695E+0	9.953379E-1	9.906305E-1	9.950047E-1	9.848001E-1	1.021461E+0	1.023380E+0	1.012632E+0	1.031006E+0	9.734929E-1	9.875205E-1	1.031781E+0	9.879700E-1	1.017080E+0	1.068581E+0	1.051857E+0	9.679274E-1	9.788261E-1	9.901644E-1	1.049501E+0	1.029872E+0	1.005377E+0	1.058284E+0	1.011343E+0	1.002814E+0	1.071790E+0	1.018181E+0	1.028330E+0	9.873916E-1	1.047072E+0	1.007982E+0	1.045755E+0	9.887216E-1	9.845568E-1	9.765887E-1	1.002453E+0	1.005465E+0	1.016983E+0	1.003562E+0	1.004100E+0	1.035474E+0	9.860232E-1	1.019420E+0	1.009234E+0	9.947630E-1	1.036945E+0	1.011092E+0	1.042919E+0	9.784212E-1	1.007112E+0	9.837165E-1	9.552634E-1	9.972671E-1	1.051109E+0	1.011666E+0	9.942318E-1	1.025626E+0	9.964077E-1	9.815231E-1	9.549924E-1	9.966893E-1	1.015182E+0	1.025704E+0	9.971208E-1	9.516032E-1	1.005784E+0	1.042315E+0	1.054485E+0	9.499805E-1	9.941259E-1	1.007162E+0	1.061271E+0	1.020716E+0	1.052560E+0	9.788307E-1	9.892669E-1	1.008925E+0	9.609981E-1	9.573187E-1	9.664115E-1	1.004977E+0	9.965157E-1	1.016314E+0	1.013285E+0	1.007528E+0	1.051150E+0	1.032426E+0	1.011311E+0	1.010555E+0	9.034591E-1	1.021693E+0	1.038961E+0	9.931068E-1	9.521049E-1	9.668385E-1	1.025474E+0	9.667768E-1	1.003546E+0	1.047311E+0	1.013384E+0	9.906189E-1	1.078156E+0	9.868395E-1	1.008860E+0	9.936681E-1	9.991533E-1	1.164191E+0	1.218421E+0
5.520100E+2	9.947734E-1	9.551437E-1	9.874792E-1	1.025020E+0	1.021117E+0	1.035341E+0	1.052435E+0	9.646782E-1	9.621762E-1	9.743207E-1	9.979524E-1	1.010792E+0	1.011269E+0	9.385274E-1	1.021438E+0	1.001010E+0	9.833216E-1	9.487417E-1	9.163701E-1	9.638473E-1	9.941052E-1	9.789314E-1	9.663248E-1	9.330167E-1	1.006399E+0	1.036823E+0	9.735086E-1	9.932392E-1	9.594668E-1	9.904346E-1	1.010877E+0	9.559302E-1	9.863612E-1	9.448053E-1	9.526385E-1	9.839125E-1	9.720082E-1	9.892275E-1	9.207826E-1	9.870860E-1	9.843073E-1	9.692814E-1	1.021446E+0	1.006057E+0	1.040146E+0	9.849760E-1	1.019208E+0	9.906566E-1	9.379472E-1	9.448175E-1	9.817956E-1	9.961499E-1	9.877432E-1	9.565170E-1	9.991145E-1	1.024717E+0	1.062282E+0	9.762949E-1	9.780993E-1	9.420299E-1	9.673354E-1	9.871622E-1	9.710641E-1	9.370683E-1	9.787470E-1	9.961069E-1	1.038271E+0	9.060224E-1	1.027645E+0	9.092805E-1	1.064985E+0	9.880522E-1	9.760672E-1	9.966462E-1	9.643705E-1	1.015602E+0	1.045148E+0	9.801591E-1	9.615373E-1	9.895225E-1	9.296128E-1	1.015130E+0	1.000049E+0	9.643842E-1	9.801664E-1	9.509399E-1	1.015478E+0	9.661286E-1	9.793295E-1	9.709217E-1	9.313765E-1	1.002828E+0	9.308606E-1	9.585771E-1	1.007120E+0	9.857543E-1	9.548154E-1	9.055588E-1	1.020104E+0	9.179567E-1	1.009501E+0	1.009427E+0	9.961865E-1	9.960748E-1	1.019718E+0	9.851215E-1	9.541985E-1	9.815402E-1	9.806594E-1	1.025503E+0	9.495686E-1	1.010702E+0	1.037881E+0	9.677496E-1	1.005675E+0	9.731785E-1	1.003887E+0	9.758950E-1	9.972257E-1	9.603984E-1	9.561960E-1	9.421790E-1	9.551992E-1	1.000237E+0	1.012275E+0	9.770334E-1	9.868546E-1	9.304023E-1	9.954175E-1	9.576289E-1	1.019267E+0	1.003056E+0	9.238258E-1	9.324170E-1	9.312065E-1	9.963109E-1	1.008100E+0	9.386167E-1	9.284437E-1	9.740601E-1	1.027671E+0	9.330613E-1	1.020057E+0	1.038516E+0	9.729886E-1	9.687249E-1	9.657270E-1	1.000133E+0	1.003301E+0	9.735161E-1	9.286542E-1	1.031720E+0	1.006596E+0	1.029171E+0	9.789950E-1	1.009367E+0	1.019467E+0	9.694092E-1	9.696376E-1	9.749486E-1	9.396932E-1	9.675217E-1	9.156382E-1	9.225813E-1	9.998148E-1
5.525090E+2	1.062391E+0	1.054952E+0	1.049389E+0	1.024797E+0	1.055138E+0	1.104556E+0	1.073801E+0	1.004972E+0	1.059139E+0	1.027951E+0	1.017320E+0	1.024809E+0	9.795335E-1	1.035129E+0	1.064872E+0	1.017566E+0	1.060039E+0	1.044868E+0	1.074061E+0	1.041032E+0	1.044943E+0	1.145042E+0	1.042299E+0	1.095736E+0	1.051003E+0	1.031276E+0	1.052544E+0	1.073831E+0	1.086018E+0	1.025608E+0	1.096545E+0	1.087654E+0	1.038097E+0	1.098508E+0	1.067411E+0	1.044183E+0	1.088560E+0	1.092339E+0	1.038283E+0	1.009036E+0	1.072866E+0	1.033504E+0	1.067771E+0	1.054133E+0	1.111414E+0	1.048207E+0	1.028070E+0	1.103162E+0	1.050366E+0	1.007032E+0	1.033640E+0	1.113423E+0	9.984134E-1	1.055148E+0	1.064778E+0	1.030949E+0	1.047659E+0	9.794955E-1	1.009684E+0	1.049380E+0	1.011858E+0	1.037805E+0	1.073213E+0	1.032223E+0	1.055342E+0	1.103675E+0	1.033746E+0	1.023602E+0	1.074773E+0	1.045712E+0	1.066111E+0	1.066045E+0	1.121448E+0	1.095490E+0	1.082879E+0	1.112417E+0	1.092839E+0	1.065810E+0	1.078828E+0	1.096848E+0	1.022557E+0	1.044879E+0	1.058457E+0	1.104221E+0	1.055309E+0	1.101533E+0	1.125962E+0	1.038141E+0	1.061960E+0	1.038707E+0	1.039993E+0	1.043254E+0	1.041056E+0	1.108127E+0	1.070627E+0	1.078045E+0	1.019023E+0	1.058704E+0	1.075726E+0	1.070098E+0	1.039511E+0	1.050886E+0	1.054746E+0	9.912586E-1	1.078000E+0	1.047711E+0	1.025919E+0	1.057426E+0	9.935891E-1	1.053142E+0	1.113906E+0	1.044902E+0	1.050724E+0	1.021761E+0	1.091013E+0	1.076961E+0	1.070918E+0	9.858505E-1	1.012521E+0	1.060726E+0	1.057949E+0	1.016868E+0	1.024544E+0	1.054869E+0	1.046469E+0	1.027922E+0	1.051325E+0	1.004774E+0	1.029079E+0	1.041016E+0	1.039767E+0	1.034392E+0	1.075321E+0	1.040544E+0	1.049620E+0	1.037666E+0	1.022897E+0	1.031642E+0	9.748411E-1	9.994375E-1	1.085705E+0	1.021506E+0	1.058612E+0	1.114514E+0	1.027524E+0	1.050929E+0	1.007017E+0	1.089282E+0	1.103728E+0	1.110646E+0	1.031257E+0	1.073560E+0	1.047410E+0	1.054774E+0	1.073738E+0	1.025065E+0	1.082272E+0	1.062623E+0	1.033099E+0	1.024452E+0	1.014986E+0	1.024053E+0	1.013308E+0	1.021912E+0	1.391134E+0
5.530150E+2	9.959856E-1	1.009775E+0	9.447878E-1	9.509305E-1	1.000498E+0	1.051034E+0	9.819206E-1	9.787300E-1	9.815648E-1	9.693128E-1	9.826753E-1	9.979589E-1	1.006866E+0	9.590185E-1	1.015933E+0	9.680061E-1	9.618591E-1	1.009124E+0	1.015541E+0	1.022148E+0	1.034035E+0	1.034600E+0	1.008735E+0	9.546058E-1	1.058489E+0	9.748192E-1	9.487014E-1	1.063521E+0	9.552311E-1	9.282669E-1	1.025987E+0	1.019605E+0	9.800363E-1	1.026284E+0	9.694553E-1	9.762034E-1	9.506777E-1	1.026247E+0	9.968943E-1	9.785432E-1	9.786690E-1	9.067118E-1	9.169892E-1	1.029220E+0	9.878316E-1	1.001649E+0	9.742912E-1	9.667028E-1	9.926942E-1	9.813694E-1	1.032071E+0	9.885694E-1	9.911595E-1	9.780241E-1	1.020381E+0	9.866850E-1	9.840648E-1	9.691635E-1	9.905718E-1	9.359873E-1	9.468664E-1	1.016981E+0	9.805467E-1	9.754301E-1	1.038531E+0	9.795260E-1	9.745877E-1	9.963552E-1	1.009799E+0	9.683787E-1	9.817327E-1	1.060666E+0	9.766206E-1	9.754688E-1	1.022074E+0	1.000168E+0	1.011505E+0	9.895209E-1	1.032376E+0	9.883367E-1	9.914240E-1	1.040226E+0	1.033596E+0	9.391403E-1	9.679472E-1	9.239301E-1	1.033257E+0	9.796934E-1	9.823671E-1	9.649631E-1	9.774972E-1	9.408202E-1	9.410938E-1	9.643690E-1	1.046640E+0	1.042657E+0	1.027225E+0	9.647800E-1	9.795281E-1	9.708298E-1	1.009797E+0	9.907250E-1	9.653689E-1	9.176312E-1	1.038823E+0	1.001689E+0	1.013129E+0	9.430589E-1	9.784048E-1	9.927448E-1	9.905615E-1	1.012498E+0	9.630002E-1	9.563639E-1	9.741052E-1	1.001228E+0	9.864610E-1	9.918055E-1	1.019163E+0	1.006769E+0	9.606620E-1	1.018255E+0	9.957010E-1	9.760009E-1	1.020487E+0	9.937301E-1	1.014711E+0	9.314907E-1	1.029490E+0	9.538081E-1	1.013177E+0	9.525702E-1	9.741151E-1	9.585844E-1	9.603056E-1	9.564455E-1	1.032314E+0	9.824345E-1	1.006809E+0	9.665503E-1	9.742859E-1	9.441051E-1	1.059432E+0	1.035374E+0	9.537781E-1	1.010719E+0	9.693878E-1	1.038507E+0	1.017867E+0	1.029422E+0	9.556782E-1	1.013906E+0	9.793347E-1	1.002041E+0	1.010796E+0	1.039497E+0	1.033599E+0	9.530336E-1	9.470654E-1	9.356063E-1	9.803903E-1	1.002090E+0	9.618461E-1	1.029939E+0	9.447258E-1
5.534770E+2	9.718702E-1	9.533055E-1	9.585184E-1	9.621840E-1	9.439168E-1	9.513040E-1	9.469875E-1	8.858922E-1	8.885349E-1	9.080199E-1	9.712780E-1	9.412707E-1	9.512360E-1	8.707458E-1	9.437237E-1	9.673449E-1	9.390772E-1	9.819917E-1	9.324408E-1	9.573864E-1	9.606722E-1	9.441838E-1	8.938588E-1	9.265590E-1	9.094551E-1	9.539940E-1	9.690813E-1	9.916006E-1	9.406976E-1	9.551709E-1	9.605215E-1	9.500516E-1	9.305485E-1	9.746406E-1	9.366671E-1	9.424160E-1	9.655424E-1	9.662095E-1	9.085160E-1	9.196877E-1	9.569130E-1	9.593685E-1	9.318260E-1	9.884356E-1	9.539288E-1	8.977573E-1	9.901439E-1	9.517866E-1	9.224066E-1	9.845514E-1	9.614301E-1	9.437422E-1	9.347356E-1	9.546095E-1	9.360919E-1	9.516027E-1	9.956218E-1	8.831019E-1	9.676071E-1	9.143900E-1	8.916124E-1	9.628674E-1	9.764002E-1	9.183534E-1	9.815206E-1	9.614483E-1	9.109405E-1	9.146114E-1	9.156382E-1	9.173933E-1	1.030732E+0	9.579260E-1	9.664297E-1	9.604059E-1	8.924640E-1	9.203834E-1	9.578960E-1	9.832698E-1	9.449775E-1	9.581214E-1	9.621718E-1	8.891858E-1	9.624102E-1	9.116477E-1	9.398861E-1	9.345001E-1	1.021016E+0	9.205156E-1	9.749593E-1	9.424077E-1	9.617400E-1	9.159358E-1	9.497671E-1	9.391898E-1	9.350865E-1	9.765730E-1	9.098195E-1	9.812605E-1	9.575618E-1	9.382598E-1	9.362319E-1	9.839367E-1	9.224310E-1	9.285976E-1	9.196641E-1	9.427643E-1	9.595070E-1	9.937094E-1	9.374969E-1	9.286085E-1	9.393931E-1	9.307182E-1	9.834578E-1	9.535665E-1	9.587258E-1	9.609398E-1	9.365795E-1	9.635162E-1	9.656497E-1	9.427638E-1	9.644282E-1	9.025559E-1	9.543470E-1	8.832348E-1	9.385111E-1	9.212878E-1	1.022088E+0	9.790811E-1	9.094980E-1	9.300953E-1	9.567151E-1	9.744117E-1	8.968119E-1	9.114814E-1	9.021371E-1	9.133309E-1	9.458160E-1	9.118922E-1	9.363601E-1	9.860895E-1	9.496215E-1	9.298053E-1	9.376421E-1	1.014267E+0	9.325947E-1	9.175666E-1	9.319070E-1	9.365724E-1	9.156452E-1	1.010286E+0	9.200383E-1	9.734169E-1	9.177204E-1	9.868313E-1	9.357143E-1	9.291198E-1	9.839771E-1	9.565894E-1	9.229026E-1	9.835296E-1	8.767309E-1	9.511341E-1	8.926505E-1	9.652129E-1	1.018215E+0
5.540290E+2	8.562656E-1	9.113061E-1	9.057347E-1	8.608653E-1	8.543277E-1	9.565884E-1	9.271454E-1	9.396002E-1	9.336642E-1	9.480416E-1	9.229059E-1	8.744911E-1	9.286918E-1	9.417938E-1	9.338400E-1	9.418164E-1	8.831358E-1	9.173426E-1	9.124996E-1	9.508447E-1	9.030583E-1	9.424950E-1	9.001332E-1	8.560401E-1	9.404822E-1	9.526680E-1	9.197122E-1	9.197732E-1	9.052789E-1	9.198892E-1	8.599218E-1	8.816956E-1	9.036822E-1	9.738926E-1	9.303228E-1	9.094085E-1	9.238358E-1	9.479813E-1	8.485862E-1	9.258729E-1	9.238503E-1	9.165391E-1	9.585476E-1	8.907877E-1	9.598171E-1	9.002470E-1	8.993094E-1	9.593392E-1	8.780718E-1	9.268506E-1	9.004510E-1	8.419266E-1	8.612439E-1	8.710834E-1	9.405227E-1	9.386931E-1	9.043655E-1	9.047568E-1	9.223118E-1	8.727289E-1	8.855289E-1	8.942692E-1	9.130442E-1	9.142715E-1	9.204601E-1	9.551591E-1	9.317045E-1	9.500389E-1	8.976156E-1	9.194543E-1	9.409025E-1	9.231527E-1	9.059199E-1	8.906356E-1	9.034807E-1	9.414958E-1	8.906195E-1	8.600572E-1	9.304997E-1	9.364760E-1	8.665408E-1	8.838077E-1	9.084601E-1	9.070383E-1	8.968326E-1	9.243185E-1	9.125517E-1	9.294746E-1	8.917688E-1	9.079579E-1	9.364380E-1	8.947443E-1	9.072740E-1	9.581098E-1	9.313116E-1	9.267404E-1	9.468690E-1	9.052715E-1	9.059076E-1	9.198918E-1	8.985644E-1	9.454916E-1	9.194180E-1	9.499554E-1	8.918296E-1	9.099415E-1	9.910636E-1	9.428878E-1	8.866464E-1	9.273888E-1	9.093335E-1	9.347053E-1	9.304260E-1	8.956136E-1	8.877289E-1	8.939944E-1	9.071208E-1	8.879848E-1	9.662018E-1	9.262548E-1	9.247685E-1	9.444686E-1	9.296593E-1	9.305420E-1	9.369175E-1	8.560060E-1	9.295102E-1	9.585796E-1	9.170471E-1	9.178544E-1	9.075555E-1	9.354988E-1	8.827697E-1	9.279501E-1	9.200839E-1	8.928224E-1	9.278261E-1	8.543016E-1	8.702152E-1	8.895604E-1	8.883914E-1	9.284784E-1	8.764960E-1	9.028240E-1	9.111943E-1	9.207986E-1	8.961731E-1	9.059207E-1	9.085304E-1	9.141722E-1	8.982753E-1	8.883465E-1	9.194851E-1	9.275085E-1	9.039659E-1	9.449700E-1	9.171139E-1	9.344806E-1	8.988713E-1	8.903142E-1	9.304096E-1	8.765159E-1	8.438122E-1	9.131394E-1	8.646068E-1
5.550140E+2	9.374621E-1	9.470261E-1	9.104123E-1	9.790578E-1	9.344951E-1	9.389831E-1	9.285474E-1	9.371624E-1	9.185374E-1	9.045941E-1	8.966540E-1	9.160249E-1	9.364745E-1	8.881764E-1	9.366842E-1	9.557576E-1	9.624169E-1	9.106347E-1	9.447376E-1	9.659575E-1	9.859607E-1	9.760328E-1	9.597692E-1	9.143357E-1	8.939561E-1	9.609328E-1	8.967306E-1	9.387883E-1	9.494136E-1	8.959435E-1	9.936091E-1	9.542190E-1	9.539342E-1	9.586282E-1	9.346849E-1	9.918763E-1	9.425383E-1	9.640714E-1	9.454447E-1	9.315464E-1	9.255585E-1	8.769683E-1	9.397354E-1	9.765113E-1	9.277466E-1	9.817864E-1	9.622327E-1	9.235990E-1	9.734230E-1	8.866167E-1	9.923213E-1	9.129886E-1	9.354225E-1	9.504504E-1	9.349430E-1	9.202196E-1	9.752640E-1	9.669048E-1	9.139285E-1	9.437407E-1	9.756011E-1	9.048127E-1	9.214703E-1	9.324763E-1	9.732968E-1	9.056379E-1	8.973844E-1	9.289308E-1	9.011829E-1	9.794325E-1	8.928790E-1	9.629264E-1	9.370315E-1	9.205266E-1	9.161510E-1	9.420251E-1	9.280608E-1	9.337448E-1	9.675710E-1	9.268177E-1	9.423543E-1	9.936263E-1	9.482093E-1	9.176819E-1	9.598726E-1	9.525996E-1	9.009714E-1	9.208845E-1	9.652553E-1	9.379236E-1	9.250636E-1	9.324020E-1	9.320038E-1	9.636222E-1	9.198247E-1	9.474541E-1	9.636836E-1	9.015490E-1	9.857243E-1	8.952813E-1	9.128556E-1	9.145803E-1	9.578029E-1	9.208320E-1	9.058010E-1	9.699627E-1	9.120012E-1	8.987741E-1	9.013041E-1	9.522415E-1	8.931161E-1	9.921527E-1	8.780527E-1	9.406121E-1	9.406837E-1	9.159956E-1	9.436554E-1	8.762580E-1	9.230784E-1	9.031261E-1	9.379563E-1	9.480482E-1	9.708945E-1	8.817825E-1	9.394578E-1	9.241820E-1	9.176422E-1	9.752819E-1	9.139943E-1	9.389734E-1	9.567945E-1	9.306996E-1	9.398366E-1	9.240008E-1	9.262826E-1	9.420940E-1	9.536710E-1	9.294275E-1	9.799167E-1	9.494009E-1	9.413436E-1	8.929003E-1	9.372354E-1	9.196118E-1	9.676966E-1	9.376306E-1	9.524828E-1	9.114417E-1	9.382184E-1	9.052877E-1	9.474201E-1	9.764677E-1	8.991203E-1	9.281441E-1	9.318960E-1	9.739380E-1	9.776156E-1	9.511469E-1	9.301964E-1	9.051352E-1	9.224100E-1	8.997625E-1	8.842733E-1	8.903223E-1	9.535774E-1
5.560410E+2	1.024683E+0	1.006915E+0	1.020684E+0	9.679495E-1	9.929100E-1	1.036758E+0	1.023726E+0	9.894192E-1	1.033844E+0	1.025851E+0	9.972608E-1	1.013387E+0	9.989236E-1	1.028901E+0	9.679754E-1	9.931668E-1	1.026908E+0	9.837568E-1	9.860308E-1	1.004042E+0	1.005349E+0	1.036620E+0	1.001670E+0	1.026831E+0	9.962122E-1	1.026173E+0	1.030262E+0	1.049969E+0	9.959295E-1	1.049522E+0	9.974935E-1	1.036503E+0	1.013284E+0	1.034306E+0	1.003819E+0	9.900651E-1	1.035271E+0	1.012658E+0	9.967170E-1	9.561300E-1	1.018198E+0	1.033434E+0	1.016274E+0	1.012597E+0	1.084089E+0	9.730804E-1	9.924393E-1	9.716677E-1	1.046471E+0	9.806943E-1	1.017889E+0	1.062540E+0	9.637910E-1	9.728722E-1	1.008465E+0	1.023657E+0	1.044307E+0	1.037504E+0	1.043824E+0	1.038168E+0	9.793079E-1	9.998290E-1	9.892449E-1	9.763779E-1	9.969899E-1	1.044202E+0	1.035345E+0	9.972178E-1	9.865539E-1	1.005351E+0	1.040221E+0	9.972734E-1	9.927445E-1	1.010983E+0	1.022221E+0	1.055339E+0	1.034711E+0	9.549612E-1	1.075846E+0	1.030173E+0	1.035337E+0	9.934077E-1	9.798964E-1	1.021250E+0	1.032237E+0	1.004825E+0	1.062663E+0	1.046408E+0	9.867488E-1	1.053480E+0	1.056660E+0	1.011920E+0	1.005604E+0	1.018771E+0	9.837386E-1	1.021779E+0	9.809030E-1	9.867599E-1	1.029737E+0	1.040349E+0	1.011079E+0	1.009663E+0	9.775262E-1	1.030957E+0	1.025658E+0	1.003425E+0	1.014259E+0	1.041767E+0	1.036704E+0	9.572155E-1	1.008141E+0	1.043119E+0	9.796441E-1	1.002105E+0	1.019364E+0	1.019494E+0	1.002877E+0	1.041252E+0	1.070014E+0	1.012080E+0	9.709893E-1	9.684525E-1	9.915560E-1	1.050768E+0	9.681458E-1	9.756126E-1	9.962259E-1	1.039453E+0	1.032804E+0	1.042459E+0	1.011697E+0	1.033783E+0	1.021549E+0	1.088371E+0	1.017241E+0	1.000750E+0	1.011967E+0	1.012280E+0	9.620101E-1	1.012410E+0	9.987818E-1	1.035715E+0	1.021361E+0	1.033142E+0	9.985429E-1	9.863334E-1	1.012602E+0	1.001735E+0	1.035354E+0	1.094195E+0	1.027832E+0	1.027627E+0	1.011258E+0	1.061207E+0	1.059842E+0	9.744521E-1	9.785698E-1	9.780158E-1	9.917682E-1	9.805818E-1	9.760859E-1	9.695043E-1	1.083992E+0	9.606068E-1	9.492010E-1
5.570330E+2	1.060023E+0	1.023209E+0	1.074747E+0	1.080090E+0	1.117031E+0	1.027136E+0	1.008369E+0	1.025784E+0	1.061446E+0	1.013362E+0	1.059066E+0	1.111049E+0	1.072219E+0	1.068085E+0	1.076401E+0	1.037203E+0	1.081900E+0	1.026620E+0	1.077419E+0	1.080120E+0	1.075582E+0	1.041784E+0	1.038712E+0	1.087470E+0	1.067424E+0	1.002197E+0	1.076852E+0	1.036146E+0	1.023542E+0	1.067649E+0	1.071853E+0	1.048668E+0	1.003732E+0	1.075979E+0	1.026247E+0	1.060563E+0	1.090234E+0	1.068199E+0	1.060590E+0	1.027328E+0	1.050405E+0	1.026594E+0	1.047981E+0	1.081992E+0	1.040623E+0	1.108249E+0	1.085618E+0	1.059038E+0	1.045229E+0	1.029617E+0	1.039651E+0	1.090724E+0	1.039356E+0	1.031603E+0	1.055954E+0	1.041436E+0	1.045645E+0	1.044047E+0	9.936723E-1	1.029706E+0	1.082069E+0	1.084108E+0	9.745011E-1	1.135495E+0	1.034352E+0	1.055917E+0	1.074610E+0	9.877245E-1	1.115467E+0	1.075249E+0	1.068034E+0	1.068863E+0	1.108939E+0	9.882394E-1	1.013372E+0	1.063506E+0	1.068985E+0	1.037557E+0	1.080525E+0	1.078005E+0	1.061439E+0	1.065221E+0	9.858308E-1	1.014223E+0	1.013504E+0	1.082051E+0	1.090921E+0	1.085756E+0	1.059447E+0	1.072416E+0	1.074140E+0	1.075253E+0	1.033179E+0	1.015562E+0	1.086394E+0	1.074983E+0	1.038140E+0	1.064613E+0	1.039475E+0	1.045273E+0	1.078799E+0	1.117666E+0	1.018308E+0	1.002804E+0	1.060269E+0	1.050903E+0	1.076596E+0	1.069393E+0	1.060936E+0	1.063761E+0	1.085010E+0	1.029187E+0	1.109750E+0	1.097545E+0	1.110629E+0	1.059236E+0	1.041948E+0	1.051137E+0	1.045159E+0	1.146838E+0	1.082915E+0	1.047795E+0	1.025095E+0	1.081149E+0	1.108284E+0	1.001634E+0	1.124885E+0	1.023788E+0	1.054224E+0	1.028764E+0	1.033511E+0	1.026828E+0	1.069524E+0	1.078739E+0	1.056683E+0	9.819174E-1	9.934104E-1	1.047224E+0	1.054527E+0	1.051951E+0	1.071848E+0	1.034423E+0	1.038565E+0	1.108772E+0	1.001466E+0	1.065835E+0	1.046862E+0	1.106382E+0	1.061321E+0	1.038184E+0	1.022098E+0	1.046169E+0	1.031807E+0	1.066170E+0	1.094237E+0	1.034413E+0	1.094979E+0	1.051514E+0	1.041497E+0	1.093747E+0	1.054472E+0	1.048475E+0	1.006483E+0	1.113489E+0	1.021455E+0
5.580230E+2	1.021123E+0	1.094842E+0	1.025803E+0	1.033181E+0	1.021134E+0	1.030074E+0	1.054849E+0	1.066658E+0	1.050881E+0	1.026228E+0	1.051206E+0	1.024541E+0	1.019552E+0	9.988668E-1	1.051667E+0	1.023369E+0	1.067930E+0	1.070572E+0	1.061169E+0	1.039855E+0	1.073300E+0	1.061197E+0	1.053922E+0	1.024569E+0	1.063197E+0	1.028717E+0	1.080228E+0	1.029506E+0	1.058282E+0	1.044946E+0	1.032660E+0	1.072071E+0	1.005718E+0	1.010919E+0	1.007541E+0	1.042897E+0	1.009396E+0	1.049032E+0	1.037169E+0	1.059827E+0	1.043659E+0	1.012862E+0	1.051246E+0	1.043829E+0	1.034423E+0	1.000855E+0	1.080684E+0	1.066954E+0	1.037772E+0	1.013554E+0	1.070701E+0	1.027070E+0	1.029669E+0	1.079523E+0	1.054768E+0	1.034349E+0	1.074268E+0	1.028134E+0	1.054804E+0	1.039445E+0	1.028730E+0	1.087539E+0	1.057029E+0	9.911866E-1	1.071075E+0	1.056879E+0	1.013690E+0	1.001998E+0	1.074574E+0	1.081664E+0	1.082519E+0	1.068777E+0	1.072758E+0	1.085859E+0	1.085917E+0	1.074871E+0	1.067411E+0	1.106300E+0	1.013514E+0	1.003216E+0	1.033489E+0	1.089252E+0	1.065607E+0	1.009612E+0	1.050827E+0	9.910537E-1	1.098631E+0	1.009100E+0	1.027857E+0	1.068306E+0	1.028109E+0	1.078880E+0	1.048797E+0	1.034552E+0	1.055861E+0	1.034557E+0	1.017297E+0	1.042896E+0	1.042293E+0	1.022594E+0	1.043025E+0	1.043663E+0	1.010301E+0	1.063898E+0	1.025857E+0	1.089100E+0	1.002650E+0	1.065513E+0	1.021953E+0	1.031654E+0	1.071804E+0	1.044037E+0	1.058884E+0	9.730189E-1	9.884278E-1	1.052178E+0	1.061588E+0	1.053519E+0	1.013913E+0	1.037703E+0	1.039022E+0	1.047471E+0	1.073198E+0	1.026343E+0	1.039450E+0	1.138073E+0	1.056914E+0	1.013158E+0	1.014867E+0	1.042713E+0	1.084679E+0	1.081455E+0	1.033657E+0	9.717336E-1	1.052356E+0	1.047396E+0	1.072551E+0	1.102710E+0	1.087988E+0	1.059711E+0	1.031017E+0	1.064366E+0	1.084768E+0	1.053216E+0	1.029942E+0	1.035490E+0	1.061223E+0	1.084345E+0	1.057077E+0	1.047564E+0	1.053886E+0	1.091739E+0	1.033051E+0	1.054676E+0	1.058327E+0	1.088531E+0	1.052903E+0	1.013222E+0	1.061119E+0	1.044839E+0	1.019842E+0	1.106182E+0	1.074448E+0	1.165210E+0	1.255695E+0
5.590160E+2	1.100443E+0	1.016701E+0	1.062618E+0	1.078856E+0	1.080102E+0	1.010460E+0	1.057363E+0	1.041377E+0	1.001627E+0	1.081923E+0	1.072907E+0	1.060506E+0	1.044139E+0	1.074177E+0	1.033432E+0	1.048687E+0	9.777093E-1	1.091073E+0	1.018144E+0	9.591808E-1	9.567489E-1	9.418715E-1	1.045794E+0	1.090755E+0	1.038729E+0	1.029312E+0	9.962153E-1	1.025818E+0	1.067554E+0	1.022051E+0	1.044463E+0	1.006843E+0	1.119650E+0	9.462743E-1	1.097386E+0	1.005190E+0	9.987237E-1	9.580588E-1	1.111493E+0	1.099296E+0	1.038329E+0	1.133602E+0	9.862164E-1	9.942820E-1	9.533004E-1	1.035782E+0	9.797171E-1	1.019402E+0	1.019034E+0	1.162668E+0	9.789861E-1	1.064750E+0	1.170517E+0	1.094468E+0	1.005348E+0	1.041645E+0	9.561510E-1	1.018653E+0	1.071459E+0	1.076212E+0	1.048762E+0	1.029442E+0	1.144710E+0	1.050193E+0	1.003826E+0	9.822045E-1	1.047266E+0	1.134090E+0	1.024606E+0	9.388490E-1	9.754447E-1	9.790072E-1	9.826074E-1	1.103757E+0	1.058858E+0	9.227632E-1	1.010212E+0	1.107379E+0	9.320440E-1	1.025312E+0	1.060840E+0	9.746854E-1	1.111996E+0	1.130195E+0	1.046726E+0	1.045152E+0	9.342623E-1	1.008377E+0	1.068924E+0	9.599165E-1	9.795892E-1	1.006801E+0	1.073141E+0	1.009384E+0	1.022869E+0	9.944867E-1	1.053107E+0	1.098910E+0	9.968632E-1	1.076611E+0	1.055677E+0	9.689359E-1	1.116643E+0	1.031554E+0	1.090585E+0	9.766686E-1	1.003430E+0	9.816645E-1	1.092457E+0	1.067739E+0	1.032595E+0	9.567993E-1	1.043243E+0	1.091106E+0	1.053167E+0	1.059103E+0	1.042810E+0	1.089850E+0	9.816340E-1	9.739978E-1	1.044349E+0	1.043765E+0	1.009597E+0	1.029415E+0	1.007745E+0	1.104493E+0	9.748227E-1	9.897386E-1	1.067063E+0	1.029237E+0	1.005763E+0	9.917361E-1	1.052664E+0	1.009206E+0	1.027354E+0	1.135020E+0	1.040574E+0	1.054056E+0	1.045343E+0	1.036966E+0	1.068618E+0	1.044117E+0	1.041575E+0	9.824344E-1	1.091158E+0	1.053912E+0	1.030657E+0	9.901768E-1	9.994989E-1	1.000597E+0	1.050488E+0	9.696508E-1	1.105279E+0	9.622940E-1	9.517327E-1	9.836963E-1	9.788182E-1	1.071621E+0	1.076548E+0	1.085383E+0	1.096780E+0	1.099560E+0	1.106992E+0	9.572319E-1	9.554649E-1
