Photon Energy (eV)	#1	#2	#3	#4	#5	#6	#7	#8	#9	#10	#11	#12	#13	#14	#15	#16	#17	#18	#19	#20	#21	#22	#23	#24	#25	#26	#27	#28	#29	#30	#31	#32	#33	#34	#35	#36	#37	#38	#39	#40	#41	#42	#43	#44	#45	#46	#47	#48	#49	#50	#51	#52	#53	#54	#55	#56	#57	#58	#59	#60	#61	#62	#63	#64	#65	#66	#67	#68	#69	#70	#71	#72	#73	#74	#75	#76	#77	#78	#79	#80	#81	#82	#83	#84	#85	#86	#87	#88	#89	#90	#91	#92	#93	#94	#95	#96	#97	#98	#99	#100	#101	#102	#103	#104	#105	#106	#107	#108	#109	#110	#111	#112	#113	#114	#115	#116	#117	#118	#119	#120	#121	#122	#123	#124	#125	#126	#127	#128	#129	#130	#131	#132	#133	#134	#135	#136	#137	#138	#139	#140	#141	#142	#143	#144	#145	#146	#147	#148	#149	#150	#151	#152	#153	#154	#155	#156	#157	#158	#159	#160	#161	#162	#163	#164	#165	
5.290120E+2	-2.751332E-2	-3.366982E-2	-4.654142E-2	-3.029236E-2	-2.186763E-2	-1.784909E-2	-3.052357E-2	-1.114541E-2	-4.032133E-2	-7.430495E-3	-3.191328E-2	-1.768608E-2	-3.071567E-2	-2.351116E-2	-2.526950E-2	-1.448871E-2	-3.278604E-2	-1.109090E-2	-1.773205E-2	-3.638993E-2	-2.611750E-2	-2.899177E-2	-2.015876E-2	-3.758515E-2	-1.367017E-2	-2.881012E-2	-2.095533E-2	-2.417152E-2	-2.239998E-2	-2.901680E-2	-1.261068E-2	-2.194385E-3	-2.553271E-2	-2.530835E-2	-8.012911E-3	-2.260129E-2	-2.569397E-2	-2.234714E-2	-3.337941E-2	-1.472249E-2	-2.336973E-2	-1.248135E-2	-3.625025E-2	-2.810217E-2	-2.278065E-2	-2.315210E-2	-2.339114E-2	-3.108377E-2	-2.477059E-2	-3.690386E-2	-1.419663E-2	-1.807968E-2	-6.198551E-3	-1.659680E-2	-9.264075E-3	-2.498630E-2	-2.279351E-2	-2.855987E-2	-1.949001E-2	-3.126720E-2	-4.368959E-2	-3.007778E-2	-2.315853E-2	-2.477975E-2	-1.909452E-2	-2.587679E-2	-2.104908E-2	-2.735358E-2	-2.414307E-2	-2.654077E-2	-2.278866E-2	-2.721376E-2	-3.254628E-2	-2.236867E-2	-2.708412E-3	-2.741392E-2	-2.094290E-2	-2.820272E-2	-2.401341E-2	-2.193617E-2	-2.777273E-2	-2.306721E-2	-2.085636E-2	-2.312486E-2	-1.716374E-2	-1.966033E-2	-1.757556E-4	-1.216159E-2	-1.775288E-2	-2.862266E-2	-2.889892E-2	-1.191194E-2	-9.402325E-3	-1.110870E-2	-3.284431E-2	-1.532861E-2	-1.218459E-2	-2.239540E-2	-2.196043E-2	-3.003722E-2	-3.298488E-2	-1.439746E-2	-9.569406E-3	-2.817725E-2	-1.512534E-2	-2.580478E-2	-2.529320E-2	-1.871195E-2	-2.284185E-2	-3.813656E-2	-2.391709E-2	-4.052073E-2	-1.733095E-2	-1.847344E-2	-2.569036E-2	-1.221652E-2	-3.352753E-2	-2.861111E-2	-1.613268E-2	-2.845502E-2	-1.916540E-2	-1.719108E-2	-1.773260E-2	-2.164811E-2	-1.759951E-2	-2.461510E-2	-3.746101E-2	-2.261107E-2	-2.125247E-2	-1.663512E-3	-3.125136E-2	-1.988046E-2	-1.434708E-2	-5.832099E-3	-2.715972E-2	-3.307778E-2	-1.929633E-2	-3.075752E-2	-1.193904E-2	-2.800776E-2	-3.165455E-2	-1.080738E-2	-1.954153E-2	-3.788080E-2	-1.397140E-2	-1.495220E-2	-1.986110E-2	-2.867524E-2	-2.887786E-2	-2.191749E-2	-3.050579E-2	-2.781099E-2	-2.682032E-2	-2.186781E-2	-2.592319E-2	-1.856112E-2	-7.086050E-3	-1.802674E-2	-2.277273E-2	-2.287405E-2	-2.568447E-2	-2.183514E-2	-2.455033E-2	-3.279938E-2	-6.127929E-2
5.295010E+2	-3.536677E-3	-1.136746E-2	5.410446E-6	-9.329475E-3	6.097138E-3	3.934508E-3	-1.539623E-2	9.779174E-3	1.206476E-2	-4.841247E-3	3.711956E-3	-1.587002E-3	-1.020470E-2	-8.029129E-3	-6.811342E-3	-1.017525E-2	-6.294168E-3	1.369580E-3	-1.652145E-2	1.448223E-3	2.206480E-2	3.510619E-3	-7.035875E-3	-1.628837E-4	-1.058311E-2	7.005919E-3	4.889190E-3	-3.802738E-3	-9.435533E-3	5.556169E-3	-6.921244E-3	-7.351433E-3	1.287364E-3	1.122766E-4	-1.045758E-2	3.142932E-3	7.201186E-3	1.543593E-3	2.360757E-3	2.788211E-3	-3.989100E-3	-1.735913E-2	1.054180E-3	6.742176E-3	-7.072188E-3	-5.706596E-3	-1.386989E-2	-5.153100E-3	-6.587744E-3	6.359281E-3	-4.570023E-3	1.186213E-3	-2.613815E-3	-1.835888E-2	2.622278E-2	9.249249E-4	3.364474E-3	-7.140757E-4	-7.726470E-3	1.123844E-2	-1.035621E-2	8.261604E-3	6.659628E-3	8.673261E-4	1.075712E-2	-2.456960E-3	-3.665297E-3	-1.328540E-2	-1.161660E-4	1.204651E-2	-4.712445E-3	-2.121763E-2	-1.035684E-2	3.515106E-3	3.143196E-3	-2.930763E-3	3.648689E-3	6.310008E-3	6.584925E-3	1.739427E-3	-1.365577E-2	-6.158842E-3	3.949821E-3	-2.146580E-2	-1.046617E-3	1.847366E-2	-3.550497E-3	2.891375E-3	-4.101404E-3	3.631708E-3	5.965064E-3	-8.728093E-3	1.006626E-2	1.720759E-2	-5.840267E-3	-2.529160E-2	-1.385575E-2	-1.629316E-3	-7.750484E-4	6.415942E-3	8.486918E-3	8.385739E-3	-5.035253E-3	8.944098E-3	-7.446307E-3	1.219534E-2	5.710635E-3	7.223030E-3	-4.824330E-3	4.807339E-3	4.139155E-3	5.213159E-3	6.760096E-3	-8.145455E-3	9.957515E-3	-2.109383E-2	4.514713E-3	-3.582912E-3	-8.725581E-3	-2.041507E-3	-5.535970E-3	4.842120E-3	-2.849865E-4	-6.426521E-3	-5.327718E-5	4.875300E-3	1.633699E-3	-1.059748E-2	-2.305582E-2	4.692429E-3	4.229761E-3	1.038901E-3	-3.064648E-3	1.477553E-2	-3.758529E-3	8.692521E-3	-7.422836E-3	1.649036E-3	-6.090826E-3	1.408169E-2	1.510545E-3	2.380307E-3	2.371748E-3	-1.896919E-2	1.280790E-3	-1.931189E-2	1.662879E-2	1.997965E-4	4.782855E-3	1.380091E-2	2.020922E-3	1.529819E-2	-1.204036E-2	3.238237E-3	-1.240288E-3	-9.262304E-3	-6.037984E-3	-1.270123E-2	-9.067569E-4	1.071546E-3	9.572463E-4	-1.705641E-2	-1.479380E-3	-2.386472E-2	-3.947774E-3
5.300010E+2	2.129249E-2	3.002338E-2	4.983916E-2	4.669990E-2	1.457798E-2	2.264567E-2	3.911231E-2	3.925454E-2	2.287833E-2	2.544936E-2	4.033330E-2	4.695260E-2	3.563446E-2	3.257233E-2	4.652975E-2	3.102808E-2	2.939350E-2	6.478874E-3	2.701555E-2	2.503363E-2	1.512361E-2	1.672609E-2	3.617526E-2	3.750067E-2	1.606395E-2	1.960540E-2	3.739022E-3	3.909314E-2	2.537908E-2	1.236732E-2	3.505719E-2	2.268375E-2	1.777559E-2	2.203491E-2	3.956707E-2	1.637478E-2	2.146573E-2	3.483530E-2	3.288850E-2	4.593396E-3	1.704881E-2	3.120724E-2	4.173590E-2	2.691598E-2	3.035365E-2	1.252315E-2	3.557816E-2	3.008011E-2	2.384034E-2	1.782230E-2	2.301710E-2	2.580949E-2	1.231577E-2	1.121933E-2	1.230142E-2	4.027678E-2	2.542136E-2	4.019305E-2	1.794389E-2	3.959735E-2	3.827514E-2	1.888046E-2	1.623634E-2	2.648430E-2	2.345089E-2	2.659827E-2	1.969378E-2	1.248507E-2	2.940249E-2	2.242239E-2	3.198315E-2	4.088433E-2	3.323627E-2	3.310790E-2	1.815920E-2	2.916268E-2	1.134295E-2	1.275767E-2	4.264799E-2	2.398428E-2	3.264060E-2	2.506068E-2	2.041337E-2	2.270891E-2	1.517345E-2	2.145444E-2	-3.931310E-3	1.838551E-2	2.007224E-2	2.931979E-2	1.003600E-2	1.325237E-2	3.543408E-2	3.661933E-3	3.042201E-2	2.875383E-2	1.929996E-2	1.732890E-2	2.885969E-2	2.531237E-2	4.303781E-2	2.934481E-2	2.513890E-2	5.058487E-2	1.265962E-2	3.648259E-2	3.365506E-2	2.755752E-2	2.421447E-2	1.491722E-2	2.810655E-2	2.942088E-2	3.389526E-2	2.630048E-2	1.418809E-2	3.505483E-2	2.313205E-2	2.653776E-2	2.087137E-2	4.152768E-2	2.941357E-2	3.137935E-2	2.324344E-2	2.756531E-2	1.413927E-2	3.893472E-2	1.756472E-2	5.230776E-2	1.728234E-2	1.415846E-2	3.316063E-2	3.206262E-2	1.244923E-2	2.008134E-2	3.617750E-2	1.768595E-2	4.565568E-2	2.994790E-2	1.371019E-2	2.750743E-2	4.491692E-2	3.293068E-2	1.432631E-2	4.419949E-2	2.238114E-2	3.372414E-2	9.482801E-3	4.011053E-2	4.321648E-2	3.339741E-2	1.470968E-2	4.148979E-2	4.425199E-2	1.355794E-2	2.592772E-2	2.199272E-2	1.805367E-2	3.467079E-2	3.429786E-2	2.158828E-2	2.296981E-2	2.855001E-2	1.528297E-2	4.577628E-2	2.509737E-2
5.305030E+2	7.480291E-3	2.487696E-2	1.514933E-2	2.047281E-2	1.245371E-2	1.499450E-2	1.592261E-2	1.431965E-2	8.314963E-3	1.922993E-2	8.058627E-3	-4.285806E-3	3.186640E-2	7.563376E-3	2.172949E-2	2.141445E-2	1.456946E-2	2.261297E-2	1.603558E-4	1.962728E-2	2.029803E-2	-4.783001E-4	3.463724E-3	2.319365E-2	9.545301E-3	4.990935E-3	2.661294E-2	2.025163E-3	1.878942E-2	2.346870E-2	6.781206E-3	-3.075695E-3	2.485716E-2	1.464463E-2	2.201794E-2	9.579843E-3	2.062651E-2	1.698072E-2	1.778221E-2	2.507755E-2	2.532675E-2	9.469317E-3	7.170815E-3	3.529595E-3	1.874378E-2	1.211526E-2	5.505207E-3	1.542374E-3	7.699805E-3	1.128667E-2	1.148760E-2	1.974505E-2	1.014628E-2	2.349577E-2	2.769328E-2	2.410262E-2	5.983526E-3	1.698824E-2	2.320195E-2	-6.663897E-4	8.909635E-3	2.405605E-2	2.755752E-2	9.738601E-3	-4.896506E-3	1.840513E-2	1.877315E-2	2.932560E-2	1.238079E-2	2.451310E-2	3.833335E-3	5.511527E-3	2.589422E-3	2.061163E-2	5.095029E-3	-4.809823E-3	2.288655E-2	1.331197E-2	1.248668E-2	2.591415E-2	1.641061E-2	9.506085E-3	2.007926E-2	2.527436E-2	3.571694E-2	2.399886E-2	1.073518E-2	3.455819E-3	-1.239159E-2	1.368172E-2	2.026942E-2	8.632656E-3	2.041459E-2	1.379457E-2	3.620027E-2	2.328548E-2	1.009755E-2	9.336552E-3	-1.051596E-3	3.323749E-3	5.292435E-3	-2.267365E-3	-7.283060E-4	2.171563E-2	1.234438E-2	6.493569E-3	-4.425450E-3	3.778696E-3	1.848295E-2	1.162042E-2	1.590878E-2	7.362855E-3	8.987818E-3	5.270856E-3	6.123861E-3	-1.313026E-3	1.723146E-2	8.737286E-3	9.892211E-3	1.504223E-2	1.512781E-2	2.161634E-2	1.248302E-2	3.704047E-2	1.730080E-2	2.101353E-2	1.876043E-2	2.612833E-3	2.406599E-2	1.987440E-2	2.085233E-2	1.018475E-2	1.286551E-2	2.544867E-2	8.641064E-3	1.524072E-2	1.814765E-3	-5.495339E-3	9.250916E-3	2.941577E-2	8.102439E-3	1.105568E-2	2.202354E-2	1.547924E-2	5.665678E-3	9.763013E-6	1.562812E-3	3.361540E-2	1.627236E-2	2.248498E-2	1.083379E-2	1.903614E-2	4.785205E-3	2.467622E-2	3.386695E-3	2.471565E-2	9.602933E-3	2.356578E-2	1.389539E-2	-6.128631E-3	2.341825E-2	3.244747E-2	5.334548E-2	2.323053E-2	-2.460304E-2
5.310050E+2	5.533126E-3	-1.446848E-2	-2.876075E-3	-1.175833E-2	-8.594345E-3	9.700775E-3	8.388712E-3	-9.999386E-3	-7.841629E-3	-2.422696E-3	1.593285E-3	-6.707509E-3	-9.243206E-3	4.302805E-3	-5.412755E-3	1.626323E-3	-6.616556E-3	-6.242881E-4	1.487863E-2	-2.576538E-3	-7.857724E-3	1.171913E-2	2.551604E-3	-2.214408E-3	-2.603589E-3	1.388692E-2	-4.768685E-3	3.823834E-3	-4.742460E-5	-1.198421E-2	1.644285E-3	4.550625E-5	1.784534E-3	5.740983E-3	-3.306445E-3	1.092671E-3	-1.054815E-2	-1.020880E-2	6.450093E-3	1.367384E-2	-1.140961E-2	-8.257418E-3	4.623738E-4	2.515342E-3	-2.473984E-3	6.237739E-3	1.543142E-3	1.161927E-2	-3.284592E-3	8.427809E-3	-4.856173E-3	6.141009E-3	-8.889090E-5	4.790575E-3	-2.430839E-2	-1.460558E-2	-1.241152E-3	-1.266386E-2	-1.836088E-3	-5.041196E-3	1.835798E-2	1.362239E-3	-9.383325E-3	-9.839306E-4	-1.906373E-2	4.134602E-3	-3.274670E-3	5.620170E-3	8.965461E-3	-8.925241E-3	5.628729E-3	9.382241E-3	2.960115E-3	-4.713506E-3	-2.041145E-2	9.480961E-3	-4.894861E-3	-4.002041E-3	-1.554869E-2	-4.610136E-3	1.211541E-2	7.637650E-3	-8.713402E-3	1.523077E-2	-4.737863E-3	-1.723459E-2	-4.609920E-3	-5.964935E-4	6.695007E-3	-3.151546E-3	-1.324600E-2	-2.542869E-3	-2.003516E-2	-1.878442E-2	-1.820278E-3	-6.974757E-4	-2.463964E-2	-1.666284E-3	-8.157508E-3	-9.480898E-3	6.086644E-4	-9.787317E-3	1.049703E-2	-7.919525E-3	-2.312382E-3	2.292608E-3	5.356412E-3	-2.907331E-3	1.831603E-2	4.113284E-3	2.565704E-3	2.201591E-3	-2.845159E-3	-8.632687E-3	3.144898E-3	-8.921975E-4	5.752140E-3	7.932879E-3	-6.024244E-3	-7.288802E-3	-5.127569E-3	-9.314476E-3	-8.517626E-3	-7.481355E-3	-7.203711E-3	-2.457622E-2	-1.230538E-2	-6.273328E-4	9.112913E-3	-5.910811E-3	-1.570836E-3	1.293191E-2	1.476334E-2	-1.566898E-3	-2.387736E-3	-3.798321E-3	-1.335987E-2	6.468853E-3	1.258321E-2	-1.333686E-3	-5.108668E-3	8.875742E-3	-1.309126E-3	1.220029E-2	-5.378190E-3	-1.220515E-2	1.127259E-2	-5.645724E-3	-1.693212E-2	-2.045913E-3	1.564919E-2	1.499428E-3	1.366181E-2	3.044050E-5	-6.607213E-3	-1.358653E-3	-1.455459E-2	-3.616442E-3	-9.711408E-3	8.716071E-3	-1.409696E-2	1.697225E-2	-1.334731E-2	2.664386E-2	4.053450E-2
5.315030E+2	-2.415738E-2	2.509687E-3	-1.099578E-2	-1.986030E-2	7.308025E-3	-2.219921E-2	-2.053995E-2	3.122347E-4	-2.410008E-2	-3.024174E-2	-1.727653E-2	-1.680757E-2	-2.165929E-2	-1.181954E-2	-1.236490E-2	-1.422645E-2	-1.189378E-2	-2.334095E-2	8.369495E-4	-1.322660E-2	-2.254471E-2	-2.210422E-2	-1.059203E-2	2.644681E-3	-7.186496E-3	-6.811246E-3	-9.781699E-3	-1.327942E-2	-1.066762E-2	-1.295891E-2	-6.983473E-3	-1.696114E-2	-2.545566E-2	-1.185154E-2	-3.088119E-2	-1.792361E-2	-1.090634E-2	-2.197847E-2	-1.543570E-2	-3.055031E-2	-1.757846E-2	2.489215E-3	-2.615425E-2	-2.117365E-2	-1.164515E-2	-1.507351E-2	-1.981675E-2	-2.180145E-2	3.079906E-3	-3.327259E-4	-1.332033E-2	-1.935808E-2	-1.242002E-2	-5.459790E-3	-2.742248E-2	-2.483994E-2	-1.221321E-2	-9.046089E-3	-1.826084E-2	-2.053850E-2	-2.658853E-2	-1.775231E-2	-1.227271E-2	-1.579047E-2	-1.661933E-2	-1.323269E-2	-1.090932E-2	-8.075878E-3	-2.235901E-2	-1.624025E-2	8.054440E-3	-2.214293E-2	-2.118203E-2	-2.376855E-2	-8.973204E-3	-1.321542E-2	-2.856663E-2	-1.171474E-2	-1.262887E-2	-2.699979E-2	-6.577479E-3	-1.038902E-2	-1.645365E-2	-1.664891E-2	-2.174917E-2	-2.631398E-2	-7.214329E-3	-7.089582E-3	-3.992171E-4	-4.869862E-3	-7.652679E-3	3.689721E-3	-2.097157E-2	-1.555314E-2	-2.334598E-2	-1.512145E-2	-5.550807E-3	-1.346638E-2	3.200380E-3	-3.085955E-2	-2.958334E-2	-2.414461E-2	-2.409043E-2	-1.625703E-2	-1.786159E-3	-1.338370E-2	-8.735107E-3	-2.033401E-2	-2.529799E-2	-1.744341E-2	-1.156153E-2	-3.747046E-3	-3.161341E-2	3.202164E-3	-1.128546E-2	-5.894922E-3	-2.144543E-2	-1.029514E-2	-5.998997E-4	-9.046897E-3	4.380985E-4	-1.471133E-2	-8.010645E-3	-1.385365E-2	-1.377102E-2	-1.970625E-2	-7.799602E-3	-1.210313E-2	-6.715457E-3	-1.099892E-2	-2.535255E-2	-1.915530E-2	-1.535375E-2	-3.379164E-2	-1.572683E-2	-3.425855E-3	-4.414436E-3	-1.171793E-2	-4.327607E-3	-2.277823E-2	-1.766394E-3	-2.859424E-2	9.692286E-4	-8.807889E-4	-1.321454E-3	-2.854635E-3	-1.466044E-2	-2.947721E-2	-8.848621E-3	-1.089220E-2	-1.575307E-2	-2.264797E-2	-2.765071E-2	-2.033356E-2	2.331073E-3	-2.221795E-2	-2.385032E-2	-1.321645E-2	-1.650822E-2	-2.421574E-2	-7.212519E-3	-3.457000E-2	-5.698126E-3	-2.801541E-2	-9.321275E-3
5.320070E+2	1.626457E-3	-2.028832E-2	-5.164246E-3	-1.452401E-2	-1.216300E-2	-9.816480E-3	-1.774036E-2	-2.644523E-2	1.014740E-2	-3.084376E-3	-1.415198E-2	-1.870042E-3	-4.397959E-3	-1.574855E-2	-3.600772E-2	-2.266729E-2	-3.176896E-3	-1.443731E-2	-1.657286E-2	-1.216771E-2	-1.265326E-2	1.431630E-5	-1.401360E-2	-2.097158E-2	-1.451686E-2	-1.766338E-2	-6.075734E-3	-4.956499E-3	-3.073322E-5	-1.324498E-2	-1.213077E-2	-1.521536E-2	-9.003892E-3	-7.905347E-3	-1.587040E-2	-5.514701E-3	-1.120502E-2	-1.749624E-3	-1.046668E-2	-2.718520E-4	3.543982E-3	-6.929105E-3	-3.110392E-3	-2.351980E-4	-1.467563E-2	-2.101222E-3	-1.078611E-2	-6.367998E-4	-9.960656E-3	-1.099686E-2	-1.513799E-2	-2.271525E-2	-1.608606E-2	-2.229998E-2	-5.541867E-3	-1.329309E-2	-1.935096E-2	-2.142880E-2	-1.866156E-2	-1.166703E-2	7.380961E-4	-7.729891E-3	-1.269683E-2	-1.186240E-3	-2.455020E-3	-1.707242E-2	-1.852156E-2	-2.640796E-2	-2.279733E-2	-2.837523E-2	-1.851993E-2	-3.698248E-3	-1.757071E-3	-1.654180E-2	-1.071860E-2	-1.285648E-2	-2.316148E-2	-1.537494E-2	-1.799195E-2	-9.910264E-3	-1.808121E-2	-1.145075E-2	-2.000393E-2	-8.568688E-3	-6.762909E-3	-1.482801E-2	-1.212314E-2	-2.355338E-2	-9.807537E-3	-2.222511E-2	-1.625387E-2	-1.416313E-2	-2.143130E-2	-1.591773E-2	-1.690931E-2	-2.298377E-2	2.443801E-3	-6.312098E-3	-2.223274E-2	5.347402E-3	-5.777311E-3	-6.632532E-3	-1.126643E-2	-2.198128E-2	-7.619700E-4	-1.819392E-2	-1.381667E-2	-1.655296E-2	-2.012142E-2	-3.962126E-3	-1.121756E-2	-1.472037E-2	3.811807E-3	-2.581228E-2	-1.015071E-2	-1.094330E-2	-1.969176E-2	-7.139079E-3	-7.423752E-3	-1.366577E-2	-3.044637E-2	-3.070619E-2	-9.133745E-3	-1.497890E-2	-1.759404E-2	-8.277636E-3	-3.472848E-3	-1.547263E-2	-1.911998E-2	-3.605010E-2	-1.370930E-3	-1.574036E-2	-1.569924E-2	-3.009654E-2	-3.621644E-3	-1.174557E-2	-1.972660E-2	-6.551475E-3	-1.029698E-2	-2.828481E-2	-3.033537E-2	-2.561779E-2	-3.090849E-2	-1.937997E-2	-1.681125E-2	-6.734537E-3	-2.198780E-2	-1.897356E-2	-2.540865E-2	-2.821084E-2	-1.031058E-2	-2.157753E-2	-8.750755E-3	-2.067849E-2	-1.676692E-2	-5.101391E-3	4.968937E-3	-1.744050E-2	-1.148119E-2	-4.227914E-3	-2.067586E-2	-2.502260E-2	-3.350126E-2	-4.513243E-2	-3.061910E-2
5.325120E+2	1.927501E-2	2.238406E-2	5.836197E-4	1.859176E-2	2.188135E-3	-1.410673E-3	2.077647E-2	-1.607559E-2	1.885759E-2	3.341267E-3	9.644618E-3	1.991403E-3	8.719966E-3	1.466987E-2	1.760698E-2	7.488841E-3	1.680448E-2	1.903202E-2	7.934871E-3	1.825164E-2	1.168674E-2	1.960412E-2	9.609669E-3	-2.404977E-3	2.295097E-2	7.795570E-3	6.340296E-3	1.268047E-3	-1.587215E-3	2.581271E-2	-4.836517E-3	2.206875E-2	1.428761E-2	2.532448E-3	6.943526E-3	1.584936E-2	9.060063E-3	2.924427E-3	-1.997584E-4	-5.883437E-4	1.042736E-2	1.861229E-3	1.509162E-2	9.807932E-3	9.550174E-3	1.515729E-2	2.523737E-2	1.543337E-2	9.983532E-3	4.337379E-3	1.757645E-2	7.271262E-3	1.494529E-2	2.320977E-2	3.193392E-4	1.242060E-2	2.082947E-2	1.523141E-2	2.482912E-2	1.834452E-2	1.435348E-2	2.999629E-3	7.057897E-3	5.650160E-3	2.792109E-2	9.500858E-3	1.895300E-2	2.769197E-2	1.866684E-2	2.109949E-2	-3.478628E-3	1.849447E-2	2.705641E-2	1.015790E-2	1.641424E-2	2.258276E-2	3.968768E-2	2.691480E-2	8.463324E-3	1.181849E-2	4.920579E-3	8.861410E-3	2.158489E-2	6.594221E-3	5.698970E-4	1.410995E-2	2.086977E-2	1.866834E-2	1.768538E-2	1.223596E-2	2.978099E-2	1.177128E-2	5.925430E-3	2.669990E-2	1.413786E-2	2.738360E-2	2.438949E-2	1.880401E-2	2.211726E-2	2.997822E-2	1.091970E-2	1.949874E-2	1.505390E-2	-6.909508E-3	2.428156E-3	-8.171158E-5	7.548314E-3	1.994700E-2	1.207213E-2	2.408384E-2	-4.024002E-3	1.478966E-2	-1.665464E-3	2.629036E-2	1.371217E-2	1.729896E-2	2.403434E-2	6.420322E-3	8.142576E-3	3.928086E-3	1.529582E-2	1.408527E-2	7.953142E-3	-2.172461E-4	2.478149E-2	1.235165E-2	2.307998E-2	6.491056E-3	1.968249E-2	1.589805E-2	1.302956E-3	-1.442060E-3	8.386646E-3	1.098163E-2	7.835893E-3	1.042833E-2	1.674963E-2	1.645648E-2	-2.889869E-3	9.399587E-3	1.433508E-2	9.776996E-3	1.206832E-2	5.231720E-3	8.154692E-3	2.232450E-2	1.756235E-2	8.845993E-3	1.579556E-2	-6.616855E-3	1.335586E-2	-5.287066E-3	1.256313E-2	2.137702E-2	1.889212E-2	9.793040E-3	1.890341E-2	6.764798E-3	1.318705E-2	2.607044E-2	2.032451E-2	2.051443E-2	9.947953E-3	3.416126E-2	6.413860E-2
5.330080E+2	3.993490E-2	3.636507E-2	3.415924E-2	6.025448E-2	5.471682E-2	7.104691E-2	4.108872E-2	3.864793E-2	6.470759E-2	4.485770E-2	4.549021E-2	3.011879E-2	5.179101E-2	3.115113E-2	3.370358E-2	5.166458E-2	5.102051E-2	4.218190E-2	5.116303E-2	4.522047E-2	4.513172E-2	5.265814E-2	4.243781E-2	3.148089E-2	6.339534E-2	4.666445E-2	4.578311E-2	2.803660E-2	4.344834E-2	5.364212E-2	4.215072E-2	3.884930E-2	4.315445E-2	8.100488E-2	4.622847E-2	4.413688E-2	5.738485E-2	4.766352E-2	3.640591E-2	3.065885E-2	5.409861E-2	5.144913E-2	6.740621E-2	6.495478E-2	5.373444E-2	2.829642E-2	3.268700E-2	5.934205E-2	4.223444E-2	6.093663E-2	4.387488E-2	5.027185E-2	4.681102E-2	4.232552E-2	4.514583E-2	4.327201E-2	4.694647E-2	5.073015E-2	6.041388E-2	4.322618E-2	2.738975E-2	2.231211E-2	6.292181E-2	3.713726E-2	4.961725E-2	4.384475E-2	4.634844E-2	4.609071E-2	6.035925E-2	2.567008E-2	6.510394E-2	4.955910E-2	5.214917E-2	6.558674E-2	4.434030E-2	3.949808E-2	4.313582E-2	4.086496E-2	2.913197E-2	5.357488E-2	3.142328E-2	5.003397E-2	5.275323E-2	5.796885E-2	4.234761E-2	3.258589E-2	3.808786E-2	4.762405E-2	3.777384E-2	3.690701E-2	4.227071E-2	8.117226E-2	5.550401E-2	4.759952E-2	5.854850E-2	3.603735E-2	3.595720E-2	4.827226E-2	6.007885E-2	5.300582E-2	5.398429E-2	5.452033E-2	5.944911E-2	5.273585E-2	7.622352E-2	5.769720E-2	4.553303E-2	4.214027E-2	1.942461E-2	5.365763E-2	2.642763E-2	4.730601E-2	4.942945E-2	3.899743E-2	6.205439E-2	3.480346E-2	5.728454E-2	4.304178E-2	3.393591E-2	3.312614E-2	4.859020E-2	4.468091E-2	2.815454E-2	5.031886E-2	6.245433E-2	5.341689E-2	6.010597E-2	5.550991E-2	3.654529E-2	7.158608E-2	5.688184E-2	5.892487E-2	4.869203E-2	2.910743E-2	3.878362E-2	7.211038E-2	4.156595E-2	3.956984E-2	5.198148E-2	4.948624E-2	5.121962E-2	5.400244E-2	6.560660E-2	4.594499E-2	6.665967E-2	3.858967E-2	5.806548E-2	5.648408E-2	3.555450E-2	6.914150E-2	3.930540E-2	6.079152E-2	2.771402E-2	4.786688E-2	4.642121E-2	4.428773E-2	4.640781E-2	3.507729E-2	3.557840E-2	6.122673E-2	3.699134E-2	6.319067E-2	1.695227E-2	2.598927E-2	4.285607E-2
5.332150E+2	4.255095E-2	1.584702E-2	3.840775E-2	1.337053E-2	6.008840E-2	6.335947E-2	4.547538E-2	5.927711E-2	2.261715E-2	1.346574E-2	2.864774E-2	1.579544E-2	3.867404E-2	5.131520E-2	4.457734E-2	2.616902E-2	3.666924E-2	2.265618E-2	2.176453E-2	3.014937E-2	3.111115E-2	2.388531E-2	2.100673E-2	3.583227E-2	3.850587E-2	2.781760E-2	2.750737E-2	2.337730E-2	4.776528E-2	4.454064E-2	1.974161E-2	3.956542E-2	3.883732E-2	3.376774E-2	2.104864E-2	3.430007E-2	5.255625E-2	3.954161E-2	4.138255E-2	4.021028E-2	3.282898E-2	3.427741E-2	1.717768E-2	4.146982E-2	2.343216E-2	2.877275E-2	3.354589E-2	5.260363E-2	3.530965E-2	4.318783E-2	2.705589E-2	1.846105E-2	4.124052E-2	5.220834E-2	2.933919E-2	4.462706E-2	5.791778E-2	2.689893E-2	2.220797E-2	3.856889E-2	5.047353E-2	3.376103E-2	2.296756E-2	2.881398E-2	4.722387E-2	3.237791E-2	2.666477E-2	4.809049E-2	3.749983E-2	5.055096E-2	1.548816E-2	5.329225E-2	3.331325E-2	4.585563E-2	4.499461E-2	4.017998E-2	5.242075E-2	3.468855E-2	2.516022E-2	5.119084E-2	7.068954E-2	4.346047E-2	2.865552E-2	3.816224E-2	4.711572E-2	4.312133E-2	2.448328E-2	3.984437E-2	2.991864E-2	4.601917E-2	3.748459E-2	3.108887E-2	4.393228E-2	3.117455E-2	3.235845E-2	5.314960E-2	2.810220E-2	3.076561E-2	3.938700E-2	2.148356E-2	4.663460E-2	4.930925E-2	4.556660E-2	3.032355E-2	5.348636E-2	2.013803E-2	2.324596E-2	4.705135E-2	3.033082E-2	3.682481E-2	4.753912E-2	3.853316E-2	2.857622E-2	2.501274E-2	2.237472E-2	3.840187E-2	2.990404E-2	4.703844E-2	4.677715E-2	4.156999E-2	5.288791E-2	3.554920E-2	4.466412E-2	2.800543E-2	2.990446E-2	5.393940E-2	3.827902E-2	5.078701E-2	4.132415E-2	4.307346E-2	2.284142E-2	3.912791E-2	4.147484E-2	3.093239E-2	3.717728E-2	1.782253E-2	4.912340E-2	4.626105E-2	5.035776E-2	4.336059E-2	5.247470E-2	2.926650E-2	3.659360E-2	4.343511E-2	2.936213E-2	3.839559E-2	4.777883E-2	2.860986E-2	4.223164E-2	2.263942E-2	2.441545E-2	4.896114E-2	4.610076E-2	5.938494E-2	3.936155E-2	3.944514E-2	3.483040E-2	5.224921E-2	4.628439E-2	3.900627E-2	4.480645E-2	3.900133E-2	3.572590E-2	-2.875054E-3	2.882439E-2
5.334160E+2	1.121414E-2	9.812954E-4	1.404499E-2	3.753042E-2	3.814474E-2	1.993103E-2	1.152815E-2	1.449706E-2	1.168262E-2	1.394372E-2	2.534124E-2	2.262980E-2	2.768159E-3	1.605450E-2	1.529881E-2	1.089767E-2	1.883978E-2	-1.354705E-2	1.980771E-2	2.693513E-2	1.576618E-2	6.433864E-3	2.721109E-2	9.468091E-3	3.198641E-2	1.969411E-2	2.215140E-2	2.168689E-2	1.058329E-2	2.259241E-3	3.463463E-2	1.408319E-2	1.487159E-2	5.254624E-3	1.368212E-2	2.008869E-2	2.337590E-3	2.574140E-2	9.090220E-3	3.653564E-2	8.707836E-3	1.572626E-2	1.020567E-2	3.088513E-2	2.741286E-2	5.952751E-3	7.874557E-3	3.008236E-2	6.625083E-3	4.245537E-2	-6.012564E-3	1.070004E-2	-5.930085E-4	3.138153E-2	3.450894E-2	1.181283E-2	-5.366046E-4	1.115940E-2	4.265571E-2	1.783333E-2	1.311352E-2	2.653490E-2	1.494425E-2	5.949686E-3	2.639002E-2	3.202039E-2	-3.081068E-3	9.348776E-3	2.085775E-2	3.720567E-2	1.622764E-2	1.207634E-2	6.742440E-3	4.505019E-2	4.367782E-3	1.385686E-2	2.599126E-2	1.206792E-2	1.049012E-2	9.639762E-3	2.521923E-2	2.402453E-2	5.782226E-3	3.526267E-3	3.012781E-2	1.423060E-2	1.431269E-3	3.382853E-3	1.376210E-2	1.010203E-2	1.239550E-2	1.216554E-2	2.309825E-2	3.047180E-2	8.073355E-3	7.341069E-3	2.315039E-2	3.158425E-2	3.227763E-3	1.136190E-2	2.556475E-2	1.601082E-2	3.204240E-2	1.992307E-2	5.170463E-3	4.949473E-3	3.193681E-3	1.648544E-2	2.543983E-2	8.967350E-3	6.606351E-3	2.184657E-2	-2.544967E-3	4.678644E-2	-1.380813E-3	1.860041E-2	2.697315E-2	-6.169992E-3	1.506872E-2	1.556691E-2	1.295673E-2	7.916930E-3	1.048891E-2	-7.706085E-3	2.353322E-2	1.180249E-2	1.904424E-2	4.396994E-2	1.618776E-2	2.855047E-2	1.619167E-2	2.705345E-2	1.326636E-2	1.723330E-2	1.301129E-2	1.929833E-2	6.343432E-4	-6.310275E-3	6.281166E-3	7.279936E-3	1.730868E-2	-4.124936E-3	1.212259E-2	1.463187E-2	1.174953E-2	1.667330E-2	2.031652E-2	-1.420675E-3	2.421891E-2	4.331085E-2	1.962061E-2	1.465808E-2	3.423250E-2	3.873840E-2	6.562027E-3	3.811415E-3	3.319839E-2	2.193664E-3	2.631577E-2	2.047360E-2	2.982032E-2	3.865599E-2	2.291358E-2	-1.408241E-2	3.683794E-2
5.336130E+2	-2.046605E-3	1.026121E-2	-1.892470E-3	-6.909192E-3	6.870451E-3	-4.952984E-3	5.522350E-3	4.805408E-3	-1.537009E-2	-5.317426E-3	8.376370E-3	6.190330E-3	-1.815606E-3	-3.309937E-3	-1.026051E-2	-1.024864E-3	1.082374E-2	5.652353E-3	7.096788E-3	9.554471E-3	1.418412E-2	1.363006E-2	6.935961E-3	4.036257E-3	2.615168E-2	-1.122397E-2	5.574451E-3	1.629895E-2	1.300819E-2	-1.011842E-2	5.744957E-3	9.636355E-3	-2.424427E-3	2.806369E-3	8.246338E-3	5.811880E-3	1.287608E-2	2.556464E-2	-8.892990E-3	2.011007E-2	2.955189E-2	-7.177470E-3	-6.364413E-3	-1.428932E-3	4.528125E-3	-4.215151E-3	-1.271146E-2	4.091191E-3	-6.539433E-3	1.488660E-3	-2.847545E-3	1.344974E-2	3.888099E-3	8.416765E-3	2.319495E-2	-1.691791E-2	3.740447E-3	1.711239E-2	-4.383313E-3	-9.381753E-3	-3.090239E-3	1.593304E-3	7.011329E-4	1.375099E-2	-5.615814E-3	-7.273145E-3	-4.567333E-3	1.687972E-2	-6.871160E-3	-8.574450E-4	-1.588107E-5	-2.223160E-3	1.009122E-3	1.679649E-2	1.637116E-2	-2.648839E-2	-2.830231E-3	2.212917E-2	1.168321E-2	-2.265950E-3	-4.050337E-3	-8.675522E-3	-1.217913E-2	-1.070642E-3	1.650807E-3	-5.107336E-3	-7.698105E-3	1.240975E-2	6.601129E-3	-9.572830E-3	-6.122974E-3	1.193803E-2	-1.681066E-4	8.214157E-3	-1.082228E-3	-1.269232E-3	8.921213E-3	6.960087E-3	-3.288866E-3	1.504120E-2	2.881589E-3	9.294389E-3	1.926165E-2	1.518330E-2	-1.122958E-2	1.639550E-2	-2.263403E-3	-8.799836E-3	-1.398674E-2	-2.392886E-3	-3.095245E-3	9.379485E-3	-1.322360E-3	2.965929E-3	1.138636E-2	-5.761407E-4	3.745302E-3	-5.697832E-3	2.661699E-3	3.017919E-3	1.361879E-3	-1.441216E-2	1.774306E-2	1.442038E-2	-9.218574E-3	-1.582437E-3	3.507151E-3	-1.214249E-2	4.487000E-3	1.520543E-2	-6.919241E-3	-1.492352E-2	3.533658E-4	-4.228894E-3	5.559792E-3	1.619282E-2	2.676845E-3	3.445972E-2	1.446792E-2	1.412276E-2	3.952418E-3	-8.946848E-3	3.067110E-3	3.487911E-3	-1.039764E-2	1.357942E-3	4.020346E-3	9.977038E-3	-4.847168E-3	8.822092E-3	6.703234E-3	1.774013E-2	4.977222E-3	2.070423E-2	9.656393E-3	1.481749E-2	-1.024540E-2	7.506783E-3	7.718745E-3	2.264932E-4	9.854028E-3	1.135619E-2	-1.797195E-2	-3.047347E-2	-6.501764E-3
5.338050E+2	2.263992E-2	2.761365E-2	4.454546E-2	2.163175E-2	5.659980E-2	4.859456E-2	4.938502E-2	4.142234E-2	1.251181E-2	3.531007E-2	3.675562E-2	5.057535E-2	3.374618E-2	2.074940E-2	2.020658E-2	3.670018E-2	2.115846E-2	1.882451E-2	1.636659E-2	4.664323E-2	4.448143E-2	2.345719E-2	1.367602E-2	5.830628E-3	2.445507E-2	4.209660E-2	4.031121E-2	2.929565E-2	1.799447E-2	2.693478E-2	1.270774E-2	3.492383E-2	2.395135E-2	5.215378E-2	2.717423E-2	2.852649E-2	2.136168E-2	3.034367E-2	2.651091E-2	2.278551E-2	4.821900E-2	2.870774E-2	2.208096E-2	5.293616E-2	4.503778E-2	1.540269E-2	2.665120E-2	3.847667E-2	2.943116E-2	3.889049E-2	2.462547E-2	3.280156E-2	3.540555E-2	3.982416E-2	2.098581E-2	2.280874E-2	2.164135E-2	2.161577E-2	3.613638E-2	3.461607E-2	3.951260E-2	3.086378E-2	3.130261E-2	2.294289E-2	2.513687E-2	4.454106E-2	2.120160E-2	4.192847E-2	4.070419E-2	3.536710E-2	2.468961E-2	4.322695E-2	4.415793E-2	3.406790E-2	3.383904E-2	5.268273E-2	2.110864E-2	2.945622E-2	2.811644E-2	3.390948E-2	5.118292E-2	3.229600E-2	3.024501E-2	3.969236E-2	3.046561E-2	3.078910E-2	2.755413E-2	1.877673E-2	3.456351E-2	2.836802E-2	3.740472E-2	2.205956E-2	5.447419E-2	2.369645E-2	3.750310E-2	3.714118E-2	1.073280E-2	3.689575E-2	1.756934E-2	2.421638E-2	1.922794E-2	3.232647E-2	3.592430E-2	3.894578E-2	3.115629E-2	1.250701E-2	3.946774E-2	1.294941E-2	3.212506E-2	1.770314E-2	3.983451E-2	1.052949E-2	2.662845E-2	3.478963E-2	2.850115E-2	3.929008E-2	3.160435E-2	1.797101E-2	3.550630E-2	3.409811E-2	3.047940E-2	1.653153E-2	4.774638E-2	3.262705E-2	2.959341E-2	3.404457E-2	2.455512E-2	5.141627E-2	2.515237E-2	3.665415E-2	2.745741E-2	4.962175E-2	4.614150E-2	2.793097E-2	5.987408E-3	3.511046E-2	4.612005E-2	1.964164E-2	3.078261E-2	3.473095E-2	3.096736E-2	3.651632E-2	3.176192E-2	4.650348E-2	1.056811E-2	4.259348E-2	1.898583E-2	3.683597E-2	2.607036E-2	3.086155E-2	2.439458E-2	4.705116E-2	1.166981E-2	3.157230E-2	2.804170E-2	3.708622E-2	3.852548E-3	3.017130E-2	3.366738E-2	4.388219E-2	3.337986E-2	4.940146E-2	1.521556E-2	5.646770E-2	5.293745E-2
5.340070E+2	7.196378E-2	6.949119E-2	8.111737E-2	1.110228E-1	9.660561E-2	6.883390E-2	7.094332E-2	9.243621E-2	9.897675E-2	7.216269E-2	8.953373E-2	9.649638E-2	6.960462E-2	8.815840E-2	6.736636E-2	8.462690E-2	1.036696E-1	6.992298E-2	9.122264E-2	8.939117E-2	8.898571E-2	7.385231E-2	6.819001E-2	7.254433E-2	7.693397E-2	6.758194E-2	1.044814E-1	1.055381E-1	6.776623E-2	1.043608E-1	1.041151E-1	1.002281E-1	9.177209E-2	8.135006E-2	7.884843E-2	8.350301E-2	1.022109E-1	7.658185E-2	8.543721E-2	7.886676E-2	7.146610E-2	8.986900E-2	6.658210E-2	9.854820E-2	9.976774E-2	7.453045E-2	8.493151E-2	9.055840E-2	7.461781E-2	9.254443E-2	7.746124E-2	7.434960E-2	8.414840E-2	9.181478E-2	8.810366E-2	9.733927E-2	7.257910E-2	7.006158E-2	9.365923E-2	8.532635E-2	8.919674E-2	7.685000E-2	8.706661E-2	6.331247E-2	7.253334E-2	8.999484E-2	8.473694E-2	8.012102E-2	9.022126E-2	7.820501E-2	7.601130E-2	9.145014E-2	8.293939E-2	8.337793E-2	8.021301E-2	8.525858E-2	8.528364E-2	1.042300E-1	8.205256E-2	7.694448E-2	8.448628E-2	6.926861E-2	5.463227E-2	9.833188E-2	8.635809E-2	9.946427E-2	1.025766E-1	7.444650E-2	8.201408E-2	7.099920E-2	9.267676E-2	1.019561E-1	8.317779E-2	8.441514E-2	5.381608E-2	1.024473E-1	8.313106E-2	7.873595E-2	7.027942E-2	6.439094E-2	9.788262E-2	9.230692E-2	8.051541E-2	8.830647E-2	5.208946E-2	8.192145E-2	6.964000E-2	1.036458E-1	8.287908E-2	7.539080E-2	9.026342E-2	7.436515E-2	5.858896E-2	9.919314E-2	6.765191E-2	7.554486E-2	8.583275E-2	9.360422E-2	9.903210E-2	1.072127E-1	1.047838E-1	9.096956E-2	8.021097E-2	7.116284E-2	8.378563E-2	7.934916E-2	8.507213E-2	8.489591E-2	7.437950E-2	8.786341E-2	1.052785E-1	9.395305E-2	9.302338E-2	8.117899E-2	5.981208E-2	7.723271E-2	6.189572E-2	9.499013E-2	9.109362E-2	1.049788E-1	8.713643E-2	7.765456E-2	8.051500E-2	8.988622E-2	7.604331E-2	1.002810E-1	9.522359E-2	9.689924E-2	8.868320E-2	9.146962E-2	8.246483E-2	9.295995E-2	8.723119E-2	9.979933E-2	7.543591E-2	9.399101E-2	7.933099E-2	1.010402E-1	8.406595E-2	7.738804E-2	1.011052E-1	1.097757E-1	9.212308E-2	5.418205E-2	8.322806E-2
5.342040E+2	1.037174E-1	9.513187E-2	9.728417E-2	1.098314E-1	1.063187E-1	8.490076E-2	8.597471E-2	9.133469E-2	7.949300E-2	1.090270E-1	7.634274E-2	9.178118E-2	8.637456E-2	9.502531E-2	9.953458E-2	8.941091E-2	9.884440E-2	9.218961E-2	1.161901E-1	1.081822E-1	9.270993E-2	8.396194E-2	1.045467E-1	8.618349E-2	1.105828E-1	1.227177E-1	7.259640E-2	9.182216E-2	1.060833E-1	9.465319E-2	1.034750E-1	1.072504E-1	1.137058E-1	1.246593E-1	9.618834E-2	1.092796E-1	9.739769E-2	9.901716E-2	9.942266E-2	1.170506E-1	9.554635E-2	9.830146E-2	1.105218E-1	1.040773E-1	9.096158E-2	1.045551E-1	1.195614E-1	1.012233E-1	8.196427E-2	7.460738E-2	9.110726E-2	1.051782E-1	8.314560E-2	9.383104E-2	1.208314E-1	9.124070E-2	1.079312E-1	8.643171E-2	8.528138E-2	8.421320E-2	9.794933E-2	1.085621E-1	8.707439E-2	1.065490E-1	1.022183E-1	9.622453E-2	1.162862E-1	1.269530E-1	7.502362E-2	1.020399E-1	8.982032E-2	1.255125E-1	1.156856E-1	9.458966E-2	7.325431E-2	9.808639E-2	1.052062E-1	1.021478E-1	9.670944E-2	1.028954E-1	1.068152E-1	1.025640E-1	8.941335E-2	7.867330E-2	8.298135E-2	6.889876E-2	9.200498E-2	1.072159E-1	8.178259E-2	1.012962E-1	8.755351E-2	8.978063E-2	8.159519E-2	1.095517E-1	1.165233E-1	1.270391E-1	9.851154E-2	7.926091E-2	1.103938E-1	8.858794E-2	9.713496E-2	7.672348E-2	1.136985E-1	9.619794E-2	1.014088E-1	1.037051E-1	1.177604E-1	9.993017E-2	1.053509E-1	7.872334E-2	1.240576E-1	1.069492E-1	1.077499E-1	8.946192E-2	1.177529E-1	6.174412E-2	1.045576E-1	9.062705E-2	8.367295E-2	9.827149E-2	1.221906E-1	8.522538E-2	9.380112E-2	9.340280E-2	8.719782E-2	7.585459E-2	1.027854E-1	1.283005E-1	9.455939E-2	1.095612E-1	1.115242E-1	1.351392E-1	9.789111E-2	8.033662E-2	1.096697E-1	1.015561E-1	1.136904E-1	1.011801E-1	7.903339E-2	9.656346E-2	9.590773E-2	9.647678E-2	1.082457E-1	1.013668E-1	9.730686E-2	1.199689E-1	7.010578E-2	1.022995E-1	1.041974E-1	9.204378E-2	1.052582E-1	1.165862E-1	6.891906E-2	8.500442E-2	1.178634E-1	1.313920E-1	1.340656E-1	8.675020E-2	1.160153E-1	1.251696E-1	1.137408E-1	8.621605E-2	7.168283E-2	9.369036E-2	1.507168E-1
5.344070E+2	1.104891E-1	1.104629E-1	1.113470E-1	1.131155E-1	1.314480E-1	1.433198E-1	1.109968E-1	9.991572E-2	1.148780E-1	9.258080E-2	1.256100E-1	1.247937E-1	1.320570E-1	1.498727E-1	1.194910E-1	1.054458E-1	1.305419E-1	1.519799E-1	1.177139E-1	1.191503E-1	1.173967E-1	9.556131E-2	1.028041E-1	1.272291E-1	1.658023E-1	1.228757E-1	1.285863E-1	1.265148E-1	1.288015E-1	1.389791E-1	1.321527E-1	1.183603E-1	1.307259E-1	1.321914E-1	1.217576E-1	1.606024E-1	1.243545E-1	1.414061E-1	1.162785E-1	1.381510E-1	1.478508E-1	1.305973E-1	1.652617E-1	1.407418E-1	1.424956E-1	1.162415E-1	1.465982E-1	1.383724E-1	1.383508E-1	1.375306E-1	1.413149E-1	1.036629E-1	1.119584E-1	1.328123E-1	1.205127E-1	1.299084E-1	1.384392E-1	1.237488E-1	1.490389E-1	1.245132E-1	1.298297E-1	1.413198E-1	1.381755E-1	1.328200E-1	1.407692E-1	1.283050E-1	1.215417E-1	1.185488E-1	1.387615E-1	1.243261E-1	1.271572E-1	1.350696E-1	1.382808E-1	1.430859E-1	1.483580E-1	1.183571E-1	1.198087E-1	1.204775E-1	1.279831E-1	1.433803E-1	1.386761E-1	1.430615E-1	1.284959E-1	1.243577E-1	1.408600E-1	1.148551E-1	1.431658E-1	1.379478E-1	1.454660E-1	1.320456E-1	1.426746E-1	1.229727E-1	1.405573E-1	1.504984E-1	1.220974E-1	1.627305E-1	1.137978E-1	1.208494E-1	1.297161E-1	1.159769E-1	1.210822E-1	1.349569E-1	1.153216E-1	1.053931E-1	1.422117E-1	1.258514E-1	1.376383E-1	1.246717E-1	1.120688E-1	1.397928E-1	1.432793E-1	1.086162E-1	1.044331E-1	1.116638E-1	1.508833E-1	1.227069E-1	1.064136E-1	1.064101E-1	1.281183E-1	1.526398E-1	1.180443E-1	1.077556E-1	1.455469E-1	1.337870E-1	1.476728E-1	1.182131E-1	1.503110E-1	1.045966E-1	1.275368E-1	1.570926E-1	1.369562E-1	1.415967E-1	1.366822E-1	1.361872E-1	1.600650E-1	1.210366E-1	1.249973E-1	1.210219E-1	1.378865E-1	1.448306E-1	1.258411E-1	1.150009E-1	1.503419E-1	1.405215E-1	1.286017E-1	1.525495E-1	1.498498E-1	1.379013E-1	1.295709E-1	1.488877E-1	1.110601E-1	1.324417E-1	1.475987E-1	1.538538E-1	1.187954E-1	1.220999E-1	1.242566E-1	1.290561E-1	1.649016E-1	1.245766E-1	1.087607E-1	1.355492E-1	1.523594E-1	5.848010E-2	9.229819E-2
5.346150E+2	1.617204E-1	1.772170E-1	2.034279E-1	1.902794E-1	1.979539E-1	2.001686E-1	2.027258E-1	2.124522E-1	1.742637E-1	1.897574E-1	1.874591E-1	2.011376E-1	2.090958E-1	1.871801E-1	1.618627E-1	1.844411E-1	1.932364E-1	1.839910E-1	2.389050E-1	1.924286E-1	1.900058E-1	1.871716E-1	2.258660E-1	1.943347E-1	2.067519E-1	2.062784E-1	2.240997E-1	2.342650E-1	2.177003E-1	2.133091E-1	2.085867E-1	2.123794E-1	1.967095E-1	2.008978E-1	1.874060E-1	2.176157E-1	2.220399E-1	2.006152E-1	1.885339E-1	2.026158E-1	2.119994E-1	2.131882E-1	2.124512E-1	2.148957E-1	2.162013E-1	2.005571E-1	2.183397E-1	1.915629E-1	1.912920E-1	2.058484E-1	2.113139E-1	2.193508E-1	2.213190E-1	2.208643E-1	2.025131E-1	2.180196E-1	2.341223E-1	1.948623E-1	2.037371E-1	2.161364E-1	2.345676E-1	2.051942E-1	2.157954E-1	1.961485E-1	2.373471E-1	2.267369E-1	1.980254E-1	1.942957E-1	2.147633E-1	1.996951E-1	1.929624E-1	2.361314E-1	2.075492E-1	2.179083E-1	2.098179E-1	2.190812E-1	2.103157E-1	2.134887E-1	1.928834E-1	2.097321E-1	2.045176E-1	2.435806E-1	2.386425E-1	2.362654E-1	2.311177E-1	2.326475E-1	2.205541E-1	2.009122E-1	2.230143E-1	2.548483E-1	2.214402E-1	2.074776E-1	2.220535E-1	2.052307E-1	2.156881E-1	2.202217E-1	2.081905E-1	2.168302E-1	2.199789E-1	2.158697E-1	2.225677E-1	2.131750E-1	2.004142E-1	1.986281E-1	2.236611E-1	2.155295E-1	2.190514E-1	1.992540E-1	2.302743E-1	2.046493E-1	2.150812E-1	2.304235E-1	2.176006E-1	2.175289E-1	2.040470E-1	2.069211E-1	2.396643E-1	2.007583E-1	2.457836E-1	2.104321E-1	2.364492E-1	2.019868E-1	2.171946E-1	1.999335E-1	2.189828E-1	2.131896E-1	2.368865E-1	2.041411E-1	1.993142E-1	2.261539E-1	1.962441E-1	2.426306E-1	2.215044E-1	2.286209E-1	2.011208E-1	2.014759E-1	2.069621E-1	2.275013E-1	1.956406E-1	2.104137E-1	2.382461E-1	2.131804E-1	2.257872E-1	2.581845E-1	2.424033E-1	2.294276E-1	2.131081E-1	2.196909E-1	2.204320E-1	2.044336E-1	1.998683E-1	2.386253E-1	2.339654E-1	2.334561E-1	2.489048E-1	2.038901E-1	2.271267E-1	1.993600E-1	2.181553E-1	2.196312E-1	2.335210E-1	2.071557E-1	1.969709E-1	1.888176E-1	2.050486E-1
5.348180E+2	3.999895E-1	3.822409E-1	3.800784E-1	4.484702E-1	4.559329E-1	4.309640E-1	4.037467E-1	4.110948E-1	4.174588E-1	4.068222E-1	3.924639E-1	4.087041E-1	4.371804E-1	4.026898E-1	4.066386E-1	4.207437E-1	4.028149E-1	4.102077E-1	4.298938E-1	4.073589E-1	4.581184E-1	4.656118E-1	4.489894E-1	4.091099E-1	4.320923E-1	4.496665E-1	4.182891E-1	4.467268E-1	4.299000E-1	4.014679E-1	4.044470E-1	4.200134E-1	4.642771E-1	4.512837E-1	4.278602E-1	4.401310E-1	4.419042E-1	4.776418E-1	4.448136E-1	3.800825E-1	4.573774E-1	4.248675E-1	4.374498E-1	4.244904E-1	4.574631E-1	4.484638E-1	4.090763E-1	4.262533E-1	4.209413E-1	4.461870E-1	4.210098E-1	4.624029E-1	4.151302E-1	4.350542E-1	4.518758E-1	4.473648E-1	4.344382E-1	4.682756E-1	4.467780E-1	4.180470E-1	4.119070E-1	4.271440E-1	4.649046E-1	4.128124E-1	4.666869E-1	4.136215E-1	4.315851E-1	4.308915E-1	4.152028E-1	4.357328E-1	4.488937E-1	4.489291E-1	4.563277E-1	4.823889E-1	4.110293E-1	4.150348E-1	4.408376E-1	4.147200E-1	4.875094E-1	4.178351E-1	4.538935E-1	4.398871E-1	4.477023E-1	4.375999E-1	4.268804E-1	4.191467E-1	4.817274E-1	4.334486E-1	4.700872E-1	4.233878E-1	4.409248E-1	4.298142E-1	4.239714E-1	4.510710E-1	4.765573E-1	4.696523E-1	4.219327E-1	4.421069E-1	4.458388E-1	4.334672E-1	4.343131E-1	4.062981E-1	4.682732E-1	4.138050E-1	4.546593E-1	4.438350E-1	4.522249E-1	4.391941E-1	4.342460E-1	4.384589E-1	4.273920E-1	4.391568E-1	4.035684E-1	4.488448E-1	4.343627E-1	4.406453E-1	4.599875E-1	4.255809E-1	4.272483E-1	4.256515E-1	4.637123E-1	4.508331E-1	3.910899E-1	4.192286E-1	4.667688E-1	4.103311E-1	4.506136E-1	4.451693E-1	4.195908E-1	4.267602E-1	4.513131E-1	3.992446E-1	4.339387E-1	4.074731E-1	4.205338E-1	3.874293E-1	4.376883E-1	4.474322E-1	4.091960E-1	4.238815E-1	4.800083E-1	4.203327E-1	4.370410E-1	4.895683E-1	4.493536E-1	4.530932E-1	4.523866E-1	4.642400E-1	4.275666E-1	4.730236E-1	4.139171E-1	4.631937E-1	4.393654E-1	4.487072E-1	4.181312E-1	4.098240E-1	4.680354E-1	4.053029E-1	4.350847E-1	3.973283E-1	4.009483E-1	4.549645E-1	4.459560E-1	3.885930E-1	4.645791E-1
5.350100E+2	7.445745E-1	7.755237E-1	8.256122E-1	7.846441E-1	8.470477E-1	7.974138E-1	8.224635E-1	7.950498E-1	7.833876E-1	7.998074E-1	8.287941E-1	8.097156E-1	8.156993E-1	7.467846E-1	7.665670E-1	8.081727E-1	8.220598E-1	7.592916E-1	8.578622E-1	8.588017E-1	8.377551E-1	8.355910E-1	7.795848E-1	7.912714E-1	8.334403E-1	8.156387E-1	8.277628E-1	8.741666E-1	8.134401E-1	8.029862E-1	8.332428E-1	8.025213E-1	8.152392E-1	8.382820E-1	8.083035E-1	8.206544E-1	8.285888E-1	9.097953E-1	8.208236E-1	8.292865E-1	8.428035E-1	7.972905E-1	8.962912E-1	8.385886E-1	8.588948E-1	8.237483E-1	8.668428E-1	8.483540E-1	8.212959E-1	8.136637E-1	8.587045E-1	8.744499E-1	8.066986E-1	8.295049E-1	8.431359E-1	8.248633E-1	9.310261E-1	8.173957E-1	8.475172E-1	7.946424E-1	8.343388E-1	8.469466E-1	8.169673E-1	7.884798E-1	8.748199E-1	8.426022E-1	8.233837E-1	8.596515E-1	8.084871E-1	7.708817E-1	8.348830E-1	8.384165E-1	8.393927E-1	8.113738E-1	8.427772E-1	8.646120E-1	8.636375E-1	8.580727E-1	8.541124E-1	8.262621E-1	8.248898E-1	7.638331E-1	8.270464E-1	8.140250E-1	8.345498E-1	8.112993E-1	8.308068E-1	8.240310E-1	8.320413E-1	8.352054E-1	8.117775E-1	8.505248E-1	8.408596E-1	8.439709E-1	8.238926E-1	8.507268E-1	8.048415E-1	8.337157E-1	8.417556E-1	8.471320E-1	7.859194E-1	8.849083E-1	8.178090E-1	7.830120E-1	8.397188E-1	8.289433E-1	8.057868E-1	8.398495E-1	8.121136E-1	8.063943E-1	8.642553E-1	8.764182E-1	8.593791E-1	8.091715E-1	8.747660E-1	8.449189E-1	7.891685E-1	7.418582E-1	7.981456E-1	8.371879E-1	7.675805E-1	8.168712E-1	8.195097E-1	8.141976E-1	8.121240E-1	8.034494E-1	7.955777E-1	8.187914E-1	8.352829E-1	8.773088E-1	8.397204E-1	8.180647E-1	8.327782E-1	7.875594E-1	7.450147E-1	8.030098E-1	8.261604E-1	8.393142E-1	8.124514E-1	7.639068E-1	8.963169E-1	7.620568E-1	8.092968E-1	8.808644E-1	8.108334E-1	8.468926E-1	7.736876E-1	8.384937E-1	8.312692E-1	8.190871E-1	8.320919E-1	8.183320E-1	8.050199E-1	7.987013E-1	8.014726E-1	8.591384E-1	7.862176E-1	8.330172E-1	7.966327E-1	8.181483E-1	8.205898E-1	8.675860E-1	7.641857E-1	8.219785E-1	8.517124E-1
5.352080E+2	1.125857E+0	1.207487E+0	1.168626E+0	1.162666E+0	1.168327E+0	1.190662E+0	1.122320E+0	1.115817E+0	1.200355E+0	1.186213E+0	1.106482E+0	1.168183E+0	1.174330E+0	1.121273E+0	1.131266E+0	1.193108E+0	1.117274E+0	1.191950E+0	1.192177E+0	1.185780E+0	1.146393E+0	1.177951E+0	1.178336E+0	1.114124E+0	1.161234E+0	1.183877E+0	1.133885E+0	1.168534E+0	1.142469E+0	1.168343E+0	1.169418E+0	1.138361E+0	1.137103E+0	1.208787E+0	1.208624E+0	1.203900E+0	1.142709E+0	1.231360E+0	1.117856E+0	1.114882E+0	1.181515E+0	1.174579E+0	1.156438E+0	1.189808E+0	1.213764E+0	1.142245E+0	1.212576E+0	1.206920E+0	1.172849E+0	1.114391E+0	1.126604E+0	1.186383E+0	1.131286E+0	1.136640E+0	1.239964E+0	1.176173E+0	1.184358E+0	1.138411E+0	1.151483E+0	1.202997E+0	1.150816E+0	1.205631E+0	1.164341E+0	1.161166E+0	1.186362E+0	1.171761E+0	1.170279E+0	1.160649E+0	1.192251E+0	1.177255E+0	1.239663E+0	1.189123E+0	1.182489E+0	1.155401E+0	1.197597E+0	1.194981E+0	1.185976E+0	1.196182E+0	1.200306E+0	1.198063E+0	1.169302E+0	1.192883E+0	1.197892E+0	1.106555E+0	1.148515E+0	1.135369E+0	1.158621E+0	1.110946E+0	1.249869E+0	1.183976E+0	1.199462E+0	1.123862E+0	1.179249E+0	1.109549E+0	1.142342E+0	1.189541E+0	1.132276E+0	1.159421E+0	1.154717E+0	1.105168E+0	1.152834E+0	1.128232E+0	1.148866E+0	1.182453E+0	1.193792E+0	1.151633E+0	1.136637E+0	1.186347E+0	1.166549E+0	1.153081E+0	1.195087E+0	1.175138E+0	1.174988E+0	1.212868E+0	1.166806E+0	1.230064E+0	1.135188E+0	1.138802E+0	1.164049E+0	1.188745E+0	1.205853E+0	1.152604E+0	1.091637E+0	1.146190E+0	1.157447E+0	1.131898E+0	1.158025E+0	1.130573E+0	1.213360E+0	1.212616E+0	1.132146E+0	1.097631E+0	1.151693E+0	1.124087E+0	1.124455E+0	1.151695E+0	1.153893E+0	1.138919E+0	1.143964E+0	1.160690E+0	1.269713E+0	1.090769E+0	1.178713E+0	1.183281E+0	1.117675E+0	1.210232E+0	1.152660E+0	1.164214E+0	1.189574E+0	1.242164E+0	1.120701E+0	1.208858E+0	1.153189E+0	1.126270E+0	1.115136E+0	1.120442E+0	1.207916E+0	1.135598E+0	1.132825E+0	1.133352E+0	1.144611E+0	1.177069E+0	1.167342E+0	1.133709E+0	1.150731E+0
5.354110E+2	1.396437E+0	1.335101E+0	1.399954E+0	1.412159E+0	1.419212E+0	1.352118E+0	1.389985E+0	1.371638E+0	1.391998E+0	1.317223E+0	1.353120E+0	1.388680E+0	1.378054E+0	1.387043E+0	1.453805E+0	1.334464E+0	1.333136E+0	1.335373E+0	1.390738E+0	1.425258E+0	1.372959E+0	1.395401E+0	1.354212E+0	1.401716E+0	1.400220E+0	1.373290E+0	1.402350E+0	1.450786E+0	1.384827E+0	1.348215E+0	1.400022E+0	1.384666E+0	1.437946E+0	1.404583E+0	1.296274E+0	1.392576E+0	1.394602E+0	1.433196E+0	1.291439E+0	1.361661E+0	1.319374E+0	1.392693E+0	1.413126E+0	1.342569E+0	1.414352E+0	1.407261E+0	1.391750E+0	1.344631E+0	1.318603E+0	1.397691E+0	1.376147E+0	1.414473E+0	1.299938E+0	1.375277E+0	1.387942E+0	1.400428E+0	1.400287E+0	1.318519E+0	1.342663E+0	1.367356E+0	1.321548E+0	1.381169E+0	1.333829E+0	1.382807E+0	1.398174E+0	1.345841E+0	1.393645E+0	1.324821E+0	1.419843E+0	1.323438E+0	1.370917E+0	1.429632E+0	1.413834E+0	1.314180E+0	1.305229E+0	1.415266E+0	1.436971E+0	1.343236E+0	1.398302E+0	1.382620E+0	1.381328E+0	1.414398E+0	1.269424E+0	1.338501E+0	1.311735E+0	1.301050E+0	1.391170E+0	1.395902E+0	1.407234E+0	1.311250E+0	1.296154E+0	1.433750E+0	1.334766E+0	1.371287E+0	1.392438E+0	1.394306E+0	1.335537E+0	1.314927E+0	1.360603E+0	1.330363E+0	1.357508E+0	1.364616E+0	1.325086E+0	1.333214E+0	1.415340E+0	1.361041E+0	1.324145E+0	1.376590E+0	1.350180E+0	1.370167E+0	1.388757E+0	1.335197E+0	1.387688E+0	1.416528E+0	1.320380E+0	1.361292E+0	1.354307E+0	1.378909E+0	1.353786E+0	1.385887E+0	1.388777E+0	1.354971E+0	1.340901E+0	1.412187E+0	1.363527E+0	1.329438E+0	1.371587E+0	1.330838E+0	1.401241E+0	1.363820E+0	1.377176E+0	1.382388E+0	1.354045E+0	1.401826E+0	1.351048E+0	1.353782E+0	1.357550E+0	1.318362E+0	1.295712E+0	1.341911E+0	1.428357E+0	1.297537E+0	1.386434E+0	1.396512E+0	1.350469E+0	1.366012E+0	1.350855E+0	1.353022E+0	1.353377E+0	1.398321E+0	1.350145E+0	1.403763E+0	1.397475E+0	1.396928E+0	1.351968E+0	1.408238E+0	1.415412E+0	1.405503E+0	1.438308E+0	1.345273E+0	1.329701E+0	1.328757E+0	1.366053E+0	1.436927E+0	1.398474E+0
5.356150E+2	1.439006E+0	1.435636E+0	1.485068E+0	1.499424E+0	1.482368E+0	1.508060E+0	1.493312E+0	1.451683E+0	1.482033E+0	1.438134E+0	1.462425E+0	1.449074E+0	1.474873E+0	1.424888E+0	1.506335E+0	1.455467E+0	1.440904E+0	1.480349E+0	1.416279E+0	1.441659E+0	1.458411E+0	1.463757E+0	1.449256E+0	1.465957E+0	1.468429E+0	1.443458E+0	1.451736E+0	1.510919E+0	1.419002E+0	1.426910E+0	1.462643E+0	1.466841E+0	1.408868E+0	1.527989E+0	1.423850E+0	1.477954E+0	1.476326E+0	1.523508E+0	1.401122E+0	1.429456E+0	1.493708E+0	1.435246E+0	1.443148E+0	1.420416E+0	1.460764E+0	1.521885E+0	1.474011E+0	1.403946E+0	1.422616E+0	1.416799E+0	1.438090E+0	1.440162E+0	1.403420E+0	1.481473E+0	1.440543E+0	1.397728E+0	1.481299E+0	1.440582E+0	1.411367E+0	1.394251E+0	1.403836E+0	1.452220E+0	1.439890E+0	1.487451E+0	1.433354E+0	1.523344E+0	1.438203E+0	1.433967E+0	1.470117E+0	1.422876E+0	1.472632E+0	1.494867E+0	1.491422E+0	1.476734E+0	1.466875E+0	1.463549E+0	1.491641E+0	1.437583E+0	1.438224E+0	1.489117E+0	1.473308E+0	1.422225E+0	1.418430E+0	1.438340E+0	1.459879E+0	1.431978E+0	1.480338E+0	1.456747E+0	1.466805E+0	1.487732E+0	1.480587E+0	1.509825E+0	1.409975E+0	1.445733E+0	1.457452E+0	1.401283E+0	1.390378E+0	1.398666E+0	1.436601E+0	1.379636E+0	1.371505E+0	1.484616E+0	1.407772E+0	1.401076E+0	1.437616E+0	1.452756E+0	1.436528E+0	1.479126E+0	1.399107E+0	1.450292E+0	1.456818E+0	1.437626E+0	1.407456E+0	1.427000E+0	1.473058E+0	1.430211E+0	1.432746E+0	1.404299E+0	1.446679E+0	1.468179E+0	1.420048E+0	1.435811E+0	1.494802E+0	1.460513E+0	1.486849E+0	1.393612E+0	1.489780E+0	1.470339E+0	1.462623E+0	1.392791E+0	1.454581E+0	1.402660E+0	1.432496E+0	1.348714E+0	1.420699E+0	1.434805E+0	1.408911E+0	1.424084E+0	1.406149E+0	1.394142E+0	1.531617E+0	1.457717E+0	1.409954E+0	1.509706E+0	1.463284E+0	1.440372E+0	1.421292E+0	1.462505E+0	1.462651E+0	1.445831E+0	1.502125E+0	1.432724E+0	1.469173E+0	1.431522E+0	1.514773E+0	1.466300E+0	1.530868E+0	1.485860E+0	1.407737E+0	1.415327E+0	1.406430E+0	1.531377E+0	1.360920E+0	1.484304E+0	1.623893E+0
5.358130E+2	1.631679E+0	1.589024E+0	1.576717E+0	1.561523E+0	1.583537E+0	1.595338E+0	1.587296E+0	1.522465E+0	1.542758E+0	1.620362E+0	1.590225E+0	1.587504E+0	1.668350E+0	1.484101E+0	1.620852E+0	1.582042E+0	1.631406E+0	1.495312E+0	1.569001E+0	1.575458E+0	1.524122E+0	1.592738E+0	1.618416E+0	1.609876E+0	1.566109E+0	1.568473E+0	1.605967E+0	1.634010E+0	1.516917E+0	1.604683E+0	1.580833E+0	1.579899E+0	1.500663E+0	1.601136E+0	1.485788E+0	1.616876E+0	1.507835E+0	1.636426E+0	1.470915E+0	1.532041E+0	1.461919E+0	1.462391E+0	1.571059E+0	1.506451E+0	1.530512E+0	1.544683E+0	1.585797E+0	1.528400E+0	1.533141E+0	1.525808E+0	1.577401E+0	1.596715E+0	1.505708E+0	1.555122E+0	1.573132E+0	1.637232E+0	1.646581E+0	1.544391E+0	1.543448E+0	1.457942E+0	1.551231E+0	1.578651E+0	1.645768E+0	1.514301E+0	1.528667E+0	1.587995E+0	1.580381E+0	1.554817E+0	1.551583E+0	1.500209E+0	1.596217E+0	1.671059E+0	1.591038E+0	1.536007E+0	1.515210E+0	1.545568E+0	1.590445E+0	1.596274E+0	1.507430E+0	1.620857E+0	1.554069E+0	1.581561E+0	1.528366E+0	1.485574E+0	1.572123E+0	1.485058E+0	1.572091E+0	1.519873E+0	1.567720E+0	1.542481E+0	1.572006E+0	1.530187E+0	1.589007E+0	1.502186E+0	1.550169E+0	1.568851E+0	1.532217E+0	1.529737E+0	1.570728E+0	1.566075E+0	1.477217E+0	1.623264E+0	1.520755E+0	1.527702E+0	1.515676E+0	1.556085E+0	1.539394E+0	1.550965E+0	1.527041E+0	1.535422E+0	1.594316E+0	1.570350E+0	1.491337E+0	1.574134E+0	1.546546E+0	1.580184E+0	1.566198E+0	1.554363E+0	1.595642E+0	1.544254E+0	1.585001E+0	1.526230E+0	1.519678E+0	1.550864E+0	1.593799E+0	1.564509E+0	1.535504E+0	1.536549E+0	1.537347E+0	1.590647E+0	1.611450E+0	1.555125E+0	1.534167E+0	1.518179E+0	1.462156E+0	1.545740E+0	1.509716E+0	1.560876E+0	1.494941E+0	1.558145E+0	1.639125E+0	1.533220E+0	1.548346E+0	1.567264E+0	1.529110E+0	1.583977E+0	1.522767E+0	1.579291E+0	1.548445E+0	1.618372E+0	1.442270E+0	1.520501E+0	1.510583E+0	1.505571E+0	1.574107E+0	1.574757E+0	1.556331E+0	1.558024E+0	1.568053E+0	1.587315E+0	1.484449E+0	1.549653E+0	1.560370E+0	1.684633E+0	1.586544E+0
5.360120E+2	1.659550E+0	1.745788E+0	1.661816E+0	1.762259E+0	1.770293E+0	1.772268E+0	1.670870E+0	1.660512E+0	1.744833E+0	1.732094E+0	1.743486E+0	1.705387E+0	1.669690E+0	1.656059E+0	1.729917E+0	1.681362E+0	1.654264E+0	1.693655E+0	1.725181E+0	1.692009E+0	1.710528E+0	1.706186E+0	1.654423E+0	1.737260E+0	1.696860E+0	1.691114E+0	1.749463E+0	1.713062E+0	1.682719E+0	1.677801E+0	1.698322E+0	1.656584E+0	1.657285E+0	1.705651E+0	1.700277E+0	1.733412E+0	1.640633E+0	1.788067E+0	1.700199E+0	1.632912E+0	1.689887E+0	1.769051E+0	1.669301E+0	1.674950E+0	1.710709E+0	1.791000E+0	1.687838E+0	1.722566E+0	1.635986E+0	1.670243E+0	1.713314E+0	1.664425E+0	1.691918E+0	1.649591E+0	1.643300E+0	1.722500E+0	1.721092E+0	1.660282E+0	1.701423E+0	1.621689E+0	1.729268E+0	1.706042E+0	1.681901E+0	1.748901E+0	1.701125E+0	1.741749E+0	1.623012E+0	1.655991E+0	1.730521E+0	1.584581E+0	1.732717E+0	1.748897E+0	1.624557E+0	1.661956E+0	1.630278E+0	1.789636E+0	1.740813E+0	1.667864E+0	1.700827E+0	1.711942E+0	1.687945E+0	1.705182E+0	1.729991E+0	1.670763E+0	1.721413E+0	1.662737E+0	1.719721E+0	1.621502E+0	1.726182E+0	1.718811E+0	1.634777E+0	1.673449E+0	1.649979E+0	1.707097E+0	1.721266E+0	1.724770E+0	1.738523E+0	1.701139E+0	1.764002E+0	1.700116E+0	1.659969E+0	1.665171E+0	1.638377E+0	1.704995E+0	1.638158E+0	1.627126E+0	1.668182E+0	1.694073E+0	1.674898E+0	1.639563E+0	1.720625E+0	1.753990E+0	1.701914E+0	1.698061E+0	1.662710E+0	1.678874E+0	1.686164E+0	1.695788E+0	1.678378E+0	1.762710E+0	1.664005E+0	1.679754E+0	1.671402E+0	1.701234E+0	1.716371E+0	1.652440E+0	1.673751E+0	1.722026E+0	1.645920E+0	1.647520E+0	1.693837E+0	1.638644E+0	1.720137E+0	1.656726E+0	1.603208E+0	1.646643E+0	1.660780E+0	1.609491E+0	1.626612E+0	1.620818E+0	1.669319E+0	1.609580E+0	1.685749E+0	1.724861E+0	1.647986E+0	1.646751E+0	1.657515E+0	1.697852E+0	1.729746E+0	1.769870E+0	1.615740E+0	1.751904E+0	1.676748E+0	1.672388E+0	1.735891E+0	1.695167E+0	1.724650E+0	1.680574E+0	1.672985E+0	1.664178E+0	1.645837E+0	1.625367E+0	1.562083E+0	1.735645E+0	1.790758E+0
5.362050E+2	1.681122E+0	1.682578E+0	1.740215E+0	1.713123E+0	1.708503E+0	1.778703E+0	1.711718E+0	1.686774E+0	1.672018E+0	1.724225E+0	1.719445E+0	1.752369E+0	1.689396E+0	1.738441E+0	1.661124E+0	1.763936E+0	1.674768E+0	1.689476E+0	1.765688E+0	1.748268E+0	1.772994E+0	1.828223E+0	1.705246E+0	1.711557E+0	1.711120E+0	1.742018E+0	1.757825E+0	1.712690E+0	1.705244E+0	1.673932E+0	1.751378E+0	1.660687E+0	1.657024E+0	1.680430E+0	1.740840E+0	1.702156E+0	1.624457E+0	1.859466E+0	1.574213E+0	1.755544E+0	1.652423E+0	1.687611E+0	1.706563E+0	1.752133E+0	1.738953E+0	1.798042E+0	1.735869E+0	1.659316E+0	1.653586E+0	1.683283E+0	1.751929E+0	1.763307E+0	1.687255E+0	1.738376E+0	1.684022E+0	1.798733E+0	1.715199E+0	1.747134E+0	1.743523E+0	1.639068E+0	1.674216E+0	1.764614E+0	1.687282E+0	1.747525E+0	1.791212E+0	1.748009E+0	1.728208E+0	1.742584E+0	1.765844E+0	1.650371E+0	1.681325E+0	1.710600E+0	1.782330E+0	1.747700E+0	1.744077E+0	1.739384E+0	1.843141E+0	1.697852E+0	1.699311E+0	1.767438E+0	1.664058E+0	1.735106E+0	1.709326E+0	1.738630E+0	1.716168E+0	1.664086E+0	1.746953E+0	1.682663E+0	1.748096E+0	1.706690E+0	1.675286E+0	1.734279E+0	1.736044E+0	1.674299E+0	1.737849E+0	1.704368E+0	1.703854E+0	1.697539E+0	1.740688E+0	1.694122E+0	1.618778E+0	1.718845E+0	1.613400E+0	1.680615E+0	1.646799E+0	1.738403E+0	1.705533E+0	1.735647E+0	1.681310E+0	1.728259E+0	1.744165E+0	1.742898E+0	1.735082E+0	1.754508E+0	1.750951E+0	1.649363E+0	1.700872E+0	1.665398E+0	1.734103E+0	1.778023E+0	1.649270E+0	1.637082E+0	1.723361E+0	1.722047E+0	1.708451E+0	1.651169E+0	1.762778E+0	1.741218E+0	1.733864E+0	1.690928E+0	1.729841E+0	1.683863E+0	1.665732E+0	1.623466E+0	1.697716E+0	1.670392E+0	1.713708E+0	1.662741E+0	1.697989E+0	1.664969E+0	1.755066E+0	1.659005E+0	1.757089E+0	1.765321E+0	1.681000E+0	1.721356E+0	1.689681E+0	1.667435E+0	1.755147E+0	1.767344E+0	1.669921E+0	1.711487E+0	1.632547E+0	1.685211E+0	1.641051E+0	1.767238E+0	1.751830E+0	1.661729E+0	1.663772E+0	1.611056E+0	1.660357E+0	1.694343E+0	1.682667E+0	1.724413E+0	1.768444E+0
5.364090E+2	1.434195E+0	1.517479E+0	1.446380E+0	1.433895E+0	1.460333E+0	1.473766E+0	1.379052E+0	1.419614E+0	1.377428E+0	1.392092E+0	1.452350E+0	1.419837E+0	1.456040E+0	1.409477E+0	1.445432E+0	1.432046E+0	1.408451E+0	1.380746E+0	1.446360E+0	1.452695E+0	1.424919E+0	1.472855E+0	1.398900E+0	1.431052E+0	1.381016E+0	1.418779E+0	1.495116E+0	1.468077E+0	1.447300E+0	1.394427E+0	1.506307E+0	1.400812E+0	1.336564E+0	1.472998E+0	1.396332E+0	1.388064E+0	1.445080E+0	1.485943E+0	1.411567E+0	1.466432E+0	1.424373E+0	1.413749E+0	1.429613E+0	1.405108E+0	1.439312E+0	1.430372E+0	1.422555E+0	1.412715E+0	1.417251E+0	1.357493E+0	1.481728E+0	1.418849E+0	1.359736E+0	1.455466E+0	1.455470E+0	1.427231E+0	1.411258E+0	1.470832E+0	1.408764E+0	1.393424E+0	1.417799E+0	1.456461E+0	1.444119E+0	1.400572E+0	1.459628E+0	1.430907E+0	1.452739E+0	1.424750E+0	1.476381E+0	1.398532E+0	1.413466E+0	1.479162E+0	1.489774E+0	1.442353E+0	1.427067E+0	1.446799E+0	1.466664E+0	1.394563E+0	1.458961E+0	1.479142E+0	1.405567E+0	1.399679E+0	1.431191E+0	1.399350E+0	1.497983E+0	1.429311E+0	1.422625E+0	1.480860E+0	1.445208E+0	1.415336E+0	1.499217E+0	1.426169E+0	1.431274E+0	1.418803E+0	1.425269E+0	1.486353E+0	1.424892E+0	1.352533E+0	1.458991E+0	1.365117E+0	1.368241E+0	1.485337E+0	1.419737E+0	1.365658E+0	1.427876E+0	1.461954E+0	1.358844E+0	1.394322E+0	1.421182E+0	1.452051E+0	1.487870E+0	1.451811E+0	1.460638E+0	1.438035E+0	1.393843E+0	1.421594E+0	1.405995E+0	1.422406E+0	1.494427E+0	1.443736E+0	1.362764E+0	1.468467E+0	1.396610E+0	1.375171E+0	1.406736E+0	1.431487E+0	1.487701E+0	1.367115E+0	1.430832E+0	1.425502E+0	1.401331E+0	1.492232E+0	1.369377E+0	1.407975E+0	1.395526E+0	1.411158E+0	1.480685E+0	1.395533E+0	1.369048E+0	1.439895E+0	1.499473E+0	1.405286E+0	1.436869E+0	1.497566E+0	1.396136E+0	1.563027E+0	1.378842E+0	1.462902E+0	1.442427E+0	1.476411E+0	1.444191E+0	1.419980E+0	1.458931E+0	1.431945E+0	1.427242E+0	1.511147E+0	1.465421E+0	1.401739E+0	1.385944E+0	1.437020E+0	1.341065E+0	1.383772E+0	1.399834E+0	1.556189E+0	1.474494E+0
5.366080E+2	1.143093E+0	1.085183E+0	1.130697E+0	1.207869E+0	1.157503E+0	1.113595E+0	1.150016E+0	1.064225E+0	1.184009E+0	1.140952E+0	1.148131E+0	1.177284E+0	1.196308E+0	1.112143E+0	1.188469E+0	1.145613E+0	1.189151E+0	1.149961E+0	1.208997E+0	1.151813E+0	1.194535E+0	1.132312E+0	1.124724E+0	1.063996E+0	1.170046E+0	1.098815E+0	1.142309E+0	1.211443E+0	1.078361E+0	1.141104E+0	1.190351E+0	1.196570E+0	1.160113E+0	1.195810E+0	1.202321E+0	1.144127E+0	1.142076E+0	1.176505E+0	1.102955E+0	1.118572E+0	1.125165E+0	1.116829E+0	1.162172E+0	1.172011E+0	1.183909E+0	1.146270E+0	1.154750E+0	1.138255E+0	1.090316E+0	1.155473E+0	1.166997E+0	1.176086E+0	1.139503E+0	1.140659E+0	1.167234E+0	1.207100E+0	1.197852E+0	1.084906E+0	1.203153E+0	1.146806E+0	1.150100E+0	1.179712E+0	1.149154E+0	1.151256E+0	1.145930E+0	1.200909E+0	1.172963E+0	1.099215E+0	1.195743E+0	1.118860E+0	1.126467E+0	1.201477E+0	1.211910E+0	1.154305E+0	1.133382E+0	1.239697E+0	1.188809E+0	1.211724E+0	1.210694E+0	1.253955E+0	1.155819E+0	1.158017E+0	1.151665E+0	1.082421E+0	1.123317E+0	1.169485E+0	1.210756E+0	1.137270E+0	1.153038E+0	1.180995E+0	1.168041E+0	1.099621E+0	1.150089E+0	1.173752E+0	1.104704E+0	1.153332E+0	1.157627E+0	1.184592E+0	1.171381E+0	1.083920E+0	1.086065E+0	1.216842E+0	1.103374E+0	1.095322E+0	1.168219E+0	1.144776E+0	1.164526E+0	1.161919E+0	1.085867E+0	1.155688E+0	1.220932E+0	1.151321E+0	1.204321E+0	1.138670E+0	1.218103E+0	1.122837E+0	1.148686E+0	1.111330E+0	1.103718E+0	1.197976E+0	1.133833E+0	1.140729E+0	1.166693E+0	1.163123E+0	1.196557E+0	1.121360E+0	1.201703E+0	1.146959E+0	1.107126E+0	1.129504E+0	1.116036E+0	1.140356E+0	1.140922E+0	1.137318E+0	1.123213E+0	1.182165E+0	1.161291E+0	1.210884E+0	1.073091E+0	1.151358E+0	1.171772E+0	1.089338E+0	1.146988E+0	1.195181E+0	1.168516E+0	1.170522E+0	1.167907E+0	1.196218E+0	1.191025E+0	1.163943E+0	1.163197E+0	1.192384E+0	1.135646E+0	1.126769E+0	1.112831E+0	1.152875E+0	1.163174E+0	1.167310E+0	1.163209E+0	1.156307E+0	1.115154E+0	1.185428E+0	1.159428E+0	1.151262E+0	1.179021E+0
5.368180E+2	9.452508E-1	9.472389E-1	9.446852E-1	9.023678E-1	9.286917E-1	9.212301E-1	9.875825E-1	9.656988E-1	9.075833E-1	9.475801E-1	9.212784E-1	9.144073E-1	9.035977E-1	9.484988E-1	9.217159E-1	9.346968E-1	9.590193E-1	9.629929E-1	9.273401E-1	9.617810E-1	9.377578E-1	9.730201E-1	8.739911E-1	9.514087E-1	8.846363E-1	9.435108E-1	9.538672E-1	9.938739E-1	9.045314E-1	9.381643E-1	9.727796E-1	9.748970E-1	9.148598E-1	9.601234E-1	9.632287E-1	9.276173E-1	9.883671E-1	9.610395E-1	9.645162E-1	9.541859E-1	9.650709E-1	9.222571E-1	9.343965E-1	9.189294E-1	9.977356E-1	9.808531E-1	9.720063E-1	9.524194E-1	9.256488E-1	9.112071E-1	9.481056E-1	9.744023E-1	8.969965E-1	9.059775E-1	9.516989E-1	9.993456E-1	9.753251E-1	9.596586E-1	1.009714E+0	9.484171E-1	9.374497E-1	1.001716E+0	1.016013E+0	9.429185E-1	9.605203E-1	9.992904E-1	9.482263E-1	9.608687E-1	9.825853E-1	9.105115E-1	9.559576E-1	9.791606E-1	1.009542E+0	9.334916E-1	9.294575E-1	9.601753E-1	9.973823E-1	1.010381E+0	9.723697E-1	1.022631E+0	9.238746E-1	9.525028E-1	9.874651E-1	9.327328E-1	9.431526E-1	9.414383E-1	9.326568E-1	9.662777E-1	9.381660E-1	9.687396E-1	9.669072E-1	9.332066E-1	9.864643E-1	9.331262E-1	9.469655E-1	9.586882E-1	9.688297E-1	9.296601E-1	9.543217E-1	9.439377E-1	8.871048E-1	9.734622E-1	8.949300E-1	9.897712E-1	9.621037E-1	9.539832E-1	9.568301E-1	9.898279E-1	9.069710E-1	9.474904E-1	1.004404E+0	9.929515E-1	9.429856E-1	9.388622E-1	9.772451E-1	9.848326E-1	9.158926E-1	9.602082E-1	9.564624E-1	9.606860E-1	9.478978E-1	9.526796E-1	9.693848E-1	1.006850E+0	9.696995E-1	9.291607E-1	9.335677E-1	9.290762E-1	9.510215E-1	9.911448E-1	9.242660E-1	9.832899E-1	9.089865E-1	9.896824E-1	9.456036E-1	9.245931E-1	9.538342E-1	9.520221E-1	9.199575E-1	9.045939E-1	9.800330E-1	9.493899E-1	9.666991E-1	1.000744E+0	9.058982E-1	9.671748E-1	9.125863E-1	9.807187E-1	9.066212E-1	9.899502E-1	9.150372E-1	9.331273E-1	9.512424E-1	9.812183E-1	9.923645E-1	9.744009E-1	9.878112E-1	9.598513E-1	9.952554E-1	9.670546E-1	9.206917E-1	9.783688E-1	9.955591E-1	1.005355E+0	8.119335E-1
5.370170E+2	8.962002E-1	9.480107E-1	9.372017E-1	9.171016E-1	9.080046E-1	9.062354E-1	9.755473E-1	8.502011E-1	9.524386E-1	9.430153E-1	9.120885E-1	8.798221E-1	9.312024E-1	8.388135E-1	9.303710E-1	9.353125E-1	9.023408E-1	8.943617E-1	9.545010E-1	9.355197E-1	8.999463E-1	8.942912E-1	9.416361E-1	9.323872E-1	9.436355E-1	9.025178E-1	9.119796E-1	9.466455E-1	9.255806E-1	9.302863E-1	9.609229E-1	9.211538E-1	9.157978E-1	9.741918E-1	9.046458E-1	9.741029E-1	8.748236E-1	9.127346E-1	9.232386E-1	9.353272E-1	9.241790E-1	8.957749E-1	9.353755E-1	9.352092E-1	9.370151E-1	9.372155E-1	9.718816E-1	9.651444E-1	9.074018E-1	8.988158E-1	9.940308E-1	9.544545E-1	8.975059E-1	9.735011E-1	9.793555E-1	9.694179E-1	9.293060E-1	9.273411E-1	9.518454E-1	9.930198E-1	9.130680E-1	9.446263E-1	8.860220E-1	9.335286E-1	8.860381E-1	9.265906E-1	8.941928E-1	9.273844E-1	1.000320E+0	8.624894E-1	9.695150E-1	9.309247E-1	9.433318E-1	9.281986E-1	9.113621E-1	9.841950E-1	9.877416E-1	9.755290E-1	9.121256E-1	9.380850E-1	8.923866E-1	9.525047E-1	9.362966E-1	8.595664E-1	9.534557E-1	9.169566E-1	8.833305E-1	9.390340E-1	9.680524E-1	9.224282E-1	9.483120E-1	9.155700E-1	8.902343E-1	8.916260E-1	9.574796E-1	9.649931E-1	9.696632E-1	9.211886E-1	9.119158E-1	8.834178E-1	9.401052E-1	9.113951E-1	8.799232E-1	9.436551E-1	9.233184E-1	9.022860E-1	9.116491E-1	9.284294E-1	9.499014E-1	9.134413E-1	9.447679E-1	9.113070E-1	9.706511E-1	9.242366E-1	9.279519E-1	9.943336E-1	9.318972E-1	8.693981E-1	9.612862E-1	9.486908E-1	8.568952E-1	9.128882E-1	9.283145E-1	9.234026E-1	9.245108E-1	8.801883E-1	9.084578E-1	8.638738E-1	8.675104E-1	9.249335E-1	9.679418E-1	9.648181E-1	9.325085E-1	9.411977E-1	9.118739E-1	9.512853E-1	9.595372E-1	9.637205E-1	8.832188E-1	9.008871E-1	9.415283E-1	8.529830E-1	9.012865E-1	1.006860E+0	9.307420E-1	9.232065E-1	9.157640E-1	9.296373E-1	9.111514E-1	9.430878E-1	9.086479E-1	9.399456E-1	9.226158E-1	9.072971E-1	9.329532E-1	9.341841E-1	9.761508E-1	9.257444E-1	9.512088E-1	9.680286E-1	8.561266E-1	9.985907E-1	9.109133E-1	8.912808E-1	9.199157E-1
5.372010E+2	9.544208E-1	1.000902E+0	9.845941E-1	1.071110E+0	9.697014E-1	1.024489E+0	1.022965E+0	9.518909E-1	9.383992E-1	9.678911E-1	9.483629E-1	9.662665E-1	9.952678E-1	9.658630E-1	1.041004E+0	9.881444E-1	9.180807E-1	9.888622E-1	1.014598E+0	1.027375E+0	1.005915E+0	1.038929E+0	1.006933E+0	9.856060E-1	1.022625E+0	1.022071E+0	1.051295E+0	1.027975E+0	1.010616E+0	9.569767E-1	1.064188E+0	9.803107E-1	1.004462E+0	1.033839E+0	1.007996E+0	9.920312E-1	1.009825E+0	1.015450E+0	1.016146E+0	1.038247E+0	1.034377E+0	9.766141E-1	1.031494E+0	1.029118E+0	1.000127E+0	1.015029E+0	1.023219E+0	1.056259E+0	1.002433E+0	1.001161E+0	1.040837E+0	1.028330E+0	9.572190E-1	1.013948E+0	9.720866E-1	1.039925E+0	1.042909E+0	1.022904E+0	1.007507E+0	9.820037E-1	1.054935E+0	1.062514E+0	1.048836E+0	1.047424E+0	1.002194E+0	9.901738E-1	9.758927E-1	9.879332E-1	1.033325E+0	9.553851E-1	1.001530E+0	1.061497E+0	1.020116E+0	1.015867E+0	9.676586E-1	1.079135E+0	1.074816E+0	1.049335E+0	1.016105E+0	1.026919E+0	1.052086E+0	9.625376E-1	9.891183E-1	9.699582E-1	1.006785E+0	9.493849E-1	1.056765E+0	9.586464E-1	1.022141E+0	1.046256E+0	1.038584E+0	1.046170E+0	9.831446E-1	1.034229E+0	9.807236E-1	1.024056E+0	1.034803E+0	9.995052E-1	9.948631E-1	9.911805E-1	1.001166E+0	9.929175E-1	1.014923E+0	1.073724E+0	1.004098E+0	1.000628E+0	1.044185E+0	1.001242E+0	9.688180E-1	1.026470E+0	9.882620E-1	1.027416E+0	1.022568E+0	1.004021E+0	1.041876E+0	1.020219E+0	1.017088E+0	9.616112E-1	1.010813E+0	1.091927E+0	1.007435E+0	1.007422E+0	9.601963E-1	9.829691E-1	9.845994E-1	9.757386E-1	1.031134E+0	9.668305E-1	1.048649E+0	1.013078E+0	9.949305E-1	1.014025E+0	9.802147E-1	9.201676E-1	1.036738E+0	1.041426E+0	9.741553E-1	1.041643E+0	9.307209E-1	9.860106E-1	1.015689E+0	9.862588E-1	9.926184E-1	1.002163E+0	9.946210E-1	9.414646E-1	9.994370E-1	1.036814E+0	9.960166E-1	1.019443E+0	1.026717E+0	1.029049E+0	9.960046E-1	9.476054E-1	1.023770E+0	1.012662E+0	1.039007E+0	9.950279E-1	1.037371E+0	1.023846E+0	9.844463E-1	1.005775E+0	9.384548E-1	1.020303E+0	1.247446E+0
5.374220E+2	1.063576E+0	1.098605E+0	1.084009E+0	1.110734E+0	1.091424E+0	1.092555E+0	1.092490E+0	1.072939E+0	1.060371E+0	1.000060E+0	1.127097E+0	1.080391E+0	1.106932E+0	1.010749E+0	1.112537E+0	1.116213E+0	1.074702E+0	1.082728E+0	1.145048E+0	1.142468E+0	1.085645E+0	1.120318E+0	1.107413E+0	1.116516E+0	1.120513E+0	1.117854E+0	1.113564E+0	1.147989E+0	1.096079E+0	1.066938E+0	1.152311E+0	1.096495E+0	1.066348E+0	1.124307E+0	1.091246E+0	1.163723E+0	1.076936E+0	1.139455E+0	1.025481E+0	1.110338E+0	1.122572E+0	1.083189E+0	1.117167E+0	1.127227E+0	1.138145E+0	1.150857E+0	1.145773E+0	1.069592E+0	1.112789E+0	1.088002E+0	1.114687E+0	1.042682E+0	1.072448E+0	1.130390E+0	1.150691E+0	1.097007E+0	1.160384E+0	1.121260E+0	1.145946E+0	1.105127E+0	1.104361E+0	1.093109E+0	1.118546E+0	1.054523E+0	1.105671E+0	1.099048E+0	1.063554E+0	1.063852E+0	1.131986E+0	1.089270E+0	1.123413E+0	1.136626E+0	1.105980E+0	1.072255E+0	1.112467E+0	1.135688E+0	1.179144E+0	1.132755E+0	1.104925E+0	1.133258E+0	1.156388E+0	1.065331E+0	1.160678E+0	1.122718E+0	1.053196E+0	1.063365E+0	1.122238E+0	1.115794E+0	1.043066E+0	1.104599E+0	1.124365E+0	1.111485E+0	1.117128E+0	1.082184E+0	1.100081E+0	1.143586E+0	1.063998E+0	1.147749E+0	1.133529E+0	1.070024E+0	1.111284E+0	1.114207E+0	1.071722E+0	1.115056E+0	1.086346E+0	1.063787E+0	1.140091E+0	1.091445E+0	1.114272E+0	1.114773E+0	1.170081E+0	1.126869E+0	1.145737E+0	1.090313E+0	1.038762E+0	1.094278E+0	1.108057E+0	1.074622E+0	1.093856E+0	1.162978E+0	1.100685E+0	1.050781E+0	1.115371E+0	1.119188E+0	1.126861E+0	1.066873E+0	1.153415E+0	1.115996E+0	1.085012E+0	1.126674E+0	1.162340E+0	1.052939E+0	1.067640E+0	1.086706E+0	1.150222E+0	1.084401E+0	1.141571E+0	1.071121E+0	1.098093E+0	1.098738E+0	1.144575E+0	1.078515E+0	1.065283E+0	1.172896E+0	1.081388E+0	1.091584E+0	1.072111E+0	1.116998E+0	1.102822E+0	1.121926E+0	1.048070E+0	1.061987E+0	1.091862E+0	1.042193E+0	1.073070E+0	1.119715E+0	1.130270E+0	1.098913E+0	1.097381E+0	1.087414E+0	1.029577E+0	1.088161E+0	1.041144E+0	1.130352E+0	1.173766E+0
5.376060E+2	1.016015E+0	1.063361E+0	1.041100E+0	1.061670E+0	1.079728E+0	1.089626E+0	1.050360E+0	1.015757E+0	1.014190E+0	1.045772E+0	1.057490E+0	1.064855E+0	1.085379E+0	1.032164E+0	1.046047E+0	1.079089E+0	1.045599E+0	1.052073E+0	1.021905E+0	1.121842E+0	1.115406E+0	1.148735E+0	1.070067E+0	1.082522E+0	1.121106E+0	1.078688E+0	1.094785E+0	1.145908E+0	1.063612E+0	1.069496E+0	1.106719E+0	1.090167E+0	1.057495E+0	1.158886E+0	1.145730E+0	1.070244E+0	1.095675E+0	1.102541E+0	1.063008E+0	1.052280E+0	1.057675E+0	1.012313E+0	1.108579E+0	1.069271E+0	1.102437E+0	1.047135E+0	1.093077E+0	1.092538E+0	1.114038E+0	1.105646E+0	1.132435E+0	1.027496E+0	1.087521E+0	1.099269E+0	1.106847E+0	1.130230E+0	1.079756E+0	1.079557E+0	1.115827E+0	1.125494E+0	1.088129E+0	1.141965E+0	1.143937E+0	1.091746E+0	1.129685E+0	1.087267E+0	1.120302E+0	1.101059E+0	1.161410E+0	1.046916E+0	1.141281E+0	1.154030E+0	1.150716E+0	1.085807E+0	1.111339E+0	1.089202E+0	1.066573E+0	1.126776E+0	1.118112E+0	1.121481E+0	1.093123E+0	1.055160E+0	1.086143E+0	1.027244E+0	1.063109E+0	1.068464E+0	1.133338E+0	1.090275E+0	1.136628E+0	1.141769E+0	1.053998E+0	1.093431E+0	1.087679E+0	1.118713E+0	1.076331E+0	1.099049E+0	1.081213E+0	9.990510E-1	1.103148E+0	1.028457E+0	1.102675E+0	1.044803E+0	1.094024E+0	1.081209E+0	1.079337E+0	1.058264E+0	1.074275E+0	1.053406E+0	1.114954E+0	1.070980E+0	1.086284E+0	1.117016E+0	1.122238E+0	1.069841E+0	1.111968E+0	1.063305E+0	1.122130E+0	1.118092E+0	1.095612E+0	1.121701E+0	1.100990E+0	1.057676E+0	1.087488E+0	1.094175E+0	1.116425E+0	1.105263E+0	1.192314E+0	1.023877E+0	1.097841E+0	1.083262E+0	1.166027E+0	1.087108E+0	1.044726E+0	1.062653E+0	1.086424E+0	1.105540E+0	1.072057E+0	1.077997E+0	1.041124E+0	1.114730E+0	1.126633E+0	1.088154E+0	1.090328E+0	1.171504E+0	1.001413E+0	1.143073E+0	1.101918E+0	1.193193E+0	1.149074E+0	1.063608E+0	1.097565E+0	1.128089E+0	1.070613E+0	1.009647E+0	1.152542E+0	1.054483E+0	1.165661E+0	1.069866E+0	1.051109E+0	1.123552E+0	1.100742E+0	1.066535E+0	1.117144E+0	1.065128E+0	1.142109E+0
5.378110E+2	1.201318E+0	1.125462E+0	1.092757E+0	1.113559E+0	1.206730E+0	1.195622E+0	1.125085E+0	1.107249E+0	1.149468E+0	1.151823E+0	1.180698E+0	1.128480E+0	1.214583E+0	1.183109E+0	1.177237E+0	1.137250E+0	1.131067E+0	1.104421E+0	1.112143E+0	1.146119E+0	1.123004E+0	1.130424E+0	1.180765E+0	1.130704E+0	1.149499E+0	1.103351E+0	1.097621E+0	1.165846E+0	1.108214E+0	1.101402E+0	1.152888E+0	1.111835E+0	1.115080E+0	1.150244E+0	1.146671E+0	1.167464E+0	1.110597E+0	1.208348E+0	1.101355E+0	1.141401E+0	1.175976E+0	1.098475E+0	1.178053E+0	1.183041E+0	1.134795E+0	1.143694E+0	1.122558E+0	1.127104E+0	1.110499E+0	1.108443E+0	1.194839E+0	1.076379E+0	1.094266E+0	1.156175E+0	1.097496E+0	1.131589E+0	1.158490E+0	1.124831E+0	1.116892E+0	1.147699E+0	1.138727E+0	1.150861E+0	1.153869E+0	1.192576E+0	1.106081E+0	1.119467E+0	1.174382E+0	1.109702E+0	1.165285E+0	1.091852E+0	1.181297E+0	1.168837E+0	1.159953E+0	1.139104E+0	1.182916E+0	1.144415E+0	1.188847E+0	1.093553E+0	1.187428E+0	1.181321E+0	1.128504E+0	1.032318E+0	1.176009E+0	1.142117E+0	1.174444E+0	1.131494E+0	1.175575E+0	1.133586E+0	1.174636E+0	1.112176E+0	1.177497E+0	1.075985E+0	1.166141E+0	1.121199E+0	1.148083E+0	1.169024E+0	1.099185E+0	1.135594E+0	1.157997E+0	1.137583E+0	1.107198E+0	1.135788E+0	1.134791E+0	1.140906E+0	1.170540E+0	1.140831E+0	1.189161E+0	1.150663E+0	1.123953E+0	1.158338E+0	1.163287E+0	1.135420E+0	1.184206E+0	1.119090E+0	1.121195E+0	1.146540E+0	1.116407E+0	1.114225E+0	1.101041E+0	1.152342E+0	1.157884E+0	1.126165E+0	1.124346E+0	1.135152E+0	1.212521E+0	1.134657E+0	1.155818E+0	1.142110E+0	1.143822E+0	1.125446E+0	1.205624E+0	1.100649E+0	1.156458E+0	1.174378E+0	1.165084E+0	1.154792E+0	1.155215E+0	1.086730E+0	1.098410E+0	1.121640E+0	1.165780E+0	1.092053E+0	1.176149E+0	1.212794E+0	1.132141E+0	1.144290E+0	1.125643E+0	1.108407E+0	1.150719E+0	1.082582E+0	1.133767E+0	1.182554E+0	1.141327E+0	1.100166E+0	1.161733E+0	1.205466E+0	1.149146E+0	1.084174E+0	1.190364E+0	1.126233E+0	1.180471E+0	1.080201E+0	1.118619E+0	1.199224E+0	1.053165E+0
5.380050E+2	1.295649E+0	1.175306E+0	1.157740E+0	1.223680E+0	1.150568E+0	1.275232E+0	1.156055E+0	1.156939E+0	1.220328E+0	1.189340E+0	1.156162E+0	1.186509E+0	1.193531E+0	1.148530E+0	1.175795E+0	1.224657E+0	1.166566E+0	1.239914E+0	1.233733E+0	1.247349E+0	1.214510E+0	1.254006E+0	1.171341E+0	1.209438E+0	1.213952E+0	1.160520E+0	1.235081E+0	1.204741E+0	1.179355E+0	1.138004E+0	1.242724E+0	1.244532E+0	1.197605E+0	1.192435E+0	1.207591E+0	1.223486E+0	1.193518E+0	1.245331E+0	1.168516E+0	1.229087E+0	1.201543E+0	1.120867E+0	1.162026E+0	1.200760E+0	1.166314E+0	1.204214E+0	1.193277E+0	1.166448E+0	1.161266E+0	1.147275E+0	1.191156E+0	1.203940E+0	1.194390E+0	1.214277E+0	1.171683E+0	1.199036E+0	1.256416E+0	1.189590E+0	1.173316E+0	1.211089E+0	1.131757E+0	1.182555E+0	1.125665E+0	1.210686E+0	1.181939E+0	1.235169E+0	1.133727E+0	1.239122E+0	1.213381E+0	1.177505E+0	1.268828E+0	1.263872E+0	1.269781E+0	1.212379E+0	1.168584E+0	1.268065E+0	1.199338E+0	1.203204E+0	1.244164E+0	1.240699E+0	1.226311E+0	1.179344E+0	1.204516E+0	1.225673E+0	1.251343E+0	1.200702E+0	1.204186E+0	1.228013E+0	1.215919E+0	1.208506E+0	1.193590E+0	1.268079E+0	1.191628E+0	1.193458E+0	1.235851E+0	1.234354E+0	1.208538E+0	1.193096E+0	1.252559E+0	1.156536E+0	1.190766E+0	1.196363E+0	1.169200E+0	1.182774E+0	1.189991E+0	1.188640E+0	1.159992E+0	1.224263E+0	1.163082E+0	1.204866E+0	1.205630E+0	1.209292E+0	1.234409E+0	1.171291E+0	1.249403E+0	1.222108E+0	1.210246E+0	1.164382E+0	1.155518E+0	1.212595E+0	1.170260E+0	1.159316E+0	1.189714E+0	1.173213E+0	1.182022E+0	1.212410E+0	1.197642E+0	1.191125E+0	1.224050E+0	1.199827E+0	1.232026E+0	1.176860E+0	1.174234E+0	1.162757E+0	1.171355E+0	1.195383E+0	1.222952E+0	1.230988E+0	1.151093E+0	1.168463E+0	1.194521E+0	1.202236E+0	1.137671E+0	1.271979E+0	1.193931E+0	1.229124E+0	1.236055E+0	1.185977E+0	1.254956E+0	1.158710E+0	1.236097E+0	1.191455E+0	1.184460E+0	1.128474E+0	1.178872E+0	1.267816E+0	1.227342E+0	1.225454E+0	1.176365E+0	1.231435E+0	1.158856E+0	1.156049E+0	1.271517E+0	1.149126E+0	1.262942E+0
5.382060E+2	1.448657E+0	1.476622E+0	1.441009E+0	1.514891E+0	1.519553E+0	1.401825E+0	1.435080E+0	1.416641E+0	1.404877E+0	1.425540E+0	1.459436E+0	1.412896E+0	1.452825E+0	1.379101E+0	1.445952E+0	1.527124E+0	1.441997E+0	1.337275E+0	1.407444E+0	1.483737E+0	1.463420E+0	1.392221E+0	1.358420E+0	1.510082E+0	1.414840E+0	1.464466E+0	1.399930E+0	1.459944E+0	1.386355E+0	1.384967E+0	1.415264E+0	1.422263E+0	1.399657E+0	1.468486E+0	1.398625E+0	1.441443E+0	1.357015E+0	1.461063E+0	1.341024E+0	1.437437E+0	1.459409E+0	1.392698E+0	1.395862E+0	1.375816E+0	1.380067E+0	1.410842E+0	1.394119E+0	1.445252E+0	1.443416E+0	1.310298E+0	1.400626E+0	1.401917E+0	1.335341E+0	1.411829E+0	1.447909E+0	1.458344E+0	1.462770E+0	1.361631E+0	1.460425E+0	1.414123E+0	1.399583E+0	1.471667E+0	1.405690E+0	1.388991E+0	1.405207E+0	1.456654E+0	1.439674E+0	1.424235E+0	1.468821E+0	1.340055E+0	1.438025E+0	1.463559E+0	1.440424E+0	1.364265E+0	1.419728E+0	1.392992E+0	1.420770E+0	1.414069E+0	1.417133E+0	1.504605E+0	1.496567E+0	1.422369E+0	1.410148E+0	1.347676E+0	1.395142E+0	1.367747E+0	1.462493E+0	1.443216E+0	1.441118E+0	1.397589E+0	1.396930E+0	1.448665E+0	1.398552E+0	1.389937E+0	1.482547E+0	1.425373E+0	1.458507E+0	1.341429E+0	1.417268E+0	1.380291E+0	1.416572E+0	1.349337E+0	1.401131E+0	1.442807E+0	1.439442E+0	1.404866E+0	1.403216E+0	1.393833E+0	1.394942E+0	1.432434E+0	1.483639E+0	1.402727E+0	1.446139E+0	1.500565E+0	1.333148E+0	1.413560E+0	1.455289E+0	1.378848E+0	1.393889E+0	1.461612E+0	1.419118E+0	1.394351E+0	1.386554E+0	1.432937E+0	1.460617E+0	1.450086E+0	1.439015E+0	1.404433E+0	1.418418E+0	1.374725E+0	1.445792E+0	1.433427E+0	1.441075E+0	1.360544E+0	1.393707E+0	1.447245E+0	1.463203E+0	1.452708E+0	1.387049E+0	1.431190E+0	1.458907E+0	1.357172E+0	1.464782E+0	1.494427E+0	1.405030E+0	1.493426E+0	1.423168E+0	1.478954E+0	1.430003E+0	1.471904E+0	1.445797E+0	1.461468E+0	1.381800E+0	1.376493E+0	1.415855E+0	1.391235E+0	1.481834E+0	1.402591E+0	1.419122E+0	1.418559E+0	1.427523E+0	1.355568E+0	1.370221E+0	1.492462E+0	1.339256E+0
5.384110E+2	1.642841E+0	1.666118E+0	1.681509E+0	1.697583E+0	1.794014E+0	1.798897E+0	1.655197E+0	1.638090E+0	1.732465E+0	1.675357E+0	1.708889E+0	1.787245E+0	1.684653E+0	1.720824E+0	1.725261E+0	1.685833E+0	1.673257E+0	1.660276E+0	1.712285E+0	1.742670E+0	1.714814E+0	1.706508E+0	1.653192E+0	1.632045E+0	1.583639E+0	1.656121E+0	1.608811E+0	1.617783E+0	1.651494E+0	1.658915E+0	1.684241E+0	1.683294E+0	1.631108E+0	1.700399E+0	1.644830E+0	1.620383E+0	1.777772E+0	1.711062E+0	1.588850E+0	1.679721E+0	1.640922E+0	1.671251E+0	1.629339E+0	1.649141E+0	1.676869E+0	1.687774E+0	1.677879E+0	1.642564E+0	1.688241E+0	1.565073E+0	1.704582E+0	1.659400E+0	1.570895E+0	1.588724E+0	1.659132E+0	1.671697E+0	1.684078E+0	1.640840E+0	1.678975E+0	1.713475E+0	1.664452E+0	1.688775E+0	1.632785E+0	1.681354E+0	1.666230E+0	1.643118E+0	1.627400E+0	1.676742E+0	1.719756E+0	1.531777E+0	1.700037E+0	1.749173E+0	1.698353E+0	1.687992E+0	1.650396E+0	1.712715E+0	1.740030E+0	1.748139E+0	1.685101E+0	1.733221E+0	1.693747E+0	1.671965E+0	1.718928E+0	1.608016E+0	1.709082E+0	1.608055E+0	1.683818E+0	1.658922E+0	1.684032E+0	1.690755E+0	1.699576E+0	1.653751E+0	1.721254E+0	1.682193E+0	1.674004E+0	1.737165E+0	1.603115E+0	1.697382E+0	1.710306E+0	1.621755E+0	1.572690E+0	1.632056E+0	1.651625E+0	1.681511E+0	1.650378E+0	1.596053E+0	1.626821E+0	1.639744E+0	1.623663E+0	1.636905E+0	1.651349E+0	1.614058E+0	1.698154E+0	1.646377E+0	1.611411E+0	1.696472E+0	1.655872E+0	1.582631E+0	1.627327E+0	1.743403E+0	1.629974E+0	1.634109E+0	1.653098E+0	1.638288E+0	1.684758E+0	1.653863E+0	1.684981E+0	1.621056E+0	1.704605E+0	1.686246E+0	1.666050E+0	1.715382E+0	1.624475E+0	1.565264E+0	1.587544E+0	1.616920E+0	1.656112E+0	1.611153E+0	1.598685E+0	1.623196E+0	1.633905E+0	1.626269E+0	1.678294E+0	1.775720E+0	1.669098E+0	1.640069E+0	1.627596E+0	1.659545E+0	1.694441E+0	1.632972E+0	1.670654E+0	1.683311E+0	1.599169E+0	1.610775E+0	1.666843E+0	1.699180E+0	1.733496E+0	1.607397E+0	1.587334E+0	1.631150E+0	1.637110E+0	1.633844E+0	1.688325E+0	1.693699E+0	1.737697E+0
5.386060E+2	1.615655E+0	1.637615E+0	1.587484E+0	1.660329E+0	1.565283E+0	1.618966E+0	1.638300E+0	1.627060E+0	1.672975E+0	1.603713E+0	1.626958E+0	1.627865E+0	1.590637E+0	1.611988E+0	1.569821E+0	1.607907E+0	1.572150E+0	1.604064E+0	1.613230E+0	1.612604E+0	1.592810E+0	1.591184E+0	1.591490E+0	1.565232E+0	1.616786E+0	1.562313E+0	1.579449E+0	1.573085E+0	1.519606E+0	1.526489E+0	1.598682E+0	1.616688E+0	1.562706E+0	1.664145E+0	1.615352E+0	1.626657E+0	1.529354E+0	1.617801E+0	1.534872E+0	1.534933E+0	1.525654E+0	1.541175E+0	1.556134E+0	1.595181E+0	1.658140E+0	1.575789E+0	1.567334E+0	1.556264E+0	1.563500E+0	1.482580E+0	1.567241E+0	1.587148E+0	1.555078E+0	1.556043E+0	1.527742E+0	1.634277E+0	1.602201E+0	1.555505E+0	1.571774E+0	1.592769E+0	1.559952E+0	1.581646E+0	1.521192E+0	1.601419E+0	1.591971E+0	1.570058E+0	1.521673E+0	1.562105E+0	1.585952E+0	1.467697E+0	1.609629E+0	1.619244E+0	1.568017E+0	1.581174E+0	1.561121E+0	1.598079E+0	1.591301E+0	1.542274E+0	1.581021E+0	1.623220E+0	1.586043E+0	1.610993E+0	1.565078E+0	1.473960E+0	1.521379E+0	1.547835E+0	1.626242E+0	1.578145E+0	1.628972E+0	1.570761E+0	1.582559E+0	1.621001E+0	1.549294E+0	1.651759E+0	1.606940E+0	1.537598E+0	1.581655E+0	1.587563E+0	1.617955E+0	1.555586E+0	1.444874E+0	1.564233E+0	1.534720E+0	1.535182E+0	1.552102E+0	1.549607E+0	1.593843E+0	1.643261E+0	1.523724E+0	1.577296E+0	1.591582E+0	1.650467E+0	1.641263E+0	1.582659E+0	1.648442E+0	1.582848E+0	1.556210E+0	1.500698E+0	1.603762E+0	1.646670E+0	1.618709E+0	1.577401E+0	1.568259E+0	1.572431E+0	1.617362E+0	1.576874E+0	1.652191E+0	1.573214E+0	1.532222E+0	1.567004E+0	1.539921E+0	1.582784E+0	1.530455E+0	1.595628E+0	1.558530E+0	1.559376E+0	1.574351E+0	1.583245E+0	1.506893E+0	1.603981E+0	1.561042E+0	1.530311E+0	1.611927E+0	1.624816E+0	1.547347E+0	1.632555E+0	1.566043E+0	1.602090E+0	1.577227E+0	1.532752E+0	1.555813E+0	1.681878E+0	1.501273E+0	1.532525E+0	1.535811E+0	1.657565E+0	1.650655E+0	1.582552E+0	1.566455E+0	1.596793E+0	1.490713E+0	1.541393E+0	1.535320E+0	1.499301E+0	1.758758E+0
5.388120E+2	1.431821E+0	1.418751E+0	1.381071E+0	1.449408E+0	1.456093E+0	1.414852E+0	1.391732E+0	1.428079E+0	1.430938E+0	1.400052E+0	1.343035E+0	1.391525E+0	1.385793E+0	1.404439E+0	1.396760E+0	1.426372E+0	1.475424E+0	1.447974E+0	1.398841E+0	1.431248E+0	1.386310E+0	1.484068E+0	1.419758E+0	1.395177E+0	1.379731E+0	1.379874E+0	1.372622E+0	1.428809E+0	1.371326E+0	1.315921E+0	1.371177E+0	1.403046E+0	1.334536E+0	1.439063E+0	1.385523E+0	1.376679E+0	1.357207E+0	1.412585E+0	1.326063E+0	1.383631E+0	1.405089E+0	1.401620E+0	1.367476E+0	1.452240E+0	1.495846E+0	1.384377E+0	1.399200E+0	1.410433E+0	1.346502E+0	1.328281E+0	1.406985E+0	1.373420E+0	1.308394E+0	1.360093E+0	1.402606E+0	1.390187E+0	1.420860E+0	1.414120E+0	1.418969E+0	1.404470E+0	1.429325E+0	1.370378E+0	1.389571E+0	1.420982E+0	1.350292E+0	1.437994E+0	1.339853E+0	1.415642E+0	1.427070E+0	1.337818E+0	1.488300E+0	1.498926E+0	1.378972E+0	1.351607E+0	1.415144E+0	1.462216E+0	1.443853E+0	1.443481E+0	1.365999E+0	1.419450E+0	1.422196E+0	1.389977E+0	1.414228E+0	1.420228E+0	1.371263E+0	1.359309E+0	1.391530E+0	1.373139E+0	1.385922E+0	1.427942E+0	1.396026E+0	1.333907E+0	1.423462E+0	1.405586E+0	1.401949E+0	1.439651E+0	1.385148E+0	1.387890E+0	1.354014E+0	1.335984E+0	1.370373E+0	1.355816E+0	1.323165E+0	1.296390E+0	1.401592E+0	1.384680E+0	1.326646E+0	1.395283E+0	1.384309E+0	1.380097E+0	1.447927E+0	1.393131E+0	1.401411E+0	1.409228E+0	1.417769E+0	1.360396E+0	1.383440E+0	1.356842E+0	1.377788E+0	1.488377E+0	1.412607E+0	1.336688E+0	1.383048E+0	1.359290E+0	1.421358E+0	1.383907E+0	1.392038E+0	1.397013E+0	1.342372E+0	1.396778E+0	1.457311E+0	1.403665E+0	1.361329E+0	1.383578E+0	1.331083E+0	1.389498E+0	1.387918E+0	1.341129E+0	1.322891E+0	1.399525E+0	1.401569E+0	1.307485E+0	1.478407E+0	1.428729E+0	1.444621E+0	1.395812E+0	1.411569E+0	1.370098E+0	1.425364E+0	1.419385E+0	1.333852E+0	1.449735E+0	1.417369E+0	1.332285E+0	1.415327E+0	1.414443E+0	1.385602E+0	1.378325E+0	1.381128E+0	1.385438E+0	1.359114E+0	1.394933E+0	1.435510E+0	1.321316E+0	1.446858E+0
5.390080E+2	1.250896E+0	1.250538E+0	1.189994E+0	1.246634E+0	1.250070E+0	1.273661E+0	1.256892E+0	1.193931E+0	1.261422E+0	1.247180E+0	1.263322E+0	1.224051E+0	1.211965E+0	1.246933E+0	1.245625E+0	1.248186E+0	1.265941E+0	1.247152E+0	1.274128E+0	1.258249E+0	1.251191E+0	1.220358E+0	1.204601E+0	1.241817E+0	1.201418E+0	1.301454E+0	1.231423E+0	1.243439E+0	1.210481E+0	1.185307E+0	1.221335E+0	1.201435E+0	1.233698E+0	1.247934E+0	1.208256E+0	1.275321E+0	1.190796E+0	1.278345E+0	1.194940E+0	1.184029E+0	1.251384E+0	1.233393E+0	1.245326E+0	1.306192E+0	1.276307E+0	1.243674E+0	1.264047E+0	1.254053E+0	1.216916E+0	1.160540E+0	1.210116E+0	1.266997E+0	1.219893E+0	1.223365E+0	1.195710E+0	1.258793E+0	1.245789E+0	1.256874E+0	1.213123E+0	1.290367E+0	1.174846E+0	1.295300E+0	1.219352E+0	1.219315E+0	1.185222E+0	1.261341E+0	1.267674E+0	1.239141E+0	1.226698E+0	1.199043E+0	1.241832E+0	1.292448E+0	1.184875E+0	1.205689E+0	1.285658E+0	1.279756E+0	1.270635E+0	1.257064E+0	1.255227E+0	1.335652E+0	1.223483E+0	1.279850E+0	1.205084E+0	1.250695E+0	1.219781E+0	1.216066E+0	1.249405E+0	1.233244E+0	1.241616E+0	1.276688E+0	1.223723E+0	1.223199E+0	1.291002E+0	1.230842E+0	1.242624E+0	1.237335E+0	1.233364E+0	1.178619E+0	1.231675E+0	1.233783E+0	1.267470E+0	1.236379E+0	1.227320E+0	1.223767E+0	1.180746E+0	1.290599E+0	1.232288E+0	1.245884E+0	1.202178E+0	1.238136E+0	1.255169E+0	1.249081E+0	1.266364E+0	1.253719E+0	1.346267E+0	1.259146E+0	1.248587E+0	1.179605E+0	1.265088E+0	1.309996E+0	1.260632E+0	1.212332E+0	1.198943E+0	1.229242E+0	1.233360E+0	1.192805E+0	1.287127E+0	1.252412E+0	1.226012E+0	1.294666E+0	1.239259E+0	1.214384E+0	1.246531E+0	1.143873E+0	1.224918E+0	1.214769E+0	1.256516E+0	1.221286E+0	1.218997E+0	1.205326E+0	1.219325E+0	1.234942E+0	1.232887E+0	1.311848E+0	1.263047E+0	1.312732E+0	1.250386E+0	1.281408E+0	1.235611E+0	1.265378E+0	1.231192E+0	1.308353E+0	1.268353E+0	1.176245E+0	1.251523E+0	1.343164E+0	1.273807E+0	1.207533E+0	1.228258E+0	1.238951E+0	1.214647E+0	1.229351E+0	1.242706E+0	1.251740E+0	1.279803E+0
5.392090E+2	1.046945E+0	1.162910E+0	1.069820E+0	1.119261E+0	1.139114E+0	1.067919E+0	1.063236E+0	1.066017E+0	1.159060E+0	1.110403E+0	1.058587E+0	1.115833E+0	1.071470E+0	1.056601E+0	1.055847E+0	1.065947E+0	1.057395E+0	1.092082E+0	1.086018E+0	1.123039E+0	1.104803E+0	1.092737E+0	1.095010E+0	1.058410E+0	1.114213E+0	1.062329E+0	1.095546E+0	1.096469E+0	1.126941E+0	1.098844E+0	1.056139E+0	1.099279E+0	1.052000E+0	1.123075E+0	1.077605E+0	1.119591E+0	1.078304E+0	1.144603E+0	1.053584E+0	1.031062E+0	1.089062E+0	1.091163E+0	1.088223E+0	1.026837E+0	1.072968E+0	1.120972E+0	1.146084E+0	1.138662E+0	1.092855E+0	1.074533E+0	1.085384E+0	1.043444E+0	1.011433E+0	1.089291E+0	1.094732E+0	1.070814E+0	1.123233E+0	1.100665E+0	1.031580E+0	1.078806E+0	1.068486E+0	1.022534E+0	1.065463E+0	1.071896E+0	1.058767E+0	1.141137E+0	1.146707E+0	1.071267E+0	1.125860E+0	1.048534E+0	1.097072E+0	1.115239E+0	1.160976E+0	1.053516E+0	1.088613E+0	1.136185E+0	1.113295E+0	1.081280E+0	1.100769E+0	1.109455E+0	1.145564E+0	1.140782E+0	1.097096E+0	1.036296E+0	1.091220E+0	1.086500E+0	1.127518E+0	1.069653E+0	1.129878E+0	1.055595E+0	1.052440E+0	1.092980E+0	1.035760E+0	1.105414E+0	1.075228E+0	1.131381E+0	1.108619E+0	1.087754E+0	1.112038E+0	1.114920E+0	1.114663E+0	1.101636E+0	1.008845E+0	1.103241E+0	1.081053E+0	1.030537E+0	1.119020E+0	1.069912E+0	1.047854E+0	1.092050E+0	1.071456E+0	1.128820E+0	1.143968E+0	1.070705E+0	1.096882E+0	1.053215E+0	1.060759E+0	1.075021E+0	1.131121E+0	1.143951E+0	1.121514E+0	1.053669E+0	1.069798E+0	1.130778E+0	1.086574E+0	1.056045E+0	1.107035E+0	1.055578E+0	1.098087E+0	1.081632E+0	1.114070E+0	1.079257E+0	1.079204E+0	1.077079E+0	1.087812E+0	1.106196E+0	1.094360E+0	1.102937E+0	1.046808E+0	1.075812E+0	1.071932E+0	1.071167E+0	1.116286E+0	1.197597E+0	1.067687E+0	1.096741E+0	1.105390E+0	1.105322E+0	1.137228E+0	1.121936E+0	1.064945E+0	1.186441E+0	1.112446E+0	1.087123E+0	1.097695E+0	1.103802E+0	1.120618E+0	1.119134E+0	1.059219E+0	1.102702E+0	1.053779E+0	1.146475E+0	1.077376E+0	1.055194E+0	1.211591E+0
5.394100E+2	1.098475E+0	1.089995E+0	1.029305E+0	1.092154E+0	1.162602E+0	1.136010E+0	1.035160E+0	1.043418E+0	1.104616E+0	1.059590E+0	1.048813E+0	1.113589E+0	1.080876E+0	1.069803E+0	1.107939E+0	1.046223E+0	1.109103E+0	1.018023E+0	1.027796E+0	1.024270E+0	1.066613E+0	1.097113E+0	1.050314E+0	1.030809E+0	1.049870E+0	1.041984E+0	1.099890E+0	1.025772E+0	1.074986E+0	1.011750E+0	1.068539E+0	1.032662E+0	1.014888E+0	1.124503E+0	1.071419E+0	1.084902E+0	1.065437E+0	1.050041E+0	9.901655E-1	1.010549E+0	1.060175E+0	1.036186E+0	1.078781E+0	1.107409E+0	1.151055E+0	1.052223E+0	1.085801E+0	1.074871E+0	9.760435E-1	1.049303E+0	1.092435E+0	1.019782E+0	1.017451E+0	1.069196E+0	1.053156E+0	1.088334E+0	1.036422E+0	1.045889E+0	1.074624E+0	1.077427E+0	1.068318E+0	1.067772E+0	1.024436E+0	1.089948E+0	1.098111E+0	1.063140E+0	1.040473E+0	1.080093E+0	1.041194E+0	1.046646E+0	1.075218E+0	1.112599E+0	1.082280E+0	1.122478E+0	1.063349E+0	1.056306E+0	1.061408E+0	1.019250E+0	1.074518E+0	1.113469E+0	1.035381E+0	1.035614E+0	1.041394E+0	1.089163E+0	1.102620E+0	1.055446E+0	1.019973E+0	1.056172E+0	1.049128E+0	1.046212E+0	1.083281E+0	1.084297E+0	1.046123E+0	1.092333E+0	1.034051E+0	1.095466E+0	1.028563E+0	9.912785E-1	1.070540E+0	1.079529E+0	1.012197E+0	1.046960E+0	1.001825E+0	1.044707E+0	1.090925E+0	1.064146E+0	1.078863E+0	1.070419E+0	1.076685E+0	1.073691E+0	1.094112E+0	1.006829E+0	1.077714E+0	1.058119E+0	1.085755E+0	1.044508E+0	1.048514E+0	1.022119E+0	1.053247E+0	1.064346E+0	1.065057E+0	1.078228E+0	1.058516E+0	1.038057E+0	1.061685E+0	1.060298E+0	1.037844E+0	9.938464E-1	1.043749E+0	1.071439E+0	1.088273E+0	1.031848E+0	1.047884E+0	1.007620E+0	1.004043E+0	1.037912E+0	1.091821E+0	1.062639E+0	1.011611E+0	1.052701E+0	1.092098E+0	1.046052E+0	1.085844E+0	1.111864E+0	1.077662E+0	1.101652E+0	1.089936E+0	1.124414E+0	1.067300E+0	1.024912E+0	1.005760E+0	1.103721E+0	1.031065E+0	1.087395E+0	1.032988E+0	1.147591E+0	1.068651E+0	1.114124E+0	1.083603E+0	1.047047E+0	1.031146E+0	1.078188E+0	1.046250E+0	1.159668E+0	1.186457E+0
5.396110E+2	9.583706E-1	1.012039E+0	1.005688E+0	1.048731E+0	1.049889E+0	1.024233E+0	9.971060E-1	1.008752E+0	1.025453E+0	9.776548E-1	1.013588E+0	1.026456E+0	9.910929E-1	1.009436E+0	9.683545E-1	1.043973E+0	1.067041E+0	1.008513E+0	1.016522E+0	1.004681E+0	1.044002E+0	9.999156E-1	1.055876E+0	1.045764E+0	1.027382E+0	1.018297E+0	1.010814E+0	1.019906E+0	9.574307E-1	1.003033E+0	1.024502E+0	9.979554E-1	1.000797E+0	1.021650E+0	1.005225E+0	1.035991E+0	1.035265E+0	1.046648E+0	9.915798E-1	1.059118E+0	1.038544E+0	9.754023E-1	1.014238E+0	1.001260E+0	1.041132E+0	1.034039E+0	1.044430E+0	9.967663E-1	1.011357E+0	9.811367E-1	1.049038E+0	1.001600E+0	9.574591E-1	1.008120E+0	1.028068E+0	1.043176E+0	9.870134E-1	1.021135E+0	9.896480E-1	9.851050E-1	1.025904E+0	1.008508E+0	9.722974E-1	9.870106E-1	1.004766E+0	1.018907E+0	1.004770E+0	1.009367E+0	1.065651E+0	9.608872E-1	9.831742E-1	1.037276E+0	1.032829E+0	1.055168E+0	1.040132E+0	1.042252E+0	1.026330E+0	1.044799E+0	9.973817E-1	1.035507E+0	9.944448E-1	9.808848E-1	1.051381E+0	1.006708E+0	9.441279E-1	9.665735E-1	1.016785E+0	1.016355E+0	1.092426E+0	1.017536E+0	1.012602E+0	1.032147E+0	1.059305E+0	1.029609E+0	1.094769E+0	1.035287E+0	1.021570E+0	9.834311E-1	1.019939E+0	9.790462E-1	9.825869E-1	1.024299E+0	1.021185E+0	1.030610E+0	1.021936E+0	1.002503E+0	1.050701E+0	9.794109E-1	1.038789E+0	1.064647E+0	1.086154E+0	1.029883E+0	9.354932E-1	1.079054E+0	1.028804E+0	1.006618E+0	1.053492E+0	1.035839E+0	9.697559E-1	1.013378E+0	9.990670E-1	9.808615E-1	1.076246E+0	9.708355E-1	1.051001E+0	9.812609E-1	1.078406E+0	1.022813E+0	1.001672E+0	1.061317E+0	1.019902E+0	9.986625E-1	1.007948E+0	1.033410E+0	9.981834E-1	9.840941E-1	1.029481E+0	1.021255E+0	9.877203E-1	9.822344E-1	1.020704E+0	9.675508E-1	1.055836E+0	1.100053E+0	1.066451E+0	1.000451E+0	9.482181E-1	1.039297E+0	1.022433E+0	9.884949E-1	9.780077E-1	1.047116E+0	1.003679E+0	9.968844E-1	1.037876E+0	1.028282E+0	9.933188E-1	1.028155E+0	1.022296E+0	9.949611E-1	9.663662E-1	9.880464E-1	1.022963E+0	1.073158E+0	1.110044E+0
5.398180E+2	8.606637E-1	8.616546E-1	8.085415E-1	8.181877E-1	8.551067E-1	8.135567E-1	8.327009E-1	8.204457E-1	8.315856E-1	7.908148E-1	7.992857E-1	8.373290E-1	8.086276E-1	8.290046E-1	8.275760E-1	8.255256E-1	7.892550E-1	8.012512E-1	8.291260E-1	8.431140E-1	8.432475E-1	8.347865E-1	8.374727E-1	8.037645E-1	8.027866E-1	8.021303E-1	7.801906E-1	8.368071E-1	7.977111E-1	8.089017E-1	7.802927E-1	7.902727E-1	7.689827E-1	8.348439E-1	8.088350E-1	8.019010E-1	7.912800E-1	8.478996E-1	7.686139E-1	8.153105E-1	8.158869E-1	7.752183E-1	8.618789E-1	7.916818E-1	8.417467E-1	8.299528E-1	8.486025E-1	8.300405E-1	8.031050E-1	7.731525E-1	8.497950E-1	8.019798E-1	8.041533E-1	8.609187E-1	8.234591E-1	7.813096E-1	8.393830E-1	8.034944E-1	8.109795E-1	8.127899E-1	7.717800E-1	7.908869E-1	8.289347E-1	7.824795E-1	8.581160E-1	8.429080E-1	8.157823E-1	8.221409E-1	8.231080E-1	7.778215E-1	8.224757E-1	8.028429E-1	8.610425E-1	8.261982E-1	7.818295E-1	8.234167E-1	8.435735E-1	8.303307E-1	8.272383E-1	8.272149E-1	8.578162E-1	8.253582E-1	7.690432E-1	8.206031E-1	8.609526E-1	7.885825E-1	8.060593E-1	8.510766E-1	8.388970E-1	8.406765E-1	8.216257E-1	8.414634E-1	8.296987E-1	8.216053E-1	8.492381E-1	8.241330E-1	7.801458E-1	8.274231E-1	7.570739E-1	7.970415E-1	7.838956E-1	8.286037E-1	8.354056E-1	8.236155E-1	7.740810E-1	7.952237E-1	8.130496E-1	7.841658E-1	7.960218E-1	8.355475E-1	8.511756E-1	8.551753E-1	8.514120E-1	7.725848E-1	8.707741E-1	8.136196E-1	8.484983E-1	7.978783E-1	8.369533E-1	8.222713E-1	8.230595E-1	8.004520E-1	7.771049E-1	8.203174E-1	7.726809E-1	8.154690E-1	8.732093E-1	8.179275E-1	7.959195E-1	8.061131E-1	8.175443E-1	7.705056E-1	8.320534E-1	7.835172E-1	7.900408E-1	8.307994E-1	8.343027E-1	8.243464E-1	7.753254E-1	8.010692E-1	8.762134E-1	8.146764E-1	8.356428E-1	8.784269E-1	8.458071E-1	8.143175E-1	7.501154E-1	8.270114E-1	8.323356E-1	7.876910E-1	8.309667E-1	7.942309E-1	8.634499E-1	8.523079E-1	7.867524E-1	8.429236E-1	8.712080E-1	7.947384E-1	8.240100E-1	8.038125E-1	8.440145E-1	8.225783E-1	8.011817E-1	7.486214E-1	1.070639E+0
5.400140E+2	7.081760E-1	6.905072E-1	6.491600E-1	6.390669E-1	6.757921E-1	6.275880E-1	6.946244E-1	6.867658E-1	6.786021E-1	6.582575E-1	6.992177E-1	6.979522E-1	6.780236E-1	7.036902E-1	6.365550E-1	6.412364E-1	6.832085E-1	6.931620E-1	6.854495E-1	6.730521E-1	6.569102E-1	6.752556E-1	6.378632E-1	6.606737E-1	6.603941E-1	6.860525E-1	6.940097E-1	7.018882E-1	6.660400E-1	6.809226E-1	6.623061E-1	6.646712E-1	6.560892E-1	6.876405E-1	7.082967E-1	6.479655E-1	6.733427E-1	6.849784E-1	6.254067E-1	6.371039E-1	6.875161E-1	6.437343E-1	6.567852E-1	6.672497E-1	7.383147E-1	6.950869E-1	7.120442E-1	6.810239E-1	6.967850E-1	6.553113E-1	6.810119E-1	6.147379E-1	6.711717E-1	6.591089E-1	6.666714E-1	6.616418E-1	7.465304E-1	6.571918E-1	6.543099E-1	6.953418E-1	6.539767E-1	6.130407E-1	7.121809E-1	7.241822E-1	6.844191E-1	6.713820E-1	6.812701E-1	6.639981E-1	6.539159E-1	6.247887E-1	6.651683E-1	7.147671E-1	7.564790E-1	6.718602E-1	6.745222E-1	7.089390E-1	7.278853E-1	7.142133E-1	7.439757E-1	6.958887E-1	6.637471E-1	6.501937E-1	6.840996E-1	6.654274E-1	6.792324E-1	6.588628E-1	6.809487E-1	7.334803E-1	7.678834E-1	6.877611E-1	6.802530E-1	6.854967E-1	6.757558E-1	6.858850E-1	6.876237E-1	6.960627E-1	6.867154E-1	6.981844E-1	6.822282E-1	6.624017E-1	6.697130E-1	7.132195E-1	6.379835E-1	6.816312E-1	6.480103E-1	6.666808E-1	6.932155E-1	7.010036E-1	7.032521E-1	6.508364E-1	7.034941E-1	6.438064E-1	6.513949E-1	6.441204E-1	7.026712E-1	6.493487E-1	6.779585E-1	6.786278E-1	7.296767E-1	7.129206E-1	6.962737E-1	6.389048E-1	6.792153E-1	6.905933E-1	6.880101E-1	6.890144E-1	7.368662E-1	7.017073E-1	6.667285E-1	6.503277E-1	7.238234E-1	6.737090E-1	6.724549E-1	6.488191E-1	6.674494E-1	6.632799E-1	6.756165E-1	6.860990E-1	6.307580E-1	6.434541E-1	6.497905E-1	6.471000E-1	6.962019E-1	6.691439E-1	6.505623E-1	6.433067E-1	7.268969E-1	6.856891E-1	7.046962E-1	6.838666E-1	6.566864E-1	6.952341E-1	6.563656E-1	6.673532E-1	6.957527E-1	7.023302E-1	7.052580E-1	6.973944E-1	6.440831E-1	6.315762E-1	6.470844E-1	6.802001E-1	6.659428E-1	7.482150E-1	6.917720E-1
5.402100E+2	5.325524E-1	5.618762E-1	5.301845E-1	5.033172E-1	4.963136E-1	5.381060E-1	5.077496E-1	4.980645E-1	5.178341E-1	5.733477E-1	4.921325E-1	5.528899E-1	5.469979E-1	5.017650E-1	5.553849E-1	5.600366E-1	5.692281E-1	5.425966E-1	5.427532E-1	5.377501E-1	6.020514E-1	5.040707E-1	5.331608E-1	5.387252E-1	5.176757E-1	5.212086E-1	4.957697E-1	5.066580E-1	5.258508E-1	5.210744E-1	5.299041E-1	5.519956E-1	5.638785E-1	5.751234E-1	5.867440E-1	5.381844E-1	5.137503E-1	5.267444E-1	5.144034E-1	5.039304E-1	4.899909E-1	5.008742E-1	5.021217E-1	5.251388E-1	5.642978E-1	5.651528E-1	5.600157E-1	5.664723E-1	5.030180E-1	5.243749E-1	5.286618E-1	5.713898E-1	5.692199E-1	5.642723E-1	5.301711E-1	5.666900E-1	5.752656E-1	5.338543E-1	5.205754E-1	5.309793E-1	5.636134E-1	5.650652E-1	5.552564E-1	5.191123E-1	5.682733E-1	5.605917E-1	5.495154E-1	5.183931E-1	5.669547E-1	5.283686E-1	5.466844E-1	5.394381E-1	5.363936E-1	5.864615E-1	5.511471E-1	4.976243E-1	5.650485E-1	4.838260E-1	5.407032E-1	5.491447E-1	5.522431E-1	5.630457E-1	5.671013E-1	5.218203E-1	5.315412E-1	4.876611E-1	5.508971E-1	5.307992E-1	5.624249E-1	5.894127E-1	5.417904E-1	5.496533E-1	5.598380E-1	5.307266E-1	5.077563E-1	5.567518E-1	5.961460E-1	5.401312E-1	5.504226E-1	5.173615E-1	5.496124E-1	5.013898E-1	5.378774E-1	5.358796E-1	5.818464E-1	5.350447E-1	5.279268E-1	5.372092E-1	5.422973E-1	5.798416E-1	5.737899E-1	5.303097E-1	5.533188E-1	5.244438E-1	5.655107E-1	5.459466E-1	5.150266E-1	4.592901E-1	5.380143E-1	5.641469E-1	5.559630E-1	4.896142E-1	5.024585E-1	5.417316E-1	5.338772E-1	5.560785E-1	5.460672E-1	5.537483E-1	5.345041E-1	5.432440E-1	5.468888E-1	5.433741E-1	5.668847E-1	5.345672E-1	4.977084E-1	5.430837E-1	5.661960E-1	5.588533E-1	5.394997E-1	5.514284E-1	5.582604E-1	5.599285E-1	5.034987E-1	5.743315E-1	5.570079E-1	5.406249E-1	4.868431E-1	5.664920E-1	5.732253E-1	5.751087E-1	4.979229E-1	5.595698E-1	5.571849E-1	5.576687E-1	5.538052E-1	6.021958E-1	5.425953E-1	5.386899E-1	5.012398E-1	5.534863E-1	5.595614E-1	5.034655E-1	5.586123E-1	5.288248E-1	5.983066E-1
5.404120E+2	4.569362E-1	5.169319E-1	4.578235E-1	4.849670E-1	5.253985E-1	5.077743E-1	4.768687E-1	5.272085E-1	4.325752E-1	5.094395E-1	4.955740E-1	4.920730E-1	4.848135E-1	4.795407E-1	4.631151E-1	4.753623E-1	4.681986E-1	5.343535E-1	4.828124E-1	4.840197E-1	4.960580E-1	4.823335E-1	4.813264E-1	4.966301E-1	5.164129E-1	4.540389E-1	4.979251E-1	5.046683E-1	4.783655E-1	5.039929E-1	5.203532E-1	5.345935E-1	4.924973E-1	5.441997E-1	5.107276E-1	4.992259E-1	5.228661E-1	4.869741E-1	4.406118E-1	5.181586E-1	5.258188E-1	4.689149E-1	4.882099E-1	5.466617E-1	4.994820E-1	4.951898E-1	5.312761E-1	5.055035E-1	4.602333E-1	4.626652E-1	4.868583E-1	4.846677E-1	4.840270E-1	4.749745E-1	4.716365E-1	4.976123E-1	5.264918E-1	4.585548E-1	4.970832E-1	5.023943E-1	5.008875E-1	5.056840E-1	5.156054E-1	4.555167E-1	4.713263E-1	5.118660E-1	4.976667E-1	4.777132E-1	5.190797E-1	5.053454E-1	4.838476E-1	5.019774E-1	4.640241E-1	5.302852E-1	5.082805E-1	5.233219E-1	5.014579E-1	5.280619E-1	5.039546E-1	5.018527E-1	5.148528E-1	4.599720E-1	4.930485E-1	4.680318E-1	5.080640E-1	5.055761E-1	5.279958E-1	5.003961E-1	4.932697E-1	4.872294E-1	4.837873E-1	4.834185E-1	4.659708E-1	5.432312E-1	4.879072E-1	5.048474E-1	4.941311E-1	4.935045E-1	5.248646E-1	4.680803E-1	4.861671E-1	5.019481E-1	4.409545E-1	5.216644E-1	4.965970E-1	4.806668E-1	4.891777E-1	5.200048E-1	5.167191E-1	5.250741E-1	5.276136E-1	5.234540E-1	5.012654E-1	4.941225E-1	5.268361E-1	5.079367E-1	5.009056E-1	4.933922E-1	4.549822E-1	4.892495E-1	5.004119E-1	5.248237E-1	4.689704E-1	4.949163E-1	4.841299E-1	5.124093E-1	4.826887E-1	4.864089E-1	4.910667E-1	4.796057E-1	5.442111E-1	5.081413E-1	4.857055E-1	5.142632E-1	4.856734E-1	4.746061E-1	4.686209E-1	4.855839E-1	4.866708E-1	4.891129E-1	4.974232E-1	5.160597E-1	5.127241E-1	5.176729E-1	4.947587E-1	4.552039E-1	4.853594E-1	4.863616E-1	4.741902E-1	5.129492E-1	4.758427E-1	4.888492E-1	4.780685E-1	4.815202E-1	4.902980E-1	5.119332E-1	5.185186E-1	4.875348E-1	5.390834E-1	4.836448E-1	5.047053E-1	4.970192E-1	5.163021E-1	5.367629E-1	4.012064E-1
5.406090E+2	4.812258E-1	4.684277E-1	4.724097E-1	4.582568E-1	5.034186E-1	5.014720E-1	4.361198E-1	4.991274E-1	4.925423E-1	4.638497E-1	4.926429E-1	4.693935E-1	4.317287E-1	5.218520E-1	5.050801E-1	4.359927E-1	4.786102E-1	4.943057E-1	4.784495E-1	5.017788E-1	4.511022E-1	4.672389E-1	4.866740E-1	4.976521E-1	4.632071E-1	4.710603E-1	4.692229E-1	4.670710E-1	5.038268E-1	4.822487E-1	4.832570E-1	4.722091E-1	4.648470E-1	4.942488E-1	4.421903E-1	4.705256E-1	4.476287E-1	5.285422E-1	4.774168E-1	4.711019E-1	4.726237E-1	4.945287E-1	4.834612E-1	4.965438E-1	5.186849E-1	5.096117E-1	4.887273E-1	5.013111E-1	4.834119E-1	4.784040E-1	5.043751E-1	4.358173E-1	4.789807E-1	4.550373E-1	4.914530E-1	5.120374E-1	5.044095E-1	4.709963E-1	4.748576E-1	5.089879E-1	4.763238E-1	4.777621E-1	5.009895E-1	4.950495E-1	4.716479E-1	5.008280E-1	4.721104E-1	5.612663E-1	4.905117E-1	4.720334E-1	5.055683E-1	5.102370E-1	4.821902E-1	4.843339E-1	5.113302E-1	4.811258E-1	4.976555E-1	5.109029E-1	4.717849E-1	5.245755E-1	5.007284E-1	5.232151E-1	4.656655E-1	4.731685E-1	4.600620E-1	4.685813E-1	4.969293E-1	5.163128E-1	5.337410E-1	4.756096E-1	4.679128E-1	4.930676E-1	4.955607E-1	4.646020E-1	4.857475E-1	5.202503E-1	4.812613E-1	5.178423E-1	4.913492E-1	4.763163E-1	4.703033E-1	4.853227E-1	4.927667E-1	5.063683E-1	4.689962E-1	4.515626E-1	4.900529E-1	4.657996E-1	5.338744E-1	5.169922E-1	4.754191E-1	4.869350E-1	4.574409E-1	4.705526E-1	5.105698E-1	4.762345E-1	4.795294E-1	4.846348E-1	4.841647E-1	5.146274E-1	4.840429E-1	4.545989E-1	5.085466E-1	4.835039E-1	4.961610E-1	4.934857E-1	4.925956E-1	5.376503E-1	4.816488E-1	4.776899E-1	4.931423E-1	4.790106E-1	4.655278E-1	4.795450E-1	4.589884E-1	5.298904E-1	4.959673E-1	4.631340E-1	4.404706E-1	4.874534E-1	4.660519E-1	4.968177E-1	4.929184E-1	4.812401E-1	4.600034E-1	5.094683E-1	4.893756E-1	4.867825E-1	4.630394E-1	5.412724E-1	4.489716E-1	4.829659E-1	5.053400E-1	4.867021E-1	4.945752E-1	5.141532E-1	4.530205E-1	5.154003E-1	4.634095E-1	4.817191E-1	5.023131E-1	5.125302E-1	4.927190E-1	4.962032E-1	5.004206E-1
5.408060E+2	4.239295E-1	4.192411E-1	4.164822E-1	4.470543E-1	4.102516E-1	4.455162E-1	4.466266E-1	4.254250E-1	4.315006E-1	4.188634E-1	4.273620E-1	4.345026E-1	4.309693E-1	4.207320E-1	4.386084E-1	4.380271E-1	4.344349E-1	3.945439E-1	4.102575E-1	4.329527E-1	4.223779E-1	4.391248E-1	4.237903E-1	4.430892E-1	4.310312E-1	4.285653E-1	4.211487E-1	4.713133E-1	4.145879E-1	4.047749E-1	4.556327E-1	4.449939E-1	4.350050E-1	4.396645E-1	4.073971E-1	4.265572E-1	4.462773E-1	4.271626E-1	4.420330E-1	4.094143E-1	4.515006E-1	4.412086E-1	4.337841E-1	4.161018E-1	4.392047E-1	4.323728E-1	4.364837E-1	4.240770E-1	3.686728E-1	4.484534E-1	4.386048E-1	4.350726E-1	4.029275E-1	4.302536E-1	4.494090E-1	3.999057E-1	4.339175E-1	3.969930E-1	4.264838E-1	4.079127E-1	4.104858E-1	4.404921E-1	4.468090E-1	4.418140E-1	4.369531E-1	3.957412E-1	4.178024E-1	4.739724E-1	4.508550E-1	4.480014E-1	4.493472E-1	4.643061E-1	4.461387E-1	4.469653E-1	4.026738E-1	4.269738E-1	4.360832E-1	4.495058E-1	4.336224E-1	4.264565E-1	4.549885E-1	4.278381E-1	3.947173E-1	4.182011E-1	4.516591E-1	4.409712E-1	4.729579E-1	4.147446E-1	4.510719E-1	4.423400E-1	4.216693E-1	4.352032E-1	4.165127E-1	4.081217E-1	4.262366E-1	4.606442E-1	4.390467E-1	3.939931E-1	4.391399E-1	4.286774E-1	4.087904E-1	4.335959E-1	4.154598E-1	4.336755E-1	3.979334E-1	4.758210E-1	4.046288E-1	4.285289E-1	4.262705E-1	4.379749E-1	4.238580E-1	4.859889E-1	4.331029E-1	4.439121E-1	4.228438E-1	4.280037E-1	4.437318E-1	4.018748E-1	4.397924E-1	4.488778E-1	4.333528E-1	4.223548E-1	4.523008E-1	4.461841E-1	4.511460E-1	3.894697E-1	4.305692E-1	4.119151E-1	4.589384E-1	4.495331E-1	4.395900E-1	4.606854E-1	4.466406E-1	4.141358E-1	4.328294E-1	4.382037E-1	4.560814E-1	4.505858E-1	4.340479E-1	4.227183E-1	4.380785E-1	4.154466E-1	4.579570E-1	4.197489E-1	4.402315E-1	4.494295E-1	4.311392E-1	4.062453E-1	4.661591E-1	4.593911E-1	4.170918E-1	4.125881E-1	4.205778E-1	4.146752E-1	4.962380E-1	4.451790E-1	4.538973E-1	4.491612E-1	4.396470E-1	4.254990E-1	4.451452E-1	4.559189E-1	4.590802E-1	4.203970E-1	4.300918E-1
5.410240E+2	3.454201E-1	3.827451E-1	3.528188E-1	3.499736E-1	3.616798E-1	3.869147E-1	3.299701E-1	3.472892E-1	3.647322E-1	3.685523E-1	3.447069E-1	3.404574E-1	3.538369E-1	3.916481E-1	3.515892E-1	3.511014E-1	3.642093E-1	3.433462E-1	3.474430E-1	3.871946E-1	3.754772E-1	3.676247E-1	3.203299E-1	3.632562E-1	3.676351E-1	3.688368E-1	3.728368E-1	3.822113E-1	3.716537E-1	3.902976E-1	3.659051E-1	3.688990E-1	3.824142E-1	3.824305E-1	3.858093E-1	3.510929E-1	3.501504E-1	3.676168E-1	3.257658E-1	3.473656E-1	4.218143E-1	3.555059E-1	3.627778E-1	3.405566E-1	3.666546E-1	4.048125E-1	3.832033E-1	3.385471E-1	3.461053E-1	3.721429E-1	3.794017E-1	3.343394E-1	3.709575E-1	3.442383E-1	3.810027E-1	3.769905E-1	4.047161E-1	3.688419E-1	3.257433E-1	3.518947E-1	3.489714E-1	3.558372E-1	3.525312E-1	3.701397E-1	3.842176E-1	3.791244E-1	3.597431E-1	3.517319E-1	3.860311E-1	3.506702E-1	3.752425E-1	3.876446E-1	3.840109E-1	3.882204E-1	3.762827E-1	3.769047E-1	3.600084E-1	3.878935E-1	3.862110E-1	3.833123E-1	3.413988E-1	3.459744E-1	3.611771E-1	3.673556E-1	3.698208E-1	3.738514E-1	3.864765E-1	3.765160E-1	3.519696E-1	4.039255E-1	3.543294E-1	3.234509E-1	3.632578E-1	3.474542E-1	3.665503E-1	3.851018E-1	3.374057E-1	3.696174E-1	3.475873E-1	3.378454E-1	3.626545E-1	3.661125E-1	3.709681E-1	3.602733E-1	3.725726E-1	3.537960E-1	3.457001E-1	3.301320E-1	3.658256E-1	3.542760E-1	3.423244E-1	3.916520E-1	4.082201E-1	3.301692E-1	3.794136E-1	3.858292E-1	3.792997E-1	3.847818E-1	3.520643E-1	3.886967E-1	3.748762E-1	3.642040E-1	3.781421E-1	3.698646E-1	3.908444E-1	3.948076E-1	4.072086E-1	3.881502E-1	3.636982E-1	3.698005E-1	3.572877E-1	3.618940E-1	3.713480E-1	3.327620E-1	3.511888E-1	3.331062E-1	3.616480E-1	3.603738E-1	3.636495E-1	3.320316E-1	3.914856E-1	3.685834E-1	3.743261E-1	4.097444E-1	3.749123E-1	3.607182E-1	3.787660E-1	3.255807E-1	4.164895E-1	3.509231E-1	3.546816E-1	3.618635E-1	3.566975E-1	3.884152E-1	3.333459E-1	3.886570E-1	3.718682E-1	3.485087E-1	3.654457E-1	3.934257E-1	3.258601E-1	3.718483E-1	3.855346E-1	3.359851E-1	3.236587E-1
5.415040E+2	3.618992E-1	3.382306E-1	3.704742E-1	3.897000E-1	4.123373E-1	3.618025E-1	3.603736E-1	3.560547E-1	3.831472E-1	3.632029E-1	3.486951E-1	3.791122E-1	3.808999E-1	3.700282E-1	4.001345E-1	3.385360E-1	3.372128E-1	3.636210E-1	3.832038E-1	3.686256E-1	3.639021E-1	3.862742E-1	3.647438E-1	3.620500E-1	3.475434E-1	3.785166E-1	3.860835E-1	3.677055E-1	3.666069E-1	3.673427E-1	3.612362E-1	3.504679E-1	3.825826E-1	3.955432E-1	3.880463E-1	4.027614E-1	3.878371E-1	3.571865E-1	3.463521E-1	3.896998E-1	3.523628E-1	3.635711E-1	4.120948E-1	3.687045E-1	3.925740E-1	4.051968E-1	4.065658E-1	3.680510E-1	3.176451E-1	3.267893E-1	3.731279E-1	3.827965E-1	3.455694E-1	3.958539E-1	3.522769E-1	3.702388E-1	3.851937E-1	3.840269E-1	4.116024E-1	3.786340E-1	3.685569E-1	4.025336E-1	3.806657E-1	3.466243E-1	3.490301E-1	4.327353E-1	3.734345E-1	3.346652E-1	3.756695E-1	4.143795E-1	3.545333E-1	3.598081E-1	3.824595E-1	3.697306E-1	3.674388E-1	3.652680E-1	3.745708E-1	3.696868E-1	3.685113E-1	4.348535E-1	3.758015E-1	4.067212E-1	3.502575E-1	3.418676E-1	3.889677E-1	3.841784E-1	4.059641E-1	3.962439E-1	3.982509E-1	3.491859E-1	3.417844E-1	3.786758E-1	3.548253E-1	3.959316E-1	4.064521E-1	3.995633E-1	3.840705E-1	3.640443E-1	3.803751E-1	3.338546E-1	3.504019E-1	3.646366E-1	3.973408E-1	3.764932E-1	3.820788E-1	3.833114E-1	3.650229E-1	3.582791E-1	3.895200E-1	3.753400E-1	4.237249E-1	3.952332E-1	3.914215E-1	3.957591E-1	3.793231E-1	3.311401E-1	3.821579E-1	3.749850E-1	3.562982E-1	3.944009E-1	4.095648E-1	3.386568E-1	3.947370E-1	3.712798E-1	3.915748E-1	3.542736E-1	3.900657E-1	3.580514E-1	3.838634E-1	4.223742E-1	4.092754E-1	3.788180E-1	4.032573E-1	3.625792E-1	3.710019E-1	3.596792E-1	3.992903E-1	3.980328E-1	3.744844E-1	3.967128E-1	3.908094E-1	3.470323E-1	3.779233E-1	3.828556E-1	4.021594E-1	3.772290E-1	3.867024E-1	3.839780E-1	3.862248E-1	3.889096E-1	3.774201E-1	3.583444E-1	3.536646E-1	3.735653E-1	3.908933E-1	3.900840E-1	3.994608E-1	3.813638E-1	3.711678E-1	3.613961E-1	3.523735E-1	4.019471E-1	4.015197E-1	4.093771E-1	3.539416E-1
5.420110E+2	5.008785E-1	4.789921E-1	4.529205E-1	4.886229E-1	4.923915E-1	5.058521E-1	4.673206E-1	4.894386E-1	4.532610E-1	4.340294E-1	4.649551E-1	5.137426E-1	4.572883E-1	4.784728E-1	4.499851E-1	4.972829E-1	4.653772E-1	4.861842E-1	5.108281E-1	5.195682E-1	5.104028E-1	4.758436E-1	4.748288E-1	4.637655E-1	4.961751E-1	4.688393E-1	4.845032E-1	4.615477E-1	4.864126E-1	4.943682E-1	4.931332E-1	4.497049E-1	4.547071E-1	4.701345E-1	5.063587E-1	4.907177E-1	4.768374E-1	4.769030E-1	4.531415E-1	4.704697E-1	4.915757E-1	4.399128E-1	5.145802E-1	4.805807E-1	4.809936E-1	4.670786E-1	4.753564E-1	4.558806E-1	4.679656E-1	4.749290E-1	4.930410E-1	4.949617E-1	4.776045E-1	4.757986E-1	4.631404E-1	5.041257E-1	4.286852E-1	5.000112E-1	4.998442E-1	4.691228E-1	5.087492E-1	4.956579E-1	4.940892E-1	4.894313E-1	4.665352E-1	5.022395E-1	4.887892E-1	4.897165E-1	5.174597E-1	4.818011E-1	4.631988E-1	5.345998E-1	4.918500E-1	4.850212E-1	5.093777E-1	4.781852E-1	5.038879E-1	5.074480E-1	5.210151E-1	4.973890E-1	4.750992E-1	4.810403E-1	4.981664E-1	5.037312E-1	5.093274E-1	4.596436E-1	4.712607E-1	4.846045E-1	4.903062E-1	4.974182E-1	4.770689E-1	4.822883E-1	5.091759E-1	4.803546E-1	5.134167E-1	5.048969E-1	4.468675E-1	4.797129E-1	4.841409E-1	5.067954E-1	4.985481E-1	4.927350E-1	4.907954E-1	5.094598E-1	4.939068E-1	4.847434E-1	4.924897E-1	4.741180E-1	4.893965E-1	4.686817E-1	5.280494E-1	4.769519E-1	5.000168E-1	4.818107E-1	5.216478E-1	4.815998E-1	4.674922E-1	4.763300E-1	4.699104E-1	4.836564E-1	4.906703E-1	4.456599E-1	4.748695E-1	4.594262E-1	5.122360E-1	4.969240E-1	4.878561E-1	5.217431E-1	4.620409E-1	4.868443E-1	4.897524E-1	4.917776E-1	4.709288E-1	4.887431E-1	4.243117E-1	5.010076E-1	4.765379E-1	4.735408E-1	4.904108E-1	5.046121E-1	4.922255E-1	4.809201E-1	4.761939E-1	5.551899E-1	4.777705E-1	5.031103E-1	5.170037E-1	4.795650E-1	5.161883E-1	4.898282E-1	4.711477E-1	4.726686E-1	5.082589E-1	4.958504E-1	5.226533E-1	5.172077E-1	4.861771E-1	4.873190E-1	4.971854E-1	4.779607E-1	4.732897E-1	5.531394E-1	5.144379E-1	4.773390E-1	5.661895E-1
5.425080E+2	6.895045E-1	7.007618E-1	6.633255E-1	6.972102E-1	7.238077E-1	6.642864E-1	6.631702E-1	6.803144E-1	6.779907E-1	6.787443E-1	6.573296E-1	6.852655E-1	6.598137E-1	6.919171E-1	6.901334E-1	6.789545E-1	6.892435E-1	6.321554E-1	6.733977E-1	6.648428E-1	6.715096E-1	7.262556E-1	6.773882E-1	6.404345E-1	7.380147E-1	6.603395E-1	7.240874E-1	7.044709E-1	6.514114E-1	6.433693E-1	6.827357E-1	6.917126E-1	6.575753E-1	7.047182E-1	7.370662E-1	6.939813E-1	6.574597E-1	6.791898E-1	6.513317E-1	6.996775E-1	6.665155E-1	7.121300E-1	6.984408E-1	6.650666E-1	6.566261E-1	6.485827E-1	6.822569E-1	6.672296E-1	6.313323E-1	6.573554E-1	6.570622E-1	6.917627E-1	6.758527E-1	6.830512E-1	6.504576E-1	6.891703E-1	6.556196E-1	6.880229E-1	7.161381E-1	7.123572E-1	6.627751E-1	6.978925E-1	7.108249E-1	6.635801E-1	7.046320E-1	6.782201E-1	7.063742E-1	6.688397E-1	7.218668E-1	6.448417E-1	6.841181E-1	6.994808E-1	6.643161E-1	6.748903E-1	6.343102E-1	7.239388E-1	7.394998E-1	6.863865E-1	6.837936E-1	6.905959E-1	6.626386E-1	6.403445E-1	6.898850E-1	6.914501E-1	6.802383E-1	6.520358E-1	6.697886E-1	6.804291E-1	6.822248E-1	6.952717E-1	6.965643E-1	6.661320E-1	6.286520E-1	6.645222E-1	6.807377E-1	7.274037E-1	6.822521E-1	6.291717E-1	6.839358E-1	6.661653E-1	6.613977E-1	6.880706E-1	7.262767E-1	6.830705E-1	6.769306E-1	7.348191E-1	6.866496E-1	6.473463E-1	6.628856E-1	6.785701E-1	7.372231E-1	7.183514E-1	6.805682E-1	6.776201E-1	6.807036E-1	6.426269E-1	6.631255E-1	7.058402E-1	7.048426E-1	6.698866E-1	6.832186E-1	6.390272E-1	7.453191E-1	6.569354E-1	6.772354E-1	6.564414E-1	7.080517E-1	6.605830E-1	7.265589E-1	6.704568E-1	7.139342E-1	6.934744E-1	6.775616E-1	6.815344E-1	6.701388E-1	6.445251E-1	6.972460E-1	6.165161E-1	7.158839E-1	6.683208E-1	6.804716E-1	6.354407E-1	6.762873E-1	6.712498E-1	6.503422E-1	6.462571E-1	6.749779E-1	7.191581E-1	7.034378E-1	6.563723E-1	6.450452E-1	7.102202E-1	6.877422E-1	6.330065E-1	7.168226E-1	7.423730E-1	6.793498E-1	6.742920E-1	6.406790E-1	7.036395E-1	6.997747E-1	7.018097E-1	6.295179E-1	5.631371E-1	6.921637E-1
5.430120E+2	8.989370E-1	9.144021E-1	8.579277E-1	9.295901E-1	9.593636E-1	8.835049E-1	8.970900E-1	8.789117E-1	8.509118E-1	9.370847E-1	8.716095E-1	8.957927E-1	9.156879E-1	9.112932E-1	9.249991E-1	9.244310E-1	9.140661E-1	8.598058E-1	9.209565E-1	8.617287E-1	9.193597E-1	9.420846E-1	9.182502E-1	8.851050E-1	8.589908E-1	8.790022E-1	9.270363E-1	9.329368E-1	9.525383E-1	8.717551E-1	9.323319E-1	9.236079E-1	8.784965E-1	8.761030E-1	9.295558E-1	9.654376E-1	8.618302E-1	9.430524E-1	8.785196E-1	9.347511E-1	8.834414E-1	9.259538E-1	9.369900E-1	8.548996E-1	9.083446E-1	8.856418E-1	9.245664E-1	9.064301E-1	8.558979E-1	8.097529E-1	9.098966E-1	9.020929E-1	8.578387E-1	8.830489E-1	9.006096E-1	9.238267E-1	9.365998E-1	8.900653E-1	9.237811E-1	9.090318E-1	8.627228E-1	8.848803E-1	8.942883E-1	9.106812E-1	8.692752E-1	8.854077E-1	9.049147E-1	9.028699E-1	9.585300E-1	8.869524E-1	8.666508E-1	9.065732E-1	9.005217E-1	8.736555E-1	9.193378E-1	9.570947E-1	8.955407E-1	9.390131E-1	9.548581E-1	9.554119E-1	8.649247E-1	8.909324E-1	9.384027E-1	8.729006E-1	9.018836E-1	9.329975E-1	8.789949E-1	9.015902E-1	9.074815E-1	8.576389E-1	9.483781E-1	9.091902E-1	9.179235E-1	8.534507E-1	8.615203E-1	9.421374E-1	8.597572E-1	8.888566E-1	9.069750E-1	8.878544E-1	9.034059E-1	8.884707E-1	8.910592E-1	8.913327E-1	9.201140E-1	9.214140E-1	9.081038E-1	8.546224E-1	9.660673E-1	8.865651E-1	9.051989E-1	9.161883E-1	9.404325E-1	9.156166E-1	8.779548E-1	9.278439E-1	8.644449E-1	8.736293E-1	8.873874E-1	9.075841E-1	8.975497E-1	8.300504E-1	8.519399E-1	8.949029E-1	9.481506E-1	9.365379E-1	9.444103E-1	9.005300E-1	9.468175E-1	9.372308E-1	9.253998E-1	8.816951E-1	8.902372E-1	8.463784E-1	8.559308E-1	9.149132E-1	9.241220E-1	8.879890E-1	9.095112E-1	8.581645E-1	8.944545E-1	8.859384E-1	8.754441E-1	9.362235E-1	8.701446E-1	9.274893E-1	9.063033E-1	9.218597E-1	8.891847E-1	8.901743E-1	8.585691E-1	9.086710E-1	8.815960E-1	9.058609E-1	8.848529E-1	8.968513E-1	9.386656E-1	9.051736E-1	9.445054E-1	8.953896E-1	8.628486E-1	9.066215E-1	9.194757E-1	9.230211E-1	9.363248E-1
5.435330E+2	9.565646E-1	9.817216E-1	9.556258E-1	1.005989E+0	9.634410E-1	9.429184E-1	9.047211E-1	9.575173E-1	9.438424E-1	9.020639E-1	9.142791E-1	9.792786E-1	1.014088E+0	9.356161E-1	1.013483E+0	9.305010E-1	9.917892E-1	9.202605E-1	9.491036E-1	9.326420E-1	1.013130E+0	1.014885E+0	9.563891E-1	9.311177E-1	9.498694E-1	9.865808E-1	9.997980E-1	9.355024E-1	9.769374E-1	9.439269E-1	1.026265E+0	1.010199E+0	9.029573E-1	9.875926E-1	9.908055E-1	9.969533E-1	9.805539E-1	9.512583E-1	9.621655E-1	9.167546E-1	9.947205E-1	9.224950E-1	9.602776E-1	9.230598E-1	9.562651E-1	1.031452E+0	9.232587E-1	8.989885E-1	8.736567E-1	9.141171E-1	9.399012E-1	9.593834E-1	9.234122E-1	9.485960E-1	9.475317E-1	9.584541E-1	1.034789E+0	9.191643E-1	1.001467E+0	9.913631E-1	9.389344E-1	9.500859E-1	9.998244E-1	9.511949E-1	9.527159E-1	9.735776E-1	9.453397E-1	9.073221E-1	9.319813E-1	9.401205E-1	9.584970E-1	9.671187E-1	9.983555E-1	9.578717E-1	9.260310E-1	9.751783E-1	9.218509E-1	9.842804E-1	9.840128E-1	9.944438E-1	8.953804E-1	9.368769E-1	9.670182E-1	9.416786E-1	9.728071E-1	8.971500E-1	9.894630E-1	9.466162E-1	1.020172E+0	9.167051E-1	9.593545E-1	9.285184E-1	9.193256E-1	8.632833E-1	9.759257E-1	9.900253E-1	9.678041E-1	9.285845E-1	9.084314E-1	9.266257E-1	8.979010E-1	9.932909E-1	9.584924E-1	9.185555E-1	9.610731E-1	9.388423E-1	9.171423E-1	9.478720E-1	9.643024E-1	9.623747E-1	1.008249E+0	9.412212E-1	9.266346E-1	9.405182E-1	9.661583E-1	9.348270E-1	9.794447E-1	9.341407E-1	9.706862E-1	1.062557E+0	9.471634E-1	9.452728E-1	9.383360E-1	9.407117E-1	9.655419E-1	9.399484E-1	1.049925E+0	9.466069E-1	9.274392E-1	1.000747E+0	9.945474E-1	9.379565E-1	9.212922E-1	9.444056E-1	1.006564E+0	9.506413E-1	9.684547E-1	9.266713E-1	9.563609E-1	9.756282E-1	9.622532E-1	9.471521E-1	9.839574E-1	1.057400E+0	9.319782E-1	8.944211E-1	9.457568E-1	9.720513E-1	9.733562E-1	9.431082E-1	9.729578E-1	9.102770E-1	9.914592E-1	9.570422E-1	9.632229E-1	9.793813E-1	9.647567E-1	9.385765E-1	9.985240E-1	9.767803E-1	9.612298E-1	9.810584E-1	9.111461E-1	9.260569E-1	9.617194E-1
5.440170E+2	9.569010E-1	9.389199E-1	9.390041E-1	9.561061E-1	9.717316E-1	9.849383E-1	9.758951E-1	9.246446E-1	1.021584E+0	9.254501E-1	9.742361E-1	9.458463E-1	9.940452E-1	9.391369E-1	9.430710E-1	9.084818E-1	9.566401E-1	9.465664E-1	9.774515E-1	9.375544E-1	9.659119E-1	1.002755E+0	9.285731E-1	9.712298E-1	9.514629E-1	9.478222E-1	9.315010E-1	9.589383E-1	9.158828E-1	9.513714E-1	9.704348E-1	9.750402E-1	9.029443E-1	9.359403E-1	9.680621E-1	9.667208E-1	9.383308E-1	9.984003E-1	9.048773E-1	9.408377E-1	9.404000E-1	8.684095E-1	9.186093E-1	9.172309E-1	9.324528E-1	9.789162E-1	9.704451E-1	9.259562E-1	9.294845E-1	9.404455E-1	9.750297E-1	9.538391E-1	9.169928E-1	9.373306E-1	9.574124E-1	9.418067E-1	9.700309E-1	8.702718E-1	9.796965E-1	9.275437E-1	9.695265E-1	9.348043E-1	9.381342E-1	9.709715E-1	9.279881E-1	8.870895E-1	9.451925E-1	9.328688E-1	1.026997E+0	8.897316E-1	9.460972E-1	9.931692E-1	9.641033E-1	9.152643E-1	9.449226E-1	8.845358E-1	9.793644E-1	9.335098E-1	9.307629E-1	1.004395E+0	9.304204E-1	9.540174E-1	9.782286E-1	8.713822E-1	9.335877E-1	9.087771E-1	1.035342E+0	9.621083E-1	9.617117E-1	9.399086E-1	9.174409E-1	9.145703E-1	9.416988E-1	9.332645E-1	9.517424E-1	9.688994E-1	9.529312E-1	9.567788E-1	9.032326E-1	9.839066E-1	9.473630E-1	9.324766E-1	9.538649E-1	9.246246E-1	1.003283E+0	8.545153E-1	9.384233E-1	9.221046E-1	8.985262E-1	9.699818E-1	1.017409E+0	9.878892E-1	9.542571E-1	9.347047E-1	9.309058E-1	9.462760E-1	9.542147E-1	9.373234E-1	9.681736E-1	9.559864E-1	9.155129E-1	9.366421E-1	9.394747E-1	9.394984E-1	1.009897E+0	9.232577E-1	9.805534E-1	9.528495E-1	9.307198E-1	9.822039E-1	9.421587E-1	9.058369E-1	9.598517E-1	9.326255E-1	9.367448E-1	9.575926E-1	1.004770E+0	9.272973E-1	9.461434E-1	9.391963E-1	9.495414E-1	9.004371E-1	9.238668E-1	9.935767E-1	9.803399E-1	9.491552E-1	9.387491E-1	9.678940E-1	9.642537E-1	9.378555E-1	9.273119E-1	9.564915E-1	9.450077E-1	9.979781E-1	9.323480E-1	9.553610E-1	9.579474E-1	9.728676E-1	9.162223E-1	9.428367E-1	9.223469E-1	9.258183E-1	9.398972E-1	9.140878E-1	7.660333E-1
5.445020E+2	9.704089E-1	8.926233E-1	8.383523E-1	9.491242E-1	1.030319E+0	9.309972E-1	8.643370E-1	9.411893E-1	9.273237E-1	9.256140E-1	9.200573E-1	9.169925E-1	9.309612E-1	9.087389E-1	9.642968E-1	9.450937E-1	8.980127E-1	8.422904E-1	9.122673E-1	9.489251E-1	9.071391E-1	9.420224E-1	9.571556E-1	8.971807E-1	9.325990E-1	8.834268E-1	9.053404E-1	9.089749E-1	8.537745E-1	9.191136E-1	9.720168E-1	8.830395E-1	8.730474E-1	9.360155E-1	9.286610E-1	9.246776E-1	8.850321E-1	9.492919E-1	9.013208E-1	9.340492E-1	8.482356E-1	8.913550E-1	9.660669E-1	8.860400E-1	9.762794E-1	8.734269E-1	9.049484E-1	9.381867E-1	8.571661E-1	9.049663E-1	9.654946E-1	9.537900E-1	9.286080E-1	9.012752E-1	9.133128E-1	9.192895E-1	9.395953E-1	9.188190E-1	9.028767E-1	8.949620E-1	9.202148E-1	8.966555E-1	9.210992E-1	8.886060E-1	8.959827E-1	9.034665E-1	9.046547E-1	8.176996E-1	9.844768E-1	8.896071E-1	9.046543E-1	8.895331E-1	9.287443E-1	8.893502E-1	9.265829E-1	8.862129E-1	8.979482E-1	9.169509E-1	8.962910E-1	9.441100E-1	9.516277E-1	8.923178E-1	9.431020E-1	9.078028E-1	8.598023E-1	8.951920E-1	9.227763E-1	9.126709E-1	9.647986E-1	9.463518E-1	9.438355E-1	9.037731E-1	8.946214E-1	8.610602E-1	9.290394E-1	9.670670E-1	9.253322E-1	8.787402E-1	9.473532E-1	9.291656E-1	9.003831E-1	9.357400E-1	8.936766E-1	9.644024E-1	9.379007E-1	9.486655E-1	9.123917E-1	9.410573E-1	9.083479E-1	8.847272E-1	9.548185E-1	9.242728E-1	9.638476E-1	9.224345E-1	9.291130E-1	9.347481E-1	9.370521E-1	8.573111E-1	9.298369E-1	9.904518E-1	9.656729E-1	8.444480E-1	9.292337E-1	9.130578E-1	9.301117E-1	8.918299E-1	9.363585E-1	9.319048E-1	9.123712E-1	9.081741E-1	8.801972E-1	8.723744E-1	8.725361E-1	8.538872E-1	8.440165E-1	8.756997E-1	9.135159E-1	9.072436E-1	9.217790E-1	8.949608E-1	9.458832E-1	8.614652E-1	9.405102E-1	9.959033E-1	9.104218E-1	9.177190E-1	8.949759E-1	9.142746E-1	9.239225E-1	9.443682E-1	9.109255E-1	9.495035E-1	9.265770E-1	9.034929E-1	8.971238E-1	9.494127E-1	9.668789E-1	9.185364E-1	9.638251E-1	9.009479E-1	8.520242E-1	8.652483E-1	8.883217E-1	9.196685E-1	9.898317E-1
5.450090E+2	8.777361E-1	8.891795E-1	8.830704E-1	8.628714E-1	8.935622E-1	9.010195E-1	9.224323E-1	8.148176E-1	9.017405E-1	8.648089E-1	8.683268E-1	8.938677E-1	9.104819E-1	8.707307E-1	9.083071E-1	9.000531E-1	9.166181E-1	8.853669E-1	9.257772E-1	9.633703E-1	9.121953E-1	9.080214E-1	8.593714E-1	8.864302E-1	8.628991E-1	8.933121E-1	8.799718E-1	9.112255E-1	8.820560E-1	9.244454E-1	9.270125E-1	8.641176E-1	8.951264E-1	9.362809E-1	8.581387E-1	9.142152E-1	8.790267E-1	9.328724E-1	8.640702E-1	9.421284E-1	8.560476E-1	8.215536E-1	9.067229E-1	8.816145E-1	8.755922E-1	8.478573E-1	9.217396E-1	8.868233E-1	8.030255E-1	8.685979E-1	8.700999E-1	9.322387E-1	8.277618E-1	8.369255E-1	8.840701E-1	9.097249E-1	9.313890E-1	8.814944E-1	9.027912E-1	8.643281E-1	8.778988E-1	8.713543E-1	8.719679E-1	8.673570E-1	8.754696E-1	8.687823E-1	9.016586E-1	9.246400E-1	9.219255E-1	8.207064E-1	8.664164E-1	9.062629E-1	8.931495E-1	8.920784E-1	9.057146E-1	9.033521E-1	9.223443E-1	8.954635E-1	9.067995E-1	9.783575E-1	8.720412E-1	8.988709E-1	8.670426E-1	8.877766E-1	8.403849E-1	8.665840E-1	9.003486E-1	9.117286E-1	9.640590E-1	8.760609E-1	8.963585E-1	8.852697E-1	8.623337E-1	8.967566E-1	9.017958E-1	9.107599E-1	9.144905E-1	8.692313E-1	9.105282E-1	8.930570E-1	8.332875E-1	8.781364E-1	8.580995E-1	8.585455E-1	8.735055E-1	8.626117E-1	8.775519E-1	8.664432E-1	8.566905E-1	9.355052E-1	8.992281E-1	9.086248E-1	9.210969E-1	8.720352E-1	9.370645E-1	8.969597E-1	9.040488E-1	8.450043E-1	8.808728E-1	9.468916E-1	8.567085E-1	8.456357E-1	9.157079E-1	8.816820E-1	8.622938E-1	8.613130E-1	9.290821E-1	8.792748E-1	9.062360E-1	8.564911E-1	9.072594E-1	9.202534E-1	9.113158E-1	8.440019E-1	8.798895E-1	8.761552E-1	8.514629E-1	8.960276E-1	8.723634E-1	8.653902E-1	8.760145E-1	8.556736E-1	8.751299E-1	9.319074E-1	8.545774E-1	9.212197E-1	8.679211E-1	8.741026E-1	9.060416E-1	9.079567E-1	7.991187E-1	8.961532E-1	8.399806E-1	9.116622E-1	8.974233E-1	9.274357E-1	9.482087E-1	8.834878E-1	9.530209E-1	8.720528E-1	8.690404E-1	9.480262E-1	8.908170E-1	8.636276E-1	1.044679E+0
5.455130E+2	9.008687E-1	8.894915E-1	9.268228E-1	8.968996E-1	9.229649E-1	8.949846E-1	8.688909E-1	8.456279E-1	9.108652E-1	8.893330E-1	9.059855E-1	8.636828E-1	8.727011E-1	8.196728E-1	8.779147E-1	8.718756E-1	8.622251E-1	9.140888E-1	9.256795E-1	9.418821E-1	9.244218E-1	8.618021E-1	8.929799E-1	9.334981E-1	8.884992E-1	8.879560E-1	8.770175E-1	8.747763E-1	8.738766E-1	8.904416E-1	9.141516E-1	8.884264E-1	8.934549E-1	8.790726E-1	8.600115E-1	9.107754E-1	9.443154E-1	9.248827E-1	8.891333E-1	9.104839E-1	8.837290E-1	8.869419E-1	8.756964E-1	9.382920E-1	8.861087E-1	8.960769E-1	9.391999E-1	8.986425E-1	8.566507E-1	8.529132E-1	8.777030E-1	8.925937E-1	8.699924E-1	9.278630E-1	8.979505E-1	8.741864E-1	9.717797E-1	8.607260E-1	9.275650E-1	9.042852E-1	8.884134E-1	8.847686E-1	9.283512E-1	9.440949E-1	8.794000E-1	9.325017E-1	8.881084E-1	8.868994E-1	8.824635E-1	8.963790E-1	8.868312E-1	9.742838E-1	9.400819E-1	9.062590E-1	8.876372E-1	9.324683E-1	9.435442E-1	9.649491E-1	8.868721E-1	9.411275E-1	9.301773E-1	8.869141E-1	9.028654E-1	8.802301E-1	9.321630E-1	8.707341E-1	8.881101E-1	9.198949E-1	9.017424E-1	8.441945E-1	9.150787E-1	9.197703E-1	8.760076E-1	9.070114E-1	8.825963E-1	8.906188E-1	9.172664E-1	8.687237E-1	8.619129E-1	8.852910E-1	8.788425E-1	8.585364E-1	9.004174E-1	8.951861E-1	8.784161E-1	8.674818E-1	8.904657E-1	8.703064E-1	8.983423E-1	8.449288E-1	9.390352E-1	9.090529E-1	9.416556E-1	8.625801E-1	9.371027E-1	9.414542E-1	9.045291E-1	8.191585E-1	9.124622E-1	9.331808E-1	9.055037E-1	8.912055E-1	9.366993E-1	8.849457E-1	9.013600E-1	8.906963E-1	9.376426E-1	9.685785E-1	9.249320E-1	8.954985E-1	9.639228E-1	9.144826E-1	8.927727E-1	8.721962E-1	8.433814E-1	8.773372E-1	9.705456E-1	8.551380E-1	8.968733E-1	8.937494E-1	9.126492E-1	8.714715E-1	9.176174E-1	9.147763E-1	9.237886E-1	8.599192E-1	8.681871E-1	9.096623E-1	9.172510E-1	9.033339E-1	9.097950E-1	8.981912E-1	9.045104E-1	8.948536E-1	8.804208E-1	9.451523E-1	9.353078E-1	8.790346E-1	8.708565E-1	9.015569E-1	9.362623E-1	8.678406E-1	9.478246E-1	9.781271E-1	8.475060E-1
5.460060E+2	9.374416E-1	9.856270E-1	9.250366E-1	9.368521E-1	9.996365E-1	9.573438E-1	9.269864E-1	9.177974E-1	9.016836E-1	9.534206E-1	9.176169E-1	8.903095E-1	9.012039E-1	8.787331E-1	9.268490E-1	9.493875E-1	8.986412E-1	9.073498E-1	9.186871E-1	9.457509E-1	9.592735E-1	9.553016E-1	8.980144E-1	9.169820E-1	9.585524E-1	9.896716E-1	9.467277E-1	9.560435E-1	8.834616E-1	8.897137E-1	9.186887E-1	9.219168E-1	9.803870E-1	9.310406E-1	9.245264E-1	9.704961E-1	9.267199E-1	9.856060E-1	9.109823E-1	9.201093E-1	9.962916E-1	9.185192E-1	8.896276E-1	9.537939E-1	9.031695E-1	9.508969E-1	9.012821E-1	9.334259E-1	9.437016E-1	8.914849E-1	9.054232E-1	9.184076E-1	9.187044E-1	9.643742E-1	8.913753E-1	9.432236E-1	9.417695E-1	9.434444E-1	9.490819E-1	9.706027E-1	8.921726E-1	9.811165E-1	9.373342E-1	9.049317E-1	9.568124E-1	9.359691E-1	9.257404E-1	9.584309E-1	9.993727E-1	9.420295E-1	9.864155E-1	9.791122E-1	9.416749E-1	9.264748E-1	9.454710E-1	9.447622E-1	9.135597E-1	9.578236E-1	9.533696E-1	1.048399E+0	9.037854E-1	9.580339E-1	9.880116E-1	9.084013E-1	9.788535E-1	9.444828E-1	9.797600E-1	8.813608E-1	9.211788E-1	9.613116E-1	9.261143E-1	9.751825E-1	9.378970E-1	9.720283E-1	9.195901E-1	9.011655E-1	9.484227E-1	9.327570E-1	9.145366E-1	9.100950E-1	9.228151E-1	9.560245E-1	8.977197E-1	9.684314E-1	8.972420E-1	9.120791E-1	9.351614E-1	9.448085E-1	9.231785E-1	9.745434E-1	9.775429E-1	9.533507E-1	9.851564E-1	9.406624E-1	9.989000E-1	8.885820E-1	9.281860E-1	9.280883E-1	8.968085E-1	9.702657E-1	9.471136E-1	8.975779E-1	9.421384E-1	8.996675E-1	9.359486E-1	9.772552E-1	9.554494E-1	9.715939E-1	9.413958E-1	9.265319E-1	9.463714E-1	9.397027E-1	9.349888E-1	9.156841E-1	9.028620E-1	9.397682E-1	9.694647E-1	9.121424E-1	8.728919E-1	9.465115E-1	9.766630E-1	9.107752E-1	9.751754E-1	1.053401E+0	9.082642E-1	9.044342E-1	9.192889E-1	9.371825E-1	9.666895E-1	9.782307E-1	9.104658E-1	1.008776E+0	9.280661E-1	8.983715E-1	9.516808E-1	9.775884E-1	9.263660E-1	9.189267E-1	1.035357E+0	9.896871E-1	8.961815E-1	9.124191E-1	9.820547E-1	9.457545E-1	1.088188E+0
5.465380E+2	9.080137E-1	9.237772E-1	8.602561E-1	9.600622E-1	9.181944E-1	9.156526E-1	8.203156E-1	8.771048E-1	8.955439E-1	9.237574E-1	8.901223E-1	9.247521E-1	8.962950E-1	8.675891E-1	8.974800E-1	8.732288E-1	9.103006E-1	8.775567E-1	9.001103E-1	8.682254E-1	8.614504E-1	9.069248E-1	9.192557E-1	8.957916E-1	8.910229E-1	9.119615E-1	9.334725E-1	9.130235E-1	8.624697E-1	8.642509E-1	9.137703E-1	8.883068E-1	8.532354E-1	9.464024E-1	8.997069E-1	9.752991E-1	9.112770E-1	8.735590E-1	8.568579E-1	8.759011E-1	9.284409E-1	9.020013E-1	8.588437E-1	8.819183E-1	9.287923E-1	9.191244E-1	8.965762E-1	8.947601E-1	8.885736E-1	8.488216E-1	9.088107E-1	9.511030E-1	9.006288E-1	9.243384E-1	9.662855E-1	8.330556E-1	9.565380E-1	8.399189E-1	9.096758E-1	9.074203E-1	8.640416E-1	9.000612E-1	9.210513E-1	9.057785E-1	8.886021E-1	8.852432E-1	9.199943E-1	8.812034E-1	9.214011E-1	8.459467E-1	8.736413E-1	9.102230E-1	9.488135E-1	9.189887E-1	9.152124E-1	9.254239E-1	9.262953E-1	9.321005E-1	8.956664E-1	9.592137E-1	8.983640E-1	8.928153E-1	8.629576E-1	8.830998E-1	9.039953E-1	8.628986E-1	9.076338E-1	9.178362E-1	8.843752E-1	9.079261E-1	9.234049E-1	9.360244E-1	8.868301E-1	9.183690E-1	8.914777E-1	8.976209E-1	8.946509E-1	8.648307E-1	8.999001E-1	9.096553E-1	8.874059E-1	9.162564E-1	9.376244E-1	8.474465E-1	8.816299E-1	9.157941E-1	8.602970E-1	8.811493E-1	9.095901E-1	9.176279E-1	8.863285E-1	8.933551E-1	9.031262E-1	8.809910E-1	9.397441E-1	9.309143E-1	8.788869E-1	8.435901E-1	8.991935E-1	9.267011E-1	9.094214E-1	8.964101E-1	8.971292E-1	9.208461E-1	9.255462E-1	8.589548E-1	9.475544E-1	9.062167E-1	8.771110E-1	8.411011E-1	9.379230E-1	9.017744E-1	8.270591E-1	8.854062E-1	8.705144E-1	9.250594E-1	9.215258E-1	8.608133E-1	8.697098E-1	8.832351E-1	9.552892E-1	8.639882E-1	9.254521E-1	9.680724E-1	8.354890E-1	8.817863E-1	8.616658E-1	9.201620E-1	8.960686E-1	9.151752E-1	8.828160E-1	8.984925E-1	8.608573E-1	9.419034E-1	8.921042E-1	8.808070E-1	9.296553E-1	8.587858E-1	8.534210E-1	8.994545E-1	8.815198E-1	8.455471E-1	8.819896E-1	9.019366E-1	1.047077E+0
5.470110E+2	8.746257E-1	9.194255E-1	8.713314E-1	8.974214E-1	8.805969E-1	8.640585E-1	8.683703E-1	8.692464E-1	8.794460E-1	8.448379E-1	8.953193E-1	9.184914E-1	9.126916E-1	8.369877E-1	8.767322E-1	8.943831E-1	8.771245E-1	8.774609E-1	9.189027E-1	9.032465E-1	8.900472E-1	9.014387E-1	8.360316E-1	8.774662E-1	8.785032E-1	8.863341E-1	8.957402E-1	8.941850E-1	8.554794E-1	8.028799E-1	8.992865E-1	8.929266E-1	8.204177E-1	9.504863E-1	8.787236E-1	9.101325E-1	8.584874E-1	8.680734E-1	9.187627E-1	8.811543E-1	9.039648E-1	8.799832E-1	8.818124E-1	8.449368E-1	9.475767E-1	8.886001E-1	8.979587E-1	8.912130E-1	8.672309E-1	8.334912E-1	8.556747E-1	9.055980E-1	8.873449E-1	8.961389E-1	8.724272E-1	9.072783E-1	9.122346E-1	8.794545E-1	8.850148E-1	8.671108E-1	8.901325E-1	8.910191E-1	8.832927E-1	9.309599E-1	8.482304E-1	9.190897E-1	8.592695E-1	8.191126E-1	9.466205E-1	8.791449E-1	9.313380E-1	9.472425E-1	9.427184E-1	9.391025E-1	8.432025E-1	8.884389E-1	9.036877E-1	8.895142E-1	9.272752E-1	8.729823E-1	8.687104E-1	8.680193E-1	9.012061E-1	8.668670E-1	8.577861E-1	8.849324E-1	9.048495E-1	9.088525E-1	9.018295E-1	8.631501E-1	8.187173E-1	8.885223E-1	8.797168E-1	8.574423E-1	9.190327E-1	8.704891E-1	8.993465E-1	8.697862E-1	8.928064E-1	8.678976E-1	8.828067E-1	8.934038E-1	9.217516E-1	8.825764E-1	9.013586E-1	8.735227E-1	8.892323E-1	8.434720E-1	9.335047E-1	9.257123E-1	8.975829E-1	8.655582E-1	8.936860E-1	8.895615E-1	8.489364E-1	9.121557E-1	8.845848E-1	8.527887E-1	9.114386E-1	9.210663E-1	9.370494E-1	8.837885E-1	8.884385E-1	8.556801E-1	9.050029E-1	8.665093E-1	9.021262E-1	8.657359E-1	8.679692E-1	9.073440E-1	8.984550E-1	8.583877E-1	9.006584E-1	8.158956E-1	8.328660E-1	8.664323E-1	9.234432E-1	8.345767E-1	8.625184E-1	8.630293E-1	9.231363E-1	8.929998E-1	9.036185E-1	9.344689E-1	8.234029E-1	8.541844E-1	8.856900E-1	9.443624E-1	8.582599E-1	8.454391E-1	8.958876E-1	8.440135E-1	8.649922E-1	8.628068E-1	9.022911E-1	9.222504E-1	9.432998E-1	8.712208E-1	8.960444E-1	8.517008E-1	8.984215E-1	8.979526E-1	8.597621E-1	8.115895E-1	1.095393E+0
5.475070E+2	9.342069E-1	9.772232E-1	9.742884E-1	8.841492E-1	9.096816E-1	9.082797E-1	9.200014E-1	8.955945E-1	9.943684E-1	9.441669E-1	9.639356E-1	9.158115E-1	9.235509E-1	9.245873E-1	9.671928E-1	9.601867E-1	8.761466E-1	9.260667E-1	9.379333E-1	9.826072E-1	9.162441E-1	9.609958E-1	9.034854E-1	9.928191E-1	9.551474E-1	9.550396E-1	9.179788E-1	9.279278E-1	9.187567E-1	9.151077E-1	9.355678E-1	9.084375E-1	9.040080E-1	9.890351E-1	8.866789E-1	9.941947E-1	9.352075E-1	9.279997E-1	9.025533E-1	9.331307E-1	9.220192E-1	9.141501E-1	9.441688E-1	9.338659E-1	9.604083E-1	9.489551E-1	9.618405E-1	9.671939E-1	8.809126E-1	8.975998E-1	9.360627E-1	9.372263E-1	8.921423E-1	9.103506E-1	9.439988E-1	9.184890E-1	9.510994E-1	9.571853E-1	9.806872E-1	9.249480E-1	9.306261E-1	9.822263E-1	9.610181E-1	9.417339E-1	9.349628E-1	9.310500E-1	9.043185E-1	9.364201E-1	9.692214E-1	9.212494E-1	9.814478E-1	9.626489E-1	1.008773E+0	9.903222E-1	9.628437E-1	9.810334E-1	9.513547E-1	9.254828E-1	9.618151E-1	9.820876E-1	9.600251E-1	9.618446E-1	9.209037E-1	9.044965E-1	9.309056E-1	9.272717E-1	9.476968E-1	9.215797E-1	9.496309E-1	9.382929E-1	9.117890E-1	9.976302E-1	9.554281E-1	9.999617E-1	9.311652E-1	1.031106E+0	9.337168E-1	9.174642E-1	9.776713E-1	8.754144E-1	9.072585E-1	9.759802E-1	9.329656E-1	9.735871E-1	9.328583E-1	9.495031E-1	9.635489E-1	9.460702E-1	9.608402E-1	9.021219E-1	9.951034E-1	9.738831E-1	9.565890E-1	9.598352E-1	8.957769E-1	9.010134E-1	9.392417E-1	9.141699E-1	9.422573E-1	9.581478E-1	9.201220E-1	9.120076E-1	9.073238E-1	9.059867E-1	9.647622E-1	9.634493E-1	1.006940E+0	9.254920E-1	9.408582E-1	9.383722E-1	9.490917E-1	9.550313E-1	9.152007E-1	9.446146E-1	8.525664E-1	9.018734E-1	9.166988E-1	9.259959E-1	9.265502E-1	9.393936E-1	9.561166E-1	9.305976E-1	9.853213E-1	9.901092E-1	9.683670E-1	1.003350E+0	9.219508E-1	1.007152E+0	9.709017E-1	9.644121E-1	9.597514E-1	9.509129E-1	9.237968E-1	9.343770E-1	9.403026E-1	9.037849E-1	9.800846E-1	9.148176E-1	9.219121E-1	9.688789E-1	9.094063E-1	9.358490E-1	9.291302E-1	9.428078E-1	1.008848E+0
5.480090E+2	9.853013E-1	1.022728E+0	9.575550E-1	1.064493E+0	1.025799E+0	1.025811E+0	9.861847E-1	9.202365E-1	1.008715E+0	1.014179E+0	9.775122E-1	9.776238E-1	9.640397E-1	9.458909E-1	9.782801E-1	9.952276E-1	1.004697E+0	1.002939E+0	9.760396E-1	1.018984E+0	1.020952E+0	1.009346E+0	1.015405E+0	9.672446E-1	1.062778E+0	1.021441E+0	9.675352E-1	1.027864E+0	9.580226E-1	9.952201E-1	1.025625E+0	1.016342E+0	9.865670E-1	1.010700E+0	9.871869E-1	1.006075E+0	9.718917E-1	9.853174E-1	1.010555E+0	9.604788E-1	9.768211E-1	9.780590E-1	9.609098E-1	1.004265E+0	1.000072E+0	9.937838E-1	1.030854E+0	9.595402E-1	9.411321E-1	9.062717E-1	1.046290E+0	9.724186E-1	9.395757E-1	1.013543E+0	1.000773E+0	1.008068E+0	9.792563E-1	9.781739E-1	1.046008E+0	1.001749E+0	9.866946E-1	9.466482E-1	1.043048E+0	9.855880E-1	1.029939E+0	1.062812E+0	9.793390E-1	1.035676E+0	1.022316E+0	9.573384E-1	1.011517E+0	9.923983E-1	9.968149E-1	9.751223E-1	1.017681E+0	1.026906E+0	9.535968E-1	9.882943E-1	1.007091E+0	1.000188E+0	1.003632E+0	1.008428E+0	1.049883E+0	9.478697E-1	9.855481E-1	1.010321E+0	1.011678E+0	9.551122E-1	1.035711E+0	1.042115E+0	9.900191E-1	1.034200E+0	9.629289E-1	9.588647E-1	1.021776E+0	1.049143E+0	1.006647E+0	1.008157E+0	9.896042E-1	9.868964E-1	9.227416E-1	9.777051E-1	9.845551E-1	1.045827E+0	9.971627E-1	9.580953E-1	1.026454E+0	1.033294E+0	9.873606E-1	9.587610E-1	1.077685E+0	1.045014E+0	1.010626E+0	9.966592E-1	9.670414E-1	1.002837E+0	9.574750E-1	9.718958E-1	1.056836E+0	1.023365E+0	9.886922E-1	9.912815E-1	9.709182E-1	1.004476E+0	9.961820E-1	9.595518E-1	9.827443E-1	9.621473E-1	1.006948E+0	9.855379E-1	9.747641E-1	1.080899E+0	1.036745E+0	9.513230E-1	9.818943E-1	9.894219E-1	1.001957E+0	1.013817E+0	9.577793E-1	1.025805E+0	1.003094E+0	9.828304E-1	1.043894E+0	1.004995E+0	9.931407E-1	1.014047E+0	9.369261E-1	1.004860E+0	9.987476E-1	9.919494E-1	9.391756E-1	9.672219E-1	9.567722E-1	9.368641E-1	9.885193E-1	1.046454E+0	1.060953E+0	9.553779E-1	9.829612E-1	1.001516E+0	9.115348E-1	1.060621E+0	9.900047E-1	1.068664E+0	1.177563E+0
5.485450E+2	1.189749E+0	1.186605E+0	1.175719E+0	1.221599E+0	1.174020E+0	1.224872E+0	1.130499E+0	1.177353E+0	1.239987E+0	1.160188E+0	1.183653E+0	1.193564E+0	1.197527E+0	1.171897E+0	1.234401E+0	1.173268E+0	1.191533E+0	1.178885E+0	1.183021E+0	1.187164E+0	1.271131E+0	1.171094E+0	1.224431E+0	1.174315E+0	1.161134E+0	1.179328E+0	1.254882E+0	1.248045E+0	1.159697E+0	1.191600E+0	1.249751E+0	1.193396E+0	1.142333E+0	1.251871E+0	1.178879E+0	1.216256E+0	1.231407E+0	1.255306E+0	1.134134E+0	1.235772E+0	1.141796E+0	1.154340E+0	1.186434E+0	1.169663E+0	1.237385E+0	1.211868E+0	1.246595E+0	1.273050E+0	1.185999E+0	1.145444E+0	1.195302E+0	1.149576E+0	1.144479E+0	1.204565E+0	1.255317E+0	1.224413E+0	1.302926E+0	1.206675E+0	1.223065E+0	1.169918E+0	1.150939E+0	1.174832E+0	1.177335E+0	1.223533E+0	1.146689E+0	1.153543E+0	1.176203E+0	1.237711E+0	1.242503E+0	1.135745E+0	1.252172E+0	1.171564E+0	1.176260E+0	1.166547E+0	1.229217E+0	1.186175E+0	1.191756E+0	1.225697E+0	1.180859E+0	1.223934E+0	1.176876E+0	1.203942E+0	1.208143E+0	1.166952E+0	1.205010E+0	1.170917E+0	1.170708E+0	1.173408E+0	1.241760E+0	1.194005E+0	1.236518E+0	1.213507E+0	1.221846E+0	1.188383E+0	1.176427E+0	1.200048E+0	1.154002E+0	1.203693E+0	1.222975E+0	1.224268E+0	1.180845E+0	1.184314E+0	1.191672E+0	1.146989E+0	1.193940E+0	1.130979E+0	1.148801E+0	1.184739E+0	1.150191E+0	1.212868E+0	1.234574E+0	1.215943E+0	1.206239E+0	1.148448E+0	1.202323E+0	1.209811E+0	1.198505E+0	1.186701E+0	1.225287E+0	1.209885E+0	1.234597E+0	1.106569E+0	1.171641E+0	1.115866E+0	1.221524E+0	1.194092E+0	1.155461E+0	1.235669E+0	1.182386E+0	1.147188E+0	1.243157E+0	1.199200E+0	1.154805E+0	1.198907E+0	1.182109E+0	1.214081E+0	1.176195E+0	1.163538E+0	1.183285E+0	1.128900E+0	1.229053E+0	1.153107E+0	1.165026E+0	1.271227E+0	1.171186E+0	1.238224E+0	1.181236E+0	1.144626E+0	1.184111E+0	1.226341E+0	1.195037E+0	1.234205E+0	1.158432E+0	1.160577E+0	1.168921E+0	1.239792E+0	1.247523E+0	1.164333E+0	1.187184E+0	1.229827E+0	1.193867E+0	1.140877E+0	1.220228E+0	1.272834E+0	1.287615E+0
5.490490E+2	1.518951E+0	1.507066E+0	1.457634E+0	1.416022E+0	1.557781E+0	1.507979E+0	1.493481E+0	1.399158E+0	1.448342E+0	1.507032E+0	1.486237E+0	1.463293E+0	1.444144E+0	1.411389E+0	1.544718E+0	1.476283E+0	1.526540E+0	1.508901E+0	1.466358E+0	1.484584E+0	1.504833E+0	1.462972E+0	1.453779E+0	1.488545E+0	1.517582E+0	1.483725E+0	1.482185E+0	1.475198E+0	1.424809E+0	1.452269E+0	1.495773E+0	1.448646E+0	1.490723E+0	1.532852E+0	1.502394E+0	1.496861E+0	1.474168E+0	1.533974E+0	1.419467E+0	1.451890E+0	1.536395E+0	1.423147E+0	1.494482E+0	1.510536E+0	1.546973E+0	1.501309E+0	1.478118E+0	1.466813E+0	1.438728E+0	1.421161E+0	1.503045E+0	1.496884E+0	1.512172E+0	1.459731E+0	1.485551E+0	1.501625E+0	1.398235E+0	1.430554E+0	1.499980E+0	1.449882E+0	1.472141E+0	1.497807E+0	1.494471E+0	1.477712E+0	1.490339E+0	1.507784E+0	1.455703E+0	1.436403E+0	1.445853E+0	1.436750E+0	1.542765E+0	1.457936E+0	1.443683E+0	1.482992E+0	1.416147E+0	1.513513E+0	1.531502E+0	1.499005E+0	1.550137E+0	1.515510E+0	1.440662E+0	1.454465E+0	1.462279E+0	1.433114E+0	1.488587E+0	1.380525E+0	1.513744E+0	1.504938E+0	1.428182E+0	1.457892E+0	1.408596E+0	1.469898E+0	1.433397E+0	1.380840E+0	1.443077E+0	1.453007E+0	1.501618E+0	1.404602E+0	1.441702E+0	1.424438E+0	1.427822E+0	1.448502E+0	1.413861E+0	1.476468E+0	1.489148E+0	1.430556E+0	1.488421E+0	1.474691E+0	1.492920E+0	1.501610E+0	1.436811E+0	1.461462E+0	1.526811E+0	1.418952E+0	1.454114E+0	1.520770E+0	1.481554E+0	1.446354E+0	1.445634E+0	1.483650E+0	1.465476E+0	1.417884E+0	1.483455E+0	1.483805E+0	1.464899E+0	1.430429E+0	1.487769E+0	1.464357E+0	1.445998E+0	1.512207E+0	1.539394E+0	1.447680E+0	1.490993E+0	1.441446E+0	1.422413E+0	1.412857E+0	1.438745E+0	1.396295E+0	1.422069E+0	1.465922E+0	1.562844E+0	1.382621E+0	1.448118E+0	1.606754E+0	1.427066E+0	1.431166E+0	1.419297E+0	1.491484E+0	1.500826E+0	1.517637E+0	1.425756E+0	1.540248E+0	1.428106E+0	1.428752E+0	1.445155E+0	1.398984E+0	1.490154E+0	1.415670E+0	1.454452E+0	1.531722E+0	1.402153E+0	1.400229E+0	1.404311E+0	1.547739E+0	1.684933E+0
5.495150E+2	1.712729E+0	1.733530E+0	1.626294E+0	1.729795E+0	1.738025E+0	1.812173E+0	1.673127E+0	1.694888E+0	1.767271E+0	1.618150E+0	1.660925E+0	1.695616E+0	1.721716E+0	1.707501E+0	1.690989E+0	1.661710E+0	1.684119E+0	1.698904E+0	1.696886E+0	1.668213E+0	1.653828E+0	1.679158E+0	1.670508E+0	1.654297E+0	1.656144E+0	1.684676E+0	1.694307E+0	1.674995E+0	1.679952E+0	1.696001E+0	1.714191E+0	1.690525E+0	1.576902E+0	1.774437E+0	1.712959E+0	1.639582E+0	1.695262E+0	1.730602E+0	1.578811E+0	1.691368E+0	1.672842E+0	1.673701E+0	1.710984E+0	1.737476E+0	1.800876E+0	1.656990E+0	1.645071E+0	1.664458E+0	1.641148E+0	1.592225E+0	1.587258E+0	1.704928E+0	1.650401E+0	1.688764E+0	1.676647E+0	1.683307E+0	1.755553E+0	1.687304E+0	1.664368E+0	1.655912E+0	1.616457E+0	1.682256E+0	1.668654E+0	1.712753E+0	1.666657E+0	1.701610E+0	1.710195E+0	1.662066E+0	1.692792E+0	1.570263E+0	1.688318E+0	1.720691E+0	1.649527E+0	1.647570E+0	1.707673E+0	1.683234E+0	1.677664E+0	1.686288E+0	1.769413E+0	1.717077E+0	1.609820E+0	1.648748E+0	1.696763E+0	1.611058E+0	1.655385E+0	1.638626E+0	1.710540E+0	1.658723E+0	1.809874E+0	1.645086E+0	1.677160E+0	1.704587E+0	1.683391E+0	1.668128E+0	1.620810E+0	1.698119E+0	1.709085E+0	1.695383E+0	1.730272E+0	1.610144E+0	1.679471E+0	1.673150E+0	1.631258E+0	1.694887E+0	1.701827E+0	1.633333E+0	1.638107E+0	1.666895E+0	1.680012E+0	1.670480E+0	1.668455E+0	1.691024E+0	1.724980E+0	1.644607E+0	1.697251E+0	1.706020E+0	1.715017E+0	1.578758E+0	1.654526E+0	1.718382E+0	1.720659E+0	1.639996E+0	1.701804E+0	1.708177E+0	1.696035E+0	1.666868E+0	1.666164E+0	1.631501E+0	1.724416E+0	1.658096E+0	1.691024E+0	1.671455E+0	1.648897E+0	1.591755E+0	1.582972E+0	1.636465E+0	1.701259E+0	1.640674E+0	1.598732E+0	1.610765E+0	1.736508E+0	1.612313E+0	1.713893E+0	1.732856E+0	1.617164E+0	1.689496E+0	1.611496E+0	1.663944E+0	1.679891E+0	1.724947E+0	1.594591E+0	1.710323E+0	1.620022E+0	1.636120E+0	1.665606E+0	1.716161E+0	1.744364E+0	1.695562E+0	1.645947E+0	1.622525E+0	1.626746E+0	1.719261E+0	1.703152E+0	1.721223E+0	1.894851E+0
5.500160E+2	1.559006E+0	1.420535E+0	1.400138E+0	1.491157E+0	1.488046E+0	1.503157E+0	1.516407E+0	1.500804E+0	1.537028E+0	1.435456E+0	1.429988E+0	1.460899E+0	1.517489E+0	1.427868E+0	1.539862E+0	1.459089E+0	1.442113E+0	1.447317E+0	1.482588E+0	1.553614E+0	1.491226E+0	1.452782E+0	1.483730E+0	1.491560E+0	1.504950E+0	1.502812E+0	1.486268E+0	1.525091E+0	1.513942E+0	1.464481E+0	1.520678E+0	1.512435E+0	1.462769E+0	1.537741E+0	1.475544E+0	1.459794E+0	1.536451E+0	1.529877E+0	1.456949E+0	1.401429E+0	1.476409E+0	1.447100E+0	1.554245E+0	1.490129E+0	1.522869E+0	1.514041E+0	1.518130E+0	1.502951E+0	1.445408E+0	1.413776E+0	1.478770E+0	1.467277E+0	1.430671E+0	1.474228E+0	1.512873E+0	1.526642E+0	1.529984E+0	1.535438E+0	1.484309E+0	1.508277E+0	1.483994E+0	1.478909E+0	1.469284E+0	1.458300E+0	1.516965E+0	1.526550E+0	1.483911E+0	1.458472E+0	1.595769E+0	1.398968E+0	1.523535E+0	1.535651E+0	1.517533E+0	1.492502E+0	1.468511E+0	1.519279E+0	1.579301E+0	1.497829E+0	1.544452E+0	1.584528E+0	1.514055E+0	1.484065E+0	1.447607E+0	1.462589E+0	1.508089E+0	1.416905E+0	1.511386E+0	1.432044E+0	1.540407E+0	1.514445E+0	1.519074E+0	1.600253E+0	1.470813E+0	1.436699E+0	1.481283E+0	1.469157E+0	1.491953E+0	1.443316E+0	1.484308E+0	1.469263E+0	1.493384E+0	1.557938E+0	1.472603E+0	1.498521E+0	1.524312E+0	1.486780E+0	1.446630E+0	1.449632E+0	1.476145E+0	1.485046E+0	1.440443E+0	1.495971E+0	1.480246E+0	1.430961E+0	1.408654E+0	1.479617E+0	1.510916E+0	1.389150E+0	1.460043E+0	1.616917E+0	1.532914E+0	1.456929E+0	1.408360E+0	1.456704E+0	1.472801E+0	1.432132E+0	1.570474E+0	1.430922E+0	1.402345E+0	1.481914E+0	1.519087E+0	1.434299E+0	1.462520E+0	1.516037E+0	1.430581E+0	1.460605E+0	1.497751E+0	1.530199E+0	1.401327E+0	1.494739E+0	1.500019E+0	1.432410E+0	1.457832E+0	1.487806E+0	1.427737E+0	1.479877E+0	1.494946E+0	1.462974E+0	1.460298E+0	1.519804E+0	1.502200E+0	1.461714E+0	1.458696E+0	1.533023E+0	1.435074E+0	1.445289E+0	1.562455E+0	1.434796E+0	1.503705E+0	1.477666E+0	1.443681E+0	1.503839E+0	1.464218E+0	1.446538E+0	1.592084E+0
5.505060E+2	1.524496E+0	1.522196E+0	1.431191E+0	1.555178E+0	1.477637E+0	1.485847E+0	1.495745E+0	1.414304E+0	1.431901E+0	1.522828E+0	1.473729E+0	1.484964E+0	1.466310E+0	1.412549E+0	1.507958E+0	1.531589E+0	1.445154E+0	1.540850E+0	1.503718E+0	1.431575E+0	1.461925E+0	1.534126E+0	1.458128E+0	1.487502E+0	1.477941E+0	1.458683E+0	1.499514E+0	1.386619E+0	1.456240E+0	1.428057E+0	1.480550E+0	1.426175E+0	1.420336E+0	1.401101E+0	1.424767E+0	1.461524E+0	1.445603E+0	1.500010E+0	1.444987E+0	1.434258E+0	1.440000E+0	1.499486E+0	1.470069E+0	1.467049E+0	1.528252E+0	1.476485E+0	1.465113E+0	1.445936E+0	1.452814E+0	1.425573E+0	1.435260E+0	1.500210E+0	1.399329E+0	1.469461E+0	1.453896E+0	1.510286E+0	1.573767E+0	1.407566E+0	1.479240E+0	1.455578E+0	1.461620E+0	1.461814E+0	1.465974E+0	1.483722E+0	1.505425E+0	1.474266E+0	1.450823E+0	1.445151E+0	1.588298E+0	1.478646E+0	1.473569E+0	1.517191E+0	1.519716E+0	1.424477E+0	1.460594E+0	1.446108E+0	1.554984E+0	1.440215E+0	1.484012E+0	1.443901E+0	1.482874E+0	1.448839E+0	1.494855E+0	1.411889E+0	1.480001E+0	1.504301E+0	1.472800E+0	1.502866E+0	1.519956E+0	1.454460E+0	1.445559E+0	1.471082E+0	1.450071E+0	1.428000E+0	1.490812E+0	1.466882E+0	1.430991E+0	1.425225E+0	1.501708E+0	1.508773E+0	1.372710E+0	1.521063E+0	1.394382E+0	1.481607E+0	1.482560E+0	1.508638E+0	1.431981E+0	1.505191E+0	1.490140E+0	1.456266E+0	1.467331E+0	1.512421E+0	1.438625E+0	1.496920E+0	1.419776E+0	1.450344E+0	1.436917E+0	1.448901E+0	1.495354E+0	1.454630E+0	1.550122E+0	1.440199E+0	1.464361E+0	1.441771E+0	1.497615E+0	1.463190E+0	1.425381E+0	1.379714E+0	1.449584E+0	1.467404E+0	1.474524E+0	1.474086E+0	1.494901E+0	1.430772E+0	1.391317E+0	1.478028E+0	1.437540E+0	1.433544E+0	1.396562E+0	1.433786E+0	1.478376E+0	1.423383E+0	1.455876E+0	1.546671E+0	1.483042E+0	1.470041E+0	1.461205E+0	1.382739E+0	1.430176E+0	1.466459E+0	1.487497E+0	1.402568E+0	1.434493E+0	1.432213E+0	1.450488E+0	1.423565E+0	1.460448E+0	1.457771E+0	1.535506E+0	1.476240E+0	1.475932E+0	1.480673E+0	1.488993E+0	1.494566E+0	1.640216E+0
5.510140E+2	1.232348E+0	1.188659E+0	1.145178E+0	1.206573E+0	1.250726E+0	1.162992E+0	1.229714E+0	1.191546E+0	1.215735E+0	1.163512E+0	1.209903E+0	1.193255E+0	1.267518E+0	1.204439E+0	1.226295E+0	1.222397E+0	1.225938E+0	1.213422E+0	1.189151E+0	1.204120E+0	1.221060E+0	1.195553E+0	1.184900E+0	1.191425E+0	1.207333E+0	1.244005E+0	1.183450E+0	1.244395E+0	1.182105E+0	1.170090E+0	1.206518E+0	1.181430E+0	1.175088E+0	1.237375E+0	1.181385E+0	1.176962E+0	1.224356E+0	1.231412E+0	1.236627E+0	1.218101E+0	1.217272E+0	1.164066E+0	1.205289E+0	1.223992E+0	1.214264E+0	1.203762E+0	1.241238E+0	1.158621E+0	1.139303E+0	1.178659E+0	1.221546E+0	1.168603E+0	1.201388E+0	1.177348E+0	1.200672E+0	1.201066E+0	1.240003E+0	1.102324E+0	1.269265E+0	1.164765E+0	1.193534E+0	1.216777E+0	1.205274E+0	1.160684E+0	1.217247E+0	1.186329E+0	1.211576E+0	1.198126E+0	1.225589E+0	1.169373E+0	1.233109E+0	1.195478E+0	1.263255E+0	1.158720E+0	1.221231E+0	1.273450E+0	1.205373E+0	1.182755E+0	1.234531E+0	1.297035E+0	1.183352E+0	1.151504E+0	1.178262E+0	1.109880E+0	1.189628E+0	1.166203E+0	1.307654E+0	1.170612E+0	1.265113E+0	1.192358E+0	1.175501E+0	1.168598E+0	1.171134E+0	1.231856E+0	1.242127E+0	1.232829E+0	1.213584E+0	1.185386E+0	1.228402E+0	1.177794E+0	1.278251E+0	1.247050E+0	1.193672E+0	1.170430E+0	1.260266E+0	1.132010E+0	1.218003E+0	1.156497E+0	1.203512E+0	1.144979E+0	1.262134E+0	1.183224E+0	1.261692E+0	1.223024E+0	1.265337E+0	1.198286E+0	1.168283E+0	1.179242E+0	1.244572E+0	1.211107E+0	1.268443E+0	1.174938E+0	1.273276E+0	1.179207E+0	1.203071E+0	1.196166E+0	1.198793E+0	1.191612E+0	1.287824E+0	1.254363E+0	1.231018E+0	1.193994E+0	1.204513E+0	1.166661E+0	1.252746E+0	1.160798E+0	1.208211E+0	1.124878E+0	1.137134E+0	1.232638E+0	1.242126E+0	1.182865E+0	1.181137E+0	1.244333E+0	1.191929E+0	1.132096E+0	1.184005E+0	1.227837E+0	1.211853E+0	1.269908E+0	1.167886E+0	1.263317E+0	1.191589E+0	1.237561E+0	1.232027E+0	1.217417E+0	1.234558E+0	1.218396E+0	1.210272E+0	1.199589E+0	1.114966E+0	1.138492E+0	1.113376E+0	1.252848E+0	1.291508E+0
5.515000E+2	9.892356E-1	1.023059E+0	1.034388E+0	1.082991E+0	1.036618E+0	1.060239E+0	1.041582E+0	9.845097E-1	9.703533E-1	1.015136E+0	9.847414E-1	9.553655E-1	1.007148E+0	9.847632E-1	1.025662E+0	9.752055E-1	1.095592E+0	1.004813E+0	1.031424E+0	9.827344E-1	1.084563E+0	1.034222E+0	9.892213E-1	9.805926E-1	9.582264E-1	9.573751E-1	1.022977E+0	1.010304E+0	1.002620E+0	1.023032E+0	1.041031E+0	9.862840E-1	1.032374E+0	1.090853E+0	1.004603E+0	9.844536E-1	1.002954E+0	1.053562E+0	9.812910E-1	1.037756E+0	9.633332E-1	1.010993E+0	1.043847E+0	1.038727E+0	9.777551E-1	1.004614E+0	1.046889E+0	9.618584E-1	9.956776E-1	9.877374E-1	9.971245E-1	9.608729E-1	9.889817E-1	1.021330E+0	1.003355E+0	1.024477E+0	1.084800E+0	1.025593E+0	1.007039E+0	1.002320E+0	1.006713E+0	9.963903E-1	1.033569E+0	1.035534E+0	1.024518E+0	1.043159E+0	9.848992E-1	9.991252E-1	1.044158E+0	9.994168E-1	1.029132E+0	1.081259E+0	1.064379E+0	9.792163E-1	9.903517E-1	1.001731E+0	1.062084E+0	1.042228E+0	1.017112E+0	1.070927E+0	1.023324E+0	1.014646E+0	1.084817E+0	1.030274E+0	1.040491E+0	9.989618E-1	1.059584E+0	1.019766E+0	1.058221E+0	1.000298E+0	9.960811E-1	9.880515E-1	1.014283E+0	1.017249E+0	1.029026E+0	1.015333E+0	1.015890E+0	1.047814E+0	9.975509E-1	1.031565E+0	1.021095E+0	1.006431E+0	1.049233E+0	1.022981E+0	1.055346E+0	9.898537E-1	1.018941E+0	9.951288E-1	9.664771E-1	1.009100E+0	1.063750E+0	1.023478E+0	1.006014E+0	1.037800E+0	1.008165E+0	9.931052E-1	9.661201E-1	1.008528E+0	1.027065E+0	1.037865E+0	1.008883E+0	9.627060E-1	1.017706E+0	1.054822E+0	1.067054E+0	9.611204E-1	1.005834E+0	1.018916E+0	1.073952E+0	1.032711E+0	1.065144E+0	9.902083E-1	1.000887E+0	1.020709E+0	9.722166E-1	9.685593E-1	9.777004E-1	1.016913E+0	1.008267E+0	1.028394E+0	1.025400E+0	1.019428E+0	1.063753E+0	1.044739E+0	1.023297E+0	1.022558E+0	9.138905E-1	1.033854E+0	1.051323E+0	1.004720E+0	9.632129E-1	9.781393E-1	1.037694E+0	9.779479E-1	1.015338E+0	1.059760E+0	1.025373E+0	1.002312E+0	1.091106E+0	9.985029E-1	1.020669E+0	1.005544E+0	1.011033E+0	1.178945E+0	1.233758E+0
5.520100E+2	1.007659E+0	9.673977E-1	1.000264E+0	1.038496E+0	1.034386E+0	1.048716E+0	1.066198E+0	9.770668E-1	9.745290E-1	9.868409E-1	1.010946E+0	1.023992E+0	1.024352E+0	9.505180E-1	1.034794E+0	1.013967E+0	9.959659E-1	9.610255E-1	9.280666E-1	9.761384E-1	1.006949E+0	9.915172E-1	9.787693E-1	9.450461E-1	1.019465E+0	1.050229E+0	9.860466E-1	1.006055E+0	9.717444E-1	1.003171E+0	1.023995E+0	9.682426E-1	9.990544E-1	9.567818E-1	9.648782E-1	9.966159E-1	9.844822E-1	1.001959E+0	9.326302E-1	9.998937E-1	9.970019E-1	9.818239E-1	1.034658E+0	1.019025E+0	1.053599E+0	9.977539E-1	1.032461E+0	1.003434E+0	9.499632E-1	9.569834E-1	9.944646E-1	1.009165E+0	1.000594E+0	9.688849E-1	1.012009E+0	1.038068E+0	1.076196E+0	9.888266E-1	9.907212E-1	9.541524E-1	9.798037E-1	9.999622E-1	9.836101E-1	9.491077E-1	9.913176E-1	1.008950E+0	1.051843E+0	9.175518E-1	1.041192E+0	9.207121E-1	1.078997E+0	1.000761E+0	9.886691E-1	1.009516E+0	9.768440E-1	1.028747E+0	1.058916E+0	9.929664E-1	9.738021E-1	1.002359E+0	9.415370E-1	1.028351E+0	1.013223E+0	9.768579E-1	9.928102E-1	9.631297E-1	1.028748E+0	9.784722E-1	9.920112E-1	9.834068E-1	9.432605E-1	1.015864E+0	9.427836E-1	9.708403E-1	1.020222E+0	9.984474E-1	9.670455E-1	9.171264E-1	1.033335E+0	9.297392E-1	1.022558E+0	1.022510E+0	1.009076E+0	1.008937E+0	1.033024E+0	9.978262E-1	9.664164E-1	9.940858E-1	9.934153E-1	1.038972E+0	9.618777E-1	1.023704E+0	1.051530E+0	9.802490E-1	1.018766E+0	9.858070E-1	1.016908E+0	9.886028E-1	1.010043E+0	9.727729E-1	9.685160E-1	9.542800E-1	9.675403E-1	1.013332E+0	1.025444E+0	9.897194E-1	9.996400E-1	9.421843E-1	1.008340E+0	9.698714E-1	1.032588E+0	1.015966E+0	9.356212E-1	9.442356E-1	9.431186E-1	1.009301E+0	1.021189E+0	9.507240E-1	9.403364E-1	9.866987E-1	1.041227E+0	9.450134E-1	1.033427E+0	1.052159E+0	9.855883E-1	9.812846E-1	9.782207E-1	1.013179E+0	1.016349E+0	9.860140E-1	9.405442E-1	1.045185E+0	1.019745E+0	1.042439E+0	9.916076E-1	1.022477E+0	1.032762E+0	9.819604E-1	9.821886E-1	9.876048E-1	9.516491E-1	9.801786E-1	9.274151E-1	9.347481E-1	1.013083E+0
5.525090E+2	1.064491E+0	1.056950E+0	1.051386E+0	1.026719E+0	1.057209E+0	1.106723E+0	1.075904E+0	1.006698E+0	1.061124E+0	1.029795E+0	1.019173E+0	1.026709E+0	9.811147E-1	1.037020E+0	1.066959E+0	1.019339E+0	1.062030E+0	1.046903E+0	1.076183E+0	1.042854E+0	1.046837E+0	1.147431E+0	1.044242E+0	1.098058E+0	1.053005E+0	1.033065E+0	1.054525E+0	1.075887E+0	1.088188E+0	1.027424E+0	1.098786E+0	1.089840E+0	1.040019E+0	1.100586E+0	1.069495E+0	1.046094E+0	1.090678E+0	1.094451E+0	1.040304E+0	1.010858E+0	1.074953E+0	1.035457E+0	1.069763E+0	1.056083E+0	1.113575E+0	1.050183E+0	1.029915E+0	1.105408E+0	1.052320E+0	1.008874E+0	1.035477E+0	1.115830E+0	1.000254E+0	1.057253E+0	1.066789E+0	1.032804E+0	1.049554E+0	9.810372E-1	1.011443E+0	1.051392E+0	1.013649E+0	1.039768E+0	1.075392E+0	1.034130E+0	1.057304E+0	1.105871E+0	1.035629E+0	1.025456E+0	1.076978E+0	1.047565E+0	1.068155E+0	1.068056E+0	1.123818E+0	1.097758E+0	1.085085E+0	1.114628E+0	1.095087E+0	1.068034E+0	1.080809E+0	1.099058E+0	1.024418E+0	1.046816E+0	1.060589E+0	1.106555E+0	1.057301E+0	1.103763E+0	1.128345E+0	1.039984E+0	1.064038E+0	1.040562E+0	1.041842E+0	1.045210E+0	1.043016E+0	1.110336E+0	1.072733E+0	1.080119E+0	1.020802E+0	1.060811E+0	1.077781E+0	1.072227E+0	1.041452E+0	1.052821E+0	1.056777E+0	9.928775E-1	1.080184E+0	1.049638E+0	1.027683E+0	1.059368E+0	9.953160E-1	1.055188E+0	1.116313E+0	1.046716E+0	1.052774E+0	1.023616E+0	1.093234E+0	1.079143E+0	1.073020E+0	9.875546E-1	1.014170E+0	1.062748E+0	1.059996E+0	1.018669E+0	1.026368E+0	1.056891E+0	1.048424E+0	1.029919E+0	1.053298E+0	1.006377E+0	1.030951E+0	1.042899E+0	1.041686E+0	1.036221E+0	1.077455E+0	1.042362E+0	1.051590E+0	1.039656E+0	1.024712E+0	1.033608E+0	9.764670E-1	1.001161E+0	1.087963E+0	1.023336E+0	1.060692E+0	1.116859E+0	1.029401E+0	1.052948E+0	1.008771E+0	1.091513E+0	1.105987E+0	1.112883E+0	1.033139E+0	1.075635E+0	1.049437E+0	1.056674E+0	1.075784E+0	1.026867E+0	1.084407E+0	1.064691E+0	1.035044E+0	1.026384E+0	1.016796E+0	1.026046E+0	1.015183E+0	1.023873E+0	1.395359E+0
5.530150E+2	1.000908E+0	1.014757E+0	9.492647E-1	9.555152E-1	1.005462E+0	1.056260E+0	9.866764E-1	9.834528E-1	9.862852E-1	9.739525E-1	9.874965E-1	1.002914E+0	1.011808E+0	9.635817E-1	1.021009E+0	9.726271E-1	9.664155E-1	1.014201E+0	1.020595E+0	1.027132E+0	1.039180E+0	1.039702E+0	1.013723E+0	9.592245E-1	1.063899E+0	9.794348E-1	9.531790E-1	1.068908E+0	9.597732E-1	9.325559E-1	1.031120E+0	1.024684E+0	9.847803E-1	1.031259E+0	9.741229E-1	9.808874E-1	9.551200E-1	1.031289E+0	1.001885E+0	9.833377E-1	9.833888E-1	9.109079E-1	9.211421E-1	1.034314E+0	9.925060E-1	1.006588E+0	9.789778E-1	9.713198E-1	9.975266E-1	9.862117E-1	1.037208E+0	9.934584E-1	9.961228E-1	9.828419E-1	1.025414E+0	9.914730E-1	9.887849E-1	9.737644E-1	9.954043E-1	9.404017E-1	9.513558E-1	1.022080E+0	9.853634E-1	9.801667E-1	1.043710E+0	9.842013E-1	9.792859E-1	1.001254E+0	1.014887E+0	9.729270E-1	9.864780E-1	1.066018E+0	9.813381E-1	9.802160E-1	1.027216E+0	1.004983E+0	1.016550E+0	9.944939E-1	1.037415E+0	9.931321E-1	9.962996E-1	1.045468E+0	1.038919E+0	9.435981E-1	9.725804E-1	9.281870E-1	1.038440E+0	9.843641E-1	9.871637E-1	9.695298E-1	9.821585E-1	9.452551E-1	9.455455E-1	9.689068E-1	1.051957E+0	1.047867E+0	1.032328E+0	9.694726E-1	9.842114E-1	9.755388E-1	1.014794E+0	9.955166E-1	9.700142E-1	9.218262E-1	1.044105E+0	1.006579E+0	1.018079E+0	9.474294E-1	9.832018E-1	9.976530E-1	9.954672E-1	1.017382E+0	9.676716E-1	9.609423E-1	9.788192E-1	1.006204E+0	9.912676E-1	9.967378E-1	1.024114E+0	1.011728E+0	9.652699E-1	1.023329E+0	1.000583E+0	9.807417E-1	1.025569E+0	9.987119E-1	1.019741E+0	9.357157E-1	1.034661E+0	9.582909E-1	1.018210E+0	9.570278E-1	9.788266E-1	9.630515E-1	9.648843E-1	9.610714E-1	1.037483E+0	9.872852E-1	1.011825E+0	9.712170E-1	9.790606E-1	9.485615E-1	1.064905E+0	1.040601E+0	9.583296E-1	1.015763E+0	9.740654E-1	1.043784E+0	1.022919E+0	1.034512E+0	9.602304E-1	1.018910E+0	9.841368E-1	1.006863E+0	1.015743E+0	1.044709E+0	1.038780E+0	9.575747E-1	9.515923E-1	9.400677E-1	9.851370E-1	1.007184E+0	9.665380E-1	1.035350E+0	9.493133E-1
5.534770E+2	9.826313E-1	9.637793E-1	9.690978E-1	9.729045E-1	9.542893E-1	9.616588E-1	9.573853E-1	8.954372E-1	8.981056E-1	9.178551E-1	9.820745E-1	9.516591E-1	9.616593E-1	8.800830E-1	9.541280E-1	9.780068E-1	9.493198E-1	9.929848E-1	9.426614E-1	9.678215E-1	9.712308E-1	9.544829E-1	9.035330E-1	9.367733E-1	9.193500E-1	9.643919E-1	9.797730E-1	1.002574E+0	9.509712E-1	9.656233E-1	9.711065E-1	9.605167E-1	9.406906E-1	9.852810E-1	9.469346E-1	9.527393E-1	9.761423E-1	9.768081E-1	9.184903E-1	9.297649E-1	9.674307E-1	9.699956E-1	9.419485E-1	9.993318E-1	9.643056E-1	9.075115E-1	1.001135E+0	9.622228E-1	9.324709E-1	9.955285E-1	9.720101E-1	9.541937E-1	9.450600E-1	9.651943E-1	9.462999E-1	9.620708E-1	1.006672E+0	8.925715E-1	9.782908E-1	9.243893E-1	9.012662E-1	9.735274E-1	9.872448E-1	9.284013E-1	9.923378E-1	9.719912E-1	9.208566E-1	9.245817E-1	9.257232E-1	9.272623E-1	1.042322E+0	9.684164E-1	9.771057E-1	9.709785E-1	9.021642E-1	9.303499E-1	9.685231E-1	9.943219E-1	9.552401E-1	9.686959E-1	9.728267E-1	8.988013E-1	9.731994E-1	9.216185E-1	9.501797E-1	9.447118E-1	1.032491E+0	9.304700E-1	9.857827E-1	9.527115E-1	9.723150E-1	9.259340E-1	9.602328E-1	9.494201E-1	9.453500E-1	9.873321E-1	9.196774E-1	9.921964E-1	9.680654E-1	9.486162E-1	9.464632E-1	9.948189E-1	9.324959E-1	9.387130E-1	9.297337E-1	9.530805E-1	9.700347E-1	1.004631E+0	9.478479E-1	9.388410E-1	9.497976E-1	9.407808E-1	9.944532E-1	9.640913E-1	9.693235E-1	9.716048E-1	9.468416E-1	9.742537E-1	9.762063E-1	9.531207E-1	9.751007E-1	9.123669E-1	9.649023E-1	8.928312E-1	9.488069E-1	9.314277E-1	1.033545E+0	9.898084E-1	9.194050E-1	9.402057E-1	9.672941E-1	9.851049E-1	9.065323E-1	9.212955E-1	9.119269E-1	9.233479E-1	9.561998E-1	9.218960E-1	9.466516E-1	9.970980E-1	9.601866E-1	9.399879E-1	9.479934E-1	1.025664E+0	9.428416E-1	9.276229E-1	9.421467E-1	9.468940E-1	9.256298E-1	1.021499E+0	9.300903E-1	9.841858E-1	9.277901E-1	9.976566E-1	9.459269E-1	9.392677E-1	9.949075E-1	9.671732E-1	9.330274E-1	9.945167E-1	8.861287E-1	9.617743E-1	9.024088E-1	9.762495E-1	1.029889E+0
5.540290E+2	8.598786E-1	9.153012E-1	9.097140E-1	8.645171E-1	8.579430E-1	9.608670E-1	9.312683E-1	9.438224E-1	9.378087E-1	9.523261E-1	9.270491E-1	8.782423E-1	9.328178E-1	9.460345E-1	9.380431E-1	9.460391E-1	8.868783E-1	9.214638E-1	9.165169E-1	9.550678E-1	9.069425E-1	9.466452E-1	9.040486E-1	8.596640E-1	9.447345E-1	9.569214E-1	9.237738E-1	9.237975E-1	9.092455E-1	9.239334E-1	8.635218E-1	8.854426E-1	9.076359E-1	9.782546E-1	9.344870E-1	9.133609E-1	9.278790E-1	9.521943E-1	8.521681E-1	9.300540E-1	9.279419E-1	9.206399E-1	9.628570E-1	8.945872E-1	9.640771E-1	9.041591E-1	9.031983E-1	9.637119E-1	8.817743E-1	9.310666E-1	9.043127E-1	8.454069E-1	8.649689E-1	8.748405E-1	9.447216E-1	9.428998E-1	9.082408E-1	9.086553E-1	9.264011E-1	8.764431E-1	8.893400E-1	8.981812E-1	9.171321E-1	9.183197E-1	9.244956E-1	9.594497E-1	9.358642E-1	9.543709E-1	9.015662E-1	9.234351E-1	9.451205E-1	9.272021E-1	9.098735E-1	8.945285E-1	9.074522E-1	9.456388E-1	8.944567E-1	8.637696E-1	9.345185E-1	9.406521E-1	8.702041E-1	8.875669E-1	9.125148E-1	9.110523E-1	9.007058E-1	9.284000E-1	9.165250E-1	9.335584E-1	8.956360E-1	9.118749E-1	9.405740E-1	8.986207E-1	9.112699E-1	9.624113E-1	9.354877E-1	9.308122E-1	9.511277E-1	9.092952E-1	9.098040E-1	9.239880E-1	9.024880E-1	9.497248E-1	9.235094E-1	9.542332E-1	8.957198E-1	9.138979E-1	9.956390E-1	9.470766E-1	8.904966E-1	9.315608E-1	9.133686E-1	9.387739E-1	9.346427E-1	8.995111E-1	8.915471E-1	8.978906E-1	9.110965E-1	8.918657E-1	9.705315E-1	9.303609E-1	9.288980E-1	9.487432E-1	9.337969E-1	9.347096E-1	9.411208E-1	8.596880E-1	9.336464E-1	9.628419E-1	9.210995E-1	9.218666E-1	9.115207E-1	9.396383E-1	8.865564E-1	9.319885E-1	9.241503E-1	8.967429E-1	9.319449E-1	8.579095E-1	8.739358E-1	8.934034E-1	8.922513E-1	9.326250E-1	8.802495E-1	9.067455E-1	9.152111E-1	9.249001E-1	9.000581E-1	9.099004E-1	9.124850E-1	9.181391E-1	9.021741E-1	8.921275E-1	9.236053E-1	9.315507E-1	9.078467E-1	9.492094E-1	9.211348E-1	9.386842E-1	9.028223E-1	8.942244E-1	9.345807E-1	8.803607E-1	8.473429E-1	9.172654E-1	8.683042E-1
5.550140E+2	9.403331E-1	9.498985E-1	9.130654E-1	9.822317E-1	9.373612E-1	9.417245E-1	9.312927E-1	9.399687E-1	9.211820E-1	9.071795E-1	8.992334E-1	9.187423E-1	9.392682E-1	8.906535E-1	9.395055E-1	9.586681E-1	9.653640E-1	9.133291E-1	9.476063E-1	9.688659E-1	9.890503E-1	9.789977E-1	9.627392E-1	9.170660E-1	8.964889E-1	9.638250E-1	8.992609E-1	9.415629E-1	9.523232E-1	8.984586E-1	9.968149E-1	9.571361E-1	9.568736E-1	9.614398E-1	9.374884E-1	9.950254E-1	9.453242E-1	9.669754E-1	9.484100E-1	9.343837E-1	9.282810E-1	8.794265E-1	9.424903E-1	9.795460E-1	9.303589E-1	9.849058E-1	9.651999E-1	9.263064E-1	9.764539E-1	8.891811E-1	9.954571E-1	9.156837E-1	9.383579E-1	9.534408E-1	9.377016E-1	9.228936E-1	9.782638E-1	9.698648E-1	9.165805E-1	9.466260E-1	9.786923E-1	9.074543E-1	9.242534E-1	9.352762E-1	9.763121E-1	9.081684E-1	8.999111E-1	9.317032E-1	9.037996E-1	9.824371E-1	8.953476E-1	9.658639E-1	9.398374E-1	9.232906E-1	9.188509E-1	9.447584E-1	9.308118E-1	9.366706E-1	9.704437E-1	9.295173E-1	9.452289E-1	9.968076E-1	9.511722E-1	9.204071E-1	9.628252E-1	9.554887E-1	9.034803E-1	9.235262E-1	9.682858E-1	9.406789E-1	9.277138E-1	9.351901E-1	9.348081E-1	9.665309E-1	9.225272E-1	9.502794E-1	9.666446E-1	9.041916E-1	9.888032E-1	8.978168E-1	9.155340E-1	9.171879E-1	9.607816E-1	9.234966E-1	9.084468E-1	9.729604E-1	9.145591E-1	9.012761E-1	9.039174E-1	9.551916E-1	8.956620E-1	9.952079E-1	8.805090E-1	9.434724E-1	9.435274E-1	9.186963E-1	9.465199E-1	8.787155E-1	9.256765E-1	9.056808E-1	9.407909E-1	9.509339E-1	9.739194E-1	8.841933E-1	9.422756E-1	9.270393E-1	9.203006E-1	9.782271E-1	9.166484E-1	9.417562E-1	9.597318E-1	9.334147E-1	9.426833E-1	9.266261E-1	9.290115E-1	9.450106E-1	9.565765E-1	9.322620E-1	9.830716E-1	9.523154E-1	9.442319E-1	8.954119E-1	9.400857E-1	9.222840E-1	9.707337E-1	9.404635E-1	9.554064E-1	9.140929E-1	9.410084E-1	9.078240E-1	9.503039E-1	9.795122E-1	9.017184E-1	9.308085E-1	9.346063E-1	9.769605E-1	9.806750E-1	9.540629E-1	9.330122E-1	9.078098E-1	9.251545E-1	9.024445E-1	8.868034E-1	8.928491E-1	9.566107E-1
5.560410E+2	1.028544E+0	1.010593E+0	1.024491E+0	9.714344E-1	9.965563E-1	1.040556E+0	1.027527E+0	9.929696E-1	1.037682E+0	1.029653E+0	1.000931E+0	1.017180E+0	1.002531E+0	1.032734E+0	9.714031E-1	9.967281E-1	1.030693E+0	9.873574E-1	9.895773E-1	1.007603E+0	1.008972E+0	1.040415E+0	1.005324E+0	1.030748E+0	9.998378E-1	1.029904E+0	1.034103E+0	1.053913E+0	9.995385E-1	1.053469E+0	1.001122E+0	1.040404E+0	1.017016E+0	1.038032E+0	1.007492E+0	9.935976E-1	1.039094E+0	1.016295E+0	1.000434E+0	9.595164E-1	1.021949E+0	1.037372E+0	1.019947E+0	1.016273E+0	1.088181E+0	9.765300E-1	9.960092E-1	9.750856E-1	1.050421E+0	9.842835E-1	1.021607E+0	1.066706E+0	9.673020E-1	9.764048E-1	1.012118E+0	1.027448E+0	1.048200E+0	1.041350E+0	1.047774E+0	1.042118E+0	9.828150E-1	1.003513E+0	9.928763E-1	9.798712E-1	1.000560E+0	1.048084E+0	1.039233E+0	1.000853E+0	9.901737E-1	1.008922E+0	1.044131E+0	1.000838E+0	9.963282E-1	1.014741E+0	1.026062E+0	1.059270E+0	1.038631E+0	9.584177E-1	1.079879E+0	1.034004E+0	1.039263E+0	9.969852E-1	9.834846E-1	1.025094E+0	1.036089E+0	1.008470E+0	1.066740E+0	1.050298E+0	9.903211E-1	1.057443E+0	1.060639E+0	1.015658E+0	1.009310E+0	1.022460E+0	9.872728E-1	1.025515E+0	9.843719E-1	9.903775E-1	1.033526E+0	1.044321E+0	1.014808E+0	1.013324E+0	9.810267E-1	1.034774E+0	1.029528E+0	1.007049E+0	1.017922E+0	1.045617E+0	1.040672E+0	9.605866E-1	1.011904E+0	1.046929E+0	9.831994E-1	1.005787E+0	1.023157E+0	1.023324E+0	1.006543E+0	1.045277E+0	1.074027E+0	1.015791E+0	9.744397E-1	9.718673E-1	9.951256E-1	1.054807E+0	9.715490E-1	9.792052E-1	9.998253E-1	1.043242E+0	1.036688E+0	1.046347E+0	1.015421E+0	1.037590E+0	1.025355E+0	1.092523E+0	1.020997E+0	1.004470E+0	1.015676E+0	1.016092E+0	9.654277E-1	1.016169E+0	1.002482E+0	1.039618E+0	1.025208E+0	1.037027E+0	1.002193E+0	9.899037E-1	1.016349E+0	1.005417E+0	1.039232E+0	1.098436E+0	1.031677E+0	1.031433E+0	1.015038E+0	1.065169E+0	1.063850E+0	9.778693E-1	9.820290E-1	9.815114E-1	9.954021E-1	9.841671E-1	9.795646E-1	9.730719E-1	1.088341E+0	9.640905E-1	9.525890E-1
5.570330E+2	1.058522E+0	1.021544E+0	1.073234E+0	1.078644E+0	1.115677E+0	1.025399E+0	1.006663E+0	1.024126E+0	1.059828E+0	1.011676E+0	1.057543E+0	1.109663E+0	1.070662E+0	1.066531E+0	1.074883E+0	1.035544E+0	1.080344E+0	1.025033E+0	1.075896E+0	1.078488E+0	1.073982E+0	1.040031E+0	1.037095E+0	1.086049E+0	1.065891E+0	1.000409E+0	1.075309E+0	1.034460E+0	1.021916E+0	1.066074E+0	1.070326E+0	1.047051E+0	1.002059E+0	1.074280E+0	1.024603E+0	1.058948E+0	1.088662E+0	1.066540E+0	1.059125E+0	1.025748E+0	1.048798E+0	1.025006E+0	1.046296E+0	1.080431E+0	1.038850E+0	1.106794E+0	1.084093E+0	1.057452E+0	1.043580E+0	1.028080E+0	1.037962E+0	1.089287E+0	1.037896E+0	1.030063E+0	1.054327E+0	1.039790E+0	1.043945E+0	1.042381E+0	9.919381E-1	1.028086E+0	1.080573E+0	1.082649E+0	9.728173E-1	1.134132E+0	1.032680E+0	1.054257E+0	1.073060E+0	9.859963E-1	1.114108E+0	1.073625E+0	1.066435E+0	1.067263E+0	1.107484E+0	9.865879E-1	1.011717E+0	1.061813E+0	1.067435E+0	1.036083E+0	1.078833E+0	1.076425E+0	1.059899E+0	1.063635E+0	9.841127E-1	1.012588E+0	1.011803E+0	1.080499E+0	1.089370E+0	1.084179E+0	1.057903E+0	1.070801E+0	1.072510E+0	1.073728E+0	1.031573E+0	1.013787E+0	1.084896E+0	1.073387E+0	1.036484E+0	1.063139E+0	1.037779E+0	1.043675E+0	1.077307E+0	1.116180E+0	1.016676E+0	1.001051E+0	1.058751E+0	1.049265E+0	1.074969E+0	1.067785E+0	1.059421E+0	1.062227E+0	1.083545E+0	1.027401E+0	1.108363E+0	1.096097E+0	1.109190E+0	1.057701E+0	1.040343E+0	1.049616E+0	1.043415E+0	1.145455E+0	1.081420E+0	1.046188E+0	1.023390E+0	1.079613E+0	1.106821E+0	1.000078E+0	1.123451E+0	1.021992E+0	1.052639E+0	1.027078E+0	1.031847E+0	1.025123E+0	1.067996E+0	1.077100E+0	1.055090E+0	9.802248E-1	9.916499E-1	1.045704E+0	1.053004E+0	1.050370E+0	1.070351E+0	1.032791E+0	1.036974E+0	1.107302E+0	9.997553E-1	1.064295E+0	1.045257E+0	1.104944E+0	1.059714E+0	1.036488E+0	1.020429E+0	1.044511E+0	1.030217E+0	1.064517E+0	1.092674E+0	1.032723E+0	1.093454E+0	1.049922E+0	1.039937E+0	1.092357E+0	1.052934E+0	1.047021E+0	1.004865E+0	1.112173E+0	1.019860E+0
5.580230E+2	1.017722E+0	1.091419E+0	1.022349E+0	1.029767E+0	1.017759E+0	1.026517E+0	1.051387E+0	1.063212E+0	1.047372E+0	1.022753E+0	1.047796E+0	1.021111E+0	1.016064E+0	9.953705E-1	1.048213E+0	1.019854E+0	1.064455E+0	1.067200E+0	1.057723E+0	1.036288E+0	1.069791E+0	1.057602E+0	1.050474E+0	1.021161E+0	1.059773E+0	1.025166E+0	1.076785E+0	1.025973E+0	1.054871E+0	1.041473E+0	1.029208E+0	1.068611E+0	1.002270E+0	1.007269E+0	1.004056E+0	1.039383E+0	1.005832E+0	1.045461E+0	1.033801E+0	1.056451E+0	1.040185E+0	1.009437E+0	1.047705E+0	1.040335E+0	1.030794E+0	9.973303E-1	1.077234E+0	1.063502E+0	1.034255E+0	1.010182E+0	1.067189E+0	1.023630E+0	1.026365E+0	1.076197E+0	1.051270E+0	1.030843E+0	1.070731E+0	1.024605E+0	1.051350E+0	1.036000E+0	1.025277E+0	1.084170E+0	1.053675E+0	9.876854E-1	1.067599E+0	1.053346E+0	1.010176E+0	9.985193E-1	1.071189E+0	1.078153E+0	1.079032E+0	1.065288E+0	1.069312E+0	1.082522E+0	1.082525E+0	1.071296E+0	1.063953E+0	1.103053E+0	1.009849E+0	9.996409E-1	1.030039E+0	1.085795E+0	1.062211E+0	1.006164E+0	1.047352E+0	9.875095E-1	1.095145E+0	1.005556E+0	1.024405E+0	1.064785E+0	1.024525E+0	1.075454E+0	1.045370E+0	1.030982E+0	1.052412E+0	1.031023E+0	1.013782E+0	1.039520E+0	1.038750E+0	1.019105E+0	1.039614E+0	1.040136E+0	1.006857E+0	1.060406E+0	1.022432E+0	1.085629E+0	9.990437E-1	1.062022E+0	1.018511E+0	1.028190E+0	1.068393E+0	1.040431E+0	1.055483E+0	9.695164E-1	9.849083E-1	1.048753E+0	1.058153E+0	1.050130E+0	1.010285E+0	1.034193E+0	1.035570E+0	1.044000E+0	1.069708E+0	1.022809E+0	1.035965E+0	1.134854E+0	1.053428E+0	1.009531E+0	1.011371E+0	1.039213E+0	1.081221E+0	1.077969E+0	1.030208E+0	9.681092E-1	1.048884E+0	1.044010E+0	1.069088E+0	1.099386E+0	1.084628E+0	1.056263E+0	1.027558E+0	1.060921E+0	1.081373E+0	1.049715E+0	1.026468E+0	1.032020E+0	1.057766E+0	1.080924E+0	1.053575E+0	1.044032E+0	1.050425E+0	1.088260E+0	1.029624E+0	1.051135E+0	1.054792E+0	1.085048E+0	1.049393E+0	1.009717E+0	1.057728E+0	1.041473E+0	1.016436E+0	1.102927E+0	1.071100E+0	1.161977E+0	1.252617E+0
5.590160E+2	1.094999E+0	1.011244E+0	1.057147E+0	1.073405E+0	1.074703E+0	1.004936E+0	1.051862E+0	1.035902E+0	9.961270E-1	1.076414E+0	1.067448E+0	1.055062E+0	1.038657E+0	1.068677E+0	1.027952E+0	1.043167E+0	9.722655E-1	1.085617E+0	1.012681E+0	9.536869E-1	9.512625E-1	9.363094E-1	1.040319E+0	1.085312E+0	1.033276E+0	1.023774E+0	9.907685E-1	1.020294E+0	1.062106E+0	1.016591E+0	1.039007E+0	1.001355E+0	1.114145E+0	9.407244E-1	1.091873E+0	9.996851E-1	9.932090E-1	9.525345E-1	1.106062E+0	1.093846E+0	1.032845E+0	1.128118E+0	9.807042E-1	9.888278E-1	9.477401E-1	1.030281E+0	9.742658E-1	1.013942E+0	1.013516E+0	1.157206E+0	9.734722E-1	1.059287E+0	1.165110E+0	1.089055E+0	9.998622E-1	1.036126E+0	9.506184E-1	1.013144E+0	1.065956E+0	1.070726E+0	1.043303E+0	1.024033E+0	1.139246E+0	1.044715E+0	9.983527E-1	9.766946E-1	1.041756E+0	1.128558E+0	1.019164E+0	9.334277E-1	9.699332E-1	9.735450E-1	9.771647E-1	1.098330E+0	1.053392E+0	9.172247E-1	1.004712E+0	1.102007E+0	9.264761E-1	1.019760E+0	1.055367E+0	9.692104E-1	1.106505E+0	1.124695E+0	1.041225E+0	1.039633E+0	9.287393E-1	1.002882E+0	1.063449E+0	9.544170E-1	9.740389E-1	1.001349E+0	1.067669E+0	1.003829E+0	1.017404E+0	9.889835E-1	1.047589E+0	1.093477E+0	9.913376E-1	1.071094E+0	1.050249E+0	9.634477E-1	1.111150E+0	1.026039E+0	1.085122E+0	9.711981E-1	9.978675E-1	9.762226E-1	1.086982E+0	1.062244E+0	1.027128E+0	9.512568E-1	1.037803E+0	1.085616E+0	1.047670E+0	1.053635E+0	1.037345E+0	1.084396E+0	9.760647E-1	9.685196E-1	1.038881E+0	1.038267E+0	1.004060E+0	1.023869E+0	1.002269E+0	1.099136E+0	9.693491E-1	9.841657E-1	1.061555E+0	1.023739E+0	1.000258E+0	9.862651E-1	1.047202E+0	1.003653E+0	1.021867E+0	1.129543E+0	1.035065E+0	1.048646E+0	1.039933E+0	1.031479E+0	1.063126E+0	1.038633E+0	1.036111E+0	9.769263E-1	1.085639E+0	1.048417E+0	1.025164E+0	9.847216E-1	9.939860E-1	9.950815E-1	1.044990E+0	9.641556E-1	1.099798E+0	9.568192E-1	9.462313E-1	9.781905E-1	9.733144E-1	1.066102E+0	1.071098E+0	1.079968E+0	1.091331E+0	1.094175E+0	1.101547E+0	9.516450E-1	9.500191E-1
