Photon Energy (eV)	#1	#2	#3	#4	#5	#6	#7	#8	#9	#10	#11	#12	#13	#14	#15	#16	#17	#18	#19	#20	#21	#22	#23	#24	#25	#26	#27	#28	#29	#30	#31	#32	#33	#34	#35	#36	#37	#38	#39	#40	#41	#42	#43	#44	#45	#46	#47	#48	#49	#50	#51	#52	#53	#54	#55	#56	#57	#58	#59	#60	#61	#62	#63	#64	#65	#66	#67	#68	#69	#70	#71	#72	#73	#74	#75	#76	#77	#78	#79	#80	#81	#82	#83	#84	#85	#86	#87	#88	#89	#90	#91	#92	#93	#94	#95	#96	#97	#98	#99	#100	#101	#102	#103	#104	#105	#106	#107	#108	#109	#110	#111	#112	#113	#114	#115	#116	#117	#118	#119	#120	#121	#122	#123	#124	#125	#126	#127	#128	#129	#130	#131	#132	#133	#134	#135	#136	#137	#138	#139	#140	#141	#142	#143	#144	#145	#146	#147	#148	#149	#150	#151	#152	#153	#154	#155	#156	#157	#158	#159	#160	#161	#162	#163	#164	#165	#166	
5.290120E+2	-8.408982E-3	-2.736769E-2	-7.505015E-3	-8.787828E-3	-1.365100E-2	-1.427625E-2	-4.306636E-2	-3.513668E-2	-4.070346E-3	-3.141598E-2	-1.187729E-2	-1.024668E-2	-2.516858E-2	-2.716540E-2	-8.961456E-3	-2.377981E-2	-1.637803E-2	-2.765883E-2	-1.485091E-2	-1.361540E-2	-2.617111E-2	-3.360737E-2	-1.333780E-2	-2.334982E-2	-1.755573E-2	-2.908347E-2	-1.031019E-2	-3.703354E-2	-2.990629E-2	-3.053045E-2	-2.253488E-2	-9.997627E-3	-1.840924E-2	-3.603968E-2	-2.752671E-2	-2.134180E-2	-3.728280E-2	-2.795615E-2	-9.966325E-3	-3.831266E-2	-1.148704E-2	-2.955798E-2	-5.023024E-3	5.571353E-3	-1.626468E-2	-3.380460E-2	-1.791756E-2	-2.413732E-2	-1.572589E-2	-2.482399E-2	-2.091062E-2	-3.574000E-2	-1.046320E-2	-2.652142E-2	-1.640998E-2	-2.136905E-2	-3.435716E-2	-2.911863E-2	-1.009099E-2	-3.612509E-2	-1.994065E-2	-3.429131E-2	-2.894006E-2	-1.486813E-2	-1.758391E-2	-2.393780E-2	-2.867265E-2	-1.863526E-2	-1.785952E-2	-1.896445E-2	-3.712006E-2	-3.131042E-2	5.552637E-3	-1.864238E-2	-2.260070E-2	-2.072372E-2	-6.141615E-3	-2.936839E-2	-7.518952E-3	-1.524478E-2	-5.253144E-3	-3.412029E-2	-2.719878E-2	-1.335711E-2	-1.820828E-2	-3.543686E-2	-2.001554E-2	-2.639779E-2	-2.420365E-2	-4.070977E-2	-2.713538E-2	-1.193769E-2	-1.581351E-2	-2.758371E-2	-1.529199E-2	-2.879129E-2	-5.889891E-3	-2.353021E-2	-9.835236E-3	-7.722177E-3	-1.407657E-2	-1.856581E-2	-2.780729E-2	-1.377928E-2	-1.873841E-2	-2.211363E-2	-2.590299E-2	-2.356190E-2	-3.744062E-2	-2.704639E-2	-1.353779E-2	-4.101687E-2	-2.634079E-2	-3.155055E-2	-2.455656E-2	-9.552619E-3	-2.778478E-2	-2.108889E-2	-2.216876E-2	-2.281312E-2	-1.899043E-2	-1.335696E-2	-2.815248E-2	-1.543991E-2	-3.861273E-2	-3.080830E-2	-2.476730E-2	-7.783919E-3	-2.255768E-2	-2.699029E-2	-4.238907E-2	-2.335865E-2	-1.564419E-2	-5.135941E-2	-2.978370E-2	-7.683529E-3	-2.002920E-2	-1.328565E-2	-3.260911E-2	-1.499715E-2	-3.442061E-2	-3.724602E-2	-2.413801E-2	-1.272616E-2	-1.887456E-2	-1.739764E-2	-2.336621E-2	-1.334212E-2	-1.296840E-2	-1.448369E-2	-1.919359E-2	-1.574356E-2	-3.150206E-2	-2.637695E-2	-3.240538E-2	-1.653816E-2	-6.840808E-3	-2.126898E-2	-2.209711E-2	-1.379272E-2	-2.261248E-2	-3.659327E-2	-1.299409E-2	-1.261679E-3	-1.421286E-2	-1.169203E-2
5.295010E+2	-1.232005E-2	-7.235155E-3	2.033972E-2	-5.168782E-4	-9.253315E-3	2.760071E-2	-7.368015E-3	-2.509794E-3	-1.946770E-3	-9.046498E-3	-8.606383E-4	-4.689146E-3	1.626869E-3	-1.653181E-2	3.063965E-2	6.760047E-3	2.540779E-2	-3.520235E-3	-3.375205E-3	-1.033459E-2	1.367638E-2	-5.061838E-3	-7.101955E-3	-1.817889E-2	1.135954E-2	7.755522E-3	-1.031016E-2	-8.859641E-4	-1.203127E-2	-2.867545E-3	2.597671E-2	-2.959418E-3	1.455202E-2	1.566996E-3	8.946243E-3	8.961769E-3	-1.868291E-2	-5.106587E-3	6.126135E-3	1.649697E-2	5.282511E-3	-1.341953E-2	-9.957957E-3	-1.971411E-3	-1.912435E-2	-2.042360E-2	2.613324E-2	8.261691E-3	8.170389E-3	-5.715654E-3	1.749503E-3	-1.267338E-3	2.466917E-3	-1.612085E-2	-8.247545E-3	-6.655885E-3	2.119159E-2	9.934612E-3	5.181925E-3	-2.345765E-3	-5.389017E-4	8.336490E-3	-5.158525E-3	-2.703266E-3	-1.908044E-2	-2.686147E-2	6.504074E-3	1.988363E-2	-1.041803E-2	-1.668873E-2	-7.193971E-3	-2.014119E-3	7.033204E-3	-4.614440E-3	7.408529E-3	5.921250E-4	-1.741617E-3	-1.414039E-2	-1.412100E-2	-4.573394E-3	-1.041407E-2	-1.028423E-2	-3.777577E-3	-3.776816E-3	-2.589996E-4	1.269077E-3	-3.532154E-3	5.023798E-3	-7.890536E-3	-1.701025E-2	5.755941E-3	-8.147956E-3	-9.824938E-3	-1.772557E-2	-4.369078E-3	-4.470756E-3	-5.196969E-3	1.018472E-2	-1.202093E-2	-5.567161E-3	1.424133E-2	-3.563155E-3	2.529563E-2	3.532944E-4	1.318631E-2	-7.897736E-3	-1.066589E-2	2.211181E-2	1.566669E-2	-1.296744E-2	1.069785E-2	4.427458E-3	6.742490E-3	-5.466274E-3	1.458893E-2	-1.459932E-2	4.903247E-3	-1.294930E-2	-8.699146E-3	1.471868E-3	1.266015E-3	-1.634590E-2	-9.503633E-3	8.967945E-3	3.404087E-3	-2.946923E-3	1.039725E-2	-6.430195E-3	-1.091502E-2	-3.238789E-3	-4.484253E-3	-8.877957E-3	3.025166E-3	1.410953E-2	8.396026E-3	-1.333575E-2	-1.155868E-2	1.236944E-2	9.580571E-3	4.354000E-3	3.884750E-3	-1.204465E-2	-1.786396E-2	4.603025E-3	3.814116E-3	5.920621E-3	-4.455007E-3	-7.412155E-4	-1.823104E-2	-3.881227E-3	-3.070874E-3	3.865277E-3	-2.423244E-3	7.704564E-3	1.961063E-3	-5.033339E-3	-1.520176E-2	-1.011151E-2	-7.840941E-3	-1.899450E-3	-4.736988E-3	4.344811E-3	-1.299398E-2	-1.261644E-3	6.091191E-3	9.093671E-3
5.300010E+2	2.600900E-2	2.128603E-2	1.424867E-2	5.272658E-3	3.472290E-2	3.521470E-2	6.745307E-3	3.346358E-2	2.920058E-2	4.424546E-2	4.114015E-2	9.204653E-3	1.846971E-2	1.935620E-2	1.962994E-3	3.475500E-2	2.328342E-2	1.843980E-3	2.362631E-2	1.591201E-2	2.870412E-3	3.344134E-2	3.932039E-2	2.383447E-2	1.824430E-2	1.680377E-2	2.760462E-2	1.754218E-2	1.684384E-2	3.828957E-2	3.515450E-2	4.566934E-2	5.031870E-2	2.315577E-2	5.023607E-2	2.152651E-2	2.449536E-2	3.851555E-2	2.294998E-2	2.587234E-2	9.977800E-3	2.306752E-2	2.599624E-2	1.037112E-2	1.304742E-2	3.098762E-2	3.592243E-2	1.279775E-2	1.941563E-2	2.294719E-2	1.041349E-2	3.523303E-2	3.513263E-2	2.270797E-2	2.848351E-2	4.098634E-2	2.840563E-2	9.249289E-3	3.572762E-2	2.392701E-2	3.107871E-2	8.336532E-3	3.960680E-2	1.824717E-2	5.125521E-2	3.745978E-2	1.896243E-2	1.988358E-2	3.125409E-2	3.261895E-2	3.424248E-2	3.387370E-2	2.628248E-2	2.565644E-2	2.691471E-2	2.111852E-2	2.759122E-2	4.459662E-2	2.329046E-2	3.201411E-2	8.017952E-3	2.508562E-2	3.399859E-2	3.380750E-2	2.114235E-2	4.187985E-2	3.492910E-2	5.909814E-2	4.885039E-2	5.867575E-2	3.645454E-2	2.520190E-2	1.637497E-2	2.094851E-2	1.893298E-2	3.272557E-2	2.252049E-2	2.282771E-2	2.440605E-2	2.747666E-2	2.675384E-2	2.869265E-2	2.529555E-2	2.155224E-2	1.804441E-2	2.369327E-2	4.418737E-2	1.848708E-2	3.266082E-2	1.444941E-2	1.069763E-2	3.650580E-2	1.896903E-2	3.135871E-2	2.401287E-2	3.154162E-2	3.040004E-2	4.550756E-2	3.320632E-2	1.324632E-2	2.152232E-2	4.576840E-3	3.640114E-2	3.337616E-2	1.974409E-2	2.491454E-2	3.068453E-2	2.673603E-2	3.856644E-2	1.115597E-2	3.071289E-2	3.249527E-2	7.865343E-3	4.646821E-2	2.182959E-2	1.492547E-2	1.102932E-2	2.043223E-2	2.505018E-2	4.073439E-2	4.146739E-2	2.649839E-2	2.396375E-2	3.926163E-2	3.902055E-2	2.632416E-2	1.736541E-2	2.816668E-2	2.386953E-2	1.277966E-2	9.212896E-3	4.082001E-2	1.472583E-2	3.453487E-2	2.512114E-2	1.869536E-2	3.648418E-2	1.359821E-2	3.492779E-2	3.377971E-2	2.028866E-2	2.133803E-2	2.165667E-2	3.190018E-2	4.263864E-2	1.429037E-2
5.305030E+2	6.453378E-3	2.831165E-3	3.806858E-3	1.767891E-2	-2.656927E-3	-2.855253E-3	1.753786E-2	2.342444E-2	3.716443E-3	1.134927E-2	2.048411E-2	1.545679E-2	1.387617E-2	1.204577E-2	8.790812E-3	-1.511009E-3	6.993924E-3	1.525431E-2	1.282591E-2	8.202673E-4	1.367662E-2	1.087056E-2	6.755529E-3	2.641985E-2	1.411351E-2	1.615758E-2	1.297096E-2	2.037728E-2	5.843715E-3	2.007263E-2	8.276278E-3	-3.599127E-3	4.032458E-3	1.758459E-2	1.032255E-2	1.265725E-2	3.844535E-2	9.434087E-3	2.002418E-2	3.308410E-2	7.965560E-3	2.797927E-2	1.753656E-2	1.311383E-2	2.806099E-2	1.760646E-2	7.953798E-3	1.279764E-2	4.656123E-3	1.066325E-2	2.174385E-2	1.901062E-2	1.786432E-3	3.033485E-2	5.952685E-4	1.856661E-2	1.541997E-2	1.404550E-2	8.181704E-4	1.191664E-2	3.036011E-2	2.483749E-2	2.002205E-2	2.095055E-2	2.057700E-2	2.430330E-2	1.163379E-2	5.617327E-3	1.413875E-2	1.137849E-2	2.781660E-3	1.922574E-2	6.293031E-3	-4.614390E-3	3.291647E-2	2.032905E-2	1.924971E-3	1.269007E-2	5.685076E-3	1.143359E-2	2.718714E-2	1.047639E-2	2.644323E-2	1.685762E-2	4.573680E-3	2.079349E-2	3.257423E-2	1.452331E-2	2.048009E-2	1.051191E-2	-1.032419E-2	1.155875E-2	1.862071E-2	1.260701E-2	2.694303E-2	-2.324782E-3	1.697679E-2	1.158941E-2	9.106740E-3	5.926300E-3	1.489972E-2	1.687722E-3	-1.973331E-3	8.832891E-3	2.914879E-2	1.421590E-2	1.066593E-2	-8.337255E-3	1.566686E-2	1.889538E-2	1.609372E-3	1.846177E-2	1.824979E-2	1.831662E-2	1.241416E-2	4.866478E-3	1.209428E-2	2.848855E-2	1.300196E-2	-9.566803E-3	5.606757E-3	1.802731E-2	4.124233E-3	2.376089E-2	3.219344E-2	4.911478E-3	2.958523E-3	1.319888E-2	-9.459616E-3	1.619406E-2	2.800562E-2	6.981778E-3	1.547142E-2	1.711980E-2	1.617337E-2	1.280597E-2	2.585263E-2	1.374289E-3	2.294068E-2	1.906084E-2	1.617129E-2	6.485593E-3	2.352804E-3	8.213369E-3	6.844140E-4	1.320764E-2	7.182632E-3	6.671052E-3	2.462109E-2	8.993144E-3	8.445124E-3	8.390325E-3	1.547147E-2	-3.172519E-3	3.931618E-2	1.510007E-2	1.900229E-2	-2.440746E-3	2.423549E-2	1.858300E-2	1.456837E-2	1.593115E-2	6.956394E-3	-3.009794E-2	1.218258E-2	-1.169196E-2
5.310050E+2	-1.701337E-2	4.508793E-3	-1.413985E-3	9.408098E-3	-4.855722E-3	-3.616607E-3	1.504732E-2	-9.202490E-3	-7.609805E-3	-7.730617E-3	-4.991855E-3	5.731182E-3	-6.698924E-4	6.064471E-3	-1.442369E-2	1.033919E-3	-1.425326E-2	9.219639E-3	3.375218E-3	5.413398E-3	2.043039E-2	-1.302802E-2	4.676899E-3	-8.087888E-5	9.982558E-3	-9.694454E-3	-4.323613E-3	1.754224E-2	5.843795E-3	2.749426E-2	1.065327E-3	-3.998648E-4	-1.630533E-2	-9.575744E-3	3.440812E-3	1.570636E-3	-8.054442E-3	8.741718E-3	7.589081E-3	-9.465443E-3	-3.437740E-3	-4.999470E-3	-5.727959E-3	-7.456970E-3	4.468268E-3	1.408528E-2	2.622347E-4	1.781983E-3	1.238756E-2	-5.033000E-3	-8.247606E-3	-1.005454E-2	7.911205E-3	3.986908E-3	-4.846437E-3	-3.853376E-3	2.434737E-3	-1.027714E-3	4.454543E-3	4.410099E-3	-3.413265E-3	1.383700E-2	4.633854E-3	-9.461530E-3	-1.384266E-2	1.333943E-2	5.771131E-3	9.183906E-3	-1.934778E-2	-5.310026E-3	1.122238E-2	-5.492905E-4	-3.701586E-4	1.605831E-2	-1.134723E-2	-5.723734E-3	-2.474923E-3	-6.163743E-3	-1.833898E-4	-2.439168E-2	-5.253121E-3	-2.882808E-4	-3.917379E-8	-1.335725E-2	1.009652E-2	1.220286E-2	-2.080043E-2	1.370163E-3	4.876236E-3	3.631409E-3	1.370472E-3	6.253104E-3	1.712342E-2	1.109029E-2	-7.281842E-3	8.404945E-3	1.004749E-2	-3.863070E-3	4.006993E-3	-1.131386E-2	-2.469706E-4	-2.812986E-3	-4.843817E-3	8.832921E-3	-8.328221E-3	-5.528399E-3	1.752261E-2	-1.812443E-3	1.495834E-2	1.000345E-2	6.910823E-3	-5.596956E-3	2.696984E-4	-7.767795E-3	3.715199E-3	4.145521E-3	-6.210728E-3	-9.249494E-3	-2.712619E-3	1.103861E-2	-2.351173E-3	7.565801E-3	8.427642E-3	-1.617955E-2	8.850738E-3	-7.233289E-3	1.039717E-2	-3.384573E-4	-2.910731E-3	6.117806E-3	9.730052E-3	-1.292909E-3	-8.729683E-3	-1.881296E-4	-7.158650E-3	-6.183456E-4	-7.323430E-3	-1.328564E-2	-6.592178E-3	-1.886742E-2	-1.346104E-2	-1.352718E-2	1.490118E-2	-1.922470E-2	6.943497E-3	-9.381978E-3	1.009218E-2	-2.223669E-3	-1.672741E-2	1.419981E-3	1.919351E-2	-1.876031E-2	2.796051E-3	-3.897677E-3	4.669175E-4	5.033478E-3	-1.064125E-2	-9.414163E-3	-6.415322E-3	-4.542548E-3	-4.469142E-4	-8.013862E-3	6.562686E-4	-8.470621E-3	4.060772E-3	1.948665E-2
5.315030E+2	-1.310221E-2	-1.394602E-2	-1.707664E-2	-2.450237E-2	-3.389852E-3	-1.275342E-2	-1.650010E-2	-1.673168E-2	-2.884648E-2	-7.072669E-3	-2.220532E-2	-2.552978E-2	-1.980948E-2	-3.904509E-3	-1.852028E-2	-2.123473E-2	-1.850272E-2	-3.520198E-3	-2.497656E-2	-8.366118E-3	-1.266345E-2	1.418970E-2	-1.056634E-2	-2.205704E-2	-9.982664E-3	-1.357228E-2	-8.314682E-3	-2.002291E-2	-5.156110E-3	-2.648220E-2	-2.056816E-2	-1.679743E-3	-2.331834E-2	-1.723633E-2	-3.096751E-2	-1.986356E-2	1.253830E-2	-1.064585E-2	-2.313299E-2	-2.316788E-2	-1.081631E-2	-9.209544E-3	-2.617259E-2	-6.085536E-3	-1.411987E-2	-4.225600E-3	-2.770664E-2	-1.312165E-2	-6.589050E-3	-1.390481E-2	-2.915836E-3	-1.951758E-2	-3.019865E-2	-1.057392E-2	-3.485998E-3	-2.206963E-2	-1.415766E-2	-1.130484E-2	-2.100019E-2	-1.360553E-2	-1.994066E-2	-2.397817E-2	-2.264491E-2	2.703311E-3	-4.115377E-3	-1.516673E-2	-7.420087E-3	3.477401E-3	-8.185613E-3	-8.344386E-3	-2.589759E-3	-2.252151E-2	-2.035966E-2	-2.233395E-2	-1.734912E-2	-3.098701E-2	-2.227466E-2	-6.163783E-3	-1.265389E-2	-2.591621E-2	6.451431E-4	-9.515186E-3	-3.626507E-2	-4.513842E-3	-2.787341E-2	-8.883533E-3	-1.923064E-2	-2.932068E-2	-2.136659E-2	-2.236174E-2	-2.055708E-2	-2.406492E-2	-2.180198E-2	-2.303386E-2	-1.747653E-2	-1.233911E-2	-3.222152E-2	-1.369667E-2	-2.804875E-2	-2.496242E-2	-2.658921E-2	-1.556528E-2	-1.417277E-2	-2.225886E-2	-2.429057E-2	-4.738648E-3	-1.523705E-2	-1.776202E-2	-3.035960E-2	-6.298455E-3	-2.111134E-2	-1.428492E-2	-1.051838E-2	-2.397446E-3	-2.020702E-2	-9.552615E-3	-8.825777E-3	-7.769598E-3	-7.202490E-3	-1.103866E-2	-2.550146E-2	-4.390052E-3	-2.169716E-2	-2.061736E-2	-6.711010E-3	-9.376438E-3	6.339651E-3	-5.076491E-3	-8.004300E-3	-1.331515E-2	-7.868612E-3	-1.163621E-2	-1.815260E-3	-1.599099E-2	-1.281498E-2	-1.050962E-2	5.382297E-3	-2.354762E-2	-1.995226E-2	-1.964146E-2	-2.574767E-2	7.226827E-3	-3.224226E-3	-1.344823E-2	-1.183328E-2	-1.594019E-2	-9.546520E-3	5.188576E-3	8.833647E-3	-1.599833E-2	-1.919352E-2	-5.939230E-3	-1.882667E-2	-4.622743E-3	-1.372792E-2	-1.653814E-2	-1.824217E-2	-2.440687E-3	-1.782024E-2	-1.511423E-2	-1.617731E-2	-1.110352E-2	-8.793994E-3	-2.288879E-2	-3.857782E-2	-1.169196E-2
5.320070E+2	-2.151145E-3	8.703172E-3	-9.245316E-3	-7.133640E-3	-2.391206E-2	-2.874283E-2	7.575541E-3	-1.756832E-2	-8.317667E-3	-4.441028E-3	-1.876270E-2	8.683677E-4	-6.794520E-3	-1.187965E-2	-1.988587E-2	-3.419845E-3	-1.000380E-2	-8.884352E-3	2.700203E-3	-2.460604E-3	-2.009270E-2	-1.767498E-2	-2.788820E-2	-3.312517E-3	-1.893269E-2	3.877671E-3	-1.762706E-2	-2.303486E-3	3.093737E-3	-3.053048E-2	-2.515711E-2	-2.407435E-2	-2.752622E-2	6.441882E-3	-1.445149E-2	-1.173338E-2	-8.054394E-3	-1.480032E-2	-2.825328E-2	-2.974894E-3	1.928422E-3	1.315616E-3	-1.207294E-2	-1.979935E-2	-1.697959E-2	-2.183220E-2	-2.770661E-2	-1.376958E-2	-2.064570E-2	4.521275E-3	-1.357939E-2	1.436401E-3	-1.658801E-2	-2.444130E-2	-2.125655E-3	-1.366221E-2	-3.002859E-2	3.083166E-3	-3.190936E-2	-1.595134E-3	-2.425213E-2	-3.016605E-2	-1.355199E-2	-1.757138E-2	-2.132524E-2	-1.297387E-2	-1.548139E-2	-3.218826E-2	-1.488291E-2	-1.668872E-2	-7.193709E-3	-4.211267E-3	-2.554208E-2	4.983638E-3	-1.959982E-2	4.539481E-3	-4.674909E-3	-1.341523E-2	-1.045323E-2	-1.976108E-8	-1.262592E-2	-5.670702E-3	-9.821807E-3	-2.072669E-2	-8.543223E-3	-3.309391E-2	-1.059640E-2	-2.201340E-2	-2.136656E-2	-1.701017E-2	2.101371E-3	-1.042179E-2	-2.779051E-2	-1.696731E-2	-1.747656E-2	-1.609447E-3	-6.582881E-3	-9.482306E-3	-3.278408E-3	-5.567196E-3	-2.132079E-2	-9.564188E-3	-1.058470E-2	-1.660583E-2	-9.716258E-3	-1.737499E-2	-2.133186E-2	9.062309E-3	-1.903007E-2	-1.296752E-2	-1.050830E-2	2.422529E-3	-1.986794E-2	-1.083650E-2	-7.883442E-3	-8.110719E-3	-9.479505E-3	-1.960901E-2	-1.244066E-2	-2.943630E-3	5.426408E-4	-1.634592E-2	-1.613824E-3	-1.543992E-2	-3.005371E-2	-8.662058E-3	-3.491096E-2	-1.658310E-2	-3.638281E-3	-1.619411E-2	-1.734482E-2	-1.025716E-2	-1.495275E-2	-2.351619E-2	-7.865775E-3	-1.262925E-2	-6.617561E-3	-2.290743E-3	-7.998507E-3	-1.731932E-2	-5.510878E-3	5.744399E-3	3.049949E-3	-4.061556E-3	-1.887455E-2	-5.738493E-3	6.455199E-3	-2.520180E-2	-6.202313E-3	-1.372632E-2	-9.980606E-3	-1.348102E-2	-3.168852E-3	-2.202609E-2	-1.821050E-2	-1.006672E-2	-2.736329E-2	-2.440704E-3	-1.211780E-2	-1.973928E-2	-2.547257E-2	5.117288E-3	-6.693841E-3	-2.703413E-3	-2.436491E-2	-1.169190E-2
5.325120E+2	2.053339E-2	1.121970E-2	-3.154296E-3	8.581054E-3	2.299597E-2	-5.710538E-4	2.002845E-2	2.426094E-2	1.787405E-2	4.112053E-3	-2.926448E-3	9.204610E-3	1.846972E-2	2.201493E-2	2.039784E-2	7.396429E-3	3.452674E-3	1.726569E-2	6.750408E-4	1.263103E-2	8.273459E-3	1.087061E-2	8.141474E-3	1.672483E-2	-7.228823E-3	7.755664E-3	1.031013E-2	4.784188E-3	1.546858E-2	4.554222E-3	-2.212671E-3	-2.959211E-3	1.665595E-2	1.410251E-2	3.568151E-8	8.222572E-3	-3.404456E-3	1.817553E-3	4.663221E-3	-1.532533E-3	5.867975E-4	4.824121E-3	1.542168E-2	6.256968E-3	2.091181E-2	1.760665E-2	3.059109E-3	1.538949E-2	-1.669062E-3	1.134575E-2	1.174661E-2	1.089941E-2	9.952683E-3	2.062776E-2	6.036837E-3	8.057199E-3	1.109149E-2	5.138617E-3	1.681828E-2	1.341776E-2	6.646803E-3	3.308803E-2	6.032785E-3	2.703278E-3	4.115412E-3	3.837374E-3	8.702703E-3	-7.222324E-3	2.530100E-2	2.199889E-2	5.850980E-3	7.507171E-3	1.110548E-3	3.506764E-3	3.657168E-3	1.085528E-2	7.791531E-3	1.196486E-2	1.595492E-2	2.667838E-2	-2.303987E-3	2.431668E-2	1.662146E-2	5.066591E-3	1.907137E-2	1.269034E-3	6.671836E-3	-2.283535E-3	6.206207E-4	2.427286E-2	1.233432E-2	1.155860E-2	2.311184E-2	4.066464E-2	1.601999E-2	8.404870E-3	3.464885E-4	5.970416E-3	1.566354E-2	2.172985E-2	6.338650E-3	1.969105E-2	8.790740E-3	1.307262E-2	6.939386E-4	1.974424E-2	7.618738E-4	1.812414E-3	7.877587E-3	1.593158E-2	1.524175E-2	-9.188022E-4	1.249610E-2	8.343233E-3	-2.084144E-3	1.261653E-3	4.903223E-3	-3.329814E-3	7.015402E-3	2.060541E-2	1.790533E-2	2.026888E-2	1.201408E-2	1.571734E-3	1.118509E-2	2.920099E-2	-1.098876E-3	-3.722743E-3	1.891918E-2	2.627052E-2	3.638195E-3	1.594584E-2	1.477995E-2	1.335719E-2	1.122412E-2	1.704505E-2	3.264624E-3	1.823369E-2	9.580622E-3	6.676126E-3	1.761678E-2	1.686264E-2	9.585178E-4	-2.617389E-3	-8.801838E-4	3.005879E-3	-3.727694E-3	1.482487E-3	-3.195114E-3	2.489679E-2	1.458707E-2	8.485114E-4	2.292747E-2	1.785655E-2	-2.521500E-3	9.347456E-3	2.280281E-2	3.451858E-2	7.128132E-3	2.725521E-3	3.458924E-2	8.979371E-3	1.220657E-2	3.478391E-2	1.218241E-2	3.897168E-3
5.330080E+2	4.556440E-2	3.974087E-2	6.732722E-2	5.986012E-2	5.377924E-2	4.891998E-2	4.908530E-2	5.856090E-2	4.335800E-2	4.424550E-2	6.179647E-2	4.185482E-2	5.521769E-2	3.995897E-2	6.750934E-2	5.320609E-2	5.657061E-2	4.207507E-2	4.927788E-2	2.312969E-2	4.339334E-2	4.472682E-2	4.070652E-2	4.257907E-2	3.476747E-2	4.200964E-2	4.157341E-2	5.156330E-2	4.228132E-2	5.583178E-2	4.171009E-2	4.566918E-2	4.260439E-2	5.101265E-2	4.129010E-2	4.148246E-2	4.176654E-2	5.721057E-2	5.147774E-2	4.318044E-2	3.077182E-2	5.744934E-2	5.701587E-2	5.151268E-2	3.521034E-2	4.366421E-2	1.494571E-2	5.556431E-2	5.174620E-2	4.205595E-2	4.773598E-2	4.807578E-2	4.466000E-2	4.212230E-2	3.324513E-2	4.729183E-2	4.571943E-2	3.939593E-2	3.718193E-2	3.443601E-2	1.958155E-2	6.402753E-2	4.380335E-2	3.784604E-2	6.622060E-2	6.011877E-2	3.581787E-2	1.845699E-2	5.878752E-2	4.172165E-2	3.347539E-2	4.192991E-2	3.072434E-2	5.297412E-2	5.467295E-2	4.559211E-2	5.912393E-2	5.402321E-2	4.603069E-2	5.335699E-2	3.898383E-2	6.122437E-2	4.382019E-2	3.380782E-2	4.737620E-2	4.890849E-2	5.690671E-2	5.690559E-2	2.899142E-2	6.479171E-2	4.741797E-2	5.855145E-2	3.284319E-2	4.521431E-2	4.296313E-2	4.273972E-2	4.954489E-2	6.848360E-2	3.533411E-2	2.819507E-2	2.807081E-2	3.019295E-2	2.386058E-2	3.144504E-2	4.580495E-2	6.634072E-2	3.428315E-2	5.111116E-2	5.532013E-2	7.150577E-2	4.099183E-2	3.316439E-2	3.551041E-2	2.828975E-2	4.938499E-2	3.154153E-2	3.955254E-2	3.440804E-2	6.613211E-2	5.224906E-2	4.829024E-2	4.866421E-2	2.492461E-2	5.556522E-2	6.876368E-2	6.992129E-2	5.232393E-2	4.433418E-2	5.894109E-2	4.570335E-2	2.868252E-2	4.214894E-2	5.695890E-2	7.957912E-2	6.142331E-2	1.987112E-2	4.067607E-2	3.142729E-2	4.051946E-2	6.240728E-2	4.074457E-2	7.764183E-2	5.184882E-2	1.832212E-2	4.215005E-2	6.275902E-2	3.482201E-2	4.299142E-2	6.070735E-2	5.443206E-2	1.612256E-2	4.836214E-2	3.634846E-2	6.136480E-2	2.362690E-2	5.320969E-2	4.940597E-2	4.079434E-2	4.775836E-2	3.576175E-2	6.390449E-2	7.231746E-2	5.210743E-2	4.343466E-2	3.654733E-2	5.586154E-2
5.332150E+2	4.243566E-2	4.896830E-2	2.643073E-2	5.076238E-2	2.299582E-2	4.282866E-2	5.240605E-2	3.513661E-2	6.547972E-3	4.424536E-2	6.041900E-2	1.615145E-2	3.454694E-2	4.261765E-2	4.156402E-2	2.012143E-2	1.903390E-2	2.665326E-2	5.265311E-2	3.756540E-2	1.975504E-2	3.145015E-2	5.109964E-2	2.577386E-2	2.512880E-2	3.425421E-2	3.957791E-2	4.589323E-2	2.784368E-2	3.019297E-2	4.892109E-2	1.815585E-2	1.385069E-2	9.923948E-3	4.197788E-2	5.478624E-2	4.641676E-2	5.444088E-2	3.757959E-2	2.226646E-2	3.949184E-2	2.727757E-2	5.701580E-2	2.957056E-2	4.468077E-3	4.014319E-2	4.431308E-2	3.547719E-2	5.526004E-2	4.000860E-2	3.640597E-2	3.793661E-2	2.832721E-2	5.252270E-2	5.093031E-2	5.009462E-2	2.263427E-2	4.487684E-2	5.681830E-2	2.843101E-2	4.113896E-2	3.377555E-2	4.520242E-2	5.338981E-2	1.982872E-2	2.722713E-2	4.534481E-2	1.132389E-2	4.985759E-2	2.048159E-2	1.889578E-2	5.657855E-2	4.405072E-2	5.740345E-2	1.266016E-2	3.690807E-2	3.125781E-2	4.604679E-2	4.529734E-2	4.573446E-2	3.382275E-2	6.430001E-2	4.382019E-2	4.486187E-2	4.323364E-2	4.968945E-2	3.571382E-2	3.425329E-2	3.324696E-2	4.644370E-2	2.914536E-2	3.505523E-2	3.883205E-2	1.791502E-2	3.859409E-2	1.841920E-2	3.637921E-2	5.162616E-2	1.493505E-2	4.543499E-2	4.190082E-2	5.269694E-2	4.180076E-2	2.579206E-2	2.012644E-2	4.264756E-2	3.199784E-2	4.603645E-2	3.336893E-2	5.149920E-2	2.433012E-2	2.046651E-2	4.126411E-2	4.286652E-2	3.416169E-2	4.307680E-2	3.170747E-2	4.254783E-2	4.218617E-2	3.238003E-2	4.684318E-2	8.313102E-3	2.851107E-2	3.559508E-2	2.441252E-2	4.777484E-2	2.459822E-2	5.651762E-2	5.166434E-2	2.986900E-2	2.868244E-2	2.491014E-2	4.105542E-2	5.850834E-2	6.495862E-2	3.682770E-2	4.138191E-2	4.682050E-2	2.645660E-2	2.757532E-2	2.412154E-2	4.058145E-2	3.442093E-2	3.998364E-2	3.667336E-2	5.037094E-2	1.954752E-2	5.485114E-2	4.191268E-2	4.080053E-2	2.456771E-2	4.006594E-2	1.323457E-2	3.090900E-2	4.949471E-3	4.673832E-2	3.268370E-2	5.055724E-2	3.065074E-2	3.047600E-2	5.532477E-2	4.142092E-2	1.955670E-2	1.459835E-2	2.030400E-2	7.145111E-2
5.334160E+2	1.975114E-2	2.044715E-2	4.296351E-2	1.850610E-2	4.672445E-3	9.327148E-3	2.085866E-2	1.924132E-2	-1.946688E-3	1.134908E-2	3.356647E-2	4.341805E-3	2.535990E-2	2.600229E-2	4.497798E-2	3.976918E-4	-8.866625E-5	1.257237E-2	1.215090E-2	1.131885E-2	4.896332E-3	-2.406367E-3	4.624925E-2	1.866390E-2	3.098012E-3	1.809637E-2	1.363586E-2	1.258079E-2	1.065626E-2	3.879564E-3	4.343137E-3	-1.039538E-3	1.034426E-2	3.220937E-2	2.546221E-2	3.039565E-2	2.050979E-2	9.434112E-3	1.051500E-2	2.731464E-2	1.064854E-2	2.166416E-2	2.176664E-2	2.134199E-2	2.949076E-2	2.183208E-2	1.354739E-2	-8.585739E-3	1.660427E-2	1.066315E-2	3.507316E-2	1.765876E-2	2.492439E-2	1.854776E-2	1.079833E-2	2.837501E-2	1.686299E-2	7.194022E-3	1.545765E-3	1.567005E-2	1.023972E-2	1.452429E-2	3.541012E-2	1.284064E-2	4.115604E-3	2.211032E-2	7.236718E-3	1.560371E-2	3.051007E-2	3.792839E-3	8.152892E-3	1.263406E-2	4.812121E-3	4.245282E-3	3.291633E-2	-1.203954E-2	2.172464E-2	1.414011E-2	3.062591E-2	2.210492E-2	-7.465042E-3	3.738811E-2	1.964347E-2	1.906859E-2	1.354839E-2	1.610766E-2	3.178937E-2	2.475359E-2	9.131886E-3	2.733099E-2	3.937818E-2	8.526899E-3	9.637816E-3	1.943194E-2	4.150701E-2	1.841915E-2	-2.425204E-3	1.158958E-2	6.921099E-3	8.799722E-3	1.728774E-3	3.244332E-2	2.601334E-2	4.593136E-3	1.665630E-2	4.027835E-2	1.752260E-2	2.283683E-2	2.841259E-2	1.963642E-2	2.357273E-2	9.773864E-3	9.619334E-3	1.438444E-3	8.789645E-3	4.866478E-3	1.667099E-2	4.698757E-2	2.273007E-2	1.103856E-2	3.165079E-2	2.923554E-2	3.783557E-2	2.376090E-2	2.130011E-2	5.420432E-2	1.107341E-2	7.783850E-3	2.910649E-3	-3.958423E-3	3.274379E-2	5.602637E-3	3.716572E-3	1.937748E-2	1.334519E-2	5.034067E-3	1.667649E-2	1.310243E-2	2.083097E-2	1.751294E-2	7.498566E-3	2.501580E-2	1.559845E-2	9.657403E-3	-1.026862E-2	3.734547E-3	2.536644E-2	1.556582E-2	1.184079E-2	3.852802E-2	1.535484E-2	8.390417E-3	5.032804E-3	1.713129E-2	1.765016E-2	-5.752414E-3	2.128253E-2	1.569027E-2	5.702426E-3	2.849401E-2	2.457865E-2	3.601389E-2	9.056451E-3	2.901662E-2	4.060772E-3	2.987959E-2
5.336130E+2	2.522670E-2	8.703192E-3	1.163818E-2	1.271645E-2	1.740756E-3	2.074811E-2	7.575541E-3	5.019445E-3	-7.609792E-3	-4.440979E-3	6.024884E-3	-1.215709E-3	3.158016E-3	-1.246067E-3	4.011272E-3	1.248622E-2	4.160929E-3	1.123102E-2	2.632662E-2	7.381894E-3	-1.401418E-2	1.684526E-2	-8.660296E-4	5.736676E-3	1.721031E-3	-4.524146E-3	-1.829225E-2	2.108614E-2	-1.203123E-2	1.062658E-2	-8.112549E-3	8.558009E-3	4.032518E-3	2.454892E-2	2.133312E-2	1.930916E-2	-1.004726E-2	1.012653E-2	-5.577532E-3	-4.417216E-3	-4.108573E-3	5.525685E-3	2.670142E-2	8.551312E-5	1.161756E-2	-1.056401E-2	7.254131E-3	-2.753875E-3	7.467605E-3	1.271062E-2	1.307950E-2	1.022357E-2	7.230649E-3	1.993449E-2	3.316055E-3	-4.554058E-3	-6.943555E-3	2.706334E-2	8.182148E-4	-1.435618E-2	-1.994070E-2	-1.289077E-3	2.281981E-2	2.027502E-3	1.010147E-2	-4.202790E-3	5.038255E-3	6.330669E-3	1.488295E-2	-7.585824E-3	6.618361E-3	1.190159E-2	-1.517714E-2	9.413519E-3	2.991531E-2	-1.835532E-2	-3.941603E-3	1.051456E-2	1.962271E-2	-1.448259E-2	-1.483768E-2	3.815696E-2	3.550930E-2	1.391000E-2	1.216766E-2	-8.102668E-3	-1.295122E-2	-9.590881E-3	-2.925644E-3	-2.006825E-2	2.110526E-2	1.686434E-2	-3.827048E-2	-1.848402E-2	1.602021E-2	8.404870E-3	3.464759E-4	-7.375143E-3	2.513462E-2	1.239144E-2	4.362938E-3	3.938243E-3	3.049883E-3	-7.419600E-3	1.804421E-2	-3.948826E-3	1.066597E-2	5.437368E-3	1.141812E-2	-1.111472E-3	3.114640E-2	-1.027512E-2	2.427281E-3	4.507164E-3	5.889969E-3	5.406826E-4	-1.634426E-3	-3.699814E-4	7.015420E-3	5.151311E-3	1.139426E-2	-1.401068E-3	1.918656E-2	8.228494E-3	1.818782E-2	1.339478E-3	-3.127592E-3	5.753288E-3	9.459681E-3	6.837567E-3	3.003630E-2	-1.025706E-2	7.865153E-3	5.079477E-3	1.334534E-2	1.421888E-2	-1.014695E-2	7.971281E-3	2.856595E-2	-2.505978E-2	-2.141127E-2	1.612134E-2	2.326665E-2	1.615587E-2	1.007297E-2	1.685111E-2	2.536611E-2	6.671043E-3	-1.691473E-3	1.050783E-2	1.151613E-2	1.894879E-2	3.541623E-3	8.429749E-3	1.839742E-2	-1.366197E-2	3.116352E-2	9.414219E-3	1.425618E-2	1.527933E-2	5.273255E-3	1.670353E-2	-7.743920E-3	5.947360E-3	-1.624318E-2	6.105849E-2
5.338050E+2	2.542190E-3	1.373623E-2	3.426215E-2	4.249153E-2	4.672459E-3	4.511276E-2	2.085862E-2	1.756830E-2	3.203200E-2	3.963998E-2	2.048409E-2	1.563105E-3	3.071888E-2	4.128844E-2	5.385407E-2	4.366255E-2	1.407626E-2	2.263012E-2	4.050261E-2	3.297236E-2	4.001659E-2	2.348377E-2	3.308490E-2	3.094491E-2	2.237494E-2	3.102244E-2	3.758206E-2	2.321246E-2	3.471867E-2	2.479537E-2	2.073198E-2	3.223270E-2	3.331315E-3	3.429845E-2	4.679556E-2	2.374368E-2	1.851685E-2	3.782299E-2	3.977384E-2	3.741091E-2	2.003946E-2	1.254237E-2	2.881642E-2	3.437019E-2	2.591622E-2	4.155185E-2	2.823119E-2	1.862969E-2	3.768925E-2	7.251079E-3	3.773911E-2	5.213118E-2	3.513252E-2	2.270811E-2	2.848347E-2	5.429848E-2	3.489827E-2	2.089678E-2	5.681872E-2	8.163363E-3	2.676707E-2	4.133876E-2	3.610948E-2	2.027469E-2	3.479384E-2	3.161235E-2	4.021504E-2	2.559014E-2	1.562713E-2	4.020456E-2	4.114849E-2	1.556367E-2	2.035965E-2	3.303939E-2	3.066551E-2	3.296070E-2	2.832453E-2	3.081834E-2	5.116542E-2	2.591590E-2	2.276377E-2	3.892607E-2	4.382014E-2	3.675547E-2	2.252311E-2	2.235540E-2	2.864966E-2	5.179070E-2	7.713323E-3	3.497603E-2	3.645469E-2	3.581305E-2	5.894998E-3	2.625651E-2	4.878886E-2	3.916317E-2	3.152877E-2	4.811376E-2	4.043365E-2	1.885648E-2	5.375460E-2	1.293990E-2	3.677723E-2	4.345784E-2	1.873847E-2	2.922133E-2	2.742676E-2	9.787262E-3	3.195256E-2	4.334851E-2	4.099196E-2	2.046675E-2	4.773708E-2	1.438430E-3	3.053708E-2	-9.011875E-4	1.601719E-2	3.514819E-2	5.266233E-2	2.649275E-2	3.960868E-2	5.240011E-2	4.644272E-2	3.559503E-2	3.919629E-2	4.491719E-2	2.324586E-2	3.282776E-2	3.929377E-2	3.346775E-2	6.184916E-2	3.525341E-2	2.169450E-2	5.173573E-2	1.829447E-2	2.199055E-2	2.514661E-2	4.975244E-2	4.473875E-2	2.370514E-2	3.134910E-2	5.762920E-2	2.535812E-2	2.987505E-2	2.415544E-2	4.089811E-2	5.446015E-2	2.149566E-2	3.815357E-2	3.852875E-2	3.608398E-2	3.780354E-2	3.933094E-2	2.873390E-2	4.006287E-2	1.510006E-2	1.444177E-2	1.778212E-2	5.274759E-2	2.188644E-2	2.457859E-2	4.296580E-2	4.055711E-2	1.459832E-2	2.842587E-2	2.987997E-2
5.340070E+2	9.015144E-2	9.762216E-2	9.343201E-2	6.978525E-2	7.136943E-2	7.404579E-2	1.013874E-1	7.027312E-2	6.317929E-2	5.937753E-2	9.209191E-2	8.562034E-2	9.732525E-2	8.049974E-2	1.105244E-1	6.720369E-2	9.481527E-2	7.291882E-2	8.438034E-2	8.480963E-2	7.378601E-2	1.097842E-1	7.812138E-2	8.265368E-2	5.610990E-2	8.143401E-2	6.152868E-2	8.062294E-2	9.246896E-2	8.821781E-2	7.383241E-2	6.294524E-2	7.135760E-2	8.165539E-2	7.845094E-2	8.804636E-2	1.095230E-1	9.113906E-2	9.097767E-2	1.116925E-1	8.577528E-2	5.744959E-2	9.085543E-2	5.425529E-2	8.239538E-2	7.606077E-2	7.228216E-2	6.463634E-2	6.580279E-2	6.594172E-2	8.239287E-2	7.105739E-2	6.439552E-2	9.967210E-2	8.902190E-2	7.671831E-2	7.313308E-2	8.393040E-2	8.081849E-2	7.647258E-2	9.431355E-2	7.021569E-2	6.898379E-2	6.960997E-2	7.145803E-2	8.862461E-2	7.465841E-2	6.696257E-2	9.376236E-2	1.031666E-1	9.025892E-2	9.100162E-2	4.923343E-2	9.358110E-2	8.543278E-2	8.664498E-2	9.798983E-2	1.047835E-1	9.297858E-2	9.070681E-2	8.027153E-2	8.582936E-2	9.821800E-2	7.876154E-2	8.810719E-2	8.639554E-2	1.063569E-1	6.055929E-2	6.019902E-2	9.231380E-2	9.419698E-2	1.070601E-1	7.925456E-2	9.677996E-2	8.519825E-2	6.634507E-2	8.834943E-2	9.447228E-2	9.070300E-2	6.985865E-2	6.165719E-2	8.120212E-2	1.035152E-1	6.960295E-2	5.205109E-2	8.687497E-2	1.036121E-1	8.373573E-2	1.055949E-1	7.076505E-2	9.855084E-2	4.252078E-2	8.225878E-2	8.889771E-2	1.066532E-1	7.191518E-2	7.027916E-2	8.250595E-2	1.147722E-1	8.168589E-2	6.420610E-2	8.228953E-2	8.947820E-2	9.254732E-2	9.444072E-2	1.063552E-1	8.004981E-2	8.494587E-2	6.694525E-2	7.809187E-2	9.027753E-2	8.076389E-2	6.387326E-2	8.183627E-2	6.000919E-2	7.498048E-2	8.373447E-2	1.223199E-1	8.622494E-2	8.330678E-2	8.121790E-2	1.028434E-1	1.104082E-1	9.558152E-2	8.126824E-2	1.152247E-1	1.053752E-1	1.000659E-1	8.175746E-2	9.229809E-2	1.021094E-1	6.118296E-2	7.362882E-2	9.254563E-2	4.828085E-2	6.040033E-2	9.197086E-2	8.542458E-2	9.195220E-2	7.540564E-2	7.105501E-2	9.935234E-2	8.675805E-2	8.524732E-2	7.715562E-2	1.182195E-1
5.342040E+2	1.065780E-1	1.202709E-1	9.343181E-2	7.722911E-2	8.676118E-2	1.022177E-1	9.391577E-2	8.533166E-2	8.299994E-2	8.240522E-2	7.900984E-2	1.029876E-1	1.126367E-1	9.977316E-2	1.207657E-1	9.201732E-2	7.640107E-2	9.303473E-2	1.262331E-1	1.176176E-1	9.472289E-2	8.920488E-2	1.058369E-1	1.033372E-1	1.008600E-1	1.040549E-1	1.147424E-1	8.274962E-2	1.048441E-1	9.766369E-2	1.085769E-1	8.981897E-2	7.696796E-2	7.469089E-2	1.245588E-1	1.139152E-1	8.693766E-2	8.906134E-2	1.048756E-1	8.933582E-2	6.967673E-2	8.481458E-2	9.790528E-2	1.104825E-1	1.081324E-1	8.451162E-2	1.058443E-1	9.120386E-2	1.114870E-1	7.003582E-2	1.043859E-1	1.014745E-1	8.753357E-2	8.372448E-2	8.494082E-2	9.213192E-2	5.437610E-2	1.092805E-1	8.663656E-2	5.320246E-2	6.916331E-2	1.121561E-1	9.696193E-2	8.109874E-2	1.208430E-1	1.127449E-1	9.737732E-2	8.194182E-2	9.227395E-2	8.647778E-2	9.025866E-2	1.005229E-1	9.143303E-2	9.358116E-2	1.116907E-1	1.071715E-1	8.772334E-2	1.047838E-1	9.958084E-2	8.994404E-2	7.879742E-2	9.351853E-2	1.276829E-1	7.728774E-2	7.775218E-2	9.264330E-2	9.301297E-2	9.417307E-2	7.793049E-2	1.114261E-1	1.161248E-1	1.047867E-1	7.251723E-2	9.905475E-2	1.012186E-1	1.085486E-1	9.527888E-2	1.134368E-1	1.220301E-1	9.787421E-2	9.129275E-2	9.770485E-2	1.106911E-1	7.101622E-2	8.258782E-2	8.845464E-2	1.043736E-1	5.981078E-2	9.143284E-2	1.063331E-1	1.083971E-1	8.194993E-2	9.520456E-2	8.889758E-2	8.635527E-2	8.633452E-2	7.943153E-2	1.098845E-1	1.072893E-1	8.904477E-2	8.952644E-2	9.125636E-2	1.167339E-1	8.884871E-2	1.535754E-1	9.278213E-2	9.086976E-2	8.900707E-2	1.106050E-1	7.233394E-2	1.200599E-1	8.352197E-2	1.053608E-1	1.126889E-1	9.818917E-2	9.688261E-2	7.526382E-2	9.299953E-2	1.431813E-1	1.111719E-1	9.928670E-2	9.320789E-2	1.187734E-1	1.020803E-1	1.086510E-1	1.079381E-1	9.882875E-2	1.000655E-1	9.378640E-2	1.294066E-1	1.021092E-1	7.928386E-2	7.810269E-2	9.109568E-2	1.073016E-1	8.125261E-2	1.200940E-1	9.518786E-2	1.275928E-1	7.672708E-2	9.107562E-2	8.158654E-2	8.570817E-2	7.082925E-2	7.918609E-2	1.078262E-1
5.344070E+2	7.607122E-2	8.923328E-2	1.256271E-1	1.243727E-1	1.080169E-1	1.113547E-1	8.810424E-2	1.372002E-1	1.226416E-1	1.034588E-1	1.189453E-1	1.300802E-1	1.440252E-1	1.197107E-1	1.248629E-1	1.473713E-1	1.330604E-1	1.151616E-1	1.100317E-1	1.103999E-1	1.008013E-1	1.184140E-1	1.377092E-1	1.285451E-1	1.180714E-1	1.072859E-1	1.174030E-1	1.302378E-1	1.185938E-1	1.084587E-1	1.184102E-1	1.314096E-1	1.127342E-1	1.171724E-1	1.252465E-1	1.309145E-1	1.128450E-1	1.056794E-1	1.260885E-1	8.789357E-2	1.079109E-1	1.381419E-1	1.190548E-1	1.324242E-1	1.188567E-1	1.162036E-1	1.142351E-1	1.035154E-1	1.079725E-1	1.232672E-1	1.123839E-1	1.454104E-1	1.106718E-1	1.225536E-1	1.339155E-1	1.348700E-1	1.106465E-1	1.147618E-1	1.448191E-1	1.162572E-1	9.934405E-2	1.410328E-1	1.354324E-1	1.561152E-1	1.163532E-1	1.229782E-1	1.310884E-1	1.497067E-1	1.428760E-1	1.213727E-1	1.432050E-1	1.378759E-1	1.254890E-1	1.312353E-1	1.244450E-1	1.284873E-1	1.405224E-1	1.323392E-1	1.465284E-1	1.189098E-1	1.274575E-1	1.219679E-1	1.488374E-1	1.355070E-1	1.233162E-1	1.332538E-1	1.212708E-1	1.387487E-1	1.027550E-1	1.053100E-1	1.139317E-1	9.038496E-2	1.024598E-1	1.180126E-1	1.485512E-1	1.235698E-1	1.146810E-1	1.092224E-1	1.278585E-1	1.258899E-1	9.853697E-2	1.232097E-1	1.236081E-1	1.367329E-1	9.785645E-2	1.105677E-1	1.173251E-1	1.047599E-1	1.445400E-1	1.241173E-1	1.386913E-1	8.261848E-2	1.074309E-1	1.341613E-1	1.284013E-1	1.187773E-1	9.642977E-2	1.232035E-1	1.439564E-1	1.361424E-1	9.024955E-2	8.378383E-2	1.475759E-1	1.073395E-1	1.364573E-1	1.185006E-1	1.300917E-1	9.983669E-2	1.266136E-1	1.248751E-1	1.200599E-1	1.173099E-1	1.205730E-1	1.390280E-1	1.476810E-1	1.230245E-1	1.077341E-1	1.245192E-1	1.291181E-1	1.073017E-1	1.296418E-1	1.436100E-1	1.452644E-1	9.919195E-2	8.596217E-2	1.188687E-1	1.366510E-1	1.163728E-1	1.163403E-1	1.589419E-1	1.082511E-1	1.335848E-1	1.295499E-1	1.005223E-1	1.267263E-1	9.851010E-2	1.238946E-1	1.363306E-1	1.325823E-1	1.117456E-1	1.339767E-1	1.287039E-1	1.350595E-1	1.198509E-1	4.263863E-2	1.857732E-1
5.346150E+2	1.855829E-1	1.815079E-1	2.169933E-1	1.599376E-1	1.820433E-1	1.654137E-1	1.893884E-1	2.066368E-1	1.891831E-1	1.685936E-1	2.098323E-1	2.162217E-1	1.976164E-1	1.868350E-1	2.013338E-1	1.989074E-1	1.904279E-1	1.909302E-1	2.092629E-1	1.812659E-1	1.555070E-1	1.867910E-1	2.180824E-1	1.724981E-1	1.814100E-1	2.190958E-1	1.779338E-1	1.798519E-1	1.687816E-1	2.076405E-1	1.996999E-1	1.934754E-1	1.947868E-1	2.028322E-1	1.940630E-1	1.678698E-1	1.673158E-1	1.956934E-1	1.824113E-1	1.665017E-1	1.702940E-1	1.984858E-1	1.951935E-1	1.968792E-1	1.810558E-1	1.873341E-1	1.925477E-1	2.175606E-1	1.705247E-1	1.771802E-1	1.816973E-1	2.048926E-1	1.746417E-1	2.133854E-1	2.026171E-1	2.119387E-1	1.842299E-1	2.106820E-1	1.950011E-1	2.078369E-1	2.035385E-1	1.960372E-1	1.997821E-1	2.128843E-1	2.031509E-1	2.106896E-1	2.029068E-1	2.196111E-1	1.793393E-1	2.070921E-1	2.191720E-1	1.964679E-1	1.669493E-1	1.792256E-1	2.077210E-1	2.129616E-1	1.757218E-1	2.019534E-1	2.499601E-1	2.271476E-1	2.107709E-1	1.996274E-1	2.062570E-1	2.320473E-1	1.889008E-1	1.941706E-1	1.942679E-1	2.461665E-1	1.616240E-1	2.031667E-1	2.191842E-1	2.268164E-1	1.758201E-1	1.930859E-1	1.987964E-1	2.215674E-1	1.666514E-1	2.096646E-1	2.072692E-1	2.092168E-1	1.663687E-1	1.922219E-1	2.090035E-1	1.600522E-1	1.797502E-1	1.974430E-1	2.011291E-1	1.874078E-1	2.082692E-1	2.211876E-1	1.970074E-1	2.376641E-1	1.728784E-1	1.817279E-1	2.342385E-1	2.175484E-1	1.794574E-1	2.060791E-1	1.813721E-1	2.538886E-1	1.821277E-1	2.145512E-1	2.171505E-1	2.012746E-1	1.839210E-1	2.263738E-1	1.726951E-1	1.803830E-1	1.928320E-1	2.047664E-1	2.087299E-1	2.235014E-1	1.869532E-1	2.044971E-1	1.823256E-1	2.078075E-1	1.507928E-1	2.256726E-1	2.430308E-1	1.808364E-1	1.831248E-1	2.184728E-1	2.052177E-1	1.872827E-1	2.220939E-1	2.201573E-1	1.882934E-1	1.860484E-1	1.719730E-1	2.248283E-1	1.880970E-1	1.991991E-1	1.765232E-1	1.969660E-1	1.939655E-1	1.718530E-1	2.006639E-1	2.046704E-1	1.874686E-1	1.626219E-1	1.876033E-1	1.742768E-1	1.739101E-1	2.078017E-1	1.360376E-1	2.429338E-1
5.348180E+2	3.975654E-1	3.819948E-1	4.449718E-1	3.741527E-1	3.491523E-1	3.938332E-1	4.558808E-1	4.141106E-1	3.668638E-1	3.870255E-1	4.239678E-1	4.030928E-1	4.234642E-1	3.875438E-1	4.355260E-1	4.101418E-1	3.929840E-1	3.894035E-1	4.387773E-1	3.997687E-1	3.689289E-1	4.397183E-1	4.709815E-1	3.993712E-1	3.645413E-1	4.155717E-1	4.267091E-1	4.123307E-1	4.424067E-1	4.323176E-1	4.357012E-1	4.103845E-1	3.855414E-1	4.305611E-1	3.550945E-1	4.398622E-1	3.792213E-1	3.999548E-1	4.003921E-1	4.297319E-1	3.976870E-1	3.837277E-1	4.088049E-1	3.923016E-1	3.969642E-1	4.352349E-1	4.386738E-1	4.411146E-1	4.411155E-1	3.839622E-1	3.989674E-1	4.157836E-1	3.747185E-1	3.804878E-1	4.243644E-1	4.522527E-1	3.357258E-1	3.751167E-1	3.913665E-1	4.067594E-1	4.183947E-1	4.160514E-1	4.040238E-1	3.872463E-1	3.879695E-1	4.138866E-1	4.681979E-1	4.286120E-1	4.211865E-1	3.724620E-1	4.723940E-1	4.147261E-1	3.897942E-1	4.169625E-1	4.245379E-1	4.198047E-1	4.272513E-1	4.564787E-1	4.619586E-1	4.703025E-1	3.943542E-1	4.502913E-1	4.472687E-1	4.214443E-1	3.925579E-1	4.370539E-1	4.226809E-1	3.952359E-1	3.573815E-1	4.371049E-1	4.004517E-1	4.269148E-1	4.108691E-1	4.349881E-1	4.733236E-1	4.497518E-1	3.793829E-1	4.126578E-1	4.491435E-1	4.268743E-1	4.054250E-1	3.925078E-1	3.912762E-1	3.550817E-1	3.449261E-1	4.533286E-1	4.045439E-1	3.969277E-1	4.270707E-1	4.138465E-1	3.825605E-1	4.401580E-1	4.267566E-1	4.065132E-1	3.929955E-1	4.201361E-1	3.768935E-1	4.125283E-1	4.724658E-1	4.187315E-1	4.476322E-1	4.267678E-1	4.022030E-1	4.209467E-1	4.360227E-1	4.656959E-1	3.904445E-1	3.996855E-1	4.162256E-1	4.098925E-1	4.084073E-1	3.862359E-1	4.068365E-1	3.805858E-1	4.071617E-1	4.006904E-1	3.569082E-1	4.206520E-1	4.335877E-1	4.115021E-1	4.006702E-1	4.326838E-1	4.115682E-1	4.277256E-1	4.043848E-1	4.256491E-1	4.414106E-1	4.373244E-1	3.719509E-1	4.149144E-1	4.130444E-1	4.247005E-1	3.845483E-1	4.058050E-1	3.762569E-1	3.810970E-1	4.134888E-1	4.327024E-1	4.134291E-1	4.103947E-1	3.835184E-1	3.897815E-1	4.353672E-1	4.341673E-1	4.060819E-1	3.468629E-1
5.350100E+2	7.886782E-1	8.022622E-1	8.234857E-1	7.306272E-1	7.009620E-1	7.623501E-1	7.439589E-1	7.579479E-1	6.974484E-1	7.475688E-1	8.212558E-1	8.435252E-1	8.246305E-1	7.956068E-1	8.458749E-1	8.027062E-1	8.115529E-1	7.903735E-1	8.924052E-1	7.888751E-1	7.620028E-1	7.736347E-1	8.624568E-1	8.162748E-1	7.005110E-1	7.374298E-1	8.151708E-1	8.021573E-1	8.184692E-1	8.054300E-1	7.628256E-1	8.435632E-1	7.621412E-1	7.731994E-1	8.072211E-1	8.101554E-1	7.571975E-1	7.724727E-1	8.078249E-1	7.650805E-1	7.216723E-1	6.945691E-1	8.635219E-1	8.332015E-1	8.252075E-1	8.352567E-1	8.029680E-1	8.869267E-1	7.623097E-1	7.695453E-1	7.515320E-1	8.145838E-1	7.830382E-1	7.944310E-1	7.658279E-1	8.298883E-1	7.404368E-1	7.793524E-1	8.342775E-1	7.790832E-1	8.028360E-1	7.818261E-1	8.607695E-1	7.386740E-1	8.182157E-1	8.392855E-1	8.639343E-1	8.237881E-1	7.620057E-1	7.767847E-1	8.783168E-1	8.336624E-1	7.769985E-1	8.126984E-1	8.799292E-1	8.082274E-1	8.071116E-1	7.951219E-1	9.079625E-1	7.988279E-1	7.917500E-1	7.786147E-1	8.998260E-1	8.348740E-1	7.660437E-1	8.189522E-1	8.371198E-1	9.476715E-1	7.219446E-1	8.270010E-1	8.353485E-1	8.043735E-1	7.911413E-1	8.247617E-1	8.585365E-1	8.009693E-1	7.598056E-1	7.631528E-1	8.440118E-1	7.738339E-1	7.498503E-1	8.643426E-1	7.651505E-1	7.783537E-1	7.203890E-1	8.679594E-1	7.869944E-1	8.297418E-1	7.648333E-1	7.865683E-1	7.869890E-1	8.591817E-1	8.115298E-1	7.893387E-1	7.808255E-1	8.527089E-1	7.005052E-1	8.320868E-1	8.855330E-1	8.374629E-1	7.362874E-1	8.467159E-1	8.010000E-1	7.855872E-1	8.647508E-1	7.986038E-1	7.508809E-1	7.800804E-1	7.647773E-1	8.028705E-1	7.908393E-1	8.344456E-1	7.020893E-1	8.847727E-1	7.684549E-1	7.935206E-1	6.872579E-1	8.457931E-1	7.746210E-1	8.271638E-1	7.728824E-1	8.336805E-1	8.765541E-1	8.768421E-1	7.893093E-1	8.060291E-1	8.007225E-1	8.353646E-1	7.666428E-1	8.011461E-1	8.537280E-1	8.719309E-1	7.454245E-1	8.198595E-1	8.289974E-1	7.938318E-1	8.231777E-1	8.057820E-1	7.876541E-1	7.737954E-1	7.896497E-1	7.945276E-1	8.291261E-1	7.902957E-1	7.756181E-1	9.548493E-1
5.352080E+2	1.146154E+0	1.131933E+0	1.254209E+0	1.109432E+0	1.085754E+0	1.047114E+0	1.271963E+0	1.126881E+0	1.131384E+0	1.041004E+0	1.181361E+0	1.120705E+0	1.231921E+0	1.167117E+0	1.215940E+0	1.129102E+0	1.116804E+0	1.086072E+0	1.214400E+0	1.052654E+0	1.134139E+0	1.094938E+0	1.243538E+0	1.140103E+0	1.112900E+0	1.074799E+0	1.147092E+0	1.100552E+0	1.190407E+0	1.144132E+0	1.143050E+0	1.151332E+0	1.153469E+0	1.138819E+0	1.211864E+0	1.127973E+0	1.129860E+0	1.105524E+0	1.149424E+0	1.085283E+0	9.805927E-1	1.128906E+0	1.187111E+0	1.182904E+0	1.175523E+0	1.114146E+0	1.195928E+0	1.210919E+0	1.068042E+0	1.123735E+0	1.106095E+0	1.099828E+0	1.148485E+0	1.132796E+0	1.164429E+0	1.195614E+0	1.075892E+0	1.121925E+0	1.160825E+0	1.087601E+0	1.156380E+0	1.212231E+0	1.144049E+0	1.088075E+0	1.126497E+0	1.197440E+0	1.228892E+0	1.180445E+0	1.127381E+0	1.150763E+0	1.316468E+0	1.216711E+0	1.029458E+0	1.091042E+0	1.164268E+0	1.221124E+0	1.166439E+0	1.226584E+0	1.259337E+0	1.219585E+0	1.187672E+0	1.193825E+0	1.224700E+0	1.206298E+0	1.087753E+0	1.235994E+0	1.249204E+0	1.226812E+0	1.029056E+0	1.254359E+0	1.144527E+0	1.173495E+0	1.172161E+0	1.227427E+0	1.207340E+0	1.223718E+0	1.063311E+0	1.108028E+0	1.158012E+0	1.112173E+0	1.070568E+0	1.161396E+0	1.092381E+0	1.145095E+0	1.038248E+0	1.277851E+0	1.139732E+0	1.150909E+0	1.120298E+0	1.165218E+0	1.157337E+0	1.154571E+0	1.068285E+0	1.185975E+0	1.181704E+0	1.133161E+0	9.992742E-1	1.145830E+0	1.163905E+0	1.201002E+0	1.009027E+0	1.207633E+0	1.152458E+0	1.101412E+0	1.181433E+0	1.225097E+0	1.078857E+0	1.121218E+0	1.155535E+0	1.163461E+0	1.108292E+0	1.120611E+0	1.127336E+0	1.240714E+0	1.120556E+0	1.056350E+0	1.037372E+0	1.160251E+0	1.136749E+0	1.199480E+0	1.057643E+0	1.237641E+0	1.208388E+0	1.185158E+0	1.154674E+0	1.099694E+0	1.176035E+0	1.140010E+0	1.099688E+0	1.172231E+0	1.223012E+0	1.160030E+0	1.059325E+0	1.167201E+0	1.097953E+0	1.181401E+0	1.134055E+0	1.192808E+0	1.102003E+0	1.125964E+0	1.107118E+0	1.111219E+0	1.178784E+0	1.140657E+0	1.130940E+0	1.147116E+0
5.354110E+2	1.463738E+0	1.311448E+0	1.538746E+0	1.287256E+0	1.367934E+0	1.197871E+0	1.359133E+0	1.345232E+0	1.454889E+0	1.297595E+0	1.460218E+0	1.387467E+0	1.427911E+0	1.414350E+0	1.403704E+0	1.344152E+0	1.448968E+0	1.334835E+0	1.474965E+0	1.290842E+0	1.503574E+0	1.382385E+0	1.466646E+0	1.338536E+0	1.432348E+0	1.271920E+0	1.408503E+0	1.336574E+0	1.400783E+0	1.317531E+0	1.350863E+0	1.359284E+0	1.337210E+0	1.317799E+0	1.377025E+0	1.371878E+0	1.404871E+0	1.304938E+0	1.406905E+0	1.414862E+0	1.301223E+0	1.319760E+0	1.428218E+0	1.387241E+0	1.374274E+0	1.349370E+0	1.407093E+0	1.407256E+0	1.396967E+0	1.310726E+0	1.350025E+0	1.412109E+0	1.394838E+0	1.418467E+0	1.361009E+0	1.419114E+0	1.460404E+0	1.265121E+0	1.459735E+0	1.330061E+0	1.424411E+0	1.434996E+0	1.340596E+0	1.340157E+0	1.323288E+0	1.334853E+0	1.459007E+0	1.371612E+0	1.390065E+0	1.339649E+0	1.477610E+0	1.411531E+0	1.374461E+0	1.412208E+0	1.459860E+0	1.502178E+0	1.413568E+0	1.468057E+0	1.469135E+0	1.521432E+0	1.413280E+0	1.443719E+0	1.482333E+0	1.519503E+0	1.323167E+0	1.492155E+0	1.481541E+0	1.453339E+0	1.253894E+0	1.394263E+0	1.384999E+0	1.387236E+0	1.414698E+0	1.429897E+0	1.446915E+0	1.364634E+0	1.382062E+0	1.288544E+0	1.356174E+0	1.278110E+0	1.294478E+0	1.370683E+0	1.339238E+0	1.338005E+0	1.243677E+0	1.498197E+0	1.362194E+0	1.336504E+0	1.383712E+0	1.398632E+0	1.284573E+0	1.391148E+0	1.295552E+0	1.357057E+0	1.343361E+0	1.342958E+0	1.162060E+0	1.377438E+0	1.387649E+0	1.524064E+0	1.318662E+0	1.413871E+0	1.369070E+0	1.304814E+0	1.493448E+0	1.367262E+0	1.326361E+0	1.360826E+0	1.374563E+0	1.335479E+0	1.331659E+0	1.290241E+0	1.255947E+0	1.397990E+0	1.372260E+0	1.353799E+0	1.191253E+0	1.454183E+0	1.410982E+0	1.493618E+0	1.406727E+0	1.339188E+0	1.430774E+0	1.486979E+0	1.420678E+0	1.360567E+0	1.330234E+0	1.460962E+0	1.335000E+0	1.406998E+0	1.477134E+0	1.388547E+0	1.278534E+0	1.410122E+0	1.372884E+0	1.312267E+0	1.315716E+0	1.366448E+0	1.286621E+0	1.330790E+0	1.297313E+0	1.346034E+0	1.259636E+0	1.398742E+0	1.228399E+0	1.188686E+0
5.356150E+2	1.607667E+0	1.479220E+0	1.606618E+0	1.431996E+0	1.436829E+0	1.354718E+0	1.492795E+0	1.468210E+0	1.441441E+0	1.336413E+0	1.476057E+0	1.516678E+0	1.604761E+0	1.504731E+0	1.504755E+0	1.440227E+0	1.549537E+0	1.381099E+0	1.560021E+0	1.419449E+0	1.586646E+0	1.458064E+0	1.576119E+0	1.497541E+0	1.561089E+0	1.372743E+0	1.435775E+0	1.425880E+0	1.501845E+0	1.432231E+0	1.436087E+0	1.397674E+0	1.492898E+0	1.493993E+0	1.441712E+0	1.422877E+0	1.483257E+0	1.444805E+0	1.580266E+0	1.468229E+0	1.426659E+0	1.390630E+0	1.470517E+0	1.486667E+0	1.526553E+0	1.394442E+0	1.468623E+0	1.565366E+0	1.522073E+0	1.377605E+0	1.355356E+0	1.451989E+0	1.513251E+0	1.480868E+0	1.522218E+0	1.477967E+0	1.544088E+0	1.432981E+0	1.567375E+0	1.375100E+0	1.536511E+0	1.563565E+0	1.523854E+0	1.432745E+0	1.468448E+0	1.459843E+0	1.528626E+0	1.482889E+0	1.474154E+0	1.476952E+0	1.732366E+0	1.464997E+0	1.464044E+0	1.529601E+0	1.584398E+0	1.546387E+0	1.503033E+0	1.545646E+0	1.582105E+0	1.495516E+0	1.464891E+0	1.516765E+0	1.481578E+0	1.597618E+0	1.450193E+0	1.546042E+0	1.549830E+0	1.570988E+0	1.485824E+0	1.524229E+0	1.493175E+0	1.454694E+0	1.378766E+0	1.454164E+0	1.463664E+0	1.519140E+0	1.478382E+0	1.378450E+0	1.488769E+0	1.430398E+0	1.462409E+0	1.475702E+0	1.367225E+0	1.425628E+0	1.442164E+0	1.522680E+0	1.477995E+0	1.446702E+0	1.455933E+0	1.546831E+0	1.424684E+0	1.490057E+0	1.409186E+0	1.450654E+0	1.415128E+0	1.463357E+0	1.420297E+0	1.471413E+0	1.505135E+0	1.588826E+0	1.481437E+0	1.558836E+0	1.482397E+0	1.461616E+0	1.581372E+0	1.480137E+0	1.444704E+0	1.412268E+0	1.488806E+0	1.475110E+0	1.410853E+0	1.416429E+0	1.388015E+0	1.503343E+0	1.369432E+0	1.474616E+0	1.347957E+0	1.468845E+0	1.498878E+0	1.511420E+0	1.438528E+0	1.522270E+0	1.531855E+0	1.571457E+0	1.505956E+0	1.448740E+0	1.448064E+0	1.520260E+0	1.366576E+0	1.511508E+0	1.533180E+0	1.516758E+0	1.311342E+0	1.407948E+0	1.466272E+0	1.361882E+0	1.480657E+0	1.450825E+0	1.417777E+0	1.382327E+0	1.403851E+0	1.394697E+0	1.378289E+0	1.512646E+0	1.226370E+0	1.282224E+0
5.358130E+2	1.658512E+0	1.588272E+0	1.691893E+0	1.504780E+0	1.494732E+0	1.412584E+0	1.627287E+0	1.690741E+0	1.538423E+0	1.462077E+0	1.706029E+0	1.553498E+0	1.711944E+0	1.623698E+0	1.567570E+0	1.603108E+0	1.621777E+0	1.530626E+0	1.583650E+0	1.494255E+0	1.679848E+0	1.530426E+0	1.698757E+0	1.510467E+0	1.646457E+0	1.454822E+0	1.527571E+0	1.566925E+0	1.621473E+0	1.486210E+0	1.539010E+0	1.568515E+0	1.527966E+0	1.567812E+0	1.581408E+0	1.618743E+0	1.645342E+0	1.493965E+0	1.594165E+0	1.542511E+0	1.505139E+0	1.481145E+0	1.574148E+0	1.518206E+0	1.693137E+0	1.494448E+0	1.651123E+0	1.674228E+0	1.670369E+0	1.558455E+0	1.487984E+0	1.555405E+0	1.665008E+0	1.490575E+0	1.587518E+0	1.565543E+0	1.642919E+0	1.533695E+0	1.639374E+0	1.538743E+0	1.672323E+0	1.556003E+0	1.560925E+0	1.427338E+0	1.551504E+0	1.569478E+0	1.676663E+0	1.554220E+0	1.587264E+0	1.561913E+0	1.780707E+0	1.617337E+0	1.602489E+0	1.540675E+0	1.647418E+0	1.707440E+0	1.680500E+0	1.675453E+0	1.754488E+0	1.628910E+0	1.588018E+0	1.628255E+0	1.644016E+0	1.599831E+0	1.647638E+0	1.606177E+0	1.590645E+0	1.786551E+0	1.531928E+0	1.632788E+0	1.558959E+0	1.560049E+0	1.552433E+0	1.608858E+0	1.618041E+0	1.619285E+0	1.620431E+0	1.519632E+0	1.583478E+0	1.522347E+0	1.598071E+0	1.567218E+0	1.461231E+0	1.482865E+0	1.567784E+0	1.722492E+0	1.519135E+0	1.524274E+0	1.598263E+0	1.586103E+0	1.582972E+0	1.590301E+0	1.515628E+0	1.558061E+0	1.517341E+0	1.602502E+0	1.498095E+0	1.603868E+0	1.595681E+0	1.671248E+0	1.633363E+0	1.594704E+0	1.511805E+0	1.517089E+0	1.670852E+0	1.618016E+0	1.490686E+0	1.479956E+0	1.691097E+0	1.498141E+0	1.569240E+0	1.483316E+0	1.609284E+0	1.626000E+0	1.503061E+0	1.454832E+0	1.506071E+0	1.565602E+0	1.584665E+0	1.664682E+0	1.619213E+0	1.617883E+0	1.570894E+0	1.634995E+0	1.728931E+0	1.458213E+0	1.616810E+0	1.546203E+0	1.704130E+0	1.535742E+0	1.624539E+0	1.593686E+0	1.611077E+0	1.546448E+0	1.535752E+0	1.518635E+0	1.521700E+0	1.533111E+0	1.528976E+0	1.537596E+0	1.537558E+0	1.519828E+0	1.628195E+0	1.633759E+0	1.484229E+0	1.547245E+0
5.360120E+2	1.803224E+0	1.712422E+0	1.844171E+0	1.646211E+0	1.658179E+0	1.532124E+0	1.706985E+0	1.766035E+0	1.735921E+0	1.619321E+0	1.756291E+0	1.795248E+0	1.866594E+0	1.733355E+0	1.744411E+0	1.657188E+0	1.752804E+0	1.563482E+0	1.782787E+0	1.635329E+0	1.821681E+0	1.633985E+0	1.736172E+0	1.725061E+0	1.777266E+0	1.587314E+0	1.649298E+0	1.653394E+0	1.753470E+0	1.725728E+0	1.595388E+0	1.619063E+0	1.620538E+0	1.633275E+0	1.735559E+0	1.680086E+0	1.710441E+0	1.625522E+0	1.809951E+0	1.737226E+0	1.628563E+0	1.593413E+0	1.658748E+0	1.767115E+0	1.675974E+0	1.681780E+0	1.823831E+0	1.780495E+0	1.704808E+0	1.688120E+0	1.675265E+0	1.625705E+0	1.769810E+0	1.658371E+0	1.735124E+0	1.691658E+0	1.746802E+0	1.639210E+0	1.802283E+0	1.649838E+0	1.747772E+0	1.712763E+0	1.676336E+0	1.587510E+0	1.671223E+0	1.652075E+0	1.779260E+0	1.672630E+0	1.695905E+0	1.714386E+0	1.875858E+0	1.714746E+0	1.651350E+0	1.694245E+0	1.806467E+0	1.814024E+0	1.739896E+0	1.835707E+0	1.816842E+0	1.803462E+0	1.740635E+0	1.755125E+0	1.728635E+0	1.772278E+0	1.746357E+0	1.719420E+0	1.742134E+0	1.846475E+0	1.629094E+0	1.781866E+0	1.662750E+0	1.751050E+0	1.648999E+0	1.828013E+0	1.756396E+0	1.695821E+0	1.728533E+0	1.597596E+0	1.717529E+0	1.598491E+0	1.767324E+0	1.782506E+0	1.609060E+0	1.593097E+0	1.743371E+0	1.731966E+0	1.693600E+0	1.574297E+0	1.750502E+0	1.765426E+0	1.549647E+0	1.663814E+0	1.682484E+0	1.643219E+0	1.560111E+0	1.701272E+0	1.637998E+0	1.660842E+0	1.664528E+0	1.768387E+0	1.713662E+0	1.707534E+0	1.720530E+0	1.631733E+0	1.842809E+0	1.728749E+0	1.639460E+0	1.629540E+0	1.755859E+0	1.770921E+0	1.538107E+0	1.623985E+0	1.730286E+0	1.727594E+0	1.604872E+0	1.613095E+0	1.568191E+0	1.678483E+0	1.711234E+0	1.711899E+0	1.632948E+0	1.689039E+0	1.739600E+0	1.795293E+0	1.782916E+0	1.608323E+0	1.685905E+0	1.722615E+0	1.780061E+0	1.762940E+0	1.818780E+0	1.746786E+0	1.683401E+0	1.631291E+0	1.704597E+0	1.640155E+0	1.666119E+0	1.660028E+0	1.657995E+0	1.665120E+0	1.637661E+0	1.590890E+0	1.656545E+0	1.773615E+0	1.715697E+0	1.859033E+0
5.362050E+2	1.789143E+0	1.769463E+0	1.884197E+0	1.668542E+0	1.688959E+0	1.551159E+0	1.758457E+0	1.714166E+0	1.712561E+0	1.554846E+0	1.712913E+0	1.766072E+0	1.858172E+0	1.671548E+0	1.794935E+0	1.728446E+0	1.757054E+0	1.603713E+0	1.816539E+0	1.679292E+0	1.912178E+0	1.661867E+0	1.840103E+0	1.649436E+0	1.828899E+0	1.532378E+0	1.761047E+0	1.689544E+0	1.766532E+0	1.762162E+0	1.618987E+0	1.702883E+0	1.680147E+0	1.627703E+0	1.704593E+0	1.742909E+0	1.768237E+0	1.626910E+0	1.832624E+0	1.755982E+0	1.656737E+0	1.580083E+0	1.744759E+0	1.750657E+0	1.771059E+0	1.684601E+0	1.735729E+0	1.851125E+0	1.756817E+0	1.622605E+0	1.527974E+0	1.718980E+0	1.733741E+0	1.743657E+0	1.671864E+0	1.757512E+0	1.748247E+0	1.642633E+0	1.766648E+0	1.665603E+0	1.762146E+0	1.806956E+0	1.702911E+0	1.565884E+0	1.689930E+0	1.689353E+0	1.850348E+0	1.691890E+0	1.661679E+0	1.769764E+0	1.866651E+0	1.681792E+0	1.665419E+0	1.644040E+0	1.809470E+0	1.729546E+0	1.742098E+0	1.755940E+0	1.813906E+0	1.853008E+0	1.791507E+0	1.760508E+0	1.744499E+0	1.801754E+0	1.692511E+0	1.771745E+0	1.763327E+0	1.837707E+0	1.665269E+0	1.749758E+0	1.710990E+0	1.697997E+0	1.695408E+0	1.743081E+0	1.789894E+0	1.715138E+0	1.695269E+0	1.622885E+0	1.710969E+0	1.615013E+0	1.721222E+0	1.699244E+0	1.666470E+0	1.592391E+0	1.665637E+0	1.801468E+0	1.650934E+0	1.646799E+0	1.703062E+0	1.730598E+0	1.614023E+0	1.769408E+0	1.693273E+0	1.663166E+0	1.670299E+0	1.710647E+0	1.652379E+0	1.753340E+0	1.744596E+0	1.861111E+0	1.758517E+0	1.706041E+0	1.650237E+0	1.600666E+0	1.796123E+0	1.728032E+0	1.598886E+0	1.633599E+0	1.745672E+0	1.757968E+0	1.586160E+0	1.628811E+0	1.714383E+0	1.748665E+0	1.685476E+0	1.651249E+0	1.611250E+0	1.666755E+0	1.729519E+0	1.806334E+0	1.638727E+0	1.760199E+0	1.839988E+0	1.827786E+0	1.804038E+0	1.640384E+0	1.727368E+0	1.753008E+0	1.776304E+0	1.760665E+0	1.774250E+0	1.785250E+0	1.702789E+0	1.741511E+0	1.694885E+0	1.607080E+0	1.729965E+0	1.701868E+0	1.590280E+0	1.624153E+0	1.675557E+0	1.628740E+0	1.629245E+0	1.661152E+0	1.697425E+0	1.760296E+0
5.364090E+2	1.452004E+0	1.537101E+0	1.555279E+0	1.325302E+0	1.356941E+0	1.358526E+0	1.342530E+0	1.482431E+0	1.429404E+0	1.444313E+0	1.446449E+0	1.406221E+0	1.488391E+0	1.508722E+0	1.491098E+0	1.410960E+0	1.493589E+0	1.375737E+0	1.404087E+0	1.350552E+0	1.513704E+0	1.471342E+0	1.467338E+0	1.407049E+0	1.467460E+0	1.354001E+0	1.434449E+0	1.432968E+0	1.354033E+0	1.435605E+0	1.436084E+0	1.406634E+0	1.404535E+0	1.351227E+0	1.363949E+0	1.442094E+0	1.403543E+0	1.387336E+0	1.510774E+0	1.401159E+0	1.383729E+0	1.328181E+0	1.419053E+0	1.442780E+0	1.416455E+0	1.360638E+0	1.435064E+0	1.497327E+0	1.411024E+0	1.360544E+0	1.403342E+0	1.392507E+0	1.449961E+0	1.407372E+0	1.412704E+0	1.439431E+0	1.501524E+0	1.377483E+0	1.449555E+0	1.303038E+0	1.491238E+0	1.355240E+0	1.451810E+0	1.333398E+0	1.436274E+0	1.471538E+0	1.453876E+0	1.384452E+0	1.463735E+0	1.460263E+0	1.548972E+0	1.414463E+0	1.381124E+0	1.330256E+0	1.500372E+0	1.491914E+0	1.486167E+0	1.522441E+0	1.507279E+0	1.453592E+0	1.459729E+0	1.446796E+0	1.560909E+0	1.453913E+0	1.403939E+0	1.513241E+0	1.503519E+0	1.549065E+0	1.391491E+0	1.451600E+0	1.452244E+0	1.429681E+0	1.424428E+0	1.406390E+0	1.483325E+0	1.418997E+0	1.399384E+0	1.318044E+0	1.393330E+0	1.298942E+0	1.494678E+0	1.332427E+0	1.338520E+0	1.293488E+0	1.411629E+0	1.453969E+0	1.417809E+0	1.395228E+0	1.460893E+0	1.433459E+0	1.341375E+0	1.426568E+0	1.433638E+0	1.455257E+0	1.281018E+0	1.394146E+0	1.431413E+0	1.444775E+0	1.436291E+0	1.537312E+0	1.383049E+0	1.429563E+0	1.387002E+0	1.440167E+0	1.563476E+0	1.471564E+0	1.325009E+0	1.375040E+0	1.455333E+0	1.401696E+0	1.330306E+0	1.339889E+0	1.423280E+0	1.420565E+0	1.369432E+0	1.396897E+0	1.317605E+0	1.372088E+0	1.387077E+0	1.499810E+0	1.391550E+0	1.450369E+0	1.428680E+0	1.462426E+0	1.484049E+0	1.325590E+0	1.420425E+0	1.417971E+0	1.578581E+0	1.448651E+0	1.549302E+0	1.451145E+0	1.446297E+0	1.351386E+0	1.453571E+0	1.379140E+0	1.437330E+0	1.371328E+0	1.363604E+0	1.349951E+0	1.423157E+0	1.369980E+0	1.434990E+0	1.423254E+0	1.344132E+0	1.479691E+0
5.366080E+2	1.229070E+0	1.223369E+0	1.165453E+0	1.154096E+0	1.126065E+0	1.188733E+0	1.118377E+0	1.140267E+0	1.159700E+0	1.160088E+0	1.100802E+0	1.125568E+0	1.192877E+0	1.287410E+0	1.105330E+0	1.121467E+0	1.200376E+0	1.120939E+0	1.233302E+0	1.103179E+0	1.206406E+0	1.229036E+0	1.186029E+0	1.039917E+0	1.198958E+0	1.226679E+0	1.113168E+0	1.140243E+0	1.161532E+0	1.214301E+0	1.106994E+0	1.087346E+0	1.140144E+0	1.127677E+0	1.117585E+0	1.195970E+0	1.128531E+0	1.234312E+0	1.169906E+0	1.154517E+0	1.083892E+0	1.189250E+0	1.118727E+0	1.075936E+0	1.161940E+0	1.139499E+0	1.218305E+0	1.161672E+0	1.192444E+0	1.176284E+0	1.092766E+0	1.150523E+0	1.178429E+0	1.260377E+0	1.111373E+0	1.183003E+0	1.199974E+0	1.202087E+0	1.192826E+0	1.133390E+0	1.179374E+0	1.173040E+0	1.166432E+0	1.053608E+0	1.169147E+0	1.177704E+0	1.212770E+0	1.138359E+0	1.140032E+0	1.156073E+0	1.232828E+0	1.168373E+0	1.131627E+0	1.170042E+0	1.270801E+0	1.214809E+0	1.210438E+0	1.180900E+0	1.220458E+0	1.263794E+0	1.214951E+0	1.183060E+0	1.204302E+0	1.239460E+0	1.122962E+0	1.196164E+0	1.196614E+0	1.255310E+0	1.107785E+0	1.174850E+0	1.151836E+0	1.140145E+0	1.101048E+0	1.135671E+0	1.172387E+0	1.108552E+0	1.086178E+0	1.081337E+0	1.135428E+0	1.097806E+0	1.151570E+0	1.133641E+0	1.118931E+0	1.130962E+0	1.155537E+0	1.147538E+0	1.109258E+0	1.094360E+0	1.147205E+0	1.191152E+0	1.082358E+0	1.216053E+0	1.175445E+0	1.155287E+0	1.121536E+0	1.158394E+0	1.034576E+0	1.122892E+0	1.091319E+0	1.238533E+0	1.150099E+0	1.137392E+0	1.086470E+0	1.117685E+0	1.233566E+0	1.153658E+0	1.086972E+0	1.109711E+0	1.158445E+0	1.157704E+0	1.046020E+0	1.077169E+0	1.240735E+0	1.169224E+0	1.084498E+0	1.074719E+0	1.112196E+0	1.153654E+0	1.164172E+0	1.142201E+0	1.125581E+0	1.203545E+0	1.188868E+0	1.214041E+0	1.245428E+0	1.090220E+0	1.109847E+0	1.122220E+0	1.183137E+0	1.159356E+0	1.232992E+0	1.181147E+0	1.127921E+0	1.155599E+0	1.102435E+0	1.128191E+0	1.149257E+0	1.077049E+0	1.122675E+0	1.102178E+0	1.152879E+0	1.051744E+0	1.166184E+0	1.127681E+0	1.078150E+0	1.105547E+0
5.368180E+2	1.030385E+0	1.037143E+0	1.004476E+0	1.033341E+0	9.384336E-1	9.801108E-1	9.664505E-1	9.670944E-1	9.473332E-1	9.725792E-1	9.603399E-1	8.921536E-1	9.984179E-1	9.763770E-1	9.544359E-1	9.534967E-1	9.971121E-1	9.854947E-1	9.248073E-1	8.997667E-1	9.990617E-1	9.980161E-1	1.026668E+0	8.931928E-1	9.407842E-1	9.591105E-1	9.176074E-1	9.481646E-1	9.690318E-1	9.498172E-1	8.959039E-1	8.595604E-1	9.353629E-1	9.605360E-1	9.613708E-1	9.358041E-1	9.677749E-1	9.878141E-1	9.168151E-1	9.367205E-1	8.806467E-1	9.212092E-1	9.319064E-1	9.333127E-1	8.959855E-1	9.486435E-1	9.588937E-1	9.957879E-1	9.534801E-1	9.326499E-1	8.288428E-1	9.200292E-1	9.919622E-1	9.975884E-1	9.522051E-1	9.181676E-1	9.330535E-1	9.855812E-1	9.884606E-1	8.811715E-1	9.573321E-1	9.764017E-1	9.188242E-1	8.833004E-1	9.319503E-1	9.584264E-1	9.694648E-1	9.550377E-1	8.840455E-1	1.043804E+0	1.064013E+0	9.325375E-1	9.065602E-1	9.625764E-1	9.999669E-1	9.621749E-1	9.185767E-1	9.785835E-1	9.681150E-1	9.512760E-1	9.465795E-1	9.892951E-1	9.391136E-1	9.667879E-1	9.344924E-1	1.075893E+0	9.784056E-1	9.973607E-1	9.141553E-1	1.009717E+0	9.530267E-1	8.672830E-1	8.862088E-1	1.014341E+0	9.466479E-1	9.468930E-1	9.074003E-1	9.752759E-1	9.671348E-1	9.052901E-1	9.381981E-1	1.033873E+0	8.756620E-1	8.970672E-1	9.521904E-1	9.666803E-1	9.462215E-1	8.797656E-1	9.326526E-1	9.510695E-1	9.316444E-1	9.340314E-1	8.676268E-1	9.427766E-1	9.461068E-1	9.832016E-1	9.103621E-1	9.726789E-1	9.102269E-1	9.765498E-1	9.511505E-1	9.692635E-1	9.128924E-1	9.068879E-1	1.102068E+0	9.457687E-1	8.753088E-1	9.100378E-1	9.510603E-1	8.590105E-1	8.740947E-1	9.199505E-1	9.821295E-1	9.299237E-1	8.907719E-1	8.627600E-1	8.863144E-1	9.256904E-1	9.454895E-1	9.811998E-1	9.470634E-1	9.559806E-1	9.581178E-1	9.483248E-1	1.021672E+0	9.131474E-1	9.534658E-1	9.257947E-1	1.021502E+0	9.738139E-1	9.635149E-1	9.677130E-1	9.899838E-1	9.424077E-1	9.858884E-1	9.110372E-1	1.015480E+0	9.201459E-1	8.902985E-1	8.729053E-1	9.269332E-1	9.080732E-1	9.278272E-1	9.445696E-1	9.563222E-1	1.012009E+0
5.370170E+2	9.498159E-1	1.021204E+0	9.183319E-1	1.023415E+0	9.208429E-1	8.750368E-1	9.141485E-1	9.520357E-1	9.437937E-1	9.120499E-1	8.921748E-1	9.143838E-1	9.739192E-1	9.657441E-1	9.325870E-1	8.854186E-1	9.206222E-1	8.393213E-1	9.720605E-1	8.800816E-1	9.652931E-1	9.973521E-1	9.816310E-1	9.287421E-1	9.352770E-1	9.371364E-1	8.776970E-1	8.765783E-1	9.215953E-1	9.113584E-1	8.605038E-1	8.889930E-1	8.610246E-1	8.804484E-1	8.994355E-1	8.995882E-1	9.113111E-1	9.649642E-1	9.285183E-1	8.833531E-1	8.511328E-1	9.170000E-1	8.698664E-1	9.278268E-1	9.052800E-1	9.254034E-1	8.959637E-1	9.653329E-1	8.768711E-1	9.190004E-1	8.628327E-1	9.071867E-1	9.375198E-1	1.002443E+0	8.780621E-1	9.398863E-1	9.431531E-1	9.191230E-1	9.077326E-1	8.173658E-1	9.408046E-1	9.626512E-1	8.873483E-1	8.853275E-1	9.192301E-1	9.416156E-1	9.401510E-1	8.822793E-1	8.557686E-1	9.937373E-1	1.004929E+0	8.527054E-1	8.332647E-1	9.470709E-1	9.549531E-1	9.400701E-1	9.530429E-1	8.785142E-1	9.512421E-1	9.627100E-1	9.052919E-1	1.017745E+0	9.444015E-1	9.468909E-1	8.930709E-1	1.040750E+0	9.964589E-1	9.944385E-1	8.503212E-1	9.539092E-1	9.340221E-1	8.900221E-1	9.026772E-1	9.134851E-1	8.891209E-1	9.082661E-1	8.852267E-1	8.994169E-1	8.840813E-1	8.657817E-1	9.434659E-1	1.060877E+0	8.512632E-1	8.603228E-1	9.244291E-1	1.051976E+0	8.776549E-1	9.399387E-1	9.184907E-1	9.518105E-1	8.574229E-1	8.765579E-1	8.251939E-1	1.004152E+0	9.171102E-1	9.370609E-1	9.273595E-1	9.164418E-1	9.049897E-1	9.883239E-1	8.853172E-1	9.991526E-1	8.892231E-1	8.647283E-1	9.417816E-1	9.757740E-1	7.637297E-1	8.910856E-1	9.299580E-1	8.964370E-1	8.977843E-1	8.606488E-1	9.869698E-1	9.878678E-1	9.141035E-1	8.733583E-1	8.404330E-1	9.711354E-1	9.208790E-1	8.983765E-1	9.145401E-1	9.596870E-1	9.553297E-1	9.786518E-1	1.002112E+0	8.759840E-1	8.989149E-1	9.139353E-1	9.418113E-1	9.745711E-1	9.819415E-1	9.277411E-1	9.184053E-1	9.119519E-1	9.268673E-1	8.678945E-1	9.288300E-1	9.173568E-1	8.781817E-1	8.359046E-1	9.147780E-1	8.686804E-1	9.162772E-1	8.695961E-1	8.933816E-1	9.496517E-1
5.372010E+2	1.016306E+0	1.160454E+0	1.087140E+0	1.002738E+0	9.824097E-1	1.042545E+0	1.009621E+0	9.436691E-1	1.035819E+0	9.692898E-1	9.713573E-1	1.000525E+0	1.030572E+0	1.010272E+0	9.858443E-1	9.744936E-1	9.524924E-1	1.004940E+0	9.808362E-1	8.971425E-1	1.009193E+0	1.034528E+0	1.028746E+0	8.970702E-1	1.024777E+0	1.004998E+0	9.368970E-1	9.673014E-1	9.545946E-1	9.842273E-1	9.634272E-1	9.357018E-1	9.851553E-1	9.730717E-1	9.586182E-1	9.868030E-1	9.983317E-1	1.025895E+0	9.811848E-1	9.273450E-1	9.658356E-1	1.002604E+0	9.932398E-1	9.957103E-1	9.624742E-1	1.009914E+0	1.064476E+0	1.033371E+0	9.534796E-1	9.920234E-1	8.714970E-1	9.768086E-1	9.967259E-1	1.075940E+0	9.528846E-1	9.924335E-1	9.842735E-1	1.026005E+0	1.035007E+0	8.939325E-1	1.032065E+0	1.007341E+0	9.768791E-1	9.387187E-1	1.008272E+0	1.038098E+0	1.004641E+0	9.493310E-1	1.045525E+0	1.060492E+0	1.094706E+0	1.002848E+0	9.665276E-1	1.014996E+0	1.025475E+0	1.022176E+0	9.655099E-1	1.022818E+0	1.057609E+0	1.058752E+0	9.657489E-1	1.095404E+0	1.024487E+0	1.039009E+0	1.009052E+0	1.084485E+0	1.064747E+0	1.022937E+0	9.779895E-1	1.138918E+0	9.406006E-1	9.885548E-1	9.243864E-1	1.009790E+0	1.015098E+0	1.006264E+0	1.007183E+0	9.752760E-1	9.409075E-1	9.139107E-1	1.036982E+0	1.131390E+0	9.172839E-1	9.147332E-1	9.952195E-1	1.059874E+0	9.523158E-1	9.747380E-1	9.850516E-1	1.005903E+0	9.255854E-1	9.580899E-1	9.510548E-1	1.073198E+0	9.236342E-1	9.630153E-1	9.345517E-1	1.043715E+0	9.753306E-1	1.070010E+0	9.822594E-1	1.113481E+0	9.157614E-1	1.007479E+0	1.097400E+0	1.070788E+0	8.807188E-1	9.628328E-1	1.020917E+0	1.036067E+0	9.417812E-1	9.123655E-1	9.821298E-1	1.125578E+0	9.734941E-1	9.270545E-1	8.947854E-1	1.097945E+0	1.005258E+0	1.019128E+0	1.007050E+0	1.039737E+0	1.020163E+0	1.068907E+0	1.066267E+0	1.046499E+0	9.571020E-1	1.024378E+0	9.974435E-1	1.129821E+0	1.015721E+0	9.903380E-1	9.959489E-1	1.083085E+0	9.627283E-1	9.563372E-1	9.850768E-1	1.028235E+0	9.444727E-1	9.389779E-1	9.591092E-1	9.791361E-1	9.047276E-1	9.488953E-1	9.725676E-1	1.147116E+0
5.374220E+2	1.162581E+0	1.152066E+0	1.133259E+0	1.215300E+0	1.053505E+0	1.138481E+0	1.086829E+0	1.156163E+0	1.048561E+0	1.066004E+0	1.110442E+0	1.052626E+0	1.160722E+0	1.121924E+0	1.086895E+0	1.033029E+0	1.093432E+0	1.047853E+0	1.084793E+0	1.035593E+0	1.090239E+0	1.124811E+0	1.108427E+0	1.041855E+0	1.066774E+0	1.100651E+0	1.021374E+0	1.046684E+0	1.074907E+0	1.065866E+0	1.025705E+0	1.006726E+0	1.064403E+0	1.068482E+0	1.063219E+0	1.072540E+0	1.081367E+0	1.144991E+0	1.064573E+0	1.036964E+0	1.014802E+0	1.102944E+0	1.055984E+0	1.049880E+0	1.095451E+0	1.069778E+0	1.136495E+0	1.152600E+0	1.070150E+0	1.123053E+0	1.034783E+0	1.006549E+0	1.070904E+0	1.118928E+0	9.889358E-1	1.061795E+0	1.127834E+0	1.060262E+0	1.107734E+0	1.021544E+0	1.050747E+0	1.082285E+0	1.017448E+0	1.000218E+0	1.047181E+0	1.147737E+0	1.116767E+0	1.080581E+0	1.038828E+0	1.137109E+0	1.197530E+0	1.066567E+0	1.014651E+0	1.114669E+0	1.143261E+0	1.075860E+0	1.054974E+0	1.177999E+0	1.183781E+0	1.150983E+0	1.050537E+0	1.162300E+0	1.108350E+0	1.123759E+0	1.081540E+0	1.231308E+0	1.129896E+0	1.142777E+0	9.914651E-1	1.275764E+0	1.066319E+0	1.024937E+0	1.068111E+0	1.096239E+0	1.090101E+0	1.040598E+0	1.052224E+0	1.145957E+0	1.067673E+0	1.048959E+0	1.081105E+0	1.218406E+0	1.037125E+0	9.959956E-1	1.030614E+0	1.221777E+0	1.065071E+0	1.066086E+0	1.129503E+0	1.152621E+0	1.000563E+0	1.069696E+0	1.053181E+0	1.189810E+0	9.867019E-1	1.089903E+0	1.018886E+0	1.173949E+0	1.032951E+0	1.170829E+0	1.048093E+0	1.179985E+0	1.036979E+0	1.040023E+0	1.094287E+0	1.048642E+0	9.747157E-1	9.926149E-1	1.147531E+0	1.120277E+0	1.036544E+0	1.061309E+0	1.106592E+0	1.195563E+0	1.034299E+0	1.030915E+0	1.000666E+0	1.117736E+0	1.050260E+0	1.099628E+0	1.132085E+0	1.113117E+0	1.114275E+0	1.133893E+0	1.122597E+0	1.119369E+0	1.062569E+0	1.062922E+0	1.108710E+0	1.272954E+0	1.158522E+0	1.129862E+0	1.048887E+0	1.153423E+0	1.057610E+0	1.007390E+0	1.124934E+0	1.084720E+0	1.074916E+0	1.073767E+0	1.006300E+0	1.016212E+0	1.067482E+0	1.038288E+0	1.070027E+0	1.209474E+0
5.376060E+2	1.131292E+0	1.141162E+0	1.104543E+0	1.135899E+0	1.028585E+0	1.115639E+0	1.000489E+0	1.085889E+0	1.025909E+0	1.080479E+0	1.016112E+0	9.699594E-1	1.169143E+0	1.097334E+0	1.095772E+0	1.043845E+0	1.075018E+0	1.063274E+0	1.093568E+0	1.015252E+0	1.168583E+0	1.131450E+0	1.103577E+0	1.039270E+0	1.117720E+0	1.059934E+0	1.039334E+0	1.070075E+0	1.114095E+0	1.117144E+0	1.009316E+0	1.011844E+0	1.005493E+0	1.036446E+0	1.030876E+0	1.018584E+0	1.014274E+0	1.118680E+0	1.019953E+0	1.044176E+0	1.008765E+0	1.078385E+0	1.023554E+0	1.010796E+0	1.020384E+0	1.029634E+0	1.050491E+0	1.103353E+0	1.062420E+0	1.060950E+0	1.010123E+0	9.937065E-1	1.061376E+0	1.168852E+0	1.071241E+0	1.078610E+0	1.110520E+0	1.121240E+0	1.013916E+0	9.494812E-1	1.054341E+0	1.122849E+0	1.081797E+0	9.941355E-1	1.040447E+0	1.136773E+0	1.116034E+0	1.043488E+0	1.052966E+0	1.201588E+0	1.166837E+0	1.049723E+0	1.065735E+0	1.105070E+0	1.074990E+0	1.137440E+0	1.058642E+0	1.104759E+0	1.135365E+0	1.130402E+0	1.073392E+0	1.173833E+0	1.124972E+0	1.113442E+0	1.074636E+0	1.227404E+0	1.078091E+0	1.180775E+0	9.716055E-1	1.180966E+0	1.025387E+0	1.061318E+0	1.002986E+0	1.024956E+0	1.039856E+0	1.048467E+0	1.030744E+0	1.078527E+0	1.072044E+0	1.023099E+0	1.126546E+0	1.183900E+0	1.025643E+0	9.698509E-1	1.059762E+0	1.199663E+0	1.036882E+0	1.013887E+0	1.051612E+0	1.150398E+0	1.033888E+0	1.076379E+0	9.481777E-1	1.167563E+0	1.056294E+0	1.040878E+0	1.045037E+0	1.219086E+0	1.051659E+0	1.143601E+0	1.078478E+0	1.147107E+0	1.031957E+0	1.033366E+0	1.135527E+0	1.104366E+0	9.699822E-1	9.959989E-1	1.079857E+0	1.133232E+0	1.000669E+0	9.813206E-1	1.068562E+0	1.195563E+0	1.003897E+0	1.004066E+0	1.006313E+0	1.208629E+0	1.031275E+0	1.111239E+0	1.098839E+0	1.136836E+0	1.091270E+0	1.118729E+0	1.146067E+0	1.103337E+0	1.077843E+0	1.121479E+0	1.156073E+0	1.191921E+0	1.087890E+0	1.118549E+0	1.127922E+0	1.136745E+0	9.851408E-1	9.441136E-1	1.067166E+0	1.059615E+0	1.008625E+0	1.030158E+0	1.026320E+0	1.107357E+0	1.062232E+0	9.950338E-1	1.007083E+0	1.256241E+0
5.378110E+2	1.147719E+0	1.252728E+0	1.275962E+0	1.192141E+0	1.065231E+0	1.180359E+0	1.306831E+0	1.141941E+0	1.139171E+0	1.130481E+0	1.250904E+0	1.130432E+0	1.182924E+0	1.204999E+0	1.123082E+0	1.075021E+0	1.130969E+0	1.169887E+0	1.169173E+0	1.080213E+0	1.112527E+0	1.240321E+0	1.217902E+0	1.093565E+0	1.130800E+0	1.102590E+0	1.115829E+0	1.125359E+0	1.131282E+0	1.146831E+0	1.086016E+0	1.034879E+0	1.070014E+0	1.115838E+0	1.059779E+0	1.059236E+0	1.112588E+0	1.161609E+0	1.074083E+0	1.076629E+0	1.087246E+0	1.127502E+0	1.103923E+0	1.104735E+0	1.105460E+0	1.137387E+0	1.170058E+0	1.116313E+0	1.155194E+0	1.142162E+0	1.067440E+0	1.050484E+0	1.091319E+0	1.215308E+0	1.046072E+0	1.111539E+0	1.147312E+0	1.193866E+0	1.118643E+0	1.051569E+0	1.148475E+0	1.136600E+0	1.098584E+0	1.062394E+0	1.041195E+0	1.193785E+0	1.171731E+0	1.108400E+0	1.117707E+0	1.212208E+0	1.190625E+0	1.151527E+0	1.090167E+0	1.188499E+0	1.196527E+0	1.169808E+0	1.069641E+0	1.129414E+0	1.153705E+0	1.275228E+0	1.059384E+0	1.135388E+0	1.118927E+0	1.178294E+0	1.091895E+0	1.201631E+0	1.151874E+0	1.198313E+0	1.070194E+0	1.211547E+0	1.116752E+0	1.081025E+0	1.132488E+0	1.107614E+0	1.109763E+0	1.132873E+0	1.145771E+0	1.105922E+0	1.069130E+0	1.079848E+0	1.159473E+0	1.247661E+0	1.079463E+0	1.056059E+0	1.102098E+0	1.287327E+0	1.038406E+0	1.077686E+0	1.107552E+0	1.132614E+0	1.052064E+0	1.088409E+0	1.105683E+0	1.212058E+0	1.054119E+0	1.102159E+0	1.084263E+0	1.288643E+0	1.086080E+0	1.173773E+0	1.173249E+0	1.215106E+0	1.113009E+0	1.085880E+0	1.183768E+0	1.180805E+0	1.079533E+0	1.072484E+0	1.067487E+0	1.177857E+0	1.069710E+0	1.032348E+0	1.150154E+0	1.182770E+0	1.125507E+0	1.054937E+0	1.047254E+0	1.248944E+0	1.116358E+0	1.149168E+0	1.075711E+0	1.162038E+0	1.151224E+0	1.205376E+0	1.227433E+0	1.166005E+0	1.118575E+0	1.140009E+0	1.171109E+0	1.294159E+0	1.154683E+0	1.146454E+0	1.149545E+0	1.191856E+0	1.168179E+0	1.097991E+0	1.100610E+0	1.128652E+0	1.064224E+0	1.066499E+0	1.089957E+0	1.132074E+0	1.132583E+0	1.113262E+0	1.033479E+0	1.214668E+0
5.380050E+2	1.253320E+0	1.367652E+0	1.356015E+0	1.251691E+0	1.160513E+0	1.268681E+0	1.353322E+0	1.203848E+0	1.159700E+0	1.200879E+0	1.389301E+0	1.186702E+0	1.245702E+0	1.251521E+0	1.237788E+0	1.157733E+0	1.165673E+0	1.210789E+0	1.327133E+0	1.128113E+0	1.257059E+0	1.249615E+0	1.375877E+0	1.125237E+0	1.214105E+0	1.228618E+0	1.284116E+0	1.172138E+0	1.223407E+0	1.178542E+0	1.196806E+0	1.087986E+0	1.119105E+0	1.150658E+0	1.144423E+0	1.136842E+0	1.224852E+0	1.245391E+0	1.303767E+0	1.131439E+0	1.113406E+0	1.186442E+0	1.258315E+0	1.177419E+0	1.168374E+0	1.115554E+0	1.172156E+0	1.268589E+0	1.215638E+0	1.193345E+0	1.256718E+0	1.131597E+0	1.198163E+0	1.304752E+0	1.263739E+0	1.173895E+0	1.192039E+0	1.251418E+0	1.324463E+0	1.110120E+0	1.213148E+0	1.249358E+0	1.247568E+0	1.067800E+0	1.131734E+0	1.245680E+0	1.241351E+0	1.163325E+0	1.221143E+0	1.268342E+0	1.285007E+0	1.186683E+0	1.155317E+0	1.297770E+0	1.237790E+0	1.233755E+0	1.179639E+0	1.280244E+0	1.276943E+0	1.214249E+0	1.153756E+0	1.294552E+0	1.247366E+0	1.195243E+0	1.145053E+0	1.343769E+0	1.280601E+0	1.261156E+0	1.153178E+0	1.281116E+0	1.166454E+0	1.181074E+0	1.145962E+0	1.149321E+0	1.188407E+0	1.200827E+0	1.196355E+0	1.265365E+0	1.140527E+0	1.131568E+0	1.143668E+0	1.345929E+0	1.116779E+0	1.076552E+0	1.170110E+0	1.331555E+0	1.110020E+0	1.221233E+0	1.225804E+0	1.231908E+0	1.114925E+0	1.182639E+0	1.161781E+0	1.274201E+0	1.204902E+0	1.132439E+0	1.096684E+0	1.286423E+0	1.193090E+0	1.241477E+0	1.212315E+0	1.221083E+0	1.100814E+0	1.119904E+0	1.239012E+0	1.276534E+0	1.056542E+0	1.142201E+0	1.176637E+0	1.166340E+0	1.153643E+0	1.129575E+0	1.207545E+0	1.307688E+0	1.153788E+0	1.069773E+0	1.082547E+0	1.322244E+0	1.159250E+0	1.237408E+0	1.185568E+0	1.256172E+0	1.201416E+0	1.234258E+0	1.281417E+0	1.214100E+0	1.196401E+0	1.237852E+0	1.252302E+0	1.386551E+0	1.240670E+0	1.242990E+0	1.098098E+0	1.258568E+0	1.184616E+0	1.122439E+0	1.148497E+0	1.161428E+0	1.106993E+0	1.093588E+0	1.190060E+0	1.180737E+0	1.143083E+0	1.175261E+0	1.189821E+0	1.219868E+0
5.382060E+2	1.532573E+0	1.559751E+0	1.673620E+0	1.529592E+0	1.379661E+0	1.468928E+0	1.580796E+0	1.436419E+0	1.411708E+0	1.365362E+0	1.589664E+0	1.352732E+0	1.522078E+0	1.583154E+0	1.536164E+0	1.333973E+0	1.434095E+0	1.468936E+0	1.574874E+0	1.363675E+0	1.478585E+0	1.516485E+0	1.648871E+0	1.332719E+0	1.390353E+0	1.420572E+0	1.538212E+0	1.376973E+0	1.397345E+0	1.382978E+0	1.430184E+0	1.270984E+0	1.371574E+0	1.413209E+0	1.443779E+0	1.371878E+0	1.414837E+0	1.466965E+0	1.558320E+0	1.362937E+0	1.355557E+0	1.432028E+0	1.457122E+0	1.447582E+0	1.442907E+0	1.425431E+0	1.444153E+0	1.471409E+0	1.405402E+0	1.400127E+0	1.438663E+0	1.390479E+0	1.405726E+0	1.486416E+0	1.509972E+0	1.437328E+0	1.412791E+0	1.486424E+0	1.597919E+0	1.333065E+0	1.440218E+0	1.491375E+0	1.436422E+0	1.280008E+0	1.393622E+0	1.499312E+0	1.460472E+0	1.410132E+0	1.402715E+0	1.446608E+0	1.577364E+0	1.426911E+0	1.341146E+0	1.508189E+0	1.515376E+0	1.488757E+0	1.354169E+0	1.428900E+0	1.533690E+0	1.468075E+0	1.434662E+0	1.515997E+0	1.487622E+0	1.470126E+0	1.425340E+0	1.591339E+0	1.558463E+0	1.416803E+0	1.323401E+0	1.517346E+0	1.494637E+0	1.332664E+0	1.348075E+0	1.351032E+0	1.446187E+0	1.431874E+0	1.382755E+0	1.387581E+0	1.490225E+0	1.283139E+0	1.409065E+0	1.576972E+0	1.465537E+0	1.293487E+0	1.442859E+0	1.540845E+0	1.511516E+0	1.385078E+0	1.441066E+0	1.482363E+0	1.411051E+0	1.366422E+0	1.373226E+0	1.482876E+0	1.402803E+0	1.363145E+0	1.303926E+0	1.546149E+0	1.629356E+0	1.529216E+0	1.425732E+0	1.543144E+0	1.470204E+0	1.379516E+0	1.508233E+0	1.423700E+0	1.345296E+0	1.308031E+0	1.456061E+0	1.463591E+0	1.345197E+0	1.282655E+0	1.358283E+0	1.602675E+0	1.468417E+0	1.327657E+0	1.350781E+0	1.578063E+0	1.410982E+0	1.449498E+0	1.374204E+0	1.399967E+0	1.434955E+0	1.428490E+0	1.484050E+0	1.450197E+0	1.415333E+0	1.407592E+0	1.497388E+0	1.608445E+0	1.475599E+0	1.396089E+0	1.378448E+0	1.480460E+0	1.384091E+0	1.359006E+0	1.406167E+0	1.441760E+0	1.335092E+0	1.324183E+0	1.360234E+0	1.382338E+0	1.369888E+0	1.359814E+0	1.338042E+0	1.552440E+0
5.384110E+2	1.793054E+0	1.841606E+0	1.950329E+0	1.796743E+0	1.653779E+0	1.686690E+0	1.904567E+0	1.675683E+0	1.677874E+0	1.585108E+0	1.893997E+0	1.588233E+0	1.848219E+0	1.772568E+0	1.753967E+0	1.652096E+0	1.715975E+0	1.686858E+0	1.802360E+0	1.605801E+0	1.730503E+0	1.848409E+0	1.862275E+0	1.642975E+0	1.694653E+0	1.676501E+0	1.756393E+0	1.581811E+0	1.603594E+0	1.667032E+0	1.641276E+0	1.610744E+0	1.612121E+0	1.588704E+0	1.679818E+0	1.612830E+0	1.615449E+0	1.817324E+0	1.804100E+0	1.605974E+0	1.594354E+0	1.637617E+0	1.788464E+0	1.619690E+0	1.605196E+0	1.678261E+0	1.632943E+0	1.702740E+0	1.660527E+0	1.654680E+0	1.689258E+0	1.610834E+0	1.748034E+0	1.826170E+0	1.888172E+0	1.592168E+0	1.694143E+0	1.774184E+0	1.848106E+0	1.559010E+0	1.736277E+0	1.766393E+0	1.681230E+0	1.556421E+0	1.648029E+0	1.763909E+0	1.779993E+0	1.632683E+0	1.629680E+0	1.770519E+0	1.898879E+0	1.631986E+0	1.627660E+0	1.793915E+0	1.782460E+0	1.707444E+0	1.635767E+0	1.653695E+0	1.768427E+0	1.796599E+0	1.659534E+0	1.711298E+0	1.795874E+0	1.744270E+0	1.722887E+0	1.917787E+0	1.807285E+0	1.790206E+0	1.585120E+0	1.796393E+0	1.770192E+0	1.617654E+0	1.617562E+0	1.722605E+0	1.653721E+0	1.615708E+0	1.598952E+0	1.687504E+0	1.755412E+0	1.576943E+0	1.676440E+0	1.822266E+0	1.728904E+0	1.559181E+0	1.685070E+0	1.898614E+0	1.811686E+0	1.638095E+0	1.569940E+0	1.750604E+0	1.689000E+0	1.585622E+0	1.650117E+0	1.793586E+0	1.667396E+0	1.694065E+0	1.569352E+0	1.726700E+0	1.811194E+0	1.683020E+0	1.691235E+0	1.788988E+0	1.777192E+0	1.564426E+0	1.735432E+0	1.715890E+0	1.641490E+0	1.551699E+0	1.625606E+0	1.757247E+0	1.710709E+0	1.538480E+0	1.634867E+0	1.866055E+0	1.713757E+0	1.567874E+0	1.501132E+0	1.726861E+0	1.767488E+0	1.727379E+0	1.643063E+0	1.684591E+0	1.783522E+0	1.814068E+0	1.797778E+0	1.598123E+0	1.696093E+0	1.599569E+0	1.750745E+0	1.776571E+0	1.864077E+0	1.723407E+0	1.693093E+0	1.748759E+0	1.762869E+0	1.476932E+0	1.704120E+0	1.653755E+0	1.585291E+0	1.632080E+0	1.631940E+0	1.601705E+0	1.578844E+0	1.534274E+0	1.486261E+0	1.755103E+0
5.386060E+2	1.685108E+0	1.688935E+0	1.795440E+0	1.798396E+0	1.529181E+0	1.583136E+0	1.842304E+0	1.535973E+0	1.580890E+0	1.615373E+0	1.761801E+0	1.559748E+0	1.662178E+0	1.623697E+0	1.677493E+0	1.533759E+0	1.632402E+0	1.636567E+0	1.661280E+0	1.523781E+0	1.580569E+0	1.695721E+0	1.800608E+0	1.490431E+0	1.618923E+0	1.608643E+0	1.637992E+0	1.544954E+0	1.559596E+0	1.582691E+0	1.648489E+0	1.500052E+0	1.505524E+0	1.556670E+0	1.571090E+0	1.584003E+0	1.571608E+0	1.615833E+0	1.646830E+0	1.517990E+0	1.472943E+0	1.628498E+0	1.683423E+0	1.536037E+0	1.515115E+0	1.543748E+0	1.604973E+0	1.617853E+0	1.540344E+0	1.543441E+0	1.628609E+0	1.552027E+0	1.534348E+0	1.652134E+0	1.762329E+0	1.586562E+0	1.597471E+0	1.600157E+0	1.790646E+0	1.477191E+0	1.581063E+0	1.624070E+0	1.642064E+0	1.455047E+0	1.537288E+0	1.655729E+0	1.662737E+0	1.445084E+0	1.563451E+0	1.642320E+0	1.717018E+0	1.534574E+0	1.524014E+0	1.660282E+0	1.714190E+0	1.676650E+0	1.547766E+0	1.622516E+0	1.672330E+0	1.691410E+0	1.553366E+0	1.659784E+0	1.697658E+0	1.638151E+0	1.535109E+0	1.761593E+0	1.693469E+0	1.630908E+0	1.530507E+0	1.723000E+0	1.672249E+0	1.563080E+0	1.575639E+0	1.586869E+0	1.531387E+0	1.554193E+0	1.542825E+0	1.617263E+0	1.705875E+0	1.498641E+0	1.541438E+0	1.694743E+0	1.642068E+0	1.494877E+0	1.540020E+0	1.734340E+0	1.693602E+0	1.564875E+0	1.572772E+0	1.657241E+0	1.556464E+0	1.565575E+0	1.516348E+0	1.640914E+0	1.599982E+0	1.619082E+0	1.476519E+0	1.714858E+0	1.728880E+0	1.627827E+0	1.500971E+0	1.683629E+0	1.655974E+0	1.485285E+0	1.630391E+0	1.581579E+0	1.546815E+0	1.489428E+0	1.523734E+0	1.580191E+0	1.557058E+0	1.497107E+0	1.561572E+0	1.814883E+0	1.700325E+0	1.456952E+0	1.436897E+0	1.611046E+0	1.643729E+0	1.627529E+0	1.510080E+0	1.619369E+0	1.688013E+0	1.572178E+0	1.631916E+0	1.611237E+0	1.605171E+0	1.503953E+0	1.570310E+0	1.725829E+0	1.708994E+0	1.567289E+0	1.541736E+0	1.661020E+0	1.691896E+0	1.443135E+0	1.571866E+0	1.514286E+0	1.496187E+0	1.482099E+0	1.454618E+0	1.562311E+0	1.618744E+0	1.573202E+0	1.508597E+0	1.718727E+0
5.388120E+2	1.509106E+0	1.513613E+0	1.533526E+0	1.445230E+0	1.339350E+0	1.386696E+0	1.542606E+0	1.429727E+0	1.347290E+0	1.388388E+0	1.547663E+0	1.462491E+0	1.475377E+0	1.444253E+0	1.505438E+0	1.342881E+0	1.440469E+0	1.384453E+0	1.506019E+0	1.301341E+0	1.470480E+0	1.438813E+0	1.500593E+0	1.286181E+0	1.383466E+0	1.391487E+0	1.492981E+0	1.375557E+0	1.378095E+0	1.401193E+0	1.410517E+0	1.335609E+0	1.373678E+0	1.415993E+0	1.388723E+0	1.342314E+0	1.362358E+0	1.430958E+0	1.511506E+0	1.315339E+0	1.277076E+0	1.428520E+0	1.499422E+0	1.353641E+0	1.373559E+0	1.370498E+0	1.363043E+0	1.376803E+0	1.366746E+0	1.448579E+0	1.402675E+0	1.310043E+0	1.383949E+0	1.434414E+0	1.535141E+0	1.414207E+0	1.440926E+0	1.448739E+0	1.546282E+0	1.280519E+0	1.434471E+0	1.433622E+0	1.422433E+0	1.275954E+0	1.315056E+0	1.469344E+0	1.420899E+0	1.358773E+0	1.337974E+0	1.463298E+0	1.623403E+0	1.388827E+0	1.315234E+0	1.506712E+0	1.464360E+0	1.486388E+0	1.358570E+0	1.457180E+0	1.535889E+0	1.445208E+0	1.419178E+0	1.521379E+0	1.399226E+0	1.397168E+0	1.329381E+0	1.556975E+0	1.523142E+0	1.422647E+0	1.329785E+0	1.465361E+0	1.474171E+0	1.417554E+0	1.278458E+0	1.448855E+0	1.424341E+0	1.389669E+0	1.294752E+0	1.346842E+0	1.426114E+0	1.366467E+0	1.418286E+0	1.528962E+0	1.442574E+0	1.289247E+0	1.377622E+0	1.586651E+0	1.419333E+0	1.311130E+0	1.356095E+0	1.454206E+0	1.418625E+0	1.371768E+0	1.267504E+0	1.490547E+0	1.352060E+0	1.349446E+0	1.289544E+0	1.551328E+0	1.579966E+0	1.449738E+0	1.393177E+0	1.426574E+0	1.423582E+0	1.328481E+0	1.400077E+0	1.362976E+0	1.304046E+0	1.303293E+0	1.414584E+0	1.427607E+0	1.410853E+0	1.275070E+0	1.381101E+0	1.440131E+0	1.529220E+0	1.327657E+0	1.314075E+0	1.498898E+0	1.517159E+0	1.356611E+0	1.446479E+0	1.444438E+0	1.393825E+0	1.411883E+0	1.403466E+0	1.411575E+0	1.464792E+0	1.385357E+0	1.410931E+0	1.592541E+0	1.600741E+0	1.431536E+0	1.427657E+0	1.449280E+0	1.464031E+0	1.337435E+0	1.352961E+0	1.357381E+0	1.298026E+0	1.330790E+0	1.370245E+0	1.391607E+0	1.442340E+0	1.292048E+0	1.299463E+0	1.531654E+0
5.390080E+2	1.303381E+0	1.298027E+0	1.429109E+0	1.445229E+0	1.173706E+0	1.258782E+0	1.362454E+0	1.438092E+0	1.188016E+0	1.267989E+0	1.348677E+0	1.317303E+0	1.299293E+0	1.308676E+0	1.269196E+0	1.198453E+0	1.241455E+0	1.211459E+0	1.273804E+0	1.240973E+0	1.290828E+0	1.296084E+0	1.472189E+0	1.264205E+0	1.258167E+0	1.211168E+0	1.297421E+0	1.270658E+0	1.195907E+0	1.266928E+0	1.234829E+0	1.187803E+0	1.174507E+0	1.188961E+0	1.252466E+0	1.159754E+0	1.196952E+0	1.282089E+0	1.327174E+0	1.181200E+0	1.183837E+0	1.266434E+0	1.273120E+0	1.254216E+0	1.183387E+0	1.189502E+0	1.276340E+0	1.289325E+0	1.189632E+0	1.242481E+0	1.230725E+0	1.181616E+0	1.247842E+0	1.287418E+0	1.342643E+0	1.255868E+0	1.190597E+0	1.301433E+0	1.423372E+0	1.167170E+0	1.239735E+0	1.294736E+0	1.268553E+0	1.204992E+0	1.205063E+0	1.241294E+0	1.231824E+0	1.185438E+0	1.191378E+0	1.284273E+0	1.349464E+0	1.232824E+0	1.185672E+0	1.290387E+0	1.376583E+0	1.234545E+0	1.204572E+0	1.207730E+0	1.315088E+0	1.303431E+0	1.236332E+0	1.200745E+0	1.294209E+0	1.312419E+0	1.216160E+0	1.421086E+0	1.327697E+0	1.253848E+0	1.153887E+0	1.316283E+0	1.294366E+0	1.263690E+0	1.137727E+0	1.253210E+0	1.230642E+0	1.205835E+0	1.185961E+0	1.219007E+0	1.302991E+0	1.204121E+0	1.227305E+0	1.370683E+0	1.367942E+0	1.103404E+0	1.181215E+0	1.352089E+0	1.362193E+0	1.186433E+0	1.169865E+0	1.276367E+0	1.238374E+0	1.216722E+0	1.201337E+0	1.294148E+0	1.281743E+0	1.246350E+0	1.118258E+0	1.380398E+0	1.365949E+0	1.320954E+0	1.218103E+0	1.319719E+0	1.253592E+0	1.182033E+0	1.277917E+0	1.237957E+0	1.216810E+0	1.179429E+0	1.235578E+0	1.303091E+0	1.216591E+0	1.169569E+0	1.233129E+0	1.394980E+0	1.253478E+0	1.158796E+0	1.204664E+0	1.323710E+0	1.297774E+0	1.212639E+0	1.225319E+0	1.281373E+0	1.277404E+0	1.267472E+0	1.336182E+0	1.278225E+0	1.261863E+0	1.280101E+0	1.243281E+0	1.409271E+0	1.379630E+0	1.233939E+0	1.272571E+0	1.316579E+0	1.282486E+0	1.150481E+0	1.226785E+0	1.206058E+0	1.151899E+0	1.157679E+0	1.197210E+0	1.206226E+0	1.254386E+0	1.178144E+0	1.171548E+0	1.370566E+0
5.392090E+2	1.125816E+0	1.230079E+0	1.312509E+0	1.179735E+0	1.011727E+0	1.076046E+0	1.275283E+0	1.214723E+0	1.032280E+0	1.083111E+0	1.166902E+0	1.182533E+0	1.157660E+0	1.126577E+0	1.083482E+0	1.070567E+0	1.111139E+0	1.061263E+0	1.164447E+0	1.025095E+0	1.120631E+0	1.168626E+0	1.183257E+0	1.160786E+0	1.076412E+0	1.056702E+0	1.128467E+0	1.192693E+0	1.077657E+0	1.092180E+0	1.009317E+0	1.041917E+0	1.074221E+0	1.064998E+0	1.046704E+0	1.112452E+0	1.048817E+0	1.161609E+0	1.131869E+0	1.149468E+0	1.013460E+0	1.082595E+0	1.100397E+0	1.232274E+0	1.033967E+0	1.072594E+0	1.100835E+0	1.033371E+0	1.089830E+0	1.112134E+0	1.091433E+0	1.048457E+0	1.066820E+0	1.129329E+0	1.167149E+0	1.190009E+0	1.116291E+0	1.081501E+0	1.188462E+0	1.175427E+0	1.071587E+0	1.062346E+0	1.061513E+0	1.022520E+0	1.061398E+0	1.102419E+0	1.112370E+0	1.043488E+0	1.073059E+0	1.120420E+0	1.202134E+0	1.080483E+0	1.030938E+0	1.197359E+0	1.201779E+0	1.146913E+0	1.082841E+0	1.035871E+0	1.149304E+0	1.082381E+0	1.116893E+0	1.171526E+0	1.154437E+0	1.122285E+0	1.097418E+0	1.186011E+0	1.206819E+0	1.202697E+0	1.014871E+0	1.174085E+0	1.061933E+0	1.100731E+0	1.037420E+0	1.145529E+0	1.044226E+0	1.119282E+0	1.037673E+0	1.042003E+0	1.137613E+0	1.045367E+0	1.071227E+0	1.212405E+0	1.214374E+0	1.075845E+0	1.054904E+0	1.184658E+0	1.195347E+0	1.082760E+0	1.066483E+0	1.114829E+0	1.050550E+0	1.070364E+0	1.025851E+0	1.145314E+0	1.163581E+0	1.044483E+0	1.009734E+0	1.140651E+0	1.223021E+0	1.138449E+0	1.049540E+0	1.181480E+0	1.100098E+0	1.021532E+0	1.144086E+0	1.034355E+0	1.051131E+0	1.057593E+0	1.123517E+0	1.131792E+0	1.034512E+0	9.709774E-1	1.074093E+0	1.169978E+0	1.061874E+0	1.025969E+0	1.002784E+0	1.169047E+0	1.121279E+0	1.103499E+0	1.117630E+0	1.047149E+0	1.126127E+0	1.125228E+0	1.106949E+0	1.127384E+0	1.166580E+0	1.100725E+0	1.112469E+0	1.216155E+0	1.219941E+0	1.077823E+0	1.036958E+0	1.135295E+0	1.155479E+0	9.951660E-1	1.078568E+0	1.086115E+0	1.084183E+0	1.014962E+0	1.014165E+0	1.067964E+0	1.082182E+0	1.055590E+0	1.053784E+0	1.012010E+0
5.394100E+2	1.095310E+0	1.088313E+0	1.213311E+0	1.202066E+0	9.904719E-1	1.091274E+0	1.164868E+0	1.175404E+0	9.848512E-1	1.004160E+0	1.174476E+0	1.069994E+0	1.061196E+0	1.127906E+0	1.128544E+0	1.059115E+0	1.042439E+0	1.033772E+0	1.120570E+0	1.038217E+0	1.103746E+0	1.104896E+0	1.210280E+0	1.067710E+0	1.086051E+0	1.031496E+0	1.095209E+0	1.133155E+0	1.010282E+0	1.029432E+0	1.011283E+0	1.023361E+0	9.620130E-1	9.911784E-1	1.055650E+0	9.927160E-1	1.044832E+0	1.006508E+0	1.081398E+0	1.108361E+0	9.604686E-1	1.067860E+0	1.077839E+0	1.125306E+0	1.023958E+0	1.009210E+0	1.067972E+0	1.060587E+0	1.034306E+0	1.028875E+0	1.050111E+0	1.067383E+0	1.077709E+0	1.098821E+0	1.150145E+0	1.138163E+0	1.041264E+0	1.082186E+0	1.171007E+0	1.174676E+0	1.072305E+0	1.032093E+0	1.083197E+0	1.020493E+0	1.067384E+0	1.081954E+0	1.099912E+0	1.038495E+0	1.028410E+0	1.132557E+0	1.203669E+0	1.096597E+0	9.872582E-1	1.118359E+0	1.090745E+0	1.225861E+0	1.086508E+0	1.085181E+0	1.154438E+0	1.050367E+0	1.019570E+0	1.060034E+0	1.062263E+0	1.101650E+0	1.089824E+0	1.158678E+0	1.171497E+0	1.153007E+0	9.389796E-1	1.158031E+0	1.145989E+0	1.135597E+0	9.625632E-1	1.012066E+0	1.049322E+0	1.052758E+0	1.022428E+0	1.017419E+0	1.076416E+0	1.051114E+0	1.025786E+0	1.121639E+0	1.093098E+0	1.111177E+0	9.917484E-1	1.175970E+0	1.141256E+0	1.139310E+0	1.000629E+0	1.068888E+0	9.634529E-1	1.094423E+0	1.025852E+0	1.136874E+0	1.070792E+0	1.094950E+0	9.875059E-1	1.127331E+0	1.168395E+0	1.203208E+0	9.996222E-1	1.148601E+0	1.141699E+0	1.084401E+0	1.138639E+0	1.013636E+0	1.027463E+0	9.871991E-1	1.044202E+0	1.061978E+0	1.078509E+0	9.833900E-1	1.084465E+0	1.152669E+0	1.083084E+0	1.021730E+0	1.000666E+0	1.153653E+0	1.148703E+0	1.154585E+0	1.032347E+0	1.054561E+0	1.114275E+0	1.113675E+0	1.131985E+0	1.072732E+0	1.095299E+0	1.016224E+0	1.031275E+0	1.179046E+0	1.142399E+0	1.068773E+0	1.054852E+0	1.104114E+0	1.147261E+0	1.017456E+0	1.022321E+0	1.080536E+0	9.851022E-1	1.003069E+0	9.512438E-1	1.006943E+0	1.061182E+0	1.006567E+0	1.051752E+0	1.043187E+0
5.396110E+2	1.006136E+0	1.053919E+0	1.129777E+0	1.152441E+0	9.919380E-1	9.854405E-1	1.105094E+0	1.092583E+0	9.806036E-1	9.456041E-1	1.087032E+0	1.067910E+0	1.009902E+0	1.071415E+0	9.988171E-1	9.458624E-1	1.040314E+0	9.841540E-1	1.051040E+0	9.456986E-1	1.035533E+0	1.077678E+0	1.118128E+0	1.023758E+0	9.683234E-1	1.026973E+0	1.030686E+0	1.071491E+0	1.006157E+0	1.002444E+0	1.006693E+0	9.958484E-1	9.493899E-1	9.842144E-1	9.999085E-1	9.594560E-1	9.777392E-1	1.014125E+0	1.096758E+0	9.807122E-1	9.490657E-1	9.948855E-1	1.044704E+0	1.130792E+0	1.014663E+0	9.690671E-1	9.742763E-1	1.065122E+0	9.640229E-1	9.476636E-1	9.954605E-1	1.045753E+0	9.919620E-1	1.044045E+0	1.097088E+0	1.140265E+0	1.005194E+0	1.017783E+0	1.088825E+0	1.121380E+0	9.903869E-1	1.005967E+0	1.031436E+0	9.583170E-1	9.588877E-1	1.041752E+0	1.014901E+0	1.001403E+0	9.912021E-1	1.041528E+0	1.072454E+0	1.082681E+0	9.946611E-1	1.102117E+0	1.132758E+0	1.130334E+0	9.369091E-1	1.045297E+0	1.048072E+0	1.085430E+0	1.018096E+0	1.066955E+0	1.058485E+0	1.068487E+0	9.669394E-1	1.142276E+0	1.085155E+0	1.132547E+0	9.184110E-1	1.068584E+0	1.000536E+0	1.062834E+0	9.655573E-1	1.027232E+0	9.597554E-1	9.819422E-1	9.198732E-1	1.063777E+0	1.037075E+0	9.720966E-1	9.856139E-1	1.120888E+0	1.080899E+0	1.048287E+0	9.542718E-1	1.135691E+0	1.090974E+0	1.024762E+0	1.025413E+0	1.057032E+0	9.755711E-1	1.032271E+0	9.841373E-1	1.086240E+0	1.014249E+0	9.738288E-1	9.626630E-1	1.071834E+0	1.147442E+0	1.159791E+0	9.728547E-1	1.025307E+0	1.059931E+0	1.065170E+0	1.078726E+0	1.024353E+0	9.510481E-1	9.608026E-1	1.004908E+0	1.000800E+0	9.783327E-1	9.358100E-1	9.959590E-1	1.118806E+0	1.054803E+0	1.098035E+0	9.018441E-1	1.108941E+0	1.061511E+0	1.100402E+0	9.882602E-1	1.042702E+0	1.059899E+0	1.017642E+0	1.015412E+0	1.032654E+0	1.010199E+0	1.035496E+0	1.088412E+0	1.145725E+0	1.125509E+0	1.137404E+0	9.929667E-1	1.105564E+0	1.071804E+0	1.075700E+0	1.013200E+0	1.010801E+0	9.815386E-1	9.726753E-1	9.762694E-1	9.945842E-1	9.792794E-1	9.575468E-1	9.157150E-1	1.069170E+0
5.398180E+2	8.105799E-1	8.165231E-1	9.087604E-1	9.026609E-1	7.573979E-1	8.019432E-1	9.448657E-1	9.294481E-1	7.590347E-1	8.074395E-1	9.018142E-1	8.601974E-1	8.284576E-1	8.295015E-1	8.178815E-1	7.848914E-1	8.009302E-1	8.285932E-1	8.674291E-1	7.554109E-1	8.160326E-1	8.300622E-1	9.026433E-1	8.111041E-1	7.886342E-1	7.826705E-1	8.284741E-1	8.723260E-1	8.102197E-1	8.276944E-1	8.401813E-1	7.706208E-1	7.418030E-1	7.808596E-1	7.865762E-1	7.702437E-1	7.465689E-1	8.250962E-1	8.436669E-1	7.953689E-1	7.438081E-1	8.040307E-1	8.014835E-1	8.839422E-1	7.866016E-1	7.401811E-1	7.896825E-1	8.519358E-1	8.122108E-1	7.954783E-1	7.808565E-1	8.145837E-1	7.884824E-1	8.297928E-1	8.773824E-1	8.824360E-1	8.140211E-1	8.410160E-1	8.488233E-1	8.691613E-1	8.028369E-1	8.409553E-1	8.104085E-1	7.427295E-1	7.344115E-1	8.246675E-1	7.803898E-1	7.360503E-1	7.515877E-1	8.860193E-1	8.813862E-1	8.263377E-1	7.755177E-1	8.016233E-1	7.688953E-1	8.358592E-1	7.616458E-1	7.675661E-1	8.602818E-1	8.552339E-1	7.777418E-1	8.501226E-1	8.272964E-1	8.356110E-1	7.501660E-1	8.603438E-1	8.983441E-1	8.716749E-1	7.410943E-1	8.614039E-1	8.134208E-1	8.301434E-1	7.649415E-1	7.944297E-1	8.279529E-1	7.559042E-1	7.729710E-1	8.045940E-1	8.265271E-1	7.831726E-1	7.610458E-1	8.613420E-1	8.634633E-1	8.596159E-1	7.467608E-1	8.766468E-1	8.586083E-1	8.899151E-1	7.421742E-1	8.502938E-1	8.195548E-1	7.997030E-1	7.683770E-1	7.762971E-1	7.859002E-1	8.217074E-1	7.142337E-1	8.269066E-1	8.892748E-1	8.308393E-1	7.854822E-1	8.467158E-1	8.426014E-1	8.499353E-1	8.242897E-1	7.678846E-1	7.786065E-1	7.868492E-1	8.389996E-1	8.007123E-1	8.091146E-1	7.220484E-1	7.933616E-1	8.606924E-1	8.370376E-1	8.161299E-1	7.098456E-1	8.194044E-1	8.343893E-1	9.951319E-1	8.111876E-1	8.529520E-1	8.054467E-1	8.494043E-1	8.237329E-1	7.907270E-1	8.283616E-1	8.464830E-1	7.929557E-1	8.723334E-1	9.151473E-1	9.322659E-1	7.640643E-1	7.966548E-1	8.267564E-1	8.535131E-1	7.631301E-1	7.988081E-1	7.705464E-1	7.724741E-1	7.824991E-1	7.589969E-1	7.839746E-1	6.951351E-1	8.081030E-1	8.405266E-1
5.400140E+2	6.424017E-1	7.234098E-1	7.782374E-1	7.670186E-1	6.540539E-1	6.763122E-1	7.298447E-1	7.295036E-1	6.507273E-1	5.758493E-1	7.344992E-1	7.421010E-1	7.335263E-1	6.912651E-1	7.065883E-1	6.576416E-1	7.095670E-1	6.904667E-1	6.655912E-1	6.569859E-1	7.397142E-1	7.172072E-1	7.127959E-1	6.876484E-1	6.647109E-1	6.372525E-1	7.326887E-1	7.234831E-1	7.235939E-1	6.435002E-1	6.494138E-1	6.605659E-1	6.183738E-1	6.924147E-1	6.613291E-1	6.652902E-1	6.841268E-1	6.755354E-1	7.090752E-1	6.828658E-1	5.741013E-1	6.335239E-1	7.387392E-1	7.454325E-1	6.700674E-1	6.056671E-1	6.512369E-1	6.523571E-1	6.442345E-1	6.903810E-1	6.688888E-1	6.503325E-1	6.761946E-1	7.784829E-1	6.957666E-1	7.072795E-1	6.170756E-1	6.752105E-1	7.164590E-1	7.100228E-1	6.411558E-1	6.821322E-1	6.928997E-1	6.731201E-1	6.401311E-1	6.543611E-1	7.129683E-1	6.197805E-1	6.719638E-1	6.933410E-1	7.187103E-1	6.893784E-1	6.289276E-1	6.635590E-1	6.803677E-1	7.427007E-1	6.670475E-1	6.667716E-1	6.409470E-1	6.311348E-1	6.155393E-1	7.109508E-1	6.943242E-1	7.272789E-1	6.424688E-1	7.510075E-1	7.272306E-1	7.554878E-1	6.403789E-1	7.107966E-1	7.023215E-1	6.952289E-1	6.212164E-1	6.457993E-1	7.303756E-1	6.765050E-1	6.018161E-1	6.760557E-1	7.019466E-1	6.517159E-1	6.807019E-1	8.050818E-1	7.199412E-1	7.543283E-1	6.405770E-1	7.297491E-1	6.910006E-1	7.420193E-1	6.380843E-1	6.924618E-1	6.635399E-1	6.994583E-1	6.331677E-1	7.003456E-1	6.815116E-1	6.515629E-1	6.181307E-1	6.885335E-1	7.119245E-1	7.918366E-1	6.993917E-1	7.204323E-1	7.177982E-1	7.190202E-1	6.717843E-1	6.864443E-1	6.338911E-1	6.250797E-1	6.636318E-1	6.776364E-1	6.832171E-1	6.241317E-1	6.571445E-1	7.229812E-1	6.913888E-1	6.939005E-1	5.976117E-1	7.028576E-1	7.183681E-1	7.691108E-1	6.044833E-1	6.765430E-1	6.437123E-1	6.999387E-1	7.188952E-1	6.121960E-1	6.908919E-1	6.693294E-1	6.674055E-1	7.322302E-1	7.147671E-1	7.776577E-1	6.626612E-1	7.132639E-1	6.616484E-1	7.032316E-1	6.985231E-1	6.363274E-1	6.878602E-1	6.905440E-1	6.359200E-1	6.330929E-1	6.926229E-1	6.965777E-1	6.273977E-1	8.197406E-1
5.402100E+2	5.360191E-1	5.229230E-1	5.876754E-1	5.991207E-1	5.045351E-1	5.011905E-1	5.895427E-1	6.240934E-1	5.289702E-1	5.067676E-1	5.926604E-1	5.802387E-1	5.367702E-1	5.251158E-1	5.877849E-1	5.450262E-1	5.374647E-1	4.986982E-1	5.859364E-1	5.250967E-1	5.262925E-1	5.685050E-1	5.714489E-1	5.428638E-1	5.524914E-1	5.519412E-1	5.590783E-1	5.420361E-1	5.317811E-1	5.470175E-1	5.169909E-1	5.108410E-1	5.089712E-1	4.841852E-1	5.532869E-1	4.901218E-1	5.386493E-1	5.515938E-1	5.869188E-1	5.645922E-1	4.768388E-1	4.840669E-1	5.272427E-1	5.596102E-1	5.621139E-1	4.831254E-1	5.421580E-1	5.259998E-1	6.083889E-1	5.047550E-1	5.955767E-1	5.333958E-1	5.577820E-1	5.794856E-1	5.801313E-1	5.804670E-1	5.362774E-1	5.237938E-1	5.906398E-1	5.598923E-1	5.606748E-1	5.281213E-1	5.537074E-1	5.244384E-1	5.443547E-1	5.834616E-1	5.290237E-1	4.999438E-1	4.985775E-1	5.325220E-1	5.284097E-1	5.267839E-1	5.437873E-1	5.284476E-1	5.295704E-1	5.642786E-1	5.614493E-1	5.434967E-1	5.690583E-1	5.975963E-1	5.646668E-1	5.256443E-1	5.764632E-1	5.570431E-1	5.485796E-1	6.065264E-1	5.828053E-1	5.852269E-1	5.112924E-1	5.257870E-1	5.451738E-1	5.618299E-1	4.954572E-1	5.381193E-1	5.228408E-1	5.198515E-1	5.290570E-1	5.376838E-1	5.540533E-1	5.389360E-1	5.430632E-1	5.522863E-1	5.448450E-1	5.628313E-1	4.837294E-1	6.152316E-1	5.553906E-1	5.469991E-1	5.049617E-1	4.872059E-1	4.666263E-1	5.270374E-1	4.922045E-1	5.392362E-1	5.336296E-1	4.864644E-1	5.017613E-1	5.708797E-1	6.071613E-1	5.909337E-1	5.474683E-1	6.075996E-1	5.363314E-1	5.607376E-1	5.472900E-1	5.621394E-1	5.054053E-1	5.303201E-1	5.413836E-1	5.185736E-1	5.261829E-1	4.972537E-1	5.119386E-1	5.769929E-1	5.407912E-1	5.589535E-1	5.249062E-1	5.386649E-1	5.467961E-1	6.088837E-1	5.589505E-1	5.572073E-1	5.405370E-1	5.706922E-1	5.475583E-1	5.677456E-1	5.890635E-1	5.292372E-1	5.471188E-1	6.352936E-1	5.873219E-1	6.124921E-1	5.142852E-1	5.537342E-1	5.861909E-1	5.644554E-1	5.259828E-1	5.094107E-1	5.267663E-1	4.830755E-1	5.000668E-1	5.071891E-1	4.721175E-1	4.673282E-1	5.380594E-1	5.547211E-1
5.404120E+2	4.906507E-1	4.969177E-1	5.267652E-1	5.652098E-1	4.788824E-1	4.501766E-1	5.604858E-1	5.036252E-1	4.454397E-1	4.620284E-1	5.169207E-1	4.947919E-1	5.145685E-1	4.878978E-1	4.853687E-1	4.763115E-1	4.857634E-1	4.564555E-1	4.819802E-1	4.463567E-1	5.060314E-1	5.001281E-1	5.659057E-1	5.144237E-1	5.249530E-1	4.440084E-1	5.151764E-1	5.526684E-1	5.084060E-1	4.754990E-1	4.540573E-1	4.634923E-1	5.293084E-1	4.563292E-1	4.782769E-1	4.701656E-1	4.695638E-1	5.010474E-1	5.327895E-1	5.169949E-1	4.292138E-1	5.191506E-1	5.067986E-1	5.205259E-1	5.728374E-1	5.105908E-1	4.428691E-1	4.819377E-1	5.345915E-1	4.624440E-1	4.716135E-1	4.833769E-1	5.074226E-1	5.462035E-1	5.107503E-1	5.902754E-1	4.489872E-1	5.395514E-1	5.288219E-1	4.743179E-1	5.225888E-1	4.799932E-1	5.117408E-1	4.548293E-1	5.159208E-1	4.518947E-1	5.114359E-1	4.357456E-1	4.881597E-1	4.741108E-1	5.568013E-1	4.843041E-1	4.867809E-1	5.158960E-1	4.725527E-1	5.153313E-1	5.555824E-1	4.811336E-1	4.766300E-1	5.145121E-1	5.558203E-1	4.802790E-1	4.812676E-1	5.312502E-1	4.823050E-1	5.323334E-1	5.160861E-1	5.304210E-1	4.630627E-1	5.464288E-1	5.100903E-1	5.330274E-1	5.493540E-1	5.146109E-1	4.908003E-1	4.583352E-1	5.339077E-1	4.583130E-1	5.154402E-1	4.326220E-1	4.785252E-1	5.500359E-1	4.752362E-1	4.836883E-1	4.559685E-1	5.030842E-1	4.883480E-1	5.324995E-1	5.375339E-1	5.131407E-1	4.492073E-1	4.909491E-1	5.137793E-1	4.978080E-1	4.647618E-1	4.900694E-1	4.671124E-1	5.028042E-1	5.158674E-1	5.320613E-1	4.700591E-1	4.872935E-1	5.054891E-1	4.594073E-1	5.107192E-1	4.628386E-1	4.655076E-1	4.694021E-1	4.838981E-1	5.070572E-1	4.855706E-1	4.862214E-1	4.849716E-1	5.393665E-1	4.948341E-1	4.812348E-1	4.409074E-1	5.371991E-1	4.933560E-1	5.438632E-1	4.577664E-1	4.897568E-1	4.959206E-1	5.252028E-1	4.896626E-1	5.094503E-1	4.908710E-1	5.077420E-1	4.937411E-1	5.406295E-1	5.497031E-1	5.695032E-1	4.501618E-1	4.978978E-1	4.733793E-1	5.227499E-1	4.340115E-1	4.682671E-1	5.025308E-1	4.830755E-1	4.693210E-1	4.770639E-1	4.721171E-1	4.889561E-1	4.020212E-1	4.455956E-1
5.406090E+2	4.757884E-1	4.574918E-1	5.354667E-1	4.932535E-1	4.187814E-1	4.707348E-1	4.899185E-1	5.094812E-1	4.546416E-1	4.646601E-1	4.921338E-1	4.996548E-1	5.145691E-1	4.653015E-1	4.942447E-1	4.489525E-1	4.772649E-1	4.591373E-1	5.245076E-1	4.949132E-1	4.682099E-1	5.001282E-1	5.527413E-1	5.008507E-1	5.049876E-1	4.789091E-1	4.918955E-1	5.158117E-1	5.029066E-1	4.572814E-1	4.278351E-1	4.225417E-1	4.963473E-1	4.514532E-1	5.037391E-1	4.531663E-1	3.812142E-1	4.906612E-1	5.225493E-1	4.924742E-1	4.640932E-1	4.693318E-1	4.877632E-1	5.047551E-1	5.213621E-1	4.486163E-1	4.568531E-1	4.832335E-1	4.945308E-1	4.542544E-1	5.069366E-1	4.509322E-1	4.972147E-1	4.616123E-1	4.801410E-1	5.342251E-1	4.619723E-1	5.011842E-1	5.070036E-1	5.178556E-1	4.773184E-1	4.806802E-1	4.732702E-1	4.568563E-1	4.313680E-1	4.687069E-1	4.623346E-1	4.257592E-1	4.412786E-1	4.953513E-1	5.498948E-1	4.740507E-1	4.712329E-1	4.782419E-1	4.635502E-1	5.058575E-1	4.822508E-1	4.289236E-1	5.074390E-1	4.474352E-1	5.425481E-1	4.825857E-1	4.676674E-1	4.973503E-1	4.470962E-1	5.198378E-1	5.019579E-1	5.143459E-1	4.751195E-1	4.799167E-1	4.771980E-1	4.731498E-1	5.523483E-1	4.440880E-1	4.405558E-1	4.755027E-1	4.646142E-1	4.576101E-1	5.059701E-1	4.491431E-1	4.548168E-1	4.945258E-1	5.032233E-1	4.836883E-1	5.364744E-1	5.315160E-1	4.540646E-1	5.411996E-1	5.290373E-1	4.523790E-1	4.431492E-1	4.541927E-1	5.051495E-1	4.747927E-1	4.734604E-1	4.684400E-1	4.305016E-1	4.998439E-1	5.472965E-1	5.313247E-1	5.105725E-1	5.126999E-1	4.889920E-1	4.897326E-1	5.076065E-1	4.521225E-1	4.628018E-1	4.538345E-1	4.802596E-1	4.840259E-1	4.794782E-1	4.420901E-1	4.649185E-1	5.310890E-1	5.096813E-1	4.812347E-1	4.522015E-1	4.858887E-1	4.764800E-1	4.943243E-1	5.047447E-1	4.586255E-1	4.798871E-1	5.483080E-1	5.248691E-1	4.613554E-1	4.930528E-1	4.795753E-1	4.907342E-1	5.269978E-1	4.806059E-1	5.250065E-1	4.986270E-1	5.218280E-1	5.309057E-1	4.709787E-1	5.533459E-1	4.731483E-1	4.447936E-1	4.388064E-1	5.308123E-1	4.747474E-1	4.826182E-1	4.976074E-1	5.258771E-1	5.443285E-1
5.408060E+2	4.085171E-1	4.004494E-1	4.832581E-1	4.858095E-1	3.953275E-1	4.471316E-1	4.791260E-1	4.475742E-1	3.944714E-1	3.942621E-1	4.563289E-1	4.239336E-1	4.410726E-1	3.968479E-1	4.191395E-1	4.075960E-1	4.397282E-1	3.867213E-1	4.279767E-1	4.174855E-1	4.236345E-1	4.151555E-1	4.772177E-1	4.685324E-1	4.237493E-1	4.188033E-1	3.774858E-1	4.024073E-1	4.506564E-1	4.093774E-1	3.898121E-1	4.084649E-1	4.809187E-1	3.901687E-1	4.025780E-1	4.036460E-1	3.805507E-1	4.276515E-1	3.725960E-1	3.943942E-1	3.990281E-1	4.061816E-1	4.828287E-1	4.553857E-1	4.620235E-1	4.183327E-1	4.086069E-1	4.275073E-1	4.467381E-1	4.385579E-1	4.269591E-1	4.509321E-1	4.196338E-1	4.761732E-1	4.515720E-1	4.284315E-1	4.612510E-1	4.080043E-1	4.640941E-1	4.225235E-1	4.435449E-1	3.981755E-1	4.494879E-1	4.352295E-1	4.186483E-1	4.197344E-1	4.616016E-1	4.029331E-1	3.787707E-1	3.982538E-1	4.516761E-1	4.052041E-1	4.216302E-1	4.501864E-1	4.440444E-1	4.616464E-1	4.851839E-1	4.107949E-1	4.465540E-1	4.215187E-1	4.629217E-1	4.056947E-1	4.397131E-1	4.067055E-1	4.546899E-1	4.550161E-1	4.328848E-1	4.566177E-1	3.829150E-1	4.669201E-1	4.611186E-1	4.253989E-1	4.423089E-1	4.023801E-1	4.259916E-1	4.204242E-1	4.660003E-1	4.126574E-1	4.134455E-1	3.923940E-1	4.001561E-1	4.540188E-1	4.479677E-1	4.370511E-1	4.504161E-1	4.335847E-1	4.731108E-1	4.310018E-1	5.141670E-1	4.434864E-1	3.575678E-1	3.886991E-1	4.418593E-1	4.609833E-1	4.596882E-1	4.323926E-1	4.161190E-1	4.465662E-1	4.859347E-1	4.864347E-1	4.107366E-1	4.342401E-1	4.545632E-1	4.475737E-1	4.741493E-1	4.314058E-1	4.053217E-1	4.125462E-1	4.496983E-1	4.365226E-1	4.327743E-1	3.910628E-1	4.151345E-1	4.656204E-1	4.205957E-1	4.367235E-1	4.027897E-1	4.419091E-1	4.476506E-1	4.842623E-1	4.476490E-1	4.097058E-1	4.366644E-1	4.450545E-1	4.333327E-1	4.300216E-1	4.159540E-1	4.165702E-1	4.012710E-1	4.626249E-1	4.698573E-1	4.865437E-1	4.725310E-1	4.065307E-1	4.718852E-1	4.450920E-1	4.545341E-1	3.978353E-1	3.948961E-1	4.288954E-1	4.385748E-1	4.090916E-1	4.007157E-1	3.923548E-1	4.365380E-1	4.092209E-1
5.410240E+2	3.334233E-1	3.618618E-1	4.258288E-1	3.799428E-1	3.015115E-1	3.473881E-1	3.828237E-1	3.856664E-1	3.286376E-1	3.205750E-1	3.516719E-1	3.669693E-1	3.836542E-1	3.450092E-1	3.474480E-1	3.350643E-1	3.582805E-1	3.371029E-1	3.631723E-1	3.374327E-1	3.642004E-1	3.335022E-1	4.030802E-1	3.418451E-1	3.487065E-1	3.709767E-1	3.428968E-1	3.705129E-1	3.770938E-1	3.257141E-1	3.419558E-1	3.323228E-1	3.364498E-1	3.247054E-1	3.296323E-1	3.814724E-1	3.274075E-1	3.653344E-1	3.367540E-1	3.879041E-1	3.540868E-1	3.500478E-1	3.820157E-1	3.683023E-1	3.726569E-1	3.760772E-1	3.638569E-1	3.264216E-1	3.961343E-1	3.471098E-1	3.269885E-1	3.542735E-1	3.590665E-1	4.047552E-1	3.665463E-1	3.646745E-1	3.537616E-1	3.305823E-1	3.891842E-1	3.647230E-1	3.558782E-1	3.431719E-1	3.732478E-1	3.615653E-1	3.812350E-1	3.700310E-1	3.186968E-1	3.808205E-1	3.244478E-1	3.906682E-1	3.787785E-1	3.217101E-1	3.557383E-1	3.062150E-1	3.502653E-1	4.095414E-1	3.649188E-1	3.672856E-1	3.621943E-1	3.917912E-1	4.024643E-1	3.664802E-1	3.407399E-1	3.713315E-1	3.759888E-1	3.503650E-1	3.693057E-1	3.608914E-1	3.566723E-1	3.507160E-1	3.565967E-1	3.784060E-1	3.929041E-1	3.485408E-1	3.160348E-1	3.453162E-1	3.606732E-1	3.494415E-1	3.821185E-1	3.176869E-1	3.441791E-1	3.535006E-1	3.532431E-1	4.017192E-1	3.400677E-1	3.917265E-1	3.725462E-1	3.715529E-1	3.775039E-1	3.286316E-1	3.174279E-1	3.365719E-1	3.677815E-1	3.528100E-1	3.480505E-1	3.357843E-1	3.527041E-1	3.673907E-1	4.245732E-1	4.106366E-1	3.354983E-1	3.901527E-1	3.448228E-1	3.884020E-1	3.838908E-1	3.513928E-1	3.167340E-1	3.089866E-1	3.652881E-1	3.300012E-1	3.522266E-1	3.255550E-1	3.681151E-1	4.317569E-1	3.689825E-1	3.547660E-1	3.378493E-1	3.854672E-1	3.717098E-1	4.393675E-1	3.862150E-1	3.882104E-1	3.906541E-1	3.569641E-1	3.981262E-1	3.520513E-1	3.701303E-1	3.928512E-1	3.674398E-1	3.815926E-1	3.961546E-1	3.915156E-1	3.591984E-1	3.949287E-1	3.553383E-1	3.573684E-1	3.777652E-1	3.322850E-1	3.670970E-1	3.264821E-1	3.806586E-1	3.472984E-1	3.324636E-1	3.563094E-1	3.208054E-1	3.988281E-1
5.415040E+2	3.694054E-1	3.744448E-1	4.136465E-1	4.328762E-1	3.557488E-1	3.923106E-1	4.077300E-1	3.572229E-1	3.357166E-1	3.903149E-1	3.943610E-1	3.614115E-1	4.441353E-1	3.895376E-1	3.576893E-1	3.662397E-1	3.752783E-1	3.920854E-1	3.894993E-1	3.577745E-1	3.452905E-1	3.905931E-1	4.210950E-1	3.825658E-1	3.604102E-1	3.496490E-1	3.635177E-1	4.194184E-1	3.956565E-1	3.304372E-1	3.399894E-1	3.579166E-1	3.259308E-1	3.497763E-1	3.709226E-1	3.637334E-1	3.606218E-1	3.570253E-1	3.711334E-1	3.561721E-1	3.487201E-1	3.289970E-1	3.700306E-1	3.614456E-1	3.869557E-1	3.521323E-1	3.421814E-1	3.478048E-1	3.954312E-1	3.812324E-1	3.556463E-1	3.495419E-1	3.434138E-1	3.478994E-1	4.053180E-1	3.934003E-1	4.013742E-1	3.559330E-1	4.124571E-1	3.669749E-1	4.033042E-1	3.699857E-1	3.599580E-1	3.622413E-1	3.924593E-1	3.561438E-1	3.282238E-1	3.694068E-1	3.482605E-1	3.648765E-1	3.818477E-1	3.671188E-1	3.616614E-1	3.423925E-1	3.712715E-1	3.732251E-1	3.854523E-1	3.317538E-1	3.614613E-1	3.651128E-1	3.449568E-1	3.872405E-1	3.875823E-1	3.720683E-1	3.704658E-1	3.722334E-1	3.787247E-1	3.740448E-1	3.474513E-1	3.751798E-1	3.273597E-1	3.602151E-1	3.869149E-1	3.348907E-1	3.014711E-1	3.875195E-1	3.461217E-1	3.410133E-1	3.952317E-1	3.650974E-1	3.777652E-1	4.165120E-1	3.848173E-1	3.812269E-1	3.942013E-1	3.964653E-1	4.114008E-1	4.150520E-1	3.867091E-1	3.427105E-1	3.613540E-1	3.532795E-1	3.641856E-1	3.320956E-1	3.734230E-1	3.372262E-1	4.023896E-1	4.162280E-1	3.908999E-1	4.349216E-1	3.289874E-1	4.021080E-1	3.842721E-1	3.639943E-1	3.877809E-1	3.871123E-1	3.404022E-1	3.570435E-1	3.674718E-1	3.602309E-1	3.779479E-1	3.503789E-1	3.494454E-1	3.888635E-1	4.106974E-1	3.674837E-1	3.420849E-1	4.184528E-1	3.724121E-1	3.967952E-1	3.833245E-1	3.563387E-1	3.655577E-1	3.735721E-1	3.801315E-1	3.819279E-1	3.526745E-1	4.061932E-1	3.569149E-1	4.012834E-1	4.099734E-1	4.367669E-1	4.009522E-1	3.789759E-1	3.635565E-1	3.573677E-1	3.838459E-1	3.267061E-1	3.571176E-1	3.641443E-1	3.563474E-1	3.720159E-1	3.744649E-1	3.491005E-1	3.654739E-1	4.144173E-1
5.420110E+2	4.491921E-1	4.826579E-1	5.319866E-1	5.279910E-1	4.568941E-1	4.296189E-1	5.198057E-1	5.262128E-1	4.270337E-1	4.521599E-1	4.990189E-1	4.927079E-1	5.023188E-1	5.264449E-1	4.812719E-1	4.572239E-1	4.808061E-1	5.040622E-1	4.826549E-1	4.502933E-1	4.668594E-1	4.636168E-1	5.305688E-1	4.594830E-1	4.863993E-1	4.821406E-1	4.932259E-1	5.136851E-1	5.035939E-1	5.294750E-1	4.337347E-1	4.500553E-1	4.591782E-1	4.709534E-1	4.762124E-1	4.612962E-1	4.549497E-1	4.865070E-1	4.654937E-1	4.722813E-1	4.674479E-1	5.437092E-1	4.856489E-1	4.423572E-1	4.999148E-1	5.084790E-1	4.456661E-1	4.475945E-1	4.769599E-1	5.293235E-1	4.622821E-1	4.428208E-1	5.135470E-1	5.226287E-1	4.971463E-1	4.879844E-1	4.540372E-1	4.676114E-1	4.960941E-1	4.638093E-1	4.837861E-1	5.178083E-1	4.487888E-1	4.304992E-1	4.747670E-1	4.928273E-1	4.806563E-1	4.728370E-1	4.457436E-1	5.021790E-1	5.314794E-1	4.279091E-1	4.468015E-1	4.752887E-1	4.688013E-1	5.019097E-1	4.749174E-1	4.804089E-1	4.729623E-1	4.535333E-1	4.983111E-1	4.902743E-1	4.223365E-1	4.833480E-1	4.829949E-1	5.268671E-1	4.988184E-1	5.121533E-1	4.857590E-1	4.661563E-1	5.078968E-1	4.989199E-1	4.408125E-1	4.501545E-1	4.616725E-1	4.797946E-1	5.034184E-1	4.344317E-1	4.811993E-1	4.455517E-1	4.482304E-1	5.117795E-1	5.068116E-1	5.077135E-1	4.712371E-1	5.244081E-1	4.792058E-1	5.397492E-1	4.943400E-1	4.812777E-1	4.567812E-1	4.869398E-1	4.907652E-1	4.640524E-1	4.741858E-1	4.706028E-1	4.965318E-1	5.442414E-1	5.009012E-1	5.364761E-1	4.765705E-1	5.112053E-1	4.897091E-1	5.060046E-1	5.122758E-1	4.957007E-1	4.391336E-1	4.490959E-1	4.802593E-1	4.869044E-1	4.930158E-1	4.538120E-1	4.780567E-1	4.844329E-1	4.729159E-1	5.109089E-1	4.677307E-1	4.998157E-1	4.814024E-1	5.229647E-1	4.967948E-1	4.534373E-1	4.736131E-1	4.804354E-1	5.475585E-1	4.562548E-1	5.097819E-1	4.758694E-1	4.696835E-1	5.020056E-1	5.412577E-1	5.408443E-1	4.956444E-1	5.073249E-1	4.920562E-1	4.788882E-1	4.910187E-1	4.285180E-1	4.490697E-1	4.480567E-1	5.315273E-1	4.732024E-1	4.385166E-1	4.485855E-1	4.466905E-1	5.703108E-1
5.425080E+2	6.337976E-1	6.755949E-1	7.547435E-1	6.991985E-1	6.188732E-1	6.489023E-1	7.672045E-1	7.378686E-1	6.153328E-1	6.758542E-1	7.159090E-1	7.122292E-1	6.791697E-1	7.098736E-1	6.499175E-1	6.843641E-1	6.741550E-1	6.750444E-1	6.844927E-1	6.425498E-1	6.647469E-1	7.112327E-1	7.661476E-1	6.753681E-1	6.447458E-1	7.064070E-1	6.714927E-1	6.696155E-1	6.740945E-1	7.474050E-1	6.264695E-1	6.394511E-1	6.401141E-1	7.105214E-1	6.241686E-1	6.763771E-1	6.196914E-1	6.665343E-1	6.637235E-1	6.857504E-1	6.371550E-1	7.001828E-1	6.534354E-1	6.789206E-1	6.893705E-1	7.282088E-1	6.435450E-1	6.672602E-1	6.667247E-1	6.787793E-1	6.555594E-1	6.537120E-1	6.544174E-1	6.931980E-1	6.957669E-1	7.191900E-1	6.286181E-1	7.245409E-1	6.510040E-1	7.122746E-1	6.619946E-1	7.453868E-1	6.362437E-1	6.373007E-1	6.984946E-1	7.347634E-1	6.843869E-1	6.311931E-1	6.563363E-1	6.576876E-1	7.194772E-1	6.403064E-1	6.533595E-1	7.373899E-1	6.751159E-1	6.471734E-1	7.183802E-1	6.907010E-1	6.996319E-1	6.951633E-1	7.239203E-1	7.555478E-1	6.633480E-1	6.823257E-1	6.749162E-1	6.822813E-1	6.864146E-1	7.174906E-1	6.808067E-1	7.062101E-1	6.803935E-1	6.777963E-1	7.215248E-1	7.314895E-1	6.364393E-1	6.514693E-1	6.939756E-1	6.542813E-1	6.334642E-1	6.165170E-1	6.793846E-1	7.600739E-1	6.991299E-1	6.462141E-1	6.967920E-1	7.021070E-1	6.734780E-1	7.028706E-1	7.081853E-1	7.057994E-1	5.991641E-1	6.479990E-1	6.899845E-1	6.934409E-1	6.974599E-1	6.393060E-1	6.194383E-1	7.477307E-1	7.007007E-1	6.726193E-1	6.328344E-1	6.868067E-1	6.690243E-1	6.820384E-1	6.678932E-1	6.600115E-1	6.447108E-1	6.223723E-1	6.832783E-1	6.574832E-1	6.520804E-1	6.117199E-1	6.834198E-1	7.004055E-1	6.807827E-1	6.875415E-1	6.279642E-1	6.581445E-1	6.944607E-1	7.505336E-1	6.702530E-1	6.350349E-1	6.771752E-1	6.472292E-1	7.666203E-1	6.449867E-1	6.377959E-1	6.552462E-1	6.448521E-1	7.329869E-1	7.946118E-1	7.693628E-1	6.820474E-1	6.791828E-1	6.482008E-1	6.485845E-1	7.144848E-1	6.725891E-1	6.272723E-1	6.409891E-1	6.866864E-1	6.160990E-1	6.548219E-1	5.942090E-1	5.624247E-1	7.885616E-1
5.430120E+2	8.833271E-1	9.264134E-1	9.844627E-1	9.704817E-1	8.006417E-1	8.285923E-1	9.780737E-1	1.029838E+0	8.248683E-1	8.567844E-1	9.417492E-1	9.261932E-1	9.685609E-1	9.816946E-1	8.527025E-1	8.377006E-1	8.965419E-1	9.412400E-1	9.734110E-1	7.928124E-1	8.714145E-1	9.216733E-1	9.760885E-1	9.054731E-1	8.919044E-1	8.880178E-1	9.043042E-1	9.183965E-1	8.954691E-1	9.646603E-1	8.644374E-1	8.339656E-1	8.729469E-1	9.333752E-1	8.898008E-1	8.485899E-1	8.521902E-1	8.797972E-1	9.636295E-1	9.158059E-1	8.538148E-1	9.836587E-1	8.874919E-1	9.387977E-1	9.424562E-1	9.246985E-1	8.889716E-1	8.642472E-1	8.867109E-1	9.435693E-1	8.408388E-1	8.571680E-1	8.892011E-1	9.511330E-1	9.188749E-1	9.524977E-1	8.486479E-1	9.259734E-1	9.877334E-1	8.871772E-1	8.200824E-1	1.008717E+0	8.992394E-1	8.238283E-1	8.616138E-1	9.701215E-1	8.617362E-1	8.409071E-1	8.044224E-1	9.042251E-1	9.297289E-1	8.761419E-1	8.643599E-1	8.990811E-1	8.881814E-1	9.677018E-1	9.603761E-1	9.372503E-1	8.588139E-1	8.956328E-1	9.524776E-1	1.003904E+0	8.597834E-1	8.916194E-1	8.758120E-1	9.517179E-1	9.517189E-1	9.564395E-1	8.772735E-1	9.875473E-1	8.770107E-1	9.165499E-1	8.907003E-1	9.369920E-1	8.213994E-1	8.574791E-1	9.593710E-1	9.549068E-1	9.124944E-1	8.535697E-1	8.308533E-1	9.476079E-1	8.936023E-1	8.652691E-1	8.848704E-1	1.023545E+0	9.241276E-1	9.174653E-1	9.029128E-1	9.977519E-1	8.407609E-1	8.752210E-1	9.805419E-1	9.711632E-1	8.794144E-1	8.736168E-1	8.162206E-1	9.852587E-1	9.424049E-1	9.699266E-1	8.317824E-1	1.037263E+0	8.720092E-1	9.386924E-1	9.542312E-1	9.643439E-1	7.995700E-1	8.254297E-1	9.270475E-1	9.705707E-1	8.889855E-1	8.165179E-1	8.521355E-1	9.810954E-1	9.133968E-1	8.556950E-1	8.573737E-1	9.396170E-1	8.850171E-1	9.858438E-1	8.979172E-1	9.730289E-1	9.030442E-1	9.165545E-1	9.708180E-1	9.517688E-1	9.294636E-1	8.909566E-1	9.034697E-1	9.533671E-1	9.558379E-1	9.850591E-1	9.116954E-1	9.859163E-1	8.835353E-1	9.246990E-1	8.893058E-1	9.292120E-1	7.869412E-1	8.610119E-1	9.126326E-1	8.849011E-1	8.553761E-1	8.724798E-1	8.933799E-1	9.600450E-1
5.435330E+2	8.997535E-1	9.381568E-1	1.000995E+0	1.006874E+0	8.673390E-1	9.161533E-1	1.025395E+0	1.037367E+0	8.673416E-1	9.409989E-1	9.624060E-1	1.011640E+0	1.009902E+0	1.034198E+0	9.121047E-1	9.102326E-1	9.836551E-1	9.606844E-1	9.268324E-1	8.603974E-1	9.544874E-1	9.893853E-1	1.048840E+0	9.268031E-1	9.841580E-1	9.500629E-1	9.156120E-1	1.002032E+0	9.518448E-1	9.606120E-1	8.919707E-1	8.486822E-1	9.557005E-1	9.953572E-1	9.304035E-1	8.737191E-1	9.245966E-1	9.462694E-1	9.848429E-1	9.028250E-1	9.074776E-1	1.013130E+0	9.474150E-1	9.854251E-1	1.006085E+0	1.060621E+0	9.358187E-1	9.374694E-1	1.027278E+0	1.007036E+0	8.974888E-1	9.328723E-1	9.354778E-1	9.705471E-1	9.617266E-1	1.013452E+0	9.005895E-1	9.739337E-1	1.007370E+0	9.862635E-1	9.997280E-1	1.008029E+0	9.300157E-1	8.468059E-1	8.833134E-1	1.032981E+0	9.386856E-1	9.100987E-1	8.952074E-1	1.001323E+0	1.007230E+0	9.501154E-1	8.961946E-1	9.891548E-1	9.069373E-1	1.007176E+0	1.056441E+0	1.027169E+0	9.285020E-1	9.512759E-1	9.768082E-1	1.065417E+0	9.821778E-1	9.225713E-1	9.420866E-1	1.050902E+0	9.587835E-1	9.761694E-1	9.276313E-1	1.020421E+0	9.778775E-1	9.226135E-1	9.947514E-1	1.023440E+0	9.262586E-1	9.476077E-1	9.718439E-1	1.004777E+0	9.052090E-1	8.966704E-1	9.079038E-1	1.017370E+0	9.402473E-1	9.818624E-1	9.903611E-1	1.115947E+0	9.104136E-1	1.017512E+0	1.000630E+0	9.836735E-1	8.331874E-1	9.246752E-1	9.611228E-1	1.069362E+0	8.881131E-1	9.579688E-1	9.182073E-1	9.830381E-1	1.057645E+0	9.780207E-1	8.780830E-1	1.024559E+0	9.717082E-1	9.460885E-1	1.020368E+0	1.050071E+0	8.590793E-1	8.944698E-1	9.015793E-1	1.025271E+0	9.465197E-1	8.565112E-1	9.116010E-1	9.795902E-1	1.003190E+0	9.397723E-1	8.630213E-1	9.550103E-1	9.609587E-1	9.935841E-1	1.020060E+0	9.752521E-1	9.518447E-1	9.418261E-1	9.974178E-1	9.517687E-1	9.738311E-1	9.561853E-1	9.688763E-1	9.639680E-1	9.972955E-1	1.004667E+0	1.004151E+0	9.866413E-1	8.984779E-1	9.246996E-1	1.012441E+0	9.647767E-1	9.038429E-1	9.171746E-1	1.047772E+0	9.814538E-1	9.204780E-1	9.171762E-1	8.426210E-1	1.012008E+0
5.440170E+2	8.927136E-1	8.869872E-1	1.041022E+0	1.020107E+0	9.091163E-1	8.712299E-1	9.506774E-1	1.010596E+0	9.013197E-1	9.087601E-1	9.520774E-1	9.637066E-1	9.746847E-1	9.823588E-1	8.909380E-1	8.510615E-1	9.687823E-1	9.761074E-1	9.450591E-1	8.735203E-1	9.382778E-1	9.761089E-1	1.075862E+0	1.005659E+0	9.373426E-1	9.416606E-1	9.821295E-1	9.729717E-1	1.035032E+0	9.929978E-1	8.598485E-1	8.659587E-1	9.206358E-1	1.011375E+0	8.643391E-1	9.284128E-1	8.933753E-1	9.324211E-1	9.394902E-1	9.497013E-1	8.598520E-1	1.001902E+0	9.142809E-1	9.730830E-1	9.853519E-1	1.031747E+0	9.330218E-1	8.823913E-1	9.984613E-1	1.010449E+0	8.988221E-1	8.990758E-1	9.347966E-1	9.767874E-1	9.202345E-1	9.602044E-1	9.546952E-1	9.609161E-1	1.027007E+0	9.780058E-1	9.824831E-1	1.044469E+0	9.167266E-1	8.677560E-1	9.080055E-1	1.032981E+0	8.976457E-1	8.829930E-1	8.870218E-1	9.724969E-1	1.031785E+0	9.427909E-1	9.591239E-1	9.470713E-1	9.226924E-1	9.984910E-1	1.004375E+0	9.981630E-1	9.453743E-1	9.550871E-1	9.465792E-1	1.088484E+0	9.753781E-1	9.468901E-1	9.324214E-1	9.767096E-1	1.012157E+0	9.783622E-1	8.708899E-1	1.072407E+0	9.983435E-1	9.195821E-1	9.722944E-1	9.968993E-1	9.648530E-1	9.003965E-1	9.663007E-1	9.830027E-1	9.642206E-1	8.988252E-1	9.638815E-1	1.022621E+0	9.854571E-1	9.649040E-1	9.598243E-1	1.044868E+0	9.622201E-1	1.010263E+0	1.029661E+0	9.866376E-1	8.339446E-1	9.113094E-1	1.000679E+0	1.083939E+0	8.968122E-1	9.305722E-1	8.822501E-1	9.970980E-1	1.007508E+0	9.897956E-1	9.164257E-1	1.020824E+0	9.537762E-1	8.758231E-1	9.978042E-1	9.893475E-1	8.854525E-1	8.552123E-1	9.561543E-1	9.662521E-1	9.147066E-1	9.213299E-1	9.026117E-1	1.033019E+0	9.593541E-1	9.277610E-1	9.011379E-1	9.704027E-1	9.911950E-1	1.009839E+0	9.687451E-1	9.930416E-1	8.995587E-1	9.331617E-1	1.001329E+0	9.284499E-1	9.745590E-1	9.102286E-1	8.944473E-1	1.026826E+0	9.704242E-1	1.006930E+0	9.765628E-1	9.830155E-1	9.754289E-1	9.678425E-1	1.050445E+0	9.905781E-1	8.710529E-1	8.729053E-1	9.834192E-1	1.007715E+0	9.425289E-1	9.085242E-1	9.278987E-1	1.126331E+0
5.445020E+2	9.459054E-1	9.608062E-1	9.522680E-1	9.828885E-1	8.057720E-1	8.955948E-1	9.531676E-1	9.637485E-1	8.751280E-1	8.798120E-1	9.341759E-1	9.227194E-1	9.463578E-1	9.391602E-1	8.813790E-1	9.000524E-1	8.859186E-1	8.621194E-1	9.086066E-1	8.124969E-1	8.882989E-1	8.665737E-1	9.871741E-1	9.287421E-1	8.994768E-1	9.610498E-1	8.989818E-1	9.254841E-1	9.154071E-1	9.896242E-1	8.539481E-1	8.589199E-1	8.813626E-1	9.459114E-1	8.340598E-1	8.352856E-1	8.329262E-1	9.497306E-1	9.285185E-1	8.992194E-1	8.940617E-1	9.520837E-1	8.987719E-1	9.435979E-1	9.724838E-1	9.289244E-1	8.651986E-1	9.109028E-1	9.274759E-1	9.633604E-1	8.135129E-1	8.382414E-1	8.762713E-1	9.428124E-1	9.317980E-1	9.489946E-1	8.940967E-1	1.056836E+0	9.731875E-1	9.292132E-1	9.249963E-1	9.770895E-1	8.733594E-1	8.711359E-1	8.631107E-1	9.671974E-1	9.042416E-1	8.473274E-1	8.475817E-1	8.890538E-1	9.343325E-1	8.563665E-1	9.206262E-1	9.869404E-1	8.746776E-1	9.298071E-1	9.200434E-1	9.655315E-1	9.108968E-1	9.131639E-1	9.333088E-1	1.002367E+0	9.073808E-1	9.011996E-1	8.903097E-1	9.915479E-1	9.854702E-1	9.527866E-1	8.978417E-1	1.032653E+0	8.755493E-1	9.339831E-1	9.408543E-1	9.779417E-1	8.337784E-1	8.567629E-1	9.219515E-1	9.801927E-1	9.095802E-1	8.909239E-1	8.848548E-1	9.881145E-1	8.634630E-1	9.048405E-1	9.278990E-1	9.832656E-1	9.492687E-1	9.805380E-1	9.347766E-1	9.562567E-1	8.506070E-1	8.371282E-1	9.208486E-1	1.012590E+0	8.989876E-1	8.555928E-1	8.848657E-1	9.253212E-1	9.603641E-1	9.390182E-1	9.077446E-1	9.879447E-1	9.329760E-1	9.039292E-1	8.989865E-1	9.822036E-1	8.475827E-1	8.443824E-1	9.241371E-1	9.993604E-1	8.504037E-1	8.275505E-1	8.984627E-1	9.705600E-1	9.437993E-1	9.447181E-1	8.390208E-1	9.821320E-1	9.686935E-1	9.788775E-1	9.253808E-1	9.596863E-1	8.988619E-1	8.963374E-1	1.013065E+0	9.218916E-1	9.280086E-1	8.865096E-1	9.034695E-1	9.336766E-1	9.596761E-1	9.443328E-1	8.878355E-1	1.021448E+0	9.149142E-1	8.973752E-1	9.295900E-1	9.954597E-1	8.589352E-1	8.748872E-1	9.533886E-1	1.022392E+0	8.753270E-1	8.479689E-1	8.974418E-1	1.074367E+0
5.450090E+2	8.223137E-1	8.895031E-1	9.731508E-1	9.183758E-1	8.248283E-1	7.950901E-1	9.838849E-1	9.411600E-1	8.461051E-1	8.580993E-1	9.913242E-1	8.768703E-1	9.394677E-1	9.046009E-1	9.223456E-1	8.192491E-1	8.448408E-1	9.171013E-1	9.693598E-1	8.033103E-1	8.997807E-1	8.725480E-1	9.622309E-1	8.809110E-1	8.760692E-1	8.809081E-1	9.349018E-1	9.020942E-1	8.989072E-1	9.525158E-1	9.726047E-1	8.294865E-1	9.080120E-1	9.194465E-1	8.959949E-1	8.515457E-1	8.276115E-1	8.611020E-1	9.263238E-1	8.956133E-1	7.793593E-1	9.057731E-1	9.001814E-1	9.147989E-1	9.703381E-1	9.655463E-1	9.113463E-1	8.273124E-1	9.640230E-1	8.732772E-1	8.954897E-1	8.571680E-1	8.830767E-1	9.275584E-1	9.345194E-1	9.314793E-1	8.472054E-1	9.129560E-1	9.739153E-1	9.464783E-1	9.329003E-1	9.241484E-1	8.642661E-1	7.508393E-1	8.825655E-1	9.364986E-1	8.851875E-1	8.123739E-1	8.051664E-1	9.406375E-1	9.726994E-1	8.666205E-1	8.984156E-1	9.323046E-1	8.799295E-1	9.345437E-1	1.002909E+0	8.930170E-1	8.646831E-1	8.796251E-1	9.126644E-1	9.593081E-1	9.058703E-1	8.673000E-1	8.516485E-1	8.884589E-1	8.755812E-1	9.922462E-1	8.347168E-1	9.974853E-1	8.477742E-1	8.665255E-1	8.465355E-1	9.635332E-1	8.206708E-1	8.195668E-1	8.526585E-1	9.640371E-1	8.665964E-1	8.952341E-1	8.453415E-1	9.363553E-1	8.426528E-1	8.504299E-1	8.682142E-1	9.840558E-1	8.235630E-1	9.479140E-1	9.453971E-1	9.377320E-1	8.256136E-1	8.578459E-1	8.748193E-1	9.888081E-1	9.062362E-1	8.354061E-1	8.103370E-1	9.238419E-1	8.982541E-1	9.397538E-1	8.585499E-1	9.647798E-1	8.942441E-1	9.401717E-1	9.588993E-1	9.786309E-1	7.894265E-1	8.085083E-1	9.074010E-1	9.561764E-1	8.449886E-1	8.282399E-1	8.327746E-1	9.765803E-1	8.646117E-1	8.436846E-1	8.305505E-1	9.007675E-1	9.806478E-1	9.788767E-1	9.145399E-1	9.315199E-1	8.870109E-1	8.739540E-1	9.747297E-1	8.869147E-1	8.327254E-1	8.687203E-1	9.079802E-1	9.427643E-1	9.281992E-1	9.352825E-1	8.647212E-1	8.894729E-1	8.902601E-1	8.808371E-1	9.470723E-1	9.299098E-1	8.154539E-1	7.506701E-1	8.811722E-1	9.335634E-1	7.682243E-1	7.859716E-1	7.918611E-1	9.600434E-1
5.455130E+2	8.575137E-1	9.859722E-1	9.540075E-1	9.192030E-1	8.013749E-1	8.537185E-1	9.606392E-1	9.453429E-1	8.602630E-1	8.706006E-1	9.307333E-1	8.859017E-1	9.723888E-1	9.710607E-1	9.216631E-1	8.453354E-1	8.405913E-1	9.124084E-1	9.470842E-1	8.151217E-1	9.159898E-1	9.163623E-1	9.885603E-1	8.628134E-1	9.139349E-1	8.841401E-1	9.156115E-1	8.992593E-1	8.555942E-1	9.693833E-1	9.712936E-1	8.115712E-1	8.883759E-1	9.152686E-1	9.193926E-1	8.530246E-1	8.289402E-1	8.735655E-1	8.956022E-1	8.263803E-1	8.236302E-1	9.134914E-1	9.297907E-1	9.463403E-1	8.638137E-1	9.296288E-1	9.791705E-1	8.350883E-1	8.789805E-1	9.101286E-1	9.134845E-1	8.828535E-1	8.463280E-1	9.601466E-1	9.834940E-1	9.307788E-1	8.645193E-1	8.882905E-1	9.731878E-1	8.661585E-1	9.300260E-1	9.654014E-1	9.649882E-1	8.319378E-1	8.952860E-1	9.971655E-1	8.961805E-1	8.444735E-1	8.654421E-1	8.989153E-1	9.796058E-1	8.505080E-1	8.391876E-1	9.330435E-1	9.279434E-1	9.274384E-1	9.031771E-1	9.176716E-1	9.233668E-1	9.291710E-1	9.436306E-1	9.377787E-1	9.360911E-1	8.547714E-1	8.240344E-1	9.353180E-1	9.077631E-1	9.242874E-1	8.077648E-1	9.691990E-1	9.069784E-1	8.945695E-1	9.348666E-1	9.400254E-1	8.738287E-1	8.274352E-1	8.706747E-1	9.345368E-1	8.760674E-1	8.521332E-1	8.585121E-1	9.768630E-1	9.115425E-1	9.323985E-1	8.675200E-1	1.017226E+0	9.264138E-1	9.326898E-1	9.170740E-1	9.177242E-1	8.074376E-1	8.411380E-1	8.460516E-1	9.949445E-1	8.482432E-1	8.512673E-1	8.659057E-1	9.097829E-1	8.728125E-1	9.831727E-1	8.108025E-1	1.011856E+0	8.856369E-1	8.240487E-1	9.690147E-1	9.314816E-1	7.948363E-1	8.078320E-1	8.833873E-1	9.180296E-1	8.402507E-1	8.447897E-1	8.147966E-1	9.344396E-1	8.999628E-1	8.535756E-1	7.416106E-1	9.139621E-1	8.744697E-1	8.960544E-1	8.711754E-1	8.966830E-1	8.925885E-1	8.811743E-1	9.387406E-1	9.146051E-1	8.530910E-1	8.672380E-1	8.839227E-1	9.101994E-1	9.059343E-1	9.262323E-1	8.990191E-1	9.424075E-1	8.977307E-1	8.995321E-1	9.691152E-1	8.922520E-1	8.175918E-1	7.685101E-1	8.954723E-1	9.343356E-1	8.847775E-1	8.176897E-1	8.385603E-1	1.017206E+0
5.460060E+2	9.255673E-1	9.465460E-1	1.002736E+0	9.853702E-1	8.519471E-1	8.506717E-1	9.598089E-1	1.005577E+0	8.517675E-1	8.995490E-1	9.961443E-1	9.386978E-1	9.685602E-1	9.710610E-1	9.435120E-1	8.803288E-1	9.029162E-1	9.526395E-1	9.808359E-1	8.236517E-1	8.795189E-1	9.561932E-1	1.027361E+0	9.054729E-1	9.132462E-1	8.951268E-1	9.475396E-1	9.417862E-1	9.394699E-1	9.545397E-1	9.483490E-1	8.410044E-1	8.371801E-1	9.250188E-1	1.021242E+0	8.944144E-1	8.342537E-1	9.511159E-1	9.614346E-1	8.566698E-1	8.477783E-1	9.443649E-1	9.868947E-1	9.346836E-1	9.681939E-1	9.894912E-1	1.004343E+0	8.979428E-1	9.190413E-1	9.585833E-1	1.024119E+0	8.274268E-1	8.674246E-1	9.816413E-1	9.719304E-1	9.686124E-1	8.652403E-1	9.657121E-1	1.019007E+0	9.892654E-1	8.905040E-1	1.005967E+0	9.915675E-1	9.089817E-1	9.424264E-1	1.039559E+0	9.701975E-1	8.130886E-1	8.542794E-1	9.808418E-1	1.001091E+0	9.274103E-1	9.309908E-1	9.862013E-1	9.947156E-1	9.748071E-1	9.948422E-1	9.959875E-1	9.725153E-1	9.588988E-1	9.303595E-1	9.600771E-1	1.063019E+0	9.446798E-1	8.364609E-1	9.400033E-1	1.009018E+0	9.790926E-1	8.701808E-1	1.016598E+0	1.017347E+0	9.673324E-1	9.139051E-1	9.749087E-1	1.003448E+0	8.596244E-1	9.053218E-1	9.499893E-1	1.061116E+0	8.751205E-1	8.855131E-1	9.813631E-1	9.581869E-1	8.850554E-1	9.077728E-1	1.059084E+0	9.843141E-1	9.993882E-1	9.284039E-1	9.940478E-1	9.414894E-1	8.712112E-1	9.316357E-1	9.757657E-1	1.049770E+0	8.786635E-1	8.515237E-1	9.519602E-1	1.000774E+0	1.037630E+0	8.382937E-1	1.002889E+0	9.745770E-1	9.305560E-1	9.550087E-1	1.002207E+0	8.550219E-1	8.430291E-1	9.132219E-1	1.051181E+0	9.160605E-1	8.454788E-1	8.846340E-1	9.908779E-1	9.155178E-1	9.221091E-1	8.976086E-1	9.447482E-1	8.927522E-1	9.935846E-1	9.391132E-1	9.678392E-1	9.546328E-1	9.678208E-1	1.045924E+0	9.699856E-1	9.265537E-1	8.954038E-1	9.139946E-1	9.556384E-1	9.995988E-1	9.790252E-1	9.243708E-1	9.822905E-1	9.141670E-1	9.182278E-1	1.026122E+0	9.898803E-1	8.703398E-1	7.916356E-1	9.247885E-1	9.374257E-1	9.026269E-1	8.465270E-1	8.791664E-1	1.110743E+0
5.465380E+2	8.481270E-1	9.289296E-1	9.653197E-1	9.340903E-1	7.933123E-1	8.148872E-1	9.373942E-1	9.135533E-1	8.135416E-1	8.594158E-1	9.279791E-1	8.775648E-1	9.065475E-1	9.092532E-1	8.882073E-1	7.937992E-1	8.448408E-1	9.050319E-1	9.626105E-1	8.341505E-1	8.585816E-1	8.645822E-1	9.747020E-1	8.330804E-1	9.036077E-1	8.834938E-1	9.295800E-1	9.545430E-1	8.624692E-1	9.133826E-1	9.352379E-1	7.750993E-1	8.568173E-1	8.727867E-1	9.675644E-1	7.776345E-1	8.355829E-1	8.950301E-1	9.343704E-1	8.364771E-1	7.840545E-1	9.478739E-1	9.622206E-1	8.482870E-1	8.723934E-1	8.965283E-1	9.365183E-1	8.461047E-1	8.951455E-1	9.797384E-1	9.674684E-1	8.085004E-1	8.442864E-1	9.525195E-1	9.603670E-1	8.887412E-1	8.753407E-1	8.999379E-1	9.833697E-1	8.871773E-1	9.271518E-1	9.385867E-1	9.698840E-1	8.022015E-1	8.840616E-1	9.072615E-1	9.636020E-1	8.608804E-1	8.274907E-1	9.762904E-1	9.427732E-1	8.798042E-1	9.087802E-1	8.725015E-1	9.384478E-1	8.982273E-1	9.024428E-1	8.995426E-1	9.336375E-1	8.986819E-1	9.443677E-1	9.254756E-1	9.731122E-1	9.093059E-1	8.716698E-1	9.400036E-1	9.305257E-1	9.060194E-1	8.879125E-1	9.485574E-1	9.398700E-1	8.149844E-1	9.109113E-1	9.218262E-1	9.175202E-1	7.981081E-1	8.644382E-1	8.945003E-1	9.598495E-1	8.205259E-1	8.308534E-1	9.213527E-1	9.847386E-1	8.801088E-1	9.036092E-1	9.469357E-1	9.797433E-1	9.406639E-1	9.985059E-1	9.340263E-1	9.369454E-1	8.311138E-1	8.971148E-1	9.703956E-1	9.221848E-1	8.209874E-1	7.939926E-1	9.046030E-1	9.064865E-1	9.184127E-1	8.303354E-1	8.758581E-1	9.788807E-1	9.098462E-1	8.873148E-1	9.672013E-1	9.097973E-1	8.321988E-1	9.059448E-1	9.331439E-1	9.587034E-1	8.220337E-1	8.300090E-1	9.186362E-1	9.529906E-1	8.500424E-1	8.051391E-1	9.190928E-1	9.272071E-1	9.626225E-1	8.516612E-1	9.322621E-1	9.365071E-1	9.013913E-1	9.144868E-1	9.167910E-1	9.170988E-1	8.679789E-1	8.621214E-1	9.253452E-1	9.796375E-1	9.375453E-1	8.520463E-1	9.612617E-1	9.052020E-1	9.060041E-1	9.668342E-1	9.508292E-1	8.952883E-1	7.955997E-1	9.140633E-1	9.049837E-1	8.952774E-1	8.047142E-1	8.182559E-1	1.006813E+0
5.470110E+2	8.582963E-1	8.668544E-1	9.522668E-1	9.109319E-1	8.226289E-1	7.996586E-1	9.390541E-1	8.884544E-1	8.071709E-1	8.844172E-1	9.238482E-1	8.622819E-1	9.165006E-1	9.291907E-1	8.486056E-1	7.530791E-1	8.575882E-1	9.358762E-1	9.315583E-1	8.315259E-1	8.565563E-1	8.725483E-1	9.151152E-1	8.867293E-1	9.070501E-1	8.757383E-1	9.322406E-1	8.531885E-1	8.487192E-1	9.167566E-1	8.664043E-1	8.128508E-1	8.161413E-1	9.166616E-1	8.588340E-1	8.360247E-1	7.977189E-1	8.638713E-1	9.080376E-1	8.335922E-1	8.202762E-1	8.889333E-1	9.403661E-1	8.695429E-1	8.795426E-1	9.134303E-1	9.742761E-1	8.519359E-1	8.691405E-1	8.869260E-1	9.048199E-1	8.118801E-1	8.660635E-1	8.811027E-1	9.358793E-1	8.754294E-1	8.681265E-1	8.876056E-1	9.491879E-1	8.946835E-1	9.106248E-1	9.578379E-1	9.384095E-1	8.339658E-1	8.638595E-1	9.036070E-1	9.416165E-1	8.023882E-1	8.163277E-1	8.716064E-1	9.228226E-1	7.999718E-1	8.228993E-1	8.592115E-1	9.361965E-1	9.132274E-1	9.229763E-1	8.473331E-1	9.453741E-1	8.788630E-1	9.148762E-1	9.316270E-1	9.217358E-1	8.790913E-1	8.406030E-1	9.610910E-1	9.438701E-1	9.352489E-1	7.666281E-1	9.860179E-1	9.522951E-1	8.885055E-1	9.191465E-1	9.043849E-1	9.022286E-1	7.880933E-1	8.235554E-1	9.029290E-1	9.882621E-1	8.284282E-1	8.334877E-1	9.070998E-1	8.799684E-1	8.476031E-1	8.349010E-1	8.805954E-1	9.233661E-1	8.848401E-1	8.993722E-1	9.110562E-1	9.581515E-1	8.137375E-1	8.611550E-1	1.000316E+0	9.163852E-1	8.454995E-1	8.253734E-1	8.602054E-1	9.117237E-1	9.213567E-1	7.905452E-1	9.274188E-1	9.387139E-1	8.758236E-1	8.717533E-1	9.722021E-1	8.719274E-1	7.875265E-1	8.426386E-1	9.475388E-1	9.444891E-1	8.489272E-1	8.051165E-1	9.502418E-1	9.133969E-1	8.239010E-1	8.150215E-1	8.963699E-1	9.032994E-1	9.657186E-1	8.820164E-1	8.885300E-1	9.128043E-1	8.826191E-1	9.043162E-1	8.249755E-1	9.418286E-1	8.405531E-1	8.267865E-1	9.117132E-1	8.882763E-1	9.141651E-1	8.252037E-1	9.351567E-1	9.574984E-1	8.340987E-1	9.523932E-1	9.354884E-1	9.373441E-1	7.718138E-1	8.876070E-1	8.725424E-1	9.110277E-1	7.571332E-1	8.365291E-1	1.079562E+0
5.475070E+2	8.661176E-1	9.121528E-1	1.063646E+0	9.489776E-1	7.977099E-1	9.085384E-1	9.905260E-1	1.008923E+0	8.510593E-1	9.403416E-1	9.651601E-1	9.456441E-1	9.609041E-1	9.757124E-1	9.653611E-1	8.606049E-1	9.326616E-1	9.620261E-1	1.022014E+0	8.702399E-1	8.545300E-1	9.210091E-1	9.587660E-1	9.339136E-1	8.808884E-1	8.893104E-1	9.821289E-1	9.176874E-1	9.277817E-1	9.707321E-1	9.332715E-1	8.346054E-1	9.038041E-1	9.486966E-1	9.744456E-1	8.308508E-1	8.780969E-1	9.213413E-1	1.015565E+0	9.150855E-1	8.793047E-1	9.345419E-1	9.875996E-1	8.914850E-1	9.453159E-1	9.577992E-1	1.041402E+0	8.972944E-1	9.380176E-1	9.858810E-1	9.601375E-1	8.923160E-1	8.742296E-1	9.400391E-1	9.780522E-1	9.959369E-1	9.164610E-1	9.711929E-1	1.027733E+0	9.622424E-1	9.429601E-1	9.880900E-1	9.810750E-1	8.366691E-1	9.312017E-1	9.723145E-1	1.014901E+0	8.095218E-1	8.379078E-1	9.611183E-1	1.007230E+0	8.981140E-1	8.680609E-1	9.300904E-1	9.774589E-1	9.645440E-1	9.838416E-1	9.582797E-1	1.004059E+0	9.124015E-1	9.937655E-1	1.001597E+0	9.836887E-1	8.835121E-1	8.585526E-1	9.696809E-1	9.713410E-1	9.038269E-1	8.680531E-1	9.906041E-1	9.376772E-1	9.059385E-1	9.895121E-1	9.559506E-1	9.830572E-1	8.846604E-1	9.080932E-1	9.570133E-1	9.613068E-1	7.996944E-1	8.499507E-1	1.010619E+0	9.754099E-1	8.546699E-1	9.181835E-1	9.966920E-1	9.881242E-1	9.406645E-1	9.815107E-1	1.014053E+0	9.543644E-1	8.979429E-1	9.143749E-1	1.055552E+0	9.946759E-1	8.628026E-1	8.698286E-1	9.504803E-1	1.009004E+0	9.699258E-1	8.780830E-1	1.016340E+0	1.023351E+0	9.017107E-1	9.799085E-1	9.686296E-1	9.165597E-1	8.728107E-1	8.950300E-1	9.907235E-1	9.756250E-1	8.854731E-1	8.797940E-1	9.276662E-1	9.742011E-1	8.867825E-1	8.234912E-1	9.513455E-1	9.040026E-1	9.819739E-1	9.224900E-1	9.233672E-1	9.581178E-1	9.237753E-1	1.039666E+0	9.488533E-1	9.687411E-1	9.576672E-1	8.854264E-1	1.034399E+0	1.025702E+0	9.692213E-1	9.087126E-1	9.880919E-1	9.769232E-1	8.909039E-1	1.010920E+0	9.557111E-1	9.751233E-1	8.405297E-1	9.576789E-1	1.006170E+0	1.026530E+0	8.551782E-1	1.000993E+0	8.249369E-1
5.480090E+2	9.482512E-1	9.599679E-1	1.020139E+0	1.030032E+0	8.651402E-1	9.374721E-1	1.049470E+0	1.043224E+0	9.176016E-1	9.521835E-1	1.002341E+0	9.907995E-1	9.922932E-1	1.020241E+0	1.032955E+0	9.210485E-1	9.617000E-1	9.881763E-1	1.051041E+0	9.332318E-1	9.409785E-1	1.009965E+0	1.001725E+0	9.798050E-1	9.944851E-1	9.662198E-1	1.077914E+0	9.963613E-1	9.683448E-1	1.010540E+0	1.032261E+0	8.845138E-1	9.542985E-1	9.514819E-1	1.051521E+0	8.692838E-1	8.389044E-1	9.677337E-1	1.019954E+0	9.295088E-1	9.007700E-1	1.014533E+0	1.021440E+0	9.463411E-1	1.041116E+0	9.866740E-1	9.861633E-1	9.400614E-1	1.016736E+0	1.060267E+0	1.010790E+0	9.152976E-1	9.538521E-1	1.012150E+0	1.031108E+0	1.021860E+0	9.070823E-1	9.944883E-1	1.140462E+0	9.997744E-1	1.033502E+0	1.031405E+0	9.915677E-1	8.995203E-1	9.274607E-1	1.005206E+0	1.072796E+0	9.750102E-1	9.309268E-1	9.482229E-1	1.072453E+0	9.098330E-1	1.010209E+0	9.677434E-1	1.019473E+0	9.953333E-1	1.015375E+0	1.006139E+0	1.045137E+0	9.467027E-1	9.841812E-1	1.041581E+0	1.027509E+0	9.417319E-1	8.951418E-1	1.062617E+0	1.038845E+0	1.008322E+0	8.914584E-1	1.005131E+0	1.059740E+0	9.824918E-1	1.029934E+0	9.620164E-1	1.079179E+0	8.596246E-1	9.787730E-1	1.042004E+0	1.036346E+0	9.354615E-1	9.803460E-1	1.005368E+0	9.718220E-1	9.945830E-1	9.757868E-1	1.065401E+0	1.093259E+0	9.645890E-1	1.011959E+0	1.019241E+0	9.975344E-1	9.039582E-1	9.826999E-1	1.097749E+0	1.053394E+0	9.089438E-1	9.495883E-1	9.985782E-1	1.094312E+0	9.839086E-1	9.062976E-1	1.008867E+0	1.070690E+0	9.150242E-1	9.978044E-1	1.025781E+0	9.909457E-1	8.802559E-1	1.017278E+0	1.035347E+0	1.023682E+0	8.840941E-1	9.309617E-1	1.001413E+0	1.006017E+0	1.013958E+0	9.300788E-1	1.017315E+0	1.029869E+0	1.055508E+0	1.004883E+0	1.037514E+0	1.045957E+0	1.011866E+0	1.054530E+0	1.011521E+0	1.002926E+0	9.821283E-1	9.530886E-1	1.027584E+0	1.041825E+0	1.027293E+0	9.683613E-1	1.025799E+0	1.035197E+0	9.973231E-1	1.059566E+0	1.024748E+0	1.047117E+0	9.158526E-1	1.009875E+0	9.845429E-1	1.079032E+0	9.085238E-1	8.832290E-1	1.063974E+0
5.485450E+2	1.146154E+0	1.135289E+0	1.247247E+0	1.259135E+0	1.033715E+0	1.119446E+0	1.208037E+0	1.186280E+0	1.181645E+0	1.176536E+0	1.226806E+0	1.283958E+0	1.289340E+0	1.244875E+0	1.228229E+0	1.218812E+0	1.184087E+0	1.224199E+0	1.231951E+0	1.235724E+0	1.115903E+0	1.175928E+0	1.228988E+0	1.270022E+0	1.169354E+0	1.168512E+0	1.222256E+0	1.228840E+0	1.208282E+0	1.222398E+0	1.266296E+0	1.191642E+0	1.147157E+0	1.170158E+0	1.147864E+0	1.195970E+0	1.018260E+0	1.149146E+0	1.226229E+0	1.166055E+0	1.124138E+0	1.188548E+0	1.232936E+0	1.176047E+0	1.211984E+0	1.161331E+0	1.257460E+0	1.127976E+0	1.196661E+0	1.205629E+0	1.211398E+0	1.148495E+0	1.151207E+0	1.225708E+0	1.199799E+0	1.202621E+0	1.138654E+0	1.206883E+0	1.235008E+0	1.134891E+0	1.159254E+0	1.181291E+0	1.213295E+0	1.146196E+0	1.234245E+0	1.250796E+0	1.250879E+0	1.052761E+0	1.067849E+0	1.259998E+0	1.264289E+0	1.129555E+0	1.097571E+0	1.251257E+0	1.203279E+0	1.279546E+0	1.246372E+0	1.179449E+0	1.257870E+0	1.138025E+0	1.228959E+0	1.279942E+0	1.244344E+0	1.181241E+0	1.159551E+0	1.206317E+0	1.224087E+0	1.239965E+0	1.114169E+0	1.243655E+0	1.246125E+0	1.206086E+0	1.224561E+0	1.274443E+0	1.248847E+0	1.074217E+0	1.168638E+0	1.201447E+0	1.240337E+0	1.066917E+0	1.098228E+0	1.234159E+0	1.210068E+0	1.140855E+0	1.124306E+0	1.266793E+0	1.299722E+0	1.160334E+0	1.211643E+0	1.231908E+0	1.278514E+0	1.123828E+0	1.145239E+0	1.286476E+0	1.209251E+0	1.046646E+0	1.139179E+0	1.264964E+0	1.207307E+0	1.191434E+0	1.105969E+0	1.247984E+0	1.184734E+0	1.170199E+0	1.246794E+0	1.263674E+0	1.135662E+0	1.102266E+0	1.144619E+0	1.244792E+0	1.203054E+0	1.031658E+0	1.084465E+0	1.242972E+0	1.143889E+0	1.141133E+0	1.058549E+0	1.233551E+0	1.183862E+0	1.242052E+0	1.173281E+0	1.181309E+0	1.181897E+0	1.174328E+0	1.214916E+0	1.117182E+0	1.199310E+0	1.100724E+0	1.171109E+0	1.266895E+0	1.253721E+0	1.261845E+0	1.144326E+0	1.216511E+0	1.273521E+0	1.150481E+0	1.203983E+0	1.294621E+0	1.225319E+0	1.053284E+0	1.160029E+0	1.220903E+0	1.264886E+0	1.052707E+0	1.009115E+0	1.318600E+0
5.490490E+2	1.475471E+0	1.468315E+0	1.623150E+0	1.570119E+0	1.348878E+0	1.407255E+0	1.510229E+0	1.530117E+0	1.361448E+0	1.417995E+0	1.496024E+0	1.547942E+0	1.486861E+0	1.527329E+0	1.526602E+0	1.536935E+0	1.429845E+0	1.437426E+0	1.553270E+0	1.509345E+0	1.420503E+0	1.481962E+0	1.549787E+0	1.488492E+0	1.452311E+0	1.463225E+0	1.461719E+0	1.459901E+0	1.450281E+0	1.490257E+0	1.514096E+0	1.514130E+0	1.395418E+0	1.479370E+0	1.473368E+0	1.575873E+0	1.329809E+0	1.390106E+0	1.519552E+0	1.468229E+0	1.393791E+0	1.469215E+0	1.507176E+0	1.568262E+0	1.452199E+0	1.471206E+0	1.578402E+0	1.555646E+0	1.513640E+0	1.502496E+0	1.490651E+0	1.585823E+0	1.434989E+0	1.481562E+0	1.556229E+0	1.515798E+0	1.414233E+0	1.482996E+0	1.579737E+0	1.484696E+0	1.460338E+0	1.543628E+0	1.463701E+0	1.480050E+0	1.454979E+0	1.511007E+0	1.495647E+0	1.427964E+0	1.303000E+0	1.489088E+0	1.526720E+0	1.519195E+0	1.347808E+0	1.461676E+0	1.492870E+0	1.454809E+0	1.505967E+0	1.502140E+0	1.495543E+0	1.438347E+0	1.501754E+0	1.523685E+0	1.517088E+0	1.544559E+0	1.323857E+0	1.526518E+0	1.580442E+0	1.546875E+0	1.345389E+0	1.536460E+0	1.522412E+0	1.461515E+0	1.450629E+0	1.439755E+0	1.559784E+0	1.343890E+0	1.511643E+0	1.480296E+0	1.550694E+0	1.340606E+0	1.381407E+0	1.534212E+0	1.466255E+0	1.445411E+0	1.417875E+0	1.614293E+0	1.577036E+0	1.491651E+0	1.445316E+0	1.506817E+0	1.501934E+0	1.376447E+0	1.491895E+0	1.562664E+0	1.559386E+0	1.353772E+0	1.329425E+0	1.449215E+0	1.528331E+0	1.501252E+0	1.424285E+0	1.528946E+0	1.514674E+0	1.440167E+0	1.513679E+0	1.553721E+0	1.531263E+0	1.270127E+0	1.381112E+0	1.513975E+0	1.536075E+0	1.318512E+0	1.390782E+0	1.497323E+0	1.503059E+0	1.367929E+0	1.294311E+0	1.578796E+0	1.450359E+0	1.486652E+0	1.447202E+0	1.511891E+0	1.436349E+0	1.432100E+0	1.559156E+0	1.371497E+0	1.526618E+0	1.389804E+0	1.426719E+0	1.534228E+0	1.494793E+0	1.509217E+0	1.444807E+0	1.512367E+0	1.564888E+0	1.417249E+0	1.441891E+0	1.547756E+0	1.482643E+0	1.301719E+0	1.426017E+0	1.468077E+0	1.505342E+0	1.318001E+0	1.417228E+0	1.479692E+0
5.495150E+2	1.635045E+0	1.703195E+0	1.825026E+0	1.727266E+0	1.502795E+0	1.501669E+0	1.736041E+0	1.785276E+0	1.531344E+0	1.643661E+0	1.776258E+0	1.709804E+0	1.673665E+0	1.704774E+0	1.725972E+0	1.769804E+0	1.695433E+0	1.661375E+0	1.785484E+0	1.721945E+0	1.631898E+0	1.597471E+0	1.772202E+0	1.686277E+0	1.632002E+0	1.546598E+0	1.714485E+0	1.802948E+0	1.665471E+0	1.752043E+0	1.700275E+0	1.758550E+0	1.633161E+0	1.682029E+0	1.745195E+0	1.778387E+0	1.545037E+0	1.694766E+0	1.733877E+0	1.639148E+0	1.566851E+0	1.733046E+0	1.745459E+0	1.655344E+0	1.702430E+0	1.757843E+0	1.764396E+0	1.777257E+0	1.697783E+0	1.701768E+0	1.741243E+0	1.779140E+0	1.617374E+0	1.702056E+0	1.732401E+0	1.790443E+0	1.638595E+0	1.591252E+0	1.815374E+0	1.790211E+0	1.661542E+0	1.775328E+0	1.685428E+0	1.684152E+0	1.630820E+0	1.682044E+0	1.757274E+0	1.778200E+0	1.556009E+0	1.709079E+0	1.781479E+0	1.648833E+0	1.565472E+0	1.629274E+0	1.739695E+0	1.708233E+0	1.723028E+0	1.721132E+0	1.700208E+0	1.701323E+0	1.715564E+0	1.755127E+0	1.733923E+0	1.790697E+0	1.517848E+0	1.770963E+0	1.748415E+0	1.700329E+0	1.563844E+0	1.675602E+0	1.697830E+0	1.644939E+0	1.667714E+0	1.696827E+0	1.695958E+0	1.692962E+0	1.592713E+0	1.731757E+0	1.834095E+0	1.732818E+0	1.576996E+0	1.706745E+0	1.713113E+0	1.788836E+0	1.620527E+0	1.793571E+0	1.768259E+0	1.675796E+0	1.693855E+0	1.773578E+0	1.743535E+0	1.686538E+0	1.658749E+0	1.823509E+0	1.713069E+0	1.665227E+0	1.539933E+0	1.679340E+0	1.725885E+0	1.764705E+0	1.529909E+0	1.788241E+0	1.717658E+0	1.636912E+0	1.721428E+0	1.724463E+0	1.683417E+0	1.596374E+0	1.599411E+0	1.764444E+0	1.751316E+0	1.498488E+0	1.555350E+0	1.726841E+0	1.689718E+0	1.651955E+0	1.438309E+0	1.746654E+0	1.647246E+0	1.792402E+0	1.624996E+0	1.669768E+0	1.727749E+0	1.629224E+0	1.724234E+0	1.717630E+0	1.759371E+0	1.649236E+0	1.520694E+0	1.724314E+0	1.778089E+0	1.713600E+0	1.569323E+0	1.700180E+0	1.758388E+0	1.543085E+0	1.667641E+0	1.742315E+0	1.603819E+0	1.525703E+0	1.614064E+0	1.665044E+0	1.720597E+0	1.398742E+0	1.429410E+0	1.661567E+0
5.500160E+2	1.433231E+0	1.485930E+0	1.614449E+0	1.527937E+0	1.283647E+0	1.412585E+0	1.570833E+0	1.508366E+0	1.360033E+0	1.476551E+0	1.499466E+0	1.579201E+0	1.549639E+0	1.554578E+0	1.453546E+0	1.560478E+0	1.465965E+0	1.456867E+0	1.575548E+0	1.542154E+0	1.342832E+0	1.476652E+0	1.624620E+0	1.472979E+0	1.433036E+0	1.425740E+0	1.449745E+0	1.509515E+0	1.478470E+0	1.555704E+0	1.511476E+0	1.480854E+0	1.432588E+0	1.466136E+0	1.575903E+0	1.534483E+0	1.339773E+0	1.475964E+0	1.499071E+0	1.513663E+0	1.424646E+0	1.502895E+0	1.510701E+0	1.551808E+0	1.448627E+0	1.461346E+0	1.593086E+0	1.536854E+0	1.470062E+0	1.518873E+0	1.505977E+0	1.537157E+0	1.405045E+0	1.521777E+0	1.546704E+0	1.566945E+0	1.443811E+0	1.499441E+0	1.579738E+0	1.571022E+0	1.489802E+0	1.543629E+0	1.566522E+0	1.508438E+0	1.423553E+0	1.473730E+0	1.546949E+0	1.564207E+0	1.338719E+0	1.531570E+0	1.582736E+0	1.558014E+0	1.429987E+0	1.518525E+0	1.511626E+0	1.526651E+0	1.519901E+0	1.445578E+0	1.574769E+0	1.546586E+0	1.497330E+0	1.589043E+0	1.511799E+0	1.620466E+0	1.412224E+0	1.492154E+0	1.552969E+0	1.527874E+0	1.353191E+0	1.557101E+0	1.564077E+0	1.589609E+0	1.470091E+0	1.491321E+0	1.558328E+0	1.586380E+0	1.529659E+0	1.452904E+0	1.599505E+0	1.627223E+0	1.367576E+0	1.483954E+0	1.534429E+0	1.528797E+0	1.484500E+0	1.622981E+0	1.651698E+0	1.506150E+0	1.423364E+0	1.506817E+0	1.511780E+0	1.466667E+0	1.499807E+0	1.564967E+0	1.536189E+0	1.531127E+0	1.338576E+0	1.490653E+0	1.528331E+0	1.507875E+0	1.385218E+0	1.599933E+0	1.576361E+0	1.605108E+0	1.463881E+0	1.565862E+0	1.546138E+0	1.484691E+0	1.453878E+0	1.521892E+0	1.547581E+0	1.497107E+0	1.348604E+0	1.554514E+0	1.471245E+0	1.456245E+0	1.299252E+0	1.475442E+0	1.476376E+0	1.549349E+0	1.400222E+0	1.423686E+0	1.527676E+0	1.569290E+0	1.531773E+0	1.481531E+0	1.500433E+0	1.527672E+0	1.408676E+0	1.538772E+0	1.520127E+0	1.508463E+0	1.546210E+0	1.544273E+0	1.510351E+0	1.456078E+0	1.474575E+0	1.610519E+0	1.510443E+0	1.388934E+0	1.478215E+0	1.468076E+0	1.497991E+0	1.379998E+0	1.421288E+0	1.635582E+0
5.505060E+2	1.403506E+0	1.449860E+0	1.570072E+0	1.525456E+0	1.312231E+0	1.350912E+0	1.512720E+0	1.570273E+0	1.349414E+0	1.452206E+0	1.549729E+0	1.523626E+0	1.498345E+0	1.495428E+0	1.488368E+0	1.517849E+0	1.439761E+0	1.463575E+0	1.496567E+0	1.485066E+0	1.447517E+0	1.429519E+0	1.527616E+0	1.542140E+0	1.448182E+0	1.421861E+0	1.487660E+0	1.544246E+0	1.404907E+0	1.525342E+0	1.481320E+0	1.471258E+0	1.366665E+0	1.466832E+0	1.519476E+0	1.480528E+0	1.331137E+0	1.395645E+0	1.489561E+0	1.464623E+0	1.320676E+0	1.470621E+0	1.463465E+0	1.483237E+0	1.489376E+0	1.468391E+0	1.558827E+0	1.567957E+0	1.456006E+0	1.459501E+0	1.511312E+0	1.431711E+0	1.397560E+0	1.426786E+0	1.522896E+0	1.525608E+0	1.343535E+0	1.491217E+0	1.566647E+0	1.529735E+0	1.423692E+0	1.532625E+0	1.500073E+0	1.475997E+0	1.403350E+0	1.568020E+0	1.558672E+0	1.490736E+0	1.327557E+0	1.501227E+0	1.524417E+0	1.553617E+0	1.412220E+0	1.483087E+0	1.493620E+0	1.515599E+0	1.534566E+0	1.434701E+0	1.485273E+0	1.489418E+0	1.466364E+0	1.551365E+0	1.511043E+0	1.520238E+0	1.374253E+0	1.542917E+0	1.526282E+0	1.522028E+0	1.403549E+0	1.489061E+0	1.507793E+0	1.493349E+0	1.440148E+0	1.414731E+0	1.566338E+0	1.484092E+0	1.421559E+0	1.530870E+0	1.501881E+0	1.499360E+0	1.366919E+0	1.544715E+0	1.461231E+0	1.488517E+0	1.415793E+0	1.595339E+0	1.631128E+0	1.480776E+0	1.477180E+0	1.540164E+0	1.401963E+0	1.452632E+0	1.480388E+0	1.564199E+0	1.521690E+0	1.423705E+0	1.349035E+0	1.458094E+0	1.535816E+0	1.559390E+0	1.331684E+0	1.579011E+0	1.515391E+0	1.512649E+0	1.500451E+0	1.497282E+0	1.478516E+0	1.394670E+0	1.462610E+0	1.542766E+0	1.458909E+0	1.444012E+0	1.405994E+0	1.488294E+0	1.509424E+0	1.471082E+0	1.308428E+0	1.468844E+0	1.498175E+0	1.543931E+0	1.429132E+0	1.437028E+0	1.474690E+0	1.562070E+0	1.500479E+0	1.443638E+0	1.539709E+0	1.483199E+0	1.307935E+0	1.489546E+0	1.481740E+0	1.535613E+0	1.467174E+0	1.525419E+0	1.529775E+0	1.502097E+0	1.523981E+0	1.533811E+0	1.471951E+0	1.487382E+0	1.443892E+0	1.471166E+0	1.465440E+0	1.420370E+0	1.266976E+0	1.521263E+0
5.510140E+2	1.193870E+0	1.193170E+0	1.243766E+0	1.264924E+0	1.026386E+0	1.094320E+0	1.271133E+0	1.254880E+0	1.051393E+0	1.083769E+0	1.241953E+0	1.268674E+0	1.241108E+0	1.268136E+0	1.177022E+0	1.228357E+0	1.177712E+0	1.211460E+0	1.260979E+0	1.180606E+0	1.138191E+0	1.131449E+0	1.242845E+0	1.223483E+0	1.130113E+0	1.109699E+0	1.224252E+0	1.225296E+0	1.151219E+0	1.214302E+0	1.200084E+0	1.176286E+0	1.141547E+0	1.179212E+0	1.271735E+0	1.220361E+0	1.054132E+0	1.134605E+0	1.221841E+0	1.220865E+0	1.042974E+0	1.192757E+0	1.246330E+0	1.256273E+0	1.237008E+0	1.297254E+0	1.237183E+0	1.247854E+0	1.164330E+0	1.239751E+0	1.226727E+0	1.219468E+0	1.094042E+0	1.195200E+0	1.236531E+0	1.256568E+0	1.120620E+0	1.216475E+0	1.279371E+0	1.268508E+0	1.259856E+0	1.252795E+0	1.204202E+0	1.210399E+0	1.193090E+0	1.198170E+0	1.291184E+0	1.263902E+0	1.110266E+0	1.221310E+0	1.198298E+0	1.262853E+0	1.121261E+0	1.243135E+0	1.232538E+0	1.217176E+0	1.222905E+0	1.227309E+0	1.255669E+0	1.231781E+0	1.190620E+0	1.292245E+0	1.220167E+0	1.287362E+0	1.162312E+0	1.152429E+0	1.195044E+0	1.207082E+0	1.090053E+0	1.229895E+0	1.227851E+0	1.229583E+0	1.246270E+0	1.210744E+0	1.213166E+0	1.251614E+0	1.159630E+0	1.176160E+0	1.245437E+0	1.243630E+0	1.032372E+0	1.257413E+0	1.233032E+0	1.250383E+0	1.131940E+0	1.355249E+0	1.286770E+0	1.246606E+0	1.203145E+0	1.257101E+0	1.220198E+0	1.229420E+0	1.141643E+0	1.264995E+0	1.249846E+0	1.220396E+0	1.093415E+0	1.195407E+0	1.231253E+0	1.262082E+0	1.069796E+0	1.280863E+0	1.232073E+0	1.208660E+0	1.214114E+0	1.237957E+0	1.180970E+0	1.204471E+0	1.176637E+0	1.252709E+0	1.225391E+0	1.180602E+0	1.124571E+0	1.277586E+0	1.143890E+0	1.245700E+0	1.047960E+0	1.251143E+0	1.245036E+0	1.324876E+0	1.181955E+0	1.224299E+0	1.218845E+0	1.229926E+0	1.301759E+0	1.211184E+0	1.234951E+0	1.225251E+0	1.157576E+0	1.246448E+0	1.323586E+0	1.254303E+0	1.136124E+0	1.223761E+0	1.277257E+0	1.269844E+0	1.236667E+0	1.214426E+0	1.245991E+0	1.217806E+0	1.172185E+0	1.230944E+0	1.293237E+0	1.181028E+0	1.080180E+0	1.225063E+0
5.515000E+2	9.897100E-1	9.876496E-1	1.051464E+0	1.041611E+0	9.135142E-1	9.153917E-1	1.041999E+0	1.065811E+0	9.742325E-1	9.692897E-1	1.065687E+0	1.063742E+0	1.087991E+0	1.115279E+0	1.071874E+0	1.057206E+0	9.921547E-1	1.055228E+0	1.007163E+0	1.032313E+0	9.551621E-1	9.880585E-1	1.068933E+0	9.772191E-1	9.593734E-1	1.000474E+0	1.027361E+0	1.059443E+0	1.036407E+0	1.073963E+0	1.057827E+0	1.019522E+0	9.423769E-1	1.024607E+0	1.030876E+0	1.044453E+0	9.491754E-1	9.905836E-1	1.055796E+0	1.018935E+0	9.135141E-1	1.008218E+0	1.038359E+0	1.043709E+0	1.022528E+0	1.026817E+0	1.047695E+0	1.045683E+0	9.851079E-1	1.042524E+0	1.028118E+0	1.057920E+0	9.497692E-1	1.027404E+0	1.047433E+0	9.973375E-1	9.871589E-1	1.042448E+0	1.093916E+0	1.075590E+0	1.001166E+0	1.093972E+0	1.046125E+0	1.027251E+0	9.573905E-1	1.039560E+0	1.052277E+0	1.065601E+0	9.294389E-1	1.077940E+0	1.075524E+0	1.036539E+0	9.287702E-1	1.034193E+0	1.033727E+0	1.102702E+0	1.026375E+0	1.014841E+0	1.017996E+0	1.038172E+0	9.915537E-1	1.050039E+0	1.058485E+0	1.033851E+0	9.082590E-1	1.018882E+0	1.021577E+0	1.070435E+0	9.786981E-1	1.057882E+0	1.019539E+0	1.079509E+0	9.932544E-1	1.026474E+0	1.036944E+0	1.016278E+0	9.468977E-1	1.016015E+0	1.080058E+0	1.059735E+0	9.493937E-1	1.045125E+0	1.031384E+0	1.020727E+0	1.002158E+0	1.107260E+0	1.039168E+0	1.018962E+0	1.014791E+0	1.063702E+0	1.064940E+0	9.928418E-1	9.704731E-1	1.083939E+0	1.059193E+0	1.019971E+0	9.744306E-1	1.046675E+0	1.101795E+0	1.061178E+0	8.701250E-1	1.097042E+0	1.053476E+0	1.045201E+0	1.028928E+0	1.074361E+0	9.929751E-1	1.050148E+0	9.838054E-1	9.964814E-1	1.030452E+0	1.024763E+0	8.998464E-1	1.057852E+0	1.012381E+0	1.002653E+0	8.785504E-1	9.748010E-1	1.037603E+0	1.127493E+0	9.571819E-1	9.834049E-1	1.026437E+0	1.042192E+0	1.020889E+0	1.066174E+0	1.056022E+0	1.011036E+0	9.756422E-1	1.044244E+0	1.113226E+0	1.088382E+0	9.877476E-1	1.047553E+0	1.089734E+0	1.059162E+0	1.056526E+0	1.054037E+0	1.050681E+0	1.064517E+0	1.001295E+0	9.443772E-1	1.009730E+0	1.065683E+0	8.081033E-1	1.017206E+0
5.520100E+2	1.039772E+0	9.448679E-1	1.041893E+0	9.969486E-1	9.970684E-1	9.245284E-1	1.032037E+0	1.024819E+0	9.862673E-1	9.646841E-1	1.037456E+0	1.042206E+0	1.054306E+0	1.018247E+0	1.034320E+0	9.878547E-1	9.999447E-1	9.573324E-1	1.044965E+0	9.726016E-1	1.009868E+0	9.767725E-1	1.035675E+0	1.013416E+0	1.028908E+0	9.287353E-1	1.034678E+0	1.018334E+0	9.786569E-1	9.801782E-1	1.037505E+0	9.670547E-1	9.753378E-1	9.549649E-1	9.902740E-1	1.008976E+0	9.405395E-1	1.000276E+0	9.848419E-1	9.843180E-1	9.007694E-1	9.668189E-1	9.742052E-1	9.984530E-1	9.789176E-1	1.006393E+0	1.042100E+0	1.037259E+0	9.499664E-1	1.006354E+0	1.012789E+0	9.950584E-1	9.402415E-1	9.594535E-1	1.027027E+0	1.018356E+0	9.207895E-1	9.636564E-1	1.029915E+0	1.003528E+0	1.011945E+0	1.052032E+0	9.894687E-1	9.873773E-1	9.416775E-1	1.030788E+0	1.045680E+0	1.014242E+0	8.885106E-1	9.307752E-1	9.895810E-1	9.845385E-1	9.339520E-1	9.817723E-1	1.035978E+0	9.905968E-1	9.845753E-1	1.009040E+0	9.849865E-1	9.962485E-1	9.731214E-1	1.002366E+0	1.009376E+0	1.057433E+0	8.999746E-1	9.642141E-1	9.368049E-1	9.871306E-1	9.013883E-1	1.065526E+0	9.822631E-1	1.101490E+0	9.520837E-1	9.847664E-1	9.947087E-1	1.019854E+0	9.565992E-1	9.668471E-1	1.047274E+0	1.024536E+0	8.697077E-1	1.003868E+0	1.053629E+0	1.051113E+0	9.049967E-1	1.060663E+0	1.078785E+0	9.870627E-1	9.418575E-1	9.858965E-1	1.010409E+0	9.634370E-1	9.668768E-1	1.046347E+0	1.074416E+0	1.068995E+0	8.940182E-1	9.978378E-1	1.038188E+0	1.023648E+0	9.041270E-1	1.032780E+0	1.045586E+0	9.749345E-1	1.004029E+0	9.700589E-1	9.767449E-1	9.716321E-1	9.685239E-1	1.038226E+0	1.025714E+0	9.502908E-1	8.825597E-1	1.017216E+0	9.600607E-1	9.729796E-1	8.460801E-1	9.520778E-1	9.335351E-1	1.054733E+0	9.340540E-1	9.470859E-1	1.001341E+0	1.053744E+0	9.849000E-1	9.677999E-1	9.607395E-1	9.495142E-1	9.485777E-1	1.001835E+0	1.010348E+0	9.488580E-1	9.773083E-1	1.013471E+0	1.066574E+0	1.051972E+0	1.021561E+0	9.982487E-1	1.007199E+0	9.806040E-1	9.283632E-1	1.006170E+0	9.929296E-1	9.834994E-1	8.405901E-1	1.199080E+0
5.525090E+2	1.123470E+0	1.057274E+0	1.094971E+0	1.089583E+0	1.079890E+0	9.466086E-1	1.095961E+0	1.053262E+0	1.018830E+0	1.024555E+0	1.055359E+0	1.085276E+0	1.042822E+0	1.070085E+0	1.074605E+0	1.124648E+0	1.097682E+0	9.774478E-1	1.084117E+0	1.092024E+0	1.047014E+0	1.050460E+0	1.042604E+0	1.107138E+0	1.073658E+0	9.752682E-1	1.085896E+0	1.087084E+0	1.037782E+0	1.020661E+0	1.103717E+0	1.089267E+0	1.055987E+0	1.012071E+0	1.082488E+0	1.054800E+0	1.061439E+0	9.926600E-1	1.082860E+0	1.029752E+0	1.117431E+0	1.027163E+0	1.029899E+0	1.047137E+0	1.080438E+0	1.057805E+0	1.049792E+0	1.084562E+0	1.013924E+0	1.062997E+0	1.100096E+0	1.040346E+0	1.024627E+0	1.106448E+0	1.041312E+0	1.013452E+0	1.030443E+0	1.091094E+0	1.080098E+0	1.098110E+0	1.044281E+0	1.110474E+0	1.038431E+0	1.045498E+0	1.044188E+0	1.083415E+0	1.062536E+0	1.042775E+0	9.867371E-1	1.092352E+0	1.097008E+0	1.070962E+0	9.628264E-1	1.067417E+0	1.035228E+0	1.035596E+0	1.077708E+0	1.138842E+0	1.077415E+0	1.041221E+0	1.043164E+0	1.026203E+0	1.044130E+0	1.039010E+0	9.759138E-1	1.054807E+0	1.067102E+0	1.081395E+0	9.765706E-1	1.093813E+0	1.070704E+0	1.015083E+0	9.962486E-1	1.082589E+0	1.058790E+0	1.122859E+0	9.822381E-1	1.030063E+0	1.088800E+0	1.040339E+0	9.691502E-1	1.087882E+0	1.096685E+0	1.087151E+0	9.813385E-1	1.084357E+0	1.151160E+0	1.120460E+0	1.044531E+0	1.098528E+0	1.048277E+0	1.061677E+0	9.992403E-1	1.053252E+0	1.111388E+0	1.050972E+0	9.535102E-1	9.852587E-1	1.029957E+0	1.122259E+0	9.967285E-1	1.058185E+0	1.090773E+0	1.023011E+0	1.024260E+0	1.078647E+0	1.036930E+0	1.036610E+0	1.038380E+0	1.043264E+0	1.072417E+0	1.038554E+0	9.586204E-1	1.030761E+0	1.060459E+0	1.059175E+0	8.912563E-1	1.068625E+0	9.658812E-1	1.120527E+0	9.846463E-1	1.023431E+0	1.091967E+0	1.042192E+0	1.094432E+0	1.030468E+0	1.041476E+0	1.066628E+0	1.002707E+0	1.105587E+0	1.074070E+0	1.074806E+0	1.045159E+0	1.104839E+0	1.140538E+0	1.080015E+0	1.089209E+0	1.067984E+0	1.062085E+0	1.030158E+0	1.044197E+0	1.038612E+0	1.025480E+0	1.085867E+0	9.278982E-1	1.095152E+0
5.530150E+2	9.685892E-1	9.448683E-1	1.016658E+0	1.015972E+0	9.640864E-1	9.405178E-1	9.456960E-1	1.003904E+0	1.001841E+0	9.087607E-1	9.913244E-1	1.050542E+0	1.022151E+0	1.008943E+0	9.824301E-1	9.713124E-1	9.595758E-1	9.921997E-1	9.578846E-1	9.634148E-1	1.009868E+0	9.163624E-1	1.019739E+0	9.733407E-1	1.041989E+0	9.545871E-1	9.628390E-1	9.261933E-1	9.532196E-1	1.030781E+0	9.667048E-1	9.945682E-1	9.760385E-1	1.042017E+0	9.751341E-1	1.036324E+0	1.070738E+0	9.213419E-1	1.018490E+0	9.958572E-1	9.839458E-1	9.548899E-1	1.039064E+0	9.490836E-1	1.018238E+0	1.021183E+0	1.040703E+0	1.033371E+0	1.063123E+0	9.824687E-1	9.608040E-1	9.876226E-1	1.008975E+0	1.022550E+0	9.562857E-1	1.033069E+0	9.979804E-1	9.657116E-1	1.016098E+0	9.982737E-1	9.997289E-1	1.035531E+0	1.000661E+0	9.671021E-1	1.000790E+0	9.642737E-1	9.995112E-1	9.892767E-1	9.867377E-1	1.015736E+0	1.004928E+0	9.625663E-1	1.027978E+0	9.950616E-1	9.774597E-1	1.037175E+0	1.054974E+0	9.727829E-1	1.023865E+0	1.040458E+0	1.081503E+0	9.923701E-1	1.031287E+0	1.002162E+0	9.648679E-1	9.774900E-1	1.027856E+0	9.834769E-1	9.843725E-1	9.898403E-1	1.039275E+0	1.042370E+0	9.820258E-1	1.011308E+0	9.706779E-1	9.948185E-1	9.281883E-1	9.928358E-1	9.773343E-1	9.785617E-1	9.599305E-1	9.551089E-1	1.046453E+0	1.001649E+0	9.626000E-1	1.073300E+0	1.014788E+0	1.024762E+0	9.949642E-1	9.962702E-1	9.876887E-1	1.010218E+0	9.417047E-1	1.057087E+0	1.009174E+0	9.997836E-1	9.312826E-1	9.859981E-1	1.000025E+0	1.009665E+0	9.236599E-1	9.991528E-1	1.030523E+0	1.012656E+0	9.487841E-1	1.055786E+0	1.037607E+0	9.330504E-1	9.685241E-1	1.031749E+0	9.918704E-1	9.909747E-1	8.853258E-1	9.833530E-1	1.006725E+0	9.991207E-1	8.863145E-1	1.009252E+0	9.785380E-1	1.025320E+0	9.564593E-1	9.900762E-1	1.059899E+0	1.035693E+0	9.849005E-1	9.721723E-1	1.027655E+0	9.902818E-1	9.327895E-1	9.995629E-1	1.064089E+0	1.003160E+0	1.007133E+0	9.888167E-1	1.057609E+0	9.937283E-1	9.987588E-1	9.961570E-1	1.028583E+0	9.634246E-1	9.741243E-1	1.001536E+0	9.582784E-1	9.705221E-1	7.918611E-1	1.069171E+0
5.534770E+2	9.889279E-1	8.903427E-1	9.818529E-1	9.696547E-1	9.208434E-1	8.514338E-1	9.905274E-1	9.411598E-1	9.883897E-1	8.804692E-1	9.789308E-1	9.699581E-1	9.739190E-1	9.657438E-1	9.892575E-1	9.541331E-1	9.524931E-1	9.231362E-1	9.713855E-1	9.201079E-1	9.625911E-1	9.196823E-1	9.698523E-1	9.688165E-1	9.724540E-1	9.158090E-1	9.382273E-1	1.005576E+0	9.717824E-1	9.585883E-1	9.365492E-1	9.421009E-1	9.388699E-1	9.626251E-1	9.393495E-1	9.417173E-1	9.518325E-1	8.590252E-1	9.980083E-1	9.295090E-1	9.410163E-1	8.945465E-1	9.678602E-1	9.662259E-1	1.018239E+0	9.852652E-1	9.595928E-1	9.724610E-1	9.907306E-1	9.524409E-1	8.814940E-1	9.524749E-1	9.661013E-1	9.247846E-1	9.447225E-1	9.545993E-1	9.972581E-1	9.163819E-1	9.920972E-1	1.002777E+0	9.551759E-1	1.001154E+0	9.803759E-1	9.576409E-1	9.903144E-1	9.401532E-1	9.313563E-1	9.172318E-1	9.696223E-1	9.330511E-1	1.012602E+0	9.069031E-1	9.576437E-1	9.529775E-1	9.857126E-1	9.305960E-1	1.023442E+0	1.001788E+0	1.024599E+0	9.749054E-1	9.893420E-1	9.662286E-1	9.572459E-1	9.881599E-1	9.904113E-1	9.962346E-1	9.328803E-1	9.447482E-1	9.552929E-1	9.600248E-1	1.001997E+0	9.680901E-1	9.258834E-1	8.634359E-1	9.466482E-1	9.547608E-1	9.240314E-1	9.099527E-1	9.933618E-1	9.792793E-1	9.605893E-1	9.581094E-1	9.172835E-1	9.952892E-1	1.009099E+0	9.927427E-1	9.850764E-1	9.174646E-1	9.914245E-1	9.466237E-1	9.611810E-1	9.841541E-1	9.704733E-1	1.031770E+0	9.345080E-1	9.002917E-1	9.613553E-1	8.935035E-1	9.341732E-1	9.846442E-1	9.410235E-1	9.886922E-1	1.007571E+0	9.460889E-1	9.394466E-1	9.772025E-1	9.327892E-1	9.472651E-1	1.010729E+0	9.309849E-1	9.559954E-1	9.764937E-1	9.696831E-1	9.412119E-1	9.346072E-1	9.157503E-1	8.919618E-1	9.227581E-1	9.236918E-1	1.029965E+0	1.019338E+0	9.789580E-1	9.839119E-1	9.432709E-1	9.238757E-1	9.029454E-1	9.781958E-1	9.687862E-1	8.884337E-1	9.594254E-1	9.159151E-1	9.880752E-1	9.683620E-1	9.380568E-1	9.649697E-1	9.728759E-1	8.847449E-1	9.745391E-1	9.679954E-1	9.178350E-1	9.505288E-1	9.312455E-1	9.750787E-1	9.791739E-1	8.284074E-1	9.496519E-1
5.540290E+2	8.981889E-1	8.400111E-1	9.209424E-1	9.531136E-1	9.113152E-1	8.582869E-1	9.390548E-1	9.152261E-1	8.786679E-1	8.508626E-1	9.314214E-1	9.644008E-1	9.356400E-1	8.966255E-1	9.257597E-1	9.636777E-1	9.298297E-1	8.963150E-1	8.971314E-1	9.260136E-1	9.321992E-1	8.991018E-1	8.700777E-1	9.449019E-1	9.524883E-1	8.847865E-1	9.382277E-1	9.566704E-1	9.298439E-1	8.762742E-1	9.503158E-1	9.261039E-1	9.493893E-1	9.271085E-1	9.180166E-1	9.394997E-1	9.265897E-1	8.555624E-1	9.204726E-1	9.273457E-1	9.054651E-1	8.798113E-1	9.093468E-1	8.805146E-1	9.410259E-1	8.789212E-1	9.574949E-1	9.627408E-1	9.338008E-1	8.944324E-1	9.388099E-1	9.511221E-1	9.211868E-1	9.324118E-1	9.576456E-1	8.971487E-1	9.337750E-1	8.910317E-1	8.880964E-1	9.479797E-1	9.695479E-1	9.296489E-1	9.579938E-1	9.224983E-1	9.222234E-1	9.153020E-1	8.859202E-1	9.250784E-1	9.517627E-1	8.943641E-1	8.867575E-1	9.003112E-1	9.791136E-1	9.108938E-1	9.106889E-1	9.274378E-1	9.031768E-1	9.785847E-1	9.094294E-1	9.063034E-1	9.369953E-1	9.685343E-1	9.134260E-1	8.776167E-1	9.407055E-1	9.282891E-1	9.234614E-1	9.359800E-1	9.503274E-1	9.141550E-1	9.106332E-1	9.597529E-1	9.752884E-1	9.150016E-1	9.298995E-1	9.375926E-1	9.164086E-1	8.930950E-1	9.605778E-1	9.447993E-1	9.401736E-1	9.266037E-1	8.943205E-1	8.977740E-1	9.535785E-1	9.003398E-1	9.431741E-1	9.674886E-1	9.071609E-1	9.117965E-1	9.301298E-1	8.966069E-1	9.366707E-1	9.358720E-1	9.410320E-1	9.421075E-1	8.724436E-1	9.068225E-1	9.573711E-1	9.353383E-1	9.446402E-1	9.558131E-1	9.516243E-1	9.401717E-1	9.044328E-1	9.343392E-1	9.273791E-1	9.100378E-1	9.321411E-1	8.820428E-1	9.438119E-1	9.413266E-1	8.887827E-1	9.148736E-1	8.822868E-1	9.440115E-1	9.173736E-1	9.058985E-1	8.934551E-1	9.270160E-1	9.499542E-1	9.507914E-1	9.274447E-1	9.122227E-1	9.183993E-1	9.328224E-1	9.236442E-1	9.606329E-1	9.170021E-1	9.291321E-1	9.627473E-1	8.824896E-1	9.579234E-1	9.337061E-1	9.380741E-1	9.225424E-1	9.501130E-1	8.873714E-1	9.045554E-1	9.376559E-1	9.340832E-1	9.196597E-1	9.824298E-1	9.027565E-1	8.954121E-1	1.043188E+0
5.550140E+2	9.701536E-1	8.953759E-1	9.200719E-1	8.861193E-1	9.384333E-1	9.382337E-1	8.817710E-1	9.478527E-1	9.260964E-1	8.752059E-1	9.121423E-1	9.234145E-1	9.555460E-1	9.271975E-1	9.400973E-1	9.827647E-1	9.581585E-1	8.587664E-1	8.917307E-1	9.260138E-1	9.430050E-1	8.811779E-1	9.622312E-1	9.261565E-1	1.008942E+0	8.796153E-1	9.235938E-1	9.623403E-1	9.662815E-1	9.187808E-1	9.201604E-1	9.203456E-1	9.507918E-1	9.452149E-1	9.489842E-1	9.631516E-1	9.418679E-1	8.804898E-1	9.248609E-1	9.194120E-1	9.047949E-1	8.931428E-1	9.283812E-1	9.531971E-1	9.338773E-1	9.479397E-1	9.274286E-1	9.588525E-1	9.176360E-1	9.346977E-1	8.994885E-1	9.747803E-1	9.157423E-1	9.303313E-1	9.596865E-1	9.272755E-1	9.525315E-1	9.081606E-1	9.550061E-1	9.524836E-1	9.278706E-1	9.117727E-1	9.551955E-1	9.164157E-1	9.648732E-1	9.116469E-1	9.123023E-1	9.400577E-1	9.197651E-1	9.406372E-1	9.788386E-1	9.281425E-1	9.280292E-1	9.204924E-1	9.316956E-1	9.732283E-1	9.823761E-1	9.096949E-1	9.461079E-1	9.520382E-1	9.333088E-1	9.347029E-1	9.202253E-1	9.881596E-1	9.248277E-1	9.376602E-1	9.313108E-1	9.973608E-1	9.262124E-1	9.676701E-1	9.369461E-1	9.210975E-1	9.610663E-1	9.339586E-1	9.677655E-1	9.476075E-1	9.829309E-1	9.675496E-1	1.006476E+0	9.368975E-1	1.014591E+0	9.063499E-1	9.502936E-1	9.783302E-1	9.639876E-1	9.279817E-1	9.515547E-1	8.920905E-1	8.958305E-1	9.762638E-1	9.998066E-1	9.146509E-1	9.201284E-1	9.772998E-1	8.953629E-1	9.255256E-1	9.423967E-1	9.527002E-1	9.371676E-1	9.397536E-1	9.482572E-1	9.236820E-1	9.573626E-1	9.231602E-1	9.161046E-1	9.564851E-1	9.172352E-1	8.856707E-1	9.663413E-1	9.525770E-1	9.742710E-1	9.509804E-1	9.717581E-1	9.570144E-1	9.105683E-1	9.673269E-1	9.251381E-1	9.198256E-1	9.461922E-1	9.726849E-1	9.477858E-1	9.307787E-1	9.365068E-1	9.374945E-1	9.348290E-1	8.963877E-1	9.178257E-1	9.220883E-1	9.801529E-1	9.457927E-1	9.412513E-1	9.910925E-1	9.691070E-1	9.068765E-1	9.627279E-1	9.412373E-1	9.326308E-1	9.452506E-1	9.344930E-1	9.270855E-1	9.090573E-1	8.933981E-1	8.763770E-1	9.142927E-1	8.791684E-1	8.924913E-1
5.560410E+2	1.014741E+0	9.591294E-1	1.096712E+0	1.038304E+0	1.035913E+0	9.389946E-1	1.075206E+0	1.034858E+0	1.015291E+0	9.449469E-1	9.844389E-1	9.942729E-1	9.968859E-1	9.717248E-1	1.026127E+0	9.636771E-1	1.020483E+0	9.385581E-1	1.018639E+0	1.001473E+0	1.059171E+0	9.468994E-1	1.060619E+0	1.017294E+0	9.993041E-1	9.500624E-1	9.954322E-1	1.016207E+0	1.029532E+0	9.950221E-1	9.981717E-1	1.036799E+0	1.018818E+0	1.001625E+0	1.010919E+0	1.025236E+0	9.877036E-1	9.815817E-1	1.032388E+0	1.013887E+0	9.879707E-1	9.415584E-1	1.023554E+0	9.936536E-1	1.004655E+0	1.016957E+0	1.021823E+0	1.032075E+0	1.021655E+0	1.022051E+0	1.063441E+0	1.026827E+0	1.075668E+0	9.511323E-1	1.014783E+0	1.007846E+0	1.017458E+0	9.629719E-1	1.029188E+0	1.020793E+0	9.932611E-1	1.027968E+0	9.964641E-1	9.846736E-1	1.011266E+0	1.027865E+0	1.033222E+0	1.013530E+0	1.012038E+0	1.027115E+0	1.054038E+0	1.027018E+0	1.005027E+0	1.037884E+0	9.954650E-1	1.016650E+0	9.860421E-1	1.006865E+0	1.037803E+0	9.855772E-1	1.036528E+0	1.037736E+0	1.047909E+0	1.004373E+0	1.008361E+0	9.501560E-1	1.063962E+0	9.703243E-1	1.046788E+0	1.028066E+0	1.014423E+0	9.840072E-1	1.023198E+0	1.036332E+0	1.016555E+0	9.912418E-1	9.926321E-1	9.808952E-1	1.050917E+0	1.068355E+0	1.011957E+0	1.003118E+0	9.474231E-1	1.015782E+0	1.007017E+0	1.082777E+0	1.026216E+0	9.986629E-1	1.038159E+0	1.011090E+0	9.960195E-1	1.041627E+0	1.033043E+0	1.036373E+0	1.029472E+0	9.514796E-1	1.014964E+0	1.011157E+0	1.059891E+0	1.064122E+0	1.007580E+0	1.048471E+0	1.005420E+0	9.793723E-1	1.046046E+0	1.028640E+0	9.767447E-1	1.004798E+0	1.018733E+0	9.885640E-1	1.013530E+0	1.061999E+0	1.009788E+0	1.004423E+0	1.061873E+0	9.821638E-1	9.844317E-1	1.027577E+0	9.989292E-1	1.061700E+0	9.412813E-1	1.025654E+0	9.978543E-1	1.024140E+0	1.089737E+0	9.758150E-1	1.002925E+0	9.932464E-1	1.048565E+0	1.035914E+0	9.926888E-1	1.055198E+0	1.039939E+0	9.786648E-1	1.013530E+0	1.011705E+0	1.028402E+0	1.054037E+0	1.020030E+0	1.030819E+0	1.041336E+0	1.012350E+0	1.012880E+0	9.186170E-1	8.872897E-1	9.756345E-1
5.570330E+2	1.046811E+0	1.069859E+0	1.065387E+0	1.084620E+0	1.060834E+0	1.130106E+0	1.020413E+0	1.044060E+0	1.040066E+0	1.119297E+0	1.084277E+0	1.082498E+0	1.036697E+0	1.074073E+0	1.047294E+0	1.075021E+0	1.048105E+0	1.082049E+0	1.094918E+0	1.076275E+0	1.067276E+0	1.091619E+0	1.053690E+0	1.056076E+0	1.039923E+0	1.094187E+0	1.073258E+0	1.048102E+0	1.037782E+0	1.058444E+0	1.057172E+0	9.990473E-1	9.956756E-1	1.016250E+0	1.062531E+0	1.044454E+0	1.042839E+0	9.767350E-1	1.044823E+0	1.068696E+0	1.056389E+0	1.031372E+0	1.091233E+0	1.054681E+0	1.054700E+0	1.040902E+0	1.067972E+0	1.059291E+0	1.084207E+0	1.064362E+0	1.020120E+0	1.053864E+0	1.008975E+0	9.788675E-1	1.046753E+0	1.044980E+0	1.047758E+0	1.076705E+0	1.080097E+0	9.832606E-1	1.016974E+0	1.038281E+0	1.021645E+0	1.053608E+0	1.047181E+0	1.046138E+0	1.086720E+0	1.005683E+0	1.015015E+0	1.059734E+0	1.073221E+0	1.060709E+0	1.058331E+0	1.000968E+0	1.001468E+0	1.037175E+0	1.116574E+0	1.059800E+0	1.070813E+0	1.051891E+0	1.094036E+0	1.072337E+0	1.100795E+0	1.044168E+0	1.085681E+0	1.066522E+0	1.052973E+0	1.033899E+0	1.056718E+0	1.028830E+0	1.040005E+0	1.074203E+0	1.061374E+0	1.041640E+0	1.016554E+0	1.075648E+0	1.066776E+0	1.073611E+0	1.021775E+0	1.065481E+0	1.013932E+0	1.099134E+0	1.029948E+0	1.076551E+0	1.089605E+0	1.050396E+0	1.069642E+0	1.071161E+0	1.076395E+0	1.005162E+0	1.014953E+0	1.032940E+0	1.034482E+0	1.024098E+0	1.081665E+0	1.076926E+0	1.037192E+0	9.941371E-1	1.030705E+0	1.020703E+0	1.030731E+0	1.011856E+0	1.097228E+0	1.072566E+0	1.074835E+0	1.047928E+0	1.056542E+0	1.002091E+0	1.100960E+0	1.056220E+0	1.056173E+0	1.004076E+0	1.072711E+0	1.071397E+0	1.039248E+0	9.977075E-1	1.047254E+0	1.048102E+0	1.043229E+0	1.054734E+0	1.077157E+0	9.863701E-1	1.013191E+0	1.069629E+0	1.019324E+0	1.016622E+0	1.063295E+0	1.013260E+0	1.013983E+0	1.074537E+0	1.083283E+0	1.055952E+0	1.062308E+0	1.120792E+0	1.122607E+0	1.042624E+0	1.059565E+0	9.926702E-1	1.080619E+0	1.061212E+0	1.058496E+0	1.015439E+0	9.666794E-1	1.003685E+0	1.055814E+0	1.022402E+0
5.580230E+2	1.021781E+0	1.192331E+0	1.080179E+0	1.010182E+0	1.060101E+0	1.075286E+0	1.043659E+0	1.085053E+0	1.050685E+0	1.058767E+0	1.069818E+0	1.055405E+0	1.083398E+0	1.047489E+0	1.013838E+0	1.039390E+0	1.043148E+0	1.061934E+0	1.070617E+0	9.765386E-1	1.051066E+0	1.110206E+0	1.056462E+0	1.031513E+0	1.044054E+0	1.080615E+0	1.024035E+0	1.038888E+0	1.081782E+0	1.046300E+0	1.065694E+0	1.002886E+0	1.077027E+0	1.054553E+0	1.031564E+0	1.025976E+0	1.062767E+0	1.192076E+0	1.009712E+0	1.006675E+0	1.026205E+0	1.159779E+0	1.087708E+0	1.062223E+0	1.047550E+0	1.111328E+0	1.029516E+0	1.061882E+0	1.066637E+0	1.056855E+0	1.038115E+0	1.053188E+0	1.059335E+0	1.089114E+0	1.058316E+0	1.036573E+0	1.060021E+0	1.078076E+0	1.074279E+0	1.056825E+0	1.052186E+0	1.069221E+0	1.037032E+0	1.044822E+0	1.023986E+0	1.072451E+0	1.072063E+0	1.060608E+0	1.061152E+0	1.044562E+0	1.074756E+0	1.038736E+0	1.033900E+0	1.055603E+0	1.072739E+0	1.021386E+0	1.076241E+0	1.033695E+0	1.025333E+0	1.068661E+0	1.082240E+0	1.073875E+0	1.070574E+0	1.004373E+0	1.029072E+0	1.086047E+0	1.028641E+0	1.030975E+0	1.029056E+0	1.102987E+0	1.007845E+0	1.022663E+0	1.079340E+0	1.046190E+0	1.021652E+0	1.027007E+0	1.090336E+0	9.738710E-1	1.042174E+0	1.061889E+0	1.032372E+0	1.021870E+0	1.019901E+0	1.048993E+0	1.052129E+0	1.077248E+0	1.103925E+0	1.058836E+0	1.070023E+0	1.059255E+0	1.058123E+0	1.018905E+0	1.020098E+0	1.033304E+0	1.077316E+0	1.063228E+0	1.036538E+0	1.079973E+0	1.021726E+0	9.706619E-1	1.050987E+0	1.085833E+0	1.043434E+0	1.079962E+0	1.035152E+0	1.065073E+0	1.043693E+0	1.028489E+0	1.036197E+0	1.073493E+0	1.025037E+0	1.008903E+0	1.051275E+0	1.026246E+0	1.042076E+0	1.018904E+0	9.957257E-1	1.071557E+0	1.004556E+0	1.017580E+0	1.064870E+0	9.759932E-1	1.055716E+0	1.040748E+0	1.059225E+0	1.065445E+0	1.086571E+0	1.089606E+0	1.064354E+0	1.034399E+0	9.957606E-1	9.812879E-1	9.884924E-1	1.075108E+0	1.050886E+0	1.026805E+0	1.074007E+0	1.066589E+0	1.089172E+0	1.040731E+0	1.059926E+0	1.022392E+0	1.052781E+0	1.111822E+0	1.061904E+0	1.230260E+0
5.590160E+2	1.048324E+0	1.043294E+0	9.167077E-1	1.027661E+0	9.934037E-1	1.059093E+0	1.039896E+0	9.729510E-1	1.089194E+0	1.150921E+0	1.017902E+0	9.800087E-1	9.918337E-1	1.082890E+0	1.046884E+0	9.754691E-1	1.000275E+0	1.162377E+0	1.026964E+0	1.093686E+0	9.472827E-1	1.070995E+0	9.969202E-1	1.024059E+0	9.552884E-1	1.110733E+0	1.045453E+0	9.777914E-1	9.547782E-1	1.105179E+0	1.008486E+0	1.114818E+0	1.008299E+0	1.055249E+0	1.027986E+0	1.001683E+0	1.038233E+0	1.113555E+0	1.067743E+0	1.063985E+0	1.119175E+0	1.094336E+0	9.597763E-1	1.055731E+0	1.018191E+0	1.003952E+0	9.957655E-1	9.251579E-1	9.760645E-1	1.027601E+0	1.040026E+0	9.402179E-1	1.019093E+0	1.118143E+0	9.628154E-1	1.086176E+0	9.884569E-1	1.083055E+0	9.733329E-1	1.038659E+0	1.040160E+0	1.023109E+0	1.031670E+0	1.077982E+0	1.030471E+0	1.026597E+0	1.009771E+0	1.055044E+0	1.040266E+0	1.033588E+0	9.323886E-1	1.045084E+0	9.955994E-1	1.074160E+0	1.087944E+0	1.024123E+0	9.355900E-1	1.011361E+0	1.010514E+0	1.035529E+0	9.168917E-1	9.128147E-1	9.470713E-1	1.081311E+0	1.011352E+0	1.031326E+0	9.996507E-1	1.031461E+0	9.908978E-1	9.582924E-1	1.090147E+0	1.038277E+0	8.997336E-1	1.026878E+0	1.047575E+0	1.020903E+0	9.509167E-1	1.110978E+0	9.180803E-1	9.225786E-1	9.869751E-1	1.042924E+0	1.158113E+0	9.825698E-1	9.336825E-1	9.612573E-1	9.054883E-1	1.011761E+0	1.012431E+0	1.036432E+0	1.000967E+0	1.095270E+0	1.055578E+0	9.930529E-1	9.751518E-1	1.040734E+0	1.096466E+0	1.055210E+0	9.931396E-1	1.069420E+0	1.017805E+0	9.743444E-1	9.449308E-1	1.004767E+0	1.023430E+0	9.675346E-1	1.078406E+0	1.168914E+0	9.456274E-1	1.047103E+0	9.871771E-1	1.032715E+0	1.005685E+0	1.026046E+0	1.063947E+0	1.089887E+0	1.130077E+0	1.027040E+0	1.113639E+0	9.662859E-1	1.018952E+0	1.130412E+0	1.069287E+0	1.015765E+0	9.784853E-1	1.112907E+0	1.005739E+0	1.021167E+0	9.759423E-1	9.802258E-1	1.024269E+0	1.033980E+0	9.822300E-1	9.848531E-1	9.121749E-1	1.055087E+0	9.552814E-1	1.054083E+0	9.711310E-1	1.002496E+0	9.971005E-1	1.136761E+0	1.108852E+0	1.148828E+0	1.220412E+0	8.360230E-1
