Photon Energy (eV)	#1	#2	#3	#4	#5	#6	#7	#8	#9	#10	#11	#12	#13	#14	#15	#16	#17	#18	#19	#20	#21	#22	#23	#24	#25	#26	#27	#28	#29	#30	#31	#32	#33	#34	#35	#36	#37	#38	#39	#40	#41	#42	#43	#44	#45	#46	#47	#48	#49	#50	#51	#52	#53	#54	#55	#56	#57	#58	#59	#60	#61	#62	#63	#64	#65	#66	#67	#68	#69	#70	#71	#72	#73	#74	#75	#76	#77	#78	#79	#80	#81	#82	#83	#84	#85	#86	#87	#88	#89	#90	#91	#92	#93	#94	#95	#96	#97	#98	#99	#100	#101	#102	#103	#104	#105	#106	#107	#108	#109	#110	#111	#112	#113	#114	#115	#116	#117	#118	#119	#120	#121	#122	#123	#124	#125	#126	#127	#128	#129	#130	#131	#132	#133	#134	#135	#136	#137	#138	#139	#140	#141	#142	#143	#144	#145	#146	#147	#148	#149	#150	#151	#152	#153	#154	#155	#156	#157	#158	#159	#160	#161	#162	#163	#164	#165	#166	
5.290120E+2	-9.115840E-3	-2.704118E-2	-7.718757E-3	-9.702185E-3	-1.568518E-2	-1.540475E-2	-4.182339E-2	-3.381954E-2	-5.359538E-3	-2.782355E-2	-1.314645E-2	-1.144513E-2	-2.437902E-2	-1.744643E-2	-1.095191E-2	-2.628437E-2	-1.703833E-2	-1.849046E-2	-1.662441E-2	-1.593132E-2	-2.739098E-2	-2.830471E-2	-1.391583E-2	-2.409072E-2	-1.918873E-2	-2.455729E-2	-1.152589E-2	-3.855902E-2	-2.923135E-2	-2.096634E-2	-2.456305E-2	-1.169657E-2	-1.937850E-2	-2.903004E-2	-2.917124E-2	-2.440323E-2	-3.817383E-2	-2.435321E-2	-1.040049E-2	-3.723793E-2	-1.341075E-2	-2.635876E-2	-6.355940E-3	4.183906E-3	-1.666050E-2	-2.553165E-2	-2.007035E-2	-2.573284E-2	-1.668277E-2	-1.635263E-2	-2.401100E-2	-3.968937E-2	-1.178892E-2	-2.306879E-2	-1.736247E-2	-2.226473E-2	-3.613658E-2	-2.553672E-2	-1.177782E-2	-3.888532E-2	-1.911326E-2	-2.684505E-2	-3.166072E-2	-1.844912E-2	-1.829343E-2	-1.691190E-2	-2.991758E-2	-2.147906E-2	-1.921381E-2	-1.753677E-2	-3.423170E-2	-3.060587E-2	4.444444E-3	-1.599698E-2	-2.215723E-2	-2.001067E-2	-7.486656E-3	-2.360221E-2	-8.927888E-3	-1.587339E-2	-6.715683E-3	-2.914694E-2	-2.862030E-2	-1.430019E-2	-1.965645E-2	-3.264793E-2	-1.951539E-2	-2.416761E-2	-2.653365E-2	-3.652624E-2	-2.884385E-2	-1.260962E-2	-1.648204E-2	-2.082785E-2	-1.734616E-2	-3.059837E-2	-7.160882E-3	-1.926765E-2	-1.202580E-2	-9.730584E-3	-1.541830E-2	-1.640343E-2	-2.886835E-2	-1.562901E-2	-2.093879E-2	-1.892184E-2	-2.825891E-2	-2.495418E-2	-3.673103E-2	-2.103736E-2	-1.623545E-2	-4.363736E-2	-2.755775E-2	-2.729940E-2	-2.754406E-2	-1.126929E-2	-3.049473E-2	-1.873343E-2	-2.226848E-2	-2.278734E-2	-2.041470E-2	-9.416245E-3	-3.070830E-2	-1.645928E-2	-3.503279E-2	-2.515741E-2	-2.913977E-2	-9.516420E-3	-2.312116E-2	-2.188139E-2	-4.731144E-2	-2.692621E-2	-1.747062E-2	-4.647271E-2	-2.986019E-2	-8.939340E-3	-2.272490E-2	-1.070133E-2	-3.389708E-2	-1.579753E-2	-3.455270E-2	-3.110023E-2	-2.620930E-2	-1.384231E-2	-1.923091E-2	-1.392353E-2	-2.601245E-2	-1.505585E-2	-1.418778E-2	-1.354556E-2	-1.972723E-2	-1.610633E-2	-3.460548E-2	-2.471346E-2	-3.438610E-2	-1.833980E-2	-7.694524E-3	-1.765496E-2	-2.526172E-2	-1.606800E-2	-2.334144E-2	-3.385713E-2	-1.544188E-2	-2.645685E-3	-1.555787E-2	-9.186788E-3
5.295010E+2	-1.263995E-2	-7.706754E-3	1.735442E-2	-1.282868E-3	-1.071870E-2	2.719351E-2	-7.893082E-3	-3.173341E-3	-2.867625E-3	-7.264398E-3	-1.830166E-3	-5.586527E-3	6.337853E-4	-1.207152E-2	3.061946E-2	6.218849E-3	2.366478E-2	1.026498E-3	-4.559917E-3	-1.208758E-2	1.275205E-2	-2.474400E-3	-7.659230E-3	-1.874890E-2	1.072169E-2	1.496374E-2	-1.122794E-2	-1.838906E-3	-1.226743E-2	8.782277E-3	2.492886E-2	-4.031521E-3	1.330885E-2	1.199146E-2	7.601070E-3	8.834944E-3	-1.953099E-2	-7.227246E-4	4.404598E-3	1.464060E-2	4.619149E-3	-8.607862E-3	-1.088438E-2	-2.851176E-3	-1.902033E-2	-1.055499E-2	2.521462E-2	7.250513E-3	6.926749E-3	4.839415E-3	3.481191E-4	-2.343270E-3	1.486426E-3	-1.233706E-2	-9.170655E-3	-7.519687E-3	2.040786E-2	1.573199E-2	3.959426E-3	-3.569720E-3	-1.520790E-3	1.761043E-2	-6.908423E-3	-4.021510E-3	-1.937439E-2	-1.954616E-2	4.866176E-3	2.071676E-2	-1.143232E-2	-1.502797E-2	-7.508719E-3	-2.857005E-3	6.366424E-3	-2.087588E-3	5.573093E-3	-4.955370E-4	-2.821856E-3	-8.697094E-3	-1.488078E-2	-5.335258E-3	-1.137651E-2	-5.267989E-3	-4.812001E-3	-4.646418E-3	-1.253978E-3	1.072084E-3	-4.161593E-3	3.564197E-3	-9.199969E-3	-1.301001E-2	4.658590E-3	-8.707629E-3	-1.022425E-2	-1.025517E-2	-5.363318E-3	-5.469570E-3	-6.068360E-3	1.672198E-2	-1.398541E-2	-7.075458E-3	1.334181E-2	-1.353439E-3	2.388179E-2	-2.331073E-4	1.310833E-2	-4.270239E-3	-1.209943E-2	2.094569E-2	1.398803E-2	-6.796712E-3	1.043027E-2	3.576332E-3	5.711639E-3	2.385968E-4	1.438308E-2	-1.628779E-2	4.231551E-3	-1.084625E-2	-9.239858E-3	3.762137E-4	3.406063E-4	-1.214883E-2	-1.105572E-2	7.998110E-3	2.000402E-3	4.559226E-3	1.025660E-2	-7.786433E-3	-1.159720E-2	3.579482E-3	-6.121927E-3	-1.071919E-2	2.090585E-3	1.519028E-2	6.972478E-3	-1.431556E-2	-1.337412E-2	1.405690E-2	8.508995E-3	3.222826E-3	2.712064E-3	-6.726177E-3	-1.953305E-2	3.555784E-3	2.560512E-3	9.955691E-3	-5.918763E-3	-1.717436E-3	-1.914332E-2	-3.622749E-3	-4.051089E-3	2.664813E-3	-3.564077E-3	9.483030E-3	7.094080E-4	-6.199772E-3	-1.525791E-2	-5.823952E-3	-9.685740E-3	-2.999182E-3	-5.661218E-3	9.406727E-3	-1.510520E-2	-2.345776E-3	5.041303E-3	1.107994E-2
5.300010E+2	2.468614E-2	1.970623E-2	1.224868E-2	4.753767E-3	3.699195E-2	3.527619E-2	5.766154E-3	3.075228E-2	2.987114E-2	4.246993E-2	4.037996E-2	8.637995E-3	1.658154E-2	1.533800E-2	1.660586E-3	3.625994E-2	2.209557E-2	-1.275898E-3	2.342001E-2	1.673933E-2	2.362779E-3	3.062677E-2	3.625494E-2	2.283841E-2	1.822101E-2	1.392781E-2	2.651846E-2	1.723155E-2	1.521820E-2	3.232468E-2	3.563743E-2	4.753734E-2	4.916615E-2	1.905141E-2	5.027424E-2	2.301929E-2	2.374434E-2	3.555702E-2	2.033992E-2	2.395350E-2	1.006940E-2	2.446191E-2	2.498879E-2	9.643808E-3	1.165547E-2	3.293633E-2	3.634199E-2	1.236185E-2	1.845710E-2	2.429138E-2	1.049339E-2	3.751551E-2	3.484576E-2	2.234969E-2	2.708979E-2	3.986509E-2	2.834875E-2	1.367540E-2	3.544443E-2	2.437063E-2	2.724139E-2	1.552012E-2	4.027132E-2	2.034630E-2	4.895462E-2	4.544967E-2	1.769084E-2	2.118232E-2	3.073890E-2	3.184571E-2	2.961143E-2	3.132371E-2	2.695222E-2	2.767122E-2	2.395281E-2	1.852360E-2	2.670644E-2	4.845479E-2	2.158691E-2	2.993912E-2	7.372633E-3	3.006975E-2	3.356247E-2	3.246000E-2	2.075697E-2	3.794538E-2	3.142947E-2	5.090570E-2	5.063403E-2	6.173433E-2	3.613158E-2	2.344871E-2	1.496155E-2	2.891773E-2	1.888127E-2	3.287477E-2	2.195264E-2	3.034416E-2	2.579225E-2	2.967839E-2	2.631006E-2	2.981287E-2	2.426137E-2	2.185317E-2	1.829667E-2	2.709376E-2	4.529606E-2	1.768732E-2	3.054631E-2	2.079155E-2	1.077029E-2	3.716966E-2	1.831866E-2	3.917610E-2	2.482304E-2	3.262869E-2	3.155672E-2	4.431439E-2	3.092698E-2	1.185669E-2	2.111708E-2	9.452652E-3	3.713985E-2	3.257674E-2	1.670887E-2	3.444906E-2	3.326497E-2	2.801928E-2	3.665626E-2	1.926727E-2	3.236640E-2	3.531646E-2	7.482311E-3	4.603724E-2	2.026555E-2	1.439989E-2	1.124579E-2	2.215027E-2	2.438133E-2	3.888774E-2	3.950586E-2	3.062538E-2	2.364172E-2	3.821751E-2	3.641407E-2	3.104289E-2	1.737559E-2	2.866428E-2	2.318500E-2	1.191377E-2	8.136251E-3	3.795824E-2	1.499929E-2	3.665062E-2	2.477740E-2	1.867515E-2	3.375928E-2	1.917388E-2	3.663650E-2	3.587572E-2	1.914612E-2	2.769185E-2	2.218630E-2	3.324336E-2	4.207302E-2	1.650162E-2
5.305030E+2	6.100049E-3	2.504423E-3	3.234861E-3	1.742537E-2	-3.034333E-3	-3.010259E-3	1.637313E-2	2.177167E-2	3.714439E-3	9.979891E-3	2.029775E-2	1.531025E-2	1.271135E-2	8.867841E-3	9.155604E-3	-1.759106E-3	6.684635E-3	1.228975E-2	1.291321E-2	7.131946E-4	1.361256E-2	8.952995E-3	6.222855E-3	2.583212E-2	1.440171E-2	1.369752E-2	1.263925E-2	2.051799E-2	5.301962E-3	1.542017E-2	8.549940E-3	-3.900872E-3	3.891637E-3	1.399998E-2	1.043176E-2	1.374114E-2	3.810280E-2	7.571992E-3	1.813338E-2	3.122671E-2	8.352643E-3	2.592408E-2	1.725692E-2	1.277653E-2	2.630021E-2	1.265822E-2	8.343703E-3	1.285970E-2	4.474570E-3	5.715138E-3	2.340783E-2	2.048467E-2	1.725365E-3	2.732537E-2	5.920324E-4	1.824053E-2	1.578463E-2	1.045733E-2	9.296686E-4	1.254545E-2	2.726225E-2	1.816336E-2	2.114860E-2	2.401678E-2	1.988913E-2	1.828219E-2	1.169837E-2	6.191088E-3	1.411857E-2	9.665105E-3	2.320418E-3	1.810741E-2	6.526009E-3	-5.859918E-3	3.040223E-2	1.850333E-2	1.971848E-3	8.878617E-3	5.562903E-3	1.067793E-2	2.667513E-2	7.425363E-3	2.635772E-2	1.633930E-2	4.419439E-3	1.800395E-2	2.975034E-2	1.243238E-2	2.131174E-2	1.078731E-2	-1.076530E-2	1.085054E-2	1.755021E-2	1.360441E-2	2.767734E-2	-2.655196E-3	1.681693E-2	1.262148E-2	9.425153E-3	6.324064E-3	1.475558E-2	1.791821E-3	-2.332148E-3	8.933479E-3	3.042509E-2	1.690937E-2	1.076398E-2	-8.668482E-3	1.472938E-2	2.414305E-2	1.259724E-3	1.890001E-2	1.801584E-2	2.446192E-2	1.287737E-2	4.901096E-3	1.258119E-2	2.826113E-2	1.212340E-2	-9.336071E-3	5.467764E-3	2.357295E-2	3.865615E-3	2.345138E-2	2.804758E-2	1.365243E-2	2.714511E-3	1.392774E-2	-9.485218E-3	2.507710E-2	2.989965E-2	7.488813E-3	1.578309E-2	1.887175E-2	1.525705E-2	1.267753E-2	2.763595E-2	4.314209E-3	2.270643E-2	1.831647E-2	1.544966E-2	1.179975E-2	1.913908E-3	7.929702E-3	4.164223E-4	1.813193E-2	7.098016E-3	6.744781E-3	2.439690E-2	8.866937E-3	7.836581E-3	7.755694E-3	1.622456E-2	-6.126591E-4	3.969334E-2	1.540303E-2	1.773556E-2	2.894102E-3	2.563160E-2	1.991155E-2	1.401271E-2	2.244946E-2	6.964390E-3	-3.230599E-2	1.203549E-2	-8.097625E-3
5.310050E+2	-1.639961E-2	4.430681E-3	-1.146438E-3	9.521579E-3	-5.134663E-3	-3.493060E-3	1.436653E-2	-8.504154E-3	-7.782923E-3	-8.823724E-3	-4.717113E-3	5.939349E-3	-4.656699E-4	3.595261E-3	-1.477141E-2	1.279102E-3	-1.366092E-2	6.708610E-3	3.695828E-3	6.054978E-3	2.079831E-2	-1.417854E-2	4.638081E-3	8.203097E-5	1.052478E-2	-1.182722E-2	-3.965534E-3	1.802348E-2	5.665713E-3	2.293560E-2	1.503711E-3	-1.842253E-4	-1.591478E-2	-1.240936E-2	3.826158E-3	1.930251E-3	-7.854290E-3	7.248398E-3	7.197743E-3	-8.783369E-3	-3.450050E-3	-7.414794E-3	-5.360355E-3	-7.103758E-3	4.436003E-3	9.572232E-3	7.686982E-4	2.044375E-3	1.246519E-2	-9.369648E-3	-8.494667E-3	-1.072725E-2	8.279224E-3	2.265691E-3	-4.481749E-3	-3.586956E-3	2.760714E-3	-4.104607E-3	4.960035E-3	4.990920E-3	-2.835535E-3	8.189689E-3	5.428134E-3	-1.057868E-2	-1.318492E-2	8.186283E-3	6.165657E-3	1.036180E-2	-1.928697E-2	-5.780808E-3	1.025051E-2	-3.240844E-4	-7.558044E-5	1.309630E-2	-1.012575E-2	-4.989829E-3	-2.105536E-3	-9.260286E-3	3.474146E-4	-2.321232E-2	-4.809742E-3	-3.673822E-3	5.767011E-5	-1.293636E-2	1.046225E-2	1.054059E-2	-1.898499E-2	1.362007E-3	5.336859E-3	-2.765927E-4	1.731853E-3	6.192005E-3	1.662780E-2	3.926859E-3	-7.461323E-3	8.775587E-3	1.031109E-2	-9.368843E-3	4.580268E-3	-1.239075E-2	-5.394919E-7	-4.922817E-3	-4.714784E-3	9.380430E-3	-8.639527E-3	-9.228862E-3	1.851541E-2	-1.586235E-3	1.452110E-2	2.710714E-3	8.113358E-3	-5.647718E-3	4.848108E-4	-1.421036E-2	4.452524E-3	4.577386E-3	-6.409853E-3	-1.057940E-2	-2.352424E-3	1.063155E-2	-2.175640E-3	4.049069E-3	9.141685E-3	-1.593779E-2	7.982510E-3	-1.232260E-2	1.217517E-2	-1.478071E-4	-2.650293E-3	1.006754E-3	1.100359E-2	-1.277107E-3	-8.889745E-3	-2.042643E-3	-6.672646E-3	-4.603103E-4	-7.756065E-3	-1.177684E-2	-6.492920E-3	-1.817783E-2	-1.293631E-2	-1.113462E-2	1.545421E-2	-1.890953E-2	6.842440E-3	-8.311816E-3	1.078271E-2	-2.127783E-3	-1.662199E-2	1.648136E-3	1.863303E-2	-1.759816E-2	3.123739E-3	-9.895232E-4	6.088374E-4	5.389397E-3	-9.908261E-3	-4.009478E-3	-6.934025E-3	-4.757074E-3	-3.223744E-4	-2.505702E-3	6.225151E-4	-8.910309E-3	4.289473E-3	2.247171E-2
5.315030E+2	-1.236979E-2	-1.292017E-2	-1.493075E-2	-2.402919E-2	-3.270822E-3	-1.253587E-2	-1.534646E-2	-1.531299E-2	-2.974842E-2	-7.865315E-3	-2.162027E-2	-2.518385E-2	-1.801548E-2	-5.523519E-3	-1.878573E-2	-2.213664E-2	-1.752622E-2	-5.558367E-3	-2.482485E-2	-8.679865E-3	-1.230004E-2	1.297147E-2	-9.386668E-3	-2.135248E-2	-9.782082E-3	-1.544289E-2	-7.600889E-3	-1.995674E-2	-4.406009E-3	-2.849687E-2	-2.046532E-2	-1.238899E-3	-2.260210E-2	-1.971076E-2	-3.081262E-2	-2.134195E-2	1.304528E-2	-1.150905E-2	-2.053046E-2	-2.156072E-2	-1.104781E-2	-1.144534E-2	-2.532945E-2	-5.468677E-3	-1.284160E-2	-8.133976E-3	-2.791859E-2	-1.284064E-2	-5.915645E-3	-1.784007E-2	-2.466744E-3	-2.077279E-2	-3.008391E-2	-1.153048E-2	-2.867236E-3	-2.139645E-2	-1.398607E-2	-1.400706E-2	-2.076065E-2	-1.387683E-2	-1.744021E-2	-2.733494E-2	-2.305525E-2	3.649135E-3	-3.430601E-3	-1.904967E-2	-6.616405E-3	4.358426E-3	-7.736707E-3	-8.353779E-3	-1.718420E-3	-2.087614E-2	-2.082241E-2	-2.266934E-2	-1.540746E-2	-2.779319E-2	-2.169484E-2	-8.949525E-3	-1.166670E-2	-2.433700E-2	1.170233E-3	-1.190593E-2	-3.614177E-2	-3.830744E-3	-2.787139E-2	-7.740241E-3	-1.719648E-2	-2.506295E-2	-2.196853E-2	-2.415960E-2	-2.032690E-2	-2.258705E-2	-2.037488E-2	-2.690235E-2	-1.758906E-2	-1.218159E-2	-3.194617E-2	-1.833054E-2	-3.003312E-2	-2.716011E-2	-2.630495E-2	-1.611192E-2	-1.348705E-2	-2.272661E-2	-2.504114E-2	-7.798048E-3	-1.524002E-2	-1.704402E-2	-2.859783E-2	-1.172692E-2	-2.244731E-2	-1.432583E-2	-9.985939E-3	-8.611106E-3	-2.098387E-2	-9.560022E-3	-8.841665E-3	-8.885439E-3	-6.302863E-3	-9.975613E-3	-2.534008E-2	-9.645240E-3	-2.211789E-2	-2.003975E-2	-5.350919E-3	-1.780972E-2	8.251223E-3	-4.861489E-3	-7.210132E-3	-2.119729E-2	-7.726993E-3	-1.243363E-2	-1.276215E-3	-1.751701E-2	-1.175691E-2	-1.011307E-2	6.384203E-3	-2.555573E-2	-1.945914E-2	-1.855332E-2	-2.454031E-2	-6.230658E-4	-2.443059E-3	-1.276001E-2	-1.064718E-2	-2.173571E-2	-9.232368E-3	6.039817E-3	9.504834E-3	-1.518819E-2	-1.782435E-2	-5.048212E-3	-1.962905E-2	-8.621967E-3	-1.315355E-2	-1.662954E-2	-1.671841E-2	-1.030032E-2	-1.826572E-2	-1.582568E-2	-1.533475E-2	-1.963605E-2	-8.432452E-3	-2.392121E-2	-3.827943E-2	-1.606749E-2
5.320070E+2	-1.391485E-3	9.118889E-3	-7.443046E-3	-6.377560E-3	-2.529455E-2	-2.859055E-2	8.125555E-3	-1.579324E-2	-7.883523E-3	-4.849288E-3	-1.781277E-2	1.757005E-3	-5.548205E-3	-1.274858E-2	-1.986475E-2	-2.774027E-3	-8.888275E-3	-1.052983E-2	3.820825E-3	-1.871252E-3	-1.949455E-2	-1.812431E-2	-2.531492E-2	-2.434209E-3	-1.870237E-2	2.463552E-3	-1.642112E-2	-1.539706E-3	3.776952E-3	-3.208489E-2	-2.486253E-2	-2.464115E-2	-2.646509E-2	4.066065E-3	-1.365279E-2	-1.207809E-2	-7.190008E-3	-1.527495E-2	-2.486477E-2	-1.995771E-3	2.950208E-3	-2.860969E-4	-1.102566E-2	-1.868428E-2	-1.518526E-2	-2.515950E-2	-2.758340E-2	-1.313082E-2	-1.945463E-2	7.639186E-4	-1.361304E-2	2.400878E-3	-1.594517E-2	-2.463887E-2	-1.151855E-3	-1.270120E-2	-2.992813E-2	6.589420E-4	-3.161427E-2	-9.046624E-4	-2.098980E-2	-3.284381E-2	-1.322953E-2	-1.941395E-2	-1.991568E-2	-1.657676E-2	-1.427833E-2	-3.460987E-2	-1.418879E-2	-1.589948E-2	-5.475926E-3	-3.155660E-3	-2.599272E-2	3.433517E-3	-1.714687E-2	5.028588E-3	-3.745716E-3	-1.514018E-2	-9.181017E-3	9.897549E-4	-1.159389E-2	-7.973011E-3	-8.874088E-3	-1.949319E-2	-7.768070E-3	-2.933235E-2	-8.870623E-3	-1.835795E-2	-2.162206E-2	-1.881511E-2	3.269531E-3	-9.092172E-3	-2.591395E-2	-2.099726E-2	-1.727921E-2	-7.406097E-4	-5.649431E-3	-1.398899E-2	-2.561139E-3	-5.240632E-3	-2.061438E-2	-1.019212E-2	-9.279139E-3	-1.659698E-2	-9.290003E-3	-1.944610E-2	-2.131573E-2	1.036900E-2	-1.738000E-2	-1.744918E-2	-1.039766E-2	3.543331E-3	-1.907233E-2	-1.637655E-2	-7.319113E-3	-7.666986E-3	-9.188545E-3	-1.939825E-2	-1.099356E-2	-1.853449E-3	1.480022E-3	-2.062343E-2	-5.403261E-4	-1.451674E-2	-2.567809E-2	-1.676654E-2	-3.811914E-2	-1.694479E-2	-2.560624E-3	-2.357485E-2	-1.779170E-2	-1.055806E-2	-1.463976E-2	-2.399638E-2	-6.590474E-3	-1.190843E-2	-6.267882E-3	-5.820949E-3	-6.997049E-3	-1.591733E-2	-4.368943E-3	-1.523281E-3	4.485039E-3	-3.005227E-3	-1.702213E-2	-1.184964E-2	8.195690E-3	-2.546524E-2	-5.261534E-3	-1.278052E-2	-8.572591E-3	-1.185000E-2	-2.494604E-3	-2.489201E-2	-1.738520E-2	-9.502841E-3	-2.507181E-2	-9.911181E-3	-1.172868E-2	-2.052815E-2	-2.417328E-2	-3.812513E-3	-5.807958E-3	-1.918445E-3	-2.355035E-2	-1.567465E-2
5.325120E+2	2.113049E-2	1.190788E-2	-1.598969E-3	9.691084E-3	2.614629E-2	5.647871E-4	2.043156E-2	2.407932E-2	2.005645E-2	4.176458E-3	-1.550948E-3	1.057091E-2	1.848169E-2	1.998895E-2	2.293815E-2	9.196253E-3	4.668763E-3	1.582971E-2	2.159301E-3	1.506252E-2	9.659871E-3	1.053071E-2	9.160771E-3	1.787375E-2	-6.196021E-3	6.774772E-3	1.158366E-2	6.121355E-3	1.594196E-2	2.085363E-3	-7.290361E-4	-1.844109E-3	1.799384E-2	1.204125E-2	1.503426E-3	1.029764E-2	-2.143299E-3	1.482518E-3	5.720083E-3	-2.430157E-4	1.917203E-3	3.726869E-3	1.671008E-2	7.503649E-3	2.131601E-2	1.421332E-2	4.903323E-3	1.718786E-2	-2.705687E-4	7.952494E-3	1.433611E-2	1.313162E-2	1.148122E-2	1.963445E-2	7.352139E-3	9.363409E-3	1.274882E-2	3.124732E-3	1.885917E-2	1.532953E-2	7.395969E-3	2.754020E-2	8.005878E-3	4.451045E-3	5.355268E-3	1.663666E-4	1.039127E-2	-6.721454E-3	2.700113E-2	2.108799E-2	6.752407E-3	8.387643E-3	2.601603E-3	2.412782E-3	4.909182E-3	1.123370E-2	9.176319E-3	8.315882E-3	1.715916E-2	2.715116E-2	-7.221682E-4	2.047258E-2	1.847031E-2	6.407604E-3	2.091123E-2	2.158517E-3	7.549279E-3	-6.757711E-4	2.041589E-3	2.026591E-2	1.414449E-2	1.250522E-2	2.385555E-2	3.253363E-2	1.848046E-2	9.994972E-3	1.744179E-3	1.268396E-3	1.880780E-2	2.559508E-2	7.930716E-3	1.737903E-2	1.053831E-2	1.501862E-2	2.079370E-3	1.566197E-2	2.338638E-3	3.250915E-3	8.924036E-3	9.364861E-3	1.850678E-2	4.215733E-4	1.408507E-2	2.620805E-3	-6.889590E-4	2.676915E-3	6.565327E-3	-4.132765E-3	8.106806E-3	2.108801E-2	1.952495E-2	1.475907E-2	1.427508E-2	2.927337E-3	1.132244E-2	1.939555E-2	5.964300E-4	-2.690082E-3	1.996837E-2	1.772292E-2	5.682415E-3	1.910892E-2	1.692035E-2	9.929478E-3	1.238513E-2	1.865929E-2	4.857024E-3	1.333346E-2	1.124944E-2	8.018971E-3	1.873068E-2	8.682255E-3	2.690544E-3	-1.185925E-3	6.667722E-4	-3.309821E-3	-2.288431E-3	2.917423E-3	-1.872117E-3	2.270818E-2	1.556941E-2	2.223949E-3	2.594562E-2	1.369598E-2	-8.641368E-4	1.120437E-2	2.315609E-2	2.563191E-2	9.607780E-3	4.390809E-3	3.567423E-2	2.633568E-4	1.501429E-2	3.880405E-2	1.394836E-2	-1.026726E-3
5.330080E+2	4.596715E-2	3.973863E-2	6.266270E-2	6.154723E-2	6.016478E-2	5.171868E-2	4.872762E-2	5.695223E-2	4.734442E-2	4.527362E-2	5.089049E-2	4.460774E-2	5.346549E-2	3.767756E-2	5.001279E-2	5.980947E-2	5.741394E-2	4.111187E-2	3.536738E-2	2.775810E-2	4.589570E-2	4.471079E-2	3.504873E-2	4.430664E-2	3.791004E-2	4.188964E-2	4.065798E-2	5.467501E-2	4.190853E-2	5.212828E-2	3.916312E-2	5.071387E-2	4.446346E-2	4.925818E-2	3.771766E-2	4.785937E-2	4.381481E-2	5.677249E-2	4.850822E-2	4.303875E-2	3.482264E-2	5.850932E-2	5.580251E-2	5.304547E-2	3.547509E-2	4.052766E-2	1.277971E-2	5.927481E-2	5.332673E-2	3.899096E-2	4.886470E-2	5.453451E-2	4.740778E-2	4.110667E-2	3.311702E-2	4.914994E-2	4.898825E-2	3.781041E-2	4.027056E-2	3.818608E-2	1.959859E-2	5.763613E-2	4.833769E-2	4.557268E-2	6.675617E-2	5.512439E-2	3.804525E-2	2.207838E-2	6.158635E-2	4.024780E-2	3.205278E-2	4.169785E-2	3.447187E-2	4.973438E-2	5.294821E-2	4.361632E-2	6.126269E-2	4.694196E-2	4.707024E-2	5.345580E-2	4.104146E-2	5.557773E-2	4.700937E-2	3.539390E-2	5.047287E-2	4.580008E-2	5.478873E-2	5.219426E-2	3.264922E-2	5.885020E-2	5.076349E-2	5.852406E-2	3.371706E-2	3.717542E-2	4.756636E-2	4.607547E-2	5.225148E-2	6.248592E-2	4.148341E-2	3.311749E-2	3.057759E-2	2.765673E-2	2.654658E-2	3.482428E-2	5.060428E-2	6.000037E-2	3.831065E-2	5.385676E-2	5.526132E-2	6.082370E-2	4.753643E-2	3.671388E-2	3.789357E-2	2.246705E-2	5.565176E-2	3.545362E-2	4.419884E-2	3.100520E-2	6.567160E-2	5.191268E-2	5.102961E-2	4.241843E-2	2.838318E-2	5.777034E-2	6.308477E-2	5.845661E-2	6.185152E-2	4.991117E-2	5.982177E-2	3.698151E-2	3.375784E-2	4.893246E-2	6.173010E-2	7.085796E-2	6.187985E-2	2.195815E-2	4.610802E-2	2.584416E-2	4.320883E-2	6.335476E-2	4.194655E-2	6.300103E-2	5.628625E-2	2.024729E-2	4.263727E-2	5.333373E-2	3.937556E-2	4.707182E-2	6.332141E-2	5.007124E-2	1.745192E-2	4.844399E-2	4.081209E-2	5.596794E-2	2.652888E-2	5.809457E-2	4.900711E-2	3.207142E-2	5.440899E-2	4.132614E-2	6.520737E-2	6.137593E-2	5.872546E-2	4.870184E-2	3.918763E-2	4.707148E-2
5.332150E+2	4.326020E-2	4.902768E-2	2.589714E-2	5.279632E-2	2.683687E-2	4.584396E-2	5.233061E-2	3.510611E-2	8.799475E-3	4.567949E-2	4.884887E-2	1.886932E-2	3.441629E-2	4.066558E-2	2.420378E-2	2.452871E-2	2.082670E-2	2.612064E-2	3.743576E-2	4.420910E-2	2.217548E-2	3.191959E-2	4.451608E-2	2.790991E-2	2.824265E-2	3.442419E-2	3.689556E-2	4.936956E-2	2.855242E-2	2.771601E-2	4.063097E-2	2.191616E-2	1.604988E-2	8.687101E-3	3.250985E-2	6.345365E-2	4.898169E-2	5.449780E-2	3.549630E-2	2.335339E-2	4.462604E-2	2.770860E-2	4.892782E-2	3.188033E-2	6.504426E-3	3.750747E-2	2.849269E-2	3.965292E-2	5.739427E-2	3.750803E-2	2.532681E-2	4.441785E-2	3.113615E-2	5.183668E-2	4.641999E-2	5.262950E-2	2.550724E-2	4.379095E-2	4.813303E-2	3.265303E-2	3.975158E-2	2.924266E-2	3.215374E-2	6.509462E-2	2.162511E-2	2.375620E-2	3.058964E-2	1.517841E-2	5.297873E-2	2.055153E-2	1.327210E-2	5.652690E-2	4.910200E-2	5.445868E-2	1.014711E-2	3.626431E-2	3.370357E-2	4.027536E-2	3.779321E-2	4.671496E-2	3.631753E-2	5.907317E-2	3.735078E-2	4.717297E-2	4.676769E-2	4.725547E-2	3.215092E-2	3.272741E-2	3.769577E-2	4.210068E-2	3.024113E-2	3.627758E-2	4.012301E-2	1.239620E-2	3.978708E-2	2.128753E-2	3.938198E-2	4.661126E-2	1.594615E-2	5.311786E-2	4.528217E-2	4.925258E-2	4.395983E-2	2.943050E-2	2.365786E-2	3.820769E-2	3.633067E-2	4.925790E-2	3.445701E-2	4.293456E-2	2.940354E-2	2.380012E-2	4.425173E-2	3.717479E-2	3.954579E-2	4.831627E-2	3.620957E-2	3.896750E-2	4.295512E-2	3.331870E-2	5.008346E-2	4.150602E-3	3.264586E-2	3.808041E-2	2.396238E-2	3.795399E-2	3.069340E-2	6.370041E-2	5.316449E-2	2.216382E-2	3.423224E-2	3.002652E-2	4.549023E-2	5.212980E-2	6.587282E-2	3.975466E-2	4.734056E-2	4.044948E-2	2.929477E-2	2.948844E-2	2.600742E-2	3.060702E-2	3.856528E-2	4.254162E-2	3.785215E-2	4.216323E-2	2.346373E-2	6.014634E-2	4.473704E-2	3.810957E-2	2.611001E-2	4.100334E-2	1.629296E-2	2.713113E-2	7.645560E-3	5.186117E-2	3.344708E-2	4.190849E-2	3.614506E-2	3.602444E-2	5.721743E-2	3.224215E-2	2.378495E-2	1.801245E-2	2.311873E-2	6.198316E-2
5.334160E+2	2.141088E-2	2.194450E-2	4.143692E-2	2.074918E-2	7.162885E-3	1.177276E-2	2.240551E-2	2.046195E-2	2.358076E-4	1.267579E-2	2.416437E-2	7.289887E-3	2.625759E-2	2.526484E-2	2.795928E-2	3.621199E-3	2.391993E-3	1.252311E-2	2.241818E-4	1.556254E-2	7.447126E-3	-1.402435E-3	4.064554E-2	2.129876E-2	5.688722E-3	1.852610E-2	1.223295E-2	1.550038E-2	1.262603E-2	2.646042E-3	-2.350410E-3	1.754242E-3	1.303080E-2	3.147966E-2	1.723295E-2	3.679045E-2	2.330172E-2	1.023451E-2	1.118172E-2	2.872362E-2	1.394877E-2	2.239016E-2	1.598256E-2	2.415648E-2	3.106755E-2	1.977365E-2	8.096975E-5	-5.581294E-3	1.931272E-2	8.691202E-3	2.456577E-2	2.249667E-2	2.818628E-2	1.904636E-2	8.417165E-3	3.133720E-2	2.004165E-2	6.458192E-3	-5.650785E-3	1.961500E-2	1.204094E-2	1.139345E-2	2.207558E-2	1.816121E-2	6.566550E-3	1.910532E-2	-4.838898E-3	2.058804E-2	3.372355E-2	5.146014E-3	3.985181E-3	1.487591E-2	7.799858E-3	4.384639E-3	2.549474E-2	-8.379369E-3	2.466445E-2	1.159295E-2	1.768688E-2	2.448015E-2	-4.738876E-3	3.435380E-2	7.130342E-3	2.248424E-2	1.668680E-2	1.718742E-2	2.626365E-2	2.496880E-2	1.250322E-2	2.466861E-2	3.046154E-2	1.137085E-2	1.223011E-2	1.446812E-2	2.613153E-2	2.212918E-2	2.544508E-4	8.236427E-3	-7.111048E-3	1.286019E-2	4.650539E-3	3.092576E-2	2.275830E-2	7.647038E-3	2.055894E-2	3.676700E-2	1.284354E-2	2.645218E-2	3.029499E-2	1.421086E-2	1.249833E-2	1.365389E-2	1.261673E-2	-2.630122E-3	-1.474348E-3	8.478754E-3	2.059305E-2	4.379591E-2	2.156449E-2	1.346060E-2	3.509798E-2	2.492320E-2	3.375457E-2	2.707080E-2	2.183106E-2	4.485166E-2	7.978281E-4	1.173681E-2	5.587633E-3	-1.000801E-2	2.425460E-2	9.384286E-3	6.643628E-3	1.693694E-2	1.213623E-2	7.862275E-3	2.082589E-2	9.984223E-3	1.963666E-2	2.037295E-2	1.017065E-2	1.738505E-2	1.216882E-2	1.286439E-2	-7.087663E-3	-1.383643E-3	2.291153E-2	1.945451E-2	1.470219E-2	3.668116E-2	1.388269E-2	1.122422E-2	7.958999E-3	1.444357E-2	2.131057E-2	-2.995093E-3	2.307362E-2	9.102466E-3	9.280186E-3	3.448626E-2	2.717952E-2	2.766674E-2	1.284779E-2	3.424466E-2	7.089925E-3	2.434831E-2
5.336130E+2	2.726014E-2	1.100455E-2	1.328475E-2	1.540861E-2	4.323642E-3	2.402445E-2	9.992615E-3	7.400471E-3	-5.372578E-3	-3.016278E-3	-1.350315E-3	2.065774E-3	5.721607E-3	-5.414603E-4	-1.005396E-2	1.725018E-2	7.052978E-3	1.166598E-2	1.398215E-2	1.164609E-2	-1.154217E-2	1.837958E-2	-2.417110E-3	8.784193E-3	4.708217E-3	-4.083486E-3	-1.842677E-2	2.481480E-2	-8.691387E-3	9.710943E-3	-1.410438E-2	1.256087E-2	7.146705E-3	2.430700E-2	1.377513E-2	2.489750E-2	-7.272249E-3	1.139226E-2	-3.171172E-3	-1.466736E-3	-1.600450E-3	6.083043E-3	2.120261E-2	3.284114E-3	1.441633E-2	-1.218594E-2	-5.369676E-3	9.739000E-4	1.065137E-2	1.125853E-2	3.128572E-3	1.473123E-2	1.045738E-2	2.095556E-2	1.697173E-3	-1.417431E-3	-4.197293E-3	2.702504E-2	-5.886418E-3	-1.199305E-2	-1.518792E-2	-3.270107E-3	1.055512E-2	5.969996E-3	1.298916E-2	-6.027741E-3	-6.327522E-3	1.060865E-2	1.818708E-2	-5.332159E-3	3.224313E-3	1.461710E-2	-1.309968E-2	9.810680E-3	2.332561E-2	-1.385114E-2	-8.295612E-4	8.739360E-3	8.315316E-3	-1.086863E-2	-1.169153E-2	3.564019E-2	2.246644E-2	1.778296E-2	1.578833E-2	-4.618873E-3	-1.379190E-2	-5.248283E-3	3.942145E-5	-1.987375E-2	1.333269E-2	2.006682E-2	-3.439539E-2	-2.044510E-2	2.442422E-3	1.210638E-2	3.609927E-3	-9.937306E-3	1.140191E-2	1.742958E-2	7.869591E-3	4.574352E-3	7.876855E-4	-4.723555E-3	2.261581E-2	-4.661493E-3	6.458994E-3	9.046721E-3	1.420821E-2	-4.512035E-3	2.070426E-2	-7.230026E-3	5.755062E-3	9.030130E-4	-3.899225E-3	4.273746E-3	1.220971E-3	2.699473E-4	7.024604E-3	8.283387E-3	1.469294E-2	-4.113191E-3	1.283034E-2	1.184746E-2	1.961117E-2	-5.133937E-3	-1.739437E-2	1.019173E-2	1.261989E-2	1.083195E-3	1.775658E-2	-8.023839E-3	1.156780E-2	4.320222E-3	1.151187E-2	1.787377E-2	-8.239603E-3	5.749250E-3	1.944120E-2	-2.115549E-2	-1.802338E-2	1.002579E-2	7.049108E-3	2.066747E-2	1.331946E-2	1.166239E-2	1.035326E-2	1.106196E-2	1.406879E-3	1.153017E-2	3.786948E-3	2.235786E-2	6.859836E-3	6.592753E-3	1.241173E-2	-1.055339E-2	3.323745E-2	3.661730E-3	1.386442E-3	2.120896E-2	8.483640E-3	9.686335E-3	-2.077604E-2	1.060853E-2	-1.318087E-2	5.404445E-2
5.338050E+2	5.209443E-3	1.626786E-2	3.438992E-2	4.612141E-2	7.885453E-3	4.969243E-2	2.323722E-2	1.987317E-2	3.726185E-2	4.261045E-2	1.274535E-2	5.332866E-3	3.227506E-2	4.110389E-2	3.737604E-2	5.176690E-2	1.730159E-2	2.357239E-2	2.772077E-2	4.074085E-2	4.448655E-2	2.548378E-2	2.950513E-2	3.473630E-2	2.684817E-2	3.270436E-2	3.657209E-2	2.746170E-2	3.672455E-2	2.399947E-2	1.463789E-2	3.867449E-2	6.841547E-3	3.454386E-2	3.875252E-2	3.045131E-2	2.222801E-2	3.953729E-2	3.910015E-2	3.962682E-2	2.507449E-2	1.379127E-2	2.365264E-2	3.827074E-2	2.868118E-2	4.052028E-2	1.493872E-2	2.379705E-2	4.150752E-2	6.171291E-3	2.825560E-2	6.188841E-2	3.974282E-2	2.412847E-2	2.643358E-2	5.874396E-2	3.984818E-2	2.121973E-2	4.905761E-2	1.251268E-2	2.817908E-2	3.823831E-2	2.372370E-2	2.772977E-2	3.791663E-2	2.942663E-2	2.645069E-2	3.271327E-2	1.933283E-2	4.099914E-2	3.382042E-2	1.857024E-2	2.538666E-2	3.284771E-2	2.446910E-2	3.435530E-2	3.236517E-2	2.786688E-2	3.722011E-2	2.926974E-2	2.673751E-2	3.685324E-2	3.062709E-2	4.140781E-2	2.701067E-2	2.390587E-2	2.438071E-2	5.036415E-2	1.189751E-2	3.295402E-2	2.866706E-2	3.918990E-2	9.514744E-3	2.189350E-2	3.419459E-2	4.500501E-2	3.620852E-2	4.525599E-2	2.699831E-2	2.519543E-2	5.951291E-2	1.350817E-2	3.435043E-2	5.025946E-2	2.389114E-2	2.745916E-2	2.395500E-2	1.395457E-2	3.478259E-2	3.727729E-2	3.118540E-2	2.607468E-2	5.284400E-2	-1.690204E-3	2.121709E-2	3.093904E-3	2.082431E-2	3.381287E-2	5.126766E-2	2.949121E-2	4.431294E-2	4.855242E-2	4.065701E-2	4.029931E-2	3.905302E-2	3.716301E-2	9.831005E-3	4.055027E-2	4.281021E-2	2.762893E-2	5.003799E-2	4.429754E-2	2.673192E-2	4.795057E-2	1.668491E-2	2.634450E-2	3.115197E-2	4.501408E-2	3.531123E-2	2.803238E-2	3.497860E-2	4.777808E-2	9.458776E-3	3.516489E-2	2.754426E-2	3.503571E-2	3.878304E-2	2.738394E-2	4.270891E-2	3.784681E-2	2.675003E-2	4.123626E-2	4.632127E-2	2.680278E-2	3.420954E-2	2.056029E-2	1.749011E-2	1.217304E-2	3.973729E-2	2.903629E-2	2.831830E-2	3.564873E-2	2.662705E-2	2.052558E-2	3.332707E-2	2.560115E-2
5.340070E+2	9.256003E-2	9.861673E-2	8.927410E-2	7.447052E-2	8.216419E-2	8.033946E-2	1.021276E-1	7.100299E-2	7.110537E-2	6.352565E-2	8.138076E-2	9.234002E-2	9.628443E-2	7.985391E-2	9.166869E-2	7.771805E-2	9.845306E-2	7.502032E-2	6.964990E-2	9.888078E-2	7.997419E-2	1.131968E-1	7.205141E-2	8.760533E-2	6.300392E-2	8.509210E-2	6.063484E-2	8.790299E-2	9.312804E-2	8.687501E-2	6.758936E-2	7.263295E-2	7.646886E-2	8.295117E-2	6.997442E-2	1.034832E-1	1.159059E-1	9.369704E-2	8.713923E-2	1.125716E-1	9.743745E-2	6.137794E-2	8.376048E-2	5.894948E-2	8.406341E-2	7.586814E-2	5.745029E-2	7.273601E-2	7.049493E-2	6.603493E-2	7.371350E-2	8.375300E-2	7.067904E-2	1.010679E-1	8.574648E-2	8.230007E-2	8.045726E-2	8.578572E-2	7.314492E-2	8.650716E-2	9.116197E-2	6.677759E-2	5.587755E-2	8.657629E-2	7.502958E-2	8.573617E-2	5.882798E-2	8.017686E-2	1.006375E-1	1.022950E-1	7.741164E-2	9.257714E-2	5.698570E-2	9.168463E-2	7.459466E-2	8.515299E-2	1.041192E-1	9.674476E-2	7.563559E-2	9.414219E-2	8.549373E-2	8.228229E-2	8.250287E-2	8.489000E-2	9.584957E-2	8.353178E-2	9.583024E-2	5.928257E-2	6.918095E-2	8.840861E-2	8.551722E-2	1.103305E-1	8.317112E-2	8.937247E-2	7.009461E-2	7.496386E-2	9.594955E-2	9.223462E-2	7.806582E-2	8.441098E-2	6.845096E-2	7.906116E-2	1.009255E-1	7.949959E-2	6.104132E-2	8.359437E-2	1.025784E-1	9.178671E-2	1.079063E-1	6.352195E-2	9.060526E-2	5.036922E-2	8.918731E-2	8.543414E-2	9.839571E-2	8.302271E-2	8.064502E-2	7.879007E-2	1.117602E-1	8.398963E-2	7.056401E-2	7.835666E-2	8.466294E-2	9.942844E-2	8.980914E-2	9.707832E-2	6.841208E-2	9.899279E-2	7.112625E-2	7.215315E-2	7.923916E-2	9.701313E-2	7.241120E-2	7.657756E-2	5.737010E-2	8.192726E-2	9.667268E-2	1.133497E-1	7.559428E-2	8.848710E-2	8.550741E-2	8.923050E-2	8.945008E-2	1.032636E-1	8.421672E-2	1.068297E-1	8.853559E-2	1.125338E-1	8.822027E-2	8.831457E-2	8.810234E-2	6.474940E-2	8.445912E-2	8.978918E-2	4.294334E-2	6.966480E-2	9.340766E-2	7.836753E-2	7.912779E-2	8.963768E-2	7.580872E-2	9.123877E-2	7.235545E-2	9.889879E-2	8.440367E-2	1.086993E-1
5.342040E+2	1.093217E-1	1.212627E-1	8.974452E-2	8.250467E-2	9.967883E-2	1.101770E-1	9.535149E-2	8.594785E-2	9.282998E-2	8.776890E-2	6.942224E-2	1.009601E-1	1.118892E-1	9.923554E-2	1.020287E-1	8.405466E-2	8.153906E-2	9.607273E-2	1.099049E-1	1.086777E-1	1.032884E-1	9.309276E-2	9.864342E-2	1.027667E-1	1.111887E-1	1.089526E-1	1.135434E-1	8.410161E-2	1.059716E-1	9.680020E-2	1.025825E-1	8.775757E-2	8.339403E-2	7.652954E-2	1.154062E-1	1.135709E-1	9.401184E-2	9.224034E-2	1.007323E-1	8.927622E-2	8.046887E-2	9.064489E-2	9.112135E-2	1.100346E-1	1.100383E-1	8.502251E-2	9.014803E-2	8.954437E-2	1.180011E-1	7.083482E-2	9.658761E-2	1.058632E-1	9.582038E-2	8.588426E-2	8.242667E-2	9.261768E-2	6.162112E-2	1.122408E-1	7.948562E-2	6.191463E-2	6.850648E-2	1.081407E-1	8.349838E-2	1.010540E-1	1.250044E-1	1.107246E-1	8.044698E-2	9.764083E-2	9.972446E-2	8.672454E-2	7.828127E-2	1.024465E-1	1.031625E-1	9.230949E-2	9.899069E-2	1.050226E-1	9.428191E-2	9.738440E-2	8.219963E-2	9.432217E-2	8.484286E-2	9.015190E-2	1.113708E-1	8.400736E-2	8.594494E-2	9.012948E-2	8.419845E-2	9.065757E-2	8.892816E-2	1.072775E-1	1.074735E-1	1.086575E-1	7.709177E-2	9.213228E-2	8.606831E-2	1.206337E-1	1.036156E-1	1.116624E-1	1.096600E-1	1.175152E-1	9.991237E-2	9.532514E-2	1.085957E-1	8.205889E-2	9.468216E-2	8.566461E-2	1.039075E-1	6.755894E-2	9.448510E-2	9.728916E-2	1.012110E-1	9.328359E-2	1.031466E-1	8.599321E-2	7.851103E-2	9.930135E-2	9.119960E-2	1.050221E-1	1.051230E-1	9.173784E-2	9.751678E-2	8.764826E-2	1.127486E-1	9.615873E-2	1.441306E-1	8.453289E-2	8.000911E-2	1.040569E-1	1.154659E-1	6.704049E-2	1.097867E-1	1.007198E-1	1.174450E-1	1.058625E-1	9.471789E-2	1.052617E-1	8.783206E-2	8.654325E-2	1.307475E-1	1.171056E-1	1.042210E-1	8.108327E-2	9.793812E-2	1.105520E-1	1.117494E-1	1.004390E-1	8.283162E-2	1.131296E-1	1.011829E-1	1.233809E-1	8.869235E-2	8.301614E-2	9.008309E-2	8.894403E-2	1.018730E-1	9.257301E-2	1.218499E-1	8.840900E-2	1.150221E-1	9.166990E-2	9.702741E-2	7.440594E-2	7.185357E-2	8.351376E-2	8.718516E-2	9.960981E-2
5.344070E+2	7.956466E-2	9.154842E-2	1.201319E-1	1.313925E-1	1.239820E-1	1.204482E-1	9.034083E-2	1.366971E-1	1.361514E-1	1.102797E-1	1.083210E-1	1.287177E-1	1.427638E-1	1.195373E-1	1.067357E-1	1.404191E-1	1.393759E-1	1.193772E-1	9.538955E-2	1.021765E-1	1.103981E-1	1.235418E-1	1.293381E-1	1.285964E-1	1.302506E-1	1.130818E-1	1.169751E-1	1.301867E-1	1.202575E-1	1.082623E-1	1.132037E-1	1.247051E-1	1.210904E-1	1.204606E-1	1.169788E-1	1.245220E-1	1.218189E-1	1.097971E-1	1.213477E-1	8.777539E-2	1.232538E-1	1.475976E-1	1.123053E-1	1.236401E-1	1.217882E-1	1.179704E-1	9.909747E-2	8.758811E-2	1.161112E-1	1.258639E-1	1.056562E-1	1.353568E-1	1.215655E-1	1.255130E-1	1.311650E-1	1.269565E-1	1.220600E-1	1.187453E-1	1.375710E-1	1.153563E-1	9.782490E-2	1.372288E-1	1.216899E-1	1.480721E-1	1.230510E-1	1.219242E-1	1.128808E-1	1.356461E-1	1.550426E-1	1.215581E-1	1.261899E-1	1.300322E-1	1.414679E-1	1.296396E-1	1.115394E-1	1.187703E-1	1.497338E-1	1.240127E-1	1.259436E-1	1.029121E-1	1.361691E-1	1.184128E-1	1.322706E-1	1.206757E-1	1.350946E-1	1.288705E-1	1.110422E-1	1.262517E-1	1.170340E-1	1.022547E-1	1.062436E-1	9.130278E-2	1.074570E-1	1.105108E-1	1.323295E-1	1.231956E-1	1.248891E-1	1.080128E-1	1.162796E-1	1.320320E-1	1.086414E-1	1.205820E-1	1.223224E-1	1.462046E-1	1.119884E-1	1.077939E-1	1.180953E-1	1.117032E-1	1.480729E-1	1.148417E-1	1.331937E-1	8.812197E-2	1.170444E-1	1.319192E-1	1.218729E-1	1.273082E-1	1.109440E-1	1.184095E-1	1.415092E-1	1.338002E-1	9.934390E-2	8.116284E-2	1.449330E-1	1.159305E-1	1.295409E-1	1.102977E-1	1.211244E-1	1.169401E-1	1.324903E-1	1.198045E-1	1.106934E-1	1.403983E-1	1.347296E-1	1.313578E-1	1.434645E-1	1.334007E-1	1.248199E-1	1.169179E-1	1.181638E-1	1.140884E-1	1.356668E-1	1.276320E-1	1.237630E-1	1.084384E-1	9.024815E-2	1.118042E-1	1.203993E-1	1.316543E-1	1.254063E-1	1.518569E-1	9.525010E-2	1.373130E-1	1.475729E-1	9.903098E-2	1.220817E-1	1.119958E-1	1.264913E-1	1.294216E-1	1.209093E-1	1.320078E-1	1.415476E-1	1.214254E-1	1.212056E-1	1.386198E-1	4.997213E-2	1.738026E-1
5.346150E+2	1.894006E-1	1.827673E-1	2.052768E-1	1.684648E-1	2.070818E-1	1.776696E-1	1.901854E-1	2.045116E-1	2.085126E-1	1.785005E-1	1.961352E-1	2.153825E-1	1.949798E-1	1.860774E-1	1.804302E-1	1.930549E-1	1.980267E-1	1.973970E-1	1.903974E-1	1.747735E-1	1.682592E-1	1.938415E-1	2.056323E-1	1.730138E-1	1.984059E-1	2.295998E-1	1.775200E-1	1.809898E-1	1.698945E-1	2.072071E-1	1.948107E-1	1.877365E-1	2.061366E-1	2.084426E-1	1.848389E-1	1.630611E-1	1.789070E-1	2.016795E-1	1.746639E-1	1.645410E-1	1.926682E-1	2.120631E-1	1.866784E-1	1.862387E-1	1.835216E-1	1.909498E-1	1.750522E-1	1.962937E-1	1.808719E-1	1.815789E-1	1.766923E-1	1.958188E-1	1.895274E-1	2.171668E-1	1.991824E-1	2.023277E-1	2.005982E-1	2.177141E-1	1.877878E-1	2.098190E-1	1.958106E-1	1.916922E-1	1.849556E-1	2.075128E-1	2.115208E-1	2.096843E-1	1.805320E-1	2.059114E-1	1.940244E-1	2.056478E-1	1.942808E-1	1.861674E-1	1.872563E-1	1.768815E-1	1.882663E-1	1.956724E-1	1.869682E-1	1.896774E-1	2.213732E-1	1.991405E-1	2.225320E-1	1.939530E-1	1.876579E-1	2.077916E-1	2.052921E-1	1.865071E-1	1.789199E-1	2.217767E-1	1.819933E-1	1.973121E-1	2.103309E-1	2.211747E-1	1.816208E-1	1.827775E-1	1.818203E-1	2.090876E-1	1.805277E-1	2.091415E-1	1.968716E-1	2.053459E-1	1.809204E-1	1.874611E-1	2.081862E-1	1.652744E-1	2.024887E-1	1.923504E-1	2.052441E-1	1.828158E-1	2.127727E-1	2.070868E-1	1.941224E-1	2.167430E-1	1.875003E-1	1.803503E-1	2.303339E-1	1.977293E-1	2.046019E-1	1.975490E-1	1.788026E-1	2.255980E-1	1.974742E-1	2.103202E-1	2.166164E-1	1.982721E-1	1.742508E-1	2.160342E-1	1.658779E-1	1.745192E-1	2.015738E-1	2.000088E-1	2.014252E-1	2.240130E-1	2.085665E-1	1.935665E-1	1.780911E-1	2.082980E-1	1.742507E-1	2.128132E-1	2.288896E-1	1.828189E-1	1.907100E-1	1.965782E-1	1.811281E-1	1.883229E-1	2.263562E-1	2.104474E-1	1.714898E-1	1.945138E-1	1.844534E-1	2.143390E-1	1.700912E-1	1.980746E-1	2.004787E-1	1.948565E-1	1.898703E-1	1.918131E-1	2.027297E-1	1.971229E-1	1.764097E-1	1.903158E-1	1.970834E-1	1.670057E-1	1.602323E-1	2.370217E-1	1.481968E-1	2.285706E-1
5.348180E+2	4.027032E-1	3.813436E-1	4.179133E-1	3.897805E-1	3.950541E-1	4.187487E-1	4.532731E-1	4.069640E-1	4.017898E-1	4.070215E-1	4.033354E-1	4.037524E-1	4.139699E-1	3.847929E-1	4.060211E-1	4.076382E-1	4.045551E-1	4.018625E-1	4.105394E-1	3.985068E-1	3.934897E-1	4.534437E-1	4.454931E-1	4.006306E-1	3.954058E-1	4.351182E-1	4.256099E-1	4.177191E-1	4.389484E-1	4.318339E-1	4.317938E-1	4.074742E-1	4.041827E-1	4.425308E-1	3.437589E-1	4.439235E-1	4.002393E-1	4.105877E-1	3.802539E-1	4.215831E-1	4.452180E-1	4.095903E-1	3.953314E-1	3.758017E-1	3.972279E-1	4.450060E-1	4.136553E-1	4.101754E-1	4.602608E-1	3.944779E-1	3.991859E-1	4.095775E-1	4.018213E-1	3.863031E-1	4.183851E-1	4.370962E-1	3.625619E-1	3.879744E-1	3.832320E-1	4.153911E-1	3.984548E-1	4.085046E-1	3.853867E-1	3.901683E-1	4.003716E-1	4.137232E-1	4.300507E-1	4.160506E-1	4.497499E-1	3.682989E-1	4.211708E-1	3.945136E-1	4.315813E-1	4.095615E-1	3.880938E-1	3.866949E-1	4.484367E-1	4.292765E-1	4.170898E-1	4.222507E-1	4.130850E-1	4.375153E-1	4.187179E-1	3.857789E-1	4.224447E-1	4.153563E-1	3.909617E-1	3.563640E-1	3.974215E-1	4.249010E-1	3.902053E-1	4.168299E-1	4.185421E-1	4.146093E-1	4.497270E-1	4.337145E-1	4.055625E-1	4.140967E-1	4.418328E-1	4.314124E-1	4.343245E-1	3.814713E-1	3.915256E-1	3.695273E-1	3.851514E-1	4.420500E-1	4.168055E-1	3.919395E-1	4.325502E-1	3.904622E-1	3.871208E-1	4.130901E-1	4.556226E-1	4.067741E-1	3.934577E-1	3.954556E-1	4.252326E-1	3.945856E-1	4.639846E-1	3.776862E-1	4.790748E-1	4.208237E-1	4.067557E-1	4.109052E-1	4.074680E-1	4.510847E-1	3.922467E-1	3.840784E-1	4.307991E-1	4.056103E-1	4.058007E-1	3.806179E-1	4.495431E-1	3.604525E-1	3.985764E-1	3.978503E-1	4.072037E-1	3.981930E-1	4.147937E-1	3.924203E-1	4.134282E-1	3.935893E-1	3.777796E-1	3.895172E-1	4.110818E-1	4.111923E-1	4.202271E-1	4.119553E-1	3.963049E-1	3.942112E-1	3.811099E-1	4.031703E-1	4.331227E-1	4.028359E-1	3.734756E-1	3.897757E-1	4.150868E-1	4.226667E-1	4.040508E-1	4.009013E-1	4.019445E-1	3.813224E-1	4.206961E-1	4.088254E-1	4.357942E-1	3.284598E-1
5.350100E+2	7.970008E-1	7.979778E-1	7.715875E-1	7.586597E-1	7.911373E-1	8.084707E-1	7.387613E-1	7.429541E-1	7.618936E-1	7.850000E-1	7.883346E-1	8.477005E-1	8.036946E-1	7.892570E-1	8.021135E-1	8.069992E-1	8.320715E-1	8.153636E-1	8.462861E-1	7.975744E-1	8.098744E-1	7.972910E-1	8.176810E-1	8.196238E-1	7.579120E-1	7.722828E-1	8.140530E-1	8.155459E-1	8.100638E-1	8.056490E-1	7.612513E-1	8.468381E-1	7.957416E-1	7.956262E-1	7.894398E-1	8.275151E-1	7.965408E-1	7.921249E-1	7.650728E-1	7.501659E-1	8.069028E-1	7.415252E-1	8.398930E-1	8.035777E-1	8.217888E-1	8.558813E-1	7.677504E-1	8.371146E-1	7.932367E-1	7.920341E-1	7.610118E-1	8.143507E-1	8.358003E-1	8.049750E-1	7.566935E-1	8.069036E-1	7.949792E-1	8.062755E-1	8.242536E-1	8.004927E-1	7.615379E-1	7.697718E-1	8.342430E-1	7.591666E-1	8.399444E-1	8.408136E-1	8.029900E-1	8.132941E-1	8.113493E-1	7.655813E-1	7.853312E-1	7.948476E-1	8.567655E-1	7.978125E-1	8.079844E-1	7.456423E-1	8.446570E-1	7.492169E-1	8.296628E-1	7.238007E-1	8.251687E-1	7.573940E-1	8.521692E-1	7.738179E-1	8.205232E-1	7.755559E-1	7.761109E-1	8.528608E-1	7.990166E-1	8.048236E-1	8.215160E-1	7.860889E-1	8.022090E-1	7.881390E-1	8.257264E-1	7.798844E-1	8.070766E-1	7.671127E-1	8.424874E-1	7.923621E-1	8.001719E-1	8.379630E-1	7.676203E-1	8.131652E-1	8.002343E-1	8.467960E-1	8.149873E-1	8.240265E-1	7.724221E-1	7.453599E-1	8.078301E-1	8.194618E-1	8.629676E-1	7.930069E-1	7.913951E-1	8.177096E-1	7.874295E-1	7.951615E-1	8.698768E-1	7.632793E-1	7.862935E-1	8.376510E-1	8.165279E-1	7.712109E-1	8.045708E-1	7.788905E-1	7.676117E-1	7.627876E-1	7.885385E-1	7.997256E-1	7.974357E-1	8.387338E-1	7.734408E-1	8.375551E-1	7.534804E-1	7.920691E-1	7.811384E-1	8.023337E-1	7.476949E-1	7.936784E-1	7.941759E-1	7.625929E-1	8.208318E-1	8.107585E-1	7.981380E-1	7.828190E-1	7.740479E-1	7.992118E-1	8.124171E-1	7.594668E-1	7.945868E-1	8.303186E-1	8.364644E-1	8.154911E-1	8.290020E-1	8.162415E-1	8.225983E-1	7.921736E-1	7.815363E-1	7.680092E-1	8.228388E-1	7.839506E-1	8.134992E-1	7.576699E-1	8.283456E-1	9.067852E-1
5.352080E+2	1.108990E+0	1.129713E+0	1.176777E+0	1.153580E+0	1.132313E+0	1.116337E+0	1.264285E+0	1.106460E+0	1.159754E+0	1.098320E+0	1.140372E+0	1.130679E+0	1.175132E+0	1.161599E+0	1.162352E+0	1.142432E+0	1.130518E+0	1.123983E+0	1.159076E+0	1.071413E+0	1.178462E+0	1.131855E+0	1.183066E+0	1.148471E+0	1.180745E+0	1.129075E+0	1.149042E+0	1.123192E+0	1.173943E+0	1.148160E+0	1.146765E+0	1.162489E+0	1.205347E+0	1.175058E+0	1.191645E+0	1.159536E+0	1.190040E+0	1.135997E+0	1.090528E+0	1.066260E+0	1.098446E+0	1.207597E+0	1.159548E+0	1.146115E+0	1.172289E+0	1.145539E+0	1.152560E+0	1.150890E+0	1.113000E+0	1.160299E+0	1.127660E+0	1.106830E+0	1.227747E+0	1.150312E+0	1.154023E+0	1.167769E+0	1.156804E+0	1.163769E+0	1.152628E+0	1.122392E+0	1.098277E+0	1.197709E+0	1.114899E+0	1.126683E+0	1.158342E+0	1.203022E+0	1.149759E+0	1.174960E+0	1.202187E+0	1.135689E+0	1.181085E+0	1.163701E+0	1.138064E+0	1.073444E+0	1.073239E+0	1.129708E+0	1.222193E+0	1.157891E+0	1.156550E+0	1.113848E+0	1.240872E+0	1.164711E+0	1.168772E+0	1.126133E+0	1.171489E+0	1.172381E+0	1.162217E+0	1.107653E+0	1.141657E+0	1.224377E+0	1.131592E+0	1.150278E+0	1.192242E+0	1.179124E+0	1.170771E+0	1.200068E+0	1.133396E+0	1.119866E+0	1.164858E+0	1.147833E+0	1.146731E+0	1.129621E+0	1.100075E+0	1.201781E+0	1.157633E+0	1.250839E+0	1.185937E+0	1.149070E+0	1.133042E+0	1.108922E+0	1.196317E+0	1.109613E+0	1.138166E+0	1.196363E+0	1.206005E+0	1.095093E+0	1.124776E+0	1.098024E+0	1.146853E+0	1.101351E+0	1.079116E+0	1.199319E+0	1.180987E+0	1.086244E+0	1.101125E+0	1.201592E+0	1.112303E+0	1.105642E+0	1.192437E+0	1.164639E+0	1.125886E+0	1.134854E+0	1.242383E+0	1.177985E+0	1.102245E+0	1.059034E+0	1.180190E+0	1.104462E+0	1.103995E+0	1.156308E+0	1.088459E+0	1.138022E+0	1.140676E+0	1.103425E+0	1.168459E+0	1.073993E+0	1.146263E+0	1.098714E+0	1.166437E+0	1.114422E+0	1.144224E+0	1.108783E+0	1.190242E+0	1.165243E+0	1.103015E+0	1.220025E+0	1.134987E+0	1.178731E+0	1.101680E+0	1.126843E+0	1.154987E+0	1.102543E+0	1.165279E+0	1.103563E+0	1.208695E+0	1.093801E+0
5.354110E+2	1.369025E+0	1.314126E+0	1.447103E+0	1.342073E+0	1.342428E+0	1.284154E+0	1.355278E+0	1.324502E+0	1.420641E+0	1.375536E+0	1.415553E+0	1.404767E+0	1.339945E+0	1.412739E+0	1.348217E+0	1.366237E+0	1.383456E+0	1.388955E+0	1.415110E+0	1.321106E+0	1.416212E+0	1.439558E+0	1.400805E+0	1.353869E+0	1.396892E+0	1.345172E+0	1.415791E+0	1.369505E+0	1.354405E+0	1.327817E+0	1.360798E+0	1.378766E+0	1.360904E+0	1.366028E+0	1.359865E+0	1.417465E+0	1.384122E+0	1.349420E+0	1.339139E+0	1.394573E+0	1.352477E+0	1.421280E+0	1.400836E+0	1.350200E+0	1.361778E+0	1.392782E+0	1.362913E+0	1.344474E+0	1.396744E+0	1.361017E+0	1.383634E+0	1.429741E+0	1.361983E+0	1.451008E+0	1.354527E+0	1.392771E+0	1.427096E+0	1.322657E+0	1.456546E+0	1.379105E+0	1.327539E+0	1.425449E+0	1.315122E+0	1.398373E+0	1.337345E+0	1.348186E+0	1.372439E+0	1.372703E+0	1.425326E+0	1.328861E+0	1.331290E+0	1.355372E+0	1.466138E+0	1.396318E+0	1.351196E+0	1.394803E+0	1.450635E+0	1.393223E+0	1.357479E+0	1.395033E+0	1.458271E+0	1.413921E+0	1.419249E+0	1.425132E+0	1.377410E+0	1.419105E+0	1.383207E+0	1.316702E+0	1.352214E+0	1.367124E+0	1.375340E+0	1.364318E+0	1.436565E+0	1.376521E+0	1.408853E+0	1.343431E+0	1.462644E+0	1.306168E+0	1.370284E+0	1.324866E+0	1.366260E+0	1.337598E+0	1.352971E+0	1.408795E+0	1.366572E+0	1.471298E+0	1.421759E+0	1.338539E+0	1.394025E+0	1.336174E+0	1.333123E+0	1.344164E+0	1.383267E+0	1.373791E+0	1.376577E+0	1.304753E+0	1.311369E+0	1.323934E+0	1.371408E+0	1.404080E+0	1.413447E+0	1.409147E+0	1.408576E+0	1.291690E+0	1.394968E+0	1.346574E+0	1.374914E+0	1.349221E+0	1.422081E+0	1.342139E+0	1.359675E+0	1.313151E+0	1.388222E+0	1.331845E+0	1.354298E+0	1.362529E+0	1.358930E+0	1.389042E+0	1.376621E+0	1.445464E+0	1.450468E+0	1.236923E+0	1.357803E+0	1.391854E+0	1.440739E+0	1.335367E+0	1.302708E+0	1.416160E+0	1.419316E+0	1.342711E+0	1.387638E+0	1.332035E+0	1.440032E+0	1.412997E+0	1.384752E+0	1.360167E+0	1.320188E+0	1.357152E+0	1.292536E+0	1.338836E+0	1.356840E+0	1.343627E+0	1.250271E+0	1.361250E+0	1.316955E+0	1.139426E+0
5.356150E+2	1.507826E+0	1.485058E+0	1.514420E+0	1.495964E+0	1.414334E+0	1.454933E+0	1.491584E+0	1.448654E+0	1.411271E+0	1.420197E+0	1.434899E+0	1.539613E+0	1.509757E+0	1.506875E+0	1.450114E+0	1.468488E+0	1.483746E+0	1.440925E+0	1.501431E+0	1.457553E+0	1.499349E+0	1.522220E+0	1.509420E+0	1.518605E+0	1.527363E+0	1.455415E+0	1.447167E+0	1.464891E+0	1.456013E+0	1.447204E+0	1.450824E+0	1.421960E+0	1.523084E+0	1.552436E+0	1.427912E+0	1.474481E+0	1.465731E+0	1.497531E+0	1.507576E+0	1.450926E+0	1.487349E+0	1.501379E+0	1.446389E+0	1.451202E+0	1.516210E+0	1.443283E+0	1.426985E+0	1.501024E+0	1.519727E+0	1.434542E+0	1.393249E+0	1.474723E+0	1.469606E+0	1.519539E+0	1.519102E+0	1.454953E+0	1.499898E+0	1.502571E+0	1.568646E+0	1.429804E+0	1.432865E+0	1.557490E+0	1.499948E+0	1.499844E+0	1.468023E+0	1.478820E+0	1.442360E+0	1.488226E+0	1.475119E+0	1.470212E+0	1.565172E+0	1.410924E+0	1.527799E+0	1.517687E+0	1.470871E+0	1.440290E+0	1.523195E+0	1.471694E+0	1.466702E+0	1.375540E+0	1.479384E+0	1.491104E+0	1.421736E+0	1.502813E+0	1.429546E+0	1.476050E+0	1.451509E+0	1.426959E+0	1.530595E+0	1.501818E+0	1.487681E+0	1.435131E+0	1.397743E+0	1.403709E+0	1.427630E+0	1.500526E+0	1.488213E+0	1.403226E+0	1.510442E+0	1.488759E+0	1.403468E+0	1.446576E+0	1.385662E+0	1.506516E+0	1.436412E+0	1.502940E+0	1.547539E+0	1.454173E+0	1.413210E+0	1.484441E+0	1.483699E+0	1.445358E+0	1.446320E+0	1.475481E+0	1.455058E+0	1.427579E+0	1.471462E+0	1.423466E+0	1.492198E+0	1.469313E+0	1.468735E+0	1.563126E+0	1.530169E+0	1.452009E+0	1.449250E+0	1.463714E+0	1.502978E+0	1.405180E+0	1.500256E+0	1.489003E+0	1.445766E+0	1.447354E+0	1.460567E+0	1.439491E+0	1.355923E+0	1.489126E+0	1.460486E+0	1.410070E+0	1.467347E+0	1.467512E+0	1.451514E+0	1.411903E+0	1.459238E+0	1.476241E+0	1.528192E+0	1.426523E+0	1.423379E+0	1.478649E+0	1.452331E+0	1.446539E+0	1.444850E+0	1.459229E+0	1.476497E+0	1.415423E+0	1.483477E+0	1.415830E+0	1.487861E+0	1.445845E+0	1.429624E+0	1.395512E+0	1.471947E+0	1.396871E+0	1.373021E+0	1.477682E+0	1.318756E+0	1.232989E+0
5.358130E+2	1.562773E+0	1.597036E+0	1.597336E+0	1.574449E+0	1.474955E+0	1.519594E+0	1.628608E+0	1.670573E+0	1.510182E+0	1.556607E+0	1.662635E+0	1.580479E+0	1.614063E+0	1.629352E+0	1.514439E+0	1.638878E+0	1.556511E+0	1.599779E+0	1.527734E+0	1.538148E+0	1.591611E+0	1.600978E+0	1.630381E+0	1.535119E+0	1.614993E+0	1.545421E+0	1.542937E+0	1.612996E+0	1.575093E+0	1.504938E+0	1.558354E+0	1.599888E+0	1.561989E+0	1.632239E+0	1.570102E+0	1.681852E+0	1.629738E+0	1.551555E+0	1.524044E+0	1.527298E+0	1.572705E+0	1.602042E+0	1.551648E+0	1.485204E+0	1.684523E+0	1.549614E+0	1.608957E+0	1.609852E+0	1.671352E+0	1.626035E+0	1.533461E+0	1.583936E+0	1.621240E+0	1.532740E+0	1.587641E+0	1.544532E+0	1.599915E+0	1.611053E+0	1.644190E+0	1.603197E+0	1.562456E+0	1.552556E+0	1.538226E+0	1.496293E+0	1.554694E+0	1.593140E+0	1.586620E+0	1.565742E+0	1.591960E+0	1.557970E+0	1.612526E+0	1.560979E+0	1.676035E+0	1.532008E+0	1.532875E+0	1.593527E+0	1.706544E+0	1.597562E+0	1.629211E+0	1.506648E+0	1.610717E+0	1.604617E+0	1.586461E+0	1.510552E+0	1.633475E+0	1.541244E+0	1.493499E+0	1.628047E+0	1.582333E+0	1.612787E+0	1.557482E+0	1.542820E+0	1.581194E+0	1.561052E+0	1.587234E+0	1.608378E+0	1.639907E+0	1.553621E+0	1.614989E+0	1.591200E+0	1.540682E+0	1.542776E+0	1.486228E+0	1.575387E+0	1.566743E+0	1.705230E+0	1.596349E+0	1.540123E+0	1.555459E+0	1.526152E+0	1.653437E+0	1.547669E+0	1.541830E+0	1.589606E+0	1.564718E+0	1.568668E+0	1.520018E+0	1.557007E+0	1.586001E+0	1.550213E+0	1.590226E+0	1.604470E+0	1.564789E+0	1.511301E+0	1.525948E+0	1.604865E+0	1.555226E+0	1.476991E+0	1.645192E+0	1.518683E+0	1.613707E+0	1.520683E+0	1.588614E+0	1.565409E+0	1.492280E+0	1.473851E+0	1.526872E+0	1.510820E+0	1.556066E+0	1.621245E+0	1.585450E+0	1.506573E+0	1.500927E+0	1.540855E+0	1.651800E+0	1.443440E+0	1.595180E+0	1.508844E+0	1.599182E+0	1.481440E+0	1.536171E+0	1.538693E+0	1.614609E+0	1.565908E+0	1.558500E+0	1.584115E+0	1.482017E+0	1.534028E+0	1.546520E+0	1.557822E+0	1.559119E+0	1.528689E+0	1.628153E+0	1.601701E+0	1.501089E+0	1.495547E+0
5.360120E+2	1.704187E+0	1.725710E+0	1.744856E+0	1.725805E+0	1.641510E+0	1.652672E+0	1.712292E+0	1.748852E+0	1.709453E+0	1.730038E+0	1.716288E+0	1.830856E+0	1.764110E+0	1.745538E+0	1.690932E+0	1.699008E+0	1.686820E+0	1.639339E+0	1.725363E+0	1.688638E+0	1.731451E+0	1.713957E+0	1.670931E+0	1.757394E+0	1.748590E+0	1.691242E+0	1.670174E+0	1.706354E+0	1.707529E+0	1.752468E+0	1.619871E+0	1.655979E+0	1.660753E+0	1.705306E+0	1.727853E+0	1.750206E+0	1.699117E+0	1.692051E+0	1.734017E+0	1.723834E+0	1.706455E+0	1.727549E+0	1.639419E+0	1.733572E+0	1.671990E+0	1.748221E+0	1.782836E+0	1.717472E+0	1.710337E+0	1.765724E+0	1.731816E+0	1.660463E+0	1.728501E+0	1.709158E+0	1.739648E+0	1.673456E+0	1.706048E+0	1.726108E+0	1.812644E+0	1.723329E+0	1.637057E+0	1.713443E+0	1.656000E+0	1.668868E+0	1.678951E+0	1.681205E+0	1.688988E+0	1.690553E+0	1.705995E+0	1.714243E+0	1.703665E+0	1.659658E+0	1.732166E+0	1.688683E+0	1.685738E+0	1.697443E+0	1.771861E+0	1.754575E+0	1.691872E+0	1.673111E+0	1.768855E+0	1.734085E+0	1.673680E+0	1.679032E+0	1.736604E+0	1.654551E+0	1.639924E+0	1.687372E+0	1.687583E+0	1.764423E+0	1.665884E+0	1.735914E+0	1.684454E+0	1.778789E+0	1.729421E+0	1.689814E+0	1.754829E+0	1.639664E+0	1.758809E+0	1.676408E+0	1.709218E+0	1.759851E+0	1.640336E+0	1.697792E+0	1.748198E+0	1.721317E+0	1.783902E+0	1.595788E+0	1.708503E+0	1.703456E+0	1.622907E+0	1.624644E+0	1.716308E+0	1.681062E+0	1.613595E+0	1.670914E+0	1.667537E+0	1.616675E+0	1.658819E+0	1.645399E+0	1.673491E+0	1.722683E+0	1.786054E+0	1.630136E+0	1.687417E+0	1.719861E+0	1.716362E+0	1.632049E+0	1.713253E+0	1.800376E+0	1.586283E+0	1.670641E+0	1.713803E+0	1.667655E+0	1.597726E+0	1.638812E+0	1.594846E+0	1.624139E+0	1.685466E+0	1.671954E+0	1.603547E+0	1.577333E+0	1.668183E+0	1.697609E+0	1.708246E+0	1.596421E+0	1.668539E+0	1.686937E+0	1.675718E+0	1.704167E+0	1.724930E+0	1.691033E+0	1.692244E+0	1.656333E+0	1.734762E+0	1.715651E+0	1.626814E+0	1.665847E+0	1.682450E+0	1.692664E+0	1.619407E+0	1.606649E+0	1.661723E+0	1.745140E+0	1.656684E+0	1.805503E+0
5.362050E+2	1.694975E+0	1.787584E+0	1.787181E+0	1.753493E+0	1.676790E+0	1.677599E+0	1.768207E+0	1.702149E+0	1.690964E+0	1.666142E+0	1.678539E+0	1.806134E+0	1.761056E+0	1.688396E+0	1.745201E+0	1.777495E+0	1.695665E+0	1.686214E+0	1.763300E+0	1.739192E+0	1.823147E+0	1.748560E+0	1.775952E+0	1.685325E+0	1.804764E+0	1.638335E+0	1.788078E+0	1.748460E+0	1.724985E+0	1.795195E+0	1.648519E+0	1.746900E+0	1.726450E+0	1.704539E+0	1.701894E+0	1.820904E+0	1.761697E+0	1.698598E+0	1.760565E+0	1.747141E+0	1.740915E+0	1.718521E+0	1.729203E+0	1.722259E+0	1.771322E+0	1.756576E+0	1.701262E+0	1.791380E+0	1.767386E+0	1.702250E+0	1.583669E+0	1.761172E+0	1.698170E+0	1.802448E+0	1.681373E+0	1.743575E+0	1.712293E+0	1.735878E+0	1.781792E+0	1.744300E+0	1.655147E+0	1.813923E+0	1.687053E+0	1.650880E+0	1.702323E+0	1.723781E+0	1.761768E+0	1.714924E+0	1.675923E+0	1.774360E+0	1.700000E+0	1.632078E+0	1.751044E+0	1.644057E+0	1.693090E+0	1.622660E+0	1.778388E+0	1.683628E+0	1.693778E+0	1.723171E+0	1.824743E+0	1.744575E+0	1.693500E+0	1.711928E+0	1.687840E+0	1.709795E+0	1.664594E+0	1.683972E+0	1.730042E+0	1.737881E+0	1.719090E+0	1.688076E+0	1.736518E+0	1.701382E+0	1.767720E+0	1.714612E+0	1.726760E+0	1.670637E+0	1.757366E+0	1.700366E+0	1.670160E+0	1.683831E+0	1.704742E+0	1.701819E+0	1.675262E+0	1.796789E+0	1.746203E+0	1.674504E+0	1.667899E+0	1.674783E+0	1.695290E+0	1.733778E+0	1.732466E+0	1.706346E+0	1.732878E+0	1.685201E+0	1.687391E+0	1.711231E+0	1.743397E+0	1.737216E+0	1.722157E+0	1.726334E+0	1.718044E+0	1.603763E+0	1.649648E+0	1.724296E+0	1.678669E+0	1.641178E+0	1.708426E+0	1.792441E+0	1.640935E+0	1.680630E+0	1.703223E+0	1.692892E+0	1.682683E+0	1.682470E+0	1.643698E+0	1.617490E+0	1.708518E+0	1.769289E+0	1.613977E+0	1.648441E+0	1.770359E+0	1.733632E+0	1.733568E+0	1.632905E+0	1.714822E+0	1.721830E+0	1.677139E+0	1.706779E+0	1.687596E+0	1.733267E+0	1.716687E+0	1.773084E+0	1.729750E+0	1.685818E+0	1.693782E+0	1.712852E+0	1.618027E+0	1.655725E+0	1.661671E+0	1.649700E+0	1.638835E+0	1.638402E+0	1.643972E+0	1.714883E+0
5.364090E+2	1.375613E+0	1.436334E+0	1.485559E+0	1.398473E+0	1.349584E+0	1.304498E+0	1.363029E+0	1.477872E+0	1.415364E+0	1.416128E+0	1.427010E+0	1.443320E+0	1.415979E+0	1.465009E+0	1.455347E+0	1.454808E+0	1.445940E+0	1.408078E+0	1.367510E+0	1.401812E+0	1.446683E+0	1.476663E+0	1.424394E+0	1.443153E+0	1.452040E+0	1.391027E+0	1.464385E+0	1.487886E+0	1.327747E+0	1.443055E+0	1.467813E+0	1.446934E+0	1.448726E+0	1.419532E+0	1.365806E+0	1.510141E+0	1.402791E+0	1.453839E+0	1.457164E+0	1.399603E+0	1.458103E+0	1.449625E+0	1.410841E+0	1.423736E+0	1.422538E+0	1.423663E+0	1.410039E+0	1.452683E+0	1.424669E+0	1.432645E+0	1.458979E+0	1.430040E+0	1.424246E+0	1.460990E+0	1.425981E+0	1.432660E+0	1.474396E+0	1.461341E+0	1.466383E+0	1.369223E+0	1.405978E+0	1.366535E+0	1.445446E+0	1.410522E+0	1.451700E+0	1.508143E+0	1.387503E+0	1.405662E+0	1.480812E+0	1.469961E+0	1.415819E+0	1.377164E+0	1.456762E+0	1.336038E+0	1.408308E+0	1.404165E+0	1.521922E+0	1.467423E+0	1.413844E+0	1.355869E+0	1.494884E+0	1.438299E+0	1.519248E+0	1.384498E+0	1.403222E+0	1.466060E+0	1.423604E+0	1.424640E+0	1.449158E+0	1.447711E+0	1.462859E+0	1.425774E+0	1.464123E+0	1.378066E+0	1.467242E+0	1.421235E+0	1.429482E+0	1.361587E+0	1.430749E+0	1.367460E+0	1.453450E+0	1.323515E+0	1.372440E+0	1.386664E+0	1.422706E+0	1.452690E+0	1.501825E+0	1.422863E+0	1.435253E+0	1.391251E+0	1.411441E+0	1.400337E+0	1.471231E+0	1.497217E+0	1.331507E+0	1.375451E+0	1.465305E+0	1.414935E+0	1.440091E+0	1.438739E+0	1.357351E+0	1.451220E+0	1.447847E+0	1.446921E+0	1.440675E+0	1.472392E+0	1.393606E+0	1.384076E+0	1.428453E+0	1.433432E+0	1.379201E+0	1.384885E+0	1.417274E+0	1.380260E+0	1.371801E+0	1.427514E+0	1.346574E+0	1.336102E+0	1.373666E+0	1.473411E+0	1.374715E+0	1.362348E+0	1.378357E+0	1.389944E+0	1.430249E+0	1.323340E+0	1.415318E+0	1.395007E+0	1.493793E+0	1.409477E+0	1.480046E+0	1.413241E+0	1.460998E+0	1.380606E+0	1.488700E+0	1.450705E+0	1.411853E+0	1.384178E+0	1.390904E+0	1.378966E+0	1.415630E+0	1.391465E+0	1.447815E+0	1.406165E+0	1.304719E+0	1.446332E+0
5.366080E+2	1.168069E+0	1.131036E+0	1.118518E+0	1.136897E+0	1.124448E+0	1.123074E+0	1.141450E+0	1.132806E+0	1.150616E+0	1.123614E+0	1.089376E+0	1.158926E+0	1.138368E+0	1.245411E+0	1.079868E+0	1.158778E+0	1.165214E+0	1.103240E+0	1.206258E+0	1.147434E+0	1.155440E+0	1.152458E+0	1.159065E+0	1.071280E+0	1.189357E+0	1.189483E+0	1.143736E+0	1.187980E+0	1.143402E+0	1.194791E+0	1.135830E+0	1.121073E+0	1.180553E+0	1.111169E+0	1.125241E+0	1.255484E+0	1.131988E+0	1.149818E+0	1.139638E+0	1.158434E+0	1.146262E+0	1.165937E+0	1.121151E+0	1.065577E+0	1.172824E+0	1.155924E+0	1.201380E+0	1.129386E+0	1.208459E+0	1.178261E+0	1.141321E+0	1.184353E+0	1.160848E+0	1.210069E+0	1.130364E+0	1.181693E+0	1.181651E+0	1.185694E+0	1.214618E+0	1.194840E+0	1.117274E+0	1.155332E+0	1.165402E+0	1.115862E+0	1.186199E+0	1.203640E+0	1.160377E+0	1.157387E+0	1.156687E+0	1.158537E+0	1.131463E+0	1.141846E+0	1.197091E+0	1.169567E+0	1.197661E+0	1.147980E+0	1.244351E+0	1.140762E+0	1.147933E+0	1.181231E+0	1.248411E+0	1.180366E+0	1.174752E+0	1.183363E+0	1.124049E+0	1.163690E+0	1.137343E+0	1.159406E+0	1.156845E+0	1.176250E+0	1.163597E+0	1.141447E+0	1.137047E+0	1.116761E+0	1.161743E+0	1.112586E+0	1.112805E+0	1.120304E+0	1.167226E+0	1.157402E+0	1.122662E+0	1.129073E+0	1.151489E+0	1.215709E+0	1.167218E+0	1.150382E+0	1.178550E+0	1.118757E+0	1.131260E+0	1.159829E+0	1.141060E+0	1.196247E+0	1.210370E+0	1.192678E+0	1.168675E+0	1.144822E+0	1.061159E+0	1.104437E+0	1.098932E+0	1.162313E+0	1.131979E+0	1.158826E+0	1.137436E+0	1.126398E+0	1.141474E+0	1.157752E+0	1.145221E+0	1.118874E+0	1.140737E+0	1.187679E+0	1.086467E+0	1.114949E+0	1.238749E+0	1.140627E+0	1.090619E+0	1.101970E+0	1.139026E+0	1.127541E+0	1.156159E+0	1.125793E+0	1.115811E+0	1.134347E+0	1.149559E+0	1.156439E+0	1.205348E+0	1.091665E+0	1.107940E+0	1.105804E+0	1.121377E+0	1.133024E+0	1.181696E+0	1.154457E+0	1.141379E+0	1.184790E+0	1.132938E+0	1.190724E+0	1.133244E+0	1.090627E+0	1.148297E+0	1.127958E+0	1.150640E+0	1.071395E+0	1.180337E+0	1.115149E+0	1.048975E+0	1.085031E+0
5.368180E+2	9.811356E-1	9.607654E-1	9.675601E-1	9.432867E-1	9.411475E-1	9.274313E-1	9.907587E-1	9.557435E-1	9.416911E-1	9.437687E-1	9.530145E-1	9.217696E-1	9.558124E-1	9.474841E-1	9.339586E-1	9.875950E-1	9.706276E-1	9.724813E-1	9.061607E-1	9.374915E-1	9.587033E-1	9.373768E-1	1.006854E+0	9.235441E-1	9.349274E-1	9.315532E-1	9.464275E-1	9.910210E-1	9.575755E-1	9.373083E-1	9.219863E-1	8.882470E-1	9.723757E-1	9.488710E-1	9.706556E-1	9.839112E-1	9.737442E-1	9.215343E-1	8.974920E-1	9.437732E-1	9.338964E-1	9.041457E-1	9.368918E-1	9.271435E-1	9.090997E-1	9.651684E-1	9.471654E-1	9.704318E-1	9.699810E-1	9.124454E-1	8.684593E-1	9.487684E-1	9.799177E-1	9.225660E-1	9.738835E-1	9.204101E-1	9.208677E-1	9.388618E-1	1.011357E+0	9.326270E-1	9.112916E-1	9.522932E-1	9.204322E-1	9.364636E-1	9.495970E-1	9.283825E-1	9.319306E-1	9.728420E-1	9.003414E-1	9.606946E-1	9.840467E-1	9.155156E-1	9.628266E-1	8.895034E-1	9.494136E-1	9.135040E-1	9.495575E-1	9.339021E-1	9.139599E-1	8.899457E-1	9.760429E-1	9.483631E-1	9.169512E-1	9.252785E-1	9.374333E-1	9.543320E-1	9.375923E-1	9.258906E-1	9.580492E-1	9.335890E-1	9.690784E-1	8.724744E-1	9.184289E-1	9.770755E-1	9.381721E-1	9.508943E-1	9.315069E-1	9.591836E-1	9.979666E-1	9.566732E-1	9.171402E-1	9.579715E-1	9.062051E-1	9.661445E-1	9.642138E-1	9.146988E-1	1.009376E+0	9.009326E-1	9.232872E-1	9.111033E-1	9.851391E-1	9.200760E-1	8.970853E-1	9.714693E-1	9.884635E-1	9.733603E-1	9.361791E-1	9.542138E-1	9.204729E-1	9.189725E-1	9.384688E-1	9.859747E-1	9.586447E-1	9.168253E-1	1.023449E+0	9.505964E-1	9.236458E-1	9.190313E-1	9.396397E-1	8.843644E-1	9.098013E-1	9.538541E-1	9.825567E-1	9.111784E-1	8.994458E-1	8.875740E-1	9.089456E-1	9.084324E-1	9.415139E-1	9.702346E-1	9.420351E-1	9.042765E-1	9.279346E-1	9.050426E-1	9.934301E-1	9.171710E-1	9.538104E-1	9.137336E-1	9.702356E-1	9.559007E-1	9.263606E-1	9.494342E-1	1.004092E+0	9.701056E-1	1.016440E+0	9.648753E-1	1.004972E+0	9.348368E-1	9.120460E-1	8.947000E-1	9.283450E-1	9.278948E-1	9.405210E-1	9.353609E-1	9.330781E-1	9.967636E-1
5.370170E+2	9.073662E-1	9.482708E-1	8.874948E-1	9.365059E-1	9.257215E-1	8.292639E-1	9.398735E-1	9.432775E-1	9.406126E-1	8.871533E-1	8.876626E-1	9.470851E-1	9.348126E-1	9.398263E-1	9.148597E-1	9.194072E-1	8.985478E-1	8.302375E-1	9.552874E-1	9.192733E-1	9.286969E-1	9.394757E-1	9.654940E-1	9.626160E-1	9.318822E-1	9.125900E-1	9.078770E-1	9.187924E-1	9.133363E-1	9.018133E-1	8.879725E-1	9.212604E-1	8.979181E-1	8.718823E-1	9.104997E-1	9.479868E-1	9.195245E-1	9.025486E-1	9.112031E-1	8.926614E-1	9.049672E-1	9.024397E-1	8.769458E-1	9.241661E-1	9.208627E-1	9.440480E-1	8.871022E-1	9.433064E-1	8.947494E-1	9.014958E-1	9.066088E-1	9.379302E-1	9.285235E-1	9.297587E-1	9.008689E-1	9.445989E-1	9.333479E-1	8.775586E-1	9.312124E-1	8.666298E-1	8.980668E-1	9.408604E-1	8.898099E-1	9.410309E-1	9.394325E-1	9.144240E-1	9.063892E-1	9.007453E-1	8.742126E-1	9.172371E-1	9.324833E-1	8.397644E-1	8.879530E-1	8.778904E-1	9.094662E-1	8.949632E-1	9.872600E-1	8.398360E-1	8.991244E-1	9.049359E-1	9.377741E-1	9.697436E-1	9.276121E-1	9.090696E-1	9.010534E-1	9.076456E-1	9.585597E-1	9.262109E-1	8.939854E-1	8.692157E-1	9.533758E-1	8.979027E-1	9.400348E-1	8.782135E-1	8.851538E-1	9.166114E-1	9.129183E-1	8.396261E-1	9.166445E-1	9.182964E-1	9.255397E-1	9.159003E-1	8.853022E-1	9.302166E-1	9.395386E-1	9.402563E-1	9.416259E-1	9.653084E-1	9.125369E-1	8.961991E-1	9.097756E-1	8.659291E-1	8.561656E-1	9.411778E-1	9.650563E-1	9.307910E-1	9.574710E-1	7.907839E-1	9.234239E-1	9.335531E-1	8.770419E-1	9.199173E-1	9.408860E-1	8.772640E-1	8.788930E-1	9.548450E-1	8.084243E-1	9.025900E-1	9.219676E-1	8.757008E-1	9.396534E-1	8.949469E-1	9.910730E-1	8.925878E-1	9.290974E-1	9.015319E-1	8.647341E-1	8.883456E-1	9.226355E-1	8.914060E-1	9.129875E-1	8.963224E-1	9.287956E-1	9.371489E-1	9.775727E-1	8.596886E-1	9.027059E-1	9.049676E-1	8.970473E-1	9.212988E-1	9.487127E-1	9.134449E-1	9.341298E-1	9.086239E-1	9.602276E-1	9.222244E-1	9.225839E-1	9.254708E-1	9.028472E-1	8.592359E-1	9.191200E-1	8.900766E-1	9.317149E-1	8.629895E-1	8.742449E-1	9.385004E-1
5.372010E+2	9.732989E-1	1.080743E+0	1.051668E+0	9.197853E-1	9.907041E-1	9.922092E-1	1.039704E+0	9.374144E-1	1.035629E+0	9.458487E-1	9.693449E-1	1.038660E+0	9.915688E-1	9.859753E-1	9.704035E-1	1.015008E+0	9.321824E-1	9.971745E-1	9.667407E-1	9.397215E-1	9.739758E-1	9.775576E-1	1.014244E+0	9.325341E-1	1.024230E+0	9.818590E-1	9.712791E-1	1.016102E+0	9.484364E-1	9.765437E-1	9.967728E-1	9.724899E-1	1.029107E+0	9.664277E-1	9.729960E-1	1.042894E+0	1.009993E+0	9.626295E-1	9.647887E-1	9.390911E-1	1.029669E+0	9.899671E-1	1.003529E+0	9.942932E-1	9.810603E-1	1.032852E+0	1.057805E+0	1.013079E+0	9.750518E-1	9.762082E-1	9.181429E-1	1.012990E+0	9.899605E-1	1.001272E+0	9.796430E-1	9.998609E-1	9.767297E-1	9.831521E-1	1.064288E+0	9.498920E-1	9.870238E-1	9.872263E-1	9.812716E-1	9.985339E-1	1.030868E+0	1.008774E+0	9.711421E-1	9.722266E-1	1.068827E+0	9.812878E-1	1.016689E+0	9.894360E-1	1.030131E+0	9.425724E-1	9.789555E-1	9.750794E-1	1.002707E+0	9.793286E-1	1.001892E+0	9.964290E-1	1.000331E+0	1.046727E+0	1.008366E+0	9.998898E-1	1.019896E+0	9.487527E-1	1.027118E+0	9.545896E-1	1.031559E+0	1.042503E+0	9.631839E-1	9.998180E-1	9.654573E-1	9.738289E-1	1.015122E+0	1.019422E+0	1.042242E+0	9.160281E-1	9.793446E-1	9.749474E-1	1.022601E+0	9.810251E-1	9.592238E-1	9.939823E-1	1.015453E+0	9.507909E-1	1.026140E+0	1.006567E+0	9.816727E-1	9.504209E-1	9.855210E-1	9.504221E-1	9.894292E-1	1.009965E+0	9.751226E-1	9.599512E-1	9.681580E-1	9.048363E-1	9.977471E-1	1.014157E+0	9.765196E-1	1.029690E+0	9.720410E-1	1.024989E+0	1.026287E+0	1.051582E+0	9.364595E-1	9.790551E-1	1.015138E+0	9.902231E-1	9.902867E-1	9.523494E-1	9.896474E-1	9.814992E-1	9.940069E-1	9.599593E-1	9.243059E-1	9.739471E-1	1.011939E+0	1.014211E+0	1.008474E+0	9.668492E-1	9.958481E-1	1.027361E+0	1.043318E+0	9.703130E-1	9.671887E-1	1.018736E+0	9.539417E-1	9.754635E-1	9.887233E-1	9.783315E-1	1.017511E+0	9.968095E-1	1.004373E+0	1.019443E+0	9.817322E-1	1.015775E+0	9.754990E-1	9.691555E-1	9.667702E-1	9.476270E-1	9.254027E-1	9.459000E-1	9.557162E-1	1.021974E+0
5.374220E+2	1.116615E+0	1.075820E+0	1.098900E+0	1.119874E+0	1.065942E+0	1.087195E+0	1.122022E+0	1.150012E+0	1.051354E+0	1.043618E+0	1.112341E+0	1.095535E+0	1.119256E+0	1.097934E+0	1.074671E+0	1.079286E+0	1.073057E+0	1.042917E+0	1.073154E+0	1.088585E+0	1.055717E+0	1.066650E+0	1.095943E+0	1.085172E+0	1.069470E+0	1.078934E+0	1.061985E+0	1.102237E+0	1.070076E+0	1.060568E+0	1.064882E+0	1.049399E+0	1.114462E+0	1.064353E+0	1.082309E+0	1.136987E+0	1.097076E+0	1.078357E+0	1.049071E+0	1.052096E+0	1.085069E+0	1.092877E+0	1.070116E+0	1.051321E+0	1.118316E+0	1.097099E+0	1.133358E+0	1.134000E+0	1.096909E+0	1.108989E+0	1.093803E+0	1.047031E+0	1.067043E+0	1.044806E+0	1.019582E+0	1.072761E+0	1.123003E+0	1.019370E+0	1.142423E+0	1.088249E+0	1.007671E+0	1.063835E+0	1.025305E+0	1.067219E+0	1.074451E+0	1.118666E+0	1.083153E+0	1.110989E+0	1.065408E+0	1.055927E+0	1.115791E+0	1.055013E+0	1.084649E+0	1.039062E+0	1.094274E+0	1.029067E+0	1.098265E+0	1.130553E+0	1.125167E+0	1.086828E+0	1.091036E+0	1.113951E+0	1.094838E+0	1.085236E+0	1.097006E+0	1.081005E+0	1.092395E+0	1.068989E+0	1.048743E+0	1.171854E+0	1.094813E+0	1.039212E+0	1.116960E+0	1.060148E+0	1.093809E+0	1.057370E+0	1.091845E+0	1.080354E+0	1.115020E+0	1.122844E+0	1.069063E+0	1.060465E+0	1.086186E+0	1.085209E+0	1.055033E+0	1.100609E+0	1.150465E+0	1.103414E+0	1.128195E+0	1.092485E+0	1.068678E+0	1.065145E+0	1.098448E+0	1.124127E+0	1.044861E+0	1.090696E+0	1.059060E+0	1.021899E+0	1.059208E+0	1.113119E+0	1.044998E+0	1.095171E+0	1.103743E+0	1.061081E+0	1.026496E+0	1.033004E+0	1.040215E+0	1.012591E+0	1.144138E+0	1.074710E+0	1.093606E+0	1.112307E+0	1.118987E+0	1.046273E+0	1.058749E+0	1.070282E+0	1.037407E+0	9.947817E-1	1.060391E+0	1.097328E+0	1.136581E+0	1.038173E+0	1.091721E+0	1.093437E+0	1.101512E+0	1.041482E+0	1.077587E+0	1.060408E+0	1.064239E+0	1.103349E+0	1.130744E+0	1.118714E+0	1.075019E+0	1.065435E+0	1.106190E+0	1.076761E+0	1.123406E+0	1.074927E+0	1.114237E+0	1.112524E+0	1.017222E+0	9.797129E-1	1.096415E+0	1.038979E+0	1.055213E+0	1.067928E+0
5.376060E+2	1.089457E+0	1.068536E+0	1.074338E+0	1.049204E+0	1.043443E+0	1.068318E+0	1.036554E+0	1.083571E+0	1.031573E+0	1.061132E+0	1.020963E+0	1.012773E+0	1.130599E+0	1.077257E+0	1.086718E+0	1.093902E+0	1.058125E+0	1.061465E+0	1.085234E+0	1.070331E+0	1.135494E+0	1.076382E+0	1.094743E+0	1.085733E+0	1.124027E+0	1.042099E+0	1.084006E+0	1.129866E+0	1.112136E+0	1.114848E+0	1.051264E+0	1.057873E+0	1.056315E+0	1.035525E+0	1.052701E+0	1.082672E+0	1.032346E+0	1.056675E+0	1.008673E+0	1.062392E+0	1.081741E+0	1.071543E+0	1.040835E+0	1.015262E+0	1.045592E+0	1.059040E+0	1.050927E+0	1.088853E+0	1.092283E+0	1.050686E+0	1.070962E+0	1.036831E+0	1.060798E+0	1.095098E+0	1.107784E+0	1.092997E+0	1.108956E+0	1.081645E+0	1.049877E+0	1.014457E+0	1.014046E+0	1.107008E+0	1.094407E+0	1.063775E+0	1.069443E+0	1.111194E+0	1.085489E+0	1.075422E+0	1.081819E+0	1.118656E+0	1.089385E+0	1.041306E+0	1.141346E+0	1.031909E+0	1.032899E+0	1.090549E+0	1.105011E+0	1.063633E+0	1.083003E+0	1.069671E+0	1.117541E+0	1.128105E+0	1.113716E+0	1.077740E+0	1.092362E+0	1.081347E+0	1.045601E+0	1.106580E+0	1.030902E+0	1.087866E+0	1.056410E+0	1.079071E+0	1.052638E+0	9.943430E-1	1.047823E+0	1.069088E+0	1.073375E+0	1.020934E+0	1.124430E+0	1.098850E+0	1.119601E+0	1.033671E+0	1.078547E+0	1.060214E+0	1.088513E+0	1.084093E+0	1.123525E+0	1.053523E+0	1.054081E+0	1.093847E+0	1.107645E+0	1.075418E+0	9.925763E-1	1.106594E+0	1.122155E+0	1.044673E+0	1.089900E+0	1.065012E+0	1.081452E+0	1.090764E+0	1.078494E+0	1.068043E+0	1.101754E+0	1.057497E+0	1.068228E+0	1.091572E+0	1.038374E+0	1.019288E+0	1.080240E+0	1.090813E+0	1.058983E+0	1.031219E+0	1.083936E+0	1.049786E+0	1.030997E+0	1.045727E+0	1.046566E+0	1.079701E+0	1.044485E+0	1.112263E+0	1.106766E+0	1.063562E+0	1.072481E+0	1.082230E+0	1.127903E+0	1.029725E+0	1.096546E+0	1.122512E+0	1.113406E+0	1.036141E+0	1.065173E+0	1.110914E+0	1.159930E+0	1.053336E+0	1.033781E+0	1.012421E+0	1.069181E+0	1.053359E+0	1.048381E+0	1.070467E+0	1.040580E+0	1.071542E+0	1.094214E+0	9.983751E-1	9.962025E-1	1.113215E+0
5.378110E+2	1.107956E+0	1.176149E+0	1.133719E+0	1.108873E+0	1.084373E+0	1.134586E+0	1.156861E+0	1.150500E+0	1.150032E+0	1.114790E+0	1.125594E+0	1.189119E+0	1.147623E+0	1.187071E+0	1.058691E+0	1.132312E+0	1.116461E+0	1.171945E+0	1.121727E+0	1.144250E+0	1.084340E+0	1.184608E+0	1.132428E+0	1.148905E+0	1.141126E+0	1.088146E+0	1.100435E+0	1.194599E+0	1.132754E+0	1.148317E+0	1.105219E+0	1.086411E+0	1.126977E+0	1.118507E+0	1.083076E+0	1.129488E+0	1.135764E+0	1.100875E+0	1.060807E+0	1.098562E+0	1.169379E+0	1.123956E+0	1.120788E+0	1.112956E+0	1.135234E+0	1.173092E+0	1.174031E+0	1.105348E+0	1.190785E+0	1.134913E+0	1.135269E+0	1.099815E+0	1.094247E+0	1.142460E+0	1.085219E+0	1.129760E+0	1.149263E+0	1.155621E+0	1.161492E+0	1.126476E+0	1.107145E+0	1.124025E+0	1.114889E+0	1.141589E+0	1.073927E+0	1.171554E+0	1.143562E+0	1.146408E+0	1.152761E+0	1.132027E+0	1.116103E+0	1.145164E+0	1.172117E+0	1.114435E+0	1.152713E+0	1.124652E+0	1.119785E+0	1.090363E+0	1.104108E+0	1.211464E+0	1.106348E+0	1.094040E+0	1.111220E+0	1.144355E+0	1.113632E+0	1.061661E+0	1.120236E+0	1.126764E+0	1.138690E+0	1.119516E+0	1.154684E+0	1.102196E+0	1.190292E+0	1.077499E+0	1.124085E+0	1.158298E+0	1.195993E+0	1.049901E+0	1.125850E+0	1.162746E+0	1.155111E+0	1.093281E+0	1.138088E+0	1.157288E+0	1.136220E+0	1.167522E+0	1.128447E+0	1.122933E+0	1.113078E+0	1.080121E+0	1.130145E+0	1.090829E+0	1.159773E+0	1.152487E+0	1.122919E+0	1.109757E+0	1.134213E+0	1.129612E+0	1.119710E+0	1.122923E+0	1.176947E+0	1.135257E+0	1.191526E+0	1.114315E+0	1.116490E+0	1.170748E+0	1.159704E+0	1.101371E+0	1.071033E+0	1.137539E+0	1.135634E+0	1.088418E+0	1.170416E+0	1.041779E+0	1.158330E+0	1.101673E+0	1.092497E+0	1.119342E+0	1.133908E+0	1.153377E+0	1.086855E+0	1.090297E+0	1.135147E+0	1.171454E+0	1.211115E+0	1.091765E+0	1.141347E+0	1.147369E+0	1.131014E+0	1.128897E+0	1.133531E+0	1.144119E+0	1.185243E+0	1.108152E+0	1.228394E+0	1.181166E+0	1.105395E+0	1.125385E+0	1.109545E+0	1.112453E+0	1.108099E+0	1.098841E+0	1.170187E+0	1.122535E+0	1.025397E+0	1.079475E+0
5.380050E+2	1.212706E+0	1.287413E+0	1.205485E+0	1.167753E+0	1.184974E+0	1.223178E+0	1.197437E+0	1.215446E+0	1.173944E+0	1.187740E+0	1.251916E+0	1.251373E+0	1.211329E+0	1.236310E+0	1.169915E+0	1.222894E+0	1.153771E+0	1.216250E+0	1.235128E+0	1.200352E+0	1.229547E+0	1.197350E+0	1.204909E+0	1.188866E+0	1.229216E+0	1.217155E+0	1.202034E+0	1.250824E+0	1.228069E+0	1.183906E+0	1.191264E+0	1.146695E+0	1.181675E+0	1.156957E+0	1.136976E+0	1.217621E+0	1.253925E+0	1.184469E+0	1.196340E+0	1.161416E+0	1.201487E+0	1.187202E+0	1.179057E+0	1.193879E+0	1.203216E+0	1.154733E+0	1.170531E+0	1.260868E+0	1.256391E+0	1.189588E+0	1.241402E+0	1.192879E+0	1.205815E+0	1.231679E+0	1.159303E+0	1.204008E+0	1.198871E+0	1.216824E+0	1.225329E+0	1.200193E+0	1.173285E+0	1.240409E+0	1.207477E+0	1.154775E+0	1.171396E+0	1.227890E+0	1.206120E+0	1.208135E+0	1.264233E+0	1.188865E+0	1.184181E+0	1.184887E+0	1.247601E+0	1.222125E+0	1.176349E+0	1.190317E+0	1.238045E+0	1.239265E+0	1.224483E+0	1.157756E+0	1.208553E+0	1.251664E+0	1.236465E+0	1.165933E+0	1.172830E+0	1.190693E+0	1.226611E+0	1.191040E+0	1.230457E+0	1.187551E+0	1.189125E+0	1.207834E+0	1.207745E+0	1.121149E+0	1.203264E+0	1.230515E+0	1.252010E+0	1.203374E+0	1.202513E+0	1.219442E+0	1.140935E+0	1.183522E+0	1.178538E+0	1.180989E+0	1.209123E+0	1.211287E+0	1.208797E+0	1.274515E+0	1.234734E+0	1.178070E+0	1.201021E+0	1.189305E+0	1.221713E+0	1.215403E+0	1.287159E+0	1.143718E+0	1.150532E+0	1.131068E+0	1.232357E+0	1.191212E+0	1.219867E+0	1.144411E+0	1.181817E+0	1.152425E+0	1.171548E+0	1.269566E+0	1.138117E+0	1.176834E+0	1.183438E+0	1.129797E+0	1.228503E+0	1.194898E+0	1.232638E+0	1.156026E+0	1.190635E+0	1.120348E+0	1.132781E+0	1.189138E+0	1.180913E+0	1.245419E+0	1.200789E+0	1.182053E+0	1.188497E+0	1.203313E+0	1.267797E+0	1.140412E+0	1.224549E+0	1.250047E+0	1.213299E+0	1.213718E+0	1.221262E+0	1.243666E+0	1.135416E+0	1.174336E+0	1.249202E+0	1.210936E+0	1.156601E+0	1.161691E+0	1.157578E+0	1.145144E+0	1.212969E+0	1.149825E+0	1.184403E+0	1.190549E+0	1.184424E+0	1.087703E+0
5.382060E+2	1.487157E+0	1.472734E+0	1.492397E+0	1.432964E+0	1.414337E+0	1.421543E+0	1.404648E+0	1.452542E+0	1.434474E+0	1.355468E+0	1.439206E+0	1.430018E+0	1.483453E+0	1.568256E+0	1.459741E+0	1.413821E+0	1.423535E+0	1.480353E+0	1.472683E+0	1.456288E+0	1.451686E+0	1.459045E+0	1.450948E+0	1.411080E+0	1.412672E+0	1.412594E+0	1.446058E+0	1.472855E+0	1.405952E+0	1.393354E+0	1.429006E+0	1.343958E+0	1.450898E+0	1.425604E+0	1.439702E+0	1.474320E+0	1.452793E+0	1.400821E+0	1.434538E+0	1.401393E+0	1.467180E+0	1.438748E+0	1.370985E+0	1.471619E+0	1.488014E+0	1.479436E+0	1.448034E+0	1.468126E+0	1.456330E+0	1.400906E+0	1.414804E+0	1.472083E+0	1.419707E+0	1.408950E+0	1.371734E+0	1.479087E+0	1.426100E+0	1.451501E+0	1.465766E+0	1.445824E+0	1.395764E+0	1.485535E+0	1.387821E+0	1.391064E+0	1.445388E+0	1.483146E+0	1.410401E+0	1.471477E+0	1.456510E+0	1.360983E+0	1.414581E+0	1.430527E+0	1.452926E+0	1.425844E+0	1.410124E+0	1.441463E+0	1.425519E+0	1.387595E+0	1.473451E+0	1.405759E+0	1.506027E+0	1.470610E+0	1.445192E+0	1.441340E+0	1.465585E+0	1.419491E+0	1.399654E+0	1.346075E+0	1.417395E+0	1.413183E+0	1.434876E+0	1.370655E+0	1.423798E+0	1.322752E+0	1.464789E+0	1.474028E+0	1.451547E+0	1.327797E+0	1.470844E+0	1.392848E+0	1.415324E+0	1.394087E+0	1.360632E+0	1.429030E+0	1.498660E+0	1.409328E+0	1.461358E+0	1.453783E+0	1.456189E+0	1.423560E+0	1.452932E+0	1.382264E+0	1.448189E+0	1.421324E+0	1.398323E+0	1.387114E+0	1.373912E+0	1.366699E+0	1.479552E+0	1.480444E+0	1.442543E+0	1.454661E+0	1.405742E+0	1.431155E+0	1.429992E+0	1.422350E+0	1.363034E+0	1.357061E+0	1.469092E+0	1.425341E+0	1.393729E+0	1.364448E+0	1.392177E+0	1.423991E+0	1.446854E+0	1.397329E+0	1.419864E+0	1.425952E+0	1.383091E+0	1.466065E+0	1.396268E+0	1.322216E+0	1.404042E+0	1.399351E+0	1.472895E+0	1.368445E+0	1.454022E+0	1.427395E+0	1.456936E+0	1.414100E+0	1.456938E+0	1.401140E+0	1.431306E+0	1.387735E+0	1.463785E+0	1.470395E+0	1.419157E+0	1.447473E+0	1.401835E+0	1.393011E+0	1.390803E+0	1.352143E+0	1.425126E+0	1.383791E+0	1.337228E+0	1.391782E+0
5.384110E+2	1.743929E+0	1.743322E+0	1.743409E+0	1.688676E+0	1.700741E+0	1.637230E+0	1.698376E+0	1.696820E+0	1.709968E+0	1.578316E+0	1.721756E+0	1.682091E+0	1.804535E+0	1.760178E+0	1.672811E+0	1.755719E+0	1.707134E+0	1.704367E+0	1.691546E+0	1.719715E+0	1.704152E+0	1.784354E+0	1.644524E+0	1.741994E+0	1.726839E+0	1.672167E+0	1.656546E+0	1.695261E+0	1.616286E+0	1.683309E+0	1.644702E+0	1.707592E+0	1.708076E+0	1.606803E+0	1.679891E+0	1.738045E+0	1.662717E+0	1.741223E+0	1.665080E+0	1.653638E+0	1.729785E+0	1.650286E+0	1.688547E+0	1.650357E+0	1.658277E+0	1.745861E+0	1.642177E+0	1.704239E+0	1.723991E+0	1.660589E+0	1.667887E+0	1.710442E+0	1.770300E+0	1.736905E+0	1.722583E+0	1.642290E+0	1.715022E+0	1.738248E+0	1.702224E+0	1.694224E+0	1.685098E+0	1.763851E+0	1.630450E+0	1.698347E+0	1.711861E+0	1.750652E+0	1.724327E+0	1.709000E+0	1.695832E+0	1.670053E+0	1.707215E+0	1.638917E+0	1.766815E+0	1.700325E+0	1.663054E+0	1.655520E+0	1.724211E+0	1.609324E+0	1.703543E+0	1.725843E+0	1.747109E+0	1.663928E+0	1.750978E+0	1.714509E+0	1.776487E+0	1.716884E+0	1.627471E+0	1.702391E+0	1.701623E+0	1.678244E+0	1.705460E+0	1.666083E+0	1.710241E+0	1.690122E+0	1.680504E+0	1.667999E+0	1.682912E+0	1.621933E+0	1.740195E+0	1.717178E+0	1.689689E+0	1.617146E+0	1.611784E+0	1.725624E+0	1.755657E+0	1.742778E+0	1.759266E+0	1.723445E+0	1.590168E+0	1.685707E+0	1.745330E+0	1.609206E+0	1.743589E+0	1.725383E+0	1.665869E+0	1.729934E+0	1.658492E+0	1.531444E+0	1.645514E+0	1.633791E+0	1.716116E+0	1.692265E+0	1.702301E+0	1.626776E+0	1.648492E+0	1.719292E+0	1.668399E+0	1.615248E+0	1.644170E+0	1.717401E+0	1.698311E+0	1.645728E+0	1.681382E+0	1.664373E+0	1.571474E+0	1.659598E+0	1.583347E+0	1.566321E+0	1.629735E+0	1.756254E+0	1.673466E+0	1.595710E+0	1.709882E+0	1.784365E+0	1.788098E+0	1.513114E+0	1.629293E+0	1.632232E+0	1.709694E+0	1.567837E+0	1.655048E+0	1.741303E+0	1.764810E+0	1.646497E+0	1.688423E+0	1.609170E+0	1.723435E+0	1.666175E+0	1.622733E+0	1.724619E+0	1.672284E+0	1.572479E+0	1.606596E+0	1.568416E+0	1.490233E+0	1.579643E+0
5.386060E+2	1.644031E+0	1.603985E+0	1.610017E+0	1.695820E+0	1.577430E+0	1.541441E+0	1.648030E+0	1.562292E+0	1.616501E+0	1.614434E+0	1.606623E+0	1.659220E+0	1.628981E+0	1.618429E+0	1.605020E+0	1.636831E+0	1.629543E+0	1.659384E+0	1.564109E+0	1.637923E+0	1.561810E+0	1.642724E+0	1.595823E+0	1.587497E+0	1.655393E+0	1.610086E+0	1.550184E+0	1.663192E+0	1.577420E+0	1.603919E+0	1.657679E+0	1.597076E+0	1.600847E+0	1.579675E+0	1.576481E+0	1.712691E+0	1.623458E+0	1.553266E+0	1.525448E+0	1.569273E+0	1.603590E+0	1.646679E+0	1.594543E+0	1.571318E+0	1.571135E+0	1.611361E+0	1.619419E+0	1.625548E+0	1.605070E+0	1.554250E+0	1.613335E+0	1.653645E+0	1.559330E+0	1.576746E+0	1.613180E+0	1.641871E+0	1.622504E+0	1.572724E+0	1.654755E+0	1.610810E+0	1.540313E+0	1.627611E+0	1.597602E+0	1.589484E+0	1.601832E+0	1.645587E+0	1.615672E+0	1.517161E+0	1.631195E+0	1.554282E+0	1.547001E+0	1.546376E+0	1.657863E+0	1.577534E+0	1.604611E+0	1.631198E+0	1.637492E+0	1.583818E+0	1.616322E+0	1.627831E+0	1.638882E+0	1.619422E+0	1.658300E+0	1.615137E+0	1.586525E+0	1.580856E+0	1.530159E+0	1.556659E+0	1.649053E+0	1.615926E+0	1.617097E+0	1.616131E+0	1.672327E+0	1.563126E+0	1.562593E+0	1.611834E+0	1.634479E+0	1.560823E+0	1.701227E+0	1.641697E+0	1.560106E+0	1.512834E+0	1.539230E+0	1.663581E+0	1.614472E+0	1.605119E+0	1.650820E+0	1.657050E+0	1.600344E+0	1.602398E+0	1.613867E+0	1.595419E+0	1.608942E+0	1.584390E+0	1.604521E+0	1.659533E+0	1.566611E+0	1.527084E+0	1.576848E+0	1.586513E+0	1.528549E+0	1.598837E+0	1.591826E+0	1.550553E+0	1.555297E+0	1.590947E+0	1.577706E+0	1.556218E+0	1.547479E+0	1.549976E+0	1.550938E+0	1.607356E+0	1.612208E+0	1.625071E+0	1.565385E+0	1.548289E+0	1.521141E+0	1.466717E+0	1.520994E+0	1.660996E+0	1.544403E+0	1.539984E+0	1.624276E+0	1.552177E+0	1.629637E+0	1.531431E+0	1.547254E+0	1.540160E+0	1.538891E+0	1.528897E+0	1.522593E+0	1.590248E+0	1.612506E+0	1.569715E+0	1.626303E+0	1.578138E+0	1.595981E+0	1.531494E+0	1.536798E+0	1.571635E+0	1.496688E+0	1.539560E+0	1.632874E+0	1.614964E+0	1.518490E+0	1.553077E+0
5.388120E+2	1.473941E+0	1.441408E+0	1.378900E+0	1.352858E+0	1.385314E+0	1.353399E+0	1.382735E+0	1.421074E+0	1.382781E+0	1.391818E+0	1.414638E+0	1.523079E+0	1.452438E+0	1.444609E+0	1.443863E+0	1.421748E+0	1.443206E+0	1.408281E+0	1.421649E+0	1.402639E+0	1.457373E+0	1.397915E+0	1.333263E+0	1.375666E+0	1.418915E+0	1.396973E+0	1.417182E+0	1.486146E+0	1.399127E+0	1.424818E+0	1.422494E+0	1.426412E+0	1.465853E+0	1.441380E+0	1.397756E+0	1.455571E+0	1.412525E+0	1.379661E+0	1.404812E+0	1.365987E+0	1.395239E+0	1.448647E+0	1.424227E+0	1.390260E+0	1.429991E+0	1.435348E+0	1.379163E+0	1.388173E+0	1.429522E+0	1.463439E+0	1.392706E+0	1.400087E+0	1.411349E+0	1.373349E+0	1.409038E+0	1.469569E+0	1.468336E+0	1.428266E+0	1.431930E+0	1.402603E+0	1.402944E+0	1.441816E+0	1.388068E+0	1.401108E+0	1.376596E+0	1.467563E+0	1.385113E+0	1.431370E+0	1.401944E+0	1.389383E+0	1.469943E+0	1.405085E+0	1.437631E+0	1.437600E+0	1.375360E+0	1.451936E+0	1.442551E+0	1.427638E+0	1.489147E+0	1.398298E+0	1.505213E+0	1.489130E+0	1.372234E+0	1.382724E+0	1.380338E+0	1.402715E+0	1.380404E+0	1.364784E+0	1.437130E+0	1.377575E+0	1.428514E+0	1.471232E+0	1.363143E+0	1.431199E+0	1.456081E+0	1.445618E+0	1.373371E+0	1.302193E+0	1.421672E+0	1.500213E+0	1.438361E+0	1.365473E+0	1.353315E+0	1.437083E+0	1.445118E+0	1.472280E+0	1.384611E+0	1.389870E+0	1.383781E+0	1.410286E+0	1.474087E+0	1.401531E+0	1.349705E+0	1.442634E+0	1.358338E+0	1.386196E+0	1.372087E+0	1.384954E+0	1.444776E+0	1.417437E+0	1.422334E+0	1.358053E+0	1.370956E+0	1.391271E+0	1.340816E+0	1.374958E+0	1.331991E+0	1.365182E+0	1.441105E+0	1.404043E+0	1.408412E+0	1.372238E+0	1.430047E+0	1.292591E+0	1.411603E+0	1.415462E+0	1.394850E+0	1.368467E+0	1.407375E+0	1.389550E+0	1.483840E+0	1.377828E+0	1.343667E+0	1.397880E+0	1.406505E+0	1.345025E+0	1.415149E+0	1.422489E+0	1.386893E+0	1.414826E+0	1.429923E+0	1.457429E+0	1.497817E+0	1.373018E+0	1.410402E+0	1.467110E+0	1.379127E+0	1.376844E+0	1.336198E+0	1.415003E+0	1.414319E+0	1.375064E+0	1.458360E+0	1.329225E+0	1.312052E+0	1.387814E+0
5.390080E+2	1.277811E+0	1.238916E+0	1.288002E+0	1.307903E+0	1.218168E+0	1.231353E+0	1.223842E+0	1.295907E+0	1.227154E+0	1.274964E+0	1.235573E+0	1.251948E+0	1.288856E+0	1.313506E+0	1.219686E+0	1.217754E+0	1.250205E+0	1.235946E+0	1.204825E+0	1.290315E+0	1.284567E+0	1.262768E+0	1.312076E+0	1.220553E+0	1.300139E+0	1.219925E+0	1.235638E+0	1.217992E+0	1.225367E+0	1.293032E+0	1.249632E+0	1.214844E+0	1.260839E+0	1.213951E+0	1.264411E+0	1.246053E+0	1.245692E+0	1.239435E+0	1.237559E+0	1.190002E+0	1.299124E+0	1.287952E+0	1.212423E+0	1.238824E+0	1.239804E+0	1.250031E+0	1.295296E+0	1.295462E+0	1.249380E+0	1.258715E+0	1.224459E+0	1.255663E+0	1.276989E+0	1.236196E+0	1.235368E+0	1.284093E+0	1.218005E+0	1.286692E+0	1.321313E+0	1.250336E+0	1.218780E+0	1.306656E+0	1.240662E+0	1.310040E+0	1.266514E+0	1.244455E+0	1.204007E+0	1.251302E+0	1.252525E+0	1.223026E+0	1.225789E+0	1.251814E+0	1.300087E+0	1.234643E+0	1.296729E+0	1.210992E+0	1.284109E+0	1.188508E+0	1.279438E+0	1.265042E+0	1.316575E+0	1.179268E+0	1.272595E+0	1.302764E+0	1.267111E+0	1.284050E+0	1.206588E+0	1.208144E+0	1.251098E+0	1.240654E+0	1.257063E+0	1.316750E+0	1.218114E+0	1.242011E+0	1.261230E+0	1.260363E+0	1.261412E+0	1.181346E+0	1.300965E+0	1.326095E+0	1.248461E+0	1.226176E+0	1.285987E+0	1.234700E+0	1.242046E+0	1.257632E+0	1.332199E+0	1.261069E+0	1.198141E+0	1.241504E+0	1.289399E+0	1.246396E+0	1.283177E+0	1.255373E+0	1.290855E+0	1.283543E+0	1.193190E+0	1.235363E+0	1.251962E+0	1.295473E+0	1.247398E+0	1.259595E+0	1.209633E+0	1.241975E+0	1.228238E+0	1.252521E+0	1.245739E+0	1.238619E+0	1.263115E+0	1.284853E+0	1.216581E+0	1.261769E+0	1.280614E+0	1.255600E+0	1.159581E+0	1.239687E+0	1.282093E+0	1.211669E+0	1.206076E+0	1.246286E+0	1.261707E+0	1.226298E+0	1.234402E+0	1.258429E+0	1.344009E+0	1.221047E+0	1.220988E+0	1.317767E+0	1.227232E+0	1.255164E+0	1.234745E+0	1.260981E+0	1.340885E+0	1.250326E+0	1.238146E+0	1.266491E+0	1.255798E+0	1.226914E+0	1.188361E+0	1.234003E+0	1.240717E+0	1.194913E+0	1.270766E+0	1.214816E+0	1.188510E+0	1.244868E+0
5.392090E+2	1.106567E+0	1.176952E+0	1.185885E+0	1.068208E+0	1.051994E+0	1.054577E+0	1.148100E+0	1.096667E+0	1.068933E+0	1.091910E+0	1.070702E+0	1.126275E+0	1.152068E+0	1.134614E+0	1.042574E+0	1.090313E+0	1.122352E+0	1.085878E+0	1.103875E+0	1.060375E+0	1.118412E+0	1.141647E+0	1.056531E+0	1.103030E+0	1.116408E+0	1.067218E+0	1.077541E+0	1.121635E+0	1.109353E+0	1.118509E+0	1.024195E+0	1.059240E+0	1.157572E+0	1.090520E+0	1.059634E+0	1.179708E+0	1.095906E+0	1.125858E+0	1.058985E+0	1.105389E+0	1.118210E+0	1.103949E+0	1.050775E+0	1.148850E+0	1.091371E+0	1.131151E+0	1.120633E+0	1.031284E+0	1.148934E+0	1.129855E+0	1.088018E+0	1.069358E+0	1.097145E+0	1.087706E+0	1.076649E+0	1.102349E+0	1.150997E+0	1.072719E+0	1.105708E+0	1.109713E+0	1.064140E+0	1.076830E+0	1.041352E+0	1.039260E+0	1.123649E+0	1.109217E+0	1.090985E+0	1.091255E+0	1.132461E+0	1.070433E+0	1.095916E+0	1.049872E+0	1.137315E+0	1.149764E+0	1.136429E+0	1.065161E+0	1.162151E+0	1.024103E+0	1.122205E+0	1.047518E+0	1.194429E+0	1.153891E+0	1.137946E+0	1.103996E+0	1.147836E+0	1.075410E+0	1.100035E+0	1.115435E+0	1.106553E+0	1.110041E+0	1.033714E+0	1.089583E+0	1.115953E+0	1.139266E+0	1.072352E+0	1.163895E+0	1.107955E+0	1.012165E+0	1.137462E+0	1.127061E+0	1.092803E+0	1.087419E+0	1.144462E+0	1.142289E+0	1.114253E+0	1.104424E+0	1.171763E+0	1.096199E+0	1.098523E+0	1.087993E+0	1.096115E+0	1.082078E+0	1.100985E+0	1.113648E+0	1.174575E+0	1.077696E+0	1.080696E+0	1.023166E+0	1.123810E+0	1.120260E+0	1.078387E+0	1.130494E+0	1.063556E+0	1.077110E+0	1.104015E+0	1.049763E+0	1.077648E+0	1.113623E+0	1.152605E+0	1.118793E+0	1.036134E+0	1.049919E+0	1.118912E+0	1.055668E+0	9.846369E-1	1.101480E+0	1.069911E+0	1.072983E+0	1.044004E+0	1.137966E+0	1.154989E+0	1.005944E+0	1.090699E+0	1.120625E+0	1.117990E+0	1.079848E+0	1.131333E+0	1.136153E+0	1.101188E+0	1.086059E+0	1.094269E+0	1.105855E+0	1.095547E+0	1.080856E+0	1.118277E+0	1.099871E+0	1.108627E+0	1.108520E+0	1.121557E+0	1.084895E+0	1.055470E+0	1.060869E+0	1.098603E+0	1.091067E+0	1.072888E+0	9.208220E-1
5.394100E+2	1.079030E+0	1.043904E+0	1.099046E+0	1.091445E+0	1.032404E+0	1.072277E+0	1.050888E+0	1.063767E+0	1.022427E+0	1.014998E+0	1.080716E+0	1.021298E+0	1.059425E+0	1.139015E+0	1.089260E+0	1.081603E+0	1.056016E+0	1.060652E+0	1.064978E+0	1.076891E+0	1.104513E+0	1.082286E+0	1.083894E+0	1.017158E+0	1.129294E+0	1.044549E+0	1.048607E+0	1.068081E+0	1.043398E+0	1.057351E+0	1.029019E+0	1.043159E+0	1.040476E+0	1.017710E+0	1.071529E+0	1.054911E+0	1.094720E+0	9.778197E-1	1.014612E+0	1.068700E+0	1.062723E+0	1.091733E+0	1.031929E+0	1.051504E+0	1.083734E+0	1.067345E+0	1.090061E+0	1.061489E+0	1.093704E+0	1.048046E+0	1.049345E+0	1.091716E+0	1.111210E+0	1.061174E+0	1.063872E+0	1.056935E+0	1.076431E+0	1.076317E+0	1.092335E+0	1.111951E+0	1.067529E+0	1.048950E+0	1.064671E+0	1.038166E+0	1.132570E+0	1.090542E+0	1.081659E+0	1.085192E+0	1.088334E+0	1.085122E+0	1.100082E+0	1.052426E+0	1.092648E+0	1.076627E+0	1.034892E+0	1.120875E+0	1.169926E+0	1.074707E+0	1.129805E+0	1.016755E+0	1.093084E+0	1.047583E+0	1.049057E+0	1.076379E+0	1.142882E+0	1.053018E+0	1.071274E+0	1.037813E+0	1.028995E+0	1.098516E+0	1.119837E+0	1.080516E+0	1.042231E+0	1.010467E+0	1.082167E+0	1.094039E+0	1.095401E+0	9.915472E-1	1.080230E+0	1.093740E+0	1.052108E+0	1.009722E+0	1.034162E+0	1.077346E+0	1.055079E+0	1.100857E+0	1.122791E+0	1.058871E+0	1.038528E+0	1.046849E+0	1.008407E+0	1.078983E+0	1.105650E+0	1.108911E+0	1.083847E+0	1.093461E+0	1.061738E+0	1.014654E+0	1.077260E+0	1.094050E+0	1.034906E+0	1.102979E+0	1.108384E+0	1.040479E+0	1.106510E+0	1.032256E+0	1.057073E+0	1.020795E+0	1.075882E+0	1.052832E+0	1.084257E+0	1.032476E+0	1.134781E+0	1.043560E+0	1.007935E+0	1.010494E+0	1.075022E+0	1.062624E+0	1.073870E+0	1.095739E+0	1.074565E+0	1.016441E+0	1.083102E+0	1.081417E+0	1.148088E+0	1.030557E+0	1.065045E+0	1.033636E+0	1.024690E+0	1.056360E+0	1.027663E+0	1.059185E+0	1.119747E+0	1.054655E+0	1.114003E+0	1.086644E+0	1.056180E+0	1.106292E+0	1.021872E+0	1.063500E+0	9.940453E-1	1.003258E+0	1.080540E+0	1.042884E+0	1.074383E+0	9.524807E-1
5.396110E+2	9.943456E-1	1.013499E+0	1.026101E+0	1.048650E+0	1.037072E+0	9.704023E-1	9.992664E-1	9.910915E-1	1.020869E+0	9.584968E-1	1.002474E+0	1.022143E+0	1.011758E+0	1.085325E+0	9.656756E-1	9.681800E-1	1.057124E+0	1.012620E+0	1.001290E+0	9.830596E-1	1.039218E+0	1.058595E+0	1.003911E+0	9.779895E-1	1.009696E+0	1.042861E+0	9.895109E-1	1.012362E+0	1.041909E+0	1.032553E+0	1.027214E+0	1.017824E+0	1.029600E+0	1.013190E+0	1.017710E+0	1.022003E+0	1.027603E+0	9.879972E-1	1.031808E+0	9.484171E-1	1.052895E+0	1.019697E+0	1.002856E+0	1.059690E+0	1.076830E+0	1.027777E+0	9.969664E-1	1.069117E+0	1.022587E+0	9.679775E-1	9.970126E-1	1.072335E+0	1.025756E+0	1.011062E+0	1.017461E+0	1.061917E+0	1.041885E+0	1.014903E+0	1.017709E+0	1.063732E+0	9.895555E-1	1.025242E+0	1.016133E+0	9.760614E-1	1.019318E+0	1.050626E+0	9.994293E-1	1.047392E+0	1.050319E+0	9.997812E-1	9.813917E-1	1.041246E+0	1.101597E+0	1.062212E+0	1.076441E+0	1.035838E+0	1.013048E+0	1.038388E+0	1.028734E+0	1.051335E+0	1.093311E+0	1.055910E+0	1.046237E+0	1.045085E+0	1.015653E+0	1.039380E+0	9.935110E-1	1.020948E+0	1.009402E+0	1.016551E+0	9.799042E-1	1.014455E+0	1.050002E+0	1.028748E+0	9.930380E-1	1.025320E+0	9.901398E-1	1.040335E+0	1.045429E+0	1.015545E+0	1.015686E+0	1.013477E+0	1.026913E+0	1.020909E+0	1.018660E+0	1.066657E+0	1.077067E+0	9.547662E-1	1.067427E+0	1.038655E+0	1.024423E+0	1.020875E+0	1.064464E+0	1.062856E+0	1.029659E+0	9.724816E-1	1.038555E+0	9.677803E-1	1.061418E+0	1.051977E+0	1.010660E+0	9.875284E-1	1.031857E+0	1.018487E+0	1.052639E+0	1.046576E+0	9.809055E-1	9.951313E-1	1.038944E+0	9.952446E-1	9.858602E-1	9.698541E-1	1.046265E+0	1.016226E+0	9.848712E-1	1.046663E+0	9.736321E-1	1.024915E+0	9.952807E-1	1.005468E+0	1.034058E+0	1.008491E+0	1.033644E+0	9.773154E-1	1.034552E+0	9.951145E-1	9.847754E-1	1.009744E+0	1.086984E+0	1.030027E+0	1.016120E+0	1.024979E+0	1.062315E+0	1.060080E+0	1.044538E+0	1.046891E+0	1.054698E+0	1.038667E+0	1.022088E+0	1.003660E+0	1.024453E+0	9.941047E-1	9.999739E-1	9.903040E-1	9.388568E-1	9.795621E-1
5.398180E+2	8.045402E-1	7.882190E-1	8.287625E-1	8.221218E-1	7.940576E-1	7.919969E-1	8.568088E-1	8.456472E-1	7.934561E-1	8.217242E-1	8.335171E-1	8.254274E-1	8.354793E-1	8.450508E-1	7.921946E-1	8.059078E-1	8.188865E-1	8.563103E-1	8.284599E-1	7.872303E-1	8.223946E-1	8.183608E-1	8.129353E-1	7.772344E-1	8.261772E-1	7.978765E-1	7.981122E-1	8.257916E-1	8.453273E-1	8.568671E-1	8.605567E-1	7.898261E-1	8.109277E-1	8.073455E-1	8.038668E-1	8.227163E-1	7.894014E-1	8.066205E-1	7.977450E-1	7.725083E-1	8.297846E-1	8.269265E-1	7.716374E-1	8.304202E-1	8.423307E-1	7.892971E-1	8.109780E-1	8.582496E-1	8.670936E-1	8.157327E-1	7.833302E-1	8.369969E-1	8.191674E-1	8.065874E-1	8.157984E-1	8.234209E-1	8.474845E-1	8.416121E-1	7.941925E-1	8.248357E-1	8.081733E-1	8.613122E-1	7.999406E-1	7.562254E-1	7.855491E-1	8.351827E-1	7.702147E-1	7.701038E-1	7.996799E-1	8.528278E-1	8.098490E-1	7.972710E-1	8.626014E-1	7.750814E-1	7.338170E-1	7.682291E-1	8.286340E-1	7.677129E-1	8.479546E-1	8.319794E-1	8.410853E-1	8.441805E-1	8.200995E-1	8.199383E-1	7.917929E-1	7.860763E-1	8.246278E-1	7.898221E-1	8.168014E-1	8.219909E-1	7.982168E-1	7.956048E-1	8.386809E-1	8.002157E-1	8.599469E-1	7.930877E-1	8.383970E-1	7.896400E-1	8.352551E-1	8.205500E-1	7.886291E-1	7.823396E-1	8.238614E-1	8.393932E-1	8.009477E-1	8.264029E-1	8.513827E-1	8.316372E-1	7.786689E-1	8.398189E-1	8.631505E-1	7.930518E-1	8.366277E-1	7.618557E-1	7.997362E-1	8.230170E-1	7.743469E-1	7.492491E-1	8.253751E-1	7.554856E-1	8.198022E-1	8.185734E-1	8.219963E-1	8.151698E-1	8.107726E-1	7.884589E-1	8.046152E-1	8.176143E-1	8.722566E-1	7.991986E-1	8.172222E-1	7.496722E-1	8.372378E-1	7.846192E-1	7.841679E-1	7.795998E-1	7.694266E-1	7.601380E-1	7.839670E-1	9.124985E-1	8.539181E-1	8.293172E-1	7.872340E-1	8.185965E-1	8.442894E-1	7.645530E-1	8.091300E-1	8.274075E-1	7.950579E-1	7.873046E-1	8.283698E-1	8.426250E-1	8.207457E-1	7.662619E-1	8.077969E-1	8.325151E-1	8.005057E-1	8.248381E-1	8.047295E-1	7.992131E-1	8.260817E-1	7.613367E-1	8.025919E-1	7.203362E-1	8.323476E-1	7.726104E-1
5.400140E+2	6.400389E-1	7.004571E-1	7.120650E-1	6.990394E-1	6.871924E-1	6.693600E-1	6.625439E-1	6.649502E-1	6.706510E-1	5.886171E-1	6.795869E-1	7.138110E-1	7.004301E-1	7.092471E-1	6.856732E-1	6.770666E-1	6.935845E-1	7.178340E-1	6.362753E-1	6.863850E-1	7.452737E-1	7.093989E-1	6.431985E-1	6.607400E-1	6.899561E-1	6.521949E-1	7.080826E-1	6.858574E-1	7.367790E-1	6.706298E-1	6.674713E-1	6.789244E-1	6.615889E-1	7.192738E-1	6.783386E-1	7.125526E-1	7.241974E-1	6.624237E-1	6.734364E-1	6.659156E-1	6.402693E-1	6.536386E-1	7.133981E-1	7.019133E-1	7.149942E-1	6.492541E-1	6.708913E-1	6.592566E-1	6.861448E-1	7.107035E-1	6.721244E-1	6.692077E-1	7.033410E-1	7.593663E-1	6.481588E-1	6.609406E-1	6.453477E-1	6.777770E-1	6.710606E-1	6.738217E-1	6.506276E-1	7.021194E-1	6.852758E-1	6.862722E-1	6.886330E-1	6.654361E-1	7.060933E-1	6.498896E-1	7.181552E-1	6.700779E-1	6.634143E-1	6.675949E-1	7.034013E-1	6.440801E-1	6.520935E-1	6.845289E-1	7.295195E-1	6.701870E-1	6.343312E-1	6.163127E-1	6.707320E-1	7.090290E-1	6.899627E-1	7.158250E-1	6.809498E-1	6.885203E-1	6.696573E-1	6.872588E-1	7.092952E-1	6.800517E-1	6.902334E-1	6.682568E-1	6.870600E-1	6.539836E-1	7.608576E-1	7.123014E-1	6.581544E-1	6.653446E-1	7.103206E-1	6.839726E-1	7.081814E-1	7.336429E-1	6.885107E-1	7.382619E-1	6.896640E-1	6.900952E-1	6.864142E-1	6.944094E-1	6.737456E-1	6.869153E-1	7.000818E-1	6.954346E-1	6.934556E-1	6.893603E-1	6.950186E-1	6.534215E-1	6.727163E-1	6.255591E-1	6.623734E-1	7.223290E-1	7.326274E-1	6.985229E-1	7.014142E-1	6.912960E-1	6.653731E-1	7.075317E-1	6.554456E-1	6.509074E-1	6.939322E-1	6.784040E-1	6.910793E-1	6.491396E-1	6.961153E-1	6.611081E-1	6.493697E-1	6.642372E-1	6.499796E-1	6.541112E-1	6.762373E-1	7.060271E-1	6.410041E-1	6.612214E-1	6.300844E-1	6.762277E-1	7.403628E-1	5.934498E-1	6.755035E-1	6.548345E-1	6.714069E-1	6.631679E-1	6.477477E-1	7.043456E-1	7.141541E-1	6.888055E-1	6.475395E-1	6.868887E-1	7.360218E-1	6.604502E-1	7.201735E-1	7.162604E-1	6.751897E-1	6.369397E-1	7.106709E-1	7.241244E-1	6.490999E-1	7.561321E-1
5.402100E+2	5.359510E-1	5.081897E-1	5.397883E-1	5.454125E-1	5.308372E-1	4.966751E-1	5.357125E-1	5.700683E-1	5.419338E-1	5.198965E-1	5.485175E-1	5.588497E-1	5.005194E-1	5.428966E-1	5.708611E-1	5.624457E-1	5.148753E-1	5.217410E-1	5.611867E-1	5.494386E-1	5.310042E-1	5.640660E-1	5.165116E-1	5.227434E-1	5.556071E-1	5.675676E-1	5.417955E-1	5.137289E-1	5.038571E-1	5.749578E-1	5.333978E-1	5.264105E-1	5.085523E-1	5.073049E-1	5.697213E-1	5.261233E-1	5.687991E-1	5.425753E-1	5.600382E-1	5.528834E-1	4.953809E-1	5.025260E-1	5.104553E-1	5.278954E-1	5.261871E-1	5.243522E-1	5.607702E-1	5.338673E-1	5.797960E-1	5.245953E-1	5.998881E-1	5.500822E-1	5.595378E-1	5.681146E-1	5.415674E-1	5.433355E-1	5.441271E-1	5.282093E-1	5.535974E-1	5.309900E-1	5.275630E-1	5.490769E-1	5.486590E-1	5.340179E-1	5.482254E-1	5.974801E-1	5.258075E-1	5.252034E-1	5.326226E-1	5.173504E-1	4.907051E-1	5.126899E-1	5.810218E-1	5.165055E-1	5.108632E-1	5.229372E-1	5.633722E-1	5.523520E-1	5.657690E-1	5.861130E-1	5.747363E-1	5.293266E-1	5.745984E-1	5.505555E-1	5.716113E-1	5.590966E-1	5.387336E-1	5.354535E-1	5.609892E-1	5.058120E-1	5.374859E-1	5.422326E-1	5.385526E-1	5.485793E-1	5.463579E-1	5.498833E-1	5.692328E-1	5.306831E-1	5.605152E-1	5.664919E-1	5.644152E-1	5.037864E-1	5.213038E-1	5.508523E-1	5.230587E-1	5.835926E-1	5.516222E-1	5.114786E-1	5.375310E-1	4.863312E-1	4.924303E-1	5.244959E-1	5.431211E-1	5.320187E-1	5.446899E-1	4.878645E-1	5.483948E-1	5.201551E-1	5.663700E-1	5.397789E-1	5.763424E-1	5.908080E-1	5.237969E-1	5.400340E-1	5.463001E-1	5.819652E-1	5.224640E-1	5.536042E-1	5.695635E-1	5.206781E-1	5.321375E-1	5.174534E-1	5.446524E-1	5.292513E-1	5.090283E-1	5.357602E-1	5.728068E-1	5.028443E-1	5.147049E-1	5.594824E-1	5.954398E-1	5.475796E-1	5.300532E-1	5.527874E-1	5.682166E-1	5.521781E-1	5.766356E-1	5.180252E-1	5.523297E-1	5.774724E-1	5.329784E-1	5.555867E-1	5.563120E-1	5.364360E-1	5.750964E-1	5.519059E-1	5.592828E-1	5.315801E-1	5.525611E-1	5.013926E-1	5.348292E-1	5.119418E-1	4.845096E-1	4.864229E-1	5.591277E-1	5.129684E-1
5.404120E+2	4.925788E-1	4.846810E-1	4.858300E-1	5.159211E-1	5.054526E-1	4.475699E-1	5.110177E-1	4.612709E-1	4.579576E-1	4.760810E-1	4.794868E-1	4.779247E-1	4.817666E-1	5.070614E-1	4.718981E-1	4.931523E-1	4.670593E-1	4.798557E-1	4.624970E-1	4.682854E-1	5.127232E-1	4.983126E-1	5.137234E-1	4.974152E-1	5.299773E-1	4.588152E-1	5.013090E-1	5.261296E-1	4.838078E-1	5.028063E-1	4.705464E-1	4.794222E-1	5.310672E-1	4.803614E-1	4.948142E-1	5.066961E-1	4.988316E-1	4.949269E-1	5.110529E-1	5.086685E-1	4.476344E-1	5.411422E-1	4.926613E-1	4.928883E-1	5.386301E-1	5.560019E-1	4.601358E-1	4.914101E-1	5.113747E-1	4.829995E-1	4.757071E-1	5.001915E-1	5.112603E-1	5.379178E-1	4.784226E-1	5.551377E-1	4.535917E-1	5.466774E-1	4.969390E-1	4.501948E-1	4.844782E-1	5.024522E-1	5.090219E-1	4.638421E-1	5.134619E-1	4.665915E-1	5.121046E-1	4.604824E-1	5.244615E-1	4.638600E-1	5.201808E-1	4.745874E-1	5.030043E-1	5.087223E-1	4.594778E-1	4.807103E-1	5.220611E-1	4.941480E-1	4.768728E-1	5.078335E-1	5.372111E-1	4.888056E-1	4.821279E-1	5.285805E-1	4.964916E-1	4.940294E-1	4.802743E-1	4.884377E-1	4.733019E-1	5.299915E-1	5.054550E-1	5.168466E-1	5.203489E-1	5.297064E-1	5.143136E-1	4.862526E-1	5.148045E-1	4.545764E-1	5.216257E-1	4.548432E-1	4.832074E-1	5.029805E-1	4.548242E-1	4.739972E-1	4.497551E-1	4.790819E-1	4.855510E-1	5.001185E-1	4.941212E-1	5.173870E-1	4.760874E-1	4.907824E-1	4.921472E-1	4.959940E-1	4.758011E-1	4.940055E-1	4.727913E-1	4.613556E-1	4.829154E-1	4.879789E-1	4.911376E-1	4.757698E-1	4.953013E-1	4.436484E-1	4.982934E-1	4.822892E-1	4.824994E-1	4.916811E-1	4.980870E-1	5.118042E-1	4.925379E-1	5.079293E-1	5.166706E-1	4.969344E-1	4.675274E-1	4.625064E-1	4.795102E-1	5.038707E-1	4.657506E-1	5.012320E-1	4.816930E-1	4.845845E-1	4.879831E-1	5.107096E-1	5.004481E-1	4.978518E-1	4.811182E-1	4.988171E-1	4.994441E-1	4.936551E-1	5.006415E-1	5.184702E-1	4.890466E-1	4.843579E-1	4.656014E-1	5.128316E-1	4.657187E-1	4.911277E-1	5.291490E-1	5.036052E-1	5.046504E-1	4.836608E-1	4.865389E-1	5.111447E-1	4.207120E-1	4.136109E-1
5.406090E+2	4.790558E-1	4.479065E-1	4.951496E-1	4.503788E-1	4.429063E-1	4.696234E-1	4.473708E-1	4.679978E-1	4.688506E-1	4.803143E-1	4.576307E-1	4.841820E-1	4.832357E-1	4.855022E-1	4.821877E-1	4.661960E-1	4.602901E-1	4.841164E-1	5.054123E-1	5.212057E-1	4.759295E-1	4.998752E-1	5.033384E-1	4.858424E-1	5.113191E-1	4.963383E-1	4.801850E-1	4.921381E-1	4.801298E-1	4.853726E-1	4.448851E-1	4.382905E-1	4.996253E-1	4.766809E-1	5.225694E-1	4.897270E-1	4.076177E-1	4.861820E-1	5.029225E-1	4.862354E-1	4.857619E-1	4.907466E-1	4.755966E-1	4.793958E-1	4.918341E-1	4.909130E-1	4.761338E-1	4.943680E-1	4.743976E-1	4.759605E-1	5.134928E-1	4.677586E-1	5.025878E-1	4.562448E-1	4.510433E-1	5.035564E-1	4.682260E-1	5.094305E-1	4.776538E-1	4.940338E-1	4.442803E-1	5.047500E-1	4.718731E-1	4.672701E-1	4.314297E-1	4.853843E-1	4.643256E-1	4.512306E-1	4.760777E-1	4.859929E-1	5.155595E-1	4.660993E-1	4.885501E-1	4.733544E-1	4.523033E-1	4.734082E-1	4.538975E-1	4.431017E-1	5.089825E-1	4.436553E-1	5.259953E-1	4.924597E-1	4.701116E-1	4.966223E-1	4.620491E-1	4.845538E-1	4.685584E-1	4.756248E-1	4.873185E-1	4.672113E-1	4.742162E-1	4.604337E-1	5.250198E-1	4.600607E-1	4.632453E-1	5.060379E-1	4.490654E-1	4.554309E-1	5.135693E-1	4.739413E-1	4.608869E-1	4.535945E-1	4.837531E-1	4.753771E-1	5.324180E-1	5.077400E-1	4.525846E-1	5.101504E-1	4.879549E-1	4.584051E-1	4.711086E-1	4.553514E-1	4.855326E-1	4.746341E-1	4.864186E-1	4.735604E-1	4.369056E-1	4.601954E-1	5.141867E-1	4.890384E-1	5.262696E-1	5.027197E-1	4.805989E-1	4.748569E-1	4.765280E-1	4.736795E-1	4.814167E-1	4.770521E-1	4.764167E-1	4.910671E-1	4.880125E-1	4.629154E-1	4.949624E-1	4.910802E-1	4.832945E-1	4.641598E-1	4.787674E-1	4.578512E-1	4.512490E-1	4.567481E-1	4.924198E-1	4.573831E-1	4.739249E-1	5.354250E-1	4.955583E-1	4.538865E-1	4.851531E-1	4.726371E-1	4.936116E-1	4.830355E-1	4.385282E-1	4.793662E-1	4.866823E-1	5.116657E-1	5.249135E-1	4.634656E-1	5.023663E-1	5.014917E-1	4.700596E-1	4.592655E-1	5.018500E-1	4.856951E-1	4.993650E-1	5.224563E-1	5.292747E-1	5.083486E-1
5.408060E+2	4.129610E-1	3.941229E-1	4.484786E-1	4.447193E-1	4.191441E-1	4.477419E-1	4.387256E-1	4.121219E-1	4.078817E-1	4.093769E-1	4.252308E-1	4.116353E-1	4.157063E-1	4.168978E-1	4.091784E-1	4.243638E-1	4.253477E-1	4.102350E-1	4.127746E-1	4.404379E-1	4.320867E-1	4.167921E-1	4.355850E-1	4.558743E-1	4.301534E-1	4.357205E-1	3.696399E-1	3.837234E-1	4.317749E-1	4.368554E-1	4.067939E-1	4.249706E-1	4.856336E-1	4.140496E-1	4.195312E-1	4.373134E-1	4.082397E-1	4.252465E-1	3.615529E-1	3.914785E-1	4.186957E-1	4.261299E-1	4.722142E-1	4.335264E-1	4.373203E-1	4.597087E-1	4.273014E-1	4.388664E-1	4.297140E-1	4.611237E-1	4.328476E-1	4.692008E-1	4.255351E-1	4.721292E-1	4.254046E-1	4.041082E-1	4.689440E-1	4.161253E-1	4.379149E-1	4.024511E-1	4.144362E-1	4.209018E-1	4.494275E-1	4.461769E-1	4.196384E-1	4.363250E-1	4.645650E-1	4.276151E-1	4.104809E-1	3.923022E-1	4.255557E-1	3.998239E-1	4.378587E-1	4.466606E-1	4.346489E-1	4.333046E-1	4.579884E-1	4.262172E-1	4.498711E-1	4.194115E-1	4.500194E-1	4.161222E-1	4.431452E-1	4.074306E-1	4.713402E-1	4.253901E-1	4.052265E-1	4.241289E-1	3.930199E-1	4.558854E-1	4.592760E-1	4.155912E-1	4.228742E-1	4.194152E-1	4.502889E-1	4.505545E-1	4.523298E-1	4.130246E-1	4.209549E-1	4.157554E-1	4.083681E-1	4.190572E-1	4.329217E-1	4.309787E-1	4.483401E-1	4.163218E-1	4.744946E-1	4.063844E-1	4.759320E-1	4.511092E-1	3.807675E-1	3.906298E-1	4.256967E-1	4.624328E-1	4.737549E-1	4.382413E-1	4.237093E-1	4.125790E-1	4.579599E-1	4.490820E-1	4.255101E-1	4.272048E-1	4.478572E-1	4.352620E-1	4.471613E-1	4.538073E-1	4.220936E-1	4.349775E-1	4.478258E-1	4.444727E-1	4.413337E-1	4.102105E-1	4.437846E-1	4.320855E-1	3.999259E-1	4.222988E-1	4.276609E-1	4.179092E-1	4.251050E-1	4.489537E-1	4.383319E-1	4.108990E-1	4.323800E-1	4.357776E-1	4.104267E-1	4.245055E-1	4.095041E-1	4.111910E-1	4.051104E-1	4.256085E-1	4.301333E-1	4.455635E-1	4.622941E-1	3.999514E-1	4.677696E-1	4.392252E-1	4.133314E-1	4.240758E-1	4.184813E-1	4.503681E-1	4.154364E-1	4.200599E-1	4.153628E-1	4.129429E-1	4.409298E-1	3.832632E-1
5.410240E+2	3.393669E-1	3.580445E-1	3.971902E-1	3.474437E-1	3.205720E-1	3.490486E-1	3.512608E-1	3.564714E-1	3.412440E-1	3.350425E-1	3.278133E-1	3.576880E-1	3.635258E-1	3.654853E-1	3.396535E-1	3.502118E-1	3.480849E-1	3.601006E-1	3.511744E-1	3.570698E-1	3.733943E-1	3.368195E-1	3.693507E-1	3.339828E-1	3.555066E-1	3.881938E-1	3.375317E-1	3.546046E-1	3.633881E-1	3.512747E-1	3.588286E-1	3.471560E-1	3.420807E-1	3.473298E-1	3.457783E-1	4.150815E-1	3.540336E-1	3.653662E-1	3.290712E-1	3.870181E-1	3.732237E-1	3.692894E-1	3.753475E-1	3.517962E-1	3.545973E-1	4.164222E-1	3.825623E-1	3.370997E-1	3.826366E-1	3.681413E-1	3.317657E-1	3.695028E-1	3.659955E-1	4.040414E-1	3.464504E-1	3.450814E-1	3.613935E-1	3.392335E-1	3.677961E-1	3.478022E-1	3.350424E-1	3.659991E-1	3.743589E-1	3.708021E-1	3.853434E-1	3.881769E-1	3.235062E-1	4.064113E-1	3.550448E-1	3.875471E-1	3.604253E-1	3.203086E-1	3.720240E-1	3.074652E-1	3.461607E-1	3.869419E-1	3.450910E-1	3.844302E-1	3.674963E-1	3.929146E-1	3.930432E-1	3.791682E-1	3.456860E-1	3.746136E-1	3.928393E-1	3.308733E-1	3.482046E-1	3.389001E-1	3.682608E-1	3.448229E-1	3.565389E-1	3.715044E-1	3.771084E-1	3.661870E-1	3.357786E-1	3.724321E-1	3.508057E-1	3.509253E-1	3.899931E-1	3.371730E-1	3.529130E-1	3.274283E-1	3.422068E-1	3.974190E-1	3.383206E-1	3.777212E-1	3.743235E-1	3.509957E-1	3.501396E-1	3.377106E-1	3.391479E-1	3.393989E-1	3.552587E-1	3.554644E-1	3.592280E-1	3.408580E-1	3.601558E-1	3.409378E-1	4.017191E-1	3.804354E-1	3.496063E-1	3.856316E-1	3.397486E-1	3.791057E-1	3.651306E-1	3.722929E-1	3.296547E-1	3.268297E-1	3.659135E-1	3.377461E-1	3.595819E-1	3.421103E-1	3.956591E-1	4.025580E-1	3.523495E-1	3.439081E-1	3.600740E-1	3.663526E-1	3.536859E-1	4.087577E-1	3.800726E-1	3.914911E-1	3.881729E-1	3.508919E-1	3.787796E-1	3.491575E-1	3.652781E-1	3.891878E-1	3.726773E-1	3.529301E-1	3.636402E-1	3.595671E-1	3.508474E-1	3.903605E-1	3.531441E-1	3.532628E-1	3.444890E-1	3.568863E-1	3.905845E-1	3.436417E-1	3.618585E-1	3.584426E-1	3.456002E-1	3.765801E-1	3.258115E-1	3.753716E-1
5.415040E+2	3.765498E-1	3.715276E-1	3.870971E-1	3.982487E-1	3.797010E-1	3.955579E-1	3.755490E-1	3.311637E-1	3.497723E-1	3.886077E-1	3.704998E-1	3.535695E-1	4.220366E-1	3.786272E-1	3.525707E-1	3.844537E-1	3.661408E-1	3.854536E-1	3.796902E-1	3.801888E-1	3.555526E-1	3.855246E-1	3.877187E-1	3.752464E-1	3.688070E-1	3.539115E-1	3.596592E-1	4.036998E-1	3.826861E-1	3.359188E-1	3.590773E-1	3.754647E-1	3.328902E-1	3.543861E-1	3.908725E-1	3.971504E-1	3.905843E-1	3.532269E-1	3.634075E-1	3.570079E-1	3.689015E-1	3.473650E-1	3.649016E-1	3.465215E-1	3.696036E-1	3.901339E-1	3.613032E-1	3.604698E-1	3.833313E-1	4.038879E-1	3.626971E-1	3.657802E-1	3.513210E-1	3.483839E-1	3.848709E-1	3.739804E-1	4.114333E-1	3.665107E-1	3.917485E-1	3.513177E-1	3.804507E-1	3.953020E-1	3.620548E-1	3.727455E-1	3.972552E-1	3.746319E-1	3.342876E-1	3.954073E-1	3.815380E-1	3.635773E-1	3.642044E-1	3.661302E-1	3.789591E-1	3.442297E-1	3.678802E-1	3.542156E-1	3.661225E-1	3.497695E-1	3.682123E-1	3.671077E-1	3.379331E-1	4.016026E-1	3.938887E-1	3.763175E-1	3.878685E-1	3.521982E-1	3.580571E-1	3.518308E-1	3.598882E-1	3.701442E-1	3.284621E-1	3.550717E-1	3.728507E-1	3.538054E-1	3.216311E-1	4.188269E-1	3.379924E-1	3.453522E-1	4.046515E-1	3.895436E-1	3.888506E-1	3.882316E-1	3.741479E-1	3.782983E-1	3.951147E-1	3.847017E-1	4.152782E-1	3.943308E-1	3.601937E-1	3.531341E-1	3.877970E-1	3.578189E-1	3.531928E-1	3.359105E-1	3.871410E-1	3.436563E-1	4.129927E-1	3.876636E-1	3.711763E-1	4.046144E-1	3.441709E-1	3.989357E-1	3.807580E-1	3.564764E-1	3.701467E-1	4.110521E-1	3.562192E-1	3.792940E-1	3.694658E-1	3.700285E-1	3.877908E-1	3.699496E-1	3.771327E-1	3.640111E-1	3.938049E-1	3.577261E-1	3.659070E-1	3.990584E-1	3.557568E-1	3.701123E-1	3.786815E-1	3.614192E-1	3.644194E-1	3.686608E-1	3.630334E-1	3.801032E-1	3.490381E-1	4.040505E-1	3.633095E-1	3.723836E-1	3.782464E-1	4.030365E-1	3.940799E-1	3.759717E-1	3.633459E-1	3.546033E-1	3.514341E-1	3.522613E-1	3.818585E-1	3.849390E-1	3.398446E-1	3.851851E-1	3.911358E-1	3.701964E-1	3.724148E-1	3.914589E-1
5.420110E+2	4.579429E-1	4.789503E-1	4.978994E-1	4.888064E-1	4.893238E-1	4.344333E-1	4.810026E-1	4.896817E-1	4.462333E-1	4.440529E-1	4.721377E-1	4.843950E-1	4.784057E-1	4.985821E-1	4.784025E-1	4.817874E-1	4.705455E-1	4.839602E-1	4.734900E-1	4.806260E-1	4.814972E-1	4.551301E-1	4.906895E-1	4.522243E-1	4.994403E-1	4.659098E-1	4.901960E-1	4.973173E-1	4.880328E-1	4.962946E-1	4.604436E-1	4.739382E-1	4.694625E-1	4.434713E-1	5.038022E-1	5.053993E-1	4.922240E-1	4.734826E-1	4.556881E-1	4.730007E-1	4.963535E-1	5.230136E-1	4.824353E-1	4.263348E-1	4.791282E-1	4.747458E-1	4.751297E-1	4.653383E-1	4.648564E-1	4.913845E-1	4.775385E-1	4.661491E-1	5.269514E-1	4.974851E-1	4.753694E-1	4.665838E-1	4.671242E-1	4.564042E-1	4.755807E-1	4.481996E-1	4.572151E-1	5.060093E-1	4.560294E-1	4.470990E-1	4.821729E-1	4.817787E-1	4.914764E-1	5.085022E-1	4.878506E-1	4.859341E-1	5.067520E-1	4.272468E-1	4.704121E-1	4.725768E-1	4.643699E-1	4.765201E-1	4.538824E-1	4.929640E-1	4.823099E-1	4.568681E-1	4.904340E-1	4.985257E-1	4.314291E-1	4.897829E-1	5.068346E-1	4.974245E-1	4.724810E-1	4.812453E-1	5.057247E-1	4.605472E-1	5.122109E-1	4.923101E-1	4.257887E-1	4.734070E-1	4.929888E-1	5.189181E-1	4.945225E-1	4.411196E-1	4.956631E-1	4.777747E-1	4.625907E-1	4.787925E-1	4.950452E-1	5.073242E-1	4.744574E-1	5.097704E-1	4.855338E-1	5.162921E-1	4.627493E-1	4.941061E-1	4.923638E-1	4.958528E-1	4.787957E-1	4.707188E-1	4.941799E-1	4.826341E-1	5.120930E-1	5.083631E-1	4.773682E-1	5.012356E-1	4.987611E-1	5.085645E-1	4.883965E-1	4.977427E-1	4.878749E-1	5.263159E-1	4.631935E-1	4.788963E-1	4.834926E-1	5.013139E-1	5.095087E-1	4.821399E-1	5.162097E-1	4.547042E-1	4.551159E-1	5.003275E-1	5.022066E-1	4.778416E-1	4.629407E-1	4.908155E-1	4.919899E-1	4.588453E-1	4.748432E-1	4.759400E-1	5.247163E-1	4.553689E-1	5.093023E-1	4.758157E-1	4.791701E-1	4.669001E-1	5.025392E-1	5.014583E-1	4.907651E-1	5.046373E-1	4.944653E-1	4.783667E-1	4.520197E-1	4.612991E-1	4.822499E-1	4.758243E-1	5.100796E-1	4.910602E-1	4.601122E-1	4.773987E-1	4.564809E-1	5.405339E-1
5.425080E+2	6.456424E-1	6.704283E-1	7.062986E-1	6.516101E-1	6.649857E-1	6.582900E-1	7.133368E-1	6.889193E-1	6.448898E-1	6.673766E-1	6.818362E-1	7.032663E-1	6.478204E-1	6.750785E-1	6.498187E-1	7.237423E-1	6.614638E-1	6.517841E-1	6.750290E-1	6.888109E-1	6.865686E-1	7.011210E-1	7.114896E-1	6.669508E-1	6.641860E-1	6.873634E-1	6.689126E-1	6.519217E-1	6.542772E-1	7.049169E-1	6.653760E-1	6.755385E-1	6.550186E-1	6.747364E-1	6.608092E-1	7.432029E-1	6.692522E-1	6.514366E-1	6.483615E-1	6.862548E-1	6.788483E-1	6.781794E-1	6.509504E-1	6.575364E-1	6.622950E-1	6.858935E-1	6.865828E-1	6.948113E-1	6.523472E-1	6.351601E-1	6.812023E-1	6.918446E-1	6.732735E-1	6.631271E-1	6.683906E-1	6.917578E-1	6.485420E-1	6.870352E-1	6.293900E-1	6.956037E-1	6.260135E-1	6.913352E-1	6.529899E-1	6.699345E-1	7.096566E-1	6.886817E-1	7.022415E-1	6.820164E-1	7.167623E-1	6.257020E-1	6.859059E-1	6.388258E-1	6.902262E-1	6.986692E-1	6.689872E-1	6.155209E-1	6.915912E-1	6.440601E-1	7.169298E-1	7.003594E-1	7.167572E-1	7.009181E-1	6.809197E-1	6.928833E-1	7.101812E-1	6.368906E-1	6.517086E-1	6.736627E-1	7.114371E-1	6.586486E-1	6.903348E-1	6.699131E-1	6.982082E-1	6.818224E-1	6.817184E-1	7.032040E-1	6.849050E-1	6.028816E-1	6.573842E-1	6.629390E-1	7.008198E-1	6.997593E-1	6.848043E-1	6.487105E-1	7.054745E-1	6.601744E-1	6.859783E-1	6.761856E-1	6.660852E-1	6.810961E-1	6.501600E-1	6.628833E-1	6.767839E-1	6.640527E-1	7.322721E-1	6.589263E-1	6.417457E-1	6.932240E-1	6.701778E-1	6.308313E-1	6.631708E-1	6.688743E-1	6.720209E-1	6.735643E-1	6.355354E-1	6.724382E-1	6.866073E-1	6.660943E-1	6.885228E-1	6.553582E-1	6.788315E-1	6.535479E-1	7.384338E-1	6.542605E-1	6.576747E-1	6.765289E-1	6.765482E-1	6.303541E-1	6.721917E-1	7.084276E-1	6.651806E-1	6.405650E-1	6.824000E-1	6.432898E-1	7.366879E-1	6.450037E-1	6.408763E-1	6.589342E-1	6.591094E-1	6.827680E-1	7.418722E-1	7.167815E-1	6.805619E-1	6.773022E-1	6.540170E-1	6.515029E-1	6.611954E-1	7.218493E-1	6.758648E-1	6.838761E-1	6.619537E-1	6.407063E-1	6.903447E-1	6.344870E-1	5.763015E-1	7.497489E-1
5.430120E+2	8.996044E-1	9.198395E-1	9.220386E-1	9.095529E-1	8.626191E-1	8.427612E-1	9.124726E-1	9.642161E-1	8.666591E-1	8.491564E-1	9.010258E-1	9.175588E-1	9.249819E-1	9.368532E-1	8.563968E-1	8.884344E-1	8.816994E-1	9.130722E-1	9.639038E-1	8.525539E-1	9.014728E-1	9.113535E-1	9.092886E-1	8.966081E-1	9.211818E-1	8.678462E-1	9.026429E-1	8.983179E-1	8.704000E-1	9.137601E-1	9.189425E-1	8.833372E-1	8.942224E-1	8.908606E-1	9.420900E-1	9.345138E-1	9.190862E-1	8.625940E-1	9.399113E-1	9.167043E-1	9.120479E-1	9.586247E-1	8.859704E-1	9.122777E-1	9.071698E-1	8.756447E-1	9.492072E-1	9.015374E-1	8.701255E-1	8.891152E-1	8.770818E-1	9.103118E-1	9.164173E-1	9.132736E-1	8.856666E-1	9.196289E-1	8.772325E-1	8.825529E-1	9.605212E-1	8.705346E-1	7.761807E-1	9.402067E-1	9.241764E-1	8.694351E-1	8.755181E-1	9.122980E-1	8.847583E-1	9.110328E-1	8.776903E-1	8.616638E-1	8.853177E-1	8.738346E-1	9.142801E-1	8.536527E-1	8.794520E-1	9.201824E-1	9.284660E-1	8.754496E-1	8.794752E-1	9.018873E-1	9.440094E-1	9.341364E-1	8.855648E-1	9.059763E-1	9.216112E-1	8.881937E-1	9.042666E-1	8.968412E-1	9.192389E-1	9.190262E-1	8.931500E-1	9.075853E-1	8.660329E-1	8.671805E-1	8.825372E-1	9.279629E-1	9.513437E-1	8.785061E-1	9.543537E-1	9.237203E-1	8.610049E-1	8.743774E-1	8.799234E-1	8.735527E-1	9.014661E-1	9.440863E-1	9.466704E-1	8.875051E-1	8.529725E-1	9.243148E-1	9.177639E-1	8.992976E-1	9.665803E-1	8.958003E-1	9.288207E-1	9.046905E-1	8.496373E-1	9.095768E-1	9.045152E-1	9.133168E-1	8.731987E-1	9.564407E-1	8.826456E-1	9.308674E-1	9.075125E-1	8.899573E-1	8.599410E-1	8.868598E-1	9.364923E-1	8.921581E-1	9.338044E-1	8.768517E-1	9.230543E-1	9.027639E-1	8.858321E-1	8.454105E-1	9.269059E-1	8.700909E-1	8.620207E-1	9.350295E-1	8.935617E-1	9.074990E-1	9.168153E-1	9.142603E-1	9.362744E-1	8.868605E-1	9.426669E-1	9.006594E-1	9.258515E-1	8.810002E-1	8.963672E-1	9.213498E-1	9.154050E-1	9.345878E-1	8.971296E-1	9.339825E-1	8.267367E-1	9.004186E-1	8.549859E-1	9.227541E-1	8.839766E-1	8.472317E-1	9.088490E-1	9.346768E-1	9.175701E-1	8.934471E-1
5.435330E+2	9.184984E-1	9.337878E-1	9.414005E-1	9.464870E-1	9.369135E-1	9.342305E-1	9.606804E-1	9.738240E-1	9.136878E-1	9.356051E-1	9.240151E-1	1.005194E+0	9.668871E-1	9.900003E-1	9.192519E-1	9.681797E-1	9.699108E-1	9.347507E-1	9.209371E-1	9.278824E-1	9.897720E-1	9.811219E-1	9.803775E-1	9.203062E-1	1.019098E+0	9.314404E-1	9.165654E-1	9.832150E-1	9.275446E-1	9.125708E-1	9.507859E-1	9.014186E-1	9.812053E-1	9.530872E-1	9.875862E-1	9.646221E-1	9.990132E-1	9.303280E-1	9.631410E-1	9.061224E-1	9.719504E-1	9.902992E-1	9.482641E-1	9.603119E-1	9.709188E-1	1.008283E+0	1.001574E+0	9.803302E-1	1.010837E+0	9.522250E-1	9.388326E-1	9.934421E-1	9.664668E-1	9.345111E-1	9.295460E-1	9.812663E-1	9.331875E-1	9.312218E-1	9.823170E-1	9.710808E-1	9.472935E-1	9.422347E-1	9.575905E-1	8.954724E-1	8.979624E-1	9.736811E-1	9.637529E-1	9.859598E-1	9.754431E-1	9.543749E-1	9.591964E-1	9.471882E-1	9.484580E-1	9.397098E-1	8.978611E-1	9.579019E-1	1.022795E+0	9.615265E-1	9.523796E-1	9.586139E-1	9.708767E-1	9.928103E-1	1.012612E+0	9.383689E-1	9.927095E-1	9.817218E-1	9.117713E-1	9.167069E-1	9.729332E-1	9.508024E-1	9.972558E-1	9.164483E-1	9.715438E-1	9.520930E-1	9.997104E-1	1.029528E+0	9.697881E-1	9.302566E-1	9.505494E-1	9.744629E-1	9.445303E-1	9.431735E-1	9.309742E-1	9.966565E-1	1.015150E+0	1.035685E+0	9.387216E-1	9.886765E-1	9.490204E-1	9.146073E-1	9.125603E-1	9.536758E-1	9.508089E-1	9.911839E-1	9.412475E-1	9.956948E-1	9.595214E-1	9.107110E-1	1.018585E+0	9.242376E-1	9.245678E-1	9.480299E-1	9.874811E-1	9.413789E-1	9.730738E-1	9.735038E-1	9.274892E-1	9.642702E-1	9.140513E-1	9.465993E-1	9.978300E-1	9.230463E-1	9.904216E-1	9.045125E-1	9.761344E-1	9.318338E-1	9.359484E-1	8.834805E-1	9.396758E-1	9.455285E-1	1.018079E+0	9.040986E-1	9.701112E-1	9.426566E-1	9.652043E-1	8.818505E-1	9.915558E-1	9.700703E-1	9.958750E-1	8.925711E-1	9.384945E-1	9.428478E-1	1.012229E+0	9.138846E-1	9.164428E-1	9.372444E-1	9.447738E-1	8.926889E-1	9.874186E-1	9.864377E-1	1.018866E+0	9.056062E-1	9.831141E-1	9.856527E-1	8.687223E-1	9.333859E-1
5.440170E+2	9.139344E-1	8.854952E-1	9.814023E-1	9.615391E-1	9.846448E-1	8.908263E-1	8.929614E-1	9.513262E-1	9.522368E-1	9.062732E-1	9.169590E-1	9.604536E-1	9.361804E-1	9.432601E-1	9.009206E-1	9.081134E-1	9.580698E-1	9.527049E-1	9.424891E-1	9.448197E-1	9.759680E-1	9.709265E-1	1.009299E+0	1.001721E+0	9.737130E-1	9.262410E-1	9.862188E-1	9.576788E-1	1.011420E+0	9.465143E-1	9.201757E-1	9.226193E-1	9.482770E-1	9.714473E-1	9.217564E-1	1.027958E+0	9.686070E-1	9.195944E-1	9.229723E-1	9.558149E-1	9.239211E-1	9.824130E-1	9.184967E-1	9.513463E-1	9.540577E-1	9.837778E-1	1.002137E+0	9.260732E-1	9.856448E-1	9.587286E-1	9.440559E-1	9.604954E-1	9.689415E-1	9.437577E-1	8.930613E-1	9.327320E-1	9.923438E-1	9.218759E-1	1.004974E+0	9.660170E-1	9.341652E-1	9.799058E-1	9.471812E-1	9.212840E-1	9.275693E-1	9.774162E-1	9.275521E-1	9.623653E-1	9.723708E-1	9.324859E-1	9.876379E-1	9.453508E-1	1.020097E+0	9.045661E-1	9.187542E-1	9.546155E-1	9.769603E-1	9.378613E-1	9.726401E-1	9.666870E-1	9.437934E-1	1.018930E+0	1.009837E+0	9.673292E-1	9.864480E-1	9.165004E-1	9.669179E-1	9.225405E-1	9.181563E-1	1.004464E+0	1.022644E+0	9.159416E-1	9.520603E-1	9.295793E-1	1.042068E+0	9.807774E-1	9.644218E-1	9.107859E-1	1.014551E+0	9.791396E-1	1.004945E+0	9.494141E-1	9.775883E-1	9.805039E-1	9.852861E-1	9.703715E-1	9.921851E-1	9.838373E-1	9.790271E-1	9.199147E-1	9.155552E-1	9.423942E-1	9.926482E-1	1.007560E+0	9.528668E-1	9.695768E-1	9.243434E-1	9.261637E-1	9.728690E-1	9.379311E-1	9.668217E-1	9.473179E-1	9.718381E-1	8.737864E-1	9.543749E-1	9.193969E-1	9.586946E-1	9.244305E-1	9.717116E-1	8.940703E-1	9.668362E-1	9.958084E-1	9.833863E-1	9.566193E-1	9.361454E-1	9.224934E-1	9.799195E-1	9.003773E-1	9.721320E-1	9.638244E-1	9.698018E-1	9.231611E-1	9.193020E-1	9.365691E-1	9.715954E-1	8.625316E-1	9.950055E-1	9.258584E-1	9.221226E-1	9.533315E-1	9.157640E-1	9.477193E-1	9.869759E-1	9.132802E-1	9.976962E-1	9.838818E-1	9.830949E-1	9.197099E-1	9.541875E-1	9.414516E-1	9.590398E-1	9.331113E-1	1.009400E+0	9.790639E-1	9.592413E-1	1.042445E+0
5.445020E+2	9.705651E-1	9.612518E-1	9.007485E-1	9.287260E-1	8.751116E-1	9.181861E-1	8.978460E-1	9.098174E-1	9.272657E-1	8.800463E-1	9.024536E-1	9.223511E-1	9.117790E-1	9.046763E-1	8.939513E-1	9.632887E-1	8.789057E-1	8.437182E-1	9.088813E-1	8.812816E-1	9.269130E-1	8.646815E-1	9.290320E-1	9.280081E-1	9.372592E-1	9.484146E-1	9.058531E-1	9.135017E-1	8.978695E-1	9.463293E-1	9.167656E-1	9.178853E-1	9.108175E-1	9.109946E-1	8.923270E-1	9.274455E-1	9.063927E-1	9.394733E-1	9.150356E-1	9.080260E-1	9.636093E-1	9.361262E-1	9.057887E-1	9.254003E-1	9.446868E-1	8.878433E-1	9.327260E-1	9.588669E-1	9.185315E-1	9.165342E-1	8.571281E-1	8.980642E-1	9.112700E-1	9.137714E-1	9.074582E-1	9.247024E-1	9.323480E-1	1.017804E+0	9.550447E-1	9.203079E-1	8.826867E-1	9.193663E-1	9.055256E-1	9.274316E-1	8.848017E-1	9.173349E-1	9.378938E-1	9.262432E-1	9.324276E-1	8.552139E-1	8.984684E-1	8.619204E-1	9.817157E-1	9.456473E-1	8.745512E-1	8.918200E-1	8.973151E-1	9.101968E-1	9.407020E-1	9.269189E-1	9.335285E-1	9.407775E-1	9.429699E-1	9.233540E-1	9.446055E-1	9.326289E-1	9.445551E-1	9.010498E-1	9.496312E-1	9.700733E-1	9.000784E-1	9.329670E-1	9.244906E-1	9.147987E-1	9.040200E-1	9.363424E-1	9.232775E-1	9.114114E-1	9.603427E-1	9.732149E-1	9.259539E-1	9.205344E-1	8.595700E-1	9.224316E-1	9.558562E-1	9.160992E-1	9.819351E-1	9.577337E-1	8.916572E-1	8.944347E-1	9.365739E-1	8.684237E-1	9.163203E-1	9.436820E-1	9.580732E-1	8.940690E-1	9.300820E-1	8.622432E-1	9.302795E-1	8.927204E-1	9.603324E-1	9.196786E-1	9.535524E-1	9.046099E-1	8.636046E-1	9.157596E-1	9.203607E-1	9.155241E-1	9.423232E-1	9.282129E-1	9.014023E-1	8.968607E-1	9.819507E-1	9.016768E-1	9.239333E-1	9.423320E-1	9.151782E-1	9.142023E-1	9.530140E-1	9.371719E-1	9.294672E-1	8.949932E-1	9.214595E-1	9.024836E-1	9.860257E-1	8.590640E-1	9.501494E-1	9.043803E-1	9.341441E-1	8.697572E-1	9.084329E-1	8.915968E-1	8.994951E-1	9.523716E-1	9.387625E-1	9.149433E-1	8.725940E-1	9.273868E-1	9.436727E-1	9.464536E-1	9.326092E-1	9.499092E-1	9.401198E-1	9.164717E-1	9.307691E-1	9.973781E-1
5.450090E+2	8.467653E-1	8.927233E-1	9.227329E-1	8.696705E-1	8.981515E-1	8.174159E-1	9.293455E-1	8.908181E-1	8.990694E-1	8.607516E-1	9.333121E-1	8.802034E-1	9.078915E-1	8.742262E-1	8.710270E-1	8.824625E-1	8.411145E-1	9.009324E-1	9.124972E-1	8.766055E-1	9.418605E-1	8.737420E-1	9.031951E-1	8.832176E-1	9.155723E-1	8.717140E-1	8.943900E-1	8.953060E-1	8.848910E-1	9.141386E-1	9.456726E-1	8.935434E-1	9.417157E-1	8.889462E-1	8.698158E-1	9.531168E-1	9.039586E-1	8.550599E-1	8.821994E-1	9.086886E-1	8.429033E-1	8.934234E-1	8.899229E-1	9.009680E-1	9.459209E-1	9.264554E-1	9.442360E-1	8.758653E-1	9.581704E-1	8.332836E-1	9.128035E-1	9.229138E-1	9.214339E-1	9.022826E-1	9.021296E-1	9.111091E-1	8.866431E-1	8.815670E-1	9.586412E-1	9.411396E-1	8.933405E-1	8.729849E-1	9.000818E-1	8.024569E-1	9.084952E-1	8.924222E-1	9.213217E-1	8.907816E-1	8.891838E-1	9.076497E-1	9.396077E-1	8.750876E-1	9.629457E-1	8.968208E-1	8.826868E-1	8.995080E-1	9.816650E-1	8.448365E-1	8.970644E-1	8.968693E-1	9.164221E-1	9.039581E-1	9.452095E-1	8.927718E-1	9.076675E-1	8.398429E-1	8.435385E-1	9.419290E-1	8.857317E-1	9.395764E-1	8.741139E-1	8.684245E-1	8.320986E-1	9.026061E-1	8.923697E-1	8.966848E-1	8.559025E-1	8.974473E-1	9.179818E-1	9.786645E-1	8.866239E-1	8.741998E-1	8.417923E-1	8.685190E-1	8.952750E-1	9.177259E-1	8.535052E-1	9.282833E-1	9.042649E-1	8.795848E-1	9.113688E-1	8.925139E-1	8.729646E-1	9.240678E-1	9.684313E-1	8.753901E-1	8.541081E-1	8.633416E-1	8.727175E-1	8.960466E-1	9.111180E-1	9.006356E-1	9.164480E-1	9.434849E-1	9.229754E-1	9.152475E-1	8.593813E-1	8.791890E-1	9.280882E-1	8.904840E-1	8.983260E-1	9.001578E-1	9.132798E-1	9.100291E-1	8.490244E-1	8.439048E-1	9.084340E-1	8.409742E-1	9.676566E-1	9.399956E-1	9.213631E-1	8.713559E-1	9.120671E-1	8.827339E-1	9.516014E-1	8.287441E-1	8.546977E-1	8.888148E-1	9.413954E-1	8.807887E-1	8.811992E-1	8.862374E-1	8.785390E-1	8.310974E-1	9.160978E-1	9.020810E-1	8.916272E-1	8.685879E-1	8.984974E-1	8.154212E-1	8.644989E-1	8.692719E-1	8.274731E-1	8.520629E-1	8.243320E-1	8.938439E-1
5.455130E+2	8.845994E-1	9.910216E-1	9.067010E-1	8.724390E-1	8.747177E-1	8.796285E-1	9.096286E-1	8.969894E-1	9.163679E-1	8.757667E-1	8.770664E-1	8.916543E-1	9.418985E-1	9.410100E-1	8.698257E-1	9.130214E-1	8.391174E-1	8.987393E-1	8.912311E-1	8.919398E-1	9.612082E-1	9.201583E-1	9.302538E-1	8.675024E-1	9.576361E-1	8.773417E-1	8.615467E-1	8.957444E-1	8.449161E-1	9.331855E-1	9.143943E-1	8.781596E-1	9.240903E-1	8.876013E-1	8.649401E-1	9.588551E-1	9.080018E-1	8.700164E-1	8.441082E-1	8.417858E-1	8.931084E-1	9.036906E-1	8.756632E-1	9.366940E-1	8.453083E-1	8.947193E-1	9.218240E-1	8.905003E-1	8.768585E-1	8.721299E-1	8.573893E-1	9.572840E-1	8.861246E-1	9.374179E-1	9.250038E-1	9.143840E-1	9.076341E-1	8.604077E-1	9.242981E-1	8.649809E-1	8.935410E-1	9.153201E-1	9.277334E-1	8.973070E-1	9.247902E-1	9.549773E-1	8.599452E-1	9.325847E-1	9.580635E-1	8.706312E-1	9.298472E-1	8.624829E-1	9.023492E-1	9.004342E-1	9.019684E-1	8.968324E-1	8.871041E-1	8.719686E-1	9.116677E-1	9.528475E-1	9.521059E-1	8.867349E-1	9.273470E-1	8.848397E-1	8.819536E-1	8.873207E-1	8.677750E-1	8.820050E-1	8.595421E-1	9.155053E-1	9.178276E-1	8.999000E-1	9.224615E-1	8.842543E-1	9.194962E-1	9.093527E-1	8.766650E-1	8.725622E-1	9.041834E-1	9.353783E-1	9.038698E-1	9.148802E-1	8.999009E-1	9.563343E-1	8.974214E-1	9.525252E-1	9.626082E-1	9.159109E-1	8.796614E-1	8.631239E-1	8.934894E-1	8.775990E-1	8.465154E-1	9.325004E-1	9.087131E-1	8.945045E-1	9.153337E-1	8.526254E-1	8.503754E-1	9.401534E-1	8.639794E-1	9.475667E-1	9.100860E-1	8.293815E-1	9.350404E-1	8.733387E-1	8.675944E-1	8.808780E-1	9.061260E-1	8.571008E-1	8.957785E-1	9.207662E-1	8.961829E-1	8.733077E-1	8.861866E-1	8.563590E-1	8.135240E-1	8.557989E-1	8.650891E-1	8.627835E-1	8.802979E-1	8.412496E-1	9.203723E-1	8.926239E-1	9.192185E-1	8.573971E-1	8.782150E-1	8.898691E-1	9.191109E-1	8.529668E-1	8.625399E-1	8.803733E-1	9.161547E-1	8.835587E-1	9.263877E-1	9.239597E-1	9.149879E-1	8.357032E-1	9.033237E-1	8.373401E-1	8.811662E-1	8.727920E-1	9.555252E-1	8.889307E-1	8.752696E-1	9.500544E-1
5.460060E+2	9.561916E-1	9.539252E-1	9.549429E-1	9.379222E-1	9.319999E-1	8.786325E-1	9.110686E-1	9.563308E-1	9.096159E-1	9.073195E-1	9.417374E-1	9.472530E-1	9.405644E-1	9.436316E-1	8.931813E-1	9.532732E-1	9.034532E-1	9.409982E-1	9.259343E-1	9.035820E-1	9.255280E-1	9.626738E-1	9.693836E-1	9.127605E-1	9.593354E-1	8.907192E-1	8.942923E-1	9.406052E-1	9.295480E-1	9.213845E-1	8.951368E-1	9.123072E-1	8.734437E-1	8.995057E-1	9.644004E-1	1.007639E+0	9.160819E-1	9.496744E-1	9.082105E-1	8.744766E-1	9.215868E-1	9.369351E-1	9.322656E-1	9.275506E-1	9.494682E-1	9.553126E-1	9.485116E-1	9.595986E-1	9.191713E-1	9.214859E-1	9.658362E-1	8.994252E-1	9.104677E-1	9.609787E-1	9.166293E-1	9.541178E-1	9.103657E-1	9.384502E-1	9.630800E-1	9.911400E-1	8.582136E-1	9.563298E-1	9.379929E-1	9.839823E-1	9.756207E-1	9.979432E-1	9.178756E-1	9.008766E-1	9.483011E-1	9.523561E-1	9.486989E-1	9.421321E-1	1.003240E+0	9.542602E-1	9.418928E-1	9.459539E-1	9.802387E-1	9.481090E-1	9.199880E-1	9.881305E-1	9.400281E-1	9.110844E-1	1.007574E+0	9.823259E-1	8.981487E-1	8.943783E-1	9.581607E-1	9.366322E-1	9.287200E-1	9.634911E-1	9.627512E-1	9.789132E-1	9.059914E-1	9.208123E-1	9.454378E-1	9.505039E-1	9.150325E-1	8.913505E-1	9.997391E-1	9.664814E-1	9.352047E-1	9.227482E-1	9.019946E-1	9.121719E-1	9.433663E-1	9.967678E-1	9.425177E-1	9.882141E-1	8.939157E-1	9.386807E-1	9.197675E-1	9.162970E-1	9.357261E-1	9.180849E-1	1.018339E+0	9.303020E-1	9.033320E-1	8.955461E-1	9.523203E-1	9.964018E-1	8.958909E-1	9.422641E-1	9.741615E-1	9.406557E-1	9.247191E-1	9.436330E-1	8.877051E-1	9.242030E-1	9.396640E-1	9.865278E-1	9.369073E-1	9.262090E-1	9.755207E-1	9.291479E-1	8.900497E-1	9.287522E-1	9.871706E-1	8.875265E-1	8.854038E-1	9.600386E-1	9.515296E-1	9.107394E-1	9.873625E-1	9.833322E-1	1.026926E+0	9.123845E-1	9.569901E-1	9.217382E-1	9.530693E-1	8.980241E-1	9.547549E-1	9.336054E-1	9.450281E-1	9.241238E-1	9.462261E-1	9.462757E-1	9.718749E-1	9.310847E-1	9.641335E-1	8.653497E-1	9.128221E-1	8.785721E-1	9.775978E-1	9.230298E-1	9.203311E-1	1.040836E+0
5.465380E+2	8.788881E-1	9.385471E-1	9.217759E-1	8.910094E-1	8.700589E-1	8.438261E-1	8.920251E-1	8.711170E-1	8.711321E-1	8.692254E-1	8.793587E-1	8.880053E-1	8.830493E-1	8.862630E-1	8.425266E-1	8.621814E-1	8.478327E-1	8.964032E-1	9.112039E-1	9.174977E-1	9.060438E-1	8.730454E-1	9.223452E-1	8.423296E-1	9.517652E-1	8.816562E-1	8.798563E-1	9.560113E-1	8.562474E-1	8.841418E-1	8.852855E-1	8.434095E-1	8.962003E-1	8.508408E-1	9.159388E-1	8.786774E-1	9.199552E-1	8.961030E-1	8.852004E-1	8.563514E-1	8.548616E-1	9.430268E-1	9.114542E-1	8.443222E-1	8.584499E-1	8.675319E-1	8.863183E-1	9.071282E-1	8.978422E-1	9.446750E-1	9.142987E-1	8.811867E-1	8.887030E-1	9.351592E-1	9.083181E-1	8.778583E-1	9.234132E-1	8.767526E-1	9.317749E-1	8.906856E-1	8.956697E-1	8.947287E-1	9.197172E-1	8.691162E-1	9.180300E-1	8.716944E-1	9.141431E-1	9.562614E-1	9.212353E-1	9.504721E-1	8.958317E-1	8.966959E-1	9.819553E-1	8.467695E-1	8.912760E-1	8.746906E-1	8.917278E-1	8.589462E-1	8.854866E-1	9.292898E-1	9.566603E-1	8.808719E-1	9.240050E-1	9.486250E-1	9.378965E-1	8.971072E-1	8.865435E-1	8.700520E-1	9.503518E-1	9.015922E-1	8.915066E-1	8.281589E-1	9.063104E-1	8.731670E-1	8.664005E-1	8.858467E-1	8.766045E-1	8.421578E-1	9.057880E-1	9.088136E-1	8.808010E-1	8.690966E-1	9.303249E-1	9.100839E-1	9.420438E-1	8.939200E-1	9.193268E-1	9.337677E-1	9.644462E-1	8.848245E-1	8.870451E-1	8.781368E-1	9.039771E-1	9.160662E-1	8.709412E-1	8.729242E-1	8.449706E-1	8.538096E-1	8.587066E-1	8.851251E-1	8.899758E-1	8.248412E-1	9.260993E-1	9.249190E-1	8.629715E-1	9.137499E-1	8.577455E-1	9.192877E-1	9.354945E-1	8.781166E-1	9.039306E-1	9.067781E-1	9.187540E-1	8.646997E-1	9.011143E-1	8.598850E-1	8.883111E-1	8.662865E-1	8.816056E-1	9.348380E-1	8.663477E-1	8.804708E-1	8.929124E-1	9.223517E-1	9.015273E-1	8.653145E-1	8.742951E-1	8.994024E-1	9.022057E-1	8.728496E-1	9.285723E-1	8.971849E-1	8.732631E-1	9.071873E-1	8.877453E-1	9.387860E-1	9.189623E-1	8.973665E-1	8.999564E-1	8.761571E-1	9.055161E-1	8.511786E-1	8.921158E-1	8.836838E-1	8.598611E-1	9.467738E-1
5.470110E+2	8.915368E-1	8.785523E-1	9.116896E-1	8.720277E-1	9.044571E-1	8.302197E-1	8.959108E-1	8.502589E-1	8.665889E-1	8.970981E-1	8.779504E-1	8.752379E-1	8.951279E-1	9.083737E-1	8.068361E-1	8.205624E-1	8.630164E-1	9.296688E-1	8.841575E-1	9.173782E-1	9.063845E-1	8.835828E-1	8.685327E-1	8.991893E-1	9.579151E-1	8.763971E-1	8.850372E-1	8.567816E-1	8.450728E-1	8.900182E-1	8.219840E-1	8.867686E-1	8.563514E-1	8.963226E-1	8.145602E-1	9.467785E-1	8.812326E-1	8.673722E-1	8.628311E-1	8.556596E-1	8.966454E-1	8.865491E-1	8.931996E-1	8.678615E-1	8.679571E-1	8.865849E-1	9.252858E-1	9.159528E-1	8.742825E-1	8.571548E-1	8.567584E-1	8.872604E-1	9.140359E-1	8.675740E-1	8.876316E-1	8.671102E-1	9.182853E-1	8.672259E-1	9.016595E-1	9.006379E-1	8.822721E-1	9.158858E-1	8.920804E-1	9.049086E-1	8.983871E-1	8.702500E-1	8.948370E-1	8.935818E-1	9.106486E-1	8.508821E-1	8.779989E-1	8.182824E-1	8.904159E-1	8.353964E-1	8.915335E-1	8.913489E-1	9.145041E-1	8.117605E-1	8.994330E-1	9.100774E-1	9.293600E-1	8.880272E-1	8.765526E-1	9.188941E-1	9.058929E-1	9.180277E-1	9.002621E-1	8.991463E-1	8.229551E-1	9.402251E-1	9.063595E-1	9.050410E-1	9.176474E-1	8.594345E-1	8.547852E-1	8.777743E-1	8.389558E-1	8.537163E-1	9.364225E-1	9.209588E-1	8.864377E-1	8.595002E-1	8.336341E-1	8.795950E-1	8.735953E-1	8.341661E-1	8.685465E-1	8.811632E-1	8.717502E-1	8.659327E-1	9.105849E-1	8.627125E-1	8.706266E-1	9.477008E-1	8.683418E-1	9.017884E-1	8.812063E-1	8.146579E-1	8.665092E-1	8.908810E-1	8.502014E-1	8.767350E-1	8.905581E-1	8.932584E-1	8.507538E-1	9.216423E-1	8.240685E-1	8.728275E-1	8.733826E-1	8.948484E-1	8.933831E-1	9.392839E-1	8.941908E-1	8.972360E-1	8.663858E-1	8.361151E-1	9.018383E-1	8.476030E-1	8.568402E-1	9.410550E-1	8.999315E-1	8.420618E-1	8.641188E-1	9.065101E-1	8.944206E-1	7.807528E-1	8.922492E-1	8.740347E-1	8.681088E-1	8.627906E-1	8.433990E-1	8.776836E-1	8.482033E-1	8.852716E-1	9.088046E-1	8.684386E-1	9.083025E-1	8.859615E-1	8.884513E-1	8.550580E-1	8.824114E-1	8.234718E-1	8.625485E-1	8.363472E-1	8.818736E-1	1.018797E+0
5.475070E+2	9.020831E-1	9.266092E-1	1.020148E+0	9.115668E-1	8.795122E-1	9.455799E-1	9.476172E-1	9.682804E-1	9.161836E-1	9.567741E-1	9.203745E-1	9.627382E-1	9.410344E-1	9.568486E-1	9.222167E-1	9.405448E-1	9.409674E-1	9.586560E-1	9.737596E-1	9.635199E-1	9.070269E-1	9.354302E-1	9.128000E-1	9.503536E-1	9.331922E-1	8.929012E-1	9.355753E-1	9.246280E-1	9.260598E-1	9.455267E-1	8.890164E-1	9.138192E-1	9.504358E-1	9.305537E-1	9.280296E-1	9.448066E-1	9.716024E-1	9.277674E-1	9.672398E-1	9.421426E-1	9.638004E-1	9.351398E-1	9.412179E-1	8.927094E-1	9.354028E-1	9.327296E-1	9.928739E-1	9.677496E-1	9.462917E-1	9.564735E-1	9.129616E-1	9.787002E-1	9.254443E-1	9.284223E-1	9.307480E-1	9.902271E-1	9.719846E-1	9.522539E-1	9.800026E-1	9.723340E-1	9.160548E-1	9.479442E-1	9.360656E-1	9.102805E-1	9.708004E-1	9.395089E-1	9.685443E-1	9.043356E-1	9.375528E-1	9.409730E-1	9.602638E-1	9.204370E-1	9.417308E-1	9.073937E-1	9.335339E-1	9.438837E-1	9.780696E-1	9.201316E-1	9.582670E-1	9.466881E-1	1.012344E+0	9.571360E-1	9.388816E-1	9.257472E-1	9.274925E-1	9.284332E-1	9.280984E-1	8.715408E-1	9.344132E-1	9.474867E-1	8.951089E-1	9.253921E-1	9.905743E-1	9.113506E-1	9.354809E-1	9.868122E-1	9.272699E-1	9.082029E-1	9.133920E-1	8.911279E-1	9.066197E-1	9.599130E-1	9.276799E-1	8.896009E-1	9.639023E-1	9.473382E-1	9.334721E-1	9.397791E-1	9.542365E-1	9.669569E-1	9.098430E-1	9.547859E-1	9.273264E-1	1.003690E+0	9.468938E-1	9.230667E-1	9.315857E-1	9.027273E-1	9.620473E-1	9.407654E-1	9.461182E-1	9.645273E-1	9.751284E-1	9.224207E-1	9.576784E-1	9.212805E-1	8.702765E-1	9.698436E-1	9.300422E-1	9.391753E-1	9.265216E-1	9.827086E-1	9.793701E-1	8.788159E-1	9.272167E-1	9.027242E-1	9.139697E-1	9.024176E-1	8.603232E-1	9.599535E-1	9.438825E-1	8.777778E-1	9.105929E-1	9.515306E-1	1.030735E+0	9.014880E-1	9.211724E-1	9.988292E-1	9.320473E-1	9.813372E-1	9.771490E-1	9.334284E-1	9.373951E-1	9.387053E-1	9.304783E-1	9.304336E-1	9.670616E-1	9.083083E-1	9.278742E-1	9.338726E-1	9.549401E-1	9.540166E-1	9.768763E-1	9.468808E-1	1.057352E+0	7.810590E-1
5.480090E+2	9.894994E-1	9.774595E-1	9.815324E-1	9.926552E-1	9.562303E-1	9.783849E-1	1.006719E+0	1.003970E+0	9.902825E-1	9.717935E-1	9.590302E-1	1.010252E+0	9.745616E-1	1.003655E+0	9.906027E-1	1.006277E+0	9.731617E-1	9.878334E-1	1.004874E+0	1.032573E+0	1.001174E+0	1.028662E+0	9.565996E-1	9.985138E-1	1.056136E+0	9.733373E-1	1.030421E+0	1.007019E+0	9.691958E-1	9.875264E-1	9.875572E-1	9.711701E-1	1.006087E+0	9.361827E-1	1.005123E+0	9.910285E-1	9.315737E-1	9.773009E-1	9.742765E-1	9.596008E-1	9.901897E-1	1.018734E+0	9.766843E-1	9.504325E-1	1.032799E+0	9.640678E-1	9.427520E-1	1.016936E+0	1.028489E+0	1.032364E+0	9.649210E-1	1.007228E+0	1.012111E+0	1.002569E+0	9.844307E-1	1.019460E+0	9.648112E-1	9.782695E-1	1.091681E+0	1.013667E+0	1.006045E+0	9.927528E-1	9.490027E-1	9.822653E-1	9.678158E-1	9.742674E-1	1.024642E+0	1.089822E+0	1.040234E+0	9.288523E-1	1.024227E+0	9.333918E-1	1.096700E+0	9.445084E-1	9.744342E-1	9.754021E-1	1.011770E+0	9.689124E-1	1.000503E+0	9.845446E-1	1.005539E+0	9.975398E-1	9.838721E-1	9.890227E-1	9.694324E-1	1.019458E+0	9.949264E-1	9.746381E-1	9.601626E-1	9.629159E-1	1.013760E+0	1.006471E+0	1.034175E+0	9.203480E-1	1.031997E+0	9.640902E-1	1.004563E+0	9.931108E-1	9.896452E-1	1.048815E+0	1.048340E+0	9.602056E-1	9.276160E-1	1.041118E+0	1.028011E+0	1.016439E+0	1.039186E+0	9.672263E-1	9.873090E-1	9.753393E-1	9.551142E-1	9.645707E-1	1.000008E+0	1.047789E+0	1.007285E+0	9.755766E-1	1.020421E+0	9.515372E-1	1.047011E+0	9.576621E-1	9.792478E-1	9.608390E-1	1.024393E+0	9.390631E-1	9.782040E-1	9.794975E-1	9.460255E-1	9.812793E-1	1.059458E+0	9.853307E-1	9.765154E-1	9.842774E-1	1.039187E+0	9.516500E-1	9.608869E-1	1.035475E+0	1.035069E+0	9.681365E-1	9.843852E-1	1.035203E+0	1.031042E+0	9.892313E-1	9.984964E-1	1.045176E+0	1.048841E+0	9.645307E-1	9.573851E-1	1.027555E+0	1.005935E+0	9.781077E-1	9.957995E-1	9.925109E-1	1.002386E+0	9.779918E-1	9.898766E-1	1.044818E+0	1.016846E+0	9.776960E-1	1.000854E+0	1.020440E+0	1.010139E+0	9.365002E-1	1.030872E+0	1.008588E+0	9.367674E-1	1.010598E+0
5.485450E+2	1.196510E+0	1.157098E+0	1.200929E+0	1.217195E+0	1.144803E+0	1.170448E+0	1.161470E+0	1.143953E+0	1.277071E+0	1.203648E+0	1.177916E+0	1.236182E+0	1.270898E+0	1.227731E+0	1.183393E+0	1.172788E+0	1.207960E+0	1.228166E+0	1.183602E+0	1.190461E+0	1.196896E+0	1.201259E+0	1.177484E+0	1.219899E+0	1.247957E+0	1.180819E+0	1.172557E+0	1.208063E+0	1.212274E+0	1.198260E+0	1.217252E+0	1.210682E+0	1.215600E+0	1.155960E+0	1.101806E+0	1.234762E+0	1.135644E+0	1.163818E+0	1.174221E+0	1.154699E+0	1.240396E+0	1.197786E+0	1.183425E+0	1.176779E+0	1.205187E+0	1.138981E+0	1.208548E+0	1.205132E+0	1.214399E+0	1.178305E+0	1.162952E+0	1.246749E+0	1.224693E+0	1.217487E+0	1.149363E+0	1.197565E+0	1.213661E+0	1.191560E+0	1.186496E+0	1.154388E+0	1.130835E+0	1.140998E+0	1.167084E+0	1.257001E+0	1.290432E+0	1.216718E+0	1.200296E+0	1.182513E+0	1.197367E+0	1.238467E+0	1.209458E+0	1.162060E+0	1.195131E+0	1.224773E+0	1.155040E+0	1.256147E+0	1.246516E+0	1.138396E+0	1.207965E+0	1.184832E+0	1.258322E+0	1.229729E+0	1.196249E+0	1.241934E+0	1.256986E+0	1.159479E+0	1.175002E+0	1.199271E+0	1.204553E+0	1.196682E+0	1.198966E+0	1.237085E+0	1.232086E+0	1.222418E+0	1.199126E+0	1.206848E+0	1.199891E+0	1.149167E+0	1.190820E+0	1.201163E+0	1.176875E+0	1.181014E+0	1.159532E+0	1.200239E+0	1.187495E+0	1.211658E+0	1.239596E+0	1.166805E+0	1.184761E+0	1.181638E+0	1.232009E+0	1.201532E+0	1.168234E+0	1.232425E+0	1.161668E+0	1.126034E+0	1.227174E+0	1.207729E+0	1.158286E+0	1.162094E+0	1.196439E+0	1.192866E+0	1.137805E+0	1.202969E+0	1.221961E+0	1.211439E+0	1.090175E+0	1.230795E+0	1.194203E+0	1.189722E+0	1.153818E+0	1.151575E+0	1.212398E+0	1.183592E+0	1.095827E+0	1.168302E+0	1.180696E+0	1.176690E+0	1.135689E+0	1.221222E+0	1.206107E+0	1.128997E+0	1.132895E+0	1.215485E+0	1.210910E+0	1.068733E+0	1.150693E+0	1.154740E+0	1.237716E+0	1.207998E+0	1.201660E+0	1.221817E+0	1.189718E+0	1.163811E+0	1.223032E+0	1.208238E+0	1.161205E+0	1.240145E+0	1.176941E+0	1.176111E+0	1.165998E+0	1.166254E+0	1.214100E+0	1.170695E+0	1.073321E+0	1.255621E+0
5.490490E+2	1.540898E+0	1.497308E+0	1.563731E+0	1.522219E+0	1.496357E+0	1.473834E+0	1.455081E+0	1.477936E+0	1.474280E+0	1.454063E+0	1.441149E+0	1.495340E+0	1.468023E+0	1.509620E+0	1.477170E+0	1.486263E+0	1.461149E+0	1.445946E+0	1.498144E+0	1.461429E+0	1.525318E+0	1.517030E+0	1.488197E+0	1.434396E+0	1.552767E+0	1.482802E+0	1.406719E+0	1.410972E+0	1.458595E+0	1.465083E+0	1.461516E+0	1.463479E+0	1.484643E+0	1.466456E+0	1.420777E+0	1.528068E+0	1.486971E+0	1.411578E+0	1.458221E+0	1.414540E+0	1.542981E+0	1.485798E+0	1.451682E+0	1.512436E+0	1.449350E+0	1.448470E+0	1.524430E+0	1.499549E+0	1.547272E+0	1.475207E+0	1.440005E+0	1.534691E+0	1.537853E+0	1.476405E+0	1.497259E+0	1.461551E+0	1.512750E+0	1.469415E+0	1.524753E+0	1.455649E+0	1.428486E+0	1.496558E+0	1.415284E+0	1.481335E+0	1.533624E+0	1.478323E+0	1.443622E+0	1.434420E+0	1.471152E+0	1.468992E+0	1.466481E+0	1.488922E+0	1.477144E+0	1.437478E+0	1.436901E+0	1.421319E+0	1.511307E+0	1.453615E+0	1.441258E+0	1.466951E+0	1.543804E+0	1.470319E+0	1.465985E+0	1.586072E+0	1.442650E+0	1.472625E+0	1.522609E+0	1.495117E+0	1.459577E+0	1.482095E+0	1.470864E+0	1.494076E+0	1.461677E+0	1.384534E+0	1.503380E+0	1.490334E+0	1.555461E+0	1.419295E+0	1.496162E+0	1.494216E+0	1.482378E+0	1.468734E+0	1.409422E+0	1.512131E+0	1.499987E+0	1.547415E+0	1.510297E+0	1.503636E+0	1.416716E+0	1.448803E+0	1.453843E+0	1.474587E+0	1.525259E+0	1.502390E+0	1.505943E+0	1.459389E+0	1.435704E+0	1.386625E+0	1.469959E+0	1.467325E+0	1.542749E+0	1.466325E+0	1.461670E+0	1.483347E+0	1.484392E+0	1.494856E+0	1.480822E+0	1.421037E+0	1.442926E+0	1.452687E+0	1.481870E+0	1.475400E+0	1.556416E+0	1.428973E+0	1.444354E+0	1.403965E+0	1.446482E+0	1.509472E+0	1.396579E+0	1.465306E+0	1.489988E+0	1.447591E+0	1.382795E+0	1.485094E+0	1.556557E+0	1.316429E+0	1.472487E+0	1.461783E+0	1.510537E+0	1.465804E+0	1.436933E+0	1.464971E+0	1.507190E+0	1.451832E+0	1.508999E+0	1.492111E+0	1.394042E+0	1.488157E+0	1.431337E+0	1.456679E+0	1.436846E+0	1.408183E+0	1.451778E+0	1.468353E+0	1.508851E+0	1.413189E+0
5.495150E+2	1.710227E+0	1.739355E+0	1.761122E+0	1.678854E+0	1.670599E+0	1.576110E+0	1.676315E+0	1.727808E+0	1.661806E+0	1.689605E+0	1.716460E+0	1.656665E+0	1.655550E+0	1.689279E+0	1.675865E+0	1.718182E+0	1.735828E+0	1.675620E+0	1.727827E+0	1.673935E+0	1.755585E+0	1.639324E+0	1.705920E+0	1.629966E+0	1.748733E+0	1.571624E+0	1.654885E+0	1.748590E+0	1.678157E+0	1.727152E+0	1.646786E+0	1.706375E+0	1.740358E+0	1.672109E+0	1.688580E+0	1.731039E+0	1.729595E+0	1.724661E+0	1.667324E+0	1.583261E+0	1.738355E+0	1.757883E+0	1.686143E+0	1.600996E+0	1.702314E+0	1.736060E+0	1.709883E+0	1.719207E+0	1.739550E+0	1.676088E+0	1.689143E+0	1.728444E+0	1.736874E+0	1.700441E+0	1.671726E+0	1.731698E+0	1.756221E+0	1.581177E+0	1.758034E+0	1.739578E+0	1.628992E+0	1.726365E+0	1.635589E+0	1.640960E+0	1.724730E+0	1.649588E+0	1.701969E+0	1.731961E+0	1.761421E+0	1.689683E+0	1.714336E+0	1.594419E+0	1.721471E+0	1.606440E+0	1.678282E+0	1.648921E+0	1.734424E+0	1.668419E+0	1.642934E+0	1.646513E+0	1.770412E+0	1.700105E+0	1.681786E+0	1.733370E+0	1.661542E+0	1.711732E+0	1.689502E+0	1.635676E+0	1.701377E+0	1.620770E+0	1.645940E+0	1.588781E+0	1.684659E+0	1.637044E+0	1.640711E+0	1.632944E+0	1.648333E+0	1.665339E+0	1.779391E+0	1.678657E+0	1.701274E+0	1.638323E+0	1.653276E+0	1.726302E+0	1.722519E+0	1.722955E+0	1.700923E+0	1.646488E+0	1.666605E+0	1.710213E+0	1.695719E+0	1.695102E+0	1.705466E+0	1.760045E+0	1.661426E+0	1.679762E+0	1.671999E+0	1.611092E+0	1.665371E+0	1.711177E+0	1.662185E+0	1.720570E+0	1.664059E+0	1.657214E+0	1.692433E+0	1.665135E+0	1.635128E+0	1.712513E+0	1.677544E+0	1.699730E+0	1.697364E+0	1.608593E+0	1.747557E+0	1.652385E+0	1.628862E+0	1.668668E+0	1.612898E+0	1.674593E+0	1.591866E+0	1.770590E+0	1.677339E+0	1.602956E+0	1.670276E+0	1.693600E+0	1.725742E+0	1.654291E+0	1.703692E+0	1.739180E+0	1.614092E+0	1.651279E+0	1.714139E+0	1.667718E+0	1.642192E+0	1.637526E+0	1.701541E+0	1.629123E+0	1.616720E+0	1.681090E+0	1.554165E+0	1.711324E+0	1.630878E+0	1.602993E+0	1.666313E+0	1.562168E+0	1.526370E+0	1.591601E+0
5.500160E+2	1.503363E+0	1.521768E+0	1.562203E+0	1.487869E+0	1.430558E+0	1.486052E+0	1.520371E+0	1.463598E+0	1.479843E+0	1.521863E+0	1.451913E+0	1.533597E+0	1.536994E+0	1.544670E+0	1.413370E+0	1.517568E+0	1.505263E+0	1.472977E+0	1.527675E+0	1.501526E+0	1.449431E+0	1.519392E+0	1.568046E+0	1.427129E+0	1.539879E+0	1.452368E+0	1.402729E+0	1.466634E+0	1.494303E+0	1.537465E+0	1.466809E+0	1.439040E+0	1.531328E+0	1.460699E+0	1.528006E+0	1.495056E+0	1.505398E+0	1.506017E+0	1.446003E+0	1.465758E+0	1.584735E+0	1.527725E+0	1.462617E+0	1.504382E+0	1.453333E+0	1.446210E+0	1.547086E+0	1.489739E+0	1.510530E+0	1.499268E+0	1.462841E+0	1.495364E+0	1.513393E+0	1.524384E+0	1.496149E+0	1.518929E+0	1.551767E+0	1.493439E+0	1.532768E+0	1.528938E+0	1.465305E+0	1.504880E+0	1.523121E+0	1.471681E+0	1.510124E+0	1.448124E+0	1.501218E+0	1.524685E+0	1.520622E+0	1.518070E+0	1.527192E+0	1.510174E+0	1.575353E+0	1.500655E+0	1.462347E+0	1.478262E+0	1.534333E+0	1.406083E+0	1.526006E+0	1.500091E+0	1.550952E+0	1.542667E+0	1.469112E+0	1.571984E+0	1.550007E+0	1.446692E+0	1.504749E+0	1.474677E+0	1.476178E+0	1.510311E+0	1.519975E+0	1.539623E+0	1.493099E+0	1.443048E+0	1.512887E+0	1.537572E+0	1.590555E+0	1.403323E+0	1.555627E+0	1.582240E+0	1.481802E+0	1.430768E+0	1.485570E+0	1.479570E+0	1.584545E+0	1.566508E+0	1.595052E+0	1.460142E+0	1.405947E+0	1.457415E+0	1.472562E+0	1.421449E+0	1.549404E+0	1.514326E+0	1.493304E+0	1.487167E+0	1.460109E+0	1.434721E+0	1.479365E+0	1.457411E+0	1.511312E+0	1.543145E+0	1.530701E+0	1.556000E+0	1.448309E+0	1.516158E+0	1.505230E+0	1.441574E+0	1.537220E+0	1.470034E+0	1.503709E+0	1.455219E+0	1.527637E+0	1.492580E+0	1.423213E+0	1.410495E+0	1.464152E+0	1.418963E+0	1.430653E+0	1.505758E+0	1.451452E+0	1.371406E+0	1.480424E+0	1.539801E+0	1.542111E+0	1.431007E+0	1.455984E+0	1.505857E+0	1.504333E+0	1.478719E+0	1.470283E+0	1.461319E+0	1.622784E+0	1.491244E+0	1.464639E+0	1.484389E+0	1.436247E+0	1.558445E+0	1.467524E+0	1.464821E+0	1.502509E+0	1.417027E+0	1.453782E+0	1.452233E+0	1.525645E+0	1.571409E+0
5.505060E+2	1.476252E+0	1.488494E+0	1.522895E+0	1.488764E+0	1.467070E+0	1.424615E+0	1.467552E+0	1.526943E+0	1.473042E+0	1.500662E+0	1.504576E+0	1.483412E+0	1.490485E+0	1.490020E+0	1.451317E+0	1.480028E+0	1.482343E+0	1.483654E+0	1.454765E+0	1.449497E+0	1.565930E+0	1.474934E+0	1.478606E+0	1.498442E+0	1.560325E+0	1.452263E+0	1.443404E+0	1.504508E+0	1.424088E+0	1.511516E+0	1.441428E+0	1.433671E+0	1.464957E+0	1.465193E+0	1.477187E+0	1.445823E+0	1.499630E+0	1.427974E+0	1.440688E+0	1.422175E+0	1.473225E+0	1.498752E+0	1.420590E+0	1.441657E+0	1.497873E+0	1.457065E+0	1.517880E+0	1.524503E+0	1.500177E+0	1.444594E+0	1.472280E+0	1.395936E+0	1.509340E+0	1.433428E+0	1.477253E+0	1.482890E+0	1.448183E+0	1.489306E+0	1.524068E+0	1.492430E+0	1.404562E+0	1.498391E+0	1.462370E+0	1.443843E+0	1.492991E+0	1.546163E+0	1.517117E+0	1.457148E+0	1.512383E+0	1.492782E+0	1.476123E+0	1.510314E+0	1.560573E+0	1.469468E+0	1.449433E+0	1.471175E+0	1.553253E+0	1.399040E+0	1.443016E+0	1.449461E+0	1.523528E+0	1.510898E+0	1.472464E+0	1.479486E+0	1.513326E+0	1.500038E+0	1.482903E+0	1.472713E+0	1.535262E+0	1.448243E+0	1.469042E+0	1.450404E+0	1.468099E+0	1.372740E+0	1.525363E+0	1.442613E+0	1.484403E+0	1.483708E+0	1.464512E+0	1.460230E+0	1.485777E+0	1.494427E+0	1.419228E+0	1.445168E+0	1.517622E+0	1.544176E+0	1.581006E+0	1.439499E+0	1.462969E+0	1.493709E+0	1.368294E+0	1.412050E+0	1.533445E+0	1.517773E+0	1.483292E+0	1.386018E+0	1.475555E+0	1.407297E+0	1.490680E+0	1.511376E+0	1.457560E+0	1.527186E+0	1.475308E+0	1.470283E+0	1.488076E+0	1.453741E+0	1.442851E+0	1.357407E+0	1.550476E+0	1.494611E+0	1.420954E+0	1.407180E+0	1.596363E+0	1.433172E+0	1.464307E+0	1.429014E+0	1.478279E+0	1.416569E+0	1.456002E+0	1.498898E+0	1.485519E+0	1.388012E+0	1.432968E+0	1.517596E+0	1.515721E+0	1.398325E+0	1.498761E+0	1.444514E+0	1.401957E+0	1.435613E+0	1.437272E+0	1.489341E+0	1.543864E+0	1.477158E+0	1.487724E+0	1.461678E+0	1.491628E+0	1.488809E+0	1.434502E+0	1.448824E+0	1.477585E+0	1.424789E+0	1.427004E+0	1.383976E+0	1.369458E+0	1.466379E+0
5.510140E+2	1.260964E+0	1.229952E+0	1.211698E+0	1.237303E+0	1.151956E+0	1.158003E+0	1.236858E+0	1.224468E+0	1.152740E+0	1.123923E+0	1.208814E+0	1.238293E+0	1.239930E+0	1.268152E+0	1.149451E+0	1.199515E+0	1.217689E+0	1.232024E+0	1.228664E+0	1.153026E+0	1.237497E+0	1.171877E+0	1.207460E+0	1.192098E+0	1.223293E+0	1.137041E+0	1.191325E+0	1.196318E+0	1.172338E+0	1.207330E+0	1.170232E+0	1.147844E+0	1.229927E+0	1.181232E+0	1.239207E+0	1.192658E+0	1.195912E+0	1.165113E+0	1.186677E+0	1.189345E+0	1.169339E+0	1.218627E+0	1.213139E+0	1.224518E+0	1.249776E+0	1.290771E+0	1.206788E+0	1.216054E+0	1.204781E+0	1.230386E+0	1.196489E+0	1.190826E+0	1.187733E+0	1.205012E+0	1.203042E+0	1.224665E+0	1.213303E+0	1.218263E+0	1.247217E+0	1.239587E+0	1.248232E+0	1.228626E+0	1.175687E+0	1.184182E+0	1.275228E+0	1.184688E+0	1.260652E+0	1.237597E+0	1.271253E+0	1.219233E+0	1.166346E+0	1.232257E+0	1.244789E+0	1.236817E+0	1.200762E+0	1.186727E+0	1.242187E+0	1.201624E+0	1.223879E+0	1.202404E+0	1.241806E+0	1.262200E+0	1.191535E+0	1.256203E+0	1.285189E+0	1.126220E+0	1.165871E+0	1.174118E+0	1.196506E+0	1.200074E+0	1.198745E+0	1.197970E+0	1.275226E+0	1.178548E+0	1.182308E+0	1.219161E+0	1.215207E+0	1.142207E+0	1.214891E+0	1.212013E+0	1.126783E+0	1.220756E+0	1.199585E+0	1.215168E+0	1.216700E+0	1.315012E+0	1.248523E+0	1.214821E+0	1.195934E+0	1.223410E+0	1.192606E+0	1.197683E+0	1.187089E+0	1.230237E+0	1.219942E+0	1.190265E+0	1.200255E+0	1.158055E+0	1.199058E+0	1.227608E+0	1.175938E+0	1.242275E+0	1.201572E+0	1.177781E+0	1.210825E+0	1.204955E+0	1.152590E+0	1.174409E+0	1.253237E+0	1.216219E+0	1.195105E+0	1.151304E+0	1.282966E+0	1.234707E+0	1.113355E+0	1.213129E+0	1.188633E+0	1.210759E+0	1.213086E+0	1.290086E+0	1.233865E+0	1.186876E+0	1.186814E+0	1.198071E+0	1.319843E+0	1.176301E+0	1.203688E+0	1.195502E+0	1.245280E+0	1.206107E+0	1.287847E+0	1.220755E+0	1.198629E+0	1.188323E+0	1.244912E+0	1.238241E+0	1.214835E+0	1.181595E+0	1.216038E+0	1.187735E+0	1.204166E+0	1.194894E+0	1.261747E+0	1.152308E+0	1.172555E+0	1.185080E+0
5.515000E+2	1.049954E+0	1.022576E+0	1.028754E+0	1.021315E+0	1.028636E+0	9.721063E-1	1.017198E+0	1.043596E+0	1.071572E+0	1.008387E+0	1.039942E+0	1.040868E+0	1.091189E+0	1.119253E+0	1.049182E+0	1.034328E+0	1.030016E+0	1.076576E+0	9.833601E-1	1.009630E+0	1.043074E+0	1.026959E+0	1.042099E+0	9.547295E-1	1.042382E+0	1.028213E+0	1.002670E+0	1.036740E+0	1.059630E+0	1.071179E+0	1.034034E+0	9.967421E-1	1.020339E+0	1.029300E+0	1.006664E+0	1.021660E+0	1.081501E+0	1.020595E+0	1.029419E+0	9.959574E-1	1.027908E+0	1.032651E+0	1.013438E+0	1.020266E+0	1.037817E+0	1.024244E+0	1.023949E+0	1.021399E+0	1.023627E+0	1.037222E+0	1.003912E+0	1.034430E+0	1.035664E+0	1.039294E+0	1.021980E+0	9.744444E-1	1.073053E+0	1.046835E+0	1.068651E+0	1.052737E+0	9.975070E-1	1.076217E+0	1.023306E+0	1.004788E+0	1.027307E+0	1.029582E+0	1.028209E+0	1.042676E+0	1.069191E+0	1.078341E+0	1.049485E+0	1.013594E+0	1.033468E+0	1.030816E+0	1.009951E+0	1.078842E+0	1.046425E+0	9.975106E-1	9.952832E-1	1.015334E+0	1.038168E+0	1.027225E+0	1.035014E+0	1.010374E+0	1.008488E+0	9.978903E-1	9.986539E-1	1.045109E+0	1.076840E+0	1.035351E+0	9.964324E-1	1.055492E+0	1.021370E+0	1.002947E+0	1.014916E+0	9.925270E-1	9.982818E-1	9.897174E-1	1.057177E+0	1.035668E+0	1.043713E+0	1.019675E+0	1.008688E+0	9.958088E-1	1.084665E+0	1.078974E+0	1.010750E+0	9.970049E-1	1.015357E+0	1.039004E+0	1.042511E+0	9.690885E-1	1.013221E+0	1.057064E+0	1.035613E+0	9.965443E-1	1.073620E+0	1.017991E+0	1.076798E+0	1.036199E+0	9.612326E-1	1.067309E+0	1.029610E+0	1.021549E+0	1.031960E+0	1.048830E+0	9.697444E-1	1.025965E+0	1.053085E+0	9.696247E-1	1.006296E+0	1.000734E+0	1.032254E+0	1.026624E+0	9.887093E-1	9.788001E-1	1.000494E+0	9.473050E-1	1.013694E+0	1.101493E+0	1.004171E+0	9.576095E-1	1.001729E+0	1.018161E+0	1.040213E+0	1.038578E+0	1.031153E+0	9.882202E-1	1.054141E+0	1.014846E+0	1.086836E+0	1.063140E+0	1.045111E+0	1.020293E+0	1.064712E+0	1.034873E+0	1.041867E+0	1.028408E+0	1.026853E+0	1.040137E+0	1.032638E+0	9.183733E-1	9.857730E-1	1.041918E+0	8.826123E-1	9.876544E-1
5.520100E+2	1.023634E+0	9.845320E-1	1.022542E+0	9.805543E-1	9.797803E-1	9.906132E-1	1.010953E+0	1.007522E+0	9.679527E-1	1.011328E+0	1.015736E+0	1.023427E+0	1.035610E+0	1.026194E+0	1.015074E+0	9.688594E-1	1.000730E+0	9.812879E-1	1.023771E+0	9.537617E-1	1.026640E+0	1.021639E+0	1.013356E+0	9.937513E-1	1.044531E+0	9.602890E-1	1.013143E+0	9.997469E-1	9.749005E-1	9.820872E-1	1.017349E+0	9.481619E-1	1.024926E+0	9.637124E-1	9.701893E-1	9.899285E-1	1.023026E+0	1.035999E+0	9.641319E-1	9.655658E-1	9.712098E-1	9.952595E-1	9.538924E-1	9.792833E-1	9.854560E-1	1.007607E+0	1.021819E+0	1.016685E+0	9.901187E-1	1.004584E+0	9.920994E-1	9.755108E-1	1.028593E+0	9.740207E-1	1.005341E+0	9.981480E-1	1.004496E+0	9.707871E-1	1.009104E+0	9.846727E-1	1.011331E+0	1.038708E+0	9.712793E-1	9.691319E-1	1.014698E+0	1.025760E+0	1.026118E+0	9.957337E-1	1.026715E+0	9.362991E-1	9.706491E-1	9.670207E-1	1.043770E+0	9.828937E-1	1.016357E+0	9.732959E-1	1.007234E+0	9.955455E-1	9.664692E-1	9.781912E-1	1.023109E+0	9.853152E-1	9.905731E-1	1.037341E+0	1.003403E+0	9.485090E-1	9.199870E-1	9.685822E-1	9.968454E-1	1.046047E+0	9.635631E-1	1.079812E+0	9.819678E-1	9.649914E-1	9.744172E-1	9.982515E-1	1.010625E+0	9.437639E-1	1.026592E+0	1.002534E+0	9.610828E-1	9.807002E-1	1.032569E+0	1.028271E+0	9.830995E-1	1.035782E+0	1.052346E+0	9.674129E-1	9.459811E-1	9.657468E-1	9.909318E-1	9.428492E-1	1.012097E+0	1.023027E+0	1.053482E+0	1.047800E+0	9.880460E-1	9.734081E-1	1.017506E+0	1.002504E+0	1.001138E+0	1.007572E+0	1.024746E+0	9.553004E-1	1.010023E+0	9.494513E-1	9.563402E-1	9.512298E-1	1.039636E+0	1.013513E+0	1.004620E+0	9.297529E-1	1.015445E+0	9.902138E-1	9.404072E-1	9.524997E-1	9.663511E-1	9.279173E-1	9.143957E-1	1.033276E+0	9.827497E-1	9.261599E-1	9.798894E-1	1.032387E+0	1.006452E+0	9.473184E-1	9.397133E-1	9.302539E-1	1.027758E+0	9.784990E-1	9.889857E-1	9.299471E-1	1.036792E+0	9.902277E-1	1.044886E+0	1.030763E+0	1.010248E+0	9.772495E-1	9.866327E-1	9.600408E-1	9.604749E-1	9.828488E-1	9.718844E-1	9.634712E-1	9.202041E-1	1.168225E+0
5.525090E+2	1.108368E+0	1.102590E+0	1.076416E+0	1.074144E+0	1.064583E+0	1.016502E+0	1.075756E+0	1.037749E+0	1.002844E+0	1.076645E+0	1.036181E+0	1.068639E+0	1.027024E+0	1.081063E+0	1.057584E+0	1.107414E+0	1.080701E+0	1.005220E+0	1.065198E+0	1.075465E+0	1.030284E+0	1.102879E+0	1.023164E+0	1.089113E+0	1.056896E+0	1.012674E+0	1.066379E+0	1.070733E+0	1.021394E+0	1.025778E+0	1.085699E+0	1.072146E+0	1.039397E+0	1.027168E+0	1.064285E+0	1.039112E+0	1.043956E+0	1.036209E+0	1.062823E+0	1.013772E+0	1.100037E+0	1.065014E+0	1.011848E+0	1.030619E+0	1.062773E+0	1.063252E+0	1.032383E+0	1.066832E+0	1.019901E+0	1.066164E+0	1.082276E+0	1.023961E+0	1.049162E+0	1.129373E+0	1.022948E+0	9.969438E-1	1.054237E+0	1.105695E+0	1.061901E+0	1.081883E+0	1.034581E+0	1.100104E+0	1.023441E+0	1.031768E+0	1.097638E+0	1.084260E+0	1.046480E+0	1.028233E+0	1.088278E+0	1.102800E+0	1.079504E+0	1.054621E+0	1.039618E+0	1.073710E+0	1.018609E+0	1.019715E+0	1.091903E+0	1.126485E+0	1.059988E+0	1.027366E+0	1.100799E+0	1.012092E+0	1.029975E+0	1.024267E+0	1.092368E+0	1.041664E+0	1.051576E+0	1.064811E+0	1.082840E+0	1.076844E+0	1.053867E+0	9.979322E-1	1.029967E+0	1.063469E+0	1.039961E+0	1.102688E+0	1.040320E+0	1.008577E+0	1.069843E+0	1.020777E+0	1.072542E+0	1.063521E+0	1.076080E+0	1.065119E+0	1.067165E+0	1.061751E+0	1.130201E+0	1.100800E+0	1.048965E+0	1.078669E+0	1.031335E+0	1.042728E+0	1.048534E+0	1.032518E+0	1.092976E+0	1.032697E+0	1.056273E+0	9.637396E-1	1.012092E+0	1.101728E+0	1.105350E+0	1.035326E+0	1.072379E+0	1.005241E+0	1.032721E+0	1.059019E+0	1.019097E+0	1.018454E+0	1.116518E+0	1.021370E+0	1.053873E+0	1.020434E+0	1.104684E+0	1.006147E+0	1.041494E+0	1.040181E+0	1.020266E+0	1.043924E+0	9.488365E-1	1.100713E+0	1.038122E+0	1.002995E+0	1.072120E+0	1.023906E+0	1.120291E+0	1.011452E+0	1.022350E+0	1.048942E+0	1.088702E+0	1.081952E+0	1.054197E+0	1.055863E+0	1.111845E+0	1.082730E+0	1.120884E+0	1.061482E+0	1.079650E+0	1.049130E+0	1.044000E+0	1.012214E+0	1.082368E+0	1.018344E+0	1.006940E+0	1.067928E+0	1.017459E+0	1.071036E+0
5.530150E+2	9.580995E-1	9.889852E-1	1.002680E+0	1.004062E+0	9.517581E-1	1.012474E+0	9.311802E-1	9.919056E-1	9.887361E-1	9.580280E-1	9.758879E-1	1.037172E+0	1.009387E+0	1.022494E+0	9.689078E-1	9.580296E-1	9.475132E-1	1.023152E+0	9.434164E-1	9.501142E-1	9.964949E-1	9.656470E-1	1.003549E+0	9.602243E-1	1.028368E+0	9.939166E-1	9.482060E-1	9.141856E-1	9.412337E-1	1.038818E+0	9.529939E-1	9.810740E-1	9.633020E-1	1.060335E+0	9.610979E-1	1.023449E+0	1.056162E+0	9.647320E-1	1.002853E+0	9.831196E-1	9.702623E-1	9.926667E-1	1.023624E+0	9.367329E-1	1.004716E+0	1.029221E+0	1.026322E+0	1.019234E+0	1.049090E+0	9.890050E-1	9.467035E-1	9.744444E-1	9.954614E-1	1.048924E+0	9.423206E-1	1.019400E+0	9.849594E-1	9.830287E-1	1.001648E+0	9.857709E-1	9.869600E-1	1.029199E+0	9.875885E-1	9.543253E-1	9.905629E-1	9.695374E-1	9.874271E-1	9.780163E-1	9.762820E-1	1.033891E+0	9.931873E-1	9.519645E-1	1.016649E+0	1.008118E+0	9.653719E-1	1.024947E+0	1.041880E+0	9.671976E-1	1.010246E+0	1.028659E+0	1.073632E+0	9.846280E-1	1.019632E+0	9.907232E-1	9.631660E-1	9.740781E-1	1.016489E+0	9.722761E-1	9.829063E-1	9.826645E-1	1.026587E+0	1.028741E+0	9.721771E-1	9.989066E-1	9.561176E-1	9.800661E-1	9.460434E-1	9.756496E-1	9.623675E-1	9.629361E-1	9.976859E-1	9.389037E-1	1.030386E+0	9.846371E-1	9.923124E-1	1.054920E+0	9.988130E-1	1.010124E+0	9.902512E-1	9.822826E-1	9.741151E-1	9.952524E-1	9.810160E-1	1.040221E+0	9.947928E-1	9.852687E-1	1.014850E+0	9.683547E-1	9.859652E-1	9.948086E-1	1.008424E+0	9.813622E-1	1.016031E+0	9.982010E-1	9.569766E-1	1.040179E+0	1.023186E+0	9.187158E-1	1.045226E+0	1.013493E+0	9.770408E-1	9.762050E-1	1.024236E+0	9.633132E-1	9.919380E-1	9.840990E-1	1.017541E+0	9.893985E-1	9.643989E-1	1.010380E+0	1.011832E+0	9.737339E-1	1.043907E+0	1.020798E+0	1.012212E+0	9.572992E-1	1.011857E+0	9.764275E-1	1.016520E+0	9.822318E-1	1.047639E+0	9.890285E-1	1.074700E+0	9.722171E-1	1.042431E+0	9.793434E-1	9.935722E-1	9.816612E-1	1.013934E+0	9.490918E-1	1.013331E+0	9.851036E-1	9.432293E-1	9.564636E-1	8.728141E-1	1.049205E+0
5.534770E+2	9.803918E-1	9.348826E-1	9.711396E-1	9.606618E-1	9.110544E-1	9.195568E-1	9.775982E-1	9.326089E-1	9.779715E-1	9.308539E-1	9.663175E-1	9.600839E-1	9.646041E-1	9.817808E-1	9.783507E-1	9.436979E-1	9.431215E-1	9.547910E-1	9.594703E-1	9.094631E-1	9.524069E-1	9.717737E-1	9.573316E-1	9.585133E-1	9.620433E-1	9.562544E-1	9.265322E-1	9.955372E-1	9.620245E-1	9.689896E-1	9.258025E-1	9.316561E-1	9.292250E-1	9.822824E-1	9.283244E-1	9.313939E-1	9.414285E-1	9.022626E-1	9.854409E-1	9.203603E-1	9.301349E-1	9.323689E-1	9.559742E-1	9.562509E-1	1.007492E+0	9.956683E-1	9.485918E-1	9.618100E-1	9.804274E-1	9.613884E-1	8.701787E-1	9.419683E-1	9.557307E-1	9.516974E-1	9.334638E-1	9.444934E-1	9.868988E-1	9.353887E-1	9.804906E-1	9.928083E-1	9.460363E-1	9.979090E-1	9.699848E-1	9.469805E-1	9.811477E-1	9.462692E-1	9.219026E-1	9.075472E-1	9.602205E-1	9.528233E-1	1.001535E+0	8.992578E-1	9.473710E-1	9.676612E-1	9.756366E-1	9.231387E-1	1.013598E+0	9.985280E-1	1.013770E+0	9.653238E-1	9.789435E-1	9.610042E-1	9.476269E-1	9.781955E-1	9.797274E-1	9.939796E-1	9.245247E-1	9.361687E-1	9.453914E-1	9.566017E-1	9.928241E-1	9.587550E-1	9.170275E-1	8.562630E-1	9.358597E-1	9.438846E-1	9.136020E-1	8.987791E-1	9.821425E-1	9.675616E-1	9.488233E-1	9.483581E-1	9.064336E-1	9.836411E-1	9.979172E-1	9.815973E-1	9.732720E-1	9.073893E-1	9.789512E-1	9.369169E-1	9.506335E-1	9.728230E-1	9.598275E-1	1.020918E+0	9.237391E-1	8.897509E-1	9.500101E-1	8.851635E-1	9.247543E-1	9.742244E-1	9.309564E-1	9.780084E-1	9.967626E-1	9.360835E-1	9.305703E-1	9.664685E-1	9.212151E-1	9.360868E-1	1.015376E+0	9.199601E-1	9.448591E-1	9.654754E-1	9.846789E-1	9.307159E-1	9.246349E-1	9.055585E-1	9.042621E-1	9.126241E-1	9.134734E-1	1.018908E+0	1.020591E+0	9.683060E-1	9.720115E-1	9.330289E-1	9.399621E-1	8.925313E-1	9.659169E-1	9.582976E-1	9.410088E-1	9.473027E-1	9.052709E-1	9.774078E-1	1.010769E+0	9.261813E-1	9.538696E-1	9.618792E-1	8.812758E-1	9.636910E-1	9.565776E-1	9.066407E-1	9.882895E-1	9.189219E-1	9.630386E-1	9.681012E-1	9.082389E-1	9.358326E-1
5.540290E+2	8.927592E-1	8.850288E-1	9.138657E-1	9.466294E-1	9.038902E-1	9.294145E-1	9.294526E-1	9.093963E-1	8.710363E-1	9.026148E-1	9.219221E-1	9.571897E-1	9.293555E-1	9.149590E-1	9.176156E-1	9.559893E-1	9.232543E-1	9.297293E-1	8.883864E-1	9.179101E-1	9.248626E-1	9.528412E-1	8.619058E-1	9.375028E-1	9.447953E-1	9.266344E-1	9.291179E-1	9.494677E-1	9.232132E-1	8.886716E-1	9.421082E-1	9.183255E-1	9.421408E-1	9.485889E-1	9.096324E-1	9.316302E-1	9.190648E-1	9.009641E-1	9.120047E-1	9.206522E-1	8.971746E-1	9.193901E-1	9.005797E-1	8.738790E-1	9.340814E-1	8.904893E-1	9.490801E-1	9.549064E-1	9.266100E-1	9.052164E-1	9.299027E-1	9.431614E-1	9.136071E-1	9.619841E-1	9.486965E-1	8.899713E-1	9.262066E-1	9.118946E-1	8.796099E-1	9.405480E-1	9.625489E-1	9.293526E-1	9.501355E-1	9.139667E-1	9.153140E-1	9.233446E-1	8.775361E-1	9.161919E-1	9.441371E-1	9.135832E-1	8.802103E-1	8.928803E-1	9.710940E-1	9.257639E-1	9.021960E-1	9.201902E-1	8.949763E-1	9.782518E-1	9.026189E-1	8.999166E-1	9.298378E-1	9.641479E-1	9.061301E-1	8.709129E-1	9.331102E-1	9.289199E-1	9.169397E-1	9.299922E-1	9.425783E-1	9.116006E-1	9.020948E-1	9.523858E-1	9.675071E-1	9.101821E-1	9.244302E-1	9.318145E-1	9.095452E-1	8.863543E-1	9.547140E-1	9.386213E-1	9.337407E-1	9.205970E-1	8.887531E-1	8.906881E-1	9.460820E-1	8.948562E-1	9.363503E-1	9.603542E-1	9.014695E-1	9.056485E-1	9.226236E-1	8.889496E-1	9.295458E-1	9.289309E-1	9.334648E-1	9.346532E-1	8.644888E-1	9.011393E-1	9.507248E-1	9.287564E-1	9.376166E-1	9.486504E-1	9.441815E-1	9.332732E-1	8.993763E-1	9.271725E-1	9.189337E-1	9.019962E-1	9.253747E-1	8.749469E-1	9.358982E-1	9.334583E-1	8.810353E-1	9.089450E-1	8.759941E-1	9.368249E-1	9.093842E-1	8.999050E-1	8.864606E-1	9.203921E-1	9.428901E-1	9.443548E-1	9.190863E-1	9.053731E-1	9.120812E-1	9.260689E-1	9.147083E-1	9.534555E-1	9.101868E-1	9.232481E-1	9.547241E-1	8.768748E-1	9.505624E-1	9.268537E-1	9.304474E-1	9.151048E-1	9.436876E-1	8.803634E-1	8.960428E-1	9.296381E-1	9.271914E-1	9.123356E-1	9.737644E-1	8.950437E-1	8.879080E-1	1.035263E+0
5.550140E+2	9.668253E-1	9.451692E-1	9.155265E-1	8.825333E-1	9.337118E-1	1.018359E+0	8.754035E-1	9.441950E-1	9.211179E-1	9.315622E-1	9.055856E-1	9.192845E-1	9.517103E-1	9.492400E-1	9.347442E-1	9.782727E-1	9.541317E-1	8.937439E-1	8.858223E-1	9.208522E-1	9.384820E-1	9.374747E-1	9.555581E-1	9.218329E-1	1.004179E+0	9.252615E-1	9.175325E-1	9.580483E-1	9.620523E-1	9.354569E-1	9.149570E-1	9.154644E-1	9.465111E-1	9.702676E-1	9.434154E-1	9.583132E-1	9.372446E-1	9.303372E-1	9.192524E-1	9.156538E-1	8.994440E-1	9.370472E-1	9.223462E-1	9.488390E-1	9.299718E-1	9.641859E-1	9.220346E-1	9.542297E-1	9.135015E-1	9.494962E-1	8.935228E-1	9.700425E-1	9.112850E-1	9.630902E-1	9.539061E-1	9.229012E-1	9.479810E-1	9.326561E-1	9.491418E-1	9.479619E-1	9.246456E-1	9.147509E-1	9.503572E-1	9.108198E-1	9.605536E-1	9.227354E-1	9.072949E-1	9.347373E-1	9.153223E-1	9.653568E-1	9.733519E-1	9.249543E-1	9.231887E-1	9.391289E-1	9.275801E-1	9.698591E-1	9.784543E-1	9.129451E-1	9.419166E-1	9.480503E-1	9.292798E-1	9.341879E-1	9.158174E-1	9.836532E-1	9.202797E-1	9.409447E-1	9.276733E-1	9.929355E-1	9.213848E-1	9.695403E-1	9.327822E-1	9.178255E-1	9.575543E-1	9.314679E-1	9.632006E-1	9.425824E-1	9.783103E-1	9.624323E-1	1.001837E+0	9.313207E-1	1.008819E+0	9.029454E-1	9.452910E-1	9.734966E-1	9.591365E-1	9.239531E-1	9.463121E-1	8.878259E-1	8.916037E-1	9.720990E-1	9.953921E-1	9.097826E-1	9.158255E-1	9.729545E-1	8.902997E-1	9.207087E-1	9.373151E-1	9.489223E-1	9.333504E-1	9.358818E-1	9.436563E-1	9.196319E-1	9.527237E-1	9.189999E-1	9.133998E-1	9.520129E-1	9.115285E-1	8.803012E-1	9.620690E-1	9.480239E-1	9.694730E-1	9.460551E-1	9.669140E-1	9.531821E-1	9.066461E-1	9.628597E-1	9.200176E-1	9.163055E-1	9.417031E-1	9.684682E-1	9.436308E-1	9.272776E-1	9.309775E-1	9.332486E-1	9.310408E-1	8.924836E-1	9.116373E-1	9.176583E-1	9.757845E-1	9.423827E-1	9.362782E-1	9.869348E-1	9.646269E-1	9.029868E-1	9.578748E-1	9.366554E-1	9.291494E-1	9.407562E-1	9.288302E-1	9.219673E-1	9.051501E-1	8.889881E-1	8.702571E-1	9.093612E-1	8.746343E-1	8.894255E-1
5.560410E+2	1.013697E+0	1.014251E+0	1.091698E+0	1.036786E+0	1.034599E+0	1.021959E+0	1.069243E+0	1.032993E+0	1.013320E+0	1.008231E+0	9.802798E-1	9.928035E-1	9.952875E-1	9.974969E-1	1.023725E+0	9.621775E-1	1.018945E+0	9.793445E-1	1.015337E+0	9.998518E-1	1.057508E+0	1.009738E+0	1.055620E+0	1.015496E+0	9.975246E-1	1.001995E+0	9.916716E-1	1.014745E+0	1.027536E+0	1.015760E+0	9.958196E-1	1.035410E+0	1.017208E+0	1.031069E+0	1.008149E+0	1.023909E+0	9.859128E-1	1.039518E+0	1.027734E+0	1.011967E+0	9.858246E-1	9.909411E-1	1.019706E+0	9.918718E-1	1.002790E+0	1.037667E+0	1.019407E+0	1.030559E+0	1.019854E+0	1.041567E+0	1.061312E+0	1.025447E+0	1.073900E+0	9.878637E-1	1.011535E+0	1.005900E+0	1.015644E+0	9.924812E-1	1.026032E+0	1.019177E+0	9.916061E-1	1.034563E+0	9.944639E-1	9.827059E-1	1.009384E+0	1.043051E+0	1.029747E+0	1.011146E+0	1.010018E+0	1.054467E+0	1.049797E+0	1.023817E+0	1.003125E+0	1.061051E+0	9.912133E-1	1.013459E+0	9.831624E-1	1.012834E+0	1.035459E+0	9.839307E-1	1.034972E+0	1.039060E+0	1.045994E+0	1.002514E+0	1.006745E+0	9.559716E-1	1.060856E+0	9.692360E-1	1.045220E+0	1.030982E+0	1.011388E+0	9.818983E-1	1.021028E+0	1.036722E+0	1.016565E+0	9.907577E-1	9.914025E-1	9.797558E-1	1.051234E+0	1.069229E+0	1.011550E+0	1.001911E+0	9.468389E-1	1.014803E+0	1.005847E+0	1.081451E+0	1.025486E+0	9.974074E-1	1.037195E+0	1.009848E+0	9.947788E-1	1.040453E+0	1.031760E+0	1.035217E+0	1.028439E+0	9.499064E-1	1.013560E+0	1.009765E+0	1.058264E+0	1.062347E+0	1.005951E+0	1.047082E+0	1.004124E+0	9.781381E-1	1.043947E+0	1.027312E+0	9.749235E-1	1.003310E+0	1.017456E+0	9.871578E-1	1.012331E+0	1.061446E+0	1.008371E+0	1.003052E+0	1.060062E+0	9.807790E-1	9.828246E-1	1.025935E+0	9.974550E-1	1.060121E+0	9.401558E-1	1.024041E+0	9.955228E-1	1.022767E+0	1.087822E+0	9.745214E-1	1.000110E+0	9.919814E-1	1.047209E+0	1.034261E+0	9.902320E-1	1.053599E+0	1.038956E+0	9.773530E-1	1.011771E+0	1.010378E+0	1.026910E+0	1.052506E+0	1.017948E+0	1.029677E+0	1.039783E+0	1.010882E+0	1.010271E+0	9.165383E-1	8.856106E-1	9.746268E-1
5.570330E+2	1.048008E+0	1.019133E+0	1.068505E+0	1.086407E+0	1.063315E+0	1.047054E+0	1.025544E+0	1.045694E+0	1.042262E+0	1.059097E+0	1.088727E+0	1.084526E+0	1.038346E+0	1.049278E+0	1.050328E+0	1.077491E+0	1.049822E+0	1.072204E+0	1.097164E+0	1.078793E+0	1.069272E+0	1.074433E+0	1.055717E+0	1.057828E+0	1.042078E+0	1.081317E+0	1.075347E+0	1.050019E+0	1.039300E+0	1.054280E+0	1.059278E+0	1.000679E+0	9.973911E-1	1.042249E+0	1.063223E+0	1.046568E+0	1.044306E+0	1.025928E+0	1.043657E+0	1.069588E+0	1.057961E+0	1.077630E+0	1.090740E+0	1.055844E+0	1.055526E+0	1.060809E+0	1.069280E+0	1.061273E+0	1.085599E+0	1.087886E+0	1.021092E+0	1.056040E+0	1.010403E+0	1.019518E+0	1.046633E+0	1.046145E+0	1.049043E+0	1.112735E+0	1.080289E+0	9.844441E-1	1.017956E+0	1.048238E+0	1.022983E+0	1.055944E+0	1.048321E+0	1.064793E+0	1.087287E+0	1.006935E+0	1.016149E+0	1.092217E+0	1.071986E+0	1.061628E+0	1.059949E+0	1.026885E+0	1.001367E+0	1.038505E+0	1.118443E+0	1.069243E+0	1.071573E+0	1.052919E+0	1.095510E+0	1.076541E+0	1.102050E+0	1.045357E+0	1.087318E+0	1.074762E+0	1.053175E+0	1.034556E+0	1.058528E+0	1.035903E+0	1.040709E+0	1.075464E+0	1.063147E+0	1.045584E+0	1.017074E+0	1.077062E+0	1.068453E+0	1.075587E+0	1.023150E+0	1.067829E+0	1.016196E+0	1.099996E+0	1.031280E+0	1.078972E+0	1.092200E+0	1.052153E+0	1.072050E+0	1.072823E+0	1.078293E+0	1.006581E+0	1.016625E+0	1.034656E+0	1.036074E+0	1.025737E+0	1.083990E+0	1.079110E+0	1.039005E+0	9.956011E-1	1.032145E+0	1.022154E+0	1.032245E+0	1.013496E+0	1.099603E+0	1.074146E+0	1.075127E+0	1.049640E+0	1.058970E+0	1.003540E+0	1.102389E+0	1.057871E+0	1.058560E+0	1.005809E+0	1.074785E+0	1.072293E+0	1.040537E+0	9.992509E-1	1.049172E+0	1.049159E+0	1.044689E+0	1.056245E+0	1.078460E+0	9.878631E-1	1.015494E+0	1.071162E+0	1.020773E+0	1.017929E+0	1.066644E+0	1.014695E+0	1.015496E+0	1.075163E+0	1.085618E+0	1.056927E+0	1.064386E+0	1.122062E+0	1.125093E+0	1.044306E+0	1.060680E+0	9.940880E-1	1.083081E+0	1.063521E+0	1.059908E+0	1.016890E+0	9.680136E-1	1.004975E+0	1.057110E+0	1.023859E+0
5.580230E+2	1.025238E+0	1.138458E+0	1.085517E+0	1.014193E+0	1.065150E+0	9.982637E-1	1.051216E+0	1.088870E+0	1.055698E+0	1.004179E+0	1.076917E+0	1.060068E+0	1.087306E+0	1.026188E+0	1.019193E+0	1.044414E+0	1.047473E+0	1.013217E+0	1.077671E+0	9.808432E-1	1.056214E+0	1.030108E+0	1.064456E+0	1.036428E+0	1.049580E+0	1.017092E+0	1.031452E+0	1.043742E+0	1.086368E+0	1.023103E+0	1.071790E+0	1.007470E+0	1.081907E+0	1.002627E+0	1.038641E+0	1.031236E+0	1.068063E+0	1.086743E+0	1.018832E+0	1.011550E+0	1.031705E+0	1.067042E+0	1.096824E+0	1.067089E+0	1.052530E+0	1.074686E+0	1.036212E+0	1.067399E+0	1.071719E+0	1.034876E+0	1.044518E+0	1.058948E+0	1.064572E+0	1.045106E+0	1.065430E+0	1.041503E+0	1.065423E+0	1.043054E+0	1.081373E+0	1.062052E+0	1.056443E+0	1.063955E+0	1.042561E+0	1.050451E+0	1.029440E+0	1.078470E+0	1.078265E+0	1.067475E+0	1.066804E+0	1.051136E+0	1.079245E+0	1.044548E+0	1.039452E+0	1.062807E+0	1.077675E+0	1.026574E+0	1.081884E+0	1.039085E+0	1.030017E+0	1.073234E+0	1.087099E+0	1.082728E+0	1.075818E+0	1.009168E+0	1.033886E+0	1.097815E+0	1.032995E+0	1.035126E+0	1.034450E+0	1.114872E+0	1.012992E+0	1.027216E+0	1.084004E+0	1.052907E+0	1.024705E+0	1.030674E+0	1.094930E+0	9.782440E-1	1.046214E+0	1.065951E+0	1.036911E+0	1.025879E+0	1.023647E+0	1.053359E+0	1.057340E+0	1.081130E+0	1.108915E+0	1.063314E+0	1.073976E+0	1.063220E+0	1.063186E+0	1.023307E+0	1.024476E+0	1.037733E+0	1.082544E+0	1.068113E+0	1.041380E+0	1.083574E+0	1.025950E+0	9.750709E-1	1.055800E+0	1.090386E+0	1.048346E+0	1.084387E+0	1.038862E+0	1.069810E+0	1.048938E+0	1.033077E+0	1.040686E+0	1.078147E+0	1.029987E+0	1.013430E+0	1.056339E+0	1.030339E+0	1.046326E+0	1.023368E+0	1.000028E+0	1.075467E+0	1.008861E+0	1.022010E+0	1.069261E+0	9.802772E-1	1.061442E+0	1.045190E+0	1.063353E+0	1.069587E+0	1.093302E+0	1.094587E+0	1.069003E+0	1.038335E+0	1.001246E+0	9.855093E-1	9.928403E-1	1.079507E+0	1.056222E+0	1.031404E+0	1.077961E+0	1.071288E+0	1.095837E+0	1.045896E+0	1.064374E+0	1.026767E+0	1.059272E+0	1.117140E+0	1.066437E+0	1.233907E+0
5.590160E+2	1.053472E+0	9.979596E-1	9.248881E-1	1.033452E+0	9.993335E-1	9.849500E-1	1.049140E+0	9.788519E-1	1.096567E+0	1.094317E+0	1.026568E+0	9.861282E-1	9.979947E-1	1.062838E+0	1.054395E+0	9.816555E-1	1.006375E+0	1.111761E+0	1.035620E+0	1.101749E+0	9.536621E-1	9.954057E-1	1.006743E+0	1.030912E+0	9.618428E-1	1.047700E+0	1.054879E+0	9.839786E-1	9.615297E-1	1.082728E+0	1.016048E+0	1.122652E+0	1.014842E+0	1.005198E+0	1.036939E+0	1.008344E+0	1.045410E+0	1.016510E+0	1.078520E+0	1.070588E+0	1.127891E+0	1.007950E+0	9.698049E-1	1.062477E+0	1.025101E+0	9.721633E-1	1.003987E+0	9.316337E-1	9.827168E-1	9.809587E-1	1.049652E+0	9.463616E-1	1.026233E+0	1.022438E+0	9.737990E-1	1.093579E+0	9.957018E-1	1.007178E+0	9.835542E-1	1.045817E+0	1.046801E+0	1.009141E+0	1.039499E+0	1.086113E+0	1.036988E+0	9.676060E-1	1.019870E+0	1.063515E+0	1.047570E+0	9.232400E-1	9.454103E-1	1.052173E+0	1.003190E+0	9.843651E-1	1.099969E+0	1.031412E+0	9.430801E-1	9.876407E-1	1.018416E+0	1.041949E+0	9.233016E-1	9.033359E-1	9.541908E-1	1.088395E+0	1.018661E+0	1.001586E+0	1.008360E+0	1.038154E+0	9.978388E-1	9.371028E-1	1.100033E+0	1.045211E+0	9.067591E-1	1.023137E+0	1.054025E+0	1.027110E+0	9.573596E-1	1.117627E+0	9.228514E-1	9.270494E-1	9.927833E-1	1.048672E+0	1.164190E+0	9.886811E-1	9.393938E-1	9.664563E-1	9.108861E-1	1.018276E+0	1.017463E+0	1.042604E+0	1.007394E+0	1.102851E+0	1.062319E+0	9.994274E-1	9.812622E-1	1.047509E+0	1.104251E+0	1.060999E+0	9.995657E-1	1.075790E+0	1.024732E+0	9.807538E-1	9.510215E-1	1.011055E+0	1.029289E+0	9.740528E-1	1.086707E+0	1.177775E+0	9.520258E-1	1.053853E+0	9.937504E-1	1.039802E+0	1.012556E+0	1.032190E+0	1.070434E+0	1.096917E+0	1.138574E+0	1.033230E+0	1.120831E+0	9.727633E-1	1.025602E+0	1.136186E+0	1.077478E+0	1.022259E+0	9.849291E-1	1.119410E+0	1.013599E+0	1.027623E+0	9.823200E-1	9.866087E-1	1.031902E+0	1.040154E+0	9.886287E-1	9.912378E-1	9.185913E-1	1.062152E+0	9.616125E-1	1.060998E+0	9.782609E-1	1.009300E+0	1.003594E+0	1.144138E+0	1.118422E+0	1.156942E+0	1.228300E+0	8.429179E-1
