Photon Energy (eV)	#1	#2	#3	#4	#5	#6	#7	#8	#9	#10	#11	#12	#13	#14	#15	#16	#17	#18	#19	#20	#21	#22	#23	#24	#25	#26	#27	#28	#29	#30	#31	#32	#33	#34	#35	#36	#37	#38	#39	#40	#41	#42	#43	#44	#45	#46	#47	#48	#49	#50	#51	#52	#53	#54	#55	#56	#57	#58	#59	#60	#61	#62	#63	#64	#65	#66	#67	#68	#69	#70	#71	#72	#73	#74	#75	#76	#77	#78	#79	#80	#81	#82	#83	#84	#85	#86	#87	#88	#89	#90	#91	#92	#93	#94	#95	#96	#97	#98	#99	#100	#101	#102	#103	#104	#105	#106	#107	#108	#109	#110	#111	#112	#113	#114	#115	#116	#117	#118	#119	#120	#121	#122	#123	#124	#125	#126	#127	#128	#129	#130	#131	#132	#133	#134	#135	#136	#137	#138	#139	#140	#141	#142	#143	#144	#145	#146	#147	#148	#149	#150	#151	#152	#153	#154	#155	#156	#157	#158	#159	#160	#161	#162	#163	#164	#165	#166	#167	#168	#169	#170	#171	
2.790040E+2	-2.312597E-4	-4.380584E-3	-3.807176E-3	-1.316637E-3	-5.911761E-3	-3.866104E-3	-5.884098E-3	-4.315004E-3	-1.080281E-2	4.413717E-4	-1.499626E-3	-1.692568E-3	-1.026484E-2	-5.787528E-3	-5.325348E-4	-7.154434E-3	-8.897736E-3	-7.937466E-4	1.250502E-3	1.792937E-3	-4.334164E-3	-5.467402E-3	-6.398501E-3	-2.427351E-3	3.319835E-3	3.654361E-3	3.993300E-3	-7.282801E-3	1.607046E-3	8.794504E-4	-2.487415E-3	-2.221604E-3	-5.600454E-3	7.586091E-4	-6.774829E-3	-2.010009E-3	9.510610E-4	1.491678E-3	-6.005840E-4	-1.823353E-4	-6.070722E-3	-3.404340E-3	2.179995E-4	2.742887E-3	-6.917117E-3	-3.451172E-3	-2.893467E-3	-1.728745E-3	-4.603435E-3	-1.789299E-3	-4.051619E-3	-5.725658E-3	3.647863E-3	5.072370E-4	-2.817444E-3	8.630658E-4	-8.169344E-3	-5.791752E-3	-5.685516E-3	7.872594E-3	-1.431540E-3	-6.746832E-3	-7.451776E-3	-4.741943E-3	-1.020708E-2	-5.226006E-3	-1.960099E-3	-2.019882E-3	-3.257743E-3	-5.796775E-3	1.598442E-3	2.410742E-3	8.209086E-3	-7.369288E-3	2.774407E-3	-1.068380E-2	-5.050449E-3	-1.205958E-3	-2.557067E-3	-3.042146E-3	-7.054858E-3	-5.844424E-3	-3.403060E-3	-6.527731E-3	2.816606E-3	-4.773277E-3	-1.664673E-3	-9.999808E-3	-7.368909E-3	2.553339E-3	-1.080168E-2	-5.607146E-3	-4.674221E-4	5.598012E-4	-4.681360E-4	-6.423338E-3	1.065699E-5	-2.231316E-3	-4.723691E-3	-1.417039E-3	-1.860215E-3	1.725259E-3	-2.833887E-3	-2.158370E-3	-3.416924E-3	-8.494467E-4	-4.703789E-3	-3.105433E-3	-4.065480E-3	-2.486120E-3	-9.880376E-3	-9.817942E-3	5.289083E-4	-3.882494E-4	-7.139159E-3	2.719666E-3	-4.737179E-3	8.976733E-4	-6.558812E-3	3.107923E-3	-1.873852E-3	-2.728973E-3	-2.893051E-3	5.523507E-4	2.707078E-3	-2.496957E-3	-6.744796E-3	-4.926311E-3	2.300973E-3	2.038390E-3	-7.723989E-3	-1.215255E-2	4.424737E-4	-2.603658E-3	1.134122E-3	-4.717452E-3	-1.085503E-4	3.156937E-3	3.925341E-4	-6.558793E-5	3.328861E-3	-5.126617E-3	-1.468438E-3	-2.730022E-3	-3.879189E-3	-9.758945E-3	-3.727807E-3	-9.797165E-3	-2.050262E-3	-1.420886E-3	5.818146E-4	1.479319E-3	4.044838E-3	3.783841E-3	-2.569174E-4	9.009371E-3	-2.649167E-3	2.657570E-3	2.060677E-3	1.379375E-3	-1.669924E-4	-8.334387E-3	8.533844E-4	-7.793278E-3	-4.061005E-3	-7.674652E-3	9.800046E-4	-1.215231E-2	-6.345518E-3	-8.087935E-3	-1.487074E-2
2.795020E+2	-1.094973E-3	-1.046952E-2	3.520590E-4	-3.296646E-3	-2.937690E-3	-8.722290E-3	-2.373711E-3	-2.922772E-4	3.506870E-3	-1.792257E-3	-1.205623E-2	-1.582313E-3	1.197880E-3	-6.365092E-4	-4.713925E-3	-4.340983E-3	-5.755223E-3	-6.897471E-3	-3.956298E-3	1.024433E-3	-4.933522E-3	-3.430442E-3	4.321363E-3	6.210669E-3	-8.636158E-3	-5.891321E-3	-2.297596E-3	-1.975141E-3	-2.134201E-3	-6.797428E-4	-3.649668E-3	2.107433E-3	7.398569E-4	2.988541E-3	4.577700E-3	-2.812211E-3	-8.850764E-4	-8.476989E-3	-4.931021E-3	7.456810E-3	2.004585E-4	-5.641654E-3	-3.467924E-3	-2.224660E-3	1.094338E-3	3.803420E-4	1.161494E-3	2.980785E-3	-4.349928E-4	-8.258577E-3	-6.962489E-3	5.002981E-3	3.009412E-3	-5.757944E-5	-1.437971E-3	-7.044655E-3	-1.597147E-3	3.324439E-3	-6.349278E-3	-9.586811E-3	-4.485531E-3	-5.016793E-3	-2.663947E-5	-5.341492E-3	-2.224814E-3	-5.173361E-3	-3.873384E-3	-8.690916E-3	-3.201231E-3	-2.334302E-3	-4.912601E-3	-3.531497E-3	-8.537180E-3	-2.568654E-3	-5.256855E-3	-7.128013E-3	-8.382574E-3	1.000597E-3	-8.346925E-3	-2.285233E-3	-1.091658E-2	2.927810E-3	-3.345801E-3	-1.075742E-2	-1.182468E-3	-2.843577E-3	-6.340604E-3	-2.810561E-3	1.157104E-3	3.370123E-3	5.372659E-3	-2.145842E-3	-2.862475E-3	-1.479766E-3	2.926557E-3	3.404765E-3	9.199780E-5	2.925845E-3	1.784029E-3	3.764559E-4	-1.121613E-3	-2.069304E-3	-1.651082E-4	-6.360050E-3	-6.731944E-3	-3.107051E-3	-6.044373E-3	-4.840259E-3	-4.020402E-3	-5.312319E-3	-5.667122E-3	8.639631E-4	6.155441E-4	-6.826791E-3	-7.070770E-3	-5.439266E-3	-3.246782E-3	-2.791441E-3	-2.486237E-3	-4.227778E-4	1.716834E-3	1.041855E-3	-4.301473E-3	6.541609E-4	-4.994297E-3	-1.090823E-3	-1.428082E-4	-8.570231E-3	-1.904334E-3	-2.061000E-3	-1.708282E-3	-4.993730E-3	-6.346829E-3	-4.412756E-3	-5.478563E-3	-7.220917E-3	3.153833E-3	-1.207803E-3	-4.169699E-3	-6.848592E-3	-4.451132E-3	3.041684E-3	-6.510406E-3	5.165274E-3	-9.653216E-3	1.311305E-3	-7.167656E-3	1.279841E-3	-5.657609E-4	-6.354414E-4	2.746315E-5	-1.251857E-4	-4.149253E-3	-5.487092E-3	-2.157913E-3	-1.002088E-2	7.117967E-3	-5.061330E-3	-6.206665E-3	-3.499089E-3	5.633811E-3	-7.543580E-3	-5.909225E-3	-5.147376E-3	2.092480E-3	-1.697155E-3	-1.673748E-4	3.671698E-3	6.640424E-3	-4.225897E-3	7.896067E-4
2.800050E+2	6.457070E-4	1.865223E-3	-4.530079E-3	5.871088E-3	7.870645E-4	-2.286912E-4	-2.310952E-3	2.742687E-3	-3.592934E-3	-9.702149E-4	-7.183493E-4	5.222439E-3	-3.039759E-3	8.828094E-4	6.258158E-3	1.230293E-3	2.046414E-3	1.013480E-2	3.357359E-3	-3.193394E-3	-1.671399E-3	-7.225794E-4	-6.748270E-4	-1.377219E-3	-2.955688E-3	-3.205240E-3	2.209309E-3	-2.736693E-3	-6.657990E-3	3.456070E-3	6.462941E-4	2.916359E-3	-7.052923E-3	-7.076203E-3	-8.169634E-3	-3.621016E-3	-3.361600E-3	2.293735E-3	-1.117783E-2	3.387000E-3	-1.284290E-3	2.081590E-3	1.851007E-3	4.647567E-3	-1.250107E-3	-8.641273E-3	1.893137E-3	-3.580503E-3	-3.641881E-4	-2.399314E-3	2.756191E-3	-6.723418E-4	-1.874413E-3	1.318475E-3	-4.663570E-3	1.827598E-3	1.008246E-4	3.393292E-3	1.272045E-4	5.350993E-4	3.365297E-3	-2.442107E-3	-3.324176E-3	2.655325E-3	2.310694E-4	-2.323777E-4	7.878962E-4	-3.556888E-3	-4.042142E-4	-5.000464E-3	-1.252085E-3	1.751632E-3	-6.887969E-3	2.253070E-3	-3.851016E-3	-4.434875E-3	5.242823E-3	-2.532529E-3	-6.342832E-3	1.276740E-3	-6.159531E-3	8.045923E-4	5.545850E-4	-5.538643E-3	-3.164703E-3	3.512320E-4	-3.553042E-3	-6.715452E-3	8.022552E-3	-2.541232E-3	-4.099855E-3	8.147317E-3	-2.804084E-3	-2.825676E-3	-3.020403E-3	-3.506922E-3	-6.544935E-3	7.512291E-5	-2.985767E-4	4.462923E-4	-1.747177E-3	-2.646214E-3	-6.591164E-3	-1.144721E-3	2.590303E-3	-1.498007E-3	-1.032248E-3	5.067128E-3	-7.953456E-3	-9.342507E-4	9.689809E-3	-3.330128E-3	2.409733E-3	9.133746E-3	-3.824833E-3	1.043262E-3	1.882699E-3	-2.728538E-3	6.298801E-3	-4.889053E-3	1.772553E-3	-2.614273E-3	-5.721311E-3	-3.155688E-3	-5.832816E-3	-3.054949E-3	-5.313339E-3	-3.297788E-4	-2.693311E-3	-2.010626E-3	4.336171E-3	-1.370768E-3	3.325797E-3	2.540763E-3	6.243988E-4	-5.432621E-3	5.626691E-3	-9.316560E-3	-7.985229E-3	-2.495493E-3	4.258460E-3	2.435731E-3	1.404792E-4	-1.178599E-3	-2.909427E-3	2.225054E-3	-1.521841E-3	4.754009E-3	-4.065828E-3	-5.651510E-4	-5.351411E-4	-6.006241E-3	6.074309E-5	-7.132899E-3	4.504107E-3	-6.302988E-3	-2.545155E-3	-2.919636E-5	-1.649911E-3	-6.274837E-3	1.614050E-3	5.186085E-3	-4.414750E-3	-1.650568E-3	-5.316173E-3	-2.947526E-3	6.185166E-3	-1.859848E-3	-7.690825E-3	3.481647E-3	4.815044E-3
2.805030E+2	-2.200121E-4	-4.229968E-3	5.427931E-3	1.892574E-3	8.464027E-4	3.369643E-3	2.616193E-3	1.833485E-3	-6.736328E-3	6.240864E-4	1.341990E-3	8.681585E-3	-3.709022E-3	-6.381663E-3	-5.839127E-3	-3.517919E-3	-1.753815E-3	1.022638E-2	-1.204185E-3	3.345085E-4	2.899828E-3	1.340804E-3	3.907799E-3	-3.874563E-3	-2.894341E-3	-1.385943E-3	-2.201938E-3	-9.183054E-4	-4.314021E-3	2.716412E-3	-4.773156E-3	-8.381574E-3	-6.821364E-4	-3.400913E-3	-2.057146E-3	-1.810792E-3	-2.046337E-3	-2.672867E-3	-1.023644E-3	5.181492E-3	-2.776740E-3	3.693703E-3	-2.603710E-3	-4.566219E-3	-2.000489E-3	-2.490407E-4	-2.058308E-3	-8.447399E-4	3.835813E-3	1.305962E-3	5.931012E-4	-2.251987E-3	-4.654632E-3	-3.153519E-3	6.786050E-4	6.765644E-3	1.688622E-4	-3.165063E-3	-5.261064E-4	-2.696584E-3	-2.036591E-3	1.781781E-2	-5.702031E-4	3.424583E-3	4.292052E-3	-9.872193E-4	1.894697E-4	-2.625876E-3	-6.526025E-3	1.904994E-3	-5.840071E-4	-8.540235E-3	4.080325E-4	-3.256128E-3	-1.082247E-3	1.327121E-2	2.159520E-4	-3.203584E-3	9.036301E-4	-5.672411E-3	1.903744E-4	-4.259741E-3	-1.537249E-4	1.006036E-2	-1.073332E-3	2.931629E-3	3.342936E-3	4.499250E-3	-4.685739E-3	-3.235130E-3	-3.302658E-3	-4.576475E-3	3.840415E-3	5.678334E-3	6.417900E-3	3.569779E-3	7.825519E-3	-1.330250E-3	4.088196E-3	-2.092647E-3	-3.065714E-3	-5.830450E-3	1.298367E-3	-4.510206E-3	-2.422907E-3	-2.997220E-3	2.559334E-3	6.531608E-4	2.468957E-3	-4.496596E-3	-4.143895E-3	5.290419E-3	-7.577299E-5	3.438535E-3	-1.390838E-3	3.884279E-3	-2.414717E-4	4.914018E-4	3.410948E-4	9.780717E-3	-1.701416E-3	6.404730E-3	-7.144701E-3	-7.944553E-3	-5.491635E-4	5.814085E-3	-1.955524E-3	-1.737268E-3	6.009453E-3	1.535130E-3	-6.041078E-3	4.070821E-3	3.405861E-3	-1.148401E-3	-1.985426E-3	1.105729E-2	-6.360667E-3	4.141093E-4	5.292994E-3	-6.992715E-4	-3.981571E-4	-1.571527E-3	2.426318E-3	-3.255198E-3	8.910762E-3	-5.381299E-3	6.507266E-4	5.699605E-3	-1.862602E-3	9.454006E-4	-4.296816E-3	-3.365167E-3	3.465955E-3	-2.341637E-4	1.284451E-3	1.154671E-3	-8.594638E-4	2.184475E-3	2.292541E-3	3.060305E-3	-4.062722E-3	1.530452E-3	-4.350779E-3	-8.457984E-3	1.549072E-3	1.752765E-3	6.858864E-4	3.878584E-3	5.356020E-3	1.315395E-2	1.680158E-2
2.810070E+2	6.573785E-4	1.959887E-3	-4.431092E-3	-8.828173E-4	-3.541937E-3	-1.489585E-3	-2.160161E-3	4.501282E-4	-2.496363E-4	-7.699981E-5	4.765895E-3	-7.473153E-3	2.858524E-3	-1.188676E-3	-3.960024E-3	2.371951E-3	-1.045097E-4	-7.532143E-3	-2.468095E-3	4.722184E-3	-9.338037E-3	-3.893979E-3	-5.425587E-4	5.108710E-4	-4.442229E-3	2.210042E-3	-5.354658E-3	8.808470E-3	-4.220418E-4	-2.934153E-3	6.267842E-3	2.375358E-3	4.148287E-3	3.939074E-3	1.059894E-3	1.767624E-3	-4.537041E-3	2.483020E-3	7.294810E-3	-7.427244E-3	-5.056299E-3	2.232914E-3	-1.028260E-3	-2.566232E-4	-5.162289E-3	-9.388975E-4	1.363863E-3	1.911060E-3	1.457212E-3	2.845786E-3	-2.320052E-3	-3.831720E-3	-2.470940E-3	-6.337326E-3	7.606889E-4	-7.632342E-3	-3.870709E-3	-5.595951E-3	-4.555763E-4	-2.616050E-3	1.950852E-3	-9.053640E-3	2.887974E-3	-1.806160E-3	-3.976750E-4	-9.355802E-5	-5.701798E-3	5.967854E-3	2.492913E-3	2.681233E-3	4.932836E-3	1.160792E-2	-3.223481E-4	-1.595588E-3	-1.691224E-3	-7.754086E-3	-3.970750E-3	-2.514955E-4	7.548770E-3	-6.693868E-4	7.383097E-3	-4.205790E-3	5.331072E-3	3.266161E-3	1.045635E-3	5.542779E-3	2.760848E-3	-9.597061E-4	-5.479624E-3	-5.426004E-3	1.206043E-3	5.841554E-3	3.929296E-3	1.147183E-4	-4.252430E-3	-2.641846E-3	-1.345514E-3	-7.871895E-3	-5.218357E-3	3.216711E-3	1.124208E-3	2.060408E-3	-9.731950E-3	-1.049679E-4	-6.626577E-4	-1.350637E-3	3.397557E-3	7.642230E-4	-3.831223E-3	-2.267996E-3	7.918445E-4	7.530104E-3	-1.677222E-3	-3.803884E-3	6.683086E-3	-7.098620E-3	4.208941E-3	6.276141E-3	-2.250152E-3	-1.387399E-2	-3.456142E-3	-6.240301E-3	3.229744E-3	-3.002214E-3	2.068026E-3	-1.587564E-3	-5.638266E-4	3.574454E-3	-1.689659E-3	-4.001704E-3	6.026838E-3	-3.311672E-4	-2.742915E-3	-1.079154E-3	-1.238343E-3	-4.421128E-3	-6.739577E-4	-1.756205E-3	-3.196282E-3	1.962719E-3	-3.751640E-4	5.376320E-4	-4.394237E-4	1.110130E-3	-7.777113E-3	2.360962E-3	4.234453E-3	-6.170678E-3	2.523485E-3	-2.579415E-3	-7.442762E-3	3.563225E-3	-3.945095E-3	-1.894351E-4	-3.949618E-3	2.089813E-3	-5.695233E-3	-2.742352E-3	-4.108129E-3	-2.567643E-3	-6.473371E-3	-5.899618E-3	-6.687523E-4	-6.366096E-4	4.353367E-3	-2.147374E-3	-4.845606E-3	-7.333898E-3	-3.589559E-4	-4.072319E-3	-1.093167E-2
2.815030E+2	1.537553E-3	4.694900E-3	3.913125E-3	5.464056E-3	4.008629E-3	3.557743E-3	4.211005E-3	2.676115E-3	7.541444E-4	-3.092712E-3	-3.183895E-3	-2.107621E-3	8.121669E-3	3.518784E-4	-3.900463E-3	4.582329E-3	1.590882E-3	-4.822840E-4	-5.736992E-3	-4.213207E-3	-1.468780E-3	4.848672E-3	-4.452273E-3	1.195845E-3	-1.180115E-4	-6.517635E-3	-5.297916E-3	4.792049E-3	2.836201E-3	-5.327406E-3	-2.220397E-3	7.102169E-4	-2.054705E-3	3.674553E-4	8.766187E-3	2.027458E-4	1.268236E-3	1.305820E-3	2.312947E-3	-2.038742E-3	-6.521061E-3	-3.870178E-3	-5.505660E-3	-1.966595E-3	-4.290888E-3	4.470494E-3	-5.303408E-3	-2.939656E-3	-1.746536E-3	-2.211378E-3	8.251557E-3	2.855177E-3	3.291853E-3	2.900416E-3	8.381630E-4	2.932546E-3	-7.107515E-3	-3.878403E-3	-3.905964E-4	2.534801E-3	-1.118762E-3	3.053216E-4	7.035187E-3	4.942990E-3	5.300575E-3	-8.462181E-4	2.984200E-3	6.921343E-3	1.188723E-3	6.897819E-3	-4.069319E-3	-1.361810E-3	-5.112952E-3	6.477660E-3	-9.447491E-4	-1.484322E-3	1.228199E-3	3.437052E-3	-2.472876E-4	9.299393E-3	2.733945E-3	3.196412E-3	-6.985714E-3	3.358520E-3	3.854384E-3	3.100572E-3	2.855216E-3	7.243962E-4	2.287890E-3	-3.110833E-3	2.031154E-3	-9.425217E-4	-4.270137E-3	1.826411E-4	1.199323E-3	1.671430E-3	2.969522E-3	1.745193E-3	-8.114226E-4	8.533031E-3	-1.567427E-3	-3.738694E-3	4.118014E-3	5.171770E-3	-5.698907E-3	1.851997E-3	6.546613E-4	-5.081059E-5	-4.574484E-3	-3.071429E-5	3.671236E-3	-3.134114E-3	-1.590918E-3	-1.042437E-4	4.283759E-4	4.975567E-3	1.368210E-3	-7.606320E-3	-8.251222E-3	-9.942046E-4	5.541001E-3	8.812184E-3	5.521852E-3	9.908744E-6	2.126662E-3	3.241788E-3	4.805694E-3	7.412998E-3	-1.609914E-3	-1.850426E-3	8.589268E-4	-2.591245E-4	-3.375395E-3	5.951260E-3	3.578648E-3	1.732883E-3	-1.423600E-3	-9.431029E-4	2.341123E-3	5.508048E-3	-4.290888E-3	-2.813214E-3	1.114685E-3	4.781532E-3	5.844488E-3	-1.000611E-3	1.483583E-3	-3.541506E-3	2.658721E-3	-3.528177E-4	-2.236759E-3	-3.210766E-3	-2.154143E-3	-5.300538E-3	2.102954E-3	6.779705E-3	-3.996431E-3	-1.960995E-3	1.796036E-3	-3.928624E-3	-5.988683E-4	6.188960E-3	2.305424E-3	1.500013E-2	-5.815186E-3	-3.416728E-3	-3.376439E-3	-3.857218E-3	-3.165508E-3	-7.884241E-3	9.050826E-3
2.820030E+2	6.680969E-4	1.241212E-3	-3.500624E-3	-9.070943E-3	-1.166023E-3	2.925169E-3	7.945490E-4	-2.791630E-3	4.050800E-3	6.091055E-5	4.274766E-3	3.071271E-3	3.104345E-3	4.849336E-3	1.062971E-3	4.261976E-5	4.023440E-3	-5.880561E-3	2.994432E-3	-2.282901E-3	1.100792E-2	-4.100001E-4	3.588794E-3	-3.009107E-3	4.931411E-3	3.294998E-3	2.491069E-3	-4.660294E-3	6.045186E-3	4.877357E-4	9.090881E-4	-1.791325E-4	7.586609E-3	-1.028524E-3	-4.869581E-3	5.701351E-3	3.940348E-3	-5.619257E-3	-1.472889E-4	-4.694552E-3	1.267554E-2	6.290661E-3	7.502499E-3	1.139932E-3	7.181923E-3	1.068136E-2	3.548549E-3	3.026894E-3	-7.920208E-4	5.939822E-3	4.590359E-3	1.323257E-3	4.153981E-3	3.777391E-4	3.598688E-3	7.047192E-3	5.565515E-3	9.571046E-3	4.273316E-4	1.470875E-3	4.600828E-3	1.241869E-3	-3.450657E-4	5.318029E-3	-1.781723E-3	7.464406E-3	1.733308E-3	-1.630232E-3	5.963846E-4	6.309742E-3	-3.505213E-4	-1.363715E-3	8.847715E-3	-3.064382E-3	3.244654E-3	1.485587E-2	3.946016E-3	1.332616E-3	3.795510E-3	-1.586561E-3	3.642464E-3	-4.199099E-4	5.502825E-3	5.165239E-3	-1.569069E-3	-5.700202E-3	8.842732E-4	6.440042E-3	-7.950150E-3	6.780163E-3	3.598912E-3	-5.180107E-3	-8.865193E-4	-6.856201E-3	2.619381E-3	1.046690E-3	-4.567890E-3	4.770778E-3	2.168142E-3	-7.114696E-3	5.421643E-3	6.822173E-3	-1.054901E-3	8.766666E-3	1.139906E-2	5.079143E-3	2.872978E-3	3.627978E-3	1.164050E-2	2.217860E-3	-4.682633E-4	2.680615E-3	-8.378447E-3	-7.754134E-4	3.702265E-3	-2.347628E-3	-2.973518E-3	-5.006208E-3	6.164217E-4	1.110470E-5	-6.167878E-4	-9.155472E-3	4.120067E-3	6.001050E-3	2.198247E-3	-7.756846E-4	7.558263E-3	7.479297E-4	3.691254E-3	1.017701E-3	6.225937E-3	1.062217E-2	2.248524E-3	9.654662E-4	2.991884E-3	2.699160E-3	-1.363660E-3	-3.125843E-3	1.646785E-3	-3.077574E-3	-2.543535E-4	4.109098E-3	4.605466E-4	-1.626890E-3	6.797679E-3	5.078723E-3	-5.699364E-4	1.682997E-3	1.141648E-2	3.340903E-3	3.006145E-3	2.044640E-3	-1.237886E-3	1.026591E-2	-5.158080E-3	-2.299110E-3	5.092091E-3	2.424393E-3	1.224273E-3	6.211490E-3	3.639504E-3	7.786575E-3	3.847250E-3	4.719498E-3	7.351388E-3	4.659775E-3	3.046675E-3	7.612295E-3	5.657894E-3	3.769675E-3	9.149084E-3
2.825030E+2	-1.962491E-3	9.318852E-3	6.575856E-3	1.339325E-3	7.915314E-3	4.454115E-3	5.107174E-3	-3.035041E-4	1.306989E-2	4.805814E-3	7.075453E-3	-4.119641E-3	1.731202E-3	7.910352E-3	1.162495E-2	6.786143E-3	8.850547E-3	1.225023E-3	5.763276E-3	1.815440E-3	7.838157E-3	7.734927E-3	2.502047E-4	2.770855E-3	1.079518E-2	7.840738E-3	6.458429E-3	3.972715E-3	3.039821E-3	1.401634E-3	5.307412E-3	2.672944E-3	2.915465E-3	3.451961E-3	7.467410E-3	2.582306E-3	4.670409E-3	9.194861E-3	8.272613E-3	-1.682430E-3	8.833115E-3	-1.382697E-3	3.034049E-3	4.837117E-4	1.134463E-2	-2.251813E-3	2.288139E-3	1.174906E-3	2.648148E-3	4.566998E-3	-2.857048E-3	3.300293E-3	-5.103124E-3	4.444557E-3	3.042841E-3	-4.759050E-3	1.490951E-2	2.142392E-3	1.285254E-2	2.486076E-3	-8.445522E-4	3.894371E-3	1.794700E-3	-4.451333E-3	4.787592E-3	5.094334E-3	5.840407E-3	5.634598E-3	9.111193E-3	-4.662247E-3	4.637256E-3	-9.730397E-4	3.395617E-3	9.123309E-3	6.807030E-3	3.358017E-3	6.770782E-3	1.423300E-3	5.246202E-3	2.679605E-3	1.018108E-2	7.801051E-3	2.499818E-3	9.735207E-4	-7.270521E-4	1.390845E-3	1.715045E-3	8.821838E-3	1.401688E-2	1.609573E-3	5.995422E-3	4.463220E-3	3.520926E-3	4.626149E-3	-5.422192E-3	2.879443E-3	1.560644E-3	1.916522E-3	3.011681E-3	-1.948109E-3	2.816294E-3	3.676821E-3	1.496063E-2	3.398782E-4	4.943981E-3	2.871222E-3	2.295878E-3	-2.115988E-3	1.033559E-2	1.331014E-2	6.006767E-3	-8.291811E-5	8.168176E-3	-6.736997E-4	8.611873E-3	2.262740E-3	3.739100E-3	1.046729E-2	1.229011E-2	7.280285E-3	-1.382190E-3	4.480249E-3	7.188873E-3	6.884984E-3	2.276264E-3	-4.989570E-5	2.356337E-3	3.828207E-3	-4.104463E-3	5.332535E-3	-1.974523E-3	4.414352E-3	3.042484E-3	-2.135214E-4	3.732778E-4	6.302781E-3	1.149911E-3	1.277847E-2	5.677774E-3	5.715752E-3	2.182373E-3	-6.127861E-4	4.276239E-3	-2.266225E-3	2.666017E-3	5.164811E-3	6.618479E-3	6.092899E-3	-8.054237E-3	1.267409E-3	1.089605E-2	5.620174E-3	3.914842E-3	4.294372E-3	3.631016E-3	-4.105860E-4	3.535391E-3	2.527436E-3	4.591179E-3	5.619024E-3	4.145885E-4	1.085513E-3	8.337448E-3	3.966183E-3	-1.539437E-4	1.147090E-2	-2.508312E-3	1.004070E-2	-9.353213E-5	3.865123E-3	-1.480373E-2
2.830060E+2	-1.962491E-3	1.386490E-2	9.997301E-3	2.283880E-3	9.505546E-3	5.253404E-3	1.083039E-2	8.558852E-3	9.080796E-3	9.787535E-4	2.416931E-3	1.814011E-3	1.277041E-2	2.062432E-2	5.532601E-3	6.881622E-3	1.052176E-2	1.854796E-2	1.390391E-2	2.705165E-3	5.942310E-3	8.501098E-3	8.930269E-3	2.157746E-3	4.293027E-3	8.816502E-3	1.432049E-2	7.953784E-3	-2.345131E-3	1.304862E-2	9.710758E-3	2.754289E-3	9.404072E-3	-3.100953E-3	-3.188278E-3	1.558487E-2	1.442446E-2	9.518227E-4	9.648536E-3	9.342544E-3	6.529816E-3	2.416666E-4	1.535279E-2	2.857901E-3	8.974660E-3	1.166014E-2	1.324369E-2	1.628339E-2	2.784094E-2	5.379987E-3	5.525146E-3	6.430236E-3	1.082195E-2	4.533595E-3	9.159306E-3	5.697748E-3	4.951157E-3	8.932394E-3	5.835815E-4	1.692297E-2	6.388107E-3	2.018330E-2	6.662129E-3	7.951650E-4	1.135010E-2	5.165778E-3	5.912706E-3	-1.416173E-3	4.994988E-3	5.828842E-3	2.268073E-3	1.347454E-3	1.169526E-2	-4.960741E-4	2.748600E-3	8.165841E-3	5.979446E-3	7.507591E-4	3.333623E-3	4.805562E-3	8.668030E-3	-2.905459E-4	5.693557E-3	-4.502214E-3	1.113620E-2	4.653753E-3	7.344584E-3	-6.327941E-4	2.892881E-2	-4.419327E-3	1.057007E-2	5.320592E-3	5.266756E-3	8.271732E-3	4.843089E-3	1.534127E-2	7.827902E-4	1.461175E-2	1.186309E-2	1.918982E-2	1.761298E-2	1.123902E-3	5.794187E-3	-7.055806E-3	1.634506E-2	1.003264E-2	9.372288E-4	4.844256E-3	1.461615E-2	1.120197E-2	1.035612E-2	1.205163E-2	1.606414E-2	2.304146E-3	5.590799E-3	6.223841E-3	1.347841E-2	1.440209E-2	3.572089E-3	1.886894E-2	1.429608E-2	4.588076E-3	1.030914E-2	2.757394E-3	1.477351E-2	1.166551E-5	5.813371E-3	5.878213E-3	1.698767E-2	7.536359E-3	4.952910E-3	6.044337E-3	6.682313E-3	6.258921E-3	6.623439E-3	6.921295E-3	2.590524E-2	6.855252E-3	1.053118E-2	8.025073E-3	1.990826E-2	8.415338E-3	9.596068E-3	1.104697E-2	5.343420E-3	-1.669449E-3	8.848302E-3	8.754596E-3	3.937717E-6	1.445218E-2	7.108708E-3	9.186221E-3	1.415418E-2	7.816878E-3	1.110898E-2	1.541486E-2	8.562804E-3	1.056495E-2	2.704690E-3	1.801793E-2	1.135392E-2	4.020678E-4	1.429707E-2	4.928921E-3	4.079858E-3	1.090924E-2	3.243851E-3	2.045205E-2	4.374675E-3	1.367360E-2	1.318022E-3
2.835020E+2	6.866902E-4	6.798850E-3	6.719930E-3	8.406235E-3	1.635443E-2	1.465928E-2	8.804150E-3	9.455990E-3	1.975891E-2	1.744086E-2	5.195712E-3	1.658561E-2	9.917648E-3	1.848902E-2	1.117871E-2	6.971153E-3	1.614370E-2	2.021769E-2	1.399217E-2	1.724930E-2	9.961295E-3	1.735805E-2	7.864950E-3	5.813733E-3	2.502093E-2	1.604510E-2	1.245498E-2	8.047415E-3	1.333513E-2	1.480101E-2	5.447112E-3	7.678844E-3	1.912964E-2	1.244582E-2	1.303793E-2	1.811636E-2	1.451464E-2	1.326621E-2	9.741933E-3	9.454552E-3	2.819236E-2	1.870821E-3	1.008148E-2	1.674320E-2	1.313454E-2	1.637810E-2	9.927151E-3	7.217790E-3	2.378548E-2	1.880243E-2	7.879161E-3	2.695458E-3	2.248963E-2	4.623716E-3	5.891775E-3	5.102423E-3	2.014925E-2	1.069738E-2	7.941029E-3	1.326481E-2	1.445678E-2	1.003607E-2	1.155550E-2	9.975152E-3	8.210386E-3	2.351581E-2	6.663670E-3	2.253025E-2	2.265248E-3	1.568443E-2	1.832019E-2	9.613455E-3	1.426555E-2	2.806946E-3	1.320025E-2	9.851051E-3	1.215114E-2	1.034912E-2	8.080372E-3	1.381602E-2	1.197307E-2	1.167114E-2	1.204571E-2	3.532368E-3	2.028384E-2	1.242795E-2	3.272952E-3	1.109798E-2	2.906458E-2	-5.475154E-4	1.292610E-2	8.522566E-3	2.134115E-2	1.481525E-2	2.064128E-2	1.667307E-3	1.973324E-2	1.620767E-2	6.096825E-3	8.232490E-3	1.000706E-2	1.511841E-2	5.231337E-3	1.357024E-2	3.396531E-2	1.017820E-2	3.195855E-3	1.349106E-2	2.047061E-2	1.572369E-2	1.046263E-2	4.517879E-3	1.534637E-2	1.202158E-2	5.610106E-3	1.224600E-2	9.106002E-3	7.469858E-3	3.654261E-3	4.499894E-3	1.896543E-2	9.213320E-3	1.713739E-2	1.136462E-2	2.805601E-2	1.382692E-2	1.126320E-2	1.390012E-2	1.708485E-2	1.612635E-2	1.036480E-2	1.562200E-2	1.104812E-2	8.913077E-3	1.701184E-2	5.128231E-3	2.048250E-2	1.681015E-2	7.489560E-3	5.917263E-4	2.331333E-2	4.994357E-3	9.698596E-3	1.269490E-2	2.171089E-2	1.735831E-2	8.214974E-3	1.750164E-2	1.254233E-2	1.456848E-2	2.643514E-3	4.397532E-3	6.822950E-3	5.328769E-3	8.534819E-3	7.699327E-3	2.030539E-2	1.282851E-2	1.067677E-2	1.560466E-2	1.480808E-2	1.111730E-2	7.796063E-3	1.269029E-2	6.323062E-3	5.635204E-3	1.204419E-3	2.721083E-3	3.572519E-2	1.183522E-2	1.352713E-2
2.840000E+2	-1.962491E-3	2.564062E-2	1.516863E-2	2.409818E-2	1.577577E-2	1.834527E-2	2.233096E-2	1.836396E-2	2.232654E-2	2.066854E-2	7.980985E-3	1.522333E-2	2.841755E-2	2.678529E-2	2.119170E-2	2.377118E-2	1.942755E-2	3.605872E-2	2.014775E-2	2.299101E-2	2.522420E-2	1.881679E-2	1.891188E-2	1.876334E-2	1.604309E-2	3.224050E-2	2.166820E-2	2.376725E-2	1.969757E-2	1.571813E-2	1.296775E-2	2.163859E-2	2.567435E-2	1.696252E-2	1.930336E-2	2.795000E-2	2.499191E-2	2.499459E-2	2.790841E-2	2.128810E-2	2.511298E-2	2.467014E-2	2.246352E-2	1.299701E-2	2.795931E-2	2.806241E-2	2.847703E-2	2.701214E-2	2.222611E-2	1.370450E-2	2.316575E-2	2.346684E-2	2.114420E-2	2.333236E-2	2.081484E-2	2.537942E-2	3.287956E-2	1.499317E-2	1.605550E-2	1.488397E-2	1.854606E-2	3.326170E-2	1.991049E-2	1.985029E-2	3.759119E-2	3.028586E-2	2.360105E-2	1.867310E-2	3.048438E-2	1.509156E-2	2.151353E-2	8.253682E-3	2.840596E-2	2.398463E-2	7.741907E-3	1.231886E-2	1.834018E-2	2.586542E-2	9.505011E-3	2.906334E-2	2.895526E-2	1.623075E-2	2.863801E-2	1.399279E-2	2.178644E-2	1.830713E-2	2.776817E-2	7.771638E-3	3.005690E-2	6.397376E-3	9.260071E-3	8.618908E-3	3.241553E-2	2.066540E-2	2.897642E-2	2.111250E-2	2.071663E-2	2.452208E-2	2.015157E-2	1.546118E-2	2.345935E-2	1.722527E-2	1.333483E-2	1.162736E-2	3.151603E-2	1.744528E-2	9.812067E-3	1.984876E-2	2.388690E-2	2.619030E-2	1.844689E-2	2.001126E-2	2.243282E-2	2.177810E-2	1.143226E-2	3.208334E-2	1.742448E-2	1.985764E-2	2.156755E-2	1.530323E-2	3.014952E-2	1.004294E-2	3.225840E-2	2.341713E-2	2.565650E-2	1.461131E-2	2.613863E-2	2.267349E-2	3.929948E-2	2.190380E-2	1.656054E-2	1.572384E-2	1.042335E-2	1.542511E-2	1.918120E-2	1.307602E-2	4.786916E-2	1.918657E-2	2.105832E-2	1.878466E-2	2.744115E-2	2.525619E-2	2.477133E-2	3.615212E-2	3.640000E-2	2.622706E-2	1.402235E-2	2.995191E-2	1.409625E-2	2.344275E-2	9.914180E-3	2.279830E-2	2.911270E-2	2.101330E-2	5.911352E-3	1.752771E-2	1.873471E-2	1.146617E-2	1.340371E-2	1.498901E-2	2.916906E-2	1.501411E-2	2.259920E-2	3.278766E-2	2.814604E-2	3.275284E-2	2.343542E-2	1.411623E-2	2.707711E-2	3.346460E-2	3.791573E-2
2.841030E+2	-1.884434E-4	2.666269E-2	1.442148E-2	2.596567E-2	1.583186E-2	2.205964E-2	2.316582E-2	2.169679E-2	1.834298E-2	2.312539E-2	2.169277E-2	1.902456E-2	1.306845E-2	3.213791E-2	2.877624E-2	2.323622E-2	2.670240E-2	2.830219E-2	2.296815E-2	3.603745E-2	2.534797E-2	2.368203E-2	2.192535E-2	1.531848E-2	2.697502E-2	2.072813E-2	1.523503E-2	2.546094E-2	1.592969E-2	2.164384E-2	1.866590E-2	3.150044E-2	2.341107E-2	2.669806E-2	2.096881E-2	2.889092E-2	2.316507E-2	2.060953E-2	2.740262E-2	1.921858E-2	3.170615E-2	1.143867E-2	1.255935E-2	2.388431E-2	4.542456E-2	2.276640E-2	2.243514E-2	1.594696E-2	3.504593E-2	1.677769E-2	2.937957E-2	2.512857E-2	3.072028E-2	1.813585E-2	2.364298E-2	1.156983E-2	4.063947E-2	2.270522E-2	1.981994E-2	2.032267E-2	2.349949E-2	2.309671E-2	1.449825E-2	5.589665E-3	2.146512E-2	2.624094E-2	2.439690E-2	2.279282E-2	2.075326E-2	2.221012E-2	1.422709E-2	1.880790E-2	1.776294E-2	2.165888E-2	2.451279E-2	1.243146E-2	2.718159E-2	2.082471E-2	1.629811E-2	1.953703E-2	2.425397E-2	1.856632E-2	3.821550E-2	1.490628E-2	1.559506E-2	2.293124E-2	1.742584E-2	6.498327E-3	4.423442E-2	2.104739E-2	2.293175E-2	2.430827E-2	3.593049E-2	2.437986E-2	3.460738E-2	1.915884E-2	3.118701E-2	2.015029E-2	1.362907E-2	1.079436E-2	1.864017E-2	1.601419E-2	2.014895E-2	2.814930E-2	2.375933E-2	1.593944E-2	2.589706E-2	1.996484E-2	3.142222E-2	1.667646E-2	1.713599E-2	2.154459E-2	3.044199E-2	1.518978E-2	2.454810E-2	1.770682E-2	1.828023E-2	2.063272E-2	2.996398E-2	2.541432E-2	3.210673E-2	2.462716E-2	2.185159E-2	1.757730E-2	2.579004E-2	1.542212E-2	2.291951E-2	2.716470E-2	2.891409E-2	9.175124E-3	2.432994E-2	2.645754E-2	1.901560E-2	2.907221E-2	2.620324E-2	1.678737E-2	4.223942E-2	1.396556E-2	1.879811E-2	1.891050E-2	3.564457E-2	8.684407E-3	1.514159E-2	1.785974E-2	2.710193E-2	3.244971E-2	2.777604E-2	3.422512E-2	1.346220E-2	2.651007E-2	2.576454E-2	2.983618E-2	2.154401E-2	1.939455E-2	1.549213E-2	2.564303E-2	2.883405E-2	8.649034E-3	2.276950E-2	3.969866E-2	2.426243E-2	1.129454E-2	2.937196E-2	2.270451E-2	1.774289E-2	1.665081E-2	3.288829E-2	-1.914514E-3	3.912923E-2	2.379400E-2	1.778678E-2
2.842030E+2	-1.073456E-3	2.402067E-2	3.137933E-2	3.304613E-2	2.575971E-2	2.869567E-2	4.393052E-2	2.828566E-2	4.065153E-2	2.718618E-2	2.933589E-2	2.952187E-2	3.980033E-2	4.577179E-2	3.641034E-2	3.211291E-2	4.435340E-2	2.368764E-2	2.173906E-2	3.702909E-2	3.411129E-2	2.654594E-2	2.845217E-2	4.274259E-2	4.045112E-2	3.883413E-2	3.173920E-2	4.210790E-2	3.258018E-2	3.510995E-2	2.252906E-2	3.166658E-2	3.810924E-2	2.534640E-2	3.351708E-2	3.394002E-2	2.917429E-2	3.049829E-2	3.081012E-2	3.632407E-2	2.784841E-2	3.833273E-2	4.048744E-2	3.561293E-2	5.138360E-2	3.609816E-2	3.631983E-2	2.862028E-2	4.706540E-2	2.212428E-2	4.406082E-2	3.992383E-2	4.036223E-2	3.433225E-2	3.939407E-2	2.709091E-2	4.339875E-2	4.489369E-2	2.949314E-2	2.580048E-2	4.463426E-2	4.217884E-2	2.430783E-2	3.452898E-2	6.011114E-2	3.307297E-2	3.064105E-2	3.897428E-2	2.726008E-2	3.290695E-2	2.612092E-2	3.092504E-2	3.453901E-2	3.566845E-2	3.580813E-2	3.397452E-2	5.374392E-2	2.981562E-2	1.641756E-2	3.073935E-2	5.037267E-2	3.517145E-2	1.705948E-2	2.786641E-2	3.398251E-2	1.208069E-2	2.877529E-2	2.386455E-2	4.090305E-2	1.501919E-2	2.987742E-2	2.992925E-2	3.951819E-2	3.174287E-2	3.408572E-2	3.807302E-2	4.520591E-2	2.027061E-2	3.962555E-2	5.476674E-2	3.007767E-2	2.083687E-2	3.778595E-2	1.901477E-2	5.548565E-2	3.285308E-2	3.408512E-2	5.065847E-2	4.152394E-2	4.059337E-2	3.159482E-2	4.415352E-2	4.370179E-2	2.051416E-2	3.607734E-2	2.895074E-2	3.486267E-2	3.832840E-2	3.703632E-2	2.943599E-2	5.151330E-2	2.629115E-2	3.860005E-2	2.801585E-2	4.104559E-2	2.107180E-2	2.171487E-2	3.532109E-2	3.522019E-2	2.643438E-2	3.061225E-2	4.462641E-2	3.618753E-2	2.535729E-2	3.672968E-2	4.277659E-2	4.490629E-2	2.324444E-2	3.647427E-2	2.934100E-2	5.361669E-2	2.760931E-2	3.258574E-2	3.649401E-2	4.965543E-2	3.957663E-2	2.647930E-2	3.853205E-2	4.231484E-2	3.475154E-2	1.407580E-2	4.688935E-2	2.768138E-2	2.126112E-2	3.465682E-2	4.981561E-2	3.815241E-2	2.920614E-2	2.755240E-2	4.787194E-2	4.379666E-2	3.592702E-2	3.026803E-2	3.392161E-2	4.463617E-2	3.648532E-2	4.672117E-2	1.918676E-2	2.284918E-2	2.589070E-2	2.603714E-2
2.843030E+2	-1.071692E-3	4.121054E-2	4.754767E-2	5.587753E-2	3.958093E-2	4.404715E-2	4.411725E-2	4.863095E-2	5.665637E-2	5.359259E-2	3.703554E-2	4.233215E-2	3.033338E-2	6.522664E-2	3.910561E-2	4.243924E-2	5.906135E-2	4.388563E-2	3.684218E-2	6.646989E-2	3.772473E-2	4.379467E-2	4.491695E-2	6.961257E-2	7.641099E-2	5.071301E-2	3.122564E-2	5.568636E-2	5.877961E-2	7.288575E-2	3.518015E-2	4.372190E-2	5.691268E-2	3.814418E-2	6.011050E-2	5.290077E-2	4.044857E-2	6.193254E-2	5.767236E-2	5.056597E-2	5.302793E-2	3.771783E-2	5.382472E-2	5.513440E-2	7.471238E-2	4.715562E-2	4.476163E-2	5.328656E-2	7.015873E-2	3.948533E-2	4.118198E-2	2.156591E-2	4.931530E-2	4.592660E-2	4.978942E-2	5.883353E-2	5.291857E-2	6.293281E-2	4.731578E-2	4.124617E-2	5.046065E-2	6.740733E-2	4.945410E-2	5.048971E-2	6.036017E-2	5.671592E-2	5.325263E-2	6.327120E-2	5.226055E-2	4.929921E-2	4.118758E-2	5.958222E-2	6.720095E-2	6.365553E-2	5.485661E-2	5.721940E-2	6.980163E-2	3.737285E-2	3.878332E-2	5.728581E-2	6.682129E-2	4.135477E-2	6.627086E-2	4.170625E-2	4.822970E-2	4.914638E-2	5.355152E-2	2.955677E-2	8.439826E-2	3.980922E-2	4.975489E-2	3.558220E-2	4.657220E-2	4.059627E-2	5.705388E-2	4.245424E-2	6.282658E-2	5.502761E-2	5.018842E-2	6.778143E-2	4.938807E-2	4.511704E-2	6.089739E-2	5.294990E-2	6.624941E-2	3.952577E-2	5.032272E-2	4.143563E-2	6.409544E-2	4.897395E-2	4.616850E-2	4.507511E-2	4.387868E-2	3.707571E-2	4.684709E-2	5.485997E-2	4.851833E-2	2.937664E-2	4.344730E-2	4.658219E-2	7.200043E-2	4.636731E-2	3.421479E-2	6.000044E-2	4.745548E-2	4.970053E-2	3.946938E-2	6.755455E-2	5.930112E-2	3.876187E-2	4.768568E-2	5.795173E-2	4.632843E-2	4.561030E-2	5.424405E-2	4.875646E-2	6.090914E-2	5.861710E-2	5.423792E-2	4.140474E-2	7.330072E-2	4.734105E-2	5.767219E-2	6.593572E-2	6.367118E-2	5.635290E-2	4.179637E-2	7.021505E-2	5.062641E-2	6.156397E-2	4.785888E-2	6.863117E-2	6.740044E-2	5.846327E-2	3.958322E-2	7.052270E-2	5.168259E-2	5.143731E-2	4.831363E-2	5.971208E-2	8.624266E-2	3.072873E-2	5.786601E-2	4.122685E-2	5.824236E-2	5.711115E-2	3.683302E-2	3.752545E-2	3.944541E-2	4.969833E-2	7.510165E-2
2.844030E+2	4.285109E-3	5.129020E-2	6.125053E-2	7.181316E-2	6.797625E-2	5.656008E-2	7.288847E-2	5.772422E-2	6.814965E-2	7.141892E-2	5.575861E-2	7.899640E-2	6.165705E-2	9.847809E-2	4.556751E-2	6.093373E-2	5.734605E-2	8.503362E-2	5.543521E-2	5.210135E-2	5.256041E-2	7.275582E-2	5.678504E-2	9.588249E-2	7.788602E-2	9.336336E-2	4.527006E-2	9.869822E-2	4.644616E-2	9.627614E-2	5.551772E-2	7.634580E-2	6.556090E-2	7.471694E-2	7.518503E-2	7.615789E-2	5.740025E-2	6.232343E-2	7.032684E-2	8.345554E-2	9.474624E-2	6.661371E-2	6.883332E-2	7.250669E-2	8.076052E-2	6.952583E-2	6.573025E-2	8.013218E-2	7.752923E-2	7.588171E-2	5.058863E-2	6.355602E-2	5.307241E-2	6.705711E-2	5.478919E-2	5.981380E-2	9.308070E-2	7.001971E-2	5.934796E-2	5.678624E-2	8.144493E-2	5.814250E-2	5.732630E-2	5.993423E-2	9.102798E-2	6.198402E-2	5.960919E-2	7.963806E-2	6.244802E-2	6.368773E-2	5.386200E-2	6.213323E-2	7.413969E-2	6.884555E-2	5.929019E-2	7.182381E-2	8.769451E-2	5.761113E-2	5.654173E-2	8.327222E-2	7.684227E-2	6.340604E-2	7.446615E-2	7.739159E-2	6.821905E-2	6.954496E-2	7.354301E-2	6.098377E-2	8.911627E-2	5.700635E-2	6.061909E-2	6.563672E-2	7.406998E-2	5.314324E-2	6.976267E-2	7.065221E-2	8.674254E-2	4.701821E-2	6.835567E-2	9.372132E-2	6.597598E-2	6.227297E-2	6.329233E-2	4.678911E-2	1.044164E-1	6.546310E-2	6.519705E-2	9.438626E-2	8.102703E-2	6.125486E-2	6.664300E-2	7.847802E-2	8.532962E-2	4.996610E-2	7.225380E-2	7.477102E-2	6.592799E-2	5.632532E-2	6.442650E-2	6.843196E-2	8.793249E-2	5.806162E-2	7.004519E-2	6.885543E-2	8.608043E-2	4.777497E-2	6.682389E-2	7.804451E-2	1.055150E-1	5.977865E-2	6.328845E-2	7.461681E-2	6.864014E-2	6.400654E-2	6.417927E-2	6.702173E-2	1.128893E-1	5.268629E-2	6.485946E-2	5.511617E-2	8.819316E-2	6.505535E-2	7.606640E-2	7.619453E-2	8.553026E-2	7.234462E-2	6.442946E-2	7.792892E-2	6.712035E-2	7.150504E-2	5.997996E-2	7.506388E-2	8.919407E-2	6.600108E-2	6.368724E-2	8.507564E-2	7.619047E-2	6.790617E-2	5.984051E-2	8.254310E-2	7.210656E-2	6.789629E-2	5.810042E-2	5.650423E-2	5.774294E-2	5.889091E-2	6.590597E-2	6.938241E-2	9.814809E-2	9.384259E-2	8.346954E-2
2.845010E+2	7.203272E-4	7.404541E-2	7.076848E-2	6.413249E-2	7.506253E-2	6.621975E-2	1.046558E-1	7.496237E-2	7.576330E-2	9.154329E-2	8.350999E-2	8.373458E-2	6.988560E-2	1.063878E-1	6.400032E-2	8.014771E-2	7.644584E-2	1.085339E-1	7.136218E-2	7.513783E-2	6.697828E-2	1.004412E-1	7.749801E-2	1.092339E-1	1.070430E-1	1.045704E-1	7.720811E-2	1.211747E-1	7.771831E-2	1.296651E-1	6.328800E-2	9.491095E-2	8.368008E-2	9.980558E-2	8.012098E-2	8.956146E-2	7.410280E-2	9.928766E-2	8.236350E-2	9.043362E-2	8.048115E-2	1.023013E-1	8.158077E-2	1.001005E-1	6.699615E-2	8.845590E-2	7.989712E-2	8.451335E-2	8.374445E-2	7.868360E-2	8.931895E-2	8.870189E-2	8.911154E-2	8.156778E-2	7.280078E-2	8.619987E-2	8.692773E-2	9.822801E-2	7.741716E-2	8.865065E-2	7.738480E-2	1.170528E-1	5.903523E-2	8.280931E-2	9.399876E-2	1.041565E-1	7.217817E-2	1.010340E-1	6.270786E-2	6.477884E-2	7.975487E-2	1.016423E-1	8.527625E-2	8.653980E-2	6.799662E-2	8.336833E-2	1.065101E-1	9.307197E-2	7.917497E-2	9.757366E-2	8.847435E-2	9.179444E-2	9.625776E-2	5.911727E-2	7.811805E-2	8.164030E-2	8.164033E-2	7.660169E-2	1.320081E-1	6.890105E-2	7.461415E-2	7.462190E-2	8.892139E-2	7.389745E-2	8.201376E-2	8.992535E-2	1.090106E-1	6.400930E-2	8.517920E-2	9.663431E-2	7.485914E-2	6.582221E-2	8.743162E-2	9.183254E-2	1.109504E-1	7.945596E-2	7.285390E-2	8.223875E-2	9.488768E-2	6.520220E-2	8.784599E-2	8.651121E-2	1.013114E-1	7.869740E-2	8.868832E-2	7.056718E-2	6.827107E-2	6.833933E-2	9.940847E-2	9.889663E-2	1.151026E-1	6.518215E-2	8.167212E-2	9.327080E-2	9.422688E-2	8.359610E-2	7.659731E-2	9.296035E-2	9.052018E-2	7.296620E-2	7.972410E-2	7.815041E-2	8.820121E-2	6.488877E-2	9.505282E-2	9.404874E-2	1.081660E-1	8.598078E-2	9.880661E-2	7.847697E-2	9.253440E-2	7.711558E-2	8.088073E-2	8.076980E-2	1.222510E-1	7.697640E-2	5.810569E-2	8.568250E-2	7.402618E-2	7.100460E-2	6.816974E-2	9.774127E-2	8.946568E-2	8.212222E-2	6.940662E-2	9.970031E-2	9.324507E-2	6.224951E-2	6.542423E-2	9.745871E-2	8.423409E-2	7.122990E-2	7.024703E-2	8.539438E-2	7.996589E-2	9.415504E-2	9.223647E-2	5.910118E-2	1.210241E-1	9.812987E-2	7.964698E-2
2.846030E+2	3.413826E-3	1.463022E-1	1.407107E-1	1.443095E-1	1.251413E-1	1.160691E-1	1.315631E-1	1.516717E-1	1.220081E-1	1.588802E-1	1.162540E-1	1.370946E-1	1.096596E-1	1.655213E-1	1.185322E-1	1.463810E-1	1.468152E-1	1.627007E-1	1.237237E-1	1.653394E-1	1.223415E-1	1.523355E-1	1.388599E-1	2.060972E-1	1.595310E-1	2.035794E-1	1.199305E-1	1.795134E-1	1.273422E-1	2.355801E-1	1.375041E-1	1.968849E-1	1.714333E-1	1.861738E-1	1.548074E-1	1.673432E-1	1.195221E-1	1.588166E-1	1.601227E-1	1.831609E-1	1.390288E-1	1.954667E-1	1.490258E-1	1.683717E-1	1.434549E-1	1.955988E-1	1.093778E-1	1.410005E-1	1.905480E-1	1.464361E-1	1.676190E-1	1.520891E-1	1.374202E-1	1.292771E-1	1.883054E-1	1.381854E-1	1.753156E-1	1.995131E-1	1.572058E-1	1.699850E-1	1.575661E-1	2.003825E-1	1.287023E-1	1.355995E-1	1.820560E-1	1.777109E-1	1.163587E-1	1.751719E-1	1.327370E-1	1.669505E-1	1.427856E-1	1.730366E-1	1.502339E-1	1.734362E-1	1.254509E-1	1.479702E-1	1.608959E-1	1.541477E-1	1.427841E-1	1.618041E-1	1.415726E-1	1.611707E-1	1.437603E-1	1.478756E-1	1.340199E-1	1.377831E-1	1.593031E-1	1.447171E-1	1.952432E-1	1.382006E-1	1.408012E-1	1.376061E-1	1.184138E-1	1.767905E-1	1.335041E-1	1.482943E-1	1.417181E-1	1.549609E-1	1.380539E-1	1.619280E-1	1.374370E-1	1.419211E-1	1.298461E-1	1.777217E-1	2.003597E-1	1.318003E-1	1.428925E-1	1.554613E-1	1.851023E-1	1.414208E-1	1.352955E-1	1.521123E-1	1.950269E-1	1.254717E-1	1.569758E-1	1.493454E-1	1.347680E-1	1.501323E-1	1.673535E-1	1.886115E-1	1.808232E-1	1.225879E-1	1.162830E-1	1.680484E-1	1.714608E-1	1.090997E-1	1.349166E-1	1.630081E-1	1.717103E-1	1.274500E-1	1.473634E-1	1.561121E-1	1.329985E-1	1.279031E-1	1.582550E-1	1.451553E-1	1.974257E-1	1.194673E-1	1.643363E-1	1.571262E-1	1.615167E-1	1.385469E-1	1.526876E-1	1.529919E-1	1.922083E-1	1.641698E-1	1.442775E-1	1.677940E-1	1.368405E-1	1.479702E-1	1.296576E-1	1.809603E-1	1.642781E-1	1.656189E-1	1.074717E-1	1.987798E-1	1.373537E-1	1.239206E-1	1.280569E-1	1.784447E-1	2.020185E-1	1.435874E-1	1.415533E-1	1.607745E-1	1.243978E-1	1.523290E-1	1.230663E-1	1.480978E-1	2.058691E-1	1.423494E-1	1.661087E-1
2.847020E+2	7.915517E-3	3.158159E-1	2.936412E-1	3.305178E-1	2.600119E-1	3.059085E-1	2.968787E-1	3.632654E-1	2.971818E-1	3.361860E-1	2.890623E-1	3.256323E-1	2.512097E-1	3.987431E-1	2.600855E-1	3.193033E-1	3.068017E-1	3.887419E-1	2.657518E-1	3.420527E-1	2.482693E-1	3.341282E-1	3.608544E-1	4.795343E-1	3.844205E-1	4.835038E-1	3.272237E-1	4.036725E-1	3.048471E-1	4.972485E-1	3.078800E-1	3.942050E-1	3.854442E-1	3.887527E-1	3.468759E-1	4.116578E-1	2.653855E-1	3.690305E-1	3.811703E-1	4.108878E-1	3.587267E-1	4.640105E-1	3.530980E-1	3.638569E-1	3.057109E-1	4.723172E-1	3.189752E-1	3.534391E-1	4.208256E-1	3.658422E-1	3.632564E-1	3.782976E-1	3.131784E-1	3.002019E-1	3.753024E-1	3.459338E-1	3.839015E-1	4.282702E-1	3.245773E-1	3.739622E-1	3.436867E-1	4.973590E-1	2.929850E-1	3.438332E-1	3.865309E-1	4.126139E-1	2.915371E-1	4.357798E-1	3.177169E-1	3.697117E-1	3.294962E-1	4.250784E-1	3.344197E-1	3.867136E-1	3.105783E-1	3.915513E-1	3.242103E-1	3.809882E-1	2.967467E-1	3.640703E-1	3.543334E-1	4.062917E-1	3.700624E-1	3.427944E-1	3.227380E-1	3.288905E-1	3.675924E-1	3.316138E-1	4.033830E-1	3.198773E-1	3.232515E-1	3.760613E-1	2.968051E-1	3.722528E-1	3.248829E-1	3.155838E-1	3.553128E-1	3.324096E-1	3.491691E-1	3.777450E-1	2.695034E-1	3.360027E-1	3.572993E-1	3.593866E-1	3.972324E-1	3.395647E-1	3.330228E-1	3.795500E-1	3.191076E-1	3.696338E-1	3.396643E-1	3.180909E-1	3.711154E-1	2.869537E-1	3.767446E-1	3.446744E-1	2.542629E-1	2.899510E-1	3.356239E-1	3.708126E-1	3.809339E-1	3.208482E-1	3.287416E-1	3.833510E-1	3.313637E-1	3.311168E-1	3.224721E-1	3.633710E-1	4.120838E-1	2.904125E-1	3.853993E-1	3.556690E-1	3.026552E-1	3.004433E-1	3.626303E-1	3.545169E-1	4.007611E-1	2.964397E-1	3.456645E-1	3.485209E-1	3.276759E-1	2.830145E-1	3.751763E-1	3.489698E-1	3.781883E-1	3.381887E-1	3.024681E-1	3.968135E-1	2.879911E-1	3.553852E-1	3.070112E-1	4.059926E-1	4.244379E-1	3.517419E-1	2.512379E-1	4.045111E-1	3.371107E-1	2.942560E-1	3.121231E-1	3.509191E-1	4.040193E-1	3.127057E-1	3.332318E-1	3.790417E-1	2.947836E-1	3.206923E-1	3.333112E-1	3.546295E-1	3.864328E-1	2.968890E-1	3.970248E-1
2.848000E+2	1.423476E-2	6.604787E-1	5.941368E-1	7.019745E-1	5.604185E-1	6.168927E-1	6.174435E-1	7.605558E-1	5.731734E-1	6.940169E-1	5.898164E-1	6.916878E-1	5.438208E-1	7.743587E-1	5.408045E-1	7.035818E-1	6.444875E-1	7.458414E-1	5.580737E-1	7.611437E-1	5.757248E-1	7.186692E-1	6.017830E-1	8.265340E-1	6.963611E-1	9.189048E-1	5.196259E-1	8.443382E-1	5.943224E-1	8.943323E-1	5.014373E-1	7.003515E-1	7.323645E-1	7.159759E-1	7.697312E-1	7.109092E-1	5.476502E-1	7.271662E-1	7.123021E-1	7.521049E-1	6.858537E-1	7.733079E-1	7.041799E-1	6.999848E-1	6.193236E-1	7.900400E-1	6.331464E-1	6.611356E-1	8.116442E-1	6.990679E-1	7.104231E-1	6.697671E-1	6.259787E-1	6.579559E-1	6.963302E-1	6.643543E-1	7.206547E-1	7.636976E-1	6.391510E-1	6.905730E-1	5.904019E-1	8.920213E-1	6.089989E-1	6.533113E-1	7.512209E-1	8.441912E-1	5.717957E-1	7.513253E-1	5.674096E-1	6.867041E-1	5.998834E-1	7.717381E-1	6.511424E-1	7.184258E-1	5.689706E-1	7.419265E-1	6.553019E-1	7.079616E-1	6.128684E-1	6.878357E-1	7.046703E-1	6.977456E-1	6.945184E-1	6.919021E-1	5.310142E-1	6.403318E-1	7.045749E-1	6.297287E-1	7.472723E-1	6.372900E-1	6.559068E-1	7.347430E-1	5.654499E-1	7.256717E-1	6.373098E-1	6.637462E-1	7.093950E-1	7.083922E-1	6.563507E-1	7.280469E-1	5.768487E-1	6.421640E-1	6.620411E-1	7.124149E-1	7.701239E-1	6.624326E-1	5.703917E-1	7.048627E-1	6.228834E-1	7.123707E-1	6.159624E-1	6.299425E-1	7.472537E-1	6.075914E-1	7.690705E-1	7.301814E-1	5.700217E-1	6.316789E-1	7.102769E-1	7.345290E-1	7.597440E-1	6.594648E-1	6.423095E-1	7.514886E-1	6.014215E-1	6.296036E-1	6.500298E-1	7.387021E-1	7.530605E-1	6.122359E-1	7.291020E-1	7.235281E-1	5.822294E-1	6.854952E-1	7.424184E-1	6.534168E-1	7.252016E-1	6.653708E-1	6.755378E-1	6.554772E-1	6.373399E-1	6.436782E-1	7.110609E-1	6.211321E-1	7.449800E-1	7.320749E-1	5.795456E-1	7.104191E-1	6.180346E-1	6.685211E-1	5.865476E-1	7.632689E-1	6.697375E-1	7.318073E-1	5.669198E-1	8.881312E-1	5.381929E-1	6.833265E-1	6.083405E-1	7.388908E-1	7.294792E-1	6.780437E-1	6.493581E-1	6.999853E-1	5.822584E-1	6.765278E-1	7.216971E-1	6.789434E-1	7.881906E-1	6.540688E-1	7.779615E-1
2.849020E+2	1.967616E-2	9.173360E-1	8.675319E-1	9.219644E-1	7.855809E-1	8.809066E-1	9.077073E-1	1.031806E+0	8.743557E-1	1.072460E+0	8.043601E-1	9.827374E-1	7.328255E-1	1.177469E+0	7.702392E-1	9.452331E-1	9.534977E-1	1.074163E+0	7.854939E-1	1.126086E+0	7.623295E-1	9.404536E-1	7.789143E-1	1.113232E+0	9.070318E-1	1.147546E+0	6.883172E-1	1.079174E+0	7.433856E-1	1.184544E+0	6.787866E-1	1.002337E+0	9.264506E-1	9.930632E-1	9.578612E-1	9.733931E-1	7.263085E-1	9.480012E-1	8.924374E-1	9.809824E-1	9.075422E-1	1.047878E+0	9.601918E-1	9.324179E-1	8.238032E-1	1.048063E+0	8.380751E-1	8.754021E-1	1.028425E+0	9.270398E-1	8.670623E-1	9.392051E-1	8.783783E-1	8.381516E-1	9.306512E-1	9.496436E-1	1.014181E+0	1.059065E+0	8.512859E-1	9.333978E-1	8.139512E-1	1.266408E+0	7.577065E-1	8.647809E-1	1.028007E+0	1.096421E+0	7.664711E-1	1.096351E+0	7.768838E-1	9.796350E-1	7.801355E-1	1.065474E+0	8.978005E-1	9.874934E-1	7.889508E-1	1.036680E+0	8.610717E-1	9.365974E-1	8.567197E-1	9.455404E-1	9.018763E-1	9.462677E-1	9.691754E-1	9.374956E-1	7.812688E-1	9.033603E-1	9.940315E-1	9.161403E-1	1.011714E+0	9.289330E-1	8.861040E-1	9.639189E-1	7.977933E-1	9.565730E-1	9.063795E-1	9.171405E-1	1.042052E+0	8.850382E-1	8.761501E-1	9.628186E-1	7.777803E-1	8.610160E-1	9.334109E-1	1.036171E+0	1.038993E+0	9.152813E-1	8.480661E-1	1.016208E+0	8.929101E-1	9.560581E-1	9.009210E-1	9.312080E-1	1.059277E+0	8.506569E-1	9.955938E-1	9.754465E-1	8.121541E-1	8.711019E-1	9.407208E-1	9.959235E-1	1.018747E+0	8.896989E-1	9.296331E-1	1.114327E+0	8.180101E-1	8.541149E-1	8.524256E-1	1.019400E+0	1.019519E+0	9.059862E-1	9.955763E-1	9.830687E-1	7.924015E-1	8.942055E-1	9.790603E-1	9.158281E-1	1.016350E+0	9.542827E-1	9.760531E-1	9.395598E-1	7.947735E-1	8.665897E-1	1.032250E+0	8.820594E-1	1.067899E+0	1.001647E+0	7.955955E-1	1.011059E+0	8.243319E-1	1.007068E+0	7.924684E-1	1.133972E+0	9.479583E-1	1.110544E+0	7.177197E-1	1.286027E+0	7.049574E-1	1.016765E+0	8.742728E-1	1.049492E+0	1.038317E+0	9.617727E-1	9.309587E-1	1.008801E+0	8.589652E-1	9.249125E-1	9.077017E-1	9.358526E-1	9.952401E-1	8.962683E-1	1.020473E+0
2.850010E+2	2.966015E-2	9.048267E-1	8.385477E-1	9.337718E-1	8.663986E-1	8.964074E-1	8.889727E-1	1.036795E+0	8.510651E-1	1.029976E+0	8.163460E-1	9.527805E-1	7.598739E-1	1.170831E+0	8.100295E-1	1.016391E+0	9.120638E-1	1.137753E+0	8.186451E-1	1.104839E+0	7.466508E-1	9.777540E-1	7.425597E-1	1.089078E+0	8.830650E-1	1.128498E+0	6.982932E-1	1.112330E+0	7.198740E-1	1.220954E+0	6.641239E-1	9.963772E-1	9.418974E-1	9.395187E-1	9.357290E-1	9.765459E-1	6.910637E-1	9.518521E-1	9.148254E-1	1.004782E+0	8.438687E-1	1.036270E+0	8.482359E-1	9.292421E-1	8.289034E-1	1.052412E+0	8.129727E-1	8.501658E-1	1.005664E+0	8.592250E-1	9.450555E-1	9.110015E-1	8.539847E-1	8.421167E-1	8.868177E-1	9.373246E-1	9.710388E-1	1.041738E+0	8.287156E-1	9.467824E-1	8.170281E-1	1.226982E+0	7.116439E-1	9.243850E-1	1.004151E+0	1.054594E+0	7.853465E-1	1.065746E+0	7.561733E-1	9.687728E-1	8.129690E-1	1.139545E+0	8.918721E-1	1.021856E+0	8.032776E-1	1.043472E+0	9.085487E-1	9.239950E-1	8.323887E-1	9.114298E-1	9.504872E-1	9.550707E-1	9.701921E-1	8.638395E-1	7.510341E-1	9.048031E-1	9.696521E-1	8.743877E-1	1.111557E+0	9.764013E-1	8.628452E-1	9.686608E-1	7.733375E-1	9.474230E-1	8.758779E-1	8.828422E-1	9.542088E-1	9.073161E-1	9.321366E-1	1.014615E+0	7.936604E-1	8.928704E-1	9.186691E-1	9.676228E-1	1.114976E+0	8.894770E-1	8.522000E-1	9.967574E-1	8.856279E-1	9.790400E-1	8.613171E-1	9.120331E-1	1.116091E+0	8.428374E-1	1.008712E+0	1.022924E+0	8.298913E-1	8.535142E-1	9.960616E-1	1.040154E+0	9.335976E-1	8.543137E-1	8.687004E-1	1.086339E+0	8.209416E-1	9.041257E-1	9.217328E-1	1.024294E+0	1.044382E+0	8.495926E-1	9.722760E-1	9.662366E-1	8.112704E-1	8.265107E-1	1.005001E+0	9.601661E-1	1.047571E+0	9.434240E-1	9.882506E-1	8.966484E-1	8.361206E-1	9.286532E-1	9.748240E-1	8.981746E-1	1.000527E+0	9.708975E-1	8.285736E-1	1.043036E+0	8.102826E-1	9.734783E-1	8.324230E-1	1.091463E+0	9.287435E-1	1.039659E+0	7.433901E-1	1.217382E+0	7.269521E-1	9.523609E-1	8.244529E-1	1.001864E+0	9.890283E-1	8.926924E-1	8.842223E-1	9.782764E-1	8.085181E-1	9.651232E-1	8.756701E-1	9.627985E-1	9.773114E-1	1.016053E+0	9.648947E-1
2.851000E+2	1.433515E-2	9.025072E-1	8.405243E-1	8.889744E-1	8.204960E-1	8.507573E-1	8.790052E-1	1.021516E+0	8.714597E-1	9.939943E-1	7.975950E-1	9.652512E-1	7.596492E-1	1.143005E+0	8.007670E-1	9.791822E-1	9.443691E-1	1.050990E+0	7.951566E-1	1.101129E+0	7.172490E-1	9.497766E-1	7.561092E-1	1.092866E+0	9.141538E-1	1.174754E+0	6.619936E-1	1.030805E+0	7.864929E-1	1.170153E+0	6.416644E-1	9.847510E-1	9.145682E-1	9.594635E-1	9.278784E-1	9.539527E-1	6.898293E-1	9.334801E-1	9.367327E-1	9.947104E-1	8.643990E-1	1.036587E+0	8.678826E-1	8.668615E-1	8.095289E-1	1.048633E+0	8.427692E-1	8.382323E-1	9.801724E-1	9.043574E-1	9.239843E-1	8.572325E-1	8.510939E-1	8.281099E-1	8.863524E-1	8.960298E-1	9.596974E-1	1.020208E+0	7.571043E-1	8.788496E-1	7.471996E-1	1.227889E+0	7.875190E-1	8.568494E-1	9.476955E-1	1.014943E+0	7.588577E-1	1.058354E+0	7.777116E-1	9.714908E-1	8.362123E-1	1.026726E+0	8.978954E-1	9.639277E-1	7.788574E-1	9.646790E-1	8.733788E-1	9.262696E-1	7.994149E-1	9.172864E-1	9.067369E-1	9.582664E-1	1.013577E+0	8.896980E-1	7.772569E-1	8.467168E-1	9.238297E-1	8.680440E-1	1.076704E+0	8.646458E-1	8.897603E-1	9.205537E-1	8.191318E-1	9.523447E-1	8.644513E-1	8.749271E-1	9.463362E-1	9.088059E-1	8.539468E-1	8.774496E-1	7.229674E-1	8.834592E-1	8.879989E-1	9.215078E-1	9.941788E-1	9.024037E-1	8.492066E-1	9.471502E-1	8.793389E-1	9.199886E-1	8.684990E-1	9.258622E-1	1.064870E+0	8.014091E-1	9.736747E-1	9.851183E-1	7.838654E-1	8.050418E-1	9.484730E-1	9.261073E-1	9.561843E-1	8.663459E-1	8.342871E-1	1.040403E+0	7.609982E-1	9.227607E-1	8.526489E-1	9.514720E-1	9.082053E-1	8.250179E-1	9.508895E-1	9.113112E-1	8.104207E-1	8.472066E-1	9.040336E-1	8.882115E-1	1.034003E+0	8.748536E-1	9.626234E-1	8.960281E-1	7.877721E-1	8.368354E-1	9.631245E-1	8.557681E-1	1.063678E+0	9.846891E-1	7.735558E-1	1.077316E+0	8.128172E-1	9.801588E-1	8.399304E-1	1.047585E+0	9.283663E-1	1.046117E+0	6.976171E-1	1.139712E+0	6.983582E-1	9.408153E-1	8.413265E-1	9.817565E-1	9.618246E-1	9.134103E-1	8.717034E-1	9.187476E-1	7.691378E-1	8.743008E-1	9.121495E-1	9.539432E-1	9.677828E-1	9.295377E-1	9.716990E-1
2.852040E+2	1.891246E-2	7.879539E-1	7.563148E-1	8.367749E-1	6.653885E-1	7.121313E-1	7.106333E-1	8.962138E-1	7.027595E-1	8.442087E-1	6.917834E-1	8.274629E-1	6.457958E-1	8.781772E-1	6.778975E-1	8.058614E-1	8.209638E-1	9.474549E-1	6.691535E-1	9.372103E-1	6.579424E-1	8.496739E-1	6.580333E-1	9.441906E-1	7.769763E-1	9.456012E-1	6.061542E-1	8.872817E-1	6.107834E-1	1.029461E+0	6.076596E-1	8.512399E-1	8.138056E-1	8.338336E-1	7.919106E-1	8.318543E-1	5.845116E-1	7.918671E-1	7.833507E-1	8.478343E-1	7.954482E-1	8.705481E-1	7.950206E-1	8.186023E-1	6.612276E-1	9.003449E-1	7.002651E-1	7.530366E-1	8.529982E-1	7.788348E-1	7.469948E-1	7.560981E-1	6.978655E-1	6.900577E-1	7.775624E-1	7.621700E-1	8.610062E-1	8.874803E-1	6.635200E-1	7.553259E-1	6.972743E-1	1.076377E+0	6.552093E-1	7.508123E-1	8.966402E-1	9.434393E-1	6.600565E-1	9.298362E-1	6.911823E-1	8.225754E-1	7.138680E-1	9.163552E-1	8.152181E-1	7.983735E-1	7.145955E-1	8.322142E-1	7.017896E-1	8.173474E-1	6.906247E-1	7.854573E-1	7.721417E-1	8.012585E-1	8.536064E-1	7.818808E-1	6.681962E-1	7.361087E-1	8.358167E-1	7.485779E-1	9.170352E-1	7.916100E-1	7.768458E-1	8.025333E-1	6.454509E-1	8.342560E-1	7.188690E-1	7.991678E-1	8.133893E-1	7.759115E-1	7.740323E-1	8.226246E-1	6.337381E-1	7.883065E-1	7.489760E-1	8.336730E-1	8.835910E-1	8.073918E-1	7.041491E-1	8.543769E-1	7.212551E-1	8.100752E-1	7.238651E-1	7.715194E-1	8.992016E-1	7.702463E-1	8.404338E-1	8.683126E-1	6.897630E-1	6.934513E-1	8.340084E-1	8.250834E-1	8.376072E-1	7.440348E-1	7.930042E-1	8.941998E-1	7.048150E-1	7.171056E-1	6.999785E-1	8.456185E-1	8.422892E-1	7.031938E-1	7.998855E-1	8.455225E-1	6.678083E-1	7.130159E-1	8.425566E-1	7.807503E-1	8.753942E-1	7.836118E-1	7.810158E-1	7.455280E-1	6.972191E-1	7.496785E-1	8.216984E-1	7.013954E-1	8.793403E-1	8.528631E-1	6.512230E-1	8.908934E-1	6.570245E-1	8.381314E-1	7.102750E-1	9.220786E-1	8.094172E-1	9.144678E-1	6.226280E-1	1.017464E+0	6.442056E-1	8.357293E-1	6.832334E-1	8.546228E-1	8.352234E-1	8.067218E-1	7.052853E-1	8.343776E-1	6.930220E-1	7.764388E-1	7.726051E-1	7.711273E-1	8.588616E-1	7.934572E-1	7.990660E-1
2.853000E+2	1.713714E-2	5.977157E-1	5.448302E-1	6.165449E-1	4.861914E-1	5.385594E-1	5.831099E-1	6.758956E-1	5.384371E-1	5.742026E-1	5.510608E-1	6.200101E-1	4.974710E-1	6.118882E-1	5.956893E-1	6.057272E-1	5.748999E-1	5.856541E-1	5.269641E-1	6.605076E-1	4.968744E-1	6.043586E-1	5.491242E-1	6.837205E-1	6.339419E-1	6.462452E-1	5.450923E-1	6.980327E-1	4.687706E-1	8.186026E-1	4.435311E-1	6.688372E-1	6.015948E-1	5.740092E-1	6.435239E-1	6.101141E-1	4.194497E-1	6.142080E-1	5.795753E-1	6.239944E-1	5.815750E-1	7.171107E-1	6.199405E-1	6.070090E-1	5.154948E-1	6.575875E-1	5.470531E-1	5.635713E-1	6.500370E-1	5.929073E-1	5.823665E-1	5.749304E-1	5.493756E-1	5.689942E-1	6.030339E-1	5.927116E-1	6.095829E-1	6.933370E-1	5.178568E-1	5.673176E-1	5.051914E-1	7.278368E-1	4.662318E-1	5.525263E-1	6.483781E-1	7.076117E-1	4.849667E-1	6.716630E-1	5.097487E-1	6.112952E-1	5.240514E-1	7.134390E-1	6.031018E-1	6.705863E-1	5.181187E-1	6.701898E-1	5.944699E-1	6.001645E-1	4.921567E-1	6.433793E-1	5.696531E-1	5.879970E-1	6.299304E-1	5.874181E-1	4.906095E-1	5.482215E-1	5.988871E-1	5.591276E-1	6.686397E-1	5.943799E-1	5.776645E-1	6.210383E-1	5.139373E-1	6.802423E-1	5.340984E-1	6.002966E-1	6.410243E-1	5.567598E-1	5.583763E-1	6.292628E-1	5.019903E-1	5.859548E-1	6.145448E-1	6.414105E-1	6.630227E-1	5.430104E-1	5.232962E-1	6.119245E-1	5.070345E-1	5.895658E-1	5.610534E-1	5.644287E-1	6.590801E-1	5.213852E-1	6.384024E-1	6.957796E-1	5.290937E-1	5.082474E-1	6.140204E-1	6.626820E-1	6.488431E-1	5.823567E-1	6.357972E-1	6.716080E-1	5.128871E-1	5.911924E-1	5.808657E-1	6.517879E-1	6.932402E-1	5.394534E-1	6.428450E-1	5.765921E-1	4.779610E-1	5.728762E-1	6.093854E-1	5.855098E-1	6.768304E-1	5.769148E-1	6.298663E-1	5.740522E-1	5.243323E-1	5.715100E-1	6.324981E-1	5.493140E-1	6.594872E-1	6.033167E-1	5.202690E-1	6.468419E-1	5.019662E-1	6.293409E-1	5.284930E-1	7.209903E-1	5.900229E-1	7.055499E-1	4.806056E-1	7.903520E-1	4.851451E-1	6.579888E-1	5.526732E-1	6.459926E-1	6.326389E-1	6.393641E-1	5.650965E-1	6.153318E-1	5.407872E-1	5.978654E-1	5.996994E-1	6.177652E-1	6.044992E-1	6.015923E-1	6.551428E-1
2.854010E+2	8.970296E-3	3.913474E-1	3.668777E-1	3.933532E-1	3.255843E-1	3.931199E-1	3.969893E-1	4.328628E-1	3.482273E-1	3.696751E-1	3.858125E-1	4.215779E-1	2.966598E-1	3.675901E-1	3.915567E-1	4.225684E-1	3.859151E-1	3.966593E-1	4.234698E-1	4.561550E-1	2.973332E-1	3.834262E-1	3.564373E-1	4.660948E-1	3.633054E-1	3.696746E-1	3.963691E-1	4.680528E-1	3.360053E-1	4.381435E-1	3.655768E-1	4.230857E-1	3.869858E-1	3.509532E-1	4.313842E-1	4.360297E-1	3.388043E-1	3.811744E-1	3.722158E-1	4.215704E-1	3.795732E-1	4.254843E-1	4.296584E-1	4.038492E-1	3.507801E-1	3.720442E-1	4.288027E-1	3.671211E-1	4.262145E-1	3.583856E-1	4.480664E-1	3.674170E-1	3.548379E-1	3.785532E-1	3.884815E-1	4.047288E-1	4.310936E-1	4.603630E-1	3.402004E-1	4.129126E-1	3.228093E-1	5.823060E-1	3.392457E-1	3.782262E-1	4.266019E-1	4.642728E-1	2.997073E-1	4.375046E-1	3.412682E-1	4.313878E-1	3.689459E-1	4.429880E-1	4.113963E-1	4.455423E-1	3.342921E-1	4.204521E-1	3.700587E-1	4.271483E-1	3.885461E-1	4.237208E-1	4.286207E-1	4.303863E-1	3.950832E-1	3.594694E-1	3.454932E-1	3.530880E-1	4.497436E-1	3.792598E-1	4.502086E-1	4.034735E-1	3.773410E-1	3.894070E-1	3.188860E-1	4.394256E-1	3.831327E-1	3.716269E-1	4.320124E-1	3.905094E-1	3.652863E-1	3.971079E-1	3.178669E-1	3.865868E-1	3.654076E-1	4.372450E-1	4.737020E-1	3.845370E-1	3.748554E-1	4.266841E-1	3.648226E-1	4.256663E-1	3.860047E-1	3.604049E-1	4.533900E-1	3.665726E-1	4.427912E-1	4.208036E-1	3.493736E-1	3.427960E-1	3.962345E-1	4.277605E-1	4.123160E-1	3.665773E-1	3.955937E-1	4.458541E-1	3.738034E-1	3.698726E-1	3.749691E-1	4.131607E-1	4.466177E-1	3.479955E-1	4.160566E-1	4.125704E-1	3.577057E-1	3.956307E-1	4.174740E-1	3.734084E-1	4.095680E-1	3.736081E-1	4.102458E-1	3.630412E-1	3.393873E-1	3.800056E-1	4.055831E-1	3.845407E-1	4.575295E-1	4.376248E-1	3.318733E-1	4.277416E-1	3.526874E-1	4.086063E-1	3.344328E-1	4.570556E-1	3.774725E-1	4.520909E-1	3.016990E-1	4.698977E-1	3.121492E-1	4.176226E-1	3.405485E-1	4.438648E-1	3.899495E-1	3.733224E-1	3.648375E-1	4.048298E-1	3.292382E-1	4.090826E-1	4.090492E-1	4.292079E-1	4.275501E-1	3.942833E-1	3.980812E-1
2.855020E+2	7.166226E-3	3.161207E-1	2.965701E-1	3.153181E-1	2.754270E-1	2.977858E-1	3.201338E-1	3.616185E-1	3.005378E-1	3.090215E-1	3.214074E-1	3.284929E-1	2.601121E-1	3.222955E-1	3.286388E-1	3.136034E-1	3.186712E-1	3.310926E-1	3.440599E-1	3.703002E-1	2.668792E-1	3.143912E-1	2.808116E-1	3.856125E-1	3.472059E-1	2.962182E-1	3.026509E-1	3.903548E-1	2.836140E-1	3.638831E-1	3.091266E-1	3.461077E-1	3.270524E-1	3.245845E-1	3.721363E-1	3.443873E-1	2.294890E-1	3.182768E-1	3.112571E-1	3.631635E-1	2.936292E-1	3.509448E-1	3.384682E-1	3.034551E-1	3.025725E-1	2.934281E-1	3.447919E-1	3.066102E-1	3.586567E-1	2.712047E-1	4.094438E-1	3.198877E-1	3.339875E-1	2.916276E-1	3.420356E-1	3.043203E-1	3.641186E-1	3.597056E-1	3.216495E-1	2.768149E-1	2.861574E-1	3.966355E-1	2.828781E-1	3.094871E-1	3.384849E-1	3.503181E-1	3.062894E-1	3.575352E-1	2.752899E-1	3.503481E-1	2.807630E-1	3.786042E-1	3.367135E-1	3.201647E-1	2.863279E-1	3.496618E-1	2.770860E-1	2.809349E-1	3.522989E-1	3.348560E-1	3.045395E-1	2.918042E-1	3.625838E-1	3.235144E-1	2.878293E-1	3.070861E-1	3.657742E-1	3.140421E-1	3.462397E-1	3.168556E-1	3.042112E-1	3.189516E-1	2.858047E-1	3.302942E-1	3.118369E-1	3.196133E-1	3.404466E-1	3.523252E-1	3.265575E-1	3.289695E-1	2.873911E-1	3.287711E-1	3.074643E-1	3.231407E-1	3.654818E-1	3.153192E-1	3.003949E-1	3.726943E-1	2.834852E-1	3.227510E-1	2.991487E-1	3.393828E-1	3.691251E-1	3.010548E-1	3.348548E-1	3.542149E-1	3.100311E-1	2.775306E-1	3.365252E-1	3.507944E-1	3.407529E-1	2.942974E-1	3.206746E-1	3.430683E-1	2.850346E-1	3.049609E-1	2.953521E-1	3.471191E-1	3.910539E-1	2.982677E-1	3.607805E-1	3.187358E-1	2.643215E-1	3.006262E-1	3.325969E-1	3.408789E-1	3.646035E-1	3.459395E-1	3.361904E-1	3.130853E-1	3.063962E-1	2.867489E-1	3.114785E-1	3.095295E-1	3.611450E-1	3.700762E-1	3.021335E-1	3.808729E-1	2.698521E-1	3.576743E-1	2.840087E-1	3.764468E-1	3.046839E-1	3.678547E-1	2.841147E-1	4.562531E-1	2.672951E-1	3.332153E-1	2.766434E-1	3.571345E-1	3.454743E-1	3.272979E-1	3.197930E-1	3.493868E-1	2.913747E-1	3.302748E-1	3.197150E-1	3.157203E-1	3.190719E-1	3.603799E-1	3.653495E-1
2.856030E+2	6.268582E-3	2.446809E-1	2.546064E-1	2.728597E-1	2.258363E-1	2.506003E-1	2.517131E-1	2.625253E-1	2.404264E-1	2.502186E-1	2.552085E-1	2.717807E-1	1.877693E-1	2.245874E-1	2.686486E-1	2.941085E-1	2.525014E-1	2.566166E-1	2.719938E-1	2.815434E-1	1.942476E-1	2.436180E-1	2.374099E-1	3.069153E-1	2.588937E-1	2.567870E-1	2.724345E-1	3.040545E-1	1.887631E-1	2.770493E-1	2.300554E-1	3.092852E-1	2.365683E-1	2.937946E-1	3.165888E-1	2.961912E-1	2.170395E-1	2.425171E-1	2.492496E-1	2.615619E-1	2.492956E-1	2.642005E-1	2.974146E-1	2.648746E-1	2.144236E-1	2.385657E-1	2.858289E-1	2.276049E-1	2.580200E-1	2.035614E-1	3.409465E-1	2.783190E-1	2.486310E-1	2.131978E-1	2.913573E-1	2.374567E-1	2.600483E-1	2.725320E-1	2.482672E-1	2.315593E-1	2.334155E-1	3.014940E-1	2.380444E-1	2.611386E-1	2.886675E-1	2.730577E-1	2.441970E-1	3.093537E-1	2.016269E-1	2.644427E-1	2.201683E-1	2.934995E-1	2.590511E-1	2.765810E-1	2.496776E-1	3.127210E-1	2.298038E-1	2.318829E-1	2.585036E-1	2.544068E-1	2.297676E-1	2.291326E-1	3.285856E-1	2.071701E-1	1.956818E-1	2.302197E-1	2.920768E-1	2.296187E-1	3.089104E-1	2.529309E-1	2.418621E-1	2.384903E-1	2.121988E-1	2.432067E-1	2.820075E-1	2.779093E-1	2.744634E-1	2.343200E-1	2.653014E-1	2.766703E-1	2.274544E-1	2.539984E-1	2.592335E-1	2.625108E-1	2.773626E-1	2.599810E-1	2.610198E-1	2.605581E-1	2.306949E-1	2.443828E-1	2.947399E-1	2.615722E-1	2.749039E-1	2.200087E-1	3.156289E-1	2.561663E-1	2.358123E-1	2.240803E-1	2.438124E-1	2.807170E-1	3.067897E-1	2.621065E-1	2.384218E-1	2.968119E-1	2.246702E-1	2.875652E-1	2.736366E-1	2.913831E-1	2.703626E-1	2.445259E-1	2.838250E-1	2.567292E-1	2.138289E-1	2.515872E-1	2.509602E-1	2.344387E-1	2.872605E-1	2.641999E-1	2.717892E-1	2.415967E-1	2.098151E-1	2.469267E-1	2.692909E-1	2.481897E-1	3.110324E-1	2.781574E-1	2.311042E-1	2.807779E-1	2.210802E-1	2.713734E-1	2.175605E-1	2.732694E-1	2.680971E-1	3.087272E-1	1.983039E-1	3.064633E-1	2.127291E-1	2.804818E-1	2.497294E-1	2.729649E-1	2.615843E-1	2.531211E-1	2.545642E-1	2.814316E-1	2.306815E-1	2.872281E-1	2.388337E-1	2.353344E-1	2.350503E-1	3.077587E-1	2.901152E-1
2.858030E+2	1.178276E-2	2.285765E-1	2.160535E-1	1.952475E-1	1.768816E-1	2.100459E-1	2.457790E-1	2.348601E-1	2.227894E-1	2.343799E-1	2.316299E-1	2.456183E-1	1.940710E-1	2.138054E-1	2.182614E-1	2.564184E-1	2.199999E-1	2.388169E-1	2.230754E-1	2.621272E-1	1.888022E-1	2.226725E-1	2.320532E-1	2.846262E-1	2.387499E-1	2.510537E-1	2.579872E-1	2.942068E-1	1.859886E-1	2.499238E-1	2.077395E-1	2.679977E-1	2.291025E-1	2.382550E-1	2.931587E-1	2.791252E-1	1.710849E-1	2.353655E-1	2.404731E-1	2.568923E-1	2.181148E-1	2.468991E-1	2.554210E-1	2.205746E-1	2.001614E-1	2.254934E-1	2.699565E-1	2.420279E-1	2.665758E-1	2.061611E-1	2.801449E-1	2.477709E-1	2.035006E-1	2.238341E-1	2.602538E-1	2.227829E-1	2.482293E-1	2.461112E-1	2.350910E-1	2.329622E-1	2.082667E-1	2.564846E-1	2.190760E-1	2.378739E-1	2.719557E-1	2.695917E-1	2.150893E-1	2.833875E-1	1.751849E-1	2.383920E-1	2.013533E-1	2.507025E-1	2.129505E-1	2.396912E-1	2.276801E-1	2.507020E-1	2.288311E-1	1.969252E-1	2.719020E-1	2.145687E-1	2.519618E-1	2.037355E-1	2.700989E-1	2.340792E-1	1.728377E-1	2.144233E-1	2.513373E-1	2.011904E-1	2.785271E-1	2.353000E-1	2.444817E-1	2.374509E-1	2.016857E-1	2.097721E-1	2.492149E-1	2.174712E-1	2.375322E-1	2.279066E-1	2.347217E-1	2.315497E-1	2.011406E-1	2.340515E-1	2.247017E-1	2.464324E-1	2.638475E-1	1.982323E-1	2.435967E-1	2.050764E-1	2.134546E-1	2.038871E-1	2.617326E-1	2.589512E-1	2.475100E-1	1.697809E-1	2.981028E-1	2.483832E-1	2.100443E-1	1.809563E-1	2.405061E-1	2.696513E-1	2.590312E-1	1.884823E-1	2.476050E-1	2.587991E-1	1.885172E-1	1.805454E-1	2.789413E-1	2.600430E-1	2.570603E-1	1.790926E-1	2.663146E-1	2.388963E-1	1.926059E-1	1.970664E-1	2.709969E-1	2.143375E-1	2.680506E-1	2.051428E-1	2.589480E-1	2.333396E-1	1.861520E-1	2.274447E-1	2.889207E-1	2.304989E-1	2.543155E-1	2.211184E-1	1.886681E-1	2.739248E-1	1.932874E-1	2.539986E-1	2.040398E-1	2.925095E-1	2.372414E-1	2.802346E-1	1.890486E-1	3.009199E-1	1.988319E-1	2.299090E-1	2.228035E-1	2.519044E-1	2.495010E-1	2.498453E-1	2.376367E-1	2.526954E-1	2.250123E-1	2.582717E-1	2.441740E-1	2.142784E-1	2.747882E-1	2.632653E-1	2.909821E-1
2.860050E+2	6.302340E-3	3.474602E-1	3.352297E-1	3.634345E-1	3.113647E-1	3.346430E-1	3.647218E-1	4.202699E-1	3.234820E-1	3.173132E-1	3.503274E-1	3.772495E-1	3.057772E-1	3.628343E-1	3.818625E-1	3.777804E-1	3.581333E-1	3.587330E-1	3.680228E-1	3.805768E-1	3.085928E-1	3.556676E-1	3.495368E-1	4.634729E-1	3.753701E-1	3.571786E-1	3.935989E-1	4.480595E-1	3.310573E-1	4.549929E-1	3.484815E-1	3.953949E-1	3.844190E-1	3.773387E-1	4.454056E-1	3.917879E-1	2.939363E-1	3.954292E-1	3.830724E-1	3.921438E-1	3.516941E-1	4.018462E-1	4.468354E-1	3.644813E-1	3.071793E-1	3.625351E-1	4.344566E-1	3.595804E-1	4.492021E-1	2.989489E-1	4.364519E-1	3.865674E-1	3.528316E-1	3.329948E-1	4.015058E-1	4.040490E-1	3.981685E-1	3.907703E-1	3.533465E-1	3.863957E-1	3.083937E-1	4.060100E-1	3.412810E-1	3.642093E-1	3.548887E-1	4.128631E-1	3.300642E-1	4.361511E-1	2.875430E-1	3.369365E-1	3.630927E-1	4.010361E-1	3.462964E-1	3.671968E-1	3.388444E-1	3.813598E-1	3.417623E-1	3.099175E-1	4.045894E-1	3.702447E-1	3.602482E-1	3.274925E-1	4.327191E-1	3.745026E-1	3.015979E-1	3.477250E-1	4.100757E-1	2.999737E-1	4.161736E-1	3.225034E-1	3.880146E-1	3.860988E-1	3.147794E-1	3.657457E-1	4.123810E-1	3.605054E-1	3.920198E-1	3.399134E-1	3.983581E-1	3.831934E-1	3.325890E-1	3.533175E-1	3.743826E-1	3.887603E-1	4.291794E-1	3.208177E-1	3.912191E-1	3.665527E-1	3.618278E-1	3.254571E-1	4.289693E-1	3.317262E-1	4.378093E-1	2.816990E-1	4.823593E-1	4.243320E-1	3.068049E-1	3.324960E-1	3.890703E-1	4.316872E-1	3.856115E-1	3.224083E-1	3.998270E-1	4.186552E-1	3.001374E-1	2.962669E-1	4.380978E-1	3.709913E-1	3.778401E-1	2.895754E-1	4.278668E-1	3.802755E-1	3.191025E-1	3.318801E-1	3.962462E-1	3.792851E-1	3.978068E-1	3.089438E-1	4.677537E-1	3.472838E-1	3.293882E-1	2.966004E-1	4.791347E-1	3.847845E-1	4.203240E-1	3.229640E-1	3.567692E-1	4.091746E-1	3.313558E-1	3.552955E-1	3.566994E-1	4.349231E-1	3.629813E-1	4.185248E-1	3.315679E-1	4.469799E-1	2.932181E-1	3.772867E-1	3.521106E-1	3.997541E-1	3.823647E-1	3.562142E-1	4.075652E-1	3.918864E-1	3.110706E-1	3.754075E-1	3.809090E-1	3.992457E-1	3.986917E-1	3.757127E-1	3.946181E-1
2.862030E+2	2.196317E-2	6.822216E-1	6.272418E-1	6.415521E-1	5.905086E-1	6.294706E-1	6.347355E-1	7.122658E-1	6.048800E-1	6.378513E-1	6.793571E-1	6.739139E-1	5.614882E-1	6.421881E-1	6.998632E-1	6.677773E-1	6.376910E-1	6.388638E-1	6.577040E-1	7.659983E-1	5.666801E-1	6.581066E-1	5.573235E-1	7.848916E-1	6.294561E-1	6.411422E-1	6.436155E-1	7.847225E-1	5.059009E-1	7.107848E-1	6.192530E-1	7.605973E-1	6.807300E-1	6.183976E-1	7.623559E-1	6.953991E-1	4.880088E-1	6.441750E-1	6.877349E-1	7.545834E-1	6.661351E-1	6.790758E-1	7.509781E-1	6.898314E-1	5.982818E-1	6.166068E-1	6.993406E-1	6.684141E-1	7.112516E-1	5.516296E-1	8.290749E-1	6.669284E-1	6.023767E-1	5.844283E-1	7.306351E-1	6.574300E-1	7.486123E-1	7.349179E-1	6.294295E-1	6.794217E-1	5.532729E-1	7.864391E-1	6.422397E-1	6.475119E-1	7.517571E-1	7.525731E-1	6.230001E-1	7.261331E-1	6.254880E-1	6.722326E-1	5.968106E-1	7.904242E-1	6.416352E-1	6.502739E-1	5.951851E-1	7.559457E-1	6.562825E-1	5.362908E-1	7.307010E-1	6.524637E-1	6.414272E-1	5.875349E-1	7.934425E-1	6.717016E-1	5.241794E-1	5.913316E-1	7.555393E-1	6.447261E-1	7.218488E-1	5.911167E-1	6.760770E-1	6.693350E-1	5.762338E-1	6.174929E-1	7.370652E-1	6.295719E-1	6.827384E-1	6.076668E-1	6.817747E-1	6.651458E-1	5.667724E-1	6.197450E-1	6.742419E-1	6.663201E-1	8.056254E-1	5.747220E-1	7.654260E-1	6.932968E-1	6.430088E-1	5.452854E-1	7.721899E-1	6.522929E-1	8.054248E-1	5.231809E-1	8.214868E-1	7.231135E-1	6.036239E-1	5.885628E-1	7.508719E-1	7.279090E-1	7.259764E-1	5.696532E-1	7.075110E-1	7.735592E-1	5.540632E-1	5.268027E-1	7.555745E-1	6.644155E-1	7.543691E-1	5.142140E-1	7.839898E-1	7.368251E-1	5.896061E-1	6.055449E-1	7.685366E-1	7.066994E-1	7.412361E-1	5.928668E-1	7.969415E-1	6.601886E-1	5.736511E-1	5.511348E-1	8.803082E-1	6.208962E-1	7.373073E-1	5.630178E-1	6.294617E-1	7.304613E-1	5.751943E-1	6.840479E-1	6.242679E-1	8.543303E-1	6.651902E-1	7.048514E-1	5.566305E-1	8.845897E-1	5.171858E-1	6.039695E-1	7.156419E-1	7.412469E-1	6.876679E-1	6.088192E-1	7.205295E-1	7.209270E-1	6.163950E-1	6.907751E-1	6.681314E-1	6.491057E-1	6.843540E-1	5.469402E-1	7.999655E-1
2.864030E+2	2.939502E-2	8.606409E-1	7.890521E-1	7.927717E-1	8.302781E-1	7.961949E-1	8.061147E-1	8.847582E-1	7.630077E-1	8.201720E-1	8.043776E-1	8.971394E-1	6.780205E-1	8.478637E-1	8.802368E-1	8.248275E-1	8.154424E-1	7.906525E-1	8.368120E-1	1.029148E+0	6.801013E-1	8.564271E-1	7.719948E-1	9.922030E-1	8.188016E-1	7.750085E-1	7.999368E-1	9.002146E-1	6.932478E-1	8.813915E-1	7.662207E-1	8.819288E-1	8.566800E-1	8.090117E-1	9.929904E-1	8.642077E-1	6.362088E-1	8.341189E-1	8.524192E-1	9.118840E-1	8.307664E-1	8.132859E-1	8.765033E-1	7.733205E-1	7.112040E-1	7.383994E-1	9.328718E-1	7.655617E-1	9.143211E-1	6.902393E-1	9.537019E-1	8.203478E-1	7.289840E-1	7.160657E-1	8.396188E-1	8.298093E-1	9.524543E-1	8.766547E-1	7.640025E-1	8.156421E-1	6.762414E-1	1.005834E+0	7.282328E-1	8.281420E-1	9.075175E-1	9.698104E-1	7.275757E-1	9.646524E-1	7.310671E-1	8.293317E-1	7.560761E-1	9.829414E-1	8.726909E-1	7.818908E-1	7.844661E-1	8.836963E-1	7.827742E-1	6.587273E-1	8.974432E-1	8.334634E-1	8.038528E-1	7.453811E-1	1.012469E+0	8.290761E-1	6.830988E-1	6.997434E-1	9.579768E-1	7.699972E-1	9.284336E-1	7.569941E-1	8.343699E-1	8.518230E-1	7.475116E-1	7.598464E-1	9.366594E-1	8.486848E-1	8.744942E-1	8.054330E-1	8.703024E-1	8.765035E-1	7.143213E-1	7.722131E-1	8.291096E-1	8.646439E-1	9.282242E-1	7.608612E-1	8.540639E-1	8.650716E-1	7.714964E-1	7.249418E-1	9.651947E-1	7.929869E-1	9.896111E-1	6.604078E-1	1.009762E+0	9.011235E-1	7.127081E-1	7.044010E-1	8.777036E-1	9.008719E-1	8.966995E-1	7.274871E-1	9.269375E-1	9.462283E-1	7.284922E-1	6.724564E-1	9.732565E-1	9.168058E-1	8.918312E-1	7.134914E-1	9.782266E-1	8.690776E-1	6.941738E-1	7.203029E-1	8.645008E-1	8.391862E-1	9.315649E-1	7.761697E-1	9.407897E-1	8.179356E-1	7.357051E-1	6.661861E-1	1.121018E+0	8.157185E-1	9.723540E-1	7.463646E-1	8.161814E-1	9.322521E-1	7.492739E-1	8.424124E-1	8.217800E-1	1.003724E+0	8.763343E-1	8.720792E-1	7.273400E-1	1.035400E+0	6.467588E-1	7.599261E-1	8.492422E-1	9.390566E-1	9.103777E-1	7.772977E-1	9.000790E-1	8.504285E-1	7.261338E-1	8.441375E-1	8.370038E-1	8.242597E-1	8.900403E-1	7.650965E-1	1.154180E+0
2.866150E+2	2.299498E-2	7.968067E-1	7.768244E-1	7.642208E-1	7.996626E-1	7.724854E-1	8.381394E-1	8.723302E-1	7.550553E-1	7.999418E-1	7.958138E-1	8.327292E-1	6.426868E-1	8.070965E-1	8.058466E-1	8.743033E-1	7.891663E-1	7.740644E-1	8.010740E-1	9.444565E-1	6.745707E-1	8.068193E-1	7.319733E-1	9.609664E-1	8.308548E-1	7.867063E-1	8.238162E-1	9.834728E-1	6.566317E-1	8.866661E-1	7.682953E-1	9.422997E-1	8.410727E-1	8.033573E-1	9.395909E-1	8.765480E-1	6.108202E-1	7.920146E-1	8.484932E-1	9.143325E-1	8.262603E-1	8.033227E-1	8.952806E-1	8.021188E-1	6.938751E-1	7.856957E-1	9.200710E-1	7.963200E-1	9.477616E-1	7.326102E-1	9.298275E-1	8.208159E-1	6.973720E-1	7.397209E-1	8.952850E-1	8.165751E-1	8.438785E-1	8.407000E-1	7.707529E-1	8.338097E-1	7.544667E-1	8.840138E-1	7.759349E-1	7.626653E-1	8.747060E-1	8.635678E-1	6.998121E-1	9.713280E-1	7.151274E-1	8.315917E-1	7.322020E-1	9.673968E-1	8.497142E-1	8.017256E-1	7.770028E-1	8.508821E-1	7.745980E-1	6.607212E-1	8.805419E-1	8.758767E-1	8.128043E-1	7.637326E-1	9.496803E-1	7.722567E-1	6.799789E-1	7.235948E-1	9.479107E-1	7.611586E-1	9.193046E-1	7.709444E-1	8.708432E-1	8.688418E-1	6.645846E-1	7.668240E-1	8.587005E-1	8.752659E-1	8.750938E-1	7.909036E-1	8.372402E-1	8.879639E-1	7.299178E-1	7.917078E-1	8.093145E-1	8.371457E-1	9.451413E-1	7.254335E-1	8.479026E-1	8.492051E-1	7.883472E-1	6.804009E-1	9.770210E-1	8.145070E-1	9.361521E-1	6.840013E-1	9.791021E-1	8.773528E-1	6.785684E-1	7.298450E-1	8.745005E-1	8.889251E-1	8.853342E-1	7.133336E-1	8.967748E-1	9.127175E-1	6.922580E-1	6.500609E-1	9.265004E-1	8.496748E-1	8.719780E-1	6.451144E-1	9.825038E-1	8.670813E-1	6.493143E-1	7.448044E-1	9.194966E-1	8.726350E-1	8.932566E-1	7.423609E-1	9.693507E-1	8.717258E-1	7.251082E-1	6.189275E-1	1.045719E+0	7.797423E-1	9.587615E-1	7.826531E-1	7.963197E-1	9.286194E-1	7.126125E-1	8.092731E-1	8.151552E-1	9.573193E-1	8.383938E-1	8.726699E-1	7.171768E-1	1.038947E+0	6.737642E-1	7.546954E-1	8.636669E-1	8.637322E-1	8.479974E-1	7.771898E-1	8.236943E-1	8.369601E-1	6.773369E-1	7.653608E-1	8.317589E-1	8.527126E-1	8.388919E-1	7.134862E-1	8.901551E-1
2.868030E+2	1.749430E-2	9.724199E-1	8.890728E-1	8.385195E-1	9.073021E-1	8.891673E-1	9.265381E-1	1.000156E+0	9.008695E-1	8.969533E-1	9.782838E-1	9.665658E-1	7.970196E-1	9.427860E-1	9.318434E-1	1.001472E+0	1.012155E+0	9.349391E-1	1.029298E+0	1.094602E+0	8.336365E-1	9.662258E-1	8.376719E-1	1.112505E+0	9.275850E-1	8.678826E-1	9.053559E-1	1.111752E+0	7.483703E-1	1.041399E+0	8.618158E-1	1.052234E+0	9.143572E-1	8.591178E-1	1.102743E+0	1.036311E+0	7.050578E-1	9.468488E-1	9.766764E-1	1.131170E+0	9.292999E-1	9.767473E-1	9.909144E-1	9.132926E-1	8.213910E-1	8.507163E-1	1.021151E+0	9.153300E-1	1.074135E+0	7.915148E-1	1.115992E+0	9.584144E-1	8.810576E-1	8.259307E-1	9.905046E-1	9.223822E-1	1.002525E+0	1.037445E+0	8.638309E-1	9.438879E-1	8.036060E-1	1.080732E+0	8.317878E-1	8.947534E-1	1.007795E+0	9.855395E-1	7.658922E-1	1.088571E+0	8.157807E-1	9.474688E-1	8.860320E-1	1.105392E+0	9.537682E-1	8.768612E-1	9.198418E-1	1.025496E+0	8.696626E-1	8.067462E-1	1.039106E+0	9.464838E-1	9.296883E-1	7.896502E-1	1.163329E+0	9.381280E-1	7.813270E-1	8.104454E-1	1.087843E+0	8.872252E-1	9.972256E-1	8.556060E-1	1.034356E+0	1.021458E+0	7.691201E-1	9.317136E-1	9.994495E-1	9.861879E-1	1.023697E+0	8.877433E-1	9.308395E-1	1.011672E+0	7.951899E-1	9.675326E-1	9.590472E-1	1.073782E+0	1.090365E+0	8.261449E-1	9.825039E-1	1.005822E+0	8.887175E-1	7.832186E-1	1.155077E+0	9.454974E-1	1.105596E+0	7.547975E-1	1.179183E+0	1.029615E+0	8.279261E-1	7.955942E-1	1.028133E+0	1.017244E+0	1.102446E+0	8.133731E-1	1.059615E+0	1.110291E+0	8.281511E-1	7.527894E-1	1.078350E+0	9.988575E-1	1.001452E+0	7.556769E-1	1.174322E+0	1.047843E+0	8.321100E-1	8.378481E-1	1.010695E+0	9.655428E-1	1.077031E+0	8.504613E-1	1.141621E+0	9.442317E-1	8.195702E-1	7.563967E-1	1.211373E+0	9.535920E-1	1.065249E+0	8.923113E-1	9.799725E-1	1.096429E+0	8.283835E-1	9.121664E-1	8.785633E-1	1.103052E+0	1.010804E+0	9.828581E-1	8.213975E-1	1.222784E+0	7.653239E-1	8.914425E-1	9.836827E-1	1.039987E+0	1.022724E+0	8.602403E-1	9.716861E-1	9.283387E-1	8.188209E-1	9.276181E-1	9.364290E-1	9.367420E-1	9.881843E-1	9.650540E-1	1.233437E+0
2.870150E+2	2.310667E-2	9.516339E-1	8.424929E-1	7.574194E-1	8.426340E-1	8.579110E-1	8.463040E-1	9.508652E-1	7.876386E-1	8.254100E-1	8.421500E-1	9.624649E-1	7.522037E-1	8.841364E-1	8.987057E-1	9.689840E-1	9.117268E-1	8.771612E-1	8.734885E-1	1.045772E+0	7.436039E-1	8.821376E-1	7.597569E-1	1.039912E+0	8.505059E-1	8.381769E-1	8.290560E-1	9.721361E-1	7.055184E-1	9.113255E-1	7.807949E-1	9.458595E-1	9.063715E-1	7.913562E-1	9.386847E-1	9.649093E-1	6.796069E-1	8.687446E-1	8.910754E-1	9.348274E-1	7.903262E-1	9.023813E-1	9.337952E-1	8.292946E-1	7.970928E-1	7.870879E-1	9.282871E-1	8.386270E-1	9.630494E-1	7.110507E-1	1.033298E+0	8.606658E-1	7.686512E-1	7.562661E-1	8.968501E-1	8.508177E-1	9.086371E-1	9.077853E-1	8.372985E-1	9.044888E-1	7.575375E-1	1.006568E+0	8.089830E-1	8.442250E-1	9.872295E-1	9.554021E-1	7.982172E-1	9.814261E-1	7.479746E-1	9.001148E-1	7.982435E-1	1.040378E+0	8.653302E-1	8.503711E-1	8.585463E-1	9.744011E-1	7.858312E-1	6.988983E-1	9.305494E-1	8.476674E-1	8.481077E-1	7.558633E-1	1.075083E+0	8.049657E-1	7.511698E-1	7.329085E-1	9.642868E-1	8.266937E-1	9.870778E-1	8.118490E-1	7.987406E-1	9.270059E-1	7.563351E-1	7.894998E-1	8.973818E-1	8.163341E-1	9.328401E-1	7.914312E-1	9.013672E-1	9.155937E-1	7.021988E-1	8.147252E-1	8.488431E-1	9.048491E-1	9.794171E-1	7.163656E-1	9.121274E-1	9.552284E-1	7.857569E-1	7.638203E-1	1.058716E+0	8.500021E-1	1.042981E+0	7.192054E-1	1.036252E+0	9.623539E-1	7.732373E-1	7.351751E-1	8.877720E-1	9.217491E-1	9.865487E-1	7.113555E-1	9.774720E-1	9.802032E-1	8.159773E-1	6.959374E-1	1.021653E+0	9.956081E-1	9.760930E-1	6.998716E-1	1.008297E+0	8.961388E-1	7.562014E-1	8.054975E-1	9.344192E-1	8.786422E-1	9.509208E-1	8.181510E-1	1.003593E+0	8.682352E-1	7.203144E-1	6.897932E-1	1.093008E+0	8.121707E-1	1.015965E+0	7.843311E-1	8.644799E-1	1.011176E+0	7.864041E-1	8.972711E-1	8.685582E-1	1.042183E+0	8.827955E-1	8.869990E-1	7.679091E-1	1.148593E+0	7.296381E-1	8.526392E-1	8.815116E-1	9.925747E-1	9.251388E-1	8.183441E-1	9.114607E-1	8.591920E-1	7.684984E-1	8.564142E-1	9.107292E-1	8.091244E-1	9.398921E-1	8.166440E-1	8.427797E-1
2.872110E+2	1.269005E-2	8.229247E-1	7.015917E-1	6.816790E-1	7.230740E-1	7.134176E-1	6.970999E-1	7.807575E-1	6.388546E-1	7.233770E-1	6.200891E-1	8.895813E-1	5.987658E-1	7.563905E-1	6.669069E-1	8.803522E-1	7.307505E-1	6.893678E-1	6.828174E-1	9.158984E-1	6.230433E-1	7.488565E-1	6.439600E-1	8.723964E-1	7.617096E-1	7.320393E-1	6.278084E-1	9.288956E-1	5.547960E-1	7.966192E-1	5.827137E-1	9.020457E-1	7.441243E-1	7.550406E-1	7.675803E-1	8.760597E-1	6.102432E-1	7.157696E-1	7.200852E-1	8.358166E-1	7.307872E-1	7.568783E-1	7.462811E-1	7.677061E-1	6.177567E-1	6.549359E-1	7.552872E-1	6.645941E-1	8.357628E-1	6.304078E-1	7.983912E-1	6.980720E-1	6.452711E-1	7.082125E-1	7.660759E-1	7.837420E-1	7.382521E-1	7.591426E-1	6.731911E-1	7.310185E-1	6.378522E-1	8.558845E-1	7.209335E-1	6.953531E-1	8.154083E-1	7.797987E-1	6.045709E-1	8.147327E-1	6.112139E-1	7.922753E-1	6.512769E-1	8.782747E-1	7.187465E-1	7.052748E-1	6.721216E-1	8.108356E-1	6.819482E-1	6.010764E-1	8.337378E-1	7.316657E-1	7.496804E-1	6.765210E-1	8.771393E-1	7.029344E-1	6.584214E-1	6.158297E-1	8.230507E-1	6.649929E-1	7.683128E-1	6.814550E-1	7.692888E-1	7.812387E-1	6.233162E-1	6.850187E-1	8.148051E-1	7.596497E-1	7.649362E-1	6.282544E-1	7.325532E-1	7.665621E-1	6.471829E-1	7.266988E-1	7.042892E-1	7.684673E-1	8.593759E-1	6.474449E-1	7.902552E-1	7.650815E-1	6.580828E-1	6.156015E-1	8.935783E-1	6.751044E-1	8.647416E-1	6.239628E-1	8.876319E-1	7.815451E-1	6.460916E-1	6.042769E-1	8.216767E-1	8.122415E-1	8.165347E-1	6.097452E-1	7.929408E-1	7.864542E-1	6.246939E-1	6.154513E-1	8.635403E-1	7.850397E-1	7.611831E-1	5.526416E-1	8.858258E-1	7.701014E-1	6.090138E-1	7.007026E-1	8.146766E-1	7.147500E-1	7.891625E-1	6.600171E-1	9.008806E-1	7.043443E-1	6.270355E-1	5.778873E-1	9.305392E-1	7.022594E-1	8.103536E-1	6.963377E-1	7.650938E-1	7.994164E-1	6.879451E-1	7.209251E-1	7.095891E-1	8.923587E-1	7.330341E-1	7.670433E-1	6.527265E-1	9.493190E-1	5.721350E-1	7.122658E-1	7.508387E-1	7.825051E-1	7.573092E-1	6.748106E-1	7.491787E-1	7.937620E-1	6.491377E-1	7.219956E-1	7.097510E-1	8.086256E-1	8.057835E-1	6.728306E-1	9.140824E-1
2.874020E+2	1.517803E-2	6.580951E-1	5.763328E-1	5.491391E-1	5.851753E-1	5.945227E-1	5.687439E-1	6.020406E-1	5.505305E-1	5.757569E-1	4.818920E-1	7.216488E-1	4.652198E-1	5.617902E-1	4.873653E-1	7.231918E-1	6.173027E-1	5.495454E-1	5.463420E-1	7.364722E-1	4.871703E-1	5.852849E-1	4.708723E-1	7.165786E-1	5.647703E-1	6.056633E-1	4.914276E-1	7.436622E-1	4.347162E-1	6.458160E-1	4.598681E-1	8.015113E-1	6.010838E-1	5.661461E-1	5.908824E-1	6.934687E-1	4.553998E-1	5.497079E-1	5.880917E-1	6.789071E-1	5.311061E-1	5.937384E-1	5.181924E-1	6.947059E-1	5.270478E-1	5.328690E-1	5.430500E-1	7.040615E-1	6.531660E-1	4.684689E-1	5.873595E-1	6.879415E-1	5.504342E-1	5.568457E-1	6.067491E-1	5.927413E-1	6.087555E-1	6.127457E-1	4.846202E-1	6.726557E-1	4.856005E-1	6.855344E-1	4.494936E-1	6.434871E-1	5.973136E-1	6.233781E-1	4.903350E-1	7.385490E-1	4.727594E-1	5.583921E-1	5.102654E-1	6.987481E-1	5.886172E-1	5.389698E-1	5.974754E-1	6.067340E-1	5.646785E-1	4.491100E-1	6.202777E-1	5.884836E-1	5.792383E-1	5.071076E-1	6.934160E-1	5.842191E-1	5.271585E-1	4.915413E-1	6.467675E-1	5.850135E-1	6.419241E-1	5.329015E-1	5.843120E-1	5.876063E-1	4.934368E-1	5.555742E-1	6.317337E-1	5.788481E-1	6.067726E-1	5.630006E-1	6.081632E-1	5.638073E-1	5.125922E-1	5.567211E-1	6.175209E-1	6.019203E-1	6.299575E-1	4.715673E-1	6.046178E-1	6.209854E-1	5.555017E-1	5.111453E-1	7.243487E-1	5.679341E-1	6.922610E-1	4.721359E-1	7.346517E-1	6.352178E-1	5.369157E-1	4.764924E-1	6.346547E-1	5.990925E-1	6.533313E-1	4.979282E-1	6.080077E-1	6.632120E-1	4.863151E-1	4.752571E-1	6.535928E-1	6.095761E-1	6.072701E-1	4.757778E-1	6.685774E-1	5.841314E-1	4.834007E-1	5.348805E-1	6.448194E-1	5.549910E-1	6.452448E-1	5.094797E-1	7.012670E-1	5.719930E-1	4.777439E-1	4.884724E-1	7.445788E-1	5.468206E-1	6.567707E-1	5.182769E-1	5.623482E-1	6.467340E-1	5.932245E-1	5.479313E-1	5.651417E-1	6.779319E-1	5.922883E-1	6.123073E-1	4.951554E-1	7.841551E-1	4.375760E-1	5.418201E-1	6.294114E-1	6.414103E-1	5.991596E-1	5.503545E-1	6.032429E-1	5.806091E-1	5.252446E-1	5.538615E-1	5.467407E-1	5.809347E-1	6.160919E-1	5.588543E-1	6.951667E-1
2.876150E+2	1.357764E-2	5.148617E-1	3.929997E-1	4.349918E-1	4.185652E-1	4.361435E-1	4.188945E-1	4.799182E-1	3.902239E-1	3.944390E-1	3.703071E-1	5.190952E-1	3.494358E-1	4.283509E-1	3.876746E-1	5.053476E-1	4.087679E-1	4.252370E-1	4.342387E-1	5.228839E-1	3.404909E-1	4.057115E-1	3.666289E-1	5.256465E-1	4.288885E-1	3.902294E-1	3.698536E-1	5.695648E-1	3.071651E-1	4.595938E-1	3.474404E-1	5.596762E-1	4.277898E-1	3.991530E-1	4.179546E-1	5.338203E-1	3.199985E-1	3.974829E-1	3.962966E-1	4.807570E-1	4.056544E-1	4.113568E-1	3.978670E-1	5.075082E-1	3.736781E-1	3.877891E-1	3.998949E-1	4.769987E-1	4.825336E-1	3.622988E-1	4.612433E-1	4.768367E-1	3.815662E-1	3.890071E-1	4.181950E-1	4.459944E-1	4.297958E-1	4.544450E-1	3.405928E-1	5.006878E-1	3.536277E-1	4.687439E-1	3.273038E-1	4.915785E-1	4.720874E-1	4.615980E-1	3.190645E-1	5.565178E-1	3.574318E-1	4.441791E-1	4.073691E-1	5.068320E-1	4.224625E-1	4.193574E-1	3.831443E-1	5.067736E-1	4.067984E-1	3.425696E-1	4.453680E-1	4.665078E-1	4.043822E-1	3.823022E-1	4.937845E-1	4.531027E-1	3.606862E-1	3.777545E-1	4.932188E-1	4.405554E-1	4.621160E-1	4.238362E-1	3.877545E-1	4.873535E-1	3.551130E-1	3.945748E-1	4.124800E-1	4.853302E-1	4.739630E-1	3.747686E-1	3.640684E-1	5.161450E-1	3.793227E-1	4.260994E-1	4.107508E-1	4.841999E-1	4.548419E-1	3.959884E-1	4.426736E-1	4.340117E-1	4.200813E-1	3.607736E-1	4.999856E-1	4.286647E-1	4.952937E-1	3.226465E-1	5.331919E-1	4.896770E-1	4.095950E-1	3.860477E-1	4.700326E-1	4.212249E-1	4.993169E-1	3.540634E-1	4.817634E-1	4.965575E-1	3.499146E-1	3.318206E-1	4.973636E-1	4.903862E-1	4.812503E-1	3.563060E-1	4.647390E-1	4.351775E-1	3.837585E-1	3.735347E-1	4.460569E-1	4.369468E-1	4.778293E-1	3.979195E-1	4.881402E-1	3.964158E-1	4.333723E-1	3.518944E-1	5.592821E-1	4.196226E-1	4.665201E-1	3.834048E-1	4.345912E-1	4.699697E-1	3.733144E-1	4.315687E-1	4.044827E-1	5.077210E-1	4.686472E-1	4.170461E-1	3.595878E-1	5.540474E-1	3.615941E-1	3.801440E-1	4.192662E-1	4.772093E-1	4.560230E-1	3.807352E-1	4.781641E-1	4.448829E-1	3.826716E-1	4.178824E-1	4.447869E-1	4.120393E-1	4.376391E-1	3.645276E-1	4.832054E-1
2.878030E+2	8.693648E-3	3.768776E-1	3.331424E-1	3.220661E-1	3.145014E-1	2.956147E-1	3.563418E-1	3.540804E-1	3.333447E-1	3.415978E-1	3.002024E-1	3.434791E-1	2.462443E-1	3.567047E-1	3.036520E-1	4.226717E-1	3.475945E-1	3.136088E-1	3.203007E-1	3.748782E-1	2.899485E-1	3.428586E-1	2.801554E-1	4.250962E-1	3.436364E-1	3.136331E-1	3.061888E-1	4.495840E-1	2.873448E-1	3.747749E-1	2.631141E-1	4.603774E-1	3.485087E-1	3.103781E-1	3.312982E-1	4.346730E-1	2.756943E-1	3.465639E-1	3.374464E-1	4.165515E-1	3.154206E-1	3.422778E-1	3.230665E-1	3.560204E-1	2.851605E-1	3.232587E-1	3.129277E-1	3.924978E-1	3.792225E-1	2.947090E-1	3.482472E-1	3.804895E-1	3.036707E-1	3.014205E-1	3.807759E-1	3.503302E-1	3.676406E-1	3.451975E-1	2.821948E-1	4.182590E-1	2.930128E-1	4.115155E-1	2.485901E-1	3.905861E-1	3.718661E-1	3.799622E-1	2.648128E-1	4.554619E-1	2.926372E-1	3.501468E-1	2.886841E-1	3.904712E-1	3.658962E-1	3.093244E-1	3.052256E-1	3.975111E-1	3.071247E-1	2.648081E-1	3.331249E-1	3.757853E-1	3.572805E-1	2.974881E-1	4.248221E-1	3.439401E-1	2.759701E-1	2.870002E-1	3.677039E-1	2.982565E-1	3.531396E-1	3.303553E-1	3.077958E-1	4.019052E-1	2.990750E-1	3.211413E-1	3.108634E-1	4.172239E-1	3.605571E-1	3.133679E-1	3.108093E-1	4.287850E-1	2.923818E-1	3.262544E-1	3.337154E-1	4.131828E-1	3.921542E-1	2.885453E-1	3.233960E-1	3.729506E-1	2.950814E-1	3.150233E-1	3.713017E-1	3.798049E-1	3.865556E-1	2.819628E-1	4.011974E-1	3.724157E-1	2.982819E-1	2.892388E-1	3.617288E-1	3.559479E-1	3.971421E-1	3.196943E-1	3.075157E-1	4.436666E-1	3.528421E-1	2.725256E-1	3.449975E-1	4.235529E-1	3.685394E-1	2.750460E-1	3.698281E-1	4.350940E-1	2.955623E-1	3.042981E-1	3.370965E-1	3.726746E-1	3.862557E-1	3.074176E-1	3.568991E-1	3.763055E-1	3.085798E-1	2.716433E-1	3.824969E-1	3.779291E-1	3.577334E-1	3.019901E-1	3.470653E-1	4.104669E-1	3.071768E-1	3.245555E-1	3.050274E-1	4.041643E-1	3.647686E-1	3.582474E-1	2.994252E-1	4.389281E-1	2.749314E-1	3.058460E-1	3.588127E-1	3.970037E-1	3.633984E-1	2.998996E-1	3.969427E-1	3.271470E-1	3.167646E-1	3.617045E-1	3.586635E-1	3.366429E-1	4.088556E-1	3.316705E-1	3.883408E-1
2.880020E+2	1.118197E-2	4.273654E-1	3.518354E-1	3.424504E-1	3.936793E-1	3.781476E-1	4.111595E-1	4.548303E-1	3.624188E-1	3.721067E-1	3.488685E-1	5.113827E-1	3.284341E-1	3.919449E-1	3.686613E-1	4.876126E-1	4.042353E-1	4.032363E-1	3.877110E-1	5.003339E-1	3.148155E-1	3.751599E-1	3.773066E-1	5.038391E-1	4.235009E-1	3.694044E-1	3.663411E-1	5.917694E-1	3.241310E-1	4.502743E-1	2.926759E-1	5.128056E-1	3.859334E-1	4.194563E-1	4.137802E-1	5.056872E-1	2.676727E-1	3.888955E-1	4.299155E-1	5.030234E-1	4.261539E-1	4.320931E-1	3.823302E-1	4.751050E-1	3.530779E-1	3.778172E-1	3.458487E-1	4.781045E-1	4.451745E-1	3.547035E-1	4.622904E-1	4.237095E-1	3.790149E-1	3.671003E-1	3.691861E-1	4.408513E-1	4.560602E-1	4.330846E-1	3.356089E-1	4.604481E-1	2.994802E-1	4.964380E-1	3.256070E-1	4.628778E-1	4.252956E-1	4.461094E-1	3.151055E-1	5.704235E-1	3.498709E-1	4.256721E-1	3.628236E-1	5.070071E-1	3.909320E-1	3.638692E-1	3.794687E-1	4.505084E-1	3.552359E-1	2.985270E-1	4.247655E-1	4.413334E-1	4.206109E-1	3.662025E-1	4.638226E-1	4.183011E-1	3.432815E-1	3.507871E-1	4.943818E-1	3.915443E-1	5.033096E-1	3.586226E-1	3.606860E-1	4.807015E-1	3.488958E-1	3.866986E-1	3.757452E-1	5.052853E-1	4.565770E-1	3.667465E-1	3.421902E-1	4.737587E-1	3.582523E-1	3.984358E-1	4.004629E-1	4.535451E-1	5.256564E-1	3.449668E-1	3.987754E-1	4.320163E-1	3.871704E-1	3.560206E-1	4.448044E-1	4.634660E-1	4.635796E-1	3.319171E-1	4.572302E-1	4.473068E-1	3.844960E-1	3.430353E-1	4.492937E-1	4.327225E-1	4.535928E-1	3.656492E-1	3.578519E-1	5.629854E-1	3.272368E-1	3.180350E-1	3.740600E-1	5.293438E-1	4.273438E-1	3.273834E-1	4.305919E-1	4.784270E-1	3.471550E-1	3.700694E-1	4.671258E-1	4.169920E-1	4.755322E-1	3.702456E-1	4.044951E-1	4.902778E-1	3.546227E-1	3.164463E-1	4.393625E-1	4.818412E-1	4.592573E-1	3.744262E-1	3.496294E-1	5.241546E-1	3.430217E-1	4.204802E-1	3.598724E-1	4.744310E-1	4.311949E-1	4.302573E-1	3.037452E-1	5.968852E-1	3.527024E-1	3.814560E-1	3.487550E-1	5.047402E-1	4.143204E-1	3.981615E-1	4.162958E-1	4.623617E-1	3.440417E-1	3.931799E-1	3.814381E-1	4.531875E-1	4.560303E-1	4.369178E-1	4.097715E-1
2.882210E+2	1.203653E-2	5.536109E-1	4.350764E-1	4.487729E-1	4.977686E-1	4.904357E-1	4.677126E-1	5.573232E-1	4.702068E-1	4.732600E-1	4.124874E-1	6.092160E-1	4.083937E-1	4.662949E-1	4.427037E-1	6.024208E-1	4.872630E-1	4.726890E-1	4.397902E-1	6.178118E-1	4.246646E-1	5.117452E-1	4.542048E-1	5.898811E-1	4.837476E-1	5.072076E-1	4.211395E-1	6.626606E-1	3.936833E-1	5.527577E-1	3.973592E-1	6.599127E-1	4.883254E-1	4.678876E-1	4.670086E-1	6.234473E-1	3.606236E-1	4.810600E-1	5.148281E-1	5.629474E-1	4.884609E-1	4.657677E-1	4.532962E-1	5.354663E-1	4.396287E-1	4.728121E-1	4.531724E-1	5.562102E-1	5.195194E-1	3.963770E-1	5.121973E-1	5.459770E-1	4.584703E-1	4.337880E-1	4.765814E-1	4.925914E-1	5.207844E-1	5.662369E-1	4.073130E-1	5.926732E-1	4.551417E-1	5.393191E-1	3.698398E-1	6.055094E-1	5.746258E-1	5.244046E-1	3.911377E-1	6.763941E-1	4.051749E-1	5.172807E-1	4.438134E-1	6.240785E-1	5.109323E-1	4.835996E-1	4.634544E-1	5.728940E-1	4.630239E-1	4.156017E-1	4.704565E-1	5.469188E-1	5.101727E-1	4.550826E-1	5.795371E-1	5.362940E-1	4.354851E-1	4.416101E-1	5.833159E-1	4.970864E-1	5.591102E-1	4.640344E-1	4.246807E-1	6.072845E-1	4.161098E-1	4.548196E-1	4.800335E-1	6.022316E-1	5.318397E-1	4.632803E-1	4.400397E-1	6.253741E-1	4.201020E-1	4.972808E-1	4.543312E-1	5.634398E-1	6.163820E-1	4.212579E-1	5.260687E-1	5.671513E-1	4.798083E-1	4.216137E-1	5.784871E-1	5.384228E-1	5.972789E-1	4.264251E-1	5.864227E-1	5.471899E-1	4.585868E-1	4.543035E-1	5.195121E-1	5.321517E-1	5.606580E-1	4.329367E-1	4.686581E-1	6.523531E-1	4.245808E-1	3.871435E-1	4.867319E-1	6.183471E-1	5.628911E-1	4.103298E-1	5.057343E-1	5.669567E-1	4.218588E-1	4.576695E-1	5.151692E-1	5.265813E-1	5.494010E-1	4.311959E-1	5.475472E-1	5.889915E-1	4.229490E-1	3.833621E-1	5.252933E-1	6.054633E-1	5.723220E-1	4.271096E-1	4.562605E-1	6.708310E-1	4.459015E-1	4.736630E-1	4.287350E-1	6.089399E-1	4.886319E-1	5.515876E-1	3.984698E-1	6.988455E-1	4.164198E-1	4.517515E-1	4.373532E-1	6.538371E-1	5.375194E-1	4.771103E-1	4.814093E-1	5.489353E-1	4.359449E-1	5.026611E-1	5.016769E-1	5.040340E-1	5.177090E-1	4.647773E-1	5.618196E-1
2.884160E+2	1.207046E-2	6.575797E-1	5.278572E-1	5.340367E-1	5.276844E-1	5.413322E-1	5.941383E-1	6.367678E-1	5.100917E-1	5.750243E-1	4.797059E-1	7.291665E-1	4.677825E-1	5.920597E-1	5.340527E-1	6.910203E-1	6.320391E-1	5.624804E-1	5.290325E-1	7.607169E-1	4.825451E-1	5.930498E-1	5.039698E-1	7.372382E-1	5.736151E-1	5.876155E-1	5.212610E-1	7.477263E-1	4.337797E-1	6.521104E-1	4.760762E-1	7.818477E-1	6.019831E-1	5.305015E-1	5.807609E-1	7.233275E-1	4.541211E-1	5.941774E-1	5.841174E-1	7.101783E-1	5.695220E-1	6.301465E-1	5.682836E-1	6.581741E-1	5.508440E-1	5.465406E-1	5.567299E-1	6.686566E-1	6.604606E-1	5.420091E-1	5.995973E-1	7.014769E-1	5.445047E-1	5.264992E-1	5.775018E-1	5.620851E-1	6.237580E-1	6.279413E-1	4.940541E-1	6.430176E-1	5.016092E-1	7.018821E-1	4.413757E-1	6.752180E-1	6.060199E-1	6.660939E-1	4.636890E-1	7.387311E-1	4.902120E-1	6.138814E-1	5.517845E-1	7.329354E-1	6.654380E-1	5.635059E-1	5.551625E-1	6.334808E-1	5.923224E-1	4.790747E-1	5.803064E-1	6.473801E-1	5.917302E-1	5.102316E-1	7.024522E-1	5.987304E-1	5.186365E-1	5.144957E-1	6.174282E-1	5.466312E-1	6.398425E-1	5.069956E-1	5.369938E-1	7.067654E-1	5.001677E-1	5.395492E-1	5.478507E-1	7.250095E-1	5.895583E-1	5.615727E-1	5.433496E-1	6.950255E-1	4.720093E-1	6.089274E-1	5.555251E-1	6.506132E-1	6.684924E-1	4.776439E-1	5.463186E-1	6.704383E-1	5.632035E-1	5.041763E-1	6.659311E-1	6.551007E-1	7.361411E-1	4.764392E-1	7.002520E-1	6.806333E-1	4.575298E-1	5.307877E-1	6.630902E-1	6.322553E-1	6.587553E-1	4.744385E-1	5.688165E-1	7.302182E-1	5.264373E-1	4.485310E-1	5.545920E-1	7.229792E-1	6.672286E-1	4.696208E-1	6.013903E-1	7.576720E-1	5.081614E-1	5.424843E-1	6.169083E-1	6.228591E-1	6.421460E-1	5.207116E-1	6.132729E-1	6.711828E-1	5.331543E-1	4.922937E-1	5.951160E-1	6.941412E-1	6.842922E-1	5.399195E-1	5.239555E-1	7.986698E-1	5.072833E-1	5.510614E-1	5.014634E-1	7.401270E-1	6.121387E-1	6.313753E-1	4.222684E-1	7.788778E-1	5.231982E-1	5.351940E-1	5.040477E-1	7.283231E-1	6.190197E-1	5.471143E-1	5.749644E-1	6.408415E-1	5.284072E-1	6.055834E-1	5.740093E-1	5.882024E-1	6.504835E-1	5.347122E-1	5.979880E-1
2.886030E+2	1.127673E-2	7.705605E-1	6.237304E-1	6.021320E-1	6.175510E-1	6.399536E-1	6.385526E-1	7.308012E-1	6.260028E-1	6.617621E-1	5.795006E-1	8.274440E-1	5.712372E-1	6.814789E-1	6.149862E-1	8.042643E-1	6.606864E-1	6.638963E-1	6.311342E-1	9.040515E-1	5.629872E-1	6.706837E-1	6.008929E-1	8.493120E-1	7.050196E-1	6.820927E-1	5.903302E-1	9.158136E-1	5.362222E-1	7.312992E-1	4.996519E-1	9.091323E-1	6.848501E-1	6.711005E-1	6.849931E-1	8.775247E-1	5.263706E-1	6.691104E-1	7.118087E-1	7.721853E-1	6.303377E-1	7.160927E-1	6.596604E-1	8.210126E-1	6.171883E-1	6.433415E-1	6.236073E-1	7.887496E-1	8.209962E-1	5.775761E-1	7.459116E-1	7.478331E-1	6.126448E-1	5.732356E-1	7.065974E-1	7.067968E-1	6.997901E-1	7.555053E-1	5.770911E-1	7.973404E-1	6.014531E-1	7.423251E-1	4.957400E-1	7.881161E-1	7.559334E-1	7.343286E-1	5.307799E-1	8.821729E-1	6.001388E-1	6.892401E-1	5.832582E-1	8.346763E-1	6.720022E-1	6.469301E-1	5.907966E-1	7.296467E-1	6.100725E-1	5.801151E-1	6.894825E-1	7.154164E-1	6.922637E-1	5.837974E-1	7.951056E-1	7.066994E-1	5.770180E-1	5.970858E-1	7.933359E-1	6.805220E-1	8.003064E-1	6.526649E-1	6.283117E-1	8.397507E-1	5.913252E-1	6.386461E-1	5.780385E-1	8.436273E-1	6.759333E-1	6.197809E-1	6.228432E-1	8.023620E-1	5.279456E-1	6.485331E-1	6.803135E-1	7.709167E-1	8.037680E-1	6.086132E-1	6.740940E-1	7.655753E-1	6.542591E-1	5.733978E-1	7.138261E-1	7.242777E-1	7.868668E-1	5.619418E-1	7.763534E-1	7.840129E-1	5.947279E-1	6.255730E-1	7.031146E-1	7.827311E-1	7.634597E-1	5.740250E-1	6.147806E-1	9.127105E-1	6.233873E-1	5.388679E-1	6.943700E-1	8.225832E-1	7.180632E-1	5.292694E-1	7.273078E-1	7.428899E-1	5.942337E-1	6.467352E-1	7.402384E-1	7.213026E-1	7.991988E-1	5.974195E-1	6.794141E-1	7.881982E-1	6.324402E-1	5.703792E-1	7.129231E-1	7.902950E-1	7.706855E-1	5.910459E-1	6.016599E-1	8.823476E-1	6.143854E-1	6.580251E-1	6.029910E-1	7.912627E-1	7.287076E-1	7.124699E-1	5.279070E-1	9.006467E-1	6.115792E-1	6.551435E-1	6.021806E-1	8.582738E-1	7.440980E-1	6.127906E-1	6.824621E-1	7.889939E-1	6.177308E-1	7.155719E-1	6.656573E-1	6.862595E-1	7.202798E-1	5.935931E-1	6.227847E-1
2.888210E+2	9.658329E-3	9.532205E-1	7.883985E-1	7.711121E-1	7.691568E-1	7.637740E-1	7.911160E-1	8.696132E-1	8.135286E-1	7.583277E-1	7.209470E-1	9.570951E-1	7.098715E-1	8.520841E-1	6.894366E-1	9.666680E-1	8.830726E-1	8.490141E-1	7.985197E-1	9.422646E-1	7.062205E-1	8.212989E-1	6.662531E-1	9.649603E-1	8.103166E-1	7.236664E-1	6.801338E-1	1.097021E+0	6.173573E-1	8.495240E-1	6.368152E-1	1.017680E+0	8.709288E-1	7.190423E-1	8.057329E-1	9.777330E-1	5.850413E-1	7.977968E-1	7.975495E-1	9.484827E-1	8.085151E-1	8.141315E-1	7.219281E-1	9.879634E-1	7.456923E-1	7.468091E-1	7.556156E-1	9.366306E-1	9.313654E-1	6.875637E-1	8.533663E-1	8.928490E-1	7.115775E-1	7.400345E-1	8.733474E-1	8.115014E-1	8.620599E-1	8.803384E-1	6.605056E-1	9.573924E-1	6.996461E-1	9.054304E-1	6.381908E-1	9.145907E-1	8.882805E-1	9.225101E-1	6.033441E-1	1.026914E+0	7.252947E-1	8.689616E-1	6.779546E-1	9.749623E-1	7.943559E-1	7.586813E-1	7.268517E-1	9.166160E-1	7.719137E-1	6.643098E-1	7.597060E-1	8.998156E-1	8.020678E-1	6.962688E-1	9.897128E-1	8.787440E-1	7.237372E-1	7.074205E-1	8.870129E-1	8.110976E-1	9.197719E-1	7.911758E-1	7.532693E-1	9.839113E-1	7.174216E-1	7.213145E-1	7.163972E-1	9.820847E-1	8.567549E-1	8.129408E-1	7.379840E-1	9.743122E-1	6.749344E-1	8.248151E-1	7.860690E-1	8.222472E-1	9.175710E-1	7.042812E-1	7.714500E-1	9.284125E-1	7.814965E-1	6.494700E-1	8.732094E-1	8.856829E-1	9.538260E-1	6.549140E-1	9.175991E-1	9.368591E-1	6.634309E-1	6.918824E-1	8.950247E-1	9.088007E-1	8.850319E-1	7.091848E-1	7.887950E-1	1.035217E+0	7.237764E-1	6.455897E-1	8.325631E-1	9.855453E-1	8.680066E-1	6.523157E-1	8.814353E-1	9.721430E-1	7.319299E-1	7.210125E-1	8.488960E-1	8.302486E-1	8.786264E-1	7.384608E-1	7.899873E-1	9.245680E-1	7.258757E-1	6.951127E-1	8.455690E-1	9.415618E-1	9.587429E-1	6.829998E-1	7.044174E-1	1.085781E+0	7.374630E-1	7.721714E-1	7.449648E-1	9.893720E-1	8.037619E-1	8.839099E-1	6.607049E-1	1.063180E+0	7.292116E-1	7.386227E-1	7.002393E-1	1.024709E+0	9.197033E-1	7.553083E-1	7.701325E-1	9.367319E-1	7.607864E-1	8.216310E-1	8.182669E-1	8.800434E-1	8.897585E-1	7.471795E-1	8.757597E-1
2.890190E+2	8.024349E-3	9.431862E-1	7.389617E-1	6.665063E-1	6.904227E-1	7.129197E-1	7.404711E-1	8.501929E-1	7.126469E-1	6.773098E-1	6.379764E-1	8.260479E-1	6.695893E-1	7.382791E-1	6.346699E-1	7.944521E-1	8.494816E-1	7.233281E-1	7.176964E-1	8.369147E-1	7.046509E-1	7.485628E-1	6.174907E-1	8.836263E-1	7.859444E-1	7.291086E-1	6.429947E-1	8.739785E-1	6.353805E-1	7.853788E-1	5.870064E-1	8.466225E-1	8.863979E-1	7.089359E-1	7.310507E-1	8.250626E-1	6.446862E-1	7.024160E-1	7.446035E-1	8.332754E-1	7.752997E-1	7.588954E-1	6.690657E-1	8.434266E-1	6.518901E-1	6.629805E-1	6.721908E-1	7.376158E-1	8.866956E-1	6.318108E-1	7.114063E-1	8.059337E-1	7.254674E-1	6.609979E-1	7.597316E-1	7.082481E-1	8.651686E-1	7.832175E-1	6.139487E-1	8.443766E-1	6.826358E-1	8.387146E-1	6.015933E-1	7.940627E-1	8.702654E-1	7.920533E-1	5.781061E-1	8.899354E-1	6.549412E-1	7.526255E-1	6.553150E-1	9.064909E-1	7.279268E-1	6.925837E-1	6.902436E-1	8.001255E-1	6.911373E-1	6.482417E-1	7.667041E-1	8.147713E-1	7.716369E-1	6.423345E-1	8.588088E-1	7.717566E-1	6.503967E-1	6.164666E-1	8.491242E-1	7.531536E-1	8.447033E-1	7.374064E-1	6.539976E-1	8.858998E-1	6.378833E-1	6.766961E-1	6.425473E-1	8.826675E-1	7.662650E-1	6.901444E-1	6.679649E-1	8.867472E-1	6.195491E-1	7.138992E-1	7.257990E-1	8.090948E-1	8.933755E-1	6.220510E-1	7.264782E-1	8.517399E-1	6.963127E-1	6.385042E-1	8.027875E-1	7.555115E-1	8.000141E-1	5.979396E-1	9.172625E-1	8.470285E-1	6.394701E-1	6.165019E-1	8.117974E-1	7.955953E-1	7.976915E-1	6.436961E-1	7.277582E-1	9.643832E-1	6.444556E-1	5.982138E-1	7.380022E-1	8.962793E-1	8.037683E-1	5.633197E-1	8.427705E-1	8.441338E-1	6.718534E-1	6.686067E-1	7.499395E-1	7.421706E-1	8.874144E-1	6.863193E-1	7.130227E-1	8.531106E-1	6.501927E-1	6.291480E-1	7.652974E-1	8.805897E-1	8.373007E-1	6.540590E-1	6.339538E-1	9.963890E-1	6.582027E-1	7.380816E-1	6.301738E-1	9.615868E-1	7.554175E-1	7.730629E-1	5.729783E-1	9.752240E-1	6.501559E-1	6.877906E-1	6.454657E-1	9.387168E-1	8.081149E-1	6.750959E-1	6.715967E-1	8.381364E-1	6.353358E-1	6.950982E-1	7.359272E-1	7.808236E-1	7.713642E-1	6.421219E-1	7.704530E-1
2.892040E+2	1.473009E-2	6.375768E-1	5.274930E-1	4.748045E-1	5.042021E-1	5.747016E-1	5.219188E-1	5.954012E-1	5.418379E-1	5.138216E-1	4.428432E-1	6.059753E-1	4.980118E-1	5.281308E-1	4.873814E-1	5.894514E-1	6.380374E-1	5.471112E-1	5.298298E-1	5.830581E-1	4.880523E-1	5.338199E-1	4.804101E-1	6.139699E-1	6.056886E-1	5.360115E-1	4.627454E-1	6.429035E-1	4.941782E-1	6.002794E-1	4.108255E-1	5.793651E-1	6.696778E-1	5.477169E-1	5.460011E-1	5.982581E-1	4.643568E-1	5.336436E-1	5.722577E-1	5.816178E-1	5.586260E-1	5.450206E-1	5.083261E-1	5.959299E-1	5.263640E-1	4.764811E-1	5.167261E-1	5.573575E-1	7.262782E-1	4.280420E-1	6.062222E-1	5.341101E-1	5.468366E-1	4.934334E-1	5.986409E-1	5.645521E-1	5.903655E-1	5.907218E-1	4.702278E-1	5.802297E-1	5.056059E-1	6.164362E-1	4.568445E-1	5.522497E-1	7.152954E-1	6.107489E-1	4.544443E-1	6.313546E-1	5.446176E-1	5.428534E-1	4.882713E-1	6.410102E-1	5.448496E-1	5.382535E-1	5.397346E-1	5.793811E-1	5.899298E-1	4.613127E-1	5.469793E-1	4.999034E-1	6.727806E-1	4.930310E-1	6.802704E-1	4.976626E-1	5.764192E-1	4.769010E-1	6.112284E-1	5.161124E-1	6.883009E-1	4.837289E-1	5.044090E-1	6.541752E-1	5.305180E-1	5.142660E-1	5.150886E-1	5.788601E-1	6.890778E-1	5.594140E-1	4.909069E-1	5.999975E-1	5.043680E-1	5.488192E-1	5.266530E-1	5.857345E-1	6.321297E-1	4.979849E-1	5.557300E-1	6.243203E-1	5.013173E-1	4.747671E-1	6.079968E-1	6.203152E-1	6.278156E-1	4.417138E-1	6.309774E-1	5.694837E-1	4.789700E-1	4.671239E-1	6.064836E-1	6.212008E-1	5.562598E-1	4.801999E-1	5.266021E-1	7.493302E-1	4.930020E-1	4.213820E-1	5.404307E-1	6.939982E-1	5.897205E-1	4.588396E-1	5.796986E-1	6.561442E-1	4.905923E-1	5.162525E-1	5.713025E-1	5.614366E-1	6.140785E-1	5.264231E-1	5.138885E-1	6.319367E-1	4.945314E-1	4.640997E-1	5.825416E-1	6.483816E-1	6.287825E-1	5.238320E-1	4.790670E-1	7.081968E-1	5.253816E-1	5.761020E-1	5.042326E-1	6.942566E-1	5.588384E-1	5.956384E-1	4.401886E-1	7.464534E-1	5.011462E-1	5.356019E-1	4.667970E-1	6.742101E-1	6.150726E-1	5.234442E-1	5.152773E-1	6.336187E-1	4.982565E-1	5.559411E-1	5.553463E-1	5.553832E-1	6.261834E-1	4.803220E-1	6.138912E-1
2.894050E+2	1.560150E-2	5.107528E-1	4.566842E-1	4.392223E-1	4.303713E-1	4.777853E-1	4.589475E-1	4.601628E-1	4.368460E-1	4.607415E-1	4.128104E-1	4.958472E-1	4.010674E-1	4.521998E-1	4.037079E-1	5.062961E-1	5.410104E-1	4.241219E-1	4.472330E-1	5.057484E-1	4.179684E-1	4.433466E-1	4.268496E-1	5.580546E-1	4.810798E-1	4.412596E-1	4.279192E-1	5.280612E-1	3.948877E-1	4.941370E-1	3.572847E-1	5.296766E-1	5.518101E-1	3.917659E-1	4.633333E-1	5.182463E-1	3.892880E-1	4.436736E-1	4.638457E-1	5.107539E-1	5.062438E-1	4.532667E-1	4.180942E-1	5.023857E-1	4.544707E-1	4.035095E-1	4.212659E-1	4.650624E-1	5.937729E-1	4.144023E-1	4.603677E-1	4.502007E-1	4.726678E-1	4.116414E-1	4.401030E-1	4.569150E-1	5.434452E-1	5.051026E-1	3.894395E-1	5.250618E-1	4.500604E-1	5.854974E-1	3.826811E-1	4.457776E-1	5.996350E-1	4.868884E-1	3.210559E-1	5.393781E-1	4.099480E-1	4.642620E-1	3.876782E-1	5.525653E-1	4.518538E-1	4.371630E-1	4.256899E-1	4.604773E-1	4.851419E-1	4.280918E-1	4.671124E-1	4.183344E-1	5.553068E-1	3.823239E-1	5.289500E-1	3.978162E-1	4.813485E-1	4.086625E-1	5.607074E-1	4.176906E-1	5.754339E-1	4.746706E-1	4.177129E-1	5.263692E-1	4.108490E-1	4.412428E-1	4.286554E-1	4.374550E-1	5.554960E-1	4.374229E-1	4.100802E-1	4.930619E-1	4.667967E-1	4.718450E-1	4.692408E-1	4.888838E-1	5.900379E-1	3.620413E-1	4.580980E-1	4.426997E-1	5.051285E-1	3.918565E-1	5.100752E-1	4.057334E-1	6.732673E-1	3.640138E-1	5.482727E-1	4.801482E-1	5.202325E-1	3.846940E-1	5.014539E-1	5.031898E-1	5.495475E-1	3.562733E-1	4.460446E-1	5.507540E-1	3.961604E-1	3.468254E-1	4.755682E-1	5.584997E-1	5.303982E-1	4.069730E-1	4.868416E-1	4.875952E-1	4.194964E-1	4.357524E-1	5.108986E-1	4.660239E-1	5.466622E-1	4.270078E-1	4.799030E-1	5.313305E-1	4.219169E-1	3.463846E-1	4.905894E-1	5.547185E-1	4.972081E-1	4.427022E-1	3.880193E-1	6.118888E-1	4.452011E-1	4.255828E-1	4.160312E-1	5.629898E-1	4.602010E-1	4.945554E-1	3.593732E-1	5.628072E-1	4.244617E-1	4.072316E-1	4.246750E-1	6.120307E-1	5.211416E-1	4.345923E-1	4.623281E-1	5.452004E-1	4.069457E-1	4.581573E-1	4.580900E-1	4.677542E-1	4.474744E-1	4.333115E-1	5.065073E-1
2.896150E+2	8.096129E-3	5.974852E-1	4.723561E-1	4.753490E-1	4.791159E-1	5.293861E-1	4.981148E-1	5.752656E-1	5.204281E-1	4.967441E-1	4.596651E-1	5.404418E-1	4.561826E-1	5.175171E-1	4.588266E-1	5.135004E-1	6.297235E-1	4.785488E-1	4.644251E-1	5.760156E-1	4.968911E-1	4.816248E-1	4.605927E-1	5.692257E-1	5.176407E-1	4.750833E-1	4.504815E-1	6.244880E-1	4.066065E-1	5.407035E-1	3.896483E-1	6.005948E-1	5.539922E-1	5.155115E-1	5.140768E-1	5.779412E-1	4.674614E-1	5.032124E-1	5.027375E-1	5.651264E-1	4.786409E-1	5.358973E-1	4.884196E-1	5.668463E-1	5.028217E-1	4.957797E-1	4.810450E-1	5.027528E-1	6.679384E-1	4.429909E-1	5.127920E-1	5.360143E-1	4.988162E-1	4.988882E-1	4.599908E-1	4.955754E-1	6.014401E-1	5.374243E-1	4.110671E-1	5.544202E-1	4.945343E-1	5.628113E-1	4.075609E-1	5.331000E-1	6.672141E-1	5.564483E-1	3.994985E-1	6.001883E-1	4.712681E-1	5.479005E-1	4.534006E-1	6.230130E-1	5.466136E-1	4.923636E-1	4.651071E-1	5.353294E-1	5.340542E-1	4.211431E-1	5.043194E-1	4.882873E-1	5.938363E-1	4.653833E-1	6.033328E-1	4.699194E-1	5.056563E-1	4.327908E-1	6.037032E-1	4.639638E-1	6.036843E-1	4.645231E-1	4.553120E-1	5.188452E-1	4.698978E-1	4.814559E-1	4.821090E-1	5.396808E-1	6.158596E-1	4.737379E-1	4.654006E-1	5.453788E-1	5.165173E-1	5.280904E-1	5.186480E-1	5.317560E-1	6.546546E-1	4.370383E-1	4.984222E-1	4.926156E-1	5.138086E-1	4.254695E-1	5.378696E-1	4.752999E-1	7.366452E-1	4.126190E-1	5.966161E-1	4.752282E-1	5.419180E-1	4.478655E-1	5.401103E-1	5.126752E-1	6.186126E-1	4.651966E-1	4.894539E-1	5.820416E-1	5.325766E-1	4.281848E-1	4.754449E-1	5.182856E-1	6.466088E-1	4.239699E-1	5.068940E-1	5.372179E-1	5.124412E-1	4.612217E-1	5.457875E-1	4.767286E-1	6.001332E-1	4.441723E-1	5.368861E-1	5.515169E-1	4.781428E-1	3.933749E-1	5.395639E-1	5.409278E-1	6.797705E-1	4.232444E-1	4.559170E-1	5.909773E-1	4.830172E-1	5.126576E-1	4.463998E-1	6.392016E-1	5.507013E-1	5.308978E-1	3.863071E-1	6.539598E-1	4.682490E-1	4.517732E-1	4.427105E-1	6.523400E-1	5.929774E-1	4.701365E-1	4.964375E-1	5.915968E-1	4.619602E-1	4.609558E-1	4.794683E-1	5.624566E-1	5.535361E-1	4.966992E-1	6.134718E-1
2.898030E+2	8.960947E-3	5.861572E-1	5.255021E-1	4.454678E-1	5.439962E-1	5.053650E-1	4.954193E-1	5.902175E-1	5.227794E-1	5.169500E-1	4.837946E-1	5.806975E-1	4.541026E-1	5.337313E-1	4.529948E-1	5.469607E-1	6.259405E-1	4.940483E-1	5.311377E-1	5.992355E-1	4.839973E-1	5.343640E-1	4.568187E-1	6.329249E-1	5.787218E-1	5.105334E-1	4.620747E-1	6.147879E-1	4.731677E-1	6.025639E-1	3.552579E-1	5.888264E-1	6.227999E-1	5.056166E-1	5.546726E-1	6.194401E-1	4.254676E-1	5.497674E-1	4.656156E-1	6.024815E-1	5.323146E-1	5.141983E-1	4.692306E-1	5.914683E-1	4.913026E-1	4.754744E-1	4.881971E-1	5.269164E-1	6.493806E-1	4.497855E-1	5.825320E-1	5.544441E-1	4.976597E-1	4.407407E-1	5.260599E-1	5.125782E-1	5.773107E-1	5.481665E-1	4.640226E-1	5.721710E-1	4.763013E-1	6.318127E-1	4.035752E-1	5.275665E-1	6.817053E-1	6.002016E-1	3.637133E-1	6.478920E-1	5.094259E-1	5.446408E-1	4.737964E-1	6.213819E-1	5.734208E-1	5.153967E-1	5.327457E-1	5.461103E-1	5.634104E-1	4.534294E-1	5.437704E-1	4.552056E-1	6.954178E-1	4.873184E-1	6.521228E-1	4.582930E-1	5.576072E-1	4.365997E-1	5.848942E-1	4.764767E-1	6.521921E-1	5.210620E-1	4.704374E-1	6.143874E-1	4.933155E-1	4.884521E-1	4.667560E-1	5.524354E-1	6.335647E-1	4.894259E-1	4.824755E-1	5.840922E-1	5.213778E-1	5.442499E-1	5.259735E-1	5.279375E-1	6.714102E-1	4.621927E-1	5.197158E-1	5.036692E-1	5.245668E-1	4.524879E-1	5.920656E-1	4.918551E-1	7.725443E-1	4.277773E-1	5.774199E-1	4.894148E-1	5.248166E-1	4.764530E-1	5.926039E-1	5.253465E-1	5.518223E-1	4.777058E-1	5.068791E-1	6.251583E-1	5.292380E-1	4.360295E-1	5.019618E-1	5.360263E-1	6.595841E-1	4.421707E-1	5.515977E-1	5.426593E-1	5.321146E-1	4.522787E-1	5.687424E-1	5.346373E-1	6.393838E-1	4.696689E-1	5.346493E-1	5.256729E-1	5.317194E-1	4.114106E-1	5.474258E-1	5.548682E-1	7.476020E-1	4.733026E-1	4.958354E-1	5.975250E-1	5.509706E-1	5.369465E-1	4.712110E-1	6.435678E-1	5.324342E-1	5.484586E-1	4.207150E-1	6.481720E-1	5.296235E-1	4.784572E-1	4.613670E-1	5.728773E-1	6.207857E-1	5.043138E-1	5.300153E-1	5.726033E-1	4.956641E-1	4.985255E-1	5.394742E-1	5.573102E-1	6.454182E-1	5.350803E-1	6.622090E-1
2.900050E+2	1.622956E-1	5.843623E-1	4.761173E-1	5.066471E-1	4.936337E-1	4.755889E-1	5.066709E-1	5.342836E-1	4.831879E-1	4.649912E-1	4.404469E-1	4.974052E-1	4.384061E-1	5.025926E-1	4.661528E-1	5.111028E-1	5.431639E-1	5.314943E-1	4.625201E-1	5.282857E-1	4.839207E-1	4.582259E-1	4.756298E-1	5.163885E-1	5.074729E-1	5.003190E-1	4.373056E-1	5.993184E-1	4.838074E-1	4.918193E-1	4.108456E-1	4.998079E-1	5.796371E-1	4.979322E-1	4.870074E-1	5.428797E-1	4.316641E-1	4.814762E-1	5.294285E-1	5.726793E-1	5.298528E-1	4.947471E-1	4.799307E-1	5.221128E-1	4.707298E-1	4.962787E-1	4.694925E-1	4.957828E-1	6.047575E-1	4.694131E-1	5.153746E-1	4.793878E-1	5.428164E-1	4.582697E-1	5.426319E-1	5.003667E-1	5.638848E-1	5.242447E-1	4.139292E-1	5.009244E-1	4.572776E-1	5.773494E-1	4.337961E-1	4.925931E-1	5.838774E-1	5.355355E-1	4.494350E-1	5.277844E-1	5.198412E-1	4.985221E-1	5.056273E-1	5.449353E-1	5.095721E-1	4.882321E-1	4.719370E-1	5.074050E-1	4.995581E-1	4.337061E-1	4.880186E-1	4.604999E-1	5.735725E-1	4.854744E-1	5.938326E-1	4.722473E-1	5.073227E-1	4.600995E-1	5.290262E-1	4.376945E-1	5.533078E-1	4.669545E-1	4.467389E-1	5.279890E-1	4.824342E-1	4.684316E-1	4.591625E-1	5.124651E-1	5.924711E-1	4.638353E-1	4.611693E-1	5.381548E-1	5.311245E-1	5.226109E-1	4.911214E-1	5.277030E-1	5.657759E-1	4.276601E-1	4.818472E-1	4.894685E-1	4.972675E-1	4.550108E-1	5.261056E-1	5.062362E-1	6.745594E-1	4.074645E-1	5.803502E-1	4.737360E-1	4.878354E-1	4.678270E-1	5.352970E-1	5.289638E-1	5.417002E-1	4.354462E-1	4.818815E-1	5.297947E-1	4.746586E-1	4.306893E-1	5.078323E-1	5.213362E-1	6.496895E-1	4.645122E-1	5.232791E-1	4.843675E-1	5.082446E-1	4.954745E-1	4.917807E-1	5.042667E-1	5.884397E-1	4.791355E-1	5.351756E-1	4.835610E-1	4.816409E-1	4.415811E-1	5.043190E-1	4.848323E-1	6.102500E-1	4.833574E-1	4.269878E-1	5.639942E-1	5.081769E-1	5.183726E-1	4.614034E-1	5.892759E-1	5.197639E-1	5.639858E-1	4.129939E-1	5.640787E-1	4.815735E-1	4.833066E-1	4.786397E-1	5.490782E-1	5.792767E-1	4.855361E-1	4.887072E-1	5.130088E-1	5.044340E-1	5.071861E-1	4.967946E-1	5.380421E-1	5.254934E-1	4.759135E-1	5.303378E-1
2.905120E+2	4.835658E-1	4.927272E-1	4.543162E-1	4.423929E-1	5.014347E-1	4.545680E-1	4.455048E-1	4.671635E-1	4.756041E-1	4.922448E-1	4.687794E-1	4.552416E-1	4.737690E-1	4.877585E-1	4.479183E-1	4.559652E-1	4.605545E-1	4.845138E-1	4.799703E-1	4.556338E-1	4.761004E-1	4.745892E-1	4.865425E-1	4.605888E-1	4.931557E-1	5.040628E-1	4.692875E-1	4.915563E-1	4.745398E-1	4.757730E-1	4.811953E-1	4.474264E-1	4.585439E-1	4.618657E-1	4.436963E-1	4.685117E-1	4.733342E-1	4.947924E-1	4.695631E-1	4.894418E-1	4.859855E-1	4.539286E-1	4.915759E-1	4.356816E-1	4.872485E-1	4.696873E-1	4.722340E-1	4.691223E-1	4.636407E-1	4.608692E-1	4.965820E-1	4.407872E-1	4.725453E-1	4.510400E-1	4.788849E-1	4.904435E-1	4.465144E-1	5.064659E-1	4.579517E-1	4.380402E-1	4.564430E-1	4.866013E-1	4.791330E-1	4.600247E-1	4.776930E-1	4.837843E-1	4.723173E-1	4.772641E-1	4.806666E-1	4.722137E-1	4.691834E-1	4.531685E-1	4.548241E-1	4.756648E-1	4.256896E-1	4.480251E-1	4.535611E-1	4.819564E-1	4.695889E-1	4.650861E-1	4.304552E-1	4.864173E-1	4.454803E-1	4.459050E-1	4.779686E-1	4.855972E-1	4.446934E-1	4.769453E-1	4.695687E-1	4.439224E-1	4.613562E-1	4.635070E-1	4.491723E-1	4.725838E-1	4.682770E-1	4.605343E-1	4.482712E-1	4.513313E-1	4.797871E-1	4.816216E-1	4.654205E-1	4.688108E-1	4.403906E-1	4.432926E-1	4.483897E-1	4.754492E-1	4.763240E-1	4.849633E-1	4.788511E-1	4.714488E-1	4.778138E-1	4.686250E-1	4.625550E-1	4.572887E-1	5.052298E-1	4.591039E-1	4.859649E-1	4.664586E-1	4.727010E-1	4.671771E-1	5.009813E-1	4.690173E-1	5.031048E-1	4.581656E-1	4.881800E-1	4.894217E-1	4.946898E-1	4.751969E-1	4.805984E-1	4.893795E-1	4.455689E-1	4.982712E-1	4.509157E-1	4.638120E-1	4.799225E-1	4.422268E-1	4.524437E-1	4.782889E-1	4.204438E-1	4.636684E-1	4.671878E-1	4.605321E-1	4.777372E-1	4.474363E-1	4.474740E-1	4.961897E-1	4.599747E-1	4.406198E-1	5.032103E-1	4.556240E-1	4.843504E-1	4.332222E-1	4.596854E-1	5.024425E-1	4.960742E-1	4.532597E-1	4.515969E-1	5.007127E-1	4.757265E-1	4.683421E-1	4.707967E-1	4.781149E-1	4.458557E-1	4.843036E-1	5.028495E-1	4.789080E-1	5.005865E-1	4.786639E-1	4.497934E-1	5.046573E-1	4.610131E-1
2.910060E+2	5.940317E-1	6.126471E-1	5.419852E-1	5.706268E-1	5.861185E-1	5.893255E-1	6.009363E-1	5.911076E-1	5.878006E-1	6.097896E-1	5.757353E-1	5.922073E-1	5.768948E-1	5.928250E-1	5.865101E-1	5.542721E-1	5.725582E-1	5.996360E-1	5.965426E-1	5.257317E-1	6.214021E-1	6.127792E-1	6.100038E-1	6.092889E-1	6.588996E-1	6.442886E-1	6.328349E-1	6.285995E-1	6.411282E-1	5.907589E-1	5.783172E-1	5.919122E-1	6.600360E-1	6.044179E-1	6.197748E-1	6.346846E-1	6.273515E-1	6.351771E-1	6.183054E-1	6.019413E-1	6.154383E-1	5.734223E-1	6.293334E-1	5.840249E-1	6.075523E-1	6.061820E-1	5.857191E-1	6.078020E-1	6.458015E-1	6.032925E-1	5.978381E-1	6.130708E-1	6.318593E-1	6.315544E-1	6.228669E-1	6.039780E-1	5.823315E-1	5.994119E-1	5.804482E-1	6.170227E-1	6.146408E-1	6.067266E-1	6.579141E-1	6.233392E-1	6.049945E-1	5.840020E-1	5.974786E-1	5.995558E-1	6.374567E-1	6.140311E-1	5.993876E-1	5.781906E-1	5.768567E-1	6.451573E-1	5.900734E-1	6.251387E-1	5.884671E-1	5.951204E-1	5.962682E-1	5.657365E-1	6.343453E-1	5.936061E-1	6.080419E-1	5.776838E-1	6.114351E-1	6.264595E-1	6.301143E-1	5.853427E-1	5.997695E-1	6.070573E-1	6.435546E-1	6.154227E-1	6.188304E-1	6.192867E-1	5.820614E-1	6.199953E-1	5.927107E-1	5.595819E-1	6.011053E-1	5.771072E-1	5.987701E-1	5.962012E-1	5.991174E-1	5.687841E-1	5.966399E-1	5.831210E-1	5.992950E-1	5.945467E-1	6.312621E-1	5.913193E-1	5.644713E-1	6.185046E-1	5.608952E-1	5.884242E-1	5.851742E-1	5.970355E-1	5.792478E-1	6.161641E-1	5.658660E-1	5.851069E-1	5.917278E-1	5.822896E-1	6.157609E-1	6.684175E-1	6.600207E-1	5.823339E-1	6.079305E-1	5.773239E-1	5.901156E-1	5.712179E-1	5.743415E-1	6.561910E-1	6.405093E-1	5.608015E-1	5.607114E-1	5.702459E-1	6.045298E-1	5.864521E-1	6.012529E-1	5.528245E-1	6.135357E-1	5.926019E-1	5.977620E-1	6.070420E-1	6.006748E-1	6.097980E-1	6.079534E-1	6.046091E-1	6.350397E-1	6.086770E-1	5.899264E-1	6.542485E-1	6.076760E-1	6.012500E-1	6.307924E-1	6.155876E-1	6.493460E-1	6.426408E-1	5.778457E-1	5.954276E-1	5.891797E-1	6.013124E-1	6.031914E-1	6.106338E-1	6.234860E-1	5.853534E-1	6.206926E-1	5.867067E-1	6.011976E-1	6.354440E-1	5.648041E-1
2.915210E+2	7.273206E-1	7.329603E-1	7.090796E-1	7.456639E-1	7.171050E-1	7.461383E-1	7.184500E-1	6.866703E-1	7.086451E-1	7.012064E-1	7.321989E-1	7.278907E-1	7.331403E-1	7.324121E-1	6.861893E-1	7.362708E-1	7.629979E-1	8.209142E-1	7.235808E-1	7.152041E-1	7.465136E-1	7.269418E-1	7.093148E-1	6.728577E-1	6.943502E-1	7.441150E-1	7.067044E-1	6.865415E-1	7.162763E-1	7.657881E-1	7.185875E-1	7.453890E-1	7.242688E-1	7.425369E-1	7.547331E-1	7.098864E-1	7.347358E-1	7.451748E-1	7.067396E-1	6.964006E-1	7.563087E-1	6.852380E-1	7.631964E-1	6.859031E-1	7.259484E-1	6.940241E-1	7.279970E-1	7.208583E-1	7.515537E-1	7.020237E-1	7.069026E-1	7.065141E-1	7.036584E-1	7.563814E-1	6.768741E-1	7.346159E-1	7.334664E-1	7.685528E-1	6.963483E-1	7.273335E-1	6.982801E-1	7.313453E-1	7.257436E-1	7.171262E-1	7.216156E-1	7.017491E-1	6.947496E-1	7.784581E-1	7.270811E-1	7.509303E-1	7.203387E-1	7.275455E-1	7.198152E-1	6.934887E-1	7.328961E-1	6.967034E-1	7.142741E-1	7.400311E-1	6.570627E-1	6.884480E-1	7.337914E-1	7.275281E-1	7.692480E-1	7.313056E-1	7.110259E-1	7.075129E-1	6.891562E-1	7.117590E-1	7.452013E-1	7.220100E-1	6.898132E-1	7.202360E-1	7.461770E-1	7.314861E-1	7.357461E-1	6.820554E-1	6.847832E-1	6.797985E-1	6.794800E-1	6.996218E-1	7.928709E-1	7.144178E-1	7.388415E-1	7.030967E-1	7.099441E-1	6.973172E-1	7.465388E-1	7.068935E-1	7.042344E-1	7.088682E-1	7.317938E-1	7.256531E-1	7.232943E-1	7.052141E-1	7.343046E-1	7.079751E-1	7.681856E-1	7.376240E-1	7.213068E-1	6.902286E-1	7.150527E-1	7.041038E-1	7.355046E-1	7.552457E-1	7.240192E-1	7.130970E-1	7.236665E-1	7.348346E-1	7.059276E-1	6.997873E-1	7.303844E-1	7.490825E-1	6.933801E-1	6.816930E-1	6.996808E-1	7.016978E-1	7.352026E-1	7.698511E-1	7.373629E-1	6.748200E-1	6.998553E-1	7.423161E-1	7.281899E-1	7.395580E-1	7.694030E-1	7.130268E-1	7.148939E-1	6.969040E-1	7.824435E-1	7.151127E-1	7.159350E-1	7.429632E-1	7.157875E-1	7.713224E-1	7.235056E-1	7.583445E-1	7.287289E-1	7.267219E-1	7.345029E-1	7.074496E-1	7.707797E-1	7.287595E-1	7.403306E-1	7.346962E-1	7.368520E-1	7.571290E-1	7.520396E-1	7.550077E-1	7.612367E-1	7.419099E-1	7.170533E-1
2.920010E+2	5.529223E-1	5.084380E-1	5.507959E-1	5.185912E-1	5.075404E-1	5.190053E-1	5.287374E-1	5.289420E-1	4.970506E-1	5.387770E-1	5.152042E-1	5.252319E-1	5.064203E-1	5.488706E-1	5.482070E-1	5.192497E-1	5.705851E-1	5.337495E-1	5.356735E-1	5.586769E-1	5.199328E-1	5.302732E-1	5.566470E-1	5.067164E-1	5.324011E-1	5.389735E-1	5.365371E-1	5.703236E-1	5.259370E-1	5.462219E-1	5.506414E-1	5.588325E-1	5.365306E-1	5.444813E-1	5.142996E-1	5.080425E-1	5.460649E-1	5.821100E-1	5.419783E-1	5.188685E-1	5.791479E-1	5.318664E-1	5.787315E-1	5.506324E-1	5.264654E-1	5.308713E-1	5.703776E-1	5.507596E-1	5.102286E-1	5.508118E-1	5.474700E-1	5.325355E-1	5.475893E-1	5.575191E-1	5.229609E-1	5.104475E-1	5.450360E-1	5.470691E-1	5.447940E-1	5.640909E-1	5.858391E-1	5.608875E-1	5.026484E-1	5.377292E-1	5.459179E-1	5.483219E-1	5.084074E-1	5.319152E-1	5.349914E-1	5.817059E-1	5.546715E-1	5.050682E-1	5.580030E-1	5.407718E-1	5.136063E-1	5.154402E-1	5.290311E-1	5.611341E-1	5.468625E-1	5.133572E-1	5.278877E-1	5.155070E-1	5.428054E-1	5.496010E-1	5.467320E-1	4.899828E-1	5.542492E-1	5.104536E-1	5.571704E-1	5.342929E-1	5.628524E-1	4.779034E-1	5.592567E-1	5.403221E-1	5.364675E-1	5.244742E-1	5.524093E-1	5.267628E-1	5.268494E-1	5.617060E-1	5.475267E-1	5.544995E-1	5.565807E-1	5.175426E-1	5.845350E-1	5.436694E-1	5.315359E-1	5.165631E-1	5.666472E-1	5.236828E-1	5.722682E-1	5.558016E-1	5.457917E-1	5.630391E-1	5.558973E-1	5.585942E-1	5.653460E-1	5.316132E-1	5.291849E-1	5.699963E-1	5.726669E-1	5.147479E-1	5.519121E-1	5.015368E-1	5.453387E-1	5.751119E-1	5.242476E-1	5.472791E-1	5.126560E-1	5.633992E-1	5.394645E-1	5.561162E-1	5.219518E-1	5.490187E-1	5.125669E-1	5.318335E-1	5.246522E-1	5.570596E-1	5.625380E-1	5.531204E-1	5.133854E-1	5.346763E-1	5.994304E-1	5.887028E-1	5.585888E-1	5.522695E-1	5.209929E-1	5.182184E-1	5.649155E-1	5.555092E-1	5.481244E-1	5.055875E-1	5.385913E-1	5.690910E-1	5.269244E-1	5.797977E-1	5.400869E-1	5.354801E-1	5.573298E-1	5.068905E-1	5.499610E-1	5.241897E-1	5.396419E-1	5.459554E-1	5.431099E-1	4.967560E-1	5.322004E-1	4.985920E-1	5.582053E-1	5.351173E-1	5.166042E-1
2.925000E+2	5.597267E-1	5.143952E-1	5.594372E-1	5.410477E-1	5.288868E-1	5.509019E-1	5.189221E-1	5.058706E-1	5.297153E-1	5.051094E-1	5.357934E-1	5.539122E-1	5.006963E-1	4.992670E-1	5.146209E-1	5.297918E-1	5.395488E-1	5.345109E-1	4.966572E-1	5.711515E-1	5.233467E-1	5.232576E-1	5.000460E-1	5.362986E-1	5.168011E-1	5.522234E-1	5.122288E-1	5.114566E-1	5.424220E-1	5.029795E-1	4.919042E-1	5.256331E-1	5.752826E-1	5.239391E-1	5.354634E-1	5.365820E-1	5.479818E-1	5.530505E-1	5.200927E-1	5.049690E-1	5.183208E-1	5.485891E-1	5.410222E-1	5.181612E-1	5.548166E-1	4.931145E-1	5.372110E-1	5.087053E-1	4.824918E-1	5.357815E-1	5.387343E-1	5.130860E-1	4.961434E-1	5.158675E-1	5.396155E-1	5.026289E-1	4.918632E-1	5.223350E-1	5.517098E-1	4.995700E-1	5.301572E-1	5.248681E-1	5.338160E-1	5.311773E-1	5.585867E-1	5.456037E-1	5.237087E-1	5.152760E-1	5.715714E-1	5.525995E-1	5.335606E-1	5.243190E-1	5.200470E-1	5.636215E-1	4.936636E-1	5.636473E-1	5.495077E-1	5.119134E-1	5.173268E-1	5.411234E-1	5.592257E-1	5.373199E-1	5.186527E-1	5.342437E-1	5.382236E-1	5.278638E-1	5.260159E-1	5.205549E-1	5.635214E-1	5.490559E-1	5.423577E-1	5.214416E-1	5.385635E-1	5.313199E-1	5.058317E-1	5.218398E-1	5.148510E-1	5.298422E-1	5.268071E-1	5.259319E-1	5.135487E-1	5.300453E-1	5.340425E-1	5.221532E-1	5.453334E-1	5.271698E-1	5.213487E-1	5.564085E-1	5.442031E-1	5.169637E-1	5.033053E-1	5.216279E-1	5.026488E-1	5.273483E-1	5.317094E-1	5.155321E-1	5.207761E-1	5.154034E-1	5.066607E-1	5.951228E-1	5.751891E-1	5.517684E-1	5.357413E-1	5.312854E-1	5.295718E-1	5.392530E-1	5.531749E-1	4.896048E-1	5.218755E-1	5.469940E-1	5.393934E-1	5.607949E-1	5.365277E-1	5.240107E-1	5.394483E-1	5.632792E-1	5.737664E-1	5.509256E-1	5.601903E-1	5.402614E-1	5.187357E-1	5.422455E-1	5.467672E-1	5.351921E-1	5.246664E-1	5.894127E-1	5.196297E-1	4.859745E-1	5.396736E-1	5.299450E-1	5.771007E-1	5.252517E-1	5.259726E-1	5.478396E-1	5.360871E-1	5.409957E-1	5.146057E-1	5.732130E-1	5.267097E-1	5.361976E-1	5.904805E-1	5.444923E-1	5.373007E-1	5.285227E-1	5.538534E-1	5.781361E-1	5.164835E-1	5.438767E-1	5.821917E-1	5.425818E-1	5.936294E-1
2.930010E+2	6.482675E-1	6.257202E-1	6.170877E-1	6.312809E-1	6.966809E-1	6.595082E-1	5.921357E-1	6.494636E-1	6.593969E-1	6.697732E-1	5.758142E-1	6.146389E-1	5.788001E-1	6.835918E-1	6.178026E-1	6.285315E-1	6.155592E-1	6.596971E-1	6.129739E-1	6.555508E-1	6.412271E-1	6.596436E-1	6.452208E-1	6.684399E-1	6.332892E-1	6.671334E-1	6.397953E-1	6.211328E-1	7.078982E-1	6.422681E-1	6.334564E-1	6.205746E-1	6.407171E-1	6.709586E-1	6.863739E-1	6.236335E-1	6.273973E-1	6.775569E-1	6.145237E-1	6.791675E-1	6.458732E-1	6.546152E-1	6.316921E-1	6.149761E-1	6.247796E-1	6.754062E-1	6.315364E-1	6.668703E-1	6.411240E-1	6.637164E-1	6.410547E-1	6.803151E-1	6.269779E-1	6.595069E-1	6.249248E-1	6.258989E-1	6.536977E-1	6.357904E-1	6.692296E-1	6.529398E-1	6.146490E-1	6.615060E-1	6.062728E-1	6.358991E-1	6.546588E-1	6.826558E-1	6.204142E-1	6.448100E-1	6.398550E-1	6.530324E-1	6.220928E-1	6.481702E-1	6.644949E-1	6.740403E-1	6.579250E-1	6.527041E-1	6.555839E-1	7.051921E-1	6.477089E-1	6.286401E-1	6.503025E-1	6.508216E-1	6.427514E-1	6.477991E-1	6.242349E-1	6.637053E-1	6.240493E-1	6.575850E-1	7.120053E-1	6.759442E-1	6.478435E-1	6.454122E-1	6.714683E-1	6.989570E-1	6.211536E-1	6.586014E-1	6.978130E-1	6.385337E-1	6.760150E-1	6.704270E-1	6.617799E-1	6.313744E-1	6.167256E-1	6.756845E-1	6.997154E-1	6.802749E-1	6.246959E-1	6.323629E-1	6.760462E-1	6.769800E-1	6.110827E-1	6.581166E-1	6.638013E-1	6.497535E-1	6.893396E-1	6.615253E-1	6.191275E-1	6.377835E-1	6.712377E-1	6.315203E-1	7.245204E-1	6.504098E-1	6.430579E-1	6.980638E-1	6.589000E-1	6.427121E-1	6.423477E-1	6.414354E-1	6.766976E-1	6.364028E-1	6.720398E-1	6.496312E-1	6.539630E-1	5.871766E-1	6.301701E-1	6.200291E-1	6.674770E-1	6.126222E-1	6.020050E-1	6.289257E-1	6.475076E-1	6.467330E-1	6.546628E-1	6.438057E-1	6.239912E-1	6.424516E-1	6.458327E-1	6.062767E-1	6.672627E-1	6.254458E-1	6.285718E-1	6.747893E-1	6.800132E-1	6.891039E-1	6.399430E-1	6.344428E-1	6.955185E-1	7.002149E-1	6.515652E-1	6.405888E-1	6.597652E-1	6.304466E-1	6.647124E-1	6.686847E-1	6.236737E-1	6.348625E-1	6.442043E-1	5.799611E-1	6.498109E-1	5.995962E-1	6.748926E-1
2.935120E+2	7.701906E-1	7.432260E-1	7.378343E-1	7.670228E-1	7.653409E-1	7.685053E-1	7.849653E-1	7.613397E-1	8.062222E-1	7.753948E-1	7.987730E-1	7.423101E-1	7.824853E-1	7.816905E-1	7.272220E-1	7.496002E-1	7.555638E-1	7.433087E-1	7.485520E-1	7.326962E-1	7.764428E-1	8.006163E-1	7.246993E-1	7.530758E-1	7.197930E-1	8.008134E-1	7.609580E-1	7.250756E-1	7.872717E-1	7.740995E-1	7.529608E-1	7.320679E-1	7.812384E-1	7.577534E-1	7.800285E-1	7.253341E-1	7.180953E-1	8.101920E-1	7.244041E-1	7.778621E-1	8.030763E-1	8.201557E-1	7.903756E-1	7.281875E-1	7.452339E-1	7.546081E-1	7.564331E-1	7.702995E-1	7.640411E-1	7.899010E-1	7.753285E-1	7.348254E-1	8.054593E-1	7.629299E-1	7.397152E-1	7.983883E-1	7.726507E-1	7.837226E-1	7.665327E-1	8.217115E-1	7.712330E-1	7.896675E-1	7.691051E-1	7.468724E-1	7.509672E-1	7.906709E-1	7.278047E-1	7.887985E-1	7.552446E-1	7.850771E-1	7.716754E-1	7.439949E-1	7.480460E-1	7.989793E-1	7.336879E-1	7.937053E-1	7.556452E-1	7.777388E-1	7.544179E-1	7.352829E-1	7.860802E-1	7.381289E-1	7.810595E-1	7.408565E-1	7.390891E-1	7.354700E-1	7.745642E-1	7.846187E-1	7.831139E-1	7.706336E-1	7.735996E-1	7.715131E-1	7.596904E-1	7.631510E-1	7.486661E-1	7.807056E-1	7.585046E-1	7.461957E-1	7.625158E-1	7.817534E-1	7.298008E-1	7.706065E-1	7.642401E-1	7.277871E-1	7.818741E-1	7.563090E-1	7.225381E-1	7.504711E-1	7.952819E-1	7.492586E-1	7.616247E-1	7.953331E-1	7.477783E-1	7.620107E-1	7.583078E-1	7.496766E-1	7.758236E-1	7.413324E-1	7.668093E-1	7.725877E-1	7.938026E-1	7.511896E-1	7.670577E-1	7.699092E-1	8.040540E-1	7.667597E-1	7.791418E-1	7.680831E-1	7.548199E-1	7.558718E-1	7.774626E-1	7.720069E-1	7.292777E-1	7.996128E-1	7.211872E-1	8.045757E-1	7.936837E-1	8.067805E-1	7.621797E-1	7.540134E-1	7.150301E-1	7.391277E-1	7.595578E-1	7.886398E-1	7.891002E-1	8.033830E-1	8.341042E-1	7.592683E-1	7.470790E-1	7.579247E-1	7.879350E-1	7.297116E-1	8.064310E-1	7.320148E-1	7.658054E-1	8.204254E-1	8.231739E-1	7.990463E-1	7.784465E-1	7.885377E-1	7.835279E-1	7.959533E-1	7.647966E-1	7.647385E-1	7.985360E-1	7.531584E-1	7.607404E-1	7.715715E-1	8.352974E-1	7.882162E-1	6.727147E-1
2.940080E+2	7.761827E-1	7.944031E-1	7.986061E-1	7.946412E-1	7.855495E-1	7.869843E-1	7.805861E-1	8.128086E-1	7.555237E-1	7.944992E-1	7.606448E-1	7.694383E-1	7.866169E-1	7.441716E-1	7.774507E-1	7.891351E-1	7.347431E-1	7.699559E-1	7.754350E-1	8.164340E-1	8.056451E-1	8.063393E-1	7.922737E-1	8.049614E-1	7.972562E-1	7.676450E-1	7.942308E-1	8.064171E-1	7.823331E-1	7.194476E-1	7.477736E-1	8.048207E-1	7.753657E-1	7.888244E-1	8.002970E-1	7.830080E-1	7.644700E-1	7.973163E-1	7.284458E-1	8.263322E-1	7.857308E-1	8.172854E-1	7.759943E-1	7.472590E-1	7.604177E-1	7.795900E-1	8.181958E-1	7.330261E-1	8.267182E-1	7.854011E-1	8.284396E-1	8.125460E-1	7.706829E-1	8.015814E-1	7.823642E-1	8.112802E-1	7.683884E-1	7.874175E-1	7.867643E-1	7.870421E-1	8.079708E-1	8.101995E-1	8.262378E-1	8.139711E-1	7.896859E-1	8.398235E-1	7.902835E-1	7.883083E-1	7.743103E-1	8.047727E-1	8.089428E-1	7.687421E-1	7.388202E-1	7.531213E-1	7.332487E-1	7.423702E-1	7.848153E-1	7.624216E-1	7.550398E-1	7.956145E-1	7.540363E-1	8.049456E-1	8.341311E-1	7.786740E-1	8.040872E-1	8.012962E-1	8.005402E-1	7.758662E-1	7.711045E-1	8.305818E-1	7.636113E-1	7.808005E-1	7.992561E-1	8.141666E-1	7.767177E-1	7.734206E-1	7.510598E-1	7.992107E-1	7.511525E-1	8.014879E-1	7.732548E-1	7.706328E-1	7.722340E-1	8.151839E-1	8.325223E-1	7.561644E-1	7.969431E-1	7.860506E-1	7.521841E-1	7.897454E-1	8.362245E-1	7.897667E-1	7.862660E-1	8.278976E-1	8.174669E-1	8.126911E-1	7.893826E-1	8.042662E-1	7.687475E-1	8.018423E-1	7.698811E-1	7.725673E-1	7.873044E-1	8.098290E-1	7.883777E-1	7.618851E-1	7.939934E-1	7.636961E-1	7.097038E-1	7.677364E-1	8.382981E-1	7.913676E-1	7.671282E-1	7.663478E-1	8.151224E-1	8.008593E-1	7.610508E-1	8.264822E-1	7.653619E-1	8.066533E-1	7.990434E-1	7.973359E-1	8.175299E-1	7.571348E-1	8.026403E-1	8.059185E-1	7.633679E-1	8.106568E-1	8.025678E-1	8.097302E-1	8.192536E-1	8.069540E-1	7.547951E-1	8.122093E-1	7.395292E-1	7.301741E-1	7.722002E-1	8.075187E-1	8.037460E-1	7.557241E-1	7.679746E-1	8.088978E-1	8.042580E-1	8.050054E-1	7.844857E-1	8.024039E-1	7.454998E-1	8.135427E-1	7.649405E-1	7.784727E-1	8.188662E-1
2.945030E+2	6.655148E-1	7.101768E-1	7.430027E-1	6.806172E-1	7.141951E-1	7.570557E-1	7.166457E-1	7.306481E-1	7.176019E-1	7.226092E-1	6.832220E-1	6.606690E-1	7.320496E-1	7.125989E-1	7.135311E-1	7.114584E-1	6.900546E-1	7.617351E-1	7.236559E-1	7.554300E-1	7.267167E-1	7.423895E-1	6.982150E-1	7.691025E-1	7.256139E-1	7.670883E-1	7.149484E-1	7.071345E-1	7.651712E-1	7.133401E-1	7.059738E-1	7.414816E-1	7.039966E-1	7.468852E-1	7.694716E-1	7.724414E-1	7.063756E-1	7.392982E-1	7.188920E-1	7.309770E-1	7.574537E-1	7.389081E-1	6.885230E-1	7.522113E-1	7.077654E-1	7.513426E-1	7.186591E-1	6.893402E-1	7.139370E-1	6.580678E-1	7.125732E-1	6.887327E-1	7.314755E-1	6.875140E-1	7.010743E-1	7.112145E-1	7.112351E-1	7.433970E-1	6.936022E-1	7.078379E-1	6.753462E-1	7.198739E-1	7.083901E-1	6.777018E-1	7.113219E-1	7.401070E-1	6.718050E-1	7.595787E-1	7.284953E-1	7.467091E-1	7.071213E-1	7.456646E-1	6.911459E-1	7.622658E-1	6.769486E-1	7.440402E-1	7.600509E-1	6.810821E-1	6.614673E-1	6.831731E-1	6.500335E-1	7.143660E-1	7.261649E-1	7.186496E-1	7.005181E-1	7.281495E-1	7.277454E-1	7.102504E-1	7.175247E-1	7.131388E-1	6.994386E-1	7.460009E-1	6.994035E-1	7.236098E-1	7.157903E-1	7.403385E-1	7.208383E-1	7.309502E-1	6.728034E-1	7.315971E-1	7.224961E-1	7.222740E-1	7.002574E-1	7.138998E-1	7.398996E-1	7.486854E-1	7.125358E-1	6.960602E-1	6.735686E-1	7.205647E-1	7.330053E-1	7.003953E-1	7.287834E-1	7.284118E-1	7.787759E-1	7.133652E-1	7.151093E-1	7.372393E-1	7.693739E-1	7.286607E-1	7.371752E-1	7.177875E-1	7.269357E-1	6.938485E-1	7.193953E-1	6.928139E-1	7.536526E-1	7.495339E-1	7.289006E-1	6.877271E-1	7.209019E-1	7.064619E-1	6.998082E-1	7.203734E-1	6.767582E-1	7.345612E-1	7.396326E-1	7.497164E-1	7.269412E-1	7.404649E-1	7.654595E-1	7.429997E-1	7.353736E-1	7.251732E-1	6.918531E-1	7.304842E-1	6.960830E-1	7.461518E-1	7.685292E-1	7.346497E-1	7.094898E-1	7.354111E-1	7.792105E-1	7.115725E-1	7.257772E-1	7.554898E-1	7.419053E-1	7.219952E-1	7.139338E-1	7.429775E-1	7.015143E-1	7.387878E-1	6.984918E-1	7.611480E-1	7.374502E-1	7.284023E-1	7.244594E-1	7.343761E-1	7.767615E-1	6.976208E-1	7.128060E-1
2.950050E+2	7.490555E-1	7.079615E-1	7.258833E-1	6.767150E-1	7.490159E-1	7.104624E-1	7.213897E-1	7.040743E-1	7.359206E-1	7.635132E-1	7.077684E-1	7.329454E-1	7.129977E-1	7.391642E-1	6.914241E-1	6.913389E-1	7.096204E-1	7.643677E-1	6.900752E-1	7.882756E-1	7.421708E-1	6.817869E-1	6.980128E-1	7.716560E-1	7.050166E-1	7.138042E-1	7.594665E-1	7.572236E-1	7.300939E-1	7.320302E-1	7.394966E-1	7.183976E-1	7.267289E-1	7.300321E-1	7.689785E-1	7.204767E-1	7.616829E-1	7.475757E-1	7.007972E-1	7.600059E-1	7.522873E-1	7.831084E-1	7.336965E-1	7.363598E-1	7.130621E-1	7.602556E-1	6.978396E-1	7.024895E-1	7.696893E-1	6.976895E-1	6.781547E-1	7.192130E-1	7.220070E-1	7.436056E-1	7.123324E-1	7.484124E-1	7.436293E-1	7.368429E-1	6.761344E-1	6.997292E-1	7.229195E-1	7.792263E-1	7.680012E-1	7.375678E-1	7.291101E-1	7.262476E-1	7.615037E-1	7.227246E-1	7.330147E-1	7.777159E-1	7.340390E-1	7.533443E-1	7.044379E-1	7.042224E-1	7.145249E-1	7.141384E-1	7.359031E-1	6.911297E-1	7.066734E-1	7.107396E-1	7.199981E-1	7.405602E-1	7.087849E-1	6.674866E-1	7.234573E-1	7.035270E-1	7.110723E-1	7.425780E-1	7.722528E-1	7.714388E-1	7.004309E-1	7.411462E-1	7.522482E-1	7.807392E-1	7.444452E-1	7.436190E-1	7.191998E-1	7.255936E-1	7.423961E-1	7.445615E-1	7.465713E-1	7.270783E-1	7.530922E-1	7.556820E-1	7.257587E-1	7.104678E-1	7.546473E-1	6.809235E-1	7.333173E-1	7.657536E-1	7.619560E-1	7.232379E-1	6.914409E-1	7.469001E-1	8.206811E-1	7.735129E-1	7.658881E-1	7.472071E-1	7.658086E-1	7.427344E-1	7.381852E-1	7.603210E-1	7.579576E-1	7.861224E-1	7.665945E-1	7.281617E-1	7.391973E-1	7.391099E-1	7.100709E-1	7.180087E-1	6.938255E-1	7.456771E-1	7.109365E-1	7.465487E-1	7.194032E-1	7.069432E-1	7.489856E-1	7.201408E-1	7.067662E-1	7.284503E-1	7.011660E-1	7.376336E-1	7.295124E-1	7.510197E-1	6.866854E-1	7.229083E-1	7.325290E-1	7.189252E-1	7.446394E-1	7.364073E-1	7.205748E-1	6.959273E-1	7.430682E-1	7.640768E-1	7.367413E-1	7.223143E-1	7.241665E-1	7.618628E-1	7.185141E-1	7.131075E-1	7.310727E-1	7.536311E-1	7.261116E-1	7.238573E-1	6.985376E-1	7.131889E-1	7.200458E-1	7.533889E-1	8.401186E-1	7.607176E-1	7.951208E-1
2.955080E+2	8.856713E-1	8.782644E-1	8.692010E-1	8.058937E-1	8.708722E-1	8.476397E-1	8.576877E-1	8.542108E-1	8.678836E-1	8.498905E-1	8.326701E-1	8.320292E-1	8.890533E-1	8.698395E-1	8.813898E-1	8.879548E-1	9.115894E-1	8.585002E-1	8.545101E-1	8.526928E-1	8.710089E-1	8.300153E-1	8.562343E-1	8.464183E-1	8.699427E-1	8.721057E-1	9.075642E-1	8.440989E-1	8.855148E-1	8.445333E-1	8.586827E-1	8.684333E-1	8.795228E-1	8.904551E-1	8.941913E-1	8.628512E-1	8.448154E-1	8.608835E-1	8.516578E-1	8.862405E-1	8.554420E-1	8.770196E-1	8.849515E-1	8.746008E-1	8.575841E-1	8.826828E-1	8.654363E-1	8.566555E-1	8.878220E-1	8.434943E-1	8.374538E-1	8.174676E-1	8.838558E-1	8.915720E-1	8.549968E-1	8.636947E-1	8.458900E-1	8.743048E-1	8.930885E-1	8.642021E-1	8.553489E-1	9.072948E-1	8.994901E-1	8.721365E-1	8.459828E-1	8.408240E-1	8.355668E-1	8.937495E-1	8.607433E-1	8.575207E-1	8.579740E-1	8.539148E-1	7.794766E-1	8.957035E-1	8.218552E-1	8.778486E-1	8.895658E-1	8.409225E-1	8.885645E-1	7.878241E-1	8.807110E-1	8.262697E-1	8.590030E-1	8.551919E-1	8.681319E-1	8.969623E-1	8.421729E-1	7.870139E-1	8.531816E-1	8.225376E-1	8.296329E-1	8.421421E-1	8.641563E-1	8.808524E-1	8.432383E-1	9.133825E-1	8.786141E-1	8.469793E-1	8.494714E-1	8.889751E-1	8.713611E-1	8.711415E-1	8.593276E-1	8.760169E-1	8.687841E-1	8.508344E-1	8.366025E-1	8.412591E-1	8.666805E-1	9.120982E-1	8.431591E-1	8.562774E-1	8.174169E-1	8.878078E-1	9.157655E-1	8.596215E-1	8.585080E-1	8.830640E-1	8.282506E-1	9.227705E-1	8.613290E-1	8.374341E-1	8.561095E-1	8.370654E-1	9.079228E-1	8.780751E-1	8.614342E-1	8.633814E-1	8.518591E-1	8.630469E-1	8.248433E-1	8.275374E-1	8.649232E-1	8.883668E-1	8.438758E-1	8.825810E-1	8.584288E-1	8.244145E-1	8.069616E-1	8.091040E-1	8.660695E-1	8.376443E-1	8.728434E-1	8.461829E-1	8.552040E-1	8.591816E-1	8.350833E-1	8.516052E-1	9.080744E-1	8.840895E-1	8.487365E-1	8.605139E-1	8.510241E-1	8.930374E-1	8.531071E-1	8.352762E-1	8.780519E-1	8.889303E-1	8.563556E-1	8.593557E-1	8.705845E-1	8.548449E-1	8.612919E-1	9.073529E-1	8.682069E-1	8.007042E-1	8.317530E-1	9.136190E-1	8.811941E-1	8.496115E-1	8.698500E-1
2.960030E+2	9.216738E-1	9.240689E-1	9.236712E-1	9.088694E-1	9.290635E-1	9.203861E-1	8.796169E-1	9.250278E-1	9.015018E-1	9.446697E-1	8.890961E-1	8.775120E-1	8.994545E-1	9.411703E-1	8.772016E-1	9.337448E-1	9.105104E-1	9.359306E-1	9.000891E-1	8.975789E-1	9.554525E-1	9.509415E-1	9.164201E-1	9.122915E-1	8.867971E-1	9.314898E-1	9.153971E-1	9.198736E-1	9.449282E-1	9.040444E-1	9.103893E-1	8.952331E-1	9.024152E-1	9.765519E-1	9.273305E-1	9.455385E-1	8.813300E-1	9.232426E-1	9.201002E-1	9.394420E-1	9.335496E-1	8.791736E-1	9.069255E-1	8.876262E-1	9.279880E-1	8.770235E-1	8.899573E-1	8.935096E-1	9.306950E-1	8.908478E-1	8.942922E-1	8.952486E-1	9.117880E-1	8.927720E-1	9.513931E-1	8.861327E-1	8.868345E-1	9.728321E-1	8.688825E-1	9.373963E-1	9.814426E-1	9.452808E-1	9.187076E-1	9.070540E-1	9.270525E-1	8.978013E-1	8.879121E-1	9.256788E-1	8.984060E-1	8.964140E-1	8.905457E-1	8.785246E-1	8.796680E-1	9.054068E-1	9.033690E-1	9.306113E-1	8.988660E-1	9.756437E-1	8.943197E-1	8.696681E-1	9.211495E-1	8.545337E-1	9.578400E-1	8.840135E-1	8.612484E-1	9.013967E-1	9.078857E-1	8.933876E-1	8.932564E-1	9.184927E-1	8.937496E-1	9.257625E-1	8.808124E-1	9.287231E-1	9.408813E-1	9.290405E-1	8.917434E-1	8.634808E-1	8.732868E-1	9.344769E-1	9.386648E-1	8.822653E-1	8.994786E-1	8.803784E-1	8.953605E-1	9.408203E-1	9.016004E-1	9.049318E-1	9.481218E-1	9.227945E-1	8.889827E-1	9.620877E-1	8.942450E-1	9.118729E-1	9.247369E-1	9.209342E-1	8.938852E-1	9.055037E-1	8.795676E-1	9.197894E-1	8.958318E-1	8.942526E-1	9.619056E-1	9.000203E-1	9.354219E-1	8.991567E-1	9.308085E-1	8.836342E-1	8.433288E-1	9.238263E-1	9.129015E-1	9.165625E-1	9.163748E-1	9.428045E-1	8.883853E-1	9.165061E-1	9.238632E-1	9.104935E-1	9.773907E-1	8.977338E-1	8.861067E-1	8.995592E-1	9.098031E-1	8.898666E-1	9.062484E-1	9.727029E-1	9.573731E-1	9.638098E-1	9.588112E-1	8.826871E-1	8.842194E-1	9.246676E-1	9.339883E-1	9.847437E-1	9.035346E-1	9.173834E-1	9.238241E-1	9.733583E-1	8.993844E-1	8.996817E-1	9.061788E-1	8.953946E-1	8.802618E-1	9.577216E-1	9.219194E-1	9.012052E-1	9.186771E-1	9.279169E-1	8.810923E-1	9.452189E-1	1.013973E+0
2.964980E+2	8.002534E-1	8.384853E-1	8.058804E-1	7.998750E-1	7.917372E-1	7.755977E-1	8.217622E-1	8.016447E-1	7.968282E-1	7.827382E-1	7.823746E-1	7.544566E-1	7.824979E-1	8.003547E-1	7.866886E-1	7.273731E-1	7.576600E-1	8.160320E-1	7.637689E-1	8.316028E-1	7.948536E-1	8.091744E-1	7.619272E-1	8.050349E-1	7.922891E-1	8.014578E-1	8.081742E-1	7.820297E-1	8.689864E-1	8.301390E-1	7.362520E-1	8.379923E-1	7.855339E-1	7.951428E-1	8.269039E-1	8.607957E-1	8.206770E-1	7.900913E-1	8.199464E-1	8.307614E-1	8.125378E-1	8.152170E-1	8.108265E-1	8.027400E-1	8.420447E-1	7.755776E-1	8.019718E-1	7.986366E-1	7.928774E-1	8.092613E-1	8.404083E-1	8.362733E-1	8.189931E-1	7.856030E-1	7.681547E-1	8.074041E-1	8.209840E-1	8.324960E-1	7.835116E-1	8.047504E-1	8.398528E-1	8.296867E-1	7.981470E-1	7.919386E-1	8.009953E-1	7.929890E-1	7.614701E-1	8.346332E-1	7.716084E-1	8.064349E-1	7.884679E-1	7.822403E-1	8.475434E-1	8.489402E-1	7.648620E-1	7.863362E-1	8.167147E-1	8.011238E-1	7.865150E-1	8.064958E-1	8.040146E-1	8.131929E-1	7.931245E-1	8.007684E-1	7.995508E-1	8.411575E-1	7.718998E-1	7.808699E-1	8.418001E-1	8.319450E-1	8.596910E-1	7.345269E-1	7.708789E-1	7.777993E-1	7.655583E-1	7.743975E-1	8.279175E-1	8.262784E-1	7.919700E-1	7.611854E-1	7.880660E-1	7.837931E-1	8.037638E-1	8.379343E-1	8.159573E-1	7.976331E-1	8.119556E-1	8.111917E-1	8.111894E-1	8.099366E-1	8.519455E-1	8.515223E-1	7.340418E-1	8.082609E-1	8.821345E-1	7.784030E-1	8.604636E-1	7.691710E-1	7.967250E-1	8.086946E-1	8.332669E-1	7.916305E-1	8.015949E-1	8.311230E-1	8.458737E-1	8.017821E-1	7.895081E-1	8.233881E-1	7.992316E-1	7.796025E-1	7.878913E-1	8.195285E-1	7.868622E-1	7.566790E-1	7.920194E-1	8.759710E-1	7.840097E-1	7.982148E-1	7.720279E-1	8.055052E-1	8.118849E-1	8.070196E-1	8.232405E-1	7.988271E-1	8.315713E-1	8.417245E-1	8.296794E-1	8.113674E-1	8.603903E-1	7.670000E-1	8.317523E-1	8.200101E-1	7.774760E-1	7.762004E-1	8.224882E-1	7.579997E-1	7.924369E-1	7.759656E-1	7.977770E-1	8.292000E-1	8.196790E-1	7.745226E-1	8.092333E-1	8.154704E-1	7.819514E-1	8.074954E-1	7.626953E-1	8.247451E-1	8.446925E-1	8.278366E-1	8.258200E-1
2.970040E+2	7.009202E-1	7.654478E-1	7.638346E-1	7.566506E-1	7.218211E-1	7.346331E-1	7.301387E-1	7.483463E-1	7.374918E-1	7.567497E-1	7.057422E-1	6.850619E-1	7.222981E-1	7.465739E-1	7.130892E-1	7.174353E-1	7.911682E-1	7.294460E-1	7.273016E-1	7.374469E-1	7.646492E-1	7.212403E-1	7.194934E-1	7.234360E-1	7.411933E-1	7.520756E-1	7.135838E-1	7.450755E-1	7.571625E-1	7.265938E-1	7.465054E-1	7.393510E-1	7.475673E-1	7.547841E-1	7.224326E-1	7.533243E-1	7.263578E-1	7.459793E-1	7.153122E-1	8.081061E-1	7.525012E-1	7.107910E-1	7.166358E-1	7.224787E-1	7.037262E-1	7.456804E-1	6.855551E-1	7.203475E-1	7.691910E-1	7.744214E-1	7.213885E-1	7.139727E-1	7.392878E-1	7.343571E-1	6.998161E-1	7.221352E-1	7.483811E-1	7.566570E-1	7.177978E-1	7.242781E-1	6.975276E-1	7.983829E-1	7.342658E-1	7.238164E-1	7.703044E-1	7.840960E-1	7.159052E-1	7.405371E-1	7.117373E-1	7.874938E-1	7.452892E-1	7.177277E-1	6.855469E-1	7.353553E-1	6.665420E-1	7.791983E-1	7.411810E-1	7.203490E-1	6.933329E-1	7.359759E-1	7.402450E-1	7.167270E-1	7.488412E-1	7.101668E-1	7.340214E-1	7.236000E-1	7.550459E-1	7.065914E-1	7.577910E-1	7.400411E-1	7.363587E-1	7.228835E-1	7.361915E-1	7.421656E-1	7.321899E-1	7.267180E-1	7.222800E-1	7.323079E-1	7.450705E-1	7.824526E-1	7.518602E-1	7.724645E-1	7.169355E-1	7.426115E-1	7.224240E-1	7.382721E-1	7.434455E-1	7.476812E-1	6.952010E-1	7.780199E-1	7.589491E-1	7.468193E-1	7.431958E-1	7.190950E-1	8.083717E-1	7.652816E-1	7.549671E-1	7.293176E-1	7.132345E-1	7.757263E-1	7.615390E-1	7.459389E-1	7.574577E-1	7.335408E-1	7.139092E-1	7.632224E-1	7.402036E-1	7.360225E-1	7.234870E-1	7.054070E-1	7.220266E-1	7.998601E-1	7.224420E-1	7.586550E-1	6.766622E-1	7.384300E-1	7.296563E-1	7.557069E-1	7.042131E-1	7.436745E-1	7.485260E-1	7.550613E-1	7.763491E-1	7.085570E-1	7.409615E-1	7.695519E-1	7.391276E-1	7.235232E-1	7.620421E-1	6.993579E-1	7.565916E-1	7.911666E-1	7.567948E-1	7.561436E-1	7.497051E-1	7.633449E-1	7.652432E-1	7.660560E-1	7.039533E-1	7.429477E-1	7.633368E-1	7.362678E-1	7.331256E-1	7.589688E-1	7.235912E-1	7.659659E-1	7.268184E-1	7.645721E-1	7.148133E-1	7.565347E-1	7.060232E-1
2.975040E+2	8.784312E-1	8.916707E-1	8.795595E-1	9.142791E-1	8.557989E-1	8.504512E-1	8.865971E-1	8.573763E-1	8.583124E-1	8.844908E-1	8.729610E-1	8.720863E-1	8.472142E-1	8.746422E-1	8.637683E-1	8.772239E-1	8.389544E-1	9.085834E-1	9.133159E-1	8.534171E-1	9.114090E-1	8.728952E-1	8.920847E-1	8.685951E-1	9.126285E-1	8.772688E-1	8.761913E-1	8.667839E-1	9.501941E-1	9.018536E-1	8.784294E-1	8.749143E-1	8.593172E-1	9.018955E-1	8.875523E-1	8.869928E-1	8.619057E-1	8.832903E-1	8.690818E-1	8.760782E-1	8.676235E-1	9.004459E-1	8.667006E-1	8.714463E-1	8.613075E-1	8.999550E-1	8.917295E-1	9.022661E-1	9.282349E-1	8.782407E-1	8.785716E-1	8.738872E-1	8.785060E-1	9.074559E-1	9.064252E-1	8.815836E-1	8.872911E-1	8.858182E-1	8.757228E-1	8.714503E-1	8.870269E-1	9.356077E-1	9.010797E-1	8.628318E-1	8.951808E-1	8.600489E-1	8.710526E-1	8.712639E-1	8.815433E-1	8.574546E-1	8.853025E-1	8.586776E-1	8.715853E-1	8.601762E-1	8.881430E-1	8.984284E-1	8.892768E-1	8.803852E-1	8.921377E-1	8.748523E-1	8.838910E-1	8.842178E-1	9.549419E-1	8.209355E-1	8.874780E-1	8.621184E-1	8.891265E-1	8.782279E-1	8.674066E-1	8.719306E-1	9.232302E-1	9.090175E-1	8.338770E-1	9.182382E-1	8.574523E-1	8.880731E-1	8.612844E-1	9.136514E-1	9.350631E-1	8.193872E-1	8.833454E-1	8.688067E-1	8.777630E-1	8.387584E-1	8.741365E-1	9.002505E-1	8.592325E-1	8.925304E-1	8.777019E-1	8.579118E-1	8.645075E-1	8.484545E-1	8.778535E-1	9.087372E-1	8.545337E-1	8.969861E-1	8.909638E-1	8.876863E-1	8.870751E-1	8.334345E-1	8.951761E-1	8.774949E-1	8.323467E-1	8.587539E-1	8.636297E-1	8.923050E-1	9.072835E-1	8.747806E-1	8.441775E-1	8.903376E-1	8.567451E-1	8.615959E-1	8.748500E-1	8.382030E-1	8.761221E-1	9.151016E-1	8.718227E-1	8.658516E-1	8.769893E-1	8.865408E-1	8.351015E-1	8.846387E-1	9.036656E-1	8.857424E-1	9.017572E-1	9.217322E-1	9.040267E-1	9.212433E-1	9.280438E-1	8.804869E-1	8.887197E-1	9.046697E-1	8.833533E-1	9.090039E-1	8.703647E-1	9.104753E-1	8.584375E-1	8.672895E-1	8.993854E-1	8.460489E-1	8.685831E-1	9.118457E-1	8.682235E-1	9.002945E-1	9.287313E-1	9.020282E-1	8.682355E-1	8.867257E-1	8.816150E-1	9.361001E-1	9.651193E-1
2.980040E+2	1.004274E+0	1.017755E+0	1.023081E+0	1.010167E+0	1.028895E+0	1.030908E+0	1.001170E+0	1.030020E+0	1.057650E+0	1.018982E+0	1.010056E+0	1.034970E+0	1.031141E+0	9.814551E-1	1.050170E+0	9.700144E-1	1.064210E+0	1.030607E+0	1.041428E+0	1.006295E+0	1.031886E+0	1.027833E+0	1.034560E+0	1.008736E+0	1.000882E+0	1.028252E+0	1.027481E+0	1.054165E+0	1.046892E+0	1.034894E+0	1.026968E+0	1.007601E+0	9.730145E-1	1.003129E+0	1.005064E+0	1.073439E+0	1.011036E+0	1.007818E+0	1.026250E+0	1.001644E+0	1.011878E+0	1.013076E+0	9.907482E-1	1.044339E+0	1.097923E+0	1.046348E+0	1.028347E+0	1.007124E+0	1.022734E+0	1.031038E+0	1.019110E+0	9.787311E-1	1.039051E+0	1.005253E+0	1.002120E+0	1.035035E+0	1.024129E+0	1.031358E+0	1.063086E+0	1.042718E+0	1.014188E+0	1.006863E+0	9.968239E-1	1.060401E+0	1.033482E+0	1.033766E+0	1.028279E+0	1.018406E+0	1.053994E+0	1.040774E+0	1.028975E+0	1.020287E+0	1.041770E+0	1.013559E+0	1.002133E+0	9.925062E-1	1.018944E+0	1.033340E+0	1.034039E+0	1.014997E+0	1.009315E+0	1.059363E+0	9.883801E-1	1.072396E+0	1.040342E+0	1.003110E+0	1.034339E+0	1.018971E+0	1.007310E+0	1.005912E+0	1.019620E+0	1.099413E+0	1.030647E+0	9.700912E-1	1.041526E+0	1.009563E+0	1.025436E+0	1.042999E+0	1.003880E+0	1.011591E+0	1.022152E+0	1.074184E+0	1.034851E+0	1.054728E+0	1.019265E+0	1.038849E+0	1.017828E+0	1.018559E+0	1.051918E+0	1.023061E+0	1.050212E+0	9.979228E-1	1.081610E+0	1.000016E+0	1.087474E+0	1.030057E+0	1.050650E+0	1.023781E+0	9.988083E-1	1.073337E+0	1.039639E+0	1.033049E+0	9.995667E-1	1.024401E+0	1.056612E+0	1.039791E+0	1.025613E+0	1.040347E+0	1.065191E+0	1.027079E+0	1.034113E+0	1.016538E+0	1.033274E+0	1.029794E+0	1.027930E+0	1.067295E+0	1.047142E+0	1.080083E+0	1.033068E+0	1.050694E+0	1.031278E+0	1.042823E+0	1.011402E+0	1.003105E+0	1.020087E+0	1.058250E+0	1.016689E+0	9.744841E-1	1.025908E+0	1.068875E+0	1.027336E+0	1.001687E+0	1.049185E+0	1.029646E+0	9.873434E-1	1.007925E+0	1.009214E+0	1.024406E+0	9.983731E-1	1.038339E+0	1.042615E+0	1.010387E+0	1.019315E+0	1.032139E+0	1.012551E+0	1.041141E+0	1.004560E+0	1.052571E+0	1.117102E+0	1.026582E+0	9.552995E-1
2.985020E+2	1.028880E+0	1.016907E+0	1.057115E+0	9.649500E-1	1.024090E+0	1.024516E+0	1.039075E+0	1.052916E+0	1.018913E+0	1.026580E+0	1.059591E+0	1.028102E+0	1.052517E+0	1.028625E+0	1.002970E+0	1.030459E+0	9.938924E-1	1.026968E+0	1.000793E+0	9.965908E-1	9.926327E-1	1.011381E+0	1.049867E+0	1.028538E+0	1.007862E+0	1.039815E+0	1.034965E+0	1.018103E+0	1.014261E+0	9.692642E-1	9.980407E-1	1.030638E+0	1.034765E+0	9.953809E-1	1.028659E+0	1.017125E+0	1.018796E+0	9.878208E-1	1.023042E+0	1.013126E+0	1.046210E+0	9.790008E-1	1.050140E+0	1.021701E+0	9.993244E-1	1.008576E+0	1.009964E+0	1.059794E+0	1.001997E+0	1.022088E+0	1.045906E+0	1.056135E+0	1.052069E+0	1.016551E+0	1.028935E+0	1.028118E+0	9.991649E-1	1.027522E+0	9.989694E-1	1.019862E+0	1.004720E+0	9.549614E-1	1.073586E+0	1.047393E+0	1.006399E+0	1.041620E+0	1.005947E+0	1.007673E+0	1.032179E+0	1.041378E+0	1.005187E+0	9.716864E-1	1.021550E+0	1.032471E+0	1.046997E+0	1.018953E+0	9.974614E-1	1.012774E+0	1.002871E+0	1.058276E+0	1.024983E+0	9.944264E-1	1.035627E+0	1.056313E+0	9.890415E-1	1.047311E+0	1.019524E+0	1.044923E+0	1.022676E+0	1.015196E+0	1.040729E+0	9.808670E-1	1.048325E+0	1.055055E+0	1.003969E+0	1.000886E+0	1.038203E+0	9.951528E-1	9.901571E-1	1.067709E+0	1.020338E+0	1.045929E+0	1.004737E+0	1.039307E+0	1.043333E+0	1.018187E+0	1.041585E+0	1.087066E+0	1.020050E+0	1.024549E+0	1.022202E+0	1.050641E+0	1.047869E+0	1.020565E+0	9.541935E-1	1.029186E+0	9.926631E-1	1.049933E+0	9.859342E-1	1.052676E+0	1.069598E+0	1.041887E+0	1.071764E+0	1.047698E+0	1.062236E+0	9.854923E-1	1.010629E+0	1.023163E+0	1.011141E+0	1.009412E+0	1.020488E+0	1.054354E+0	1.029182E+0	1.094502E+0	1.016184E+0	9.816460E-1	1.027367E+0	1.053315E+0	1.055218E+0	1.023943E+0	1.086966E+0	1.046687E+0	9.987524E-1	1.023377E+0	1.003916E+0	9.787298E-1	1.018378E+0	1.008360E+0	9.781427E-1	1.023537E+0	9.832262E-1	1.049827E+0	1.018307E+0	1.006019E+0	1.011241E+0	1.048928E+0	1.051064E+0	1.008663E+0	1.091632E+0	1.067151E+0	1.076489E+0	1.020661E+0	1.014183E+0	9.695146E-1	1.037157E+0	1.043199E+0	1.034207E+0	1.015614E+0	9.926618E-1	1.054128E+0	1.097606E+0
2.990010E+2	9.917673E-1	1.031655E+0	9.572622E-1	9.502930E-1	9.625117E-1	9.721817E-1	9.259387E-1	9.936566E-1	9.474830E-1	9.534499E-1	9.398317E-1	9.332859E-1	9.586328E-1	9.721649E-1	9.718327E-1	9.731591E-1	9.590225E-1	9.482692E-1	9.768228E-1	9.778433E-1	9.184326E-1	9.469035E-1	9.622885E-1	9.696104E-1	9.409890E-1	9.435626E-1	9.213500E-1	9.618675E-1	9.083751E-1	9.978682E-1	9.764493E-1	9.622103E-1	9.974232E-1	9.743443E-1	9.592689E-1	9.682658E-1	9.392676E-1	9.679188E-1	9.420253E-1	9.910400E-1	9.553751E-1	9.930651E-1	1.032796E+0	9.409124E-1	9.755508E-1	9.285222E-1	9.759352E-1	9.597925E-1	9.572388E-1	9.776199E-1	9.535797E-1	9.107487E-1	9.480807E-1	9.679490E-1	9.446217E-1	1.001632E+0	9.778925E-1	9.756024E-1	1.017391E+0	9.290622E-1	9.371376E-1	9.974494E-1	9.485915E-1	9.627464E-1	9.333602E-1	1.007410E+0	9.376832E-1	9.881042E-1	9.529242E-1	9.419628E-1	9.533124E-1	9.716058E-1	9.414982E-1	9.823580E-1	1.017479E+0	9.618090E-1	9.718679E-1	9.585327E-1	1.040577E+0	9.664719E-1	9.429410E-1	9.565085E-1	9.386068E-1	9.426525E-1	9.772319E-1	9.609707E-1	9.428442E-1	9.740272E-1	9.788774E-1	9.839574E-1	9.617077E-1	9.486414E-1	9.856935E-1	9.482290E-1	1.005496E+0	9.695974E-1	9.594896E-1	9.630011E-1	9.839342E-1	9.315033E-1	9.912421E-1	9.416471E-1	9.918503E-1	9.360656E-1	9.644728E-1	9.986060E-1	9.956354E-1	9.404912E-1	9.604013E-1	1.009560E+0	9.862681E-1	9.537012E-1	8.959917E-1	9.520920E-1	9.608516E-1	9.338375E-1	1.004119E+0	9.233560E-1	9.526356E-1	9.600799E-1	9.427755E-1	9.474686E-1	9.562753E-1	9.685703E-1	9.226006E-1	9.703106E-1	9.672757E-1	9.460927E-1	9.976227E-1	9.597407E-1	9.878376E-1	9.755243E-1	9.419377E-1	9.434323E-1	9.621025E-1	9.475622E-1	9.787454E-1	9.271651E-1	9.801299E-1	9.317389E-1	9.966637E-1	9.728520E-1	9.843566E-1	9.730860E-1	9.530823E-1	9.866149E-1	9.537944E-1	9.662907E-1	9.445776E-1	9.947441E-1	9.930336E-1	9.578483E-1	9.854194E-1	9.757275E-1	9.637118E-1	9.925207E-1	9.590793E-1	9.642557E-1	9.879754E-1	9.285007E-1	9.682007E-1	1.014157E+0	9.698019E-1	9.976513E-1	9.419852E-1	9.744181E-1	9.518326E-1	9.555622E-1	9.556595E-1	9.682079E-1	9.276657E-1
2.995040E+2	1.037428E+0	1.008636E+0	1.037998E+0	1.054933E+0	1.047343E+0	1.004172E+0	1.024412E+0	1.032605E+0	1.024170E+0	1.041642E+0	1.006785E+0	1.031462E+0	1.030740E+0	1.063472E+0	9.946371E-1	1.032543E+0	1.050417E+0	9.898638E-1	1.016889E+0	1.054604E+0	1.051346E+0	1.021582E+0	1.008159E+0	1.032070E+0	1.015985E+0	1.014582E+0	1.018458E+0	9.750552E-1	1.010851E+0	1.011224E+0	1.028693E+0	1.005041E+0	1.026857E+0	1.054885E+0	1.015116E+0	1.026300E+0	1.064968E+0	1.045234E+0	1.057554E+0	1.028123E+0	1.049758E+0	1.004781E+0	1.008386E+0	1.030919E+0	1.020298E+0	1.048283E+0	1.018233E+0	1.023066E+0	1.017423E+0	1.016136E+0	1.032404E+0	1.049185E+0	9.945274E-1	9.904586E-1	1.022050E+0	9.938328E-1	1.025131E+0	1.033701E+0	9.755187E-1	1.063860E+0	1.055231E+0	1.029077E+0	9.847936E-1	1.025416E+0	1.024548E+0	9.235634E-1	1.056441E+0	1.032794E+0	1.005088E+0	1.025574E+0	1.063348E+0	1.048026E+0	1.058495E+0	1.021646E+0	1.016866E+0	1.046434E+0	1.060878E+0	1.037264E+0	1.026629E+0	1.037575E+0	1.051346E+0	1.019955E+0	1.042443E+0	1.086986E+0	1.029835E+0	1.028336E+0	1.056985E+0	9.983441E-1	1.086845E+0	1.048270E+0	1.021663E+0	1.007317E+0	1.053536E+0	1.033808E+0	9.938441E-1	1.038320E+0	1.018357E+0	1.008651E+0	1.010512E+0	1.049702E+0	1.012634E+0	1.014030E+0	1.014221E+0	1.046548E+0	1.019846E+0	1.017739E+0	1.038076E+0	1.024927E+0	1.028865E+0	1.018582E+0	1.049706E+0	1.039852E+0	1.020552E+0	1.021944E+0	1.040232E+0	1.024468E+0	9.999163E-1	1.013036E+0	1.055191E+0	1.003808E+0	9.956594E-1	9.858714E-1	1.035001E+0	1.048490E+0	1.002132E+0	1.033088E+0	1.038608E+0	1.003345E+0	1.013957E+0	1.022252E+0	1.066645E+0	1.020492E+0	9.963529E-1	9.944660E-1	1.024147E+0	1.022477E+0	1.012706E+0	1.025409E+0	1.002925E+0	1.039320E+0	9.715398E-1	9.944875E-1	9.914342E-1	1.024797E+0	1.035297E+0	9.874335E-1	1.018490E+0	1.034638E+0	1.033468E+0	1.012952E+0	1.036885E+0	1.014070E+0	1.036035E+0	1.014874E+0	1.030603E+0	9.960492E-1	1.022778E+0	1.009916E+0	9.847413E-1	1.037027E+0	9.561761E-1	9.621886E-1	1.060445E+0	1.036472E+0	9.810574E-1	9.776716E-1	1.027263E+0	1.013558E+0	9.436037E-1	1.025097E+0	8.949114E-1
3.000060E+2	1.059220E+0	1.033378E+0	1.044984E+0	1.105378E+0	1.081361E+0	1.117771E+0	1.122807E+0	1.033426E+0	1.093470E+0	1.074855E+0	1.110775E+0	1.100094E+0	1.079754E+0	1.079641E+0	1.116622E+0	1.116601E+0	1.093503E+0	1.095709E+0	1.050752E+0	1.111250E+0	1.094294E+0	1.119405E+0	1.053041E+0	1.092451E+0	1.121652E+0	1.096520E+0	1.121554E+0	1.124025E+0	1.069427E+0	1.084896E+0	1.091420E+0	1.119596E+0	1.108624E+0	1.070365E+0	1.104340E+0	1.027878E+0	1.104027E+0	1.107918E+0	1.082046E+0	1.089989E+0	1.069156E+0	1.109631E+0	1.051229E+0	1.090682E+0	1.045596E+0	1.068316E+0	1.075791E+0	1.047956E+0	1.072372E+0	1.074877E+0	1.070429E+0	1.131313E+0	1.087765E+0	1.112332E+0	1.095849E+0	1.059798E+0	1.086391E+0	1.045997E+0	1.069311E+0	1.073047E+0	1.101696E+0	1.076042E+0	1.095125E+0	1.041212E+0	1.107030E+0	1.133591E+0	1.100596E+0	1.081759E+0	1.074272E+0	1.092857E+0	1.063875E+0	1.129717E+0	1.065101E+0	1.089789E+0	1.028381E+0	1.081870E+0	1.061572E+0	1.077705E+0	1.003747E+0	1.047828E+0	1.087524E+0	1.085529E+0	1.040001E+0	1.020717E+0	1.076072E+0	1.098155E+0	1.057181E+0	1.085507E+0	1.036885E+0	1.074734E+0	1.033051E+0	1.054744E+0	1.047921E+0	1.074578E+0	1.097713E+0	1.093560E+0	1.097229E+0	1.076545E+0	1.076453E+0	1.120108E+0	1.070288E+0	1.055403E+0	1.076577E+0	1.084593E+0	1.078947E+0	1.026368E+0	1.047643E+0	1.036426E+0	1.061064E+0	1.066336E+0	1.027105E+0	1.109428E+0	1.076123E+0	1.096646E+0	1.102715E+0	1.085465E+0	1.061688E+0	1.102208E+0	1.120356E+0	1.076665E+0	1.057152E+0	1.114229E+0	1.105046E+0	1.052086E+0	1.092790E+0	1.079013E+0	1.050592E+0	1.112271E+0	1.067911E+0	1.091178E+0	1.034172E+0	1.071496E+0	1.124404E+0	1.099602E+0	1.093515E+0	1.065918E+0	1.062217E+0	1.048176E+0	1.051669E+0	1.067763E+0	1.078451E+0	1.058512E+0	1.110389E+0	1.089892E+0	1.085860E+0	1.067240E+0	1.088622E+0	1.094983E+0	1.089861E+0	1.019405E+0	1.070800E+0	1.071898E+0	1.027701E+0	1.064729E+0	1.136735E+0	1.044102E+0	1.099428E+0	1.125469E+0	1.037893E+0	1.082934E+0	1.087936E+0	1.080761E+0	1.068032E+0	1.063928E+0	1.098518E+0	1.061541E+0	1.113902E+0	1.075968E+0	1.109358E+0	9.898851E-1	1.159398E+0
