Photon Energy (eV)	#1	#2	#3	#4	#5	#6	#7	#8	#9	#10	#11	#12	#13	#14	#15	#16	#17	#18	#19	#20	#21	#22	#23	#24	#25	#26	#27	#28	#29	#30	#31	#32	#33	#34	#35	#36	#37	#38	#39	#40	#41	#42	#43	#44	#45	#46	#47	#48	#49	#50	#51	#52	#53	#54	#55	#56	#57	#58	#59	#60	#61	#62	#63	#64	#65	#66	#67	#68	#69	#70	#71	#72	#73	#74	#75	#76	#77	#78	#79	#80	#81	#82	#83	#84	#85	#86	#87	#88	#89	#90	#91	#92	#93	#94	#95	#96	#97	#98	#99	#100	#101	#102	#103	#104	#105	#106	#107	#108	#109	#110	#111	#112	#113	#114	#115	#116	#117	#118	#119	#120	#121	#122	#123	#124	#125	#126	#127	#128	#129	#130	#131	#132	#133	#134	#135	#136	#137	#138	#139	#140	#141	#142	#143	#144	#145	#146	#147	#148	#149	#150	#151	#152	#153	#154	#155	#156	#157	#158	#159	#160	#161	#162	#163	#164	#165	#166	#167	#168	#169	#170	#171	#172	
2.790040E+2	1.019024E-3	4.269655E-3	-4.804012E-3	5.188731E-3	-3.869038E-3	-3.570561E-3	-1.648565E-3	2.682423E-3	-2.026372E-3	1.258306E-3	-5.133548E-3	5.504902E-3	4.491429E-3	-6.098523E-3	-9.166332E-3	-8.719131E-5	-4.140142E-3	4.493225E-3	-9.617089E-3	-7.782186E-3	-5.533795E-3	1.095321E-3	2.494715E-3	5.655092E-3	-1.923680E-3	8.698009E-3	-6.713814E-3	-1.660821E-4	-1.189991E-2	-4.460467E-3	-7.508359E-3	-1.190076E-3	-1.072829E-2	-1.050244E-2	-5.115685E-4	4.428885E-3	3.660493E-4	-3.415223E-3	4.133829E-3	4.555869E-3	-1.626680E-4	-1.811743E-3	-5.940937E-3	1.030244E-3	-7.662800E-3	-7.553504E-3	-4.890577E-3	-8.427965E-3	6.120789E-3	-2.526873E-3	8.560518E-3	-1.197131E-2	8.382202E-3	-5.587771E-3	2.017265E-3	-7.317547E-3	-1.022539E-2	-1.251085E-2	-7.531763E-3	-9.057185E-3	-6.197826E-3	-7.484118E-3	-8.594725E-4	-9.727762E-3	-4.491988E-3	4.147592E-3	-7.107488E-3	-1.460964E-2	-8.663612E-3	2.145327E-3	6.317467E-3	-2.031216E-2	-9.157335E-3	5.328184E-3	-1.098540E-4	-8.150798E-3	-2.956909E-3	8.527329E-3	-8.187912E-3	-1.145340E-2	8.120502E-3	-4.612796E-3	-3.366478E-3	-1.481381E-2	-4.292487E-3	-4.993328E-3	-2.380711E-3	3.275682E-3	-4.537964E-3	6.851889E-3	-9.651285E-3	-3.403604E-3	-1.222520E-2	4.867993E-3	-1.400964E-3	-2.062214E-4	3.295392E-3	-6.943965E-3	2.522154E-3	8.455097E-3	-1.000770E-2	-1.281540E-2	-5.028780E-3	-1.580693E-3	-1.208742E-2	-4.176850E-3	-4.662738E-3	-5.799805E-3	-1.002064E-2	7.659436E-3	-8.658597E-3	-1.850778E-3	-1.434080E-3	-3.536398E-3	-2.007105E-3	2.301327E-3	-3.720237E-3	3.759283E-3	-7.098514E-3	-4.733380E-3	-6.814514E-3	1.835908E-3	-2.768701E-3	-1.472577E-2	-4.554699E-3	-8.093439E-3	-9.983216E-3	-3.229034E-3	4.982825E-4	4.543312E-3	-1.209314E-2	-1.214718E-2	-8.712642E-3	-9.844757E-3	-6.645894E-3	-7.306470E-3	-6.745695E-3	-1.751507E-2	-1.061958E-2	-7.959190E-3	-1.085892E-2	-6.524321E-3	8.921517E-4	-1.908442E-3	-1.127359E-2	-1.270414E-2	-3.825231E-3	-9.798822E-3	-4.950449E-3	-8.212113E-3	-8.405938E-3	-8.001032E-3	7.045637E-3	-2.498297E-3	4.011277E-4	-9.353430E-4	-4.445716E-3	8.929952E-3	-8.144322E-3	6.310835E-3	-9.945029E-3	-7.820833E-3	-6.107822E-3	-3.408786E-3	-8.380738E-3	-5.295878E-3	-5.882271E-3	-8.362515E-3	-1.149534E-2	-7.988413E-3	-1.889252E-2	9.874935E-3
2.795020E+2	-3.013063E-3	-1.342127E-3	2.715052E-3	8.195610E-3	-2.819678E-3	-3.675437E-3	-8.169737E-3	8.629687E-3	-3.343985E-3	1.129430E-3	-1.143992E-2	-7.705852E-3	-9.100634E-3	5.327643E-4	-5.280955E-4	-1.970328E-4	5.357486E-3	-2.674838E-3	-6.644772E-3	-7.898637E-3	-6.608555E-3	-2.117777E-3	-9.254159E-3	-9.023827E-3	-8.229693E-3	1.381564E-2	-2.859929E-3	-1.102168E-2	5.002816E-3	4.557680E-4	-6.616260E-3	-5.779798E-3	-4.680824E-3	-2.700435E-3	-1.104112E-2	-2.549488E-3	-4.556880E-3	1.404767E-3	-4.903535E-3	-1.018200E-2	-4.991171E-3	-1.122083E-2	2.168796E-3	-1.758489E-3	-3.928852E-3	-1.702090E-2	1.262274E-3	-1.262546E-2	-7.969283E-3	-8.357875E-3	-5.549585E-3	-3.212837E-4	4.979573E-3	-5.667260E-3	-4.422579E-3	-1.142959E-4	-5.151090E-3	-7.510004E-3	-3.122659E-3	2.509524E-3	-8.740203E-3	3.788068E-3	-4.006896E-3	-4.529928E-3	5.145246E-3	2.996325E-4	-5.139557E-3	-8.145511E-3	-9.816277E-3	-6.385425E-3	-5.167730E-3	2.579144E-3	-1.556113E-2	-1.973276E-3	-9.769105E-3	1.833487E-2	9.133455E-4	-1.190934E-2	4.066633E-3	5.317006E-3	-1.708156E-3	-1.312614E-3	-3.481914E-3	-1.551178E-3	-1.402395E-2	-4.094763E-3	-7.841051E-3	-8.145967E-3	-1.249981E-2	-1.286299E-2	-4.042762E-3	-1.032867E-2	-4.568013E-3	-5.898712E-3	-6.678590E-3	-6.964053E-3	-1.166552E-2	2.293960E-3	-7.926798E-3	-5.314570E-3	-1.635998E-3	-4.677778E-3	-2.101853E-3	-4.429395E-3	-1.083068E-2	5.377484E-3	-1.349851E-2	-5.977115E-3	-5.056284E-3	-8.182563E-3	6.456268E-3	-8.423835E-3	-1.360620E-2	9.640990E-4	-4.478357E-3	-1.356498E-2	-6.004224E-3	-2.295445E-3	3.227555E-4	2.136978E-3	-1.108957E-2	-6.526321E-3	-6.237764E-3	-2.776935E-3	3.307152E-3	-6.057851E-3	1.231944E-3	-1.251743E-2	-2.383867E-3	-7.522729E-3	-1.777036E-3	-6.816911E-3	-1.088666E-2	4.843495E-3	-8.875420E-3	-1.691349E-2	3.072017E-3	-5.127250E-3	-7.007989E-3	2.917940E-3	1.058825E-2	-5.545367E-3	-3.577162E-3	-2.007368E-3	-4.739952E-3	3.183263E-4	-1.378896E-2	-5.882037E-3	-7.516088E-4	-1.401084E-2	-5.517351E-3	-1.491104E-2	-1.972915E-2	-7.884634E-3	-6.855599E-3	-1.120054E-2	-4.543425E-3	-6.457404E-3	-1.295028E-3	-6.489404E-4	-1.136132E-2	-5.609548E-3	1.164674E-2	-3.504686E-3	-2.166073E-3	-1.229308E-3	-4.566791E-3	-7.092869E-3	2.496225E-3	-6.173063E-3	1.493382E-2	3.746199E-3
2.800050E+2	-3.561988E-4	-9.699087E-3	3.749189E-3	-1.621544E-3	-1.342998E-2	-3.847754E-3	-6.231214E-3	5.298551E-3	-2.296904E-3	-2.596725E-3	5.995759E-3	9.071783E-3	7.510746E-3	5.915812E-3	-2.619286E-3	3.958108E-3	3.925058E-3	-1.101881E-2	-3.746967E-3	5.064456E-3	-6.724518E-3	7.741397E-4	1.346100E-3	-1.320105E-3	-1.003706E-3	-4.814208E-3	3.838399E-3	2.223649E-3	8.181132E-3	-2.254673E-3	-5.775693E-3	1.193378E-2	-9.791247E-3	-5.091433E-3	-3.144896E-3	-9.566066E-3	4.014523E-3	-3.675362E-3	1.846172E-3	-1.134786E-3	-4.709667E-4	-3.260317E-3	-2.690956E-3	-1.895871E-3	-5.386099E-3	5.033666E-3	-1.028930E-2	3.689807E-3	8.213193E-3	-7.362393E-3	6.850136E-5	4.658499E-3	-1.374035E-2	1.132369E-3	-4.585132E-3	2.115794E-3	-1.180584E-2	4.999985E-3	3.427922E-3	1.004039E-2	1.967733E-3	2.284617E-3	9.351428E-4	-9.957375E-3	1.704085E-2	1.368106E-2	2.838946E-3	1.517452E-2	-1.531452E-2	-4.431519E-3	-3.404936E-3	-9.850836E-3	3.178810E-3	-2.151342E-3	-8.823668E-3	8.107655E-4	-3.255278E-3	-4.153046E-3	2.850941E-3	7.313631E-3	7.713904E-3	-3.710365E-3	-4.866931E-3	-1.766413E-3	4.053832E-3	-1.317922E-3	-1.440139E-2	-8.302436E-4	2.996284E-3	-3.803055E-3	-6.471173E-3	-1.323064E-2	-3.453622E-3	9.883883E-3	1.445191E-3	-1.042583E-2	-1.319314E-2	-3.690630E-3	1.070250E-3	-1.483631E-3	-7.120339E-4	2.762245E-4	-4.269024E-3	6.691460E-4	-1.633698E-3	3.919593E-4	6.027070E-3	-2.155650E-2	-8.998509E-3	3.975405E-3	-1.359155E-3	8.597728E-3	1.691095E-2	1.909566E-3	1.242287E-3	4.791827E-3	-1.700133E-3	1.488317E-3	-1.162676E-2	4.586940E-4	-4.384747E-3	-4.316067E-3	-1.900727E-3	1.473654E-3	-4.835221E-3	1.127515E-3	1.433366E-2	-4.663156E-3	2.808393E-3	-4.405953E-3	-8.418937E-4	-4.316408E-3	2.691178E-3	-5.136224E-3	2.657642E-3	5.755907E-3	2.882659E-3	-3.039756E-3	1.419023E-3	1.771446E-2	-2.241202E-3	-7.840646E-3	1.688646E-3	-3.303488E-3	-3.647914E-3	2.705518E-3	-2.928965E-3	1.930035E-2	8.668861E-3	1.308018E-2	-3.698365E-3	-1.107625E-2	6.704158E-3	-6.746489E-3	-2.885761E-3	-1.391733E-3	2.399527E-4	-1.172191E-3	1.506713E-3	-1.330964E-2	-2.579886E-3	-6.242855E-5	-2.310204E-3	-5.042227E-3	8.107505E-3	-5.535487E-3	-1.090690E-2	-1.937996E-3	-1.018054E-2	1.627964E-2	1.749385E-2	9.472919E-3
2.805030E+2	-1.686779E-3	9.328098E-3	-1.295567E-3	7.915893E-3	1.680336E-3	9.103407E-3	5.480275E-3	7.855315E-4	-1.062597E-3	-1.546053E-2	6.030261E-3	-1.341725E-3	-6.984676E-3	-1.871752E-3	8.995385E-3	2.913836E-3	-2.025163E-3	-2.809057E-3	4.382882E-3	1.564431E-2	3.296542E-3	-1.150794E-2	1.391135E-3	7.934225E-3	2.556320E-4	-2.167810E-3	5.831604E-3	1.565817E-2	-1.320130E-2	6.546574E-3	4.727981E-3	-2.551084E-3	2.506292E-3	9.503812E-3	-3.104239E-3	-2.726564E-3	1.157074E-3	2.251455E-3	-6.009032E-3	8.166678E-3	-8.646668E-3	-3.228428E-3	9.010468E-3	8.716426E-3	-1.538509E-3	-3.099437E-3	1.148729E-2	5.795526E-3	-1.065909E-2	1.803021E-3	1.634289E-2	1.641659E-2	-6.154410E-4	1.177840E-3	-5.600605E-3	9.874654E-4	1.018553E-2	1.393275E-2	-1.005130E-3	2.411640E-3	5.635681E-3	1.113907E-2	-4.111361E-3	9.092809E-3	-1.131102E-3	1.367486E-3	6.931712E-3	8.630039E-4	3.013196E-3	-4.395715E-3	5.147761E-3	-1.694472E-3	-5.594546E-4	-9.341086E-4	7.337360E-4	-1.757001E-3	-8.517803E-3	-7.501343E-3	1.868062E-3	6.264607E-3	-6.851169E-4	-2.564712E-3	-6.814494E-5	7.578734E-3	-1.259277E-3	9.427482E-3	-2.653775E-3	-7.043528E-3	4.170898E-4	-1.478869E-3	-5.308337E-3	-5.107144E-3	6.848994E-3	-6.004637E-3	-4.716342E-3	-2.669831E-3	6.926152E-3	3.302491E-3	1.025802E-2	3.954051E-3	4.561808E-3	8.495687E-3	-1.223769E-3	3.373778E-3	1.060069E-3	-7.865221E-4	1.679315E-3	1.620023E-2	-1.027827E-2	2.908294E-3	-7.755996E-3	-8.533070E-3	-4.056470E-4	-1.422354E-3	3.605263E-3	-2.290195E-3	1.044746E-2	1.540069E-3	-4.116815E-3	8.889988E-3	-1.976406E-4	-1.926317E-3	6.001976E-3	4.514886E-3	-8.705473E-3	-9.263556E-3	-4.005311E-3	7.964061E-3	6.945007E-3	1.057106E-3	7.286452E-3	-5.621208E-3	-3.582574E-3	-6.068526E-3	-3.666829E-3	1.772304E-3	1.691690E-3	6.025531E-3	-1.209021E-2	-1.229029E-2	-9.179978E-4	7.322993E-4	1.737218E-3	1.222519E-3	-4.924885E-3	-7.706367E-3	4.000543E-4	3.310903E-3	2.048320E-4	-4.849583E-4	-6.595126E-3	1.099569E-3	-8.374551E-4	6.412102E-3	-1.820377E-3	-1.261599E-3	6.474822E-3	1.044908E-3	1.559330E-3	-1.326586E-2	3.898743E-3	-4.577595E-3	-1.117274E-3	-1.032378E-3	-2.268903E-3	-1.352454E-3	2.548482E-3	8.867039E-3	1.946201E-2	-6.285891E-3	9.023769E-3	9.616594E-3
2.810070E+2	-3.395270E-4	4.008832E-3	-1.131476E-3	-8.160422E-3	-1.660340E-3	4.998913E-3	5.715945E-3	1.574363E-3	-4.498855E-3	-2.398229E-3	-1.049767E-3	-9.335906E-3	-6.806992E-3	5.028155E-3	3.383891E-3	2.486317E-3	5.685833E-4	-1.206105E-2	2.525656E-3	1.453615E-2	-1.564827E-3	8.231876E-3	6.632651E-4	-7.677902E-3	-1.442334E-2	-4.650359E-3	-2.837291E-3	-2.175184E-2	-7.451976E-3	-3.327692E-3	7.755789E-3	2.131219E-3	-2.212082E-3	-3.805092E-3	1.699423E-3	-3.905720E-3	-1.034510E-2	-3.452983E-3	-8.914385E-4	5.788533E-3	-2.623475E-3	2.733511E-3	-1.423286E-2	-1.359650E-2	5.012506E-3	1.228910E-2	5.449295E-3	2.897373E-3	-5.436349E-3	8.335759E-4	-5.531153E-3	-1.075322E-2	-7.047277E-3	-1.061101E-2	1.947540E-3	6.057094E-3	1.301396E-2	2.700173E-3	-3.108482E-3	-5.184935E-3	-1.440111E-3	-3.801601E-3	4.196516E-3	-4.440123E-3	-1.069652E-2	-1.333864E-2	-1.121792E-2	-5.490069E-3	-3.294672E-3	4.198431E-3	-1.314398E-3	6.722223E-3	4.660731E-3	-4.360637E-3	-1.682674E-4	9.135500E-3	4.896809E-3	-1.727986E-3	3.081892E-3	9.030252E-4	-7.745263E-3	2.093285E-3	1.267763E-4	-1.534759E-3	2.114513E-3	-6.975214E-3	7.618130E-4	6.867139E-4	2.416587E-2	3.294094E-3	6.228312E-3	7.400973E-3	3.182306E-3	-5.397902E-4	-9.755786E-3	-2.460505E-3	-6.283445E-3	2.319809E-3	1.292575E-3	9.656063E-3	-3.713418E-3	-6.680978E-3	4.002782E-3	-7.103371E-3	-1.217095E-2	6.016854E-4	8.206322E-4	5.296004E-3	-1.259721E-2	-1.410506E-3	-4.385514E-3	4.550259E-3	-1.527419E-3	-5.892282E-3	-4.422155E-3	3.587398E-3	-7.070303E-3	7.474531E-4	5.759113E-3	-1.891991E-2	2.673214E-3	6.476442E-3	-5.087354E-3	-1.334808E-2	3.260656E-3	2.444302E-4	-5.909994E-3	-3.313722E-3	1.692755E-3	6.656362E-3	-6.383304E-3	8.119870E-3	3.945678E-3	4.907730E-3	-5.631013E-3	8.760100E-3	-4.345204E-3	7.351326E-3	-1.194487E-2	2.906278E-3	-4.616254E-3	7.344027E-3	1.902808E-3	2.693253E-4	1.130507E-2	1.080955E-2	1.632673E-3	-1.125959E-2	-3.899049E-3	-1.627161E-2	4.413976E-3	1.891039E-2	-3.206017E-3	-3.963628E-3	7.557477E-3	-6.921761E-3	-7.019290E-3	-4.252151E-3	-8.166532E-3	-6.101859E-4	1.548505E-3	3.555553E-3	-1.012808E-2	-1.147868E-2	9.391711E-3	8.999663E-4	-2.445966E-3	6.402413E-3	-8.447482E-3	5.202649E-3	-7.889844E-3	-2.029820E-2
2.815030E+2	-3.425927E-4	-5.508653E-3	1.208954E-4	-4.402015E-3	4.234206E-3	5.008892E-3	6.804666E-3	-1.253665E-2	1.827002E-3	-1.203648E-3	4.170661E-3	1.107383E-3	2.360868E-3	-1.854705E-2	2.439579E-3	6.626243E-4	-1.020276E-2	1.376000E-2	3.552296E-3	-1.679035E-2	-1.491413E-3	-7.785823E-6	-2.139512E-4	6.577941E-3	3.219893E-3	-4.624174E-3	4.071149E-3	-2.933180E-3	6.286795E-3	-8.360967E-3	8.738216E-3	2.600039E-3	2.129290E-2	5.195844E-3	-6.386868E-3	1.220271E-2	-3.528353E-3	5.421886E-3	-8.717533E-4	7.948332E-3	3.349974E-3	1.669107E-2	1.038528E-2	7.169813E-3	-6.449937E-3	5.655869E-4	3.378156E-3	-1.591232E-3	4.726568E-3	-4.900101E-3	1.462793E-3	1.012089E-2	6.390353E-4	1.034343E-2	-2.271173E-3	6.051887E-3	-3.851091E-3	3.968863E-3	-3.110823E-3	-2.594436E-3	2.205901E-3	3.782254E-3	-9.067109E-4	2.985381E-3	-2.153078E-3	-9.372267E-4	-1.026172E-3	2.381036E-3	1.943580E-2	3.149520E-3	6.011168E-4	-1.429005E-3	7.182520E-3	2.809130E-3	-1.651379E-4	-9.527024E-3	-4.395577E-3	5.350496E-4	3.093448E-3	-6.976183E-3	-4.113334E-3	-4.676698E-3	7.309461E-3	1.315071E-2	1.046542E-3	8.590603E-4	9.330190E-3	5.701305E-3	-8.567412E-3	9.057645E-3	5.097202E-3	6.038233E-3	4.471425E-3	3.733541E-3	5.826101E-3	9.763170E-3	-3.599508E-3	-1.180120E-3	5.894430E-3	-8.027137E-3	1.563863E-3	1.181900E-2	-7.058370E-3	2.290221E-3	1.197801E-2	1.026913E-2	8.550230E-3	1.074680E-3	1.282541E-2	-7.034830E-3	-5.473140E-3	-8.367188E-4	-6.883218E-3	-1.316001E-3	8.600293E-3	4.997298E-3	-1.512735E-3	5.726427E-3	8.992520E-3	3.496159E-3	-1.472841E-3	-2.974776E-3	-5.778264E-4	-2.843750E-3	-2.044894E-3	5.485873E-3	-4.879474E-3	-2.170819E-3	-1.059187E-2	-9.627591E-4	1.717438E-3	-1.402567E-3	-2.394928E-3	-6.362993E-6	1.041072E-2	-4.767518E-3	-3.111862E-3	6.216502E-3	1.774886E-2	4.265980E-3	-4.630413E-3	6.282209E-3	2.994429E-3	8.137809E-3	2.605095E-2	5.545878E-3	7.135527E-3	-9.928480E-3	-5.971626E-3	5.394525E-3	-2.485869E-3	1.293262E-3	1.339690E-2	1.221160E-3	-2.703218E-3	3.149596E-3	5.444227E-3	-1.189054E-2	6.675215E-3	5.228076E-4	-6.149067E-3	4.698609E-3	2.507374E-3	1.373883E-2	-3.100056E-3	6.086274E-3	-2.441510E-3	-4.420443E-3	1.353778E-2	-6.163778E-3	-1.645779E-2	-2.252335E-3
2.820030E+2	5.047899E-3	4.290473E-3	-2.206508E-3	-5.533849E-3	6.779448E-3	3.073325E-3	-4.172237E-4	-2.581432E-3	6.958110E-3	7.299137E-3	2.293419E-3	7.021369E-3	1.732573E-2	1.657120E-2	7.086704E-4	-2.227075E-3	-1.553904E-3	1.050750E-3	6.834965E-3	-8.667945E-3	1.186036E-2	-3.920490E-3	-1.819013E-3	1.117097E-3	1.484626E-2	-8.402023E-3	5.271062E-3	1.021173E-2	5.421172E-3	1.204743E-2	6.083106E-3	5.632903E-3	6.792892E-3	4.285431E-3	1.824704E-2	1.086466E-3	6.457926E-3	-3.216871E-3	-6.626582E-3	-6.985200E-3	-9.502311E-4	-7.531803E-3	7.846336E-5	-2.779481E-3	3.283400E-4	4.326601E-3	-5.803027E-3	6.450038E-4	-1.294753E-3	1.143092E-2	-1.000166E-2	-6.162285E-3	8.682852E-3	1.364708E-2	5.406675E-3	-1.294666E-3	3.253593E-3	4.365895E-4	-6.546673E-4	6.068853E-3	1.450003E-3	-1.017975E-3	-6.960474E-4	1.205391E-2	-6.755029E-3	-4.460819E-3	1.249189E-2	7.534406E-3	8.926739E-3	2.134226E-4	-1.065597E-2	1.420099E-2	-7.065753E-5	-2.959263E-3	1.289474E-2	-8.531409E-4	3.909372E-3	1.437151E-2	4.378266E-3	4.915146E-3	-5.062856E-3	2.300565E-3	1.583034E-3	-4.019065E-3	2.328491E-3	-2.852786E-3	5.355113E-3	7.233605E-3	-4.880945E-4	-2.275674E-3	6.484742E-3	7.707393E-3	-4.701822E-4	2.881522E-3	1.650933E-2	1.227978E-2	1.154749E-2	6.060327E-3	-3.085769E-3	-9.155078E-3	4.931251E-3	-2.784400E-4	-7.840512E-4	9.392888E-3	2.819144E-3	-6.459674E-3	-8.857561E-3	8.406060E-3	2.587067E-2	-3.469843E-3	6.760031E-3	1.347564E-2	2.760892E-3	8.083819E-3	1.730746E-3	-1.055294E-2	4.218635E-3	-1.000619E-3	-1.508769E-3	8.027221E-3	8.531205E-3	-4.160952E-4	1.906443E-3	1.858291E-2	3.486530E-3	3.590811E-3	4.621179E-3	4.985209E-3	-8.982333E-3	-7.637338E-4	4.324632E-3	1.113707E-2	5.226549E-3	5.168387E-3	1.825347E-2	9.106833E-3	-4.166700E-3	-3.765162E-3	1.190043E-2	-5.131751E-3	1.942526E-3	9.922128E-5	-3.352123E-3	-6.263638E-4	-4.349732E-3	-8.674777E-3	7.233361E-4	3.787292E-3	6.655718E-4	9.129792E-3	1.165201E-2	1.113713E-2	-8.061838E-3	9.441808E-3	1.612035E-3	1.664120E-2	8.199940E-3	4.719850E-3	9.561320E-4	1.957811E-3	1.935912E-3	6.076715E-3	9.700253E-3	7.220021E-4	-7.821450E-4	8.448155E-3	2.072099E-2	-4.156410E-3	-5.031522E-3	9.237399E-3	-1.343210E-2	-8.028061E-3
2.825030E+2	-3.287632E-4	-5.347190E-3	2.852426E-3	-1.582403E-3	9.085052E-3	-1.109079E-2	-1.534145E-3	-3.852476E-3	4.443600E-3	1.197226E-2	-8.668685E-4	-4.321954E-3	-8.796470E-3	-1.530612E-3	-3.213812E-3	-7.509587E-3	8.070840E-3	9.259785E-3	2.713029E-3	5.894198E-3	6.766206E-3	7.452660E-3	5.391907E-3	-3.262521E-3	7.258633E-3	2.144927E-3	-6.601181E-3	7.779229E-3	7.661271E-3	-6.459722E-4	-7.404780E-3	-1.277698E-2	-3.179638E-3	3.114314E-3	4.242233E-3	1.029773E-3	6.434761E-3	4.682332E-3	1.332234E-2	-8.157432E-3	1.449520E-2	7.628540E-3	1.221747E-3	3.113861E-3	1.962535E-2	5.458888E-3	-5.941100E-4	9.616943E-3	6.298930E-3	9.079723E-3	-5.352309E-3	-1.987879E-3	-1.280592E-3	-4.434678E-3	7.508009E-3	-6.485732E-3	4.580320E-3	-6.017505E-3	1.510560E-2	-4.193851E-3	5.118821E-3	-8.690312E-3	5.448829E-3	4.523082E-3	3.041617E-3	-7.590834E-4	2.228589E-3	2.292249E-3	5.713349E-3	5.505958E-3	8.476684E-3	9.784111E-3	1.032651E-2	4.241313E-3	5.407559E-3	-7.993171E-3	9.406041E-3	1.857824E-3	-1.115133E-2	-6.283830E-3	3.480320E-3	1.248334E-2	2.764196E-3	2.955782E-3	1.003234E-2	9.947470E-3	1.182982E-2	-8.775681E-4	-1.485959E-3	1.216958E-3	7.663302E-3	1.092346E-2	6.214292E-3	-8.923799E-3	-1.228944E-3	6.834935E-4	1.297258E-2	-2.161873E-3	-1.002487E-2	1.915205E-3	5.012230E-3	3.861688E-3	1.646307E-2	-2.612574E-3	2.086554E-2	-5.217217E-3	9.941563E-3	2.356449E-3	8.254836E-3	5.554608E-3	1.441610E-2	-6.979224E-3	4.184724E-3	1.209551E-3	-4.270971E-3	1.073026E-2	5.341533E-3	-9.965486E-3	9.276471E-3	6.442553E-4	1.275489E-2	7.847226E-3	8.663954E-3	9.123087E-3	1.008595E-2	1.296622E-2	4.591207E-3	1.294490E-2	1.001364E-2	1.398395E-3	7.766855E-3	1.104734E-2	1.371340E-2	6.136258E-3	-6.502683E-3	3.592331E-3	1.072309E-2	9.853882E-3	1.059434E-2	-2.423425E-3	1.073402E-2	5.452578E-3	-2.285968E-3	-1.783992E-3	-8.419940E-3	9.706014E-3	1.065157E-2	1.047038E-2	6.033469E-3	1.137502E-2	1.063666E-2	1.547969E-3	4.687768E-3	4.017978E-3	4.694317E-3	1.920185E-3	-4.350510E-3	9.077574E-3	6.908493E-3	1.904318E-2	2.265214E-2	3.739528E-3	-4.190988E-3	1.000593E-2	-8.013014E-4	-2.021269E-3	2.973968E-3	1.070078E-2	-3.411358E-4	-4.108538E-3	1.522081E-2	-2.132047E-3
2.830060E+2	-2.873520E-4	3.359483E-3	8.530977E-3	2.584899E-2	7.176627E-3	4.597468E-3	5.447093E-3	1.265592E-2	1.732055E-2	5.392086E-3	3.719466E-3	1.669152E-2	1.329288E-2	1.713925E-2	1.587088E-2	1.307295E-2	7.397898E-3	6.185454E-3	7.261735E-3	1.555866E-3	2.048898E-2	4.857525E-3	1.040901E-2	8.248377E-3	6.516276E-3	-7.558510E-5	5.653636E-3	1.800814E-2	8.133723E-3	2.344302E-3	1.328196E-2	8.348282E-3	1.482010E-2	6.954068E-3	1.063448E-2	-7.291375E-3	2.264380E-2	1.019653E-2	1.996498E-2	-1.885485E-3	1.147434E-2	4.596330E-3	2.070536E-2	8.443651E-3	-5.738714E-4	1.307626E-2	-4.438897E-3	1.822102E-2	1.331361E-2	1.308881E-2	1.042325E-2	2.137209E-3	1.807924E-2	2.026142E-2	1.554974E-2	1.812894E-2	2.769254E-2	9.968645E-3	1.107012E-2	6.792299E-3	4.411078E-3	2.509973E-2	1.732004E-3	1.939292E-3	2.837377E-2	5.953036E-3	3.649697E-3	1.635863E-2	6.171126E-3	9.202642E-3	-1.134961E-2	4.770112E-3	2.506778E-2	1.320089E-2	1.667074E-2	1.502647E-2	3.297729E-2	3.403899E-3	5.891314E-3	9.550891E-3	1.630825E-2	1.184016E-2	2.151626E-2	8.406601E-3	1.378535E-2	1.842041E-2	1.465231E-2	1.680108E-2	1.501785E-2	1.218120E-2	1.213235E-3	1.036023E-2	4.069506E-3	2.063085E-2	2.344484E-2	1.637504E-2	1.364816E-2	4.145103E-3	1.016095E-2	6.564622E-3	2.265706E-2	1.221302E-3	2.530602E-2	6.228719E-4	3.266819E-2	2.085958E-2	1.161080E-2	-1.796045E-4	2.066213E-2	-8.026931E-4	1.065621E-2	1.593323E-2	3.200451E-2	9.709010E-3	1.185955E-2	2.633135E-2	2.726861E-2	1.360653E-2	1.212140E-2	1.969140E-2	3.351681E-2	1.078545E-2	1.613803E-2	2.525650E-2	2.831838E-2	6.007403E-3	7.214489E-3	2.854538E-2	2.327531E-2	-9.232834E-3	8.419007E-3	1.358729E-2	1.217399E-2	1.466618E-2	1.552427E-3	1.136383E-2	1.399764E-2	2.194808E-2	-3.803831E-3	7.759013E-3	1.394467E-2	-2.737676E-3	2.253891E-2	1.942684E-2	1.648240E-2	3.660426E-3	1.225621E-2	2.606854E-2	7.584811E-3	2.592729E-2	3.175355E-3	2.140663E-2	5.159871E-3	-8.070535E-4	-6.366793E-3	4.043691E-3	2.346226E-3	-3.843217E-4	2.447717E-2	1.289525E-2	5.134429E-3	1.695933E-2	1.141416E-2	1.602785E-2	1.880333E-2	8.975569E-3	1.926334E-2	2.233505E-2	1.605176E-2	9.718721E-3	1.296258E-2	3.489051E-2
2.835020E+2	1.194093E-3	2.001826E-2	1.244106E-2	6.774674E-3	2.267110E-2	1.128212E-2	3.549733E-2	2.051500E-2	1.857947E-2	8.987680E-3	3.054894E-2	5.379273E-3	2.626154E-2	8.033344E-3	2.520826E-2	9.080979E-3	2.486558E-2	2.429235E-2	1.357241E-2	9.040904E-3	2.280205E-2	1.995611E-2	1.618756E-2	6.400463E-3	2.194329E-2	3.785674E-2	9.624544E-3	2.458294E-2	2.218871E-2	4.520293E-2	1.733897E-2	1.528771E-2	2.911393E-2	3.017775E-2	3.479104E-2	2.755552E-3	1.074173E-2	9.398773E-3	2.555111E-2	2.644414E-2	2.382412E-2	2.500332E-2	2.333772E-2	1.834121E-2	1.775134E-2	2.893683E-2	2.770990E-2	1.337148E-2	2.795587E-2	1.433692E-2	2.137679E-2	-2.841769E-3	3.422017E-2	1.646004E-2	4.769669E-2	1.315449E-2	2.269562E-2	1.795123E-2	1.796397E-2	9.301638E-3	2.716820E-2	1.234106E-2	1.642675E-2	2.956348E-2	1.998473E-2	2.252761E-2	1.091087E-2	1.539804E-2	1.962493E-2	2.024671E-2	2.886435E-2	7.529668E-3	5.042694E-2	9.468232E-3	1.681105E-2	1.406997E-2	3.475068E-2	1.021514E-2	4.233654E-2	1.883046E-2	2.284901E-2	3.408985E-2	1.439728E-2	1.855022E-2	2.277856E-2	1.365824E-2	2.174526E-2	3.150246E-2	2.597018E-2	2.059013E-2	1.997615E-2	1.060808E-2	2.670621E-2	1.533032E-2	2.493058E-2	2.446066E-2	2.082183E-2	1.608752E-2	1.738093E-2	1.306360E-2	2.172799E-2	1.936342E-2	1.643352E-2	1.446355E-2	2.048490E-2	3.110790E-2	8.294369E-3	1.108509E-2	3.153107E-2	7.159188E-3	1.426060E-2	1.946990E-2	2.835096E-2	1.685120E-2	9.380635E-3	2.391294E-2	2.865316E-2	7.738288E-3	9.024692E-3	2.507714E-2	3.104058E-2	3.034716E-2	1.040235E-2	2.843577E-3	2.293591E-2	1.559414E-2	-2.196138E-4	1.550618E-2	1.796510E-2	2.747475E-3	4.109381E-2	1.298104E-2	2.108341E-2	2.313885E-2	2.272133E-2	7.236069E-3	4.794701E-2	5.805583E-3	2.178629E-2	6.286415E-3	7.430728E-3	1.707088E-2	2.971181E-2	2.445478E-2	1.954154E-2	1.292052E-2	3.393605E-2	1.861600E-2	3.104816E-2	1.938237E-2	2.173109E-2	2.189211E-2	6.450684E-3	1.253364E-2	8.218684E-3	2.078629E-2	1.766112E-2	6.184537E-3	3.108807E-2	3.150231E-2	1.195648E-2	3.963295E-2	4.364297E-3	2.012454E-2	1.366482E-2	2.535873E-2	1.966486E-2	1.993544E-2	3.427835E-2	2.270842E-2	1.737157E-2	2.076626E-2
2.840000E+2	-9.689948E-5	4.458057E-2	5.634107E-3	3.190382E-2	3.901460E-2	3.774718E-2	3.056139E-2	2.348253E-2	6.810374E-2	2.644949E-2	4.860823E-2	4.006711E-2	4.462610E-2	2.109830E-2	3.489279E-2	3.035588E-2	7.507492E-2	3.940457E-2	4.171721E-2	3.997243E-2	4.121147E-2	4.775818E-2	3.843201E-2	2.731286E-2	4.067814E-2	3.684927E-2	2.417840E-2	4.264996E-2	1.750773E-2	2.847921E-2	2.966150E-2	4.189541E-2	4.266150E-2	5.439412E-2	4.398057E-2	2.775275E-2	2.825179E-2	2.317188E-2	4.083124E-2	1.881913E-2	5.304381E-2	3.762332E-2	2.974401E-2	3.111357E-2	4.093923E-2	3.297681E-2	2.586222E-2	4.632008E-2	4.048258E-2	3.020479E-2	4.762198E-2	2.227767E-2	2.760291E-2	3.365191E-2	3.738748E-2	2.440094E-2	2.847243E-2	4.791798E-2	4.658487E-2	3.263354E-2	5.737286E-2	4.461065E-2	2.957025E-2	1.823821E-2	5.268546E-2	4.242644E-2	5.751584E-2	5.165225E-2	2.670873E-2	4.183897E-2	3.036357E-2	3.935278E-2	6.194023E-2	1.947339E-2	2.934869E-2	4.910518E-2	4.358607E-2	3.650672E-2	3.106977E-2	3.305734E-2	4.506856E-2	1.888419E-2	4.380081E-2	4.196653E-2	3.211544E-2	3.361058E-2	4.730837E-2	4.227505E-2	5.277369E-2	2.930564E-2	5.773687E-2	1.850200E-2	5.030548E-2	4.150378E-2	2.417501E-2	4.652355E-2	1.962690E-2	3.844021E-2	3.219355E-2	1.846675E-2	4.097181E-2	4.267039E-2	4.893097E-2	2.896686E-2	4.798228E-2	2.494783E-2	1.996594E-2	2.663424E-2	4.146960E-2	2.023793E-2	2.843936E-2	4.630612E-2	5.439184E-2	3.764639E-2	2.829583E-2	5.885862E-2	3.724696E-2	3.117843E-2	4.464662E-2	3.919827E-2	3.440173E-2	4.443853E-2	2.593841E-2	4.257964E-2	3.302539E-2	1.890334E-2	3.572042E-2	4.355270E-2	3.574111E-2	2.334382E-2	2.098785E-2	2.602635E-2	2.572011E-2	2.456620E-2	4.364154E-2	1.225648E-2	5.521435E-2	4.425653E-2	4.053578E-2	5.582811E-2	2.199315E-2	2.542974E-2	4.639908E-2	4.337130E-2	2.969029E-2	3.672295E-2	4.834686E-2	4.726008E-2	2.112555E-2	3.911064E-2	2.843345E-2	5.146936E-2	3.467694E-2	4.730610E-2	3.107820E-2	5.034607E-2	3.617826E-2	3.506448E-2	1.894135E-2	2.861530E-2	3.548254E-2	4.380829E-2	4.947079E-2	4.128548E-2	2.943374E-2	3.356246E-2	3.875283E-2	3.820447E-2	5.643579E-2	4.024082E-2	4.312888E-2	8.512397E-3
2.841030E+2	-1.499538E-3	3.492434E-2	1.543290E-2	4.652651E-2	3.061033E-2	5.206764E-2	2.872747E-2	3.556068E-2	3.724260E-2	1.803686E-2	2.244189E-2	4.297148E-2	5.239596E-2	2.745103E-2	2.702017E-2	3.528001E-2	4.231451E-2	2.604617E-2	6.500696E-2	6.249474E-2	4.165838E-2	2.952491E-2	3.888990E-2	3.587094E-2	5.855693E-2	6.403667E-2	2.766866E-2	5.453372E-2	3.977953E-2	4.230730E-2	3.105013E-2	3.321884E-2	7.486126E-2	3.686521E-2	2.964643E-2	3.750028E-2	2.965061E-2	3.306121E-2	4.982784E-2	2.047665E-2	2.320532E-2	2.439552E-2	3.264460E-2	2.902795E-2	4.428018E-2	4.591935E-2	2.733667E-2	3.617160E-2	5.869279E-2	3.060347E-2	4.564478E-2	4.179223E-2	2.444551E-2	3.407873E-2	4.464275E-2	3.812026E-2	7.925632E-2	4.299956E-2	4.104658E-2	2.079488E-2	3.973757E-2	4.377290E-2	2.885413E-2	3.170779E-2	6.374508E-2	4.421439E-2	1.003303E-2	5.740862E-2	4.569102E-2	4.457729E-2	3.076649E-2	5.697439E-2	6.932958E-2	3.515396E-2	3.315084E-2	3.085902E-2	5.976206E-2	2.362513E-2	3.148795E-2	3.238164E-2	3.262113E-2	4.334446E-2	3.533566E-2	1.525654E-2	3.481070E-2	4.033217E-2	3.640707E-2	2.805614E-2	4.765510E-2	2.845704E-2	5.707686E-2	2.279490E-2	3.556391E-2	3.509939E-2	5.236835E-2	5.048555E-2	5.751817E-2	1.517458E-2	4.000777E-2	2.800803E-2	2.551325E-2	3.546356E-2	4.732623E-2	3.763927E-2	6.011595E-2	2.657046E-2	2.619239E-2	7.843931E-3	5.288754E-2	3.625479E-2	2.888141E-2	2.799635E-2	7.370176E-2	4.053894E-2	3.760163E-2	5.669614E-2	4.600988E-2	2.735336E-2	5.557265E-2	5.212200E-2	3.781749E-2	4.365667E-2	3.115311E-2	3.343820E-2	4.342504E-2	5.059028E-2	3.728398E-2	5.108400E-2	2.020215E-2	2.953516E-2	4.742183E-2	3.036810E-2	4.313699E-2	3.868954E-2	5.334460E-2	1.620863E-2	4.773476E-2	3.384418E-2	3.443232E-2	3.665346E-2	4.947416E-2	2.699517E-2	5.742722E-2	2.754197E-2	4.585570E-2	3.300731E-2	4.294151E-2	5.054582E-2	4.447973E-2	4.084605E-2	4.899689E-2	4.070511E-2	5.014417E-2	1.697282E-2	3.367675E-2	5.099312E-2	3.394949E-2	3.432954E-2	2.669945E-2	4.236252E-2	3.324001E-2	5.284484E-2	3.034859E-2	4.691499E-2	3.208027E-2	4.626761E-2	4.590419E-2	3.279745E-2	2.657972E-2	6.096989E-2	4.058057E-2	4.653147E-2
2.842030E+2	-2.774713E-5	4.593480E-2	4.218871E-2	8.043969E-2	6.404308E-2	6.010583E-2	4.224320E-2	5.093609E-2	4.998306E-2	3.525158E-2	5.339527E-2	5.006390E-2	4.974782E-2	5.731264E-2	4.243416E-2	7.120350E-2	6.797991E-2	7.617336E-2	5.625004E-2	5.586877E-2	5.121310E-2	4.821426E-2	5.338418E-2	8.122921E-2	8.398021E-2	5.096015E-2	5.599849E-2	4.424135E-2	5.291679E-2	6.630202E-2	4.730055E-2	6.668837E-2	6.287961E-2	3.401630E-2	6.300296E-2	5.327147E-2	5.036023E-2	4.459338E-2	4.441049E-2	6.528894E-2	7.781673E-2	5.278033E-2	4.485706E-2	3.624713E-2	6.330861E-2	5.192432E-2	5.734376E-2	6.393669E-2	7.771945E-2	6.487603E-2	5.798283E-2	7.888817E-2	6.801537E-2	6.301431E-2	5.821275E-2	5.026990E-2	7.084381E-2	5.641447E-2	5.037337E-2	7.007851E-2	5.662773E-2	5.980690E-2	4.506706E-2	6.349227E-2	5.577772E-2	5.990158E-2	3.150757E-2	6.907655E-2	4.781539E-2	5.125240E-2	5.113673E-2	4.230160E-2	7.886966E-2	4.245357E-2	6.621575E-2	5.198919E-2	8.563208E-2	4.262878E-2	6.128372E-2	3.329759E-2	6.775317E-2	4.666533E-2	6.472675E-2	4.216084E-2	5.781493E-2	4.121775E-2	4.083769E-2	5.639021E-2	9.434010E-2	5.042578E-2	4.581350E-2	3.935499E-2	7.992049E-2	5.438336E-2	7.365619E-2	4.224141E-2	6.606173E-2	5.363529E-2	5.461723E-2	3.813583E-2	5.482128E-2	5.197439E-2	5.931695E-2	6.932443E-2	1.141553E-1	4.692076E-2	4.601994E-2	5.525627E-2	5.537085E-2	3.834194E-2	6.269434E-2	4.782611E-2	7.934070E-2	4.016344E-2	3.975875E-2	6.477625E-2	4.205140E-2	5.620806E-2	5.439623E-2	4.708557E-2	7.483448E-2	6.117070E-2	5.026286E-2	7.074047E-2	5.147531E-2	4.696383E-2	6.377795E-2	6.868175E-2	8.890654E-2	4.324486E-2	6.979488E-2	8.646109E-2	6.585524E-2	5.346978E-2	5.561903E-2	3.840702E-2	6.759432E-2	7.637759E-2	5.412972E-2	4.951353E-2	5.457046E-2	3.588420E-2	4.668896E-2	5.192629E-2	7.578813E-2	5.656558E-2	5.094571E-2	5.579180E-2	5.817782E-2	4.677369E-2	4.252045E-2	5.720433E-2	8.568843E-2	6.728420E-2	4.669598E-2	6.555688E-2	6.843440E-2	2.569285E-2	3.063157E-2	6.781766E-2	4.959168E-2	6.002858E-2	5.356192E-2	7.762891E-2	5.912561E-2	5.402473E-2	6.375732E-2	4.461997E-2	7.521852E-2	7.232535E-2	2.607296E-2	4.217256E-2
2.843030E+2	-1.276673E-5	8.892474E-2	5.076754E-2	7.367913E-2	8.087549E-2	7.575259E-2	9.700798E-2	7.367659E-2	8.069932E-2	8.063796E-2	7.408389E-2	8.713628E-2	8.815509E-2	9.008145E-2	9.447475E-2	1.035546E-1	1.087667E-1	6.808582E-2	4.781918E-2	1.037079E-1	7.881009E-2	9.582262E-2	4.888860E-2	9.003369E-2	1.208956E-1	9.988524E-2	7.987187E-2	8.305241E-2	7.178052E-2	8.851632E-2	6.427582E-2	7.884979E-2	1.181690E-1	8.681369E-2	9.734990E-2	8.745669E-2	7.823094E-2	8.142312E-2	7.288518E-2	7.317428E-2	7.829204E-2	8.473760E-2	7.320075E-2	7.373762E-2	8.603223E-2	6.754821E-2	8.150011E-2	7.951356E-2	1.140411E-1	5.659827E-2	6.345939E-2	8.589161E-2	8.161405E-2	8.735820E-2	8.508259E-2	6.531520E-2	1.068205E-1	7.621832E-2	7.509005E-2	9.679818E-2	6.631657E-2	6.985101E-2	6.430759E-2	8.393690E-2	9.206833E-2	9.396722E-2	8.281341E-2	9.850204E-2	9.542160E-2	7.001083E-2	6.706831E-2	7.238564E-2	9.869195E-2	8.044489E-2	4.580054E-2	8.419569E-2	1.253556E-1	5.892178E-2	6.061228E-2	8.070082E-2	8.405715E-2	7.523375E-2	9.120572E-2	8.202437E-2	9.107056E-2	7.461478E-2	6.800466E-2	6.372897E-2	1.179215E-1	9.467700E-2	8.705219E-2	7.789780E-2	8.618301E-2	7.681592E-2	6.849256E-2	9.040775E-2	1.179377E-1	5.529336E-2	8.627382E-2	8.221784E-2	5.634748E-2	8.151759E-2	8.503210E-2	7.710673E-2	1.118270E-1	8.559684E-2	9.420553E-2	8.693328E-2	9.049517E-2	6.192546E-2	8.213455E-2	1.079264E-1	9.440699E-2	9.029502E-2	6.834096E-2	9.200531E-2	5.927938E-2	8.373849E-2	1.039818E-1	8.138965E-2	1.025782E-1	9.108062E-2	8.987235E-2	6.841508E-2	8.357603E-2	7.116427E-2	9.442009E-2	9.285201E-2	1.087404E-1	6.488082E-2	8.663270E-2	6.456993E-2	6.627797E-2	9.038552E-2	9.910150E-2	8.169938E-2	1.019180E-1	6.208804E-2	6.801084E-2	1.073572E-1	8.660503E-2	5.834482E-2	9.925759E-2	8.551037E-2	1.052513E-1	6.123845E-2	7.045287E-2	1.225565E-1	7.727119E-2	8.822539E-2	9.349582E-2	6.282348E-2	8.615970E-2	7.822111E-2	6.939169E-2	1.061540E-1	5.396137E-2	7.235134E-2	7.936355E-2	9.770535E-2	7.385593E-2	8.034404E-2	8.516492E-2	1.027348E-1	6.296156E-2	7.592737E-2	6.984598E-2	6.681788E-2	1.305938E-1	6.659796E-2	1.132183E-1	1.135811E-1
2.844030E+2	7.315681E-3	1.331636E-1	7.801055E-2	1.037128E-1	1.099944E-1	1.134750E-1	1.006222E-1	1.344156E-1	6.579646E-2	1.298873E-1	1.023947E-1	9.576762E-2	8.830623E-2	1.450646E-1	9.039581E-2	1.187544E-1	1.066860E-1	1.467818E-1	1.043031E-1	1.542468E-1	8.787826E-2	1.107589E-1	1.089123E-1	1.327504E-1	1.266519E-1	1.413924E-1	7.020520E-2	1.232566E-1	8.707293E-2	1.536835E-1	8.732478E-2	1.168136E-1	1.003714E-1	1.059610E-1	1.151641E-1	1.092884E-1	8.864527E-2	1.065935E-1	9.904902E-2	1.028935E-1	1.279495E-1	1.053138E-1	1.501053E-1	9.303040E-2	1.009678E-1	1.190978E-1	1.169033E-1	9.049009E-2	1.486180E-1	8.407543E-2	1.040181E-1	1.106585E-1	1.088517E-1	1.171240E-1	1.199178E-1	1.004829E-1	1.382284E-1	8.577243E-2	1.314664E-1	9.057787E-2	1.276053E-1	1.221708E-1	7.083960E-2	1.187090E-1	1.241273E-1	1.305167E-1	1.006919E-1	1.171018E-1	9.070147E-2	1.278497E-1	9.421373E-2	1.297649E-1	1.446067E-1	1.012380E-1	1.202104E-1	9.952264E-2	1.327265E-1	6.599933E-2	1.045189E-1	1.068222E-1	1.371420E-1	8.864710E-2	1.226670E-1	9.649540E-2	1.183083E-1	8.538809E-2	1.020157E-1	9.613526E-2	1.396401E-1	9.211485E-2	1.069784E-1	1.229232E-1	1.200484E-1	7.084790E-2	1.162859E-1	1.269629E-1	1.612231E-1	8.315475E-2	1.254955E-1	1.062072E-1	1.118409E-1	1.236238E-1	1.185655E-1	1.071990E-1	1.727771E-1	1.239186E-1	9.785110E-2	1.119175E-1	1.114311E-1	9.392807E-2	9.177150E-2	9.906800E-2	1.088422E-1	1.115357E-1	1.455587E-1	1.201194E-1	9.781661E-2	9.580935E-2	1.395592E-1	1.446361E-1	1.451012E-1	1.077366E-1	1.132913E-1	1.360670E-1	1.238700E-1	7.205981E-2	1.024202E-1	1.288007E-1	1.458249E-1	8.968361E-2	1.119544E-1	8.953886E-2	1.056331E-1	1.002397E-1	1.191808E-1	1.046185E-1	1.674516E-1	8.911174E-2	9.485154E-2	1.343210E-1	1.335687E-1	8.863525E-2	1.268558E-1	9.862431E-2	1.387711E-1	8.662486E-2	1.088266E-1	1.171056E-1	1.290016E-1	1.296922E-1	8.386868E-2	1.444812E-1	1.194721E-1	1.173132E-1	1.120969E-1	1.196413E-1	1.039000E-1	1.214262E-1	9.670979E-2	1.225397E-1	1.273749E-1	1.090181E-1	1.203795E-1	1.158433E-1	1.240736E-1	9.786143E-2	1.027555E-1	1.021065E-1	1.355750E-1	1.137790E-1	1.176772E-1	7.645235E-2
2.845010E+2	1.521432E-3	1.508472E-1	1.110566E-1	1.470937E-1	1.225760E-1	1.276834E-1	1.087278E-1	1.397283E-1	1.330002E-1	1.415258E-1	1.194244E-1	1.588279E-1	9.851604E-2	1.850995E-1	1.234805E-1	1.303402E-1	1.575717E-1	1.753819E-1	9.633610E-2	1.583527E-1	1.048834E-1	1.495426E-1	1.169491E-1	1.650800E-1	1.587010E-1	1.821258E-1	9.160043E-2	1.466414E-1	8.800092E-2	1.914317E-1	1.157376E-1	1.358388E-1	1.157764E-1	1.656360E-1	1.316229E-1	1.695143E-1	1.030074E-1	1.437173E-1	1.363483E-1	1.190144E-1	1.216092E-1	1.778563E-1	1.787597E-1	1.371690E-1	1.154151E-1	1.876435E-1	1.112192E-1	1.411165E-1	1.511617E-1	1.425425E-1	1.321198E-1	1.329497E-1	1.310046E-1	1.482459E-1	1.620404E-1	1.302443E-1	1.341335E-1	1.510792E-1	1.228790E-1	1.336846E-1	1.032339E-1	1.828073E-1	1.124755E-1	1.472819E-1	1.276205E-1	1.504855E-1	1.367150E-1	1.679656E-1	9.920937E-2	1.562505E-1	1.247768E-1	1.639567E-1	1.596159E-1	1.368657E-1	1.190886E-1	1.628127E-1	1.515892E-1	1.394947E-1	1.227549E-1	1.511108E-1	1.308970E-1	1.259954E-1	1.292484E-1	1.391031E-1	1.144216E-1	1.113885E-1	1.624292E-1	1.206848E-1	1.963395E-1	1.275797E-1	1.219724E-1	1.390475E-1	1.212953E-1	1.214242E-1	1.165664E-1	1.354321E-1	1.764301E-1	9.974294E-2	1.333345E-1	1.494223E-1	1.329602E-1	1.315718E-1	1.177207E-1	1.760495E-1	1.638660E-1	1.104074E-1	1.220801E-1	1.544704E-1	1.751977E-1	1.446955E-1	1.240479E-1	1.538657E-1	1.793259E-1	1.315763E-1	1.349047E-1	1.711738E-1	1.071436E-1	1.199703E-1	1.408903E-1	1.358506E-1	1.742050E-1	1.204845E-1	1.430209E-1	1.559014E-1	1.481777E-1	1.271271E-1	1.239241E-1	1.481259E-1	1.634261E-1	1.014344E-1	1.271498E-1	1.481635E-1	1.007706E-1	1.121767E-1	1.593716E-1	1.336549E-1	1.495944E-1	1.288358E-1	1.437103E-1	1.247411E-1	1.362063E-1	1.201813E-1	1.485673E-1	1.249678E-1	1.901544E-1	1.367586E-1	1.305288E-1	1.491904E-1	1.171141E-1	1.385471E-1	1.187272E-1	1.564111E-1	1.713590E-1	1.242619E-1	1.097674E-1	1.949135E-1	1.269058E-1	1.093186E-1	1.305564E-1	1.275650E-1	1.315258E-1	1.050354E-1	1.025313E-1	1.683215E-1	1.264060E-1	1.069822E-1	1.428470E-1	1.180451E-1	1.333832E-1	1.211988E-1	1.409142E-1	1.440256E-1
2.846030E+2	8.941908E-3	2.056455E-1	1.880924E-1	2.555627E-1	1.675887E-1	2.523635E-1	2.079915E-1	2.900132E-1	2.095228E-1	2.463460E-1	1.792772E-1	2.450514E-1	1.730212E-1	3.197321E-1	2.022352E-1	2.720469E-1	2.229861E-1	2.631123E-1	2.101456E-1	2.713575E-1	2.248131E-1	2.645401E-1	2.101191E-1	3.319517E-1	2.292398E-1	2.570797E-1	2.039821E-1	2.816729E-1	1.671632E-1	3.168604E-1	1.828074E-1	2.339807E-1	2.502432E-1	2.636709E-1	2.239972E-1	2.594459E-1	1.540065E-1	2.856305E-1	2.448525E-1	2.556132E-1	1.995566E-1	2.519960E-1	2.609707E-1	2.184141E-1	1.940799E-1	2.901710E-1	2.234349E-1	2.487402E-1	3.016222E-1	2.346099E-1	2.601194E-1	2.387429E-1	2.177780E-1	2.340983E-1	2.551685E-1	2.225513E-1	2.555180E-1	2.722687E-1	1.900727E-1	2.500801E-1	1.777659E-1	3.480106E-1	1.750084E-1	2.259802E-1	2.867835E-1	2.862613E-1	1.878416E-1	2.960864E-1	1.901010E-1	2.635809E-1	2.363282E-1	3.172929E-1	2.651081E-1	2.401299E-1	1.937771E-1	2.438490E-1	2.113700E-1	2.427719E-1	2.054626E-1	2.454612E-1	2.478987E-1	2.211470E-1	2.130902E-1	2.038454E-1	2.146795E-1	2.285521E-1	2.676811E-1	2.410354E-1	2.788140E-1	2.349533E-1	2.196496E-1	2.836328E-1	1.982929E-1	2.376957E-1	2.293520E-1	2.458428E-1	2.497930E-1	2.321162E-1	2.552756E-1	2.667965E-1	2.195162E-1	2.326993E-1	2.403067E-1	2.445096E-1	3.319894E-1	2.156007E-1	2.439395E-1	3.067529E-1	2.611661E-1	2.261028E-1	2.293960E-1	2.139037E-1	3.132718E-1	1.998767E-1	2.382211E-1	2.618238E-1	2.460609E-1	1.998775E-1	2.750261E-1	2.308106E-1	3.404454E-1	2.107408E-1	1.956485E-1	3.194432E-1	2.549449E-1	2.002968E-1	2.497701E-1	2.573086E-1	2.887032E-1	1.883187E-1	2.543525E-1	2.344212E-1	2.092094E-1	2.099143E-1	2.904807E-1	2.275299E-1	3.116359E-1	2.181362E-1	2.963065E-1	2.433692E-1	2.485089E-1	2.044189E-1	2.517594E-1	2.158145E-1	2.657437E-1	2.350256E-1	1.720330E-1	2.833090E-1	2.113912E-1	2.859625E-1	2.024714E-1	2.579356E-1	2.450783E-1	2.791590E-1	1.782720E-1	2.998158E-1	2.302904E-1	2.149083E-1	2.452270E-1	2.453581E-1	2.346230E-1	2.293715E-1	2.185029E-1	2.664125E-1	2.202816E-1	2.054409E-1	2.665522E-1	2.244854E-1	2.871651E-1	2.299991E-1	2.625968E-1	2.291875E-1
2.847020E+2	5.952624E-3	5.709446E-1	4.568426E-1	5.650507E-1	4.121745E-1	5.134641E-1	5.541904E-1	5.847282E-1	4.768151E-1	6.129019E-1	4.696183E-1	5.938716E-1	4.410995E-1	6.541841E-1	4.435776E-1	5.675326E-1	5.161562E-1	6.456759E-1	4.481274E-1	5.949538E-1	4.377185E-1	5.751937E-1	4.332361E-1	6.033234E-1	5.092895E-1	6.974170E-1	3.766782E-1	5.746893E-1	4.163139E-1	6.961301E-1	4.309072E-1	5.862402E-1	4.710342E-1	5.607910E-1	5.844164E-1	5.604985E-1	4.054689E-1	5.006039E-1	4.768257E-1	5.747620E-1	4.729083E-1	6.019824E-1	5.342409E-1	5.133239E-1	4.771542E-1	5.953505E-1	4.387156E-1	4.402890E-1	5.437946E-1	5.298536E-1	5.005407E-1	5.812045E-1	4.792493E-1	4.531454E-1	5.253518E-1	5.117360E-1	5.546209E-1	5.441434E-1	5.067534E-1	5.567111E-1	4.553979E-1	6.950593E-1	4.311677E-1	5.236061E-1	5.755433E-1	6.650309E-1	4.454433E-1	5.865506E-1	5.121048E-1	5.280881E-1	4.940323E-1	6.391306E-1	4.930235E-1	5.628228E-1	4.594244E-1	5.666539E-1	4.553384E-1	5.662965E-1	4.899017E-1	5.247471E-1	5.727078E-1	5.691081E-1	5.670158E-1	5.338208E-1	4.902374E-1	5.027803E-1	5.665874E-1	5.097157E-1	6.060977E-1	5.045948E-1	5.341987E-1	5.567075E-1	4.383422E-1	5.553718E-1	4.536327E-1	5.730794E-1	5.698193E-1	5.385711E-1	5.527738E-1	5.648225E-1	4.494485E-1	5.803068E-1	5.569740E-1	5.734274E-1	6.750251E-1	6.001215E-1	5.011586E-1	5.552629E-1	5.023587E-1	5.648692E-1	4.936159E-1	4.871402E-1	6.195573E-1	4.890475E-1	5.742894E-1	6.590130E-1	4.336875E-1	5.006230E-1	5.534722E-1	5.807066E-1	6.202601E-1	5.257669E-1	5.065848E-1	6.423520E-1	5.169925E-1	4.653945E-1	5.436912E-1	5.944117E-1	5.949332E-1	4.691604E-1	5.586953E-1	5.687908E-1	4.641692E-1	4.826524E-1	5.482926E-1	5.294453E-1	5.823290E-1	4.222533E-1	5.682545E-1	5.669480E-1	5.977145E-1	5.038774E-1	5.716003E-1	5.464227E-1	6.450185E-1	5.583310E-1	5.169568E-1	5.710812E-1	4.406574E-1	5.538559E-1	4.777806E-1	5.735766E-1	5.949367E-1	6.228996E-1	4.448160E-1	6.695192E-1	5.381263E-1	4.712537E-1	4.544007E-1	6.118311E-1	6.371053E-1	5.063472E-1	5.069603E-1	5.545123E-1	4.620421E-1	5.172176E-1	5.238083E-1	5.189516E-1	6.341904E-1	4.967581E-1	5.840425E-1	6.073269E-1
2.848000E+2	2.522378E-2	1.102910E+0	9.796560E-1	1.172673E+0	9.668834E-1	1.033125E+0	1.081361E+0	1.166256E+0	9.523848E-1	1.212749E+0	9.565552E-1	1.131220E+0	8.727121E-1	1.341047E+0	9.348878E-1	1.190971E+0	1.122852E+0	1.282133E+0	8.987299E-1	1.230283E+0	8.240989E-1	1.185072E+0	9.709891E-1	1.185679E+0	1.112553E+0	1.381543E+0	7.701601E-1	1.318612E+0	7.927179E-1	1.392267E+0	8.457614E-1	1.253675E+0	1.113094E+0	1.072215E+0	1.065160E+0	1.196700E+0	8.232699E-1	1.139097E+0	1.103877E+0	1.208782E+0	1.092992E+0	1.151762E+0	1.055545E+0	1.086786E+0	9.560128E-1	1.229550E+0	9.881083E-1	9.850116E-1	1.275017E+0	1.134132E+0	1.154340E+0	1.119087E+0	9.564754E-1	1.029293E+0	1.095482E+0	1.022290E+0	1.218697E+0	1.228107E+0	9.647139E-1	1.062405E+0	8.963025E-1	1.388579E+0	9.291583E-1	1.107008E+0	1.216828E+0	1.205473E+0	8.816366E-1	1.214630E+0	9.372500E-1	1.102226E+0	9.802704E-1	1.260094E+0	1.151030E+0	1.074183E+0	9.400992E-1	1.194000E+0	9.889806E-1	1.084167E+0	1.024315E+0	1.089511E+0	1.107352E+0	1.154008E+0	1.190732E+0	1.087854E+0	8.751555E-1	1.062796E+0	1.141231E+0	1.142931E+0	1.154335E+0	1.001003E+0	1.150452E+0	1.116141E+0	9.342195E-1	1.152224E+0	1.038467E+0	1.190027E+0	1.184705E+0	1.128076E+0	1.031905E+0	1.188997E+0	9.115421E-1	1.080097E+0	1.015941E+0	1.169911E+0	1.316802E+0	1.041378E+0	9.471546E-1	1.085567E+0	1.096952E+0	1.115178E+0	1.104486E+0	1.027665E+0	1.277915E+0	1.018036E+0	1.090870E+0	1.162294E+0	9.425680E-1	9.679944E-1	1.137698E+0	1.227439E+0	1.134619E+0	1.062024E+0	1.054389E+0	1.285679E+0	9.149214E-1	1.040099E+0	1.075267E+0	1.155706E+0	1.141268E+0	1.058745E+0	1.158875E+0	1.172953E+0	9.337665E-1	1.056315E+0	1.182763E+0	1.070429E+0	1.226467E+0	1.030858E+0	1.130338E+0	1.057071E+0	9.826812E-1	1.092745E+0	1.137622E+0	1.061122E+0	1.353762E+0	1.119569E+0	8.796173E-1	1.257302E+0	9.235032E-1	1.199000E+0	9.593348E-1	1.262494E+0	1.111169E+0	1.178136E+0	9.632663E-1	1.394018E+0	8.854793E-1	1.069341E+0	1.021440E+0	1.264920E+0	1.178549E+0	1.061820E+0	1.204176E+0	1.173826E+0	1.028098E+0	1.112689E+0	1.114380E+0	1.158258E+0	1.185441E+0	1.003178E+0	1.165899E+0	1.149069E+0
2.849020E+2	6.204453E-2	1.530861E+0	1.553008E+0	1.593031E+0	1.424299E+0	1.462109E+0	1.536318E+0	1.759946E+0	1.417857E+0	1.626938E+0	1.362277E+0	1.653696E+0	1.268756E+0	1.856681E+0	1.308184E+0	1.596738E+0	1.454412E+0	1.698866E+0	1.327583E+0	1.880290E+0	1.321936E+0	1.658132E+0	1.354719E+0	1.890170E+0	1.492896E+0	1.842170E+0	1.112659E+0	1.789488E+0	1.233167E+0	2.013483E+0	1.155927E+0	1.721889E+0	1.564402E+0	1.656966E+0	1.677420E+0	1.672981E+0	1.155504E+0	1.526745E+0	1.559674E+0	1.751295E+0	1.517969E+0	1.682402E+0	1.536014E+0	1.549647E+0	1.316872E+0	1.739364E+0	1.380517E+0	1.500477E+0	1.677442E+0	1.577702E+0	1.519928E+0	1.552993E+0	1.316959E+0	1.396704E+0	1.653156E+0	1.563580E+0	1.740335E+0	1.754567E+0	1.373919E+0	1.512470E+0	1.351355E+0	2.003606E+0	1.244602E+0	1.500537E+0	1.672707E+0	1.703428E+0	1.260011E+0	1.833834E+0	1.375137E+0	1.522498E+0	1.401153E+0	1.894782E+0	1.549573E+0	1.593139E+0	1.458819E+0	1.722613E+0	1.445536E+0	1.595176E+0	1.384799E+0	1.545027E+0	1.514772E+0	1.589178E+0	1.639127E+0	1.567668E+0	1.290373E+0	1.429374E+0	1.711232E+0	1.516750E+0	1.716359E+0	1.553084E+0	1.466149E+0	1.575582E+0	1.333145E+0	1.575054E+0	1.438119E+0	1.550776E+0	1.723983E+0	1.634985E+0	1.478970E+0	1.623327E+0	1.276069E+0	1.571600E+0	1.488704E+0	1.697535E+0	1.768428E+0	1.499482E+0	1.351611E+0	1.614423E+0	1.475514E+0	1.601443E+0	1.489931E+0	1.555968E+0	1.827211E+0	1.397352E+0	1.620974E+0	1.696075E+0	1.341409E+0	1.315822E+0	1.651368E+0	1.681560E+0	1.818621E+0	1.461238E+0	1.533737E+0	1.714871E+0	1.339190E+0	1.572194E+0	1.544942E+0	1.665583E+0	1.793877E+0	1.398948E+0	1.585447E+0	1.591089E+0	1.258371E+0	1.528705E+0	1.689697E+0	1.582601E+0	1.741784E+0	1.475293E+0	1.662710E+0	1.538381E+0	1.427515E+0	1.509756E+0	1.551402E+0	1.529680E+0	1.870220E+0	1.672982E+0	1.234903E+0	1.789629E+0	1.283334E+0	1.728149E+0	1.367674E+0	1.894670E+0	1.500210E+0	1.750883E+0	1.249720E+0	2.116676E+0	1.232076E+0	1.653840E+0	1.338257E+0	1.712641E+0	1.698493E+0	1.558846E+0	1.541282E+0	1.682292E+0	1.360701E+0	1.537180E+0	1.521171E+0	1.486553E+0	1.623667E+0	1.531242E+0	1.612050E+0	1.500510E+0
2.850010E+2	4.007049E-2	1.603276E+0	1.505071E+0	1.709507E+0	1.357060E+0	1.398063E+0	1.479541E+0	1.686052E+0	1.406437E+0	1.671664E+0	1.275358E+0	1.660409E+0	1.328438E+0	1.790292E+0	1.374506E+0	1.556655E+0	1.576273E+0	1.768670E+0	1.353337E+0	1.832228E+0	1.314377E+0	1.647817E+0	1.281124E+0	1.790886E+0	1.543414E+0	1.848410E+0	1.218579E+0	1.867731E+0	1.221904E+0	1.990306E+0	1.178142E+0	1.726543E+0	1.648077E+0	1.620149E+0	1.640251E+0	1.622578E+0	1.218261E+0	1.617059E+0	1.599702E+0	1.746198E+0	1.525572E+0	1.722271E+0	1.543549E+0	1.536110E+0	1.317877E+0	1.842744E+0	1.366610E+0	1.558243E+0	1.735294E+0	1.457328E+0	1.570475E+0	1.635282E+0	1.363206E+0	1.389675E+0	1.571604E+0	1.537913E+0	1.697347E+0	1.713038E+0	1.355706E+0	1.644725E+0	1.337538E+0	1.881991E+0	1.188160E+0	1.589531E+0	1.733539E+0	1.820238E+0	1.241584E+0	1.767123E+0	1.415178E+0	1.594277E+0	1.440615E+0	1.833159E+0	1.515205E+0	1.588912E+0	1.300477E+0	1.702243E+0	1.516640E+0	1.613443E+0	1.452081E+0	1.587002E+0	1.463932E+0	1.659412E+0	1.599221E+0	1.578415E+0	1.442978E+0	1.409506E+0	1.655219E+0	1.601875E+0	1.725293E+0	1.424609E+0	1.511716E+0	1.634681E+0	1.327201E+0	1.612254E+0	1.480860E+0	1.588045E+0	1.688638E+0	1.605882E+0	1.537728E+0	1.672783E+0	1.281199E+0	1.488286E+0	1.470031E+0	1.613864E+0	1.826875E+0	1.546135E+0	1.365266E+0	1.590702E+0	1.428512E+0	1.584982E+0	1.545830E+0	1.464912E+0	1.780098E+0	1.465581E+0	1.569359E+0	1.641583E+0	1.309172E+0	1.362728E+0	1.780973E+0	1.657531E+0	1.665525E+0	1.550581E+0	1.495785E+0	1.857227E+0	1.333908E+0	1.502048E+0	1.482305E+0	1.679756E+0	1.748369E+0	1.441297E+0	1.709449E+0	1.574312E+0	1.343687E+0	1.457804E+0	1.700373E+0	1.498679E+0	1.724092E+0	1.391206E+0	1.650011E+0	1.600900E+0	1.443478E+0	1.526596E+0	1.573480E+0	1.432260E+0	1.881722E+0	1.663046E+0	1.317474E+0	1.817951E+0	1.308675E+0	1.678920E+0	1.313741E+0	1.821621E+0	1.517917E+0	1.838653E+0	1.229765E+0	2.132503E+0	1.196518E+0	1.594153E+0	1.330729E+0	1.652989E+0	1.716068E+0	1.644651E+0	1.607938E+0	1.595977E+0	1.340318E+0	1.551904E+0	1.488146E+0	1.538946E+0	1.598725E+0	1.571539E+0	1.640772E+0	1.546043E+0
2.851000E+2	5.617771E-2	1.445047E+0	1.241555E+0	1.521003E+0	1.354701E+0	1.377631E+0	1.469804E+0	1.705963E+0	1.362752E+0	1.650416E+0	1.319554E+0	1.683750E+0	1.203815E+0	1.886534E+0	1.304057E+0	1.609673E+0	1.512707E+0	1.707465E+0	1.334051E+0	1.760076E+0	1.246194E+0	1.590714E+0	1.270194E+0	1.820105E+0	1.508507E+0	1.816799E+0	1.077564E+0	1.786576E+0	1.149769E+0	1.895324E+0	1.128292E+0	1.652576E+0	1.554575E+0	1.617009E+0	1.548434E+0	1.651326E+0	1.156737E+0	1.519872E+0	1.575897E+0	1.645013E+0	1.456333E+0	1.685293E+0	1.441615E+0	1.511072E+0	1.387523E+0	1.797032E+0	1.381894E+0	1.463153E+0	1.673405E+0	1.503272E+0	1.621960E+0	1.516617E+0	1.355989E+0	1.426712E+0	1.604020E+0	1.504955E+0	1.665692E+0	1.778798E+0	1.275829E+0	1.481243E+0	1.294583E+0	1.924568E+0	1.198868E+0	1.457678E+0	1.668102E+0	1.748587E+0	1.177926E+0	1.729528E+0	1.309908E+0	1.540802E+0	1.346463E+0	1.720108E+0	1.539070E+0	1.530990E+0	1.239846E+0	1.709098E+0	1.378171E+0	1.505007E+0	1.297461E+0	1.539173E+0	1.488551E+0	1.586649E+0	1.609037E+0	1.426574E+0	1.263608E+0	1.414648E+0	1.642145E+0	1.427044E+0	1.698835E+0	1.479957E+0	1.395448E+0	1.538233E+0	1.315565E+0	1.550500E+0	1.415985E+0	1.511329E+0	1.628855E+0	1.602797E+0	1.421649E+0	1.592440E+0	1.240978E+0	1.487686E+0	1.501242E+0	1.581279E+0	1.728267E+0	1.417000E+0	1.308775E+0	1.616203E+0	1.404075E+0	1.569034E+0	1.484277E+0	1.465533E+0	1.716703E+0	1.377315E+0	1.564667E+0	1.716196E+0	1.266515E+0	1.361352E+0	1.680238E+0	1.633512E+0	1.624567E+0	1.511475E+0	1.404569E+0	1.720490E+0	1.239383E+0	1.469610E+0	1.486231E+0	1.631116E+0	1.639444E+0	1.330981E+0	1.599886E+0	1.523391E+0	1.290773E+0	1.401984E+0	1.638314E+0	1.594662E+0	1.662995E+0	1.471603E+0	1.535882E+0	1.527240E+0	1.371033E+0	1.493005E+0	1.601655E+0	1.467028E+0	1.738356E+0	1.611520E+0	1.312219E+0	1.734277E+0	1.303539E+0	1.666178E+0	1.308992E+0	1.773808E+0	1.463912E+0	1.887003E+0	1.167447E+0	2.034199E+0	1.131047E+0	1.608924E+0	1.425301E+0	1.651666E+0	1.586819E+0	1.405394E+0	1.477447E+0	1.556305E+0	1.257726E+0	1.442367E+0	1.512533E+0	1.583868E+0	1.533373E+0	1.593301E+0	1.725663E+0	1.452587E+0
2.852040E+2	2.074367E-2	1.301687E+0	1.183494E+0	1.362003E+0	1.103155E+0	1.137110E+0	1.264638E+0	1.454521E+0	1.192231E+0	1.331141E+0	1.141806E+0	1.437606E+0	9.953804E-1	1.569201E+0	1.131294E+0	1.393590E+0	1.266536E+0	1.511877E+0	1.099967E+0	1.412533E+0	1.021875E+0	1.398613E+0	1.109960E+0	1.558723E+0	1.301960E+0	1.471756E+0	1.038908E+0	1.464368E+0	9.416493E-1	1.655226E+0	1.027304E+0	1.457402E+0	1.237093E+0	1.322243E+0	1.271721E+0	1.416057E+0	9.917278E-1	1.317683E+0	1.330176E+0	1.467301E+0	1.291252E+0	1.443824E+0	1.372832E+0	1.319527E+0	1.188863E+0	1.421103E+0	1.205685E+0	1.201380E+0	1.426845E+0	1.280072E+0	1.283872E+0	1.320728E+0	1.128804E+0	1.192688E+0	1.342920E+0	1.323028E+0	1.474331E+0	1.459509E+0	1.160029E+0	1.268949E+0	1.025185E+0	1.635571E+0	1.012072E+0	1.303247E+0	1.429701E+0	1.523959E+0	1.031590E+0	1.471078E+0	1.094682E+0	1.390808E+0	1.220570E+0	1.627168E+0	1.259895E+0	1.274609E+0	1.067964E+0	1.374070E+0	1.225237E+0	1.373589E+0	1.188836E+0	1.264319E+0	1.271660E+0	1.369236E+0	1.314770E+0	1.239245E+0	1.123582E+0	1.248727E+0	1.354669E+0	1.237249E+0	1.463623E+0	1.239768E+0	1.242538E+0	1.387216E+0	1.047325E+0	1.342787E+0	1.237858E+0	1.339910E+0	1.434752E+0	1.364324E+0	1.389805E+0	1.387424E+0	1.053057E+0	1.382310E+0	1.232037E+0	1.390581E+0	1.455857E+0	1.259627E+0	1.133978E+0	1.451234E+0	1.243268E+0	1.345350E+0	1.294486E+0	1.214555E+0	1.505159E+0	1.214624E+0	1.353103E+0	1.415735E+0	1.145316E+0	1.198784E+0	1.378783E+0	1.464955E+0	1.332625E+0	1.256564E+0	1.257375E+0	1.494201E+0	1.134467E+0	1.200534E+0	1.263444E+0	1.330341E+0	1.378209E+0	1.156709E+0	1.389604E+0	1.406880E+0	1.165375E+0	1.253144E+0	1.424784E+0	1.352802E+0	1.449567E+0	1.231185E+0	1.411719E+0	1.338096E+0	1.226274E+0	1.275886E+0	1.314279E+0	1.267471E+0	1.549187E+0	1.347387E+0	1.183371E+0	1.433924E+0	1.118054E+0	1.452089E+0	1.147801E+0	1.462211E+0	1.334086E+0	1.467794E+0	1.021730E+0	1.705006E+0	9.647574E-1	1.374430E+0	1.198691E+0	1.483212E+0	1.369543E+0	1.282598E+0	1.344321E+0	1.345378E+0	1.121535E+0	1.323752E+0	1.207557E+0	1.355280E+0	1.329780E+0	1.274265E+0	1.376071E+0	1.160981E+0
2.853000E+2	2.356386E-2	9.588666E-1	9.410752E-1	1.023648E+0	8.724412E-1	9.116135E-1	9.202036E-1	1.022217E+0	8.180603E-1	9.446055E-1	9.439433E-1	1.044615E+0	7.586802E-1	1.003112E+0	9.639042E-1	1.023366E+0	9.670030E-1	9.708706E-1	9.013629E-1	1.123744E+0	8.052645E-1	1.022801E+0	8.440078E-1	1.086576E+0	8.748123E-1	9.682869E-1	8.575305E-1	1.137379E+0	7.573261E-1	1.179205E+0	7.352007E-1	1.012933E+0	9.465913E-1	9.967279E-1	1.079298E+0	1.085747E+0	7.789313E-1	9.681407E-1	9.412841E-1	1.108042E+0	9.068217E-1	1.068004E+0	9.067481E-1	9.564552E-1	8.574535E-1	1.097796E+0	8.339051E-1	8.619207E-1	1.106458E+0	1.064567E+0	9.748964E-1	9.132899E-1	8.887545E-1	8.469352E-1	9.920183E-1	9.995320E-1	1.057297E+0	1.069341E+0	8.624698E-1	9.915019E-1	8.265999E-1	1.205925E+0	8.064276E-1	9.453889E-1	1.070586E+0	1.132643E+0	7.697491E-1	1.076367E+0	8.249829E-1	1.001441E+0	8.876406E-1	1.173039E+0	9.313399E-1	1.013343E+0	7.849350E-1	1.081962E+0	9.547545E-1	9.390952E-1	8.752343E-1	9.423285E-1	9.782755E-1	1.017562E+0	9.968469E-1	9.513798E-1	7.970479E-1	8.824261E-1	1.085710E+0	9.138089E-1	1.101954E+0	9.918171E-1	9.087999E-1	9.544526E-1	8.629023E-1	9.956972E-1	9.518076E-1	9.723095E-1	1.048275E+0	1.011500E+0	9.673705E-1	1.004740E+0	8.056868E-1	9.352158E-1	9.840201E-1	1.045447E+0	1.094267E+0	9.382437E-1	8.365340E-1	1.086218E+0	8.705116E-1	9.924164E-1	9.706937E-1	8.938731E-1	1.055991E+0	9.093557E-1	1.000949E+0	1.014348E+0	8.194942E-1	8.874360E-1	1.038152E+0	1.099769E+0	1.032384E+0	9.826946E-1	8.310659E-1	1.109216E+0	8.109522E-1	8.925349E-1	9.287295E-1	1.053156E+0	1.039702E+0	8.617206E-1	1.026800E+0	1.012765E+0	7.691945E-1	1.002716E+0	1.015977E+0	9.098714E-1	1.023286E+0	8.793249E-1	1.017053E+0	1.025354E+0	9.152105E-1	8.849857E-1	9.329710E-1	9.894352E-1	1.097044E+0	9.614437E-1	8.813594E-1	1.127528E+0	8.149431E-1	1.085161E+0	8.512577E-1	1.096761E+0	9.455667E-1	1.032411E+0	7.896455E-1	1.295329E+0	7.472649E-1	9.832359E-1	9.009137E-1	1.068151E+0	1.060660E+0	1.024838E+0	9.742689E-1	1.020981E+0	8.131971E-1	9.965119E-1	9.805081E-1	9.716883E-1	9.906574E-1	1.039979E+0	9.684896E-1	9.213097E-1
2.854010E+2	1.616183E-2	5.824364E-1	5.751398E-1	7.277397E-1	5.872745E-1	6.060349E-1	6.048352E-1	6.832315E-1	5.643830E-1	5.967822E-1	6.312164E-1	6.369394E-1	4.903496E-1	5.680717E-1	6.938732E-1	6.450696E-1	6.351017E-1	5.662898E-1	6.179690E-1	7.771894E-1	5.221201E-1	6.292091E-1	5.844247E-1	7.772471E-1	6.077089E-1	5.822195E-1	6.076893E-1	7.576713E-1	4.596738E-1	6.694707E-1	6.143237E-1	7.207372E-1	5.922239E-1	6.002790E-1	7.183767E-1	6.900092E-1	4.735680E-1	6.199096E-1	6.622374E-1	6.945282E-1	6.020564E-1	6.505096E-1	6.482234E-1	6.554250E-1	5.723991E-1	6.460669E-1	6.466703E-1	6.308238E-1	7.022506E-1	5.873281E-1	7.224331E-1	5.977175E-1	5.778215E-1	5.611391E-1	7.034897E-1	6.638854E-1	7.171350E-1	7.253946E-1	5.748452E-1	6.211813E-1	5.193999E-1	8.751996E-1	5.323029E-1	6.486007E-1	6.787953E-1	7.019794E-1	5.236392E-1	7.573410E-1	5.748989E-1	6.704133E-1	5.510380E-1	7.294193E-1	6.424303E-1	7.040614E-1	5.658743E-1	6.722495E-1	6.503293E-1	6.684175E-1	5.655765E-1	7.036459E-1	6.115129E-1	6.425311E-1	6.073410E-1	6.082588E-1	5.711808E-1	6.185008E-1	7.138088E-1	6.273041E-1	6.878969E-1	6.067032E-1	6.107884E-1	7.179761E-1	5.856093E-1	6.893821E-1	6.194985E-1	6.178593E-1	7.089660E-1	6.984691E-1	6.393172E-1	6.949724E-1	5.193454E-1	6.019361E-1	6.366647E-1	6.762783E-1	7.594701E-1	5.605335E-1	5.321028E-1	6.835178E-1	5.916881E-1	6.575231E-1	6.036406E-1	6.161245E-1	7.766493E-1	6.055099E-1	6.141694E-1	6.964735E-1	5.384592E-1	5.677200E-1	7.065768E-1	7.366177E-1	6.698702E-1	5.944528E-1	6.254680E-1	7.117591E-1	5.498726E-1	6.255800E-1	6.550972E-1	6.672999E-1	7.473759E-1	5.752457E-1	6.249370E-1	6.583530E-1	5.429131E-1	6.361670E-1	6.661345E-1	6.417399E-1	7.066354E-1	6.244933E-1	6.255257E-1	6.716562E-1	5.624457E-1	6.422751E-1	6.625140E-1	6.499338E-1	7.827835E-1	6.725705E-1	5.378336E-1	7.015459E-1	5.481783E-1	6.669922E-1	5.425417E-1	7.663306E-1	5.977247E-1	6.723343E-1	5.274613E-1	7.815776E-1	5.073576E-1	6.834762E-1	5.533952E-1	7.209323E-1	6.776786E-1	6.094798E-1	6.028814E-1	6.494360E-1	5.865305E-1	6.793198E-1	6.282505E-1	6.757900E-1	7.060459E-1	7.079629E-1	6.398575E-1	6.739675E-1
2.855020E+2	1.025179E-2	5.263491E-1	4.992078E-1	4.706017E-1	4.813586E-1	4.742155E-1	4.865960E-1	5.850883E-1	4.635895E-1	4.566923E-1	5.071584E-1	4.909959E-1	4.527878E-1	5.117170E-1	5.262564E-1	5.264083E-1	5.600931E-1	5.186600E-1	4.930721E-1	6.064012E-1	4.139931E-1	4.863929E-1	4.699394E-1	6.235862E-1	5.002728E-1	5.144941E-1	5.169125E-1	5.871446E-1	3.792317E-1	5.337524E-1	4.940138E-1	5.924411E-1	5.414015E-1	5.215566E-1	5.867550E-1	5.477922E-1	3.475299E-1	5.503785E-1	5.258659E-1	5.914180E-1	4.531580E-1	5.032636E-1	5.395736E-1	4.957713E-1	4.807977E-1	5.294727E-1	5.685111E-1	5.013606E-1	5.863751E-1	4.240987E-1	6.075481E-1	5.329413E-1	4.947964E-1	4.445384E-1	5.274023E-1	4.921558E-1	5.400874E-1	5.381766E-1	5.016117E-1	4.836042E-1	4.504980E-1	5.955351E-1	4.597139E-1	4.763181E-1	5.765364E-1	5.691832E-1	4.283860E-1	6.388967E-1	4.403938E-1	5.393295E-1	4.801118E-1	6.381688E-1	5.166556E-1	5.002171E-1	4.892068E-1	5.452026E-1	5.069852E-1	4.367335E-1	5.586018E-1	5.729285E-1	5.205700E-1	4.834988E-1	5.935805E-1	4.798361E-1	4.813814E-1	5.127134E-1	5.702218E-1	5.086160E-1	5.660089E-1	4.926011E-1	5.060661E-1	5.600560E-1	4.702977E-1	5.708065E-1	5.010635E-1	4.964953E-1	5.588537E-1	5.726932E-1	5.395545E-1	5.759033E-1	4.541233E-1	5.410590E-1	5.569480E-1	5.749008E-1	5.942641E-1	5.637432E-1	4.857884E-1	5.673360E-1	4.675239E-1	5.299628E-1	5.328690E-1	5.096638E-1	5.959118E-1	4.882785E-1	5.431423E-1	5.775540E-1	4.765290E-1	4.387758E-1	5.221550E-1	5.644877E-1	5.597394E-1	5.203761E-1	4.500317E-1	5.479983E-1	4.305910E-1	5.490000E-1	5.231213E-1	5.540096E-1	6.314698E-1	4.863757E-1	5.487352E-1	5.475133E-1	4.573788E-1	4.775619E-1	5.278615E-1	5.256367E-1	5.958233E-1	5.194864E-1	6.083454E-1	4.941260E-1	4.734374E-1	5.390637E-1	5.493685E-1	4.716773E-1	6.411954E-1	5.748398E-1	4.825990E-1	6.289722E-1	3.938472E-1	5.256954E-1	4.672004E-1	6.380691E-1	4.940791E-1	5.942984E-1	4.400831E-1	6.146181E-1	4.030329E-1	5.681802E-1	4.505645E-1	5.803273E-1	5.606899E-1	5.302358E-1	5.933796E-1	5.446658E-1	4.742466E-1	5.662984E-1	5.156477E-1	5.209441E-1	5.927438E-1	4.696532E-1	5.145365E-1	4.440646E-1
2.856030E+2	1.174811E-2	3.979248E-1	3.719262E-1	4.367673E-1	3.514469E-1	3.775765E-1	4.231918E-1	4.185076E-1	3.910619E-1	3.801803E-1	4.392549E-1	4.028892E-1	3.620944E-1	4.249689E-1	4.844064E-1	4.433820E-1	3.536387E-1	3.629576E-1	4.344945E-1	4.555080E-1	3.537014E-1	4.111716E-1	3.972996E-1	4.570268E-1	4.351620E-1	4.083266E-1	4.523316E-1	5.142673E-1	3.082805E-1	4.482186E-1	4.054900E-1	4.367760E-1	4.327280E-1	4.107267E-1	4.484437E-1	4.213607E-1	2.840127E-1	3.948268E-1	4.313033E-1	4.694378E-1	3.627259E-1	4.256773E-1	4.563328E-1	4.382656E-1	3.672679E-1	3.814146E-1	4.932380E-1	4.043583E-1	4.658094E-1	3.362338E-1	5.247959E-1	4.461040E-1	3.822424E-1	3.163185E-1	4.678176E-1	3.923326E-1	4.493931E-1	4.878893E-1	4.220118E-1	4.110071E-1	3.334406E-1	4.369262E-1	3.606644E-1	4.266874E-1	4.345848E-1	4.121713E-1	3.547562E-1	5.011765E-1	3.720639E-1	4.479767E-1	3.903174E-1	4.799222E-1	4.050809E-1	4.251271E-1	3.808921E-1	3.923170E-1	4.405483E-1	2.991644E-1	4.246648E-1	4.160371E-1	4.118710E-1	3.704237E-1	5.509002E-1	3.729242E-1	3.557573E-1	3.451325E-1	4.392897E-1	3.939592E-1	5.065437E-1	3.510945E-1	4.212270E-1	4.528632E-1	3.643960E-1	3.962490E-1	4.880662E-1	4.003586E-1	4.025166E-1	3.864623E-1	3.955868E-1	3.864590E-1	3.492802E-1	3.636641E-1	4.247946E-1	4.802846E-1	5.002361E-1	3.670466E-1	4.114385E-1	4.627776E-1	3.427881E-1	3.650769E-1	4.594984E-1	3.929539E-1	4.828329E-1	3.902711E-1	4.665292E-1	4.518655E-1	3.383386E-1	3.581212E-1	4.703958E-1	4.587496E-1	4.275233E-1	4.334776E-1	3.763645E-1	4.637431E-1	3.731127E-1	4.103374E-1	3.829669E-1	4.369944E-1	4.913996E-1	4.343646E-1	4.337475E-1	4.966147E-1	3.314995E-1	3.834184E-1	4.761077E-1	3.996269E-1	5.108334E-1	4.417329E-1	4.703598E-1	4.164999E-1	3.799855E-1	3.932941E-1	4.396345E-1	4.416073E-1	4.759426E-1	4.696081E-1	3.998071E-1	4.872947E-1	3.494664E-1	4.436144E-1	3.385089E-1	5.375589E-1	4.438667E-1	4.280799E-1	3.542514E-1	5.679331E-1	3.266762E-1	4.257680E-1	3.736186E-1	4.295610E-1	3.988194E-1	4.440870E-1	4.180260E-1	4.671417E-1	4.010406E-1	3.999754E-1	3.840856E-1	4.224745E-1	4.343549E-1	4.329293E-1	4.589004E-1	3.228156E-1
2.858030E+2	8.702168E-3	3.703636E-1	3.461143E-1	3.863204E-1	3.315811E-1	3.373201E-1	3.970374E-1	3.694723E-1	3.658401E-1	3.505113E-1	3.722594E-1	3.805459E-1	2.941212E-1	3.818696E-1	4.273169E-1	3.749289E-1	3.306733E-1	3.595766E-1	3.475017E-1	4.392020E-1	3.194450E-1	3.617691E-1	3.271990E-1	4.325463E-1	3.674373E-1	3.366973E-1	3.433912E-1	4.083299E-1	2.451342E-1	3.667925E-1	3.434186E-1	4.149141E-1	3.668478E-1	3.506899E-1	4.098207E-1	3.654180E-1	3.061978E-1	3.237720E-1	3.900747E-1	4.301989E-1	3.166571E-1	3.281386E-1	4.158642E-1	3.407490E-1	3.149392E-1	3.350682E-1	4.205064E-1	4.115752E-1	4.238588E-1	2.618576E-1	4.464202E-1	3.803333E-1	3.174564E-1	3.080758E-1	3.643407E-1	3.851628E-1	4.082153E-1	3.594334E-1	3.488007E-1	3.691020E-1	3.182995E-1	4.119608E-1	3.731442E-1	3.607230E-1	3.969007E-1	4.004613E-1	2.557380E-1	4.297781E-1	2.994739E-1	3.669573E-1	3.214361E-1	4.301640E-1	3.520773E-1	3.297636E-1	3.289578E-1	3.691359E-1	3.550284E-1	3.035857E-1	3.965836E-1	3.714167E-1	3.583154E-1	3.203006E-1	4.666410E-1	3.713241E-1	3.293883E-1	3.601707E-1	3.811628E-1	3.699292E-1	4.394219E-1	3.225362E-1	4.027490E-1	3.936788E-1	2.931587E-1	3.414584E-1	4.116604E-1	3.443735E-1	4.264059E-1	3.688342E-1	3.964806E-1	4.000599E-1	3.124000E-1	3.919085E-1	3.547858E-1	3.679632E-1	4.116884E-1	3.466848E-1	3.835358E-1	4.403545E-1	3.430304E-1	3.376828E-1	4.166521E-1	3.532189E-1	4.572497E-1	2.711455E-1	4.429684E-1	3.430933E-1	3.056417E-1	3.031334E-1	4.049455E-1	3.975272E-1	3.807450E-1	3.234959E-1	3.863025E-1	4.145450E-1	2.938730E-1	3.468345E-1	3.975935E-1	4.107271E-1	4.121158E-1	3.006467E-1	4.028911E-1	3.976519E-1	3.085589E-1	3.484057E-1	3.949103E-1	3.381154E-1	4.359937E-1	3.226953E-1	3.715442E-1	3.655327E-1	3.119601E-1	3.237108E-1	3.743108E-1	3.717682E-1	4.156761E-1	3.626114E-1	3.048160E-1	4.159152E-1	3.557444E-1	3.752491E-1	3.237752E-1	4.143024E-1	3.696150E-1	4.454811E-1	3.011463E-1	4.878132E-1	2.708759E-1	3.662436E-1	3.221911E-1	4.206485E-1	4.001928E-1	3.770305E-1	3.396714E-1	3.713012E-1	3.099399E-1	3.848928E-1	3.818937E-1	3.965856E-1	3.541037E-1	3.661202E-1	3.950294E-1	3.915160E-1
2.860050E+2	8.523117E-3	6.265269E-1	5.237448E-1	6.226531E-1	5.178404E-1	5.436644E-1	5.395858E-1	6.377046E-1	4.752766E-1	5.324178E-1	5.599090E-1	6.118433E-1	4.740563E-1	4.975836E-1	6.132152E-1	6.127309E-1	5.928914E-1	5.904880E-1	5.791599E-1	6.275024E-1	4.351618E-1	5.546351E-1	5.272795E-1	7.075291E-1	5.317933E-1	5.347969E-1	6.120832E-1	6.703832E-1	4.259186E-1	6.013009E-1	4.967086E-1	5.568010E-1	5.617769E-1	5.465583E-1	6.699124E-1	6.287524E-1	4.823146E-1	5.758206E-1	5.833257E-1	5.947912E-1	5.539487E-1	6.117102E-1	6.340276E-1	5.656517E-1	5.100085E-1	5.293630E-1	6.163028E-1	5.821140E-1	6.431315E-1	4.826626E-1	7.167114E-1	5.848582E-1	5.519847E-1	5.198466E-1	6.706840E-1	5.484085E-1	6.365809E-1	5.648200E-1	5.498887E-1	5.294068E-1	4.746282E-1	5.941585E-1	5.521329E-1	5.276500E-1	6.815974E-1	6.152998E-1	4.818606E-1	6.529070E-1	4.746144E-1	5.845393E-1	5.495735E-1	6.739467E-1	5.518573E-1	5.144175E-1	5.532523E-1	6.112631E-1	5.645096E-1	4.716734E-1	6.385563E-1	5.954646E-1	5.741681E-1	4.957662E-1	7.385130E-1	5.286826E-1	5.205274E-1	5.041261E-1	5.938251E-1	5.441410E-1	6.089984E-1	5.452260E-1	5.299624E-1	5.983639E-1	4.697563E-1	5.387685E-1	6.128658E-1	5.429962E-1	6.428097E-1	5.143084E-1	6.115308E-1	6.100882E-1	4.618972E-1	5.462732E-1	5.715907E-1	5.938086E-1	6.800206E-1	4.841666E-1	6.205637E-1	6.258662E-1	5.428259E-1	5.010874E-1	6.805352E-1	5.666519E-1	6.589336E-1	4.373353E-1	6.931070E-1	6.269328E-1	4.958155E-1	5.352604E-1	6.378264E-1	6.394317E-1	6.572772E-1	5.065411E-1	5.458387E-1	6.212028E-1	4.615157E-1	5.351739E-1	6.459535E-1	6.028226E-1	6.066023E-1	4.752705E-1	6.845905E-1	6.297590E-1	4.855062E-1	5.821858E-1	6.442095E-1	5.365236E-1	6.666242E-1	5.044432E-1	6.721041E-1	5.230168E-1	5.417114E-1	4.148403E-1	6.693539E-1	5.944066E-1	6.888450E-1	5.046464E-1	5.905688E-1	6.564515E-1	4.985668E-1	5.626636E-1	5.244409E-1	6.766503E-1	5.981448E-1	6.008552E-1	4.795854E-1	7.450943E-1	4.439246E-1	5.799181E-1	5.811147E-1	6.227518E-1	5.776980E-1	5.015900E-1	5.865018E-1	5.671368E-1	4.861191E-1	5.884788E-1	6.079667E-1	6.228117E-1	6.301021E-1	5.693517E-1	6.666330E-1	5.384746E-1
2.862030E+2	4.237480E-2	1.039176E+0	9.222640E-1	1.074820E+0	9.049702E-1	1.004176E+0	9.830897E-1	1.222485E+0	9.770411E-1	9.394829E-1	1.014103E+0	1.025316E+0	8.111594E-1	1.008292E+0	1.065172E+0	1.144440E+0	1.042685E+0	1.034764E+0	9.994145E-1	1.228194E+0	8.374561E-1	1.076293E+0	9.878868E-1	1.240141E+0	1.062931E+0	1.005454E+0	9.856595E-1	1.281627E+0	8.399177E-1	1.095966E+0	9.617793E-1	1.165183E+0	1.006257E+0	9.984399E-1	1.199920E+0	1.137262E+0	7.905842E-1	9.870709E-1	1.040964E+0	1.079762E+0	9.735514E-1	9.642377E-1	1.133390E+0	1.074781E+0	8.913108E-1	9.278162E-1	1.090052E+0	1.010481E+0	1.112507E+0	8.248250E-1	1.226142E+0	1.038529E+0	9.051213E-1	9.193715E-1	1.073941E+0	1.013456E+0	1.094241E+0	1.082010E+0	9.550302E-1	1.080848E+0	8.835376E-1	1.141436E+0	9.703994E-1	1.072606E+0	1.101596E+0	1.057317E+0	8.707946E-1	1.230529E+0	9.098819E-1	1.086377E+0	9.610713E-1	1.256710E+0	1.037112E+0	9.899858E-1	1.012994E+0	1.159724E+0	9.768072E-1	8.197932E-1	1.191134E+0	1.035984E+0	1.012240E+0	9.254192E-1	1.245345E+0	1.044943E+0	9.101704E-1	9.294427E-1	1.222860E+0	1.000657E+0	1.168176E+0	9.544157E-1	1.123846E+0	1.070919E+0	9.225432E-1	9.176752E-1	1.121842E+0	1.047737E+0	1.187651E+0	9.907997E-1	1.063667E+0	1.128605E+0	8.611258E-1	1.023666E+0	1.076327E+0	1.071971E+0	1.239883E+0	8.940756E-1	1.065883E+0	1.117285E+0	9.128272E-1	8.848507E-1	1.258939E+0	1.001505E+0	1.297561E+0	8.082178E-1	1.221934E+0	1.142402E+0	9.181114E-1	8.869514E-1	1.108765E+0	1.099949E+0	1.124586E+0	8.491278E-1	1.158067E+0	1.170435E+0	8.952611E-1	8.525964E-1	1.318443E+0	1.115563E+0	1.143997E+0	8.744300E-1	1.295291E+0	1.072330E+0	8.133112E-1	9.122423E-1	1.075679E+0	1.005949E+0	1.126387E+0	8.723026E-1	1.281611E+0	1.056084E+0	9.125556E-1	7.991304E-1	1.299327E+0	1.022720E+0	1.241140E+0	8.989840E-1	1.064522E+0	1.175837E+0	9.379948E-1	1.022620E+0	9.869000E-1	1.282573E+0	1.109945E+0	1.144350E+0	9.300479E-1	1.348732E+0	8.281439E-1	9.308658E-1	1.045286E+0	1.104995E+0	1.161870E+0	9.569411E-1	1.138380E+0	1.071216E+0	9.651849E-1	9.553016E-1	1.107439E+0	1.046207E+0	1.058750E+0	9.172035E-1	1.159665E+0	8.679873E-1
2.864030E+2	2.513862E-2	1.226964E+0	1.168996E+0	1.166941E+0	1.260274E+0	1.161656E+0	1.276326E+0	1.349551E+0	1.217756E+0	1.325855E+0	1.264694E+0	1.308200E+0	1.035485E+0	1.254171E+0	1.354873E+0	1.359986E+0	1.324548E+0	1.336202E+0	1.255544E+0	1.441519E+0	9.957413E-1	1.348678E+0	1.164291E+0	1.452426E+0	1.281552E+0	1.167751E+0	1.233125E+0	1.437759E+0	9.620137E-1	1.358055E+0	1.142053E+0	1.419144E+0	1.385016E+0	1.261085E+0	1.519212E+0	1.300764E+0	9.005167E-1	1.249040E+0	1.326286E+0	1.447775E+0	1.301748E+0	1.294205E+0	1.374593E+0	1.350842E+0	1.124335E+0	1.155916E+0	1.457784E+0	1.226910E+0	1.471614E+0	1.073663E+0	1.516679E+0	1.243960E+0	1.212632E+0	1.112333E+0	1.415548E+0	1.237604E+0	1.374677E+0	1.248671E+0	1.254089E+0	1.323176E+0	1.173153E+0	1.382433E+0	1.175681E+0	1.296628E+0	1.401323E+0	1.387531E+0	1.111577E+0	1.453474E+0	1.072278E+0	1.262249E+0	1.231427E+0	1.548086E+0	1.318143E+0	1.225703E+0	1.265406E+0	1.433623E+0	1.236950E+0	1.021949E+0	1.373880E+0	1.329527E+0	1.281903E+0	1.114671E+0	1.641341E+0	1.290578E+0	1.079815E+0	1.155381E+0	1.477020E+0	1.248480E+0	1.484231E+0	1.205223E+0	1.291993E+0	1.289530E+0	1.171785E+0	1.150915E+0	1.328651E+0	1.340777E+0	1.354458E+0	1.225889E+0	1.353761E+0	1.285914E+0	1.075390E+0	1.317111E+0	1.333938E+0	1.467898E+0	1.520713E+0	1.055367E+0	1.421232E+0	1.396841E+0	1.171329E+0	1.030624E+0	1.582021E+0	1.193826E+0	1.518034E+0	1.064698E+0	1.574993E+0	1.356223E+0	1.101972E+0	1.144592E+0	1.496682E+0	1.408274E+0	1.392326E+0	1.162986E+0	1.426894E+0	1.503152E+0	1.037470E+0	1.056493E+0	1.491999E+0	1.361818E+0	1.438617E+0	1.072821E+0	1.533674E+0	1.338694E+0	1.102122E+0	1.128012E+0	1.461754E+0	1.326501E+0	1.377314E+0	1.121578E+0	1.493471E+0	1.314566E+0	1.213489E+0	1.003924E+0	1.573023E+0	1.254492E+0	1.576160E+0	1.145334E+0	1.324298E+0	1.467717E+0	1.126580E+0	1.312308E+0	1.268808E+0	1.418501E+0	1.216425E+0	1.277618E+0	1.111895E+0	1.730611E+0	1.018873E+0	1.146042E+0	1.341251E+0	1.506220E+0	1.397864E+0	1.166362E+0	1.315949E+0	1.331266E+0	1.117611E+0	1.292743E+0	1.283647E+0	1.287232E+0	1.352060E+0	1.143342E+0	1.419690E+0	1.321657E+0
2.866150E+2	3.592587E-2	1.211280E+0	1.127791E+0	1.163535E+0	1.231612E+0	1.176011E+0	1.175896E+0	1.284007E+0	1.186035E+0	1.184040E+0	1.220280E+0	1.296026E+0	9.987373E-1	1.186501E+0	1.406446E+0	1.308538E+0	1.302208E+0	1.171015E+0	1.277487E+0	1.474989E+0	9.664375E-1	1.242332E+0	1.115698E+0	1.434149E+0	1.200860E+0	1.142302E+0	1.219867E+0	1.380982E+0	9.868925E-1	1.315946E+0	1.129580E+0	1.332206E+0	1.285434E+0	1.180380E+0	1.438342E+0	1.289991E+0	9.205180E-1	1.155618E+0	1.256967E+0	1.365218E+0	1.168157E+0	1.259808E+0	1.320144E+0	1.200486E+0	1.054001E+0	1.091217E+0	1.418710E+0	1.156789E+0	1.376214E+0	1.067178E+0	1.495619E+0	1.295227E+0	1.142936E+0	1.080059E+0	1.372857E+0	1.211945E+0	1.325281E+0	1.277132E+0	1.177625E+0	1.156943E+0	1.075792E+0	1.299078E+0	1.133842E+0	1.084795E+0	1.387112E+0	1.248942E+0	1.078354E+0	1.367220E+0	1.070506E+0	1.175843E+0	1.099127E+0	1.499587E+0	1.257620E+0	1.135928E+0	1.204124E+0	1.323784E+0	1.212457E+0	1.098929E+0	1.321462E+0	1.292002E+0	1.263271E+0	1.149544E+0	1.444986E+0	1.226497E+0	1.032813E+0	1.090451E+0	1.317666E+0	1.270572E+0	1.376734E+0	1.154490E+0	1.267911E+0	1.318624E+0	1.079960E+0	1.132510E+0	1.369460E+0	1.302190E+0	1.357675E+0	1.253342E+0	1.281293E+0	1.342336E+0	1.008767E+0	1.262611E+0	1.249699E+0	1.307829E+0	1.412897E+0	1.076368E+0	1.223954E+0	1.291244E+0	1.254646E+0	1.030506E+0	1.478960E+0	1.178713E+0	1.438545E+0	9.651498E-1	1.496681E+0	1.357382E+0	1.038473E+0	1.065941E+0	1.427212E+0	1.267613E+0	1.332856E+0	1.087840E+0	1.345675E+0	1.410356E+0	1.038835E+0	9.971567E-1	1.413468E+0	1.312413E+0	1.404846E+0	9.814374E-1	1.475237E+0	1.252306E+0	9.853086E-1	1.129129E+0	1.341872E+0	1.272683E+0	1.348856E+0	1.088056E+0	1.441656E+0	1.291085E+0	1.144089E+0	1.004682E+0	1.479238E+0	1.200524E+0	1.375601E+0	1.111857E+0	1.232838E+0	1.405979E+0	1.066549E+0	1.161460E+0	1.187822E+0	1.531468E+0	1.362812E+0	1.337346E+0	1.078039E+0	1.605026E+0	9.372671E-1	1.117411E+0	1.284617E+0	1.323094E+0	1.289069E+0	1.080950E+0	1.301612E+0	1.299055E+0	1.084043E+0	1.247345E+0	1.327114E+0	1.270785E+0	1.270035E+0	1.134602E+0	1.470593E+0	1.259366E+0
2.868030E+2	5.659647E-2	1.475295E+0	1.342171E+0	1.298243E+0	1.463629E+0	1.393857E+0	1.390110E+0	1.618584E+0	1.348667E+0	1.317045E+0	1.455345E+0	1.475597E+0	1.196085E+0	1.365359E+0	1.582573E+0	1.554659E+0	1.494198E+0	1.403678E+0	1.398066E+0	1.625699E+0	1.175307E+0	1.467116E+0	1.356211E+0	1.691147E+0	1.532014E+0	1.290008E+0	1.385659E+0	1.651155E+0	1.131583E+0	1.568525E+0	1.292058E+0	1.564131E+0	1.436811E+0	1.419941E+0	1.570107E+0	1.545861E+0	1.062988E+0	1.443728E+0	1.467290E+0	1.577549E+0	1.443364E+0	1.500932E+0	1.581572E+0	1.483836E+0	1.327840E+0	1.255218E+0	1.557585E+0	1.328523E+0	1.604669E+0	1.248847E+0	1.707027E+0	1.495743E+0	1.293403E+0	1.328053E+0	1.580844E+0	1.359895E+0	1.587114E+0	1.614204E+0	1.409212E+0	1.495268E+0	1.247555E+0	1.554558E+0	1.314437E+0	1.538642E+0	1.518931E+0	1.561630E+0	1.285421E+0	1.671403E+0	1.274177E+0	1.474980E+0	1.353784E+0	1.744517E+0	1.536444E+0	1.311227E+0	1.388755E+0	1.500355E+0	1.423726E+0	1.145802E+0	1.550728E+0	1.476356E+0	1.459944E+0	1.301479E+0	1.826829E+0	1.382359E+0	1.291708E+0	1.260967E+0	1.649641E+0	1.410398E+0	1.527287E+0	1.297111E+0	1.465023E+0	1.561652E+0	1.242770E+0	1.253931E+0	1.591438E+0	1.542153E+0	1.575706E+0	1.384192E+0	1.491739E+0	1.527882E+0	1.108472E+0	1.433983E+0	1.354727E+0	1.498576E+0	1.639030E+0	1.198326E+0	1.568908E+0	1.461743E+0	1.344893E+0	1.197045E+0	1.665806E+0	1.321640E+0	1.637183E+0	1.211153E+0	1.750718E+0	1.617610E+0	1.210170E+0	1.377397E+0	1.562827E+0	1.519833E+0	1.579522E+0	1.295633E+0	1.513472E+0	1.671706E+0	1.261813E+0	1.238638E+0	1.738833E+0	1.536167E+0	1.538837E+0	1.143233E+0	1.750500E+0	1.570699E+0	1.245661E+0	1.288148E+0	1.633826E+0	1.452491E+0	1.605093E+0	1.244507E+0	1.677509E+0	1.441869E+0	1.320748E+0	1.203780E+0	1.778449E+0	1.412972E+0	1.658778E+0	1.292342E+0	1.382891E+0	1.697626E+0	1.257492E+0	1.528596E+0	1.382002E+0	1.779621E+0	1.387891E+0	1.508761E+0	1.301985E+0	1.808598E+0	1.153220E+0	1.311308E+0	1.434740E+0	1.575297E+0	1.584232E+0	1.329178E+0	1.464827E+0	1.476136E+0	1.156947E+0	1.419815E+0	1.515650E+0	1.435568E+0	1.550167E+0	1.310857E+0	1.748044E+0	1.372686E+0
2.870150E+2	3.141132E-2	1.433267E+0	1.278866E+0	1.154749E+0	1.314463E+0	1.252137E+0	1.278681E+0	1.457581E+0	1.262410E+0	1.189907E+0	1.221244E+0	1.472056E+0	1.115694E+0	1.265511E+0	1.288993E+0	1.557319E+0	1.285475E+0	1.280887E+0	1.333563E+0	1.578584E+0	1.049384E+0	1.313631E+0	1.196563E+0	1.528804E+0	1.340278E+0	1.205829E+0	1.252791E+0	1.584492E+0	1.037351E+0	1.374440E+0	1.198003E+0	1.442200E+0	1.351792E+0	1.245101E+0	1.484349E+0	1.394776E+0	9.968403E-1	1.269763E+0	1.338372E+0	1.408082E+0	1.334244E+0	1.331083E+0	1.366686E+0	1.342864E+0	1.174948E+0	1.160855E+0	1.480781E+0	1.293671E+0	1.474870E+0	1.099479E+0	1.614092E+0	1.278852E+0	1.232824E+0	1.134248E+0	1.343274E+0	1.247076E+0	1.482387E+0	1.320854E+0	1.293544E+0	1.292550E+0	1.135365E+0	1.475337E+0	1.242618E+0	1.334376E+0	1.424313E+0	1.474131E+0	1.174569E+0	1.598041E+0	1.147188E+0	1.221461E+0	1.191790E+0	1.552900E+0	1.298340E+0	1.170343E+0	1.278058E+0	1.419490E+0	1.234343E+0	1.078153E+0	1.447565E+0	1.341871E+0	1.256519E+0	1.131846E+0	1.633392E+0	1.315744E+0	1.073688E+0	1.155393E+0	1.430513E+0	1.194078E+0	1.520460E+0	1.174316E+0	1.348245E+0	1.362586E+0	1.112681E+0	1.204434E+0	1.352070E+0	1.350317E+0	1.441832E+0	1.285688E+0	1.379939E+0	1.448049E+0	1.114846E+0	1.343939E+0	1.397914E+0	1.385246E+0	1.603035E+0	1.080422E+0	1.400891E+0	1.417118E+0	1.261152E+0	1.082856E+0	1.649673E+0	1.233307E+0	1.582571E+0	1.085048E+0	1.483655E+0	1.349163E+0	1.098145E+0	1.169189E+0	1.434064E+0	1.465280E+0	1.352342E+0	1.082103E+0	1.381862E+0	1.452365E+0	1.065439E+0	1.045237E+0	1.540070E+0	1.356198E+0	1.414280E+0	1.064628E+0	1.594071E+0	1.372374E+0	1.127967E+0	1.225358E+0	1.522864E+0	1.314844E+0	1.391238E+0	1.126541E+0	1.548625E+0	1.337088E+0	1.201450E+0	1.074122E+0	1.607816E+0	1.295686E+0	1.496602E+0	1.166059E+0	1.323318E+0	1.444206E+0	1.082712E+0	1.317378E+0	1.248005E+0	1.562297E+0	1.302813E+0	1.357072E+0	1.157576E+0	1.730050E+0	1.072397E+0	1.186944E+0	1.361373E+0	1.472219E+0	1.376563E+0	1.233303E+0	1.365158E+0	1.345388E+0	1.111796E+0	1.339621E+0	1.280749E+0	1.312353E+0	1.409912E+0	1.079622E+0	1.747150E+0	1.190386E+0
2.872110E+2	1.969808E-2	1.251604E+0	1.068457E+0	9.903594E-1	1.033861E+0	1.037059E+0	1.130776E+0	1.181879E+0	1.055577E+0	1.024631E+0	9.786817E-1	1.357640E+0	8.596478E-1	1.109099E+0	9.497835E-1	1.393061E+0	1.130868E+0	1.059047E+0	1.008568E+0	1.296602E+0	8.670077E-1	1.127780E+0	9.944140E-1	1.314953E+0	1.090836E+0	1.089926E+0	1.030703E+0	1.392229E+0	8.581519E-1	1.182019E+0	9.439691E-1	1.338762E+0	1.189626E+0	1.014604E+0	1.011943E+0	1.325946E+0	8.397641E-1	1.089992E+0	1.135051E+0	1.354574E+0	1.028508E+0	1.086408E+0	1.229024E+0	1.143396E+0	9.849317E-1	9.716098E-1	1.198557E+0	1.084765E+0	1.262221E+0	9.108908E-1	1.281355E+0	1.203830E+0	1.050735E+0	9.473215E-1	1.201086E+0	1.106945E+0	1.163344E+0	1.078390E+0	1.058480E+0	1.136795E+0	9.027561E-1	1.213618E+0	1.080282E+0	1.063363E+0	1.174931E+0	1.213311E+0	9.839578E-1	1.249451E+0	9.447350E-1	1.191406E+0	9.980652E-1	1.292140E+0	1.088023E+0	1.018264E+0	1.046551E+0	1.153537E+0	1.042938E+0	9.201354E-1	1.225236E+0	1.144160E+0	1.084274E+0	1.009223E+0	1.351879E+0	1.059171E+0	9.416292E-1	9.777807E-1	1.240503E+0	1.034797E+0	1.140878E+0	1.051190E+0	1.132895E+0	1.165308E+0	9.529930E-1	1.014659E+0	1.223948E+0	1.173269E+0	1.143724E+0	1.067520E+0	1.158766E+0	1.174071E+0	9.248733E-1	1.067122E+0	1.102303E+0	1.128080E+0	1.364400E+0	9.299206E-1	1.150089E+0	1.157845E+0	1.049696E+0	9.370404E-1	1.317959E+0	1.085524E+0	1.381742E+0	8.949440E-1	1.306764E+0	1.220265E+0	9.298420E-1	1.043516E+0	1.210945E+0	1.121604E+0	1.193944E+0	9.755508E-1	1.171809E+0	1.267041E+0	9.214854E-1	9.053370E-1	1.311748E+0	1.184959E+0	1.158917E+0	8.560415E-1	1.297030E+0	1.206028E+0	9.741705E-1	1.079713E+0	1.210507E+0	1.139471E+0	1.247015E+0	1.022008E+0	1.312463E+0	1.149072E+0	9.532400E-1	9.011831E-1	1.439433E+0	1.091131E+0	1.307021E+0	9.802840E-1	1.117022E+0	1.345685E+0	9.011694E-1	1.075723E+0	1.021586E+0	1.296949E+0	1.186570E+0	1.156326E+0	8.870092E-1	1.509637E+0	7.960288E-1	1.053679E+0	1.081461E+0	1.312255E+0	1.151623E+0	9.886355E-1	1.166196E+0	1.237298E+0	9.599392E-1	1.148899E+0	1.098320E+0	1.165365E+0	1.115750E+0	1.021447E+0	1.347670E+0	9.871646E-1
2.874020E+2	2.680065E-2	9.365152E-1	7.941354E-1	7.356909E-1	8.326771E-1	8.146385E-1	8.168914E-1	9.406408E-1	8.564582E-1	8.104233E-1	7.613265E-1	1.007560E+0	6.660106E-1	8.063498E-1	7.773235E-1	1.097981E+0	8.671729E-1	8.865938E-1	7.910281E-1	1.001153E+0	6.958654E-1	8.390057E-1	8.005017E-1	1.013223E+0	8.392818E-1	7.382483E-1	7.111798E-1	1.114574E+0	6.626698E-1	9.478180E-1	6.948683E-1	1.143160E+0	8.761903E-1	7.982157E-1	8.573053E-1	1.030313E+0	6.764924E-1	8.138062E-1	7.989402E-1	9.381082E-1	8.484439E-1	8.668414E-1	7.833428E-1	1.006799E+0	7.398362E-1	8.317642E-1	7.719760E-1	9.586250E-1	9.586431E-1	7.392885E-1	8.279202E-1	9.427710E-1	7.757286E-1	7.792301E-1	8.682777E-1	8.646084E-1	9.372453E-1	9.371634E-1	7.161491E-1	9.737277E-1	7.583968E-1	9.631303E-1	6.359080E-1	9.783715E-1	9.230093E-1	8.837667E-1	6.724535E-1	1.063026E+0	7.195504E-1	8.439899E-1	7.516572E-1	1.073930E+0	8.488396E-1	7.640791E-1	7.905185E-1	9.606639E-1	7.936682E-1	6.758632E-1	9.962006E-1	9.039486E-1	8.301008E-1	7.125401E-1	9.638701E-1	8.247603E-1	7.571534E-1	7.802118E-1	9.943164E-1	8.457580E-1	9.627961E-1	7.736982E-1	8.953925E-1	9.092910E-1	7.611642E-1	7.670037E-1	9.397842E-1	8.520424E-1	9.236493E-1	8.711973E-1	9.364700E-1	8.870631E-1	7.584452E-1	8.684363E-1	8.399673E-1	9.209670E-1	1.007905E+0	7.137593E-1	8.981690E-1	8.714789E-1	7.981249E-1	6.873655E-1	1.002578E+0	8.275505E-1	9.949677E-1	6.752624E-1	9.488403E-1	8.983256E-1	7.386860E-1	7.732480E-1	9.854185E-1	9.086629E-1	9.093005E-1	7.360159E-1	9.290277E-1	9.535467E-1	7.440578E-1	6.534989E-1	9.812892E-1	9.693319E-1	8.894427E-1	6.933651E-1	1.025237E+0	8.435483E-1	7.186917E-1	7.987879E-1	9.157438E-1	8.417037E-1	9.106897E-1	8.148666E-1	1.054327E+0	9.454993E-1	7.889985E-1	7.030176E-1	1.017190E+0	8.690356E-1	9.969913E-1	7.464395E-1	8.466120E-1	1.000215E+0	7.562931E-1	8.960818E-1	7.820033E-1	9.758853E-1	8.199371E-1	8.582418E-1	7.771671E-1	1.057757E+0	6.998434E-1	7.373846E-1	8.277675E-1	9.503053E-1	8.821757E-1	7.565397E-1	8.429689E-1	8.316916E-1	7.259483E-1	8.701165E-1	9.238267E-1	9.250516E-1	8.834796E-1	7.600677E-1	9.153892E-1	8.798712E-1
2.876150E+2	2.088164E-2	7.659758E-1	5.766982E-1	6.168575E-1	5.896624E-1	5.999547E-1	5.974478E-1	7.240571E-1	5.910944E-1	5.994407E-1	5.733329E-1	7.892532E-1	4.855133E-1	5.806875E-1	5.912855E-1	7.485443E-1	6.453398E-1	6.266000E-1	6.320883E-1	7.996723E-1	5.709450E-1	6.610664E-1	5.434524E-1	7.384618E-1	6.773949E-1	5.692383E-1	5.396079E-1	7.924876E-1	4.799618E-1	6.750387E-1	4.948022E-1	7.808762E-1	6.157060E-1	5.864854E-1	6.671112E-1	7.208027E-1	4.633004E-1	6.068149E-1	6.111340E-1	7.253348E-1	5.982070E-1	6.026953E-1	6.408724E-1	7.470550E-1	5.749549E-1	5.772638E-1	5.822209E-1	6.933476E-1	7.168963E-1	5.524922E-1	6.530438E-1	6.584819E-1	5.555058E-1	5.660572E-1	6.351074E-1	6.108359E-1	7.107689E-1	6.750516E-1	5.477106E-1	7.759048E-1	5.297720E-1	7.056452E-1	5.102218E-1	7.753764E-1	7.017545E-1	6.544167E-1	4.679130E-1	8.272113E-1	5.630664E-1	6.678115E-1	5.671993E-1	7.765279E-1	6.384544E-1	5.557236E-1	5.526502E-1	7.226325E-1	6.061218E-1	5.196852E-1	6.381821E-1	7.155642E-1	6.479444E-1	5.419805E-1	7.521135E-1	6.832303E-1	5.242067E-1	5.149392E-1	7.770517E-1	6.344979E-1	7.304742E-1	6.150426E-1	5.913030E-1	8.130825E-1	6.243089E-1	6.164229E-1	5.368871E-1	7.565372E-1	6.895171E-1	6.378656E-1	5.766244E-1	7.769930E-1	5.064913E-1	6.052515E-1	6.377083E-1	6.863146E-1	7.143540E-1	5.611681E-1	6.830833E-1	6.767703E-1	5.579035E-1	5.506610E-1	6.823998E-1	6.344300E-1	7.328834E-1	5.699273E-1	7.012013E-1	6.420356E-1	5.172304E-1	5.141592E-1	7.466286E-1	7.007257E-1	6.848344E-1	5.144935E-1	6.601698E-1	6.675688E-1	5.330090E-1	4.998399E-1	7.379624E-1	6.793458E-1	6.878775E-1	5.278522E-1	7.407616E-1	6.491149E-1	5.022820E-1	5.766448E-1	6.907948E-1	6.358762E-1	6.782193E-1	4.947078E-1	7.305981E-1	6.905743E-1	5.542853E-1	5.146768E-1	7.890311E-1	6.204819E-1	7.013834E-1	5.253359E-1	6.234490E-1	7.914884E-1	5.778016E-1	6.841506E-1	5.756998E-1	7.483639E-1	6.084297E-1	6.184414E-1	5.560789E-1	8.570136E-1	5.293410E-1	6.001122E-1	6.618901E-1	6.322781E-1	6.197841E-1	5.811207E-1	7.084642E-1	6.218447E-1	5.382398E-1	6.420471E-1	6.186062E-1	5.847961E-1	6.599178E-1	5.513607E-1	6.512443E-1	6.665828E-1
2.878030E+2	1.485015E-2	5.891382E-1	5.075440E-1	5.000058E-1	4.870759E-1	4.857342E-1	5.047592E-1	4.784627E-1	4.640142E-1	4.350330E-1	4.503476E-1	5.895066E-1	4.274995E-1	4.651565E-1	4.572656E-1	6.280274E-1	5.450749E-1	4.819828E-1	4.641367E-1	5.868229E-1	3.934810E-1	5.294181E-1	4.556104E-1	6.567256E-1	4.719267E-1	4.650700E-1	4.214424E-1	6.815012E-1	3.414425E-1	5.014342E-1	4.052976E-1	6.453710E-1	4.851765E-1	4.370639E-1	5.238801E-1	6.105972E-1	3.567108E-1	5.049711E-1	5.029155E-1	5.230263E-1	5.034973E-1	5.476302E-1	4.416174E-1	5.591058E-1	4.515300E-1	4.322780E-1	4.689876E-1	5.990507E-1	5.759923E-1	4.460787E-1	5.308087E-1	5.478915E-1	4.710291E-1	4.581899E-1	4.903639E-1	4.884904E-1	5.301218E-1	5.295105E-1	4.669268E-1	5.332793E-1	4.567080E-1	4.942889E-1	3.850053E-1	6.168191E-1	5.791473E-1	5.045337E-1	3.940837E-1	6.064581E-1	4.387035E-1	5.034154E-1	4.289529E-1	6.541646E-1	5.156550E-1	4.649205E-1	4.749329E-1	5.758705E-1	5.186526E-1	4.202747E-1	5.377558E-1	5.344453E-1	4.845585E-1	4.536982E-1	5.469150E-1	5.259951E-1	3.829889E-1	4.790108E-1	5.857718E-1	4.977430E-1	5.683788E-1	4.757678E-1	4.724734E-1	5.914621E-1	4.368787E-1	4.532599E-1	4.373332E-1	6.205648E-1	5.568779E-1	5.028296E-1	4.375298E-1	6.308329E-1	4.221540E-1	5.093545E-1	5.253707E-1	5.801755E-1	5.961283E-1	4.344928E-1	5.091406E-1	5.931028E-1	5.051416E-1	4.345834E-1	5.057625E-1	5.367253E-1	5.580355E-1	4.068354E-1	5.410088E-1	5.895017E-1	4.022242E-1	4.186554E-1	5.303365E-1	5.652461E-1	5.475025E-1	4.399620E-1	4.430172E-1	6.367415E-1	3.957657E-1	4.161566E-1	4.734148E-1	6.198216E-1	5.743839E-1	3.949063E-1	5.276905E-1	5.958898E-1	4.259814E-1	4.582996E-1	4.796175E-1	5.295125E-1	5.803181E-1	4.520250E-1	5.627361E-1	5.499230E-1	4.716940E-1	3.894757E-1	5.722320E-1	5.809988E-1	6.373722E-1	4.339560E-1	4.733116E-1	6.585116E-1	4.263438E-1	4.881800E-1	4.732770E-1	5.903288E-1	5.181268E-1	5.131246E-1	4.380166E-1	7.023758E-1	3.934919E-1	4.743061E-1	4.886947E-1	5.881527E-1	5.045847E-1	4.702727E-1	5.320343E-1	5.729111E-1	4.567594E-1	4.761868E-1	4.520501E-1	5.285024E-1	5.160164E-1	4.427655E-1	6.116306E-1	4.501567E-1
2.880020E+2	1.599839E-2	7.360613E-1	5.179163E-1	5.444891E-1	5.756192E-1	5.708011E-1	5.897087E-1	6.326050E-1	5.378314E-1	5.403871E-1	5.227124E-1	7.112319E-1	5.015617E-1	5.942246E-1	4.981611E-1	6.976463E-1	6.234012E-1	5.885054E-1	5.450512E-1	7.374385E-1	4.950125E-1	6.176995E-1	5.170766E-1	7.325191E-1	5.868563E-1	5.156633E-1	5.077727E-1	7.882153E-1	4.716380E-1	6.231812E-1	4.532929E-1	7.837544E-1	5.718124E-1	5.556694E-1	5.561214E-1	7.166050E-1	4.912849E-1	5.638765E-1	6.191676E-1	6.956777E-1	5.972756E-1	5.751189E-1	5.864391E-1	7.232862E-1	5.509505E-1	5.277939E-1	5.141554E-1	6.207228E-1	6.846373E-1	5.045645E-1	6.530445E-1	6.746877E-1	5.324036E-1	5.422784E-1	6.277047E-1	5.903012E-1	6.744822E-1	6.133212E-1	4.956805E-1	6.850225E-1	4.908396E-1	6.822975E-1	4.542142E-1	6.919357E-1	6.004640E-1	6.422239E-1	4.570632E-1	7.682914E-1	5.404563E-1	5.969630E-1	5.328635E-1	7.439178E-1	5.979532E-1	6.066182E-1	5.850535E-1	6.538681E-1	5.529609E-1	4.761373E-1	5.948292E-1	7.120965E-1	6.168508E-1	4.994666E-1	6.423984E-1	6.667657E-1	5.153730E-1	5.457354E-1	6.911829E-1	6.034296E-1	7.263520E-1	5.259629E-1	5.371662E-1	7.057969E-1	4.953930E-1	5.260929E-1	5.376634E-1	7.007541E-1	6.642350E-1	5.239198E-1	5.622464E-1	7.431405E-1	4.871866E-1	5.903750E-1	5.896759E-1	6.506371E-1	7.640606E-1	5.518318E-1	5.735367E-1	6.893793E-1	5.743673E-1	4.704012E-1	6.556003E-1	6.278875E-1	7.294051E-1	5.197829E-1	6.663326E-1	6.688309E-1	5.122817E-1	5.250653E-1	7.166496E-1	6.372216E-1	6.840326E-1	5.076467E-1	5.405185E-1	7.730976E-1	4.911234E-1	4.983765E-1	5.635744E-1	6.987564E-1	7.542377E-1	4.885816E-1	6.563379E-1	6.946026E-1	5.117065E-1	5.387769E-1	6.372491E-1	6.108147E-1	6.555205E-1	5.467056E-1	6.033689E-1	7.191352E-1	5.555549E-1	4.365506E-1	5.695016E-1	7.514109E-1	7.337663E-1	4.737926E-1	5.185550E-1	7.536060E-1	5.212477E-1	5.632932E-1	5.328407E-1	7.759847E-1	6.188686E-1	6.144571E-1	4.496821E-1	9.052974E-1	5.096559E-1	5.542695E-1	5.550900E-1	8.048250E-1	6.515709E-1	5.486255E-1	6.256202E-1	6.802725E-1	5.325518E-1	5.901256E-1	5.846993E-1	6.143084E-1	6.270956E-1	5.695295E-1	7.073892E-1	5.450141E-1
2.882210E+2	1.477756E-2	7.796160E-1	6.857628E-1	6.544776E-1	7.093102E-1	6.876047E-1	6.628696E-1	7.596728E-1	6.381061E-1	6.761118E-1	6.124204E-1	8.839511E-1	5.974061E-1	7.102342E-1	6.606723E-1	8.610417E-1	6.891972E-1	6.373420E-1	6.401762E-1	8.621802E-1	5.836315E-1	7.228829E-1	6.892029E-1	8.593814E-1	6.797706E-1	6.963384E-1	6.082587E-1	8.708943E-1	5.331646E-1	7.722203E-1	5.462434E-1	9.372828E-1	6.746308E-1	6.905578E-1	7.164809E-1	9.551931E-1	5.465898E-1	7.073334E-1	7.487455E-1	8.039778E-1	6.336331E-1	6.984593E-1	6.958759E-1	8.172990E-1	6.330764E-1	6.753554E-1	6.253662E-1	7.950590E-1	8.149376E-1	6.506162E-1	7.445209E-1	7.570303E-1	6.164158E-1	6.367430E-1	7.387688E-1	7.542387E-1	8.239895E-1	7.604392E-1	6.326783E-1	8.262135E-1	6.494959E-1	8.008781E-1	6.080209E-1	8.398394E-1	7.869779E-1	7.655274E-1	5.784959E-1	9.899117E-1	6.348778E-1	7.420778E-1	5.890881E-1	8.899857E-1	7.593513E-1	6.957512E-1	7.029996E-1	8.202889E-1	6.387953E-1	5.608008E-1	7.688929E-1	8.591857E-1	7.311719E-1	6.563661E-1	8.664665E-1	7.217730E-1	6.442359E-1	6.376900E-1	8.034886E-1	7.148188E-1	7.675650E-1	6.486442E-1	6.630147E-1	9.044925E-1	6.182915E-1	6.734421E-1	6.559505E-1	8.767686E-1	7.960411E-1	6.973799E-1	7.001544E-1	8.855779E-1	6.197909E-1	7.432669E-1	6.935694E-1	7.920250E-1	8.515933E-1	6.440455E-1	7.159910E-1	8.497597E-1	7.234472E-1	5.936176E-1	7.911432E-1	6.934465E-1	8.315080E-1	5.607672E-1	8.600886E-1	8.332450E-1	6.248825E-1	6.187025E-1	8.449211E-1	8.070183E-1	8.246731E-1	5.964179E-1	6.507558E-1	9.626644E-1	6.207675E-1	6.059094E-1	7.075362E-1	9.023024E-1	7.595922E-1	5.582578E-1	7.389531E-1	8.965288E-1	5.828085E-1	6.445294E-1	7.757665E-1	7.006727E-1	8.503547E-1	6.641035E-1	7.525882E-1	8.726389E-1	6.477283E-1	5.857249E-1	7.187433E-1	9.092143E-1	8.290446E-1	6.154482E-1	6.230229E-1	9.573269E-1	6.241196E-1	6.855504E-1	6.635483E-1	9.622370E-1	7.211392E-1	7.568745E-1	5.704197E-1	1.025561E+0	6.216074E-1	6.885328E-1	6.026046E-1	9.366589E-1	7.631242E-1	7.189966E-1	7.245410E-1	8.363925E-1	6.630404E-1	6.956682E-1	7.486821E-1	7.559941E-1	7.236789E-1	6.876506E-1	6.519533E-1	8.584821E-1
2.884160E+2	1.718492E-2	9.510783E-1	7.635086E-1	7.895531E-1	8.256539E-1	8.058882E-1	8.050495E-1	9.415816E-1	8.148316E-1	7.821672E-1	7.957034E-1	1.016242E+0	6.986009E-1	8.412059E-1	7.513874E-1	1.074709E+0	8.569761E-1	8.143004E-1	7.485207E-1	1.021951E+0	6.765363E-1	8.461256E-1	7.479242E-1	1.003468E+0	8.757023E-1	7.518727E-1	6.916598E-1	1.056741E+0	6.327761E-1	8.872988E-1	6.541072E-1	1.087880E+0	8.588647E-1	7.788411E-1	8.009247E-1	1.007557E+0	6.629550E-1	8.552889E-1	8.291712E-1	9.873875E-1	7.728612E-1	8.298854E-1	8.004828E-1	1.042943E+0	7.441363E-1	7.358506E-1	8.026215E-1	9.952587E-1	9.222002E-1	7.785550E-1	8.483666E-1	9.382080E-1	7.675789E-1	7.676169E-1	9.248873E-1	8.667235E-1	9.342742E-1	9.103566E-1	7.607765E-1	1.013798E+0	7.319758E-1	9.211538E-1	6.923154E-1	1.033778E+0	9.330691E-1	9.257819E-1	6.621129E-1	1.055229E+0	7.426123E-1	8.408138E-1	7.456774E-1	1.037952E+0	8.924986E-1	8.066193E-1	7.753905E-1	9.603522E-1	8.030809E-1	7.386875E-1	8.231277E-1	9.869141E-1	7.764951E-1	7.708575E-1	9.597018E-1	8.673375E-1	7.438810E-1	7.763198E-1	9.910781E-1	8.714480E-1	9.004563E-1	7.748760E-1	7.181128E-1	1.025215E+0	7.337568E-1	7.794079E-1	7.693873E-1	1.054972E+0	8.658436E-1	8.368956E-1	8.039329E-1	1.004875E+0	7.131747E-1	8.345046E-1	7.618249E-1	8.526012E-1	1.032216E+0	7.178014E-1	8.349033E-1	9.434777E-1	7.696865E-1	7.027956E-1	9.631298E-1	8.944085E-1	1.001261E+0	6.786296E-1	1.012734E+0	9.106194E-1	7.513119E-1	7.948006E-1	9.189573E-1	9.246066E-1	9.402623E-1	7.661911E-1	7.881382E-1	1.104260E+0	7.619873E-1	7.148951E-1	8.044226E-1	1.079154E+0	8.296166E-1	6.546042E-1	8.643847E-1	1.015394E+0	6.723855E-1	8.223343E-1	9.009165E-1	8.872954E-1	8.937833E-1	7.085339E-1	9.113876E-1	9.920003E-1	7.970835E-1	6.240639E-1	8.659182E-1	9.746778E-1	9.677740E-1	7.515865E-1	7.258772E-1	1.121846E+0	7.173769E-1	8.015542E-1	7.409769E-1	1.149420E+0	8.455837E-1	9.508223E-1	6.672052E-1	1.197493E+0	7.472502E-1	8.110645E-1	7.157282E-1	1.051885E+0	9.453116E-1	7.411678E-1	8.515426E-1	9.391209E-1	7.384787E-1	8.907656E-1	8.539301E-1	8.514093E-1	8.911840E-1	8.090199E-1	9.105191E-1	9.492401E-1
2.886030E+2	2.443057E-2	1.138491E+0	1.026434E+0	9.199139E-1	9.993586E-1	9.428610E-1	9.867317E-1	1.085377E+0	9.342386E-1	9.558278E-1	8.423996E-1	1.233280E+0	8.698108E-1	9.963350E-1	9.069052E-1	1.313000E+0	1.108795E+0	1.011328E+0	9.279608E-1	1.277054E+0	8.198183E-1	9.858470E-1	8.802455E-1	1.198674E+0	1.011316E+0	9.561695E-1	8.292934E-1	1.240089E+0	7.650794E-1	1.033635E+0	7.618987E-1	1.307860E+0	9.526374E-1	9.545054E-1	9.563491E-1	1.282954E+0	7.327403E-1	9.943942E-1	1.076092E+0	1.150820E+0	9.566889E-1	9.478161E-1	8.722998E-1	1.167203E+0	9.046693E-1	9.236459E-1	9.032539E-1	1.143917E+0	1.089605E+0	8.260685E-1	1.006768E+0	1.214393E+0	9.127826E-1	8.983676E-1	1.097225E+0	1.042693E+0	1.128581E+0	9.967963E-1	7.989546E-1	1.130229E+0	8.482501E-1	1.143517E+0	7.971019E-1	1.184341E+0	1.067740E+0	1.029506E+0	7.778147E-1	1.281206E+0	8.301716E-1	1.013416E+0	8.993373E-1	1.170904E+0	1.015566E+0	8.852933E-1	9.694345E-1	1.037671E+0	9.669396E-1	8.223654E-1	1.008756E+0	1.104590E+0	1.046623E+0	8.314126E-1	1.142474E+0	1.031341E+0	8.808362E-1	8.713918E-1	1.140050E+0	9.601505E-1	1.066049E+0	9.370675E-1	8.793004E-1	1.263909E+0	8.772996E-1	8.938943E-1	9.131475E-1	1.202249E+0	1.074197E+0	9.219564E-1	9.611775E-1	1.273818E+0	8.669823E-1	9.352657E-1	9.606879E-1	1.067501E+0	1.127617E+0	8.696239E-1	1.016034E+0	1.117004E+0	8.962890E-1	8.554197E-1	1.106993E+0	1.062737E+0	1.168040E+0	8.066682E-1	1.153251E+0	1.098472E+0	8.659209E-1	8.775409E-1	1.141292E+0	1.110525E+0	1.170453E+0	9.106160E-1	9.357202E-1	1.278062E+0	8.278328E-1	8.079868E-1	9.807459E-1	1.268757E+0	1.096937E+0	8.340547E-1	1.057973E+0	1.130009E+0	8.429094E-1	9.265707E-1	1.062799E+0	1.063608E+0	1.141308E+0	8.290946E-1	9.680178E-1	1.193521E+0	9.192618E-1	8.514023E-1	9.503966E-1	1.128518E+0	1.189508E+0	8.848970E-1	9.002791E-1	1.306132E+0	8.696288E-1	9.754148E-1	8.534203E-1	1.289379E+0	1.012035E+0	1.091883E+0	7.597459E-1	1.368237E+0	8.702673E-1	9.445040E-1	8.349558E-1	1.284597E+0	1.080032E+0	9.305097E-1	9.972656E-1	1.163741E+0	8.539793E-1	9.729134E-1	1.012825E+0	1.028131E+0	1.082962E+0	9.269030E-1	9.130984E-1	1.047164E+0
2.888210E+2	3.270216E-2	1.324666E+0	1.161396E+0	1.155851E+0	1.152849E+0	1.186141E+0	1.188874E+0	1.297762E+0	1.118359E+0	1.079433E+0	1.012013E+0	1.435236E+0	1.044896E+0	1.144845E+0	1.043326E+0	1.436390E+0	1.328947E+0	1.125564E+0	1.083550E+0	1.462600E+0	1.044365E+0	1.213463E+0	1.077373E+0	1.419672E+0	1.212999E+0	1.121037E+0	1.065995E+0	1.510160E+0	9.540017E-1	1.279435E+0	9.451166E-1	1.578327E+0	1.218502E+0	1.106366E+0	1.209638E+0	1.399169E+0	8.834515E-1	1.173625E+0	1.225054E+0	1.391639E+0	1.161012E+0	1.216486E+0	1.086941E+0	1.414175E+0	1.076393E+0	1.078211E+0	1.074473E+0	1.286333E+0	1.315517E+0	1.031812E+0	1.330882E+0	1.256318E+0	1.110440E+0	1.074986E+0	1.229110E+0	1.166435E+0	1.321086E+0	1.300760E+0	1.031849E+0	1.406257E+0	9.564886E-1	1.375399E+0	9.439591E-1	1.435844E+0	1.256133E+0	1.302568E+0	9.242198E-1	1.520772E+0	1.043961E+0	1.242150E+0	1.101789E+0	1.448712E+0	1.288982E+0	1.090445E+0	1.149267E+0	1.354522E+0	1.191566E+0	1.007961E+0	1.156853E+0	1.293511E+0	1.154327E+0	1.025821E+0	1.358130E+0	1.224770E+0	1.051529E+0	9.964712E-1	1.336370E+0	1.196026E+0	1.313402E+0	1.135010E+0	1.025009E+0	1.552819E+0	1.043379E+0	1.129198E+0	1.126529E+0	1.429812E+0	1.278464E+0	1.142582E+0	1.068907E+0	1.412017E+0	1.008228E+0	1.191187E+0	1.160242E+0	1.319570E+0	1.444090E+0	1.040488E+0	1.129812E+0	1.277431E+0	1.120286E+0	1.068752E+0	1.335549E+0	1.270445E+0	1.414225E+0	1.005526E+0	1.349002E+0	1.305648E+0	1.014976E+0	1.043200E+0	1.303992E+0	1.305264E+0	1.306728E+0	1.036522E+0	1.098405E+0	1.525140E+0	1.005426E+0	9.371054E-1	1.216872E+0	1.391202E+0	1.331126E+0	9.781249E-1	1.255021E+0	1.349362E+0	1.014907E+0	1.075054E+0	1.250713E+0	1.290803E+0	1.397827E+0	1.037204E+0	1.232698E+0	1.369848E+0	1.060363E+0	9.643010E-1	1.146462E+0	1.362002E+0	1.316912E+0	1.026745E+0	1.064403E+0	1.624731E+0	1.018821E+0	1.217254E+0	1.056908E+0	1.462517E+0	1.162210E+0	1.274954E+0	9.719895E-1	1.667932E+0	1.030754E+0	1.132502E+0	1.041692E+0	1.569020E+0	1.263423E+0	1.125336E+0	1.217270E+0	1.284140E+0	1.033954E+0	1.161866E+0	1.204667E+0	1.254649E+0	1.136979E+0	1.136738E+0	1.191323E+0	1.302623E+0
2.890190E+2	1.589345E-2	1.231753E+0	9.941873E-1	9.616339E-1	1.040630E+0	1.033530E+0	1.016302E+0	1.147823E+0	1.023958E+0	1.060691E+0	8.662474E-1	1.255415E+0	9.375211E-1	1.123566E+0	9.806212E-1	1.121229E+0	1.239291E+0	1.051925E+0	1.027766E+0	1.147204E+0	9.917374E-1	1.134000E+0	9.352453E-1	1.247069E+0	1.120304E+0	1.000712E+0	9.485334E-1	1.390013E+0	8.761729E-1	1.152292E+0	8.088040E-1	1.164088E+0	1.295766E+0	1.043279E+0	1.035095E+0	1.229358E+0	8.991893E-1	1.084560E+0	1.064404E+0	1.217393E+0	1.094869E+0	1.055848E+0	1.040052E+0	1.216784E+0	9.595456E-1	1.015044E+0	9.661240E-1	1.097497E+0	1.357776E+0	9.260653E-1	1.144999E+0	1.158625E+0	1.034588E+0	9.642454E-1	1.101582E+0	1.026281E+0	1.211617E+0	1.121058E+0	8.980645E-1	1.137250E+0	9.438858E-1	1.118332E+0	8.343972E-1	1.203981E+0	1.236891E+0	1.130225E+0	8.193895E-1	1.297459E+0	9.950571E-1	1.087810E+0	9.513623E-1	1.276583E+0	1.041229E+0	1.043680E+0	1.000172E+0	1.240094E+0	1.073687E+0	8.970148E-1	1.070086E+0	1.234003E+0	1.046288E+0	9.467688E-1	1.238728E+0	1.148110E+0	9.195717E-1	9.707197E-1	1.181832E+0	1.027939E+0	1.215895E+0	9.845995E-1	9.543407E-1	1.323160E+0	9.006424E-1	1.024417E+0	9.670756E-1	1.306809E+0	1.203303E+0	1.052327E+0	1.009245E+0	1.276224E+0	9.193633E-1	1.063805E+0	1.095844E+0	1.214564E+0	1.264248E+0	9.226126E-1	1.051125E+0	1.244379E+0	1.084654E+0	9.393293E-1	1.199887E+0	1.135221E+0	1.281060E+0	8.995827E-1	1.160216E+0	1.170876E+0	1.002824E+0	9.340999E-1	1.128724E+0	1.096043E+0	1.175695E+0	9.288445E-1	9.999771E-1	1.463196E+0	8.926859E-1	8.811619E-1	1.058507E+0	1.376605E+0	1.185149E+0	9.287184E-1	1.103564E+0	1.274098E+0	9.105753E-1	9.420772E-1	1.126322E+0	1.115268E+0	1.155836E+0	9.374444E-1	1.095046E+0	1.271599E+0	1.023668E+0	8.983439E-1	1.092213E+0	1.237502E+0	1.252993E+0	1.001746E+0	9.991083E-1	1.431263E+0	9.148505E-1	1.084358E+0	9.836614E-1	1.304346E+0	1.095662E+0	1.088353E+0	8.282505E-1	1.434001E+0	9.530217E-1	8.910662E-1	9.444140E-1	1.423169E+0	1.224403E+0	9.926980E-1	1.012269E+0	1.271223E+0	8.942009E-1	1.118843E+0	1.041372E+0	1.130880E+0	1.062698E+0	9.424926E-1	1.078719E+0	1.350877E+0
2.892040E+2	1.599237E-2	9.281867E-1	7.477369E-1	7.464422E-1	7.339260E-1	7.841827E-1	7.681227E-1	8.425061E-1	7.631920E-1	7.068198E-1	6.711743E-1	8.522674E-1	6.977408E-1	7.775379E-1	7.280132E-1	8.603506E-1	9.680848E-1	7.411433E-1	7.697400E-1	8.434376E-1	7.489131E-1	8.058802E-1	6.897011E-1	9.616578E-1	7.679323E-1	7.271129E-1	7.023418E-1	9.551609E-1	7.318179E-1	9.369956E-1	6.578611E-1	9.455350E-1	9.518148E-1	8.325062E-1	8.057459E-1	9.336073E-1	6.830791E-1	7.834764E-1	8.139151E-1	8.811943E-1	7.525900E-1	7.405764E-1	7.460573E-1	8.693315E-1	7.634819E-1	7.034739E-1	7.799659E-1	8.111845E-1	9.995446E-1	6.967948E-1	8.458236E-1	7.880646E-1	8.157355E-1	7.227502E-1	7.907953E-1	8.130203E-1	9.228119E-1	8.527768E-1	7.466338E-1	8.890621E-1	7.606969E-1	9.213284E-1	6.279500E-1	8.224327E-1	9.296609E-1	9.123303E-1	6.143311E-1	8.680082E-1	8.089050E-1	8.170059E-1	7.295378E-1	9.594408E-1	8.218983E-1	7.554994E-1	7.316504E-1	7.989519E-1	8.967992E-1	6.291310E-1	8.169022E-1	7.303204E-1	9.557905E-1	7.013357E-1	9.411029E-1	6.497364E-1	8.430863E-1	7.211473E-1	8.974053E-1	7.627308E-1	1.012875E+0	7.664374E-1	7.196672E-1	8.968521E-1	7.165082E-1	7.280036E-1	7.499723E-1	8.779057E-1	9.146664E-1	7.634748E-1	8.203619E-1	9.072892E-1	7.552732E-1	7.709888E-1	7.418070E-1	8.512122E-1	1.001255E+0	6.983352E-1	7.617898E-1	9.136748E-1	7.677835E-1	6.896092E-1	9.278933E-1	8.447922E-1	1.010494E+0	6.248625E-1	9.519576E-1	8.868354E-1	7.564297E-1	6.934733E-1	9.579846E-1	8.141644E-1	8.638624E-1	7.241919E-1	7.390699E-1	9.871381E-1	7.285169E-1	6.758779E-1	7.809372E-1	9.762657E-1	8.409481E-1	6.432685E-1	8.653732E-1	8.945556E-1	6.806162E-1	7.142019E-1	8.943084E-1	8.019565E-1	8.685368E-1	6.857207E-1	8.127219E-1	9.196809E-1	7.337180E-1	6.415962E-1	8.175366E-1	9.443990E-1	9.260956E-1	7.288563E-1	7.435551E-1	1.053856E+0	6.451412E-1	7.934653E-1	7.288705E-1	1.033052E+0	7.948737E-1	7.929982E-1	6.172130E-1	1.079685E+0	7.116717E-1	7.753652E-1	7.207929E-1	1.043363E+0	8.353226E-1	7.615193E-1	7.586649E-1	9.119132E-1	6.982934E-1	7.530713E-1	7.917228E-1	8.308444E-1	8.524722E-1	7.896144E-1	7.872882E-1	9.875306E-1
2.894050E+2	1.370515E-2	7.549919E-1	6.180542E-1	6.234279E-1	6.660424E-1	6.808199E-1	6.249905E-1	7.586052E-1	6.571038E-1	6.345581E-1	5.200274E-1	7.710290E-1	6.353862E-1	6.388532E-1	5.840833E-1	7.169336E-1	7.624193E-1	6.884726E-1	6.849999E-1	7.046981E-1	6.581427E-1	6.844798E-1	6.071004E-1	8.139822E-1	7.030427E-1	6.564026E-1	5.957624E-1	8.302851E-1	5.157766E-1	7.375171E-1	5.298757E-1	7.419975E-1	8.287623E-1	6.535104E-1	6.399433E-1	8.027475E-1	5.653700E-1	6.088755E-1	6.676397E-1	7.579059E-1	6.407036E-1	6.537136E-1	6.504420E-1	7.437713E-1	6.110085E-1	6.097452E-1	5.780520E-1	6.368826E-1	8.282037E-1	5.833255E-1	6.671244E-1	6.770671E-1	6.968485E-1	6.153798E-1	7.519127E-1	6.695184E-1	7.258890E-1	7.015474E-1	5.597223E-1	6.689922E-1	6.316286E-1	7.246834E-1	5.188816E-1	6.712369E-1	8.629724E-1	6.698051E-1	4.595893E-1	7.662111E-1	6.324419E-1	7.487240E-1	5.701774E-1	7.813982E-1	7.053930E-1	6.787090E-1	6.274165E-1	7.033515E-1	7.892788E-1	5.372612E-1	7.104758E-1	5.879145E-1	8.292267E-1	5.614313E-1	7.049497E-1	5.869343E-1	7.148756E-1	5.709492E-1	7.921151E-1	6.134331E-1	7.944457E-1	5.815456E-1	5.938460E-1	7.841540E-1	6.719458E-1	6.151987E-1	5.866343E-1	7.069405E-1	8.857641E-1	6.489316E-1	6.824604E-1	7.159007E-1	6.956456E-1	6.372857E-1	6.441996E-1	6.809126E-1	8.362678E-1	5.870910E-1	6.496110E-1	6.574476E-1	7.476722E-1	5.786798E-1	7.487077E-1	5.721002E-1	9.658390E-1	5.437955E-1	7.585795E-1	6.816636E-1	6.868451E-1	6.085665E-1	8.226149E-1	6.900346E-1	7.972160E-1	5.763867E-1	6.284743E-1	8.453745E-1	5.655063E-1	5.557701E-1	6.686342E-1	7.779060E-1	8.109303E-1	5.360912E-1	7.211691E-1	7.135223E-1	6.145817E-1	6.198848E-1	7.242703E-1	6.349895E-1	7.783654E-1	6.196662E-1	7.157519E-1	7.498492E-1	6.498433E-1	5.602326E-1	7.022211E-1	8.149288E-1	8.103421E-1	5.739259E-1	6.007453E-1	8.729069E-1	5.884303E-1	6.139358E-1	6.418793E-1	8.047803E-1	7.023297E-1	7.544415E-1	5.060423E-1	8.441082E-1	6.091348E-1	5.984226E-1	6.081490E-1	8.817402E-1	7.613540E-1	6.123466E-1	6.500747E-1	8.352384E-1	6.190914E-1	7.095244E-1	6.258817E-1	6.859202E-1	7.048857E-1	6.358556E-1	6.639177E-1	7.648847E-1
2.896150E+2	2.610151E-2	8.442242E-1	7.299253E-1	7.138948E-1	6.973176E-1	7.751737E-1	6.984803E-1	8.191103E-1	7.198839E-1	6.855691E-1	6.326157E-1	8.447475E-1	6.906530E-1	7.694885E-1	6.855942E-1	7.697469E-1	8.811281E-1	7.307375E-1	7.019212E-1	8.037807E-1	7.186008E-1	7.585292E-1	6.329646E-1	8.670635E-1	7.383296E-1	7.446388E-1	6.158053E-1	8.781717E-1	6.149593E-1	7.767441E-1	5.965808E-1	8.745003E-1	8.752421E-1	6.586330E-1	7.872707E-1	7.608866E-1	6.721922E-1	7.457668E-1	7.495441E-1	7.713453E-1	7.393663E-1	7.809523E-1	7.649633E-1	7.936120E-1	6.913205E-1	6.858975E-1	7.170658E-1	6.993460E-1	9.384260E-1	6.402298E-1	7.909539E-1	7.813177E-1	7.148355E-1	6.683831E-1	8.008005E-1	7.212727E-1	8.753573E-1	8.276117E-1	6.520410E-1	7.744018E-1	6.886952E-1	8.039280E-1	6.057500E-1	8.196953E-1	8.821262E-1	7.728347E-1	5.914925E-1	8.184974E-1	7.717826E-1	7.972155E-1	6.593665E-1	8.773030E-1	7.216311E-1	7.079908E-1	6.649742E-1	7.461196E-1	8.271584E-1	6.594832E-1	8.004457E-1	7.550634E-1	9.514574E-1	6.533513E-1	9.163470E-1	6.821996E-1	7.684832E-1	6.656260E-1	8.661924E-1	6.792535E-1	9.359573E-1	7.415903E-1	6.324921E-1	8.073184E-1	7.496013E-1	6.903417E-1	7.218423E-1	7.900207E-1	8.912355E-1	7.578551E-1	6.916171E-1	8.193323E-1	7.399349E-1	7.398246E-1	6.913514E-1	7.691802E-1	9.017083E-1	5.937967E-1	7.555042E-1	7.134134E-1	8.426908E-1	6.063841E-1	7.726991E-1	6.664322E-1	1.050018E+0	6.458529E-1	7.917427E-1	7.036555E-1	7.703100E-1	6.323605E-1	8.312372E-1	7.654715E-1	9.043012E-1	6.753920E-1	7.209169E-1	9.318730E-1	6.906784E-1	5.852295E-1	7.742700E-1	7.804555E-1	1.001457E+0	6.206525E-1	8.012668E-1	7.682032E-1	7.404345E-1	6.863198E-1	8.624223E-1	7.286761E-1	8.156338E-1	5.932248E-1	7.781365E-1	7.704322E-1	7.526753E-1	6.161810E-1	8.004104E-1	7.624133E-1	1.081408E+0	6.318279E-1	6.631889E-1	9.189273E-1	7.211517E-1	7.707487E-1	7.080262E-1	1.012938E+0	7.558993E-1	7.761572E-1	5.616636E-1	9.895119E-1	6.810224E-1	7.098507E-1	6.753993E-1	9.358719E-1	8.886784E-1	6.987418E-1	7.285855E-1	8.499344E-1	6.706313E-1	7.517574E-1	8.044324E-1	7.670905E-1	7.764970E-1	6.497558E-1	8.164400E-1	7.315498E-1
2.898030E+2	1.399103E-2	8.574230E-1	7.794275E-1	7.338807E-1	7.708413E-1	7.506525E-1	7.453507E-1	8.446058E-1	6.859097E-1	7.499810E-1	6.912226E-1	9.264410E-1	6.956902E-1	7.628390E-1	7.405587E-1	8.571262E-1	9.173570E-1	7.553043E-1	6.926096E-1	8.363976E-1	7.445373E-1	7.605742E-1	6.969724E-1	9.110540E-1	8.591886E-1	7.054907E-1	6.834871E-1	9.540607E-1	6.464393E-1	7.997449E-1	6.335510E-1	8.611643E-1	8.566222E-1	7.675213E-1	7.636409E-1	8.435184E-1	6.638324E-1	7.570593E-1	7.883539E-1	8.708430E-1	7.882249E-1	7.601567E-1	7.078343E-1	8.181477E-1	7.553736E-1	6.918305E-1	7.448242E-1	7.794553E-1	9.859289E-1	7.102364E-1	8.095277E-1	8.171338E-1	7.405501E-1	7.081191E-1	8.695403E-1	7.803404E-1	9.107996E-1	8.320269E-1	6.505061E-1	8.266090E-1	6.596246E-1	8.380600E-1	5.862463E-1	7.874811E-1	9.148303E-1	8.556050E-1	5.753697E-1	9.091457E-1	7.905872E-1	8.461162E-1	6.483044E-1	9.238040E-1	8.664327E-1	7.671795E-1	7.235684E-1	8.200706E-1	8.035121E-1	6.713030E-1	7.824614E-1	7.351167E-1	9.389106E-1	7.299097E-1	8.994606E-1	6.307852E-1	7.943721E-1	7.079984E-1	8.577576E-1	6.462586E-1	9.598184E-1	7.398281E-1	6.994710E-1	8.538209E-1	7.720062E-1	7.322239E-1	7.260592E-1	7.893315E-1	9.833370E-1	7.648475E-1	7.239651E-1	8.203487E-1	7.832526E-1	7.506559E-1	8.112797E-1	9.002841E-1	9.146843E-1	7.030250E-1	8.047528E-1	7.871185E-1	7.928209E-1	6.648897E-1	8.472968E-1	7.126009E-1	1.107649E+0	6.214462E-1	8.968743E-1	7.268060E-1	7.630865E-1	7.101718E-1	8.787084E-1	8.038041E-1	8.886794E-1	6.593293E-1	7.462841E-1	9.011290E-1	7.555364E-1	6.525511E-1	7.362385E-1	7.792457E-1	1.118869E+0	6.181980E-1	8.748896E-1	7.805529E-1	7.855907E-1	7.302413E-1	8.750903E-1	7.688540E-1	8.914578E-1	7.016669E-1	7.724268E-1	8.139341E-1	8.197517E-1	6.595438E-1	7.810212E-1	7.697524E-1	1.045427E+0	7.497967E-1	7.493437E-1	9.272237E-1	7.529263E-1	7.615082E-1	7.012322E-1	9.730254E-1	8.265131E-1	8.920830E-1	5.981283E-1	8.899378E-1	8.455662E-1	7.539861E-1	6.860778E-1	9.151769E-1	1.028294E+0	7.632042E-1	7.585151E-1	8.583017E-1	7.525549E-1	7.693438E-1	7.334853E-1	8.260466E-1	8.408743E-1	7.071596E-1	8.467336E-1	7.176933E-1
2.900050E+2	2.426662E-1	8.254744E-1	6.467650E-1	6.675660E-1	6.864694E-1	7.593835E-1	7.347385E-1	8.118463E-1	6.815797E-1	7.411553E-1	6.770608E-1	7.901718E-1	6.717858E-1	7.461291E-1	6.633691E-1	7.841540E-1	8.716213E-1	6.724522E-1	6.833703E-1	8.040308E-1	7.652063E-1	7.429044E-1	6.995847E-1	8.056091E-1	7.859028E-1	7.040781E-1	6.935520E-1	8.423452E-1	6.554703E-1	7.578337E-1	6.056146E-1	7.873754E-1	8.153180E-1	7.257401E-1	7.847136E-1	7.982283E-1	6.751787E-1	7.392032E-1	7.873789E-1	8.460938E-1	7.683705E-1	7.954769E-1	7.087267E-1	7.629038E-1	6.693533E-1	7.063471E-1	6.751305E-1	7.599380E-1	8.076107E-1	6.710161E-1	8.124639E-1	7.714919E-1	7.054207E-1	6.814242E-1	8.014751E-1	7.896730E-1	7.894486E-1	7.640155E-1	6.243422E-1	7.580278E-1	7.495327E-1	8.264536E-1	6.029148E-1	7.472570E-1	8.558186E-1	7.976068E-1	6.320784E-1	8.408881E-1	8.136733E-1	7.648301E-1	6.692721E-1	7.915019E-1	8.048552E-1	6.762518E-1	7.167847E-1	7.628145E-1	7.615298E-1	6.897833E-1	7.591691E-1	7.248021E-1	8.914769E-1	7.319983E-1	7.798226E-1	6.865349E-1	7.361513E-1	6.866061E-1	7.775455E-1	6.834880E-1	8.377767E-1	6.815698E-1	6.928431E-1	7.622767E-1	7.459011E-1	7.278353E-1	6.680493E-1	8.056066E-1	9.246867E-1	7.501967E-1	7.341476E-1	7.884420E-1	7.259298E-1	7.259606E-1	7.527251E-1	8.066946E-1	9.169929E-1	6.929873E-1	6.805181E-1	7.456217E-1	7.651003E-1	6.568818E-1	8.027176E-1	6.787088E-1	9.340799E-1	6.841452E-1	8.748523E-1	7.544616E-1	7.494764E-1	6.860680E-1	8.574237E-1	7.474874E-1	8.212500E-1	7.022170E-1	6.912028E-1	8.527371E-1	6.583644E-1	6.085891E-1	6.885925E-1	7.460742E-1	8.895486E-1	6.668800E-1	7.817629E-1	7.077969E-1	7.300398E-1	7.306516E-1	7.889394E-1	7.307868E-1	8.159245E-1	6.340244E-1	7.456923E-1	7.731621E-1	7.327202E-1	7.103152E-1	7.182715E-1	7.493599E-1	9.147741E-1	7.611234E-1	6.680334E-1	8.516601E-1	7.182769E-1	7.115024E-1	7.341037E-1	8.961895E-1	7.416680E-1	7.806330E-1	6.014481E-1	8.979097E-1	7.183894E-1	6.740596E-1	6.767512E-1	8.233526E-1	9.461853E-1	6.964415E-1	6.958964E-1	7.497270E-1	7.193113E-1	7.340387E-1	7.607872E-1	7.439996E-1	7.529917E-1	7.016443E-1	8.042239E-1	7.150286E-1
2.905120E+2	6.893732E-1	7.862734E-1	7.192571E-1	6.711503E-1	7.602339E-1	7.111177E-1	7.021721E-1	6.854007E-1	6.896054E-1	6.772525E-1	6.494801E-1	6.635903E-1	6.941637E-1	7.303609E-1	7.096986E-1	7.389269E-1	7.038295E-1	7.386925E-1	7.340758E-1	6.720743E-1	7.303993E-1	6.779061E-1	6.811506E-1	6.816999E-1	6.677356E-1	6.486283E-1	6.846954E-1	6.483187E-1	7.175098E-1	6.894056E-1	6.873116E-1	6.697114E-1	6.975833E-1	7.327891E-1	7.158816E-1	6.984580E-1	7.210113E-1	7.154882E-1	7.080087E-1	7.478582E-1	6.705251E-1	7.125121E-1	7.489054E-1	6.831443E-1	7.804860E-1	6.548157E-1	7.068727E-1	6.835372E-1	6.565046E-1	7.631487E-1	7.112517E-1	6.551576E-1	7.325884E-1	6.426547E-1	6.188994E-1	7.270068E-1	6.740240E-1	7.381478E-1	6.990972E-1	7.208648E-1	6.676252E-1	6.683412E-1	6.935486E-1	7.231078E-1	7.108411E-1	7.304330E-1	6.815436E-1	6.711902E-1	7.138105E-1	7.150497E-1	7.452435E-1	7.195179E-1	6.955257E-1	7.577189E-1	6.907950E-1	6.568976E-1	7.721170E-1	7.455294E-1	6.672782E-1	7.041690E-1	6.855305E-1	6.523347E-1	6.500331E-1	7.436162E-1	7.355126E-1	6.974964E-1	7.089600E-1	6.928122E-1	6.728975E-1	6.581466E-1	7.261381E-1	6.567705E-1	7.028366E-1	6.486206E-1	7.171029E-1	7.362114E-1	6.554056E-1	6.816299E-1	6.816618E-1	7.047650E-1	6.961213E-1	6.867764E-1	7.303951E-1	6.668080E-1	8.145182E-1	6.840010E-1	6.600639E-1	7.015134E-1	6.245818E-1	7.046554E-1	6.964543E-1	6.855219E-1	6.211517E-1	7.006924E-1	7.477851E-1	6.745556E-1	6.926657E-1	6.865919E-1	7.280704E-1	6.902514E-1	6.975066E-1	6.674043E-1	6.634342E-1	7.927023E-1	6.913313E-1	7.172958E-1	7.071255E-1	7.437719E-1	7.297214E-1	7.518954E-1	6.641933E-1	6.528533E-1	6.848252E-1	7.049520E-1	6.524570E-1	7.890203E-1	7.709675E-1	6.507698E-1	6.904703E-1	6.854690E-1	6.974454E-1	7.135244E-1	6.818246E-1	7.558014E-1	7.289070E-1	7.061130E-1	6.916216E-1	6.512764E-1	7.564639E-1	6.697708E-1	7.153400E-1	7.215645E-1	7.312780E-1	7.428315E-1	7.167567E-1	6.708448E-1	6.937622E-1	7.237505E-1	6.958053E-1	7.666471E-1	6.839611E-1	7.263002E-1	7.010427E-1	7.409501E-1	7.183371E-1	6.858655E-1	7.298573E-1	6.960813E-1	6.905872E-1	7.480472E-1	7.081945E-1	7.507396E-1
2.910060E+2	9.136851E-1	9.091328E-1	9.379251E-1	8.999385E-1	9.312837E-1	8.375252E-1	9.241824E-1	8.798183E-1	8.720267E-1	8.956968E-1	8.655296E-1	9.018555E-1	9.324429E-1	8.916511E-1	8.981922E-1	9.419460E-1	8.821857E-1	8.384437E-1	8.635070E-1	9.845034E-1	9.213288E-1	8.688220E-1	8.722644E-1	8.627384E-1	8.547033E-1	9.393356E-1	9.256421E-1	8.302496E-1	8.565340E-1	8.917682E-1	8.818020E-1	9.398428E-1	8.596045E-1	9.244560E-1	9.060336E-1	8.811788E-1	9.182029E-1	9.264040E-1	9.007753E-1	8.945310E-1	9.243611E-1	8.780251E-1	9.566212E-1	8.722623E-1	9.242542E-1	9.066583E-1	8.954840E-1	9.307962E-1	8.971510E-1	8.977979E-1	8.629345E-1	9.000840E-1	8.454819E-1	8.394134E-1	9.227895E-1	8.570544E-1	8.970327E-1	9.244876E-1	8.837240E-1	9.159687E-1	9.026161E-1	8.673349E-1	8.808871E-1	9.022684E-1	8.787234E-1	9.379572E-1	9.021221E-1	8.887334E-1	9.446375E-1	8.560640E-1	8.904267E-1	8.771336E-1	8.868295E-1	8.650391E-1	8.417935E-1	8.780712E-1	9.065899E-1	9.040458E-1	8.885963E-1	7.921539E-1	8.728801E-1	9.110901E-1	9.481967E-1	8.165354E-1	9.498166E-1	8.470958E-1	8.374460E-1	9.223102E-1	9.685906E-1	9.337098E-1	8.627907E-1	8.961937E-1	9.181992E-1	9.319135E-1	8.753219E-1	9.067748E-1	9.331156E-1	8.974727E-1	8.801333E-1	8.719389E-1	8.522403E-1	9.021742E-1	8.569000E-1	9.064210E-1	8.416888E-1	9.581237E-1	9.136269E-1	8.832384E-1	9.917898E-1	9.025854E-1	9.483506E-1	8.940156E-1	8.813402E-1	8.860758E-1	9.335399E-1	9.197311E-1	9.131652E-1	9.256792E-1	8.697379E-1	9.754143E-1	8.913666E-1	8.995952E-1	9.164254E-1	9.001131E-1	8.537166E-1	8.762895E-1	9.071069E-1	8.781632E-1	8.727754E-1	9.729105E-1	8.513258E-1	8.391412E-1	9.554856E-1	9.789639E-1	9.228770E-1	9.096285E-1	9.035252E-1	8.751078E-1	9.566073E-1	9.020626E-1	9.455049E-1	9.284495E-1	8.478120E-1	8.884063E-1	9.194180E-1	8.750081E-1	9.228318E-1	9.565683E-1	8.618705E-1	9.660051E-1	8.815708E-1	8.974963E-1	8.853110E-1	8.624187E-1	8.895362E-1	9.402132E-1	9.249538E-1	8.975569E-1	9.153521E-1	8.646100E-1	9.028487E-1	8.918525E-1	9.532668E-1	8.683527E-1	9.466481E-1	9.408099E-1	8.675618E-1	8.633733E-1	9.254275E-1	9.032481E-1	9.115297E-1	9.424235E-1
2.915210E+2	1.103048E+0	1.155905E+0	1.130959E+0	1.148357E+0	1.194367E+0	1.174603E+0	1.127987E+0	1.226204E+0	1.143844E+0	1.199311E+0	1.172180E+0	1.138981E+0	1.144544E+0	1.115373E+0	1.162018E+0	1.218300E+0	1.170206E+0	1.221942E+0	1.091278E+0	1.184062E+0	1.166803E+0	1.238737E+0	1.145735E+0	1.214033E+0	1.150138E+0	1.211168E+0	1.212037E+0	1.090371E+0	1.099734E+0	1.130235E+0	1.164229E+0	1.197920E+0	1.187326E+0	1.191637E+0	1.234829E+0	1.127008E+0	1.083953E+0	1.208196E+0	1.174482E+0	1.154645E+0	1.234218E+0	1.161594E+0	1.174728E+0	1.151638E+0	1.160987E+0	1.190939E+0	1.137893E+0	1.166179E+0	1.179957E+0	1.158660E+0	1.204973E+0	1.135980E+0	1.247146E+0	1.177122E+0	1.155854E+0	1.242925E+0	1.148720E+0	1.201384E+0	1.140513E+0	1.254528E+0	1.194596E+0	1.190534E+0	1.177487E+0	1.160519E+0	1.162775E+0	1.174362E+0	1.144108E+0	1.153843E+0	1.240133E+0	1.267323E+0	1.127468E+0	1.147386E+0	1.255018E+0	1.136493E+0	1.161140E+0	1.075709E+0	1.133811E+0	1.116191E+0	1.185950E+0	1.174967E+0	1.077698E+0	1.149498E+0	1.116769E+0	1.150105E+0	1.141288E+0	1.159874E+0	1.142684E+0	1.118969E+0	1.203759E+0	1.060091E+0	1.171573E+0	1.154625E+0	1.200013E+0	1.132903E+0	1.187051E+0	1.170891E+0	1.164814E+0	1.179482E+0	1.144569E+0	1.108448E+0	1.108509E+0	1.199153E+0	1.145087E+0	1.160936E+0	1.217193E+0	1.127646E+0	1.222601E+0	1.170610E+0	1.188030E+0	1.176500E+0	1.180181E+0	1.131918E+0	1.201127E+0	1.137206E+0	1.216782E+0	1.138216E+0	1.148315E+0	1.177374E+0	1.199011E+0	1.243655E+0	1.131670E+0	1.170565E+0	1.115094E+0	1.209123E+0	1.154695E+0	1.135806E+0	1.138211E+0	1.125332E+0	1.166493E+0	1.158333E+0	1.176231E+0	1.149267E+0	1.188065E+0	1.166051E+0	1.150101E+0	1.174884E+0	1.143077E+0	1.187197E+0	1.152355E+0	1.116038E+0	1.232996E+0	1.127817E+0	1.157844E+0	1.197351E+0	1.164498E+0	1.108380E+0	1.163531E+0	1.165611E+0	1.147087E+0	1.203889E+0	1.174933E+0	1.213441E+0	1.124973E+0	1.196079E+0	1.175081E+0	1.149261E+0	1.285831E+0	1.115967E+0	1.181181E+0	1.230256E+0	1.156713E+0	1.146572E+0	1.214104E+0	1.132314E+0	1.274616E+0	1.192749E+0	1.178156E+0	1.159275E+0	1.149559E+0	1.129235E+0	1.022820E+0	1.153052E+0
2.920010E+2	9.328639E-1	9.099698E-1	9.186957E-1	9.149904E-1	9.295964E-1	9.480688E-1	9.174805E-1	8.860102E-1	8.390253E-1	8.729542E-1	9.037814E-1	8.894689E-1	9.242921E-1	9.041788E-1	9.820512E-1	8.923759E-1	9.370871E-1	9.572143E-1	9.300078E-1	9.216491E-1	9.807011E-1	8.870403E-1	9.237632E-1	8.719863E-1	9.031822E-1	8.784837E-1	9.213469E-1	8.348402E-1	8.862192E-1	9.433819E-1	8.742395E-1	9.938897E-1	9.382200E-1	8.756571E-1	9.484022E-1	9.150431E-1	9.395135E-1	9.475012E-1	9.449817E-1	9.333391E-1	8.952457E-1	8.908512E-1	9.817605E-1	9.462960E-1	9.267506E-1	9.711367E-1	8.873387E-1	8.757158E-1	9.267381E-1	9.214663E-1	8.444126E-1	9.469017E-1	9.516580E-1	9.127937E-1	9.649701E-1	8.718962E-1	9.100845E-1	8.810651E-1	8.899348E-1	9.411428E-1	9.178091E-1	9.198285E-1	9.077508E-1	9.332272E-1	8.538533E-1	9.327293E-1	9.244208E-1	9.487611E-1	9.325723E-1	9.780247E-1	9.859487E-1	8.829277E-1	9.486461E-1	8.975912E-1	8.851618E-1	8.866891E-1	8.935217E-1	9.106105E-1	9.556116E-1	8.657594E-1	8.312766E-1	8.777295E-1	8.978089E-1	8.723670E-1	9.119266E-1	8.720970E-1	8.771173E-1	9.027519E-1	9.685176E-1	9.285784E-1	9.158048E-1	9.064283E-1	9.898715E-1	8.759047E-1	8.749216E-1	9.011072E-1	9.679899E-1	8.958826E-1	9.388421E-1	9.405047E-1	9.531857E-1	9.537843E-1	9.532764E-1	9.312062E-1	9.948442E-1	9.132517E-1	9.007538E-1	9.196293E-1	9.217022E-1	9.630826E-1	9.043320E-1	9.499409E-1	9.264579E-1	9.303201E-1	9.422797E-1	9.277563E-1	9.411627E-1	9.575075E-1	9.680928E-1	8.883850E-1	9.560018E-1	9.255975E-1	8.802813E-1	8.667372E-1	8.302106E-1	9.889039E-1	9.237747E-1	9.341453E-1	9.241311E-1	8.902157E-1	8.758635E-1	9.063224E-1	9.738908E-1	9.330627E-1	9.057282E-1	9.881977E-1	9.391143E-1	8.817631E-1	9.205043E-1	9.539986E-1	9.332968E-1	9.269511E-1	9.164738E-1	9.556167E-1	9.396637E-1	9.179824E-1	9.266467E-1	9.825074E-1	1.034715E+0	8.923546E-1	9.385223E-1	8.790314E-1	9.610548E-1	9.474399E-1	9.430342E-1	8.995069E-1	9.731449E-1	8.831614E-1	9.172973E-1	9.564686E-1	9.343920E-1	9.516529E-1	8.959062E-1	9.287224E-1	9.068354E-1	9.333013E-1	9.382654E-1	9.126338E-1	9.218477E-1	8.779413E-1	9.092722E-1	1.040142E+0
2.925000E+2	8.734370E-1	7.971656E-1	8.747917E-1	8.092982E-1	8.227523E-1	8.416627E-1	7.870940E-1	8.221722E-1	8.861311E-1	8.226482E-1	8.115134E-1	8.707695E-1	8.173447E-1	7.804170E-1	8.198626E-1	9.312828E-1	8.248094E-1	7.770906E-1	9.058799E-1	8.957201E-1	8.498262E-1	8.471597E-1	8.719365E-1	7.801330E-1	7.691304E-1	7.852919E-1	7.865706E-1	7.515925E-1	8.231686E-1	8.843682E-1	8.419320E-1	8.391770E-1	8.357216E-1	8.367977E-1	8.468024E-1	8.235221E-1	8.390301E-1	8.095516E-1	8.643944E-1	8.492891E-1	8.317598E-1	8.109061E-1	8.214316E-1	9.029926E-1	8.660848E-1	8.759605E-1	8.073952E-1	8.909402E-1	9.147405E-1	8.979322E-1	7.880756E-1	8.159489E-1	8.243299E-1	8.438602E-1	8.118682E-1	8.778185E-1	8.544977E-1	8.618215E-1	8.352970E-1	8.224258E-1	9.364200E-1	8.472198E-1	8.400027E-1	8.790835E-1	8.627287E-1	7.988630E-1	8.473187E-1	8.514330E-1	8.637684E-1	8.466156E-1	8.733634E-1	8.240970E-1	8.379258E-1	8.323959E-1	8.489808E-1	8.126491E-1	8.274732E-1	8.170167E-1	8.597562E-1	8.193438E-1	8.320491E-1	8.601009E-1	7.987930E-1	8.674555E-1	9.051031E-1	8.191840E-1	8.515705E-1	8.648814E-1	8.552052E-1	7.986734E-1	8.663764E-1	8.102108E-1	8.186027E-1	8.278003E-1	8.428338E-1	8.526217E-1	8.592368E-1	8.476958E-1	8.607925E-1	8.503644E-1	8.774221E-1	9.235516E-1	8.141697E-1	8.488788E-1	9.633422E-1	8.440012E-1	8.728530E-1	8.778681E-1	8.078647E-1	8.225854E-1	8.380979E-1	7.883466E-1	8.425308E-1	7.906452E-1	8.235469E-1	8.449427E-1	8.531626E-1	8.660762E-1	8.401467E-1	7.510417E-1	8.309330E-1	8.852383E-1	7.975295E-1	8.714401E-1	7.790728E-1	8.375110E-1	8.510073E-1	8.590039E-1	8.579532E-1	8.728884E-1	8.155150E-1	8.405955E-1	8.395923E-1	8.550549E-1	8.317468E-1	8.533386E-1	9.255927E-1	8.686423E-1	9.345847E-1	8.577493E-1	8.379983E-1	8.547141E-1	8.246455E-1	8.921326E-1	8.221283E-1	8.298181E-1	8.638228E-1	8.824655E-1	8.674249E-1	8.348636E-1	8.127865E-1	7.875156E-1	8.899332E-1	8.646148E-1	8.796569E-1	7.707891E-1	8.890370E-1	8.851268E-1	8.447543E-1	8.686054E-1	8.776123E-1	8.189189E-1	8.573188E-1	8.989109E-1	8.191838E-1	8.340348E-1	8.834633E-1	8.522182E-1	8.498022E-1	8.075464E-1	7.900074E-1	8.947181E-1
2.930010E+2	9.226070E-1	9.635818E-1	9.232028E-1	9.427822E-1	9.902620E-1	9.654198E-1	9.365400E-1	9.187197E-1	1.002795E+0	9.448386E-1	9.535200E-1	8.948768E-1	9.988554E-1	9.736390E-1	9.745414E-1	9.597237E-1	1.008011E+0	9.677575E-1	9.908033E-1	9.649234E-1	1.028196E+0	9.357375E-1	9.821722E-1	9.580614E-1	9.451748E-1	9.548041E-1	9.693602E-1	9.383368E-1	9.633363E-1	1.016904E+0	1.034950E+0	9.906079E-1	9.606007E-1	1.037949E+0	9.636411E-1	9.698624E-1	9.310435E-1	9.975599E-1	9.642051E-1	1.032028E+0	9.647088E-1	9.747336E-1	9.212109E-1	9.299610E-1	1.002690E+0	9.947065E-1	9.876370E-1	9.638029E-1	9.453516E-1	9.082800E-1	9.274747E-1	9.842375E-1	1.013057E+0	9.832961E-1	9.418904E-1	9.776837E-1	9.767868E-1	1.089609E+0	9.474304E-1	1.021684E+0	1.007874E+0	9.679513E-1	9.478894E-1	1.015176E+0	9.206226E-1	9.362511E-1	9.674858E-1	9.705439E-1	9.894899E-1	1.018498E+0	9.892267E-1	9.571372E-1	8.926122E-1	9.792590E-1	9.805618E-1	9.398578E-1	1.026825E+0	1.013651E+0	9.607625E-1	9.717334E-1	9.390112E-1	9.517749E-1	9.682000E-1	9.556728E-1	1.009280E+0	9.408209E-1	9.918972E-1	9.284010E-1	9.568868E-1	9.640019E-1	9.862680E-1	9.854513E-1	1.052478E+0	9.271428E-1	9.957792E-1	9.938007E-1	1.003003E+0	9.522210E-1	9.407296E-1	9.687647E-1	9.901824E-1	9.703124E-1	9.009295E-1	9.737618E-1	9.703819E-1	9.566344E-1	9.735643E-1	1.013161E+0	9.575312E-1	9.282276E-1	9.988400E-1	9.852711E-1	9.511980E-1	1.056824E+0	9.044573E-1	9.688760E-1	9.710561E-1	9.686138E-1	9.692240E-1	9.564224E-1	1.024511E+0	1.004906E+0	9.772555E-1	9.108152E-1	1.022093E+0	9.770570E-1	9.452682E-1	9.437061E-1	9.728875E-1	9.257581E-1	9.813466E-1	9.067128E-1	1.012835E+0	9.299483E-1	1.031087E+0	9.863460E-1	9.439705E-1	9.691590E-1	1.040193E+0	9.850789E-1	9.416687E-1	9.803858E-1	9.622814E-1	9.781951E-1	9.607164E-1	9.678092E-1	9.546709E-1	9.692974E-1	9.833247E-1	9.808048E-1	1.028186E+0	9.967281E-1	9.439322E-1	9.988702E-1	9.726212E-1	9.311670E-1	1.013717E+0	9.827627E-1	9.657839E-1	1.002909E+0	1.002362E+0	9.201230E-1	9.869511E-1	9.657142E-1	9.865010E-1	9.482744E-1	9.728384E-1	9.716127E-1	9.641758E-1	9.380822E-1	9.273231E-1	8.347595E-1
2.935120E+2	1.100859E+0	1.101571E+0	1.128001E+0	1.084845E+0	1.160712E+0	1.108798E+0	1.112334E+0	1.050558E+0	1.057222E+0	1.059834E+0	1.144306E+0	1.094247E+0	1.084281E+0	1.112997E+0	1.126894E+0	1.114263E+0	1.167775E+0	1.147819E+0	1.116309E+0	1.137851E+0	1.114260E+0	1.097045E+0	1.085274E+0	1.189682E+0	1.067948E+0	1.165849E+0	1.129334E+0	1.163954E+0	1.098961E+0	1.079296E+0	1.101345E+0	1.149200E+0	1.116146E+0	1.092671E+0	1.120780E+0	1.072546E+0	1.096622E+0	1.123254E+0	1.103207E+0	1.180827E+0	1.076779E+0	1.065542E+0	1.150162E+0	1.081216E+0	1.135225E+0	1.108352E+0	1.094527E+0	1.150307E+0	1.097065E+0	1.099074E+0	1.174462E+0	1.138092E+0	1.083284E+0	1.084269E+0	1.035432E+0	1.057892E+0	1.194280E+0	1.228232E+0	1.147338E+0	1.126538E+0	1.119163E+0	1.097538E+0	1.110623E+0	1.083689E+0	1.089066E+0	1.146940E+0	1.082939E+0	1.099932E+0	1.151043E+0	1.176468E+0	1.109583E+0	1.138835E+0	1.131454E+0	1.040538E+0	1.104639E+0	1.073501E+0	1.125765E+0	1.117179E+0	1.136698E+0	1.072796E+0	1.087659E+0	1.110845E+0	1.148168E+0	1.138366E+0	1.084204E+0	1.111131E+0	1.116025E+0	1.099247E+0	1.095331E+0	1.135869E+0	1.150900E+0	1.124887E+0	1.127489E+0	1.123536E+0	1.100974E+0	1.173257E+0	1.166238E+0	1.099959E+0	1.159240E+0	1.119095E+0	1.145427E+0	1.142020E+0	1.108534E+0	1.111743E+0	1.094522E+0	1.058756E+0	1.137146E+0	1.139906E+0	1.094166E+0	1.078679E+0	1.157055E+0	1.086693E+0	1.084369E+0	1.135577E+0	1.105819E+0	1.143063E+0	1.125459E+0	1.089933E+0	1.098214E+0	1.164001E+0	1.236045E+0	1.158277E+0	1.135663E+0	1.115972E+0	1.117065E+0	1.173340E+0	1.125857E+0	1.177533E+0	1.066775E+0	1.144856E+0	1.159708E+0	1.175659E+0	1.188271E+0	1.151434E+0	1.085855E+0	1.125439E+0	1.158531E+0	1.127631E+0	1.135173E+0	1.191574E+0	1.147799E+0	1.116472E+0	1.053889E+0	1.134394E+0	1.139223E+0	1.120239E+0	1.199932E+0	1.114864E+0	1.140346E+0	1.154638E+0	1.068643E+0	1.134450E+0	1.191112E+0	1.137862E+0	1.092264E+0	1.114901E+0	1.095098E+0	1.146051E+0	1.084300E+0	1.202304E+0	1.188895E+0	1.147663E+0	1.183080E+0	1.096955E+0	1.101327E+0	1.115038E+0	1.145066E+0	1.022999E+0	1.113497E+0	1.114878E+0	1.133976E+0	1.157070E+0
2.940080E+2	1.095918E+0	1.118012E+0	1.048239E+0	1.112236E+0	1.102309E+0	1.106618E+0	1.075788E+0	1.046732E+0	1.088944E+0	1.130933E+0	1.048329E+0	1.061667E+0	1.120077E+0	1.044111E+0	1.067451E+0	1.062164E+0	1.029432E+0	1.084500E+0	1.076440E+0	1.092780E+0	1.038702E+0	1.127388E+0	1.050564E+0	1.146572E+0	1.052111E+0	1.071061E+0	1.087969E+0	1.139235E+0	1.041538E+0	1.126943E+0	1.053667E+0	1.075153E+0	1.062261E+0	1.158561E+0	1.069985E+0	1.093385E+0	1.014439E+0	1.045375E+0	1.078869E+0	1.120100E+0	1.057231E+0	9.937959E-1	1.077476E+0	1.106452E+0	1.048395E+0	1.143253E+0	1.088011E+0	1.110671E+0	1.073315E+0	1.137454E+0	1.076537E+0	1.112810E+0	1.085657E+0	1.054492E+0	1.085305E+0	1.029151E+0	1.086436E+0	1.119051E+0	1.073251E+0	1.092291E+0	1.012346E+0	1.022701E+0	1.085200E+0	1.116640E+0	1.070411E+0	1.097001E+0	1.076583E+0	1.090409E+0	1.160323E+0	1.101039E+0	1.126178E+0	1.069069E+0	1.055426E+0	1.098902E+0	1.132790E+0	1.091829E+0	1.035927E+0	1.107823E+0	1.036904E+0	1.135224E+0	1.079839E+0	1.060401E+0	1.116424E+0	1.082736E+0	1.071800E+0	1.075986E+0	1.071655E+0	1.084400E+0	1.072430E+0	1.056777E+0	1.034551E+0	1.073063E+0	1.114583E+0	1.020953E+0	1.082172E+0	1.102495E+0	1.069848E+0	1.173535E+0	1.184068E+0	1.072049E+0	1.011753E+0	1.094152E+0	1.104120E+0	1.098296E+0	1.024378E+0	1.151625E+0	1.030979E+0	1.105491E+0	1.036533E+0	1.022553E+0	1.055778E+0	1.075288E+0	1.141382E+0	1.065456E+0	1.047869E+0	1.058633E+0	1.076443E+0	1.104067E+0	1.170138E+0	1.059778E+0	1.122166E+0	1.041752E+0	1.091964E+0	1.096944E+0	1.061013E+0	1.128769E+0	1.002261E+0	1.089996E+0	1.065853E+0	1.154591E+0	1.116376E+0	1.031812E+0	1.101926E+0	1.090200E+0	1.073308E+0	1.113280E+0	1.037249E+0	1.033922E+0	1.092295E+0	1.154108E+0	1.103085E+0	1.090273E+0	1.012073E+0	1.101264E+0	1.082312E+0	1.107549E+0	1.078710E+0	1.030821E+0	1.108049E+0	1.127800E+0	1.104324E+0	1.086964E+0	1.091055E+0	1.075444E+0	1.121264E+0	1.043131E+0	1.042420E+0	1.042052E+0	1.041567E+0	1.126022E+0	1.124313E+0	1.103530E+0	1.063658E+0	1.066329E+0	1.101017E+0	1.070479E+0	1.088267E+0	1.053669E+0	1.066015E+0	1.071729E+0	1.026472E+0	1.121066E+0
2.945030E+2	9.477722E-1	9.382169E-1	9.507626E-1	1.002167E+0	9.764288E-1	9.938789E-1	9.401404E-1	8.916870E-1	9.398248E-1	8.987762E-1	9.701397E-1	9.362570E-1	9.163192E-1	9.066403E-1	9.511598E-1	9.587169E-1	9.086489E-1	9.287501E-1	9.304260E-1	9.737401E-1	9.643767E-1	9.503288E-1	9.520489E-1	9.409753E-1	9.286234E-1	9.297380E-1	9.566300E-1	8.964149E-1	8.597281E-1	9.825148E-1	9.607390E-1	9.689214E-1	9.024077E-1	1.036247E+0	9.495740E-1	9.647243E-1	9.476631E-1	9.950113E-1	9.543446E-1	9.637207E-1	8.907810E-1	9.287344E-1	8.908812E-1	9.131852E-1	9.413007E-1	9.373656E-1	9.285308E-1	9.799010E-1	9.383397E-1	9.036379E-1	9.875949E-1	9.564174E-1	9.521942E-1	9.413877E-1	9.334642E-1	9.930132E-1	9.341302E-1	1.013972E+0	9.740269E-1	9.360533E-1	9.303479E-1	9.561243E-1	9.582099E-1	9.615069E-1	9.303497E-1	9.575440E-1	9.588943E-1	9.453307E-1	9.934807E-1	9.772912E-1	9.414927E-1	9.643577E-1	9.402177E-1	9.277389E-1	9.641885E-1	9.159101E-1	9.893582E-1	9.542842E-1	9.504359E-1	9.762074E-1	9.504461E-1	9.147472E-1	9.453505E-1	9.450743E-1	9.736422E-1	9.287439E-1	9.339668E-1	9.581041E-1	9.330388E-1	9.179070E-1	9.710449E-1	9.310257E-1	9.468828E-1	9.349643E-1	9.700916E-1	9.937012E-1	9.799303E-1	8.938164E-1	9.548207E-1	9.584906E-1	8.855802E-1	9.592328E-1	9.276931E-1	9.782512E-1	9.314743E-1	9.535276E-1	9.451403E-1	9.493737E-1	9.482425E-1	9.437755E-1	9.223570E-1	9.985067E-1	8.931236E-1	9.301961E-1	9.225703E-1	1.042084E+0	9.882306E-1	9.984613E-1	9.636235E-1	9.851620E-1	9.914868E-1	9.592286E-1	1.042375E+0	9.477157E-1	9.159352E-1	9.443795E-1	9.859366E-1	9.436052E-1	9.633530E-1	9.568664E-1	9.568351E-1	9.332900E-1	9.695628E-1	9.561268E-1	9.725275E-1	9.084566E-1	9.118487E-1	8.962617E-1	1.021477E+0	9.339964E-1	9.452794E-1	9.879984E-1	9.401191E-1	9.715219E-1	8.877237E-1	1.006964E+0	9.859021E-1	9.319655E-1	9.006717E-1	1.028341E+0	9.502552E-1	9.320663E-1	9.940698E-1	9.886895E-1	9.313550E-1	1.009724E+0	9.509239E-1	9.523450E-1	9.408742E-1	1.024634E+0	9.701444E-1	1.008696E+0	9.382732E-1	9.939583E-1	9.449713E-1	9.719105E-1	9.459048E-1	9.523380E-1	9.125423E-1	9.652323E-1	8.563256E-1	1.015753E+0
2.950050E+2	9.460227E-1	9.380270E-1	8.808537E-1	9.441168E-1	9.740788E-1	9.649919E-1	9.411739E-1	9.746487E-1	9.256199E-1	8.803365E-1	9.113611E-1	9.060903E-1	9.186579E-1	9.131834E-1	9.479522E-1	9.790697E-1	9.424820E-1	9.230169E-1	9.495112E-1	9.610850E-1	9.857545E-1	9.775544E-1	9.444605E-1	9.346648E-1	9.240094E-1	8.891485E-1	9.085733E-1	9.627498E-1	9.144423E-1	9.233178E-1	9.314661E-1	9.357096E-1	9.478301E-1	9.433773E-1	9.792871E-1	9.384418E-1	9.074469E-1	9.147032E-1	9.147597E-1	9.502050E-1	8.827575E-1	9.430115E-1	9.639685E-1	1.012199E+0	9.360717E-1	9.203723E-1	9.344683E-1	9.457816E-1	8.888505E-1	8.989799E-1	9.656434E-1	9.178071E-1	9.334776E-1	9.679213E-1	9.693349E-1	9.689975E-1	9.465002E-1	9.293956E-1	8.930622E-1	8.855928E-1	8.908634E-1	9.550355E-1	9.208300E-1	1.000780E+0	9.350984E-1	9.262958E-1	8.749444E-1	9.744651E-1	9.296043E-1	9.686903E-1	9.308331E-1	9.373574E-1	8.983226E-1	9.703470E-1	9.440709E-1	9.415283E-1	9.979675E-1	9.472819E-1	9.750407E-1	9.835747E-1	9.263330E-1	9.433497E-1	9.136346E-1	9.786728E-1	9.728550E-1	9.204850E-1	9.915979E-1	9.368104E-1	9.162243E-1	9.336809E-1	8.291894E-1	8.833897E-1	9.980344E-1	9.209861E-1	9.390584E-1	1.005968E+0	9.586329E-1	9.698732E-1	9.297191E-1	9.315428E-1	9.359365E-1	9.330030E-1	9.177007E-1	9.260765E-1	9.338220E-1	9.176298E-1	9.673493E-1	9.381947E-1	9.443187E-1	9.488064E-1	9.137089E-1	8.674176E-1	9.471695E-1	9.836447E-1	9.092645E-1	9.409577E-1	9.374788E-1	9.692916E-1	9.977818E-1	9.491652E-1	9.591830E-1	9.440285E-1	9.632193E-1	9.430002E-1	9.790977E-1	9.320623E-1	9.251541E-1	9.160539E-1	9.553621E-1	9.494162E-1	9.365477E-1	9.225878E-1	8.904741E-1	9.419399E-1	9.368180E-1	9.306922E-1	9.877674E-1	9.142123E-1	9.862915E-1	9.626018E-1	9.405455E-1	9.412257E-1	9.347851E-1	9.847885E-1	9.461112E-1	9.593843E-1	9.164170E-1	9.331933E-1	9.417503E-1	1.039270E+0	9.571983E-1	9.809747E-1	9.582909E-1	9.864087E-1	9.975787E-1	9.675487E-1	9.318859E-1	9.717283E-1	9.722633E-1	1.028347E+0	9.967163E-1	9.503681E-1	9.570673E-1	9.577834E-1	9.415104E-1	9.665280E-1	8.966122E-1	9.938606E-1	9.023585E-1	9.632324E-1	1.058699E+0	1.014707E+0
2.955080E+2	1.023625E+0	1.004401E+0	1.021905E+0	1.005998E+0	1.014042E+0	1.064369E+0	1.028514E+0	1.017099E+0	1.030624E+0	1.057112E+0	1.004099E+0	1.026661E+0	1.092298E+0	1.061504E+0	1.013671E+0	9.962137E-1	1.003987E+0	1.104200E+0	1.007325E+0	1.070754E+0	1.078425E+0	1.060718E+0	1.069716E+0	1.060421E+0	1.056535E+0	1.047110E+0	9.668818E-1	9.988594E-1	1.003490E+0	1.003632E+0	1.071599E+0	1.069969E+0	1.032814E+0	1.010510E+0	9.983486E-1	9.626098E-1	1.004622E+0	1.110718E+0	1.025386E+0	1.110008E+0	1.013331E+0	1.027833E+0	1.030638E+0	1.056807E+0	1.076429E+0	1.021932E+0	9.952420E-1	9.815492E-1	1.054709E+0	1.056679E+0	1.050007E+0	1.044284E+0	1.061831E+0	1.058311E+0	1.057153E+0	1.042219E+0	1.015741E+0	1.076642E+0	1.053133E+0	1.099178E+0	1.051989E+0	1.036110E+0	9.944900E-1	1.122945E+0	1.053484E+0	1.085861E+0	1.035455E+0	9.704487E-1	1.036852E+0	1.088995E+0	1.072477E+0	1.094899E+0	1.061900E+0	1.008450E+0	1.003408E+0	1.082043E+0	1.095441E+0	1.036608E+0	1.034508E+0	1.042233E+0	1.014278E+0	1.020819E+0	1.011100E+0	1.086067E+0	1.110095E+0	1.037083E+0	1.058615E+0	1.072520E+0	1.088902E+0	1.041088E+0	1.064152E+0	1.059574E+0	1.050389E+0	1.035628E+0	1.046363E+0	1.028959E+0	1.045009E+0	1.117949E+0	1.062579E+0	1.088186E+0	1.031043E+0	1.040418E+0	1.064671E+0	1.003261E+0	1.074683E+0	1.016114E+0	1.085409E+0	1.035528E+0	1.069561E+0	1.030441E+0	1.050558E+0	1.053051E+0	1.028014E+0	1.097036E+0	1.069215E+0	1.080833E+0	1.052299E+0	1.045221E+0	1.079851E+0	1.017963E+0	1.059235E+0	1.083066E+0	1.105449E+0	1.011893E+0	1.065797E+0	1.073875E+0	1.051548E+0	1.060997E+0	1.012068E+0	1.076399E+0	9.635246E-1	1.000340E+0	1.065936E+0	1.048044E+0	1.022818E+0	1.011831E+0	1.060606E+0	1.021135E+0	1.045767E+0	1.101953E+0	1.084018E+0	1.008426E+0	1.013234E+0	1.070369E+0	1.077460E+0	1.076371E+0	1.032979E+0	1.088680E+0	1.046578E+0	1.023007E+0	1.020954E+0	1.030293E+0	1.044918E+0	1.103420E+0	1.060654E+0	1.041520E+0	1.031339E+0	1.069569E+0	1.055696E+0	1.010637E+0	1.022451E+0	1.049652E+0	1.084976E+0	1.005409E+0	1.057890E+0	1.074174E+0	1.003068E+0	1.068418E+0	1.026798E+0	9.790815E-1	1.058871E+0	1.189840E+0
2.960030E+2	1.028933E+0	1.031878E+0	1.067866E+0	1.026169E+0	1.103060E+0	1.070160E+0	1.085679E+0	1.118065E+0	1.060332E+0	1.036407E+0	1.089985E+0	1.092617E+0	1.151519E+0	1.044148E+0	1.087622E+0	1.145204E+0	1.098852E+0	1.086494E+0	1.097639E+0	1.084897E+0	1.122111E+0	1.064206E+0	1.053592E+0	1.125865E+0	1.051251E+0	1.097125E+0	1.037831E+0	1.067381E+0	1.095843E+0	1.125531E+0	1.137058E+0	1.049048E+0	1.060906E+0	1.146403E+0	1.092644E+0	1.066620E+0	1.073641E+0	1.081562E+0	1.077574E+0	1.103526E+0	1.030471E+0	1.131634E+0	1.070268E+0	1.071119E+0	1.077185E+0	1.054480E+0	1.100723E+0	1.102124E+0	1.087330E+0	1.088904E+0	1.057206E+0	1.077783E+0	1.047568E+0	1.071141E+0	1.065037E+0	1.075381E+0	1.058593E+0	1.129283E+0	1.096480E+0	1.085141E+0	1.090696E+0	1.058161E+0	1.042117E+0	1.068196E+0	9.986601E-1	1.092930E+0	1.039280E+0	1.161852E+0	1.120937E+0	1.111122E+0	1.139980E+0	1.076402E+0	1.069362E+0	1.109761E+0	1.080647E+0	1.111919E+0	1.084443E+0	1.101283E+0	1.090332E+0	1.080612E+0	1.023197E+0	1.100402E+0	1.134139E+0	1.030128E+0	1.116078E+0	1.122031E+0	1.131622E+0	1.094125E+0	1.081253E+0	1.042828E+0	1.044690E+0	1.084672E+0	1.046321E+0	1.068533E+0	1.131495E+0	1.131747E+0	1.069183E+0	1.047348E+0	1.110237E+0	1.136377E+0	1.088516E+0	1.096750E+0	1.071118E+0	1.063256E+0	1.076631E+0	1.124319E+0	1.086319E+0	1.047945E+0	1.080160E+0	1.072092E+0	1.122987E+0	1.039375E+0	1.084301E+0	1.105746E+0	1.089961E+0	1.094875E+0	1.040613E+0	1.102067E+0	1.137721E+0	1.116847E+0	1.108707E+0	1.024653E+0	1.085256E+0	1.115463E+0	1.006110E+0	1.076041E+0	1.053919E+0	1.110830E+0	1.107327E+0	1.062072E+0	1.132092E+0	1.069286E+0	1.064348E+0	1.095552E+0	1.022785E+0	1.058066E+0	1.087335E+0	1.087443E+0	1.178415E+0	1.135692E+0	1.078284E+0	1.059286E+0	9.621205E-1	1.114858E+0	1.112856E+0	1.077764E+0	1.096523E+0	1.090597E+0	1.102681E+0	1.093794E+0	1.104098E+0	1.108233E+0	1.063930E+0	1.077776E+0	1.073996E+0	1.108557E+0	1.093849E+0	1.098549E+0	1.094682E+0	1.042691E+0	1.090368E+0	1.084227E+0	1.085252E+0	1.168580E+0	1.094045E+0	1.078674E+0	1.067454E+0	1.106471E+0	1.056610E+0	1.159978E+0	1.054346E+0	1.084409E+0
2.964980E+2	9.765939E-1	8.828036E-1	9.045108E-1	9.204033E-1	9.268926E-1	8.981637E-1	8.757855E-1	9.275343E-1	8.995079E-1	9.220802E-1	9.001082E-1	8.822803E-1	9.415630E-1	9.407252E-1	8.822552E-1	8.991179E-1	8.708391E-1	9.405757E-1	9.046379E-1	9.228598E-1	8.827983E-1	9.610969E-1	9.124523E-1	9.169677E-1	8.988346E-1	8.898689E-1	9.020150E-1	8.577640E-1	8.577752E-1	8.746058E-1	9.335706E-1	8.849158E-1	9.148095E-1	9.760225E-1	8.667104E-1	8.985513E-1	9.093662E-1	9.509140E-1	9.451103E-1	9.130169E-1	9.291103E-1	9.200110E-1	9.094094E-1	9.385329E-1	9.011411E-1	8.767867E-1	8.863091E-1	9.319987E-1	9.317294E-1	8.864193E-1	9.278534E-1	8.648764E-1	8.939542E-1	9.622086E-1	9.004649E-1	8.713278E-1	9.157151E-1	9.259161E-1	9.709888E-1	8.861081E-1	9.345072E-1	9.091681E-1	8.728234E-1	8.976824E-1	9.131668E-1	8.847674E-1	9.050576E-1	9.413671E-1	9.111685E-1	8.933113E-1	9.272258E-1	8.790629E-1	9.531911E-1	9.080131E-1	8.977045E-1	8.711659E-1	9.332004E-1	9.713368E-1	8.862466E-1	9.075133E-1	9.126379E-1	8.703516E-1	8.730356E-1	8.879887E-1	9.265149E-1	9.216788E-1	8.501292E-1	8.233524E-1	9.073451E-1	9.179597E-1	9.390976E-1	8.745398E-1	9.237599E-1	9.360355E-1	8.761338E-1	9.183361E-1	9.498495E-1	8.819636E-1	9.299592E-1	8.803457E-1	9.111763E-1	8.941989E-1	9.108899E-1	9.094739E-1	8.895067E-1	9.533775E-1	9.306012E-1	9.600866E-1	9.225287E-1	9.478992E-1	9.486437E-1	8.911337E-1	9.293775E-1	9.332787E-1	8.843010E-1	8.802990E-1	8.995218E-1	8.911843E-1	9.392556E-1	8.953161E-1	9.327582E-1	9.055011E-1	8.903929E-1	9.266400E-1	8.898950E-1	9.147880E-1	8.866246E-1	8.791294E-1	9.186277E-1	8.985967E-1	8.950380E-1	8.647159E-1	8.912902E-1	8.873323E-1	9.117021E-1	9.356939E-1	9.551696E-1	8.438545E-1	9.873460E-1	9.221898E-1	9.276250E-1	9.047806E-1	8.796163E-1	9.255798E-1	9.704496E-1	9.462451E-1	9.161505E-1	9.690314E-1	9.036691E-1	9.101288E-1	9.205556E-1	9.077378E-1	9.124199E-1	9.216337E-1	9.290157E-1	9.196901E-1	9.734296E-1	9.161196E-1	9.240641E-1	9.289153E-1	9.544966E-1	9.214357E-1	9.155972E-1	9.314138E-1	9.533185E-1	9.377703E-1	8.890757E-1	9.239917E-1	9.394014E-1	8.957270E-1	9.745996E-1	9.080833E-1
2.970040E+2	7.753742E-1	7.806305E-1	7.541365E-1	7.896017E-1	7.864896E-1	7.444863E-1	7.778255E-1	7.540807E-1	8.122448E-1	7.468345E-1	7.576333E-1	7.571887E-1	7.986262E-1	7.984554E-1	8.187979E-1	8.078622E-1	7.797459E-1	8.237505E-1	8.218414E-1	8.315696E-1	7.927175E-1	7.965424E-1	8.367280E-1	8.632160E-1	8.188944E-1	8.117678E-1	8.049134E-1	7.669406E-1	7.748731E-1	7.726197E-1	7.626712E-1	7.643552E-1	8.091287E-1	8.459850E-1	7.789675E-1	7.512927E-1	7.636583E-1	8.013294E-1	7.867799E-1	8.113747E-1	8.161402E-1	8.042694E-1	8.176277E-1	8.265285E-1	7.660246E-1	7.776591E-1	7.954122E-1	7.822163E-1	7.088280E-1	8.084641E-1	8.009446E-1	8.171389E-1	7.907542E-1	8.069255E-1	7.957123E-1	7.368186E-1	7.757402E-1	7.670049E-1	8.072974E-1	8.267027E-1	7.738080E-1	8.071079E-1	7.936772E-1	7.771122E-1	8.078890E-1	8.148370E-1	8.127391E-1	7.829612E-1	8.046818E-1	8.094088E-1	8.006193E-1	8.421393E-1	7.901101E-1	7.766291E-1	8.020214E-1	8.044748E-1	8.327672E-1	8.101985E-1	7.757464E-1	7.711770E-1	7.381655E-1	7.691708E-1	8.228503E-1	7.818030E-1	8.058136E-1	8.388917E-1	7.663329E-1	7.790966E-1	7.352172E-1	7.444213E-1	7.996228E-1	7.829235E-1	7.244457E-1	7.574900E-1	8.007330E-1	8.490175E-1	7.911720E-1	8.489695E-1	8.233340E-1	7.767035E-1	7.902036E-1	7.725141E-1	7.573848E-1	8.227147E-1	8.379374E-1	8.275285E-1	7.788136E-1	7.718440E-1	7.912851E-1	7.929468E-1	7.925163E-1	7.330996E-1	8.304431E-1	8.186761E-1	7.768227E-1	7.916890E-1	7.637031E-1	7.620783E-1	7.710088E-1	8.236441E-1	7.403998E-1	7.908819E-1	8.293318E-1	8.510925E-1	7.712707E-1	8.349752E-1	7.670363E-1	7.755596E-1	8.015955E-1	7.781951E-1	7.528312E-1	7.256320E-1	7.705032E-1	8.133235E-1	8.032927E-1	7.842156E-1	7.560712E-1	7.828201E-1	8.088603E-1	8.028510E-1	7.732587E-1	7.796041E-1	7.368017E-1	7.714700E-1	8.258747E-1	8.285134E-1	8.656959E-1	7.978512E-1	7.855469E-1	7.750239E-1	8.269103E-1	7.932944E-1	8.140347E-1	7.838988E-1	8.457002E-1	8.002833E-1	8.439496E-1	7.619998E-1	8.243050E-1	8.194013E-1	8.334672E-1	8.243437E-1	7.804739E-1	7.579310E-1	7.545585E-1	7.997617E-1	7.717245E-1	7.645651E-1	7.340700E-1	8.211641E-1	7.691439E-1	8.498139E-1
2.975040E+2	9.217964E-1	9.397032E-1	9.268141E-1	9.247814E-1	9.379456E-1	8.558167E-1	9.244022E-1	9.040356E-1	9.496901E-1	9.048306E-1	9.056871E-1	9.180359E-1	9.059528E-1	9.251418E-1	9.256583E-1	9.322647E-1	8.817821E-1	9.001378E-1	9.499574E-1	9.056890E-1	9.225583E-1	9.382312E-1	9.127913E-1	9.287985E-1	8.627341E-1	8.934378E-1	8.851837E-1	8.908237E-1	8.955558E-1	9.238842E-1	9.117972E-1	8.553726E-1	8.926853E-1	8.634373E-1	8.843892E-1	9.429827E-1	9.143684E-1	9.029429E-1	9.097674E-1	9.311947E-1	9.005839E-1	9.076571E-1	8.937734E-1	9.482608E-1	9.049234E-1	9.149552E-1	9.299771E-1	9.026835E-1	9.135148E-1	8.978087E-1	8.993535E-1	9.128406E-1	9.044080E-1	8.881294E-1	9.166390E-1	9.210551E-1	9.109771E-1	8.810218E-1	9.004997E-1	9.165773E-1	9.227154E-1	9.689676E-1	9.060930E-1	9.262891E-1	8.806114E-1	8.918787E-1	8.571538E-1	8.846534E-1	9.303028E-1	9.143585E-1	9.012741E-1	8.733751E-1	9.234295E-1	8.934337E-1	9.057882E-1	8.989158E-1	9.263243E-1	9.073525E-1	8.996130E-1	8.869614E-1	9.139248E-1	9.314864E-1	9.666471E-1	9.378444E-1	9.767765E-1	9.150693E-1	8.931574E-1	8.890670E-1	8.717094E-1	9.068324E-1	8.874371E-1	9.364303E-1	9.141327E-1	9.001967E-1	9.057598E-1	9.336281E-1	8.805534E-1	9.152297E-1	8.839697E-1	9.045826E-1	8.990044E-1	8.991065E-1	9.129925E-1	8.990267E-1	8.706188E-1	8.874962E-1	9.251126E-1	8.871380E-1	9.427699E-1	9.401050E-1	9.305963E-1	9.530019E-1	9.170564E-1	9.282818E-1	8.549513E-1	9.086955E-1	9.467769E-1	8.823702E-1	9.029648E-1	9.245862E-1	9.628980E-1	8.524399E-1	9.066214E-1	9.723963E-1	8.577034E-1	9.293726E-1	9.106016E-1	8.977556E-1	9.059403E-1	9.222910E-1	8.837400E-1	9.388886E-1	8.932823E-1	8.725811E-1	8.835937E-1	9.055112E-1	9.141496E-1	9.410772E-1	8.937925E-1	9.172985E-1	8.994038E-1	9.266515E-1	8.822096E-1	8.897297E-1	9.179597E-1	9.180169E-1	8.787880E-1	9.110853E-1	8.914789E-1	8.414046E-1	8.968324E-1	9.087636E-1	9.275317E-1	9.155323E-1	9.250128E-1	8.617597E-1	9.245235E-1	9.306707E-1	9.443274E-1	9.245474E-1	9.044488E-1	9.135208E-1	9.334792E-1	8.993130E-1	9.326794E-1	8.698390E-1	8.863744E-1	9.468478E-1	9.291872E-1	9.022630E-1	8.687309E-1	9.307345E-1
2.980040E+2	1.070870E+0	9.917461E-1	1.008922E+0	1.032258E+0	1.046676E+0	1.032993E+0	1.045981E+0	1.077349E+0	1.031110E+0	1.007592E+0	1.056171E+0	1.033482E+0	1.012831E+0	1.028674E+0	9.948549E-1	1.045619E+0	1.020527E+0	1.021553E+0	1.056854E+0	1.049989E+0	1.013403E+0	1.026264E+0	1.030235E+0	1.065247E+0	1.046923E+0	1.068533E+0	1.027992E+0	1.007969E+0	1.029168E+0	1.016099E+0	1.037648E+0	1.084583E+0	9.784921E-1	1.016350E+0	9.942191E-1	1.027382E+0	9.958809E-1	1.076794E+0	1.024400E+0	1.020110E+0	1.013820E+0	1.039113E+0	1.024744E+0	9.940125E-1	1.028164E+0	9.894304E-1	1.008651E+0	1.023678E+0	1.031120E+0	1.014317E+0	1.073834E+0	1.009203E+0	1.046252E+0	9.802067E-1	1.006803E+0	1.008741E+0	1.051192E+0	1.013833E+0	1.044502E+0	1.002062E+0	1.024193E+0	1.024589E+0	1.037135E+0	1.020595E+0	1.070872E+0	1.005791E+0	1.052854E+0	1.022105E+0	1.019644E+0	1.015535E+0	1.077509E+0	1.088651E+0	9.906992E-1	1.014286E+0	1.057404E+0	1.064032E+0	1.000833E+0	1.013923E+0	1.071594E+0	1.034416E+0	1.023864E+0	1.025565E+0	1.041185E+0	1.051688E+0	1.016353E+0	1.083325E+0	1.015938E+0	1.028937E+0	1.004080E+0	1.050054E+0	1.021438E+0	1.036440E+0	1.014677E+0	1.043172E+0	1.068770E+0	1.030522E+0	1.069943E+0	1.033335E+0	9.930711E-1	1.034396E+0	1.055068E+0	1.011983E+0	1.012658E+0	1.069390E+0	9.580224E-1	1.078166E+0	1.032494E+0	9.962652E-1	1.027331E+0	1.049507E+0	9.824869E-1	1.022023E+0	1.061970E+0	1.057604E+0	1.010281E+0	1.032971E+0	1.071910E+0	1.025844E+0	9.668969E-1	1.017361E+0	9.816575E-1	1.041544E+0	1.001094E+0	1.049082E+0	1.016146E+0	1.007661E+0	1.050321E+0	1.036072E+0	1.079479E+0	1.051565E+0	1.012788E+0	1.004807E+0	1.013152E+0	1.050776E+0	1.047724E+0	1.034775E+0	1.062535E+0	1.033745E+0	1.053603E+0	1.061766E+0	1.017590E+0	1.009248E+0	1.020063E+0	1.039923E+0	1.045041E+0	1.062405E+0	1.046827E+0	1.025770E+0	1.005643E+0	1.025231E+0	1.098357E+0	9.894016E-1	1.011981E+0	1.062692E+0	1.048201E+0	1.042716E+0	1.030647E+0	9.896273E-1	9.698250E-1	1.047119E+0	9.813169E-1	1.060414E+0	1.029914E+0	1.017364E+0	1.083665E+0	1.069420E+0	9.766133E-1	1.034553E+0	1.030290E+0	1.055536E+0	1.011959E+0	1.024299E+0
2.985020E+2	9.912948E-1	9.967571E-1	1.050910E+0	9.983232E-1	1.049880E+0	1.029830E+0	1.033469E+0	1.015204E+0	1.041289E+0	1.053576E+0	1.078228E+0	1.031831E+0	1.050152E+0	1.052482E+0	1.046425E+0	1.002816E+0	1.057302E+0	1.073068E+0	1.014419E+0	1.046513E+0	1.044511E+0	1.025298E+0	1.060255E+0	1.086283E+0	1.100671E+0	1.059074E+0	1.065570E+0	1.026864E+0	1.035823E+0	1.052656E+0	1.011078E+0	1.046052E+0	1.054167E+0	1.082551E+0	1.019314E+0	1.074599E+0	1.078530E+0	1.046583E+0	1.034593E+0	1.031784E+0	1.046865E+0	1.070997E+0	1.065508E+0	1.034548E+0	1.024389E+0	1.049274E+0	1.065032E+0	1.088250E+0	1.068901E+0	1.070166E+0	1.056436E+0	1.059986E+0	1.026845E+0	1.082922E+0	1.039439E+0	1.047661E+0	1.023648E+0	1.082406E+0	1.081208E+0	1.061329E+0	1.044377E+0	1.029405E+0	1.054117E+0	1.023251E+0	1.069363E+0	1.058777E+0	1.075431E+0	1.064264E+0	1.050014E+0	1.093182E+0	1.041091E+0	1.074272E+0	1.005813E+0	1.032896E+0	1.050398E+0	1.087402E+0	1.041757E+0	1.071593E+0	1.072919E+0	1.067397E+0	1.043124E+0	1.047748E+0	1.020975E+0	1.004211E+0	1.045743E+0	1.041114E+0	1.064078E+0	1.050142E+0	1.098976E+0	1.050675E+0	1.051746E+0	1.059848E+0	1.050292E+0	1.056607E+0	1.040463E+0	1.006409E+0	1.008265E+0	9.801215E-1	1.109185E+0	1.028769E+0	1.002714E+0	1.033868E+0	1.066620E+0	1.026320E+0	1.047494E+0	1.028725E+0	1.021589E+0	1.046196E+0	1.004334E+0	9.825657E-1	1.074171E+0	1.043569E+0	1.053437E+0	1.074436E+0	1.065715E+0	1.059185E+0	9.997417E-1	1.035076E+0	1.052045E+0	1.012669E+0	1.096477E+0	1.061487E+0	1.037248E+0	1.043645E+0	1.058790E+0	1.069070E+0	1.051164E+0	1.056344E+0	1.039179E+0	1.011491E+0	1.115324E+0	1.052175E+0	1.060741E+0	1.094351E+0	1.059676E+0	1.049828E+0	1.054821E+0	1.095402E+0	1.033199E+0	1.052208E+0	1.071327E+0	1.034645E+0	1.009931E+0	1.039119E+0	1.031274E+0	1.077321E+0	1.020031E+0	1.030720E+0	1.039569E+0	1.074663E+0	1.018736E+0	1.074473E+0	1.029300E+0	1.008544E+0	1.082590E+0	1.088433E+0	1.051092E+0	1.079088E+0	1.095118E+0	1.029935E+0	1.083147E+0	1.039324E+0	1.040255E+0	1.073455E+0	1.000106E+0	1.060245E+0	1.072144E+0	1.074234E+0	1.030369E+0	1.022511E+0	1.040145E+0	1.026320E+0
2.990010E+2	9.790567E-1	1.028399E+0	9.257034E-1	1.022331E+0	9.545458E-1	1.038944E+0	9.892900E-1	1.005454E+0	9.553259E-1	1.014447E+0	9.572166E-1	9.860657E-1	9.858836E-1	9.971591E-1	1.006946E+0	9.808272E-1	1.001372E+0	9.867844E-1	9.707905E-1	9.888778E-1	9.980028E-1	1.004282E+0	9.473438E-1	9.496097E-1	9.753871E-1	9.945605E-1	9.937462E-1	1.020568E+0	9.533199E-1	1.033664E+0	1.021368E+0	9.958639E-1	1.017239E+0	9.991144E-1	1.000958E+0	9.910676E-1	9.983789E-1	9.956413E-1	9.966604E-1	9.955643E-1	1.037050E+0	9.694149E-1	1.004082E+0	1.017568E+0	9.955643E-1	9.716927E-1	9.879165E-1	9.630658E-1	1.022863E+0	9.534044E-1	9.722945E-1	9.657855E-1	1.006997E+0	1.000970E+0	1.016762E+0	1.003789E+0	9.631805E-1	1.026431E+0	9.896258E-1	9.971620E-1	1.002073E+0	9.966615E-1	9.777349E-1	9.958473E-1	1.017604E+0	1.015911E+0	9.684804E-1	9.969911E-1	9.998933E-1	9.639031E-1	9.995547E-1	9.782494E-1	1.028700E+0	9.947530E-1	9.824150E-1	9.503045E-1	1.014065E+0	1.010995E+0	9.717083E-1	9.652712E-1	9.755613E-1	9.953005E-1	1.001277E+0	9.783651E-1	9.515267E-1	9.817757E-1	1.022391E+0	1.024089E+0	1.000104E+0	9.544089E-1	1.013952E+0	9.553821E-1	9.853264E-1	9.580975E-1	9.889189E-1	9.685925E-1	1.002702E+0	1.033592E+0	9.921980E-1	9.966373E-1	9.758446E-1	1.004504E+0	9.945302E-1	9.309184E-1	1.080670E+0	1.013282E+0	9.987773E-1	1.000701E+0	1.009762E+0	9.912853E-1	9.855944E-1	9.676643E-1	9.516944E-1	9.852695E-1	1.013723E+0	9.566821E-1	9.981564E-1	1.031386E+0	9.674185E-1	9.655640E-1	9.497343E-1	1.025138E+0	1.039522E+0	9.464115E-1	1.001312E+0	9.905931E-1	1.009193E+0	9.769593E-1	9.750944E-1	1.017169E+0	1.024852E+0	1.014856E+0	9.841677E-1	1.006200E+0	1.004640E+0	1.020737E+0	9.664496E-1	9.718199E-1	1.008279E+0	9.979040E-1	9.891132E-1	9.787524E-1	1.015548E+0	1.017650E+0	9.910492E-1	9.974835E-1	9.985764E-1	1.010052E+0	9.824647E-1	9.944685E-1	9.737528E-1	9.960902E-1	9.947751E-1	1.011381E+0	9.945116E-1	9.988032E-1	9.636166E-1	1.039761E+0	9.723796E-1	9.895487E-1	9.480836E-1	9.853502E-1	9.436349E-1	9.753343E-1	9.800402E-1	1.037226E+0	9.866476E-1	9.483534E-1	9.670119E-1	1.011743E+0	1.002324E+0	1.087142E+0
2.995040E+2	1.011504E+0	9.932421E-1	1.029222E+0	1.020337E+0	9.893719E-1	1.032786E+0	9.924706E-1	9.301625E-1	1.008974E+0	1.021440E+0	9.809174E-1	1.021859E+0	1.009606E+0	9.869320E-1	1.027812E+0	1.016449E+0	1.004407E+0	1.004586E+0	9.951629E-1	9.658231E-1	9.778747E-1	1.036570E+0	1.049396E+0	9.578342E-1	9.960572E-1	1.004418E+0	9.819200E-1	1.014060E+0	1.058243E+0	1.012834E+0	1.023335E+0	1.032061E+0	1.027959E+0	1.020655E+0	1.043755E+0	9.378103E-1	9.562178E-1	9.706688E-1	9.935189E-1	9.822737E-1	9.892496E-1	1.030193E+0	9.828640E-1	9.499801E-1	1.010969E+0	1.054474E+0	9.968328E-1	1.015264E+0	9.498226E-1	1.023435E+0	9.759678E-1	1.039162E+0	9.894966E-1	1.052718E+0	9.968282E-1	9.947832E-1	1.035016E+0	1.023819E+0	9.787202E-1	1.003568E+0	9.842569E-1	9.927929E-1	1.014741E+0	9.991915E-1	9.776866E-1	1.001450E+0	1.002817E+0	9.821466E-1	1.012923E+0	1.029145E+0	1.012223E+0	9.938630E-1	1.001011E+0	1.020042E+0	9.519271E-1	9.754707E-1	1.000362E+0	9.975475E-1	1.015236E+0	1.014609E+0	1.005026E+0	1.029545E+0	9.626223E-1	1.024129E+0	9.872608E-1	9.682484E-1	9.899227E-1	1.018650E+0	1.039515E+0	1.029277E+0	9.900730E-1	9.966482E-1	1.008070E+0	9.827885E-1	1.002413E+0	9.777387E-1	1.026735E+0	1.025881E+0	1.031367E+0	1.031482E+0	1.029179E+0	1.029084E+0	1.010381E+0	1.034134E+0	1.007832E+0	9.609949E-1	1.013061E+0	1.050370E+0	9.821991E-1	1.020063E+0	9.933614E-1	1.001976E+0	9.657528E-1	9.632778E-1	1.008507E+0	1.000045E+0	9.660663E-1	1.048742E+0	1.045318E+0	1.041836E+0	1.005648E+0	9.803345E-1	9.799015E-1	1.024760E+0	1.026084E+0	9.892927E-1	9.662307E-1	1.015331E+0	1.048587E+0	1.008187E+0	9.799493E-1	9.702823E-1	1.020072E+0	9.813777E-1	9.997374E-1	9.796566E-1	9.720800E-1	9.690855E-1	1.000761E+0	9.626267E-1	9.655683E-1	1.051475E+0	1.013188E+0	1.014442E+0	9.962311E-1	9.498696E-1	1.035709E+0	1.001037E+0	1.064393E+0	1.018008E+0	1.010539E+0	1.031785E+0	9.829096E-1	9.866600E-1	9.679152E-1	1.007100E+0	1.042762E+0	9.622735E-1	1.009657E+0	9.912487E-1	1.020561E+0	9.856369E-1	1.039674E+0	9.825256E-1	9.951348E-1	9.996379E-1	1.011220E+0	9.740779E-1	9.724065E-1	1.028229E+0	1.030003E+0	1.005312E+0
3.000060E+2	1.025478E+0	1.050153E+0	1.058428E+0	1.001969E+0	1.021581E+0	1.009631E+0	1.014386E+0	1.067794E+0	1.013611E+0	9.981151E-1	1.021780E+0	1.008726E+0	1.035574E+0	1.009611E+0	9.983037E-1	1.022024E+0	1.034610E+0	1.013871E+0	1.012816E+0	1.043108E+0	1.043650E+0	9.693550E-1	9.999795E-1	1.012227E+0	1.018228E+0	9.799776E-1	1.045588E+0	1.039715E+0	1.027891E+0	9.608622E-1	9.947739E-1	9.860672E-1	1.029457E+0	1.017893E+0	1.057365E+0	1.026159E+0	1.056624E+0	1.007371E+0	1.041060E+0	1.039073E+0	1.012431E+0	9.826244E-1	1.029029E+0	1.055631E+0	1.035990E+0	1.020173E+0	1.011590E+0	1.007059E+0	1.013778E+0	1.040869E+0	1.022114E+0	1.013023E+0	1.026000E+0	9.950538E-1	1.023529E+0	1.023971E+0	1.015986E+0	9.724888E-1	1.005444E+0	1.019301E+0	1.022384E+0	9.875840E-1	1.010179E+0	1.034827E+0	9.838629E-1	1.026192E+0	1.043264E+0	1.049839E+0	9.872221E-1	9.838758E-1	9.683484E-1	9.915891E-1	1.050347E+0	1.044590E+0	1.052067E+0	1.023874E+0	1.016659E+0	9.985900E-1	9.689291E-1	1.031345E+0	1.038501E+0	9.703555E-1	1.007294E+0	1.003762E+0	1.022339E+0	1.010467E+0	1.014512E+0	9.891154E-1	9.856161E-1	1.008753E+0	1.035354E+0	1.015252E+0	1.027502E+0	1.059138E+0	9.936755E-1	1.083110E+0	1.011802E+0	1.011840E+0	9.902091E-1	1.004133E+0	1.038191E+0	1.021455E+0	1.002818E+0	1.040211E+0	1.035364E+0	1.031336E+0	1.008966E+0	1.019331E+0	1.033604E+0	1.016474E+0	1.033791E+0	1.011765E+0	1.050090E+0	9.911303E-1	1.046823E+0	1.042421E+0	1.017348E+0	9.765819E-1	1.065357E+0	1.037984E+0	1.003586E+0	1.039056E+0	1.035613E+0	9.637049E-1	1.039965E+0	1.014011E+0	1.012490E+0	1.017538E+0	9.517205E-1	9.892973E-1	9.833472E-1	1.018991E+0	1.028585E+0	9.947146E-1	1.004629E+0	1.009492E+0	1.029965E+0	9.888703E-1	1.010366E+0	1.008197E+0	1.056998E+0	9.992281E-1	1.059061E+0	9.991362E-1	1.018445E+0	9.949042E-1	1.020068E+0	1.021336E+0	1.016451E+0	1.046225E+0	1.001783E+0	9.994864E-1	1.053503E+0	1.015190E+0	9.817687E-1	1.001187E+0	9.873590E-1	9.985800E-1	1.008693E+0	1.017601E+0	1.062443E+0	1.015754E+0	1.013042E+0	1.052008E+0	1.008374E+0	9.636326E-1	1.067000E+0	1.021934E+0	1.070735E+0	9.797183E-1	1.046837E+0	9.261927E-1
