Photon Energy (eV)	#1	#2	#3	#4	#5	#6	#7	#8	#9	#10	#11	#12	#13	#14	#15	#16	#17	#18	#19	#20	#21	#22	#23	#24	#25	#26	#27	#28	#29	#30	#31	#32	#33	#34	#35	#36	#37	#38	#39	#40	#41	#42	#43	#44	#45	#46	#47	#48	#49	#50	#51	#52	#53	#54	#55	#56	#57	#58	#59	#60	#61	#62	#63	#64	#65	#66	#67	#68	#69	#70	#71	#72	#73	#74	#75	#76	#77	#78	#79	#80	#81	#82	#83	#84	#85	#86	#87	#88	#89	#90	#91	#92	#93	#94	#95	#96	#97	#98	#99	#100	#101	#102	#103	#104	#105	#106	#107	#108	#109	#110	#111	#112	#113	#114	#115	#116	#117	#118	#119	#120	#121	#122	#123	#124	#125	#126	#127	#128	#129	#130	#131	#132	#133	#134	#135	#136	#137	#138	#139	#140	#141	#142	#143	#144	#145	#146	#147	#148	#149	#150	#151	#152	#153	#154	#155	#156	#157	#158	#159	#160	#161	#162	#163	#164	#165	#166	#167	#168	#169	#170	#171	
2.790040E+2	-3.231580E-4	-6.366161E-3	-5.502019E-3	-1.537038E-3	-8.850277E-3	-5.563589E-3	-8.728551E-3	-6.192730E-3	-1.650989E-2	1.131359E-3	-1.894930E-3	-2.088730E-3	-1.566201E-2	-8.629094E-3	-4.409110E-4	-1.070720E-2	-1.343016E-2	-7.852529E-4	2.368002E-3	3.426885E-3	-6.406623E-3	-8.081198E-3	-9.626596E-3	-3.217199E-3	5.757567E-3	6.291094E-3	6.602150E-3	-1.087206E-2	2.991903E-3	1.878439E-3	-3.521157E-3	-2.982268E-3	-8.254520E-3	1.615864E-3	-1.011400E-2	-2.653762E-3	1.839650E-3	2.866210E-3	-4.748908E-4	2.955026E-4	-9.025716E-3	-4.859932E-3	8.017593E-4	4.857107E-3	-1.042781E-2	-4.952938E-3	-4.120884E-3	-2.264467E-3	-6.666313E-3	-2.350347E-3	-5.879055E-3	-8.495576E-3	6.078100E-3	1.303290E-3	-3.949118E-3	1.911889E-3	-1.233174E-2	-8.632513E-3	-8.449580E-3	1.297077E-2	-1.792259E-3	-1.006375E-2	-1.124064E-2	-6.961468E-3	-1.548947E-2	-7.723062E-3	-2.665892E-3	-2.573912E-3	-4.673655E-3	-8.627768E-3	2.935013E-3	4.552861E-3	1.334599E-2	-1.108989E-2	4.778644E-3	-1.620481E-2	-7.417527E-3	-1.489159E-3	-3.532999E-3	-4.322946E-3	-1.054515E-2	-8.758872E-3	-4.878389E-3	-9.666436E-3	4.785902E-3	-7.055967E-3	-2.083240E-3	-1.515594E-2	-1.109429E-2	4.434294E-3	-1.645436E-2	-8.260934E-3	-2.588761E-4	1.290899E-3	-3.456756E-4	-9.591916E-3	6.118994E-4	-3.074537E-3	-6.954277E-3	-1.714736E-3	-2.517157E-3	3.175796E-3	-3.938514E-3	-2.778628E-3	-4.913852E-3	-8.750391E-4	-6.897286E-3	-4.319325E-3	-5.932784E-3	-3.487385E-3	-1.501501E-2	-1.494405E-2	1.408826E-3	-2.245370E-4	-1.064146E-2	4.837211E-3	-7.024368E-3	1.850699E-3	-9.784524E-3	5.559535E-3	-2.470934E-3	-3.842034E-3	-4.119373E-3	1.531287E-3	4.637580E-3	-3.495347E-3	-1.009020E-2	-7.194313E-3	4.182380E-3	3.558972E-3	-1.159644E-2	-1.855232E-2	1.116273E-3	-3.641706E-3	2.274783E-3	-6.796890E-3	2.316673E-4	5.410732E-3	1.138898E-3	4.582318E-4	5.592906E-3	-7.620584E-3	-1.791013E-3	-3.839966E-3	-5.525534E-3	-1.484760E-2	-5.421804E-3	-1.485472E-2	-2.794401E-3	-1.750087E-3	1.365051E-3	2.983252E-3	6.867343E-3	6.466134E-3	3.551251E-5	1.485779E-2	-3.743935E-3	4.642018E-3	3.650867E-3	2.700171E-3	2.341300E-4	-1.259571E-2	1.824232E-3	-1.167903E-2	-5.968158E-3	-1.155848E-2	2.001724E-3	-1.849355E-2	-9.516079E-3	-1.222836E-2	-2.285806E-2
2.795020E+2	-1.669041E-3	-1.606535E-2	8.070846E-4	-4.875124E-3	-4.348619E-3	-1.335862E-2	-3.424972E-3	-1.330407E-4	5.709938E-3	-2.565569E-3	-1.857079E-2	-2.175219E-3	2.109805E-3	-7.456230E-4	-7.136156E-3	-6.490946E-3	-8.692372E-3	-1.052137E-2	-5.951251E-3	1.918552E-3	-7.473691E-3	-5.081574E-3	6.944579E-3	1.007092E-2	-1.323566E-2	-8.942694E-3	-3.399551E-3	-2.763427E-3	-3.086792E-3	-8.040966E-4	-5.482634E-3	3.569371E-3	1.464877E-3	4.885762E-3	7.466567E-3	-4.125053E-3	-1.193461E-3	-1.298572E-2	-7.449030E-3	1.199815E-2	5.953039E-4	-8.555334E-3	-5.171184E-3	-3.205674E-3	1.930271E-3	8.434420E-4	2.032124E-3	4.887450E-3	-3.671807E-4	-1.264203E-2	-1.061151E-2	8.107450E-3	4.872221E-3	1.766959E-4	-1.990712E-3	-1.073487E-2	-2.216642E-3	5.433138E-3	-9.645545E-3	-1.473327E-2	-6.764536E-3	-7.545764E-3	2.050144E-4	-8.078973E-3	-3.158103E-3	-7.817031E-3	-5.819303E-3	-1.329619E-2	-4.756072E-3	-3.387598E-3	-7.439289E-3	-5.185918E-3	-1.310359E-2	-3.744028E-3	-7.968247E-3	-1.082353E-2	-1.281781E-2	1.772768E-3	-1.276186E-2	-3.322142E-3	-1.677098E-2	4.781624E-3	-4.974115E-3	-1.651949E-2	-1.648659E-3	-4.201045E-3	-9.632012E-3	-4.073891E-3	2.065554E-3	5.479684E-3	8.672409E-3	-3.054244E-3	-4.219198E-3	-2.087529E-3	4.764703E-3	5.599306E-3	4.590715E-4	4.789635E-3	3.032131E-3	8.626894E-4	-1.536092E-3	-2.988695E-3	2.354523E-5	-9.646810E-3	-1.026246E-2	-4.603791E-3	-9.172860E-3	-7.273682E-3	-6.028236E-3	-8.053004E-3	-8.570786E-3	1.614135E-3	1.268490E-3	-1.043137E-2	-1.075181E-2	-8.226064E-3	-4.840987E-3	-4.123447E-3	-3.597393E-3	-3.223515E-4	2.930363E-3	1.864811E-3	-6.480655E-3	1.374234E-3	-7.578223E-3	-1.475597E-3	5.297428E-5	-1.311156E-2	-2.694036E-3	-3.017671E-3	-2.371445E-3	-7.496855E-3	-9.679397E-3	-6.647723E-3	-8.305360E-3	-1.097696E-2	5.126006E-3	-1.644650E-3	-6.240248E-3	-1.042229E-2	-6.738017E-3	4.963036E-3	-9.903779E-3	8.300454E-3	-1.480165E-2	2.301351E-3	-1.094177E-2	2.317780E-3	-6.610749E-4	-7.373918E-4	2.824232E-4	1.425851E-4	-6.221315E-3	-8.313463E-3	-3.136452E-3	-1.539562E-2	1.132229E-2	-7.666579E-3	-9.447317E-3	-5.197554E-3	9.067724E-3	-1.150387E-2	-8.974229E-3	-7.734306E-3	3.471612E-3	-2.379653E-3	-2.240966E-5	6.170310E-3	1.060542E-2	-6.339482E-3	1.514329E-3
2.800050E+2	9.859509E-4	2.875386E-3	-7.053974E-3	9.082918E-3	1.203895E-3	-3.793701E-4	-3.620332E-3	4.216986E-3	-5.575819E-3	-1.546964E-3	-1.134961E-3	8.072789E-3	-4.722771E-3	1.341461E-3	9.659781E-3	1.886884E-3	3.162618E-3	1.567875E-2	5.156153E-3	-5.049764E-3	-2.599441E-3	-1.147651E-3	-1.077429E-3	-2.214401E-3	-4.638493E-3	-5.039675E-3	3.374393E-3	-4.299848E-3	-1.037408E-2	5.310101E-3	9.736976E-4	4.479234E-3	-1.101966E-2	-1.101535E-2	-1.273721E-2	-5.661258E-3	-5.233874E-3	3.525192E-3	-1.736883E-2	5.198963E-3	-2.031062E-3	3.193499E-3	2.822743E-3	7.163697E-3	-1.953879E-3	-1.344293E-2	2.890920E-3	-5.598169E-3	-6.144011E-4	-3.746730E-3	4.246675E-3	-1.089206E-3	-2.958614E-3	1.996381E-3	-7.272982E-3	2.788805E-3	1.363052E-4	5.218706E-3	1.831773E-4	7.679975E-4	5.179444E-3	-3.817232E-3	-5.171967E-3	4.086096E-3	3.356766E-4	-3.868066E-4	1.194476E-3	-5.576101E-3	-6.521412E-4	-7.789540E-3	-1.981152E-3	2.656889E-3	-1.074177E-2	3.476997E-3	-6.002059E-3	-6.931564E-3	8.115938E-3	-3.960372E-3	-9.852516E-3	1.947216E-3	-9.581306E-3	1.220827E-3	8.220759E-4	-8.646384E-3	-4.941484E-3	5.188113E-4	-5.558864E-3	-1.046559E-2	1.241272E-2	-3.999267E-3	-6.387347E-3	1.262522E-2	-4.393367E-3	-4.412725E-3	-4.723950E-3	-5.483999E-3	-1.025272E-2	7.394329E-5	-4.991068E-4	6.435391E-4	-2.739164E-3	-4.156902E-3	-1.026386E-2	-1.834104E-3	3.985577E-3	-2.360374E-3	-1.627873E-3	7.829378E-3	-1.234175E-2	-1.463506E-3	1.500732E-2	-5.194176E-3	3.691770E-3	1.410110E-2	-5.986360E-3	1.569495E-3	2.890961E-3	-4.270447E-3	9.761539E-3	-7.696153E-3	2.701162E-3	-4.082435E-3	-8.883099E-3	-4.992811E-3	-9.068247E-3	-4.764737E-3	-8.275958E-3	-5.390345E-4	-4.257000E-3	-3.147842E-3	6.699745E-3	-2.144975E-3	5.118163E-3	3.906518E-3	9.233729E-4	-8.498665E-3	8.661085E-3	-1.448706E-2	-1.244009E-2	-3.921714E-3	6.543710E-3	3.731812E-3	1.816065E-4	-1.876989E-3	-4.554134E-3	3.424480E-3	-2.372712E-3	7.360679E-3	-6.345215E-3	-9.223821E-4	-8.730142E-4	-9.438045E-3	3.773232E-5	-1.113523E-2	6.946144E-3	-9.897385E-3	-3.991487E-3	-9.336310E-5	-2.588729E-3	-9.804873E-3	2.442452E-3	8.024158E-3	-6.887299E-3	-2.591950E-3	-8.265532E-3	-4.588782E-3	9.543014E-3	-2.947061E-3	-1.196476E-2	5.368629E-3	7.452186E-3
2.805030E+2	-3.436911E-4	-6.635036E-3	8.301755E-3	2.815599E-3	1.236387E-3	5.128402E-3	3.954796E-3	2.709331E-3	-1.048482E-2	8.583704E-4	1.991723E-3	1.335138E-2	-5.809303E-3	-9.965792E-3	-9.107210E-3	-5.562889E-3	-2.827327E-3	1.572858E-2	-1.960404E-3	3.595072E-4	4.410767E-3	1.981696E-3	5.944416E-3	-6.187176E-3	-4.612159E-3	-2.286183E-3	-3.495423E-3	-1.551621E-3	-6.796319E-3	4.081154E-3	-7.449515E-3	-1.313180E-2	-1.187052E-3	-5.374720E-3	-3.307322E-3	-2.920326E-3	-3.245478E-3	-4.258986E-3	-1.683505E-3	7.892893E-3	-4.415620E-3	5.616046E-3	-4.142641E-3	-7.235041E-3	-3.166570E-3	-4.938388E-4	-3.284003E-3	-1.422471E-3	5.826200E-3	1.927995E-3	8.223484E-4	-3.612907E-3	-7.304349E-3	-5.015641E-3	9.446624E-4	1.036654E-2	1.717878E-4	-5.003796E-3	-8.920567E-4	-4.338254E-3	-3.260542E-3	2.753174E-2	-9.667127E-4	5.201630E-3	6.561814E-3	-1.623522E-3	2.097462E-4	-4.205869E-3	-1.017798E-2	2.851169E-3	-1.006832E-3	-1.353955E-2	5.066025E-4	-5.123804E-3	-1.775419E-3	2.052775E-2	2.399388E-4	-5.049600E-3	1.304336E-3	-8.867132E-3	2.085801E-4	-6.662147E-3	-3.412159E-4	1.552020E-2	-1.758485E-3	4.447999E-3	5.069524E-3	6.882369E-3	-7.335011E-3	-5.131164E-3	-5.213815E-3	-7.224378E-3	5.834377E-3	8.678624E-3	9.813746E-3	5.423584E-3	1.202190E-2	-2.161722E-3	6.224001E-3	-3.373271E-3	-4.829175E-3	-9.149578E-3	1.908467E-3	-7.157928E-3	-3.839181E-3	-4.741380E-3	3.866547E-3	8.841917E-4	3.733413E-3	-7.019953E-3	-6.490064E-3	8.101080E-3	-2.606643E-4	5.226035E-3	-2.277157E-3	5.897199E-3	-4.483461E-4	6.558116E-4	4.232026E-4	1.506706E-2	-2.750387E-3	9.816193E-3	-1.112748E-2	-1.253937E-2	-9.450513E-4	8.895961E-3	-3.132244E-3	-2.801094E-3	9.184218E-3	2.279052E-3	-9.494108E-3	6.222581E-3	5.172665E-3	-1.871307E-3	-3.194775E-3	1.707254E-2	-9.942158E-3	5.300052E-4	8.086540E-3	-1.207034E-3	-7.151955E-4	-2.527710E-3	3.651879E-3	-5.154334E-3	1.372755E-2	-8.411999E-3	9.305721E-4	8.736073E-3	-2.988752E-3	1.347366E-3	-6.759502E-3	-5.406206E-3	5.240159E-3	-4.955038E-4	1.886192E-3	1.627492E-3	-1.438676E-3	3.268550E-3	3.445153E-3	4.620085E-3	-6.436669E-3	2.289474E-3	-6.845978E-3	-1.324031E-2	2.297850E-3	2.625142E-3	9.367678E-4	5.902834E-3	8.183674E-3	2.023325E-2	2.593698E-2
2.810070E+2	1.002611E-3	3.008607E-3	-6.910558E-3	-1.430721E-3	-5.505943E-3	-2.349787E-3	-3.398390E-3	6.325419E-4	-4.088912E-4	-1.740925E-4	7.353072E-3	-1.170624E-2	4.399313E-3	-1.880281E-3	-6.165790E-3	3.646734E-3	-1.989058E-4	-1.171945E-2	-3.869746E-3	7.270225E-3	-1.446240E-2	-6.084826E-3	-8.828426E-4	7.118062E-4	-6.960970E-3	3.365090E-3	-8.332935E-3	1.366356E-2	-7.150474E-4	-4.624607E-3	9.656129E-3	3.623824E-3	6.391970E-3	6.040194E-3	1.596571E-3	2.686280E-3	-7.058963E-3	3.804778E-3	1.126684E-2	-1.165704E-2	-7.899916E-3	3.414698E-3	-1.651817E-3	-4.782938E-4	-8.014505E-3	-1.508688E-3	2.059667E-3	2.899322E-3	2.203655E-3	4.369448E-3	-3.637429E-3	-6.011346E-3	-3.890546E-3	-9.905492E-3	1.129461E-3	-1.192668E-2	-6.037230E-3	-8.722800E-3	-7.311807E-4	-4.150208E-3	2.972593E-3	-1.409685E-2	4.438920E-3	-2.843419E-3	-6.572926E-4	-1.836692E-4	-8.862899E-3	9.235404E-3	3.822702E-3	4.114700E-3	7.587743E-3	1.806030E-2	-5.695808E-4	-2.502266E-3	-2.668988E-3	-1.211472E-2	-6.197532E-3	-4.392310E-4	1.165271E-2	-1.078801E-3	1.144198E-2	-6.541516E-3	8.208800E-3	5.040612E-3	1.562294E-3	8.547834E-3	4.235142E-3	-1.528505E-3	-8.521595E-3	-8.480174E-3	1.828895E-3	9.023338E-3	6.036882E-3	1.287595E-4	-6.639807E-3	-4.152465E-3	-2.169694E-3	-1.224382E-2	-8.134252E-3	4.935379E-3	1.693336E-3	3.129856E-3	-1.514846E-2	-2.296847E-4	-1.065907E-3	-2.143322E-3	5.227608E-3	1.125301E-3	-5.966129E-3	-3.536162E-3	1.203654E-3	1.164199E-2	-2.683513E-3	-5.923229E-3	1.036395E-2	-1.110430E-2	6.476517E-3	9.674249E-3	-3.541060E-3	-2.172304E-2	-5.417706E-3	-9.710486E-3	4.967472E-3	-4.769435E-3	3.151240E-3	-2.502232E-3	-9.189855E-4	5.515798E-3	-2.709672E-3	-6.235440E-3	9.310433E-3	-5.433633E-4	-4.295334E-3	-1.714669E-3	-1.980892E-3	-6.937022E-3	-1.104494E-3	-2.778106E-3	-5.016954E-3	2.995041E-3	-6.344605E-4	7.824158E-4	-7.321538E-4	1.659459E-3	-1.213682E-2	3.622315E-3	6.525707E-3	-9.639914E-3	3.852188E-3	-4.056993E-3	-1.159050E-2	5.466067E-3	-6.192943E-3	-3.642910E-4	-6.173756E-3	3.164733E-3	-8.880428E-3	-4.315391E-3	-6.401653E-3	-4.055310E-3	-1.012650E-2	-9.164095E-3	-1.087244E-3	-1.029400E-3	6.687132E-3	-3.359620E-3	-7.588284E-3	-1.151078E-2	-6.094142E-4	-6.322975E-3	-1.698721E-2
2.815030E+2	2.334903E-3	7.113582E-3	5.894437E-3	8.284444E-3	6.068217E-3	5.354031E-3	6.359376E-3	3.941571E-3	1.046071E-3	-4.938248E-3	-5.057957E-3	-3.484215E-3	1.241554E-2	4.008701E-4	-6.148657E-3	6.936444E-3	2.299001E-3	-8.983664E-4	-9.000795E-3	-6.780830E-3	-2.374529E-3	7.352170E-3	-7.003472E-3	1.625997E-3	-3.658197E-4	-1.030242E-2	-8.307641E-3	7.247475E-3	4.212376E-3	-8.437128E-3	-3.546402E-3	9.108490E-4	-3.381314E-3	4.025158E-4	1.340855E-2	1.391832E-4	1.828082E-3	1.849483E-3	3.423850E-3	-3.401282E-3	-1.026734E-2	-6.153657E-3	-8.676394E-3	-3.259530E-3	-6.741616E-3	6.749274E-3	-8.339555E-3	-4.711241E-3	-2.909802E-3	-3.562204E-3	1.260749E-2	4.245131E-3	4.918099E-3	4.305591E-3	1.134283E-3	4.346538E-3	-1.114219E-2	-6.153202E-3	-7.340625E-4	3.716702E-3	-1.890651E-3	3.111897E-4	1.072966E-2	7.485956E-3	8.050505E-3	-1.458898E-3	4.477129E-3	1.054925E-2	1.698160E-3	1.051451E-2	-6.439847E-3	-2.407185E-3	-8.087397E-3	9.877531E-3	-1.611820E-3	-2.489810E-3	1.747208E-3	5.159531E-3	-5.297783E-4	1.421624E-2	4.086814E-3	4.805210E-3	-1.094887E-2	5.029532E-3	5.799594E-3	4.653284E-3	4.244852E-3	9.536408E-4	3.396581E-3	-4.984928E-3	2.982788E-3	-1.648012E-3	-6.772528E-3	1.351012E-4	1.698195E-3	2.417874E-3	4.394232E-3	2.539987E-3	-1.409756E-3	1.303850E-2	-2.558082E-3	-5.958888E-3	6.210656E-3	7.823156E-3	-8.946266E-3	2.701248E-3	8.606221E-4	-2.749549E-4	-7.198887E-3	-1.680213E-4	5.540500E-3	-4.997942E-3	-2.680164E-3	-2.905269E-4	4.810057E-4	7.515291E-3	1.989086E-3	-1.191260E-2	-1.295621E-2	-1.789184E-3	8.393711E-3	1.347147E-2	8.397355E-3	-2.304034E-4	3.138948E-3	4.862775E-3	7.272870E-3	1.132330E-2	-2.714388E-3	-2.988832E-3	1.146143E-3	-5.571084E-4	-5.360162E-3	9.049658E-3	5.363413E-3	2.492635E-3	-2.357016E-3	-1.622570E-3	3.445171E-3	8.351722E-3	-6.763934E-3	-4.489874E-3	1.555658E-3	7.222604E-3	8.887216E-3	-1.686205E-3	2.167119E-3	-5.668788E-3	3.948846E-3	-7.185170E-4	-3.619949E-3	-5.236873E-3	-3.527045E-3	-8.402126E-3	3.097250E-3	1.028776E-2	-6.332241E-3	-3.206244E-3	2.624797E-3	-6.279582E-3	-1.126236E-3	9.429958E-3	3.403138E-3	2.308599E-2	-9.115153E-3	-5.422332E-3	-5.406977E-3	-6.232733E-3	-5.051481E-3	-1.228171E-2	1.385553E-2
2.820030E+2	1.018945E-3	1.893824E-3	-5.469168E-3	-1.415735E-2	-1.829744E-3	4.503515E-3	1.190695E-3	-4.412643E-3	6.247986E-3	3.893606E-5	6.591186E-3	4.705725E-3	4.779193E-3	7.474983E-3	1.606667E-3	2.577706E-5	6.221541E-3	-9.160205E-3	4.581626E-3	-3.646344E-3	1.699600E-2	-6.756632E-4	5.505436E-3	-4.773584E-3	7.604652E-3	5.050651E-3	3.799141E-3	-7.310280E-3	9.310964E-3	6.866123E-4	1.369594E-3	-3.455407E-4	1.173912E-2	-1.655671E-3	-7.619347E-3	8.787450E-3	6.047961E-3	-8.781141E-3	-2.730451E-4	-7.402788E-3	1.962803E-2	9.710174E-3	1.156619E-2	1.692334E-3	1.107747E-2	1.650730E-2	5.441299E-3	4.627264E-3	-1.295700E-3	9.162495E-3	7.076157E-3	1.997695E-3	6.356363E-3	5.208963E-4	5.530180E-3	1.088337E-2	8.600086E-3	1.477618E-2	6.357475E-4	2.207790E-3	7.081133E-3	1.890270E-3	-5.686330E-4	8.199271E-3	-2.811134E-3	1.153789E-2	2.646695E-3	-2.591930E-3	8.856197E-4	9.741573E-3	-5.960201E-4	-2.239655E-3	1.364934E-2	-4.779821E-3	4.969140E-3	2.309564E-2	6.087208E-3	2.011979E-3	5.839142E-3	-2.499822E-3	5.631307E-3	-6.847485E-4	8.474035E-3	7.994487E-3	-2.482507E-3	-8.864576E-3	1.319838E-3	9.975090E-3	-1.234962E-2	1.043453E-2	5.538408E-3	-8.106885E-3	-1.431617E-3	-1.066085E-2	3.995142E-3	1.572973E-3	-7.187766E-3	7.333523E-3	3.310730E-3	-1.112158E-2	8.340771E-3	1.051242E-2	-1.682191E-3	1.359260E-2	1.761699E-2	7.814536E-3	4.413605E-3	5.574811E-3	1.799013E-2	3.401490E-3	-7.495088E-4	4.118531E-3	-1.311072E-2	-1.239738E-3	5.720941E-3	-3.718348E-3	-4.627959E-3	-7.811047E-3	9.131250E-4	-7.029428E-5	-1.016768E-3	-1.422750E-2	6.345210E-3	9.269909E-3	3.352127E-3	-1.245795E-3	1.167897E-2	1.121428E-3	5.658491E-3	1.525632E-3	9.618835E-3	1.647076E-2	3.436195E-3	1.452555E-3	4.583896E-3	4.151625E-3	-2.172588E-3	-4.901278E-3	2.499159E-3	-4.840520E-3	-4.481853E-4	6.308707E-3	6.644651E-4	-2.583829E-3	1.052636E-2	7.831327E-3	-9.099418E-4	2.568824E-3	1.762632E-2	5.119157E-3	4.603157E-3	3.097616E-3	-1.992050E-3	1.586895E-2	-8.047821E-3	-3.674257E-3	7.827149E-3	3.700610E-3	1.846648E-3	9.585456E-3	5.571710E-3	1.203772E-2	5.916782E-3	7.297853E-3	1.132485E-2	7.188034E-3	4.657065E-3	1.182247E-2	8.715088E-3	5.800769E-3	1.415897E-2
2.825030E+2	-3.006520E-3	1.417514E-2	9.932443E-3	1.817273E-3	1.202608E-2	6.665422E-3	7.667379E-3	-7.620160E-4	1.997543E-2	7.196209E-3	1.072266E-2	-6.675488E-3	2.490240E-3	1.200348E-2	1.773228E-2	1.026519E-2	1.346561E-2	1.677321E-3	8.676413E-3	2.501771E-3	1.190992E-2	1.173705E-2	1.959085E-4	3.983638E-3	1.645089E-2	1.186414E-2	9.759867E-3	5.886193E-3	4.456991E-3	1.909526E-3	8.000288E-3	3.876332E-3	4.246581E-3	5.101408E-3	1.130619E-2	3.747485E-3	7.016083E-3	1.398018E-2	1.255861E-2	-2.924400E-3	1.341631E-2	-2.365495E-3	4.451339E-3	4.654007E-4	1.729664E-2	-3.701619E-3	3.320432E-3	1.582312E-3	3.823543E-3	6.841370E-3	-4.624677E-3	4.858758E-3	-8.071273E-3	6.618279E-3	4.474225E-3	-7.635585E-3	2.281963E-2	3.084291E-3	1.963350E-2	3.558479E-3	-1.525181E-3	5.790400E-3	2.574354E-3	-7.089093E-3	7.168005E-3	7.655101E-3	8.820047E-3	8.459347E-3	1.385336E-2	-7.417049E-3	6.940384E-3	-1.897744E-3	5.000404E-3	1.388528E-2	1.027875E-2	4.941043E-3	1.024258E-2	1.994083E-3	7.880970E-3	3.927387E-3	1.552875E-2	1.183962E-2	3.637682E-3	1.247482E-3	-1.316656E-3	1.953660E-3	2.404760E-3	1.341283E-2	2.142566E-2	2.247025E-3	9.033026E-3	6.645899E-3	5.204328E-3	6.927722E-3	-8.562353E-3	4.214643E-3	2.123074E-3	2.742995E-3	4.430530E-3	-3.270522E-3	4.145562E-3	5.435991E-3	2.289036E-2	2.313976E-4	7.425095E-3	4.208121E-3	3.329636E-3	-3.545719E-3	1.574424E-2	2.032654E-2	9.073901E-3	-3.395721E-4	1.236598E-2	-1.217728E-3	1.309088E-2	3.229521E-3	5.585097E-3	1.593678E-2	1.878132E-2	1.097443E-2	-2.369442E-3	6.709989E-3	1.090057E-2	1.035659E-2	3.311627E-3	-2.750269E-4	3.412579E-3	5.685476E-3	-6.649991E-3	8.026129E-3	-3.313159E-3	6.601286E-3	4.491596E-3	-5.333268E-4	3.355619E-4	9.492729E-3	1.557497E-3	1.949293E-2	8.527525E-3	8.586561E-3	3.163177E-3	-1.147803E-3	6.373337E-3	-3.727400E-3	3.877012E-3	7.766328E-3	1.002283E-2	9.180063E-3	-1.263791E-2	1.718848E-3	1.659233E-2	8.391604E-3	5.788118E-3	6.375527E-3	5.392930E-3	-9.705104E-4	5.237326E-3	3.670400E-3	6.870234E-3	8.431606E-3	3.733924E-4	1.482370E-3	1.265060E-2	5.891146E-3	-4.326014E-4	1.749569E-2	-4.120899E-3	1.528851E-2	-3.624469E-4	5.769888E-3	-2.307273E-2
2.830060E+2	-3.006520E-3	2.170864E-2	1.566507E-2	3.683307E-3	1.487449E-2	8.316763E-3	1.701821E-2	1.350484E-2	1.422584E-2	1.615859E-3	3.875070E-3	2.957027E-3	1.995913E-2	3.219109E-2	8.686756E-3	1.087562E-2	1.658241E-2	2.896489E-2	2.168350E-2	4.349405E-3	9.321532E-3	1.338027E-2	1.395195E-2	3.500523E-3	6.816609E-3	1.386979E-2	2.229862E-2	1.258104E-2	-3.551734E-3	2.043454E-2	1.516102E-2	4.403387E-3	1.481285E-2	-4.737554E-3	-4.844193E-3	2.438158E-2	2.246356E-2	1.603808E-3	1.512818E-2	1.471403E-2	1.029838E-2	4.888106E-4	2.397924E-2	4.566893E-3	1.403653E-2	1.825196E-2	2.067211E-2	2.541617E-2	4.360420E-2	8.477621E-3	8.716912E-3	1.014459E-2	1.686556E-2	7.173505E-3	1.436836E-2	9.007976E-3	7.838959E-3	1.399409E-2	1.030961E-3	2.654608E-2	1.004467E-2	3.160248E-2	1.046857E-2	1.352277E-3	1.787600E-2	8.162454E-3	9.286108E-3	-2.066861E-3	7.868617E-3	9.188514E-3	3.618214E-3	2.263519E-3	1.829295E-2	-6.475051E-4	4.363238E-3	1.293373E-2	9.446694E-3	1.252164E-3	5.299752E-3	7.576559E-3	1.366358E-2	-3.552930E-4	8.957681E-3	-6.874638E-3	1.736515E-2	7.339441E-3	1.157500E-2	-8.354729E-4	4.511122E-2	-6.796935E-3	1.657759E-2	8.432301E-3	8.302168E-3	1.294209E-2	7.600611E-3	2.402532E-2	1.350112E-3	2.280516E-2	1.855786E-2	3.004926E-2	2.744022E-2	1.844101E-3	9.151704E-3	-1.089421E-2	2.552354E-2	1.570052E-2	1.577789E-3	7.684676E-3	2.282960E-2	1.749578E-2	1.623990E-2	1.888478E-2	2.521239E-2	3.664913E-3	8.895870E-3	9.833397E-3	2.101500E-2	2.250211E-2	5.704257E-3	2.967462E-2	2.234749E-2	7.238977E-3	1.612520E-2	4.453512E-3	2.303559E-2	1.135441E-4	9.173770E-3	9.313028E-3	2.663404E-2	1.177563E-2	7.856151E-3	9.576408E-3	1.048599E-2	9.838608E-3	1.042639E-2	1.097936E-2	4.032900E-2	1.076228E-2	1.652627E-2	1.265237E-2	3.098373E-2	1.316357E-2	1.507828E-2	1.728136E-2	8.486667E-3	-2.481028E-3	1.385373E-2	1.380211E-2	9.340362E-5	2.259204E-2	1.115727E-2	1.450878E-2	2.215632E-2	1.229017E-2	1.738623E-2	2.423830E-2	1.339656E-2	1.655370E-2	4.294444E-3	2.821918E-2	1.778897E-2	7.531059E-4	2.237250E-2	7.844673E-3	6.421850E-3	1.709456E-2	5.142851E-3	3.222863E-2	6.903029E-3	2.133508E-2	2.182141E-3
2.835020E+2	1.149732E-3	1.183621E-2	1.164776E-2	1.450085E-2	2.678618E-2	2.438032E-2	1.510029E-2	1.634235E-2	3.222386E-2	2.861720E-2	9.186450E-3	2.767487E-2	1.661710E-2	3.029908E-2	1.854342E-2	1.223380E-2	2.693609E-2	3.307236E-2	2.304498E-2	2.881186E-2	1.656083E-2	2.868500E-2	1.328737E-2	1.057053E-2	4.096173E-2	2.669083E-2	2.047765E-2	1.410217E-2	2.217260E-2	2.459450E-2	9.403240E-3	1.330117E-2	3.167921E-2	2.065955E-2	2.190176E-2	2.985328E-2	2.373695E-2	2.219433E-2	1.644643E-2	1.632428E-2	4.594149E-2	3.985719E-3	1.697291E-2	2.781973E-2	2.165725E-2	2.700046E-2	1.662306E-2	1.240166E-2	3.913925E-2	3.080236E-2	1.351136E-2	5.359561E-3	3.644204E-2	8.413993E-3	1.035094E-2	9.277593E-3	3.306527E-2	1.793836E-2	1.355721E-2	2.234181E-2	2.392844E-2	1.708877E-2	1.925807E-2	1.684324E-2	1.429442E-2	3.838446E-2	1.140965E-2	3.720139E-2	4.484739E-3	2.591997E-2	2.997922E-2	1.695811E-2	2.363322E-2	5.431970E-3	2.183602E-2	1.703554E-2	2.038739E-2	1.725690E-2	1.380405E-2	2.285704E-2	2.017382E-2	1.932913E-2	2.008041E-2	6.892111E-3	3.294984E-2	2.061324E-2	6.311583E-3	1.888321E-2	4.711611E-2	3.497934E-5	2.158780E-2	1.474167E-2	3.491385E-2	2.436563E-2	3.356955E-2	3.698970E-3	3.273834E-2	2.661700E-2	1.063253E-2	1.418958E-2	1.669494E-2	2.500972E-2	9.378556E-3	2.297194E-2	5.485450E-2	1.710822E-2	6.075107E-3	2.266952E-2	3.339882E-2	2.575901E-2	1.760592E-2	8.167113E-3	2.567866E-2	1.985276E-2	1.021315E-2	2.067145E-2	1.523345E-2	1.278415E-2	6.922709E-3	8.552567E-3	3.112364E-2	1.553861E-2	2.805208E-2	1.954545E-2	4.533406E-2	2.281473E-2	1.894822E-2	2.329119E-2	2.841421E-2	2.632944E-2	1.766213E-2	2.602229E-2	1.841796E-2	1.506984E-2	2.809028E-2	9.501939E-3	3.334907E-2	2.765523E-2	1.299434E-2	2.097256E-3	3.775835E-2	8.785429E-3	1.650276E-2	2.110854E-2	3.579951E-2	2.850818E-2	1.388619E-2	2.906172E-2	2.079998E-2	2.415058E-2	5.138864E-3	8.382798E-3	1.192126E-2	9.560145E-3	1.447467E-2	1.364097E-2	3.310872E-2	2.137719E-2	1.780511E-2	2.595963E-2	2.461557E-2	1.862582E-2	1.339328E-2	2.143353E-2	1.085202E-2	9.938654E-3	2.887403E-3	5.831401E-3	5.768956E-2	1.964277E-2	2.253029E-2
2.840000E+2	-3.006520E-3	4.350441E-2	2.641460E-2	4.126762E-2	2.710465E-2	3.175373E-2	3.831154E-2	3.226294E-2	3.776774E-2	3.522773E-2	1.467823E-2	2.707110E-2	4.766127E-2	4.516046E-2	3.582736E-2	4.075555E-2	3.383484E-2	6.025083E-2	3.421885E-2	3.986222E-2	4.224137E-2	3.253402E-2	3.213837E-2	3.301579E-2	2.815023E-2	5.455196E-2	3.644578E-2	4.107089E-2	3.379604E-2	2.749460E-2	2.241966E-2	3.719465E-2	4.398885E-2	2.918502E-2	3.350196E-2	4.732339E-2	4.180544E-2	4.262613E-2	4.707606E-2	3.701973E-2	4.279629E-2	4.194801E-2	3.822595E-2	2.328399E-2	4.679504E-2	4.734241E-2	4.776304E-2	4.555827E-2	3.844452E-2	2.396682E-2	3.942608E-2	4.015573E-2	3.570434E-2	3.989566E-2	3.562306E-2	4.342850E-2	5.526634E-2	2.608588E-2	2.777987E-2	2.646759E-2	3.186932E-2	5.611393E-2	3.396295E-2	3.404987E-2	6.342063E-2	5.100050E-2	3.978845E-2	3.274678E-2	5.104822E-2	2.632637E-2	3.653847E-2	1.641879E-2	4.789753E-2	4.070942E-2	1.421641E-2	2.250483E-2	3.174540E-2	4.346163E-2	1.722237E-2	4.881935E-2	4.911076E-2	2.780210E-2	4.820129E-2	2.512282E-2	3.674451E-2	3.131182E-2	4.718728E-2	1.486379E-2	5.049502E-2	1.209377E-2	1.696549E-2	1.619492E-2	5.445015E-2	3.507973E-2	4.847204E-2	3.625502E-2	3.608518E-2	4.140220E-2	3.445016E-2	2.716338E-2	3.952212E-2	2.979204E-2	2.362714E-2	2.138671E-2	5.279095E-2	3.005088E-2	1.777642E-2	3.448300E-2	4.038340E-2	4.392361E-2	3.173483E-2	3.431487E-2	3.878188E-2	3.672734E-2	2.097018E-2	5.436221E-2	2.968044E-2	3.392393E-2	3.712709E-2	2.753560E-2	5.075423E-2	1.797488E-2	5.384424E-2	4.080764E-2	4.309030E-2	2.529781E-2	4.436254E-2	3.900166E-2	6.617245E-2	3.688054E-2	2.908160E-2	2.767828E-2	1.853318E-2	2.671532E-2	3.307196E-2	2.376232E-2	7.912796E-2	3.289606E-2	3.622110E-2	3.271724E-2	4.590658E-2	4.251780E-2	4.223802E-2	6.039977E-2	6.143878E-2	4.426499E-2	2.429272E-2	5.090123E-2	2.451242E-2	3.990299E-2	1.784592E-2	3.974785E-2	4.928879E-2	3.617494E-2	1.129949E-2	3.111406E-2	3.199822E-2	2.044630E-2	2.333472E-2	2.644393E-2	4.936653E-2	2.613502E-2	3.854652E-2	5.558478E-2	4.711346E-2	5.494120E-2	3.988895E-2	2.581950E-2	4.564889E-2	5.577819E-2	6.343102E-2
2.841030E+2	-1.565823E-4	4.545199E-2	2.542062E-2	4.460532E-2	2.739971E-2	3.805597E-2	3.994816E-2	3.798916E-2	3.153592E-2	3.946854E-2	3.716180E-2	3.354142E-2	2.299285E-2	5.414475E-2	4.837926E-2	4.017185E-2	4.598891E-2	4.796174E-2	3.903246E-2	6.151367E-2	4.268727E-2	4.071660E-2	3.725099E-2	2.767121E-2	4.623011E-2	3.610479E-2	2.622676E-2	4.414842E-2	2.791253E-2	3.738891E-2	3.184954E-2	5.355214E-2	4.060202E-2	4.524004E-2	3.648586E-2	4.915765E-2	3.908100E-2	3.576505E-2	4.654161E-2	3.393456E-2	5.383154E-2	2.067394E-2	2.237583E-2	4.129196E-2	7.542210E-2	3.901398E-2	3.822306E-2	2.784542E-2	5.967306E-2	2.917361E-2	4.980647E-2	4.314784E-2	5.148448E-2	3.170486E-2	4.048225E-2	2.120556E-2	6.822573E-2	3.884818E-2	3.412155E-2	3.560544E-2	4.017046E-2	3.988064E-2	2.540125E-2	1.109280E-2	3.745969E-2	4.471972E-2	4.132867E-2	3.975887E-2	3.552290E-2	3.813922E-2	2.493649E-2	3.402778E-2	3.086620E-2	3.719152E-2	4.163509E-2	2.294110E-2	4.639817E-2	3.553250E-2	2.845750E-2	3.362077E-2	4.175797E-2	3.180008E-2	6.406765E-2	2.686960E-2	2.692414E-2	3.905461E-2	3.063379E-2	1.299712E-2	7.385100E-2	3.609572E-2	3.941868E-2	4.200713E-2	6.049044E-2	4.135098E-2	5.789754E-2	3.333616E-2	5.349247E-2	3.455653E-2	2.408580E-2	1.978958E-2	3.194163E-2	2.805704E-2	3.495269E-2	4.866257E-2	4.047866E-2	2.783389E-2	4.414926E-2	3.495012E-2	5.288980E-2	2.873449E-2	2.984092E-2	3.706047E-2	5.216061E-2	2.626166E-2	4.265340E-2	3.123865E-2	3.127746E-2	3.542528E-2	5.109992E-2	4.437083E-2	5.424539E-2	4.188031E-2	3.722512E-2	3.157569E-2	4.356508E-2	2.681983E-2	3.941038E-2	4.661552E-2	4.960079E-2	1.644754E-2	4.201080E-2	4.542873E-2	3.268866E-2	4.912709E-2	4.476550E-2	3.008927E-2	7.036317E-2	2.464367E-2	3.280811E-2	3.319089E-2	5.948950E-2	1.585692E-2	2.682885E-2	3.096507E-2	4.662655E-2	5.465955E-2	4.683365E-2	5.820436E-2	2.368668E-2	4.516634E-2	4.382517E-2	5.158837E-2	3.727079E-2	3.380792E-2	2.705670E-2	4.468000E-2	4.864788E-2	1.606149E-2	3.874308E-2	6.699282E-2	4.168285E-2	2.030347E-2	4.984080E-2	3.947456E-2	3.048795E-2	2.906382E-2	5.555667E-2	-1.657348E-4	6.553845E-2	4.038744E-2	3.100404E-2
2.842030E+2	-1.566290E-3	4.185376E-2	5.379476E-2	5.702023E-2	4.418334E-2	4.964565E-2	7.480662E-2	4.960595E-2	6.865845E-2	4.678516E-2	5.033642E-2	5.154993E-2	6.729910E-2	7.728818E-2	6.157585E-2	5.550456E-2	7.585340E-2	4.112627E-2	3.764899E-2	6.411692E-2	5.765649E-2	4.613165E-2	4.853802E-2	7.359692E-2	6.917562E-2	6.660120E-2	5.372827E-2	7.239917E-2	5.582295E-2	6.020421E-2	3.871011E-2	5.465674E-2	6.555929E-2	4.372406E-2	5.783229E-2	5.823017E-2	4.950458E-2	5.270162E-2	5.286257E-2	6.285930E-2	4.831843E-2	6.538006E-2	6.871717E-2	6.134977E-2	8.610193E-2	6.156576E-2	6.160863E-2	4.919911E-2	8.039259E-2	3.851486E-2	7.466670E-2	6.822361E-2	6.798984E-2	5.897005E-2	6.702949E-2	4.732332E-2	7.368354E-2	7.590369E-2	5.059567E-2	4.535019E-2	7.553752E-2	7.197020E-2	4.201342E-2	5.902195E-2	1.018324E-1	5.665838E-2	5.220068E-2	6.719215E-2	4.679701E-2	5.636596E-2	4.496290E-2	5.493612E-2	5.900806E-2	6.083008E-2	6.080696E-2	5.910115E-2	9.079068E-2	5.085938E-2	2.923143E-2	5.259181E-2	8.543345E-2	5.954927E-2	3.024913E-2	4.887758E-2	5.753980E-2	2.190070E-2	4.993747E-2	4.210029E-2	6.933764E-2	2.683709E-2	5.151307E-2	5.201612E-2	6.723793E-2	5.406635E-2	5.782327E-2	6.506798E-2	7.748954E-2	3.535880E-2	6.726572E-2	9.268165E-2	5.123258E-2	3.655793E-2	6.459224E-2	3.445972E-2	9.316436E-2	5.613414E-2	5.830499E-2	8.615423E-2	7.020695E-2	6.842297E-2	5.414627E-2	7.484187E-2	7.486627E-2	3.547830E-2	6.245424E-2	5.041606E-2	5.895789E-2	6.507892E-2	6.354847E-2	5.186719E-2	8.689876E-2	4.527857E-2	6.528475E-2	4.956407E-2	6.921592E-2	3.661046E-2	3.812539E-2	6.082423E-2	6.082081E-2	4.511051E-2	5.310168E-2	7.608148E-2	6.143138E-2	4.376675E-2	6.279916E-2	7.364933E-2	7.562937E-2	4.040960E-2	6.250671E-2	5.103918E-2	8.969834E-2	4.729931E-2	5.610054E-2	6.213717E-2	8.455782E-2	6.713323E-2	4.539774E-2	6.618852E-2	7.151240E-2	5.942425E-2	2.534857E-2	8.064958E-2	4.804805E-2	3.754466E-2	5.905955E-2	8.540559E-2	6.464589E-2	5.030797E-2	4.720926E-2	8.139184E-2	7.451282E-2	6.120415E-2	5.208162E-2	5.868654E-2	7.508418E-2	6.218664E-2	7.909512E-2	3.522195E-2	3.970600E-2	4.446337E-2	4.516355E-2
2.843030E+2	-1.561303E-3	7.022782E-2	8.049820E-2	9.479310E-2	6.697482E-2	7.505066E-2	7.529011E-2	8.332058E-2	9.508016E-2	9.028765E-2	6.311776E-2	7.284093E-2	5.191275E-2	1.094188E-1	6.613811E-2	7.266943E-2	1.002935E-1	7.443358E-2	6.253245E-2	1.129277E-1	6.371140E-2	7.465913E-2	7.565458E-2	1.181721E-1	1.285899E-1	8.634496E-2	5.301144E-2	9.499897E-2	9.903071E-2	1.225287E-1	5.955336E-2	7.466006E-2	9.673658E-2	6.486258E-2	1.018041E-1	8.956274E-2	6.810404E-2	1.046107E-1	9.715692E-2	8.653999E-2	8.989968E-2	6.452694E-2	9.078872E-2	9.369136E-2	1.245335E-1	7.989242E-2	7.560950E-2	8.984408E-2	1.186676E-1	6.714670E-2	7.010471E-2	3.814853E-2	8.282198E-2	7.820978E-2	8.428152E-2	9.975907E-2	8.951047E-2	1.057063E-1	7.999535E-2	7.096951E-2	8.528610E-2	1.136789E-1	8.341796E-2	8.540008E-2	1.024657E-1	9.567964E-2	8.944019E-2	1.074621E-1	8.795891E-2	8.346320E-2	6.982484E-2	1.026569E-1	1.128517E-1	1.069759E-1	9.220592E-2	9.764631E-2	1.174072E-1	6.338704E-2	6.605712E-2	9.631232E-2	1.127108E-1	6.982921E-2	1.111701E-1	7.185592E-2	8.103691E-2	8.284506E-2	9.087453E-2	5.161684E-2	1.409402E-1	6.766241E-2	8.432894E-2	6.147853E-2	7.899500E-2	6.872663E-2	9.564750E-2	7.243904E-2	1.067677E-1	9.252917E-2	8.477592E-2	1.143288E-1	8.303034E-2	7.658681E-2	1.027802E-1	9.064902E-2	1.110344E-1	6.723225E-2	8.513910E-2	7.115824E-2	1.074196E-1	8.231627E-2	7.822570E-2	7.652763E-2	7.534298E-2	6.273609E-2	8.040362E-2	9.326924E-2	8.147560E-2	5.052362E-2	7.427218E-2	8.037702E-2	1.207590E-1	7.837785E-2	5.823458E-2	1.026046E-1	7.988572E-2	8.371131E-2	6.744301E-2	1.141024E-1	1.006919E-1	6.543419E-2	8.137723E-2	9.820796E-2	7.823039E-2	7.715537E-2	9.177454E-2	8.371182E-2	1.020540E-1	9.864569E-2	9.189554E-2	7.106628E-2	1.221546E-1	7.979606E-2	9.754445E-2	1.106716E-1	1.078611E-1	9.483982E-2	7.064690E-2	1.185772E-1	8.532215E-2	1.036366E-1	8.095473E-2	1.167879E-1	1.135401E-1	9.890863E-2	6.730021E-2	1.198196E-1	8.701336E-2	8.701264E-2	8.138223E-2	1.010856E-1	1.445470E-1	5.281459E-2	9.760369E-2	7.088842E-2	9.756420E-2	9.622373E-2	6.300623E-2	6.571802E-2	6.709178E-2	8.360641E-2	1.259757E-1
2.844030E+2	7.195056E-3	8.762679E-2	1.039391E-1	1.221335E-1	1.145181E-1	9.654395E-2	1.237551E-1	9.929830E-2	1.149085E-1	1.205924E-1	9.473510E-2	1.345373E-1	1.042252E-1	1.653531E-1	7.745338E-2	1.041096E-1	9.840990E-2	1.432203E-1	9.386565E-2	9.011230E-2	8.880450E-2	1.234077E-1	9.594933E-2	1.629640E-1	1.321647E-1	1.579500E-1	7.673029E-2	1.674165E-1	7.953376E-2	1.623508E-1	9.370040E-2	1.295172E-1	1.120332E-1	1.259806E-1	1.277641E-1	1.289197E-1	9.671071E-2	1.062230E-1	1.189801E-1	1.420852E-1	1.598795E-1	1.130601E-1	1.164529E-1	1.234309E-1	1.355417E-1	1.176810E-1	1.109748E-1	1.350607E-1	1.319950E-1	1.280044E-1	8.638456E-2	1.083027E-1	8.977635E-2	1.140143E-1	9.336625E-2	1.023420E-1	1.568394E-1	1.183632E-1	1.006494E-1	9.755299E-2	1.373629E-1	9.935707E-2	9.720904E-2	1.018400E-1	1.543528E-1	1.052817E-1	1.007424E-1	1.356748E-1	1.055969E-1	1.080786E-1	9.146519E-2	1.080019E-1	1.253260E-1	1.165097E-1	1.003663E-1	1.228927E-1	1.480754E-1	9.744877E-2	9.609136E-2	1.401258E-1	1.303388E-1	1.069036E-1	1.256919E-1	1.319018E-1	1.147683E-1	1.173257E-1	1.248890E-1	1.044029E-1	1.499039E-1	9.678780E-2	1.031272E-1	1.120305E-1	1.252730E-1	9.012541E-2	1.174795E-1	1.198997E-1	1.475301E-1	8.013421E-2	1.156183E-1	1.583773E-1	1.111729E-1	1.057348E-1	1.076935E-1	8.134167E-2	1.750831E-1	1.107895E-1	1.105608E-1	1.597417E-1	1.363303E-1	1.033365E-1	1.128423E-1	1.325748E-1	1.449758E-1	8.462902E-2	1.234762E-1	1.272185E-1	1.109358E-1	9.566283E-2	1.098365E-1	1.176273E-1	1.481618E-1	9.846122E-2	1.180316E-1	1.183793E-1	1.444085E-1	8.130559E-2	1.134337E-1	1.325424E-1	1.783624E-1	1.007437E-1	1.080834E-1	1.267677E-1	1.158525E-1	1.083134E-1	1.090996E-1	1.149587E-1	1.887967E-1	8.973414E-2	1.103719E-1	9.457942E-2	1.477388E-1	1.097980E-1	1.289370E-1	1.286116E-1	1.451452E-1	1.221361E-1	1.087042E-1	1.324522E-1	1.133770E-1	1.210213E-1	1.017793E-1	1.286150E-1	1.506580E-1	1.123322E-1	1.078576E-1	1.451574E-1	1.283186E-1	1.151068E-1	1.011717E-1	1.398943E-1	1.223553E-1	1.148517E-1	9.889165E-2	9.701364E-2	9.759455E-2	1.000504E-1	1.118172E-1	1.196085E-1	1.648579E-1	1.572080E-1	1.409100E-1
2.845010E+2	1.395057E-3	1.260621E-1	1.204399E-1	1.101367E-1	1.269836E-1	1.132872E-1	1.774631E-1	1.287798E-1	1.282599E-1	1.547793E-1	1.414780E-1	1.433273E-1	1.185497E-1	1.794632E-1	1.085641E-1	1.368412E-1	1.309644E-1	1.831395E-1	1.209036E-1	1.292812E-1	1.132784E-1	1.702915E-1	1.309111E-1	1.863021E-1	1.815903E-1	1.776039E-1	1.301953E-1	2.059847E-1	1.320903E-1	2.189032E-1	1.071798E-1	1.612716E-1	1.430163E-1	1.684288E-1	1.368196E-1	1.520325E-1	1.250050E-1	1.684986E-1	1.397457E-1	1.546612E-1	1.371078E-1	1.731688E-1	1.383770E-1	1.702466E-1	1.135246E-1	1.499016E-1	1.351919E-1	1.431697E-1	1.432286E-1	1.334525E-1	1.513715E-1	1.509206E-1	1.501307E-1	1.389259E-1	1.239554E-1	1.470187E-1	1.475516E-1	1.659741E-1	1.313195E-1	1.514102E-1	1.314553E-1	1.981274E-1	1.006878E-1	1.405376E-1	1.602765E-1	1.761053E-1	1.222478E-1	1.722718E-1	1.067060E-1	1.106010E-1	1.350754E-1	1.751119E-1	1.446311E-1	1.466619E-1	1.154686E-1	1.430077E-1	1.802913E-1	1.569239E-1	1.343212E-1	1.647209E-1	1.505431E-1	1.546625E-1	1.626699E-1	1.022902E-1	1.318891E-1	1.381407E-1	1.391845E-1	1.311653E-1	2.220484E-1	1.171957E-1	1.270880E-1	1.277657E-1	1.507574E-1	1.251648E-1	1.385332E-1	1.527561E-1	1.856534E-1	1.089030E-1	1.443060E-1	1.641999E-1	1.266001E-1	1.123353E-1	1.485809E-1	1.572332E-1	1.869481E-1	1.347414E-1	1.240091E-1	1.404966E-1	1.601667E-1	1.105356E-1	1.487931E-1	1.467592E-1	1.725666E-1	1.328318E-1	1.517493E-1	1.210472E-1	1.155046E-1	1.162629E-1	1.688628E-1	1.693967E-1	1.942217E-1	1.109367E-1	1.380602E-1	1.600413E-1	1.587770E-1	1.413268E-1	1.304318E-1	1.582540E-1	1.544445E-1	1.232398E-1	1.362067E-1	1.334776E-1	1.490652E-1	1.104750E-1	1.611971E-1	1.608938E-1	1.820292E-1	1.456704E-1	1.676012E-1	1.341905E-1	1.558007E-1	1.305030E-1	1.377758E-1	1.370158E-1	2.072891E-1	1.305943E-1	9.889570E-2	1.462356E-1	1.255629E-1	1.209657E-1	1.160603E-1	1.674035E-1	1.520419E-1	1.399212E-1	1.180591E-1	1.705488E-1	1.574252E-1	1.064397E-1	1.110878E-1	1.656295E-1	1.433352E-1	1.211230E-1	1.197598E-1	1.458718E-1	1.350868E-1	1.593064E-1	1.563492E-1	1.032593E-1	2.038395E-1	1.652350E-1	1.354225E-1
2.846030E+2	5.849499E-3	2.473029E-1	2.377593E-1	2.448986E-1	2.110496E-1	1.972215E-1	2.233447E-1	2.579931E-1	2.059781E-1	2.678592E-1	1.968211E-1	2.335104E-1	1.854499E-1	2.789671E-1	1.999704E-1	2.483793E-1	2.495153E-1	2.743989E-1	2.087408E-1	2.813121E-1	2.060039E-1	2.578862E-1	2.337181E-1	3.497251E-1	2.703011E-1	3.441654E-1	2.019567E-1	3.048035E-1	2.156018E-1	3.969393E-1	2.312637E-1	3.326308E-1	2.907138E-1	3.132725E-1	2.624994E-1	2.826935E-1	2.012219E-1	2.688851E-1	2.702477E-1	3.109095E-1	2.356779E-1	3.296427E-1	2.515897E-1	2.853868E-1	2.414123E-1	3.294826E-1	1.850099E-1	2.381021E-1	3.228260E-1	2.471396E-1	2.828212E-1	2.577223E-1	2.313026E-1	2.194050E-1	3.174451E-1	2.347569E-1	2.959026E-1	3.357233E-1	2.650350E-1	2.884379E-1	2.659805E-1	3.383961E-1	2.173786E-1	2.293514E-1	3.085682E-1	2.997764E-1	1.964984E-1	2.973845E-1	2.239952E-1	2.817832E-1	2.408524E-1	2.963351E-1	2.538000E-1	2.924125E-1	2.117939E-1	2.520912E-1	2.720353E-1	2.594489E-1	2.410624E-1	2.726088E-1	2.400995E-1	2.709561E-1	2.426868E-1	2.515650E-1	2.256250E-1	2.324328E-1	2.697616E-1	2.458806E-1	3.285514E-1	2.334193E-1	2.382405E-1	2.338405E-1	2.007557E-1	2.972328E-1	2.250102E-1	2.510815E-1	2.414243E-1	2.610977E-1	2.332356E-1	2.742688E-1	2.314524E-1	2.399653E-1	2.202100E-1	3.021362E-1	3.369301E-1	2.227085E-1	2.415464E-1	2.637446E-1	3.113256E-1	2.380110E-1	2.286899E-1	2.570494E-1	3.304180E-1	2.113689E-1	2.670354E-1	2.535688E-1	2.267596E-1	2.533282E-1	2.833852E-1	3.209073E-1	3.048330E-1	2.072704E-1	1.964351E-1	2.864421E-1	2.882111E-1	1.845426E-1	2.285039E-1	2.762793E-1	2.911907E-1	2.145512E-1	2.500793E-1	2.645617E-1	2.245071E-1	2.161639E-1	2.676055E-1	2.474354E-1	3.316173E-1	2.022750E-1	2.779342E-1	2.665193E-1	2.713967E-1	2.335040E-1	2.585198E-1	2.582305E-1	3.254144E-1	2.766569E-1	2.429793E-1	2.844235E-1	2.309492E-1	2.500386E-1	2.192642E-1	3.079546E-1	2.778149E-1	2.802198E-1	1.822095E-1	3.376268E-1	2.317433E-1	2.100323E-1	2.159731E-1	3.019382E-1	3.409088E-1	2.424294E-1	2.394628E-1	2.728199E-1	2.097647E-1	2.571432E-1	2.086346E-1	2.534803E-1	3.463594E-1	2.396340E-1	2.804913E-1
2.847020E+2	1.317423E-2	5.269671E-1	4.899058E-1	5.530686E-1	4.330976E-1	5.113772E-1	4.967425E-1	6.087062E-1	4.949257E-1	5.602222E-1	4.821842E-1	5.460648E-1	4.187935E-1	6.640361E-1	4.331515E-1	5.344181E-1	5.142566E-1	6.476635E-1	4.426149E-1	5.742084E-1	4.131072E-1	5.583774E-1	5.997105E-1	8.035311E-1	6.426306E-1	8.077444E-1	5.437959E-1	6.764548E-1	5.087612E-1	8.292955E-1	5.117972E-1	6.586713E-1	6.451541E-1	6.472324E-1	5.803036E-1	6.865541E-1	4.413462E-1	6.166651E-1	6.354026E-1	6.884490E-1	5.992276E-1	7.736179E-1	5.884581E-1	6.088941E-1	5.085147E-1	7.866872E-1	5.311319E-1	5.888540E-1	7.041553E-1	6.094361E-1	6.057141E-1	6.322790E-1	5.208430E-1	5.020419E-1	6.258932E-1	5.787464E-1	6.403866E-1	7.130361E-1	5.408569E-1	6.262761E-1	5.732252E-1	8.299155E-1	4.882996E-1	5.733735E-1	6.470663E-1	6.878767E-1	4.855050E-1	7.296502E-1	5.291253E-1	6.166150E-1	5.488587E-1	7.165141E-1	5.578906E-1	6.444789E-1	5.170917E-1	6.564496E-1	5.415684E-1	6.336341E-1	4.947376E-1	6.061882E-1	5.922394E-1	6.752093E-1	6.163525E-1	5.745238E-1	5.366409E-1	5.477489E-1	6.142831E-1	5.552791E-1	6.716876E-1	5.332724E-1	5.395045E-1	6.289717E-1	4.955204E-1	6.192105E-1	5.406258E-1	5.274385E-1	5.957855E-1	5.535831E-1	5.818902E-1	6.315225E-1	4.486691E-1	5.605315E-1	5.966173E-1	6.031535E-1	6.612823E-1	5.657052E-1	5.554841E-1	6.347769E-1	5.315012E-1	6.143358E-1	5.661601E-1	5.309991E-1	6.215741E-1	4.773582E-1	6.316136E-1	5.769696E-1	4.230628E-1	4.836490E-1	5.614840E-1	6.229555E-1	6.349704E-1	5.347171E-1	5.472524E-1	6.439343E-1	5.513053E-1	5.512727E-1	5.384176E-1	6.078610E-1	6.894846E-1	4.829192E-1	6.443498E-1	5.946605E-1	5.043788E-1	5.009081E-1	6.054222E-1	5.947970E-1	6.664591E-1	4.945049E-1	5.773982E-1	5.832338E-1	5.447689E-1	4.713197E-1	6.266226E-1	5.817550E-1	6.329039E-1	5.634407E-1	5.034838E-1	6.636905E-1	4.800750E-1	5.925666E-1	5.120581E-1	6.814485E-1	7.082270E-1	5.877587E-1	4.195718E-1	6.785424E-1	5.614415E-1	4.915435E-1	5.193635E-1	5.868801E-1	6.744312E-1	5.213121E-1	5.561540E-1	6.343137E-1	4.905900E-1	5.347607E-1	5.564482E-1	5.968840E-1	6.437752E-1	4.938601E-1	6.620969E-1
2.848000E+2	2.359246E-2	1.101746E+0	9.909880E-1	1.174123E+0	9.331560E-1	1.030902E+0	1.032491E+0	1.273792E+0	9.547767E-1	1.156705E+0	9.836759E-1	1.159023E+0	9.060747E-1	1.290397E+0	9.005086E-1	1.176793E+0	1.079391E+0	1.243333E+0	9.292026E-1	1.276602E+0	9.575731E-1	1.200673E+0	1.001142E+0	1.385902E+0	1.164570E+0	1.536179E+0	8.645366E-1	1.414663E+0	9.917762E-1	1.492991E+0	8.343438E-1	1.170853E+0	1.225989E+0	1.192929E+0	1.287124E+0	1.186547E+0	9.108850E-1	1.215310E+0	1.188084E+0	1.260475E+0	1.145864E+0	1.290706E+0	1.173850E+0	1.171409E+0	1.030420E+0	1.317422E+0	1.054536E+0	1.101996E+0	1.358405E+0	1.165124E+0	1.184982E+0	1.119993E+0	1.041473E+0	1.099566E+0	1.161875E+0	1.111319E+0	1.202707E+0	1.272656E+0	1.065216E+0	1.156626E+0	9.853322E-1	1.489816E+0	1.014819E+0	1.089743E+0	1.257632E+0	1.408046E+0	9.524119E-1	1.258690E+0	9.454316E-1	1.145875E+0	9.997540E-1	1.300634E+0	1.086454E+0	1.198040E+0	9.476273E-1	1.243802E+0	1.094421E+0	1.178410E+0	1.021478E+0	1.145894E+0	1.177771E+0	1.160898E+0	1.157353E+0	1.159024E+0	8.837878E-1	1.066823E+0	1.177590E+0	1.054186E+0	1.245230E+0	1.062573E+0	1.094504E+0	1.228900E+0	9.439240E-1	1.207867E+0	1.060987E+0	1.108905E+0	1.189052E+0	1.179890E+0	1.094259E+0	1.217459E+0	9.601247E-1	1.071491E+0	1.105787E+0	1.195114E+0	1.282904E+0	1.103871E+0	9.518834E-1	1.179028E+0	1.037717E+0	1.184851E+0	1.027113E+0	1.051574E+0	1.251310E+0	1.010832E+0	1.288989E+0	1.221756E+0	9.480722E-1	1.053287E+0	1.187847E+0	1.233366E+0	1.266861E+0	1.099164E+0	1.069705E+0	1.261797E+0	1.001282E+0	1.048697E+0	1.085145E+0	1.235594E+0	1.260465E+0	1.018256E+0	1.219224E+0	1.209510E+0	9.705017E-1	1.142488E+0	1.239622E+0	1.096006E+0	1.207124E+0	1.109412E+0	1.128407E+0	1.096865E+0	1.060158E+0	1.071561E+0	1.187981E+0	1.036054E+0	1.246706E+0	1.219707E+0	9.649937E-1	1.188683E+0	1.029997E+0	1.115049E+0	9.783768E-1	1.281028E+0	1.118677E+0	1.222651E+0	9.459407E-1	1.488998E+0	8.971804E-1	1.140719E+0	1.012510E+0	1.235426E+0	1.218433E+0	1.130100E+0	1.083869E+0	1.171568E+0	9.692186E-1	1.127945E+0	1.204671E+0	1.141901E+0	1.313704E+0	1.087816E+0	1.297951E+0
2.849020E+2	3.237972E-2	1.522458E+0	1.439452E+0	1.534404E+0	1.301472E+0	1.464444E+0	1.509839E+0	1.719304E+0	1.448911E+0	1.778324E+0	1.334717E+0	1.638097E+0	1.214831E+0	1.952351E+0	1.276025E+0	1.573028E+0	1.588365E+0	1.781760E+0	1.301207E+0	1.878753E+0	1.261776E+0	1.563499E+0	1.289544E+0	1.857257E+0	1.509363E+0	1.909355E+0	1.139565E+0	1.799313E+0	1.234432E+0	1.968003E+0	1.123774E+0	1.667135E+0	1.543277E+0	1.646481E+0	1.594000E+0	1.616524E+0	1.202149E+0	1.576615E+0	1.481430E+0	1.635831E+0	1.508690E+0	1.740428E+0	1.592712E+0	1.552525E+0	1.363949E+0	1.739266E+0	1.389027E+0	1.451960E+0	1.712850E+0	1.537555E+0	1.439394E+0	1.562518E+0	1.454197E+0	1.393800E+0	1.545206E+0	1.580225E+0	1.684102E+0	1.756233E+0	1.411748E+0	1.555330E+0	1.351503E+0	2.104694E+0	1.256530E+0	1.435327E+0	1.712302E+0	1.820055E+0	1.270350E+0	1.827114E+0	1.287925E+0	1.626431E+0	1.293768E+0	1.786136E+0	1.490487E+0	1.638615E+0	1.307325E+0	1.728926E+0	1.430908E+0	1.551505E+0	1.420625E+0	1.567445E+0	1.499979E+0	1.566799E+0	1.607006E+0	1.562328E+0	1.293606E+0	1.497525E+0	1.652891E+0	1.525434E+0	1.677684E+0	1.540944E+0	1.471191E+0	1.604190E+0	1.324830E+0	1.584576E+0	1.501437E+0	1.524469E+0	1.737374E+0	1.467129E+0	1.453489E+0	1.602095E+0	1.288148E+0	1.429479E+0	1.551067E+0	1.728985E+0	1.722457E+0	1.517595E+0	1.407750E+0	1.690957E+0	1.480049E+0	1.582541E+0	1.494496E+0	1.546424E+0	1.764678E+0	1.408216E+0	1.660367E+0	1.623955E+0	1.344001E+0	1.445239E+0	1.565412E+0	1.663597E+0	1.690465E+0	1.475613E+0	1.540472E+0	1.860964E+0	1.355148E+0	1.415634E+0	1.415935E+0	1.696503E+0	1.697868E+0	1.499281E+0	1.656419E+0	1.635113E+0	1.314218E+0	1.483123E+0	1.626757E+0	1.527952E+0	1.683501E+0	1.583081E+0	1.621950E+0	1.563982E+0	1.315777E+0	1.435578E+0	1.715772E+0	1.463788E+0	1.777909E+0	1.660677E+0	1.318116E+0	1.682982E+0	1.367022E+0	1.671009E+0	1.315180E+0	1.893020E+0	1.575256E+0	1.845792E+0	1.191671E+0	2.145027E+0	1.169307E+0	1.688661E+0	1.447748E+0	1.745837E+0	1.725499E+0	1.594939E+0	1.545943E+0	1.679605E+0	1.422528E+0	1.534383E+0	1.507890E+0	1.565502E+0	1.650978E+0	1.483286E+0	1.694332E+0
2.850010E+2	4.878259E-2	1.503999E+0	1.393549E+0	1.556360E+0	1.437277E+0	1.492409E+0	1.480971E+0	1.730209E+0	1.412498E+0	1.710539E+0	1.356608E+0	1.590669E+0	1.261479E+0	1.944259E+0	1.343843E+0	1.693758E+0	1.521785E+0	1.889907E+0	1.358062E+0	1.846153E+0	1.237727E+0	1.627840E+0	1.231316E+0	1.819782E+0	1.471784E+0	1.880535E+0	1.157791E+0	1.857280E+0	1.197290E+0	2.031441E+0	1.101203E+0	1.659735E+0	1.571324E+0	1.560181E+0	1.559593E+0	1.624191E+0	1.145635E+0	1.585393E+0	1.520810E+0	1.677964E+0	1.405171E+0	1.723764E+0	1.409443E+0	1.549586E+0	1.374440E+0	1.749092E+0	1.349524E+0	1.412304E+0	1.677544E+0	1.427417E+0	1.570980E+0	1.517974E+0	1.415996E+0	1.402497E+0	1.474776E+0	1.562125E+0	1.615007E+0	1.730133E+0	1.376458E+0	1.579970E+0	1.358649E+0	2.042323E+0	1.182082E+0	1.536373E+0	1.675166E+0	1.753352E+0	1.303535E+0	1.778886E+0	1.255548E+0	1.610845E+0	1.350143E+0	1.912899E+0	1.482892E+0	1.698085E+0	1.333025E+0	1.742857E+0	1.511918E+0	1.532956E+0	1.382438E+0	1.513263E+0	1.583045E+0	1.583721E+0	1.611105E+0	1.442041E+0	1.245501E+0	1.502165E+0	1.614858E+0	1.458270E+0	1.845748E+0	1.621984E+0	1.434813E+0	1.614499E+0	1.286246E+0	1.571795E+0	1.453166E+0	1.469783E+0	1.593619E+0	1.506255E+0	1.548522E+0	1.690659E+0	1.316378E+0	1.484495E+0	1.528918E+0	1.617290E+0	1.851000E+0	1.477105E+0	1.416732E+0	1.661157E+0	1.470205E+0	1.622952E+0	1.431072E+0	1.516916E+0	1.861944E+0	1.397385E+0	1.684739E+0	1.705406E+0	1.375366E+0	1.418244E+0	1.659817E+0	1.739938E+0	1.551736E+0	1.419157E+0	1.441818E+0	1.817066E+0	1.362040E+0	1.500630E+0	1.533130E+0	1.707199E+0	1.741815E+0	1.408200E+0	1.620169E+0	1.609594E+0	1.347480E+0	1.373103E+0	1.672292E+0	1.604174E+0	1.737737E+0	1.567450E+0	1.644654E+0	1.494958E+0	1.386189E+0	1.540524E+0	1.622927E+0	1.492725E+0	1.668465E+0	1.612192E+0	1.374717E+0	1.738723E+0	1.345790E+0	1.617798E+0	1.383437E+0	1.824955E+0	1.545715E+0	1.730771E+0	1.236066E+0	2.033794E+0	1.207534E+0	1.584249E+0	1.367443E+0	1.669259E+0	1.646206E+0	1.482800E+0	1.470686E+0	1.631344E+0	1.341132E+0	1.603378E+0	1.456969E+0	1.612908E+0	1.623716E+0	1.683714E+0	1.604616E+0
2.851000E+2	2.354851E-2	1.492293E+0	1.389505E+0	1.474061E+0	1.354145E+0	1.409122E+0	1.456712E+0	1.695811E+0	1.438740E+0	1.642268E+0	1.318560E+0	1.602974E+0	1.254500E+0	1.888248E+0	1.321564E+0	1.623319E+0	1.567292E+0	1.736896E+0	1.312264E+0	1.830319E+0	1.182855E+0	1.573069E+0	1.247179E+0	1.816517E+0	1.515491E+0	1.947270E+0	1.091964E+0	1.712384E+0	1.300955E+0	1.936899E+0	1.058453E+0	1.631816E+0	1.517807E+0	1.584936E+0	1.538417E+0	1.578378E+0	1.137610E+0	1.546703E+0	1.549027E+0	1.652450E+0	1.431724E+0	1.715292E+0	1.434471E+0	1.438171E+0	1.335356E+0	1.733736E+0	1.391581E+0	1.385221E+0	1.626522E+0	1.494403E+0	1.527982E+0	1.421056E+0	1.403849E+0	1.371967E+0	1.466284E+0	1.485595E+0	1.587833E+0	1.685596E+0	1.251142E+0	1.459123E+0	1.236229E+0	2.033183E+0	1.300983E+0	1.416867E+0	1.572870E+0	1.678731E+0	1.253055E+0	1.757308E+0	1.284472E+0	1.606919E+0	1.381406E+0	1.714841E+0	1.485075E+0	1.593614E+0	1.285802E+0	1.603051E+0	1.445882E+0	1.528715E+0	1.320815E+0	1.515015E+0	1.502398E+0	1.580744E+0	1.674250E+0	1.477272E+0	1.282172E+0	1.398542E+0	1.530622E+0	1.440090E+0	1.778650E+0	1.429123E+0	1.471721E+0	1.526418E+0	1.355093E+0	1.571714E+0	1.426755E+0	1.448989E+0	1.572183E+0	1.500847E+0	1.411426E+0	1.454837E+0	1.193050E+0	1.461183E+0	1.470222E+0	1.532267E+0	1.642141E+0	1.490695E+0	1.404363E+0	1.570358E+0	1.452156E+0	1.517261E+0	1.435425E+0	1.531823E+0	1.767342E+0	1.321872E+0	1.617795E+0	1.633884E+0	1.292427E+0	1.330837E+0	1.572381E+0	1.541409E+0	1.580901E+0	1.431584E+0	1.377563E+0	1.731236E+0	1.256150E+0	1.523521E+0	1.410998E+0	1.577738E+0	1.507171E+0	1.360399E+0	1.576286E+0	1.510308E+0	1.339027E+0	1.400057E+0	1.496698E+0	1.476400E+0	1.706340E+0	1.446113E+0	1.593693E+0	1.486070E+0	1.299340E+0	1.381197E+0	1.595091E+0	1.414927E+0	1.764277E+0	1.626527E+0	1.276878E+0	1.786363E+0	1.342924E+0	1.620367E+0	1.388577E+0	1.742530E+0	1.536987E+0	1.732399E+0	1.154014E+0	1.894292E+0	1.154038E+0	1.556895E+0	1.388084E+0	1.627250E+0	1.592626E+0	1.509220E+0	1.442306E+0	1.524225E+0	1.269249E+0	1.445149E+0	1.509604E+0	1.589659E+0	1.599521E+0	1.532529E+0	1.607465E+0
2.852040E+2	3.092181E-2	1.299864E+0	1.247331E+0	1.384100E+0	1.095743E+0	1.176910E+0	1.175174E+0	1.484362E+0	1.157676E+0	1.391582E+0	1.141010E+0	1.371053E+0	1.064072E+0	1.447601E+0	1.116234E+0	1.333054E+0	1.359370E+0	1.562032E+0	1.101831E+0	1.554329E+0	1.082429E+0	1.403944E+0	1.082893E+0	1.565809E+0	1.285184E+0	1.563979E+0	9.974489E-1	1.470614E+0	1.008266E+0	1.699989E+0	9.998873E-1	1.407330E+0	1.347431E+0	1.374189E+0	1.310025E+0	1.373167E+0	9.617419E-1	1.309104E+0	1.292469E+0	1.405295E+0	1.314345E+0	1.437265E+0	1.310876E+0	1.354766E+0	1.088317E+0	1.485113E+0	1.153691E+0	1.241481E+0	1.412243E+0	1.284017E+0	1.232609E+0	1.250496E+0	1.148526E+0	1.140753E+0	1.283321E+0	1.260840E+0	1.421162E+0	1.462870E+0	1.093963E+0	1.251230E+0	1.150818E+0	1.778102E+0	1.080014E+0	1.238648E+0	1.484468E+0	1.556649E+0	1.087390E+0	1.540332E+0	1.138879E+0	1.357500E+0	1.176604E+0	1.526958E+0	1.345100E+0	1.316953E+0	1.176871E+0	1.379812E+0	1.159350E+0	1.345757E+0	1.138469E+0	1.294299E+0	1.276506E+0	1.318715E+0	1.406786E+0	1.295280E+0	1.099725E+0	1.213026E+0	1.381507E+0	1.239103E+0	1.511378E+0	1.305250E+0	1.281985E+0	1.327674E+0	1.065559E+0	1.373581E+0	1.183796E+0	1.320349E+0	1.348273E+0	1.278432E+0	1.276284E+0	1.360598E+0	1.043376E+0	1.300730E+0	1.237278E+0	1.382949E+0	1.456008E+0	1.330580E+0	1.161914E+0	1.413189E+0	1.188454E+0	1.332830E+0	1.193721E+0	1.273608E+0	1.489032E+0	1.267300E+0	1.393247E+0	1.436802E+0	1.134604E+0	1.143744E+0	1.379407E+0	1.370090E+0	1.381617E+0	1.226647E+0	1.306153E+0	1.484609E+0	1.160582E+0	1.181440E+0	1.155843E+0	1.398926E+0	1.394398E+0	1.156846E+0	1.323021E+0	1.397879E+0	1.100955E+0	1.175645E+0	1.391514E+0	1.294820E+0	1.441252E+0	1.292223E+0	1.290227E+0	1.233770E+0	1.147273E+0	1.234405E+0	1.357772E+0	1.157143E+0	1.455301E+0	1.405493E+0	1.072531E+0	1.473967E+0	1.083173E+0	1.382394E+0	1.171586E+0	1.530228E+0	1.336964E+0	1.510852E+0	1.027559E+0	1.687129E+0	1.061982E+0	1.379730E+0	1.124779E+0	1.413255E+0	1.379801E+0	1.329809E+0	1.164440E+0	1.380965E+0	1.140917E+0	1.280376E+0	1.275762E+0	1.282397E+0	1.416137E+0	1.305156E+0	1.318951E+0
2.853000E+2	2.782553E-2	9.796712E-1	8.928516E-1	1.013315E+0	7.955386E-1	8.843550E-1	9.579222E-1	1.112278E+0	8.812218E-1	9.405580E-1	9.029461E-1	1.020762E+0	8.143693E-1	1.002240E+0	9.742263E-1	9.955722E-1	9.460249E-1	9.596297E-1	8.620225E-1	1.088570E+0	8.121482E-1	9.922849E-1	8.976385E-1	1.126686E+0	1.041670E+0	1.062179E+0	8.908543E-1	1.149407E+0	7.688757E-1	1.342852E+0	7.251667E-1	1.098535E+0	9.897444E-1	9.400152E-1	1.057538E+0	1.000699E+0	6.857787E-1	1.008806E+0	9.501176E-1	1.027727E+0	9.548498E-1	1.176064E+0	1.015512E+0	9.981796E-1	8.429182E-1	1.077703E+0	8.953846E-1	9.231421E-1	1.069289E+0	9.711481E-1	9.546991E-1	9.447506E-1	8.982027E-1	9.343984E-1	9.887900E-1	9.741688E-1	9.997925E-1	1.135348E+0	8.482600E-1	9.338119E-1	8.285205E-1	1.194759E+0	7.636958E-1	9.057142E-1	1.066652E+0	1.159953E+0	7.938380E-1	1.105614E+0	8.345572E-1	1.002329E+0	8.582250E-1	1.181180E+0	9.887095E-1	1.098768E+0	8.478630E-1	1.103900E+0	9.754981E-1	9.817788E-1	8.062200E-1	1.053137E+0	9.357711E-1	9.614716E-1	1.031465E+0	9.669499E-1	8.022717E-1	8.975892E-1	9.836409E-1	9.196457E-1	1.094888E+0	9.737043E-1	9.471894E-1	1.020772E+0	8.429110E-1	1.112551E+0	8.738512E-1	9.854070E-1	1.055655E+0	9.114969E-1	9.148377E-1	1.034046E+0	8.210540E-1	9.606339E-1	1.008487E+0	1.057171E+0	1.085445E+0	8.893159E-1	8.579865E-1	1.005792E+0	8.302133E-1	9.637651E-1	9.192234E-1	9.258042E-1	1.084459E+0	8.524380E-1	1.051541E+0	1.143742E+0	8.646481E-1	8.329422E-1	1.009079E+0	1.093230E+0	1.063265E+0	9.538160E-1	1.040290E+0	1.107950E+0	8.391402E-1	9.675197E-1	9.527948E-1	1.071280E+0	1.140045E+0	8.816764E-1	1.056296E+0	9.473765E-1	7.829977E-1	9.383558E-1	1.000012E+0	9.648865E-1	1.107013E+0	9.452683E-1	1.033683E+0	9.438859E-1	8.572006E-1	9.349175E-1	1.038355E+0	9.003351E-1	1.084443E+0	9.879213E-1	8.512275E-1	1.063394E+0	8.221991E-1	1.031315E+0	8.661593E-1	1.188749E+0	9.683858E-1	1.158084E+0	7.880498E-1	1.302014E+0	7.946310E-1	1.079161E+0	9.038371E-1	1.061363E+0	1.038376E+0	1.047008E+0	9.268656E-1	1.011962E+0	8.844699E-1	9.794971E-1	9.838006E-1	1.020697E+0	9.903898E-1	9.831238E-1	1.074220E+0
2.854010E+2	1.456393E-2	6.391878E-1	5.990941E-1	6.443188E-1	5.308443E-1	6.431107E-1	6.498468E-1	7.099583E-1	5.679120E-1	6.034152E-1	6.298275E-1	6.916399E-1	4.841091E-1	6.000798E-1	6.380092E-1	6.920073E-1	6.328782E-1	6.475800E-1	6.898741E-1	7.490915E-1	4.843871E-1	6.274132E-1	5.805692E-1	7.653442E-1	5.951713E-1	6.057804E-1	6.452389E-1	7.679901E-1	5.491135E-1	7.164488E-1	5.952270E-1	6.925061E-1	6.345682E-1	5.728018E-1	7.063995E-1	7.124749E-1	5.516549E-1	6.239944E-1	6.080730E-1	6.919284E-1	6.210671E-1	6.954359E-1	7.011803E-1	6.617987E-1	5.714798E-1	6.077926E-1	6.989919E-1	5.992496E-1	6.987114E-1	5.850669E-1	7.316091E-1	6.017450E-1	5.780522E-1	6.195000E-1	6.347692E-1	6.628619E-1	7.043932E-1	7.510489E-1	5.553331E-1	6.771535E-1	5.276553E-1	9.519273E-1	5.536145E-1	6.177659E-1	6.993887E-1	7.582661E-1	4.889713E-1	7.177195E-1	5.567386E-1	7.046691E-1	6.019624E-1	7.311920E-1	6.719520E-1	7.273412E-1	5.451655E-1	6.903179E-1	6.052501E-1	6.960420E-1	6.339519E-1	6.910424E-1	7.013847E-1	7.009745E-1	6.446716E-1	5.899533E-1	5.628446E-1	5.760778E-1	7.358192E-1	6.216716E-1	7.344611E-1	6.585253E-1	6.165920E-1	6.379683E-1	5.213451E-1	7.160293E-1	6.244452E-1	6.080322E-1	7.089745E-1	6.369188E-1	5.963877E-1	6.503524E-1	5.181236E-1	6.315422E-1	5.977469E-1	7.181561E-1	7.724856E-1	6.274305E-1	6.123301E-1	6.987938E-1	5.951090E-1	6.931164E-1	6.301254E-1	5.891453E-1	7.433275E-1	5.970524E-1	7.267361E-1	6.894715E-1	5.688780E-1	5.598023E-1	6.489527E-1	7.033822E-1	6.732947E-1	5.983222E-1	6.449613E-1	7.330494E-1	6.092230E-1	6.032018E-1	6.129657E-1	6.767815E-1	7.319378E-1	5.667083E-1	6.813126E-1	6.753880E-1	5.837301E-1	6.456246E-1	6.825795E-1	6.134462E-1	6.675124E-1	6.100143E-1	6.709195E-1	5.950209E-1	5.528701E-1	6.193754E-1	6.635419E-1	6.279340E-1	7.496080E-1	7.138336E-1	5.411114E-1	7.007483E-1	5.755543E-1	6.672272E-1	5.462805E-1	7.511055E-1	6.174542E-1	7.394421E-1	4.930943E-1	7.716484E-1	5.095454E-1	6.825213E-1	5.550510E-1	7.266068E-1	6.379165E-1	6.093505E-1	5.963572E-1	6.635190E-1	5.366606E-1	6.677525E-1	6.685843E-1	7.067460E-1	6.978162E-1	6.419986E-1	6.505315E-1
2.855020E+2	1.158646E-2	5.137460E-1	4.818699E-1	5.139468E-1	4.467533E-1	4.848419E-1	5.214346E-1	5.900912E-1	4.875782E-1	5.018275E-1	5.220050E-1	5.363296E-1	4.222352E-1	5.233641E-1	5.327238E-1	5.111692E-1	5.199784E-1	5.377675E-1	5.576587E-1	6.050655E-1	4.324512E-1	5.118622E-1	4.551254E-1	6.299834E-1	5.656240E-1	4.830280E-1	4.902441E-1	6.372375E-1	4.611181E-1	5.919777E-1	5.007071E-1	5.636507E-1	5.335451E-1	5.268804E-1	6.062010E-1	5.599489E-1	3.719906E-1	5.183767E-1	5.058873E-1	5.929626E-1	4.781400E-1	5.706861E-1	5.496226E-1	4.949534E-1	4.903662E-1	4.770093E-1	5.592063E-1	4.979190E-1	5.849521E-1	4.406410E-1	6.649420E-1	5.211574E-1	5.411053E-1	4.749639E-1	5.559233E-1	4.960846E-1	5.918878E-1	5.839200E-1	5.221549E-1	4.520755E-1	4.652630E-1	6.454210E-1	4.592769E-1	5.029479E-1	5.522095E-1	5.693798E-1	4.968294E-1	5.835955E-1	4.468643E-1	5.694016E-1	4.558813E-1	6.217046E-1	5.471809E-1	5.202201E-1	4.645212E-1	5.711934E-1	4.510797E-1	4.557451E-1	5.717211E-1	5.433945E-1	4.960921E-1	4.730867E-1	5.884398E-1	5.280976E-1	4.664990E-1	4.983951E-1	5.954257E-1	5.121817E-1	5.620764E-1	5.145936E-1	4.946273E-1	5.199285E-1	4.647617E-1	5.355807E-1	5.056660E-1	5.202126E-1	5.559901E-1	5.715603E-1	5.303127E-1	5.360282E-1	4.659317E-1	5.343123E-1	5.003901E-1	5.283181E-1	5.930552E-1	5.118883E-1	4.882671E-1	6.071650E-1	4.601757E-1	5.229630E-1	4.859713E-1	5.517281E-1	6.021409E-1	4.878422E-1	5.470015E-1	5.773930E-1	5.021368E-1	4.509590E-1	5.483204E-1	5.739477E-1	5.536010E-1	4.779526E-1	5.201716E-1	5.613909E-1	4.622889E-1	4.948107E-1	4.804619E-1	5.656930E-1	6.374999E-1	4.831929E-1	5.877061E-1	5.192750E-1	4.293117E-1	4.882188E-1	5.411037E-1	5.569679E-1	5.910654E-1	5.617626E-1	5.470379E-1	5.104788E-1	4.964490E-1	4.651258E-1	5.071375E-1	5.029168E-1	5.887884E-1	6.005254E-1	4.899672E-1	6.206464E-1	4.382556E-1	5.809802E-1	4.615243E-1	6.155271E-1	4.959168E-1	5.986305E-1	4.617882E-1	7.450307E-1	4.340633E-1	5.418582E-1	4.486326E-1	5.817095E-1	5.621592E-1	5.314139E-1	5.199746E-1	5.696688E-1	4.724238E-1	5.364109E-1	5.200027E-1	5.175711E-1	5.182651E-1	5.836320E-1	5.938112E-1
2.856030E+2	1.015659E-2	3.982325E-1	4.141102E-1	4.452019E-1	3.667408E-1	4.084890E-1	4.105817E-1	4.292003E-1	3.905296E-1	4.068232E-1	4.150095E-1	4.443055E-1	3.053707E-1	3.653618E-1	4.359272E-1	4.797217E-1	4.126296E-1	4.173630E-1	4.413597E-1	4.607850E-1	3.152686E-1	3.972316E-1	3.851728E-1	5.021056E-1	4.224435E-1	4.191810E-1	4.416143E-1	4.970678E-1	3.076313E-1	4.513561E-1	3.731429E-1	5.041026E-1	3.866870E-1	4.772543E-1	5.162367E-1	4.820525E-1	3.520302E-1	3.956163E-1	4.056234E-1	4.278855E-1	4.064133E-1	4.302610E-1	4.833705E-1	4.324735E-1	3.480890E-1	3.883155E-1	4.640383E-1	3.702165E-1	4.216148E-1	3.313005E-1	5.542286E-1	4.538774E-1	4.033497E-1	3.478941E-1	4.740163E-1	3.877136E-1	4.234204E-1	4.430104E-1	4.035858E-1	3.786848E-1	3.799876E-1	4.912885E-1	3.869090E-1	4.248356E-1	4.714545E-1	4.443874E-1	3.965809E-1	5.054684E-1	3.278601E-1	4.303997E-1	3.579929E-1	4.827945E-1	4.215548E-1	4.498289E-1	4.054401E-1	5.113139E-1	3.745917E-1	3.765944E-1	4.201518E-1	4.134173E-1	3.749379E-1	3.719533E-1	5.336465E-1	3.391421E-1	3.177445E-1	3.741979E-1	4.760592E-1	3.752317E-1	5.018698E-1	4.112837E-1	3.938038E-1	3.894656E-1	3.456770E-1	3.949422E-1	4.576281E-1	4.527720E-1	4.488608E-1	3.808258E-1	4.313389E-1	4.513122E-1	3.692266E-1	4.133729E-1	4.223736E-1	4.298174E-1	4.506531E-1	4.225317E-1	4.246810E-1	4.253042E-1	3.749433E-1	3.965067E-1	4.790355E-1	4.258181E-1	4.491899E-1	3.570470E-1	5.159437E-1	4.183261E-1	3.824346E-1	3.645830E-1	3.979749E-1	4.599845E-1	4.988093E-1	4.260306E-1	3.873033E-1	4.862450E-1	3.648552E-1	4.668691E-1	4.454623E-1	4.753916E-1	4.415965E-1	3.965469E-1	4.629869E-1	4.188329E-1	3.477514E-1	4.090203E-1	4.089175E-1	3.839605E-1	4.662049E-1	4.296149E-1	4.428078E-1	3.945652E-1	3.405605E-1	4.009173E-1	4.388959E-1	4.037611E-1	5.075988E-1	4.519782E-1	3.752976E-1	4.582855E-1	3.594903E-1	4.414231E-1	3.540940E-1	4.476925E-1	4.367853E-1	5.029359E-1	3.229516E-1	5.014524E-1	3.459222E-1	4.565768E-1	4.053103E-1	4.452724E-1	4.262991E-1	4.115443E-1	4.144575E-1	4.594858E-1	3.744869E-1	4.669238E-1	3.890673E-1	3.866414E-1	3.823934E-1	4.988501E-1	4.721058E-1
2.858030E+2	1.873422E-2	3.676099E-1	3.473821E-1	3.151438E-1	2.840478E-1	3.384685E-1	3.960720E-1	3.794311E-1	3.576485E-1	3.765842E-1	3.722791E-1	3.967937E-1	3.117200E-1	3.436744E-1	3.501943E-1	4.134191E-1	3.553227E-1	3.838488E-1	3.579037E-1	4.238852E-1	3.027700E-1	3.587930E-1	3.720198E-1	4.601188E-1	3.849617E-1	4.048632E-1	4.133473E-1	4.752088E-1	2.993670E-1	4.024104E-1	3.330437E-1	4.317918E-1	3.699149E-1	3.826884E-1	4.724364E-1	4.489361E-1	2.743997E-1	3.793171E-1	3.866815E-1	4.151108E-1	3.514435E-1	3.973423E-1	4.103802E-1	3.560189E-1	3.211047E-1	3.626725E-1	4.331603E-1	3.888249E-1	4.302016E-1	3.314135E-1	4.502771E-1	3.993603E-1	3.264125E-1	3.606707E-1	4.185188E-1	3.593732E-1	3.993777E-1	3.954152E-1	3.776505E-1	3.762468E-1	3.350860E-1	4.131684E-1	3.519004E-1	3.824605E-1	4.388850E-1	4.335190E-1	3.452866E-1	4.575950E-1	2.815525E-1	3.834819E-1	3.235444E-1	4.075754E-1	3.426060E-1	3.853618E-1	3.654043E-1	4.053018E-1	3.684572E-1	3.161631E-1	4.365603E-1	3.447039E-1	4.059704E-1	3.268985E-1	4.337292E-1	3.781416E-1	2.773802E-1	3.444177E-1	4.049488E-1	3.249067E-1	4.472949E-1	3.781168E-1	3.932220E-1	3.830036E-1	3.245899E-1	3.367384E-1	3.997795E-1	3.503609E-1	3.839421E-1	3.659838E-1	3.772081E-1	3.733986E-1	3.227318E-1	3.764271E-1	3.618779E-1	3.986268E-1	4.236670E-1	3.186211E-1	3.916646E-1	3.309925E-1	3.428400E-1	3.270563E-1	4.204914E-1	4.165110E-1	3.996649E-1	2.724822E-1	4.815207E-1	4.007094E-1	3.367118E-1	2.910948E-1	3.878102E-1	4.364846E-1	4.163729E-1	3.030539E-1	3.973755E-1	4.190143E-1	3.026543E-1	2.900977E-1	4.486215E-1	4.193231E-1	4.148333E-1	2.872728E-1	4.292722E-1	3.851066E-1	3.095646E-1	3.168169E-1	4.361149E-1	3.468057E-1	4.299748E-1	3.298781E-1	4.168679E-1	3.764539E-1	2.986384E-1	3.649704E-1	4.651107E-1	3.705648E-1	4.103485E-1	3.552846E-1	3.029284E-1	4.417295E-1	3.106502E-1	4.082943E-1	3.281266E-1	4.731669E-1	3.820133E-1	4.512041E-1	3.041683E-1	4.864130E-1	3.194856E-1	3.700254E-1	3.574218E-1	4.060666E-1	4.017552E-1	4.013626E-1	3.823276E-1	4.077328E-1	3.609431E-1	4.149915E-1	3.929205E-1	3.477636E-1	4.414406E-1	4.218922E-1	4.678714E-1
2.860050E+2	9.859025E-3	5.485890E-1	5.291236E-1	5.753302E-1	4.907126E-1	5.292096E-1	5.770518E-1	6.660774E-1	5.100046E-1	5.007304E-1	5.529054E-1	5.981327E-1	4.821405E-1	5.725346E-1	6.016580E-1	5.980139E-1	5.675132E-1	5.662112E-1	5.798156E-1	6.040907E-1	4.858959E-1	5.625048E-1	5.504071E-1	7.354474E-1	5.941100E-1	5.655118E-1	6.196399E-1	7.105723E-1	5.227721E-1	7.191739E-1	5.486430E-1	6.255787E-1	6.090403E-1	5.951999E-1	7.049132E-1	6.189196E-1	4.627970E-1	6.255255E-1	6.048487E-1	6.219383E-1	5.561399E-1	6.349636E-1	7.049693E-1	5.772403E-1	4.838617E-1	5.724369E-1	6.848000E-1	5.673009E-1	7.115544E-1	4.717995E-1	6.890347E-1	6.117160E-1	5.556870E-1	5.266881E-1	6.340944E-1	6.394551E-1	6.290040E-1	6.165316E-1	5.573958E-1	6.123444E-1	4.871014E-1	6.421112E-1	5.382576E-1	5.749737E-1	5.623991E-1	6.520582E-1	5.203370E-1	6.914142E-1	4.534820E-1	5.322456E-1	5.726630E-1	6.394037E-1	5.468831E-1	5.797067E-1	5.340351E-1	6.050316E-1	5.402149E-1	4.885054E-1	6.380562E-1	5.838947E-1	5.699209E-1	5.159630E-1	6.824837E-1	5.936020E-1	4.750561E-1	5.483947E-1	6.486035E-1	4.752220E-1	6.565316E-1	5.089862E-1	6.127172E-1	6.111855E-1	4.971956E-1	5.764096E-1	6.497917E-1	5.700073E-1	6.217294E-1	5.360438E-1	6.285475E-1	6.065137E-1	5.239363E-1	5.579347E-1	5.917748E-1	6.170578E-1	6.768815E-1	5.060905E-1	6.176152E-1	5.802474E-1	5.705371E-1	5.126191E-1	6.767999E-1	5.241164E-1	6.937366E-1	4.437330E-1	7.649755E-1	6.718794E-1	4.830316E-1	5.247775E-1	6.158204E-1	6.857206E-1	6.087401E-1	5.087399E-1	6.302734E-1	6.650563E-1	4.730376E-1	4.671950E-1	6.919816E-1	5.873785E-1	5.985728E-1	4.560052E-1	6.770823E-1	6.016857E-1	5.034229E-1	5.236826E-1	6.262823E-1	6.017910E-1	6.268991E-1	4.876657E-1	7.392344E-1	5.499097E-1	5.187192E-1	4.674896E-1	7.574871E-1	6.073575E-1	6.656808E-1	5.095273E-1	5.622139E-1	6.478667E-1	5.226967E-1	5.608942E-1	5.629911E-1	6.906189E-1	5.737696E-1	6.617719E-1	5.235189E-1	7.093047E-1	4.625635E-1	5.961373E-1	5.546689E-1	6.326100E-1	6.045021E-1	5.620162E-1	6.437433E-1	6.206597E-1	4.901282E-1	5.924303E-1	6.018725E-1	6.350510E-1	6.291860E-1	5.914965E-1	6.233287E-1
2.862030E+2	3.378217E-2	1.062779E+0	9.768742E-1	1.002058E+0	9.183440E-1	9.821424E-1	9.909046E-1	1.113833E+0	9.410664E-1	9.931660E-1	1.058037E+0	1.054185E+0	8.735860E-1	1.000008E+0	1.088356E+0	1.043003E+0	9.969414E-1	9.950583E-1	1.022657E+0	1.199520E+0	8.805429E-1	1.026975E+0	8.661332E-1	1.229003E+0	9.830255E-1	1.001527E+0	1.000164E+0	1.228005E+0	7.882567E-1	1.108826E+0	9.622336E-1	1.187471E+0	1.064106E+0	9.626715E-1	1.190672E+0	1.084045E+0	7.582735E-1	1.005565E+0	1.071621E+0	1.180746E+0	1.039316E+0	1.058923E+0	1.169404E+0	1.077901E+0	9.299356E-1	9.607654E-1	1.088043E+0	1.040632E+0	1.111791E+0	8.589361E-1	1.291783E+0	1.041408E+0	9.363359E-1	9.120042E-1	1.138742E+0	1.026673E+0	1.167045E+0	1.144293E+0	9.798030E-1	1.062354E+0	8.622186E-1	1.227307E+0	9.995416E-1	1.008709E+0	1.175262E+0	1.173006E+0	9.692203E-1	1.135854E+0	9.732480E-1	1.047772E+0	9.289355E-1	1.243054E+0	9.998730E-1	1.013073E+0	9.256679E-1	1.183142E+0	1.023508E+0	8.341574E-1	1.137246E+0	1.015454E+0	1.001215E+0	9.134964E-1	1.235105E+0	1.050361E+0	8.147682E-1	9.203267E-1	1.179227E+0	1.007383E+0	1.123881E+0	9.205479E-1	1.053508E+0	1.045431E+0	8.979897E-1	9.604310E-1	1.146351E+0	9.822171E-1	1.068317E+0	9.456587E-1	1.061653E+0	1.038840E+0	8.811294E-1	9.657032E-1	1.051627E+0	1.043410E+0	1.254063E+0	8.945605E-1	1.192462E+0	1.082767E+0	1.000591E+0	8.475771E-1	1.202396E+0	1.016873E+0	1.259362E+0	8.131879E-1	1.285650E+0	1.129838E+0	9.378027E-1	9.166336E-1	1.172712E+0	1.140807E+0	1.130963E+0	8.869673E-1	1.100795E+0	1.212339E+0	8.616862E-1	8.196902E-1	1.177824E+0	1.037912E+0	1.179083E+0	7.990672E-1	1.224244E+0	1.150291E+0	9.178677E-1	9.428609E-1	1.198692E+0	1.106155E+0	1.152903E+0	9.233337E-1	1.243029E+0	1.031324E+0	8.915391E-1	8.571250E-1	1.373573E+0	9.672013E-1	1.152227E+0	8.764496E-1	9.789451E-1	1.141236E+0	8.953624E-1	1.065559E+0	9.723096E-1	1.338454E+0	1.037485E+0	1.099842E+0	8.672554E-1	1.385018E+0	8.050239E-1	9.417578E-1	1.112504E+0	1.157494E+0	1.072786E+0	9.478764E-1	1.123137E+0	1.126548E+0	9.583728E-1	1.075736E+0	1.041817E+0	1.018501E+0	1.065881E+0	8.498262E-1	1.246946E+0
2.864030E+2	4.470575E-2	1.326231E+0	1.215580E+0	1.224792E+0	1.277321E+0	1.228802E+0	1.244789E+0	1.368523E+0	1.174271E+0	1.263266E+0	1.239227E+0	1.388119E+0	1.043465E+0	1.306040E+0	1.354169E+0	1.274312E+0	1.260947E+0	1.218162E+0	1.287149E+0	1.594146E+0	1.045387E+0	1.321987E+0	1.186813E+0	1.536768E+0	1.264838E+0	1.197463E+0	1.229746E+0	1.393446E+0	1.068399E+0	1.360112E+0	1.177799E+0	1.362015E+0	1.324599E+0	1.245811E+0	1.534138E+0	1.332628E+0	9.778670E-1	1.287953E+0	1.313900E+0	1.411392E+0	1.282128E+0	1.254483E+0	1.350163E+0	1.195212E+0	1.093523E+0	1.138064E+0	1.435787E+0	1.178990E+0	1.413706E+0	1.063093E+0	1.469988E+0	1.267085E+0	1.120924E+0	1.105252E+0	1.294476E+0	1.281781E+0	1.468827E+0	1.350279E+0	1.176423E+0	1.261468E+0	1.042396E+0	1.552764E+0	1.121122E+0	1.276147E+0	1.403391E+0	1.495337E+0	1.119702E+0	1.492587E+0	1.125233E+0	1.278667E+0	1.164111E+0	1.528931E+0	1.345252E+0	1.204946E+0	1.206869E+0	1.368040E+0	1.207538E+0	1.013497E+0	1.381709E+0	1.283158E+0	1.241119E+0	1.146418E+0	1.559129E+0	1.282320E+0	1.050313E+0	1.077269E+0	1.479040E+0	1.189999E+0	1.429966E+0	1.166114E+0	1.286098E+0	1.316003E+0	1.152259E+0	1.169090E+0	1.441164E+0	1.309718E+0	1.353476E+0	1.239898E+0	1.340613E+0	1.354119E+0	1.098520E+0	1.190245E+0	1.279171E+0	1.339202E+0	1.429389E+0	1.171455E+0	1.316201E+0	1.336366E+0	1.187570E+0	1.114658E+0	1.486764E+0	1.222830E+0	1.530620E+0	1.015381E+0	1.563208E+0	1.392714E+0	1.095340E+0	1.085151E+0	1.355971E+0	1.396484E+0	1.381863E+0	1.120453E+0	1.426716E+0	1.466804E+0	1.120725E+0	1.034977E+0	1.500810E+0	1.416658E+0	1.378823E+0	1.096773E+0	1.511051E+0	1.342059E+0	1.068958E+0	1.109403E+0	1.333813E+0	1.299199E+0	1.433390E+0	1.195722E+0	1.451564E+0	1.263856E+0	1.131065E+0	1.024823E+0	1.730378E+0	1.256955E+0	1.503097E+0	1.149271E+0	1.255664E+0	1.440731E+0	1.153726E+0	1.298064E+0	1.266110E+0	1.555442E+0	1.352004E+0	1.346053E+0	1.120949E+0	1.603578E+0	9.957784E-1	1.172094E+0	1.305992E+0	1.450536E+0	1.404870E+0	1.197080E+0	1.387881E+0	1.314475E+0	1.116816E+0	1.300371E+0	1.291038E+0	1.279119E+0	1.371307E+0	1.175937E+0	1.779770E+0
2.866150E+2	3.446664E-2	1.211087E+0	1.180416E+0	1.164482E+0	1.213528E+0	1.175903E+0	1.276588E+0	1.330797E+0	1.146233E+0	1.215336E+0	1.209349E+0	1.270761E+0	9.755519E-1	1.226321E+0	1.222906E+0	1.332334E+0	1.203562E+0	1.176343E+0	1.215437E+0	1.442921E+0	1.022787E+0	1.228392E+0	1.109975E+0	1.468020E+0	1.265921E+0	1.198879E+0	1.249342E+0	1.501582E+0	9.980570E-1	1.349619E+0	1.164985E+0	1.435474E+0	1.282655E+0	1.220278E+0	1.431849E+0	1.333252E+0	9.260430E-1	1.206202E+0	1.290065E+0	1.395816E+0	1.257761E+0	1.222207E+0	1.360364E+0	1.222743E+0	1.052346E+0	1.194465E+0	1.396915E+0	1.209666E+0	1.445421E+0	1.112968E+0	1.413734E+0	1.250491E+0	1.057712E+0	1.126123E+0	1.361564E+0	1.244053E+0	1.283634E+0	1.277279E+0	1.170650E+0	1.271897E+0	1.147141E+0	1.346059E+0	1.178319E+0	1.159179E+0	1.334144E+0	1.313386E+0	1.062301E+0	1.482406E+0	1.085686E+0	1.264698E+0	1.111977E+0	1.484031E+0	1.292006E+0	1.218693E+0	1.179117E+0	1.299143E+0	1.178584E+0	1.002689E+0	1.337265E+0	1.330172E+0	1.237791E+0	1.158704E+0	1.442601E+0	1.177975E+0	1.031279E+0	1.098818E+0	1.443581E+0	1.160170E+0	1.396706E+0	1.171427E+0	1.324053E+0	1.323953E+0	1.010335E+0	1.163786E+0	1.303302E+0	1.332351E+0	1.335845E+0	1.200969E+0	1.272136E+0	1.353133E+0	1.107244E+0	1.203654E+0	1.231573E+0	1.278779E+0	1.435741E+0	1.101636E+0	1.288920E+0	1.293891E+0	1.197013E+0	1.031908E+0	1.484598E+0	1.238915E+0	1.428145E+0	1.037353E+0	1.495052E+0	1.337437E+0	1.028666E+0	1.109015E+0	1.332596E+0	1.359021E+0	1.345797E+0	1.083658E+0	1.361608E+0	1.395407E+0	1.050462E+0	9.868210E-1	1.409278E+0	1.294962E+0	1.329676E+0	9.781326E-1	1.497004E+0	1.320695E+0	9.861885E-1	1.131513E+0	1.399399E+0	1.332457E+0	1.355824E+0	1.128010E+0	1.475313E+0	1.328586E+0	1.099617E+0	9.390651E-1	1.592246E+0	1.185131E+0	1.461882E+0	1.188748E+0	1.208476E+0	1.415544E+0	1.082292E+0	1.229981E+0	1.238809E+0	1.463180E+0	1.275794E+0	1.328591E+0	1.090196E+0	1.587090E+0	1.023196E+0	1.148125E+0	1.310173E+0	1.315943E+0	1.290727E+0	1.180601E+0	1.252769E+0	1.275932E+0	1.027547E+0	1.162904E+0	1.265472E+0	1.305022E+0	1.274920E+0	1.081652E+0	1.353915E+0
2.868030E+2	2.606176E-2	1.470604E+0	1.344157E+0	1.271180E+0	1.369927E+0	1.346681E+0	1.404061E+0	1.518085E+0	1.360725E+0	1.355828E+0	1.479203E+0	1.467552E+0	1.203772E+0	1.425281E+0	1.406994E+0	1.518413E+0	1.535968E+0	1.413703E+0	1.553950E+0	1.663874E+0	1.257646E+0	1.463704E+0	1.263850E+0	1.690942E+0	1.406130E+0	1.315851E+0	1.366058E+0	1.688847E+0	1.131733E+0	1.577171E+0	1.300192E+0	1.594830E+0	1.387301E+0	1.298331E+0	1.672023E+0	1.568335E+0	1.063524E+0	1.434765E+0	1.477470E+0	1.718219E+0	1.407444E+0	1.478620E+0	1.498054E+0	1.385167E+0	1.239478E+0	1.286728E+0	1.542547E+0	1.383437E+0	1.629863E+0	1.196325E+0	1.688277E+0	1.452763E+0	1.329661E+0	1.250977E+0	1.498743E+0	1.398126E+0	1.517290E+0	1.568320E+0	1.305374E+0	1.432513E+0	1.215615E+0	1.637358E+0	1.256701E+0	1.353092E+0	1.529371E+0	1.491323E+0	1.156702E+0	1.652917E+0	1.232236E+0	1.433648E+0	1.338854E+0	1.687128E+0	1.442887E+0	1.326132E+0	1.388867E+0	1.557883E+0	1.316516E+0	1.218166E+0	1.570144E+0	1.430102E+0	1.408628E+0	1.191903E+0	1.758308E+0	1.423811E+0	1.179011E+0	1.224471E+0	1.648327E+0	1.345491E+0	1.507405E+0	1.293477E+0	1.564761E+0	1.548675E+0	1.163347E+0	1.406956E+0	1.509301E+0	1.493604E+0	1.554814E+0	1.341200E+0	1.407190E+0	1.533858E+0	1.200130E+0	1.463607E+0	1.452090E+0	1.632105E+0	1.648010E+0	1.248230E+0	1.486005E+0	1.524813E+0	1.342590E+0	1.181849E+0	1.746343E+0	1.430912E+0	1.678159E+0	1.138915E+0	1.791536E+0	1.561643E+0	1.248800E+0	1.202770E+0	1.558822E+0	1.547323E+0	1.667468E+0	1.229386E+0	1.600780E+0	1.688964E+0	1.250368E+0	1.137001E+0	1.631996E+0	1.514660E+0	1.519394E+0	1.140005E+0	1.780291E+0	1.588017E+0	1.257540E+0	1.266421E+0	1.530395E+0	1.466810E+0	1.626582E+0	1.285740E+0	1.728771E+0	1.431753E+0	1.236589E+0	1.141896E+0	1.835193E+0	1.442117E+0	1.616010E+0	1.348457E+0	1.479748E+0	1.662940E+0	1.251782E+0	1.379347E+0	1.328377E+0	1.677402E+0	1.530444E+0	1.488771E+0	1.242316E+0	1.858523E+0	1.156362E+0	1.349340E+0	1.484712E+0	1.576533E+0	1.548878E+0	1.300127E+0	1.470422E+0	1.408037E+0	1.235960E+0	1.402376E+0	1.417515E+0	1.426287E+0	1.494264E+0	1.455800E+0	1.866790E+0
2.870150E+2	3.396341E-2	1.420038E+0	1.256731E+0	1.132714E+0	1.255371E+0	1.281988E+0	1.265262E+0	1.423906E+0	1.173787E+0	1.231016E+0	1.256313E+0	1.441811E+0	1.120918E+0	1.318820E+0	1.338991E+0	1.449568E+0	1.364973E+0	1.308659E+0	1.301113E+0	1.568394E+0	1.106859E+0	1.318432E+0	1.130986E+0	1.559425E+0	1.271966E+0	1.253767E+0	1.234326E+0	1.456879E+0	1.052576E+0	1.361668E+0	1.162276E+0	1.414412E+0	1.356801E+0	1.179935E+0	1.404136E+0	1.440801E+0	1.011485E+0	1.298767E+0	1.329987E+0	1.400752E+0	1.180788E+0	1.347799E+0	1.392911E+0	1.240813E+0	1.186830E+0	1.174533E+0	1.383624E+0	1.250561E+0	1.441672E+0	1.060249E+0	1.542411E+0	1.287077E+0	1.144513E+0	1.130018E+0	1.338902E+0	1.272297E+0	1.356820E+0	1.353974E+0	1.248430E+0	1.354309E+0	1.130577E+0	1.504658E+0	1.205970E+0	1.259624E+0	1.478175E+0	1.426510E+0	1.189559E+0	1.470209E+0	1.114690E+0	1.343850E+0	1.190065E+0	1.566478E+0	1.291588E+0	1.268937E+0	1.279048E+0	1.460412E+0	1.173604E+0	1.041134E+0	1.387348E+0	1.263680E+0	1.267767E+0	1.125715E+0	1.603378E+0	1.205105E+0	1.118419E+0	1.092484E+0	1.441544E+0	1.236810E+0	1.472304E+0	1.210942E+0	1.191946E+0	1.386607E+0	1.128700E+0	1.176223E+0	1.337145E+0	1.219661E+0	1.397753E+0	1.179685E+0	1.344516E+0	1.369591E+0	1.045568E+0	1.215856E+0	1.267965E+0	1.356686E+0	1.460640E+0	1.067759E+0	1.361163E+0	1.428737E+0	1.171149E+0	1.137251E+0	1.579410E+0	1.269172E+0	1.561970E+0	1.070746E+0	1.553253E+0	1.440093E+0	1.150786E+0	1.096522E+0	1.327909E+0	1.383104E+0	1.472280E+0	1.060719E+0	1.457116E+0	1.470921E+0	1.215636E+0	1.037038E+0	1.525635E+0	1.489648E+0	1.461141E+0	1.041722E+0	1.508091E+0	1.339825E+0	1.127527E+0	1.201291E+0	1.396011E+0	1.316757E+0	1.417026E+0	1.220384E+0	1.499433E+0	1.298819E+0	1.072271E+0	1.027368E+0	1.633835E+0	1.211745E+0	1.520677E+0	1.169373E+0	1.287965E+0	1.513139E+0	1.172487E+0	1.338760E+0	1.295787E+0	1.563574E+0	1.318660E+0	1.325538E+0	1.145882E+0	1.722415E+0	1.087704E+0	1.273383E+0	1.312772E+0	1.484598E+0	1.382329E+0	1.220296E+0	1.360892E+0	1.285623E+0	1.144537E+0	1.277430E+0	1.360265E+0	1.215093E+0	1.402357E+0	1.215429E+0	1.258224E+0
2.872110E+2	1.862285E-2	1.229001E+0	1.047357E+0	1.020308E+0	1.078149E+0	1.066879E+0	1.042960E+0	1.170008E+0	9.527752E-1	1.079752E+0	9.256064E-1	1.333829E+0	8.929004E-1	1.129196E+0	9.943069E-1	1.318147E+0	1.094782E+0	1.029208E+0	1.017827E+0	1.374753E+0	9.281477E-1	1.120120E+0	9.593793E-1	1.309218E+0	1.140141E+0	1.095888E+0	9.353548E-1	1.393396E+0	8.282233E-1	1.191269E+0	8.679887E-1	1.350171E+0	1.114726E+0	1.126853E+0	1.149032E+0	1.309295E+0	9.090433E-1	1.070861E+0	1.075571E+0	1.253452E+0	1.092814E+0	1.131361E+0	1.114019E+0	1.149691E+0	9.204503E-1	9.780641E-1	1.126640E+0	9.917340E-1	1.252142E+0	9.407904E-1	1.192618E+0	1.044670E+0	9.615626E-1	1.059182E+0	1.144598E+0	1.173037E+0	1.103215E+0	1.133168E+0	1.004477E+0	1.095318E+0	9.526835E-1	1.280447E+0	1.075643E+0	1.038279E+0	1.221827E+0	1.165210E+0	9.015713E-1	1.221406E+0	9.115500E-1	1.183856E+0	9.716810E-1	1.323367E+0	1.073619E+0	1.053234E+0	1.002020E+0	1.216166E+0	1.019280E+0	8.961307E-1	1.244105E+0	1.091650E+0	1.121578E+0	1.008430E+0	1.309203E+0	1.053187E+0	9.811555E-1	9.186763E-1	1.231396E+0	9.955523E-1	1.146831E+0	1.017237E+0	1.149095E+0	1.169470E+0	9.308632E-1	1.021412E+0	1.215195E+0	1.136003E+0	1.146980E+0	9.371159E-1	1.093530E+0	1.147544E+0	9.645187E-1	1.085416E+0	1.052826E+0	1.153070E+0	1.282729E+0	9.658652E-1	1.180277E+0	1.145127E+0	9.816205E-1	9.172484E-1	1.334161E+0	1.008734E+0	1.296022E+0	9.297222E-1	1.331553E+0	1.170368E+0	9.623242E-1	9.019428E-1	1.230159E+0	1.219770E+0	1.219515E+0	9.099258E-1	1.182973E+0	1.180947E+0	9.312972E-1	9.178738E-1	1.290573E+0	1.175412E+0	1.140178E+0	8.231534E-1	1.326032E+0	1.152310E+0	9.087163E-1	1.045872E+0	1.218136E+0	1.071862E+0	1.176926E+0	9.852119E-1	1.347154E+0	1.054382E+0	9.341905E-1	8.613483E-1	1.392126E+0	1.048614E+0	1.213782E+0	1.039068E+0	1.140887E+0	1.197094E+0	1.026548E+0	1.076422E+0	1.059420E+0	1.339841E+0	1.095776E+0	1.147202E+0	9.747752E-1	1.424653E+0	8.534728E-1	1.064561E+0	1.119091E+0	1.171211E+0	1.132397E+0	1.007025E+0	1.119442E+0	1.188783E+0	9.675434E-1	1.077783E+0	1.060809E+0	1.215583E+0	1.203261E+0	1.002162E+0	1.366173E+0
2.874020E+2	2.213707E-2	9.761165E-1	8.544677E-1	8.161649E-1	8.666214E-1	8.829839E-1	8.450193E-1	8.957744E-1	8.155159E-1	8.534985E-1	7.142697E-1	1.074588E+0	6.888980E-1	8.328353E-1	7.215371E-1	1.075465E+0	9.184527E-1	8.147837E-1	8.088093E-1	1.097797E+0	7.207502E-1	8.693613E-1	6.965703E-1	1.067951E+0	8.393465E-1	9.004273E-1	7.271369E-1	1.107852E+0	6.443162E-1	9.591292E-1	6.802702E-1	1.191714E+0	8.941595E-1	8.390632E-1	8.783030E-1	1.029315E+0	6.736585E-1	8.166147E-1	8.724023E-1	1.011071E+0	7.885224E-1	8.813550E-1	7.679914E-1	1.033387E+0	7.799842E-1	7.902624E-1	8.043781E-1	1.043888E+0	9.717305E-1	6.941417E-1	8.712460E-1	1.022761E+0	8.147104E-1	8.269630E-1	9.003045E-1	8.808782E-1	9.034803E-1	9.083887E-1	7.179526E-1	1.001100E+0	7.201499E-1	1.018562E+0	6.657088E-1	9.544506E-1	8.886447E-1	9.250955E-1	7.261860E-1	1.099765E+0	7.001168E-1	8.284637E-1	7.560014E-1	1.045372E+0	8.732098E-1	7.992564E-1	8.847717E-1	9.035214E-1	8.381787E-1	6.648310E-1	9.191620E-1	8.720140E-1	8.605111E-1	7.506507E-1	1.027950E+0	8.692033E-1	7.801809E-1	7.281825E-1	9.609520E-1	8.698164E-1	9.517012E-1	7.899494E-1	8.666883E-1	8.733687E-1	7.317137E-1	8.227414E-1	9.357601E-1	8.595589E-1	9.034057E-1	8.341493E-1	9.016699E-1	8.380175E-1	7.586730E-1	8.257130E-1	9.168706E-1	8.967513E-1	9.338027E-1	6.984449E-1	8.967608E-1	9.229898E-1	8.229779E-1	7.564209E-1	1.074199E+0	8.428025E-1	1.030337E+0	6.985936E-1	1.094522E+0	9.446527E-1	7.942972E-1	7.062218E-1	9.435558E-1	8.931337E-1	9.690966E-1	7.379237E-1	9.008816E-1	9.889527E-1	7.199667E-1	7.038271E-1	9.700423E-1	9.063121E-1	9.032550E-1	7.038629E-1	9.938321E-1	8.678763E-1	7.162699E-1	7.928046E-1	9.575276E-1	8.262960E-1	9.557998E-1	7.551610E-1	1.041447E+0	8.502667E-1	7.068063E-1	7.230851E-1	1.106350E+0	8.108326E-1	9.769408E-1	7.679256E-1	8.327571E-1	9.617608E-1	8.792424E-1	8.123697E-1	8.379360E-1	1.010652E+0	8.792396E-1	9.094202E-1	7.342570E-1	1.168702E+0	6.481134E-1	8.041262E-1	9.317922E-1	9.534222E-1	8.896843E-1	8.156493E-1	8.951837E-1	8.633239E-1	7.775211E-1	8.210275E-1	8.114459E-1	8.668320E-1	9.136619E-1	8.267404E-1	1.031861E+0
2.876150E+2	1.980735E-2	7.639133E-1	5.826043E-1	6.466462E-1	6.199811E-1	6.478176E-1	6.224054E-1	7.142156E-1	5.781008E-1	5.846857E-1	5.489631E-1	7.730067E-1	5.175041E-1	6.351589E-1	5.741318E-1	7.515444E-1	6.080078E-1	6.306248E-1	6.430698E-1	7.794076E-1	5.037641E-1	6.025756E-1	5.424909E-1	7.834328E-1	6.374683E-1	5.799177E-1	5.473736E-1	8.486868E-1	4.551382E-1	6.825882E-1	5.140563E-1	8.322509E-1	6.363075E-1	5.915825E-1	6.212019E-1	7.925779E-1	4.733691E-1	5.904526E-1	5.878253E-1	7.159155E-1	6.023292E-1	6.105874E-1	5.897559E-1	7.550010E-1	5.530520E-1	5.751173E-1	5.924161E-1	7.072676E-1	7.179176E-1	5.369070E-1	6.843730E-1	7.089197E-1	5.647879E-1	5.776239E-1	6.205012E-1	6.628441E-1	6.378944E-1	6.738329E-1	5.045241E-1	7.452373E-1	5.244166E-1	6.964307E-1	4.847225E-1	7.293261E-1	7.024968E-1	6.851342E-1	4.724212E-1	8.288556E-1	5.293907E-1	6.592070E-1	6.037330E-1	7.581314E-1	6.267502E-1	6.220279E-1	5.672800E-1	7.549287E-1	6.038273E-1	5.071853E-1	6.600411E-1	6.915070E-1	6.006838E-1	5.660247E-1	7.321264E-1	6.742097E-1	5.337988E-1	5.597267E-1	7.329623E-1	6.550764E-1	6.852297E-1	6.284568E-1	5.750163E-1	7.246176E-1	5.265449E-1	5.843616E-1	6.109769E-1	7.209907E-1	7.057762E-1	5.551940E-1	5.395515E-1	7.676492E-1	5.615095E-1	6.320910E-1	6.097605E-1	7.215284E-1	6.743370E-1	5.867249E-1	6.566492E-1	6.449994E-1	6.224874E-1	5.339174E-1	7.415649E-1	6.362401E-1	7.371809E-1	4.773587E-1	7.944437E-1	7.283499E-1	6.061135E-1	5.723393E-1	6.988938E-1	6.277746E-1	7.408414E-1	5.246983E-1	7.141065E-1	7.404461E-1	5.180518E-1	4.913558E-1	7.383503E-1	7.293241E-1	7.159701E-1	5.272098E-1	6.907889E-1	6.466135E-1	5.687818E-1	5.536352E-1	6.623633E-1	6.506122E-1	7.079890E-1	5.899255E-1	7.249562E-1	5.891445E-1	6.415556E-1	5.209141E-1	8.312424E-1	6.223470E-1	6.939301E-1	5.681370E-1	6.437656E-1	6.989230E-1	5.531757E-1	6.400032E-1	5.997491E-1	7.569254E-1	6.958749E-1	6.193102E-1	5.332298E-1	8.257254E-1	5.357488E-1	5.641315E-1	6.206861E-1	7.094327E-1	6.772495E-1	5.642300E-1	7.097962E-1	6.615804E-1	5.665406E-1	6.195560E-1	6.603502E-1	6.145965E-1	6.490772E-1	5.391864E-1	7.172998E-1
2.878030E+2	1.258381E-2	5.566608E-1	4.917861E-1	4.764767E-1	4.637788E-1	4.368631E-1	5.272234E-1	5.243845E-1	4.918160E-1	5.042784E-1	4.430830E-1	5.088438E-1	3.628747E-1	5.267150E-1	4.477412E-1	6.259681E-1	5.147817E-1	4.629241E-1	4.721994E-1	5.560611E-1	4.272169E-1	5.070568E-1	4.126662E-1	6.307807E-1	5.084703E-1	4.639421E-1	4.512686E-1	6.669845E-1	4.240605E-1	5.542185E-1	3.875279E-1	6.817585E-1	5.160626E-1	4.579507E-1	4.901573E-1	6.426759E-1	4.061522E-1	5.126626E-1	4.984378E-1	6.177057E-1	4.661819E-1	5.058749E-1	4.767853E-1	5.270586E-1	4.201489E-1	4.773543E-1	4.615374E-1	5.795521E-1	5.616561E-1	4.348160E-1	5.143927E-1	5.632144E-1	4.475441E-1	4.454671E-1	5.627537E-1	5.182867E-1	5.433856E-1	5.095600E-1	4.161840E-1	6.198994E-1	4.326209E-1	6.089266E-1	3.663901E-1	5.770162E-1	5.508687E-1	5.615960E-1	3.903903E-1	6.754594E-1	4.315384E-1	5.173788E-1	4.257911E-1	5.812262E-1	5.406044E-1	4.566827E-1	4.499210E-1	5.894794E-1	4.537317E-1	3.902613E-1	4.914492E-1	5.546827E-1	5.285322E-1	4.385179E-1	6.273546E-1	5.093373E-1	4.065817E-1	4.233121E-1	5.439261E-1	4.411530E-1	5.213335E-1	4.876743E-1	4.543675E-1	5.950067E-1	4.415225E-1	4.735769E-1	4.584045E-1	6.172901E-1	5.343660E-1	4.622613E-1	4.586690E-1	6.350647E-1	4.308818E-1	4.817726E-1	4.932176E-1	6.130809E-1	5.790623E-1	4.254824E-1	4.774754E-1	5.519016E-1	4.351791E-1	4.643218E-1	5.482602E-1	5.614617E-1	5.727317E-1	4.154532E-1	5.950253E-1	5.513884E-1	4.393996E-1	4.268124E-1	5.354268E-1	5.281042E-1	5.867312E-1	4.718642E-1	4.536188E-1	6.588551E-1	5.204924E-1	4.017786E-1	5.097139E-1	6.273470E-1	5.457498E-1	4.051622E-1	5.472622E-1	6.441178E-1	4.360900E-1	4.490511E-1	4.982673E-1	5.524970E-1	5.699335E-1	4.536791E-1	5.275732E-1	5.570775E-1	4.547290E-1	4.002724E-1	5.658147E-1	5.582928E-1	5.296556E-1	4.454906E-1	5.119437E-1	6.079262E-1	4.532112E-1	4.790797E-1	4.501925E-1	5.997912E-1	5.392027E-1	5.297486E-1	4.420993E-1	6.512265E-1	4.054575E-1	4.518452E-1	5.290282E-1	5.876931E-1	5.373083E-1	4.424366E-1	5.867775E-1	4.841244E-1	4.669938E-1	5.340688E-1	5.301868E-1	4.997458E-1	6.040731E-1	4.886499E-1	5.740243E-1
2.880020E+2	1.613280E-2	6.282789E-1	5.168184E-1	5.041343E-1	5.779955E-1	5.565019E-1	6.055272E-1	6.708094E-1	5.321356E-1	5.466742E-1	5.125552E-1	7.548572E-1	4.820496E-1	5.759835E-1	5.411738E-1	7.188039E-1	5.959373E-1	5.927093E-1	5.690270E-1	7.391736E-1	4.616191E-1	5.521626E-1	5.534942E-1	7.442618E-1	6.239223E-1	5.439959E-1	5.374819E-1	8.742333E-1	4.761146E-1	6.628900E-1	4.290252E-1	7.558009E-1	5.687633E-1	6.163691E-1	6.095748E-1	7.442265E-1	3.922719E-1	5.725765E-1	6.322999E-1	7.426304E-1	6.273315E-1	6.358746E-1	5.617038E-1	7.005048E-1	5.179408E-1	5.553798E-1	5.076644E-1	7.027992E-1	6.563520E-1	5.210099E-1	6.799973E-1	6.242208E-1	5.561472E-1	5.401779E-1	5.427771E-1	6.494335E-1	6.711127E-1	6.365164E-1	4.927443E-1	6.791700E-1	4.399163E-1	7.312933E-1	4.779585E-1	6.807035E-1	6.270990E-1	6.563485E-1	4.624506E-1	8.422611E-1	5.136291E-1	6.261807E-1	5.328499E-1	7.516705E-1	5.747781E-1	5.347772E-1	5.569298E-1	6.649531E-1	5.224069E-1	4.378951E-1	6.239635E-1	6.484520E-1	6.193956E-1	5.374267E-1	6.816635E-1	6.167601E-1	5.035530E-1	5.151204E-1	7.283228E-1	5.768254E-1	7.400429E-1	5.268498E-1	5.300348E-1	7.084696E-1	5.127346E-1	5.676976E-1	5.516066E-1	7.442253E-1	6.738303E-1	5.385362E-1	5.025663E-1	6.983335E-1	5.256277E-1	5.857781E-1	5.892330E-1	6.697476E-1	7.728962E-1	5.064189E-1	5.861988E-1	6.363817E-1	5.686120E-1	5.222865E-1	6.538279E-1	6.820818E-1	6.837975E-1	4.868353E-1	6.749768E-1	6.593262E-1	5.639742E-1	5.039264E-1	6.621490E-1	6.392415E-1	6.670097E-1	5.371876E-1	5.254470E-1	8.324965E-1	4.801465E-1	4.667395E-1	5.499793E-1	7.806064E-1	6.299411E-1	4.800871E-1	6.342709E-1	7.048815E-1	5.098875E-1	5.436968E-1	6.877199E-1	6.152859E-1	6.985309E-1	5.439761E-1	5.951399E-1	7.227700E-1	5.201588E-1	4.641680E-1	6.469249E-1	7.087117E-1	6.771196E-1	5.499484E-1	5.131167E-1	7.729762E-1	5.037075E-1	6.180804E-1	5.287428E-1	7.008958E-1	6.345174E-1	6.334002E-1	4.461867E-1	8.820250E-1	5.179706E-1	5.611283E-1	5.115325E-1	7.439677E-1	6.097557E-1	5.849894E-1	6.123506E-1	6.816359E-1	5.047632E-1	5.777445E-1	5.610916E-1	6.702073E-1	6.705826E-1	6.409842E-1	6.027232E-1
2.882210E+2	1.730378E-2	8.114049E-1	6.371191E-1	6.588238E-1	7.285102E-1	7.196276E-1	6.864781E-1	8.194129E-1	6.883009E-1	6.931612E-1	6.040488E-1	8.963356E-1	5.975499E-1	6.830001E-1	6.477382E-1	8.852201E-1	7.160704E-1	6.924907E-1	6.432494E-1	9.098804E-1	6.208782E-1	7.510987E-1	6.641262E-1	8.684934E-1	7.102754E-1	7.449493E-1	6.157779E-1	9.755605E-1	5.764905E-1	8.111785E-1	5.808306E-1	9.695980E-1	7.175399E-1	6.851450E-1	6.856440E-1	9.145809E-1	5.270082E-1	7.060847E-1	7.547068E-1	8.282324E-1	7.166265E-1	6.829757E-1	6.637953E-1	7.867943E-1	6.428732E-1	6.928778E-1	6.632403E-1	8.148510E-1	7.634444E-1	5.802129E-1	7.507667E-1	8.019324E-1	6.705491E-1	6.362519E-1	6.985918E-1	7.231509E-1	7.637410E-1	8.296817E-1	5.961343E-1	8.715968E-1	6.670453E-1	7.916322E-1	5.410505E-1	8.877289E-1	8.449085E-1	7.689727E-1	5.722573E-1	9.954271E-1	5.928327E-1	7.584888E-1	6.497279E-1	9.224231E-1	7.489864E-1	7.086846E-1	6.780218E-1	8.430721E-1	6.789586E-1	6.079913E-1	6.886640E-1	8.010121E-1	7.488887E-1	6.657442E-1	8.490082E-1	7.884171E-1	6.368333E-1	6.464917E-1	8.564913E-1	7.301457E-1	8.192041E-1	6.796885E-1	6.220514E-1	8.922659E-1	6.095585E-1	6.654865E-1	7.025267E-1	8.840812E-1	7.823211E-1	6.781942E-1	6.443674E-1	9.190573E-1	6.143276E-1	7.288316E-1	6.662213E-1	8.294884E-1	9.032199E-1	6.164829E-1	7.710354E-1	8.330210E-1	7.024317E-1	6.164721E-1	8.477161E-1	7.897221E-1	8.783823E-1	6.235494E-1	8.631107E-1	8.040141E-1	6.704241E-1	6.654613E-1	7.630657E-1	7.837454E-1	8.218199E-1	6.339601E-1	6.860802E-1	9.614257E-1	6.211216E-1	5.663762E-1	7.135487E-1	9.087950E-1	8.273725E-1	5.998480E-1	7.425177E-1	8.325638E-1	6.176379E-1	6.702846E-1	7.557874E-1	7.746993E-1	8.042870E-1	6.314295E-1	8.033420E-1	8.654760E-1	6.183501E-1	5.605477E-1	7.709366E-1	8.876991E-1	8.411995E-1	6.252006E-1	6.675967E-1	9.862130E-1	6.528472E-1	6.938639E-1	6.278861E-1	8.969778E-1	7.165881E-1	8.095706E-1	5.836787E-1	1.029258E+0	6.095430E-1	6.623715E-1	6.395031E-1	9.607764E-1	7.887253E-1	6.987018E-1	7.057538E-1	8.066317E-1	6.376327E-1	7.363674E-1	7.358087E-1	7.428393E-1	7.586620E-1	6.793861E-1	8.240027E-1
2.884160E+2	1.731907E-2	9.625262E-1	7.720843E-1	7.830780E-1	7.710575E-1	7.931488E-1	8.711445E-1	9.349673E-1	7.455387E-1	8.411820E-1	7.015776E-1	1.071478E+0	6.835188E-1	8.662490E-1	7.804028E-1	1.014000E+0	9.279603E-1	8.229925E-1	7.728142E-1	1.119046E+0	7.044993E-1	8.692704E-1	7.358049E-1	1.084274E+0	8.411978E-1	8.619287E-1	7.612458E-1	1.099224E+0	6.343016E-1	9.557334E-1	6.950147E-1	1.147209E+0	8.835956E-1	7.757460E-1	8.517540E-1	1.059632E+0	6.629094E-1	8.711408E-1	8.550710E-1	1.043751E+0	8.344751E-1	9.231877E-1	8.312699E-1	9.659921E-1	8.045594E-1	7.998550E-1	8.138261E-1	9.783142E-1	9.695849E-1	7.927517E-1	8.777099E-1	1.029213E+0	7.953368E-1	7.713786E-1	8.455059E-1	8.240774E-1	9.135940E-1	9.187242E-1	7.222481E-1	9.442019E-1	7.340705E-1	1.029178E+0	6.449459E-1	9.884592E-1	8.896435E-1	9.756283E-1	6.775539E-1	1.085520E+0	7.164056E-1	8.989677E-1	8.068685E-1	1.082012E+0	9.744431E-1	8.246839E-1	8.111662E-1	9.308857E-1	8.676724E-1	6.999058E-1	8.484765E-1	9.468740E-1	8.674618E-1	7.453381E-1	1.027741E+0	8.789690E-1	7.574505E-1	7.521930E-1	9.051333E-1	8.017556E-1	9.361614E-1	7.415053E-1	7.857777E-1	1.037038E+0	7.318485E-1	7.884420E-1	8.006450E-1	1.062944E+0	8.659922E-1	8.210725E-1	7.947476E-1	1.019908E+0	6.892516E-1	8.914034E-1	8.136922E-1	9.565803E-1	9.780536E-1	6.980503E-1	7.993954E-1	9.834782E-1	8.234246E-1	7.362570E-1	9.744804E-1	9.596514E-1	1.081335E+0	6.956723E-1	1.029371E+0	9.989691E-1	6.677052E-1	7.764787E-1	9.729181E-1	9.301036E-1	9.643188E-1	6.937022E-1	8.316531E-1	1.074661E+0	7.692273E-1	6.553335E-1	8.119209E-1	1.061143E+0	9.795093E-1	6.855736E-1	8.818869E-1	1.111513E+0	7.430871E-1	7.934850E-1	9.039154E-1	9.152465E-1	9.387581E-1	7.616158E-1	8.984840E-1	9.848806E-1	7.785830E-1	7.191123E-1	8.721920E-1	1.016261E+0	1.004519E+0	7.894886E-1	7.655839E-1	1.172600E+0	7.416901E-1	8.061933E-1	7.334635E-1	1.088964E+0	8.967491E-1	9.254065E-1	6.175654E-1	1.145471E+0	7.650065E-1	7.837436E-1	7.360305E-1	1.068649E+0	9.070882E-1	8.001207E-1	8.418604E-1	9.404658E-1	7.719164E-1	8.860312E-1	8.407450E-1	8.658768E-1	9.521077E-1	7.805355E-1	8.756597E-1
2.886030E+2	1.616800E-2	1.128206E+0	9.126438E-1	8.831822E-1	9.026181E-1	9.379998E-1	9.363746E-1	1.073378E+0	9.153132E-1	9.683107E-1	8.478955E-1	1.216175E+0	8.350500E-1	9.973175E-1	8.988782E-1	1.180495E+0	9.700642E-1	9.716918E-1	9.222722E-1	1.330348E+0	8.221634E-1	9.832947E-1	8.776067E-1	1.249460E+0	1.034395E+0	1.000850E+0	8.622751E-1	1.346859E+0	7.845722E-1	1.072004E+0	7.294622E-1	1.334276E+0	1.005519E+0	9.818198E-1	1.005002E+0	1.285931E+0	7.685850E-1	9.812325E-1	1.042389E+0	1.135048E+0	9.237704E-1	1.049334E+0	9.652146E-1	1.205549E+0	9.016155E-1	9.418412E-1	9.117571E-1	1.154326E+0	1.205836E+0	8.448454E-1	1.092347E+0	1.097304E+0	8.950305E-1	8.400032E-1	1.034933E+0	1.036841E+0	1.025152E+0	1.105715E+0	8.439235E-1	1.171379E+0	8.805485E-1	1.088538E+0	7.245784E-1	1.154017E+0	1.110291E+0	1.075717E+0	7.758009E-1	1.296745E+0	8.774358E-1	1.009517E+0	8.529430E-1	1.232610E+0	9.840016E-1	9.470191E-1	8.632973E-1	1.072555E+0	8.936750E-1	8.478619E-1	1.008438E+0	1.046524E+0	1.015176E+0	8.530013E-1	1.163497E+0	1.037897E+0	8.428563E-1	8.731903E-1	1.163631E+0	9.987065E-1	1.171379E+0	9.550957E-1	9.197276E-1	1.232569E+0	8.655764E-1	9.335420E-1	8.448026E-1	1.237144E+0	9.932085E-1	9.063203E-1	9.112667E-1	1.177709E+0	7.710969E-1	9.494561E-1	9.969293E-1	1.133917E+0	1.176299E+0	8.899801E-1	9.868080E-1	1.123331E+0	9.568039E-1	8.375303E-1	1.044642E+0	1.061139E+0	1.155949E+0	8.207789E-1	1.141456E+0	1.151014E+0	8.683987E-1	9.154433E-1	1.031713E+0	1.152127E+0	1.117865E+0	8.396779E-1	8.989409E-1	1.343928E+0	9.111686E-1	7.876586E-1	1.017066E+0	1.207593E+0	1.054263E+0	7.728162E-1	1.066998E+0	1.089694E+0	8.692216E-1	9.462957E-1	1.085009E+0	1.060285E+0	1.168751E+0	8.740662E-1	9.955731E-1	1.156955E+0	9.238475E-1	8.334246E-1	1.045245E+0	1.157247E+0	1.131589E+0	8.643800E-1	8.793355E-1	1.295631E+0	8.986451E-1	9.630515E-1	8.823320E-1	1.164328E+0	1.067905E+0	1.044508E+0	7.725227E-1	1.324940E+0	8.945068E-1	9.598280E-1	8.796484E-1	1.259678E+0	1.090787E+0	8.963545E-1	9.996048E-1	1.158416E+0	9.026544E-1	1.047273E+0	9.752690E-1	1.010698E+0	1.054415E+0	8.666342E-1	9.119935E-1
2.888210E+2	1.371558E-2	1.386916E+0	1.146468E+0	1.124153E+0	1.117193E+0	1.112444E+0	1.152905E+0	1.269234E+0	1.182178E+0	1.102515E+0	1.048312E+0	1.397776E+0	1.031259E+0	1.239227E+0	1.001206E+0	1.409932E+0	1.288799E+0	1.234967E+0	1.159637E+0	1.377423E+0	1.024917E+0	1.196598E+0	9.667759E-1	1.410500E+0	1.181300E+0	1.054861E+0	9.871039E-1	1.603177E+0	8.975379E-1	1.237388E+0	9.239898E-1	1.483962E+0	1.270892E+0	1.045083E+0	1.174675E+0	1.423532E+0	8.487364E-1	1.162585E+0	1.160426E+0	1.385525E+0	1.177650E+0	1.185349E+0	1.049464E+0	1.441569E+0	1.082483E+0	1.086363E+0	1.097828E+0	1.362064E+0	1.359168E+0	9.993967E-1	1.241709E+0	1.301827E+0	1.032946E+0	1.077855E+0	1.271184E+0	1.182844E+0	1.254982E+0	1.280211E+0	9.597329E-1	1.397675E+0	1.017801E+0	1.319403E+0	9.271145E-1	1.330672E+0	1.296417E+0	1.342976E+0	8.762118E-1	1.499904E+0	1.053764E+0	1.264861E+0	9.851248E-1	1.430677E+0	1.155809E+0	1.103563E+0	1.055490E+0	1.339102E+0	1.123804E+0	9.647098E-1	1.103948E+0	1.308071E+0	1.168711E+0	1.010914E+0	1.439208E+0	1.282597E+0	1.050606E+0	1.028008E+0	1.292646E+0	1.182852E+0	1.337622E+0	1.150530E+0	1.095720E+0	1.434996E+0	1.043601E+0	1.047609E+0	1.040497E+0	1.431011E+0	1.251216E+0	1.181514E+0	1.072910E+0	1.421117E+0	9.797303E-1	1.200099E+0	1.144565E+0	1.201470E+0	1.334239E+0	1.023322E+0	1.122105E+0	1.353734E+0	1.135664E+0	9.425547E-1	1.269876E+0	1.289478E+0	1.392449E+0	9.504936E-1	1.340605E+0	1.366746E+0	9.624662E-1	1.005927E+0	1.305226E+0	1.329206E+0	1.287613E+0	1.030940E+0	1.146264E+0	1.514541E+0	1.051164E+0	9.377273E-1	1.211808E+0	1.437703E+0	1.266445E+0	9.465453E-1	1.285018E+0	1.417251E+0	1.063962E+0	1.048170E+0	1.236321E+0	1.212659E+0	1.276589E+0	1.073712E+0	1.150248E+0	1.348519E+0	1.053556E+0	1.009334E+0	1.231893E+0	1.370023E+0	1.398968E+0	9.924970E-1	1.022978E+0	1.584365E+0	1.071883E+0	1.122953E+0	1.083303E+0	1.446874E+0	1.170267E+0	1.287799E+0	9.608996E-1	1.554156E+0	1.059834E+0	1.075177E+0	1.016385E+0	1.494451E+0	1.339811E+0	1.097939E+0	1.120768E+0	1.366644E+0	1.104742E+0	1.194808E+0	1.191387E+0	1.288282E+0	1.294367E+0	1.084107E+0	1.274824E+0
2.890190E+2	1.127394E-2	1.363394E+0	1.067415E+0	9.648747E-1	9.961001E-1	1.031401E+0	1.071862E+0	1.232683E+0	1.028588E+0	9.780417E-1	9.213270E-1	1.198061E+0	9.662747E-1	1.066413E+0	9.155049E-1	1.150673E+0	1.231561E+0	1.044929E+0	1.035264E+0	1.215028E+0	1.016006E+0	1.083264E+0	8.900171E-1	1.282870E+0	1.138192E+0	1.055834E+0	9.270344E-1	1.268231E+0	9.177453E-1	1.136283E+0	8.460120E-1	1.226020E+0	1.285075E+0	1.023642E+0	1.058538E+0	1.193011E+0	9.293799E-1	1.016554E+0	1.076166E+0	1.208857E+0	1.121779E+0	1.097542E+0	9.660691E-1	1.222202E+0	9.398910E-1	9.578254E-1	9.700057E-1	1.065146E+0	1.285378E+0	9.121501E-1	1.027972E+0	1.167166E+0	1.046315E+0	9.561175E-1	1.098278E+0	1.025174E+0	1.251333E+0	1.131299E+0	8.860687E-1	1.224259E+0	9.865034E-1	1.214010E+0	8.680873E-1	1.147461E+0	1.261768E+0	1.145203E+0	8.339758E-1	1.290919E+0	9.451190E-1	1.088049E+0	9.459286E-1	1.321148E+0	1.052029E+0	1.000627E+0	9.956766E-1	1.160825E+0	9.993319E-1	9.351830E-1	1.106880E+0	1.176534E+0	1.116914E+0	9.263714E-1	1.240431E+0	1.118656E+0	9.377894E-1	8.896912E-1	1.229243E+0	1.090927E+0	1.220288E+0	1.065189E+0	9.447249E-1	1.283330E+0	9.215266E-1	9.762650E-1	9.269317E-1	1.277521E+0	1.111365E+0	9.961602E-1	9.645311E-1	1.284732E+0	8.932889E-1	1.031587E+0	1.049686E+0	1.174425E+0	1.290589E+0	8.976283E-1	1.049644E+0	1.233572E+0	1.005035E+0	9.205654E-1	1.159677E+0	1.092429E+0	1.159749E+0	8.619671E-1	1.331360E+0	1.227339E+0	9.215918E-1	8.901993E-1	1.175869E+0	1.155520E+0	1.152737E+0	9.294089E-1	1.050532E+0	1.401430E+0	9.296311E-1	8.630609E-1	1.066854E+0	1.298711E+0	1.164807E+0	8.117975E-1	1.220496E+0	1.222233E+0	9.700806E-1	9.654680E-1	1.084761E+0	1.076509E+0	1.281044E+0	9.912023E-1	1.031108E+0	1.235944E+0	9.373475E-1	9.073697E-1	1.107404E+0	1.272843E+0	1.213401E+0	9.441220E-1	9.144298E-1	1.444239E+0	9.501861E-1	1.066250E+0	9.099981E-1	1.396938E+0	1.092513E+0	1.118585E+0	8.275277E-1	1.415973E+0	9.385191E-1	9.944585E-1	9.305883E-1	1.359902E+0	1.169235E+0	9.746704E-1	9.706410E-1	1.214486E+0	9.162096E-1	1.003821E+0	1.064249E+0	1.135049E+0	1.114520E+0	9.252851E-1	1.113915E+0
2.892040E+2	2.091057E-2	9.226594E-1	7.627944E-1	6.879385E-1	7.283475E-1	8.326379E-1	7.562294E-1	8.640478E-1	7.831351E-1	7.429082E-1	6.401096E-1	8.798355E-1	7.195794E-1	7.637440E-1	7.040012E-1	8.547657E-1	9.261638E-1	7.913884E-1	7.652489E-1	8.471986E-1	7.045344E-1	7.733158E-1	6.933872E-1	8.921619E-1	8.782969E-1	7.770191E-1	6.679755E-1	9.339802E-1	7.146940E-1	8.696165E-1	5.927079E-1	8.398153E-1	9.721266E-1	7.919396E-1	7.914827E-1	8.660825E-1	6.702470E-1	7.732281E-1	8.282016E-1	8.445002E-1	8.091579E-1	7.891028E-1	7.348805E-1	8.644393E-1	7.600630E-1	6.890861E-1	7.466669E-1	8.058905E-1	1.054436E+0	6.184536E-1	8.774215E-1	7.741428E-1	7.897739E-1	7.145064E-1	8.666412E-1	8.182586E-1	8.547891E-1	8.543935E-1	6.794874E-1	8.420087E-1	7.315293E-1	8.933496E-1	6.600159E-1	7.988800E-1	1.038681E+0	8.842930E-1	6.564743E-1	9.167692E-1	7.871543E-1	7.856887E-1	7.056575E-1	9.349526E-1	7.884127E-1	7.787086E-1	7.796581E-1	8.413848E-1	8.543713E-1	6.662381E-1	7.905655E-1	7.224036E-1	9.754867E-1	7.120184E-1	9.840572E-1	7.216938E-1	8.326035E-1	6.891742E-1	8.858624E-1	7.481564E-1	9.959381E-1	6.993309E-1	7.295338E-1	9.488047E-1	7.675751E-1	7.429115E-1	7.441587E-1	8.385762E-1	1.001173E+0	8.086851E-1	7.096643E-1	8.701429E-1	7.283160E-1	7.940786E-1	7.624904E-1	8.510294E-1	9.143584E-1	7.195926E-1	8.039913E-1	9.052372E-1	7.244204E-1	6.853613E-1	8.794899E-1	8.983413E-1	9.113186E-1	6.375267E-1	9.167031E-1	8.258692E-1	6.911831E-1	6.753120E-1	8.795664E-1	9.033124E-1	8.047036E-1	6.941733E-1	7.611107E-1	1.090350E+0	7.121114E-1	6.085188E-1	7.821342E-1	1.007015E+0	8.555370E-1	6.622229E-1	8.403007E-1	9.513546E-1	7.091974E-1	7.464647E-1	8.274300E-1	8.152215E-1	8.875691E-1	7.612596E-1	7.438806E-1	9.166208E-1	7.138957E-1	6.701142E-1	8.440280E-1	9.384603E-1	9.123382E-1	7.572238E-1	6.919081E-1	1.027742E+0	7.595368E-1	8.333879E-1	7.291459E-1	1.009646E+0	8.091383E-1	8.629797E-1	6.365071E-1	1.085202E+0	7.243799E-1	7.754421E-1	6.737448E-1	9.778955E-1	8.910860E-1	7.567327E-1	7.456492E-1	9.192753E-1	7.195412E-1	8.040135E-1	8.041177E-1	8.079058E-1	9.061581E-1	6.929926E-1	8.888621E-1
2.894050E+2	2.225496E-2	7.415621E-1	6.627166E-1	6.387577E-1	6.238685E-1	6.945540E-1	6.673413E-1	6.697543E-1	6.334859E-1	6.685864E-1	5.989486E-1	7.222684E-1	5.813969E-1	6.562167E-1	5.851124E-1	7.367313E-1	7.880188E-1	6.153965E-1	6.481841E-1	7.374038E-1	6.054889E-1	6.443877E-1	6.183099E-1	8.138825E-1	6.998205E-1	6.417335E-1	6.200209E-1	7.696600E-1	5.728885E-1	7.182338E-1	5.172776E-1	7.706323E-1	8.037016E-1	5.680456E-1	6.739232E-1	7.528949E-1	5.638263E-1	6.449951E-1	6.735194E-1	7.442110E-1	7.359743E-1	6.584563E-1	6.064213E-1	7.312110E-1	6.585773E-1	5.855272E-1	6.107448E-1	6.747219E-1	8.649354E-1	6.010938E-1	6.683741E-1	6.547221E-1	6.850823E-1	5.980274E-1	6.390043E-1	6.643555E-1	7.897940E-1	7.331163E-1	5.646089E-1	7.647316E-1	6.535109E-1	8.517692E-1	5.547239E-1	6.469565E-1	8.737196E-1	7.072602E-1	4.650261E-1	7.859037E-1	5.943183E-1	6.742722E-1	5.620524E-1	8.086794E-1	6.560351E-1	6.345359E-1	6.168861E-1	6.707528E-1	7.049542E-1	6.205826E-1	6.774750E-1	6.065718E-1	8.078886E-1	5.538780E-1	7.676521E-1	5.786241E-1	6.976938E-1	5.926117E-1	8.156644E-1	6.073740E-1	8.355304E-1	6.889485E-1	6.061300E-1	7.659144E-1	5.962457E-1	6.396531E-1	6.213954E-1	6.356145E-1	8.097023E-1	6.343548E-1	5.948044E-1	7.174301E-1	6.765932E-1	6.850837E-1	6.818134E-1	7.126419E-1	8.567043E-1	5.245914E-1	6.649564E-1	6.435961E-1	7.328669E-1	5.675739E-1	7.403891E-1	5.890666E-1	9.814478E-1	5.271310E-1	7.993393E-1	6.986547E-1	7.538958E-1	5.579666E-1	7.296770E-1	7.340005E-1	7.981456E-1	5.165006E-1	6.469200E-1	8.036689E-1	5.740976E-1	5.024801E-1	6.907125E-1	8.130740E-1	7.722671E-1	5.894876E-1	7.080716E-1	7.090715E-1	6.085256E-1	6.322268E-1	7.426310E-1	6.788659E-1	7.930144E-1	6.195075E-1	6.973079E-1	7.733125E-1	6.111948E-1	5.015891E-1	7.132226E-1	8.057279E-1	7.237006E-1	6.421425E-1	5.622473E-1	8.911188E-1	6.458421E-1	6.174357E-1	6.035932E-1	8.213743E-1	6.685106E-1	7.189239E-1	5.213172E-1	8.206312E-1	6.156452E-1	5.913484E-1	6.152073E-1	8.909866E-1	7.576013E-1	6.303923E-1	6.714556E-1	7.937498E-1	5.896338E-1	6.648140E-1	6.655036E-1	6.826326E-1	6.494378E-1	6.274571E-1	7.358595E-1
2.896150E+2	1.160060E-2	8.767468E-1	6.925809E-1	6.986831E-1	7.018338E-1	7.777303E-1	7.319816E-1	8.467264E-1	7.627614E-1	7.283779E-1	6.740349E-1	7.956366E-1	6.683539E-1	7.589975E-1	6.720549E-1	7.549486E-1	9.270905E-1	7.017963E-1	6.800591E-1	8.489785E-1	7.274702E-1	7.074602E-1	6.741563E-1	8.388183E-1	7.609673E-1	6.983071E-1	6.594445E-1	9.201170E-1	5.960842E-1	7.942238E-1	5.700913E-1	8.830976E-1	8.151901E-1	7.558333E-1	7.557500E-1	8.484923E-1	6.842934E-1	7.394433E-1	7.376624E-1	8.322790E-1	7.028730E-1	7.869233E-1	7.161050E-1	8.338805E-1	7.362620E-1	7.273600E-1	7.048480E-1	7.370606E-1	9.832846E-1	6.493319E-1	7.523848E-1	7.880368E-1	7.304337E-1	7.328206E-1	6.748683E-1	7.282754E-1	8.832323E-1	7.881330E-1	6.022483E-1	8.159806E-1	7.256782E-1	8.270378E-1	5.970306E-1	7.820829E-1	9.824313E-1	8.168971E-1	5.851097E-1	8.838470E-1	6.905363E-1	8.043064E-1	6.644644E-1	9.217679E-1	8.022348E-1	7.222801E-1	6.811208E-1	7.883972E-1	7.842403E-1	6.167342E-1	7.391169E-1	7.156311E-1	8.729472E-1	6.815245E-1	8.848220E-1	6.911991E-1	7.404616E-1	6.341713E-1	8.873862E-1	6.820079E-1	8.855447E-1	6.810816E-1	6.677484E-1	7.627122E-1	6.893221E-1	7.052675E-1	7.062671E-1	7.928009E-1	9.072505E-1	6.942340E-1	6.823020E-1	8.019826E-1	7.564814E-1	7.748896E-1	7.616156E-1	7.834683E-1	9.603634E-1	6.402929E-1	7.311254E-1	7.239266E-1	7.530873E-1	6.227422E-1	7.888250E-1	6.975790E-1	1.085033E+0	6.039018E-1	8.790337E-1	6.986390E-1	7.933402E-1	6.566538E-1	7.942031E-1	7.557112E-1	9.078884E-1	6.820222E-1	7.173113E-1	8.583275E-1	7.803410E-1	6.272436E-1	6.976440E-1	7.620922E-1	9.517611E-1	6.204572E-1	7.449697E-1	7.895492E-1	7.514130E-1	6.761723E-1	8.016342E-1	7.017949E-1	8.795926E-1	6.511437E-1	7.884355E-1	8.110537E-1	6.999662E-1	5.758125E-1	7.927292E-1	7.936371E-1	1.000595E+0	6.201422E-1	6.677518E-1	8.693749E-1	7.080531E-1	7.519152E-1	6.544937E-1	9.426436E-1	8.087204E-1	7.798869E-1	5.663679E-1	9.639126E-1	6.863312E-1	6.630636E-1	6.480023E-1	9.595142E-1	8.712071E-1	6.891421E-1	7.285764E-1	8.703850E-1	6.764606E-1	6.757669E-1	7.038364E-1	8.301513E-1	8.121047E-1	7.268937E-1	9.008450E-1
2.898030E+2	1.287912E-2	8.613701E-1	7.718977E-1	6.556108E-1	7.983001E-1	7.434600E-1	7.291103E-1	8.701200E-1	7.673592E-1	7.592241E-1	7.105885E-1	8.563920E-1	6.662984E-1	7.840115E-1	6.644852E-1	8.055117E-1	9.228903E-1	7.256832E-1	7.791764E-1	8.846513E-1	7.096068E-1	7.863567E-1	6.696206E-1	9.344140E-1	8.523234E-1	7.517374E-1	6.774673E-1	9.071494E-1	6.950650E-1	8.866793E-1	5.204153E-1	8.670469E-1	9.181347E-1	7.423991E-1	8.168530E-1	9.109414E-1	6.236087E-1	8.092841E-1	6.840720E-1	8.888175E-1	7.831297E-1	7.561085E-1	6.889267E-1	8.715214E-1	7.204296E-1	6.985364E-1	7.164285E-1	7.737447E-1	9.573280E-1	6.603180E-1	8.562757E-1	8.164388E-1	7.298238E-1	6.481228E-1	7.732681E-1	7.544923E-1	8.489801E-1	8.051314E-1	6.811146E-1	8.434633E-1	6.999005E-1	9.301131E-1	5.920701E-1	7.751056E-1	1.005326E+0	8.826119E-1	5.333467E-1	9.557452E-1	7.477203E-1	8.007074E-1	6.954869E-1	9.207503E-1	8.429422E-1	7.573002E-1	7.816253E-1	8.055540E-1	8.287145E-1	6.651540E-1	7.982929E-1	6.680181E-1	1.024193E+0	7.147964E-1	9.579643E-1	6.750672E-1	8.179292E-1	6.407339E-1	8.609564E-1	7.015385E-1	9.582840E-1	7.653735E-1	6.910506E-1	9.049830E-1	7.248745E-1	7.166157E-1	6.847427E-1	8.128112E-1	9.348173E-1	7.183649E-1	7.084761E-1	8.603686E-1	7.647558E-1	7.998661E-1	7.735691E-1	7.790089E-1	9.864533E-1	6.782879E-1	7.635982E-1	7.413542E-1	7.700459E-1	6.633928E-1	8.698117E-1	7.230376E-1	1.139735E+0	6.270909E-1	8.519521E-1	7.206662E-1	7.693939E-1	6.997484E-1	8.729300E-1	7.756506E-1	8.108459E-1	7.014673E-1	7.440233E-1	9.235354E-1	7.765936E-1	6.397327E-1	7.377901E-1	7.894529E-1	9.723686E-1	6.481350E-1	8.121146E-1	7.987750E-1	7.814993E-1	6.640232E-1	8.366971E-1	7.885849E-1	9.386336E-1	6.896799E-1	7.863254E-1	7.741020E-1	7.797558E-1	6.032105E-1	8.055240E-1	8.153616E-1	1.102333E+0	6.947710E-1	7.274619E-1	8.803579E-1	8.091468E-1	7.888276E-1	6.920279E-1	9.505390E-1	7.829959E-1	8.069774E-1	6.179255E-1	9.567994E-1	7.777032E-1	7.034147E-1	6.764061E-1	8.436068E-1	9.135388E-1	7.404993E-1	7.791712E-1	8.436312E-1	7.270313E-1	7.321157E-1	7.933837E-1	8.237870E-1	9.486504E-1	7.843757E-1	9.740309E-1
2.900050E+2	2.376660E-1	8.655011E-1	7.047272E-1	7.519320E-1	7.299395E-1	7.051121E-1	7.516639E-1	7.937244E-1	7.147087E-1	6.881410E-1	6.518992E-1	7.390801E-1	6.483116E-1	7.439979E-1	6.892315E-1	7.585585E-1	8.069066E-1	7.870063E-1	6.836494E-1	7.858491E-1	7.150673E-1	6.793970E-1	7.027677E-1	7.679933E-1	7.530671E-1	7.425451E-1	6.461223E-1	8.912981E-1	7.163968E-1	7.290745E-1	6.068668E-1	7.414909E-1	8.611252E-1	7.368704E-1	7.226587E-1	8.044088E-1	6.377030E-1	7.141386E-1	7.842534E-1	8.514665E-1	7.856941E-1	7.332127E-1	7.102868E-1	7.751835E-1	6.956377E-1	7.349794E-1	6.943638E-1	7.336800E-1	8.984514E-1	6.946931E-1	7.633244E-1	7.112508E-1	8.024449E-1	6.793930E-1	8.040013E-1	7.423607E-1	8.357377E-1	7.759964E-1	6.122340E-1	7.440445E-1	6.772165E-1	8.564713E-1	6.416171E-1	7.293353E-1	8.675449E-1	7.935248E-1	6.646797E-1	7.843226E-1	7.690610E-1	7.385478E-1	7.482036E-1	8.136230E-1	7.547889E-1	7.229735E-1	6.976788E-1	7.542996E-1	7.403974E-1	6.411917E-1	7.219261E-1	6.811803E-1	8.510358E-1	7.176949E-1	8.790140E-1	7.013211E-1	7.498616E-1	6.806730E-1	7.846969E-1	6.494499E-1	8.190979E-1	6.911383E-1	6.613866E-1	7.835848E-1	7.144814E-1	6.926069E-1	6.789012E-1	7.598391E-1	8.809773E-1	6.861043E-1	6.824908E-1	7.988217E-1	7.852042E-1	7.740669E-1	7.279241E-1	7.849240E-1	8.374853E-1	6.324762E-1	7.134404E-1	7.261691E-1	7.356425E-1	6.723732E-1	7.787975E-1	7.501403E-1	1.002713E+0	6.019739E-1	8.631169E-1	7.031100E-1	7.206871E-1	6.925006E-1	7.945627E-1	7.873171E-1	8.022311E-1	6.443347E-1	7.128258E-1	7.885236E-1	7.018199E-1	6.368996E-1	7.523806E-1	7.738791E-1	9.653211E-1	6.863303E-1	7.764497E-1	7.184306E-1	7.522466E-1	7.333831E-1	7.289417E-1	7.496332E-1	8.704660E-1	7.092135E-1	7.933596E-1	7.176083E-1	7.117186E-1	6.527242E-1	7.478293E-1	7.178446E-1	9.064870E-1	7.152005E-1	6.311805E-1	8.374297E-1	7.520449E-1	7.675094E-1	6.829752E-1	8.770787E-1	7.703956E-1	8.364737E-1	6.113979E-1	8.389750E-1	7.125690E-1	7.162174E-1	7.073514E-1	8.148912E-1	8.590479E-1	7.185113E-1	7.239945E-1	7.616238E-1	7.457511E-1	7.507757E-1	7.362536E-1	8.016387E-1	7.781131E-1	7.029589E-1	7.858232E-1
2.905120E+2	7.204235E-1	7.425421E-1	6.844283E-1	6.681935E-1	7.546162E-1	6.859862E-1	6.726130E-1	7.063426E-1	7.159568E-1	7.415417E-1	7.063215E-1	6.885361E-1	7.131849E-1	7.348461E-1	6.739789E-1	6.887309E-1	6.962513E-1	7.300835E-1	7.221032E-1	6.898099E-1	7.159179E-1	7.163565E-1	7.316611E-1	6.972448E-1	7.449144E-1	7.615672E-1	7.057290E-1	7.438621E-1	7.152167E-1	7.178935E-1	7.235822E-1	6.755565E-1	6.931184E-1	6.955731E-1	6.701300E-1	7.064246E-1	7.117379E-1	7.471057E-1	7.078097E-1	7.405588E-1	7.334187E-1	6.846525E-1	7.405490E-1	6.582521E-1	7.328542E-1	7.079477E-1	7.108542E-1	7.065410E-1	7.007803E-1	6.942051E-1	7.485509E-1	6.656332E-1	7.107469E-1	6.807013E-1	7.220267E-1	7.407155E-1	6.732964E-1	7.629667E-1	6.896324E-1	6.622076E-1	6.880773E-1	7.345118E-1	7.214638E-1	6.932055E-1	7.222121E-1	7.294812E-1	7.109939E-1	7.218939E-1	7.236290E-1	7.119944E-1	7.065269E-1	6.886602E-1	6.855781E-1	7.169001E-1	6.404209E-1	6.779171E-1	6.841485E-1	7.253420E-1	7.070218E-1	7.002605E-1	6.497553E-1	7.318224E-1	6.707982E-1	6.741431E-1	7.188975E-1	7.312467E-1	6.712111E-1	7.206746E-1	7.072872E-1	6.687287E-1	6.953639E-1	7.000748E-1	6.770417E-1	7.111840E-1	7.047041E-1	6.949274E-1	6.781450E-1	6.794828E-1	7.227888E-1	7.275455E-1	7.000970E-1	7.066309E-1	6.643081E-1	6.710479E-1	6.752412E-1	7.159092E-1	7.178621E-1	7.324618E-1	7.209435E-1	7.090711E-1	7.197869E-1	7.067024E-1	6.993467E-1	6.877426E-1	7.646790E-1	6.936670E-1	7.306157E-1	7.027955E-1	7.140469E-1	7.077814E-1	7.550346E-1	7.065089E-1	7.574656E-1	6.940759E-1	7.346453E-1	7.368212E-1	7.459786E-1	7.179263E-1	7.264179E-1	7.359210E-1	6.728155E-1	7.523944E-1	6.791135E-1	6.986594E-1	7.240725E-1	6.691438E-1	6.808431E-1	7.206022E-1	6.341491E-1	7.004475E-1	7.025593E-1	6.929285E-1	7.210357E-1	6.742099E-1	6.761847E-1	7.473034E-1	6.921488E-1	6.656528E-1	7.579013E-1	6.864935E-1	7.298195E-1	6.560016E-1	6.933974E-1	7.583449E-1	7.477936E-1	6.860111E-1	6.800308E-1	7.553165E-1	7.155413E-1	7.073026E-1	7.103613E-1	7.201329E-1	6.722215E-1	7.318783E-1	7.565589E-1	7.214877E-1	7.551312E-1	7.259632E-1	6.776908E-1	7.587263E-1	6.951181E-1
2.910060E+2	8.878105E-1	9.265772E-1	8.194114E-1	8.651073E-1	8.850986E-1	8.926296E-1	9.106999E-1	8.971079E-1	8.879723E-1	9.218835E-1	8.705626E-1	8.990963E-1	8.714812E-1	8.962941E-1	8.856854E-1	8.402744E-1	8.687728E-1	9.067790E-1	9.006612E-1	7.988376E-1	9.377102E-1	9.283340E-1	9.205562E-1	9.259117E-1	9.989744E-1	9.770073E-1	9.550738E-1	9.548000E-1	9.698681E-1	8.946365E-1	8.726401E-1	8.970720E-1	1.001575E+0	9.135693E-1	9.396703E-1	9.605571E-1	9.466714E-1	9.625834E-1	9.354261E-1	9.141495E-1	9.321681E-1	8.680421E-1	9.515027E-1	8.857633E-1	9.170117E-1	9.170109E-1	8.848160E-1	9.187381E-1	9.798901E-1	9.120459E-1	9.043767E-1	9.293350E-1	9.537862E-1	9.567639E-1	9.425368E-1	9.155189E-1	8.813340E-1	9.061530E-1	8.772519E-1	9.364504E-1	9.299775E-1	9.191692E-1	9.942840E-1	9.427869E-1	9.180651E-1	8.837269E-1	9.025928E-1	9.102477E-1	9.631357E-1	9.292003E-1	9.058428E-1	8.821230E-1	8.726942E-1	9.759193E-1	8.910380E-1	9.496288E-1	8.909194E-1	8.988116E-1	9.010004E-1	8.548336E-1	9.612482E-1	8.962105E-1	9.189873E-1	8.766981E-1	9.229000E-1	9.467392E-1	9.547439E-1	8.877032E-1	9.066618E-1	9.178785E-1	9.736269E-1	9.330395E-1	9.362679E-1	9.353103E-1	8.790393E-1	9.390438E-1	9.001059E-1	8.454719E-1	9.088016E-1	8.749217E-1	9.039017E-1	9.019164E-1	9.071517E-1	8.643159E-1	9.017846E-1	8.811724E-1	9.064518E-1	9.012577E-1	9.538387E-1	8.924992E-1	8.533269E-1	9.361430E-1	8.511558E-1	8.881141E-1	8.888486E-1	9.054649E-1	8.738774E-1	9.317355E-1	8.578565E-1	8.898209E-1	8.949446E-1	8.802655E-1	9.303205E-1	1.016699E+0	9.968145E-1	8.797620E-1	9.200315E-1	8.753859E-1	8.952328E-1	8.619427E-1	8.705240E-1	9.945171E-1	9.682299E-1	8.477543E-1	8.489582E-1	8.661668E-1	9.130206E-1	8.867197E-1	9.103902E-1	8.381661E-1	9.259426E-1	8.948516E-1	9.054695E-1	9.181049E-1	9.111545E-1	9.216613E-1	9.181141E-1	9.169107E-1	9.598534E-1	9.205099E-1	8.920617E-1	9.948024E-1	9.200604E-1	9.107260E-1	9.542693E-1	9.353767E-1	9.814505E-1	9.729149E-1	8.722053E-1	9.025548E-1	8.922372E-1	9.089401E-1	9.128346E-1	9.261970E-1	9.413527E-1	8.849967E-1	9.396652E-1	8.931949E-1	9.091417E-1	9.587311E-1	8.546804E-1
2.915210E+2	1.140581E+0	1.165272E+0	1.126994E+0	1.188645E+0	1.137975E+0	1.188068E+0	1.144682E+0	1.096138E+0	1.125024E+0	1.114199E+0	1.163680E+0	1.162180E+0	1.163919E+0	1.163845E+0	1.088908E+0	1.173672E+0	1.217407E+0	1.304689E+0	1.148082E+0	1.143244E+0	1.183552E+0	1.157714E+0	1.124834E+0	1.075560E+0	1.106755E+0	1.186330E+0	1.120576E+0	1.096708E+0	1.138924E+0	1.219169E+0	1.139328E+0	1.187689E+0	1.155563E+0	1.179558E+0	1.203057E+0	1.129421E+0	1.164821E+0	1.187136E+0	1.123845E+0	1.112354E+0	1.204249E+0	1.090541E+0	1.212780E+0	1.093956E+0	1.151383E+0	1.103609E+0	1.155792E+0	1.145299E+0	1.199063E+0	1.115504E+0	1.124086E+0	1.125959E+0	1.116096E+0	1.204567E+0	1.076684E+0	1.170883E+0	1.166926E+0	1.221159E+0	1.106202E+0	1.160790E+0	1.110512E+0	1.164864E+0	1.152611E+0	1.140093E+0	1.151481E+0	1.116287E+0	1.102933E+0	1.242846E+0	1.154452E+0	1.194418E+0	1.144141E+0	1.168151E+0	1.144723E+0	1.102585E+0	1.163147E+0	1.113107E+0	1.136869E+0	1.174522E+0	1.043716E+0	1.093442E+0	1.168951E+0	1.154214E+0	1.221965E+0	1.167233E+0	1.127723E+0	1.123664E+0	1.097857E+0	1.135109E+0	1.184002E+0	1.147415E+0	1.097062E+0	1.148172E+0	1.186648E+0	1.160971E+0	1.167667E+0	1.086037E+0	1.093785E+0	1.079601E+0	1.079833E+0	1.115227E+0	1.257697E+0	1.136086E+0	1.176072E+0	1.123880E+0	1.127792E+0	1.107647E+0	1.186906E+0	1.126852E+0	1.118305E+0	1.124313E+0	1.162880E+0	1.154441E+0	1.154375E+0	1.118460E+0	1.173027E+0	1.129071E+0	1.217740E+0	1.172278E+0	1.149771E+0	1.104339E+0	1.136844E+0	1.118749E+0	1.167718E+0	1.208251E+0	1.148968E+0	1.132219E+0	1.151299E+0	1.171575E+0	1.126232E+0	1.109591E+0	1.164100E+0	1.193521E+0	1.101510E+0	1.083196E+0	1.113788E+0	1.121169E+0	1.166897E+0	1.223480E+0	1.173798E+0	1.076021E+0	1.109879E+0	1.178003E+0	1.159641E+0	1.175637E+0	1.227173E+0	1.132694E+0	1.134517E+0	1.111350E+0	1.242805E+0	1.136852E+0	1.137944E+0	1.188208E+0	1.139409E+0	1.228305E+0	1.150309E+0	1.212040E+0	1.157459E+0	1.156404E+0	1.165173E+0	1.127536E+0	1.227143E+0	1.157847E+0	1.177691E+0	1.171791E+0	1.169027E+0	1.203220E+0	1.196699E+0	1.209319E+0	1.209877E+0	1.176275E+0	1.140702E+0
2.920010E+2	9.272715E-1	8.674544E-1	9.389632E-1	8.873831E-1	8.637329E-1	8.868564E-1	9.040436E-1	9.066759E-1	8.463638E-1	9.181744E-1	8.783614E-1	9.004607E-1	8.623316E-1	9.353870E-1	9.325880E-1	8.885022E-1	9.770277E-1	9.100201E-1	9.114054E-1	9.587608E-1	8.837414E-1	9.061842E-1	9.463175E-1	8.700762E-1	9.107363E-1	9.222849E-1	9.119135E-1	9.778619E-1	8.972144E-1	9.330926E-1	9.358077E-1	9.554035E-1	9.189225E-1	9.276142E-1	8.800965E-1	8.675016E-1	9.278853E-1	9.947987E-1	9.244264E-1	8.900528E-1	9.892537E-1	9.081258E-1	9.862688E-1	9.424864E-1	8.953280E-1	9.055738E-1	9.708800E-1	9.385244E-1	8.742265E-1	9.386343E-1	9.338090E-1	9.107328E-1	9.311071E-1	9.526211E-1	8.924459E-1	8.735452E-1	9.302577E-1	9.323696E-1	9.281699E-1	9.662541E-1	9.990092E-1	9.585557E-1	8.563780E-1	9.170928E-1	9.350570E-1	9.355889E-1	8.655369E-1	9.119338E-1	9.109757E-1	9.922695E-1	9.447185E-1	8.720045E-1	9.517864E-1	9.221935E-1	8.743516E-1	8.844962E-1	9.035281E-1	9.548095E-1	9.316800E-1	8.746143E-1	9.025226E-1	8.769793E-1	9.249140E-1	9.417593E-1	9.295977E-1	8.347913E-1	9.473839E-1	8.740840E-1	9.494086E-1	9.107342E-1	9.602060E-1	8.182829E-1	9.540024E-1	9.195834E-1	9.129058E-1	8.961261E-1	9.472121E-1	8.971912E-1	8.981178E-1	9.606346E-1	9.312237E-1	9.458373E-1	9.504992E-1	8.885684E-1	9.955633E-1	9.262551E-1	9.066506E-1	8.841113E-1	9.647879E-1	8.905965E-1	9.752512E-1	9.484059E-1	9.351129E-1	9.571620E-1	9.533150E-1	9.560369E-1	9.606642E-1	9.062155E-1	9.052989E-1	9.792428E-1	9.764859E-1	8.772844E-1	9.394698E-1	8.623431E-1	9.278506E-1	9.789465E-1	8.949715E-1	9.364220E-1	8.782161E-1	9.574845E-1	9.228805E-1	9.508536E-1	8.892551E-1	9.355045E-1	8.755971E-1	9.125940E-1	8.930404E-1	9.495444E-1	9.607909E-1	9.464895E-1	8.730070E-1	9.099151E-1	1.023850E+0	1.003469E+0	9.562494E-1	9.408836E-1	8.866257E-1	8.871843E-1	9.621677E-1	9.473209E-1	9.344151E-1	8.689003E-1	9.200155E-1	9.723668E-1	8.985808E-1	9.950157E-1	9.199192E-1	9.141020E-1	9.479890E-1	8.672711E-1	9.395273E-1	8.934214E-1	9.209516E-1	9.347047E-1	9.238469E-1	8.471717E-1	9.085872E-1	8.585713E-1	9.514701E-1	9.098279E-1	8.818280E-1
2.925000E+2	8.824490E-1	8.226568E-1	8.942868E-1	8.675890E-1	8.441408E-1	8.823456E-1	8.316965E-1	8.124128E-1	8.458213E-1	8.073175E-1	8.564983E-1	8.896429E-1	7.995746E-1	7.980656E-1	8.213556E-1	8.495638E-1	8.660476E-1	8.545443E-1	7.926607E-1	9.183510E-1	8.345286E-1	8.382693E-1	7.975988E-1	8.623617E-1	8.286400E-1	8.856052E-1	8.168787E-1	8.219439E-1	8.675108E-1	8.055966E-1	7.844633E-1	8.425257E-1	9.232220E-1	8.371781E-1	8.586345E-1	8.587051E-1	8.737011E-1	8.862431E-1	8.318896E-1	8.114718E-1	8.302510E-1	8.781188E-1	8.647748E-1	8.313316E-1	8.850018E-1	7.887786E-1	8.578335E-1	8.129985E-1	7.745655E-1	8.562860E-1	8.616628E-1	8.225566E-1	7.915263E-1	8.264608E-1	8.633163E-1	8.059871E-1	7.872440E-1	8.348515E-1	8.814794E-1	8.021488E-1	8.480426E-1	8.409772E-1	8.527275E-1	8.494187E-1	8.965904E-1	8.729398E-1	8.361954E-1	8.277156E-1	9.127303E-1	8.840878E-1	8.523938E-1	8.470813E-1	8.318937E-1	9.012495E-1	7.881117E-1	9.058316E-1	8.797272E-1	8.172191E-1	8.265267E-1	8.644053E-1	8.960860E-1	8.573612E-1	8.287746E-1	8.578324E-1	8.585415E-1	8.432064E-1	8.429103E-1	8.351550E-1	9.005256E-1	8.776037E-1	8.675730E-1	8.362420E-1	8.615111E-1	8.481728E-1	8.074741E-1	8.358047E-1	8.272975E-1	8.463050E-1	8.420632E-1	8.433055E-1	8.194089E-1	8.478296E-1	8.551045E-1	8.396872E-1	8.713009E-1	8.422561E-1	8.337907E-1	8.921757E-1	8.691611E-1	8.246880E-1	8.045501E-1	8.347454E-1	8.071078E-1	8.411739E-1	8.545074E-1	8.270899E-1	8.303497E-1	8.239305E-1	8.124694E-1	9.577111E-1	9.197370E-1	8.817451E-1	8.554890E-1	8.551739E-1	8.452499E-1	8.611389E-1	8.851947E-1	7.853584E-1	8.375766E-1	8.722550E-1	8.648044E-1	8.987884E-1	8.572401E-1	8.374666E-1	8.637336E-1	9.053198E-1	9.158729E-1	8.806742E-1	8.969817E-1	8.665132E-1	8.273907E-1	8.654892E-1	8.758392E-1	8.557427E-1	8.418948E-1	9.416563E-1	8.294260E-1	7.796945E-1	8.622110E-1	8.474266E-1	9.225270E-1	8.451750E-1	8.422136E-1	8.775917E-1	8.572847E-1	8.699240E-1	8.221411E-1	9.173874E-1	8.404093E-1	8.596338E-1	9.455561E-1	8.701227E-1	8.597404E-1	8.480228E-1	8.837414E-1	9.240833E-1	8.267425E-1	8.764939E-1	9.306371E-1	8.652339E-1	9.497591E-1
2.930010E+2	9.659124E-1	9.433573E-1	9.301250E-1	9.541244E-1	1.048902E+0	9.958793E-1	8.944758E-1	9.826349E-1	9.930887E-1	1.009456E+0	8.679110E-1	9.301998E-1	8.715875E-1	1.030399E+0	9.300371E-1	9.499545E-1	9.311121E-1	9.945390E-1	9.225631E-1	9.932222E-1	9.646047E-1	9.962327E-1	9.706778E-1	1.012669E+0	9.570352E-1	1.008462E+0	9.625484E-1	9.404093E-1	1.067590E+0	9.696368E-1	9.529040E-1	9.375602E-1	9.691108E-1	1.011041E+0	1.037451E+0	9.408033E-1	9.437609E-1	1.023615E+0	9.267433E-1	1.028294E+0	9.752018E-1	9.879471E-1	9.520380E-1	9.297789E-1	9.400583E-1	1.018606E+0	9.510806E-1	1.004926E+0	9.696644E-1	1.000310E+0	9.667428E-1	1.028108E+0	9.434237E-1	9.959773E-1	9.426462E-1	9.457503E-1	9.863230E-1	9.581558E-1	1.008370E+0	9.878599E-1	9.270340E-1	9.990628E-1	9.132620E-1	9.587464E-1	9.903478E-1	1.029905E+0	9.343105E-1	9.759054E-1	9.637034E-1	9.851463E-1	9.372115E-1	9.858702E-1	1.002242E+0	1.016423E+0	9.904598E-1	9.883735E-1	9.894928E-1	1.061859E+0	9.757081E-1	9.469724E-1	9.823144E-1	9.795732E-1	9.684196E-1	9.801016E-1	9.392634E-1	9.999105E-1	9.425215E-1	9.942177E-1	1.073102E+0	1.018912E+0	9.770037E-1	9.754332E-1	1.012770E+0	1.052422E+0	9.351692E-1	9.944088E-1	1.056555E+0	9.618348E-1	1.018940E+0	1.013342E+0	9.959593E-1	9.521479E-1	9.308644E-1	1.023713E+0	1.054396E+0	1.024891E+0	9.419078E-1	9.555865E-1	1.018344E+0	1.018689E+0	9.209309E-1	9.930005E-1	1.004319E+0	9.776725E-1	1.043942E+0	1.000192E+0	9.311483E-1	9.614031E-1	1.014564E+0	9.574151E-1	1.092545E+0	9.802396E-1	9.685310E-1	1.058442E+0	9.919815E-1	9.679996E-1	9.690824E-1	9.696142E-1	1.023481E+0	9.573688E-1	1.015551E+0	9.814209E-1	9.854612E-1	8.848468E-1	9.512148E-1	9.388620E-1	1.005000E+0	9.233875E-1	9.086144E-1	9.506544E-1	9.741771E-1	9.735853E-1	9.886053E-1	9.706774E-1	9.435340E-1	9.679862E-1	9.722908E-1	9.164931E-1	1.005416E+0	9.428863E-1	9.475452E-1	1.022777E+0	1.026440E+0	1.040644E+0	9.650586E-1	9.609577E-1	1.047986E+0	1.056812E+0	9.804824E-1	9.679955E-1	9.960811E-1	9.499993E-1	1.002847E+0	1.011118E+0	9.386604E-1	9.568822E-1	9.721991E-1	8.800309E-1	9.796187E-1	9.017290E-1	1.018224E+0
2.935120E+2	1.113419E+0	1.086190E+0	1.078107E+0	1.123747E+0	1.117122E+0	1.124911E+0	1.149605E+0	1.116371E+0	1.177314E+0	1.132957E+0	1.167466E+0	1.088825E+0	1.142578E+0	1.142278E+0	1.061403E+0	1.098148E+0	1.107788E+0	1.086270E+0	1.092306E+0	1.075720E+0	1.132559E+0	1.172185E+0	1.056962E+0	1.105578E+0	1.054258E+0	1.173434E+0	1.110066E+0	1.063865E+0	1.150933E+0	1.132891E+0	1.098245E+0	1.072032E+0	1.145391E+0	1.106922E+0	1.142773E+0	1.060624E+0	1.047319E+0	1.186550E+0	1.059009E+0	1.141390E+0	1.175517E+0	1.200052E+0	1.154889E+0	1.067057E+0	1.087154E+0	1.103178E+0	1.104449E+0	1.125298E+0	1.120007E+0	1.154175E+0	1.133523E+0	1.076275E+0	1.175255E+0	1.116814E+0	1.081641E+0	1.169479E+0	1.130138E+0	1.145085E+0	1.119680E+0	1.205139E+0	1.127745E+0	1.156081E+0	1.123288E+0	1.091587E+0	1.101029E+0	1.156393E+0	1.062615E+0	1.157142E+0	1.102794E+0	1.148180E+0	1.127167E+0	1.096337E+0	1.093682E+0	1.168057E+0	1.070714E+0	1.164907E+0	1.105533E+0	1.135369E+0	1.101683E+0	1.073758E+0	1.151055E+0	1.077102E+0	1.140903E+0	1.086268E+0	1.078227E+0	1.074143E+0	1.134038E+0	1.149847E+0	1.144163E+0	1.126141E+0	1.130951E+0	1.130198E+0	1.110720E+0	1.113972E+0	1.092828E+0	1.142683E+0	1.112912E+0	1.089686E+0	1.114147E+0	1.145377E+0	1.064778E+0	1.126620E+0	1.118238E+0	1.068411E+0	1.142201E+0	1.104543E+0	1.056026E+0	1.099168E+0	1.161442E+0	1.093054E+0	1.112783E+0	1.163418E+0	1.096443E+0	1.111703E+0	1.112884E+0	1.098544E+0	1.131400E+0	1.083330E+0	1.123418E+0	1.135134E+0	1.160346E+0	1.097541E+0	1.120116E+0	1.131142E+0	1.173739E+0	1.119643E+0	1.139514E+0	1.125427E+0	1.106409E+0	1.102525E+0	1.138746E+0	1.130507E+0	1.065344E+0	1.168428E+0	1.055162E+0	1.180939E+0	1.158647E+0	1.179075E+0	1.115185E+0	1.104708E+0	1.042909E+0	1.078693E+0	1.111816E+0	1.152797E+0	1.156646E+0	1.173616E+0	1.217665E+0	1.112568E+0	1.091262E+0	1.107660E+0	1.151597E+0	1.071597E+0	1.179994E+0	1.071336E+0	1.119633E+0	1.204508E+0	1.202587E+0	1.169097E+0	1.135730E+0	1.155084E+0	1.146698E+0	1.162873E+0	1.118507E+0	1.120737E+0	1.165375E+0	1.100463E+0	1.112946E+0	1.134728E+0	1.220992E+0	1.149412E+0	9.835529E-1
2.940080E+2	1.063357E+0	1.098341E+0	1.104072E+0	1.101118E+0	1.085028E+0	1.089642E+0	1.081185E+0	1.127075E+0	1.043742E+0	1.098324E+0	1.051616E+0	1.067152E+0	1.086800E+0	1.028593E+0	1.073856E+0	1.093438E+0	1.018422E+0	1.064499E+0	1.070676E+0	1.133639E+0	1.112235E+0	1.116702E+0	1.093590E+0	1.117433E+0	1.104633E+0	1.063546E+0	1.096577E+0	1.119055E+0	1.081852E+0	9.954858E-1	1.032073E+0	1.114937E+0	1.074869E+0	1.090267E+0	1.108892E+0	1.083106E+0	1.055263E+0	1.104385E+0	1.007264E+0	1.146655E+0	1.087728E+0	1.131230E+0	1.072547E+0	1.035411E+0	1.049658E+0	1.078171E+0	1.130529E+0	1.012779E+0	1.146214E+0	1.085668E+0	1.145973E+0	1.125915E+0	1.063986E+0	1.109950E+0	1.082277E+0	1.123859E+0	1.063048E+0	1.088374E+0	1.087288E+0	1.091312E+0	1.117832E+0	1.121913E+0	1.141935E+0	1.125614E+0	1.094933E+0	1.162171E+0	1.091966E+0	1.093364E+0	1.069750E+0	1.113484E+0	1.118075E+0	1.070394E+0	1.021662E+0	1.041356E+0	1.012263E+0	1.029722E+0	1.086107E+0	1.053043E+0	1.042944E+0	1.099389E+0	1.044058E+0	1.111693E+0	1.152900E+0	1.079573E+0	1.110238E+0	1.107470E+0	1.108585E+0	1.075096E+0	1.065745E+0	1.148529E+0	1.055812E+0	1.081610E+0	1.105529E+0	1.124658E+0	1.072852E+0	1.070640E+0	1.041721E+0	1.104383E+0	1.038162E+0	1.110703E+0	1.067599E+0	1.065693E+0	1.068705E+0	1.131776E+0	1.150864E+0	1.044622E+0	1.102056E+0	1.088748E+0	1.039120E+0	1.090310E+0	1.156124E+0	1.092844E+0	1.090203E+0	1.143213E+0	1.134606E+0	1.126414E+0	1.089395E+0	1.112119E+0	1.065106E+0	1.113745E+0	1.064413E+0	1.067954E+0	1.087893E+0	1.124819E+0	1.088947E+0	1.052556E+0	1.098428E+0	1.058133E+0	9.832224E-1	1.059725E+0	1.161465E+0	1.096006E+0	1.060342E+0	1.059308E+0	1.128410E+0	1.111288E+0	1.051056E+0	1.142795E+0	1.059053E+0	1.117815E+0	1.103069E+0	1.101169E+0	1.132083E+0	1.046829E+0	1.112581E+0	1.113851E+0	1.054254E+0	1.123526E+0	1.109327E+0	1.119565E+0	1.132897E+0	1.120510E+0	1.044284E+0	1.124548E+0	1.022723E+0	1.012742E+0	1.067198E+0	1.117711E+0	1.109593E+0	1.046716E+0	1.062890E+0	1.118078E+0	1.112773E+0	1.115733E+0	1.083275E+0	1.109253E+0	1.031519E+0	1.130996E+0	1.057586E+0	1.074043E+0	1.133049E+0
2.945030E+2	8.738028E-1	9.390175E-1	9.826925E-1	9.014571E-1	9.438689E-1	1.002830E+0	9.492856E-1	9.684569E-1	9.486496E-1	9.556141E-1	9.034660E-1	8.754992E-1	9.677745E-1	9.423958E-1	9.430662E-1	9.425908E-1	9.145401E-1	1.007829E+0	9.560651E-1	1.002862E+0	9.600899E-1	9.834044E-1	9.220029E-1	1.020927E+0	9.613984E-1	1.016781E+0	9.446131E-1	9.378325E-1	1.012486E+0	9.442818E-1	9.325112E-1	9.824059E-1	9.330152E-1	9.877572E-1	1.019889E+0	1.022358E+0	9.331675E-1	9.794292E-1	9.511669E-1	9.695187E-1	1.003140E+0	9.782234E-1	9.100910E-1	9.971362E-1	9.348518E-1	9.942317E-1	9.498976E-1	9.110799E-1	9.460491E-1	8.697308E-1	9.425951E-1	9.122778E-1	9.664538E-1	9.100808E-1	9.275160E-1	9.418193E-1	9.411689E-1	9.830934E-1	9.167710E-1	9.382372E-1	8.933373E-1	9.531381E-1	9.364050E-1	8.959514E-1	9.428896E-1	9.795666E-1	8.878508E-1	1.007539E+0	9.630153E-1	9.883644E-1	9.348288E-1	9.923514E-1	9.141906E-1	1.008739E+0	8.939795E-1	9.870824E-1	1.006328E+0	8.998908E-1	8.736713E-1	9.027779E-1	8.602768E-1	9.439380E-1	9.599283E-1	9.525405E-1	9.253467E-1	9.628382E-1	9.637111E-1	9.409626E-1	9.487186E-1	9.431098E-1	9.248774E-1	9.883706E-1	9.250974E-1	9.562605E-1	9.460178E-1	9.803947E-1	9.560104E-1	9.663451E-1	8.892993E-1	9.695780E-1	9.545332E-1	9.554624E-1	9.267291E-1	9.471777E-1	9.784554E-1	9.897602E-1	9.423703E-1	9.215576E-1	8.900354E-1	9.518836E-1	9.692777E-1	9.268821E-1	9.661681E-1	9.623998E-1	1.033741E+0	9.451782E-1	9.443282E-1	9.752853E-1	1.019934E+0	9.672597E-1	9.750796E-1	9.492978E-1	9.611388E-1	9.205504E-1	9.507625E-1	9.156502E-1	9.974278E-1	9.934587E-1	9.660571E-1	9.082835E-1	9.547740E-1	9.354533E-1	9.253836E-1	9.527060E-1	8.955398E-1	9.743672E-1	9.775599E-1	9.916770E-1	9.621251E-1	9.811962E-1	1.011389E+0	9.818675E-1	9.738480E-1	9.592939E-1	9.165801E-1	9.657958E-1	9.197466E-1	9.889004E-1	1.016564E+0	9.715401E-1	9.382945E-1	9.759719E-1	1.031681E+0	9.419340E-1	9.604732E-1	1.002285E+0	9.811853E-1	9.557989E-1	9.428487E-1	9.844316E-1	9.284399E-1	9.768885E-1	9.241242E-1	1.008927E+0	9.744948E-1	9.631863E-1	9.590460E-1	9.755152E-1	1.027892E+0	9.207447E-1	9.431634E-1
2.950050E+2	9.633074E-1	9.160062E-1	9.394029E-1	8.769190E-1	9.691130E-1	9.205549E-1	9.350975E-1	9.127456E-1	9.523156E-1	9.885131E-1	9.161347E-1	9.510904E-1	9.223901E-1	9.568904E-1	8.942693E-1	8.960165E-1	9.203747E-1	9.897791E-1	8.920344E-1	1.024232E+0	9.598425E-1	8.832234E-1	9.021267E-1	1.002217E+0	9.138244E-1	9.253156E-1	9.824828E-1	9.831122E-1	9.451469E-1	9.484052E-1	9.563127E-1	9.311753E-1	9.426033E-1	9.447677E-1	9.973660E-1	9.327175E-1	9.852992E-1	9.692382E-1	9.072492E-1	9.865588E-1	9.749099E-1	1.014963E+0	9.494522E-1	9.549752E-1	9.218650E-1	9.846282E-1	9.025644E-1	9.087070E-1	9.985221E-1	9.027141E-1	8.775553E-1	9.324720E-1	9.336267E-1	9.637367E-1	9.223309E-1	9.701128E-1	9.632600E-1	9.535776E-1	8.744258E-1	9.073564E-1	9.362297E-1	1.010149E+0	9.940511E-1	9.547603E-1	9.458081E-1	9.405618E-1	9.856879E-1	9.375814E-1	9.483919E-1	1.007693E+0	9.499426E-1	9.807659E-1	9.119357E-1	9.115785E-1	9.237705E-1	9.265860E-1	9.532910E-1	8.937878E-1	9.137935E-1	9.193723E-1	9.330764E-1	9.579584E-1	9.167884E-1	8.650108E-1	9.355152E-1	9.102801E-1	9.212324E-1	9.629205E-1	9.997514E-1	9.989331E-1	9.063209E-1	9.607624E-1	9.741742E-1	1.010254E+0	9.631903E-1	9.636747E-1	9.331868E-1	9.387847E-1	9.609184E-1	9.657061E-1	9.655619E-1	9.412798E-1	9.757730E-1	9.813817E-1	9.391919E-1	9.188765E-1	9.770892E-1	8.818691E-1	9.488080E-1	9.904313E-1	9.862927E-1	9.368326E-1	8.964615E-1	9.660265E-1	1.066350E+0	1.003427E+0	9.902884E-1	9.674809E-1	9.934230E-1	9.646970E-1	9.555476E-1	9.844648E-1	9.810893E-1	1.021469E+0	9.919693E-1	9.421437E-1	9.572360E-1	9.584969E-1	9.205968E-1	9.283636E-1	8.988335E-1	9.665327E-1	9.201495E-1	9.664868E-1	9.319429E-1	9.171039E-1	9.689411E-1	9.319812E-1	9.151394E-1	9.443821E-1	9.063497E-1	9.540036E-1	9.453141E-1	9.724936E-1	8.900218E-1	9.353239E-1	9.475888E-1	9.320393E-1	9.638339E-1	9.530420E-1	9.326848E-1	9.030226E-1	9.624318E-1	9.902255E-1	9.542837E-1	9.370983E-1	9.372056E-1	9.873660E-1	9.287189E-1	9.242643E-1	9.470608E-1	9.753778E-1	9.403390E-1	9.384677E-1	9.031765E-1	9.227793E-1	9.327683E-1	9.792129E-1	1.088576E+0	9.831423E-1	1.030316E+0
2.955080E+2	1.070268E+0	1.066867E+0	1.055866E+0	9.799310E-1	1.057653E+0	1.030774E+0	1.043364E+0	1.039172E+0	1.054237E+0	1.032383E+0	1.011572E+0	1.012579E+0	1.080016E+0	1.056915E+0	1.070641E+0	1.080686E+0	1.110233E+0	1.043042E+0	1.037164E+0	1.038616E+0	1.057514E+0	1.009263E+0	1.039041E+0	1.030598E+0	1.058503E+0	1.061134E+0	1.102364E+0	1.027637E+0	1.076114E+0	1.026600E+0	1.042383E+0	1.056523E+0	1.070644E+0	1.081912E+0	1.088211E+0	1.048396E+0	1.025644E+0	1.047223E+0	1.035006E+0	1.079253E+0	1.040033E+0	1.066411E+0	1.075005E+0	1.064379E+0	1.040884E+0	1.072846E+0	1.051005E+0	1.040280E+0	1.080498E+0	1.024488E+0	1.017378E+0	9.942278E-1	1.073160E+0	1.084536E+0	1.039112E+0	1.050298E+0	1.028045E+0	1.062020E+0	1.084944E+0	1.051864E+0	1.039693E+0	1.103679E+0	1.092795E+0	1.059582E+0	1.029512E+0	1.021840E+0	1.014810E+0	1.088311E+0	1.045294E+0	1.042324E+0	1.042126E+0	1.042099E+0	9.464784E-1	1.088806E+0	9.970984E-1	1.068987E+0	1.081660E+0	1.021005E+0	1.078895E+0	9.559992E-1	1.071374E+0	1.002977E+0	1.043015E+0	1.040554E+0	1.053950E+0	1.089943E+0	1.023848E+0	9.565455E-1	1.036231E+0	9.989724E-1	1.007422E+0	1.023984E+0	1.050099E+0	1.069645E+0	1.023874E+0	1.111224E+0	1.069939E+0	1.028498E+0	1.031736E+0	1.082136E+0	1.057839E+0	1.058573E+0	1.044628E+0	1.067147E+0	1.055375E+0	1.032903E+0	1.016127E+0	1.022652E+0	1.052570E+0	1.107560E+0	1.023868E+0	1.041008E+0	9.942750E-1	1.078033E+0	1.115989E+0	1.045832E+0	1.041770E+0	1.073229E+0	1.007503E+0	1.124957E+0	1.046317E+0	1.017285E+0	1.039934E+0	1.019192E+0	1.102935E+0	1.066595E+0	1.046793E+0	1.050551E+0	1.036376E+0	1.047694E+0	1.002654E+0	1.005971E+0	1.050990E+0	1.079585E+0	1.025853E+0	1.074724E+0	1.042231E+0	1.001108E+0	9.801652E-1	9.836443E-1	1.051217E+0	1.016631E+0	1.061535E+0	1.028070E+0	1.040509E+0	1.043418E+0	1.013790E+0	1.035959E+0	1.103542E+0	1.073964E+0	1.031057E+0	1.047897E+0	1.034112E+0	1.086031E+0	1.037037E+0	1.016266E+0	1.066854E+0	1.081189E+0	1.039046E+0	1.045345E+0	1.058428E+0	1.038127E+0	1.046854E+0	1.104389E+0	1.054092E+0	9.718976E-1	1.011029E+0	1.114194E+0	1.070948E+0	1.030323E+0	1.057309E+0
2.960030E+2	1.088168E+0	1.096229E+0	1.095877E+0	1.079936E+0	1.102112E+0	1.093321E+0	1.044694E+0	1.099186E+0	1.069414E+0	1.121177E+0	1.054986E+0	1.042826E+0	1.066838E+0	1.117106E+0	1.040294E+0	1.109761E+0	1.082339E+0	1.110846E+0	1.066985E+0	1.067551E+0	1.133319E+0	1.130068E+0	1.086263E+0	1.084935E+0	1.053375E+0	1.106955E+0	1.085700E+0	1.093952E+0	1.121584E+0	1.073348E+0	1.079450E+0	1.063381E+0	1.072437E+0	1.159174E+0	1.101922E+0	1.122356E+0	1.044986E+0	1.096946E+0	1.092264E+0	1.117229E+0	1.108760E+0	1.043550E+0	1.075693E+0	1.054484E+0	1.100277E+0	1.040520E+0	1.055354E+0	1.059572E+0	1.106022E+0	1.056728E+0	1.061126E+0	1.063688E+0	1.081114E+0	1.060064E+0	1.129739E+0	1.052002E+0	1.052527E+0	1.154590E+0	1.030211E+0	1.114491E+0	1.165876E+0	1.122842E+0	1.089829E+0	1.076108E+0	1.102116E+0	1.065673E+0	1.053286E+0	1.100514E+0	1.065478E+0	1.064038E+0	1.056297E+0	1.046417E+0	1.043765E+0	1.074519E+0	1.070744E+0	1.106662E+0	1.066983E+0	1.157743E+0	1.060091E+0	1.031033E+0	1.094240E+0	1.012941E+0	1.136361E+0	1.050110E+0	1.020775E+0	1.069393E+0	1.078089E+0	1.061148E+0	1.059485E+0	1.089951E+0	1.060067E+0	1.099703E+0	1.044988E+0	1.101469E+0	1.116245E+0	1.103487E+0	1.059967E+0	1.023765E+0	1.035639E+0	1.110857E+0	1.113149E+0	1.046644E+0	1.067759E+0	1.046662E+0	1.062065E+0	1.115885E+0	1.069653E+0	1.074445E+0	1.124916E+0	1.094134E+0	1.054265E+0	1.142900E+0	1.062580E+0	1.081269E+0	1.099977E+0	1.094312E+0	1.059326E+0	1.074561E+0	1.044907E+0	1.094232E+0	1.062646E+0	1.061036E+0	1.141716E+0	1.070261E+0	1.109683E+0	1.066484E+0	1.104861E+0	1.049668E+0	1.001204E+0	1.095465E+0	1.084179E+0	1.088579E+0	1.087563E+0	1.119053E+0	1.054656E+0	1.089605E+0	1.095671E+0	1.080203E+0	1.160851E+0	1.066325E+0	1.050240E+0	1.066438E+0	1.080460E+0	1.055843E+0	1.076786E+0	1.154334E+0	1.135824E+0	1.145744E+0	1.138030E+0	1.046674E+0	1.048942E+0	1.099742E+0	1.108748E+0	1.169990E+0	1.072718E+0	1.090394E+0	1.096258E+0	1.156568E+0	1.065748E+0	1.068666E+0	1.075768E+0	1.061894E+0	1.044590E+0	1.138372E+0	1.093262E+0	1.068895E+0	1.091001E+0	1.104454E+0	1.045356E+0	1.119964E+0	1.204667E+0
2.964980E+2	9.110255E-1	9.569779E-1	9.195651E-1	9.137648E-1	9.034776E-1	8.855471E-1	9.390511E-1	9.152845E-1	9.094871E-1	8.931388E-1	8.929705E-1	8.613248E-1	8.928187E-1	9.135632E-1	8.978223E-1	8.298505E-1	8.650904E-1	9.315876E-1	8.707299E-1	9.511502E-1	9.070135E-1	9.244467E-1	8.685365E-1	9.199987E-1	9.049401E-1	9.154229E-1	9.225346E-1	8.933939E-1	9.925759E-1	9.481980E-1	8.394550E-1	9.577537E-1	8.972003E-1	9.073740E-1	9.448705E-1	9.830245E-1	9.369148E-1	9.023690E-1	9.363860E-1	9.496377E-1	9.278768E-1	9.310593E-1	9.251393E-1	9.170113E-1	9.609700E-1	8.849739E-1	9.151109E-1	9.110514E-1	9.052928E-1	9.236600E-1	9.597432E-1	9.560531E-1	9.346073E-1	8.968900E-1	8.765169E-1	9.217930E-1	9.375599E-1	9.502328E-1	8.937520E-1	9.194162E-1	9.595360E-1	9.476455E-1	9.107305E-1	9.035238E-1	9.151758E-1	9.052903E-1	8.688659E-1	9.540336E-1	8.801126E-1	9.208530E-1	8.996942E-1	8.947122E-1	9.681176E-1	9.697277E-1	8.717408E-1	8.981224E-1	9.325857E-1	9.142114E-1	8.966585E-1	9.201720E-1	9.182763E-1	9.281015E-1	9.045717E-1	9.145007E-1	9.122415E-1	9.606148E-1	8.808789E-1	8.914333E-1	9.610711E-1	9.499570E-1	9.815306E-1	8.375913E-1	8.794352E-1	8.871043E-1	8.732841E-1	8.839555E-1	9.464329E-1	9.431443E-1	9.035938E-1	8.692325E-1	8.988775E-1	8.942741E-1	9.176375E-1	9.582860E-1	9.313775E-1	9.096769E-1	9.266864E-1	9.260304E-1	9.257282E-1	9.240581E-1	9.726279E-1	9.731208E-1	8.374110E-1	9.223333E-1	1.009635E+0	8.886846E-1	9.820175E-1	8.776767E-1	9.102799E-1	9.242895E-1	9.511779E-1	9.035918E-1	9.150755E-1	9.501429E-1	9.658170E-1	9.150260E-1	9.008571E-1	9.409551E-1	9.127703E-1	8.893200E-1	8.992986E-1	9.359904E-1	8.982193E-1	8.632016E-1	9.042712E-1	1.001932E+0	8.942601E-1	9.108241E-1	8.806540E-1	9.199602E-1	9.262347E-1	9.206063E-1	9.403987E-1	9.118242E-1	9.503027E-1	9.608521E-1	9.470628E-1	9.268385E-1	9.827319E-1	8.744481E-1	9.496983E-1	9.371214E-1	8.868625E-1	8.856734E-1	9.396674E-1	8.647065E-1	9.044548E-1	8.859491E-1	9.095271E-1	9.474786E-1	9.359488E-1	8.833140E-1	9.239429E-1	9.314554E-1	8.919220E-1	9.213327E-1	8.705337E-1	9.430860E-1	9.648048E-1	9.437339E-1	9.430572E-1
2.970040E+2	7.538834E-1	8.224643E-1	8.210227E-1	8.137914E-1	7.758633E-1	7.898190E-1	7.849033E-1	8.037916E-1	7.929913E-1	8.136661E-1	7.582798E-1	7.352399E-1	7.762602E-1	8.026676E-1	7.665471E-1	7.708876E-1	8.516103E-1	7.838519E-1	7.812636E-1	7.927642E-1	8.226298E-1	7.752408E-1	7.728029E-1	7.770463E-1	7.968687E-1	8.085589E-1	7.672510E-1	8.010092E-1	8.138278E-1	7.806207E-1	8.027780E-1	7.948611E-1	8.037031E-1	8.114868E-1	7.761809E-1	8.093563E-1	7.811770E-1	8.021760E-1	7.686295E-1	8.697977E-1	8.089152E-1	7.636165E-1	7.694343E-1	7.762192E-1	7.558002E-1	8.015530E-1	7.360444E-1	7.735123E-1	8.268984E-1	8.328457E-1	7.749640E-1	7.673998E-1	7.947002E-1	7.892223E-1	7.515668E-1	7.753021E-1	8.045455E-1	8.132073E-1	7.709450E-1	7.780861E-1	7.493817E-1	8.589160E-1	7.890614E-1	7.773632E-1	8.286425E-1	8.436445E-1	7.696377E-1	7.957623E-1	7.645491E-1	8.473990E-1	8.011942E-1	7.709832E-1	7.359712E-1	7.904101E-1	7.147560E-1	8.380659E-1	7.965318E-1	7.741214E-1	7.436789E-1	7.907092E-1	7.957018E-1	7.702753E-1	8.044661E-1	7.622700E-1	7.890097E-1	7.777704E-1	8.115911E-1	7.585548E-1	8.145840E-1	7.954599E-1	7.907246E-1	7.762249E-1	7.910368E-1	7.976227E-1	7.870953E-1	7.809549E-1	7.758742E-1	7.869233E-1	8.006833E-1	8.422974E-1	8.082248E-1	8.305521E-1	7.700410E-1	7.981995E-1	7.762174E-1	7.928685E-1	7.988228E-1	8.030466E-1	7.464890E-1	8.367335E-1	8.156406E-1	8.031844E-1	7.986902E-1	7.728469E-1	8.705463E-1	8.228875E-1	8.115302E-1	7.839253E-1	7.665108E-1	8.342222E-1	8.184472E-1	8.021121E-1	8.148322E-1	7.877100E-1	7.671932E-1	8.207992E-1	7.952317E-1	7.911688E-1	7.770320E-1	7.579977E-1	7.752870E-1	8.605577E-1	7.766878E-1	8.158905E-1	7.262885E-1	7.932171E-1	7.839901E-1	8.122814E-1	7.557753E-1	7.991890E-1	8.045875E-1	8.115016E-1	8.351143E-1	7.611346E-1	7.963061E-1	8.273093E-1	7.945466E-1	7.772163E-1	8.195390E-1	7.503585E-1	8.134268E-1	8.508900E-1	8.131173E-1	8.126380E-1	8.065892E-1	8.199729E-1	8.231514E-1	8.242484E-1	7.554628E-1	7.986137E-1	8.205686E-1	7.909584E-1	7.878729E-1	8.157930E-1	7.775234E-1	8.232528E-1	7.813025E-1	8.218597E-1	7.680640E-1	8.123719E-1	7.582437E-1
2.975040E+2	9.066139E-1	9.195330E-1	9.072056E-1	9.443469E-1	8.830163E-1	8.774722E-1	9.153862E-1	8.836335E-1	8.857181E-1	9.127674E-1	9.009679E-1	8.999329E-1	8.739222E-1	9.025701E-1	8.915547E-1	9.054429E-1	8.653163E-1	9.379446E-1	9.424792E-1	8.804866E-1	9.412270E-1	9.010655E-1	9.203047E-1	8.960622E-1	9.425858E-1	9.052622E-1	9.046725E-1	8.944033E-1	9.812425E-1	9.308923E-1	9.066785E-1	9.030160E-1	8.865079E-1	9.309271E-1	9.160923E-1	9.147865E-1	8.897794E-1	9.118700E-1	8.968425E-1	9.038771E-1	8.950081E-1	9.296584E-1	8.936185E-1	8.992043E-1	8.883480E-1	9.289305E-1	9.202532E-1	9.308446E-1	9.583658E-1	9.061315E-1	9.064507E-1	9.022570E-1	9.065286E-1	9.369171E-1	9.357947E-1	9.092160E-1	9.157393E-1	9.137636E-1	9.032994E-1	8.991275E-1	9.158118E-1	9.661386E-1	9.299891E-1	8.896924E-1	9.242288E-1	8.873367E-1	8.992133E-1	8.988020E-1	9.095884E-1	8.846718E-1	9.136293E-1	8.860215E-1	8.992755E-1	8.874172E-1	9.158241E-1	9.273068E-1	9.176669E-1	9.085652E-1	9.197942E-1	9.023297E-1	9.122674E-1	9.126497E-1	9.858080E-1	8.456570E-1	9.159406E-1	8.896155E-1	9.174443E-1	9.060041E-1	8.946547E-1	8.996465E-1	9.525792E-1	9.381256E-1	8.595781E-1	9.478352E-1	8.846851E-1	9.166677E-1	8.884483E-1	9.431261E-1	9.654057E-1	8.450905E-1	9.114080E-1	8.960785E-1	9.055953E-1	8.648132E-1	9.018957E-1	9.285173E-1	8.859782E-1	9.204959E-1	9.055320E-1	8.848815E-1	8.913951E-1	8.754405E-1	9.057349E-1	9.382273E-1	8.817139E-1	9.258333E-1	9.192601E-1	9.163069E-1	9.160160E-1	8.588529E-1	9.234766E-1	9.057020E-1	8.586747E-1	8.852732E-1	8.911430E-1	9.210088E-1	9.362520E-1	9.028335E-1	8.702647E-1	9.190479E-1	8.832674E-1	8.885502E-1	9.031391E-1	8.645057E-1	9.041340E-1	9.446573E-1	8.993251E-1	8.929978E-1	9.043826E-1	9.147946E-1	8.610165E-1	9.125392E-1	9.329494E-1	9.141273E-1	9.308779E-1	9.513670E-1	9.332300E-1	9.513032E-1	9.584248E-1	9.078120E-1	9.171255E-1	9.335551E-1	9.109563E-1	9.381106E-1	8.986603E-1	9.392077E-1	8.857651E-1	8.952392E-1	9.274891E-1	8.725408E-1	8.958148E-1	9.409584E-1	8.957453E-1	9.291005E-1	9.589051E-1	9.306089E-1	8.961179E-1	9.148436E-1	9.099116E-1	9.654316E-1	9.971654E-1
2.980040E+2	1.010215E+0	1.023702E+0	1.029483E+0	1.017237E+0	1.035966E+0	1.038433E+0	1.008104E+0	1.036612E+0	1.065378E+0	1.025714E+0	1.016903E+0	1.042601E+0	1.038171E+0	9.875665E-1	1.057852E+0	9.761510E-1	1.072661E+0	1.037552E+0	1.048054E+0	1.013509E+0	1.039084E+0	1.035376E+0	1.041029E+0	1.015591E+0	1.007709E+0	1.035481E+0	1.034837E+0	1.062352E+0	1.053910E+0	1.042014E+0	1.033957E+0	1.014563E+0	9.791054E-1	1.009495E+0	1.011796E+0	1.080741E+0	1.018114E+0	1.014846E+0	1.033392E+0	1.008223E+0	1.018502E+0	1.019963E+0	9.963669E-1	1.052024E+0	1.105720E+0	1.053651E+0	1.035118E+0	1.013076E+0	1.029447E+0	1.037900E+0	1.025761E+0	9.853898E-1	1.046045E+0	1.011905E+0	1.008630E+0	1.041790E+0	1.031085E+0	1.037918E+0	1.070332E+0	1.050350E+0	1.021286E+0	1.013240E+0	1.002971E+0	1.067563E+0	1.041061E+0	1.041041E+0	1.035646E+0	1.025352E+0	1.061235E+0	1.048245E+0	1.035888E+0	1.028260E+0	1.049040E+0	1.020319E+0	1.007680E+0	9.987914E-1	1.025654E+0	1.040360E+0	1.040008E+0	1.021243E+0	1.016125E+0	1.066903E+0	9.938304E-1	1.080311E+0	1.047398E+0	1.009762E+0	1.041368E+0	1.025724E+0	1.013554E+0	1.012419E+0	1.025628E+0	1.107768E+0	1.037461E+0	9.756431E-1	1.048783E+0	1.016371E+0	1.032726E+0	1.050014E+0	1.010036E+0	1.019023E+0	1.028668E+0	1.081801E+0	1.041900E+0	1.062895E+0	1.025939E+0	1.045168E+0	1.024201E+0	1.024731E+0	1.059086E+0	1.029614E+0	1.057064E+0	1.004731E+0	1.090043E+0	1.006444E+0	1.096696E+0	1.037215E+0	1.057507E+0	1.030827E+0	1.005844E+0	1.081749E+0	1.046319E+0	1.040317E+0	1.006321E+0	1.031281E+0	1.064138E+0	1.046943E+0	1.032148E+0	1.048044E+0	1.073075E+0	1.034009E+0	1.040959E+0	1.023166E+0	1.040747E+0	1.036903E+0	1.035106E+0	1.075248E+0	1.054111E+0	1.087754E+0	1.039661E+0	1.058229E+0	1.037917E+0	1.049509E+0	1.018191E+0	1.009601E+0	1.027060E+0	1.065351E+0	1.023352E+0	9.803681E-1	1.032869E+0	1.075825E+0	1.034181E+0	1.007897E+0	1.056016E+0	1.036375E+0	9.941921E-1	1.013799E+0	1.015992E+0	1.031861E+0	1.003753E+0	1.045802E+0	1.049686E+0	1.016498E+0	1.026139E+0	1.039132E+0	1.018993E+0	1.047782E+0	1.011484E+0	1.060420E+0	1.125960E+0	1.032032E+0	9.607434E-1
2.985020E+2	1.051951E+0	1.040236E+0	1.082234E+0	9.876145E-1	1.048479E+0	1.049467E+0	1.064681E+0	1.078235E+0	1.043254E+0	1.050973E+0	1.085482E+0	1.053317E+0	1.077849E+0	1.053209E+0	1.026836E+0	1.055680E+0	1.017828E+0	1.051377E+0	1.023715E+0	1.020827E+0	1.015986E+0	1.035915E+0	1.074427E+0	1.053706E+0	1.032178E+0	1.065193E+0	1.059993E+0	1.043004E+0	1.037969E+0	9.916241E-1	1.021459E+0	1.055812E+0	1.060137E+0	1.018582E+0	1.053615E+0	1.040691E+0	1.043274E+0	1.011381E+0	1.047601E+0	1.037511E+0	1.071515E+0	1.001955E+0	1.074852E+0	1.046458E+0	1.022356E+0	1.032361E+0	1.033593E+0	1.084846E+0	1.025521E+0	1.046216E+0	1.070971E+0	1.082651E+0	1.077152E+0	1.040896E+0	1.053592E+0	1.052411E+0	1.022715E+0	1.051549E+0	1.022032E+0	1.044548E+0	1.028800E+0	9.766379E-1	1.099473E+0	1.072192E+0	1.030698E+0	1.066865E+0	1.030011E+0	1.031776E+0	1.056586E+0	1.066663E+0	1.028784E+0	9.952628E-1	1.045875E+0	1.057244E+0	1.071191E+0	1.043527E+0	1.020824E+0	1.036644E+0	1.025376E+0	1.083378E+0	1.049736E+0	1.017699E+0	1.059662E+0	1.082069E+0	1.011991E+0	1.072634E+0	1.043742E+0	1.070264E+0	1.046672E+0	1.039217E+0	1.064976E+0	1.003443E+0	1.073420E+0	1.080115E+0	1.027614E+0	1.024680E+0	1.063745E+0	1.018228E+0	1.012963E+0	1.094735E+0	1.044162E+0	1.070853E+0	1.028379E+0	1.065074E+0	1.068254E+0	1.041490E+0	1.066236E+0	1.113475E+0	1.043995E+0	1.048529E+0	1.045964E+0	1.076499E+0	1.073569E+0	1.044681E+0	9.766503E-1	1.054047E+0	1.015371E+0	1.075402E+0	1.009640E+0	1.078813E+0	1.095150E+0	1.067086E+0	1.098089E+0	1.073377E+0	1.087909E+0	1.008416E+0	1.034168E+0	1.048069E+0	1.035201E+0	1.033160E+0	1.044589E+0	1.079929E+0	1.054107E+0	1.121511E+0	1.040527E+0	1.004491E+0	1.051455E+0	1.078435E+0	1.080373E+0	1.048495E+0	1.113022E+0	1.071248E+0	1.022414E+0	1.047758E+0	1.027821E+0	1.001016E+0	1.042391E+0	1.032393E+0	1.000874E+0	1.047089E+0	1.006004E+0	1.075491E+0	1.041956E+0	1.029518E+0	1.035836E+0	1.074016E+0	1.076542E+0	1.033053E+0	1.117229E+0	1.093586E+0	1.102733E+0	1.044394E+0	1.038259E+0	9.917954E-1	1.061666E+0	1.067694E+0	1.059449E+0	1.040155E+0	1.016009E+0	1.077965E+0	1.124738E+0
2.990010E+2	1.012914E+0	1.054385E+0	9.776881E-1	9.713221E-1	9.836927E-1	9.940503E-1	9.461182E-1	1.015457E+0	9.682574E-1	9.741435E-1	9.603231E-1	9.535729E-1	9.795909E-1	9.936283E-1	9.935449E-1	9.950418E-1	9.804827E-1	9.687569E-1	9.978371E-1	1.000195E+0	9.382515E-1	9.679073E-1	9.827957E-1	9.912164E-1	9.616321E-1	9.640855E-1	9.414836E-1	9.833651E-1	9.271738E-1	1.020213E+0	9.980613E-1	9.836479E-1	1.020182E+0	9.957139E-1	9.804266E-1	9.889314E-1	9.600094E-1	9.896318E-1	9.625499E-1	1.013405E+0	9.761429E-1	1.015450E+0	1.055739E+0	9.614007E-1	9.966932E-1	9.483255E-1	9.972854E-1	9.801767E-1	9.778937E-1	9.990611E-1	9.741832E-1	9.305623E-1	9.685382E-1	9.893500E-1	9.650972E-1	1.023772E+0	9.995639E-1	9.966728E-1	1.039994E+0	9.490284E-1	9.576766E-1	1.019655E+0	9.689702E-1	9.833752E-1	9.536695E-1	1.030266E+0	9.583041E-1	1.010302E+0	9.734706E-1	9.625033E-1	9.739997E-1	9.940773E-1	9.618166E-1	1.004205E+0	1.039520E+0	9.829343E-1	9.931852E-1	9.794454E-1	1.063281E+0	9.872297E-1	9.634708E-1	9.774153E-1	9.581177E-1	9.627436E-1	9.987018E-1	9.821520E-1	9.630498E-1	9.954650E-1	1.000211E+0	1.005756E+0	9.819678E-1	9.688916E-1	1.007379E+0	9.684982E-1	1.028089E+0	9.911201E-1	9.807084E-1	9.838694E-1	1.005428E+0	9.521340E-1	1.012971E+0	9.616733E-1	1.013904E+0	9.564421E-1	9.854963E-1	1.020106E+0	1.017497E+0	9.600915E-1	9.811676E-1	1.031916E+0	1.007639E+0	9.748772E-1	9.145312E-1	9.728102E-1	9.825094E-1	9.538640E-1	1.026114E+0	9.431953E-1	9.739721E-1	9.811616E-1	9.626253E-1	9.682091E-1	9.774584E-1	9.897628E-1	9.423764E-1	9.916280E-1	9.881234E-1	9.668991E-1	1.020028E+0	9.807398E-1	1.009561E+0	9.969500E-1	9.626859E-1	9.639365E-1	9.833257E-1	9.679272E-1	1.000049E+0	9.466664E-1	1.001345E+0	9.516049E-1	1.018531E+0	9.937617E-1	1.006373E+0	9.945480E-1	9.738935E-1	1.008096E+0	9.745010E-1	9.875776E-1	9.650618E-1	1.016142E+0	1.015073E+0	9.785189E-1	1.006728E+0	9.969787E-1	9.854921E-1	1.014129E+0	9.802034E-1	9.859061E-1	1.008905E+0	9.484699E-1	9.892362E-1	1.036537E+0	9.911481E-1	1.019942E+0	9.621556E-1	9.953377E-1	9.729159E-1	9.763772E-1	9.766004E-1	9.880619E-1	9.474284E-1
2.995040E+2	1.023616E+0	9.942302E-1	1.023981E+0	1.041841E+0	1.033960E+0	9.909946E-1	1.011312E+0	1.018414E+0	1.010913E+0	1.028059E+0	9.934860E-1	1.018199E+0	1.017266E+0	1.050009E+0	9.815470E-1	1.019356E+0	1.037404E+0	9.762333E-1	1.002857E+0	1.041729E+0	1.038066E+0	1.008518E+0	9.941490E-1	1.018632E+0	1.002742E+0	1.001095E+0	1.005479E+0	9.615684E-1	9.969369E-1	9.975626E-1	1.015330E+0	9.917641E-1	1.013534E+0	1.041246E+0	1.001670E+0	1.012079E+0	1.051913E+0	1.032135E+0	1.044231E+0	1.014582E+0	1.036169E+0	9.913791E-1	9.942157E-1	1.017555E+0	1.006464E+0	1.034699E+0	1.004554E+0	1.008918E+0	1.003497E+0	1.002444E+0	1.018704E+0	1.036384E+0	9.809808E-1	9.769104E-1	1.008541E+0	9.796537E-1	1.011606E+0	1.019689E+0	9.616130E-1	1.050572E+0	1.042112E+0	1.015290E+0	9.710815E-1	1.011394E+0	1.011276E+0	9.100620E-1	1.043354E+0	1.019244E+0	9.913973E-1	1.012240E+0	1.049761E+0	1.035404E+0	1.044976E+0	1.008174E+0	1.002444E+0	1.032911E+0	1.047249E+0	1.023748E+0	1.011978E+0	1.023585E+0	1.038003E+0	1.006537E+0	1.028152E+0	1.073356E+0	1.016276E+0	1.015005E+0	1.043314E+0	9.845105E-1	1.072993E+0	1.034718E+0	1.007273E+0	9.933113E-1	1.039774E+0	1.019982E+0	9.804636E-1	1.024951E+0	1.004900E+0	9.949248E-1	9.966312E-1	1.036937E+0	9.988664E-1	1.000156E+0	1.000509E+0	1.033345E+0	1.006211E+0	1.003354E+0	1.024123E+0	1.010617E+0	1.015117E+0	1.004839E+0	1.035612E+0	1.026757E+0	1.006949E+0	1.008490E+0	1.027288E+0	1.010880E+0	9.860623E-1	9.996656E-1	1.042331E+0	9.900152E-1	9.815482E-1	9.725605E-1	1.021849E+0	1.034730E+0	9.887435E-1	1.019566E+0	1.024634E+0	9.900177E-1	1.000205E+0	1.008835E+0	1.052801E+0	1.006709E+0	9.832656E-1	9.810534E-1	1.010736E+0	1.008632E+0	9.988963E-1	1.011537E+0	9.887560E-1	1.025697E+0	9.578269E-1	9.805016E-1	9.778962E-1	1.011274E+0	1.021785E+0	9.734704E-1	1.004947E+0	1.021093E+0	1.019996E+0	9.985342E-1	1.023236E+0	1.000021E+0	1.021821E+0	1.000914E+0	1.017774E+0	9.814141E-1	1.009455E+0	9.968683E-1	9.702824E-1	1.023636E+0	9.421816E-1	9.481439E-1	1.046934E+0	1.022700E+0	9.674276E-1	9.635246E-1	1.014121E+0	9.996968E-1	9.301622E-1	1.010158E+0	8.811479E-1
3.000060E+2	9.946908E-1	9.679136E-1	9.794083E-1	1.037639E+0	1.014886E+0	1.049582E+0	1.054399E+0	9.676484E-1	1.026479E+0	1.008344E+0	1.042839E+0	1.032377E+0	1.013201E+0	1.013018E+0	1.048665E+0	1.048329E+0	1.026308E+0	1.028136E+0	9.850581E-1	1.043253E+0	1.027385E+0	1.051218E+0	9.872946E-1	1.024791E+0	1.053153E+0	1.028883E+0	1.053535E+0	1.055307E+0	1.002767E+0	1.017694E+0	1.024514E+0	1.051197E+0	1.040534E+0	1.004036E+0	1.036400E+0	9.627714E-1	1.036910E+0	1.040136E+0	1.015383E+0	1.022402E+0	1.002663E+0	1.041594E+0	9.852086E-1	1.023358E+0	9.804187E-1	1.002033E+0	1.009197E+0	9.821388E-1	1.005276E+0	1.008247E+0	1.003931E+0	1.062756E+0	1.020755E+0	1.044021E+0	1.028344E+0	9.931566E-1	1.019291E+0	9.804071E-1	1.002730E+0	1.006375E+0	1.034314E+0	1.009038E+0	1.027515E+0	9.757830E-1	1.039068E+0	1.064429E+0	1.033472E+0	1.014524E+0	1.007723E+0	1.025676E+0	9.979383E-1	1.060975E+0	9.990162E-1	1.022641E+0	9.633406E-1	1.014530E+0	9.954213E-1	1.011237E+0	9.395633E-1	9.822343E-1	1.020398E+0	1.018795E+0	9.744302E-1	9.558624E-1	1.009694E+0	1.030831E+0	9.910817E-1	1.018032E+0	9.719162E-1	1.008244E+0	9.675760E-1	9.884605E-1	9.823873E-1	1.007926E+0	1.030366E+0	1.026210E+0	1.029472E+0	1.009838E+0	1.009537E+0	1.052081E+0	1.003925E+0	9.894390E-1	1.009712E+0	1.017430E+0	1.012204E+0	9.613651E-1	9.819642E-1	9.705894E-1	9.951029E-1	1.000221E+0	9.623250E-1	1.041696E+0	1.009173E+0	1.029348E+0	1.035142E+0	1.018160E+0	9.956859E-1	1.034603E+0	1.052197E+0	1.009409E+0	9.908815E-1	1.046125E+0	1.037608E+0	9.855759E-1	1.025690E+0	1.012438E+0	9.846735E-1	1.044136E+0	1.001225E+0	1.024209E+0	9.688236E-1	1.004696E+0	1.056055E+0	1.032090E+0	1.026171E+0	9.990452E-1	9.961638E-1	9.826096E-1	9.854825E-1	1.001180E+0	1.011686E+0	9.924403E-1	1.042177E+0	1.022692E+0	1.018562E+0	1.000699E+0	1.021578E+0	1.027265E+0	1.022775E+0	9.545968E-1	1.004381E+0	1.004518E+0	9.625224E-1	9.981042E-1	1.068046E+0	9.774334E-1	1.032043E+0	1.057072E+0	9.723417E-1	1.015965E+0	1.020348E+0	1.013469E+0	1.001775E+0	9.973296E-1	1.030853E+0	9.950526E-1	1.045912E+0	1.008507E+0	1.041357E+0	9.263520E-1	1.088776E+0
