Photon Energy (eV)	#1	#2	#3	#4	#5	#6	#7	#8	#9	#10	#11	#12	#13	#14	#15	#16	#17	#18	#19	#20	#21	#22	#23	#24	#25	#26	#27	#28	#29	#30	#31	#32	#33	#34	#35	#36	#37	#38	#39	#40	#41	#42	#43	#44	#45	#46	#47	#48	#49	#50	#51	#52	#53	#54	#55	#56	#57	#58	#59	#60	#61	#62	#63	#64	#65	#66	#67	#68	#69	#70	#71	#72	#73	#74	#75	#76	#77	#78	#79	#80	#81	#82	#83	#84	#85	#86	#87	#88	#89	#90	#91	#92	#93	#94	#95	#96	#97	#98	#99	#100	#101	#102	#103	#104	#105	#106	#107	#108	#109	#110	#111	#112	#113	#114	#115	#116	#117	#118	#119	#120	#121	#122	#123	#124	#125	#126	#127	#128	#129	#130	#131	#132	#133	#134	#135	#136	#137	#138	#139	#140	#141	#142	#143	#144	#145	#146	#147	#148	#149	#150	#151	#152	#153	#154	#155	#156	#157	#158	#159	#160	#161	#162	#163	#164	#165	#166	#167	#168	#169	#170	#171	#172	
2.790040E+2	5.791113E-4	2.107009E-3	-3.188965E-3	8.802977E-4	-2.355557E-3	-2.200197E-3	-1.298360E-3	-1.427049E-3	-1.122877E-3	6.749061E-4	-3.467415E-3	1.270713E-3	2.674684E-3	-3.592015E-3	-6.109998E-3	-6.876825E-4	-2.545138E-3	2.584584E-3	-6.917473E-3	-5.595503E-3	-3.470765E-3	6.463559E-4	1.875953E-3	6.786458E-4	-1.089049E-3	4.639533E-3	-4.658505E-3	-1.858319E-3	-7.213995E-3	-2.757622E-3	-4.987474E-3	-1.248422E-3	-6.487476E-3	-6.540121E-3	-3.841601E-4	1.791788E-3	2.241084E-4	-2.191822E-3	3.040260E-3	1.131253E-3	-8.711589E-5	-1.208005E-3	-3.947748E-3	-4.225061E-4	-4.617737E-3	-4.595792E-3	-3.234785E-3	-5.883875E-3	3.633133E-3	-1.562595E-3	5.716550E-3	-8.304515E-3	5.171964E-3	-3.639902E-3	1.475757E-3	-5.684206E-3	-5.801998E-3	-7.867726E-3	-5.120429E-3	-6.599192E-3	-3.623947E-3	-4.840050E-3	-5.807151E-4	-6.666877E-3	-2.843943E-3	2.543869E-3	-4.954008E-3	-9.627834E-3	-5.376343E-3	1.327752E-3	4.765216E-3	-1.384011E-2	-5.450781E-3	3.269734E-3	-9.897444E-5	-5.517831E-3	-1.861698E-3	5.256992E-3	-5.840844E-3	-7.260579E-3	5.074844E-3	-2.823345E-3	-2.278830E-3	-9.227100E-3	-2.761122E-3	-3.254926E-3	-1.831394E-3	1.321332E-3	-2.791801E-3	4.617987E-3	-6.546021E-3	-2.774014E-3	-7.310514E-3	3.236987E-3	-9.337169E-4	-2.668845E-4	1.904780E-3	-4.716371E-3	1.685412E-3	4.717933E-3	-6.222019E-3	-8.595975E-3	-3.776433E-3	-1.582066E-3	-7.443152E-3	-2.597716E-3	-3.405692E-3	-3.843317E-3	-6.351021E-3	4.655466E-3	-6.156227E-3	-1.251822E-3	-9.612324E-4	-2.303946E-3	-1.532537E-3	1.251896E-3	-2.330309E-3	2.525673E-3	-5.484838E-3	-2.880256E-3	-4.044772E-3	1.130391E-3	-1.887734E-3	-8.653766E-3	-2.777410E-3	-5.196983E-3	-6.627001E-3	-2.005169E-3	2.045798E-4	2.968767E-3	-8.334419E-3	-7.109924E-3	-5.438064E-3	-6.894956E-3	-4.969842E-3	-4.346100E-3	-4.130685E-3	-1.159601E-2	-7.064598E-3	-4.956588E-3	-6.817958E-3	-4.178847E-3	5.191600E-4	-1.268049E-3	-7.472528E-3	-7.781856E-3	-2.620092E-3	-6.481836E-3	-3.285499E-3	-5.481032E-3	-6.176575E-3	-5.209832E-3	4.547336E-3	-1.521128E-3	2.707415E-4	-6.545812E-4	-2.843417E-3	5.920758E-3	-5.484450E-3	4.143623E-3	-6.365941E-3	-5.384600E-3	-4.726362E-3	-2.210443E-3	-5.327422E-3	-3.788256E-3	-4.859704E-3	-5.166379E-3	-6.969855E-3	-5.293196E-3	-1.285511E-2	5.780391E-3
2.795020E+2	-1.737336E-3	-7.023185E-4	1.748827E-3	2.640830E-3	-1.657616E-3	-2.200185E-3	-6.092459E-3	2.085700E-3	-1.813856E-3	6.749061E-4	-7.628308E-3	-6.549159E-3	-5.349373E-3	3.265470E-4	-3.215717E-4	-6.877034E-4	3.272310E-3	-1.550748E-3	-4.733013E-3	-5.595527E-3	-4.101819E-3	-1.292664E-3	-6.992205E-3	-7.852663E-3	-4.719252E-3	7.494655E-3	-1.948116E-3	-8.465818E-3	3.091727E-3	2.852745E-4	-4.354132E-3	-4.102008E-3	-2.780363E-3	-1.656818E-3	-7.298356E-3	-2.424200E-3	-2.764152E-3	9.393411E-4	-3.593027E-3	-7.918261E-3	-2.874459E-3	-7.155050E-3	1.444279E-3	-2.112389E-3	-2.308885E-3	-1.025216E-2	8.512839E-4	-8.612613E-3	-4.780421E-3	-5.035043E-3	-3.745329E-3	-8.304091E-4	3.137086E-3	-3.639890E-3	-3.246627E-3	-1.059786E-3	-2.854943E-3	-4.680840E-3	-2.086079E-3	7.107354E-4	-5.038149E-3	2.420035E-3	-2.571699E-3	-3.203553E-3	3.223149E-3	1.956773E-4	-3.538553E-3	-5.530924E-3	-6.048372E-3	-3.983195E-3	-3.866082E-3	2.065853E-4	-9.209967E-3	-1.214462E-3	-7.224618E-3	1.053404E-2	6.205920E-4	-7.359810E-3	2.920378E-3	3.111669E-3	-1.053269E-3	-7.700122E-4	-2.278772E-3	-1.289833E-3	-8.973774E-3	-2.619818E-3	-5.901082E-3	-5.474099E-3	-7.577780E-3	-8.744640E-3	-2.695434E-3	-7.041749E-3	-2.693353E-3	-3.956352E-3	-4.328985E-3	-4.537484E-3	-6.917265E-3	1.572168E-3	-5.452908E-3	-3.487154E-3	-9.824384E-4	-3.094574E-3	-1.510618E-3	-3.164098E-3	-6.616134E-3	3.339926E-3	-9.816359E-3	-3.843302E-3	-3.125120E-3	-5.000290E-3	4.617134E-3	-5.257734E-3	-8.651086E-3	6.451147E-4	-3.283979E-3	-7.928779E-3	-3.711259E-3	-1.515392E-3	3.104296E-4	1.234416E-3	-6.471598E-3	-4.144702E-3	-4.153023E-3	-1.643128E-3	1.983872E-3	-3.855826E-3	8.496309E-4	-7.584791E-3	-1.432179E-3	-4.947966E-3	-1.190630E-3	-3.949992E-3	-6.756387E-3	3.447470E-3	-6.560224E-3	-9.877502E-3	1.877566E-3	-3.366613E-3	-4.607330E-3	1.792810E-3	6.620289E-3	-3.496606E-3	-2.249785E-3	-1.268032E-3	-3.076887E-3	1.995303E-4	-9.357451E-3	-3.845168E-3	-4.439699E-4	-9.261003E-3	-3.996568E-3	-9.551371E-3	-1.281522E-2	-4.563321E-3	-4.782668E-3	-6.764115E-3	-2.843427E-3	-4.281165E-3	-8.309641E-4	-3.766706E-4	-7.187321E-3	-3.818144E-3	8.425218E-3	-2.210417E-3	-1.331871E-3	-8.315524E-4	-3.304608E-3	-4.339724E-3	1.535728E-3	-4.047748E-3	9.998408E-3	2.223196E-3
2.800050E+2	-1.930379E-4	-4.916289E-3	2.571721E-3	-2.640847E-3	-7.939051E-3	-2.200181E-3	-4.494444E-3	3.293338E-4	-1.122835E-3	-1.349823E-3	4.160888E-3	3.616658E-3	4.680721E-3	3.592046E-3	-1.607876E-3	2.063018E-3	2.545123E-3	-6.375284E-3	-2.548539E-3	2.398077E-3	-4.101776E-3	6.463756E-4	1.193775E-3	-3.199220E-3	-3.630454E-4	-2.498232E-3	2.795105E-3	-2.064699E-4	5.152852E-3	-1.236160E-3	-3.720797E-3	7.312266E-3	-5.746069E-3	-3.052054E-3	-1.920601E-3	-6.640194E-3	2.614752E-3	-2.191848E-3	1.566198E-3	-2.159492E-3	-8.710313E-5	-1.951382E-3	-1.636849E-3	-2.112384E-3	-3.078485E-3	3.181704E-3	-6.639809E-3	2.302382E-3	5.162840E-3	-4.340539E-3	1.971197E-4	2.491352E-3	-8.393865E-3	8.897837E-4	-3.246665E-3	4.816993E-4	-6.538757E-3	3.286566E-3	2.465378E-3	5.583925E-3	1.325845E-3	1.613325E-3	7.466250E-4	-6.666873E-3	1.080703E-2	8.805713E-3	2.123123E-3	9.218164E-3	-9.408611E-3	-2.655459E-3	-2.427543E-3	-7.229910E-3	2.067545E-3	-1.214480E-3	-6.432894E-3	1.003400E-4	-1.861688E-3	-2.453277E-3	2.190292E-3	4.494632E-3	5.074844E-3	-2.138874E-3	-3.071398E-3	-1.289775E-3	2.761150E-3	-7.144797E-4	-1.078481E-2	-9.438196E-4	1.994120E-3	-2.456364E-3	-4.235660E-3	-8.748841E-3	-1.923828E-3	6.833705E-3	1.103444E-3	-6.672795E-3	-7.719292E-3	-2.358186E-3	8.922857E-4	-1.025672E-3	-3.274698E-4	3.438412E-4	-3.021170E-3	-1.990442E-8	-8.269732E-4	3.710978E-4	4.607652E-3	-1.274356E-2	-5.544515E-3	2.586336E-3	-7.695535E-4	5.424645E-3	1.100074E-2	1.382385E-3	1.094624E-3	2.921109E-3	-9.493961E-4	1.178632E-3	-8.796441E-3	4.114501E-4	-2.426862E-3	-2.637538E-3	-1.132643E-3	9.858437E-4	-2.777410E-3	8.382275E-4	9.685631E-3	-2.702623E-3	1.841348E-3	-2.788857E-3	-3.968569E-4	-2.369951E-3	1.812721E-3	-3.447469E-3	2.186727E-3	3.555897E-3	1.877598E-3	-1.870335E-3	1.126259E-3	1.107324E-2	-1.284563E-3	-4.861122E-3	1.211425E-3	-1.992650E-3	-2.197800E-3	1.795797E-3	-1.871511E-3	1.285387E-2	5.949414E-3	8.883047E-3	-2.543286E-3	-6.946446E-3	4.547336E-3	-3.802775E-3	-1.895036E-3	-6.545652E-4	2.941326E-4	-6.376202E-4	1.163360E-3	-8.663993E-3	-1.437476E-3	9.794081E-5	-1.438475E-3	-3.052542E-3	5.327415E-3	-3.788243E-3	-7.969952E-3	-1.033284E-3	-6.024813E-3	1.089773E-2	1.190292E-2	5.780348E-3
2.805030E+2	-9.651870E-4	4.916298E-3	-7.201240E-4	2.640868E-3	1.134154E-3	5.622691E-3	4.294669E-3	-2.305267E-3	-4.318933E-4	-8.773900E-3	4.160905E-3	-2.639189E-3	-4.012040E-3	-9.796430E-4	6.109989E-3	1.375362E-3	-1.090795E-3	-1.550752E-3	3.276711E-3	8.792969E-3	2.208662E-3	-7.109781E-3	1.193791E-3	2.229753E-3	3.630465E-4	-1.070684E-3	4.150294E-3	8.052858E-3	-7.901067E-3	4.088900E-3	3.245803E-3	-1.961823E-3	1.668208E-3	6.016903E-3	-1.920601E-3	-2.424231E-3	8.217830E-4	1.565625E-3	-4.330063E-3	3.599191E-3	-4.965027E-3	-1.951355E-3	6.066068E-3	4.647276E-3	-7.696476E-4	-1.767594E-3	7.661319E-3	3.666763E-3	-6.310161E-3	1.215332E-3	1.123594E-2	9.965366E-3	-2.543769E-4	8.897758E-4	-4.033729E-3	-2.890083E-4	5.986196E-3	8.863627E-3	-5.689392E-4	7.106660E-4	3.447133E-3	7.260058E-3	-2.571691E-3	5.801067E-3	-5.687803E-4	9.784365E-4	4.954007E-3	2.048825E-4	2.016099E-3	-2.655467E-3	4.045897E-3	-2.272240E-3	-1.879474E-4	-4.670801E-4	6.927583E-4	-1.504890E-3	-5.171355E-3	-4.556075E-3	1.460216E-3	3.803180E-3	-2.872096E-4	-1.454412E-3	9.908314E-5	4.266274E-3	-6.903034E-4	6.271662E-3	-1.831355E-3	-4.719034E-3	3.988468E-4	-8.842844E-4	-3.465547E-3	-3.627517E-3	4.232410E-3	-3.956344E-3	-2.970870E-3	-1.690463E-3	4.310778E-3	2.358155E-3	7.237552E-3	2.256436E-3	2.947261E-3	5.845263E-3	-7.553100E-4	1.582012E-3	8.270136E-4	-3.710888E-4	1.402323E-3	9.102562E-3	-6.351012E-3	1.896694E-3	-5.386669E-3	-5.257754E-3	-1.067920E-4	-8.294268E-4	2.846115E-3	-1.251898E-3	6.645743E-3	1.178669E-3	-3.001153E-3	5.349072E-3	9.252394E-9	-1.130323E-3	4.153025E-3	2.738565E-3	-5.158061E-3	-5.867552E-3	-2.548860E-3	4.969345E-3	4.296551E-3	8.096670E-4	5.159410E-3	-3.159976E-3	-2.142287E-3	-4.136947E-3	-2.584326E-3	1.185254E-3	1.126530E-3	4.114705E-3	-7.883650E-3	-7.487604E-3	-4.940343E-4	5.969794E-4	1.211433E-3	9.057401E-4	-3.076951E-3	-4.589284E-3	3.742904E-4	2.307101E-3	2.663507E-4	-1.889986E-4	-4.723267E-3	8.683006E-4	-4.133972E-4	3.802768E-3	-1.173099E-3	-6.545652E-4	4.216109E-3	8.197790E-4	1.163364E-3	-8.663993E-3	2.669621E-3	-3.034961E-3	-6.164777E-4	-5.262959E-4	-1.331859E-3	-8.315794E-4	2.138303E-3	5.579650E-3	1.193152E-2	-4.047740E-3	6.189498E-3	5.780348E-3
2.810070E+2	-1.930379E-4	2.106988E-3	-7.200989E-4	-4.401396E-3	-9.596672E-4	3.015074E-3	4.294698E-3	3.293284E-4	-2.504815E-3	-1.349819E-3	-6.935058E-4	-6.549154E-3	-4.012040E-3	2.938899E-3	2.251021E-3	1.375370E-3	3.636285E-4	-7.064510E-3	1.820386E-3	7.993610E-3	-9.465783E-4	5.170712E-3	5.116511E-4	-7.077086E-3	-8.349477E-3	-2.498228E-3	-1.948087E-3	-1.507330E-2	-4.465793E-3	-1.996889E-3	5.145781E-3	8.917195E-4	-1.297507E-3	-2.354442E-3	1.152351E-3	-3.267367E-3	-6.350079E-3	-2.191845E-3	-6.449127E-4	1.953864E-3	-1.480804E-3	1.765527E-3	-9.339795E-3	-9.716941E-3	3.078503E-3	7.423992E-3	3.575254E-3	1.620218E-3	-3.250677E-3	5.208622E-4	-3.745315E-3	-7.474027E-3	-4.324096E-3	-6.875367E-3	1.475719E-3	2.793958E-3	7.459710E-3	1.693098E-3	-2.086084E-3	-4.162588E-3	-7.954863E-4	-2.420002E-3	2.737617E-3	-3.203549E-3	-6.635891E-3	-8.414330E-3	-7.784849E-3	-3.892088E-3	-2.016169E-3	2.655496E-3	-9.890001E-4	2.685400E-3	2.819344E-3	-2.709198E-3	-9.896478E-5	4.915864E-3	3.102842E-3	-1.051424E-3	2.190306E-3	3.457218E-4	-4.883335E-3	1.283304E-3	9.907347E-5	-1.289800E-3	1.380582E-3	-4.525122E-3	6.105252E-4	-1.887354E-4	1.475676E-2	2.259842E-3	4.235646E-3	4.054346E-3	1.923832E-3	-3.596299E-4	-6.366192E-3	-1.690463E-3	-3.709293E-3	1.572135E-3	8.922906E-4	5.538448E-3	-2.292328E-3	-4.469933E-3	3.021139E-3	-4.746203E-3	-7.443152E-3	3.710797E-4	6.010092E-4	2.629637E-3	-7.963994E-3	-8.621114E-4	-3.078104E-3	2.754021E-3	-9.612115E-4	-3.778469E-3	-3.283953E-3	2.086548E-3	-4.401730E-3	5.051321E-4	4.450001E-3	-1.110955E-2	1.617925E-3	4.144659E-3	-3.397946E-3	-7.777419E-3	1.983867E-3	1.676263E-4	-3.908240E-3	-2.005182E-3	1.022974E-3	4.408182E-3	-4.365670E-3	4.739963E-3	2.471854E-3	3.447475E-3	-4.174649E-3	5.136339E-3	-2.628615E-3	4.862823E-3	-7.883700E-3	1.792794E-3	-2.865506E-3	4.690565E-3	1.211421E-3	1.811348E-4	7.472536E-3	6.584640E-3	1.122894E-3	-7.360794E-3	-2.575075E-3	-1.077302E-2	3.269917E-3	1.215631E-2	-2.066963E-3	-2.281655E-3	5.324111E-3	-4.145814E-3	-4.412199E-3	-2.823743E-3	-5.484470E-3	-3.766982E-4	1.026742E-3	2.447522E-3	-7.192268E-3	-7.262899E-3	5.993349E-3	6.467635E-4	-1.749493E-3	3.926410E-3	-5.079753E-3	3.424997E-3	-5.237256E-3	-1.200535E-2
2.815030E+2	-1.930379E-4	-2.809319E-3	1.028949E-4	2.013645E-9	2.530040E-3	3.015066E-3	5.093725E-3	-4.061654E-3	9.500868E-4	-6.748927E-4	2.773921E-3	3.616705E-3	1.337371E-3	-1.077610E-2	1.607848E-3	1.375337E-3	-6.181042E-3	8.098337E-3	2.548522E-3	-9.592329E-3	-9.465783E-4	-4.928364E-9	-1.705601E-4	7.658773E-3	1.815106E-3	-2.498206E-3	2.795101E-3	-2.064749E-4	3.778770E-3	-5.039795E-3	5.779143E-3	2.318513E-3	1.278964E-2	3.226447E-3	-4.225338E-3	7.694182E-3	-2.166510E-3	3.444319E-3	-6.448902E-4	5.244528E-3	2.003444E-3	1.068607E-2	6.836339E-3	4.647235E-3	-3.848118E-3	3.535107E-4	2.213246E-3	-1.108549E-3	2.868263E-3	-2.951573E-3	9.856201E-4	5.813173E-3	4.239380E-4	6.713568E-3	-1.672523E-3	2.793949E-3	-2.118210E-3	2.489781E-3	-2.086112E-3	-2.538152E-3	1.325841E-3	2.419996E-3	-5.807030E-4	1.645038E-3	-1.327182E-3	-5.870676E-4	-7.077387E-4	1.024203E-3	1.209678E-2	1.991610E-3	4.495212E-4	-2.272280E-3	4.323074E-3	1.774979E-3	-9.897927E-5	-6.320414E-3	-2.689096E-3	3.504926E-4	2.190359E-3	-4.494636E-3	-2.585331E-3	-2.823311E-3	4.854827E-3	7.441224E-3	6.902897E-4	5.557280E-4	7.121978E-3	2.831408E-3	-5.184781E-3	6.190000E-3	3.465542E-3	3.200802E-3	2.693361E-3	2.517690E-3	3.819721E-3	6.138978E-3	-2.105263E-3	-7.860788E-4	4.064897E-3	-5.128241E-3	9.824274E-4	7.908290E-3	-5.286985E-3	7.910178E-4	7.443122E-3	6.308767E-3	6.210362E-3	2.022667E-4	8.165590E-3	-4.310580E-3	-3.847638E-3	-5.841695E-4	-4.378936E-3	-8.293998E-4	6.349016E-3	2.921119E-3	-9.494003E-4	3.872672E-3	6.933671E-3	2.057311E-3	-8.089559E-4	-1.883983E-3	-3.775578E-4	-1.643112E-3	-1.190318E-3	3.520522E-3	-3.228548E-3	-1.307694E-3	-6.342494E-3	-6.297347E-4	1.190602E-3	-7.899680E-4	-1.483137E-3	-7.886117E-9	7.752934E-3	-2.765667E-3	-1.877566E-3	4.114759E-3	1.177431E-2	2.636487E-3	-2.865506E-3	4.008274E-3	1.903673E-3	5.253346E-3	1.714286E-2	3.392083E-3	4.865857E-3	-6.481853E-3	-3.995854E-3	3.591005E-3	-1.816645E-3	8.683112E-4	8.681244E-3	7.605332E-4	-1.895005E-3	1.963736E-3	3.431725E-3	-7.924710E-3	4.487299E-3	3.767085E-4	-3.901699E-3	3.230752E-3	1.849458E-3	8.736517E-3	-1.997780E-3	4.342632E-3	-1.749479E-3	-2.686459E-3	8.151191E-3	-4.047740E-3	-1.095067E-2	-1.333935E-3
2.820030E+2	2.895563E-3	2.106949E-3	-1.543058E-3	-8.802937E-4	3.925917E-3	1.711281E-3	-4.994157E-4	2.963918E-3	3.714102E-3	4.049484E-3	1.386979E-3	7.526670E-3	1.003006E-2	9.469896E-3	3.216178E-4	-6.876489E-4	-1.090772E-3	5.169348E-4	4.733018E-3	-3.996801E-3	7.257032E-3	-2.585366E-3	-1.534891E-3	5.332037E-3	8.349469E-3	-4.639515E-3	3.472714E-3	9.704693E-3	3.091706E-3	7.131746E-3	3.879142E-3	4.458733E-3	3.892479E-3	2.528857E-3	1.190784E-2	2.635011E-3	3.810043E-3	-2.191825E-3	-5.067098E-3	-5.141852E-4	-7.839537E-4	-4.924878E-3	-9.627806E-5	4.224739E-4	-4.283928E-8	2.474637E-3	-3.915772E-3	9.379752E-4	-9.560954E-4	6.771267E-3	-6.899278E-3	-2.491376E-3	5.171981E-3	8.654840E-3	3.837002E-3	2.023175E-3	1.565613E-3	9.957258E-5	-5.689392E-4	6.396123E-3	6.187374E-4	-8.066792E-4	-5.806827E-4	8.571694E-3	-4.360770E-3	-2.935245E-3	8.492608E-3	5.121168E-3	5.376367E-3	-4.403905E-8	-8.181742E-3	1.012184E-2	-1.879703E-4	-1.961835E-3	9.401920E-3	1.003303E-4	2.275373E-3	8.761698E-3	2.920440E-3	3.111660E-3	-3.351287E-3	1.283329E-3	8.917096E-4	-2.877260E-3	1.380561E-3	-1.984711E-3	3.866195E-3	3.586488E-3	-3.988505E-4	-1.670298E-3	4.235641E-3	4.054309E-3	-3.847840E-4	1.798323E-3	1.061031E-2	7.562483E-3	6.716777E-3	3.930310E-3	-2.280316E-3	-5.948686E-3	2.947289E-3	-3.438402E-4	-7.552547E-4	4.746230E-3	1.654022E-3	-4.082126E-3	-6.610971E-3	4.247850E-3	1.623038E-2	-2.241523E-3	4.617167E-3	8.095253E-3	1.602047E-3	5.068640E-3	1.094640E-3	-6.259556E-3	2.502951E-3	-8.418799E-4	-1.345301E-3	4.526107E-3	4.853706E-3	-3.767916E-4	1.132637E-3	1.062549E-2	1.983872E-3	2.179377E-3	2.888687E-3	2.877008E-3	-5.524090E-3	-6.297435E-4	2.778115E-3	6.319936E-3	3.131012E-3	3.447449E-3	1.331924E-2	5.136267E-3	-2.628619E-3	-2.618440E-3	7.678894E-3	-3.269259E-3	1.086942E-3	-8.523699E-5	-2.249806E-3	-5.434661E-4	-3.076930E-3	-5.387444E-3	3.742949E-4	2.307117E-3	2.664114E-4	5.858978E-3	8.356555E-3	6.946444E-3	-5.374126E-3	5.323888E-3	9.926131E-4	9.818931E-3	5.000493E-3	3.005951E-3	4.985744E-4	1.130083E-3	1.026797E-3	4.013982E-3	6.781309E-3	3.157775E-4	-6.659139E-4	5.820970E-3	1.535668E-2	-2.686474E-3	-3.189611E-3	5.915977E-3	-9.046189E-3	-4.891065E-3
2.825030E+2	-1.930379E-4	-2.809319E-3	1.748802E-3	1.760540E-3	5.321781E-3	-6.763549E-3	-1.298414E-3	2.085689E-3	2.332088E-3	6.749139E-3	-6.934635E-4	-2.932448E-4	-5.349381E-3	-9.796350E-4	-2.251030E-3	-4.126052E-3	4.726685E-3	5.341437E-3	1.820386E-3	5.595505E-3	4.101823E-3	4.524371E-3	3.922486E-3	2.229762E-3	3.993201E-3	1.070677E-3	-4.658505E-3	8.052828E-3	4.465800E-3	-4.754544E-4	-4.987467E-3	-7.668978E-3	-2.038910E-3	1.831228E-3	2.688868E-3	2.635011E-3	3.810054E-3	2.818055E-3	9.673533E-3	-1.336897E-3	8.275019E-3	4.739068E-3	6.739840E-4	4.647235E-3	1.154441E-2	3.181704E-3	-5.107363E-4	7.077699E-3	3.633119E-3	5.382289E-3	-3.745310E-3	8.304357E-4	-9.326296E-4	-2.992808E-3	5.411067E-3	-1.059782E-3	2.302390E-3	-3.884079E-3	1.005120E-2	-1.015173E-4	2.740026E-3	-5.646682E-3	3.401249E-3	3.723053E-3	1.706387E-3	-5.870533E-4	1.415411E-3	3.482428E-3	3.360243E-3	3.319306E-3	6.203733E-3	1.260071E-2	5.826703E-3	2.522343E-3	3.859752E-3	-2.307439E-3	5.585030E-3	1.051404E-3	-8.031148E-3	-3.111648E-3	2.010743E-3	7.443322E-3	1.684307E-3	4.266270E-3	6.212616E-3	6.271666E-3	8.749945E-3	3.586460E-3	-1.196509E-3	6.877570E-4	5.005833E-3	1.088266E-2	3.462876E-3	-6.114380E-3	-9.337087E-4	1.156628E-3	7.518779E-3	-1.572132E-3	-7.039213E-3	3.076936E-3	2.947277E-3	2.406927E-3	1.208463E-2	2.373127E-3	1.240525E-2	-3.339939E-3	7.011676E-3	4.247860E-3	4.939689E-3	3.276008E-3	1.000389E-2	-3.922442E-3	2.456467E-3	6.451012E-4	-3.283926E-3	6.259560E-3	3.193401E-3	-6.903506E-3	6.933630E-3	4.114501E-4	7.280548E-3	4.898287E-3	5.663243E-3	5.367531E-3	5.951590E-3	8.214608E-3	2.888700E-3	7.759105E-3	5.933309E-3	8.096846E-4	5.159449E-3	6.319912E-3	8.404287E-3	4.136986E-3	-4.969862E-3	1.975512E-3	6.383792E-3	6.359115E-3	6.859817E-3	-1.581884E-3	6.620337E-3	3.325995E-3	-1.557520E-3	-1.268023E-3	-5.714301E-3	5.786534E-3	7.111718E-3	6.701566E-3	3.818222E-3	7.371022E-3	7.629869E-3	8.682848E-4	2.893785E-3	2.281690E-3	3.158342E-3	1.090974E-3	-2.843417E-3	5.920750E-3	4.487287E-3	1.243094E-2	1.416928E-2	2.447507E-3	-3.082403E-3	6.210302E-3	-6.659179E-4	-1.570735E-3	2.138255E-3	6.406260E-3	-3.544031E-4	-2.802284E-3	9.998396E-3	-1.333935E-3
2.830060E+2	-1.930379E-4	1.404677E-3	5.040607E-3	1.936621E-2	3.925921E-3	2.363179E-3	3.495686E-3	1.350213E-2	9.241946E-3	2.699681E-3	2.080458E-3	1.378256E-2	7.355383E-3	9.469900E-3	9.968910E-3	8.939832E-3	3.999511E-3	3.273822E-3	4.732991E-3	2.398072E-3	1.230547E-2	2.585379E-3	7.333292E-3	9.985475E-3	3.267180E-3	-3.568799E-4	3.472734E-3	1.466036E-2	4.465830E-3	1.045943E-3	8.312444E-3	5.885512E-3	8.341054E-3	3.924063E-3	6.530069E-3	-3.267393E-3	1.337253E-2	5.949313E-3	1.409573E-2	2.776580E-3	6.184463E-3	2.508909E-3	1.299868E-2	8.027072E-3	-7.696476E-4	7.424000E-3	-3.234777E-3	1.253515E-2	7.457431E-3	7.465695E-3	6.505036E-3	3.321840E-3	1.059828E-2	1.253736E-2	1.092055E-2	1.666723E-2	1.482735E-2	5.676706E-3	7.016878E-3	7.208351E-3	2.032918E-3	1.532669E-2	7.465846E-4	1.645089E-3	1.687420E-2	3.326619E-3	2.123110E-3	1.249577E-2	3.360235E-3	5.310940E-3	-8.901023E-3	8.469339E-3	1.409686E-2	7.753847E-3	1.177707E-2	1.294185E-2	1.965111E-2	1.752332E-3	3.650507E-3	6.569097E-3	9.670917E-3	6.758897E-3	1.357374E-2	7.441233E-3	8.283472E-3	1.135254E-2	1.037779E-2	1.566727E-2	8.375396E-3	7.762118E-3	3.851057E-4	1.002915E-2	1.923813E-3	1.330778E-2	1.468469E-2	1.112135E-2	7.518804E-3	2.358193E-3	6.444338E-3	7.179505E-3	1.342645E-2	3.437951E-4	1.812691E-2	7.119339E-3	1.902137E-2	1.224639E-2	7.813029E-3	4.247880E-3	1.219803E-2	-8.621114E-4	6.925760E-3	1.076579E-2	1.954502E-2	5.805920E-3	8.100453E-3	1.877865E-2	1.631233E-2	8.587270E-3	8.589477E-3	2.016175E-2	1.860592E-2	6.405410E-3	1.019380E-2	2.114143E-2	1.626771E-2	3.520551E-3	4.248092E-3	1.891838E-2	1.329878E-2	-6.387390E-3	5.159410E-3	9.479921E-3	7.085939E-3	9.652970E-3	5.963840E-4	1.066768E-2	7.885858E-3	1.384040E-2	-2.969174E-3	6.011170E-3	8.201308E-3	-2.132078E-3	1.367176E-2	1.249927E-2	1.010988E-2	1.795753E-3	7.860285E-3	1.636942E-2	4.528656E-3	1.644304E-2	1.816635E-3	1.302461E-2	2.893755E-3	-7.605541E-4	-4.782694E-3	1.963746E-3	1.078550E-3	-6.376158E-4	1.578856E-2	7.910550E-3	2.669601E-3	1.106285E-2	7.603251E-3	9.578560E-3	1.132074E-2	5.820934E-3	1.380160E-2	1.301924E-2	9.096280E-3	5.915955E-3	8.093964E-3	2.000891E-2
2.835020E+2	5.791113E-4	9.130286E-3	6.686534E-3	6.161970E-3	1.230116E-2	5.622707E-3	2.427006E-2	1.789303E-2	9.241925E-3	4.049496E-3	1.872398E-2	5.180640E-3	1.404215E-2	3.592026E-3	1.511418E-2	5.501446E-3	1.345292E-2	1.292287E-2	8.373794E-3	6.394874E-3	1.293649E-2	1.098777E-2	1.074419E-2	7.658702E-3	1.125365E-2	1.891509E-2	5.505548E-3	1.796403E-2	1.202339E-2	2.538908E-2	1.021243E-2	9.452438E-3	1.575534E-2	1.717875E-2	2.112677E-2	2.634996E-3	5.603016E-3	4.696803E-3	1.704389E-2	2.169811E-2	1.245606E-2	1.440301E-2	1.376896E-2	1.394171E-2	9.235567E-3	1.590857E-2	1.651442E-2	8.442080E-3	1.510612E-2	7.465721E-3	1.281299E-2	-8.304750E-4	1.941615E-2	9.301943E-3	3.295839E-2	1.204282E-2	1.114353E-2	9.660436E-3	1.080977E-2	8.020564E-3	1.405378E-2	6.453362E-3	9.374205E-3	1.896155E-2	1.080702E-2	1.271932E-2	6.369410E-3	1.085694E-2	1.075274E-2	1.128565E-2	1.986993E-2	9.295622E-3	2.762985E-2	4.764379E-3	1.098538E-2	1.133665E-2	1.965111E-2	5.257009E-3	2.774398E-2	1.140945E-2	1.273500E-2	1.907888E-2	8.025372E-3	1.299733E-2	1.311551E-2	7.541928E-3	1.444754E-2	2.472785E-2	1.395901E-2	1.247833E-2	1.193688E-2	9.175592E-3	1.423624E-2	8.991728E-3	1.468465E-2	1.539190E-2	1.072683E-2	9.432695E-3	1.041011E-2	1.046153E-2	1.211655E-2	1.134674E-2	1.057397E-2	1.582070E-2	1.075118E-2	1.744184E-2	4.607656E-3	1.072081E-2	1.784334E-2	3.276092E-3	8.464804E-3	1.210112E-2	1.612732E-2	9.492211E-3	5.473292E-3	1.627487E-2	1.631233E-2	3.872697E-3	5.277879E-3	2.263064E-2	1.617903E-2	1.770912E-2	5.663238E-3	5.367483E-3	1.229997E-2	8.885172E-3	-1.189458E-3	9.851496E-3	9.206856E-3	8.096670E-4	2.579704E-2	1.026990E-2	1.170008E-2	1.447945E-2	1.490957E-2	1.145787E-2	2.666164E-2	2.618463E-3	1.259341E-2	6.011170E-3	3.458341E-3	9.466417E-3	1.713299E-2	1.539767E-2	1.098905E-2	6.584611E-3	2.133494E-2	1.285380E-2	1.873612E-2	1.115099E-2	1.416977E-2	1.910278E-2	2.893750E-3	6.084457E-3	4.602196E-3	1.330997E-2	9.706858E-3	3.005911E-3	1.911252E-2	1.921143E-2	5.955233E-3	2.516074E-2	1.849413E-3	1.463111E-2	7.325199E-3	1.616927E-2	1.302402E-2	1.715230E-2	1.854693E-2	1.338868E-2	9.998408E-3	1.645178E-2
2.840000E+2	-1.930379E-4	2.036753E-2	1.748787E-3	2.112678E-2	2.067641E-2	1.996466E-2	1.947596E-2	1.877125E-2	3.480836E-2	1.282339E-2	2.912616E-2	2.707639E-2	2.340353E-2	1.012296E-2	2.025942E-2	1.787964E-2	4.108594E-2	2.050426E-2	2.657770E-2	2.478016E-2	2.303323E-2	2.650008E-2	2.575179E-2	2.084340E-2	2.069211E-2	1.748752E-2	1.431434E-2	2.870121E-2	8.588134E-3	1.473897E-2	1.717908E-2	2.514717E-2	2.242817E-2	3.043336E-2	2.573623E-2	1.781262E-2	1.516549E-2	1.221169E-2	2.662534E-2	1.511676E-2	2.778662E-2	2.109335E-2	1.685021E-2	2.154625E-2	2.154953E-2	1.732270E-2	1.447139E-2	2.890765E-2	2.122505E-2	1.579952E-2	2.858265E-2	1.494806E-2	1.466802E-2	1.900833E-2	2.430060E-2	1.897940E-2	1.335379E-2	2.639181E-2	2.825716E-2	2.264036E-2	2.961017E-2	2.500678E-2	1.667452E-2	1.064968E-2	2.900844E-2	2.367756E-2	3.609344E-2	3.298054E-2	1.411293E-2	2.323524E-2	1.986992E-2	2.995248E-2	3.289262E-2	9.995929E-3	1.890275E-2	3.300674E-2	2.378821E-2	1.997666E-2	1.898271E-2	1.901576E-2	2.499124E-2	9.496667E-3	2.546318E-2	2.649072E-2	1.794754E-2	1.897384E-2	3.154032E-2	3.076828E-2	2.831698E-2	1.719446E-2	3.504043E-2	1.344332E-2	2.654866E-2	2.481713E-2	1.332658E-2	2.820372E-2	9.122785E-3	2.279574E-2	1.913473E-2	1.292304E-2	2.259578E-2	2.510027E-2	3.247734E-2	2.452212E-2	2.563747E-2	1.298856E-2	1.181969E-2	1.962107E-2	2.268224E-2	1.017301E-2	1.692960E-2	2.745704E-2	3.065261E-2	2.128838E-2	1.773335E-2	3.630544E-2	2.045517E-2	1.801651E-2	3.011487E-2	3.085994E-2	1.698796E-2	2.524492E-2	1.472441E-2	2.990471E-2	1.706122E-2	1.022631E-2	2.056073E-2	2.589293E-2	1.820909E-2	1.304458E-2	1.150946E-2	1.737983E-2	1.367753E-2	1.447940E-2	2.842754E-2	1.382856E-2	2.966579E-2	2.581050E-2	2.324155E-2	3.722711E-2	1.136328E-2	1.356001E-2	2.613211E-2	2.626649E-2	1.626374E-2	1.935479E-2	2.956959E-2	3.043172E-2	1.163243E-2	2.249098E-2	1.780310E-2	3.820552E-2	1.942948E-2	2.433770E-2	1.904045E-2	2.989307E-2	1.990391E-2	2.049493E-2	1.047032E-2	1.619791E-2	1.909774E-2	2.672714E-2	3.144052E-2	2.894630E-2	1.598223E-2	2.060421E-2	2.546494E-2	3.120477E-2	2.988777E-2	2.335239E-2	2.523408E-2	9.337478E-3
2.841030E+2	-9.651870E-4	1.545124E-2	7.509518E-3	2.992959E-2	1.579084E-2	2.778762E-2	1.787796E-2	2.667495E-2	1.822470E-2	8.098991E-3	1.248269E-2	2.864036E-2	2.741560E-2	1.338848E-2	1.511417E-2	2.063033E-2	2.217913E-2	1.292284E-2	4.186890E-2	3.836930E-2	2.303324E-2	1.551223E-2	2.575188E-2	2.627240E-2	3.013071E-2	3.104928E-2	1.634718E-2	3.613464E-2	2.095499E-2	2.234617E-2	1.781237E-2	1.944000E-2	4.022244E-2	1.996921E-2	1.651727E-2	2.371497E-2	1.576312E-2	1.784784E-2	3.252155E-2	1.593935E-2	1.106240E-2	1.291618E-2	1.839075E-2	1.985634E-2	2.308876E-2	2.439309E-2	1.515239E-2	2.208575E-2	3.116832E-2	1.579950E-2	2.700569E-2	2.740480E-2	1.263318E-2	1.900837E-2	2.902298E-2	2.822834E-2	3.987719E-2	2.320481E-2	2.446424E-2	1.451824E-2	1.971067E-2	2.420006E-2	1.601083E-2	1.896154E-2	3.507553E-2	2.446024E-2	4.954037E-3	3.625810E-2	2.486559E-2	2.456294E-2	1.986991E-2	4.152038E-2	3.665186E-2	1.896428E-2	2.127800E-2	2.096785E-2	3.288976E-2	1.226637E-2	1.898269E-2	1.832428E-2	1.733107E-2	2.318552E-2	1.991482E-2	9.822431E-3	1.932812E-2	2.278440E-2	2.340096E-2	2.095264E-2	2.512630E-2	1.640850E-2	3.427031E-2	1.600393E-2	1.808386E-2	2.050113E-2	3.030303E-2	3.033896E-2	2.997497E-2	7.860635E-3	2.389369E-2	1.866668E-2	1.342646E-2	2.028653E-2	3.096676E-2	3.005929E-2	3.225363E-2	1.373077E-2	1.582633E-2	7.484354E-3	2.913404E-2	1.913902E-2	1.692954E-2	1.610705E-2	4.176013E-2	2.276290E-2	2.386339E-2	3.463630E-2	2.528843E-2	1.532244E-2	3.756602E-2	3.908928E-2	1.860593E-2	2.449126E-2	1.774474E-2	2.377042E-2	2.261605E-2	2.900248E-2	2.124046E-2	3.007757E-2	9.206836E-3	1.664317E-2	2.817838E-2	1.974983E-2	2.356494E-2	2.344286E-2	3.478898E-2	1.619911E-2	2.515961E-2	1.907734E-2	1.914607E-2	2.457201E-2	2.717300E-2	1.424225E-2	3.236227E-2	1.612220E-2	2.593403E-2	1.696043E-2	2.582656E-2	3.218953E-2	2.583985E-2	2.324707E-2	3.160952E-2	3.039073E-2	2.852415E-2	7.605549E-3	2.048424E-2	2.989301E-2	1.833513E-2	1.976622E-2	1.512379E-2	2.448516E-2	1.745498E-2	3.220968E-2	1.828889E-2	3.231462E-2	1.731408E-2	2.873504E-2	3.013024E-2	2.707172E-2	1.287656E-2	3.580695E-2	2.332964E-2	3.423748E-2
2.842030E+2	-1.930379E-4	2.036754E-2	2.314576E-2	5.017604E-2	3.393724E-2	3.169906E-2	2.666717E-2	3.633506E-2	2.444362E-2	1.687293E-2	3.120660E-2	3.255025E-2	2.540960E-2	2.906280E-2	2.411838E-2	4.194840E-2	3.599561E-2	3.980240E-2	3.531555E-2	3.357312E-2	2.808166E-2	2.585368E-2	3.530213E-2	5.574410E-2	4.319942E-2	2.391151E-2	3.396482E-2	2.870125E-2	2.782551E-2	3.527841E-2	2.731231E-2	3.941502E-2	3.280818E-2	1.787640E-2	3.649169E-2	3.299017E-2	2.711855E-2	2.411028E-2	2.809932E-2	4.555583E-2	4.032982E-2	2.927055E-2	2.532338E-2	2.408116E-2	3.309393E-2	2.722126E-2	3.285854E-2	3.914046E-2	4.111158E-2	3.455064E-2	3.410210E-2	5.065749E-2	3.705173E-2	3.583272E-2	3.768077E-2	3.593566E-2	3.471987E-2	3.037544E-2	2.977435E-2	4.619449E-2	2.819599E-2	3.307338E-2	2.530213E-2	3.835611E-2	2.976678E-2	3.307027E-2	1.840053E-2	4.281324E-2	2.553761E-2	2.788231E-2	3.353614E-2	3.077876E-2	4.116279E-2	2.270110E-2	4.344669E-2	3.380933E-2	4.695576E-2	2.278039E-2	3.796547E-2	1.832435E-2	3.724746E-2	2.455441E-2	3.735263E-2	2.569701E-2	3.244361E-2	2.278444E-2	2.584277E-2	3.907380E-2	5.065141E-2	2.977106E-2	2.656915E-2	2.624654E-2	4.193916E-2	3.201054E-2	4.252610E-2	2.464488E-2	3.398491E-2	3.144244E-2	3.261838E-2	2.441028E-2	2.980023E-2	2.991404E-2	3.851961E-2	5.062625E-2	6.202617E-2	2.486393E-2	2.864774E-2	3.661243E-2	2.994049E-2	1.982878E-2	3.847632E-2	2.745708E-2	4.432342E-2	2.202562E-2	2.473913E-2	3.880928E-2	2.252653E-2	3.283383E-2	3.591018E-2	3.497466E-2	3.802071E-2	3.428785E-2	2.907123E-2	4.655489E-2	2.658383E-2	2.632019E-2	3.687339E-2	3.984189E-2	4.685259E-2	2.456000E-2	4.167215E-2	5.292952E-2	3.608896E-2	3.240631E-2	3.558411E-2	3.042275E-2	3.567407E-2	4.451370E-2	3.061335E-2	3.216510E-2	2.954448E-2	1.901807E-2	2.543984E-2	3.061411E-2	4.351648E-2	2.973061E-2	3.031815E-2	3.482622E-2	3.365397E-2	2.627103E-2	2.652293E-2	4.081045E-2	4.919381E-2	3.422488E-2	2.842536E-2	3.774816E-2	3.794496E-2	1.393656E-2	1.711816E-2	3.955295E-2	2.649048E-2	3.612571E-2	3.308445E-2	5.168242E-2	3.263039E-2	3.317014E-2	4.179361E-2	3.451128E-2	3.933846E-2	4.203427E-2	1.380727E-2	3.068037E-2
2.843030E+2	-1.930332E-4	4.073511E-2	2.808357E-2	4.577466E-2	4.301039E-2	4.017383E-2	6.422088E-2	5.126423E-2	4.448219E-2	4.049492E-2	4.368928E-2	5.600989E-2	5.483116E-2	4.604330E-2	5.563296E-2	6.120344E-2	6.581021E-2	3.497790E-2	2.949032E-2	6.235016E-2	4.511985E-2	5.300010E-2	3.189131E-2	6.117302E-2	6.280252E-2	4.817986E-2	4.887204E-2	5.347924E-2	3.813121E-2	4.744999E-2	3.744558E-2	4.654899E-2	6.320668E-2	4.787375E-2	5.723432E-2	5.407023E-2	4.265756E-2	4.540238E-2	4.726225E-2	5.049190E-2	4.032987E-2	4.785502E-2	4.226981E-2	4.858467E-2	4.540790E-2	3.570588E-2	4.715964E-2	4.869104E-2	6.099817E-2	2.968921E-2	3.725604E-2	5.480970E-2	4.451291E-2	5.006875E-2	5.578334E-2	4.595528E-2	5.313893E-2	4.152979E-2	4.494600E-2	6.325084E-2	3.314572E-2	3.872005E-2	3.658436E-2	5.082394E-2	5.024327E-2	5.263843E-2	5.095537E-2	6.083988E-2	5.241935E-2	3.850405E-2	4.432523E-2	5.060936E-2	5.168848E-2	4.437448E-2	2.919536E-2	5.387422E-2	6.929602E-2	3.189249E-2	3.723531E-2	4.598364E-2	4.643961E-2	4.029661E-2	5.320515E-2	4.950890E-2	5.177171E-2	4.247264E-2	4.456346E-2	4.360412E-2	6.341392E-2	5.728231E-2	5.198305E-2	5.099932E-2	4.501733E-2	4.567806E-2	3.913081E-2	5.382721E-2	6.205516E-2	3.222852E-2	5.244723E-2	5.148720E-2	3.045520E-2	4.779368E-2	5.589119E-2	5.537239E-2	6.037208E-2	4.638797E-2	6.070118E-2	5.603129E-2	5.010250E-2	3.293292E-2	5.078881E-2	6.284252E-2	5.286762E-2	5.151597E-2	4.400498E-2	5.466690E-2	3.219309E-2	4.967162E-2	7.068203E-2	5.719377E-2	5.258189E-2	5.162016E-2	5.323431E-2	4.480226E-2	4.404179E-2	4.040234E-2	5.522515E-2	5.379091E-2	5.749159E-2	3.751465E-2	5.199101E-2	3.949965E-2	3.608898E-2	5.584925E-2	6.500559E-2	5.887005E-2	5.444985E-2	3.553615E-2	3.880420E-2	6.844303E-2	4.772563E-2	3.198113E-2	5.589846E-2	5.090270E-2	6.109890E-2	3.212500E-2	4.229573E-2	7.701320E-2	4.502000E-2	5.121903E-2	6.067581E-2	4.428362E-2	4.919387E-2	3.954871E-2	4.286355E-2	6.131357E-2	2.931667E-2	4.235616E-2	4.703338E-2	5.763431E-2	4.045454E-2	4.865711E-2	5.363379E-2	6.768179E-2	3.462823E-2	4.721429E-2	4.568135E-2	4.939034E-2	6.958065E-2	3.829783E-2	6.713226E-2	7.692304E-2
2.844030E+2	3.667713E-3	6.110266E-2	4.371975E-2	6.338036E-2	5.836506E-2	6.038301E-2	6.581884E-2	9.078264E-2	3.826333E-2	6.546683E-2	6.033282E-2	6.070178E-2	6.018052E-2	7.412640E-2	5.241717E-2	6.945554E-2	6.871891E-2	7.633107E-2	6.589803E-2	9.192646E-2	5.079930E-2	6.075624E-2	7.282138E-2	8.831798E-2	7.950140E-2	6.745183E-2	4.209604E-2	7.825722E-2	6.149088E-2	8.168251E-2	5.074545E-2	6.866416E-2	6.394814E-2	5.764027E-2	6.722153E-2	6.671816E-2	5.042707E-2	5.917964E-2	6.421394E-2	6.941348E-2	7.099097E-2	5.900575E-2	8.771699E-2	6.041407E-2	5.926114E-2	6.328065E-2	6.758984E-2	5.483070E-2	8.394418E-2	4.427336E-2	6.169926E-2	6.975781E-2	6.011360E-2	6.689314E-2	7.860821E-2	6.907736E-2	6.861089E-2	4.631016E-2	7.908214E-2	5.837763E-2	6.496564E-2	6.856679E-2	3.990264E-2	7.160379E-2	6.768631E-2	7.298939E-2	6.157119E-2	7.149198E-2	4.905917E-2	7.103337E-2	6.230706E-2	8.779178E-2	7.574708E-2	5.558488E-2	7.907501E-2	6.270268E-2	7.260569E-2	3.539719E-2	6.497929E-2	6.050475E-2	7.631418E-2	4.714107E-2	7.143563E-2	5.744617E-2	6.695809E-2	4.818859E-2	6.735402E-2	6.399044E-2	7.458118E-2	5.492413E-2	6.353485E-2	7.916638E-2	6.271634E-2	4.136196E-2	6.697224E-2	7.518014E-2	8.451125E-2	4.873578E-2	7.624173E-2	6.543581E-2	6.123782E-2	7.255008E-2	7.779452E-2	7.435727E-2	9.345281E-2	6.716971E-2	6.230385E-2	7.059535E-2	6.139316E-2	5.017530E-2	5.617545E-2	5.683371E-2	6.055747E-2	6.331214E-2	9.567254E-2	7.052446E-2	5.359762E-2	5.640681E-2	9.469113E-2	9.751742E-2	7.442367E-2	6.066310E-2	6.682603E-2	8.598966E-2	6.546746E-2	4.040232E-2	5.930331E-2	7.401698E-2	7.713284E-2	5.190875E-2	6.707241E-2	5.371952E-2	5.784129E-2	6.136521E-2	7.772850E-2	7.309363E-2	8.974843E-2	5.124687E-2	5.436669E-2	8.447289E-2	7.381186E-2	4.903770E-2	7.112777E-2	5.814867E-2	8.043957E-2	4.569334E-2	6.550219E-2	7.261875E-2	7.556607E-2	7.541099E-2	5.340921E-2	9.811863E-2	6.820997E-2	5.932308E-2	6.957437E-2	6.829589E-2	5.755470E-2	7.150447E-2	5.700514E-2	7.194882E-2	7.084673E-2	6.588776E-2	7.582705E-2	7.526056E-2	6.925639E-2	6.051922E-2	6.745286E-2	7.253568E-2	7.147077E-2	6.569799E-2	6.903661E-2	5.202317E-2
2.845010E+2	5.791160E-4	6.882828E-2	6.264791E-2	8.890852E-2	6.464654E-2	6.755397E-2	7.061290E-2	9.341729E-2	7.626751E-2	7.086612E-2	7.004153E-2	9.980129E-2	6.619858E-2	9.437251E-2	7.171185E-2	7.564471E-2	9.998793E-2	9.080462E-2	6.007282E-2	9.352516E-2	6.026500E-2	8.208551E-2	7.759650E-2	1.084827E-1	9.837848E-2	8.672375E-2	5.497041E-2	9.229817E-2	6.149086E-2	1.014612E-1	6.721203E-2	7.936505E-2	7.284521E-2	9.042814E-2	7.644049E-2	1.029758E-1	5.819655E-2	7.984556E-2	8.853599E-2	7.928570E-2	7.377828E-2	9.989156E-2	1.038932E-1	8.829742E-2	7.850174E-2	9.934008E-2	6.350377E-2	8.552914E-2	9.235772E-2	7.552519E-2	7.825746E-2	8.304499E-2	7.367945E-2	8.436464E-2	1.061555E-1	8.834583E-2	7.597851E-2	8.216315E-2	7.301346E-2	8.518058E-2	6.708698E-2	1.016402E-1	6.379450E-2	8.822765E-2	7.906213E-2	8.316483E-2	8.351031E-2	1.018095E-1	5.577955E-2	8.630226E-2	8.244671E-2	1.092750E-1	8.627271E-2	7.501636E-2	7.749149E-2	1.012273E-1	8.749916E-2	7.605144E-2	7.593089E-2	8.539815E-2	7.554815E-2	6.698986E-2	7.460614E-2	8.205180E-2	6.488721E-2	6.279605E-2	1.080512E-1	7.909140E-2	1.048923E-1	7.614712E-2	7.200624E-2	8.855536E-2	6.271639E-2	7.157419E-2	6.629323E-2	7.945077E-2	9.172936E-2	5.816851E-2	8.020752E-2	9.087182E-2	7.237199E-2	7.667622E-2	7.628402E-2	1.186553E-1	8.766363E-2	5.900544E-2	7.752923E-2	9.567791E-2	9.687821E-2	7.776305E-2	7.618314E-2	8.821318E-2	1.007155E-1	7.437098E-2	8.779096E-2	9.973573E-2	5.843095E-2	7.055059E-2	9.469105E-2	9.093401E-2	8.898474E-2	6.744535E-2	8.419327E-2	9.738196E-2	7.816429E-2	7.191953E-2	7.153782E-2	8.447876E-2	8.613513E-2	5.838604E-2	7.580370E-2	8.768923E-2	5.454548E-2	6.826013E-2	1.039692E-1	9.126829E-2	7.923393E-2	7.443885E-2	8.303469E-2	7.772355E-2	7.460223E-2	6.677652E-2	8.289590E-2	7.336508E-2	1.103296E-1	7.283006E-2	7.822832E-2	9.195446E-2	6.775194E-2	7.994705E-2	7.593560E-2	1.050651E-1	9.797434E-2	6.236528E-2	6.740861E-2	1.110626E-1	7.010489E-2	6.348868E-2	7.694857E-2	7.420896E-2	7.248949E-2	6.275493E-2	6.349753E-2	1.081014E-1	6.992228E-2	6.569342E-2	9.388972E-2	8.245506E-2	6.958064E-2	6.943434E-2	8.236787E-2	9.470884E-2
2.846030E+2	4.439862E-3	9.411216E-2	1.070877E-1	1.531690E-1	8.837640E-2	1.347005E-1	1.369312E-1	1.908958E-1	1.191086E-1	1.241844E-1	1.054091E-1	1.529765E-1	1.136744E-1	1.636009E-1	1.180192E-1	1.588540E-1	1.399830E-1	1.362932E-1	1.328884E-1	1.598722E-1	1.296801E-1	1.460737E-1	1.403557E-1	2.155108E-1	1.404888E-1	1.224126E-1	1.240860E-1	1.765434E-1	1.137066E-1	1.684047E-1	1.064784E-1	1.371500E-1	1.551435E-1	1.441444E-1	1.309860E-1	1.569406E-1	8.688398E-2	1.600042E-1	1.600282E-1	1.681349E-1	1.197701E-1	1.415208E-1	1.516514E-1	1.398395E-1	1.292971E-1	1.537826E-1	1.288805E-1	1.510190E-1	1.826119E-1	1.248336E-1	1.555294E-1	1.486505E-1	1.225165E-1	1.335437E-1	1.675467E-1	1.492341E-1	1.467075E-1	1.490887E-1	1.132183E-1	1.582795E-1	1.172917E-1	1.944069E-1	9.963224E-2	1.353284E-1	1.799279E-1	1.590894E-1	1.146497E-1	1.788324E-1	1.081989E-1	1.460499E-1	1.572510E-1	2.084278E-1	1.561932E-1	1.318158E-1	1.265793E-1	1.501856E-1	1.396264E-1	1.321262E-1	1.277683E-1	1.386425E-1	1.598098E-1	1.176387E-1	1.237491E-1	1.193571E-1	1.263230E-1	1.301170E-1	1.788647E-1	1.553513E-1	1.639192E-1	1.406020E-1	1.305352E-1	1.790314E-1	1.258176E-1	1.399111E-1	1.314827E-1	1.442212E-1	1.494736E-1	1.367746E-1	1.547639E-1	1.606154E-1	1.241130E-1	1.365044E-1	1.578551E-1	1.621621E-1	1.794627E-1	1.161553E-1	1.560601E-1	1.871080E-1	1.452671E-1	1.219035E-1	1.423623E-1	1.222633E-1	1.776139E-1	1.134458E-1	1.560974E-1	1.514816E-1	1.357634E-1	1.183701E-1	1.865878E-1	1.510082E-1	1.747337E-1	1.186887E-1	1.151522E-1	1.964071E-1	1.352996E-1	1.134954E-1	1.456245E-1	1.465518E-1	1.532427E-1	1.094851E-1	1.535915E-1	1.374587E-1	1.145290E-1	1.289359E-1	1.906433E-1	1.513236E-1	1.663538E-1	1.268078E-1	1.731341E-1	1.502795E-1	1.370508E-1	1.145351E-1	1.410441E-1	1.269851E-1	1.542857E-1	1.263053E-1	1.029320E-1	1.745706E-1	1.231611E-1	1.668871E-1	1.304348E-1	1.710565E-1	1.401406E-1	1.422233E-1	1.100015E-1	1.704122E-1	1.281498E-1	1.261576E-1	1.454214E-1	1.442744E-1	1.308098E-1	1.387266E-1	1.374749E-1	1.695727E-1	1.225306E-1	1.277834E-1	1.763103E-1	1.527175E-1	1.518015E-1	1.329527E-1	1.547374E-1	1.480658E-1
2.847020E+2	2.895563E-3	2.661828E-1	2.650958E-1	3.397885E-1	2.209844E-1	2.774682E-1	3.718414E-1	3.849757E-1	2.718161E-1	3.138355E-1	2.808594E-1	3.727153E-1	2.875292E-1	3.386308E-1	2.627289E-1	3.348999E-1	3.239608E-1	3.389239E-1	2.872575E-1	3.533168E-1	2.546277E-1	3.218789E-1	2.931610E-1	3.923417E-1	3.118340E-1	3.372592E-1	2.318249E-1	3.623791E-1	2.806593E-1	3.745600E-1	2.546774E-1	3.483142E-1	2.923080E-1	3.101762E-1	3.476316E-1	3.416011E-1	2.315165E-1	2.833735E-1	3.155424E-1	3.787408E-1	2.842253E-1	3.429769E-1	3.141828E-1	3.307985E-1	3.155463E-1	3.192314E-1	2.562281E-1	2.697192E-1	3.302311E-1	2.859536E-1	3.029764E-1	3.645678E-1	2.724189E-1	2.616679E-1	3.493587E-1	3.434600E-1	3.191099E-1	3.020618E-1	3.066565E-1	3.540222E-1	2.968976E-1	3.928475E-1	2.496198E-1	3.174986E-1	3.619414E-1	3.743397E-1	2.760083E-1	3.566405E-1	2.950271E-1	2.960831E-1	3.327541E-1	4.199546E-1	2.915230E-1	3.134245E-1	3.047206E-1	3.500318E-1	3.001450E-1	3.122664E-1	3.095647E-1	2.997580E-1	3.696977E-1	3.072296E-1	3.353810E-1	3.146145E-1	2.913024E-1	2.901638E-1	3.839791E-1	3.282574E-1	3.681202E-1	3.056690E-1	3.222952E-1	3.523014E-1	2.920351E-1	3.305358E-1	2.632205E-1	3.392452E-1	3.547870E-1	3.214990E-1	3.395686E-1	3.411281E-1	2.590328E-1	3.455587E-1	3.716011E-1	3.773232E-1	4.011025E-1	3.269416E-1	3.243402E-1	3.392222E-1	3.323701E-1	3.074315E-1	3.108889E-1	2.811639E-1	3.843851E-1	2.815407E-1	3.820333E-1	3.826678E-1	2.469290E-1	3.015659E-1	3.803168E-1	3.764918E-1	3.543206E-1	2.995479E-1	3.031712E-1	3.944567E-1	3.233698E-1	2.657163E-1	3.209856E-1	3.411409E-1	3.504740E-1	2.764567E-1	3.425054E-1	3.341671E-1	2.648173E-1	3.006210E-1	3.639920E-1	3.480839E-1	3.173115E-1	2.487529E-1	3.361321E-1	3.510737E-1	3.409970E-1	2.871474E-1	3.244880E-1	3.255238E-1	3.846154E-1	3.050882E-1	3.147847E-1	3.547440E-1	2.609738E-1	3.271592E-1	3.128256E-1	3.803184E-1	3.451834E-1	3.224746E-1	2.789291E-1	3.842460E-1	3.038535E-1	2.806438E-1	2.723946E-1	3.657707E-1	3.624478E-1	3.102501E-1	3.240629E-1	3.539870E-1	2.603776E-1	3.273586E-1	3.504825E-1	3.502790E-1	3.398695E-1	2.911264E-1	3.489922E-1	3.899513E-1
2.848000E+2	1.293352E-2	5.134029E-1	5.687688E-1	7.015847E-1	5.183064E-1	5.577892E-1	7.250061E-1	7.625970E-1	5.399187E-1	6.202483E-1	5.714284E-1	7.066246E-1	5.636910E-1	6.932619E-1	5.534353E-1	7.014327E-1	6.999156E-1	6.718173E-1	5.756067E-1	7.282170E-1	4.780183E-1	6.625014E-1	6.567559E-1	7.661652E-1	6.763068E-1	6.670235E-1	4.737288E-1	8.282057E-1	5.293716E-1	7.480744E-1	4.991423E-1	7.435343E-1	6.860061E-1	5.920127E-1	6.326506E-1	7.269439E-1	4.687850E-1	6.447137E-1	7.304914E-1	7.917245E-1	6.528558E-1	6.551962E-1	6.199893E-1	6.975071E-1	6.264753E-1	6.586134E-1	5.769820E-1	6.026267E-1	7.700302E-1	6.116675E-1	6.987975E-1	6.992390E-1	5.423787E-1	5.942730E-1	7.279376E-1	6.818137E-1	6.970683E-1	6.821033E-1	5.827804E-1	6.724082E-1	5.783269E-1	7.840823E-1	5.376488E-1	6.700630E-1	7.608543E-1	6.772555E-1	5.456475E-1	7.360191E-1	5.383065E-1	6.173924E-1	6.593039E-1	8.223503E-1	6.772131E-1	5.974217E-1	6.229996E-1	7.336722E-1	6.468321E-1	5.968456E-1	6.468729E-1	6.212979E-1	7.105739E-1	6.220730E-1	7.039527E-1	6.384562E-1	5.184073E-1	6.127976E-1	7.730443E-1	7.306995E-1	6.975536E-1	6.059344E-1	6.934924E-1	7.039623E-1	6.160068E-1	6.851697E-1	6.027505E-1	7.036683E-1	7.325314E-1	6.728673E-1	6.330351E-1	7.152821E-1	5.242882E-1	6.419478E-1	6.759824E-1	7.625581E-1	7.790489E-1	5.666743E-1	6.128210E-1	6.580140E-1	7.210931E-1	6.060691E-1	6.956521E-1	5.916211E-1	7.893837E-1	5.852913E-1	7.244399E-1	6.714432E-1	5.355445E-1	5.824213E-1	7.810200E-1	7.879575E-1	6.722396E-1	6.032402E-1	6.301280E-1	7.835465E-1	6.034919E-1	5.916175E-1	6.336449E-1	6.605736E-1	6.941958E-1	6.226347E-1	7.100147E-1	6.849240E-1	5.377093E-1	6.570901E-1	7.846397E-1	6.957732E-1	7.063468E-1	6.063591E-1	6.678612E-1	6.505782E-1	6.279434E-1	6.207747E-1	6.443036E-1	6.298534E-1	8.549446E-1	6.099767E-1	5.341235E-1	7.783716E-1	5.564892E-1	7.074275E-1	6.274677E-1	8.309700E-1	6.957421E-1	6.069207E-1	6.030680E-1	7.970752E-1	5.807432E-1	6.326091E-1	6.114345E-1	7.545208E-1	7.230472E-1	6.478150E-1	7.695727E-1	7.447110E-1	5.966709E-1	7.028553E-1	7.447028E-1	7.735066E-1	6.611929E-1	5.863004E-1	6.956035E-1	7.314368E-1
2.849020E+2	3.223731E-2	7.114599E-1	9.053594E-1	9.551061E-1	7.660743E-1	7.911719E-1	1.033425E+0	1.152512E+0	8.052574E-1	8.341954E-1	8.162272E-1	1.035059E+0	8.197922E-1	9.623385E-1	7.766105E-1	9.428079E-1	9.078894E-1	8.923669E-1	8.530340E-1	1.115908E+0	7.689316E-1	9.294408E-1	9.187087E-1	1.222977E+0	9.086408E-1	8.918629E-1	6.864958E-1	1.126368E+0	8.234285E-1	1.085074E+0	6.840743E-1	1.023899E+0	9.655239E-1	9.177971E-1	9.998720E-1	1.018690E+0	6.594365E-1	8.664023E-1	1.034886E+0	1.148768E+0	9.079001E-1	9.599816E-1	9.049964E-1	9.966200E-1	8.635193E-1	9.343622E-1	8.085238E-1	9.205251E-1	1.014787E+0	8.533483E-1	9.227283E-1	9.724566E-1	7.485799E-1	8.084607E-1	1.101794E+0	1.044060E+0	9.969299E-1	9.776914E-1	8.323532E-1	9.591192E-1	8.717780E-1	1.134982E+0	7.221467E-1	9.104160E-1	1.047525E+0	9.598203E-1	7.820244E-1	1.113758E+0	7.916666E-1	8.550559E-1	9.448554E-1	1.237967E+0	9.132886E-1	8.888920E-1	9.697822E-1	1.060329E+0	9.463559E-1	8.807241E-1	8.768556E-1	8.833699E-1	9.733162E-1	8.588904E-1	9.718613E-1	9.218178E-1	7.662216E-1	8.261932E-1	1.162925E+0	9.708045E-1	1.038952E+0	9.431432E-1	8.860224E-1	9.950212E-1	8.791842E-1	9.390965E-1	8.370256E-1	9.186222E-1	1.066967E+0	9.778587E-1	9.098443E-1	9.778460E-1	7.351811E-1	9.369621E-1	9.932024E-1	1.106658E+0	1.048656E+0	8.182825E-1	8.772623E-1	9.768058E-1	9.719077E-1	8.729813E-1	9.411316E-1	8.980719E-1	1.131155E+0	8.057323E-1	1.079983E+0	9.819169E-1	7.640901E-1	7.939043E-1	1.137018E+0	1.080099E+0	1.079143E+0	8.323285E-1	9.193309E-1	1.046445E+0	8.836134E-1	8.967314E-1	9.129985E-1	9.542011E-1	1.092751E+0	8.248715E-1	9.743353E-1	9.306123E-1	7.262293E-1	9.535737E-1	1.124180E+0	1.028447E+0	1.005257E+0	8.704488E-1	9.856666E-1	9.483956E-1	9.133098E-1	8.602494E-1	8.810500E-1	9.102711E-1	1.183736E+0	9.148655E-1	7.519649E-1	1.110594E+0	7.752853E-1	1.022680E+0	8.970571E-1	1.248626E+0	9.561802E-1	9.042970E-1	7.842681E-1	1.213396E+0	8.333174E-1	9.802032E-1	8.028922E-1	1.024234E+0	1.060648E+0	9.532682E-1	9.873962E-1	1.068910E+0	7.964485E-1	9.733901E-1	1.019179E+0	9.933870E-1	9.730652E-1	8.951748E-1	9.641326E-1	9.555357E-1
2.850010E+2	2.065503E-2	7.423623E-1	8.740877E-1	1.021127E+0	7.269901E-1	7.533612E-1	9.910772E-1	1.099820E+0	7.955837E-1	8.537682E-1	7.607488E-1	1.035060E+0	8.545631E-1	9.231517E-1	8.126275E-1	9.153007E-1	9.798810E-1	9.240711E-1	8.661410E-1	1.083134E+0	7.613589E-1	9.190991E-1	8.648171E-1	1.153951E+0	9.355030E-1	8.911487E-1	7.488350E-1	1.170969E+0	8.124355E-1	1.067577E+0	6.942078E-1	1.022472E+0	1.012975E+0	8.926839E-1	9.737520E-1	9.841202E-1	6.923077E-1	9.133700E-1	1.056997E+0	1.140541E+0	9.085976E-1	9.785652E-1	9.057671E-1	9.839454E-1	8.604416E-1	9.859770E-1	7.969471E-1	9.519060E-1	1.045383E+0	7.845941E-1	9.495370E-1	1.019792E+0	7.716419E-1	8.006965E-1	1.042764E+0	1.022480E+0	9.681967E-1	9.506028E-1	8.179403E-1	1.038715E+0	8.590496E-1	1.061576E+0	6.863088E-1	9.602874E-1	1.080894E+0	1.021655E+0	7.671618E-1	1.068692E+0	8.111560E-1	8.915689E-1	9.671531E-1	1.192522E+0	8.892305E-1	8.829134E-1	8.605226E-1	1.043474E+0	9.885544E-1	8.870328E-1	9.155506E-1	9.034230E-1	9.365479E-1	8.931125E-1	9.441193E-1	9.241995E-1	8.531988E-1	8.109505E-1	1.119786E+0	1.020637E+0	1.039750E+0	8.606095E-1	9.091260E-1	1.026602E+0	8.707194E-1	9.570801E-1	8.580771E-1	9.357044E-1	1.040501E+0	9.566355E-1	9.423643E-1	1.003282E+0	7.345267E-1	8.833233E-1	9.780976E-1	1.047330E+0	1.076775E+0	8.398065E-1	8.820692E-1	9.573860E-1	9.380353E-1	8.605664E-1	9.726819E-1	8.419900E-1	1.097832E+0	8.418576E-1	1.041451E+0	9.468635E-1	7.426856E-1	8.188243E-1	1.221464E+0	1.060349E+0	9.836861E-1	8.798032E-1	8.929021E-1	1.128820E+0	8.764712E-1	8.531437E-1	8.722174E-1	9.583852E-1	1.060833E+0	8.464628E-1	1.046567E+0	9.171828E-1	7.723701E-1	9.053093E-1	1.126565E+0	9.699725E-1	9.909881E-1	8.173318E-1	9.741990E-1	9.829866E-1	9.196338E-1	8.663899E-1	8.900494E-1	8.486809E-1	1.186373E+0	9.060860E-1	7.991261E-1	1.123778E+0	7.873612E-1	9.894152E-1	8.578178E-1	1.195658E+0	9.636208E-1	9.461271E-1	7.683861E-1	1.217761E+0	8.058632E-1	9.408528E-1	7.949147E-1	9.843042E-1	1.067219E+0	1.001827E+0	1.026029E+0	1.009964E+0	7.811320E-1	9.785645E-1	9.927436E-1	1.023972E+0	9.541641E-1	9.151013E-1	9.774638E-1	9.804367E-1
2.851000E+2	2.914870E-2	6.707253E-1	7.226629E-1	9.110916E-1	7.276874E-1	7.442346E-1	9.870831E-1	1.115628E+0	7.727810E-1	8.449944E-1	7.891811E-1	1.052263E+0	7.763291E-1	9.753994E-1	7.727520E-1	9.489974E-1	9.427950E-1	8.944343E-1	8.559471E-1	1.043165E+0	7.234960E-1	8.893673E-1	8.593600E-1	1.175666E+0	9.166263E-1	8.783014E-1	6.634575E-1	1.123064E+0	7.664032E-1	1.018891E+0	6.663410E-1	9.810955E-1	9.581095E-1	8.926835E-1	9.215112E-1	1.004357E+0	6.588390E-1	8.601401E-1	1.043731E+0	1.077194E+0	8.695743E-1	9.599816E-1	8.479956E-1	9.704266E-1	9.081582E-1	9.633505E-1	8.078431E-1	8.959665E-1	1.010963E+0	8.102898E-1	9.834416E-1	9.483742E-1	7.696073E-1	8.233443E-1	1.067164E+0	1.003212E+0	9.527245E-1	9.896431E-1	7.716670E-1	9.380010E-1	8.335937E-1	1.088195E+0	6.942732E-1	8.827096E-1	1.042975E+0	9.833020E-1	7.296534E-1	1.049027E+0	7.526881E-1	8.636861E-1	9.060147E-1	1.122289E+0	9.057704E-1	8.530199E-1	8.225182E-1	1.050697E+0	9.008486E-1	8.295561E-1	8.199079E-1	8.785296E-1	9.549327E-1	8.561530E-1	9.528384E-1	8.376830E-1	7.489642E-1	8.160312E-1	1.114088E+0	9.119112E-1	1.026988E+0	8.975536E-1	8.421255E-1	9.711212E-1	8.661018E-1	9.232713E-1	8.227651E-1	8.944214E-1	1.006817E+0	9.574218E-1	8.733602E-1	9.589738E-1	7.142238E-1	8.846991E-1	9.992449E-1	1.029136E+0	1.023846E+0	7.730079E-1	8.484131E-1	9.759955E-1	9.235186E-1	8.536694E-1	9.357440E-1	8.439921E-1	1.061091E+0	7.924613E-1	1.040575E+0	9.919323E-1	7.198999E-1	8.194982E-1	1.154404E+0	1.047181E+0	9.642710E-1	8.594568E-1	8.400451E-1	1.048198E+0	8.161622E-1	8.363792E-1	8.762956E-1	9.325795E-1	9.969990E-1	7.831288E-1	9.814792E-1	8.895328E-1	7.433671E-1	8.722131E-1	1.087602E+0	1.033979E+0	9.579423E-1	8.667086E-1	9.086725E-1	9.399589E-1	8.753659E-1	8.486513E-1	9.080481E-1	8.711430E-1	1.098462E+0	8.797480E-1	7.976294E-1	1.074560E+0	7.859401E-1	9.841242E-1	8.563641E-1	1.167004E+0	9.313769E-1	9.735072E-1	7.308471E-1	1.164520E+0	7.635062E-1	9.517840E-1	8.534155E-1	9.858107E-1	9.891848E-1	8.577160E-1	9.446540E-1	9.872285E-1	7.345172E-1	9.112998E-1	1.011404E+0	1.056210E+0	9.173064E-1	9.300464E-1	1.030789E+0	9.235222E-1
2.852040E+2	1.061707E-2	6.054079E-1	6.889214E-1	8.160216E-1	5.922876E-1	6.138529E-1	8.488536E-1	9.514072E-1	6.760426E-1	6.809894E-1	6.823855E-1	8.982112E-1	6.419253E-1	8.108195E-1	6.698465E-1	8.210880E-1	7.893592E-1	7.917414E-1	7.052183E-1	8.369305E-1	5.928690E-1	7.814286E-1	7.502135E-1	1.006592E+0	7.910215E-1	7.426831E-1	6.383864E-1	9.198845E-1	6.276192E-1	8.941335E-1	6.061744E-1	8.648114E-1	7.623728E-1	7.294421E-1	7.563381E-1	8.610117E-1	5.644100E-1	7.449121E-1	8.801092E-1	9.603738E-1	7.706222E-1	8.217125E-1	8.071705E-1	8.470639E-1	7.780918E-1	7.611360E-1	7.043303E-1	7.349708E-1	8.618137E-1	6.894499E-1	7.776468E-1	8.254664E-1	6.400537E-1	6.874549E-1	8.924343E-1	8.814347E-1	8.429467E-1	8.111744E-1	7.011191E-1	8.031744E-1	6.603512E-1	9.236356E-1	5.854323E-1	7.885075E-1	8.935727E-1	8.557175E-1	6.383580E-1	8.917031E-1	6.283601E-1	7.787120E-1	8.204212E-1	1.061144E+0	7.411191E-1	7.095257E-1	7.077165E-1	8.444314E-1	8.007311E-1	7.559577E-1	7.505476E-1	7.208717E-1	8.155181E-1	7.370599E-1	7.776678E-1	7.273537E-1	6.654392E-1	7.188599E-1	9.179272E-1	7.903474E-1	8.842071E-1	7.505655E-1	7.489412E-1	8.738172E-1	6.891115E-1	7.981065E-1	7.181902E-1	7.912157E-1	8.865161E-1	8.135733E-1	8.535320E-1	8.342564E-1	6.048464E-1	8.207450E-1	8.202419E-1	9.049439E-1	8.609230E-1	6.854275E-1	7.338226E-1	8.756657E-1	8.170636E-1	7.315940E-1	8.156983E-1	6.991125E-1	9.303633E-1	6.988298E-1	8.995838E-1	8.183340E-1	6.508529E-1	7.211648E-1	9.466001E-1	9.393776E-1	7.895374E-1	7.140165E-1	7.516987E-1	9.106140E-1	7.471230E-1	6.828162E-1	7.444348E-1	7.603093E-1	8.382324E-1	6.802106E-1	8.520969E-1	8.215930E-1	6.708597E-1	7.791313E-1	9.452659E-1	8.775186E-1	8.347730E-1	7.245636E-1	8.349550E-1	8.235314E-1	7.828792E-1	7.251609E-1	7.446783E-1	7.523096E-1	9.789010E-1	7.352843E-1	7.190271E-1	8.882330E-1	6.737010E-1	8.571154E-1	7.502725E-1	9.620839E-1	8.486973E-1	7.567502E-1	6.391641E-1	9.759980E-1	6.513384E-1	8.126007E-1	7.171350E-1	8.848570E-1	8.536516E-1	7.825279E-1	8.591681E-1	8.533379E-1	6.546066E-1	8.359046E-1	8.061297E-1	9.041124E-1	7.953933E-1	7.432278E-1	8.212993E-1	7.385513E-1
2.853000E+2	1.216138E-2	4.473839E-1	5.498410E-1	6.161978E-1	4.701484E-1	4.939020E-1	6.195357E-1	6.721433E-1	4.659832E-1	5.385824E-1	5.638000E-1	6.550133E-1	4.914745E-1	6.155437E-1	5.688710E-1	6.044701E-1	6.046538E-1	5.746363E-1	5.770633E-1	6.682651E-1	4.685526E-1	5.939890E-1	5.714852E-1	7.048960E-1	5.340031E-1	5.670948E-1	5.259045E-1	7.167042E-1	5.066983E-1	6.598316E-1	4.345430E-1	6.029956E-1	5.859130E-1	5.557368E-1	6.441738E-1	6.628606E-1	4.448788E-1	5.501516E-1	6.243590E-1	7.283788E-1	5.434511E-1	6.098495E-1	5.344867E-1	6.163920E-1	5.641358E-1	5.900300E-1	4.884511E-1	5.289501E-1	6.713623E-1	5.755541E-1	5.923516E-1	5.730101E-1	5.057507E-1	4.894444E-1	6.610365E-1	6.687113E-1	6.071829E-1	5.960559E-1	5.228525E-1	6.301734E-1	5.351936E-1	6.832483E-1	4.679648E-1	5.737827E-1	6.721227E-1	6.381185E-1	4.777074E-1	6.548994E-1	4.751344E-1	5.622922E-1	5.981661E-1	7.686423E-1	5.501535E-1	5.660328E-1	5.216574E-1	6.678597E-1	6.269740E-1	5.183410E-1	5.541499E-1	5.390112E-1	6.301424E-1	5.495226E-1	5.913999E-1	5.606704E-1	4.735390E-1	5.092750E-1	7.380452E-1	5.864847E-1	6.688384E-1	6.027906E-1	5.494800E-1	6.040978E-1	5.706042E-1	5.938140E-1	5.538576E-1	5.762625E-1	6.507264E-1	6.044801E-1	5.957564E-1	6.069743E-1	4.646875E-1	5.559882E-1	6.578556E-1	6.842447E-1	6.500345E-1	5.124935E-1	5.431047E-1	6.588226E-1	5.751199E-1	5.412376E-1	6.133129E-1	5.161768E-1	6.552377E-1	5.248362E-1	6.675182E-1	5.888159E-1	4.671885E-1	5.352752E-1	7.147884E-1	7.089563E-1	6.148043E-1	5.602861E-1	4.979861E-1	6.792633E-1	5.368344E-1	5.091369E-1	5.486829E-1	6.040801E-1	6.352722E-1	5.082014E-1	6.314324E-1	5.940744E-1	4.441086E-1	6.253738E-1	6.757006E-1	5.938365E-1	5.914381E-1	5.188272E-1	6.031539E-1	6.337048E-1	5.868387E-1	5.041073E-1	5.300841E-1	5.892757E-1	6.958236E-1	5.261724E-1	5.371181E-1	7.010291E-1	4.925561E-1	6.424117E-1	5.569818E-1	7.250366E-1	6.039684E-1	5.339079E-1	4.940597E-1	7.447086E-1	5.070105E-1	5.830579E-1	5.396374E-1	6.392519E-1	6.639057E-1	6.274516E-1	6.240840E-1	6.503980E-1	4.761377E-1	6.311556E-1	6.552838E-1	6.519943E-1	5.950380E-1	6.087181E-1	5.794318E-1	5.891512E-1
2.854010E+2	8.300617E-3	2.710996E-1	3.358708E-1	4.392608E-1	3.166023E-1	3.283168E-1	4.069977E-1	4.508397E-1	3.222585E-1	3.523057E-1	3.765602E-1	4.000850E-1	3.189566E-1	3.680199E-1	4.087254E-1	3.809742E-1	3.981333E-1	3.485723E-1	3.950240E-1	4.628297E-1	3.038492E-1	3.697081E-1	3.954867E-1	5.055743E-1	3.720956E-1	3.743757E-1	3.714107E-1	4.780094E-1	3.088286E-1	4.468288E-1	3.610766E-1	4.289279E-1	3.671918E-1	3.687756E-1	4.267611E-1	4.217049E-1	2.703639E-1	3.635319E-1	4.386266E-1	4.577182E-1	3.615750E-1	3.935263E-1	3.811981E-1	4.228974E-1	3.778860E-1	3.984210E-1	3.767663E-1	3.870551E-1	4.266046E-1	3.512356E-1	4.370192E-1	3.753637E-1	3.287170E-1	3.334950E-1	4.682055E-1	4.451974E-1	4.126782E-1	4.048399E-1	3.483782E-1	3.954450E-1	3.379101E-1	4.961005E-1	3.086858E-1	3.936915E-1	4.271629E-1	3.954732E-1	3.248414E-1	4.615227E-1	3.313171E-1	3.764101E-1	3.708753E-1	4.794463E-1	3.802395E-1	3.933922E-1	3.759773E-1	4.158450E-1	4.283947E-1	3.690420E-1	3.577512E-1	4.027892E-1	3.949759E-1	3.469275E-1	3.599525E-1	3.590636E-1	3.396226E-1	3.568502E-1	4.849083E-1	4.037630E-1	4.183728E-1	3.685520E-1	3.692723E-1	4.555803E-1	3.889962E-1	4.111017E-1	3.603261E-1	3.662920E-1	4.414032E-1	4.173977E-1	3.935029E-1	4.207181E-1	2.996400E-1	3.572491E-1	4.252269E-1	4.445616E-1	4.523777E-1	3.061601E-1	3.451755E-1	4.160877E-1	3.920492E-1	3.584688E-1	3.809158E-1	3.559405E-1	4.826444E-1	3.493684E-1	4.091810E-1	4.052031E-1	3.069996E-1	3.419766E-1	4.862877E-1	4.768891E-1	4.004315E-1	3.387338E-1	3.749057E-1	4.373969E-1	3.654279E-1	3.569150E-1	3.869162E-1	3.829879E-1	4.576825E-1	3.390714E-1	3.837811E-1	3.870965E-1	3.135952E-1	3.964608E-1	4.427144E-1	4.207827E-1	4.089376E-1	3.684539E-1	3.705333E-1	4.160370E-1	3.615497E-1	3.656082E-1	3.764062E-1	3.871143E-1	4.971430E-1	3.681412E-1	3.275107E-1	4.364819E-1	3.313003E-1	3.944436E-1	3.542450E-1	5.079595E-1	3.823893E-1	3.475727E-1	3.294632E-1	4.497048E-1	3.454262E-1	4.052532E-1	3.308955E-1	4.313156E-1	4.248749E-1	3.729075E-1	3.857111E-1	4.146173E-1	3.436182E-1	4.301023E-1	4.189077E-1	4.552589E-1	4.249260E-1	4.144264E-1	3.813682E-1	4.326370E-1
2.855020E+2	5.212016E-3	2.458155E-1	2.922538E-1	2.852114E-1	2.600690E-1	2.572594E-1	3.278960E-1	3.876108E-1	2.655978E-1	2.706412E-1	3.030510E-1	3.093742E-1	2.955533E-1	3.327523E-1	3.103224E-1	3.115183E-1	3.523213E-1	3.203152E-1	3.156555E-1	3.621096E-1	2.413755E-1	2.863297E-1	3.184014E-1	4.070768E-1	3.074781E-1	3.322629E-1	3.165248E-1	3.714642E-1	2.559255E-1	3.578244E-1	2.907773E-1	3.533077E-1	3.367936E-1	3.213386E-1	3.491680E-1	3.356991E-1	1.986450E-1	3.234525E-1	3.487085E-1	3.910804E-1	2.730757E-1	3.177015E-1	3.172639E-1	3.206595E-1	3.186250E-1	3.588262E-1	3.304579E-1	3.079221E-1	3.570020E-1	2.727592E-1	3.668440E-1	3.355023E-1	2.819145E-1	2.700801E-1	3.509332E-1	3.311281E-1	3.117422E-1	3.251665E-1	3.036218E-1	3.085383E-1	2.940691E-1	3.888141E-1	2.655476E-1	2.890991E-1	3.634584E-1	3.422479E-1	2.653929E-1	3.902352E-1	2.540323E-1	3.080326E-1	3.234031E-1	4.207810E-1	3.065591E-1	3.014667E-1	3.245141E-1	3.379928E-1	3.348961E-1	2.779207E-1	3.519099E-1	3.281088E-1	3.367590E-1	2.935405E-1	3.504405E-1	2.836593E-1	2.864703E-1	3.104871E-1	3.864203E-1	3.282578E-1	3.441902E-1	2.993815E-1	3.053526E-1	3.557152E-1	3.128126E-1	3.406069E-1	2.917408E-1	2.944039E-1	3.491728E-1	3.427224E-1	3.324305E-1	3.493334E-1	2.623077E-1	3.221778E-1	3.723564E-1	3.789059E-1	3.539632E-1	3.083870E-1	3.155255E-1	3.465039E-1	3.114013E-1	2.894990E-1	3.370529E-1	2.951845E-1	3.715689E-1	2.822784E-1	3.627674E-1	3.375993E-1	2.724758E-1	2.645225E-1	3.596192E-1	3.674389E-1	3.349063E-1	2.972867E-1	2.699473E-1	3.383724E-1	2.876608E-1	3.139980E-1	3.094309E-1	3.188227E-1	3.881198E-1	2.872524E-1	3.377431E-1	3.231070E-1	2.648172E-1	2.978628E-1	3.512698E-1	3.465035E-1	3.458505E-1	3.071073E-1	3.615234E-1	3.072028E-1	3.054246E-1	3.076159E-1	3.127202E-1	2.813236E-1	4.083517E-1	3.154641E-1	2.945729E-1	3.925361E-1	2.382415E-1	3.112834E-1	3.055589E-1	4.246022E-1	3.170736E-1	3.080236E-1	2.753200E-1	3.545712E-1	2.756152E-1	3.374831E-1	2.697362E-1	3.476900E-1	3.525902E-1	3.251314E-1	3.807797E-1	3.489355E-1	2.783574E-1	3.591425E-1	3.442621E-1	3.527585E-1	3.578263E-1	2.749354E-1	3.070941E-1	2.867944E-1
2.856030E+2	5.984165E-3	1.847127E-1	2.165417E-1	2.640844E-1	1.888793E-1	2.038028E-1	2.839499E-1	2.769588E-1	2.234475E-1	2.247469E-1	2.614423E-1	2.530712E-1	2.360414E-1	2.759333E-1	2.845967E-1	2.613182E-1	2.221549E-1	2.238237E-1	2.770633E-1	2.709830E-1	2.054059E-1	2.410857E-1	2.679216E-1	2.977221E-1	2.668202E-1	2.637401E-1	2.758687E-1	3.243852E-1	2.078322E-1	3.000094E-1	2.375775E-1	2.591405E-1	2.685822E-1	2.522749E-1	2.654292E-1	2.572812E-1	1.615909E-1	2.307691E-1	2.845866E-1	3.096357E-1	2.180247E-1	2.678951E-1	2.671953E-1	2.826363E-1	2.432018E-1	2.584257E-1	2.855117E-1	2.472075E-1	2.828095E-1	2.158112E-1	3.155925E-1	2.798612E-1	2.167985E-1	1.911351E-1	3.100051E-1	2.633030E-1	2.586954E-1	2.948911E-1	2.543147E-1	2.614302E-1	2.177011E-1	2.863672E-1	2.071452E-1	2.579296E-1	2.732099E-1	2.475377E-1	2.186835E-1	3.050190E-1	2.137097E-1	2.549234E-1	2.615456E-1	3.158442E-1	2.396465E-1	2.655934E-1	2.508827E-1	2.424841E-1	2.902157E-1	2.043224E-1	2.650281E-1	2.368328E-1	2.655201E-1	2.381009E-1	3.226985E-1	2.193667E-1	2.105384E-1	2.133163E-1	2.952584E-1	2.535082E-1	3.067009E-1	2.254936E-1	2.522139E-1	2.865779E-1	2.420160E-1	2.686730E-1	2.822341E-1	2.360392E-1	2.505262E-1	2.444645E-1	2.412173E-1	2.336410E-1	2.007421E-1	2.176503E-1	2.817226E-1	3.156232E-1	2.968989E-1	2.163532E-1	2.650420E-1	2.817746E-1	2.275279E-1	2.239783E-1	2.878026E-1	2.264169E-1	2.997972E-1	2.402542E-1	3.093482E-1	2.633194E-1	1.923820E-1	2.187234E-1	3.223640E-1	2.983127E-1	2.548197E-1	2.467972E-1	2.246413E-1	2.857922E-1	2.487761E-1	2.335293E-1	2.251487E-1	2.504723E-1	3.013712E-1	2.555853E-1	2.655110E-1	2.922974E-1	1.909915E-1	2.378762E-1	3.154859E-1	2.635319E-1	2.955315E-1	2.599749E-1	2.779769E-1	2.582699E-1	2.445572E-1	2.230152E-1	2.490338E-1	2.624843E-1	3.019782E-1	2.564016E-1	2.429200E-1	3.028897E-1	2.105372E-1	2.613870E-1	2.198131E-1	3.568736E-1	2.840015E-1	2.205602E-1	2.204538E-1	3.266414E-1	2.230611E-1	2.514952E-1	2.225361E-1	2.557761E-1	2.499146E-1	2.710894E-1	2.665252E-1	2.984109E-1	2.344064E-1	2.519634E-1	2.548435E-1	2.858026E-1	2.614292E-1	2.525170E-1	2.728139E-1	2.085375E-1
2.858030E+2	4.439867E-3	1.734755E-1	2.033737E-1	2.359153E-1	1.798063E-1	1.835939E-1	2.687681E-1	2.470998E-1	2.110098E-1	2.092235E-1	2.233009E-1	2.413409E-1	1.939149E-1	2.504627E-1	2.530820E-1	2.228076E-1	2.097923E-1	2.238243E-1	2.231796E-1	2.637889E-1	1.871055E-1	2.139394E-1	2.222160E-1	2.845372E-1	2.276139E-1	2.201998E-1	2.108190E-1	2.599631E-1	1.672966E-1	2.482805E-1	2.027441E-1	2.484394E-1	2.300281E-1	2.173941E-1	2.446858E-1	2.252398E-1	1.759342E-1	1.906899E-1	2.595276E-1	2.866000E-1	1.922415E-1	2.084251E-1	2.456271E-1	2.217993E-1	2.108775E-1	2.294365E-1	2.453326E-1	2.540295E-1	2.598634E-1	1.699750E-1	2.706482E-1	2.408298E-1	1.815279E-1	1.878995E-1	2.431048E-1	2.609906E-1	2.373291E-1	2.192011E-1	2.118339E-1	2.370636E-1	2.099229E-1	2.726538E-1	2.164367E-1	2.198336E-1	2.519747E-1	2.428412E-1	1.585281E-1	2.640491E-1	1.733872E-1	2.104451E-1	2.169504E-1	2.860977E-1	2.103248E-1	2.080469E-1	2.184211E-1	2.304448E-1	2.364339E-1	2.092286E-1	2.496962E-1	2.133222E-1	2.333470E-1	2.079848E-1	2.759335E-1	2.209542E-1	1.967325E-1	2.247479E-1	2.586313E-1	2.406719E-1	2.692099E-1	2.097727E-1	2.437427E-1	2.515828E-1	1.973833E-1	2.341446E-1	2.394535E-1	2.047214E-1	2.681706E-1	2.358175E-1	2.443899E-1	2.443076E-1	1.810934E-1	2.369053E-1	2.371604E-1	2.452208E-1	2.464509E-1	2.215486E-1	2.482139E-1	2.704468E-1	2.291408E-1	2.322550E-1	2.616393E-1	2.050519E-1	2.861266E-1	1.790616E-1	2.953368E-1	2.015578E-1	1.751203E-1	1.897629E-1	2.793131E-1	2.612808E-1	2.289336E-1	2.106255E-1	2.314373E-1	2.577498E-1	1.979896E-1	2.382233E-1	2.339845E-1	2.372207E-1	2.547224E-1	2.008874E-1	2.472546E-1	2.362083E-1	1.791266E-1	2.275339E-1	2.630044E-1	2.256027E-1	2.542248E-1	1.978802E-1	2.206411E-1	2.287413E-1	2.026612E-1	1.964065E-1	2.130374E-1	2.226316E-1	2.659337E-1	2.101097E-1	1.860261E-1	2.607021E-1	2.162205E-1	2.273671E-1	2.118205E-1	2.778584E-1	2.385285E-1	2.319686E-1	1.886899E-1	2.830023E-1	1.869789E-1	2.179744E-1	1.932858E-1	2.527624E-1	2.532000E-1	2.319291E-1	2.180286E-1	2.394654E-1	1.824637E-1	2.445716E-1	2.556210E-1	2.709242E-1	2.151211E-1	2.151531E-1	2.366292E-1	2.547802E-1
2.860050E+2	4.439862E-3	2.991921E-1	3.136509E-1	3.855637E-1	2.858930E-1	3.015890E-1	3.718415E-1	4.315197E-1	2.780349E-1	3.219348E-1	3.418865E-1	3.938289E-1	3.156133E-1	3.301402E-1	3.694934E-1	3.706588E-1	3.806810E-1	3.720059E-1	3.790050E-1	3.828933E-1	2.590446E-1	3.335128E-1	3.647887E-1	4.714497E-1	3.336159E-1	3.522485E-1	3.829297E-1	4.334090E-1	2.930269E-1	4.110741E-1	2.983771E-1	3.390404E-1	3.568118E-1	3.436623E-1	4.075543E-1	3.938798E-1	2.817196E-1	3.453710E-1	3.951419E-1	4.017755E-1	3.406699E-1	3.942701E-1	3.811984E-1	3.738915E-1	3.447919E-1	3.658968E-1	3.658702E-1	3.652256E-1	3.998347E-1	3.165110E-1	4.425392E-1	3.761936E-1	3.212560E-1	3.224945E-1	4.563999E-1	3.766018E-1	3.751036E-1	3.498654E-1	3.400338E-1	3.450881E-1	3.159897E-1	3.984941E-1	3.259413E-1	3.271955E-1	4.385387E-1	3.790362E-1	3.050250E-1	4.074425E-1	2.795701E-1	3.412258E-1	3.780682E-1	4.538315E-1	3.343774E-1	3.291188E-1	3.743941E-1	3.869512E-1	3.804044E-1	3.283874E-1	4.095888E-1	3.481617E-1	3.788900E-1	3.257090E-1	4.447637E-1	3.193770E-1	3.161528E-1	3.193788E-1	4.108387E-1	3.584593E-1	3.784901E-1	3.606918E-1	3.261459E-1	3.881501E-1	3.189687E-1	3.744158E-1	3.630422E-1	3.285689E-1	4.093231E-1	3.340759E-1	3.839852E-1	3.780511E-1	2.721317E-1	3.359310E-1	3.897280E-1	3.994729E-1	4.135075E-1	3.135822E-1	4.092821E-1	3.893874E-1	3.670485E-1	3.481234E-1	4.355525E-1	3.345759E-1	4.185627E-1	2.925995E-1	4.704809E-1	3.734872E-1	2.890471E-1	3.413031E-1	4.482048E-1	4.242213E-1	4.004313E-1	3.379808E-1	3.326200E-1	3.909520E-1	3.138474E-1	3.777032E-1	3.869158E-1	3.536951E-1	3.799358E-1	3.253968E-1	4.282314E-1	3.791972E-1	2.865698E-1	3.881863E-1	4.371482E-1	3.607270E-1	3.946678E-1	3.422690E-1	4.057537E-1	3.316698E-1	3.560161E-1	2.960174E-1	3.854051E-1	3.617535E-1	4.470334E-1	3.378114E-1	3.656894E-1	4.180248E-1	3.078587E-1	3.657155E-1	3.491582E-1	4.593344E-1	3.914835E-1	3.346429E-1	3.056402E-1	4.392315E-1	3.093441E-1	3.841201E-1	3.541631E-1	3.808390E-1	3.706616E-1	3.282646E-1	3.832460E-1	3.708297E-1	2.910101E-1	3.857525E-1	4.142424E-1	4.296342E-1	3.880690E-1	3.558897E-1	4.061257E-1	3.543801E-1
2.862030E+2	2.297149E-2	5.028678E-1	5.588932E-1	7.068664E-1	5.050456E-1	5.643076E-1	6.858541E-1	8.433900E-1	5.765409E-1	5.730034E-1	6.269072E-1	6.667424E-1	5.436309E-1	6.723630E-1	6.499088E-1	7.007449E-1	6.751909E-1	6.573431E-1	6.622577E-1	7.577937E-1	5.045227E-1	6.547452E-1	6.922289E-1	8.336409E-1	6.719503E-1	6.648821E-1	6.241562E-1	8.372909E-1	5.809002E-1	7.541607E-1	5.852751E-1	7.185661E-1	6.444852E-1	6.338696E-1	7.394368E-1	7.201982E-1	4.669921E-1	5.989979E-1	7.142764E-1	7.357832E-1	6.040767E-1	6.276910E-1	6.900861E-1	7.177861E-1	6.064648E-1	6.451803E-1	6.552975E-1	6.415109E-1	6.981330E-1	5.449968E-1	7.666075E-1	6.751557E-1	5.328829E-1	5.768017E-1	7.397438E-1	7.018531E-1	6.506521E-1	6.773230E-1	5.979518E-1	7.113950E-1	5.910550E-1	7.719818E-1	5.801236E-1	6.735258E-1	7.153510E-1	6.584697E-1	5.583858E-1	7.761695E-1	5.423388E-1	6.419556E-1	6.693738E-1	8.529233E-1	6.343585E-1	6.392742E-1	6.942567E-1	7.408961E-1	6.633803E-1	5.744154E-1	7.739111E-1	6.130002E-1	6.738055E-1	6.124908E-1	7.594370E-1	6.376628E-1	5.591345E-1	5.950144E-1	8.576948E-1	6.642546E-1	7.318534E-1	6.373758E-1	7.004235E-1	7.014013E-1	6.290875E-1	6.434481E-1	6.733728E-1	6.417450E-1	7.622057E-1	6.508578E-1	6.766584E-1	7.062569E-1	5.131537E-1	6.378221E-1	7.432026E-1	7.245881E-1	7.616810E-1	5.837451E-1	7.121869E-1	7.008960E-1	6.227027E-1	6.184837E-1	8.164680E-1	5.982975E-1	8.329593E-1	5.454792E-1	8.400355E-1	6.873001E-1	5.417590E-1	5.723187E-1	7.892997E-1	7.344674E-1	6.916543E-1	5.715896E-1	7.154544E-1	7.423596E-1	6.122210E-1	6.063705E-1	8.001692E-1	6.619681E-1	7.228396E-1	6.039226E-1	8.211407E-1	6.517451E-1	4.856353E-1	6.150307E-1	7.393145E-1	6.791780E-1	6.740516E-1	5.973815E-1	7.841711E-1	6.758890E-1	6.050195E-1	5.730164E-1	7.578307E-1	6.298536E-1	8.136266E-1	6.059860E-1	6.673732E-1	7.572774E-1	5.863254E-1	6.718960E-1	6.659800E-1	8.778584E-1	7.337746E-1	6.593987E-1	6.001807E-1	8.040578E-1	5.807432E-1	6.486413E-1	6.440084E-1	6.844550E-1	7.526180E-1	6.470315E-1	7.531339E-1	7.068172E-1	5.846841E-1	6.378087E-1	7.641415E-1	7.263897E-1	6.583582E-1	6.274001E-1	7.127437E-1	5.749225E-1
2.864030E+2	1.370567E-2	5.990872E-1	7.144321E-1	8.362676E-1	7.074476E-1	6.581827E-1	8.975928E-1	9.557981E-1	7.237206E-1	8.146235E-1	7.884880E-1	8.575476E-1	6.987627E-1	8.421687E-1	8.332085E-1	8.396565E-1	8.642584E-1	8.551491E-1	8.377421E-1	8.968824E-1	6.048591E-1	8.273188E-1	8.218412E-1	9.841013E-1	8.164332E-1	7.776589E-1	7.874588E-1	9.471404E-1	6.702162E-1	9.412979E-1	7.005411E-1	8.826469E-1	8.936053E-1	8.068770E-1	9.437907E-1	8.306571E-1	5.363203E-1	7.643259E-1	9.176982E-1	9.941036E-1	8.138265E-1	8.492174E-1	8.441442E-1	9.095901E-1	7.703956E-1	8.092155E-1	8.841155E-1	7.854521E-1	9.306521E-1	7.144514E-1	9.566332E-1	8.155016E-1	7.200912E-1	7.036321E-1	9.837334E-1	8.637083E-1	8.237910E-1	7.880687E-1	7.921483E-1	8.778975E-1	7.897529E-1	9.421892E-1	7.088736E-1	8.210628E-1	9.170831E-1	8.713715E-1	7.190377E-1	9.244796E-1	6.444892E-1	7.521569E-1	8.650166E-1	1.058666E+0	8.125432E-1	7.977145E-1	8.747736E-1	9.230850E-1	8.462386E-1	7.209113E-1	9.002191E-1	7.934765E-1	8.599465E-1	7.432196E-1	1.009908E+0	7.940277E-1	6.688912E-1	7.455342E-1	1.044903E+0	8.348963E-1	9.368518E-1	8.110892E-1	8.120904E-1	8.516259E-1	8.045401E-1	8.132122E-1	8.044307E-1	8.282271E-1	8.760896E-1	8.120003E-1	8.686010E-1	8.112821E-1	6.461085E-1	8.276215E-1	9.290033E-1	9.982856E-1	9.419711E-1	6.943339E-1	9.581975E-1	8.829478E-1	8.049663E-1	7.253866E-1	1.035013E+0	7.191418E-1	9.824843E-1	7.238967E-1	1.092243E+0	8.225068E-1	6.556861E-1	7.447379E-1	1.074925E+0	9.467836E-1	8.631519E-1	7.886208E-1	8.891263E-1	9.605643E-1	7.145882E-1	7.565798E-1	9.129988E-1	8.147104E-1	9.159789E-1	7.464245E-1	9.806860E-1	8.200135E-1	6.636085E-1	7.667198E-1	1.013650E+0	9.012247E-1	8.310175E-1	7.739402E-1	9.217775E-1	8.479980E-1	8.105465E-1	7.244788E-1	9.253532E-1	7.791194E-1	1.040440E+0	7.775855E-1	8.373049E-1	9.532717E-1	7.099304E-1	8.692121E-1	8.636304E-1	9.785822E-1	8.106655E-1	7.422989E-1	7.236281E-1	1.040584E+0	7.195799E-1	8.045851E-1	8.334717E-1	9.413610E-1	9.127939E-1	7.950601E-1	8.780740E-1	8.853374E-1	6.825750E-1	8.706458E-1	8.932157E-1	8.999798E-1	8.473719E-1	7.880646E-1	8.803356E-1	8.808368E-1
2.866150E+2	1.988289E-2	5.983847E-1	6.971508E-1	8.433102E-1	6.990721E-1	6.738285E-1	8.360682E-1	9.197926E-1	7.126651E-1	7.356584E-1	7.690706E-1	8.591118E-1	6.813772E-1	8.055949E-1	8.743702E-1	8.169628E-1	8.591684E-1	7.579684E-1	8.617721E-1	9.280577E-1	5.935002E-1	7.704411E-1	7.959187E-1	9.825499E-1	7.735963E-1	7.690936E-1	7.874585E-1	9.198843E-1	6.949497E-1	9.222800E-1	6.999077E-1	8.377028E-1	8.387398E-1	7.636254E-1	9.023052E-1	8.331863E-1	5.542494E-1	7.148523E-1	8.786352E-1	9.480335E-1	7.385678E-1	8.358367E-1	8.194951E-1	8.174902E-1	7.303750E-1	7.724492E-1	8.691333E-1	7.486140E-1	8.801706E-1	7.179236E-1	9.526908E-1	8.586853E-1	6.861771E-1	6.906897E-1	9.640574E-1	8.552299E-1	8.031618E-1	8.151579E-1	7.519441E-1	7.763710E-1	7.324770E-1	8.954019E-1	6.909549E-1	6.943060E-1	9.178413E-1	7.930987E-1	7.048832E-1	8.794133E-1	6.505380E-1	7.083425E-1	7.801414E-1	1.037182E+0	7.839736E-1	7.476412E-1	8.415204E-1	8.620876E-1	8.387918E-1	7.832945E-1	8.753956E-1	7.796471E-1	8.568827E-1	7.747043E-1	8.989398E-1	7.630712E-1	6.468018E-1	7.112388E-1	9.423453E-1	8.590571E-1	8.794211E-1	7.859365E-1	8.059302E-1	8.806455E-1	7.499038E-1	8.088964E-1	8.383839E-1	8.132801E-1	8.881206E-1	8.395132E-1	8.313231E-1	8.564102E-1	6.127062E-1	8.021777E-1	8.799092E-1	9.001983E-1	8.849071E-1	7.158576E-1	8.339901E-1	8.255007E-1	8.719036E-1	7.329731E-1	9.780685E-1	7.178072E-1	9.414717E-1	6.634415E-1	1.049333E+0	8.325223E-1	6.246152E-1	7.009594E-1	1.036013E+0	8.620220E-1	8.356476E-1	7.456669E-1	8.475959E-1	9.114902E-1	7.233171E-1	7.217101E-1	8.742565E-1	7.937867E-1	9.045212E-1	6.902870E-1	9.536978E-1	7.757740E-1	5.996703E-1	7.756841E-1	9.404939E-1	8.743582E-1	8.227565E-1	7.589777E-1	8.996628E-1	8.420931E-1	7.726030E-1	7.326665E-1	8.796660E-1	7.537587E-1	9.182421E-1	7.632189E-1	7.878977E-1	9.233893E-1	6.793846E-1	7.777362E-1	8.171246E-1	1.068018E+0	9.181482E-1	7.856509E-1	7.091894E-1	9.759984E-1	6.693793E-1	7.929258E-1	8.068802E-1	8.358869E-1	8.511873E-1	7.449335E-1	8.780734E-1	8.735480E-1	6.692563E-1	8.492104E-1	9.336490E-1	8.983259E-1	8.048436E-1	7.905551E-1	9.222350E-1	8.488224E-1
2.868030E+2	3.146515E-2	7.318271E-1	8.321161E-1	9.427821E-1	8.330766E-1	8.009504E-1	9.910782E-1	1.161293E+0	8.121674E-1	8.200228E-1	9.195562E-1	9.803198E-1	8.171182E-1	9.283774E-1	9.862792E-1	9.730657E-1	9.878805E-1	9.102863E-1	9.455098E-1	1.025579E+0	7.234956E-1	9.119899E-1	9.698714E-1	1.160931E+0	9.885049E-1	8.697354E-1	8.965529E-1	1.102416E+0	7.980072E-1	1.101049E+0	8.025063E-1	9.860891E-1	9.395740E-1	9.205882E-1	9.875793E-1	1.000984E+0	6.415074E-1	8.952094E-1	1.028253E+0	1.097761E+0	9.141722E-1	9.978932E-1	9.843375E-1	1.012674E+0	9.212416E-1	8.898184E-1	9.563018E-1	8.618574E-1	1.028555E+0	8.415419E-1	1.089887E+0	9.940486E-1	7.784243E-1	8.511692E-1	1.112813E+0	9.615921E-1	9.637758E-1	1.032666E+0	9.021423E-1	1.005415E+0	8.505642E-1	1.073676E+0	8.024500E-1	9.873010E-1	1.007331E+0	9.942599E-1	8.414723E-1	1.077706E+0	7.762093E-1	8.909044E-1	9.628375E-1	1.209048E+0	9.599021E-1	8.649771E-1	9.729490E-1	9.792665E-1	9.868995E-1	8.183406E-1	1.029448E+0	8.930509E-1	9.924670E-1	8.787393E-1	1.138314E+0	8.622883E-1	8.110906E-1	8.242875E-1	1.182460E+0	9.557035E-1	9.791284E-1	8.865489E-1	9.345396E-1	1.045380E+0	8.653330E-1	8.973743E-1	9.748744E-1	9.655978E-1	1.032481E+0	9.291238E-1	9.701250E-1	9.770253E-1	6.749266E-1	9.128933E-1	9.546832E-1	1.034673E+0	1.029634E+0	7.989855E-1	1.071986E+0	9.363492E-1	9.356160E-1	8.522904E-1	1.104271E+0	8.066043E-1	1.073908E+0	8.337481E-1	1.230606E+0	9.944359E-1	7.295667E-1	9.077282E-1	1.137018E+0	1.034837E+0	9.925850E-1	8.896003E-1	9.555757E-1	1.082375E+0	8.796453E-1	8.974017E-1	1.078165E+0	9.311850E-1	9.929071E-1	8.054402E-1	1.134674E+0	9.748518E-1	7.598459E-1	8.866929E-1	1.148035E+0	9.992103E-1	9.812238E-1	8.697008E-1	1.049555E+0	9.424891E-1	8.935478E-1	8.786708E-1	1.060340E+0	8.892578E-1	1.109890E+0	8.885275E-1	8.859640E-1	1.117625E+0	8.029898E-1	1.025704E+0	9.530097E-1	1.243415E+0	9.371640E-1	8.883250E-1	8.586257E-1	1.102553E+0	8.246885E-1	9.321093E-1	9.032747E-1	9.978649E-1	1.048326E+0	9.180239E-1	9.906851E-1	9.948073E-1	7.158709E-1	9.689550E-1	1.068943E+0	1.016532E+0	9.844069E-1	9.151017E-1	1.099348E+0	9.270795E-1
2.870150E+2	1.988288E-2	7.163762E-1	8.008439E-1	8.477112E-1	7.709600E-1	7.266324E-1	9.215635E-1	1.057668E+0	7.686349E-1	7.491560E-1	8.155340E-1	9.865763E-1	7.703106E-1	8.695983E-1	8.531460E-1	9.826935E-1	8.591684E-1	8.392970E-1	9.324026E-1	1.005595E+0	6.528190E-1	8.253796E-1	8.716394E-1	1.060882E+0	8.745158E-1	8.219129E-1	8.193055E-1	1.069379E+0	7.396088E-1	9.755301E-1	7.518406E-1	9.190295E-1	8.936049E-1	8.159462E-1	9.437902E-1	9.132907E-1	6.080383E-1	7.956373E-1	9.479165E-1	9.908135E-1	8.542437E-1	8.945642E-1	8.595505E-1	9.264890E-1	8.242691E-1	8.318406E-1	9.188471E-1	8.482136E-1	9.558921E-1	7.491749E-1	1.041790E+0	8.595159E-1	7.499361E-1	7.346929E-1	9.553997E-1	8.914548E-1	9.099927E-1	8.541981E-1	8.369053E-1	8.787099E-1	7.826820E-1	1.030115E+0	7.666122E-1	8.653930E-1	9.550027E-1	9.488620E-1	7.770699E-1	1.041652E+0	7.063173E-1	7.455187E-1	8.563847E-1	1.088411E+0	8.200614E-1	7.805254E-1	9.048594E-1	9.367282E-1	8.652695E-1	7.783877E-1	9.710389E-1	8.204446E-1	8.637769E-1	7.726510E-1	1.028138E+0	8.297447E-1	6.813160E-1	7.633174E-1	1.035949E+0	8.182848E-1	9.863073E-1	8.118753E-1	8.706204E-1	9.224701E-1	7.845320E-1	8.714787E-1	8.356673E-1	8.545625E-1	9.554886E-1	8.725268E-1	9.058787E-1	9.360002E-1	6.860605E-1	8.647563E-1	9.939579E-1	9.674352E-1	1.019711E+0	7.292180E-1	9.670111E-1	9.177399E-1	8.872273E-1	7.791825E-1	1.105040E+0	7.605363E-1	1.049130E+0	7.548606E-1	1.053711E+0	8.383645E-1	6.688052E-1	7.784134E-1	1.054227E+0	1.008503E+0	8.607257E-1	7.509420E-1	8.815756E-1	9.509256E-1	7.510912E-1	7.652978E-1	9.646557E-1	8.307520E-1	9.225257E-1	7.579389E-1	1.044186E+0	8.610928E-1	6.952482E-1	8.522173E-1	1.081240E+0	9.146582E-1	8.595573E-1	7.956364E-1	9.791135E-1	8.834329E-1	8.216139E-1	7.913401E-1	9.689649E-1	8.240449E-1	1.012308E+0	8.103094E-1	8.567684E-1	9.611823E-1	6.985640E-1	8.934036E-1	8.694439E-1	1.102750E+0	8.892106E-1	8.077071E-1	7.712742E-1	1.065023E+0	7.752718E-1	8.526797E-1	8.660464E-1	9.421149E-1	9.210065E-1	8.608493E-1	9.331464E-1	9.164934E-1	6.952273E-1	9.238656E-1	9.126547E-1	9.396563E-1	9.050215E-1	7.619098E-1	1.110777E+0	8.132503E-1
2.872110E+2	1.293351E-2	6.229665E-1	6.667019E-1	7.253520E-1	6.076426E-1	5.995109E-1	8.120983E-1	8.556847E-1	6.408027E-1	6.431949E-1	7.219142E-1	9.021208E-1	5.917745E-1	7.592250E-1	7.020051E-1	8.706016E-1	7.530001E-1	6.911147E-1	7.416262E-1	8.209438E-1	5.373366E-1	7.058064E-1	7.358878E-1	9.088702E-1	7.097044E-1	7.405423E-1	7.386710E-1	9.314472E-1	6.097558E-1	8.355569E-1	6.726742E-1	8.441237E-1	7.831325E-1	6.617737E-1	7.186935E-1	8.601693E-1	5.100231E-1	6.797831E-1	8.292543E-1	9.480339E-1	6.563399E-1	7.273035E-1	7.856019E-1	7.853822E-1	6.888147E-1	6.939672E-1	7.567672E-1	7.076830E-1	8.151569E-1	6.186126E-1	8.367830E-1	8.055363E-1	6.366614E-1	6.110979E-1	8.546556E-1	7.881762E-1	7.118031E-1	6.948510E-1	6.821544E-1	7.698741E-1	6.207538E-1	8.445818E-1	6.637449E-1	6.866867E-1	7.851229E-1	7.782273E-1	6.482657E-1	8.114032E-1	5.793007E-1	7.242751E-1	7.139693E-1	9.024997E-1	6.847318E-1	6.766419E-1	7.378028E-1	7.585525E-1	7.287454E-1	6.620324E-1	8.184475E-1	6.966697E-1	7.427465E-1	6.864112E-1	8.474185E-1	6.654430E-1	5.950302E-1	6.432826E-1	8.943223E-1	7.065372E-1	7.358421E-1	7.222677E-1	7.266074E-1	7.859019E-1	6.683341E-1	7.312081E-1	7.535014E-1	7.392569E-1	7.557890E-1	7.216035E-1	7.575600E-1	7.563075E-1	5.668598E-1	6.838970E-1	7.802121E-1	7.854982E-1	8.634042E-1	6.245669E-1	7.907174E-1	7.478253E-1	7.364148E-1	6.722800E-1	8.795692E-1	6.670653E-1	9.132756E-1	6.206804E-1	9.249800E-1	7.565727E-1	5.645442E-1	6.922039E-1	8.869911E-1	7.706763E-1	7.563706E-1	6.748307E-1	7.449030E-1	8.273631E-1	6.479304E-1	6.606879E-1	8.185220E-1	7.233441E-1	7.539382E-1	6.075212E-1	8.465413E-1	7.544443E-1	5.983517E-1	7.481042E-1	8.562054E-1	7.905968E-1	7.679310E-1	7.193267E-1	8.267637E-1	7.568812E-1	6.500773E-1	6.617103E-1	8.644363E-1	6.914437E-1	8.813188E-1	6.794143E-1	7.205244E-1	8.926285E-1	5.792218E-1	7.270837E-1	7.088535E-1	9.108535E-1	8.073584E-1	6.860183E-1	5.886296E-1	9.236295E-1	5.744682E-1	7.543041E-1	6.852249E-1	8.358861E-1	7.682248E-1	6.877591E-1	7.942325E-1	8.398650E-1	5.980021E-1	7.893369E-1	7.796927E-1	8.305437E-1	7.141163E-1	7.183184E-1	8.536738E-1	6.709654E-1
2.874020E+2	1.756643E-2	4.677509E-1	4.971704E-1	5.422533E-1	4.910868E-1	4.723889E-1	5.883738E-1	6.844385E-1	5.219531E-1	5.109115E-1	5.637999E-1	6.722164E-1	4.607151E-1	5.548060E-1	5.765894E-1	6.883665E-1	5.799297E-1	5.808399E-1	5.836168E-1	6.362910E-1	4.325833E-1	5.267691E-1	5.939970E-1	7.033449E-1	5.485236E-1	5.049966E-1	5.265821E-1	7.472645E-1	4.730331E-1	6.727627E-1	5.168757E-1	7.214199E-1	5.792401E-1	5.222508E-1	6.326506E-1	6.696062E-1	4.120075E-1	5.088195E-1	5.919293E-1	6.592737E-1	5.434510E-1	5.823441E-1	5.783937E-1	6.890575E-1	5.194970E-1	5.956873E-1	5.728960E-1	6.224098E-1	6.208808E-1	5.033277E-1	6.104868E-1	6.294809E-1	4.711582E-1	5.036802E-1	6.413605E-1	6.170713E-1	5.755027E-1	6.056165E-1	5.205764E-1	6.577887E-1	5.231722E-1	6.719545E-1	4.613280E-1	6.285024E-1	6.182768E-1	5.676733E-1	4.925693E-1	6.884945E-1	4.422044E-1	5.138300E-1	5.586059E-1	7.512915E-1	5.358688E-1	5.092329E-1	5.644113E-1	6.333480E-1	5.566438E-1	4.882011E-1	6.811873E-1	5.507664E-1	5.703929E-1	4.858693E-1	6.104229E-1	5.186028E-1	4.790611E-1	5.143562E-1	7.193242E-1	5.781787E-1	6.225742E-1	5.328327E-1	5.756639E-1	6.151932E-1	5.359753E-1	5.556894E-1	5.803415E-1	5.392508E-1	6.122302E-1	5.903308E-1	6.132057E-1	5.733336E-1	4.659971E-1	5.580515E-1	5.951662E-1	6.439024E-1	6.401102E-1	4.813209E-1	6.192322E-1	5.665832E-1	5.638292E-1	4.957178E-1	6.710270E-1	5.101677E-1	6.603649E-1	4.702792E-1	6.736485E-1	5.604395E-1	4.499259E-1	5.143965E-1	7.238954E-1	6.274855E-1	5.784012E-1	5.113039E-1	5.923739E-1	6.258074E-1	5.257237E-1	4.789609E-1	6.139336E-1	5.936182E-1	5.812589E-1	4.938076E-1	6.711208E-1	5.300855E-1	4.427907E-1	5.550447E-1	6.494602E-1	5.875147E-1	5.628984E-1	5.756854E-1	6.662234E-1	6.252681E-1	5.401991E-1	5.184351E-1	6.124603E-1	5.523213E-1	6.747247E-1	5.197873E-1	5.475986E-1	6.658737E-1	4.875829E-1	6.076361E-1	5.439023E-1	6.885670E-1	5.601484E-1	5.110909E-1	5.171610E-1	6.495743E-1	5.070102E-1	5.298622E-1	5.256774E-1	6.068558E-1	5.908007E-1	5.279839E-1	5.755875E-1	5.670332E-1	4.534962E-1	5.993714E-1	6.576163E-1	6.619133E-1	5.676319E-1	5.364814E-1	5.813362E-1	5.998226E-1
2.876150E+2	1.370568E-2	3.813645E-1	3.597367E-1	4.542256E-1	3.466138E-1	3.465705E-1	4.285716E-1	5.263638E-1	3.595717E-1	3.772778E-1	4.237167E-1	5.252031E-1	3.356735E-1	3.993687E-1	4.376675E-1	4.676218E-1	4.308567E-1	4.099132E-1	4.649278E-1	5.067942E-1	3.537020E-1	4.136598E-1	4.016254E-1	5.117795E-1	4.417952E-1	3.893645E-1	3.985147E-1	5.300432E-1	3.424936E-1	4.787793E-1	3.674101E-1	4.909933E-1	4.064879E-1	3.827285E-1	4.912937E-1	4.672382E-1	2.811217E-1	3.779355E-1	4.511557E-1	5.087233E-1	3.824798E-1	4.039335E-1	4.720930E-1	5.099280E-1	4.032843E-1	4.132687E-1	4.312472E-1	4.484519E-1	4.633183E-1	3.755426E-1	4.803865E-1	4.384779E-1	3.361787E-1	3.645558E-1	4.674186E-1	4.351779E-1	4.355181E-1	4.351159E-1	4.052720E-1	5.221497E-1	3.654871E-1	4.912609E-1	3.796979E-1	4.955119E-1	4.688746E-1	4.189546E-1	3.481951E-1	5.336295E-1	3.447584E-1	4.049566E-1	4.226632E-1	5.422433E-1	4.020422E-1	3.694768E-1	4.076467E-1	4.744340E-1	4.242569E-1	3.746494E-1	4.716484E-1	4.318311E-1	4.432351E-1	3.681453E-1	4.915283E-1	4.273239E-1	3.299582E-1	3.377968E-1	5.663023E-1	4.324547E-1	4.710188E-1	4.220028E-1	4.370424E-1	5.434947E-1	4.382449E-1	4.441915E-1	3.983531E-1	4.730566E-1	4.550372E-1	4.291887E-1	4.252288E-1	4.962050E-1	3.094638E-1	3.868191E-1	4.690330E-1	4.785765E-1	4.523777E-1	3.774119E-1	4.789983E-1	4.387432E-1	3.936620E-1	3.964021E-1	4.694117E-1	3.893232E-1	4.852071E-1	3.958162E-1	5.011307E-1	3.993604E-1	3.139044E-1	3.406296E-1	5.467248E-1	4.834727E-1	4.344073E-1	3.568201E-1	4.254969E-1	4.373979E-1	3.765373E-1	3.656329E-1	4.677992E-1	4.143729E-1	4.486804E-1	3.750562E-1	4.885562E-1	4.068471E-1	3.083220E-1	3.992183E-1	4.896293E-1	4.436985E-1	4.179498E-1	3.490019E-1	4.598135E-1	4.556895E-1	3.789405E-1	3.792533E-1	4.733203E-1	3.929111E-1	4.734062E-1	3.657468E-1	4.016219E-1	5.252497E-1	3.710815E-1	4.624837E-1	3.985710E-1	5.270623E-1	4.146343E-1	3.673470E-1	3.684465E-1	5.247651E-1	3.830768E-1	4.300292E-1	4.186467E-1	4.019340E-1	4.141970E-1	4.042357E-1	4.818824E-1	4.230382E-1	3.349615E-1	4.404514E-1	4.383462E-1	4.188879E-1	4.230365E-1	3.882719E-1	4.118391E-1	4.539799E-1
2.878030E+2	9.844915E-3	2.935740E-1	3.169431E-1	3.697185E-1	2.865908E-1	2.807280E-1	3.622537E-1	3.498482E-1	2.828723E-1	2.746907E-1	3.335643E-1	3.930470E-1	2.962223E-1	3.209971E-1	3.392645E-1	3.926647E-1	3.646828E-1	3.161795E-1	3.418694E-1	3.725021E-1	2.439000E-1	3.315741E-1	3.368200E-1	4.559383E-1	3.089304E-1	3.194144E-1	3.117822E-1	4.565350E-1	2.449331E-1	3.570632E-1	3.015439E-1	4.060993E-1	3.212230E-1	2.857597E-1	3.868121E-1	3.964095E-1	2.165749E-1	3.146854E-1	3.715566E-1	3.680457E-1	3.225517E-1	3.675080E-1	3.265082E-1	3.823397E-1	3.178554E-1	3.107472E-1	3.481638E-1	3.877375E-1	3.730641E-1	3.040104E-1	3.912867E-1	3.653978E-1	2.853064E-1	2.953169E-1	3.611648E-1	3.488552E-1	3.257406E-1	3.418980E-1	3.461026E-1	3.597079E-1	3.159893E-1	3.452542E-1	2.874485E-1	3.943835E-1	3.877270E-1	3.234624E-1	2.937017E-1	3.918743E-1	2.688174E-1	3.053770E-1	3.198068E-1	4.579634E-1	3.253554E-1	3.096876E-1	3.506420E-1	3.789251E-1	3.638559E-1	3.038550E-1	3.979067E-1	3.232680E-1	3.329291E-1	3.092826E-1	3.583672E-1	3.296952E-1	2.416016E-1	3.149328E-1	4.271177E-1	3.403387E-1	3.673227E-1	3.268925E-1	3.500194E-1	3.966854E-1	3.081954E-1	3.269392E-1	3.250151E-1	3.883566E-1	3.684209E-1	3.387922E-1	3.237052E-1	4.043080E-1	2.583780E-1	3.249283E-1	3.859518E-1	4.050100E-1	3.779459E-1	2.928004E-1	3.724203E-1	3.845324E-1	3.565648E-1	3.136387E-1	3.716808E-1	3.285673E-1	3.698603E-1	2.830153E-1	3.951691E-1	3.668107E-1	2.441669E-1	2.773191E-1	3.885957E-1	3.913038E-1	3.478499E-1	3.055764E-1	3.280894E-1	4.146124E-1	2.805184E-1	3.046103E-1	3.522515E-1	3.753163E-1	3.750253E-1	2.807749E-1	3.885439E-1	3.720874E-1	2.615214E-1	3.171683E-1	3.520636E-1	3.702096E-1	3.578671E-1	3.190774E-1	3.877336E-1	3.620416E-1	3.228151E-1	2.878298E-1	3.895586E-1	3.661009E-1	4.303303E-1	3.026935E-1	3.312535E-1	4.356024E-1	2.737604E-1	3.301834E-1	3.404385E-1	4.159192E-1	3.534520E-1	3.049817E-1	2.904800E-1	4.305041E-1	2.858123E-1	3.403981E-1	3.089584E-1	3.740582E-1	3.378054E-1	3.274811E-1	3.618742E-1	3.901971E-1	2.843507E-1	3.266191E-1	3.201577E-1	3.792105E-1	3.313641E-1	3.122989E-1	3.870818E-1	3.081373E-1
2.880020E+2	1.061707E-2	3.680203E-1	3.243498E-1	4.031690E-1	3.396340E-1	3.309247E-1	4.245765E-1	4.622572E-1	3.284774E-1	3.415073E-1	3.876564E-1	4.751555E-1	3.477098E-1	4.098183E-1	3.701361E-1	4.373637E-1	4.177672E-1	3.864801E-1	4.023057E-1	4.692248E-1	3.076359E-1	3.878058E-1	3.832076E-1	5.094522E-1	3.844390E-1	3.543895E-1	3.761538E-1	5.292170E-1	3.376841E-1	4.437863E-1	3.376437E-1	4.945607E-1	3.790545E-1	3.638925E-1	4.113960E-1	4.663952E-1	2.990515E-1	3.522595E-1	4.585267E-1	4.898023E-1	3.831772E-1	3.868358E-1	4.335784E-1	4.955640E-1	3.878909E-1	3.793308E-1	3.822144E-1	4.027455E-1	4.441970E-1	3.442907E-1	4.819633E-1	4.509342E-1	3.232909E-1	3.503197E-1	4.634832E-1	4.220752E-1	4.148892E-1	3.968729E-1	3.681014E-1	4.628578E-1	3.400314E-1	4.767408E-1	3.392144E-1	4.435629E-1	4.028944E-1	4.126928E-1	3.411180E-1	4.975766E-1	3.319893E-1	3.631332E-1	3.982077E-1	5.215866E-1	3.779843E-1	4.046029E-1	4.329825E-1	4.310938E-1	3.886778E-1	3.445093E-1	4.409838E-1	4.318315E-1	4.240843E-1	3.407672E-1	4.217775E-1	4.185932E-1	3.258167E-1	3.593905E-1	5.052569E-1	4.128231E-1	4.702205E-1	3.622640E-1	3.985373E-1	4.743583E-1	3.497499E-1	3.801705E-1	3.997117E-1	4.396034E-1	4.397994E-1	3.537269E-1	4.165042E-1	4.773329E-1	2.989848E-1	3.778796E-1	4.342904E-1	4.548457E-1	4.854586E-1	3.722164E-1	4.205006E-1	4.476440E-1	4.057592E-1	3.398472E-1	4.824937E-1	3.853175E-1	4.843527E-1	3.619017E-1	4.879953E-1	4.168870E-1	3.118330E-1	3.487120E-1	5.268553E-1	4.415033E-1	4.352162E-1	3.530519E-1	4.005787E-1	5.039987E-1	3.479696E-1	3.649623E-1	4.195409E-1	4.241373E-1	4.928726E-1	3.477073E-1	4.837941E-1	4.344969E-1	3.149134E-1	3.737070E-1	4.689552E-1	4.271041E-1	4.051820E-1	3.864093E-1	4.450705E-1	4.725634E-1	3.805210E-1	3.226255E-1	4.255557E-1	4.726162E-1	4.962637E-1	3.306286E-1	3.866499E-1	4.980039E-1	3.355629E-1	3.815912E-1	3.956643E-1	5.461648E-1	4.229019E-1	3.658260E-1	3.316286E-1	5.526952E-1	3.697425E-1	3.979658E-1	4.066811E-1	5.096680E-1	4.363751E-1	3.823056E-1	4.572226E-1	4.626156E-1	3.322971E-1	4.057098E-1	4.290158E-1	4.403798E-1	4.031897E-1	4.019726E-1	4.746865E-1	3.721658E-1
2.882210E+2	9.844915E-3	3.904954E-1	4.305113E-1	4.832747E-1	4.191988E-1	3.993753E-1	4.781101E-1	5.544659E-1	3.899749E-1	4.272214E-1	4.542301E-1	5.908902E-1	4.139084E-1	4.894959E-1	4.904067E-1	5.405154E-1	4.621255E-1	4.188728E-1	4.729373E-1	5.491604E-1	3.631676E-1	4.543793E-1	5.114548E-1	5.978670E-1	4.454256E-1	4.771593E-1	4.506902E-1	5.853811E-1	3.816558E-1	5.495266E-1	4.066762E-1	5.922957E-1	4.472662E-1	4.524892E-1	5.297056E-1	6.223870E-1	3.331175E-1	4.424384E-1	5.550776E-1	5.663112E-1	4.068704E-1	4.700941E-1	5.144589E-1	5.606252E-1	4.456131E-1	4.846804E-1	4.646163E-1	5.166709E-1	5.290971E-1	4.436020E-1	5.497729E-1	5.065745E-1	3.748406E-1	4.117932E-1	5.461262E-1	5.392274E-1	5.069837E-1	4.924807E-1	4.697510E-1	5.586997E-1	4.489261E-1	5.598277E-1	4.533636E-1	5.391497E-1	5.280287E-1	4.925314E-1	4.317057E-1	6.417893E-1	3.904567E-1	4.520911E-1	4.406445E-1	6.240450E-1	4.802331E-1	4.643917E-1	5.208661E-1	5.410494E-1	4.490797E-1	4.054904E-1	5.702117E-1	5.217237E-1	5.029842E-1	4.475403E-1	5.699985E-1	4.535169E-1	4.079613E-1	4.203600E-1	5.882794E-1	4.890832E-1	4.973414E-1	4.471550E-1	4.917209E-1	6.083648E-1	4.359368E-1	4.866325E-1	4.873101E-1	5.506388E-1	5.272175E-1	4.716360E-1	5.188204E-1	5.692310E-1	3.808535E-1	4.762175E-1	5.113298E-1	5.529327E-1	5.416950E-1	4.345619E-1	5.254758E-1	5.512102E-1	5.106015E-1	4.281281E-1	5.825319E-1	4.260441E-1	5.527074E-1	3.906551E-1	6.307381E-1	5.195439E-1	3.808795E-1	4.113484E-1	6.220641E-1	5.583598E-1	5.250107E-1	4.148457E-1	4.821289E-1	6.275610E-1	4.392279E-1	4.434199E-1	5.262535E-1	5.482838E-1	4.969655E-1	3.973672E-1	5.449136E-1	5.608949E-1	3.590768E-1	4.474835E-1	5.715331E-1	4.895302E-1	5.260985E-1	4.694517E-1	5.548278E-1	5.738037E-1	4.437596E-1	4.317875E-1	5.363134E-1	5.726106E-1	5.613190E-1	4.287997E-1	4.645044E-1	6.333534E-1	4.023381E-1	4.647513E-1	4.930363E-1	6.772791E-1	4.931790E-1	4.510076E-1	4.269216E-1	6.626666E-1	4.497505E-1	4.941555E-1	4.505567E-1	5.985687E-1	5.111233E-1	5.013544E-1	5.353106E-1	5.687172E-1	4.142066E-1	4.788879E-1	5.526471E-1	5.412271E-1	4.655639E-1	4.854180E-1	4.804004E-1	5.820369E-1
2.884160E+2	1.138923E-2	4.761794E-1	4.790661E-1	5.809864E-1	4.875969E-1	4.678251E-1	5.803842E-1	6.853160E-1	4.970779E-1	4.933631E-1	5.887655E-1	6.784728E-1	4.827814E-1	5.783172E-1	5.566513E-1	6.732378E-1	5.733844E-1	5.339726E-1	5.523059E-1	6.490810E-1	4.205933E-1	5.312940E-1	5.544310E-1	6.963647E-1	5.724830E-1	5.142756E-1	5.116740E-1	7.092713E-1	4.517348E-1	6.301626E-1	4.858427E-1	6.864632E-1	5.681185E-1	5.096939E-1	5.911651E-1	6.552722E-1	4.036407E-1	5.344959E-1	6.140401E-1	6.938268E-1	4.953686E-1	5.578129E-1	5.907178E-1	7.144062E-1	5.225755E-1	5.271034E-1	5.946882E-1	6.462868E-1	5.979350E-1	5.297180E-1	6.254681E-1	6.269899E-1	4.664102E-1	4.959155E-1	6.830752E-1	6.186139E-1	5.740290E-1	5.888857E-1	5.638156E-1	6.845916E-1	5.047880E-1	6.429145E-1	5.150848E-1	6.631359E-1	6.251031E-1	5.950687E-1	4.932763E-1	6.835778E-1	4.563166E-1	5.118386E-1	5.571670E-1	7.265029E-1	5.636866E-1	5.376331E-1	5.739123E-1	6.325452E-1	5.632630E-1	5.323598E-1	6.096376E-1	5.991708E-1	5.336247E-1	5.248830E-1	6.310315E-1	5.447962E-1	4.707778E-1	5.111803E-1	7.258360E-1	5.955453E-1	5.826909E-1	5.336195E-1	5.317671E-1	6.885975E-1	5.159676E-1	5.621632E-1	5.701559E-1	6.623862E-1	5.729326E-1	5.659633E-1	5.949634E-1	6.455383E-1	4.378344E-1	5.339825E-1	5.611783E-1	5.940676E-1	6.558234E-1	4.835474E-1	6.120203E-1	6.102757E-1	5.420541E-1	5.053739E-1	7.079646E-1	5.488911E-1	6.646371E-1	4.717537E-1	7.419546E-1	5.662824E-1	4.575220E-1	5.278668E-1	6.758773E-1	6.381842E-1	5.978160E-1	5.316507E-1	5.825575E-1	7.186987E-1	5.376277E-1	5.218781E-1	5.969414E-1	6.549945E-1	5.419762E-1	4.650193E-1	6.361952E-1	6.343650E-1	4.137873E-1	5.702139E-1	6.629780E-1	6.175424E-1	5.523846E-1	5.001246E-1	6.703185E-1	6.514224E-1	5.449421E-1	4.590785E-1	6.443034E-1	6.131871E-1	6.545048E-1	5.221817E-1	5.401122E-1	7.414582E-1	4.620097E-1	5.426197E-1	5.497149E-1	8.075250E-1	5.775118E-1	5.658516E-1	4.983907E-1	8.110401E-1	5.383859E-1	5.808719E-1	5.336546E-1	6.769214E-1	6.318710E-1	5.162356E-1	6.281936E-1	6.377673E-1	4.608210E-1	6.126769E-1	6.296247E-1	6.081835E-1	5.723562E-1	5.701089E-1	6.689415E-1	6.425083E-1
2.886030E+2	1.602212E-2	5.688866E-1	6.428349E-1	6.742960E-1	5.887978E-1	5.460546E-1	7.098246E-1	7.871858E-1	5.682491E-1	6.006746E-1	6.213592E-1	8.207941E-1	5.984618E-1	6.821594E-1	6.692035E-1	8.204007E-1	7.391828E-1	6.607894E-1	6.826459E-1	8.089527E-1	5.083085E-1	6.172571E-1	6.506171E-1	8.289872E-1	6.588818E-1	6.506068E-1	6.112821E-1	8.298580E-1	5.437997E-1	7.313383E-1	5.637417E-1	8.227212E-1	6.281743E-1	6.227073E-1	7.033295E-1	8.315002E-1	4.448791E-1	6.196641E-1	7.946135E-1	8.057107E-1	6.110449E-1	6.351248E-1	6.415567E-1	7.972119E-1	6.326320E-1	6.586142E-1	6.668746E-1	7.404280E-1	7.042512E-1	5.602762E-1	7.397989E-1	8.080276E-1	5.532322E-1	5.787431E-1	8.082178E-1	7.411609E-1	6.911742E-1	6.430630E-1	5.903663E-1	7.609396E-1	5.825692E-1	7.953753E-1	5.907416E-1	7.573378E-1	7.130759E-1	6.600348E-1	5.774948E-1	8.269717E-1	5.087367E-1	6.154010E-1	6.700928E-1	8.165666E-1	6.396217E-1	5.884538E-1	7.156339E-1	6.815038E-1	6.757911E-1	5.905375E-1	7.447071E-1	6.690103E-1	7.167022E-1	5.645802E-1	7.499258E-1	6.463934E-1	5.563733E-1	5.721504E-1	8.332766E-1	6.544393E-1	6.879818E-1	6.436640E-1	6.488255E-1	8.465049E-1	6.144668E-1	6.427285E-1	6.740521E-1	7.527808E-1	7.084712E-1	6.217740E-1	7.091778E-1	8.162048E-1	5.308372E-1	5.972494E-1	7.061933E-1	7.404083E-1	7.145421E-1	5.837455E-1	7.426374E-1	7.203156E-1	6.291542E-1	6.122762E-1	8.110805E-1	6.503748E-1	7.731498E-1	5.587504E-1	8.426623E-1	6.814577E-1	5.258781E-1	5.810739E-1	8.373176E-1	7.632693E-1	7.418093E-1	6.296158E-1	6.890258E-1	8.291163E-1	5.820660E-1	5.875942E-1	7.247237E-1	7.679818E-1	7.138373E-1	5.902478E-1	7.758962E-1	7.038837E-1	5.172750E-1	6.405425E-1	7.798686E-1	7.368637E-1	7.033415E-1	5.831674E-1	7.096347E-1	7.813475E-1	6.263630E-1	6.228217E-1	7.045282E-1	7.081094E-1	8.021983E-1	6.123711E-1	6.673734E-1	8.609884E-1	5.586206E-1	6.582876E-1	6.311008E-1	9.030393E-1	6.891270E-1	6.479907E-1	5.655280E-1	9.236306E-1	6.246694E-1	6.741461E-1	6.200764E-1	8.245858E-1	7.197615E-1	6.462485E-1	7.334062E-1	7.876570E-1	5.314098E-1	6.673748E-1	7.447026E-1	7.313493E-1	6.933254E-1	6.510641E-1	6.689414E-1	7.065369E-1
2.888210E+2	2.142719E-2	6.644042E-1	7.300693E-1	8.485920E-1	6.816239E-1	6.894738E-1	8.584410E-1	9.435035E-1	6.822613E-1	6.803152E-1	7.482665E-1	9.897041E-1	7.194914E-1	7.853489E-1	7.714656E-1	9.544985E-1	8.853470E-1	7.372920E-1	7.991503E-1	9.784171E-1	6.484010E-1	7.620378E-1	7.986474E-1	1.002714E+0	7.917468E-1	7.640968E-1	7.874580E-1	1.014041E+0	6.791480E-1	9.070660E-1	7.005409E-1	9.960764E-1	8.053751E-1	7.238609E-1	8.915496E-1	9.099182E-1	5.381129E-1	7.336397E-1	9.073793E-1	9.768271E-1	7.434454E-1	8.172526E-1	8.010077E-1	9.687368E-1	7.542333E-1	7.703276E-1	7.949034E-1	8.352521E-1	8.526354E-1	7.012556E-1	9.802884E-1	8.387542E-1	6.753240E-1	6.945732E-1	9.081762E-1	8.313376E-1	8.112659E-1	8.414494E-1	7.640812E-1	9.493721E-1	6.582303E-1	9.591284E-1	7.009095E-1	9.208055E-1	8.412439E-1	8.377142E-1	6.878983E-1	9.842954E-1	6.418008E-1	7.568050E-1	8.232981E-1	1.012394E+0	8.140463E-1	7.267152E-1	8.510210E-1	8.917836E-1	8.346550E-1	7.251168E-1	8.564130E-1	7.851791E-1	7.925375E-1	6.980465E-1	8.941848E-1	7.694220E-1	6.661296E-1	6.559847E-1	9.806004E-1	8.167750E-1	8.499074E-1	7.820061E-1	7.581830E-1	1.042820E+0	7.322043E-1	8.139313E-1	8.329512E-1	8.972682E-1	8.456139E-1	7.734831E-1	7.908724E-1	9.064615E-1	6.192559E-1	7.636676E-1	8.557404E-1	9.168095E-1	9.179873E-1	7.002719E-1	8.283805E-1	8.255010E-1	7.880301E-1	7.660789E-1	9.811464E-1	7.798980E-1	9.389086E-1	6.980925E-1	9.889078E-1	8.116568E-1	6.184014E-1	6.928768E-1	9.598474E-1	8.990544E-1	8.307949E-1	7.185381E-1	8.105962E-1	9.921128E-1	7.082398E-1	6.828160E-1	9.007645E-1	8.447008E-1	8.685130E-1	6.938853E-1	9.227408E-1	8.429229E-1	6.247185E-1	7.453460E-1	9.206152E-1	8.956937E-1	8.640628E-1	7.312969E-1	9.053955E-1	8.994621E-1	7.243829E-1	7.067404E-1	8.512834E-1	8.573756E-1	8.909890E-1	7.121382E-1	7.908924E-1	1.074560E+0	6.566517E-1	8.238521E-1	7.836987E-1	1.027208E+0	7.933026E-1	7.590319E-1	7.250715E-1	1.128736E+0	7.407591E-1	8.104144E-1	7.749705E-1	1.010673E+0	8.437954E-1	7.840941E-1	8.978010E-1	8.718640E-1	6.452827E-1	7.996860E-1	8.885506E-1	8.941933E-1	7.301833E-1	8.005199E-1	8.746231E-1	8.808356E-1
2.890190E+2	1.061707E-2	6.201563E-1	6.271990E-1	7.095069E-1	6.174136E-1	6.027702E-1	7.361923E-1	8.381210E-1	6.269828E-1	6.708662E-1	6.428569E-1	9.193248E-1	6.466060E-1	7.729393E-1	7.270873E-1	8.252142E-1	8.242635E-1	6.911141E-1	7.598305E-1	8.409277E-1	6.155865E-1	7.142091E-1	6.949576E-1	9.135236E-1	7.329383E-1	6.848684E-1	7.027585E-1	1.014041E+0	6.241841E-1	8.195829E-1	6.011080E-1	8.569642E-1	8.528268E-1	6.840973E-1	7.647894E-1	9.006426E-1	5.470777E-1	6.797833E-1	7.901911E-1	8.912687E-1	7.023316E-1	7.116929E-1	7.686548E-1	8.791718E-1	6.734225E-1	7.271980E-1	7.165885E-1	7.902272E-1	8.778765E-1	6.311128E-1	8.454565E-1	8.337717E-1	6.292003E-1	6.246867E-1	8.160893E-1	7.511808E-1	7.456948E-1	7.275171E-1	6.669825E-1	7.966769E-1	6.504519E-1	7.824685E-1	6.212698E-1	8.210622E-1	8.283509E-1	7.289150E-1	6.114644E-1	8.876066E-1	6.122307E-1	6.645268E-1	7.125303E-1	9.124144E-1	6.591699E-1	6.975675E-1	7.425531E-1	8.195499E-1	7.543958E-1	6.473129E-1	7.943542E-1	7.512972E-1	7.205325E-1	6.453443E-1	8.172990E-1	7.225917E-1	5.839859E-1	6.407422E-1	8.682762E-1	7.035171E-1	7.892854E-1	6.806074E-1	7.081242E-1	8.917419E-1	6.344744E-1	7.405589E-1	7.175117E-1	8.225329E-1	7.982958E-1	7.145293E-1	7.488350E-1	8.219485E-1	5.662048E-1	6.832093E-1	8.096682E-1	8.464077E-1	8.063402E-1	6.230825E-1	7.730885E-1	8.068910E-1	7.662555E-1	6.757280E-1	8.841870E-1	6.991124E-1	8.534661E-1	6.265786E-1	8.531716E-1	7.307003E-1	6.128775E-1	6.221585E-1	8.331781E-1	7.583320E-1	7.498988E-1	6.461945E-1	7.403728E-1	9.553070E-1	6.312659E-1	6.439226E-1	7.858962E-1	8.384239E-1	7.760345E-1	6.607790E-1	8.139969E-1	7.986841E-1	5.620983E-1	6.550219E-1	8.315552E-1	7.771630E-1	7.168609E-1	6.632170E-1	8.071058E-1	8.378739E-1	7.014587E-1	6.603464E-1	8.132099E-1	7.812935E-1	8.505492E-1	6.969740E-1	7.444790E-1	9.497559E-1	5.912982E-1	7.361556E-1	7.313800E-1	9.195366E-1	7.494829E-1	6.502723E-1	6.196720E-1	9.742523E-1	6.858511E-1	6.398965E-1	7.045040E-1	9.195125E-1	8.191525E-1	6.940250E-1	7.490232E-1	8.659697E-1	5.593788E-1	7.723369E-1	7.703623E-1	8.090517E-1	6.838751E-1	6.660096E-1	7.946346E-1	9.164080E-1
2.892040E+2	1.061707E-2	4.649416E-1	4.691901E-1	5.492960E-1	4.331575E-1	4.547875E-1	5.532175E-1	6.133050E-1	4.652927E-1	4.454440E-1	4.958394E-1	6.221694E-1	4.794383E-1	5.332532E-1	5.373564E-1	6.306011E-1	6.410129E-1	4.850381E-1	5.661407E-1	6.163067E-1	4.622424E-1	5.047940E-1	5.094081E-1	7.017936E-1	5.006051E-1	4.964306E-1	5.177723E-1	6.944046E-1	5.190653E-1	6.636337E-1	4.864759E-1	6.928835E-1	6.237258E-1	5.431792E-1	5.927014E-1	6.814115E-1	4.132030E-1	4.881538E-1	6.007736E-1	6.428201E-1	4.807351E-1	4.968564E-1	5.491220E-1	6.341360E-1	5.333502E-1	5.023571E-1	5.756196E-1	5.971685E-1	6.422976E-1	4.727707E-1	6.215257E-1	5.763322E-1	4.928638E-1	4.655023E-1	5.823304E-1	5.962623E-1	5.651878E-1	5.506425E-1	5.516784E-1	6.504791E-1	5.210512E-1	6.413019E-1	4.653095E-1	6.063376E-1	6.167608E-1	5.848928E-1	4.557677E-1	6.368727E-1	4.932795E-1	4.959063E-1	5.427818E-1	7.025409E-1	5.170729E-1	5.025068E-1	5.398680E-1	5.876001E-1	6.236639E-1	4.517527E-1	6.023363E-1	5.390118E-1	6.469946E-1	4.749181E-1	6.151788E-1	4.820915E-1	5.273819E-1	4.718037E-1	6.542094E-1	5.630777E-1	6.512902E-1	5.265447E-1	5.309974E-1	6.365316E-1	5.013467E-1	5.240385E-1	5.531784E-1	6.118505E-1	6.018044E-1	5.140836E-1	6.036884E-1	6.348715E-1	4.601022E-1	4.934098E-1	5.453169E-1	6.122608E-1	6.343213E-1	4.694460E-1	5.575294E-1	5.957115E-1	5.404417E-1	4.943383E-1	6.802613E-1	5.221859E-1	6.697641E-1	4.334166E-1	6.964169E-1	5.571016E-1	4.595935E-1	4.591686E-1	7.031976E-1	5.632978E-1	5.484701E-1	5.015073E-1	5.448026E-1	6.424580E-1	5.130275E-1	4.917016E-1	5.772298E-1	5.915259E-1	5.485235E-1	4.556634E-1	6.354014E-1	5.585255E-1	4.177426E-1	4.936799E-1	6.566159E-1	5.574876E-1	5.358618E-1	4.829178E-1	5.966007E-1	6.033330E-1	5.006751E-1	4.699942E-1	6.062304E-1	5.928989E-1	6.254940E-1	5.054206E-1	5.513412E-1	6.957555E-1	4.144146E-1	5.358159E-1	5.388153E-1	7.250364E-1	5.411321E-1	4.715425E-1	4.594078E-1	7.307441E-1	5.101479E-1	5.539094E-1	5.349841E-1	6.701408E-1	5.563012E-1	5.295499E-1	5.583258E-1	6.183997E-1	4.341841E-1	5.165846E-1	5.821944E-1	5.924778E-1	5.458954E-1	5.551637E-1	5.775275E-1	6.674084E-1
2.894050E+2	9.072766E-3	3.757458E-1	3.852485E-1	4.568668E-1	3.905835E-1	3.922043E-1	4.469492E-1	5.491969E-1	3.982666E-1	3.975253E-1	3.821078E-1	5.596102E-1	4.339686E-1	4.359416E-1	4.286634E-1	5.226360E-1	5.021206E-1	4.478201E-1	5.006070E-1	5.123899E-1	4.035550E-1	4.259404E-1	4.452842E-1	5.908869E-1	4.555907E-1	4.457529E-1	4.364606E-1	6.002479E-1	3.644791E-1	5.198578E-1	3.895768E-1	5.409311E-1	5.399445E-1	4.238876E-1	4.682459E-1	5.827561E-1	3.396915E-1	3.766828E-1	4.894819E-1	5.498579E-1	4.068694E-1	4.358988E-1	4.759440E-1	5.395010E-1	4.248330E-1	4.330662E-1	4.244366E-1	4.661893E-1	5.290969E-1	3.935991E-1	4.874823E-1	4.924573E-1	4.182519E-1	3.936749E-1	5.500606E-1	4.883587E-1	4.421492E-1	4.502545E-1	4.113404E-1	4.872242E-1	4.305414E-1	5.017477E-1	3.823520E-1	4.920488E-1	5.689814E-1	4.267825E-1	3.389949E-1	5.590306E-1	3.830643E-1	4.514269E-1	4.212243E-1	5.695104E-1	4.411376E-1	4.486972E-1	4.599022E-1	5.145637E-1	5.458869E-1	3.837617E-1	5.205652E-1	4.318315E-1	5.581365E-1	3.784114E-1	4.582385E-1	4.336738E-1	4.445464E-1	3.714572E-1	5.736282E-1	4.513306E-1	5.077105E-1	3.968493E-1	4.355027E-1	5.699546E-1	4.667181E-1	4.398755E-1	4.302692E-1	5.178978E-1	5.777438E-1	4.339049E-1	4.989911E-1	5.224614E-1	4.201508E-1	4.046989E-1	4.697887E-1	4.959786E-1	5.259820E-1	3.922564E-1	4.717867E-1	4.791982E-1	5.202793E-1	4.122649E-1	5.448252E-1	4.207030E-1	6.296057E-1	3.744356E-1	5.501715E-1	4.978442E-1	4.119505E-1	3.998990E-1	5.988824E-1	5.032230E-1	5.015501E-1	3.967595E-1	4.602315E-1	5.776096E-1	3.955829E-1	4.018442E-1	4.909085E-1	5.134112E-1	5.231538E-1	3.772150E-1	5.258636E-1	4.779464E-1	3.735791E-1	4.254195E-1	5.277982E-1	4.508100E-1	4.765297E-1	4.335412E-1	5.220639E-1	4.894367E-1	4.405985E-1	4.079086E-1	5.176234E-1	5.081216E-1	5.437366E-1	3.960757E-1	4.427949E-1	5.727101E-1	3.753443E-1	4.118314E-1	4.712360E-1	5.617949E-1	4.749897E-1	4.456839E-1	3.742217E-1	5.684044E-1	4.340622E-1	4.249277E-1	4.485623E-1	5.624057E-1	5.037301E-1	4.230328E-1	4.753066E-1	5.628221E-1	3.822421E-1	4.833227E-1	4.570071E-1	4.866706E-1	4.485529E-1	4.443180E-1	4.842092E-1	5.144514E-1
2.896150E+2	1.679428E-2	4.150769E-1	4.494391E-1	5.158451E-1	4.038444E-1	4.410974E-1	4.932920E-1	5.852031E-1	4.307433E-1	4.238471E-1	4.583910E-1	6.049655E-1	4.653956E-1	5.175793E-1	4.961947E-1	5.535817E-1	5.726581E-1	4.691860E-1	5.064320E-1	5.763385E-1	4.351069E-1	4.660134E-1	4.582462E-1	6.211346E-1	4.722894E-1	4.985724E-1	4.452698E-1	6.266772E-1	4.283752E-1	5.403977E-1	4.326430E-1	6.286781E-1	5.629290E-1	4.217946E-1	5.681183E-1	5.456557E-1	3.988593E-1	4.555888E-1	5.425482E-1	5.523258E-1	4.633142E-1	5.139537E-1	5.522029E-1	5.682296E-1	4.740890E-1	4.804384E-1	5.190963E-1	5.050734E-1	5.918162E-1	4.262400E-1	5.702741E-1	5.605542E-1	4.236779E-1	4.221467E-1	5.783956E-1	5.191886E-1	5.261396E-1	5.243499E-1	4.727857E-1	5.562629E-1	4.630679E-1	5.493413E-1	4.400910E-1	5.924841E-1	5.742903E-1	4.862700E-1	4.302901E-1	5.893479E-1	4.616935E-1	4.746621E-1	4.809235E-1	6.306553E-1	4.456490E-1	4.621490E-1	4.812789E-1	5.386417E-1	5.649178E-1	4.643691E-1	5.789729E-1	5.459260E-1	6.332063E-1	4.345358E-1	5.890218E-1	4.971725E-1	4.721588E-1	4.279815E-1	6.192087E-1	4.936136E-1	5.906671E-1	4.998204E-1	4.578359E-1	5.793439E-1	5.136589E-1	4.866326E-1	5.219421E-1	5.705681E-1	5.737335E-1	5.007205E-1	4.997855E-1	5.897438E-1	4.417640E-1	4.638399E-1	4.969785E-1	5.513516E-1	5.598897E-1	3.915143E-1	5.415031E-1	5.123730E-1	5.783461E-1	4.260591E-1	5.548292E-1	4.827946E-1	6.757456E-1	4.385766E-1	5.668106E-1	5.070253E-1	4.561406E-1	4.100016E-1	5.972267E-1	5.501302E-1	5.614132E-1	4.585531E-1	5.206389E-1	6.678718E-1	4.749372E-1	4.172672E-1	5.602376E-1	5.643255E-1	6.336356E-1	4.304734E-1	5.758692E-1	5.537855E-1	4.427902E-1	4.647207E-1	6.200384E-1	5.250888E-1	4.923020E-1	4.096009E-1	5.597421E-1	5.468061E-1	5.014654E-1	4.420222E-1	5.813095E-1	5.407285E-1	7.107690E-1	4.295981E-1	4.817216E-1	6.491740E-1	4.527751E-1	5.101115E-1	5.126563E-1	7.198267E-1	5.039267E-1	4.525284E-1	4.095954E-1	6.783765E-1	4.779882E-1	4.970700E-1	4.911085E-1	6.241837E-1	5.784786E-1	4.762916E-1	5.254467E-1	5.838742E-1	4.082135E-1	5.054977E-1	5.798619E-1	5.428805E-1	4.873001E-1	4.480540E-1	5.870499E-1	4.895513E-1
2.898030E+2	9.072771E-3	4.199928E-1	4.782430E-1	5.281692E-1	4.443245E-1	4.254514E-1	5.244538E-1	6.010101E-1	4.086311E-1	4.616424E-1	4.986133E-1	6.604866E-1	4.667331E-1	5.110479E-1	5.334980E-1	6.134092E-1	5.937458E-1	4.829708E-1	4.976942E-1	5.971224E-1	4.489901E-1	4.653670E-1	5.025870E-1	6.498304E-1	5.470716E-1	4.707354E-1	4.920240E-1	6.778856E-1	4.482992E-1	5.540911E-1	4.573426E-1	6.165509E-1	5.488417E-1	4.894629E-1	5.489120E-1	6.021506E-1	3.922853E-1	4.605991E-1	5.683444E-1	6.206076E-1	4.918846E-1	4.983434E-1	5.090668E-1	5.834384E-1	5.156492E-1	4.825595E-1	5.368026E-1	5.603300E-1	6.193514E-1	4.706868E-1	5.813129E-1	5.838061E-1	4.372439E-1	4.454421E-1	6.256192E-1	5.592670E-1	5.452955E-1	5.251466E-1	4.697514E-1	5.911875E-1	4.418549E-1	5.703143E-1	4.241626E-1	5.668560E-1	5.932502E-1	5.363639E-1	4.168438E-1	6.516221E-1	4.711023E-1	5.018808E-1	4.708543E-1	6.612268E-1	5.328612E-1	4.987702E-1	5.216576E-1	5.892050E-1	5.467150E-1	4.706775E-1	5.636407E-1	5.293304E-1	6.224820E-1	4.838156E-1	5.763396E-1	4.582794E-1	4.866542E-1	4.533861E-1	6.118831E-1	4.679421E-1	6.034306E-1	4.966754E-1	5.040428E-1	6.100723E-1	5.267407E-1	5.139668E-1	5.226217E-1	5.670098E-1	6.306767E-1	5.038650E-1	5.212004E-1	5.881023E-1	4.659971E-1	4.679660E-1	5.815715E-1	6.415295E-1	5.656786E-1	4.612813E-1	5.743571E-1	5.617284E-1	5.412485E-1	4.646819E-1	6.056181E-1	5.135059E-1	7.099215E-1	4.201453E-1	6.394957E-1	5.212133E-1	4.499264E-1	4.584945E-1	6.286871E-1	5.748183E-1	5.492783E-1	4.457416E-1	5.364968E-1	6.433341E-1	5.169948E-1	4.628667E-1	5.303312E-1	5.608382E-1	7.048348E-1	4.268748E-1	6.258763E-1	5.601045E-1	4.678382E-1	4.923006E-1	6.263999E-1	5.511656E-1	5.358612E-1	4.821693E-1	5.531893E-1	5.830840E-1	5.433618E-1	4.706766E-1	5.646956E-1	5.544959E-1	6.835159E-1	5.070166E-1	5.416093E-1	6.605997E-1	4.705344E-1	5.017956E-1	5.053895E-1	6.920410E-1	5.485735E-1	5.179363E-1	4.341402E-1	6.338639E-1	5.893719E-1	5.254900E-1	4.964270E-1	6.543188E-1	6.639057E-1	5.178022E-1	5.443519E-1	6.125047E-1	4.554938E-1	5.151072E-1	5.262102E-1	5.908240E-1	5.251036E-1	4.854177E-1	6.060944E-1	5.144513E-1
2.900050E+2	1.519207E-1	4.003272E-1	3.926555E-1	4.762327E-1	3.912812E-1	4.261036E-1	5.116688E-1	5.720296E-1	4.017214E-1	4.515182E-1	4.833556E-1	5.580462E-1	4.460047E-1	4.947207E-1	4.730411E-1	5.556444E-1	5.581140E-1	4.257658E-1	4.860435E-1	5.683449E-1	4.559318E-1	4.498546E-1	4.991756E-1	5.691709E-1	4.947966E-1	4.650249E-1	4.940572E-1	5.928149E-1	4.496737E-1	5.198584E-1	4.326429E-1	5.580528E-1	5.169600E-1	4.580705E-1	5.581310E-1	5.642063E-1	3.946761E-1	4.449434E-1	5.617114E-1	5.967499E-1	4.744635E-1	5.161842E-1	5.044449E-1	5.386564E-1	4.525397E-1	4.875083E-1	4.816416E-1	5.405477E-1	5.023264E-1	4.401299E-1	5.773706E-1	5.456054E-1	4.121468E-1	4.240882E-1	5.705244E-1	5.600375E-1	4.679356E-1	4.773431E-1	4.462355E-1	5.367689E-1	4.963026E-1	5.566016E-1	4.314629E-1	5.322236E-1	5.492629E-1	4.948799E-1	4.529368E-1	5.967222E-1	4.798390E-1	4.487717E-1	4.809243E-1	5.612478E-1	4.900068E-1	4.352447E-1	5.113653E-1	5.426548E-1	5.127904E-1	4.783880E-1	5.410075E-1	5.161926E-1	5.834152E-1	4.790247E-1	4.931140E-1	4.924098E-1	4.452367E-1	4.343330E-1	5.475822E-1	4.883281E-1	5.212712E-1	4.526580E-1	4.940318E-1	5.392282E-1	5.036549E-1	5.053357E-1	4.757659E-1	5.719919E-1	5.865661E-1	4.881432E-1	5.219938E-1	5.593850E-1	4.267004E-1	4.473353E-1	5.332332E-1	5.695449E-1	5.615440E-1	4.501480E-1	4.806008E-1	5.269365E-1	5.162475E-1	4.543364E-1	5.679108E-1	4.841294E-1	5.928652E-1	4.577459E-1	6.176027E-1	5.354013E-1	4.374986E-1	4.382890E-1	6.071619E-1	5.295567E-1	5.023593E-1	4.698567E-1	4.919451E-1	6.030235E-1	4.463700E-1	4.273261E-1	4.909089E-1	5.315452E-1	5.550708E-1	4.556637E-1	5.536447E-1	5.032258E-1	4.302663E-1	4.874746E-1	5.588099E-1	5.187670E-1	4.855428E-1	4.312967E-1	5.286172E-1	5.484937E-1	4.809132E-1	5.013785E-1	5.141619E-1	5.342071E-1	5.920881E-1	5.094111E-1	4.779783E-1	6.008346E-1	4.442504E-1	4.639957E-1	5.235556E-1	6.312592E-1	4.873911E-1	4.487263E-1	4.319749E-1	6.329915E-1	4.960290E-1	4.650070E-1	4.844612E-1	5.827475E-1	6.047646E-1	4.676760E-1	4.942118E-1	5.299815E-1	4.308547E-1	4.862789E-1	5.402060E-1	5.271747E-1	4.655642E-1	4.766992E-1	5.699096E-1	5.073370E-1
2.905120E+2	4.229461E-1	3.736394E-1	4.280430E-1	4.691905E-1	4.247827E-1	3.909005E-1	4.789097E-1	4.736723E-1	3.982670E-1	4.042746E-1	4.542299E-1	4.595157E-1	4.513540E-1	4.744746E-1	4.955519E-1	5.130084E-1	4.417646E-1	4.581581E-1	5.115289E-1	4.660269E-1	4.262724E-1	4.020249E-1	4.759819E-1	4.722249E-1	4.120284E-1	4.200570E-1	4.777943E-1	4.474498E-1	4.819646E-1	4.635651E-1	4.807757E-1	4.653115E-1	4.331791E-1	4.531874E-1	4.989754E-1	4.841020E-1	4.126055E-1	4.217726E-1	4.946413E-1	5.169505E-1	4.054762E-1	4.529969E-1	5.221619E-1	4.727504E-1	5.164183E-1	4.429652E-1	4.938990E-1	4.764219E-1	3.998340E-1	4.901325E-1	4.953678E-1	4.542559E-1	4.189296E-1	3.917335E-1	4.312140E-1	5.053145E-1	3.913121E-1	4.518475E-1	4.894745E-1	5.002196E-1	4.333694E-1	4.412480E-1	4.858834E-1	5.045166E-1	4.468811E-1	4.440022E-1	4.784150E-1	4.672583E-1	4.119623E-1	4.109315E-1	5.247998E-1	5.001028E-1	4.148235E-1	4.778440E-1	4.828619E-1	4.583821E-1	5.094813E-1	5.064254E-1	4.658069E-1	4.912986E-1	4.401704E-1	4.187938E-1	4.027548E-1	5.225719E-1	4.362627E-1	4.324271E-1	4.889781E-1	4.853077E-1	4.103961E-1	4.282902E-1	5.071235E-1	4.555800E-1	4.651787E-1	4.413143E-1	5.002121E-1	5.122038E-1	4.077199E-1	4.346915E-1	4.751979E-1	4.904614E-1	4.011575E-1	4.143266E-1	5.067978E-1	4.619643E-1	4.887660E-1	4.353046E-1	4.565610E-1	4.856720E-1	4.130179E-1	4.770962E-1	4.824931E-1	4.787887E-1	3.860942E-1	4.592199E-1	5.168938E-1	4.694675E-1	3.960702E-1	4.295333E-1	5.045011E-1	4.793583E-1	4.182276E-1	4.374529E-1	4.624961E-1	5.495666E-1	4.590663E-1	4.930426E-1	4.936280E-1	5.189910E-1	4.462257E-1	5.031640E-1	4.607756E-1	4.550365E-1	3.953306E-1	4.605836E-1	4.522563E-1	5.480050E-1	4.494928E-1	4.335410E-1	4.794723E-1	4.767811E-1	4.485022E-1	4.931908E-1	4.781659E-1	5.276852E-1	4.619784E-1	4.631195E-1	4.847162E-1	4.505440E-1	4.584578E-1	4.277070E-1	4.995761E-1	4.984081E-1	4.708553E-1	4.183044E-1	5.041660E-1	4.645434E-1	4.693602E-1	4.890546E-1	4.877843E-1	5.315166E-1	4.281607E-1	4.778576E-1	4.876360E-1	5.131396E-1	4.215316E-1	4.448861E-1	5.075490E-1	4.833645E-1	4.183106E-1	4.978715E-1	4.918270E-1	5.215656E-1
2.910060E+2	5.572998E-1	4.298255E-1	5.556009E-1	6.241201E-1	5.176085E-1	4.580472E-1	6.275263E-1	6.036455E-1	5.005325E-1	5.311582E-1	6.012477E-1	6.198232E-1	6.018055E-1	5.750513E-1	6.228967E-1	6.491686E-1	5.501149E-1	5.167419E-1	5.981796E-1	6.770587E-1	5.348126E-1	5.125500E-1	6.062758E-1	5.932134E-1	5.238383E-1	6.027839E-1	6.417737E-1	5.688626E-1	5.712817E-1	5.951692E-1	6.125085E-1	6.479398E-1	5.303059E-1	5.682933E-1	6.272722E-1	6.063659E-1	5.225740E-1	5.432630E-1	6.258335E-1	6.140261E-1	5.552969E-1	5.548394E-1	6.623558E-1	5.994928E-1	6.072346E-1	6.084141E-1	6.212472E-1	6.442397E-1	5.428648E-1	5.727760E-1	5.970824E-1	6.195156E-1	4.806545E-1	5.088571E-1	6.397867E-1	5.916382E-1	5.172986E-1	5.625930E-1	6.146407E-1	6.309859E-1	5.811554E-1	5.687012E-1	6.126424E-1	6.250394E-1	5.485053E-1	5.668908E-1	6.291579E-1	6.139299E-1	5.416669E-1	4.892673E-1	6.233401E-1	6.050398E-1	5.253427E-1	5.421170E-1	5.849967E-1	6.076644E-1	5.938767E-1	6.094624E-1	6.162086E-1	5.480000E-1	5.558389E-1	5.803222E-1	5.842666E-1	5.686083E-1	5.591345E-1	5.213424E-1	5.744425E-1	6.400925E-1	5.866790E-1	6.043625E-1	5.987676E-1	6.160463E-1	6.029238E-1	6.290612E-1	6.054670E-1	6.267983E-1	5.761402E-1	5.691075E-1	6.092403E-1	6.012306E-1	4.876107E-1	5.422351E-1	5.913900E-1	6.225445E-1	5.019987E-1	6.060123E-1	6.288481E-1	6.070394E-1	6.517358E-1	6.067589E-1	6.533282E-1	6.196624E-1	5.450173E-1	5.771819E-1	6.421229E-1	6.347201E-1	5.196640E-1	5.763597E-1	5.997098E-1	6.711013E-1	5.314817E-1	5.859080E-1	6.346588E-1	6.196735E-1	5.630209E-1	5.983228E-1	6.288871E-1	6.082652E-1	5.305190E-1	6.471048E-1	5.869824E-1	5.798555E-1	5.489146E-1	6.364051E-1	6.367372E-1	6.270252E-1	5.238454E-1	5.794260E-1	6.596708E-1	6.227373E-1	6.042288E-1	6.371498E-1	5.903086E-1	6.160856E-1	5.797806E-1	5.700698E-1	6.426701E-1	6.570846E-1	5.195505E-1	6.136833E-1	6.122075E-1	6.156297E-1	5.667628E-1	4.829515E-1	6.218380E-1	6.452107E-1	6.215313E-1	6.027322E-1	6.373607E-1	5.955550E-1	5.620511E-1	5.835917E-1	6.594284E-1	5.973477E-1	5.527191E-1	6.075020E-1	6.000780E-1	5.949577E-1	5.572361E-1	5.975095E-1	6.289483E-1	6.496227E-1
2.915210E+2	6.908821E-1	6.559759E-1	6.280219E-1	7.526408E-1	7.207081E-1	6.249353E-1	7.250057E-1	7.959680E-1	6.981541E-1	6.708659E-1	7.718446E-1	7.410319E-1	7.295215E-1	6.802003E-1	7.637470E-1	7.949572E-1	6.926430E-1	7.138583E-1	7.168693E-1	7.713830E-1	6.427216E-1	6.935259E-1	7.556706E-1	7.902083E-1	6.683200E-1	7.362595E-1	7.969450E-1	7.076193E-1	6.949506E-1	7.146029E-1	7.664073E-1	7.820580E-1	6.941618E-1	6.945616E-1	8.101159E-1	7.345320E-1	5.853275E-1	6.722680E-1	7.739765E-1	7.505909E-1	7.030288E-1	6.960814E-1	7.709662E-1	7.498943E-1	7.226787E-1	7.568938E-1	7.479143E-1	7.649864E-1	6.767163E-1	7.005609E-1	7.902623E-1	7.407613E-1	6.732895E-1	6.771008E-1	7.602075E-1	8.128395E-1	6.278125E-1	6.932574E-1	7.519435E-1	8.186059E-1	7.282341E-1	7.397150E-1	7.759033E-1	7.614933E-1	6.880490E-1	6.733420E-1	7.565466E-1	7.548655E-1	6.747307E-1	6.877628E-1	7.484937E-1	7.488123E-1	7.050309E-1	6.751473E-1	7.655130E-1	7.047793E-1	7.022680E-1	7.117990E-1	7.782922E-1	7.678924E-1	6.500585E-1	6.939398E-1	6.524318E-1	7.575159E-1	6.371380E-1	6.769432E-1	7.437430E-1	7.352292E-1	6.911730E-1	6.507386E-1	7.705043E-1	7.509069E-1	7.460560E-1	7.254531E-1	7.779478E-1	7.663039E-1	6.812030E-1	7.098128E-1	7.512136E-1	7.226671E-1	6.009175E-1	6.859596E-1	7.499998E-1	7.546471E-1	6.880769E-1	6.765216E-1	7.987308E-1	7.615805E-1	7.396420E-1	7.495259E-1	7.710662E-1	7.431773E-1	7.047952E-1	7.025162E-1	7.944978E-1	7.440533E-1	6.204726E-1	6.955718E-1	7.851600E-1	8.101763E-1	6.398813E-1	7.230589E-1	7.320669E-1	7.879277E-1	7.217297E-1	7.351212E-1	7.478326E-1	7.379904E-1	6.720997E-1	7.305907E-1	7.687524E-1	7.512839E-1	6.477890E-1	7.191451E-1	7.528330E-1	7.661006E-1	6.289897E-1	7.455110E-1	7.530460E-1	7.298841E-1	7.473074E-1	7.326662E-1	7.612922E-1	7.870903E-1	6.967026E-1	6.826072E-1	7.684344E-1	7.590362E-1	6.566522E-1	7.240595E-1	7.742513E-1	7.884229E-1	6.833400E-1	6.350613E-1	7.792151E-1	7.464542E-1	8.191981E-1	7.105813E-1	7.796242E-1	8.027373E-1	6.827980E-1	7.120384E-1	7.966980E-1	7.379739E-1	7.065478E-1	7.309430E-1	7.734725E-1	7.561476E-1	6.564677E-1	7.083551E-1	6.689417E-1	7.527798E-1
2.920010E+2	5.735151E-1	4.796913E-1	4.733058E-1	5.580995E-1	5.685581E-1	4.665214E-1	5.468253E-1	5.342680E-1	5.129704E-1	4.521930E-1	5.533980E-1	5.377146E-1	5.636914E-1	5.123545E-1	6.003859E-1	5.412030E-1	5.646589E-1	5.181210E-1	5.675973E-1	5.579539E-1	5.916071E-1	4.569644E-1	5.653463E-1	5.265154E-1	5.441670E-1	4.950038E-1	5.631724E-1	5.027876E-1	5.383033E-1	5.540905E-1	5.352423E-1	6.029966E-1	5.317885E-1	4.734182E-1	5.781047E-1	5.540874E-1	5.100232E-1	4.875274E-1	5.779257E-1	5.630208E-1	5.002467E-1	4.946258E-1	5.991904E-1	5.724545E-1	5.464346E-1	5.737683E-1	5.422512E-1	5.337256E-1	4.939127E-1	5.179115E-1	5.142912E-1	5.738408E-1	4.772629E-1	4.875030E-1	5.894144E-1	5.299788E-1	4.620411E-1	4.717655E-1	5.456097E-1	5.708823E-1	5.203442E-1	5.307881E-1	5.562316E-1	5.689338E-1	4.688743E-1	4.964451E-1	5.682945E-1	5.770563E-1	4.711024E-1	4.925869E-1	6.082359E-1	5.348067E-1	4.952696E-1	4.950331E-1	5.414510E-1	5.394447E-1	5.144454E-1	5.400700E-1	5.826235E-1	5.265644E-1	4.654495E-1	4.927130E-1	4.867728E-1	5.344775E-1	4.728485E-1	4.724390E-1	5.288605E-1	5.517527E-1	5.164852E-1	5.289031E-1	5.594917E-1	5.477631E-1	5.721430E-1	5.218798E-1	5.334862E-1	5.485040E-1	5.264154E-1	5.007205E-1	5.727551E-1	5.700512E-1	4.804060E-1	5.064757E-1	5.800606E-1	5.632173E-1	5.226738E-1	5.095250E-1	5.463109E-1	5.568744E-1	5.339898E-1	5.708947E-1	5.486727E-1	5.802711E-1	5.048590E-1	5.344204E-1	5.711888E-1	5.646125E-1	4.727120E-1	5.251722E-1	5.881194E-1	5.386096E-1	5.023596E-1	5.316503E-1	5.372515E-1	5.259062E-1	4.828726E-1	5.956416E-1	5.643162E-1	5.699049E-1	4.945096E-1	5.218764E-1	5.314197E-1	5.514157E-1	4.935457E-1	5.343596E-1	5.500629E-1	5.993677E-1	4.802852E-1	5.143386E-1	5.589230E-1	5.805533E-1	5.259709E-1	5.593710E-1	5.605420E-1	5.842039E-1	5.217579E-1	5.245761E-1	5.693073E-1	5.946829E-1	5.508064E-1	4.972596E-1	5.744211E-1	5.305356E-1	5.427857E-1	4.669794E-1	5.814106E-1	5.430933E-1	5.768217E-1	5.218463E-1	5.629050E-1	5.797339E-1	5.119445E-1	5.475642E-1	5.459965E-1	5.628222E-1	4.668147E-1	5.298900E-1	5.720863E-1	5.536268E-1	4.891910E-1	5.115717E-1	5.527693E-1	6.318367E-1
2.925000E+2	5.696544E-1	4.473840E-1	4.798891E-1	5.255286E-1	5.350569E-1	4.404456E-1	4.988849E-1	5.281204E-1	5.758499E-1	4.535434E-1	5.284325E-1	5.603916E-1	5.302576E-1	4.705563E-1	5.328546E-1	6.010312E-1	5.333894E-1	4.471312E-1	5.879854E-1	5.771382E-1	5.531132E-1	4.640743E-1	5.673929E-1	5.016970E-1	4.984269E-1	4.707353E-1	5.109967E-1	4.821392E-1	5.334932E-1	5.525688E-1	5.479085E-1	5.416444E-1	5.399443E-1	4.796961E-1	5.489122E-1	5.304782E-1	5.476756E-1	4.399336E-1	5.617112E-1	5.449216E-1	5.399673E-1	4.767849E-1	5.329457E-1	5.809045E-1	5.602874E-1	5.497283E-1	5.245446E-1	5.773853E-1	5.734590E-1	5.345797E-1	5.103490E-1	5.256748E-1	5.125335E-1	4.758557E-1	5.264484E-1	5.669737E-1	5.312967E-1	4.877007E-1	5.440925E-1	5.302718E-1	5.967125E-1	5.186880E-1	5.469401E-1	5.696266E-1	5.090690E-1	4.518295E-1	5.534323E-1	5.508362E-1	4.704300E-1	4.527554E-1	5.722718E-1	5.315016E-1	4.704593E-1	4.875597E-1	5.517440E-1	5.258009E-1	5.086540E-1	5.148363E-1	5.570701E-1	5.307136E-1	4.960902E-1	5.132465E-1	4.606164E-1	5.654331E-1	4.990797E-1	4.718041E-1	5.467681E-1	5.623228E-1	4.845786E-1	4.833130E-1	5.625720E-1	5.213032E-1	5.028852E-1	5.247573E-1	5.463885E-1	5.520629E-1	4.975438E-1	5.038649E-1	5.584781E-1	5.487177E-1	4.699267E-1	5.216048E-1	5.264353E-1	5.466051E-1	5.383875E-1	5.006184E-1	5.631387E-1	5.657740E-1	4.985045E-1	5.184780E-1	5.409773E-1	5.121704E-1	4.886250E-1	4.828121E-1	5.309058E-1	5.470861E-1	4.554500E-1	5.049675E-1	5.425848E-1	4.851186E-1	4.643393E-1	5.406926E-1	5.176188E-1	5.627124E-1	4.820789E-1	5.359596E-1	5.527617E-1	5.573507E-1	4.887811E-1	5.441872E-1	5.266567E-1	5.443054E-1	4.520188E-1	5.205701E-1	5.373407E-1	5.511658E-1	5.035672E-1	5.390274E-1	6.039726E-1	5.552432E-1	5.022561E-1	5.484553E-1	5.363141E-1	5.798563E-1	4.857144E-1	5.046221E-1	5.640674E-1	5.683158E-1	4.904246E-1	4.949916E-1	5.286426E-1	5.062232E-1	5.345183E-1	4.532890E-1	5.763572E-1	4.959628E-1	5.603486E-1	5.560957E-1	5.509389E-1	5.601459E-1	5.119448E-1	5.005713E-1	5.558603E-1	5.796638E-1	4.481683E-1	5.032805E-1	5.728631E-1	5.503200E-1	4.797407E-1	5.003639E-1	5.108705E-1	5.784796E-1
2.930010E+2	6.352875E-1	5.716964E-1	5.621849E-1	6.461272E-1	6.802279E-1	5.349720E-1	6.331199E-1	6.247214E-1	6.884805E-1	5.514062E-1	6.567267E-1	6.096575E-1	6.847203E-1	6.207680E-1	6.698467E-1	6.553581E-1	6.890070E-1	5.891103E-1	6.804611E-1	6.578741E-1	7.070888E-1	5.429276E-1	6.765390E-1	6.521574E-1	6.472650E-1	6.049252E-1	6.661678E-1	6.374154E-1	6.599102E-1	6.720022E-1	7.119408E-1	6.764760E-1	6.563489E-1	6.296836E-1	6.610756E-1	6.611740E-1	6.421044E-1	5.745745E-1	6.634218E-1	7.012307E-1	6.619148E-1	6.068761E-1	6.323139E-1	6.332914E-1	6.857357E-1	6.600285E-1	6.784515E-1	6.606128E-1	6.461212E-1	5.713868E-1	6.357187E-1	6.710036E-1	6.963510E-1	5.858610E-1	6.468701E-1	6.679407E-1	6.690708E-1	6.518270E-1	6.525697E-1	6.967748E-1	6.907574E-1	6.267810E-1	6.524624E-1	6.956915E-1	6.311697E-1	5.582806E-1	6.680820E-1	6.639120E-1	6.814516E-1	5.729144E-1	6.851985E-1	6.529635E-1	6.140592E-1	6.019061E-1	6.744635E-1	6.429795E-1	7.022695E-1	6.739484E-1	6.585544E-1	6.641699E-1	6.163542E-1	5.994864E-1	5.913999E-1	6.582991E-1	6.385179E-1	5.721512E-1	6.745574E-1	6.378278E-1	6.122047E-1	6.153668E-1	6.765499E-1	6.706736E-1	7.006539E-1	6.211483E-1	6.828794E-1	6.801805E-1	6.154380E-1	5.989785E-1	6.457254E-1	6.611282E-1	5.609650E-1	5.800570E-1	6.170696E-1	6.636784E-1	5.739488E-1	6.000739E-1	6.649082E-1	6.903785E-1	6.251217E-1	6.184838E-1	6.825702E-1	6.764122E-1	5.843217E-1	6.826097E-1	6.176024E-1	6.630964E-1	5.486638E-1	5.979120E-1	6.634581E-1	6.529966E-1	6.059049E-1	6.492084E-1	6.709030E-1	6.223024E-1	6.685627E-1	6.606874E-1	6.492778E-1	6.473224E-1	5.869880E-1	6.103994E-1	6.711209E-1	6.209349E-1	5.772590E-1	5.991722E-1	7.059176E-1	6.736462E-1	5.433721E-1	6.362845E-1	7.112728E-1	6.742014E-1	5.971148E-1	6.651217E-1	6.616098E-1	6.718798E-1	6.017580E-1	6.227463E-1	6.591389E-1	6.605992E-1	5.884567E-1	6.159516E-1	7.081268E-1	6.781476E-1	5.998343E-1	5.544429E-1	6.738155E-1	6.338642E-1	6.756545E-1	6.530137E-1	6.659461E-1	6.844547E-1	6.195497E-1	5.953407E-1	6.775119E-1	6.588187E-1	5.713652E-1	6.060237E-1	6.677252E-1	6.635670E-1	5.761376E-1	6.149458E-1	6.346610E-1	5.713655E-1
2.935120E+2	7.796789E-1	6.721295E-1	7.950838E-1	7.605638E-1	8.191175E-1	6.321066E-1	7.865297E-1	7.344947E-1	7.465240E-1	6.364457E-1	8.106794E-1	7.668374E-1	7.642922E-1	7.298355E-1	7.965479E-1	7.825788E-1	8.206280E-1	7.186834E-1	7.889564E-1	7.977617E-1	7.878622E-1	6.553910E-1	7.693141E-1	8.328645E-1	7.518147E-1	7.591011E-1	7.982997E-1	8.133390E-1	7.739605E-1	7.336208E-1	7.790733E-1	8.070272E-1	7.838743E-1	6.820043E-1	7.909095E-1	7.522397E-1	7.771746E-1	6.660058E-1	7.813468E-1	8.254545E-1	7.594727E-1	6.827010E-1	8.117918E-1	7.574984E-1	7.981017E-1	7.561863E-1	7.731119E-1	8.106927E-1	7.707950E-1	7.109784E-1	8.281099E-1	7.980624E-1	7.655374E-1	6.648063E-1	7.318731E-1	7.434731E-1	8.400001E-1	7.561995E-1	8.126306E-1	7.901791E-1	7.883388E-1	7.308417E-1	7.858581E-1	7.635713E-1	7.661632E-1	7.023026E-1	7.678697E-1	7.720719E-1	8.145160E-1	6.804600E-1	7.894920E-1	7.967358E-1	7.982586E-1	6.579585E-1	7.805564E-1	7.537370E-1	7.916302E-1	7.636679E-1	8.016551E-1	7.554453E-1	7.657269E-1	7.172103E-1	7.205982E-1	8.043454E-1	7.682922E-1	6.928207E-1	7.795564E-1	7.744920E-1	7.717360E-1	7.442768E-1	8.120908E-1	7.876098E-1	7.953058E-1	7.743677E-1	7.779482E-1	8.260921E-1	8.055135E-1	7.113847E-1	8.186317E-1	7.850259E-1	7.856128E-1	6.997131E-1	7.832330E-1	7.799607E-1	7.525847E-1	6.817168E-1	8.019365E-1	8.004176E-1	7.638360E-1	7.384903E-1	8.141596E-1	7.672129E-1	7.056499E-1	7.541241E-1	7.778594E-1	8.041458E-1	6.902098E-1	6.915306E-1	7.743969E-1	8.167601E-1	7.822574E-1	7.690275E-1	8.022898E-1	7.835459E-1	7.606138E-1	8.155913E-1	7.954122E-1	8.300547E-1	6.630973E-1	7.766515E-1	8.163779E-1	8.271230E-1	6.972262E-1	7.639622E-1	7.655552E-1	7.905966E-1	6.868190E-1	7.619702E-1	7.989150E-1	8.387173E-1	7.488877E-1	7.790602E-1	7.453712E-1	8.001326E-1	7.353846E-1	7.416693E-1	8.522769E-1	7.818872E-1	7.028264E-1	7.467393E-1	7.575391E-1	7.945008E-1	7.792470E-1	6.502724E-1	7.784937E-1	7.804935E-1	7.509557E-1	7.834528E-1	7.689875E-1	8.441736E-1	7.567257E-1	7.645141E-1	8.361532E-1	7.699732E-1	6.566036E-1	7.339003E-1	8.092402E-1	7.189499E-1	6.848201E-1	7.519456E-1	7.984449E-1	8.132497E-1
2.940080E+2	8.175150E-1	7.191853E-1	7.794467E-1	8.221836E-1	8.198156E-1	6.653538E-1	8.025104E-1	7.722567E-1	8.100944E-1	7.160858E-1	7.829403E-1	7.848229E-1	8.318283E-1	7.219980E-1	7.952622E-1	7.867047E-1	7.631803E-1	7.159270E-1	8.020629E-1	8.081529E-1	7.739796E-1	7.103307E-1	7.850036E-1	8.468257E-1	7.808566E-1	7.355459E-1	8.104966E-1	8.397684E-1	7.732733E-1	8.074108E-1	7.854070E-1	7.963258E-1	7.868394E-1	7.622300E-1	7.962873E-1	8.087342E-1	7.574519E-1	6.534813E-1	8.056691E-1	8.262779E-1	7.859529E-1	6.715507E-1	8.017782E-1	8.174903E-1	7.773216E-1	8.219424E-1	8.098860E-1	8.250187E-1	7.952702E-1	7.755658E-1	8.005127E-1	8.229759E-1	8.082694E-1	6.816308E-1	8.090056E-1	7.627420E-1	8.061086E-1	7.267203E-1	8.012512E-1	8.080481E-1	7.522760E-1	7.187415E-1	8.090871E-1	8.293742E-1	7.942233E-1	7.077819E-1	8.046711E-1	8.073066E-1	8.649195E-1	6.711664E-1	8.448764E-1	7.893001E-1	7.854769E-1	7.326940E-1	8.438951E-1	8.083140E-1	7.684625E-1	7.980137E-1	7.709906E-1	8.425726E-1	8.024954E-1	7.213177E-1	7.388287E-1	8.075210E-1	8.000464E-1	7.074281E-1	7.893241E-1	8.054481E-1	7.964637E-1	7.301281E-1	7.697343E-1	7.927308E-1	8.291652E-1	7.419973E-1	8.057888E-1	8.182627E-1	7.942859E-1	8.002092E-1	8.812917E-1	7.932311E-1	7.554851E-1	7.059024E-1	8.225081E-1	8.123925E-1	7.616813E-1	7.811726E-1	7.666775E-1	8.190274E-1	7.694815E-1	7.378009E-1	7.833779E-1	7.999281E-1	8.440670E-1	7.438023E-1	7.769839E-1	7.849500E-1	8.027559E-1	7.339620E-1	8.696058E-1	7.838430E-1	8.340300E-1	7.260739E-1	8.128619E-1	8.115887E-1	7.875943E-1	8.256498E-1	7.464741E-1	8.098282E-1	7.653959E-1	8.227127E-1	8.282842E-1	7.655037E-1	7.842350E-1	7.577568E-1	7.973627E-1	8.237851E-1	7.386412E-1	7.327933E-1	8.103813E-1	8.555916E-1	8.026417E-1	8.002106E-1	7.543692E-1	8.182472E-1	7.441754E-1	7.727974E-1	8.073610E-1	7.625515E-1	7.291100E-1	7.686638E-1	8.251179E-1	8.031838E-1	7.577506E-1	6.479908E-1	8.420215E-1	7.708927E-1	7.556619E-1	7.506604E-1	7.782947E-1	8.336270E-1	7.550819E-1	7.746961E-1	7.925885E-1	7.893412E-1	6.918976E-1	7.427697E-1	8.107951E-1	7.809460E-1	6.914348E-1	7.619098E-1	7.622611E-1	8.310355E-1
2.945030E+2	7.356670E-1	6.299895E-1	7.374758E-1	7.728876E-1	7.570012E-1	6.229795E-1	7.313982E-1	6.870727E-1	7.292487E-1	5.939261E-1	7.552008E-1	7.222632E-1	7.101303E-1	6.540763E-1	7.386643E-1	7.406301E-1	7.028238E-1	6.394241E-1	7.226945E-1	7.513992E-1	7.487379E-1	6.243671E-1	7.413449E-1	7.258363E-1	7.191438E-1	6.663099E-1	7.427368E-1	6.902745E-1	6.660941E-1	7.343813E-1	7.461405E-1	7.485289E-1	6.978679E-1	7.106067E-1	7.371320E-1	7.446510E-1	7.371317E-1	6.484709E-1	7.430215E-1	7.423649E-1	6.911815E-1	6.544528E-1	6.916267E-1	7.042671E-1	7.280658E-1	7.031581E-1	7.206739E-1	7.588473E-1	7.256676E-1	6.429196E-1	7.658193E-1	7.382698E-1	7.390839E-1	6.343930E-1	7.255764E-1	7.673655E-1	7.235911E-1	6.868838E-1	7.580124E-1	7.227660E-1	7.211634E-1	7.009946E-1	7.447117E-1	7.448697E-1	7.214183E-1	6.459459E-1	7.480538E-1	7.319219E-1	7.721775E-1	6.213755E-1	7.369855E-1	7.438545E-1	7.305935E-1	6.452532E-1	7.488868E-1	7.079896E-1	7.651524E-1	7.167058E-1	7.366754E-1	7.554457E-1	7.358528E-1	6.501359E-1	6.540172E-1	7.360856E-1	7.572476E-1	6.369314E-1	7.185108E-1	7.435344E-1	7.230793E-1	6.609571E-1	7.527912E-1	7.176182E-1	7.329743E-1	7.074696E-1	7.521435E-1	7.684389E-1	7.573929E-1	6.335651E-1	7.409032E-1	7.398976E-1	6.886803E-1	6.446989E-1	7.197887E-1	7.546472E-1	7.211580E-1	6.735525E-1	7.322203E-1	7.324521E-1	7.331896E-1	7.095232E-1	7.133514E-1	7.738892E-1	6.894153E-1	6.767113E-1	7.130555E-1	8.049805E-1	7.675422E-1	6.915305E-1	7.462479E-1	7.599780E-1	7.685047E-1	6.966843E-1	8.083307E-1	7.318434E-1	7.090333E-1	7.196984E-1	7.648260E-1	7.310164E-1	7.441175E-1	7.097188E-1	7.401776E-1	7.220542E-1	7.532544E-1	6.908755E-1	7.528326E-1	7.020943E-1	7.070977E-1	6.609729E-1	7.899052E-1	7.222910E-1	7.314979E-1	7.551808E-1	7.301415E-1	7.523095E-1	6.843957E-1	7.304954E-1	7.684334E-1	7.186068E-1	6.985645E-1	7.263276E-1	7.393729E-1	7.180897E-1	7.684991E-1	6.190900E-1	7.286811E-1	7.778742E-1	7.368371E-1	7.142254E-1	7.324248E-1	7.906828E-1	7.312618E-1	7.355347E-1	7.284745E-1	7.666041E-1	7.058824E-1	6.984203E-1	7.338169E-1	7.354827E-1	6.848198E-1	7.120910E-1	6.632279E-1	7.847932E-1
2.950050E+2	7.480213E-1	6.419295E-1	6.971509E-1	7.429582E-1	7.695643E-1	6.164606E-1	7.465793E-1	7.652310E-1	7.320127E-1	5.925762E-1	7.233007E-1	7.128803E-1	7.255094E-1	6.710571E-1	7.502413E-1	7.708878E-1	7.428192E-1	6.476942E-1	7.518205E-1	7.561954E-1	7.796589E-1	6.547450E-1	7.495313E-1	7.351428E-1	7.293077E-1	6.498926E-1	7.190205E-1	7.555234E-1	7.217450E-1	7.039529E-1	7.372740E-1	7.371139E-1	7.468030E-1	6.596810E-1	7.747764E-1	7.387479E-1	7.192028E-1	6.077655E-1	7.260693E-1	7.464781E-1	6.981506E-1	6.774968E-1	7.624930E-1	7.955214E-1	7.380702E-1	7.038652E-1	7.390613E-1	7.465679E-1	7.011918E-1	6.519476E-1	7.634537E-1	7.224918E-1	7.384054E-1	6.648065E-1	7.680779E-1	7.635116E-1	7.471682E-1	6.422669E-1	7.087043E-1	6.975871E-1	7.041925E-1	7.139014E-1	7.294472E-1	7.898922E-1	7.388606E-1	6.365529E-1	6.956829E-1	7.687949E-1	7.365596E-1	6.260232E-1	7.427398E-1	7.372442E-1	7.117977E-1	6.878525E-1	7.473031E-1	7.416982E-1	7.866648E-1	7.251165E-1	7.702605E-1	7.741160E-1	7.304898E-1	6.829886E-1	6.445059E-1	7.765651E-1	7.710540E-1	6.432826E-1	7.779281E-1	7.412693E-1	7.238769E-1	6.853242E-1	6.557563E-1	6.945727E-1	7.868408E-1	7.096275E-1	7.405995E-1	7.912158E-1	7.541856E-1	7.003795E-1	7.353517E-1	7.333333E-1	7.410763E-1	6.391974E-1	7.250756E-1	7.269609E-1	7.368710E-1	6.594506E-1	7.618699E-1	7.373075E-1	7.436734E-1	7.267661E-1	7.202765E-1	6.857601E-1	7.449538E-1	7.290571E-1	7.165586E-1	7.415497E-1	7.419944E-1	6.841216E-1	7.876437E-1	7.468107E-1	7.571792E-1	6.989450E-1	7.615151E-1	7.423595E-1	7.717233E-1	7.237217E-1	7.315212E-1	7.233445E-1	7.523009E-1	7.176362E-1	7.385894E-1	7.275836E-1	7.051357E-1	6.936338E-1	7.393151E-1	7.329123E-1	7.799473E-1	6.871568E-1	7.776183E-1	7.585689E-1	7.417741E-1	7.333486E-1	7.398325E-1	7.769457E-1	7.432972E-1	7.097435E-1	7.280100E-1	7.335482E-1	7.440280E-1	7.482523E-1	7.589927E-1	7.701883E-1	7.552706E-1	6.297376E-1	7.950973E-1	7.604184E-1	7.360527E-1	7.426445E-1	7.709825E-1	8.087643E-1	7.830109E-1	7.057732E-1	7.572439E-1	7.531310E-1	7.451725E-1	7.065508E-1	7.089353E-1	7.817734E-1	7.122270E-1	7.233004E-1	8.346304E-1	7.990224E-1
2.955080E+2	8.592113E-1	7.304226E-1	8.592743E-1	8.415496E-1	8.512227E-1	7.227213E-1	8.680297E-1	8.495374E-1	8.653722E-1	7.552302E-1	8.467406E-1	8.583303E-1	9.154131E-1	8.277999E-1	8.525027E-1	8.341544E-1	8.409892E-1	8.227558E-1	8.479366E-1	8.952839E-1	9.058689E-1	7.549284E-1	9.023367E-1	8.863791E-1	8.854066E-1	8.112064E-1	8.132073E-1	8.339878E-1	8.412921E-1	8.127358E-1	9.006729E-1	8.954875E-1	8.646898E-1	7.510684E-1	8.400761E-1	8.062042E-1	8.453070E-1	7.843647E-1	8.653689E-1	9.266435E-1	8.507590E-1	7.845442E-1	8.664824E-1	8.833968E-1	9.012309E-1	8.297196E-1	8.364456E-1	8.236546E-1	8.832306E-1	8.137621E-1	8.825150E-1	8.736333E-1	8.916995E-1	7.728713E-1	8.908606E-1	8.729570E-1	8.517886E-1	7.912559E-1	8.877296E-1	9.193199E-1	8.823838E-1	8.236089E-1	8.369598E-1	9.415859E-1	8.844715E-1	7.930990E-1	8.747349E-1	8.146809E-1	8.723121E-1	7.481746E-1	9.096113E-1	9.148933E-1	8.929891E-1	7.603461E-1	8.446876E-1	9.054277E-1	9.173972E-1	8.428738E-1	8.688248E-1	8.716146E-1	8.499886E-1	7.849703E-1	7.586440E-1	9.154679E-1	9.339622E-1	7.703035E-1	8.829279E-1	9.013400E-1	9.129220E-1	8.126615E-1	8.937229E-1	8.849130E-1	8.799533E-1	8.477402E-1	8.764114E-1	8.602571E-1	8.736845E-1	8.583780E-1	8.931883E-1	9.097444E-1	8.668265E-1	7.581661E-1	8.942606E-1	8.369156E-1	9.006206E-1	7.759772E-1	9.085137E-1	8.643379E-1	8.944856E-1	8.384967E-1	8.803388E-1	8.833838E-1	8.594464E-1	8.639760E-1	8.960809E-1	9.042983E-1	8.842315E-1	7.844756E-1	9.068613E-1	8.513239E-1	8.882297E-1	8.519213E-1	9.283909E-1	8.466423E-1	8.923419E-1	8.853313E-1	8.830924E-1	8.893381E-1	8.472341E-1	8.644560E-1	8.084404E-1	8.381835E-1	8.956328E-1	8.205005E-1	8.585914E-1	8.467016E-1	8.895989E-1	8.158357E-1	8.767275E-1	9.222407E-1	9.077759E-1	8.350056E-1	8.519759E-1	8.972290E-1	8.997803E-1	8.462255E-1	8.717403E-1	9.093272E-1	8.782898E-1	7.837837E-1	8.607244E-1	8.604925E-1	8.751550E-1	7.491444E-1	8.983305E-1	8.703903E-1	8.654765E-1	8.687111E-1	8.893140E-1	8.456809E-1	8.544734E-1	8.287377E-1	9.125964E-1	8.407071E-1	8.890121E-1	8.351658E-1	8.434522E-1	8.933658E-1	8.606027E-1	7.818369E-1	8.879537E-1	9.946647E-1
2.960030E+2	8.816037E-1	7.662409E-1	9.168810E-1	8.767604E-1	9.447465E-1	7.422791E-1	9.359457E-1	9.531636E-1	9.089049E-1	7.565806E-1	9.382803E-1	9.326187E-1	9.849548E-1	8.317188E-1	9.335407E-1	9.778799E-1	9.391591E-1	8.268917E-1	9.433247E-1	9.264592E-1	9.620320E-1	7.736720E-1	9.077935E-1	9.608338E-1	8.999278E-1	8.675943E-1	8.911316E-1	9.099735E-1	9.374785E-1	9.298874E-1	9.754058E-1	8.969141E-1	9.069504E-1	8.696621E-1	9.384131E-1	9.116048E-1	9.218072E-1	7.799815E-1	9.287527E-1	9.414522E-1	8.835109E-1	8.811835E-1	9.188628E-1	9.146594E-1	9.212416E-1	8.735560E-1	9.440443E-1	9.437194E-1	9.298871E-1	8.561255E-1	9.077467E-1	9.209690E-1	8.984821E-1	7.987546E-1	9.168336E-1	9.199716E-1	9.063088E-1	8.470272E-1	9.438653E-1	9.274416E-1	9.340031E-1	8.591016E-1	8.953627E-1	9.152640E-1	8.571701E-1	8.173633E-1	8.966736E-1	9.949475E-1	9.623656E-1	7.813678E-1	9.872927E-1	9.215033E-1	9.185512E-1	8.552615E-1	9.309865E-1	9.519778E-1	9.281532E-1	9.136682E-1	9.352643E-1	9.227844E-1	8.760334E-1	8.643661E-1	8.696126E-1	8.876877E-1	9.588130E-1	8.490565E-1	9.659498E-1	9.390929E-1	9.280778E-1	8.315260E-1	8.975737E-1	9.250301E-1	8.953439E-1	8.909010E-1	9.667262E-1	9.641747E-1	9.121803E-1	8.214330E-1	9.526752E-1	9.696408E-1	9.336315E-1	8.159308E-1	9.169180E-1	9.049440E-1	9.212955E-1	8.761748E-1	9.285476E-1	8.926569E-1	9.202926E-1	8.902234E-1	9.603689E-1	8.900603E-1	9.252371E-1	8.890424E-1	9.328619E-1	9.351784E-1	8.925173E-1	8.444180E-1	9.755768E-1	9.525438E-1	9.489008E-1	8.232859E-1	9.306568E-1	9.518013E-1	8.606000E-1	9.054483E-1	9.034833E-1	9.500159E-1	9.454412E-1	8.709327E-1	9.687795E-1	9.140229E-1	9.127715E-1	8.756607E-1	8.768801E-1	9.035952E-1	9.309049E-1	8.869073E-1	1.007782E+0	9.703313E-1	9.220053E-1	8.950446E-1	8.263631E-1	9.537469E-1	9.490108E-1	8.653804E-1	9.443543E-1	9.304208E-1	9.443538E-1	8.556041E-1	9.501028E-1	9.447182E-1	9.098798E-1	7.476232E-1	9.286512E-1	9.454502E-1	9.368568E-1	9.109761E-1	9.411667E-1	8.908841E-1	9.300437E-1	8.741636E-1	9.323236E-1	9.964911E-1	9.382904E-1	8.566012E-1	9.165421E-1	9.446161E-1	9.040759E-1	9.449918E-1	9.031898E-1	9.270792E-1
2.964980E+2	8.661606E-1	7.262087E-1	8.033128E-1	8.151413E-1	8.226078E-1	7.129429E-1	7.793389E-1	8.205568E-1	7.990384E-1	7.511812E-1	8.009710E-1	7.816950E-1	8.351722E-1	8.023291E-1	7.843286E-1	7.970204E-1	7.726335E-1	7.428061E-1	8.057037E-1	8.177452E-1	7.847069E-1	7.239039E-1	8.143371E-1	8.126999E-1	7.982815E-1	7.305494E-1	8.023656E-1	7.596534E-1	7.615937E-1	7.503564E-1	8.297397E-1	7.849111E-1	8.113073E-1	7.671137E-1	7.724714E-1	7.969290E-1	8.088504E-1	7.104691E-1	8.439946E-1	8.090013E-1	8.256731E-1	7.429147E-1	8.094813E-1	8.310097E-1	7.996410E-1	7.533587E-1	7.880939E-1	8.270659E-1	8.266303E-1	7.227852E-1	8.257436E-1	7.673358E-1	7.947035E-1	7.431046E-1	8.034958E-1	7.735313E-1	8.134763E-1	7.203466E-1	8.657308E-1	7.861182E-1	8.300578E-1	7.655287E-1	7.772310E-1	7.975125E-1	8.124248E-1	6.858652E-1	8.089174E-1	8.368041E-1	8.111558E-1	6.505860E-1	8.319302E-1	7.818627E-1	8.486309E-1	7.252205E-1	8.011414E-1	7.746048E-1	8.280357E-1	8.344627E-1	7.877826E-1	8.038491E-1	8.101562E-1	7.089973E-1	6.944419E-1	7.940268E-1	8.248960E-1	7.220359E-1	7.526960E-1	7.344748E-1	8.076306E-1	7.584255E-1	8.359646E-1	7.748064E-1	8.199301E-1	8.081771E-1	7.765892E-1	8.118571E-1	8.408018E-1	7.168873E-1	8.273571E-1	7.809231E-1	8.098460E-1	6.893982E-1	8.081582E-1	8.036915E-1	7.897998E-1	7.700400E-1	8.243737E-1	8.481561E-1	8.154509E-1	8.157364E-1	8.410930E-1	7.912479E-1	8.227064E-1	7.777159E-1	7.848645E-1	7.807760E-1	7.993038E-1	7.076950E-1	8.348345E-1	7.937173E-1	8.283671E-1	7.539560E-1	7.917189E-1	8.212285E-1	7.891819E-1	7.974858E-1	7.879346E-1	7.805351E-1	8.144987E-1	7.636972E-1	7.949469E-1	7.678742E-1	7.921448E-1	7.350034E-1	8.100858E-1	8.293172E-1	8.475405E-1	7.140900E-1	8.759086E-1	8.176258E-1	8.224033E-1	7.927051E-1	7.820593E-1	8.211457E-1	8.584617E-1	7.879611E-1	8.163437E-1	8.574729E-1	8.022788E-1	7.384240E-1	8.200314E-1	8.040531E-1	8.090118E-1	7.635949E-1	8.275829E-1	8.145322E-1	8.631238E-1	7.972978E-1	8.228356E-1	8.230784E-1	8.446159E-1	7.699967E-1	8.156032E-1	8.247078E-1	8.470592E-1	7.715977E-1	7.913562E-1	8.189704E-1	8.331958E-1	7.569273E-1	8.651001E-1	8.061374E-1
2.970040E+2	7.264014E-1	7.346370E-1	7.078495E-1	7.411977E-1	7.388544E-1	7.005568E-1	7.290011E-1	7.081493E-1	7.631074E-1	7.032620E-1	7.115121E-1	7.113160E-1	7.502505E-1	7.507349E-1	7.688932E-1	7.585103E-1	7.326386E-1	7.531443E-1	7.714805E-1	7.801759E-1	7.449516E-1	7.213186E-1	7.856858E-1	8.095976E-1	7.692406E-1	7.491079E-1	7.556111E-1	7.200084E-1	7.279284E-1	7.206882E-1	7.170075E-1	7.185659E-1	7.601480E-1	7.280474E-1	7.340588E-1	7.067075E-1	7.186044E-1	6.660059E-1	7.422845E-1	7.621093E-1	7.678351E-1	7.057456E-1	7.694258E-1	7.752422E-1	7.203697E-1	7.137638E-1	7.479145E-1	7.349706E-1	6.683026E-1	6.977832E-1	7.547796E-1	7.673357E-1	7.438317E-1	6.596297E-1	7.515498E-1	6.933750E-1	7.309594E-1	6.327061E-1	7.618054E-1	7.763713E-1	7.289416E-1	7.195481E-1	7.473660E-1	7.310170E-1	7.600964E-1	6.670799E-1	7.671624E-1	7.368384E-1	7.580642E-1	6.227040E-1	7.592826E-1	7.917788E-1	7.448782E-1	6.557161E-1	7.560125E-1	7.561454E-1	7.825280E-1	7.370326E-1	7.301052E-1	7.250198E-1	6.952542E-1	6.624552E-1	6.920634E-1	7.408471E-1	7.593189E-1	6.953610E-1	7.176963E-1	7.352293E-1	6.927687E-1	6.507384E-1	7.527914E-1	7.355436E-1	6.821854E-1	6.938017E-1	7.521432E-1	7.954866E-1	7.437589E-1	7.302503E-1	7.758026E-1	7.308722E-1	7.430418E-1	6.309451E-1	7.129910E-1	7.712594E-1	7.873193E-1	7.076941E-1	7.314187E-1	7.251700E-1	7.428681E-1	7.233177E-1	7.449015E-1	6.904333E-1	7.791312E-1	7.224220E-1	7.305708E-1	7.440535E-1	7.185190E-1	6.410170E-1	7.263793E-1	7.739684E-1	6.981256E-1	6.974378E-1	7.803923E-1	7.993210E-1	7.249038E-1	7.699916E-1	7.220048E-1	7.296215E-1	7.539382E-1	7.003622E-1	7.092208E-1	6.841348E-1	7.249110E-1	7.129394E-1	7.560130E-1	7.384428E-1	7.116031E-1	7.013714E-1	7.612368E-1	7.543500E-1	7.267550E-1	7.237967E-1	6.934526E-1	7.254996E-1	7.749450E-1	7.312940E-1	8.140981E-1	7.493682E-1	7.383451E-1	6.666039E-1	7.786124E-1	7.458755E-1	7.643652E-1	7.027504E-1	7.958183E-1	7.525631E-1	7.925291E-1	7.040232E-1	7.756350E-1	7.695883E-1	7.821888E-1	7.292689E-1	7.350504E-1	7.127117E-1	7.105441E-1	6.969417E-1	7.268192E-1	7.197766E-1	6.914353E-1	7.345095E-1	7.241708E-1	7.990227E-1
2.975040E+2	8.978191E-1	9.165398E-1	9.028909E-1	9.014086E-1	9.147350E-1	8.361539E-1	9.007890E-1	8.811521E-1	9.261798E-1	8.834647E-1	8.834952E-1	8.950835E-1	8.839845E-1	9.029062E-1	9.033121E-1	9.091117E-1	8.606231E-1	8.785828E-1	9.258499E-1	8.832932E-1	9.001894E-1	9.158677E-1	8.900572E-1	9.057685E-1	8.425700E-1	8.725911E-1	8.633501E-1	8.686763E-1	8.735826E-1	9.017400E-1	8.899067E-1	8.355626E-1	8.713627E-1	8.431533E-1	8.623555E-1	9.191935E-1	8.925215E-1	8.814318E-1	8.867425E-1	9.077226E-1	8.793297E-1	8.856436E-1	8.718748E-1	9.239543E-1	8.827602E-1	8.926464E-1	9.072697E-1	8.809586E-1	8.916436E-1	8.623765E-1	8.777842E-1	8.902429E-1	8.828817E-1	8.453450E-1	8.947956E-1	8.983910E-1	8.893634E-1	8.398568E-1	8.793859E-1	8.941418E-1	9.007689E-1	9.357353E-1	8.847441E-1	9.041821E-1	8.602032E-1	7.954470E-1	8.393493E-1	8.638444E-1	9.092747E-1	7.833594E-1	8.851561E-1	8.537490E-1	9.020108E-1	8.119137E-1	8.858572E-1	8.773370E-1	9.041579E-1	8.667054E-1	8.790459E-1	8.660826E-1	8.921196E-1	8.321972E-1	8.434552E-1	9.210233E-1	9.546713E-1	7.887218E-1	8.682766E-1	8.703830E-1	8.522996E-1	8.236667E-1	8.683099E-1	9.130804E-1	8.922656E-1	8.570911E-1	8.845597E-1	9.100805E-1	8.600501E-1	8.190754E-1	8.662218E-1	8.834874E-1	8.779611E-1	7.636673E-1	8.935042E-1	8.764671E-1	8.509997E-1	7.893369E-1	9.029043E-1	8.651476E-1	9.194867E-1	8.902237E-1	9.088104E-1	9.301195E-1	8.944778E-1	8.514427E-1	8.365316E-1	8.867719E-1	9.242786E-1	7.716785E-1	8.845075E-1	9.023460E-1	9.400019E-1	7.818389E-1	8.868610E-1	9.482964E-1	8.375880E-1	8.906952E-1	8.898894E-1	8.767837E-1	8.848808E-1	8.622964E-1	8.647971E-1	9.163925E-1	8.725625E-1	7.956793E-1	8.649524E-1	8.846308E-1	8.926022E-1	8.756856E-1	8.742709E-1	8.952433E-1	8.777377E-1	8.929985E-1	8.616669E-1	8.689687E-1	8.953840E-1	8.422347E-1	8.597630E-1	8.891132E-1	8.704750E-1	7.527876E-1	8.781639E-1	8.874101E-1	9.049195E-1	8.518190E-1	9.048278E-1	8.424614E-1	9.023432E-1	8.927591E-1	9.225529E-1	9.021845E-1	8.824020E-1	8.404859E-1	9.125971E-1	8.777589E-1	9.109877E-1	7.885981E-1	8.675564E-1	9.239508E-1	9.069111E-1	8.391278E-1	8.498651E-1	9.092931E-1
2.980040E+2	1.067692E+0	9.895817E-1	1.005761E+0	1.029050E+0	1.043854E+0	1.030422E+0	1.043014E+0	1.072597E+0	1.028445E+0	1.005624E+0	1.053398E+0	1.030367E+0	1.010365E+0	1.026341E+0	9.933537E-1	1.042521E+0	1.017695E+0	1.019184E+0	1.054005E+0	1.046363E+0	1.011254E+0	1.024453E+0	1.027855E+0	1.061657E+0	1.043684E+0	1.065310E+0	1.025297E+0	1.004956E+0	1.026108E+0	1.014327E+0	1.035572E+0	1.080971E+0	9.766449E-1	1.014069E+0	9.914213E-1	1.024593E+0	9.941233E-1	1.073688E+0	1.021620E+0	1.017140E+0	1.011730E+0	1.036549E+0	1.022081E+0	9.915503E-1	1.025142E+0	9.873910E-1	1.006696E+0	1.021489E+0	1.028555E+0	1.014469E+0	1.070176E+0	1.006505E+0	1.043637E+0	9.831760E-1	1.004198E+0	1.006295E+0	1.047767E+0	1.015935E+0	1.041722E+0	9.997295E-1	1.021685E+0	1.024469E+0	1.034732E+0	1.018471E+0	1.067244E+0	1.017741E+0	1.048832E+0	1.018710E+0	1.018145E+0	1.035627E+0	1.073606E+0	1.084280E+0	9.877202E-1	1.023417E+0	1.053706E+0	1.060328E+0	9.984828E-1	1.016004E+0	1.068873E+0	1.032039E+0	1.020044E+0	1.012206E+0	9.988113E-1	1.049608E+0	1.014726E+0	1.063722E+0	1.010717E+0	1.026678E+0	1.002260E+0	1.037467E+0	1.019253E+0	1.033430E+0	1.012312E+0	1.036926E+0	1.066548E+0	1.027521E+0	1.066165E+0	9.550635E-1	9.947123E-1	1.032000E+0	1.052833E+0	8.922636E-1	1.014351E+0	1.065524E+0	9.576843E-1	9.897323E-1	1.032721E+0	9.929873E-1	1.025136E+0	1.019197E+0	9.819159E-1	1.020252E+0	1.058528E+0	9.922583E-1	1.010801E+0	1.030323E+0	1.069968E+0	9.178315E-1	9.697817E-1	1.015087E+0	9.812597E-1	9.762625E-1	1.001636E+0	1.046446E+0	1.013754E+0	9.879297E-1	1.048938E+0	1.033710E+0	1.076383E+0	1.005518E+0	1.013229E+0	1.003292E+0	1.011645E+0	9.797748E-1	1.048638E+0	1.032398E+0	1.060083E+0	9.841646E-1	1.052831E+0	1.058916E+0	1.015283E+0	9.946556E-1	1.018114E+0	1.037800E+0	1.042198E+0	9.962752E-1	1.046912E+0	1.023583E+0	1.004025E+0	9.372523E-1	1.099068E+0	9.881333E-1	1.009921E+0	1.010014E+0	1.048488E+0	1.039712E+0	1.028630E+0	9.714586E-1	9.697524E-1	1.044576E+0	9.793275E-1	9.979107E-1	1.030139E+0	1.015017E+0	1.081464E+0	9.911300E-1	9.779693E-1	1.032238E+0	1.027879E+0	1.003529E+0	1.011745E+0	1.023123E+0
2.985020E+2	9.704010E-1	9.755359E-1	1.027158E+0	9.771123E-1	1.027103E+0	1.007606E+0	1.011053E+0	9.926812E-1	1.018772E+0	1.030596E+0	1.054785E+0	1.009254E+0	1.027082E+0	1.029607E+0	1.024225E+0	9.813178E-1	1.033693E+0	1.049509E+0	9.928392E-1	1.023182E+0	1.021981E+0	1.003771E+0	1.037406E+0	1.061658E+0	1.075629E+0	1.036046E+0	1.042238E+0	1.004130E+0	1.013054E+0	1.030302E+0	9.899720E-1	1.023185E+0	1.030770E+0	1.058716E+0	9.967989E-1	1.050732E+0	1.055084E+0	1.023589E+0	1.012038E+0	1.008912E+0	1.024273E+0	1.047700E+0	1.042109E+0	1.011830E+0	1.002052E+0	1.026279E+0	1.042109E+0	1.064467E+0	1.045383E+0	1.049192E+0	1.033116E+0	1.036401E+0	1.004975E+0	1.064062E+0	1.016791E+0	1.024792E+0	1.001351E+0	1.062942E+0	1.057652E+0	1.037903E+0	1.021685E+0	1.009949E+0	1.031413E+0	1.001847E+0	1.047526E+0	1.052182E+0	1.051663E+0	1.040833E+0	1.028226E+0	1.093384E+0	1.018940E+0	1.049577E+0	9.854649E-1	1.021922E+0	1.026787E+0	1.062736E+0	1.019168E+0	1.052453E+0	1.049890E+0	1.043102E+0	1.020810E+0	1.049166E+0	1.035272E+0	9.821413E-1	1.023700E+0	1.049750E+0	1.040834E+0	1.026678E+0	1.074049E+0	1.045328E+0	1.027724E+0	1.035991E+0	1.026933E+0	1.039084E+0	1.017655E+0	9.841040E-1	9.859648E-1	9.943663E-1	1.082752E+0	1.005743E+0	9.807878E-1	1.068997E+0	1.041541E+0	1.003032E+0	1.023845E+0	1.046141E+0	9.974620E-1	1.022115E+0	9.823920E-1	9.750558E-1	1.049635E+0	1.020920E+0	1.029478E+0	1.041655E+0	1.042327E+0	1.035332E+0	9.788255E-1	9.939384E-1	1.029390E+0	9.903992E-1	1.071862E+0	1.026752E+0	1.015228E+0	1.021032E+0	1.035181E+0	1.042917E+0	1.028547E+0	1.033013E+0	1.016640E+0	9.493809E-1	1.092605E+0	1.029361E+0	1.038012E+0	1.000460E+0	1.039891E+0	1.026867E+0	1.032294E+0	1.022319E+0	1.012696E+0	1.029388E+0	1.047693E+0	9.994311E-1	9.883471E-1	1.016787E+0	1.008792E+0	9.906880E-1	1.000499E+0	1.008642E+0	1.017523E+0	9.629558E-1	1.000242E+0	1.050651E+0	1.007441E+0	9.408040E-1	1.061483E+0	1.063277E+0	1.028630E+0	1.037771E+0	1.072129E+0	1.007659E+0	1.058183E+0	9.595335E-1	1.020275E+0	1.049542E+0	9.795784E-1	9.637809E-1	1.051837E+0	1.050424E+0	1.008033E+0	9.537098E-1	1.019363E+0	1.005336E+0
2.990010E+2	9.572741E-1	1.004331E+0	9.053597E-1	9.991193E-1	9.335796E-1	1.014776E+0	9.671074E-1	9.821433E-1	9.344715E-1	9.914510E-1	9.361996E-1	9.638981E-1	9.635571E-1	9.747472E-1	9.843502E-1	9.586250E-1	9.784269E-1	9.647350E-1	9.491505E-1	9.664271E-1	9.752844E-1	9.817944E-1	9.262122E-1	9.290353E-1	9.536544E-1	9.725196E-1	9.710886E-1	9.966961E-1	9.319823E-1	1.010523E+0	9.982056E-1	9.732479E-1	9.936977E-1	9.763972E-1	9.775935E-1	9.689420E-1	9.755960E-1	9.734889E-1	9.737123E-1	9.727144E-1	1.013124E+0	9.480875E-1	9.812564E-1	9.940856E-1	9.728070E-1	9.499174E-1	9.658365E-1	9.416728E-1	9.994900E-1	9.346026E-1	9.503251E-1	9.442215E-1	9.839467E-1	9.825289E-1	9.931786E-1	9.808599E-1	9.416729E-1	1.007170E+0	9.673807E-1	9.745505E-1	9.792579E-1	9.760689E-1	9.557557E-1	9.727557E-1	9.944384E-1	1.006784E+0	9.455056E-1	9.736425E-1	9.771508E-1	9.626017E-1	9.757846E-1	9.562075E-1	1.004260E+0	9.830601E-1	9.594897E-1	9.295048E-1	9.910365E-1	9.921729E-1	9.498661E-1	9.435291E-1	9.534010E-1	9.944101E-1	1.012286E+0	9.543607E-1	9.298201E-1	9.887794E-1	1.000950E+0	1.000252E+0	9.775326E-1	9.494321E-1	9.899883E-1	9.344191E-1	9.630630E-1	9.419730E-1	9.667262E-1	9.463806E-1	9.795493E-1	1.047033E+0	9.685384E-1	9.737435E-1	9.532800E-1	1.037364E+0	9.705437E-1	9.104815E-1	1.054445E+0	1.030555E+0	9.758270E-1	9.784238E-1	9.864238E-1	9.819527E-1	9.626782E-1	9.461429E-1	9.303638E-1	1.004792E+0	9.880314E-1	9.351782E-1	9.753734E-1	1.078128E+0	9.416328E-1	9.434917E-1	9.286776E-1	1.041824E+0	1.013717E+0	9.263889E-1	9.780454E-1	9.805533E-1	9.857265E-1	9.548984E-1	9.536251E-1	1.032866E+0	9.997356E-1	9.914421E-1	9.615489E-1	1.045277E+0	9.786631E-1	9.968387E-1	9.444238E-1	9.938903E-1	9.832085E-1	9.753933E-1	9.662729E-1	9.680472E-1	9.911160E-1	9.943241E-1	9.683512E-1	9.922849E-1	9.750473E-1	9.866705E-1	9.599818E-1	9.901715E-1	9.508298E-1	9.733714E-1	9.718890E-1	1.000127E+0	9.719653E-1	9.759988E-1	9.423478E-1	1.021010E+0	9.504737E-1	9.669765E-1	9.267574E-1	9.094083E-1	9.249264E-1	9.535456E-1	9.582682E-1	9.416058E-1	9.670838E-1	9.280850E-1	9.456585E-1	9.425017E-1	9.812719E-1	1.062249E+0
2.995040E+2	1.021362E+0	1.002926E+0	1.038679E+0	1.030810E+0	9.991855E-1	1.042157E+0	1.003062E+0	9.408689E-1	1.018772E+0	1.031271E+0	9.909848E-1	1.031930E+0	1.019057E+0	9.969521E-1	1.037732E+0	1.026017E+0	1.014059E+0	1.014358E+0	1.005218E+0	9.760189E-1	9.872737E-1	1.046429E+0	1.059235E+0	9.685894E-1	1.005929E+0	1.014632E+0	9.914169E-1	1.023952E+0	1.067330E+0	1.023456E+0	1.033039E+0	1.041733E+0	1.037442E+0	1.030113E+0	1.052881E+0	9.487055E-1	9.654354E-1	9.810039E-1	1.003194E+0	9.924591E-1	9.991872E-1	1.040267E+0	9.928107E-1	9.602866E-1	1.020523E+0	1.063752E+0	1.006697E+0	1.024900E+0	9.604817E-1	1.035303E+0	9.858075E-1	1.048858E+0	9.988697E-1	1.066650E+0	1.006559E+0	1.004753E+0	1.044083E+0	1.038243E+0	9.886211E-1	1.013536E+0	9.941077E-1	1.004302E+0	1.024113E+0	1.007388E+0	9.876134E-1	1.025569E+0	1.011323E+0	9.916696E-1	1.021505E+0	1.060854E+0	1.021098E+0	1.004131E+0	1.009523E+0	1.041354E+0	9.610731E-1	9.856870E-1	1.010067E+0	1.011099E+0	1.025067E+0	1.023741E+0	1.013916E+0	1.061486E+0	1.005945E+0	1.031352E+0	9.953981E-1	1.007198E+0	1.002577E+0	1.028189E+0	1.049322E+0	1.057119E+0	9.992302E-1	1.006971E+0	1.017700E+0	9.980818E-1	1.012223E+0	9.869509E-1	1.036491E+0	1.073759E+0	1.039922E+0	1.041026E+0	1.037769E+0	1.097193E+0	1.018883E+0	1.043376E+0	1.017229E+0	1.009772E+0	1.023106E+0	1.060953E+0	9.920691E-1	1.043336E+0	1.002693E+0	1.011573E+0	9.756491E-1	1.015114E+0	1.016055E+0	1.009459E+0	9.753734E-1	1.132009E+0	1.050916E+0	1.050473E+0	1.015236E+0	1.029766E+0	9.880445E-1	1.035053E+0	1.035181E+0	1.011400E+0	9.755311E-1	1.024643E+0	1.058378E+0	1.059495E+0	9.886228E-1	9.803817E-1	1.028783E+0	1.056309E+0	1.006494E+0	9.897279E-1	9.812239E-1	1.026060E+0	1.008601E+0	9.728621E-1	9.749677E-1	1.073798E+0	1.021575E+0	1.024032E+0	1.006155E+0	1.038577E+0	1.041672E+0	1.010399E+0	1.072932E+0	1.134568E+0	1.015502E+0	1.041100E+0	9.917323E-1	1.057168E+0	9.755754E-1	1.017019E+0	1.052162E+0	9.947783E-1	1.018282E+0	1.000879E+0	1.029434E+0	1.102080E+0	1.044112E+0	9.914389E-1	1.003552E+0	1.150790E+0	1.013736E+0	9.834671E-1	9.806263E-1	1.130566E+0	1.034596E+0	1.016007E+0
3.000060E+2	1.085451E+0	1.111085E+0	1.120152E+0	1.062500E+0	1.081543E+0	1.068885E+0	1.074974E+0	1.130558E+0	1.073360E+0	1.057593E+0	1.081137E+0	1.069467E+0	1.095955E+0	1.069446E+0	1.057027E+0	1.082407E+0	1.095504E+0	1.073631E+0	1.072937E+0	1.104716E+0	1.104018E+0	1.027685E+0	1.059235E+0	1.073292E+0	1.078534E+0	1.038901E+0	1.106610E+0	1.101590E+0	1.087942E+0	1.019652E+0	1.053305E+0	1.045300E+0	1.090083E+0	1.077551E+0	1.118950E+0	1.087834E+0	1.117240E+0	1.066799E+0	1.102693E+0	1.101052E+0	1.072356E+0	1.041753E+0	1.089868E+0	1.118294E+0	1.096716E+0	1.080014E+0	1.071392E+0	1.066513E+0	1.074447E+0	1.104057E+0	1.082792E+0	1.073772E+0	1.085691E+0	1.058238E+0	1.084478E+0	1.084909E+0	1.075764E+0	1.035853E+0	1.065238E+0	1.080139E+0	1.082496E+0	1.049476E+0	1.069242E+0	1.095356E+0	1.042976E+0	1.102277E+0	1.103326E+0	1.111301E+0	1.045699E+0	1.064174E+0	1.025414E+0	1.052055E+0	1.111021E+0	1.118332E+0	1.113086E+0	1.084407E+0	1.077087E+0	1.061565E+0	1.027257E+0	1.091506E+0	1.099709E+0	1.050535E+0	1.104231E+0	1.061514E+0	1.081684E+0	1.101829E+0	1.076646E+0	1.047820E+0	1.044536E+0	1.086987E+0	1.095495E+0	1.076108E+0	1.087726E+0	1.126843E+0	1.052288E+0	1.144963E+0	1.071780E+0	1.110703E+0	1.047854E+0	1.064000E+0	1.097369E+0	1.140516E+0	1.061178E+0	1.101120E+0	1.095796E+0	1.134463E+0	1.067980E+0	1.080372E+0	1.094493E+0	1.090235E+0	1.094267E+0	1.070993E+0	1.111503E+0	1.094738E+0	1.106255E+0	1.102935E+0	1.076181E+0	1.106415E+0	1.123772E+0	1.098203E+0	1.062963E+0	1.143557E+0	1.094513E+0	1.022784E+0	1.100251E+0	1.086505E+0	1.071368E+0	1.076952E+0	1.010093E+0	1.090443E+0	1.041010E+0	1.079131E+0	1.087448E+0	1.122501E+0	1.061361E+0	1.069537E+0	1.089373E+0	1.097880E+0	1.068394E+0	1.068197E+0	1.118046E+0	1.071070E+0	1.119181E+0	1.058088E+0	1.079121E+0	1.139940E+0	1.076107E+0	1.081591E+0	1.075063E+0	1.222265E+0	1.056194E+0	1.059334E+0	1.114097E+0	1.140068E+0	1.037660E+0	1.061531E+0	1.045886E+0	1.082222E+0	1.066810E+0	1.077725E+0	1.123896E+0	1.190582E+0	1.067950E+0	1.112698E+0	1.066149E+0	1.164095E+0	1.121817E+0	1.081835E+0	1.130892E+0	1.130566E+0	1.103159E+0	9.839921E-1
