Photon Energy (eV)	#1	#2	#3	#4	#5	#6	#7	#8	#9	#10	#11	#12	#13	#14	#15	#16	#17	#18	#19	#20	#21	#22	#23	#24	#25	#26	#27	#28	#29	#30	#31	#32	#33	#34	#35	#36	#37	#38	#39	#40	#41	#42	#43	#44	#45	#46	#47	#48	#49	#50	#51	#52	#53	#54	#55	#56	#57	#58	#59	#60	#61	#62	#63	#64	#65	#66	#67	#68	#69	#70	#71	#72	#73	#74	#75	#76	#77	#78	#79	#80	#81	#82	#83	#84	#85	#86	#87	#88	#89	#90	#91	#92	#93	#94	#95	#96	#97	#98	#99	#100	#101	#102	#103	#104	#105	#106	#107	#108	#109	#110	#111	#112	#113	#114	#115	#116	#117	#118	#119	#120	#121	#122	#123	#124	#125	#126	#127	#128	#129	#130	#131	#132	#133	#134	#135	#136	#137	#138	#139	#140	#141	#142	#143	#144	#145	#146	#147	#148	#149	#150	#151	#152	#153	#154	#155	#156	#157	#158	#159	#160	#161	#162	#163	#164	#165	#166	#167	#168	#169	#170	#171	#172	
2.790040E+2	6.245785E-4	2.394875E-3	-3.385050E-3	2.991326E-3	-2.720263E-3	-2.569492E-3	-1.391463E-3	1.325347E-3	-1.560344E-3	4.856069E-4	-3.543351E-3	3.150022E-3	2.578138E-3	-4.187202E-3	-6.124650E-3	-3.948569E-4	-2.950544E-3	2.586548E-3	-6.410945E-3	-5.304851E-3	-3.781463E-3	3.825784E-4	1.331240E-3	3.185563E-3	-1.543558E-3	5.256079E-3	-4.527291E-3	-4.947526E-4	-7.861239E-3	-3.149562E-3	-5.036412E-3	-1.104954E-3	-7.175111E-3	-6.969740E-3	-6.532921E-4	2.459577E-3	1.440362E-5	-2.482134E-3	2.335820E-3	2.456527E-3	-4.112485E-4	-1.459844E-3	-4.074170E-3	3.140660E-4	-5.195507E-3	-5.114102E-3	-3.387322E-3	-5.668098E-3	3.538276E-3	-1.902984E-3	5.142547E-3	-7.967166E-3	5.109927E-3	-3.843598E-3	9.833630E-4	-4.978075E-3	-6.854292E-3	-8.309559E-3	-5.064562E-3	-6.104983E-3	-4.280805E-3	-5.100153E-3	-8.034102E-4	-6.517546E-3	-3.190102E-3	2.352177E-3	-4.789124E-3	-9.645604E-3	-5.814242E-3	1.081088E-3	3.773924E-3	-1.330686E-2	-6.140443E-3	3.113067E-3	-3.334395E-4	-5.508553E-3	-2.186524E-3	5.184400E-3	-5.504439E-3	-7.626287E-3	4.831025E-3	-3.207360E-3	-2.476661E-3	-9.772056E-3	-2.998234E-3	-3.465589E-3	-1.874418E-3	1.760642E-3	-3.197572E-3	4.086659E-3	-6.446602E-3	-2.550074E-3	-8.096167E-3	2.849223E-3	-1.172168E-3	-4.361475E-4	1.706945E-3	-4.707825E-3	1.307061E-3	4.986692E-3	-6.623644E-3	-8.472569E-3	-3.510770E-3	-1.412432E-3	-8.022289E-3	-2.922799E-3	-3.275680E-3	-4.074670E-3	-6.710025E-3	4.594049E-3	-5.835171E-3	-1.476249E-3	-1.259141E-3	-2.525078E-3	-1.594841E-3	1.138563E-3	-2.614688E-3	2.102462E-3	-4.850672E-3	-3.400797E-3	-4.672675E-3	8.969621E-4	-2.055163E-3	-9.736620E-3	-3.187430E-3	-5.413792E-3	-6.656774E-3	-2.383528E-3	-6.730000E-5	2.630228E-3	-8.054359E-3	-8.086803E-3	-5.819418E-3	-6.561950E-3	-4.563171E-3	-5.064729E-3	-4.580345E-3	-1.148227E-2	-7.117323E-3	-5.376874E-3	-7.209849E-3	-4.475005E-3	2.807279E-4	-1.518075E-3	-7.544223E-3	-8.431079E-3	-2.694429E-3	-6.594989E-3	-3.416165E-3	-5.575013E-3	-5.656949E-3	-5.501538E-3	4.198481E-3	-1.921219E-3	8.715388E-6	-1.053113E-3	-3.124702E-3	5.423513E-3	-5.468421E-3	3.631445E-3	-6.717730E-3	-5.264160E-3	-4.196649E-3	-2.526404E-3	-5.606604E-3	-3.680935E-3	-4.047119E-3	-5.700984E-3	-7.641846E-3	-5.377273E-3	-1.234133E-2	5.924693E-3
2.795020E+2	-1.969678E-3	-1.023751E-3	1.555586E-3	5.082139E-3	-1.946867E-3	-2.511184E-3	-5.405312E-3	5.304786E-3	-2.288545E-3	5.557305E-4	-7.484763E-3	-5.101429E-3	-5.974414E-3	1.790606E-4	-4.914900E-4	-3.043857E-4	3.255864E-3	-1.862010E-3	-4.414855E-3	-5.239675E-3	-4.378545E-3	-1.522116E-3	-6.074531E-3	-5.960201E-3	-5.437444E-3	8.703237E-3	-1.966789E-3	-7.234712E-3	3.052458E-3	1.270571E-4	-4.381666E-3	-3.874926E-3	-3.188362E-3	-1.882461E-3	-7.229779E-3	-1.814584E-3	-3.045187E-3	7.333928E-4	-3.295509E-3	-6.701683E-3	-3.361045E-3	-7.354490E-3	1.232022E-3	-1.304990E-3	-2.689652E-3	-1.106789E-2	6.647415E-4	-8.255386E-3	-5.274646E-3	-5.510484E-3	-3.707848E-3	-4.060928E-4	3.073610E-3	-3.785652E-3	-2.990433E-3	-2.475862E-4	-3.486799E-3	-4.996312E-3	-2.146199E-3	1.413296E-3	-5.773340E-3	2.238154E-3	-2.707216E-3	-3.078935E-3	3.111699E-3	4.165317E-5	-3.436562E-3	-5.404599E-3	-6.457344E-3	-4.244357E-3	-3.451799E-3	1.386013E-3	-1.013638E-2	-1.410103E-3	-6.406324E-3	1.154039E-2	4.218567E-4	-7.773858E-3	2.453345E-3	3.202505E-3	-1.260780E-3	-9.854883E-4	-2.407602E-3	-1.190780E-3	-9.145121E-3	-2.779548E-3	-5.204464E-3	-5.380539E-3	-8.169140E-3	-8.389191E-3	-2.754474E-3	-6.799713E-3	-3.098366E-3	-3.912313E-3	-4.430595E-3	-4.617937E-3	-7.643226E-3	1.317045E-3	-5.233134E-3	-3.582873E-3	-1.179587E-3	-3.169730E-3	-1.513715E-3	-3.037976E-3	-7.117525E-3	3.310107E-3	-8.814281E-3	-4.025263E-3	-3.419679E-3	-5.388237E-3	3.949162E-3	-5.551958E-3	-8.876315E-3	4.745766E-4	-3.033739E-3	-8.848093E-3	-3.986882E-3	-1.621624E-3	1.936824E-5	1.144522E-3	-7.279565E-3	-4.327544E-3	-4.153930E-3	-1.986405E-3	1.962843E-3	-4.027382E-3	6.276142E-4	-8.185918E-3	-1.724448E-3	-4.964709E-3	-1.339833E-3	-4.558529E-3	-7.131209E-3	2.948059E-3	-5.857313E-3	-1.100356E-2	1.815638E-3	-3.468005E-3	-4.681463E-3	1.700840E-3	6.616670E-3	-3.724767E-3	-2.441535E-3	-1.447236E-3	-3.238721E-3	8.059779E-6	-8.990565E-3	-3.958887E-3	-6.217140E-4	-9.144729E-3	-3.699861E-3	-9.729247E-3	-1.279022E-2	-5.220854E-3	-4.535209E-3	-7.364123E-3	-3.068409E-3	-4.280816E-3	-9.809765E-4	-6.101979E-4	-7.465939E-3	-3.748895E-3	7.283274E-3	-2.433965E-3	-1.530483E-3	-9.532331E-4	-3.086852E-3	-4.740151E-3	1.410016E-3	-4.110523E-3	9.355587E-3	2.214014E-3
2.800050E+2	-2.294596E-4	-6.202057E-3	2.442764E-3	-9.991307E-4	-8.665551E-3	-2.453393E-3	-3.981938E-3	3.452837E-3	-1.461056E-3	-1.639301E-3	3.886833E-3	5.873472E-3	4.876268E-3	3.844660E-3	-1.672259E-3	2.584289E-3	2.559814E-3	-7.084839E-3	-2.407912E-3	3.280557E-3	-4.333344E-3	5.311119E-4	8.919224E-4	-8.052706E-4	-6.234979E-4	-3.054210E-3	2.498333E-3	1.457498E-3	5.295865E-3	-1.424136E-3	-3.723391E-3	7.711080E-3	-6.276891E-3	-3.276457E-3	-1.995777E-3	-6.113754E-3	2.616723E-3	-2.342415E-3	1.219057E-3	-6.826385E-4	-2.793707E-4	-2.086274E-3	-1.714293E-3	-1.187144E-3	-3.452266E-3	3.257139E-3	-6.623504E-3	2.391044E-3	5.320090E-3	-4.726408E-3	8.248408E-5	3.016995E-3	-8.838002E-3	7.500838E-4	-2.925563E-3	1.389944E-3	-7.569525E-3	3.237161E-3	2.228154E-3	6.488564E-3	1.287381E-3	1.502560E-3	6.265696E-4	-6.394406E-3	1.100545E-2	8.856253E-3	1.848309E-3	9.769620E-3	-9.884023E-3	-2.833256E-3	-2.172867E-3	-6.283701E-3	2.056525E-3	-1.354587E-3	-5.678403E-3	5.655356E-4	-2.069992E-3	-2.653803E-3	1.867369E-3	4.733204E-3	5.005170E-3	-2.379293E-3	-3.107136E-3	-1.120971E-3	2.630225E-3	-8.341241E-4	-9.237212E-3	-5.019593E-4	1.954156E-3	-2.427097E-3	-4.158354E-3	-8.470933E-3	-2.214004E-3	6.412015E-3	9.564506E-4	-6.689878E-3	-8.439321E-3	-2.356339E-3	7.209406E-4	-9.055769E-4	-4.509673E-4	1.887405E-4	-2.730775E-3	4.683605E-4	-1.049284E-3	2.793525E-4	3.899932E-3	-1.380408E-2	-5.777646E-3	2.596769E-3	-8.484902E-4	5.572294E-3	1.090290E-2	1.259050E-3	8.278870E-4	3.108830E-3	-1.085422E-3	9.960047E-4	-7.453639E-3	3.313269E-4	-2.808050E-3	-2.760167E-3	-1.206055E-3	9.671412E-4	-3.092010E-3	7.371137E-4	9.267653E-3	-2.985266E-3	1.842209E-3	-2.816862E-3	-5.207423E-4	-2.757427E-3	1.745645E-3	-3.293968E-3	1.734270E-3	3.716506E-3	1.881326E-3	-1.955072E-3	9.290134E-4	1.144566E-2	-1.421150E-3	-5.031515E-3	1.117815E-3	-2.102107E-3	-2.318363E-3	1.761452E-3	-1.885394E-3	1.242646E-2	5.619235E-3	8.424668E-3	-2.368249E-3	-7.073182E-3	4.344871E-3	-4.318862E-3	-1.844853E-3	-8.507129E-4	1.776481E-4	-7.226557E-4	9.880308E-4	-8.508429E-3	-1.635256E-3	-2.519665E-5	-1.452517E-3	-3.215197E-3	5.256676E-3	-3.544202E-3	-7.005179E-3	-1.219934E-3	-6.532688E-3	1.052908E-2	1.127757E-2	6.146803E-3
2.805030E+2	-1.094949E-3	6.102050E-3	-7.542272E-4	5.199110E-3	1.139312E-3	5.949134E-3	3.610144E-3	6.159084E-4	-6.260483E-4	-9.895940E-3	3.953740E-3	-7.721745E-4	-4.435767E-3	-1.131344E-3	5.876303E-3	1.966758E-3	-1.225965E-3	-1.748764E-3	2.886038E-3	1.015043E-2	2.182899E-3	-7.349960E-3	9.605841E-4	5.200942E-3	2.341971E-4	-1.305470E-3	3.827855E-3	1.015379E-2	-8.475477E-3	4.304146E-3	3.110277E-3	-1.553952E-3	1.684769E-3	6.197671E-3	-1.925020E-3	-1.665664E-3	8.013643E-4	1.525423E-3	-3.806790E-3	5.347839E-3	-5.514392E-3	-2.025749E-3	5.885657E-3	5.699647E-3	-9.299138E-4	-1.948757E-3	7.492219E-3	3.797476E-3	-6.778267E-3	1.227253E-3	1.063036E-2	1.064636E-2	-3.226218E-4	8.212138E-4	-3.541596E-3	7.116987E-4	6.633050E-3	9.052320E-3	-6.028290E-4	1.636732E-3	3.703401E-3	7.264889E-3	-2.600835E-3	5.929792E-3	-6.457097E-4	9.634309E-4	4.535819E-3	6.249754E-4	1.995940E-3	-2.772777E-3	3.397589E-3	-9.968019E-4	-3.116945E-4	-5.286910E-4	5.319643E-4	-1.037896E-3	-5.426567E-3	-4.786583E-3	1.277243E-3	4.117957E-3	-3.482540E-4	-1.603662E-3	3.186638E-5	4.950162E-3	-7.697496E-4	6.153247E-3	-1.633204E-3	-4.463281E-3	3.362160E-4	-8.879026E-4	-3.371781E-3	-3.203157E-3	4.478688E-3	-3.811292E-3	-2.985144E-3	-1.652704E-3	4.542334E-3	2.200380E-3	6.700429E-3	2.646580E-3	2.997179E-3	5.540121E-3	-7.242523E-4	2.265921E-3	7.326187E-4	-4.440662E-4	1.140463E-3	1.049929E-2	-6.564982E-3	1.954481E-3	-4.927412E-3	-5.439064E-3	-1.833345E-4	-8.549813E-4	2.399771E-3	-1.406468E-3	6.817670E-3	1.075203E-3	-2.579222E-3	5.806345E-3	-6.331595E-5	-1.180042E-3	3.940143E-3	2.981993E-3	-5.554568E-3	-5.961785E-3	-2.523340E-3	5.202442E-3	4.563724E-3	7.519105E-4	4.768498E-3	-3.549960E-3	-2.276868E-3	-3.860774E-3	-2.292730E-3	1.228374E-3	1.155356E-3	3.943069E-3	-7.716212E-3	-7.860966E-3	-5.260032E-4	5.386680E-4	1.193646E-3	8.614585E-4	-3.087105E-3	-4.898536E-3	3.017542E-4	2.209080E-3	1.912551E-4	-2.468013E-4	-4.200184E-3	7.950792E-4	-4.780285E-4	4.208354E-3	-1.121560E-3	-7.011830E-4	4.249498E-3	7.511337E-4	1.062426E-3	-8.439010E-3	2.581834E-3	-2.906120E-3	-6.386645E-4	-5.867404E-4	-1.412610E-3	-8.031382E-4	1.710418E-3	5.784541E-3	1.261222E-2	-4.000770E-3	5.886148E-3	6.303743E-3
2.810070E+2	-2.177912E-4	2.629693E-3	-6.878165E-4	-5.203127E-3	-1.051597E-3	3.258546E-3	3.715955E-3	1.074201E-3	-2.876804E-3	-1.503445E-3	-6.572425E-4	-5.955673E-3	-4.349815E-3	3.281674E-3	2.211370E-3	1.647373E-3	4.074639E-4	-7.752442E-3	1.650450E-3	9.381041E-3	-9.921986E-4	5.347376E-3	4.578577E-4	-4.875821E-3	-9.262563E-3	-2.941411E-3	-1.810900E-3	-1.392519E-2	-4.785585E-3	-2.108520E-3	5.037384E-3	1.417422E-3	-1.394500E-3	-2.439605E-3	1.129889E-3	-2.464991E-3	-6.670247E-3	-2.191629E-3	-5.377865E-4	3.764869E-3	-1.659435E-3	1.788137E-3	-9.154953E-3	-8.708047E-3	3.255313E-3	7.946061E-3	3.549258E-3	1.887706E-3	-3.451245E-3	5.656836E-4	-3.517663E-3	-6.884061E-3	-4.508880E-3	-6.824906E-3	1.293621E-3	3.937853E-3	8.400987E-3	1.766536E-3	-1.991741E-3	-3.294740E-3	-8.980258E-4	-2.407045E-3	2.741153E-3	-2.833960E-3	-6.845674E-3	-8.557014E-3	-7.227331E-3	-3.503168E-3	-2.114495E-3	2.744168E-3	-8.153685E-4	4.342781E-3	3.020573E-3	-2.772344E-3	-8.254120E-5	5.931913E-3	3.193809E-3	-1.080527E-3	2.024610E-3	6.223043E-4	-4.931416E-3	1.378836E-3	1.174180E-4	-9.631369E-4	1.383453E-3	-4.480436E-3	5.236162E-4	4.837882E-4	1.561570E-2	2.160050E-3	4.040276E-3	4.790549E-3	2.072277E-3	-3.092068E-4	-6.268354E-3	-1.551969E-3	-3.993850E-3	1.529239E-3	8.725357E-4	6.258509E-3	-2.386900E-3	-4.289490E-3	2.610986E-3	-4.502578E-3	-7.833736E-3	4.218172E-4	5.498169E-4	3.438467E-3	-8.088620E-3	-8.690712E-4	-2.789204E-3	2.971238E-3	-9.461187E-4	-3.774438E-3	-2.811317E-3	2.342498E-3	-4.554425E-3	5.263735E-4	3.737014E-3	-1.208715E-2	1.747677E-3	4.212533E-3	-3.255082E-3	-8.554593E-3	2.135938E-3	1.719092E-4	-3.783996E-3	-2.108405E-3	1.136098E-3	4.335171E-3	-4.076904E-3	5.251182E-3	2.563557E-3	3.197065E-3	-3.594289E-3	5.654896E-3	-2.776381E-3	4.756573E-3	-7.655350E-3	1.910093E-3	-2.945346E-3	4.760913E-3	1.263890E-3	2.091906E-4	7.295264E-3	6.989235E-3	1.069538E-3	-7.203941E-3	-2.490868E-3	-1.044077E-2	2.871615E-3	1.216308E-2	-2.039574E-3	-2.519220E-3	4.917175E-3	-4.378281E-3	-4.499384E-3	-2.704778E-3	-5.255260E-3	-3.415472E-4	1.022566E-3	2.318632E-3	-6.481018E-3	-7.344916E-3	6.094954E-3	6.141846E-4	-1.546615E-3	4.147021E-3	-5.410431E-3	3.388132E-3	-5.046749E-3	-1.300278E-2
2.815030E+2	-2.126291E-4	-3.427976E-3	1.986442E-4	-2.711699E-3	2.825909E-3	3.345167E-3	4.510702E-3	-7.909306E-3	1.276612E-3	-6.588954E-4	2.785452E-3	8.487913E-4	1.637337E-3	-1.187640E-2	1.671805E-3	5.587355E-4	-6.469999E-3	9.007638E-3	2.383738E-3	-1.070460E-2	-8.895285E-4	1.120877E-4	-4.693901E-5	4.383416E-3	2.187488E-3	-2.859364E-3	2.720161E-3	-1.755350E-3	4.158179E-3	-5.295302E-3	5.744263E-3	1.808808E-3	1.384589E-2	3.446652E-3	-4.006933E-3	8.004870E-3	-2.212013E-3	3.614088E-3	-4.549930E-4	5.266466E-3	2.271622E-3	1.089419E-2	6.817407E-3	4.750401E-3	-4.067428E-3	4.538447E-4	2.281125E-3	-9.446429E-4	3.181448E-3	-3.071452E-3	1.067359E-3	6.643658E-3	5.201334E-4	6.789635E-3	-1.357519E-3	4.022697E-3	-2.368599E-3	2.673297E-3	-1.939694E-3	-1.548115E-3	1.533408E-3	2.565627E-3	-4.972179E-4	2.031362E-3	-1.266130E-3	-4.898340E-4	-5.843649E-4	1.647236E-3	1.266987E-2	2.141625E-3	4.866773E-4	-7.743252E-4	4.729497E-3	1.925736E-3	-1.844252E-5	-6.012123E-3	-2.732206E-3	4.458648E-4	2.106626E-3	-4.370302E-3	-2.519898E-3	-2.944004E-3	4.837059E-3	8.593912E-3	7.537170E-4	6.461146E-4	6.137236E-3	3.802914E-3	-5.437275E-3	5.963328E-3	3.389038E-3	4.017811E-3	2.983244E-3	2.519639E-3	3.869874E-3	6.413616E-3	-2.184864E-3	-6.635217E-4	3.923743E-3	-5.019186E-3	1.083063E-3	7.732172E-3	-4.462033E-3	1.622194E-3	7.827132E-3	6.747578E-3	5.622004E-3	8.251186E-4	8.386143E-3	-4.439605E-3	-3.420738E-3	-4.329134E-4	-4.320732E-3	-7.548656E-4	5.666708E-3	3.336210E-3	-9.053667E-4	3.820323E-3	5.913541E-3	2.393658E-3	-8.484696E-4	-1.827531E-3	-2.775791E-4	-1.714560E-3	-1.220402E-3	3.628873E-3	-3.057363E-3	-1.299236E-3	-6.683229E-3	-5.229063E-4	1.225091E-3	-7.907050E-4	-1.480970E-3	9.234018E-5	6.834442E-3	-2.922594E-3	-1.919025E-3	4.108378E-3	1.155789E-2	2.868988E-3	-2.892002E-3	4.163547E-3	2.042807E-3	5.370470E-3	1.690471E-2	3.692419E-3	4.697328E-3	-6.277441E-3	-3.778493E-3	3.585775E-3	-1.512810E-3	9.716008E-4	8.763430E-3	9.010387E-4	-1.666243E-3	2.184085E-3	3.622995E-3	-7.591977E-3	4.410238E-3	4.782900E-4	-3.827942E-3	3.129676E-3	1.740073E-3	8.977892E-3	-1.922698E-3	4.044118E-3	-1.476081E-3	-2.719125E-3	8.844366E-3	-3.893439E-3	-1.051062E-2	-1.303463E-3
2.820030E+2	3.299451E-3	2.811546E-3	-1.379002E-3	-3.510700E-3	4.405912E-3	2.017290E-3	-2.313119E-4	-1.592259E-3	4.524231E-3	4.746089E-3	1.503194E-3	4.566312E-3	1.121682E-2	1.072449E-2	4.841115E-4	-1.384409E-3	-9.589857E-4	7.123264E-4	4.434710E-3	-5.538151E-3	7.688603E-3	-2.486343E-3	-1.145566E-3	7.701551E-4	9.598461E-3	-5.360718E-3	3.432073E-3	6.597479E-3	3.523691E-3	7.809894E-3	3.955458E-3	3.670411E-3	4.398239E-3	2.787333E-3	1.178009E-2	7.468784E-4	4.205060E-3	-2.038967E-3	-4.235147E-3	-4.419732E-3	-5.800205E-4	-4.834701E-3	8.017931E-5	-1.746609E-3	2.374952E-4	2.810102E-3	-3.719841E-3	4.342689E-4	-7.859693E-4	7.400875E-3	-6.398130E-3	-3.931139E-3	5.656470E-3	8.838689E-3	3.524471E-3	-7.976750E-4	2.123901E-3	3.096728E-4	-4.045155E-4	3.945488E-3	9.636202E-4	-6.140782E-4	-4.203147E-4	7.791229E-3	-4.306858E-3	-2.831708E-3	8.093068E-3	4.870816E-3	5.781573E-3	1.722403E-4	-6.853169E-3	9.134460E-3	-3.048652E-5	-1.868118E-3	8.355682E-3	-4.955025E-4	2.557618E-3	9.324103E-3	2.861989E-3	3.202496E-3	-3.204993E-3	1.513252E-3	1.055981E-3	-2.561498E-3	1.522210E-3	-1.817928E-3	3.478996E-3	4.702130E-3	-2.839950E-4	-1.434261E-3	4.206195E-3	4.988049E-3	-2.825263E-4	1.900198E-3	1.069151E-2	7.945524E-3	7.459325E-3	3.943661E-3	-1.950917E-3	-5.821947E-3	3.205858E-3	-1.605561E-4	-4.756529E-4	6.071892E-3	1.829225E-3	-4.139126E-3	-5.693859E-3	5.435453E-3	1.668821E-2	-2.197097E-3	4.389492E-3	8.728724E-3	1.813092E-3	5.256424E-3	1.151591E-3	-6.764150E-3	2.750520E-3	-6.007214E-4	-9.378074E-4	5.197165E-3	5.523016E-3	-2.360385E-4	1.258190E-3	1.198102E-2	2.282077E-3	2.337914E-3	3.011696E-3	3.238482E-3	-5.722899E-3	-4.574594E-4	2.813515E-3	7.192734E-3	3.391983E-3	3.365827E-3	1.178781E-2	5.877918E-3	-2.660789E-3	-2.415254E-3	7.679883E-3	-3.271826E-3	1.284466E-3	9.253875E-5	-2.123626E-3	-3.679491E-4	-2.759150E-3	-5.556277E-3	4.819972E-4	2.468739E-3	4.581591E-4	5.896295E-3	7.541031E-3	7.179683E-3	-5.171833E-3	6.115047E-3	1.071261E-3	1.070394E-2	5.322787E-3	3.090547E-3	6.399261E-4	1.308987E-3	1.271643E-3	3.947448E-3	6.293467E-3	4.997459E-4	-4.799933E-4	5.483906E-3	1.338433E-2	-2.634435E-3	-3.211033E-3	5.993579E-3	-8.613282E-3	-5.105064E-3
2.825030E+2	-1.995224E-4	-3.284379E-3	2.009103E-3	-8.479182E-4	6.013145E-3	-7.036067E-3	-8.267745E-4	-2.271514E-3	3.011954E-3	7.910155E-3	-4.438633E-4	-2.609321E-3	-5.548565E-3	-8.349341E-4	-1.955190E-3	-4.673503E-3	5.382351E-3	6.141543E-3	1.878776E-3	3.975254E-3	4.503577E-3	4.985264E-3	3.625432E-3	-1.898784E-3	4.846918E-3	1.561857E-3	-4.173443E-3	5.201231E-3	5.092109E-3	-2.635780E-4	-4.705913E-3	-8.073890E-3	-1.894039E-3	2.136607E-3	2.900823E-3	8.476676E-4	4.289897E-3	3.182241E-3	8.775348E-3	-5.031646E-3	9.533890E-3	5.078735E-3	9.281499E-4	2.182677E-3	1.284196E-2	3.663603E-3	-2.566771E-4	6.357632E-3	4.250313E-3	6.017517E-3	-3.299111E-3	-1.118553E-3	-6.906381E-4	-2.745466E-3	5.013655E-3	-4.038857E-3	3.121278E-3	-3.733116E-3	9.921386E-3	-2.536242E-3	3.464360E-3	-5.449955E-3	3.661272E-3	3.072464E-3	2.137321E-3	-3.349582E-4	1.560185E-3	1.640723E-3	3.822720E-3	3.711269E-3	5.635013E-3	6.498434E-3	6.812407E-3	2.895041E-3	3.631504E-3	-4.983769E-3	6.242006E-3	1.340403E-3	-7.086744E-3	-3.881877E-3	2.429146E-3	8.227720E-3	1.949074E-3	2.064368E-3	6.623499E-3	6.578264E-3	7.809449E-3	-4.036950E-4	-8.180865E-4	9.284136E-4	5.095702E-3	7.227467E-3	4.156855E-3	-5.648263E-3	-6.615772E-4	5.894956E-4	8.552658E-3	-1.262639E-3	-6.340658E-3	1.437802E-3	3.354997E-3	2.631311E-3	1.080621E-2	-1.475381E-3	1.363386E-2	-3.252865E-3	6.571604E-3	1.705684E-3	5.486603E-3	3.748711E-3	9.482362E-3	-4.372070E-3	2.869653E-3	9.193114E-4	-2.606060E-3	7.092611E-3	3.578594E-3	-6.298021E-3	6.151418E-3	6.149301E-4	8.401382E-3	5.221827E-3	5.749476E-3	6.062023E-3	6.673551E-3	8.527151E-3	3.114510E-3	8.521430E-3	6.655845E-3	1.044627E-3	5.184734E-3	7.299508E-3	9.007280E-3	4.113402E-3	-4.049019E-3	2.513193E-3	7.084220E-3	6.512579E-3	7.003559E-3	-1.415919E-3	7.093213E-3	3.675620E-3	-1.333725E-3	-1.005753E-3	-5.252416E-3	6.434726E-3	7.019771E-3	6.930977E-3	4.038591E-3	7.500569E-3	7.025407E-3	1.194527E-3	3.172869E-3	2.755715E-3	3.170713E-3	1.459389E-3	-2.680433E-3	6.035033E-3	4.604037E-3	1.248046E-2	1.477082E-2	2.548617E-3	-2.547964E-3	6.629584E-3	-3.992422E-4	-1.160701E-3	2.067096E-3	7.083067E-3	-7.060668E-5	-2.528790E-3	9.992678E-3	-1.177943E-3
2.830060E+2	-1.939508E-4	2.091803E-3	5.394430E-3	1.653126E-2	4.561838E-3	2.887830E-3	3.414012E-3	8.021766E-3	1.108409E-2	3.395028E-3	2.327044E-3	1.062457E-2	8.484003E-3	1.094288E-2	1.014322E-2	8.308249E-3	4.678315E-3	3.917001E-3	4.602055E-3	9.101170E-4	1.313467E-2	3.052314E-3	6.640881E-3	5.189937E-3	4.107619E-3	-9.388469E-5	3.584551E-3	1.142753E-2	5.162103E-3	1.439231E-3	8.501671E-3	5.275770E-3	9.405745E-3	4.405665E-3	6.743343E-3	-4.746283E-3	1.454953E-2	6.479963E-3	1.275896E-2	-1.293797E-3	7.299798E-3	2.878481E-3	1.324170E-2	5.338440E-3	-4.478348E-4	8.323704E-3	-2.917826E-3	1.163814E-2	8.459533E-3	8.339380E-3	6.631324E-3	1.280012E-3	1.159718E-2	1.296513E-2	9.922569E-3	1.156040E-2	1.765449E-2	6.304793E-3	7.066752E-3	4.274234E-3	2.746915E-3	1.602506E-2	1.057981E-3	1.162208E-3	1.813157E-2	3.767599E-3	2.286467E-3	1.038180E-2	3.893810E-3	5.854462E-3	-7.362004E-3	2.929842E-3	1.602145E-2	8.424388E-3	1.066490E-2	9.569509E-3	2.111460E-2	2.138751E-3	3.726401E-3	6.038289E-3	1.039001E-2	7.563113E-3	1.372947E-2	5.297564E-3	8.812909E-3	1.178065E-2	9.302781E-3	1.071319E-2	9.575918E-3	7.770439E-3	7.043895E-4	6.536358E-3	2.533192E-3	1.321948E-2	1.501684E-2	1.044024E-2	8.645338E-3	2.601179E-3	6.464631E-3	4.126034E-3	1.454119E-2	7.022317E-4	1.618420E-2	3.079675E-4	2.088452E-2	1.336683E-2	7.383516E-3	-2.086727E-4	1.317146E-2	-5.734922E-4	6.761166E-3	1.017243E-2	2.042897E-2	6.190320E-3	7.536839E-3	1.681710E-2	1.751835E-2	8.685040E-3	7.686142E-3	1.249226E-2	2.142952E-2	6.874557E-3	1.030403E-2	1.608324E-2	1.812904E-2	3.808733E-3	4.567639E-3	1.823712E-2	1.481583E-2	-5.997295E-3	5.304502E-3	8.613320E-3	7.769968E-3	9.365231E-3	9.158452E-4	7.150767E-3	8.935225E-3	1.401693E-2	-2.532130E-3	4.914318E-3	8.889369E-3	-1.836078E-3	1.441391E-2	1.241198E-2	1.044963E-2	2.260470E-3	7.826454E-3	1.660158E-2	4.821618E-3	1.651781E-2	1.965294E-3	1.356691E-2	3.248273E-3	-5.952732E-4	-4.158545E-3	2.474282E-3	1.440953E-3	-3.004117E-4	1.568790E-2	8.175806E-3	3.173150E-3	1.084283E-2	7.260890E-3	1.017945E-2	1.204467E-2	5.697667E-3	1.229513E-2	1.419419E-2	1.021056E-2	6.184286E-3	8.229720E-3	2.230621E-2
2.835020E+2	6.943391E-4	1.190694E-2	7.124036E-3	3.608651E-3	1.379278E-2	6.489946E-3	2.158637E-2	1.205722E-2	1.115958E-2	4.999965E-3	1.871190E-2	2.658906E-3	1.593785E-2	4.423476E-3	1.531212E-2	4.996134E-3	1.496507E-2	1.472784E-2	7.997297E-3	4.931353E-3	1.387994E-2	1.190120E-2	9.670227E-3	3.186947E-3	1.314308E-2	2.321401E-2	5.579925E-3	1.460287E-2	1.340768E-2	2.780725E-2	1.046151E-2	8.871822E-3	1.753787E-2	1.847249E-2	2.116993E-2	1.000570E-3	6.332439E-3	5.281867E-3	1.546168E-2	1.565147E-2	1.435864E-2	1.512023E-2	1.410105E-2	1.081422E-2	1.051200E-2	1.760225E-2	1.691529E-2	7.826909E-3	1.682345E-2	8.423275E-3	1.280438E-2	-2.521082E-3	2.106626E-2	9.796558E-3	2.937864E-2	7.604539E-3	1.351006E-2	1.055580E-2	1.081885E-2	5.115849E-3	1.637841E-2	7.050436E-3	9.833499E-3	1.790910E-2	1.186682E-2	1.356940E-2	6.362933E-3	8.909742E-3	1.179522E-2	1.216185E-2	1.766702E-2	3.779138E-3	3.110937E-2	5.377122E-3	1.005694E-2	8.142918E-3	2.123239E-2	5.908880E-3	2.607277E-2	1.108107E-2	1.365687E-2	2.096313E-2	8.362291E-3	1.092558E-2	1.385282E-2	8.034470E-3	1.291096E-2	1.913182E-2	1.571188E-2	1.238899E-2	1.196764E-2	5.855383E-3	1.617200E-2	9.126088E-3	1.513212E-2	1.475006E-2	1.226404E-2	9.547500E-3	1.031888E-2	7.404813E-3	1.324713E-2	1.155346E-2	9.711603E-3	8.197343E-3	1.222991E-2	1.906691E-2	4.608535E-3	6.130851E-3	1.913068E-2	3.916268E-3	8.287151E-3	1.163872E-2	1.708073E-2	1.006830E-2	5.241043E-3	1.436314E-2	1.760377E-2	4.262526E-3	4.969423E-3	1.486238E-2	1.883294E-2	1.854762E-2	5.957090E-3	1.007000E-3	1.384094E-2	9.360770E-3	-7.408648E-4	9.080397E-3	1.047198E-2	1.180331E-3	2.504154E-2	7.398334E-3	1.278057E-2	1.398929E-2	1.358845E-2	3.635901E-3	2.961693E-2	3.010847E-3	1.291536E-2	3.317821E-3	4.070017E-3	1.007692E-2	1.809338E-2	1.476150E-2	1.144508E-2	7.400514E-3	2.089789E-2	1.091149E-2	1.903543E-2	1.143781E-2	1.306174E-2	1.281080E-2	3.472451E-3	7.198006E-3	4.680627E-3	1.203338E-2	1.052281E-2	3.332637E-3	1.904551E-2	1.897512E-2	6.637082E-3	2.441067E-2	2.097581E-3	1.188514E-2	8.089134E-3	1.532776E-2	1.174422E-2	1.168644E-2	2.084689E-2	1.372051E-2	1.022329E-2	1.230089E-2
2.840000E+2	-1.823208E-4	2.619779E-2	2.203178E-3	1.843380E-2	2.318335E-2	2.214566E-2	1.751227E-2	1.294110E-2	4.103814E-2	1.508853E-2	2.902760E-2	2.330415E-2	2.642676E-2	1.183855E-2	2.049613E-2	1.736337E-2	4.499899E-2	2.326295E-2	2.474364E-2	2.320744E-2	2.455111E-2	2.822875E-2	2.275305E-2	1.523837E-2	2.386002E-2	2.158675E-2	1.404111E-2	2.471425E-2	9.771001E-3	1.638743E-2	1.746170E-2	2.442403E-2	2.489423E-2	3.259264E-2	2.581863E-2	1.571442E-2	1.664849E-2	1.312008E-2	2.403943E-2	9.904242E-3	3.153903E-2	2.207455E-2	1.726341E-2	1.784689E-2	2.403197E-2	1.922812E-2	1.496366E-2	2.749717E-2	2.355995E-2	1.752430E-2	2.815572E-2	1.233946E-2	1.610721E-2	1.972064E-2	2.189761E-2	1.380569E-2	1.616826E-2	2.817307E-2	2.785628E-2	1.873538E-2	3.405281E-2	2.616165E-2	1.730351E-2	1.001016E-2	3.115861E-2	2.503300E-2	3.457811E-2	3.037446E-2	1.545244E-2	2.473094E-2	1.777524E-2	2.239938E-2	3.706574E-2	1.092981E-2	1.713570E-2	2.892079E-2	2.571016E-2	2.156553E-2	1.808801E-2	1.897070E-2	2.644470E-2	1.068832E-2	2.570765E-2	2.450015E-2	1.891012E-2	1.970229E-2	2.774023E-2	2.480263E-2	3.138073E-2	1.701916E-2	3.449680E-2	9.907045E-3	2.986210E-2	2.462921E-2	1.387009E-2	2.750284E-2	1.061099E-2	2.264213E-2	1.870686E-2	9.888976E-3	2.448686E-2	2.515759E-2	2.901037E-2	1.618451E-2	2.838253E-2	1.441711E-2	1.119591E-2	1.485247E-2	2.428815E-2	1.138642E-2	1.626996E-2	2.741879E-2	3.213789E-2	2.222918E-2	1.621506E-2	3.501915E-2	2.215415E-2	1.809522E-2	2.617679E-2	2.250459E-2	1.994929E-2	2.638383E-2	1.491310E-2	2.475046E-2	1.927393E-2	1.081273E-2	2.092098E-2	2.560188E-2	2.049409E-2	1.339271E-2	1.153524E-2	1.463606E-2	1.495722E-2	1.408883E-2	2.560532E-2	5.879781E-3	3.301310E-2	2.612330E-2	2.354370E-2	3.322883E-2	1.244344E-2	1.446468E-2	2.749775E-2	2.558640E-2	1.676425E-2	2.129146E-2	2.895870E-2	2.763959E-2	1.207170E-2	2.272426E-2	1.641089E-2	2.992654E-2	2.030271E-2	2.787686E-2	1.828414E-2	2.905922E-2	2.122094E-2	2.059832E-2	1.069398E-2	1.615146E-2	2.021038E-2	2.602216E-2	2.926506E-2	2.401862E-2	1.721649E-2	1.953563E-2	2.273554E-2	2.198063E-2	3.348340E-2	2.376437E-2	2.527769E-2	3.863801E-3
2.841030E+2	-1.063389E-3	2.009362E-2	8.104058E-3	2.725151E-2	1.785926E-2	3.078285E-2	1.623074E-2	2.016794E-2	2.183561E-2	9.781660E-3	1.275173E-2	2.490368E-2	3.102924E-2	1.561110E-2	1.550544E-2	2.022270E-2	2.465877E-2	1.489043E-2	3.891614E-2	3.682114E-2	2.467513E-2	1.684597E-2	2.288417E-2	2.030339E-2	3.466379E-2	3.812995E-2	1.607524E-2	3.178855E-2	2.335327E-2	2.473976E-2	1.819246E-2	1.892376E-2	4.443932E-2	2.162248E-2	1.685073E-2	2.153105E-2	1.739208E-2	1.906141E-2	2.939874E-2	1.075790E-2	1.301753E-2	1.378559E-2	1.890624E-2	1.640986E-2	2.591294E-2	2.703360E-2	1.574423E-2	2.108414E-2	3.453983E-2	1.762733E-2	2.675758E-2	2.414986E-2	1.403670E-2	1.983767E-2	2.619306E-2	2.208514E-2	4.712677E-2	2.496302E-2	2.428089E-2	1.131624E-2	2.302579E-2	2.546143E-2	1.673138E-2	1.814893E-2	3.774212E-2	2.596176E-2	5.166033E-3	3.369524E-2	2.700436E-2	2.624949E-2	1.788851E-2	3.294882E-2	4.139828E-2	2.044414E-2	1.934301E-2	1.754037E-2	3.547184E-2	1.348824E-2	1.820179E-2	1.839055E-2	1.862891E-2	2.564125E-2	2.033156E-2	7.944369E-3	2.043637E-2	2.369212E-2	2.086519E-2	1.589970E-2	2.804411E-2	1.635953E-2	3.389306E-2	1.238995E-2	2.062134E-2	2.053244E-2	3.108449E-2	2.975530E-2	3.364807E-2	8.182581E-3	2.335786E-2	1.558098E-2	1.481526E-2	2.056095E-2	2.784036E-2	2.130571E-2	3.564994E-2	1.529173E-2	1.490050E-2	3.199889E-3	3.111844E-2	2.110624E-2	1.639231E-2	1.599126E-2	4.376427E-2	2.385732E-2	2.177756E-2	3.348359E-2	2.741467E-2	1.559770E-2	3.268778E-2	3.020865E-2	2.188550E-2	2.573628E-2	1.798595E-2	1.895999E-2	2.551575E-2	3.024403E-2	2.172776E-2	3.004610E-2	1.080249E-2	1.707922E-2	2.759417E-2	1.714394E-2	2.556194E-2	2.264597E-2	3.137664E-2	8.149065E-3	2.822399E-2	1.954915E-2	1.962238E-2	2.125234E-2	2.919731E-2	1.528611E-2	3.409508E-2	1.569007E-2	2.648744E-2	1.884197E-2	2.546438E-2	2.945320E-2	2.632791E-2	2.361199E-2	2.890641E-2	2.312926E-2	2.965780E-2	9.079717E-3	1.975323E-2	2.922368E-2	1.969656E-2	1.999662E-2	1.535723E-2	2.440186E-2	1.865621E-2	3.141775E-2	1.734081E-2	2.728326E-2	1.871483E-2	2.718913E-2	2.696351E-2	1.848692E-2	1.496995E-2	3.635230E-2	2.353591E-2	2.705318E-2
2.842030E+2	-1.705689E-4	2.638016E-2	2.405203E-2	4.742263E-2	3.795130E-2	3.520469E-2	2.406323E-2	2.903284E-2	2.923190E-2	1.994448E-2	3.134629E-2	2.874557E-2	2.894459E-2	3.344067E-2	2.457799E-2	4.163038E-2	3.983037E-2	4.512961E-2	3.305285E-2	3.222690E-2	3.012831E-2	2.785315E-2	3.134905E-2	4.734026E-2	4.961838E-2	2.962139E-2	3.306949E-2	2.499852E-2	3.096930E-2	3.892614E-2	2.780343E-2	3.884237E-2	3.653160E-2	1.951299E-2	3.674903E-2	3.067150E-2	2.974719E-2	2.570096E-2	2.563542E-2	3.747668E-2	4.595087E-2	3.075324E-2	2.598313E-2	2.041036E-2	3.705126E-2	3.025537E-2	3.373000E-2	3.763067E-2	4.555511E-2	3.814817E-2	3.381447E-2	4.622245E-2	4.032962E-2	3.711827E-2	3.401687E-2	2.905768E-2	4.136466E-2	3.266032E-2	2.959549E-2	4.091225E-2	3.286501E-2	3.475029E-2	2.630246E-2	3.710275E-2	3.233239E-2	3.508214E-2	1.804873E-2	4.023761E-2	2.787659E-2	2.989022E-2	2.998500E-2	2.346844E-2	4.665157E-2	2.451067E-2	3.916593E-2	2.998721E-2	5.070885E-2	2.478437E-2	3.600929E-2	1.853221E-2	3.957753E-2	2.726553E-2	3.780168E-2	2.398171E-2	3.413740E-2	2.383347E-2	2.312317E-2	3.277083E-2	5.602886E-2	2.941045E-2	2.653479E-2	2.205493E-2	4.724865E-2	3.192974E-2	4.360554E-2	2.426723E-2	3.827167E-2	3.135297E-2	3.184171E-2	2.131169E-2	3.243900E-2	3.022771E-2	3.469026E-2	4.000879E-2	6.803200E-2	2.738940E-2	2.664543E-2	3.163351E-2	3.213096E-2	2.198849E-2	3.658660E-2	2.772035E-2	4.657265E-2	2.323066E-2	2.267465E-2	3.788533E-2	2.459636E-2	3.282802E-2	3.145385E-2	2.660856E-2	4.399658E-2	3.599979E-2	2.927418E-2	4.118875E-2	2.999667E-2	2.760605E-2	3.748036E-2	4.027025E-2	5.213120E-2	2.510320E-2	4.069768E-2	5.082311E-2	3.904257E-2	3.126371E-2	3.225536E-2	2.120924E-2	3.989426E-2	4.508552E-2	3.116065E-2	2.867910E-2	3.184236E-2	2.033843E-2	2.705771E-2	3.019012E-2	4.414480E-2	3.276155E-2	2.996470E-2	3.212321E-2	3.427830E-2	2.676318E-2	2.450324E-2	3.261775E-2	5.086188E-2	3.937165E-2	2.736347E-2	3.744731E-2	4.034239E-2	1.435511E-2	1.743570E-2	3.937013E-2	2.811072E-2	3.534157E-2	3.108898E-2	4.544738E-2	3.488320E-2	3.146446E-2	3.738739E-2	2.522146E-2	4.418267E-2	4.276746E-2	1.427791E-2	2.390696E-2
2.843030E+2	-1.652708E-4	5.240375E-2	2.917951E-2	4.320304E-2	4.812966E-2	4.463164E-2	5.723328E-2	4.270480E-2	4.786905E-2	4.746041E-2	4.387461E-2	5.114959E-2	5.223154E-2	5.327920E-2	5.620654E-2	6.115517E-2	6.450620E-2	4.010266E-2	2.783277E-2	6.114632E-2	4.688324E-2	5.671990E-2	2.852970E-2	5.254901E-2	7.194132E-2	5.930169E-2	4.754945E-2	4.841567E-2	4.237284E-2	5.234465E-2	3.809311E-2	4.611791E-2	6.997669E-2	5.162169E-2	5.750243E-2	5.132190E-2	4.668896E-2	4.802221E-2	4.287598E-2	4.213172E-2	4.613295E-2	5.011805E-2	4.315912E-2	4.309229E-2	5.076754E-2	3.967999E-2	4.836594E-2	4.702260E-2	6.748527E-2	3.301914E-2	3.705290E-2	5.035662E-2	4.852615E-2	5.185404E-2	5.026885E-2	3.811516E-2	6.308411E-2	4.459426E-2	4.459686E-2	5.701960E-2	3.865890E-2	4.075533E-2	3.795921E-2	4.942847E-2	5.428611E-2	5.571227E-2	4.925904E-2	5.797571E-2	5.681020E-2	4.123045E-2	3.962010E-2	4.155396E-2	5.860386E-2	4.754945E-2	2.663669E-2	4.944774E-2	7.475397E-2	3.464542E-2	3.551029E-2	4.720675E-2	4.937040E-2	4.461273E-2	5.379118E-2	4.810052E-2	5.433907E-2	4.410533E-2	3.952722E-2	3.713995E-2	7.025219E-2	5.626906E-2	5.155065E-2	4.532753E-2	5.094949E-2	4.551022E-2	4.036060E-2	5.346333E-2	6.959363E-2	3.227955E-2	5.101395E-2	4.793363E-2	3.329389E-2	4.811330E-2	5.024249E-2	4.460143E-2	6.647668E-2	5.087965E-2	5.589115E-2	5.071501E-2	5.337990E-2	3.626794E-2	4.829993E-2	6.420505E-2	5.560143E-2	5.371412E-2	3.996189E-2	5.432940E-2	3.504480E-2	4.949024E-2	6.145089E-2	4.727036E-2	6.075239E-2	5.412159E-2	5.330166E-2	3.966932E-2	4.944295E-2	4.230801E-2	5.603667E-2	5.485677E-2	6.402554E-2	3.821358E-2	5.081010E-2	3.741932E-2	3.921136E-2	5.366163E-2	5.857769E-2	4.730096E-2	6.069783E-2	3.628381E-2	3.948830E-2	6.377288E-2	5.124192E-2	3.392053E-2	5.894787E-2	5.053367E-2	6.187966E-2	3.550691E-2	4.178546E-2	7.250819E-2	4.582830E-2	5.182469E-2	5.544384E-2	3.591319E-2	5.103696E-2	4.591524E-2	4.114034E-2	6.184152E-2	3.143579E-2	4.272287E-2	4.707737E-2	5.737611E-2	4.269518E-2	4.763119E-2	5.020568E-2	6.055927E-2	3.713736E-2	4.470539E-2	4.099482E-2	3.858264E-2	7.769874E-2	3.918027E-2	6.711520E-2	6.717466E-2
2.844030E+2	4.301254E-3	7.857182E-2	4.522958E-2	6.087392E-2	6.532753E-2	6.697454E-2	5.885329E-2	7.873957E-2	3.838958E-2	7.671716E-2	6.058835E-2	5.582415E-2	5.182403E-2	8.598432E-2	5.322178E-2	6.973050E-2	6.265418E-2	8.729803E-2	6.169971E-2	9.100481E-2	5.194092E-2	6.519967E-2	6.454434E-2	7.767976E-2	7.477757E-2	8.383694E-2	4.125241E-2	7.207808E-2	5.119773E-2	9.122807E-2	5.169462E-2	6.850674E-2	5.860101E-2	6.273534E-2	6.769294E-2	6.395083E-2	5.258188E-2	6.274979E-2	5.824151E-2	5.946463E-2	7.567361E-2	6.207056E-2	8.922707E-2	5.425742E-2	5.928536E-2	7.042619E-2	6.933974E-2	5.320122E-2	8.770055E-2	4.925169E-2	6.113177E-2	6.475888E-2	6.456646E-2	6.937674E-2	7.082394E-2	5.891979E-2	8.141208E-2	4.987777E-2	7.833895E-2	5.270424E-2	7.521154E-2	7.187334E-2	4.152771E-2	6.992114E-2	7.309589E-2	7.727415E-2	5.962903E-2	6.860774E-2	5.343435E-2	7.579316E-2	5.566140E-2	7.548295E-2	8.581511E-2	5.965031E-2	7.136221E-2	5.817994E-2	7.855539E-2	3.856138E-2	6.168391E-2	6.244195E-2	8.087193E-2	5.230682E-2	7.225015E-2	5.632515E-2	7.035760E-2	5.018708E-2	5.957701E-2	5.628283E-2	8.275648E-2	5.419931E-2	6.310276E-2	7.192738E-2	7.091883E-2	4.145842E-2	6.886541E-2	7.502074E-2	9.498623E-2	4.876307E-2	7.422239E-2	6.184598E-2	6.659881E-2	7.308088E-2	7.001570E-2	6.215750E-2	1.026959E-1	7.360341E-2	5.757123E-2	6.519700E-2	6.549029E-2	5.521754E-2	5.362166E-2	5.826889E-2	6.375225E-2	6.607820E-2	8.612848E-2	7.076887E-2	5.805772E-2	5.629916E-2	8.231479E-2	8.475520E-2	8.585777E-2	6.369499E-2	6.695969E-2	7.997714E-2	7.331736E-2	4.244956E-2	6.034918E-2	7.602791E-2	8.572784E-2	5.282972E-2	6.554915E-2	5.202932E-2	6.266409E-2	5.911965E-2	7.013268E-2	6.052460E-2	9.979514E-2	5.221906E-2	5.520803E-2	7.947955E-2	7.912787E-2	5.181839E-2	7.507997E-2	5.796291E-2	8.144154E-2	5.040382E-2	6.463248E-2	6.855118E-2	7.670573E-2	7.629000E-2	4.910188E-2	8.451089E-2	7.068852E-2	6.903002E-2	6.662813E-2	6.927435E-2	6.127331E-2	7.199536E-2	5.713027E-2	7.174753E-2	7.435985E-2	6.452986E-2	7.096398E-2	6.786723E-2	7.376974E-2	5.750548E-2	6.043881E-2	5.935784E-2	8.002069E-2	6.731666E-2	6.918712E-2	4.413981E-2
2.845010E+2	7.391819E-4	8.868103E-2	6.470706E-2	8.651594E-2	7.250433E-2	7.507981E-2	6.329898E-2	8.138343E-2	7.858642E-2	8.321599E-2	7.045590E-2	9.324544E-2	5.760066E-2	1.095236E-1	7.278436E-2	7.620788E-2	9.278985E-2	1.039893E-1	5.649655E-2	9.288715E-2	6.185004E-2	8.807868E-2	6.897388E-2	9.649958E-2	9.355447E-2	1.078169E-1	5.386087E-2	8.558034E-2	5.140111E-2	1.133782E-1	6.850146E-2	7.944906E-2	6.741997E-2	9.828680E-2	7.711610E-2	9.963375E-2	6.091144E-2	8.465089E-2	8.027244E-2	6.863855E-2	7.137494E-2	1.053091E-1	1.059316E-1	8.035112E-2	6.755845E-2	1.112151E-1	6.547553E-2	8.331184E-2	8.866387E-2	8.406914E-2	7.760223E-2	7.767504E-2	7.750740E-2	8.767621E-2	9.569433E-2	7.638893E-2	7.842371E-2	8.871617E-2	7.268572E-2	7.817324E-2	6.007883E-2	1.078091E-1	6.632224E-2	8.662362E-2	7.470742E-2	8.879471E-2	8.095371E-2	9.863413E-2	5.819514E-2	9.241436E-2	7.371487E-2	9.536967E-2	9.431649E-2	8.068118E-2	7.024031E-2	9.575021E-2	8.940048E-2	8.256987E-2	7.225279E-2	8.855782E-2	7.659930E-2	7.447241E-2	7.572357E-2	8.149147E-2	6.757793E-2	6.549591E-2	9.539568E-2	7.063226E-2	1.163454E-1	7.517477E-2	7.170533E-2	8.108875E-2	7.120846E-2	7.161072E-2	6.859253E-2	7.962866E-2	1.034880E-1	5.839937E-2	7.846057E-2	8.727876E-2	7.893436E-2	7.739091E-2	6.904965E-2	1.028534E-1	9.672442E-2	6.500539E-2	7.175692E-2	9.020145E-2	1.033519E-1	8.538038E-2	7.262036E-2	9.083524E-2	1.055985E-1	7.773029E-2	7.918853E-2	1.009698E-1	6.331530E-2	7.044310E-2	8.258386E-2	7.892958E-2	1.028081E-1	7.095444E-2	8.441632E-2	9.134040E-2	8.747277E-2	7.539239E-2	7.288345E-2	8.714712E-2	9.570990E-2	5.954642E-2	7.420800E-2	8.680857E-2	5.933402E-2	6.591032E-2	9.380392E-2	7.742172E-2	8.845543E-2	7.575054E-2	8.410354E-2	7.321282E-2	8.021712E-2	7.040351E-2	8.765934E-2	7.340684E-2	1.116784E-1	8.013128E-2	7.731374E-2	8.731006E-2	6.907296E-2	8.109687E-2	6.971952E-2	9.106833E-2	1.014566E-1	7.274068E-2	6.480414E-2	1.136910E-1	7.471063E-2	6.424380E-2	7.714913E-2	7.426186E-2	7.632268E-2	6.171327E-2	5.977056E-2	9.886719E-2	7.472033E-2	6.259344E-2	8.412727E-2	6.846403E-2	7.819000E-2	7.134861E-2	8.267096E-2	8.434268E-2
2.846030E+2	5.225368E-3	1.209853E-1	1.103764E-1	1.509704E-1	9.916787E-2	1.493690E-1	1.222843E-1	1.705204E-1	1.240995E-1	1.455224E-1	1.060090E-1	1.442728E-1	1.019147E-1	1.896175E-1	1.196471E-1	1.604742E-1	1.314436E-1	1.560904E-1	1.244787E-1	1.598917E-1	1.335565E-1	1.564868E-1	1.245308E-1	1.954806E-1	1.352969E-1	1.521900E-1	1.210658E-1	1.656447E-1	9.856782E-2	1.879812E-1	1.084644E-1	1.376541E-1	1.473789E-1	1.566382E-1	1.319225E-1	1.528536E-1	9.125482E-2	1.692112E-1	1.448390E-1	1.495292E-1	1.176784E-1	1.492241E-1	1.546911E-1	1.284815E-1	1.142698E-1	1.721129E-1	1.324697E-1	1.474176E-1	1.781209E-1	1.387948E-1	1.538103E-1	1.404461E-1	1.292017E-1	1.387275E-1	1.509891E-1	1.312134E-1	1.505166E-1	1.607280E-1	1.126783E-1	1.472998E-1	1.043116E-1	2.060858E-1	1.035114E-1	1.332600E-1	1.695173E-1	1.696755E-1	1.112336E-1	1.746357E-1	1.124190E-1	1.563089E-1	1.403131E-1	1.860857E-1	1.570447E-1	1.421318E-1	1.146870E-1	1.436943E-1	1.247461E-1	1.441517E-1	1.214669E-1	1.444358E-1	1.461133E-1	1.312321E-1	1.254773E-1	1.197539E-1	1.274504E-1	1.354273E-1	1.577905E-1	1.422662E-1	1.651890E-1	1.391549E-1	1.298547E-1	1.669194E-1	1.169452E-1	1.409742E-1	1.358763E-1	1.452900E-1	1.467160E-1	1.374290E-1	1.511052E-1	1.568236E-1	1.305608E-1	1.375572E-1	1.421121E-1	1.430638E-1	1.969079E-1	1.277793E-1	1.444057E-1	1.805126E-1	1.542642E-1	1.337230E-1	1.352471E-1	1.263433E-1	1.851060E-1	1.183231E-1	1.405722E-1	1.546925E-1	1.464868E-1	1.179386E-1	1.622978E-1	1.350553E-1	2.018003E-1	1.246977E-1	1.155270E-1	1.885520E-1	1.509923E-1	1.190012E-1	1.479268E-1	1.520317E-1	1.699764E-1	1.113523E-1	1.498211E-1	1.378848E-1	1.241342E-1	1.241696E-1	1.717522E-1	1.328714E-1	1.851772E-1	1.288669E-1	1.748073E-1	1.438643E-1	1.470697E-1	1.204440E-1	1.490135E-1	1.274309E-1	1.562013E-1	1.384727E-1	1.018496E-1	1.669232E-1	1.252843E-1	1.687289E-1	1.195218E-1	1.510310E-1	1.451334E-1	1.650132E-1	1.056305E-1	1.754513E-1	1.362931E-1	1.272461E-1	1.455848E-1	1.441424E-1	1.373019E-1	1.359769E-1	1.288280E-1	1.569356E-1	1.306968E-1	1.212408E-1	1.577501E-1	1.315683E-1	1.697302E-1	1.362220E-1	1.549780E-1	1.347971E-1
2.847020E+2	3.447374E-3	3.415239E-1	2.726917E-1	3.382252E-1	2.475837E-1	3.076452E-1	3.313138E-1	3.483587E-1	2.862207E-1	3.671607E-1	2.819759E-1	3.548607E-1	2.641649E-1	3.922748E-1	2.660570E-1	3.391304E-1	3.087204E-1	3.878157E-1	2.689255E-1	3.553365E-1	2.630228E-1	3.446081E-1	2.600253E-1	3.595009E-1	3.047904E-1	4.185045E-1	2.261722E-1	3.425119E-1	2.494830E-1	4.177391E-1	2.591597E-1	3.502751E-1	2.810478E-1	3.369540E-1	3.495136E-1	3.348014E-1	2.439113E-1	2.997987E-1	2.855198E-1	3.416267E-1	2.831565E-1	3.611588E-1	3.204287E-1	3.066619E-1	2.854617E-1	3.571297E-1	2.632704E-1	2.638873E-1	3.248573E-1	3.175988E-1	2.995607E-1	3.471553E-1	2.878959E-1	2.717686E-1	3.147266E-1	3.061412E-1	3.312500E-1	3.253232E-1	3.047502E-1	3.325761E-1	2.720804E-1	4.161798E-1	2.588676E-1	3.132637E-1	3.443624E-1	3.989523E-1	2.674733E-1	3.502400E-1	3.075223E-1	3.168321E-1	2.968382E-1	3.799485E-1	2.953880E-1	3.374985E-1	2.757542E-1	3.387311E-1	2.725519E-1	3.404041E-1	2.938321E-1	3.131721E-1	3.423426E-1	3.422468E-1	3.393244E-1	3.189833E-1	2.947474E-1	3.017560E-1	3.384780E-1	3.049286E-1	3.634503E-1	3.026467E-1	3.202836E-1	3.319248E-1	2.623532E-1	3.335054E-1	2.720618E-1	3.432128E-1	3.397468E-1	3.230945E-1	3.313502E-1	3.366967E-1	2.703602E-1	3.478703E-1	3.338415E-1	3.410255E-1	4.047291E-1	3.606605E-1	3.003869E-1	3.307361E-1	3.004114E-1	3.387647E-1	2.951354E-1	2.918398E-1	3.703806E-1	2.936664E-1	3.437003E-1	3.946917E-1	2.608371E-1	2.999680E-1	3.307052E-1	3.456635E-1	3.715324E-1	3.154928E-1	3.037480E-1	3.837902E-1	3.098619E-1	2.800512E-1	3.260716E-1	3.559197E-1	3.549444E-1	2.815828E-1	3.337763E-1	3.397726E-1	2.789204E-1	2.895024E-1	3.279807E-1	3.146438E-1	3.495860E-1	2.527666E-1	3.393412E-1	3.397153E-1	3.584023E-1	3.015586E-1	3.426275E-1	3.274580E-1	3.848410E-1	3.338953E-1	3.108643E-1	3.408461E-1	2.644678E-1	3.307973E-1	2.862371E-1	3.411550E-1	3.569363E-1	3.729153E-1	2.674331E-1	3.977171E-1	3.227870E-1	2.827708E-1	2.727976E-1	3.651029E-1	3.794092E-1	3.039905E-1	3.033098E-1	3.310283E-1	2.775215E-1	3.099570E-1	3.136639E-1	3.091877E-1	3.795336E-1	2.980167E-1	3.492713E-1	3.630957E-1
2.848000E+2	1.515522E-2	6.597237E-1	5.853794E-1	7.020506E-1	5.811330E-1	6.190766E-1	6.466073E-1	6.951630E-1	5.716989E-1	7.263658E-1	5.743781E-1	6.759705E-1	5.228617E-1	8.038835E-1	5.609956E-1	7.119454E-1	6.719664E-1	7.696446E-1	5.394400E-1	7.350255E-1	4.951048E-1	7.100420E-1	5.830766E-1	7.068379E-1	6.661872E-1	8.285480E-1	4.626241E-1	7.866460E-1	4.751846E-1	8.350656E-1	5.086016E-1	7.493748E-1	6.651029E-1	6.439157E-1	6.368692E-1	7.152397E-1	4.952227E-1	6.826061E-1	6.614752E-1	7.192537E-1	6.549812E-1	6.907299E-1	6.330191E-1	6.496999E-1	5.722042E-1	7.373964E-1	5.932904E-1	5.908084E-1	7.623786E-1	6.798996E-1	6.913387E-1	6.685454E-1	5.744854E-1	6.176808E-1	6.564181E-1	6.117841E-1	7.283503E-1	7.347803E-1	5.799067E-1	6.348085E-1	5.359016E-1	8.312035E-1	5.580566E-1	6.625914E-1	7.282754E-1	7.226400E-1	5.293814E-1	7.255514E-1	5.626335E-1	6.613260E-1	5.889035E-1	7.495718E-1	6.900387E-1	6.439181E-1	5.643236E-1	7.140027E-1	5.924364E-1	6.513496E-1	6.145214E-1	6.506772E-1	6.619749E-1	6.936929E-1	7.127851E-1	6.503664E-1	5.258935E-1	6.379316E-1	6.820156E-1	6.842325E-1	6.919493E-1	6.003695E-1	6.898592E-1	6.658984E-1	5.595942E-1	6.917069E-1	6.232068E-1	7.126833E-1	7.068246E-1	6.767289E-1	6.184122E-1	7.093053E-1	5.481951E-1	6.472427E-1	6.087563E-1	6.963543E-1	7.891349E-1	6.252996E-1	5.676980E-1	6.470165E-1	6.564464E-1	6.686455E-1	6.609326E-1	6.159205E-1	7.640316E-1	6.113705E-1	6.527679E-1	6.956743E-1	5.669637E-1	5.800642E-1	6.800100E-1	7.312438E-1	6.793804E-1	6.371915E-1	6.323087E-1	7.682718E-1	5.481674E-1	6.258728E-1	6.448098E-1	6.919103E-1	6.810996E-1	6.357043E-1	6.927153E-1	7.009975E-1	5.610438E-1	6.338393E-1	7.078314E-1	6.369387E-1	7.361023E-1	6.179697E-1	6.752427E-1	6.332526E-1	5.887599E-1	6.543588E-1	6.817532E-1	6.358521E-1	8.079852E-1	6.697321E-1	5.285180E-1	7.509482E-1	5.543970E-1	7.165262E-1	5.749074E-1	7.518279E-1	6.663124E-1	7.051312E-1	5.792512E-1	8.287256E-1	5.307974E-1	6.419667E-1	6.134867E-1	7.551177E-1	7.019459E-1	6.374822E-1	7.210303E-1	7.011544E-1	6.176756E-1	6.670579E-1	6.674739E-1	6.909703E-1	7.091826E-1	6.018794E-1	6.972710E-1	6.870131E-1
2.849020E+2	3.772475E-2	9.204238E-1	9.331502E-1	9.585115E-1	8.604233E-1	8.806485E-1	9.234803E-1	1.054756E+0	8.555521E-1	9.792907E-1	8.221823E-1	9.934195E-1	7.642085E-1	1.118462E+0	7.890425E-1	9.593360E-1	8.747186E-1	1.024720E+0	8.010434E-1	1.129333E+0	7.984811E-1	9.985130E-1	8.176204E-1	1.133107E+0	8.984372E-1	1.110140E+0	6.718755E-1	1.072992E+0	7.433000E-1	1.213664E+0	6.986276E-1	1.034476E+0	9.396654E-1	1.000200E+0	1.008382E+0	1.005071E+0	6.985916E-1	9.194747E-1	9.393588E-1	1.047733E+0	9.142812E-1	1.014116E+0	9.258994E-1	9.312795E-1	7.923065E-1	1.048343E+0	8.331051E-1	9.047429E-1	1.008003E+0	9.505588E-1	9.148107E-1	9.326050E-1	7.949725E-1	8.423678E-1	9.957582E-1	9.407699E-1	1.045491E+0	1.055174E+0	8.300631E-1	9.085341E-1	8.124884E-1	1.205415E+0	7.512543E-1	9.026981E-1	1.006191E+0	1.026265E+0	7.604735E-1	1.101241E+0	8.298169E-1	9.180703E-1	8.460406E-1	1.133343E+0	9.335703E-1	9.599326E-1	8.803187E-1	1.035449E+0	8.705069E-1	9.632000E-1	8.349762E-1	9.276021E-1	9.101903E-1	9.599625E-1	9.861809E-1	9.421824E-1	7.794413E-1	8.622280E-1	1.028128E+0	9.125846E-1	1.034150E+0	9.364158E-1	8.834309E-1	9.450241E-1	8.027694E-1	9.501720E-1	8.674021E-1	9.332803E-1	1.034051E+0	9.857925E-1	8.909379E-1	9.734435E-1	7.712480E-1	9.466423E-1	8.967282E-1	1.015901E+0	1.064974E+0	9.049229E-1	8.143674E-1	9.675379E-1	8.874803E-1	9.650860E-1	8.961218E-1	9.374840E-1	1.098029E+0	8.433802E-1	9.750784E-1	1.020408E+0	8.109233E-1	7.925520E-1	9.921976E-1	1.007021E+0	1.094796E+0	8.810975E-1	9.245044E-1	1.029918E+0	8.066225E-1	9.508122E-1	9.312129E-1	1.002306E+0	1.076510E+0	8.441107E-1	9.525954E-1	9.557709E-1	7.598464E-1	9.219972E-1	1.016415E+0	9.470235E-1	1.050565E+0	8.890007E-1	9.985781E-1	9.264048E-1	8.597597E-1	9.086978E-1	9.343540E-1	9.213730E-1	1.121927E+0	1.006122E+0	7.457684E-1	1.074434E+0	7.743297E-1	1.038113E+0	8.239062E-1	1.134448E+0	9.040710E-1	1.053390E+0	7.551855E-1	1.265196E+0	7.424383E-1	9.980315E-1	8.077263E-1	1.027611E+0	1.017077E+0	9.406516E-1	9.273964E-1	1.010135E+0	8.215132E-1	9.262111E-1	9.157075E-1	8.913342E-1	9.762592E-1	9.235396E-1	9.690082E-1	9.016957E-1
2.850010E+2	2.426096E-2	9.625959E-1	9.029233E-1	1.027177E+0	8.185092E-1	8.407301E-1	8.879369E-1	1.008852E+0	8.473731E-1	1.004747E+0	7.684714E-1	9.959546E-1	7.990233E-1	1.076791E+0	8.278740E-1	9.337928E-1	9.467285E-1	1.065290E+0	8.153824E-1	1.098759E+0	7.927152E-1	9.907974E-1	7.719602E-1	1.071849E+0	9.274985E-1	1.112237E+0	7.348529E-1	1.118312E+0	7.353849E-1	1.197878E+0	7.110071E-1	1.035713E+0	9.885350E-1	9.764798E-1	9.845135E-1	9.732583E-1	7.354931E-1	9.725012E-1	9.620613E-1	1.043093E+0	9.174849E-1	1.036629E+0	9.290511E-1	9.217331E-1	7.917123E-1	1.109085E+0	8.234567E-1	9.382230E-1	1.041263E+0	8.765899E-1	9.438674E-1	9.806432E-1	8.217013E-1	8.368586E-1	9.451296E-1	9.239019E-1	1.018081E+0	1.028601E+0	8.178114E-1	9.866584E-1	8.029427E-1	1.130433E+0	7.160396E-1	9.549002E-1	1.041282E+0	1.095108E+0	7.482033E-1	1.059509E+0	8.527392E-1	9.599843E-1	8.686029E-1	1.094742E+0	9.114550E-1	9.559440E-1	7.834299E-1	1.021641E+0	9.120331E-1	9.727874E-1	8.743031E-1	9.514164E-1	8.782481E-1	1.000952E+0	9.606757E-1	9.472220E-1	8.704760E-1	8.489428E-1	9.929091E-1	9.624500E-1	1.037981E+0	8.575318E-1	9.095674E-1	9.790673E-1	7.979744E-1	9.711904E-1	8.918842E-1	9.543120E-1	1.011276E+0	9.667640E-1	9.250058E-1	1.001647E+0	7.731916E-1	8.950205E-1	8.841248E-1	9.642484E-1	1.098579E+0	9.317232E-1	8.213693E-1	9.518444E-1	8.578531E-1	9.537140E-1	9.284071E-1	8.811953E-1	1.068059E+0	8.833035E-1	9.425520E-1	9.860810E-1	7.902162E-1	8.196238E-1	1.068605E+0	9.910946E-1	1.000972E+0	9.336584E-1	9.002327E-1	1.113906E+0	8.022223E-1	9.069741E-1	8.920481E-1	1.009330E+0	1.047561E+0	8.684018E-1	1.025707E+0	9.442423E-1	8.102364E-1	8.778394E-1	1.021309E+0	8.953114E-1	1.038321E+0	8.369678E-1	9.894400E-1	9.626725E-1	8.680820E-1	9.174677E-1	9.462498E-1	8.612859E-1	1.127138E+0	9.986275E-1	7.945282E-1	1.089825E+0	7.884593E-1	1.006966E+0	7.901557E-1	1.088968E+0	9.133855E-1	1.104626E+0	7.419860E-1	1.272751E+0	7.198727E-1	9.605134E-1	8.019651E-1	9.902466E-1	1.026069E+0	9.910243E-1	9.661226E-1	9.567579E-1	8.079691E-1	9.336914E-1	8.944424E-1	9.214247E-1	9.597859E-1	9.464622E-1	9.848199E-1	9.277119E-1
2.851000E+2	3.427565E-2	8.720035E-1	7.484668E-1	9.185365E-1	8.213783E-1	8.327949E-1	8.867512E-1	1.026195E+0	8.253303E-1	9.971768E-1	7.993417E-1	1.015314E+0	7.277501E-1	1.140720E+0	7.895077E-1	9.707646E-1	9.132742E-1	1.033763E+0	8.079763E-1	1.060977E+0	7.554787E-1	9.614414E-1	7.693976E-1	1.095134E+0	9.112648E-1	1.098922E+0	6.530930E-1	1.075276E+0	6.955457E-1	1.146610E+0	6.844578E-1	9.964925E-1	9.372709E-1	9.796917E-1	9.342054E-1	9.957719E-1	7.019614E-1	9.187674E-1	9.527067E-1	9.877345E-1	8.803880E-1	1.019664E+0	8.721621E-1	9.114741E-1	8.380539E-1	1.087199E+0	8.370670E-1	8.855091E-1	1.009356E+0	9.090378E-1	9.800014E-1	9.141528E-1	8.216428E-1	8.637278E-1	9.697358E-1	9.088380E-1	1.004331E+0	1.073787E+0	7.735953E-1	8.930969E-1	7.812245E-1	1.162125E+0	7.263202E-1	8.801671E-1	1.007187E+0	1.057456E+0	7.135159E-1	1.042395E+0	7.933548E-1	9.326102E-1	8.160130E-1	1.032533E+0	9.307089E-1	9.258824E-1	7.507778E-1	1.031170E+0	8.329879E-1	9.120735E-1	7.851622E-1	9.275672E-1	8.977758E-1	9.620138E-1	9.716835E-1	8.604500E-1	7.661103E-1	8.565324E-1	9.902542E-1	8.617428E-1	1.027407E+0	8.955984E-1	8.439136E-1	9.260624E-1	7.951484E-1	9.388351E-1	8.572348E-1	9.129150E-1	9.805640E-1	9.699722E-1	8.595657E-1	9.584909E-1	7.528138E-1	8.993744E-1	9.076927E-1	9.497568E-1	1.044647E+0	8.582716E-1	7.914781E-1	9.722684E-1	8.476107E-1	9.490671E-1	8.960771E-1	8.862183E-1	1.035382E+0	8.343863E-1	9.446838E-1	1.036406E+0	7.684445E-1	8.231224E-1	1.013368E+0	9.818834E-1	9.814569E-1	9.148559E-1	8.496929E-1	1.037191E+0	7.492050E-1	8.920066E-1	8.991267E-1	9.852129E-1	9.873649E-1	8.060458E-1	9.649133E-1	9.184749E-1	7.823703E-1	8.486155E-1	9.891536E-1	9.578797E-1	1.006723E+0	8.901071E-1	9.257379E-1	9.231397E-1	8.287856E-1	9.019774E-1	9.682856E-1	8.868896E-1	1.046601E+0	9.727364E-1	7.955137E-1	1.045057E+0	7.894969E-1	1.004581E+0	7.914575E-1	1.065943E+0	8.854697E-1	1.139676E+0	7.080332E-1	1.220383E+0	6.840079E-1	9.745179E-1	8.635830E-1	9.946895E-1	9.536548E-1	8.510890E-1	8.922607E-1	9.378626E-1	7.620890E-1	8.722480E-1	9.139180E-1	9.534159E-1	9.253368E-1	9.646312E-1	1.041323E+0	8.761374E-1
2.852040E+2	1.258826E-2	7.873609E-1	7.152414E-1	8.244689E-1	6.703496E-1	6.889104E-1	7.647056E-1	8.769190E-1	7.237467E-1	8.060307E-1	6.932710E-1	8.688641E-1	6.030514E-1	9.510099E-1	6.864950E-1	8.423841E-1	7.663617E-1	9.175298E-1	6.676805E-1	8.533143E-1	6.208643E-1	8.473172E-1	6.739059E-1	9.399953E-1	7.883030E-1	8.922110E-1	6.312472E-1	8.832754E-1	5.708712E-1	1.003725E+0	6.246956E-1	8.808610E-1	7.474230E-1	8.029140E-1	7.689432E-1	8.558490E-1	6.032158E-1	7.983890E-1	8.059905E-1	8.830837E-1	7.824307E-1	8.755930E-1	8.326177E-1	7.977741E-1	7.196945E-1	8.616582E-1	7.320375E-1	7.286963E-1	8.625950E-1	7.758415E-1	7.773944E-1	7.979061E-1	6.855302E-1	7.236789E-1	8.137226E-1	8.008382E-1	8.910379E-1	8.829988E-1	7.050760E-1	7.668233E-1	6.199116E-1	9.898939E-1	6.145339E-1	7.887795E-1	8.652233E-1	9.237840E-1	6.263300E-1	8.886405E-1	6.644836E-1	8.438447E-1	7.414968E-1	9.791583E-1	7.635761E-1	7.725744E-1	6.481818E-1	8.308330E-1	7.422942E-1	8.344512E-1	7.211641E-1	7.635800E-1	7.686998E-1	8.321396E-1	7.957176E-1	7.491675E-1	6.828280E-1	7.578533E-1	8.186936E-1	7.488454E-1	8.872179E-1	7.519472E-1	7.532156E-1	8.371209E-1	6.343472E-1	8.149722E-1	7.511495E-1	8.112807E-1	8.657210E-1	8.275616E-1	8.424449E-1	8.370060E-1	6.402850E-1	8.377140E-1	7.465679E-1	8.371372E-1	8.820010E-1	7.647651E-1	6.873432E-1	8.750865E-1	7.522872E-1	8.156493E-1	7.833051E-1	7.360849E-1	9.099177E-1	7.375594E-1	8.188378E-1	8.568730E-1	6.965806E-1	7.265202E-1	8.333951E-1	8.826389E-1	8.068620E-1	7.622859E-1	7.624558E-1	9.028496E-1	6.874343E-1	7.303361E-1	7.660930E-1	8.053111E-1	8.318733E-1	7.021325E-1	8.400154E-1	8.502844E-1	7.080580E-1	7.603248E-1	8.622297E-1	8.143835E-1	8.795899E-1	7.463548E-1	8.529534E-1	8.107013E-1	7.430352E-1	7.725635E-1	7.963307E-1	7.680147E-1	9.349066E-1	8.151149E-1	7.191241E-1	8.659744E-1	6.787152E-1	8.775332E-1	6.956060E-1	8.805915E-1	8.088910E-1	8.883966E-1	6.211019E-1	1.025159E+0	5.847429E-1	8.344177E-1	7.279347E-1	8.953567E-1	8.249310E-1	7.786034E-1	8.138142E-1	8.126058E-1	6.811782E-1	8.024551E-1	7.312157E-1	8.176479E-1	8.043267E-1	7.731725E-1	8.321652E-1	7.017013E-1
2.853000E+2	1.443907E-2	5.837242E-1	5.724793E-1	6.236785E-1	5.336649E-1	5.559518E-1	5.599708E-1	6.201513E-1	4.997378E-1	5.756109E-1	5.769801E-1	6.353893E-1	4.626169E-1	6.117134E-1	5.888770E-1	6.225682E-1	5.889287E-1	5.928959E-1	5.507837E-1	6.833416E-1	4.924876E-1	6.236367E-1	5.157798E-1	6.593710E-1	5.329634E-1	5.906739E-1	5.245357E-1	6.905290E-1	4.621584E-1	7.196918E-1	4.499306E-1	6.160756E-1	5.756108E-1	6.092176E-1	6.570031E-1	6.604938E-1	4.769161E-1	5.903832E-1	5.739890E-1	6.711528E-1	5.529670E-1	6.518950E-1	5.533802E-1	5.819478E-1	5.223668E-1	6.700163E-1	5.095159E-1	5.261343E-1	6.732906E-1	6.495642E-1	5.941525E-1	5.551840E-1	5.433197E-1	5.171625E-1	6.049909E-1	6.089551E-1	6.430713E-1	6.511100E-1	5.276277E-1	6.030814E-1	5.031209E-1	7.346010E-1	4.929050E-1	5.758460E-1	6.520998E-1	6.910677E-1	4.703778E-1	6.543773E-1	5.040187E-1	6.115251E-1	5.427264E-1	7.103447E-1	5.680968E-1	6.182901E-1	4.794669E-1	6.585224E-1	5.822239E-1	5.741384E-1	5.343492E-1	5.727618E-1	5.952067E-1	6.224603E-1	6.072235E-1	5.788744E-1	4.874806E-1	5.389627E-1	6.604903E-1	5.566305E-1	6.723509E-1	6.055577E-1	5.544518E-1	5.795297E-1	5.261297E-1	6.082631E-1	5.813610E-1	5.924943E-1	6.365576E-1	6.175432E-1	5.901090E-1	6.099809E-1	4.930947E-1	5.703258E-1	6.002284E-1	6.333976E-1	6.672658E-1	5.733569E-1	5.103037E-1	6.591972E-1	5.300367E-1	6.055799E-1	5.911741E-1	5.452194E-1	6.424318E-1	5.557853E-1	6.096438E-1	6.178638E-1	5.016279E-1	5.412938E-1	6.315746E-1	6.668771E-1	6.291716E-1	6.000841E-1	5.070733E-1	6.745452E-1	4.945179E-1	5.465166E-1	5.667711E-1	6.417318E-1	6.315977E-1	5.264626E-1	6.246819E-1	6.159800E-1	4.702651E-1	6.124250E-1	6.187544E-1	5.510293E-1	6.249234E-1	5.364366E-1	6.184034E-1	6.252899E-1	5.581432E-1	5.392314E-1	5.689079E-1	6.034861E-1	6.662332E-1	5.853170E-1	5.390881E-1	6.854136E-1	4.978955E-1	6.600360E-1	5.192082E-1	6.647366E-1	5.769923E-1	6.288532E-1	4.831660E-1	7.838766E-1	4.558601E-1	6.007725E-1	5.506679E-1	6.489032E-1	6.430251E-1	6.262705E-1	5.935773E-1	6.206654E-1	4.970803E-1	6.080141E-1	5.976840E-1	5.899084E-1	6.030761E-1	6.352384E-1	5.893912E-1	5.604909E-1
2.854010E+2	9.914568E-3	3.556960E-1	3.509749E-1	4.450717E-1	3.605633E-1	3.709063E-1	3.693045E-1	4.159164E-1	3.460369E-1	3.648746E-1	3.872554E-1	3.886641E-1	2.999843E-1	3.474804E-1	4.255523E-1	3.937383E-1	3.881436E-1	3.469511E-1	3.790183E-1	4.743475E-1	3.204520E-1	3.849326E-1	3.584775E-1	4.734001E-1	3.715720E-1	3.563272E-1	3.731459E-1	4.616169E-1	2.813888E-1	4.099275E-1	3.775450E-1	4.399893E-1	3.612702E-1	3.681658E-1	4.388800E-1	4.211759E-1	2.909407E-1	3.793327E-1	4.053441E-1	4.220023E-1	3.684164E-1	3.984204E-1	3.971088E-1	4.002123E-1	3.499152E-1	3.956406E-1	3.967073E-1	3.865466E-1	4.287851E-1	3.594922E-1	4.420058E-1	3.645485E-1	3.545150E-1	3.438590E-1	4.306598E-1	4.059036E-1	4.377435E-1	4.432815E-1	3.529579E-1	3.790611E-1	3.171193E-1	5.352184E-1	3.265120E-1	3.964965E-1	4.148750E-1	4.298193E-1	3.211472E-1	4.621324E-1	3.525249E-1	4.108915E-1	3.380757E-1	4.430839E-1	3.933138E-1	4.312136E-1	3.469686E-1	4.105316E-1	3.980268E-1	4.102348E-1	3.464885E-1	4.293225E-1	3.732791E-1	3.944665E-1	3.711489E-1	3.713177E-1	3.506718E-1	3.791803E-1	4.357663E-1	3.834795E-1	4.211879E-1	3.716931E-1	3.739784E-1	4.376044E-1	3.583273E-1	4.227526E-1	3.797430E-1	3.777998E-1	4.320241E-1	4.280441E-1	3.913850E-1	4.234160E-1	3.189915E-1	3.683473E-1	3.897130E-1	4.110599E-1	4.648632E-1	3.436934E-1	3.256697E-1	4.161515E-1	3.615243E-1	4.026847E-1	3.688375E-1	3.771772E-1	4.743140E-1	3.714250E-1	3.753053E-1	4.257987E-1	3.307983E-1	3.474565E-1	4.314151E-1	4.482151E-1	4.096689E-1	3.642400E-1	3.831176E-1	4.343063E-1	3.365001E-1	3.845353E-1	4.012865E-1	4.080179E-1	4.556979E-1	3.527078E-1	3.813916E-1	4.017739E-1	3.331675E-1	3.899223E-1	4.071111E-1	3.899706E-1	4.331842E-1	3.823866E-1	3.815467E-1	4.110566E-1	3.441397E-1	3.928177E-1	4.055209E-1	3.978281E-1	4.771497E-1	4.109418E-1	3.301015E-1	4.278770E-1	3.361250E-1	4.070266E-1	3.320174E-1	4.661191E-1	3.659978E-1	4.109604E-1	3.239049E-1	4.744400E-1	3.105792E-1	4.192002E-1	3.394004E-1	4.395127E-1	4.121676E-1	3.737179E-1	3.685235E-1	3.961098E-1	3.599002E-1	4.160062E-1	3.842953E-1	4.117124E-1	4.314302E-1	4.340647E-1	3.907522E-1	4.115446E-1
2.855020E+2	6.289331E-3	3.231887E-1	3.062440E-1	2.890380E-1	2.970493E-1	2.916574E-1	2.985848E-1	3.580330E-1	2.856883E-1	2.805603E-1	3.127205E-1	3.010467E-1	2.785324E-1	3.147036E-1	3.243353E-1	3.229312E-1	3.441291E-1	3.195046E-1	3.039356E-1	3.719333E-1	2.553552E-1	2.990075E-1	2.897094E-1	3.817047E-1	3.074374E-1	3.165632E-1	3.190690E-1	3.594603E-1	2.333198E-1	3.284614E-1	3.051517E-1	3.635118E-1	3.320746E-1	3.215758E-1	3.602935E-1	3.360230E-1	2.145139E-1	3.385903E-1	3.234842E-1	3.612148E-1	2.786177E-1	3.097471E-1	3.322545E-1	3.041640E-1	2.954310E-1	3.258943E-1	3.506185E-1	3.087518E-1	3.598758E-1	2.607763E-1	3.736488E-1	3.267884E-1	3.051720E-1	2.737581E-1	3.244221E-1	3.023257E-1	3.312432E-1	3.304275E-1	3.096258E-1	2.965321E-1	2.764970E-1	3.658527E-1	2.834721E-1	2.925348E-1	3.542109E-1	3.502838E-1	2.640644E-1	3.918793E-1	2.713551E-1	3.322245E-1	2.961220E-1	3.897068E-1	3.179029E-1	3.078011E-1	3.015416E-1	3.346250E-1	3.118224E-1	2.692273E-1	3.441672E-1	3.513328E-1	3.194199E-1	2.982783E-1	3.648061E-1	2.943483E-1	2.970766E-1	3.159427E-1	3.498440E-1	3.124880E-1	3.483333E-1	3.033193E-1	3.114467E-1	3.430113E-1	2.892053E-1	3.518503E-1	3.086999E-1	3.051119E-1	3.422195E-1	3.527662E-1	3.320273E-1	3.526615E-1	2.804120E-1	3.328806E-1	3.427271E-1	3.512496E-1	3.655542E-1	3.476401E-1	2.989460E-1	3.471732E-1	2.870578E-1	3.262062E-1	3.273326E-1	3.136024E-1	3.657134E-1	3.010292E-1	3.336765E-1	3.549101E-1	2.943171E-1	2.698397E-1	3.203147E-1	3.451179E-1	3.440798E-1	3.205456E-1	2.769362E-1	3.359904E-1	2.647936E-1	3.392593E-1	3.220524E-1	3.404853E-1	3.870225E-1	2.997695E-1	3.366659E-1	3.358379E-1	2.821344E-1	2.941180E-1	3.242031E-1	3.210073E-1	3.671593E-1	3.197207E-1	3.731808E-1	3.038341E-1	2.911754E-1	3.313961E-1	3.379978E-1	2.900621E-1	3.928283E-1	3.530624E-1	2.977957E-1	3.856822E-1	2.426095E-1	3.223767E-1	2.874100E-1	3.900866E-1	3.040828E-1	3.652024E-1	2.716415E-1	3.748991E-1	2.479281E-1	3.502889E-1	2.777334E-1	3.555626E-1	3.427398E-1	3.268488E-1	3.647852E-1	3.339154E-1	2.924776E-1	3.485834E-1	3.170243E-1	3.188887E-1	3.640717E-1	2.892352E-1	3.157900E-1	2.722728E-1
2.856030E+2	7.220571E-3	2.439385E-1	2.277524E-1	2.680590E-1	2.165468E-1	2.319019E-1	2.594051E-1	2.555841E-1	2.407391E-1	2.332616E-1	2.706094E-1	2.466884E-1	2.224373E-1	2.610527E-1	2.983385E-1	2.716832E-1	2.167557E-1	2.231896E-1	2.675993E-1	2.789382E-1	2.179457E-1	2.524789E-1	2.446790E-1	2.792393E-1	2.671608E-1	2.509079E-1	2.789816E-1	3.145347E-1	1.893995E-1	2.755277E-1	2.502137E-1	2.675456E-1	2.650463E-1	2.529318E-1	2.749666E-1	2.580563E-1	1.750869E-1	2.424756E-1	2.650075E-1	2.862665E-1	2.226988E-1	2.617160E-1	2.807182E-1	2.686237E-1	2.253052E-1	2.343655E-1	3.039404E-1	2.487081E-1	2.854942E-1	2.064405E-1	3.224659E-1	2.732113E-1	2.354472E-1	1.944216E-1	2.875239E-1	2.406633E-1	2.752847E-1	2.993066E-1	2.602396E-1	2.517161E-1	2.042466E-1	2.679678E-1	2.221014E-1	2.618192E-1	2.665831E-1	2.532518E-1	2.184290E-1	3.069920E-1	2.289995E-1	2.756588E-1	2.404600E-1	2.925380E-1	2.489117E-1	2.613295E-1	2.344685E-1	2.403388E-1	2.707000E-1	1.840436E-1	2.612847E-1	2.546583E-1	2.523578E-1	2.282025E-1	3.383462E-1	2.283826E-1	2.192206E-1	2.122568E-1	2.691002E-1	2.416729E-1	3.114902E-1	2.158007E-1	2.589467E-1	2.769719E-1	2.237376E-1	2.438590E-1	3.005406E-1	2.457139E-1	2.459893E-1	2.376161E-1	2.430366E-1	2.360901E-1	2.153945E-1	2.232835E-1	2.610302E-1	2.930666E-1	3.074051E-1	2.259170E-1	2.529200E-1	2.828033E-1	2.100594E-1	2.242909E-1	2.819782E-1	2.414371E-1	2.959518E-1	2.403073E-1	2.863249E-1	2.773018E-1	2.086324E-1	2.199439E-1	2.883187E-1	2.800743E-1	2.624103E-1	2.667388E-1	2.313335E-1	2.839985E-1	2.292095E-1	2.532516E-1	2.353813E-1	2.682079E-1	3.007340E-1	2.674957E-1	2.657254E-1	3.043651E-1	2.041506E-1	2.358334E-1	2.921740E-1	2.435674E-1	3.145112E-1	2.715832E-1	2.881121E-1	2.558156E-1	2.333887E-1	2.413660E-1	2.701596E-1	2.713849E-1	2.910974E-1	2.880759E-1	2.464528E-1	2.983756E-1	2.150737E-1	2.717266E-1	2.078548E-1	3.282527E-1	2.729586E-1	2.626119E-1	2.183938E-1	3.461460E-1	2.006697E-1	2.621266E-1	2.300399E-1	2.627190E-1	2.432550E-1	2.734702E-1	2.565347E-1	2.860802E-1	2.470822E-1	2.457708E-1	2.357587E-1	2.582306E-1	2.663539E-1	2.664260E-1	2.813938E-1	1.974805E-1
2.858030E+2	5.408005E-3	2.297915E-1	2.145310E-1	2.399001E-1	2.067530E-1	2.096409E-1	2.463195E-1	2.283478E-1	2.278999E-1	2.176566E-1	2.319780E-1	2.358580E-1	1.827614E-1	2.373579E-1	2.662366E-1	2.324204E-1	2.051581E-1	2.238186E-1	2.164486E-1	2.722295E-1	1.991624E-1	2.247696E-1	2.038194E-1	2.675191E-1	2.282021E-1	2.092845E-1	2.141527E-1	2.525844E-1	1.523266E-1	2.280619E-1	2.143493E-1	2.572458E-1	2.273219E-1	2.184602E-1	2.542784E-1	2.264445E-1	1.911290E-1	2.011324E-1	2.425118E-1	2.655273E-1	1.967181E-1	2.040135E-1	2.588379E-1	2.112152E-1	1.954776E-1	2.083145E-1	2.621026E-1	2.562417E-1	2.628846E-1	1.625968E-1	2.774756E-1	2.356585E-1	1.977950E-1	1.916922E-1	2.264509E-1	2.391715E-1	2.530489E-1	2.229380E-1	2.175524E-1	2.287626E-1	1.973954E-1	2.557134E-1	2.326098E-1	2.239183E-1	2.463812E-1	2.490386E-1	1.591866E-1	2.663272E-1	1.864252E-1	2.283896E-1	2.002999E-1	2.653695E-1	2.188756E-1	2.049935E-1	2.048603E-1	2.288992E-1	2.206425E-1	1.890993E-1	2.469164E-1	2.300664E-1	2.221414E-1	1.996284E-1	2.899027E-1	2.302483E-1	2.053883E-1	2.242679E-1	2.362464E-1	2.296867E-1	2.733503E-1	2.006295E-1	2.505608E-1	2.436247E-1	1.820611E-1	2.125871E-1	2.564054E-1	2.138299E-1	2.639263E-1	2.295141E-1	2.465781E-1	2.475293E-1	1.949107E-1	2.436648E-1	2.205319E-1	2.270573E-1	2.558829E-1	2.159465E-1	2.385865E-1	2.723893E-1	2.128512E-1	2.099591E-1	2.587189E-1	2.196038E-1	2.836394E-1	1.687610E-1	2.751233E-1	2.129044E-1	1.906975E-1	1.883552E-1	2.511013E-1	2.455757E-1	2.364670E-1	2.012734E-1	2.403756E-1	2.568933E-1	1.825818E-1	2.165174E-1	2.474015E-1	2.551144E-1	2.551488E-1	1.871519E-1	2.498079E-1	2.464906E-1	1.922990E-1	2.168478E-1	2.451387E-1	2.085279E-1	2.715228E-1	2.005787E-1	2.301687E-1	2.271570E-1	1.938176E-1	2.009591E-1	2.326858E-1	2.311113E-1	2.572425E-1	2.249428E-1	1.899954E-1	2.576437E-1	2.216272E-1	2.325301E-1	2.012459E-1	2.558365E-1	2.299119E-1	2.766799E-1	1.878120E-1	3.008108E-1	1.683315E-1	2.281035E-1	2.006914E-1	2.604539E-1	2.471914E-1	2.348552E-1	2.108461E-1	2.299772E-1	1.931000E-1	2.393751E-1	2.372920E-1	2.453771E-1	2.196369E-1	2.279170E-1	2.450586E-1	2.428035E-1
2.860050E+2	5.425662E-3	3.960694E-1	3.308005E-1	3.938773E-1	3.288137E-1	3.442378E-1	3.409608E-1	4.017955E-1	3.014318E-1	3.368410E-1	3.552593E-1	3.864041E-1	3.002021E-1	3.149505E-1	3.889240E-1	3.870395E-1	3.749210E-1	3.743488E-1	3.674170E-1	3.961317E-1	2.762550E-1	3.510583E-1	3.345426E-1	4.459053E-1	3.364260E-1	3.386799E-1	3.887131E-1	4.225869E-1	2.698656E-1	3.808745E-1	3.156305E-1	3.516015E-1	3.547273E-1	3.467264E-1	4.233772E-1	3.971158E-1	3.065621E-1	3.645600E-1	3.693182E-1	3.740851E-1	3.507322E-1	3.875712E-1	4.017912E-1	3.573703E-1	3.226224E-1	3.352824E-1	3.910401E-1	3.689736E-1	4.063045E-1	3.056103E-1	4.536052E-1	3.692521E-1	3.503172E-1	3.295830E-1	4.246926E-1	3.468522E-1	4.020030E-1	3.570038E-1	3.492354E-1	3.343151E-1	3.000009E-1	3.756437E-1	3.504208E-1	3.336733E-1	4.310613E-1	3.896551E-1	3.057262E-1	4.121309E-1	3.010357E-1	3.705370E-1	3.488502E-1	4.237837E-1	3.494683E-1	3.257698E-1	3.509418E-1	3.862369E-1	3.574023E-1	2.992926E-1	4.048554E-1	3.758789E-1	3.627277E-1	3.147178E-1	4.671921E-1	3.339911E-1	3.305408E-1	3.196468E-1	3.750291E-1	3.441723E-1	3.856851E-1	3.455385E-1	3.356696E-1	3.773450E-1	2.973558E-1	3.416104E-1	3.886354E-1	3.434959E-1	4.053431E-1	3.258936E-1	3.873183E-1	3.846532E-1	2.934302E-1	3.458538E-1	3.619557E-1	3.736013E-1	4.304620E-1	3.070887E-1	3.931648E-1	3.943826E-1	3.432339E-1	3.173667E-1	4.304097E-1	3.588884E-1	4.162306E-1	2.774161E-1	4.383528E-1	3.964857E-1	3.150577E-1	3.389956E-1	4.028815E-1	4.026201E-1	4.158986E-1	3.210442E-1	3.458415E-1	3.921996E-1	2.922083E-1	3.401419E-1	4.093295E-1	3.813213E-1	3.826498E-1	3.014304E-1	4.325159E-1	3.977382E-1	3.081817E-1	3.691078E-1	4.073731E-1	3.375269E-1	4.226294E-1	3.195068E-1	4.243864E-1	3.310610E-1	3.429900E-1	2.623675E-1	4.238305E-1	3.763900E-1	4.344018E-1	3.189508E-1	3.750012E-1	4.143002E-1	3.162494E-1	3.552447E-1	3.321409E-1	4.259140E-1	3.789410E-1	3.799630E-1	3.046615E-1	4.681776E-1	2.812291E-1	3.678355E-1	3.687633E-1	3.928267E-1	3.636453E-1	3.180959E-1	3.710048E-1	3.579512E-1	3.084980E-1	3.727590E-1	3.847563E-1	3.927129E-1	3.982861E-1	3.609662E-1	4.212997E-1	3.402093E-1
2.862030E+2	2.752217E-2	6.657179E-1	5.904361E-1	6.889945E-1	5.822675E-1	6.443680E-1	6.296611E-1	7.806906E-1	6.280164E-1	6.024179E-1	6.519917E-1	6.562572E-1	5.206312E-1	6.468827E-1	6.845194E-1	7.326391E-1	6.682020E-1	6.647185E-1	6.424393E-1	7.858086E-1	5.388050E-1	6.904356E-1	6.351409E-1	7.921061E-1	6.815460E-1	6.453078E-1	6.341703E-1	8.188068E-1	5.394350E-1	7.034897E-1	6.192842E-1	7.458014E-1	6.440302E-1	6.418237E-1	7.684400E-1	7.279681E-1	5.091543E-1	6.333042E-1	6.678666E-1	6.884604E-1	6.246886E-1	6.190556E-1	7.277612E-1	6.882354E-1	5.714752E-1	5.955526E-1	7.007679E-1	6.490302E-1	7.122805E-1	5.293269E-1	7.862739E-1	6.645753E-1	5.820377E-1	5.906971E-1	6.890450E-1	6.496483E-1	7.003118E-1	6.931943E-1	6.145768E-1	6.918880E-1	5.661410E-1	7.313933E-1	6.240508E-1	6.875064E-1	7.059591E-1	6.784786E-1	5.598858E-1	7.871978E-1	5.849155E-1	6.978289E-1	6.181606E-1	8.010455E-1	6.655787E-1	6.353719E-1	6.511072E-1	7.426523E-1	6.267332E-1	5.271754E-1	7.652047E-1	6.627996E-1	6.481151E-1	5.953356E-1	7.982548E-1	6.691635E-1	5.856555E-1	5.972457E-1	7.827723E-1	6.414893E-1	7.496985E-1	6.129489E-1	7.214148E-1	6.845560E-1	5.919385E-1	5.895985E-1	7.208220E-1	6.717199E-1	7.590441E-1	6.362691E-1	6.826599E-1	7.212476E-1	5.543371E-1	6.568216E-1	6.907211E-1	6.837047E-1	7.952819E-1	5.746893E-1	6.842808E-1	7.136211E-1	5.850054E-1	5.679842E-1	8.068268E-1	6.427979E-1	8.306240E-1	5.196377E-1	7.830583E-1	7.321406E-1	5.911529E-1	5.692811E-1	7.097335E-1	7.020041E-1	7.210858E-1	5.453912E-1	7.435939E-1	7.489851E-1	5.745383E-1	5.490424E-1	8.465637E-1	7.151298E-1	7.314704E-1	5.620628E-1	8.293301E-1	6.863878E-1	5.231555E-1	5.860571E-1	6.893118E-1	6.416754E-1	7.235234E-1	5.599976E-1	8.201235E-1	6.775375E-1	5.855476E-1	5.124272E-1	8.336035E-1	6.562573E-1	7.932372E-1	5.759736E-1	6.848599E-1	7.520928E-1	6.029478E-1	6.544168E-1	6.334536E-1	8.183051E-1	7.125376E-1	7.333851E-1	5.987280E-1	8.589838E-1	5.317942E-1	5.982814E-1	6.721157E-1	7.064642E-1	7.414432E-1	6.150194E-1	7.297793E-1	6.853067E-1	6.207327E-1	6.132055E-1	7.101991E-1	6.686457E-1	6.781877E-1	5.892494E-1	7.426627E-1	5.558880E-1
2.864030E+2	1.652576E-2	7.946408E-1	7.566349E-1	7.562543E-1	8.196943E-1	7.535817E-1	8.264566E-1	8.713108E-1	7.912748E-1	8.594808E-1	8.219509E-1	8.465160E-1	6.719200E-1	8.134345E-1	8.801650E-1	8.801595E-1	8.581206E-1	8.677050E-1	8.158761E-1	9.323869E-1	6.476466E-1	8.746235E-1	7.567153E-1	9.378873E-1	8.307145E-1	7.576794E-1	8.020062E-1	9.286284E-1	6.246394E-1	8.812379E-1	7.433561E-1	9.182980E-1	8.961754E-1	8.194842E-1	9.835210E-1	8.417665E-1	5.862899E-1	8.101554E-1	8.602109E-1	9.332975E-1	8.444141E-1	8.399827E-1	8.922443E-1	8.744891E-1	7.288092E-1	7.500949E-1	9.473450E-1	7.966470E-1	9.525098E-1	6.965889E-1	9.831648E-1	8.047940E-1	7.882724E-1	7.224965E-1	9.181217E-1	8.020304E-1	8.894360E-1	8.087514E-1	8.158020E-1	8.563053E-1	7.599978E-1	8.955096E-1	7.643011E-1	8.401931E-1	9.078626E-1	9.000800E-1	7.224985E-1	9.399933E-1	6.968592E-1	8.196411E-1	8.006807E-1	9.976412E-1	8.551649E-1	7.952467E-1	8.221963E-1	9.280828E-1	8.023324E-1	6.643743E-1	8.922035E-1	8.599453E-1	8.297810E-1	7.249129E-1	1.063536E+0	8.355384E-1	7.023952E-1	7.505467E-1	9.558011E-1	8.091385E-1	9.628980E-1	7.824793E-1	8.383913E-1	8.333822E-1	7.601063E-1	7.475232E-1	8.629924E-1	8.689763E-1	8.751634E-1	7.958336E-1	8.783215E-1	8.308276E-1	6.998016E-1	8.543381E-1	8.653842E-1	9.465437E-1	9.860210E-1	6.857834E-1	9.223499E-1	9.019929E-1	7.589323E-1	6.688251E-1	1.024919E+0	7.746215E-1	9.823579E-1	6.920449E-1	1.020293E+0	8.786677E-1	7.172598E-1	7.427054E-1	9.685100E-1	9.086817E-1	9.025161E-1	7.551530E-1	9.261687E-1	9.724366E-1	6.731121E-1	6.877619E-1	9.684023E-1	8.825295E-1	9.299513E-1	6.971347E-1	9.926843E-1	8.662959E-1	7.166742E-1	7.326112E-1	9.469514E-1	8.555275E-1	8.943225E-1	7.279441E-1	9.661416E-1	8.525857E-1	7.871686E-1	6.508644E-1	1.020141E+0	8.137825E-1	1.018384E+0	7.419077E-1	8.612259E-1	9.490704E-1	7.320730E-1	8.490221E-1	8.233003E-1	9.149952E-1	7.894116E-1	8.277560E-1	7.235964E-1	1.114302E+0	6.614691E-1	7.446333E-1	8.717972E-1	9.735415E-1	9.018646E-1	7.577972E-1	8.528303E-1	8.610243E-1	7.266002E-1	8.388885E-1	8.321871E-1	8.317647E-1	8.755470E-1	7.425697E-1	9.191162E-1	8.557622E-1
2.866150E+2	2.396210E-2	7.953617E-1	7.401255E-1	7.645105E-1	8.120531E-1	7.734402E-1	7.720236E-1	8.405513E-1	7.812844E-1	7.782096E-1	8.040005E-1	8.502690E-1	6.570862E-1	7.802080E-1	9.262010E-1	8.586024E-1	8.553093E-1	7.709519E-1	8.415436E-1	9.672071E-1	6.372784E-1	8.168199E-1	7.351397E-1	9.389454E-1	7.891985E-1	7.514397E-1	8.042723E-1	9.043448E-1	6.496752E-1	8.657018E-1	7.453418E-1	8.739983E-1	8.432875E-1	7.776109E-1	9.440111E-1	8.463802E-1	6.075795E-1	7.599573E-1	8.265120E-1	8.923666E-1	7.682659E-1	8.289425E-1	8.687010E-1	7.879710E-1	6.927285E-1	7.179269E-1	9.345970E-1	7.615001E-1	9.031035E-1	7.019795E-1	9.828480E-1	8.495759E-1	7.532081E-1	7.112423E-1	9.027004E-1	7.962865E-1	8.693611E-1	8.386464E-1	7.766017E-1	7.591782E-1	7.066490E-1	8.531821E-1	7.472622E-1	7.127344E-1	9.110703E-1	8.213812E-1	7.105710E-1	8.964657E-1	7.053288E-1	7.740919E-1	7.245393E-1	9.798388E-1	8.271576E-1	7.472039E-1	7.931521E-1	8.688549E-1	7.973228E-1	7.242662E-1	8.699821E-1	8.472717E-1	8.290566E-1	7.578871E-1	9.492389E-1	8.050829E-1	6.810988E-1	7.181698E-1	8.645214E-1	8.348458E-1	9.054710E-1	7.599004E-1	8.341073E-1	8.640232E-1	7.102733E-1	7.457152E-1	9.017130E-1	8.556136E-1	8.894177E-1	8.248638E-1	8.427855E-1	8.793208E-1	6.654922E-1	8.302944E-1	8.219427E-1	8.551177E-1	9.287349E-1	7.090856E-1	8.053081E-1	8.454328E-1	8.241527E-1	6.780313E-1	9.713588E-1	7.753954E-1	9.437816E-1	6.360609E-1	9.829092E-1	8.915525E-1	6.852467E-1	7.012852E-1	9.363074E-1	8.293571E-1	8.759084E-1	7.161359E-1	8.854748E-1	9.250553E-1	6.833466E-1	6.580916E-1	9.300503E-1	8.622661E-1	9.207239E-1	6.466130E-1	9.680594E-1	8.216624E-1	6.495818E-1	7.434736E-1	8.813182E-1	8.323071E-1	8.878845E-1	7.159915E-1	9.455217E-1	8.489208E-1	7.524288E-1	6.604353E-1	9.724990E-1	7.895515E-1	9.011643E-1	7.302627E-1	8.127578E-1	9.217454E-1	7.026405E-1	7.619031E-1	7.814127E-1	1.001551E+0	8.965503E-1	8.784144E-1	7.112382E-1	1.047820E+0	6.169789E-1	7.360717E-1	8.464666E-1	8.670864E-1	8.432847E-1	7.120209E-1	8.551939E-1	8.518488E-1	7.145035E-1	8.206173E-1	8.722154E-1	8.325750E-1	8.338210E-1	7.470783E-1	9.651815E-1	8.267769E-1
2.868030E+2	3.791885E-2	9.735903E-1	8.852618E-1	8.573709E-1	9.698946E-1	9.213401E-1	9.172769E-1	1.064870E+0	8.929207E-1	8.700418E-1	9.637088E-1	9.729969E-1	7.908919E-1	9.023717E-1	1.047471E+0	1.025242E+0	9.863861E-1	9.287828E-1	9.256642E-1	1.071469E+0	7.789075E-1	9.694835E-1	8.981081E-1	1.112799E+0	1.011861E+0	8.529191E-1	9.182074E-1	1.086723E+0	7.487084E-1	1.037063E+0	8.568683E-1	1.031341E+0	9.474024E-1	9.401395E-1	1.035747E+0	1.019373E+0	7.051677E-1	9.541802E-1	9.696858E-1	1.036392E+0	9.540254E-1	9.925808E-1	1.045971E+0	9.788419E-1	8.770741E-1	8.300155E-1	1.031296E+0	8.789850E-1	1.058349E+0	8.256361E-1	1.127455E+0	9.860764E-1	8.566894E-1	8.789438E-1	1.044720E+0	8.980444E-1	1.046369E+0	1.065293E+0	9.340062E-1	9.860726E-1	8.236335E-1	1.026118E+0	8.706653E-1	1.015893E+0	1.002742E+0	1.032166E+0	8.512867E-1	1.101425E+0	8.437599E-1	9.758838E-1	8.968857E-1	1.145659E+0	1.015626E+0	8.668835E-1	9.193964E-1	9.897485E-1	9.409870E-1	7.590390E-1	1.026072E+0	9.730862E-1	9.629837E-1	8.624112E-1	1.206083E+0	9.120150E-1	8.561000E-1	8.346793E-1	1.087753E+0	9.314444E-1	1.009598E+0	8.581158E-1	9.686589E-1	1.028439E+0	8.215004E-1	8.298692E-1	1.053167E+0	1.018396E+0	1.037482E+0	9.156181E-1	9.861698E-1	1.005955E+0	7.349934E-1	9.477763E-1	8.955756E-1	9.848210E-1	1.082829E+0	7.934476E-1	1.037430E+0	9.619438E-1	8.879649E-1	7.915975E-1	1.099631E+0	8.738417E-1	1.079552E+0	8.021789E-1	1.155548E+0	1.067832E+0	8.025792E-1	9.107061E-1	1.030507E+0	9.993936E-1	1.043249E+0	8.572293E-1	1.000943E+0	1.102014E+0	8.341972E-1	8.215628E-1	1.149881E+0	1.014377E+0	1.013699E+0	7.570246E-1	1.154486E+0	1.035729E+0	8.253351E-1	8.524838E-1	1.078465E+0	9.547399E-1	1.061876E+0	8.231065E-1	1.105777E+0	9.528887E-1	8.730137E-1	7.953077E-1	1.175092E+0	9.339670E-1	1.092151E+0	8.531117E-1	9.163058E-1	1.118551E+0	8.326164E-1	1.007726E+0	9.137561E-1	1.169737E+0	9.177416E-1	9.960421E-1	8.633091E-1	1.186735E+0	7.629483E-1	8.681612E-1	9.501867E-1	1.037577E+0	1.041585E+0	8.799263E-1	9.673224E-1	9.728909E-1	7.664595E-1	9.388253E-1	1.001176E+0	9.453307E-1	1.022855E+0	8.675055E-1	1.153064E+0	9.057893E-1
2.870150E+2	2.139014E-2	9.586163E-1	8.549518E-1	7.730290E-1	8.827680E-1	8.388897E-1	8.552300E-1	9.720203E-1	8.470801E-1	7.967648E-1	8.196515E-1	9.837561E-1	7.477534E-1	8.477190E-1	8.647373E-1	1.040815E+0	8.601620E-1	8.589867E-1	8.948284E-1	1.054448E+0	7.048781E-1	8.798453E-1	8.031093E-1	1.019675E+0	8.972434E-1	8.080782E-1	8.413359E-1	1.056955E+0	6.956921E-1	9.210612E-1	8.051804E-1	9.638422E-1	9.034401E-1	8.355217E-1	9.923875E-1	9.322569E-1	6.702118E-1	8.506094E-1	8.964495E-1	9.377495E-1	8.938274E-1	8.921775E-1	9.160847E-1	8.978908E-1	7.866640E-1	7.780299E-1	9.935923E-1	8.674527E-1	9.859270E-1	7.367953E-1	1.080406E+0	8.546336E-1	8.275552E-1	7.608966E-1	8.997736E-1	8.347350E-1	9.905513E-1	8.836260E-1	8.688754E-1	8.640407E-1	7.598096E-1	9.869876E-1	8.341742E-1	8.930033E-1	9.530034E-1	9.874477E-1	7.883716E-1	1.067289E+0	7.699673E-1	8.191532E-1	8.002550E-1	1.033770E+0	8.698835E-1	7.842535E-1	8.575146E-1	9.490788E-1	8.269223E-1	7.238955E-1	9.707038E-1	8.964873E-1	8.401362E-1	7.601804E-1	1.092930E+0	8.798429E-1	7.212779E-1	7.751579E-1	9.561034E-1	7.993788E-1	1.018573E+0	7.874158E-1	9.034799E-1	9.096196E-1	7.455337E-1	8.078546E-1	9.068679E-1	9.038001E-1	9.622538E-1	8.619448E-1	9.245820E-1	9.663433E-1	7.491325E-1	9.002554E-1	9.365293E-1	9.227885E-1	1.073256E+0	7.250886E-1	9.388425E-1	9.452426E-1	8.439759E-1	7.258417E-1	1.103595E+0	8.264836E-1	1.057601E+0	7.284235E-1	9.925493E-1	9.027492E-1	7.381173E-1	7.835966E-1	9.584086E-1	9.766110E-1	9.053518E-1	7.257250E-1	9.262298E-1	9.704721E-1	7.140094E-1	7.026885E-1	1.032162E+0	9.076930E-1	9.443397E-1	7.145414E-1	1.065545E+0	9.172920E-1	7.574529E-1	8.218838E-1	1.018789E+0	8.761429E-1	9.328282E-1	7.552347E-1	1.034635E+0	8.955994E-1	8.049346E-1	7.193592E-1	1.076629E+0	8.680402E-1	9.987778E-1	7.802785E-1	8.885893E-1	9.645567E-1	7.266359E-1	8.803330E-1	8.363449E-1	1.040917E+0	8.731096E-1	9.080612E-1	7.779330E-1	1.150605E+0	7.191272E-1	7.964778E-1	9.137147E-1	9.828480E-1	9.174582E-1	8.274782E-1	9.137018E-1	8.987873E-1	7.464883E-1	8.977655E-1	8.575152E-1	8.760072E-1	9.429079E-1	7.242519E-1	1.167915E+0	7.962991E-1
2.872110E+2	1.343930E-2	8.364165E-1	7.137546E-1	6.624694E-1	6.938023E-1	6.942681E-1	7.556764E-1	7.876201E-1	7.077328E-1	6.855541E-1	6.563669E-1	9.064762E-1	5.757917E-1	7.423276E-1	6.367770E-1	9.302268E-1	7.560782E-1	7.096681E-1	6.762932E-1	8.654379E-1	5.819301E-1	7.547596E-1	6.669099E-1	8.763484E-1	7.297181E-1	7.297730E-1	6.916391E-1	9.279275E-1	5.750899E-1	7.914657E-1	6.339735E-1	8.939007E-1	7.943999E-1	6.803258E-1	6.762220E-1	8.854199E-1	5.641544E-1	7.295942E-1	7.596548E-1	9.012577E-1	6.885539E-1	7.276317E-1	8.230832E-1	7.639209E-1	6.589445E-1	6.506948E-1	8.035911E-1	7.267962E-1	8.431002E-1	6.099672E-1	8.570486E-1	8.037562E-1	7.047480E-1	6.350129E-1	8.038335E-1	7.403142E-1	7.768333E-1	7.209059E-1	7.104216E-1	7.592988E-1	6.037576E-1	8.112898E-1	7.245851E-1	7.111350E-1	7.855530E-1	8.121046E-1	6.599063E-1	8.338970E-1	6.336062E-1	7.982205E-1	6.696467E-1	8.595599E-1	7.283965E-1	6.817849E-1	7.016403E-1	7.707045E-1	6.981516E-1	6.173084E-1	8.209434E-1	7.638054E-1	7.243972E-1	6.772377E-1	9.038535E-1	7.077805E-1	6.320301E-1	6.554789E-1	8.284320E-1	6.921965E-1	7.637755E-1	7.042481E-1	7.585644E-1	7.773225E-1	6.380360E-1	6.800252E-1	8.202017E-1	7.846440E-1	7.627957E-1	7.151262E-1	7.757790E-1	7.829646E-1	6.209827E-1	7.143123E-1	7.379601E-1	7.509744E-1	9.127247E-1	6.235811E-1	7.701633E-1	7.717635E-1	7.019414E-1	6.276010E-1	8.810257E-1	7.268395E-1	9.226136E-1	6.003567E-1	8.734639E-1	8.157843E-1	6.244860E-1	6.987764E-1	8.086567E-1	7.471139E-1	7.986333E-1	6.536977E-1	7.847961E-1	8.459444E-1	6.170459E-1	6.081293E-1	8.784083E-1	7.924225E-1	7.732834E-1	5.741465E-1	8.663439E-1	8.054396E-1	6.536305E-1	7.235822E-1	8.092397E-1	7.587035E-1	8.353881E-1	6.845585E-1	8.761579E-1	7.690384E-1	6.382027E-1	6.030978E-1	9.630192E-1	7.304272E-1	8.715431E-1	6.554847E-1	7.494406E-1	8.979370E-1	6.043350E-1	7.183333E-1	6.841016E-1	8.634918E-1	7.944955E-1	7.731213E-1	5.956991E-1	1.003200E+0	5.335111E-1	7.064502E-1	7.253015E-1	8.753145E-1	7.669817E-1	6.628324E-1	7.799102E-1	8.258414E-1	6.439982E-1	7.693253E-1	7.347761E-1	7.772500E-1	7.456587E-1	6.845873E-1	9.002279E-1	6.599011E-1
2.874020E+2	1.837902E-2	6.302572E-1	5.343178E-1	4.956817E-1	5.626061E-1	5.491811E-1	5.498582E-1	6.312952E-1	5.781632E-1	5.460522E-1	5.141468E-1	6.774763E-1	4.492847E-1	5.435513E-1	5.247537E-1	7.382447E-1	5.838605E-1	5.981568E-1	5.341006E-1	6.729158E-1	4.702942E-1	5.654874E-1	5.405571E-1	6.800517E-1	5.653941E-1	4.979237E-1	4.806117E-1	7.480196E-1	4.472412E-1	6.390255E-1	4.699482E-1	7.684761E-1	5.892822E-1	5.389298E-1	5.768441E-1	6.928101E-1	4.575959E-1	5.485902E-1	5.385368E-1	6.287825E-1	5.719322E-1	5.845954E-1	5.284177E-1	6.772236E-1	4.985160E-1	5.608457E-1	5.213085E-1	6.465929E-1	6.448447E-1	4.985161E-1	5.578033E-1	6.338764E-1	5.239413E-1	5.259442E-1	5.852117E-1	5.823002E-1	6.302187E-1	6.307841E-1	4.840868E-1	6.548437E-1	5.107664E-1	6.483262E-1	4.297066E-1	6.586803E-1	6.214383E-1	5.956975E-1	4.542300E-1	7.143195E-1	4.859846E-1	5.694605E-1	5.078603E-1	7.193994E-1	5.722223E-1	5.152177E-1	5.336829E-1	6.462703E-1	5.350496E-1	4.566658E-1	6.720284E-1	6.076979E-1	5.585387E-1	4.815590E-1	6.489987E-1	5.550529E-1	5.117052E-1	5.266654E-1	6.686387E-1	5.696902E-1	6.489434E-1	5.220121E-1	6.036753E-1	6.108598E-1	5.131802E-1	5.176479E-1	6.341134E-1	5.738540E-1	6.203563E-1	5.876184E-1	6.312679E-1	5.958263E-1	5.127018E-1	5.853264E-1	5.662855E-1	6.174453E-1	6.789241E-1	4.819943E-1	6.056270E-1	5.850871E-1	5.375147E-1	4.637003E-1	6.748662E-1	5.580027E-1	6.690572E-1	4.562143E-1	6.386861E-1	6.048007E-1	4.995173E-1	5.214878E-1	6.625930E-1	6.095666E-1	6.125030E-1	4.966741E-1	6.264742E-1	6.411631E-1	5.017201E-1	4.420694E-1	6.616656E-1	6.526790E-1	5.977339E-1	4.682934E-1	6.895668E-1	5.674647E-1	4.855974E-1	5.390916E-1	6.164962E-1	5.645809E-1	6.143284E-1	5.496207E-1	7.087022E-1	6.371375E-1	5.319019E-1	4.738494E-1	6.852629E-1	5.857921E-1	6.695159E-1	5.027282E-1	5.719171E-1	6.721374E-1	5.106552E-1	6.025263E-1	5.273571E-1	6.544110E-1	5.529188E-1	5.779012E-1	5.254588E-1	7.080584E-1	4.722782E-1	4.979421E-1	5.590067E-1	6.384382E-1	5.917673E-1	5.107768E-1	5.677742E-1	5.592018E-1	4.904364E-1	5.867364E-1	6.222587E-1	6.213389E-1	5.945573E-1	5.130141E-1	6.158571E-1	5.922239E-1
2.876150E+2	1.433442E-2	5.152966E-1	3.880506E-1	4.154750E-1	3.983578E-1	4.044219E-1	4.021664E-1	4.858876E-1	3.990163E-1	4.038826E-1	3.871155E-1	5.305492E-1	3.275542E-1	3.914456E-1	3.990867E-1	5.033108E-1	4.344618E-1	4.227157E-1	4.266375E-1	5.373261E-1	3.857157E-1	4.454497E-1	3.669980E-1	4.956509E-1	4.561931E-1	3.838877E-1	3.645847E-1	5.318491E-1	3.239471E-1	4.550873E-1	3.346207E-1	5.249392E-1	4.141471E-1	3.959136E-1	4.487785E-1	4.847052E-1	3.133964E-1	4.090194E-1	4.118738E-1	4.861400E-1	4.032614E-1	4.064659E-1	4.321549E-1	5.024343E-1	3.873581E-1	3.892551E-1	3.930966E-1	4.675774E-1	4.821788E-1	3.725271E-1	4.398764E-1	4.427781E-1	3.751726E-1	3.820370E-1	4.280192E-1	4.114127E-1	4.778622E-1	4.543557E-1	3.701454E-1	5.216513E-1	3.568764E-1	4.749638E-1	3.446842E-1	5.218410E-1	4.723965E-1	4.410438E-1	3.160932E-1	5.557052E-1	3.802045E-1	4.504494E-1	3.831634E-1	5.202156E-1	4.303156E-1	3.747172E-1	3.730900E-1	4.860691E-1	4.085559E-1	3.510841E-1	4.305586E-1	4.809407E-1	4.359026E-1	3.662245E-1	5.062822E-1	4.596485E-1	3.542696E-1	3.476686E-1	5.224034E-1	4.273500E-1	4.922314E-1	4.148478E-1	3.987043E-1	5.459295E-1	4.207681E-1	4.158801E-1	3.624224E-1	5.092426E-1	4.630913E-1	4.301759E-1	3.888285E-1	5.216467E-1	3.423834E-1	4.079470E-1	4.298530E-1	4.601506E-1	4.811310E-1	3.788549E-1	4.604853E-1	4.543227E-1	3.757936E-1	3.713947E-1	4.593681E-1	4.277019E-1	4.927643E-1	3.848930E-1	4.719268E-1	4.322463E-1	3.497426E-1	3.468593E-1	5.019304E-1	4.700393E-1	4.612288E-1	3.472180E-1	4.451268E-1	4.489271E-1	3.594255E-1	3.380512E-1	4.974663E-1	4.574119E-1	4.622296E-1	3.564628E-1	4.982027E-1	4.366193E-1	3.393749E-1	3.891510E-1	4.649848E-1	4.265633E-1	4.574074E-1	3.338511E-1	4.911130E-1	4.652938E-1	3.736976E-1	3.469375E-1	5.313746E-1	4.182391E-1	4.710509E-1	3.539080E-1	4.210580E-1	5.317296E-1	3.900490E-1	4.599535E-1	3.882084E-1	5.018007E-1	4.102345E-1	4.164380E-1	3.759386E-1	5.735406E-1	3.571915E-1	4.051126E-1	4.468224E-1	4.249173E-1	4.158634E-1	3.922574E-1	4.769830E-1	4.181047E-1	3.635774E-1	4.328970E-1	4.167095E-1	3.930144E-1	4.440548E-1	3.721355E-1	4.381483E-1	4.486400E-1
2.878030E+2	1.027480E-2	3.980878E-1	3.429461E-1	3.382654E-1	3.304193E-1	3.288586E-1	3.412467E-1	3.228181E-1	3.146072E-1	2.945522E-1	3.054105E-1	3.980909E-1	2.896264E-1	3.149729E-1	3.100109E-1	4.240478E-1	3.685108E-1	3.266025E-1	3.147001E-1	3.961323E-1	2.670963E-1	3.583061E-1	3.089734E-1	4.425980E-1	3.193721E-1	3.150257E-1	2.859953E-1	4.592582E-1	2.316264E-1	3.396120E-1	2.752622E-1	4.356811E-1	3.278571E-1	2.963881E-1	3.540024E-1	4.123275E-1	2.423833E-1	3.418320E-1	3.403972E-1	3.523456E-1	3.408585E-1	3.707899E-1	2.992417E-1	3.777549E-1	3.055965E-1	2.928529E-1	3.180113E-1	4.056035E-1	3.891151E-1	3.021088E-1	3.590919E-1	3.700157E-1	3.194390E-1	3.105828E-1	3.319650E-1	3.304854E-1	3.580807E-1	3.580082E-1	3.168470E-1	3.602924E-1	3.089884E-1	3.343438E-1	2.613036E-1	4.169010E-1	3.915300E-1	3.415530E-1	2.673565E-1	4.092772E-1	2.975551E-1	3.410862E-1	2.910932E-1	4.401481E-1	3.490417E-1	3.148341E-1	3.219426E-1	3.890561E-1	3.510594E-1	2.851732E-1	3.643114E-1	3.608963E-1	3.275408E-1	3.078629E-1	3.698670E-1	3.554875E-1	2.600458E-1	3.246772E-1	3.956016E-1	3.367634E-1	3.846676E-1	3.223384E-1	3.199820E-1	3.990053E-1	2.958871E-1	3.071987E-1	2.965146E-1	4.194516E-1	3.756889E-1	3.405878E-1	2.964208E-1	4.253730E-1	2.865590E-1	3.447591E-1	3.556429E-1	3.906958E-1	4.031656E-1	2.946484E-1	3.447754E-1	3.998274E-1	3.416377E-1	2.944378E-1	3.420547E-1	3.633444E-1	3.769110E-1	2.760745E-1	3.657391E-1	3.984376E-1	2.731780E-1	2.837084E-1	3.582232E-1	3.808861E-1	3.703495E-1	2.981732E-1	3.001813E-1	4.298448E-1	2.681653E-1	2.826363E-1	3.207187E-1	4.189694E-1	3.876541E-1	2.679449E-1	3.566242E-1	4.024144E-1	2.890230E-1	3.106549E-1	3.244345E-1	3.568354E-1	3.929617E-1	3.062848E-1	3.799966E-1	3.721358E-1	3.193636E-1	2.638309E-1	3.870900E-1	3.931358E-1	4.297809E-1	2.936832E-1	3.210479E-1	4.442605E-1	2.891309E-1	3.298092E-1	3.205263E-1	3.976640E-1	3.507951E-1	3.470208E-1	2.974151E-1	4.721246E-1	2.668063E-1	3.215975E-1	3.313791E-1	3.968366E-1	3.401364E-1	3.188009E-1	3.598324E-1	3.867411E-1	3.098218E-1	3.225654E-1	3.059578E-1	3.566611E-1	3.487860E-1	3.001643E-1	4.130859E-1	3.045944E-1
2.880020E+2	1.112532E-2	4.995365E-1	3.517400E-1	3.701351E-1	3.922705E-1	3.882074E-1	4.004881E-1	4.284897E-1	3.663352E-1	3.674449E-1	3.561173E-1	4.824297E-1	3.413386E-1	4.040639E-1	3.393650E-1	4.732917E-1	4.234220E-1	4.005514E-1	3.712505E-1	4.999540E-1	3.374672E-1	4.199648E-1	3.522966E-1	4.960138E-1	3.988624E-1	3.509535E-1	3.461252E-1	5.336227E-1	3.211633E-1	4.239023E-1	3.093147E-1	5.314624E-1	3.881373E-1	3.784387E-1	3.776391E-1	4.861166E-1	3.351692E-1	3.835118E-1	4.209232E-1	4.704811E-1	4.061698E-1	3.913267E-1	3.990042E-1	4.907424E-1	3.745152E-1	3.591297E-1	3.503108E-1	4.223633E-1	4.645910E-1	3.433166E-1	4.437247E-1	4.576336E-1	3.627544E-1	3.692452E-1	4.267456E-1	4.011298E-1	4.575214E-1	4.165754E-1	3.380077E-1	4.647553E-1	3.337047E-1	4.633211E-1	3.096658E-1	4.698809E-1	4.079720E-1	4.366266E-1	3.115063E-1	5.207283E-1	3.681786E-1	4.063007E-1	3.631819E-1	5.028652E-1	4.066156E-1	4.125067E-1	3.983453E-1	4.438116E-1	3.761151E-1	3.245870E-1	4.048968E-1	4.828139E-1	4.187102E-1	3.405405E-1	4.364155E-1	4.525449E-1	3.513600E-1	3.716293E-1	4.689072E-1	4.100682E-1	4.937085E-1	3.580442E-1	3.654925E-1	4.782668E-1	3.370822E-1	3.581993E-1	3.661333E-1	4.758820E-1	4.501125E-1	3.566393E-1	3.825021E-1	5.033713E-1	3.322369E-1	4.014390E-1	4.010554E-1	4.402040E-1	5.189860E-1	3.758246E-1	3.902100E-1	4.668523E-1	3.902664E-1	3.202504E-1	4.452463E-1	4.270038E-1	4.947182E-1	3.542059E-1	4.524420E-1	4.541724E-1	3.494238E-1	3.573250E-1	4.860370E-1	4.313941E-1	4.647174E-1	3.456291E-1	3.678566E-1	5.242165E-1	3.342015E-1	3.400048E-1	3.835150E-1	4.745498E-1	5.111281E-1	3.329334E-1	4.454752E-1	4.712249E-1	3.487474E-1	3.668645E-1	4.328116E-1	4.134997E-1	4.459745E-1	3.720770E-1	4.094266E-1	4.887009E-1	3.778466E-1	2.971079E-1	3.872129E-1	5.106333E-1	4.970658E-1	3.221899E-1	3.534249E-1	5.107806E-1	3.550512E-1	3.823006E-1	3.625617E-1	5.248514E-1	4.208948E-1	4.174063E-1	3.068723E-1	6.110734E-1	3.469897E-1	3.775318E-1	3.781634E-1	5.452004E-1	4.410030E-1	3.736229E-1	4.250496E-1	4.612830E-1	3.628908E-1	4.014815E-1	3.973908E-1	4.164517E-1	4.257400E-1	3.877305E-1	4.799685E-1	3.703686E-1
2.882210E+2	1.033508E-2	5.310194E-1	4.670190E-1	4.463069E-1	4.849403E-1	4.691489E-1	4.517123E-1	5.161729E-1	4.360606E-1	4.611226E-1	4.186189E-1	6.014638E-1	4.078688E-1	4.845111E-1	4.513745E-1	5.859834E-1	4.697464E-1	4.353384E-1	4.374898E-1	5.864696E-1	3.991975E-1	4.931022E-1	4.709501E-1	5.838219E-1	4.635513E-1	4.752255E-1	4.159780E-1	5.916612E-1	3.642946E-1	5.269339E-1	3.739433E-1	6.376552E-1	4.594051E-1	4.717969E-1	4.879590E-1	6.498656E-1	3.742018E-1	4.825558E-1	5.106570E-1	5.455128E-1	4.324611E-1	4.767701E-1	4.750184E-1	5.564341E-1	4.317816E-1	4.609186E-1	4.274401E-1	5.426699E-1	5.548083E-1	4.439995E-1	5.076017E-1	5.152532E-1	4.214060E-1	4.349997E-1	5.039139E-1	5.140711E-1	5.607093E-1	5.180953E-1	4.327525E-1	5.623472E-1	4.427781E-1	5.456414E-1	4.157052E-1	5.721670E-1	5.362472E-1	5.221640E-1	3.954682E-1	6.730016E-1	4.339342E-1	5.066603E-1	4.029075E-1	6.035156E-1	5.179684E-1	4.747218E-1	4.802212E-1	5.584821E-1	4.359451E-1	3.835502E-1	5.249734E-1	5.844197E-1	4.979162E-1	4.488404E-1	5.903335E-1	4.916272E-1	4.405971E-1	4.356906E-1	5.469126E-1	4.873428E-1	5.236219E-1	4.429391E-1	4.525317E-1	6.147477E-1	4.219820E-1	4.599214E-1	4.481026E-1	5.973086E-1	5.411501E-1	4.760880E-1	4.777947E-1	6.017963E-1	4.239875E-1	5.069689E-1	4.732701E-1	5.375134E-1	5.804688E-1	4.400910E-1	4.886499E-1	5.772455E-1	4.930539E-1	4.053344E-1	5.390317E-1	4.732413E-1	5.658926E-1	3.835015E-1	5.857857E-1	5.676014E-1	4.276069E-1	4.224146E-1	5.749310E-1	5.479487E-1	5.620859E-1	4.074007E-1	4.443019E-1	6.548132E-1	4.236890E-1	4.147059E-1	4.829694E-1	6.146731E-1	5.167249E-1	3.816931E-1	5.032657E-1	6.100467E-1	3.985635E-1	4.402927E-1	5.285675E-1	4.758892E-1	5.803246E-1	4.534077E-1	5.122337E-1	5.949505E-1	4.419953E-1	3.996782E-1	4.901890E-1	6.199040E-1	5.635295E-1	4.196682E-1	4.260153E-1	6.508626E-1	4.265059E-1	4.667228E-1	4.528924E-1	6.528433E-1	4.920940E-1	5.157624E-1	3.904443E-1	6.946142E-1	4.245372E-1	4.704500E-1	4.119958E-1	6.366303E-1	5.181829E-1	4.911200E-1	4.939016E-1	5.689307E-1	4.532335E-1	4.748390E-1	5.103880E-1	5.140665E-1	4.929584E-1	4.696569E-1	4.441747E-1	5.846225E-1
2.884160E+2	1.201752E-2	6.485771E-1	5.206951E-1	5.390311E-1	5.652636E-1	5.505625E-1	5.492062E-1	6.404312E-1	5.574339E-1	5.341437E-1	5.444672E-1	6.924214E-1	4.775533E-1	5.745792E-1	5.140636E-1	7.322399E-1	5.847364E-1	5.567978E-1	5.122046E-1	6.960355E-1	4.633634E-1	5.779118E-1	5.118581E-1	6.825694E-1	5.977587E-1	5.139051E-1	4.736789E-1	7.187704E-1	4.328690E-1	6.062865E-1	4.483411E-1	7.411154E-1	5.854228E-1	5.328771E-1	5.462381E-1	6.865905E-1	4.544263E-1	5.841960E-1	5.663382E-1	6.706541E-1	5.280813E-1	5.671980E-1	5.471680E-1	7.108261E-1	5.081547E-1	5.029600E-1	5.491782E-1	6.801457E-1	6.287012E-1	5.319589E-1	5.791959E-1	6.392670E-1	5.253494E-1	5.250450E-1	6.315850E-1	5.915343E-1	6.366382E-1	6.209883E-1	5.210331E-1	6.908323E-1	4.996819E-1	6.284291E-1	4.739909E-1	7.051546E-1	6.365945E-1	6.322608E-1	4.532466E-1	7.185425E-1	5.082330E-1	5.748851E-1	5.105526E-1	7.047319E-1	6.096017E-1	5.511031E-1	5.304625E-1	6.546925E-1	5.486337E-1	5.056826E-1	5.628831E-1	6.722122E-1	5.296083E-1	5.278285E-1	6.548195E-1	5.914741E-1	5.094449E-1	5.310403E-1	6.753708E-1	5.948140E-1	6.150901E-1	5.297934E-1	4.908813E-1	6.977662E-1	5.013939E-1	5.330115E-1	5.262766E-1	7.196524E-1	5.894758E-1	5.720488E-1	5.493527E-1	6.838027E-1	4.885535E-1	5.700158E-1	5.206111E-1	5.794939E-1	7.044906E-1	4.911990E-1	5.705620E-1	6.418230E-1	5.253892E-1	4.804616E-1	6.570051E-1	6.110218E-1	6.822617E-1	4.646396E-1	6.906685E-1	6.212447E-1	5.147847E-1	5.431691E-1	6.262578E-1	6.286050E-1	6.417645E-1	5.238989E-1	5.387431E-1	7.521678E-1	5.206631E-1	4.899485E-1	5.498673E-1	7.361167E-1	5.651826E-1	4.481224E-1	5.894266E-1	6.919026E-1	4.604433E-1	5.623510E-1	6.146489E-1	6.031490E-1	6.109516E-1	4.844952E-1	6.210346E-1	6.772938E-1	5.445292E-1	4.264952E-1	5.912976E-1	6.655831E-1	6.586671E-1	5.130325E-1	4.970169E-1	7.637321E-1	4.909021E-1	5.463745E-1	5.064590E-1	7.807987E-1	5.777762E-1	6.486416E-1	4.572846E-1	8.121049E-1	5.109536E-1	5.548901E-1	4.899504E-1	7.159659E-1	6.425529E-1	5.071082E-1	5.812144E-1	6.397120E-1	5.055383E-1	6.086425E-1	5.829458E-1	5.797308E-1	6.077518E-1	5.532696E-1	6.207768E-1	6.473669E-1
2.886030E+2	1.701659E-2	7.761087E-1	6.994717E-1	6.278025E-1	6.839791E-1	6.439321E-1	6.728119E-1	7.379858E-1	6.389725E-1	6.524255E-1	5.763870E-1	8.399799E-1	5.942738E-1	6.803009E-1	6.202218E-1	8.942725E-1	7.561349E-1	6.912309E-1	6.347218E-1	8.693969E-1	5.612840E-1	6.731272E-1	6.022284E-1	8.150135E-1	6.901360E-1	6.531651E-1	5.677406E-1	8.432055E-1	5.231292E-1	7.060707E-1	5.220716E-1	8.906790E-1	6.491981E-1	6.528203E-1	6.519678E-1	8.738247E-1	5.021825E-1	6.790090E-1	7.345940E-1	7.813578E-1	6.533702E-1	6.476372E-1	5.961746E-1	7.953699E-1	6.174894E-1	6.309979E-1	6.179123E-1	7.815849E-1	7.425566E-1	5.643777E-1	6.870929E-1	8.269852E-1	6.245316E-1	6.142872E-1	7.490403E-1	7.113554E-1	7.687342E-1	6.798393E-1	5.471601E-1	7.700256E-1	5.788355E-1	7.797686E-1	5.455789E-1	8.076822E-1	7.282824E-1	7.029820E-1	5.322725E-1	8.721000E-1	5.680410E-1	6.926516E-1	6.155337E-1	7.947751E-1	6.935123E-1	6.047591E-1	6.629344E-1	7.073157E-1	6.603100E-1	5.628579E-1	6.895453E-1	7.522063E-1	7.132981E-1	5.692334E-1	7.792663E-1	7.030414E-1	6.030573E-1	5.959505E-1	7.766780E-1	6.552402E-1	7.279778E-1	6.404363E-1	6.007840E-1	8.598377E-1	5.992325E-1	6.111546E-1	6.243961E-1	8.199658E-1	7.309172E-1	6.300935E-1	6.565520E-1	8.663519E-1	5.937229E-1	6.387100E-1	6.561587E-1	7.250813E-1	7.695196E-1	5.948564E-1	6.940790E-1	7.595618E-1	6.115860E-1	5.845246E-1	7.549529E-1	7.257862E-1	7.956752E-1	5.520874E-1	7.863346E-1	7.491252E-1	5.931796E-1	5.996003E-1	7.774249E-1	7.546495E-1	7.985388E-1	6.224383E-1	6.394033E-1	8.703240E-1	5.655729E-1	5.536405E-1	6.701208E-1	8.652326E-1	7.467197E-1	5.706340E-1	7.210835E-1	7.698579E-1	5.769510E-1	6.335002E-1	7.248479E-1	7.226242E-1	7.798189E-1	5.667198E-1	6.595621E-1	8.146248E-1	6.278155E-1	5.813263E-1	6.488899E-1	7.704522E-1	8.091962E-1	6.037692E-1	6.161908E-1	8.889533E-1	5.948575E-1	6.645607E-1	5.831343E-1	8.756787E-1	6.912794E-1	7.446823E-1	5.205759E-1	9.276362E-1	5.948748E-1	6.459969E-1	5.713897E-1	8.740020E-1	7.338931E-1	6.363594E-1	6.804509E-1	7.923484E-1	5.844496E-1	6.646804E-1	6.911887E-1	6.997098E-1	7.382398E-1	6.337277E-1	6.225788E-1	7.140094E-1
2.888210E+2	2.288805E-2	9.087921E-1	7.965423E-1	7.936907E-1	7.940970E-1	8.151133E-1	8.157403E-1	8.879445E-1	7.697465E-1	7.415444E-1	6.968138E-1	9.837750E-1	7.183916E-1	7.867142E-1	7.180925E-1	9.846884E-1	9.120002E-1	7.742975E-1	7.458773E-1	1.002111E+0	7.194592E-1	8.337201E-1	7.417271E-1	9.713859E-1	8.329958E-1	7.706554E-1	7.343115E-1	1.033294E+0	6.563513E-1	8.794431E-1	6.516666E-1	1.081670E+0	8.354675E-1	7.615298E-1	8.297344E-1	9.591982E-1	6.092939E-1	8.064847E-1	8.416658E-1	9.507751E-1	7.978971E-1	8.363518E-1	7.474941E-1	9.697399E-1	7.393437E-1	7.412881E-1	7.397043E-1	8.845749E-1	9.021536E-1	7.093143E-1	9.138417E-1	8.612255E-1	7.645587E-1	7.397046E-1	8.445028E-1	8.009252E-1	9.055919E-1	8.925663E-1	7.110171E-1	9.640587E-1	6.569035E-1	9.438127E-1	6.501918E-1	9.853876E-1	8.622256E-1	8.949697E-1	6.364668E-1	1.041749E+0	7.187611E-1	8.543258E-1	7.588365E-1	9.894387E-1	8.857039E-1	7.495555E-1	7.909107E-1	9.289373E-1	8.187935E-1	6.942070E-1	7.958561E-1	8.864632E-1	7.918169E-1	7.067311E-1	9.322402E-1	8.401821E-1	7.244892E-1	6.858697E-1	9.162204E-1	8.212788E-1	9.025207E-1	7.806073E-1	7.048040E-1	1.063008E+0	7.171781E-1	7.768327E-1	7.751258E-1	9.813745E-1	8.753963E-1	7.857564E-1	7.348733E-1	9.665779E-1	6.948719E-1	8.185169E-1	7.974480E-1	9.018431E-1	9.916242E-1	7.162360E-1	7.768101E-1	8.742224E-1	7.691624E-1	7.348285E-1	9.165742E-1	8.731371E-1	9.694522E-1	6.924630E-1	9.256770E-1	8.960640E-1	6.997258E-1	7.172934E-1	8.939618E-1	8.926035E-1	8.972880E-1	7.130573E-1	7.553486E-1	1.045160E+0	6.912080E-1	6.462242E-1	8.366608E-1	9.549136E-1	9.118148E-1	6.734572E-1	8.607977E-1	9.251135E-1	6.990733E-1	7.397162E-1	8.584314E-1	8.824493E-1	9.611253E-1	7.133586E-1	8.450572E-1	9.409820E-1	7.288161E-1	6.626498E-1	7.876905E-1	9.357377E-1	9.016868E-1	7.050125E-1	7.331658E-1	1.112718E+0	7.013521E-1	8.344710E-1	7.266710E-1	9.996594E-1	7.989537E-1	8.750863E-1	6.701126E-1	1.137905E+0	7.090389E-1	7.794754E-1	7.173087E-1	1.074225E+0	8.639606E-1	7.744569E-1	8.357710E-1	8.800101E-1	7.120828E-1	7.987894E-1	8.273224E-1	8.591941E-1	7.801928E-1	7.820690E-1	8.172255E-1	8.937009E-1
2.890190E+2	1.130732E-2	8.507126E-1	6.866395E-1	6.650018E-1	7.216067E-1	7.151176E-1	7.022165E-1	7.908038E-1	7.095087E-1	7.334907E-1	6.005798E-1	8.664155E-1	6.489799E-1	7.771831E-1	6.794528E-1	7.741308E-1	8.561589E-1	7.284783E-1	7.121805E-1	7.916286E-1	6.877304E-1	7.843518E-1	6.482926E-1	8.591915E-1	7.745204E-1	6.926505E-1	6.578147E-1	9.574943E-1	6.068967E-1	7.974113E-1	5.615261E-1	8.035615E-1	8.941347E-1	7.228792E-1	7.149535E-1	8.485680E-1	6.241720E-1	7.503023E-1	7.363104E-1	8.375428E-1	7.574711E-1	7.308919E-1	7.200038E-1	8.401276E-1	6.636199E-1	7.025328E-1	6.696237E-1	7.598853E-1	9.371582E-1	6.409772E-1	7.916092E-1	7.996380E-1	7.170821E-1	6.680176E-1	7.620191E-1	7.095499E-1	8.361686E-1	7.745884E-1	6.230639E-1	7.851564E-1	6.525595E-1	7.728252E-1	5.786743E-1	8.319664E-1	8.546084E-1	7.818642E-1	5.681434E-1	8.948983E-1	6.896489E-1	7.532725E-1	6.597296E-1	8.779441E-1	7.204700E-1	7.221801E-1	6.929980E-1	8.562020E-1	7.428037E-1	6.220166E-1	7.411064E-1	8.513252E-1	7.226217E-1	6.566544E-1	8.560140E-1	7.928924E-1	6.378935E-1	6.725661E-1	8.158275E-1	7.107695E-1	8.411022E-1	6.818169E-1	6.606387E-1	9.120588E-1	6.233824E-1	7.094949E-1	6.700021E-1	9.029439E-1	8.294857E-1	7.285522E-1	6.985117E-1	8.795805E-1	6.378704E-1	7.359600E-1	7.582175E-1	8.357509E-1	8.740102E-1	6.394297E-1	7.275601E-1	8.572686E-1	7.496509E-1	6.502944E-1	8.290537E-1	7.854884E-1	8.841020E-1	6.237385E-1	8.016034E-1	8.090213E-1	6.958677E-1	6.466902E-1	7.791468E-1	7.548674E-1	8.127867E-1	6.433411E-1	6.923187E-1	1.009350E+0	6.179294E-1	6.116967E-1	7.327630E-1	9.510706E-1	8.174170E-1	6.437160E-1	7.621543E-1	8.793540E-1	6.314552E-1	6.526776E-1	7.783197E-1	7.678418E-1	8.001943E-1	6.491609E-1	7.558702E-1	8.793205E-1	7.082688E-1	6.215303E-1	7.554074E-1	8.559109E-1	8.636713E-1	6.924391E-1	6.927620E-1	9.868757E-1	6.340576E-1	7.484754E-1	6.808703E-1	8.976870E-1	7.582238E-1	7.521939E-1	5.749753E-1	9.851285E-1	6.600022E-1	6.176814E-1	6.547257E-1	9.809472E-1	8.428712E-1	6.878281E-1	6.999028E-1	8.768903E-1	6.200703E-1	7.743138E-1	7.201011E-1	7.797709E-1	7.341388E-1	6.529646E-1	7.450255E-1	9.327980E-1
2.892040E+2	1.134796E-2	6.402236E-1	5.158547E-1	5.155575E-1	5.083147E-1	5.418997E-1	5.301343E-1	5.798806E-1	5.281406E-1	4.884160E-1	4.647198E-1	5.876612E-1	4.824442E-1	5.372979E-1	5.038085E-1	5.932694E-1	6.678435E-1	5.126951E-1	5.326831E-1	5.813778E-1	5.186259E-1	5.568072E-1	4.775098E-1	6.617345E-1	5.304087E-1	5.027440E-1	4.864470E-1	6.573196E-1	5.061222E-1	6.474322E-1	4.560453E-1	6.517443E-1	6.559950E-1	5.759619E-1	5.558198E-1	6.436138E-1	4.735009E-1	5.414060E-1	5.622923E-1	6.057024E-1	5.201692E-1	5.121225E-1	5.158980E-1	5.995799E-1	5.273054E-1	4.864133E-1	5.397880E-1	5.609307E-1	6.890457E-1	4.817170E-1	5.840608E-1	5.434502E-1	5.645558E-1	5.000928E-1	5.464208E-1	5.613428E-1	6.360414E-1	5.884946E-1	5.171806E-1	6.129982E-1	5.252005E-1	6.357291E-1	4.349758E-1	5.677491E-1	6.415139E-1	6.301749E-1	4.254506E-1	5.981667E-1	5.597753E-1	5.650136E-1	5.052272E-1	6.591256E-1	5.678947E-1	5.221721E-1	5.063192E-1	5.512274E-1	6.194469E-1	4.358302E-1	5.650025E-1	5.036796E-1	6.589230E-1	4.858276E-1	6.494817E-1	4.486822E-1	5.837489E-1	4.990397E-1	6.187158E-1	5.268059E-1	6.995219E-1	5.300214E-1	4.975805E-1	6.176684E-1	4.952672E-1	5.036265E-1	5.188911E-1	6.059462E-1	6.297581E-1	5.279507E-1	5.669487E-1	6.246921E-1	5.231790E-1	5.327728E-1	5.127892E-1	5.852576E-1	6.911493E-1	4.833752E-1	5.266830E-1	6.287645E-1	5.301194E-1	4.768934E-1	6.402434E-1	5.837899E-1	6.963738E-1	4.328601E-1	6.567005E-1	6.119637E-1	5.241558E-1	4.795746E-1	6.602206E-1	5.601895E-1	5.964925E-1	5.009184E-1	5.110742E-1	6.802796E-1	5.035595E-1	4.685421E-1	5.399572E-1	6.736552E-1	5.794914E-1	4.454471E-1	5.968773E-1	6.167676E-1	4.713791E-1	4.941904E-1	6.171221E-1	5.517041E-1	6.004728E-1	4.743480E-1	5.603821E-1	6.351771E-1	5.071067E-1	4.435142E-1	5.647080E-1	6.522764E-1	6.376256E-1	5.033233E-1	5.148713E-1	7.257332E-1	4.466628E-1	5.471052E-1	5.039216E-1	7.100279E-1	5.494082E-1	5.474665E-1	4.279645E-1	7.408672E-1	4.922785E-1	5.365814E-1	4.990399E-1	7.182857E-1	5.746060E-1	5.269325E-1	5.239509E-1	6.283449E-1	4.835551E-1	5.207045E-1	5.467700E-1	5.723147E-1	5.880741E-1	5.461902E-1	5.431558E-1	6.810988E-1
2.894050E+2	9.705414E-3	5.190512E-1	4.250118E-1	4.291792E-1	4.596039E-1	4.688261E-1	4.299841E-1	5.202610E-1	4.531367E-1	4.369118E-1	3.589663E-1	5.297161E-1	4.377245E-1	4.400211E-1	4.029078E-1	4.927353E-1	5.242766E-1	4.744803E-1	4.723298E-1	4.841396E-1	4.541339E-1	4.713195E-1	4.188293E-1	5.582342E-1	4.838037E-1	4.522121E-1	4.112031E-1	5.693922E-1	3.557488E-1	5.079647E-1	3.661241E-1	5.098549E-1	5.691763E-1	4.506600E-1	4.400700E-1	5.514885E-1	3.905761E-1	4.194684E-1	4.597146E-1	5.192055E-1	4.413295E-1	4.504513E-1	4.482002E-1	5.112211E-1	4.206680E-1	4.201409E-1	3.988613E-1	4.390015E-1	5.690167E-1	4.019304E-1	4.592176E-1	4.653195E-1	4.805889E-1	4.243408E-1	5.175726E-1	4.607474E-1	4.987515E-1	4.825501E-1	3.865284E-1	4.599247E-1	4.346641E-1	4.984750E-1	3.582452E-1	4.618649E-1	5.932713E-1	4.612847E-1	3.173717E-1	5.261462E-1	4.362643E-1	5.158780E-1	3.936278E-1	5.351262E-1	4.856964E-1	4.674002E-1	4.326772E-1	4.835648E-1	5.432317E-1	3.709214E-1	4.896614E-1	4.042315E-1	5.696631E-1	3.876641E-1	4.850555E-1	4.038618E-1	4.932416E-1	3.938563E-1	5.441854E-1	4.223609E-1	5.468813E-1	4.009539E-1	4.092380E-1	5.381673E-1	4.627150E-1	4.241356E-1	4.046154E-1	4.863489E-1	6.074913E-1	4.472038E-1	4.700651E-1	4.914152E-1	4.800784E-1	4.389215E-1	4.437672E-1	4.667566E-1	5.752715E-1	4.049988E-1	4.475833E-1	4.512557E-1	5.142183E-1	3.988515E-1	5.149199E-1	3.943347E-1	6.630525E-1	3.753968E-1	5.216014E-1	4.689411E-1	4.741843E-1	4.193850E-1	5.649514E-1	4.732200E-1	5.484282E-1	3.974179E-1	4.331111E-1	5.805731E-1	3.896959E-1	3.839865E-1	4.607119E-1	5.350293E-1	5.566416E-1	3.700059E-1	4.957706E-1	4.904027E-1	4.240912E-1	4.274326E-1	4.981612E-1	4.355797E-1	5.361724E-1	4.271029E-1	4.917866E-1	5.161633E-1	4.475389E-1	3.859378E-1	4.833670E-1	5.608703E-1	5.559741E-1	3.951570E-1	4.146016E-1	5.991020E-1	4.059050E-1	4.220662E-1	4.422086E-1	5.514618E-1	4.837071E-1	5.188595E-1	3.497372E-1	5.774759E-1	4.199092E-1	4.128563E-1	4.196147E-1	6.049473E-1	5.218183E-1	4.223329E-1	4.474247E-1	5.733923E-1	4.271728E-1	4.887387E-1	4.308790E-1	4.709730E-1	4.846495E-1	4.384026E-1	4.565067E-1	5.259251E-1
2.896150E+2	1.811296E-2	5.743242E-1	4.964947E-1	4.861954E-1	4.762942E-1	5.281903E-1	4.754148E-1	5.558519E-1	4.912937E-1	4.670857E-1	4.319547E-1	5.742980E-1	4.708421E-1	5.242885E-1	4.678886E-1	5.235146E-1	5.995314E-1	4.984405E-1	4.790892E-1	5.463218E-1	4.907623E-1	5.168288E-1	4.321981E-1	5.884373E-1	5.028530E-1	5.075814E-1	4.207100E-1	5.959983E-1	4.195625E-1	5.294891E-1	4.078964E-1	5.944729E-1	5.949197E-1	4.496006E-1	5.354820E-1	5.175146E-1	4.594932E-1	5.081912E-1	5.106962E-1	5.229311E-1	5.038771E-1	5.323848E-1	5.215265E-1	5.398215E-1	4.708991E-1	4.676286E-1	4.894440E-1	4.770350E-1	6.379849E-1	4.365006E-1	5.386303E-1	5.311997E-1	4.880086E-1	4.560968E-1	5.455629E-1	4.911839E-1	5.949695E-1	5.631545E-1	4.455214E-1	5.266679E-1	4.689358E-1	5.471709E-1	4.137479E-1	5.579306E-1	6.002883E-1	5.266153E-1	4.039261E-1	5.562145E-1	5.267068E-1	5.436671E-1	4.503760E-1	5.943517E-1	4.918232E-1	4.825715E-1	4.538674E-1	5.076342E-1	5.634956E-1	4.503699E-1	5.459222E-1	5.132970E-1	6.467830E-1	4.463443E-1	6.236105E-1	4.643001E-1	5.248269E-1	4.542696E-1	5.888755E-1	4.627143E-1	6.375466E-1	5.057129E-1	4.313352E-1	5.483577E-1	5.107870E-1	4.709663E-1	4.924931E-1	5.378283E-1	6.050402E-1	5.167441E-1	4.715194E-1	5.563682E-1	5.054736E-1	5.041298E-1	4.712939E-1	5.215449E-1	6.139397E-1	4.054535E-1	5.150306E-1	4.844469E-1	5.734954E-1	4.136084E-1	5.259819E-1	4.544117E-1	7.134584E-1	4.410518E-1	5.388295E-1	4.790938E-1	5.263456E-1	4.312770E-1	5.650883E-1	5.193211E-1	6.156014E-1	4.607129E-1	4.915681E-1	6.333016E-1	4.707802E-1	4.001954E-1	5.278673E-1	5.313533E-1	6.799790E-1	4.237838E-1	5.450144E-1	5.224576E-1	5.055439E-1	4.682878E-1	5.868506E-1	4.943253E-1	5.561401E-1	4.047686E-1	5.290368E-1	5.249287E-1	5.128689E-1	4.199598E-1	5.451880E-1	5.195434E-1	7.337754E-1	4.303601E-1	4.529604E-1	6.242116E-1	4.921352E-1	5.239964E-1	4.826762E-1	6.864530E-1	5.152393E-1	5.283383E-1	3.840886E-1	6.696112E-1	4.645200E-1	4.844949E-1	4.611544E-1	6.354692E-1	6.025148E-1	4.768519E-1	4.961578E-1	5.775423E-1	4.579572E-1	5.124959E-1	5.477455E-1	5.210629E-1	5.282982E-1	4.434120E-1	5.552829E-1	4.979557E-1
2.898030E+2	9.763662E-3	5.824060E-1	5.292590E-1	4.990097E-1	5.256094E-1	5.107614E-1	5.064409E-1	5.722279E-1	4.674680E-1	5.100566E-1	4.711516E-1	6.287290E-1	4.735540E-1	5.189916E-1	5.045394E-1	5.818772E-1	6.231883E-1	5.143835E-1	4.720438E-1	5.675666E-1	5.076791E-1	5.174398E-1	4.750665E-1	6.172610E-1	5.840452E-1	4.802516E-1	4.661286E-1	6.463714E-1	4.403111E-1	5.443081E-1	4.324587E-1	5.845551E-1	5.814257E-1	5.229462E-1	5.186760E-1	5.726651E-1	4.531179E-1	5.150905E-1	5.362617E-1	5.892206E-1	5.362736E-1	5.174707E-1	4.819573E-1	5.556239E-1	5.136197E-1	4.709536E-1	5.075837E-1	5.307317E-1	6.691930E-1	4.833523E-1	5.504183E-1	5.546358E-1	5.047671E-1	4.824103E-1	5.913853E-1	5.304838E-1	6.180650E-1	5.653002E-1	4.438115E-1	5.612140E-1	4.485274E-1	5.694758E-1	3.998635E-1	5.352605E-1	6.215536E-1	5.819922E-1	3.923576E-1	6.167004E-1	5.387060E-1	5.760722E-1	4.421778E-1	6.247943E-1	5.893563E-1	5.220177E-1	4.930137E-1	5.569444E-1	5.466109E-1	4.577331E-1	5.328915E-1	4.990260E-1	6.373239E-1	4.977573E-1	6.112345E-1	4.287773E-1	5.416643E-1	4.823809E-1	5.822825E-1	4.396466E-1	6.527934E-1	5.037604E-1	4.761499E-1	5.789635E-1	5.252244E-1	4.987172E-1	4.946218E-1	5.365568E-1	6.663774E-1	5.207209E-1	4.927634E-1	5.562140E-1	5.342132E-1	5.107235E-1	5.519700E-1	6.091769E-1	6.218280E-1	4.790863E-1	5.476943E-1	5.334908E-1	5.388391E-1	4.526955E-1	5.757463E-1	4.850622E-1	7.514106E-1	4.237955E-1	6.092643E-1	4.940605E-1	5.206485E-1	4.834374E-1	5.963746E-1	5.444017E-1	6.040912E-1	4.491123E-1	5.080560E-1	6.115478E-1	5.140888E-1	4.454409E-1	5.012564E-1	5.297362E-1	7.583505E-1	4.214777E-1	5.940399E-1	5.300279E-1	5.355096E-1	4.974239E-1	5.945575E-1	5.206709E-1	6.068156E-1	4.777763E-1	5.243744E-1	5.536545E-1	5.576156E-1	4.487273E-1	5.312210E-1	5.237452E-1	7.083637E-1	5.096340E-1	5.108970E-1	6.288879E-1	5.130004E-1	5.169533E-1	4.773402E-1	6.584926E-1	5.624049E-1	6.061078E-1	4.083337E-1	6.015367E-1	5.755594E-1	5.137658E-1	4.677251E-1	6.205250E-1	6.958256E-1	5.199495E-1	5.157003E-1	5.823355E-1	5.129870E-1	5.236649E-1	4.988151E-1	5.601191E-1	5.711125E-1	4.817433E-1	5.749659E-1	4.878158E-1
2.900050E+2	1.655882E-1	5.563612E-1	4.359452E-1	4.504558E-1	4.645491E-1	5.126346E-1	4.953028E-1	5.457420E-1	4.608828E-1	5.000999E-1	4.579081E-1	5.322596E-1	4.537261E-1	5.036630E-1	4.485299E-1	5.282761E-1	5.875629E-1	4.545007E-1	4.621125E-1	5.413602E-1	5.176891E-1	5.014719E-1	4.731131E-1	5.416996E-1	5.301591E-1	4.755154E-1	4.692900E-1	5.663825E-1	4.429345E-1	5.118056E-1	4.101992E-1	5.303879E-1	5.491088E-1	4.906829E-1	5.287543E-1	5.377275E-1	4.572613E-1	4.990197E-1	5.314069E-1	5.679765E-1	5.186994E-1	5.372146E-1	4.787740E-1	5.141228E-1	4.516929E-1	4.770291E-1	4.565961E-1	5.134276E-1	5.441371E-1	4.531371E-1	5.480801E-1	5.196059E-1	4.771241E-1	4.606265E-1	5.409367E-1	5.325917E-1	5.317048E-1	5.151213E-1	4.226660E-1	5.107158E-1	5.054312E-1	5.571943E-1	4.079622E-1	5.039942E-1	5.770002E-1	5.383910E-1	4.275357E-1	5.660314E-1	5.500841E-1	5.167829E-1	4.528604E-1	5.313227E-1	5.432886E-1	4.566840E-1	4.845871E-1	5.140803E-1	5.140587E-1	4.666176E-1	5.130206E-1	4.881412E-1	6.004672E-1	4.952824E-1	5.259662E-1	4.628234E-1	4.981400E-1	4.641724E-1	5.238128E-1	4.612008E-1	5.655176E-1	4.605466E-1	4.679409E-1	5.129702E-1	5.035269E-1	4.918630E-1	4.516274E-1	5.433044E-1	6.218109E-1	5.067738E-1	4.957457E-1	5.304076E-1	4.913504E-1	4.900846E-1	5.082114E-1	5.417049E-1	6.185398E-1	4.685667E-1	4.597032E-1	5.014319E-1	5.159568E-1	4.437306E-1	5.412486E-1	4.584139E-1	6.289601E-1	4.627656E-1	5.896960E-1	5.087654E-1	5.074126E-1	4.633939E-1	5.774027E-1	5.023479E-1	5.539893E-1	4.744931E-1	4.669559E-1	5.742353E-1	4.446106E-1	4.122516E-1	4.652142E-1	5.032539E-1	5.985381E-1	4.509965E-1	5.267874E-1	4.769558E-1	4.938474E-1	4.938022E-1	5.319578E-1	4.910149E-1	5.511818E-1	4.284304E-1	5.022684E-1	5.218639E-1	4.946469E-1	4.793432E-1	4.848132E-1	5.059027E-1	6.151795E-1	5.132214E-1	4.520234E-1	5.732235E-1	4.856258E-1	4.792798E-1	4.957296E-1	6.018441E-1	5.008540E-1	5.264021E-1	4.073669E-1	6.020737E-1	4.853558E-1	4.558315E-1	4.577666E-1	5.540275E-1	6.353695E-1	4.708572E-1	4.695100E-1	5.048496E-1	4.865515E-1	4.957692E-1	5.132718E-1	5.006442E-1	5.075506E-1	4.742436E-1	5.418844E-1	4.821417E-1
2.905120E+2	4.623031E-1	5.207098E-1	4.761094E-1	4.448634E-1	5.054535E-1	4.717111E-1	4.650402E-1	4.527529E-1	4.581548E-1	4.490250E-1	4.316133E-1	4.392704E-1	4.605838E-1	4.843957E-1	4.714002E-1	4.891027E-1	4.663403E-1	4.904548E-1	4.876822E-1	4.446970E-1	4.856159E-1	4.496340E-1	4.526354E-1	4.504168E-1	4.426820E-1	4.304339E-1	4.552586E-1	4.284603E-1	4.762994E-1	4.575080E-1	4.573331E-1	4.433191E-1	4.616905E-1	4.868213E-1	4.739895E-1	4.623476E-1	4.798031E-1	4.745693E-1	4.695780E-1	4.932530E-1	4.448291E-1	4.728732E-1	4.970237E-1	4.523596E-1	5.172753E-1	4.345349E-1	4.696769E-1	4.538296E-1	4.347178E-1	5.062077E-1	4.715227E-1	4.336074E-1	4.868513E-1	4.268546E-1	4.105967E-1	4.818038E-1	4.461050E-1	4.889471E-1	4.649301E-1	4.771557E-1	4.423712E-1	4.428613E-1	4.609635E-1	4.791702E-1	4.710198E-1	4.845145E-1	4.528914E-1	4.440493E-1	4.742811E-1	4.747684E-1	4.953821E-1	4.744783E-1	4.614121E-1	5.026361E-1	4.589094E-1	4.350284E-1	5.120767E-1	4.954757E-1	4.431441E-1	4.658797E-1	4.538880E-1	4.337745E-1	4.308696E-1	4.923545E-1	4.890743E-1	4.632767E-1	4.692719E-1	4.592252E-1	4.464599E-1	4.369528E-1	4.817973E-1	4.342705E-1	4.661977E-1	4.307726E-1	4.762426E-1	4.879087E-1	4.332845E-1	4.524882E-1	4.522939E-1	4.658314E-1	4.630517E-1	4.555503E-1	4.845279E-1	4.400035E-1	5.399673E-1	4.544317E-1	4.380795E-1	4.634428E-1	4.139512E-1	4.675783E-1	4.614835E-1	4.548680E-1	4.112479E-1	4.656567E-1	4.953828E-1	4.469842E-1	4.608834E-1	4.555967E-1	4.818506E-1	4.557014E-1	4.624094E-1	4.431256E-1	4.403716E-1	5.244896E-1	4.586352E-1	4.773136E-1	4.693335E-1	4.928966E-1	4.825437E-1	4.995025E-1	4.398077E-1	4.322019E-1	4.552612E-1	4.681381E-1	4.323585E-1	5.205658E-1	5.118069E-1	4.319590E-1	4.569192E-1	4.546656E-1	4.626313E-1	4.730362E-1	4.521946E-1	5.013139E-1	4.817793E-1	4.678065E-1	4.598206E-1	4.308662E-1	5.025108E-1	4.432424E-1	4.746267E-1	4.762201E-1	4.852260E-1	4.921660E-1	4.768471E-1	4.421283E-1	4.605405E-1	4.808058E-1	4.624148E-1	5.068442E-1	4.514952E-1	4.824427E-1	4.646431E-1	4.901393E-1	4.774428E-1	4.551628E-1	4.838279E-1	4.601431E-1	4.573773E-1	4.967154E-1	4.689188E-1	4.971923E-1
2.910060E+2	6.107726E-1	5.999646E-1	6.185629E-1	5.942718E-1	6.170342E-1	5.536063E-1	6.097942E-1	5.789659E-1	5.772853E-1	5.916470E-1	5.731021E-1	5.947035E-1	6.164146E-1	5.892571E-1	5.944760E-1	6.211927E-1	5.823890E-1	5.547681E-1	5.716829E-1	6.488726E-1	6.104162E-1	5.741438E-1	5.775633E-1	5.678665E-1	5.645526E-1	6.209603E-1	6.132633E-1	5.466002E-1	5.665996E-1	5.896321E-1	5.846809E-1	6.197274E-1	5.668430E-1	6.119897E-1	5.977036E-1	5.811372E-1	6.089000E-1	6.122289E-1	5.952697E-1	5.878111E-1	6.109322E-1	5.806414E-1	6.326123E-1	5.754465E-1	6.104122E-1	5.994206E-1	5.928831E-1	6.157314E-1	5.917801E-1	5.934494E-1	5.700311E-1	5.934149E-1	5.599445E-1	5.555097E-1	6.098312E-1	5.659758E-1	5.914597E-1	6.101489E-1	5.856452E-1	6.040634E-1	5.958234E-1	5.725685E-1	5.833996E-1	5.957338E-1	5.801440E-1	6.199235E-1	5.973226E-1	5.857470E-1	6.253955E-1	5.663944E-1	5.898330E-1	5.762403E-1	5.862043E-1	5.718468E-1	5.572552E-1	5.792901E-1	5.991584E-1	5.987286E-1	5.879555E-1	5.222380E-1	5.757907E-1	6.036109E-1	6.260641E-1	5.387619E-1	6.293515E-1	5.606557E-1	5.523240E-1	6.090689E-1	6.402207E-1	6.175885E-1	5.704589E-1	5.902741E-1	6.068339E-1	6.166152E-1	5.792671E-1	5.988035E-1	6.144376E-1	5.936028E-1	5.818478E-1	5.741840E-1	5.649399E-1	5.962410E-1	5.664523E-1	5.957546E-1	5.561203E-1	6.342207E-1	6.041112E-1	5.813069E-1	6.547052E-1	5.967520E-1	6.260407E-1	5.910412E-1	5.812292E-1	5.867565E-1	6.162154E-1	6.071595E-1	6.054476E-1	6.119731E-1	5.735498E-1	6.414181E-1	5.887643E-1	5.951043E-1	6.060457E-1	5.934631E-1	5.643399E-1	5.810974E-1	5.998919E-1	5.799028E-1	5.750352E-1	6.440269E-1	5.616042E-1	5.534369E-1	6.328995E-1	6.477132E-1	6.092076E-1	5.979764E-1	5.977295E-1	5.787087E-1	6.306128E-1	5.961238E-1	6.248679E-1	6.132713E-1	5.602592E-1	5.872050E-1	6.054404E-1	5.775861E-1	6.113550E-1	6.303288E-1	5.705759E-1	6.368131E-1	5.828373E-1	5.901023E-1	5.853626E-1	5.693858E-1	5.897226E-1	6.171294E-1	6.117686E-1	5.941531E-1	6.061354E-1	5.695911E-1	5.936912E-1	5.903284E-1	6.294576E-1	5.723653E-1	6.269464E-1	6.220275E-1	5.730874E-1	5.686051E-1	6.106286E-1	5.976679E-1	6.013366E-1	6.218408E-1
2.915210E+2	7.026832E-1	7.255545E-1	7.094242E-1	7.212809E-1	7.531436E-1	7.385904E-1	7.078607E-1	7.671795E-1	7.205045E-1	7.535604E-1	7.385483E-1	7.142489E-1	7.198729E-1	7.011576E-1	7.317841E-1	7.641800E-1	7.348117E-1	7.692447E-1	6.874138E-1	7.422361E-1	7.357337E-1	7.786709E-1	7.218810E-1	7.596699E-1	7.226028E-1	7.617248E-1	7.642779E-1	6.824049E-1	6.921402E-1	7.108608E-1	7.346931E-1	7.512531E-1	7.445748E-1	7.507037E-1	7.748742E-1	7.067725E-1	6.841744E-1	7.596101E-1	7.383889E-1	7.211723E-1	7.760629E-1	7.307836E-1	7.391622E-1	7.225429E-1	7.294173E-1	7.491279E-1	7.168579E-1	7.340127E-1	7.401843E-1	7.286585E-1	7.571465E-1	7.122121E-1	7.859818E-1	7.411584E-1	7.266781E-1	7.807321E-1	7.202980E-1	7.541382E-1	7.192721E-1	7.868761E-1	7.500539E-1	7.474480E-1	7.420927E-1	7.288634E-1	7.301140E-1	7.384412E-1	7.209233E-1	7.231782E-1	7.812973E-1	7.977634E-1	7.106607E-1	7.163760E-1	7.892968E-1	7.147482E-1	7.313946E-1	6.748734E-1	7.128261E-1	7.034073E-1	7.465785E-1	7.365166E-1	6.760420E-1	7.246965E-1	7.013491E-1	7.216190E-1	7.197014E-1	7.303875E-1	7.166231E-1	7.028491E-1	7.570072E-1	6.671155E-1	7.369482E-1	7.230755E-1	7.545317E-1	7.133037E-1	7.474302E-1	7.355814E-1	7.293307E-1	7.422510E-1	7.197979E-1	6.939388E-1	6.993631E-1	7.539779E-1	7.200555E-1	7.253604E-1	7.650313E-1	7.103101E-1	7.691548E-1	7.324865E-1	7.460572E-1	7.400473E-1	7.410900E-1	7.118837E-1	7.533544E-1	7.165205E-1	7.640603E-1	7.147366E-1	7.246311E-1	7.405139E-1	7.520222E-1	7.776208E-1	7.109732E-1	7.368024E-1	7.015957E-1	7.580732E-1	7.261661E-1	7.168404E-1	7.161239E-1	7.068293E-1	7.307022E-1	7.296419E-1	7.378387E-1	7.207358E-1	7.489863E-1	7.340976E-1	7.221223E-1	7.341625E-1	7.195025E-1	7.468632E-1	7.224546E-1	7.015621E-1	7.753157E-1	7.086411E-1	7.278926E-1	7.528815E-1	7.291263E-1	6.957716E-1	7.336101E-1	7.304359E-1	7.226035E-1	7.548790E-1	7.390059E-1	7.584197E-1	7.076662E-1	7.510854E-1	7.413685E-1	7.169137E-1	8.092090E-1	7.028473E-1	7.442972E-1	7.706298E-1	7.231189E-1	7.221334E-1	7.626602E-1	7.097152E-1	8.033962E-1	7.502448E-1	7.403622E-1	7.258630E-1	7.214997E-1	7.109081E-1	6.417215E-1	7.235039E-1
2.920010E+2	5.556436E-1	5.322444E-1	5.369900E-1	5.355740E-1	5.467869E-1	5.558004E-1	5.364683E-1	5.160603E-1	4.926758E-1	5.110525E-1	5.310258E-1	5.195554E-1	5.420019E-1	5.297717E-1	5.768151E-1	5.214032E-1	5.484273E-1	5.619277E-1	5.463584E-1	5.381963E-1	5.769545E-1	5.195596E-1	5.428188E-1	5.078470E-1	5.288355E-1	5.148826E-1	5.419477E-1	4.863358E-1	5.200510E-1	5.531076E-1	5.145890E-1	5.808652E-1	5.481832E-1	5.143613E-1	5.546527E-1	5.345706E-1	5.533571E-1	5.553146E-1	5.538823E-1	5.426467E-1	5.246294E-1	5.223970E-1	5.760845E-1	5.532577E-1	5.427178E-1	5.696203E-1	5.212402E-1	5.138077E-1	5.415871E-1	5.402651E-1	4.943192E-1	5.531396E-1	5.594236E-1	5.358755E-1	5.656206E-1	5.102437E-1	5.316255E-1	5.151648E-1	5.234482E-1	5.499708E-1	5.369728E-1	5.380508E-1	5.335426E-1	5.462712E-1	4.993830E-1	5.467668E-1	5.433286E-1	5.540347E-1	5.478656E-1	5.740878E-1	5.797234E-1	5.128863E-1	5.562444E-1	5.262566E-1	5.199105E-1	5.182534E-1	5.235737E-1	5.351652E-1	5.609358E-1	5.053989E-1	4.856640E-1	5.159905E-1	5.253625E-1	5.098446E-1	5.363858E-1	5.119693E-1	5.123312E-1	5.283977E-1	5.678479E-1	5.449049E-1	5.370485E-1	5.286038E-1	5.803528E-1	5.142252E-1	5.135559E-1	5.276349E-1	5.646151E-1	5.255876E-1	5.504176E-1	5.484186E-1	5.611601E-1	5.591075E-1	5.588565E-1	5.416907E-1	5.829961E-1	5.364800E-1	5.282220E-1	5.358382E-1	5.393910E-1	5.648750E-1	5.291478E-1	5.570100E-1	5.413954E-1	5.466320E-1	5.514841E-1	5.429767E-1	5.541063E-1	5.614703E-1	5.658939E-1	5.170461E-1	5.598266E-1	5.432723E-1	5.163011E-1	5.059479E-1	4.865585E-1	5.824009E-1	5.418558E-1	5.468832E-1	5.391018E-1	5.228324E-1	5.116666E-1	5.294415E-1	5.727915E-1	5.477184E-1	5.298948E-1	5.750043E-1	5.512220E-1	5.169646E-1	5.375983E-1	5.590689E-1	5.471073E-1	5.428670E-1	5.371299E-1	5.601849E-1	5.479761E-1	5.369199E-1	5.450177E-1	5.736800E-1	6.081548E-1	5.212223E-1	5.503514E-1	5.112418E-1	5.637610E-1	5.544835E-1	5.549978E-1	5.220266E-1	5.710469E-1	5.185560E-1	5.390251E-1	5.580800E-1	5.439193E-1	5.589980E-1	5.244207E-1	5.423179E-1	5.330331E-1	5.472222E-1	5.496676E-1	5.321196E-1	5.391914E-1	5.152446E-1	5.316462E-1	6.082899E-1
2.925000E+2	5.534486E-1	4.973834E-1	5.455356E-1	5.053004E-1	5.158077E-1	5.261406E-1	4.909657E-1	5.112483E-1	5.549839E-1	5.138193E-1	5.083255E-1	5.428459E-1	5.110687E-1	4.876790E-1	5.132972E-1	5.807448E-1	5.148562E-1	4.862878E-1	5.674033E-1	5.581842E-1	5.327913E-1	5.293694E-1	5.462298E-1	4.851132E-1	4.803211E-1	4.909316E-1	4.930963E-1	4.674820E-1	5.150820E-1	5.530106E-1	5.282656E-1	5.231238E-1	5.209461E-1	5.241042E-1	5.282220E-1	5.133677E-1	5.265891E-1	5.059474E-1	5.402780E-1	5.272282E-1	5.199027E-1	5.071493E-1	5.138302E-1	5.632477E-1	5.409645E-1	5.478027E-1	5.056876E-1	5.575475E-1	5.704652E-1	5.614486E-1	4.922178E-1	5.084996E-1	5.164889E-1	5.282368E-1	5.074042E-1	5.481463E-1	5.326366E-1	5.377753E-1	5.237589E-1	5.127228E-1	5.845527E-1	5.287445E-1	5.263422E-1	5.488896E-1	5.385262E-1	4.993519E-1	5.308499E-1	5.304696E-1	5.410181E-1	5.297999E-1	5.473532E-1	5.113542E-1	5.238687E-1	5.204543E-1	5.316863E-1	5.068236E-1	5.171819E-1	5.118961E-1	5.380878E-1	5.105085E-1	5.188835E-1	5.391360E-1	4.986650E-1	5.410713E-1	5.675334E-1	5.128398E-1	5.308904E-1	5.400874E-1	5.346582E-1	4.996865E-1	5.418104E-1	5.043047E-1	5.116651E-1	5.181939E-1	5.276036E-1	5.325064E-1	5.347844E-1	5.303531E-1	5.381917E-1	5.292029E-1	5.504522E-1	5.773496E-1	5.089500E-1	5.271738E-1	6.020129E-1	5.285842E-1	5.459209E-1	5.460322E-1	5.042832E-1	5.143897E-1	5.231632E-1	4.928710E-1	5.252871E-1	4.952454E-1	5.140537E-1	5.274648E-1	5.353109E-1	5.415530E-1	5.238041E-1	4.666209E-1	5.189550E-1	5.540071E-1	4.988469E-1	5.430928E-1	4.870406E-1	5.255593E-1	5.323167E-1	5.363998E-1	5.342129E-1	5.466803E-1	5.084753E-1	5.240172E-1	5.262484E-1	5.351855E-1	5.191420E-1	5.299860E-1	5.793006E-1	5.432694E-1	5.825306E-1	5.360654E-1	5.238345E-1	5.339090E-1	5.153882E-1	5.577095E-1	5.116366E-1	5.178257E-1	5.415329E-1	5.497339E-1	5.433042E-1	5.203511E-1	5.082077E-1	4.891149E-1	5.566093E-1	5.397419E-1	5.518169E-1	4.777692E-1	5.562314E-1	5.542780E-1	5.292223E-1	5.408275E-1	5.453599E-1	5.127709E-1	5.353666E-1	5.601371E-1	5.133106E-1	5.215184E-1	5.519574E-1	5.304022E-1	5.302264E-1	5.054164E-1	4.927353E-1	5.581145E-1
2.930010E+2	6.186306E-1	6.378857E-1	6.108168E-1	6.245192E-1	6.581490E-1	6.400755E-1	6.199190E-1	6.064797E-1	6.658678E-1	6.260625E-1	6.333069E-1	5.920072E-1	6.623689E-1	6.454269E-1	6.470032E-1	6.349305E-1	6.674737E-1	6.422678E-1	6.579512E-1	6.380241E-1	6.833070E-1	6.202852E-1	6.523239E-1	6.325466E-1	6.262315E-1	6.331863E-1	6.442307E-1	6.196419E-1	6.391970E-1	6.744139E-1	6.882985E-1	6.552515E-1	6.353835E-1	6.892233E-1	6.376925E-1	6.415955E-1	6.193552E-1	6.612995E-1	6.391685E-1	6.802041E-1	6.396011E-1	6.465745E-1	6.111581E-1	6.154289E-1	6.642650E-1	6.596598E-1	6.559063E-1	6.395693E-1	6.255338E-1	6.022841E-1	6.145694E-1	6.509032E-1	6.729311E-1	6.526889E-1	6.244249E-1	6.475966E-1	6.460411E-1	7.212841E-1	6.298108E-1	6.758454E-1	6.673436E-1	6.409478E-1	6.297194E-1	6.723303E-1	6.097197E-1	6.207693E-1	6.425881E-1	6.416471E-1	6.571381E-1	6.758818E-1	6.572889E-1	6.307531E-1	5.919049E-1	6.493251E-1	6.510782E-1	6.219862E-1	6.806880E-1	6.733693E-1	6.376746E-1	6.425037E-1	6.213410E-1	6.325375E-1	6.413002E-1	6.324601E-1	6.708299E-1	6.245996E-1	6.561419E-1	6.150486E-1	6.345082E-1	6.396297E-1	6.540810E-1	6.510671E-1	6.976906E-1	6.154079E-1	6.609880E-1	6.582963E-1	6.625160E-1	6.317777E-1	6.238439E-1	6.399032E-1	6.583689E-1	6.432653E-1	5.974262E-1	6.420149E-1	6.430931E-1	6.352424E-1	6.457485E-1	6.688337E-1	6.341348E-1	6.156418E-1	6.614362E-1	6.533753E-1	6.292498E-1	7.019224E-1	5.989513E-1	6.416064E-1	6.458293E-1	6.423649E-1	6.411162E-1	6.309785E-1	6.787595E-1	6.668054E-1	6.482848E-1	6.024459E-1	6.776607E-1	6.499057E-1	6.270918E-1	6.251239E-1	6.429600E-1	6.147899E-1	6.493327E-1	5.998643E-1	6.729721E-1	6.172713E-1	6.827240E-1	6.504280E-1	6.264429E-1	6.428761E-1	6.878388E-1	6.529953E-1	6.243171E-1	6.496032E-1	6.378390E-1	6.485426E-1	6.346355E-1	6.408096E-1	6.344281E-1	6.407577E-1	6.529607E-1	6.486276E-1	6.818206E-1	6.573622E-1	6.260660E-1	6.614640E-1	6.467912E-1	6.131940E-1	6.725438E-1	6.525612E-1	6.415254E-1	6.626867E-1	6.611562E-1	6.109568E-1	6.537530E-1	6.384943E-1	6.553827E-1	6.289567E-1	6.445957E-1	6.418444E-1	6.381991E-1	6.226669E-1	6.137021E-1	5.526793E-1
2.935120E+2	7.608184E-1	7.523172E-1	7.698697E-1	7.413649E-1	7.955957E-1	7.583217E-1	7.595709E-1	7.156454E-1	7.241739E-1	7.245138E-1	7.838527E-1	7.468060E-1	7.417383E-1	7.611078E-1	7.716798E-1	7.605221E-1	7.976667E-1	7.857005E-1	7.646132E-1	7.761944E-1	7.637640E-1	7.501861E-1	7.434906E-1	8.103465E-1	7.299754E-1	7.974484E-1	7.740602E-1	7.929567E-1	7.521383E-1	7.384882E-1	7.554601E-1	7.842279E-1	7.616630E-1	7.484328E-1	7.651229E-1	7.321078E-1	7.523207E-1	7.681428E-1	7.543869E-1	8.030975E-1	7.364837E-1	7.291712E-1	7.869934E-1	7.382046E-1	7.758168E-1	7.582176E-1	7.497844E-1	7.873175E-1	7.489487E-1	7.517299E-1	8.026771E-1	7.765057E-1	7.422398E-1	7.424112E-1	7.081868E-1	7.229724E-1	8.148135E-1	8.387507E-1	7.865763E-1	7.688705E-1	7.645115E-1	7.498055E-1	7.609863E-1	7.404791E-1	7.441041E-1	7.843677E-1	7.418765E-1	7.502872E-1	7.884451E-1	8.052652E-1	7.604467E-1	7.744463E-1	7.738371E-1	7.117998E-1	7.565276E-1	7.329700E-1	7.698628E-1	7.654946E-1	7.781757E-1	7.318991E-1	7.425042E-1	7.614354E-1	7.845194E-1	7.771848E-1	7.433009E-1	7.608567E-1	7.616903E-1	7.512435E-1	7.492449E-1	7.773609E-1	7.872804E-1	7.668290E-1	7.710429E-1	7.691555E-1	7.538558E-1	8.016318E-1	7.947813E-1	7.527845E-1	7.929116E-1	7.627103E-1	7.854103E-1	7.809414E-1	7.582310E-1	7.563863E-1	7.482919E-1	7.252062E-1	7.779984E-1	7.764669E-1	7.475594E-1	7.379859E-1	7.904060E-1	7.434154E-1	7.401072E-1	7.779898E-1	7.553863E-1	7.808385E-1	7.719601E-1	7.456565E-1	7.494637E-1	7.922908E-1	8.446748E-1	7.927278E-1	7.770783E-1	7.615286E-1	7.640012E-1	8.048582E-1	7.703997E-1	8.045477E-1	7.275311E-1	7.841265E-1	7.916414E-1	8.022964E-1	8.142558E-1	7.882687E-1	7.418406E-1	7.658667E-1	7.929491E-1	7.715842E-1	7.745055E-1	8.147237E-1	7.848979E-1	7.631540E-1	7.206519E-1	7.758142E-1	7.764422E-1	7.652279E-1	8.223139E-1	7.603907E-1	7.809917E-1	7.877330E-1	7.311009E-1	7.720872E-1	8.147655E-1	7.773352E-1	7.491722E-1	7.576644E-1	7.494913E-1	7.849099E-1	7.429233E-1	8.195795E-1	8.090910E-1	7.859208E-1	8.083477E-1	7.482998E-1	7.546718E-1	7.628872E-1	7.826059E-1	6.974652E-1	7.603443E-1	7.632911E-1	7.741356E-1	7.901424E-1
2.940080E+2	7.992712E-1	8.071589E-1	7.565799E-1	8.034648E-1	7.984208E-1	7.999468E-1	7.767807E-1	7.542101E-1	7.882236E-1	8.171202E-1	7.590295E-1	7.662424E-1	8.097669E-1	7.549213E-1	7.726353E-1	7.666533E-1	7.436607E-1	7.846707E-1	7.792441E-1	7.883088E-1	7.524349E-1	8.148804E-1	7.606455E-1	8.260241E-1	7.603002E-1	7.745699E-1	7.879714E-1	8.207646E-1	7.534815E-1	8.149795E-1	7.637333E-1	7.759425E-1	7.665960E-1	8.384361E-1	7.723326E-1	7.891287E-1	7.354162E-1	7.558558E-1	7.798490E-1	8.059553E-1	7.644381E-1	7.190658E-1	7.793383E-1	7.986465E-1	7.575637E-1	8.265087E-1	7.876593E-1	8.034693E-1	7.748459E-1	8.221633E-1	7.779321E-1	8.028345E-1	7.860520E-1	7.631606E-1	7.845618E-1	7.436695E-1	7.839269E-1	8.081125E-1	7.775796E-1	7.883132E-1	7.314023E-1	7.389435E-1	7.857777E-1	8.065063E-1	7.732989E-1	7.930434E-1	7.793417E-1	7.864971E-1	8.398692E-1	7.966275E-1	8.155662E-1	7.693414E-1	7.631027E-1	7.944180E-1	8.197490E-1	7.881627E-1	7.490496E-1	8.021645E-1	7.504783E-1	8.187483E-1	7.794192E-1	7.682017E-1	8.064978E-1	7.816695E-1	7.764644E-1	7.787397E-1	7.734790E-1	7.835111E-1	7.754789E-1	7.645264E-1	7.482203E-1	7.737337E-1	8.056558E-1	7.388224E-1	7.831566E-1	7.963324E-1	7.712558E-1	8.486295E-1	8.559221E-1	7.728416E-1	7.331686E-1	7.909209E-1	7.982744E-1	7.904192E-1	7.404903E-1	8.333968E-1	7.457691E-1	7.964563E-1	7.488491E-1	7.396040E-1	7.626776E-1	7.775864E-1	8.234876E-1	7.715477E-1	7.568504E-1	7.646641E-1	7.801759E-1	7.983541E-1	8.440249E-1	7.632298E-1	8.108190E-1	7.537149E-1	7.897660E-1	7.916051E-1	7.670948E-1	8.180837E-1	7.251853E-1	7.874238E-1	7.688044E-1	8.356412E-1	8.058462E-1	7.448824E-1	7.979456E-1	7.888981E-1	7.752723E-1	8.014140E-1	7.505367E-1	7.480304E-1	7.881037E-1	8.341193E-1	7.973457E-1	7.878528E-1	7.316380E-1	7.961485E-1	7.802429E-1	7.999076E-1	7.812385E-1	7.437163E-1	8.019457E-1	8.135062E-1	7.984846E-1	7.826610E-1	7.889312E-1	7.768393E-1	8.125722E-1	7.503195E-1	7.542017E-1	7.544804E-1	7.542777E-1	8.118119E-1	8.093477E-1	7.986683E-1	7.684918E-1	7.692434E-1	7.972386E-1	7.742822E-1	7.862755E-1	7.597466E-1	7.696590E-1	7.755798E-1	7.411017E-1	8.095610E-1
2.945030E+2	7.212709E-1	7.084535E-1	7.174895E-1	7.568210E-1	7.390366E-1	7.509541E-1	7.099317E-1	6.723819E-1	7.110906E-1	6.793719E-1	7.339694E-1	7.067306E-1	6.927575E-1	6.854711E-1	7.195802E-1	7.235761E-1	6.864068E-1	7.025117E-1	7.040482E-1	7.345727E-1	7.298847E-1	7.183363E-1	7.203557E-1	7.095200E-1	7.016579E-1	7.030211E-1	7.240031E-1	6.760840E-1	6.503730E-1	7.428509E-1	7.275726E-1	7.312208E-1	6.812766E-1	7.836109E-1	7.166769E-1	7.281816E-1	7.176865E-1	7.518595E-1	7.211542E-1	7.256918E-1	6.735958E-1	7.023646E-1	6.738397E-1	6.895777E-1	7.110927E-1	7.086058E-1	7.026868E-1	7.409330E-1	7.085124E-1	6.831229E-1	7.459759E-1	7.217179E-1	7.205170E-1	7.121160E-1	7.055715E-1	7.499142E-1	7.050231E-1	7.655346E-1	7.373674E-1	7.066337E-1	7.027563E-1	7.222402E-1	7.251007E-1	7.261674E-1	7.029216E-1	7.236873E-1	7.253771E-1	7.131915E-1	7.516310E-1	7.390896E-1	7.127423E-1	7.261402E-1	7.106274E-1	7.012377E-1	7.292965E-1	6.916478E-1	7.476007E-1	7.222396E-1	7.189748E-1	7.363813E-1	7.174069E-1	6.926892E-1	7.142438E-1	7.135506E-1	7.370125E-1	7.026692E-1	7.050730E-1	7.238264E-1	7.054197E-1	6.942250E-1	7.339299E-1	7.023311E-1	7.156345E-1	7.070735E-1	7.337516E-1	7.502444E-1	7.387541E-1	6.760905E-1	7.218195E-1	7.227511E-1	6.706102E-1	7.248864E-1	7.013793E-1	7.365152E-1	7.038931E-1	7.213428E-1	7.145952E-1	7.156299E-1	7.162035E-1	7.134743E-1	6.967789E-1	7.546360E-1	6.743402E-1	7.041092E-1	6.967677E-1	7.865087E-1	7.482812E-1	7.546467E-1	7.270182E-1	7.419979E-1	7.489988E-1	7.252747E-1	7.877084E-1	7.154357E-1	6.923387E-1	7.153024E-1	7.453661E-1	7.128035E-1	7.267721E-1	7.239997E-1	7.224571E-1	7.046051E-1	7.336792E-1	7.232285E-1	7.344294E-1	6.847129E-1	6.897305E-1	6.780464E-1	7.704744E-1	7.060307E-1	7.143780E-1	7.463190E-1	7.103197E-1	7.342448E-1	6.698278E-1	7.603350E-1	7.460120E-1	7.032282E-1	6.815244E-1	7.754574E-1	7.183374E-1	7.023999E-1	7.512216E-1	7.465693E-1	7.055053E-1	7.595856E-1	7.191086E-1	7.206532E-1	7.120816E-1	7.724462E-1	7.306768E-1	7.628507E-1	7.088151E-1	7.496382E-1	7.151752E-1	7.348357E-1	7.145134E-1	7.182324E-1	6.890680E-1	7.300713E-1	6.468188E-1	7.669876E-1
2.950050E+2	7.350763E-1	7.237491E-1	6.796354E-1	7.287906E-1	7.531542E-1	7.450703E-1	7.262161E-1	7.505047E-1	7.155582E-1	6.800539E-1	7.046499E-1	6.991031E-1	7.095901E-1	7.054110E-1	7.326896E-1	7.549386E-1	7.272868E-1	7.133329E-1	7.339428E-1	7.409356E-1	7.620507E-1	7.548380E-1	7.300861E-1	7.203025E-1	7.133935E-1	6.871681E-1	7.026466E-1	7.416032E-1	7.064912E-1	7.135630E-1	7.207070E-1	7.217771E-1	7.309344E-1	7.291451E-1	7.550278E-1	7.239822E-1	7.021626E-1	7.065844E-1	7.064489E-1	7.313806E-1	6.821079E-1	7.285724E-1	7.445654E-1	7.804278E-1	7.225465E-1	7.109379E-1	7.224526E-1	7.307740E-1	6.861313E-1	6.943857E-1	7.453503E-1	7.079544E-1	7.216863E-1	7.479115E-1	7.484116E-1	7.478108E-1	7.298948E-1	7.174368E-1	6.909877E-1	6.834712E-1	6.878408E-1	7.371615E-1	7.120224E-1	7.720493E-1	7.218994E-1	7.154243E-1	6.765086E-1	7.510600E-1	7.187889E-1	7.484909E-1	7.199538E-1	7.215937E-1	6.939069E-1	7.491323E-1	7.295909E-1	7.263690E-1	7.704191E-1	7.324635E-1	7.534505E-1	7.580901E-1	7.146024E-1	7.296625E-1	7.055145E-1	7.548427E-1	7.522922E-1	7.115446E-1	7.645823E-1	7.232681E-1	7.078518E-1	7.213866E-1	6.409957E-1	6.813469E-1	7.703989E-1	7.116291E-1	7.257957E-1	7.759116E-1	7.386547E-1	7.491442E-1	7.182365E-1	7.180133E-1	7.238046E-1	7.204982E-1	7.089599E-1	7.129255E-1	7.209958E-1	7.093512E-1	7.471379E-1	7.228031E-1	7.287936E-1	7.328097E-1	7.053466E-1	6.704274E-1	7.304454E-1	7.604242E-1	7.017524E-1	7.261058E-1	7.253201E-1	7.486253E-1	7.689934E-1	7.308198E-1	7.405237E-1	7.292962E-1	7.439824E-1	7.274967E-1	7.558125E-1	7.212237E-1	7.148672E-1	7.072073E-1	7.365955E-1	7.339357E-1	7.227238E-1	7.118311E-1	6.886850E-1	7.279994E-1	7.230673E-1	7.167942E-1	7.629682E-1	7.065781E-1	7.603584E-1	7.433213E-1	7.262472E-1	7.266784E-1	7.216383E-1	7.603528E-1	7.291639E-1	7.404526E-1	7.086449E-1	7.195685E-1	7.278283E-1	8.006897E-1	7.392470E-1	7.551871E-1	7.400244E-1	7.610592E-1	7.716866E-1	7.442335E-1	7.200865E-1	7.511484E-1	7.516010E-1	7.921545E-1	7.669873E-1	7.345133E-1	7.386437E-1	7.383302E-1	7.279593E-1	7.466571E-1	6.922444E-1	7.657052E-1	6.962996E-1	7.443420E-1	8.158720E-1	7.829256E-1
2.955080E+2	8.465086E-1	8.260882E-1	8.399501E-1	8.277969E-1	8.355219E-1	8.756181E-1	8.458496E-1	8.353125E-1	8.487794E-1	8.696261E-1	8.271243E-1	8.440732E-1	8.984630E-1	8.734058E-1	8.349275E-1	8.192556E-1	8.258618E-1	9.086654E-1	8.297632E-1	8.796997E-1	8.880989E-1	8.728794E-1	8.807792E-1	8.709192E-1	8.689823E-1	8.618800E-1	7.967499E-1	8.206633E-1	8.260555E-1	8.266316E-1	8.829804E-1	8.793486E-1	8.489522E-1	8.322458E-1	8.208027E-1	7.920985E-1	8.280132E-1	9.135712E-1	8.436921E-1	9.102974E-1	8.341195E-1	8.462158E-1	8.483581E-1	8.687247E-1	8.850823E-1	8.410615E-1	8.199621E-1	8.084372E-1	8.671823E-1	8.692521E-1	8.637111E-1	8.582938E-1	8.743573E-1	8.712844E-1	8.697672E-1	8.572713E-1	8.350334E-1	8.853618E-1	8.676863E-1	9.031705E-1	8.651263E-1	8.524310E-1	8.193558E-1	9.229464E-1	8.665796E-1	8.931994E-1	8.525359E-1	7.979614E-1	8.540909E-1	8.963810E-1	8.834579E-1	8.980916E-1	8.735535E-1	8.298805E-1	8.263381E-1	8.893136E-1	9.010773E-1	8.539602E-1	8.519654E-1	8.564340E-1	8.339534E-1	8.412888E-1	8.320817E-1	8.926527E-1	9.142255E-1	8.540048E-1	8.701647E-1	8.821302E-1	8.958889E-1	8.569527E-1	8.755485E-1	8.704326E-1	8.642043E-1	8.524137E-1	8.615839E-1	8.461151E-1	8.583696E-1	9.197109E-1	8.744403E-1	8.935447E-1	8.493284E-1	8.560323E-1	8.760811E-1	8.235838E-1	8.838609E-1	8.368186E-1	8.930862E-1	8.504284E-1	8.794428E-1	8.480807E-1	8.639564E-1	8.666328E-1	8.450413E-1	9.034285E-1	8.789036E-1	8.884742E-1	8.671584E-1	8.603017E-1	8.870054E-1	8.358002E-1	8.714286E-1	8.911775E-1	9.094446E-1	8.323156E-1	8.766555E-1	8.849107E-1	8.655655E-1	8.725248E-1	8.321167E-1	8.863314E-1	7.930619E-1	8.227908E-1	8.777647E-1	8.629651E-1	8.413869E-1	8.310025E-1	8.729562E-1	8.409008E-1	8.595409E-1	9.064363E-1	8.915561E-1	8.298567E-1	8.335534E-1	8.806570E-1	8.848534E-1	8.851997E-1	8.508031E-1	8.942661E-1	8.616436E-1	8.407325E-1	8.403497E-1	8.460232E-1	8.598045E-1	9.070795E-1	8.741989E-1	8.544640E-1	8.491123E-1	8.808641E-1	8.695081E-1	8.306748E-1	8.393247E-1	8.642753E-1	8.920847E-1	8.264288E-1	8.712608E-1	8.841380E-1	8.251435E-1	8.775913E-1	8.441603E-1	8.066048E-1	8.701816E-1	9.778562E-1
2.960030E+2	8.709500E-1	8.690858E-1	8.986744E-1	8.647424E-1	9.302088E-1	9.016353E-1	9.140843E-1	9.396738E-1	8.941240E-1	8.734311E-1	9.189681E-1	9.195835E-1	9.696442E-1	8.800652E-1	9.169679E-1	9.633725E-1	9.250624E-1	9.157790E-1	9.253746E-1	9.128813E-1	9.460452E-1	8.969521E-1	8.885092E-1	9.466228E-1	8.856331E-1	9.245384E-1	8.753762E-1	8.977214E-1	9.232306E-1	9.485442E-1	9.590658E-1	8.833040E-1	8.930219E-1	9.660438E-1	9.193646E-1	8.981104E-1	9.057766E-1	9.113137E-1	9.077110E-1	9.271896E-1	8.686580E-1	9.534547E-1	9.019991E-1	9.017669E-1	9.071440E-1	8.886098E-1	9.280408E-1	9.288231E-1	9.154722E-1	9.171871E-1	8.906570E-1	9.070958E-1	8.834800E-1	9.030503E-1	8.974087E-1	9.057457E-1	8.910739E-1	9.507726E-1	9.248865E-1	9.134162E-1	9.184185E-1	8.915550E-1	8.789964E-1	8.996057E-1	8.418975E-1	9.207005E-1	8.762745E-1	9.768348E-1	9.450785E-1	9.365304E-1	9.612661E-1	9.047577E-1	9.009070E-1	9.346033E-1	9.109086E-1	9.358152E-1	9.136873E-1	9.286980E-1	9.192523E-1	9.092492E-1	8.616782E-1	9.282286E-1	9.549751E-1	8.676986E-1	9.412192E-1	9.456883E-1	9.521708E-1	9.215538E-1	9.111685E-1	8.791160E-1	8.804490E-1	9.125538E-1	8.817231E-1	9.004985E-1	9.535989E-1	9.523981E-1	8.994299E-1	8.828811E-1	9.354210E-1	9.554205E-1	9.178966E-1	9.238074E-1	9.026715E-1	8.935962E-1	9.068810E-1	9.475518E-1	9.154283E-1	8.815396E-1	9.096144E-1	9.034052E-1	9.453478E-1	8.761817E-1	9.125053E-1	9.324981E-1	9.175114E-1	9.217192E-1	8.782112E-1	9.286261E-1	9.567538E-1	9.384208E-1	9.338615E-1	8.638369E-1	9.145195E-1	9.389127E-1	8.479784E-1	9.079879E-1	8.884829E-1	9.352625E-1	9.317484E-1	8.957233E-1	9.529279E-1	9.003069E-1	8.975560E-1	9.235488E-1	8.618067E-1	8.898023E-1	9.163842E-1	9.166955E-1	9.909692E-1	9.565466E-1	9.083153E-1	8.924565E-1	8.110481E-1	9.391303E-1	9.358809E-1	9.078644E-1	9.244975E-1	9.176268E-1	9.293574E-1	9.201632E-1	9.301661E-1	9.315057E-1	8.964761E-1	9.076705E-1	9.064236E-1	9.310636E-1	9.219088E-1	9.263786E-1	9.231084E-1	8.776444E-1	9.162937E-1	9.140564E-1	9.139267E-1	9.824641E-1	9.225201E-1	9.092982E-1	8.988926E-1	9.306652E-1	8.895202E-1	9.774149E-1	8.875301E-1	9.136897E-1
2.964980E+2	8.572716E-1	7.732949E-1	7.917306E-1	8.061649E-1	8.123049E-1	7.868710E-1	7.674323E-1	8.113618E-1	7.884253E-1	8.077184E-1	7.889200E-1	7.729217E-1	8.244415E-1	8.239544E-1	7.735330E-1	7.873821E-1	7.629860E-1	8.239269E-1	7.928974E-1	8.077649E-1	7.738840E-1	8.417746E-1	7.996298E-1	8.027380E-1	7.873949E-1	7.800776E-1	7.904769E-1	7.513081E-1	7.517695E-1	7.671274E-1	8.183302E-1	7.752200E-1	8.008656E-1	8.546719E-1	7.590264E-1	7.871773E-1	7.970845E-1	8.327658E-1	8.274323E-1	7.988116E-1	8.138832E-1	8.061803E-1	7.967680E-1	8.215262E-1	7.892383E-1	7.683525E-1	7.770728E-1	8.164910E-1	8.159089E-1	7.765421E-1	8.125544E-1	7.577940E-1	7.835492E-1	8.427696E-1	7.889601E-1	7.636325E-1	8.016374E-1	8.110844E-1	8.507827E-1	7.762640E-1	8.182625E-1	7.966776E-1	7.652846E-1	7.862894E-1	8.000793E-1	7.753211E-1	7.928994E-1	8.236253E-1	7.987839E-1	7.831504E-1	8.128549E-1	7.697698E-1	8.344318E-1	7.952257E-1	7.866233E-1	7.633421E-1	8.173830E-1	8.509975E-1	7.771182E-1	7.944457E-1	7.990016E-1	7.635359E-1	7.653667E-1	7.779407E-1	8.120799E-1	8.076711E-1	7.452179E-1	7.222942E-1	7.951038E-1	8.041967E-1	8.223574E-1	7.661330E-1	8.090511E-1	8.196494E-1	7.681995E-1	8.038213E-1	8.308783E-1	7.729975E-1	8.147229E-1	7.710536E-1	7.983700E-1	7.834110E-1	7.981468E-1	7.954927E-1	7.793055E-1	8.350308E-1	8.151925E-1	8.395657E-1	8.078444E-1	8.300538E-1	8.304518E-1	7.810314E-1	8.134078E-1	8.180836E-1	7.744854E-1	7.711256E-1	7.887235E-1	7.811458E-1	8.216428E-1	7.834908E-1	8.170662E-1	7.932723E-1	7.802840E-1	8.116415E-1	7.795039E-1	8.020482E-1	7.772045E-1	7.702990E-1	8.044994E-1	7.877977E-1	7.843688E-1	7.579150E-1	7.811824E-1	7.779607E-1	7.985717E-1	8.186302E-1	8.364840E-1	7.403957E-1	8.636373E-1	8.079418E-1	8.122717E-1	7.926494E-1	7.704483E-1	8.108039E-1	8.487827E-1	8.287092E-1	8.027321E-1	8.476944E-1	7.917892E-1	7.965564E-1	8.063986E-1	7.945627E-1	7.991716E-1	8.071320E-1	8.146686E-1	8.045227E-1	8.524582E-1	8.031846E-1	8.099227E-1	8.130430E-1	8.343456E-1	8.074080E-1	8.018583E-1	8.150453E-1	8.351997E-1	8.217343E-1	7.786026E-1	8.088117E-1	8.220307E-1	7.852235E-1	8.523861E-1	7.961464E-1
2.970040E+2	7.205499E-1	7.264145E-1	7.019352E-1	7.349023E-1	7.317202E-1	6.932580E-1	7.241398E-1	7.022994E-1	7.554750E-1	6.957825E-1	7.052522E-1	7.052771E-1	7.427830E-1	7.430381E-1	7.616237E-1	7.514558E-1	7.255756E-1	7.660294E-1	7.642969E-1	7.730932E-1	7.372918E-1	7.415384E-1	7.778702E-1	8.023911E-1	7.615320E-1	7.553576E-1	7.483826E-1	7.140431E-1	7.207768E-1	7.197803E-1	7.098948E-1	7.118512E-1	7.525678E-1	7.862608E-1	7.245312E-1	7.001133E-1	7.104879E-1	7.456400E-1	7.319418E-1	7.548514E-1	7.591867E-1	7.483929E-1	7.603391E-1	7.685604E-1	7.129366E-1	7.235813E-1	7.401133E-1	7.279603E-1	6.613007E-1	7.516708E-1	7.451327E-1	7.599979E-1	7.355822E-1	7.506441E-1	7.403505E-1	6.864927E-1	7.220509E-1	7.145583E-1	7.510185E-1	7.688399E-1	7.204179E-1	7.513071E-1	7.383465E-1	7.232232E-1	7.519215E-1	7.577906E-1	7.554462E-1	7.285656E-1	7.487980E-1	7.531351E-1	7.451075E-1	7.831376E-1	7.349125E-1	7.224562E-1	7.458071E-1	7.484389E-1	7.743880E-1	7.537791E-1	7.223461E-1	7.178359E-1	6.876094E-1	7.162463E-1	7.655792E-1	7.277666E-1	7.495837E-1	7.800083E-1	7.137082E-1	7.253937E-1	6.850761E-1	6.931755E-1	7.437357E-1	7.289471E-1	6.749228E-1	7.047753E-1	7.450482E-1	7.885883E-1	7.362469E-1	7.890789E-1	7.658605E-1	7.232197E-1	7.346585E-1	7.189281E-1	7.053685E-1	7.647826E-1	7.788924E-1	7.693443E-1	7.248679E-1	7.186208E-1	7.363002E-1	7.377042E-1	7.374609E-1	6.830669E-1	7.719667E-1	7.617508E-1	7.227319E-1	7.364455E-1	7.108285E-1	7.097092E-1	7.172733E-1	7.657328E-1	6.900344E-1	7.356044E-1	7.710712E-1	7.916437E-1	7.175232E-1	7.764049E-1	7.141816E-1	7.218499E-1	7.463318E-1	7.244151E-1	7.017360E-1	6.766206E-1	7.168376E-1	7.566860E-1	7.474315E-1	7.303658E-1	7.038492E-1	7.289890E-1	7.525182E-1	7.471148E-1	7.194925E-1	7.256602E-1	6.858342E-1	7.182206E-1	7.680837E-1	7.708683E-1	8.042212E-1	7.424367E-1	7.306541E-1	7.211024E-1	7.688948E-1	7.386014E-1	7.568449E-1	7.296251E-1	7.866499E-1	7.449920E-1	7.847007E-1	7.098036E-1	7.667059E-1	7.622032E-1	7.745597E-1	7.665574E-1	7.263513E-1	7.056995E-1	7.024595E-1	7.445101E-1	7.178779E-1	7.122468E-1	6.836001E-1	7.638582E-1	7.156708E-1	7.909732E-1
2.975040E+2	8.926839E-1	9.099948E-1	8.973721E-1	8.961216E-1	9.085751E-1	8.299711E-1	8.957284E-1	8.759504E-1	9.198671E-1	8.771507E-1	8.776812E-1	8.896145E-1	8.777612E-1	8.965427E-1	8.970225E-1	9.030169E-1	8.547427E-1	8.724523E-1	9.201424E-1	8.776575E-1	8.936655E-1	9.093241E-1	8.844741E-1	9.001271E-1	8.367026E-1	8.664065E-1	8.577419E-1	8.634345E-1	8.675928E-1	8.958515E-1	8.836566E-1	8.299434E-1	8.652533E-1	8.371314E-1	8.568307E-1	9.136473E-1	8.857756E-1	8.753110E-1	8.814071E-1	9.020492E-1	8.730315E-1	8.798983E-1	8.662851E-1	9.183163E-1	8.767588E-1	8.863902E-1	9.011178E-1	8.749226E-1	8.856080E-1	8.698330E-1	8.716932E-1	8.845753E-1	8.763679E-1	8.610293E-1	8.882267E-1	8.924684E-1	8.826783E-1	8.547438E-1	8.729217E-1	8.882523E-1	8.940997E-1	9.386830E-1	8.780769E-1	8.972789E-1	8.542991E-1	8.644850E-1	8.307761E-1	8.574940E-1	9.016314E-1	8.863475E-1	8.739081E-1	8.475015E-1	8.943816E-1	8.656107E-1	8.775412E-1	8.713360E-1	8.975738E-1	8.795778E-1	8.723576E-1	8.597348E-1	8.854125E-1	9.028786E-1	9.363389E-1	9.085198E-1	9.458932E-1	8.868301E-1	8.660030E-1	8.621742E-1	8.455150E-1	8.787427E-1	8.601209E-1	9.072134E-1	8.857008E-1	8.719840E-1	8.779880E-1	9.037591E-1	8.537813E-1	8.867888E-1	8.572526E-1	8.768373E-1	8.707572E-1	8.713002E-1	8.849189E-1	8.710682E-1	8.441262E-1	8.601814E-1	8.963644E-1	8.600392E-1	9.131123E-1	9.105393E-1	9.015333E-1	9.231034E-1	8.883748E-1	8.998185E-1	8.289581E-1	8.803482E-1	9.171608E-1	8.557190E-1	8.745370E-1	8.954654E-1	9.327345E-1	8.265381E-1	8.785640E-1	9.420056E-1	8.314548E-1	9.005303E-1	8.826331E-1	8.701166E-1	8.785946E-1	8.938774E-1	8.574672E-1	9.097108E-1	8.655720E-1	8.463573E-1	8.568213E-1	8.779774E-1	8.857387E-1	9.121352E-1	8.665307E-1	8.891095E-1	8.714490E-1	8.978338E-1	8.547265E-1	8.626290E-1	8.895522E-1	8.900604E-1	8.516119E-1	8.829617E-1	8.638187E-1	8.160683E-1	8.692624E-1	8.810315E-1	8.983128E-1	8.872232E-1	8.967860E-1	8.364430E-1	8.959301E-1	9.021752E-1	9.149342E-1	8.958572E-1	8.761943E-1	8.852362E-1	9.042032E-1	8.714567E-1	9.035764E-1	8.440447E-1	8.587442E-1	9.171768E-1	8.997130E-1	8.747154E-1	8.420481E-1	9.028864E-1
2.980040E+2	1.063937E+0	9.853942E-1	1.001820E+0	1.025449E+0	1.039668E+0	1.025926E+0	1.038795E+0	1.068721E+0	1.024389E+0	1.001389E+0	1.048920E+0	1.026473E+0	1.006078E+0	1.022071E+0	9.889535E-1	1.038182E+0	1.013560E+0	1.014954E+0	1.049688E+0	1.042364E+0	1.006783E+0	1.020009E+0	1.023447E+0	1.057626E+0	1.039610E+0	1.061317E+0	1.020975E+0	1.001133E+0	1.021894E+0	1.010322E+0	1.030986E+0	1.076458E+0	9.724932E-1	1.009676E+0	9.873389E-1	1.020800E+0	9.895469E-1	1.069192E+0	1.017394E+0	1.013144E+0	1.007463E+0	1.032416E+0	1.017961E+0	9.877887E-1	1.021014E+0	9.831749E-1	1.002466E+0	1.017072E+0	1.024509E+0	1.007368E+0	1.066014E+0	1.002636E+0	1.039098E+0	9.744644E-1	1.000431E+0	1.002322E+0	1.043552E+0	1.007772E+0	1.037771E+0	9.957943E-1	1.017483E+0	1.018376E+0	1.030256E+0	1.013727E+0	1.063562E+0	9.993434E-1	1.045175E+0	1.014965E+0	1.013478E+0	1.009370E+0	1.070409E+0	1.080197E+0	9.843017E-1	1.007292E+0	1.049847E+0	1.056322E+0	9.946880E-1	1.007775E+0	1.064492E+0	1.027048E+0	1.016783E+0	1.019445E+0	1.034484E+0	1.044343E+0	1.010012E+0	1.075707E+0	1.009429E+0	1.022345E+0	9.979951E-1	1.042774E+0	1.014578E+0	1.029384E+0	1.008010E+0	1.035612E+0	1.061477E+0	1.022890E+0	1.061776E+0	1.026391E+0	9.872359E-1	1.027284E+0	1.047401E+0	1.005315E+0	1.006368E+0	1.060683E+0	9.524583E-1	1.070383E+0	1.025691E+0	9.898165E-1	1.020436E+0	1.042198E+0	9.765773E-1	1.015515E+0	1.054002E+0	1.050887E+0	1.003322E+0	1.025673E+0	1.064656E+0	1.019360E+0	9.606099E-1	1.010171E+0	9.761698E-1	1.034218E+0	9.947690E-1	1.042370E+0	1.009085E+0	1.001534E+0	1.043326E+0	1.028953E+0	1.071855E+0	1.044711E+0	1.006839E+0	9.986944E-1	1.006461E+0	1.043912E+0	1.040554E+0	1.027792E+0	1.055034E+0	1.027476E+0	1.046133E+0	1.054555E+0	1.010664E+0	1.002860E+0	1.012745E+0	1.033005E+0	1.037673E+0	1.055347E+0	1.039469E+0	1.018859E+0	9.990065E-1	1.017806E+0	1.090155E+0	9.835541E-1	1.005183E+0	1.055144E+0	1.041849E+0	1.035323E+0	1.024033E+0	9.842098E-1	9.644337E-1	1.039766E+0	9.748839E-1	1.053116E+0	1.022923E+0	1.010339E+0	1.076018E+0	1.062412E+0	9.702022E-1	1.027592E+0	1.022828E+0	1.048556E+0	1.004846E+0	1.018791E+0
2.985020E+2	9.691068E-1	9.739121E-1	1.025637E+0	9.758185E-1	1.025707E+0	1.005964E+0	1.009572E+0	9.913515E-1	1.017377E+0	1.029149E+0	1.053001E+0	1.007884E+0	1.025493E+0	1.028156E+0	1.022468E+0	9.798280E-1	1.032227E+0	1.047973E+0	9.914475E-1	1.021760E+0	1.020335E+0	1.002232E+0	1.035631E+0	1.060245E+0	1.074240E+0	1.034703E+0	1.040558E+0	1.002635E+0	1.011507E+0	1.028902E+0	9.883765E-1	1.021593E+0	1.029150E+0	1.057026E+0	9.951550E-1	1.049301E+0	1.053314E+0	1.022442E+0	1.010445E+0	1.007434E+0	1.022699E+0	1.046162E+0	1.040526E+0	1.010432E+0	1.000525E+0	1.024687E+0	1.040440E+0	1.062648E+0	1.043887E+0	1.044626E+0	1.031670E+0	1.034849E+0	1.003284E+0	1.057580E+0	1.015385E+0	1.023245E+0	9.997896E-1	1.057101E+0	1.056236E+0	1.036300E+0	1.020095E+0	1.006157E+0	1.029745E+0	9.995364E-1	1.044535E+0	1.033949E+0	1.049837E+0	1.038673E+0	1.026141E+0	1.067686E+0	1.017634E+0	1.048430E+0	9.826436E-1	1.008643E+0	1.025838E+0	1.061345E+0	1.017724E+0	1.046932E+0	1.048253E+0	1.041743E+0	1.018488E+0	1.024135E+0	9.979173E-1	9.813798E-1	1.021847E+0	1.017267E+0	1.039007E+0	1.025877E+0	1.073038E+0	1.026214E+0	1.027096E+0	1.034781E+0	1.025724E+0	1.031564E+0	1.016689E+0	9.827886E-1	9.849352E-1	9.581417E-1	1.082920E+0	1.004820E+0	9.796069E-1	1.009835E+0	1.041800E+0	1.001766E+0	1.022952E+0	1.005053E+0	9.982688E-1	1.021275E+0	9.814241E-1	9.604633E-1	1.048711E+0	1.019548E+0	1.028363E+0	1.049874E+0	1.040124E+0	1.033978E+0	9.773874E-1	1.011452E+0	1.026597E+0	9.888611E-1	1.070651E+0	1.036455E+0	1.013257E+0	1.019859E+0	1.033583E+0	1.044534E+0	1.026954E+0	1.031489E+0	1.015356E+0	9.888265E-1	1.088797E+0	1.027697E+0	1.035938E+0	1.068798E+0	1.034868E+0	1.025093E+0	1.030236E+0	1.070014E+0	1.009188E+0	1.027949E+0	1.045817E+0	1.010766E+0	9.862866E-1	1.015195E+0	1.007227E+0	1.052257E+0	9.965167E-1	1.006719E+0	1.015355E+0	1.048495E+0	9.954173E-1	1.048707E+0	1.005328E+0	9.855726E-1	1.058018E+0	1.061783E+0	1.026893E+0	1.054392E+0	1.069617E+0	1.006007E+0	1.056295E+0	1.015440E+0	1.015992E+0	1.047519E+0	9.776079E-1	1.036050E+0	1.046243E+0	1.048635E+0	1.006001E+0	9.994192E-1	1.015351E+0	1.003837E+0
2.990010E+2	9.581581E-1	1.005446E+0	9.061532E-1	1.000012E+0	9.345269E-1	1.015835E+0	9.680861E-1	9.830514E-1	9.353424E-1	9.925053E-1	9.370876E-1	9.649007E-1	9.645340E-1	9.758625E-1	9.853920E-1	9.597034E-1	9.794125E-1	9.657120E-1	9.503155E-1	9.673845E-1	9.764058E-1	9.830229E-1	9.275336E-1	9.300671E-1	9.545464E-1	9.735249E-1	9.721488E-1	9.976616E-1	9.328750E-1	1.011662E+0	9.993918E-1	9.743647E-1	9.946973E-1	9.774679E-1	9.785366E-1	9.699935E-1	9.767816E-1	9.743681E-1	9.749140E-1	9.737802E-1	1.014317E+0	9.491712E-1	9.823038E-1	9.951569E-1	9.737918E-1	9.508664E-1	9.669731E-1	9.428266E-1	1.000666E+0	9.330189E-1	9.516093E-1	9.452768E-1	9.851513E-1	9.794987E-1	9.945826E-1	9.820337E-1	9.426466E-1	1.004287E+0	9.687042E-1	9.756204E-1	9.804071E-1	9.756743E-1	9.569506E-1	9.741827E-1	9.957553E-1	9.936746E-1	9.475104E-1	9.750469E-1	9.787644E-1	9.439080E-1	9.785291E-1	9.574869E-1	1.005787E+0	9.728939E-1	9.611978E-1	9.304185E-1	9.920824E-1	9.894268E-1	9.515660E-1	9.445715E-1	9.545057E-1	9.744702E-1	9.799919E-1	9.575328E-1	9.317366E-1	9.609921E-1	9.999784E-1	1.001849E+0	9.787338E-1	9.343070E-1	9.916954E-1	9.354378E-1	9.641116E-1	9.374559E-1	9.679539E-1	9.473678E-1	9.806449E-1	1.010816E+0	9.711323E-1	9.750115E-1	9.546269E-1	9.825693E-1	9.733193E-1	9.113124E-1	1.056053E+0	9.911900E-1	9.773040E-1	9.786596E-1	9.877073E-1	9.699078E-1	9.644407E-1	9.473508E-1	9.314932E-1	9.647517E-1	9.911160E-1	9.362652E-1	9.768892E-1	1.008969E+0	9.462084E-1	9.447023E-1	9.302551E-1	1.002437E+0	1.016532E+0	9.273530E-1	9.791957E-1	9.696209E-1	9.875111E-1	9.560398E-1	9.548089E-1	9.953687E-1	1.002826E+0	9.928634E-1	9.629428E-1	9.847460E-1	9.829221E-1	9.982822E-1	9.459459E-1	9.518041E-1	9.862825E-1	9.766394E-1	9.675762E-1	9.579298E-1	9.927590E-1	9.955553E-1	9.696361E-1	9.764338E-1	9.768117E-1	9.879125E-1	9.612174E-1	9.724149E-1	9.530459E-1	9.746064E-1	9.730608E-1	9.893618E-1	9.738486E-1	9.770585E-1	9.434865E-1	1.017493E+0	9.520382E-1	9.682465E-1	9.277726E-1	9.643390E-1	9.239047E-1	9.542124E-1	9.592357E-1	1.014929E+0	9.648819E-1	9.287351E-1	9.460273E-1	9.900783E-1	9.800026E-1	1.063510E+0
2.995040E+2	1.024654E+0	1.006628E+0	1.042126E+0	1.034065E+0	1.002915E+0	1.046194E+0	1.006232E+0	9.438469E-1	1.022629E+0	1.035251E+0	9.944501E-1	1.035474E+0	1.022931E+0	1.000796E+0	1.041646E+0	1.029907E+0	1.017753E+0	1.018215E+0	1.008828E+0	9.794197E-1	9.912001E-1	1.050699E+0	1.062990E+0	9.720809E-1	1.009601E+0	1.018428E+0	9.951008E-1	1.027334E+0	1.071321E+0	1.027253E+0	1.037100E+0	1.045673E+0	1.041314E+0	1.034080E+0	1.056505E+0	9.520121E-1	9.694104E-1	9.845119E-1	1.006857E+0	9.960368E-1	1.003044E+0	1.044099E+0	9.963935E-1	9.636981E-1	1.024250E+0	1.067810E+0	1.010602E+0	1.028935E+0	9.640149E-1	1.036579E+0	9.895900E-1	1.052608E+0	1.002933E+0	1.066439E+0	1.010457E+0	1.008451E+0	1.048343E+0	1.037936E+0	9.924807E-1	1.017278E+0	9.980082E-1	1.007062E+0	1.028321E+0	1.012644E+0	9.918606E-1	1.014966E+0	1.015849E+0	9.955301E-1	1.026940E+0	1.043117E+0	1.026311E+0	1.007907E+0	1.014260E+0	1.033139E+0	9.651695E-1	9.891698E-1	1.014098E+0	1.011442E+0	1.029333E+0	1.027916E+0	1.018374E+0	1.043715E+0	9.767817E-1	1.037778E+0	1.000944E+0	9.819784E-1	1.003753E+0	1.032533E+0	1.053344E+0	1.042774E+0	1.003471E+0	1.010469E+0	1.021539E+0	9.958143E-1	1.016228E+0	9.906290E-1	1.040096E+0	1.039399E+0	1.045235E+0	1.045039E+0	1.042217E+0	1.042476E+0	1.024199E+0	1.047024E+0	1.021263E+0	9.744024E-1	1.026729E+0	1.063558E+0	9.958167E-1	1.033553E+0	1.006994E+0	1.015758E+0	9.792082E-1	9.773772E-1	1.021623E+0	1.013328E+0	9.796660E-1	1.062596E+0	1.058038E+0	1.054844E+0	1.019675E+0	9.936017E-1	9.934319E-1	1.039063E+0	1.039145E+0	1.003003E+0	9.800682E-1	1.028824E+0	1.062623E+0	1.022095E+0	9.943161E-1	9.843357E-1	1.033397E+0	9.952954E-1	1.013494E+0	9.937835E-1	9.855801E-1	9.833603E-1	1.014460E+0	9.765827E-1	9.788650E-1	1.065078E+0	1.026086E+0	1.028172E+0	1.009956E+0	9.642102E-1	1.048973E+0	1.014686E+0	1.077688E+0	1.031007E+0	1.024112E+0	1.045527E+0	9.961768E-1	1.000375E+0	9.820778E-1	1.020942E+0	1.056572E+0	9.764716E-1	1.023532E+0	1.005033E+0	1.033541E+0	9.992451E-1	1.053119E+0	9.959108E-1	1.008749E+0	1.013871E+0	1.024151E+0	9.880733E-1	9.855618E-1	1.042131E+0	1.042958E+0	1.020315E+0
3.000060E+2	1.091460E+0	1.118625E+0	1.126891E+0	1.068534E+0	1.088609E+0	1.076109E+0	1.081587E+0	1.137078E+0	1.080396E+0	1.064554E+0	1.088859E+0	1.075654E+0	1.103202E+0	1.076573E+0	1.064518E+0	1.089362E+0	1.102305E+0	1.080693E+0	1.079579E+0	1.111415E+0	1.111610E+0	1.034713E+0	1.065925E+0	1.079854E+0	1.085301E+0	1.045621E+0	1.113476E+0	1.107802E+0	1.094810E+0	1.026010E+0	1.060489E+0	1.051968E+0	1.097092E+0	1.084618E+0	1.125634E+0	1.094246E+0	1.125171E+0	1.074175E+0	1.108983E+0	1.107556E+0	1.079446E+0	1.048253E+0	1.096530E+0	1.124608E+0	1.103660E+0	1.087071E+0	1.078402E+0	1.073596E+0	1.081315E+0	1.108576E+0	1.089424E+0	1.080055E+0	1.093166E+0	1.060988E+0	1.090918E+0	1.091479E+0	1.082990E+0	1.038161E+0	1.071886E+0	1.086755E+0	1.089907E+0	1.054048E+0	1.076650E+0	1.102631E+0	1.049988E+0	1.093581E+0	1.110852E+0	1.118291E+0	1.053045E+0	1.049573E+0	1.033208E+0	1.058477E+0	1.118627E+0	1.112421E+0	1.120407E+0	1.091410E+0	1.083834E+0	1.064846E+0	1.033999E+0	1.098987E+0	1.106437E+0	1.035356E+0	1.074487E+0	1.070447E+0	1.089568E+0	1.077225E+0	1.081830E+0	1.055222E+0	1.051374E+0	1.075189E+0	1.103039E+0	1.082716E+0	1.094915E+0	1.127569E+0	1.059664E+0	1.152565E+0	1.078767E+0	1.078463E+0	1.056224E+0	1.071009E+0	1.105390E+0	1.088505E+0	1.069395E+0	1.108147E+0	1.103147E+0	1.098790E+0	1.075643E+0	1.086652E+0	1.101504E+0	1.083338E+0	1.101744E+0	1.078725E+0	1.118559E+0	1.057291E+0	1.114857E+0	1.110408E+0	1.084241E+0	1.041904E+0	1.134010E+0	1.105956E+0	1.070514E+0	1.106751E+0	1.103446E+0	1.029350E+0	1.107536E+0	1.080778E+0	1.079508E+0	1.084577E+0	1.016762E+0	1.055122E+0	1.049754E+0	1.086699E+0	1.095690E+0	1.060892E+0	1.071340E+0	1.077073E+0	1.097465E+0	1.055210E+0	1.077406E+0	1.075164E+0	1.125628E+0	1.065532E+0	1.127397E+0	1.065443E+0	1.085956E+0	1.061691E+0	1.086618E+0	1.088862E+0	1.082915E+0	1.114209E+0	1.068008E+0	1.066574E+0	1.121938E+0	1.082323E+0	1.047420E+0	1.068450E+0	1.053086E+0	1.065258E+0	1.075445E+0	1.085091E+0	1.131313E+0	1.082624E+0	1.079858E+0	1.120562E+0	1.074814E+0	1.028693E+0	1.135778E+0	1.089788E+0	1.139869E+0	1.045101E+0	1.114794E+0	9.906605E-1
