Photon Energy (eV)	#1	#2	#3	#4	#5	#6	#7	#8	#9	#10	#11	#12	#13	#14	#15	#16	#17	#18	#19	#20	#21	#22	#23	#24	#25	#26	#27	#28	#29	#30	#31	#32	#33	#34	#35	#36	#37	#38	#39	#40	#41	#42	#43	#44	#45	#46	#47	#48	#49	#50	#51	#52	#53	#54	#55	#56	#57	#58	#59	#60	#61	#62	#63	#64	#65	#66	#67	#68	#69	#70	#71	#72	#73	#74	#75	#76	#77	#78	#79	#80	#81	#82	#83	#84	#85	#86	#87	#88	#89	#90	#91	#92	#93	#94	#95	#96	#97	#98	#99	#100	#101	#102	#103	#104	#105	#106	#107	#108	#109	#110	#111	#112	#113	#114	#115	#116	#117	#118	#119	#120	#121	#122	#123	#124	#125	#126	#127	#128	#129	#130	#131	#132	#133	#134	#135	#136	#137	#138	#139	#140	#141	#142	#143	#144	#145	#146	#147	#148	#149	#150	#151	#152	#153	#154	#155	#156	#157	#158	#159	#160	#161	#162	#163	#164	#165	#166	#167	#168	#169	#170	#171	
2.790040E+2	-1.931118E-4	-3.358277E-3	-3.636342E-3	-3.078717E-3	-5.333509E-3	-3.390936E-3	-6.586710E-3	-6.804739E-3	-9.306406E-3	6.005320E-4	-1.297303E-3	-3.232234E-3	-9.310571E-3	-5.056793E-3	-3.136731E-4	-7.410708E-3	-8.131064E-3	-5.292745E-4	1.657763E-3	1.016627E-3	-4.015014E-3	-5.087357E-3	-7.330913E-3	-4.428389E-3	3.403334E-3	3.328826E-3	4.534198E-3	-8.278875E-3	1.803974E-3	1.054787E-3	-2.344124E-3	-2.377120E-3	-4.995996E-3	9.604206E-4	-6.755639E-3	-2.523117E-3	1.135734E-3	1.798673E-3	-3.650576E-4	-1.334653E-3	-5.297642E-3	-3.152779E-3	4.813165E-4	1.997665E-3	-6.289314E-3	-3.023675E-3	-2.724799E-3	-1.801992E-3	-4.072103E-3	-1.459248E-3	-4.027368E-3	-6.133323E-3	3.742769E-3	8.206437E-4	-2.968321E-3	-9.875999E-5	-6.993006E-3	-5.439497E-3	-5.732908E-3	7.067005E-3	-1.063465E-3	-6.475868E-3	-7.314989E-3	-4.813523E-3	-9.642562E-3	-4.910986E-3	-1.870018E-3	-2.166663E-3	-2.901260E-3	-5.440085E-3	2.211654E-3	1.450561E-3	7.917560E-3	-6.967751E-3	3.531259E-3	-1.064524E-2	-4.638378E-3	-9.545686E-4	-2.524354E-3	-2.861489E-3	-6.700563E-3	-5.333485E-3	-3.274974E-3	-6.191329E-3	3.057412E-3	-4.594175E-3	-1.619633E-3	-9.992820E-3	-6.763369E-3	2.978355E-3	-1.113946E-2	-5.769411E-3	-1.910169E-4	8.302992E-4	-2.555878E-4	-6.307669E-3	2.938365E-4	-2.111193E-3	-4.833369E-3	-1.329332E-3	-1.569623E-3	2.118472E-3	-2.952476E-3	-2.278211E-3	-3.041572E-3	-5.570462E-4	-5.032498E-3	-2.919765E-3	-3.767605E-3	-2.158594E-3	-1.067890E-2	-9.355430E-3	8.466276E-4	-1.814851E-4	-7.900498E-3	2.715678E-3	-4.388795E-3	1.250248E-3	-7.559749E-3	3.135216E-3	-1.519716E-3	-2.499801E-3	-2.778043E-3	7.739532E-4	2.727165E-3	-2.267441E-3	-6.680745E-3	-4.408390E-3	2.420325E-3	2.327952E-3	-7.993617E-3	-1.083471E-2	6.665779E-4	-2.564846E-3	1.657422E-3	-4.048580E-3	9.472559E-5	3.537384E-3	7.019648E-4	2.060487E-4	3.451812E-3	-4.890114E-3	-1.177218E-3	-2.511343E-3	-3.678355E-3	-9.082957E-3	-3.706906E-3	-9.783310E-3	-1.842965E-3	-1.207993E-3	1.006832E-3	1.821223E-3	4.422576E-3	3.650331E-3	-6.053772E-9	8.895676E-3	-2.392985E-3	3.047764E-3	2.442779E-3	1.752911E-3	1.022583E-4	-8.661027E-3	9.041968E-4	-7.441027E-3	-3.782689E-3	-8.236205E-3	9.186337E-4	-1.132280E-2	-5.776422E-3	-8.103462E-3	-1.545861E-2
2.795020E+2	-9.655591E-4	-8.307314E-3	5.194558E-4	-4.838012E-3	-2.580728E-3	-8.022501E-3	-2.533361E-3	-3.235040E-3	3.336290E-3	-1.458434E-3	-1.236775E-2	-3.232205E-3	1.330064E-3	-4.145184E-4	-4.705152E-3	-4.715883E-3	-5.207549E-3	-6.175379E-3	-4.236537E-3	2.033309E-4	-4.644830E-3	-3.149286E-3	5.331560E-3	3.444326E-3	-7.634541E-3	-4.808293E-3	-2.309849E-3	-3.248687E-3	-1.803973E-3	-4.794950E-4	-3.594324E-3	1.848862E-3	9.251907E-4	3.055776E-3	4.993301E-3	-3.364203E-3	-6.814573E-4	-8.211467E-3	-5.475774E-3	6.057248E-3	4.489434E-4	-5.445652E-3	-3.369385E-3	-3.049089E-3	1.220308E-3	5.335783E-4	1.362417E-3	3.003312E-3	-1.939077E-4	-7.639700E-3	-7.170695E-3	4.497768E-3	3.062279E-3	1.640983E-4	-1.436277E-3	-8.001564E-3	-1.180633E-3	3.424866E-3	-6.484753E-3	-1.013959E-2	-3.899314E-3	-4.804669E-3	1.700945E-4	-5.489106E-3	-1.928520E-3	-4.910976E-3	-4.007269E-3	-8.769832E-3	-2.901300E-3	-2.092358E-3	-5.573415E-3	-4.351736E-3	-7.731244E-3	-2.322582E-3	-5.885430E-3	-7.337987E-3	-7.936807E-3	1.128122E-3	-9.015465E-3	-2.188179E-3	-1.058493E-2	2.924791E-3	-3.274998E-3	-1.018576E-2	-1.019135E-3	-2.693136E-3	-7.288429E-3	-3.268701E-3	1.312276E-3	3.772553E-3	5.908766E-3	-2.412675E-3	-2.482978E-3	-1.383795E-3	3.152042E-3	3.504277E-3	2.938221E-4	3.262731E-3	2.126702E-3	3.067529E-4	-9.087092E-4	-1.948970E-3	9.528675E-5	-6.240282E-3	-6.285908E-3	-2.785163E-3	-6.642952E-3	-4.530671E-3	-3.767600E-3	-4.921566E-3	-6.060998E-3	9.440994E-4	8.465760E-4	-6.714663E-3	-7.900453E-3	-4.804669E-3	-2.984374E-3	-2.750541E-3	-2.721456E-3	-2.090443E-4	1.722338E-3	1.203627E-3	-4.310772E-3	7.739370E-4	-4.545312E-3	-9.237681E-4	8.454989E-5	-7.935097E-3	-1.613584E-3	-1.969806E-3	-1.598745E-3	-4.354121E-3	-5.999325E-3	-4.616699E-3	-6.142129E-3	-6.418490E-3	3.126698E-3	-1.051684E-3	-4.111384E-3	-6.386943E-3	-4.218875E-3	3.203874E-3	-6.248321E-3	5.381454E-3	-9.736743E-3	1.412903E-3	-7.413817E-3	1.521837E-3	-3.685997E-4	-4.646296E-4	2.745904E-4	1.071095E-4	-4.001382E-3	-4.803081E-3	-2.165262E-3	-9.329582E-3	7.178975E-3	-5.079561E-3	-6.317565E-3	-3.413601E-3	5.828397E-3	-7.864618E-3	-6.329750E-3	-4.889796E-3	2.269627E-3	-1.647253E-3	1.020693E-4	3.774240E-3	6.455995E-3	-4.174534E-3	1.030574E-3
2.800050E+2	5.793355E-4	1.590756E-3	-4.467535E-3	3.078723E-3	8.602355E-4	-8.269434E-5	-2.533371E-3	-5.577864E-4	-2.985079E-3	-7.720797E-4	-6.053908E-4	3.036319E-3	-2.660163E-3	9.118604E-4	6.587206E-3	6.737110E-4	2.101280E-3	9.351284E-3	3.868105E-3	-3.863127E-3	-1.495791E-3	-5.652641E-4	-6.664448E-4	-3.641142E-3	-2.483523E-3	-2.589058E-3	2.480991E-3	-4.087074E-3	-6.133522E-3	3.356259E-3	7.813786E-4	2.553206E-3	-6.476294E-3	-6.722727E-3	-8.322197E-3	-4.205208E-3	-3.104423E-3	2.424337E-3	-1.277683E-2	1.950643E-3	-9.877140E-4	2.197388E-3	2.021629E-3	3.679980E-3	-1.032560E-3	-8.003778E-3	2.043594E-3	-3.861470E-3	-1.938746E-4	-2.146015E-3	3.045122E-3	-1.226668E-3	-1.701286E-3	1.477105E-3	-5.266321E-3	6.914742E-4	2.724342E-4	3.424885E-3	2.819579E-4	-3.072376E-4	3.190370E-3	-2.297907E-3	-3.232218E-3	2.617894E-3	3.857035E-4	-1.002493E-4	9.795652E-4	-3.817468E-3	-2.486932E-4	-4.770557E-3	-1.326994E-3	6.217026E-4	-6.240902E-3	2.322592E-3	-4.315986E-3	-4.857564E-3	5.256837E-3	-2.343012E-3	-6.851789E-3	1.178257E-3	-5.923671E-3	8.602674E-4	6.946996E-4	-5.392464E-3	-3.057396E-3	4.752680E-4	-4.049134E-3	-7.004319E-3	7.772831E-3	-2.581254E-3	-4.165170E-3	7.657563E-3	-2.482941E-3	-2.859892E-3	-2.981675E-3	-3.504219E-3	-5.973955E-3	1.919077E-4	-1.933653E-4	3.067629E-4	-1.569595E-3	-2.626906E-3	-7.524074E-3	-1.485827E-3	2.636022E-3	-1.299779E-3	-1.006532E-3	4.329282E-3	-7.733494E-3	-7.770960E-4	1.087130E-2	-3.175708E-3	2.539839E-3	9.255331E-3	-4.236491E-3	1.044556E-3	1.931086E-3	-2.750536E-3	7.761287E-3	-4.389339E-3	1.722319E-3	-2.499783E-3	-5.843472E-3	-2.764175E-3	-5.353358E-3	-2.939275E-3	-5.327695E-3	-1.763251E-4	-2.420354E-3	-1.969806E-3	4.796191E-3	-1.113842E-3	3.332950E-3	2.906818E-3	8.774401E-4	-4.838565E-3	5.400644E-3	-9.464938E-3	-8.122487E-3	-2.266328E-3	4.218845E-3	2.529353E-3	2.717038E-4	-1.076314E-3	-2.812821E-3	2.220280E-3	-1.482735E-3	5.000346E-3	-4.054560E-3	-4.646069E-4	-4.576061E-4	-5.892248E-3	2.106150E-4	-6.340042E-3	5.052313E-3	-5.858122E-3	-2.393000E-3	9.234788E-5	-1.600431E-3	-6.365900E-3	1.738307E-3	5.674488E-3	-4.722194E-3	-1.488188E-3	-5.127613E-3	-3.111481E-3	7.451293E-3	-1.617558E-3	-7.135567E-3	3.683395E-3	5.152884E-3
2.805030E+2	-1.931118E-4	-3.358277E-3	5.506497E-3	-4.398138E-4	8.602313E-4	3.225552E-3	3.141381E-3	-1.450177E-3	-5.794558E-3	6.005320E-4	1.470271E-3	6.170634E-3	-3.325211E-3	-5.719957E-3	-5.959820E-3	-4.042198E-3	-1.553121E-3	9.351293E-3	-1.289378E-3	-6.099407E-4	2.912863E-3	1.372783E-3	4.665109E-3	-6.002959E-3	-2.483478E-3	-1.109585E-3	-2.309857E-3	-2.410304E-3	-3.968752E-3	2.589102E-3	-4.844524E-3	-8.716053E-3	-5.551081E-4	-3.230422E-3	-2.056074E-3	-2.523132E-3	-1.892925E-3	-2.580760E-3	-1.095138E-3	3.593293E-3	-2.424336E-3	3.726017E-3	-2.599219E-3	-5.572471E-3	-1.783543E-3	-1.778551E-4	-2.043585E-3	-1.115490E-3	3.684301E-3	1.287605E-3	6.875890E-4	-2.862205E-3	-4.423268E-3	-3.118324E-3	8.617879E-4	5.433144E-3	2.724697E-4	-3.021970E-3	-4.699284E-4	-3.584720E-3	-1.772436E-3	1.775643E-2	-5.103314E-4	3.293457E-3	4.242750E-3	-9.019988E-4	2.671423E-4	-2.992020E-3	-6.217026E-3	1.924957E-3	-6.193087E-4	-9.325160E-3	4.657423E-4	-3.096779E-3	-1.177083E-3	1.167880E-2	3.092470E-4	-3.037242E-3	1.081879E-3	-5.554590E-3	2.913665E-4	-3.957079E-3	-9.926217E-5	8.987392E-3	-1.019118E-3	3.009955E-3	4.049118E-3	3.455492E-3	-4.340653E-3	-3.375471E-3	-3.390235E-3	-4.930203E-3	3.628944E-3	5.996461E-3	6.559710E-3	3.504238E-3	7.344984E-3	-1.343490E-3	4.446732E-3	-2.147455E-3	-2.891371E-3	-6.016441E-3	1.619113E-3	-4.655467E-3	-2.230469E-3	-2.785167E-3	3.019507E-3	3.020565E-4	2.577823E-3	-4.230808E-3	-4.521692E-3	5.063973E-3	1.936645E-8	3.448060E-3	-1.488478E-3	3.551283E-3	-1.755655E-4	5.834448E-4	5.039777E-4	8.987696E-3	-1.519692E-3	6.388328E-3	-7.376187E-3	-7.186839E-3	-5.050253E-4	5.794591E-3	-1.945035E-3	-1.587034E-3	5.647459E-3	1.611638E-3	-6.394886E-3	3.746580E-3	3.332983E-3	-1.196884E-3	-2.242377E-3	1.017084E-2	-5.969113E-3	4.780395E-4	5.515221E-3	-6.181136E-4	-3.835245E-4	-1.517639E-3	2.444972E-3	-3.228907E-3	9.303935E-3	-5.046093E-3	7.413723E-4	5.870004E-3	-1.842987E-3	1.022143E-3	-4.850964E-3	-3.321002E-3	3.580209E-3	-1.921371E-4	1.443526E-3	1.084828E-3	-7.976739E-4	2.308909E-3	2.442787E-3	3.229072E-3	-3.987871E-3	1.692384E-3	-4.722174E-3	-8.291394E-3	1.597116E-3	2.013287E-3	9.186835E-4	3.774273E-3	5.096841E-3	1.350576E-2	1.751976E-2
2.810070E+2	5.793355E-4	1.590760E-3	-4.467519E-3	-4.398191E-4	-3.268897E-3	-1.405994E-3	-2.533346E-3	-5.577700E-4	-1.756088E-4	-8.580943E-5	4.929813E-3	-7.933663E-3	2.660166E-3	-1.077686E-3	-4.077798E-3	2.021089E-3	-9.135902E-5	-6.881143E-3	-2.762951E-3	3.456452E-3	-9.053461E-3	-3.795305E-3	-6.664692E-4	-2.066606E-3	-3.955262E-3	1.849334E-3	-5.731897E-3	6.811751E-3	-3.607923E-4	-2.780855E-3	6.407281E-3	1.848875E-3	3.885779E-3	3.754253E-3	1.077004E-3	8.410252E-4	-4.315869E-3	2.424375E-3	8.396209E-3	-8.726568E-3	-4.579340E-3	2.197351E-3	-1.058972E-3	-1.366867E-3	-4.787389E-3	-8.892971E-4	1.362380E-3	1.630382E-3	1.357354E-3	2.660989E-3	-2.455743E-3	-4.497772E-3	-2.381734E-3	-6.400779E-3	8.617739E-4	-8.791832E-3	-3.360293E-3	-5.439536E-3	-4.699100E-4	-3.584715E-3	1.772424E-3	-8.982671E-3	2.891981E-3	-2.111191E-3	-3.857388E-4	-1.002150E-4	-6.144442E-3	5.261915E-3	2.403918E-3	2.594525E-3	5.750364E-3	9.739611E-3	-2.794399E-4	-1.548381E-3	-1.961815E-3	-8.164816E-3	-3.813760E-3	-2.603469E-4	8.294229E-3	-8.416079E-4	7.283191E-3	-3.957113E-3	5.458330E-3	2.596385E-3	1.019097E-3	5.544692E-3	3.239275E-3	-1.774480E-3	-5.148215E-3	-5.758155E-3	1.259240E-3	5.139995E-3	3.628954E-3	9.227098E-5	-4.344740E-3	-2.803437E-3	-1.273130E-3	-8.252830E-3	-5.606759E-3	2.760971E-3	1.073921E-3	2.118476E-3	-1.133368E-2	-6.933571E-4	-6.083436E-4	-1.299743E-3	3.824766E-3	3.020172E-4	-3.767595E-3	-2.158594E-3	8.658635E-4	7.123831E-3	-1.693264E-3	-3.811030E-3	7.671487E-3	-6.475883E-3	4.037677E-3	6.584637E-3	-2.721485E-3	-1.274995E-2	-3.140707E-3	-6.203144E-3	3.352815E-3	-2.764149E-3	1.919119E-3	-1.595611E-3	-5.919276E-4	3.350364E-3	-1.613565E-3	-4.118647E-3	6.394893E-3	-3.037977E-4	-2.666361E-3	-1.196934E-3	-1.462419E-3	-4.048585E-3	-6.632548E-4	-1.816478E-3	-3.309172E-3	1.854278E-3	-3.835198E-4	5.058756E-4	-4.528146E-4	1.076289E-3	-8.005760E-3	2.220275E-3	4.448316E-3	-6.304769E-3	2.580176E-3	-2.694762E-3	-8.512076E-3	3.535294E-3	-4.001418E-3	-1.921231E-4	-4.330557E-3	1.952688E-3	-5.583617E-3	-2.863023E-3	-4.295942E-3	-2.675527E-3	-6.441922E-3	-6.271785E-3	-7.032810E-4	-6.378051E-4	4.287030E-3	-2.379361E-3	-5.613966E-3	-7.009296E-3	-3.397988E-4	-4.174510E-3	-1.133630E-2
2.815030E+2	1.351783E-3	3.711775E-3	3.844148E-3	8.356566E-3	3.613013E-3	3.225539E-3	4.762685E-3	7.474046E-3	5.267985E-4	-2.831083E-3	-3.373041E-3	6.856068E-4	7.315433E-3	2.486932E-4	-4.077779E-3	5.389607E-3	1.370412E-3	-5.293520E-4	-6.446870E-3	-3.049790E-3	-1.495799E-3	4.602843E-3	-5.331548E-3	4.231606E-3	-2.759325E-4	-5.548019E-3	-5.731897E-3	6.811705E-3	2.525573E-3	-5.082332E-3	-2.344140E-3	1.144540E-3	-2.035393E-3	2.619050E-4	8.909622E-3	1.539108E-8	1.135771E-3	1.173069E-3	2.555367E-3	-2.155952E-3	-6.015971E-3	-3.917047E-3	-5.679769E-3	-2.207940E-3	-4.036428E-3	4.090840E-3	-5.449592E-3	-3.174947E-3	-1.745193E-3	-2.146003E-3	8.545863E-3	2.044440E-3	3.062259E-3	2.790092E-3	8.617412E-4	1.481781E-3	-6.266444E-3	-3.827809E-3	-4.699146E-4	1.331461E-3	-1.063469E-3	2.089170E-4	6.974789E-3	4.644664E-3	5.014164E-3	-9.020037E-4	3.116756E-3	6.087292E-3	1.077608E-3	6.611795E-3	-4.865682E-3	-2.693969E-3	-4.750524E-3	6.193541E-3	-1.177069E-3	-2.377076E-3	1.133805E-3	3.210804E-3	-3.605940E-4	8.584393E-3	2.621962E-3	2.924829E-3	-7.244710E-3	2.596365E-3	3.736868E-3	3.009978E-3	3.239294E-3	-2.801906E-4	2.119843E-3	-3.375427E-3	2.034118E-3	-1.573462E-3	-4.010946E-3	9.225747E-5	1.107489E-3	1.401681E-3	2.644241E-3	1.727333E-3	-9.666945E-4	7.669491E-3	-1.569575E-3	-3.982741E-3	4.666820E-3	4.061170E-3	-5.474825E-3	1.671129E-3	6.038926E-4	-5.034062E-4	-4.560787E-3	-8.634260E-5	3.944465E-3	-3.175666E-3	-1.693238E-3	-1.814807E-4	3.435247E-4	4.386862E-3	1.228860E-3	-8.084902E-3	-9.978838E-3	-1.045048E-3	4.964383E-3	8.610303E-3	5.651847E-3	-1.104954E-4	1.919124E-3	3.107217E-3	4.820309E-3	6.877071E-3	-1.613525E-3	-1.969793E-3	7.993889E-4	-3.037927E-4	-3.332956E-3	6.326553E-3	3.997281E-3	1.481171E-3	-1.421217E-3	-1.051661E-3	2.306419E-3	5.150776E-3	-4.218875E-3	-2.866616E-3	9.961339E-4	4.664012E-3	5.842069E-3	-1.009218E-3	1.482743E-3	-3.695945E-3	2.580176E-3	-4.645706E-4	-2.654325E-3	-3.321033E-3	-2.316580E-3	-4.803077E-3	2.165276E-3	6.292034E-3	-3.988282E-3	-2.124209E-3	1.768915E-3	-4.151643E-3	-7.157785E-4	6.470897E-3	2.511792E-3	1.466944E-2	-5.800087E-3	-3.843566E-3	-3.980852E-3	-3.774294E-3	-3.058106E-3	-8.103474E-3	9.275143E-3
2.820030E+2	5.793355E-4	8.837478E-4	-3.636373E-3	-6.597286E-3	-1.204322E-3	2.563880E-3	7.093211E-4	1.227115E-3	3.336235E-3	-8.580943E-5	4.237900E-3	6.170619E-3	2.660179E-3	4.227834E-3	9.410211E-4	6.736699E-4	3.563055E-3	-5.469627E-3	3.131390E-3	-6.099953E-4	1.047050E-2	-5.652680E-4	3.998711E-3	1.082490E-3	4.139181E-3	2.589055E-3	2.480945E-3	-2.410273E-3	5.411907E-3	2.877045E-4	7.813786E-4	4.401871E-4	6.846363E-3	-1.135011E-3	-5.189162E-3	7.569412E-3	3.558722E-3	-5.708921E-3	-3.650665E-4	-1.334653E-3	1.122386E-2	6.018890E-3	7.412609E-3	3.679928E-3	6.477080E-3	9.782381E-3	3.406000E-3	3.689831E-3	-9.695694E-4	5.407918E-3	4.616738E-3	2.862206E-3	3.742756E-3	1.640983E-4	3.925833E-3	1.096515E-2	4.631732E-3	9.065901E-3	2.819625E-4	3.789532E-3	3.899346E-3	1.044486E-3	-5.103646E-4	5.995764E-3	-1.928482E-3	7.115912E-3	1.691940E-3	-1.341280E-3	4.144819E-4	5.942248E-3	-6.192655E-4	-2.072570E-4	7.917551E-3	-3.096774E-3	3.531221E-3	1.498602E-2	3.607600E-3	1.128122E-3	3.966811E-3	-1.514877E-3	3.398778E-3	-5.161546E-4	5.458369E-3	4.194153E-3	-1.698587E-3	-5.861536E-3	8.098330E-4	4.949735E-3	-7.570891E-3	6.949526E-3	3.584013E-3	-5.769427E-3	-9.549915E-4	-7.288052E-3	2.470554E-3	7.008776E-4	-4.407050E-3	4.798161E-3	2.126674E-3	-7.055895E-3	5.039245E-3	6.863858E-3	-1.428655E-3	7.230809E-3	1.074690E-2	4.641925E-3	3.019502E-3	2.718401E-3	1.130280E-2	1.985892E-3	-6.734233E-4	2.317414E-3	-8.466187E-3	-9.073657E-4	4.007464E-3	-2.297917E-3	-2.984378E-3	-5.417731E-3	5.039924E-4	-2.090086E-4	-7.092089E-4	-9.165802E-3	4.119203E-3	5.196590E-3	1.919144E-3	-9.237558E-4	7.526401E-3	5.290033E-4	3.227109E-3	8.953674E-4	6.394874E-3	9.417076E-3	1.999780E-3	8.549646E-4	3.217304E-3	2.271160E-3	-1.421217E-3	-3.346211E-3	1.504173E-3	-3.090450E-3	-3.835666E-4	3.878396E-3	2.716773E-4	-1.793835E-3	6.707556E-3	4.642391E-3	-7.413915E-4	1.521827E-3	1.142645E-2	3.252275E-3	3.203448E-3	1.821228E-3	-1.474218E-3	9.029761E-3	-5.774093E-3	-2.386615E-3	4.785937E-3	2.308900E-3	1.095027E-3	6.181363E-3	3.374341E-3	8.063691E-3	4.119378E-3	4.464594E-3	6.976912E-3	4.941751E-3	3.368342E-3	7.009347E-3	5.096849E-3	3.683383E-3	9.275168E-3
2.825030E+2	-1.738006E-3	7.246831E-3	6.337669E-3	3.958358E-3	7.053976E-3	3.887155E-3	5.573401E-3	3.904352E-3	1.106233E-2	4.032151E-3	7.005496E-3	-1.665077E-3	1.330104E-3	6.880567E-3	1.160599E-2	7.410711E-3	7.948346E-3	8.821988E-4	6.078478E-3	3.456442E-3	7.321533E-3	7.186854E-3	-6.097967E-9	7.380673E-3	9.290221E-3	6.287740E-3	6.587367E-3	6.811756E-3	2.525586E-3	1.054829E-3	5.157074E-3	3.257503E-3	2.405458E-3	3.055805E-3	7.343145E-3	4.205208E-3	4.164448E-3	8.680694E-3	9.126289E-3	1.950643E-3	7.632199E-3	-1.624169E-3	2.791790E-3	2.838794E-3	1.023185E-2	-2.312194E-3	2.043585E-3	1.630374E-3	2.132992E-3	4.034454E-3	-3.241507E-3	5.315554E-3	-5.103774E-3	4.103066E-3	3.159783E-3	-1.679397E-3	1.262374E-2	1.813158E-3	1.306349E-2	5.428266E-3	-1.063456E-3	3.551279E-3	1.531038E-3	-4.137960E-3	4.242684E-3	4.710517E-3	5.966326E-3	7.738057E-3	8.372271E-3	-4.770525E-3	5.042648E-3	4.766248E-3	2.701257E-3	8.516135E-3	7.454903E-3	6.717870E-3	6.081455E-3	1.128122E-3	5.409283E-3	3.198093E-3	9.613868E-3	7.053944E-3	2.282546E-3	3.395254E-3	-1.019143E-3	1.108954E-3	1.619676E-3	1.391528E-2	1.261818E-2	1.389873E-3	5.908733E-3	7.657620E-3	2.864974E-3	4.520449E-3	-5.707792E-3	3.504251E-3	1.077251E-3	1.727380E-3	2.900079E-3	-5.112947E-4	2.395709E-3	3.474253E-3	1.685767E-2	4.061165E-3	4.258192E-3	2.413844E-3	2.214312E-3	3.020860E-4	9.716457E-3	1.234711E-2	6.253386E-3	2.574858E-4	7.619628E-3	-9.073657E-4	9.503445E-3	1.880089E-3	3.335490E-3	1.058538E-2	1.421227E-2	6.479481E-3	-1.519716E-3	4.166272E-3	7.184608E-3	6.081179E-3	1.919144E-3	-2.519584E-4	2.114143E-3	3.350407E-3	-4.033865E-3	5.193094E-3	-2.398099E-3	3.746604E-3	2.666351E-3	-5.129721E-4	9.747749E-5	5.431054E-3	8.527337E-4	1.271555E-2	5.515265E-3	5.150731E-3	1.917704E-3	-8.431300E-4	3.893867E-3	-2.511356E-3	2.380119E-3	4.642420E-3	6.672419E-3	5.870009E-3	-8.477687E-3	1.022143E-3	1.199010E-2	5.249428E-3	3.580198E-3	3.650369E-3	3.608804E-3	-6.509066E-4	3.190646E-3	2.308873E-3	4.464431E-3	5.443325E-3	1.022683E-4	8.959700E-4	8.942032E-3	3.614175E-3	-4.202955E-4	1.226283E-2	-3.164203E-3	9.166084E-3	-3.397905E-4	3.683443E-3	-1.545861E-2
2.830060E+2	-1.738006E-3	1.078181E-2	9.662315E-3	4.838019E-3	8.430365E-3	4.548847E-3	1.205878E-2	1.372104E-2	7.550511E-3	6.005530E-4	2.162213E-3	4.603491E-3	1.130568E-2	1.815465E-2	5.332485E-3	7.410703E-3	9.410122E-3	1.640881E-2	1.491987E-2	4.269724E-3	5.432091E-3	7.832900E-3	9.996667E-3	6.593422E-3	3.403356E-3	7.027515E-3	1.480021E-2	1.100358E-2	-2.525563E-3	1.179475E-2	9.532727E-3	3.257486E-3	8.326667E-3	-3.230417E-3	-3.622599E-3	1.766188E-2	1.325053E-2	5.474510E-4	1.058652E-2	1.427060E-2	5.477226E-3	-9.554045E-5	1.511405E-2	5.362202E-3	7.978982E-3	1.049384E-2	1.294280E-2	1.741943E-2	2.540236E-2	4.721158E-3	5.402560E-3	8.586577E-3	9.867342E-3	4.103030E-3	1.005394E-2	1.017488E-2	3.905201E-3	8.260023E-3	2.819350E-4	2.099624E-2	5.317249E-3	1.942760E-2	6.294322E-3	1.266700E-3	1.041396E-2	4.710512E-3	5.966339E-3	3.094995E-4	4.393314E-3	5.272688E-3	2.211659E-3	7.252899E-3	1.015308E-2	-7.741752E-4	2.746561E-3	1.167874E-2	5.256827E-3	4.338706E-4	3.245590E-3	5.217978E-3	8.060055E-3	-5.161546E-4	5.458359E-3	-2.196951E-3	1.053111E-2	4.277316E-3	8.098271E-3	3.455455E-3	2.634676E-2	-4.963900E-3	1.055828E-2	8.496818E-3	4.392951E-3	8.210573E-3	4.515144E-3	1.611958E-2	2.938126E-4	1.477827E-2	1.218017E-2	2.239494E-2	1.627426E-2	7.626454E-4	6.190641E-3	-1.485808E-3	1.480230E-2	9.098226E-3	6.038533E-4	9.161975E-3	1.368236E-2	1.027484E-2	1.087129E-2	1.261689E-2	1.523915E-2	1.996263E-3	5.839545E-3	8.564837E-3	1.246420E-2	1.458619E-2	3.729416E-3	2.738100E-2	1.225898E-2	4.166231E-3	1.025003E-2	7.850248E-3	1.323186E-2	-2.519420E-4	5.496787E-3	6.877114E-3	1.532875E-2	7.341971E-3	4.796128E-3	6.986902E-3	5.999335E-3	6.326578E-3	7.117070E-3	1.017082E-2	2.359217E-2	6.596743E-3	1.032855E-2	9.271336E-3	1.879312E-2	7.925355E-3	8.964948E-3	1.112174E-2	4.976525E-3	-1.816580E-3	8.896580E-3	8.478882E-3	-3.686132E-4	1.440291E-2	7.596779E-3	8.677623E-3	1.368898E-2	6.724286E-3	1.154813E-2	1.410279E-2	7.976623E-3	1.043627E-2	2.442803E-3	1.799059E-2	1.073661E-2	9.955600E-5	1.537228E-2	4.464599E-3	3.614560E-3	1.153077E-2	3.368357E-3	1.887131E-2	3.737679E-3	1.350572E-2	1.030599E-3
2.835020E+2	5.793355E-4	5.125799E-3	6.337684E-3	1.099547E-2	1.462406E-2	1.315024E-2	9.626716E-3	1.461346E-2	1.668131E-2	1.501329E-2	4.929822E-3	2.027491E-2	8.645548E-3	1.616516E-2	1.097864E-2	7.410715E-3	1.452632E-2	1.782034E-2	1.491985E-2	1.890884E-2	9.210918E-3	1.623107E-2	8.663757E-3	1.052979E-2	2.179979E-2	1.294535E-2	1.274699E-2	1.100361E-2	1.190620E-2	1.332903E-2	5.157047E-3	8.187812E-3	1.720840E-2	1.143735E-2	1.282591E-2	2.018506E-2	1.325061E-2	1.243448E-2	1.058656E-2	1.427058E-2	2.487202E-2	1.433088E-3	9.723064E-3	2.050261E-2	1.173377E-2	1.476256E-2	9.536754E-3	7.808733E-3	2.152416E-2	1.708204E-2	7.760098E-3	4.497728E-3	2.075539E-2	4.103066E-3	6.223814E-3	9.384575E-3	1.698300E-2	9.871676E-3	7.800468E-3	1.689939E-2	1.240694E-2	9.400469E-3	1.105756E-2	1.072481E-2	7.328350E-3	2.234992E-2	6.678727E-3	2.507138E-2	1.740763E-3	1.464643E-2	2.061279E-2	1.637080E-2	1.238859E-2	2.322577E-3	1.451740E-2	1.333241E-2	1.102899E-2	9.458787E-3	8.294273E-3	1.397069E-2	1.116755E-2	1.049493E-2	1.180986E-2	5.791898E-3	1.936359E-2	1.188150E-2	3.239284E-3	1.615668E-2	2.634682E-2	-9.927964E-4	1.288308E-2	1.185350E-2	1.890875E-2	1.485285E-2	2.019029E-2	2.102575E-3	1.753012E-2	1.631373E-2	5.993428E-3	1.094179E-2	9.004537E-3	1.499875E-2	5.428719E-3	2.149434E-2	3.102408E-2	9.098208E-3	3.019458E-3	1.802195E-2	1.923458E-2	1.441929E-2	1.087130E-2	5.063915E-3	1.439254E-2	1.143307E-2	5.839489E-3	1.441403E-2	8.250910E-3	7.251428E-3	3.729495E-3	1.149589E-2	1.631145E-2	8.610262E-3	1.714724E-2	1.669556E-2	2.535266E-2	1.318477E-2	1.090913E-2	1.463588E-2	1.532876E-2	1.593743E-2	1.039170E-2	1.832783E-2	9.998902E-3	9.062410E-3	1.881645E-2	1.254072E-2	1.828634E-2	1.653973E-2	7.119685E-3	3.502502E-3	2.186141E-2	4.552872E-3	8.964935E-3	1.327435E-2	2.142084E-2	1.594564E-2	8.155214E-3	1.978406E-2	1.216364E-2	1.440293E-2	2.471220E-3	9.534714E-3	6.107368E-3	4.418807E-3	8.661162E-3	8.895633E-3	1.914387E-2	1.265275E-2	1.052930E-2	1.577636E-2	1.400866E-2	1.124935E-2	8.138232E-3	1.551979E-2	5.631967E-3	5.673899E-3	9.186486E-4	8.087666E-3	3.227998E-2	1.154128E-2	1.339748E-2
2.840000E+2	-1.738006E-3	1.997289E-2	1.464935E-2	2.682891E-2	1.393587E-2	1.645852E-2	2.502957E-2	2.443012E-2	1.878844E-2	1.775861E-2	7.697447E-3	1.870780E-2	2.527158E-2	2.346016E-2	2.101633E-2	2.425330E-2	1.744983E-2	3.193558E-2	2.155094E-2	2.460184E-2	2.369642E-2	1.752310E-2	2.132621E-2	2.470066E-2	1.370533E-2	2.626064E-2	2.232865E-2	2.777102E-2	1.767892E-2	1.409621E-2	1.265823E-2	2.227438E-2	2.312961E-2	1.562819E-2	1.909205E-2	3.027760E-2	2.294242E-2	2.369599E-2	3.102946E-2	2.741180E-2	2.199873E-2	2.359800E-2	2.204541E-2	1.629696E-2	2.525112E-2	2.543429E-2	2.792918E-2	2.840302E-2	1.997288E-2	1.227504E-2	2.347663E-2	2.657760E-2	1.939435E-2	2.248479E-2	2.307620E-2	3.230267E-2	2.788124E-2	1.390103E-2	1.607092E-2	1.853807E-2	1.595181E-2	3.196156E-2	1.922317E-2	2.085856E-2	3.509904E-2	2.876425E-2	2.448873E-2	2.094442E-2	2.826671E-2	1.397685E-2	2.415150E-2	1.471303E-2	2.505664E-2	2.245158E-2	8.239649E-3	1.581289E-2	1.680124E-2	2.403745E-2	9.736723E-3	2.878302E-2	2.748196E-2	1.462405E-2	2.848261E-2	1.617732E-2	2.072248E-2	1.758464E-2	3.158321E-2	1.242105E-2	2.715433E-2	6.155315E-3	9.008404E-3	1.185357E-2	2.884065E-2	2.075706E-2	2.836860E-2	2.172642E-2	1.831355E-2	2.475851E-2	2.068703E-2	1.830447E-2	2.156131E-2	1.703248E-2	1.457186E-2	1.911711E-2	2.859072E-2	1.578264E-2	1.026639E-2	2.446553E-2	2.240724E-2	2.408980E-2	1.933747E-2	2.016993E-2	2.116553E-2	2.086992E-2	1.225141E-2	3.363272E-2	1.597519E-2	1.992054E-2	2.469509E-2	2.320074E-2	2.603760E-2	9.350960E-3	3.247434E-2	2.907897E-2	2.292856E-2	1.385664E-2	2.579286E-2	2.309997E-2	3.549820E-2	2.166777E-2	1.678660E-2	1.832791E-2	9.332307E-3	1.590199E-2	2.115629E-2	2.123035E-2	4.329973E-2	1.883424E-2	2.075747E-2	2.245719E-2	2.569677E-2	2.411335E-2	2.345380E-2	3.695286E-2	3.613417E-2	2.401937E-2	1.408626E-2	3.282846E-2	1.363802E-2	2.332352E-2	1.052563E-2	3.010392E-2	2.800979E-2	1.825165E-2	5.774077E-3	1.844215E-2	1.754852E-2	1.117510E-2	1.322475E-2	1.503830E-2	2.791511E-2	1.523149E-2	2.421378E-2	3.848059E-2	2.647875E-2	3.495826E-2	2.623252E-2	2.318481E-2	2.412503E-2	3.315040E-2	3.813124E-2
2.841030E+2	-1.931118E-4	2.067993E-2	1.381820E-2	2.858818E-2	1.393590E-2	1.976676E-2	2.584023E-2	2.799987E-2	1.527651E-2	1.981756E-2	2.153543E-2	2.262563E-2	1.130569E-2	2.810246E-2	2.854454E-2	2.357960E-2	2.402776E-2	2.487798E-2	2.449810E-2	3.761440E-2	2.369642E-2	2.204514E-2	2.465844E-2	2.076431E-2	2.327146E-2	1.664411E-2	1.548464E-2	2.944774E-2	1.407097E-2	1.946622E-2	1.828408E-2	3.213508E-2	2.090917E-2	2.470825E-2	2.065862E-2	3.111858E-2	2.112517E-2	1.931651E-2	3.029932E-2	2.494776E-2	2.774538E-2	1.060479E-2	1.203351E-2	2.807272E-2	4.102132E-2	2.045411E-2	2.179834E-2	1.673292E-2	3.160754E-2	1.502188E-2	2.976330E-2	2.821316E-2	2.824087E-2	1.723293E-2	2.614023E-2	1.649709E-2	3.442014E-2	2.115371E-2	1.983020E-2	2.427369E-2	2.020561E-2	2.193440E-2	1.377941E-2	5.995785E-3	1.967088E-2	2.475530E-2	2.520106E-2	2.507136E-2	1.898261E-2	2.067231E-2	1.565862E-2	2.631761E-2	1.536933E-2	2.012903E-2	2.707302E-2	1.581286E-2	2.504726E-2	1.917792E-2	1.694911E-2	1.935700E-2	2.282070E-2	1.668868E-2	3.800990E-2	1.697624E-2	1.460761E-2	2.202037E-2	1.943583E-2	1.092676E-2	4.007537E-2	2.124562E-2	2.295702E-2	2.863735E-2	3.189660E-2	2.444728E-2	3.382084E-2	1.962390E-2	2.771523E-2	2.015224E-2	1.372686E-2	1.339606E-2	1.693516E-2	1.567663E-2	2.219120E-2	3.734271E-2	2.129093E-2	1.429723E-2	2.798092E-2	2.446551E-2	2.954596E-2	1.511008E-2	1.779820E-2	2.154319E-2	2.878510E-2	1.433675E-2	2.690734E-2	1.942758E-2	1.667744E-2	2.058738E-2	3.437155E-2	3.406952E-2	2.765861E-2	2.342373E-2	2.174538E-2	2.288728E-2	2.292853E-2	1.452845E-2	2.241017E-2	2.733204E-2	2.581686E-2	8.774590E-3	2.478019E-2	2.885877E-2	1.733140E-2	3.026508E-2	2.895584E-2	2.518020E-2	3.799390E-2	1.348030E-2	1.835081E-2	2.245723E-2	3.336739E-2	7.925380E-3	1.403608E-2	1.829705E-2	2.661375E-2	2.967100E-2	2.817248E-2	3.717659E-2	1.290079E-2	2.629708E-2	2.809900E-2	3.781736E-2	2.042816E-2	1.671467E-2	1.587872E-2	2.625297E-2	2.712044E-2	8.219700E-3	2.265898E-2	4.013293E-2	2.300691E-2	1.124943E-2	3.144779E-2	2.742535E-2	1.639157E-2	1.738764E-2	3.684796E-2	4.852598E-3	3.499826E-2	2.332812E-2	1.751971E-2
2.842030E+2	-9.655591E-4	1.855890E-2	3.044162E-2	3.562533E-2	2.288237E-2	2.572161E-2	4.934973E-2	3.513928E-2	3.424055E-2	2.324915E-2	2.914633E-2	3.359557E-2	3.524714E-2	4.003979E-2	3.607278E-2	3.233769E-2	4.010714E-2	2.064343E-2	2.302449E-2	3.842763E-2	3.188392E-2	2.462920E-2	3.198930E-2	5.068065E-2	3.504523E-2	3.143883E-2	3.259477E-2	4.705349E-2	2.922431E-2	3.174042E-2	2.203465E-2	3.213499E-2	3.423179E-2	2.331124E-2	3.319086E-2	3.616481E-2	2.657679E-2	2.870101E-2	3.394987E-2	4.383836E-2	2.415367E-2	3.659120E-2	3.975870E-2	4.068978E-2	4.627807E-2	3.254879E-2	3.542231E-2	2.977604E-2	4.246656E-2	1.982892E-2	4.469402E-2	4.375086E-2	3.708745E-2	3.298863E-2	4.375860E-2	3.388326E-2	3.659979E-2	4.210598E-2	2.960435E-2	3.000921E-2	3.863882E-2	4.031755E-2	2.330592E-2	3.572133E-2	5.592698E-2	3.116962E-2	3.161274E-2	4.157927E-2	2.495097E-2	3.071558E-2	2.910563E-2	3.958006E-2	3.027293E-2	3.329032E-2	3.962855E-2	3.813694E-2	4.978527E-2	2.750861E-2	1.694912E-2	3.012957E-2	4.768069E-2	3.182887E-2	1.657348E-2	2.975836E-2	3.227265E-2	1.124783E-2	3.239299E-2	2.960494E-2	3.684510E-2	1.489180E-2	2.993125E-2	3.451163E-2	3.495253E-2	3.182753E-2	3.313926E-2	3.854687E-2	4.025068E-2	2.015226E-2	4.079393E-2	5.839040E-2	2.750929E-2	2.042199E-2	4.200133E-2	2.704128E-2	5.049007E-2	2.989420E-2	3.683819E-2	5.587805E-2	3.906410E-2	3.721401E-2	3.319116E-2	4.351553E-2	4.148442E-2	1.941807E-2	3.973132E-2	3.029034E-2	3.212591E-2	3.859081E-2	4.243520E-2	3.824986E-2	4.467938E-2	2.490509E-2	3.860526E-2	3.350167E-2	3.666539E-2	1.990321E-2	2.105708E-2	3.509082E-2	3.146433E-2	2.596543E-2	3.117508E-2	4.668042E-2	3.332963E-2	2.616129E-2	4.065515E-2	5.361904E-2	4.026784E-2	2.265852E-2	3.599957E-2	3.317080E-2	5.024293E-2	2.613683E-2	3.069815E-2	3.695286E-2	4.911644E-2	3.613003E-2	2.668976E-2	4.152475E-2	4.165130E-2	3.447421E-2	1.491900E-2	5.667252E-2	2.632501E-2	1.825167E-2	3.608802E-2	4.968534E-2	3.589468E-2	2.890742E-2	2.737610E-2	4.825169E-2	4.182141E-2	3.673464E-2	3.225153E-2	3.933100E-2	4.194570E-2	3.861878E-2	5.236300E-2	2.857653E-2	2.004756E-2	2.529259E-2	2.576436E-2
2.843030E+2	-9.655591E-4	3.199199E-2	4.623372E-2	5.849584E-2	3.526986E-2	3.961622E-2	4.934983E-2	5.744991E-2	5.250224E-2	4.589777E-2	3.675726E-2	4.691638E-2	3.258702E-2	5.661943E-2	3.858219E-2	4.244330E-2	6.057192E-2	3.828737E-2	3.923371E-2	6.770589E-2	3.629257E-2	4.077953E-2	5.064973E-2	7.980976E-2	6.668714E-2	4.105535E-2	3.191030E-2	6.130579E-2	5.303672E-2	6.626175E-2	3.453663E-2	4.410857E-2	5.125515E-2	3.518520E-2	5.982180E-2	5.550887E-2	3.687440E-2	5.873153E-2	6.388415E-2	5.944349E-2	4.642182E-2	3.582689E-2	5.285113E-2	6.171798E-2	6.730495E-2	4.250904E-2	4.359675E-2	5.517578E-2	6.340895E-2	3.562334E-2	4.155072E-2	2.412430E-2	4.525350E-2	4.414899E-2	5.524878E-2	6.944583E-2	4.459180E-2	5.902891E-2	4.764886E-2	4.639647E-2	4.360159E-2	6.454983E-2	4.780267E-2	5.193521E-2	5.592703E-2	5.361971E-2	5.512182E-2	6.634105E-2	4.816118E-2	4.611523E-2	4.609125E-2	7.107827E-2	5.933492E-2	5.961291E-2	6.081609E-2	6.211458E-2	6.462809E-2	3.445082E-2	4.075007E-2	5.571450E-2	6.321820E-2	3.733444E-2	6.579771E-2	4.333932E-2	4.586117E-2	4.736758E-2	6.073693E-2	3.558197E-2	7.641571E-2	4.030715E-2	5.007910E-2	4.038598E-2	4.106448E-2	4.068390E-2	5.562968E-2	4.275196E-2	5.592009E-2	5.546673E-2	5.162085E-2	7.147970E-2	4.535316E-2	4.482669E-2	6.790692E-2	6.428505E-2	6.022306E-2	3.583585E-2	5.455273E-2	4.621278E-2	6.047984E-2	4.481220E-2	4.858417E-2	4.420223E-2	4.148443E-2	3.538806E-2	5.163923E-2	5.535825E-2	4.476564E-2	2.925573E-2	4.969252E-2	5.664320E-2	6.251058E-2	4.416256E-2	3.400710E-2	6.622927E-2	4.232173E-2	4.744849E-2	3.864693E-2	6.612593E-2	5.324727E-2	3.814245E-2	4.876096E-2	5.964151E-2	4.266195E-2	4.736390E-2	6.015408E-2	5.993870E-2	5.466945E-2	5.784122E-2	5.364842E-2	4.553259E-2	6.865255E-2	4.502278E-2	5.460467E-2	6.637166E-2	6.296431E-2	5.147009E-2	4.225877E-2	7.457058E-2	4.976045E-2	6.123585E-2	5.226226E-2	8.066986E-2	6.507547E-2	5.052838E-2	4.114038E-2	6.964631E-2	4.865727E-2	5.107286E-2	4.826619E-2	6.006086E-2	8.272271E-2	3.115973E-2	6.199134E-2	4.698459E-2	5.472274E-2	6.058204E-2	4.093090E-2	4.906541E-2	3.499831E-2	4.886635E-2	7.523192E-2
2.844030E+2	3.669129E-3	3.976906E-2	5.953252E-2	7.432935E-2	6.073296E-2	5.086430E-2	8.177672E-2	6.726661E-2	6.654965E-2	6.099691E-2	5.543859E-2	8.531127E-2	7.049432E-2	8.513633E-2	4.485567E-2	6.063326E-2	6.349542E-2	7.428097E-2	5.912693E-2	5.306676E-2	5.140788E-2	6.791202E-2	6.397865E-2	1.081515E-1	8.287601E-2	7.508321E-2	4.628280E-2	1.065777E-1	5.664460E-2	8.620740E-2	5.453977E-2	7.650770E-2	7.123916E-2	6.871162E-2	7.470380E-2	7.905804E-2	5.504658E-2	5.873147E-2	7.775614E-2	9.558194E-2	8.880303E-2	6.334192E-2	6.748385E-2	8.022287E-2	8.007141E-2	6.242956E-2	6.403263E-2	8.263495E-2	7.426799E-2	6.858568E-2	5.098064E-2	6.828407E-2	4.933648E-2	6.450021E-2	6.061086E-2	7.023606E-2	7.873947E-2	6.547580E-2	5.967855E-2	6.278379E-2	7.054237E-2	5.535825E-2	5.528777E-2	6.139339E-2	8.446902E-2	5.843047E-2	6.153346E-2	8.284901E-2	5.744527E-2	5.950623E-2	6.024592E-2	7.356485E-2	6.529636E-2	6.425804E-2	6.552445E-2	7.699734E-2	8.112000E-2	5.319482E-2	5.950230E-2	8.062613E-2	7.254069E-2	5.729193E-2	7.373720E-2	7.849005E-2	6.488507E-2	6.701164E-2	8.341210E-2	6.920277E-2	8.045357E-2	5.778011E-2	6.092798E-2	7.227525E-2	6.551217E-2	5.323042E-2	6.789721E-2	7.078608E-2	7.707370E-2	4.702194E-2	7.018107E-2	9.765824E-2	6.055355E-2	6.177443E-2	7.019268E-2	5.715328E-2	9.509970E-2	5.960268E-2	7.065685E-2	1.001779E-1	7.634347E-2	5.586415E-2	7.013435E-2	7.647417E-2	8.127558E-2	4.772850E-2	8.003513E-2	7.457699E-2	6.091640E-2	5.659439E-2	7.388370E-2	8.005290E-2	7.628926E-2	5.527271E-2	7.002585E-2	7.507465E-2	7.706813E-2	4.543294E-2	6.570828E-2	7.600073E-2	9.519965E-2	5.891481E-2	6.474823E-2	7.584295E-2	6.332631E-2	6.651469E-2	7.107343E-2	7.968798E-2	1.016644E-1	5.172246E-2	6.407728E-2	5.954253E-2	8.245976E-2	6.188518E-2	7.199130E-2	7.641710E-2	8.460140E-2	6.600283E-2	6.524163E-2	8.239720E-2	6.597860E-2	7.089980E-2	6.544229E-2	8.752630E-2	8.613545E-2	5.667625E-2	6.640208E-2	8.353214E-2	7.178940E-2	6.732751E-2	5.972203E-2	8.294124E-2	6.881626E-2	6.938781E-2	6.199130E-2	6.314217E-2	5.405025E-2	6.204630E-2	7.359393E-2	8.465129E-2	8.800540E-2	9.208478E-2	8.347652E-2
2.845010E+2	5.793355E-4	5.744414E-2	6.867530E-2	6.641252E-2	6.692662E-2	5.946572E-2	1.174463E-1	8.600753E-2	7.357334E-2	7.815494E-2	8.311473E-2	9.001273E-2	7.913985E-2	9.176821E-2	6.304892E-2	7.949693E-2	8.322935E-2	9.474802E-2	7.607299E-2	7.583866E-2	6.526361E-2	9.375252E-2	8.730421E-2	1.223226E-1	1.123103E-1	8.396006E-2	7.913422E-2	1.300521E-1	9.128081E-2	1.161258E-1	6.204093E-2	9.482028E-2	8.974273E-2	9.176101E-2	7.940345E-2	9.251465E-2	7.079583E-2	9.376710E-2	9.089803E-2	1.029738E-1	8.305646E-2	9.697146E-2	7.980615E-2	1.096625E-1	7.706747E-2	7.879290E-2	7.765671E-2	8.675382E-2	8.745390E-2	7.064582E-2	9.027202E-2	9.445281E-2	8.472266E-2	7.828654E-2	8.052725E-2	9.947645E-2	8.382523E-2	9.126311E-2	7.772308E-2	9.637768E-2	8.472177E-2	1.105076E-1	5.664872E-2	8.436309E-2	9.912577E-2	9.771828E-2	7.435660E-2	1.043093E-1	6.009782E-2	6.017576E-2	8.926305E-2	1.166678E-1	7.796441E-2	8.051609E-2	7.494115E-2	8.857275E-2	1.042088E-1	8.582339E-2	8.330328E-2	9.409184E-2	8.730134E-2	8.275508E-2	9.517354E-2	6.011582E-2	7.507642E-2	7.841795E-2	9.232014E-2	8.563952E-2	1.192167E-1	6.969350E-2	7.487646E-2	8.150632E-2	7.849998E-2	7.389526E-2	7.948317E-2	8.970915E-2	9.666046E-2	6.391150E-2	8.719463E-2	1.001126E-1	6.848406E-2	6.516400E-2	9.686015E-2	1.062833E-1	1.007773E-1	7.222875E-2	7.870896E-2	8.729063E-2	8.903435E-2	5.931789E-2	9.245422E-2	8.402713E-2	9.651472E-2	7.531304E-2	9.835498E-2	7.039902E-2	6.302297E-2	6.859669E-2	1.142022E-1	1.126593E-1	9.979400E-2	6.193865E-2	8.152116E-2	9.984152E-2	8.434058E-2	7.969660E-2	7.517972E-2	9.010754E-2	8.148443E-2	7.180806E-2	8.153476E-2	7.908323E-2	8.132430E-2	6.719865E-2	1.053914E-1	1.089167E-1	9.711645E-2	8.461071E-2	9.777045E-2	8.344200E-2	8.629511E-2	7.335168E-2	7.633798E-2	8.072229E-2	1.209520E-1	7.003966E-2	5.856920E-2	9.022387E-2	7.261332E-2	7.015640E-2	7.422886E-2	1.123809E-1	8.613545E-2	7.050916E-2	7.217608E-2	9.741802E-2	8.774265E-2	6.141673E-2	6.511308E-2	9.770277E-2	8.026857E-2	7.257342E-2	7.485183E-2	9.375662E-2	7.489697E-2	9.938381E-2	1.029907E-1	7.278939E-2	1.083928E-1	9.601378E-2	7.935416E-2
2.846030E+2	2.896682E-3	1.140045E-1	1.368312E-1	1.464595E-1	1.116591E-1	1.044580E-1	1.474414E-1	1.698955E-1	1.171203E-1	1.358060E-1	1.156341E-1	1.456463E-1	1.217025E-1	1.428335E-1	1.170012E-1	1.448462E-1	1.563176E-1	1.420338E-1	1.320685E-1	1.653000E-1	1.187971E-1	1.422034E-1	1.566144E-1	2.270296E-1	1.652921E-1	1.638515E-1	1.229361E-1	1.912531E-1	1.461216E-1	2.112513E-1	1.351773E-1	1.962436E-1	1.800406E-1	1.713863E-1	1.538135E-1	1.715728E-1	1.138033E-1	1.500741E-1	1.770503E-1	2.048185E-1	1.412408E-1	1.856311E-1	1.460386E-1	1.828409E-1	1.604241E-1	1.748383E-1	1.062671E-1	1.444181E-1	1.952686E-1	1.317635E-1	1.696408E-1	1.606925E-1	1.303164E-1	1.242409E-1	2.092173E-1	1.571669E-1	1.702840E-1	1.855482E-1	1.581718E-1	1.824108E-1	1.740514E-1	1.890537E-1	1.240148E-1	1.377342E-1	1.932374E-1	1.666722E-1	1.199501E-1	1.794202E-1	1.277388E-1	1.559214E-1	1.600366E-1	1.945844E-1	1.495017E-1	1.610323E-1	1.385038E-1	1.547181E-1	1.792475E-1	1.413612E-1	1.503784E-1	1.553610E-1	1.548895E-1	1.446924E-1	1.420159E-1	1.471940E-1	1.328275E-1	1.322808E-1	1.805909E-1	1.581110E-1	1.935127E-1	1.395857E-1	1.415195E-1	1.478024E-1	1.273954E-1	1.757434E-1	1.292346E-1	1.471790E-1	1.444520E-1	1.545008E-1	1.413289E-1	1.655589E-1	1.306071E-1	1.410898E-1	1.440996E-1	1.997884E-1	1.826966E-1	1.197623E-1	1.543984E-1	1.613920E-1	1.746974E-1	1.290834E-1	1.424816E-1	1.471975E-1	1.871031E-1	1.203194E-1	1.743826E-1	1.464383E-1	1.248171E-1	1.512794E-1	1.924197E-1	2.088060E-1	1.565297E-1	1.167485E-1	1.160073E-1	1.759110E-1	1.538331E-1	1.038826E-1	1.326852E-1	1.571152E-1	1.549011E-1	1.255298E-1	1.510791E-1	1.552300E-1	1.226531E-1	1.328584E-1	1.755872E-1	1.642145E-1	1.774625E-1	1.174990E-1	1.627501E-1	1.642057E-1	1.507287E-1	1.320331E-1	1.444354E-1	1.524755E-1	1.901911E-1	1.499698E-1	1.460521E-1	1.754474E-1	1.345374E-1	1.467243E-1	1.415932E-1	2.040850E-1	1.585817E-1	1.427473E-1	1.118729E-1	1.928833E-1	1.292209E-1	1.227411E-1	1.277833E-1	1.788913E-1	1.931560E-1	1.466401E-1	1.512107E-1	1.736943E-1	1.165905E-1	1.608807E-1	1.372869E-1	1.719986E-1	1.845056E-1	1.392321E-1	1.659226E-1
2.847020E+2	6.758919E-3	2.462144E-1	2.856105E-1	3.320623E-1	2.320929E-1	2.758252E-1	3.330854E-1	4.010339E-1	2.821773E-1	2.874835E-1	2.879174E-1	3.423225E-1	2.733322E-1	3.444420E-1	2.569007E-1	3.152933E-1	3.222280E-1	3.396460E-1	2.838456E-1	3.401560E-1	2.403495E-1	3.121047E-1	4.071979E-1	5.222572E-1	3.926722E-1	3.894714E-1	3.357856E-1	4.268350E-1	3.423934E-1	4.459972E-1	3.027036E-1	3.920470E-1	3.998647E-1	3.578767E-1	3.449300E-1	4.196806E-1	2.519119E-1	3.490266E-1	4.216356E-1	4.545022E-1	3.596116E-1	4.409098E-1	3.462763E-1	3.922827E-1	3.368999E-1	4.224222E-1	3.106266E-1	3.613452E-1	4.271862E-1	3.295375E-1	3.676698E-1	3.970286E-1	2.963592E-1	2.890202E-1	4.168077E-1	3.879286E-1	3.693580E-1	3.982946E-1	3.265875E-1	3.979034E-1	3.732720E-1	4.698140E-1	2.825631E-1	3.485148E-1	4.061456E-1	3.871645E-1	3.008993E-1	4.435466E-1	3.047998E-1	3.454040E-1	3.695264E-1	4.697795E-1	3.298350E-1	3.592258E-1	3.433168E-1	4.044164E-1	3.565363E-1	3.496281E-1	3.126575E-1	3.485945E-1	3.825137E-1	3.649134E-1	3.659068E-1	3.381268E-1	3.189900E-1	3.160477E-1	4.170607E-1	3.568470E-1	4.083245E-1	3.230524E-1	3.251751E-1	3.987204E-1	3.298525E-1	3.691070E-1	3.146106E-1	3.118794E-1	3.708748E-1	3.310731E-1	3.578658E-1	3.823500E-1	2.581578E-1	3.342936E-1	3.978216E-1	3.971012E-1	3.935790E-1	3.076687E-1	3.597266E-1	3.885290E-1	3.523698E-1	3.356168E-1	3.579828E-1	3.064976E-1	3.852126E-1	2.749382E-1	4.189533E-1	3.344473E-1	2.406812E-1	2.919732E-1	3.859491E-1	4.036094E-1	3.632098E-1	3.048791E-1	3.282882E-1	3.943904E-1	3.453422E-1	3.141671E-1	3.173784E-1	3.482632E-1	4.066155E-1	2.852623E-1	3.956833E-1	3.496475E-1	2.873012E-1	3.120551E-1	4.025544E-1	3.909347E-1	3.639259E-1	2.918832E-1	3.424476E-1	3.603461E-1	3.118130E-1	2.696309E-1	3.552478E-1	3.469264E-1	3.780015E-1	3.090224E-1	3.061903E-1	4.128561E-1	2.841871E-1	3.526403E-1	3.356320E-1	4.517735E-1	4.104598E-1	3.041307E-1	2.619995E-1	3.907573E-1	3.174690E-1	2.919372E-1	3.117509E-1	3.516006E-1	3.862093E-1	3.194624E-1	3.561744E-1	4.050028E-1	2.766398E-1	3.387835E-1	3.724611E-1	4.016893E-1	3.462449E-1	2.904969E-1	3.967710E-1
2.848000E+2	1.216606E-2	5.141697E-1	5.773501E-1	7.015105E-1	4.997999E-1	5.557027E-1	6.922147E-1	8.338603E-1	5.413521E-1	5.928966E-1	5.868190E-1	7.231385E-1	5.859014E-1	6.680761E-1	5.335631E-1	6.932406E-1	6.715899E-1	6.508850E-1	5.955054E-1	7.541173E-1	5.558826E-1	6.706407E-1	6.777740E-1	8.954243E-1	7.068833E-1	7.393661E-1	5.322094E-1	8.887766E-1	6.613349E-1	8.011827E-1	4.921078E-1	6.949080E-1	7.551349E-1	6.582169E-1	7.647597E-1	7.224555E-1	5.184375E-1	6.868697E-1	7.866879E-1	8.273847E-1	6.835771E-1	7.336386E-1	6.897601E-1	7.514457E-1	6.770867E-1	7.055792E-1	6.158036E-1	6.743800E-1	8.196626E-1	6.289449E-1	7.181493E-1	7.004224E-1	5.910169E-1	6.330216E-1	7.722380E-1	7.403928E-1	6.897647E-1	7.093552E-1	6.423673E-1	7.313845E-1	6.362994E-1	8.416546E-1	5.867311E-1	6.606336E-1	7.849057E-1	7.912668E-1	5.894211E-1	7.621485E-1	5.428699E-1	6.406749E-1	6.717290E-1	8.469293E-1	6.390853E-1	6.665806E-1	6.281718E-1	7.624278E-1	7.152381E-1	6.488385E-1	6.451496E-1	6.569598E-1	7.561908E-1	6.257384E-1	6.858647E-1	6.792487E-1	5.234971E-1	6.145114E-1	7.984880E-1	6.728820E-1	7.531551E-1	6.431269E-1	6.591650E-1	7.763559E-1	6.224619E-1	7.189334E-1	6.165272E-1	6.552974E-1	7.351878E-1	7.049460E-1	6.718444E-1	7.341246E-1	5.515902E-1	6.379966E-1	7.353562E-1	7.798399E-1	7.601893E-1	6.002968E-1	6.157821E-1	7.163466E-1	6.839185E-1	6.457617E-1	6.481420E-1	6.051837E-1	7.721181E-1	5.812723E-1	8.540516E-1	7.046164E-1	5.384167E-1	6.353739E-1	8.157444E-1	7.915415E-1	7.514435E-1	6.248495E-1	6.401954E-1	7.667787E-1	6.612909E-1	5.949949E-1	6.387316E-1	7.051668E-1	7.672453E-1	5.997134E-1	7.474025E-1	7.068887E-1	5.579381E-1	7.108016E-1	8.229500E-1	7.132417E-1	6.959219E-1	6.528895E-1	6.681486E-1	6.735114E-1	6.792387E-1	6.109269E-1	6.718284E-1	6.152832E-1	7.882437E-1	6.666892E-1	5.856916E-1	7.363572E-1	6.203465E-1	6.618864E-1	6.402355E-1	8.434450E-1	6.994027E-1	6.299709E-1	5.904005E-1	8.541979E-1	5.886727E-1	6.731830E-1	6.062331E-1	7.383528E-1	7.510480E-1	6.897959E-1	6.929575E-1	7.434626E-1	5.624426E-1	7.128909E-1	8.052468E-1	7.607834E-1	7.349645E-1	6.382091E-1	7.760218E-1
2.849020E+2	1.680077E-2	7.093030E-1	8.416625E-1	9.187801E-1	6.993755E-1	7.912498E-1	1.015673E+0	1.127469E+0	8.230027E-1	9.140952E-1	7.985409E-1	1.024030E+0	7.860785E-1	1.013595E+0	7.581558E-1	9.290366E-1	9.895242E-1	9.353059E-1	8.364341E-1	1.112775E+0	7.341173E-1	8.754271E-1	8.750416E-1	1.201673E+0	9.173387E-1	9.213408E-1	7.033107E-1	1.132742E+0	8.236924E-1	1.058942E+0	6.646352E-1	9.921349E-1	9.520130E-1	9.110619E-1	9.496102E-1	9.865426E-1	6.856216E-1	8.933289E-1	9.830859E-1	1.075425E+0	9.012300E-1	9.919747E-1	9.385170E-1	9.978971E-1	8.971181E-1	9.339539E-1	8.133515E-1	8.906210E-1	1.035292E+0	8.322127E-1	8.745292E-1	9.792831E-1	8.271521E-1	8.043650E-1	1.029619E+0	1.054134E+0	9.673050E-1	9.817340E-1	8.536380E-1	9.853878E-1	8.730945E-1	1.192605E+0	7.282677E-1	8.720901E-1	1.070327E+0	1.025390E+0	7.881803E-1	1.108814E+0	7.411512E-1	9.118426E-1	8.713107E-1	1.164399E+0	8.782879E-1	9.143221E-1	8.690825E-1	1.061736E+0	9.362309E-1	8.564110E-1	8.997476E-1	9.006900E-1	9.643943E-1	8.466479E-1	9.550096E-1	9.173163E-1	7.680901E-1	8.648154E-1	1.124038E+0	9.747223E-1	1.016420E+0	9.354025E-1	8.885410E-1	1.014685E+0	8.738143E-1	9.455087E-1	8.748263E-1	9.026981E-1	1.075213E+0	8.784468E-1	8.945673E-1	9.672764E-1	7.412635E-1	8.535723E-1	1.034033E+0	1.128504E+0	1.022981E+0	8.275665E-1	9.137089E-1	1.025640E+0	9.773948E-1	8.647285E-1	9.459959E-1	8.921981E-1	1.091295E+0	8.121109E-1	1.103202E+0	9.385835E-1	7.652298E-1	8.740865E-1	1.077815E+0	1.068278E+0	1.004323E+0	8.411258E-1	9.245141E-1	1.132090E+0	8.956269E-1	8.052795E-1	8.356023E-1	9.703758E-1	1.035094E+0	8.855135E-1	1.018385E+0	9.572009E-1	7.572494E-1	9.248788E-1	1.082675E+0	9.944704E-1	9.725859E-1	9.343511E-1	9.633655E-1	9.619530E-1	8.441581E-1	8.206960E-1	9.731950E-1	8.714421E-1	1.126650E+0	9.105163E-1	8.021745E-1	1.045076E+0	8.252852E-1	9.949198E-1	8.628307E-1	1.247974E+0	1.002667E+0	9.535064E-1	7.455789E-1	1.233455E+0	7.912788E-1	9.982763E-1	8.690442E-1	1.046130E+0	1.082348E+0	9.757094E-1	9.911583E-1	1.067465E+0	8.327781E-1	9.720578E-1	1.010207E+0	1.043315E+0	9.918440E-1	8.700165E-1	1.015116E+0
2.850010E+2	2.529770E-2	6.979914E-1	8.117400E-1	9.284568E-1	7.695707E-1	8.031596E-1	9.921637E-1	1.130145E+0	7.991223E-1	8.756616E-1	8.082276E-1	9.903363E-1	8.126804E-1	1.004311E+0	7.951694E-1	9.964067E-1	9.442098E-1	9.868258E-1	8.695895E-1	1.089191E+0	7.171129E-1	9.070819E-1	8.317225E-1	1.172544E+0	8.908480E-1	9.035882E-1	7.115233E-1	1.164600E+0	7.955506E-1	1.088094E+0	6.483826E-1	9.836828E-1	9.653364E-1	8.586765E-1	9.253287E-1	9.873848E-1	6.504882E-1	8.939544E-1	1.004989E+0	1.098423E+0	8.358622E-1	9.782176E-1	8.268460E-1	9.920099E-1	9.001227E-1	9.353766E-1	7.867850E-1	8.624756E-1	1.009695E+0	7.690354E-1	9.507555E-1	9.473895E-1	8.019733E-1	8.056786E-1	9.782966E-1	1.037539E+0	9.237130E-1	9.631995E-1	8.288275E-1	9.968587E-1	8.738040E-1	1.152496E+0	6.819959E-1	9.295144E-1	1.042556E+0	9.836966E-1	8.052780E-1	1.074974E+0	7.192680E-1	8.991215E-1	9.052816E-1	1.241487E+0	8.700909E-1	9.437415E-1	8.824220E-1	1.065870E+0	9.848824E-1	8.425270E-1	8.716187E-1	8.656789E-1	1.013337E+0	8.521536E-1	9.534220E-1	8.430202E-1	7.361570E-1	8.635478E-1	1.093265E+0	9.276530E-1	1.113328E+0	9.798794E-1	8.621929E-1	1.015525E+0	8.440185E-1	9.337002E-1	8.427950E-1	8.655532E-1	9.819798E-1	8.984071E-1	9.494746E-1	1.016362E+0	7.538207E-1	8.827222E-1	1.016508E+0	1.050846E+0	1.092734E+0	8.015722E-1	9.153190E-1	1.002282E+0	9.678766E-1	8.833786E-1	9.021257E-1	8.715990E-1	1.147171E+0	8.026739E-1	1.115110E+0	9.820348E-1	7.799752E-1	8.540825E-1	1.138293E+0	1.112589E+0	9.175982E-1	8.055736E-1	8.616725E-1	1.101131E+0	8.964347E-1	8.502924E-1	9.012266E-1	9.724917E-1	1.057685E+0	8.282099E-1	9.920066E-1	9.385691E-1	7.732478E-1	8.523794E-1	1.108414E+0	1.039498E+0	9.998737E-1	9.213487E-1	9.729928E-1	9.158025E-1	8.855792E-1	8.773534E-1	9.166882E-1	8.850748E-1	1.053083E+0	8.806440E-1	8.333128E-1	1.075513E+0	8.090675E-1	9.592382E-1	9.038343E-1	1.198264E+0	9.799229E-1	8.904897E-1	7.701189E-1	1.164894E+0	8.136136E-1	9.325186E-1	8.171552E-1	9.959411E-1	1.028359E+0	9.032356E-1	9.389128E-1	1.032598E+0	7.816691E-1	1.011592E+0	9.718286E-1	1.070273E+0	9.714574E-1	9.839573E-1	9.574024E-1
2.851000E+2	1.216606E-2	6.944558E-1	8.117402E-1	8.818361E-1	7.269026E-1	7.601526E-1	9.783819E-1	1.110512E+0	8.159789E-1	8.427179E-1	7.874703E-1	1.000522E+0	8.100198E-1	9.777836E-1	7.838775E-1	9.573324E-1	9.749060E-1	9.091922E-1	8.423278E-1	1.082684E+0	6.868822E-1	8.786575E-1	8.443850E-1	1.173331E+0	9.195460E-1	9.383554E-1	6.725122E-1	1.076571E+0	8.662654E-1	1.039763E+0	6.246288E-1	9.695965E-1	9.349903E-1	8.740435E-1	9.151463E-1	9.621533E-1	6.474595E-1	8.739341E-1	1.026163E+0	1.084460E+0	8.538206E-1	9.759247E-1	8.437892E-1	9.230364E-1	8.768420E-1	9.289733E-1	8.133513E-1	8.480591E-1	9.817720E-1	8.061179E-1	9.271796E-1	8.893285E-1	7.972098E-1	7.892664E-1	9.752317E-1	9.893316E-1	9.106345E-1	9.406358E-1	7.551452E-1	9.231159E-1	7.972347E-1	1.149989E+0	7.527646E-1	8.592544E-1	9.816157E-1	9.436076E-1	7.760694E-1	1.065068E+0	7.378359E-1	8.991215E-1	9.286371E-1	1.116323E+0	8.738164E-1	8.880001E-1	8.533875E-1	9.831881E-1	9.444766E-1	8.425271E-1	8.348361E-1	8.690453E-1	9.643929E-1	8.528421E-1	9.939129E-1	8.661875E-1	7.599366E-1	8.058826E-1	1.039007E+0	9.186881E-1	1.076180E+0	8.663043E-1	8.877659E-1	9.651741E-1	8.921498E-1	9.366527E-1	8.298450E-1	8.571433E-1	9.717954E-1	8.976391E-1	8.675002E-1	8.781059E-1	6.857494E-1	8.705198E-1	9.776499E-1	9.985470E-1	9.743155E-1	8.127122E-1	9.104881E-1	9.507330E-1	9.575647E-1	8.274280E-1	9.067440E-1	8.818981E-1	1.091295E+0	7.605712E-1	1.072974E+0	9.427623E-1	7.343316E-1	8.027396E-1	1.080234E+0	9.880161E-1	9.394822E-1	8.144612E-1	8.248876E-1	1.051597E+0	8.285574E-1	8.650725E-1	8.308672E-1	9.005465E-1	9.173056E-1	8.017070E-1	9.672260E-1	8.826743E-1	7.699149E-1	8.708461E-1	9.937606E-1	9.589215E-1	9.839557E-1	8.517477E-1	9.449137E-1	9.125058E-1	8.318844E-1	7.876460E-1	9.029247E-1	8.405882E-1	1.116263E+0	8.903318E-1	7.754850E-1	1.107689E+0	8.090676E-1	9.629555E-1	9.089600E-1	1.146842E+0	9.765535E-1	8.935642E-1	7.203176E-1	1.087654E+0	7.793147E-1	9.184807E-1	8.313071E-1	9.730606E-1	9.972735E-1	9.215533E-1	9.228372E-1	9.671177E-1	7.413214E-1	9.134890E-1	1.009391E+0	1.057333E+0	9.592242E-1	8.975197E-1	9.615254E-1
2.852040E+2	1.602831E-2	6.060802E-1	7.286229E-1	8.281781E-1	5.878884E-1	6.344389E-1	7.886841E-1	9.721857E-1	6.565417E-1	7.136895E-1	6.809177E-1	8.555619E-1	6.869875E-1	7.489849E-1	6.615432E-1	7.855380E-1	8.455402E-1	8.174440E-1	7.067598E-1	9.192135E-1	6.283095E-1	7.836937E-1	7.324222E-1	1.011154E+0	7.797333E-1	7.867093E-1	6.129687E-1	9.239876E-1	6.714371E-1	9.170207E-1	5.896234E-1	8.357739E-1	8.298895E-1	7.573996E-1	7.788581E-1	8.368374E-1	5.469072E-1	7.387976E-1	8.553172E-1	9.218365E-1	7.834244E-1	8.169482E-1	7.706254E-1	8.692035E-1	7.146343E-1	7.952212E-1	6.737055E-1	7.595033E-1	8.522393E-1	6.921232E-1	7.472254E-1	7.821999E-1	6.515824E-1	6.553422E-1	8.526701E-1	8.391783E-1	8.147314E-1	8.157282E-1	6.596597E-1	7.911984E-1	7.419354E-1	1.004596E+0	6.241564E-1	7.504854E-1	9.260741E-1	8.738519E-1	6.727711E-1	9.330061E-1	6.536159E-1	7.585160E-1	7.899209E-1	9.936440E-1	7.911014E-1	7.331610E-1	7.804089E-1	8.459361E-1	7.572927E-1	7.404762E-1	7.187159E-1	7.417941E-1	8.191183E-1	7.096979E-1	8.343311E-1	7.591371E-1	6.512285E-1	6.975233E-1	9.369682E-1	7.901818E-1	9.138601E-1	7.900588E-1	7.723025E-1	8.376164E-1	7.011522E-1	8.170918E-1	6.874063E-1	7.793482E-1	8.331209E-1	7.632913E-1	7.839789E-1	8.200229E-1	5.985128E-1	7.735783E-1	8.229791E-1	9.010794E-1	8.623862E-1	7.235874E-1	7.518615E-1	8.548846E-1	7.830661E-1	7.265793E-1	7.535836E-1	7.328983E-1	9.194305E-1	7.293573E-1	9.236670E-1	8.291200E-1	6.444489E-1	6.893844E-1	9.471827E-1	8.784923E-1	8.195262E-1	6.974359E-1	7.819718E-1	9.021118E-1	7.655296E-1	6.702407E-1	6.800000E-1	7.982724E-1	8.487297E-1	6.813709E-1	8.113506E-1	8.170585E-1	6.325965E-1	7.306353E-1	9.235650E-1	8.412158E-1	8.308434E-1	7.607315E-1	7.644149E-1	7.575717E-1	7.344671E-1	7.040075E-1	7.681790E-1	6.870362E-1	9.206639E-1	7.692252E-1	6.509327E-1	9.137616E-1	6.520455E-1	8.209700E-1	7.661775E-1	1.007142E+0	8.493502E-1	7.790583E-1	6.409240E-1	9.687574E-1	7.170968E-1	8.135644E-1	6.729465E-1	8.446361E-1	8.639361E-1	8.116475E-1	7.443989E-1	8.761248E-1	6.660036E-1	8.087971E-1	8.517921E-1	8.535231E-1	8.491343E-1	7.639354E-1	7.883890E-1
2.853000E+2	1.448342E-2	4.583163E-1	5.233247E-1	6.091480E-1	4.282272E-1	4.782895E-1	6.451951E-1	7.321233E-1	5.020194E-1	5.373049E-1	5.383862E-1	6.392960E-1	5.280428E-1	6.156840E-1	5.755958E-1	5.881428E-1	5.904618E-1	5.676056E-1	5.520353E-1	6.459505E-1	4.727479E-1	5.756776E-1	6.084638E-1	7.308844E-1	6.347689E-1	6.202683E-1	5.465819E-1	7.244566E-1	5.141311E-1	7.505509E-1	4.283483E-1	6.547616E-1	6.122864E-1	5.234129E-1	6.308214E-1	6.122792E-1	3.912321E-1	5.723782E-1	6.304454E-1	6.770820E-1	5.715181E-1	6.709658E-1	5.988833E-1	6.429403E-1	5.561813E-1	5.789410E-1	5.245233E-1	5.666023E-1	6.482450E-1	5.252509E-1	5.806294E-1	5.932950E-1	5.113984E-1	5.384866E-1	6.588682E-1	6.510915E-1	5.756974E-1	6.352155E-1	5.130478E-1	5.929124E-1	5.370436E-1	6.770418E-1	4.424725E-1	5.505137E-1	6.684239E-1	6.533589E-1	4.925343E-1	6.721805E-1	4.805341E-1	5.616683E-1	5.775998E-1	7.723285E-1	5.839414E-1	6.139354E-1	5.638242E-1	6.797465E-1	6.401992E-1	5.419282E-1	5.102783E-1	6.057904E-1	6.031463E-1	5.190688E-1	6.136162E-1	5.690034E-1	4.766162E-1	5.175581E-1	6.689155E-1	5.892038E-1	6.651302E-1	5.915017E-1	5.723742E-1	6.471207E-1	5.575225E-1	6.643192E-1	5.088455E-1	5.838101E-1	6.552735E-1	5.452628E-1	5.635754E-1	6.261376E-1	4.729451E-1	5.722400E-1	6.736400E-1	6.926736E-1	6.458257E-1	4.851763E-1	5.570018E-1	6.116385E-1	5.498710E-1	5.269536E-1	5.819518E-1	5.344601E-1	6.722165E-1	4.919849E-1	6.992482E-1	6.628368E-1	4.927726E-1	5.033480E-1	6.947889E-1	7.045910E-1	6.339196E-1	5.441165E-1	6.248675E-1	6.765565E-1	5.562441E-1	5.506533E-1	5.622831E-1	6.134718E-1	6.970551E-1	5.209216E-1	6.498797E-1	5.562156E-1	4.512832E-1	5.849527E-1	6.654000E-1	6.302947E-1	6.405904E-1	5.580485E-1	6.144000E-1	5.820339E-1	5.511379E-1	5.347084E-1	5.892418E-1	5.363548E-1	6.887128E-1	5.423536E-1	5.182258E-1	6.615695E-1	4.964983E-1	6.143095E-1	5.670132E-1	7.860224E-1	6.176899E-1	5.992315E-1	4.915200E-1	7.509217E-1	5.392179E-1	6.384570E-1	5.415416E-1	6.364977E-1	6.528852E-1	6.412150E-1	5.940920E-1	6.448153E-1	5.180588E-1	6.206458E-1	6.574463E-1	6.831418E-1	5.963305E-1	5.773090E-1	6.441083E-1
2.854010E+2	7.531375E-3	2.985327E-1	3.512730E-1	3.883591E-1	2.857715E-1	3.479450E-1	4.376626E-1	4.688578E-1	3.243195E-1	3.568018E-1	3.750975E-1	4.340009E-1	3.152291E-1	3.888755E-1	3.760978E-1	4.089379E-1	3.960474E-1	3.982243E-1	4.415179E-1	4.450691E-1	2.819169E-1	3.683077E-1	3.932021E-1	4.978520E-1	3.639732E-1	3.887318E-1	3.946449E-1	4.846825E-1	3.683705E-1	4.774491E-1	3.495860E-1	4.124725E-1	3.932035E-1	3.515904E-1	4.193398E-1	4.365017E-1	3.149087E-1	3.652925E-1	4.026527E-1	4.569660E-1	3.725414E-1	4.202734E-1	4.125086E-1	4.267689E-1	3.782034E-1	3.747552E-1	4.073571E-1	3.675241E-1	4.240838E-1	3.501385E-1	4.431093E-1	3.782198E-1	3.290233E-1	3.671425E-1	4.221693E-1	4.440384E-1	4.064121E-1	4.208580E-1	3.356092E-1	4.306783E-1	3.434953E-1	5.400041E-1	3.206697E-1	3.755385E-1	4.393162E-1	4.272543E-1	3.030363E-1	4.369437E-1	3.207150E-1	3.949500E-1	4.049130E-1	4.797265E-1	3.976465E-1	4.064517E-1	3.621498E-1	4.259138E-1	3.985916E-1	3.843394E-1	4.013702E-1	3.977443E-1	4.532087E-1	3.786775E-1	3.833735E-1	3.477133E-1	3.346168E-1	3.318901E-1	5.004723E-1	3.994337E-1	4.470874E-1	4.000925E-1	3.724453E-1	4.054338E-1	3.466605E-1	4.274114E-1	3.636802E-1	3.602380E-1	4.413869E-1	3.809740E-1	3.671453E-1	3.946218E-1	2.984715E-1	3.756464E-1	3.985842E-1	4.723809E-1	4.608987E-1	3.425761E-1	3.975708E-1	4.263853E-1	3.952006E-1	3.791336E-1	3.987751E-1	3.401424E-1	4.614085E-1	3.446252E-1	4.830733E-1	4.004600E-1	3.242437E-1	3.379825E-1	4.464266E-1	4.554447E-1	4.029247E-1	3.411724E-1	3.872974E-1	4.492315E-1	4.051375E-1	3.430564E-1	3.613527E-1	3.877623E-1	4.485673E-1	3.346861E-1	4.188653E-1	3.974410E-1	3.366294E-1	4.023362E-1	4.540316E-1	4.027851E-1	3.866660E-1	3.599540E-1	3.986025E-1	3.677635E-1	3.563030E-1	3.539433E-1	3.762565E-1	3.741925E-1	4.766677E-1	3.921818E-1	3.291731E-1	4.363360E-1	3.475858E-1	3.972426E-1	3.568656E-1	4.980540E-1	3.944544E-1	3.825167E-1	3.067483E-1	4.454327E-1	3.469823E-1	4.035036E-1	3.319671E-1	4.357414E-1	4.017517E-1	3.728226E-1	3.818947E-1	4.237118E-1	3.142985E-1	4.229759E-1	4.459530E-1	4.750182E-1	4.209989E-1	3.769337E-1	3.885265E-1
2.855020E+2	5.986476E-3	2.405583E-1	2.831167E-1	3.109517E-1	2.410388E-1	2.625920E-1	3.517310E-1	3.912174E-1	2.793678E-1	2.977778E-1	3.114420E-1	3.376211E-1	2.759920E-1	3.404627E-1	3.146176E-1	3.024928E-1	3.266135E-1	3.318829E-1	3.575242E-1	3.604881E-1	2.523156E-1	3.011226E-1	3.085639E-1	4.112512E-1	3.470487E-1	3.117984E-1	3.001968E-1	4.033605E-1	3.106436E-1	3.961320E-1	2.945769E-1	3.364049E-1	3.317710E-1	3.243505E-1	3.605955E-1	3.439869E-1	2.125390E-1	3.039812E-1	3.354829E-1	3.929022E-1	2.877795E-1	3.598929E-1	3.231722E-1	3.199453E-1	3.256360E-1	3.235313E-1	3.249320E-1	3.057405E-1	3.558270E-1	2.835274E-1	4.022459E-1	3.283358E-1	3.086081E-1	2.877074E-1	3.700808E-1	3.333996E-1	3.424756E-1	3.539725E-1	3.153098E-1	2.881087E-1	3.037930E-1	4.213497E-1	2.648712E-1	3.059536E-1	3.475183E-1	3.422648E-1	3.080238E-1	3.560540E-1	2.577161E-1	3.246477E-1	3.065376E-1	4.092697E-1	3.246192E-1	3.135487E-1	3.080046E-1	3.531543E-1	2.979902E-1	2.899251E-1	3.602600E-1	3.129100E-1	3.211408E-1	2.871477E-1	3.484403E-1	3.117638E-1	2.775448E-1	3.014732E-1	4.041031E-1	3.299508E-1	3.421042E-1	3.127274E-1	2.980533E-1	3.307458E-1	3.092251E-1	3.196594E-1	2.948459E-1	3.083751E-1	3.473711E-1	3.425888E-1	3.269314E-1	3.259027E-1	2.687316E-1	3.187020E-1	3.338199E-1	3.487633E-1	3.538355E-1	2.794456E-1	3.170504E-1	3.716148E-1	3.071582E-1	2.865733E-1	3.079560E-1	3.195431E-1	3.750530E-1	2.821971E-1	3.639938E-1	3.369540E-1	2.870271E-1	2.726364E-1	3.778859E-1	3.735108E-1	3.315998E-1	2.730303E-1	3.129610E-1	3.457415E-1	3.089793E-1	2.819194E-1	2.835513E-1	3.249864E-1	3.920939E-1	2.859787E-1	3.621106E-1	3.067135E-1	2.479725E-1	3.045313E-1	3.604363E-1	3.672363E-1	3.434602E-1	3.324200E-1	3.256009E-1	3.166678E-1	3.210180E-1	2.662581E-1	2.878748E-1	3.002871E-1	3.754058E-1	3.308217E-1	2.987770E-1	3.876370E-1	2.650203E-1	3.466935E-1	3.019496E-1	4.097769E-1	3.177956E-1	3.102785E-1	2.879827E-1	4.315469E-1	2.967298E-1	3.207523E-1	2.686226E-1	3.493863E-1	3.551244E-1	3.258340E-1	3.336685E-1	3.650342E-1	2.773127E-1	3.402482E-1	3.471476E-1	3.499281E-1	3.136256E-1	3.435376E-1	3.555480E-1
2.856030E+2	5.214024E-3	1.854122E-1	2.423896E-1	2.687288E-1	1.969950E-1	2.202463E-1	2.755270E-1	2.841261E-1	2.231783E-1	2.408132E-1	2.464033E-1	2.788534E-1	1.995123E-1	2.376686E-1	2.562735E-1	2.829555E-1	2.586408E-1	2.570725E-1	2.816352E-1	2.734670E-1	1.830371E-1	2.326450E-1	2.599134E-1	3.270133E-1	2.587454E-1	2.703739E-1	2.693983E-1	3.136552E-1	2.074564E-1	3.017742E-1	2.183155E-1	2.997798E-1	2.399929E-1	2.929190E-1	3.057667E-1	2.952060E-1	2.004237E-1	2.307812E-1	2.675835E-1	2.828442E-1	2.439617E-1	2.704690E-1	2.831244E-1	2.787297E-1	2.310147E-1	2.630583E-1	2.683924E-1	2.261091E-1	2.557690E-1	2.127956E-1	3.338791E-1	2.849939E-1	2.289894E-1	2.095846E-1	3.141621E-1	2.599032E-1	2.443917E-1	2.685513E-1	2.423795E-1	2.405857E-1	2.477847E-1	3.219135E-1	2.220018E-1	2.573117E-1	2.958344E-1	2.668958E-1	2.446198E-1	3.073561E-1	1.880853E-1	2.443017E-1	2.393029E-1	3.172619E-1	2.493559E-1	2.810323E-1	2.671987E-1	3.151202E-1	2.468647E-1	2.566025E-1	2.621708E-1	2.368288E-1	2.418993E-1	2.389742E-1	3.135069E-1	1.991208E-1	1.878610E-1	2.311348E-1	3.206912E-1	2.410422E-1	3.041490E-1	2.642798E-1	2.352848E-1	2.468269E-1	2.297697E-1	2.679971E-1	2.648589E-1	2.670245E-1	2.792086E-1	2.412512E-1	2.635176E-1	2.735454E-1	2.118957E-1	2.481992E-1	2.797227E-1	2.829928E-1	2.678603E-1	2.489942E-1	2.735691E-1	2.596568E-1	2.492565E-1	2.437475E-1	3.010294E-1	2.453864E-1	2.785382E-1	2.197688E-1	3.410943E-1	2.433670E-1	2.175080E-1	2.232934E-1	2.722508E-1	2.991012E-1	2.975585E-1	2.426628E-1	2.317273E-1	2.988611E-1	2.435271E-1	2.651232E-1	2.619030E-1	2.720860E-1	2.710766E-1	2.336896E-1	2.837726E-1	2.467681E-1	1.999779E-1	2.539184E-1	2.707422E-1	2.534805E-1	2.699362E-1	2.528763E-1	2.622257E-1	2.441455E-1	2.197646E-1	2.284864E-1	2.480300E-1	2.400140E-1	3.226107E-1	2.476618E-1	2.276040E-1	2.850206E-1	2.163653E-1	2.619484E-1	2.301920E-1	2.975037E-1	2.790452E-1	2.595581E-1	1.999278E-1	2.892162E-1	2.361076E-1	2.690329E-1	2.416679E-1	2.659838E-1	2.684143E-1	2.509706E-1	2.645430E-1	2.936008E-1	2.188069E-1	2.948570E-1	2.581404E-1	2.615024E-1	2.307169E-1	2.924613E-1	2.813466E-1
2.858030E+2	9.848713E-3	1.726859E-1	2.049870E-1	1.922005E-1	1.536388E-1	1.838557E-1	2.682316E-1	2.537837E-1	2.063210E-1	2.250277E-1	2.228789E-1	2.514286E-1	2.054974E-1	2.257316E-1	2.073400E-1	2.459015E-1	2.250207E-1	2.387228E-1	2.300605E-1	2.539477E-1	1.773692E-1	2.119728E-1	2.532492E-1	3.026076E-1	2.381422E-1	2.637158E-1	2.543418E-1	3.027561E-1	2.038485E-1	2.718557E-1	1.964371E-1	2.589287E-1	2.318510E-1	2.370419E-1	2.822690E-1	2.775443E-1	1.574162E-1	2.232736E-1	2.573621E-1	2.770952E-1	2.130733E-1	2.521256E-1	2.423064E-1	2.316267E-1	2.152445E-1	2.481173E-1	2.527250E-1	2.398389E-1	2.635251E-1	2.148558E-1	2.733701E-1	2.531006E-1	1.867981E-1	2.194319E-1	2.796910E-1	2.433070E-1	2.327673E-1	2.419584E-1	2.288458E-1	2.414047E-1	2.208438E-1	2.734491E-1	2.036294E-1	2.336668E-1	2.780915E-1	2.628870E-1	2.146993E-1	2.809435E-1	1.628857E-1	2.195284E-1	2.180708E-1	2.708435E-1	2.046447E-1	2.430965E-1	2.428717E-1	2.522823E-1	2.452156E-1	2.177258E-1	2.751536E-1	1.991244E-1	2.644291E-1	2.121349E-1	2.571373E-1	2.246855E-1	1.654398E-1	2.146592E-1	2.753409E-1	2.111570E-1	2.742690E-1	2.460125E-1	2.376093E-1	2.451480E-1	2.183103E-1	2.310958E-1	2.328266E-1	2.081530E-1	2.416020E-1	2.343420E-1	2.325834E-1	2.285511E-1	1.867823E-1	2.278620E-1	2.416267E-1	2.655593E-1	2.540721E-1	2.036887E-1	2.534388E-1	2.040808E-1	2.294269E-1	2.250971E-1	2.648563E-1	2.419532E-1	2.497527E-1	1.798439E-1	3.200260E-1	2.350114E-1	1.929309E-1	1.826189E-1	2.674129E-1	2.865604E-1	2.505485E-1	1.974813E-1	2.386242E-1	2.599417E-1	2.039324E-1	1.992833E-1	2.639325E-1	2.417563E-1	2.565552E-1	1.921448E-1	2.637892E-1	2.289467E-1	1.793135E-1	2.067256E-1	2.910211E-1	2.313614E-1	2.509872E-1	2.023962E-1	2.485876E-1	2.350801E-1	1.944512E-1	2.224158E-1	2.646922E-1	2.220759E-1	2.628920E-1	2.064858E-1	1.846041E-1	2.771943E-1	1.883522E-1	2.493107E-1	2.148154E-1	3.172158E-1	2.461912E-1	2.349660E-1	1.898231E-1	2.831416E-1	2.201542E-1	2.195301E-1	2.147128E-1	2.445796E-1	2.553257E-1	2.469887E-1	2.460564E-1	2.629860E-1	2.127546E-1	2.641081E-1	2.630395E-1	2.377787E-1	2.687733E-1	2.492428E-1	2.813467E-1
2.860050E+2	5.214033E-3	2.624759E-1	3.180259E-1	3.558129E-1	2.706315E-1	2.930280E-1	3.979398E-1	4.510093E-1	2.983319E-1	3.032688E-1	3.370426E-1	3.846355E-1	3.212150E-1	3.795905E-1	3.629234E-1	3.617783E-1	3.638885E-1	3.565845E-1	3.796277E-1	3.678076E-1	2.894742E-1	3.379453E-1	3.812063E-1	4.899787E-1	3.720685E-1	3.717176E-1	3.878002E-1	4.595312E-1	3.589894E-1	4.904910E-1	3.295824E-1	3.814823E-1	3.865422E-1	3.739414E-1	4.287389E-1	3.885621E-1	2.700841E-1	3.746774E-1	4.099537E-1	4.208277E-1	3.416541E-1	4.088084E-1	4.240608E-1	3.813479E-1	3.278890E-1	3.953874E-1	4.066757E-1	3.558534E-1	4.419239E-1	3.096227E-1	4.258213E-1	3.937571E-1	3.235796E-1	3.257836E-1	4.313618E-1	4.385063E-1	3.715374E-1	3.829832E-1	3.438803E-1	3.987229E-1	3.243532E-1	4.305408E-1	3.172668E-1	3.572971E-1	3.614040E-1	4.015965E-1	3.293954E-1	4.311656E-1	2.670004E-1	3.099175E-1	3.935892E-1	4.299924E-1	3.313253E-1	3.708388E-1	3.613655E-1	3.820923E-1	3.639580E-1	3.399091E-1	4.093041E-1	3.432080E-1	3.762990E-1	3.387623E-1	4.119550E-1	3.580988E-1	2.884159E-1	3.470982E-1	4.494532E-1	3.127669E-1	4.083247E-1	3.365542E-1	3.770947E-1	3.970417E-1	3.374927E-1	4.008424E-1	3.854889E-1	3.448195E-1	3.959455E-1	3.487302E-1	3.949865E-1	3.766234E-1	3.083849E-1	3.437845E-1	4.031551E-1	4.153266E-1	4.122343E-1	3.277219E-1	4.072332E-1	3.619486E-1	3.864764E-1	3.563394E-1	4.341787E-1	3.092440E-1	4.402430E-1	2.967157E-1	5.178810E-1	3.996240E-1	2.814092E-1	3.353151E-1	4.327185E-1	4.546090E-1	3.713148E-1	3.396910E-1	3.849982E-1	4.173885E-1	3.219080E-1	3.296201E-1	4.141229E-1	3.440312E-1	3.751515E-1	3.124818E-1	4.236611E-1	3.626084E-1	2.966339E-1	3.489882E-1	4.251727E-1	4.043644E-1	3.715060E-1	3.308895E-1	4.475386E-1	3.479847E-1	3.417281E-1	3.337080E-1	4.356607E-1	3.698872E-1	4.325281E-1	3.413169E-1	3.477075E-1	4.128556E-1	3.225213E-1	3.667649E-1	3.751710E-1	4.689141E-1	3.750784E-1	3.686844E-1	3.327321E-1	4.193967E-1	3.222547E-1	3.938983E-1	3.380318E-1	3.877671E-1	3.894816E-1	3.680440E-1	4.212801E-1	4.058534E-1	2.934515E-1	3.885669E-1	4.100234E-1	4.372753E-1	3.883798E-1	3.710402E-1	3.802817E-1
2.862030E+2	1.834566E-2	5.155838E-1	5.939732E-1	6.584079E-1	5.121869E-1	5.510711E-1	6.914035E-1	7.696057E-1	5.553995E-1	6.066231E-1	6.532422E-1	6.847428E-1	5.859011E-1	6.674129E-1	6.646802E-1	6.386701E-1	6.445474E-1	6.318296E-1	6.780248E-1	7.386646E-1	5.306896E-1	6.241284E-1	6.071308E-1	8.261442E-1	6.207881E-1	6.609545E-1	6.335012E-1	8.024243E-1	5.451589E-1	7.620580E-1	5.852474E-1	7.329423E-1	6.811208E-1	6.107215E-1	7.334291E-1	6.879734E-1	4.475656E-1	6.092905E-1	7.355808E-1	8.060301E-1	6.440696E-1	6.885454E-1	7.120945E-1	7.194826E-1	6.342816E-1	6.678723E-1	6.539508E-1	6.606508E-1	6.971110E-1	5.678272E-1	8.085192E-1	6.775247E-1	5.515480E-1	5.706545E-1	7.844945E-1	7.103625E-1	6.955772E-1	7.182191E-1	6.122934E-1	6.986103E-1	5.774545E-1	8.299558E-1	5.969382E-1	6.342858E-1	7.617635E-1	7.303315E-1	6.214789E-1	7.159261E-1	5.800066E-1	6.179107E-1	6.462508E-1	8.419567E-1	6.115129E-1	6.541939E-1	6.344490E-1	7.541595E-1	6.946220E-1	5.842757E-1	7.389110E-1	6.037702E-1	6.668503E-1	6.044044E-1	7.549379E-1	6.401039E-1	5.003963E-1	5.885300E-1	8.276421E-1	6.676525E-1	7.047008E-1	6.145346E-1	6.560657E-1	6.857234E-1	6.125294E-1	6.739140E-1	6.887691E-1	6.013317E-1	6.858286E-1	6.220337E-1	6.757104E-1	6.514985E-1	5.244939E-1	6.027454E-1	7.254515E-1	7.061438E-1	7.715442E-1	5.839577E-1	7.969535E-1	6.809076E-1	6.839188E-1	5.932651E-1	7.812912E-1	6.072441E-1	8.076762E-1	5.486057E-1	8.815311E-1	6.787129E-1	5.531625E-1	5.926985E-1	8.350968E-1	7.614438E-1	6.963292E-1	5.974447E-1	6.808120E-1	7.667780E-1	5.901822E-1	5.822296E-1	7.138268E-1	6.148827E-1	7.454622E-1	5.524387E-1	7.761789E-1	6.995977E-1	5.472725E-1	6.355662E-1	8.245103E-1	7.472099E-1	6.906163E-1	6.322384E-1	7.620083E-1	6.586773E-1	5.925593E-1	6.156480E-1	8.000539E-1	5.959097E-1	7.562209E-1	5.916037E-1	6.131226E-1	7.354884E-1	5.591599E-1	7.042585E-1	6.563446E-1	9.162941E-1	6.850825E-1	6.338139E-1	5.579216E-1	8.281617E-1	5.647436E-1	6.547120E-1	6.857502E-1	7.184241E-1	6.978765E-1	6.412142E-1	7.435945E-1	7.434627E-1	5.805991E-1	7.187484E-1	7.186895E-1	7.057867E-1	6.642881E-1	5.832030E-1	7.677777E-1
2.864030E+2	2.452526E-2	6.492079E-1	7.452474E-1	8.765576E-1	7.165800E-1	6.953102E-1	8.754266E-1	9.704016E-1	6.979808E-1	7.775176E-1	7.715571E-1	9.088442E-1	7.049434E-1	8.776421E-1	8.334384E-1	7.868848E-1	8.214218E-1	7.793332E-1	8.592740E-1	9.899693E-1	6.352377E-1	8.101799E-1	8.383872E-1	1.041070E+0	8.047528E-1	7.955862E-1	7.854389E-1	9.181192E-1	7.435959E-1	9.415689E-1	7.221443E-1	8.477474E-1	8.543144E-1	7.965137E-1	9.527431E-1	8.528170E-1	5.820404E-1	7.869708E-1	9.093454E-1	9.711166E-1	8.006642E-1	8.222989E-1	8.291565E-1	8.044374E-1	7.514313E-1	7.966445E-1	8.705722E-1	7.546973E-1	8.933485E-1	7.079168E-1	9.279659E-1	8.312659E-1	6.658726E-1	6.973575E-1	8.993966E-1	8.937081E-1	8.822999E-1	8.544083E-1	7.416124E-1	8.362633E-1	7.029426E-1	1.058074E+0	6.751912E-1	8.092616E-1	9.168173E-1	9.387969E-1	7.240645E-1	9.486884E-1	6.761629E-1	7.605246E-1	8.168148E-1	1.043380E+0	8.291054E-1	7.842583E-1	8.345540E-1	8.790088E-1	8.257343E-1	7.147900E-1	9.055167E-1	7.693991E-1	8.331013E-1	7.640645E-1	9.613618E-1	7.878973E-1	6.505489E-1	6.943551E-1	1.047105E+0	7.946645E-1	9.033613E-1	7.844993E-1	8.079496E-1	8.703446E-1	7.913037E-1	8.266862E-1	8.734625E-1	8.087841E-1	8.754288E-1	8.224046E-1	8.605401E-1	8.560175E-1	6.593137E-1	7.491739E-1	8.900278E-1	9.121741E-1	8.867185E-1	7.703782E-1	8.871368E-1	8.468300E-1	8.179654E-1	7.852929E-1	9.744737E-1	7.363312E-1	9.897000E-1	6.901583E-1	1.081218E+0	8.433257E-1	6.514713E-1	7.073878E-1	9.737925E-1	9.386886E-1	8.576207E-1	7.603930E-1	8.900275E-1	9.348394E-1	7.728023E-1	7.401114E-1	9.174633E-1	8.462351E-1	8.785802E-1	7.637439E-1	9.664270E-1	8.227290E-1	6.425956E-1	7.538900E-1	9.251246E-1	8.838746E-1	8.657106E-1	8.249784E-1	8.975833E-1	8.136117E-1	7.574796E-1	7.411049E-1	1.016663E+0	7.810331E-1	9.933647E-1	7.813360E-1	7.932786E-1	9.363722E-1	7.265019E-1	8.648291E-1	8.620985E-1	1.073135E+0	8.998943E-1	7.821332E-1	7.275350E-1	9.670216E-1	7.035362E-1	8.209531E-1	8.117645E-1	9.081096E-1	9.211973E-1	8.164255E-1	9.268564E-1	8.744241E-1	6.821433E-1	8.761516E-1	8.983359E-1	8.923441E-1	8.613656E-1	8.130476E-1	1.105805E+0
2.866150E+2	1.911811E-2	5.997170E-1	7.319484E-1	8.431312E-1	6.883638E-1	6.728142E-1	9.078535E-1	9.543379E-1	6.888505E-1	7.562418E-1	7.611787E-1	8.414572E-1	6.663707E-1	8.332095E-1	7.606650E-1	8.320229E-1	7.929172E-1	7.609835E-1	8.202244E-1	9.062014E-1	6.283103E-1	7.610827E-1	7.924026E-1	1.005642E+0	8.143189E-1	8.052029E-1	8.066554E-1	1.000280E+0	7.024661E-1	9.446377E-1	7.215189E-1	9.033902E-1	8.365509E-1	7.888306E-1	8.979141E-1	8.629101E-1	5.572042E-1	7.450536E-1	9.020447E-1	9.711167E-1	7.941993E-1	8.100694E-1	8.445593E-1	8.321941E-1	7.311557E-1	8.450227E-1	8.555864E-1	7.828433E-1	9.235985E-1	7.491204E-1	9.012478E-1	8.296302E-1	6.352503E-1	7.183653E-1	9.560815E-1	8.771118E-1	7.798564E-1	8.173389E-1	7.461231E-1	8.526510E-1	7.816378E-1	9.277208E-1	7.173805E-1	7.430538E-1	8.813322E-1	8.337619E-1	6.941438E-1	9.528149E-1	6.595837E-1	7.605245E-1	7.885053E-1	1.024314E+0	8.052598E-1	8.020651E-1	8.243525E-1	8.442828E-1	8.150143E-1	7.147899E-1	8.860442E-1	8.064299E-1	8.400939E-1	7.805811E-1	8.994342E-1	7.319760E-1	6.457936E-1	7.159000E-1	1.033338E+0	7.834574E-1	8.928637E-1	7.972070E-1	8.412705E-1	8.854503E-1	7.019165E-1	8.318525E-1	7.984949E-1	8.319120E-1	8.738613E-1	8.055148E-1	8.257388E-1	8.650169E-1	6.718703E-1	7.661211E-1	8.664083E-1	8.812689E-1	9.005069E-1	7.324995E-1	8.782789E-1	8.291105E-1	8.338290E-1	7.348682E-1	9.837096E-1	7.541839E-1	9.338227E-1	7.126617E-1	1.045495E+0	8.190933E-1	6.184677E-1	7.307252E-1	9.673413E-1	9.236396E-1	8.446520E-1	7.433573E-1	8.586075E-1	8.994588E-1	7.323993E-1	7.132380E-1	8.707826E-1	7.820495E-1	8.567975E-1	6.885338E-1	9.680263E-1	8.186793E-1	5.992672E-1	7.771444E-1	9.812805E-1	9.162641E-1	8.278118E-1	7.867366E-1	9.224527E-1	8.647072E-1	7.444391E-1	6.864707E-1	9.456665E-1	7.444394E-1	9.769204E-1	8.168606E-1	7.717776E-1	9.302843E-1	6.889054E-1	8.284034E-1	8.525795E-1	1.020855E+0	8.586171E-1	7.805957E-1	7.152653E-1	9.678894E-1	7.306560E-1	8.128251E-1	8.232203E-1	8.328263E-1	8.557558E-1	8.140365E-1	8.456747E-1	8.582668E-1	6.343974E-1	7.919591E-1	8.901711E-1	9.203816E-1	8.097180E-1	7.560781E-1	8.502233E-1
2.868030E+2	1.448342E-2	7.312200E-1	8.358443E-1	9.222996E-1	7.792052E-1	7.727243E-1	1.001081E+0	1.090879E+0	8.194910E-1	8.454638E-1	9.334619E-1	9.738804E-1	8.233205E-1	9.698257E-1	8.773526E-1	9.505949E-1	1.013644E+0	9.162503E-1	1.051575E+0	1.047713E+0	7.744248E-1	9.090200E-1	9.043649E-1	1.160735E+0	9.063006E-1	8.850942E-1	8.839930E-1	1.127712E+0	7.977151E-1	1.105738E+0	8.071572E-1	1.006222E+0	9.068652E-1	8.412154E-1	1.051435E+0	1.017662E+0	6.414024E-1	8.883240E-1	1.035654E+0	1.197802E+0	8.904553E-1	9.820390E-1	9.323556E-1	9.449055E-1	8.625737E-1	9.118988E-1	9.468659E-1	8.974853E-1	1.043824E+0	8.068039E-1	1.078845E+0	9.661987E-1	8.006119E-1	7.997699E-1	1.054897E+0	9.877506E-1	9.237125E-1	1.005910E+0	8.340905E-1	9.624456E-1	8.298473E-1	1.130771E+0	7.663740E-1	8.693878E-1	1.012470E+0	9.492198E-1	7.568350E-1	1.065069E+0	7.504353E-1	8.643052E-1	9.512841E-1	1.166886E+0	9.013880E-1	8.748384E-1	9.734500E-1	1.014607E+0	9.123173E-1	8.696013E-1	1.042553E+0	8.690456E-1	9.581783E-1	8.046681E-1	1.097919E+0	8.869576E-1	7.402334E-1	7.995460E-1	1.182345E+0	9.104691E-1	9.671591E-1	8.837781E-1	9.978042E-1	1.038183E+0	8.104027E-1	1.007503E+0	9.252591E-1	9.349372E-1	1.018803E+0	9.014782E-1	9.154482E-1	9.828210E-1	7.300286E-1	9.335652E-1	1.022604E+0	1.127712E+0	1.036769E+0	8.320234E-1	1.015165E+0	9.789240E-1	9.361493E-1	8.426252E-1	1.159959E+0	8.729721E-1	1.099760E+0	7.838001E-1	1.256173E+0	9.586379E-1	7.525895E-1	7.940707E-1	1.134260E+0	1.053230E+0	1.048901E+0	8.448298E-1	1.011879E+0	1.090517E+0	8.730014E-1	8.227477E-1	1.010825E+0	9.167695E-1	9.810413E-1	8.038561E-1	1.154277E+0	9.863643E-1	7.659155E-1	8.715305E-1	1.075655E+0	1.010269E+0	9.953255E-1	8.984034E-1	1.083698E+0	9.339335E-1	8.387882E-1	8.355348E-1	1.092729E+0	9.080360E-1	1.082510E+0	9.282783E-1	9.474859E-1	1.095514E+0	7.987472E-1	9.309893E-1	9.162828E-1	1.172553E+0	1.032151E+0	8.766572E-1	8.170336E-1	1.136255E+0	8.271731E-1	9.569001E-1	9.350840E-1	1.000370E+0	1.029176E+0	8.984569E-1	9.951769E-1	9.492598E-1	7.648573E-1	9.574155E-1	9.995920E-1	1.007728E+0	9.510695E-1	1.019315E+0	1.175883E+0
2.870150E+2	2.143546E-2	7.114243E-1	7.892984E-1	8.308173E-1	7.358493E-1	7.429495E-1	9.119069E-1	1.034656E+0	7.148376E-1	7.761448E-1	8.379795E-1	9.652622E-1	7.747723E-1	9.068228E-1	8.867632E-1	9.148887E-1	9.105896E-1	8.569665E-1	9.101122E-1	9.972893E-1	6.887706E-1	8.276229E-1	8.243921E-1	1.082008E+0	8.290359E-1	8.525459E-1	8.073400E-1	9.835119E-1	7.500899E-1	9.653509E-1	7.290202E-1	9.019816E-1	8.965028E-1	7.727653E-1	8.924318E-1	9.453317E-1	6.165669E-1	8.126218E-1	9.422003E-1	9.875438E-1	7.554099E-1	9.048434E-1	8.761350E-1	8.557462E-1	8.347878E-1	8.414658E-1	8.583109E-1	8.199137E-1	9.336827E-1	7.230256E-1	9.963336E-1	8.656128E-1	6.964950E-1	7.301825E-1	9.522515E-1	9.087229E-1	8.350741E-1	8.777790E-1	8.062719E-1	9.198386E-1	7.802197E-1	1.050554E+0	7.432379E-1	8.180441E-1	9.893289E-1	9.179503E-1	7.867553E-1	9.577677E-1	6.861103E-1	8.187751E-1	8.543250E-1	1.095600E+0	8.156924E-1	8.461933E-1	9.059639E-1	9.616904E-1	8.224360E-1	7.515838E-1	9.307610E-1	7.761320E-1	8.719463E-1	7.681938E-1	1.011381E+0	7.591371E-1	7.096591E-1	7.209696E-1	1.044676E+0	8.462165E-1	9.558531E-1	8.369185E-1	7.692032E-1	9.399978E-1	7.958874E-1	8.517788E-1	8.271187E-1	7.716387E-1	9.263541E-1	8.016759E-1	8.829671E-1	8.871051E-1	6.427921E-1	7.837472E-1	9.006945E-1	9.486246E-1	9.305165E-1	7.206164E-1	9.394747E-1	9.273750E-1	8.258976E-1	8.191393E-1	1.059904E+0	7.823365E-1	1.034570E+0	7.446012E-1	1.100455E+0	8.934613E-1	7.006265E-1	7.313927E-1	9.762115E-1	9.520661E-1	9.378612E-1	7.366905E-1	9.306445E-1	9.604910E-1	8.576482E-1	7.582510E-1	9.546729E-1	9.111265E-1	9.536106E-1	7.422560E-1	9.880092E-1	8.413613E-1	6.939231E-1	8.352804E-1	9.914211E-1	9.170530E-1	8.763226E-1	8.616913E-1	9.497281E-1	8.564661E-1	7.352341E-1	7.586425E-1	9.833371E-1	7.709882E-1	1.029715E+0	8.136315E-1	8.333131E-1	1.007682E+0	7.559898E-1	9.131484E-1	9.031026E-1	1.103989E+0	8.990522E-1	7.890487E-1	7.614582E-1	1.063354E+0	7.864925E-1	9.125697E-1	8.353500E-1	9.516566E-1	9.285597E-1	8.522647E-1	9.308750E-1	8.761248E-1	7.157668E-1	8.812760E-1	9.693787E-1	8.686190E-1	9.021405E-1	8.601943E-1	8.007560E-1
2.872110E+2	1.216607E-2	6.131507E-1	6.554809E-1	7.463717E-1	6.333092E-1	6.159127E-1	7.489612E-1	8.481390E-1	5.785778E-1	6.786869E-1	6.823017E-1	8.853371E-1	6.151624E-1	7.735219E-1	7.349432E-1	8.239388E-1	7.278678E-1	6.713520E-1	7.487565E-1	8.687901E-1	5.754063E-1	7.003577E-1	7.104302E-1	9.048713E-1	7.407331E-1	7.430651E-1	6.704589E-1	9.323717E-1	5.884548E-1	8.410735E-1	6.183779E-1	8.519737E-1	7.336705E-1	7.343498E-1	8.156718E-1	8.511357E-1	5.517525E-1	6.668491E-1	7.859581E-1	8.791282E-1	6.965070E-1	7.565687E-1	7.120945E-1	7.892969E-1	6.455458E-1	6.984646E-1	7.111718E-1	6.469208E-1	8.080283E-1	6.392459E-1	7.794436E-1	6.996052E-1	5.828511E-1	6.816014E-1	8.143694E-1	8.344369E-1	6.766874E-1	7.319187E-1	6.461265E-1	7.412170E-1	6.554414E-1	8.909545E-1	6.602213E-1	6.714429E-1	8.149909E-1	7.471690E-1	5.936956E-1	7.926882E-1	5.587856E-1	7.183433E-1	6.943761E-1	9.223602E-1	6.755988E-1	6.998707E-1	7.066441E-1	7.979811E-1	7.119393E-1	6.446735E-1	8.312297E-1	6.677325E-1	7.686209E-1	6.856113E-1	8.224225E-1	6.608753E-1	6.199755E-1	6.037390E-1	8.883795E-1	6.788591E-1	7.402338E-1	6.987225E-1	7.366570E-1	7.897830E-1	6.530209E-1	7.366466E-1	7.487434E-1	7.155702E-1	7.579077E-1	6.343161E-1	7.151511E-1	7.406688E-1	5.905820E-1	6.969751E-1	7.444998E-1	8.036122E-1	8.129099E-1	6.485731E-1	8.114469E-1	7.413156E-1	6.902640E-1	6.588863E-1	8.921207E-1	6.196033E-1	8.559333E-1	6.444257E-1	9.401548E-1	7.246708E-1	5.840598E-1	5.993661E-1	9.012195E-1	8.375247E-1	7.733278E-1	6.300338E-1	7.528497E-1	7.694311E-1	6.556349E-1	6.688971E-1	8.044822E-1	7.164523E-1	7.422341E-1	5.846719E-1	8.657076E-1	7.214698E-1	5.572715E-1	7.244796E-1	8.619475E-1	7.448406E-1	7.254841E-1	6.934260E-1	8.502520E-1	6.932896E-1	6.385841E-1	6.338601E-1	8.348275E-1	6.647929E-1	8.194011E-1	7.207832E-1	7.354513E-1	7.946227E-1	6.594178E-1	7.317639E-1	7.354246E-1	9.411500E-1	7.448927E-1	6.806915E-1	6.452549E-1	8.741598E-1	6.157931E-1	7.603670E-1	7.093359E-1	7.472088E-1	7.584107E-1	7.009459E-1	7.628857E-1	8.072428E-1	6.027915E-1	7.407115E-1	7.529856E-1	8.643060E-1	7.716622E-1	7.069660E-1	8.667123E-1
2.874020E+2	1.448341E-2	4.887178E-1	5.366234E-1	6.003523E-1	5.108102E-1	5.113725E-1	6.087146E-1	6.526973E-1	4.971026E-1	5.386771E-1	5.286993E-1	7.160864E-1	4.768345E-1	5.732407E-1	5.354455E-1	6.743769E-1	6.131194E-1	5.337290E-1	5.969789E-1	6.963742E-1	4.481850E-1	5.453152E-1	5.171609E-1	7.411191E-1	5.479381E-1	6.136115E-1	5.383691E-1	7.428999E-1	4.600117E-1	6.799745E-1	5.058603E-1	7.526631E-1	5.908219E-1	5.485580E-1	6.480533E-1	6.703112E-1	4.100102E-1	5.098146E-1	6.465076E-1	7.115781E-1	5.047139E-1	5.914776E-1	5.673073E-1	7.068659E-1	5.486718E-1	5.661348E-1	5.967296E-1	6.778124E-1	6.288538E-1	4.730604E-1	6.427099E-1	6.832495E-1	4.950661E-1	5.332354E-1	6.649956E-1	6.281729E-1	5.560804E-1	5.884760E-1	5.213182E-1	6.756685E-1	4.973418E-1	7.104658E-1	4.826200E-1	6.140182E-1	5.943688E-1	5.940264E-1	5.317166E-1	7.117995E-1	4.301343E-1	5.034172E-1	5.613224E-1	7.300543E-1	5.511535E-1	5.326446E-1	6.320956E-1	5.945848E-1	5.874249E-1	4.801423E-1	6.285612E-1	5.337482E-1	5.914939E-1	5.114982E-1	6.525192E-1	5.458359E-1	4.936021E-1	4.795374E-1	6.956397E-1	5.936868E-1	6.158688E-1	5.438479E-1	5.568752E-1	5.917340E-1	5.155029E-1	5.964209E-1	5.783617E-1	5.438620E-1	5.988638E-1	5.659908E-1	5.906423E-1	5.426932E-1	4.656751E-1	5.315650E-1	6.492589E-1	6.276944E-1	5.939175E-1	4.710652E-1	6.181976E-1	6.011677E-1	5.823911E-1	5.456033E-1	7.204887E-1	5.193545E-1	6.832231E-1	4.861778E-1	7.752761E-1	5.884683E-1	4.836441E-1	4.706752E-1	6.931761E-1	6.168045E-1	6.168990E-1	5.130079E-1	5.750552E-1	6.473669E-1	5.093767E-1	5.150460E-1	6.062577E-1	5.542231E-1	5.905607E-1	5.015818E-1	6.506795E-1	5.456848E-1	4.406177E-1	5.507549E-1	6.794383E-1	5.773673E-1	5.913208E-1	5.335732E-1	6.593245E-1	5.614312E-1	4.851700E-1	5.340343E-1	6.653080E-1	5.155465E-1	6.618829E-1	5.350870E-1	5.382432E-1	6.406984E-1	5.665313E-1	5.540965E-1	5.831224E-1	7.131733E-1	5.999999E-1	5.415941E-1	4.871887E-1	7.196794E-1	4.698223E-1	5.763935E-1	5.920821E-1	6.099275E-1	5.980778E-1	5.695368E-1	6.117750E-1	5.886900E-1	4.857802E-1	5.657376E-1	5.774211E-1	6.195185E-1	5.881756E-1	5.851685E-1	6.564752E-1
2.876150E+2	1.293852E-2	3.812528E-1	3.645712E-1	4.754432E-1	3.642257E-1	3.737493E-1	4.465795E-1	5.197261E-1	3.517120E-1	3.684694E-1	4.055405E-1	5.139247E-1	3.577923E-1	4.366248E-1	4.250315E-1	4.695710E-1	4.055485E-1	4.123387E-1	4.731993E-1	4.930534E-1	3.121475E-1	3.767056E-1	4.011994E-1	5.427256E-1	4.154838E-1	3.961282E-1	4.042259E-1	5.676807E-1	3.250751E-1	4.835865E-1	3.814661E-1	5.237563E-1	4.198482E-1	3.858153E-1	4.577201E-1	5.147180E-1	2.870451E-1	3.671695E-1	4.340472E-1	5.029601E-1	3.847534E-1	4.088086E-1	4.348424E-1	5.150883E-1	3.887168E-1	4.117505E-1	4.386919E-1	4.574523E-1	4.636418E-1	3.652465E-1	5.036180E-1	4.722635E-1	3.419526E-1	3.710818E-1	4.566401E-1	4.716979E-1	3.918810E-1	4.353635E-1	3.732027E-1	5.011432E-1	3.619286E-1	4.848551E-1	3.608167E-1	4.667418E-1	4.686295E-1	4.384792E-1	3.514794E-1	5.343398E-1	3.240308E-1	3.989676E-1	4.495003E-1	5.286319E-1	3.946660E-1	4.134190E-1	4.186505E-1	4.945392E-1	4.225046E-1	3.655955E-1	4.879192E-1	4.192900E-1	4.112583E-1	3.841831E-1	4.794406E-1	4.212106E-1	3.359753E-1	3.667421E-1	5.344845E-1	4.457555E-1	4.422424E-1	4.310681E-1	4.251397E-1	4.851570E-1	3.703447E-1	4.215074E-1	4.529602E-1	4.506480E-1	4.656745E-1	3.740646E-1	3.980796E-1	4.911552E-1	3.427504E-1	4.047960E-1	4.481089E-1	5.032853E-1	4.276451E-1	3.945657E-1	4.603775E-1	4.191361E-1	4.396189E-1	3.846593E-1	5.111438E-1	3.902669E-1	4.876542E-1	3.315589E-1	5.664287E-1	4.522663E-1	3.677801E-1	3.799906E-1	5.117423E-1	4.337076E-1	4.701964E-1	3.641329E-1	4.608675E-1	4.837283E-1	3.663513E-1	3.591802E-1	4.675690E-1	4.441903E-1	4.671235E-1	3.747985E-1	4.556350E-1	4.055420E-1	3.486278E-1	3.831861E-1	4.696305E-1	4.541327E-1	4.366923E-1	4.157874E-1	4.571647E-1	3.883661E-1	4.391455E-1	3.842955E-1	4.979622E-1	3.942840E-1	4.688786E-1	3.954114E-1	4.144321E-1	4.641637E-1	3.549577E-1	4.351558E-1	4.154441E-1	5.331927E-1	4.736400E-1	3.679158E-1	3.522194E-1	5.070515E-1	3.876631E-1	4.035031E-1	3.926154E-1	4.519787E-1	4.541056E-1	3.927328E-1	4.831708E-1	4.500750E-1	3.526302E-1	4.251727E-1	4.680005E-1	4.394323E-1	4.169216E-1	3.808627E-1	4.544831E-1
2.878030E+2	8.303823E-3	2.780302E-1	3.080518E-1	3.522945E-1	2.726962E-1	2.520059E-1	3.784836E-1	3.831857E-1	2.997367E-1	3.183679E-1	3.280482E-1	3.391879E-1	2.520504E-1	3.630110E-1	3.321831E-1	3.914215E-1	3.441541E-1	3.036521E-1	3.479460E-1	3.523550E-1	2.649117E-1	3.172724E-1	3.052314E-1	4.380191E-1	3.323320E-1	3.184566E-1	3.337325E-1	4.469560E-1	3.034278E-1	3.938309E-1	2.883259E-1	4.293759E-1	3.413927E-1	2.992057E-1	3.621625E-1	4.179982E-1	2.464602E-1	3.189958E-1	3.683377E-1	4.347896E-1	2.985542E-1	3.392570E-1	3.524374E-1	3.603193E-1	2.963483E-1	3.427401E-1	3.426431E-1	3.750749E-1	3.635838E-1	2.965743E-1	3.794574E-1	3.757666E-1	2.711812E-1	2.863943E-1	4.145094E-1	3.697521E-1	3.344838E-1	3.297969E-1	3.085431E-1	4.175682E-1	2.995393E-1	4.246919E-1	2.737173E-1	3.694582E-1	3.683469E-1	3.599036E-1	2.909257E-1	4.361179E-1	2.643479E-1	3.132656E-1	3.171538E-1	4.067836E-1	3.410130E-1	3.042579E-1	3.323302E-1	3.870535E-1	3.186054E-1	2.822890E-1	3.638653E-1	3.371486E-1	3.630918E-1	2.988474E-1	4.119553E-1	3.189535E-1	2.564828E-1	2.780269E-1	3.968142E-1	3.015598E-1	3.372587E-1	3.349658E-1	3.367983E-1	3.995594E-1	3.115167E-1	3.418000E-1	3.405085E-1	3.861698E-1	3.536379E-1	3.118801E-1	3.393051E-1	4.077106E-1	2.634451E-1	3.078548E-1	3.620111E-1	4.280054E-1	3.676243E-1	2.868722E-1	3.492586E-1	3.587273E-1	3.079517E-1	3.349257E-1	4.033931E-1	3.435754E-1	3.792864E-1	2.887305E-1	4.336093E-1	3.428031E-1	2.666623E-1	2.833052E-1	3.924000E-1	3.659861E-1	3.729357E-1	3.278405E-1	3.359516E-1	4.280030E-1	3.679670E-1	2.940123E-1	3.789432E-1	3.792982E-1	3.565952E-1	2.881274E-1	4.028780E-1	4.023018E-1	2.673034E-1	3.106871E-1	3.658962E-1	3.861948E-1	3.517982E-1	3.201825E-1	3.641076E-1	3.661147E-1	3.118133E-1	2.959358E-1	3.849502E-1	3.519489E-1	3.580958E-1	3.106371E-1	3.580867E-1	4.024203E-1	2.908216E-1	3.258785E-1	3.239160E-1	4.226331E-1	3.674972E-1	3.148894E-1	2.923131E-1	4.003037E-1	2.943369E-1	3.237074E-1	3.346623E-1	3.744811E-1	3.608506E-1	3.083125E-1	3.995777E-1	3.301676E-1	2.907618E-1	3.666038E-1	3.757269E-1	3.585544E-1	3.883789E-1	3.455020E-1	3.637927E-1
2.880020E+2	1.062117E-2	3.147942E-1	3.246755E-1	3.734057E-1	3.408271E-1	3.221404E-1	4.360419E-1	4.902764E-1	3.250217E-1	3.458207E-1	3.799409E-1	5.037381E-1	3.345154E-1	3.974966E-1	4.018196E-1	4.507073E-1	3.989709E-1	3.890492E-1	4.201512E-1	4.694683E-1	2.869550E-1	3.463432E-1	4.105293E-1	5.175334E-1	4.081253E-1	3.731974E-1	3.980667E-1	5.869630E-1	3.409500E-1	4.713119E-1	3.195810E-1	4.772708E-1	3.769199E-1	4.032771E-1	4.506707E-1	4.852817E-1	2.385856E-1	3.571593E-1	4.683628E-1	5.234934E-1	4.019932E-1	4.271524E-1	4.155891E-1	4.797601E-1	3.654366E-1	3.989450E-1	3.773840E-1	4.560796E-1	4.256346E-1	3.556326E-1	5.020464E-1	4.174735E-1	3.378700E-1	3.481042E-1	4.007211E-1	4.637952E-1	4.136769E-1	4.127996E-1	3.656844E-1	4.585370E-1	3.052108E-1	5.107581E-1	3.567341E-1	4.370162E-1	4.200308E-1	4.216414E-1	3.450677E-1	5.450695E-1	3.154102E-1	3.802204E-1	3.978355E-1	5.261452E-1	3.633678E-1	3.569034E-1	4.123726E-1	4.374897E-1	3.672563E-1	3.169994E-1	4.626758E-1	3.950510E-1	4.260185E-1	3.662897E-1	4.484767E-1	3.868587E-1	3.183106E-1	3.388607E-1	5.328657E-1	3.942040E-1	4.793905E-1	3.627637E-1	3.933674E-1	4.767650E-1	3.619409E-1	4.104368E-1	4.100247E-1	4.667678E-1	4.460876E-1	3.640843E-1	3.725592E-1	4.494325E-1	3.222631E-1	3.756458E-1	4.336322E-1	4.684186E-1	4.917199E-1	3.418333E-1	4.297796E-1	4.143034E-1	4.023398E-1	3.770611E-1	4.818970E-1	4.184190E-1	4.537885E-1	3.388180E-1	4.931494E-1	4.104870E-1	3.432034E-1	3.353153E-1	4.867455E-1	4.429040E-1	4.248086E-1	3.737620E-1	3.895970E-1	5.412237E-1	3.404939E-1	3.417126E-1	4.093869E-1	4.731087E-1	4.122635E-1	3.418491E-1	4.676259E-1	4.411856E-1	3.132992E-1	3.770305E-1	5.062885E-1	4.304335E-1	4.321448E-1	3.844292E-1	4.395158E-1	4.740741E-1	3.570702E-1	3.431510E-1	4.827486E-1	4.459458E-1	4.584924E-1	3.833008E-1	3.825524E-1	5.111239E-1	3.239957E-1	4.210314E-1	3.927449E-1	4.937689E-1	4.332039E-1	3.771371E-1	3.284013E-1	5.400306E-1	3.756979E-1	4.020262E-1	3.750947E-1	4.719073E-1	4.099326E-1	4.078646E-1	4.478048E-1	4.636815E-1	3.149709E-1	3.973519E-1	4.116570E-1	4.793313E-1	4.318714E-1	4.535474E-1	4.050156E-1
2.882210E+2	1.139362E-2	4.074118E-1	4.011431E-1	4.859996E-1	4.302922E-1	4.174181E-1	4.952202E-1	5.982596E-1	4.205446E-1	4.384745E-1	4.477469E-1	5.985500E-1	4.143203E-1	4.711100E-1	4.808662E-1	5.558046E-1	4.793683E-1	4.546843E-1	4.754095E-1	5.784478E-1	3.864640E-1	4.716693E-1	4.931687E-1	6.041330E-1	4.647861E-1	5.093084E-1	4.562413E-1	6.557098E-1	4.123873E-1	5.764101E-1	4.320987E-1	6.132061E-1	4.753594E-1	4.486773E-1	5.070654E-1	5.971406E-1	3.209661E-1	4.409948E-1	5.596253E-1	5.842716E-1	4.594590E-1	4.592527E-1	4.910630E-1	5.394806E-1	4.532996E-1	4.971247E-1	4.925066E-1	5.295330E-1	4.954426E-1	3.961484E-1	5.546969E-1	5.368683E-1	4.079620E-1	4.104710E-1	5.163893E-1	5.167443E-1	4.710744E-1	5.385130E-1	4.423733E-1	5.888152E-1	4.611836E-1	5.533738E-1	4.036856E-1	5.707815E-1	5.658264E-1	4.946047E-1	4.269937E-1	6.449428E-1	3.644829E-1	4.612364E-1	4.855946E-1	6.455067E-1	4.736547E-1	4.730323E-1	5.026152E-1	5.548975E-1	4.769284E-1	4.391829E-1	5.109992E-1	4.886378E-1	5.153599E-1	4.536902E-1	5.596281E-1	4.947074E-1	4.032386E-1	4.256747E-1	6.276150E-1	4.988013E-1	5.310743E-1	4.683965E-1	4.615607E-1	6.009648E-1	4.299360E-1	4.812878E-1	5.217943E-1	5.550744E-1	5.181674E-1	4.592798E-1	4.777339E-1	5.917785E-1	3.771171E-1	4.678419E-1	4.907775E-1	5.793575E-1	5.752624E-1	4.161043E-1	5.658588E-1	5.415648E-1	4.967277E-1	4.447546E-1	6.250522E-1	4.850226E-1	5.833213E-1	4.339125E-1	6.314647E-1	5.007310E-1	4.085081E-1	4.433358E-1	5.617378E-1	5.423952E-1	5.236908E-1	4.411628E-1	5.083817E-1	6.252535E-1	4.398836E-1	4.142710E-1	5.304867E-1	5.514022E-1	5.413471E-1	4.270878E-1	5.475622E-1	5.213824E-1	3.799577E-1	4.652612E-1	5.569856E-1	5.410287E-1	4.980894E-1	4.463814E-1	5.927400E-1	5.680240E-1	4.245723E-1	4.139735E-1	5.747529E-1	5.593161E-1	5.701404E-1	4.357806E-1	4.974670E-1	6.528735E-1	4.205675E-1	4.730683E-1	4.666991E-1	6.317537E-1	4.896452E-1	4.824208E-1	4.359433E-1	6.667388E-1	4.411062E-1	4.744327E-1	4.781979E-1	6.150938E-1	5.301817E-1	4.875065E-1	5.217522E-1	5.487208E-1	3.983581E-1	5.071687E-1	5.431253E-1	5.310936E-1	4.889572E-1	4.810505E-1	6.070081E-1
2.884160E+2	1.139362E-2	4.830611E-1	4.859221E-1	5.757227E-1	4.550664E-1	4.597635E-1	6.281716E-1	6.812556E-1	4.549610E-1	5.311280E-1	5.190124E-1	7.145195E-1	4.728441E-1	5.957890E-1	5.781052E-1	6.353018E-1	6.196974E-1	5.393755E-1	5.704552E-1	7.093870E-1	4.381081E-1	5.453148E-1	5.458177E-1	7.521407E-1	5.494094E-1	5.877205E-1	5.630081E-1	7.378692E-1	4.527964E-1	6.776728E-1	5.158617E-1	7.244895E-1	5.841610E-1	5.073485E-1	6.284721E-1	6.904961E-1	4.033465E-1	5.435984E-1	6.333659E-1	7.345746E-1	5.341654E-1	6.197572E-1	6.135159E-1	6.614448E-1	5.659438E-1	5.725382E-1	6.028612E-1	6.352506E-1	6.280782E-1	5.396720E-1	6.474252E-1	6.881562E-1	4.834980E-1	4.971279E-1	6.243976E-1	5.878690E-1	5.626192E-1	5.957282E-1	5.348518E-1	6.371583E-1	5.065581E-1	7.179865E-1	4.798977E-1	6.349615E-1	5.951404E-1	6.269003E-1	5.046457E-1	7.027208E-1	4.400816E-1	5.462683E-1	6.023708E-1	7.557510E-1	6.152384E-1	5.496779E-1	6.007060E-1	6.119476E-1	6.080397E-1	5.044397E-1	6.285612E-1	5.775118E-1	5.961548E-1	5.073690E-1	6.771309E-1	5.514278E-1	4.793340E-1	4.947457E-1	6.632476E-1	5.473653E-1	6.061778E-1	5.104902E-1	5.816729E-1	6.974717E-1	5.147389E-1	5.691132E-1	5.933553E-1	6.672118E-1	5.730098E-1	5.560107E-1	5.883224E-1	6.564066E-1	4.227174E-1	5.715620E-1	5.989712E-1	6.665236E-1	6.223047E-1	4.703229E-1	5.859898E-1	6.374138E-1	5.808051E-1	5.297161E-1	7.174103E-1	5.887047E-1	7.170881E-1	4.832743E-1	7.523755E-1	6.202216E-1	4.064013E-1	5.166837E-1	7.157547E-1	6.418864E-1	6.136568E-1	4.818998E-1	6.149058E-1	6.977849E-1	5.433151E-1	4.780949E-1	6.021985E-1	6.430962E-1	6.397744E-1	4.872556E-1	6.490806E-1	6.947379E-1	4.566156E-1	5.500715E-1	6.653995E-1	6.374048E-1	5.807097E-1	5.373978E-1	6.617310E-1	6.454912E-1	5.334951E-1	5.293127E-1	6.486465E-1	6.396791E-1	6.800578E-1	5.488128E-1	5.693808E-1	7.754913E-1	4.773310E-1	5.488927E-1	5.443145E-1	7.654533E-1	6.117934E-1	5.508171E-1	4.604835E-1	7.778254E-1	5.511833E-1	5.601390E-1	5.489538E-1	6.889010E-1	6.087121E-1	5.575909E-1	6.214205E-1	6.388631E-1	4.817453E-1	6.096634E-1	6.198835E-1	6.173620E-1	6.126399E-1	5.517717E-1	6.441086E-1
2.886030E+2	1.062117E-2	5.650736E-1	5.731949E-1	6.469724E-1	5.314569E-1	5.424692E-1	6.735695E-1	7.794221E-1	5.568041E-1	6.093681E-1	6.248734E-1	8.085473E-1	5.752603E-1	6.833292E-1	6.634254E-1	7.377047E-1	6.460090E-1	6.346528E-1	6.787622E-1	8.411384E-1	5.099066E-1	6.150842E-1	6.491165E-1	8.639329E-1	6.730337E-1	6.794480E-1	6.355542E-1	9.013518E-1	5.574263E-1	7.574551E-1	5.396152E-1	8.399996E-1	6.626161E-1	6.400569E-1	7.389124E-1	8.351553E-1	4.663440E-1	6.105419E-1	7.698958E-1	7.961739E-1	5.894760E-1	7.023029E-1	7.097842E-1	8.229416E-1	6.320292E-1	6.714291E-1	6.730237E-1	7.471467E-1	7.785532E-1	5.733210E-1	8.030187E-1	7.306796E-1	5.427016E-1	5.397998E-1	7.622801E-1	7.364419E-1	6.294614E-1	7.149954E-1	6.228183E-1	7.879213E-1	6.051046E-1	7.572585E-1	5.370572E-1	7.390003E-1	7.401649E-1	6.894397E-1	5.758854E-1	8.364339E-1	5.375647E-1	6.118848E-1	6.349274E-1	8.577049E-1	6.197099E-1	6.294192E-1	6.375886E-1	7.028966E-1	6.245311E-1	6.085737E-1	7.446806E-1	6.367612E-1	6.955951E-1	5.789409E-1	7.652579E-1	6.496903E-1	5.323294E-1	5.726888E-1	8.511274E-1	6.796067E-1	7.563847E-1	6.558340E-1	6.785376E-1	8.267067E-1	6.064172E-1	6.716997E-1	6.240238E-1	7.744422E-1	6.552742E-1	6.120529E-1	6.726173E-1	7.562122E-1	4.716239E-1	6.074906E-1	7.323088E-1	7.869710E-1	7.464011E-1	5.973258E-1	7.212640E-1	7.260123E-1	6.728143E-1	6.001723E-1	7.666682E-1	6.491284E-1	7.644986E-1	5.682050E-1	8.320680E-1	7.129723E-1	5.271811E-1	6.073681E-1	7.568787E-1	7.915417E-1	7.092970E-1	5.811499E-1	6.624194E-1	8.693846E-1	6.410898E-1	5.721523E-1	7.510363E-1	7.298538E-1	6.865675E-1	5.474246E-1	7.825736E-1	6.793468E-1	5.326073E-1	6.540327E-1	7.964319E-1	7.353604E-1	7.209356E-1	6.146468E-1	7.307218E-1	7.559237E-1	6.309129E-1	6.109270E-1	7.739746E-1	7.265002E-1	7.640102E-1	5.988700E-1	6.516744E-1	8.546267E-1	5.768521E-1	6.537085E-1	6.526830E-1	8.160200E-1	7.263595E-1	6.199807E-1	5.738001E-1	8.967243E-1	6.421163E-1	6.835264E-1	6.534042E-1	8.099465E-1	7.297796E-1	6.228964E-1	7.355568E-1	7.842818E-1	5.617702E-1	7.187484E-1	7.170560E-1	7.176495E-1	6.765207E-1	6.107070E-1	6.688422E-1
2.888210E+2	9.076270E-3	6.972840E-1	7.228054E-1	8.246590E-1	6.601483E-1	6.456873E-1	8.324603E-1	9.239954E-1	7.211586E-1	6.958451E-1	7.743245E-1	9.629111E-1	7.109286E-1	8.504516E-1	7.405899E-1	9.371211E-1	8.572342E-1	8.082690E-1	8.555904E-1	9.200275E-1	6.364973E-1	7.507466E-1	7.170943E-1	9.961948E-1	7.701674E-1	7.179140E-1	7.293183E-1	1.076571E+0	6.389659E-1	8.763625E-1	6.846381E-1	9.371973E-1	8.395110E-1	6.833615E-1	8.658017E-1	9.276700E-1	5.166197E-1	7.256586E-1	8.596983E-1	9.744018E-1	7.532553E-1	7.955484E-1	7.737058E-1	9.869625E-1	7.604436E-1	7.760122E-1	8.119890E-1	8.844432E-1	8.801627E-1	6.797616E-1	9.153930E-1	8.697019E-1	6.284451E-1	6.947315E-1	9.392294E-1	8.423392E-1	7.725911E-1	8.302329E-1	7.100342E-1	9.427808E-1	7.008149E-1	9.202005E-1	6.881205E-1	8.545252E-1	8.666758E-1	8.634285E-1	6.521121E-1	9.701476E-1	6.476469E-1	7.692293E-1	7.354252E-1	9.977891E-1	7.299962E-1	7.354835E-1	7.819775E-1	8.798354E-1	7.869786E-1	6.939629E-1	8.175259E-1	7.976769E-1	8.028030E-1	6.876755E-1	9.494526E-1	8.046741E-1	6.654967E-1	6.759781E-1	9.491166E-1	8.066190E-1	8.662128E-1	7.924415E-1	8.102735E-1	9.651734E-1	7.324754E-1	7.558354E-1	7.698710E-1	8.977925E-1	8.276370E-1	8.009084E-1	7.940326E-1	9.141017E-1	6.011562E-1	7.708667E-1	8.435502E-1	8.361016E-1	8.494093E-1	6.886796E-1	8.227193E-1	8.766315E-1	8.005156E-1	6.768457E-1	9.344518E-1	7.912625E-1	9.236632E-1	6.596701E-1	9.804586E-1	8.483391E-1	5.861662E-1	6.693799E-1	9.608913E-1	9.152796E-1	8.195262E-1	7.152117E-1	8.463447E-1	9.826041E-1	7.412882E-1	6.823334E-1	8.964905E-1	8.716280E-1	8.269465E-1	6.720589E-1	9.448444E-1	8.859145E-1	6.539277E-1	7.265317E-1	9.103048E-1	8.427958E-1	7.899118E-1	7.569077E-1	8.462419E-1	8.836627E-1	7.214268E-1	7.411049E-1	9.137909E-1	8.628316E-1	9.474943E-1	6.892954E-1	7.599168E-1	1.048554E+0	6.903802E-1	7.644726E-1	8.035201E-1	1.016569E+0	7.979644E-1	7.667625E-1	7.152658E-1	1.054675E+0	7.617650E-1	7.677557E-1	7.565073E-1	9.642035E-1	8.982929E-1	7.654549E-1	8.271871E-1	9.279992E-1	6.895406E-1	8.227077E-1	8.787381E-1	9.160671E-1	8.328243E-1	7.659008E-1	9.367923E-1
2.890190E+2	7.531371E-3	6.880930E-1	6.754286E-1	7.111862E-1	5.906411E-1	6.006954E-1	7.765237E-1	9.007927E-1	6.298507E-1	6.196636E-1	6.829932E-1	8.767182E-1	6.670360E-1	7.343945E-1	6.791091E-1	8.468445E-1	8.177669E-1	6.861732E-1	7.657025E-1	8.891222E-1	6.308289E-1	6.816242E-1	6.617792E-1	9.395105E-1	7.436759E-1	7.208732E-1	6.868850E-1	9.256648E-1	6.533975E-1	8.073202E-1	6.283794E-1	9.026855E-1	8.454323E-1	6.707894E-1	7.819914E-1	8.755258E-1	5.650791E-1	6.361930E-1	7.990998E-1	8.865206E-1	7.187750E-1	7.389893E-1	7.144050E-1	8.826615E-1	6.613157E-1	6.863695E-1	7.193459E-1	7.670546E-1	8.305216E-1	6.220779E-1	7.597981E-1	8.402619E-1	6.366110E-1	6.179223E-1	8.136034E-1	7.498765E-1	7.718647E-1	7.359479E-1	6.574041E-1	8.567469E-1	6.802556E-1	8.491751E-1	6.459311E-1	7.835891E-1	8.435332E-1	7.383487E-1	6.221917E-1	8.826562E-1	5.813321E-1	6.634401E-1	7.078243E-1	9.422535E-1	6.659110E-1	6.689035E-1	7.396024E-1	7.657354E-1	7.020439E-1	6.745250E-1	8.218535E-1	7.195757E-1	7.693981E-1	6.312441E-1	8.200400E-1	7.032152E-1	5.955156E-1	5.866294E-1	9.037661E-1	7.453543E-1	7.927258E-1	7.360517E-1	7.010107E-1	8.661486E-1	6.492010E-1	7.063880E-1	6.880873E-1	8.038779E-1	7.375378E-1	6.773082E-1	7.159247E-1	8.290216E-1	5.496071E-1	6.637577E-1	7.749768E-1	8.194609E-1	8.242648E-1	6.062386E-1	7.719922E-1	8.017248E-1	7.116798E-1	6.630302E-1	8.559467E-1	6.724744E-1	7.721178E-1	6.001459E-1	9.767953E-1	7.647796E-1	5.629933E-1	5.940319E-1	8.681582E-1	7.990661E-1	7.360443E-1	6.470689E-1	7.781394E-1	9.127265E-1	6.580589E-1	6.299305E-1	7.916281E-1	7.898080E-1	7.632111E-1	5.782248E-1	9.000797E-1	7.668337E-1	5.979334E-1	6.711311E-1	8.011117E-1	7.511601E-1	7.952182E-1	7.010735E-1	7.612059E-1	8.127873E-1	6.439535E-1	6.682588E-1	8.239609E-1	8.039946E-1	8.245943E-1	6.578082E-1	6.813299E-1	9.589820E-1	6.137113E-1	7.280469E-1	6.768462E-1	9.848584E-1	7.465776E-1	6.683957E-1	6.178275E-1	9.644174E-1	6.756179E-1	7.123423E-1	6.945108E-1	8.800635E-1	7.854048E-1	6.818314E-1	7.186780E-1	8.276524E-1	5.732019E-1	6.931241E-1	7.872818E-1	8.103886E-1	7.186541E-1	6.558888E-1	8.213670E-1
2.892040E+2	1.371097E-2	4.632657E-1	4.801039E-1	5.062305E-1	4.296036E-1	4.822597E-1	5.446717E-1	6.294949E-1	4.774365E-1	4.686729E-1	4.726555E-1	6.416467E-1	4.947905E-1	5.241647E-1	5.197616E-1	6.265434E-1	6.123886E-1	5.174967E-1	5.630870E-1	6.182985E-1	4.349594E-1	4.839440E-1	5.124953E-1	6.513695E-1	5.714857E-1	5.292821E-1	4.925140E-1	6.791835E-1	5.069154E-1	6.155344E-1	4.383499E-1	6.160236E-1	6.367113E-1	5.164282E-1	5.822589E-1	6.333058E-1	4.051639E-1	4.810358E-1	6.114626E-1	6.171245E-1	5.162072E-1	5.288044E-1	5.411223E-1	6.303229E-1	5.321502E-1	4.921448E-1	5.510900E-1	5.933753E-1	6.769434E-1	4.201838E-1	6.450676E-1	5.663078E-1	4.773734E-1	4.590517E-1	6.381854E-1	5.997238E-1	5.248387E-1	5.530189E-1	5.017702E-1	6.158549E-1	5.015954E-1	6.218930E-1	4.887434E-1	5.896970E-1	6.877092E-1	5.667657E-1	4.868355E-1	6.721802E-1	4.798706E-1	4.759664E-1	5.245201E-1	6.836362E-1	4.960097E-1	5.179353E-1	5.755950E-1	6.177353E-1	5.940222E-1	4.780591E-1	5.831226E-1	5.344215E-1	6.606352E-1	4.819065E-1	6.445793E-1	5.346514E-1	5.207787E-1	4.503879E-1	6.462405E-1	5.518474E-1	6.409027E-1	4.803096E-1	5.382777E-1	6.739747E-1	5.368951E-1	5.351638E-1	5.490554E-1	5.845108E-1	6.584079E-1	5.452624E-1	5.225881E-1	6.097766E-1	4.432051E-1	5.091941E-1	5.601129E-1	6.126393E-1	5.801289E-1	4.836912E-1	5.884045E-1	5.915027E-1	5.110058E-1	4.917252E-1	6.458319E-1	5.550589E-1	6.036406E-1	4.418976E-1	6.690201E-1	5.182783E-1	4.197441E-1	4.480036E-1	6.456000E-1	6.243297E-1	5.115330E-1	4.811589E-1	5.612601E-1	7.075141E-1	5.021042E-1	4.424885E-1	5.778438E-1	6.092398E-1	5.582893E-1	4.693486E-1	6.171057E-1	5.942888E-1	4.346180E-1	5.158738E-1	6.076825E-1	5.670978E-1	5.481160E-1	5.358682E-1	5.470137E-1	6.001646E-1	4.882382E-1	4.915404E-1	6.254638E-1	5.894522E-1	6.168774E-1	5.253984E-1	5.130356E-1	6.789619E-1	4.876522E-1	5.659905E-1	5.391897E-1	7.088882E-1	5.502982E-1	5.131605E-1	4.727535E-1	7.361681E-1	5.192762E-1	5.527509E-1	5.004349E-1	6.291175E-1	5.956243E-1	5.265306E-1	5.490803E-1	6.235566E-1	4.474490E-1	5.518272E-1	5.913027E-1	5.753055E-1	5.813797E-1	4.889090E-1	6.523531E-1
2.894050E+2	1.448341E-2	3.699405E-1	4.144415E-1	4.675265E-1	3.656019E-1	3.995528E-1	4.773860E-1	4.858147E-1	3.840205E-1	4.192572E-1	4.394444E-1	5.241107E-1	3.976940E-1	4.478983E-1	4.294223E-1	5.369415E-1	5.181047E-1	4.003416E-1	4.739356E-1	5.353442E-1	3.713491E-1	4.006082E-1	4.538486E-1	5.907499E-1	4.530130E-1	4.353345E-1	4.541876E-1	5.567819E-1	4.044497E-1	5.058334E-1	3.802156E-1	5.617902E-1	5.234691E-1	3.683534E-1	4.929665E-1	5.475187E-1	3.385322E-1	3.984519E-1	4.939159E-1	5.407415E-1	4.666429E-1	4.386166E-1	4.440839E-1	5.302283E-1	4.585566E-1	4.160190E-1	4.482290E-1	4.938362E-1	5.520656E-1	4.057628E-1	4.886872E-1	4.763526E-1	4.113644E-1	3.815854E-1	4.673642E-1	4.843422E-1	4.819728E-1	4.716276E-1	4.145543E-1	5.560409E-1	4.455865E-1	5.893043E-1	4.084493E-1	4.748488E-1	5.750837E-1	4.505061E-1	3.429308E-1	5.731331E-1	3.598411E-1	4.056628E-1	4.148216E-1	5.883121E-1	4.103148E-1	4.196135E-1	4.523933E-1	4.904059E-1	4.876478E-1	4.426543E-1	4.965741E-1	4.462216E-1	5.441042E-1	3.731722E-1	5.000830E-1	4.276015E-1	4.338128E-1	3.851186E-1	5.911732E-1	4.465022E-1	5.343043E-1	4.699845E-1	4.445127E-1	5.573271E-1	4.146559E-1	4.576708E-1	4.556866E-1	4.660670E-1	5.283516E-1	4.247331E-1	4.352002E-1	5.238783E-1	4.081784E-1	4.359801E-1	4.968732E-1	5.191336E-1	5.395738E-1	3.507455E-1	4.829232E-1	4.698797E-1	5.110057E-1	4.046912E-1	5.396209E-1	4.328386E-1	6.391991E-1	3.627734E-1	5.783373E-1	5.099226E-1	4.520455E-1	3.673216E-1	5.310958E-1	5.348712E-1	5.026169E-1	3.559855E-1	4.738954E-1	5.482993E-1	4.019058E-1	3.632113E-1	5.068080E-1	5.358844E-1	4.985880E-1	4.149108E-1	5.163867E-1	4.752074E-1	3.692923E-1	4.337993E-1	5.413863E-1	4.817816E-1	4.859613E-1	4.333794E-1	5.093090E-1	5.037426E-1	4.153669E-1	3.660838E-1	5.254915E-1	5.026304E-1	4.861878E-1	4.430467E-1	4.144319E-1	5.850427E-1	4.117209E-1	4.165708E-1	4.432680E-1	5.734742E-1	4.517375E-1	4.247840E-1	3.846987E-1	5.539162E-1	4.387131E-1	4.190192E-1	4.539382E-1	5.693330E-1	5.031869E-1	4.357387E-1	4.912085E-1	5.351141E-1	3.640619E-1	4.529925E-1	4.859649E-1	4.836450E-1	4.142032E-1	4.397969E-1	5.369289E-1
2.896150E+2	7.531366E-3	4.321569E-1	4.277403E-1	5.044719E-1	4.062052E-1	4.418990E-1	5.171083E-1	6.053994E-1	4.563657E-1	4.508280E-1	4.878772E-1	5.695587E-1	4.508978E-1	5.109010E-1	4.865122E-1	5.430046E-1	6.014246E-1	4.504498E-1	4.908823E-1	6.077260E-1	4.406280E-1	4.342011E-1	4.885043E-1	6.009839E-1	4.861262E-1	4.671437E-1	4.767729E-1	6.565483E-1	4.152736E-1	5.518618E-1	4.133457E-1	6.350402E-1	5.242092E-1	4.836005E-1	5.454457E-1	6.089151E-1	4.057694E-1	4.510049E-1	5.340718E-1	5.965917E-1	4.400645E-1	5.173402E-1	5.172476E-1	5.966776E-1	5.058673E-1	5.092189E-1	5.102184E-1	5.322788E-1	6.195463E-1	4.325450E-1	5.429100E-1	5.654903E-1	4.331407E-1	4.616771E-1	4.872807E-1	5.238560E-1	5.321044E-1	5.006380E-1	4.363584E-1	5.855380E-1	4.881249E-1	5.650722E-1	4.336262E-1	5.660526E-1	6.383385E-1	5.138476E-1	4.255689E-1	6.358629E-1	4.128929E-1	4.779747E-1	4.841791E-1	6.612558E-1	4.952648E-1	4.714842E-1	4.931993E-1	5.681256E-1	5.354750E-1	4.343228E-1	5.347997E-1	5.189356E-1	5.813938E-1	4.530023E-1	5.699494E-1	5.034954E-1	4.548751E-1	4.072978E-1	6.349037E-1	4.950663E-1	5.593391E-1	4.588660E-1	4.832589E-1	5.480962E-1	4.727192E-1	4.975252E-1	5.108904E-1	5.725964E-1	5.839781E-1	4.592799E-1	4.932011E-1	5.778714E-1	4.511358E-1	4.868229E-1	5.471599E-1	5.619242E-1	5.971616E-1	4.220463E-1	5.239884E-1	5.206228E-1	5.181441E-1	4.378470E-1	5.673287E-1	5.049351E-1	6.976160E-1	4.099577E-1	6.278008E-1	5.032377E-1	4.696001E-1	4.266664E-1	5.706080E-1	5.432314E-1	5.642164E-1	4.633827E-1	5.183446E-1	6.146394E-1	5.368505E-1	4.465190E-1	5.047778E-1	5.506968E-1	6.026625E-1	4.306689E-1	5.355711E-1	5.691770E-1	4.486169E-1	4.577370E-1	5.764845E-1	5.062700E-1	5.314405E-1	4.494406E-1	5.678718E-1	5.746168E-1	4.675277E-1	4.139734E-1	5.754780E-1	5.629033E-1	6.584208E-1	4.220554E-1	4.848635E-1	6.146089E-1	4.441575E-1	5.005729E-1	4.740211E-1	6.703207E-1	5.385041E-1	4.547552E-1	4.121255E-1	6.623994E-1	4.817873E-1	4.633500E-1	4.714587E-1	6.409264E-1	5.694469E-1	4.699851E-1	5.257710E-1	5.980440E-1	4.118077E-1	4.544570E-1	5.071954E-1	5.860893E-1	5.107036E-1	5.026602E-1	6.482310E-1
2.898030E+2	8.303823E-3	4.229660E-1	4.751165E-1	4.719255E-1	4.598843E-1	4.207266E-1	5.130553E-1	6.196775E-1	4.570675E-1	4.679859E-1	5.120935E-1	6.103038E-1	4.475727E-1	5.254910E-1	4.789835E-1	5.766897E-1	5.963094E-1	4.638593E-1	5.601397E-1	6.304983E-1	4.280313E-1	4.807141E-1	4.831720E-1	6.663280E-1	5.420508E-1	5.004319E-1	4.877231E-1	6.448102E-1	4.816599E-1	6.132328E-1	3.758400E-1	6.209542E-1	5.878617E-1	4.731236E-1	5.869587E-1	6.509677E-1	3.682142E-1	4.916709E-1	4.931855E-1	6.343727E-1	4.881921E-1	4.951752E-1	4.956840E-1	6.210710E-1	4.931002E-1	4.871637E-1	5.163486E-1	5.563056E-1	6.009303E-1	4.380382E-1	6.152058E-1	5.834812E-1	4.310989E-1	4.065324E-1	5.562222E-1	5.404528E-1	5.095818E-1	5.095024E-1	4.912438E-1	6.027447E-1	4.689831E-1	6.327556E-1	4.281822E-1	5.586208E-1	6.506813E-1	5.531355E-1	3.863875E-1	6.845615E-1	4.453871E-1	4.739572E-1	5.047035E-1	6.579403E-1	5.183660E-1	4.923872E-1	5.638241E-1	5.780480E-1	5.635115E-1	4.662574E-1	5.751897E-1	4.825782E-1	6.792805E-1	4.736482E-1	6.152039E-1	4.899142E-1	5.010757E-1	4.098323E-1	6.146577E-1	5.070201E-1	6.029476E-1	5.136672E-1	4.979821E-1	6.471200E-1	4.948749E-1	5.034287E-1	4.931699E-1	5.838104E-1	5.996473E-1	4.738663E-1	5.102146E-1	6.171383E-1	4.544402E-1	4.997036E-1	5.540175E-1	5.563768E-1	6.109496E-1	4.450702E-1	5.449235E-1	5.302879E-1	5.268691E-1	4.640958E-1	6.227430E-1	5.207277E-1	7.297872E-1	4.237497E-1	6.058158E-1	5.166073E-1	4.534495E-1	4.526713E-1	6.246349E-1	5.549362E-1	5.018070E-1	4.744930E-1	5.352045E-1	6.579816E-1	5.320024E-1	4.532373E-1	5.311633E-1	5.676248E-1	6.131506E-1	4.478600E-1	5.811353E-1	5.732266E-1	4.646152E-1	4.474779E-1	5.991033E-1	5.655181E-1	5.647919E-1	4.739154E-1	5.638596E-1	5.540143E-1	5.181536E-1	4.315106E-1	5.819975E-1	5.872996E-1	7.216013E-1	4.704971E-1	5.256396E-1	6.276543E-1	5.053440E-1	5.228743E-1	4.989165E-1	6.763209E-1	5.191290E-1	4.685882E-1	4.474921E-1	6.823599E-1	5.424087E-1	4.892092E-1	4.896534E-1	6.040227E-1	5.923510E-1	5.026385E-1	5.595300E-1	6.022959E-1	4.400520E-1	4.903300E-1	5.692555E-1	5.882451E-1	5.936121E-1	5.399849E-1	6.976987E-1
2.900050E+2	1.488896E-1	4.208450E-1	4.294027E-1	5.352587E-1	4.158401E-1	3.949217E-1	5.235943E-1	5.598851E-1	4.212468E-1	4.199436E-1	4.650447E-1	5.217601E-1	4.309465E-1	4.936584E-1	4.915306E-1	5.376154E-1	5.159120E-1	4.977355E-1	4.864618E-1	5.548629E-1	4.261422E-1	4.109443E-1	5.018328E-1	5.427260E-1	4.736166E-1	4.893354E-1	4.603472E-1	6.272052E-1	4.910405E-1	4.996957E-1	4.333490E-1	5.258698E-1	5.456730E-1	4.647422E-1	5.141148E-1	5.693863E-1	3.724534E-1	4.291077E-1	5.596252E-1	6.015198E-1	4.846012E-1	4.753037E-1	5.056957E-1	5.470510E-1	4.713223E-1	5.070848E-1	4.952314E-1	5.219823E-1	5.582699E-1	4.558931E-1	5.429097E-1	5.033397E-1	4.692068E-1	4.216316E-1	5.723086E-1	5.262273E-1	4.965035E-1	4.861324E-1	4.371107E-1	5.265437E-1	4.491318E-1	5.767706E-1	4.588032E-1	5.201124E-1	5.557988E-1	4.921997E-1	4.761497E-1	5.566253E-1	4.533448E-1	4.324450E-1	5.372588E-1	5.758791E-1	4.594959E-1	4.652903E-1	4.979072E-1	5.358801E-1	4.983684E-1	4.447371E-1	5.146048E-1	4.866183E-1	5.573110E-1	4.695190E-1	5.572460E-1	5.026958E-1	4.535159E-1	4.301102E-1	5.531110E-1	4.636861E-1	5.100776E-1	4.588656E-1	4.716347E-1	5.548095E-1	4.826512E-1	4.812884E-1	4.836294E-1	5.396564E-1	5.589075E-1	4.469966E-1	4.854680E-1	5.672360E-1	4.610488E-1	4.780104E-1	5.151594E-1	5.547924E-1	5.136195E-1	4.109050E-1	5.038581E-1	5.141796E-1	4.975214E-1	4.654773E-1	5.519356E-1	5.344607E-1	6.358123E-1	4.026983E-1	6.076491E-1	4.990599E-1	4.204460E-1	4.433364E-1	5.625436E-1	5.574444E-1	4.912700E-1	4.315338E-1	5.076151E-1	5.571450E-1	4.762462E-1	4.465192E-1	5.358985E-1	5.506965E-1	6.026626E-1	4.693491E-1	5.499596E-1	5.108512E-1	4.426175E-1	4.891990E-1	5.164280E-1	5.323388E-1	5.185543E-1	4.823290E-1	5.630576E-1	5.086874E-1	4.682943E-1	4.618626E-1	5.349090E-1	5.119584E-1	5.874499E-1	4.793785E-1	4.515012E-1	5.911297E-1	4.647990E-1	5.035463E-1	4.872012E-1	6.180410E-1	5.056507E-1	4.808834E-1	4.381096E-1	5.929700E-1	4.921560E-1	4.929039E-1	5.065004E-1	5.774518E-1	5.514508E-1	4.827279E-1	5.145174E-1	5.385156E-1	4.467764E-1	4.976505E-1	5.227113E-1	5.666787E-1	4.821610E-1	4.790865E-1	5.575402E-1
2.905120E+2	4.424200E-1	3.536791E-1	4.086234E-1	4.666467E-1	4.213458E-1	3.763956E-1	4.587405E-1	4.884917E-1	4.135206E-1	4.432779E-1	4.934122E-1	4.763130E-1	4.641983E-1	4.777416E-1	4.708283E-1	4.783294E-1	4.362459E-1	4.525672E-1	5.034071E-1	4.776012E-1	4.179550E-1	4.245102E-1	5.118295E-1	4.828937E-1	4.588995E-1	4.915546E-1	4.925140E-1	5.131868E-1	4.802161E-1	4.820519E-1	5.058604E-1	4.695230E-1	4.302105E-1	4.298182E-1	4.671194E-1	4.903276E-1	4.069815E-1	4.397432E-1	4.946465E-1	5.128164E-1	4.429379E-1	4.347951E-1	5.164782E-1	4.553674E-1	4.863417E-1	4.786264E-1	4.965943E-1	4.924629E-1	4.264109E-1	4.462791E-1	5.216923E-1	4.616332E-1	4.066008E-1	4.137540E-1	5.033676E-1	5.143734E-1	3.918811E-1	4.684038E-1	4.822216E-1	4.593560E-1	4.470042E-1	4.848551E-1	5.050754E-1	4.843071E-1	4.532012E-1	4.432900E-1	4.989468E-1	5.021487E-1	4.175347E-1	4.083414E-1	4.969184E-1	4.780687E-1	4.088246E-1	4.521290E-1	4.476849E-1	4.722155E-1	4.513660E-1	4.926381E-1	4.936891E-1	4.899844E-1	4.174732E-1	4.695185E-1	4.167186E-1	4.739367E-1	4.263392E-1	4.529229E-1	4.632210E-1	5.040319E-1	4.317447E-1	4.350391E-1	4.855834E-1	4.859964E-1	4.482713E-1	4.842401E-1	4.918070E-1	4.835879E-1	4.217999E-1	4.339457E-1	5.040276E-1	5.066979E-1	4.028912E-1	4.271676E-1	4.603003E-1	4.652489E-1	4.057454E-1	4.554683E-1	4.966118E-1	5.077358E-1	4.776919E-1	4.806735E-1	4.995988E-1	4.932624E-1	4.343161E-1	4.506080E-1	5.270414E-1	4.823477E-1	4.176368E-1	4.406689E-1	4.948089E-1	4.913957E-1	4.531762E-1	4.633831E-1	5.283066E-1	4.810743E-1	4.883671E-1	5.056403E-1	5.203385E-1	5.006175E-1	4.445336E-1	4.929864E-1	4.668268E-1	5.238126E-1	3.912898E-1	4.563696E-1	5.023886E-1	4.659816E-1	3.972773E-1	4.800350E-1	4.411204E-1	4.864361E-1	4.529531E-1	4.800741E-1	5.052065E-1	4.710596E-1	4.290659E-1	4.906816E-1	4.848637E-1	4.606858E-1	4.589015E-1	4.411025E-1	5.099003E-1	4.534873E-1	4.458404E-1	4.270889E-1	5.247199E-1	4.758077E-1	4.602496E-1	5.091588E-1	5.017829E-1	4.910974E-1	4.467435E-1	4.739668E-1	4.678991E-1	5.070511E-1	4.440867E-1	4.683670E-1	5.251607E-1	5.030554E-1	4.114837E-1	5.065888E-1	4.833391E-1
2.910060E+2	5.420662E-1	4.392270E-1	4.867534E-1	5.994720E-1	4.915408E-1	4.875534E-1	6.184433E-1	6.161088E-1	5.097458E-1	5.476001E-1	6.041168E-1	6.173556E-1	5.632896E-1	5.785460E-1	6.144919E-1	5.793846E-1	5.407619E-1	5.584311E-1	6.242402E-1	5.491699E-1	5.445459E-1	5.472528E-1	6.404532E-1	6.364116E-1	6.112220E-1	6.254468E-1	6.622461E-1	6.540328E-1	6.461817E-1	5.963555E-1	6.058766E-1	6.188412E-1	6.174673E-1	5.611304E-1	6.504034E-1	6.619007E-1	5.384263E-1	5.636196E-1	6.501586E-1	6.286232E-1	5.593067E-1	5.479124E-1	6.589547E-1	6.084530E-1	6.042428E-1	6.152249E-1	6.137602E-1	6.359376E-1	5.923981E-1	5.822481E-1	6.262076E-1	6.399071E-1	5.427013E-1	5.785324E-1	6.535058E-1	6.313348E-1	5.095816E-1	5.530187E-1	6.092854E-1	6.445319E-1	5.994330E-1	6.026742E-1	6.908417E-1	6.538771E-1	5.719978E-1	5.338927E-1	6.293151E-1	6.284345E-1	5.521541E-1	5.301994E-1	6.335116E-1	6.073772E-1	5.168750E-1	6.116131E-1	6.195395E-1	6.557688E-1	5.833016E-1	6.057966E-1	6.249548E-1	5.929980E-1	6.124688E-1	5.706829E-1	5.675675E-1	6.097463E-1	5.432002E-1	5.821933E-1	6.559591E-1	6.153537E-1	5.496480E-1	5.938838E-1	6.754390E-1	6.420850E-1	6.148213E-1	6.318458E-1	6.083489E-1	6.489899E-1	5.557733E-1	5.368179E-1	6.293098E-1	6.040497E-1	5.165632E-1	5.430896E-1	6.256389E-1	5.944129E-1	5.387629E-1	5.572197E-1	6.238340E-1	6.204987E-1	6.283956E-1	6.008631E-1	5.888787E-1	6.484424E-1	5.257517E-1	5.783683E-1	6.094807E-1	6.243997E-1	4.969860E-1	5.813632E-1	5.915731E-1	6.126244E-1	5.342272E-1	5.737436E-1	6.447939E-1	6.977856E-1	6.580581E-1	5.996974E-1	6.373786E-1	6.057134E-1	5.445747E-1	5.739271E-1	6.003195E-1	6.866372E-1	5.552719E-1	5.507558E-1	5.858435E-1	5.979068E-1	5.299244E-1	5.871126E-1	6.288400E-1	5.779134E-1	5.933264E-1	6.156481E-1	6.298103E-1	6.368086E-1	5.753340E-1	6.012916E-1	6.390710E-1	6.302630E-1	5.783267E-1	5.882918E-1	6.197334E-1	6.823190E-1	5.882064E-1	5.100865E-1	6.654636E-1	6.433063E-1	6.596651E-1	6.517563E-1	6.075811E-1	6.224742E-1	5.579954E-1	5.950223E-1	6.318695E-1	6.371627E-1	5.496652E-1	5.715939E-1	6.500969E-1	6.141267E-1	5.487600E-1	6.362442E-1	5.905187E-1
2.915210E+2	7.150946E-1	6.626406E-1	6.280524E-1	7.780379E-1	6.862992E-1	6.311304E-1	7.359910E-1	7.124901E-1	6.867423E-1	6.244676E-1	7.653301E-1	7.552649E-1	7.428511E-1	7.105196E-1	7.161229E-1	7.660000E-1	7.190974E-1	7.616896E-1	7.546506E-1	7.435453E-1	6.522425E-1	6.473848E-1	7.424189E-1	7.001801E-1	6.421281E-1	7.193938E-1	7.368458E-1	7.118806E-1	7.190616E-1	7.697296E-1	7.496483E-1	7.759060E-1	6.751987E-1	6.868547E-1	7.890406E-1	7.375949E-1	6.286817E-1	6.593413E-1	7.406913E-1	7.247185E-1	6.850143E-1	6.526223E-1	7.960407E-1	7.119123E-1	7.191396E-1	7.013099E-1	7.595364E-1	7.512653E-1	6.870279E-1	6.749553E-1	7.377950E-1	7.347687E-1	6.025854E-1	6.907929E-1	7.078925E-1	7.648921E-1	6.396328E-1	7.069370E-1	7.280788E-1	7.567851E-1	6.781280E-1	7.238357E-1	7.588884E-1	7.491344E-1	6.799950E-1	6.397289E-1	7.290506E-1	8.124977E-1	6.277531E-1	6.467010E-1	7.587807E-1	7.607237E-1	6.428109E-1	6.549682E-1	7.670677E-1	7.277018E-1	7.036931E-1	7.488070E-1	6.848176E-1	7.175562E-1	7.056939E-1	6.966221E-1	7.160341E-1	7.679244E-1	6.294869E-1	6.550671E-1	7.150762E-1	7.446069E-1	6.804734E-1	7.042825E-1	7.211586E-1	7.478233E-1	7.378236E-1	7.440270E-1	7.657811E-1	7.106647E-1	6.396040E-1	6.504381E-1	7.089644E-1	7.283979E-1	6.811233E-1	6.508776E-1	7.696436E-1	7.315021E-1	6.385262E-1	6.641702E-1	7.752129E-1	7.348727E-1	6.981958E-1	7.175990E-1	7.612797E-1	7.576169E-1	6.764503E-1	6.908835E-1	7.633685E-1	7.372050E-1	6.577915E-1	6.940513E-1	7.528465E-1	7.196410E-1	6.436459E-1	6.915106E-1	7.674107E-1	7.853540E-1	7.194709E-1	7.313779E-1	7.557714E-1	7.672370E-1	6.494555E-1	7.007102E-1	7.609906E-1	7.806053E-1	5.992668E-1	6.677114E-1	7.293557E-1	7.322012E-1	6.428637E-1	7.683804E-1	7.684259E-1	7.023561E-1	6.746356E-1	7.674104E-1	7.616594E-1	7.731402E-1	7.354491E-1	6.989838E-1	7.487955E-1	7.241824E-1	7.110212E-1	6.879047E-1	7.500685E-1	7.723100E-1	6.909794E-1	6.522568E-1	7.607363E-1	7.891092E-1	7.378359E-1	7.345070E-1	7.693108E-1	7.368763E-1	7.281438E-1	7.192630E-1	7.733346E-1	7.638723E-1	6.478464E-1	7.377823E-1	7.856485E-1	7.866654E-1	6.928313E-1	7.403608E-1	7.471662E-1
2.920010E+2	5.706470E-1	4.583157E-1	4.859226E-1	5.405368E-1	5.280151E-1	4.352823E-1	5.389968E-1	5.473920E-1	5.174712E-1	4.769086E-1	5.370022E-1	5.437002E-1	5.267129E-1	5.307965E-1	5.705770E-1	5.389623E-1	5.875387E-1	4.920901E-1	5.564560E-1	5.792611E-1	5.332091E-1	4.665011E-1	5.798071E-1	5.254061E-1	5.479382E-1	5.181852E-1	5.575321E-1	5.894786E-1	5.444374E-1	5.472586E-1	5.727459E-1	5.801030E-1	5.205080E-1	5.010625E-1	5.360464E-1	5.264929E-1	5.032933E-1	5.110659E-1	5.654659E-1	5.382770E-1	5.521235E-1	5.035828E-1	6.019633E-1	5.697623E-1	5.298984E-1	5.348308E-1	5.933241E-1	5.720944E-1	4.651929E-1	5.279981E-1	5.696275E-1	5.524060E-1	4.671655E-1	5.069751E-1	5.447322E-1	5.301791E-1	4.739807E-1	5.014441E-1	5.679330E-1	5.855378E-1	5.675287E-1	5.533738E-1	5.241281E-1	5.599714E-1	5.125997E-1	4.978122E-1	5.317166E-1	5.541491E-1	4.599765E-1	4.987305E-1	5.818466E-1	5.269741E-1	4.967553E-1	5.086460E-1	5.347897E-1	5.367069E-1	5.198072E-1	5.662261E-1	5.679767E-1	5.344219E-1	5.060375E-1	4.922298E-1	5.032591E-1	5.761937E-1	4.820517E-1	4.516558E-1	5.725467E-1	5.331693E-1	5.068471E-1	5.184331E-1	5.863227E-1	4.952276E-1	5.514108E-1	5.484492E-1	5.572343E-1	5.452634E-1	5.150320E-1	5.022706E-1	5.481084E-1	5.835975E-1	4.683189E-1	5.030930E-1	5.776370E-1	5.381518E-1	5.241634E-1	5.163703E-1	5.497552E-1	5.367319E-1	5.609751E-1	5.290254E-1	5.934965E-1	5.790922E-1	5.088194E-1	5.500576E-1	5.755888E-1	5.809476E-1	4.822396E-1	4.980133E-1	5.496420E-1	5.933945E-1	5.139645E-1	5.041202E-1	5.742887E-1	5.217630E-1	5.408908E-1	5.882770E-1	5.460466E-1	5.704460E-1	4.703517E-1	5.624664E-1	5.603510E-1	5.788975E-1	4.492837E-1	5.357082E-1	5.320270E-1	5.544583E-1	4.571577E-1	5.542242E-1	5.847181E-1	5.746168E-1	4.936078E-1	5.508966E-1	6.254638E-1	6.138486E-1	5.320590E-1	5.391240E-1	5.441739E-1	5.372128E-1	5.112423E-1	5.317949E-1	5.721389E-1	5.246219E-1	5.182868E-1	4.793468E-1	5.521470E-1	6.025163E-1	5.456001E-1	5.387122E-1	5.819739E-1	5.265248E-1	5.179115E-1	5.137878E-1	5.619411E-1	5.665792E-1	4.756927E-1	4.808131E-1	5.537411E-1	5.192309E-1	5.066263E-1	5.321268E-1	5.369288E-1
2.925000E+2	5.760536E-1	4.625578E-1	4.925718E-1	5.625281E-1	5.486608E-1	4.610872E-1	5.276477E-1	5.224034E-1	5.497802E-1	4.460240E-1	5.570669E-1	5.719087E-1	5.193972E-1	4.817210E-1	5.341906E-1	5.483946E-1	5.590341E-1	4.913835E-1	5.144593E-1	5.906470E-1	5.432863E-1	4.587495E-1	5.191602E-1	5.545351E-1	5.361641E-1	5.292810E-1	5.308406E-1	5.274386E-1	5.617559E-1	5.027646E-1	5.102363E-1	5.441818E-1	5.960030E-1	4.794095E-1	5.564111E-1	5.542474E-1	5.699254E-1	4.810352E-1	5.406431E-1	5.218508E-1	5.384751E-1	5.158115E-1	5.611460E-1	5.344341E-1	5.742046E-1	4.949900E-1	5.572203E-1	5.267870E-1	4.853602E-1	5.101430E-1	5.586268E-1	5.303258E-1	4.923443E-1	4.643034E-1	5.600526E-1	5.199051E-1	4.906909E-1	4.740449E-1	5.731968E-1	5.167111E-1	5.412977E-1	5.149365E-1	5.547495E-1	5.511896E-1	5.280273E-1	4.938030E-1	5.459644E-1	5.351645E-1	4.971128E-1	4.719484E-1	5.577837E-1	5.452103E-1	4.669483E-1	5.280001E-1	5.120324E-1	5.846623E-1	5.404231E-1	5.148536E-1	5.355208E-1	5.620263E-1	5.347815E-1	5.114988E-1	4.794403E-1	5.586183E-1	4.732197E-1	4.852404E-1	5.417735E-1	5.421351E-1	5.108852E-1	5.311399E-1	5.630756E-1	5.388652E-1	5.292542E-1	5.381162E-1	5.238390E-1	5.410583E-1	4.789937E-1	5.038060E-1	5.465612E-1	5.451476E-1	4.379181E-1	4.793663E-1	5.524938E-1	5.413217E-1	4.876645E-1	4.992876E-1	5.376775E-1	5.761993E-1	5.379740E-1	5.207366E-1	5.203795E-1	5.420133E-1	4.673347E-1	5.137624E-1	5.490251E-1	5.349905E-1	4.429163E-1	4.813438E-1	5.246446E-1	6.176409E-1	5.147753E-1	5.389314E-1	5.558956E-1	5.509526E-1	5.239218E-1	5.499815E-1	5.744611E-1	5.090814E-1	4.776118E-1	5.445591E-1	5.587536E-1	5.821372E-1	4.606155E-1	5.097177E-1	5.585458E-1	5.852678E-1	4.988475E-1	5.465755E-1	5.807066E-1	5.597829E-1	4.974436E-1	5.569669E-1	5.689575E-1	5.564458E-1	4.983050E-1	5.738412E-1	5.412087E-1	5.024279E-1	4.869147E-1	5.057769E-1	6.006957E-1	5.434775E-1	5.048083E-1	4.601350E-1	5.600862E-1	5.608596E-1	5.184787E-1	5.749160E-1	5.482800E-1	5.553098E-1	5.547227E-1	5.321054E-1	5.579229E-1	5.470203E-1	4.837625E-1	5.584160E-1	5.357757E-1	5.645223E-1	5.270126E-1	5.380215E-1	6.152526E-1
2.930010E+2	6.656578E-1	5.608320E-1	5.682073E-1	6.531300E-1	7.200208E-1	5.510713E-1	6.046614E-1	6.687612E-1	6.818259E-1	5.901511E-1	5.971972E-1	6.330280E-1	5.985363E-1	6.574650E-1	6.395858E-1	6.487763E-1	6.357763E-1	6.050114E-1	6.338183E-1	6.760421E-1	6.635791E-1	5.776157E-1	6.691102E-1	6.891588E-1	6.546376E-1	6.372825E-1	6.615622E-1	6.389426E-1	7.306074E-1	6.400833E-1	6.552592E-1	6.406753E-1	6.618763E-1	6.128165E-1	7.114982E-1	6.425562E-1	6.504885E-1	5.886444E-1	6.377466E-1	7.000785E-1	6.684918E-1	6.144072E-1	6.535634E-1	6.328461E-1	6.447953E-1	6.756977E-1	6.532693E-1	6.887966E-1	6.622067E-1	6.296322E-1	6.631415E-1	7.012402E-1	6.488596E-1	5.916628E-1	6.473778E-1	6.455596E-1	6.766872E-1	5.747765E-1	6.934935E-1	6.732103E-1	6.362997E-1	6.469602E-1	6.282391E-1	6.579308E-1	6.776806E-1	6.140710E-1	6.449877E-1	6.672287E-1	6.635634E-1	5.529643E-1	6.483737E-1	6.712025E-1	6.890122E-1	6.247741E-1	6.815329E-1	6.747856E-1	6.764814E-1	7.057649E-1	6.689501E-1	6.495542E-1	6.450976E-1	6.167917E-1	5.929736E-1	6.744559E-1	5.941574E-1	6.075407E-1	6.413814E-1	6.818480E-1	6.869335E-1	6.502745E-1	6.700138E-1	6.647437E-1	6.744127E-1	7.056486E-1	6.417430E-1	6.805283E-1	6.482228E-1	6.059117E-1	6.996842E-1	6.924019E-1	5.634861E-1	5.702058E-1	6.370677E-1	6.982206E-1	6.247383E-1	6.426314E-1	6.431590E-1	6.527171E-1	6.664686E-1	6.796086E-1	6.304393E-1	6.814007E-1	6.163398E-1	6.313598E-1	7.111558E-1	6.837268E-1	5.257771E-1	5.946994E-1	6.947892E-1	6.535911E-1	6.468883E-1	6.337372E-1	6.654856E-1	7.207829E-1	6.499782E-1	6.534442E-1	6.651161E-1	6.642564E-1	6.179912E-1	6.319463E-1	6.946440E-1	6.720556E-1	5.606042E-1	5.699057E-1	6.513600E-1	6.421447E-1	5.791934E-1	6.062332E-1	6.224220E-1	6.496126E-1	6.194072E-1	6.621883E-1	6.790725E-1	6.669462E-1	5.917776E-1	6.238981E-1	6.709503E-1	6.250452E-1	6.011794E-1	5.957258E-1	6.526836E-1	6.960323E-1	6.513864E-1	5.777135E-1	6.669072E-1	6.554561E-1	6.987498E-1	7.005201E-1	6.763159E-1	6.615929E-1	6.185287E-1	6.149330E-1	6.889375E-1	6.898871E-1	5.436133E-1	6.118607E-1	6.672457E-1	6.001078E-1	5.868168E-1	5.930256E-1	6.976984E-1
2.935120E+2	7.892499E-1	6.640544E-1	7.618707E-1	7.868342E-1	7.881518E-1	6.403940E-1	8.130046E-1	7.812071E-1	8.307284E-1	6.814323E-1	8.262169E-1	7.623164E-1	8.060293E-1	7.496478E-1	7.506275E-1	7.713899E-1	7.775677E-1	6.798213E-1	7.723342E-1	7.533044E-1	8.008764E-1	6.997120E-1	7.497501E-1	7.741837E-1	7.414683E-1	7.622984E-1	7.847547E-1	7.437386E-1	8.099819E-1	7.689620E-1	7.765277E-1	7.533679E-1	8.039843E-1	6.903459E-1	8.062724E-1	7.451635E-1	7.419551E-1	7.025105E-1	7.501822E-1	7.994597E-1	8.279602E-1	7.680323E-1	8.152937E-1	7.472401E-1	7.664505E-1	7.525338E-1	7.799728E-1	7.931411E-1	7.863094E-1	7.470594E-1	7.998759E-1	7.552140E-1	8.305544E-1	6.829144E-1	7.645780E-1	8.210016E-1	7.965671E-1	7.069373E-1	7.919857E-1	8.444565E-1	7.951080E-1	7.697931E-1	7.942728E-1	7.700772E-1	7.733355E-1	7.078811E-1	7.532723E-1	8.116726E-1	7.802772E-1	6.627705E-1	8.012445E-1	7.656965E-1	7.717266E-1	7.385813E-1	7.568671E-1	8.161711E-1	7.770824E-1	7.758815E-1	7.771363E-1	7.586261E-1	8.105724E-1	6.952456E-1	7.176219E-1	7.671256E-1	7.640133E-1	6.690077E-1	7.928195E-1	8.088604E-1	8.064538E-1	7.376402E-1	7.978756E-1	7.922996E-1	7.836634E-1	7.683811E-1	7.725972E-1	8.045788E-1	7.688767E-1	7.057138E-1	7.870723E-1	8.044786E-1	7.300290E-1	6.915510E-1	7.894532E-1	7.505194E-1	7.861440E-1	7.109607E-1	7.446151E-1	7.735338E-1	8.124131E-1	7.493741E-1	7.843703E-1	8.207875E-1	7.128546E-1	7.380679E-1	7.807714E-1	7.723001E-1	6.936042E-1	6.887181E-1	7.923590E-1	7.965577E-1	7.352329E-1	7.292843E-1	7.919343E-1	7.924298E-1	8.002764E-1	7.770619E-1	8.044821E-1	7.926294E-1	6.881809E-1	7.487018E-1	8.017584E-1	7.959966E-1	6.239312E-1	7.750929E-1	7.441747E-1	8.301566E-1	6.875842E-1	7.966798E-1	7.860751E-1	7.765262E-1	6.823063E-1	7.545950E-1	7.855654E-1	8.133221E-1	7.475659E-1	7.781068E-1	8.644505E-1	7.807082E-1	6.719500E-1	7.206136E-1	8.167005E-1	7.508840E-1	7.710071E-1	6.122963E-1	7.961019E-1	8.446521E-1	8.247805E-1	7.973091E-1	8.057000E-1	8.121603E-1	7.330513E-1	7.750126E-1	7.910180E-1	7.868328E-1	6.949204E-1	7.246053E-1	7.864657E-1	7.952909E-1	7.526335E-1	7.776864E-1	6.935762E-1
2.940080E+2	7.938844E-1	7.078891E-1	8.225453E-1	8.132242E-1	8.067331E-1	6.542887E-1	8.065188E-1	8.320754E-1	7.766462E-1	6.965313E-1	7.847031E-1	7.881747E-1	8.080246E-1	7.118461E-1	8.001881E-1	8.097906E-1	7.541800E-1	7.024056E-1	7.981208E-1	8.370722E-1	8.285880E-1	7.029418E-1	8.177271E-1	8.253571E-1	8.187340E-1	7.290105E-1	8.169218E-1	8.250603E-1	8.027664E-1	7.129612E-1	7.690265E-1	8.259135E-1	7.958431E-1	7.168885E-1	8.250713E-1	8.023551E-1	7.873855E-1	6.893718E-1	7.523729E-1	8.470959E-1	8.078473E-1	7.634469E-1	7.983509E-1	7.649031E-1	7.799685E-1	7.753007E-1	8.412805E-1	7.526383E-1	8.483617E-1	7.408796E-1	8.525262E-1	8.329020E-1	7.924464E-1	7.157393E-1	8.067094E-1	8.320657E-1	7.900284E-1	7.085490E-1	8.107831E-1	8.067662E-1	8.305564E-1	7.881761E-1	8.507514E-1	8.369597E-1	8.111336E-1	7.495744E-1	8.159643E-1	8.091959E-1	7.975192E-1	6.775001E-1	8.380470E-1	7.889067E-1	7.605491E-1	6.944517E-1	7.545121E-1	7.616017E-1	8.051195E-1	7.585260E-1	7.756940E-1	8.185490E-1	7.763897E-1	7.558065E-1	7.644650E-1	8.046737E-1	8.285585E-1	7.273064E-1	8.171142E-1	7.976526E-1	7.919180E-1	7.932360E-1	7.854765E-1	7.998532E-1	8.226264E-1	8.178299E-1	7.991762E-1	7.947671E-1	7.735779E-1	7.540788E-1	7.731515E-1	8.224770E-1	7.967782E-1	6.888394E-1	7.955485E-1	8.376861E-1	8.558971E-1	7.087332E-1	8.194995E-1	8.081685E-1	7.727548E-1	7.873650E-1	8.590256E-1	8.125479E-1	8.059827E-1	7.975928E-1	8.393951E-1	8.341339E-1	8.122762E-1	7.407272E-1	7.915528E-1	8.233124E-1	7.919698E-1	7.448384E-1	8.103266E-1	8.304654E-1	8.091645E-1	7.690006E-1	8.173355E-1	7.855758E-1	7.067362E-1	7.558641E-1	8.617108E-1	8.130078E-1	7.539166E-1	7.361075E-1	8.385495E-1	8.230464E-1	7.489814E-1	8.096820E-1	7.868771E-1	8.276211E-1	8.042705E-1	8.099039E-1	8.427962E-1	7.781631E-1	7.657402E-1	7.781068E-1	7.888301E-1	8.311469E-1	7.294505E-1	7.674460E-1	8.467214E-1	8.280182E-1	7.246750E-1	6.776176E-1	7.665098E-1	7.500545E-1	7.737308E-1	8.032207E-1	8.292856E-1	7.759943E-1	7.166912E-1	7.853653E-1	8.295990E-1	8.259510E-1	6.807987E-1	7.699957E-1	7.685005E-1	8.362690E-1	6.873936E-1	7.659009E-1	8.419790E-1
2.945030E+2	6.787899E-1	6.315325E-1	7.635325E-1	6.953522E-1	7.317198E-1	6.278227E-1	7.384230E-1	7.464021E-1	7.359085E-1	6.320170E-1	7.030588E-1	6.753401E-1	7.501665E-1	6.800136E-1	7.324338E-1	7.282726E-1	7.066722E-1	6.932307E-1	7.428629E-1	7.728229E-1	7.454534E-1	6.454467E-1	7.184272E-1	7.867804E-1	7.436757E-1	7.267903E-1	7.334243E-1	7.219412E-1	7.832837E-1	7.052904E-1	7.240193E-1	7.590020E-1	7.210881E-1	6.770760E-1	7.913909E-1	7.897396E-1	7.256002E-1	6.374446E-1	7.406913E-1	7.477157E-1	7.769597E-1	6.885451E-1	7.067036E-1	7.682680E-1	7.243971E-1	7.454195E-1	7.370568E-1	7.059582E-1	7.312392E-1	6.193311E-1	7.315082E-1	7.045116E-1	7.502547E-1	6.120133E-1	7.209154E-1	7.277489E-1	7.297249E-1	6.674506E-1	7.130417E-1	7.240103E-1	6.930170E-1	6.987672E-1	7.275873E-1	6.950879E-1	7.301364E-1	6.605758E-1	6.927186E-1	7.794825E-1	7.484462E-1	6.272842E-1	7.311789E-1	7.640394E-1	7.106226E-1	7.014193E-1	6.948731E-1	7.616005E-1	7.779071E-1	6.759132E-1	6.776056E-1	7.007234E-1	6.668503E-1	6.704704E-1	6.652218E-1	7.415615E-1	7.198508E-1	6.595023E-1	7.418008E-1	7.296643E-1	7.353881E-1	6.788668E-1	7.172838E-1	7.620888E-1	7.164319E-1	7.241000E-1	7.337503E-1	7.583229E-1	7.391049E-1	6.857530E-1	6.904038E-1	7.488498E-1	7.419250E-1	6.434200E-1	7.185943E-1	7.315023E-1	7.577555E-1	6.990779E-1	7.301217E-1	7.123197E-1	6.894707E-1	7.162180E-1	7.505047E-1	7.184786E-1	7.450263E-1	6.995954E-1	7.972601E-1	7.305198E-1	7.336298E-1	6.767150E-1	7.899403E-1	7.463950E-1	7.563063E-1	6.900287E-1	7.459524E-1	7.101685E-1	7.364398E-1	6.971143E-1	7.733619E-1	7.686479E-1	7.462690E-1	6.742076E-1	7.386090E-1	7.239006E-1	7.185874E-1	6.882299E-1	6.934779E-1	7.527400E-1	7.580769E-1	7.309027E-1	7.451619E-1	7.575721E-1	7.835598E-1	7.518970E-1	7.558637E-1	7.430035E-1	7.068875E-1	7.014062E-1	7.169159E-1	7.624467E-1	7.876890E-1	6.901347E-1	7.302985E-1	7.517409E-1	7.971216E-1	5.900096E-1	7.499099E-1	7.734863E-1	7.601700E-1	7.152971E-1	7.342697E-1	7.604943E-1	7.019663E-1	7.128921E-1	7.178737E-1	7.783284E-1	7.278715E-1	6.923920E-1	7.440034E-1	7.521567E-1	7.716618E-1	6.814273E-1	7.306770E-1
2.950050E+2	7.622139E-1	6.279974E-1	7.444160E-1	6.900748E-1	7.654411E-1	5.874615E-1	7.416649E-1	7.178447E-1	7.527657E-1	6.656473E-1	7.265834E-1	7.474286E-1	7.288856E-1	7.032247E-1	7.079678E-1	7.060400E-1	7.249443E-1	6.939363E-1	7.067593E-1	8.045411E-1	7.593099E-1	5.911819E-1	7.164283E-1	7.875679E-1	7.208644E-1	6.750090E-1	7.772256E-1	7.714050E-1	7.457604E-1	7.221669E-1	7.565245E-1	7.336463E-1	7.425522E-1	6.603126E-1	7.890414E-1	7.350710E-1	7.801165E-1	6.430754E-1	7.202486E-1	7.756406E-1	7.697761E-1	7.282891E-1	7.513718E-1	7.506042E-1	7.281518E-1	7.525341E-1	7.138960E-1	7.176284E-1	7.863100E-1	6.550404E-1	6.945750E-1	7.339515E-1	7.386864E-1	6.605939E-1	7.308734E-1	7.641015E-1	7.609673E-1	6.601973E-1	6.934937E-1	7.141783E-1	7.398086E-1	7.547528E-1	7.867874E-1	7.545389E-1	7.463361E-1	6.461430E-1	7.831932E-1	7.398631E-1	7.510979E-1	6.500491E-1	7.573654E-1	7.698423E-1	7.225444E-1	6.464517E-1	7.317549E-1	7.293554E-1	7.515203E-1	6.842446E-1	7.223224E-1	7.256349E-1	7.359921E-1	6.931812E-1	6.477559E-1	6.872377E-1	7.415924E-1	6.354227E-1	7.231745E-1	7.610432E-1	7.894949E-1	7.328748E-1	7.165086E-1	7.553757E-1	7.683839E-1	7.787142E-1	7.596480E-1	7.583227E-1	7.344040E-1	6.788435E-1	7.600050E-1	7.603032E-1	7.643947E-1	6.461319E-1	7.704049E-1	7.703305E-1	7.415338E-1	6.604567E-1	7.695766E-1	6.945997E-1	7.481657E-1	7.590445E-1	7.782126E-1	7.397646E-1	7.052354E-1	7.155649E-1	8.384796E-1	7.898474E-1	7.834861E-1	6.840498E-1	7.842958E-1	7.589347E-1	7.546864E-1	7.292842E-1	7.758409E-1	8.021594E-1	7.824987E-1	7.307054E-1	7.564482E-1	7.559511E-1	7.252933E-1	7.021426E-1	7.090329E-1	7.619738E-1	7.279192E-1	7.114850E-1	7.355946E-1	7.227212E-1	7.656567E-1	7.003093E-1	7.226995E-1	7.435616E-1	7.160573E-1	7.444781E-1	7.478945E-1	7.674005E-1	6.999644E-1	6.925242E-1	7.525021E-1	7.328791E-1	7.611498E-1	6.901351E-1	7.398181E-1	7.097454E-1	7.583706E-1	6.322764E-1	7.592929E-1	7.379035E-1	7.402291E-1	7.529790E-1	7.369650E-1	7.280194E-1	7.461396E-1	7.248383E-1	7.443983E-1	7.383604E-1	7.150946E-1	6.748219E-1	7.374707E-1	7.694108E-1	8.586478E-1	7.403625E-1	8.131228E-1
2.955080E+2	8.989377E-1	7.764690E-1	8.890387E-1	8.193809E-1	8.872516E-1	6.992809E-1	8.802911E-1	8.686647E-1	8.848108E-1	7.383971E-1	8.525096E-1	8.461588E-1	9.057856E-1	8.245880E-1	8.999367E-1	9.041091E-1	9.281298E-1	7.772155E-1	8.732724E-1	8.679768E-1	8.884196E-1	7.178002E-1	8.770412E-1	8.615716E-1	8.864332E-1	8.207378E-1	9.264261E-1	8.577568E-1	9.016239E-1	8.303344E-1	8.759181E-1	8.843723E-1	8.957631E-1	8.034980E-1	9.151459E-1	8.780488E-1	8.624976E-1	7.387970E-1	8.735706E-1	9.021247E-1	8.724968E-1	8.131273E-1	9.038605E-1	8.893913E-1	8.730875E-1	8.706344E-1	8.828341E-1	8.727726E-1	9.042078E-1	7.896364E-1	8.556697E-1	8.320839E-1	9.013265E-1	7.905792E-1	8.756501E-1	8.794825E-1	8.626826E-1	7.818818E-1	9.137866E-1	8.796897E-1	8.723858E-1	8.767491E-1	9.187978E-1	8.896554E-1	8.635900E-1	7.463668E-1	8.572826E-1	9.123704E-1	8.790863E-1	7.149953E-1	8.833411E-1	8.701389E-1	7.970623E-1	8.206450E-1	8.400465E-1	8.938921E-1	9.057209E-1	8.300311E-1	9.062384E-1	8.017169E-1	8.975824E-1	7.709468E-1	7.835199E-1	8.773710E-1	8.869890E-1	8.084174E-1	8.543665E-1	8.043772E-1	8.694433E-1	7.797346E-1	8.466950E-1	8.560783E-1	8.799265E-1	8.761339E-1	8.577877E-1	9.286299E-1	8.942310E-1	7.909287E-1	8.674998E-1	9.051031E-1	8.893010E-1	7.729007E-1	8.770749E-1	8.899857E-1	8.850964E-1	7.889459E-1	8.509024E-1	8.548845E-1	8.814198E-1	9.013380E-1	8.590261E-1	8.729721E-1	8.313812E-1	8.484064E-1	9.337430E-1	8.750776E-1	8.754756E-1	8.067398E-1	8.463861E-1	9.395246E-1	8.778832E-1	8.011296E-1	8.739348E-1	8.516937E-1	9.239082E-1	8.785100E-1	8.789009E-1	8.800924E-1	8.672857E-1	8.418199E-1	8.409267E-1	8.429813E-1	8.825688E-1	8.448561E-1	8.611680E-1	8.988838E-1	8.748059E-1	7.997385E-1	8.229769E-1	8.235015E-1	8.817437E-1	8.429547E-1	8.920575E-1	8.621144E-1	8.695993E-1	8.208972E-1	8.555542E-1	8.659319E-1	9.255439E-1	8.269170E-1	8.694202E-1	8.751566E-1	8.661986E-1	7.375606E-1	8.769400E-1	8.507271E-1	8.949742E-1	8.763657E-1	8.757826E-1	8.748963E-1	8.860224E-1	8.204083E-1	8.810411E-1	9.228967E-1	8.859032E-1	7.560856E-1	8.501583E-1	9.300869E-1	8.980637E-1	8.248354E-1	8.873241E-1
2.960030E+2	9.329266E-1	8.146467E-1	9.422337E-1	9.214190E-1	9.436831E-1	7.575052E-1	9.005566E-1	9.382745E-1	9.164182E-1	8.186970E-1	9.078616E-1	8.900384E-1	9.137662E-1	8.895800E-1	8.930363E-1	9.478999E-1	9.244759E-1	8.449686E-1	9.174798E-1	9.110813E-1	9.715539E-1	8.205163E-1	9.363543E-1	9.261277E-1	9.011506E-1	8.739985E-1	9.319015E-1	9.323715E-1	9.593505E-1	8.863353E-1	9.259258E-1	9.090243E-1	9.164870E-1	8.789325E-1	9.464771E-1	9.596297E-1	8.970241E-1	7.900999E-1	9.414703E-1	9.538689E-1	9.493578E-1	8.123627E-1	9.238841E-1	9.003261E-1	9.421759E-1	8.620972E-1	9.053135E-1	9.077827E-1	9.453165E-1	8.315261E-1	9.114632E-1	9.089541E-1	9.271858E-1	7.892661E-1	9.721679E-1	9.000296E-1	9.019158E-1	8.673028E-1	8.867202E-1	9.517937E-1	9.978734E-1	9.110087E-1	9.358097E-1	9.227589E-1	9.438161E-1	7.968792E-1	9.085754E-1	9.429098E-1	9.148962E-1	7.471337E-1	9.144825E-1	8.950072E-1	8.969166E-1	8.283865E-1	9.232274E-1	9.468081E-1	9.131419E-1	9.598509E-1	9.098455E-1	8.825109E-1	9.364259E-1	7.957217E-1	8.724408E-1	9.045338E-1	8.774771E-1	8.084174E-1	9.207724E-1	9.104697E-1	9.098217E-1	8.686875E-1	9.110132E-1	9.383191E-1	8.944422E-1	9.189397E-1	9.538832E-1	9.405443E-1	9.044174E-1	8.039798E-1	8.891540E-1	9.484607E-1	9.547290E-1	7.803579E-1	9.136476E-1	8.915711E-1	9.094288E-1	8.699019E-1	9.145140E-1	9.160984E-1	9.591511E-1	9.089363E-1	9.028954E-1	9.773405E-1	9.067310E-1	8.687313E-1	9.401549E-1	9.344055E-1	9.084784E-1	8.247436E-1	8.963812E-1	9.336729E-1	9.103030E-1	8.529770E-1	9.789248E-1	9.127263E-1	9.489576E-1	8.966492E-1	9.465542E-1	8.977253E-1	8.559903E-1	8.984059E-1	9.280575E-1	9.304681E-1	9.318967E-1	8.941006E-1	9.040658E-1	9.304828E-1	9.384770E-1	8.808127E-1	9.938498E-1	9.108581E-1	8.993870E-1	9.023103E-1	9.268317E-1	9.037311E-1	9.189326E-1	9.266639E-1	9.778820E-1	9.772440E-1	9.741986E-1	8.231998E-1	9.031027E-1	9.377210E-1	9.479109E-1	8.113350E-1	9.260201E-1	9.314385E-1	9.388463E-1	9.569006E-1	9.168889E-1	9.132760E-1	9.195609E-1	8.570424E-1	8.979195E-1	9.713699E-1	9.376843E-1	8.490639E-1	9.367147E-1	9.419485E-1	8.953448E-1	9.152007E-1	1.031603E+0
2.964980E+2	8.085610E-1	7.870740E-1	8.175580E-1	8.088252E-1	8.019150E-1	7.025887E-1	8.348929E-1	8.106575E-1	8.075506E-1	7.281026E-1	7.943899E-1	7.631003E-1	7.927287E-1	7.794908E-1	7.976792E-1	7.363575E-1	7.673353E-1	7.355758E-1	7.760177E-1	8.419522E-1	8.059148E-1	6.958360E-1	7.757411E-1	8.151220E-1	8.032814E-1	7.504624E-1	8.203436E-1	7.906877E-1	8.799769E-1	8.119228E-1	7.465230E-1	8.484516E-1	7.958433E-1	7.133959E-1	8.415197E-1	8.713203E-1	8.328158E-1	6.737313E-1	8.363353E-1	8.413472E-1	8.243692E-1	7.512182E-1	8.237658E-1	8.120076E-1	8.528117E-1	7.603595E-1	8.133521E-1	8.089296E-1	8.033741E-1	7.532407E-1	8.540979E-1	8.468035E-1	8.305547E-1	6.921058E-1	7.821962E-1	8.178407E-1	8.328944E-1	7.399769E-1	7.972495E-1	8.149597E-1	8.518258E-1	7.973679E-1	8.106037E-1	8.031813E-1	8.134483E-1	7.014664E-1	7.767823E-1	8.479900E-1	7.835929E-1	6.694663E-1	8.069068E-1	7.947086E-1	8.618930E-1	7.741935E-1	7.788382E-1	7.979815E-1	8.273838E-1	7.856011E-1	7.973316E-1	8.158559E-1	8.152334E-1	7.551185E-1	7.200042E-1	8.174557E-1	8.122527E-1	7.513861E-1	7.798631E-1	7.939168E-1	8.549080E-1	7.845000E-1	8.738172E-1	7.427881E-1	7.813713E-1	7.669061E-1	7.739605E-1	7.821511E-1	8.378221E-1	7.671300E-1	8.040857E-1	7.709381E-1	7.994217E-1	6.908737E-1	8.138351E-1	8.464030E-1	8.266980E-1	7.354706E-1	8.211097E-1	8.194450E-1	8.187583E-1	7.956540E-1	8.628735E-1	8.626731E-1	7.424865E-1	7.678308E-1	8.943551E-1	7.881760E-1	8.719645E-1	6.980524E-1	8.092929E-1	8.191324E-1	8.446517E-1	7.529856E-1	8.133921E-1	8.410796E-1	8.560320E-1	7.972178E-1	8.004233E-1	8.342443E-1	8.091966E-1	7.558644E-1	7.985610E-1	8.300192E-1	7.979118E-1	7.149048E-1	8.034509E-1	8.870346E-1	7.944601E-1	7.699097E-1	7.828663E-1	8.152596E-1	8.219128E-1	8.072058E-1	8.355521E-1	8.090165E-1	8.410386E-1	7.999059E-1	8.436924E-1	8.207117E-1	8.717287E-1	7.131796E-1	8.459891E-1	8.297324E-1	7.870120E-1	7.344862E-1	8.357993E-1	7.674121E-1	8.024462E-1	7.699721E-1	8.104167E-1	8.394687E-1	8.295785E-1	7.391736E-1	8.231689E-1	8.251005E-1	7.931016E-1	7.582820E-1	7.750332E-1	8.351902E-1	8.559290E-1	7.992962E-1	8.378564E-1
2.970040E+2	7.065978E-1	7.736403E-1	7.701812E-1	7.630849E-1	7.289669E-1	7.422875E-1	7.351789E-1	7.544345E-1	7.450392E-1	7.644772E-1	7.120540E-1	6.910118E-1	7.295499E-1	7.542903E-1	7.198869E-1	7.242307E-1	7.987639E-1	7.172262E-1	7.340208E-1	7.443582E-1	7.725354E-1	7.016504E-1	7.264250E-1	7.300966E-1	7.488271E-1	7.460248E-1	7.204204E-1	7.512838E-1	7.645225E-1	7.275375E-1	7.540241E-1	7.463241E-1	7.551347E-1	6.987280E-1	7.318627E-1	7.603031E-1	7.346859E-1	6.662233E-1	7.253595E-1	8.158861E-1	7.611560E-1	6.702007E-1	7.251867E-1	7.287351E-1	7.108801E-1	7.354594E-1	6.927794E-1	7.272387E-1	7.770019E-1	7.189048E-1	7.307223E-1	7.208666E-1	7.475331E-1	6.448378E-1	7.101908E-1	7.293288E-1	7.573336E-1	6.706732E-1	7.280786E-1	7.313849E-1	7.057785E-1	7.647797E-1	7.432373E-1	7.315690E-1	7.787353E-1	6.902416E-1	7.269143E-1	7.489424E-1	7.205939E-1	6.507183E-1	7.594882E-1	7.259099E-1	6.949736E-1	6.673547E-1	6.752552E-1	7.872332E-1	7.490458E-1	7.043770E-1	7.006852E-1	7.431410E-1	7.484220E-1	6.629011E-1	6.771314E-1	7.231875E-1	7.436306E-1	6.442939E-1	7.596168E-1	7.162154E-1	7.660754E-1	6.947519E-1	7.451806E-1	7.293612E-1	7.439353E-1	7.307418E-1	7.392024E-1	7.330923E-1	7.297027E-1	6.780759E-1	7.545914E-1	7.905717E-1	7.604295E-1	6.793487E-1	7.246894E-1	7.489355E-1	7.301787E-1	6.790244E-1	7.502525E-1	7.542035E-1	7.013687E-1	7.624977E-1	7.666674E-1	7.548703E-1	7.501057E-1	6.814474E-1	8.174110E-1	7.731350E-1	7.631224E-1	6.600452E-1	7.222053E-1	7.840178E-1	7.700858E-1	7.078048E-1	7.666448E-1	7.411275E-1	7.210870E-1	7.569071E-1	7.483296E-1	7.439608E-1	7.309391E-1	6.820862E-1	7.298158E-1	8.081475E-1	7.305855E-1	7.149044E-1	6.841186E-1	7.464205E-1	7.376114E-1	7.270789E-1	7.122709E-1	7.509788E-1	7.559451E-1	7.532463E-1	7.848408E-1	7.157383E-1	7.475654E-1	7.296639E-1	7.480536E-1	7.302698E-1	7.699959E-1	6.485057E-1	7.661774E-1	7.988791E-1	7.642676E-1	7.283381E-1	7.585707E-1	7.708829E-1	7.729329E-1	7.596283E-1	7.120314E-1	7.501615E-1	7.706809E-1	7.009455E-1	7.419874E-1	7.664237E-1	7.319059E-1	7.172841E-1	7.358378E-1	7.726452E-1	7.227319E-1	7.285750E-1	7.141877E-1
2.975040E+2	8.834892E-1	8.980732E-1	8.848832E-1	9.196595E-1	8.617883E-1	8.567530E-1	8.916401E-1	8.624179E-1	8.644423E-1	8.907604E-1	8.788018E-1	8.775016E-1	8.532473E-1	8.809584E-1	8.698244E-1	8.832246E-1	8.448097E-1	9.148388E-1	9.189538E-1	8.590303E-1	9.180203E-1	8.793036E-1	8.977009E-1	8.741686E-1	9.188106E-1	8.836149E-1	8.819401E-1	8.720089E-1	9.564640E-1	9.078155E-1	8.846693E-1	8.808509E-1	8.654166E-1	9.082684E-1	8.932146E-1	8.923466E-1	8.685543E-1	8.895749E-1	8.743004E-1	8.815928E-1	8.739336E-1	9.063720E-1	8.722846E-1	8.767741E-1	8.670801E-1	9.062070E-1	8.978205E-1	9.084690E-1	9.344582E-1	8.706687E-1	8.847450E-1	8.795148E-1	8.849946E-1	8.910224E-1	9.131854E-1	8.873849E-1	8.939240E-1	8.705259E-1	8.822089E-1	8.772318E-1	8.936550E-1	9.327336E-1	9.079101E-1	8.693880E-1	9.013884E-1	7.912668E-1	8.800799E-1	8.777041E-1	8.890326E-1	7.571771E-1	8.967883E-1	8.651659E-1	8.790326E-1	8.067090E-1	8.965467E-1	9.046402E-1	8.958254E-1	8.675191E-1	8.990258E-1	8.811643E-1	8.905904E-1	8.149909E-1	8.605306E-1	8.326339E-1	8.958217E-1	7.659609E-1	8.916181E-1	8.865612E-1	8.742891E-1	8.170628E-1	9.319363E-1	9.148224E-1	8.401987E-1	9.027032E-1	8.639217E-1	8.942882E-1	8.675934E-1	8.446678E-1	9.448346E-1	8.257494E-1	8.906236E-1	7.627320E-1	8.862189E-1	8.440261E-1	8.810407E-1	8.260815E-1	8.653962E-1	8.975734E-1	8.837993E-1	8.384804E-1	8.713401E-1	8.551201E-1	8.838718E-1	8.592945E-1	8.622954E-1	9.034887E-1	8.979455E-1	8.020726E-1	8.971877E-1	8.400332E-1	9.021984E-1	8.307566E-1	8.402144E-1	8.649613E-1	8.697694E-1	8.825405E-1	9.147574E-1	8.815026E-1	8.503431E-1	8.590103E-1	8.641084E-1	8.680931E-1	8.819018E-1	7.880875E-1	8.845663E-1	9.217936E-1	8.785961E-1	8.310975E-1	8.847471E-1	8.927276E-1	8.410897E-1	8.800515E-1	9.108938E-1	8.922509E-1	9.076817E-1	8.717619E-1	9.126406E-1	9.276759E-1	9.351268E-1	8.150226E-1	8.979771E-1	9.111530E-1	8.897858E-1	8.728142E-1	8.783831E-1	9.166847E-1	8.646634E-1	8.578951E-1	9.067812E-1	8.520160E-1	8.745699E-1	8.666003E-1	8.762183E-1	9.067396E-1	9.363388E-1	8.432068E-1	8.771051E-1	8.934219E-1	8.885497E-1	8.994846E-1	9.738915E-1
2.980040E+2	1.007854E+0	1.021799E+0	1.027012E+0	1.013781E+0	1.033148E+0	1.035398E+0	1.005134E+0	1.033763E+0	1.061809E+0	1.023220E+0	1.014415E+0	1.038917E+0	1.035469E+0	9.857419E-1	1.054893E+0	9.741746E-1	1.068460E+0	1.034817E+0	1.045681E+0	1.010302E+0	1.036424E+0	1.032408E+0	1.038987E+0	1.012728E+0	1.004906E+0	1.032302E+0	1.031825E+0	1.058127E+0	1.050992E+0	1.038996E+0	1.031567E+0	1.011856E+0	9.771791E-1	1.007450E+0	1.009138E+0	1.077376E+0	1.015749E+0	1.012200E+0	1.030542E+0	1.005612E+0	1.016163E+0	1.017197E+0	9.947371E-1	1.048365E+0	1.102131E+0	1.050632E+0	1.032698E+0	1.011442E+0	1.026760E+0	1.038228E+0	1.023051E+0	9.825534E-1	1.043552E+0	1.014443E+0	1.005872E+0	1.039119E+0	1.028335E+0	1.039756E+0	1.067166E+0	1.046840E+0	1.018433E+0	1.012953E+0	1.001134E+0	1.065306E+0	1.037156E+0	1.052651E+0	1.031821E+0	1.022148E+0	1.058799E+0	1.067178E+0	1.031966E+0	1.024314E+0	1.045208E+0	1.029678E+0	1.005625E+0	9.964171E-1	1.022814E+0	1.041769E+0	1.038226E+0	1.019862E+0	1.012560E+0	1.051729E+0	9.542165E-1	1.077891E+0	1.045295E+0	9.909174E-1	1.035767E+0	1.023285E+0	1.011575E+0	1.000529E+0	1.024152E+0	1.103640E+0	1.035016E+0	9.713394E-1	1.046571E+0	1.014134E+0	1.029772E+0	9.713385E-1	1.011342E+0	1.016362E+0	1.027426E+0	9.552582E-1	1.043176E+0	1.059564E+0	1.024603E+0	9.605122E-1	1.024827E+0	1.021613E+0	1.056712E+0	1.000115E+0	1.056056E+0	1.002746E+0	1.086214E+0	9.435003E-1	1.095874E+0	1.034677E+0	1.055943E+0	9.234293E-1	1.008468E+0	1.078311E+0	1.044848E+0	9.759280E-1	1.006514E+0	1.028600E+0	1.061277E+0	1.025642E+0	1.031120E+0	1.045143E+0	1.069787E+0	9.886582E-1	1.040767E+0	1.021197E+0	1.038551E+0	9.666003E-1	1.035878E+0	1.071887E+0	1.052175E+0	1.034546E+0	1.039576E+0	1.055079E+0	1.035924E+0	1.034512E+0	1.016662E+0	1.007773E+0	1.024523E+0	9.985197E-1	1.023848E+0	9.789839E-1	1.030962E+0	9.874863E-1	1.035635E+0	1.006285E+0	1.054054E+0	9.857831E-1	9.938649E-1	1.012151E+0	1.013826E+0	1.010836E+0	1.003819E+0	1.043178E+0	1.047173E+0	9.581879E-1	1.026524E+0	1.036850E+0	1.017709E+0	9.713257E-1	1.012657E+0	1.057333E+0	1.122324E+0	9.839573E-1	9.615263E-1
2.985020E+2	1.030254E+0	1.018265E+0	1.058597E+0	9.662811E-1	1.025578E+0	1.026135E+0	1.040804E+0	1.054289E+0	1.020369E+0	1.028025E+0	1.061464E+0	1.029514E+0	1.054090E+0	1.030175E+0	1.004705E+0	1.032113E+0	9.953709E-1	1.028466E+0	1.002210E+0	9.981028E-1	9.942271E-1	1.013029E+0	1.051649E+0	1.030047E+0	1.009321E+0	1.041179E+0	1.036616E+0	1.019562E+0	1.015634E+0	9.707208E-1	9.996875E-1	1.032282E+0	1.036390E+0	9.969732E-1	1.030286E+0	1.018503E+0	1.020595E+0	9.890520E-1	1.024702E+0	1.014646E+0	1.047768E+0	9.805106E-1	1.051728E+0	1.023131E+0	1.000751E+0	1.010079E+0	1.011580E+0	1.061555E+0	1.003490E+0	1.026553E+0	1.047412E+0	1.057790E+0	1.053760E+0	1.022977E+0	1.030385E+0	1.029635E+0	1.000726E+0	1.033308E+0	1.000251E+0	1.021440E+0	1.006381E+0	9.586384E-1	1.075304E+0	1.049768E+0	1.009386E+0	1.059867E+0	1.007599E+0	1.009768E+0	1.034263E+0	1.065839E+0	1.006488E+0	9.729226E-1	1.024343E+0	1.045936E+0	1.047999E+0	1.020395E+0	9.989004E-1	1.018165E+0	1.004327E+0	1.059586E+0	1.027320E+0	1.018696E+0	1.074101E+0	1.057120E+0	9.909408E-1	1.079632E+0	1.021190E+0	1.045699E+0	1.023689E+0	1.033887E+0	1.041200E+0	9.819572E-1	1.049532E+0	1.062856E+0	1.004998E+0	1.002219E+0	1.039174E+0	1.033523E+0	9.896893E-1	1.068718E+0	1.021479E+0	1.109144E+0	1.004317E+0	1.040546E+0	1.044070E+0	1.060036E+0	1.040932E+0	1.087660E+0	1.021019E+0	1.039488E+0	1.022961E+0	1.052184E+0	1.048963E+0	1.011736E+0	9.557270E-1	1.030499E+0	9.941482E-1	1.033451E+0	9.883076E-1	1.054065E+0	1.070785E+0	1.032960E+0	1.073953E+0	1.048945E+0	1.063702E+0	9.839876E-1	1.012177E+0	1.024687E+0	1.012505E+0	9.693192E-1	1.023981E+0	1.056030E+0	1.031219E+0	1.024736E+0	1.021059E+0	9.834111E-1	1.029435E+0	1.006246E+0	1.058829E+0	1.025410E+0	1.088851E+0	1.035186E+0	1.000724E+0	1.024994E+0	1.005482E+0	9.210115E-1	1.022365E+0	1.010291E+0	9.800964E-1	9.428841E-1	9.880404E-1	1.051709E+0	1.020358E+0	9.604224E-1	1.014796E+0	1.050337E+0	1.052912E+0	9.923654E-1	1.094117E+0	1.069010E+0	1.078258E+0	9.653559E-1	1.018487E+0	9.713696E-1	1.039228E+0	9.705934E-1	1.039605E+0	1.017434E+0	9.945631E-1	1.007531E+0	1.101683E+0
2.990010E+2	9.908590E-1	1.030283E+0	9.563637E-1	9.495676E-1	9.615762E-1	9.712181E-1	9.248776E-1	9.927114E-1	9.466195E-1	9.525295E-1	9.389978E-1	9.323519E-1	9.576592E-1	9.711512E-1	9.708283E-1	9.721537E-1	9.580955E-1	9.473036E-1	9.756865E-1	9.769568E-1	9.173903E-1	9.458423E-1	9.610128E-1	9.686399E-1	9.401507E-1	9.427935E-1	9.202668E-1	9.608755E-1	9.073967E-1	9.968035E-1	9.753085E-1	9.611441E-1	9.964230E-1	9.732252E-1	9.582258E-1	9.671988E-1	9.382146E-1	9.671542E-1	9.407395E-1	9.900070E-1	9.543864E-1	9.919744E-1	1.031704E+0	9.398592E-1	9.744676E-1	9.275513E-1	9.747953E-1	9.585826E-1	9.561760E-1	9.791696E-1	9.523264E-1	9.097728E-1	9.469212E-1	9.711147E-1	9.430597E-1	1.000395E+0	9.767513E-1	9.785104E-1	1.016040E+0	9.280325E-1	9.361925E-1	9.979111E-1	9.473778E-1	9.612668E-1	9.322447E-1	1.020580E+0	9.356467E-1	9.866553E-1	9.513691E-1	9.600503E-1	9.505770E-1	9.704359E-1	9.401371E-1	9.925162E-1	1.015825E+0	9.608644E-1	9.708644E-1	9.612392E-1	1.038947E+0	9.653256E-1	9.418634E-1	9.760281E-1	9.693005E-1	9.396847E-1	9.753144E-1	9.877487E-1	9.434473E-1	9.724807E-1	9.776570E-1	9.997352E-1	9.598335E-1	9.475508E-1	9.845928E-1	9.528890E-1	1.004317E+0	9.685786E-1	9.584767E-1	9.982091E-1	9.811815E-1	9.304629E-1	9.897563E-1	9.959323E-1	9.890793E-1	9.351533E-1	9.629602E-1	1.038497E+0	9.942295E-1	9.402625E-1	9.591510E-1	1.021528E+0	9.844787E-1	9.526221E-1	8.948777E-1	9.906842E-1	9.575589E-1	9.327352E-1	1.002575E+0	9.881086E-1	9.479883E-1	9.587544E-1	9.411033E-1	9.855570E-1	9.536356E-1	9.675670E-1	9.214841E-1	9.813003E-1	9.654972E-1	9.449824E-1	9.963695E-1	9.958212E-1	9.848122E-1	9.742130E-1	9.405620E-1	1.001482E+0	9.578824E-1	9.462817E-1	9.771342E-1	9.680040E-1	9.770040E-1	9.306363E-1	9.952702E-1	9.832503E-1	9.826137E-1	9.718963E-1	9.518211E-1	1.001750E+0	9.519337E-1	9.650700E-1	9.432366E-1	1.015735E+0	9.909689E-1	9.565757E-1	9.841346E-1	9.865517E-1	9.621071E-1	9.913204E-1	9.579898E-1	9.672442E-1	9.862981E-1	9.272995E-1	9.670069E-1	9.573917E-1	9.710640E-1	9.968818E-1	9.410460E-1	9.039715E-1	9.538633E-1	9.548877E-1	9.551477E-1	9.230566E-1	9.285468E-1
2.995040E+2	1.034116E+0	1.004832E+0	1.034494E+0	1.051605E+0	1.043471E+0	1.000331E+0	1.021348E+0	1.029301E+0	1.020369E+0	1.037633E+0	1.003344E+0	1.027947E+0	1.026824E+0	1.059355E+0	9.909038E-1	1.028744E+0	1.046533E+0	9.861202E-1	1.013262E+0	1.050966E+0	1.047130E+0	1.017550E+0	1.004332E+0	1.028473E+0	1.012265E+0	1.010850E+0	1.014715E+0	9.717747E-1	1.006975E+0	1.007544E+0	1.024691E+0	1.001291E+0	1.023068E+0	1.050755E+0	1.011488E+0	1.022708E+0	1.060574E+0	1.041605E+0	1.053906E+0	1.024503E+0	1.045614E+0	1.001147E+0	1.004749E+0	1.027336E+0	1.016521E+0	1.044228E+0	1.014305E+0	1.018993E+0	1.013574E+0	1.014879E+0	1.028552E+0	1.045523E+0	9.904726E-1	9.908086E-1	1.018129E+0	9.901213E-1	1.021069E+0	1.034115E+0	9.716801E-1	1.059950E+0	1.051046E+0	1.026321E+0	9.807199E-1	1.020042E+0	1.020185E+0	9.331837E-1	1.051767E+0	1.028751E+0	9.997789E-1	1.042405E+0	1.058152E+0	1.044208E+0	1.053404E+0	1.029677E+0	1.012686E+0	1.042719E+0	1.056623E+0	1.036910E+0	1.022359E+0	1.033328E+0	1.046742E+0	1.037277E+0	1.073308E+0	1.080287E+0	1.024233E+0	1.053652E+0	1.056013E+0	9.941477E-1	1.082641E+0	1.062480E+0	1.017177E+0	1.003776E+0	1.049532E+0	1.036287E+0	9.900045E-1	1.034458E+0	1.014886E+0	1.042736E+0	1.005156E+0	1.045813E+0	1.008261E+0	1.069146E+0	1.008889E+0	1.042923E+0	1.015681E+0	1.054837E+0	1.034490E+0	1.022419E+0	1.024985E+0	1.027745E+0	1.045281E+0	1.035705E+0	1.016791E+0	1.060371E+0	1.034502E+0	1.020472E+0	9.955527E-1	1.080793E+0	1.047980E+0	9.997214E-1	9.913543E-1	1.022590E+0	1.029505E+0	1.044521E+0	9.982489E-1	1.041766E+0	1.033826E+0	9.992951E-1	1.010084E+0	1.059572E+0	1.060751E+0	1.016336E+0	9.918900E-1	1.055515E+0	1.017159E+0	1.018169E+0	1.008211E+0	1.069728E+0	9.970591E-1	1.035300E+0	9.676550E-1	1.002810E+0	9.869600E-1	1.020689E+0	1.031446E+0	1.062302E+0	1.011244E+0	1.030292E+0	1.028750E+0	1.117578E+0	1.028312E+0	1.009713E+0	1.031310E+0	1.072623E+0	1.024179E+0	9.921895E-1	1.018612E+0	1.028569E+0	9.795594E-1	1.032844E+0	9.522817E-1	1.062519E+0	1.051442E+0	1.031748E+0	9.760151E-1	1.109694E+0	1.016739E+0	1.008806E+0	9.388375E-1	1.113612E+0	8.873239E-1
3.000060E+2	1.053427E+0	1.026748E+0	1.038650E+0	1.099105E+0	1.074439E+0	1.110164E+0	1.116197E+0	1.027516E+0	1.086391E+0	1.067831E+0	1.102977E+0	1.093768E+0	1.072711E+0	1.072619E+0	1.108845E+0	1.109590E+0	1.086732E+0	1.088455E+0	1.044207E+0	1.104642E+0	1.086808E+0	1.111867E+0	1.046318E+0	1.085944E+0	1.114548E+0	1.089261E+0	1.114638E+0	1.117651E+0	1.062537E+0	1.078120E+0	1.084076E+0	1.112576E+0	1.101523E+0	1.063328E+0	1.097647E+0	1.021867E+0	1.096313E+0	1.100415E+0	1.075809E+0	1.083639E+0	1.062135E+0	1.102799E+0	1.044797E+0	1.084534E+0	1.039049E+0	1.061303E+0	1.068801E+0	1.040960E+0	1.065542E+0	1.070503E+0	1.063914E+0	1.124847E+0	1.080300E+0	1.109634E+0	1.089369E+0	1.053344E+0	1.079194E+0	1.043784E+0	1.062655E+0	1.066505E+0	1.094293E+0	1.071443E+0	1.087554E+0	1.034230E+0	1.099640E+0	1.142451E+0	1.093087E+0	1.074974E+0	1.066757E+0	1.107351E+0	1.056029E+0	1.122953E+0	1.057876E+0	1.095484E+0	1.021319E+0	1.074964E+0	1.054973E+0	1.074398E+0	9.971150E-1	1.040734E+0	1.080925E+0	1.101279E+0	1.068543E+0	1.012383E+0	1.068395E+0	1.122089E+0	1.051964E+0	1.077826E+0	1.030149E+0	1.086306E+0	1.025702E+0	1.048254E+0	1.041128E+0	1.073926E+0	1.090189E+0	1.086322E+0	1.090099E+0	1.109526E+0	1.067796E+0	1.112895E+0	1.062454E+0	1.107788E+0	1.068320E+0	1.077789E+0	1.071646E+0	1.060035E+0	1.040126E+0	1.030473E+0	1.054333E+0	1.072643E+0	1.019883E+0	1.101623E+0	1.069282E+0	1.134414E+0	1.094043E+0	1.078128E+0	1.053836E+0	1.172145E+0	1.110069E+0	1.069115E+0	1.049711E+0	1.152208E+0	1.096178E+0	1.045406E+0	1.085519E+0	1.084763E+0	1.042622E+0	1.104390E+0	1.060911E+0	1.127619E+0	1.025580E+0	1.064131E+0	1.115876E+0	1.163579E+0	1.083456E+0	1.058458E+0	1.054448E+0	1.090379E+0	1.042785E+0	1.060847E+0	1.071210E+0	1.064190E+0	1.102146E+0	1.082397E+0	1.079047E+0	1.144655E+0	1.077968E+0	1.087688E+0	1.081828E+0	1.121294E+0	1.059066E+0	1.064565E+0	1.020358E+0	1.121806E+0	1.126669E+0	1.037318E+0	1.091997E+0	1.143090E+0	1.029426E+0	1.075653E+0	1.080711E+0	1.189945E+0	1.056265E+0	1.056410E+0	1.089663E+0	1.201208E+0	1.100031E+0	1.068117E+0	1.100578E+0	1.072359E+0	1.147029E+0
