Photon Energy (eV)	#1	#2	#3	#4	#5	#6	#7	#8	#9	#10	#11	#12	#13	#14	#15	#16	#17	#18	#19	#20	#21	#22	#23	#24	#25	#26	#27	#28	#29	#30	#31	#32	#33	#34	#35	#36	#37	#38	#39	#40	#41	#42	#43	#44	#45	#46	#47	#48	#49	#50	#51	#52	#53	#54	#55	#56	#57	#58	#59	#60	#61	#62	#63	#64	#65	#66	#67	#68	#69	#70	#71	#72	#73	#74	#75	#76	#77	#78	#79	#80	#81	#82	#83	#84	#85	#86	#87	#88	#89	#90	#91	#92	#93	#94	#95	#96	#97	#98	#99	#100	#101	#102	#103	#104	#105	#106	#107	#108	#109	#110	#111	#112	#113	#114	#115	#116	#117	#118	#119	#120	#121	#122	#123	#124	#125	#126	#127	#128	#129	#130	#131	#132	#133	#134	#135	#136	#137	#138	#139	#140	#141	#142	#143	#144	#145	#146	#147	#148	#149	#150	#151	#152	#153	#154	#155	#156	#157	#158	#159	#160	#161	#162	#163	#164	#165	#166	#167	#168	#169	#170	
1.130000E+3	1.575790E+0	1.718600E+0	1.563290E+0	1.529580E+0	1.754100E+0	1.811350E+0	1.481910E+0	1.763580E+0	1.595060E+0	1.667920E+0	1.649220E+0	1.602860E+0	1.822260E+0	1.876780E+0	1.663150E+0	2.039440E+0	1.556970E+0	1.685650E+0	1.619320E+0	1.575470E+0	1.647600E+0	1.998280E+0	1.560960E+0	1.809890E+0	1.593980E+0	1.797200E+0	1.530130E+0	1.618370E+0	1.842010E+0	1.764390E+0	1.633330E+0	1.970830E+0	1.752370E+0	1.698670E+0	1.548120E+0	1.548020E+0	1.862180E+0	1.900200E+0	1.662640E+0	1.843680E+0	1.633540E+0	1.613840E+0	1.458350E+0	1.452310E+0	1.625470E+0	1.648710E+0	1.634010E+0	1.864780E+0	1.568150E+0	1.584680E+0	1.610450E+0	1.616430E+0	1.735010E+0	1.861960E+0	1.597910E+0	1.798320E+0	1.549230E+0	1.618810E+0	1.570580E+0	1.396280E+0	1.671350E+0	1.645890E+0	1.733070E+0	1.642490E+0	1.721310E+0	1.653230E+0	1.466010E+0	1.393840E+0	1.893240E+0	1.890450E+0	1.606750E+0	1.674580E+0	1.589910E+0	1.623480E+0	1.513070E+0	1.510120E+0	1.517840E+0	1.763880E+0	1.775980E+0	1.763270E+0	1.495070E+0	1.646430E+0	1.531390E+0	1.610720E+0	1.674400E+0	1.878240E+0	1.630340E+0	1.800230E+0	1.588080E+0	1.657750E+0	1.432160E+0	1.448820E+0	1.748260E+0	1.811830E+0	1.580370E+0	1.523490E+0	1.515580E+0	1.694370E+0	1.430140E+0	1.489420E+0	1.848430E+0	2.040420E+0	1.600380E+0	1.591630E+0	1.708580E+0	1.653760E+0	1.564910E+0	1.525850E+0	1.724080E+0	1.783250E+0	1.710280E+0	1.718670E+0	1.636170E+0	1.698410E+0	1.589070E+0	1.536300E+0	1.966940E+0	1.834580E+0	1.627750E+0	1.528960E+0	1.660120E+0	1.768100E+0	1.635020E+0	1.433800E+0	1.758140E+0	1.798240E+0	1.878830E+0	1.783480E+0	1.526640E+0	1.536740E+0	1.699890E+0	1.503190E+0	1.892090E+0	1.853210E+0	1.730660E+0	1.680190E+0	1.686860E+0	1.508790E+0	1.592160E+0	1.458090E+0	1.718630E+0	1.551860E+0	1.728260E+0	1.632930E+0	1.556450E+0	1.591090E+0	1.507520E+0	1.396340E+0	1.884530E+0	1.926290E+0	1.602560E+0	1.611040E+0	1.623190E+0	1.890300E+0	1.565700E+0	1.417480E+0	1.761640E+0	1.812280E+0	1.713110E+0	1.813490E+0	1.556620E+0	1.615560E+0	1.617640E+0	1.540120E+0	1.833810E+0	1.860080E+0	1.595660E+0	1.723150E+0	1.524360E+0	1.571680E+0
1.430000E+3	1.573810E+0	1.716520E+0	1.561430E+0	1.527820E+0	1.751850E+0	1.809010E+0	1.480110E+0	1.761270E+0	1.593110E+0	1.665770E+0	1.647070E+0	1.600800E+0	1.819830E+0	1.874430E+0	1.661120E+0	2.036610E+0	1.555140E+0	1.683610E+0	1.617240E+0	1.573510E+0	1.645400E+0	1.995390E+0	1.558870E+0	1.807340E+0	1.591960E+0	1.794800E+0	1.528230E+0	1.616410E+0	1.839570E+0	1.762140E+0	1.631250E+0	1.968130E+0	1.750020E+0	1.696420E+0	1.546110E+0	1.546060E+0	1.859410E+0	1.897350E+0	1.660310E+0	1.841160E+0	1.631540E+0	1.611780E+0	1.456580E+0	1.450760E+0	1.623550E+0	1.646720E+0	1.631980E+0	1.862220E+0	1.566100E+0	1.582620E+0	1.608180E+0	1.614200E+0	1.732500E+0	1.859240E+0	1.595610E+0	1.795910E+0	1.547190E+0	1.616690E+0	1.568630E+0	1.394670E+0	1.669110E+0	1.643780E+0	1.730750E+0	1.640340E+0	1.718820E+0	1.650980E+0	1.464050E+0	1.392040E+0	1.890440E+0	1.887740E+0	1.604210E+0	1.672270E+0	1.587810E+0	1.621460E+0	1.510040E+0	1.508270E+0	1.515960E+0	1.761610E+0	1.772990E+0	1.760900E+0	1.493040E+0	1.644210E+0	1.529180E+0	1.608500E+0	1.672150E+0	1.875650E+0	1.627730E+0	1.797730E+0	1.586150E+0	1.655690E+0	1.429030E+0	1.447070E+0	1.745990E+0	1.809400E+0	1.577480E+0	1.521620E+0	1.514450E+0	1.692170E+0	1.428320E+0	1.488090E+0	1.845850E+0	2.037770E+0	1.598710E+0	1.590480E+0	1.705470E+0	1.651160E+0	1.562180E+0	1.523140E+0	1.720880E+0	1.780760E+0	1.707870E+0	1.716220E+0	1.634040E+0	1.696090E+0	1.587030E+0	1.534410E+0	1.964080E+0	1.832000E+0	1.625690E+0	1.527070E+0	1.656820E+0	1.765630E+0	1.632920E+0	1.432110E+0	1.755600E+0	1.795690E+0	1.876080E+0	1.780900E+0	1.524730E+0	1.534780E+0	1.697610E+0	1.501290E+0	1.889380E+0	1.850490E+0	1.728230E+0	1.677960E+0	1.684450E+0	1.506860E+0	1.590140E+0	1.456290E+0	1.716230E+0	1.549460E+0	1.725890E+0	1.630810E+0	1.554400E+0	1.589030E+0	1.505180E+0	1.394640E+0	1.881730E+0	1.923310E+0	1.600420E+0	1.609010E+0	1.621010E+0	1.887560E+0	1.563750E+0	1.415830E+0	1.759270E+0	1.809810E+0	1.710850E+0	1.810950E+0	1.554660E+0	1.613430E+0	1.615530E+0	1.538100E+0	1.831220E+0	1.857330E+0	1.593640E+0	1.720750E+0	1.522420E+0	1.569730E+0
1.730000E+3	1.572410E+0	1.714700E+0	1.586270E+0	1.525450E+0	1.749800E+0	1.806900E+0	1.539200E+0	1.756780E+0	1.591000E+0	1.663300E+0	1.683910E+0	1.597320E+0	1.817560E+0	1.872070E+0	1.675700E+0	2.033670E+0	1.553460E+0	1.681790E+0	1.616060E+0	1.571810E+0	1.643660E+0	1.992940E+0	1.557240E+0	1.805350E+0	1.590030E+0	1.792740E+0	1.526550E+0	1.614700E+0	1.837640E+0	1.760210E+0	1.629720E+0	1.965780E+0	1.748190E+0	1.694590E+0	1.544410E+0	1.544500E+0	1.857120E+0	1.895040E+0	1.658500E+0	1.838930E+0	1.629750E+0	1.610040E+0	1.455190E+0	1.449630E+0	1.621860E+0	1.645160E+0	1.630020E+0	1.860150E+0	1.564440E+0	1.580770E+0	1.606530E+0	1.612330E+0	1.730490E+0	1.857000E+0	1.593920E+0	1.793900E+0	1.545610E+0	1.615080E+0	1.567110E+0	1.393500E+0	1.667480E+0	1.642110E+0	1.728960E+0	1.638770E+0	1.716980E+0	1.649270E+0	1.462550E+0	1.390650E+0	1.888180E+0	1.885520E+0	1.602620E+0	1.670480E+0	1.586360E+0	1.619940E+0	1.508670E+0	1.507010E+0	1.514590E+0	1.759790E+0	1.771080E+0	1.758800E+0	1.491530E+0	1.642410E+0	1.527720E+0	1.606980E+0	1.670480E+0	1.873690E+0	1.625760E+0	1.795900E+0	1.584780E+0	1.654200E+0	1.426950E+0	1.445730E+0	1.744330E+0	1.807590E+0	1.575570E+0	1.520220E+0	1.513030E+0	1.690480E+0	1.427150E+0	1.487220E+0	1.843940E+0	2.034190E+0	1.596260E+0	1.589450E+0	1.704090E+0	1.650230E+0	1.561170E+0	1.522200E+0	1.720170E+0	1.778250E+0	1.705570E+0	1.713920E+0	1.632100E+0	1.693860E+0	1.585080E+0	1.532610E+0	1.961290E+0	1.829360E+0	1.623720E+0	1.525270E+0	1.655390E+0	1.763470E+0	1.630810E+0	1.429870E+0	1.752750E+0	1.793280E+0	1.873490E+0	1.778600E+0	1.523000E+0	1.533010E+0	1.695540E+0	1.499510E+0	1.886780E+0	1.848050E+0	1.726110E+0	1.675820E+0	1.682230E+0	1.505100E+0	1.588140E+0	1.454690E+0	1.713930E+0	1.544420E+0	1.723810E+0	1.628340E+0	1.552580E+0	1.586680E+0	1.503570E+0	1.390820E+0	1.879310E+0	1.920730E+0	1.598630E+0	1.606410E+0	1.619210E+0	1.884960E+0	1.562010E+0	1.413950E+0	1.757190E+0	1.807490E+0	1.708780E+0	1.808690E+0	1.552850E+0	1.611500E+0	1.613570E+0	1.536280E+0	1.829000E+0	1.854930E+0	1.591880E+0	1.718750E+0	1.520770E+0	1.568030E+0
1.780000E+3	1.570860E+0	1.712860E+0	1.658820E+0	1.520630E+0	1.747410E+0	1.804210E+0	1.708940E+0	1.747380E+0	1.588200E+0	1.660150E+0	1.791500E+0	1.590850E+0	1.815060E+0	1.868980E+0	1.720320E+0	2.029220E+0	1.551560E+0	1.679430E+0	1.675630E+0	1.567470E+0	1.641200E+0	1.989560E+0	1.684640E+0	1.797400E+0	1.587330E+0	1.789400E+0	1.591950E+0	1.609930E+0	1.835130E+0	1.757580E+0	1.649550E+0	1.962300E+0	1.745880E+0	1.692200E+0	1.543300E+0	1.542420E+0	1.854510E+0	1.892270E+0	1.656400E+0	1.836410E+0	1.627720E+0	1.608060E+0	1.453680E+0	1.447790E+0	1.619910E+0	1.643190E+0	1.628100E+0	1.857410E+0	1.562490E+0	1.578660E+0	1.604450E+0	1.610050E+0	1.728110E+0	1.854430E+0	1.591890E+0	1.791470E+0	1.543710E+0	1.613200E+0	1.565210E+0	1.391780E+0	1.665390E+0	1.640090E+0	1.726610E+0	1.636460E+0	1.714640E+0	1.647090E+0	1.460580E+0	1.388900E+0	1.885470E+0	1.882880E+0	1.600700E+0	1.668400E+0	1.584410E+0	1.617890E+0	1.506810E+0	1.505030E+0	1.512530E+0	1.757350E+0	1.768490E+0	1.756260E+0	1.489660E+0	1.640080E+0	1.525750E+0	1.604730E+0	1.668250E+0	1.871000E+0	1.623710E+0	1.793430E+0	1.582720E+0	1.651900E+0	1.425170E+0	1.443880E+0	1.741870E+0	1.804940E+0	1.573350E+0	1.518140E+0	1.511170E+0	1.688220E+0	1.423730E+0	1.485380E+0	1.841340E+0	2.031950E+0	1.594300E+0	1.586490E+0	1.701320E+0	1.647220E+0	1.558450E+0	1.519570E+0	1.717060E+0	1.776190E+0	1.703700E+0	1.711950E+0	1.630300E+0	1.691980E+0	1.583500E+0	1.530980E+0	1.958780E+0	1.827020E+0	1.621810E+0	1.523540E+0	1.651760E+0	1.761260E+0	1.628880E+0	1.428630E+0	1.750680E+0	1.791150E+0	1.871200E+0	1.776330E+0	1.521250E+0	1.531260E+0	1.693660E+0	1.497800E+0	1.884280E+0	1.845640E+0	1.723880E+0	1.673800E+0	1.680120E+0	1.503440E+0	1.586200E+0	1.453030E+0	1.711880E+0	1.542630E+0	1.721750E+0	1.625090E+0	1.550840E+0	1.585330E+0	1.501140E+0	1.383730E+0	1.877100E+0	1.917990E+0	1.596740E+0	1.602570E+0	1.617470E+0	1.882440E+0	1.560240E+0	1.411680E+0	1.755100E+0	1.805200E+0	1.706780E+0	1.805470E+0	1.551090E+0	1.609590E+0	1.611830E+0	1.532300E+0	1.826840E+0	1.852540E+0	1.589990E+0	1.715490E+0	1.519150E+0	1.566210E+0
1.880000E+3	1.569200E+0	1.710760E+0	1.656780E+0	1.518790E+0	1.745130E+0	1.801840E+0	1.706610E+0	1.745250E+0	1.586310E+0	1.658110E+0	1.789150E+0	1.589020E+0	1.812760E+0	1.866560E+0	1.718280E+0	2.026480E+0	1.549730E+0	1.677530E+0	1.751960E+0	1.562270E+0	1.638650E+0	1.986090E+0	1.850330E+0	1.787840E+0	1.584390E+0	1.785740E+0	1.677210E+0	1.604290E+0	1.832520E+0	1.754780E+0	1.675520E+0	1.958670E+0	1.743670E+0	1.689880E+0	1.617810E+0	1.537210E+0	1.851430E+0	1.888990E+0	1.823430E+0	1.826580E+0	1.624640E+0	1.604700E+0	1.543380E+0	1.442200E+0	1.617680E+0	1.640540E+0	1.661910E+0	1.853440E+0	1.560550E+0	1.576410E+0	1.603530E+0	1.607760E+0	1.725730E+0	1.851750E+0	1.590120E+0	1.789010E+0	1.541830E+0	1.611250E+0	1.563550E+0	1.390240E+0	1.663340E+0	1.638230E+0	1.724440E+0	1.634230E+0	1.712340E+0	1.644840E+0	1.458850E+0	1.387060E+0	1.882770E+0	1.880300E+0	1.598740E+0	1.666230E+0	1.582740E+0	1.615970E+0	1.505230E+0	1.503300E+0	1.510820E+0	1.755190E+0	1.766140E+0	1.753890E+0	1.487830E+0	1.638220E+0	1.523870E+0	1.602690E+0	1.666310E+0	1.868540E+0	1.621810E+0	1.791130E+0	1.581000E+0	1.649960E+0	1.423570E+0	1.442170E+0	1.739790E+0	1.802620E+0	1.571540E+0	1.516450E+0	1.509780E+0	1.686170E+0	1.424650E+0	1.483690E+0	1.839080E+0	2.028370E+0	1.591150E+0	1.586710E+0	1.701310E+0	1.645350E+0	1.557380E+0	1.518410E+0	1.715240E+0	1.774720E+0	1.701560E+0	1.709470E+0	1.628210E+0	1.689510E+0	1.581330E+0	1.528510E+0	1.955720E+0	1.824180E+0	1.619530E+0	1.521410E+0	1.649740E+0	1.758590E+0	1.626570E+0	1.424470E+0	1.748060E+0	1.788380E+0	1.868410E+0	1.773640E+0	1.519400E+0	1.529330E+0	1.691130E+0	1.495830E+0	1.881410E+0	1.842710E+0	1.721380E+0	1.671290E+0	1.677610E+0	1.501210E+0	1.583990E+0	1.450960E+0	1.709400E+0	1.540500E+0	1.719090E+0	1.622560E+0	1.548730E+0	1.580030E+0	1.496220E+0	1.381430E+0	1.874130E+0	1.914820E+0	1.594470E+0	1.600230E+0	1.615120E+0	1.879370E+0	1.558070E+0	1.409710E+0	1.752410E+0	1.802610E+0	1.704480E+0	1.801270E+0	1.549100E+0	1.607380E+0	1.609700E+0	1.527220E+0	1.824540E+0	1.849710E+0	1.587880E+0	1.711600E+0	1.517380E+0	1.564060E+0
1.980000E+3	1.567450E+0	1.708460E+0	1.654620E+0	1.516780E+0	1.742660E+0	1.799300E+0	1.704220E+0	1.743100E+0	1.584310E+0	1.655890E+0	1.786890E+0	1.587020E+0	1.810430E+0	1.864010E+0	1.716140E+0	2.023740E+0	1.547730E+0	1.675210E+0	1.749590E+0	1.560370E+0	1.636430E+0	1.983280E+0	1.847880E+0	1.785520E+0	1.582560E+0	1.783520E+0	1.675110E+0	1.602410E+0	1.830210E+0	1.752630E+0	1.673420E+0	1.955930E+0	1.741570E+0	1.687690E+0	1.685020E+0	1.532310E+0	1.848490E+0	1.885940E+0	1.975730E+0	1.817490E+0	1.621840E+0	1.601370E+0	1.625050E+0	1.436750E+0	1.615360E+0	1.637900E+0	1.692450E+0	1.849850E+0	1.558390E+0	1.574250E+0	1.647520E+0	1.603900E+0	1.723280E+0	1.848800E+0	1.673890E+0	1.783090E+0	1.539460E+0	1.608560E+0	1.602610E+0	1.386880E+0	1.661180E+0	1.635800E+0	1.737540E+0	1.631630E+0	1.710240E+0	1.642670E+0	1.457530E+0	1.385360E+0	1.880330E+0	1.877850E+0	1.596930E+0	1.664160E+0	1.580750E+0	1.614130E+0	1.503550E+0	1.501530E+0	1.509130E+0	1.753290E+0	1.764040E+0	1.751710E+0	1.486150E+0	1.636200E+0	1.522280E+0	1.600720E+0	1.664440E+0	1.866390E+0	1.620130E+0	1.789050E+0	1.579440E+0	1.648230E+0	1.422180E+0	1.440650E+0	1.737850E+0	1.800650E+0	1.569880E+0	1.514740E+0	1.508200E+0	1.684290E+0	1.424500E+0	1.482090E+0	1.836870E+0	2.024600E+0	1.590000E+0	1.585090E+0	1.701350E+0	1.646510E+0	1.556130E+0	1.517590E+0	1.716000E+0	1.774050E+0	1.701710E+0	1.707660E+0	1.626640E+0	1.687090E+0	1.578690E+0	1.522650E+0	1.953970E+0	1.820910E+0	1.616870E+0	1.515330E+0	1.650920E+0	1.755710E+0	1.623790E+0	1.420580E+0	1.745080E+0	1.785290E+0	1.865180E+0	1.770660E+0	1.517030E+0	1.526880E+0	1.688370E+0	1.493520E+0	1.878210E+0	1.839570E+0	1.718550E+0	1.668670E+0	1.674840E+0	1.498860E+0	1.581550E+0	1.448810E+0	1.706630E+0	1.538230E+0	1.716320E+0	1.619950E+0	1.546370E+0	1.576340E+0	1.493120E+0	1.378550E+0	1.870860E+0	1.911480E+0	1.591880E+0	1.597690E+0	1.612510E+0	1.876180E+0	1.555630E+0	1.407500E+0	1.749560E+0	1.799740E+0	1.701860E+0	1.798350E+0	1.546790E+0	1.604980E+0	1.607140E+0	1.524820E+0	1.821590E+0	1.846660E+0	1.585520E+0	1.708870E+0	1.515140E+0	1.561710E+0
2.030000E+3	1.565890E+0	1.706440E+0	1.652680E+0	1.515080E+0	1.740600E+0	1.797130E+0	1.702140E+0	1.740970E+0	1.582440E+0	1.653990E+0	1.784480E+0	1.585130E+0	1.808240E+0	1.861490E+0	1.713930E+0	2.021040E+0	1.545920E+0	1.673200E+0	1.747340E+0	1.558480E+0	1.634500E+0	1.980610E+0	1.845560E+0	1.783410E+0	1.580770E+0	1.781310E+0	1.673050E+0	1.600510E+0	1.827880E+0	1.750410E+0	1.671370E+0	1.953280E+0	1.739400E+0	1.685710E+0	1.682880E+0	1.530530E+0	1.846140E+0	1.883640E+0	1.973180E+0	1.815410E+0	1.620010E+0	1.599560E+0	1.623280E+0	1.435310E+0	1.613520E+0	1.635940E+0	1.690370E+0	1.847420E+0	1.556590E+0	1.572320E+0	1.703940E+0	1.599390E+0	1.720810E+0	1.845950E+0	1.783220E+0	1.775970E+0	1.537030E+0	1.605850E+0	1.653880E+0	1.383020E+0	1.659130E+0	1.633530E+0	1.754990E+0	1.628900E+0	1.708070E+0	1.640490E+0	1.561750E+0	1.379080E+0	1.876880E+0	1.874260E+0	1.869240E+0	1.649870E+0	1.577050E+0	1.609680E+0	1.651090E+0	1.493030E+0	1.506900E+0	1.749850E+0	1.810170E+0	1.747590E+0	1.484300E+0	1.633730E+0	1.521890E+0	1.598500E+0	1.662030E+0	1.863400E+0	1.617920E+0	1.786420E+0	1.577290E+0	1.646040E+0	1.420670E+0	1.438830E+0	1.735640E+0	1.798250E+0	1.568100E+0	1.512700E+0	1.506340E+0	1.682020E+0	1.422730E+0	1.479930E+0	1.834130E+0	2.022460E+0	1.588680E+0	1.582800E+0	1.699000E+0	1.643430E+0	1.553810E+0	1.514770E+0	1.712870E+0	1.772690E+0	1.700320E+0	1.705220E+0	1.624380E+0	1.684910E+0	1.576550E+0	1.520120E+0	1.951140E+0	1.818370E+0	1.614830E+0	1.512950E+0	1.649420E+0	1.753480E+0	1.621720E+0	1.417930E+0	1.742630E+0	1.782820E+0	1.862450E+0	1.768060E+0	1.515170E+0	1.525050E+0	1.686160E+0	1.491690E+0	1.875660E+0	1.837000E+0	1.716410E+0	1.666340E+0	1.672610E+0	1.496910E+0	1.579400E+0	1.446770E+0	1.704350E+0	1.536130E+0	1.713740E+0	1.617710E+0	1.544380E+0	1.573810E+0	1.491370E+0	1.376570E+0	1.868260E+0	1.908570E+0	1.589840E+0	1.595590E+0	1.610300E+0	1.873360E+0	1.553570E+0	1.405620E+0	1.747030E+0	1.797040E+0	1.699500E+0	1.795680E+0	1.544850E+0	1.602880E+0	1.605090E+0	1.523000E+0	1.819110E+0	1.844030E+0	1.583560E+0	1.706570E+0	1.513290E+0	1.559570E+0
2.055000E+3	1.564280E+0	1.704490E+0	1.650830E+0	1.513440E+0	1.738560E+0	1.794910E+0	1.700140E+0	1.738910E+0	1.580650E+0	1.652000E+0	1.782350E+0	1.583410E+0	1.806020E+0	1.859380E+0	1.711960E+0	2.018510E+0	1.544230E+0	1.671290E+0	1.745300E+0	1.556650E+0	1.632650E+0	1.977920E+0	1.843090E+0	1.781100E+0	1.578820E+0	1.779030E+0	1.670920E+0	1.598550E+0	1.825770E+0	1.748190E+0	1.669370E+0	1.950720E+0	1.737160E+0	1.683600E+0	1.680770E+0	1.528850E+0	1.843660E+0	1.880920E+0	1.970260E+0	1.812840E+0	1.617970E+0	1.597570E+0	1.621170E+0	1.433480E+0	1.611580E+0	1.633940E+0	1.688280E+0	1.844920E+0	1.554610E+0	1.570390E+0	1.701610E+0	1.597310E+0	1.718420E+0	1.843260E+0	1.780810E+0	1.773640E+0	1.535160E+0	1.603770E+0	1.651700E+0	1.381400E+0	1.656920E+0	1.631330E+0	1.752540E+0	1.626800E+0	1.705650E+0	1.638330E+0	1.581820E+0	1.376370E+0	1.874010E+0	1.871290E+0	1.924150E+0	1.645040E+0	1.574710E+0	1.607090E+0	1.680160E+0	1.489660E+0	1.504700E+0	1.747050E+0	1.817580E+0	1.744610E+0	1.482200E+0	1.631310E+0	1.617310E+0	1.592030E+0	1.658860E+0	1.859520E+0	1.801890E+0	1.775260E+0	1.573830E+0	1.642080E+0	1.504610E+0	1.432940E+0	1.732830E+0	1.794850E+0	1.599080E+0	1.509160E+0	1.503940E+0	1.678990E+0	1.421020E+0	1.477500E+0	1.831020E+0	2.019460E+0	1.584460E+0	1.580300E+0	1.695390E+0	1.638650E+0	1.551160E+0	1.511910E+0	1.708710E+0	1.768030E+0	1.695150E+0	1.702010E+0	1.621470E+0	1.682620E+0	1.575050E+0	1.522610E+0	1.947020E+0	1.816430E+0	1.613500E+0	1.515570E+0	1.644050E+0	1.751740E+0	1.620200E+0	1.419810E+0	1.741050E+0	1.780920E+0	1.860320E+0	1.766010E+0	1.513520E+0	1.523420E+0	1.684310E+0	1.489990E+0	1.873450E+0	1.834810E+0	1.714550E+0	1.664570E+0	1.670720E+0	1.495480E+0	1.577810E+0	1.445360E+0	1.702430E+0	1.534310E+0	1.711930E+0	1.615820E+0	1.542760E+0	1.575930E+0	1.490080E+0	1.375930E+0	1.866040E+0	1.906010E+0	1.588180E+0	1.593730E+0	1.608550E+0	1.870790E+0	1.551800E+0	1.404080E+0	1.745080E+0	1.794760E+0	1.697440E+0	1.793450E+0	1.543170E+0	1.601080E+0	1.603300E+0	1.521330E+0	1.816890E+0	1.841540E+0	1.581610E+0	1.704450E+0	1.511450E+0	1.557580E+0
2.080000E+3	1.562800E+0	1.702770E+0	1.649320E+0	1.512270E+0	1.736750E+0	1.793110E+0	1.698370E+0	1.736920E+0	1.579150E+0	1.650070E+0	1.780380E+0	1.581700E+0	1.803950E+0	1.857380E+0	1.710010E+0	2.016130E+0	1.542790E+0	1.669600E+0	1.743420E+0	1.555070E+0	1.631010E+0	1.975430E+0	1.840720E+0	1.779120E+0	1.577030E+0	1.776820E+0	1.669040E+0	1.596790E+0	1.823520E+0	1.746090E+0	1.667520E+0	1.948330E+0	1.735070E+0	1.681670E+0	1.678650E+0	1.527100E+0	1.841250E+0	1.878390E+0	1.967580E+0	1.810540E+0	1.616100E+0	1.595710E+0	1.619390E+0	1.431930E+0	1.609780E+0	1.632010E+0	1.686380E+0	1.842440E+0	1.552790E+0	1.568430E+0	1.699430E+0	1.595270E+0	1.716150E+0	1.840670E+0	1.778280E+0	1.771380E+0	1.533100E+0	1.601900E+0	1.649750E+0	1.379890E+0	1.655020E+0	1.629320E+0	1.750210E+0	1.624630E+0	1.703210E+0	1.636100E+0	1.579620E+0	1.374630E+0	1.871320E+0	1.868380E+0	1.921330E+0	1.642770E+0	1.572660E+0	1.604970E+0	1.677830E+0	1.487830E+0	1.502850E+0	1.744630E+0	1.815030E+0	1.742020E+0	1.480290E+0	1.628800E+0	1.642030E+0	1.588500E+0	1.656290E+0	1.856260E+0	1.850780E+0	1.770250E+0	1.571300E+0	1.639230E+0	1.526520E+0	1.429920E+0	1.730150E+0	1.791970E+0	1.605920E+0	1.506730E+0	1.499170E+0	1.675970E+0	1.541560E+0	1.467700E+0	1.827150E+0	2.012550E+0	1.807490E+0	1.564020E+0	1.687580E+0	1.632560E+0	1.657560E+0	1.505000E+0	1.705450E+0	1.764190E+0	1.741230E+0	1.698810E+0	1.620070E+0	1.680840E+0	1.575080E+0	1.521340E+0	1.945200E+0	1.814650E+0	1.612020E+0	1.514570E+0	1.640300E+0	1.750070E+0	1.619030E+0	1.419990E+0	1.740090E+0	1.779350E+0	1.858660E+0	1.764250E+0	1.512300E+0	1.522050E+0	1.682910E+0	1.488620E+0	1.871480E+0	1.833020E+0	1.713060E+0	1.662930E+0	1.669130E+0	1.494370E+0	1.576480E+0	1.444000E+0	1.700680E+0	1.532860E+0	1.710330E+0	1.614300E+0	1.541400E+0	1.575400E+0	1.492540E+0	1.376780E+0	1.864110E+0	1.903930E+0	1.586800E+0	1.592350E+0	1.607080E+0	1.868800E+0	1.550310E+0	1.402830E+0	1.743310E+0	1.792940E+0	1.695580E+0	1.791360E+0	1.541700E+0	1.599430E+0	1.601780E+0	1.519770E+0	1.814890E+0	1.839390E+0	1.580150E+0	1.702570E+0	1.510100E+0	1.556010E+0
2.105000E+3	1.561180E+0	1.700820E+0	1.647430E+0	1.510710E+0	1.734750E+0	1.790860E+0	1.696360E+0	1.734920E+0	1.577440E+0	1.648330E+0	1.778340E+0	1.580020E+0	1.801870E+0	1.855150E+0	1.708050E+0	2.013520E+0	1.541070E+0	1.667600E+0	1.741200E+0	1.553220E+0	1.629070E+0	1.972840E+0	1.838310E+0	1.776920E+0	1.575280E+0	1.774710E+0	1.667080E+0	1.594970E+0	1.821410E+0	1.743870E+0	1.665580E+0	1.945750E+0	1.732830E+0	1.679650E+0	1.676570E+0	1.525270E+0	1.838790E+0	1.875880E+0	1.964760E+0	1.808100E+0	1.614080E+0	1.593730E+0	1.617420E+0	1.430340E+0	1.607880E+0	1.630080E+0	1.684290E+0	1.840060E+0	1.550930E+0	1.566580E+0	1.697240E+0	1.593210E+0	1.713880E+0	1.838070E+0	1.775730E+0	1.768940E+0	1.531220E+0	1.599780E+0	1.647620E+0	1.378280E+0	1.652910E+0	1.627250E+0	1.747950E+0	1.622600E+0	1.701020E+0	1.634040E+0	1.577550E+0	1.372930E+0	1.868540E+0	1.865660E+0	1.918360E+0	1.640630E+0	1.570590E+0	1.602880E+0	1.675520E+0	1.485900E+0	1.500900E+0	1.742220E+0	1.812500E+0	1.739570E+0	1.478350E+0	1.626740E+0	1.639720E+0	1.586350E+0	1.654000E+0	1.853560E+0	1.848010E+0	1.767710E+0	1.569160E+0	1.636860E+0	1.524400E+0	1.427980E+0	1.727710E+0	1.789350E+0	1.602830E+0	1.502530E+0	1.495710E+0	1.670760E+0	1.582880E+0	1.461890E+0	1.824210E+0	2.008030E+0	1.884070E+0	1.558300E+0	1.685470E+0	1.630230E+0	1.693900E+0	1.500460E+0	1.703450E+0	1.761930E+0	1.756270E+0	1.696300E+0	1.618290E+0	1.678820E+0	1.688350E+0	1.515140E+0	1.942160E+0	1.811510E+0	1.853210E+0	1.502990E+0	1.637060E+0	1.746190E+0	1.759740E+0	1.412760E+0	1.737850E+0	1.776240E+0	1.912240E+0	1.760100E+0	1.510500E+0	1.519930E+0	1.682640E+0	1.487030E+0	1.869250E+0	1.830560E+0	1.711210E+0	1.661220E+0	1.667320E+0	1.492850E+0	1.575100E+0	1.442660E+0	1.698940E+0	1.534080E+0	1.708650E+0	1.612260E+0	1.539620E+0	1.573490E+0	1.491900E+0	1.377530E+0	1.861730E+0	1.901320E+0	1.585010E+0	1.590410E+0	1.605310E+0	1.866680E+0	1.548870E+0	1.401250E+0	1.741230E+0	1.790900E+0	1.693700E+0	1.788940E+0	1.539910E+0	1.597560E+0	1.599850E+0	1.517910E+0	1.812600E+0	1.836960E+0	1.578360E+0	1.700460E+0	1.508330E+0	1.554380E+0
2.130000E+3	1.559440E+0	1.698670E+0	1.645260E+0	1.508800E+0	1.732450E+0	1.788490E+0	1.694090E+0	1.732830E+0	1.575520E+0	1.646160E+0	1.775950E+0	1.578090E+0	1.799530E+0	1.852680E+0	1.705890E+0	2.010720E+0	1.539200E+0	1.665480E+0	1.738870E+0	1.551230E+0	1.626930E+0	1.969890E+0	1.835790E+0	1.774580E+0	1.573300E+0	1.772400E+0	1.664950E+0	1.592960E+0	1.819020E+0	1.741670E+0	1.663440E+0	1.943190E+0	1.730770E+0	1.677510E+0	1.674400E+0	1.523410E+0	1.836260E+0	1.873320E+0	1.961890E+0	1.805790E+0	1.612010E+0	1.591830E+0	1.615380E+0	1.428720E+0	1.605860E+0	1.628050E+0	1.682130E+0	1.837550E+0	1.549000E+0	1.564650E+0	1.695170E+0	1.591340E+0	1.711800E+0	1.835670E+0	1.773510E+0	1.766740E+0	1.529420E+0	1.597870E+0	1.645530E+0	1.376650E+0	1.650880E+0	1.625220E+0	1.745650E+0	1.620700E+0	1.698920E+0	1.631930E+0	1.575750E+0	1.371410E+0	1.866130E+0	1.863290E+0	1.915740E+0	1.638740E+0	1.568900E+0	1.600930E+0	1.673420E+0	1.484230E+0	1.499190E+0	1.740130E+0	1.810060E+0	1.737400E+0	1.476670E+0	1.624740E+0	1.637760E+0	1.584500E+0	1.652130E+0	1.851260E+0	1.845640E+0	1.765620E+0	1.567470E+0	1.635030E+0	1.522740E+0	1.426460E+0	1.725660E+0	1.787100E+0	1.601350E+0	1.502170E+0	1.495490E+0	1.670830E+0	1.583390E+0	1.462650E+0	1.821350E+0	2.006280E+0	1.881590E+0	1.556730E+0	1.683590E+0	1.628060E+0	1.691660E+0	1.500300E+0	1.701160E+0	1.759130E+0	1.753440E+0	1.693630E+0	1.615820E+0	1.676210E+0	1.726080E+0	1.511120E+0	1.938580E+0	1.808240E+0	1.935730E+0	1.497130E+0	1.634350E+0	1.742830E+0	1.807170E+0	1.408760E+0	1.735060E+0	1.773160E+0	1.928740E+0	1.756710E+0	1.508260E+0	1.517530E+0	1.730900E+0	1.482820E+0	1.865890E+0	1.827220E+0	1.854080E+0	1.652580E+0	1.664070E+0	1.489610E+0	1.649880E+0	1.437530E+0	1.696390E+0	1.529330E+0	1.735860E+0	1.608810E+0	1.537320E+0	1.570950E+0	1.490460E+0	1.375560E+0	1.858740E+0	1.897990E+0	1.582820E+0	1.588060E+0	1.602980E+0	1.863770E+0	1.546840E+0	1.399350E+0	1.738710E+0	1.788250E+0	1.691410E+0	1.786200E+0	1.537760E+0	1.595230E+0	1.597650E+0	1.515590E+0	1.809790E+0	1.834210E+0	1.576240E+0	1.697960E+0	1.506360E+0	1.552360E+0
2.155000E+3	1.557800E+0	1.696910E+0	1.643610E+0	1.507340E+0	1.730580E+0	1.786480E+0	1.692280E+0	1.730730E+0	1.573790E+0	1.644300E+0	1.773800E+0	1.576440E+0	1.797360E+0	1.850430E+0	1.703930E+0	2.008220E+0	1.537700E+0	1.663630E+0	1.736940E+0	1.549570E+0	1.625150E+0	1.967420E+0	1.833670E+0	1.772560E+0	1.571550E+0	1.770320E+0	1.663030E+0	1.591170E+0	1.816830E+0	1.739570E+0	1.661580E+0	1.940570E+0	1.728580E+0	1.675600E+0	1.672450E+0	1.521780E+0	1.834050E+0	1.870990E+0	1.959470E+0	1.803700E+0	1.610260E+0	1.590000E+0	1.613600E+0	1.427240E+0	1.604080E+0	1.626230E+0	1.680160E+0	1.835230E+0	1.547300E+0	1.562760E+0	1.693090E+0	1.589450E+0	1.709710E+0	1.833330E+0	1.771330E+0	1.764710E+0	1.527800E+0	1.596070E+0	1.643780E+0	1.375340E+0	1.649050E+0	1.623360E+0	1.743610E+0	1.618780E+0	1.696810E+0	1.630010E+0	1.573740E+0	1.369890E+0	1.863820E+0	1.860870E+0	1.913170E+0	1.636810E+0	1.567040E+0	1.599180E+0	1.671480E+0	1.482730E+0	1.497600E+0	1.738010E+0	1.807910E+0	1.735300E+0	1.475050E+0	1.622740E+0	1.635780E+0	1.582510E+0	1.650030E+0	1.848730E+0	1.843200E+0	1.763410E+0	1.565700E+0	1.633020E+0	1.521040E+0	1.425000E+0	1.723600E+0	1.784980E+0	1.599990E+0	1.501220E+0	1.493710E+0	1.670030E+0	1.580580E+0	1.460070E+0	1.819390E+0	2.003810E+0	1.878160E+0	1.554400E+0	1.681010E+0	1.625980E+0	1.688670E+0	1.497820E+0	1.698660E+0	1.756850E+0	1.751270E+0	1.691540E+0	1.613900E+0	1.674130E+0	1.723870E+0	1.509330E+0	1.936080E+0	1.805770E+0	1.932980E+0	1.495350E+0	1.631910E+0	1.740550E+0	1.804720E+0	1.407160E+0	1.732900E+0	1.770900E+0	1.926110E+0	1.754500E+0	1.506570E+0	1.515790E+0	1.755620E+0	1.480000E+0	1.863430E+0	1.824610E+0	1.929000E+0	1.647280E+0	1.661470E+0	1.487130E+0	1.688740E+0	1.434120E+0	1.694210E+0	1.527150E+0	1.749380E+0	1.606170E+0	1.535510E+0	1.568980E+0	1.629160E+0	1.367690E+0	1.855390E+0	1.894230E+0	1.870080E+0	1.573910E+0	1.599560E+0	1.859030E+0	1.710910E+0	1.390760E+0	1.736150E+0	1.784900E+0	1.752720E+0	1.781480E+0	1.535870E+0	1.592750E+0	1.597640E+0	1.513740E+0	1.807410E+0	1.831460E+0	1.574230E+0	1.695890E+0	1.504580E+0	1.550430E+0
2.180000E+3	1.556200E+0	1.695010E+0	1.641690E+0	1.505710E+0	1.728520E+0	1.784420E+0	1.690240E+0	1.728730E+0	1.572040E+0	1.642410E+0	1.771620E+0	1.574720E+0	1.795380E+0	1.848320E+0	1.701900E+0	2.005600E+0	1.535920E+0	1.661720E+0	1.734890E+0	1.547970E+0	1.623350E+0	1.964930E+0	1.831160E+0	1.770420E+0	1.569820E+0	1.768050E+0	1.661130E+0	1.589310E+0	1.814540E+0	1.737540E+0	1.659540E+0	1.938200E+0	1.726630E+0	1.673750E+0	1.670600E+0	1.520150E+0	1.831820E+0	1.868490E+0	1.956810E+0	1.801480E+0	1.608370E+0	1.588130E+0	1.611690E+0	1.425750E+0	1.602250E+0	1.624340E+0	1.678190E+0	1.833020E+0	1.545620E+0	1.561170E+0	1.691010E+0	1.587540E+0	1.707630E+0	1.830950E+0	1.769060E+0	1.762520E+0	1.526020E+0	1.594140E+0	1.641790E+0	1.373890E+0	1.647120E+0	1.621490E+0	1.741470E+0	1.616950E+0	1.694790E+0	1.628080E+0	1.571910E+0	1.368430E+0	1.861280E+0	1.858440E+0	1.910600E+0	1.634920E+0	1.565240E+0	1.597300E+0	1.669440E+0	1.481070E+0	1.495980E+0	1.735850E+0	1.805610E+0	1.733150E+0	1.473360E+0	1.620870E+0	1.633800E+0	1.580690E+0	1.648110E+0	1.846410E+0	1.840820E+0	1.761320E+0	1.563910E+0	1.631220E+0	1.519340E+0	1.423460E+0	1.721550E+0	1.782660E+0	1.598140E+0	1.499560E+0	1.492460E+0	1.667530E+0	1.579800E+0	1.459680E+0	1.817140E+0	2.001850E+0	1.874780E+0	1.553080E+0	1.678990E+0	1.623680E+0	1.686970E+0	1.496540E+0	1.696570E+0	1.754500E+0	1.748910E+0	1.689250E+0	1.611820E+0	1.671910E+0	1.721590E+0	1.507470E+0	1.933330E+0	1.803350E+0	1.930230E+0	1.493600E+0	1.630020E+0	1.738140E+0	1.802290E+0	1.405460E+0	1.730630E+0	1.768590E+0	1.923450E+0	1.752120E+0	1.504730E+0	1.513930E+0	1.753290E+0	1.478180E+0	1.860700E+0	1.822100E+0	1.926200E+0	1.645230E+0	1.659290E+0	1.485420E+0	1.686520E+0	1.432420E+0	1.692030E+0	1.524500E+0	1.747030E+0	1.604290E+0	1.533650E+0	1.567010E+0	1.640400E+0	1.366020E+0	1.852710E+0	1.891350E+0	1.894990E+0	1.570820E+0	1.597260E+0	1.856120E+0	1.724450E+0	1.388530E+0	1.733860E+0	1.782450E+0	1.756510E+0	1.778930E+0	1.533820E+0	1.590670E+0	1.709060E+0	1.507130E+0	1.804250E+0	1.828050E+0	1.830140E+0	1.682600E+0	1.501230E+0	1.546370E+0
2.205000E+3	1.554400E+0	1.693030E+0	1.639990E+0	1.503390E+0	1.726580E+0	1.782300E+0	1.688330E+0	1.726690E+0	1.570310E+0	1.640650E+0	1.769460E+0	1.572860E+0	1.793090E+0	1.845930E+0	1.699860E+0	2.002830E+0	1.534210E+0	1.659720E+0	1.732660E+0	1.546180E+0	1.621560E+0	1.962170E+0	1.828760E+0	1.768160E+0	1.567900E+0	1.765800E+0	1.658980E+0	1.587490E+0	1.812260E+0	1.735340E+0	1.657450E+0	1.935640E+0	1.724470E+0	1.671650E+0	1.668470E+0	1.518370E+0	1.829340E+0	1.865970E+0	1.954030E+0	1.799030E+0	1.606350E+0	1.586230E+0	1.609650E+0	1.424130E+0	1.600290E+0	1.622360E+0	1.676140E+0	1.830560E+0	1.543800E+0	1.559250E+0	1.688940E+0	1.585620E+0	1.705320E+0	1.828330E+0	1.766670E+0	1.760180E+0	1.524250E+0	1.592150E+0	1.639720E+0	1.372330E+0	1.645080E+0	1.619480E+0	1.739200E+0	1.614900E+0	1.692570E+0	1.626040E+0	1.569970E+0	1.366790E+0	1.858600E+0	1.855780E+0	1.907750E+0	1.632770E+0	1.563280E+0	1.595380E+0	1.667300E+0	1.479260E+0	1.494170E+0	1.733520E+0	1.803030E+0	1.730820E+0	1.471540E+0	1.618640E+0	1.631650E+0	1.578650E+0	1.645890E+0	1.843610E+0	1.838160E+0	1.758940E+0	1.561970E+0	1.629000E+0	1.517470E+0	1.421800E+0	1.719280E+0	1.780190E+0	1.595990E+0	1.497680E+0	1.490540E+0	1.665250E+0	1.576860E+0	1.456620E+0	1.814480E+0	1.998340E+0	1.872010E+0	1.550380E+0	1.676310E+0	1.621580E+0	1.684760E+0	1.493850E+0	1.694300E+0	1.752290E+0	1.746670E+0	1.687220E+0	1.609910E+0	1.669810E+0	1.719300E+0	1.505760E+0	1.930600E+0	1.800980E+0	1.927490E+0	1.491950E+0	1.628060E+0	1.735970E+0	1.799920E+0	1.404030E+0	1.728510E+0	1.766310E+0	1.920740E+0	1.749890E+0	1.502980E+0	1.512220E+0	1.750990E+0	1.476600E+0	1.858240E+0	1.819690E+0	1.923530E+0	1.643200E+0	1.657250E+0	1.483710E+0	1.684400E+0	1.430880E+0	1.690010E+0	1.523110E+0	1.744790E+0	1.602210E+0	1.531810E+0	1.565130E+0	1.638320E+0	1.441270E+0	1.846860E+0	1.888060E+0	1.891610E+0	1.587110E+0	1.594520E+0	1.853600E+0	1.722060E+0	1.387030E+0	1.731680E+0	1.780070E+0	1.754180E+0	1.776530E+0	1.532110E+0	1.588670E+0	1.723660E+0	1.504620E+0	1.801610E+0	1.825260E+0	1.866130E+0	1.678820E+0	1.499270E+0	1.544150E+0
2.230000E+3	1.552660E+0	1.690840E+0	1.637800E+0	1.501590E+0	1.724200E+0	1.779910E+0	1.686340E+0	1.723810E+0	1.568290E+0	1.638610E+0	1.767290E+0	1.568990E+0	1.790770E+0	1.843460E+0	1.697730E+0	1.998710E+0	1.532440E+0	1.657670E+0	1.730410E+0	1.543740E+0	1.619550E+0	1.959580E+0	1.826240E+0	1.765960E+0	1.566010E+0	1.763510E+0	1.656800E+0	1.585440E+0	1.809840E+0	1.732940E+0	1.655250E+0	1.932840E+0	1.722090E+0	1.669500E+0	1.666200E+0	1.516550E+0	1.826880E+0	1.863480E+0	1.951200E+0	1.796720E+0	1.604260E+0	1.584210E+0	1.607530E+0	1.422410E+0	1.598340E+0	1.620270E+0	1.673980E+0	1.827970E+0	1.541820E+0	1.557190E+0	1.686680E+0	1.583600E+0	1.703020E+0	1.825860E+0	1.764360E+0	1.757790E+0	1.522280E+0	1.590160E+0	1.637650E+0	1.370790E+0	1.642940E+0	1.617470E+0	1.736910E+0	1.612950E+0	1.690400E+0	1.623920E+0	1.568040E+0	1.365250E+0	1.856040E+0	1.853090E+0	1.904920E+0	1.630660E+0	1.561250E+0	1.593320E+0	1.665050E+0	1.477450E+0	1.492450E+0	1.731290E+0	1.800690E+0	1.728540E+0	1.469810E+0	1.616580E+0	1.629530E+0	1.576750E+0	1.643760E+0	1.841070E+0	1.835490E+0	1.756480E+0	1.560030E+0	1.626900E+0	1.515590E+0	1.420130E+0	1.717020E+0	1.777840E+0	1.593990E+0	1.495880E+0	1.489190E+0	1.663530E+0	1.575220E+0	1.455790E+0	1.811980E+0	1.995910E+0	1.870540E+0	1.548830E+0	1.674520E+0	1.619800E+0	1.682400E+0	1.492730E+0	1.692530E+0	1.749720E+0	1.744180E+0	1.684830E+0	1.607670E+0	1.667490E+0	1.716760E+0	1.503760E+0	1.927610E+0	1.798330E+0	1.924540E+0	1.489970E+0	1.626400E+0	1.733420E+0	1.797180E+0	1.402060E+0	1.726030E+0	1.763720E+0	1.917810E+0	1.747280E+0	1.501040E+0	1.510210E+0	1.748510E+0	1.474570E+0	1.855470E+0	1.816980E+0	1.920580E+0	1.640900E+0	1.654890E+0	1.481690E+0	1.682040E+0	1.428960E+0	1.687590E+0	1.520590E+0	1.742250E+0	1.599920E+0	1.529660E+0	1.562960E+0	1.635900E+0	1.509610E+0	1.841240E+0	1.884800E+0	1.888120E+0	1.601700E+0	1.591600E+0	1.850980E+0	1.719450E+0	1.385310E+0	1.729210E+0	1.777520E+0	1.751680E+0	1.773850E+0	1.530130E+0	1.586370E+0	1.721010E+0	1.502580E+0	1.798960E+0	1.822600E+0	1.863320E+0	1.676580E+0	1.497370E+0	1.542140E+0
2.280000E+3	1.550770E+0	1.688500E+0	1.635700E+0	1.499540E+0	1.721880E+0	1.777480E+0	1.684120E+0	1.721240E+0	1.566310E+0	1.636530E+0	1.765040E+0	1.566260E+0	1.788500E+0	1.841030E+0	1.695620E+0	1.995510E+0	1.530400E+0	1.655420E+0	1.728170E+0	1.541600E+0	1.617320E+0	1.956870E+0	1.823990E+0	1.762520E+0	1.564070E+0	1.761460E+0	1.654870E+0	1.581430E+0	1.807600E+0	1.730870E+0	1.653230E+0	1.929310E+0	1.720050E+0	1.667470E+0	1.664210E+0	1.514450E+0	1.824530E+0	1.861110E+0	1.948610E+0	1.794530E+0	1.602430E+0	1.582410E+0	1.605690E+0	1.420780E+0	1.596380E+0	1.618330E+0	1.671850E+0	1.825680E+0	1.540050E+0	1.555450E+0	1.684630E+0	1.581780E+0	1.701130E+0	1.823650E+0	1.762160E+0	1.755790E+0	1.520660E+0	1.588250E+0	1.635680E+0	1.369310E+0	1.641030E+0	1.615560E+0	1.734740E+0	1.611060E+0	1.688440E+0	1.622040E+0	1.566290E+0	1.363820E+0	1.853810E+0	1.850850E+0	1.902600E+0	1.628950E+0	1.559640E+0	1.591510E+0	1.663080E+0	1.475880E+0	1.490870E+0	1.729290E+0	1.798540E+0	1.726560E+0	1.468340E+0	1.614770E+0	1.627690E+0	1.574980E+0	1.642030E+0	1.838780E+0	1.833320E+0	1.754620E+0	1.558530E+0	1.625190E+0	1.514060E+0	1.418770E+0	1.715230E+0	1.775860E+0	1.592380E+0	1.494510E+0	1.489010E+0	1.661740E+0	1.574830E+0	1.455380E+0	1.809900E+0	1.993730E+0	1.867260E+0	1.549280E+0	1.674210E+0	1.618780E+0	1.680740E+0	1.491570E+0	1.690490E+0	1.746920E+0	1.742570E+0	1.682030E+0	1.605180E+0	1.664790E+0	1.713850E+0	1.501410E+0	1.924410E+0	1.795310E+0	1.921230E+0	1.487720E+0	1.624820E+0	1.730730E+0	1.794250E+0	1.400050E+0	1.723290E+0	1.760870E+0	1.914660E+0	1.744580E+0	1.498750E+0	1.507890E+0	1.745650E+0	1.472390E+0	1.852510E+0	1.814100E+0	1.917400E+0	1.638570E+0	1.652370E+0	1.479570E+0	1.679410E+0	1.427000E+0	1.685050E+0	1.518550E+0	1.739520E+0	1.597610E+0	1.527460E+0	1.560190E+0	1.633410E+0	1.507400E+0	1.838380E+0	1.881680E+0	1.885110E+0	1.599350E+0	1.589320E+0	1.848040E+0	1.716810E+0	1.383430E+0	1.726630E+0	1.774840E+0	1.749070E+0	1.771250E+0	1.527990E+0	1.584150E+0	1.718480E+0	1.500530E+0	1.796400E+0	1.819900E+0	1.860560E+0	1.674320E+0	1.495510E+0	1.540000E+0
2.380000E+3	1.549120E+0	1.686420E+0	1.633630E+0	1.497680E+0	1.719590E+0	1.775040E+0	1.681920E+0	1.718960E+0	1.564530E+0	1.634410E+0	1.762810E+0	1.564460E+0	1.786120E+0	1.838690E+0	1.693610E+0	1.992790E+0	1.528670E+0	1.653280E+0	1.725890E+0	1.539500E+0	1.615260E+0	1.954110E+0	1.821540E+0	1.759810E+0	1.562120E+0	1.759150E+0	1.652870E+0	1.578840E+0	1.805160E+0	1.728590E+0	1.651150E+0	1.926380E+0	1.717800E+0	1.665250E+0	1.662090E+0	1.512630E+0	1.821950E+0	1.858580E+0	1.945990E+0	1.791340E+0	1.600290E+0	1.580450E+0	1.603770E+0	1.417010E+0	1.594430E+0	1.616390E+0	1.669850E+0	1.821870E+0	1.538260E+0	1.553650E+0	1.682640E+0	1.579250E+0	1.699090E+0	1.821280E+0	1.759910E+0	1.753490E+0	1.518980E+0	1.586330E+0	1.633710E+0	1.367770E+0	1.638950E+0	1.613440E+0	1.732520E+0	1.609030E+0	1.686310E+0	1.620080E+0	1.564310E+0	1.362340E+0	1.851370E+0	1.848270E+0	1.899910E+0	1.626950E+0	1.557810E+0	1.589580E+0	1.661100E+0	1.474140E+0	1.489220E+0	1.726990E+0	1.796200E+0	1.724240E+0	1.466570E+0	1.612810E+0	1.625630E+0	1.573030E+0	1.639970E+0	1.836340E+0	1.830940E+0	1.752340E+0	1.556590E+0	1.623170E+0	1.512390E+0	1.417110E+0	1.713040E+0	1.773510E+0	1.590440E+0	1.492800E+0	1.487620E+0	1.659630E+0	1.573280E+0	1.454070E+0	1.807480E+0	1.991780E+0	1.865790E+0	1.549440E+0	1.672310E+0	1.616650E+0	1.678080E+0	1.488900E+0	1.688260E+0	1.745780E+0	1.741450E+0	1.679770E+0	1.603020E+0	1.662660E+0	1.711530E+0	1.499480E+0	1.921480E+0	1.792670E+0	1.918400E+0	1.485880E+0	1.621980E+0	1.728330E+0	1.791710E+0	1.398390E+0	1.721090E+0	1.758530E+0	1.911920E+0	1.742160E+0	1.496900E+0	1.506010E+0	1.743150E+0	1.470560E+0	1.849770E+0	1.811500E+0	1.914590E+0	1.636310E+0	1.650170E+0	1.477800E+0	1.677150E+0	1.425280E+0	1.682900E+0	1.516680E+0	1.737110E+0	1.595500E+0	1.525560E+0	1.557740E+0	1.631160E+0	1.505540E+0	1.835660E+0	1.878880E+0	1.882240E+0	1.597270E+0	1.587240E+0	1.845290E+0	1.714450E+0	1.381790E+0	1.724300E+0	1.772340E+0	1.746570E+0	1.768800E+0	1.526110E+0	1.582010E+0	1.716100E+0	1.498710E+0	1.793870E+0	1.817360E+0	1.857970E+0	1.672080E+0	1.493610E+0	1.538040E+0
2.480000E+3	1.547260E+0	1.684320E+0	1.631540E+0	1.495870E+0	1.717370E+0	1.772800E+0	1.679720E+0	1.716660E+0	1.562540E+0	1.632270E+0	1.760460E+0	1.562600E+0	1.783910E+0	1.836220E+0	1.691310E+0	1.989890E+0	1.526760E+0	1.650970E+0	1.723530E+0	1.537480E+0	1.613070E+0	1.951310E+0	1.819030E+0	1.757430E+0	1.560200E+0	1.756810E+0	1.650670E+0	1.576910E+0	1.802850E+0	1.726310E+0	1.649050E+0	1.923700E+0	1.715550E+0	1.662930E+0	1.659760E+0	1.510580E+0	1.819280E+0	1.855830E+0	1.943170E+0	1.788470E+0	1.598120E+0	1.578450E+0	1.601810E+0	1.414750E+0	1.592470E+0	1.614350E+0	1.667720E+0	1.819050E+0	1.536330E+0	1.551570E+0	1.680320E+0	1.576890E+0	1.696680E+0	1.818600E+0	1.757490E+0	1.750930E+0	1.517030E+0	1.584320E+0	1.631740E+0	1.365560E+0	1.636940E+0	1.611500E+0	1.730230E+0	1.606860E+0	1.684020E+0	1.617950E+0	1.562340E+0	1.360730E+0	1.848640E+0	1.845760E+0	1.897120E+0	1.624510E+0	1.555810E+0	1.587510E+0	1.658890E+0	1.471690E+0	1.487380E+0	1.724780E+0	1.793820E+0	1.721600E+0	1.464860E+0	1.610850E+0	1.623600E+0	1.571000E+0	1.637980E+0	1.833810E+0	1.828300E+0	1.750080E+0	1.554710E+0	1.621180E+0	1.510440E+0	1.415440E+0	1.710760E+0	1.771120E+0	1.588500E+0	1.491000E+0	1.485860E+0	1.657550E+0	1.571370E+0	1.452520E+0	1.805090E+0	1.988560E+0	1.863190E+0	1.547640E+0	1.671540E+0	1.614980E+0	1.676210E+0	1.487900E+0	1.685960E+0	1.744060E+0	1.739270E+0	1.677360E+0	1.600770E+0	1.660230E+0	1.709010E+0	1.497500E+0	1.918570E+0	1.789990E+0	1.915280E+0	1.483910E+0	1.620410E+0	1.725770E+0	1.789010E+0	1.396600E+0	1.718550E+0	1.755930E+0	1.908930E+0	1.739610E+0	1.494870E+0	1.503960E+0	1.740600E+0	1.468540E+0	1.846970E+0	1.808840E+0	1.911640E+0	1.634070E+0	1.647880E+0	1.475810E+0	1.674850E+0	1.423410E+0	1.680500E+0	1.514700E+0	1.734530E+0	1.593220E+0	1.523450E+0	1.555170E+0	1.628800E+0	1.503400E+0	1.833050E+0	1.876010E+0	1.879480E+0	1.595110E+0	1.585100E+0	1.842710E+0	1.712030E+0	1.380070E+0	1.721910E+0	1.769870E+0	1.744120E+0	1.766270E+0	1.524040E+0	1.579910E+0	1.713550E+0	1.496660E+0	1.791310E+0	1.814720E+0	1.855030E+0	1.669840E+0	1.491720E+0	1.536010E+0
2.530000E+3	1.545460E+0	1.682380E+0	1.629820E+0	1.494240E+0	1.715280E+0	1.770560E+0	1.677760E+0	1.714420E+0	1.560720E+0	1.630230E+0	1.758170E+0	1.560730E+0	1.781560E+0	1.833840E+0	1.689320E+0	1.987110E+0	1.525130E+0	1.649050E+0	1.721500E+0	1.535650E+0	1.611190E+0	1.948570E+0	1.816420E+0	1.754960E+0	1.558180E+0	1.754370E+0	1.648550E+0	1.574890E+0	1.800450E+0	1.724050E+0	1.646990E+0	1.920960E+0	1.713350E+0	1.660830E+0	1.657470E+0	1.508610E+0	1.816760E+0	1.853060E+0	1.940210E+0	1.785860E+0	1.596000E+0	1.576350E+0	1.599620E+0	1.413050E+0	1.590460E+0	1.612280E+0	1.665550E+0	1.816480E+0	1.534390E+0	1.549560E+0	1.678000E+0	1.574610E+0	1.694200E+0	1.815880E+0	1.755000E+0	1.748290E+0	1.515060E+0	1.582170E+0	1.629620E+0	1.363600E+0	1.634720E+0	1.609320E+0	1.727730E+0	1.604630E+0	1.681600E+0	1.615630E+0	1.560070E+0	1.358860E+0	1.845640E+0	1.842850E+0	1.894300E+0	1.621670E+0	1.553490E+0	1.585530E+0	1.656750E+0	1.468010E+0	1.485500E+0	1.722390E+0	1.791170E+0	1.717920E+0	1.462870E+0	1.608560E+0	1.621310E+0	1.568360E+0	1.635580E+0	1.831040E+0	1.825530E+0	1.747230E+0	1.552700E+0	1.618990E+0	1.508530E+0	1.413050E+0	1.708400E+0	1.768710E+0	1.586260E+0	1.488710E+0	1.483900E+0	1.655180E+0	1.569110E+0	1.450320E+0	1.802420E+0	1.986220E+0	1.860270E+0	1.545930E+0	1.669130E+0	1.611570E+0	1.673560E+0	1.485260E+0	1.683280E+0	1.739860E+0	1.735550E+0	1.675450E+0	1.599000E+0	1.658240E+0	1.706930E+0	1.495820E+0	1.915970E+0	1.787750E+0	1.912770E+0	1.482290E+0	1.618070E+0	1.723440E+0	1.786620E+0	1.394990E+0	1.716340E+0	1.753710E+0	1.906280E+0	1.737440E+0	1.493250E+0	1.502240E+0	1.738460E+0	1.466910E+0	1.844570E+0	1.806350E+0	1.908940E+0	1.632100E+0	1.645660E+0	1.474130E+0	1.672660E+0	1.421740E+0	1.678370E+0	1.512880E+0	1.732500E+0	1.591500E+0	1.521710E+0	1.554240E+0	1.626910E+0	1.501610E+0	1.830530E+0	1.873270E+0	1.876770E+0	1.593160E+0	1.583100E+0	1.840040E+0	1.709840E+0	1.378560E+0	1.719640E+0	1.767460E+0	1.741880E+0	1.763920E+0	1.522310E+0	1.578030E+0	1.711320E+0	1.494910E+0	1.788830E+0	1.812210E+0	1.852420E+0	1.667690E+0	1.489940E+0	1.534100E+0
2.830000E+3	1.543820E+0	1.680600E+0	1.628020E+0	1.516510E+0	1.712260E+0	1.768310E+0	1.675580E+0	1.803950E+0	1.555030E+0	1.627800E+0	1.755130E+0	1.629230E+0	1.776210E+0	1.831210E+0	1.686820E+0	2.015540E+0	1.522160E+0	1.646990E+0	1.719170E+0	1.534460E+0	1.609270E+0	1.946100E+0	1.813870E+0	1.752650E+0	1.556320E+0	1.752050E+0	1.646310E+0	1.572980E+0	1.798200E+0	1.721770E+0	1.645010E+0	1.918500E+0	1.711140E+0	1.658700E+0	1.655460E+0	1.506760E+0	1.814220E+0	1.850420E+0	1.937370E+0	1.783460E+0	1.593870E+0	1.574440E+0	1.597620E+0	1.411310E+0	1.588430E+0	1.610210E+0	1.663460E+0	1.813920E+0	1.532440E+0	1.547540E+0	1.675740E+0	1.572560E+0	1.691810E+0	1.813140E+0	1.752490E+0	1.745760E+0	1.513120E+0	1.580070E+0	1.627580E+0	1.362020E+0	1.632690E+0	1.607220E+0	1.725500E+0	1.602490E+0	1.679260E+0	1.613360E+0	1.558020E+0	1.559890E+0	1.833970E+0	1.838590E+0	1.889620E+0	1.662760E+0	1.549350E+0	1.583500E+0	1.654150E+0	1.466220E+0	1.483680E+0	1.719980E+0	1.788660E+0	1.715460E+0	1.460730E+0	1.605980E+0	1.618480E+0	1.566090E+0	1.632910E+0	1.828080E+0	1.822660E+0	1.744150E+0	1.550450E+0	1.616830E+0	1.506650E+0	1.410290E+0	1.705840E+0	1.766150E+0	1.583810E+0	1.486030E+0	1.480360E+0	1.652080E+0	1.565630E+0	1.445880E+0	1.799610E+0	1.981450E+0	1.857290E+0	1.539610E+0	1.663570E+0	1.609680E+0	1.671400E+0	1.483810E+0	1.681480E+0	1.737710E+0	1.732360E+0	1.673410E+0	1.597100E+0	1.656440E+0	1.704970E+0	1.494500E+0	1.913800E+0	1.785700E+0	1.910480E+0	1.480680E+0	1.616520E+0	1.721350E+0	1.784460E+0	1.393550E+0	1.714230E+0	1.751700E+0	1.903950E+0	1.735380E+0	1.491610E+0	1.500730E+0	1.736490E+0	1.465430E+0	1.842210E+0	1.804340E+0	1.906390E+0	1.630220E+0	1.643670E+0	1.472390E+0	1.670520E+0	1.420100E+0	1.676380E+0	1.511010E+0	1.730380E+0	1.589640E+0	1.519700E+0	1.553030E+0	1.625020E+0	1.500050E+0	1.826680E+0	1.870910E+0	1.874260E+0	1.591210E+0	1.580090E+0	1.837710E+0	1.707590E+0	1.377120E+0	1.717000E+0	1.765410E+0	1.739810E+0	1.761770E+0	1.520670E+0	1.576220E+0	1.709400E+0	1.493280E+0	1.786520E+0	1.809740E+0	1.849720E+0	1.665430E+0	1.488130E+0	1.532180E+0
3.130000E+3	1.542250E+0	1.678540E+0	1.626140E+0	1.559250E+0	1.708200E+0	1.765910E+0	1.673110E+0	1.973180E+0	1.545640E+0	1.624880E+0	1.751670E+0	1.759240E+0	1.768490E+0	1.828580E+0	1.683860E+0	2.070950E+0	1.518080E+0	1.644820E+0	1.716470E+0	1.553780E+0	1.606390E+0	1.943300E+0	1.811260E+0	1.817690E+0	1.551640E+0	1.749450E+0	1.643730E+0	1.601790E+0	1.794740E+0	1.719790E+0	1.642860E+0	1.924400E+0	1.708800E+0	1.656670E+0	1.653440E+0	1.505320E+0	1.811680E+0	1.848000E+0	1.934630E+0	1.781170E+0	1.591880E+0	1.572520E+0	1.595860E+0	1.409910E+0	1.586530E+0	1.608360E+0	1.661680E+0	1.811890E+0	1.530640E+0	1.545730E+0	1.673720E+0	1.570650E+0	1.689560E+0	1.810860E+0	1.750410E+0	1.743670E+0	1.511350E+0	1.578290E+0	1.625730E+0	1.360570E+0	1.630820E+0	1.605450E+0	1.723500E+0	1.600720E+0	1.677340E+0	1.611520E+0	1.556270E+0	1.558180E+0	1.831700E+0	1.836420E+0	1.887290E+0	1.661050E+0	1.547570E+0	1.581630E+0	1.652130E+0	1.464600E+0	1.482010E+0	1.717980E+0	1.786600E+0	1.713350E+0	1.459210E+0	1.604310E+0	1.616750E+0	1.564430E+0	1.631210E+0	1.826060E+0	1.820620E+0	1.742430E+0	1.548920E+0	1.615050E+0	1.504940E+0	1.408760E+0	1.703870E+0	1.764080E+0	1.582060E+0	1.484490E+0	1.480000E+0	1.650800E+0	1.565360E+0	1.446560E+0	1.797650E+0	1.980010E+0	1.854570E+0	1.540430E+0	1.664130E+0	1.608960E+0	1.669640E+0	1.482380E+0	1.679650E+0	1.736310E+0	1.730790E+0	1.670980E+0	1.594800E+0	1.654150E+0	1.702370E+0	1.492480E+0	1.910740E+0	1.783090E+0	1.907520E+0	1.478770E+0	1.614750E+0	1.719010E+0	1.781750E+0	1.391620E+0	1.711680E+0	1.749060E+0	1.901020E+0	1.732840E+0	1.489390E+0	1.498590E+0	1.733920E+0	1.463400E+0	1.839420E+0	1.801550E+0	1.903430E+0	1.627910E+0	1.641210E+0	1.470460E+0	1.668240E+0	1.418240E+0	1.674030E+0	1.509070E+0	1.727930E+0	1.587450E+0	1.516830E+0	1.549980E+0	1.622660E+0	1.498050E+0	1.820900E+0	1.868360E+0	1.871460E+0	1.589120E+0	1.575670E+0	1.835430E+0	1.705300E+0	1.375510E+0	1.713760E+0	1.763180E+0	1.737450E+0	1.759440E+0	1.518430E+0	1.574050E+0	1.706950E+0	1.491340E+0	1.782840E+0	1.807340E+0	1.847020E+0	1.663290E+0	1.485710E+0	1.530290E+0
