Photon Energy (eV)	#1	#2	#3	#4	#5	#6	#7	#8	#9	#10	#11	#12	#13	#14	#15	#16	#17	#18	#19	#20	#21	#22	#23	#24	#25	#26	#27	#28	#29	#30	#31	#32	#33	#34	#35	#36	#37	#38	#39	#40	#41	#42	#43	#44	#45	#46	#47	#48	#49	#50	#51	#52	#53	#54	#55	#56	#57	#58	#59	#60	#61	#62	#63	#64	#65	#66	#67	#68	#69	#70	#71	#72	#73	#74	#75	#76	#77	#78	#79	#80	#81	#82	#83	#84	#85	#86	#87	#88	#89	#90	#91	#92	#93	#94	#95	#96	#97	#98	#99	#100	#101	#102	#103	#104	#105	#106	#107	#108	#109	#110	#111	#112	#113	#114	#115	#116	#117	#118	#119	#120	#121	#122	#123	#124	#125	#126	#127	#128	#129	#130	#131	#132	#133	#134	#135	#136	#137	#138	#139	#140	#141	#142	#143	#144	#145	#146	#147	#148	#149	#150	#151	#152	#153	#154	#155	#156	#157	#158	#159	#160	#161	#162	#163	#164	#165	#166	#167	#168	#169	#170	#171	#172	
5.300220E+2	-4.194184E-3	-6.585848E-3	-1.786316E-3	-5.381187E-3	-2.047878E-3	-1.015050E-2	-3.663613E-3	-2.946091E-3	-1.307986E-2	-5.400407E-3	-7.820048E-3	-4.090041E-3	-1.066897E-2	-6.321927E-3	-9.736943E-3	-1.213477E-2	-6.676293E-3	-1.359638E-2	-3.406111E-3	-1.129228E-2	-6.072380E-3	-1.435825E-2	-6.894673E-3	-8.415211E-3	-6.288869E-3	-5.253965E-3	-1.735192E-2	-1.547592E-2	-5.445311E-3	-9.574980E-3	-1.351816E-2	-6.988883E-3	-3.213545E-3	-4.384661E-3	-1.755810E-2	-1.336761E-2	-6.267683E-3	-1.076014E-2	-1.448788E-2	-1.037004E-3	-6.847744E-3	-5.432771E-3	-1.261005E-2	-6.241642E-3	-7.630075E-3	-6.941361E-3	-1.069829E-2	-6.702186E-3	-9.373180E-3	-7.538085E-3	-7.237629E-3	-9.346270E-3	-7.002032E-3	-3.270707E-3	-8.961897E-3	-4.112118E-3	-1.453036E-2	-1.034105E-2	-9.955824E-3	-6.303370E-3	-5.249377E-3	-9.071813E-3	-7.366813E-3	-1.534357E-2	-6.018462E-3	-2.197487E-3	-7.595517E-3	-4.534616E-3	-2.963360E-3	-5.434674E-3	-6.427260E-3	-5.178732E-3	-8.724417E-3	-6.405810E-3	-9.261122E-3	-7.165230E-3	-5.118813E-3	-3.380392E-3	1.029012E-3	-8.830795E-3	-5.597137E-3	-1.142214E-2	-3.643215E-5	5.495811E-4	-5.795953E-3	-2.606423E-3	-7.468102E-3	-5.931558E-3	-4.311016E-3	-5.552260E-3	-1.054655E-2	-6.095178E-3	-1.046568E-2	-6.299961E-3	-6.225194E-3	-6.244673E-3	-6.403876E-3	-6.726343E-3	-1.127184E-2	-2.539751E-3	-2.566963E-3	-8.348055E-3	-3.633713E-4	-2.335371E-3	-5.911926E-3	-1.007491E-2	2.994967E-3	-4.970035E-3	3.224684E-3	-9.722106E-3	-2.650046E-3	-9.050084E-3	1.109308E-3	-1.091899E-2	-8.359914E-3	-1.637600E-3	-1.816808E-3	-1.263029E-2	-3.279028E-3	-2.019384E-3	-7.251599E-3	-1.350896E-3	-6.434192E-3	-1.163374E-2	-9.290026E-4	-1.341500E-2	-3.989692E-5	-8.458292E-3	-1.846109E-3	-2.361646E-4	-5.929047E-3	2.038573E-3	-7.914314E-3	-1.129803E-2	-1.253338E-2	-2.554854E-3	-7.761979E-3	-7.381531E-3	-6.753769E-3	-7.230258E-3	-1.088423E-2	-7.904061E-3	-7.686347E-3	-8.651611E-3	-9.555270E-3	-8.478768E-3	-6.087373E-3	-5.641167E-3	-1.388609E-2	-6.732631E-4	-1.099346E-2	-7.049126E-3	-3.268892E-3	4.076573E-3	-1.761931E-2	-1.278328E-2	-1.297333E-2	-7.513119E-3	-1.200197E-2	-1.171991E-4	-3.016180E-3	-3.608596E-3	-1.199350E-2	-6.175596E-3	-9.415902E-3	-5.066128E-3	-6.934867E-3	-1.079355E-2	-5.542840E-3	-1.073103E-2	-9.465498E-3	-1.468239E-2
5.305130E+2	-7.197562E-3	-4.099325E-3	5.616173E-3	-7.728692E-3	1.508722E-3	-3.834356E-3	-5.666546E-3	2.423091E-3	-1.321650E-2	-5.876157E-3	-6.634049E-3	-5.211755E-3	-3.770756E-3	-1.683924E-3	-4.735293E-3	-1.039488E-3	-6.083268E-3	4.445766E-3	-3.301330E-3	-5.221994E-3	-3.909899E-3	5.040342E-4	-4.096067E-3	2.048606E-3	-3.025648E-3	9.027106E-4	1.014160E-3	6.384873E-3	-6.926115E-3	-5.091079E-3	-2.913876E-3	-3.572289E-3	-1.041264E-2	-1.837429E-3	-8.340864E-4	-4.836510E-3	-9.985529E-4	-4.708216E-3	-1.274901E-3	-8.368245E-3	-7.304898E-3	-4.784273E-3	-1.022733E-2	-7.366798E-3	-3.796986E-3	6.847829E-3	-6.359958E-3	-8.808923E-3	-8.289692E-3	-5.282477E-3	-5.490608E-3	-2.255126E-3	-6.877061E-3	1.577104E-3	-5.240942E-3	-8.112012E-3	-2.324547E-3	-7.149725E-3	2.999768E-3	-3.786479E-3	-5.095967E-3	-1.387204E-3	-4.429671E-3	-7.497873E-3	-7.113506E-3	-5.160253E-3	-1.140081E-2	-1.130143E-2	-3.221079E-3	-6.592399E-3	-7.549892E-3	-5.055644E-3	-1.670321E-2	-1.745200E-3	-8.142935E-3	-8.967867E-3	-7.893701E-3	-5.241919E-3	-7.613091E-3	-7.259756E-3	-5.431850E-3	-4.708605E-3	-5.077996E-3	-1.077424E-2	-2.240594E-3	-2.332306E-3	-4.023474E-3	-5.896308E-3	-9.709435E-3	-5.488263E-3	5.541932E-4	-8.290106E-3	-5.817290E-3	-3.315940E-3	-4.721214E-3	-1.127076E-2	-5.227848E-3	-2.816701E-4	-3.951294E-3	-9.131470E-3	-1.238024E-2	-6.197611E-3	-5.881650E-3	-1.611584E-3	1.406243E-3	-4.159247E-3	-6.271860E-3	-1.909486E-3	-5.723416E-3	-5.531562E-3	1.921736E-3	-1.584603E-2	-5.144294E-3	-5.648198E-3	-1.663637E-3	-1.226088E-2	-1.082630E-2	-6.189515E-3	-9.053622E-3	-8.668710E-3	5.314380E-3	-8.827344E-3	-1.022466E-2	-2.749424E-3	-5.786534E-3	-3.772390E-3	-8.911443E-3	-6.910194E-3	-7.253042E-3	-6.240298E-3	-3.012538E-3	-6.410444E-3	2.384402E-3	-2.431349E-3	-5.927220E-3	-1.212075E-2	-5.062996E-3	-6.302043E-3	-1.585828E-3	-2.156806E-3	-4.296543E-3	-4.474835E-3	-3.270721E-3	-5.429158E-3	-1.019261E-2	-3.388201E-3	-7.693333E-3	-5.594710E-3	-2.071519E-3	-9.890685E-3	-4.204472E-3	4.096030E-3	-1.096318E-2	-1.409757E-2	-1.206579E-3	-5.520613E-3	-8.130533E-3	-3.639748E-3	-1.042934E-2	-1.043228E-2	5.130031E-3	-1.218514E-2	-3.812491E-3	-1.020428E-2	-7.826167E-3	-3.400647E-3	-4.750954E-3	-5.691242E-3	3.640261E-3	-1.700790E-3	-1.246544E-3	-1.411076E-2
5.310050E+2	-3.845418E-3	-1.392777E-2	-7.113729E-3	-2.770747E-3	-7.477410E-3	-9.491543E-3	2.388082E-3	-4.057712E-3	2.325387E-3	-6.646588E-4	-3.552878E-3	2.076087E-3	-5.091898E-3	1.011432E-3	-4.089123E-3	4.798468E-4	-8.233453E-3	-3.042464E-3	-1.225930E-2	-5.621474E-3	-1.500814E-2	-2.464937E-3	-2.626071E-3	-5.766124E-3	-2.866834E-3	-6.487620E-3	2.245468E-3	-5.049719E-3	-2.151891E-3	-4.442483E-3	-3.661030E-3	-5.764437E-3	-3.547196E-3	-4.501916E-3	3.150490E-3	-8.691958E-3	-1.264938E-3	-5.429070E-3	-2.971854E-3	-7.713266E-3	-8.906776E-5	-9.397440E-3	-5.903524E-3	-1.955518E-3	-9.565671E-3	-6.209632E-3	-2.892227E-3	-2.207829E-3	-3.344742E-3	5.655528E-4	6.543400E-3	-3.868068E-3	-9.622340E-3	-5.462663E-4	-3.247190E-3	-4.314469E-3	1.948794E-3	-4.333654E-3	-1.486010E-3	-3.623120E-3	1.438805E-3	1.163501E-3	-4.250764E-3	-1.457819E-3	-4.945873E-4	-6.629162E-3	6.292109E-4	3.703431E-3	-1.144149E-3	-2.720033E-3	-1.053419E-2	-4.847966E-3	2.371824E-3	3.583867E-3	-5.315682E-4	1.347398E-3	-5.695428E-3	-2.539653E-3	-7.475314E-3	-3.754736E-3	-1.739329E-3	-9.025013E-3	-6.502468E-3	-4.299195E-3	4.584487E-3	-8.323243E-3	7.951829E-3	-1.519751E-3	-4.154798E-4	-4.217462E-3	-8.195302E-3	2.036105E-3	4.860206E-4	-1.232283E-3	-5.992733E-3	1.756790E-3	-7.379180E-3	-1.559010E-3	8.272970E-3	7.032476E-4	-8.389414E-3	-1.218555E-3	-2.390742E-3	-1.208316E-2	-1.193938E-2	-1.623066E-3	-2.267881E-3	2.517801E-3	-4.488395E-3	-8.441259E-3	1.735433E-4	5.184045E-4	-1.776505E-3	-7.296765E-3	-3.768482E-4	-1.088755E-2	-5.749136E-3	-1.452026E-3	-7.513885E-3	-6.941337E-3	-8.184284E-3	-4.552135E-3	5.596579E-3	-5.796263E-3	-5.514132E-4	1.705945E-3	-3.933370E-3	-5.779554E-3	3.293138E-3	-2.710783E-3	-4.543374E-3	-9.962469E-3	-1.331503E-2	1.669631E-3	-6.231281E-3	-3.821641E-3	-5.942293E-3	-5.658247E-3	-2.765493E-4	-7.022498E-3	3.391120E-3	5.523770E-3	-3.107697E-3	-2.170636E-3	-7.460567E-3	-9.988588E-3	1.398393E-3	-4.821737E-3	1.197246E-3	-1.022254E-2	-7.647194E-3	-7.294460E-3	-1.792124E-3	-4.189687E-3	4.313724E-3	3.260291E-3	-4.169969E-4	7.036516E-4	4.337334E-4	-4.679431E-3	-5.247442E-3	-8.442561E-3	-1.390404E-3	-1.861983E-3	-4.165206E-3	-7.510982E-3	-1.010369E-2	-3.648792E-3	1.223239E-3	-5.150386E-3	4.709502E-3	-1.399473E-2
5.315130E+2	1.712611E-3	5.727825E-3	9.369791E-4	-3.720543E-3	-4.404667E-4	9.258976E-3	-2.108055E-3	-6.893835E-3	-3.904545E-4	3.014051E-3	5.577143E-3	5.714377E-4	1.084356E-3	-1.773728E-3	2.150719E-3	-8.553990E-3	6.247972E-4	-4.973263E-3	-3.449435E-3	3.023031E-3	-4.714329E-4	-4.907837E-3	1.134315E-3	-2.659037E-3	1.688555E-3	-9.803308E-3	4.144387E-4	2.609821E-3	6.828198E-4	1.244948E-3	1.239036E-3	-1.238546E-3	4.037761E-3	3.385210E-3	-2.052661E-3	1.117238E-2	-3.278833E-3	3.994738E-3	6.380845E-4	-3.113831E-3	7.407118E-4	-3.836724E-3	-3.313501E-3	1.245343E-3	9.089721E-3	1.924961E-3	-1.666678E-3	-9.932635E-4	-4.057190E-4	-9.516304E-3	-8.843567E-3	-4.197250E-3	3.225082E-3	-1.098686E-2	-4.359446E-3	1.216038E-2	-1.306219E-3	3.996090E-3	-3.314527E-3	-1.423372E-3	-4.684155E-3	1.470381E-3	-5.824880E-3	1.325454E-3	-5.558480E-3	-9.694122E-4	-6.100666E-3	1.132238E-3	-7.668602E-3	2.668181E-3	5.206220E-4	2.865909E-5	6.117695E-3	-4.794047E-3	5.078983E-3	-7.196184E-4	6.065100E-4	1.313151E-3	-1.796696E-3	8.277048E-7	2.820458E-4	3.631769E-3	-6.814322E-3	2.323422E-3	-7.535117E-3	-8.573542E-3	1.894051E-4	-4.885344E-3	-1.116903E-2	3.943959E-3	1.623569E-5	8.826023E-5	1.826969E-3	-5.309082E-3	1.572516E-3	1.634131E-3	-8.465723E-5	4.125309E-3	-3.172573E-4	-2.022892E-3	-3.758524E-3	1.510632E-3	-6.933105E-3	-3.812117E-3	1.306983E-3	1.075381E-3	-4.818633E-3	-1.371251E-3	-2.587664E-3	-1.984169E-3	-3.916219E-3	2.793765E-3	-1.481705E-3	-2.262652E-3	-2.326658E-3	6.410573E-3	5.420565E-3	-5.307942E-3	1.855132E-4	1.258252E-3	-3.927762E-3	2.465583E-3	1.433087E-3	9.321019E-3	-3.644920E-3	-2.360925E-3	-3.115419E-3	3.372441E-3	-6.254446E-3	-1.093217E-2	-2.559163E-3	-2.256259E-3	-5.783896E-3	-5.375571E-3	-1.411602E-3	-1.352432E-3	1.673824E-3	5.000762E-4	2.884067E-3	7.196549E-3	-1.819836E-3	1.633110E-3	-2.288159E-3	7.210644E-4	1.034696E-2	-1.252071E-3	1.129261E-3	4.749232E-3	-9.863558E-3	3.195296E-5	9.547414E-4	-1.736813E-3	9.731199E-4	5.396922E-3	1.376817E-3	5.417736E-3	8.459720E-3	-1.293542E-2	2.711862E-3	4.050834E-3	-6.240360E-3	3.210919E-3	-1.192012E-2	-6.331947E-3	-5.918209E-3	-5.131050E-4	4.547554E-3	-2.738620E-3	-8.924875E-3	-3.677258E-3	-8.565880E-3	-2.661380E-2
5.320070E+2	-3.018027E-3	9.588143E-3	2.592889E-3	1.217454E-2	5.524178E-3	5.701310E-4	6.356031E-4	7.021747E-4	4.066672E-3	-1.968731E-3	-1.402461E-3	2.466944E-3	3.765353E-3	-1.676812E-3	4.262977E-3	1.018600E-2	8.833856E-3	4.516436E-3	2.955791E-3	8.650405E-3	4.085061E-3	7.917502E-3	-3.522894E-3	5.004281E-4	1.257594E-3	4.010870E-3	2.647989E-3	-2.963038E-3	6.490976E-3	1.123646E-2	5.518025E-3	-2.587352E-3	1.633142E-4	-8.047552E-4	1.179496E-2	6.079012E-3	6.136117E-3	7.784376E-3	5.504845E-3	7.119499E-3	-1.899389E-3	5.335558E-3	1.177895E-2	3.082439E-3	5.937759E-3	-1.941692E-3	7.009959E-3	8.830400E-3	2.916393E-3	8.976788E-3	-2.776853E-3	6.674657E-3	1.112249E-2	5.951440E-3	2.624463E-3	-2.349353E-3	-1.812797E-3	1.931656E-3	2.526474E-3	-7.061876E-4	4.299545E-3	2.054973E-3	5.377862E-3	1.279160E-2	1.599255E-3	2.387452E-3	7.987986E-3	6.411121E-4	-1.253704E-3	1.847498E-3	2.440171E-3	-8.906269E-4	1.580808E-3	7.941978E-3	4.633163E-3	4.801450E-3	1.909842E-4	1.408949E-3	4.256798E-3	5.961470E-3	-2.148750E-4	-2.500776E-3	2.331080E-3	-1.664047E-3	1.660410E-3	1.070173E-3	-1.874257E-4	7.352408E-3	7.979336E-3	-6.706333E-3	1.167791E-3	4.817584E-3	8.128258E-3	-3.658397E-4	-1.724183E-3	1.316956E-3	-6.223544E-4	-4.593958E-3	1.899506E-3	2.348554E-3	2.645395E-3	6.452337E-3	4.233955E-3	3.807235E-3	8.702039E-4	6.038124E-3	4.755256E-3	-1.882973E-3	2.427204E-3	4.330421E-3	-8.769675E-4	8.864677E-3	-2.038486E-3	6.847660E-3	5.068553E-3	1.474963E-2	5.549669E-3	7.889987E-4	5.430472E-3	4.547032E-3	-5.564195E-3	4.655815E-3	7.188004E-3	-5.455142E-3	1.569393E-3	-3.234985E-3	2.932687E-3	1.496995E-3	4.314305E-3	-6.481480E-4	6.122502E-3	9.680197E-3	8.439394E-3	8.033442E-3	7.207218E-4	4.232884E-3	7.572470E-3	9.487931E-3	-2.806749E-3	9.848792E-3	6.870741E-3	8.358063E-3	4.959046E-3	4.974741E-3	-2.543293E-3	5.094334E-3	2.916963E-3	-7.487332E-4	1.207446E-2	6.832243E-3	5.243700E-3	1.549613E-3	-2.493831E-3	4.800742E-3	4.772943E-3	7.465379E-3	-1.359824E-3	2.588808E-3	9.196495E-3	-5.677305E-3	-3.032835E-3	1.006612E-2	1.493424E-2	2.017411E-3	3.286603E-3	2.492065E-3	4.683502E-3	1.249810E-2	-4.512759E-3	4.942238E-3	-4.598943E-3	1.191701E-2
5.325170E+2	1.654258E-2	9.296972E-3	-2.459966E-4	7.426632E-3	2.932856E-3	1.364729E-2	8.414529E-3	1.077237E-2	2.029476E-2	1.089590E-2	1.383229E-2	4.187329E-3	1.468191E-2	1.044496E-2	1.214766E-2	1.106241E-2	1.153436E-2	1.264991E-2	1.946038E-2	1.046231E-2	2.137680E-2	1.330949E-2	1.600539E-2	1.429134E-2	9.235202E-3	1.663131E-2	1.102987E-2	1.449399E-2	7.349521E-3	6.627134E-3	1.333600E-2	2.015151E-2	1.297230E-2	8.143551E-3	5.499397E-3	9.644678E-3	5.673891E-3	9.118310E-3	1.259170E-2	1.311285E-2	1.540039E-2	1.811565E-2	2.027546E-2	1.123618E-2	5.965251E-3	6.319895E-3	1.460719E-2	9.881802E-3	1.849694E-2	1.279452E-2	1.780526E-2	1.299206E-2	9.153856E-3	7.275291E-3	1.918501E-2	6.727569E-3	1.802513E-2	1.589668E-2	9.230118E-3	1.584253E-2	9.291150E-3	5.770163E-3	1.649427E-2	1.018220E-2	1.758578E-2	1.256886E-2	1.647980E-2	1.035927E-2	1.625089E-2	1.023143E-2	2.155055E-2	1.594431E-2	1.535730E-2	1.419212E-3	8.223479E-3	1.070387E-2	1.791045E-2	8.439863E-3	1.159929E-2	1.388299E-2	1.270115E-2	2.402477E-2	1.610014E-2	1.386448E-2	9.326768E-3	2.076534E-2	3.537768E-3	1.088055E-2	1.762562E-2	1.802036E-2	1.700363E-2	7.443335E-3	5.841718E-3	1.652311E-2	1.709081E-2	1.280756E-2	1.971792E-2	9.035673E-3	5.367913E-3	1.064231E-2	2.444974E-2	7.801254E-3	1.133491E-2	1.603500E-2	1.426787E-2	8.743723E-3	5.608151E-3	7.615943E-3	7.147588E-3	2.134868E-2	5.347954E-3	1.271927E-2	9.331683E-3	1.927894E-2	7.658504E-3	3.625827E-3	7.422008E-3	2.479077E-2	1.423055E-2	1.182415E-2	1.961346E-2	7.608978E-3	2.441186E-3	1.631355E-2	9.342477E-3	2.107735E-2	1.306744E-2	1.627860E-2	7.746155E-3	2.076756E-2	9.921620E-3	6.910401E-3	1.618944E-2	9.401875E-3	2.538276E-2	1.561679E-2	9.520974E-3	9.353814E-3	8.538827E-3	-6.357795E-4	6.738750E-3	-3.136047E-3	1.139388E-2	1.055560E-2	1.940478E-2	1.801329E-2	8.336089E-3	1.205712E-2	1.254946E-2	1.392229E-2	1.664668E-2	1.043476E-2	1.754490E-2	4.013022E-3	8.362409E-3	2.160489E-3	1.442096E-2	2.079583E-2	1.008923E-2	1.685539E-2	1.240679E-2	1.095926E-2	1.418227E-2	2.255640E-2	2.403888E-2	1.399880E-2	1.255846E-2	1.037410E-2	1.411697E-2	1.631723E-2	1.916736E-2	5.748466E-2
5.329970E+2	2.497828E-2	2.240749E-2	2.007092E-2	1.904127E-2	2.436590E-2	2.335155E-2	1.791388E-2	2.067263E-2	1.651111E-2	2.101210E-2	1.785081E-2	2.016420E-2	2.754297E-2	1.957302E-2	1.855548E-2	2.744057E-2	3.519288E-2	1.306702E-2	3.142607E-2	2.601459E-2	1.526182E-2	2.370170E-2	1.762946E-2	1.737523E-2	1.994693E-2	1.956121E-2	1.893785E-2	2.474091E-2	2.082735E-2	1.496408E-2	2.674143E-2	2.002356E-2	2.989267E-2	2.530485E-2	1.921509E-2	1.541102E-2	8.385905E-3	1.360925E-2	1.151753E-2	2.146714E-2	1.305752E-2	2.281166E-2	1.827070E-2	2.031288E-2	3.217476E-2	2.213803E-2	1.784994E-2	2.595380E-2	1.999633E-2	3.406974E-2	6.732627E-3	1.141509E-2	1.252926E-2	1.234209E-2	2.091596E-2	1.553083E-2	3.675688E-2	1.743229E-2	2.337168E-2	1.824798E-2	2.075404E-2	2.101499E-2	2.384490E-2	2.363225E-2	1.868756E-2	8.654653E-3	1.285122E-2	1.217611E-2	2.119860E-2	1.529535E-2	1.737896E-2	2.624083E-2	1.216399E-2	1.942084E-2	2.760951E-2	1.766306E-2	2.075737E-2	2.176991E-2	2.306434E-2	3.342570E-2	1.792386E-2	2.274138E-2	2.073329E-3	2.560828E-2	2.086739E-2	2.161875E-2	2.264608E-2	2.136518E-2	1.215895E-2	2.419745E-2	1.641152E-2	1.918059E-2	3.376677E-2	1.832881E-2	2.524201E-2	1.783553E-2	3.196349E-2	1.877621E-2	2.011791E-2	2.394096E-2	1.458322E-2	1.012044E-2	2.335120E-2	6.731967E-3	2.268059E-2	8.006082E-3	1.673360E-2	2.838695E-2	1.141750E-2	1.912225E-2	2.148045E-2	2.308121E-2	7.904812E-3	2.760456E-2	1.601257E-2	2.962529E-2	1.629515E-2	2.328448E-2	2.351011E-2	2.824529E-2	1.544344E-2	2.941526E-2	2.386822E-2	2.460242E-2	3.319087E-2	2.535881E-2	1.402673E-2	2.513043E-2	2.932594E-2	2.062718E-2	3.624696E-2	2.369097E-2	1.754227E-2	1.127336E-2	1.209704E-2	1.878442E-2	2.528394E-2	2.660642E-2	2.121299E-2	2.095076E-2	1.729636E-2	2.240689E-2	2.843055E-2	1.616975E-2	9.588510E-3	1.862966E-2	2.580961E-2	2.507416E-2	1.934440E-2	3.355369E-2	2.596465E-2	1.725573E-2	2.327099E-2	3.334113E-2	1.316200E-2	2.708855E-2	2.123620E-2	1.458577E-2	2.035056E-2	1.675034E-2	1.983894E-2	2.129552E-2	2.607847E-2	2.775714E-2	1.576538E-2	2.259543E-2	3.071852E-2	2.545304E-2	2.011368E-2	2.965155E-2	1.319247E-2	-7.157632E-3
5.331630E+2	1.731331E-2	3.601816E-2	2.984794E-2	2.110307E-2	2.420023E-2	3.304088E-2	3.160747E-2	2.284360E-2	2.953072E-2	3.161368E-2	1.932612E-2	1.453158E-2	3.288980E-2	1.573588E-2	2.490375E-2	2.997828E-2	2.972085E-2	2.004728E-2	1.671668E-2	2.577417E-2	1.706783E-2	3.505736E-2	2.496472E-2	3.839372E-2	2.676204E-2	3.012326E-2	2.568695E-2	3.240982E-2	3.476151E-2	2.822427E-2	2.755957E-2	1.792935E-2	2.222696E-2	2.708809E-2	3.227763E-2	3.277799E-2	2.089864E-2	3.286615E-2	2.188239E-2	2.730930E-2	3.393672E-2	3.931513E-2	3.042256E-2	2.166383E-2	3.142619E-2	2.894396E-2	3.068126E-2	2.131264E-2	3.716717E-2	3.324528E-2	2.180741E-2	2.849323E-2	3.988967E-2	2.682795E-2	2.776976E-2	3.372554E-2	3.348882E-2	1.661150E-2	1.521805E-2	3.213086E-2	3.108908E-2	1.266881E-2	1.482934E-2	2.445313E-2	2.721857E-2	3.021851E-2	2.970200E-2	4.460862E-2	2.787955E-2	1.977213E-2	2.958154E-2	2.568994E-2	3.726310E-2	2.658535E-2	3.388688E-2	3.650323E-2	2.979744E-2	1.900194E-2	2.589248E-2	2.306645E-2	1.948891E-2	3.329432E-2	2.534816E-2	2.942750E-2	1.586437E-2	3.303303E-2	3.210662E-2	2.780750E-2	2.391301E-2	3.201999E-2	2.538996E-2	2.191981E-2	2.336481E-2	3.435975E-2	3.161247E-2	2.163975E-2	2.353346E-2	2.160669E-2	1.623891E-2	1.954940E-2	1.896927E-2	1.289921E-2	3.493999E-2	2.261034E-2	1.304291E-2	3.456621E-2	4.423306E-2	3.284260E-2	3.942624E-2	2.104391E-2	2.781674E-2	2.859836E-2	3.180879E-2	2.855885E-2	2.994928E-2	2.429254E-2	2.175582E-2	1.806683E-2	2.437931E-2	3.191295E-2	4.293762E-2	2.564135E-2	1.801703E-2	2.364096E-2	2.861033E-2	4.146508E-2	2.855420E-2	2.645149E-2	1.852771E-2	2.783018E-2	1.992079E-2	2.526063E-2	2.234307E-2	4.095680E-2	1.548418E-2	3.461228E-2	2.458199E-2	3.045461E-2	3.203027E-2	1.421775E-2	2.119920E-2	2.372158E-2	2.823167E-2	2.591914E-2	1.791346E-2	1.812732E-2	3.021361E-2	3.179012E-2	2.571273E-2	2.770926E-2	2.000208E-2	3.742430E-2	3.430856E-2	3.204085E-2	2.763339E-2	4.250169E-2	2.586141E-2	1.915540E-2	2.517057E-2	2.470679E-2	3.346699E-2	3.897002E-2	1.952982E-2	3.825801E-2	3.295353E-2	2.928098E-2	2.406441E-2	2.135383E-2	3.882705E-2	2.510369E-2	3.901068E-2	5.982072E-3
5.333080E+2	2.560667E-2	4.390839E-2	4.277282E-2	2.664330E-2	5.848817E-2	4.073565E-2	4.155175E-2	3.918483E-2	3.098376E-2	3.876552E-2	2.914340E-2	2.986531E-2	4.876850E-2	4.649675E-2	4.236528E-2	3.638673E-2	5.627364E-2	3.652049E-2	3.320748E-2	3.899387E-2	3.934963E-2	3.627172E-2	3.623714E-2	3.223228E-2	4.556918E-2	3.913914E-2	3.187240E-2	3.450937E-2	3.923943E-2	4.000697E-2	3.158762E-2	3.743754E-2	3.390235E-2	4.331061E-2	4.479343E-2	3.305089E-2	4.241936E-2	3.317881E-2	2.647581E-2	3.990761E-2	4.090878E-2	3.256057E-2	3.165635E-2	3.461431E-2	2.726564E-2	3.822120E-2	4.497488E-2	2.975836E-2	4.071758E-2	3.931864E-2	2.205185E-2	3.212284E-2	3.574459E-2	2.804816E-2	3.736960E-2	3.273749E-2	3.919531E-2	4.586938E-2	3.612689E-2	4.035222E-2	4.192362E-2	3.705178E-2	3.665669E-2	3.241657E-2	3.342441E-2	4.310963E-2	3.703541E-2	4.038980E-2	3.951754E-2	5.025608E-2	3.720051E-2	3.279741E-2	4.043738E-2	4.488905E-2	5.300137E-2	3.984319E-2	2.636923E-2	3.536107E-2	4.075476E-2	3.234488E-2	5.686061E-2	3.059555E-2	4.277164E-2	3.463593E-2	3.551384E-2	2.357569E-2	3.571790E-2	4.236365E-2	3.551698E-2	3.344492E-2	2.508678E-2	2.790134E-2	3.255478E-2	2.925734E-2	2.604484E-2	3.046644E-2	2.558336E-2	2.337739E-2	3.414489E-2	4.937007E-2	3.697561E-2	3.076680E-2	4.063288E-2	3.667900E-2	4.278826E-2	3.424596E-2	4.455088E-2	3.423553E-2	3.976308E-2	2.760502E-2	4.600323E-2	4.673478E-2	4.062799E-2	3.857273E-2	3.991501E-2	5.370459E-2	4.990613E-2	3.754479E-2	3.795770E-2	4.049695E-2	4.148010E-2	3.650766E-2	4.125172E-2	2.807691E-2	2.970189E-2	5.020799E-2	3.161494E-2	4.397438E-2	3.946814E-2	4.706843E-2	4.918175E-2	3.872151E-2	3.217523E-2	2.484464E-2	3.058280E-2	4.326936E-2	4.044672E-2	3.933431E-2	4.241352E-2	4.235198E-2	3.826819E-2	4.126289E-2	3.471760E-2	5.370105E-2	2.267946E-2	2.881154E-2	4.539079E-2	2.903756E-2	2.453313E-2	4.939249E-2	3.565354E-2	4.839825E-2	3.707920E-2	3.573460E-2	3.179247E-2	4.124523E-2	4.942512E-2	4.547246E-2	3.592712E-2	4.514251E-2	4.399331E-2	3.191121E-2	5.096153E-2	2.892971E-2	4.611930E-2	3.497537E-2	2.909355E-2	5.100176E-2	3.824606E-2	4.264053E-2	3.143036E-2	3.214653E-2
5.334580E+2	4.535217E-2	5.391772E-2	4.052178E-2	3.253267E-2	4.841506E-2	5.288375E-2	4.196674E-2	4.492108E-2	5.764804E-2	3.924413E-2	6.071151E-2	5.773131E-2	3.857962E-2	5.146330E-2	3.919437E-2	5.403506E-2	5.955446E-2	4.643174E-2	6.258951E-2	3.498253E-2	4.166982E-2	5.214046E-2	5.135971E-2	4.037235E-2	5.247982E-2	4.874304E-2	5.808065E-2	4.917580E-2	6.162906E-2	3.738239E-2	5.529023E-2	4.497052E-2	5.946012E-2	3.496558E-2	5.905843E-2	5.110148E-2	4.504086E-2	4.548200E-2	4.410630E-2	4.940567E-2	5.966807E-2	5.454240E-2	4.526794E-2	4.085940E-2	4.919050E-2	5.951766E-2	5.294486E-2	4.684300E-2	5.851934E-2	5.720653E-2	4.501381E-2	4.884838E-2	5.627325E-2	5.485757E-2	4.560072E-2	5.822465E-2	5.178038E-2	4.194320E-2	5.080512E-2	5.380739E-2	4.777507E-2	3.883616E-2	3.604962E-2	5.285322E-2	5.914143E-2	4.678368E-2	4.954442E-2	6.264462E-2	4.970859E-2	4.823956E-2	4.899567E-2	4.379855E-2	5.155281E-2	5.241402E-2	6.528008E-2	5.888229E-2	6.265982E-2	6.061444E-2	5.667128E-2	4.350331E-2	4.061560E-2	4.772639E-2	4.648507E-2	5.795913E-2	5.284278E-2	4.237999E-2	4.672756E-2	4.758650E-2	4.733163E-2	5.162385E-2	3.683069E-2	5.005574E-2	4.447134E-2	6.044189E-2	4.512884E-2	4.260782E-2	4.162144E-2	4.514317E-2	4.522841E-2	6.545000E-2	5.297160E-2	3.890020E-2	5.215620E-2	4.328804E-2	4.214922E-2	3.727855E-2	4.672366E-2	5.280464E-2	5.736913E-2	5.359912E-2	3.693307E-2	5.719486E-2	4.058796E-2	4.822807E-2	4.435137E-2	5.469415E-2	5.267645E-2	5.090001E-2	5.335496E-2	6.233426E-2	4.432170E-2	5.419376E-2	5.024437E-2	4.628537E-2	6.700675E-2	5.245921E-2	5.389717E-2	5.734732E-2	4.688659E-2	4.180441E-2	6.629265E-2	5.820164E-2	4.436011E-2	6.153219E-2	3.655843E-2	5.461080E-2	5.589442E-2	5.166148E-2	5.109921E-2	4.883902E-2	4.942780E-2	5.821454E-2	4.243087E-2	5.807026E-2	5.427185E-2	4.090954E-2	4.811758E-2	4.790261E-2	5.043501E-2	4.778031E-2	4.663663E-2	5.394993E-2	3.908541E-2	5.356329E-2	5.859392E-2	4.545387E-2	5.382453E-2	5.704121E-2	5.165678E-2	5.997900E-2	5.032413E-2	5.227586E-2	5.025403E-2	3.849084E-2	4.716025E-2	4.944741E-2	5.017808E-2	5.008415E-2	6.200208E-2	5.432700E-2	5.447206E-2	5.746465E-2
5.336080E+2	6.681294E-2	7.268744E-2	7.044070E-2	6.110624E-2	7.752838E-2	6.373840E-2	7.084099E-2	5.965711E-2	8.550598E-2	6.654311E-2	6.051114E-2	7.658394E-2	6.116324E-2	6.171725E-2	7.656048E-2	6.686481E-2	6.702924E-2	7.482954E-2	6.070898E-2	6.232503E-2	7.219525E-2	6.003659E-2	6.205533E-2	6.807849E-2	6.387179E-2	5.843084E-2	6.178931E-2	4.389395E-2	7.221958E-2	6.529963E-2	5.250208E-2	6.903830E-2	6.105896E-2	6.338329E-2	6.340015E-2	5.093081E-2	6.540376E-2	5.852633E-2	6.336622E-2	7.465309E-2	5.678292E-2	5.117631E-2	6.333662E-2	5.123934E-2	6.399664E-2	6.553256E-2	6.360803E-2	6.054496E-2	6.500587E-2	6.399487E-2	5.695871E-2	7.006116E-2	6.767937E-2	7.252307E-2	7.270001E-2	7.613389E-2	7.334734E-2	5.593674E-2	7.193736E-2	7.185016E-2	7.086858E-2	5.470044E-2	6.276695E-2	5.964216E-2	6.562313E-2	5.210605E-2	5.957325E-2	6.821183E-2	6.105317E-2	6.041447E-2	7.001133E-2	5.785873E-2	5.735057E-2	6.697195E-2	6.810931E-2	5.426647E-2	5.662876E-2	5.847577E-2	7.537720E-2	6.195395E-2	5.240821E-2	5.908979E-2	5.826768E-2	7.083603E-2	5.976038E-2	5.320606E-2	7.470667E-2	5.686436E-2	6.487403E-2	7.094932E-2	7.336544E-2	8.079513E-2	7.140456E-2	6.757015E-2	6.487574E-2	5.731943E-2	6.898377E-2	6.827401E-2	7.051661E-2	7.706569E-2	5.668212E-2	6.285745E-2	6.192170E-2	7.022302E-2	7.459212E-2	6.662160E-2	5.893229E-2	6.780205E-2	6.527054E-2	6.617481E-2	6.367593E-2	6.357600E-2	7.495942E-2	7.171361E-2	6.178300E-2	6.149288E-2	6.128552E-2	6.126668E-2	6.479839E-2	7.365708E-2	6.541849E-2	7.472039E-2	6.211035E-2	7.478918E-2	5.247852E-2	6.729422E-2	6.699205E-2	5.932697E-2	8.038556E-2	5.762973E-2	6.332760E-2	5.566660E-2	6.813233E-2	7.666885E-2	6.558268E-2	5.007915E-2	6.499274E-2	7.570960E-2	7.380132E-2	7.099495E-2	6.897510E-2	7.367561E-2	8.190485E-2	7.580864E-2	5.971348E-2	6.675319E-2	6.965850E-2	7.053699E-2	6.444337E-2	6.478322E-2	6.297183E-2	4.252382E-2	6.325696E-2	6.913711E-2	6.178055E-2	8.192382E-2	7.319615E-2	6.663585E-2	6.912915E-2	7.032554E-2	6.145566E-2	6.168376E-2	5.985815E-2	6.945874E-2	6.718479E-2	6.709036E-2	7.630383E-2	7.049883E-2	6.754169E-2	6.645980E-2	1.029367E-1	6.276775E-2
5.337580E+2	7.924293E-2	1.057835E-1	9.912604E-2	8.060878E-2	7.909702E-2	8.715876E-2	9.953694E-2	1.018101E-1	8.975482E-2	9.304693E-2	9.537529E-2	8.092533E-2	1.159302E-1	8.718338E-2	8.729913E-2	1.022137E-1	9.752041E-2	8.325919E-2	9.627448E-2	9.290659E-2	1.010235E-1	9.767032E-2	7.500402E-2	8.210416E-2	9.683627E-2	9.883511E-2	8.726269E-2	9.877587E-2	8.923801E-2	9.251777E-2	8.751806E-2	9.868126E-2	1.018951E-1	1.033245E-1	1.020151E-1	8.753754E-2	9.022898E-2	8.756780E-2	8.475140E-2	7.909295E-2	9.161691E-2	1.148417E-1	1.103090E-1	9.218932E-2	8.077030E-2	8.721452E-2	9.331891E-2	9.313889E-2	1.062936E-1	8.789327E-2	8.901128E-2	8.868264E-2	9.361355E-2	8.407326E-2	9.486734E-2	9.181761E-2	1.025248E-1	9.113383E-2	1.018172E-1	9.636127E-2	8.926416E-2	9.215038E-2	9.210771E-2	7.708629E-2	9.319293E-2	9.562577E-2	9.775710E-2	8.335827E-2	1.003926E-1	9.231594E-2	8.155123E-2	1.015123E-1	1.082574E-1	9.601617E-2	9.025350E-2	8.429759E-2	8.646368E-2	8.248459E-2	8.246053E-2	8.959501E-2	9.432859E-2	9.330915E-2	1.030333E-1	8.968018E-2	7.432130E-2	9.523049E-2	1.043620E-1	1.078865E-1	1.001898E-1	9.169778E-2	9.160258E-2	1.021958E-1	9.633716E-2	1.060182E-1	1.063711E-1	8.278868E-2	8.755470E-2	9.498874E-2	9.445775E-2	1.041079E-1	8.762342E-2	8.173904E-2	9.251108E-2	8.552542E-2	1.084782E-1	9.558421E-2	9.993118E-2	8.848664E-2	1.021941E-1	9.684807E-2	8.625249E-2	1.013992E-1	9.729486E-2	9.924890E-2	8.866655E-2	1.200980E-1	8.217081E-2	8.588914E-2	9.592498E-2	9.841116E-2	8.493099E-2	8.752145E-2	1.030112E-1	7.363233E-2	1.059548E-1	1.001954E-1	8.410804E-2	1.132816E-1	8.221484E-2	8.935990E-2	1.012152E-1	9.377594E-2	9.464807E-2	9.189756E-2	8.878083E-2	9.680897E-2	9.804775E-2	8.788727E-2	9.029453E-2	9.396650E-2	9.545459E-2	8.729359E-2	8.642653E-2	1.038238E-1	8.952111E-2	9.297091E-2	9.150084E-2	9.878881E-2	7.493481E-2	9.029905E-2	9.231776E-2	9.132386E-2	8.448895E-2	9.789060E-2	1.037428E-1	1.003868E-1	1.193994E-1	8.389277E-2	1.068112E-1	9.228213E-2	9.265023E-2	1.004052E-1	1.091634E-1	1.059088E-1	8.792618E-2	1.031082E-1	8.263488E-2	9.879894E-2	9.303557E-2	1.042615E-1	1.155338E-1	6.900674E-2
5.339140E+2	1.391396E-1	1.443711E-1	1.519896E-1	1.343706E-1	1.559095E-1	1.532510E-1	1.268577E-1	1.423708E-1	1.636969E-1	1.447580E-1	1.372707E-1	1.263216E-1	1.573794E-1	1.458341E-1	1.487870E-1	1.351355E-1	1.601688E-1	1.438055E-1	1.404052E-1	1.402837E-1	1.452376E-1	1.444075E-1	1.360730E-1	1.349992E-1	1.725511E-1	1.546584E-1	1.201243E-1	1.498437E-1	1.511047E-1	1.598938E-1	1.313624E-1	1.587179E-1	1.454032E-1	1.440431E-1	1.595355E-1	1.462658E-1	1.272091E-1	1.473083E-1	1.316635E-1	1.410589E-1	1.330117E-1	1.341985E-1	1.489897E-1	1.559735E-1	1.568141E-1	1.556534E-1	1.569255E-1	1.609221E-1	1.528251E-1	1.362262E-1	1.419836E-1	1.484556E-1	1.637458E-1	1.403961E-1	1.488667E-1	1.344014E-1	1.553153E-1	1.372202E-1	1.518177E-1	1.532802E-1	1.510404E-1	1.348008E-1	1.364135E-1	1.302391E-1	1.504879E-1	1.456648E-1	1.629900E-1	1.416356E-1	1.391152E-1	1.461975E-1	1.344484E-1	1.468908E-1	1.455548E-1	1.429394E-1	1.294739E-1	1.453693E-1	1.379116E-1	1.330844E-1	1.621093E-1	1.470428E-1	1.280335E-1	1.323637E-1	1.566401E-1	1.361775E-1	1.119910E-1	1.243672E-1	1.306176E-1	1.484728E-1	1.416796E-1	1.508592E-1	1.440879E-1	1.460688E-1	1.698938E-1	1.450774E-1	1.353788E-1	1.462778E-1	1.429840E-1	1.490838E-1	1.475738E-1	1.460905E-1	1.376067E-1	1.514246E-1	1.632648E-1	1.413248E-1	1.454019E-1	1.562957E-1	1.515587E-1	1.411464E-1	1.612361E-1	1.579134E-1	1.361046E-1	1.630496E-1	1.320595E-1	1.501023E-1	1.331603E-1	1.386831E-1	1.431742E-1	1.358560E-1	1.602305E-1	1.555455E-1	1.575865E-1	1.557604E-1	1.297901E-1	1.402717E-1	1.505220E-1	1.542558E-1	1.479459E-1	1.479415E-1	1.611939E-1	1.474929E-1	1.481849E-1	1.507553E-1	1.473047E-1	1.516404E-1	1.332793E-1	1.298052E-1	1.449349E-1	1.527963E-1	1.413849E-1	1.547915E-1	1.408581E-1	1.585783E-1	1.311036E-1	1.447222E-1	1.561413E-1	1.475322E-1	1.556801E-1	1.255280E-1	1.333201E-1	1.592091E-1	1.630735E-1	1.503227E-1	1.234636E-1	1.563235E-1	1.560362E-1	1.632508E-1	1.522896E-1	1.467450E-1	1.492497E-1	1.525512E-1	1.492143E-1	1.606778E-1	1.483603E-1	1.455241E-1	1.348634E-1	1.383938E-1	1.349059E-1	1.468304E-1	1.460098E-1	1.767046E-1	1.456053E-1	1.669288E-1
5.340690E+2	2.321377E-1	2.182587E-1	2.298623E-1	2.043316E-1	2.297646E-1	2.408280E-1	2.318019E-1	2.167383E-1	2.315790E-1	2.170383E-1	2.283679E-1	2.280403E-1	2.265752E-1	2.166922E-1	2.172731E-1	2.174220E-1	2.183489E-1	2.112235E-1	2.338780E-1	2.192289E-1	2.294384E-1	2.388191E-1	2.211893E-1	2.401733E-1	2.251356E-1	2.260110E-1	2.304645E-1	2.248033E-1	2.544502E-1	2.362843E-1	2.138306E-1	2.335613E-1	2.338407E-1	2.172855E-1	2.160324E-1	2.302022E-1	2.356081E-1	2.385987E-1	2.185343E-1	2.314151E-1	2.362570E-1	2.067514E-1	2.343263E-1	2.258249E-1	2.093878E-1	2.208501E-1	2.274951E-1	2.306218E-1	2.280545E-1	2.282688E-1	2.072853E-1	2.112100E-1	2.364106E-1	2.438605E-1	2.288837E-1	2.220639E-1	2.204788E-1	2.448740E-1	2.014534E-1	2.355685E-1	2.535575E-1	2.229252E-1	2.622857E-1	2.165103E-1	2.397475E-1	2.077956E-1	2.310582E-1	2.145384E-1	2.196622E-1	2.307876E-1	2.154088E-1	2.335324E-1	2.176871E-1	2.139677E-1	2.494323E-1	2.199528E-1	2.374174E-1	2.221247E-1	2.246131E-1	2.292039E-1	2.322008E-1	2.190717E-1	2.144569E-1	2.462706E-1	2.255769E-1	2.270520E-1	2.203334E-1	2.337681E-1	2.363880E-1	2.268168E-1	2.428389E-1	2.257362E-1	2.350236E-1	2.275239E-1	2.166103E-1	2.206011E-1	2.329009E-1	2.284201E-1	1.994456E-1	2.246667E-1	2.343056E-1	2.211912E-1	2.191983E-1	2.145653E-1	2.248050E-1	2.370777E-1	2.449440E-1	2.549755E-1	2.308746E-1	2.116115E-1	2.301024E-1	2.414356E-1	2.223493E-1	2.413816E-1	2.278150E-1	2.250646E-1	2.288007E-1	2.294775E-1	2.273780E-1	2.117924E-1	2.315362E-1	2.303972E-1	2.178523E-1	2.277961E-1	2.190611E-1	2.302766E-1	2.174212E-1	2.125944E-1	2.220493E-1	2.225570E-1	2.425330E-1	2.096299E-1	2.189414E-1	2.169972E-1	2.323646E-1	2.376363E-1	2.314820E-1	2.445587E-1	2.257378E-1	2.291760E-1	2.143877E-1	1.999850E-1	2.288069E-1	2.181820E-1	2.162109E-1	2.220660E-1	2.159340E-1	2.331792E-1	2.326349E-1	2.461151E-1	2.093276E-1	2.174153E-1	2.694851E-1	2.361583E-1	2.227152E-1	2.401517E-1	2.222256E-1	2.310749E-1	2.278337E-1	2.198296E-1	2.359846E-1	2.211218E-1	2.579934E-1	2.382809E-1	2.202631E-1	2.300877E-1	2.287852E-1	2.460730E-1	2.593082E-1	2.340687E-1	2.408011E-1	2.184443E-1
5.342040E+2	3.921241E-1	4.004998E-1	4.071466E-1	4.046201E-1	4.098607E-1	3.828442E-1	4.071112E-1	4.112734E-1	4.215896E-1	4.177964E-1	4.063033E-1	3.953198E-1	3.990532E-1	4.023616E-1	4.124734E-1	4.085445E-1	3.902594E-1	4.044432E-1	4.088108E-1	3.971557E-1	4.076968E-1	3.963782E-1	3.894910E-1	3.824802E-1	4.050795E-1	4.029446E-1	4.104415E-1	4.057041E-1	4.063043E-1	4.393919E-1	4.002334E-1	3.738289E-1	3.987221E-1	4.059513E-1	4.013597E-1	4.177409E-1	4.075346E-1	4.149181E-1	4.113201E-1	3.829289E-1	3.813978E-1	4.037663E-1	4.101753E-1	4.189852E-1	4.087610E-1	3.946951E-1	3.947880E-1	4.136469E-1	3.973311E-1	4.199079E-1	3.575752E-1	4.003338E-1	4.069494E-1	4.062468E-1	4.322226E-1	4.115842E-1	4.207454E-1	4.182770E-1	4.350802E-1	4.228553E-1	4.001217E-1	3.896657E-1	3.966107E-1	3.914592E-1	3.820278E-1	4.055134E-1	4.159565E-1	4.038920E-1	3.967940E-1	4.099634E-1	4.105362E-1	4.099645E-1	4.159274E-1	4.259108E-1	4.236906E-1	3.977602E-1	3.900413E-1	4.068292E-1	4.101081E-1	3.714544E-1	3.885308E-1	4.175767E-1	3.766544E-1	4.037496E-1	4.018576E-1	4.204160E-1	3.957412E-1	4.032608E-1	4.095734E-1	3.885012E-1	4.094420E-1	4.072775E-1	3.973230E-1	3.980097E-1	4.192945E-1	4.119123E-1	4.090837E-1	3.912410E-1	4.273882E-1	4.188511E-1	4.122953E-1	4.123846E-1	4.062325E-1	4.190655E-1	3.901544E-1	4.026550E-1	3.927506E-1	3.893445E-1	4.159707E-1	4.188900E-1	4.237929E-1	4.036669E-1	4.148894E-1	4.060155E-1	4.209755E-1	4.180327E-1	4.077842E-1	3.973443E-1	4.088881E-1	4.333596E-1	4.355529E-1	4.398046E-1	4.304274E-1	4.080365E-1	4.144202E-1	4.063240E-1	4.190686E-1	3.929350E-1	4.488824E-1	4.517506E-1	4.508775E-1	4.060562E-1	3.927163E-1	4.097964E-1	3.975076E-1	4.263017E-1	3.883505E-1	4.445202E-1	3.743714E-1	4.202044E-1	4.070185E-1	4.335347E-1	4.153061E-1	4.263702E-1	3.900625E-1	4.138614E-1	4.281949E-1	4.232044E-1	3.885932E-1	4.099463E-1	4.418416E-1	4.113938E-1	4.166991E-1	4.098910E-1	4.088824E-1	4.182834E-1	3.921483E-1	3.791914E-1	4.113509E-1	3.947679E-1	4.356243E-1	4.162040E-1	4.069038E-1	3.762129E-1	4.195850E-1	4.427292E-1	4.130278E-1	4.265740E-1	4.036651E-1	4.134271E-1	3.658010E-1	5.282550E-1
5.343600E+2	7.259608E-1	7.537271E-1	7.396439E-1	7.396641E-1	7.191731E-1	7.123143E-1	7.644030E-1	7.256153E-1	7.489835E-1	7.494047E-1	7.429125E-1	7.281915E-1	7.568187E-1	7.689454E-1	7.307197E-1	7.264446E-1	7.334311E-1	7.334156E-1	7.184228E-1	7.135670E-1	7.437068E-1	7.246601E-1	7.511738E-1	7.513160E-1	7.219905E-1	7.368769E-1	6.963513E-1	7.569431E-1	7.213420E-1	7.323867E-1	7.239219E-1	7.446079E-1	7.065874E-1	7.442267E-1	7.263642E-1	7.251634E-1	7.801124E-1	7.600316E-1	7.419227E-1	7.196015E-1	7.930077E-1	6.944429E-1	7.242100E-1	7.556741E-1	7.315172E-1	7.494828E-1	7.696677E-1	7.099558E-1	7.138506E-1	7.390023E-1	6.821145E-1	7.069061E-1	7.885586E-1	7.370581E-1	7.209883E-1	7.512133E-1	7.894750E-1	7.418865E-1	7.101024E-1	7.467244E-1	7.091935E-1	7.378027E-1	7.027077E-1	7.515953E-1	7.489517E-1	7.351827E-1	7.469560E-1	7.078439E-1	6.829427E-1	7.401875E-1	7.583674E-1	7.514851E-1	7.266927E-1	7.711242E-1	7.349745E-1	7.140979E-1	7.095516E-1	7.556035E-1	7.059039E-1	7.384762E-1	7.069283E-1	7.539936E-1	7.246425E-1	6.994306E-1	7.098594E-1	7.200737E-1	7.244406E-1	7.332472E-1	7.670820E-1	7.453114E-1	6.900238E-1	7.254604E-1	7.162146E-1	6.881853E-1	7.312731E-1	7.238964E-1	7.152951E-1	7.609577E-1	7.009023E-1	7.170323E-1	7.457145E-1	7.038240E-1	7.094419E-1	7.074327E-1	7.261112E-1	7.376034E-1	6.946325E-1	7.119788E-1	6.966970E-1	7.669424E-1	7.201599E-1	7.378935E-1	7.358943E-1	7.115022E-1	7.408733E-1	7.264363E-1	7.031295E-1	7.154226E-1	7.558099E-1	7.513785E-1	7.443280E-1	7.351238E-1	7.449827E-1	7.056966E-1	7.260295E-1	7.424104E-1	7.239205E-1	7.135762E-1	7.229476E-1	7.017531E-1	6.999671E-1	7.173972E-1	7.505547E-1	7.137675E-1	7.585599E-1	7.079863E-1	7.240803E-1	7.300694E-1	7.351507E-1	7.542426E-1	7.479845E-1	7.510353E-1	6.996632E-1	7.424059E-1	6.999678E-1	7.418094E-1	7.340884E-1	7.492582E-1	7.253890E-1	7.487162E-1	7.500298E-1	7.288393E-1	7.357872E-1	7.453576E-1	7.221593E-1	7.241314E-1	7.712199E-1	7.147750E-1	7.617323E-1	7.254176E-1	7.582426E-1	7.509592E-1	7.372370E-1	7.663445E-1	7.446805E-1	7.695467E-1	7.525914E-1	7.222697E-1	7.216801E-1	7.644234E-1	7.625147E-1	6.066440E-1
5.345160E+2	1.111884E+0	1.165109E+0	1.144026E+0	1.095062E+0	1.087054E+0	1.104801E+0	1.133371E+0	1.142383E+0	1.141393E+0	1.133973E+0	1.108246E+0	1.097556E+0	1.115360E+0	1.114747E+0	1.114862E+0	1.127684E+0	1.158576E+0	1.123168E+0	1.195926E+0	1.117018E+0	1.136416E+0	1.143557E+0	1.136096E+0	1.121212E+0	1.156930E+0	1.112223E+0	1.094785E+0	1.175431E+0	1.100603E+0	1.099618E+0	1.109076E+0	1.173225E+0	1.126361E+0	1.151764E+0	1.101447E+0	1.146171E+0	1.118837E+0	1.175126E+0	1.133536E+0	1.119267E+0	1.121714E+0	1.144769E+0	1.139070E+0	1.110340E+0	1.122502E+0	1.113822E+0	1.147989E+0	1.101845E+0	1.134388E+0	1.127859E+0	1.151590E+0	1.133728E+0	1.131755E+0	1.128585E+0	1.117224E+0	1.148798E+0	1.128533E+0	1.182616E+0	1.144032E+0	1.159435E+0	1.131321E+0	1.149337E+0	1.152486E+0	1.126670E+0	1.096176E+0	1.125412E+0	1.118107E+0	1.132099E+0	1.114692E+0	1.116695E+0	1.087016E+0	1.113321E+0	1.153410E+0	1.114497E+0	1.137674E+0	1.165079E+0	1.140459E+0	1.107876E+0	1.111864E+0	1.118935E+0	1.095223E+0	1.114331E+0	1.144658E+0	1.073315E+0	1.079024E+0	1.086585E+0	1.123082E+0	1.117198E+0	1.145072E+0	1.140605E+0	1.109769E+0	1.125517E+0	1.167724E+0	1.144849E+0	1.146044E+0	1.120682E+0	1.117737E+0	1.127059E+0	1.084813E+0	1.153840E+0	1.138414E+0	1.057645E+0	1.144786E+0	1.106789E+0	1.121674E+0	1.129733E+0	1.061706E+0	1.105615E+0	1.134896E+0	1.196920E+0	1.116075E+0	1.071793E+0	1.103002E+0	1.207702E+0	1.088948E+0	1.122367E+0	1.131347E+0	1.111645E+0	1.095585E+0	1.141591E+0	1.175270E+0	1.106878E+0	1.098986E+0	1.133995E+0	1.096617E+0	1.208409E+0	1.104397E+0	1.097730E+0	1.054713E+0	1.139583E+0	1.084862E+0	1.128570E+0	1.108441E+0	1.095447E+0	1.097224E+0	1.145302E+0	1.099198E+0	1.143778E+0	1.081986E+0	1.134628E+0	1.076547E+0	1.158409E+0	1.092492E+0	1.107110E+0	1.122026E+0	1.119174E+0	1.114407E+0	1.113183E+0	1.169918E+0	1.098078E+0	1.154636E+0	1.150896E+0	1.108904E+0	1.129922E+0	1.091141E+0	1.112298E+0	1.074740E+0	1.090208E+0	1.141502E+0	1.120240E+0	1.132332E+0	1.120877E+0	1.066409E+0	1.112333E+0	1.084219E+0	1.086600E+0	1.152131E+0	1.114511E+0	1.115615E+0	1.149801E+0	1.029352E+0	9.997530E-1
5.346560E+2	1.428727E+0	1.505888E+0	1.446466E+0	1.460254E+0	1.437088E+0	1.462543E+0	1.438505E+0	1.450771E+0	1.487977E+0	1.420851E+0	1.507162E+0	1.446712E+0	1.475901E+0	1.438208E+0	1.430990E+0	1.494115E+0	1.417083E+0	1.470243E+0	1.433431E+0	1.479218E+0	1.481730E+0	1.464013E+0	1.464630E+0	1.480873E+0	1.470751E+0	1.488511E+0	1.491228E+0	1.494075E+0	1.440852E+0	1.487107E+0	1.431485E+0	1.487182E+0	1.465453E+0	1.449199E+0	1.451292E+0	1.419891E+0	1.448372E+0	1.508939E+0	1.446704E+0	1.511051E+0	1.465751E+0	1.502974E+0	1.475114E+0	1.428870E+0	1.456871E+0	1.404904E+0	1.478262E+0	1.441819E+0	1.481119E+0	1.406816E+0	1.479394E+0	1.511945E+0	1.399189E+0	1.486637E+0	1.475194E+0	1.502907E+0	1.431985E+0	1.455296E+0	1.475975E+0	1.466283E+0	1.461907E+0	1.531471E+0	1.428423E+0	1.449541E+0	1.402488E+0	1.399309E+0	1.418995E+0	1.462558E+0	1.427566E+0	1.478457E+0	1.429952E+0	1.438165E+0	1.471510E+0	1.462857E+0	1.493288E+0	1.463767E+0	1.436386E+0	1.453842E+0	1.387268E+0	1.452273E+0	1.530071E+0	1.514350E+0	1.488800E+0	1.453891E+0	1.451904E+0	1.499447E+0	1.457372E+0	1.447452E+0	1.478164E+0	1.425788E+0	1.427871E+0	1.443330E+0	1.472334E+0	1.420276E+0	1.409111E+0	1.452536E+0	1.557455E+0	1.444216E+0	1.464433E+0	1.426401E+0	1.412691E+0	1.419311E+0	1.456751E+0	1.463705E+0	1.452896E+0	1.451019E+0	1.380067E+0	1.457913E+0	1.419401E+0	1.458038E+0	1.398593E+0	1.456569E+0	1.459435E+0	1.440913E+0	1.469245E+0	1.474755E+0	1.462183E+0	1.404501E+0	1.455471E+0	1.436887E+0	1.499759E+0	1.421804E+0	1.470638E+0	1.470158E+0	1.471356E+0	1.451917E+0	1.472540E+0	1.394276E+0	1.446129E+0	1.450794E+0	1.418254E+0	1.412664E+0	1.413197E+0	1.426180E+0	1.411277E+0	1.473209E+0	1.450054E+0	1.459264E+0	1.387980E+0	1.456947E+0	1.418733E+0	1.452415E+0	1.486739E+0	1.466189E+0	1.385443E+0	1.449629E+0	1.440317E+0	1.457860E+0	1.477776E+0	1.453817E+0	1.439398E+0	1.468181E+0	1.437031E+0	1.422204E+0	1.402954E+0	1.395250E+0	1.347592E+0	1.452111E+0	1.459699E+0	1.441073E+0	1.533289E+0	1.438853E+0	1.446099E+0	1.379505E+0	1.437882E+0	1.456406E+0	1.410064E+0	1.476322E+0	1.398886E+0	1.364035E+0	1.362079E+0	1.447045E+0
5.348070E+2	1.843128E+0	1.838080E+0	1.855802E+0	1.772012E+0	1.807225E+0	1.846179E+0	1.816273E+0	1.760293E+0	1.838030E+0	1.851986E+0	1.826690E+0	1.786706E+0	1.758189E+0	1.830889E+0	1.872420E+0	1.837183E+0	1.818178E+0	1.839042E+0	1.866284E+0	1.830895E+0	1.847609E+0	1.801995E+0	1.794293E+0	1.815920E+0	1.818330E+0	1.849702E+0	1.768814E+0	1.811330E+0	1.854009E+0	1.843205E+0	1.844063E+0	1.858755E+0	1.813771E+0	1.790299E+0	1.887590E+0	1.840644E+0	1.819476E+0	1.875367E+0	1.797252E+0	1.852802E+0	1.863126E+0	1.762539E+0	1.800677E+0	1.741429E+0	1.775608E+0	1.826541E+0	1.813512E+0	1.755103E+0	1.868870E+0	1.836975E+0	1.797564E+0	1.842949E+0	1.808835E+0	1.843194E+0	1.831039E+0	1.810690E+0	1.842722E+0	1.772901E+0	1.810494E+0	1.809842E+0	1.769225E+0	1.822264E+0	1.748510E+0	1.815705E+0	1.824313E+0	1.790825E+0	1.773920E+0	1.780719E+0	1.782868E+0	1.773040E+0	1.823036E+0	1.804559E+0	1.835005E+0	1.767485E+0	1.842720E+0	1.801989E+0	1.847213E+0	1.795496E+0	1.797192E+0	1.816996E+0	1.840823E+0	1.786367E+0	1.826081E+0	1.763056E+0	1.827932E+0	1.776780E+0	1.830957E+0	1.791086E+0	1.855030E+0	1.800233E+0	1.781175E+0	1.793209E+0	1.781229E+0	1.795125E+0	1.810436E+0	1.787150E+0	1.786869E+0	1.782550E+0	1.824457E+0	1.779512E+0	1.852553E+0	1.743570E+0	1.824238E+0	1.792578E+0	1.740703E+0	1.778337E+0	1.819693E+0	1.803450E+0	1.776126E+0	1.733940E+0	1.714993E+0	1.813475E+0	1.801440E+0	1.813926E+0	1.781307E+0	1.725284E+0	1.786868E+0	1.731868E+0	1.773164E+0	1.786341E+0	1.794485E+0	1.805666E+0	1.809021E+0	1.755588E+0	1.833406E+0	1.793310E+0	1.798943E+0	1.793895E+0	1.784447E+0	1.769954E+0	1.765153E+0	1.817420E+0	1.781950E+0	1.736132E+0	1.809423E+0	1.770340E+0	1.815562E+0	1.765981E+0	1.819811E+0	1.775470E+0	1.712955E+0	1.775251E+0	1.727358E+0	1.739953E+0	1.798196E+0	1.809865E+0	1.731125E+0	1.794122E+0	1.745194E+0	1.812720E+0	1.785690E+0	1.784713E+0	1.744906E+0	1.844649E+0	1.741430E+0	1.808680E+0	1.726055E+0	1.685643E+0	1.735674E+0	1.751847E+0	1.747017E+0	1.758637E+0	1.729195E+0	1.766400E+0	1.705249E+0	1.761026E+0	1.812370E+0	1.749815E+0	1.702968E+0	1.796826E+0	1.717221E+0	1.647609E+0
5.349530E+2	1.979909E+0	2.006233E+0	1.993025E+0	1.997461E+0	1.901142E+0	1.947224E+0	1.998693E+0	1.949118E+0	1.949944E+0	2.035491E+0	1.898024E+0	1.863565E+0	1.965785E+0	2.053804E+0	1.931331E+0	1.959056E+0	2.009217E+0	1.939004E+0	1.957236E+0	1.933707E+0	1.972396E+0	1.935158E+0	1.998021E+0	1.927022E+0	2.000874E+0	1.967396E+0	2.017192E+0	1.969905E+0	1.949621E+0	1.934373E+0	1.906730E+0	1.967719E+0	1.928446E+0	1.921508E+0	1.944280E+0	1.973009E+0	1.964075E+0	1.948947E+0	1.944861E+0	1.931299E+0	1.990231E+0	1.919123E+0	1.947589E+0	1.899079E+0	1.953000E+0	2.011386E+0	1.930514E+0	1.935770E+0	1.950756E+0	1.932963E+0	1.947736E+0	1.977706E+0	1.908873E+0	1.968140E+0	1.939710E+0	1.909596E+0	1.930784E+0	1.945054E+0	1.979406E+0	1.991282E+0	1.986113E+0	1.980507E+0	1.913778E+0	1.951480E+0	1.880196E+0	1.999473E+0	1.920150E+0	1.929216E+0	1.917762E+0	1.948049E+0	1.975222E+0	1.903759E+0	1.935035E+0	1.859468E+0	2.011312E+0	1.923692E+0	2.018454E+0	1.931305E+0	1.896528E+0	1.979560E+0	1.958220E+0	1.937210E+0	1.881587E+0	1.901443E+0	1.860586E+0	1.937466E+0	1.904041E+0	1.882977E+0	1.979414E+0	1.852855E+0	1.914136E+0	1.880431E+0	1.916172E+0	1.909439E+0	1.911990E+0	1.931454E+0	1.938072E+0	1.995048E+0	1.879787E+0	1.919922E+0	1.924755E+0	1.872104E+0	1.892740E+0	1.897420E+0	1.912127E+0	1.858920E+0	1.897835E+0	1.905798E+0	1.914914E+0	1.918495E+0	1.883400E+0	1.940334E+0	1.927154E+0	1.958778E+0	1.913007E+0	1.873840E+0	1.924188E+0	1.843396E+0	1.924036E+0	1.874643E+0	1.917996E+0	1.974887E+0	1.897167E+0	1.904097E+0	1.912308E+0	1.917277E+0	1.911310E+0	1.846054E+0	1.881119E+0	1.892202E+0	1.803540E+0	1.927022E+0	1.911160E+0	1.926447E+0	1.890132E+0	1.824511E+0	1.926466E+0	1.916156E+0	1.911101E+0	1.876833E+0	1.848762E+0	1.950284E+0	1.851771E+0	1.924723E+0	1.890540E+0	1.974480E+0	1.916194E+0	1.897568E+0	1.861654E+0	1.896837E+0	1.911013E+0	1.880774E+0	1.910891E+0	1.873962E+0	1.845094E+0	1.928914E+0	1.854116E+0	1.954220E+0	1.914236E+0	1.881567E+0	1.912597E+0	1.887629E+0	1.851276E+0	1.880943E+0	1.828319E+0	1.913955E+0	1.900689E+0	1.895457E+0	1.841371E+0	1.867887E+0	1.808066E+0	1.709484E+0
5.351300E+2	1.972374E+0	1.902497E+0	1.994273E+0	1.945713E+0	1.864479E+0	1.905572E+0	2.024554E+0	1.905005E+0	1.965245E+0	1.921462E+0	1.977557E+0	1.933687E+0	1.913259E+0	1.952250E+0	1.945992E+0	2.018384E+0	1.939793E+0	1.969252E+0	1.893172E+0	1.964714E+0	1.906587E+0	1.899270E+0	1.929398E+0	1.887005E+0	1.919397E+0	1.971402E+0	1.927564E+0	1.955639E+0	1.975845E+0	1.915032E+0	1.985941E+0	2.009363E+0	1.973483E+0	1.905866E+0	1.872594E+0	1.968077E+0	1.930600E+0	1.981676E+0	1.943765E+0	1.926435E+0	1.922797E+0	1.914910E+0	1.919827E+0	1.892153E+0	1.904032E+0	1.889558E+0	1.925102E+0	1.953558E+0	1.845235E+0	1.910635E+0	1.951982E+0	1.942025E+0	1.906996E+0	1.906504E+0	1.915556E+0	1.936734E+0	1.946502E+0	1.879396E+0	1.899157E+0	1.954545E+0	1.896517E+0	1.922031E+0	1.948914E+0	1.897890E+0	1.875856E+0	1.944604E+0	1.973068E+0	1.906193E+0	1.869571E+0	1.905806E+0	1.900634E+0	1.886048E+0	1.921350E+0	1.912885E+0	1.877820E+0	1.843756E+0	1.918751E+0	1.890242E+0	1.891090E+0	1.915982E+0	1.999639E+0	1.930480E+0	1.916751E+0	1.877518E+0	1.881461E+0	1.932374E+0	1.901677E+0	1.883720E+0	1.951979E+0	1.887484E+0	1.874566E+0	1.908975E+0	1.835725E+0	1.819756E+0	1.901033E+0	1.896403E+0	1.952714E+0	1.887891E+0	1.854249E+0	1.927879E+0	1.905674E+0	1.898117E+0	1.885187E+0	1.877793E+0	1.844889E+0	1.928091E+0	1.838579E+0	1.923591E+0	1.862002E+0	1.909942E+0	1.902211E+0	1.909203E+0	1.831725E+0	1.969304E+0	1.942772E+0	1.898446E+0	1.881558E+0	1.875295E+0	1.912843E+0	1.865543E+0	2.000833E+0	1.869424E+0	1.936460E+0	1.825316E+0	1.882847E+0	1.898440E+0	1.921764E+0	1.821761E+0	1.820598E+0	1.949892E+0	1.879776E+0	1.867274E+0	1.811804E+0	1.891891E+0	1.922734E+0	1.879357E+0	1.855347E+0	1.851810E+0	1.824457E+0	1.913647E+0	1.891183E+0	1.946345E+0	1.835775E+0	1.820279E+0	1.842066E+0	1.858596E+0	1.891977E+0	1.900764E+0	1.848953E+0	1.927367E+0	1.906544E+0	1.840332E+0	1.857995E+0	1.845999E+0	1.832617E+0	1.867689E+0	1.833257E+0	1.877273E+0	1.892916E+0	1.857025E+0	1.850419E+0	1.873105E+0	1.950282E+0	1.842198E+0	1.847117E+0	1.906408E+0	1.886627E+0	1.873326E+0	1.776251E+0	1.910409E+0	1.838943E+0	1.662393E+0
5.352600E+2	1.906243E+0	1.852610E+0	1.814388E+0	1.864206E+0	1.844654E+0	1.811555E+0	1.731512E+0	1.850274E+0	1.777621E+0	1.833180E+0	1.842301E+0	1.750760E+0	1.805391E+0	1.816168E+0	1.882610E+0	1.829592E+0	1.813047E+0	1.798016E+0	1.875251E+0	1.806086E+0	1.902681E+0	1.790584E+0	1.794961E+0	1.776649E+0	1.810343E+0	1.838896E+0	1.789485E+0	1.809234E+0	1.779152E+0	1.835645E+0	1.842011E+0	1.834254E+0	1.815844E+0	1.813512E+0	1.809850E+0	1.829633E+0	1.812166E+0	1.851832E+0	1.829356E+0	1.819186E+0	1.860535E+0	1.865662E+0	1.799565E+0	1.748266E+0	1.807557E+0	1.791640E+0	1.860701E+0	1.822950E+0	1.790565E+0	1.789780E+0	1.744779E+0	1.775575E+0	1.833464E+0	1.863035E+0	1.852889E+0	1.831929E+0	1.864842E+0	1.831700E+0	1.846806E+0	1.832061E+0	1.811098E+0	1.833611E+0	1.803985E+0	1.843018E+0	1.774184E+0	1.784407E+0	1.780435E+0	1.829602E+0	1.803996E+0	1.824738E+0	1.834203E+0	1.785380E+0	1.821404E+0	1.758326E+0	1.845976E+0	1.818692E+0	1.836425E+0	1.748529E+0	1.786007E+0	1.797258E+0	1.774440E+0	1.780917E+0	1.802191E+0	1.807011E+0	1.765590E+0	1.724215E+0	1.852942E+0	1.786469E+0	1.819410E+0	1.739004E+0	1.757954E+0	1.791900E+0	1.786113E+0	1.758833E+0	1.759793E+0	1.769792E+0	1.848963E+0	1.854838E+0	1.800331E+0	1.833916E+0	1.852580E+0	1.763400E+0	1.782676E+0	1.790600E+0	1.847074E+0	1.757518E+0	1.707439E+0	1.813547E+0	1.824585E+0	1.819380E+0	1.762530E+0	1.775137E+0	1.809426E+0	1.821577E+0	1.734627E+0	1.754492E+0	1.818097E+0	1.742812E+0	1.781253E+0	1.776904E+0	1.777192E+0	1.800139E+0	1.821648E+0	1.807653E+0	1.813173E+0	1.785185E+0	1.780707E+0	1.711605E+0	1.722984E+0	1.806203E+0	1.785927E+0	1.823664E+0	1.792967E+0	1.806427E+0	1.841153E+0	1.803358E+0	1.820907E+0	1.786106E+0	1.777545E+0	1.827334E+0	1.765586E+0	1.798395E+0	1.738304E+0	1.765389E+0	1.749341E+0	1.819592E+0	1.799442E+0	1.783848E+0	1.736868E+0	1.745905E+0	1.794743E+0	1.742342E+0	1.769489E+0	1.802290E+0	1.765254E+0	1.753812E+0	1.707443E+0	1.724527E+0	1.781417E+0	1.730662E+0	1.790546E+0	1.798014E+0	1.771828E+0	1.796735E+0	1.795500E+0	1.782664E+0	1.757285E+0	1.765104E+0	1.669826E+0	1.826058E+0	1.581357E+0	1.683071E+0
5.354110E+2	1.593065E+0	1.610346E+0	1.557207E+0	1.581994E+0	1.617203E+0	1.586378E+0	1.577706E+0	1.540154E+0	1.580849E+0	1.601926E+0	1.564548E+0	1.509044E+0	1.519658E+0	1.562632E+0	1.628049E+0	1.581733E+0	1.658354E+0	1.565165E+0	1.584229E+0	1.600671E+0	1.605973E+0	1.554753E+0	1.580539E+0	1.574493E+0	1.548636E+0	1.607167E+0	1.571570E+0	1.505214E+0	1.560319E+0	1.622284E+0	1.600310E+0	1.618038E+0	1.596866E+0	1.547148E+0	1.668779E+0	1.511261E+0	1.597680E+0	1.618948E+0	1.588632E+0	1.572333E+0	1.631369E+0	1.585917E+0	1.635606E+0	1.594935E+0	1.650705E+0	1.582930E+0	1.622380E+0	1.572131E+0	1.579423E+0	1.546732E+0	1.557826E+0	1.687104E+0	1.611284E+0	1.603628E+0	1.571838E+0	1.584276E+0	1.611215E+0	1.620985E+0	1.557744E+0	1.560997E+0	1.558913E+0	1.589180E+0	1.575400E+0	1.598105E+0	1.537732E+0	1.613422E+0	1.659551E+0	1.549867E+0	1.569586E+0	1.640016E+0	1.572477E+0	1.540787E+0	1.580840E+0	1.516032E+0	1.630206E+0	1.595842E+0	1.554393E+0	1.556108E+0	1.585812E+0	1.636699E+0	1.577639E+0	1.575559E+0	1.622602E+0	1.530040E+0	1.520312E+0	1.580421E+0	1.563039E+0	1.550400E+0	1.616326E+0	1.604521E+0	1.507660E+0	1.559014E+0	1.547917E+0	1.551201E+0	1.517879E+0	1.586137E+0	1.595322E+0	1.535792E+0	1.537425E+0	1.570935E+0	1.582818E+0	1.578842E+0	1.571126E+0	1.602826E+0	1.559180E+0	1.550803E+0	1.590837E+0	1.543867E+0	1.579315E+0	1.618790E+0	1.575696E+0	1.530352E+0	1.538849E+0	1.589007E+0	1.590163E+0	1.568185E+0	1.541937E+0	1.544406E+0	1.608231E+0	1.542410E+0	1.585184E+0	1.634098E+0	1.586361E+0	1.583348E+0	1.547572E+0	1.641048E+0	1.560747E+0	1.551628E+0	1.573462E+0	1.551766E+0	1.565556E+0	1.598736E+0	1.560570E+0	1.556365E+0	1.518113E+0	1.583035E+0	1.516844E+0	1.515419E+0	1.562635E+0	1.507270E+0	1.506104E+0	1.565537E+0	1.538577E+0	1.551171E+0	1.545845E+0	1.578223E+0	1.563247E+0	1.544219E+0	1.554527E+0	1.597892E+0	1.537121E+0	1.522658E+0	1.495254E+0	1.580591E+0	1.499739E+0	1.564517E+0	1.520969E+0	1.546286E+0	1.519752E+0	1.576071E+0	1.569229E+0	1.583743E+0	1.544275E+0	1.536109E+0	1.484463E+0	1.536784E+0	1.564694E+0	1.512803E+0	1.516565E+0	1.565129E+0	1.441600E+0	1.509932E+0
5.355730E+2	1.275641E+0	1.307673E+0	1.280398E+0	1.289816E+0	1.310325E+0	1.307573E+0	1.285543E+0	1.356229E+0	1.279974E+0	1.334496E+0	1.304032E+0	1.275775E+0	1.291059E+0	1.266596E+0	1.290499E+0	1.306877E+0	1.342888E+0	1.286479E+0	1.322077E+0	1.309646E+0	1.320977E+0	1.257749E+0	1.304292E+0	1.276155E+0	1.289334E+0	1.286916E+0	1.309945E+0	1.354397E+0	1.302713E+0	1.293905E+0	1.268312E+0	1.267876E+0	1.313725E+0	1.277124E+0	1.304920E+0	1.372081E+0	1.276745E+0	1.295416E+0	1.260348E+0	1.322280E+0	1.279716E+0	1.301639E+0	1.237678E+0	1.308223E+0	1.282134E+0	1.275280E+0	1.287892E+0	1.323359E+0	1.312981E+0	1.237925E+0	1.303846E+0	1.243611E+0	1.252868E+0	1.348386E+0	1.284943E+0	1.285189E+0	1.258053E+0	1.276531E+0	1.316834E+0	1.359923E+0	1.255887E+0	1.303180E+0	1.333291E+0	1.342611E+0	1.266100E+0	1.298524E+0	1.299268E+0	1.260575E+0	1.283060E+0	1.316863E+0	1.302117E+0	1.293021E+0	1.257451E+0	1.318910E+0	1.343905E+0	1.327049E+0	1.250893E+0	1.242043E+0	1.341273E+0	1.345908E+0	1.350143E+0	1.291112E+0	1.313344E+0	1.329605E+0	1.284677E+0	1.264514E+0	1.258017E+0	1.302998E+0	1.324373E+0	1.252737E+0	1.279613E+0	1.278559E+0	1.321421E+0	1.286737E+0	1.295296E+0	1.257529E+0	1.358246E+0	1.245994E+0	1.317832E+0	1.260417E+0	1.332206E+0	1.277864E+0	1.338719E+0	1.289036E+0	1.326558E+0	1.298708E+0	1.253329E+0	1.312315E+0	1.329859E+0	1.294794E+0	1.316981E+0	1.328451E+0	1.297007E+0	1.317462E+0	1.315089E+0	1.297514E+0	1.257805E+0	1.290222E+0	1.309792E+0	1.264635E+0	1.296585E+0	1.305580E+0	1.315777E+0	1.219658E+0	1.315829E+0	1.355037E+0	1.316439E+0	1.298252E+0	1.299484E+0	1.292163E+0	1.274961E+0	1.316164E+0	1.331167E+0	1.283662E+0	1.292941E+0	1.296230E+0	1.285462E+0	1.264508E+0	1.353539E+0	1.297057E+0	1.273101E+0	1.263501E+0	1.222248E+0	1.253893E+0	1.261044E+0	1.275107E+0	1.234357E+0	1.306821E+0	1.259850E+0	1.281025E+0	1.319015E+0	1.251086E+0	1.249905E+0	1.320805E+0	1.254297E+0	1.298447E+0	1.232012E+0	1.281968E+0	1.328516E+0	1.238593E+0	1.324041E+0	1.242633E+0	1.266351E+0	1.291095E+0	1.294038E+0	1.284271E+0	1.336887E+0	1.317280E+0	1.272806E+0	1.306269E+0	1.280294E+0	1.216245E+0
5.357090E+2	1.089544E+0	1.133307E+0	1.099377E+0	1.093890E+0	1.093940E+0	1.125795E+0	1.050781E+0	1.062641E+0	1.110356E+0	1.087124E+0	1.123560E+0	1.072415E+0	1.098043E+0	1.134525E+0	1.088616E+0	1.092283E+0	1.120084E+0	1.138210E+0	1.098609E+0	1.100302E+0	1.099022E+0	1.077028E+0	1.129912E+0	1.112001E+0	1.078987E+0	1.079974E+0	1.152443E+0	1.071253E+0	1.077280E+0	1.058365E+0	1.119222E+0	1.124733E+0	1.108028E+0	1.048787E+0	1.107860E+0	1.085111E+0	1.105086E+0	1.094699E+0	1.079659E+0	1.096572E+0	1.140534E+0	1.024744E+0	1.123808E+0	1.080523E+0	1.103330E+0	1.103275E+0	1.118810E+0	1.119976E+0	1.151080E+0	1.079391E+0	1.101206E+0	1.057006E+0	1.096006E+0	1.117542E+0	1.079634E+0	1.108887E+0	1.087130E+0	1.101740E+0	1.126395E+0	1.152523E+0	1.087913E+0	1.069769E+0	1.074584E+0	1.109555E+0	1.135265E+0	1.087584E+0	1.109980E+0	1.086393E+0	1.084265E+0	1.069891E+0	1.135217E+0	1.086630E+0	1.122436E+0	1.120556E+0	1.140770E+0	1.127778E+0	1.136035E+0	1.048431E+0	1.108811E+0	1.093088E+0	1.107793E+0	1.101332E+0	1.115546E+0	1.100666E+0	1.033356E+0	1.130403E+0	1.108911E+0	1.090297E+0	1.140618E+0	1.076149E+0	1.115631E+0	1.148926E+0	1.109881E+0	1.071404E+0	1.098002E+0	1.106380E+0	1.098823E+0	1.061892E+0	1.084415E+0	1.146617E+0	1.057070E+0	1.094171E+0	1.112431E+0	1.136297E+0	1.104436E+0	1.101039E+0	1.140704E+0	1.065831E+0	1.095347E+0	1.102780E+0	1.059074E+0	1.138225E+0	1.078815E+0	1.051484E+0	1.058329E+0	1.101560E+0	1.132674E+0	1.078466E+0	1.065156E+0	1.133739E+0	1.131785E+0	1.077384E+0	1.064398E+0	1.023012E+0	1.134839E+0	1.094731E+0	1.107319E+0	1.068115E+0	1.104136E+0	1.132345E+0	1.056114E+0	1.103352E+0	1.115756E+0	1.085759E+0	1.116706E+0	1.110082E+0	1.111369E+0	1.108046E+0	1.126513E+0	1.153026E+0	1.052587E+0	1.097450E+0	1.100320E+0	1.108331E+0	1.051228E+0	1.094573E+0	1.095467E+0	1.054358E+0	1.053802E+0	1.084448E+0	1.079368E+0	1.123707E+0	1.060968E+0	1.104880E+0	1.139543E+0	1.109284E+0	1.064116E+0	1.117910E+0	1.136394E+0	1.087140E+0	1.119938E+0	1.088520E+0	1.129181E+0	1.119221E+0	1.047844E+0	1.127279E+0	1.100802E+0	1.099251E+0	1.106387E+0	1.045223E+0	1.027450E+0	1.010781E+0
5.358710E+2	9.827369E-1	9.879648E-1	9.552192E-1	9.918983E-1	9.651813E-1	9.208402E-1	9.355019E-1	9.527109E-1	9.387735E-1	9.736851E-1	9.583888E-1	9.250912E-1	9.451690E-1	9.577183E-1	9.726817E-1	9.773258E-1	9.945653E-1	9.993335E-1	9.142570E-1	9.664159E-1	9.862887E-1	9.592347E-1	1.014862E+0	9.822188E-1	9.587025E-1	9.773849E-1	9.760740E-1	9.856120E-1	9.893976E-1	9.944202E-1	9.935222E-1	9.390200E-1	1.023144E+0	9.465880E-1	1.004851E+0	9.453115E-1	9.548535E-1	9.784788E-1	9.576543E-1	9.940188E-1	9.811086E-1	9.746356E-1	9.940519E-1	1.003209E+0	9.486982E-1	9.523566E-1	9.863432E-1	9.240787E-1	9.803310E-1	9.416075E-1	1.018203E+0	9.912817E-1	9.772215E-1	9.694465E-1	9.236834E-1	9.904388E-1	9.953065E-1	1.000310E+0	9.822545E-1	9.897205E-1	9.239277E-1	9.672845E-1	9.581196E-1	9.476770E-1	9.418186E-1	9.857689E-1	9.810562E-1	9.507116E-1	9.645486E-1	9.501798E-1	9.895786E-1	9.543121E-1	9.417971E-1	9.562731E-1	1.009874E+0	9.324479E-1	9.917547E-1	9.519353E-1	9.490274E-1	9.516075E-1	9.556556E-1	9.507088E-1	9.521166E-1	9.894124E-1	9.453215E-1	9.787383E-1	9.751091E-1	9.364735E-1	9.789324E-1	9.303198E-1	9.315009E-1	9.550513E-1	9.570283E-1	9.152947E-1	9.947099E-1	9.577481E-1	9.734381E-1	9.375535E-1	9.034492E-1	9.824748E-1	9.950173E-1	9.714302E-1	9.819698E-1	9.605269E-1	9.534883E-1	9.737809E-1	9.338156E-1	1.024702E+0	9.979236E-1	9.289744E-1	9.603203E-1	9.623699E-1	9.521602E-1	9.806049E-1	9.914466E-1	9.855041E-1	9.768215E-1	9.788685E-1	9.707469E-1	1.004851E+0	1.025123E+0	9.436635E-1	9.732414E-1	9.872739E-1	9.864525E-1	9.765359E-1	9.623114E-1	9.583404E-1	9.437520E-1	9.957696E-1	1.030165E+0	9.955420E-1	9.341355E-1	1.008709E+0	9.375234E-1	9.564914E-1	9.552870E-1	9.883103E-1	9.610715E-1	9.557681E-1	9.381916E-1	1.011562E+0	1.001790E+0	1.004728E+0	9.483516E-1	1.028471E+0	9.656330E-1	9.618759E-1	1.006764E+0	9.853035E-1	9.751332E-1	9.828705E-1	9.550561E-1	9.649085E-1	9.824507E-1	9.734174E-1	9.943874E-1	9.457819E-1	1.013062E+0	9.605160E-1	9.875743E-1	9.425412E-1	9.437853E-1	9.821214E-1	9.920463E-1	9.620389E-1	9.813184E-1	9.874570E-1	9.546146E-1	9.230810E-1	8.413520E-1	8.576496E-1
5.360170E+2	7.884596E-1	7.842707E-1	8.133375E-1	8.038734E-1	7.633633E-1	8.131048E-1	8.267517E-1	8.098426E-1	8.258228E-1	7.806898E-1	7.901885E-1	8.086017E-1	7.972128E-1	7.645172E-1	8.265619E-1	7.890059E-1	7.882817E-1	8.185795E-1	8.005961E-1	7.988104E-1	7.801402E-1	7.839007E-1	7.643667E-1	7.756558E-1	8.217605E-1	7.867488E-1	8.320944E-1	7.876202E-1	8.075327E-1	7.876450E-1	7.953834E-1	8.149333E-1	8.420687E-1	8.151547E-1	7.688448E-1	7.889399E-1	8.106543E-1	8.440300E-1	7.539164E-1	7.983447E-1	8.459275E-1	7.931895E-1	8.066572E-1	7.404661E-1	7.946844E-1	7.716149E-1	8.070047E-1	8.125011E-1	8.484172E-1	7.907165E-1	7.600836E-1	8.191162E-1	7.787479E-1	8.185185E-1	8.337763E-1	8.207982E-1	8.385599E-1	8.199670E-1	8.465327E-1	8.232983E-1	8.172048E-1	8.077325E-1	8.151499E-1	8.048135E-1	8.120942E-1	7.872271E-1	7.601509E-1	8.012891E-1	8.021482E-1	7.898470E-1	7.686928E-1	8.044452E-1	7.769454E-1	7.756479E-1	8.417817E-1	8.224182E-1	7.943882E-1	7.699642E-1	8.293102E-1	8.218811E-1	8.317259E-1	8.004841E-1	8.542167E-1	7.718612E-1	7.479805E-1	7.888400E-1	8.080269E-1	8.261800E-1	7.911567E-1	7.866947E-1	7.424676E-1	8.015912E-1	7.979434E-1	7.698842E-1	8.036732E-1	7.810945E-1	8.383569E-1	8.072472E-1	8.172104E-1	7.935986E-1	8.129242E-1	8.060869E-1	7.910079E-1	8.243605E-1	8.115508E-1	7.968618E-1	7.681214E-1	7.870615E-1	7.897575E-1	7.634974E-1	7.816216E-1	8.152910E-1	7.973670E-1	7.742364E-1	8.052273E-1	8.160217E-1	7.825674E-1	7.795371E-1	8.327841E-1	7.517625E-1	7.797113E-1	8.375393E-1	7.898187E-1	7.754943E-1	7.823656E-1	7.939794E-1	8.219326E-1	8.259259E-1	7.937374E-1	8.207787E-1	8.062033E-1	8.086683E-1	7.952116E-1	8.089307E-1	8.012411E-1	8.003623E-1	7.933263E-1	7.944022E-1	7.884413E-1	8.082365E-1	7.847983E-1	8.041381E-1	8.074945E-1	8.371483E-1	7.832769E-1	8.080324E-1	7.952755E-1	8.617697E-1	8.169387E-1	7.494899E-1	8.082876E-1	7.808237E-1	7.989356E-1	7.472016E-1	7.698669E-1	7.810504E-1	7.909291E-1	7.769707E-1	8.020633E-1	8.028708E-1	8.139084E-1	7.623657E-1	7.624585E-1	7.948257E-1	8.054508E-1	8.070537E-1	8.454102E-1	8.033468E-1	8.023450E-1	8.387890E-1	7.948015E-1	7.766370E-1
5.362630E+2	6.140261E-1	6.824187E-1	6.370526E-1	6.563032E-1	6.020252E-1	6.132340E-1	6.722019E-1	6.111872E-1	6.216507E-1	6.132302E-1	6.341214E-1	6.351874E-1	6.361930E-1	6.150283E-1	6.278320E-1	6.080457E-1	6.184541E-1	6.345749E-1	6.411168E-1	5.903570E-1	6.267020E-1	6.247341E-1	6.128619E-1	6.437230E-1	6.069944E-1	6.136756E-1	6.369171E-1	6.313283E-1	6.273644E-1	6.349971E-1	6.062172E-1	6.253460E-1	6.515013E-1	6.174568E-1	6.744459E-1	6.106464E-1	6.247963E-1	6.403234E-1	5.893906E-1	6.377408E-1	6.257949E-1	6.381377E-1	6.121930E-1	5.834624E-1	6.179488E-1	6.086965E-1	6.331917E-1	6.159091E-1	6.656968E-1	5.882431E-1	6.444784E-1	6.288573E-1	6.530577E-1	6.508682E-1	6.547611E-1	6.130730E-1	6.167590E-1	6.339609E-1	6.502185E-1	6.782285E-1	6.021119E-1	6.271933E-1	6.311515E-1	6.486243E-1	6.390293E-1	6.169048E-1	6.331622E-1	6.178156E-1	6.285447E-1	6.360755E-1	6.091039E-1	6.279336E-1	6.179275E-1	5.850617E-1	6.233061E-1	6.338594E-1	6.144146E-1	6.297387E-1	6.352558E-1	6.456556E-1	6.459493E-1	6.202202E-1	6.406033E-1	6.316230E-1	6.247131E-1	5.884644E-1	6.338128E-1	6.299429E-1	6.719529E-1	6.343372E-1	5.831252E-1	6.169016E-1	6.447324E-1	6.212939E-1	6.589476E-1	6.621132E-1	6.524691E-1	6.064091E-1	6.416955E-1	6.294154E-1	6.292380E-1	6.366275E-1	6.006625E-1	6.046255E-1	6.276711E-1	6.362190E-1	6.055992E-1	6.157645E-1	6.489855E-1	5.985633E-1	6.448670E-1	6.499870E-1	6.144096E-1	6.515239E-1	6.083241E-1	6.070198E-1	6.175611E-1	6.208293E-1	6.575433E-1	6.272709E-1	6.149778E-1	6.374357E-1	6.081128E-1	6.191165E-1	6.062580E-1	6.084900E-1	6.394515E-1	5.746892E-1	6.403989E-1	6.514612E-1	6.386156E-1	6.797550E-1	6.452357E-1	6.227913E-1	6.233567E-1	6.490773E-1	6.403452E-1	6.267029E-1	6.338688E-1	6.328152E-1	6.505268E-1	6.241033E-1	6.081808E-1	6.453117E-1	6.037468E-1	6.185077E-1	6.218924E-1	6.292349E-1	6.348194E-1	6.519580E-1	6.434101E-1	6.156731E-1	6.354662E-1	6.654536E-1	6.561561E-1	6.350391E-1	6.279102E-1	6.283964E-1	6.296966E-1	6.230918E-1	6.690633E-1	6.247249E-1	6.584110E-1	6.392815E-1	6.361251E-1	6.325955E-1	6.145216E-1	6.276023E-1	6.388911E-1	6.174281E-1	6.067939E-1	5.088148E-1
5.365140E+2	4.930641E-1	4.997771E-1	4.807430E-1	5.156468E-1	5.151848E-1	5.130625E-1	4.792386E-1	5.202984E-1	4.878493E-1	5.141890E-1	5.106596E-1	5.255776E-1	4.971349E-1	5.054220E-1	4.953193E-1	5.023946E-1	5.377850E-1	5.050440E-1	5.206733E-1	5.142970E-1	4.754933E-1	4.981895E-1	4.896130E-1	4.857576E-1	4.876396E-1	4.902356E-1	4.780492E-1	5.081596E-1	5.020843E-1	5.059748E-1	5.135670E-1	5.059771E-1	5.335969E-1	5.080445E-1	5.457289E-1	4.986901E-1	5.122713E-1	5.113757E-1	5.267979E-1	5.287582E-1	4.968084E-1	5.162930E-1	4.893741E-1	5.112733E-1	5.191114E-1	5.300648E-1	4.993585E-1	5.003014E-1	5.095479E-1	4.718352E-1	5.139911E-1	5.264297E-1	5.111598E-1	5.189236E-1	5.059251E-1	5.411424E-1	5.056805E-1	5.253418E-1	5.381243E-1	5.272890E-1	4.992643E-1	5.169227E-1	5.009284E-1	5.214649E-1	5.079219E-1	4.987551E-1	5.136010E-1	5.349413E-1	5.098821E-1	5.245526E-1	5.056457E-1	4.942467E-1	5.186107E-1	5.077597E-1	5.431801E-1	5.339264E-1	5.229745E-1	4.950370E-1	5.108430E-1	5.267233E-1	5.192313E-1	4.860761E-1	5.038241E-1	5.157539E-1	4.857208E-1	5.251431E-1	5.121222E-1	5.235603E-1	5.202573E-1	4.890396E-1	5.051101E-1	5.276330E-1	5.078602E-1	4.959239E-1	5.519729E-1	5.051662E-1	5.127717E-1	4.986459E-1	5.040216E-1	4.952809E-1	5.146255E-1	4.784771E-1	4.903146E-1	5.467395E-1	5.321888E-1	5.189883E-1	5.198725E-1	5.327608E-1	5.306050E-1	5.577938E-1	5.330409E-1	5.339716E-1	5.032361E-1	5.027881E-1	5.243332E-1	5.046012E-1	5.241060E-1	5.201875E-1	5.200845E-1	4.865114E-1	5.505949E-1	5.315593E-1	5.310820E-1	5.189050E-1	5.317119E-1	5.053958E-1	5.325800E-1	5.404342E-1	5.369945E-1	5.051664E-1	4.881888E-1	5.463749E-1	5.173081E-1	5.224797E-1	5.345386E-1	5.273084E-1	5.304419E-1	4.920395E-1	5.450671E-1	5.050993E-1	5.260351E-1	5.201373E-1	5.050116E-1	5.005374E-1	5.019400E-1	5.369372E-1	5.239170E-1	5.086758E-1	5.344893E-1	5.194513E-1	5.208038E-1	5.235176E-1	5.287906E-1	5.056026E-1	4.810220E-1	5.361062E-1	5.009377E-1	5.259129E-1	5.301646E-1	5.173102E-1	5.369482E-1	5.343988E-1	5.127229E-1	5.265893E-1	4.983442E-1	5.322499E-1	5.466472E-1	5.060816E-1	5.273808E-1	5.603849E-1	4.842464E-1	5.656702E-1
5.367660E+2	4.497506E-1	5.012155E-1	4.607848E-1	4.570794E-1	4.536874E-1	4.695278E-1	4.496104E-1	4.431561E-1	4.507954E-1	4.222927E-1	4.343800E-1	4.394652E-1	4.680878E-1	4.212627E-1	4.745523E-1	4.816900E-1	4.466619E-1	4.356620E-1	4.690811E-1	4.606983E-1	4.323804E-1	4.349975E-1	4.443151E-1	4.678556E-1	4.592657E-1	4.548601E-1	4.566886E-1	4.738180E-1	4.332757E-1	4.596903E-1	4.837990E-1	4.524002E-1	4.405287E-1	4.530021E-1	4.480270E-1	4.419194E-1	4.521101E-1	4.949100E-1	4.807216E-1	4.435152E-1	4.695341E-1	4.558021E-1	4.608450E-1	4.730551E-1	4.577920E-1	4.432422E-1	4.732939E-1	4.224319E-1	4.585223E-1	4.612673E-1	4.326354E-1	4.886612E-1	4.694648E-1	4.926766E-1	4.659476E-1	4.447158E-1	4.488761E-1	4.722891E-1	4.417757E-1	4.561438E-1	4.438483E-1	4.528447E-1	4.243520E-1	4.522690E-1	4.648114E-1	4.573943E-1	4.327944E-1	4.402268E-1	4.349663E-1	4.775861E-1	4.408417E-1	4.365917E-1	4.684906E-1	4.702234E-1	4.844785E-1	4.468436E-1	4.448637E-1	4.503632E-1	4.576935E-1	4.614023E-1	4.509397E-1	4.543606E-1	4.783490E-1	4.898482E-1	4.517972E-1	4.526059E-1	4.390564E-1	4.664682E-1	4.665904E-1	4.636626E-1	4.597723E-1	4.453399E-1	4.654202E-1	4.498834E-1	4.631134E-1	4.634875E-1	4.427520E-1	4.413727E-1	4.540739E-1	4.506203E-1	4.769355E-1	4.312630E-1	4.712138E-1	4.462902E-1	4.466245E-1	4.381459E-1	4.511435E-1	4.566626E-1	4.673904E-1	4.437388E-1	4.519225E-1	4.552456E-1	4.570769E-1	4.473520E-1	4.868646E-1	4.648130E-1	4.664645E-1	4.524936E-1	4.769967E-1	4.631926E-1	4.696444E-1	4.590230E-1	4.809626E-1	4.342904E-1	4.806630E-1	4.635877E-1	4.931595E-1	4.272311E-1	4.746013E-1	4.852917E-1	4.807908E-1	4.789979E-1	4.485223E-1	4.839307E-1	4.518284E-1	4.609836E-1	4.592564E-1	4.671640E-1	4.205171E-1	4.534281E-1	4.479137E-1	4.979198E-1	4.828543E-1	4.536236E-1	4.638577E-1	4.862204E-1	4.657876E-1	4.842317E-1	4.391130E-1	4.575234E-1	4.551528E-1	4.594531E-1	4.671431E-1	4.259557E-1	4.677809E-1	4.230297E-1	4.602027E-1	4.648932E-1	4.726110E-1	4.919989E-1	4.262832E-1	4.413151E-1	4.781329E-1	4.390233E-1	4.565162E-1	4.798786E-1	4.617092E-1	4.671862E-1	4.490375E-1	4.644115E-1	4.965146E-1	3.986059E-1
5.370070E+2	4.064977E-1	4.252294E-1	4.395874E-1	4.858205E-1	4.257498E-1	4.604023E-1	4.494757E-1	4.173140E-1	4.320618E-1	4.479050E-1	4.217774E-1	4.556188E-1	4.691280E-1	4.444471E-1	4.810318E-1	4.263985E-1	4.579698E-1	4.430407E-1	4.305435E-1	4.632305E-1	4.372810E-1	4.442120E-1	4.475583E-1	4.270033E-1	4.782420E-1	4.436862E-1	4.404561E-1	4.510022E-1	4.401344E-1	4.611711E-1	4.529478E-1	4.481923E-1	4.498657E-1	4.540135E-1	4.406309E-1	4.490003E-1	4.393975E-1	4.650472E-1	4.518431E-1	4.714614E-1	4.742497E-1	4.748564E-1	4.645411E-1	4.572119E-1	4.577606E-1	4.381021E-1	4.266636E-1	4.707198E-1	4.488468E-1	4.340067E-1	4.377882E-1	4.600524E-1	4.885899E-1	4.385054E-1	4.490331E-1	4.523502E-1	4.507072E-1	4.405674E-1	4.559125E-1	4.619355E-1	4.698453E-1	4.515832E-1	4.366213E-1	4.496758E-1	4.329375E-1	4.667808E-1	4.671983E-1	4.407384E-1	4.544092E-1	4.631123E-1	4.285047E-1	4.548321E-1	4.517963E-1	4.435907E-1	4.835655E-1	4.506527E-1	4.313852E-1	4.198715E-1	4.568162E-1	4.658736E-1	4.530747E-1	4.232886E-1	4.478708E-1	4.531628E-1	4.319816E-1	4.627738E-1	4.434797E-1	4.289805E-1	4.607214E-1	4.342018E-1	4.872696E-1	4.283554E-1	4.524500E-1	4.466701E-1	4.229662E-1	4.361493E-1	4.424997E-1	4.627272E-1	4.903507E-1	4.583326E-1	4.433386E-1	4.578942E-1	4.408964E-1	4.436014E-1	4.810514E-1	4.377258E-1	4.442392E-1	4.727428E-1	4.525186E-1	4.472743E-1	4.382417E-1	4.747978E-1	4.389158E-1	4.182484E-1	4.328032E-1	4.546870E-1	4.773392E-1	4.465084E-1	4.634966E-1	4.322846E-1	4.640346E-1	4.470679E-1	4.389052E-1	4.581449E-1	4.255431E-1	4.485246E-1	4.422297E-1	4.569754E-1	4.656933E-1	4.784573E-1	4.492013E-1	4.450007E-1	4.397058E-1	4.365891E-1	4.243649E-1	4.636773E-1	4.380435E-1	4.762782E-1	4.734719E-1	4.704630E-1	4.575413E-1	4.811626E-1	4.852823E-1	4.550509E-1	4.406080E-1	4.577334E-1	4.297967E-1	4.507305E-1	4.613233E-1	4.443484E-1	4.332917E-1	4.506556E-1	4.403696E-1	4.910010E-1	4.565926E-1	4.434147E-1	4.578635E-1	4.579419E-1	4.586955E-1	4.513931E-1	4.957176E-1	4.433532E-1	4.356238E-1	4.569069E-1	4.492791E-1	4.603702E-1	4.860803E-1	4.647862E-1	4.567291E-1	4.845285E-1	4.288461E-1	4.266471E-1
5.372690E+2	4.834003E-1	4.770523E-1	4.607708E-1	4.526674E-1	4.540040E-1	4.799536E-1	4.961000E-1	4.599688E-1	4.468362E-1	4.749509E-1	4.666045E-1	4.544394E-1	4.857291E-1	4.880904E-1	4.452353E-1	4.975550E-1	4.775292E-1	4.425466E-1	4.582730E-1	4.745147E-1	4.819728E-1	4.382658E-1	4.915683E-1	4.832317E-1	4.585646E-1	4.352258E-1	4.410359E-1	4.579357E-1	4.920212E-1	4.652692E-1	4.840936E-1	5.047873E-1	4.464071E-1	4.668610E-1	5.081268E-1	4.771473E-1	4.797828E-1	4.600930E-1	4.771657E-1	4.646770E-1	4.771259E-1	4.729083E-1	4.662802E-1	4.660790E-1	4.470636E-1	4.668903E-1	5.106781E-1	5.069357E-1	4.959204E-1	4.625017E-1	4.612345E-1	4.801360E-1	4.807195E-1	4.903887E-1	5.001503E-1	4.736880E-1	4.630025E-1	5.169089E-1	4.603908E-1	4.960158E-1	5.009430E-1	4.788480E-1	4.541771E-1	4.867450E-1	4.703125E-1	5.039746E-1	4.440722E-1	4.650136E-1	5.011708E-1	4.915623E-1	4.995797E-1	4.808774E-1	4.575548E-1	4.870274E-1	5.107459E-1	4.616290E-1	5.022563E-1	4.685837E-1	4.918613E-1	4.730864E-1	4.773974E-1	5.166329E-1	4.451993E-1	4.885462E-1	4.886943E-1	4.865447E-1	4.968093E-1	4.727570E-1	5.158130E-1	4.545548E-1	5.009228E-1	4.991610E-1	4.994425E-1	4.651781E-1	5.022540E-1	4.994692E-1	4.961184E-1	4.507754E-1	4.711042E-1	4.776466E-1	5.007428E-1	4.610612E-1	4.366165E-1	4.819041E-1	4.950290E-1	4.915692E-1	4.936410E-1	4.798096E-1	4.746708E-1	4.918155E-1	4.703808E-1	5.130525E-1	4.791434E-1	4.698016E-1	4.952658E-1	4.688518E-1	4.828403E-1	4.602003E-1	4.815459E-1	4.787588E-1	4.850488E-1	4.728481E-1	4.918484E-1	4.746070E-1	4.719016E-1	4.781982E-1	4.745296E-1	4.613634E-1	4.912998E-1	4.606060E-1	5.004535E-1	5.273248E-1	5.140723E-1	4.780029E-1	4.789837E-1	4.745276E-1	4.419376E-1	4.756633E-1	4.778204E-1	4.669585E-1	5.048609E-1	4.609421E-1	4.805137E-1	4.924278E-1	4.567117E-1	5.003198E-1	4.644753E-1	4.569634E-1	4.707062E-1	4.543399E-1	4.876815E-1	4.725882E-1	4.681923E-1	4.810764E-1	4.959186E-1	5.297009E-1	4.661497E-1	4.616426E-1	4.814523E-1	4.631556E-1	5.145875E-1	4.957238E-1	4.971882E-1	4.786865E-1	4.586886E-1	4.951944E-1	4.875390E-1	4.786069E-1	4.778192E-1	4.473657E-1	4.678411E-1	5.189098E-1
5.375110E+2	5.850367E-1	5.562788E-1	5.733269E-1	5.684194E-1	5.550522E-1	5.709814E-1	5.415502E-1	5.615566E-1	5.684320E-1	5.912033E-1	5.403566E-1	5.474302E-1	5.196620E-1	5.370475E-1	5.669001E-1	5.716830E-1	5.667154E-1	5.451406E-1	5.443516E-1	5.558620E-1	5.732731E-1	5.421582E-1	5.558155E-1	5.389189E-1	5.569182E-1	5.565430E-1	5.871486E-1	5.459389E-1	5.448294E-1	5.502653E-1	5.337536E-1	5.744969E-1	5.703714E-1	5.383440E-1	5.879949E-1	5.452106E-1	5.615994E-1	5.752750E-1	5.485355E-1	5.759065E-1	5.834611E-1	5.478159E-1	5.551277E-1	5.503034E-1	5.280510E-1	5.410455E-1	5.624578E-1	5.726461E-1	5.823014E-1	5.784001E-1	5.526278E-1	5.848689E-1	5.771229E-1	5.732639E-1	5.679578E-1	5.408548E-1	5.506768E-1	5.616553E-1	5.644690E-1	5.678529E-1	5.856187E-1	5.319139E-1	5.658032E-1	5.665377E-1	5.231992E-1	5.699574E-1	5.410260E-1	5.689907E-1	5.741379E-1	5.701856E-1	5.708568E-1	5.472532E-1	5.535303E-1	5.681951E-1	5.977302E-1	5.797098E-1	5.729602E-1	5.648580E-1	5.326547E-1	5.648002E-1	5.706448E-1	5.967735E-1	5.533972E-1	5.211933E-1	5.374882E-1	5.509848E-1	5.684551E-1	5.371934E-1	5.761116E-1	5.651571E-1	5.455281E-1	5.785457E-1	5.600736E-1	5.647875E-1	5.312806E-1	5.697473E-1	5.765200E-1	5.636070E-1	5.962491E-1	5.541526E-1	5.610718E-1	5.737263E-1	5.401279E-1	5.713324E-1	5.630916E-1	5.561447E-1	5.542259E-1	5.451739E-1	5.951095E-1	5.704126E-1	5.528646E-1	5.731603E-1	5.247966E-1	5.929804E-1	5.395991E-1	5.532141E-1	6.074409E-1	5.660286E-1	5.489531E-1	5.794230E-1	5.784544E-1	5.264860E-1	5.690205E-1	5.442729E-1	5.555412E-1	5.477490E-1	5.708330E-1	5.703794E-1	5.600995E-1	5.337233E-1	5.490016E-1	6.179435E-1	5.986299E-1	5.525819E-1	5.638857E-1	5.499579E-1	5.716444E-1	5.312761E-1	5.485928E-1	5.614430E-1	5.178327E-1	5.532582E-1	5.589775E-1	5.436425E-1	5.392748E-1	5.793614E-1	6.136324E-1	5.492095E-1	5.389764E-1	5.351674E-1	5.555519E-1	5.729920E-1	5.464163E-1	5.947568E-1	5.629886E-1	5.742580E-1	5.798081E-1	5.586047E-1	5.574984E-1	5.701566E-1	5.854666E-1	5.465086E-1	5.473658E-1	5.858994E-1	5.219808E-1	5.855446E-1	6.079016E-1	5.637771E-1	5.434149E-1	5.547517E-1	5.931802E-1	5.344369E-1
5.377690E+2	6.559705E-1	6.648748E-1	6.477761E-1	6.702735E-1	6.488009E-1	6.914103E-1	6.518740E-1	6.562848E-1	6.726951E-1	6.652037E-1	6.388726E-1	6.702568E-1	6.478131E-1	6.573769E-1	6.746298E-1	6.418595E-1	6.389469E-1	6.820751E-1	6.809453E-1	6.682383E-1	6.777838E-1	6.669150E-1	6.533713E-1	6.704816E-1	6.824528E-1	6.673895E-1	6.959861E-1	6.606964E-1	6.646107E-1	6.915124E-1	6.876044E-1	7.070337E-1	6.814232E-1	6.973431E-1	6.712182E-1	6.501806E-1	6.710310E-1	6.954783E-1	6.617130E-1	7.016284E-1	6.835238E-1	6.466169E-1	6.814601E-1	6.477008E-1	6.632615E-1	6.546683E-1	6.496807E-1	6.512112E-1	6.705195E-1	6.775122E-1	6.393099E-1	6.359341E-1	6.697904E-1	6.715064E-1	6.677886E-1	6.636859E-1	6.868605E-1	6.775745E-1	6.395687E-1	6.503105E-1	6.749958E-1	6.741164E-1	6.266833E-1	6.960965E-1	6.496642E-1	6.593688E-1	6.607156E-1	6.747960E-1	6.739822E-1	6.731489E-1	6.581922E-1	6.463088E-1	6.849821E-1	6.819480E-1	7.002615E-1	6.871511E-1	6.677066E-1	6.580952E-1	6.906344E-1	6.601527E-1	6.438603E-1	6.527703E-1	6.407441E-1	6.690971E-1	6.572424E-1	6.492392E-1	6.518004E-1	6.671672E-1	7.092998E-1	6.710919E-1	6.328281E-1	6.760005E-1	6.578834E-1	6.671349E-1	6.664495E-1	6.717125E-1	6.788363E-1	6.439392E-1	6.530093E-1	6.414210E-1	6.942167E-1	6.680458E-1	6.438415E-1	6.460903E-1	6.979405E-1	6.858525E-1	6.618298E-1	6.765510E-1	7.030195E-1	6.642293E-1	6.408294E-1	6.912013E-1	6.413229E-1	6.763094E-1	6.520043E-1	6.811021E-1	6.591541E-1	6.506606E-1	6.473339E-1	6.565253E-1	6.799825E-1	6.847533E-1	6.664837E-1	6.748256E-1	6.749166E-1	6.720609E-1	6.588390E-1	6.513284E-1	6.896043E-1	6.702263E-1	6.243923E-1	6.805663E-1	7.002847E-1	6.708443E-1	6.860102E-1	6.658062E-1	6.924885E-1	6.495395E-1	6.643365E-1	7.013638E-1	7.052728E-1	6.764310E-1	6.773350E-1	6.850971E-1	6.820623E-1	6.228716E-1	6.713867E-1	6.720572E-1	6.451634E-1	6.768695E-1	6.700399E-1	6.564760E-1	6.521900E-1	6.793072E-1	6.843087E-1	6.823713E-1	6.624008E-1	6.905033E-1	6.434429E-1	7.064839E-1	6.658395E-1	6.649548E-1	6.655202E-1	6.606449E-1	6.576511E-1	7.107907E-1	6.830365E-1	6.510926E-1	6.439622E-1	6.618624E-1	7.192176E-1	7.550359E-1
5.380110E+2	8.332646E-1	8.491048E-1	8.052674E-1	7.906403E-1	8.298216E-1	8.355023E-1	7.718215E-1	8.035179E-1	8.106872E-1	8.421285E-1	8.182346E-1	7.797606E-1	7.661827E-1	8.109544E-1	8.358503E-1	8.002580E-1	8.006144E-1	8.099358E-1	7.805999E-1	8.157210E-1	7.920340E-1	8.395743E-1	8.101274E-1	7.582078E-1	7.818532E-1	8.245793E-1	8.354370E-1	8.054799E-1	8.225894E-1	7.739689E-1	8.039837E-1	8.296769E-1	8.275568E-1	8.089409E-1	8.201659E-1	8.047785E-1	8.291794E-1	8.506632E-1	8.077363E-1	8.072904E-1	8.673190E-1	7.700007E-1	8.092363E-1	7.945395E-1	7.963358E-1	8.104016E-1	7.990891E-1	8.014824E-1	8.129026E-1	7.668102E-1	7.931899E-1	8.368079E-1	8.052117E-1	8.224246E-1	7.992020E-1	8.473863E-1	8.274230E-1	8.372953E-1	7.778066E-1	8.275622E-1	7.942618E-1	8.281819E-1	8.038805E-1	8.456527E-1	8.046274E-1	8.289751E-1	8.211922E-1	8.226019E-1	8.223613E-1	8.055290E-1	7.924745E-1	8.020170E-1	8.145695E-1	8.247480E-1	8.562030E-1	8.549013E-1	8.059095E-1	7.692832E-1	8.129745E-1	7.959971E-1	8.104529E-1	8.180614E-1	7.810557E-1	8.258842E-1	8.403654E-1	8.143072E-1	8.507142E-1	8.373423E-1	8.754614E-1	7.601270E-1	7.858226E-1	8.019476E-1	8.174514E-1	7.785774E-1	7.520101E-1	8.422248E-1	8.075900E-1	7.908467E-1	8.106860E-1	8.047271E-1	8.392115E-1	8.256334E-1	7.969166E-1	7.785391E-1	8.355533E-1	7.993161E-1	8.191471E-1	8.139663E-1	8.207911E-1	7.887898E-1	8.164226E-1	8.504594E-1	7.483239E-1	7.960669E-1	8.133979E-1	8.280357E-1	8.135025E-1	7.851618E-1	8.254451E-1	8.030124E-1	8.591441E-1	7.968390E-1	8.095612E-1	8.043779E-1	8.124000E-1	8.046556E-1	7.874133E-1	8.064687E-1	7.980815E-1	7.773881E-1	8.268151E-1	8.177992E-1	8.108646E-1	8.014105E-1	8.008247E-1	8.443753E-1	8.300752E-1	7.986697E-1	7.852080E-1	8.163300E-1	8.163419E-1	8.492179E-1	8.324062E-1	8.106246E-1	8.226981E-1	7.961790E-1	8.055471E-1	8.018588E-1	8.550448E-1	8.326574E-1	8.447382E-1	8.294694E-1	8.036020E-1	8.133629E-1	8.398706E-1	8.110269E-1	7.650975E-1	8.150623E-1	7.927290E-1	8.123798E-1	8.679258E-1	8.248663E-1	7.840078E-1	8.401639E-1	8.060958E-1	8.136986E-1	8.309910E-1	8.158555E-1	7.573609E-1	7.807494E-1	8.230940E-1	7.920290E-1
5.382690E+2	1.007084E+0	9.548513E-1	1.008068E+0	1.012809E+0	1.034068E+0	1.032493E+0	9.776020E-1	9.847827E-1	1.003519E+0	1.020365E+0	9.667044E-1	1.000201E+0	9.954882E-1	1.009313E+0	9.403584E-1	1.015153E+0	1.000865E+0	1.009771E+0	9.815947E-1	1.033298E+0	9.941097E-1	9.918611E-1	9.988997E-1	1.005447E+0	9.720744E-1	1.017458E+0	1.007983E+0	1.042711E+0	1.023143E+0	9.887550E-1	9.521609E-1	1.021719E+0	9.979097E-1	9.999840E-1	1.005969E+0	1.014255E+0	9.666845E-1	1.021413E+0	9.889541E-1	9.976412E-1	1.004059E+0	9.870052E-1	9.772521E-1	1.001158E+0	1.018816E+0	9.838890E-1	9.950727E-1	9.995813E-1	1.002290E+0	9.988750E-1	1.000681E+0	9.966316E-1	9.459254E-1	1.010810E+0	1.003979E+0	9.989748E-1	1.059275E+0	9.975379E-1	9.839859E-1	1.044106E+0	9.722482E-1	9.358954E-1	9.509266E-1	1.012312E+0	9.913749E-1	1.015805E+0	9.690317E-1	9.585719E-1	1.003403E+0	9.692402E-1	9.945386E-1	9.990673E-1	9.612172E-1	1.015779E+0	9.649028E-1	1.020453E+0	1.002423E+0	9.443027E-1	9.376342E-1	9.741665E-1	9.413187E-1	1.018782E+0	9.868580E-1	1.009455E+0	1.022573E+0	9.410104E-1	9.700305E-1	1.039083E+0	1.026760E+0	9.948360E-1	1.000419E+0	1.011704E+0	9.978715E-1	9.796348E-1	9.854296E-1	1.034873E+0	1.021401E+0	9.923866E-1	9.826201E-1	1.042700E+0	1.016512E+0	1.012468E+0	9.909843E-1	9.909561E-1	9.875617E-1	9.446879E-1	9.842245E-1	1.017988E+0	1.002105E+0	9.855968E-1	9.588142E-1	9.630884E-1	9.958667E-1	9.543958E-1	9.874029E-1	1.038388E+0	9.767637E-1	9.920705E-1	9.697003E-1	9.485682E-1	1.005284E+0	9.801074E-1	9.858214E-1	9.838860E-1	9.555998E-1	1.012274E+0	9.562430E-1	1.004152E+0	9.952611E-1	9.983193E-1	9.746882E-1	1.064768E+0	9.548659E-1	9.966989E-1	9.831808E-1	1.015167E+0	1.035291E+0	9.996822E-1	1.003851E+0	1.029951E+0	9.680746E-1	1.026085E+0	9.569393E-1	1.002979E+0	9.707568E-1	9.213816E-1	1.005137E+0	1.013522E+0	1.018723E+0	9.803783E-1	1.078299E+0	1.013014E+0	9.990622E-1	9.685292E-1	9.961537E-1	9.659553E-1	9.498099E-1	9.933968E-1	9.720164E-1	9.654869E-1	9.990677E-1	9.949695E-1	9.328659E-1	1.020528E+0	9.895369E-1	1.012794E+0	1.011421E+0	1.090827E+0	9.877066E-1	9.747911E-1	1.033997E+0	9.989540E-1
5.385110E+2	1.228913E+0	1.216904E+0	1.211605E+0	1.252236E+0	1.238927E+0	1.288662E+0	1.256802E+0	1.219602E+0	1.262380E+0	1.247154E+0	1.261726E+0	1.245894E+0	1.229528E+0	1.240081E+0	1.215986E+0	1.245609E+0	1.257704E+0	1.242854E+0	1.205250E+0	1.185348E+0	1.266820E+0	1.247252E+0	1.212605E+0	1.230466E+0	1.265173E+0	1.235232E+0	1.275187E+0	1.223099E+0	1.209667E+0	1.258994E+0	1.224923E+0	1.250637E+0	1.254080E+0	1.228984E+0	1.245170E+0	1.204761E+0	1.237088E+0	1.285140E+0	1.198163E+0	1.257618E+0	1.238533E+0	1.204423E+0	1.229108E+0	1.207083E+0	1.234896E+0	1.224983E+0	1.223337E+0	1.256316E+0	1.247945E+0	1.266571E+0	1.207160E+0	1.268969E+0	1.235654E+0	1.240755E+0	1.216903E+0	1.261258E+0	1.245974E+0	1.221731E+0	1.186225E+0	1.286006E+0	1.279949E+0	1.237852E+0	1.200190E+0	1.177620E+0	1.236922E+0	1.217881E+0	1.272202E+0	1.225983E+0	1.171878E+0	1.312383E+0	1.226926E+0	1.191776E+0	1.251765E+0	1.256065E+0	1.273513E+0	1.248032E+0	1.256108E+0	1.233619E+0	1.185186E+0	1.224927E+0	1.234294E+0	1.224824E+0	1.230213E+0	1.193380E+0	1.262647E+0	1.238819E+0	1.265171E+0	1.180374E+0	1.229520E+0	1.236293E+0	1.199929E+0	1.200332E+0	1.223219E+0	1.237360E+0	1.245758E+0	1.228314E+0	1.263354E+0	1.256480E+0	1.261269E+0	1.287504E+0	1.256630E+0	1.228066E+0	1.217337E+0	1.262792E+0	1.214401E+0	1.226446E+0	1.233201E+0	1.213162E+0	1.213636E+0	1.231284E+0	1.218178E+0	1.252157E+0	1.209436E+0	1.208726E+0	1.248746E+0	1.191583E+0	1.244128E+0	1.215040E+0	1.260699E+0	1.219272E+0	1.282880E+0	1.258247E+0	1.281921E+0	1.263182E+0	1.278336E+0	1.245940E+0	1.189848E+0	1.203219E+0	1.204792E+0	1.220483E+0	1.212576E+0	1.294600E+0	1.246880E+0	1.214194E+0	1.227094E+0	1.232238E+0	1.238207E+0	1.260827E+0	1.219447E+0	1.211585E+0	1.230704E+0	1.243223E+0	1.218755E+0	1.214590E+0	1.219182E+0	1.197951E+0	1.240750E+0	1.199515E+0	1.247834E+0	1.233487E+0	1.226873E+0	1.232482E+0	1.216432E+0	1.259427E+0	1.220918E+0	1.234101E+0	1.227635E+0	1.195450E+0	1.210353E+0	1.232982E+0	1.227829E+0	1.206322E+0	1.233224E+0	1.242904E+0	1.239062E+0	1.229617E+0	1.285875E+0	1.239586E+0	1.208895E+0	1.176122E+0	1.177286E+0	1.213643E+0
5.387750E+2	1.480105E+0	1.487466E+0	1.456484E+0	1.532110E+0	1.464009E+0	1.471621E+0	1.470655E+0	1.446340E+0	1.488628E+0	1.415984E+0	1.452663E+0	1.491595E+0	1.485892E+0	1.468013E+0	1.434691E+0	1.489347E+0	1.467323E+0	1.501673E+0	1.494528E+0	1.415292E+0	1.467455E+0	1.436126E+0	1.470263E+0	1.436443E+0	1.463282E+0	1.450974E+0	1.477617E+0	1.498353E+0	1.491706E+0	1.513107E+0	1.446197E+0	1.450479E+0	1.472111E+0	1.438357E+0	1.526994E+0	1.523028E+0	1.492670E+0	1.444521E+0	1.463852E+0	1.448633E+0	1.440683E+0	1.470770E+0	1.460391E+0	1.478620E+0	1.474864E+0	1.415386E+0	1.511255E+0	1.476059E+0	1.459080E+0	1.456232E+0	1.430548E+0	1.477717E+0	1.543070E+0	1.493414E+0	1.463659E+0	1.487935E+0	1.474563E+0	1.426587E+0	1.525683E+0	1.465041E+0	1.454816E+0	1.483488E+0	1.439069E+0	1.506958E+0	1.446177E+0	1.417238E+0	1.490312E+0	1.477736E+0	1.415110E+0	1.476393E+0	1.445492E+0	1.468381E+0	1.553094E+0	1.491050E+0	1.520436E+0	1.445611E+0	1.471708E+0	1.382465E+0	1.473148E+0	1.497993E+0	1.503286E+0	1.474655E+0	1.462716E+0	1.463891E+0	1.419043E+0	1.414622E+0	1.454105E+0	1.468265E+0	1.498377E+0	1.399029E+0	1.384476E+0	1.472976E+0	1.452263E+0	1.420514E+0	1.423348E+0	1.486550E+0	1.489008E+0	1.447468E+0	1.461618E+0	1.455815E+0	1.490870E+0	1.370088E+0	1.494831E+0	1.481486E+0	1.448516E+0	1.437942E+0	1.381081E+0	1.518924E+0	1.471359E+0	1.450155E+0	1.445029E+0	1.549079E+0	1.469830E+0	1.502160E+0	1.465342E+0	1.444364E+0	1.478235E+0	1.448069E+0	1.440951E+0	1.444303E+0	1.448888E+0	1.431410E+0	1.433261E+0	1.415615E+0	1.467646E+0	1.449355E+0	1.429779E+0	1.439244E+0	1.459345E+0	1.431474E+0	1.470422E+0	1.489663E+0	1.478611E+0	1.469067E+0	1.462149E+0	1.457383E+0	1.453870E+0	1.399676E+0	1.450097E+0	1.437533E+0	1.451416E+0	1.436274E+0	1.379069E+0	1.519425E+0	1.394799E+0	1.469121E+0	1.402913E+0	1.500907E+0	1.415438E+0	1.480637E+0	1.518246E+0	1.464024E+0	1.411993E+0	1.462326E+0	1.435019E+0	1.447183E+0	1.406408E+0	1.400674E+0	1.458500E+0	1.469125E+0	1.469406E+0	1.419848E+0	1.435282E+0	1.498799E+0	1.425270E+0	1.450012E+0	1.438580E+0	1.494625E+0	1.418632E+0	1.408696E+0	1.404674E+0	1.464077E+0
5.390180E+2	1.659847E+0	1.709798E+0	1.694617E+0	1.652619E+0	1.642233E+0	1.679460E+0	1.677709E+0	1.662341E+0	1.636598E+0	1.624800E+0	1.624300E+0	1.629168E+0	1.669824E+0	1.676171E+0	1.674687E+0	1.695414E+0	1.716188E+0	1.624659E+0	1.675559E+0	1.612648E+0	1.686630E+0	1.621830E+0	1.613149E+0	1.610506E+0	1.651485E+0	1.702590E+0	1.667777E+0	1.633589E+0	1.664455E+0	1.669331E+0	1.665592E+0	1.644379E+0	1.676947E+0	1.622563E+0	1.670191E+0	1.655799E+0	1.676614E+0	1.674962E+0	1.649481E+0	1.644269E+0	1.632539E+0	1.630208E+0	1.642104E+0	1.633436E+0	1.646132E+0	1.663289E+0	1.695042E+0	1.668474E+0	1.632251E+0	1.631760E+0	1.640829E+0	1.614295E+0	1.604152E+0	1.723618E+0	1.613636E+0	1.673576E+0	1.678266E+0	1.706699E+0	1.666806E+0	1.690501E+0	1.645479E+0	1.657086E+0	1.595050E+0	1.684599E+0	1.622777E+0	1.681833E+0	1.629382E+0	1.627010E+0	1.659326E+0	1.647636E+0	1.624046E+0	1.627159E+0	1.658735E+0	1.672056E+0	1.619589E+0	1.673634E+0	1.689813E+0	1.628327E+0	1.646151E+0	1.687707E+0	1.656498E+0	1.658988E+0	1.601264E+0	1.639459E+0	1.599410E+0	1.654582E+0	1.646568E+0	1.655265E+0	1.693037E+0	1.572230E+0	1.611348E+0	1.697203E+0	1.668065E+0	1.549618E+0	1.611952E+0	1.634527E+0	1.727518E+0	1.597878E+0	1.605118E+0	1.664944E+0	1.681043E+0	1.703531E+0	1.648539E+0	1.643959E+0	1.626749E+0	1.632383E+0	1.648961E+0	1.640484E+0	1.675442E+0	1.641553E+0	1.603030E+0	1.668988E+0	1.663907E+0	1.573719E+0	1.631142E+0	1.661696E+0	1.611376E+0	1.632573E+0	1.686501E+0	1.695840E+0	1.630216E+0	1.597393E+0	1.618766E+0	1.602950E+0	1.654321E+0	1.659251E+0	1.639335E+0	1.614291E+0	1.636029E+0	1.575530E+0	1.581830E+0	1.663512E+0	1.680196E+0	1.597336E+0	1.606203E+0	1.614816E+0	1.591381E+0	1.567578E+0	1.585042E+0	1.653106E+0	1.649737E+0	1.594828E+0	1.644927E+0	1.627837E+0	1.627119E+0	1.652261E+0	1.606265E+0	1.689531E+0	1.581006E+0	1.657428E+0	1.621392E+0	1.712718E+0	1.617144E+0	1.620214E+0	1.627887E+0	1.661231E+0	1.604194E+0	1.574003E+0	1.662580E+0	1.677566E+0	1.641120E+0	1.582601E+0	1.621699E+0	1.596543E+0	1.570733E+0	1.608740E+0	1.606696E+0	1.676177E+0	1.609664E+0	1.599784E+0	1.512348E+0	1.599394E+0
5.392880E+2	1.844507E+0	1.847330E+0	1.859471E+0	1.754131E+0	1.840561E+0	1.843818E+0	1.819160E+0	1.838528E+0	1.855850E+0	1.779579E+0	1.828388E+0	1.783605E+0	1.866358E+0	1.851557E+0	1.825863E+0	1.863893E+0	1.916597E+0	1.807129E+0	1.802675E+0	1.812491E+0	1.879228E+0	1.810729E+0	1.816901E+0	1.772660E+0	1.891709E+0	1.911060E+0	1.814356E+0	1.767090E+0	1.801317E+0	1.805477E+0	1.803334E+0	1.834318E+0	1.849028E+0	1.811015E+0	1.869825E+0	1.853759E+0	1.837986E+0	1.882850E+0	1.869219E+0	1.882487E+0	1.839144E+0	1.858331E+0	1.807798E+0	1.768508E+0	1.803615E+0	1.845524E+0	1.811684E+0	1.806520E+0	1.831306E+0	1.801480E+0	1.829969E+0	1.843829E+0	1.818605E+0	1.841841E+0	1.815344E+0	1.817818E+0	1.897884E+0	1.798595E+0	1.834327E+0	1.945438E+0	1.825878E+0	1.801439E+0	1.843836E+0	1.816868E+0	1.785441E+0	1.812345E+0	1.771562E+0	1.845305E+0	1.871199E+0	1.823221E+0	1.787927E+0	1.834924E+0	1.790458E+0	1.811099E+0	1.834421E+0	1.784525E+0	1.761105E+0	1.778857E+0	1.774719E+0	1.925697E+0	1.781325E+0	1.783262E+0	1.779817E+0	1.812278E+0	1.844143E+0	1.814509E+0	1.821156E+0	1.809216E+0	1.838440E+0	1.741222E+0	1.785605E+0	1.826694E+0	1.750023E+0	1.688627E+0	1.780006E+0	1.808824E+0	1.789153E+0	1.777523E+0	1.787472E+0	1.884465E+0	1.828839E+0	1.768730E+0	1.785293E+0	1.835767E+0	1.806586E+0	1.722070E+0	1.754835E+0	1.796266E+0	1.777259E+0	1.732854E+0	1.811558E+0	1.823791E+0	1.800604E+0	1.753832E+0	1.755320E+0	1.811841E+0	1.802631E+0	1.756260E+0	1.814283E+0	1.802514E+0	1.814077E+0	1.799442E+0	1.785000E+0	1.801161E+0	1.815364E+0	1.791847E+0	1.777326E+0	1.737568E+0	1.788780E+0	1.812105E+0	1.779614E+0	1.831025E+0	1.832769E+0	1.811596E+0	1.767242E+0	1.791293E+0	1.794343E+0	1.737179E+0	1.722400E+0	1.836533E+0	1.753273E+0	1.814981E+0	1.735076E+0	1.858743E+0	1.750332E+0	1.738992E+0	1.752768E+0	1.812245E+0	1.785262E+0	1.800180E+0	1.849132E+0	1.855763E+0	1.749947E+0	1.769506E+0	1.772169E+0	1.810378E+0	1.773829E+0	1.772578E+0	1.788260E+0	1.792696E+0	1.792558E+0	1.766148E+0	1.739922E+0	1.821874E+0	1.794067E+0	1.876296E+0	1.851722E+0	1.827330E+0	1.729378E+0	1.821298E+0	1.869950E+0	1.654412E+0
5.395100E+2	1.938292E+0	1.942367E+0	1.949305E+0	1.923469E+0	1.916871E+0	1.982410E+0	1.910659E+0	1.965378E+0	1.914862E+0	1.962412E+0	1.907366E+0	1.986131E+0	1.965944E+0	1.914090E+0	1.940564E+0	2.022635E+0	1.968016E+0	1.927660E+0	2.045082E+0	1.898525E+0	1.943382E+0	1.973679E+0	1.923689E+0	1.920829E+0	1.951985E+0	1.980983E+0	1.929693E+0	1.931125E+0	1.934649E+0	1.957446E+0	1.946736E+0	1.915074E+0	1.979394E+0	1.922644E+0	1.935139E+0	1.974242E+0	1.946353E+0	1.969712E+0	1.905211E+0	1.968201E+0	1.984690E+0	1.918002E+0	1.870569E+0	1.940740E+0	1.971358E+0	1.920817E+0	1.942451E+0	1.931114E+0	1.971292E+0	1.900248E+0	1.898637E+0	1.922092E+0	1.944610E+0	1.925069E+0	1.939447E+0	1.980135E+0	1.910665E+0	1.944545E+0	1.886791E+0	2.006713E+0	1.866503E+0	1.953948E+0	1.856581E+0	1.894943E+0	1.997483E+0	1.966034E+0	1.927695E+0	1.811754E+0	1.936785E+0	1.932172E+0	1.907600E+0	1.923457E+0	1.956951E+0	1.936656E+0	1.997204E+0	1.866856E+0	1.938486E+0	1.892975E+0	1.896873E+0	1.862315E+0	1.918823E+0	1.894649E+0	1.910847E+0	1.872561E+0	1.941872E+0	1.933908E+0	1.946539E+0	1.980731E+0	1.972899E+0	1.892367E+0	1.844686E+0	1.876175E+0	1.895776E+0	1.819414E+0	1.890914E+0	1.873340E+0	1.899349E+0	1.917847E+0	1.872116E+0	1.992167E+0	1.946674E+0	1.910645E+0	1.864488E+0	2.003031E+0	1.886886E+0	1.891285E+0	1.852361E+0	1.965694E+0	1.913073E+0	1.849443E+0	1.852662E+0	1.905316E+0	1.886910E+0	1.942051E+0	1.907614E+0	2.009165E+0	1.914339E+0	1.845366E+0	1.882853E+0	1.856746E+0	1.912452E+0	1.865081E+0	1.933933E+0	1.913002E+0	1.956123E+0	1.863020E+0	1.922340E+0	1.854868E+0	1.845009E+0	1.852585E+0	1.908850E+0	1.926096E+0	1.885744E+0	1.869680E+0	1.865898E+0	1.900978E+0	1.869361E+0	1.904009E+0	1.891167E+0	1.926812E+0	1.828983E+0	1.868628E+0	1.863220E+0	1.920370E+0	1.861929E+0	1.850645E+0	1.829680E+0	1.873337E+0	1.908577E+0	1.930063E+0	1.890724E+0	1.912675E+0	1.877588E+0	1.931123E+0	1.886459E+0	1.854388E+0	1.843688E+0	1.933605E+0	1.882175E+0	1.892292E+0	1.998343E+0	1.816435E+0	1.848153E+0	1.848214E+0	1.830766E+0	1.885418E+0	1.899187E+0	1.872974E+0	1.842094E+0	1.801980E+0	1.784911E+0	1.741457E+0
5.397750E+2	2.019064E+0	2.046774E+0	1.970867E+0	2.024149E+0	1.992197E+0	1.991700E+0	1.996081E+0	2.050840E+0	2.029792E+0	2.007807E+0	2.002233E+0	2.040580E+0	1.976609E+0	1.968521E+0	1.909812E+0	2.032789E+0	2.078245E+0	2.041500E+0	1.994660E+0	1.872537E+0	2.008571E+0	2.002809E+0	1.946899E+0	1.956240E+0	2.021135E+0	2.024052E+0	2.035542E+0	2.023123E+0	2.026354E+0	1.971444E+0	2.033502E+0	1.974211E+0	2.032243E+0	1.987672E+0	2.069036E+0	2.040495E+0	2.020792E+0	2.000521E+0	1.997585E+0	2.002855E+0	1.979005E+0	2.020517E+0	1.991501E+0	1.852354E+0	1.999313E+0	1.967554E+0	1.983453E+0	1.973627E+0	1.981433E+0	1.996025E+0	1.933575E+0	1.958407E+0	1.994572E+0	2.021197E+0	1.959619E+0	1.917083E+0	1.998124E+0	1.925643E+0	2.028637E+0	2.070156E+0	2.024659E+0	1.940949E+0	1.945272E+0	1.941757E+0	2.036136E+0	2.020618E+0	2.037237E+0	1.988148E+0	2.001062E+0	2.036546E+0	1.970600E+0	1.979137E+0	2.017045E+0	1.972400E+0	2.012789E+0	2.056062E+0	1.998083E+0	1.996227E+0	1.929594E+0	1.979011E+0	1.972565E+0	1.999670E+0	1.932379E+0	1.861914E+0	1.998397E+0	1.937101E+0	1.971575E+0	1.935226E+0	2.012446E+0	1.903699E+0	1.952828E+0	1.935261E+0	1.997262E+0	1.872522E+0	1.963001E+0	1.934804E+0	2.016268E+0	1.967580E+0	1.956831E+0	1.967099E+0	2.015024E+0	1.900184E+0	1.929076E+0	1.958031E+0	1.924169E+0	2.024494E+0	1.976382E+0	1.972822E+0	1.947906E+0	1.916418E+0	1.876515E+0	2.039622E+0	2.001804E+0	1.960420E+0	1.948555E+0	1.932756E+0	1.960024E+0	1.826166E+0	1.930030E+0	1.894822E+0	1.999568E+0	1.917035E+0	1.917636E+0	1.989900E+0	1.984456E+0	1.958280E+0	1.907584E+0	1.898163E+0	1.944594E+0	2.016268E+0	1.939097E+0	1.958156E+0	1.941604E+0	1.954961E+0	1.931899E+0	1.936352E+0	1.963614E+0	1.946819E+0	1.890501E+0	1.952570E+0	1.907120E+0	1.945195E+0	1.910711E+0	1.956092E+0	1.928283E+0	1.901725E+0	1.935300E+0	1.951186E+0	1.858656E+0	1.903528E+0	1.984220E+0	1.921029E+0	1.958399E+0	1.910952E+0	1.936165E+0	1.914349E+0	1.916274E+0	1.901575E+0	1.911875E+0	1.970113E+0	1.977217E+0	1.923191E+0	1.875430E+0	1.954521E+0	1.936815E+0	1.914764E+0	1.952084E+0	1.920270E+0	1.890248E+0	1.965071E+0	1.867027E+0	1.763507E+0
5.400300E+2	1.954159E+0	1.936782E+0	1.947461E+0	1.887970E+0	1.911605E+0	1.861063E+0	1.857148E+0	1.890177E+0	1.875484E+0	1.944109E+0	1.800883E+0	1.893874E+0	1.877719E+0	1.890807E+0	1.856230E+0	1.910600E+0	1.894877E+0	1.859358E+0	1.940888E+0	1.795960E+0	1.927309E+0	1.880165E+0	1.858420E+0	1.866904E+0	1.942707E+0	1.896583E+0	1.887340E+0	1.924762E+0	1.846138E+0	1.903242E+0	1.857779E+0	1.892862E+0	1.941284E+0	1.825682E+0	1.941465E+0	1.856504E+0	1.917439E+0	1.990462E+0	1.897497E+0	1.935895E+0	1.880662E+0	1.830982E+0	1.824277E+0	1.821325E+0	1.901833E+0	1.885401E+0	1.883262E+0	1.811883E+0	1.933664E+0	1.801601E+0	1.882099E+0	1.907906E+0	1.919463E+0	1.904566E+0	1.870583E+0	1.901860E+0	1.892078E+0	1.906950E+0	1.852509E+0	1.962958E+0	1.911026E+0	1.878621E+0	1.875265E+0	1.851993E+0	1.865568E+0	1.894819E+0	1.853862E+0	1.824403E+0	1.847859E+0	1.954245E+0	1.903782E+0	1.823798E+0	1.902636E+0	1.843854E+0	1.880336E+0	1.832829E+0	1.909725E+0	1.833880E+0	1.906528E+0	1.876642E+0	1.888382E+0	1.909335E+0	1.841804E+0	1.793848E+0	1.878951E+0	1.882650E+0	1.897814E+0	1.867792E+0	1.938075E+0	1.844520E+0	1.836289E+0	1.866766E+0	1.939054E+0	1.833864E+0	1.783000E+0	1.873877E+0	1.878772E+0	1.944456E+0	1.862819E+0	1.879204E+0	1.882075E+0	1.849202E+0	1.878129E+0	1.908243E+0	1.861448E+0	1.896409E+0	1.813431E+0	1.874421E+0	1.910757E+0	1.857793E+0	1.825259E+0	1.842308E+0	1.908436E+0	1.762228E+0	1.862992E+0	1.773643E+0	1.884044E+0	1.812043E+0	1.889345E+0	1.834627E+0	1.913716E+0	1.819915E+0	1.857653E+0	1.862454E+0	1.909783E+0	1.837695E+0	1.889987E+0	1.859042E+0	1.862151E+0	1.893421E+0	1.805751E+0	1.864497E+0	1.860985E+0	1.881339E+0	1.889805E+0	1.858567E+0	1.851976E+0	1.859092E+0	1.803224E+0	1.841390E+0	1.864136E+0	1.888722E+0	1.791791E+0	1.865800E+0	1.764516E+0	1.891152E+0	1.848604E+0	1.833416E+0	1.868873E+0	1.852821E+0	1.892639E+0	1.858497E+0	1.814104E+0	1.814523E+0	1.852632E+0	1.830439E+0	1.776462E+0	1.802963E+0	1.860458E+0	1.873624E+0	1.881183E+0	1.804267E+0	1.854538E+0	1.877255E+0	1.853492E+0	1.827997E+0	1.938377E+0	1.846176E+0	1.829008E+0	1.879223E+0	1.883220E+0	1.718300E+0
5.402690E+2	1.890705E+0	1.926535E+0	1.887564E+0	1.880921E+0	1.907410E+0	1.870113E+0	1.868335E+0	1.819591E+0	1.868749E+0	1.791564E+0	1.844970E+0	1.865801E+0	1.865874E+0	1.828475E+0	1.918667E+0	1.840944E+0	1.902118E+0	1.903374E+0	1.898860E+0	1.895098E+0	1.879343E+0	1.792422E+0	1.844019E+0	1.813474E+0	1.856624E+0	1.847450E+0	1.872684E+0	1.882329E+0	1.936674E+0	1.921306E+0	1.875726E+0	1.895679E+0	1.869112E+0	1.861593E+0	1.968415E+0	1.869997E+0	1.873467E+0	1.918197E+0	1.879483E+0	1.882946E+0	1.889195E+0	1.922546E+0	1.907570E+0	1.806581E+0	1.858921E+0	1.826983E+0	1.863142E+0	1.854574E+0	1.826494E+0	1.781084E+0	1.799648E+0	1.895143E+0	1.887411E+0	1.884738E+0	1.812004E+0	1.853719E+0	1.889639E+0	1.913281E+0	1.812064E+0	1.876249E+0	1.912234E+0	1.781762E+0	1.832243E+0	1.837428E+0	1.805983E+0	1.813230E+0	1.833580E+0	1.796153E+0	1.794924E+0	1.904658E+0	1.876948E+0	1.869062E+0	1.858544E+0	1.874483E+0	1.877855E+0	1.911935E+0	1.881252E+0	1.865112E+0	1.810209E+0	1.830694E+0	1.849990E+0	1.804864E+0	1.844236E+0	1.851820E+0	1.778685E+0	1.826127E+0	1.876096E+0	1.854969E+0	1.927110E+0	1.789063E+0	1.712690E+0	1.850263E+0	1.853654E+0	1.761996E+0	1.800825E+0	1.839929E+0	1.852231E+0	1.767691E+0	1.851853E+0	1.838805E+0	1.882872E+0	1.852997E+0	1.803991E+0	1.825242E+0	1.821084E+0	1.797416E+0	1.782421E+0	1.852492E+0	1.790799E+0	1.852726E+0	1.791791E+0	1.866876E+0	1.806891E+0	1.756854E+0	1.839358E+0	1.886030E+0	1.860511E+0	1.790990E+0	1.854313E+0	1.803514E+0	1.866557E+0	1.834951E+0	1.838952E+0	1.834235E+0	1.827516E+0	1.816969E+0	1.837598E+0	1.802489E+0	1.772597E+0	1.859152E+0	1.826443E+0	1.813559E+0	1.777330E+0	1.852367E+0	1.841715E+0	1.814333E+0	1.841437E+0	1.839419E+0	1.685678E+0	1.854568E+0	1.804974E+0	1.787672E+0	1.799406E+0	1.825482E+0	1.803785E+0	1.802475E+0	1.788064E+0	1.766223E+0	1.837024E+0	1.809086E+0	1.825980E+0	1.804350E+0	1.787702E+0	1.836521E+0	1.792902E+0	1.792557E+0	1.767191E+0	1.806635E+0	1.757495E+0	1.796757E+0	1.927826E+0	1.817367E+0	1.772439E+0	1.776918E+0	1.736736E+0	1.873769E+0	1.831905E+0	1.782759E+0	1.791569E+0	1.848166E+0	1.760384E+0	1.676482E+0
5.405180E+2	1.792801E+0	1.765804E+0	1.752940E+0	1.753170E+0	1.778019E+0	1.778928E+0	1.760118E+0	1.764809E+0	1.826557E+0	1.719924E+0	1.733426E+0	1.714302E+0	1.763035E+0	1.765047E+0	1.695292E+0	1.774002E+0	1.790001E+0	1.775621E+0	1.735295E+0	1.725850E+0	1.790159E+0	1.771623E+0	1.800917E+0	1.713239E+0	1.789703E+0	1.726916E+0	1.787446E+0	1.712042E+0	1.769715E+0	1.758429E+0	1.798292E+0	1.736648E+0	1.837575E+0	1.719079E+0	1.742944E+0	1.755690E+0	1.742303E+0	1.765616E+0	1.757939E+0	1.792141E+0	1.806525E+0	1.739838E+0	1.750352E+0	1.691359E+0	1.775367E+0	1.740191E+0	1.715248E+0	1.657451E+0	1.809673E+0	1.772348E+0	1.720125E+0	1.725614E+0	1.785953E+0	1.801702E+0	1.708104E+0	1.759562E+0	1.777575E+0	1.741528E+0	1.708955E+0	1.778675E+0	1.713457E+0	1.781664E+0	1.705876E+0	1.709355E+0	1.795484E+0	1.802470E+0	1.744228E+0	1.727113E+0	1.700021E+0	1.729951E+0	1.735531E+0	1.664929E+0	1.765855E+0	1.751948E+0	1.717704E+0	1.783163E+0	1.760991E+0	1.700730E+0	1.706594E+0	1.743707E+0	1.785019E+0	1.775383E+0	1.701318E+0	1.700033E+0	1.726298E+0	1.744416E+0	1.703101E+0	1.734667E+0	1.760496E+0	1.656412E+0	1.716115E+0	1.754300E+0	1.676742E+0	1.675845E+0	1.672578E+0	1.681225E+0	1.789169E+0	1.712779E+0	1.704289E+0	1.722014E+0	1.739428E+0	1.784698E+0	1.689383E+0	1.793346E+0	1.681084E+0	1.700236E+0	1.685803E+0	1.740548E+0	1.768267E+0	1.714421E+0	1.761102E+0	1.753779E+0	1.691507E+0	1.689958E+0	1.673448E+0	1.673777E+0	1.736892E+0	1.670639E+0	1.697861E+0	1.680198E+0	1.781264E+0	1.790691E+0	1.746352E+0	1.730116E+0	1.743535E+0	1.732791E+0	1.718681E+0	1.609927E+0	1.782614E+0	1.744432E+0	1.702198E+0	1.709632E+0	1.771222E+0	1.721404E+0	1.714284E+0	1.698135E+0	1.709244E+0	1.703678E+0	1.693700E+0	1.757271E+0	1.706013E+0	1.736371E+0	1.675650E+0	1.712501E+0	1.677361E+0	1.706820E+0	1.618759E+0	1.683488E+0	1.680161E+0	1.722939E+0	1.741049E+0	1.712102E+0	1.715652E+0	1.687060E+0	1.658416E+0	1.728509E+0	1.654295E+0	1.657815E+0	1.715700E+0	1.652867E+0	1.736056E+0	1.724749E+0	1.710998E+0	1.678595E+0	1.732337E+0	1.740291E+0	1.717704E+0	1.668690E+0	1.700632E+0	1.789841E+0	1.805912E+0	1.652188E+0
5.407520E+2	1.666911E+0	1.681145E+0	1.712787E+0	1.723002E+0	1.744838E+0	1.719130E+0	1.753656E+0	1.684231E+0	1.707345E+0	1.778798E+0	1.759218E+0	1.651706E+0	1.720743E+0	1.700975E+0	1.686399E+0	1.712312E+0	1.710823E+0	1.736555E+0	1.642832E+0	1.653628E+0	1.721452E+0	1.738719E+0	1.671997E+0	1.693117E+0	1.752645E+0	1.719776E+0	1.705274E+0	1.676899E+0	1.768771E+0	1.679347E+0	1.697780E+0	1.700957E+0	1.718021E+0	1.682238E+0	1.738619E+0	1.678383E+0	1.692007E+0	1.756696E+0	1.683540E+0	1.741921E+0	1.705506E+0	1.689585E+0	1.711004E+0	1.675453E+0	1.724712E+0	1.657466E+0	1.668469E+0	1.678209E+0	1.683470E+0	1.639357E+0	1.672174E+0	1.718896E+0	1.696180E+0	1.705586E+0	1.690437E+0	1.684456E+0	1.706741E+0	1.692965E+0	1.791267E+0	1.769150E+0	1.647658E+0	1.726279E+0	1.677867E+0	1.653699E+0	1.719058E+0	1.672808E+0	1.681521E+0	1.681131E+0	1.650947E+0	1.725036E+0	1.686475E+0	1.673559E+0	1.737910E+0	1.655580E+0	1.674455E+0	1.651412E+0	1.746634E+0	1.643746E+0	1.660737E+0	1.682618E+0	1.725525E+0	1.636884E+0	1.739602E+0	1.689043E+0	1.702684E+0	1.672588E+0	1.707123E+0	1.726900E+0	1.795809E+0	1.653270E+0	1.647670E+0	1.700956E+0	1.741859E+0	1.672644E+0	1.647086E+0	1.686493E+0	1.656201E+0	1.641635E+0	1.644001E+0	1.683900E+0	1.783682E+0	1.689344E+0	1.686774E+0	1.677755E+0	1.746749E+0	1.665650E+0	1.597317E+0	1.723168E+0	1.653355E+0	1.658752E+0	1.625816E+0	1.698999E+0	1.695939E+0	1.676625E+0	1.655547E+0	1.677876E+0	1.724250E+0	1.632982E+0	1.715545E+0	1.673721E+0	1.695318E+0	1.630794E+0	1.702208E+0	1.643834E+0	1.734643E+0	1.660638E+0	1.645134E+0	1.644269E+0	1.660802E+0	1.629727E+0	1.715655E+0	1.643019E+0	1.727398E+0	1.663007E+0	1.646519E+0	1.637948E+0	1.715675E+0	1.731666E+0	1.638368E+0	1.685159E+0	1.669613E+0	1.666884E+0	1.630120E+0	1.677527E+0	1.691212E+0	1.645686E+0	1.603799E+0	1.680987E+0	1.618077E+0	1.689519E+0	1.699589E+0	1.673459E+0	1.616127E+0	1.630449E+0	1.607380E+0	1.682629E+0	1.642276E+0	1.667284E+0	1.650468E+0	1.644857E+0	1.727825E+0	1.583231E+0	1.689690E+0	1.665400E+0	1.710395E+0	1.723015E+0	1.725052E+0	1.668221E+0	1.647120E+0	1.654375E+0	1.670343E+0	1.536007E+0
5.410400E+2	1.627064E+0	1.629414E+0	1.651658E+0	1.617311E+0	1.614276E+0	1.623780E+0	1.612035E+0	1.655366E+0	1.697180E+0	1.665046E+0	1.600880E+0	1.650813E+0	1.650725E+0	1.657442E+0	1.622547E+0	1.693455E+0	1.609821E+0	1.687560E+0	1.620258E+0	1.529114E+0	1.630862E+0	1.644633E+0	1.624299E+0	1.638623E+0	1.655075E+0	1.649637E+0	1.678353E+0	1.615536E+0	1.660872E+0	1.647446E+0	1.697911E+0	1.635546E+0	1.683045E+0	1.625025E+0	1.656255E+0	1.663819E+0	1.611437E+0	1.702887E+0	1.669357E+0	1.660051E+0	1.641919E+0	1.648883E+0	1.659560E+0	1.628671E+0	1.625028E+0	1.649436E+0	1.594706E+0	1.621392E+0	1.628230E+0	1.666526E+0	1.605967E+0	1.636426E+0	1.645663E+0	1.630052E+0	1.620869E+0	1.695650E+0	1.632576E+0	1.657204E+0	1.625688E+0	1.682001E+0	1.600663E+0	1.623880E+0	1.605292E+0	1.595791E+0	1.659521E+0	1.648437E+0	1.607605E+0	1.550360E+0	1.648382E+0	1.634023E+0	1.604069E+0	1.581771E+0	1.624036E+0	1.659824E+0	1.647408E+0	1.661906E+0	1.667557E+0	1.606174E+0	1.632669E+0	1.631415E+0	1.669370E+0	1.569182E+0	1.654676E+0	1.592201E+0	1.615452E+0	1.619216E+0	1.635465E+0	1.631408E+0	1.588910E+0	1.631267E+0	1.575401E+0	1.645428E+0	1.607181E+0	1.554637E+0	1.599160E+0	1.626235E+0	1.692755E+0	1.617189E+0	1.620118E+0	1.622802E+0	1.731259E+0	1.653494E+0	1.603820E+0	1.613855E+0	1.655227E+0	1.646830E+0	1.555704E+0	1.681249E+0	1.625428E+0	1.572352E+0	1.559087E+0	1.651213E+0	1.621671E+0	1.611077E+0	1.603987E+0	1.585310E+0	1.612586E+0	1.592824E+0	1.630592E+0	1.577796E+0	1.677893E+0	1.663764E+0	1.620708E+0	1.608568E+0	1.640538E+0	1.595124E+0	1.543640E+0	1.610354E+0	1.560240E+0	1.659538E+0	1.588983E+0	1.593443E+0	1.657928E+0	1.612562E+0	1.614917E+0	1.592132E+0	1.662624E+0	1.643169E+0	1.641857E+0	1.644564E+0	1.586250E+0	1.612811E+0	1.573066E+0	1.572334E+0	1.574704E+0	1.550753E+0	1.545076E+0	1.570383E+0	1.598062E+0	1.691118E+0	1.623119E+0	1.618578E+0	1.594988E+0	1.635364E+0	1.566473E+0	1.651661E+0	1.530585E+0	1.547397E+0	1.605724E+0	1.605188E+0	1.638877E+0	1.585986E+0	1.599658E+0	1.567153E+0	1.623394E+0	1.613672E+0	1.600440E+0	1.508483E+0	1.564905E+0	1.628051E+0	1.580131E+0	1.527709E+0
5.412690E+2	1.571046E+0	1.557350E+0	1.584769E+0	1.552214E+0	1.561078E+0	1.597988E+0	1.564537E+0	1.567232E+0	1.539996E+0	1.542383E+0	1.528595E+0	1.551857E+0	1.516452E+0	1.495884E+0	1.545261E+0	1.484808E+0	1.582184E+0	1.538507E+0	1.534234E+0	1.545506E+0	1.549443E+0	1.538198E+0	1.552136E+0	1.500230E+0	1.539801E+0	1.540936E+0	1.543903E+0	1.542593E+0	1.579990E+0	1.525120E+0	1.585452E+0	1.500057E+0	1.568081E+0	1.538055E+0	1.588572E+0	1.467915E+0	1.537789E+0	1.599885E+0	1.526155E+0	1.560546E+0	1.598224E+0	1.576968E+0	1.496229E+0	1.504774E+0	1.581988E+0	1.532725E+0	1.541000E+0	1.549093E+0	1.636736E+0	1.527657E+0	1.475283E+0	1.591436E+0	1.521587E+0	1.544072E+0	1.532026E+0	1.551837E+0	1.546611E+0	1.538721E+0	1.500450E+0	1.537138E+0	1.536337E+0	1.556714E+0	1.487634E+0	1.495988E+0	1.504937E+0	1.588012E+0	1.532987E+0	1.532026E+0	1.527694E+0	1.554731E+0	1.517131E+0	1.492629E+0	1.560957E+0	1.585436E+0	1.585979E+0	1.544072E+0	1.576894E+0	1.524046E+0	1.525888E+0	1.545470E+0	1.515430E+0	1.522969E+0	1.518992E+0	1.496905E+0	1.540062E+0	1.498355E+0	1.547026E+0	1.569092E+0	1.480764E+0	1.519631E+0	1.504113E+0	1.485306E+0	1.584281E+0	1.497593E+0	1.523664E+0	1.538535E+0	1.551381E+0	1.517167E+0	1.475933E+0	1.523166E+0	1.571579E+0	1.504023E+0	1.594883E+0	1.544488E+0	1.569274E+0	1.473108E+0	1.535877E+0	1.519088E+0	1.517706E+0	1.538842E+0	1.444523E+0	1.479628E+0	1.557719E+0	1.447177E+0	1.538586E+0	1.481211E+0	1.582851E+0	1.503171E+0	1.572042E+0	1.541573E+0	1.484022E+0	1.513725E+0	1.514279E+0	1.471019E+0	1.570365E+0	1.558134E+0	1.525972E+0	1.523188E+0	1.504820E+0	1.555978E+0	1.495566E+0	1.518569E+0	1.585721E+0	1.516817E+0	1.515261E+0	1.536408E+0	1.505623E+0	1.487282E+0	1.527978E+0	1.520691E+0	1.554368E+0	1.537850E+0	1.533741E+0	1.514231E+0	1.500578E+0	1.502986E+0	1.500231E+0	1.498963E+0	1.524642E+0	1.500256E+0	1.556667E+0	1.515486E+0	1.519798E+0	1.509730E+0	1.520660E+0	1.460793E+0	1.546767E+0	1.474512E+0	1.515484E+0	1.478247E+0	1.527312E+0	1.522896E+0	1.521489E+0	1.504062E+0	1.504852E+0	1.489654E+0	1.535152E+0	1.514208E+0	1.437848E+0	1.479266E+0	1.437948E+0	1.411637E+0
5.415190E+2	1.378063E+0	1.408208E+0	1.398710E+0	1.355289E+0	1.301894E+0	1.387126E+0	1.406942E+0	1.361519E+0	1.325021E+0	1.405144E+0	1.351639E+0	1.338570E+0	1.333112E+0	1.339202E+0	1.338286E+0	1.374762E+0	1.352290E+0	1.358205E+0	1.370512E+0	1.337140E+0	1.405140E+0	1.378325E+0	1.365392E+0	1.284259E+0	1.370836E+0	1.381247E+0	1.314633E+0	1.396905E+0	1.387905E+0	1.373214E+0	1.377098E+0	1.333240E+0	1.382780E+0	1.381595E+0	1.401583E+0	1.368334E+0	1.372070E+0	1.363657E+0	1.344355E+0	1.391903E+0	1.372200E+0	1.383093E+0	1.342871E+0	1.331107E+0	1.334008E+0	1.375702E+0	1.347670E+0	1.354627E+0	1.406552E+0	1.336098E+0	1.291991E+0	1.397566E+0	1.376531E+0	1.436258E+0	1.341242E+0	1.314895E+0	1.307219E+0	1.329036E+0	1.333090E+0	1.393961E+0	1.385110E+0	1.348161E+0	1.347913E+0	1.311403E+0	1.359533E+0	1.387065E+0	1.374695E+0	1.349377E+0	1.269396E+0	1.334707E+0	1.346942E+0	1.344479E+0	1.402831E+0	1.385430E+0	1.389765E+0	1.419984E+0	1.371715E+0	1.333803E+0	1.324383E+0	1.417634E+0	1.378759E+0	1.363091E+0	1.343391E+0	1.331838E+0	1.359906E+0	1.341927E+0	1.388847E+0	1.330831E+0	1.332496E+0	1.358910E+0	1.372367E+0	1.321482E+0	1.395096E+0	1.371253E+0	1.317945E+0	1.361155E+0	1.357931E+0	1.291643E+0	1.322286E+0	1.373947E+0	1.392729E+0	1.331276E+0	1.336927E+0	1.355952E+0	1.368651E+0	1.365992E+0	1.301849E+0	1.373317E+0	1.375971E+0	1.366017E+0	1.345121E+0	1.288903E+0	1.325750E+0	1.336361E+0	1.334459E+0	1.347751E+0	1.381551E+0	1.359306E+0	1.358979E+0	1.408000E+0	1.341767E+0	1.357336E+0	1.366435E+0	1.333197E+0	1.312430E+0	1.335996E+0	1.314958E+0	1.325801E+0	1.320239E+0	1.333410E+0	1.357299E+0	1.356115E+0	1.330627E+0	1.326020E+0	1.363518E+0	1.355176E+0	1.343395E+0	1.316863E+0	1.261390E+0	1.377838E+0	1.347101E+0	1.361995E+0	1.361945E+0	1.341867E+0	1.336520E+0	1.310078E+0	1.348072E+0	1.338148E+0	1.354487E+0	1.395796E+0	1.402190E+0	1.332610E+0	1.346805E+0	1.346160E+0	1.338189E+0	1.339492E+0	1.358323E+0	1.305992E+0	1.355665E+0	1.326720E+0	1.391159E+0	1.292651E+0	1.328514E+0	1.306157E+0	1.368218E+0	1.338863E+0	1.358151E+0	1.324039E+0	1.410539E+0	1.311685E+0	1.288804E+0	1.177583E+0
5.417600E+2	1.180777E+0	1.170308E+0	1.180073E+0	1.211254E+0	1.193181E+0	1.227933E+0	1.197546E+0	1.177626E+0	1.176030E+0	1.175673E+0	1.208506E+0	1.199846E+0	1.201042E+0	1.181306E+0	1.177395E+0	1.145079E+0	1.199930E+0	1.152468E+0	1.223816E+0	1.168068E+0	1.164073E+0	1.234429E+0	1.204760E+0	1.165818E+0	1.189425E+0	1.204222E+0	1.168157E+0	1.186354E+0	1.192268E+0	1.139918E+0	1.172254E+0	1.167752E+0	1.171164E+0	1.181600E+0	1.183184E+0	1.169575E+0	1.188075E+0	1.241078E+0	1.211917E+0	1.213374E+0	1.219053E+0	1.150664E+0	1.175774E+0	1.175155E+0	1.156801E+0	1.168191E+0	1.210014E+0	1.175948E+0	1.221617E+0	1.172532E+0	1.179587E+0	1.206862E+0	1.140025E+0	1.193364E+0	1.158841E+0	1.221079E+0	1.192817E+0	1.200090E+0	1.169549E+0	1.206737E+0	1.175042E+0	1.163824E+0	1.178351E+0	1.211076E+0	1.180939E+0	1.199678E+0	1.229445E+0	1.215775E+0	1.139681E+0	1.211490E+0	1.207984E+0	1.130986E+0	1.165306E+0	1.232872E+0	1.237696E+0	1.179585E+0	1.204848E+0	1.188105E+0	1.169167E+0	1.189073E+0	1.238047E+0	1.230125E+0	1.175618E+0	1.121890E+0	1.163030E+0	1.192784E+0	1.199408E+0	1.204175E+0	1.144226E+0	1.184490E+0	1.174352E+0	1.208258E+0	1.177687E+0	1.176115E+0	1.200222E+0	1.187467E+0	1.183202E+0	1.179310E+0	1.210795E+0	1.183661E+0	1.204538E+0	1.166211E+0	1.159465E+0	1.176897E+0	1.196059E+0	1.215428E+0	1.139778E+0	1.212415E+0	1.263197E+0	1.176149E+0	1.140944E+0	1.187578E+0	1.192167E+0	1.142510E+0	1.198766E+0	1.120317E+0	1.178950E+0	1.214791E+0	1.206160E+0	1.169498E+0	1.253532E+0	1.226412E+0	1.202574E+0	1.138174E+0	1.234969E+0	1.164619E+0	1.207103E+0	1.121552E+0	1.188547E+0	1.172522E+0	1.219510E+0	1.174613E+0	1.181682E+0	1.155713E+0	1.226333E+0	1.196848E+0	1.216448E+0	1.187510E+0	1.100382E+0	1.259072E+0	1.227939E+0	1.194938E+0	1.188559E+0	1.164599E+0	1.224580E+0	1.170495E+0	1.146194E+0	1.188086E+0	1.236864E+0	1.213992E+0	1.192063E+0	1.191056E+0	1.159519E+0	1.198890E+0	1.165875E+0	1.207996E+0	1.162106E+0	1.193652E+0	1.182722E+0	1.132279E+0	1.207610E+0	1.152052E+0	1.169197E+0	1.194892E+0	1.193780E+0	1.218358E+0	1.220923E+0	1.152614E+0	1.177246E+0	1.149225E+0	1.164720E+0	1.143723E+0
5.420320E+2	1.064199E+0	1.056195E+0	1.076596E+0	1.056647E+0	1.021927E+0	1.039932E+0	1.010628E+0	1.059405E+0	1.090040E+0	1.031257E+0	1.053709E+0	1.006015E+0	1.037296E+0	1.054029E+0	1.016377E+0	1.031682E+0	1.016168E+0	1.044030E+0	1.058687E+0	1.048407E+0	1.013989E+0	1.050376E+0	1.049775E+0	1.068470E+0	1.005233E+0	1.029899E+0	1.037784E+0	1.039368E+0	1.055148E+0	1.029308E+0	9.727235E-1	1.077741E+0	1.012552E+0	1.049880E+0	9.971508E-1	1.037640E+0	1.066322E+0	1.062605E+0	1.041112E+0	1.033610E+0	1.039038E+0	1.035021E+0	1.039381E+0	9.906986E-1	1.025729E+0	1.004528E+0	1.038662E+0	1.060634E+0	1.068072E+0	1.039816E+0	1.032649E+0	1.031290E+0	1.049649E+0	1.077147E+0	1.070477E+0	1.046818E+0	1.023788E+0	1.051866E+0	1.040628E+0	1.029687E+0	1.018257E+0	1.068799E+0	1.063168E+0	1.049555E+0	1.046888E+0	1.032469E+0	1.055701E+0	1.001832E+0	1.042664E+0	1.070665E+0	1.034672E+0	1.044274E+0	1.027192E+0	1.026390E+0	1.052184E+0	1.094434E+0	1.051144E+0	1.031876E+0	1.078089E+0	1.074036E+0	1.043153E+0	1.060268E+0	1.079165E+0	1.021863E+0	9.908501E-1	1.024332E+0	1.028794E+0	1.047070E+0	1.026525E+0	1.042558E+0	1.069469E+0	1.020186E+0	1.053469E+0	1.055675E+0	1.042135E+0	1.027923E+0	1.131687E+0	1.045912E+0	9.884299E-1	1.094300E+0	1.055732E+0	1.037595E+0	1.027344E+0	1.029001E+0	1.076680E+0	1.044581E+0	1.037389E+0	1.055786E+0	1.002775E+0	1.046923E+0	1.040957E+0	1.030322E+0	1.039249E+0	1.074715E+0	1.088591E+0	1.069056E+0	1.051804E+0	1.012612E+0	1.014801E+0	1.044431E+0	1.078691E+0	1.049561E+0	1.058786E+0	1.018815E+0	1.064048E+0	1.044507E+0	1.024168E+0	1.030113E+0	1.030089E+0	1.081072E+0	1.084053E+0	1.033623E+0	1.079234E+0	1.044492E+0	1.080487E+0	1.039973E+0	1.030288E+0	1.046888E+0	1.043096E+0	1.046529E+0	9.744293E-1	1.040486E+0	1.078529E+0	9.896215E-1	1.076227E+0	1.041741E+0	1.030059E+0	1.032595E+0	1.046697E+0	1.032913E+0	1.056202E+0	1.058192E+0	1.005851E+0	1.061661E+0	1.015811E+0	1.050697E+0	1.035230E+0	1.045324E+0	1.074220E+0	1.018040E+0	1.022114E+0	1.036600E+0	1.055849E+0	1.027949E+0	1.054130E+0	1.075480E+0	9.950123E-1	1.043522E+0	1.056119E+0	1.077925E+0	1.002877E+0	1.075862E+0
5.422670E+2	1.002239E+0	9.501267E-1	9.774269E-1	9.735264E-1	9.233574E-1	9.318172E-1	9.961871E-1	9.499605E-1	9.277713E-1	1.004582E+0	9.549902E-1	9.521606E-1	9.961038E-1	9.133246E-1	9.622962E-1	9.820920E-1	9.565446E-1	9.579585E-1	9.578397E-1	9.525144E-1	9.613498E-1	9.778514E-1	9.656239E-1	8.915844E-1	9.779169E-1	9.627073E-1	9.408474E-1	9.499074E-1	9.976195E-1	9.392161E-1	1.010776E+0	9.475183E-1	9.556924E-1	1.009543E+0	9.803305E-1	9.896599E-1	9.300868E-1	1.031590E+0	9.800502E-1	9.520985E-1	9.455902E-1	9.914562E-1	9.661525E-1	9.570481E-1	1.008856E+0	9.567059E-1	9.652776E-1	9.664198E-1	9.932583E-1	9.486326E-1	9.784541E-1	9.914832E-1	9.680676E-1	9.844455E-1	9.806030E-1	9.420748E-1	9.643720E-1	9.851586E-1	9.807118E-1	9.973616E-1	1.001659E+0	9.504424E-1	9.373311E-1	1.013414E+0	9.687007E-1	1.004446E+0	9.288184E-1	9.437214E-1	9.580451E-1	1.011698E+0	9.770198E-1	9.489174E-1	9.662706E-1	9.892011E-1	1.035245E+0	9.693437E-1	9.460129E-1	9.541667E-1	9.689636E-1	9.592055E-1	9.611627E-1	9.863113E-1	9.597693E-1	9.881993E-1	9.885069E-1	9.608715E-1	9.932137E-1	9.899813E-1	9.783908E-1	9.583431E-1	9.897916E-1	9.888275E-1	9.715163E-1	9.563391E-1	9.844892E-1	9.447274E-1	9.855115E-1	1.023684E+0	9.572520E-1	9.728540E-1	9.484057E-1	9.571176E-1	9.639629E-1	9.899113E-1	9.900971E-1	1.010597E+0	9.728251E-1	9.797535E-1	9.985038E-1	9.766734E-1	9.341772E-1	9.817428E-1	1.024739E+0	9.448427E-1	9.657052E-1	9.396919E-1	9.999369E-1	9.600919E-1	9.587390E-1	9.641383E-1	9.610926E-1	9.845717E-1	9.978927E-1	9.719361E-1	9.632472E-1	9.810277E-1	1.002410E+0	9.348164E-1	1.009834E+0	9.629931E-1	9.764210E-1	9.629715E-1	9.599917E-1	1.002743E+0	9.352990E-1	1.001367E+0	9.755507E-1	9.742782E-1	9.609184E-1	9.551287E-1	9.816427E-1	9.811576E-1	9.563182E-1	9.295374E-1	9.523603E-1	9.916991E-1	9.728492E-1	9.285726E-1	9.401641E-1	1.019698E+0	1.018404E+0	9.374653E-1	9.555425E-1	9.583245E-1	9.540294E-1	1.019888E+0	9.256422E-1	9.938679E-1	1.000981E+0	9.426194E-1	9.793533E-1	9.359633E-1	9.777998E-1	9.406354E-1	9.217903E-1	9.608586E-1	9.818090E-1	9.790281E-1	9.336335E-1	1.007175E+0	1.003988E+0	9.789610E-1
5.425460E+2	9.295450E-1	9.212766E-1	9.546629E-1	8.709947E-1	9.042729E-1	9.697649E-1	8.846526E-1	9.357346E-1	9.390400E-1	9.027655E-1	9.055059E-1	9.779741E-1	9.077276E-1	9.151868E-1	9.443949E-1	9.091737E-1	9.193258E-1	9.123039E-1	9.511754E-1	9.090087E-1	9.382049E-1	9.524629E-1	9.524292E-1	9.422388E-1	9.361731E-1	9.033462E-1	9.587743E-1	8.939731E-1	9.389578E-1	9.093812E-1	9.390042E-1	9.510039E-1	9.616246E-1	9.586818E-1	9.296429E-1	9.110833E-1	9.511525E-1	9.429378E-1	9.094545E-1	9.195385E-1	9.352175E-1	8.947090E-1	9.670748E-1	9.146288E-1	9.071178E-1	9.315780E-1	9.555489E-1	9.321969E-1	9.515119E-1	9.201652E-1	8.522114E-1	9.322284E-1	9.410716E-1	9.379980E-1	9.383330E-1	9.331460E-1	9.266044E-1	9.372513E-1	9.068514E-1	9.530944E-1	9.206232E-1	9.620124E-1	8.857593E-1	8.990854E-1	9.061658E-1	8.989952E-1	9.697685E-1	9.289542E-1	9.543342E-1	9.666838E-1	9.116399E-1	9.222089E-1	9.086257E-1	9.351180E-1	9.651984E-1	9.687857E-1	9.404956E-1	9.093121E-1	9.354945E-1	9.407343E-1	9.838896E-1	9.049911E-1	9.279822E-1	9.210842E-1	9.407522E-1	9.560997E-1	9.552861E-1	9.531169E-1	9.206135E-1	9.403495E-1	9.218936E-1	9.458108E-1	9.157454E-1	9.184990E-1	9.128861E-1	9.256952E-1	9.487608E-1	9.296207E-1	9.575861E-1	9.311313E-1	9.272411E-1	8.958492E-1	9.246894E-1	9.582790E-1	8.978119E-1	9.437064E-1	9.345450E-1	9.359842E-1	9.427549E-1	8.757229E-1	9.098869E-1	9.173397E-1	9.435080E-1	9.113295E-1	9.157003E-1	9.179130E-1	9.026692E-1	9.169952E-1	9.338375E-1	9.341639E-1	8.977623E-1	9.517111E-1	9.256026E-1	9.172829E-1	9.494610E-1	9.021659E-1	9.881201E-1	8.879616E-1	9.444657E-1	9.301918E-1	9.188034E-1	9.300694E-1	9.027546E-1	9.508053E-1	8.968251E-1	9.435583E-1	9.247036E-1	9.199105E-1	9.236590E-1	9.314143E-1	9.252113E-1	9.126675E-1	9.175430E-1	9.087197E-1	9.457461E-1	9.399999E-1	9.268845E-1	9.124332E-1	9.123551E-1	9.485009E-1	9.359666E-1	9.298234E-1	9.263504E-1	9.696898E-1	9.177009E-1	9.170056E-1	8.986426E-1	9.440761E-1	9.506539E-1	9.196876E-1	9.584256E-1	8.949240E-1	8.924536E-1	9.418138E-1	8.921718E-1	9.569441E-1	9.333356E-1	9.101706E-1	8.528754E-1	9.663692E-1	8.818210E-1	9.703282E-1
5.427650E+2	1.033173E+0	1.043975E+0	1.007484E+0	9.925089E-1	9.968641E-1	1.005611E+0	1.005471E+0	9.754831E-1	1.077474E+0	9.647544E-1	1.014624E+0	1.014724E+0	1.004529E+0	9.517674E-1	9.545684E-1	9.701711E-1	9.593385E-1	1.078674E+0	1.026268E+0	1.011776E+0	1.015002E+0	1.026483E+0	1.007712E+0	9.698368E-1	9.928203E-1	9.833398E-1	9.924238E-1	9.662119E-1	1.023231E+0	1.036106E+0	9.937690E-1	9.756746E-1	9.941729E-1	1.000659E+0	9.920431E-1	9.845407E-1	1.023863E+0	1.007646E+0	1.006529E+0	9.666747E-1	9.845449E-1	1.032983E+0	9.803021E-1	9.872731E-1	9.963211E-1	9.873908E-1	1.004874E+0	1.002129E+0	1.003471E+0	9.498844E-1	1.016253E+0	1.000327E+0	9.691110E-1	9.957837E-1	9.958555E-1	9.948424E-1	9.950745E-1	1.024879E+0	9.924612E-1	1.006495E+0	9.491253E-1	1.017809E+0	9.803038E-1	9.992697E-1	9.914975E-1	1.014341E+0	9.973567E-1	9.656390E-1	9.672961E-1	1.042269E+0	9.908722E-1	1.022811E+0	9.795585E-1	9.816536E-1	1.030840E+0	1.020187E+0	1.003339E+0	9.444981E-1	9.996997E-1	9.960055E-1	9.919849E-1	1.001825E+0	9.907166E-1	9.797249E-1	9.565063E-1	9.569152E-1	1.028972E+0	1.014402E+0	1.023749E+0	1.004266E+0	9.825082E-1	1.001791E+0	1.014828E+0	9.902240E-1	1.005913E+0	1.012079E+0	9.990108E-1	1.015071E+0	1.001924E+0	1.011522E+0	1.048345E+0	9.552526E-1	1.021983E+0	9.784312E-1	1.051084E+0	9.637237E-1	9.917911E-1	9.931066E-1	9.945488E-1	9.893208E-1	1.001931E+0	1.009168E+0	9.730744E-1	1.002193E+0	9.928675E-1	9.752165E-1	1.022873E+0	9.814711E-1	1.025388E+0	9.696055E-1	9.940900E-1	9.644755E-1	9.788541E-1	9.602023E-1	1.034845E+0	1.010281E+0	9.880078E-1	9.959171E-1	9.791972E-1	9.764453E-1	9.467633E-1	1.020557E+0	9.638756E-1	1.008685E+0	1.042596E+0	9.782201E-1	9.680022E-1	9.884144E-1	1.009237E+0	1.067810E+0	9.872746E-1	9.820949E-1	9.729961E-1	1.022240E+0	9.356491E-1	1.012291E+0	9.838939E-1	1.001441E+0	1.006957E+0	1.052605E+0	1.018507E+0	9.619101E-1	1.019202E+0	9.929939E-1	9.952912E-1	9.961668E-1	1.007410E+0	1.012598E+0	1.003961E+0	9.562301E-1	1.029492E+0	1.031825E+0	1.073902E+0	1.007177E+0	9.759691E-1	1.052327E+0	1.053392E+0	9.798852E-1	9.959108E-1	9.635598E-1	1.030232E+0	1.004524E+0
5.430070E+2	1.167407E+0	1.180084E+0	1.093561E+0	1.097749E+0	1.079403E+0	1.175912E+0	1.122349E+0	1.078308E+0	1.145689E+0	1.138405E+0	1.106840E+0	1.131146E+0	1.134032E+0	1.195918E+0	1.125093E+0	1.130394E+0	1.133344E+0	1.167132E+0	1.128280E+0	1.072013E+0	1.162945E+0	1.142378E+0	1.158688E+0	1.093683E+0	1.131844E+0	1.123459E+0	1.096063E+0	1.157898E+0	1.122023E+0	1.073709E+0	1.098071E+0	1.106790E+0	1.128728E+0	1.117550E+0	1.137686E+0	1.132299E+0	1.122175E+0	1.171039E+0	1.153801E+0	1.118188E+0	1.116530E+0	1.116478E+0	1.111065E+0	1.074165E+0	1.179919E+0	1.105564E+0	1.124002E+0	1.157187E+0	1.137310E+0	1.144799E+0	1.083989E+0	1.122454E+0	1.141122E+0	1.167438E+0	1.122825E+0	1.145328E+0	1.139116E+0	1.125533E+0	1.101286E+0	1.138547E+0	1.152721E+0	1.133668E+0	1.126506E+0	1.143820E+0	1.074266E+0	1.123037E+0	1.121396E+0	1.071984E+0	1.063677E+0	1.146514E+0	1.128648E+0	1.140293E+0	1.142496E+0	1.166420E+0	1.134196E+0	1.140519E+0	1.129787E+0	1.090142E+0	1.104351E+0	1.152085E+0	1.069713E+0	1.095734E+0	1.126256E+0	1.148384E+0	1.091171E+0	1.127072E+0	1.172983E+0	1.102958E+0	1.123457E+0	1.140133E+0	1.104783E+0	1.153936E+0	1.131347E+0	1.119846E+0	1.111587E+0	1.152127E+0	1.095936E+0	1.124018E+0	1.065722E+0	1.148411E+0	1.108680E+0	1.098677E+0	1.145839E+0	1.132928E+0	1.130581E+0	1.102373E+0	1.078857E+0	1.135645E+0	1.165307E+0	1.104203E+0	1.080312E+0	1.127348E+0	1.126681E+0	1.097247E+0	1.134211E+0	1.128622E+0	1.177773E+0	1.135911E+0	1.165589E+0	1.142816E+0	1.099698E+0	1.120078E+0	1.113727E+0	1.089098E+0	1.121802E+0	1.147222E+0	1.206238E+0	1.057905E+0	1.077424E+0	1.134521E+0	1.134353E+0	1.133422E+0	1.107654E+0	1.105369E+0	1.183748E+0	1.135575E+0	1.192092E+0	1.191079E+0	1.041495E+0	1.149020E+0	1.123910E+0	1.177350E+0	1.133513E+0	1.128160E+0	1.121141E+0	1.156392E+0	1.152191E+0	1.132450E+0	1.107395E+0	1.157795E+0	1.178662E+0	1.140177E+0	1.119969E+0	1.154595E+0	1.124420E+0	1.121953E+0	1.094962E+0	1.099201E+0	1.145526E+0	1.150437E+0	1.113112E+0	1.146727E+0	1.174539E+0	1.094059E+0	1.069016E+0	1.154004E+0	1.158595E+0	1.132644E+0	1.173293E+0	1.125533E+0	1.143077E+0	1.086259E+0
5.432700E+2	1.268200E+0	1.259617E+0	1.302810E+0	1.246508E+0	1.228189E+0	1.252687E+0	1.289738E+0	1.275985E+0	1.303498E+0	1.240966E+0	1.212738E+0	1.246174E+0	1.262369E+0	1.283012E+0	1.267026E+0	1.238994E+0	1.275380E+0	1.256100E+0	1.278275E+0	1.268702E+0	1.291383E+0	1.245973E+0	1.227653E+0	1.213922E+0	1.320011E+0	1.224268E+0	1.264595E+0	1.236942E+0	1.281740E+0	1.291196E+0	1.300717E+0	1.245908E+0	1.327229E+0	1.280775E+0	1.276947E+0	1.288009E+0	1.277844E+0	1.349064E+0	1.285303E+0	1.261308E+0	1.245489E+0	1.282502E+0	1.276996E+0	1.277925E+0	1.238198E+0	1.285037E+0	1.250372E+0	1.224499E+0	1.284815E+0	1.209996E+0	1.253816E+0	1.224750E+0	1.222280E+0	1.286754E+0	1.272802E+0	1.291136E+0	1.276214E+0	1.275629E+0	1.288619E+0	1.286475E+0	1.265164E+0	1.277203E+0	1.216237E+0	1.275961E+0	1.249929E+0	1.287164E+0	1.256288E+0	1.246144E+0	1.237288E+0	1.293038E+0	1.230292E+0	1.244655E+0	1.264680E+0	1.275047E+0	1.309006E+0	1.301469E+0	1.252638E+0	1.253281E+0	1.241854E+0	1.274128E+0	1.278737E+0	1.248412E+0	1.276724E+0	1.275443E+0	1.242841E+0	1.286109E+0	1.286040E+0	1.276501E+0	1.220967E+0	1.248438E+0	1.203149E+0	1.276007E+0	1.291416E+0	1.251857E+0	1.260673E+0	1.259777E+0	1.291170E+0	1.232766E+0	1.243401E+0	1.310673E+0	1.269442E+0	1.284537E+0	1.274009E+0	1.266903E+0	1.206130E+0	1.220670E+0	1.249951E+0	1.230780E+0	1.321605E+0	1.237636E+0	1.270169E+0	1.267095E+0	1.272913E+0	1.198577E+0	1.264678E+0	1.240030E+0	1.249301E+0	1.285314E+0	1.262069E+0	1.235059E+0	1.285578E+0	1.249075E+0	1.220867E+0	1.242500E+0	1.300929E+0	1.272191E+0	1.256630E+0	1.219372E+0	1.221325E+0	1.225767E+0	1.199797E+0	1.297692E+0	1.248428E+0	1.255266E+0	1.289880E+0	1.246919E+0	1.257495E+0	1.188846E+0	1.308661E+0	1.296436E+0	1.216073E+0	1.216140E+0	1.224656E+0	1.227599E+0	1.245459E+0	1.199924E+0	1.234287E+0	1.249893E+0	1.265052E+0	1.209421E+0	1.298436E+0	1.264063E+0	1.200488E+0	1.258233E+0	1.253294E+0	1.278227E+0	1.271687E+0	1.250271E+0	1.231049E+0	1.265450E+0	1.254916E+0	1.310122E+0	1.220885E+0	1.233268E+0	1.244493E+0	1.297276E+0	1.277225E+0	1.278118E+0	1.263065E+0	1.272446E+0	1.169064E+0	1.288826E+0
5.435330E+2	1.426668E+0	1.416062E+0	1.469472E+0	1.437294E+0	1.389413E+0	1.434709E+0	1.428395E+0	1.463559E+0	1.424461E+0	1.445380E+0	1.456967E+0	1.407891E+0	1.448099E+0	1.411692E+0	1.408956E+0	1.415199E+0	1.414653E+0	1.433181E+0	1.422561E+0	1.383382E+0	1.476923E+0	1.432384E+0	1.453619E+0	1.426658E+0	1.460937E+0	1.432941E+0	1.451322E+0	1.433031E+0	1.447859E+0	1.378473E+0	1.403442E+0	1.450317E+0	1.443531E+0	1.417596E+0	1.449869E+0	1.441424E+0	1.451355E+0	1.450124E+0	1.418369E+0	1.432917E+0	1.399708E+0	1.416173E+0	1.442543E+0	1.407560E+0	1.440324E+0	1.443992E+0	1.482035E+0	1.447296E+0	1.431485E+0	1.444410E+0	1.438082E+0	1.413828E+0	1.398565E+0	1.486372E+0	1.401135E+0	1.422801E+0	1.472338E+0	1.421559E+0	1.430084E+0	1.467706E+0	1.394112E+0	1.417693E+0	1.412831E+0	1.461120E+0	1.439852E+0	1.399579E+0	1.422797E+0	1.428257E+0	1.374534E+0	1.474944E+0	1.454306E+0	1.433385E+0	1.478914E+0	1.445603E+0	1.505862E+0	1.428854E+0	1.402416E+0	1.400704E+0	1.425909E+0	1.402089E+0	1.424620E+0	1.476359E+0	1.436061E+0	1.430702E+0	1.447844E+0	1.496370E+0	1.402597E+0	1.439993E+0	1.398315E+0	1.429684E+0	1.395112E+0	1.401479E+0	1.428927E+0	1.405422E+0	1.425370E+0	1.431311E+0	1.433598E+0	1.430377E+0	1.394230E+0	1.482712E+0	1.406296E+0	1.446643E+0	1.423622E+0	1.468356E+0	1.393492E+0	1.403557E+0	1.429153E+0	1.452171E+0	1.403904E+0	1.451611E+0	1.411517E+0	1.400026E+0	1.449422E+0	1.420244E+0	1.425874E+0	1.442189E+0	1.419859E+0	1.395205E+0	1.477197E+0	1.382216E+0	1.439899E+0	1.386534E+0	1.438402E+0	1.435507E+0	1.416552E+0	1.444150E+0	1.469652E+0	1.389295E+0	1.415169E+0	1.452932E+0	1.402297E+0	1.339486E+0	1.416755E+0	1.437919E+0	1.370280E+0	1.436793E+0	1.388837E+0	1.404952E+0	1.406018E+0	1.352045E+0	1.447071E+0	1.411140E+0	1.388803E+0	1.420444E+0	1.371382E+0	1.398948E+0	1.464825E+0	1.387014E+0	1.426516E+0	1.427339E+0	1.469481E+0	1.437880E+0	1.439921E+0	1.444097E+0	1.360960E+0	1.368454E+0	1.440659E+0	1.412490E+0	1.416434E+0	1.368748E+0	1.395058E+0	1.446783E+0	1.377743E+0	1.414416E+0	1.417372E+0	1.432604E+0	1.457234E+0	1.427539E+0	1.332080E+0	1.430726E+0	1.368206E+0	1.292227E+0
5.437530E+2	1.573475E+0	1.523723E+0	1.501976E+0	1.489632E+0	1.503260E+0	1.476504E+0	1.552243E+0	1.510532E+0	1.519407E+0	1.525056E+0	1.523544E+0	1.506196E+0	1.545345E+0	1.542958E+0	1.501938E+0	1.551571E+0	1.547968E+0	1.577007E+0	1.523776E+0	1.492178E+0	1.558645E+0	1.505680E+0	1.481542E+0	1.509971E+0	1.514865E+0	1.530436E+0	1.527928E+0	1.509083E+0	1.560862E+0	1.528024E+0	1.479645E+0	1.534074E+0	1.525480E+0	1.488920E+0	1.573404E+0	1.536373E+0	1.489054E+0	1.529762E+0	1.527230E+0	1.522124E+0	1.543874E+0	1.477056E+0	1.517789E+0	1.521689E+0	1.529126E+0	1.478199E+0	1.535232E+0	1.508040E+0	1.545884E+0	1.506059E+0	1.504281E+0	1.538098E+0	1.475111E+0	1.543662E+0	1.511015E+0	1.523940E+0	1.550613E+0	1.496603E+0	1.515027E+0	1.619147E+0	1.524990E+0	1.566622E+0	1.491069E+0	1.575574E+0	1.498503E+0	1.488463E+0	1.496952E+0	1.465992E+0	1.502254E+0	1.505739E+0	1.491650E+0	1.537804E+0	1.477474E+0	1.460437E+0	1.527997E+0	1.514941E+0	1.551895E+0	1.428965E+0	1.487245E+0	1.527908E+0	1.574943E+0	1.536435E+0	1.550507E+0	1.479242E+0	1.519242E+0	1.481191E+0	1.534499E+0	1.534076E+0	1.489284E+0	1.511490E+0	1.458117E+0	1.493483E+0	1.519154E+0	1.494601E+0	1.489983E+0	1.509266E+0	1.538229E+0	1.473549E+0	1.423176E+0	1.510656E+0	1.520264E+0	1.496180E+0	1.466958E+0	1.536403E+0	1.550715E+0	1.497373E+0	1.485521E+0	1.560497E+0	1.526587E+0	1.497980E+0	1.442302E+0	1.521102E+0	1.480109E+0	1.499388E+0	1.486167E+0	1.494831E+0	1.534123E+0	1.504179E+0	1.489208E+0	1.527211E+0	1.518658E+0	1.547561E+0	1.522469E+0	1.519794E+0	1.514940E+0	1.487230E+0	1.554969E+0	1.532722E+0	1.535879E+0	1.547174E+0	1.527727E+0	1.514021E+0	1.495130E+0	1.498336E+0	1.464743E+0	1.525480E+0	1.513737E+0	1.474547E+0	1.467343E+0	1.592770E+0	1.492436E+0	1.518711E+0	1.490436E+0	1.456507E+0	1.466008E+0	1.475598E+0	1.479807E+0	1.492790E+0	1.470263E+0	1.531443E+0	1.561439E+0	1.524186E+0	1.487786E+0	1.526938E+0	1.543560E+0	1.531947E+0	1.405074E+0	1.482828E+0	1.461030E+0	1.461977E+0	1.500929E+0	1.513242E+0	1.514683E+0	1.424306E+0	1.460593E+0	1.475374E+0	1.481716E+0	1.479104E+0	1.478393E+0	1.464407E+0	1.538151E+0	1.635585E+0
5.440220E+2	1.591263E+0	1.616653E+0	1.621502E+0	1.591677E+0	1.558211E+0	1.599227E+0	1.568936E+0	1.625533E+0	1.608823E+0	1.554986E+0	1.535808E+0	1.566391E+0	1.535061E+0	1.562760E+0	1.585263E+0	1.607081E+0	1.600277E+0	1.513076E+0	1.580813E+0	1.567391E+0	1.568006E+0	1.554717E+0	1.616082E+0	1.612982E+0	1.593162E+0	1.531081E+0	1.592832E+0	1.554991E+0	1.574114E+0	1.608439E+0	1.577039E+0	1.586119E+0	1.530693E+0	1.495425E+0	1.624833E+0	1.553547E+0	1.596173E+0	1.617379E+0	1.549221E+0	1.590047E+0	1.556007E+0	1.512108E+0	1.560481E+0	1.520431E+0	1.551951E+0	1.589750E+0	1.519060E+0	1.547842E+0	1.584108E+0	1.500730E+0	1.535474E+0	1.623138E+0	1.548202E+0	1.566606E+0	1.601949E+0	1.608506E+0	1.562682E+0	1.549821E+0	1.559160E+0	1.602338E+0	1.579659E+0	1.575065E+0	1.581211E+0	1.548985E+0	1.573105E+0	1.576320E+0	1.599357E+0	1.492738E+0	1.549405E+0	1.528615E+0	1.628576E+0	1.618124E+0	1.522108E+0	1.562578E+0	1.588912E+0	1.565678E+0	1.579266E+0	1.492485E+0	1.604265E+0	1.545188E+0	1.600110E+0	1.560436E+0	1.598004E+0	1.558991E+0	1.533090E+0	1.499380E+0	1.574773E+0	1.576012E+0	1.532205E+0	1.561176E+0	1.509186E+0	1.527894E+0	1.576043E+0	1.510342E+0	1.592960E+0	1.552568E+0	1.592772E+0	1.555733E+0	1.539495E+0	1.562270E+0	1.580883E+0	1.543458E+0	1.544205E+0	1.556733E+0	1.587756E+0	1.541711E+0	1.497791E+0	1.611395E+0	1.613153E+0	1.510782E+0	1.540245E+0	1.597964E+0	1.565208E+0	1.576390E+0	1.541950E+0	1.507960E+0	1.556407E+0	1.512074E+0	1.506667E+0	1.535029E+0	1.552421E+0	1.485388E+0	1.560467E+0	1.498457E+0	1.555838E+0	1.532161E+0	1.531934E+0	1.545619E+0	1.566583E+0	1.537528E+0	1.564472E+0	1.547893E+0	1.521000E+0	1.546469E+0	1.531624E+0	1.562016E+0	1.513632E+0	1.557044E+0	1.505340E+0	1.553420E+0	1.488784E+0	1.553397E+0	1.494704E+0	1.548776E+0	1.567981E+0	1.557496E+0	1.562895E+0	1.484720E+0	1.537528E+0	1.533880E+0	1.560191E+0	1.564811E+0	1.502957E+0	1.545874E+0	1.528125E+0	1.492956E+0	1.554245E+0	1.542397E+0	1.584984E+0	1.509953E+0	1.520443E+0	1.548123E+0	1.519053E+0	1.538428E+0	1.550417E+0	1.591300E+0	1.524175E+0	1.539004E+0	1.571208E+0	1.494476E+0	1.502115E+0	1.577867E+0
5.442700E+2	1.566263E+0	1.609379E+0	1.623918E+0	1.556422E+0	1.597838E+0	1.620759E+0	1.531734E+0	1.601274E+0	1.559111E+0	1.539619E+0	1.589522E+0	1.596685E+0	1.605867E+0	1.552218E+0	1.580184E+0	1.564752E+0	1.576079E+0	1.541548E+0	1.594824E+0	1.579286E+0	1.602389E+0	1.586987E+0	1.568563E+0	1.537038E+0	1.576780E+0	1.519246E+0	1.541896E+0	1.556307E+0	1.582890E+0	1.561410E+0	1.565798E+0	1.550472E+0	1.543122E+0	1.549797E+0	1.547163E+0	1.550555E+0	1.545809E+0	1.562520E+0	1.561069E+0	1.620387E+0	1.576987E+0	1.584154E+0	1.617708E+0	1.555008E+0	1.538859E+0	1.579516E+0	1.576003E+0	1.550725E+0	1.614052E+0	1.515056E+0	1.575289E+0	1.547643E+0	1.580752E+0	1.529362E+0	1.593526E+0	1.599156E+0	1.518499E+0	1.576582E+0	1.571795E+0	1.578368E+0	1.546706E+0	1.519613E+0	1.594534E+0	1.524805E+0	1.504534E+0	1.578314E+0	1.573804E+0	1.521697E+0	1.511422E+0	1.527891E+0	1.526920E+0	1.576309E+0	1.561857E+0	1.573676E+0	1.581282E+0	1.539873E+0	1.606982E+0	1.514091E+0	1.531992E+0	1.580110E+0	1.574561E+0	1.566591E+0	1.652773E+0	1.559866E+0	1.537214E+0	1.591436E+0	1.619382E+0	1.532772E+0	1.527853E+0	1.564652E+0	1.587374E+0	1.580675E+0	1.585150E+0	1.531071E+0	1.543842E+0	1.551084E+0	1.650024E+0	1.489222E+0	1.597280E+0	1.610824E+0	1.590458E+0	1.569900E+0	1.525496E+0	1.594908E+0	1.579402E+0	1.500781E+0	1.568580E+0	1.543263E+0	1.545002E+0	1.574281E+0	1.478805E+0	1.588949E+0	1.539785E+0	1.516305E+0	1.561743E+0	1.554283E+0	1.579095E+0	1.480965E+0	1.578176E+0	1.544865E+0	1.546007E+0	1.536993E+0	1.551171E+0	1.481530E+0	1.521229E+0	1.573738E+0	1.567656E+0	1.558000E+0	1.531096E+0	1.499403E+0	1.566235E+0	1.573577E+0	1.501028E+0	1.494965E+0	1.584118E+0	1.560288E+0	1.542873E+0	1.555508E+0	1.538945E+0	1.551366E+0	1.550699E+0	1.529349E+0	1.562556E+0	1.559979E+0	1.522437E+0	1.541419E+0	1.579055E+0	1.519956E+0	1.560059E+0	1.557219E+0	1.601679E+0	1.507109E+0	1.550310E+0	1.542402E+0	1.580747E+0	1.587003E+0	1.510024E+0	1.512551E+0	1.562079E+0	1.567431E+0	1.525739E+0	1.461682E+0	1.581707E+0	1.561103E+0	1.510476E+0	1.551015E+0	1.500193E+0	1.597685E+0	1.484134E+0	1.573074E+0	1.546538E+0	1.433845E+0
5.445180E+2	1.564953E+0	1.521460E+0	1.626470E+0	1.573687E+0	1.473876E+0	1.557227E+0	1.580452E+0	1.569465E+0	1.526090E+0	1.569799E+0	1.567217E+0	1.540107E+0	1.524825E+0	1.557418E+0	1.510135E+0	1.538505E+0	1.538745E+0	1.586641E+0	1.528307E+0	1.518268E+0	1.540684E+0	1.539794E+0	1.515662E+0	1.497270E+0	1.543244E+0	1.541392E+0	1.576762E+0	1.523559E+0	1.612365E+0	1.552156E+0	1.533461E+0	1.545895E+0	1.591432E+0	1.475812E+0	1.624812E+0	1.560169E+0	1.570990E+0	1.589309E+0	1.531238E+0	1.562770E+0	1.511367E+0	1.545785E+0	1.518440E+0	1.494588E+0	1.557717E+0	1.542448E+0	1.558857E+0	1.558157E+0	1.570723E+0	1.478763E+0	1.567528E+0	1.579765E+0	1.520547E+0	1.556301E+0	1.554944E+0	1.580771E+0	1.528546E+0	1.504064E+0	1.551740E+0	1.548100E+0	1.511326E+0	1.554747E+0	1.518100E+0	1.500758E+0	1.582061E+0	1.557041E+0	1.583505E+0	1.513161E+0	1.569683E+0	1.518478E+0	1.571756E+0	1.578459E+0	1.496630E+0	1.534934E+0	1.581175E+0	1.559231E+0	1.564977E+0	1.557487E+0	1.501412E+0	1.515229E+0	1.593445E+0	1.565837E+0	1.494341E+0	1.555989E+0	1.543973E+0	1.492714E+0	1.563202E+0	1.509300E+0	1.483591E+0	1.518295E+0	1.529782E+0	1.531269E+0	1.492854E+0	1.531335E+0	1.514966E+0	1.489266E+0	1.575297E+0	1.542515E+0	1.509797E+0	1.484828E+0	1.575272E+0	1.506632E+0	1.584654E+0	1.474096E+0	1.509355E+0	1.543383E+0	1.514079E+0	1.557716E+0	1.548655E+0	1.550200E+0	1.537839E+0	1.546439E+0	1.542139E+0	1.505384E+0	1.549940E+0	1.529031E+0	1.567404E+0	1.453144E+0	1.567275E+0	1.515464E+0	1.511989E+0	1.518569E+0	1.562376E+0	1.524419E+0	1.530646E+0	1.557049E+0	1.514776E+0	1.521112E+0	1.542019E+0	1.525199E+0	1.556507E+0	1.520004E+0	1.503863E+0	1.549601E+0	1.533356E+0	1.577322E+0	1.489423E+0	1.517213E+0	1.540528E+0	1.517620E+0	1.500556E+0	1.513299E+0	1.464430E+0	1.515102E+0	1.506403E+0	1.550968E+0	1.514523E+0	1.519604E+0	1.497306E+0	1.536061E+0	1.549645E+0	1.545222E+0	1.498676E+0	1.475271E+0	1.504073E+0	1.507125E+0	1.473312E+0	1.504605E+0	1.518351E+0	1.502660E+0	1.542081E+0	1.458398E+0	1.565493E+0	1.522806E+0	1.499992E+0	1.528953E+0	1.550922E+0	1.517681E+0	1.420873E+0	1.528913E+0	1.523520E+0	1.519398E+0
5.447720E+2	1.449334E+0	1.439919E+0	1.459614E+0	1.416079E+0	1.425510E+0	1.493069E+0	1.497156E+0	1.466973E+0	1.482441E+0	1.414652E+0	1.420503E+0	1.460687E+0	1.427163E+0	1.459358E+0	1.468690E+0	1.440453E+0	1.443501E+0	1.425578E+0	1.521742E+0	1.486678E+0	1.462450E+0	1.388518E+0	1.452606E+0	1.426136E+0	1.479997E+0	1.469615E+0	1.421711E+0	1.468924E+0	1.488603E+0	1.438998E+0	1.476582E+0	1.438526E+0	1.460513E+0	1.432065E+0	1.452465E+0	1.458692E+0	1.450226E+0	1.451039E+0	1.425161E+0	1.459738E+0	1.471753E+0	1.468421E+0	1.425905E+0	1.428193E+0	1.409741E+0	1.425452E+0	1.398404E+0	1.435802E+0	1.465026E+0	1.415043E+0	1.440349E+0	1.472959E+0	1.438150E+0	1.383046E+0	1.462323E+0	1.498103E+0	1.477491E+0	1.410678E+0	1.430421E+0	1.452781E+0	1.423376E+0	1.455059E+0	1.448005E+0	1.461738E+0	1.447231E+0	1.420727E+0	1.485270E+0	1.399134E+0	1.390033E+0	1.451718E+0	1.449266E+0	1.511017E+0	1.443245E+0	1.386866E+0	1.475385E+0	1.418763E+0	1.425810E+0	1.384823E+0	1.450826E+0	1.462207E+0	1.473066E+0	1.448963E+0	1.462968E+0	1.418318E+0	1.406522E+0	1.443062E+0	1.476889E+0	1.441529E+0	1.430516E+0	1.371704E+0	1.456089E+0	1.440355E+0	1.430429E+0	1.375661E+0	1.421833E+0	1.451388E+0	1.472140E+0	1.454360E+0	1.439629E+0	1.475377E+0	1.427234E+0	1.400603E+0	1.440176E+0	1.489529E+0	1.412377E+0	1.446144E+0	1.376261E+0	1.446767E+0	1.457800E+0	1.384951E+0	1.423606E+0	1.452952E+0	1.455812E+0	1.373835E+0	1.419194E+0	1.447763E+0	1.465322E+0	1.402295E+0	1.428037E+0	1.412187E+0	1.428482E+0	1.438356E+0	1.380000E+0	1.427143E+0	1.461121E+0	1.467942E+0	1.448581E+0	1.410629E+0	1.485378E+0	1.475048E+0	1.384395E+0	1.451506E+0	1.417685E+0	1.406195E+0	1.407985E+0	1.412814E+0	1.416650E+0	1.392496E+0	1.423931E+0	1.468321E+0	1.402664E+0	1.451475E+0	1.399831E+0	1.414724E+0	1.410121E+0	1.432555E+0	1.437881E+0	1.371981E+0	1.450750E+0	1.437574E+0	1.562691E+0	1.413926E+0	1.377509E+0	1.407691E+0	1.464797E+0	1.404680E+0	1.369362E+0	1.386110E+0	1.469668E+0	1.440498E+0	1.450894E+0	1.427493E+0	1.381565E+0	1.406557E+0	1.405167E+0	1.432194E+0	1.481522E+0	1.427910E+0	1.368871E+0	1.422710E+0	1.474717E+0	1.419894E+0
5.450090E+2	1.317327E+0	1.331467E+0	1.340832E+0	1.333800E+0	1.307148E+0	1.369144E+0	1.300193E+0	1.348875E+0	1.359035E+0	1.323806E+0	1.310191E+0	1.293699E+0	1.316822E+0	1.365846E+0	1.356543E+0	1.338660E+0	1.372390E+0	1.327654E+0	1.331913E+0	1.326273E+0	1.304424E+0	1.310072E+0	1.359965E+0	1.306100E+0	1.336888E+0	1.320268E+0	1.352235E+0	1.296990E+0	1.360576E+0	1.305232E+0	1.310061E+0	1.345507E+0	1.404698E+0	1.309435E+0	1.376950E+0	1.314018E+0	1.340023E+0	1.363443E+0	1.341822E+0	1.316469E+0	1.303665E+0	1.291914E+0	1.364645E+0	1.389760E+0	1.341993E+0	1.277934E+0	1.353566E+0	1.355188E+0	1.320515E+0	1.320707E+0	1.310666E+0	1.337795E+0	1.355810E+0	1.322595E+0	1.327104E+0	1.354807E+0	1.334264E+0	1.314468E+0	1.334434E+0	1.397283E+0	1.321525E+0	1.317442E+0	1.326735E+0	1.334491E+0	1.269826E+0	1.276914E+0	1.317876E+0	1.305735E+0	1.318188E+0	1.356211E+0	1.347190E+0	1.313521E+0	1.301141E+0	1.312000E+0	1.316487E+0	1.324779E+0	1.265583E+0	1.290028E+0	1.318333E+0	1.318771E+0	1.360527E+0	1.304914E+0	1.265890E+0	1.286941E+0	1.322815E+0	1.289520E+0	1.347910E+0	1.337719E+0	1.333819E+0	1.317708E+0	1.355196E+0	1.332841E+0	1.354403E+0	1.245601E+0	1.256389E+0	1.335579E+0	1.384939E+0	1.258394E+0	1.319035E+0	1.283991E+0	1.354924E+0	1.324620E+0	1.328570E+0	1.353757E+0	1.301327E+0	1.286258E+0	1.231116E+0	1.302582E+0	1.323980E+0	1.327672E+0	1.310634E+0	1.363828E+0	1.301285E+0	1.266352E+0	1.320169E+0	1.319622E+0	1.406867E+0	1.280099E+0	1.422855E+0	1.338934E+0	1.332136E+0	1.318490E+0	1.300296E+0	1.330221E+0	1.367273E+0	1.310535E+0	1.324101E+0	1.312146E+0	1.284836E+0	1.299390E+0	1.242684E+0	1.320973E+0	1.328070E+0	1.280347E+0	1.375124E+0	1.359303E+0	1.310231E+0	1.275985E+0	1.347864E+0	1.264300E+0	1.286299E+0	1.292621E+0	1.288569E+0	1.278298E+0	1.357167E+0	1.348494E+0	1.318639E+0	1.263490E+0	1.289875E+0	1.333942E+0	1.303929E+0	1.339520E+0	1.296479E+0	1.305606E+0	1.260325E+0	1.332990E+0	1.295033E+0	1.325363E+0	1.314790E+0	1.305486E+0	1.322828E+0	1.280132E+0	1.356440E+0	1.339483E+0	1.333945E+0	1.316181E+0	1.327136E+0	1.278321E+0	1.342272E+0	1.286021E+0	1.326876E+0	1.433281E+0
5.452690E+2	1.307285E+0	1.252810E+0	1.232508E+0	1.248756E+0	1.315438E+0	1.287202E+0	1.295585E+0	1.315587E+0	1.254644E+0	1.293967E+0	1.248780E+0	1.330521E+0	1.300955E+0	1.282254E+0	1.282787E+0	1.248857E+0	1.258280E+0	1.281188E+0	1.288595E+0	1.314543E+0	1.282740E+0	1.246899E+0	1.312614E+0	1.314690E+0	1.281777E+0	1.227425E+0	1.289337E+0	1.265840E+0	1.285222E+0	1.324882E+0	1.304906E+0	1.308075E+0	1.272883E+0	1.242961E+0	1.328083E+0	1.243533E+0	1.332451E+0	1.308608E+0	1.315657E+0	1.242823E+0	1.258304E+0	1.317487E+0	1.264690E+0	1.240486E+0	1.277293E+0	1.293360E+0	1.291145E+0	1.278133E+0	1.280955E+0	1.265531E+0	1.339732E+0	1.301138E+0	1.241639E+0	1.281521E+0	1.289703E+0	1.288571E+0	1.290421E+0	1.279997E+0	1.253223E+0	1.270016E+0	1.245542E+0	1.304513E+0	1.236525E+0	1.293784E+0	1.310245E+0	1.267666E+0	1.283764E+0	1.270819E+0	1.274760E+0	1.320140E+0	1.281693E+0	1.284579E+0	1.267465E+0	1.231947E+0	1.306275E+0	1.250874E+0	1.281955E+0	1.265558E+0	1.312731E+0	1.267989E+0	1.280057E+0	1.286304E+0	1.285815E+0	1.286613E+0	1.242053E+0	1.254715E+0	1.293797E+0	1.308134E+0	1.279482E+0	1.250464E+0	1.247917E+0	1.252233E+0	1.278410E+0	1.246157E+0	1.243832E+0	1.264044E+0	1.333836E+0	1.240583E+0	1.312588E+0	1.265029E+0	1.311852E+0	1.250672E+0	1.306728E+0	1.291165E+0	1.272718E+0	1.261050E+0	1.238251E+0	1.287108E+0	1.287926E+0	1.285080E+0	1.252499E+0	1.289384E+0	1.196614E+0	1.272436E+0	1.318727E+0	1.240500E+0	1.274928E+0	1.260822E+0	1.310425E+0	1.272653E+0	1.251558E+0	1.248217E+0	1.312173E+0	1.289037E+0	1.277417E+0	1.304712E+0	1.248816E+0	1.272178E+0	1.292390E+0	1.278989E+0	1.295756E+0	1.276360E+0	1.291165E+0	1.266140E+0	1.317804E+0	1.278444E+0	1.245670E+0	1.245885E+0	1.224751E+0	1.307374E+0	1.259021E+0	1.274478E+0	1.291078E+0	1.288639E+0	1.218938E+0	1.283452E+0	1.311062E+0	1.268223E+0	1.223763E+0	1.273908E+0	1.323348E+0	1.263442E+0	1.280950E+0	1.221897E+0	1.244761E+0	1.266880E+0	1.268922E+0	1.299503E+0	1.277892E+0	1.245397E+0	1.274114E+0	1.306762E+0	1.289248E+0	1.265882E+0	1.282670E+0	1.273298E+0	1.309353E+0	1.282839E+0	1.253040E+0	1.213594E+0	1.281557E+0	1.225003E+0
5.455180E+2	1.273460E+0	1.213157E+0	1.282101E+0	1.277326E+0	1.250967E+0	1.240957E+0	1.227397E+0	1.197036E+0	1.274566E+0	1.227163E+0	1.251923E+0	1.243011E+0	1.192327E+0	1.231292E+0	1.243726E+0	1.212248E+0	1.240954E+0	1.199741E+0	1.224316E+0	1.224201E+0	1.257447E+0	1.223231E+0	1.252126E+0	1.207276E+0	1.282910E+0	1.262611E+0	1.215513E+0	1.241546E+0	1.302288E+0	1.210091E+0	1.250694E+0	1.250627E+0	1.236937E+0	1.222581E+0	1.221195E+0	1.228625E+0	1.231179E+0	1.278829E+0	1.264926E+0	1.265864E+0	1.229245E+0	1.193116E+0	1.245058E+0	1.194865E+0	1.235784E+0	1.234325E+0	1.247650E+0	1.244963E+0	1.284585E+0	1.226589E+0	1.228098E+0	1.253437E+0	1.267567E+0	1.232550E+0	1.263025E+0	1.240248E+0	1.212112E+0	1.247155E+0	1.199607E+0	1.318975E+0	1.193741E+0	1.239020E+0	1.243148E+0	1.258095E+0	1.239036E+0	1.239362E+0	1.207036E+0	1.218943E+0	1.194975E+0	1.224174E+0	1.306383E+0	1.253261E+0	1.218692E+0	1.253957E+0	1.268362E+0	1.295237E+0	1.181988E+0	1.235612E+0	1.254172E+0	1.223722E+0	1.251616E+0	1.231005E+0	1.209710E+0	1.184488E+0	1.221760E+0	1.212371E+0	1.298355E+0	1.196844E+0	1.186120E+0	1.237047E+0	1.262065E+0	1.264377E+0	1.245593E+0	1.249729E+0	1.253778E+0	1.217289E+0	1.266060E+0	1.186525E+0	1.257036E+0	1.199040E+0	1.275838E+0	1.188369E+0	1.281506E+0	1.279330E+0	1.178577E+0	1.232282E+0	1.258903E+0	1.282141E+0	1.271979E+0	1.198356E+0	1.220859E+0	1.233555E+0	1.234136E+0	1.220123E+0	1.214747E+0	1.154933E+0	1.249960E+0	1.267663E+0	1.322459E+0	1.250107E+0	1.268440E+0	1.227876E+0	1.245517E+0	1.256851E+0	1.201330E+0	1.203693E+0	1.216788E+0	1.175746E+0	1.254189E+0	1.186268E+0	1.232836E+0	1.327631E+0	1.203987E+0	1.211914E+0	1.223806E+0	1.233021E+0	1.209865E+0	1.236927E+0	1.219718E+0	1.225170E+0	1.231756E+0	1.226205E+0	1.242086E+0	1.232105E+0	1.166044E+0	1.243436E+0	1.220677E+0	1.217671E+0	1.236567E+0	1.246559E+0	1.262325E+0	1.245423E+0	1.232206E+0	1.214625E+0	1.216734E+0	1.255888E+0	1.252217E+0	1.168123E+0	1.219633E+0	1.238274E+0	1.237922E+0	1.236550E+0	1.255558E+0	1.230972E+0	1.252234E+0	1.204421E+0	1.255190E+0	1.262990E+0	1.222302E+0	1.212445E+0	1.232213E+0	1.492226E+0
5.457560E+2	1.181598E+0	1.159544E+0	1.178660E+0	1.165408E+0	1.199710E+0	1.193976E+0	1.179246E+0	1.250823E+0	1.138407E+0	1.170045E+0	1.156171E+0	1.219753E+0	1.196478E+0	1.187899E+0	1.147167E+0	1.160250E+0	1.241963E+0	1.146159E+0	1.184268E+0	1.146208E+0	1.185594E+0	1.178679E+0	1.187803E+0	1.165214E+0	1.185531E+0	1.198523E+0	1.159558E+0	1.171307E+0	1.185896E+0	1.186910E+0	1.171970E+0	1.121306E+0	1.231220E+0	1.159455E+0	1.175328E+0	1.201154E+0	1.149709E+0	1.201596E+0	1.218377E+0	1.248264E+0	1.245281E+0	1.199935E+0	1.177659E+0	1.220646E+0	1.257172E+0	1.134173E+0	1.155602E+0	1.205845E+0	1.191788E+0	1.160396E+0	1.166034E+0	1.172241E+0	1.214585E+0	1.179328E+0	1.183140E+0	1.182919E+0	1.246649E+0	1.205002E+0	1.152810E+0	1.161013E+0	1.162184E+0	1.191832E+0	1.171683E+0	1.207047E+0	1.177881E+0	1.161787E+0	1.172055E+0	1.165240E+0	1.123628E+0	1.164284E+0	1.158541E+0	1.159263E+0	1.176492E+0	1.181599E+0	1.181580E+0	1.216740E+0	1.163686E+0	1.126966E+0	1.167125E+0	1.205906E+0	1.213473E+0	1.180621E+0	1.170954E+0	1.146142E+0	1.168410E+0	1.161962E+0	1.142894E+0	1.188009E+0	1.152104E+0	1.214216E+0	1.157593E+0	1.175557E+0	1.207002E+0	1.163219E+0	1.168320E+0	1.146324E+0	1.167716E+0	1.157316E+0	1.117749E+0	1.177488E+0	1.177409E+0	1.168979E+0	1.194173E+0	1.193045E+0	1.216104E+0	1.171431E+0	1.123735E+0	1.238025E+0	1.231483E+0	1.197611E+0	1.120892E+0	1.225283E+0	1.127158E+0	1.113936E+0	1.148878E+0	1.192327E+0	1.156702E+0	1.196349E+0	1.156348E+0	1.198722E+0	1.199811E+0	1.199644E+0	1.193136E+0	1.130111E+0	1.176620E+0	1.147021E+0	1.143623E+0	1.181079E+0	1.173411E+0	1.188206E+0	1.194099E+0	1.174246E+0	1.148891E+0	1.204113E+0	1.190326E+0	1.248833E+0	1.181781E+0	1.160343E+0	1.174136E+0	1.217898E+0	1.179483E+0	1.162880E+0	1.158772E+0	1.137488E+0	1.142800E+0	1.226750E+0	1.207286E+0	1.193440E+0	1.163462E+0	1.168746E+0	1.206743E+0	1.209725E+0	1.155084E+0	1.157748E+0	1.206782E+0	1.163054E+0	1.234512E+0	1.200232E+0	1.202590E+0	1.184418E+0	1.175556E+0	1.159113E+0	1.156207E+0	1.176020E+0	1.158355E+0	1.170838E+0	1.155941E+0	1.180978E+0	1.178904E+0	1.171017E+0	1.193997E+0	1.169350E+0
5.460160E+2	1.259109E+0	1.166044E+0	1.138892E+0	1.149816E+0	1.218737E+0	1.215517E+0	1.201087E+0	1.237616E+0	1.179950E+0	1.204452E+0	1.159160E+0	1.175078E+0	1.202577E+0	1.208488E+0	1.190351E+0	1.238414E+0	1.172073E+0	1.187822E+0	1.207602E+0	1.174820E+0	1.219780E+0	1.176847E+0	1.155704E+0	1.182829E+0	1.165939E+0	1.134591E+0	1.166410E+0	1.199845E+0	1.188456E+0	1.173683E+0	1.168790E+0	1.226711E+0	1.270160E+0	1.214962E+0	1.216390E+0	1.283586E+0	1.204598E+0	1.223394E+0	1.163055E+0	1.208221E+0	1.187016E+0	1.174062E+0	1.171770E+0	1.158740E+0	1.218478E+0	1.171218E+0	1.167869E+0	1.182234E+0	1.164737E+0	1.169074E+0	1.210185E+0	1.184358E+0	1.223769E+0	1.196668E+0	1.204383E+0	1.237037E+0	1.198051E+0	1.230201E+0	1.190253E+0	1.233121E+0	1.174243E+0	1.181472E+0	1.141046E+0	1.185189E+0	1.204180E+0	1.147843E+0	1.183046E+0	1.221953E+0	1.133809E+0	1.175333E+0	1.160707E+0	1.200309E+0	1.172626E+0	1.188073E+0	1.240430E+0	1.205671E+0	1.223589E+0	1.168018E+0	1.226740E+0	1.140250E+0	1.199587E+0	1.194260E+0	1.194687E+0	1.168980E+0	1.162424E+0	1.166397E+0	1.242401E+0	1.216084E+0	1.193815E+0	1.175602E+0	1.208388E+0	1.193111E+0	1.174590E+0	1.194557E+0	1.194638E+0	1.180109E+0	1.212226E+0	1.188803E+0	1.213008E+0	1.216197E+0	1.209980E+0	1.165574E+0	1.170401E+0	1.187695E+0	1.174225E+0	1.155505E+0	1.167531E+0	1.233471E+0	1.188954E+0	1.190696E+0	1.145109E+0	1.195736E+0	1.210211E+0	1.198557E+0	1.244519E+0	1.180988E+0	1.185716E+0	1.149291E+0	1.187954E+0	1.201830E+0	1.181950E+0	1.173761E+0	1.175462E+0	1.201289E+0	1.234569E+0	1.182442E+0	1.193292E+0	1.134029E+0	1.226274E+0	1.187063E+0	1.172985E+0	1.196204E+0	1.180007E+0	1.183040E+0	1.178400E+0	1.130838E+0	1.193872E+0	1.169160E+0	1.126560E+0	1.202351E+0	1.153157E+0	1.158228E+0	1.155053E+0	1.207648E+0	1.206488E+0	1.205393E+0	1.199608E+0	1.221098E+0	1.159837E+0	1.146622E+0	1.270411E+0	1.197040E+0	1.153170E+0	1.153390E+0	1.191515E+0	1.179669E+0	1.135230E+0	1.120632E+0	1.188548E+0	1.200404E+0	1.223733E+0	1.165644E+0	1.161754E+0	1.169596E+0	1.133590E+0	1.224077E+0	1.201610E+0	1.220633E+0	1.117030E+0	1.192994E+0	1.198329E+0	1.090993E+0
5.467660E+2	1.241704E+0	1.183532E+0	1.223710E+0	1.220077E+0	1.205599E+0	1.231411E+0	1.209414E+0	1.232695E+0	1.216701E+0	1.221194E+0	1.248950E+0	1.287040E+0	1.234832E+0	1.214681E+0	1.184432E+0	1.235057E+0	1.240545E+0	1.202858E+0	1.181136E+0	1.197537E+0	1.214287E+0	1.213289E+0	1.226127E+0	1.259881E+0	1.235085E+0	1.218993E+0	1.162346E+0	1.213482E+0	1.285225E+0	1.223791E+0	1.176767E+0	1.226282E+0	1.247452E+0	1.192469E+0	1.196089E+0	1.265917E+0	1.242705E+0	1.209161E+0	1.215638E+0	1.241255E+0	1.235559E+0	1.228840E+0	1.218375E+0	1.162669E+0	1.235905E+0	1.211752E+0	1.198389E+0	1.218139E+0	1.244494E+0	1.254736E+0	1.213297E+0	1.239110E+0	1.175495E+0	1.241987E+0	1.222456E+0	1.256113E+0	1.214419E+0	1.217123E+0	1.211067E+0	1.280126E+0	1.167459E+0	1.217831E+0	1.259068E+0	1.205251E+0	1.184068E+0	1.227232E+0	1.190635E+0	1.192931E+0	1.165653E+0	1.271215E+0	1.165430E+0	1.208716E+0	1.250375E+0	1.186711E+0	1.257802E+0	1.212209E+0	1.263165E+0	1.152681E+0	1.234807E+0	1.209513E+0	1.244331E+0	1.175728E+0	1.203574E+0	1.194330E+0	1.172490E+0	1.182990E+0	1.230252E+0	1.184776E+0	1.215507E+0	1.196733E+0	1.209925E+0	1.222781E+0	1.251371E+0	1.228907E+0	1.198546E+0	1.162869E+0	1.288498E+0	1.168463E+0	1.213014E+0	1.224980E+0	1.219302E+0	1.223299E+0	1.200408E+0	1.216669E+0	1.275149E+0	1.195676E+0	1.225594E+0	1.203330E+0	1.249706E+0	1.200836E+0	1.179413E+0	1.241091E+0	1.224530E+0	1.257632E+0	1.213274E+0	1.182401E+0	1.253535E+0	1.150147E+0	1.222809E+0	1.241070E+0	1.221321E+0	1.225111E+0	1.250186E+0	1.224276E+0	1.233875E+0	1.224861E+0	1.222511E+0	1.197725E+0	1.228989E+0	1.215445E+0	1.218172E+0	1.220457E+0	1.226122E+0	1.231905E+0	1.242702E+0	1.191300E+0	1.215884E+0	1.211956E+0	1.250037E+0	1.239458E+0	1.191674E+0	1.223242E+0	1.195590E+0	1.198004E+0	1.248182E+0	1.220556E+0	1.202194E+0	1.191161E+0	1.202243E+0	1.235579E+0	1.192657E+0	1.253593E+0	1.200148E+0	1.213056E+0	1.172214E+0	1.248374E+0	1.192866E+0	1.213794E+0	1.198922E+0	1.182675E+0	1.239528E+0	1.170342E+0	1.240954E+0	1.244090E+0	1.193835E+0	1.206503E+0	1.205853E+0	1.233472E+0	1.192056E+0	1.268415E+0	1.293792E+0	1.135352E+0
5.475120E+2	1.277811E+0	1.272484E+0	1.274686E+0	1.266999E+0	1.259775E+0	1.301986E+0	1.272474E+0	1.270641E+0	1.297293E+0	1.315458E+0	1.247914E+0	1.257330E+0	1.291100E+0	1.261657E+0	1.284208E+0	1.271804E+0	1.288997E+0	1.313325E+0	1.271742E+0	1.275222E+0	1.317906E+0	1.287673E+0	1.298764E+0	1.300906E+0	1.271733E+0	1.242755E+0	1.285616E+0	1.274526E+0	1.296206E+0	1.327288E+0	1.241831E+0	1.346012E+0	1.314699E+0	1.261771E+0	1.273783E+0	1.256400E+0	1.265912E+0	1.272916E+0	1.281852E+0	1.335566E+0	1.263280E+0	1.237116E+0	1.273361E+0	1.233849E+0	1.278965E+0	1.269406E+0	1.282905E+0	1.285773E+0	1.315721E+0	1.258335E+0	1.239566E+0	1.322601E+0	1.282861E+0	1.284315E+0	1.249079E+0	1.289756E+0	1.280778E+0	1.277293E+0	1.275286E+0	1.323248E+0	1.261524E+0	1.265722E+0	1.249610E+0	1.286070E+0	1.239928E+0	1.289594E+0	1.280071E+0	1.271161E+0	1.287614E+0	1.258356E+0	1.284752E+0	1.280495E+0	1.278265E+0	1.284244E+0	1.254946E+0	1.294505E+0	1.272418E+0	1.199586E+0	1.282584E+0	1.254316E+0	1.326528E+0	1.250971E+0	1.258606E+0	1.288543E+0	1.241654E+0	1.287368E+0	1.291903E+0	1.288188E+0	1.252843E+0	1.331367E+0	1.250848E+0	1.314304E+0	1.271500E+0	1.250053E+0	1.251685E+0	1.238359E+0	1.310062E+0	1.244617E+0	1.218990E+0	1.315449E+0	1.288679E+0	1.256535E+0	1.241381E+0	1.244007E+0	1.260984E+0	1.245938E+0	1.246547E+0	1.317798E+0	1.297765E+0	1.302776E+0	1.242922E+0	1.298947E+0	1.273777E+0	1.279454E+0	1.211804E+0	1.265691E+0	1.277875E+0	1.229870E+0	1.265800E+0	1.331023E+0	1.283441E+0	1.306855E+0	1.237546E+0	1.263150E+0	1.306507E+0	1.241807E+0	1.254928E+0	1.305430E+0	1.247961E+0	1.238932E+0	1.246537E+0	1.270348E+0	1.227575E+0	1.298763E+0	1.283775E+0	1.337516E+0	1.242476E+0	1.242977E+0	1.239986E+0	1.284802E+0	1.253827E+0	1.283414E+0	1.254565E+0	1.291589E+0	1.239487E+0	1.266427E+0	1.217571E+0	1.253281E+0	1.268588E+0	1.322612E+0	1.277274E+0	1.281316E+0	1.183273E+0	1.278351E+0	1.216999E+0	1.279250E+0	1.254079E+0	1.241699E+0	1.239147E+0	1.271539E+0	1.275809E+0	1.254008E+0	1.305957E+0	1.270179E+0	1.236143E+0	1.243599E+0	1.276446E+0	1.340760E+0	1.207833E+0	1.252230E+0	1.289035E+0	1.248640E+0
5.482660E+2	1.411871E+0	1.425230E+0	1.433113E+0	1.368091E+0	1.385469E+0	1.403575E+0	1.391882E+0	1.397671E+0	1.403641E+0	1.409605E+0	1.386525E+0	1.349928E+0	1.388718E+0	1.434854E+0	1.378914E+0	1.361279E+0	1.394645E+0	1.384541E+0	1.411260E+0	1.458658E+0	1.363437E+0	1.416774E+0	1.375071E+0	1.371726E+0	1.399870E+0	1.352986E+0	1.352865E+0	1.390561E+0	1.377276E+0	1.427142E+0	1.415510E+0	1.428085E+0	1.406116E+0	1.357804E+0	1.440962E+0	1.440150E+0	1.458653E+0	1.408739E+0	1.369843E+0	1.454007E+0	1.411667E+0	1.398572E+0	1.374827E+0	1.428732E+0	1.356693E+0	1.410898E+0	1.380523E+0	1.422623E+0	1.441405E+0	1.446512E+0	1.380590E+0	1.452510E+0	1.447574E+0	1.444617E+0	1.412166E+0	1.451281E+0	1.420816E+0	1.334908E+0	1.364638E+0	1.404914E+0	1.413209E+0	1.412232E+0	1.373483E+0	1.436719E+0	1.423932E+0	1.441273E+0	1.341963E+0	1.383611E+0	1.384199E+0	1.376915E+0	1.374801E+0	1.462799E+0	1.451967E+0	1.443223E+0	1.444618E+0	1.396125E+0	1.388245E+0	1.368069E+0	1.371909E+0	1.361450E+0	1.394103E+0	1.379216E+0	1.363131E+0	1.405909E+0	1.343862E+0	1.323076E+0	1.391664E+0	1.419656E+0	1.377742E+0	1.392416E+0	1.342554E+0	1.372611E+0	1.462230E+0	1.374838E+0	1.374995E+0	1.367985E+0	1.418792E+0	1.421680E+0	1.375931E+0	1.373367E+0	1.403312E+0	1.337891E+0	1.322052E+0	1.383457E+0	1.416043E+0	1.356023E+0	1.344934E+0	1.425357E+0	1.417582E+0	1.389403E+0	1.356122E+0	1.439009E+0	1.382479E+0	1.345173E+0	1.383256E+0	1.416843E+0	1.384388E+0	1.376707E+0	1.401403E+0	1.357910E+0	1.378001E+0	1.368512E+0	1.429752E+0	1.404365E+0	1.436036E+0	1.396449E+0	1.369728E+0	1.375534E+0	1.368165E+0	1.367788E+0	1.394303E+0	1.367343E+0	1.387978E+0	1.407728E+0	1.350319E+0	1.381431E+0	1.392538E+0	1.356590E+0	1.351074E+0	1.427777E+0	1.406226E+0	1.384927E+0	1.373377E+0	1.358266E+0	1.403794E+0	1.364573E+0	1.333873E+0	1.398718E+0	1.334849E+0	1.375541E+0	1.385070E+0	1.415491E+0	1.410036E+0	1.352779E+0	1.369035E+0	1.389568E+0	1.403071E+0	1.339922E+0	1.379693E+0	1.355033E+0	1.394622E+0	1.373086E+0	1.328726E+0	1.350671E+0	1.371816E+0	1.390981E+0	1.401313E+0	1.401824E+0	1.377767E+0	1.350781E+0	1.377813E+0	1.322010E+0
5.490100E+2	1.399900E+0	1.382247E+0	1.422846E+0	1.354807E+0	1.353882E+0	1.407211E+0	1.416832E+0	1.416242E+0	1.417974E+0	1.410858E+0	1.352091E+0	1.444538E+0	1.389713E+0	1.345023E+0	1.349767E+0	1.346154E+0	1.444957E+0	1.424339E+0	1.373190E+0	1.377073E+0	1.416977E+0	1.425982E+0	1.422827E+0	1.377266E+0	1.357353E+0	1.398986E+0	1.366501E+0	1.428703E+0	1.390574E+0	1.357265E+0	1.373154E+0	1.416762E+0	1.449277E+0	1.346308E+0	1.389909E+0	1.399945E+0	1.415409E+0	1.399617E+0	1.412223E+0	1.398800E+0	1.422184E+0	1.370839E+0	1.377168E+0	1.434595E+0	1.403850E+0	1.362157E+0	1.429534E+0	1.421638E+0	1.448828E+0	1.376990E+0	1.378932E+0	1.368465E+0	1.402515E+0	1.433723E+0	1.360405E+0	1.382184E+0	1.341923E+0	1.391972E+0	1.398210E+0	1.439270E+0	1.384643E+0	1.351722E+0	1.336499E+0	1.450686E+0	1.363177E+0	1.368500E+0	1.425384E+0	1.359469E+0	1.376106E+0	1.419240E+0	1.347116E+0	1.423642E+0	1.350089E+0	1.457552E+0	1.428890E+0	1.424021E+0	1.388426E+0	1.375537E+0	1.384805E+0	1.407867E+0	1.413139E+0	1.369251E+0	1.402834E+0	1.329507E+0	1.375287E+0	1.408036E+0	1.367483E+0	1.390284E+0	1.360577E+0	1.334896E+0	1.341414E+0	1.368977E+0	1.387147E+0	1.408295E+0	1.396501E+0	1.341137E+0	1.431673E+0	1.339811E+0	1.399072E+0	1.449862E+0	1.440974E+0	1.402505E+0	1.389844E+0	1.432839E+0	1.400157E+0	1.382397E+0	1.355787E+0	1.444673E+0	1.443894E+0	1.327792E+0	1.319444E+0	1.436915E+0	1.409355E+0	1.353225E+0	1.351895E+0	1.351566E+0	1.383555E+0	1.356952E+0	1.402058E+0	1.359577E+0	1.360928E+0	1.348954E+0	1.409739E+0	1.393318E+0	1.357691E+0	1.425257E+0	1.406730E+0	1.350746E+0	1.421607E+0	1.397633E+0	1.367083E+0	1.388173E+0	1.375557E+0	1.401209E+0	1.394736E+0	1.377725E+0	1.422138E+0	1.388463E+0	1.333368E+0	1.429474E+0	1.386843E+0	1.356010E+0	1.398613E+0	1.388785E+0	1.322367E+0	1.355299E+0	1.330161E+0	1.342515E+0	1.322386E+0	1.361283E+0	1.403220E+0	1.412078E+0	1.303685E+0	1.308767E+0	1.472321E+0	1.456703E+0	1.392588E+0	1.390887E+0	1.422652E+0	1.373342E+0	1.370585E+0	1.403006E+0	1.376969E+0	1.336294E+0	1.336594E+0	1.433791E+0	1.399747E+0	1.377131E+0	1.366591E+0	1.346663E+0	1.429384E+0	1.460350E+0
5.497630E+2	1.379667E+0	1.363149E+0	1.383256E+0	1.389552E+0	1.436196E+0	1.325646E+0	1.392104E+0	1.391480E+0	1.357725E+0	1.369858E+0	1.304779E+0	1.382718E+0	1.386919E+0	1.389058E+0	1.362173E+0	1.405902E+0	1.360047E+0	1.314823E+0	1.368709E+0	1.361022E+0	1.374599E+0	1.349048E+0	1.359174E+0	1.353660E+0	1.387637E+0	1.386430E+0	1.376240E+0	1.418422E+0	1.411608E+0	1.342179E+0	1.370067E+0	1.339226E+0	1.423938E+0	1.345798E+0	1.364696E+0	1.357003E+0	1.407013E+0	1.388293E+0	1.382432E+0	1.382543E+0	1.353905E+0	1.366064E+0	1.376583E+0	1.352084E+0	1.390605E+0	1.338215E+0	1.325147E+0	1.332097E+0	1.385388E+0	1.342964E+0	1.356889E+0	1.356481E+0	1.370858E+0	1.352807E+0	1.332443E+0	1.371857E+0	1.344157E+0	1.362606E+0	1.303142E+0	1.407171E+0	1.339964E+0	1.328158E+0	1.342843E+0	1.414953E+0	1.371212E+0	1.383340E+0	1.342817E+0	1.314686E+0	1.289031E+0	1.343691E+0	1.343829E+0	1.370236E+0	1.400025E+0	1.392098E+0	1.415475E+0	1.358453E+0	1.363132E+0	1.337153E+0	1.327450E+0	1.353546E+0	1.372396E+0	1.382202E+0	1.285839E+0	1.293234E+0	1.320206E+0	1.325757E+0	1.353814E+0	1.358747E+0	1.318485E+0	1.344221E+0	1.376439E+0	1.426235E+0	1.375694E+0	1.340245E+0	1.320238E+0	1.339069E+0	1.416132E+0	1.339921E+0	1.366374E+0	1.310533E+0	1.416229E+0	1.348187E+0	1.362281E+0	1.402815E+0	1.334333E+0	1.291142E+0	1.307399E+0	1.383502E+0	1.400790E+0	1.333159E+0	1.340038E+0	1.409397E+0	1.345004E+0	1.343146E+0	1.384079E+0	1.372368E+0	1.321541E+0	1.368241E+0	1.348151E+0	1.355426E+0	1.384788E+0	1.360456E+0	1.338411E+0	1.356378E+0	1.377622E+0	1.382572E+0	1.333472E+0	1.299366E+0	1.377582E+0	1.367477E+0	1.342674E+0	1.428756E+0	1.337430E+0	1.378325E+0	1.340664E+0	1.317634E+0	1.340007E+0	1.329626E+0	1.290197E+0	1.388003E+0	1.337900E+0	1.389973E+0	1.358911E+0	1.325743E+0	1.379145E+0	1.370911E+0	1.340528E+0	1.425282E+0	1.314317E+0	1.353293E+0	1.341134E+0	1.347471E+0	1.374578E+0	1.330283E+0	1.322731E+0	1.352472E+0	1.379245E+0	1.304020E+0	1.360139E+0	1.342077E+0	1.322732E+0	1.348659E+0	1.331072E+0	1.340204E+0	1.400422E+0	1.407423E+0	1.341751E+0	1.359274E+0	1.270460E+0	1.331038E+0	1.256691E+0	1.305159E+0
5.505060E+2	1.270670E+0	1.300274E+0	1.338324E+0	1.301426E+0	1.300854E+0	1.336257E+0	1.281756E+0	1.275897E+0	1.324605E+0	1.313587E+0	1.283460E+0	1.256501E+0	1.320673E+0	1.300019E+0	1.329652E+0	1.307200E+0	1.293533E+0	1.335333E+0	1.281483E+0	1.294424E+0	1.324153E+0	1.335825E+0	1.274272E+0	1.266604E+0	1.328606E+0	1.296365E+0	1.345577E+0	1.335409E+0	1.303838E+0	1.336370E+0	1.340583E+0	1.313962E+0	1.323888E+0	1.336856E+0	1.309361E+0	1.316208E+0	1.329277E+0	1.351458E+0	1.299327E+0	1.293754E+0	1.339546E+0	1.301603E+0	1.286702E+0	1.312083E+0	1.292501E+0	1.265003E+0	1.276698E+0	1.311717E+0	1.305248E+0	1.308179E+0	1.241403E+0	1.346742E+0	1.291505E+0	1.311758E+0	1.325290E+0	1.320644E+0	1.292773E+0	1.316079E+0	1.297428E+0	1.301361E+0	1.381127E+0	1.310086E+0	1.292521E+0	1.261441E+0	1.304086E+0	1.281013E+0	1.273464E+0	1.286538E+0	1.243235E+0	1.314469E+0	1.275088E+0	1.303921E+0	1.284967E+0	1.291979E+0	1.339370E+0	1.303742E+0	1.335018E+0	1.289170E+0	1.306452E+0	1.333750E+0	1.300110E+0	1.303597E+0	1.267160E+0	1.260194E+0	1.267193E+0	1.326326E+0	1.272869E+0	1.381910E+0	1.311810E+0	1.283951E+0	1.304630E+0	1.335411E+0	1.263394E+0	1.303925E+0	1.285695E+0	1.327052E+0	1.369788E+0	1.315844E+0	1.360820E+0	1.309629E+0	1.290747E+0	1.288204E+0	1.246935E+0	1.324638E+0	1.265794E+0	1.273010E+0	1.248369E+0	1.331502E+0	1.285519E+0	1.292636E+0	1.310486E+0	1.324701E+0	1.342855E+0	1.256987E+0	1.307332E+0	1.348652E+0	1.319430E+0	1.252799E+0	1.357105E+0	1.316858E+0	1.355784E+0	1.342529E+0	1.345338E+0	1.287913E+0	1.304983E+0	1.253587E+0	1.289815E+0	1.280871E+0	1.293729E+0	1.287251E+0	1.285776E+0	1.318364E+0	1.321756E+0	1.330652E+0	1.306075E+0	1.336984E+0	1.290482E+0	1.262867E+0	1.276861E+0	1.329611E+0	1.303855E+0	1.310149E+0	1.273565E+0	1.331858E+0	1.290860E+0	1.270920E+0	1.285450E+0	1.317867E+0	1.340846E+0	1.268139E+0	1.341259E+0	1.272925E+0	1.302034E+0	1.277747E+0	1.267838E+0	1.335942E+0	1.270260E+0	1.256723E+0	1.297097E+0	1.287035E+0	1.309500E+0	1.301010E+0	1.294675E+0	1.323376E+0	1.237110E+0	1.314581E+0	1.311527E+0	1.279453E+0	1.280668E+0	1.233808E+0	1.186463E+0	1.159748E+0
5.512570E+2	1.354283E+0	1.358540E+0	1.332347E+0	1.345366E+0	1.342862E+0	1.348893E+0	1.301836E+0	1.315256E+0	1.348785E+0	1.322519E+0	1.270765E+0	1.284942E+0	1.338536E+0	1.319608E+0	1.315663E+0	1.346782E+0	1.359852E+0	1.324662E+0	1.361404E+0	1.294170E+0	1.347322E+0	1.330605E+0	1.315876E+0	1.288773E+0	1.343712E+0	1.319955E+0	1.344558E+0	1.313566E+0	1.327686E+0	1.349695E+0	1.295940E+0	1.298625E+0	1.355023E+0	1.313819E+0	1.386306E+0	1.351103E+0	1.286561E+0	1.333703E+0	1.308725E+0	1.367578E+0	1.315744E+0	1.310233E+0	1.337170E+0	1.317571E+0	1.303194E+0	1.263594E+0	1.308045E+0	1.330967E+0	1.353584E+0	1.333425E+0	1.293370E+0	1.345082E+0	1.350202E+0	1.312449E+0	1.307043E+0	1.286068E+0	1.356193E+0	1.290254E+0	1.300148E+0	1.329030E+0	1.345677E+0	1.285281E+0	1.290383E+0	1.279808E+0	1.360135E+0	1.343595E+0	1.317853E+0	1.305157E+0	1.307624E+0	1.272986E+0	1.313698E+0	1.311721E+0	1.384602E+0	1.317305E+0	1.331932E+0	1.320866E+0	1.307534E+0	1.260215E+0	1.325771E+0	1.345238E+0	1.373199E+0	1.360210E+0	1.337889E+0	1.314936E+0	1.290958E+0	1.305343E+0	1.320749E+0	1.307781E+0	1.291561E+0	1.365237E+0	1.285167E+0	1.237704E+0	1.374134E+0	1.277360E+0	1.299756E+0	1.301611E+0	1.315457E+0	1.274550E+0	1.287389E+0	1.348819E+0	1.353116E+0	1.346594E+0	1.340534E+0	1.333530E+0	1.304667E+0	1.318750E+0	1.262034E+0	1.384955E+0	1.307959E+0	1.305230E+0	1.302441E+0	1.289774E+0	1.328894E+0	1.263528E+0	1.377643E+0	1.292982E+0	1.315606E+0	1.293370E+0	1.317783E+0	1.292489E+0	1.321811E+0	1.327222E+0	1.300592E+0	1.280174E+0	1.348108E+0	1.297026E+0	1.342380E+0	1.271273E+0	1.364925E+0	1.265411E+0	1.327412E+0	1.310686E+0	1.308779E+0	1.325331E+0	1.306529E+0	1.309844E+0	1.340906E+0	1.271982E+0	1.283978E+0	1.314759E+0	1.287605E+0	1.376089E+0	1.271249E+0	1.304204E+0	1.217586E+0	1.298907E+0	1.307453E+0	1.359037E+0	1.284414E+0	1.339180E+0	1.340500E+0	1.356777E+0	1.335192E+0	1.287302E+0	1.315328E+0	1.257428E+0	1.253103E+0	1.294933E+0	1.287576E+0	1.318475E+0	1.370368E+0	1.339474E+0	1.286757E+0	1.254071E+0	1.296528E+0	1.330037E+0	1.308730E+0	1.344700E+0	1.272555E+0	1.273942E+0	1.283939E+0	1.265263E+0
5.520210E+2	1.296153E+0	1.304116E+0	1.297173E+0	1.299655E+0	1.231377E+0	1.309881E+0	1.289232E+0	1.270666E+0	1.314605E+0	1.290293E+0	1.294966E+0	1.252302E+0	1.274539E+0	1.246454E+0	1.269586E+0	1.320735E+0	1.267569E+0	1.337339E+0	1.250677E+0	1.244042E+0	1.336075E+0	1.287089E+0	1.298316E+0	1.290437E+0	1.291219E+0	1.292081E+0	1.254776E+0	1.297450E+0	1.279878E+0	1.299656E+0	1.271601E+0	1.266568E+0	1.323911E+0	1.325539E+0	1.244145E+0	1.331016E+0	1.264752E+0	1.336406E+0	1.306960E+0	1.282330E+0	1.300030E+0	1.252867E+0	1.278027E+0	1.246295E+0	1.275725E+0	1.289687E+0	1.252588E+0	1.296361E+0	1.300506E+0	1.256696E+0	1.274957E+0	1.251470E+0	1.279744E+0	1.313983E+0	1.344833E+0	1.248102E+0	1.308964E+0	1.278790E+0	1.295297E+0	1.271923E+0	1.274193E+0	1.289965E+0	1.267289E+0	1.297359E+0	1.274141E+0	1.306918E+0	1.280438E+0	1.248887E+0	1.262145E+0	1.258758E+0	1.262332E+0	1.227303E+0	1.327468E+0	1.318048E+0	1.265617E+0	1.260843E+0	1.271346E+0	1.257320E+0	1.277753E+0	1.270884E+0	1.288029E+0	1.326084E+0	1.258708E+0	1.260509E+0	1.258317E+0	1.249136E+0	1.256155E+0	1.234063E+0	1.248182E+0	1.238947E+0	1.298946E+0	1.292423E+0	1.257326E+0	1.271854E+0	1.267931E+0	1.258975E+0	1.251680E+0	1.241759E+0	1.230901E+0	1.257474E+0	1.260174E+0	1.279170E+0	1.322708E+0	1.282533E+0	1.337732E+0	1.261628E+0	1.248858E+0	1.267027E+0	1.298109E+0	1.299984E+0	1.247541E+0	1.285935E+0	1.261762E+0	1.260774E+0	1.278752E+0	1.239504E+0	1.266273E+0	1.277856E+0	1.283636E+0	1.276797E+0	1.284457E+0	1.339138E+0	1.344243E+0	1.262976E+0	1.312497E+0	1.280996E+0	1.274312E+0	1.277150E+0	1.251029E+0	1.263315E+0	1.231332E+0	1.290917E+0	1.330337E+0	1.277479E+0	1.276782E+0	1.254471E+0	1.295502E+0	1.272434E+0	1.225352E+0	1.288824E+0	1.278052E+0	1.278600E+0	1.256925E+0	1.291466E+0	1.233083E+0	1.291344E+0	1.234743E+0	1.276408E+0	1.252226E+0	1.248956E+0	1.317569E+0	1.345367E+0	1.268118E+0	1.254285E+0	1.271577E+0	1.344246E+0	1.246671E+0	1.214980E+0	1.266337E+0	1.214916E+0	1.307451E+0	1.292699E+0	1.309088E+0	1.266471E+0	1.254555E+0	1.291892E+0	1.269064E+0	1.296690E+0	1.240635E+0	1.248340E+0	1.295172E+0	1.099344E+0
5.527650E+2	1.158006E+0	1.183880E+0	1.210285E+0	1.179619E+0	1.182202E+0	1.257638E+0	1.193315E+0	1.151353E+0	1.194765E+0	1.165090E+0	1.162018E+0	1.171174E+0	1.192553E+0	1.209258E+0	1.178959E+0	1.196608E+0	1.194674E+0	1.181207E+0	1.198177E+0	1.207189E+0	1.207346E+0	1.163309E+0	1.224606E+0	1.160590E+0	1.155221E+0	1.214028E+0	1.166888E+0	1.169860E+0	1.206168E+0	1.195427E+0	1.156231E+0	1.171148E+0	1.168602E+0	1.203874E+0	1.187745E+0	1.215051E+0	1.198861E+0	1.175336E+0	1.152110E+0	1.217769E+0	1.229223E+0	1.151976E+0	1.180869E+0	1.169229E+0	1.179687E+0	1.190816E+0	1.214760E+0	1.201554E+0	1.226287E+0	1.152927E+0	1.182417E+0	1.157560E+0	1.206345E+0	1.194073E+0	1.176701E+0	1.177298E+0	1.203451E+0	1.200926E+0	1.183622E+0	1.213946E+0	1.214652E+0	1.170424E+0	1.177137E+0	1.204019E+0	1.235440E+0	1.163719E+0	1.162487E+0	1.133439E+0	1.159079E+0	1.165213E+0	1.189401E+0	1.207163E+0	1.193498E+0	1.213451E+0	1.189177E+0	1.163881E+0	1.215692E+0	1.178359E+0	1.196541E+0	1.173879E+0	1.206132E+0	1.142122E+0	1.159288E+0	1.163877E+0	1.208111E+0	1.135560E+0	1.172347E+0	1.185804E+0	1.186168E+0	1.179725E+0	1.158438E+0	1.186549E+0	1.177486E+0	1.157246E+0	1.157515E+0	1.154664E+0	1.218483E+0	1.189714E+0	1.185621E+0	1.217377E+0	1.188370E+0	1.157171E+0	1.138885E+0	1.174614E+0	1.211188E+0	1.223912E+0	1.147957E+0	1.111565E+0	1.211339E+0	1.193486E+0	1.167367E+0	1.182274E+0	1.196250E+0	1.198217E+0	1.160147E+0	1.172498E+0	1.195735E+0	1.184670E+0	1.208842E+0	1.244829E+0	1.181395E+0	1.224052E+0	1.203914E+0	1.178572E+0	1.205249E+0	1.232223E+0	1.192763E+0	1.200472E+0	1.224523E+0	1.141204E+0	1.194810E+0	1.220021E+0	1.207485E+0	1.166348E+0	1.177081E+0	1.143402E+0	1.206067E+0	1.217436E+0	1.178764E+0	1.239147E+0	1.159791E+0	1.161476E+0	1.178724E+0	1.203366E+0	1.158631E+0	1.208007E+0	1.137746E+0	1.151044E+0	1.082632E+0	1.184577E+0	1.178226E+0	1.170853E+0	1.177946E+0	1.163615E+0	1.144161E+0	1.196470E+0	1.149668E+0	1.173644E+0	1.201481E+0	1.190660E+0	1.205744E+0	1.193408E+0	1.147576E+0	1.242581E+0	1.190797E+0	1.206437E+0	1.236381E+0	1.183161E+0	1.234311E+0	1.213183E+0	1.178247E+0	1.151721E+0
5.534990E+2	1.200692E+0	1.208713E+0	1.215710E+0	1.171655E+0	1.154881E+0	1.169040E+0	1.136955E+0	1.168216E+0	1.206147E+0	1.201035E+0	1.177144E+0	1.237431E+0	1.218551E+0	1.189466E+0	1.154125E+0	1.193894E+0	1.178329E+0	1.208787E+0	1.189022E+0	1.182441E+0	1.197761E+0	1.222315E+0	1.189230E+0	1.187927E+0	1.226088E+0	1.193319E+0	1.192096E+0	1.188512E+0	1.160618E+0	1.140169E+0	1.212550E+0	1.183512E+0	1.192811E+0	1.221845E+0	1.194255E+0	1.213325E+0	1.207659E+0	1.220993E+0	1.206768E+0	1.218141E+0	1.203763E+0	1.211383E+0	1.216728E+0	1.147663E+0	1.226072E+0	1.205691E+0	1.199339E+0	1.205695E+0	1.209571E+0	1.140654E+0	1.134228E+0	1.226927E+0	1.200482E+0	1.176547E+0	1.206392E+0	1.192325E+0	1.235146E+0	1.127184E+0	1.180318E+0	1.198684E+0	1.171007E+0	1.217387E+0	1.191622E+0	1.152762E+0	1.215561E+0	1.195615E+0	1.202876E+0	1.203338E+0	1.167655E+0	1.219706E+0	1.191038E+0	1.123621E+0	1.225174E+0	1.210297E+0	1.223741E+0	1.166111E+0	1.199360E+0	1.151956E+0	1.196187E+0	1.149118E+0	1.272630E+0	1.153086E+0	1.161619E+0	1.169936E+0	1.180251E+0	1.205197E+0	1.225937E+0	1.155205E+0	1.210431E+0	1.188328E+0	1.207019E+0	1.169111E+0	1.209197E+0	1.179920E+0	1.189220E+0	1.203000E+0	1.256288E+0	1.232721E+0	1.134986E+0	1.204428E+0	1.217310E+0	1.206204E+0	1.191880E+0	1.172656E+0	1.200395E+0	1.203964E+0	1.158222E+0	1.178304E+0	1.202030E+0	1.172605E+0	1.199752E+0	1.171224E+0	1.147837E+0	1.136088E+0	1.203372E+0	1.141421E+0	1.195527E+0	1.166203E+0	1.220293E+0	1.188430E+0	1.209661E+0	1.172056E+0	1.189949E+0	1.182506E+0	1.205491E+0	1.201642E+0	1.131964E+0	1.159547E+0	1.215564E+0	1.149280E+0	1.176194E+0	1.168649E+0	1.202511E+0	1.181514E+0	1.184029E+0	1.175380E+0	1.177276E+0	1.246782E+0	1.148239E+0	1.203469E+0	1.180786E+0	1.199529E+0	1.197185E+0	1.188074E+0	1.130606E+0	1.233357E+0	1.188935E+0	1.221859E+0	1.204613E+0	1.181566E+0	1.206245E+0	1.183107E+0	1.184590E+0	1.215109E+0	1.156379E+0	1.194668E+0	1.185674E+0	1.139877E+0	1.169190E+0	1.147028E+0	1.224593E+0	1.171727E+0	1.146484E+0	1.212307E+0	1.188752E+0	1.201715E+0	1.235999E+0	1.197000E+0	1.165147E+0	1.214221E+0	1.188144E+0	1.066911E+0
5.542530E+2	1.159143E+0	1.135760E+0	1.107478E+0	1.041253E+0	1.136239E+0	1.117078E+0	1.106458E+0	1.160442E+0	1.122099E+0	1.151406E+0	1.134742E+0	1.096816E+0	1.117875E+0	1.122560E+0	1.127701E+0	1.157427E+0	1.097860E+0	1.096191E+0	1.114676E+0	1.114829E+0	1.089696E+0	1.115891E+0	1.133684E+0	1.122624E+0	1.135853E+0	1.097400E+0	1.136197E+0	1.144767E+0	1.112252E+0	1.102892E+0	1.122927E+0	1.094098E+0	1.147794E+0	1.103085E+0	1.101004E+0	1.133464E+0	1.108984E+0	1.116511E+0	1.135518E+0	1.183734E+0	1.110743E+0	1.088502E+0	1.117921E+0	1.070158E+0	1.134600E+0	1.124562E+0	1.150887E+0	1.084325E+0	1.173856E+0	1.073305E+0	1.095929E+0	1.119243E+0	1.096052E+0	1.108097E+0	1.097857E+0	1.080637E+0	1.163382E+0	1.117616E+0	1.127507E+0	1.129912E+0	1.110747E+0	1.119984E+0	1.076268E+0	1.108330E+0	1.100705E+0	1.158512E+0	1.121633E+0	1.116309E+0	1.089081E+0	1.122741E+0	1.109705E+0	1.081885E+0	1.105687E+0	1.134818E+0	1.122541E+0	1.050909E+0	1.136695E+0	1.116825E+0	1.125922E+0	1.089511E+0	1.077121E+0	1.168770E+0	1.079582E+0	1.081477E+0	1.090931E+0	1.110895E+0	1.116851E+0	1.130579E+0	1.131896E+0	1.086900E+0	1.100337E+0	1.093287E+0	1.157181E+0	1.120227E+0	1.119586E+0	1.078680E+0	1.181471E+0	1.061358E+0	1.125218E+0	1.057251E+0	1.140228E+0	1.093912E+0	1.060502E+0	1.083534E+0	1.103064E+0	1.095611E+0	1.085614E+0	1.132758E+0	1.156287E+0	1.071824E+0	1.048969E+0	1.142429E+0	1.134070E+0	1.101775E+0	1.096028E+0	1.146940E+0	1.151075E+0	1.074442E+0	1.121611E+0	1.060711E+0	1.111978E+0	1.097221E+0	1.087494E+0	1.110301E+0	1.145804E+0	1.151334E+0	1.113953E+0	1.091369E+0	1.114778E+0	1.098373E+0	1.072204E+0	1.170601E+0	1.131257E+0	1.101473E+0	1.061549E+0	1.115665E+0	1.135258E+0	1.111218E+0	1.148422E+0	1.104128E+0	1.089522E+0	1.114944E+0	1.091035E+0	1.073704E+0	1.122600E+0	1.118995E+0	1.074993E+0	1.092583E+0	1.125270E+0	1.148860E+0	1.149484E+0	1.109631E+0	1.127649E+0	1.086632E+0	1.091689E+0	1.058323E+0	1.096699E+0	1.131627E+0	1.085765E+0	1.117512E+0	1.161333E+0	1.109988E+0	1.139843E+0	1.104732E+0	1.040152E+0	1.139091E+0	1.125050E+0	1.118691E+0	1.095969E+0	1.085345E+0	1.020315E+0	1.107205E+0
5.550080E+2	1.030226E+0	1.011319E+0	1.048138E+0	9.900443E-1	9.946616E-1	1.045601E+0	1.040000E+0	1.018835E+0	1.013069E+0	1.027275E+0	1.031924E+0	1.004953E+0	1.019160E+0	1.007291E+0	1.085872E+0	1.048926E+0	1.012445E+0	1.022590E+0	1.023846E+0	1.033825E+0	1.063829E+0	1.017277E+0	1.020060E+0	1.010685E+0	1.035811E+0	9.922426E-1	9.711602E-1	1.006304E+0	1.063159E+0	1.039006E+0	1.061720E+0	1.024934E+0	1.028785E+0	1.037794E+0	1.004518E+0	1.038709E+0	1.035014E+0	1.032193E+0	1.017993E+0	1.025260E+0	1.002100E+0	1.022645E+0	1.014803E+0	1.013674E+0	9.971725E-1	1.030674E+0	9.820556E-1	9.800313E-1	1.047406E+0	1.049549E+0	1.028684E+0	9.626252E-1	1.056762E+0	1.016005E+0	1.028434E+0	9.914662E-1	1.060381E+0	1.041753E+0	9.767206E-1	1.021843E+0	1.038173E+0	1.017518E+0	1.025004E+0	1.036893E+0	1.048566E+0	1.005424E+0	1.013472E+0	1.018147E+0	1.030590E+0	1.041101E+0	1.013215E+0	1.024279E+0	1.036466E+0	9.913531E-1	1.030439E+0	1.059368E+0	1.030362E+0	1.012933E+0	1.005225E+0	1.010356E+0	1.032589E+0	1.026194E+0	1.002155E+0	1.012194E+0	1.012769E+0	9.805129E-1	1.021272E+0	9.845700E-1	1.021236E+0	1.018814E+0	9.843352E-1	1.043840E+0	1.078264E+0	1.007593E+0	1.024460E+0	9.870528E-1	1.042767E+0	9.462175E-1	1.032248E+0	1.032973E+0	1.046561E+0	1.034433E+0	1.007260E+0	1.018405E+0	1.036087E+0	1.060993E+0	1.017768E+0	1.020891E+0	1.020799E+0	1.041617E+0	1.036047E+0	1.061778E+0	1.041857E+0	1.018569E+0	1.028795E+0	1.030646E+0	1.044612E+0	1.026186E+0	9.894565E-1	1.051047E+0	1.040538E+0	1.059465E+0	9.856605E-1	1.043289E+0	1.017219E+0	1.030318E+0	1.034743E+0	9.936919E-1	1.014777E+0	9.763864E-1	1.015320E+0	9.987981E-1	1.027497E+0	1.032114E+0	1.003282E+0	1.062618E+0	1.048610E+0	1.023524E+0	1.005707E+0	1.020469E+0	9.886851E-1	1.002866E+0	1.041876E+0	1.002938E+0	1.062906E+0	1.030135E+0	1.057470E+0	1.021480E+0	1.064277E+0	1.060477E+0	1.034650E+0	1.034235E+0	1.029279E+0	1.032478E+0	1.020133E+0	9.964012E-1	9.962105E-1	1.022045E+0	1.043724E+0	1.045218E+0	1.008178E+0	1.004144E+0	1.017984E+0	1.010896E+0	1.064521E+0	1.040382E+0	1.006006E+0	9.922461E-1	1.023417E+0	1.049307E+0	1.033215E+0	8.958566E-1
5.558110E+2	1.034044E+0	1.007708E+0	9.872404E-1	9.663619E-1	1.001252E+0	9.606198E-1	1.001028E+0	9.717678E-1	9.686978E-1	9.335451E-1	9.896023E-1	9.325750E-1	1.022542E+0	9.782963E-1	9.808315E-1	1.002615E+0	9.989166E-1	9.978255E-1	9.784787E-1	9.633857E-1	9.888166E-1	9.775165E-1	9.770892E-1	9.778230E-1	1.004073E+0	9.739393E-1	9.653504E-1	9.723533E-1	9.897155E-1	1.008494E+0	1.016151E+0	9.207004E-1	9.838013E-1	9.818353E-1	9.936661E-1	9.811985E-1	9.904299E-1	9.645322E-1	9.886223E-1	1.006693E+0	9.481400E-1	9.613142E-1	9.502018E-1	1.012979E+0	9.916257E-1	9.697912E-1	9.700975E-1	1.002652E+0	1.011869E+0	9.764370E-1	9.410150E-1	9.322372E-1	9.839573E-1	1.008854E+0	9.735619E-1	9.688813E-1	9.929196E-1	9.662022E-1	1.010613E+0	9.978677E-1	1.005035E+0	9.789400E-1	9.844057E-1	9.792256E-1	9.938400E-1	9.955973E-1	1.000579E+0	9.576824E-1	9.490839E-1	1.022312E+0	9.569980E-1	9.488777E-1	9.693649E-1	9.952315E-1	1.007441E+0	9.847861E-1	9.632867E-1	9.594294E-1	9.579579E-1	9.800695E-1	1.038989E+0	9.629308E-1	9.922855E-1	9.819155E-1	9.394005E-1	9.678820E-1	9.777039E-1	9.550178E-1	9.570783E-1	9.743033E-1	9.235232E-1	1.047749E+0	9.923398E-1	9.464342E-1	9.673548E-1	9.565216E-1	1.026070E+0	9.978638E-1	9.477385E-1	9.883472E-1	9.695789E-1	9.135033E-1	9.721836E-1	9.664142E-1	1.010317E+0	9.523477E-1	9.541426E-1	9.705891E-1	9.857618E-1	9.686006E-1	9.532552E-1	9.699947E-1	1.038762E+0	8.943265E-1	1.007753E+0	9.334832E-1	9.486506E-1	1.001957E+0	9.942153E-1	9.735526E-1	9.594079E-1	9.649005E-1	1.022891E+0	9.710471E-1	1.030964E+0	1.009369E+0	1.061423E+0	9.818883E-1	9.990132E-1	9.577817E-1	9.283470E-1	9.854381E-1	9.705195E-1	9.663172E-1	9.256316E-1	9.889068E-1	1.007947E+0	1.012453E+0	9.510412E-1	9.635799E-1	9.650345E-1	9.564978E-1	1.009105E+0	9.750350E-1	9.510414E-1	9.597967E-1	9.194089E-1	9.933531E-1	9.239199E-1	1.021913E+0	1.000054E+0	9.406800E-1	9.796710E-1	9.787945E-1	9.756871E-1	9.826612E-1	9.778748E-1	9.491940E-1	9.921198E-1	9.291336E-1	1.023947E+0	9.878216E-1	9.978390E-1	1.027570E+0	1.017651E+0	1.014402E+0	9.650035E-1	9.942503E-1	9.573868E-1	9.471226E-1	1.020153E+0	1.060083E+0
5.560130E+2	1.026009E+0	9.580303E-1	9.936837E-1	9.826539E-1	9.845008E-1	9.713743E-1	9.760645E-1	9.654561E-1	9.956880E-1	9.801295E-1	9.878428E-1	9.581637E-1	9.997379E-1	1.011472E+0	9.649184E-1	9.818099E-1	9.685722E-1	9.538898E-1	9.383423E-1	9.859183E-1	9.474117E-1	9.497721E-1	9.880785E-1	1.012843E+0	9.968068E-1	9.633764E-1	9.496444E-1	9.774516E-1	9.910615E-1	1.000491E+0	9.999878E-1	9.409660E-1	9.470591E-1	9.679828E-1	9.582104E-1	9.607917E-1	9.594123E-1	9.944788E-1	9.983614E-1	9.822666E-1	9.693262E-1	1.003724E+0	9.826169E-1	9.707039E-1	9.900750E-1	9.577966E-1	9.557857E-1	1.018320E+0	9.701200E-1	9.535539E-1	9.822725E-1	9.636150E-1	9.946264E-1	9.935050E-1	9.925135E-1	9.794660E-1	1.008901E+0	9.807727E-1	9.364433E-1	9.593353E-1	9.755451E-1	1.004943E+0	1.004564E+0	1.000413E+0	9.885206E-1	9.920373E-1	1.009552E+0	9.545059E-1	1.015056E+0	9.692498E-1	9.333968E-1	1.011552E+0	9.821480E-1	9.985205E-1	9.587597E-1	9.995005E-1	9.705165E-1	1.007473E+0	9.541959E-1	1.042840E+0	9.718990E-1	1.014549E+0	9.591557E-1	9.891656E-1	9.682557E-1	1.005451E+0	9.981894E-1	9.935269E-1	9.899058E-1	9.827028E-1	9.910185E-1	9.741226E-1	1.011535E+0	9.842253E-1	9.409413E-1	1.018420E+0	1.012994E+0	9.389000E-1	9.925624E-1	9.792657E-1	9.537540E-1	9.853710E-1	9.553397E-1	9.831642E-1	9.496523E-1	9.900244E-1	9.993142E-1	1.004064E+0	1.006060E+0	9.579731E-1	1.002018E+0	9.852542E-1	9.507220E-1	9.831585E-1	9.939606E-1	1.015210E+0	9.770225E-1	9.839025E-1	9.486773E-1	9.824907E-1	9.852347E-1	9.838057E-1	9.612791E-1	1.006011E+0	9.868417E-1	9.944226E-1	1.000948E+0	9.551860E-1	9.720349E-1	9.585825E-1	9.458076E-1	9.416170E-1	9.641138E-1	9.651389E-1	9.528649E-1	9.943717E-1	1.003749E+0	9.689077E-1	9.563559E-1	9.279738E-1	9.887863E-1	1.011797E+0	1.013075E+0	9.696694E-1	1.012841E+0	9.950272E-1	9.861730E-1	9.573384E-1	9.863958E-1	1.024181E+0	9.884050E-1	9.641068E-1	9.963302E-1	9.947710E-1	9.827220E-1	9.867844E-1	9.905739E-1	9.706727E-1	9.746965E-1	9.725551E-1	9.315540E-1	9.607388E-1	9.676802E-1	9.748231E-1	9.584273E-1	9.957690E-1	9.646954E-1	9.443460E-1	1.000491E+0	9.366052E-1	1.007526E+0	1.029396E+0
5.565030E+2	9.699460E-1	9.506356E-1	9.614206E-1	9.668270E-1	9.310551E-1	9.453263E-1	9.208600E-1	9.233142E-1	9.342027E-1	9.216755E-1	9.555489E-1	9.777691E-1	9.574170E-1	9.237189E-1	9.378919E-1	9.748214E-1	9.986917E-1	9.853703E-1	9.231213E-1	9.479882E-1	9.561615E-1	9.290581E-1	9.519030E-1	9.740217E-1	9.478980E-1	9.570483E-1	9.605596E-1	9.488709E-1	9.737546E-1	9.833934E-1	9.551528E-1	9.186901E-1	9.186413E-1	9.758794E-1	9.303597E-1	9.864731E-1	9.411867E-1	9.771573E-1	1.000189E+0	9.625292E-1	9.650980E-1	9.244554E-1	9.561817E-1	9.658936E-1	9.603653E-1	9.550612E-1	9.905011E-1	9.541785E-1	9.284096E-1	1.004882E+0	9.606451E-1	9.669395E-1	9.147295E-1	9.288648E-1	9.682747E-1	9.745419E-1	9.439331E-1	9.467555E-1	9.509772E-1	9.931252E-1	9.414406E-1	9.329293E-1	9.343559E-1	9.545675E-1	9.680101E-1	9.941849E-1	8.983854E-1	9.208252E-1	9.220854E-1	9.533345E-1	9.652801E-1	9.574001E-1	9.114870E-1	9.656644E-1	9.790617E-1	9.370410E-1	9.631067E-1	9.382454E-1	9.569717E-1	9.835100E-1	9.556522E-1	9.538320E-1	9.432113E-1	9.348726E-1	9.856991E-1	9.560514E-1	9.519013E-1	9.130574E-1	9.163879E-1	8.994710E-1	9.189272E-1	9.063261E-1	9.401723E-1	9.677273E-1	9.542483E-1	9.190085E-1	9.231238E-1	9.724682E-1	9.281197E-1	9.608717E-1	9.393185E-1	9.516351E-1	9.629181E-1	9.711772E-1	9.745844E-1	9.636248E-1	8.920446E-1	9.359138E-1	9.548608E-1	9.570382E-1	9.539317E-1	9.311836E-1	9.830760E-1	9.511687E-1	9.293954E-1	9.938066E-1	9.691776E-1	9.488493E-1	9.377058E-1	9.682887E-1	9.184133E-1	9.954470E-1	9.180961E-1	9.424308E-1	9.564901E-1	9.377668E-1	9.619073E-1	9.430463E-1	9.494043E-1	9.234423E-1	9.424754E-1	9.425746E-1	9.703958E-1	9.452414E-1	9.799090E-1	9.448247E-1	9.797464E-1	9.421143E-1	9.376146E-1	9.716089E-1	9.355975E-1	9.661019E-1	9.575362E-1	9.572968E-1	9.817033E-1	9.313755E-1	9.157492E-1	9.361322E-1	9.488746E-1	9.380572E-1	9.416578E-1	9.368752E-1	9.879496E-1	9.614385E-1	9.171604E-1	9.682698E-1	9.587953E-1	9.656446E-1	9.467537E-1	9.409602E-1	9.510769E-1	9.632603E-1	9.631403E-1	9.412939E-1	9.371930E-1	9.345960E-1	9.918659E-1	9.798508E-1	9.462446E-1	9.488144E-1	1.020487E+0	1.090023E+0
5.570500E+2	9.571946E-1	9.636153E-1	9.530029E-1	9.718187E-1	9.582036E-1	9.688087E-1	9.456156E-1	9.686632E-1	9.794609E-1	9.572400E-1	9.630294E-1	9.765462E-1	9.110792E-1	9.764397E-1	9.265729E-1	9.798512E-1	9.922626E-1	9.652994E-1	9.831859E-1	9.487455E-1	9.780456E-1	9.428838E-1	9.840607E-1	9.436311E-1	9.280699E-1	9.579726E-1	9.520916E-1	1.014128E+0	9.487864E-1	9.577374E-1	9.761328E-1	9.492997E-1	9.551755E-1	9.921741E-1	9.701195E-1	9.753374E-1	9.554442E-1	9.733697E-1	9.594444E-1	9.626708E-1	9.560337E-1	9.552846E-1	9.588142E-1	9.766980E-1	9.727232E-1	9.866876E-1	9.452670E-1	9.352783E-1	9.575668E-1	9.637635E-1	9.728569E-1	9.723134E-1	9.813909E-1	9.416729E-1	9.395183E-1	9.421737E-1	9.667641E-1	9.862158E-1	1.011468E+0	9.845064E-1	9.876555E-1	9.923359E-1	9.177672E-1	9.218080E-1	9.790158E-1	9.749212E-1	1.009851E+0	9.613916E-1	9.201364E-1	1.003621E+0	9.594751E-1	9.737962E-1	9.582886E-1	9.808032E-1	9.770853E-1	9.532073E-1	9.495590E-1	9.677569E-1	9.855729E-1	9.517193E-1	9.639197E-1	9.651525E-1	9.775823E-1	9.365550E-1	9.434102E-1	9.921377E-1	9.536120E-1	9.813671E-1	9.553159E-1	1.011395E+0	9.769398E-1	9.903642E-1	9.309198E-1	9.333225E-1	9.426955E-1	9.578298E-1	9.569534E-1	9.533287E-1	9.486309E-1	9.331633E-1	9.871596E-1	9.786045E-1	9.357756E-1	9.562268E-1	9.547240E-1	9.676317E-1	1.005067E+0	9.402695E-1	9.775881E-1	9.428183E-1	9.528294E-1	9.734962E-1	9.835954E-1	9.959328E-1	9.671346E-1	9.398143E-1	9.341808E-1	9.767936E-1	9.507199E-1	9.778955E-1	9.543304E-1	9.526838E-1	9.705794E-1	9.589257E-1	9.711508E-1	9.271584E-1	9.827464E-1	9.590826E-1	1.028268E+0	9.682767E-1	9.972056E-1	1.021977E+0	9.793329E-1	1.010451E+0	9.653574E-1	9.731839E-1	1.002716E+0	1.005483E+0	9.716092E-1	9.856740E-1	9.606467E-1	9.531123E-1	9.455780E-1	9.685050E-1	9.569791E-1	9.723425E-1	9.873942E-1	9.724361E-1	9.567625E-1	9.315110E-1	9.657938E-1	9.713366E-1	9.499851E-1	9.560829E-1	9.656114E-1	9.697311E-1	9.452837E-1	9.362152E-1	9.773207E-1	9.776571E-1	9.664675E-1	9.931073E-1	9.043542E-1	9.609033E-1	9.375476E-1	9.405892E-1	9.829879E-1	9.542299E-1	9.393632E-1	9.788828E-1	9.920322E-1	1.095894E+0
5.575360E+2	1.060938E+0	1.012035E+0	1.005763E+0	9.833947E-1	9.897491E-1	9.855110E-1	1.007349E+0	1.033833E+0	9.991282E-1	1.067737E+0	1.022376E+0	1.030216E+0	9.944074E-1	1.053822E+0	1.007045E+0	1.058493E+0	1.058564E+0	1.050011E+0	1.041238E+0	1.022608E+0	9.739475E-1	1.055479E+0	1.038770E+0	1.007882E+0	1.034960E+0	1.019599E+0	1.020144E+0	1.055647E+0	9.728677E-1	1.035951E+0	1.028921E+0	1.005862E+0	1.004404E+0	1.023738E+0	9.843028E-1	1.044122E+0	1.034730E+0	9.974990E-1	1.003037E+0	1.053032E+0	1.011261E+0	1.035354E+0	1.044623E+0	1.021338E+0	1.022130E+0	1.027187E+0	9.928501E-1	1.003576E+0	9.941483E-1	1.006106E+0	9.891348E-1	1.027582E+0	1.014954E+0	1.016123E+0	9.708379E-1	1.036898E+0	9.946171E-1	1.012703E+0	1.048926E+0	1.008926E+0	9.981536E-1	1.018927E+0	1.032474E+0	9.936852E-1	1.035056E+0	1.038578E+0	1.045610E+0	1.043675E+0	1.014294E+0	1.052009E+0	1.036050E+0	1.024916E+0	9.910890E-1	9.667871E-1	1.002493E+0	1.024537E+0	1.054451E+0	1.044682E+0	1.000715E+0	1.029750E+0	1.000340E+0	1.000661E+0	1.067160E+0	1.007455E+0	1.020905E+0	9.812671E-1	1.055601E+0	1.047917E+0	1.011491E+0	1.034164E+0	1.001718E+0	1.035517E+0	1.022281E+0	1.019233E+0	1.010076E+0	1.015742E+0	1.024568E+0	1.032834E+0	1.045084E+0	1.010073E+0	1.005498E+0	1.012923E+0	1.017136E+0	1.043346E+0	1.033061E+0	1.004083E+0	9.767158E-1	1.010548E+0	9.820598E-1	9.948306E-1	9.809278E-1	1.016758E+0	1.024465E+0	1.038839E+0	9.848827E-1	1.026935E+0	1.052848E+0	1.008695E+0	1.003436E+0	1.039665E+0	1.037996E+0	1.017044E+0	1.039497E+0	1.003052E+0	9.970338E-1	1.031756E+0	1.009759E+0	1.033959E+0	9.889496E-1	1.036298E+0	1.006262E+0	9.992798E-1	1.023474E+0	1.022255E+0	9.883218E-1	1.036746E+0	9.991417E-1	1.053739E+0	1.039946E+0	1.044860E+0	1.041419E+0	1.032127E+0	1.022079E+0	9.831073E-1	9.926974E-1	9.903934E-1	1.047669E+0	1.011934E+0	1.030826E+0	1.000974E+0	1.043566E+0	1.043081E+0	9.987354E-1	9.848588E-1	1.031066E+0	9.830687E-1	1.011603E+0	1.004284E+0	9.754908E-1	1.028329E+0	1.040525E+0	9.863552E-1	1.023472E+0	1.012117E+0	1.029704E+0	1.055454E+0	1.034201E+0	1.046008E+0	1.050756E+0	1.003595E+0	1.046657E+0	1.060585E+0
5.580060E+2	1.036188E+0	1.030424E+0	1.012757E+0	1.008627E+0	1.045367E+0	1.052243E+0	1.001105E+0	1.029061E+0	1.013741E+0	1.022915E+0	1.042773E+0	1.013276E+0	1.040018E+0	1.015570E+0	1.021359E+0	1.030681E+0	1.014593E+0	1.031907E+0	1.024560E+0	1.013030E+0	1.037775E+0	1.032064E+0	1.041324E+0	1.044246E+0	9.943643E-1	9.935131E-1	1.026336E+0	9.714600E-1	1.025455E+0	1.035182E+0	9.948506E-1	1.037890E+0	1.039300E+0	1.010814E+0	1.010954E+0	9.955020E-1	1.032144E+0	1.019164E+0	1.042103E+0	1.019714E+0	1.049419E+0	1.024524E+0	1.047800E+0	1.018161E+0	1.014728E+0	1.039555E+0	9.943733E-1	1.005918E+0	1.019887E+0	1.013298E+0	1.066943E+0	9.541593E-1	1.026661E+0	1.030429E+0	1.022882E+0	9.963243E-1	1.034403E+0	1.013549E+0	9.942691E-1	1.007230E+0	1.011918E+0	1.010801E+0	1.027474E+0	1.014750E+0	9.895847E-1	1.028597E+0	1.010358E+0	1.013808E+0	1.024329E+0	1.026551E+0	1.032540E+0	1.032831E+0	1.036425E+0	9.967407E-1	1.020787E+0	9.760383E-1	1.029070E+0	1.016663E+0	1.050313E+0	1.012350E+0	1.002919E+0	9.994900E-1	9.925997E-1	1.006222E+0	1.046096E+0	1.029887E+0	1.008548E+0	1.024903E+0	1.005914E+0	1.041063E+0	1.077682E+0	1.045808E+0	1.028397E+0	1.008563E+0	1.055269E+0	1.002819E+0	1.054154E+0	9.995338E-1	1.027108E+0	1.003046E+0	1.013507E+0	1.023155E+0	9.786181E-1	9.956073E-1	9.948442E-1	1.020073E+0	9.896512E-1	1.021152E+0	1.023534E+0	1.013188E+0	1.004647E+0	1.036878E+0	1.037325E+0	9.736263E-1	1.023287E+0	1.027886E+0	1.017333E+0	1.016507E+0	1.041700E+0	1.006458E+0	1.051178E+0	9.867893E-1	9.371129E-1	1.039948E+0	1.031007E+0	1.011680E+0	1.022868E+0	1.050494E+0	1.050006E+0	1.016760E+0	1.052513E+0	1.000323E+0	1.057286E+0	1.011069E+0	1.016969E+0	1.001660E+0	9.767614E-1	1.002066E+0	1.026384E+0	1.020347E+0	1.010745E+0	1.007959E+0	1.001945E+0	1.007884E+0	9.997178E-1	1.015734E+0	1.019771E+0	1.053109E+0	1.025517E+0	1.002136E+0	1.006077E+0	1.020194E+0	1.031116E+0	9.810938E-1	1.009581E+0	1.028401E+0	9.825126E-1	1.011429E+0	1.037274E+0	1.021320E+0	1.010257E+0	1.008944E+0	1.036249E+0	1.005870E+0	9.973743E-1	1.052551E+0	1.011724E+0	1.043452E+0	9.789385E-1	1.066222E+0	9.795992E-1	9.999482E-1
5.585050E+2	1.015161E+0	1.030971E+0	1.041557E+0	1.030585E+0	1.045696E+0	1.025850E+0	1.069461E+0	1.016597E+0	1.067785E+0	1.043313E+0	1.038105E+0	1.005434E+0	1.065625E+0	1.044271E+0	1.036254E+0	1.042262E+0	1.016392E+0	1.018365E+0	1.021283E+0	1.000994E+0	1.061844E+0	1.034810E+0	1.057648E+0	1.054130E+0	9.674670E-1	1.011517E+0	1.055281E+0	1.042510E+0	1.067443E+0	9.919961E-1	1.058449E+0	1.038478E+0	1.048135E+0	1.053645E+0	9.999707E-1	1.042824E+0	1.034747E+0	1.032928E+0	1.026876E+0	1.029828E+0	1.010568E+0	1.040436E+0	1.014034E+0	1.046673E+0	1.022748E+0	1.049490E+0	1.033014E+0	1.030260E+0	9.953375E-1	1.062049E+0	1.011363E+0	1.041533E+0	1.045875E+0	1.017405E+0	1.031489E+0	1.014030E+0	1.024029E+0	1.025100E+0	9.990396E-1	1.034473E+0	1.022150E+0	1.043710E+0	1.032591E+0	1.026705E+0	1.016253E+0	9.905544E-1	1.045236E+0	1.038079E+0	1.013616E+0	1.036837E+0	1.029291E+0	1.026628E+0	1.052091E+0	1.045473E+0	9.789702E-1	1.033483E+0	1.057537E+0	1.055764E+0	1.015169E+0	1.013792E+0	1.024603E+0	9.995823E-1	1.037858E+0	1.047086E+0	1.014810E+0	1.012589E+0	9.872830E-1	9.997969E-1	1.068886E+0	1.034432E+0	1.022867E+0	1.026836E+0	1.037086E+0	1.027071E+0	1.014512E+0	1.067936E+0	1.048755E+0	1.035400E+0	9.985536E-1	1.065545E+0	1.029015E+0	1.043208E+0	1.054673E+0	1.017731E+0	1.031357E+0	1.006084E+0	1.076609E+0	1.046075E+0	1.009898E+0	1.014438E+0	1.030784E+0	1.012907E+0	9.958965E-1	1.030600E+0	1.037203E+0	1.036864E+0	1.034486E+0	1.034418E+0	1.035688E+0	1.065377E+0	1.011206E+0	1.037606E+0	1.036846E+0	1.043974E+0	1.029758E+0	1.014508E+0	1.033452E+0	1.006440E+0	1.032691E+0	1.024126E+0	1.032246E+0	1.042502E+0	1.026698E+0	1.063551E+0	1.009503E+0	1.031300E+0	1.039332E+0	1.046835E+0	1.028367E+0	1.039179E+0	1.067907E+0	1.060849E+0	1.014440E+0	1.006622E+0	1.043438E+0	1.025856E+0	1.004724E+0	9.744520E-1	1.005652E+0	1.030216E+0	1.018099E+0	1.036776E+0	1.037914E+0	1.032726E+0	1.031241E+0	1.052673E+0	1.033502E+0	1.052066E+0	9.841955E-1	1.030198E+0	1.036747E+0	1.027584E+0	1.041887E+0	1.057156E+0	1.028840E+0	1.045857E+0	1.018747E+0	9.993279E-1	1.036658E+0	1.068961E+0	1.047148E+0	8.973119E-1
5.590100E+2	9.833281E-1	1.053835E+0	1.037606E+0	1.070050E+0	1.027455E+0	1.051549E+0	1.052692E+0	1.013484E+0	1.009959E+0	9.973334E-1	1.053974E+0	1.078507E+0	9.935113E-1	1.007703E+0	1.062871E+0	9.883674E-1	1.039809E+0	1.066245E+0	1.042064E+0	1.054336E+0	1.020854E+0	1.073820E+0	1.001440E+0	1.013659E+0	1.047153E+0	1.068756E+0	1.025807E+0	9.902936E-1	1.012681E+0	1.057262E+0	9.615209E-1	1.046775E+0	1.046449E+0	1.023885E+0	1.044595E+0	1.036642E+0	1.018719E+0	1.043326E+0	1.017872E+0	1.019097E+0	1.036458E+0	1.042206E+0	1.001554E+0	1.035883E+0	1.023177E+0	1.019262E+0	1.050781E+0	1.047352E+0	1.028580E+0	1.020124E+0	1.014497E+0	1.063153E+0	1.021350E+0	1.048634E+0	1.057323E+0	1.017961E+0	1.035576E+0	1.051733E+0	1.067507E+0	1.046248E+0	1.035744E+0	1.000223E+0	1.020075E+0	1.046001E+0	1.040810E+0	1.017174E+0	1.040898E+0	9.871852E-1	1.059137E+0	1.032503E+0	1.005759E+0	1.050296E+0	1.034209E+0	1.049404E+0	1.053599E+0	1.044969E+0	1.027793E+0	9.631966E-1	1.063476E+0	1.006120E+0	1.032180E+0	1.030593E+0	1.058551E+0	1.058789E+0	1.036696E+0	1.026710E+0	1.022419E+0	1.038670E+0	1.030788E+0	1.001440E+0	1.003825E+0	1.017818E+0	1.060272E+0	1.001880E+0	1.068740E+0	1.043327E+0	9.828478E-1	1.048034E+0	1.011612E+0	1.018268E+0	1.022067E+0	1.016751E+0	9.909076E-1	1.042890E+0	1.009520E+0	1.047492E+0	1.044830E+0	1.035931E+0	1.056100E+0	1.043137E+0	1.031167E+0	1.050650E+0	1.040949E+0	1.033820E+0	1.023203E+0	1.010561E+0	1.033819E+0	1.031223E+0	1.026103E+0	9.742008E-1	1.004902E+0	1.017188E+0	1.042397E+0	9.918929E-1	1.046266E+0	1.010270E+0	1.034262E+0	1.023855E+0	9.918657E-1	1.042572E+0	1.056320E+0	1.036006E+0	1.036261E+0	1.006721E+0	1.047802E+0	1.042890E+0	1.018966E+0	1.042966E+0	1.005133E+0	1.003137E+0	1.000218E+0	1.003013E+0	1.023324E+0	1.057837E+0	1.017584E+0	1.021982E+0	1.024115E+0	1.057164E+0	1.021199E+0	1.069712E+0	1.037378E+0	1.047491E+0	1.054083E+0	1.043491E+0	1.049479E+0	1.045903E+0	9.916201E-1	1.010674E+0	1.010539E+0	1.041553E+0	1.045354E+0	1.008876E+0	1.017062E+0	1.058758E+0	1.040683E+0	1.022250E+0	1.047958E+0	1.017262E+0	1.001234E+0	1.009358E+0	9.470613E-1	9.991989E-1
5.595110E+2	9.772458E-1	1.015754E+0	9.978379E-1	1.029348E+0	1.006718E+0	1.002601E+0	1.023048E+0	1.003527E+0	9.970265E-1	1.018095E+0	9.897702E-1	1.022142E+0	1.040414E+0	9.998136E-1	1.002187E+0	1.012125E+0	9.788644E-1	9.959102E-1	1.044689E+0	9.920699E-1	1.008171E+0	1.002012E+0	9.711208E-1	9.757395E-1	9.970964E-1	1.015739E+0	1.049117E+0	1.001150E+0	9.993680E-1	9.884831E-1	1.036171E+0	1.061556E+0	1.047321E+0	1.041605E+0	1.045876E+0	9.733862E-1	1.007651E+0	1.010340E+0	1.027098E+0	9.825164E-1	1.002076E+0	1.019839E+0	1.012378E+0	1.011132E+0	1.025258E+0	1.041684E+0	1.006421E+0	1.016956E+0	1.033021E+0	1.026314E+0	1.024697E+0	1.020419E+0	1.029702E+0	1.011587E+0	9.929131E-1	1.012976E+0	1.041963E+0	9.855806E-1	1.043014E+0	1.014188E+0	1.010851E+0	1.040854E+0	1.008322E+0	9.828523E-1	1.009131E+0	9.903912E-1	1.011948E+0	1.000116E+0	9.914885E-1	9.897605E-1	9.808466E-1	9.733939E-1	1.016521E+0	1.065516E+0	1.034263E+0	9.809791E-1	9.708682E-1	1.056916E+0	9.963735E-1	9.752073E-1	1.040406E+0	1.015373E+0	1.008706E+0	9.988828E-1	1.017036E+0	9.981733E-1	1.010938E+0	1.002024E+0	1.025475E+0	9.765097E-1	9.592060E-1	1.028309E+0	1.009069E+0	9.989275E-1	1.054278E+0	9.580397E-1	1.014761E+0	9.739394E-1	1.042732E+0	1.047558E+0	9.767114E-1	1.002382E+0	1.007576E+0	1.026308E+0	1.008292E+0	1.030374E+0	1.046109E+0	1.002558E+0	1.022281E+0	1.046238E+0	9.982506E-1	9.984463E-1	9.713647E-1	9.936235E-1	1.015718E+0	9.902159E-1	1.020402E+0	9.982958E-1	1.009308E+0	9.900355E-1	9.889325E-1	1.018310E+0	1.042399E+0	1.015796E+0	9.835018E-1	1.009793E+0	1.018590E+0	1.007677E+0	9.839290E-1	1.093351E+0	9.847521E-1	1.005951E+0	9.848914E-1	1.013808E+0	1.022381E+0	9.945792E-1	1.008279E+0	9.756365E-1	1.035567E+0	1.023080E+0	9.990645E-1	9.932728E-1	1.001774E+0	1.005296E+0	9.992560E-1	9.917303E-1	1.013099E+0	1.013442E+0	9.972690E-1	1.026953E+0	9.659204E-1	1.012284E+0	9.714410E-1	1.012350E+0	1.016996E+0	9.829481E-1	1.026957E+0	1.008658E+0	1.031126E+0	1.002517E+0	1.067684E+0	1.046872E+0	1.016769E+0	9.980847E-1	1.062067E+0	1.039204E+0	1.006774E+0	1.025723E+0	1.035344E+0	1.003659E+0	9.165990E-1	8.798167E-1
5.600010E+2	9.588610E-1	9.649346E-1	9.495732E-1	9.674393E-1	9.636045E-1	9.364600E-1	9.495610E-1	9.618547E-1	9.520892E-1	9.335477E-1	9.328371E-1	9.524686E-1	9.524664E-1	9.575764E-1	9.402584E-1	9.099998E-1	9.387845E-1	9.394706E-1	9.313624E-1	9.810148E-1	9.640326E-1	9.448622E-1	9.755205E-1	9.549701E-1	9.649604E-1	9.856660E-1	9.418301E-1	9.703794E-1	9.581303E-1	9.344744E-1	9.558281E-1	9.552924E-1	9.613922E-1	9.470951E-1	9.788472E-1	9.546184E-1	9.640979E-1	9.569741E-1	9.400369E-1	9.846672E-1	9.734077E-1	9.174036E-1	9.792807E-1	9.544020E-1	9.686296E-1	9.016069E-1	9.562808E-1	9.420653E-1	1.002505E+0	9.510912E-1	9.498874E-1	9.545504E-1	9.769154E-1	9.765042E-1	9.108535E-1	9.821383E-1	9.507497E-1	9.421194E-1	8.875334E-1	9.707093E-1	9.779567E-1	9.207075E-1	9.763639E-1	9.685085E-1	9.829749E-1	9.363612E-1	9.585136E-1	9.972839E-1	9.964032E-1	9.445085E-1	9.843587E-1	9.458124E-1	9.604052E-1	9.352378E-1	9.432661E-1	9.781238E-1	9.533735E-1	9.795570E-1	9.408538E-1	9.406004E-1	9.676258E-1	9.718825E-1	9.485916E-1	9.561274E-1	9.699635E-1	9.550165E-1	9.727801E-1	9.291389E-1	9.427430E-1	9.812131E-1	9.664988E-1	9.233102E-1	9.663624E-1	9.769569E-1	9.600108E-1	9.854446E-1	9.165962E-1	9.889195E-1	9.516968E-1	9.438121E-1	9.588221E-1	9.850311E-1	1.000191E+0	9.232405E-1	9.716333E-1	9.661693E-1	9.413701E-1	9.793920E-1	9.639214E-1	9.881907E-1	9.750661E-1	9.479141E-1	9.870371E-1	9.749791E-1	9.406906E-1	9.831879E-1	9.578960E-1	9.185531E-1	9.261588E-1	9.130740E-1	9.779487E-1	9.575029E-1	9.711106E-1	9.756748E-1	9.504346E-1	9.729794E-1	9.351130E-1	9.852455E-1	1.000914E+0	9.312135E-1	9.757584E-1	9.471955E-1	9.649641E-1	9.619951E-1	9.764733E-1	9.425859E-1	9.686931E-1	8.909459E-1	9.706364E-1	9.694109E-1	9.679316E-1	9.718868E-1	9.675072E-1	9.550974E-1	9.198205E-1	1.018122E+0	9.360183E-1	9.765561E-1	9.714448E-1	9.270479E-1	9.598681E-1	9.545979E-1	9.760331E-1	9.426713E-1	9.698511E-1	9.567627E-1	9.863958E-1	9.970411E-1	9.763454E-1	9.533255E-1	9.341473E-1	9.708732E-1	9.808366E-1	9.646962E-1	9.546117E-1	9.108004E-1	9.375413E-1	9.938023E-1	9.928961E-1	9.544188E-1	9.577447E-1	9.237277E-1
5.605040E+2	1.015976E+0	9.981961E-1	1.009599E+0	9.569898E-1	1.009304E+0	9.839047E-1	9.914811E-1	1.048968E+0	1.032090E+0	9.846712E-1	9.781517E-1	9.960662E-1	1.002451E+0	9.702482E-1	1.028147E+0	9.662931E-1	9.655268E-1	9.908842E-1	1.000503E+0	1.039986E+0	1.016733E+0	9.971068E-1	1.004076E+0	9.579288E-1	1.044345E+0	1.010784E+0	1.011104E+0	1.019662E+0	1.037848E+0	1.002263E+0	9.798570E-1	1.003529E+0	1.020803E+0	9.716751E-1	1.025054E+0	9.976341E-1	1.009196E+0	1.001095E+0	9.824638E-1	9.799284E-1	9.979308E-1	1.030858E+0	1.006492E+0	1.013923E+0	9.937124E-1	1.005886E+0	1.036789E+0	1.026572E+0	1.014280E+0	1.012834E+0	9.945544E-1	1.016683E+0	9.850025E-1	9.948727E-1	1.042632E+0	1.018603E+0	9.972013E-1	9.973720E-1	1.020793E+0	9.810922E-1	9.859234E-1	9.921188E-1	1.036885E+0	1.042421E+0	9.774263E-1	1.000803E+0	9.809834E-1	1.050286E+0	9.897927E-1	9.867219E-1	1.015771E+0	9.828855E-1	1.025090E+0	1.004372E+0	1.059961E+0	1.037670E+0	1.023752E+0	9.445797E-1	1.023057E+0	1.013858E+0	9.778426E-1	1.015745E+0	9.825284E-1	1.052583E+0	1.005616E+0	9.870795E-1	1.027364E+0	1.017642E+0	1.021564E+0	9.776972E-1	1.019676E+0	1.007541E+0	1.000656E+0	1.037517E+0	9.604074E-1	1.019531E+0	1.001614E+0	1.022509E+0	1.001406E+0	1.019704E+0	1.059497E+0	9.693616E-1	1.043926E+0	1.020229E+0	1.045614E+0	1.004868E+0	1.034469E+0	1.004834E+0	9.674586E-1	9.998151E-1	1.049488E+0	9.971943E-1	9.720464E-1	1.009170E+0	1.011499E+0	1.006008E+0	9.784112E-1	1.043920E+0	1.032181E+0	1.039134E+0	1.020460E+0	1.001285E+0	1.033157E+0	1.026026E+0	1.026000E+0	1.046782E+0	9.731584E-1	1.033894E+0	9.619637E-1	1.000630E+0	9.992987E-1	1.007262E+0	9.591395E-1	1.002319E+0	1.018920E+0	9.995858E-1	1.002616E+0	1.021863E+0	9.886719E-1	9.925791E-1	1.019107E+0	9.817112E-1	1.027666E+0	1.050797E+0	1.019163E+0	1.030677E+0	1.029727E+0	1.023770E+0	1.017931E+0	1.024089E+0	1.003772E+0	9.697521E-1	9.836553E-1	1.021065E+0	1.010223E+0	9.891128E-1	1.033877E+0	1.007407E+0	1.021572E+0	9.879558E-1	9.815823E-1	1.032094E+0	9.729333E-1	9.995183E-1	9.855796E-1	1.003631E+0	9.811249E-1	1.010996E+0	1.035774E+0	1.019508E+0	1.084772E+0	9.627322E-1
5.610360E+2	9.991530E-1	1.021569E+0	1.037200E+0	1.032267E+0	1.038348E+0	1.076372E+0	1.062763E+0	1.035242E+0	1.018829E+0	1.073343E+0	1.035593E+0	9.894108E-1	1.042873E+0	1.039365E+0	1.072496E+0	1.055296E+0	1.027939E+0	1.002647E+0	1.049652E+0	1.013309E+0	1.035026E+0	1.038133E+0	9.860571E-1	1.060949E+0	1.076879E+0	1.016029E+0	1.008086E+0	1.008448E+0	1.012604E+0	1.012766E+0	1.053128E+0	1.041661E+0	1.011319E+0	9.915073E-1	1.051710E+0	1.032669E+0	1.042672E+0	9.936671E-1	1.002518E+0	1.023751E+0	1.028423E+0	1.005916E+0	9.962259E-1	9.851937E-1	1.006453E+0	1.015783E+0	1.037938E+0	1.019523E+0	1.056146E+0	9.859843E-1	1.033149E+0	1.019053E+0	1.008794E+0	1.040403E+0	1.070763E+0	1.024889E+0	1.001863E+0	1.058098E+0	1.040031E+0	1.000167E+0	1.052662E+0	1.042452E+0	1.009129E+0	1.048289E+0	1.013218E+0	1.036398E+0	9.886640E-1	1.032844E+0	1.053662E+0	1.004904E+0	1.057231E+0	1.020489E+0	1.032246E+0	9.914806E-1	9.917539E-1	1.034451E+0	9.999737E-1	1.025166E+0	1.013302E+0	1.030253E+0	1.062613E+0	1.033138E+0	1.024056E+0	1.012261E+0	9.915133E-1	1.055638E+0	1.011366E+0	1.051958E+0	1.031529E+0	1.059913E+0	1.061642E+0	1.044047E+0	9.932487E-1	1.044577E+0	1.038820E+0	1.011902E+0	1.063633E+0	1.034133E+0	1.052495E+0	1.018693E+0	1.054651E+0	1.031578E+0	1.052939E+0	1.020079E+0	1.026716E+0	9.995768E-1	9.938199E-1	1.019261E+0	1.036239E+0	1.042332E+0	1.020891E+0	1.049319E+0	1.053523E+0	1.015083E+0	1.073025E+0	9.695110E-1	1.024424E+0	1.038843E+0	1.088322E+0	1.043381E+0	1.049399E+0	1.032338E+0	1.047526E+0	9.962693E-1	1.021516E+0	1.042884E+0	1.027197E+0	1.001120E+0	1.039974E+0	1.004748E+0	1.007361E+0	1.055311E+0	1.033444E+0	9.974490E-1	1.021498E+0	1.038272E+0	1.000000E+0	1.049444E+0	1.039715E+0	1.022151E+0	1.008576E+0	1.018169E+0	1.025075E+0	1.037887E+0	1.056801E+0	1.006761E+0	1.035560E+0	1.023666E+0	1.038128E+0	1.025124E+0	1.069464E+0	1.043506E+0	1.012757E+0	1.069452E+0	1.016069E+0	1.036346E+0	1.038880E+0	1.035909E+0	1.064687E+0	1.043629E+0	1.034606E+0	1.001296E+0	1.075617E+0	1.026779E+0	1.067973E+0	9.992993E-1	1.022381E+0	9.850006E-1	9.823004E-1	1.009976E+0	1.000373E+0	1.061366E+0
