Photon Energy (eV)	#1	#2	#3	#4	#5	#6	#7	#8	#9	#10	#11	#12	#13	#14	#15	#16	#17	#18	#19	#20	#21	#22	#23	#24	#25	#26	#27	#28	#29	#30	#31	#32	#33	#34	#35	#36	#37	#38	#39	#40	#41	#42	#43	#44	#45	#46	#47	#48	#49	#50	#51	#52	#53	#54	#55	#56	#57	#58	#59	#60	#61	#62	#63	#64	#65	#66	#67	#68	#69	#70	#71	#72	#73	#74	#75	#76	#77	#78	#79	#80	#81	#82	#83	#84	#85	#86	#87	#88	#89	#90	#91	#92	#93	#94	#95	#96	#97	#98	#99	#100	#101	#102	#103	#104	#105	#106	#107	#108	#109	#110	#111	#112	#113	#114	#115	#116	#117	#118	#119	#120	#121	#122	#123	#124	#125	#126	#127	#128	#129	#130	#131	#132	#133	#134	#135	#136	#137	#138	#139	#140	#141	#142	#143	#144	#145	#146	#147	#148	#149	#150	#151	#152	#153	#154	#155	#156	#157	#158	#159	#160	#161	#162	#163	#164	#165	#166	#167	#168	#169	#170	#171	#172	
5.300220E+2	-3.649619E-3	-6.220916E-3	-1.203005E-3	-4.972857E-3	-1.498495E-3	-1.002380E-2	-3.209114E-3	-2.377223E-3	-1.310692E-2	-4.982753E-3	-7.525146E-3	-3.642329E-3	-1.055046E-2	-5.993262E-3	-9.567954E-3	-1.207562E-2	-6.345524E-3	-1.358245E-2	-2.882409E-3	-1.119693E-2	-5.632719E-3	-1.442022E-2	-6.541279E-3	-8.158747E-3	-5.952011E-3	-4.856542E-3	-1.756152E-2	-1.559065E-2	-5.101966E-3	-9.386707E-3	-1.352278E-2	-6.684875E-3	-2.727246E-3	-3.933632E-3	-1.782054E-2	-1.334643E-2	-5.880157E-3	-1.057049E-2	-1.451248E-2	-3.683539E-4	-6.507862E-3	-5.012476E-3	-1.256642E-2	-5.891787E-3	-7.333576E-3	-6.657918E-3	-1.055325E-2	-6.362877E-3	-9.191385E-3	-7.294166E-3	-6.874656E-3	-9.139886E-3	-6.696189E-3	-2.765477E-3	-8.768555E-3	-3.620502E-3	-1.458382E-2	-1.022260E-2	-9.808719E-3	-5.939363E-3	-4.851512E-3	-8.837647E-3	-7.037176E-3	-1.540944E-2	-5.658258E-3	-1.579985E-3	-7.307798E-3	-4.099645E-3	-2.445925E-3	-5.031824E-3	-6.053357E-3	-4.737891E-3	-8.480323E-3	-6.067638E-3	-9.056283E-3	-6.866455E-3	-4.641598E-3	-2.875239E-3	1.716253E-3	-8.585355E-3	-5.136598E-3	-1.130049E-2	6.338356E-4	1.254465E-3	-5.393323E-3	-2.039953E-3	-7.192799E-3	-5.574367E-3	-3.805700E-3	-5.150848E-3	-1.035982E-2	-5.725374E-3	-1.030514E-2	-5.966740E-3	-5.876207E-3	-5.837469E-3	-5.992474E-3	-6.381334E-3	-1.116461E-2	-1.980456E-3	-1.945982E-3	-8.023177E-3	2.486478E-4	-1.726352E-3	-5.541659E-3	-9.909880E-3	3.736309E-3	-4.511438E-3	4.071192E-3	-9.491443E-3	-2.101205E-3	-8.845635E-3	1.902136E-3	-1.081616E-2	-8.109858E-3	-1.060103E-3	-1.159643E-3	-1.259713E-2	-2.772125E-3	-1.436420E-3	-6.908619E-3	-7.178893E-4	-6.048695E-3	-1.150891E-2	-2.453637E-4	-1.342603E-2	6.641017E-4	-8.227513E-3	-1.259099E-3	4.401650E-4	-5.526738E-3	2.868258E-3	-7.561469E-3	-1.115898E-2	-1.237852E-2	-1.959871E-3	-7.464618E-3	-7.097583E-3	-6.443312E-3	-6.859353E-3	-1.072510E-2	-7.619787E-3	-7.393609E-3	-8.348272E-3	-9.270396E-3	-8.213288E-3	-5.723844E-3	-5.216251E-3	-1.387812E-2	-4.027320E-5	-1.082937E-2	-6.704509E-3	-2.740312E-3	4.961457E-3	-1.788613E-2	-1.277633E-2	-1.293624E-2	-7.185952E-3	-1.187882E-2	6.298814E-4	-2.462890E-3	-3.108689E-3	-1.192327E-2	-5.833009E-3	-9.205992E-3	-4.601719E-3	-6.566270E-3	-1.062383E-2	-5.209809E-3	-1.057323E-2	-9.274294E-3	-1.470142E-2
5.305130E+2	-7.409291E-3	-4.184154E-3	5.890256E-3	-7.969215E-3	1.621670E-3	-3.900212E-3	-5.834896E-3	2.582326E-3	-1.364527E-2	-6.040804E-3	-6.817517E-3	-5.361881E-3	-3.833794E-3	-1.683998E-3	-4.841490E-3	-9.949753E-4	-6.248534E-3	4.716370E-3	-3.359223E-3	-5.342481E-3	-3.978418E-3	6.188823E-4	-4.180819E-3	2.210074E-3	-3.077501E-3	1.009568E-3	1.155071E-3	6.737649E-3	-7.137763E-3	-5.213732E-3	-2.934516E-3	-3.635169E-3	-1.076320E-2	-1.846224E-3	-7.724579E-4	-4.931594E-3	-9.704498E-4	-4.806790E-3	-1.226959E-3	-8.638817E-3	-7.519961E-3	-4.896717E-3	-1.053400E-2	-7.588084E-3	-3.871364E-3	7.185789E-3	-6.525568E-3	-9.086687E-3	-8.534871E-3	-5.420897E-3	-5.632884E-3	-2.263042E-3	-7.074485E-3	1.696183E-3	-5.366371E-3	-8.369500E-3	-2.318771E-3	-7.346908E-3	3.195704E-3	-3.861876E-3	-5.234818E-3	-1.367392E-3	-4.526244E-3	-7.696911E-3	-7.322746E-3	-5.300376E-3	-1.177417E-2	-1.168863E-2	-3.287076E-3	-6.784631E-3	-7.766374E-3	-5.182424E-3	-1.728586E-2	-1.754028E-3	-8.388516E-3	-9.252974E-3	-8.129875E-3	-5.388896E-3	-7.865118E-3	-7.464881E-3	-5.574809E-3	-4.795899E-3	-5.222579E-3	-1.114857E-2	-2.264588E-3	-2.355629E-3	-4.120166E-3	-6.062002E-3	-1.002511E-2	-5.631100E-3	6.688700E-4	-8.552451E-3	-5.968413E-3	-3.375970E-3	-4.832999E-3	-1.164554E-2	-5.352559E-3	-2.220739E-4	-4.031374E-3	-9.435570E-3	-1.279789E-2	-6.365334E-3	-6.065660E-3	-1.606203E-3	1.537504E-3	-4.243941E-3	-6.485796E-3	-1.921659E-3	-5.909761E-3	-5.658520E-3	2.052469E-3	-1.639410E-2	-5.298684E-3	-5.780450E-3	-1.656610E-3	-1.268905E-2	-1.119506E-2	-6.336851E-3	-9.346948E-3	-8.950093E-3	5.608729E-3	-9.121092E-3	-1.056780E-2	-2.763796E-3	-5.961203E-3	-3.826373E-3	-9.208602E-3	-7.102458E-3	-7.488392E-3	-6.428922E-3	-3.060979E-3	-6.615846E-3	2.567391E-3	-2.443507E-3	-6.056228E-3	-1.253516E-2	-5.186534E-3	-6.477176E-3	-1.580880E-3	-2.170108E-3	-4.386282E-3	-4.589087E-3	-3.325006E-3	-5.564193E-3	-1.050266E-2	-3.436426E-3	-7.931528E-3	-5.744298E-3	-2.059850E-3	-1.022307E-2	-4.277582E-3	4.334267E-3	-1.133066E-2	-1.462065E-2	-1.158080E-3	-5.658376E-3	-8.359657E-3	-3.704735E-3	-1.075539E-2	-1.078502E-2	5.397480E-3	-1.260180E-2	-3.875544E-3	-1.053200E-2	-8.047212E-3	-3.461353E-3	-4.858766E-3	-5.830639E-3	3.847145E-3	-1.678467E-3	-1.215368E-3	-1.453067E-2
5.310050E+2	-3.980118E-3	-1.444971E-2	-7.401207E-3	-2.865156E-3	-7.772300E-3	-9.825861E-3	2.487123E-3	-4.216129E-3	2.464157E-3	-6.765678E-4	-3.665542E-3	2.160887E-3	-5.256626E-3	1.063620E-3	-4.219507E-3	5.279903E-4	-8.530041E-3	-3.128651E-3	-1.272021E-2	-5.806821E-3	-1.556879E-2	-2.522372E-3	-2.706976E-3	-5.968865E-3	-2.963719E-3	-6.725854E-3	2.376483E-3	-5.205670E-3	-2.220957E-3	-4.589983E-3	-3.763944E-3	-5.962919E-3	-3.670692E-3	-4.668456E-3	3.315365E-3	-8.989516E-3	-1.305697E-3	-5.611597E-3	-3.047992E-3	-8.007604E-3	-7.038442E-5	-9.741084E-3	-6.085302E-3	-2.012594E-3	-9.917271E-3	-6.440639E-3	-2.971605E-3	-2.273761E-3	-3.440579E-3	6.085212E-4	6.817851E-3	-3.993013E-3	-9.972876E-3	-5.689849E-4	-3.342006E-3	-4.471769E-3	2.066848E-3	-4.465594E-3	-1.523152E-3	-3.744310E-3	1.505614E-3	1.225743E-3	-4.393392E-3	-1.470574E-3	-4.926109E-4	-6.880900E-3	6.812544E-4	3.861378E-3	-1.180607E-3	-2.810147E-3	-1.091548E-2	-5.018761E-3	2.498494E-3	3.728490E-3	-5.263882E-4	1.420721E-3	-5.896852E-3	-2.631544E-3	-7.765068E-3	-3.872002E-3	-1.792892E-3	-9.332640E-3	-6.751831E-3	-4.463039E-3	4.771193E-3	-8.635272E-3	8.271358E-3	-1.562749E-3	-4.154542E-4	-4.360471E-3	-8.484098E-3	2.129523E-3	5.299311E-4	-1.261245E-3	-6.203297E-3	1.845332E-3	-7.642332E-3	-1.606892E-3	8.617555E-3	7.373243E-4	-8.696498E-3	-1.246417E-3	-2.483566E-3	-1.254525E-2	-1.238685E-2	-1.660408E-3	-2.368070E-3	2.621321E-3	-4.676482E-3	-8.735426E-3	1.754557E-4	5.723252E-4	-1.854099E-3	-7.540090E-3	-3.743501E-4	-1.130180E-2	-5.967998E-3	-1.462758E-3	-7.791368E-3	-7.201480E-3	-8.484468E-3	-4.726355E-3	5.826656E-3	-5.985800E-3	-5.750596E-4	1.814907E-3	-4.084017E-3	-5.973677E-3	3.421103E-3	-2.810870E-3	-4.706828E-3	-1.035951E-2	-1.381237E-2	1.760451E-3	-6.430506E-3	-3.956770E-3	-6.151448E-3	-5.855311E-3	-2.735253E-4	-7.286173E-3	3.546979E-3	5.746529E-3	-3.208694E-3	-2.233229E-3	-7.714465E-3	-1.034850E-2	1.467679E-3	-4.993388E-3	1.279312E-3	-1.061045E-2	-7.909671E-3	-7.565280E-3	-1.845565E-3	-4.364142E-3	4.525480E-3	3.415985E-3	-3.921617E-4	7.543256E-4	4.859526E-4	-4.856045E-3	-5.451709E-3	-8.754315E-3	-1.410852E-3	-1.906093E-3	-4.290050E-3	-7.787722E-3	-1.047417E-2	-3.761298E-3	1.279932E-3	-5.319282E-3	4.917526E-3	-1.444932E-2
5.315130E+2	1.600440E-3	5.778970E-3	7.887102E-4	-4.008911E-3	-6.241976E-4	9.461281E-3	-2.337576E-3	-7.319315E-3	-5.118140E-4	2.961330E-3	5.627431E-3	4.300937E-4	9.921447E-4	-1.986470E-3	2.090568E-3	-8.994620E-3	5.035556E-4	-5.294189E-3	-3.725538E-3	2.997025E-3	-6.444945E-4	-5.209940E-3	1.020446E-3	-2.902231E-3	1.598777E-3	-1.030066E-2	3.027460E-4	2.573414E-3	5.665871E-4	1.145151E-3	1.152094E-3	-1.418768E-3	4.034541E-3	3.343771E-3	-2.243535E-3	1.143333E-2	-3.565133E-3	3.981275E-3	5.219204E-4	-3.395841E-3	6.178244E-4	-4.121626E-3	-3.550145E-3	1.142072E-3	9.260630E-3	1.841528E-3	-1.863623E-3	-1.177685E-3	-5.478012E-4	-9.986012E-3	-9.322151E-3	-4.489987E-3	3.198470E-3	-1.154747E-2	-4.642015E-3	1.242760E-2	-1.481219E-3	4.014164E-3	-3.575337E-3	-1.623903E-3	-5.006103E-3	1.363265E-3	-6.182934E-3	1.237633E-3	-5.898142E-3	-1.178257E-3	-6.453658E-3	1.019327E-3	-8.098602E-3	2.608257E-3	3.978175E-4	-1.271738E-4	6.198429E-3	-5.127229E-3	5.115362E-3	-8.898646E-4	4.665874E-4	1.196839E-3	-2.016221E-3	-1.426424E-4	1.201449E-4	3.632289E-3	-7.217282E-3	2.242431E-3	-7.970765E-3	-9.036647E-3	3.919091E-5	-5.205760E-3	-1.172848E-2	3.935156E-3	-1.316705E-4	-6.501632E-5	1.742078E-3	-5.640469E-3	1.486555E-3	1.531224E-3	-2.449062E-4	4.111413E-3	-4.798863E-4	-2.259782E-3	-4.053830E-3	1.395629E-3	-7.335095E-3	-4.117649E-3	1.204993E-3	9.693805E-4	-5.147770E-3	-1.595022E-3	-2.862883E-3	-2.196946E-3	-4.233750E-3	2.762039E-3	-1.726944E-3	-2.463780E-3	-2.562174E-3	6.481389E-3	5.432352E-3	-5.615279E-3	4.190908E-5	1.142676E-3	-4.224826E-3	2.381366E-3	1.314266E-3	9.509448E-3	-3.959730E-3	-2.569091E-3	-3.398044E-3	3.359428E-3	-6.647152E-3	-1.148288E-2	-2.812083E-3	-2.524213E-3	-6.153619E-3	-5.719784E-3	-1.612414E-3	-1.565278E-3	1.582476E-3	3.761905E-4	2.835031E-3	7.276353E-3	-2.041043E-3	1.522958E-3	-2.519867E-3	5.826823E-4	1.056211E-2	-1.438035E-3	1.015280E-3	4.757467E-3	-1.035797E-2	-1.207278E-4	8.454181E-4	-1.961268E-3	8.523798E-4	5.408912E-3	1.310763E-3	5.471394E-3	8.627025E-3	-1.354847E-2	2.659629E-3	4.015044E-3	-6.638642E-3	3.173632E-3	-1.247881E-2	-6.687775E-3	-6.259133E-3	-6.948760E-4	4.552574E-3	-2.985393E-3	-9.384738E-3	-3.950515E-3	-9.010086E-3	-2.762576E-2
5.320070E+2	-3.273769E-3	9.803947E-3	2.527495E-3	1.247666E-2	5.576136E-3	4.879921E-4	5.248244E-4	5.711141E-4	4.124787E-3	-2.175115E-3	-1.575815E-3	2.415772E-3	3.791657E-3	-1.865090E-3	4.301897E-3	1.043131E-2	9.027392E-3	4.556461E-3	2.930563E-3	8.849943E-3	4.100644E-3	8.094301E-3	-3.779203E-3	3.918664E-4	1.175266E-3	4.026111E-3	2.639182E-3	-3.174374E-3	6.603170E-3	1.151654E-2	5.607366E-3	-2.794684E-3	4.490166E-5	-9.713550E-4	1.212104E-2	6.186674E-3	6.210652E-3	7.933641E-3	5.586992E-3	7.226938E-3	-2.093624E-3	5.399708E-3	1.210230E-2	3.067642E-3	6.023339E-3	-2.140274E-3	7.146826E-3	9.019977E-3	2.915187E-3	9.182111E-3	-3.017182E-3	6.792025E-3	1.140152E-2	6.016262E-3	2.611063E-3	-2.573813E-3	-1.983630E-3	1.899398E-3	2.494446E-3	-8.589447E-4	4.319585E-3	1.993065E-3	5.442804E-3	1.314134E-2	1.534547E-3	2.322802E-3	8.155881E-3	5.334037E-4	-1.434871E-3	1.782328E-3	2.409613E-3	-1.055868E-3	1.524587E-3	8.084630E-3	4.678738E-3	4.850825E-3	6.091814E-5	1.319429E-3	4.273529E-3	6.053968E-3	-3.695365E-4	-2.695126E-3	2.273675E-3	-1.864488E-3	1.574680E-3	9.715347E-4	-3.287173E-4	7.488631E-3	8.126516E-3	-7.071405E-3	1.085483E-3	4.856340E-3	8.293407E-3	-5.009027E-4	-1.905362E-3	1.227673E-3	-7.774851E-4	-4.895993E-3	1.839367E-3	2.290498E-3	2.603710E-3	6.541142E-3	4.250202E-3	3.797326E-3	7.755926E-4	6.133072E-3	4.784271E-3	-2.101698E-3	2.353346E-3	4.368277E-3	-1.063848E-3	9.073207E-3	-2.279757E-3	6.991919E-3	5.120004E-3	1.514302E-2	5.593814E-3	7.190803E-4	5.497491E-3	4.572316E-3	-5.898171E-3	4.674842E-3	7.301390E-3	-5.768273E-3	1.464926E-3	-3.453284E-3	2.888377E-3	1.440417E-3	4.319970E-3	-8.132438E-4	6.203513E-3	9.864664E-3	8.603183E-3	8.190979E-3	6.226416E-4	4.243593E-3	7.715968E-3	9.706175E-3	-3.035884E-3	1.005264E-2	6.984527E-3	8.512901E-3	5.008861E-3	5.015265E-3	-2.761101E-3	5.158886E-3	2.890063E-3	-9.121787E-4	1.238758E-2	6.944790E-3	5.312885E-3	1.465867E-3	-2.715226E-3	4.816582E-3	4.849994E-3	7.617174E-3	-1.517829E-3	2.551764E-3	9.404211E-3	-6.036029E-3	-3.295143E-3	1.029872E-2	1.535701E-2	1.978331E-3	3.295709E-3	2.441667E-3	4.719649E-3	1.282153E-2	-4.798859E-3	4.999770E-3	-4.883446E-3	1.227605E-2
5.325170E+2	1.671236E-2	9.271866E-3	-6.022491E-4	7.339482E-3	2.697186E-3	1.380060E-2	8.369638E-3	1.075923E-2	2.067506E-2	1.091391E-2	1.395659E-2	3.997457E-3	1.485708E-2	1.046520E-2	1.223649E-2	1.110591E-2	1.159315E-2	1.273246E-2	1.975682E-2	1.049927E-2	2.172378E-2	1.343935E-2	1.618783E-2	1.442790E-2	9.219188E-3	1.684738E-2	1.108804E-2	1.465963E-2	7.290929E-3	6.528729E-3	1.346179E-2	2.049641E-2	1.308170E-2	8.075895E-3	5.400132E-3	9.647535E-3	5.510785E-3	9.073959E-3	1.267852E-2	1.318368E-2	1.557401E-2	1.837219E-2	2.063356E-2	1.128275E-2	5.838242E-3	6.211514E-3	1.476722E-2	9.881033E-3	1.879945E-2	1.291044E-2	1.802902E-2	1.309390E-2	9.143558E-3	7.169489E-3	1.950788E-2	6.607988E-3	1.830059E-2	1.612154E-2	9.217058E-3	1.602840E-2	9.267235E-3	5.622967E-3	1.669694E-2	1.019796E-2	1.783721E-2	1.261672E-2	1.669849E-2	1.037416E-2	1.644708E-2	1.023602E-2	2.192778E-2	1.612212E-2	1.554467E-2	1.135774E-3	8.177087E-3	1.073775E-2	1.814082E-2	8.379412E-3	1.165663E-2	1.401091E-2	1.275369E-2	2.449187E-2	1.628418E-2	1.397920E-2	9.282801E-3	2.109597E-2	3.331134E-3	1.091625E-2	1.784822E-2	1.827867E-2	1.722124E-2	7.356977E-3	5.708142E-3	1.674533E-2	1.733131E-2	1.287878E-2	2.000976E-2	8.994879E-3	5.218944E-3	1.064799E-2	2.489049E-2	7.698157E-3	1.138547E-2	1.619813E-2	1.441042E-2	8.711775E-3	5.481056E-3	7.508496E-3	7.024588E-3	2.171406E-2	5.170878E-3	1.283216E-2	9.257347E-3	1.960856E-2	7.582988E-3	3.426548E-3	7.296540E-3	2.529293E-2	1.437104E-2	1.187300E-2	1.990735E-2	7.509128E-3	2.174183E-3	1.651733E-2	9.276430E-3	2.145987E-2	1.313818E-2	1.650380E-2	7.653570E-3	2.109575E-2	9.903114E-3	6.766643E-3	1.635688E-2	9.370839E-3	2.585503E-2	1.577349E-2	9.504155E-3	9.347705E-3	8.498571E-3	-1.013363E-3	6.620919E-3	-3.573513E-3	1.143831E-2	1.054775E-2	1.968652E-2	1.827736E-2	8.282349E-3	1.210865E-2	1.262905E-2	1.404974E-2	1.685832E-2	1.043092E-2	1.777938E-2	3.797844E-3	8.357973E-3	1.930157E-3	1.457886E-2	2.113307E-2	1.008441E-2	1.703217E-2	1.245090E-2	1.099245E-2	1.433146E-2	2.298055E-2	2.450668E-2	1.410400E-2	1.262698E-2	1.037962E-2	1.426633E-2	1.652172E-2	1.946567E-2	5.903112E-2
5.329970E+2	2.578125E-2	2.313331E-2	2.068026E-2	1.963639E-2	2.514289E-2	2.413087E-2	1.846587E-2	2.131096E-2	1.705477E-2	2.167721E-2	1.841197E-2	2.079202E-2	2.847219E-2	2.018787E-2	1.915294E-2	2.835328E-2	3.638244E-2	1.345711E-2	3.247730E-2	2.688771E-2	1.572703E-2	2.449299E-2	1.817619E-2	1.791605E-2	2.058202E-2	2.018036E-2	1.955870E-2	2.556866E-2	2.149650E-2	1.542091E-2	2.764139E-2	2.067296E-2	3.089163E-2	2.612103E-2	1.985229E-2	1.589759E-2	8.582224E-3	1.401336E-2	1.185783E-2	2.213950E-2	1.344238E-2	2.355053E-2	1.887185E-2	2.096030E-2	3.325546E-2	2.284423E-2	1.842246E-2	2.680829E-2	2.065447E-2	3.522401E-2	6.874706E-3	1.174367E-2	1.289954E-2	1.267841E-2	2.160322E-2	1.599391E-2	3.802496E-2	1.799625E-2	2.413212E-2	1.881949E-2	2.141124E-2	2.168061E-2	2.462452E-2	2.442432E-2	1.927867E-2	8.856297E-3	1.323397E-2	1.252356E-2	2.187122E-2	1.575367E-2	1.793094E-2	2.709835E-2	1.252920E-2	2.002103E-2	2.853114E-2	1.821819E-2	2.141563E-2	2.245636E-2	2.379965E-2	3.455670E-2	1.847248E-2	2.350183E-2	2.040696E-3	2.643715E-2	2.152039E-2	2.230567E-2	2.337044E-2	2.204927E-2	1.250015E-2	2.498809E-2	1.692418E-2	1.978008E-2	3.490883E-2	1.890856E-2	2.607706E-2	1.838761E-2	3.303552E-2	1.936152E-2	2.075917E-2	2.470815E-2	1.501821E-2	1.038525E-2	2.410074E-2	6.867038E-3	2.341688E-2	8.210362E-3	1.722979E-2	2.931237E-2	1.170741E-2	1.974195E-2	2.214701E-2	2.384626E-2	8.063288E-3	2.854033E-2	1.650136E-2	3.060256E-2	1.677383E-2	2.406727E-2	2.427535E-2	2.917047E-2	1.591055E-2	3.037767E-2	2.463491E-2	2.542007E-2	3.428354E-2	2.621670E-2	1.442358E-2	2.596960E-2	3.028192E-2	2.127190E-2	3.746954E-2	2.443168E-2	1.808257E-2	1.159016E-2	1.245730E-2	1.936522E-2	2.611250E-2	2.748510E-2	2.189053E-2	2.160557E-2	1.783172E-2	2.311487E-2	2.937538E-2	1.666237E-2	9.850967E-3	1.922757E-2	2.665278E-2	2.589264E-2	1.996778E-2	3.467809E-2	2.683137E-2	1.778207E-2	2.402229E-2	3.443836E-2	1.357876E-2	2.799372E-2	2.193910E-2	1.502550E-2	2.101122E-2	1.724664E-2	2.044698E-2	2.197881E-2	2.695353E-2	2.868907E-2	1.626660E-2	2.331572E-2	3.174374E-2	2.629536E-2	2.075092E-2	3.065073E-2	1.358449E-2	-7.444720E-3
5.331630E+2	1.768015E-2	3.705253E-2	3.064073E-2	2.162003E-2	2.481393E-2	3.399975E-2	3.248793E-2	2.339757E-2	3.038367E-2	3.248689E-2	1.979081E-2	1.481882E-2	3.383773E-2	1.607450E-2	2.557445E-2	3.081001E-2	3.054135E-2	2.053664E-2	1.708590E-2	2.647659E-2	1.744658E-2	3.607965E-2	2.561381E-2	3.950790E-2	2.748389E-2	3.095747E-2	2.639074E-2	3.333864E-2	3.576312E-2	2.899527E-2	2.832138E-2	1.836060E-2	2.279598E-2	2.780300E-2	3.322008E-2	3.371584E-2	2.139577E-2	3.378630E-2	2.244088E-2	2.802263E-2	3.490212E-2	4.045992E-2	3.129345E-2	2.220847E-2	3.230227E-2	2.973194E-2	3.154787E-2	2.184429E-2	3.826890E-2	3.419714E-2	2.233925E-2	2.927544E-2	4.106443E-2	2.752838E-2	2.854464E-2	3.467021E-2	3.445565E-2	1.700961E-2	1.554531E-2	3.303043E-2	3.194998E-2	1.289244E-2	1.513652E-2	2.510884E-2	2.795635E-2	3.102750E-2	3.052632E-2	4.593906E-2	2.863022E-2	2.024365E-2	3.040681E-2	2.636080E-2	3.835685E-2	2.728195E-2	3.485626E-2	3.756136E-2	3.060581E-2	1.943953E-2	2.657458E-2	2.366099E-2	1.993537E-2	3.425805E-2	2.600275E-2	3.022564E-2	1.618909E-2	3.395492E-2	3.300021E-2	2.856126E-2	2.451938E-2	3.291847E-2	2.606242E-2	2.246399E-2	2.396571E-2	3.534645E-2	3.250639E-2	2.217032E-2	2.413080E-2	2.213948E-2	1.659453E-2	2.000516E-2	1.940870E-2	1.312022E-2	3.593672E-2	2.316322E-2	1.329381E-2	3.555657E-2	4.553555E-2	3.374535E-2	4.054467E-2	2.157550E-2	2.854500E-2	2.939806E-2	3.265864E-2	2.936428E-2	3.077448E-2	2.491927E-2	2.226987E-2	1.851569E-2	2.501799E-2	3.279403E-2	4.420502E-2	2.629908E-2	1.841630E-2	2.425940E-2	2.935637E-2	4.271439E-2	2.930776E-2	2.717773E-2	1.894115E-2	2.856929E-2	2.039130E-2	2.588946E-2	2.289196E-2	4.215361E-2	1.581270E-2	3.558226E-2	2.522225E-2	3.130236E-2	3.292787E-2	1.447760E-2	2.171777E-2	2.431531E-2	2.899911E-2	2.659620E-2	1.832305E-2	1.855891E-2	3.104439E-2	3.267289E-2	2.639967E-2	2.845578E-2	2.049391E-2	3.849352E-2	3.527879E-2	3.291334E-2	2.841602E-2	4.376944E-2	2.656763E-2	1.960988E-2	2.583761E-2	2.532368E-2	3.438776E-2	4.010642E-2	2.001517E-2	3.938586E-2	3.390398E-2	3.006752E-2	2.468113E-2	2.188605E-2	3.996113E-2	2.577086E-2	4.014886E-2	6.050481E-3
5.333080E+2	2.617843E-2	4.511900E-2	4.391614E-2	2.727443E-2	6.016988E-2	4.187031E-2	4.268416E-2	4.021000E-2	3.181010E-2	3.979460E-2	2.986500E-2	3.059882E-2	5.016304E-2	4.778917E-2	4.354464E-2	3.735117E-2	5.789268E-2	3.748562E-2	3.405907E-2	4.006192E-2	4.040354E-2	3.725074E-2	3.718466E-2	3.305408E-2	4.684310E-2	4.019515E-2	3.270700E-2	3.542655E-2	4.030955E-2	4.109105E-2	3.240637E-2	3.845284E-2	3.479078E-2	4.448645E-2	4.607351E-2	3.391471E-2	4.356223E-2	3.402332E-2	2.711378E-2	4.096132E-2	4.202261E-2	3.339224E-2	3.248928E-2	3.551843E-2	2.792298E-2	3.924005E-2	4.623750E-2	3.050065E-2	4.185317E-2	4.039251E-2	2.251763E-2	3.294806E-2	3.669451E-2	2.871346E-2	3.838889E-2	3.356499E-2	4.026842E-2	4.717264E-2	3.708334E-2	4.144317E-2	4.306529E-2	3.802142E-2	3.762634E-2	3.326248E-2	3.429292E-2	4.426465E-2	3.802409E-2	4.148672E-2	4.057983E-2	5.166701E-2	3.820046E-2	3.362797E-2	4.155029E-2	4.611758E-2	5.452312E-2	4.092779E-2	2.698127E-2	3.627299E-2	4.185753E-2	3.317421E-2	5.848446E-2	3.138643E-2	4.392991E-2	3.552972E-2	3.642650E-2	2.410037E-2	3.665111E-2	4.352418E-2	3.643468E-2	3.430981E-2	2.567200E-2	2.857319E-2	3.338772E-2	2.999298E-2	2.667464E-2	3.121781E-2	2.617316E-2	2.389806E-2	3.503044E-2	5.074917E-2	3.794582E-2	3.151777E-2	4.173846E-2	3.762558E-2	4.396772E-2	3.514200E-2	4.577633E-2	3.510000E-2	4.080367E-2	2.828370E-2	4.726048E-2	4.805947E-2	4.168748E-2	3.963398E-2	4.099273E-2	5.523267E-2	5.128405E-2	3.857323E-2	3.897621E-2	4.158136E-2	4.260420E-2	3.745099E-2	4.235824E-2	2.876824E-2	3.040304E-2	5.165802E-2	3.239104E-2	4.520875E-2	4.050967E-2	4.836945E-2	5.055583E-2	3.972223E-2	3.297561E-2	2.541309E-2	3.134657E-2	4.444080E-2	4.153877E-2	4.039731E-2	4.357600E-2	4.348342E-2	3.928197E-2	4.236495E-2	3.562314E-2	5.522902E-2	2.317598E-2	2.953184E-2	4.664598E-2	2.974546E-2	2.510340E-2	5.078308E-2	3.659518E-2	4.974367E-2	3.805753E-2	3.664941E-2	3.263940E-2	4.238049E-2	5.084087E-2	4.673589E-2	3.687638E-2	4.636321E-2	4.517976E-2	3.272508E-2	5.242581E-2	2.966351E-2	4.742596E-2	3.586989E-2	2.980187E-2	5.244924E-2	3.927700E-2	4.381549E-2	3.223023E-2	3.301754E-2
5.334580E+2	4.757188E-2	5.650100E-2	4.248591E-2	3.416960E-2	5.072057E-2	5.540764E-2	4.399339E-2	4.710549E-2	6.038298E-2	4.117522E-2	6.358325E-2	6.044293E-2	4.049076E-2	5.390439E-2	4.113322E-2	5.661106E-2	6.235726E-2	4.869908E-2	6.554083E-2	3.674237E-2	4.374404E-2	5.464951E-2	5.382527E-2	4.235688E-2	5.498309E-2	5.108225E-2	6.085573E-2	5.155386E-2	6.450608E-2	3.923480E-2	5.793722E-2	4.715336E-2	6.225688E-2	3.669607E-2	6.186688E-2	5.357571E-2	4.723289E-2	4.771834E-2	4.627983E-2	5.178219E-2	6.249703E-2	5.714340E-2	4.748540E-2	4.285349E-2	5.155778E-2	6.230057E-2	5.549627E-2	4.910704E-2	6.130340E-2	5.989568E-2	4.721932E-2	5.120672E-2	5.893934E-2	5.745462E-2	4.780956E-2	6.098826E-2	5.428024E-2	4.399093E-2	5.322904E-2	5.637290E-2	5.006831E-2	4.075453E-2	3.785864E-2	5.542541E-2	6.193013E-2	4.904851E-2	5.191942E-2	6.559014E-2	5.208654E-2	5.055193E-2	5.137204E-2	4.593154E-2	5.403876E-2	5.490248E-2	6.835264E-2	6.166676E-2	6.563277E-2	6.345878E-2	5.932226E-2	4.562991E-2	4.263405E-2	5.005886E-2	4.870901E-2	6.069157E-2	5.536775E-2	4.444766E-2	4.897066E-2	4.986803E-2	4.963158E-2	5.409442E-2	3.868943E-2	5.245234E-2	4.664369E-2	6.328985E-2	4.731614E-2	4.470530E-2	4.368102E-2	4.733694E-2	4.742957E-2	6.851679E-2	5.553442E-2	4.084805E-2	5.462033E-2	4.540344E-2	4.420661E-2	3.913220E-2	4.891342E-2	5.533370E-2	6.006163E-2	5.619845E-2	3.875180E-2	5.991135E-2	4.257835E-2	5.055551E-2	4.650794E-2	5.727382E-2	5.520922E-2	5.335749E-2	5.589881E-2	6.525675E-2	4.649285E-2	5.677097E-2	5.267082E-2	4.855562E-2	7.015367E-2	5.498932E-2	5.645571E-2	6.007066E-2	4.913420E-2	4.383551E-2	6.941041E-2	6.095592E-2	4.654847E-2	6.445410E-2	3.844640E-2	5.722047E-2	5.855487E-2	5.411943E-2	5.353428E-2	5.121061E-2	5.182351E-2	6.096637E-2	4.450629E-2	6.086269E-2	5.691067E-2	4.293477E-2	5.042810E-2	5.022816E-2	5.288943E-2	5.006675E-2	4.892442E-2	5.652874E-2	4.101050E-2	5.609231E-2	6.137211E-2	4.765893E-2	5.642447E-2	5.977130E-2	5.417673E-2	6.283082E-2	5.273607E-2	5.477453E-2	5.268679E-2	4.038630E-2	4.945907E-2	5.183181E-2	5.260173E-2	5.251808E-2	6.488878E-2	5.693879E-2	5.706239E-2	6.022789E-2
5.336080E+2	6.906536E-2	7.517116E-2	7.281218E-2	6.316492E-2	8.016487E-2	6.591587E-2	7.324691E-2	6.165258E-2	8.846874E-2	6.879286E-2	6.255413E-2	7.918445E-2	6.324734E-2	6.379132E-2	7.919766E-2	6.913248E-2	6.929800E-2	7.738967E-2	6.275698E-2	6.445162E-2	7.466862E-2	6.208160E-2	6.414694E-2	7.039031E-2	6.604078E-2	6.040035E-2	6.390034E-2	4.535724E-2	7.468175E-2	6.751300E-2	5.427307E-2	7.140218E-2	6.312441E-2	6.551049E-2	6.558005E-2	5.264605E-2	6.761288E-2	6.050027E-2	6.552180E-2	7.718665E-2	5.869623E-2	5.288240E-2	6.550528E-2	5.294709E-2	6.616280E-2	6.774017E-2	6.578128E-2	6.258982E-2	6.723744E-2	6.616360E-2	5.886906E-2	7.245229E-2	6.998190E-2	7.498160E-2	7.519703E-2	7.873244E-2	7.586780E-2	5.783330E-2	7.438484E-2	7.429633E-2	7.327785E-2	5.652473E-2	6.489679E-2	6.168241E-2	6.784807E-2	5.382683E-2	6.158119E-2	7.053296E-2	6.311217E-2	6.244090E-2	7.241118E-2	5.979683E-2	5.929805E-2	6.922975E-2	7.043287E-2	5.609115E-2	5.852676E-2	6.042792E-2	7.793628E-2	6.404962E-2	5.415418E-2	6.110649E-2	6.021124E-2	7.323990E-2	6.176324E-2	5.497870E-2	7.724866E-2	5.877198E-2	6.706932E-2	7.336544E-2	7.588233E-2	8.355536E-2	7.384065E-2	6.987296E-2	6.708370E-2	5.924506E-2	7.132866E-2	7.059495E-2	7.292050E-2	7.969163E-2	5.859175E-2	6.497938E-2	6.401079E-2	7.259922E-2	7.714462E-2	6.888883E-2	6.089268E-2	7.009320E-2	6.745268E-2	6.844529E-2	6.581434E-2	6.574281E-2	7.749489E-2	7.417442E-2	6.387243E-2	6.355708E-2	6.333751E-2	6.336049E-2	6.699955E-2	7.615464E-2	6.764011E-2	7.725644E-2	6.420613E-2	7.735877E-2	5.420863E-2	6.960874E-2	6.924304E-2	6.134344E-2	8.311986E-2	5.955459E-2	6.546507E-2	5.750830E-2	7.044508E-2	7.928893E-2	6.783359E-2	5.173652E-2	6.719264E-2	7.828889E-2	7.631669E-2	7.340257E-2	7.132055E-2	7.617234E-2	8.471637E-2	7.840976E-2	6.173824E-2	6.903669E-2	7.202194E-2	7.294261E-2	6.664192E-2	6.697185E-2	6.511689E-2	4.391211E-2	6.539330E-2	7.146619E-2	6.389512E-2	8.474149E-2	7.572051E-2	6.890753E-2	7.150304E-2	7.270438E-2	6.351262E-2	6.376985E-2	6.189794E-2	7.183281E-2	6.949015E-2	6.935529E-2	7.890796E-2	7.291006E-2	6.982996E-2	6.872704E-2	1.064906E-1	6.492714E-2
5.337580E+2	8.169215E-2	1.091629E-1	1.022482E-1	8.312392E-2	8.155263E-2	8.992417E-2	1.026968E-1	1.050358E-1	9.261621E-2	9.597827E-2	9.839367E-2	8.344030E-2	1.196689E-1	8.991407E-2	9.006887E-2	1.054578E-1	1.006027E-1	8.586958E-2	9.932468E-2	9.586560E-2	1.042472E-1	1.007891E-1	7.732446E-2	8.467192E-2	9.991878E-2	1.019791E-1	9.003093E-2	1.019224E-1	9.205700E-2	9.543875E-2	9.028523E-2	1.018351E-1	1.051456E-1	1.065926E-1	1.053024E-1	9.030536E-2	9.306591E-2	9.032157E-2	8.741787E-2	8.154165E-2	9.451612E-2	1.185166E-1	1.138588E-1	9.509779E-2	8.329372E-2	8.994439E-2	9.629246E-2	9.608564E-2	1.097209E-1	9.066469E-2	9.180922E-2	9.148300E-2	9.657872E-2	8.669747E-2	9.789307E-2	9.471338E-2	1.058044E-1	9.402959E-2	1.050509E-1	9.941203E-2	9.207563E-2	9.504760E-2	9.502499E-2	7.951462E-2	9.613905E-2	9.863054E-2	1.008523E-1	8.597770E-2	1.035864E-1	9.521624E-2	8.412049E-2	1.047270E-1	1.117371E-1	9.904227E-2	9.311067E-2	8.695180E-2	8.917268E-2	8.504920E-2	8.503318E-2	9.241777E-2	9.730984E-2	9.628526E-2	1.062932E-1	9.250205E-2	7.661337E-2	9.823809E-2	1.076797E-1	1.113259E-1	1.033700E-1	9.459326E-2	9.450655E-2	1.054380E-1	9.939242E-2	1.094123E-1	1.097775E-1	8.537771E-2	9.030392E-2	9.799898E-2	9.745026E-2	1.074161E-1	9.038616E-2	8.428663E-2	9.543971E-2	8.819347E-2	1.119523E-1	9.861794E-2	1.030840E-1	9.125950E-2	1.054164E-1	9.994649E-2	8.894830E-2	1.046394E-1	1.003532E-1	1.024184E-1	9.146302E-2	1.239397E-1	8.472028E-2	8.861264E-2	9.897417E-2	1.015171E-1	8.759972E-2	9.025865E-2	1.062911E-1	7.592691E-2	1.093122E-1	1.034124E-1	8.671986E-2	1.169292E-1	8.476844E-2	9.216236E-2	1.044281E-1	9.671586E-2	9.763546E-2	9.479427E-2	9.159926E-2	9.986468E-2	1.011531E-1	9.064712E-2	9.314221E-2	9.692433E-2	9.847452E-2	9.002020E-2	8.914596E-2	1.071412E-1	9.234875E-2	9.592964E-2	9.438337E-2	1.019306E-1	7.727378E-2	9.314293E-2	9.524720E-2	9.419665E-2	8.713541E-2	1.009779E-1	1.070751E-1	1.035867E-1	1.232664E-1	8.653358E-2	1.102459E-1	9.517811E-2	9.555846E-2	1.036006E-1	1.126783E-1	1.092999E-1	9.072011E-2	1.063725E-1	8.521473E-2	1.019453E-1	9.597571E-2	1.075948E-1	1.192287E-1	7.116682E-2
5.339140E+2	1.438474E-1	1.492873E-1	1.571410E-1	1.389226E-1	1.612090E-1	1.584830E-1	1.311443E-1	1.472057E-1	1.692944E-1	1.496680E-1	1.419234E-1	1.305737E-1	1.627607E-1	1.507674E-1	1.538748E-1	1.397028E-1	1.656041E-1	1.486939E-1	1.451734E-1	1.450692E-1	1.502002E-1	1.493333E-1	1.406772E-1	1.395719E-1	1.784642E-1	1.599329E-1	1.242016E-1	1.549456E-1	1.562423E-1	1.653343E-1	1.358217E-1	1.641491E-1	1.503515E-1	1.489103E-1	1.650152E-1	1.512510E-1	1.315122E-1	1.523253E-1	1.361311E-1	1.458359E-1	1.375279E-1	1.387413E-1	1.540768E-1	1.612753E-1	1.621532E-1	1.609253E-1	1.623027E-1	1.664113E-1	1.580667E-1	1.408381E-1	1.468109E-1	1.535125E-1	1.693281E-1	1.451552E-1	1.539482E-1	1.389601E-1	1.606198E-1	1.418841E-1	1.569714E-1	1.584938E-1	1.561797E-1	1.393574E-1	1.410547E-1	1.346912E-1	1.556012E-1	1.505978E-1	1.685292E-1	1.464561E-1	1.438425E-1	1.511430E-1	1.390303E-1	1.518702E-1	1.505270E-1	1.477772E-1	1.338682E-1	1.503197E-1	1.425893E-1	1.375712E-1	1.676153E-1	1.520364E-1	1.323762E-1	1.368764E-1	1.619504E-1	1.407927E-1	1.157516E-1	1.285649E-1	1.350316E-1	1.535117E-1	1.464962E-1	1.559902E-1	1.490063E-1	1.510232E-1	1.757009E-1	1.500197E-1	1.399810E-1	1.512568E-1	1.478425E-1	1.541668E-1	1.525990E-1	1.510518E-1	1.422972E-1	1.565860E-1	1.688401E-1	1.461126E-1	1.503543E-1	1.616259E-1	1.566767E-1	1.459369E-1	1.667071E-1	1.633402E-1	1.407145E-1	1.686201E-1	1.365181E-1	1.552170E-1	1.376797E-1	1.433677E-1	1.480300E-1	1.404826E-1	1.657075E-1	1.608212E-1	1.629721E-1	1.610552E-1	1.341942E-1	1.450528E-1	1.556337E-1	1.595438E-1	1.529507E-1	1.529899E-1	1.666712E-1	1.524947E-1	1.532250E-1	1.558718E-1	1.523181E-1	1.567999E-1	1.378419E-1	1.341911E-1	1.498533E-1	1.579759E-1	1.461825E-1	1.600643E-1	1.456439E-1	1.639641E-1	1.355484E-1	1.496681E-1	1.614832E-1	1.525766E-1	1.609732E-1	1.297856E-1	1.378608E-1	1.646269E-1	1.686583E-1	1.554326E-1	1.276317E-1	1.616356E-1	1.613696E-1	1.688241E-1	1.575103E-1	1.517581E-1	1.543694E-1	1.577397E-1	1.542791E-1	1.661622E-1	1.534376E-1	1.504780E-1	1.394652E-1	1.430740E-1	1.394740E-1	1.518417E-1	1.509610E-1	1.827626E-1	1.505401E-1	1.726144E-1
5.340690E+2	2.411461E-1	2.267403E-1	2.387581E-1	2.122533E-1	2.386586E-1	2.501599E-1	2.407738E-1	2.251670E-1	2.405436E-1	2.254459E-1	2.372135E-1	2.368480E-1	2.353716E-1	2.250505E-1	2.257249E-1	2.258210E-1	2.267731E-1	2.194215E-1	2.429514E-1	2.277510E-1	2.383928E-1	2.480913E-1	2.297545E-1	2.494766E-1	2.338819E-1	2.347798E-1	2.394191E-1	2.335115E-1	2.642833E-1	2.454245E-1	2.221243E-1	2.426340E-1	2.429034E-1	2.256722E-1	2.244427E-1	2.391409E-1	2.447665E-1	2.478788E-1	2.270198E-1	2.403882E-1	2.454317E-1	2.147593E-1	2.434206E-1	2.345576E-1	2.175018E-1	2.293606E-1	2.363551E-1	2.395649E-1	2.369351E-1	2.370801E-1	2.153497E-1	2.194074E-1	2.455595E-1	2.533169E-1	2.377629E-1	2.306908E-1	2.290390E-1	2.543488E-1	2.092386E-1	2.446931E-1	2.633864E-1	2.315566E-1	2.724874E-1	2.249734E-1	2.490209E-1	2.158478E-1	2.399784E-1	2.228692E-1	2.281887E-1	2.396967E-1	2.237952E-1	2.425705E-1	2.261558E-1	2.222420E-1	2.591150E-1	2.284869E-1	2.466391E-1	2.307051E-1	2.332790E-1	2.380785E-1	2.412555E-1	2.275993E-1	2.227366E-1	2.558191E-1	2.343292E-1	2.358540E-1	2.288602E-1	2.428063E-1	2.455794E-1	2.356038E-1	2.522999E-1	2.344739E-1	2.441463E-1	2.363516E-1	2.250164E-1	2.291788E-1	2.419486E-1	2.373018E-1	2.071910E-1	2.333787E-1	2.434483E-1	2.298050E-1	2.276943E-1	2.228882E-1	2.335318E-1	2.462735E-1	2.543575E-1	2.648856E-1	2.398018E-1	2.198834E-1	2.390361E-1	2.507923E-1	2.309875E-1	2.507250E-1	2.366608E-1	2.337505E-1	2.376926E-1	2.383818E-1	2.362097E-1	2.199762E-1	2.405472E-1	2.393283E-1	2.263383E-1	2.366608E-1	2.275687E-1	2.392404E-1	2.258271E-1	2.208464E-1	2.306409E-1	2.311720E-1	2.519497E-1	2.177642E-1	2.274620E-1	2.254194E-1	2.414800E-1	2.468536E-1	2.404467E-1	2.539919E-1	2.344781E-1	2.380916E-1	2.227178E-1	2.077248E-1	2.376863E-1	2.267062E-1	2.246458E-1	2.307147E-1	2.242919E-1	2.422591E-1	2.416991E-1	2.556379E-1	2.174796E-1	2.258500E-1	2.799289E-1	2.453062E-1	2.313481E-1	2.494582E-1	2.308901E-1	2.400798E-1	2.367445E-1	2.283749E-1	2.451393E-1	2.297016E-1	2.680389E-1	2.475100E-1	2.288380E-1	2.389995E-1	2.376576E-1	2.556538E-1	2.693190E-1	2.431689E-1	2.501050E-1	2.268764E-1
5.342040E+2	4.042265E-1	4.129103E-1	4.197327E-1	4.171379E-1	4.225438E-1	3.946734E-1	4.197062E-1	4.240434E-1	4.346206E-1	4.307148E-1	4.188492E-1	4.075023E-1	4.114129E-1	4.147436E-1	4.252894E-1	4.211187E-1	4.022504E-1	4.169428E-1	4.214675E-1	4.094684E-1	4.203808E-1	4.086466E-1	4.014971E-1	3.942772E-1	4.176541E-1	4.154290E-1	4.231581E-1	4.182265E-1	4.188546E-1	4.529696E-1	4.125976E-1	3.854048E-1	4.110656E-1	4.184500E-1	4.138345E-1	4.306719E-1	4.201752E-1	4.277775E-1	4.240387E-1	3.947501E-1	3.931975E-1	4.162316E-1	4.228664E-1	4.319220E-1	4.213955E-1	4.068273E-1	4.070470E-1	4.264523E-1	4.096848E-1	4.328612E-1	3.686216E-1	4.127222E-1	4.195182E-1	4.188311E-1	4.456301E-1	4.243497E-1	4.337727E-1	4.312029E-1	4.485139E-1	4.359333E-1	4.125037E-1	4.016779E-1	4.089110E-1	4.036436E-1	3.938011E-1	4.180383E-1	4.287639E-1	4.164207E-1	4.090939E-1	4.225846E-1	4.232910E-1	4.226139E-1	4.288433E-1	4.390744E-1	4.368299E-1	4.100765E-1	4.020985E-1	4.193683E-1	4.227590E-1	3.828892E-1	4.005954E-1	4.305396E-1	3.882394E-1	4.162539E-1	4.142946E-1	4.334307E-1	4.079611E-1	4.157032E-1	4.222760E-1	4.004941E-1	4.221603E-1	4.198553E-1	4.096137E-1	4.103401E-1	4.322960E-1	4.246851E-1	4.217455E-1	4.033744E-1	4.406437E-1	4.318281E-1	4.251293E-1	4.251824E-1	4.188334E-1	4.320355E-1	4.022359E-1	4.151116E-1	4.048181E-1	4.014031E-1	4.288274E-1	4.319560E-1	4.369529E-1	4.161484E-1	4.277593E-1	4.185520E-1	4.340353E-1	4.309201E-1	4.204170E-1	4.096299E-1	4.215769E-1	4.467397E-1	4.490981E-1	4.534381E-1	4.438287E-1	4.206902E-1	4.272676E-1	4.189450E-1	4.320019E-1	4.050992E-1	4.627842E-1	4.657463E-1	4.648786E-1	4.186335E-1	4.048735E-1	4.224688E-1	4.099112E-1	4.394998E-1	4.003268E-1	4.582234E-1	3.859220E-1	4.332447E-1	4.196217E-1	4.469405E-1	4.281730E-1	4.396678E-1	4.021574E-1	4.267275E-1	4.414368E-1	4.363684E-1	4.006461E-1	4.226166E-1	4.555763E-1	4.241253E-1	4.295919E-1	4.225849E-1	4.215304E-1	4.312262E-1	4.043305E-1	3.909603E-1	4.241810E-1	4.069908E-1	4.491338E-1	4.291031E-1	4.195516E-1	3.878252E-1	4.326259E-1	4.564218E-1	4.257941E-1	4.398301E-1	4.161193E-1	4.262469E-1	3.770384E-1	5.445109E-1
5.343600E+2	7.470857E-1	7.757336E-1	7.611905E-1	7.612124E-1	7.401188E-1	7.330234E-1	7.866781E-1	7.468391E-1	7.707227E-1	7.712135E-1	7.645029E-1	7.493280E-1	7.788861E-1	7.912328E-1	7.520723E-1	7.474665E-1	7.546476E-1	7.547482E-1	7.393490E-1	7.343777E-1	7.655031E-1	7.457613E-1	7.730021E-1	7.731678E-1	7.430823E-1	7.583724E-1	7.166161E-1	7.789239E-1	7.422934E-1	7.536376E-1	7.449557E-1	7.663499E-1	7.271658E-1	7.658010E-1	7.475933E-1	7.462590E-1	8.029348E-1	7.822138E-1	7.635041E-1	7.405542E-1	8.161713E-1	7.145999E-1	7.452656E-1	7.776228E-1	7.527920E-1	7.711806E-1	7.921932E-1	7.306185E-1	7.347283E-1	7.604250E-1	7.020067E-1	7.274839E-1	8.114969E-1	7.585679E-1	7.419855E-1	7.731600E-1	8.124742E-1	7.634273E-1	7.306821E-1	7.684449E-1	7.298484E-1	7.592407E-1	7.232205E-1	7.736423E-1	7.707076E-1	7.565765E-1	7.685801E-1	7.285033E-1	7.028597E-1	7.616295E-1	7.805492E-1	7.733161E-1	7.479085E-1	7.935584E-1	7.564015E-1	7.349057E-1	7.302162E-1	7.775393E-1	7.263769E-1	7.599164E-1	7.276251E-1	7.760061E-1	7.456622E-1	7.198127E-1	7.305452E-1	7.410357E-1	7.455067E-1	7.545382E-1	7.895050E-1	7.669933E-1	7.101733E-1	7.465434E-1	7.370697E-1	7.082331E-1	7.525914E-1	7.450227E-1	7.361263E-1	7.832206E-1	7.213210E-1	7.379280E-1	7.675807E-1	7.243759E-1	7.301460E-1	7.280242E-1	7.472910E-1	7.590819E-1	7.147119E-1	7.327691E-1	7.169520E-1	7.894652E-1	7.412022E-1	7.593546E-1	7.574075E-1	7.321417E-1	7.624951E-1	7.474921E-1	7.236374E-1	7.362188E-1	7.778968E-1	7.731908E-1	7.660948E-1	7.565461E-1	7.668113E-1	7.262737E-1	7.472292E-1	7.641027E-1	7.449395E-1	7.343593E-1	7.439756E-1	7.221525E-1	7.203634E-1	7.383348E-1	7.724724E-1	7.345298E-1	7.808845E-1	7.285874E-1	7.451141E-1	7.511901E-1	7.565428E-1	7.762926E-1	7.697996E-1	7.728790E-1	7.200364E-1	7.641994E-1	7.204077E-1	7.635084E-1	7.554278E-1	7.711954E-1	7.465874E-1	7.704992E-1	7.719382E-1	7.500701E-1	7.572047E-1	7.671088E-1	7.431445E-1	7.451886E-1	7.938012E-1	7.356930E-1	7.841151E-1	7.465983E-1	7.803727E-1	7.728624E-1	7.588009E-1	7.886478E-1	7.664436E-1	7.919289E-1	7.744914E-1	7.433680E-1	7.426233E-1	7.867385E-1	7.846248E-1	6.240197E-1
5.345160E+2	1.145406E+0	1.200316E+0	1.178541E+0	1.128071E+0	1.119828E+0	1.138034E+0	1.167526E+0	1.177006E+0	1.175643E+0	1.168128E+0	1.141571E+0	1.130530E+0	1.148983E+0	1.148156E+0	1.148565E+0	1.161469E+0	1.193276E+0	1.156988E+0	1.232024E+0	1.150736E+0	1.170895E+0	1.178022E+0	1.170265E+0	1.154951E+0	1.191923E+0	1.145791E+0	1.127770E+0	1.210746E+0	1.133675E+0	1.132635E+0	1.142425E+0	1.208671E+0	1.160325E+0	1.186332E+0	1.134734E+0	1.180693E+0	1.152687E+0	1.210634E+0	1.167664E+0	1.153031E+0	1.155576E+0	1.179209E+0	1.173342E+0	1.143695E+0	1.156294E+0	1.147179E+0	1.182731E+0	1.135049E+0	1.168721E+0	1.161680E+0	1.186433E+0	1.167911E+0	1.165780E+0	1.162682E+0	1.150888E+0	1.183538E+0	1.162510E+0	1.218143E+0	1.178373E+0	1.194344E+0	1.165449E+0	1.183921E+0	1.187349E+0	1.160856E+0	1.129107E+0	1.159334E+0	1.151594E+0	1.166318E+0	1.148382E+0	1.150176E+0	1.119885E+0	1.146789E+0	1.188268E+0	1.148030E+0	1.172000E+0	1.200239E+0	1.174885E+0	1.141151E+0	1.145255E+0	1.152555E+0	1.128449E+0	1.147972E+0	1.179047E+0	1.105704E+0	1.111589E+0	1.119332E+0	1.156894E+0	1.150769E+0	1.179708E+0	1.174944E+0	1.143353E+0	1.159385E+0	1.202952E+0	1.179404E+0	1.180622E+0	1.154556E+0	1.151460E+0	1.161169E+0	1.117541E+0	1.188679E+0	1.172971E+0	1.089638E+0	1.179382E+0	1.140174E+0	1.155537E+0	1.163777E+0	1.093474E+0	1.139064E+0	1.169107E+0	1.233292E+0	1.149852E+0	1.104023E+0	1.136400E+0	1.243986E+0	1.121824E+0	1.156045E+0	1.165567E+0	1.145084E+0	1.128688E+0	1.175892E+0	1.210859E+0	1.140272E+0	1.132310E+0	1.168250E+0	1.129785E+0	1.244950E+0	1.137608E+0	1.130814E+0	1.086463E+0	1.173916E+0	1.117610E+0	1.162709E+0	1.141946E+0	1.128449E+0	1.130630E+0	1.179847E+0	1.132253E+0	1.178032E+0	1.114554E+0	1.168971E+0	1.109028E+0	1.193294E+0	1.125439E+0	1.140749E+0	1.155988E+0	1.153043E+0	1.147935E+0	1.146907E+0	1.205332E+0	1.131121E+0	1.189543E+0	1.185624E+0	1.142310E+0	1.164054E+0	1.123931E+0	1.145771E+0	1.107255E+0	1.123240E+0	1.176204E+0	1.154130E+0	1.166539E+0	1.154697E+0	1.098661E+0	1.145795E+0	1.116980E+0	1.119285E+0	1.186838E+0	1.148221E+0	1.149118E+0	1.184523E+0	1.060193E+0	1.029440E+0
5.346560E+2	1.479684E+0	1.559651E+0	1.498044E+0	1.512300E+0	1.488312E+0	1.514542E+0	1.489728E+0	1.502723E+0	1.540747E+0	1.471444E+0	1.560767E+0	1.498120E+0	1.528480E+0	1.489193E+0	1.482092E+0	1.547073E+0	1.467274E+0	1.522596E+0	1.484537E+0	1.531981E+0	1.534843E+0	1.516152E+0	1.516722E+0	1.533567E+0	1.523285E+0	1.541606E+0	1.544348E+0	1.547135E+0	1.492031E+0	1.539927E+0	1.482382E+0	1.540239E+0	1.517665E+0	1.500634E+0	1.503097E+0	1.470439E+0	1.500165E+0	1.562824E+0	1.498205E+0	1.564956E+0	1.518046E+0	1.556437E+0	1.527574E+0	1.479629E+0	1.508726E+0	1.454670E+0	1.531104E+0	1.493188E+0	1.534053E+0	1.456687E+0	1.532293E+0	1.565829E+0	1.448911E+0	1.539718E+0	1.527719E+0	1.556609E+0	1.482947E+0	1.506949E+0	1.528360E+0	1.518463E+0	1.514023E+0	1.585967E+0	1.479468E+0	1.501490E+0	1.452314E+0	1.449186E+0	1.469268E+0	1.514784E+0	1.478545E+0	1.530901E+0	1.481053E+0	1.489303E+0	1.524040E+0	1.514905E+0	1.546531E+0	1.515947E+0	1.487643E+0	1.505495E+0	1.436520E+0	1.503882E+0	1.584947E+0	1.568384E+0	1.541689E+0	1.505765E+0	1.503729E+0	1.552896E+0	1.509240E+0	1.498880E+0	1.531002E+0	1.476524E+0	1.478940E+0	1.494683E+0	1.524822E+0	1.470912E+0	1.459334E+0	1.504436E+0	1.613030E+0	1.495857E+0	1.516675E+0	1.477288E+0	1.463345E+0	1.470101E+0	1.508738E+0	1.515923E+0	1.504727E+0	1.502703E+0	1.428916E+0	1.510057E+0	1.469981E+0	1.510332E+0	1.448609E+0	1.508366E+0	1.511685E+0	1.492055E+0	1.521683E+0	1.527091E+0	1.514470E+0	1.454441E+0	1.507441E+0	1.487937E+0	1.553404E+0	1.472521E+0	1.523341E+0	1.522645E+0	1.523984E+0	1.503745E+0	1.524930E+0	1.443936E+0	1.497639E+0	1.502462E+0	1.468878E+0	1.463172E+0	1.463709E+0	1.477002E+0	1.462046E+0	1.525741E+0	1.501631E+0	1.510951E+0	1.437377E+0	1.509076E+0	1.469361E+0	1.504122E+0	1.539753E+0	1.518830E+0	1.435012E+0	1.501458E+0	1.491556E+0	1.510049E+0	1.530618E+0	1.505544E+0	1.490814E+0	1.520546E+0	1.488217E+0	1.472968E+0	1.452790E+0	1.444883E+0	1.395770E+0	1.504106E+0	1.512104E+0	1.492616E+0	1.588051E+0	1.490160E+0	1.497791E+0	1.428551E+0	1.489228E+0	1.508246E+0	1.460279E+0	1.529102E+0	1.448541E+0	1.412702E+0	1.410388E+0	1.497980E+0
5.348070E+2	1.898007E+0	1.892880E+0	1.911073E+0	1.824734E+0	1.861021E+0	1.900972E+0	1.870279E+0	1.812946E+0	1.892415E+0	1.907043E+0	1.880905E+0	1.839688E+0	1.810470E+0	1.885040E+0	1.928287E+0	1.891491E+0	1.871889E+0	1.893697E+0	1.921854E+0	1.885431E+0	1.902946E+0	1.855562E+0	1.847540E+0	1.869846E+0	1.872587E+0	1.904807E+0	1.821397E+0	1.864993E+0	1.908988E+0	1.897832E+0	1.898782E+0	1.914146E+0	1.867734E+0	1.843306E+0	1.943885E+0	1.895339E+0	1.873826E+0	1.931288E+0	1.850639E+0	1.907990E+0	1.918644E+0	1.814846E+0	1.854112E+0	1.793039E+0	1.828351E+0	1.880520E+0	1.867657E+0	1.807295E+0	1.924679E+0	1.891315E+0	1.851237E+0	1.897783E+0	1.862483E+0	1.898168E+0	1.885471E+0	1.864724E+0	1.897461E+0	1.825399E+0	1.864104E+0	1.863597E+0	1.821882E+0	1.876371E+0	1.800684E+0	1.870073E+0	1.878405E+0	1.844109E+0	1.826330E+0	1.833826E+0	1.836046E+0	1.825492E+0	1.877456E+0	1.858101E+0	1.889714E+0	1.819966E+0	1.897582E+0	1.855625E+0	1.902253E+0	1.848723E+0	1.850450E+0	1.870871E+0	1.895986E+0	1.839574E+0	1.880215E+0	1.815582E+0	1.882421E+0	1.829644E+0	1.885359E+0	1.844190E+0	1.910417E+0	1.853702E+0	1.834377E+0	1.846457E+0	1.834232E+0	1.848572E+0	1.864321E+0	1.840468E+0	1.840080E+0	1.835790E+0	1.878803E+0	1.832522E+0	1.908071E+0	1.795666E+0	1.878629E+0	1.845962E+0	1.792547E+0	1.831207E+0	1.873446E+0	1.857327E+0	1.828969E+0	1.785890E+0	1.766216E+0	1.867299E+0	1.855316E+0	1.867642E+0	1.834392E+0	1.776350E+0	1.840224E+0	1.783246E+0	1.826040E+0	1.839295E+0	1.848091E+0	1.859449E+0	1.863189E+0	1.807905E+0	1.888185E+0	1.846767E+0	1.852353E+0	1.847242E+0	1.837505E+0	1.822567E+0	1.817759E+0	1.871704E+0	1.835128E+0	1.787754E+0	1.863828E+0	1.823027E+0	1.869454E+0	1.818140E+0	1.873887E+0	1.828517E+0	1.763970E+0	1.827994E+0	1.778764E+0	1.792141E+0	1.851924E+0	1.863916E+0	1.782509E+0	1.847776E+0	1.797293E+0	1.866561E+0	1.838946E+0	1.837849E+0	1.796777E+0	1.899659E+0	1.793043E+0	1.862386E+0	1.777588E+0	1.736041E+0	1.787730E+0	1.804165E+0	1.799101E+0	1.810990E+0	1.780811E+0	1.818816E+0	1.756084E+0	1.813323E+0	1.866241E+0	1.802043E+0	1.753403E+0	1.850357E+0	1.768015E+0	1.695869E+0
5.349530E+2	2.026536E+0	2.053591E+0	2.040004E+0	2.044507E+0	1.945916E+0	1.992927E+0	2.045737E+0	1.995306E+0	1.995541E+0	2.083374E+0	1.942540E+0	1.907234E+0	2.012052E+0	2.101832E+0	1.976942E+0	2.004796E+0	2.056116E+0	1.984562E+0	2.003341E+0	1.979285E+0	2.019192E+0	1.980661E+0	2.044916E+0	1.972266E+0	2.048170E+0	2.013789E+0	2.064658E+0	2.016037E+0	1.995338E+0	1.979674E+0	1.951441E+0	2.014137E+0	1.973847E+0	1.966462E+0	1.990183E+0	2.019374E+0	2.010531E+0	1.994916E+0	1.990539E+0	1.976797E+0	2.037170E+0	1.964152E+0	1.993288E+0	1.943569E+0	1.998888E+0	2.058366E+0	1.976148E+0	1.981318E+0	1.996888E+0	1.978146E+0	1.993774E+0	2.024264E+0	1.953626E+0	2.014613E+0	1.985328E+0	1.954696E+0	1.976128E+0	1.990591E+0	2.025740E+0	2.038070E+0	2.032914E+0	2.027009E+0	1.958988E+0	1.997772E+0	1.924247E+0	2.046551E+0	1.964957E+0	1.974772E+0	1.963050E+0	1.993589E+0	2.021915E+0	1.948397E+0	1.980692E+0	1.903110E+0	2.058713E+0	1.969000E+0	2.066053E+0	1.976560E+0	1.940954E+0	2.025964E+0	2.004705E+0	1.982871E+0	1.925657E+0	1.946279E+0	1.904445E+0	1.983074E+0	1.948772E+0	1.927099E+0	2.026202E+0	1.896347E+0	1.959395E+0	1.924567E+0	1.961275E+0	1.954427E+0	1.957014E+0	1.977062E+0	1.983729E+0	2.042258E+0	1.924071E+0	1.965182E+0	1.970436E+0	1.916370E+0	1.937411E+0	1.942109E+0	1.957206E+0	1.902614E+0	1.942124E+0	1.950864E+0	1.959987E+0	1.964047E+0	1.927948E+0	1.985875E+0	1.972790E+0	2.004630E+0	1.958126E+0	1.917667E+0	1.969662E+0	1.886617E+0	1.969464E+0	1.918550E+0	1.963356E+0	2.021446E+0	1.942153E+0	1.948994E+0	1.957524E+0	1.962514E+0	1.956166E+0	1.889461E+0	1.925347E+0	1.936683E+0	1.846035E+0	1.972582E+0	1.956286E+0	1.971756E+0	1.935155E+0	1.867427E+0	1.971670E+0	1.960856E+0	1.956012E+0	1.921205E+0	1.892309E+0	1.996114E+0	1.895359E+0	1.970478E+0	1.935231E+0	2.021183E+0	1.961179E+0	1.942499E+0	1.905633E+0	1.941383E+0	1.956111E+0	1.925056E+0	1.955826E+0	1.918173E+0	1.888314E+0	1.974206E+0	1.897934E+0	2.000530E+0	1.959738E+0	1.926035E+0	1.957726E+0	1.932089E+0	1.895017E+0	1.925073E+0	1.871446E+0	1.958889E+0	1.945346E+0	1.940236E+0	1.884477E+0	1.911896E+0	1.850291E+0	1.748894E+0
5.351300E+2	2.030612E+0	1.958730E+0	2.053174E+0	2.003129E+0	1.919501E+0	1.961637E+0	2.084266E+0	1.961520E+0	2.022901E+0	1.978093E+0	2.035761E+0	1.990551E+0	1.969680E+0	2.009503E+0	2.003555E+0	2.077557E+0	1.996611E+0	2.027286E+0	1.949048E+0	2.022746E+0	1.963200E+0	1.955249E+0	1.986176E+0	1.942559E+0	1.976186E+0	2.029640E+0	1.984392E+0	2.013091E+0	2.033941E+0	1.971298E+0	2.044377E+0	2.068743E+0	2.031712E+0	1.961820E+0	1.927946E+0	2.026067E+0	1.987785E+0	2.040268E+0	2.001024E+0	1.983325E+0	1.979598E+0	1.971268E+0	1.976317E+0	1.947764E+0	1.960116E+0	1.944916E+0	1.982095E+0	2.011182E+0	1.899847E+0	1.966666E+0	2.009787E+0	1.999316E+0	1.963074E+0	1.962877E+0	1.972013E+0	1.994047E+0	2.003832E+0	1.934574E+0	1.954911E+0	2.012114E+0	1.952492E+0	1.978616E+0	2.006601E+0	1.954236E+0	1.930994E+0	2.001988E+0	2.030885E+0	1.962567E+0	1.924862E+0	1.961714E+0	1.956885E+0	1.941528E+0	1.978144E+0	1.969213E+0	1.933239E+0	1.898159E+0	1.975433E+0	1.945801E+0	1.946653E+0	1.972308E+0	2.059071E+0	1.987501E+0	1.973088E+0	1.932986E+0	1.937061E+0	1.989393E+0	1.957695E+0	1.939094E+0	2.009767E+0	1.943066E+0	1.930083E+0	1.965184E+0	1.889877E+0	1.873462E+0	1.957133E+0	1.952505E+0	2.010388E+0	1.943803E+0	1.909000E+0	1.984835E+0	1.962292E+0	1.954368E+0	1.940912E+0	1.933239E+0	1.899373E+0	1.984939E+0	1.892410E+0	1.980578E+0	1.916929E+0	1.966703E+0	1.958570E+0	1.965385E+0	1.886030E+0	2.027134E+0	2.000193E+0	1.954176E+0	1.937268E+0	1.930463E+0	1.969412E+0	1.920371E+0	2.060123E+0	1.924628E+0	1.993963E+0	1.879244E+0	1.938617E+0	1.954552E+0	1.978343E+0	1.875462E+0	1.874259E+0	2.007381E+0	1.935329E+0	1.922566E+0	1.865401E+0	1.947682E+0	1.980064E+0	1.934818E+0	1.909939E+0	1.906034E+0	1.878191E+0	1.970351E+0	1.947050E+0	2.003699E+0	1.889948E+0	1.874415E+0	1.896627E+0	1.913622E+0	1.947674E+0	1.957129E+0	1.903685E+0	1.984130E+0	1.962929E+0	1.894651E+0	1.912764E+0	1.900563E+0	1.886468E+0	1.922667E+0	1.887531E+0	1.932952E+0	1.949226E+0	1.912019E+0	1.905122E+0	1.928398E+0	2.008032E+0	1.896394E+0	1.901725E+0	1.962554E+0	1.942224E+0	1.928774E+0	1.828404E+0	1.966846E+0	1.892879E+0	1.710651E+0
5.352600E+2	1.956883E+0	1.901894E+0	1.862583E+0	1.913705E+0	1.893653E+0	1.859503E+0	1.777418E+0	1.899688E+0	1.824506E+0	1.881783E+0	1.891064E+0	1.797043E+0	1.853289E+0	1.864052E+0	1.932743E+0	1.877799E+0	1.860784E+0	1.845658E+0	1.925067E+0	1.854077E+0	1.953560E+0	1.838058E+0	1.842456E+0	1.823688E+0	1.858546E+0	1.887773E+0	1.836936E+0	1.857022E+0	1.826191E+0	1.884151E+0	1.890753E+0	1.883023E+0	1.864043E+0	1.861387E+0	1.858005E+0	1.878118E+0	1.860464E+0	1.901086E+0	1.877821E+0	1.867512E+0	1.909999E+0	1.915060E+0	1.847186E+0	1.794461E+0	1.855447E+0	1.838831E+0	1.910288E+0	1.871319E+0	1.838271E+0	1.836975E+0	1.791240E+0	1.822682E+0	1.881964E+0	1.912622E+0	1.902033E+0	1.880712E+0	1.914254E+0	1.880078E+0	1.895573E+0	1.880595E+0	1.859194E+0	1.882162E+0	1.852026E+0	1.892282E+0	1.821080E+0	1.831752E+0	1.827320E+0	1.878302E+0	1.852014E+0	1.872872E+0	1.883065E+0	1.832607E+0	1.869853E+0	1.804880E+0	1.895007E+0	1.866990E+0	1.885232E+0	1.794730E+0	1.833202E+0	1.844766E+0	1.821878E+0	1.828234E+0	1.849823E+0	1.855053E+0	1.812524E+0	1.769953E+0	1.902055E+0	1.833698E+0	1.867871E+0	1.785049E+0	1.804794E+0	1.839350E+0	1.833517E+0	1.805542E+0	1.806505E+0	1.816889E+0	1.898089E+0	1.904293E+0	1.848165E+0	1.882666E+0	1.902136E+0	1.810407E+0	1.830099E+0	1.838160E+0	1.896180E+0	1.804113E+0	1.752378E+0	1.861892E+0	1.873019E+0	1.868056E+0	1.809514E+0	1.822115E+0	1.857715E+0	1.869678E+0	1.780730E+0	1.800793E+0	1.866536E+0	1.788916E+0	1.828649E+0	1.823864E+0	1.824556E+0	1.847967E+0	1.870334E+0	1.855717E+0	1.861504E+0	1.832662E+0	1.827843E+0	1.756985E+0	1.768656E+0	1.854098E+0	1.833410E+0	1.872267E+0	1.840698E+0	1.854342E+0	1.890581E+0	1.851233E+0	1.869107E+0	1.833129E+0	1.824647E+0	1.876058E+0	1.812496E+0	1.846047E+0	1.784447E+0	1.812655E+0	1.795953E+0	1.868087E+0	1.847089E+0	1.831450E+0	1.783121E+0	1.792137E+0	1.842495E+0	1.788596E+0	1.816406E+0	1.850236E+0	1.811913E+0	1.800241E+0	1.752919E+0	1.770543E+0	1.829117E+0	1.776760E+0	1.838175E+0	1.845771E+0	1.819028E+0	1.844291E+0	1.843275E+0	1.829871E+0	1.803847E+0	1.812107E+0	1.713909E+0	1.874595E+0	1.623004E+0	1.726962E+0
5.354110E+2	1.640304E+0	1.658172E+0	1.603385E+0	1.628886E+0	1.665165E+0	1.633277E+0	1.624436E+0	1.586038E+0	1.627446E+0	1.649359E+0	1.610795E+0	1.553603E+0	1.564670E+0	1.608662E+0	1.676439E+0	1.628305E+0	1.707171E+0	1.611489E+0	1.631206E+0	1.648168E+0	1.653883E+0	1.600790E+0	1.627262E+0	1.621065E+0	1.594658E+0	1.654861E+0	1.618116E+0	1.549619E+0	1.606401E+0	1.670181E+0	1.647613E+0	1.666072E+0	1.644197E+0	1.592772E+0	1.718369E+0	1.555973E+0	1.645218E+0	1.667030E+0	1.635643E+0	1.618970E+0	1.679794E+0	1.632810E+0	1.683972E+0	1.642037E+0	1.699572E+0	1.629527E+0	1.670643E+0	1.618709E+0	1.626400E+0	1.592301E+0	1.604153E+0	1.737127E+0	1.658897E+0	1.651268E+0	1.618382E+0	1.631368E+0	1.658895E+0	1.668820E+0	1.603686E+0	1.607175E+0	1.605133E+0	1.636180E+0	1.622237E+0	1.645776E+0	1.583138E+0	1.661248E+0	1.708419E+0	1.595909E+0	1.616224E+0	1.688367E+0	1.619232E+0	1.586314E+0	1.627785E+0	1.560861E+0	1.678560E+0	1.643166E+0	1.600510E+0	1.602054E+0	1.632628E+0	1.685053E+0	1.624720E+0	1.622312E+0	1.670523E+0	1.575442E+0	1.565432E+0	1.627265E+0	1.609292E+0	1.596186E+0	1.664396E+0	1.652000E+0	1.552503E+0	1.605125E+0	1.593795E+0	1.597204E+0	1.562868E+0	1.633278E+0	1.642651E+0	1.581476E+0	1.583030E+0	1.617551E+0	1.630057E+0	1.625842E+0	1.617786E+0	1.650379E+0	1.605447E+0	1.596729E+0	1.637650E+0	1.589797E+0	1.626122E+0	1.667129E+0	1.622592E+0	1.575588E+0	1.584676E+0	1.635886E+0	1.637375E+0	1.614434E+0	1.587787E+0	1.590055E+0	1.656019E+0	1.587948E+0	1.632356E+0	1.682594E+0	1.633676E+0	1.630360E+0	1.593610E+0	1.689797E+0	1.606897E+0	1.597591E+0	1.620065E+0	1.597712E+0	1.612035E+0	1.646300E+0	1.606956E+0	1.602468E+0	1.563560E+0	1.629970E+0	1.561677E+0	1.559997E+0	1.608883E+0	1.552110E+0	1.550782E+0	1.611869E+0	1.584193E+0	1.597520E+0	1.591843E+0	1.625173E+0	1.609479E+0	1.590211E+0	1.600760E+0	1.645172E+0	1.582779E+0	1.567803E+0	1.539521E+0	1.627533E+0	1.544016E+0	1.610791E+0	1.566207E+0	1.592355E+0	1.565153E+0	1.622962E+0	1.615836E+0	1.630718E+0	1.590200E+0	1.581516E+0	1.528543E+0	1.582239E+0	1.611015E+0	1.557774E+0	1.561312E+0	1.611575E+0	1.484057E+0	1.554006E+0
5.355730E+2	1.313164E+0	1.346215E+0	1.318076E+0	1.327756E+0	1.348889E+0	1.345949E+0	1.323333E+0	1.396353E+0	1.317425E+0	1.373719E+0	1.342294E+0	1.313171E+0	1.329027E+0	1.303620E+0	1.328561E+0	1.345070E+0	1.382121E+0	1.324268E+0	1.360992E+0	1.348220E+0	1.360088E+0	1.294710E+0	1.342559E+0	1.313613E+0	1.327369E+0	1.324813E+0	1.348461E+0	1.394088E+0	1.340909E+0	1.331811E+0	1.305510E+0	1.305221E+0	1.352377E+0	1.314500E+0	1.343403E+0	1.412410E+0	1.314433E+0	1.333587E+0	1.297350E+0	1.361210E+0	1.317402E+0	1.339836E+0	1.273981E+0	1.346569E+0	1.319786E+0	1.312532E+0	1.325908E+0	1.362283E+0	1.351752E+0	1.274116E+0	1.342330E+0	1.280172E+0	1.289596E+0	1.388152E+0	1.322710E+0	1.323097E+0	1.294988E+0	1.313913E+0	1.355392E+0	1.399874E+0	1.292834E+0	1.341428E+0	1.372645E+0	1.382373E+0	1.303205E+0	1.336712E+0	1.337227E+0	1.297738E+0	1.320896E+0	1.355387E+0	1.340548E+0	1.330944E+0	1.294504E+0	1.357637E+0	1.383473E+0	1.366115E+0	1.287712E+0	1.278424E+0	1.380587E+0	1.385375E+0	1.390144E+0	1.329139E+0	1.351834E+0	1.368785E+0	1.322523E+0	1.301700E+0	1.294955E+0	1.341198E+0	1.363461E+0	1.289510E+0	1.317396E+0	1.316087E+0	1.360306E+0	1.324617E+0	1.333415E+0	1.294604E+0	1.398250E+0	1.282771E+0	1.356645E+0	1.297525E+0	1.371674E+0	1.315605E+0	1.378196E+0	1.326978E+0	1.365642E+0	1.336887E+0	1.289921E+0	1.351070E+0	1.368982E+0	1.333160E+0	1.355885E+0	1.367449E+0	1.335340E+0	1.356049E+0	1.353845E+0	1.335495E+0	1.294911E+0	1.328082E+0	1.348419E+0	1.301687E+0	1.334875E+0	1.344021E+0	1.354727E+0	1.255574E+0	1.354684E+0	1.394999E+0	1.355078E+0	1.336431E+0	1.337682E+0	1.330137E+0	1.312521E+0	1.355021E+0	1.370447E+0	1.321399E+0	1.331365E+0	1.334367E+0	1.323179E+0	1.301430E+0	1.393321E+0	1.335362E+0	1.310588E+0	1.300601E+0	1.258198E+0	1.291064E+0	1.298276E+0	1.312751E+0	1.270571E+0	1.345459E+0	1.297030E+0	1.318636E+0	1.357916E+0	1.287894E+0	1.286632E+0	1.359741E+0	1.291062E+0	1.336570E+0	1.268375E+0	1.319876E+0	1.367929E+0	1.275138E+0	1.363076E+0	1.279197E+0	1.303730E+0	1.328984E+0	1.332199E+0	1.321971E+0	1.376180E+0	1.356164E+0	1.310089E+0	1.344748E+0	1.317743E+0	1.251477E+0
5.357090E+2	1.127996E+0	1.173351E+0	1.138167E+0	1.132473E+0	1.132526E+0	1.165416E+0	1.087805E+0	1.100289E+0	1.149337E+0	1.125432E+0	1.163108E+0	1.110122E+0	1.136760E+0	1.174333E+0	1.127095E+0	1.130596E+0	1.159350E+0	1.178325E+0	1.137374E+0	1.139148E+0	1.138008E+0	1.114990E+0	1.169685E+0	1.151159E+0	1.117127E+0	1.118094E+0	1.193081E+0	1.108903E+0	1.115151E+0	1.095561E+0	1.158613E+0	1.164450E+0	1.147100E+0	1.085615E+0	1.147008E+0	1.123346E+0	1.144192E+0	1.133383E+0	1.117696E+0	1.135277E+0	1.180811E+0	1.060805E+0	1.163370E+0	1.118509E+0	1.142196E+0	1.141955E+0	1.158394E+0	1.159469E+0	1.191805E+0	1.117262E+0	1.140170E+0	1.094280E+0	1.134556E+0	1.157028E+0	1.117679E+0	1.148096E+0	1.125424E+0	1.140447E+0	1.165962E+0	1.193119E+0	1.126293E+0	1.107430E+0	1.112587E+0	1.148916E+0	1.175189E+0	1.125945E+0	1.148903E+0	1.124784E+0	1.122583E+0	1.107442E+0	1.175375E+0	1.124865E+0	1.162097E+0	1.160011E+0	1.181028E+0	1.167571E+0	1.176159E+0	1.085284E+0	1.147774E+0	1.131531E+0	1.147105E+0	1.140225E+0	1.154761E+0	1.139529E+0	1.069846E+0	1.170279E+0	1.147969E+0	1.128634E+0	1.180970E+0	1.114047E+0	1.155126E+0	1.189387E+0	1.149039E+0	1.109208E+0	1.136738E+0	1.145502E+0	1.137618E+0	1.099464E+0	1.122698E+0	1.187106E+0	1.094577E+0	1.132919E+0	1.151721E+0	1.176415E+0	1.143430E+0	1.139853E+0	1.180671E+0	1.103547E+0	1.133970E+0	1.141927E+0	1.096549E+0	1.178293E+0	1.117026E+0	1.088420E+0	1.095704E+0	1.140244E+0	1.172757E+0	1.116424E+0	1.102792E+0	1.173605E+0	1.171850E+0	1.115412E+0	1.102139E+0	1.059149E+0	1.175008E+0	1.133411E+0	1.146301E+0	1.105770E+0	1.143054E+0	1.172256E+0	1.093416E+0	1.142390E+0	1.155226E+0	1.124048E+0	1.156471E+0	1.149253E+0	1.150492E+0	1.146888E+0	1.166198E+0	1.193856E+0	1.089756E+0	1.136111E+0	1.139148E+0	1.147712E+0	1.088448E+0	1.133306E+0	1.134034E+0	1.091704E+0	1.091088E+0	1.122630E+0	1.117526E+0	1.163370E+0	1.098363E+0	1.143908E+0	1.179618E+0	1.148344E+0	1.101774E+0	1.157528E+0	1.176777E+0	1.125614E+0	1.159515E+0	1.126933E+0	1.169137E+0	1.158613E+0	1.084876E+0	1.166989E+0	1.139600E+0	1.138144E+0	1.145259E+0	1.082130E+0	1.063511E+0	1.045996E+0
5.358710E+2	1.018954E+0	1.024407E+0	9.904020E-1	1.028426E+0	1.000722E+0	9.546718E-1	9.699159E-1	9.879487E-1	9.731852E-1	1.009510E+0	9.936092E-1	9.590512E-1	9.799625E-1	9.928022E-1	1.008575E+0	1.013126E+0	1.030975E+0	1.036108E+0	9.479325E-1	1.002036E+0	1.022814E+0	9.945381E-1	1.052164E+0	1.018333E+0	9.940795E-1	1.013403E+0	1.012007E+0	1.021788E+0	1.025714E+0	1.030921E+0	1.030034E+0	9.736321E-1	1.060812E+0	9.813006E-1	1.041921E+0	9.800924E-1	9.901258E-1	1.014582E+0	9.928871E-1	1.030652E+0	1.017277E+0	1.010458E+0	1.030592E+0	1.040039E+0	9.835890E-1	9.872187E-1	1.022774E+0	9.580938E-1	1.016533E+0	9.761033E-1	1.055820E+0	1.027785E+0	1.013111E+0	1.005201E+0	9.576655E-1	1.026999E+0	1.031918E+0	1.037007E+0	1.018280E+0	1.026115E+0	9.579529E-1	1.002844E+0	9.934958E-1	9.827705E-1	9.763953E-1	1.022075E+0	1.016982E+0	9.857824E-1	1.000133E+0	9.850062E-1	1.026122E+0	9.893753E-1	9.765356E-1	9.914237E-1	1.047081E+0	9.667898E-1	1.028324E+0	9.868781E-1	9.838410E-1	9.865539E-1	9.910554E-1	9.857622E-1	9.870591E-1	1.025883E+0	9.801788E-1	1.014781E+0	1.010966E+0	9.708528E-1	1.015084E+0	9.645264E-1	9.659236E-1	9.901608E-1	9.922799E-1	9.490092E-1	1.031348E+0	9.931028E-1	1.009323E+0	9.721844E-1	9.367440E-1	1.018688E+0	1.031880E+0	1.007347E+0	1.018171E+0	9.959277E-1	9.886317E-1	1.009623E+0	9.679656E-1	1.062566E+0	1.034662E+0	9.633970E-1	9.957959E-1	9.977376E-1	9.873662E-1	1.016579E+0	1.028007E+0	1.021642E+0	1.012906E+0	1.014846E+0	1.006558E+0	1.041743E+0	1.063007E+0	9.784373E-1	1.009269E+0	1.023697E+0	1.022899E+0	1.012560E+0	9.976816E-1	9.936154E-1	9.784775E-1	1.032410E+0	1.068163E+0	1.032314E+0	9.686328E-1	1.045856E+0	9.723706E-1	9.917276E-1	9.903977E-1	1.024489E+0	9.964156E-1	9.910940E-1	9.727844E-1	1.048773E+0	1.038701E+0	1.041996E+0	9.834152E-1	1.066469E+0	1.001128E+0	9.974478E-1	1.043963E+0	1.021526E+0	1.011128E+0	1.019089E+0	9.902053E-1	1.000486E+0	1.018524E+0	1.009204E+0	1.031131E+0	9.807673E-1	1.050640E+0	9.960053E-1	1.024007E+0	9.772656E-1	9.786438E-1	1.018211E+0	1.028656E+0	9.974205E-1	1.017434E+0	1.023934E+0	9.896295E-1	9.571153E-1	8.721864E-1	8.888721E-1
5.360170E+2	8.236209E-1	8.192474E-1	8.495497E-1	8.396610E-1	7.973454E-1	8.492149E-1	8.635025E-1	8.460461E-1	8.624193E-1	8.154320E-1	8.253169E-1	8.444973E-1	8.326889E-1	7.984045E-1	8.634089E-1	8.239833E-1	8.232003E-1	8.550111E-1	8.362535E-1	8.343979E-1	8.150701E-1	8.187884E-1	7.983622E-1	8.101539E-1	8.583920E-1	8.217920E-1	8.691224E-1	8.225943E-1	8.433547E-1	8.226182E-1	8.307383E-1	8.512284E-1	8.795150E-1	8.513132E-1	8.031199E-1	8.240556E-1	8.468518E-1	8.816823E-1	7.874905E-1	8.339238E-1	8.836095E-1	8.284532E-1	8.425136E-1	7.733585E-1	8.300316E-1	8.057894E-1	8.430252E-1	8.486601E-1	8.862496E-1	8.257481E-1	7.940485E-1	8.555773E-1	8.133371E-1	8.549975E-1	8.708425E-1	8.574138E-1	8.758498E-1	8.563310E-1	8.840690E-1	8.599004E-1	8.535798E-1	8.436510E-1	8.515277E-1	8.408325E-1	8.481465E-1	8.223018E-1	7.938431E-1	8.370074E-1	8.379067E-1	8.248770E-1	8.030104E-1	8.402008E-1	8.115939E-1	8.101321E-1	8.792567E-1	8.590240E-1	8.298179E-1	8.041597E-1	8.660792E-1	8.583878E-1	8.689589E-1	8.361691E-1	8.921153E-1	8.062526E-1	7.813455E-1	8.239680E-1	8.439466E-1	8.628507E-1	8.264827E-1	8.216800E-1	7.756623E-1	8.372282E-1	8.334867E-1	8.041675E-1	8.394476E-1	8.159665E-1	8.757260E-1	8.432831E-1	8.536211E-1	8.289600E-1	8.493191E-1	8.421274E-1	8.262320E-1	8.610989E-1	8.477002E-1	8.323257E-1	8.020874E-1	8.222185E-1	8.249062E-1	7.977002E-1	8.165206E-1	8.515135E-1	8.330121E-1	8.085940E-1	8.411148E-1	8.522035E-1	8.175325E-1	8.141911E-1	8.698975E-1	7.851584E-1	8.145455E-1	8.748457E-1	8.251561E-1	8.100986E-1	8.173185E-1	8.293796E-1	8.584693E-1	8.626642E-1	8.290544E-1	8.572863E-1	8.421504E-1	8.447732E-1	8.307384E-1	8.449607E-1	8.372465E-1	8.360235E-1	8.285976E-1	8.295846E-1	8.234974E-1	8.443594E-1	8.198018E-1	8.399104E-1	8.434581E-1	8.746617E-1	8.183136E-1	8.441060E-1	8.306267E-1	9.002674E-1	8.534257E-1	7.828134E-1	8.443626E-1	8.156234E-1	8.344911E-1	7.805098E-1	8.040518E-1	8.157757E-1	8.262547E-1	8.117147E-1	8.380148E-1	8.387428E-1	8.502048E-1	7.963303E-1	7.965052E-1	8.301347E-1	8.413729E-1	8.429620E-1	8.830319E-1	8.392238E-1	8.379189E-1	8.761734E-1	8.300536E-1	8.109052E-1
5.362630E+2	6.376933E-1	7.087439E-1	6.615835E-1	6.815775E-1	6.252000E-1	6.368041E-1	6.980605E-1	6.348216E-1	6.454951E-1	6.368261E-1	6.584986E-1	6.595735E-1	6.606910E-1	6.385931E-1	6.520619E-1	6.313484E-1	6.421376E-1	6.590029E-1	6.658169E-1	6.131179E-1	6.509745E-1	6.487877E-1	6.364220E-1	6.684784E-1	6.304153E-1	6.373235E-1	6.614473E-1	6.555726E-1	6.514448E-1	6.593772E-1	6.295252E-1	6.494540E-1	6.765800E-1	6.411389E-1	7.004684E-1	6.341546E-1	6.489301E-1	6.650370E-1	6.120794E-1	6.623168E-1	6.499215E-1	6.626709E-1	6.357386E-1	6.058649E-1	6.417203E-1	6.320011E-1	6.576525E-1	6.396227E-1	6.914065E-1	6.107848E-1	6.693765E-1	6.530771E-1	6.781439E-1	6.759652E-1	6.799585E-1	6.367355E-1	6.404943E-1	6.582902E-1	6.751623E-1	7.043129E-1	6.253005E-1	6.513098E-1	6.555240E-1	6.737501E-1	6.635692E-1	6.406641E-1	6.574181E-1	6.416468E-1	6.527899E-1	6.604623E-1	6.326289E-1	6.520664E-1	6.417693E-1	6.075494E-1	6.473229E-1	6.582756E-1	6.381097E-1	6.539140E-1	6.596233E-1	6.704608E-1	6.709708E-1	6.441455E-1	6.651895E-1	6.559643E-1	6.488017E-1	6.111258E-1	6.581847E-1	6.541315E-1	6.979031E-1	6.587342E-1	6.056671E-1	6.406202E-1	6.695727E-1	6.452288E-1	6.843295E-1	6.876761E-1	6.776282E-1	6.298321E-1	6.664322E-1	6.536728E-1	6.536150E-1	6.612449E-1	6.238098E-1	6.279292E-1	6.518650E-1	6.607121E-1	6.287536E-1	6.395511E-1	6.739606E-1	6.217636E-1	6.697714E-1	6.749751E-1	6.381591E-1	6.765296E-1	6.317813E-1	6.302968E-1	6.414151E-1	6.447034E-1	6.829086E-1	6.513539E-1	6.387423E-1	6.619986E-1	6.316492E-1	6.430100E-1	6.296746E-1	6.319716E-1	6.640303E-1	5.968161E-1	6.650387E-1	6.765261E-1	6.632460E-1	7.060037E-1	6.701614E-1	6.467805E-1	6.475961E-1	6.740858E-1	6.649637E-1	6.507007E-1	6.582470E-1	6.572750E-1	6.756167E-1	6.481093E-1	6.316142E-1	6.703405E-1	6.271009E-1	6.424055E-1	6.457999E-1	6.535688E-1	6.593535E-1	6.770211E-1	6.682543E-1	6.393985E-1	6.599262E-1	6.911036E-1	6.813610E-1	6.594597E-1	6.521799E-1	6.527065E-1	6.541248E-1	6.471654E-1	6.948704E-1	6.487956E-1	6.838468E-1	6.638520E-1	6.606795E-1	6.569302E-1	6.381778E-1	6.518506E-1	6.633973E-1	6.412431E-1	6.300645E-1	5.282276E-1
5.365140E+2	5.160599E-1	5.230702E-1	5.031167E-1	5.396261E-1	5.391225E-1	5.368656E-1	5.015068E-1	5.445943E-1	5.104575E-1	5.380903E-1	5.343805E-1	5.499383E-1	5.202558E-1	5.288190E-1	5.184014E-1	5.256733E-1	5.626555E-1	5.285474E-1	5.448951E-1	5.382334E-1	4.977671E-1	5.213634E-1	5.123760E-1	5.083433E-1	5.103605E-1	5.130531E-1	5.003116E-1	5.317416E-1	5.253471E-1	5.294505E-1	5.374224E-1	5.295218E-1	5.583713E-1	5.315917E-1	5.711126E-1	5.218978E-1	5.361714E-1	5.352336E-1	5.512995E-1	5.533679E-1	5.199485E-1	5.402726E-1	5.121261E-1	5.349857E-1	5.432301E-1	5.545669E-1	5.226578E-1	5.235721E-1	5.332935E-1	4.936893E-1	5.379839E-1	5.509075E-1	5.348730E-1	5.430752E-1	5.294291E-1	5.663471E-1	5.291956E-1	5.496761E-1	5.630441E-1	5.517759E-1	5.224863E-1	5.409411E-1	5.242976E-1	5.458531E-1	5.314825E-1	5.219824E-1	5.373770E-1	5.598312E-1	5.336214E-1	5.488482E-1	5.292294E-1	5.172150E-1	5.427659E-1	5.313361E-1	5.684324E-1	5.587406E-1	5.473438E-1	5.180075E-1	5.344956E-1	5.511681E-1	5.435248E-1	5.087420E-1	5.271853E-1	5.397445E-1	5.083620E-1	5.495630E-1	5.359016E-1	5.478322E-1	5.445237E-1	5.117733E-1	5.287035E-1	5.521291E-1	5.315012E-1	5.189920E-1	5.776131E-1	5.287354E-1	5.366701E-1	5.219091E-1	5.274935E-1	5.183421E-1	5.387051E-1	5.008644E-1	5.131171E-1	5.721828E-1	5.569398E-1	5.431154E-1	5.438532E-1	5.576068E-1	5.552519E-1	5.838660E-1	5.578798E-1	5.587461E-1	5.267434E-1	5.261005E-1	5.487380E-1	5.279767E-1	5.485655E-1	5.443429E-1	5.442939E-1	5.090953E-1	5.762664E-1	5.562884E-1	5.558920E-1	5.430960E-1	5.565134E-1	5.289436E-1	5.573045E-1	5.655337E-1	5.619335E-1	5.286448E-1	5.109490E-1	5.718376E-1	5.414634E-1	5.467975E-1	5.596420E-1	5.518495E-1	5.550709E-1	5.148169E-1	5.703562E-1	5.286990E-1	5.505423E-1	5.443070E-1	5.285161E-1	5.239961E-1	5.254203E-1	5.619684E-1	5.482368E-1	5.324330E-1	5.594287E-1	5.435568E-1	5.450957E-1	5.478846E-1	5.533652E-1	5.291288E-1	5.033504E-1	5.609877E-1	5.243250E-1	5.504704E-1	5.549906E-1	5.414609E-1	5.619503E-1	5.592459E-1	5.366349E-1	5.510144E-1	5.215780E-1	5.569867E-1	5.720584E-1	5.297083E-1	5.517860E-1	5.864623E-1	5.067053E-1	5.917320E-1
5.367660E+2	4.660620E-1	5.194319E-1	4.774845E-1	4.736522E-1	4.701291E-1	4.865325E-1	4.658951E-1	4.592821E-1	4.670884E-1	4.375819E-1	4.500986E-1	4.553440E-1	4.850702E-1	4.364512E-1	4.918090E-1	4.990757E-1	4.627643E-1	4.514487E-1	4.861001E-1	4.774310E-1	4.481438E-1	4.507710E-1	4.603923E-1	4.847986E-1	4.759570E-1	4.713668E-1	4.732581E-1	4.909587E-1	4.489352E-1	4.763097E-1	5.013230E-1	4.688294E-1	4.564969E-1	4.693556E-1	4.643180E-1	4.579394E-1	4.685484E-1	5.129010E-1	4.981512E-1	4.595979E-1	4.865838E-1	4.723006E-1	4.775433E-1	4.901614E-1	4.743739E-1	4.592162E-1	4.905201E-1	4.377402E-1	4.752097E-1	4.779163E-1	4.483635E-1	5.063914E-1	4.864510E-1	5.105689E-1	4.828428E-1	4.608732E-1	4.651459E-1	4.893669E-1	4.577307E-1	4.726615E-1	4.599412E-1	4.692347E-1	4.397763E-1	4.687731E-1	4.816216E-1	4.739726E-1	4.484015E-1	4.562156E-1	4.507608E-1	4.948273E-1	4.568759E-1	4.523821E-1	4.855201E-1	4.872413E-1	5.020654E-1	4.630527E-1	4.610108E-1	4.666358E-1	4.742241E-1	4.780942E-1	4.673812E-1	4.708715E-1	4.956357E-1	5.076302E-1	4.681948E-1	4.690144E-1	4.549480E-1	4.833360E-1	4.835562E-1	4.804558E-1	4.765099E-1	4.614574E-1	4.823068E-1	4.662065E-1	4.799167E-1	4.803354E-1	4.588208E-1	4.574222E-1	4.705559E-1	4.669682E-1	4.943371E-1	4.469536E-1	4.883202E-1	4.624774E-1	4.628357E-1	4.540271E-1	4.673827E-1	4.732673E-1	4.843193E-1	4.599372E-1	4.683493E-1	4.717317E-1	4.737021E-1	4.635256E-1	5.045499E-1	4.815955E-1	4.834230E-1	4.688861E-1	4.943308E-1	4.799343E-1	4.867355E-1	4.756724E-1	4.984942E-1	4.500705E-1	4.981411E-1	4.804445E-1	5.110078E-1	4.427214E-1	4.917933E-1	5.028750E-1	4.982536E-1	4.964081E-1	4.648294E-1	5.014850E-1	4.683729E-1	4.777029E-1	4.758806E-1	4.840096E-1	4.357385E-1	4.699221E-1	4.641757E-1	5.159568E-1	5.003789E-1	4.701883E-1	4.807524E-1	5.039215E-1	4.826489E-1	5.018706E-1	4.550918E-1	4.740846E-1	4.717037E-1	4.761210E-1	4.840748E-1	4.414003E-1	4.847148E-1	4.383451E-1	4.769604E-1	4.818317E-1	4.898822E-1	5.098974E-1	4.417495E-1	4.573243E-1	4.955378E-1	4.549147E-1	4.731172E-1	4.972587E-1	4.784421E-1	4.841858E-1	4.652567E-1	4.812824E-1	5.144511E-1	4.129211E-1
5.370070E+2	4.191917E-1	4.385654E-1	4.533475E-1	5.010721E-1	4.390762E-1	4.748327E-1	4.635591E-1	4.304145E-1	4.455628E-1	4.619240E-1	4.349512E-1	4.698563E-1	4.838605E-1	4.583006E-1	4.961824E-1	4.396749E-1	4.722424E-1	4.569084E-1	4.440309E-1	4.777908E-1	4.510535E-1	4.581405E-1	4.615487E-1	4.403499E-1	4.932978E-1	4.576085E-1	4.542674E-1	4.651019E-1	4.538961E-1	4.755865E-1	4.671267E-1	4.622747E-1	4.639767E-1	4.681779E-1	4.544959E-1	4.630680E-1	4.531973E-1	4.796526E-1	4.659929E-1	4.862488E-1	4.891524E-1	4.897259E-1	4.791022E-1	4.715053E-1	4.720962E-1	4.517444E-1	4.400766E-1	4.854877E-1	4.629847E-1	4.475450E-1	4.515334E-1	4.744844E-1	5.038977E-1	4.522586E-1	4.631185E-1	4.665606E-1	4.648298E-1	4.543394E-1	4.701516E-1	4.764012E-1	4.845924E-1	4.657036E-1	4.503377E-1	4.638652E-1	4.464611E-1	4.814033E-1	4.817716E-1	4.545821E-1	4.686890E-1	4.775612E-1	4.419713E-1	4.690498E-1	4.659988E-1	4.574587E-1	4.987611E-1	4.647936E-1	4.448982E-1	4.329604E-1	4.710905E-1	4.804453E-1	4.673508E-1	4.365716E-1	4.618531E-1	4.673842E-1	4.455179E-1	4.772832E-1	4.573564E-1	4.423758E-1	4.752029E-1	4.477839E-1	5.026251E-1	4.417407E-1	4.666377E-1	4.606897E-1	4.362222E-1	4.498365E-1	4.563682E-1	4.772880E-1	5.057643E-1	4.727132E-1	4.573100E-1	4.722933E-1	4.547415E-1	4.574964E-1	4.961752E-1	4.514370E-1	4.580713E-1	4.876131E-1	4.666829E-1	4.613934E-1	4.520055E-1	4.896828E-1	4.526968E-1	4.313074E-1	4.463802E-1	4.688791E-1	4.923442E-1	4.604940E-1	4.780718E-1	4.457717E-1	4.786383E-1	4.610780E-1	4.527210E-1	4.725406E-1	4.388852E-1	4.626318E-1	4.560412E-1	4.713174E-1	4.802795E-1	4.934546E-1	4.632958E-1	4.589650E-1	4.535040E-1	4.502548E-1	4.377705E-1	4.782134E-1	4.517360E-1	4.911354E-1	4.883151E-1	4.852595E-1	4.718995E-1	4.962342E-1	5.005274E-1	4.694155E-1	4.544590E-1	4.721450E-1	4.432297E-1	4.649196E-1	4.758424E-1	4.582525E-1	4.468966E-1	4.647812E-1	4.541567E-1	5.064329E-1	4.708951E-1	4.572970E-1	4.722866E-1	4.723719E-1	4.731899E-1	4.655689E-1	5.112996E-1	4.572585E-1	4.493278E-1	4.712196E-1	4.634099E-1	4.747719E-1	5.013206E-1	4.794102E-1	4.710066E-1	4.997640E-1	4.422130E-1	4.398676E-1
5.372690E+2	4.985783E-1	4.920686E-1	4.752273E-1	4.668740E-1	4.682526E-1	4.950259E-1	5.116937E-1	4.744606E-1	4.608239E-1	4.898531E-1	4.812278E-1	4.686562E-1	5.010108E-1	5.033514E-1	4.592540E-1	5.131140E-1	4.924415E-1	4.564152E-1	4.726660E-1	4.894542E-1	4.972038E-1	4.520206E-1	5.069832E-1	4.983936E-1	4.730059E-1	4.488933E-1	4.548823E-1	4.722735E-1	5.074562E-1	4.798327E-1	4.992849E-1	5.207022E-1	4.604240E-1	4.814523E-1	5.241744E-1	4.921328E-1	4.948991E-1	4.745566E-1	4.921431E-1	4.792643E-1	4.921387E-1	4.877333E-1	4.809143E-1	4.806726E-1	4.610739E-1	4.814658E-1	5.268086E-1	5.228817E-1	5.115881E-1	4.769641E-1	4.757509E-1	4.952288E-1	4.957939E-1	5.058257E-1	5.158885E-1	4.886015E-1	4.775353E-1	5.331321E-1	4.747898E-1	5.115895E-1	5.167050E-1	4.938580E-1	4.684746E-1	5.021466E-1	4.850463E-1	5.198079E-1	4.579265E-1	4.796537E-1	5.169702E-1	5.069358E-1	5.153475E-1	4.959451E-1	4.719591E-1	5.023023E-1	5.268311E-1	4.761387E-1	5.180614E-1	4.832450E-1	5.072715E-1	4.879059E-1	4.924761E-1	5.329264E-1	4.591130E-1	5.039206E-1	5.040687E-1	5.018337E-1	5.124098E-1	4.875670E-1	5.320841E-1	4.688045E-1	5.167360E-1	5.148284E-1	5.151540E-1	4.798079E-1	5.180676E-1	5.152089E-1	5.117247E-1	4.649688E-1	4.859185E-1	4.926644E-1	5.165841E-1	4.755796E-1	4.503406E-1	4.970455E-1	5.106192E-1	5.070216E-1	5.090620E-1	4.949252E-1	4.895626E-1	5.073891E-1	4.851960E-1	5.291780E-1	4.942382E-1	4.845203E-1	5.108646E-1	4.835129E-1	4.980403E-1	4.746402E-1	4.967182E-1	4.937473E-1	5.003464E-1	4.877027E-1	5.073891E-1	4.895485E-1	4.867529E-1	4.932746E-1	4.893917E-1	4.758630E-1	5.067241E-1	4.750492E-1	5.162112E-1	5.439567E-1	5.302798E-1	4.930126E-1	4.941747E-1	4.894292E-1	4.557712E-1	4.905187E-1	4.928205E-1	4.816599E-1	5.207557E-1	4.753840E-1	4.956239E-1	5.080178E-1	4.710980E-1	5.161183E-1	4.790340E-1	4.713702E-1	4.855445E-1	4.685802E-1	5.030505E-1	4.874346E-1	4.828874E-1	4.962077E-1	5.114934E-1	5.463598E-1	4.808564E-1	4.762091E-1	4.966994E-1	4.777273E-1	5.307945E-1	5.113256E-1	5.128880E-1	4.937124E-1	4.731384E-1	5.107285E-1	5.028442E-1	4.936930E-1	4.927868E-1	4.614265E-1	4.824675E-1	5.350594E-1
5.375110E+2	6.081434E-1	5.782666E-1	5.959439E-1	5.908466E-1	5.769424E-1	5.934666E-1	5.628926E-1	5.838051E-1	5.907726E-1	6.145105E-1	5.616439E-1	5.689637E-1	5.401693E-1	5.581326E-1	5.893154E-1	5.941338E-1	5.889536E-1	5.666470E-1	5.658406E-1	5.778205E-1	5.960227E-1	5.635495E-1	5.777110E-1	5.601566E-1	5.789336E-1	5.785158E-1	6.103185E-1	5.674249E-1	5.662552E-1	5.719148E-1	5.547856E-1	5.971873E-1	5.928643E-1	5.595018E-1	6.112377E-1	5.667207E-1	5.838253E-1	5.980265E-1	5.701758E-1	5.986452E-1	6.065074E-1	5.693975E-1	5.770072E-1	5.719541E-1	5.488673E-1	5.622710E-1	5.847209E-1	5.952359E-1	6.053409E-1	6.011087E-1	5.745044E-1	6.079478E-1	5.998371E-1	5.959084E-1	5.903519E-1	5.622441E-1	5.723942E-1	5.837413E-1	5.866568E-1	5.902298E-1	6.087247E-1	5.528736E-1	5.881898E-1	5.890254E-1	5.437885E-1	5.924500E-1	5.622666E-1	5.914760E-1	5.968260E-1	5.925853E-1	5.934462E-1	5.688055E-1	5.754140E-1	5.905721E-1	6.213257E-1	6.025874E-1	5.956018E-1	5.870761E-1	5.535874E-1	5.870355E-1	5.932926E-1	6.203592E-1	5.751585E-1	5.417722E-1	5.587242E-1	5.727263E-1	5.908501E-1	5.583295E-1	5.989070E-1	5.874286E-1	5.671381E-1	6.013365E-1	5.821846E-1	5.870790E-1	5.522498E-1	5.922858E-1	5.992991E-1	5.859112E-1	6.197974E-1	5.760339E-1	5.833432E-1	5.964585E-1	5.614511E-1	5.938957E-1	5.853292E-1	5.780832E-1	5.759341E-1	5.667519E-1	6.185704E-1	5.930650E-1	5.747377E-1	5.957374E-1	5.455812E-1	6.162988E-1	5.609189E-1	5.749503E-1	6.314805E-1	5.883328E-1	5.706491E-1	6.022161E-1	6.013565E-1	5.472731E-1	5.915846E-1	5.657989E-1	5.775270E-1	5.694083E-1	5.933138E-1	5.928792E-1	5.821783E-1	5.547632E-1	5.706973E-1	6.423872E-1	6.223246E-1	5.743938E-1	5.863553E-1	5.716703E-1	5.941635E-1	5.521242E-1	5.702100E-1	5.836790E-1	5.383011E-1	5.750638E-1	5.810453E-1	5.652485E-1	5.606541E-1	6.022960E-1	6.378001E-1	5.709713E-1	5.603231E-1	5.562466E-1	5.775348E-1	5.956162E-1	5.679673E-1	6.182395E-1	5.851489E-1	5.968845E-1	6.027693E-1	5.807464E-1	5.796593E-1	5.927274E-1	6.086018E-1	5.680840E-1	5.690337E-1	6.089704E-1	5.426296E-1	6.086246E-1	6.318783E-1	5.860969E-1	5.647701E-1	5.766779E-1	6.164884E-1	5.553325E-1
5.377690E+2	6.812015E-1	6.904692E-1	6.726678E-1	6.960315E-1	6.737256E-1	7.179278E-1	6.768974E-1	6.816113E-1	6.984409E-1	6.907462E-1	6.633804E-1	6.959361E-1	6.727058E-1	6.825117E-1	7.006106E-1	6.664056E-1	6.633632E-1	7.082757E-1	7.071250E-1	6.939462E-1	7.039791E-1	6.925376E-1	6.784356E-1	6.962117E-1	7.087311E-1	6.930539E-1	7.227331E-1	6.860142E-1	6.900675E-1	7.180062E-1	7.139837E-1	7.342333E-1	7.075990E-1	7.240347E-1	6.970620E-1	6.751566E-1	6.968973E-1	7.222637E-1	6.871302E-1	7.286112E-1	7.098207E-1	6.714235E-1	7.076118E-1	6.725177E-1	6.887224E-1	6.796808E-1	6.747254E-1	6.762312E-1	6.963611E-1	7.034202E-1	6.639560E-1	6.603747E-1	6.954652E-1	6.973455E-1	6.934333E-1	6.892489E-1	7.132358E-1	7.035218E-1	6.640519E-1	6.752681E-1	7.009381E-1	6.999829E-1	6.508321E-1	7.230033E-1	6.745598E-1	6.847111E-1	6.859733E-1	7.007714E-1	6.999266E-1	6.989030E-1	6.835590E-1	6.710953E-1	7.113545E-1	7.081074E-1	7.271866E-1	7.135647E-1	6.934028E-1	6.833064E-1	7.170722E-1	6.854611E-1	6.687482E-1	6.778971E-1	6.652837E-1	6.948295E-1	6.825328E-1	6.741894E-1	6.768114E-1	6.927315E-1	7.366353E-1	6.968482E-1	6.572390E-1	7.019374E-1	6.831769E-1	6.927820E-1	6.920663E-1	6.975914E-1	7.049568E-1	6.687600E-1	6.781291E-1	6.660892E-1	7.210548E-1	6.938238E-1	6.686022E-1	6.709404E-1	7.247872E-1	7.122006E-1	6.870838E-1	7.026327E-1	7.300201E-1	6.899194E-1	6.655255E-1	7.177174E-1	6.660617E-1	7.022110E-1	6.770932E-1	7.071664E-1	6.845621E-1	6.756280E-1	6.722528E-1	6.816788E-1	7.062040E-1	7.110855E-1	6.922264E-1	7.008130E-1	7.009332E-1	6.979392E-1	6.841099E-1	6.763523E-1	7.160833E-1	6.959593E-1	6.484228E-1	7.067910E-1	7.272801E-1	6.966297E-1	7.126278E-1	6.914053E-1	7.190557E-1	6.743590E-1	6.898330E-1	7.284176E-1	7.324171E-1	7.023963E-1	7.033784E-1	7.116134E-1	7.083885E-1	6.468872E-1	6.971431E-1	6.979930E-1	6.700445E-1	7.028360E-1	6.958573E-1	6.817210E-1	6.772409E-1	7.054368E-1	7.105389E-1	7.085565E-1	6.879487E-1	7.171601E-1	6.683515E-1	7.337246E-1	6.914680E-1	6.905220E-1	6.911765E-1	6.859828E-1	6.829826E-1	7.380769E-1	7.092748E-1	6.761951E-1	6.686111E-1	6.873368E-1	7.467412E-1	7.837522E-1
5.380110E+2	8.693974E-1	8.859266E-1	8.401490E-1	8.248864E-1	8.657427E-1	8.715960E-1	8.052140E-1	8.384659E-1	8.456431E-1	8.785686E-1	8.536120E-1	8.134419E-1	7.993616E-1	8.459081E-1	8.721017E-1	8.347634E-1	8.351090E-1	8.450049E-1	8.144277E-1	8.510722E-1	8.265296E-1	8.759091E-1	8.451620E-1	7.910162E-1	8.157730E-1	8.603018E-1	8.716053E-1	8.402681E-1	8.580869E-1	8.074026E-1	8.387463E-1	8.656252E-1	8.633662E-1	8.438488E-1	8.557241E-1	8.396196E-1	8.651949E-1	8.875797E-1	8.427082E-1	8.422872E-1	9.049028E-1	8.033080E-1	8.442295E-1	8.288561E-1	8.307928E-1	8.453063E-1	8.337924E-1	8.361860E-1	8.481828E-1	7.998651E-1	8.276588E-1	8.730416E-1	8.399966E-1	8.580837E-1	8.337787E-1	8.841569E-1	8.632228E-1	8.734163E-1	8.113760E-1	8.633540E-1	8.286629E-1	8.640021E-1	8.387860E-1	8.824622E-1	8.393798E-1	8.648923E-1	8.565792E-1	8.582719E-1	8.580232E-1	8.402765E-1	8.268862E-1	8.366948E-1	8.498990E-1	8.604050E-1	8.932846E-1	8.919145E-1	8.408713E-1	8.025171E-1	8.480457E-1	8.303995E-1	8.457563E-1	8.535352E-1	8.147845E-1	8.616702E-1	8.768048E-1	8.495768E-1	8.874949E-1	8.734973E-1	9.134667E-1	7.930184E-1	8.199848E-1	8.366310E-1	8.528687E-1	8.123047E-1	7.845905E-1	8.787860E-1	8.426184E-1	8.251981E-1	8.458280E-1	8.396078E-1	8.757579E-1	8.615387E-1	8.314425E-1	8.123041E-1	8.717576E-1	8.339223E-1	8.543747E-1	8.493301E-1	8.563211E-1	8.231589E-1	8.518779E-1	8.872103E-1	7.808793E-1	8.304259E-1	8.486645E-1	8.637497E-1	8.488515E-1	8.191150E-1	8.612386E-1	8.376979E-1	8.964624E-1	8.313797E-1	8.447941E-1	8.392858E-1	8.476994E-1	8.395567E-1	8.214718E-1	8.413754E-1	8.326253E-1	8.110375E-1	8.626749E-1	8.533181E-1	8.460998E-1	8.361363E-1	8.358351E-1	8.809623E-1	8.659661E-1	8.330762E-1	8.191729E-1	8.518208E-1	8.517524E-1	8.859567E-1	8.684670E-1	8.459738E-1	8.584836E-1	8.307640E-1	8.403787E-1	8.367269E-1	8.921871E-1	8.686495E-1	8.814058E-1	8.654179E-1	8.383921E-1	8.486187E-1	8.761308E-1	8.460967E-1	7.983504E-1	8.505098E-1	8.273023E-1	8.476872E-1	9.055673E-1	8.605996E-1	8.180601E-1	8.764624E-1	8.410726E-1	8.489146E-1	8.669705E-1	8.512984E-1	7.900395E-1	8.146195E-1	8.585990E-1	8.260127E-1
5.382690E+2	1.046779E+0	9.925112E-1	1.047773E+0	1.052690E+0	1.074780E+0	1.073054E+0	1.016057E+0	1.023730E+0	1.042855E+0	1.060511E+0	1.004700E+0	1.039471E+0	1.034671E+0	1.048858E+0	9.774572E-1	1.054926E+0	1.040053E+0	1.049508E+0	1.020262E+0	1.074016E+0	1.033470E+0	1.030894E+0	1.038163E+0	1.044980E+0	1.010423E+0	1.057545E+0	1.047661E+0	1.083638E+0	1.063295E+0	1.027568E+0	9.895821E-1	1.061982E+0	1.037184E+0	1.039207E+0	1.045636E+0	1.054164E+0	1.004869E+0	1.061715E+0	1.027868E+0	1.036957E+0	1.043634E+0	1.025802E+0	1.015665E+0	1.040462E+0	1.058886E+0	1.022411E+0	1.034365E+0	1.038929E+0	1.041854E+0	1.038010E+0	1.040209E+0	1.035873E+0	9.830762E-1	1.050670E+0	1.043472E+0	1.038401E+0	1.100936E+0	1.036668E+0	1.022581E+0	1.085161E+0	1.010536E+0	9.726950E-1	9.884695E-1	1.052389E+0	1.030299E+0	1.055816E+0	1.006986E+0	9.963786E-1	1.042979E+0	1.007240E+0	1.033802E+0	1.038328E+0	9.991274E-1	1.055709E+0	1.002912E+0	1.060638E+0	1.041950E+0	9.813770E-1	9.744169E-1	1.012430E+0	9.786032E-1	1.058945E+0	1.025593E+0	1.049237E+0	1.062895E+0	9.780678E-1	1.008173E+0	1.079878E+0	1.067303E+0	1.033955E+0	1.039951E+0	1.051478E+0	1.037177E+0	1.018219E+0	1.024235E+0	1.075722E+0	1.061667E+0	1.031581E+0	1.021348E+0	1.083793E+0	1.056772E+0	1.052498E+0	1.030038E+0	1.030015E+0	1.026480E+0	9.818705E-1	1.022718E+0	1.058203E+0	1.041551E+0	1.024642E+0	9.966851E-1	1.000937E+0	1.035243E+0	9.918389E-1	1.026332E+0	1.079107E+0	1.015349E+0	1.031061E+0	1.007946E+0	9.858122E-1	1.045001E+0	1.018732E+0	1.024837E+0	1.022699E+0	9.933528E-1	1.052195E+0	9.938350E-1	1.043671E+0	1.034425E+0	1.037599E+0	1.013127E+0	1.106819E+0	9.925819E-1	1.035950E+0	1.022254E+0	1.055162E+0	1.075985E+0	1.038821E+0	1.043326E+0	1.070659E+0	1.006249E+0	1.066448E+0	9.946381E-1	1.042750E+0	1.009142E+0	9.577751E-1	1.044648E+0	1.053596E+0	1.058966E+0	1.018916E+0	1.120855E+0	1.052931E+0	1.038382E+0	1.006711E+0	1.035263E+0	1.003930E+0	9.873330E-1	1.032685E+0	1.010560E+0	1.003636E+0	1.038478E+0	1.034165E+0	9.697059E-1	1.060624E+0	1.028577E+0	1.052633E+0	1.051229E+0	1.133906E+0	1.026447E+0	1.013227E+0	1.074537E+0	1.037867E+0
5.385110E+2	1.279698E+0	1.267214E+0	1.261639E+0	1.303925E+0	1.290063E+0	1.341722E+0	1.308624E+0	1.270165E+0	1.314245E+0	1.298596E+0	1.313710E+0	1.297180E+0	1.280254E+0	1.291022E+0	1.266264E+0	1.296776E+0	1.309334E+0	1.294126E+0	1.255021E+0	1.234313E+0	1.319387E+0	1.298699E+0	1.262578E+0	1.281185E+0	1.317484E+0	1.286247E+0	1.327795E+0	1.273429E+0	1.259435E+0	1.310803E+0	1.275386E+0	1.302293E+0	1.305814E+0	1.279528E+0	1.296626E+0	1.254456E+0	1.288310E+0	1.338290E+0	1.247589E+0	1.309575E+0	1.289704E+0	1.254058E+0	1.279748E+0	1.256766E+0	1.285813E+0	1.275271E+0	1.273966E+0	1.308156E+0	1.299569E+0	1.318591E+0	1.257147E+0	1.321340E+0	1.286526E+0	1.292045E+0	1.267080E+0	1.313435E+0	1.297344E+0	1.271969E+0	1.235009E+0	1.339014E+0	1.332784E+0	1.288877E+0	1.249858E+0	1.226486E+0	1.287834E+0	1.268176E+0	1.324440E+0	1.276666E+0	1.220334E+0	1.366322E+0	1.277695E+0	1.240881E+0	1.303506E+0	1.307830E+0	1.326092E+0	1.299549E+0	1.308030E+0	1.284398E+0	1.233933E+0	1.275366E+0	1.285536E+0	1.275436E+0	1.280840E+0	1.242684E+0	1.314839E+0	1.289960E+0	1.317321E+0	1.228964E+0	1.280412E+0	1.287255E+0	1.249631E+0	1.249809E+0	1.273728E+0	1.288442E+0	1.297177E+0	1.279141E+0	1.315562E+0	1.308493E+0	1.313374E+0	1.340692E+0	1.308793E+0	1.278963E+0	1.267624E+0	1.314971E+0	1.264567E+0	1.277046E+0	1.283772E+0	1.263404E+0	1.263726E+0	1.282402E+0	1.268617E+0	1.303736E+0	1.259571E+0	1.258435E+0	1.300351E+0	1.240577E+0	1.295650E+0	1.265096E+0	1.312814E+0	1.269464E+0	1.336002E+0	1.310227E+0	1.335095E+0	1.315410E+0	1.331277E+0	1.297438E+0	1.238895E+0	1.252857E+0	1.254499E+0	1.270827E+0	1.262707E+0	1.348197E+0	1.298504E+0	1.264324E+0	1.278201E+0	1.283133E+0	1.289232E+0	1.312580E+0	1.269719E+0	1.261789E+0	1.281577E+0	1.294495E+0	1.269084E+0	1.265070E+0	1.269713E+0	1.247544E+0	1.291880E+0	1.249231E+0	1.299501E+0	1.284318E+0	1.277631E+0	1.283395E+0	1.266622E+0	1.311476E+0	1.271162E+0	1.284957E+0	1.278461E+0	1.245008E+0	1.260653E+0	1.284055E+0	1.278605E+0	1.256139E+0	1.284262E+0	1.294092E+0	1.290297E+0	1.280328E+0	1.338928E+0	1.290903E+0	1.258605E+0	1.224736E+0	1.225687E+0	1.263213E+0
5.387750E+2	1.545428E+0	1.553126E+0	1.520719E+0	1.599638E+0	1.528541E+0	1.536335E+0	1.535416E+0	1.510371E+0	1.553945E+0	1.478371E+0	1.516591E+0	1.557172E+0	1.551349E+0	1.532429E+0	1.498032E+0	1.554696E+0	1.531669E+0	1.567829E+0	1.560428E+0	1.477720E+0	1.532473E+0	1.499390E+0	1.534973E+0	1.499684E+0	1.527887E+0	1.514967E+0	1.542717E+0	1.564197E+0	1.557243E+0	1.579606E+0	1.509827E+0	1.514454E+0	1.536963E+0	1.501548E+0	1.594356E+0	1.590104E+0	1.558662E+0	1.508329E+0	1.528338E+0	1.512555E+0	1.504250E+0	1.535499E+0	1.524647E+0	1.543615E+0	1.539807E+0	1.477460E+0	1.578025E+0	1.541103E+0	1.523525E+0	1.520118E+0	1.493808E+0	1.542846E+0	1.610905E+0	1.559336E+0	1.528102E+0	1.553664E+0	1.539487E+0	1.489243E+0	1.592684E+0	1.529541E+0	1.518952E+0	1.548799E+0	1.502660E+0	1.573699E+0	1.509756E+0	1.479755E+0	1.555678E+0	1.542965E+0	1.477592E+0	1.541217E+0	1.509359E+0	1.532997E+0	1.621628E+0	1.556678E+0	1.587465E+0	1.509337E+0	1.536676E+0	1.443260E+0	1.537857E+0	1.563868E+0	1.569915E+0	1.539718E+0	1.527012E+0	1.528471E+0	1.481695E+0	1.476996E+0	1.518123E+0	1.532811E+0	1.564600E+0	1.460632E+0	1.445718E+0	1.537816E+0	1.516303E+0	1.483143E+0	1.486091E+0	1.552232E+0	1.554722E+0	1.511454E+0	1.526102E+0	1.520048E+0	1.556944E+0	1.430741E+0	1.560761E+0	1.546863E+0	1.512413E+0	1.501301E+0	1.441590E+0	1.586085E+0	1.536214E+0	1.514431E+0	1.508920E+0	1.617211E+0	1.534891E+0	1.568128E+0	1.530008E+0	1.507798E+0	1.543607E+0	1.511777E+0	1.504561E+0	1.507810E+0	1.512959E+0	1.494571E+0	1.496749E+0	1.478128E+0	1.532557E+0	1.513321E+0	1.492730E+0	1.502647E+0	1.523647E+0	1.494541E+0	1.535336E+0	1.555525E+0	1.543985E+0	1.533839E+0	1.527155E+0	1.521671E+0	1.517861E+0	1.461060E+0	1.513940E+0	1.501144E+0	1.515489E+0	1.499545E+0	1.439898E+0	1.586832E+0	1.456538E+0	1.534052E+0	1.464669E+0	1.567317E+0	1.478027E+0	1.545798E+0	1.585307E+0	1.528611E+0	1.474218E+0	1.526866E+0	1.498087E+0	1.510875E+0	1.468586E+0	1.462676E+0	1.523205E+0	1.534109E+0	1.534299E+0	1.482467E+0	1.498709E+0	1.564715E+0	1.488203E+0	1.513886E+0	1.501981E+0	1.560690E+0	1.480939E+0	1.470876E+0	1.466362E+0	1.527962E+0
5.390180E+2	1.729735E+0	1.781809E+0	1.765924E+0	1.722127E+0	1.711305E+0	1.749921E+0	1.748200E+0	1.732560E+0	1.705109E+0	1.693092E+0	1.692493E+0	1.697510E+0	1.740010E+0	1.746335E+0	1.745230E+0	1.766375E+0	1.787973E+0	1.692950E+0	1.746053E+0	1.680513E+0	1.757932E+0	1.689991E+0	1.680886E+0	1.678150E+0	1.721063E+0	1.774232E+0	1.737880E+0	1.702078E+0	1.734230E+0	1.739326E+0	1.735497E+0	1.713582E+0	1.747436E+0	1.690564E+0	1.740506E+0	1.725378E+0	1.747345E+0	1.745542E+0	1.718798E+0	1.713491E+0	1.701264E+0	1.698658E+0	1.711031E+0	1.701941E+0	1.715288E+0	1.732868E+0	1.766504E+0	1.738623E+0	1.701046E+0	1.700056E+0	1.710052E+0	1.682183E+0	1.671449E+0	1.796216E+0	1.681427E+0	1.744119E+0	1.748759E+0	1.778197E+0	1.736645E+0	1.761503E+0	1.714695E+0	1.726686E+0	1.662303E+0	1.755794E+0	1.690839E+0	1.752599E+0	1.697561E+0	1.695545E+0	1.729227E+0	1.716649E+0	1.692513E+0	1.695471E+0	1.728589E+0	1.742274E+0	1.687725E+0	1.744024E+0	1.760978E+0	1.696629E+0	1.715144E+0	1.758511E+0	1.726562E+0	1.728824E+0	1.668419E+0	1.708473E+0	1.666782E+0	1.724179E+0	1.715730E+0	1.724688E+0	1.764433E+0	1.638275E+0	1.679344E+0	1.768478E+0	1.738239E+0	1.614810E+0	1.679747E+0	1.703439E+0	1.800251E+0	1.665281E+0	1.672686E+0	1.735033E+0	1.752135E+0	1.775458E+0	1.717929E+0	1.713178E+0	1.695218E+0	1.701003E+0	1.717879E+0	1.709707E+0	1.745906E+0	1.710981E+0	1.670665E+0	1.739034E+0	1.734185E+0	1.639663E+0	1.699827E+0	1.731314E+0	1.679374E+0	1.701093E+0	1.757534E+0	1.766971E+0	1.699000E+0	1.664643E+0	1.687187E+0	1.670480E+0	1.724136E+0	1.729118E+0	1.708189E+0	1.682142E+0	1.704809E+0	1.641759E+0	1.648466E+0	1.733693E+0	1.751070E+0	1.664531E+0	1.674348E+0	1.682779E+0	1.658207E+0	1.633155E+0	1.651627E+0	1.722894E+0	1.719217E+0	1.661855E+0	1.714137E+0	1.696761E+0	1.695820E+0	1.721941E+0	1.673717E+0	1.760866E+0	1.647706E+0	1.727025E+0	1.689733E+0	1.784801E+0	1.685131E+0	1.688452E+0	1.696140E+0	1.730981E+0	1.671859E+0	1.640483E+0	1.732960E+0	1.748364E+0	1.710275E+0	1.649195E+0	1.690079E+0	1.663544E+0	1.636910E+0	1.676346E+0	1.674249E+0	1.746871E+0	1.677113E+0	1.667150E+0	1.575708E+0	1.665948E+0
5.392880E+2	1.912729E+0	1.915705E+0	1.928228E+0	1.818951E+0	1.908589E+0	1.911781E+0	1.886325E+0	1.906791E+0	1.924084E+0	1.845285E+0	1.895811E+0	1.849325E+0	1.935288E+0	1.919625E+0	1.893461E+0	1.932398E+0	1.986999E+0	1.873849E+0	1.869315E+0	1.879512E+0	1.949060E+0	1.877584E+0	1.883908E+0	1.838057E+0	1.961761E+0	1.981733E+0	1.881358E+0	1.832153E+0	1.867658E+0	1.871968E+0	1.869815E+0	1.902158E+0	1.917329E+0	1.877670E+0	1.939014E+0	1.922187E+0	1.906133E+0	1.952561E+0	1.938216E+0	1.952118E+0	1.907174E+0	1.926870E+0	1.874451E+0	1.833652E+0	1.870178E+0	1.913324E+0	1.878816E+0	1.873253E+0	1.899148E+0	1.867701E+0	1.897809E+0	1.911953E+0	1.885618E+0	1.910024E+0	1.882351E+0	1.885157E+0	1.967917E+0	1.864782E+0	1.901833E+0	2.017225E+0	1.893366E+0	1.867899E+0	1.912151E+0	1.884365E+0	1.851215E+0	1.879339E+0	1.836648E+0	1.913619E+0	1.940482E+0	1.890285E+0	1.854167E+0	1.902583E+0	1.856717E+0	1.877916E+0	1.902229E+0	1.850476E+0	1.826267E+0	1.844391E+0	1.840058E+0	1.996659E+0	1.847550E+0	1.849220E+0	1.845375E+0	1.879320E+0	1.912398E+0	1.881567E+0	1.888361E+0	1.875869E+0	1.906573E+0	1.805467E+0	1.851816E+0	1.894087E+0	1.814704E+0	1.751041E+0	1.845783E+0	1.875832E+0	1.855336E+0	1.843417E+0	1.853582E+0	1.954178E+0	1.896827E+0	1.834357E+0	1.851344E+0	1.903675E+0	1.873403E+0	1.785663E+0	1.819252E+0	1.862877E+0	1.842933E+0	1.797276E+0	1.878735E+0	1.891033E+0	1.867444E+0	1.818371E+0	1.820268E+0	1.878513E+0	1.869468E+0	1.821007E+0	1.881445E+0	1.868922E+0	1.881344E+0	1.866000E+0	1.851315E+0	1.867826E+0	1.882689E+0	1.858153E+0	1.842894E+0	1.801731E+0	1.854848E+0	1.879021E+0	1.845480E+0	1.898914E+0	1.900698E+0	1.878536E+0	1.833147E+0	1.857521E+0	1.860521E+0	1.800981E+0	1.785961E+0	1.904666E+0	1.818146E+0	1.881984E+0	1.799216E+0	1.927926E+0	1.815264E+0	1.803444E+0	1.817420E+0	1.879502E+0	1.851439E+0	1.866591E+0	1.917614E+0	1.924391E+0	1.814576E+0	1.834998E+0	1.837435E+0	1.877155E+0	1.839580E+0	1.838375E+0	1.854809E+0	1.859181E+0	1.858930E+0	1.831443E+0	1.804396E+0	1.889038E+0	1.860483E+0	1.945552E+0	1.920106E+0	1.895057E+0	1.793030E+0	1.888679E+0	1.938735E+0	1.714800E+0
5.395100E+2	2.007443E+0	2.011717E+0	2.018835E+0	1.992034E+0	1.985212E+0	2.052894E+0	1.978706E+0	2.035779E+0	1.982763E+0	2.032306E+0	1.975203E+0	2.056724E+0	2.035982E+0	1.981954E+0	2.009871E+0	2.094333E+0	2.037733E+0	1.996306E+0	2.118016E+0	1.966243E+0	2.013050E+0	2.043971E+0	1.992117E+0	1.989181E+0	2.021717E+0	2.051652E+0	1.998429E+0	1.999703E+0	2.003376E+0	2.026976E+0	2.015957E+0	1.983397E+0	2.049927E+0	1.990895E+0	2.004215E+0	2.044535E+0	2.015970E+0	2.040057E+0	1.973039E+0	2.038426E+0	2.055511E+0	1.986230E+0	1.937087E+0	2.009694E+0	2.041537E+0	1.988872E+0	2.011887E+0	1.999924E+0	2.041745E+0	1.967617E+0	1.966533E+0	1.990591E+0	2.013726E+0	1.993816E+0	2.008501E+0	2.050900E+0	1.978665E+0	2.013563E+0	1.953757E+0	2.078138E+0	1.933047E+0	2.023480E+0	1.922932E+0	1.962856E+0	2.068464E+0	2.036138E+0	1.996000E+0	1.876449E+0	2.005963E+0	2.000717E+0	1.975777E+0	1.991863E+0	2.026814E+0	2.005574E+0	2.068421E+0	1.933407E+0	2.007674E+0	1.960239E+0	1.964234E+0	1.928497E+0	1.987646E+0	1.962245E+0	1.978736E+0	1.939381E+0	2.011202E+0	2.002849E+0	2.015828E+0	2.051119E+0	2.043434E+0	1.959714E+0	1.910667E+0	1.942936E+0	1.963363E+0	1.884283E+0	1.958318E+0	1.940281E+0	1.967119E+0	1.986435E+0	1.938904E+0	2.063261E+0	2.016492E+0	1.979033E+0	1.931032E+0	2.074509E+0	1.954204E+0	1.958655E+0	1.917942E+0	2.036018E+0	1.981267E+0	1.915775E+0	1.918934E+0	1.973072E+0	1.954481E+0	2.010981E+0	1.975703E+0	2.080479E+0	1.982810E+0	1.910981E+0	1.950088E+0	1.922720E+0	1.980861E+0	1.931623E+0	2.003251E+0	1.981301E+0	2.026110E+0	1.929519E+0	1.990746E+0	1.920937E+0	1.910736E+0	1.918568E+0	1.977001E+0	1.994988E+0	1.953160E+0	1.936314E+0	1.933030E+0	1.968771E+0	1.935856E+0	1.971452E+0	1.958486E+0	1.995768E+0	1.894258E+0	1.935162E+0	1.929659E+0	1.989327E+0	1.928557E+0	1.916811E+0	1.894773E+0	1.940405E+0	1.976825E+0	1.998744E+0	1.958266E+0	1.980901E+0	1.944474E+0	2.000075E+0	1.953469E+0	1.920359E+0	1.909610E+0	2.002850E+0	1.949750E+0	1.959989E+0	2.069727E+0	1.881208E+0	1.914217E+0	1.913930E+0	1.896140E+0	1.952537E+0	1.966835E+0	1.939936E+0	1.907489E+0	1.866279E+0	1.848223E+0	1.802737E+0
5.397750E+2	2.092322E+0	2.121092E+0	2.042356E+0	2.097529E+0	2.064429E+0	2.063713E+0	2.068378E+0	2.125546E+0	2.102994E+0	2.080530E+0	2.074658E+0	2.114341E+0	2.048219E+0	2.039504E+0	1.979170E+0	2.106071E+0	2.153124E+0	2.115438E+0	2.066994E+0	1.940456E+0	2.081793E+0	2.075346E+0	2.017328E+0	2.027034E+0	2.094558E+0	2.097480E+0	2.109280E+0	2.096192E+0	2.099562E+0	2.042659E+0	2.107038E+0	2.045835E+0	2.105885E+0	2.059433E+0	2.144142E+0	2.114380E+0	2.094295E+0	2.073177E+0	2.069911E+0	2.075527E+0	2.050815E+0	2.093616E+0	2.063525E+0	1.919279E+0	2.071693E+0	2.038453E+0	2.055553E+0	2.045145E+0	2.053442E+0	2.067996E+0	2.003891E+0	2.029383E+0	2.066668E+0	2.094602E+0	2.030572E+0	1.986746E+0	2.070446E+0	1.995149E+0	2.101868E+0	2.145089E+0	2.098073E+0	2.011188E+0	2.015972E+0	2.012522E+0	2.109718E+0	2.093891E+0	2.110656E+0	2.060351E+0	2.073745E+0	2.110027E+0	2.042221E+0	2.050720E+0	2.090272E+0	2.043781E+0	2.085775E+0	2.130608E+0	2.070609E+0	2.068370E+0	1.999281E+0	2.050540E+0	2.044511E+0	2.072225E+0	2.002198E+0	1.929476E+0	2.070954E+0	2.007324E+0	2.042945E+0	2.005160E+0	2.085612E+0	1.972598E+0	2.023863E+0	2.005295E+0	2.069678E+0	1.940417E+0	2.034161E+0	2.005115E+0	2.089435E+0	2.039136E+0	2.027828E+0	2.038481E+0	2.088515E+0	1.969347E+0	1.999091E+0	2.029082E+0	1.993979E+0	2.097836E+0	2.047551E+0	2.044592E+0	2.018519E+0	1.986313E+0	1.944774E+0	2.113389E+0	2.074708E+0	2.031183E+0	2.019283E+0	2.002517E+0	2.031316E+0	1.892199E+0	2.000116E+0	1.963295E+0	2.072306E+0	1.986591E+0	1.987527E+0	2.062149E+0	2.056657E+0	2.029365E+0	1.976615E+0	1.966921E+0	2.015049E+0	2.089308E+0	2.009500E+0	2.029379E+0	2.012195E+0	2.025819E+0	2.002579E+0	2.006578E+0	2.034653E+0	2.016953E+0	1.958936E+0	2.023629E+0	1.976341E+0	2.015634E+0	1.979999E+0	2.027516E+0	1.998456E+0	1.970868E+0	2.005325E+0	2.022225E+0	1.926239E+0	1.972410E+0	2.056305E+0	1.990713E+0	2.029351E+0	1.980335E+0	2.006109E+0	1.983611E+0	1.985952E+0	1.970819E+0	1.981673E+0	2.041790E+0	2.049037E+0	1.992938E+0	1.943602E+0	2.025199E+0	2.007150E+0	1.984086E+0	2.022797E+0	1.990085E+0	1.958494E+0	2.036386E+0	1.934384E+0	1.826628E+0
5.400300E+2	2.024274E+0	2.006324E+0	2.017320E+0	1.955650E+0	1.980146E+0	1.927602E+0	1.923662E+0	1.958262E+0	1.942366E+0	2.013743E+0	1.865292E+0	1.961566E+0	1.944990E+0	1.958227E+0	1.922896E+0	1.978706E+0	1.962383E+0	1.925945E+0	2.010492E+0	1.860378E+0	1.996791E+0	1.947503E+0	1.924898E+0	1.933712E+0	2.012500E+0	1.964620E+0	1.954948E+0	1.993504E+0	1.912089E+0	1.971229E+0	1.924209E+0	1.960775E+0	2.010850E+0	1.890853E+0	2.011160E+0	1.922974E+0	1.986409E+0	2.061954E+0	1.965434E+0	2.005357E+0	1.948144E+0	1.896480E+0	1.889515E+0	1.886397E+0	1.969917E+0	1.952581E+0	1.950961E+0	1.876804E+0	2.003161E+0	1.865832E+0	1.949785E+0	1.976286E+0	1.988072E+0	1.972965E+0	1.937560E+0	1.970208E+0	1.959799E+0	1.975019E+0	1.918632E+0	2.033219E+0	1.979548E+0	1.945848E+0	1.942666E+0	1.918740E+0	1.932230E+0	1.962763E+0	1.919922E+0	1.889920E+0	1.914229E+0	2.023971E+0	1.972209E+0	1.889022E+0	1.970942E+0	1.909837E+0	1.947760E+0	1.898536E+0	1.978272E+0	1.899411E+0	1.974618E+0	1.943714E+0	1.956494E+0	1.977843E+0	1.907607E+0	1.858217E+0	1.946412E+0	1.950141E+0	1.965750E+0	1.934538E+0	2.007755E+0	1.910536E+0	1.902342E+0	1.933570E+0	2.008580E+0	1.899621E+0	1.846912E+0	1.941218E+0	1.946188E+0	2.014391E+0	1.929653E+0	1.946639E+0	1.949955E+0	1.915763E+0	1.945541E+0	1.976719E+0	1.928235E+0	1.964346E+0	1.877998E+0	1.941853E+0	1.979256E+0	1.924802E+0	1.890919E+0	1.908194E+0	1.977167E+0	1.825123E+0	1.929863E+0	1.836941E+0	1.951811E+0	1.876838E+0	1.957196E+0	1.900186E+0	1.982559E+0	1.885212E+0	1.924608E+0	1.929323E+0	1.978496E+0	1.903662E+0	1.957622E+0	1.925637E+0	1.928867E+0	1.961246E+0	1.870580E+0	1.931559E+0	1.927893E+0	1.948771E+0	1.958183E+0	1.925222E+0	1.918227E+0	1.925318E+0	1.867772E+0	1.907656E+0	1.931046E+0	1.956356E+0	1.856042E+0	1.933173E+0	1.828011E+0	1.959153E+0	1.914747E+0	1.899425E+0	1.936078E+0	1.919123E+0	1.960634E+0	1.925164E+0	1.879093E+0	1.879671E+0	1.918813E+0	1.895928E+0	1.840337E+0	1.867887E+0	1.927630E+0	1.941032E+0	1.948754E+0	1.868971E+0	1.921206E+0	1.944385E+0	1.920055E+0	1.893439E+0	2.007816E+0	1.912553E+0	1.894309E+0	1.946665E+0	1.950408E+0	1.779113E+0
5.402690E+2	1.954824E+0	1.991933E+0	1.951569E+0	1.944661E+0	1.972065E+0	1.933317E+0	1.931593E+0	1.881553E+0	1.931737E+0	1.852208E+0	1.907340E+0	1.928833E+0	1.929066E+0	1.890087E+0	1.983823E+0	1.902955E+0	1.966158E+0	1.967807E+0	1.963234E+0	1.959366E+0	1.943402E+0	1.853097E+0	1.906363E+0	1.874810E+0	1.919682E+0	1.910101E+0	1.936096E+0	1.945865E+0	2.002081E+0	1.986177E+0	1.939123E+0	1.959982E+0	1.932428E+0	1.924401E+0	2.035230E+0	1.933284E+0	1.937176E+0	1.983324E+0	1.943087E+0	1.946810E+0	1.953282E+0	1.987560E+0	1.972056E+0	1.867585E+0	1.921823E+0	1.888500E+0	1.926463E+0	1.917393E+0	1.888556E+0	1.841095E+0	1.860825E+0	1.959351E+0	1.951178E+0	1.948730E+0	1.873331E+0	1.916697E+0	1.953570E+0	1.977834E+0	1.873190E+0	1.939725E+0	1.977055E+0	1.842017E+0	1.894499E+0	1.900041E+0	1.866974E+0	1.874680E+0	1.895323E+0	1.857132E+0	1.855869E+0	1.968881E+0	1.940729E+0	1.932243E+0	1.921622E+0	1.937891E+0	1.941510E+0	1.976740E+0	1.945082E+0	1.928106E+0	1.871309E+0	1.892532E+0	1.913079E+0	1.866077E+0	1.906514E+0	1.914644E+0	1.839044E+0	1.888006E+0	1.939579E+0	1.917622E+0	1.992616E+0	1.849581E+0	1.770919E+0	1.912847E+0	1.916477E+0	1.821717E+0	1.861847E+0	1.902434E+0	1.915056E+0	1.827786E+0	1.914661E+0	1.901180E+0	1.947083E+0	1.916052E+0	1.865204E+0	1.887148E+0	1.882850E+0	1.858275E+0	1.842396E+0	1.915496E+0	1.851474E+0	1.915915E+0	1.852726E+0	1.929986E+0	1.868404E+0	1.816113E+0	1.901772E+0	1.949655E+0	1.923774E+0	1.851520E+0	1.917270E+0	1.864421E+0	1.930037E+0	1.897187E+0	1.901620E+0	1.896488E+0	1.889671E+0	1.878628E+0	1.899748E+0	1.863523E+0	1.832619E+0	1.922103E+0	1.888431E+0	1.875221E+0	1.837726E+0	1.915122E+0	1.904725E+0	1.875835E+0	1.903699E+0	1.901340E+0	1.742701E+0	1.917664E+0	1.866211E+0	1.848170E+0	1.860400E+0	1.887806E+0	1.865146E+0	1.863744E+0	1.848529E+0	1.826337E+0	1.899475E+0	1.870275E+0	1.887990E+0	1.865527E+0	1.848234E+0	1.898860E+0	1.853436E+0	1.853173E+0	1.827261E+0	1.868143E+0	1.817485E+0	1.857860E+0	1.993296E+0	1.878978E+0	1.832672E+0	1.836973E+0	1.795690E+0	1.937176E+0	1.893926E+0	1.843347E+0	1.852023E+0	1.910866E+0	1.819729E+0	1.732521E+0
5.405180E+2	1.866857E+0	1.838777E+0	1.825315E+0	1.825516E+0	1.851392E+0	1.852153E+0	1.832680E+0	1.837955E+0	1.901566E+0	1.790849E+0	1.804823E+0	1.784857E+0	1.835742E+0	1.837534E+0	1.765365E+0	1.846847E+0	1.863458E+0	1.848840E+0	1.806929E+0	1.797107E+0	1.864413E+0	1.844668E+0	1.875100E+0	1.783836E+0	1.863683E+0	1.798219E+0	1.861158E+0	1.782462E+0	1.842503E+0	1.830767E+0	1.872337E+0	1.808357E+0	1.913358E+0	1.789762E+0	1.814942E+0	1.828072E+0	1.814424E+0	1.838613E+0	1.830415E+0	1.866161E+0	1.881134E+0	1.811509E+0	1.822432E+0	1.760954E+0	1.848542E+0	1.811612E+0	1.786207E+0	1.725829E+0	1.884504E+0	1.845122E+0	1.791327E+0	1.796811E+0	1.859453E+0	1.876163E+0	1.778510E+0	1.832335E+0	1.850828E+0	1.813112E+0	1.779210E+0	1.851971E+0	1.784175E+0	1.855081E+0	1.776443E+0	1.780243E+0	1.869361E+0	1.876881E+0	1.815827E+0	1.798494E+0	1.770293E+0	1.801041E+0	1.807318E+0	1.733507E+0	1.838817E+0	1.824134E+0	1.788604E+0	1.856746E+0	1.833757E+0	1.770722E+0	1.776772E+0	1.815480E+0	1.859096E+0	1.848707E+0	1.771320E+0	1.770251E+0	1.797641E+0	1.816408E+0	1.773291E+0	1.806047E+0	1.833341E+0	1.724677E+0	1.787165E+0	1.826585E+0	1.745956E+0	1.745014E+0	1.741598E+0	1.750773E+0	1.863079E+0	1.783666E+0	1.774678E+0	1.793143E+0	1.811609E+0	1.858634E+0	1.759160E+0	1.867425E+0	1.750510E+0	1.770361E+0	1.754933E+0	1.812609E+0	1.841234E+0	1.785568E+0	1.834004E+0	1.825995E+0	1.761611E+0	1.759429E+0	1.742590E+0	1.742582E+0	1.808801E+0	1.739436E+0	1.768033E+0	1.749348E+0	1.855001E+0	1.864650E+0	1.818775E+0	1.801623E+0	1.815730E+0	1.804382E+0	1.789505E+0	1.676325E+0	1.856140E+0	1.816370E+0	1.772550E+0	1.780405E+0	1.844526E+0	1.792446E+0	1.785642E+0	1.768255E+0	1.779659E+0	1.773593E+0	1.763505E+0	1.830058E+0	1.776511E+0	1.807964E+0	1.744828E+0	1.783646E+0	1.746850E+0	1.777449E+0	1.685457E+0	1.753240E+0	1.749705E+0	1.793923E+0	1.813046E+0	1.782808E+0	1.786418E+0	1.756777E+0	1.726639E+0	1.799715E+0	1.722761E+0	1.726517E+0	1.786967E+0	1.721317E+0	1.807833E+0	1.795951E+0	1.781784E+0	1.747710E+0	1.803939E+0	1.812039E+0	1.788556E+0	1.737750E+0	1.770548E+0	1.863780E+0	1.880119E+0	1.719629E+0
5.407520E+2	1.728237E+0	1.743041E+0	1.775785E+0	1.786342E+0	1.808990E+0	1.782166E+0	1.818066E+0	1.746434E+0	1.769791E+0	1.844135E+0	1.823752E+0	1.712245E+0	1.783963E+0	1.763177E+0	1.748506E+0	1.774914E+0	1.773333E+0	1.800335E+0	1.703242E+0	1.714454E+0	1.785086E+0	1.802582E+0	1.733334E+0	1.755253E+0	1.817208E+0	1.783041E+0	1.767919E+0	1.738318E+0	1.833575E+0	1.740867E+0	1.760042E+0	1.763537E+0	1.781150E+0	1.743827E+0	1.802619E+0	1.740012E+0	1.754411E+0	1.821396E+0	1.745356E+0	1.806013E+0	1.768262E+0	1.751572E+0	1.773760E+0	1.736846E+0	1.788031E+0	1.718033E+0	1.729970E+0	1.739876E+0	1.745510E+0	1.699300E+0	1.733838E+0	1.782071E+0	1.758354E+0	1.768393E+0	1.752507E+0	1.746527E+0	1.769389E+0	1.754939E+0	1.856844E+0	1.834089E+0	1.708236E+0	1.789633E+0	1.739706E+0	1.714813E+0	1.782057E+0	1.734317E+0	1.742975E+0	1.743039E+0	1.711750E+0	1.788155E+0	1.748631E+0	1.734941E+0	1.801891E+0	1.716335E+0	1.736024E+0	1.712124E+0	1.810925E+0	1.703983E+0	1.721558E+0	1.744293E+0	1.789342E+0	1.697111E+0	1.803345E+0	1.751197E+0	1.765371E+0	1.734075E+0	1.769789E+0	1.790189E+0	1.862018E+0	1.713950E+0	1.708446E+0	1.763380E+0	1.805905E+0	1.734147E+0	1.707633E+0	1.748642E+0	1.717143E+0	1.702171E+0	1.704485E+0	1.745862E+0	1.849649E+0	1.751699E+0	1.748853E+0	1.739489E+0	1.811018E+0	1.726839E+0	1.655639E+0	1.786735E+0	1.714128E+0	1.720099E+0	1.685784E+0	1.761313E+0	1.758564E+0	1.738001E+0	1.716482E+0	1.739292E+0	1.787847E+0	1.692869E+0	1.778720E+0	1.735059E+0	1.757852E+0	1.690794E+0	1.765118E+0	1.704356E+0	1.798639E+0	1.721768E+0	1.705504E+0	1.704671E+0	1.721818E+0	1.689589E+0	1.778823E+0	1.703612E+0	1.791087E+0	1.724133E+0	1.707602E+0	1.698185E+0	1.778621E+0	1.794936E+0	1.698512E+0	1.747345E+0	1.731068E+0	1.728094E+0	1.690064E+0	1.739637E+0	1.753625E+0	1.706362E+0	1.662644E+0	1.743045E+0	1.677741E+0	1.751520E+0	1.762203E+0	1.735018E+0	1.675499E+0	1.690474E+0	1.666268E+0	1.744368E+0	1.702833E+0	1.728850E+0	1.711568E+0	1.705535E+0	1.791468E+0	1.641453E+0	1.751978E+0	1.726473E+0	1.773385E+0	1.786278E+0	1.788424E+0	1.729726E+0	1.707427E+0	1.715259E+0	1.731460E+0	1.591779E+0
5.410400E+2	1.681422E+0	1.683907E+0	1.706838E+0	1.671308E+0	1.668182E+0	1.677854E+0	1.665810E+0	1.710914E+0	1.753554E+0	1.720589E+0	1.654200E+0	1.705762E+0	1.705814E+0	1.712475E+0	1.676835E+0	1.749667E+0	1.663214E+0	1.743850E+0	1.674374E+0	1.580196E+0	1.685634E+0	1.699498E+0	1.678406E+0	1.693234E+0	1.710468E+0	1.704763E+0	1.734357E+0	1.669263E+0	1.716138E+0	1.702248E+0	1.754462E+0	1.690212E+0	1.739229E+0	1.679040E+0	1.711650E+0	1.719305E+0	1.665424E+0	1.759857E+0	1.725022E+0	1.715527E+0	1.696799E+0	1.703818E+0	1.714840E+0	1.682862E+0	1.679205E+0	1.704162E+0	1.648107E+0	1.675505E+0	1.682751E+0	1.721864E+0	1.659759E+0	1.691052E+0	1.700445E+0	1.684579E+0	1.674928E+0	1.752421E+0	1.686997E+0	1.712297E+0	1.679723E+0	1.738073E+0	1.654117E+0	1.677993E+0	1.659035E+0	1.649373E+0	1.714750E+0	1.703484E+0	1.660939E+0	1.602217E+0	1.703540E+0	1.688303E+0	1.657773E+0	1.634443E+0	1.678348E+0	1.715146E+0	1.702432E+0	1.717410E+0	1.723307E+0	1.659618E+0	1.686970E+0	1.685712E+0	1.725469E+0	1.621619E+0	1.709732E+0	1.645419E+0	1.669471E+0	1.673278E+0	1.689990E+0	1.685701E+0	1.642112E+0	1.685643E+0	1.628184E+0	1.700267E+0	1.660847E+0	1.606556E+0	1.652556E+0	1.680670E+0	1.749334E+0	1.671369E+0	1.674258E+0	1.677042E+0	1.789446E+0	1.708936E+0	1.657446E+0	1.667785E+0	1.710552E+0	1.701779E+0	1.607276E+0	1.737597E+0	1.679693E+0	1.625187E+0	1.611325E+0	1.706216E+0	1.676068E+0	1.664628E+0	1.657614E+0	1.637993E+0	1.666607E+0	1.645870E+0	1.685143E+0	1.630292E+0	1.734126E+0	1.719371E+0	1.675129E+0	1.662360E+0	1.695515E+0	1.648463E+0	1.595065E+0	1.664086E+0	1.612290E+0	1.714907E+0	1.642116E+0	1.646821E+0	1.713450E+0	1.666386E+0	1.669358E+0	1.645305E+0	1.718019E+0	1.697672E+0	1.696602E+0	1.699694E+0	1.639274E+0	1.666591E+0	1.625602E+0	1.625224E+0	1.627482E+0	1.602689E+0	1.596550E+0	1.623047E+0	1.651589E+0	1.747490E+0	1.677434E+0	1.672653E+0	1.648202E+0	1.690061E+0	1.618587E+0	1.706702E+0	1.581847E+0	1.599300E+0	1.659739E+0	1.658974E+0	1.693707E+0	1.638961E+0	1.653229E+0	1.619341E+0	1.677705E+0	1.667466E+0	1.653825E+0	1.558988E+0	1.616932E+0	1.682473E+0	1.632616E+0	1.578025E+0
5.412690E+2	1.627709E+0	1.613564E+0	1.641914E+0	1.608152E+0	1.617343E+0	1.655434E+0	1.620870E+0	1.623980E+0	1.595214E+0	1.597918E+0	1.583561E+0	1.607618E+0	1.571071E+0	1.549503E+0	1.601057E+0	1.538017E+0	1.638854E+0	1.593898E+0	1.589543E+0	1.601243E+0	1.605596E+0	1.593585E+0	1.607956E+0	1.554200E+0	1.595409E+0	1.596507E+0	1.599507E+0	1.597982E+0	1.636739E+0	1.579889E+0	1.642454E+0	1.554161E+0	1.624571E+0	1.593253E+0	1.645906E+0	1.520752E+0	1.593390E+0	1.657653E+0	1.581088E+0	1.616833E+0	1.655882E+0	1.633686E+0	1.550026E+0	1.558824E+0	1.638926E+0	1.587629E+0	1.596691E+0	1.604898E+0	1.695880E+0	1.582417E+0	1.528612E+0	1.648780E+0	1.576263E+0	1.599814E+0	1.587175E+0	1.607899E+0	1.602266E+0	1.593942E+0	1.554292E+0	1.592447E+0	1.591714E+0	1.612718E+0	1.541383E+0	1.550191E+0	1.558999E+0	1.645257E+0	1.587907E+0	1.587337E+0	1.582855E+0	1.610495E+0	1.571949E+0	1.546292E+0	1.617297E+0	1.642477E+0	1.643154E+0	1.599725E+0	1.633796E+0	1.578795E+0	1.580670E+0	1.601003E+0	1.570374E+0	1.577906E+0	1.573550E+0	1.550904E+0	1.595645E+0	1.552351E+0	1.602698E+0	1.625465E+0	1.534275E+0	1.574309E+0	1.558505E+0	1.538738E+0	1.641389E+0	1.551578E+0	1.578575E+0	1.594118E+0	1.607345E+0	1.572017E+0	1.529163E+0	1.578111E+0	1.628561E+0	1.558443E+0	1.652434E+0	1.600201E+0	1.625879E+0	1.526157E+0	1.590854E+0	1.574021E+0	1.572393E+0	1.594643E+0	1.496752E+0	1.532826E+0	1.614110E+0	1.499107E+0	1.594106E+0	1.534355E+0	1.640086E+0	1.557214E+0	1.628799E+0	1.596955E+0	1.537683E+0	1.568322E+0	1.569143E+0	1.524113E+0	1.627160E+0	1.614370E+0	1.580866E+0	1.578044E+0	1.559015E+0	1.612009E+0	1.549543E+0	1.573471E+0	1.643038E+0	1.571470E+0	1.570376E+0	1.591801E+0	1.559771E+0	1.540544E+0	1.582968E+0	1.575704E+0	1.610457E+0	1.593209E+0	1.589035E+0	1.569195E+0	1.554866E+0	1.557314E+0	1.554193E+0	1.553214E+0	1.579760E+0	1.554225E+0	1.612891E+0	1.570135E+0	1.574534E+0	1.564219E+0	1.575278E+0	1.513334E+0	1.602687E+0	1.527889E+0	1.570490E+0	1.531704E+0	1.582458E+0	1.577802E+0	1.576477E+0	1.558134E+0	1.559183E+0	1.543264E+0	1.590435E+0	1.568938E+0	1.489451E+0	1.532634E+0	1.489518E+0	1.461876E+0
5.415190E+2	1.424643E+0	1.455864E+0	1.445987E+0	1.401069E+0	1.345868E+0	1.433872E+0	1.454435E+0	1.407733E+0	1.369549E+0	1.452570E+0	1.397190E+0	1.383643E+0	1.378121E+0	1.384186E+0	1.383588E+0	1.420931E+0	1.397673E+0	1.404036E+0	1.416826E+0	1.382343E+0	1.452889E+0	1.424851E+0	1.411411E+0	1.327551E+0	1.417252E+0	1.427947E+0	1.359009E+0	1.443918E+0	1.434634E+0	1.419433E+0	1.423503E+0	1.378321E+0	1.429480E+0	1.428063E+0	1.449018E+0	1.414503E+0	1.418578E+0	1.409805E+0	1.389705E+0	1.438962E+0	1.418603E+0	1.429716E+0	1.388128E+0	1.375915E+0	1.379003E+0	1.421885E+0	1.393331E+0	1.400368E+0	1.454212E+0	1.380982E+0	1.335763E+0	1.444773E+0	1.422896E+0	1.484875E+0	1.386502E+0	1.359417E+0	1.351302E+0	1.373737E+0	1.377919E+0	1.440976E+0	1.431915E+0	1.393612E+0	1.393569E+0	1.355949E+0	1.405308E+0	1.433926E+0	1.420848E+0	1.395049E+0	1.312351E+0	1.379562E+0	1.392569E+0	1.389779E+0	1.450304E+0	1.432147E+0	1.436733E+0	1.467971E+0	1.418108E+0	1.378703E+0	1.368943E+0	1.465382E+0	1.425628E+0	1.409187E+0	1.388608E+0	1.376874E+0	1.405912E+0	1.387254E+0	1.435697E+0	1.375638E+0	1.377634E+0	1.404740E+0	1.418896E+0	1.366034E+0	1.442235E+0	1.417598E+0	1.362466E+0	1.407250E+0	1.403843E+0	1.335411E+0	1.366987E+0	1.420408E+0	1.440076E+0	1.376425E+0	1.382151E+0	1.401794E+0	1.414932E+0	1.412107E+0	1.345514E+0	1.419874E+0	1.422446E+0	1.412464E+0	1.390720E+0	1.332333E+0	1.370729E+0	1.381309E+0	1.379597E+0	1.393070E+0	1.428375E+0	1.405116E+0	1.404975E+0	1.455412E+0	1.387251E+0	1.403225E+0	1.412853E+0	1.378304E+0	1.356911E+0	1.381200E+0	1.359281E+0	1.370558E+0	1.364800E+0	1.378409E+0	1.403220E+0	1.402073E+0	1.375699E+0	1.370796E+0	1.410022E+0	1.400969E+0	1.388674E+0	1.361051E+0	1.303926E+0	1.424564E+0	1.392661E+0	1.407945E+0	1.407971E+0	1.387533E+0	1.381843E+0	1.354470E+0	1.393520E+0	1.383552E+0	1.400392E+0	1.442868E+0	1.449670E+0	1.377648E+0	1.392269E+0	1.391704E+0	1.383242E+0	1.384653E+0	1.404364E+0	1.350311E+0	1.401802E+0	1.371689E+0	1.438247E+0	1.336330E+0	1.373527E+0	1.350167E+0	1.414534E+0	1.384018E+0	1.403988E+0	1.368898E+0	1.458004E+0	1.356040E+0	1.332114E+0	1.216827E+0
5.417600E+2	1.216070E+0	1.205346E+0	1.215357E+0	1.247467E+0	1.228858E+0	1.264564E+0	1.233321E+0	1.212999E+0	1.211000E+0	1.210768E+0	1.244541E+0	1.235593E+0	1.236939E+0	1.216403E+0	1.212679E+0	1.179070E+0	1.235546E+0	1.186857E+0	1.260423E+0	1.203016E+0	1.199073E+0	1.271315E+0	1.240679E+0	1.200588E+0	1.225078E+0	1.240261E+0	1.203049E+0	1.221669E+0	1.227790E+0	1.173839E+0	1.207195E+0	1.202703E+0	1.206166E+0	1.216743E+0	1.218636E+0	1.204481E+0	1.223712E+0	1.278253E+0	1.248090E+0	1.249670E+0	1.255545E+0	1.184962E+0	1.210832E+0	1.210150E+0	1.191313E+0	1.202867E+0	1.246314E+0	1.211081E+0	1.258276E+0	1.207378E+0	1.214955E+0	1.242937E+0	1.173982E+0	1.229107E+0	1.193447E+0	1.257688E+0	1.228415E+0	1.235811E+0	1.204336E+0	1.242747E+0	1.210174E+0	1.198522E+0	1.213675E+0	1.247511E+0	1.216115E+0	1.235529E+0	1.265958E+0	1.252212E+0	1.173816E+0	1.247506E+0	1.244214E+0	1.164673E+0	1.200200E+0	1.269663E+0	1.274727E+0	1.214857E+0	1.240902E+0	1.223484E+0	1.203971E+0	1.224491E+0	1.275312E+0	1.266954E+0	1.210619E+0	1.155448E+0	1.197836E+0	1.228436E+0	1.235207E+0	1.240051E+0	1.178515E+0	1.219832E+0	1.209584E+0	1.244307E+0	1.212889E+0	1.211295E+0	1.236116E+0	1.223050E+0	1.218591E+0	1.214688E+0	1.247029E+0	1.219079E+0	1.240787E+0	1.201202E+0	1.194185E+0	1.212092E+0	1.231858E+0	1.251743E+0	1.173590E+0	1.248796E+0	1.300969E+0	1.211553E+0	1.175163E+0	1.222995E+0	1.227964E+0	1.176497E+0	1.234659E+0	1.153619E+0	1.214296E+0	1.251025E+0	1.242304E+0	1.204318E+0	1.291166E+0	1.263111E+0	1.238740E+0	1.172237E+0	1.272029E+0	1.199497E+0	1.243102E+0	1.155047E+0	1.224044E+0	1.207530E+0	1.256030E+0	1.209832E+0	1.217095E+0	1.190228E+0	1.263373E+0	1.232630E+0	1.252728E+0	1.222755E+0	1.133202E+0	1.296876E+0	1.264698E+0	1.230601E+0	1.224103E+0	1.199678E+0	1.261339E+0	1.205606E+0	1.180368E+0	1.223772E+0	1.273979E+0	1.250223E+0	1.227779E+0	1.226675E+0	1.194143E+0	1.234794E+0	1.200607E+0	1.244042E+0	1.196968E+0	1.229519E+0	1.218359E+0	1.166219E+0	1.243780E+0	1.186500E+0	1.204264E+0	1.230528E+0	1.229553E+0	1.254714E+0	1.257384E+0	1.187166E+0	1.212290E+0	1.183608E+0	1.199338E+0	1.177409E+0
5.420320E+2	1.101618E+0	1.093370E+0	1.114442E+0	1.093777E+0	1.057833E+0	1.076390E+0	1.046103E+0	1.096803E+0	1.128167E+0	1.067457E+0	1.090656E+0	1.041250E+0	1.073733E+0	1.090868E+0	1.052165E+0	1.067730E+0	1.051650E+0	1.080682E+0	1.095904E+0	1.085282E+0	1.049817E+0	1.087263E+0	1.086584E+0	1.105955E+0	1.040629E+0	1.066115E+0	1.074235E+0	1.075761E+0	1.092104E+0	1.065349E+0	1.006818E+0	1.115657E+0	1.048117E+0	1.086614E+0	1.032249E+0	1.074065E+0	1.103915E+0	1.100015E+0	1.077654E+0	1.069952E+0	1.075586E+0	1.071314E+0	1.075830E+0	1.025390E+0	1.061721E+0	1.039606E+0	1.075269E+0	1.097893E+0	1.105716E+0	1.076162E+0	1.069046E+0	1.067522E+0	1.086430E+0	1.115063E+0	1.108063E+0	1.083691E+0	1.059714E+0	1.088682E+0	1.077039E+0	1.065811E+0	1.054041E+0	1.106290E+0	1.100630E+0	1.086647E+0	1.083560E+0	1.068746E+0	1.092580E+0	1.037095E+0	1.079373E+0	1.108108E+0	1.071130E+0	1.080880E+0	1.063346E+0	1.062386E+0	1.089172E+0	1.132908E+0	1.088124E+0	1.068014E+0	1.115833E+0	1.111670E+0	1.080028E+0	1.097572E+0	1.116959E+0	1.057803E+0	1.025707E+0	1.060321E+0	1.064889E+0	1.083749E+0	1.062694E+0	1.079136E+0	1.107187E+0	1.055967E+0	1.090496E+0	1.092788E+0	1.078761E+0	1.064129E+0	1.171503E+0	1.082783E+0	1.023185E+0	1.132795E+0	1.093057E+0	1.074199E+0	1.063488E+0	1.065184E+0	1.114555E+0	1.081266E+0	1.073590E+0	1.093011E+0	1.037991E+0	1.083948E+0	1.077656E+0	1.066449E+0	1.075919E+0	1.112333E+0	1.126902E+0	1.106460E+0	1.088878E+0	1.048117E+0	1.050523E+0	1.081012E+0	1.116732E+0	1.086469E+0	1.096193E+0	1.054674E+0	1.101564E+0	1.081276E+0	1.060081E+0	1.066293E+0	1.066255E+0	1.119031E+0	1.122209E+0	1.070051E+0	1.117270E+0	1.081187E+0	1.118819E+0	1.076528E+0	1.066415E+0	1.083446E+0	1.079700E+0	1.083440E+0	1.008702E+0	1.077001E+0	1.116449E+0	1.024641E+0	1.114200E+0	1.078465E+0	1.066183E+0	1.069036E+0	1.083599E+0	1.069143E+0	1.093404E+0	1.095399E+0	1.041167E+0	1.099021E+0	1.051394E+0	1.087554E+0	1.071730E+0	1.082227E+0	1.112249E+0	1.053928E+0	1.058088E+0	1.073043E+0	1.093067E+0	1.063988E+0	1.091251E+0	1.113222E+0	1.029941E+0	1.080303E+0	1.093085E+0	1.115855E+0	1.037945E+0	1.113214E+0
5.422670E+2	1.037698E+0	9.837710E-1	1.011993E+0	1.007945E+0	9.559947E-1	9.646848E-1	1.031380E+0	9.836939E-1	9.604182E-1	1.040070E+0	9.886800E-1	9.857179E-1	1.031315E+0	9.454349E-1	9.963917E-1	1.016625E+0	9.901543E-1	9.917959E-1	9.917148E-1	9.862211E-1	9.955303E-1	1.012405E+0	9.996904E-1	9.230426E-1	1.012569E+0	9.967695E-1	9.740965E-1	9.833740E-1	1.032780E+0	9.723043E-1	1.046439E+0	9.810526E-1	9.894695E-1	1.045089E+0	1.015058E+0	1.024620E+0	9.630683E-1	1.068139E+0	1.014665E+0	9.857787E-1	9.790539E-1	1.026442E+0	1.000246E+0	9.907744E-1	1.044483E+0	9.903241E-1	9.995092E-1	1.000576E+0	1.028483E+0	9.819957E-1	1.013156E+0	1.026537E+0	1.002200E+0	1.019308E+0	1.015246E+0	9.754569E-1	9.984253E-1	1.019856E+0	1.015242E+0	1.032573E+0	1.037085E+0	9.839812E-1	9.705559E-1	1.049456E+0	1.002844E+0	1.039963E+0	9.614609E-1	9.771461E-1	9.919812E-1	1.047300E+0	1.011662E+0	9.823838E-1	1.000493E+0	1.024113E+0	1.071871E+0	1.003624E+0	9.794950E-1	9.877883E-1	1.003091E+0	9.930200E-1	9.953469E-1	1.021230E+0	9.935832E-1	1.023175E+0	1.023507E+0	9.948408E-1	1.028281E+0	1.024878E+0	1.013080E+0	9.921731E-1	1.024915E+0	1.023729E+0	1.005873E+0	9.901648E-1	1.019305E+0	9.782058E-1	1.020390E+0	1.060001E+0	9.911250E-1	1.007281E+0	9.821370E-1	9.910889E-1	9.980863E-1	1.024940E+0	1.025140E+0	1.046313E+0	1.006985E+0	1.014509E+0	1.033797E+0	1.011428E+0	9.673070E-1	1.016384E+0	1.061129E+0	9.781157E-1	9.998939E-1	9.727647E-1	1.035403E+0	9.939679E-1	9.926977E-1	9.981148E-1	9.951889E-1	1.019409E+0	1.033366E+0	1.006361E+0	9.974121E-1	1.015777E+0	1.037784E+0	9.678501E-1	1.045516E+0	9.970082E-1	1.010995E+0	9.971165E-1	9.940271E-1	1.038195E+0	9.686757E-1	1.036787E+0	1.009973E+0	1.008513E+0	9.948459E-1	9.890192E-1	1.016395E+0	1.015804E+0	9.901423E-1	9.626338E-1	9.861635E-1	1.026879E+0	1.007181E+0	9.615390E-1	9.735102E-1	1.055695E+0	1.054501E+0	9.706235E-1	9.893034E-1	9.922490E-1	9.876591E-1	1.055892E+0	9.584768E-1	1.029174E+0	1.036636E+0	9.760518E-1	1.014039E+0	9.690671E-1	1.012480E+0	9.738162E-1	9.544453E-1	9.947800E-1	1.016496E+0	1.013750E+0	9.665081E-1	1.042836E+0	1.039324E+0	1.013164E+0
5.425460E+2	9.559836E-1	9.475375E-1	9.818472E-1	8.957516E-1	9.300022E-1	9.973276E-1	9.097950E-1	9.624939E-1	9.656436E-1	9.284079E-1	9.311931E-1	1.005732E+0	9.335532E-1	9.410657E-1	9.713591E-1	9.348637E-1	9.452934E-1	9.382172E-1	9.782638E-1	9.349059E-1	9.650707E-1	9.795660E-1	9.794647E-1	9.690025E-1	9.629012E-1	9.290740E-1	9.860635E-1	9.192944E-1	9.656038E-1	9.351447E-1	9.656604E-1	9.781288E-1	9.890138E-1	9.858363E-1	9.561809E-1	9.369672E-1	9.783220E-1	9.698146E-1	9.352798E-1	9.457065E-1	9.618684E-1	9.200880E-1	9.945540E-1	9.405552E-1	9.328793E-1	9.579087E-1	9.828554E-1	9.587178E-1	9.787147E-1	9.462056E-1	8.764948E-1	9.587565E-1	9.677789E-1	9.647473E-1	9.650322E-1	9.597727E-1	9.529326E-1	9.638215E-1	9.325254E-1	9.801777E-1	9.468302E-1	9.893336E-1	9.110211E-1	9.248244E-1	9.318547E-1	9.245418E-1	9.971950E-1	9.554595E-1	9.815763E-1	9.940498E-1	9.376639E-1	9.483648E-1	9.345320E-1	9.616735E-1	9.927005E-1	9.963920E-1	9.672826E-1	9.350756E-1	9.620177E-1	9.674136E-1	1.012094E+0	9.307726E-1	9.542834E-1	9.473293E-1	9.675633E-1	9.833153E-1	9.824416E-1	9.801598E-1	9.468811E-1	9.670680E-1	9.482244E-1	9.726760E-1	9.418001E-1	9.446614E-1	9.388745E-1	9.520975E-1	9.757806E-1	9.561757E-1	9.848772E-1	9.576566E-1	9.538008E-1	9.214187E-1	9.510661E-1	9.855708E-1	9.233842E-1	9.705529E-1	9.609577E-1	9.627144E-1	9.695748E-1	9.008022E-1	9.358679E-1	9.433873E-1	9.704753E-1	9.371490E-1	9.417965E-1	9.438999E-1	9.284102E-1	9.430309E-1	9.604839E-1	9.606453E-1	9.233911E-1	9.788208E-1	9.520965E-1	9.434253E-1	9.765744E-1	9.278932E-1	1.016190E+0	9.132141E-1	9.713223E-1	9.566337E-1	9.449824E-1	9.566131E-1	9.284894E-1	9.778515E-1	9.225844E-1	9.704118E-1	9.509475E-1	9.458982E-1	9.499095E-1	9.580114E-1	9.515631E-1	9.385819E-1	9.436620E-1	9.347724E-1	9.727661E-1	9.668604E-1	9.532030E-1	9.385174E-1	9.384006E-1	9.754556E-1	9.626671E-1	9.562909E-1	9.526893E-1	9.973531E-1	9.437405E-1	9.430502E-1	9.243074E-1	9.710925E-1	9.779399E-1	9.459332E-1	9.857576E-1	9.203953E-1	9.179331E-1	9.685676E-1	9.176151E-1	9.841251E-1	9.598578E-1	9.361450E-1	8.770207E-1	9.939235E-1	9.067538E-1	9.975605E-1
5.427650E+2	1.060882E+0	1.072050E+0	1.034514E+0	1.019123E+0	1.023610E+0	1.032532E+0	1.032430E+0	1.001762E+0	1.106265E+0	9.905721E-1	1.041764E+0	1.041848E+0	1.031477E+0	9.771063E-1	9.802301E-1	9.959900E-1	9.848502E-1	1.107595E+0	1.053815E+0	1.038960E+0	1.042404E+0	1.054012E+0	1.034657E+0	9.957733E-1	1.019534E+0	1.009741E+0	1.019026E+0	9.919962E-1	1.050602E+0	1.063791E+0	1.020343E+0	1.001884E+0	1.020845E+0	1.027350E+0	1.018734E+0	1.010898E+0	1.051433E+0	1.034709E+0	1.033473E+0	9.925862E-1	1.010977E+0	1.060628E+0	1.006523E+0	1.013643E+0	1.022993E+0	1.013677E+0	1.031932E+0	1.028998E+0	1.030508E+0	9.751935E-1	1.043599E+0	1.027152E+0	9.950070E-1	1.022544E+0	1.022555E+0	1.021594E+0	1.021715E+0	1.052264E+0	1.018942E+0	1.033439E+0	9.745681E-1	1.045039E+0	1.006668E+0	1.026251E+0	1.017990E+0	1.041528E+0	1.023910E+0	9.915930E-1	9.932960E-1	1.070071E+0	1.017538E+0	1.050160E+0	1.005882E+0	1.007911E+0	1.058521E+0	1.047579E+0	1.030265E+0	9.696934E-1	1.026407E+0	1.022612E+0	1.018759E+0	1.028734E+0	1.017171E+0	1.006031E+0	9.821692E-1	9.825501E-1	1.056540E+0	1.041519E+0	1.051298E+0	1.031153E+0	1.008952E+0	1.028599E+0	1.042053E+0	1.016810E+0	1.032914E+0	1.039293E+0	1.025811E+0	1.042411E+0	1.028823E+0	1.038686E+0	1.076681E+0	9.809419E-1	1.049479E+0	1.004665E+0	1.079344E+0	9.895351E-1	1.018198E+0	1.019832E+0	1.021205E+0	1.016053E+0	1.028912E+0	1.036181E+0	9.992673E-1	1.028956E+0	1.019540E+0	1.001224E+0	1.050393E+0	1.007726E+0	1.052979E+0	9.954858E-1	1.020853E+0	9.903378E-1	1.005257E+0	9.859771E-1	1.062709E+0	1.037454E+0	1.014419E+0	1.022628E+0	1.005420E+0	1.002591E+0	9.721635E-1	1.048022E+0	9.897637E-1	1.035716E+0	1.070870E+0	1.004436E+0	9.938742E-1	1.014719E+0	1.036276E+0	1.096587E+0	1.013769E+0	1.008371E+0	9.990915E-1	1.049893E+0	9.607977E-1	1.039558E+0	1.010213E+0	1.028437E+0	1.034063E+0	1.080813E+0	1.045897E+0	9.876931E-1	1.046523E+0	1.019673E+0	1.021906E+0	1.022832E+0	1.034548E+0	1.039913E+0	1.031119E+0	9.819294E-1	1.057163E+0	1.059539E+0	1.102859E+0	1.034137E+0	1.002209E+0	1.080505E+0	1.081625E+0	1.006240E+0	1.022516E+0	9.894167E-1	1.057715E+0	1.031051E+0
5.430070E+2	1.197688E+0	1.210777E+0	1.121916E+0	1.126204E+0	1.107389E+0	1.206367E+0	1.151444E+0	1.106397E+0	1.175257E+0	1.167893E+0	1.135450E+0	1.160378E+0	1.163449E+0	1.226764E+0	1.154368E+0	1.159496E+0	1.162508E+0	1.197368E+0	1.157555E+0	1.099833E+0	1.193323E+0	1.171996E+0	1.188658E+0	1.121966E+0	1.161304E+0	1.152637E+0	1.124461E+0	1.187806E+0	1.151030E+0	1.101405E+0	1.126451E+0	1.135546E+0	1.158015E+0	1.146368E+0	1.167295E+0	1.161621E+0	1.151385E+0	1.201475E+0	1.183676E+0	1.147192E+0	1.145523E+0	1.145347E+0	1.139802E+0	1.101888E+0	1.210492E+0	1.134016E+0	1.153268E+0	1.187204E+0	1.166946E+0	1.174324E+0	1.112170E+0	1.151560E+0	1.170629E+0	1.197806E+0	1.151934E+0	1.175129E+0	1.168612E+0	1.154595E+0	1.129689E+0	1.168021E+0	1.182648E+0	1.162990E+0	1.155818E+0	1.173700E+0	1.101999E+0	1.152137E+0	1.150258E+0	1.099842E+0	1.091315E+0	1.176069E+0	1.158029E+0	1.169770E+0	1.172205E+0	1.196622E+0	1.163636E+0	1.170129E+0	1.159109E+0	1.118276E+0	1.132868E+0	1.181856E+0	1.097616E+0	1.124179E+0	1.155341E+0	1.178229E+0	1.119494E+0	1.156298E+0	1.203378E+0	1.131448E+0	1.152683E+0	1.169653E+0	1.133540E+0	1.183808E+0	1.160692E+0	1.148922E+0	1.140431E+0	1.182096E+0	1.124353E+0	1.153291E+0	1.093360E+0	1.178242E+0	1.137630E+0	1.127269E+0	1.175651E+0	1.162323E+0	1.159953E+0	1.130932E+0	1.106612E+0	1.165216E+0	1.195538E+0	1.133057E+0	1.108426E+0	1.156520E+0	1.156036E+0	1.125559E+0	1.163686E+0	1.157739E+0	1.208437E+0	1.165304E+0	1.195926E+0	1.172338E+0	1.128322E+0	1.149144E+0	1.142793E+0	1.117374E+0	1.150995E+0	1.177064E+0	1.237471E+0	1.085311E+0	1.105314E+0	1.163917E+0	1.163824E+0	1.162918E+0	1.136440E+0	1.133998E+0	1.214807E+0	1.165026E+0	1.222953E+0	1.221760E+0	1.068432E+0	1.178944E+0	1.153086E+0	1.207850E+0	1.162931E+0	1.157670E+0	1.150325E+0	1.186525E+0	1.182017E+0	1.161981E+0	1.136211E+0	1.187785E+0	1.209331E+0	1.169764E+0	1.148987E+0	1.184618E+0	1.153491E+0	1.150993E+0	1.123469E+0	1.127860E+0	1.175508E+0	1.180386E+0	1.142026E+0	1.176504E+0	1.205153E+0	1.122356E+0	1.096796E+0	1.183869E+0	1.188609E+0	1.162123E+0	1.203623E+0	1.154763E+0	1.172550E+0	1.113957E+0
5.432700E+2	1.306407E+0	1.297625E+0	1.342081E+0	1.284048E+0	1.265183E+0	1.290327E+0	1.328567E+0	1.314618E+0	1.342567E+0	1.278294E+0	1.249157E+0	1.283579E+0	1.300383E+0	1.321432E+0	1.305290E+0	1.276064E+0	1.313527E+0	1.293881E+0	1.316797E+0	1.306960E+0	1.330529E+0	1.283470E+0	1.264523E+0	1.250399E+0	1.359898E+0	1.261172E+0	1.302665E+0	1.274039E+0	1.320223E+0	1.329940E+0	1.339800E+0	1.283485E+0	1.367223E+0	1.319170E+0	1.315503E+0	1.326759E+0	1.316475E+0	1.389794E+0	1.323962E+0	1.299321E+0	1.283044E+0	1.321044E+0	1.315372E+0	1.316281E+0	1.275427E+0	1.323489E+0	1.288159E+0	1.261357E+0	1.323659E+0	1.246222E+0	1.291701E+0	1.261623E+0	1.258972E+0	1.325597E+0	1.311113E+0	1.330139E+0	1.314595E+0	1.313889E+0	1.327257E+0	1.325161E+0	1.303287E+0	1.315590E+0	1.252966E+0	1.314638E+0	1.287444E+0	1.325932E+0	1.293872E+0	1.283763E+0	1.274640E+0	1.331777E+0	1.267458E+0	1.282031E+0	1.302848E+0	1.313379E+0	1.348467E+0	1.340698E+0	1.290403E+0	1.290887E+0	1.279106E+0	1.312376E+0	1.317512E+0	1.286058E+0	1.315038E+0	1.313916E+0	1.280326E+0	1.324852E+0	1.324724E+0	1.314824E+0	1.257840E+0	1.285972E+0	1.239509E+0	1.314367E+0	1.330327E+0	1.289590E+0	1.298658E+0	1.297817E+0	1.330098E+0	1.270027E+0	1.280884E+0	1.350210E+0	1.307936E+0	1.323394E+0	1.312463E+0	1.305089E+0	1.242489E+0	1.257401E+0	1.287329E+0	1.267979E+0	1.361421E+0	1.275173E+0	1.308579E+0	1.305175E+0	1.311435E+0	1.234502E+0	1.302832E+0	1.277192E+0	1.287046E+0	1.323942E+0	1.300172E+0	1.272114E+0	1.324456E+0	1.286724E+0	1.257847E+0	1.279983E+0	1.340267E+0	1.310592E+0	1.294389E+0	1.256076E+0	1.258070E+0	1.262642E+0	1.235974E+0	1.336921E+0	1.286130E+0	1.293054E+0	1.329134E+0	1.284478E+0	1.295278E+0	1.224382E+0	1.348039E+0	1.335648E+0	1.252730E+0	1.252700E+0	1.261550E+0	1.264859E+0	1.283116E+0	1.236180E+0	1.271378E+0	1.287721E+0	1.303289E+0	1.245769E+0	1.337649E+0	1.302157E+0	1.236602E+0	1.296199E+0	1.290918E+0	1.316659E+0	1.310139E+0	1.288122E+0	1.268419E+0	1.303701E+0	1.292784E+0	1.349624E+0	1.257777E+0	1.270320E+0	1.282063E+0	1.336287E+0	1.315655E+0	1.316745E+0	1.300955E+0	1.310825E+0	1.204059E+0	1.327098E+0
5.435330E+2	1.476616E+0	1.465684E+0	1.520913E+0	1.487580E+0	1.438025E+0	1.484780E+0	1.478326E+0	1.515012E+0	1.474046E+0	1.495903E+0	1.507830E+0	1.456996E+0	1.498740E+0	1.460813E+0	1.458350E+0	1.464429E+0	1.463834E+0	1.483274E+0	1.472349E+0	1.431815E+0	1.528896E+0	1.482458E+0	1.504368E+0	1.476485E+0	1.512167E+0	1.483113E+0	1.502070E+0	1.482982E+0	1.498345E+0	1.426523E+0	1.452421E+0	1.501110E+0	1.494019E+0	1.466980E+0	1.500678E+0	1.491798E+0	1.502306E+0	1.500954E+0	1.467931E+0	1.483090E+0	1.448726E+0	1.465615E+0	1.492901E+0	1.456640E+0	1.490648E+0	1.494204E+0	1.534044E+0	1.497915E+0	1.481707E+0	1.494675E+0	1.488557E+0	1.463282E+0	1.447351E+0	1.538474E+0	1.450102E+0	1.472703E+0	1.523778E+0	1.471085E+0	1.479903E+0	1.518978E+0	1.442894E+0	1.467201E+0	1.462392E+0	1.512529E+0	1.490069E+0	1.448548E+0	1.472276E+0	1.478321E+0	1.422715E+0	1.526300E+0	1.505329E+0	1.483415E+0	1.530743E+0	1.496091E+0	1.558572E+0	1.478854E+0	1.451538E+0	1.449547E+0	1.475607E+0	1.450993E+0	1.474769E+0	1.528070E+0	1.486133E+0	1.480812E+0	1.498577E+0	1.548731E+0	1.451594E+0	1.490216E+0	1.447374E+0	1.479625E+0	1.444092E+0	1.450422E+0	1.478929E+0	1.454610E+0	1.475243E+0	1.481513E+0	1.483803E+0	1.480586E+0	1.443049E+0	1.534646E+0	1.455797E+0	1.497465E+0	1.473495E+0	1.519780E+0	1.442288E+0	1.452628E+0	1.478814E+0	1.503158E+0	1.453011E+0	1.502725E+0	1.461072E+0	1.448895E+0	1.500363E+0	1.469724E+0	1.475828E+0	1.492425E+0	1.469696E+0	1.443902E+0	1.528981E+0	1.430414E+0	1.490454E+0	1.435080E+0	1.489004E+0	1.485814E+0	1.466286E+0	1.494757E+0	1.520979E+0	1.437869E+0	1.464647E+0	1.503727E+0	1.451432E+0	1.386490E+0	1.466465E+0	1.488219E+0	1.418669E+0	1.487083E+0	1.437323E+0	1.453793E+0	1.455141E+0	1.399521E+0	1.497766E+0	1.460450E+0	1.437408E+0	1.470507E+0	1.419545E+0	1.448044E+0	1.515981E+0	1.435751E+0	1.476587E+0	1.477189E+0	1.521013E+0	1.488219E+0	1.490269E+0	1.494702E+0	1.408412E+0	1.416236E+0	1.491230E+0	1.462138E+0	1.466352E+0	1.416797E+0	1.443955E+0	1.497429E+0	1.426084E+0	1.463783E+0	1.467058E+0	1.482657E+0	1.508181E+0	1.477636E+0	1.378488E+0	1.480843E+0	1.415838E+0	1.336858E+0
5.437530E+2	1.619591E+0	1.568436E+0	1.545990E+0	1.533256E+0	1.547302E+0	1.519629E+0	1.597686E+0	1.555010E+0	1.563664E+0	1.569674E+0	1.568050E+0	1.550158E+0	1.590598E+0	1.587879E+0	1.546039E+0	1.596720E+0	1.592984E+0	1.623148E+0	1.568427E+0	1.535923E+0	1.604600E+0	1.549740E+0	1.524808E+0	1.554104E+0	1.559361E+0	1.575314E+0	1.572651E+0	1.553090E+0	1.606431E+0	1.572596E+0	1.522849E+0	1.579075E+0	1.570160E+0	1.532305E+0	1.619605E+0	1.581311E+0	1.532822E+0	1.574650E+0	1.571888E+0	1.566739E+0	1.589155E+0	1.520199E+0	1.562129E+0	1.566093E+0	1.573844E+0	1.521185E+0	1.580359E+0	1.552190E+0	1.591330E+0	1.549908E+0	1.548487E+0	1.583144E+0	1.518166E+0	1.588980E+0	1.555230E+0	1.568704E+0	1.595957E+0	1.540231E+0	1.559184E+0	1.666510E+0	1.569677E+0	1.612416E+0	1.534869E+0	1.622032E+0	1.542231E+0	1.532044E+0	1.540485E+0	1.509021E+0	1.546362E+0	1.549585E+0	1.535474E+0	1.582718E+0	1.520821E+0	1.503110E+0	1.572775E+0	1.559331E+0	1.597409E+0	1.470636E+0	1.530622E+0	1.572501E+0	1.621405E+0	1.581494E+0	1.595754E+0	1.522620E+0	1.563812E+0	1.524563E+0	1.579379E+0	1.578855E+0	1.533034E+0	1.555679E+0	1.500975E+0	1.537130E+0	1.563655E+0	1.538404E+0	1.533631E+0	1.553586E+0	1.583324E+0	1.516863E+0	1.464876E+0	1.554953E+0	1.565101E+0	1.540184E+0	1.510000E+0	1.581444E+0	1.596201E+0	1.541193E+0	1.528706E+0	1.606395E+0	1.571297E+0	1.542170E+0	1.484699E+0	1.565546E+0	1.523662E+0	1.543093E+0	1.529759E+0	1.538390E+0	1.579216E+0	1.548118E+0	1.532922E+0	1.571778E+0	1.563315E+0	1.592940E+0	1.567341E+0	1.564385E+0	1.559481E+0	1.530870E+0	1.600418E+0	1.577599E+0	1.580837E+0	1.592457E+0	1.572552E+0	1.558524E+0	1.539042E+0	1.542194E+0	1.508076E+0	1.570173E+0	1.557962E+0	1.517411E+0	1.510248E+0	1.639636E+0	1.536195E+0	1.563126E+0	1.534105E+0	1.499502E+0	1.509107E+0	1.518967E+0	1.523046E+0	1.536727E+0	1.513465E+0	1.576220E+0	1.607294E+0	1.568857E+0	1.531322E+0	1.571754E+0	1.588616E+0	1.576729E+0	1.446356E+0	1.526483E+0	1.504162E+0	1.504941E+0	1.544977E+0	1.557594E+0	1.559205E+0	1.465896E+0	1.503461E+0	1.518492E+0	1.525053E+0	1.522560E+0	1.521503E+0	1.507340E+0	1.582955E+0	1.682800E+0
5.440220E+2	1.633055E+0	1.659204E+0	1.664127E+0	1.633480E+0	1.599144E+0	1.641117E+0	1.610108E+0	1.668485E+0	1.650829E+0	1.595757E+0	1.576001E+0	1.607369E+0	1.575345E+0	1.603517E+0	1.627018E+0	1.648978E+0	1.641969E+0	1.552718E+0	1.622344E+0	1.608597E+0	1.609459E+0	1.595498E+0	1.658403E+0	1.655253E+0	1.635140E+0	1.571323E+0	1.634632E+0	1.595621E+0	1.615300E+0	1.650492E+0	1.618319E+0	1.627843E+0	1.570877E+0	1.534450E+0	1.667628E+0	1.594265E+0	1.638264E+0	1.659937E+0	1.589810E+0	1.631833E+0	1.596914E+0	1.551681E+0	1.601336E+0	1.560174E+0	1.592622E+0	1.631186E+0	1.559083E+0	1.588461E+0	1.625878E+0	1.539865E+0	1.575924E+0	1.665768E+0	1.588706E+0	1.607840E+0	1.643988E+0	1.650886E+0	1.603630E+0	1.590310E+0	1.599878E+0	1.644336E+0	1.621163E+0	1.616315E+0	1.622873E+0	1.589932E+0	1.614251E+0	1.617699E+0	1.641039E+0	1.532017E+0	1.590200E+0	1.568484E+0	1.671512E+0	1.660487E+0	1.562145E+0	1.603514E+0	1.630662E+0	1.606810E+0	1.620780E+0	1.531483E+0	1.646223E+0	1.585589E+0	1.642445E+0	1.601458E+0	1.639797E+0	1.599992E+0	1.573402E+0	1.538722E+0	1.616056E+0	1.617240E+0	1.572559E+0	1.602085E+0	1.548957E+0	1.567907E+0	1.617432E+0	1.550018E+0	1.634816E+0	1.593443E+0	1.634631E+0	1.596753E+0	1.579951E+0	1.603343E+0	1.622707E+0	1.584157E+0	1.584847E+0	1.597633E+0	1.629515E+0	1.582152E+0	1.536794E+0	1.653901E+0	1.655523E+0	1.550746E+0	1.580862E+0	1.639822E+0	1.606522E+0	1.617574E+0	1.582503E+0	1.547320E+0	1.597414E+0	1.551646E+0	1.546315E+0	1.575155E+0	1.593353E+0	1.524397E+0	1.601717E+0	1.537847E+0	1.596851E+0	1.572471E+0	1.572039E+0	1.586181E+0	1.607684E+0	1.577848E+0	1.605623E+0	1.588684E+0	1.561035E+0	1.587037E+0	1.572274E+0	1.603034E+0	1.553244E+0	1.597599E+0	1.544789E+0	1.594377E+0	1.527893E+0	1.594108E+0	1.533947E+0	1.589798E+0	1.609325E+0	1.598556E+0	1.603834E+0	1.523889E+0	1.578040E+0	1.574067E+0	1.601257E+0	1.605920E+0	1.542366E+0	1.586550E+0	1.568087E+0	1.532045E+0	1.595222E+0	1.583125E+0	1.626983E+0	1.549732E+0	1.560435E+0	1.588799E+0	1.559081E+0	1.578709E+0	1.591230E+0	1.632997E+0	1.564121E+0	1.579546E+0	1.612284E+0	1.533743E+0	1.541290E+0	1.618609E+0
5.442700E+2	1.609831E+0	1.654238E+0	1.669130E+0	1.599707E+0	1.642307E+0	1.665732E+0	1.574297E+0	1.646068E+0	1.602223E+0	1.582377E+0	1.633611E+0	1.640945E+0	1.650526E+0	1.595107E+0	1.624258E+0	1.607963E+0	1.619580E+0	1.584348E+0	1.639206E+0	1.623262E+0	1.647260E+0	1.631091E+0	1.612063E+0	1.579684E+0	1.620770E+0	1.561535E+0	1.584740E+0	1.599390E+0	1.626762E+0	1.604645E+0	1.609214E+0	1.593656E+0	1.586033E+0	1.592671E+0	1.590292E+0	1.593606E+0	1.588961E+0	1.606051E+0	1.604403E+0	1.665503E+0	1.620906E+0	1.628102E+0	1.662592E+0	1.598084E+0	1.581576E+0	1.623133E+0	1.619997E+0	1.593831E+0	1.659125E+0	1.556921E+0	1.619257E+0	1.590671E+0	1.624573E+0	1.571982E+0	1.637814E+0	1.643774E+0	1.560638E+0	1.620224E+0	1.615288E+0	1.622183E+0	1.589737E+0	1.561757E+0	1.639032E+0	1.567480E+0	1.546204E+0	1.622203E+0	1.617256E+0	1.564115E+0	1.553555E+0	1.570117E+0	1.569518E+0	1.620015E+0	1.605382E+0	1.617354E+0	1.625287E+0	1.582712E+0	1.651736E+0	1.556018E+0	1.574413E+0	1.623893E+0	1.618665E+0	1.610213E+0	1.698581E+0	1.603314E+0	1.580029E+0	1.635703E+0	1.664364E+0	1.575235E+0	1.570471E+0	1.608085E+0	1.631707E+0	1.624547E+0	1.629246E+0	1.573678E+0	1.586789E+0	1.594335E+0	1.695975E+0	1.530783E+0	1.641759E+0	1.655695E+0	1.635017E+0	1.613755E+0	1.568008E+0	1.639309E+0	1.623392E+0	1.542469E+0	1.611880E+0	1.586350E+0	1.587961E+0	1.618400E+0	1.520083E+0	1.633035E+0	1.582819E+0	1.558256E+0	1.605253E+0	1.597283E+0	1.623170E+0	1.522016E+0	1.622183E+0	1.587655E+0	1.589175E+0	1.579771E+0	1.594588E+0	1.522780E+0	1.563688E+0	1.617601E+0	1.611148E+0	1.601310E+0	1.573636E+0	1.541043E+0	1.609871E+0	1.617506E+0	1.542874E+0	1.536495E+0	1.628655E+0	1.603689E+0	1.585662E+0	1.598438E+0	1.581678E+0	1.594688E+0	1.593875E+0	1.571803E+0	1.606035E+0	1.603735E+0	1.564939E+0	1.584449E+0	1.622877E+0	1.562438E+0	1.603604E+0	1.600445E+0	1.646345E+0	1.549029E+0	1.593389E+0	1.585383E+0	1.624555E+0	1.631053E+0	1.552171E+0	1.554837E+0	1.605897E+0	1.611192E+0	1.568251E+0	1.502333E+0	1.625867E+0	1.604408E+0	1.552574E+0	1.594057E+0	1.541841E+0	1.642282E+0	1.525210E+0	1.616883E+0	1.589291E+0	1.473057E+0
5.445180E+2	1.599853E+0	1.555463E+0	1.662817E+0	1.608805E+0	1.506745E+0	1.591874E+0	1.615709E+0	1.604712E+0	1.559904E+0	1.604771E+0	1.602062E+0	1.574317E+0	1.558825E+0	1.591899E+0	1.543928E+0	1.572522E+0	1.572748E+0	1.621976E+0	1.562407E+0	1.552176E+0	1.575310E+0	1.574107E+0	1.549330E+0	1.530556E+0	1.577807E+0	1.575831E+0	1.611918E+0	1.557346E+0	1.648227E+0	1.586598E+0	1.567535E+0	1.580457E+0	1.626968E+0	1.508489E+0	1.661216E+0	1.594904E+0	1.606203E+0	1.624838E+0	1.565298E+0	1.597656E+0	1.545117E+0	1.580152E+0	1.552190E+0	1.527749E+0	1.592396E+0	1.576561E+0	1.593792E+0	1.592905E+0	1.605949E+0	1.511492E+0	1.602638E+0	1.615011E+0	1.554324E+0	1.591121E+0	1.589612E+0	1.616173E+0	1.562555E+0	1.537417E+0	1.586147E+0	1.582551E+0	1.545048E+0	1.589319E+0	1.552078E+0	1.534476E+0	1.617214E+0	1.591752E+0	1.618532E+0	1.547016E+0	1.604833E+0	1.552087E+0	1.606974E+0	1.613543E+0	1.530078E+0	1.569081E+0	1.616487E+0	1.594047E+0	1.599925E+0	1.592067E+0	1.534731E+0	1.548853E+0	1.629302E+0	1.600825E+0	1.527490E+0	1.590774E+0	1.578476E+0	1.525981E+0	1.598018E+0	1.542807E+0	1.516774E+0	1.552074E+0	1.564055E+0	1.565329E+0	1.526128E+0	1.565534E+0	1.548772E+0	1.522557E+0	1.610467E+0	1.577091E+0	1.543499E+0	1.517971E+0	1.610719E+0	1.540378E+0	1.620141E+0	1.506958E+0	1.543069E+0	1.577780E+0	1.547560E+0	1.592631E+0	1.583197E+0	1.585096E+0	1.572319E+0	1.580836E+0	1.576734E+0	1.538757E+0	1.584592E+0	1.562922E+0	1.602506E+0	1.485416E+0	1.602363E+0	1.549091E+0	1.545861E+0	1.552464E+0	1.597503E+0	1.558476E+0	1.564930E+0	1.591883E+0	1.548439E+0	1.555026E+0	1.576382E+0	1.559172E+0	1.591299E+0	1.554038E+0	1.537483E+0	1.584130E+0	1.567972E+0	1.612518E+0	1.522508E+0	1.550735E+0	1.574839E+0	1.551611E+0	1.534044E+0	1.546967E+0	1.497078E+0	1.549219E+0	1.540131E+0	1.585732E+0	1.548201E+0	1.553700E+0	1.530820E+0	1.570251E+0	1.584305E+0	1.579705E+0	1.532051E+0	1.508235E+0	1.537473E+0	1.540646E+0	1.506302E+0	1.538372E+0	1.552550E+0	1.536294E+0	1.576558E+0	1.490922E+0	1.600586E+0	1.556671E+0	1.533538E+0	1.562950E+0	1.585452E+0	1.551652E+0	1.452367E+0	1.563058E+0	1.557251E+0	1.552618E+0
5.447720E+2	1.486638E+0	1.477058E+0	1.497216E+0	1.452521E+0	1.462219E+0	1.531424E+0	1.535696E+0	1.504963E+0	1.520393E+0	1.451006E+0	1.456949E+0	1.498155E+0	1.463888E+0	1.496677E+0	1.506625E+0	1.477252E+0	1.480357E+0	1.462203E+0	1.560963E+0	1.525015E+0	1.500362E+0	1.424210E+0	1.489884E+0	1.462755E+0	1.518239E+0	1.507507E+0	1.458273E+0	1.506564E+0	1.526805E+0	1.475867E+0	1.514483E+0	1.475623E+0	1.498124E+0	1.468719E+0	1.489966E+0	1.496183E+0	1.487710E+0	1.488455E+0	1.461762E+0	1.497343E+0	1.509703E+0	1.506123E+0	1.462501E+0	1.464800E+0	1.445951E+0	1.461861E+0	1.434526E+0	1.472744E+0	1.502909E+0	1.451230E+0	1.477555E+0	1.510879E+0	1.475041E+0	1.418710E+0	1.499947E+0	1.536809E+0	1.515462E+0	1.446805E+0	1.467040E+0	1.490104E+0	1.460030E+0	1.492417E+0	1.485407E+0	1.499638E+0	1.484342E+0	1.457271E+0	1.523222E+0	1.435237E+0	1.425901E+0	1.488850E+0	1.486711E+0	1.549807E+0	1.480480E+0	1.422464E+0	1.513399E+0	1.455298E+0	1.462539E+0	1.420296E+0	1.488018E+0	1.499700E+0	1.511276E+0	1.486313E+0	1.500474E+0	1.454881E+0	1.442774E+0	1.480205E+0	1.514858E+0	1.478495E+0	1.467458E+0	1.406915E+0	1.493734E+0	1.477346E+0	1.467247E+0	1.411085E+0	1.458446E+0	1.488855E+0	1.510070E+0	1.491964E+0	1.476726E+0	1.513420E+0	1.464242E+0	1.436797E+0	1.477348E+0	1.527914E+0	1.448778E+0	1.483343E+0	1.411393E+0	1.484165E+0	1.495326E+0	1.420866E+0	1.460411E+0	1.490261E+0	1.493487E+0	1.408997E+0	1.455786E+0	1.484830E+0	1.503181E+0	1.438277E+0	1.464896E+0	1.448373E+0	1.465406E+0	1.475414E+0	1.415739E+0	1.463939E+0	1.498890E+0	1.505830E+0	1.485768E+0	1.446920E+0	1.523599E+0	1.512992E+0	1.420070E+0	1.489014E+0	1.454270E+0	1.442348E+0	1.444617E+0	1.449171E+0	1.453001E+0	1.428034E+0	1.460527E+0	1.506287E+0	1.438796E+0	1.488774E+0	1.435868E+0	1.451455E+0	1.446555E+0	1.469582E+0	1.474805E+0	1.407465E+0	1.488240E+0	1.474507E+0	1.603066E+0	1.450328E+0	1.412912E+0	1.443996E+0	1.502375E+0	1.440746E+0	1.404735E+0	1.421979E+0	1.507854E+0	1.477719E+0	1.488326E+0	1.464264E+0	1.417250E+0	1.442659E+0	1.441425E+0	1.468967E+0	1.519615E+0	1.464791E+0	1.403929E+0	1.459374E+0	1.512454E+0	1.455820E+0
5.450090E+2	1.353477E+0	1.368084E+0	1.377659E+0	1.370413E+0	1.343035E+0	1.406647E+0	1.335850E+0	1.386108E+0	1.396144E+0	1.360093E+0	1.346043E+0	1.329070E+0	1.352956E+0	1.403108E+0	1.393896E+0	1.375147E+0	1.409787E+0	1.364037E+0	1.368488E+0	1.362722E+0	1.340451E+0	1.345996E+0	1.397194E+0	1.341863E+0	1.373701E+0	1.356550E+0	1.389336E+0	1.332419E+0	1.397806E+0	1.340893E+0	1.345907E+0	1.382508E+0	1.443287E+0	1.345179E+0	1.414863E+0	1.350024E+0	1.376947E+0	1.400941E+0	1.378587E+0	1.352618E+0	1.339486E+0	1.327266E+0	1.402017E+0	1.427780E+0	1.378770E+0	1.312741E+0	1.390866E+0	1.392381E+0	1.356904E+0	1.356740E+0	1.346755E+0	1.374512E+0	1.392913E+0	1.358976E+0	1.363505E+0	1.392112E+0	1.370823E+0	1.350378E+0	1.370878E+0	1.435586E+0	1.357814E+0	1.353506E+0	1.363267E+0	1.371368E+0	1.304531E+0	1.311926E+0	1.353781E+0	1.341663E+0	1.354467E+0	1.393221E+0	1.384303E+0	1.349453E+0	1.336921E+0	1.347928E+0	1.352638E+0	1.361161E+0	1.300328E+0	1.325279E+0	1.354369E+0	1.354826E+0	1.398143E+0	1.340769E+0	1.300471E+0	1.322304E+0	1.359179E+0	1.324897E+0	1.384855E+0	1.374307E+0	1.370548E+0	1.353805E+0	1.392553E+0	1.369346E+0	1.391591E+0	1.279794E+0	1.290866E+0	1.372337E+0	1.422998E+0	1.293048E+0	1.355274E+0	1.319260E+0	1.392389E+0	1.361130E+0	1.365126E+0	1.390947E+0	1.337088E+0	1.321522E+0	1.264625E+0	1.338465E+0	1.360310E+0	1.364393E+0	1.346755E+0	1.401184E+0	1.337165E+0	1.300925E+0	1.356466E+0	1.355653E+0	1.445641E+0	1.315128E+0	1.462047E+0	1.375542E+0	1.368851E+0	1.354707E+0	1.336205E+0	1.366798E+0	1.404959E+0	1.346583E+0	1.360347E+0	1.348147E+0	1.320056E+0	1.335008E+0	1.276817E+0	1.357355E+0	1.364622E+0	1.315446E+0	1.413290E+0	1.396628E+0	1.346090E+0	1.310724E+0	1.384818E+0	1.299114E+0	1.321629E+0	1.328025E+0	1.323942E+0	1.313662E+0	1.394579E+0	1.385662E+0	1.354748E+0	1.298327E+0	1.325393E+0	1.370491E+0	1.339796E+0	1.376309E+0	1.332024E+0	1.341508E+0	1.294779E+0	1.369506E+0	1.330713E+0	1.361944E+0	1.351184E+0	1.341439E+0	1.359207E+0	1.315279E+0	1.393826E+0	1.376165E+0	1.370658E+0	1.352222E+0	1.363511E+0	1.313507E+0	1.378966E+0	1.321350E+0	1.363081E+0	1.472038E+0
5.452690E+2	1.346015E+0	1.289972E+0	1.269010E+0	1.285729E+0	1.354420E+0	1.325234E+0	1.333934E+0	1.354762E+0	1.291600E+0	1.332248E+0	1.285657E+0	1.369808E+0	1.339480E+0	1.320000E+0	1.320880E+0	1.285590E+0	1.295271E+0	1.319079E+0	1.326775E+0	1.353529E+0	1.320967E+0	1.283790E+0	1.351394E+0	1.353557E+0	1.319846E+0	1.263800E+0	1.327502E+0	1.303168E+0	1.323160E+0	1.363973E+0	1.343453E+0	1.346881E+0	1.310579E+0	1.279578E+0	1.367523E+0	1.280299E+0	1.372073E+0	1.347437E+0	1.354568E+0	1.279639E+0	1.295608E+0	1.356421E+0	1.302050E+0	1.277077E+0	1.315060E+0	1.331407E+0	1.329519E+0	1.315971E+0	1.319030E+0	1.302793E+0	1.379559E+0	1.339673E+0	1.278286E+0	1.319553E+0	1.327873E+0	1.326841E+0	1.328578E+0	1.317739E+0	1.290153E+0	1.307557E+0	1.282433E+0	1.343065E+0	1.273242E+0	1.332347E+0	1.348923E+0	1.305193E+0	1.321525E+0	1.308544E+0	1.312606E+0	1.359028E+0	1.319775E+0	1.322512E+0	1.305073E+0	1.268343E+0	1.344988E+0	1.287928E+0	1.319959E+0	1.302893E+0	1.351465E+0	1.305405E+0	1.318218E+0	1.324449E+0	1.323751E+0	1.324772E+0	1.278881E+0	1.291863E+0	1.332059E+0	1.346750E+0	1.317490E+0	1.287423E+0	1.285007E+0	1.289234E+0	1.316275E+0	1.283083E+0	1.280672E+0	1.301570E+0	1.373384E+0	1.277450E+0	1.351510E+0	1.302532E+0	1.350976E+0	1.287854E+0	1.345516E+0	1.329432E+0	1.310457E+0	1.298366E+0	1.274648E+0	1.325371E+0	1.326063E+0	1.323415E+0	1.289731E+0	1.327484E+0	1.232187E+0	1.309948E+0	1.357858E+0	1.277046E+0	1.312805E+0	1.298066E+0	1.349336E+0	1.310200E+0	1.288758E+0	1.285204E+0	1.351281E+0	1.327282E+0	1.315384E+0	1.343441E+0	1.285701E+0	1.309840E+0	1.330638E+0	1.316830E+0	1.334198E+0	1.314286E+0	1.329513E+0	1.303612E+0	1.357243E+0	1.316311E+0	1.282459E+0	1.282510E+0	1.260958E+0	1.346254E+0	1.296345E+0	1.312162E+0	1.329337E+0	1.327114E+0	1.255161E+0	1.321605E+0	1.349818E+0	1.305965E+0	1.260115E+0	1.311566E+0	1.362647E+0	1.300874E+0	1.318858E+0	1.258134E+0	1.281494E+0	1.304323E+0	1.306644E+0	1.338199E+0	1.316047E+0	1.282399E+0	1.311918E+0	1.345499E+0	1.327570E+0	1.303280E+0	1.320752E+0	1.310931E+0	1.348093E+0	1.320956E+0	1.289991E+0	1.249561E+0	1.319303E+0	1.260740E+0
5.455180E+2	1.311907E+0	1.249825E+0	1.320822E+0	1.315884E+0	1.288733E+0	1.278319E+0	1.264408E+0	1.233328E+0	1.312841E+0	1.264150E+0	1.289610E+0	1.280398E+0	1.228287E+0	1.268226E+0	1.281358E+0	1.248587E+0	1.278140E+0	1.235886E+0	1.261273E+0	1.261181E+0	1.295633E+0	1.260115E+0	1.289816E+0	1.243627E+0	1.321746E+0	1.300762E+0	1.252167E+0	1.278860E+0	1.341476E+0	1.246454E+0	1.288340E+0	1.288426E+0	1.274263E+0	1.259291E+0	1.258130E+0	1.265649E+0	1.268462E+0	1.317498E+0	1.303046E+0	1.304096E+0	1.266382E+0	1.229020E+0	1.282544E+0	1.230780E+0	1.273018E+0	1.271322E+0	1.285432E+0	1.282522E+0	1.323502E+0	1.263393E+0	1.265275E+0	1.291262E+0	1.305710E+0	1.269817E+0	1.301119E+0	1.277778E+0	1.248625E+0	1.284632E+0	1.235626E+0	1.358731E+0	1.229765E+0	1.276326E+0	1.280777E+0	1.296305E+0	1.276299E+0	1.276753E+0	1.243208E+0	1.255809E+0	1.231111E+0	1.260907E+0	1.345952E+0	1.290977E+0	1.255535E+0	1.291727E+0	1.306666E+0	1.334358E+0	1.217676E+0	1.272761E+0	1.291876E+0	1.260519E+0	1.289638E+0	1.268199E+0	1.246068E+0	1.220264E+0	1.258680E+0	1.248947E+0	1.337494E+0	1.232828E+0	1.222005E+0	1.274314E+0	1.300303E+0	1.302464E+0	1.283188E+0	1.287475E+0	1.291633E+0	1.254110E+0	1.304303E+0	1.222448E+0	1.295013E+0	1.235252E+0	1.314608E+0	1.224361E+0	1.320269E+0	1.317976E+0	1.214170E+0	1.269443E+0	1.296630E+0	1.320990E+0	1.310365E+0	1.234766E+0	1.257839E+0	1.270694E+0	1.271549E+0	1.256776E+0	1.251457E+0	1.189593E+0	1.287804E+0	1.305835E+0	1.362486E+0	1.287697E+0	1.306873E+0	1.264957E+0	1.283331E+0	1.294850E+0	1.237699E+0	1.240084E+0	1.253414E+0	1.211198E+0	1.292013E+0	1.222016E+0	1.270098E+0	1.367859E+0	1.240409E+0	1.248459E+0	1.261106E+0	1.270235E+0	1.246278E+0	1.273992E+0	1.256472E+0	1.262281E+0	1.268969E+0	1.263148E+0	1.279588E+0	1.269581E+0	1.201348E+0	1.281100E+0	1.257432E+0	1.254590E+0	1.274012E+0	1.284112E+0	1.300515E+0	1.283028E+0	1.269362E+0	1.251338E+0	1.253328E+0	1.293721E+0	1.290154E+0	1.203536E+0	1.256730E+0	1.275773E+0	1.275351E+0	1.273891E+0	1.293587E+0	1.268032E+0	1.290119E+0	1.240687E+0	1.293029E+0	1.301235E+0	1.259035E+0	1.249073E+0	1.269196E+0	1.536680E+0
5.457560E+2	1.210928E+0	1.188394E+0	1.207949E+0	1.194349E+0	1.229539E+0	1.223575E+0	1.208528E+0	1.282105E+0	1.166513E+0	1.199059E+0	1.184787E+0	1.249957E+0	1.226209E+0	1.217208E+0	1.175744E+0	1.188837E+0	1.272589E+0	1.174556E+0	1.213700E+0	1.174708E+0	1.215246E+0	1.207937E+0	1.217211E+0	1.194079E+0	1.215091E+0	1.228349E+0	1.188334E+0	1.200258E+0	1.215263E+0	1.216257E+0	1.200985E+0	1.149191E+0	1.261844E+0	1.188078E+0	1.204621E+0	1.230949E+0	1.178361E+0	1.231495E+0	1.248592E+0	1.279316E+0	1.276291E+0	1.229663E+0	1.206833E+0	1.250862E+0	1.288381E+0	1.162108E+0	1.184413E+0	1.235800E+0	1.221539E+0	1.189037E+0	1.195085E+0	1.201351E+0	1.244671E+0	1.208692E+0	1.212520E+0	1.212392E+0	1.277589E+0	1.234810E+0	1.181278E+0	1.189781E+0	1.191061E+0	1.221354E+0	1.200882E+0	1.237259E+0	1.207026E+0	1.190609E+0	1.200935E+0	1.194266E+0	1.151597E+0	1.193004E+0	1.187418E+0	1.187941E+0	1.205785E+0	1.210881E+0	1.210952E+0	1.247006E+0	1.192600E+0	1.154807E+0	1.195991E+0	1.235747E+0	1.243848E+0	1.209991E+0	1.199907E+0	1.174645E+0	1.197470E+0	1.190809E+0	1.171217E+0	1.217412E+0	1.180798E+0	1.244334E+0	1.186454E+0	1.204685E+0	1.236997E+0	1.192143E+0	1.197357E+0	1.174853E+0	1.196723E+0	1.186176E+0	1.145511E+0	1.206772E+0	1.206870E+0	1.198127E+0	1.223934E+0	1.222695E+0	1.246382E+0	1.200504E+0	1.151414E+0	1.268931E+0	1.262090E+0	1.227613E+0	1.148828E+0	1.255669E+0	1.155260E+0	1.141441E+0	1.177456E+0	1.221788E+0	1.185506E+0	1.225997E+0	1.185147E+0	1.228376E+0	1.229751E+0	1.229475E+0	1.222980E+0	1.158204E+0	1.205950E+0	1.175575E+0	1.171922E+0	1.210418E+0	1.202525E+0	1.217691E+0	1.223816E+0	1.203510E+0	1.177480E+0	1.234003E+0	1.220223E+0	1.279884E+0	1.211048E+0	1.188922E+0	1.203260E+0	1.248288E+0	1.208809E+0	1.191695E+0	1.187561E+0	1.165968E+0	1.171274E+0	1.257379E+0	1.237216E+0	1.223256E+0	1.192462E+0	1.197719E+0	1.236805E+0	1.239799E+0	1.183737E+0	1.186560E+0	1.236673E+0	1.191877E+0	1.265343E+0	1.230234E+0	1.232746E+0	1.213942E+0	1.204809E+0	1.187921E+0	1.185040E+0	1.205163E+0	1.187205E+0	1.199836E+0	1.184588E+0	1.210415E+0	1.208068E+0	1.200139E+0	1.223474E+0	1.197897E+0
5.460160E+2	1.292300E+0	1.196811E+0	1.168883E+0	1.180089E+0	1.250874E+0	1.247478E+0	1.232720E+0	1.270419E+0	1.210866E+0	1.236145E+0	1.189593E+0	1.205915E+0	1.234263E+0	1.240124E+0	1.221809E+0	1.270822E+0	1.202699E+0	1.219058E+0	1.239437E+0	1.205808E+0	1.252140E+0	1.207824E+0	1.186038E+0	1.213915E+0	1.196748E+0	1.164497E+0	1.197111E+0	1.231314E+0	1.219663E+0	1.204457E+0	1.199479E+0	1.259107E+0	1.303667E+0	1.246805E+0	1.248545E+0	1.317388E+0	1.236459E+0	1.255686E+0	1.193619E+0	1.240071E+0	1.218329E+0	1.204898E+0	1.202553E+0	1.189131E+0	1.250534E+0	1.201839E+0	1.198746E+0	1.213365E+0	1.195545E+0	1.199682E+0	1.242180E+0	1.215551E+0	1.255918E+0	1.228268E+0	1.236103E+0	1.269743E+0	1.229560E+0	1.262481E+0	1.221448E+0	1.265561E+0	1.205188E+0	1.212507E+0	1.171181E+0	1.216625E+0	1.235792E+0	1.178040E+0	1.213976E+0	1.254251E+0	1.163740E+0	1.206094E+0	1.191382E+0	1.231826E+0	1.203581E+0	1.219300E+0	1.273152E+0	1.237463E+0	1.255863E+0	1.198649E+0	1.258944E+0	1.170146E+0	1.231412E+0	1.225768E+0	1.226030E+0	1.199817E+0	1.193080E+0	1.197108E+0	1.275103E+0	1.248016E+0	1.225365E+0	1.206507E+0	1.240359E+0	1.224472E+0	1.205527E+0	1.226065E+0	1.226133E+0	1.211272E+0	1.244186E+0	1.220251E+0	1.245008E+0	1.248288E+0	1.242094E+0	1.196392E+0	1.201310E+0	1.218995E+0	1.205200E+0	1.185909E+0	1.198054E+0	1.266113E+0	1.220265E+0	1.222312E+0	1.175384E+0	1.227166E+0	1.242254E+0	1.229987E+0	1.277390E+0	1.211931E+0	1.217046E+0	1.179476E+0	1.219337E+0	1.233365E+0	1.213211E+0	1.204698E+0	1.206623E+0	1.232997E+0	1.267232E+0	1.213668E+0	1.224639E+0	1.163878E+0	1.258566E+0	1.218300E+0	1.203928E+0	1.227827E+0	1.211167E+0	1.214175E+0	1.209770E+0	1.160597E+0	1.225236E+0	1.199713E+0	1.156172E+0	1.234153E+0	1.183550E+0	1.188666E+0	1.185483E+0	1.239743E+0	1.238403E+0	1.237287E+0	1.231142E+0	1.253453E+0	1.190490E+0	1.176755E+0	1.303997E+0	1.228590E+0	1.183507E+0	1.183823E+0	1.222804E+0	1.210680E+0	1.165241E+0	1.150291E+0	1.220133E+0	1.232142E+0	1.256049E+0	1.196367E+0	1.192472E+0	1.200329E+0	1.163514E+0	1.256260E+0	1.233219E+0	1.252913E+0	1.146307E+0	1.224465E+0	1.229711E+0	1.119232E+0
5.467660E+2	1.274988E+0	1.215302E+0	1.256528E+0	1.252781E+0	1.237925E+0	1.264348E+0	1.241813E+0	1.265922E+0	1.249140E+0	1.253885E+0	1.282343E+0	1.321444E+0	1.267936E+0	1.247028E+0	1.216264E+0	1.267931E+0	1.273549E+0	1.235039E+0	1.212793E+0	1.229673E+0	1.247045E+0	1.245787E+0	1.258895E+0	1.293594E+0	1.268307E+0	1.251712E+0	1.193462E+0	1.245860E+0	1.319589E+0	1.256452E+0	1.208200E+0	1.259217E+0	1.280911E+0	1.224249E+0	1.228236E+0	1.299816E+0	1.276152E+0	1.241617E+0	1.248157E+0	1.274551E+0	1.268729E+0	1.261693E+0	1.250951E+0	1.193689E+0	1.268983E+0	1.243994E+0	1.230626E+0	1.250779E+0	1.278006E+0	1.288185E+0	1.245924E+0	1.272328E+0	1.206884E+0	1.275364E+0	1.255208E+0	1.289898E+0	1.246911E+0	1.249601E+0	1.243360E+0	1.314397E+0	1.198748E+0	1.250387E+0	1.292944E+0	1.237772E+0	1.215676E+0	1.260112E+0	1.222302E+0	1.224986E+0	1.196965E+0	1.305101E+0	1.196758E+0	1.241002E+0	1.283980E+0	1.218436E+0	1.291555E+0	1.244721E+0	1.297071E+0	1.183422E+0	1.267779E+0	1.241803E+0	1.277927E+0	1.207269E+0	1.235695E+0	1.226385E+0	1.203945E+0	1.214680E+0	1.263181E+0	1.216405E+0	1.248189E+0	1.228741E+0	1.242483E+0	1.255486E+0	1.284930E+0	1.261888E+0	1.230684E+0	1.194095E+0	1.323085E+0	1.199890E+0	1.245561E+0	1.257858E+0	1.252218E+0	1.256226E+0	1.232661E+0	1.249295E+0	1.309405E+0	1.227693E+0	1.258208E+0	1.235703E+0	1.283208E+0	1.233267E+0	1.211144E+0	1.274289E+0	1.257512E+0	1.291201E+0	1.245852E+0	1.213914E+0	1.287257E+0	1.180872E+0	1.255678E+0	1.274210E+0	1.254193E+0	1.257979E+0	1.283928E+0	1.257152E+0	1.267076E+0	1.257776E+0	1.255191E+0	1.229818E+0	1.261906E+0	1.247989E+0	1.250878E+0	1.253284E+0	1.259076E+0	1.264905E+0	1.276379E+0	1.223218E+0	1.248384E+0	1.244191E+0	1.283513E+0	1.272820E+0	1.223639E+0	1.255972E+0	1.227646E+0	1.230380E+0	1.281784E+0	1.253407E+0	1.234338E+0	1.223246E+0	1.234580E+0	1.268646E+0	1.224691E+0	1.287224E+0	1.232283E+0	1.245638E+0	1.203515E+0	1.281782E+0	1.224965E+0	1.246512E+0	1.231330E+0	1.214470E+0	1.272826E+0	1.201718E+0	1.274361E+0	1.277371E+0	1.225914E+0	1.238760E+0	1.238120E+0	1.266654E+0	1.223868E+0	1.302481E+0	1.328296E+0	1.165270E+0
5.475120E+2	1.295119E+0	1.289839E+0	1.292031E+0	1.284221E+0	1.276927E+0	1.319673E+0	1.289791E+0	1.288061E+0	1.314816E+0	1.333325E+0	1.264759E+0	1.274310E+0	1.308688E+0	1.278610E+0	1.301800E+0	1.288856E+0	1.306287E+0	1.331135E+0	1.289042E+0	1.292621E+0	1.336046E+0	1.305180E+0	1.316324E+0	1.318539E+0	1.289155E+0	1.259686E+0	1.303089E+0	1.291711E+0	1.313791E+0	1.345232E+0	1.258592E+0	1.364467E+0	1.332654E+0	1.278742E+0	1.291238E+0	1.273402E+0	1.283217E+0	1.290227E+0	1.299195E+0	1.353769E+0	1.280491E+0	1.253811E+0	1.290597E+0	1.250479E+0	1.296299E+0	1.286451E+0	1.300483E+0	1.303258E+0	1.333822E+0	1.275283E+0	1.256455E+0	1.340622E+0	1.300224E+0	1.301866E+0	1.266058E+0	1.307392E+0	1.298136E+0	1.294551E+0	1.292475E+0	1.341215E+0	1.278697E+0	1.282818E+0	1.266671E+0	1.303770E+0	1.256656E+0	1.307085E+0	1.297245E+0	1.288552E+0	1.305245E+0	1.275251E+0	1.302346E+0	1.297785E+0	1.295729E+0	1.301646E+0	1.272019E+0	1.312163E+0	1.289705E+0	1.215705E+0	1.299940E+0	1.271219E+0	1.344802E+0	1.267999E+0	1.275582E+0	1.306144E+0	1.258539E+0	1.304872E+0	1.309445E+0	1.305614E+0	1.269931E+0	1.349458E+0	1.267935E+0	1.332133E+0	1.288776E+0	1.267093E+0	1.268725E+0	1.255216E+0	1.327885E+0	1.261640E+0	1.235543E+0	1.333410E+0	1.306413E+0	1.273681E+0	1.258364E+0	1.260877E+0	1.278182E+0	1.262834E+0	1.263310E+0	1.335860E+0	1.315422E+0	1.320754E+0	1.259925E+0	1.316572E+0	1.291211E+0	1.296726E+0	1.228286E+0	1.282742E+0	1.295306E+0	1.246489E+0	1.283111E+0	1.349030E+0	1.301014E+0	1.324667E+0	1.254520E+0	1.280348E+0	1.324385E+0	1.258758E+0	1.271866E+0	1.323227E+0	1.264875E+0	1.255714E+0	1.263497E+0	1.287699E+0	1.244249E+0	1.316385E+0	1.301514E+0	1.355730E+0	1.259244E+0	1.259622E+0	1.256795E+0	1.302360E+0	1.270861E+0	1.300796E+0	1.271623E+0	1.309404E+0	1.256371E+0	1.283771E+0	1.234011E+0	1.270456E+0	1.285923E+0	1.340596E+0	1.294695E+0	1.298737E+0	1.199254E+0	1.295816E+0	1.233435E+0	1.296597E+0	1.271244E+0	1.258720E+0	1.256206E+0	1.288892E+0	1.293198E+0	1.271076E+0	1.323881E+0	1.287401E+0	1.253013E+0	1.260372E+0	1.293723E+0	1.359139E+0	1.224123E+0	1.269265E+0	1.306380E+0	1.265073E+0
5.482660E+2	1.430994E+0	1.444673E+0	1.452625E+0	1.386650E+0	1.404314E+0	1.422593E+0	1.410796E+0	1.416823E+0	1.422553E+0	1.428703E+0	1.405237E+0	1.368114E+0	1.407588E+0	1.454149E+0	1.397755E+0	1.379481E+0	1.413312E+0	1.403250E+0	1.430451E+0	1.478580E+0	1.382120E+0	1.436013E+0	1.393604E+0	1.390252E+0	1.419026E+0	1.371390E+0	1.371185E+0	1.409280E+0	1.395897E+0	1.446387E+0	1.434638E+0	1.447599E+0	1.425263E+0	1.376026E+0	1.460709E+0	1.459670E+0	1.478637E+0	1.427894E+0	1.388328E+0	1.473796E+0	1.430899E+0	1.417463E+0	1.393395E+0	1.448028E+0	1.375023E+0	1.429831E+0	1.399396E+0	1.441956E+0	1.461202E+0	1.466014E+0	1.399409E+0	1.472276E+0	1.467170E+0	1.464366E+0	1.431367E+0	1.471136E+0	1.440060E+0	1.352868E+0	1.382980E+0	1.423929E+0	1.432449E+0	1.431310E+0	1.392221E+0	1.456494E+0	1.443171E+0	1.460830E+0	1.359895E+0	1.402510E+0	1.403108E+0	1.395379E+0	1.393579E+0	1.482578E+0	1.471819E+0	1.462784E+0	1.464304E+0	1.415125E+0	1.407086E+0	1.386483E+0	1.390420E+0	1.379765E+0	1.413242E+0	1.397975E+0	1.381483E+0	1.425084E+0	1.362109E+0	1.340975E+0	1.410517E+0	1.438839E+0	1.396524E+0	1.411259E+0	1.360855E+0	1.391154E+0	1.482133E+0	1.393558E+0	1.393692E+0	1.386604E+0	1.438062E+0	1.441157E+0	1.394633E+0	1.392042E+0	1.422601E+0	1.356103E+0	1.340085E+0	1.402223E+0	1.435359E+0	1.374385E+0	1.362975E+0	1.444859E+0	1.436844E+0	1.408525E+0	1.374655E+0	1.458515E+0	1.401378E+0	1.363262E+0	1.402099E+0	1.435929E+0	1.403246E+0	1.395308E+0	1.420556E+0	1.376178E+0	1.396828E+0	1.387092E+0	1.449414E+0	1.423484E+0	1.455675E+0	1.415514E+0	1.388195E+0	1.394216E+0	1.386691E+0	1.386306E+0	1.413281E+0	1.385984E+0	1.406862E+0	1.426796E+0	1.368918E+0	1.400154E+0	1.411340E+0	1.374729E+0	1.369361E+0	1.447293E+0	1.425343E+0	1.403648E+0	1.392030E+0	1.376938E+0	1.422950E+0	1.383221E+0	1.351866E+0	1.417892E+0	1.353026E+0	1.394162E+0	1.403930E+0	1.434727E+0	1.429165E+0	1.371202E+0	1.387524E+0	1.408375E+0	1.422278E+0	1.358256E+0	1.398693E+0	1.373481E+0	1.413611E+0	1.391753E+0	1.346859E+0	1.368925E+0	1.390530E+0	1.409753E+0	1.420266E+0	1.420963E+0	1.396365E+0	1.369121E+0	1.396301E+0	1.339349E+0
5.490100E+2	1.417743E+0	1.399978E+0	1.441087E+0	1.372105E+0	1.371204E+0	1.425173E+0	1.434989E+0	1.434545E+0	1.435974E+0	1.428861E+0	1.369242E+0	1.462938E+0	1.407502E+0	1.361982E+0	1.367122E+0	1.363079E+0	1.463199E+0	1.442494E+0	1.390749E+0	1.394735E+0	1.435320E+0	1.444229E+0	1.440920E+0	1.394785E+0	1.374823E+0	1.416951E+0	1.383938E+0	1.446839E+0	1.408291E+0	1.374443E+0	1.390593E+0	1.434997E+0	1.467903E+0	1.363304E+0	1.407825E+0	1.417784E+0	1.433648E+0	1.417533E+0	1.430200E+0	1.416687E+0	1.440447E+0	1.388250E+0	1.394683E+0	1.452845E+0	1.421749E+0	1.379327E+0	1.447989E+0	1.439835E+0	1.467592E+0	1.394422E+0	1.396636E+0	1.385943E+0	1.420363E+0	1.452185E+0	1.377792E+0	1.399947E+0	1.358978E+0	1.409647E+0	1.415928E+0	1.457642E+0	1.402379E+0	1.368864E+0	1.353645E+0	1.469519E+0	1.380474E+0	1.385926E+0	1.443376E+0	1.376946E+0	1.393812E+0	1.437187E+0	1.364430E+0	1.441737E+0	1.367405E+0	1.476171E+0	1.447224E+0	1.442301E+0	1.406172E+0	1.392972E+0	1.402410E+0	1.425734E+0	1.431438E+0	1.386786E+0	1.420646E+0	1.346529E+0	1.392901E+0	1.426047E+0	1.384910E+0	1.407952E+0	1.378034E+0	1.351860E+0	1.358636E+0	1.386388E+0	1.404874E+0	1.426387E+0	1.414407E+0	1.358306E+0	1.449998E+0	1.357041E+0	1.417004E+0	1.468498E+0	1.459674E+0	1.420546E+0	1.407761E+0	1.451186E+0	1.418140E+0	1.400046E+0	1.372915E+0	1.463315E+0	1.462397E+0	1.344963E+0	1.336400E+0	1.455261E+0	1.427531E+0	1.370361E+0	1.369219E+0	1.368657E+0	1.401307E+0	1.374202E+0	1.420115E+0	1.376795E+0	1.378431E+0	1.366186E+0	1.427996E+0	1.411176E+0	1.375117E+0	1.443615E+0	1.424618E+0	1.368007E+0	1.439781E+0	1.415477E+0	1.384588E+0	1.406019E+0	1.393172E+0	1.419077E+0	1.412882E+0	1.395305E+0	1.440241E+0	1.405959E+0	1.350349E+0	1.447884E+0	1.404584E+0	1.373243E+0	1.416526E+0	1.406804E+0	1.339290E+0	1.372742E+0	1.347050E+0	1.359810E+0	1.339336E+0	1.378625E+0	1.421234E+0	1.430150E+0	1.320255E+0	1.325520E+0	1.491125E+0	1.475324E+0	1.410543E+0	1.408864E+0	1.441156E+0	1.390969E+0	1.388143E+0	1.420997E+0	1.394714E+0	1.353290E+0	1.353745E+0	1.452045E+0	1.417571E+0	1.394824E+0	1.383955E+0	1.363879E+0	1.447478E+0	1.478463E+0
5.497630E+2	1.396225E+0	1.379624E+0	1.399948E+0	1.406312E+0	1.453598E+0	1.341541E+0	1.408913E+0	1.408426E+0	1.373930E+0	1.386304E+0	1.320337E+0	1.399277E+0	1.403662E+0	1.405599E+0	1.378706E+0	1.422605E+0	1.376162E+0	1.330531E+0	1.385209E+0	1.377473E+0	1.391352E+0	1.365268E+0	1.375413E+0	1.369872E+0	1.404513E+0	1.403215E+0	1.392807E+0	1.435388E+0	1.428585E+0	1.358175E+0	1.386465E+0	1.355428E+0	1.441186E+0	1.361806E+0	1.381276E+0	1.373269E+0	1.424110E+0	1.405040E+0	1.398996E+0	1.399200E+0	1.370249E+0	1.382415E+0	1.393088E+0	1.368235E+0	1.407311E+0	1.354090E+0	1.341204E+0	1.348105E+0	1.402275E+0	1.358962E+0	1.373299E+0	1.372808E+0	1.387280E+0	1.369175E+0	1.348481E+0	1.388478E+0	1.360262E+0	1.378895E+0	1.318630E+0	1.424084E+0	1.356115E+0	1.344011E+0	1.359096E+0	1.432261E+0	1.387620E+0	1.399959E+0	1.358724E+0	1.330592E+0	1.304605E+0	1.359643E+0	1.360118E+0	1.386609E+0	1.417004E+0	1.408816E+0	1.432596E+0	1.374851E+0	1.379536E+0	1.353094E+0	1.343315E+0	1.369692E+0	1.389128E+0	1.398906E+0	1.301133E+0	1.308818E+0	1.336101E+0	1.341679E+0	1.370070E+0	1.375000E+0	1.334401E+0	1.360332E+0	1.393139E+0	1.443385E+0	1.392262E+0	1.356433E+0	1.336144E+0	1.355231E+0	1.433211E+0	1.356175E+0	1.382863E+0	1.326309E+0	1.433553E+0	1.364494E+0	1.378831E+0	1.419729E+0	1.350446E+0	1.306608E+0	1.322930E+0	1.400293E+0	1.417686E+0	1.349430E+0	1.356299E+0	1.426346E+0	1.361309E+0	1.359170E+0	1.400834E+0	1.388741E+0	1.337472E+0	1.384647E+0	1.364488E+0	1.371600E+0	1.401608E+0	1.376853E+0	1.354704E+0	1.372742E+0	1.394316E+0	1.399341E+0	1.349392E+0	1.314983E+0	1.394153E+0	1.383915E+0	1.358865E+0	1.446118E+0	1.353542E+0	1.394876E+0	1.357073E+0	1.333432E+0	1.356020E+0	1.345366E+0	1.305651E+0	1.404828E+0	1.353995E+0	1.406655E+0	1.375292E+0	1.341916E+0	1.395841E+0	1.387569E+0	1.356581E+0	1.442678E+0	1.330196E+0	1.369542E+0	1.357319E+0	1.363677E+0	1.391111E+0	1.346361E+0	1.338555E+0	1.368696E+0	1.396011E+0	1.319846E+0	1.376782E+0	1.358291E+0	1.338668E+0	1.364927E+0	1.347217E+0	1.356278E+0	1.417425E+0	1.424292E+0	1.357807E+0	1.375729E+0	1.285603E+0	1.347069E+0	1.271545E+0	1.320280E+0
5.505060E+2	1.301346E+0	1.331766E+0	1.370708E+0	1.332882E+0	1.332317E+0	1.368494E+0	1.312716E+0	1.306901E+0	1.356447E+0	1.345294E+0	1.314371E+0	1.286732E+0	1.352603E+0	1.331219E+0	1.361915E+0	1.338546E+0	1.324527E+0	1.367560E+0	1.312460E+0	1.325756E+0	1.356393E+0	1.368103E+0	1.304950E+0	1.297125E+0	1.360852E+0	1.327745E+0	1.378099E+0	1.367541E+0	1.335247E+0	1.368529E+0	1.372897E+0	1.345796E+0	1.355912E+0	1.368994E+0	1.341119E+0	1.347969E+0	1.361550E+0	1.384195E+0	1.330657E+0	1.325032E+0	1.371990E+0	1.332966E+0	1.317707E+0	1.343666E+0	1.323675E+0	1.295321E+0	1.307673E+0	1.343415E+0	1.336949E+0	1.339602E+0	1.271479E+0	1.379309E+0	1.322607E+0	1.343549E+0	1.357319E+0	1.352676E+0	1.323951E+0	1.347742E+0	1.328611E+0	1.332746E+0	1.414571E+0	1.341659E+0	1.323866E+0	1.292134E+0	1.335482E+0	1.311938E+0	1.303981E+0	1.317726E+0	1.273354E+0	1.346029E+0	1.306014E+0	1.335320E+0	1.316094E+0	1.323127E+0	1.371784E+0	1.335280E+0	1.367326E+0	1.320182E+0	1.337899E+0	1.365862E+0	1.331765E+0	1.335152E+0	1.297632E+0	1.290690E+0	1.297853E+0	1.358391E+0	1.303569E+0	1.415219E+0	1.343627E+0	1.314912E+0	1.336299E+0	1.367625E+0	1.293911E+0	1.335485E+0	1.316786E+0	1.359227E+0	1.402944E+0	1.347799E+0	1.393778E+0	1.341329E+0	1.322178E+0	1.319466E+0	1.277143E+0	1.356679E+0	1.296424E+0	1.303742E+0	1.278287E+0	1.363835E+0	1.316573E+0	1.324139E+0	1.342315E+0	1.356650E+0	1.375501E+0	1.287194E+0	1.338997E+0	1.381088E+0	1.351434E+0	1.282973E+0	1.390035E+0	1.348551E+0	1.388725E+0	1.375026E+0	1.378106E+0	1.319090E+0	1.336648E+0	1.283947E+0	1.320886E+0	1.311819E+0	1.324964E+0	1.318321E+0	1.316899E+0	1.350355E+0	1.353797E+0	1.362795E+0	1.338003E+0	1.369312E+0	1.321571E+0	1.293117E+0	1.307670E+0	1.361894E+0	1.335403E+0	1.341754E+0	1.304352E+0	1.364360E+0	1.322179E+0	1.301760E+0	1.316435E+0	1.349912E+0	1.373400E+0	1.298716E+0	1.373779E+0	1.303688E+0	1.333476E+0	1.308693E+0	1.298361E+0	1.368179E+0	1.301088E+0	1.287264E+0	1.328740E+0	1.318248E+0	1.341219E+0	1.332486E+0	1.326103E+0	1.355295E+0	1.267072E+0	1.346272E+0	1.343174E+0	1.310478E+0	1.311481E+0	1.263637E+0	1.214896E+0	1.187221E+0
5.512570E+2	1.386336E+0	1.390784E+0	1.363908E+0	1.377224E+0	1.374682E+0	1.380758E+0	1.332632E+0	1.346570E+0	1.380538E+0	1.353775E+0	1.300719E+0	1.315219E+0	1.370229E+0	1.350619E+0	1.346913E+0	1.378414E+0	1.391779E+0	1.355955E+0	1.393664E+0	1.324839E+0	1.379454E+0	1.362081E+0	1.346910E+0	1.319185E+0	1.375652E+0	1.351249E+0	1.376373E+0	1.344497E+0	1.359010E+0	1.381499E+0	1.326499E+0	1.329423E+0	1.387130E+0	1.344726E+0	1.419264E+0	1.383039E+0	1.317122E+0	1.365324E+0	1.339622E+0	1.399986E+0	1.346933E+0	1.341145E+0	1.368738E+0	1.348622E+0	1.333971E+0	1.293237E+0	1.339133E+0	1.362465E+0	1.385797E+0	1.364792E+0	1.324076E+0	1.376927E+0	1.382063E+0	1.343591E+0	1.337961E+0	1.316589E+0	1.388245E+0	1.320632E+0	1.330739E+0	1.360422E+0	1.377565E+0	1.315591E+0	1.321020E+0	1.310306E+0	1.392218E+0	1.375384E+0	1.348787E+0	1.336144E+0	1.338673E+0	1.302884E+0	1.344914E+0	1.342645E+0	1.417490E+0	1.348409E+0	1.363488E+0	1.352157E+0	1.338498E+0	1.289876E+0	1.357022E+0	1.376950E+0	1.405977E+0	1.392473E+0	1.369421E+0	1.346118E+0	1.321550E+0	1.336227E+0	1.351958E+0	1.338607E+0	1.322220E+0	1.397507E+0	1.315701E+0	1.266885E+0	1.406687E+0	1.307616E+0	1.330536E+0	1.332495E+0	1.346602E+0	1.304834E+0	1.317879E+0	1.380804E+0	1.385412E+0	1.378620E+0	1.372378E+0	1.365114E+0	1.335596E+0	1.349939E+0	1.291648E+0	1.417911E+0	1.338904E+0	1.336383E+0	1.333410E+0	1.320211E+0	1.360516E+0	1.293255E+0	1.410348E+0	1.323398E+0	1.346845E+0	1.323886E+0	1.349074E+0	1.322928E+0	1.353239E+0	1.358668E+0	1.331587E+0	1.310509E+0	1.380158E+0	1.327801E+0	1.374065E+0	1.301340E+0	1.397225E+0	1.295300E+0	1.358891E+0	1.341820E+0	1.339832E+0	1.356670E+0	1.337802E+0	1.340837E+0	1.372556E+0	1.301810E+0	1.314311E+0	1.346004E+0	1.318096E+0	1.408622E+0	1.301334E+0	1.335353E+0	1.246465E+0	1.329782E+0	1.338317E+0	1.391415E+0	1.314916E+0	1.370827E+0	1.372320E+0	1.388923E+0	1.366775E+0	1.317831E+0	1.346350E+0	1.287096E+0	1.282869E+0	1.325764E+0	1.318327E+0	1.349797E+0	1.402899E+0	1.371220E+0	1.317335E+0	1.283651E+0	1.327301E+0	1.361434E+0	1.339643E+0	1.376657E+0	1.302525E+0	1.304114E+0	1.314109E+0	1.294646E+0
5.520210E+2	1.322979E+0	1.331210E+0	1.324072E+0	1.326593E+0	1.256881E+0	1.336972E+0	1.315944E+0	1.297151E+0	1.341691E+0	1.316980E+0	1.321700E+0	1.278117E+0	1.300946E+0	1.272052E+0	1.295992E+0	1.347868E+0	1.293565E+0	1.365009E+0	1.276581E+0	1.269843E+0	1.364002E+0	1.313737E+0	1.325111E+0	1.317099E+0	1.318098E+0	1.318909E+0	1.280737E+0	1.324186E+0	1.306305E+0	1.326442E+0	1.297838E+0	1.292873E+0	1.351388E+0	1.352840E+0	1.270012E+0	1.358559E+0	1.291058E+0	1.364160E+0	1.333972E+0	1.308900E+0	1.327020E+0	1.278711E+0	1.304418E+0	1.271970E+0	1.302091E+0	1.316176E+0	1.278646E+0	1.323216E+0	1.327619E+0	1.282540E+0	1.301460E+0	1.277373E+0	1.306154E+0	1.341306E+0	1.372727E+0	1.274029E+0	1.336034E+0	1.305145E+0	1.321973E+0	1.298200E+0	1.300610E+0	1.316596E+0	1.293637E+0	1.324468E+0	1.300416E+0	1.333973E+0	1.306718E+0	1.274840E+0	1.288384E+0	1.284616E+0	1.288589E+0	1.252580E+0	1.355078E+0	1.345302E+0	1.291850E+0	1.286981E+0	1.297688E+0	1.283217E+0	1.304105E+0	1.297071E+0	1.314932E+0	1.353629E+0	1.284638E+0	1.286670E+0	1.284414E+0	1.274987E+0	1.282116E+0	1.259491E+0	1.274110E+0	1.264528E+0	1.325992E+0	1.319128E+0	1.283356E+0	1.298245E+0	1.294220E+0	1.285115E+0	1.277591E+0	1.267592E+0	1.256401E+0	1.283549E+0	1.286487E+0	1.305783E+0	1.350248E+0	1.309106E+0	1.365540E+0	1.287731E+0	1.274503E+0	1.293385E+0	1.325003E+0	1.327184E+0	1.273504E+0	1.312508E+0	1.288029E+0	1.286737E+0	1.305304E+0	1.264996E+0	1.292578E+0	1.304247E+0	1.310331E+0	1.303108E+0	1.311199E+0	1.366940E+0	1.372350E+0	1.289177E+0	1.339819E+0	1.307622E+0	1.300606E+0	1.303612E+0	1.276897E+0	1.289441E+0	1.256855E+0	1.317771E+0	1.357996E+0	1.303900E+0	1.303554E+0	1.280429E+0	1.322251E+0	1.298540E+0	1.250671E+0	1.315640E+0	1.304550E+0	1.305019E+0	1.282968E+0	1.318498E+0	1.258697E+0	1.318241E+0	1.260223E+0	1.303018E+0	1.278258E+0	1.274761E+0	1.344959E+0	1.373285E+0	1.294353E+0	1.280328E+0	1.297821E+0	1.372068E+0	1.272612E+0	1.240284E+0	1.292836E+0	1.240132E+0	1.334611E+0	1.319519E+0	1.336366E+0	1.292635E+0	1.280624E+0	1.318568E+0	1.295283E+0	1.323667E+0	1.266202E+0	1.274218E+0	1.321810E+0	1.121550E+0
5.527650E+2	1.184654E+0	1.211228E+0	1.238212E+0	1.206808E+0	1.209472E+0	1.286605E+0	1.220823E+0	1.178026E+0	1.222159E+0	1.191890E+0	1.188700E+0	1.198056E+0	1.220053E+0	1.236946E+0	1.206236E+0	1.223970E+0	1.221976E+0	1.208373E+0	1.225817E+0	1.235078E+0	1.235387E+0	1.190096E+0	1.252754E+0	1.187259E+0	1.181942E+0	1.242079E+0	1.193761E+0	1.196681E+0	1.233896E+0	1.222851E+0	1.182778E+0	1.198205E+0	1.195551E+0	1.231464E+0	1.215233E+0	1.243023E+0	1.226617E+0	1.202456E+0	1.178580E+0	1.245866E+0	1.257628E+0	1.178426E+0	1.208012E+0	1.196056E+0	1.206823E+0	1.218050E+0	1.242904E+0	1.229251E+0	1.254727E+0	1.179321E+0	1.209763E+0	1.184224E+0	1.234069E+0	1.221676E+0	1.203816E+0	1.204519E+0	1.231146E+0	1.228488E+0	1.210751E+0	1.241882E+0	1.242691E+0	1.197306E+0	1.204364E+0	1.231996E+0	1.263832E+0	1.190500E+0	1.189047E+0	1.159627E+0	1.185875E+0	1.191870E+0	1.216933E+0	1.234891E+0	1.221088E+0	1.241370E+0	1.216614E+0	1.190725E+0	1.243748E+0	1.205390E+0	1.224016E+0	1.200809E+0	1.234154E+0	1.168467E+0	1.185872E+0	1.190747E+0	1.236017E+0	1.161701E+0	1.199319E+0	1.213032E+0	1.213601E+0	1.206860E+0	1.185240E+0	1.213831E+0	1.204623E+0	1.183949E+0	1.184208E+0	1.181331E+0	1.246596E+0	1.217269E+0	1.212984E+0	1.245497E+0	1.215978E+0	1.183936E+0	1.165206E+0	1.201688E+0	1.239176E+0	1.252126E+0	1.174198E+0	1.137248E+0	1.239268E+0	1.221243E+0	1.194396E+0	1.209460E+0	1.223969E+0	1.225706E+0	1.186933E+0	1.199362E+0	1.223387E+0	1.211906E+0	1.236815E+0	1.273424E+0	1.208748E+0	1.252313E+0	1.231875E+0	1.205784E+0	1.233147E+0	1.260740E+0	1.220169E+0	1.228158E+0	1.252743E+0	1.167452E+0	1.222404E+0	1.248266E+0	1.235399E+0	1.193188E+0	1.204517E+0	1.169723E+0	1.233791E+0	1.245277E+0	1.205898E+0	1.267857E+0	1.186534E+0	1.188173E+0	1.205909E+0	1.231373E+0	1.185424E+0	1.235997E+0	1.163878E+0	1.177712E+0	1.107624E+0	1.211833E+0	1.205449E+0	1.197840E+0	1.205069E+0	1.190493E+0	1.170429E+0	1.223999E+0	1.176277E+0	1.200863E+0	1.229453E+0	1.218205E+0	1.233604E+0	1.220952E+0	1.174132E+0	1.271191E+0	1.218341E+0	1.234173E+0	1.264853E+0	1.210532E+0	1.262674E+0	1.241204E+0	1.205219E+0	1.177768E+0
5.534990E+2	1.222282E+0	1.230560E+0	1.237646E+0	1.192752E+0	1.175690E+0	1.190046E+0	1.157409E+0	1.189388E+0	1.227756E+0	1.222634E+0	1.198250E+0	1.259657E+0	1.240541E+0	1.210710E+0	1.175000E+0	1.215182E+0	1.199319E+0	1.230511E+0	1.210455E+0	1.203794E+0	1.219524E+0	1.244348E+0	1.210549E+0	1.209257E+0	1.248328E+0	1.214876E+0	1.213561E+0	1.209789E+0	1.181445E+0	1.160545E+0	1.234321E+0	1.204908E+0	1.214338E+0	1.243713E+0	1.215896E+0	1.235145E+0	1.229533E+0	1.243033E+0	1.228443E+0	1.240106E+0	1.225505E+0	1.233135E+0	1.238596E+0	1.168200E+0	1.248133E+0	1.227217E+0	1.221076E+0	1.227422E+0	1.231536E+0	1.161025E+0	1.154689E+0	1.249058E+0	1.222033E+0	1.197806E+0	1.228149E+0	1.213892E+0	1.257376E+0	1.147343E+0	1.201431E+0	1.220225E+0	1.192117E+0	1.239243E+0	1.213185E+0	1.173693E+0	1.237377E+0	1.217116E+0	1.224333E+0	1.225129E+0	1.188774E+0	1.241507E+0	1.212608E+0	1.143705E+0	1.247352E+0	1.232052E+0	1.245841E+0	1.187136E+0	1.220975E+0	1.172558E+0	1.217648E+0	1.169668E+0	1.295822E+0	1.173873E+0	1.182408E+0	1.191058E+0	1.201542E+0	1.226914E+0	1.248011E+0	1.175896E+0	1.232335E+0	1.209682E+0	1.228886E+0	1.190090E+0	1.230992E+0	1.201225E+0	1.210680E+0	1.224744E+0	1.278965E+0	1.255093E+0	1.155421E+0	1.226175E+0	1.239464E+0	1.228040E+0	1.213471E+0	1.193761E+0	1.222089E+0	1.225647E+0	1.178896E+0	1.199624E+0	1.223686E+0	1.193942E+0	1.221505E+0	1.192257E+0	1.168595E+0	1.156399E+0	1.225124E+0	1.161808E+0	1.217132E+0	1.187131E+0	1.242403E+0	1.209713E+0	1.231585E+0	1.193174E+0	1.211570E+0	1.203843E+0	1.227309E+0	1.223389E+0	1.152217E+0	1.180432E+0	1.237454E+0	1.169924E+0	1.197412E+0	1.189768E+0	1.224228E+0	1.202748E+0	1.205632E+0	1.196524E+0	1.198386E+0	1.269051E+0	1.168870E+0	1.225249E+0	1.202065E+0	1.221079E+0	1.218777E+0	1.209709E+0	1.151001E+0	1.255742E+0	1.210289E+0	1.244055E+0	1.226424E+0	1.202807E+0	1.228048E+0	1.204415E+0	1.205901E+0	1.237094E+0	1.177120E+0	1.216145E+0	1.207161E+0	1.160533E+0	1.190480E+0	1.167729E+0	1.246729E+0	1.192856E+0	1.167231E+0	1.234115E+0	1.210262E+0	1.223278E+0	1.258234E+0	1.218659E+0	1.186033E+0	1.236149E+0	1.209368E+0	1.085601E+0
5.542530E+2	1.169950E+0	1.146456E+0	1.117838E+0	1.050912E+0	1.146937E+0	1.127527E+0	1.116835E+0	1.171468E+0	1.132524E+0	1.162171E+0	1.145292E+0	1.106980E+0	1.128371E+0	1.132917E+0	1.138387E+0	1.168093E+0	1.107914E+0	1.106346E+0	1.125114E+0	1.125322E+0	1.099986E+0	1.126332E+0	1.144202E+0	1.133071E+0	1.146634E+0	1.107712E+0	1.146844E+0	1.155391E+0	1.122639E+0	1.113081E+0	1.133362E+0	1.104406E+0	1.158630E+0	1.113244E+0	1.111432E+0	1.144031E+0	1.119425E+0	1.126940E+0	1.146074E+0	1.194867E+0	1.121171E+0	1.098574E+0	1.128328E+0	1.080034E+0	1.145188E+0	1.134929E+0	1.161813E+0	1.094433E+0	1.185082E+0	1.083205E+0	1.106197E+0	1.129720E+0	1.106228E+0	1.118525E+0	1.108148E+0	1.090771E+0	1.174271E+0	1.128005E+0	1.137950E+0	1.140446E+0	1.121170E+0	1.130367E+0	1.086365E+0	1.118855E+0	1.110910E+0	1.169333E+0	1.131941E+0	1.126861E+0	1.099344E+0	1.133080E+0	1.120183E+0	1.091856E+0	1.116097E+0	1.145402E+0	1.133083E+0	1.060714E+0	1.147327E+0	1.127163E+0	1.136415E+0	1.099559E+0	1.087274E+0	1.179806E+0	1.089544E+0	1.091620E+0	1.101127E+0	1.121271E+0	1.127278E+0	1.141099E+0	1.142558E+0	1.096993E+0	1.110688E+0	1.103429E+0	1.168044E+0	1.130787E+0	1.130117E+0	1.088758E+0	1.192567E+0	1.071330E+0	1.135781E+0	1.067105E+0	1.151080E+0	1.104157E+0	1.070501E+0	1.093601E+0	1.113436E+0	1.105827E+0	1.095639E+0	1.143449E+0	1.167144E+0	1.081985E+0	1.058809E+0	1.153116E+0	1.144778E+0	1.111981E+0	1.106317E+0	1.157586E+0	1.161907E+0	1.084406E+0	1.132217E+0	1.070463E+0	1.122466E+0	1.107469E+0	1.097777E+0	1.120702E+0	1.156611E+0	1.162245E+0	1.124271E+0	1.101590E+0	1.125179E+0	1.108603E+0	1.082206E+0	1.181676E+0	1.141855E+0	1.111698E+0	1.071595E+0	1.126064E+0	1.145814E+0	1.121422E+0	1.159198E+0	1.114482E+0	1.099674E+0	1.125302E+0	1.101231E+0	1.083866E+0	1.133139E+0	1.129584E+0	1.084952E+0	1.102901E+0	1.135878E+0	1.159627E+0	1.160314E+0	1.119989E+0	1.138189E+0	1.096836E+0	1.101848E+0	1.068131E+0	1.107052E+0	1.142377E+0	1.096079E+0	1.128001E+0	1.172277E+0	1.120405E+0	1.150663E+0	1.115040E+0	1.049886E+0	1.149664E+0	1.135505E+0	1.129221E+0	1.106162E+0	1.095484E+0	1.029607E+0	1.117107E+0
5.550080E+2	1.046327E+0	1.027214E+0	1.064611E+0	1.005543E+0	1.010266E+0	1.062006E+0	1.056350E+0	1.034920E+0	1.028864E+0	1.043349E+0	1.048039E+0	1.020620E+0	1.035168E+0	1.022929E+0	1.103076E+0	1.065211E+0	1.028126E+0	1.038564E+0	1.039916E+0	1.050107E+0	1.080699E+0	1.033226E+0	1.035962E+0	1.026467E+0	1.052183E+0	1.007830E+0	9.863385E-1	1.021965E+0	1.079838E+0	1.055207E+0	1.078336E+0	1.041094E+0	1.044972E+0	1.053944E+0	1.020379E+0	1.054968E+0	1.051337E+0	1.048391E+0	1.033882E+0	1.041329E+0	1.017835E+0	1.038610E+0	1.030662E+0	1.029478E+0	1.012744E+0	1.046684E+0	9.975215E-1	9.953587E-1	1.064010E+0	1.065925E+0	1.044875E+0	9.776658E-1	1.073306E+0	1.031996E+0	1.044596E+0	1.007049E+0	1.077005E+0	1.058033E+0	9.918864E-1	1.037821E+0	1.054501E+0	1.033385E+0	1.041160E+0	1.053336E+0	1.064957E+0	1.021124E+0	1.029180E+0	1.034205E+0	1.046855E+0	1.057285E+0	1.029194E+0	1.040244E+0	1.052807E+0	1.006819E+0	1.046636E+0	1.076059E+0	1.046516E+0	1.028705E+0	1.020914E+0	1.026086E+0	1.048932E+0	1.042332E+0	1.017756E+0	1.028115E+0	1.028666E+0	9.958405E-1	1.037262E+0	9.999046E-1	1.037308E+0	1.034748E+0	9.998127E-1	1.060175E+0	1.095225E+0	1.023441E+0	1.040571E+0	1.002535E+0	1.059121E+0	9.610784E-1	1.048473E+0	1.049216E+0	1.063157E+0	1.050726E+0	1.023159E+0	1.034355E+0	1.052408E+0	1.077660E+0	1.033605E+0	1.036975E+0	1.036797E+0	1.058166E+0	1.052418E+0	1.078433E+0	1.058301E+0	1.034452E+0	1.044991E+0	1.046701E+0	1.061052E+0	1.042240E+0	1.005033E+0	1.067450E+0	1.056968E+0	1.076127E+0	1.001221E+0	1.059702E+0	1.033222E+0	1.046573E+0	1.050893E+0	1.009277E+0	1.030659E+0	9.916292E-1	1.031265E+0	1.014493E+0	1.043632E+0	1.048263E+0	1.019202E+0	1.079298E+0	1.065003E+0	1.039398E+0	1.021453E+0	1.036524E+0	1.004158E+0	1.018513E+0	1.058254E+0	1.018825E+0	1.079670E+0	1.046410E+0	1.074037E+0	1.037623E+0	1.081089E+0	1.077121E+0	1.050932E+0	1.050460E+0	1.045407E+0	1.048746E+0	1.036092E+0	1.011972E+0	1.011919E+0	1.038211E+0	1.060318E+0	1.061681E+0	1.024001E+0	1.019907E+0	1.034061E+0	1.026716E+0	1.081348E+0	1.056624E+0	1.021702E+0	1.007841E+0	1.039413E+0	1.065817E+0	1.049281E+0	9.094300E-1
5.558110E+2	1.051491E+0	1.024789E+0	1.003916E+0	9.826617E-1	1.018202E+0	9.768015E-1	1.017963E+0	9.882655E-1	9.849560E-1	9.492165E-1	1.006239E+0	9.481969E-1	1.039867E+0	9.946640E-1	9.974889E-1	1.019376E+0	1.015608E+0	1.014623E+0	9.950023E-1	9.796839E-1	1.005648E+0	9.940124E-1	9.934875E-1	9.942686E-1	1.021153E+0	9.904245E-1	9.816266E-1	9.886555E-1	1.006397E+0	1.025436E+0	1.033266E+0	9.362588E-1	1.000452E+0	9.982741E-1	1.010570E+0	9.977157E-1	1.007231E+0	9.807960E-1	1.005248E+0	1.023698E+0	9.641480E-1	9.774510E-1	9.661654E-1	1.030021E+0	1.008331E+0	9.859956E-1	9.865638E-1	1.019595E+0	1.029125E+0	9.928106E-1	9.569034E-1	9.479270E-1	1.000510E+0	1.025971E+0	9.900126E-1	9.852863E-1	1.009651E+0	9.824270E-1	1.027585E+0	1.014679E+0	1.022051E+0	9.953785E-1	1.001099E+0	9.959109E-1	1.010552E+0	1.012367E+0	1.017309E+0	9.739126E-1	9.651586E-1	1.039447E+0	9.732202E-1	9.647679E-1	9.857836E-1	1.011992E+0	1.024498E+0	1.001449E+0	9.795153E-1	9.755021E-1	9.740455E-1	9.965098E-1	1.056728E+0	9.792048E-1	1.008949E+0	9.985438E-1	9.552359E-1	9.841974E-1	9.941771E-1	9.710435E-1	9.732619E-1	9.907020E-1	9.391280E-1	1.065441E+0	1.009095E+0	9.624319E-1	9.837087E-1	9.726799E-1	1.043416E+0	1.014826E+0	9.637264E-1	1.005066E+0	9.860784E-1	9.288999E-1	9.886948E-1	9.826934E-1	1.027455E+0	9.683846E-1	9.701068E-1	9.870319E-1	1.002394E+0	9.851174E-1	9.694147E-1	9.863248E-1	1.056440E+0	9.092658E-1	1.024842E+0	9.490878E-1	9.646579E-1	1.018846E+0	1.011099E+0	9.898762E-1	9.756648E-1	9.811777E-1	1.040345E+0	9.874556E-1	1.048475E+0	1.026520E+0	1.079326E+0	9.984889E-1	1.015867E+0	9.739003E-1	9.439886E-1	1.002131E+0	9.869048E-1	9.825675E-1	9.413874E-1	1.005581E+0	1.024911E+0	1.029392E+0	9.670540E-1	9.798759E-1	9.813092E-1	9.725583E-1	1.026182E+0	9.916603E-1	9.671081E-1	9.760808E-1	9.348213E-1	1.010253E+0	9.395251E-1	1.039175E+0	1.016996E+0	9.565097E-1	9.961847E-1	9.953728E-1	9.921139E-1	9.992178E-1	9.944860E-1	9.653116E-1	1.009071E+0	9.448013E-1	1.041302E+0	1.004534E+0	1.014812E+0	1.044931E+0	1.034950E+0	1.031467E+0	9.812141E-1	1.011111E+0	9.734721E-1	9.631003E-1	1.037262E+0	1.077623E+0
5.560130E+2	1.038284E+0	9.695295E-1	1.005619E+0	9.944421E-1	9.963465E-1	9.830123E-1	9.877945E-1	9.771033E-1	1.007579E+0	9.918379E-1	9.996196E-1	9.695587E-1	1.011781E+0	1.023499E+0	9.765768E-1	9.934070E-1	9.799983E-1	9.652274E-1	9.495511E-1	9.978060E-1	9.588387E-1	9.611285E-1	9.998388E-1	1.024968E+0	1.008895E+0	9.749659E-1	9.609934E-1	9.890691E-1	1.002945E+0	1.012408E+0	1.011933E+0	9.522883E-1	9.584299E-1	9.794447E-1	9.698051E-1	9.722405E-1	9.709509E-1	1.006404E+0	1.010275E+0	9.940225E-1	9.809719E-1	1.015713E+0	9.943576E-1	9.822552E-1	1.001915E+0	9.691157E-1	9.673161E-1	1.030575E+0	9.818925E-1	9.648753E-1	9.940852E-1	9.751514E-1	1.006518E+0	1.005494E+0	1.004466E+0	9.912673E-1	1.020991E+0	9.924769E-1	9.475233E-1	9.707679E-1	9.872688E-1	1.016931E+0	1.016708E+0	1.012583E+0	1.000316E+0	1.003883E+0	1.021518E+0	9.660134E-1	1.027365E+0	9.807086E-1	9.446206E-1	1.023614E+0	9.939964E-1	1.010465E+0	9.702583E-1	1.011552E+0	9.821134E-1	1.019483E+0	9.655644E-1	1.055309E+0	9.836509E-1	1.026792E+0	9.705439E-1	1.001095E+0	9.798652E-1	1.017526E+0	1.010158E+0	1.005391E+0	1.001831E+0	9.944502E-1	1.002982E+0	9.857412E-1	1.023691E+0	9.960980E-1	9.522229E-1	1.030707E+0	1.025146E+0	9.502004E-1	1.004500E+0	9.910330E-1	9.652820E-1	9.972237E-1	9.668907E-1	9.949253E-1	9.610605E-1	1.001897E+0	1.011224E+0	1.016194E+0	1.018142E+0	9.695985E-1	1.014158E+0	9.970496E-1	9.621394E-1	9.948765E-1	1.005947E+0	1.027317E+0	9.887431E-1	9.956682E-1	9.601058E-1	9.941726E-1	9.971314E-1	9.956076E-1	9.729051E-1	1.018124E+0	9.987193E-1	1.006452E+0	1.012880E+0	9.666457E-1	9.836535E-1	9.700257E-1	9.571239E-1	9.528959E-1	9.756448E-1	9.766355E-1	9.644183E-1	1.006275E+0	1.015735E+0	9.803504E-1	9.677913E-1	9.390598E-1	1.000643E+0	1.023900E+0	1.025278E+0	9.814339E-1	1.025051E+0	1.007081E+0	9.979573E-1	9.688957E-1	9.982910E-1	1.036495E+0	1.000296E+0	9.756312E-1	1.008274E+0	1.006779E+0	9.944864E-1	9.985985E-1	1.002569E+0	9.824220E-1	9.865492E-1	9.842287E-1	9.426767E-1	9.722687E-1	9.793789E-1	9.864939E-1	9.699770E-1	1.007627E+0	9.761712E-1	9.556745E-1	1.012474E+0	9.478007E-1	1.019497E+0	1.041385E+0
5.565030E+2	9.754273E-1	9.561218E-1	9.669538E-1	9.724010E-1	9.364103E-1	9.507649E-1	9.261461E-1	9.286321E-1	9.395070E-1	9.268728E-1	9.609622E-1	9.833595E-1	9.629642E-1	9.288676E-1	9.433659E-1	9.802776E-1	1.004323E+0	9.909953E-1	9.283808E-1	9.534871E-1	9.617403E-1	9.343659E-1	9.572649E-1	9.795880E-1	9.534531E-1	9.626143E-1	9.660856E-1	9.542206E-1	9.793914E-1	9.889864E-1	9.605760E-1	9.240101E-1	9.239340E-1	9.813887E-1	9.358137E-1	9.921319E-1	9.466154E-1	9.827633E-1	1.005911E+0	9.680306E-1	9.706915E-1	9.296481E-1	9.616389E-1	9.713901E-1	9.658476E-1	9.604259E-1	9.963447E-1	9.596597E-1	9.338634E-1	1.010663E+0	9.661803E-1	9.725140E-1	9.198905E-1	9.342162E-1	9.739113E-1	9.802192E-1	9.493003E-1	9.521500E-1	9.563455E-1	9.988412E-1	9.468649E-1	9.381594E-1	9.397463E-1	9.601772E-1	9.735340E-1	9.998735E-1	9.033177E-1	9.261605E-1	9.274263E-1	9.586636E-1	9.709284E-1	9.627963E-1	9.167243E-1	9.711815E-1	9.847529E-1	9.424476E-1	9.686029E-1	9.435150E-1	9.624516E-1	9.890967E-1	9.612201E-1	9.593411E-1	9.485326E-1	9.402722E-1	9.914130E-1	9.615287E-1	9.573515E-1	9.181926E-1	9.216132E-1	9.045217E-1	9.241934E-1	9.114081E-1	9.455334E-1	9.733839E-1	9.597840E-1	9.242367E-1	9.283222E-1	9.781717E-1	9.334261E-1	9.664232E-1	9.447883E-1	9.570929E-1	9.686084E-1	9.767321E-1	9.802766E-1	9.691650E-1	8.970399E-1	9.412979E-1	9.603322E-1	9.626886E-1	9.594957E-1	9.364881E-1	9.888009E-1	9.565727E-1	9.347439E-1	9.994812E-1	9.747479E-1	9.542651E-1	9.431626E-1	9.737724E-1	9.236894E-1	1.001221E+0	9.234110E-1	9.478288E-1	9.619976E-1	9.432198E-1	9.673433E-1	9.484938E-1	9.548215E-1	9.286749E-1	9.478768E-1	9.479872E-1	9.759546E-1	9.505833E-1	9.857018E-1	9.501851E-1	9.853324E-1	9.473628E-1	9.429815E-1	9.772164E-1	9.409141E-1	9.715946E-1	9.630548E-1	9.629187E-1	9.873730E-1	9.367842E-1	9.209101E-1	9.415709E-1	9.543562E-1	9.434162E-1	9.470583E-1	9.422013E-1	9.936507E-1	9.670342E-1	9.223784E-1	9.738351E-1	9.644055E-1	9.713173E-1	9.523218E-1	9.463350E-1	9.565342E-1	9.688425E-1	9.687950E-1	9.466874E-1	9.426334E-1	9.398208E-1	9.975322E-1	9.855532E-1	9.516627E-1	9.542648E-1	1.026307E+0	1.096052E+0
5.570500E+2	9.698881E-1	9.765204E-1	9.657173E-1	9.848054E-1	9.710237E-1	9.817464E-1	9.582485E-1	9.816947E-1	9.924869E-1	9.699702E-1	9.758112E-1	9.895278E-1	9.232151E-1	9.893558E-1	9.390034E-1	9.927744E-1	1.005363E+0	9.781225E-1	9.963439E-1	9.614521E-1	9.912378E-1	9.554520E-1	9.971276E-1	9.561517E-1	9.405280E-1	9.708123E-1	9.647881E-1	1.027621E+0	9.614229E-1	9.704175E-1	9.891126E-1	9.620414E-1	9.679693E-1	1.005319E+0	9.832072E-1	9.883247E-1	9.682529E-1	9.863634E-1	9.721748E-1	9.754999E-1	9.688247E-1	9.679580E-1	9.715666E-1	9.896739E-1	9.856781E-1	9.997393E-1	9.579648E-1	9.477319E-1	9.704928E-1	9.765433E-1	9.858920E-1	9.853066E-1	9.944613E-1	9.542761E-1	9.520698E-1	9.547838E-1	9.796359E-1	9.993471E-1	1.024917E+0	9.976277E-1	1.000900E+0	1.005529E+0	9.300303E-1	9.342061E-1	9.920354E-1	9.878903E-1	1.023212E+0	9.743167E-1	9.324580E-1	1.016910E+0	9.723710E-1	9.867088E-1	9.711446E-1	9.938675E-1	9.901737E-1	9.659631E-1	9.621949E-1	9.805820E-1	9.987060E-1	9.643120E-1	9.769017E-1	9.780762E-1	9.905592E-1	9.490816E-1	9.559967E-1	1.005406E+0	9.663106E-1	9.944238E-1	9.681039E-1	1.024912E+0	9.900681E-1	1.003562E+0	9.433011E-1	9.458114E-1	9.553014E-1	9.706387E-1	9.696907E-1	9.661394E-1	9.612999E-1	9.456115E-1	1.000502E+0	9.917239E-1	9.483570E-1	9.689560E-1	9.675172E-1	9.805455E-1	1.018428E+0	9.528531E-1	9.906439E-1	9.555472E-1	9.656311E-1	9.864788E-1	9.968148E-1	1.009187E+0	9.801014E-1	9.522346E-1	9.466284E-1	9.898127E-1	9.634879E-1	9.908664E-1	9.671370E-1	9.653917E-1	9.836736E-1	9.717427E-1	9.841646E-1	9.395799E-1	9.957974E-1	9.719157E-1	1.042045E+0	9.811843E-1	1.010580E+0	1.035739E+0	9.924243E-1	1.023941E+0	9.784224E-1	9.861542E-1	1.016071E+0	1.018783E+0	9.845842E-1	9.988956E-1	9.734610E-1	9.657607E-1	9.581970E-1	9.815970E-1	9.697739E-1	9.854377E-1	1.000556E+0	9.855399E-1	9.695888E-1	9.438943E-1	9.787223E-1	9.842999E-1	9.626311E-1	9.688979E-1	9.784814E-1	9.826586E-1	9.579850E-1	9.488014E-1	9.905625E-1	9.907537E-1	9.793911E-1	1.006434E+0	9.164643E-1	9.737155E-1	9.501168E-1	9.530251E-1	9.960638E-1	9.670117E-1	9.518421E-1	9.919902E-1	1.005168E+0	1.110232E+0
5.575360E+2	1.073959E+0	1.024520E+0	1.018127E+0	9.954557E-1	1.001928E+0	9.975968E-1	1.019759E+0	1.046672E+0	1.011329E+0	1.080883E+0	1.034878E+0	1.042830E+0	1.006646E+0	1.066681E+0	1.019530E+0	1.071368E+0	1.071439E+0	1.062894E+0	1.054084E+0	1.035253E+0	9.859915E-1	1.068506E+0	1.051473E+0	1.020212E+0	1.047830E+0	1.032204E+0	1.032693E+0	1.068566E+0	9.847727E-1	1.048607E+0	1.041520E+0	1.018310E+0	1.016799E+0	1.036201E+0	9.965051E-1	1.056945E+0	1.047549E+0	1.009732E+0	1.015281E+0	1.066006E+0	1.023731E+0	1.048034E+0	1.057454E+0	1.033824E+0	1.034664E+0	1.039681E+0	1.005138E+0	1.015905E+0	1.006505E+0	1.018378E+0	1.001304E+0	1.040236E+0	1.027382E+0	1.028683E+0	9.827648E-1	1.049740E+0	1.006786E+0	1.025093E+0	1.061752E+0	1.021280E+0	1.010442E+0	1.031371E+0	1.045264E+0	1.006032E+0	1.047736E+0	1.051317E+0	1.058323E+0	1.056643E+0	1.026863E+0	1.064826E+0	1.048914E+0	1.037428E+0	1.003321E+0	9.785732E-1	1.014837E+0	1.037192E+0	1.067441E+0	1.057456E+0	1.012958E+0	1.042324E+0	1.012742E+0	1.012988E+0	1.080245E+0	1.019895E+0	1.033486E+0	9.932852E-1	1.068605E+0	1.060772E+0	1.023974E+0	1.046863E+0	1.014092E+0	1.048218E+0	1.034852E+0	1.031840E+0	1.022539E+0	1.028266E+0	1.037148E+0	1.045661E+0	1.057996E+0	1.022518E+0	1.017990E+0	1.025415E+0	1.029776E+0	1.056182E+0	1.045848E+0	1.016409E+0	9.885927E-1	1.023036E+0	9.940882E-1	1.007217E+0	9.930491E-1	1.029237E+0	1.037143E+0	1.051559E+0	9.970126E-1	1.039469E+0	1.065861E+0	1.021054E+0	1.015858E+0	1.052372E+0	1.050873E+0	1.029557E+0	1.052448E+0	1.015395E+0	1.009315E+0	1.044555E+0	1.022078E+0	1.046731E+0	1.001056E+0	1.049042E+0	1.018649E+0	1.011595E+0	1.036069E+0	1.034779E+0	1.000621E+0	1.049487E+0	1.011334E+0	1.066563E+0	1.052758E+0	1.057785E+0	1.054251E+0	1.044773E+0	1.034674E+0	9.953167E-1	1.004906E+0	1.002650E+0	1.060540E+0	1.024491E+0	1.043588E+0	1.013250E+0	1.056468E+0	1.055928E+0	1.010978E+0	9.969987E-1	1.043736E+0	9.950968E-1	1.024148E+0	1.016751E+0	9.876162E-1	1.041022E+0	1.053372E+0	9.984872E-1	1.036185E+0	1.024546E+0	1.042473E+0	1.068379E+0	1.046868E+0	1.058968E+0	1.063674E+0	1.015945E+0	1.059416E+0	1.073253E+0
5.580060E+2	1.037970E+0	1.032348E+0	1.014589E+0	1.010446E+0	1.047360E+0	1.054234E+0	1.002953E+0	1.031018E+0	1.015545E+0	1.024729E+0	1.044622E+0	1.015051E+0	1.041990E+0	1.017292E+0	1.023342E+0	1.032391E+0	1.016261E+0	1.033713E+0	1.026436E+0	1.014931E+0	1.039777E+0	1.033970E+0	1.043141E+0	1.046122E+0	9.962627E-1	9.953496E-1	1.028212E+0	9.730579E-1	1.027355E+0	1.036986E+0	9.965539E-1	1.039915E+0	1.041302E+0	1.012507E+0	1.012940E+0	9.972145E-1	1.034087E+0	1.020965E+0	1.043934E+0	1.021523E+0	1.051411E+0	1.026315E+0	1.049708E+0	1.019941E+0	1.016521E+0	1.041350E+0	9.962407E-1	1.007728E+0	1.021918E+0	1.015078E+0	1.068967E+0	9.557927E-1	1.028502E+0	1.032383E+0	1.024810E+0	9.981460E-1	1.036264E+0	1.015354E+0	9.959489E-1	1.008995E+0	1.013787E+0	1.012521E+0	1.029413E+0	1.016716E+0	9.912840E-1	1.030390E+0	1.012020E+0	1.015751E+0	1.026305E+0	1.028274E+0	1.034531E+0	1.034614E+0	1.038410E+0	9.984713E-1	1.022678E+0	9.778007E-1	1.030899E+0	1.018407E+0	1.052255E+0	1.014070E+0	1.004787E+0	1.001306E+0	9.942823E-1	1.008097E+0	1.048043E+0	1.031758E+0	1.010353E+0	1.026724E+0	1.007741E+0	1.042952E+0	1.079785E+0	1.047694E+0	1.030261E+0	1.010466E+0	1.057307E+0	1.004617E+0	1.056063E+0	1.001411E+0	1.029004E+0	1.004867E+0	1.015440E+0	1.025009E+0	9.804941E-1	9.973219E-1	9.966825E-1	1.021920E+0	9.913726E-1	1.023050E+0	1.025389E+0	1.015173E+0	1.006539E+0	1.038781E+0	1.039270E+0	9.752760E-1	1.025208E+0	1.029679E+0	1.019151E+0	1.018324E+0	1.043737E+0	1.008167E+0	1.053205E+0	9.885207E-1	9.387759E-1	1.041872E+0	1.032909E+0	1.013606E+0	1.024626E+0	1.052507E+0	1.051935E+0	1.018580E+0	1.054487E+0	1.002126E+0	1.059221E+0	1.012811E+0	1.018925E+0	1.003394E+0	9.783884E-1	1.003711E+0	1.028271E+0	1.022195E+0	1.012535E+0	1.009695E+0	1.003754E+0	1.009814E+0	1.001476E+0	1.017676E+0	1.021583E+0	1.055179E+0	1.027430E+0	1.003931E+0	1.007892E+0	1.022018E+0	1.032985E+0	9.828834E-1	1.011408E+0	1.030269E+0	9.843363E-1	1.013365E+0	1.039339E+0	1.023166E+0	1.012077E+0	1.010802E+0	1.038277E+0	1.007690E+0	9.992411E-1	1.054391E+0	1.013456E+0	1.045421E+0	9.806623E-1	1.068245E+0	9.811864E-1	1.001344E+0
5.585050E+2	1.018945E+0	1.034995E+0	1.045605E+0	1.034574E+0	1.049811E+0	1.029832E+0	1.073705E+0	1.020582E+0	1.071922E+0	1.047318E+0	1.042049E+0	1.009225E+0	1.069844E+0	1.048203E+0	1.040392E+0	1.046125E+0	1.020130E+0	1.022200E+0	1.025226E+0	1.004889E+0	1.066096E+0	1.038827E+0	1.061669E+0	1.058181E+0	9.712408E-1	1.015471E+0	1.059397E+0	1.046457E+0	1.071639E+0	9.956772E-1	1.062512E+0	1.042612E+0	1.052290E+0	1.057618E+0	1.003948E+0	1.046816E+0	1.038807E+0	1.036883E+0	1.030747E+0	1.033770E+0	1.014483E+0	1.044396E+0	1.017891E+0	1.050671E+0	1.026648E+0	1.053442E+0	1.037117E+0	1.034246E+0	9.993057E-1	1.066135E+0	1.015255E+0	1.045580E+0	1.049901E+0	1.021383E+0	1.035537E+0	1.017979E+0	1.027937E+0	1.029020E+0	1.002765E+0	1.038432E+0	1.026131E+0	1.047663E+0	1.036649E+0	1.030806E+0	1.020104E+0	9.942392E-1	1.049131E+0	1.042214E+0	1.017614E+0	1.040700E+0	1.033363E+0	1.030479E+0	1.056267E+0	1.049490E+0	9.827120E-1	1.037539E+0	1.061618E+0	1.059781E+0	1.019053E+0	1.017578E+0	1.028642E+0	1.003435E+0	1.041797E+0	1.051229E+0	1.018716E+0	1.016462E+0	9.910253E-1	1.003567E+0	1.073110E+0	1.038402E+0	1.026862E+0	1.030746E+0	1.041090E+0	1.031122E+0	1.018471E+0	1.072135E+0	1.052782E+0	1.039509E+0	1.002386E+0	1.069747E+0	1.033103E+0	1.047264E+0	1.058948E+0	1.021598E+0	1.035416E+0	1.009930E+0	1.080780E+0	1.050192E+0	1.013761E+0	1.018495E+0	1.034867E+0	1.016787E+0	9.997274E-1	1.034525E+0	1.041279E+0	1.040789E+0	1.038475E+0	1.038394E+0	1.039807E+0	1.069442E+0	1.015152E+0	1.041624E+0	1.040982E+0	1.048037E+0	1.033755E+0	1.018506E+0	1.037349E+0	1.010348E+0	1.036660E+0	1.028052E+0	1.036251E+0	1.046577E+0	1.030622E+0	1.067637E+0	1.013499E+0	1.035237E+0	1.043281E+0	1.050746E+0	1.032348E+0	1.043214E+0	1.072067E+0	1.064919E+0	1.018355E+0	1.010604E+0	1.047482E+0	1.029920E+0	1.008528E+0	9.782302E-1	1.009547E+0	1.034195E+0	1.022031E+0	1.040768E+0	1.041915E+0	1.036794E+0	1.035230E+0	1.056758E+0	1.037607E+0	1.056288E+0	9.880780E-1	1.034178E+0	1.040770E+0	1.031593E+0	1.046051E+0	1.061287E+0	1.032907E+0	1.049804E+0	1.022579E+0	1.003180E+0	1.040669E+0	1.073165E+0	1.051081E+0	9.002398E-1
5.590100E+2	9.802923E-1	1.050906E+0	1.034665E+0	1.067077E+0	1.024582E+0	1.048632E+0	1.049801E+0	1.010622E+0	1.007036E+0	9.943813E-1	1.050929E+0	1.075464E+0	9.906745E-1	1.004686E+0	1.060034E+0	9.853062E-1	1.036697E+0	1.063173E+0	1.039122E+0	1.051450E+0	1.017995E+0	1.070851E+0	9.984225E-1	1.010682E+0	1.044342E+0	1.065860E+0	1.022878E+0	9.873112E-1	1.009813E+0	1.054197E+0	9.585985E-1	1.043942E+0	1.043590E+0	1.020828E+0	1.041820E+0	1.033636E+0	1.015832E+0	1.040311E+0	1.014842E+0	1.016120E+0	1.033553E+0	1.039178E+0	9.986164E-1	1.032878E+0	1.020206E+0	1.016229E+0	1.047928E+0	1.044403E+0	1.025834E+0	1.017166E+0	1.011566E+0	1.060186E+0	1.018398E+0	1.045746E+0	1.054434E+0	1.015084E+0	1.032593E+0	1.048757E+0	1.064443E+0	1.043249E+0	1.032851E+0	9.972110E-1	1.017204E+0	1.043173E+0	1.037814E+0	1.014148E+0	1.037792E+0	9.844094E-1	1.056285E+0	1.029414E+0	1.002940E+0	1.047218E+0	1.031347E+0	1.046404E+0	1.050676E+0	1.042083E+0	1.024790E+0	9.602411E-1	1.060505E+0	1.003101E+0	1.029301E+0	1.027688E+0	1.055506E+0	1.055897E+0	1.033750E+0	1.023759E+0	1.019487E+0	1.035682E+0	1.027865E+0	9.985033E-1	1.000949E+0	1.014842E+0	1.057282E+0	9.990731E-1	1.065834E+0	1.040372E+0	9.798846E-1	1.045175E+0	1.008712E+0	1.015370E+0	1.019226E+0	1.013797E+0	9.881942E-1	1.039875E+0	1.006682E+0	1.044532E+0	1.041867E+0	1.033020E+0	1.053127E+0	1.040337E+0	1.028321E+0	1.047691E+0	1.038016E+0	1.030836E+0	1.020330E+0	1.007570E+0	1.030835E+0	1.028266E+0	1.023285E+0	9.712306E-1	1.002044E+0	1.014254E+0	1.039550E+0	9.889889E-1	1.043309E+0	1.007461E+0	1.031210E+0	1.020992E+0	9.889437E-1	1.039601E+0	1.053359E+0	1.033071E+0	1.033248E+0	1.003719E+0	1.044937E+0	1.039875E+0	1.015958E+0	1.039870E+0	1.002245E+0	1.000200E+0	9.972701E-1	1.000024E+0	1.020412E+0	1.054982E+0	1.014614E+0	1.019156E+0	1.021147E+0	1.054294E+0	1.018301E+0	1.066740E+0	1.034434E+0	1.044500E+0	1.051097E+0	1.040617E+0	1.046542E+0	1.042941E+0	9.888207E-1	1.007863E+0	1.007752E+0	1.038576E+0	1.042394E+0	1.006007E+0	1.014257E+0	1.055813E+0	1.037830E+0	1.019189E+0	1.044898E+0	1.014361E+0	9.983566E-1	1.006447E+0	9.440953E-1	9.959109E-1
5.595110E+2	9.729330E-1	1.011538E+0	9.936349E-1	1.025076E+0	1.002554E+0	9.984370E-1	1.018859E+0	9.993592E-1	9.928230E-1	1.013791E+0	9.855052E-1	1.017834E+0	1.036171E+0	9.955039E-1	9.981036E-1	1.007713E+0	9.745529E-1	9.916130E-1	1.040382E+0	9.879556E-1	1.004002E+0	9.978166E-1	9.668669E-1	9.715299E-1	9.930353E-1	1.011574E+0	1.044795E+0	9.968482E-1	9.952162E-1	9.842090E-1	1.031811E+0	1.057328E+0	1.043100E+0	1.037170E+0	1.041741E+0	9.691770E-1	1.003456E+0	1.006035E+0	1.022717E+0	9.782902E-1	9.978981E-1	1.015505E+0	1.008108E+0	1.006838E+0	1.020947E+0	1.037268E+0	1.002297E+0	1.012713E+0	1.028927E+0	1.022014E+0	1.020415E+0	1.016167E+0	1.025400E+0	1.007415E+0	9.888026E-1	1.008780E+0	1.037614E+0	9.814015E-1	1.038621E+0	1.009902E+0	1.006667E+0	1.036438E+0	1.004144E+0	9.787933E-1	1.004857E+0	9.860961E-1	1.007560E+0	9.960231E-1	9.874100E-1	9.854320E-1	9.767691E-1	9.691303E-1	1.012350E+0	1.061111E+0	1.030012E+0	9.768809E-1	9.666497E-1	1.052475E+0	9.921857E-1	9.709493E-1	1.036158E+0	1.011158E+0	1.004404E+0	9.947497E-1	1.012781E+0	9.939487E-1	1.006701E+0	9.977736E-1	1.021216E+0	9.723254E-1	9.551141E-1	1.023981E+0	1.004814E+0	9.948217E-1	1.050016E+0	9.539108E-1	1.010437E+0	9.698762E-1	1.038439E+0	1.043264E+0	9.726282E-1	9.981263E-1	1.003535E+0	1.021968E+0	1.004141E+0	1.026089E+0	1.041788E+0	9.983660E-1	1.018010E+0	1.042068E+0	9.941307E-1	9.942469E-1	9.672193E-1	9.893950E-1	1.011528E+0	9.859587E-1	1.016093E+0	9.940753E-1	1.005192E+0	9.857539E-1	9.847957E-1	1.014044E+0	1.038189E+0	1.011539E+0	9.793136E-1	1.005667E+0	1.014225E+0	1.003518E+0	9.797297E-1	1.088901E+0	9.805741E-1	1.001728E+0	9.806351E-1	1.009472E+0	1.018192E+0	9.903124E-1	1.003967E+0	9.713544E-1	1.031296E+0	1.018784E+0	9.948096E-1	9.889959E-1	9.975768E-1	1.001165E+0	9.949915E-1	9.876374E-1	1.008822E+0	1.009287E+0	9.930885E-1	1.022692E+0	9.617819E-1	1.008006E+0	9.672745E-1	1.008186E+0	1.012776E+0	9.787755E-1	1.022783E+0	1.004530E+0	1.026974E+0	9.982627E-1	1.063309E+0	1.042599E+0	1.012638E+0	9.939099E-1	1.057810E+0	1.034766E+0	1.002442E+0	1.021473E+0	1.031081E+0	9.994423E-1	9.124701E-1	8.755574E-1
5.600010E+2	9.419917E-1	9.482068E-1	9.330532E-1	9.506645E-1	9.469602E-1	9.202376E-1	9.331540E-1	9.451621E-1	9.355960E-1	9.172112E-1	9.164910E-1	9.358878E-1	9.359934E-1	9.408767E-1	9.240244E-1	8.939215E-1	9.223046E-1	9.229856E-1	9.151166E-1	9.641232E-1	9.473058E-1	9.284481E-1	9.584951E-1	9.383181E-1	9.483757E-1	9.687133E-1	9.254385E-1	9.534795E-1	9.416042E-1	9.181052E-1	9.391640E-1	9.388386E-1	9.448349E-1	9.305074E-1	9.621124E-1	9.379560E-1	9.473653E-1	9.402257E-1	9.235321E-1	9.675473E-1	9.565730E-1	9.012892E-1	9.623074E-1	9.377802E-1	9.517912E-1	8.857548E-1	9.397579E-1	9.256721E-1	9.854224E-1	9.345887E-1	9.332989E-1	9.379676E-1	9.600005E-1	9.596527E-1	8.950322E-1	9.651661E-1	9.341799E-1	9.257598E-1	8.718972E-1	9.538416E-1	9.610827E-1	9.044971E-1	9.594831E-1	9.517900E-1	9.659452E-1	9.198947E-1	9.417431E-1	9.801936E-1	9.793189E-1	9.279391E-1	9.674111E-1	9.292259E-1	9.438070E-1	9.189034E-1	9.268870E-1	9.612705E-1	9.366839E-1	9.625111E-1	9.245342E-1	9.241111E-1	9.508261E-1	9.550598E-1	9.320399E-1	9.395977E-1	9.531175E-1	9.383929E-1	9.559361E-1	9.129194E-1	9.262966E-1	9.642057E-1	9.497224E-1	9.071371E-1	9.495622E-1	9.601634E-1	9.434341E-1	9.683500E-1	9.004446E-1	9.718994E-1	9.351555E-1	9.273984E-1	9.421912E-1	9.678859E-1	9.831564E-1	9.070060E-1	9.548792E-1	9.494078E-1	9.250751E-1	9.624223E-1	9.471814E-1	9.712067E-1	9.582439E-1	9.314583E-1	9.699187E-1	9.580890E-1	9.243589E-1	9.661314E-1	9.411417E-1	9.025059E-1	9.101123E-1	8.970149E-1	9.610328E-1	9.408381E-1	9.543256E-1	9.587345E-1	9.338399E-1	9.562352E-1	9.186884E-1	9.682971E-1	9.836103E-1	9.149504E-1	9.588309E-1	9.306706E-1	9.480754E-1	9.451700E-1	9.595267E-1	9.260739E-1	9.518083E-1	8.752126E-1	9.538551E-1	9.525049E-1	9.510629E-1	9.549442E-1	9.507404E-1	9.385205E-1	9.036105E-1	1.000685E+0	9.196786E-1	9.596958E-1	9.545928E-1	9.109047E-1	9.431609E-1	9.379441E-1	9.591002E-1	9.263342E-1	9.531136E-1	9.401567E-1	9.694186E-1	9.798994E-1	9.595020E-1	9.366546E-1	9.178143E-1	9.540935E-1	9.639723E-1	9.480237E-1	9.381153E-1	8.946959E-1	9.210708E-1	9.766149E-1	9.758285E-1	9.378146E-1	9.409996E-1	9.072552E-1
5.605040E+2	1.003800E+0	9.864023E-1	9.976733E-1	9.455749E-1	9.974534E-1	9.723037E-1	9.798235E-1	1.036701E+0	1.019972E+0	9.729294E-1	9.664484E-1	9.842367E-1	9.906693E-1	9.586217E-1	1.016186E+0	9.546224E-1	9.538876E-1	9.790279E-1	9.886682E-1	1.027854E+0	1.004772E+0	9.853267E-1	9.920825E-1	9.464438E-1	1.032243E+0	9.989379E-1	9.991697E-1	1.007553E+0	1.025735E+0	9.903201E-1	9.681580E-1	9.917995E-1	1.008889E+0	9.599990E-1	1.013181E+0	9.857546E-1	9.972900E-1	9.891511E-1	9.706775E-1	9.682145E-1	9.861529E-1	1.018648E+0	9.945715E-1	1.001908E+0	9.818979E-1	9.939149E-1	1.024703E+0	1.014492E+0	1.002516E+0	1.000881E+0	9.827291E-1	1.004695E+0	9.733082E-1	9.831526E-1	1.030490E+0	1.006626E+0	9.853557E-1	9.855838E-1	1.008693E+0	9.694000E-1	9.742822E-1	9.802429E-1	1.024742E+0	1.030284E+0	9.657824E-1	9.888326E-1	9.691987E-1	1.038099E+0	9.781762E-1	9.748782E-1	1.003874E+0	9.710930E-1	1.013095E+0	9.924606E-1	1.047594E+0	1.025553E+0	1.011593E+0	9.331936E-1	1.011040E+0	1.001779E+0	9.662311E-1	1.003788E+0	9.708028E-1	1.040328E+0	9.937108E-1	9.753467E-1	1.015274E+0	1.005615E+0	1.009514E+0	9.660525E-1	1.007664E+0	9.955847E-1	9.887863E-1	1.025441E+0	9.490397E-1	1.007479E+0	9.896616E-1	1.010546E+0	9.895695E-1	1.007704E+0	1.047155E+0	9.577412E-1	1.031885E+0	1.008112E+0	1.033429E+0	9.929859E-1	1.022351E+0	9.929589E-1	9.559263E-1	9.881025E-1	1.037266E+0	9.854091E-1	9.604510E-1	9.972313E-1	9.996117E-1	9.940599E-1	9.666957E-1	1.031656E+0	1.020163E+0	1.026827E+0	1.008466E+0	9.894164E-1	1.021081E+0	1.013918E+0	1.013880E+0	1.034615E+0	9.614648E-1	1.021818E+0	9.504682E-1	9.887697E-1	9.874578E-1	9.953385E-1	9.475785E-1	9.903512E-1	1.006923E+0	9.876704E-1	9.906714E-1	1.009696E+0	9.769841E-1	9.807475E-1	1.007025E+0	9.699627E-1	1.015583E+0	1.038546E+0	1.007052E+0	1.018646E+0	1.017575E+0	1.011781E+0	1.005932E+0	1.012049E+0	9.918793E-1	9.581553E-1	9.719544E-1	1.009109E+0	9.983465E-1	9.773911E-1	1.021811E+0	9.955902E-1	1.009631E+0	9.761659E-1	9.698956E-1	1.020002E+0	9.614735E-1	9.877397E-1	9.739791E-1	9.916097E-1	9.693510E-1	9.990555E-1	1.023658E+0	1.007480E+0	1.071991E+0	9.508959E-1
5.610360E+2	9.865090E-1	1.008912E+0	1.024361E+0	1.019483E+0	1.025570E+0	1.063203E+0	1.049756E+0	1.022455E+0	1.006204E+0	1.060076E+0	1.022685E+0	9.770263E-1	1.030051E+0	1.026413E+0	1.059442E+0	1.042094E+0	1.015045E+0	9.900479E-1	1.036689E+0	1.000799E+0	1.022243E+0	1.025308E+0	9.736182E-1	1.047805E+0	1.063795E+0	1.003497E+0	9.955498E-1	9.958168E-1	1.000105E+0	1.000087E+0	1.040060E+0	1.028915E+0	9.988639E-1	9.790167E-1	1.038926E+0	1.019804E+0	1.029795E+0	9.811684E-1	9.899088E-1	1.010975E+0	1.015709E+0	9.933165E-1	9.837810E-1	9.728406E-1	9.938850E-1	1.003080E+0	1.025192E+0	1.006873E+0	1.043323E+0	9.736778E-1	1.020308E+0	1.006404E+0	9.962375E-1	1.027598E+0	1.057683E+0	1.012210E+0	9.893442E-1	1.045057E+0	1.027094E+0	9.876637E-1	1.039723E+0	1.029436E+0	9.966167E-1	1.035439E+0	1.000593E+0	1.023437E+0	9.761848E-1	1.020177E+0	1.040778E+0	9.922533E-1	1.044278E+0	1.007693E+0	1.019537E+0	9.790718E-1	9.794197E-1	1.021718E+0	9.874136E-1	1.012356E+0	1.000747E+0	1.017370E+0	1.049539E+0	1.020367E+0	1.011287E+0	9.997578E-1	9.791201E-1	1.042587E+0	9.987977E-1	1.038940E+0	1.018737E+0	1.046812E+0	1.048567E+0	1.031085E+0	9.808263E-1	1.031780E+0	1.026050E+0	9.992875E-1	1.050420E+0	1.021411E+0	1.039512E+0	1.006064E+0	1.041693E+0	1.018721E+0	1.040155E+0	1.007323E+0	1.014069E+0	9.871190E-1	9.814814E-1	1.006609E+0	1.023398E+0	1.029567E+0	1.008299E+0	1.036373E+0	1.040499E+0	1.002452E+0	1.059879E+0	9.573112E-1	1.011628E+0	1.025979E+0	1.075089E+0	1.030381E+0	1.036473E+0	1.019525E+0	1.034658E+0	9.838198E-1	1.008797E+0	1.030102E+0	1.014338E+0	9.887340E-1	1.027078E+0	9.922190E-1	9.948111E-1	1.042271E+0	1.020528E+0	9.849009E-1	1.008834E+0	1.025334E+0	9.874540E-1	1.036351E+0	1.026885E+0	1.009397E+0	9.959613E-1	1.005431E+0	1.012375E+0	1.025104E+0	1.043670E+0	9.943260E-1	1.022704E+0	1.011036E+0	1.025285E+0	1.012433E+0	1.056276E+0	1.030549E+0	1.000141E+0	1.056367E+0	1.003501E+0	1.023520E+0	1.026116E+0	1.023174E+0	1.051675E+0	1.030657E+0	1.021765E+0	9.888717E-1	1.062508E+0	1.014095E+0	1.054918E+0	9.866921E-1	1.009569E+0	9.726874E-1	9.700913E-1	9.974053E-1	9.877896E-1	1.047874E+0
