Photon Energy (eV)	#1	#2	#3	#4	#5	#6	#7	#8	#9	#10	#11	#12	#13	#14	#15	#16	#17	#18	#19	#20	#21	#22	#23	#24	#25	#26	#27	#28	#29	#30	#31	#32	#33	#34	#35	#36	#37	#38	#39	#40	#41	#42	#43	#44	#45	#46	#47	#48	#49	#50	#51	#52	#53	#54	#55	#56	#57	#58	#59	#60	#61	#62	#63	#64	#65	#66	#67	#68	#69	#70	#71	#72	#73	#74	#75	#76	#77	#78	#79	#80	#81	#82	#83	#84	#85	#86	#87	#88	#89	#90	#91	#92	#93	#94	#95	#96	#97	#98	#99	#100	#101	#102	#103	#104	#105	#106	#107	#108	#109	#110	#111	#112	#113	#114	#115	#116	#117	#118	#119	#120	#121	#122	#123	#124	#125	#126	#127	#128	#129	#130	#131	#132	#133	#134	#135	#136	#137	#138	#139	#140	#141	#142	#143	#144	#145	#146	#147	#148	#149	#150	#151	#152	#153	#154	#155	#156	#157	#158	#159	#160	#161	#162	#163	#164	#165	#166	#167	#168	#169	#170	#171	
5.300160E+2	-5.555195E-3	-6.528626E-3	-1.361988E-2	-6.402752E-3	-4.858790E-3	-4.822284E-3	-3.450279E-3	-2.839859E-3	-4.060645E-3	-7.290124E-3	-3.791032E-3	-6.937423E-5	-7.377268E-3	-3.896016E-3	2.654770E-3	-6.656244E-3	1.966966E-3	-5.886160E-3	-6.137853E-3	-4.832525E-3	-3.705982E-3	-1.215804E-2	-9.463439E-3	-3.167273E-3	-4.016636E-3	-8.672356E-3	-1.182337E-5	-7.063001E-3	2.739550E-3	-1.273095E-3	-5.454637E-3	-9.034397E-3	-1.525590E-2	-9.157052E-3	-9.259186E-3	-5.933458E-4	-7.515667E-3	-9.330651E-3	-1.599862E-2	-9.822190E-4	6.434253E-3	-1.242558E-2	-8.508019E-3	-5.230951E-3	-3.518159E-3	-1.311584E-2	-5.849208E-3	-1.102924E-2	-1.105916E-2	-9.573368E-3	-4.129914E-3	-1.284091E-2	3.361930E-3	-7.985834E-3	-1.459902E-2	3.948900E-3	-1.877415E-3	-7.440523E-3	-3.826638E-3	-1.065604E-2	-8.844529E-3	-8.239099E-3	7.183144E-3	-3.547577E-3	-6.799597E-3	-3.386845E-3	-2.667032E-3	-3.192482E-3	-4.645009E-3	-5.749730E-4	-4.541975E-3	-2.733342E-3	-9.464441E-3	-1.526982E-2	-1.208690E-2	2.525510E-3	-8.872548E-3	-6.842750E-3	-8.998981E-3	-1.221932E-2	-5.128904E-3	-4.402047E-3	-6.688361E-3	5.313090E-5	-4.749457E-3	-5.697777E-3	-8.046792E-3	-8.501015E-3	-1.224694E-2	-5.684001E-3	-4.272966E-3	-8.701445E-3	-4.380172E-3	-9.170721E-3	-7.272116E-3	-1.185174E-2	3.394944E-3	-7.479815E-3	-1.502749E-3	-4.954110E-3	-7.552431E-3	-1.228196E-2	-3.646080E-3	-5.146287E-3	-8.718425E-3	-3.125296E-3	-8.814075E-3	-4.719522E-3	-7.837320E-3	-9.466707E-3	5.710231E-4	-1.115614E-2	-1.137764E-2	-7.087153E-3	-1.010173E-2	-7.898057E-3	-1.020754E-2	-3.170901E-3	-7.734231E-3	-1.219618E-2	-9.798378E-3	-1.280577E-2	-9.488065E-3	-6.486801E-3	-3.022373E-3	-1.863821E-3	-5.130311E-3	-1.200279E-2	-7.564766E-4	-1.111724E-2	-4.574377E-3	-1.595614E-2	-8.049812E-3	-6.695236E-3	-9.530690E-3	-9.282033E-3	8.741761E-4	-7.026973E-3	-5.314538E-3	-1.010324E-2	-9.447128E-3	-4.209405E-3	6.477586E-5	-1.021687E-2	-1.288466E-2	-3.085253E-3	-2.919131E-3	-4.234857E-3	3.870663E-3	1.496244E-3	-8.311780E-3	-3.866430E-3	-6.810493E-3	-8.160685E-3	-2.540095E-3	-5.434423E-3	-1.521644E-2	-4.124785E-3	-7.726231E-3	-7.283732E-3	-3.046275E-3	-1.944101E-2	3.665247E-3	-1.475510E-2	-6.501965E-3	-7.994653E-3	-1.135672E-2	-6.231541E-3	-7.831920E-3	-9.583472E-3	-1.764935E-2
5.305130E+2	-8.637330E-3	-4.442391E-3	-1.591862E-2	-9.250980E-3	-7.869004E-3	7.716466E-4	-5.526983E-3	-4.865006E-3	-4.851224E-3	-2.877826E-3	2.467477E-3	-1.067141E-2	-3.019630E-3	-2.945901E-3	-4.791432E-3	4.015845E-3	-6.718279E-3	-3.858902E-3	-8.300957E-3	-2.342306E-3	-3.271659E-3	2.024816E-3	-1.357235E-3	-1.467893E-2	-7.395388E-3	1.424448E-4	-8.503662E-5	-3.841390E-3	1.879361E-4	-4.723791E-3	-3.568896E-3	1.384168E-3	3.176426E-3	-5.071847E-3	1.022250E-3	-6.561898E-3	-7.618120E-3	-5.050442E-3	-1.063896E-2	-1.040245E-2	-4.590231E-3	-1.491856E-3	-4.294424E-3	-3.097671E-3	-1.181953E-2	-1.087221E-4	-4.961205E-3	-1.152311E-3	-6.638056E-3	-9.220136E-3	3.527583E-3	7.488328E-4	-1.814031E-3	-7.176712E-3	-7.447402E-3	-2.205513E-3	-7.113344E-3	2.723882E-3	-8.333436E-3	-4.951003E-3	-6.355722E-3	-1.433975E-3	-4.371868E-3	-2.670459E-3	-1.082973E-2	-1.126882E-2	-9.551351E-3	-1.643028E-3	-1.279230E-2	-1.188039E-2	-3.648017E-3	-3.312805E-3	-8.009495E-3	-2.692666E-3	-5.824978E-3	1.327560E-3	1.042972E-3	-3.519579E-3	-1.072357E-3	9.464929E-5	3.625179E-3	-4.007071E-3	-7.522418E-3	-7.598896E-3	-1.139916E-2	-9.401071E-3	-7.442638E-3	-9.008327E-3	-2.105968E-3	-2.863753E-3	1.827356E-3	-3.247976E-3	-8.220888E-3	-1.964318E-3	-4.660887E-3	-3.675570E-3	-5.982769E-3	-8.802990E-3	-6.186598E-3	-7.122106E-4	-7.107900E-3	-2.806494E-3	-6.204811E-3	4.846290E-4	-4.300083E-3	-1.050200E-2	-2.762572E-3	-8.981840E-4	6.158370E-5	9.382545E-4	3.630777E-3	2.515743E-4	8.472032E-4	-1.073077E-2	-4.353385E-3	-4.472486E-3	-7.980267E-3	-9.207026E-3	1.425623E-3	-5.735541E-3	2.929279E-3	8.667389E-3	-2.545033E-3	-7.098323E-3	-2.596838E-3	1.369791E-4	-6.299339E-3	-3.807527E-3	-1.036056E-2	-2.663734E-3	2.661162E-3	-9.595893E-3	-1.086474E-2	-8.656859E-3	-7.134321E-3	-1.365218E-2	1.925112E-3	-9.231557E-3	-5.562011E-3	-2.667752E-3	-3.461656E-3	2.156086E-3	-3.357473E-3	-1.556158E-3	-1.186728E-2	-8.014215E-3	-1.771412E-4	-1.061160E-2	-5.814978E-3	-4.621828E-3	3.686222E-3	-5.377444E-3	-1.079893E-2	-4.320898E-3	-3.967067E-3	-8.388874E-3	-5.075106E-3	-3.151311E-3	-8.530913E-3	-2.657889E-3	-3.600109E-3	2.815289E-3	-1.397584E-2	-6.638353E-3	-5.111315E-3	-1.159950E-3	-4.807734E-3	-1.948060E-4	-9.075810E-3	1.047914E-3	-5.920531E-3
5.310150E+2	-7.113704E-3	-8.144864E-5	1.534614E-3	-3.447022E-3	2.656428E-3	1.690441E-3	-2.647022E-3	-1.560596E-3	-9.142277E-4	-4.505081E-3	-1.897723E-3	-2.962526E-3	-3.169283E-3	-9.924625E-4	-6.282875E-3	-7.668497E-3	3.393858E-3	5.950216E-3	-5.346160E-3	-1.177967E-2	-1.658032E-4	2.895908E-3	-1.828015E-3	-5.667642E-3	-2.154850E-3	3.531220E-3	-1.004384E-2	1.105456E-3	-1.318049E-2	-2.400860E-3	-2.105399E-4	3.990821E-3	-2.844991E-3	1.075113E-4	3.528164E-3	4.113276E-3	2.718726E-3	-4.166971E-3	3.190180E-4	5.597636E-3	-1.003518E-2	-2.800947E-3	1.035496E-3	1.790608E-4	-3.277414E-3	-4.136373E-3	-4.113714E-3	-4.391762E-3	-6.807655E-3	-1.050141E-2	-7.228912E-3	5.880984E-4	-1.914153E-3	3.795949E-3	-2.520038E-3	-1.058465E-2	1.870565E-3	-1.394518E-2	-4.123712E-3	6.152640E-3	-6.881171E-4	1.945141E-3	-8.048956E-3	2.233955E-3	1.665403E-3	7.694779E-4	1.531411E-3	2.626185E-3	1.004463E-3	-2.003366E-4	-9.741831E-3	1.653855E-3	2.323892E-3	-1.602115E-4	-5.996052E-3	1.021594E-2	-5.354988E-3	-6.962666E-4	6.924489E-3	-5.465482E-3	-9.187529E-3	-4.261154E-3	3.301754E-3	-1.225072E-3	7.254078E-3	2.380369E-3	4.822208E-3	-9.261060E-4	-2.862208E-3	-8.564993E-3	-5.209466E-3	-5.138910E-3	-5.024196E-3	-5.325766E-3	-2.289011E-3	-1.346420E-3	-2.242624E-3	-2.727428E-4	-6.413924E-3	-6.407714E-3	-4.301132E-3	-2.837773E-3	-6.411042E-4	-1.652496E-3	6.357589E-3	-2.304684E-3	1.059210E-2	-3.270623E-3	4.292935E-3	-8.237675E-3	-1.464493E-3	-3.215808E-4	-1.135522E-2	-4.241163E-3	-5.070148E-3	-6.505474E-3	-3.448567E-3	4.365085E-3	1.443115E-3	-1.286972E-3	-2.283595E-3	-5.667211E-3	-3.125429E-3	-1.537936E-2	-2.215834E-3	-3.027061E-3	2.222679E-3	-3.386420E-3	-5.250092E-3	-5.473621E-3	-4.670252E-3	-7.892958E-4	-3.079962E-3	-2.955168E-3	-7.510538E-3	-9.835430E-3	-2.970777E-3	1.795931E-3	-3.662674E-3	7.753839E-3	5.531107E-4	-5.823337E-3	4.561295E-3	-2.967370E-3	-9.633227E-3	-7.642244E-3	-8.980735E-3	1.238843E-4	-7.377865E-3	-8.042116E-3	-4.395289E-3	-1.258030E-3	1.225718E-3	1.389428E-2	1.508198E-3	-1.671560E-3	1.569425E-3	-6.366443E-3	-2.123418E-3	-5.415576E-3	-6.325537E-3	-2.806596E-4	-2.847749E-3	5.828625E-4	-4.219595E-3	-8.134934E-3	-8.326316E-3	1.943944E-3	-1.915650E-4	-6.454385E-3	-1.113802E-2
5.315130E+2	6.285739E-3	5.547061E-3	4.651949E-3	-2.508399E-4	-4.232698E-3	-1.007981E-3	-7.150515E-4	-3.095579E-3	8.567386E-3	-1.055101E-3	3.860545E-3	7.333542E-4	-2.745826E-3	-4.203763E-3	1.183815E-3	6.992003E-3	-3.743691E-3	-4.709071E-3	3.930929E-3	2.641929E-3	2.474129E-3	-3.213915E-3	5.025743E-3	5.353947E-3	-4.415706E-3	-1.560776E-3	7.336926E-4	-7.498935E-5	3.050604E-3	-5.909562E-3	3.197167E-3	-3.548258E-3	2.840496E-4	4.320169E-3	8.151892E-4	-5.180424E-3	-2.599614E-3	-4.731495E-3	3.477518E-3	4.090748E-3	2.693644E-3	3.287040E-3	-2.903052E-3	-3.962879E-3	9.258563E-3	4.086063E-3	1.172751E-3	-3.994604E-3	1.203018E-2	4.768068E-3	4.983917E-3	-2.977428E-3	2.763191E-3	-1.588328E-3	-1.207049E-3	-1.400147E-3	-1.671935E-3	-4.062188E-5	4.629748E-3	1.283021E-3	9.862198E-3	8.710056E-4	-3.042158E-3	-4.619895E-3	1.581192E-3	6.812713E-3	3.115110E-4	1.977665E-3	6.696425E-3	4.940456E-3	-1.942257E-3	3.102909E-3	1.478262E-5	-2.922160E-3	4.701426E-3	-6.264290E-3	2.135762E-4	-6.158440E-3	-6.451696E-3	-2.543348E-3	2.734277E-3	-4.346820E-3	-8.996060E-3	1.968443E-3	-1.482685E-3	7.496064E-3	-9.496311E-3	8.673921E-3	1.090054E-2	2.236003E-3	-1.307327E-3	-7.425831E-3	7.936102E-3	5.697441E-3	-4.806194E-3	7.383855E-6	-1.110225E-2	3.723732E-3	5.777642E-3	-4.097332E-4	1.449324E-3	1.262946E-3	3.039036E-3	8.618315E-4	-7.553317E-3	1.024267E-2	-7.141879E-3	-6.185824E-3	-6.067781E-3	2.307312E-3	-1.103319E-2	-3.953906E-4	7.432163E-3	8.972873E-3	8.888977E-3	-3.582413E-3	1.035516E-2	-7.465408E-3	-3.183151E-3	4.416718E-3	-1.142326E-4	2.249540E-3	3.301323E-3	5.488304E-3	-1.176061E-3	4.869273E-4	1.152974E-4	-3.941180E-3	3.011214E-3	3.908657E-4	-4.986367E-4	1.168535E-2	-3.555318E-4	3.674898E-4	7.020127E-3	7.472526E-3	-3.047440E-3	-9.452762E-4	6.825253E-3	-6.958604E-3	-1.053315E-3	-6.384790E-3	2.812148E-6	-2.567592E-4	6.424731E-3	-7.115643E-3	-8.464476E-3	6.067428E-4	2.365507E-3	9.491061E-4	1.455311E-3	7.849710E-3	5.575043E-3	2.910672E-3	-2.268378E-4	-4.039885E-5	1.485826E-3	6.570512E-3	5.395720E-3	5.172834E-3	2.521803E-3	3.201234E-3	2.773603E-3	-4.548343E-3	-2.814527E-3	1.218316E-2	1.294361E-2	-6.679224E-4	-2.770235E-4	3.564063E-4	-9.178887E-4
5.320070E+2	3.195631E-3	-8.603886E-4	1.198637E-2	5.076002E-3	1.319742E-2	-2.158419E-3	2.691219E-3	8.599130E-3	-5.897758E-3	5.871650E-3	-2.648217E-3	2.728932E-3	7.164192E-3	5.029892E-3	4.351525E-3	-1.310884E-3	2.626626E-3	1.848989E-3	2.768046E-3	5.099775E-3	2.368235E-3	2.708063E-3	6.645119E-3	7.156971E-3	9.598322E-3	-3.666306E-3	-3.503498E-3	-4.755473E-3	8.000014E-3	3.764699E-3	5.909908E-4	-5.506935E-4	3.366024E-3	1.063739E-2	-1.391893E-3	1.735252E-3	1.582106E-3	9.696259E-3	1.165627E-2	5.402988E-3	3.715777E-3	4.270305E-3	4.650202E-3	4.701227E-3	-4.022715E-3	5.049410E-3	-1.859875E-3	5.038430E-3	-3.555940E-4	6.222620E-3	-1.843219E-3	6.155280E-3	-2.085070E-3	4.948104E-3	1.013516E-2	-9.891644E-4	9.076595E-3	5.510765E-3	-6.526235E-3	5.966114E-3	1.681934E-4	2.543610E-4	3.426441E-3	5.686048E-3	8.989535E-4	-1.120857E-3	7.462443E-4	-9.015249E-4	8.086938E-4	-4.630886E-3	5.327012E-3	-8.222413E-3	7.651916E-3	1.137955E-2	1.154632E-2	-8.050489E-3	3.464185E-3	6.440896E-3	-2.287692E-3	7.311251E-3	7.930054E-4	2.765534E-4	3.631831E-3	2.375925E-3	5.500512E-3	1.644847E-3	2.246254E-3	1.777427E-3	3.657500E-4	-1.522368E-3	5.516366E-5	1.116152E-2	4.401538E-3	1.774032E-3	4.425534E-3	1.199033E-3	4.170146E-3	4.167260E-3	2.309574E-3	-4.928161E-3	2.747311E-3	1.042727E-2	-7.169856E-4	7.319199E-4	1.352941E-2	2.653715E-3	9.594011E-4	-1.752919E-3	-7.950796E-4	3.219417E-3	-5.434174E-4	-3.512694E-3	6.176533E-3	2.740207E-3	9.319505E-3	1.185336E-2	1.025610E-3	1.376185E-3	8.334918E-4	7.180584E-3	5.855872E-3	2.697781E-3	1.705865E-3	1.027982E-2	9.499473E-4	-2.163799E-3	1.535560E-3	1.059076E-2	4.081313E-3	2.976711E-3	1.212981E-3	1.977843E-4	4.656180E-3	5.587364E-3	1.753111E-3	5.097295E-3	-5.819511E-3	-2.111626E-3	1.707683E-3	4.603587E-3	-3.192125E-3	7.884201E-3	-5.558222E-3	2.418503E-3	1.123667E-2	1.204515E-2	4.559146E-3	-2.951187E-3	1.770546E-3	3.230838E-3	1.357763E-3	-3.989454E-3	2.679106E-3	-3.498649E-3	-8.896720E-4	4.137870E-4	1.889951E-3	4.369991E-3	8.314062E-3	-4.189653E-3	8.685021E-3	9.014030E-3	4.735256E-3	2.624789E-3	2.471947E-3	3.746391E-3	-4.905943E-3	4.797594E-4	3.812946E-3	9.395801E-3	-1.130467E-2
5.325170E+2	1.182486E-2	6.365794E-3	1.136557E-2	1.427559E-2	1.106641E-3	5.526596E-3	9.648117E-3	3.761910E-3	7.156469E-3	9.856482E-3	2.008950E-3	1.024103E-2	9.147816E-3	7.008251E-3	2.884197E-3	4.627777E-3	2.474520E-3	6.654928E-3	1.308600E-2	1.121279E-2	2.301080E-3	7.743172E-3	9.778276E-4	1.100293E-2	8.384258E-3	1.022577E-2	1.291050E-2	1.462940E-2	-7.976155E-4	1.054261E-2	5.445914E-3	7.758359E-3	1.127439E-2	-8.361673E-4	5.285476E-3	6.487140E-3	1.343257E-2	1.358330E-2	1.118477E-2	-3.706700E-3	1.781737E-3	9.161034E-3	1.001980E-2	7.411213E-3	1.337926E-2	8.225457E-3	1.561125E-2	1.552949E-2	1.283028E-2	1.830423E-2	4.690545E-3	8.326125E-3	-3.118676E-4	8.006821E-3	1.563835E-2	1.123057E-2	-2.844651E-4	1.319168E-2	1.818027E-2	2.205268E-3	5.857977E-3	6.602567E-3	4.853399E-3	2.917927E-3	1.348378E-2	8.194327E-3	9.629217E-3	1.133185E-3	8.927727E-3	1.234613E-2	1.454707E-2	9.511795E-3	7.483346E-3	9.665308E-3	7.660186E-3	2.457709E-4	9.506803E-3	1.077614E-2	1.188624E-2	1.282225E-2	7.163973E-3	1.674054E-2	1.627326E-2	4.426469E-3	4.876711E-3	3.577568E-3	1.791728E-2	7.984100E-3	5.948830E-3	1.639911E-2	8.907240E-3	1.335265E-2	5.287616E-3	8.989333E-3	1.460267E-2	1.566732E-2	1.176255E-2	8.664556E-3	6.016054E-3	1.741193E-2	1.476483E-2	6.236013E-3	8.169946E-3	4.720402E-3	6.848230E-4	3.035591E-3	7.167027E-3	1.682707E-2	1.034566E-2	1.123940E-2	8.839305E-3	1.513423E-2	8.276965E-3	1.034600E-2	1.316782E-3	1.060507E-2	1.025560E-2	1.410207E-2	7.215152E-3	7.621394E-3	3.411055E-3	4.858273E-3	1.015134E-2	1.319636E-2	8.061158E-3	6.430774E-3	7.556113E-3	1.254715E-2	9.274597E-3	1.588701E-2	5.869124E-3	1.445819E-2	1.769387E-2	1.235241E-2	1.540231E-2	2.019983E-2	9.038440E-3	1.751950E-2	6.006288E-3	7.372171E-3	1.660111E-2	6.377245E-3	4.286813E-3	1.257865E-2	1.672376E-2	1.381220E-2	1.598234E-2	1.706702E-2	5.186128E-3	6.987756E-3	6.207773E-3	6.641647E-3	8.129558E-3	-8.247183E-4	6.115474E-3	1.512147E-2	1.534635E-2	2.702035E-3	4.670781E-3	1.437402E-2	1.765097E-3	4.691115E-3	5.649481E-3	2.273414E-2	1.617546E-2	1.359989E-3	1.645310E-2	4.670566E-3	1.356337E-2	5.237736E-3	4.693046E-2
5.330280E+2	2.735892E-2	2.207418E-2	1.371161E-2	1.912475E-2	2.475649E-2	1.518408E-2	1.137563E-2	2.794253E-2	3.216598E-2	2.640606E-2	9.244376E-3	2.601888E-2	1.571643E-2	1.561351E-2	1.976443E-2	1.658771E-2	1.912945E-2	2.923177E-2	7.534641E-3	2.105289E-2	2.582373E-2	1.823780E-2	2.606633E-2	1.449161E-2	1.841782E-2	2.259558E-2	3.615361E-2	2.556679E-2	2.431122E-2	1.520604E-2	2.124093E-2	3.477024E-2	1.100574E-2	3.723518E-2	1.553605E-2	1.412351E-2	2.038907E-2	2.363347E-2	2.399940E-2	2.893286E-2	1.202760E-2	2.124683E-2	2.575654E-2	2.073835E-2	1.417524E-2	6.744396E-3	4.038890E-2	1.882456E-2	5.842524E-3	3.133406E-2	2.967134E-2	2.019810E-2	2.526679E-2	2.163505E-2	1.402919E-2	2.750376E-2	1.031659E-2	1.028278E-2	1.451039E-2	3.001913E-2	2.212504E-2	3.481781E-2	8.118134E-3	2.866317E-2	1.984061E-2	2.132534E-2	2.751912E-2	2.415615E-2	2.663159E-2	4.028671E-2	2.970885E-2	2.155992E-2	1.719724E-2	1.742782E-2	2.958347E-2	2.150196E-2	2.564822E-2	2.531872E-2	2.648445E-2	1.913184E-2	1.522323E-2	1.936605E-2	2.412406E-2	1.399895E-2	2.560502E-2	1.581907E-2	1.004940E-2	2.429395E-2	1.255778E-2	3.062532E-2	1.865564E-2	1.363283E-2	3.424917E-2	2.948251E-2	2.983946E-2	1.089684E-2	2.976078E-2	2.182901E-2	1.911918E-2	1.662855E-2	1.760473E-2	2.038308E-2	2.214389E-2	3.191107E-2	2.641332E-2	2.813816E-2	1.515411E-2	1.712634E-2	1.939733E-2	1.805623E-2	2.478749E-2	1.941318E-2	1.994015E-2	2.753634E-2	1.505389E-2	2.229633E-2	2.070926E-2	2.523852E-2	2.030685E-2	2.997377E-2	1.559648E-2	2.578290E-2	2.245450E-2	2.704001E-2	1.444812E-2	2.726500E-2	2.259384E-2	1.423565E-2	1.846752E-2	1.500927E-2	1.889005E-2	2.368467E-2	2.355513E-2	2.770565E-2	1.657654E-2	1.309023E-2	3.080649E-2	2.633614E-2	1.964014E-2	1.757760E-2	1.172845E-2	2.554892E-2	2.554459E-2	2.444492E-2	3.263879E-2	1.946363E-2	2.647333E-2	2.191493E-2	2.489997E-2	3.214960E-2	2.330572E-2	4.647895E-2	2.414318E-2	2.585844E-2	1.848993E-2	2.740229E-2	1.874920E-2	3.592390E-2	2.168106E-2	1.742126E-2	9.381382E-3	2.231136E-2	2.512434E-2	3.312940E-2	2.647963E-2	3.984150E-2	2.118374E-2	2.334070E-2	1.730605E-2	2.506585E-2	1.821549E-2
5.331580E+2	2.153748E-2	2.735630E-2	2.676323E-2	2.773500E-2	2.599602E-2	3.057437E-2	2.215041E-2	2.642222E-2	2.556405E-2	1.938703E-2	3.517992E-2	3.731888E-2	2.652187E-2	3.095618E-2	2.321894E-2	3.347441E-2	2.634772E-2	2.596895E-2	2.284890E-2	1.839185E-2	2.827383E-2	3.428577E-2	3.583508E-2	2.745678E-2	3.098266E-2	3.335980E-2	1.961415E-2	2.765277E-2	2.923091E-2	1.878558E-2	3.497629E-2	2.973168E-2	3.117333E-2	2.434052E-2	1.828981E-2	1.702126E-2	2.150349E-2	1.739155E-2	3.255100E-2	3.271259E-2	2.561222E-2	3.277144E-2	2.209390E-2	2.344282E-2	1.617194E-2	2.753447E-2	3.222819E-2	3.563991E-2	3.438079E-2	2.612206E-2	1.344903E-2	2.352650E-2	2.168856E-2	2.941310E-2	3.274490E-2	4.150420E-2	2.855898E-2	2.772735E-2	2.311295E-2	3.061171E-2	3.227479E-2	2.798195E-2	3.034557E-2	2.737788E-2	3.350833E-2	1.808379E-2	1.567531E-2	2.269823E-2	2.149865E-2	3.187197E-2	3.317217E-2	4.135246E-2	1.753175E-2	2.355236E-2	3.740533E-2	2.275050E-2	2.421162E-2	3.240326E-2	3.529099E-2	2.758135E-2	1.962053E-2	2.438165E-2	1.842098E-2	2.735366E-2	2.578807E-2	2.751626E-2	2.699985E-2	2.592537E-2	2.786771E-2	2.717699E-2	2.432755E-2	2.282382E-2	3.354856E-2	3.715709E-2	2.600751E-2	1.900227E-2	2.326385E-2	3.081496E-2	3.051342E-2	1.509730E-2	3.149892E-2	2.846152E-2	2.514989E-2	2.273906E-2	2.780091E-2	2.837171E-2	3.541345E-2	2.411292E-2	3.534743E-2	3.091942E-2	2.828116E-2	1.646762E-2	3.445537E-2	1.992046E-2	1.854835E-2	2.773266E-2	3.018112E-2	2.442303E-2	3.611754E-2	3.300302E-2	2.659690E-2	1.670655E-3	3.318862E-2	3.274106E-2	2.582231E-2	3.205305E-2	3.503704E-2	2.373818E-2	2.698983E-2	2.111195E-2	3.738091E-2	3.164654E-2	2.509487E-2	2.686069E-2	3.192397E-2	2.678819E-2	3.256312E-2	4.314487E-2	2.369309E-2	1.828751E-2	1.134748E-2	3.120108E-2	1.713538E-2	2.318755E-2	1.208098E-2	2.439153E-2	3.256199E-2	1.854477E-2	3.946277E-2	4.192063E-2	3.390998E-2	2.963694E-2	2.370763E-2	2.888488E-2	2.694594E-2	3.042058E-2	3.724017E-2	3.135956E-2	2.436636E-2	1.849840E-2	2.701547E-2	2.122352E-2	2.472644E-2	4.118064E-2	2.620941E-2	3.626420E-2	1.998888E-2	2.986411E-2	3.884710E-2	1.825346E-2	1.725869E-3
5.333130E+2	5.164033E-2	4.103630E-2	3.640394E-2	3.024190E-2	2.970154E-2	3.094943E-2	3.942655E-2	4.874074E-2	3.378823E-2	3.564917E-2	4.322950E-2	5.052877E-2	4.489238E-2	3.825636E-2	3.711131E-2	4.331496E-2	3.384580E-2	4.493817E-2	3.431895E-2	4.520436E-2	4.214903E-2	4.471260E-2	4.301677E-2	4.146747E-2	3.749834E-2	5.064237E-2	3.623176E-2	3.920315E-2	3.640458E-2	4.608867E-2	4.662689E-2	4.540388E-2	3.264460E-2	2.569577E-2	2.657103E-2	3.195968E-2	4.323509E-2	4.303241E-2	4.200080E-2	3.880264E-2	4.926399E-2	3.655542E-2	6.002937E-2	3.184598E-2	5.177969E-2	2.730427E-2	3.515533E-2	3.939950E-2	3.011129E-2	5.234894E-2	3.130964E-2	2.862688E-2	5.025224E-2	4.254454E-2	3.040126E-2	4.101772E-2	3.496586E-2	3.605200E-2	4.826153E-2	4.910541E-2	4.748297E-2	4.613669E-2	3.651598E-2	3.802757E-2	4.408592E-2	3.822890E-2	3.895631E-2	3.336235E-2	3.328542E-2	3.476080E-2	4.173561E-2	4.031365E-2	4.758653E-2	3.546898E-2	3.086823E-2	3.525804E-2	3.239542E-2	4.490867E-2	3.099490E-2	3.531736E-2	4.257744E-2	4.654905E-2	3.702849E-2	4.314771E-2	3.868218E-2	3.800344E-2	4.110173E-2	3.867910E-2	4.293291E-2	3.876547E-2	4.005610E-2	3.664959E-2	4.428057E-2	4.251586E-2	4.247814E-2	3.805078E-2	3.606165E-2	5.867083E-2	2.859509E-2	4.398582E-2	3.601620E-2	4.365846E-2	3.363586E-2	4.840372E-2	5.541131E-2	4.330261E-2	4.361774E-2	4.084165E-2	4.024920E-2	3.647907E-2	2.123711E-2	4.163852E-2	3.829058E-2	3.379387E-2	4.401386E-2	4.255713E-2	3.633557E-2	2.630151E-2	3.296275E-2	3.160997E-2	4.247915E-2	2.682628E-2	5.151138E-2	3.553918E-2	5.230513E-2	2.671211E-2	4.743891E-2	2.712251E-2	3.639963E-2	3.687244E-2	5.450025E-2	2.957338E-2	4.166681E-2	5.102680E-2	5.308939E-2	3.687098E-2	4.444741E-2	3.658093E-2	4.326830E-2	4.235831E-2	3.912054E-2	3.418689E-2	4.487885E-2	3.965141E-2	3.315999E-2	4.988725E-2	3.653505E-2	3.170349E-2	3.902033E-2	4.396389E-2	3.840849E-2	2.484911E-2	4.103556E-2	4.092917E-2	3.458734E-2	2.376552E-2	3.882724E-2	3.765325E-2	4.228523E-2	4.591928E-2	4.030563E-2	2.939696E-2	4.036597E-2	5.022948E-2	4.620650E-2	3.395223E-2	3.765718E-2	5.404963E-2	4.078027E-2	3.664017E-2	2.973683E-2
5.334630E+2	5.341205E-2	6.081370E-2	3.970888E-2	4.691188E-2	5.692435E-2	5.015874E-2	5.020235E-2	5.076956E-2	5.111208E-2	3.825426E-2	4.811870E-2	6.172518E-2	5.413455E-2	3.881749E-2	5.866900E-2	4.496582E-2	4.604413E-2	6.135681E-2	4.124323E-2	5.127831E-2	5.733965E-2	6.073477E-2	4.651781E-2	4.871115E-2	5.602138E-2	4.655295E-2	4.207550E-2	5.899081E-2	6.142331E-2	3.710854E-2	3.598485E-2	5.358207E-2	5.126536E-2	5.203814E-2	6.348396E-2	4.771829E-2	6.408094E-2	3.807968E-2	5.186297E-2	5.105370E-2	3.737648E-2	5.661153E-2	4.656256E-2	6.854896E-2	6.017685E-2	5.161914E-2	5.155303E-2	4.670275E-2	5.099695E-2	5.504088E-2	3.994970E-2	5.258182E-2	6.716776E-2	4.570130E-2	5.615694E-2	6.729032E-2	5.392175E-2	4.295971E-2	4.323470E-2	4.430381E-2	5.620244E-2	5.926292E-2	5.981978E-2	6.377796E-2	4.247058E-2	5.645343E-2	4.940169E-2	4.575171E-2	5.882319E-2	6.373145E-2	5.021321E-2	5.083729E-2	5.907146E-2	4.808754E-2	5.072192E-2	5.585985E-2	6.141832E-2	6.087385E-2	5.331255E-2	5.254430E-2	5.860065E-2	5.754153E-2	8.031244E-2	5.197644E-2	5.898110E-2	5.763817E-2	4.594400E-2	5.625926E-2	4.803559E-2	5.429720E-2	4.932630E-2	6.190295E-2	5.271764E-2	5.602156E-2	5.403467E-2	5.563633E-2	4.009337E-2	5.816113E-2	6.452448E-2	6.165992E-2	5.008028E-2	6.648769E-2	5.094313E-2	4.700086E-2	6.115101E-2	6.544555E-2	5.465289E-2	4.451668E-2	5.158318E-2	5.093108E-2	5.320677E-2	6.568468E-2	5.536410E-2	4.320605E-2	4.578781E-2	5.627831E-2	5.245664E-2	6.037394E-2	5.160668E-2	4.661312E-2	4.424472E-2	5.604869E-2	4.903101E-2	5.763081E-2	7.586711E-2	6.689200E-2	4.074455E-2	3.254569E-2	5.964589E-2	4.241908E-2	3.916182E-2	5.533402E-2	5.306142E-2	4.509762E-2	6.360289E-2	5.419835E-2	4.510730E-2	5.182924E-2	4.502436E-2	5.660694E-2	6.189260E-2	4.482767E-2	5.246714E-2	6.984287E-2	4.784551E-2	5.301831E-2	4.932887E-2	5.459173E-2	5.309088E-2	5.463440E-2	4.848731E-2	6.595346E-2	5.523299E-2	4.156735E-2	6.035795E-2	4.711392E-2	5.997463E-2	6.521103E-2	4.798046E-2	5.295604E-2	4.996858E-2	5.315368E-2	6.356443E-2	6.337485E-2	5.723802E-2	5.756786E-2	5.305964E-2	5.349036E-2	7.035753E-2	5.131903E-2	5.647479E-2
5.336080E+2	9.589658E-2	7.316832E-2	5.778946E-2	5.723823E-2	7.786109E-2	5.720708E-2	6.939115E-2	6.281769E-2	6.839183E-2	5.482761E-2	5.583469E-2	6.998752E-2	7.078371E-2	5.800874E-2	4.395896E-2	6.257053E-2	5.607127E-2	8.190454E-2	6.522890E-2	7.747089E-2	7.382122E-2	6.999040E-2	7.907788E-2	6.208259E-2	7.636228E-2	8.402493E-2	8.285730E-2	7.139754E-2	6.945957E-2	6.973032E-2	7.476685E-2	6.513776E-2	5.902522E-2	6.254824E-2	7.977104E-2	7.284554E-2	7.114584E-2	6.550946E-2	6.861468E-2	8.796200E-2	6.072016E-2	6.702634E-2	7.081331E-2	6.767717E-2	7.605854E-2	7.377324E-2	7.762703E-2	6.985129E-2	5.267946E-2	7.461749E-2	6.508585E-2	1.017821E-1	7.132306E-2	7.991421E-2	7.657587E-2	6.372756E-2	7.235954E-2	7.215619E-2	6.022019E-2	5.189901E-2	8.036454E-2	6.859795E-2	5.741513E-2	6.050076E-2	8.612572E-2	7.535494E-2	7.778300E-2	7.220081E-2	6.792545E-2	7.851650E-2	8.448539E-2	8.119315E-2	5.742206E-2	6.132618E-2	7.400297E-2	7.821450E-2	8.650342E-2	8.263252E-2	7.295077E-2	7.942653E-2	5.859101E-2	5.860620E-2	6.024435E-2	7.289578E-2	7.110060E-2	5.883569E-2	6.312981E-2	6.535668E-2	6.575300E-2	7.331088E-2	5.750159E-2	6.874554E-2	7.012338E-2	7.826592E-2	8.195822E-2	7.365240E-2	7.167930E-2	7.246637E-2	7.198318E-2	6.775815E-2	6.722211E-2	7.353303E-2	7.626477E-2	6.813245E-2	7.748696E-2	7.856136E-2	6.620146E-2	6.952085E-2	6.634669E-2	7.386134E-2	6.194606E-2	6.701805E-2	8.644809E-2	7.524249E-2	6.253786E-2	8.715771E-2	8.079087E-2	6.409572E-2	7.202625E-2	7.414795E-2	7.033170E-2	7.616544E-2	8.257518E-2	7.823823E-2	7.178826E-2	7.033119E-2	7.468562E-2	6.574659E-2	6.720003E-2	7.236223E-2	5.903319E-2	6.051133E-2	7.587500E-2	7.356643E-2	7.601938E-2	6.007105E-2	7.529993E-2	7.555341E-2	8.911609E-2	6.565764E-2	6.894930E-2	7.802604E-2	6.906042E-2	6.711175E-2	7.669685E-2	7.099674E-2	7.654869E-2	7.681772E-2	5.999451E-2	6.612199E-2	7.446560E-2	7.880582E-2	7.552407E-2	6.981893E-2	5.843993E-2	8.075109E-2	6.378159E-2	6.549212E-2	7.200095E-2	7.145907E-2	5.942908E-2	5.510615E-2	7.495134E-2	8.971614E-2	7.664875E-2	8.300151E-2	8.434887E-2	7.572580E-2	7.641967E-2	7.548219E-2	5.090249E-2
5.337630E+2	1.057400E-1	1.043289E-1	9.299035E-2	1.192235E-1	1.042076E-1	9.056177E-2	1.060648E-1	8.734691E-2	9.099257E-2	7.781636E-2	8.174528E-2	9.652817E-2	1.040103E-1	8.064747E-2	9.617528E-2	9.070179E-2	9.017066E-2	1.144396E-1	1.004747E-1	1.056450E-1	8.880308E-2	9.008750E-2	9.423945E-2	9.804217E-2	9.461841E-2	9.701350E-2	9.735677E-2	1.152993E-1	9.738584E-2	9.195679E-2	9.889852E-2	1.138609E-1	9.435003E-2	1.115669E-1	1.014155E-1	9.751330E-2	8.307201E-2	9.447478E-2	9.805420E-2	9.695261E-2	9.340615E-2	9.543512E-2	1.059012E-1	1.073907E-1	1.038519E-1	8.878673E-2	9.027301E-2	9.292893E-2	8.847404E-2	9.754149E-2	8.824727E-2	9.977377E-2	8.954117E-2	9.908772E-2	8.991766E-2	9.719719E-2	9.341692E-2	9.040727E-2	1.033977E-1	9.935434E-2	8.558026E-2	1.032510E-1	1.022678E-1	1.038564E-1	1.016805E-1	9.331418E-2	1.011872E-1	9.931114E-2	9.374077E-2	9.661875E-2	8.939509E-2	1.041313E-1	9.852067E-2	8.466070E-2	9.356935E-2	1.130746E-1	9.782430E-2	9.832828E-2	1.075744E-1	8.259688E-2	9.585354E-2	1.117259E-1	9.803099E-2	9.897762E-2	1.066487E-1	8.631570E-2	8.327793E-2	1.019847E-1	9.043625E-2	8.850459E-2	1.029535E-1	8.518605E-2	1.009507E-1	1.031445E-1	1.032517E-1	9.747473E-2	1.062230E-1	8.297728E-2	9.224990E-2	1.157037E-1	8.386812E-2	1.012550E-1	9.910157E-2	1.116646E-1	1.157355E-1	1.045053E-1	9.964917E-2	1.016494E-1	9.892424E-2	7.988890E-2	8.288081E-2	9.868554E-2	9.036031E-2	1.062780E-1	1.029975E-1	1.019271E-1	9.094914E-2	9.800189E-2	8.393910E-2	9.146564E-2	9.106837E-2	9.635482E-2	1.088743E-1	9.821732E-2	1.030033E-1	9.367009E-2	1.039945E-1	1.023565E-1	1.126447E-1	1.007711E-1	9.668824E-2	7.207434E-2	1.027228E-1	1.123613E-1	1.041521E-1	9.273883E-2	1.190698E-1	9.276131E-2	7.587477E-2	9.243176E-2	9.266120E-2	9.551514E-2	1.054286E-1	1.011180E-1	8.794411E-2	1.033979E-1	1.038667E-1	8.883527E-2	8.758174E-2	9.802778E-2	9.592011E-2	1.011871E-1	7.705935E-2	1.076318E-1	9.714312E-2	9.021125E-2	1.053453E-1	8.921008E-2	1.017928E-1	9.691941E-2	9.048917E-2	9.203834E-2	1.006222E-1	9.899226E-2	1.067250E-1	9.034948E-2	8.958861E-2	1.231527E-1	1.165307E-1	1.064493E-1	1.007851E-1
5.339090E+2	1.489927E-1	1.313246E-1	1.227317E-1	1.331093E-1	1.403479E-1	1.506647E-1	1.409616E-1	1.380027E-1	1.503622E-1	1.399857E-1	1.248958E-1	1.474057E-1	1.408712E-1	1.430745E-1	1.342173E-1	1.447574E-1	1.377022E-1	1.288676E-1	1.294802E-1	1.448704E-1	1.482348E-1	1.341155E-1	1.577639E-1	1.408106E-1	1.234828E-1	1.449760E-1	1.574247E-1	1.549742E-1	1.598247E-1	1.599603E-1	1.487170E-1	1.681101E-1	1.347404E-1	1.382061E-1	1.365806E-1	1.522314E-1	1.424227E-1	1.455646E-1	1.439145E-1	1.423072E-1	1.342766E-1	1.374818E-1	1.607848E-1	1.548716E-1	1.390966E-1	1.432811E-1	1.559246E-1	1.513104E-1	1.489472E-1	1.464438E-1	1.432211E-1	1.250937E-1	1.483790E-1	1.686876E-1	1.693918E-1	1.441794E-1	1.457039E-1	1.372583E-1	1.630353E-1	1.318794E-1	1.628535E-1	1.341072E-1	1.515523E-1	1.692556E-1	1.387167E-1	1.350772E-1	1.354702E-1	1.281026E-1	1.523777E-1	1.669415E-1	1.490258E-1	1.442394E-1	1.458200E-1	1.462815E-1	1.772549E-1	1.367095E-1	1.450365E-1	1.503595E-1	1.601491E-1	1.516798E-1	1.427090E-1	1.518051E-1	1.357066E-1	1.284279E-1	1.376141E-1	1.671139E-1	1.459490E-1	1.535725E-1	1.666599E-1	1.707615E-1	1.461374E-1	1.573701E-1	1.345878E-1	1.555672E-1	1.604951E-1	1.508660E-1	1.566982E-1	1.541053E-1	1.437005E-1	1.520186E-1	1.554197E-1	1.578814E-1	1.551420E-1	1.320063E-1	1.568934E-1	1.574284E-1	1.569528E-1	1.376596E-1	1.588548E-1	1.521339E-1	1.528219E-1	1.546862E-1	1.466554E-1	1.323457E-1	1.417891E-1	1.524020E-1	1.560557E-1	1.642382E-1	1.420184E-1	1.516889E-1	1.334204E-1	1.428568E-1	1.766592E-1	1.525480E-1	1.663274E-1	1.533349E-1	1.591228E-1	1.591782E-1	1.581036E-1	1.364869E-1	1.340824E-1	1.565103E-1	1.414560E-1	1.601172E-1	1.622160E-1	1.659722E-1	1.393858E-1	1.629850E-1	1.512352E-1	1.352132E-1	1.458395E-1	1.462740E-1	1.666834E-1	1.397485E-1	1.510424E-1	1.647213E-1	1.476195E-1	1.514601E-1	1.597696E-1	1.537221E-1	1.514712E-1	1.504716E-1	1.496534E-1	1.483826E-1	1.481748E-1	1.585230E-1	1.554940E-1	1.550963E-1	1.322429E-1	1.538691E-1	1.479507E-1	1.366888E-1	1.577234E-1	1.609484E-1	1.435671E-1	1.663868E-1	1.526565E-1	1.537030E-1	1.267385E-1	1.525963E-1	1.550064E-1
5.340690E+2	2.646576E-1	2.541320E-1	2.214856E-1	2.556539E-1	2.450773E-1	2.359075E-1	2.535284E-1	2.537624E-1	2.569618E-1	2.466103E-1	2.434741E-1	2.377425E-1	2.374232E-1	2.390927E-1	2.391754E-1	2.784199E-1	2.495596E-1	2.569615E-1	2.637740E-1	2.442151E-1	2.413428E-1	2.417195E-1	2.485047E-1	2.567939E-1	2.662605E-1	2.477162E-1	2.386524E-1	2.769934E-1	2.581974E-1	2.403540E-1	2.550562E-1	2.592865E-1	2.585952E-1	2.450791E-1	2.582297E-1	2.483041E-1	2.603397E-1	2.522693E-1	2.530422E-1	2.423464E-1	2.624909E-1	2.400598E-1	2.539186E-1	2.542700E-1	2.558846E-1	2.545077E-1	2.648449E-1	2.572233E-1	2.551518E-1	2.484177E-1	2.401430E-1	2.387504E-1	2.569363E-1	2.420798E-1	2.599387E-1	2.412213E-1	2.422059E-1	2.584095E-1	2.396407E-1	2.348338E-1	2.427895E-1	2.507381E-1	2.620705E-1	2.579075E-1	2.533278E-1	2.927482E-1	2.336473E-1	2.237820E-1	2.361312E-1	2.448507E-1	2.270132E-1	2.400339E-1	2.496984E-1	2.294765E-1	2.525903E-1	2.535152E-1	2.397278E-1	2.529700E-1	2.665045E-1	2.335581E-1	2.438989E-1	2.257478E-1	2.437172E-1	2.616926E-1	2.671660E-1	2.701504E-1	2.489554E-1	2.409338E-1	2.656329E-1	2.527032E-1	2.600178E-1	2.673183E-1	2.545154E-1	2.454815E-1	2.656535E-1	2.581349E-1	2.213549E-1	2.482553E-1	2.620925E-1	2.572229E-1	2.639392E-1	2.699617E-1	2.438112E-1	2.600977E-1	2.556575E-1	2.729206E-1	2.838556E-1	2.528401E-1	2.643831E-1	2.683482E-1	2.571274E-1	2.719668E-1	2.505770E-1	2.410227E-1	2.513021E-1	2.420105E-1	2.646090E-1	2.446111E-1	2.374242E-1	2.454858E-1	2.544826E-1	2.392339E-1	2.543552E-1	2.356275E-1	2.417525E-1	2.637796E-1	2.644945E-1	2.603075E-1	2.604292E-1	2.396766E-1	2.370848E-1	2.564005E-1	2.639975E-1	2.482676E-1	2.494393E-1	2.416841E-1	2.408689E-1	2.740980E-1	2.410869E-1	2.639573E-1	2.579391E-1	2.462182E-1	2.383694E-1	2.771303E-1	2.348348E-1	2.453128E-1	2.625801E-1	2.601760E-1	2.636531E-1	2.507178E-1	2.508872E-1	2.517652E-1	2.541109E-1	2.390215E-1	2.297384E-1	2.553022E-1	2.482380E-1	2.369361E-1	2.524022E-1	2.453656E-1	2.506691E-1	2.450105E-1	2.523678E-1	2.434453E-1	2.474247E-1	2.426672E-1	2.816598E-1	2.525059E-1	2.655977E-1	2.540773E-1	2.575915E-1
5.342040E+2	4.546502E-1	4.464822E-1	4.464177E-1	4.059136E-1	4.660436E-1	4.522729E-1	4.463104E-1	4.491337E-1	4.437601E-1	4.221559E-1	4.493457E-1	4.660375E-1	4.763156E-1	4.294827E-1	4.400081E-1	4.506345E-1	4.525275E-1	4.564167E-1	4.568735E-1	4.343110E-1	4.437864E-1	4.413183E-1	4.529349E-1	4.371166E-1	4.585143E-1	3.991056E-1	4.413004E-1	4.717240E-1	4.810279E-1	4.241955E-1	4.625102E-1	4.235206E-1	4.045257E-1	4.424604E-1	4.471476E-1	4.721384E-1	4.656312E-1	4.447600E-1	4.627771E-1	4.537091E-1	4.362831E-1	4.230059E-1	4.301547E-1	4.289695E-1	4.501057E-1	4.602128E-1	4.482670E-1	4.387310E-1	4.030038E-1	4.505993E-1	4.396607E-1	4.376642E-1	4.743933E-1	4.366236E-1	4.247760E-1	4.597313E-1	4.564446E-1	4.541221E-1	4.724217E-1	4.209793E-1	4.724227E-1	4.723226E-1	4.490528E-1	4.403689E-1	4.265268E-1	4.670971E-1	4.320577E-1	4.810246E-1	4.610857E-1	4.479422E-1	4.396049E-1	4.508686E-1	5.041104E-1	4.266997E-1	4.406389E-1	4.042375E-1	4.697984E-1	4.591821E-1	4.787310E-1	4.457863E-1	4.121878E-1	4.527943E-1	4.668713E-1	4.250485E-1	4.671144E-1	4.433546E-1	4.497956E-1	4.522123E-1	4.530236E-1	4.370896E-1	4.380552E-1	4.635020E-1	4.613998E-1	4.745769E-1	4.607929E-1	4.334222E-1	4.217376E-1	4.505598E-1	4.399671E-1	4.083727E-1	4.480619E-1	4.580796E-1	4.486052E-1	4.258422E-1	4.654057E-1	4.321600E-1	4.171075E-1	4.340919E-1	4.397066E-1	4.367585E-1	4.308854E-1	4.536236E-1	4.021745E-1	4.511279E-1	4.334315E-1	4.156814E-1	4.598462E-1	4.173845E-1	4.473033E-1	4.251490E-1	4.546597E-1	4.678010E-1	4.362231E-1	4.270518E-1	4.534750E-1	4.534263E-1	4.437617E-1	4.587166E-1	4.692285E-1	4.736504E-1	4.511533E-1	4.627663E-1	4.728028E-1	4.499512E-1	4.604858E-1	4.774390E-1	4.200346E-1	4.543283E-1	4.205686E-1	4.595578E-1	4.516303E-1	4.495376E-1	4.551501E-1	4.459943E-1	4.514007E-1	4.617192E-1	4.734885E-1	4.515425E-1	4.404395E-1	4.443421E-1	4.577669E-1	4.223796E-1	4.126706E-1	4.554973E-1	4.294132E-1	4.249752E-1	4.676682E-1	4.626360E-1	4.288017E-1	4.867427E-1	4.469067E-1	4.478549E-1	4.587577E-1	4.699995E-1	4.611850E-1	4.487713E-1	4.337602E-1	4.330318E-1	4.639927E-1	4.641944E-1	4.743037E-1
5.343600E+2	8.266815E-1	7.490806E-1	7.659688E-1	7.469792E-1	8.107170E-1	8.295034E-1	7.741352E-1	7.669142E-1	8.429017E-1	7.386300E-1	7.967824E-1	7.934442E-1	7.370972E-1	7.899415E-1	7.582106E-1	7.971057E-1	7.551370E-1	8.207134E-1	8.060431E-1	7.694917E-1	7.775917E-1	7.589772E-1	7.800745E-1	7.849077E-1	7.474866E-1	7.923659E-1	8.099552E-1	8.105104E-1	8.201691E-1	7.553905E-1	8.049959E-1	7.957696E-1	7.686417E-1	7.649083E-1	8.074346E-1	8.200880E-1	7.603775E-1	7.741256E-1	7.978664E-1	7.823709E-1	7.867468E-1	7.762059E-1	7.657942E-1	7.779602E-1	7.744358E-1	7.987559E-1	7.565207E-1	8.173862E-1	7.677820E-1	8.044597E-1	7.577156E-1	7.681463E-1	7.795205E-1	7.813502E-1	8.021701E-1	8.064545E-1	8.031263E-1	8.067422E-1	7.883726E-1	7.891968E-1	7.845506E-1	7.918305E-1	7.986708E-1	7.816154E-1	7.544999E-1	7.896794E-1	7.570025E-1	7.774781E-1	7.861533E-1	7.867394E-1	7.904971E-1	7.977754E-1	7.749717E-1	7.861692E-1	8.010481E-1	7.764473E-1	8.261899E-1	7.792176E-1	7.691814E-1	8.022314E-1	7.656794E-1	7.801607E-1	8.133805E-1	7.690545E-1	7.388608E-1	8.105463E-1	8.176230E-1	7.855650E-1	8.259940E-1	8.048871E-1	7.598208E-1	7.800779E-1	7.803226E-1	8.074738E-1	8.224982E-1	7.913244E-1	8.004183E-1	8.313805E-1	7.752384E-1	8.134011E-1	7.917064E-1	8.085205E-1	7.915898E-1	7.802955E-1	8.002526E-1	7.902001E-1	7.818806E-1	7.901637E-1	7.725235E-1	7.660873E-1	8.293555E-1	7.897384E-1	8.030189E-1	7.688275E-1	7.470680E-1	7.856739E-1	7.839253E-1	8.091648E-1	7.944064E-1	7.868050E-1	7.868147E-1	8.178683E-1	7.875147E-1	8.161933E-1	7.670079E-1	8.280278E-1	8.185328E-1	7.700777E-1	7.457562E-1	7.901279E-1	7.657964E-1	7.557880E-1	8.014010E-1	7.680745E-1	7.870719E-1	8.002940E-1	7.384321E-1	7.740266E-1	7.714570E-1	8.073819E-1	8.321623E-1	8.075885E-1	7.809590E-1	7.919077E-1	8.403822E-1	8.064395E-1	7.929095E-1	8.024150E-1	7.743430E-1	7.519238E-1	7.827191E-1	7.781666E-1	7.851819E-1	7.916139E-1	7.899174E-1	7.648698E-1	7.730558E-1	8.246200E-1	7.995627E-1	8.145658E-1	7.755428E-1	7.684128E-1	8.167117E-1	7.455464E-1	7.881231E-1	7.848708E-1	8.159833E-1	7.632332E-1	7.719925E-1	8.187640E-1	8.680150E-1
5.345110E+2	1.282571E+0	1.127444E+0	1.148571E+0	1.116977E+0	1.200496E+0	1.158922E+0	1.193378E+0	1.224365E+0	1.213529E+0	1.186759E+0	1.167358E+0	1.174217E+0	1.148580E+0	1.197683E+0	1.187330E+0	1.213043E+0	1.161364E+0	1.222830E+0	1.153824E+0	1.209237E+0	1.173375E+0	1.173669E+0	1.175508E+0	1.203131E+0	1.129606E+0	1.215150E+0	1.180005E+0	1.244056E+0	1.192080E+0	1.215822E+0	1.209904E+0	1.226866E+0	1.170408E+0	1.217815E+0	1.218093E+0	1.165139E+0	1.182839E+0	1.187188E+0	1.203307E+0	1.195986E+0	1.148036E+0	1.195001E+0	1.199857E+0	1.206803E+0	1.165054E+0	1.192725E+0	1.231634E+0	1.196294E+0	1.179339E+0	1.223955E+0	1.210984E+0	1.160785E+0	1.196273E+0	1.213506E+0	1.176083E+0	1.157424E+0	1.212210E+0	1.197877E+0	1.206284E+0	1.143480E+0	1.175333E+0	1.193905E+0	1.216088E+0	1.195494E+0	1.220913E+0	1.157875E+0	1.161593E+0	1.183572E+0	1.192979E+0	1.170795E+0	1.193576E+0	1.164628E+0	1.234491E+0	1.198493E+0	1.224790E+0	1.141944E+0	1.153831E+0	1.228264E+0	1.183420E+0	1.246139E+0	1.177230E+0	1.201004E+0	1.197885E+0	1.211376E+0	1.191899E+0	1.200297E+0	1.259070E+0	1.151444E+0	1.206576E+0	1.239947E+0	1.142906E+0	1.086458E+0	1.201218E+0	1.162165E+0	1.218013E+0	1.187873E+0	1.184753E+0	1.174149E+0	1.200503E+0	1.179979E+0	1.188927E+0	1.174721E+0	1.187076E+0	1.156377E+0	1.214516E+0	1.131424E+0	1.165707E+0	1.195161E+0	1.206347E+0	1.177022E+0	1.208393E+0	1.193057E+0	1.141216E+0	1.178564E+0	1.125250E+0	1.190223E+0	1.180916E+0	1.163744E+0	1.178882E+0	1.167066E+0	1.182395E+0	1.231697E+0	1.210953E+0	1.162562E+0	1.211103E+0	1.201672E+0	1.163903E+0	1.148350E+0	1.222338E+0	1.157469E+0	1.204963E+0	1.163494E+0	1.193393E+0	1.177933E+0	1.167748E+0	1.183875E+0	1.221480E+0	1.149359E+0	1.132983E+0	1.172579E+0	1.209278E+0	1.143792E+0	1.145666E+0	1.226879E+0	1.203452E+0	1.169972E+0	1.198531E+0	1.181280E+0	1.191904E+0	1.189249E+0	1.185687E+0	1.155790E+0	1.172719E+0	1.190814E+0	1.156266E+0	1.174384E+0	1.239273E+0	1.190323E+0	1.212879E+0	1.203216E+0	1.158474E+0	1.195466E+0	1.160166E+0	1.163846E+0	1.167190E+0	1.186829E+0	1.137655E+0	1.210432E+0	1.221839E+0	1.214050E+0	1.211203E+0
5.346620E+2	1.677236E+0	1.571298E+0	1.585419E+0	1.546061E+0	1.592617E+0	1.609125E+0	1.586669E+0	1.591222E+0	1.654861E+0	1.567552E+0	1.553589E+0	1.600504E+0	1.582817E+0	1.629825E+0	1.576615E+0	1.570920E+0	1.619203E+0	1.668118E+0	1.549694E+0	1.597878E+0	1.562564E+0	1.606028E+0	1.596142E+0	1.571965E+0	1.561214E+0	1.523911E+0	1.529338E+0	1.584167E+0	1.620340E+0	1.570782E+0	1.574947E+0	1.575134E+0	1.571192E+0	1.565833E+0	1.567468E+0	1.606489E+0	1.561920E+0	1.553332E+0	1.580131E+0	1.591150E+0	1.600465E+0	1.583176E+0	1.597882E+0	1.635016E+0	1.614126E+0	1.618242E+0	1.595752E+0	1.598536E+0	1.619053E+0	1.658749E+0	1.621988E+0	1.611254E+0	1.566849E+0	1.615346E+0	1.542639E+0	1.551598E+0	1.595365E+0	1.624450E+0	1.543793E+0	1.628788E+0	1.596466E+0	1.616384E+0	1.561704E+0	1.517845E+0	1.575237E+0	1.565574E+0	1.578928E+0	1.543346E+0	1.630576E+0	1.553827E+0	1.623700E+0	1.550102E+0	1.564132E+0	1.572684E+0	1.515809E+0	1.543172E+0	1.615054E+0	1.651174E+0	1.591192E+0	1.622589E+0	1.548774E+0	1.599540E+0	1.601293E+0	1.546180E+0	1.557812E+0	1.556687E+0	1.626486E+0	1.578928E+0	1.581119E+0	1.621340E+0	1.526292E+0	1.572918E+0	1.530564E+0	1.575861E+0	1.595278E+0	1.544653E+0	1.495749E+0	1.611610E+0	1.566475E+0	1.554832E+0	1.561263E+0	1.613260E+0	1.602188E+0	1.575926E+0	1.655626E+0	1.583022E+0	1.578508E+0	1.548038E+0	1.583150E+0	1.574499E+0	1.592303E+0	1.620256E+0	1.544038E+0	1.553493E+0	1.528769E+0	1.574859E+0	1.583334E+0	1.627993E+0	1.580584E+0	1.542665E+0	1.552949E+0	1.575293E+0	1.541067E+0	1.563649E+0	1.591488E+0	1.609258E+0	1.619181E+0	1.608486E+0	1.592199E+0	1.527486E+0	1.607977E+0	1.622485E+0	1.598737E+0	1.546783E+0	1.562907E+0	1.553846E+0	1.516892E+0	1.537112E+0	1.545645E+0	1.579796E+0	1.573394E+0	1.551363E+0	1.546209E+0	1.566780E+0	1.634035E+0	1.634894E+0	1.577104E+0	1.571451E+0	1.525072E+0	1.531612E+0	1.575871E+0	1.549293E+0	1.546116E+0	1.583852E+0	1.511919E+0	1.555297E+0	1.558902E+0	1.599368E+0	1.526499E+0	1.619039E+0	1.584750E+0	1.553049E+0	1.521754E+0	1.524821E+0	1.476863E+0	1.563105E+0	1.545415E+0	1.551797E+0	1.591116E+0	1.532746E+0	1.540213E+0
5.348070E+2	2.015825E+0	1.882968E+0	1.821511E+0	1.793517E+0	1.885303E+0	1.835813E+0	1.921653E+0	1.874104E+0	1.921974E+0	1.867626E+0	1.869140E+0	1.909289E+0	1.877565E+0	1.927402E+0	1.889031E+0	1.924752E+0	1.899188E+0	1.867156E+0	1.893796E+0	1.895809E+0	1.886023E+0	1.862750E+0	1.890998E+0	1.902569E+0	1.833211E+0	1.865569E+0	1.987803E+0	1.884497E+0	1.914648E+0	1.894100E+0	1.875879E+0	1.901241E+0	1.859253E+0	1.832495E+0	1.915549E+0	1.912557E+0	1.892666E+0	1.876735E+0	1.894077E+0	1.942029E+0	1.887452E+0	1.886887E+0	1.863529E+0	1.833474E+0	1.867443E+0	1.986901E+0	1.884468E+0	1.887730E+0	1.836171E+0	1.853631E+0	1.847294E+0	1.887571E+0	1.840477E+0	1.878095E+0	1.842230E+0	1.881576E+0	1.882424E+0	1.904999E+0	1.882956E+0	1.875951E+0	1.895287E+0	1.862792E+0	1.888141E+0	1.879929E+0	1.827860E+0	1.816902E+0	1.826481E+0	1.808973E+0	1.845366E+0	1.843174E+0	1.937957E+0	1.823751E+0	1.879421E+0	1.906450E+0	1.928363E+0	1.886837E+0	1.880446E+0	1.865012E+0	1.871014E+0	1.844145E+0	1.830739E+0	1.921575E+0	1.829487E+0	1.809177E+0	1.874558E+0	1.858731E+0	1.927798E+0	1.858791E+0	1.851596E+0	1.891860E+0	1.854718E+0	1.875519E+0	1.856052E+0	1.836601E+0	1.835287E+0	1.862262E+0	1.851751E+0	1.903144E+0	1.864470E+0	1.837533E+0	1.800850E+0	1.859060E+0	1.784021E+0	1.828495E+0	1.825525E+0	1.821367E+0	1.927872E+0	1.812778E+0	1.820304E+0	1.845029E+0	1.843232E+0	1.876546E+0	1.734422E+0	1.825418E+0	1.817047E+0	1.796014E+0	1.849019E+0	1.860756E+0	1.825181E+0	1.793458E+0	1.875379E+0	1.861645E+0	1.919118E+0	1.850880E+0	1.821760E+0	1.830341E+0	1.810354E+0	1.890426E+0	1.872816E+0	1.853677E+0	1.872316E+0	1.811109E+0	1.858359E+0	1.861897E+0	1.795459E+0	1.800058E+0	1.822270E+0	1.846701E+0	1.815204E+0	1.861845E+0	1.801733E+0	1.791305E+0	1.797567E+0	1.848885E+0	1.856305E+0	1.879117E+0	1.868487E+0	1.764831E+0	1.855702E+0	1.802636E+0	1.816734E+0	1.832653E+0	1.826061E+0	1.825469E+0	1.750615E+0	1.770779E+0	1.847552E+0	1.761638E+0	1.790212E+0	1.873722E+0	1.817724E+0	1.860952E+0	1.877585E+0	1.759229E+0	1.827233E+0	1.817329E+0	1.834945E+0	1.838978E+0	1.807047E+0	1.900616E+0	1.835047E+0
5.349580E+2	2.187598E+0	2.067790E+0	2.115931E+0	2.039054E+0	2.124377E+0	2.136397E+0	2.148987E+0	2.050221E+0	2.168263E+0	2.101135E+0	2.085480E+0	2.094886E+0	2.030014E+0	2.067308E+0	2.124429E+0	2.150391E+0	2.161512E+0	2.147198E+0	2.054345E+0	2.119622E+0	2.138075E+0	2.051933E+0	2.003320E+0	2.052157E+0	2.016049E+0	2.100575E+0	2.154013E+0	2.178272E+0	2.031650E+0	2.064530E+0	2.122944E+0	2.072619E+0	2.070202E+0	2.046098E+0	2.003225E+0	2.107923E+0	2.031789E+0	2.019111E+0	2.105570E+0	2.122978E+0	2.082710E+0	2.140818E+0	2.061704E+0	2.097461E+0	2.065492E+0	2.079852E+0	2.092891E+0	2.108656E+0	2.055495E+0	2.094499E+0	2.085538E+0	2.062791E+0	2.054422E+0	2.116917E+0	2.033350E+0	2.064522E+0	2.059808E+0	2.085312E+0	2.047549E+0	2.093523E+0	2.063516E+0	2.131890E+0	2.072177E+0	2.042808E+0	2.067917E+0	2.098747E+0	2.016805E+0	2.041559E+0	2.048663E+0	2.034744E+0	2.084342E+0	2.018387E+0	2.044126E+0	2.090986E+0	2.043818E+0	2.061210E+0	1.992762E+0	2.078060E+0	2.090063E+0	2.109494E+0	2.012364E+0	2.051012E+0	2.052685E+0	2.025279E+0	1.996021E+0	2.026144E+0	2.040981E+0	2.049229E+0	2.050802E+0	2.169281E+0	2.023839E+0	2.025639E+0	2.094444E+0	2.093693E+0	2.075360E+0	2.031996E+0	1.980895E+0	2.103566E+0	2.091154E+0	2.028938E+0	2.028852E+0	2.011326E+0	2.044855E+0	1.971081E+0	2.125427E+0	2.007231E+0	2.043706E+0	2.045232E+0	2.051629E+0	2.041953E+0	2.048592E+0	2.072261E+0	1.996877E+0	2.012204E+0	2.011194E+0	2.017040E+0	1.990224E+0	2.029239E+0	2.033855E+0	2.005682E+0	2.066528E+0	2.047343E+0	2.073169E+0	1.993457E+0	2.007529E+0	2.072227E+0	2.054285E+0	2.043596E+0	1.995940E+0	2.034145E+0	2.124146E+0	2.017691E+0	2.029788E+0	1.957562E+0	2.044861E+0	1.998795E+0	1.939737E+0	2.041046E+0	1.975615E+0	2.051166E+0	1.963723E+0	2.036540E+0	2.019115E+0	2.041453E+0	2.135792E+0	2.060602E+0	2.060404E+0	1.991046E+0	1.957495E+0	2.019957E+0	2.053720E+0	1.953148E+0	2.061734E+0	1.990872E+0	1.995921E+0	2.007584E+0	2.010152E+0	2.021787E+0	2.040583E+0	2.062501E+0	1.958075E+0	2.021656E+0	1.999986E+0	2.045107E+0	1.950117E+0	2.006215E+0	2.003874E+0	1.971998E+0	1.975999E+0	2.030252E+0	2.048961E+0
5.351140E+2	2.279221E+0	2.029819E+0	2.043278E+0	2.061422E+0	2.061617E+0	2.060160E+0	2.083242E+0	2.103003E+0	2.069958E+0	2.073121E+0	2.098368E+0	2.071065E+0	2.046877E+0	2.128206E+0	2.038941E+0	2.032072E+0	2.047645E+0	2.095866E+0	2.066335E+0	2.120759E+0	2.021517E+0	2.057904E+0	2.009992E+0	2.082580E+0	2.008218E+0	2.057241E+0	2.078839E+0	2.120205E+0	2.047756E+0	2.017975E+0	2.109581E+0	2.077481E+0	2.020821E+0	2.005636E+0	2.031588E+0	2.089614E+0	2.042469E+0	2.032565E+0	1.997303E+0	2.076211E+0	2.055176E+0	2.076746E+0	2.047749E+0	2.039359E+0	1.956547E+0	2.243624E+0	1.987343E+0	2.101266E+0	1.999083E+0	2.078664E+0	2.008999E+0	2.049215E+0	2.025696E+0	1.985840E+0	2.072106E+0	2.083940E+0	2.096999E+0	2.063024E+0	2.023357E+0	2.035643E+0	2.013276E+0	2.149274E+0	2.035073E+0	1.983991E+0	2.070410E+0	2.105596E+0	1.967806E+0	2.078265E+0	2.104988E+0	2.039329E+0	2.062671E+0	2.054098E+0	2.089367E+0	2.106088E+0	2.051131E+0	2.034033E+0	2.013759E+0	2.110737E+0	2.067219E+0	2.042965E+0	2.012565E+0	2.026321E+0	2.098005E+0	2.000247E+0	2.008178E+0	2.016166E+0	2.074284E+0	1.956467E+0	2.059738E+0	2.048914E+0	1.983656E+0	1.992902E+0	2.040354E+0	2.077379E+0	2.043758E+0	2.068728E+0	2.029946E+0	2.086778E+0	2.000575E+0	2.017980E+0	2.024192E+0	2.007763E+0	1.988171E+0	2.094061E+0	2.051709E+0	2.041988E+0	2.100361E+0	2.036799E+0	2.024017E+0	1.988317E+0	2.053941E+0	2.007159E+0	1.958823E+0	1.974256E+0	1.964232E+0	2.076225E+0	1.948282E+0	1.971194E+0	2.045254E+0	2.029750E+0	1.957654E+0	2.033569E+0	2.122628E+0	2.064813E+0	2.028015E+0	2.008324E+0	1.965231E+0	2.035253E+0	2.027959E+0	1.952904E+0	2.048935E+0	2.038509E+0	1.970763E+0	2.020287E+0	1.950600E+0	1.974100E+0	1.987873E+0	1.947053E+0	1.990642E+0	2.023692E+0	2.010788E+0	2.028151E+0	1.981604E+0	2.052320E+0	2.084108E+0	2.065746E+0	2.066338E+0	1.954700E+0	2.009176E+0	2.019690E+0	1.977204E+0	2.009472E+0	1.989159E+0	2.067590E+0	1.948762E+0	1.994456E+0	1.964719E+0	2.079065E+0	1.983567E+0	2.006470E+0	1.987290E+0	2.038314E+0	1.950501E+0	1.941220E+0	1.951980E+0	2.001211E+0	1.988029E+0	1.906982E+0	2.111880E+0	1.969973E+0	1.987430E+0
5.352600E+2	2.004817E+0	1.857488E+0	1.864456E+0	1.825568E+0	1.866996E+0	1.893498E+0	1.907793E+0	1.894878E+0	1.884517E+0	1.860168E+0	1.876241E+0	1.825570E+0	1.833416E+0	1.912233E+0	1.842724E+0	1.916497E+0	1.877043E+0	1.892336E+0	1.835989E+0	1.881557E+0	1.882574E+0	1.856325E+0	1.853590E+0	1.870537E+0	1.800893E+0	1.835357E+0	1.964101E+0	1.888987E+0	1.873015E+0	1.900370E+0	1.894318E+0	1.851220E+0	1.797052E+0	1.888751E+0	1.945201E+0	1.877317E+0	1.823481E+0	1.870334E+0	1.893930E+0	1.870020E+0	1.852226E+0	1.858284E+0	1.843694E+0	1.821435E+0	1.818754E+0	1.956747E+0	1.872309E+0	1.901337E+0	1.832479E+0	1.865075E+0	1.825796E+0	1.852857E+0	1.869380E+0	1.899985E+0	1.792915E+0	1.849765E+0	1.857674E+0	1.804604E+0	1.856576E+0	1.826612E+0	1.836426E+0	1.904672E+0	1.832643E+0	1.822466E+0	1.826272E+0	1.915162E+0	1.856628E+0	1.808430E+0	1.935981E+0	1.864451E+0	1.833114E+0	1.841911E+0	1.825480E+0	1.857603E+0	1.902098E+0	1.842712E+0	1.849056E+0	1.884884E+0	1.832179E+0	1.874105E+0	1.759684E+0	1.897069E+0	1.812617E+0	1.911319E+0	1.839430E+0	1.817921E+0	1.859476E+0	1.868625E+0	1.900914E+0	1.926987E+0	1.853227E+0	1.852920E+0	1.880727E+0	1.838631E+0	1.800893E+0	1.850878E+0	1.779591E+0	1.930849E+0	1.808139E+0	1.798581E+0	1.836372E+0	1.837979E+0	1.827601E+0	1.771445E+0	1.888791E+0	1.790060E+0	1.959349E+0	1.843059E+0	1.780940E+0	1.840383E+0	1.872849E+0	1.865803E+0	1.758818E+0	1.852099E+0	1.877840E+0	1.804603E+0	1.815265E+0	1.794928E+0	1.850514E+0	1.829916E+0	1.856681E+0	1.847130E+0	1.882185E+0	1.817472E+0	1.758823E+0	1.886633E+0	1.787142E+0	1.827310E+0	1.821589E+0	1.869885E+0	1.891442E+0	1.829939E+0	1.795754E+0	1.818913E+0	1.812734E+0	1.846203E+0	1.750661E+0	1.812343E+0	1.792411E+0	1.834547E+0	1.783753E+0	1.839592E+0	1.792079E+0	1.873186E+0	1.891497E+0	1.910534E+0	1.813537E+0	1.895381E+0	1.855779E+0	1.826840E+0	1.878170E+0	1.763193E+0	1.850424E+0	1.840693E+0	1.838957E+0	1.829733E+0	1.823728E+0	1.827332E+0	1.803865E+0	1.872278E+0	1.793267E+0	1.872275E+0	1.835297E+0	1.842776E+0	1.740165E+0	1.853869E+0	1.818447E+0	1.770533E+0	1.842553E+0	1.875644E+0	1.847669E+0
5.354060E+2	1.627856E+0	1.617102E+0	1.560231E+0	1.580900E+0	1.594754E+0	1.585249E+0	1.589050E+0	1.555963E+0	1.617080E+0	1.540688E+0	1.557603E+0	1.555870E+0	1.591830E+0	1.575834E+0	1.599219E+0	1.608376E+0	1.506700E+0	1.661080E+0	1.525673E+0	1.564516E+0	1.633861E+0	1.553575E+0	1.565262E+0	1.590507E+0	1.562760E+0	1.577958E+0	1.627492E+0	1.675839E+0	1.582386E+0	1.647470E+0	1.587084E+0	1.559997E+0	1.527834E+0	1.563465E+0	1.600253E+0	1.553903E+0	1.557034E+0	1.567374E+0	1.536779E+0	1.583094E+0	1.550806E+0	1.579179E+0	1.587918E+0	1.502546E+0	1.572532E+0	1.604315E+0	1.554688E+0	1.598763E+0	1.538741E+0	1.620246E+0	1.616244E+0	1.660462E+0	1.580357E+0	1.600379E+0	1.554915E+0	1.565189E+0	1.643745E+0	1.543651E+0	1.575628E+0	1.532734E+0	1.557040E+0	1.593159E+0	1.615989E+0	1.530198E+0	1.542957E+0	1.599452E+0	1.494562E+0	1.536944E+0	1.534381E+0	1.503438E+0	1.603980E+0	1.550125E+0	1.502592E+0	1.609450E+0	1.596930E+0	1.557438E+0	1.614038E+0	1.538249E+0	1.562552E+0	1.633617E+0	1.541349E+0	1.553180E+0	1.496429E+0	1.548018E+0	1.570501E+0	1.622694E+0	1.547817E+0	1.509946E+0	1.574395E+0	1.609635E+0	1.538974E+0	1.566756E+0	1.539919E+0	1.585862E+0	1.570406E+0	1.576685E+0	1.481423E+0	1.660174E+0	1.576898E+0	1.588414E+0	1.553203E+0	1.586319E+0	1.597594E+0	1.550795E+0	1.595840E+0	1.511244E+0	1.619811E+0	1.558879E+0	1.560673E+0	1.557019E+0	1.647846E+0	1.570285E+0	1.521343E+0	1.565481E+0	1.591320E+0	1.571224E+0	1.565168E+0	1.564934E+0	1.576597E+0	1.532824E+0	1.479745E+0	1.566209E+0	1.568516E+0	1.568124E+0	1.539807E+0	1.564734E+0	1.534739E+0	1.517217E+0	1.525536E+0	1.598028E+0	1.590839E+0	1.626732E+0	1.558994E+0	1.587155E+0	1.500031E+0	1.541089E+0	1.544750E+0	1.461717E+0	1.562019E+0	1.548098E+0	1.546884E+0	1.552417E+0	1.483879E+0	1.526711E+0	1.578233E+0	1.572411E+0	1.620463E+0	1.539534E+0	1.495849E+0	1.483949E+0	1.511924E+0	1.557901E+0	1.613373E+0	1.587473E+0	1.537416E+0	1.465035E+0	1.588363E+0	1.567974E+0	1.499074E+0	1.542782E+0	1.491052E+0	1.560744E+0	1.488199E+0	1.533305E+0	1.496660E+0	1.519522E+0	1.507780E+0	1.577550E+0	1.589931E+0	1.556907E+0	1.577128E+0
5.355630E+2	1.370650E+0	1.297574E+0	1.254744E+0	1.312393E+0	1.312994E+0	1.242374E+0	1.338363E+0	1.272100E+0	1.333198E+0	1.277709E+0	1.284998E+0	1.271170E+0	1.282954E+0	1.295946E+0	1.269580E+0	1.275338E+0	1.275841E+0	1.283341E+0	1.305124E+0	1.325175E+0	1.329816E+0	1.300125E+0	1.325575E+0	1.284596E+0	1.315483E+0	1.271883E+0	1.334316E+0	1.306997E+0	1.292630E+0	1.283103E+0	1.342950E+0	1.287591E+0	1.248176E+0	1.273212E+0	1.271036E+0	1.261752E+0	1.335445E+0	1.355227E+0	1.291435E+0	1.278497E+0	1.273868E+0	1.312249E+0	1.295424E+0	1.270765E+0	1.246517E+0	1.292907E+0	1.270621E+0	1.318204E+0	1.290099E+0	1.277350E+0	1.266959E+0	1.334600E+0	1.315865E+0	1.258024E+0	1.293153E+0	1.291411E+0	1.287299E+0	1.271181E+0	1.290727E+0	1.293123E+0	1.241171E+0	1.351621E+0	1.326287E+0	1.252241E+0	1.275259E+0	1.324900E+0	1.256846E+0	1.279399E+0	1.297257E+0	1.254906E+0	1.316148E+0	1.321072E+0	1.305311E+0	1.295393E+0	1.306858E+0	1.313262E+0	1.312567E+0	1.306884E+0	1.306221E+0	1.290859E+0	1.252926E+0	1.287465E+0	1.365266E+0	1.212818E+0	1.313231E+0	1.274824E+0	1.341283E+0	1.266110E+0	1.342113E+0	1.335972E+0	1.247611E+0	1.289940E+0	1.297687E+0	1.290955E+0	1.306712E+0	1.308435E+0	1.284241E+0	1.323711E+0	1.247591E+0	1.267256E+0	1.270049E+0	1.272553E+0	1.323019E+0	1.280502E+0	1.285748E+0	1.309721E+0	1.314072E+0	1.320558E+0	1.267243E+0	1.286896E+0	1.294120E+0	1.287237E+0	1.228621E+0	1.248340E+0	1.277384E+0	1.280132E+0	1.255101E+0	1.273124E+0	1.324813E+0	1.234762E+0	1.286023E+0	1.337518E+0	1.298658E+0	1.285046E+0	1.242479E+0	1.305898E+0	1.244878E+0	1.292861E+0	1.282317E+0	1.335201E+0	1.308775E+0	1.328918E+0	1.285808E+0	1.249458E+0	1.307468E+0	1.319905E+0	1.264859E+0	1.293106E+0	1.293422E+0	1.326880E+0	1.288872E+0	1.330317E+0	1.254216E+0	1.357303E+0	1.292741E+0	1.291985E+0	1.320775E+0	1.317959E+0	1.282185E+0	1.259381E+0	1.260802E+0	1.294068E+0	1.300474E+0	1.314938E+0	1.224600E+0	1.257706E+0	1.267014E+0	1.344117E+0	1.298752E+0	1.319855E+0	1.237571E+0	1.334867E+0	1.290802E+0	1.211598E+0	1.290277E+0	1.264565E+0	1.230376E+0	1.262368E+0	1.258163E+0	1.251131E+0	1.193577E+0
5.357140E+2	1.122894E+0	1.106578E+0	1.112394E+0	1.025701E+0	1.134385E+0	1.091461E+0	1.130995E+0	1.114872E+0	1.071313E+0	1.095046E+0	1.060557E+0	1.115305E+0	1.126044E+0	1.088884E+0	1.090796E+0	1.109181E+0	1.091474E+0	1.126712E+0	1.064415E+0	1.161799E+0	1.104853E+0	1.062791E+0	1.092268E+0	1.100115E+0	1.080270E+0	1.134438E+0	1.103604E+0	1.174538E+0	1.106276E+0	1.092177E+0	1.077783E+0	1.115808E+0	9.970456E-1	1.101024E+0	1.130200E+0	1.106897E+0	1.086959E+0	1.082278E+0	1.052322E+0	1.085883E+0	1.110824E+0	1.114936E+0	1.083608E+0	1.077871E+0	1.053870E+0	1.094227E+0	1.096268E+0	1.153839E+0	1.078274E+0	1.143158E+0	1.111840E+0	1.117419E+0	1.087226E+0	1.106273E+0	1.113240E+0	1.127435E+0	1.117976E+0	1.054852E+0	1.094184E+0	1.120875E+0	1.038921E+0	1.112228E+0	1.167084E+0	1.100170E+0	1.086064E+0	1.129114E+0	1.057821E+0	1.119699E+0	1.093573E+0	1.061008E+0	1.066255E+0	1.086267E+0	1.096287E+0	1.106461E+0	1.078266E+0	1.093010E+0	1.086502E+0	1.142888E+0	1.128029E+0	1.091371E+0	1.041613E+0	1.106009E+0	1.069597E+0	1.127566E+0	1.085985E+0	1.125871E+0	1.140672E+0	1.061792E+0	1.130013E+0	1.108955E+0	1.044126E+0	1.085433E+0	1.142159E+0	1.095590E+0	1.078270E+0	1.123149E+0	1.080524E+0	1.149590E+0	1.145498E+0	1.104651E+0	1.077293E+0	1.105797E+0	1.091657E+0	1.094028E+0	1.096916E+0	1.056372E+0	1.141884E+0	1.094335E+0	1.069000E+0	1.082317E+0	1.082415E+0	1.084420E+0	1.051013E+0	1.076450E+0	1.088661E+0	1.120705E+0	1.071625E+0	1.059601E+0	1.118080E+0	1.092988E+0	1.067632E+0	1.097279E+0	1.134722E+0	1.141379E+0	1.099285E+0	1.143598E+0	1.099272E+0	1.108721E+0	1.101737E+0	1.089685E+0	1.156260E+0	1.129306E+0	1.091899E+0	1.064740E+0	1.082052E+0	1.096648E+0	1.074735E+0	1.099133E+0	1.100652E+0	1.111198E+0	1.105553E+0	1.085155E+0	1.080376E+0	1.094945E+0	1.111677E+0	1.126273E+0	1.094664E+0	1.132913E+0	1.085994E+0	1.144319E+0	1.111900E+0	1.094631E+0	1.153372E+0	1.129529E+0	1.055857E+0	1.097540E+0	1.102804E+0	1.090102E+0	1.127277E+0	1.125124E+0	1.092570E+0	1.111592E+0	1.117207E+0	1.095473E+0	1.126159E+0	1.113151E+0	1.095563E+0	1.138025E+0	1.075562E+0	1.137594E+0	1.168941E+0
5.358600E+2	9.713255E-1	9.884235E-1	9.294795E-1	9.039928E-1	9.812915E-1	9.263138E-1	9.557698E-1	9.261913E-1	9.606821E-1	9.166705E-1	9.443622E-1	9.493462E-1	9.084628E-1	9.367916E-1	9.783624E-1	9.558539E-1	9.286472E-1	9.259376E-1	9.023616E-1	9.196081E-1	9.389725E-1	9.420413E-1	9.585766E-1	9.520500E-1	9.531448E-1	9.726140E-1	9.769402E-1	9.680347E-1	9.577671E-1	9.079833E-1	9.541271E-1	9.440580E-1	9.480039E-1	9.660705E-1	9.221136E-1	9.521858E-1	9.648939E-1	9.429397E-1	9.158869E-1	9.355673E-1	9.284364E-1	9.180231E-1	9.894428E-1	9.315968E-1	9.520372E-1	9.684156E-1	9.872099E-1	9.573698E-1	9.175926E-1	9.520175E-1	9.687143E-1	9.448109E-1	9.221317E-1	9.421143E-1	9.950782E-1	9.685682E-1	9.923675E-1	9.486938E-1	9.558523E-1	9.623179E-1	9.204025E-1	9.282318E-1	9.614245E-1	9.459837E-1	9.035388E-1	9.732186E-1	9.345196E-1	9.157557E-1	9.640501E-1	9.063274E-1	9.494418E-1	9.462617E-1	1.005655E+0	9.431963E-1	9.026293E-1	9.541869E-1	9.303577E-1	9.359766E-1	9.429746E-1	9.592658E-1	9.525164E-1	8.930634E-1	9.839189E-1	9.268900E-1	8.992824E-1	9.386199E-1	9.660414E-1	9.651761E-1	9.702189E-1	9.969700E-1	9.229683E-1	9.517283E-1	9.408072E-1	9.510012E-1	9.577572E-1	9.994754E-1	9.347322E-1	9.228946E-1	9.734157E-1	9.533434E-1	9.286522E-1	9.465246E-1	9.437179E-1	9.237479E-1	9.326799E-1	9.087980E-1	9.485967E-1	9.263930E-1	9.412886E-1	9.618040E-1	9.852670E-1	9.216241E-1	8.780889E-1	9.371528E-1	9.317080E-1	9.485730E-1	9.652530E-1	9.745672E-1	9.861796E-1	9.437594E-1	9.243879E-1	9.499882E-1	9.924480E-1	9.778025E-1	9.280895E-1	9.124638E-1	9.298470E-1	1.003890E+0	9.271579E-1	9.396311E-1	9.754489E-1	1.004963E+0	9.495369E-1	9.405832E-1	9.876607E-1	9.301378E-1	9.507309E-1	9.485941E-1	9.294172E-1	9.517680E-1	9.506909E-1	9.375249E-1	9.628524E-1	9.613540E-1	9.886519E-1	9.487458E-1	9.872515E-1	9.902548E-1	9.414784E-1	9.569601E-1	9.835529E-1	8.910495E-1	9.531113E-1	9.727879E-1	9.145835E-1	9.027201E-1	9.676021E-1	9.720476E-1	9.593821E-1	9.509434E-1	9.312273E-1	9.977344E-1	9.670199E-1	9.849054E-1	8.964588E-1	9.844288E-1	9.343249E-1	8.992405E-1	9.353037E-1	9.370883E-1	9.564610E-1
5.360070E+2	8.791936E-1	8.198123E-1	8.173766E-1	8.018145E-1	8.240084E-1	8.116419E-1	8.332286E-1	7.918258E-1	8.237388E-1	7.661365E-1	8.026466E-1	8.226079E-1	8.134058E-1	8.167231E-1	8.326994E-1	7.910429E-1	8.533903E-1	8.055740E-1	7.842964E-1	7.848338E-1	8.100800E-1	8.107376E-1	7.898759E-1	8.096100E-1	8.215630E-1	7.763946E-1	7.630509E-1	8.307567E-1	8.084004E-1	8.024979E-1	8.478611E-1	8.371852E-1	7.673373E-1	8.153513E-1	8.308668E-1	8.339199E-1	7.812533E-1	8.151325E-1	8.339171E-1	7.684864E-1	8.129676E-1	7.887223E-1	7.995325E-1	7.891555E-1	8.159317E-1	8.398160E-1	7.985380E-1	8.035294E-1	7.641363E-1	8.046194E-1	8.295685E-1	8.056236E-1	8.038881E-1	8.289670E-1	8.177208E-1	8.593712E-1	8.155112E-1	7.859044E-1	8.110094E-1	8.259598E-1	8.135575E-1	8.099457E-1	8.046418E-1	8.041359E-1	7.922706E-1	8.322148E-1	7.932311E-1	7.786596E-1	7.804036E-1	8.101346E-1	8.278575E-1	8.120105E-1	8.594198E-1	8.102570E-1	8.402140E-1	8.338176E-1	8.290652E-1	8.207279E-1	8.231188E-1	8.301929E-1	8.055046E-1	8.369251E-1	8.551162E-1	8.146694E-1	8.220338E-1	7.794905E-1	8.367328E-1	8.288034E-1	8.367577E-1	8.670781E-1	7.893431E-1	8.504886E-1	7.905561E-1	8.224177E-1	8.355348E-1	8.356013E-1	7.945105E-1	8.028050E-1	7.867579E-1	7.638176E-1	8.094368E-1	8.238958E-1	8.242686E-1	7.734251E-1	8.143148E-1	8.165692E-1	8.696414E-1	8.266287E-1	8.239938E-1	8.302585E-1	8.357362E-1	7.868405E-1	7.636796E-1	8.158866E-1	7.914574E-1	8.256453E-1	8.215213E-1	8.166570E-1	8.370538E-1	7.833226E-1	7.993561E-1	7.573171E-1	8.505618E-1	7.816124E-1	8.103074E-1	8.203819E-1	8.138028E-1	8.491927E-1	7.733849E-1	8.402920E-1	8.289203E-1	8.575302E-1	7.865622E-1	8.053514E-1	7.912376E-1	8.297645E-1	8.116510E-1	8.214972E-1	7.969218E-1	8.387273E-1	8.084870E-1	8.015207E-1	8.026702E-1	8.061445E-1	8.314092E-1	8.317415E-1	8.048682E-1	8.165820E-1	8.264862E-1	7.893225E-1	8.506151E-1	7.753066E-1	8.520356E-1	8.246540E-1	8.318734E-1	8.251581E-1	8.197754E-1	8.050087E-1	8.862862E-1	8.169216E-1	8.396165E-1	8.713345E-1	8.022243E-1	8.492837E-1	8.219505E-1	8.367018E-1	7.806500E-1	8.240389E-1	8.277989E-1	7.891744E-1	8.570376E-1
5.362680E+2	6.437682E-1	5.830640E-1	5.764645E-1	6.330628E-1	6.336492E-1	6.323457E-1	6.465972E-1	6.208105E-1	6.126072E-1	6.586400E-1	6.700450E-1	6.432133E-1	6.505412E-1	6.128973E-1	6.213769E-1	6.169701E-1	6.222770E-1	6.534987E-1	6.236266E-1	6.476796E-1	5.739891E-1	6.122333E-1	6.006984E-1	6.485865E-1	5.932664E-1	6.173090E-1	6.340756E-1	6.328926E-1	6.246876E-1	6.368832E-1	6.285497E-1	6.292992E-1	6.075300E-1	6.323990E-1	6.202926E-1	6.616592E-1	6.555810E-1	6.328260E-1	6.109205E-1	6.477764E-1	6.277871E-1	6.039049E-1	6.101920E-1	6.295814E-1	6.090973E-1	6.389300E-1	6.774785E-1	6.466392E-1	6.115586E-1	5.935211E-1	6.276885E-1	6.435779E-1	6.073142E-1	6.361897E-1	6.489574E-1	6.187065E-1	6.394567E-1	6.357252E-1	6.416523E-1	6.623930E-1	6.198028E-1	6.218839E-1	6.381191E-1	6.187679E-1	6.468720E-1	6.379568E-1	6.574571E-1	6.430081E-1	6.476675E-1	6.293983E-1	6.323822E-1	6.252089E-1	6.316759E-1	6.428048E-1	6.231815E-1	6.267759E-1	5.848990E-1	6.142763E-1	6.409186E-1	6.335810E-1	6.114933E-1	6.510150E-1	6.122654E-1	6.566593E-1	6.140904E-1	6.236700E-1	6.189544E-1	6.239442E-1	6.399957E-1	6.786061E-1	6.519968E-1	6.206363E-1	6.480644E-1	6.388230E-1	6.503700E-1	6.278869E-1	6.259333E-1	6.696098E-1	6.142482E-1	6.241827E-1	6.378581E-1	6.662383E-1	6.242008E-1	6.349890E-1	6.536908E-1	6.373717E-1	6.751746E-1	6.484737E-1	6.255370E-1	6.244640E-1	6.160893E-1	6.606494E-1	6.131390E-1	6.376365E-1	6.515116E-1	6.485830E-1	6.326390E-1	5.975912E-1	6.374913E-1	6.236740E-1	6.226318E-1	6.377518E-1	6.425814E-1	6.272348E-1	6.127117E-1	6.525166E-1	6.519392E-1	6.368459E-1	6.188455E-1	5.954665E-1	6.404825E-1	6.626400E-1	6.359119E-1	6.462427E-1	6.251355E-1	6.134742E-1	6.149278E-1	6.650653E-1	6.044130E-1	5.885081E-1	6.243541E-1	6.128472E-1	6.035414E-1	6.532251E-1	6.552407E-1	6.539014E-1	6.281457E-1	6.487926E-1	5.935052E-1	5.986805E-1	6.474257E-1	6.412775E-1	6.314097E-1	6.466474E-1	6.373794E-1	6.328217E-1	6.002834E-1	6.526084E-1	6.116887E-1	6.207911E-1	6.365289E-1	6.299193E-1	6.391940E-1	6.137891E-1	6.586842E-1	6.448650E-1	6.544512E-1	5.900624E-1	6.540159E-1	6.249012E-1	6.072494E-1
5.365140E+2	5.559566E-1	5.461599E-1	5.227733E-1	5.432510E-1	5.518944E-1	5.028972E-1	5.533764E-1	5.387493E-1	5.226039E-1	5.029394E-1	5.154700E-1	5.127203E-1	5.345874E-1	5.037503E-1	4.853869E-1	5.434889E-1	5.160503E-1	5.429882E-1	4.797084E-1	5.134744E-1	4.958630E-1	5.490330E-1	5.370488E-1	5.264379E-1	5.252973E-1	5.600412E-1	5.417856E-1	5.430431E-1	4.947810E-1	5.091378E-1	5.210458E-1	5.337763E-1	5.102283E-1	5.239316E-1	5.583798E-1	5.390625E-1	4.950710E-1	5.499665E-1	5.345302E-1	5.167595E-1	5.462204E-1	5.161433E-1	5.313704E-1	5.498091E-1	5.321994E-1	5.113331E-1	5.261905E-1	5.322704E-1	4.927038E-1	5.785577E-1	5.422270E-1	5.387061E-1	5.047985E-1	5.417487E-1	5.349550E-1	5.394752E-1	4.893822E-1	5.399302E-1	5.497813E-1	5.327220E-1	5.040314E-1	5.408135E-1	5.410149E-1	5.248009E-1	5.574706E-1	5.346774E-1	5.403068E-1	4.968352E-1	5.401865E-1	5.103584E-1	5.352883E-1	5.401327E-1	5.211322E-1	5.496542E-1	5.381455E-1	4.890549E-1	5.367148E-1	5.289057E-1	5.191452E-1	5.180459E-1	5.150859E-1	5.106291E-1	5.394540E-1	5.347546E-1	5.393574E-1	5.476735E-1	5.505936E-1	5.209905E-1	5.228981E-1	5.548262E-1	5.073184E-1	5.256115E-1	5.206370E-1	5.442756E-1	5.309834E-1	5.270098E-1	5.054028E-1	5.349848E-1	5.304911E-1	5.539418E-1	5.622130E-1	5.307536E-1	5.181914E-1	5.555678E-1	5.610843E-1	5.154009E-1	5.591812E-1	5.118355E-1	5.627465E-1	5.442983E-1	5.711112E-1	5.648865E-1	5.037155E-1	5.211621E-1	5.228431E-1	5.395039E-1	5.260342E-1	5.431069E-1	5.376916E-1	5.158522E-1	5.604944E-1	5.547409E-1	5.374789E-1	5.698041E-1	5.724545E-1	5.456756E-1	5.303482E-1	5.454776E-1	5.407848E-1	5.219662E-1	5.563769E-1	5.327694E-1	5.530069E-1	5.458445E-1	5.282615E-1	5.432177E-1	5.022287E-1	5.107063E-1	5.304404E-1	5.253550E-1	5.370529E-1	5.230092E-1	5.073901E-1	5.409092E-1	5.701436E-1	5.535619E-1	5.602124E-1	5.271050E-1	5.137484E-1	5.171069E-1	5.362931E-1	5.602197E-1	5.291671E-1	5.368033E-1	4.934871E-1	5.384641E-1	5.386823E-1	5.070258E-1	5.368457E-1	5.181997E-1	5.622268E-1	5.366674E-1	5.620917E-1	5.646179E-1	5.479876E-1	5.195751E-1	5.263192E-1	5.681416E-1	5.431433E-1	5.640878E-1	5.587743E-1
5.367710E+2	5.437558E-1	5.366543E-1	4.857913E-1	4.866059E-1	4.873416E-1	4.851377E-1	5.410075E-1	4.870583E-1	5.448146E-1	4.831940E-1	5.037070E-1	4.797876E-1	5.128031E-1	5.090397E-1	5.172321E-1	5.060858E-1	5.134401E-1	5.344368E-1	5.379912E-1	5.316422E-1	4.935874E-1	4.936213E-1	4.985833E-1	5.011975E-1	5.370913E-1	4.948702E-1	5.668523E-1	5.549975E-1	5.164231E-1	5.022501E-1	5.203331E-1	5.027872E-1	4.621165E-1	5.229038E-1	5.090725E-1	4.732982E-1	5.235366E-1	5.069095E-1	5.120783E-1	4.962928E-1	4.917123E-1	5.051981E-1	5.294027E-1	5.086259E-1	5.075618E-1	5.454681E-1	5.143150E-1	4.885116E-1	5.100251E-1	5.237131E-1	5.085217E-1	4.980933E-1	4.835841E-1	5.202064E-1	5.105329E-1	5.132446E-1	5.495330E-1	5.145485E-1	5.245405E-1	5.031712E-1	4.956211E-1	5.240270E-1	5.304942E-1	5.278130E-1	5.170924E-1	5.385908E-1	4.709515E-1	4.937028E-1	5.317986E-1	5.100759E-1	5.257808E-1	5.001463E-1	4.906621E-1	5.247087E-1	5.315017E-1	5.378744E-1	4.992907E-1	5.149451E-1	5.630765E-1	5.084098E-1	5.085207E-1	4.991557E-1	5.086065E-1	5.355989E-1	5.212624E-1	5.103951E-1	5.184612E-1	4.956627E-1	5.131495E-1	5.169254E-1	5.096792E-1	5.235722E-1	5.222244E-1	5.180243E-1	5.582938E-1	5.159496E-1	5.131258E-1	5.152390E-1	4.667157E-1	5.148963E-1	4.865355E-1	5.155183E-1	5.236449E-1	5.161761E-1	4.889213E-1	4.831204E-1	5.315861E-1	5.032762E-1	5.015442E-1	5.132287E-1	5.109641E-1	5.145307E-1	5.011287E-1	5.228660E-1	5.430817E-1	5.515528E-1	4.859276E-1	5.062897E-1	4.840981E-1	4.954897E-1	5.218221E-1	5.115392E-1	4.870137E-1	4.945283E-1	5.006348E-1	5.176650E-1	5.437647E-1	5.289742E-1	5.279253E-1	5.211468E-1	5.215039E-1	5.416998E-1	5.042978E-1	5.159816E-1	5.396238E-1	5.186071E-1	4.942871E-1	5.450026E-1	5.420389E-1	5.250655E-1	5.243064E-1	5.089054E-1	5.415598E-1	5.067536E-1	5.204689E-1	5.128111E-1	5.401320E-1	5.269354E-1	5.107701E-1	5.052778E-1	5.205349E-1	5.431880E-1	5.027942E-1	5.065871E-1	4.884517E-1	5.172426E-1	5.506274E-1	4.933913E-1	5.365149E-1	5.227470E-1	5.171103E-1	5.026321E-1	5.371818E-1	5.061206E-1	4.991388E-1	5.227402E-1	5.077905E-1	5.270738E-1	5.179229E-1	5.421304E-1	5.600010E-1
5.370170E+2	5.898949E-1	5.527665E-1	5.127326E-1	5.381302E-1	5.745008E-1	5.679233E-1	5.314444E-1	5.349569E-1	5.478607E-1	5.450563E-1	5.543116E-1	5.750397E-1	5.313087E-1	5.182154E-1	5.275390E-1	5.594956E-1	5.490452E-1	5.506338E-1	5.561572E-1	5.525953E-1	5.479048E-1	5.596635E-1	5.477323E-1	5.338816E-1	5.495087E-1	5.363777E-1	5.763876E-1	5.823612E-1	5.293335E-1	5.461160E-1	5.690703E-1	5.557807E-1	4.896049E-1	5.548173E-1	5.765715E-1	5.254828E-1	5.100418E-1	5.604562E-1	5.560901E-1	5.595538E-1	5.281749E-1	5.688936E-1	5.526998E-1	5.451153E-1	5.723198E-1	5.885954E-1	5.802752E-1	5.630821E-1	5.430104E-1	5.081535E-1	5.624518E-1	5.776928E-1	5.831180E-1	5.523218E-1	5.603678E-1	5.617340E-1	5.159652E-1	5.319568E-1	5.672762E-1	5.451997E-1	5.625448E-1	5.125576E-1	5.202794E-1	5.348069E-1	5.434350E-1	5.558595E-1	5.655508E-1	5.712610E-1	5.520847E-1	5.731762E-1	5.479543E-1	5.503553E-1	5.547335E-1	5.470883E-1	5.472830E-1	5.749628E-1	5.320294E-1	5.465969E-1	5.657497E-1	5.535839E-1	5.466205E-1	5.477038E-1	5.527309E-1	5.427914E-1	5.246996E-1	5.539170E-1	5.762113E-1	5.753463E-1	5.936105E-1	5.857869E-1	5.126880E-1	5.477032E-1	5.457689E-1	5.355402E-1	6.081869E-1	5.682617E-1	5.445507E-1	5.269849E-1	5.566205E-1	5.859728E-1	5.375278E-1	5.603187E-1	5.353273E-1	5.371364E-1	5.748136E-1	5.602889E-1	5.500589E-1	5.620504E-1	5.252263E-1	5.764674E-1	5.465281E-1	5.633988E-1	5.528940E-1	5.524949E-1	5.617647E-1	5.587265E-1	5.698170E-1	5.282296E-1	5.445657E-1	5.387298E-1	5.611380E-1	5.458451E-1	5.837236E-1	5.722313E-1	5.604440E-1	5.282141E-1	6.007506E-1	5.547373E-1	5.518173E-1	5.492021E-1	5.687222E-1	5.632879E-1	5.787562E-1	5.312578E-1	5.608174E-1	5.509595E-1	5.458975E-1	5.157731E-1	5.452026E-1	5.718614E-1	5.392170E-1	5.376529E-1	5.359131E-1	5.514835E-1	5.613001E-1	5.908703E-1	5.745914E-1	5.685476E-1	5.443330E-1	5.614058E-1	5.652910E-1	5.567915E-1	5.917705E-1	5.408577E-1	5.683603E-1	5.439098E-1	5.760927E-1	5.766258E-1	5.887367E-1	5.554118E-1	5.743225E-1	5.666108E-1	5.686967E-1	5.738016E-1	5.290184E-1	5.976614E-1	5.699132E-1	5.448991E-1	5.158424E-1	5.041371E-1	5.514092E-1
5.372640E+2	6.680119E-1	6.726312E-1	6.285893E-1	6.356237E-1	6.441001E-1	6.024525E-1	6.486204E-1	6.201134E-1	6.229271E-1	6.015400E-1	5.895683E-1	6.574970E-1	6.038822E-1	5.917665E-1	6.279870E-1	6.280593E-1	6.219530E-1	5.845489E-1	6.005607E-1	6.341222E-1	6.314845E-1	6.215870E-1	6.462085E-1	6.118991E-1	6.375867E-1	6.371359E-1	6.442331E-1	6.385107E-1	6.215787E-1	5.995459E-1	6.035686E-1	6.551009E-1	6.232962E-1	6.304564E-1	6.190597E-1	5.823217E-1	6.082111E-1	6.180551E-1	6.066853E-1	6.624708E-1	6.091531E-1	6.386638E-1	6.325915E-1	6.040829E-1	6.112999E-1	6.652739E-1	6.518557E-1	6.424804E-1	6.325048E-1	6.363948E-1	6.098150E-1	6.540706E-1	6.198516E-1	6.171896E-1	5.956221E-1	6.273472E-1	6.205867E-1	6.254523E-1	6.331515E-1	6.075999E-1	6.289965E-1	6.577560E-1	6.162642E-1	6.119240E-1	6.650636E-1	6.085308E-1	6.306265E-1	6.353966E-1	6.218382E-1	6.210964E-1	6.221632E-1	6.237023E-1	6.161485E-1	6.048623E-1	6.328266E-1	6.739513E-1	6.026762E-1	5.962632E-1	6.611592E-1	6.466086E-1	6.194076E-1	6.169464E-1	6.355716E-1	6.139438E-1	6.211968E-1	5.925972E-1	6.425566E-1	6.160132E-1	6.338200E-1	6.098405E-1	6.084191E-1	6.247354E-1	6.216478E-1	6.119443E-1	6.414310E-1	6.321886E-1	6.079941E-1	6.300775E-1	6.371920E-1	6.079519E-1	6.480903E-1	6.551628E-1	6.467841E-1	6.238968E-1	6.086754E-1	6.071422E-1	6.448989E-1	6.385027E-1	6.308063E-1	5.976773E-1	6.350381E-1	6.222433E-1	6.245902E-1	6.329677E-1	6.266623E-1	6.346657E-1	6.453431E-1	6.457628E-1	6.274964E-1	6.532585E-1	6.435998E-1	6.225366E-1	6.282853E-1	6.562264E-1	6.328142E-1	6.381525E-1	6.455577E-1	6.327395E-1	6.551247E-1	6.557947E-1	6.700037E-1	6.522190E-1	6.166165E-1	6.230617E-1	6.324556E-1	6.109719E-1	6.368140E-1	6.482269E-1	5.855746E-1	6.460125E-1	6.204442E-1	5.996632E-1	6.626644E-1	6.220737E-1	6.359991E-1	6.167680E-1	6.342980E-1	6.373233E-1	6.665069E-1	6.260224E-1	6.318241E-1	6.448372E-1	6.385563E-1	6.121745E-1	6.070204E-1	6.141824E-1	6.273396E-1	6.562456E-1	6.612664E-1	6.094725E-1	5.944021E-1	6.402032E-1	6.179538E-1	6.410316E-1	6.502927E-1	6.264754E-1	6.462833E-1	6.432247E-1	6.552826E-1	6.370123E-1	6.676919E-1
5.375060E+2	7.229572E-1	7.131027E-1	7.093580E-1	7.249222E-1	7.427379E-1	7.311134E-1	7.237637E-1	7.215723E-1	7.269288E-1	6.986166E-1	6.789276E-1	7.503544E-1	6.823681E-1	7.119155E-1	7.349062E-1	7.383664E-1	7.024483E-1	7.066585E-1	6.929438E-1	7.592622E-1	7.179312E-1	7.168448E-1	7.058442E-1	7.068900E-1	6.848914E-1	7.013290E-1	7.192564E-1	7.321745E-1	7.409143E-1	7.153803E-1	7.000675E-1	7.268013E-1	7.074930E-1	7.255340E-1	7.430111E-1	7.217923E-1	7.156100E-1	7.275650E-1	7.697048E-1	7.307506E-1	7.204755E-1	7.296909E-1	7.315293E-1	7.241349E-1	7.281778E-1	7.597983E-1	7.059521E-1	7.447928E-1	7.047361E-1	7.020094E-1	7.564691E-1	7.668818E-1	7.122933E-1	7.185116E-1	7.144307E-1	7.326035E-1	7.452776E-1	6.806923E-1	7.292357E-1	7.351773E-1	7.463427E-1	7.442477E-1	7.105221E-1	7.164178E-1	7.270941E-1	7.226263E-1	7.454793E-1	7.150767E-1	7.061693E-1	7.315002E-1	7.073555E-1	7.513712E-1	6.930461E-1	7.374866E-1	7.074245E-1	7.120666E-1	7.504777E-1	6.953896E-1	7.232567E-1	7.858185E-1	7.205839E-1	6.932302E-1	7.383651E-1	7.384017E-1	7.508069E-1	7.506601E-1	7.650839E-1	7.288066E-1	7.575101E-1	7.488836E-1	6.964047E-1	7.450431E-1	7.459838E-1	6.881992E-1	7.150710E-1	7.384252E-1	7.272963E-1	7.499897E-1	7.607464E-1	7.378923E-1	7.213373E-1	7.421674E-1	7.265084E-1	7.303733E-1	7.564766E-1	6.934029E-1	7.763642E-1	7.472713E-1	7.021687E-1	7.412790E-1	7.682392E-1	7.462146E-1	7.161291E-1	7.518410E-1	7.352377E-1	7.306617E-1	7.062425E-1	7.170679E-1	7.102709E-1	7.485610E-1	7.622212E-1	7.466684E-1	7.215262E-1	6.958141E-1	7.241246E-1	7.116712E-1	7.544636E-1	7.038058E-1	7.323788E-1	7.244090E-1	7.563511E-1	7.188966E-1	7.038704E-1	7.035095E-1	7.320641E-1	7.034684E-1	7.052991E-1	7.059641E-1	7.513201E-1	7.282378E-1	7.479761E-1	7.289440E-1	7.233255E-1	7.731184E-1	7.319803E-1	7.647236E-1	7.322422E-1	7.384417E-1	7.373719E-1	7.076716E-1	7.251510E-1	7.478018E-1	7.125898E-1	7.223036E-1	7.032417E-1	7.009912E-1	7.427186E-1	7.550880E-1	7.435923E-1	7.344537E-1	7.282946E-1	7.464688E-1	7.322478E-1	7.253912E-1	6.948936E-1	7.281616E-1	7.198309E-1	7.603477E-1	7.203991E-1	7.379402E-1	7.390048E-1
5.377580E+2	8.543605E-1	8.213518E-1	7.836637E-1	8.202649E-1	8.050641E-1	8.355152E-1	8.801219E-1	8.303828E-1	7.643792E-1	8.397179E-1	8.253904E-1	8.658020E-1	8.219702E-1	8.389771E-1	8.445373E-1	8.224537E-1	7.897662E-1	8.293232E-1	8.457117E-1	8.107171E-1	8.237630E-1	8.083085E-1	8.341879E-1	7.774528E-1	7.911143E-1	8.652275E-1	8.652633E-1	8.394774E-1	8.355984E-1	8.227796E-1	8.198662E-1	8.495465E-1	7.837804E-1	8.207151E-1	8.238926E-1	8.273324E-1	8.272169E-1	8.198177E-1	8.158312E-1	8.279482E-1	8.465863E-1	8.450527E-1	8.459029E-1	8.315527E-1	8.209374E-1	7.996210E-1	8.192032E-1	8.489223E-1	7.779568E-1	8.501323E-1	8.531354E-1	8.947784E-1	8.399543E-1	8.394415E-1	8.344263E-1	8.176988E-1	8.182898E-1	8.576664E-1	8.539183E-1	8.402498E-1	8.133109E-1	8.358283E-1	8.257451E-1	8.324509E-1	8.169015E-1	8.276653E-1	8.042596E-1	8.473767E-1	8.202435E-1	8.137236E-1	8.526210E-1	8.452245E-1	8.372429E-1	8.232319E-1	8.562756E-1	8.243529E-1	7.997575E-1	7.858463E-1	8.115530E-1	8.437073E-1	8.209416E-1	8.410589E-1	7.925064E-1	8.745792E-1	8.135117E-1	8.014243E-1	8.650405E-1	8.268522E-1	8.312204E-1	8.132882E-1	8.244530E-1	8.411761E-1	8.531431E-1	8.317033E-1	8.695163E-1	8.305362E-1	8.577627E-1	8.224323E-1	7.986664E-1	8.131432E-1	8.235916E-1	8.350156E-1	8.507676E-1	8.534398E-1	8.981067E-1	8.039036E-1	7.983596E-1	8.552325E-1	7.936303E-1	8.169678E-1	8.502054E-1	8.386232E-1	7.904781E-1	8.892805E-1	8.314362E-1	8.365503E-1	8.210943E-1	8.581592E-1	8.730633E-1	8.314026E-1	8.426202E-1	8.212155E-1	8.429827E-1	8.127425E-1	8.621040E-1	8.610917E-1	8.439621E-1	8.042410E-1	8.240033E-1	7.907126E-1	8.752965E-1	8.465864E-1	8.180799E-1	8.107582E-1	8.017216E-1	8.613967E-1	8.461013E-1	8.615882E-1	8.508892E-1	8.425586E-1	8.451128E-1	8.361826E-1	8.535536E-1	8.800151E-1	8.830383E-1	8.964610E-1	8.041329E-1	8.196692E-1	8.049101E-1	7.990552E-1	8.387522E-1	8.462262E-1	8.491281E-1	8.066710E-1	7.986409E-1	8.112520E-1	8.401739E-1	8.651022E-1	8.672420E-1	8.277122E-1	8.539214E-1	8.313367E-1	8.271980E-1	7.991263E-1	8.634363E-1	8.339458E-1	8.499904E-1	7.933103E-1	8.328997E-1	8.335473E-1	9.307248E-1
5.380160E+2	1.018370E+0	9.609659E-1	9.590766E-1	1.008438E+0	9.263732E-1	1.000036E+0	1.024751E+0	9.916234E-1	1.021551E+0	9.633218E-1	9.506622E-1	9.320963E-1	9.671607E-1	9.729225E-1	9.695012E-1	9.610005E-1	1.007844E+0	1.045357E+0	9.955194E-1	9.946176E-1	9.836994E-1	9.373649E-1	9.545111E-1	1.009380E+0	9.681713E-1	9.793505E-1	9.854138E-1	9.800158E-1	9.532097E-1	9.781821E-1	9.837497E-1	1.001961E+0	9.840755E-1	9.797221E-1	9.921852E-1	1.023622E+0	9.813819E-1	9.712464E-1	1.003081E+0	1.004836E+0	1.019834E+0	9.990429E-1	9.568966E-1	9.807725E-1	9.603329E-1	9.704299E-1	9.576998E-1	1.007968E+0	9.579557E-1	9.860260E-1	9.893056E-1	9.791172E-1	9.539212E-1	9.841796E-1	9.678779E-1	9.499912E-1	9.476859E-1	1.055323E+0	9.752495E-1	1.012262E+0	9.704622E-1	9.671778E-1	1.023509E+0	9.904820E-1	9.978076E-1	1.018335E+0	9.742738E-1	9.552663E-1	9.575379E-1	9.779507E-1	1.040016E+0	9.697110E-1	9.602885E-1	9.958368E-1	1.037573E+0	9.968128E-1	1.001366E+0	9.531659E-1	9.973724E-1	1.020500E+0	8.931804E-1	9.593057E-1	9.960235E-1	9.833392E-1	9.324672E-1	9.749260E-1	9.909407E-1	9.541285E-1	9.536415E-1	1.005657E+0	9.834378E-1	9.888362E-1	1.012785E+0	9.576854E-1	9.695423E-1	1.002055E+0	9.292128E-1	1.012294E+0	9.344969E-1	9.636713E-1	9.959173E-1	9.786178E-1	1.010280E+0	9.670880E-1	1.013619E+0	9.906768E-1	9.858669E-1	9.872708E-1	9.277143E-1	9.880567E-1	9.883587E-1	9.623853E-1	9.713872E-1	9.459539E-1	9.328853E-1	9.598811E-1	9.717392E-1	9.958254E-1	9.967320E-1	9.492559E-1	9.738348E-1	9.930677E-1	9.968854E-1	9.972356E-1	1.000556E+0	1.009150E+0	9.893059E-1	9.949837E-1	9.756219E-1	1.007064E+0	9.423203E-1	9.637235E-1	1.011621E+0	9.608559E-1	9.760122E-1	1.011700E+0	9.719652E-1	9.836347E-1	9.932434E-1	9.973202E-1	9.796842E-1	9.755434E-1	9.587462E-1	1.022381E+0	9.930387E-1	1.025105E+0	9.584254E-1	1.015944E+0	9.531493E-1	9.978896E-1	9.742026E-1	9.873227E-1	9.911092E-1	9.697399E-1	9.505488E-1	9.788304E-1	9.584939E-1	9.982046E-1	9.762088E-1	1.011117E+0	1.021068E+0	9.951304E-1	1.000054E+0	9.540115E-1	9.536205E-1	1.021267E+0	9.626306E-1	9.668507E-1	9.889662E-1	1.001021E+0	9.655470E-1
5.382740E+2	1.222424E+0	1.204863E+0	1.176219E+0	1.190870E+0	1.177378E+0	1.136537E+0	1.166789E+0	1.189197E+0	1.193406E+0	1.160266E+0	1.148711E+0	1.150152E+0	1.149559E+0	1.165276E+0	1.187432E+0	1.192475E+0	1.170544E+0	1.150898E+0	1.216408E+0	1.167632E+0	1.230468E+0	1.202495E+0	1.219602E+0	1.206804E+0	1.106253E+0	1.160711E+0	1.199329E+0	1.220196E+0	1.235409E+0	1.145142E+0	1.173564E+0	1.166486E+0	1.161430E+0	1.132240E+0	1.157715E+0	1.142519E+0	1.178370E+0	1.180849E+0	1.221543E+0	1.195605E+0	1.162172E+0	1.111742E+0	1.162303E+0	1.158887E+0	1.166694E+0	1.183070E+0	1.200973E+0	1.177115E+0	1.184499E+0	1.159345E+0	1.130601E+0	1.173236E+0	1.146008E+0	1.179372E+0	1.152994E+0	1.224906E+0	1.195796E+0	1.209461E+0	1.168857E+0	1.150131E+0	1.195014E+0	1.198936E+0	1.178638E+0	1.152441E+0	1.233169E+0	1.184112E+0	1.193210E+0	1.211078E+0	1.153224E+0	1.183572E+0	1.219751E+0	1.229563E+0	1.147393E+0	1.185643E+0	1.157372E+0	1.136779E+0	1.197263E+0	1.173278E+0	1.184191E+0	1.180722E+0	1.153730E+0	1.180982E+0	1.154800E+0	1.168075E+0	1.184346E+0	1.202820E+0	1.214551E+0	1.194587E+0	1.210794E+0	1.189511E+0	1.151870E+0	1.196984E+0	1.149097E+0	1.165428E+0	1.190953E+0	1.193701E+0	1.149996E+0	1.132625E+0	1.172416E+0	1.167676E+0	1.149181E+0	1.175531E+0	1.185325E+0	1.141885E+0	1.155203E+0	1.173236E+0	1.211024E+0	1.196059E+0	1.163033E+0	1.154291E+0	1.164455E+0	1.133853E+0	1.133178E+0	1.177120E+0	1.132688E+0	1.167800E+0	1.171633E+0	1.157720E+0	1.153416E+0	1.173143E+0	1.134311E+0	1.179528E+0	1.199583E+0	1.193852E+0	1.178329E+0	1.221647E+0	1.156125E+0	1.174004E+0	1.136594E+0	1.200200E+0	1.208853E+0	1.230485E+0	1.154621E+0	1.166573E+0	1.141955E+0	1.209401E+0	1.147102E+0	1.211800E+0	1.165551E+0	1.164817E+0	1.178148E+0	1.145469E+0	1.202338E+0	1.166136E+0	1.213031E+0	1.194454E+0	1.186196E+0	1.166564E+0	1.164479E+0	1.173503E+0	1.156802E+0	1.172657E+0	1.130874E+0	1.162848E+0	1.154117E+0	1.189763E+0	1.204819E+0	1.198140E+0	1.138982E+0	1.168595E+0	1.145908E+0	1.181018E+0	1.165811E+0	1.152295E+0	1.159777E+0	1.206917E+0	1.202743E+0	1.168026E+0	1.175826E+0	1.078887E+0	1.210288E+0
5.385060E+2	1.417479E+0	1.434068E+0	1.411396E+0	1.384810E+0	1.438094E+0	1.391840E+0	1.401409E+0	1.343200E+0	1.392117E+0	1.387204E+0	1.467385E+0	1.417466E+0	1.355543E+0	1.382225E+0	1.378833E+0	1.437973E+0	1.440427E+0	1.438704E+0	1.385360E+0	1.463416E+0	1.350105E+0	1.362441E+0	1.472128E+0	1.394315E+0	1.361578E+0	1.386291E+0	1.422108E+0	1.441738E+0	1.375649E+0	1.355857E+0	1.330958E+0	1.360255E+0	1.365880E+0	1.318033E+0	1.387187E+0	1.360744E+0	1.355910E+0	1.361220E+0	1.355765E+0	1.375070E+0	1.333240E+0	1.397769E+0	1.340395E+0	1.385877E+0	1.371428E+0	1.402804E+0	1.408625E+0	1.421323E+0	1.384986E+0	1.405943E+0	1.350163E+0	1.396748E+0	1.329855E+0	1.395754E+0	1.404003E+0	1.368864E+0	1.356927E+0	1.394519E+0	1.378041E+0	1.382825E+0	1.392555E+0	1.353358E+0	1.363801E+0	1.361987E+0	1.364596E+0	1.357082E+0	1.358949E+0	1.329830E+0	1.367230E+0	1.350279E+0	1.427114E+0	1.400932E+0	1.331883E+0	1.369694E+0	1.377325E+0	1.361672E+0	1.381650E+0	1.360097E+0	1.358829E+0	1.391703E+0	1.362626E+0	1.393711E+0	1.429102E+0	1.334312E+0	1.393964E+0	1.335749E+0	1.413909E+0	1.387406E+0	1.390707E+0	1.385208E+0	1.317213E+0	1.408396E+0	1.385026E+0	1.417863E+0	1.389617E+0	1.402752E+0	1.339323E+0	1.424215E+0	1.366955E+0	1.398002E+0	1.382195E+0	1.442222E+0	1.354592E+0	1.375790E+0	1.391312E+0	1.360195E+0	1.340484E+0	1.397699E+0	1.389397E+0	1.457780E+0	1.353260E+0	1.382281E+0	1.398476E+0	1.355850E+0	1.375033E+0	1.342285E+0	1.385534E+0	1.339752E+0	1.380898E+0	1.386891E+0	1.367360E+0	1.404467E+0	1.381503E+0	1.341208E+0	1.376341E+0	1.424760E+0	1.368733E+0	1.350752E+0	1.361885E+0	1.352530E+0	1.434303E+0	1.409601E+0	1.366803E+0	1.349959E+0	1.394720E+0	1.420167E+0	1.353482E+0	1.405191E+0	1.376819E+0	1.395324E+0	1.403033E+0	1.358605E+0	1.329432E+0	1.397946E+0	1.365642E+0	1.370003E+0	1.305298E+0	1.466075E+0	1.383684E+0	1.388368E+0	1.381389E+0	1.353302E+0	1.359622E+0	1.352837E+0	1.395284E+0	1.332307E+0	1.402078E+0	1.411831E+0	1.373775E+0	1.406067E+0	1.367999E+0	1.395534E+0	1.424882E+0	1.342251E+0	1.327698E+0	1.344348E+0	1.366689E+0	1.401187E+0	1.390207E+0	1.308028E+0	1.425060E+0
5.387650E+2	1.743372E+0	1.626939E+0	1.654213E+0	1.653107E+0	1.616580E+0	1.654445E+0	1.649726E+0	1.680817E+0	1.605875E+0	1.651801E+0	1.586619E+0	1.596400E+0	1.635332E+0	1.668857E+0	1.646316E+0	1.662180E+0	1.590606E+0	1.617808E+0	1.650402E+0	1.695640E+0	1.629435E+0	1.567866E+0	1.614204E+0	1.632519E+0	1.577399E+0	1.616949E+0	1.653364E+0	1.701571E+0	1.648045E+0	1.605120E+0	1.642568E+0	1.666936E+0	1.625327E+0	1.630095E+0	1.628881E+0	1.604791E+0	1.634521E+0	1.654958E+0	1.613225E+0	1.630101E+0	1.642993E+0	1.614058E+0	1.657884E+0	1.622456E+0	1.636685E+0	1.620619E+0	1.691407E+0	1.619173E+0	1.665247E+0	1.652588E+0	1.637498E+0	1.647978E+0	1.613982E+0	1.647466E+0	1.644713E+0	1.661298E+0	1.666245E+0	1.604696E+0	1.593306E+0	1.640824E+0	1.656273E+0	1.615075E+0	1.646531E+0	1.594673E+0	1.644717E+0	1.663192E+0	1.599338E+0	1.589434E+0	1.584909E+0	1.649238E+0	1.670622E+0	1.639260E+0	1.659824E+0	1.647081E+0	1.630187E+0	1.602726E+0	1.593869E+0	1.658776E+0	1.731656E+0	1.642013E+0	1.526336E+0	1.582385E+0	1.557634E+0	1.688534E+0	1.611889E+0	1.559603E+0	1.691074E+0	1.594793E+0	1.653029E+0	1.641417E+0	1.631414E+0	1.655550E+0	1.647731E+0	1.632775E+0	1.633252E+0	1.637976E+0	1.564156E+0	1.660562E+0	1.581305E+0	1.590834E+0	1.608743E+0	1.607782E+0	1.668296E+0	1.610724E+0	1.653963E+0	1.592539E+0	1.625899E+0	1.614001E+0	1.524948E+0	1.629146E+0	1.596851E+0	1.644304E+0	1.607960E+0	1.617023E+0	1.600629E+0	1.553822E+0	1.578960E+0	1.574209E+0	1.657166E+0	1.601688E+0	1.602274E+0	1.591391E+0	1.642720E+0	1.577520E+0	1.609881E+0	1.672178E+0	1.580284E+0	1.621305E+0	1.584927E+0	1.645256E+0	1.652195E+0	1.640631E+0	1.591364E+0	1.591293E+0	1.590438E+0	1.584803E+0	1.644958E+0	1.575085E+0	1.583284E+0	1.634100E+0	1.610646E+0	1.634561E+0	1.584146E+0	1.560113E+0	1.638506E+0	1.660309E+0	1.568030E+0	1.594840E+0	1.680433E+0	1.616249E+0	1.681358E+0	1.649898E+0	1.599973E+0	1.676064E+0	1.571730E+0	1.600198E+0	1.681910E+0	1.641506E+0	1.607537E+0	1.581146E+0	1.620571E+0	1.585375E+0	1.605252E+0	1.581032E+0	1.604917E+0	1.576646E+0	1.653310E+0	1.573689E+0	1.617492E+0	1.507757E+0	1.633687E+0
5.390450E+2	1.900130E+0	1.849275E+0	1.759872E+0	1.842090E+0	1.864884E+0	1.797468E+0	1.853641E+0	1.873298E+0	1.830081E+0	1.793631E+0	1.825906E+0	1.821525E+0	1.788192E+0	1.802867E+0	1.799676E+0	1.865696E+0	1.845764E+0	1.867553E+0	1.832454E+0	1.839338E+0	1.829372E+0	1.809199E+0	1.880794E+0	1.843349E+0	1.779819E+0	1.814949E+0	1.914189E+0	1.834462E+0	1.837894E+0	1.833221E+0	1.789483E+0	1.843701E+0	1.838622E+0	1.844028E+0	1.851998E+0	1.803633E+0	1.737788E+0	1.803298E+0	1.802749E+0	1.874718E+0	1.817497E+0	1.793691E+0	1.881507E+0	1.838575E+0	1.829199E+0	1.878859E+0	1.852772E+0	1.808321E+0	1.779127E+0	1.848857E+0	1.847563E+0	1.748015E+0	1.791627E+0	1.841233E+0	1.879019E+0	1.842175E+0	1.775732E+0	1.869417E+0	1.833276E+0	1.797768E+0	1.817312E+0	1.816323E+0	1.814025E+0	1.740740E+0	1.804909E+0	1.805523E+0	1.774081E+0	1.740744E+0	1.823976E+0	1.819514E+0	1.800440E+0	1.817284E+0	1.830148E+0	1.855095E+0	1.831774E+0	1.743873E+0	1.748535E+0	1.717866E+0	1.801103E+0	1.830191E+0	1.796898E+0	1.786914E+0	1.880271E+0	1.841024E+0	1.763293E+0	1.769139E+0	1.869198E+0	1.793009E+0	1.770011E+0	1.789700E+0	1.808683E+0	1.833015E+0	1.744805E+0	1.810906E+0	1.838390E+0	1.845171E+0	1.793092E+0	1.824225E+0	1.796849E+0	1.770089E+0	1.813333E+0	1.760721E+0	1.816421E+0	1.771084E+0	1.784772E+0	1.715285E+0	1.814007E+0	1.749385E+0	1.774307E+0	1.784990E+0	1.799273E+0	1.806554E+0	1.772846E+0	1.755092E+0	1.811527E+0	1.799839E+0	1.777692E+0	1.738129E+0	1.802882E+0	1.773126E+0	1.734583E+0	1.821711E+0	1.867514E+0	1.787047E+0	1.775297E+0	1.822907E+0	1.807794E+0	1.767031E+0	1.803689E+0	1.778196E+0	1.754430E+0	1.809188E+0	1.835316E+0	1.814923E+0	1.727807E+0	1.753376E+0	1.703689E+0	1.748325E+0	1.775415E+0	1.788750E+0	1.803711E+0	1.760191E+0	1.749622E+0	1.770126E+0	1.819991E+0	1.784067E+0	1.728163E+0	1.735910E+0	1.782364E+0	1.780100E+0	1.755893E+0	1.760462E+0	1.719543E+0	1.776424E+0	1.729966E+0	1.754170E+0	1.859955E+0	1.783691E+0	1.789397E+0	1.739053E+0	1.796960E+0	1.754680E+0	1.782305E+0	1.736261E+0	1.728006E+0	1.728977E+0	1.746973E+0	1.778685E+0	1.756714E+0	1.696753E+0	1.724603E+0
5.392720E+2	2.081064E+0	1.986999E+0	1.954647E+0	1.927594E+0	2.025327E+0	1.953706E+0	2.010048E+0	1.979711E+0	2.000183E+0	1.920314E+0	2.022296E+0	2.007991E+0	1.970170E+0	1.957625E+0	1.971300E+0	1.980337E+0	2.045005E+0	1.994461E+0	2.004493E+0	2.047067E+0	1.999501E+0	1.978779E+0	1.996758E+0	2.014116E+0	1.951427E+0	1.941750E+0	2.048959E+0	2.033746E+0	2.046302E+0	2.011297E+0	1.961417E+0	1.978364E+0	1.936225E+0	1.937779E+0	1.990990E+0	2.031642E+0	1.984500E+0	1.973224E+0	2.010440E+0	1.963971E+0	2.070967E+0	1.916903E+0	2.041715E+0	1.957839E+0	2.031591E+0	2.013800E+0	1.965344E+0	1.955572E+0	1.972232E+0	2.019897E+0	1.981162E+0	1.994993E+0	1.972857E+0	1.934700E+0	2.014291E+0	1.945437E+0	1.965411E+0	2.014716E+0	2.062402E+0	1.950061E+0	1.930480E+0	2.004046E+0	1.985993E+0	1.993133E+0	1.985620E+0	1.983095E+0	1.982812E+0	1.969309E+0	2.013163E+0	1.938189E+0	2.013988E+0	1.960577E+0	1.937246E+0	1.982796E+0	2.031006E+0	1.979139E+0	2.020527E+0	1.963589E+0	2.019813E+0	2.001325E+0	1.947680E+0	1.926409E+0	1.910813E+0	1.976175E+0	1.921425E+0	1.973171E+0	2.106215E+0	1.944620E+0	2.032659E+0	2.045605E+0	1.987169E+0	1.938526E+0	2.057350E+0	1.968304E+0	1.952873E+0	1.947585E+0	1.948177E+0	2.000554E+0	1.943190E+0	1.932898E+0	1.923986E+0	1.912523E+0	1.987934E+0	1.952139E+0	2.000931E+0	1.942756E+0	1.956516E+0	1.985483E+0	1.908133E+0	1.928537E+0	2.022382E+0	1.960104E+0	1.948070E+0	1.986820E+0	1.958690E+0	1.962008E+0	1.906929E+0	1.968248E+0	1.969818E+0	1.953970E+0	1.864257E+0	1.959832E+0	1.958194E+0	1.883899E+0	1.949249E+0	1.910309E+0	2.002565E+0	1.977550E+0	1.948236E+0	1.939140E+0	2.008811E+0	1.989802E+0	1.903688E+0	1.908053E+0	2.012176E+0	1.971105E+0	1.889654E+0	1.988295E+0	1.885510E+0	1.989371E+0	2.003322E+0	1.949083E+0	1.907562E+0	1.919848E+0	2.004311E+0	1.997477E+0	1.912788E+0	1.954887E+0	1.937607E+0	1.858935E+0	1.979462E+0	1.919759E+0	1.950243E+0	1.927425E+0	1.919475E+0	1.915490E+0	1.922414E+0	1.904312E+0	1.965763E+0	1.921797E+0	1.922792E+0	1.864035E+0	1.979586E+0	1.943521E+0	1.889984E+0	1.816024E+0	1.944427E+0	1.888841E+0	1.952451E+0	1.790391E+0	1.914729E+0
5.395160E+2	2.178504E+0	2.113877E+0	2.048081E+0	2.142774E+0	2.143299E+0	2.153182E+0	2.114374E+0	2.105687E+0	2.150682E+0	2.067017E+0	2.075770E+0	2.117635E+0	2.085513E+0	2.075139E+0	2.113708E+0	2.124316E+0	2.137032E+0	2.141583E+0	2.036468E+0	2.102742E+0	2.076630E+0	2.111997E+0	2.133552E+0	2.159054E+0	2.035607E+0	2.022479E+0	2.183686E+0	2.208521E+0	2.150968E+0	2.081833E+0	2.124349E+0	2.147083E+0	2.067314E+0	2.050990E+0	2.100689E+0	2.052952E+0	2.089681E+0	2.068580E+0	2.122671E+0	2.107807E+0	2.121953E+0	1.998756E+0	2.042978E+0	2.077519E+0	2.126587E+0	2.081912E+0	2.079483E+0	2.204672E+0	2.076342E+0	2.127933E+0	2.128714E+0	2.072447E+0	2.026084E+0	2.084917E+0	2.111736E+0	2.081571E+0	2.097739E+0	2.068340E+0	2.132616E+0	2.100614E+0	2.129841E+0	2.089089E+0	2.081088E+0	2.064518E+0	2.069153E+0	2.064235E+0	2.027882E+0	2.059902E+0	2.025645E+0	2.064514E+0	2.120854E+0	2.087006E+0	2.030189E+0	2.084979E+0	2.077083E+0	2.016816E+0	2.031081E+0	2.060892E+0	2.045210E+0	2.113334E+0	2.040533E+0	2.061310E+0	2.084657E+0	2.035097E+0	2.057260E+0	2.056497E+0	2.088758E+0	2.059616E+0	2.126770E+0	2.009315E+0	2.060004E+0	2.055154E+0	2.062865E+0	2.063325E+0	2.093836E+0	2.044979E+0	2.057553E+0	2.120860E+0	2.052443E+0	2.063533E+0	2.044161E+0	2.085439E+0	2.078275E+0	2.002942E+0	2.071589E+0	1.955476E+0	2.092685E+0	2.101695E+0	2.083689E+0	2.079636E+0	2.110708E+0	2.079429E+0	1.998015E+0	2.092475E+0	1.981831E+0	2.059685E+0	2.035119E+0	1.965563E+0	2.032509E+0	2.015109E+0	2.023408E+0	2.055071E+0	2.095188E+0	2.009489E+0	2.071320E+0	2.083673E+0	2.008877E+0	2.106650E+0	2.082947E+0	2.072445E+0	2.118928E+0	2.082585E+0	2.083059E+0	2.062267E+0	2.049216E+0	2.031725E+0	2.003541E+0	2.038208E+0	2.019138E+0	2.035246E+0	2.024782E+0	2.046254E+0	2.006190E+0	2.048140E+0	2.088869E+0	2.049842E+0	2.041188E+0	2.080471E+0	2.010340E+0	2.012019E+0	2.076106E+0	2.054013E+0	2.017517E+0	2.059888E+0	1.974098E+0	2.057519E+0	2.046190E+0	2.043411E+0	2.035018E+0	1.988690E+0	2.011967E+0	2.010479E+0	2.016605E+0	2.014391E+0	1.975098E+0	1.995057E+0	2.018264E+0	2.015929E+0	2.038045E+0	1.963191E+0	2.045995E+0
5.397810E+2	2.178081E+0	2.133879E+0	1.976427E+0	2.085667E+0	2.036252E+0	2.028958E+0	2.158928E+0	2.098903E+0	2.084885E+0	2.028369E+0	2.095448E+0	2.129731E+0	1.996634E+0	2.063515E+0	2.061253E+0	2.135070E+0	2.137121E+0	2.134044E+0	2.085191E+0	2.125136E+0	2.134014E+0	2.048875E+0	2.035031E+0	2.120640E+0	2.067622E+0	2.013127E+0	2.064761E+0	2.112599E+0	2.079364E+0	2.098477E+0	2.056355E+0	2.062717E+0	2.055409E+0	1.990691E+0	2.127276E+0	2.048846E+0	2.057770E+0	2.012802E+0	2.078577E+0	2.111874E+0	2.038286E+0	2.113863E+0	2.049520E+0	2.049016E+0	1.958646E+0	2.095049E+0	2.115546E+0	2.137733E+0	2.046878E+0	2.066446E+0	2.047663E+0	2.109661E+0	2.082817E+0	2.078289E+0	2.087121E+0	2.111924E+0	2.075254E+0	2.096557E+0	2.082216E+0	2.122199E+0	2.058955E+0	2.125718E+0	2.014052E+0	2.001241E+0	2.017287E+0	2.077244E+0	2.056614E+0	2.046794E+0	2.066622E+0	2.020136E+0	2.065949E+0	2.109029E+0	2.047585E+0	2.046450E+0	2.087254E+0	2.027848E+0	2.013378E+0	2.025283E+0	2.096406E+0	2.131219E+0	2.026388E+0	1.986174E+0	2.059824E+0	2.026109E+0	2.044556E+0	2.001269E+0	2.141381E+0	2.002625E+0	2.090084E+0	2.046226E+0	2.026479E+0	2.094430E+0	2.057914E+0	2.021105E+0	2.141453E+0	2.087470E+0	2.048565E+0	2.062544E+0	2.069197E+0	1.994377E+0	2.024583E+0	2.032695E+0	2.048989E+0	2.054515E+0	2.066031E+0	1.992246E+0	2.033120E+0	2.103620E+0	1.994744E+0	2.029280E+0	1.990329E+0	2.007180E+0	2.008873E+0	2.027477E+0	2.025463E+0	2.015640E+0	2.038392E+0	2.028901E+0	2.100051E+0	2.036186E+0	2.060688E+0	2.000238E+0	2.057404E+0	2.049836E+0	2.011340E+0	2.041553E+0	2.017296E+0	2.038825E+0	2.032806E+0	2.005945E+0	2.126396E+0	2.061664E+0	1.979954E+0	2.015548E+0	1.958543E+0	2.052906E+0	1.939729E+0	1.991990E+0	2.056646E+0	2.027680E+0	2.040777E+0	1.996006E+0	2.030453E+0	2.051841E+0	2.115884E+0	2.096441E+0	1.986107E+0	2.073017E+0	2.056227E+0	1.990103E+0	2.059468E+0	1.993260E+0	2.031654E+0	1.991687E+0	1.976445E+0	1.958478E+0	2.029755E+0	2.030390E+0	2.006836E+0	2.000430E+0	2.015379E+0	2.042056E+0	2.055901E+0	2.016240E+0	1.967613E+0	2.024782E+0	1.968554E+0	2.004758E+0	1.993511E+0	1.886822E+0	1.929557E+0
5.400190E+2	2.015999E+0	1.913001E+0	1.948537E+0	2.027769E+0	1.960599E+0	1.984258E+0	1.962334E+0	1.949858E+0	1.968096E+0	1.946593E+0	1.926233E+0	1.990171E+0	2.041515E+0	2.016167E+0	1.952851E+0	1.999364E+0	2.041091E+0	1.950598E+0	1.984751E+0	1.984223E+0	1.937894E+0	1.940056E+0	1.955679E+0	1.970836E+0	1.950640E+0	1.967291E+0	1.997984E+0	2.012965E+0	2.029154E+0	1.920705E+0	1.982232E+0	2.024728E+0	1.965972E+0	1.913082E+0	1.973138E+0	1.945960E+0	1.917685E+0	1.990830E+0	1.936850E+0	1.981580E+0	1.981991E+0	1.961533E+0	2.009476E+0	2.004479E+0	1.973081E+0	2.008245E+0	1.949342E+0	1.975866E+0	1.916568E+0	1.978714E+0	1.997511E+0	1.982812E+0	1.949642E+0	1.953786E+0	1.957207E+0	2.045389E+0	1.948826E+0	1.954193E+0	1.996734E+0	1.971659E+0	1.942599E+0	1.939690E+0	1.955494E+0	1.891087E+0	2.003485E+0	1.972291E+0	1.901289E+0	1.918762E+0	2.018043E+0	1.897192E+0	1.924511E+0	1.927284E+0	1.921576E+0	2.005266E+0	1.969092E+0	2.016616E+0	1.938375E+0	1.930816E+0	1.984176E+0	1.904351E+0	1.951564E+0	1.902100E+0	1.973805E+0	1.899565E+0	1.899861E+0	1.943477E+0	2.024848E+0	1.938056E+0	1.946267E+0	1.977707E+0	1.931022E+0	1.988582E+0	1.867720E+0	1.894663E+0	1.958056E+0	2.007269E+0	1.876578E+0	1.966550E+0	1.923625E+0	1.948849E+0	1.965073E+0	1.960599E+0	1.983303E+0	1.921505E+0	1.934056E+0	1.930028E+0	1.968601E+0	1.893730E+0	1.970863E+0	1.958532E+0	1.989368E+0	1.957574E+0	1.881980E+0	1.969475E+0	1.909433E+0	1.904474E+0	1.885708E+0	1.971300E+0	1.941648E+0	1.887251E+0	1.826769E+0	1.978932E+0	2.000702E+0	1.899580E+0	1.900665E+0	1.927871E+0	2.049403E+0	1.930834E+0	1.903279E+0	1.924620E+0	2.008913E+0	2.012463E+0	1.918294E+0	1.904154E+0	1.918494E+0	1.930564E+0	1.845834E+0	1.895892E+0	1.954930E+0	1.899712E+0	1.876329E+0	1.960052E+0	1.851743E+0	1.902641E+0	1.938263E+0	2.003792E+0	1.884971E+0	1.968537E+0	1.921261E+0	1.879971E+0	1.979934E+0	1.927775E+0	1.886002E+0	1.923917E+0	1.925435E+0	1.911455E+0	1.960705E+0	1.961380E+0	1.939265E+0	1.896193E+0	1.893674E+0	1.929199E+0	1.878327E+0	1.903361E+0	1.862673E+0	1.845757E+0	1.902613E+0	1.858358E+0	1.905746E+0	1.873218E+0	1.908368E+0
5.402740E+2	1.962034E+0	1.857806E+0	1.844831E+0	1.867944E+0	1.831299E+0	1.741543E+0	1.763856E+0	1.815924E+0	1.859291E+0	1.803713E+0	1.782028E+0	1.826948E+0	1.851391E+0	1.852252E+0	1.789413E+0	1.866840E+0	1.896294E+0	1.834477E+0	1.869603E+0	1.854087E+0	1.849921E+0	1.805101E+0	1.836134E+0	1.811756E+0	1.733278E+0	1.801768E+0	1.841796E+0	1.886214E+0	1.855652E+0	1.807568E+0	1.828836E+0	1.832738E+0	1.796603E+0	1.823063E+0	1.859962E+0	1.839539E+0	1.854870E+0	1.810908E+0	1.806331E+0	1.835852E+0	1.791361E+0	1.779318E+0	1.845056E+0	1.850904E+0	1.823223E+0	1.884711E+0	1.796868E+0	1.871105E+0	1.805730E+0	1.837263E+0	1.790474E+0	1.856239E+0	1.831462E+0	1.848754E+0	1.844916E+0	1.895199E+0	1.815894E+0	1.792116E+0	1.841781E+0	1.838437E+0	1.840839E+0	1.895764E+0	1.838151E+0	1.842442E+0	1.766268E+0	1.830188E+0	1.793262E+0	1.783788E+0	1.841147E+0	1.815638E+0	1.834973E+0	1.846128E+0	1.778871E+0	1.864791E+0	1.807546E+0	1.776388E+0	1.830062E+0	1.818855E+0	1.814151E+0	1.749763E+0	1.711101E+0	1.776974E+0	1.835035E+0	1.833814E+0	1.838125E+0	1.796053E+0	1.868626E+0	1.788305E+0	1.843087E+0	1.838809E+0	1.759134E+0	1.850895E+0	1.847971E+0	1.771967E+0	1.815063E+0	1.832455E+0	1.818569E+0	1.857431E+0	1.847446E+0	1.841843E+0	1.792129E+0	1.809471E+0	1.750390E+0	1.794033E+0	1.916942E+0	1.745250E+0	1.839466E+0	1.802387E+0	1.790854E+0	1.796918E+0	1.813066E+0	1.781586E+0	1.733884E+0	1.767005E+0	1.784218E+0	1.841467E+0	1.826635E+0	1.736941E+0	1.844069E+0	1.817714E+0	1.751007E+0	1.789455E+0	1.830648E+0	1.826111E+0	1.787675E+0	1.826733E+0	1.778243E+0	1.806651E+0	1.824653E+0	1.826788E+0	1.839303E+0	1.833712E+0	1.758175E+0	1.816344E+0	1.807253E+0	1.771441E+0	1.766681E+0	1.726214E+0	1.731802E+0	1.827174E+0	1.834230E+0	1.763127E+0	1.768446E+0	1.809099E+0	1.821893E+0	1.806432E+0	1.757581E+0	1.797718E+0	1.775039E+0	1.751716E+0	1.777648E+0	1.810827E+0	1.796523E+0	1.806416E+0	1.763396E+0	1.780933E+0	1.817414E+0	1.784474E+0	1.839739E+0	1.799150E+0	1.774897E+0	1.778394E+0	1.864626E+0	1.782997E+0	1.763821E+0	1.767356E+0	1.823783E+0	1.777772E+0	1.828047E+0	1.756446E+0	1.852115E+0
5.405080E+2	1.856273E+0	1.782434E+0	1.732459E+0	1.779490E+0	1.771889E+0	1.757427E+0	1.803407E+0	1.812446E+0	1.763872E+0	1.805766E+0	1.722777E+0	1.810680E+0	1.786540E+0	1.835007E+0	1.758470E+0	1.758287E+0	1.786869E+0	1.879958E+0	1.777516E+0	1.783778E+0	1.793912E+0	1.734200E+0	1.768015E+0	1.867771E+0	1.723861E+0	1.806770E+0	1.811370E+0	1.861766E+0	1.766061E+0	1.723898E+0	1.809924E+0	1.817675E+0	1.757204E+0	1.817310E+0	1.821804E+0	1.817591E+0	1.783773E+0	1.776536E+0	1.770041E+0	1.802598E+0	1.841688E+0	1.709777E+0	1.821685E+0	1.798234E+0	1.770043E+0	1.738076E+0	1.758667E+0	1.795495E+0	1.813416E+0	1.776261E+0	1.772293E+0	1.787834E+0	1.746981E+0	1.708709E+0	1.762973E+0	1.808431E+0	1.707596E+0	1.780596E+0	1.688355E+0	1.785345E+0	1.794688E+0	1.791082E+0	1.813278E+0	1.763657E+0	1.765274E+0	1.741867E+0	1.764351E+0	1.795267E+0	1.815716E+0	1.700376E+0	1.763888E+0	1.791434E+0	1.773608E+0	1.787253E+0	1.820791E+0	1.738010E+0	1.786837E+0	1.787588E+0	1.801583E+0	1.802889E+0	1.742858E+0	1.709484E+0	1.700799E+0	1.801493E+0	1.753844E+0	1.701655E+0	1.847550E+0	1.831132E+0	1.795584E+0	1.837072E+0	1.742079E+0	1.763603E+0	1.792119E+0	1.739343E+0	1.748693E+0	1.713255E+0	1.737121E+0	1.776992E+0	1.723600E+0	1.720172E+0	1.777673E+0	1.738028E+0	1.743408E+0	1.726962E+0	1.811405E+0	1.687337E+0	1.719766E+0	1.790925E+0	1.781345E+0	1.722244E+0	1.787063E+0	1.812203E+0	1.737428E+0	1.798849E+0	1.767949E+0	1.747830E+0	1.721440E+0	1.726243E+0	1.758191E+0	1.768685E+0	1.810225E+0	1.735931E+0	1.820796E+0	1.701779E+0	1.760144E+0	1.765341E+0	1.792749E+0	1.770466E+0	1.731178E+0	1.714560E+0	1.818639E+0	1.814069E+0	1.714695E+0	1.693418E+0	1.750824E+0	1.802669E+0	1.767377E+0	1.767115E+0	1.687490E+0	1.785822E+0	1.773781E+0	1.676987E+0	1.685076E+0	1.791775E+0	1.778175E+0	1.741224E+0	1.695974E+0	1.790557E+0	1.737012E+0	1.728153E+0	1.775061E+0	1.743197E+0	1.736423E+0	1.748325E+0	1.647319E+0	1.718787E+0	1.736152E+0	1.786844E+0	1.751906E+0	1.722873E+0	1.703438E+0	1.719799E+0	1.728334E+0	1.722022E+0	1.699895E+0	1.643787E+0	1.726158E+0	1.773315E+0	1.776486E+0	1.695591E+0	1.817993E+0
5.407680E+2	1.805374E+0	1.754835E+0	1.700537E+0	1.678514E+0	1.683723E+0	1.733050E+0	1.698204E+0	1.702374E+0	1.722533E+0	1.684379E+0	1.725290E+0	1.761157E+0	1.670905E+0	1.772619E+0	1.703783E+0	1.740081E+0	1.738746E+0	1.758790E+0	1.747124E+0	1.743898E+0	1.704261E+0	1.708288E+0	1.713830E+0	1.717149E+0	1.717589E+0	1.730663E+0	1.747849E+0	1.792264E+0	1.735757E+0	1.743888E+0	1.730685E+0	1.733333E+0	1.714231E+0	1.661122E+0	1.720162E+0	1.696077E+0	1.653379E+0	1.724821E+0	1.718472E+0	1.713240E+0	1.722841E+0	1.662110E+0	1.707000E+0	1.679583E+0	1.717473E+0	1.783585E+0	1.734323E+0	1.737870E+0	1.738541E+0	1.745072E+0	1.727499E+0	1.744215E+0	1.725439E+0	1.686736E+0	1.680321E+0	1.738868E+0	1.724000E+0	1.679269E+0	1.724445E+0	1.718270E+0	1.690493E+0	1.794025E+0	1.685813E+0	1.690495E+0	1.698733E+0	1.717529E+0	1.696609E+0	1.706584E+0	1.681615E+0	1.678989E+0	1.713761E+0	1.715366E+0	1.721837E+0	1.669458E+0	1.800496E+0	1.723767E+0	1.738867E+0	1.736565E+0	1.721191E+0	1.702063E+0	1.664592E+0	1.677728E+0	1.676192E+0	1.683685E+0	1.688222E+0	1.696481E+0	1.750787E+0	1.718014E+0	1.733658E+0	1.719923E+0	1.689200E+0	1.800976E+0	1.716144E+0	1.691628E+0	1.678277E+0	1.664379E+0	1.741599E+0	1.737136E+0	1.686954E+0	1.703742E+0	1.645680E+0	1.693972E+0	1.657596E+0	1.703154E+0	1.707752E+0	1.709914E+0	1.679888E+0	1.710082E+0	1.697153E+0	1.713797E+0	1.725139E+0	1.690204E+0	1.674258E+0	1.694201E+0	1.647799E+0	1.732494E+0	1.685451E+0	1.700737E+0	1.674203E+0	1.703740E+0	1.710359E+0	1.698402E+0	1.708677E+0	1.720242E+0	1.702082E+0	1.735111E+0	1.694233E+0	1.738858E+0	1.667570E+0	1.729943E+0	1.716046E+0	1.759376E+0	1.709756E+0	1.683761E+0	1.670494E+0	1.721746E+0	1.654458E+0	1.653104E+0	1.684006E+0	1.707657E+0	1.700516E+0	1.659407E+0	1.616075E+0	1.712124E+0	1.812714E+0	1.764844E+0	1.659999E+0	1.729162E+0	1.644145E+0	1.667377E+0	1.714848E+0	1.670196E+0	1.699216E+0	1.758555E+0	1.639897E+0	1.670375E+0	1.736842E+0	1.669095E+0	1.701977E+0	1.715279E+0	1.636389E+0	1.684524E+0	1.669677E+0	1.682201E+0	1.637126E+0	1.707428E+0	1.683063E+0	1.663554E+0	1.649052E+0	1.594487E+0	1.656223E+0
5.410130E+2	1.750322E+0	1.694393E+0	1.650723E+0	1.685114E+0	1.627799E+0	1.674134E+0	1.640282E+0	1.710020E+0	1.642944E+0	1.665853E+0	1.667608E+0	1.708174E+0	1.656848E+0	1.636611E+0	1.651071E+0	1.667990E+0	1.718679E+0	1.690249E+0	1.633511E+0	1.668716E+0	1.641113E+0	1.652041E+0	1.644108E+0	1.713310E+0	1.679490E+0	1.581465E+0	1.699464E+0	1.706050E+0	1.671940E+0	1.694006E+0	1.655345E+0	1.677067E+0	1.663286E+0	1.689256E+0	1.648002E+0	1.688423E+0	1.643897E+0	1.696126E+0	1.640933E+0	1.620860E+0	1.662786E+0	1.604249E+0	1.675928E+0	1.645691E+0	1.688089E+0	1.714525E+0	1.666993E+0	1.659607E+0	1.662367E+0	1.667353E+0	1.632036E+0	1.682349E+0	1.604494E+0	1.658713E+0	1.667254E+0	1.647264E+0	1.689388E+0	1.628435E+0	1.690909E+0	1.705369E+0	1.693678E+0	1.705031E+0	1.631675E+0	1.621068E+0	1.571876E+0	1.660921E+0	1.574007E+0	1.622892E+0	1.658114E+0	1.616715E+0	1.674877E+0	1.661832E+0	1.616955E+0	1.671074E+0	1.667944E+0	1.656056E+0	1.675044E+0	1.656499E+0	1.648091E+0	1.670587E+0	1.570736E+0	1.587048E+0	1.682206E+0	1.669473E+0	1.648993E+0	1.660938E+0	1.714701E+0	1.621242E+0	1.662713E+0	1.630233E+0	1.624895E+0	1.653089E+0	1.671125E+0	1.632923E+0	1.668923E+0	1.712731E+0	1.616028E+0	1.652695E+0	1.608332E+0	1.733596E+0	1.629953E+0	1.645445E+0	1.594487E+0	1.630774E+0	1.665195E+0	1.616721E+0	1.615278E+0	1.624974E+0	1.702270E+0	1.629602E+0	1.675758E+0	1.643611E+0	1.606938E+0	1.595696E+0	1.610909E+0	1.624626E+0	1.643599E+0	1.591589E+0	1.631105E+0	1.580315E+0	1.630475E+0	1.654285E+0	1.686037E+0	1.670739E+0	1.653383E+0	1.659135E+0	1.693625E+0	1.677839E+0	1.657531E+0	1.625516E+0	1.713171E+0	1.706002E+0	1.659548E+0	1.661166E+0	1.572340E+0	1.659851E+0	1.583624E+0	1.619036E+0	1.598132E+0	1.583375E+0	1.647008E+0	1.631004E+0	1.643514E+0	1.591062E+0	1.644824E+0	1.656524E+0	1.612694E+0	1.680942E+0	1.623233E+0	1.633224E+0	1.661030E+0	1.653518E+0	1.629809E+0	1.671848E+0	1.564469E+0	1.637752E+0	1.664899E+0	1.686000E+0	1.627716E+0	1.606092E+0	1.640829E+0	1.667365E+0	1.547079E+0	1.573255E+0	1.612362E+0	1.606890E+0	1.631863E+0	1.655276E+0	1.597883E+0	1.607711E+0	1.739619E+0
5.412690E+2	1.578540E+0	1.545753E+0	1.521373E+0	1.485963E+0	1.495619E+0	1.568807E+0	1.561137E+0	1.509275E+0	1.519155E+0	1.492977E+0	1.528052E+0	1.516679E+0	1.525693E+0	1.513237E+0	1.530977E+0	1.520697E+0	1.600862E+0	1.503977E+0	1.508158E+0	1.533215E+0	1.515322E+0	1.510639E+0	1.477877E+0	1.526805E+0	1.502119E+0	1.507277E+0	1.554849E+0	1.541517E+0	1.560566E+0	1.530844E+0	1.524030E+0	1.520555E+0	1.456788E+0	1.488109E+0	1.471071E+0	1.548610E+0	1.560533E+0	1.522182E+0	1.478411E+0	1.549412E+0	1.534652E+0	1.496455E+0	1.503497E+0	1.494131E+0	1.508652E+0	1.610366E+0	1.551734E+0	1.540078E+0	1.503236E+0	1.553358E+0	1.525120E+0	1.517083E+0	1.462715E+0	1.548552E+0	1.502411E+0	1.556646E+0	1.573300E+0	1.529151E+0	1.493491E+0	1.607321E+0	1.507212E+0	1.524079E+0	1.569049E+0	1.502199E+0	1.554764E+0	1.509456E+0	1.460279E+0	1.507718E+0	1.532022E+0	1.487717E+0	1.491488E+0	1.564813E+0	1.459970E+0	1.476843E+0	1.504847E+0	1.570483E+0	1.512559E+0	1.538208E+0	1.515113E+0	1.525076E+0	1.495159E+0	1.505121E+0	1.494397E+0	1.480181E+0	1.522297E+0	1.481242E+0	1.540130E+0	1.511909E+0	1.522220E+0	1.513660E+0	1.436804E+0	1.572466E+0	1.543023E+0	1.468408E+0	1.517297E+0	1.560312E+0	1.485407E+0	1.516118E+0	1.498492E+0	1.519403E+0	1.476068E+0	1.542933E+0	1.502730E+0	1.523961E+0	1.547662E+0	1.489141E+0	1.516966E+0	1.532637E+0	1.558416E+0	1.445369E+0	1.511965E+0	1.518469E+0	1.506679E+0	1.468694E+0	1.492176E+0	1.503571E+0	1.526766E+0	1.545043E+0	1.534800E+0	1.443386E+0	1.479104E+0	1.524708E+0	1.491739E+0	1.563704E+0	1.495887E+0	1.503712E+0	1.493310E+0	1.522467E+0	1.526328E+0	1.485175E+0	1.495985E+0	1.510708E+0	1.536915E+0	1.498732E+0	1.466863E+0	1.533858E+0	1.502709E+0	1.473035E+0	1.500603E+0	1.537108E+0	1.522594E+0	1.494008E+0	1.532358E+0	1.504041E+0	1.505269E+0	1.523373E+0	1.517229E+0	1.558912E+0	1.497029E+0	1.506464E+0	1.495975E+0	1.543154E+0	1.500306E+0	1.518957E+0	1.518478E+0	1.540174E+0	1.588732E+0	1.530047E+0	1.491136E+0	1.517769E+0	1.485483E+0	1.517409E+0	1.483917E+0	1.481333E+0	1.468076E+0	1.465688E+0	1.474880E+0	1.480556E+0	1.489580E+0	1.460185E+0	1.526062E+0
5.415140E+2	1.388996E+0	1.263754E+0	1.332780E+0	1.339227E+0	1.306908E+0	1.309453E+0	1.318133E+0	1.331213E+0	1.400950E+0	1.279494E+0	1.306739E+0	1.305189E+0	1.305064E+0	1.352674E+0	1.346611E+0	1.342389E+0	1.336361E+0	1.329956E+0	1.341634E+0	1.328449E+0	1.321872E+0	1.322146E+0	1.336759E+0	1.330429E+0	1.320304E+0	1.325433E+0	1.342163E+0	1.351709E+0	1.378520E+0	1.299819E+0	1.347868E+0	1.330432E+0	1.333290E+0	1.295907E+0	1.349342E+0	1.315719E+0	1.303848E+0	1.365485E+0	1.322915E+0	1.363397E+0	1.367495E+0	1.299612E+0	1.328096E+0	1.332448E+0	1.330533E+0	1.333819E+0	1.341816E+0	1.328135E+0	1.294468E+0	1.309878E+0	1.313971E+0	1.371130E+0	1.279162E+0	1.344975E+0	1.312502E+0	1.364277E+0	1.325531E+0	1.326792E+0	1.332121E+0	1.368844E+0	1.325189E+0	1.337863E+0	1.292391E+0	1.271331E+0	1.344791E+0	1.299651E+0	1.267484E+0	1.289625E+0	1.350337E+0	1.318996E+0	1.311249E+0	1.325129E+0	1.323427E+0	1.322168E+0	1.314781E+0	1.354275E+0	1.286740E+0	1.291655E+0	1.346370E+0	1.326051E+0	1.294343E+0	1.345714E+0	1.331835E+0	1.313812E+0	1.290903E+0	1.366807E+0	1.362546E+0	1.329269E+0	1.383295E+0	1.283340E+0	1.308707E+0	1.372894E+0	1.369937E+0	1.318653E+0	1.359175E+0	1.324417E+0	1.328813E+0	1.358220E+0	1.333784E+0	1.317332E+0	1.326063E+0	1.315833E+0	1.319845E+0	1.306650E+0	1.357808E+0	1.301249E+0	1.327708E+0	1.325678E+0	1.338310E+0	1.334590E+0	1.367839E+0	1.309926E+0	1.240493E+0	1.313971E+0	1.351140E+0	1.222527E+0	1.358030E+0	1.274610E+0	1.399984E+0	1.411616E+0	1.264579E+0	1.257619E+0	1.362570E+0	1.339134E+0	1.258514E+0	1.333793E+0	1.326910E+0	1.304743E+0	1.295045E+0	1.332765E+0	1.359746E+0	1.331576E+0	1.328108E+0	1.295980E+0	1.343656E+0	1.317431E+0	1.250171E+0	1.339828E+0	1.309094E+0	1.324700E+0	1.301208E+0	1.319934E+0	1.347707E+0	1.350957E+0	1.352361E+0	1.363960E+0	1.297397E+0	1.359050E+0	1.280443E+0	1.296201E+0	1.293244E+0	1.345463E+0	1.354974E+0	1.345640E+0	1.283142E+0	1.322192E+0	1.334522E+0	1.309684E+0	1.331483E+0	1.306721E+0	1.348456E+0	1.255261E+0	1.305554E+0	1.321883E+0	1.269014E+0	1.348764E+0	1.340846E+0	1.305682E+0	1.255164E+0	1.247391E+0	1.253054E+0
5.417700E+2	1.170170E+0	1.138184E+0	1.142856E+0	1.134644E+0	1.145428E+0	1.139496E+0	1.108859E+0	1.140160E+0	1.168754E+0	1.124066E+0	1.125433E+0	1.127400E+0	1.105090E+0	1.147098E+0	1.059451E+0	1.117221E+0	1.156763E+0	1.130196E+0	1.131602E+0	1.125865E+0	1.071493E+0	1.154555E+0	1.099913E+0	1.122380E+0	1.168334E+0	1.166480E+0	1.162607E+0	1.153028E+0	1.193802E+0	1.115988E+0	1.130633E+0	1.155644E+0	1.138605E+0	1.103817E+0	1.121688E+0	1.195358E+0	1.136954E+0	1.150552E+0	1.156596E+0	1.127825E+0	1.148679E+0	1.118721E+0	1.134612E+0	1.127386E+0	1.137954E+0	1.131273E+0	1.155440E+0	1.132634E+0	1.091920E+0	1.188677E+0	1.118260E+0	1.152095E+0	1.086017E+0	1.117046E+0	1.130028E+0	1.131685E+0	1.182660E+0	1.148565E+0	1.153976E+0	1.122165E+0	1.145946E+0	1.174485E+0	1.140420E+0	1.187244E+0	1.157695E+0	1.159091E+0	1.161401E+0	1.115980E+0	1.104888E+0	1.156744E+0	1.131857E+0	1.176053E+0	1.107397E+0	1.163898E+0	1.144965E+0	1.173959E+0	1.126246E+0	1.148330E+0	1.164639E+0	1.179024E+0	1.113345E+0	1.127175E+0	1.124276E+0	1.099543E+0	1.098357E+0	1.117310E+0	1.172112E+0	1.172813E+0	1.167030E+0	1.152782E+0	1.088750E+0	1.146256E+0	1.146025E+0	1.114052E+0	1.154633E+0	1.151693E+0	1.141354E+0	1.147864E+0	1.183396E+0	1.147841E+0	1.172619E+0	1.142062E+0	1.131253E+0	1.124793E+0	1.139994E+0	1.145984E+0	1.187521E+0	1.126301E+0	1.193866E+0	1.112154E+0	1.112044E+0	1.130275E+0	1.104016E+0	1.156590E+0	1.139823E+0	1.124608E+0	1.104041E+0	1.125829E+0	1.138419E+0	1.148283E+0	1.143817E+0	1.133092E+0	1.161906E+0	1.126874E+0	1.133601E+0	1.177644E+0	1.114585E+0	1.186001E+0	1.138910E+0	1.126217E+0	1.193336E+0	1.161289E+0	1.129796E+0	1.143755E+0	1.107736E+0	1.179080E+0	1.165544E+0	1.119128E+0	1.128409E+0	1.161858E+0	1.136905E+0	1.140687E+0	1.142708E+0	1.146291E+0	1.159926E+0	1.099560E+0	1.198099E+0	1.136450E+0	1.123232E+0	1.156755E+0	1.127422E+0	1.118703E+0	1.137954E+0	1.185855E+0	1.108101E+0	1.150684E+0	1.131111E+0	1.227167E+0	1.148065E+0	1.144195E+0	1.118204E+0	1.166549E+0	1.195887E+0	1.186558E+0	1.141523E+0	1.091044E+0	1.091281E+0	1.172565E+0	1.138597E+0	1.121147E+0	1.103972E+0
5.420270E+2	1.071811E+0	1.039847E+0	9.622416E-1	9.942579E-1	9.980849E-1	1.025929E+0	9.962406E-1	9.751820E-1	1.035300E+0	1.002425E+0	1.028338E+0	1.021728E+0	1.017169E+0	1.027868E+0	9.821909E-1	9.939507E-1	1.043517E+0	1.031288E+0	1.037193E+0	9.939829E-1	1.022776E+0	1.038024E+0	9.920590E-1	1.015261E+0	9.941336E-1	1.018107E+0	1.009377E+0	1.063156E+0	1.029091E+0	9.987461E-1	1.002739E+0	1.036304E+0	9.933897E-1	9.946564E-1	9.831707E-1	1.009056E+0	1.021580E+0	9.927052E-1	1.018703E+0	1.055636E+0	1.033742E+0	1.055161E+0	9.945330E-1	9.977911E-1	9.964889E-1	1.046480E+0	1.024346E+0	9.995988E-1	1.020483E+0	1.003254E+0	1.025880E+0	1.049015E+0	9.844051E-1	1.007898E+0	1.046390E+0	1.013967E+0	9.853725E-1	1.040253E+0	9.997147E-1	9.883021E-1	1.035938E+0	1.006018E+0	1.044615E+0	1.026652E+0	1.017079E+0	9.965032E-1	1.011437E+0	1.011999E+0	9.638576E-1	1.022270E+0	1.038953E+0	1.033192E+0	9.847929E-1	1.009719E+0	1.016633E+0	1.009239E+0	1.011564E+0	9.901162E-1	1.026500E+0	1.041303E+0	9.715237E-1	9.987300E-1	1.034414E+0	1.019437E+0	9.892178E-1	9.901735E-1	1.006940E+0	9.847208E-1	1.031235E+0	1.022536E+0	9.853828E-1	1.034614E+0	1.021540E+0	9.877704E-1	9.915341E-1	9.942632E-1	9.862615E-1	1.051566E+0	1.053656E+0	1.033093E+0	1.029907E+0	1.016878E+0	1.023875E+0	9.967679E-1	1.045944E+0	1.025431E+0	9.936553E-1	1.009738E+0	1.054812E+0	1.031055E+0	1.025776E+0	9.916908E-1	9.800170E-1	1.014838E+0	1.006227E+0	9.996061E-1	9.979015E-1	1.016358E+0	1.032184E+0	1.039423E+0	1.005280E+0	1.010177E+0	1.059294E+0	1.023761E+0	1.001902E+0	1.037611E+0	1.011530E+0	1.027323E+0	1.035852E+0	1.024946E+0	1.059194E+0	1.015695E+0	9.641862E-1	1.040551E+0	9.890857E-1	1.055493E+0	1.005833E+0	9.991738E-1	1.006269E+0	1.029200E+0	1.020392E+0	1.032690E+0	1.001356E+0	1.004302E+0	1.088028E+0	1.022231E+0	1.012597E+0	1.031211E+0	1.049160E+0	1.004137E+0	9.792663E-1	1.021338E+0	1.045743E+0	1.043645E+0	9.795546E-1	9.772299E-1	1.029132E+0	1.038282E+0	9.954433E-1	1.020257E+0	1.008726E+0	1.003895E+0	1.041674E+0	1.030236E+0	9.714858E-1	1.000647E+0	9.866787E-1	1.002483E+0	1.066521E+0	1.079866E+0	1.107349E+0
5.422780E+2	9.216581E-1	9.713136E-1	8.991759E-1	9.132771E-1	9.677464E-1	9.500541E-1	9.228606E-1	9.560319E-1	8.905235E-1	8.754208E-1	9.401038E-1	9.394693E-1	9.432415E-1	9.796529E-1	9.405446E-1	9.484980E-1	9.519704E-1	9.492676E-1	9.094113E-1	9.534550E-1	9.238767E-1	9.754267E-1	9.534163E-1	9.523361E-1	9.230153E-1	9.831709E-1	9.500555E-1	9.684537E-1	9.386965E-1	9.871422E-1	9.594311E-1	9.664373E-1	9.128208E-1	9.451132E-1	9.202481E-1	9.618044E-1	9.838462E-1	9.304096E-1	9.748064E-1	9.513796E-1	9.448129E-1	9.187905E-1	9.344747E-1	9.229679E-1	9.411731E-1	9.566997E-1	9.525567E-1	9.625427E-1	8.987614E-1	9.691248E-1	9.903629E-1	9.245041E-1	9.399389E-1	9.284037E-1	9.097032E-1	9.476797E-1	9.609173E-1	9.312577E-1	9.537544E-1	9.470094E-1	9.419489E-1	9.615386E-1	9.734398E-1	9.575612E-1	8.888533E-1	9.542196E-1	9.376950E-1	9.385368E-1	9.514560E-1	9.340497E-1	9.829714E-1	9.513087E-1	9.603587E-1	9.549004E-1	9.139011E-1	9.378573E-1	9.757996E-1	9.500435E-1	9.312282E-1	9.501776E-1	9.544203E-1	9.177049E-1	9.522115E-1	9.357359E-1	9.216568E-1	9.211017E-1	9.576114E-1	9.595740E-1	9.679556E-1	9.856194E-1	9.414327E-1	9.580480E-1	9.612462E-1	9.813855E-1	9.445205E-1	9.443973E-1	8.899869E-1	9.539615E-1	9.357887E-1	9.717603E-1	9.554315E-1	9.445615E-1	9.542076E-1	9.646763E-1	1.020587E+0	9.590507E-1	9.551948E-1	9.626443E-1	9.856486E-1	9.387329E-1	9.524585E-1	9.501288E-1	9.158764E-1	9.601902E-1	9.535436E-1	9.857379E-1	9.253298E-1	9.482331E-1	9.431064E-1	9.286136E-1	9.359483E-1	9.501109E-1	9.905290E-1	8.946142E-1	9.882847E-1	9.958059E-1	9.631948E-1	9.618776E-1	9.830739E-1	9.543019E-1	9.550778E-1	9.506104E-1	9.325925E-1	9.330463E-1	9.384223E-1	9.881788E-1	9.443641E-1	9.530449E-1	9.499796E-1	9.593221E-1	1.000053E+0	9.609104E-1	9.844899E-1	9.531990E-1	9.256736E-1	9.733442E-1	9.332259E-1	9.588837E-1	9.207391E-1	9.959320E-1	9.326668E-1	1.033553E+0	9.522087E-1	9.682558E-1	9.601169E-1	9.660296E-1	9.780323E-1	9.807040E-1	9.674818E-1	9.559183E-1	9.535214E-1	1.025713E+0	9.756509E-1	9.584434E-1	9.809282E-1	9.398690E-1	9.274744E-1	9.505727E-1	1.003973E+0	9.826650E-1	9.868327E-1
5.425300E+2	9.872063E-1	9.314571E-1	9.425746E-1	9.972163E-1	9.332109E-1	9.240341E-1	9.569827E-1	9.472373E-1	9.762945E-1	9.993890E-1	9.308509E-1	9.950162E-1	9.442860E-1	9.375619E-1	9.540597E-1	9.462341E-1	9.521744E-1	9.488744E-1	9.348815E-1	9.400635E-1	9.327907E-1	9.602095E-1	9.223103E-1	9.793881E-1	9.102974E-1	9.437639E-1	9.776328E-1	9.736799E-1	9.660131E-1	9.771060E-1	9.353645E-1	9.758027E-1	9.500503E-1	9.127115E-1	9.428825E-1	9.732431E-1	9.584039E-1	9.506196E-1	9.738765E-1	1.001387E+0	9.594408E-1	9.759419E-1	9.646934E-1	9.323055E-1	9.240415E-1	9.646791E-1	9.941726E-1	9.660286E-1	9.518176E-1	9.612058E-1	9.534991E-1	9.585041E-1	9.649735E-1	9.631448E-1	9.395045E-1	9.636708E-1	9.408835E-1	9.292621E-1	9.795685E-1	9.432153E-1	9.456136E-1	1.021401E+0	9.692987E-1	9.716641E-1	9.309127E-1	9.299466E-1	9.256157E-1	9.337617E-1	9.653941E-1	9.666035E-1	9.810201E-1	9.761644E-1	9.551230E-1	9.892978E-1	9.646499E-1	9.901511E-1	9.432896E-1	9.584444E-1	9.674362E-1	9.549471E-1	9.276859E-1	9.654115E-1	9.459111E-1	9.433073E-1	9.544025E-1	9.472921E-1	9.940971E-1	9.458493E-1	9.872322E-1	9.839957E-1	9.668303E-1	9.599096E-1	9.754520E-1	9.132201E-1	9.983641E-1	9.707215E-1	9.552412E-1	9.728608E-1	9.574851E-1	9.793143E-1	9.257864E-1	9.479729E-1	9.730390E-1	9.809481E-1	9.663535E-1	9.852174E-1	9.428464E-1	9.544701E-1	9.407336E-1	9.655842E-1	9.800973E-1	9.615960E-1	9.130532E-1	9.879269E-1	9.885551E-1	9.228763E-1	9.359949E-1	9.534387E-1	9.395118E-1	9.487567E-1	9.451270E-1	9.347951E-1	9.857781E-1	9.539376E-1	9.649381E-1	9.692503E-1	9.616476E-1	9.750156E-1	9.484335E-1	9.639823E-1	9.729711E-1	9.412667E-1	9.847562E-1	9.760548E-1	9.986417E-1	9.712817E-1	9.724645E-1	9.897303E-1	9.539459E-1	9.332552E-1	9.557054E-1	9.711684E-1	9.511259E-1	9.540364E-1	9.763368E-1	9.717277E-1	9.518183E-1	9.145699E-1	9.138385E-1	9.377441E-1	9.811397E-1	9.297433E-1	9.793555E-1	9.667386E-1	9.159856E-1	9.481334E-1	9.781602E-1	9.660755E-1	9.803958E-1	9.562583E-1	9.750827E-1	9.560107E-1	9.985910E-1	9.545701E-1	9.527387E-1	9.451823E-1	9.464042E-1	9.269136E-1	1.022295E+0	9.826300E-1	9.258467E-1
5.427650E+2	1.090850E+0	1.047229E+0	9.759532E-1	9.799126E-1	1.049193E+0	1.016030E+0	1.070652E+0	1.043494E+0	1.054932E+0	9.548952E-1	1.052201E+0	1.042624E+0	1.011890E+0	1.038216E+0	1.043311E+0	1.029118E+0	1.038437E+0	1.064360E+0	1.012028E+0	1.045143E+0	1.051738E+0	1.041778E+0	1.032357E+0	1.045366E+0	1.046507E+0	1.080606E+0	1.050562E+0	1.049352E+0	1.045646E+0	1.017394E+0	1.016940E+0	1.053970E+0	1.069245E+0	1.091078E+0	1.035783E+0	1.047722E+0	1.059601E+0	1.026261E+0	1.049302E+0	1.001049E+0	1.056442E+0	1.043030E+0	1.013004E+0	9.809183E-1	1.008526E+0	1.049254E+0	1.042930E+0	1.046602E+0	1.020028E+0	1.055951E+0	1.040479E+0	1.082848E+0	1.016225E+0	1.012933E+0	1.030854E+0	1.055059E+0	1.025850E+0	1.039495E+0	1.043662E+0	1.007596E+0	1.035119E+0	1.081292E+0	1.028320E+0	1.045013E+0	1.034406E+0	1.034190E+0	1.047106E+0	1.010530E+0	1.053517E+0	1.009315E+0	1.016210E+0	1.020066E+0	1.039337E+0	1.046406E+0	1.032082E+0	1.019462E+0	1.049846E+0	9.947510E-1	1.042768E+0	1.044756E+0	1.025294E+0	1.035107E+0	1.041188E+0	1.033806E+0	1.057532E+0	9.975879E-1	1.081976E+0	1.003709E+0	9.692544E-1	1.087306E+0	1.018192E+0	1.038278E+0	1.020012E+0	1.059455E+0	1.014101E+0	1.044139E+0	1.092966E+0	1.051822E+0	1.004870E+0	1.054751E+0	1.013170E+0	1.011689E+0	1.020046E+0	1.047909E+0	1.010113E+0	1.007601E+0	1.012375E+0	1.091147E+0	1.060774E+0	1.051371E+0	1.022105E+0	1.021298E+0	9.755123E-1	1.006295E+0	1.011580E+0	9.829012E-1	1.052931E+0	9.891129E-1	1.029136E+0	9.843216E-1	1.084558E+0	1.030895E+0	1.020234E+0	1.023440E+0	1.036220E+0	1.055435E+0	1.052145E+0	1.063042E+0	1.068843E+0	1.058353E+0	1.081062E+0	1.050064E+0	1.004882E+0	1.017978E+0	1.027765E+0	1.032536E+0	1.034344E+0	1.035784E+0	1.049542E+0	1.034673E+0	1.026754E+0	1.033978E+0	1.077879E+0	1.082756E+0	1.055964E+0	1.006007E+0	1.039054E+0	1.098099E+0	1.024432E+0	1.034135E+0	1.040533E+0	1.048988E+0	1.058766E+0	1.044026E+0	1.005465E+0	1.067789E+0	1.085211E+0	1.086346E+0	1.049284E+0	1.074675E+0	1.081815E+0	1.021710E+0	1.041533E+0	1.047101E+0	1.035303E+0	1.009462E+0	1.021637E+0	1.028760E+0	1.004839E+0	1.069449E+0	1.042276E+0
5.430070E+2	1.240431E+0	1.211199E+0	1.181794E+0	1.182998E+0	1.200437E+0	1.187886E+0	1.203130E+0	1.222942E+0	1.196296E+0	1.206617E+0	1.182223E+0	1.184290E+0	1.149662E+0	1.182595E+0	1.107273E+0	1.162117E+0	1.264526E+0	1.177154E+0	1.201557E+0	1.176650E+0	1.195983E+0	1.126520E+0	1.193779E+0	1.168878E+0	1.161766E+0	1.184598E+0	1.211747E+0	1.221194E+0	1.213607E+0	1.172057E+0	1.178735E+0	1.188334E+0	1.145644E+0	1.147621E+0	1.165647E+0	1.239166E+0	1.145565E+0	1.164800E+0	1.167676E+0	1.173123E+0	1.176745E+0	1.128647E+0	1.181350E+0	1.174732E+0	1.164928E+0	1.179589E+0	1.187364E+0	1.190550E+0	1.164539E+0	1.226444E+0	1.157165E+0	1.173149E+0	1.157114E+0	1.180484E+0	1.182269E+0	1.168039E+0	1.180509E+0	1.229085E+0	1.174083E+0	1.211187E+0	1.207104E+0	1.229961E+0	1.173615E+0	1.154066E+0	1.177932E+0	1.215368E+0	1.187737E+0	1.183227E+0	1.199401E+0	1.196127E+0	1.162821E+0	1.159162E+0	1.199013E+0	1.220853E+0	1.173680E+0	1.135016E+0	1.208335E+0	1.164567E+0	1.212742E+0	1.142892E+0	1.159258E+0	1.191523E+0	1.195158E+0	1.192922E+0	1.186488E+0	1.189700E+0	1.224039E+0	1.167526E+0	1.230636E+0	1.254677E+0	1.177440E+0	1.163192E+0	1.224782E+0	1.196200E+0	1.210732E+0	1.190318E+0	1.177745E+0	1.228349E+0	1.234300E+0	1.206106E+0	1.124400E+0	1.149703E+0	1.173218E+0	1.168938E+0	1.203847E+0	1.126784E+0	1.156400E+0	1.153121E+0	1.204047E+0	1.216123E+0	1.240751E+0	1.222189E+0	1.145736E+0	1.191657E+0	1.152957E+0	1.138302E+0	1.185610E+0	1.171726E+0	1.165941E+0	1.183625E+0	1.141750E+0	1.204536E+0	1.246013E+0	1.212649E+0	1.172898E+0	1.185435E+0	1.160174E+0	1.207980E+0	1.165917E+0	1.184168E+0	1.201525E+0	1.153873E+0	1.143997E+0	1.154152E+0	1.182652E+0	1.150615E+0	1.164143E+0	1.163738E+0	1.112525E+0	1.219944E+0	1.193721E+0	1.195294E+0	1.152440E+0	1.218989E+0	1.157944E+0	1.164221E+0	1.222051E+0	1.137418E+0	1.200615E+0	1.146603E+0	1.149420E+0	1.178284E+0	1.190237E+0	1.117939E+0	1.128596E+0	1.178101E+0	1.165195E+0	1.239669E+0	1.171971E+0	1.242829E+0	1.247790E+0	1.131678E+0	1.225231E+0	1.155459E+0	1.138777E+0	1.170954E+0	1.173864E+0	1.161882E+0	1.146536E+0	1.209996E+0	1.184619E+0
5.432800E+2	1.415392E+0	1.313811E+0	1.282098E+0	1.350742E+0	1.352143E+0	1.294199E+0	1.313617E+0	1.326175E+0	1.339670E+0	1.323710E+0	1.291256E+0	1.332260E+0	1.297717E+0	1.347100E+0	1.306321E+0	1.372490E+0	1.312328E+0	1.318004E+0	1.293622E+0	1.352151E+0	1.334608E+0	1.327246E+0	1.315229E+0	1.300056E+0	1.302081E+0	1.305031E+0	1.328573E+0	1.331854E+0	1.342377E+0	1.306053E+0	1.343051E+0	1.358706E+0	1.339267E+0	1.288711E+0	1.333571E+0	1.292515E+0	1.323366E+0	1.321048E+0	1.349424E+0	1.323195E+0	1.273354E+0	1.309153E+0	1.304925E+0	1.293702E+0	1.345744E+0	1.356007E+0	1.341961E+0	1.370956E+0	1.300556E+0	1.358564E+0	1.332974E+0	1.371411E+0	1.352216E+0	1.308577E+0	1.366329E+0	1.329398E+0	1.346099E+0	1.353321E+0	1.335328E+0	1.312682E+0	1.325463E+0	1.344304E+0	1.345523E+0	1.313292E+0	1.300061E+0	1.300126E+0	1.323669E+0	1.304494E+0	1.322067E+0	1.288622E+0	1.346081E+0	1.335712E+0	1.302710E+0	1.391308E+0	1.335052E+0	1.309994E+0	1.408865E+0	1.328489E+0	1.320440E+0	1.362621E+0	1.291685E+0	1.352925E+0	1.272668E+0	1.341987E+0	1.341261E+0	1.313592E+0	1.290025E+0	1.342086E+0	1.363125E+0	1.303382E+0	1.357159E+0	1.376336E+0	1.384299E+0	1.344812E+0	1.342367E+0	1.340919E+0	1.304436E+0	1.358158E+0	1.301551E+0	1.324871E+0	1.353906E+0	1.320696E+0	1.292300E+0	1.302964E+0	1.368340E+0	1.357022E+0	1.261746E+0	1.317347E+0	1.356131E+0	1.317028E+0	1.323535E+0	1.367994E+0	1.344640E+0	1.329668E+0	1.281004E+0	1.328725E+0	1.300864E+0	1.326636E+0	1.328195E+0	1.324904E+0	1.319912E+0	1.359115E+0	1.337492E+0	1.306881E+0	1.354540E+0	1.313347E+0	1.292834E+0	1.341680E+0	1.245605E+0	1.329620E+0	1.355430E+0	1.294975E+0	1.254753E+0	1.290392E+0	1.324282E+0	1.329262E+0	1.299789E+0	1.311551E+0	1.286485E+0	1.275249E+0	1.363026E+0	1.290711E+0	1.281751E+0	1.297775E+0	1.361668E+0	1.316374E+0	1.341659E+0	1.312427E+0	1.313243E+0	1.298286E+0	1.395723E+0	1.280866E+0	1.271208E+0	1.280944E+0	1.270713E+0	1.298906E+0	1.377529E+0	1.307228E+0	1.328091E+0	1.354185E+0	1.364812E+0	1.256112E+0	1.327848E+0	1.320132E+0	1.277411E+0	1.313152E+0	1.312055E+0	1.274210E+0	1.357435E+0	1.302028E+0	1.393671E+0
5.435540E+2	1.525855E+0	1.466784E+0	1.430922E+0	1.534865E+0	1.476393E+0	1.516553E+0	1.500208E+0	1.473378E+0	1.504428E+0	1.440608E+0	1.502165E+0	1.509868E+0	1.491251E+0	1.526470E+0	1.498617E+0	1.523929E+0	1.480940E+0	1.470723E+0	1.492570E+0	1.491278E+0	1.467487E+0	1.557368E+0	1.494968E+0	1.481173E+0	1.488746E+0	1.469076E+0	1.527833E+0	1.494703E+0	1.509808E+0	1.467647E+0	1.479053E+0	1.487069E+0	1.490242E+0	1.460437E+0	1.493501E+0	1.463352E+0	1.492559E+0	1.528858E+0	1.448815E+0	1.486201E+0	1.487662E+0	1.527963E+0	1.500866E+0	1.434200E+0	1.528337E+0	1.491854E+0	1.471255E+0	1.529223E+0	1.498643E+0	1.516220E+0	1.486562E+0	1.522180E+0	1.499929E+0	1.490804E+0	1.516842E+0	1.472793E+0	1.494147E+0	1.511879E+0	1.546421E+0	1.450011E+0	1.491464E+0	1.484129E+0	1.525633E+0	1.501482E+0	1.482680E+0	1.498366E+0	1.493006E+0	1.465135E+0	1.530956E+0	1.444936E+0	1.471770E+0	1.431330E+0	1.474686E+0	1.510007E+0	1.462972E+0	1.487494E+0	1.483504E+0	1.513954E+0	1.499908E+0	1.493213E+0	1.484495E+0	1.482247E+0	1.507107E+0	1.488549E+0	1.459044E+0	1.445669E+0	1.499898E+0	1.484321E+0	1.523472E+0	1.507751E+0	1.486321E+0	1.502273E+0	1.507892E+0	1.481622E+0	1.491000E+0	1.454065E+0	1.441408E+0	1.528162E+0	1.465176E+0	1.494377E+0	1.481001E+0	1.458535E+0	1.428364E+0	1.474578E+0	1.605929E+0	1.415769E+0	1.511174E+0	1.451639E+0	1.495463E+0	1.490929E+0	1.548305E+0	1.483847E+0	1.434354E+0	1.455108E+0	1.457300E+0	1.477185E+0	1.519008E+0	1.451399E+0	1.495943E+0	1.438396E+0	1.470993E+0	1.485228E+0	1.529104E+0	1.433105E+0	1.489245E+0	1.459110E+0	1.483006E+0	1.468180E+0	1.479739E+0	1.450281E+0	1.562916E+0	1.491624E+0	1.455653E+0	1.489653E+0	1.446192E+0	1.456732E+0	1.492743E+0	1.468764E+0	1.475755E+0	1.452941E+0	1.475980E+0	1.482511E+0	1.484570E+0	1.452791E+0	1.492774E+0	1.490739E+0	1.501517E+0	1.478646E+0	1.462448E+0	1.460329E+0	1.465115E+0	1.459114E+0	1.486381E+0	1.514500E+0	1.501259E+0	1.456730E+0	1.560988E+0	1.481578E+0	1.458701E+0	1.496928E+0	1.504897E+0	1.437657E+0	1.479973E+0	1.447757E+0	1.485065E+0	1.500632E+0	1.420120E+0	1.482312E+0	1.574107E+0	1.449672E+0	1.580646E+0
5.437590E+2	1.632533E+0	1.551799E+0	1.549255E+0	1.617008E+0	1.541480E+0	1.582331E+0	1.528438E+0	1.583801E+0	1.539502E+0	1.557366E+0	1.520161E+0	1.651910E+0	1.542816E+0	1.557744E+0	1.593766E+0	1.592418E+0	1.539302E+0	1.644464E+0	1.604611E+0	1.559279E+0	1.549941E+0	1.615647E+0	1.606732E+0	1.541859E+0	1.601816E+0	1.543161E+0	1.604012E+0	1.611896E+0	1.547614E+0	1.550407E+0	1.537702E+0	1.541447E+0	1.538120E+0	1.557077E+0	1.578569E+0	1.606850E+0	1.546439E+0	1.570486E+0	1.568178E+0	1.564338E+0	1.574805E+0	1.577610E+0	1.549094E+0	1.547604E+0	1.559050E+0	1.599794E+0	1.573296E+0	1.609498E+0	1.556348E+0	1.595326E+0	1.588843E+0	1.631452E+0	1.556308E+0	1.525724E+0	1.524807E+0	1.595392E+0	1.608451E+0	1.563151E+0	1.562815E+0	1.521946E+0	1.610851E+0	1.661145E+0	1.569313E+0	1.557522E+0	1.514933E+0	1.566780E+0	1.480458E+0	1.571229E+0	1.555737E+0	1.550416E+0	1.630824E+0	1.518667E+0	1.570813E+0	1.579251E+0	1.605677E+0	1.567630E+0	1.516856E+0	1.547875E+0	1.562933E+0	1.556214E+0	1.542580E+0	1.574385E+0	1.545966E+0	1.597903E+0	1.577464E+0	1.532683E+0	1.632624E+0	1.533256E+0	1.607398E+0	1.569815E+0	1.509498E+0	1.528715E+0	1.541417E+0	1.530271E+0	1.512531E+0	1.633496E+0	1.580294E+0	1.604534E+0	1.543687E+0	1.579534E+0	1.564380E+0	1.565038E+0	1.551358E+0	1.470696E+0	1.632524E+0	1.536530E+0	1.561934E+0	1.591391E+0	1.578777E+0	1.566920E+0	1.568699E+0	1.558125E+0	1.570898E+0	1.491697E+0	1.579088E+0	1.512283E+0	1.512262E+0	1.582942E+0	1.531529E+0	1.515546E+0	1.581468E+0	1.533182E+0	1.664670E+0	1.552450E+0	1.510612E+0	1.551785E+0	1.600101E+0	1.556650E+0	1.593629E+0	1.571636E+0	1.613930E+0	1.602144E+0	1.598475E+0	1.515869E+0	1.506633E+0	1.530655E+0	1.516624E+0	1.551428E+0	1.470261E+0	1.507941E+0	1.562694E+0	1.565526E+0	1.505969E+0	1.544285E+0	1.518268E+0	1.562012E+0	1.600962E+0	1.538248E+0	1.535895E+0	1.509780E+0	1.548714E+0	1.523285E+0	1.518519E+0	1.574481E+0	1.421775E+0	1.498661E+0	1.579426E+0	1.541934E+0	1.528067E+0	1.567985E+0	1.541880E+0	1.596670E+0	1.504120E+0	1.483806E+0	1.516867E+0	1.541717E+0	1.546186E+0	1.554551E+0	1.554012E+0	1.533527E+0	1.574395E+0
5.440170E+2	1.642308E+0	1.645483E+0	1.556232E+0	1.616950E+0	1.617546E+0	1.581349E+0	1.640955E+0	1.617357E+0	1.579130E+0	1.609183E+0	1.602975E+0	1.625895E+0	1.598710E+0	1.592361E+0	1.631993E+0	1.566921E+0	1.570882E+0	1.559737E+0	1.630539E+0	1.631421E+0	1.636632E+0	1.583532E+0	1.578935E+0	1.632191E+0	1.561896E+0	1.598958E+0	1.601389E+0	1.611184E+0	1.577608E+0	1.618299E+0	1.621359E+0	1.640808E+0	1.560632E+0	1.598748E+0	1.627102E+0	1.627064E+0	1.610509E+0	1.573927E+0	1.655936E+0	1.640008E+0	1.625442E+0	1.576112E+0	1.596781E+0	1.580027E+0	1.574030E+0	1.660664E+0	1.615558E+0	1.589050E+0	1.612805E+0	1.652236E+0	1.636331E+0	1.617947E+0	1.542303E+0	1.626469E+0	1.611174E+0	1.682631E+0	1.574772E+0	1.624645E+0	1.599746E+0	1.615927E+0	1.569155E+0	1.547516E+0	1.632603E+0	1.590480E+0	1.546274E+0	1.637082E+0	1.605170E+0	1.640369E+0	1.656860E+0	1.599128E+0	1.580491E+0	1.658847E+0	1.609641E+0	1.645377E+0	1.634241E+0	1.576636E+0	1.597146E+0	1.670095E+0	1.592244E+0	1.661766E+0	1.569429E+0	1.583917E+0	1.520574E+0	1.619626E+0	1.606148E+0	1.594288E+0	1.640210E+0	1.578116E+0	1.650036E+0	1.617264E+0	1.584933E+0	1.639404E+0	1.605928E+0	1.602074E+0	1.596141E+0	1.602371E+0	1.605845E+0	1.616079E+0	1.563631E+0	1.592985E+0	1.587033E+0	1.608810E+0	1.605176E+0	1.498815E+0	1.584509E+0	1.549321E+0	1.654534E+0	1.558852E+0	1.573353E+0	1.574239E+0	1.597146E+0	1.599400E+0	1.610974E+0	1.596856E+0	1.581374E+0	1.604979E+0	1.635036E+0	1.579285E+0	1.568798E+0	1.572817E+0	1.640243E+0	1.622811E+0	1.604325E+0	1.532967E+0	1.630979E+0	1.589155E+0	1.561188E+0	1.587192E+0	1.596374E+0	1.554230E+0	1.589262E+0	1.610362E+0	1.584012E+0	1.606806E+0	1.576096E+0	1.558242E+0	1.579711E+0	1.623891E+0	1.533714E+0	1.593945E+0	1.654976E+0	1.559396E+0	1.601003E+0	1.602580E+0	1.618097E+0	1.546679E+0	1.620559E+0	1.614287E+0	1.549493E+0	1.599184E+0	1.576923E+0	1.578384E+0	1.576738E+0	1.546803E+0	1.590514E+0	1.521578E+0	1.610285E+0	1.643502E+0	1.580983E+0	1.565369E+0	1.531144E+0	1.564107E+0	1.619933E+0	1.585716E+0	1.632379E+0	1.595376E+0	1.559089E+0	1.538420E+0	1.629010E+0	1.537729E+0	1.667184E+0
5.442700E+2	1.677815E+0	1.558201E+0	1.561365E+0	1.541711E+0	1.579043E+0	1.537236E+0	1.558788E+0	1.610290E+0	1.623084E+0	1.589854E+0	1.578298E+0	1.612884E+0	1.568898E+0	1.527019E+0	1.550610E+0	1.617173E+0	1.624484E+0	1.608568E+0	1.655647E+0	1.561647E+0	1.601802E+0	1.581700E+0	1.580395E+0	1.581509E+0	1.543687E+0	1.592599E+0	1.620032E+0	1.588078E+0	1.573032E+0	1.568646E+0	1.587360E+0	1.620922E+0	1.557712E+0	1.582456E+0	1.595286E+0	1.579166E+0	1.535498E+0	1.579482E+0	1.595515E+0	1.565762E+0	1.588766E+0	1.567450E+0	1.624979E+0	1.536839E+0	1.547633E+0	1.646764E+0	1.564178E+0	1.612912E+0	1.533696E+0	1.649408E+0	1.609525E+0	1.573432E+0	1.612825E+0	1.563514E+0	1.564095E+0	1.559262E+0	1.539064E+0	1.564037E+0	1.607734E+0	1.579170E+0	1.560660E+0	1.625251E+0	1.569141E+0	1.564453E+0	1.498826E+0	1.582714E+0	1.545148E+0	1.548013E+0	1.543046E+0	1.549833E+0	1.556949E+0	1.526929E+0	1.571542E+0	1.579552E+0	1.578423E+0	1.542619E+0	1.526457E+0	1.590839E+0	1.568670E+0	1.587268E+0	1.550198E+0	1.569619E+0	1.538532E+0	1.540781E+0	1.521928E+0	1.543828E+0	1.578866E+0	1.546155E+0	1.602394E+0	1.611915E+0	1.570161E+0	1.570705E+0	1.573021E+0	1.624281E+0	1.526092E+0	1.580807E+0	1.559089E+0	1.531074E+0	1.505694E+0	1.625213E+0	1.549991E+0	1.558341E+0	1.566438E+0	1.494654E+0	1.600281E+0	1.545559E+0	1.587336E+0	1.530902E+0	1.515566E+0	1.569629E+0	1.591661E+0	1.568633E+0	1.504684E+0	1.549648E+0	1.512303E+0	1.564129E+0	1.564192E+0	1.518817E+0	1.533866E+0	1.555103E+0	1.528049E+0	1.543407E+0	1.596397E+0	1.542739E+0	1.582070E+0	1.585757E+0	1.569918E+0	1.628190E+0	1.593925E+0	1.524137E+0	1.548568E+0	1.624365E+0	1.563332E+0	1.590442E+0	1.500384E+0	1.616621E+0	1.495545E+0	1.564279E+0	1.537891E+0	1.563793E+0	1.602636E+0	1.573780E+0	1.497786E+0	1.620079E+0	1.561344E+0	1.605079E+0	1.581019E+0	1.566727E+0	1.509239E+0	1.561721E+0	1.523076E+0	1.546483E+0	1.543643E+0	1.604046E+0	1.531220E+0	1.556717E+0	1.538262E+0	1.522942E+0	1.550413E+0	1.571740E+0	1.524640E+0	1.551306E+0	1.565539E+0	1.532786E+0	1.568693E+0	1.553567E+0	1.556367E+0	1.526380E+0	1.646745E+0	1.546213E+0	1.530372E+0
5.445290E+2	1.564317E+0	1.499823E+0	1.478845E+0	1.561542E+0	1.463183E+0	1.526665E+0	1.519771E+0	1.552494E+0	1.516688E+0	1.528631E+0	1.487525E+0	1.475553E+0	1.453849E+0	1.547145E+0	1.514006E+0	1.530861E+0	1.532434E+0	1.535255E+0	1.518901E+0	1.533572E+0	1.468234E+0	1.489076E+0	1.503286E+0	1.538789E+0	1.479854E+0	1.528859E+0	1.482237E+0	1.550496E+0	1.505274E+0	1.509237E+0	1.466026E+0	1.528030E+0	1.465227E+0	1.474314E+0	1.504938E+0	1.536326E+0	1.492812E+0	1.592960E+0	1.532725E+0	1.546014E+0	1.490090E+0	1.451055E+0	1.535641E+0	1.470540E+0	1.550177E+0	1.510723E+0	1.559414E+0	1.540932E+0	1.457698E+0	1.546270E+0	1.519230E+0	1.518696E+0	1.477911E+0	1.442006E+0	1.522276E+0	1.492572E+0	1.499741E+0	1.501309E+0	1.488207E+0	1.504832E+0	1.494221E+0	1.489326E+0	1.515355E+0	1.490360E+0	1.464000E+0	1.581894E+0	1.499763E+0	1.469800E+0	1.471509E+0	1.506604E+0	1.532339E+0	1.476275E+0	1.517104E+0	1.587562E+0	1.527049E+0	1.475162E+0	1.461259E+0	1.517517E+0	1.528901E+0	1.525993E+0	1.484387E+0	1.486798E+0	1.548221E+0	1.500043E+0	1.514476E+0	1.488502E+0	1.509213E+0	1.507424E+0	1.468994E+0	1.511331E+0	1.460251E+0	1.538651E+0	1.446975E+0	1.521822E+0	1.546180E+0	1.549868E+0	1.480524E+0	1.522603E+0	1.488429E+0	1.540514E+0	1.506180E+0	1.481447E+0	1.483810E+0	1.447538E+0	1.520390E+0	1.438227E+0	1.468123E+0	1.493225E+0	1.476698E+0	1.507497E+0	1.542574E+0	1.496488E+0	1.498127E+0	1.517580E+0	1.480538E+0	1.463536E+0	1.513131E+0	1.467939E+0	1.487868E+0	1.505781E+0	1.499054E+0	1.533185E+0	1.530772E+0	1.446399E+0	1.473651E+0	1.523941E+0	1.471799E+0	1.563144E+0	1.516784E+0	1.543463E+0	1.554367E+0	1.553511E+0	1.436783E+0	1.518664E+0	1.503949E+0	1.494810E+0	1.494366E+0	1.517210E+0	1.500663E+0	1.503209E+0	1.533959E+0	1.443050E+0	1.474951E+0	1.469542E+0	1.488919E+0	1.492495E+0	1.477193E+0	1.498537E+0	1.488714E+0	1.532311E+0	1.536097E+0	1.502019E+0	1.479196E+0	1.515933E+0	1.509492E+0	1.497157E+0	1.538633E+0	1.508309E+0	1.513436E+0	1.464686E+0	1.482945E+0	1.469056E+0	1.482851E+0	1.454965E+0	1.510352E+0	1.501374E+0	1.475558E+0	1.504196E+0	1.488430E+0	1.507632E+0	1.557171E+0
5.447720E+2	1.468899E+0	1.428736E+0	1.432586E+0	1.472662E+0	1.432102E+0	1.460420E+0	1.405829E+0	1.441465E+0	1.376726E+0	1.458347E+0	1.426196E+0	1.463144E+0	1.453119E+0	1.454116E+0	1.457963E+0	1.459498E+0	1.434611E+0	1.439791E+0	1.493336E+0	1.420658E+0	1.435251E+0	1.449012E+0	1.417258E+0	1.447703E+0	1.381189E+0	1.431969E+0	1.473402E+0	1.464528E+0	1.441381E+0	1.405573E+0	1.406726E+0	1.427242E+0	1.406212E+0	1.429006E+0	1.463700E+0	1.410149E+0	1.402323E+0	1.434919E+0	1.409511E+0	1.480953E+0	1.384560E+0	1.385263E+0	1.408222E+0	1.360054E+0	1.441011E+0	1.455961E+0	1.417266E+0	1.472616E+0	1.407419E+0	1.470748E+0	1.402493E+0	1.378815E+0	1.411843E+0	1.430130E+0	1.416083E+0	1.477211E+0	1.450373E+0	1.483464E+0	1.433309E+0	1.409966E+0	1.431494E+0	1.442398E+0	1.445284E+0	1.425921E+0	1.389894E+0	1.425871E+0	1.425373E+0	1.448418E+0	1.458495E+0	1.394964E+0	1.403937E+0	1.411917E+0	1.403046E+0	1.445818E+0	1.390850E+0	1.448672E+0	1.450775E+0	1.433371E+0	1.418794E+0	1.416922E+0	1.396299E+0	1.454006E+0	1.395420E+0	1.472697E+0	1.396179E+0	1.426730E+0	1.453591E+0	1.419399E+0	1.416632E+0	1.434703E+0	1.409150E+0	1.387831E+0	1.441521E+0	1.442162E+0	1.447712E+0	1.451581E+0	1.397925E+0	1.459235E+0	1.509273E+0	1.392795E+0	1.444824E+0	1.455352E+0	1.403489E+0	1.368422E+0	1.461523E+0	1.454223E+0	1.449826E+0	1.429893E+0	1.398870E+0	1.421559E+0	1.417447E+0	1.425127E+0	1.395336E+0	1.405904E+0	1.346640E+0	1.375972E+0	1.460417E+0	1.415066E+0	1.377397E+0	1.349693E+0	1.441111E+0	1.496294E+0	1.471730E+0	1.407314E+0	1.393622E+0	1.445251E+0	1.407535E+0	1.393724E+0	1.376679E+0	1.439005E+0	1.406133E+0	1.457719E+0	1.376339E+0	1.435077E+0	1.403289E+0	1.455909E+0	1.388360E+0	1.418436E+0	1.355821E+0	1.461412E+0	1.420585E+0	1.421284E+0	1.432487E+0	1.436702E+0	1.445786E+0	1.477786E+0	1.412144E+0	1.430495E+0	1.373911E+0	1.377155E+0	1.392671E+0	1.404964E+0	1.416238E+0	1.455513E+0	1.414061E+0	1.457749E+0	1.406639E+0	1.452210E+0	1.418270E+0	1.385877E+0	1.420847E+0	1.467222E+0	1.394172E+0	1.404247E+0	1.395037E+0	1.382847E+0	1.387738E+0	1.370327E+0	1.401672E+0	1.450663E+0	1.436129E+0
5.450150E+2	1.413181E+0	1.299182E+0	1.368546E+0	1.334908E+0	1.338059E+0	1.332170E+0	1.346088E+0	1.344838E+0	1.321612E+0	1.420292E+0	1.324170E+0	1.363026E+0	1.315276E+0	1.368322E+0	1.316790E+0	1.404230E+0	1.314092E+0	1.369587E+0	1.333134E+0	1.352573E+0	1.365753E+0	1.338851E+0	1.390439E+0	1.364593E+0	1.341995E+0	1.353168E+0	1.350223E+0	1.365750E+0	1.315442E+0	1.326726E+0	1.360460E+0	1.351108E+0	1.327353E+0	1.341148E+0	1.365979E+0	1.322699E+0	1.347818E+0	1.366406E+0	1.395474E+0	1.335498E+0	1.334056E+0	1.338270E+0	1.339773E+0	1.296953E+0	1.339555E+0	1.374187E+0	1.308601E+0	1.369428E+0	1.326443E+0	1.378166E+0	1.367959E+0	1.376582E+0	1.344348E+0	1.336724E+0	1.343587E+0	1.393041E+0	1.375686E+0	1.335963E+0	1.364094E+0	1.305595E+0	1.319508E+0	1.403097E+0	1.454504E+0	1.354714E+0	1.360864E+0	1.381354E+0	1.319664E+0	1.363829E+0	1.378883E+0	1.334150E+0	1.371314E+0	1.394216E+0	1.337798E+0	1.434446E+0	1.340929E+0	1.323885E+0	1.366140E+0	1.385393E+0	1.348453E+0	1.368623E+0	1.351791E+0	1.361902E+0	1.344199E+0	1.372161E+0	1.333064E+0	1.335705E+0	1.355391E+0	1.363925E+0	1.348270E+0	1.352689E+0	1.328929E+0	1.341778E+0	1.351689E+0	1.359562E+0	1.367669E+0	1.425822E+0	1.324966E+0	1.349015E+0	1.288205E+0	1.355116E+0	1.300129E+0	1.358197E+0	1.349114E+0	1.310590E+0	1.421036E+0	1.318763E+0	1.363336E+0	1.369820E+0	1.333567E+0	1.391823E+0	1.367332E+0	1.367885E+0	1.314443E+0	1.341809E+0	1.322303E+0	1.323985E+0	1.329508E+0	1.337769E+0	1.309250E+0	1.361243E+0	1.308883E+0	1.303415E+0	1.355883E+0	1.350580E+0	1.346911E+0	1.361072E+0	1.341145E+0	1.353036E+0	1.313870E+0	1.318721E+0	1.372045E+0	1.323397E+0	1.345011E+0	1.386517E+0	1.331832E+0	1.329783E+0	1.298583E+0	1.372830E+0	1.287251E+0	1.351005E+0	1.329263E+0	1.330146E+0	1.340807E+0	1.319703E+0	1.314920E+0	1.384928E+0	1.344346E+0	1.369945E+0	1.332620E+0	1.369302E+0	1.342997E+0	1.297168E+0	1.357682E+0	1.308795E+0	1.301317E+0	1.332002E+0	1.370297E+0	1.352679E+0	1.327526E+0	1.346585E+0	1.319082E+0	1.356379E+0	1.393336E+0	1.346684E+0	1.275932E+0	1.311606E+0	1.343255E+0	1.349090E+0	1.326509E+0	1.264142E+0	1.461391E+0
5.452690E+2	1.316573E+0	1.313691E+0	1.329236E+0	1.298494E+0	1.314013E+0	1.300156E+0	1.342963E+0	1.270464E+0	1.243886E+0	1.299904E+0	1.287661E+0	1.334402E+0	1.284143E+0	1.317283E+0	1.297869E+0	1.318507E+0	1.287421E+0	1.332858E+0	1.293641E+0	1.316962E+0	1.302396E+0	1.316206E+0	1.313095E+0	1.303610E+0	1.272701E+0	1.311752E+0	1.290033E+0	1.365080E+0	1.297638E+0	1.282083E+0	1.263885E+0	1.302552E+0	1.237346E+0	1.296506E+0	1.299944E+0	1.320999E+0	1.348995E+0	1.265745E+0	1.286189E+0	1.286195E+0	1.267526E+0	1.290044E+0	1.348279E+0	1.268743E+0	1.348570E+0	1.261821E+0	1.300397E+0	1.329375E+0	1.256737E+0	1.388622E+0	1.265608E+0	1.303059E+0	1.277018E+0	1.318777E+0	1.294234E+0	1.335301E+0	1.281045E+0	1.347237E+0	1.257506E+0	1.266971E+0	1.317351E+0	1.334501E+0	1.305492E+0	1.277150E+0	1.324093E+0	1.312429E+0	1.291126E+0	1.371117E+0	1.336678E+0	1.283009E+0	1.271908E+0	1.283009E+0	1.280974E+0	1.348482E+0	1.310849E+0	1.288687E+0	1.320229E+0	1.265240E+0	1.305092E+0	1.291424E+0	1.286686E+0	1.260235E+0	1.336038E+0	1.303527E+0	1.338966E+0	1.306624E+0	1.292332E+0	1.348180E+0	1.250814E+0	1.312435E+0	1.301928E+0	1.366455E+0	1.311202E+0	1.311921E+0	1.300931E+0	1.326893E+0	1.293966E+0	1.316001E+0	1.296759E+0	1.288109E+0	1.322958E+0	1.316407E+0	1.257358E+0	1.272361E+0	1.303356E+0	1.287466E+0	1.290205E+0	1.287401E+0	1.286829E+0	1.304680E+0	1.260212E+0	1.323849E+0	1.299501E+0	1.321601E+0	1.240335E+0	1.297468E+0	1.296644E+0	1.272976E+0	1.309743E+0	1.284876E+0	1.335960E+0	1.319313E+0	1.349626E+0	1.308780E+0	1.273883E+0	1.257966E+0	1.318676E+0	1.282244E+0	1.276785E+0	1.363274E+0	1.316553E+0	1.348264E+0	1.302386E+0	1.316197E+0	1.305082E+0	1.335108E+0	1.267982E+0	1.286371E+0	1.226890E+0	1.322734E+0	1.302554E+0	1.300088E+0	1.256606E+0	1.284535E+0	1.313000E+0	1.274063E+0	1.306606E+0	1.325635E+0	1.267109E+0	1.273965E+0	1.301685E+0	1.271206E+0	1.290614E+0	1.338326E+0	1.308333E+0	1.310048E+0	1.316878E+0	1.311744E+0	1.311073E+0	1.280460E+0	1.336296E+0	1.284640E+0	1.340286E+0	1.282949E+0	1.260747E+0	1.267897E+0	1.300138E+0	1.254978E+0	1.297844E+0	1.422330E+0	1.223037E+0
5.455450E+2	1.275890E+0	1.282049E+0	1.225146E+0	1.247051E+0	1.247717E+0	1.207048E+0	1.270897E+0	1.239932E+0	1.268820E+0	1.229747E+0	1.281960E+0	1.242582E+0	1.228579E+0	1.274729E+0	1.243725E+0	1.235039E+0	1.272234E+0	1.286448E+0	1.247339E+0	1.265393E+0	1.266355E+0	1.228985E+0	1.256257E+0	1.239034E+0	1.228978E+0	1.286327E+0	1.304279E+0	1.234556E+0	1.210566E+0	1.230491E+0	1.236394E+0	1.274896E+0	1.167067E+0	1.208524E+0	1.251440E+0	1.245420E+0	1.222761E+0	1.298369E+0	1.248819E+0	1.270438E+0	1.261744E+0	1.243130E+0	1.266521E+0	1.280008E+0	1.229473E+0	1.223344E+0	1.229444E+0	1.291438E+0	1.250964E+0	1.265121E+0	1.265305E+0	1.243987E+0	1.261875E+0	1.199556E+0	1.215315E+0	1.233325E+0	1.248005E+0	1.205202E+0	1.223530E+0	1.216656E+0	1.243521E+0	1.280403E+0	1.217667E+0	1.223872E+0	1.227020E+0	1.229288E+0	1.204959E+0	1.189482E+0	1.262975E+0	1.216479E+0	1.253259E+0	1.226203E+0	1.232706E+0	1.208808E+0	1.261641E+0	1.203467E+0	1.224673E+0	1.227636E+0	1.272533E+0	1.256822E+0	1.208654E+0	1.214129E+0	1.227272E+0	1.276857E+0	1.198439E+0	1.224648E+0	1.257507E+0	1.231763E+0	1.264271E+0	1.247939E+0	1.168611E+0	1.315047E+0	1.233090E+0	1.246378E+0	1.254751E+0	1.235868E+0	1.221255E+0	1.291650E+0	1.215258E+0	1.248139E+0	1.238172E+0	1.184507E+0	1.246710E+0	1.267746E+0	1.245984E+0	1.227376E+0	1.223003E+0	1.240799E+0	1.197165E+0	1.225744E+0	1.251951E+0	1.232490E+0	1.220559E+0	1.212771E+0	1.196697E+0	1.252265E+0	1.290496E+0	1.252903E+0	1.191307E+0	1.200815E+0	1.214330E+0	1.263143E+0	1.250948E+0	1.253328E+0	1.225094E+0	1.258277E+0	1.214716E+0	1.260154E+0	1.260751E+0	1.319653E+0	1.262345E+0	1.255002E+0	1.156625E+0	1.269014E+0	1.218506E+0	1.244965E+0	1.230714E+0	1.234424E+0	1.277033E+0	1.250693E+0	1.268605E+0	1.226770E+0	1.258045E+0	1.254319E+0	1.234357E+0	1.243123E+0	1.223819E+0	1.239212E+0	1.217846E+0	1.242261E+0	1.217669E+0	1.222619E+0	1.251001E+0	1.323377E+0	1.206722E+0	1.215944E+0	1.209225E+0	1.264764E+0	1.272719E+0	1.249661E+0	1.173924E+0	1.231632E+0	1.229063E+0	1.260395E+0	1.195201E+0	1.206487E+0	1.260862E+0	1.219872E+0	1.156237E+0	1.229899E+0	1.167320E+0
5.457780E+2	1.196750E+0	1.169554E+0	1.157819E+0	1.185322E+0	1.198118E+0	1.152709E+0	1.193142E+0	1.195721E+0	1.201940E+0	1.121924E+0	1.152514E+0	1.201636E+0	1.162419E+0	1.183194E+0	1.167430E+0	1.183362E+0	1.185504E+0	1.165297E+0	1.202585E+0	1.172449E+0	1.208650E+0	1.151340E+0	1.195690E+0	1.223003E+0	1.157891E+0	1.191853E+0	1.163924E+0	1.192172E+0	1.216626E+0	1.166998E+0	1.163100E+0	1.181453E+0	1.100639E+0	1.164589E+0	1.206354E+0	1.189465E+0	1.207129E+0	1.183452E+0	1.190457E+0	1.191958E+0	1.145280E+0	1.162869E+0	1.193054E+0	1.219797E+0	1.151658E+0	1.214425E+0	1.208610E+0	1.199645E+0	1.157597E+0	1.177411E+0	1.206513E+0	1.192826E+0	1.174033E+0	1.178115E+0	1.170123E+0	1.152306E+0	1.199606E+0	1.132870E+0	1.223638E+0	1.203867E+0	1.163031E+0	1.172606E+0	1.176882E+0	1.180762E+0	1.195980E+0	1.192865E+0	1.147857E+0	1.144977E+0	1.156031E+0	1.159653E+0	1.170758E+0	1.124834E+0	1.203568E+0	1.198127E+0	1.159408E+0	1.222598E+0	1.165896E+0	1.212200E+0	1.213465E+0	1.183212E+0	1.126391E+0	1.123378E+0	1.195398E+0	1.177508E+0	1.185907E+0	1.187878E+0	1.237663E+0	1.180456E+0	1.176023E+0	1.183059E+0	1.189923E+0	1.175471E+0	1.194030E+0	1.154756E+0	1.223142E+0	1.173049E+0	1.095230E+0	1.200290E+0	1.154298E+0	1.185407E+0	1.158133E+0	1.187340E+0	1.171397E+0	1.192142E+0	1.140017E+0	1.155144E+0	1.190975E+0	1.207138E+0	1.163974E+0	1.163461E+0	1.237295E+0	1.159791E+0	1.142604E+0	1.207444E+0	1.183004E+0	1.161172E+0	1.196497E+0	1.170400E+0	1.190045E+0	1.176021E+0	1.160533E+0	1.141628E+0	1.212722E+0	1.207948E+0	1.149451E+0	1.219118E+0	1.179188E+0	1.174637E+0	1.150302E+0	1.173363E+0	1.194088E+0	1.155563E+0	1.159567E+0	1.148569E+0	1.138682E+0	1.151042E+0	1.108922E+0	1.120641E+0	1.135801E+0	1.179411E+0	1.185382E+0	1.198885E+0	1.210665E+0	1.163774E+0	1.133496E+0	1.216480E+0	1.186093E+0	1.195219E+0	1.140654E+0	1.163546E+0	1.147331E+0	1.161661E+0	1.166076E+0	1.231574E+0	1.168007E+0	1.215415E+0	1.194661E+0	1.215553E+0	1.206893E+0	1.186817E+0	1.154411E+0	1.183117E+0	1.143826E+0	1.165347E+0	1.117785E+0	1.149309E+0	1.196407E+0	1.181632E+0	1.195246E+0	1.213876E+0	1.226587E+0
5.460220E+2	1.199013E+0	1.165865E+0	1.156596E+0	1.169132E+0	1.158415E+0	1.146024E+0	1.158936E+0	1.123136E+0	1.204291E+0	1.106109E+0	1.134644E+0	1.162156E+0	1.139837E+0	1.162008E+0	1.126628E+0	1.186819E+0	1.210618E+0	1.145146E+0	1.141509E+0	1.147886E+0	1.130832E+0	1.161494E+0	1.146431E+0	1.175499E+0	1.109765E+0	1.183539E+0	1.180793E+0	1.184139E+0	1.150141E+0	1.149058E+0	1.112182E+0	1.159519E+0	1.103074E+0	1.125661E+0	1.132531E+0	1.193603E+0	1.125759E+0	1.118689E+0	1.162809E+0	1.130433E+0	1.167714E+0	1.132092E+0	1.124120E+0	1.176165E+0	1.170438E+0	1.142346E+0	1.179099E+0	1.178796E+0	1.123047E+0	1.160292E+0	1.177077E+0	1.146144E+0	1.158059E+0	1.137599E+0	1.158859E+0	1.157920E+0	1.150310E+0	1.158287E+0	1.181852E+0	1.149610E+0	1.160778E+0	1.163243E+0	1.150685E+0	1.141694E+0	1.128813E+0	1.137066E+0	1.120006E+0	1.148519E+0	1.201259E+0	1.164056E+0	1.180129E+0	1.146797E+0	1.174445E+0	1.155065E+0	1.161401E+0	1.213986E+0	1.141591E+0	1.160703E+0	1.211783E+0	1.190888E+0	1.157843E+0	1.136108E+0	1.163557E+0	1.124863E+0	1.173419E+0	1.140545E+0	1.183511E+0	1.161832E+0	1.163912E+0	1.168096E+0	1.145900E+0	1.154400E+0	1.142309E+0	1.119091E+0	1.191394E+0	1.224525E+0	1.133548E+0	1.206753E+0	1.163534E+0	1.194102E+0	1.150668E+0	1.146336E+0	1.177698E+0	1.121793E+0	1.206976E+0	1.143672E+0	1.147176E+0	1.201869E+0	1.143176E+0	1.126687E+0	1.224350E+0	1.136401E+0	1.137939E+0	1.159077E+0	1.125850E+0	1.143159E+0	1.134305E+0	1.171695E+0	1.188273E+0	1.174793E+0	1.185406E+0	1.163475E+0	1.187968E+0	1.107132E+0	1.144324E+0	1.196150E+0	1.157744E+0	1.202809E+0	1.157476E+0	1.150109E+0	1.122213E+0	1.182852E+0	1.171234E+0	1.166581E+0	1.170477E+0	1.205537E+0	1.126726E+0	1.176430E+0	1.174389E+0	1.158096E+0	1.164248E+0	1.134699E+0	1.202988E+0	1.174651E+0	1.186931E+0	1.151136E+0	1.154875E+0	1.205034E+0	1.092153E+0	1.165695E+0	1.151679E+0	1.150280E+0	1.166348E+0	1.205140E+0	1.112545E+0	1.152711E+0	1.140007E+0	1.129496E+0	1.183219E+0	1.162053E+0	1.140281E+0	1.202430E+0	1.175128E+0	1.163345E+0	1.176771E+0	1.162602E+0	1.122993E+0	1.107409E+0	1.186970E+0	1.190461E+0	1.183310E+0
5.467710E+2	1.291192E+0	1.230772E+0	1.205802E+0	1.248642E+0	1.246504E+0	1.221306E+0	1.199106E+0	1.240909E+0	1.229561E+0	1.225058E+0	1.213139E+0	1.221327E+0	1.200826E+0	1.211943E+0	1.291937E+0	1.239531E+0	1.188344E+0	1.262100E+0	1.203708E+0	1.247544E+0	1.220840E+0	1.225668E+0	1.245628E+0	1.224937E+0	1.240819E+0	1.157849E+0	1.250332E+0	1.265513E+0	1.224552E+0	1.233968E+0	1.224394E+0	1.190848E+0	1.215051E+0	1.213775E+0	1.271119E+0	1.222689E+0	1.218505E+0	1.202340E+0	1.211239E+0	1.237665E+0	1.177530E+0	1.210157E+0	1.244733E+0	1.277308E+0	1.217895E+0	1.197435E+0	1.277588E+0	1.274035E+0	1.191445E+0	1.209048E+0	1.217112E+0	1.235753E+0	1.210302E+0	1.208882E+0	1.255156E+0	1.231819E+0	1.215839E+0	1.272102E+0	1.286632E+0	1.244652E+0	1.240655E+0	1.241821E+0	1.245956E+0	1.197649E+0	1.245169E+0	1.223669E+0	1.259785E+0	1.216191E+0	1.258562E+0	1.235412E+0	1.234699E+0	1.255722E+0	1.215454E+0	1.288867E+0	1.226632E+0	1.248981E+0	1.241780E+0	1.235406E+0	1.244510E+0	1.173952E+0	1.212418E+0	1.215818E+0	1.188030E+0	1.248646E+0	1.215301E+0	1.207099E+0	1.276766E+0	1.285868E+0	1.251519E+0	1.205840E+0	1.229349E+0	1.240468E+0	1.214640E+0	1.240130E+0	1.248445E+0	1.257505E+0	1.226476E+0	1.197002E+0	1.249872E+0	1.216838E+0	1.222067E+0	1.229514E+0	1.243954E+0	1.209980E+0	1.253194E+0	1.204665E+0	1.278153E+0	1.266245E+0	1.233901E+0	1.193554E+0	1.253513E+0	1.240126E+0	1.214366E+0	1.195056E+0	1.234994E+0	1.195951E+0	1.289116E+0	1.243870E+0	1.241541E+0	1.208409E+0	1.262019E+0	1.269392E+0	1.274666E+0	1.175427E+0	1.204979E+0	1.221374E+0	1.243989E+0	1.241617E+0	1.197836E+0	1.224068E+0	1.275057E+0	1.283027E+0	1.245508E+0	1.258942E+0	1.239941E+0	1.217303E+0	1.225921E+0	1.206984E+0	1.253025E+0	1.211414E+0	1.237848E+0	1.203974E+0	1.267687E+0	1.252843E+0	1.286020E+0	1.221125E+0	1.181230E+0	1.258936E+0	1.208226E+0	1.184045E+0	1.234185E+0	1.227861E+0	1.233173E+0	1.260516E+0	1.243944E+0	1.175806E+0	1.262290E+0	1.262802E+0	1.245247E+0	1.251318E+0	1.189621E+0	1.255677E+0	1.254053E+0	1.214278E+0	1.246318E+0	1.198519E+0	1.246658E+0	1.268834E+0	1.232521E+0	1.186100E+0	1.282226E+0
5.475120E+2	1.453374E+0	1.362671E+0	1.316870E+0	1.360149E+0	1.411650E+0	1.381820E+0	1.341498E+0	1.351120E+0	1.362333E+0	1.332381E+0	1.429192E+0	1.389904E+0	1.365289E+0	1.351608E+0	1.356952E+0	1.368128E+0	1.343245E+0	1.417523E+0	1.317358E+0	1.371728E+0	1.366233E+0	1.366963E+0	1.387474E+0	1.359645E+0	1.321672E+0	1.331168E+0	1.349385E+0	1.383820E+0	1.340436E+0	1.385108E+0	1.394529E+0	1.401131E+0	1.340105E+0	1.355469E+0	1.424200E+0	1.313552E+0	1.330897E+0	1.365248E+0	1.381156E+0	1.368099E+0	1.335814E+0	1.343873E+0	1.454390E+0	1.369964E+0	1.431395E+0	1.348807E+0	1.388465E+0	1.386560E+0	1.301984E+0	1.362920E+0	1.374039E+0	1.399498E+0	1.370542E+0	1.356782E+0	1.397926E+0	1.375497E+0	1.342906E+0	1.366002E+0	1.408707E+0	1.352321E+0	1.367695E+0	1.314511E+0	1.290090E+0	1.406982E+0	1.342902E+0	1.354379E+0	1.341760E+0	1.332715E+0	1.377265E+0	1.339006E+0	1.330627E+0	1.336236E+0	1.339658E+0	1.405025E+0	1.392634E+0	1.359434E+0	1.380016E+0	1.356488E+0	1.367821E+0	1.386376E+0	1.375262E+0	1.325506E+0	1.385918E+0	1.391837E+0	1.335263E+0	1.391295E+0	1.368084E+0	1.358390E+0	1.391234E+0	1.339970E+0	1.331562E+0	1.372197E+0	1.360902E+0	1.361326E+0	1.427087E+0	1.326725E+0	1.382415E+0	1.359898E+0	1.352937E+0	1.391306E+0	1.304506E+0	1.369597E+0	1.361940E+0	1.335632E+0	1.402404E+0	1.320185E+0	1.340450E+0	1.361461E+0	1.363688E+0	1.368500E+0	1.380518E+0	1.372122E+0	1.330366E+0	1.365221E+0	1.286296E+0	1.338450E+0	1.375497E+0	1.344664E+0	1.347314E+0	1.363977E+0	1.336433E+0	1.311403E+0	1.372780E+0	1.358361E+0	1.376613E+0	1.305287E+0	1.325782E+0	1.418462E+0	1.390374E+0	1.344162E+0	1.451895E+0	1.336620E+0	1.339445E+0	1.377517E+0	1.371123E+0	1.399334E+0	1.339817E+0	1.371659E+0	1.319461E+0	1.361126E+0	1.341861E+0	1.343804E+0	1.373944E+0	1.348679E+0	1.339416E+0	1.343478E+0	1.286261E+0	1.385336E+0	1.302579E+0	1.334095E+0	1.359174E+0	1.330051E+0	1.360071E+0	1.327937E+0	1.310267E+0	1.351519E+0	1.380341E+0	1.362025E+0	1.403710E+0	1.352728E+0	1.377892E+0	1.378130E+0	1.384540E+0	1.346199E+0	1.319862E+0	1.310046E+0	1.345028E+0	1.320384E+0	1.352596E+0	1.334304E+0	1.519973E+0
5.482600E+2	1.512434E+0	1.443215E+0	1.450542E+0	1.424685E+0	1.478088E+0	1.460052E+0	1.420726E+0	1.434534E+0	1.466675E+0	1.422224E+0	1.455274E+0	1.453241E+0	1.433828E+0	1.410187E+0	1.465746E+0	1.453613E+0	1.463474E+0	1.496576E+0	1.447994E+0	1.455372E+0	1.475958E+0	1.461832E+0	1.465557E+0	1.459375E+0	1.458973E+0	1.443479E+0	1.458448E+0	1.451988E+0	1.454652E+0	1.426323E+0	1.416086E+0	1.482943E+0	1.443528E+0	1.495738E+0	1.475779E+0	1.488174E+0	1.411039E+0	1.453216E+0	1.434849E+0	1.498161E+0	1.453015E+0	1.418279E+0	1.519755E+0	1.409311E+0	1.440183E+0	1.430251E+0	1.467453E+0	1.482246E+0	1.405954E+0	1.492606E+0	1.399657E+0	1.474153E+0	1.442748E+0	1.475470E+0	1.431737E+0	1.470280E+0	1.518044E+0	1.451978E+0	1.477881E+0	1.437797E+0	1.471802E+0	1.421712E+0	1.486746E+0	1.476092E+0	1.436931E+0	1.425828E+0	1.478388E+0	1.483658E+0	1.449365E+0	1.485702E+0	1.457633E+0	1.421775E+0	1.437059E+0	1.520588E+0	1.459260E+0	1.430398E+0	1.457679E+0	1.408923E+0	1.443550E+0	1.440153E+0	1.412157E+0	1.452772E+0	1.455957E+0	1.472004E+0	1.462631E+0	1.492638E+0	1.494566E+0	1.476825E+0	1.404006E+0	1.467692E+0	1.438721E+0	1.486171E+0	1.463689E+0	1.414903E+0	1.493049E+0	1.406115E+0	1.365720E+0	1.479086E+0	1.402757E+0	1.476084E+0	1.457925E+0	1.491733E+0	1.409684E+0	1.409155E+0	1.428026E+0	1.447950E+0	1.487171E+0	1.451951E+0	1.417231E+0	1.458813E+0	1.463419E+0	1.444866E+0	1.361186E+0	1.410880E+0	1.431801E+0	1.414666E+0	1.507052E+0	1.436178E+0	1.471731E+0	1.425647E+0	1.468701E+0	1.400323E+0	1.492348E+0	1.424373E+0	1.448506E+0	1.416113E+0	1.458741E+0	1.475393E+0	1.431507E+0	1.454676E+0	1.517387E+0	1.497056E+0	1.412927E+0	1.463857E+0	1.467743E+0	1.455462E+0	1.423898E+0	1.463780E+0	1.434623E+0	1.443704E+0	1.448859E+0	1.405586E+0	1.452118E+0	1.513316E+0	1.440017E+0	1.492105E+0	1.459365E+0	1.455952E+0	1.403990E+0	1.464570E+0	1.479134E+0	1.465499E+0	1.458593E+0	1.415576E+0	1.453967E+0	1.460766E+0	1.461535E+0	1.437813E+0	1.426700E+0	1.470610E+0	1.416332E+0	1.415818E+0	1.475627E+0	1.392548E+0	1.376295E+0	1.409163E+0	1.427858E+0	1.416172E+0	1.448640E+0	1.437656E+0	1.442889E+0
5.490100E+2	1.496363E+0	1.378834E+0	1.490924E+0	1.450576E+0	1.453538E+0	1.414304E+0	1.445995E+0	1.443158E+0	1.413824E+0	1.393582E+0	1.451616E+0	1.491974E+0	1.424857E+0	1.427552E+0	1.454261E+0	1.434091E+0	1.412339E+0	1.462089E+0	1.384044E+0	1.414904E+0	1.369283E+0	1.431037E+0	1.448045E+0	1.401443E+0	1.413145E+0	1.441382E+0	1.443738E+0	1.480677E+0	1.400145E+0	1.439624E+0	1.413690E+0	1.415636E+0	1.399186E+0	1.410580E+0	1.418412E+0	1.428535E+0	1.413168E+0	1.437716E+0	1.416866E+0	1.402859E+0	1.402699E+0	1.417568E+0	1.414882E+0	1.432854E+0	1.453583E+0	1.460571E+0	1.463804E+0	1.494768E+0	1.398823E+0	1.414621E+0	1.448983E+0	1.390644E+0	1.411749E+0	1.370933E+0	1.372306E+0	1.396562E+0	1.415201E+0	1.453707E+0	1.431288E+0	1.421295E+0	1.421087E+0	1.417009E+0	1.400054E+0	1.450906E+0	1.373444E+0	1.425586E+0	1.381254E+0	1.408418E+0	1.434481E+0	1.347262E+0	1.415900E+0	1.390850E+0	1.404493E+0	1.401863E+0	1.460962E+0	1.365629E+0	1.431526E+0	1.426853E+0	1.457119E+0	1.414023E+0	1.386494E+0	1.404735E+0	1.394326E+0	1.420379E+0	1.411525E+0	1.424728E+0	1.429483E+0	1.432371E+0	1.415646E+0	1.428463E+0	1.432686E+0	1.398241E+0	1.394351E+0	1.387382E+0	1.448140E+0	1.422701E+0	1.359827E+0	1.454314E+0	1.444239E+0	1.435499E+0	1.438770E+0	1.415799E+0	1.443786E+0	1.422464E+0	1.456751E+0	1.394972E+0	1.377954E+0	1.421017E+0	1.403374E+0	1.393900E+0	1.468824E+0	1.435107E+0	1.395340E+0	1.385721E+0	1.360994E+0	1.403625E+0	1.392538E+0	1.422249E+0	1.383156E+0	1.398676E+0	1.387089E+0	1.385476E+0	1.430974E+0	1.377428E+0	1.425291E+0	1.363833E+0	1.466340E+0	1.438087E+0	1.360540E+0	1.400709E+0	1.415692E+0	1.429137E+0	1.334193E+0	1.437979E+0	1.390725E+0	1.341776E+0	1.389025E+0	1.404907E+0	1.419793E+0	1.433147E+0	1.364169E+0	1.384857E+0	1.362287E+0	1.425356E+0	1.418344E+0	1.440742E+0	1.437349E+0	1.401602E+0	1.372413E+0	1.456329E+0	1.399507E+0	1.442464E+0	1.412988E+0	1.440292E+0	1.397243E+0	1.447955E+0	1.422651E+0	1.425386E+0	1.451547E+0	1.439650E+0	1.398051E+0	1.426799E+0	1.367296E+0	1.439750E+0	1.398065E+0	1.448319E+0	1.435532E+0	1.333721E+0	1.353848E+0	1.403152E+0	1.456763E+0
5.497740E+2	1.392349E+0	1.315609E+0	1.344384E+0	1.315030E+0	1.401372E+0	1.387699E+0	1.340629E+0	1.401420E+0	1.387940E+0	1.298375E+0	1.359077E+0	1.312179E+0	1.341975E+0	1.334926E+0	1.384483E+0	1.329897E+0	1.402297E+0	1.350983E+0	1.292695E+0	1.356063E+0	1.344102E+0	1.339875E+0	1.356376E+0	1.338268E+0	1.339907E+0	1.355808E+0	1.345181E+0	1.410185E+0	1.345279E+0	1.387239E+0	1.348848E+0	1.355469E+0	1.291828E+0	1.302301E+0	1.358778E+0	1.368321E+0	1.356463E+0	1.332639E+0	1.376415E+0	1.360237E+0	1.284928E+0	1.328886E+0	1.414365E+0	1.363761E+0	1.368635E+0	1.391796E+0	1.377710E+0	1.416388E+0	1.304115E+0	1.364776E+0	1.370361E+0	1.330214E+0	1.339097E+0	1.323235E+0	1.334398E+0	1.316852E+0	1.319066E+0	1.328985E+0	1.355867E+0	1.331680E+0	1.351006E+0	1.337901E+0	1.408068E+0	1.283087E+0	1.430147E+0	1.394349E+0	1.320849E+0	1.336627E+0	1.393355E+0	1.364772E+0	1.304932E+0	1.348156E+0	1.370119E+0	1.342289E+0	1.314394E+0	1.350945E+0	1.356282E+0	1.370249E+0	1.377580E+0	1.380654E+0	1.306025E+0	1.370920E+0	1.357412E+0	1.322604E+0	1.306082E+0	1.348243E+0	1.389033E+0	1.363397E+0	1.322867E+0	1.324328E+0	1.324535E+0	1.329712E+0	1.312236E+0	1.320995E+0	1.343999E+0	1.360872E+0	1.335913E+0	1.337018E+0	1.354238E+0	1.367063E+0	1.309306E+0	1.384571E+0	1.309175E+0	1.349763E+0	1.363921E+0	1.330384E+0	1.376608E+0	1.348063E+0	1.359491E+0	1.343452E+0	1.312579E+0	1.373256E+0	1.309173E+0	1.300219E+0	1.237453E+0	1.320741E+0	1.320771E+0	1.300457E+0	1.405681E+0	1.320172E+0	1.361677E+0	1.308874E+0	1.333463E+0	1.327981E+0	1.355795E+0	1.342774E+0	1.336039E+0	1.354150E+0	1.325322E+0	1.320070E+0	1.354867E+0	1.306277E+0	1.330478E+0	1.378796E+0	1.326866E+0	1.370832E+0	1.345620E+0	1.347917E+0	1.323186E+0	1.289663E+0	1.339746E+0	1.316172E+0	1.321124E+0	1.328103E+0	1.343274E+0	1.333957E+0	1.313243E+0	1.357102E+0	1.300556E+0	1.337520E+0	1.346447E+0	1.364534E+0	1.320254E+0	1.323784E+0	1.330903E+0	1.330864E+0	1.367207E+0	1.313652E+0	1.287734E+0	1.356113E+0	1.319223E+0	1.344649E+0	1.333484E+0	1.294899E+0	1.360182E+0	1.364704E+0	1.365709E+0	1.324526E+0	1.307209E+0	1.355215E+0	1.400006E+0
5.505170E+2	1.382201E+0	1.347106E+0	1.372798E+0	1.286310E+0	1.269593E+0	1.279636E+0	1.359643E+0	1.315705E+0	1.278085E+0	1.330051E+0	1.271274E+0	1.351145E+0	1.342556E+0	1.316806E+0	1.324480E+0	1.350952E+0	1.324198E+0	1.326235E+0	1.285968E+0	1.348270E+0	1.302709E+0	1.302646E+0	1.281418E+0	1.317830E+0	1.246358E+0	1.279285E+0	1.387288E+0	1.324906E+0	1.315234E+0	1.291819E+0	1.292067E+0	1.304755E+0	1.331180E+0	1.311771E+0	1.299807E+0	1.324774E+0	1.298420E+0	1.303956E+0	1.335542E+0	1.263134E+0	1.339353E+0	1.275597E+0	1.314468E+0	1.317614E+0	1.312305E+0	1.363357E+0	1.361895E+0	1.320842E+0	1.240913E+0	1.356318E+0	1.288552E+0	1.300373E+0	1.272196E+0	1.287513E+0	1.313962E+0	1.365269E+0	1.310018E+0	1.324674E+0	1.300195E+0	1.330256E+0	1.236092E+0	1.317436E+0	1.308219E+0	1.321803E+0	1.318366E+0	1.327977E+0	1.291987E+0	1.296334E+0	1.362902E+0	1.302222E+0	1.283273E+0	1.296480E+0	1.304453E+0	1.307621E+0	1.344478E+0	1.328940E+0	1.277194E+0	1.309186E+0	1.361352E+0	1.349882E+0	1.262819E+0	1.251393E+0	1.321852E+0	1.300700E+0	1.256216E+0	1.284165E+0	1.362064E+0	1.250204E+0	1.338949E+0	1.344327E+0	1.238898E+0	1.305336E+0	1.311068E+0	1.315802E+0	1.361835E+0	1.341548E+0	1.291249E+0	1.350140E+0	1.271771E+0	1.280440E+0	1.342802E+0	1.324746E+0	1.308762E+0	1.293386E+0	1.337139E+0	1.269802E+0	1.304671E+0	1.339125E+0	1.286098E+0	1.321179E+0	1.331043E+0	1.369510E+0	1.287421E+0	1.398870E+0	1.274840E+0	1.291934E+0	1.294539E+0	1.279807E+0	1.269875E+0	1.286205E+0	1.311727E+0	1.301446E+0	1.340686E+0	1.290325E+0	1.268050E+0	1.368855E+0	1.275010E+0	1.325532E+0	1.322829E+0	1.337424E+0	1.372887E+0	1.348807E+0	1.323878E+0	1.283287E+0	1.284462E+0	1.289471E+0	1.337128E+0	1.315950E+0	1.260201E+0	1.323289E+0	1.306773E+0	1.250155E+0	1.328028E+0	1.300011E+0	1.347272E+0	1.268944E+0	1.297959E+0	1.324236E+0	1.297240E+0	1.268298E+0	1.280375E+0	1.320208E+0	1.288667E+0	1.306887E+0	1.331825E+0	1.296254E+0	1.277233E+0	1.328451E+0	1.264327E+0	1.334700E+0	1.257921E+0	1.308121E+0	1.339695E+0	1.255990E+0	1.239064E+0	1.293664E+0	1.362012E+0	1.309947E+0	1.362931E+0	1.343810E+0	1.258941E+0
5.512620E+2	1.341588E+0	1.320600E+0	1.321880E+0	1.262189E+0	1.295185E+0	1.274382E+0	1.301504E+0	1.294967E+0	1.280876E+0	1.290083E+0	1.306479E+0	1.298502E+0	1.256714E+0	1.266316E+0	1.298380E+0	1.293900E+0	1.273904E+0	1.260107E+0	1.260486E+0	1.345477E+0	1.256539E+0	1.314504E+0	1.275653E+0	1.302212E+0	1.257372E+0	1.283864E+0	1.329426E+0	1.286791E+0	1.291899E+0	1.263668E+0	1.274678E+0	1.323804E+0	1.324441E+0	1.290447E+0	1.306148E+0	1.293589E+0	1.288549E+0	1.257148E+0	1.321532E+0	1.317993E+0	1.319445E+0	1.285056E+0	1.245854E+0	1.248714E+0	1.330034E+0	1.331532E+0	1.282775E+0	1.320011E+0	1.297049E+0	1.315174E+0	1.227235E+0	1.345321E+0	1.259139E+0	1.275715E+0	1.306510E+0	1.289806E+0	1.346266E+0	1.345408E+0	1.341005E+0	1.298945E+0	1.295059E+0	1.273173E+0	1.281487E+0	1.341697E+0	1.301363E+0	1.322681E+0	1.269263E+0	1.266567E+0	1.317121E+0	1.281988E+0	1.293997E+0	1.288756E+0	1.209735E+0	1.331075E+0	1.305754E+0	1.246398E+0	1.306430E+0	1.283786E+0	1.284356E+0	1.296125E+0	1.229238E+0	1.267816E+0	1.243571E+0	1.312304E+0	1.301230E+0	1.321508E+0	1.285149E+0	1.284181E+0	1.312345E+0	1.275460E+0	1.266077E+0	1.306589E+0	1.336380E+0	1.267352E+0	1.258937E+0	1.315084E+0	1.300072E+0	1.290049E+0	1.344316E+0	1.279187E+0	1.270813E+0	1.348038E+0	1.221896E+0	1.296693E+0	1.327702E+0	1.260141E+0	1.308968E+0	1.308092E+0	1.338559E+0	1.292708E+0	1.294989E+0	1.320159E+0	1.267650E+0	1.264371E+0	1.300493E+0	1.344093E+0	1.320839E+0	1.319993E+0	1.281851E+0	1.279242E+0	1.335597E+0	1.243492E+0	1.304346E+0	1.364451E+0	1.280505E+0	1.310045E+0	1.326806E+0	1.277360E+0	1.265060E+0	1.336248E+0	1.335534E+0	1.302606E+0	1.223238E+0	1.353561E+0	1.267043E+0	1.305972E+0	1.279348E+0	1.325055E+0	1.239897E+0	1.253435E+0	1.293673E+0	1.230940E+0	1.284308E+0	1.307018E+0	1.276005E+0	1.271106E+0	1.296135E+0	1.300713E+0	1.308728E+0	1.264401E+0	1.291619E+0	1.299988E+0	1.239453E+0	1.270788E+0	1.300720E+0	1.300192E+0	1.252012E+0	1.278197E+0	1.310526E+0	1.292601E+0	1.245149E+0	1.290779E+0	1.295068E+0	1.306603E+0	1.277916E+0	1.250333E+0	1.285948E+0	1.349685E+0	1.269704E+0	1.263826E+0	1.333946E+0
5.520150E+2	1.368479E+0	1.319492E+0	1.258683E+0	1.285374E+0	1.299517E+0	1.296730E+0	1.292455E+0	1.329313E+0	1.315171E+0	1.296123E+0	1.304803E+0	1.316068E+0	1.282830E+0	1.263922E+0	1.302633E+0	1.345607E+0	1.286834E+0	1.318682E+0	1.261598E+0	1.300917E+0	1.252500E+0	1.282402E+0	1.286168E+0	1.293191E+0	1.275144E+0	1.342842E+0	1.302916E+0	1.275364E+0	1.332165E+0	1.285351E+0	1.285609E+0	1.308806E+0	1.277329E+0	1.292908E+0	1.280107E+0	1.267697E+0	1.306842E+0	1.272923E+0	1.288505E+0	1.292250E+0	1.304387E+0	1.343654E+0	1.263453E+0	1.330967E+0	1.335564E+0	1.356597E+0	1.294373E+0	1.305681E+0	1.296865E+0	1.274490E+0	1.275010E+0	1.347565E+0	1.287808E+0	1.293299E+0	1.287280E+0	1.319002E+0	1.325227E+0	1.335604E+0	1.285498E+0	1.285972E+0	1.313308E+0	1.290077E+0	1.284537E+0	1.289379E+0	1.271174E+0	1.297291E+0	1.314889E+0	1.244725E+0	1.314669E+0	1.287232E+0	1.274112E+0	1.283317E+0	1.274708E+0	1.290333E+0	1.316414E+0	1.315628E+0	1.281488E+0	1.317921E+0	1.355760E+0	1.311252E+0	1.259594E+0	1.285702E+0	1.270497E+0	1.305253E+0	1.295054E+0	1.292685E+0	1.323780E+0	1.320268E+0	1.320507E+0	1.316106E+0	1.298868E+0	1.329037E+0	1.312769E+0	1.279935E+0	1.299415E+0	1.318938E+0	1.259558E+0	1.301587E+0	1.286787E+0	1.331916E+0	1.308737E+0	1.290218E+0	1.335299E+0	1.296469E+0	1.321798E+0	1.285013E+0	1.285167E+0	1.288626E+0	1.276491E+0	1.269276E+0	1.298682E+0	1.314141E+0	1.291048E+0	1.272368E+0	1.334917E+0	1.324430E+0	1.268860E+0	1.249091E+0	1.256647E+0	1.268805E+0	1.352007E+0	1.282050E+0	1.350364E+0	1.308257E+0	1.303055E+0	1.275282E+0	1.322927E+0	1.330357E+0	1.271910E+0	1.321642E+0	1.295046E+0	1.293348E+0	1.286949E+0	1.279856E+0	1.253925E+0	1.284880E+0	1.262943E+0	1.222523E+0	1.276701E+0	1.316452E+0	1.311794E+0	1.275624E+0	1.309801E+0	1.215929E+0	1.275686E+0	1.307546E+0	1.289855E+0	1.266127E+0	1.258733E+0	1.309133E+0	1.242055E+0	1.333931E+0	1.278479E+0	1.332884E+0	1.247781E+0	1.283247E+0	1.296425E+0	1.305992E+0	1.341872E+0	1.302589E+0	1.318939E+0	1.233954E+0	1.267169E+0	1.263391E+0	1.298645E+0	1.240851E+0	1.255202E+0	1.231867E+0	1.253613E+0	1.356418E+0	1.366563E+0
5.527650E+2	1.316089E+0	1.276520E+0	1.242611E+0	1.252244E+0	1.286580E+0	1.213460E+0	1.296101E+0	1.281967E+0	1.257362E+0	1.306281E+0	1.237437E+0	1.284144E+0	1.251647E+0	1.307117E+0	1.196224E+0	1.315253E+0	1.278104E+0	1.282749E+0	1.255457E+0	1.282464E+0	1.291263E+0	1.313579E+0	1.281411E+0	1.266739E+0	1.302453E+0	1.216398E+0	1.232670E+0	1.285689E+0	1.264878E+0	1.201075E+0	1.231201E+0	1.292118E+0	1.243596E+0	1.283562E+0	1.251606E+0	1.288023E+0	1.271537E+0	1.288115E+0	1.248240E+0	1.211355E+0	1.275934E+0	1.195383E+0	1.227293E+0	1.279926E+0	1.227852E+0	1.201674E+0	1.261594E+0	1.317408E+0	1.234988E+0	1.228370E+0	1.289842E+0	1.255257E+0	1.228521E+0	1.260778E+0	1.213882E+0	1.264453E+0	1.246173E+0	1.255992E+0	1.284165E+0	1.274686E+0	1.264309E+0	1.254468E+0	1.245143E+0	1.268852E+0	1.266535E+0	1.258038E+0	1.270470E+0	1.258220E+0	1.223325E+0	1.277892E+0	1.249832E+0	1.287833E+0	1.278218E+0	1.256462E+0	1.259214E+0	1.227329E+0	1.255610E+0	1.249132E+0	1.221632E+0	1.271943E+0	1.249966E+0	1.262505E+0	1.210289E+0	1.318633E+0	1.273962E+0	1.272573E+0	1.300961E+0	1.257431E+0	1.236272E+0	1.278648E+0	1.224467E+0	1.366802E+0	1.269657E+0	1.242832E+0	1.274103E+0	1.278458E+0	1.207121E+0	1.287558E+0	1.304254E+0	1.260788E+0	1.281708E+0	1.255039E+0	1.265523E+0	1.289056E+0	1.306778E+0	1.281506E+0	1.282267E+0	1.298531E+0	1.303361E+0	1.241530E+0	1.269080E+0	1.267687E+0	1.230104E+0	1.240558E+0	1.261245E+0	1.233474E+0	1.195760E+0	1.255095E+0	1.277738E+0	1.277324E+0	1.232773E+0	1.289500E+0	1.227762E+0	1.267483E+0	1.301616E+0	1.283771E+0	1.265135E+0	1.244250E+0	1.279179E+0	1.302989E+0	1.251910E+0	1.348174E+0	1.277373E+0	1.269194E+0	1.261857E+0	1.282723E+0	1.247902E+0	1.223834E+0	1.277615E+0	1.289231E+0	1.242488E+0	1.241799E+0	1.291986E+0	1.283737E+0	1.249839E+0	1.313758E+0	1.272721E+0	1.343778E+0	1.232856E+0	1.260648E+0	1.287852E+0	1.250055E+0	1.259852E+0	1.249851E+0	1.264882E+0	1.256110E+0	1.264793E+0	1.204144E+0	1.319501E+0	1.264761E+0	1.282933E+0	1.253475E+0	1.299470E+0	1.270619E+0	1.212067E+0	1.262860E+0	1.294276E+0	1.272296E+0	1.270276E+0	1.255175E+0	1.175495E+0
5.535270E+2	1.205172E+0	1.128712E+0	1.220880E+0	1.173904E+0	1.223315E+0	1.208445E+0	1.230362E+0	1.267076E+0	1.207356E+0	1.197748E+0	1.144310E+0	1.251132E+0	1.167524E+0	1.174778E+0	1.174561E+0	1.231832E+0	1.181647E+0	1.167181E+0	1.201483E+0	1.232742E+0	1.220764E+0	1.200598E+0	1.177539E+0	1.226502E+0	1.148593E+0	1.172911E+0	1.178500E+0	1.243888E+0	1.198313E+0	1.207559E+0	1.176303E+0	1.191480E+0	1.175622E+0	1.143772E+0	1.237775E+0	1.175315E+0	1.172532E+0	1.172677E+0	1.180495E+0	1.213343E+0	1.201528E+0	1.176405E+0	1.180209E+0	1.176256E+0	1.185134E+0	1.249491E+0	1.174549E+0	1.231293E+0	1.222117E+0	1.225625E+0	1.168441E+0	1.164231E+0	1.186011E+0	1.201856E+0	1.137241E+0	1.238024E+0	1.180715E+0	1.204499E+0	1.196214E+0	1.199848E+0	1.164282E+0	1.222817E+0	1.190768E+0	1.239431E+0	1.198905E+0	1.172096E+0	1.159010E+0	1.183780E+0	1.203530E+0	1.160930E+0	1.195898E+0	1.203999E+0	1.143736E+0	1.181226E+0	1.193969E+0	1.210635E+0	1.185991E+0	1.162256E+0	1.204282E+0	1.239387E+0	1.189505E+0	1.165962E+0	1.174060E+0	1.196326E+0	1.202893E+0	1.198130E+0	1.211231E+0	1.153656E+0	1.177548E+0	1.155039E+0	1.147891E+0	1.199638E+0	1.155243E+0	1.217201E+0	1.204420E+0	1.220357E+0	1.165351E+0	1.211484E+0	1.197098E+0	1.175955E+0	1.161439E+0	1.204748E+0	1.183823E+0	1.152392E+0	1.162747E+0	1.136699E+0	1.198145E+0	1.189819E+0	1.217920E+0	1.159871E+0	1.182379E+0	1.179497E+0	1.151911E+0	1.208582E+0	1.179874E+0	1.201017E+0	1.172006E+0	1.223700E+0	1.171544E+0	1.172847E+0	1.263318E+0	1.231678E+0	1.242591E+0	1.220681E+0	1.220092E+0	1.205684E+0	1.180618E+0	1.208371E+0	1.181926E+0	1.198646E+0	1.222622E+0	1.246997E+0	1.193313E+0	1.211886E+0	1.165272E+0	1.209318E+0	1.167353E+0	1.162967E+0	1.167450E+0	1.245170E+0	1.229571E+0	1.176548E+0	1.147734E+0	1.235355E+0	1.174944E+0	1.211681E+0	1.207032E+0	1.236539E+0	1.175792E+0	1.165423E+0	1.212277E+0	1.228076E+0	1.154988E+0	1.198555E+0	1.217682E+0	1.210371E+0	1.188214E+0	1.215279E+0	1.136626E+0	1.228599E+0	1.170736E+0	1.175996E+0	1.173169E+0	1.166110E+0	1.142695E+0	1.149387E+0	1.175144E+0	1.171994E+0	1.221126E+0	1.177546E+0	1.180340E+0
5.542580E+2	1.117465E+0	1.101705E+0	1.122618E+0	1.103824E+0	1.099025E+0	1.115085E+0	1.128876E+0	1.084661E+0	1.098456E+0	1.103357E+0	1.123542E+0	1.137226E+0	1.078549E+0	1.078575E+0	1.079079E+0	1.137998E+0	1.105024E+0	1.079674E+0	1.122579E+0	1.113056E+0	1.035133E+0	1.100377E+0	1.082582E+0	1.109374E+0	1.063168E+0	1.050726E+0	1.089406E+0	1.071671E+0	1.132578E+0	1.101074E+0	1.059866E+0	1.066679E+0	1.087550E+0	1.063743E+0	1.061187E+0	1.081931E+0	1.104770E+0	1.111636E+0	1.052254E+0	1.084001E+0	1.086915E+0	1.107932E+0	1.105934E+0	1.128183E+0	1.070771E+0	1.073308E+0	1.058660E+0	1.104049E+0	1.078236E+0	1.119251E+0	1.063659E+0	1.102834E+0	1.110888E+0	1.092496E+0	1.138927E+0	1.155575E+0	1.094768E+0	1.089255E+0	1.069067E+0	1.081844E+0	1.053269E+0	1.086689E+0	1.103453E+0	1.111904E+0	1.064675E+0	1.122697E+0	1.059082E+0	1.034635E+0	1.113411E+0	1.070946E+0	1.087708E+0	1.111174E+0	1.077603E+0	1.150796E+0	1.095045E+0	1.106261E+0	1.056286E+0	1.091482E+0	1.104405E+0	1.111683E+0	1.063211E+0	1.048583E+0	1.071088E+0	1.145604E+0	1.112836E+0	1.050131E+0	1.111116E+0	1.079146E+0	1.104042E+0	1.109119E+0	1.103618E+0	1.110420E+0	1.100279E+0	1.081447E+0	1.106389E+0	1.095120E+0	1.078763E+0	1.048629E+0	1.092498E+0	1.114311E+0	1.108599E+0	1.076927E+0	1.095572E+0	1.095342E+0	1.110186E+0	1.055421E+0	1.085480E+0	1.141444E+0	1.051624E+0	1.109326E+0	1.128677E+0	1.063695E+0	1.072098E+0	1.101761E+0	1.064366E+0	1.072808E+0	1.121532E+0	1.043284E+0	1.069800E+0	1.059965E+0	1.130602E+0	1.087830E+0	1.076968E+0	1.082134E+0	1.145898E+0	1.107071E+0	1.035629E+0	1.083621E+0	1.065810E+0	1.087751E+0	1.085922E+0	1.148835E+0	1.070840E+0	1.097516E+0	1.088553E+0	1.047757E+0	1.101509E+0	1.079223E+0	1.098728E+0	1.068876E+0	1.107493E+0	1.114848E+0	1.068388E+0	1.126136E+0	1.093975E+0	1.103493E+0	1.089345E+0	1.115747E+0	1.080633E+0	1.058727E+0	1.091627E+0	1.067355E+0	1.078997E+0	1.108305E+0	1.061639E+0	1.051474E+0	1.091550E+0	1.035912E+0	1.103671E+0	1.121845E+0	1.094219E+0	1.069267E+0	1.112137E+0	1.076370E+0	1.086598E+0	1.064804E+0	1.114401E+0	1.077391E+0	1.150754E+0	1.104136E+0	1.137996E+0
5.550250E+2	1.013694E+0	9.873828E-1	1.014482E+0	1.037387E+0	1.002552E+0	9.925777E-1	1.010417E+0	9.654522E-1	9.877683E-1	1.019752E+0	1.008835E+0	9.880948E-1	9.845292E-1	1.036691E+0	9.902114E-1	9.994309E-1	9.781556E-1	9.975066E-1	1.055490E+0	1.008754E+0	9.724354E-1	1.027434E+0	9.916751E-1	9.500959E-1	9.848077E-1	1.030436E+0	9.905924E-1	1.026068E+0	1.006206E+0	1.034678E+0	1.002447E+0	1.021524E+0	1.010823E+0	1.001335E+0	1.008310E+0	1.014930E+0	1.046652E+0	1.042990E+0	9.784758E-1	1.005197E+0	9.960209E-1	9.937606E-1	9.782234E-1	9.985526E-1	9.971456E-1	9.724199E-1	1.003849E+0	1.032389E+0	1.004829E+0	9.903169E-1	1.012733E+0	1.009498E+0	1.012229E+0	9.754950E-1	9.995164E-1	9.942840E-1	1.061869E+0	9.882636E-1	1.052722E+0	1.026488E+0	1.000710E+0	1.017273E+0	1.015830E+0	9.790348E-1	1.019175E+0	1.048539E+0	9.593518E-1	1.009640E+0	9.798047E-1	1.019632E+0	9.556663E-1	1.007788E+0	9.813557E-1	1.011227E+0	1.016711E+0	9.784046E-1	1.013099E+0	9.931637E-1	1.026296E+0	1.046363E+0	1.011219E+0	9.798481E-1	1.018594E+0	9.991111E-1	1.018160E+0	9.731543E-1	1.011519E+0	1.052440E+0	1.000819E+0	1.032508E+0	9.730268E-1	1.022834E+0	1.001699E+0	1.040191E+0	1.032358E+0	9.897216E-1	9.833729E-1	1.010445E+0	9.992498E-1	1.028278E+0	1.021273E+0	1.012057E+0	1.024866E+0	9.984505E-1	1.078753E+0	9.973865E-1	1.030342E+0	9.987344E-1	9.954487E-1	1.019462E+0	1.037498E+0	1.024164E+0	1.015728E+0	1.003833E+0	1.011650E+0	1.003661E+0	1.013084E+0	1.015469E+0	1.010785E+0	1.029313E+0	1.015495E+0	1.021307E+0	1.000615E+0	1.008187E+0	1.053439E+0	1.031417E+0	1.041227E+0	9.958107E-1	9.702982E-1	1.008083E+0	9.822977E-1	9.991540E-1	9.844143E-1	1.036144E+0	9.916463E-1	1.021280E+0	9.475562E-1	1.056358E+0	1.030248E+0	9.943931E-1	9.574243E-1	9.747329E-1	1.021859E+0	1.005745E+0	1.022383E+0	1.006529E+0	1.012668E+0	1.007069E+0	9.602070E-1	1.013973E+0	1.047666E+0	1.004216E+0	1.036599E+0	9.815643E-1	1.015983E+0	1.005219E+0	1.025212E+0	9.956408E-1	9.901935E-1	1.015625E+0	1.019798E+0	9.847226E-1	1.021943E+0	1.011957E+0	9.825714E-1	9.917749E-1	1.022507E+0	1.012737E+0	1.031376E+0	9.397647E-1	1.065496E+0
5.557600E+2	9.693461E-1	9.422028E-1	9.410272E-1	9.854054E-1	9.781754E-1	9.564645E-1	9.377482E-1	9.469190E-1	9.661900E-1	9.271452E-1	9.586191E-1	9.712929E-1	9.021747E-1	9.572331E-1	9.552981E-1	9.789643E-1	9.026899E-1	9.596699E-1	9.499092E-1	9.920698E-1	9.121783E-1	9.991031E-1	9.460365E-1	9.846387E-1	9.160226E-1	9.325085E-1	9.723574E-1	9.994659E-1	9.669737E-1	9.663699E-1	9.353063E-1	9.371172E-1	8.948001E-1	9.502874E-1	9.666162E-1	9.110204E-1	9.823589E-1	9.654259E-1	9.377878E-1	9.699703E-1	9.537678E-1	9.417755E-1	9.508774E-1	9.950788E-1	9.567784E-1	9.578676E-1	9.484075E-1	9.926298E-1	9.729474E-1	9.403535E-1	9.492033E-1	9.780722E-1	9.442636E-1	9.460571E-1	9.518875E-1	9.505591E-1	1.007114E+0	9.628817E-1	9.778820E-1	9.566400E-1	9.275535E-1	9.746519E-1	9.743325E-1	9.608353E-1	9.385461E-1	9.454050E-1	9.218167E-1	9.125778E-1	9.870281E-1	9.378807E-1	9.843833E-1	9.560166E-1	9.390832E-1	9.789328E-1	9.349262E-1	9.993564E-1	9.635654E-1	9.669300E-1	9.689368E-1	9.826775E-1	9.335166E-1	9.603494E-1	9.392650E-1	9.528456E-1	9.436229E-1	9.322143E-1	9.606323E-1	9.224994E-1	9.775989E-1	9.739435E-1	9.454178E-1	9.586288E-1	9.711285E-1	9.255360E-1	9.637053E-1	1.026666E+0	9.312586E-1	9.082429E-1	9.235602E-1	9.477417E-1	9.531406E-1	9.975658E-1	9.615440E-1	9.731642E-1	9.498721E-1	9.668522E-1	9.882349E-1	9.244153E-1	9.312239E-1	9.156448E-1	9.281181E-1	9.745156E-1	9.151463E-1	9.862496E-1	9.379091E-1	9.429446E-1	9.367333E-1	9.762876E-1	9.134022E-1	9.302574E-1	9.454239E-1	9.413993E-1	1.006835E+0	9.850332E-1	9.488651E-1	9.550379E-1	9.524019E-1	9.965820E-1	9.814823E-1	9.866697E-1	9.704332E-1	1.035524E+0	9.645403E-1	9.629650E-1	9.515178E-1	9.888018E-1	9.831659E-1	8.970309E-1	9.509331E-1	9.829541E-1	9.245072E-1	9.629069E-1	9.299278E-1	9.781797E-1	9.505051E-1	9.486651E-1	9.510752E-1	9.847302E-1	9.423994E-1	9.873817E-1	9.864126E-1	9.551582E-1	9.484949E-1	9.566266E-1	8.805195E-1	9.471074E-1	9.521307E-1	9.721587E-1	9.870887E-1	9.483005E-1	9.408242E-1	9.443590E-1	9.552394E-1	9.869246E-1	9.558983E-1	9.293452E-1	9.733337E-1	9.528172E-1	9.615477E-1	9.377338E-1	9.356750E-1
5.560190E+2	9.716968E-1	9.959216E-1	9.806660E-1	9.608640E-1	9.665904E-1	9.828816E-1	9.722029E-1	9.799417E-1	9.680215E-1	9.623409E-1	9.575289E-1	9.239988E-1	9.343613E-1	9.590605E-1	9.695586E-1	1.010887E+0	9.883726E-1	9.581979E-1	9.994957E-1	9.688015E-1	9.699781E-1	9.625905E-1	9.814688E-1	9.689420E-1	9.525703E-1	9.541121E-1	9.573455E-1	9.872194E-1	9.896410E-1	9.571947E-1	9.574775E-1	9.933698E-1	9.367192E-1	9.717854E-1	9.187409E-1	9.404741E-1	9.648151E-1	9.761284E-1	9.779916E-1	9.438356E-1	9.764452E-1	9.812083E-1	9.597597E-1	9.281338E-1	9.755567E-1	9.775479E-1	9.534041E-1	9.719085E-1	9.056531E-1	9.929416E-1	9.818933E-1	9.404709E-1	9.625668E-1	9.635782E-1	9.709187E-1	1.002321E+0	9.944303E-1	9.901734E-1	9.806821E-1	9.842089E-1	9.630986E-1	9.658226E-1	9.491999E-1	9.935500E-1	9.535499E-1	9.782501E-1	9.933669E-1	9.754849E-1	9.809885E-1	9.466240E-1	9.709671E-1	9.357585E-1	9.789633E-1	9.897532E-1	9.444241E-1	9.330644E-1	9.914625E-1	9.378671E-1	1.025955E+0	1.005166E+0	9.301755E-1	9.427708E-1	9.747284E-1	1.003961E+0	9.866314E-1	9.976496E-1	1.004583E+0	9.395789E-1	9.589157E-1	9.811171E-1	9.498492E-1	1.040824E+0	9.542400E-1	9.923082E-1	1.000991E+0	9.928810E-1	9.803735E-1	9.814837E-1	1.027806E+0	9.491773E-1	9.310784E-1	9.687050E-1	9.443673E-1	9.855025E-1	1.014904E+0	9.101808E-1	9.367119E-1	9.633897E-1	9.661874E-1	9.694312E-1	9.489850E-1	1.004303E+0	9.295981E-1	9.461002E-1	9.665872E-1	9.624616E-1	9.166863E-1	9.400363E-1	9.889301E-1	9.923860E-1	9.745135E-1	9.627821E-1	9.814514E-1	9.082591E-1	1.015755E+0	1.019739E+0	9.717497E-1	9.848089E-1	9.441400E-1	9.486579E-1	9.424619E-1	9.567161E-1	9.177071E-1	9.627084E-1	9.666233E-1	9.794231E-1	9.568372E-1	9.325869E-1	9.469907E-1	9.913326E-1	9.874914E-1	9.755145E-1	9.356448E-1	9.770207E-1	9.374956E-1	9.915202E-1	9.803387E-1	9.972890E-1	9.343032E-1	9.632131E-1	9.710097E-1	9.459240E-1	9.690527E-1	9.436483E-1	9.452108E-1	9.505159E-1	9.896568E-1	9.873560E-1	9.455327E-1	1.033919E+0	9.803690E-1	9.797810E-1	9.899498E-1	9.614904E-1	9.641717E-1	9.639213E-1	9.414873E-1	9.553453E-1	9.321539E-1	9.741640E-1	9.343286E-1
5.565200E+2	9.862133E-1	9.724620E-1	9.985429E-1	9.737915E-1	9.866782E-1	9.753476E-1	9.576233E-1	9.743280E-1	9.462481E-1	9.356397E-1	9.807145E-1	9.996538E-1	1.005863E+0	9.652477E-1	9.825814E-1	9.827040E-1	9.712961E-1	9.674615E-1	9.102219E-1	9.970534E-1	9.953438E-1	1.014241E+0	1.027200E+0	9.828302E-1	9.418435E-1	9.751505E-1	1.003334E+0	9.846330E-1	9.969238E-1	9.932453E-1	9.967032E-1	9.698491E-1	9.439266E-1	9.705607E-1	9.821480E-1	9.614045E-1	1.020992E+0	9.857956E-1	9.577421E-1	9.670770E-1	9.447601E-1	1.000553E+0	9.746643E-1	9.826051E-1	9.557597E-1	9.786391E-1	9.767955E-1	9.811080E-1	1.019108E+0	9.972480E-1	1.002673E+0	9.811903E-1	9.538316E-1	9.696031E-1	9.862257E-1	9.672020E-1	9.940482E-1	9.472091E-1	9.804111E-1	1.020629E+0	9.999855E-1	9.867297E-1	9.729126E-1	9.923203E-1	9.608120E-1	9.428190E-1	1.006235E+0	9.579981E-1	9.862400E-1	1.024528E+0	9.998588E-1	9.708692E-1	9.727833E-1	1.042620E+0	9.853455E-1	9.522928E-1	9.981027E-1	1.036198E+0	1.003594E+0	1.009586E+0	9.786964E-1	9.727996E-1	9.981648E-1	1.044282E+0	9.905161E-1	9.549382E-1	9.746377E-1	1.028791E+0	9.853416E-1	9.690270E-1	1.017633E+0	9.961389E-1	9.655903E-1	9.517228E-1	1.002861E+0	9.944253E-1	9.635672E-1	1.009074E+0	1.018817E+0	1.010081E+0	1.004165E+0	9.824495E-1	1.005012E+0	9.943903E-1	1.028813E+0	9.686853E-1	1.000921E+0	9.723312E-1	9.758857E-1	9.713267E-1	9.919625E-1	9.588065E-1	9.990082E-1	9.854341E-1	9.560387E-1	9.525114E-1	9.801092E-1	9.888149E-1	9.654309E-1	9.894208E-1	9.574959E-1	1.011809E+0	9.549820E-1	9.609868E-1	9.882899E-1	9.602066E-1	9.613567E-1	1.019346E+0	9.947973E-1	9.482794E-1	9.698300E-1	9.736309E-1	9.513274E-1	9.745129E-1	1.024998E+0	1.023269E+0	1.032798E+0	9.998242E-1	9.683862E-1	1.000964E+0	9.516270E-1	9.958080E-1	9.465936E-1	9.690106E-1	1.006676E+0	9.827531E-1	9.512921E-1	1.045366E+0	9.862093E-1	9.877219E-1	9.872345E-1	9.818830E-1	9.876084E-1	9.902171E-1	1.026657E+0	9.495811E-1	1.002950E+0	1.005550E+0	1.009821E+0	9.961622E-1	9.710174E-1	1.010532E+0	9.867117E-1	1.010302E+0	9.729071E-1	9.785926E-1	9.579276E-1	1.013403E+0	9.530930E-1	1.025369E+0	1.059618E+0
5.570500E+2	1.022584E+0	9.676944E-1	9.911191E-1	1.033913E+0	1.004286E+0	9.673275E-1	9.713618E-1	1.011373E+0	9.648887E-1	1.019205E+0	1.040539E+0	9.620779E-1	9.776117E-1	1.003062E+0	9.615757E-1	9.795545E-1	1.022061E+0	9.866762E-1	9.674968E-1	1.029139E+0	9.425560E-1	9.718682E-1	9.924776E-1	1.023340E+0	9.802205E-1	9.850292E-1	9.654587E-1	1.008914E+0	9.611942E-1	9.870874E-1	9.826651E-1	1.014144E+0	9.861094E-1	1.010817E+0	9.208052E-1	1.025624E+0	9.773377E-1	1.004467E+0	9.936457E-1	1.021067E+0	1.004776E+0	9.900626E-1	9.600571E-1	9.558763E-1	1.016265E+0	9.787465E-1	9.911517E-1	1.013985E+0	1.010397E+0	1.012490E+0	9.842848E-1	9.788915E-1	9.817182E-1	9.728967E-1	9.867444E-1	9.775287E-1	9.777466E-1	9.898655E-1	1.025094E+0	1.023871E+0	9.698562E-1	9.858674E-1	1.011778E+0	1.005791E+0	9.903240E-1	9.334078E-1	9.680315E-1	9.497453E-1	9.533837E-1	9.602267E-1	9.973818E-1	1.009919E+0	1.003223E+0	9.658090E-1	9.903961E-1	9.845673E-1	9.929954E-1	9.778100E-1	9.883509E-1	9.652535E-1	1.028871E+0	9.527803E-1	9.345467E-1	1.001804E+0	9.722581E-1	9.704615E-1	1.010031E+0	9.843925E-1	9.906584E-1	9.709927E-1	9.984833E-1	9.748227E-1	1.051555E+0	9.991133E-1	9.500014E-1	1.009505E+0	9.381415E-1	9.617174E-1	1.021022E+0	9.810099E-1	9.813666E-1	9.860012E-1	9.830546E-1	9.359254E-1	1.009132E+0	9.923632E-1	1.002975E+0	9.963837E-1	9.744507E-1	9.810184E-1	9.892693E-1	1.013839E+0	1.016105E+0	9.733193E-1	1.007194E+0	9.731753E-1	9.817796E-1	1.031507E+0	9.863990E-1	9.928575E-1	9.902829E-1	9.661864E-1	9.849428E-1	1.028681E+0	9.691537E-1	1.014289E+0	1.029044E+0	1.018612E+0	9.802858E-1	9.773696E-1	9.599814E-1	9.873112E-1	1.028424E+0	9.829467E-1	9.519089E-1	9.881283E-1	9.240692E-1	9.620217E-1	9.778935E-1	9.851558E-1	9.873246E-1	9.989890E-1	1.010669E+0	1.010939E+0	9.779003E-1	1.018044E+0	9.968960E-1	9.818324E-1	1.020467E+0	9.903825E-1	9.500412E-1	9.809100E-1	9.632465E-1	9.616653E-1	1.002640E+0	9.479602E-1	9.846171E-1	9.971943E-1	9.746759E-1	1.013364E+0	9.894903E-1	1.046622E+0	9.768917E-1	1.047781E+0	9.764004E-1	1.027634E+0	1.010100E+0	9.984775E-1	1.002798E+0	9.456891E-1	9.435679E-1
5.575420E+2	1.003546E+0	9.548415E-1	9.683097E-1	9.708843E-1	1.017286E+0	9.687189E-1	1.029745E+0	9.817910E-1	1.014393E+0	9.980373E-1	9.793338E-1	9.955142E-1	1.009170E+0	1.014704E+0	1.008319E+0	9.950209E-1	9.822398E-1	9.717540E-1	9.872127E-1	1.002923E+0	1.020349E+0	9.719420E-1	1.018766E+0	9.695977E-1	9.717311E-1	1.020207E+0	9.803152E-1	9.720043E-1	9.966360E-1	9.756039E-1	9.824770E-1	9.764614E-1	9.748285E-1	1.001914E+0	9.597981E-1	9.979191E-1	9.788236E-1	9.923135E-1	1.009367E+0	9.782475E-1	1.017791E+0	9.625074E-1	9.990612E-1	9.885971E-1	1.006777E+0	9.620030E-1	1.009112E+0	1.008955E+0	9.560200E-1	1.001941E+0	9.731278E-1	9.726663E-1	9.660368E-1	9.638097E-1	9.902794E-1	1.024269E+0	1.002057E+0	1.030452E+0	9.774340E-1	1.001731E+0	9.841406E-1	1.002781E+0	9.969543E-1	1.003315E+0	1.015882E+0	1.005696E+0	1.014748E+0	1.017853E+0	9.962964E-1	9.915549E-1	1.003988E+0	1.011391E+0	9.867349E-1	9.707618E-1	9.699465E-1	1.005042E+0	9.668108E-1	9.887036E-1	9.996129E-1	1.016249E+0	1.002042E+0	1.013601E+0	9.812312E-1	9.904153E-1	9.497708E-1	1.002171E+0	9.904930E-1	1.007562E+0	9.591035E-1	1.011851E+0	9.845610E-1	9.822384E-1	9.733982E-1	1.015795E+0	9.757291E-1	9.953384E-1	1.013601E+0	1.037488E+0	9.794905E-1	9.625944E-1	9.735865E-1	1.015288E+0	1.016765E+0	1.048284E+0	9.670806E-1	1.022407E+0	9.507862E-1	9.863984E-1	9.600403E-1	1.017543E+0	1.018148E+0	9.821357E-1	9.916923E-1	9.983673E-1	1.005856E+0	9.923367E-1	9.607112E-1	1.000280E+0	9.980534E-1	1.003244E+0	9.946623E-1	1.007001E+0	1.031360E+0	1.014317E+0	9.827011E-1	9.972061E-1	9.689827E-1	9.800261E-1	9.734254E-1	9.817794E-1	1.015942E+0	9.675208E-1	9.574763E-1	9.711452E-1	1.028905E+0	9.934244E-1	9.979647E-1	9.967376E-1	9.875003E-1	1.003788E+0	9.761082E-1	9.875438E-1	9.678979E-1	9.859148E-1	9.836171E-1	9.838246E-1	9.757513E-1	9.993580E-1	1.009038E+0	9.825356E-1	1.059396E+0	9.851173E-1	1.035504E+0	9.941745E-1	9.887036E-1	1.008844E+0	1.007856E+0	9.858310E-1	9.937442E-1	1.002513E+0	9.663718E-1	9.772404E-1	9.649043E-1	9.879254E-1	9.765744E-1	1.028031E+0	9.984183E-1	1.000880E+0	1.059185E+0	1.054273E+0	1.066977E+0
5.580060E+2	1.004500E+0	1.012108E+0	9.809000E-1	1.009441E+0	9.855893E-1	9.903632E-1	1.005579E+0	1.011652E+0	9.567594E-1	9.815097E-1	9.743036E-1	9.999208E-1	9.924528E-1	9.919023E-1	9.680189E-1	9.949511E-1	1.003740E+0	9.876512E-1	1.016553E+0	9.786553E-1	1.000868E+0	1.026927E+0	9.822462E-1	9.996734E-1	1.000514E+0	9.811638E-1	1.025647E+0	9.838225E-1	1.020262E+0	9.491322E-1	9.864347E-1	1.005778E+0	9.796904E-1	1.006354E+0	1.021852E+0	1.030645E+0	1.064670E+0	1.001479E+0	1.022696E+0	9.777357E-1	1.008199E+0	9.923710E-1	1.069499E+0	9.413012E-1	9.862218E-1	1.003585E+0	9.930433E-1	9.677236E-1	9.848044E-1	9.468093E-1	1.001415E+0	1.007509E+0	1.003920E+0	1.027528E+0	9.881481E-1	1.009065E+0	9.806816E-1	9.796283E-1	1.004537E+0	1.016634E+0	1.020146E+0	9.659469E-1	1.018169E+0	9.870586E-1	1.013490E+0	1.009771E+0	9.966921E-1	1.002342E+0	1.001137E+0	9.729103E-1	9.889448E-1	1.009633E+0	9.951408E-1	9.989666E-1	1.010359E+0	1.002047E+0	1.023665E+0	1.019920E+0	9.739759E-1	1.004667E+0	9.904674E-1	9.955523E-1	1.019900E+0	9.885998E-1	1.010455E+0	1.009601E+0	1.021415E+0	9.625760E-1	9.698746E-1	1.016181E+0	9.979348E-1	9.710448E-1	9.717122E-1	1.034017E+0	9.912458E-1	9.868062E-1	1.036823E+0	9.894662E-1	9.684983E-1	9.898979E-1	1.009502E+0	1.005978E+0	9.830247E-1	9.886027E-1	1.021507E+0	1.007598E+0	1.040861E+0	9.972559E-1	9.571037E-1	9.957772E-1	9.996645E-1	9.936182E-1	9.995610E-1	1.041786E+0	1.015567E+0	9.804949E-1	1.020349E+0	9.714821E-1	1.010605E+0	9.779749E-1	1.039753E+0	1.016417E+0	9.580464E-1	9.455948E-1	9.872716E-1	1.009346E+0	1.037582E+0	9.669720E-1	1.061813E+0	1.015954E+0	1.004338E+0	9.764311E-1	9.611273E-1	9.642686E-1	1.009394E+0	9.866899E-1	1.008866E+0	9.847668E-1	1.029174E+0	9.742197E-1	9.687726E-1	1.045990E+0	1.026663E+0	1.031801E+0	9.964431E-1	9.499626E-1	9.954278E-1	9.844949E-1	9.748992E-1	9.927624E-1	9.892718E-1	1.002298E+0	9.937216E-1	1.023525E+0	9.981262E-1	1.018631E+0	9.986745E-1	1.023991E+0	9.811963E-1	9.616162E-1	1.023072E+0	9.910648E-1	1.041627E+0	9.702967E-1	1.035199E+0	1.005787E+0	1.012948E+0	1.016058E+0	9.814227E-1	9.846671E-1	9.857640E-1
5.585160E+2	1.011589E+0	1.078585E+0	1.008148E+0	1.004674E+0	9.948598E-1	9.846446E-1	9.791950E-1	1.009539E+0	9.976658E-1	1.031096E+0	9.811544E-1	1.004003E+0	9.891142E-1	9.575300E-1	1.047081E+0	9.908873E-1	1.012668E+0	1.030256E+0	9.978103E-1	9.948896E-1	1.004547E+0	1.014242E+0	1.002698E+0	9.753009E-1	1.013749E+0	9.849702E-1	1.008602E+0	1.009825E+0	1.037630E+0	9.992900E-1	9.977628E-1	9.810889E-1	1.010518E+0	9.789201E-1	1.068007E+0	1.041922E+0	9.789560E-1	9.964450E-1	1.017586E+0	9.759783E-1	9.995404E-1	1.035654E+0	9.861495E-1	9.839953E-1	1.060699E+0	1.057048E+0	9.948671E-1	1.008590E+0	9.986698E-1	9.780148E-1	1.007236E+0	9.927502E-1	1.002298E+0	9.957763E-1	9.785357E-1	1.025192E+0	9.688286E-1	1.017286E+0	1.017284E+0	9.514301E-1	1.017088E+0	9.877442E-1	1.007996E+0	1.030151E+0	1.011251E+0	1.040727E+0	1.040539E+0	9.843824E-1	1.022191E+0	1.009632E+0	1.024818E+0	9.944070E-1	1.008663E+0	9.819563E-1	1.050405E+0	1.038340E+0	9.816954E-1	9.659588E-1	1.021415E+0	9.876528E-1	1.005421E+0	1.023957E+0	1.018995E+0	9.867153E-1	9.980611E-1	1.036369E+0	9.755232E-1	9.730511E-1	1.004817E+0	9.850794E-1	1.017024E+0	1.021208E+0	1.002634E+0	9.864593E-1	9.957262E-1	1.052794E+0	9.384572E-1	9.627547E-1	1.043455E+0	1.023192E+0	1.004672E+0	9.981412E-1	1.023445E+0	1.009789E+0	1.008333E+0	9.911740E-1	9.791280E-1	1.029393E+0	1.039448E+0	9.781128E-1	1.013294E+0	1.009382E+0	9.925655E-1	9.764025E-1	1.004583E+0	9.845252E-1	1.024809E+0	9.600215E-1	9.845146E-1	1.039733E+0	1.025597E+0	1.016115E+0	1.038037E+0	9.931983E-1	1.027180E+0	1.033216E+0	9.904111E-1	1.032667E+0	9.837109E-1	9.777834E-1	9.950228E-1	9.981173E-1	9.759690E-1	1.026089E+0	9.591898E-1	9.856040E-1	1.044850E+0	1.013300E+0	9.526042E-1	9.884020E-1	1.044018E+0	1.012055E+0	1.054510E+0	9.924632E-1	1.032420E+0	1.031878E+0	1.033814E+0	9.946330E-1	1.029381E+0	9.928214E-1	1.002489E+0	9.870441E-1	1.022231E+0	1.007304E+0	1.021915E+0	1.013545E+0	9.792687E-1	9.846590E-1	1.006959E+0	9.941643E-1	1.004631E+0	9.991110E-1	9.852728E-1	1.015015E+0	1.007917E+0	9.697349E-1	1.009171E+0	9.713157E-1	9.874565E-1	1.014031E+0	9.515259E-1
5.590160E+2	1.003087E+0	9.825397E-1	1.046153E+0	1.000589E+0	9.885166E-1	1.047541E+0	1.026186E+0	1.051089E+0	1.045116E+0	1.013338E+0	1.018735E+0	1.003443E+0	1.005373E+0	1.024029E+0	1.036925E+0	1.030194E+0	1.069100E+0	9.724774E-1	1.029275E+0	1.025173E+0	1.035680E+0	9.955446E-1	1.041298E+0	1.008911E+0	1.030905E+0	1.012652E+0	1.011215E+0	1.014159E+0	1.033178E+0	9.892031E-1	1.035280E+0	1.034347E+0	1.019022E+0	1.028677E+0	1.018989E+0	9.786698E-1	1.016737E+0	1.049569E+0	9.975125E-1	9.879402E-1	9.894807E-1	1.017833E+0	1.020373E+0	1.001792E+0	1.013744E+0	1.059320E+0	9.961854E-1	1.035300E+0	1.044782E+0	1.040601E+0	9.825057E-1	1.051257E+0	1.030175E+0	1.008722E+0	1.039217E+0	9.741470E-1	1.028716E+0	1.069104E+0	1.039122E+0	1.006697E+0	9.928025E-1	1.015415E+0	1.047634E+0	1.011418E+0	1.004732E+0	1.049871E+0	9.839440E-1	1.014398E+0	1.035271E+0	9.868610E-1	9.766307E-1	1.024464E+0	1.060924E+0	1.022514E+0	1.034281E+0	1.021627E+0	1.061276E+0	9.917066E-1	1.016430E+0	1.066256E+0	1.029996E+0	1.034916E+0	1.031766E+0	9.918310E-1	1.014554E+0	1.031932E+0	1.048004E+0	1.046488E+0	1.018839E+0	1.019932E+0	1.019838E+0	1.060820E+0	9.710027E-1	1.013692E+0	1.004540E+0	1.018897E+0	1.014200E+0	1.012830E+0	9.692356E-1	1.048909E+0	9.926192E-1	9.941279E-1	1.011496E+0	1.010512E+0	1.021606E+0	9.959063E-1	9.390687E-1	9.877517E-1	1.007340E+0	9.857713E-1	1.014920E+0	1.016572E+0	9.687867E-1	1.042025E+0	1.015867E+0	1.014524E+0	1.020497E+0	1.011971E+0	1.032517E+0	9.914646E-1	1.015607E+0	1.001005E+0	1.047573E+0	1.038617E+0	1.056643E+0	1.016498E+0	1.024004E+0	1.036163E+0	9.566998E-1	1.040599E+0	9.988728E-1	1.043387E+0	1.069662E+0	1.019694E+0	1.023220E+0	1.009613E+0	9.816084E-1	1.003611E+0	1.021979E+0	1.085445E+0	9.979875E-1	1.025378E+0	1.009887E+0	9.959495E-1	1.004234E+0	1.007571E+0	1.019915E+0	9.585627E-1	1.001869E+0	1.047225E+0	9.790084E-1	1.028024E+0	1.002009E+0	1.014920E+0	1.027618E+0	1.013895E+0	1.015561E+0	9.676305E-1	1.025990E+0	1.006889E+0	1.050892E+0	9.961854E-1	1.072220E+0	1.009773E+0	1.000005E+0	9.966796E-1	1.018500E+0	1.001030E+0	1.006898E+0	1.016272E+0	1.000649E+0
5.595110E+2	1.028413E+0	1.026720E+0	1.074690E+0	1.033049E+0	1.022897E+0	1.019773E+0	9.806611E-1	9.957929E-1	1.029179E+0	1.024416E+0	1.008837E+0	1.058265E+0	1.026226E+0	1.024545E+0	9.806053E-1	9.941058E-1	1.023436E+0	1.043975E+0	1.061931E+0	9.874814E-1	1.035162E+0	1.005721E+0	1.013926E+0	1.010752E+0	1.025322E+0	1.031476E+0	9.804565E-1	1.001084E+0	1.026603E+0	1.067797E+0	9.839300E-1	1.002884E+0	1.049934E+0	1.013622E+0	1.004933E+0	1.007288E+0	1.011284E+0	1.033078E+0	1.022832E+0	1.076225E+0	9.907636E-1	1.029493E+0	1.007356E+0	1.077060E+0	9.893594E-1	9.969140E-1	1.051444E+0	1.020719E+0	1.028106E+0	9.978712E-1	9.879274E-1	1.008610E+0	1.045299E+0	1.015841E+0	1.020483E+0	1.011698E+0	1.018996E+0	9.974826E-1	9.742982E-1	9.987027E-1	1.026968E+0	1.018415E+0	9.972779E-1	1.002581E+0	1.008535E+0	1.005508E+0	9.824690E-1	1.101518E+0	9.930284E-1	1.030655E+0	9.964239E-1	1.033677E+0	9.930703E-1	1.031069E+0	1.009487E+0	1.028958E+0	1.033395E+0	1.026196E+0	1.010894E+0	9.773787E-1	1.004219E+0	9.939508E-1	1.025489E+0	1.005425E+0	1.012639E+0	9.897144E-1	9.902068E-1	1.011032E+0	1.021888E+0	1.035858E+0	9.987029E-1	9.810952E-1	1.049671E+0	9.950623E-1	1.068201E+0	1.013872E+0	1.032304E+0	1.026820E+0	1.026456E+0	1.050251E+0	1.055343E+0	1.018485E+0	1.014514E+0	1.031420E+0	9.836311E-1	1.000209E+0	1.033730E+0	1.007760E+0	1.022355E+0	1.040024E+0	9.555522E-1	1.001077E+0	1.050662E+0	1.003870E+0	9.959067E-1	1.035132E+0	1.019450E+0	1.073965E+0	1.002424E+0	1.019686E+0	1.052940E+0	1.022926E+0	9.948234E-1	1.069775E+0	9.956482E-1	1.002362E+0	1.024489E+0	9.975584E-1	1.051139E+0	1.049619E+0	1.045140E+0	1.003776E+0	1.027821E+0	1.037020E+0	1.005340E+0	1.026548E+0	1.050663E+0	9.916470E-1	1.023288E+0	9.982173E-1	1.044097E+0	9.637357E-1	9.854769E-1	9.942096E-1	1.016739E+0	9.987879E-1	1.001918E+0	1.030376E+0	1.004010E+0	9.902539E-1	1.033056E+0	1.018692E+0	9.866163E-1	9.903041E-1	9.873537E-1	1.025000E+0	1.029794E+0	1.023103E+0	1.021409E+0	1.010314E+0	9.877245E-1	1.015476E+0	1.010762E+0	9.726193E-1	1.033221E+0	9.944550E-1	1.033612E+0	1.008260E+0	1.010242E+0	1.011820E+0	1.021666E+0
5.600520E+2	1.005598E+0	1.008392E+0	1.002341E+0	9.128615E-1	1.038634E+0	1.028490E+0	9.776694E-1	9.464886E-1	1.010201E+0	9.891986E-1	1.006880E+0	1.010071E+0	1.015721E+0	1.011278E+0	1.030709E+0	1.000506E+0	1.000719E+0	1.038753E+0	9.808977E-1	1.007519E+0	1.008247E+0	1.034300E+0	9.612366E-1	1.036041E+0	1.032671E+0	9.793919E-1	1.018030E+0	1.028636E+0	9.672915E-1	1.015561E+0	9.878217E-1	1.014865E+0	9.965066E-1	9.884141E-1	1.024993E+0	9.768780E-1	1.010656E+0	9.709313E-1	9.958974E-1	1.014089E+0	1.034601E+0	9.824917E-1	1.013989E+0	1.035420E+0	1.004678E+0	9.801380E-1	1.014545E+0	9.928306E-1	9.939254E-1	9.963881E-1	9.962091E-1	1.039886E+0	1.016772E+0	1.030301E+0	9.918055E-1	9.975159E-1	1.058096E+0	1.000193E+0	9.838128E-1	1.002279E+0	9.859077E-1	9.877065E-1	1.000548E+0	9.911047E-1	1.019681E+0	9.767698E-1	1.013432E+0	1.039181E+0	9.971525E-1	1.027665E+0	1.001472E+0	1.015544E+0	1.045899E+0	9.470791E-1	9.806682E-1	1.006302E+0	9.575325E-1	9.827956E-1	1.000563E+0	1.001179E+0	9.852082E-1	9.836554E-1	9.980108E-1	1.034334E+0	1.055656E+0	9.999407E-1	9.602041E-1	9.948655E-1	1.074653E+0	1.005624E+0	1.008493E+0	9.920377E-1	9.341625E-1	9.909140E-1	1.007501E+0	9.700925E-1	1.007083E+0	9.800642E-1	9.718409E-1	1.000078E+0	9.797572E-1	9.831891E-1	9.801147E-1	1.029020E+0	9.825286E-1	1.017369E+0	1.011301E+0	9.964014E-1	1.030406E+0	1.019517E+0	1.041420E+0	9.928525E-1	1.031209E+0	1.039061E+0	1.023248E+0	1.029022E+0	9.804139E-1	9.615368E-1	1.031660E+0	9.941506E-1	9.846354E-1	9.817841E-1	1.031825E+0	9.980112E-1	9.748133E-1	9.995092E-1	1.005518E+0	1.007648E+0	9.945885E-1	9.763891E-1	9.821975E-1	9.907861E-1	9.756246E-1	1.036269E+0	9.971294E-1	1.008346E+0	9.915202E-1	9.992839E-1	1.023113E+0	9.982179E-1	1.031038E+0	9.870243E-1	1.011434E+0	9.927429E-1	9.940719E-1	1.006657E+0	1.028343E+0	1.006895E+0	9.911666E-1	1.005142E+0	1.006370E+0	1.009278E+0	9.997334E-1	1.001233E+0	1.019388E+0	9.955176E-1	9.940940E-1	1.008111E+0	1.005037E+0	1.009833E+0	1.024402E+0	9.933836E-1	9.875416E-1	1.008637E+0	9.983505E-1	9.768839E-1	9.675591E-1	9.971766E-1	1.021238E+0	9.470386E-1	9.785650E-1
5.605090E+2	9.727264E-1	9.946322E-1	9.646859E-1	1.052673E+0	9.587511E-1	1.013084E+0	1.031063E+0	9.984812E-1	1.006271E+0	1.021506E+0	9.954420E-1	9.820973E-1	9.942143E-1	1.004254E+0	9.915136E-1	1.023912E+0	9.639467E-1	1.003570E+0	1.042187E+0	9.895972E-1	9.573805E-1	9.862986E-1	9.511993E-1	1.007008E+0	9.773250E-1	1.037837E+0	1.011562E+0	1.009199E+0	9.850605E-1	9.893877E-1	1.013605E+0	9.699078E-1	1.051613E+0	9.998450E-1	1.001635E+0	1.012285E+0	9.659654E-1	9.872157E-1	9.675036E-1	1.042034E+0	9.831175E-1	1.007340E+0	9.859154E-1	9.777971E-1	9.693130E-1	1.002156E+0	1.010509E+0	9.831180E-1	9.987910E-1	1.013510E+0	1.031946E+0	9.859462E-1	1.017320E+0	9.835553E-1	1.026005E+0	1.023767E+0	1.003663E+0	9.835282E-1	9.924951E-1	9.928898E-1	9.929945E-1	1.042284E+0	9.436892E-1	9.702129E-1	1.020637E+0	1.001980E+0	9.925631E-1	9.742668E-1	1.035562E+0	9.687677E-1	9.808444E-1	9.704857E-1	9.726144E-1	1.007380E+0	1.004897E+0	9.756497E-1	9.964693E-1	1.023318E+0	1.011171E+0	9.409201E-1	9.902293E-1	1.013978E+0	1.017718E+0	9.655542E-1	1.012407E+0	1.020264E+0	9.943452E-1	9.988484E-1	9.862444E-1	9.981139E-1	9.947122E-1	1.001261E+0	1.048050E+0	1.019536E+0	1.016470E+0	9.575023E-1	1.064524E+0	1.008217E+0	9.748851E-1	9.543718E-1	1.004907E+0	9.942507E-1	9.941151E-1	9.987902E-1	9.832874E-1	1.004844E+0	1.016354E+0	9.865051E-1	1.013135E+0	1.004033E+0	9.632410E-1	1.015138E+0	9.436219E-1	9.722288E-1	9.723219E-1	1.044679E+0	9.931714E-1	9.598212E-1	1.020496E+0	9.878053E-1	9.360510E-1	9.587126E-1	9.579669E-1	9.659389E-1	1.027906E+0	9.528927E-1	9.449321E-1	9.606832E-1	9.879918E-1	1.008996E+0	1.004658E+0	1.000417E+0	9.992535E-1	9.855329E-1	1.005174E+0	1.002025E+0	9.712744E-1	1.014110E+0	1.003780E+0	9.636847E-1	9.790831E-1	1.016734E+0	1.013347E+0	1.007941E+0	1.001552E+0	1.002811E+0	9.864085E-1	1.010359E+0	9.851285E-1	1.031803E+0	1.015587E+0	1.012150E+0	9.872578E-1	9.936242E-1	9.487440E-1	1.008135E+0	9.921302E-1	9.888874E-1	9.911321E-1	9.905703E-1	9.664615E-1	9.798852E-1	9.881838E-1	9.928405E-1	9.794618E-1	1.018328E+0	9.845872E-1	9.892051E-1	9.892765E-1	9.892254E-1	9.271753E-1
5.610010E+2	9.617419E-1	1.002025E+0	9.651107E-1	1.008124E+0	1.002503E+0	1.004709E+0	1.040917E+0	1.019466E+0	1.029278E+0	9.860533E-1	1.014060E+0	9.849527E-1	9.842533E-1	1.003448E+0	9.926713E-1	1.008164E+0	9.507927E-1	9.974256E-1	1.006414E+0	9.875686E-1	9.998673E-1	9.789158E-1	1.008951E+0	9.865454E-1	1.025719E+0	9.921230E-1	9.953790E-1	9.877223E-1	9.752202E-1	1.033692E+0	1.033320E+0	1.030674E+0	9.878514E-1	1.000876E+0	9.968390E-1	9.673647E-1	9.745780E-1	9.787059E-1	1.015217E+0	9.596058E-1	1.026970E+0	9.816945E-1	9.829357E-1	1.055556E+0	9.971833E-1	9.814503E-1	9.623460E-1	9.876714E-1	9.653959E-1	1.015126E+0	1.032675E+0	9.812943E-1	9.826301E-1	1.031967E+0	9.925570E-1	9.896160E-1	9.671661E-1	9.852520E-1	1.005512E+0	9.851364E-1	1.010110E+0	1.007111E+0	1.003043E+0	1.006048E+0	9.546562E-1	1.033451E+0	1.001347E+0	9.583153E-1	9.797385E-1	1.027199E+0	1.029637E+0	9.596107E-1	9.609477E-1	1.031843E+0	9.642152E-1	9.851749E-1	9.880585E-1	9.873936E-1	9.739937E-1	1.030857E+0	9.848490E-1	1.014809E+0	9.741791E-1	9.910394E-1	9.836825E-1	9.846087E-1	1.035139E+0	9.923937E-1	9.885818E-1	9.873410E-1	9.626186E-1	1.019333E+0	1.032224E+0	9.936875E-1	9.877251E-1	1.000766E+0	9.913008E-1	1.011569E+0	1.026299E+0	9.796148E-1	9.940813E-1	1.022090E+0	9.884582E-1	9.532662E-1	9.940814E-1	9.994453E-1	1.024877E+0	1.039820E+0	1.019835E+0	1.006877E+0	1.012528E+0	1.016579E+0	1.006789E+0	9.675067E-1	1.003419E+0	9.936007E-1	1.018710E+0	1.040600E+0	9.678995E-1	1.003664E+0	1.002975E+0	1.018045E+0	1.000443E+0	9.848801E-1	9.903921E-1	1.014474E+0	1.013681E+0	9.803230E-1	1.015549E+0	1.023230E+0	1.024017E+0	1.058623E+0	1.053316E+0	1.002522E+0	9.947402E-1	9.763517E-1	9.963875E-1	1.034698E+0	1.012282E+0	1.001905E+0	1.019943E+0	9.667419E-1	9.735210E-1	1.019028E+0	9.863467E-1	1.017712E+0	1.010233E+0	9.881223E-1	9.978309E-1	9.793519E-1	9.775462E-1	9.946032E-1	1.022071E+0	1.023033E+0	9.788538E-1	1.018892E+0	9.950548E-1	1.015044E+0	9.900354E-1	1.014575E+0	1.015938E+0	9.904998E-1	9.858850E-1	9.848100E-1	1.019964E+0	1.003874E+0	1.007176E+0	1.004195E+0	9.883891E-1	1.011615E+0	1.064491E+0
