Photon Energy (eV)	#1	#2	#3	#4	#5	#6	#7	#8	#9	#10	#11	#12	#13	#14	#15	#16	#17	#18	#19	#20	#21	#22	#23	#24	#25	#26	#27	#28	#29	#30	#31	#32	#33	#34	#35	#36	#37	#38	#39	#40	#41	#42	#43	#44	#45	#46	#47	#48	#49	#50	#51	#52	#53	#54	#55	#56	#57	#58	#59	#60	#61	#62	#63	#64	#65	#66	#67	#68	#69	#70	#71	#72	#73	#74	#75	#76	#77	#78	#79	#80	#81	#82	#83	#84	#85	#86	#87	#88	#89	#90	#91	#92	#93	#94	#95	#96	#97	#98	#99	#100	#101	#102	#103	#104	#105	#106	#107	#108	#109	#110	#111	#112	#113	#114	#115	#116	#117	#118	#119	#120	#121	#122	#123	#124	#125	#126	#127	#128	#129	#130	#131	#132	#133	#134	#135	#136	#137	#138	#139	#140	#141	#142	#143	#144	#145	#146	#147	#148	#149	#150	#151	#152	#153	#154	#155	#156	#157	#158	#159	#160	#161	#162	#163	#164	#165	#166	#167	#168	#169	#170	#171	
5.300160E+2	-5.426993E-3	-6.459696E-3	-1.381136E-2	-6.320566E-3	-4.748813E-3	-4.686161E-3	-3.258891E-3	-2.638973E-3	-3.893157E-3	-7.247125E-3	-3.596732E-3	2.405546E-4	-7.362804E-3	-3.713659E-3	3.111959E-3	-6.614163E-3	2.380642E-3	-5.805176E-3	-6.041348E-3	-4.687744E-3	-3.520032E-3	-1.232153E-2	-9.519653E-3	-2.942214E-3	-3.855793E-3	-8.695600E-3	3.037049E-4	-7.020877E-3	3.166670E-3	-9.993088E-4	-5.345648E-3	-9.075222E-3	-1.553438E-2	-9.214409E-3	-9.292760E-3	-2.565859E-4	-7.496874E-3	-9.352802E-3	-1.631334E-2	-6.784375E-4	7.043511E-3	-1.259625E-2	-8.508936E-3	-5.112262E-3	-3.322764E-3	-1.330162E-2	-5.753864E-3	-1.113744E-2	-1.117034E-2	-9.645104E-3	-3.954302E-3	-1.300839E-2	3.815068E-3	-7.993187E-3	-1.486897E-2	4.418707E-3	-1.603165E-3	-7.415963E-3	-3.635516E-3	-1.073191E-2	-8.865718E-3	-8.229292E-3	7.815864E-3	-3.366716E-3	-6.749991E-3	-3.182117E-3	-2.442079E-3	-2.970989E-3	-4.482347E-3	-2.691672E-4	-4.401995E-3	-2.505201E-3	-9.525834E-3	-1.554375E-2	-1.223300E-2	2.973303E-3	-8.903778E-3	-6.789648E-3	-9.022993E-3	-1.235278E-2	-5.012905E-3	-4.259133E-3	-6.605467E-3	4.034540E-4	-4.601579E-3	-5.582408E-3	-8.006154E-3	-8.501560E-3	-1.238163E-2	-5.584679E-3	-4.099030E-3	-8.692844E-3	-4.215520E-3	-9.214244E-3	-7.243739E-3	-1.196561E-2	3.881821E-3	-7.432042E-3	-1.247142E-3	-4.830663E-3	-7.499951E-3	-1.246675E-2	-3.457334E-3	-5.003835E-3	-8.744674E-3	-2.918012E-3	-8.811097E-3	-4.551695E-3	-7.805509E-3	-9.523065E-3	9.574815E-4	-1.125782E-2	-1.153904E-2	-7.028250E-3	-1.016105E-2	-7.901031E-3	-1.027972E-2	-2.935267E-3	-7.692145E-3	-1.233342E-2	-9.862705E-3	-1.294718E-2	-9.527157E-3	-6.427754E-3	-2.822253E-3	-1.605680E-3	-4.987220E-3	-1.213751E-2	-4.516846E-4	-1.120572E-2	-4.420453E-3	-1.622683E-2	-8.039803E-3	-6.626173E-3	-9.583261E-3	-9.293260E-3	1.253965E-3	-6.967181E-3	-5.194576E-3	-1.015481E-2	-9.442122E-3	-4.043290E-3	4.126101E-4	-1.028944E-2	-1.303573E-2	-2.870977E-3	-2.681634E-3	-4.036627E-3	4.371397E-3	1.883155E-3	-8.313939E-3	-3.662835E-3	-6.738637E-3	-8.108835E-3	-2.294020E-3	-5.313900E-3	-1.546420E-2	-3.943538E-3	-7.712844E-3	-7.197542E-3	-2.812863E-3	-1.985072E-2	4.129335E-3	-1.500937E-2	-6.431192E-3	-7.990194E-3	-1.146858E-2	-6.138434E-3	-7.785909E-3	-9.629973E-3	-1.797693E-2
5.305130E+2	-8.945763E-3	-4.597049E-3	-1.646532E-2	-9.577671E-3	-8.150718E-3	7.946066E-4	-5.728373E-3	-5.047564E-3	-5.019768E-3	-2.987753E-3	2.544050E-3	-1.105051E-2	-3.132643E-3	-3.059703E-3	-4.981488E-3	4.144750E-3	-6.962405E-3	-3.991780E-3	-8.597041E-3	-2.442074E-3	-3.393310E-3	2.097399E-3	-1.409740E-3	-1.520059E-2	-7.665452E-3	1.522184E-4	-1.051520E-4	-3.970061E-3	1.611118E-4	-4.901326E-3	-3.696431E-3	1.434433E-3	3.287807E-3	-5.252395E-3	1.060432E-3	-6.797872E-3	-7.877519E-3	-5.235355E-3	-1.100165E-2	-1.076954E-2	-4.781419E-3	-1.543875E-3	-4.445770E-3	-3.213431E-3	-1.222926E-2	-1.150175E-4	-5.136313E-3	-1.197183E-3	-6.865431E-3	-9.545485E-3	3.636430E-3	7.735330E-4	-1.892809E-3	-7.423778E-3	-7.703044E-3	-2.305716E-3	-7.373893E-3	2.798947E-3	-8.623064E-3	-5.118762E-3	-6.573251E-3	-1.483637E-3	-4.554101E-3	-2.772392E-3	-1.119998E-2	-1.166135E-2	-9.885015E-3	-1.705811E-3	-1.323563E-2	-1.229275E-2	-3.790760E-3	-3.426597E-3	-8.285442E-3	-2.786381E-3	-6.034246E-3	1.369841E-3	1.070848E-3	-3.648678E-3	-1.102576E-3	9.020092E-5	3.735085E-3	-4.153665E-3	-7.784526E-3	-7.874312E-3	-1.179386E-2	-9.726928E-3	-7.699012E-3	-9.317926E-3	-2.177368E-3	-2.971531E-3	1.877648E-3	-3.375062E-3	-8.516425E-3	-2.036678E-3	-4.827608E-3	-3.800882E-3	-6.212005E-3	-9.110084E-3	-6.413725E-3	-7.429714E-4	-7.359784E-3	-2.907882E-3	-6.423601E-3	4.925434E-4	-4.453418E-3	-1.087243E-2	-2.851872E-3	-9.378401E-4	6.451905E-5	9.616137E-4	3.738731E-3	2.646326E-4	8.664566E-4	-1.110540E-2	-4.513526E-3	-4.641742E-3	-8.254788E-3	-9.529832E-3	1.471293E-3	-5.935352E-3	3.022914E-3	8.960590E-3	-2.636042E-3	-7.363986E-3	-2.696210E-3	1.305117E-4	-6.520820E-3	-3.945886E-3	-1.073367E-2	-2.760640E-3	2.740386E-3	-9.918355E-3	-1.124454E-2	-8.963712E-3	-7.383381E-3	-1.413114E-2	1.978265E-3	-9.547042E-3	-5.761789E-3	-2.756904E-3	-3.579932E-3	2.210632E-3	-3.477625E-3	-1.612777E-3	-1.228681E-2	-8.313652E-3	-2.042922E-4	-1.097943E-2	-6.039584E-3	-4.803165E-3	3.805563E-3	-5.567457E-3	-1.117270E-2	-4.458966E-3	-4.110312E-3	-8.683190E-3	-5.241847E-3	-3.275371E-3	-8.831303E-3	-2.754333E-3	-3.745657E-3	2.915944E-3	-1.447460E-2	-6.858224E-3	-5.295275E-3	-1.210168E-3	-4.971286E-3	-2.053718E-4	-9.392967E-3	1.070598E-3	-6.112290E-3
5.310150E+2	-7.638811E-3	-3.717720E-4	1.267239E-3	-3.853097E-3	2.448273E-3	1.450797E-3	-3.024017E-3	-1.901327E-3	-1.225123E-3	-4.943032E-3	-2.261719E-3	-3.335761E-3	-3.543908E-3	-1.332186E-3	-6.800748E-3	-8.167333E-3	3.184495E-3	5.846776E-3	-5.811862E-3	-1.244024E-2	-4.723851E-4	2.702260E-3	-2.170134E-3	-6.158934E-3	-2.519501E-3	3.360711E-3	-1.062661E-2	8.626006E-4	-1.388091E-2	-2.771625E-3	-5.063331E-4	3.831576E-3	-3.217554E-3	-1.704616E-4	3.341866E-3	3.908026E-3	2.521609E-3	-4.611750E-3	4.296141E-5	5.449714E-3	-1.067146E-2	-3.168093E-3	7.639250E-4	-1.138841E-4	-3.664825E-3	-4.557277E-3	-4.522616E-3	-4.817245E-3	-7.289944E-3	-1.108844E-2	-7.749552E-3	2.983244E-4	-2.263526E-3	3.632206E-3	-2.870609E-3	-1.118944E-2	1.599176E-3	-1.465551E-2	-4.541266E-3	6.026334E-3	-9.952995E-4	1.706271E-3	-8.620108E-3	2.003533E-3	1.436122E-3	4.938337E-4	1.281587E-3	2.392899E-3	7.281250E-4	-4.929108E-4	-1.032675E-2	1.413871E-3	2.110774E-3	-4.654732E-4	-6.480021E-3	1.021257E-2	-5.801598E-3	-1.012970E-3	6.842515E-3	-5.948392E-3	-9.749189E-3	-4.671874E-3	3.087802E-3	-1.580051E-3	7.166275E-3	2.148721E-3	4.646681E-3	-1.248164E-3	-3.254427E-3	-9.106848E-3	-5.674228E-3	-5.623950E-3	-5.481693E-3	-5.767384E-3	-2.642410E-3	-1.698176E-3	-2.640012E-3	-5.887629E-4	-6.891417E-3	-6.875927E-3	-4.743892E-3	-3.197181E-3	-9.558241E-4	-2.013519E-3	6.247262E-3	-2.671247E-3	1.059731E-2	-3.685594E-3	4.118508E-3	-8.769535E-3	-1.842955E-3	-6.241336E-4	-1.195117E-2	-4.668816E-3	-5.535175E-3	-6.991264E-3	-3.840868E-3	4.171141E-3	1.174603E-3	-1.636232E-3	-2.646573E-3	-6.166805E-3	-3.517417E-3	-1.613272E-2	-2.570685E-3	-3.415392E-3	1.979143E-3	-3.799341E-3	-5.713897E-3	-5.952765E-3	-5.114690E-3	-1.123402E-3	-3.466607E-3	-3.346648E-3	-8.018106E-3	-1.044675E-2	-3.367925E-3	1.556369E-3	-4.068199E-3	7.672918E-3	2.381733E-4	-6.309891E-3	4.392555E-3	-3.351061E-3	-1.024959E-2	-8.191480E-3	-9.579017E-3	-1.923449E-4	-7.920784E-3	-8.586619E-3	-4.818794E-3	-1.608373E-3	9.591793E-4	1.398555E-2	1.242839E-3	-2.019497E-3	1.309063E-3	-6.872723E-3	-2.477526E-3	-5.905540E-3	-6.848519E-3	-6.117178E-4	-3.229659E-3	3.167739E-4	-4.640291E-3	-8.665741E-3	-8.860626E-3	1.698429E-3	-5.162130E-4	-6.954965E-3	-1.177201E-2
5.315130E+2	6.394104E-3	5.647922E-3	4.718643E-3	-3.503493E-4	-4.457808E-3	-1.122656E-3	-8.295189E-4	-3.289671E-3	8.768762E-3	-1.182617E-3	3.895973E-3	6.674125E-4	-2.920652E-3	-4.436231E-3	1.111792E-3	7.136752E-3	-3.960205E-3	-4.938354E-3	3.967825E-3	2.625094E-3	2.465239E-3	-3.391940E-3	5.105007E-3	5.427535E-3	-4.655146E-3	-1.682508E-3	6.635033E-4	-1.508331E-4	3.036707E-3	-6.197280E-3	3.218330E-3	-3.737096E-3	2.148969E-4	4.378601E-3	7.652271E-4	-5.446496E-3	-2.759196E-3	-4.984306E-3	3.514620E-3	4.132861E-3	2.663372E-3	3.314536E-3	-3.083683E-3	-4.181552E-3	9.477329E-3	4.134731E-3	1.126979E-3	-4.211596E-3	1.234203E-2	4.837095E-3	5.052119E-3	-3.160085E-3	2.760544E-3	-1.715688E-3	-1.323732E-3	-1.547177E-3	-1.827609E-3	-1.411669E-4	4.695955E-3	1.243355E-3	1.010556E-2	8.182951E-4	-3.258725E-3	-4.859038E-3	1.556613E-3	6.951546E-3	2.362363E-4	1.953216E-3	6.828974E-3	5.018982E-3	-2.102982E-3	3.124853E-3	-6.303879E-5	-3.101338E-3	4.762356E-3	-6.552699E-3	1.339639E-4	-6.447092E-3	-6.733756E-3	-2.722160E-3	2.730634E-3	-4.575115E-3	-9.378152E-3	1.933918E-3	-1.614659E-3	7.657279E-3	-9.894485E-3	8.874533E-3	1.117437E-2	2.220366E-3	-1.445926E-3	-7.773860E-3	8.100912E-3	5.800350E-3	-5.047505E-3	-7.778124E-5	-1.157565E-2	3.757343E-3	5.873421E-3	-5.064544E-4	1.403543E-3	1.223621E-3	3.051937E-3	7.974519E-4	-7.883728E-3	1.048791E-2	-7.453837E-3	-6.483907E-3	-6.348220E-3	2.294863E-3	-1.150086E-2	-4.857764E-4	7.591570E-3	9.177490E-3	9.085731E-3	-3.793522E-3	1.061325E-2	-7.802394E-3	-3.375099E-3	4.473796E-3	-2.048107E-4	2.226785E-3	3.323852E-3	5.565164E-3	-1.302252E-3	4.117820E-4	3.116625E-5	-4.162656E-3	3.011188E-3	3.117920E-4	-6.093646E-4	1.199194E-2	-4.533832E-4	2.886592E-4	7.164558E-3	7.619682E-3	-3.242289E-3	-1.055032E-3	6.960165E-3	-7.267592E-3	-1.177851E-3	-6.695593E-3	-8.277403E-5	-3.496085E-4	6.534915E-3	-7.457147E-3	-8.852230E-3	5.361445E-4	2.333750E-3	8.769365E-4	1.415814E-3	8.017401E-3	5.672774E-3	2.929845E-3	-3.243670E-4	-1.281918E-4	1.456162E-3	6.685580E-3	5.484834E-3	5.247745E-3	2.495756E-3	3.220236E-3	2.766557E-3	-4.769141E-3	-2.995276E-3	1.249106E-2	1.328712E-2	-7.752440E-4	-3.772055E-4	2.714111E-4	-1.025968E-3
5.320070E+2	3.491354E-3	-7.227852E-4	1.262713E-2	5.438574E-3	1.384503E-2	-2.072172E-3	2.956646E-3	9.076569E-3	-5.952278E-3	6.262824E-3	-2.574902E-3	2.983085E-3	7.589683E-3	5.387980E-3	4.680293E-3	-1.204607E-3	2.887194E-3	2.082140E-3	3.046321E-3	5.457181E-3	2.624555E-3	2.981770E-3	7.060228E-3	7.600618E-3	1.012033E-2	-3.633360E-3	-3.484105E-3	-4.765043E-3	8.444775E-3	4.064920E-3	7.797517E-4	-4.024436E-4	3.672534E-3	1.119622E-2	-1.266614E-3	1.978727E-3	1.807203E-3	1.024146E-2	1.227254E-2	5.776750E-3	4.014595E-3	4.603091E-3	5.001319E-3	5.044732E-3	-4.004539E-3	5.418858E-3	-1.762520E-3	5.401163E-3	-1.956621E-4	6.615312E-3	-1.743919E-3	6.571579E-3	-2.012687E-3	5.297461E-3	1.068397E-2	-8.830283E-4	9.590680E-3	5.877918E-3	-6.598113E-3	6.375569E-3	3.483036E-4	4.407101E-4	3.710786E-3	6.060696E-3	1.099306E-3	-9.909409E-4	9.406107E-4	-7.598510E-4	1.016688E-3	-4.641502E-3	5.685306E-3	-8.360128E-3	8.104819E-3	1.198842E-2	1.215630E-2	-8.182452E-3	3.759792E-3	6.848364E-3	-2.195680E-3	7.772952E-3	9.814656E-4	4.466276E-4	3.949140E-3	2.634555E-3	5.881027E-3	1.883184E-3	2.520502E-3	2.020431E-3	5.684854E-4	-1.415737E-3	2.283184E-4	1.176499E-2	4.736977E-3	2.007752E-3	4.754916E-3	1.434810E-3	4.492704E-3	4.502778E-3	2.549586E-3	-4.951366E-3	3.032158E-3	1.097979E-2	-5.757476E-4	9.348478E-4	1.420318E-2	2.919311E-3	1.184418E-3	-1.639850E-3	-6.446529E-4	3.505918E-3	-3.887699E-4	-3.461825E-3	6.558715E-3	3.018352E-3	9.849495E-3	1.245799E-2	1.240848E-3	1.611135E-3	1.046433E-3	7.636761E-3	6.245789E-3	2.994218E-3	1.947289E-3	1.082261E-2	1.144897E-3	-2.081492E-3	1.771075E-3	1.116901E-2	4.397494E-3	3.276104E-3	1.426519E-3	4.079637E-4	5.003478E-3	5.969682E-3	1.988461E-3	5.473829E-3	-5.871627E-3	-2.013706E-3	1.939992E-3	4.963579E-3	-3.111718E-3	8.344267E-3	-5.596079E-3	2.685195E-3	1.185154E-2	1.266344E-2	4.903864E-3	-2.875749E-3	1.998049E-3	3.506391E-3	1.577753E-3	-3.959119E-3	2.957774E-3	-3.428867E-3	-7.493898E-4	6.015276E-4	2.157671E-3	4.705874E-3	8.790989E-3	-4.154806E-3	9.187010E-3	9.556386E-3	5.062456E-3	2.905069E-3	2.733136E-3	4.051406E-3	-4.910258E-3	6.730029E-4	4.142494E-3	9.920390E-3	-1.152392E-2
5.325170E+2	1.212611E-2	6.503380E-3	1.166367E-2	1.466311E-2	1.064040E-3	5.635587E-3	9.884153E-3	3.800967E-3	7.321563E-3	1.009770E-2	1.993329E-3	1.049522E-2	9.370323E-3	7.153798E-3	2.878192E-3	4.704600E-3	2.470278E-3	6.806394E-3	1.343610E-2	1.148778E-2	2.295933E-3	7.932043E-3	9.342917E-4	1.127359E-2	8.575560E-3	1.049854E-2	1.324866E-2	1.504421E-2	-9.283514E-4	1.080462E-2	5.550330E-3	7.948753E-3	1.157670E-2	-9.375545E-4	5.391848E-3	6.614201E-3	1.380478E-2	1.394276E-2	1.148488E-2	-3.911344E-3	1.731401E-3	9.390589E-3	1.027314E-2	7.576397E-3	1.374406E-2	8.420331E-3	1.604833E-2	1.596230E-2	1.317935E-2	1.882662E-2	4.759224E-3	8.525040E-3	-4.065903E-4	8.202987E-3	1.608239E-2	1.150666E-2	-3.851897E-4	1.353577E-2	1.870200E-2	2.205415E-3	5.980407E-3	6.747652E-3	4.906283E-3	2.933917E-3	1.385793E-2	8.389031E-3	9.868659E-3	1.090536E-3	9.144195E-3	1.267735E-2	1.493718E-2	9.753203E-3	7.658722E-3	9.908529E-3	7.828606E-3	1.794327E-4	9.740772E-3	1.105002E-2	1.221249E-2	1.316018E-2	7.314910E-3	1.721316E-2	1.673120E-2	4.482437E-3	4.962799E-3	3.620151E-3	1.843247E-2	8.172685E-3	6.070569E-3	1.685843E-2	9.113218E-3	1.370073E-2	5.375750E-3	9.210204E-3	1.500635E-2	1.610764E-2	1.205314E-2	8.870768E-3	6.129277E-3	1.790738E-2	1.516793E-2	6.368403E-3	8.360570E-3	4.792511E-3	6.313822E-4	3.054465E-3	7.335074E-3	1.729889E-2	1.061535E-2	1.153021E-2	9.036370E-3	1.556492E-2	8.473465E-3	1.060662E-2	1.274530E-3	1.086957E-2	1.052128E-2	1.448522E-2	7.374916E-3	7.794445E-3	3.445385E-3	4.932387E-3	1.040948E-2	1.353669E-2	8.246502E-3	6.560270E-3	7.726656E-3	1.287638E-2	9.490566E-3	1.633123E-2	5.977603E-3	1.486868E-2	1.820086E-2	1.267819E-2	1.583173E-2	2.077763E-2	9.249610E-3	1.802659E-2	6.124406E-3	7.542813E-3	1.707345E-2	6.493875E-3	4.351313E-3	1.291769E-2	1.718568E-2	1.416982E-2	1.641331E-2	1.754801E-2	5.257173E-3	7.123302E-3	6.333604E-3	6.780382E-3	8.321608E-3	-9.187246E-4	6.235249E-3	1.554325E-2	1.578315E-2	2.700178E-3	4.745850E-3	1.476448E-2	1.724273E-3	4.769867E-3	5.745908E-3	2.341489E-2	1.662890E-2	1.323636E-3	1.692364E-2	4.747618E-3	1.392980E-2	5.322539E-3	4.841112E-2
5.330280E+2	2.809036E-2	2.265739E-2	1.401958E-2	1.960118E-2	2.541728E-2	1.554673E-2	1.160724E-2	2.869896E-2	3.307456E-2	2.711508E-2	9.405899E-3	2.671669E-2	1.609085E-2	1.597555E-2	2.024247E-2	1.699326E-2	1.960211E-2	3.004855E-2	7.641152E-3	2.157790E-2	2.651580E-2	1.870401E-2	2.676853E-2	1.480901E-2	1.887244E-2	2.320361E-2	3.717011E-2	2.626691E-2	2.493029E-2	1.555697E-2	2.179429E-2	3.576557E-2	1.123758E-2	3.829721E-2	1.591453E-2	1.443419E-2	2.092086E-2	2.424620E-2	2.464747E-2	2.972222E-2	1.225057E-2	2.180211E-2	2.645085E-2	2.127313E-2	1.450209E-2	6.831971E-3	4.154930E-2	1.929592E-2	5.907158E-3	3.220440E-2	3.048242E-2	2.071556E-2	2.593997E-2	2.221093E-2	1.435847E-2	2.823864E-2	1.050179E-2	1.047013E-2	1.484583E-2	3.084981E-2	2.271008E-2	3.580583E-2	8.217296E-3	2.944609E-2	2.035551E-2	2.188186E-2	2.826881E-2	2.479634E-2	2.735245E-2	4.144652E-2	3.051793E-2	2.212533E-2	1.762591E-2	1.785712E-2	3.039103E-2	2.206330E-2	2.633638E-2	2.599401E-2	2.721328E-2	1.960402E-2	1.557386E-2	1.985729E-2	2.476393E-2	1.430280E-2	2.629763E-2	1.619794E-2	1.024057E-2	2.494238E-2	1.283163E-2	3.147208E-2	1.911064E-2	1.392092E-2	3.520629E-2	3.029825E-2	3.066503E-2	1.111492E-2	3.056354E-2	2.239433E-2	1.959442E-2	1.703342E-2	1.802998E-2	2.091186E-2	2.272062E-2	3.279323E-2	2.712642E-2	2.890469E-2	1.551809E-2	1.753703E-2	1.989512E-2	1.850368E-2	2.543186E-2	1.991416E-2	2.045257E-2	2.828315E-2	1.539692E-2	2.287473E-2	2.124786E-2	2.591000E-2	2.082511E-2	3.080036E-2	1.596591E-2	2.646615E-2	2.304418E-2	2.775805E-2	1.478005E-2	2.800273E-2	2.318552E-2	1.455290E-2	1.891669E-2	1.535473E-2	1.935781E-2	2.432211E-2	2.418159E-2	2.845885E-2	1.697801E-2	1.336534E-2	3.165085E-2	2.705679E-2	2.013766E-2	1.801392E-2	1.196971E-2	2.621792E-2	2.623270E-2	2.509941E-2	3.353730E-2	1.993543E-2	2.717060E-2	2.247902E-2	2.554259E-2	3.302988E-2	2.391960E-2	4.783256E-2	2.478701E-2	2.656577E-2	1.894535E-2	2.815128E-2	1.922540E-2	3.692857E-2	2.224318E-2	1.783826E-2	9.528268E-3	2.289244E-2	2.578621E-2	3.406751E-2	2.719578E-2	4.097879E-2	2.173743E-2	2.395648E-2	1.772449E-2	2.572479E-2	1.867399E-2
5.331580E+2	2.214071E-2	2.816680E-2	2.754941E-2	2.854677E-2	2.675188E-2	3.148925E-2	2.278182E-2	2.718755E-2	2.631857E-2	1.992590E-2	3.623690E-2	3.844058E-2	2.729587E-2	3.187181E-2	2.386680E-2	3.447862E-2	2.710866E-2	2.673768E-2	2.350480E-2	1.888640E-2	2.910431E-2	3.532472E-2	3.691211E-2	2.825163E-2	3.190137E-2	3.437185E-2	2.015642E-2	2.847699E-2	3.006760E-2	1.930315E-2	3.603189E-2	3.062575E-2	3.211265E-2	2.504762E-2	1.880861E-2	1.747885E-2	2.212330E-2	1.785973E-2	3.353476E-2	3.368696E-2	2.633322E-2	3.375616E-2	2.272751E-2	2.412038E-2	1.661310E-2	2.834633E-2	3.319150E-2	3.671320E-2	3.541584E-2	2.688351E-2	1.379133E-2	2.420878E-2	2.230103E-2	3.029527E-2	3.373102E-2	4.275350E-2	2.939013E-2	2.853161E-2	2.377953E-2	3.152473E-2	3.324586E-2	2.881214E-2	3.121992E-2	2.817833E-2	3.451954E-2	1.858909E-2	1.609797E-2	2.334911E-2	2.211187E-2	3.282550E-2	3.415537E-2	4.261647E-2	1.802105E-2	2.423443E-2	3.853111E-2	2.340764E-2	2.491053E-2	3.336645E-2	3.636417E-2	2.838734E-2	2.016387E-2	2.508841E-2	1.893308E-2	2.814420E-2	2.654480E-2	2.832910E-2	2.779605E-2	2.668442E-2	2.869461E-2	2.797271E-2	2.502198E-2	2.346694E-2	3.454875E-2	3.828349E-2	2.676817E-2	1.953531E-2	2.391698E-2	3.173073E-2	3.141100E-2	1.550213E-2	3.243378E-2	2.930507E-2	2.587979E-2	2.338637E-2	2.861685E-2	2.920585E-2	3.649262E-2	2.480754E-2	3.642249E-2	3.183913E-2	2.910137E-2	1.692640E-2	3.548942E-2	2.047928E-2	1.905843E-2	2.854359E-2	3.108406E-2	2.512849E-2	3.720947E-2	3.399268E-2	2.737608E-2	1.625585E-3	3.418638E-2	3.370466E-2	2.657304E-2	3.300655E-2	3.609337E-2	2.441721E-2	2.777111E-2	2.171157E-2	3.850840E-2	3.260667E-2	2.582853E-2	2.764680E-2	3.287600E-2	2.756394E-2	3.352802E-2	4.447389E-2	2.437694E-2	1.880073E-2	1.162911E-2	3.211386E-2	1.760702E-2	2.385873E-2	1.237329E-2	2.508035E-2	3.352211E-2	1.905730E-2	4.064146E-2	4.318317E-2	3.492607E-2	3.051515E-2	2.439518E-2	2.975338E-2	2.773074E-2	3.132842E-2	3.837687E-2	3.228306E-2	2.507024E-2	1.900772E-2	2.779183E-2	2.182927E-2	2.543166E-2	4.244416E-2	2.697557E-2	3.735357E-2	2.055914E-2	3.074977E-2	4.002658E-2	1.874945E-2	1.701318E-3
5.333130E+2	5.226724E-2	4.146929E-2	3.668327E-2	3.038956E-2	2.988055E-2	3.114637E-2	3.980717E-2	4.934725E-2	3.405797E-2	3.592555E-2	4.368050E-2	5.118652E-2	4.542110E-2	3.859125E-2	3.738366E-2	4.381553E-2	3.408298E-2	4.548694E-2	3.456225E-2	4.568161E-2	4.258746E-2	4.524302E-2	4.348721E-2	4.185074E-2	3.783570E-2	5.132066E-2	3.654407E-2	3.960956E-2	3.668306E-2	4.662685E-2	4.718913E-2	4.596066E-2	3.287223E-2	2.578123E-2	2.666135E-2	3.212259E-2	4.373347E-2	4.345170E-2	4.245727E-2	3.915327E-2	4.981786E-2	3.687858E-2	6.088702E-2	3.205338E-2	5.245476E-2	2.738653E-2	3.544188E-2	3.977133E-2	3.027841E-2	5.304797E-2	3.147670E-2	2.873377E-2	5.090068E-2	4.304050E-2	3.059581E-2	4.143772E-2	3.520122E-2	3.633664E-2	4.884241E-2	4.969586E-2	4.806357E-2	4.667624E-2	3.677258E-2	3.838170E-2	4.460371E-2	3.858415E-2	3.933074E-2	3.358220E-2	3.350630E-2	3.504823E-2	4.216157E-2	4.072496E-2	4.818334E-2	3.574500E-2	3.102081E-2	3.554306E-2	3.261377E-2	4.541519E-2	3.119693E-2	3.555289E-2	4.302883E-2	4.711339E-2	3.733166E-2	4.357937E-2	3.904833E-2	3.834517E-2	4.149141E-2	3.903708E-2	4.337198E-2	3.913200E-2	4.041891E-2	3.690462E-2	4.475411E-2	4.298058E-2	4.294537E-2	3.836473E-2	3.631763E-2	5.948389E-2	2.872884E-2	4.448775E-2	3.627848E-2	4.416798E-2	3.387856E-2	4.896718E-2	5.617160E-2	4.377150E-2	4.408968E-2	4.122113E-2	4.064809E-2	3.679416E-2	2.112954E-2	4.207240E-2	3.868318E-2	3.402466E-2	4.446996E-2	4.301697E-2	3.664617E-2	2.633564E-2	3.316807E-2	3.177762E-2	4.293134E-2	2.684086E-2	5.216779E-2	3.580885E-2	5.299836E-2	2.678942E-2	4.799246E-2	2.717851E-2	3.668933E-2	3.715509E-2	5.522134E-2	2.969030E-2	4.210256E-2	5.166974E-2	5.379078E-2	3.713546E-2	4.492286E-2	3.690112E-2	4.373783E-2	4.279191E-2	3.943804E-2	3.441053E-2	4.538483E-2	4.003352E-2	3.332242E-2	5.047336E-2	3.679035E-2	3.185881E-2	3.934448E-2	4.443145E-2	3.876193E-2	2.485646E-2	4.144493E-2	4.131865E-2	3.483188E-2	2.377449E-2	3.916897E-2	3.795339E-2	4.273767E-2	4.639127E-2	4.064741E-2	2.948731E-2	4.077068E-2	5.087304E-2	4.674570E-2	3.420157E-2	3.799193E-2	5.476331E-2	4.115572E-2	3.692377E-2	2.984332E-2
5.334630E+2	5.492955E-2	6.258684E-2	4.080739E-2	4.823326E-2	5.856330E-2	5.159595E-2	5.163322E-2	5.221070E-2	5.258424E-2	3.930432E-2	4.948013E-2	6.351143E-2	5.568556E-2	3.988316E-2	6.034624E-2	4.623514E-2	4.733221E-2	6.315096E-2	4.239310E-2	5.272373E-2	5.899116E-2	6.250460E-2	4.782846E-2	5.008089E-2	5.763571E-2	4.788262E-2	4.324239E-2	6.070857E-2	6.317689E-2	3.812261E-2	3.697238E-2	5.513394E-2	5.274158E-2	5.352880E-2	6.534629E-2	4.905961E-2	6.594972E-2	3.911510E-2	5.335708E-2	5.250592E-2	3.837587E-2	5.824676E-2	4.787972E-2	7.056524E-2	6.192382E-2	5.309533E-2	5.302614E-2	4.802108E-2	5.245260E-2	5.662164E-2	4.105087E-2	5.409037E-2	6.912852E-2	4.700548E-2	5.778173E-2	6.924343E-2	5.545597E-2	4.415071E-2	4.444629E-2	4.554836E-2	5.782831E-2	6.098461E-2	6.152537E-2	6.563014E-2	4.366632E-2	5.809008E-2	5.080617E-2	4.704115E-2	6.052522E-2	6.559037E-2	5.163396E-2	5.229105E-2	6.078517E-2	4.945193E-2	5.216023E-2	5.747277E-2	6.319698E-2	6.263184E-2	5.485026E-2	5.404116E-2	6.028516E-2	5.920476E-2	8.269088E-2	5.344607E-2	6.069315E-2	5.930715E-2	4.724269E-2	5.787901E-2	4.940339E-2	5.585487E-2	5.071504E-2	6.369046E-2	5.422135E-2	5.763871E-2	5.558723E-2	5.723712E-2	4.118823E-2	5.983938E-2	6.639480E-2	6.344823E-2	5.150005E-2	6.843448E-2	5.239304E-2	4.832246E-2	6.291979E-2	6.735365E-2	5.623512E-2	4.576479E-2	5.306834E-2	5.238537E-2	5.471653E-2	6.761564E-2	5.695730E-2	4.441269E-2	4.707351E-2	5.789819E-2	5.396560E-2	6.212183E-2	5.308172E-2	4.792955E-2	4.548829E-2	5.765505E-2	5.042789E-2	5.927876E-2	7.810058E-2	6.884499E-2	4.187751E-2	3.341031E-2	6.136378E-2	4.360450E-2	4.024007E-2	5.694275E-2	5.458897E-2	4.636659E-2	6.545156E-2	5.574111E-2	4.636679E-2	5.332082E-2	4.629314E-2	5.824245E-2	6.370096E-2	4.607006E-2	5.397128E-2	7.189667E-2	4.918742E-2	5.451981E-2	5.071704E-2	5.615270E-2	5.458943E-2	5.618728E-2	4.986160E-2	6.788007E-2	5.682482E-2	4.273766E-2	6.209800E-2	4.845271E-2	6.171970E-2	6.710247E-2	4.933801E-2	5.446720E-2	5.137506E-2	5.467482E-2	6.540193E-2	6.522553E-2	5.889162E-2	5.922417E-2	5.458708E-2	5.502229E-2	7.242217E-2	5.277077E-2	5.810994E-2
5.336080E+2	9.813027E-2	7.482133E-2	5.899414E-2	5.843258E-2	7.963840E-2	5.842448E-2	7.093099E-2	6.417494E-2	6.992175E-2	5.595871E-2	5.699096E-2	7.154475E-2	7.236475E-2	5.922420E-2	4.476386E-2	6.393682E-2	5.723179E-2	8.380868E-2	6.665075E-2	7.919979E-2	7.547463E-2	7.155902E-2	8.087505E-2	6.339234E-2	7.809569E-2	8.598250E-2	8.475939E-2	7.300902E-2	7.096737E-2	7.127693E-2	7.645932E-2	6.658424E-2	6.029044E-2	6.391200E-2	8.160705E-2	7.445226E-2	7.274296E-2	6.691183E-2	7.014460E-2	8.999738E-2	6.198180E-2	6.850419E-2	7.238666E-2	6.917721E-2	7.778121E-2	7.542502E-2	7.939050E-2	7.139525E-2	5.376185E-2	7.630245E-2	6.649373E-2	1.042007E-1	7.291846E-2	8.176810E-2	7.832346E-2	6.510376E-2	7.395306E-2	7.375609E-2	6.150338E-2	5.294893E-2	8.220927E-2	7.011756E-2	5.858440E-2	6.179536E-2	8.813342E-2	7.706538E-2	7.954975E-2	7.380786E-2	6.941598E-2	8.031164E-2	8.642563E-2	8.305598E-2	5.864679E-2	6.263725E-2	7.564855E-2	7.999702E-2	8.850380E-2	8.452229E-2	7.459629E-2	8.121407E-2	5.982619E-2	5.985835E-2	6.152141E-2	7.450114E-2	7.268971E-2	6.008491E-2	6.448424E-2	6.677907E-2	6.718433E-2	7.495526E-2	5.868997E-2	7.023256E-2	7.166893E-2	8.005281E-2	8.384548E-2	7.528941E-2	7.325370E-2	7.407628E-2	7.358745E-2	6.925502E-2	6.867919E-2	7.519909E-2	7.798411E-2	6.961712E-2	7.924133E-2	8.034720E-2	6.765526E-2	7.104754E-2	6.780866E-2	7.552417E-2	6.324569E-2	6.849884E-2	8.846477E-2	7.692935E-2	6.387093E-2	8.918495E-2	8.264631E-2	6.547015E-2	7.362631E-2	7.580255E-2	7.189536E-2	7.785426E-2	8.447236E-2	7.999935E-2	7.339346E-2	7.189149E-2	7.636225E-2	6.716056E-2	6.866385E-2	7.396909E-2	6.027938E-2	6.180271E-2	7.759790E-2	7.521460E-2	7.773415E-2	6.131934E-2	7.698122E-2	7.726867E-2	9.119564E-2	6.708671E-2	7.045688E-2	7.977148E-2	7.058925E-2	6.858828E-2	7.839613E-2	7.255096E-2	7.825351E-2	7.853248E-2	6.124079E-2	6.755159E-2	7.613772E-2	8.058875E-2	7.722714E-2	7.136458E-2	5.966110E-2	8.260551E-2	6.515710E-2	6.689883E-2	7.360835E-2	7.302258E-2	6.065886E-2	5.622531E-2	7.663351E-2	9.181144E-2	7.838637E-2	8.490441E-2	8.629760E-2	7.742874E-2	7.813252E-2	7.716211E-2	5.191531E-2
5.337630E+2	1.095977E-1	1.081410E-1	9.640543E-2	1.235641E-1	1.079853E-1	9.387916E-2	1.099376E-1	9.052726E-2	9.433128E-2	8.067715E-2	8.474915E-2	1.000318E-1	1.077822E-1	8.360790E-2	9.969205E-2	9.400555E-2	9.345484E-2	1.186040E-1	1.041666E-1	1.094907E-1	9.205049E-2	9.337869E-2	9.766700E-2	1.016320E-1	9.808020E-2	1.005544E-1	1.008932E-1	1.194931E-1	1.009123E-1	9.531539E-2	1.025092E-1	1.180097E-1	9.781660E-2	1.156153E-1	1.051328E-1	1.010835E-1	8.610173E-2	9.793543E-2	1.016448E-1	1.004957E-1	9.682659E-2	9.891902E-2	1.097712E-1	1.113192E-1	1.076422E-1	9.204534E-2	9.356986E-2	9.632626E-2	9.170527E-2	1.010895E-1	9.148337E-2	1.034350E-1	9.280450E-2	1.027060E-1	9.320163E-2	1.007223E-1	9.683579E-2	9.370695E-2	1.071746E-1	1.029872E-1	8.871800E-2	1.070277E-1	1.059907E-1	1.076309E-1	1.053819E-1	9.674240E-2	1.048735E-1	1.029494E-1	9.717687E-2	1.001425E-1	9.265524E-2	1.079247E-1	1.021073E-1	8.776835E-2	9.699123E-2	1.171999E-1	1.013859E-1	1.019043E-1	1.114945E-1	8.564221E-2	9.933914E-2	1.157895E-1	1.016231E-1	1.025845E-1	1.105454E-1	8.948724E-2	8.635461E-2	1.057038E-1	9.377223E-2	9.173997E-2	1.067037E-1	8.832381E-2	1.046420E-1	1.069061E-1	1.070105E-1	1.010544E-1	1.101069E-1	8.602588E-2	9.560086E-2	1.198989E-1	8.695340E-2	1.049384E-1	1.027114E-1	1.157369E-1	1.199298E-1	1.083163E-1	1.033131E-1	1.053837E-1	1.025600E-1	8.281907E-2	8.592975E-2	1.023107E-1	9.364035E-2	1.101579E-1	1.067723E-1	1.056434E-1	9.428712E-2	1.015998E-1	8.702968E-2	9.482788E-2	9.440071E-2	9.990514E-2	1.128574E-1	1.017896E-1	1.067481E-1	9.709230E-2	1.078028E-1	1.060936E-1	1.167462E-1	1.044837E-1	1.002279E-1	7.476896E-2	1.064863E-1	1.164664E-1	1.079431E-1	9.614134E-2	1.233990E-1	9.616584E-2	7.866643E-2	9.582595E-2	9.610169E-2	9.899284E-2	1.092808E-1	1.048198E-1	9.118488E-2	1.071716E-1	1.076769E-1	9.209868E-2	9.077957E-2	1.015920E-1	9.942131E-2	1.048991E-1	7.989875E-2	1.115995E-1	1.006864E-1	9.352535E-2	1.092138E-1	9.247885E-2	1.054961E-1	1.004924E-1	9.381444E-2	9.543245E-2	1.042714E-1	1.026069E-1	1.106225E-1	9.364548E-2	9.288074E-2	1.276329E-1	1.207977E-1	1.103255E-1	1.045037E-1
5.339090E+2	1.533038E-1	1.351264E-1	1.262580E-1	1.369479E-1	1.444029E-1	1.550553E-1	1.450533E-1	1.419852E-1	1.547537E-1	1.440420E-1	1.284901E-1	1.516710E-1	1.449386E-1	1.472219E-1	1.380836E-1	1.489546E-1	1.416670E-1	1.325964E-1	1.332340E-1	1.490521E-1	1.525349E-1	1.379910E-1	1.623366E-1	1.448833E-1	1.270452E-1	1.491871E-1	1.619947E-1	1.594876E-1	1.644465E-1	1.646243E-1	1.530405E-1	1.730321E-1	1.386537E-1	1.422018E-1	1.405490E-1	1.566491E-1	1.465383E-1	1.497766E-1	1.481005E-1	1.464275E-1	1.381504E-1	1.414561E-1	1.654741E-1	1.593989E-1	1.431255E-1	1.474368E-1	1.604565E-1	1.557021E-1	1.532600E-1	1.506859E-1	1.473749E-1	1.287013E-1	1.526865E-1	1.736319E-1	1.743381E-1	1.483440E-1	1.499225E-1	1.412200E-1	1.677887E-1	1.356780E-1	1.676057E-1	1.379891E-1	1.559364E-1	1.741860E-1	1.427309E-1	1.390019E-1	1.393812E-1	1.317988E-1	1.568102E-1	1.718137E-1	1.533445E-1	1.484168E-1	1.500469E-1	1.505236E-1	1.824314E-1	1.406695E-1	1.492317E-1	1.547095E-1	1.648125E-1	1.560899E-1	1.468285E-1	1.562200E-1	1.396309E-1	1.321085E-1	1.416036E-1	1.720022E-1	1.501960E-1	1.580284E-1	1.715447E-1	1.757490E-1	1.503570E-1	1.619545E-1	1.384772E-1	1.600970E-1	1.651696E-1	1.552504E-1	1.612617E-1	1.585856E-1	1.478491E-1	1.564250E-1	1.599406E-1	1.624777E-1	1.596431E-1	1.358077E-1	1.614406E-1	1.620118E-1	1.615415E-1	1.416535E-1	1.635067E-1	1.565611E-1	1.572620E-1	1.592061E-1	1.509008E-1	1.361626E-1	1.459020E-1	1.568389E-1	1.606095E-1	1.690348E-1	1.461391E-1	1.561025E-1	1.372761E-1	1.469985E-1	1.818397E-1	1.569668E-1	1.711724E-1	1.577938E-1	1.637666E-1	1.637993E-1	1.627028E-1	1.404526E-1	1.379608E-1	1.611053E-1	1.455724E-1	1.647926E-1	1.669328E-1	1.708049E-1	1.434080E-1	1.677522E-1	1.556402E-1	1.391239E-1	1.501030E-1	1.504948E-1	1.715547E-1	1.438032E-1	1.554281E-1	1.695209E-1	1.519112E-1	1.558528E-1	1.644052E-1	1.581754E-1	1.558677E-1	1.548509E-1	1.540074E-1	1.527163E-1	1.524590E-1	1.631590E-1	1.600274E-1	1.596032E-1	1.360519E-1	1.583524E-1	1.522478E-1	1.406407E-1	1.622975E-1	1.656319E-1	1.477367E-1	1.712313E-1	1.571052E-1	1.581668E-1	1.303923E-1	1.570144E-1	1.595282E-1
5.340690E+2	2.743895E-1	2.634856E-1	2.296633E-1	2.650567E-1	2.540486E-1	2.445968E-1	2.628681E-1	2.630639E-1	2.664316E-1	2.557000E-1	2.524485E-1	2.464490E-1	2.461151E-1	2.479050E-1	2.480026E-1	2.886156E-1	2.587092E-1	2.663966E-1	2.735322E-1	2.531939E-1	2.502185E-1	2.505858E-1	2.576000E-1	2.662664E-1	2.760725E-1	2.568054E-1	2.474024E-1	2.871471E-1	2.676507E-1	2.492002E-1	2.644307E-1	2.688121E-1	2.681342E-1	2.540607E-1	2.677473E-1	2.574563E-1	2.698550E-1	2.615652E-1	2.623571E-1	2.512675E-1	2.721922E-1	2.488751E-1	2.632674E-1	2.636526E-1	2.652924E-1	2.638801E-1	2.745605E-1	2.666745E-1	2.645020E-1	2.575242E-1	2.490006E-1	2.475666E-1	2.663679E-1	2.509823E-1	2.694707E-1	2.500621E-1	2.511342E-1	2.679075E-1	2.484618E-1	2.434727E-1	2.517181E-1	2.599711E-1	2.717127E-1	2.673603E-1	2.626125E-1	3.035432E-1	2.422302E-1	2.320455E-1	2.448364E-1	2.538422E-1	2.353595E-1	2.488449E-1	2.588495E-1	2.379276E-1	2.618815E-1	2.628458E-1	2.485222E-1	2.622367E-1	2.762754E-1	2.421945E-1	2.528402E-1	2.340486E-1	2.527027E-1	2.713007E-1	2.769975E-1	2.800994E-1	2.581615E-1	2.497824E-1	2.754523E-1	2.619902E-1	2.695635E-1	2.771994E-1	2.638951E-1	2.545051E-1	2.753981E-1	2.676544E-1	2.295410E-1	2.573983E-1	2.716829E-1	2.666404E-1	2.736695E-1	2.798517E-1	2.527573E-1	2.696659E-1	2.650132E-1	2.829496E-1	2.943257E-1	2.621936E-1	2.741471E-1	2.782140E-1	2.666238E-1	2.819959E-1	2.597349E-1	2.498962E-1	2.605828E-1	2.509184E-1	2.743534E-1	2.536469E-1	2.461900E-1	2.545470E-1	2.638428E-1	2.480966E-1	2.637341E-1	2.442835E-1	2.506211E-1	2.734767E-1	2.742452E-1	2.698765E-1	2.700090E-1	2.485660E-1	2.458322E-1	2.659246E-1	2.737365E-1	2.574246E-1	2.585896E-1	2.506004E-1	2.497253E-1	2.841892E-1	2.499744E-1	2.736771E-1	2.675367E-1	2.552581E-1	2.471520E-1	2.873325E-1	2.435272E-1	2.543570E-1	2.722971E-1	2.697593E-1	2.733473E-1	2.599207E-1	2.601035E-1	2.610610E-1	2.634741E-1	2.478842E-1	2.381804E-1	2.647238E-1	2.574038E-1	2.456744E-1	2.616577E-1	2.544575E-1	2.599433E-1	2.540680E-1	2.616106E-1	2.523801E-1	2.565394E-1	2.515757E-1	2.920281E-1	2.617864E-1	2.754048E-1	2.634109E-1	2.671219E-1
5.342040E+2	4.667391E-1	4.583921E-1	4.583013E-1	4.166824E-1	4.784286E-1	4.643444E-1	4.582288E-1	4.610690E-1	4.556228E-1	4.333991E-1	4.613264E-1	4.784186E-1	4.889667E-1	4.409217E-1	4.517426E-1	4.626183E-1	4.645349E-1	4.685853E-1	4.691353E-1	4.458407E-1	4.555939E-1	4.530302E-1	4.649316E-1	4.487681E-1	4.707894E-1	4.096798E-1	4.530183E-1	4.842846E-1	4.938113E-1	4.354918E-1	4.748418E-1	4.347899E-1	4.153043E-1	4.542100E-1	4.590898E-1	4.847305E-1	4.779718E-1	4.565955E-1	4.751292E-1	4.657958E-1	4.479523E-1	4.342242E-1	4.416025E-1	4.404380E-1	4.620932E-1	4.724826E-1	4.601795E-1	4.503887E-1	4.136516E-1	4.625714E-1	4.513875E-1	4.493361E-1	4.870511E-1	4.482673E-1	4.360497E-1	4.719572E-1	4.686136E-1	4.662193E-1	4.850159E-1	4.321336E-1	4.850152E-1	4.849307E-1	4.610116E-1	4.520566E-1	4.378384E-1	4.796168E-1	4.435283E-1	4.938871E-1	4.733831E-1	4.598593E-1	4.512951E-1	4.628418E-1	5.175366E-1	4.380325E-1	4.523508E-1	4.149780E-1	4.822845E-1	4.713615E-1	4.914618E-1	4.576810E-1	4.230972E-1	4.648567E-1	4.793281E-1	4.363105E-1	4.795869E-1	4.551794E-1	4.618172E-1	4.642177E-1	4.651445E-1	4.487179E-1	4.496708E-1	4.759035E-1	4.737215E-1	4.872334E-1	4.730584E-1	4.449545E-1	4.329905E-1	4.625578E-1	4.516297E-1	4.191731E-1	4.600043E-1	4.702651E-1	4.605115E-1	4.371513E-1	4.777454E-1	4.436591E-1	4.282275E-1	4.456985E-1	4.514679E-1	4.483932E-1	4.423736E-1	4.657472E-1	4.128052E-1	4.631370E-1	4.449978E-1	4.267509E-1	4.721241E-1	4.284986E-1	4.592369E-1	4.364689E-1	4.667775E-1	4.803137E-1	4.478578E-1	4.383889E-1	4.655286E-1	4.655109E-1	4.556024E-1	4.709086E-1	4.817490E-1	4.863713E-1	4.632043E-1	4.752075E-1	4.854718E-1	4.619700E-1	4.727169E-1	4.901713E-1	4.311770E-1	4.664570E-1	4.317759E-1	4.718041E-1	4.637769E-1	4.614703E-1	4.672904E-1	4.578918E-1	4.634500E-1	4.740485E-1	4.861936E-1	4.635540E-1	4.521501E-1	4.561505E-1	4.699455E-1	4.336351E-1	4.236471E-1	4.676948E-1	4.407883E-1	4.363234E-1	4.801508E-1	4.749800E-1	4.401728E-1	4.997897E-1	4.588631E-1	4.597874E-1	4.709453E-1	4.824827E-1	4.735024E-1	4.606948E-1	4.453166E-1	4.445302E-1	4.763955E-1	4.765341E-1	4.869819E-1
5.343600E+2	8.517458E-1	7.718082E-1	7.892046E-1	7.696167E-1	8.352087E-1	8.546948E-1	7.976649E-1	7.901084E-1	8.685467E-1	7.610637E-1	8.209833E-1	8.174104E-1	7.593291E-1	8.139397E-1	7.812759E-1	8.212164E-1	7.779514E-1	8.455853E-1	8.306614E-1	7.928033E-1	8.011565E-1	7.818971E-1	8.035948E-1	8.087802E-1	7.702334E-1	8.163222E-1	8.344569E-1	8.350289E-1	8.449746E-1	7.783193E-1	8.294028E-1	8.198851E-1	7.920142E-1	7.880201E-1	8.319749E-1	8.449937E-1	7.832789E-1	7.976196E-1	8.220769E-1	8.061021E-1	8.107659E-1	7.996761E-1	7.890262E-1	8.016530E-1	7.979083E-1	8.229946E-1	7.794006E-1	8.421467E-1	7.909529E-1	8.287858E-1	7.807438E-1	7.914918E-1	8.031488E-1	8.050497E-1	8.264314E-1	8.308606E-1	8.275261E-1	8.312184E-1	8.122712E-1	8.130704E-1	8.083157E-1	8.158573E-1	8.229342E-1	8.052442E-1	7.772881E-1	8.137355E-1	7.799007E-1	8.011056E-1	8.100146E-1	8.105572E-1	8.144538E-1	8.218909E-1	7.983804E-1	8.099881E-1	8.253297E-1	8.000028E-1	8.511696E-1	8.027405E-1	7.924141E-1	8.266456E-1	7.888151E-1	8.038004E-1	8.380810E-1	7.923242E-1	7.612779E-1	8.351729E-1	8.425258E-1	8.093125E-1	8.511681E-1	8.292876E-1	7.828008E-1	8.038539E-1	8.040383E-1	8.319468E-1	8.474021E-1	8.153500E-1	8.248161E-1	8.566110E-1	7.986465E-1	8.379631E-1	8.157615E-1	8.329752E-1	8.155176E-1	8.039500E-1	8.243918E-1	8.141671E-1	8.056630E-1	8.142609E-1	7.960495E-1	7.893285E-1	8.546199E-1	8.137528E-1	8.272400E-1	7.921338E-1	7.697986E-1	8.095397E-1	8.077302E-1	8.337843E-1	8.185537E-1	8.107160E-1	8.106786E-1	8.427994E-1	8.114505E-1	8.409276E-1	7.902018E-1	8.531565E-1	8.434227E-1	7.933921E-1	7.683830E-1	8.142643E-1	7.890818E-1	7.788971E-1	8.258036E-1	7.914283E-1	8.108602E-1	8.245947E-1	7.607885E-1	7.975297E-1	7.949000E-1	8.318770E-1	8.576771E-1	8.320329E-1	8.046623E-1	8.159625E-1	8.659870E-1	8.309702E-1	8.171263E-1	8.267535E-1	7.978329E-1	7.746893E-1	8.064166E-1	8.018357E-1	8.090246E-1	8.157489E-1	8.137991E-1	7.881476E-1	7.965319E-1	8.496861E-1	8.237388E-1	8.394119E-1	7.992032E-1	7.917590E-1	8.414088E-1	7.680504E-1	8.120645E-1	8.086176E-1	8.407655E-1	7.863362E-1	7.954817E-1	8.435581E-1	8.944414E-1
5.345110E+2	1.322098E+0	1.162208E+0	1.183985E+0	1.151386E+0	1.237342E+0	1.194666E+0	1.230246E+0	1.262010E+0	1.251027E+0	1.223412E+0	1.203387E+0	1.210256E+0	1.183797E+0	1.234665E+0	1.224065E+0	1.250326E+0	1.197035E+0	1.260472E+0	1.189626E+0	1.246489E+0	1.209515E+0	1.209688E+0	1.211528E+0	1.240333E+0	1.164547E+0	1.252477E+0	1.216273E+0	1.282291E+0	1.228722E+0	1.253345E+0	1.247176E+0	1.264640E+0	1.206574E+0	1.255216E+0	1.255706E+0	1.201092E+0	1.219045E+0	1.223820E+0	1.240405E+0	1.232859E+0	1.183665E+0	1.231723E+0	1.236859E+0	1.244157E+0	1.200939E+0	1.229504E+0	1.269505E+0	1.233113E+0	1.215512E+0	1.261564E+0	1.248407E+0	1.196641E+0	1.233127E+0	1.250905E+0	1.212218E+0	1.193013E+0	1.249645E+0	1.234811E+0	1.243448E+0	1.178627E+0	1.211508E+0	1.230717E+0	1.253651E+0	1.232225E+0	1.258396E+0	1.193712E+0	1.197307E+0	1.220131E+0	1.229779E+0	1.206810E+0	1.230340E+0	1.200395E+0	1.272390E+0	1.235397E+0	1.262526E+0	1.177145E+0	1.189266E+0	1.265956E+0	1.219744E+0	1.284692E+0	1.213389E+0	1.237989E+0	1.234848E+0	1.248647E+0	1.228666E+0	1.237350E+0	1.298043E+0	1.186812E+0	1.243936E+0	1.278148E+0	1.178046E+0	1.120108E+0	1.238329E+0	1.197947E+0	1.255480E+0	1.224527E+0	1.221458E+0	1.210346E+0	1.237350E+0	1.216177E+0	1.225644E+0	1.210813E+0	1.223540E+0	1.192006E+0	1.251745E+0	1.166290E+0	1.201735E+0	1.232207E+0	1.243686E+0	1.213315E+0	1.245801E+0	1.229920E+0	1.176180E+0	1.214880E+0	1.160055E+0	1.226966E+0	1.217355E+0	1.199721E+0	1.215297E+0	1.203110E+0	1.218838E+0	1.269859E+0	1.248360E+0	1.198358E+0	1.248332E+0	1.238721E+0	1.199857E+0	1.183690E+0	1.260057E+0	1.193400E+0	1.242212E+0	1.199654E+0	1.230315E+0	1.214339E+0	1.203612E+0	1.220412E+0	1.259096E+0	1.184821E+0	1.167968E+0	1.208722E+0	1.246949E+0	1.178971E+0	1.180999E+0	1.264755E+0	1.240710E+0	1.206140E+0	1.235744E+0	1.217693E+0	1.228669E+0	1.225865E+0	1.222170E+0	1.191518E+0	1.208906E+0	1.227707E+0	1.191791E+0	1.210710E+0	1.277532E+0	1.227089E+0	1.250147E+0	1.240515E+0	1.194406E+0	1.232393E+0	1.195808E+0	1.199553E+0	1.203219E+0	1.223323E+0	1.172748E+0	1.247681E+0	1.259637E+0	1.251412E+0	1.248654E+0
5.346620E+2	1.728089E+0	1.618973E+0	1.633522E+0	1.592930E+0	1.640705E+0	1.657960E+0	1.634898E+0	1.639352E+0	1.705173E+0	1.615186E+0	1.600768E+0	1.648835E+0	1.630566E+0	1.679345E+0	1.624616E+0	1.618412E+0	1.668144E+0	1.718637E+0	1.597012E+0	1.646311E+0	1.609914E+0	1.654516E+0	1.644259E+0	1.619789E+0	1.608739E+0	1.569947E+0	1.575578E+0	1.632052E+0	1.669353E+0	1.618473E+0	1.622674E+0	1.622835E+0	1.618959E+0	1.613135E+0	1.615078E+0	1.655272E+0	1.608946E+0	1.600488E+0	1.628053E+0	1.639416E+0	1.649362E+0	1.631035E+0	1.646363E+0	1.684814E+0	1.663047E+0	1.667340E+0	1.644017E+0	1.646939E+0	1.667912E+0	1.708895E+0	1.671308E+0	1.660231E+0	1.614337E+0	1.664320E+0	1.589262E+0	1.598542E+0	1.643838E+0	1.673736E+0	1.590577E+0	1.678055E+0	1.644810E+0	1.665419E+0	1.609166E+0	1.563715E+0	1.622804E+0	1.613253E+0	1.626691E+0	1.590245E+0	1.680069E+0	1.600848E+0	1.672913E+0	1.596933E+0	1.611359E+0	1.620323E+0	1.561742E+0	1.589977E+0	1.663859E+0	1.701024E+0	1.639237E+0	1.671976E+0	1.595574E+0	1.648000E+0	1.649907E+0	1.592976E+0	1.605086E+0	1.603960E+0	1.676014E+0	1.626647E+0	1.629284E+0	1.670480E+0	1.572465E+0	1.620881E+0	1.577081E+0	1.623598E+0	1.643551E+0	1.591542E+0	1.541340E+0	1.660497E+0	1.613771E+0	1.601752E+0	1.608700E+0	1.662027E+0	1.650608E+0	1.623705E+0	1.705556E+0	1.631028E+0	1.626510E+0	1.595248E+0	1.631358E+0	1.622266E+0	1.640806E+0	1.669512E+0	1.590576E+0	1.600589E+0	1.575304E+0	1.622693E+0	1.631402E+0	1.677525E+0	1.628622E+0	1.589541E+0	1.600037E+0	1.623310E+0	1.587894E+0	1.611025E+0	1.639614E+0	1.658074E+0	1.668403E+0	1.657200E+0	1.640538E+0	1.574143E+0	1.656887E+0	1.672110E+0	1.647404E+0	1.593817E+0	1.610130E+0	1.601029E+0	1.562837E+0	1.583770E+0	1.592611E+0	1.627705E+0	1.621620E+0	1.598316E+0	1.593128E+0	1.614358E+0	1.683819E+0	1.684641E+0	1.625291E+0	1.619110E+0	1.571353E+0	1.578004E+0	1.623575E+0	1.596418E+0	1.593054E+0	1.632130E+0	1.557617E+0	1.602631E+0	1.606238E+0	1.647979E+0	1.572632E+0	1.668427E+0	1.633129E+0	1.600243E+0	1.567748E+0	1.570838E+0	1.521707E+0	1.610390E+0	1.592321E+0	1.598770E+0	1.639542E+0	1.579144E+0	1.587057E+0
5.348070E+2	2.073268E+0	1.936664E+0	1.873437E+0	1.844604E+0	1.938791E+0	1.888167E+0	1.976563E+0	1.927370E+0	1.976895E+0	1.920969E+0	1.922489E+0	1.963467E+0	1.930783E+0	1.982445E+0	1.943098E+0	1.979440E+0	1.953124E+0	1.920284E+0	1.948169E+0	1.949812E+0	1.939736E+0	1.915585E+0	1.944554E+0	1.956982E+0	1.885667E+0	1.918527E+0	2.044308E+0	1.938021E+0	1.969072E+0	1.948156E+0	1.929303E+0	1.955353E+0	1.912381E+0	1.884506E+0	1.970240E+0	1.967141E+0	1.946203E+0	1.930284E+0	1.948065E+0	1.997401E+0	1.941670E+0	1.940484E+0	1.916661E+0	1.885956E+0	1.920625E+0	2.043566E+0	1.938026E+0	1.941442E+0	1.888218E+0	1.906273E+0	1.900080E+0	1.941495E+0	1.892899E+0	1.931605E+0	1.894546E+0	1.935080E+0	1.936180E+0	1.959317E+0	1.936587E+0	1.929258E+0	1.949220E+0	1.915892E+0	1.942083E+0	1.933323E+0	1.879714E+0	1.868910E+0	1.878393E+0	1.860634E+0	1.897995E+0	1.895587E+0	1.993161E+0	1.875516E+0	1.932742E+0	1.960722E+0	1.983296E+0	1.940627E+0	1.933836E+0	1.917902E+0	1.924088E+0	1.896892E+0	1.882717E+0	1.976290E+0	1.881674E+0	1.860624E+0	1.928024E+0	1.911782E+0	1.982976E+0	1.911571E+0	1.904610E+0	1.945742E+0	1.907445E+0	1.929281E+0	1.909077E+0	1.888879E+0	1.887466E+0	1.915390E+0	1.904823E+0	1.957398E+0	1.917364E+0	1.889630E+0	1.852266E+0	1.911860E+0	1.834663E+0	1.880583E+0	1.877230E+0	1.873268E+0	1.982982E+0	1.864743E+0	1.872399E+0	1.897633E+0	1.896003E+0	1.930158E+0	1.783523E+0	1.877419E+0	1.869035E+0	1.847277E+0	1.901771E+0	1.913958E+0	1.877309E+0	1.844667E+0	1.928825E+0	1.914983E+0	1.973940E+0	1.903581E+0	1.873516E+0	1.882512E+0	1.862063E+0	1.944222E+0	1.926253E+0	1.906913E+0	1.925843E+0	1.863171E+0	1.911530E+0	1.915116E+0	1.846421E+0	1.851418E+0	1.874139E+0	1.899386E+0	1.867043E+0	1.914903E+0	1.853647E+0	1.842240E+0	1.848824E+0	1.901651E+0	1.909453E+0	1.932855E+0	1.922161E+0	1.815110E+0	1.908636E+0	1.853945E+0	1.868405E+0	1.885045E+0	1.878159E+0	1.877761E+0	1.800321E+0	1.821424E+0	1.900271E+0	1.811940E+0	1.841043E+0	1.927444E+0	1.869883E+0	1.914099E+0	1.930921E+0	1.809096E+0	1.879388E+0	1.868982E+0	1.887284E+0	1.891284E+0	1.858727E+0	1.954691E+0	1.887498E+0
5.349580E+2	2.236501E+0	2.114068E+0	2.163267E+0	2.084620E+0	2.171643E+0	2.184242E+0	2.197218E+0	2.095916E+0	2.216939E+0	2.148254E+0	2.132200E+0	2.141491E+0	2.075099E+0	2.113641E+0	2.172187E+0	2.198324E+0	2.209655E+0	2.195156E+0	2.100697E+0	2.166989E+0	2.185861E+0	2.097547E+0	2.047748E+0	2.098221E+0	2.061358E+0	2.147337E+0	2.202038E+0	2.226812E+0	2.076914E+0	2.110778E+0	2.170395E+0	2.118897E+0	2.116650E+0	2.091631E+0	2.048099E+0	2.155128E+0	2.076795E+0	2.064292E+0	2.152671E+0	2.170477E+0	2.129732E+0	2.188510E+0	2.107825E+0	2.144641E+0	2.111639E+0	2.126376E+0	2.139536E+0	2.155717E+0	2.101149E+0	2.141150E+0	2.132332E+0	2.109040E+0	2.100342E+0	2.164269E+0	2.078622E+0	2.110569E+0	2.105966E+0	2.131970E+0	2.093287E+0	2.140159E+0	2.109568E+0	2.179592E+0	2.118641E+0	2.088290E+0	2.113910E+0	2.145956E+0	2.061745E+0	2.087325E+0	2.094504E+0	2.080121E+0	2.130920E+0	2.063287E+0	2.089580E+0	2.137670E+0	2.089467E+0	2.107314E+0	2.037092E+0	2.124246E+0	2.136536E+0	2.156874E+0	2.057146E+0	2.096822E+0	2.098630E+0	2.070428E+0	2.040678E+0	2.071521E+0	2.086831E+0	2.094833E+0	2.096910E+0	2.217779E+0	2.068931E+0	2.071228E+0	2.141425E+0	2.140457E+0	2.121645E+0	2.077462E+0	2.025468E+0	2.150615E+0	2.137666E+0	2.074015E+0	2.074306E+0	2.056109E+0	2.090362E+0	2.015099E+0	2.172614E+0	2.052100E+0	2.089552E+0	2.091290E+0	2.097746E+0	2.087638E+0	2.094641E+0	2.118738E+0	2.041182E+0	2.057158E+0	2.056369E+0	2.062237E+0	2.034767E+0	2.074772E+0	2.079442E+0	2.050618E+0	2.112737E+0	2.093390E+0	2.119652E+0	2.037964E+0	2.052242E+0	2.118582E+0	2.100348E+0	2.089181E+0	2.040614E+0	2.080044E+0	2.171843E+0	2.063271E+0	2.075395E+0	2.001462E+0	2.090361E+0	2.043522E+0	1.983008E+0	2.086742E+0	2.019890E+0	2.097012E+0	2.008190E+0	2.081946E+0	2.064292E+0	2.087175E+0	2.183819E+0	2.106865E+0	2.106915E+0	2.035523E+0	2.001272E+0	2.065053E+0	2.099531E+0	1.996951E+0	2.107899E+0	2.035640E+0	2.040334E+0	2.052675E+0	2.055137E+0	2.067099E+0	2.086012E+0	2.108935E+0	2.002190E+0	2.066936E+0	2.044515E+0	2.090540E+0	1.993782E+0	2.050917E+0	2.048713E+0	2.015956E+0	2.020344E+0	2.075527E+0	2.094914E+0
5.351140E+2	2.331865E+0	2.076721E+0	2.090464E+0	2.109002E+0	2.108975E+0	2.107783E+0	2.131503E+0	2.151425E+0	2.117914E+0	2.121122E+0	2.146916E+0	2.118645E+0	2.093837E+0	2.177478E+0	2.086245E+0	2.078822E+0	2.094718E+0	2.144194E+0	2.114474E+0	2.169703E+0	2.068144E+0	2.105157E+0	2.056039E+0	2.130862E+0	2.054818E+0	2.104529E+0	2.126687E+0	2.168984E+0	2.094882E+0	2.064643E+0	2.158271E+0	2.125386E+0	2.067626E+0	2.051723E+0	2.078591E+0	2.137934E+0	2.089207E+0	2.079540E+0	2.043414E+0	2.124169E+0	2.103074E+0	2.124511E+0	2.095052E+0	2.086707E+0	2.001662E+0	2.295499E+0	2.033061E+0	2.149696E+0	2.044931E+0	2.126476E+0	2.055524E+0	2.096657E+0	2.072447E+0	2.031677E+0	2.119764E+0	2.131947E+0	2.145537E+0	2.110686E+0	2.070029E+0	2.082463E+0	2.059665E+0	2.198941E+0	2.082185E+0	2.029598E+0	2.117971E+0	2.154500E+0	2.013081E+0	2.126386E+0	2.153646E+0	2.086300E+0	2.110267E+0	2.101304E+0	2.137365E+0	2.154654E+0	2.098447E+0	2.081010E+0	2.060035E+0	2.159200E+0	2.114688E+0	2.090328E+0	2.058823E+0	2.073054E+0	2.146513E+0	2.046296E+0	2.054580E+0	2.062793E+0	2.122412E+0	2.001413E+0	2.107559E+0	2.096187E+0	2.029294E+0	2.039206E+0	2.087600E+0	2.125293E+0	2.090823E+0	2.116543E+0	2.077127E+0	2.134974E+0	2.046509E+0	2.064285E+0	2.071023E+0	2.053933E+0	2.033855E+0	2.142397E+0	2.098738E+0	2.089138E+0	2.149033E+0	2.084157E+0	2.070987E+0	2.034242E+0	2.101618E+0	2.053627E+0	2.003704E+0	2.019798E+0	2.009778E+0	2.124283E+0	1.993301E+0	2.016853E+0	2.092599E+0	2.076720E+0	2.002831E+0	2.080795E+0	2.171786E+0	2.112445E+0	2.074673E+0	2.054700E+0	2.010711E+0	2.082140E+0	2.074844E+0	1.998379E+0	2.096422E+0	2.086061E+0	2.016470E+0	2.067092E+0	1.995404E+0	2.019715E+0	2.033688E+0	1.992043E+0	2.036716E+0	2.070399E+0	2.057813E+0	2.074854E+0	2.027382E+0	2.099791E+0	2.132486E+0	2.113639E+0	2.114500E+0	1.999788E+0	2.055599E+0	2.066258E+0	2.022734E+0	2.056029E+0	2.035135E+0	2.115623E+0	1.993539E+0	2.040708E+0	2.010116E+0	2.127202E+0	2.029162E+0	2.053098E+0	2.033533E+0	2.085468E+0	1.995341E+0	1.985737E+0	1.997117E+0	2.047265E+0	2.033964E+0	1.950870E+0	2.160865E+0	2.015330E+0	2.033443E+0
5.352600E+2	2.059648E+0	1.908327E+0	1.915473E+0	1.875479E+0	1.917827E+0	1.945338E+0	1.960120E+0	1.946570E+0	1.936205E+0	1.911164E+0	1.927643E+0	1.875269E+0	1.883278E+0	1.964650E+0	1.893341E+0	1.968759E+0	1.928196E+0	1.944020E+0	1.886586E+0	1.932993E+0	1.934032E+0	1.906852E+0	1.903958E+0	1.921880E+0	1.850354E+0	1.885353E+0	2.017683E+0	1.940479E+0	1.924103E+0	1.952431E+0	1.946102E+0	1.901782E+0	1.846331E+0	1.940207E+0	1.998516E+0	1.928734E+0	1.872964E+0	1.921551E+0	1.945744E+0	1.921184E+0	1.903297E+0	1.908935E+0	1.894143E+0	1.871482E+0	1.868458E+0	2.010305E+0	1.923375E+0	1.953260E+0	1.882321E+0	1.915909E+0	1.875869E+0	1.903657E+0	1.920491E+0	1.951950E+0	1.841769E+0	1.900242E+0	1.908587E+0	1.853974E+0	1.907322E+0	1.876413E+0	1.886571E+0	1.956791E+0	1.882885E+0	1.872132E+0	1.875990E+0	1.967805E+0	1.907274E+0	1.858000E+0	1.988990E+0	1.915339E+0	1.883214E+0	1.892084E+0	1.875173E+0	1.908347E+0	1.954097E+0	1.893125E+0	1.899432E+0	1.936182E+0	1.882047E+0	1.925562E+0	1.807615E+0	1.948912E+0	1.862239E+0	1.963498E+0	1.889781E+0	1.867715E+0	1.910552E+0	1.919544E+0	1.953167E+0	1.979670E+0	1.903785E+0	1.903901E+0	1.932304E+0	1.888861E+0	1.850025E+0	1.901553E+0	1.828536E+0	1.983684E+0	1.857355E+0	1.847506E+0	1.886698E+0	1.888074E+0	1.877393E+0	1.819864E+0	1.940136E+0	1.839011E+0	2.013118E+0	1.893780E+0	1.829857E+0	1.890744E+0	1.924322E+0	1.916968E+0	1.806600E+0	1.902739E+0	1.929423E+0	1.854045E+0	1.864967E+0	1.844174E+0	1.901246E+0	1.880072E+0	1.907463E+0	1.897924E+0	1.933788E+0	1.867132E+0	1.806764E+0	1.938255E+0	1.836132E+0	1.877201E+0	1.871466E+0	1.921441E+0	1.943351E+0	1.880442E+0	1.845065E+0	1.868809E+0	1.862112E+0	1.896766E+0	1.798468E+0	1.861963E+0	1.841539E+0	1.884717E+0	1.833091E+0	1.889799E+0	1.841123E+0	1.924503E+0	1.943484E+0	1.962985E+0	1.863537E+0	1.947227E+0	1.906584E+0	1.876748E+0	1.929446E+0	1.811560E+0	1.901098E+0	1.891309E+0	1.889076E+0	1.879975E+0	1.873668E+0	1.877424E+0	1.853019E+0	1.923805E+0	1.842656E+0	1.923594E+0	1.885323E+0	1.892913E+0	1.787824E+0	1.904442E+0	1.868227E+0	1.818848E+0	1.893139E+0	1.926854E+0	1.898358E+0
5.354060E+2	1.660067E+0	1.649186E+0	1.591115E+0	1.612190E+0	1.626177E+0	1.616698E+0	1.620644E+0	1.586670E+0	1.649257E+0	1.571272E+0	1.588496E+0	1.586507E+0	1.623146E+0	1.607117E+0	1.631059E+0	1.640134E+0	1.536357E+0	1.693976E+0	1.556168E+0	1.595449E+0	1.666213E+0	1.584150E+0	1.595992E+0	1.622134E+0	1.593896E+0	1.609065E+0	1.659634E+0	1.708938E+0	1.613603E+0	1.680202E+0	1.618503E+0	1.590853E+0	1.558188E+0	1.594278E+0	1.632040E+0	1.584693E+0	1.587563E+0	1.598428E+0	1.567211E+0	1.614454E+0	1.581813E+0	1.610317E+0	1.619386E+0	1.532467E+0	1.603649E+0	1.636108E+0	1.585356E+0	1.630358E+0	1.568976E+0	1.652220E+0	1.648383E+0	1.693478E+0	1.611658E+0	1.632109E+0	1.585574E+0	1.596103E+0	1.676396E+0	1.574222E+0	1.606800E+0	1.562929E+0	1.587809E+0	1.624730E+0	1.648091E+0	1.560349E+0	1.573334E+0	1.631346E+0	1.524026E+0	1.567450E+0	1.564772E+0	1.533110E+0	1.635734E+0	1.580654E+0	1.532153E+0	1.641276E+0	1.628522E+0	1.588289E+0	1.645858E+0	1.568491E+0	1.593302E+0	1.666127E+0	1.571710E+0	1.583905E+0	1.526056E+0	1.578555E+0	1.601641E+0	1.654917E+0	1.578608E+0	1.539664E+0	1.605757E+0	1.641505E+0	1.569311E+0	1.597990E+0	1.570495E+0	1.617237E+0	1.601423E+0	1.607925E+0	1.510927E+0	1.693086E+0	1.607947E+0	1.619671E+0	1.584012E+0	1.617620E+0	1.629082E+0	1.581464E+0	1.627196E+0	1.541149E+0	1.652028E+0	1.589979E+0	1.591759E+0	1.587877E+0	1.680689E+0	1.601485E+0	1.551225E+0	1.596456E+0	1.623001E+0	1.602430E+0	1.596212E+0	1.596035E+0	1.607903E+0	1.563229E+0	1.509009E+0	1.597399E+0	1.599666E+0	1.599137E+0	1.570175E+0	1.595732E+0	1.565206E+0	1.547147E+0	1.555770E+0	1.630000E+0	1.622483E+0	1.659338E+0	1.590039E+0	1.618718E+0	1.529549E+0	1.571610E+0	1.575270E+0	1.490664E+0	1.593048E+0	1.578727E+0	1.577936E+0	1.583049E+0	1.513256E+0	1.556985E+0	1.609639E+0	1.603678E+0	1.652898E+0	1.569972E+0	1.525450E+0	1.513251E+0	1.541761E+0	1.588864E+0	1.645390E+0	1.619118E+0	1.567689E+0	1.494157E+0	1.619855E+0	1.599099E+0	1.528594E+0	1.573525E+0	1.520792E+0	1.591688E+0	1.517513E+0	1.563442E+0	1.526338E+0	1.549487E+0	1.537645E+0	1.608704E+0	1.621560E+0	1.587637E+0	1.608447E+0
5.355630E+2	1.405673E+0	1.330769E+0	1.286804E+0	1.345928E+0	1.346406E+0	1.274146E+0	1.372681E+0	1.304516E+0	1.367392E+0	1.310436E+0	1.317887E+0	1.303503E+0	1.315555E+0	1.329134E+0	1.302153E+0	1.307830E+0	1.308314E+0	1.316099E+0	1.338751E+0	1.359021E+0	1.363789E+0	1.333196E+0	1.359236E+0	1.317532E+0	1.349271E+0	1.304260E+0	1.368330E+0	1.340295E+0	1.325560E+0	1.315946E+0	1.377271E+0	1.320463E+0	1.280161E+0	1.305618E+0	1.303582E+0	1.294020E+0	1.369322E+0	1.389913E+0	1.324452E+0	1.311174E+0	1.306680E+0	1.345677E+0	1.328548E+0	1.303401E+0	1.278340E+0	1.325962E+0	1.302994E+0	1.351840E+0	1.322883E+0	1.309878E+0	1.299422E+0	1.368806E+0	1.349495E+0	1.290176E+0	1.326090E+0	1.324340E+0	1.320256E+0	1.303674E+0	1.323692E+0	1.326061E+0	1.272827E+0	1.386197E+0	1.360267E+0	1.284118E+0	1.307701E+0	1.358946E+0	1.288870E+0	1.312170E+0	1.330438E+0	1.286902E+0	1.349770E+0	1.354707E+0	1.338523E+0	1.328455E+0	1.340232E+0	1.346846E+0	1.345984E+0	1.340112E+0	1.339449E+0	1.323967E+0	1.284809E+0	1.320341E+0	1.400218E+0	1.243708E+0	1.346834E+0	1.307454E+0	1.375725E+0	1.298332E+0	1.376601E+0	1.370109E+0	1.279387E+0	1.323096E+0	1.330939E+0	1.323915E+0	1.340038E+0	1.341908E+0	1.317252E+0	1.357554E+0	1.279310E+0	1.299464E+0	1.302561E+0	1.304964E+0	1.356707E+0	1.313205E+0	1.318394E+0	1.343203E+0	1.347769E+0	1.354530E+0	1.299778E+0	1.319806E+0	1.327345E+0	1.320225E+0	1.259805E+0	1.280215E+0	1.310163E+0	1.312914E+0	1.287210E+0	1.305760E+0	1.358761E+0	1.266365E+0	1.318890E+0	1.371893E+0	1.331930E+0	1.317852E+0	1.274121E+0	1.339290E+0	1.276758E+0	1.325836E+0	1.315125E+0	1.369619E+0	1.342342E+0	1.363213E+0	1.318816E+0	1.281479E+0	1.340752E+0	1.353680E+0	1.297131E+0	1.326201E+0	1.326563E+0	1.360798E+0	1.322196E+0	1.364246E+0	1.286286E+0	1.392071E+0	1.325923E+0	1.325116E+0	1.354817E+0	1.351637E+0	1.314970E+0	1.291516E+0	1.292950E+0	1.327250E+0	1.333757E+0	1.348738E+0	1.255754E+0	1.289977E+0	1.299424E+0	1.378562E+0	1.331827E+0	1.353796E+0	1.269404E+0	1.369057E+0	1.323678E+0	1.242372E+0	1.323317E+0	1.296787E+0	1.261834E+0	1.294553E+0	1.290425E+0	1.283021E+0	1.224132E+0
5.357140E+2	1.150359E+0	1.133701E+0	1.139631E+0	1.050765E+0	1.162047E+0	1.118213E+0	1.158780E+0	1.142097E+0	1.097618E+0	1.121915E+0	1.086540E+0	1.142492E+0	1.153467E+0	1.115588E+0	1.117600E+0	1.136262E+0	1.118080E+0	1.154283E+0	1.090670E+0	1.190233E+0	1.131881E+0	1.088671E+0	1.118821E+0	1.127131E+0	1.106839E+0	1.162124E+0	1.130543E+0	1.203231E+0	1.133267E+0	1.118957E+0	1.104148E+0	1.143110E+0	1.021490E+0	1.127875E+0	1.157944E+0	1.134019E+0	1.113355E+0	1.108778E+0	1.078077E+0	1.112463E+0	1.138240E+0	1.142142E+0	1.110141E+0	1.104391E+0	1.079635E+0	1.121019E+0	1.123026E+0	1.182055E+0	1.104509E+0	1.171066E+0	1.139141E+0	1.144848E+0	1.113835E+0	1.133376E+0	1.140409E+0	1.154985E+0	1.145397E+0	1.080664E+0	1.120948E+0	1.148226E+0	1.064292E+0	1.139473E+0	1.195740E+0	1.127006E+0	1.112530E+0	1.156917E+0	1.083630E+0	1.147184E+0	1.120361E+0	1.086916E+0	1.092324E+0	1.112745E+0	1.123003E+0	1.133510E+0	1.104624E+0	1.119778E+0	1.112986E+0	1.170733E+0	1.155523E+0	1.118174E+0	1.066985E+0	1.133070E+0	1.095791E+0	1.155104E+0	1.112593E+0	1.153493E+0	1.168732E+0	1.087662E+0	1.157827E+0	1.136091E+0	1.069577E+0	1.112145E+0	1.170211E+0	1.122385E+0	1.104601E+0	1.150672E+0	1.107120E+0	1.177752E+0	1.173426E+0	1.131551E+0	1.103700E+0	1.132786E+0	1.118268E+0	1.120787E+0	1.123591E+0	1.082217E+0	1.169946E+0	1.121291E+0	1.095287E+0	1.108826E+0	1.109018E+0	1.111038E+0	1.076565E+0	1.102778E+0	1.115418E+0	1.148212E+0	1.097885E+0	1.085602E+0	1.145521E+0	1.119795E+0	1.093757E+0	1.124269E+0	1.162584E+0	1.169308E+0	1.126115E+0	1.171625E+0	1.126251E+0	1.135804E+0	1.128739E+0	1.116575E+0	1.184688E+0	1.157228E+0	1.118753E+0	1.090875E+0	1.108423E+0	1.123509E+0	1.100993E+0	1.126081E+0	1.127669E+0	1.138398E+0	1.132938E+0	1.111640E+0	1.106841E+0	1.121794E+0	1.139006E+0	1.153947E+0	1.121676E+0	1.160642E+0	1.112582E+0	1.172315E+0	1.139070E+0	1.121512E+0	1.181668E+0	1.157347E+0	1.081579E+0	1.124529E+0	1.129830E+0	1.116837E+0	1.154785E+0	1.152836E+0	1.119500E+0	1.138848E+0	1.144470E+0	1.122143E+0	1.153796E+0	1.140332E+0	1.122411E+0	1.165840E+0	1.101975E+0	1.165391E+0	1.197663E+0
5.358600E+2	9.992907E-1	1.016932E+0	9.562585E-1	9.300124E-1	1.009450E+0	9.530188E-1	9.833734E-1	9.527966E-1	9.884373E-1	9.431231E-1	9.716036E-1	9.765793E-1	9.344878E-1	9.638217E-1	1.006658E+0	9.833142E-1	9.552969E-1	9.525765E-1	9.285284E-1	9.460660E-1	9.659999E-1	9.690620E-1	9.860266E-1	9.795586E-1	9.807162E-1	1.000545E+0	1.005012E+0	9.958445E-1	9.852746E-1	9.341625E-1	9.816009E-1	9.712276E-1	9.753911E-1	9.938044E-1	9.487220E-1	9.796435E-1	9.925000E-1	9.701231E-1	9.422721E-1	9.625195E-1	9.553641E-1	9.443791E-1	1.017971E+0	9.585498E-1	9.794487E-1	9.963295E-1	1.015586E+0	9.849073E-1	9.438850E-1	9.793556E-1	9.966971E-1	9.720898E-1	9.486782E-1	9.692579E-1	1.023669E+0	9.964120E-1	1.021015E+0	9.760295E-1	9.833742E-1	9.899647E-1	9.468746E-1	9.549767E-1	9.891725E-1	9.731451E-1	9.294515E-1	1.001391E+0	9.613714E-1	9.421839E-1	9.918472E-1	9.323763E-1	9.767726E-1	9.734220E-1	1.034522E+0	9.703345E-1	9.285982E-1	9.816868E-1	9.570564E-1	9.628076E-1	9.700239E-1	9.869947E-1	9.798586E-1	9.187540E-1	1.012301E+0	9.535246E-1	9.251982E-1	9.656987E-1	9.939864E-1	9.928886E-1	9.983030E-1	1.025686E+0	9.494791E-1	9.792891E-1	9.679689E-1	9.783727E-1	9.852936E-1	1.028309E+0	9.617938E-1	9.494764E-1	1.001341E+0	9.806764E-1	9.554454E-1	9.737091E-1	9.708060E-1	9.503392E-1	9.593878E-1	9.349679E-1	9.760042E-1	9.532252E-1	9.685218E-1	9.895306E-1	1.013778E+0	9.482355E-1	9.032198E-1	9.641372E-1	9.586455E-1	9.759468E-1	9.930995E-1	1.002734E+0	1.014662E+0	9.709998E-1	9.510114E-1	9.774864E-1	1.021113E+0	1.005949E+0	9.547447E-1	9.387458E-1	9.566908E-1	1.032776E+0	9.538865E-1	9.668974E-1	1.003640E+0	1.034182E+0	9.770012E-1	9.677543E-1	1.016020E+0	9.569530E-1	9.780857E-1	9.759567E-1	9.562457E-1	9.791871E-1	9.783730E-1	9.644676E-1	9.906167E-1	9.890941E-1	1.017261E+0	9.761568E-1	1.015911E+0	1.018788E+0	9.686098E-1	9.844953E-1	1.011846E+0	9.167793E-1	9.806034E-1	1.000965E+0	9.408313E-1	9.288125E-1	9.955181E-1	1.000111E+0	9.869318E-1	9.784890E-1	9.582181E-1	1.026544E+0	9.947918E-1	1.013156E+0	9.223124E-1	1.012728E+0	9.612653E-1	9.250841E-1	9.623364E-1	9.640267E-1	9.840963E-1
5.360070E+2	9.078630E-1	8.465669E-1	8.440527E-1	8.279579E-1	8.507712E-1	8.381321E-1	8.604633E-1	8.175809E-1	8.506673E-1	7.911660E-1	8.288594E-1	8.493269E-1	8.398038E-1	8.434035E-1	8.599542E-1	8.167652E-1	8.811367E-1	8.318113E-1	8.100386E-1	8.104098E-1	8.364823E-1	8.370737E-1	8.154923E-1	8.360922E-1	8.484518E-1	8.016308E-1	7.878615E-1	8.577753E-1	8.346878E-1	8.286956E-1	8.755005E-1	8.644615E-1	7.924234E-1	8.418483E-1	8.580132E-1	8.611525E-1	8.065642E-1	8.417462E-1	8.611239E-1	7.935505E-1	8.396548E-1	8.143707E-1	8.256206E-1	8.149909E-1	8.425284E-1	8.672222E-1	8.245169E-1	8.296985E-1	7.889410E-1	8.307782E-1	8.566901E-1	8.319580E-1	8.300874E-1	8.559988E-1	8.443115E-1	8.873374E-1	8.421532E-1	8.115366E-1	8.374480E-1	8.528371E-1	8.400585E-1	8.363716E-1	8.309277E-1	8.302796E-1	8.180090E-1	8.594698E-1	8.190408E-1	8.041043E-1	8.058734E-1	8.365069E-1	8.548379E-1	8.384062E-1	8.873435E-1	8.366593E-1	8.676064E-1	8.610230E-1	8.560156E-1	8.473800E-1	8.498628E-1	8.573634E-1	8.316867E-1	8.641964E-1	8.830402E-1	8.411912E-1	8.488659E-1	8.049470E-1	8.641323E-1	8.557539E-1	8.641718E-1	8.953445E-1	8.150288E-1	8.783737E-1	8.163918E-1	8.492154E-1	8.627315E-1	8.628902E-1	8.205448E-1	8.289947E-1	8.123066E-1	7.886117E-1	8.358861E-1	8.506861E-1	8.510663E-1	7.986404E-1	8.407319E-1	8.432007E-1	8.980912E-1	8.537356E-1	8.509771E-1	8.573492E-1	8.631066E-1	8.125632E-1	7.884400E-1	8.424918E-1	8.173625E-1	8.526106E-1	8.483466E-1	8.433730E-1	8.644162E-1	8.089208E-1	8.254248E-1	7.821325E-1	8.783638E-1	8.070737E-1	8.366624E-1	8.471429E-1	8.404042E-1	8.768581E-1	7.986255E-1	8.678931E-1	8.560296E-1	8.857343E-1	8.123041E-1	8.316852E-1	8.169558E-1	8.568655E-1	8.380953E-1	8.483225E-1	8.229617E-1	8.660916E-1	8.351267E-1	8.276095E-1	8.288674E-1	8.324729E-1	8.586428E-1	8.589456E-1	8.312975E-1	8.432214E-1	8.534584E-1	8.150311E-1	8.783164E-1	8.006646E-1	8.798621E-1	8.516903E-1	8.589289E-1	8.521642E-1	8.465551E-1	8.313136E-1	9.151108E-1	8.437137E-1	8.671692E-1	8.998243E-1	8.283031E-1	8.768715E-1	8.487981E-1	8.639302E-1	8.061347E-1	8.508744E-1	8.548922E-1	8.148689E-1	8.850858E-1
5.362680E+2	6.607533E-1	5.984581E-1	5.916550E-1	6.497760E-1	6.503249E-1	6.490752E-1	6.637334E-1	6.371624E-1	6.288364E-1	6.760899E-1	6.877892E-1	6.601429E-1	6.676519E-1	6.291014E-1	6.378301E-1	6.332230E-1	6.386436E-1	6.707696E-1	6.402167E-1	6.647692E-1	5.891051E-1	6.283329E-1	6.164502E-1	6.657695E-1	6.089860E-1	6.335638E-1	6.507807E-1	6.495724E-1	6.411209E-1	6.537357E-1	6.451490E-1	6.459196E-1	6.236172E-1	6.490517E-1	6.367118E-1	6.791608E-1	6.727957E-1	6.495424E-1	6.270600E-1	6.648971E-1	6.444725E-1	6.197944E-1	6.263049E-1	6.462948E-1	6.251675E-1	6.558161E-1	6.953559E-1	6.636991E-1	6.276188E-1	6.091311E-1	6.443055E-1	6.606222E-1	6.233426E-1	6.530182E-1	6.660654E-1	6.350053E-1	6.563696E-1	6.525209E-1	6.585967E-1	6.798513E-1	6.361513E-1	6.383147E-1	6.549926E-1	6.350528E-1	6.639075E-1	6.548981E-1	6.747983E-1	6.600352E-1	6.647958E-1	6.459979E-1	6.490730E-1	6.416624E-1	6.483002E-1	6.597684E-1	6.396170E-1	6.433394E-1	6.002650E-1	6.304112E-1	6.577872E-1	6.503622E-1	6.275735E-1	6.682163E-1	6.284382E-1	6.739680E-1	6.303203E-1	6.401672E-1	6.353566E-1	6.403607E-1	6.569820E-1	6.965505E-1	6.691742E-1	6.370951E-1	6.652290E-1	6.556917E-1	6.675307E-1	6.444762E-1	6.425406E-1	6.873174E-1	6.303923E-1	6.405897E-1	6.547311E-1	6.838137E-1	6.406238E-1	6.517481E-1	6.708689E-1	6.542133E-1	6.930908E-1	6.657071E-1	6.421360E-1	6.409687E-1	6.324059E-1	6.781685E-1	6.292413E-1	6.544732E-1	6.687938E-1	6.657618E-1	6.493766E-1	6.133952E-1	6.543672E-1	6.401705E-1	6.390762E-1	6.546656E-1	6.596003E-1	6.437771E-1	6.288432E-1	6.697710E-1	6.692117E-1	6.536300E-1	6.351968E-1	6.112861E-1	6.574562E-1	6.803158E-1	6.527872E-1	6.633722E-1	6.415831E-1	6.296666E-1	6.311334E-1	6.826818E-1	6.204019E-1	6.040242E-1	6.410124E-1	6.289748E-1	6.194824E-1	6.705219E-1	6.726156E-1	6.712293E-1	6.448464E-1	6.659236E-1	6.091515E-1	6.144485E-1	6.645055E-1	6.582695E-1	6.481091E-1	6.638250E-1	6.541528E-1	6.496089E-1	6.161361E-1	6.698838E-1	6.277823E-1	6.372578E-1	6.534402E-1	6.465728E-1	6.560275E-1	6.299177E-1	6.761328E-1	6.618635E-1	6.717725E-1	6.055925E-1	6.713578E-1	6.413601E-1	6.233101E-1
5.365140E+2	5.703192E-1	5.603118E-1	5.362753E-1	5.572939E-1	5.661267E-1	5.159009E-1	5.677395E-1	5.526494E-1	5.361610E-1	5.159447E-1	5.287977E-1	5.259117E-1	5.483453E-1	5.167710E-1	4.979257E-1	5.575212E-1	5.293248E-1	5.570377E-1	4.921608E-1	5.267062E-1	5.086454E-1	5.631891E-1	5.508519E-1	5.400687E-1	5.389361E-1	5.745064E-1	5.557627E-1	5.570627E-1	5.074892E-1	5.223046E-1	5.345093E-1	5.475824E-1	5.234494E-1	5.374327E-1	5.728738E-1	5.530025E-1	5.077632E-1	5.641923E-1	5.483663E-1	5.301059E-1	5.604350E-1	5.294384E-1	5.451133E-1	5.641108E-1	5.459546E-1	5.245393E-1	5.397571E-1	5.460065E-1	5.053488E-1	5.935073E-1	5.562837E-1	5.526668E-1	5.178319E-1	5.557862E-1	5.487562E-1	5.533969E-1	5.020075E-1	5.538935E-1	5.639985E-1	5.464476E-1	5.170308E-1	5.548106E-1	5.550121E-1	5.383210E-1	5.718546E-1	5.485747E-1	5.542498E-1	5.096777E-1	5.541652E-1	5.235204E-1	5.491169E-1	5.540556E-1	5.345518E-1	5.638573E-1	5.520418E-1	5.016756E-1	5.505435E-1	5.425086E-1	5.325080E-1	5.314566E-1	5.283395E-1	5.238130E-1	5.534139E-1	5.485343E-1	5.533245E-1	5.618682E-1	5.648918E-1	5.344016E-1	5.364677E-1	5.691809E-1	5.203660E-1	5.392466E-1	5.341139E-1	5.583498E-1	5.446892E-1	5.406312E-1	5.185026E-1	5.488128E-1	5.441455E-1	5.682143E-1	5.767840E-1	5.444460E-1	5.315283E-1	5.699314E-1	5.755263E-1	5.287149E-1	5.737031E-1	5.251202E-1	5.773890E-1	5.583921E-1	5.859483E-1	5.795589E-1	5.166570E-1	5.346173E-1	5.363960E-1	5.534886E-1	5.396519E-1	5.571879E-1	5.516217E-1	5.291946E-1	5.750092E-1	5.691463E-1	5.514095E-1	5.845409E-1	5.872468E-1	5.597978E-1	5.440877E-1	5.595505E-1	5.547807E-1	5.355459E-1	5.708206E-1	5.466616E-1	5.673850E-1	5.600073E-1	5.418653E-1	5.572621E-1	5.151649E-1	5.239181E-1	5.441873E-1	5.389275E-1	5.510790E-1	5.364776E-1	5.205021E-1	5.549238E-1	5.849488E-1	5.679185E-1	5.748082E-1	5.407082E-1	5.270036E-1	5.304396E-1	5.501356E-1	5.747616E-1	5.428622E-1	5.507533E-1	5.061622E-1	5.524497E-1	5.526248E-1	5.201268E-1	5.506842E-1	5.316391E-1	5.768605E-1	5.505512E-1	5.765984E-1	5.791730E-1	5.621944E-1	5.329641E-1	5.399383E-1	5.828259E-1	5.572315E-1	5.786529E-1	5.732678E-1
5.367710E+2	5.602898E-1	5.530020E-1	5.005632E-1	5.013908E-1	5.020971E-1	4.999011E-1	5.575108E-1	5.018248E-1	5.614449E-1	4.979071E-1	5.190437E-1	4.943102E-1	5.283260E-1	5.245443E-1	5.330098E-1	5.214380E-1	5.290011E-1	5.506887E-1	5.544735E-1	5.477991E-1	5.085828E-1	5.085753E-1	5.136584E-1	5.164743E-1	5.534973E-1	5.098765E-1	5.840646E-1	5.718526E-1	5.320742E-1	5.175392E-1	5.361572E-1	5.180704E-1	4.761971E-1	5.387601E-1	5.245894E-1	4.876887E-1	5.393647E-1	5.223330E-1	5.276644E-1	5.113831E-1	5.067458E-1	5.205207E-1	5.455198E-1	5.241610E-1	5.229921E-1	5.620788E-1	5.299225E-1	5.033398E-1	5.254673E-1	5.395988E-1	5.240214E-1	5.132727E-1	4.982749E-1	5.360405E-1	5.260207E-1	5.288159E-1	5.662819E-1	5.301983E-1	5.404922E-1	5.184341E-1	5.106757E-1	5.399793E-1	5.466505E-1	5.438226E-1	5.327678E-1	5.550552E-1	4.852295E-1	5.087430E-1	5.479933E-1	5.255648E-1	5.417626E-1	5.153066E-1	5.055252E-1	5.406576E-1	5.476614E-1	5.542519E-1	5.144210E-1	5.305380E-1	5.801598E-1	5.239177E-1	5.239318E-1	5.143226E-1	5.240898E-1	5.518591E-1	5.371364E-1	5.259436E-1	5.342936E-1	5.106860E-1	5.288276E-1	5.326405E-1	5.251387E-1	5.395736E-1	5.381433E-1	5.337713E-1	5.752598E-1	5.316592E-1	5.288008E-1	5.309134E-1	4.808338E-1	5.304893E-1	5.013467E-1	5.311583E-1	5.395235E-1	5.318689E-1	5.037040E-1	4.978043E-1	5.478121E-1	5.186604E-1	5.168623E-1	5.288480E-1	5.265579E-1	5.302253E-1	5.162864E-1	5.387680E-1	5.596686E-1	5.683686E-1	5.007194E-1	5.217292E-1	4.988428E-1	5.105833E-1	5.376987E-1	5.271649E-1	5.018497E-1	5.095414E-1	5.158177E-1	5.334148E-1	5.603525E-1	5.450417E-1	5.439987E-1	5.371114E-1	5.374114E-1	5.583274E-1	5.196934E-1	5.317186E-1	5.559918E-1	5.343939E-1	5.092938E-1	5.616162E-1	5.585712E-1	5.410440E-1	5.404206E-1	5.243431E-1	5.580567E-1	5.221893E-1	5.363581E-1	5.284435E-1	5.566762E-1	5.429642E-1	5.263022E-1	5.206185E-1	5.363443E-1	5.597683E-1	5.181033E-1	5.220753E-1	5.032512E-1	5.330354E-1	5.674148E-1	5.084130E-1	5.527921E-1	5.387309E-1	5.329259E-1	5.179443E-1	5.534751E-1	5.214520E-1	5.143402E-1	5.386058E-1	5.232533E-1	5.430844E-1	5.337286E-1	5.585966E-1	5.771037E-1
5.370170E+2	6.017449E-1	5.638983E-1	5.229608E-1	5.489071E-1	5.860343E-1	5.793828E-1	5.421359E-1	5.456604E-1	5.589239E-1	5.560184E-1	5.654558E-1	5.865772E-1	5.419086E-1	5.285973E-1	5.381179E-1	5.707332E-1	5.600132E-1	5.617144E-1	5.674300E-1	5.636551E-1	5.588945E-1	5.708748E-1	5.586506E-1	5.445907E-1	5.606140E-1	5.471172E-1	5.879667E-1	5.940779E-1	5.398817E-1	5.571062E-1	5.805288E-1	5.669685E-1	4.994081E-1	5.659408E-1	5.882239E-1	5.359855E-1	5.201710E-1	5.716985E-1	5.672846E-1	5.707964E-1	5.388122E-1	5.803047E-1	5.638044E-1	5.561330E-1	5.838384E-1	6.004585E-1	5.919336E-1	5.743774E-1	5.538396E-1	5.182854E-1	5.737865E-1	5.893470E-1	5.948836E-1	5.634604E-1	5.716134E-1	5.730095E-1	5.262776E-1	5.426150E-1	5.786761E-1	5.560850E-1	5.738483E-1	5.228132E-1	5.306782E-1	5.454941E-1	5.543103E-1	5.671035E-1	5.768991E-1	5.827794E-1	5.631740E-1	5.847053E-1	5.589460E-1	5.613656E-1	5.658446E-1	5.580453E-1	5.582394E-1	5.865503E-1	5.426478E-1	5.575031E-1	5.770821E-1	5.647136E-1	5.575463E-1	5.587091E-1	5.638316E-1	5.536241E-1	5.352243E-1	5.650660E-1	5.878481E-1	5.868745E-1	6.056346E-1	5.975913E-1	5.228784E-1	5.587270E-1	5.567435E-1	5.462788E-1	6.204555E-1	5.796778E-1	5.555239E-1	5.375250E-1	5.677562E-1	5.977262E-1	5.483010E-1	5.715702E-1	5.460115E-1	5.478790E-1	5.863077E-1	5.715568E-1	5.611396E-1	5.734100E-1	5.358047E-1	5.880938E-1	5.575137E-1	5.747682E-1	5.639578E-1	5.635759E-1	5.730923E-1	5.699972E-1	5.813072E-1	5.388225E-1	5.555077E-1	5.495388E-1	5.724249E-1	5.568112E-1	5.955148E-1	5.837271E-1	5.716856E-1	5.388015E-1	6.129022E-1	5.658291E-1	5.629062E-1	5.603067E-1	5.802031E-1	5.747154E-1	5.904817E-1	5.419384E-1	5.720423E-1	5.619920E-1	5.568223E-1	5.261143E-1	5.561814E-1	5.833567E-1	5.501336E-1	5.483804E-1	5.466705E-1	5.625816E-1	5.725869E-1	6.028058E-1	5.862305E-1	5.799462E-1	5.552322E-1	5.726683E-1	5.766360E-1	5.680028E-1	6.037184E-1	5.517537E-1	5.797284E-1	5.548836E-1	5.876874E-1	5.882402E-1	6.005644E-1	5.665975E-1	5.859385E-1	5.779862E-1	5.801033E-1	5.852892E-1	5.396443E-1	6.096852E-1	5.813948E-1	5.558022E-1	5.261748E-1	5.141561E-1	5.624792E-1
5.372640E+2	6.881422E-1	6.929377E-1	6.475437E-1	6.547778E-1	6.634408E-1	6.206229E-1	6.682231E-1	6.387538E-1	6.417546E-1	6.196975E-1	6.073493E-1	6.772434E-1	6.219879E-1	6.096191E-1	6.469739E-1	6.469404E-1	6.406311E-1	6.021409E-1	6.187762E-1	6.532162E-1	6.505063E-1	6.402493E-1	6.655806E-1	6.303854E-1	6.568810E-1	6.562869E-1	6.636020E-1	6.577103E-1	6.402475E-1	6.176286E-1	6.217465E-1	6.748422E-1	6.421367E-1	6.493959E-1	6.377553E-1	5.998723E-1	6.264192E-1	6.366925E-1	6.249756E-1	6.824526E-1	6.276212E-1	6.578636E-1	6.516702E-1	6.223618E-1	6.297119E-1	6.853472E-1	6.714636E-1	6.618214E-1	6.514823E-1	6.555209E-1	6.282322E-1	6.738388E-1	6.385236E-1	6.357969E-1	6.135164E-1	6.462102E-1	6.393148E-1	6.443042E-1	6.522282E-1	6.258601E-1	6.479353E-1	6.776014E-1	6.348567E-1	6.303054E-1	6.850479E-1	6.269487E-1	6.495923E-1	6.545908E-1	6.405938E-1	6.397835E-1	6.408979E-1	6.424385E-1	6.346468E-1	6.230682E-1	6.518876E-1	6.942892E-1	6.207713E-1	6.141435E-1	6.810231E-1	6.661652E-1	6.380092E-1	6.355248E-1	6.547499E-1	6.324014E-1	6.399366E-1	6.104760E-1	6.620043E-1	6.345177E-1	6.530121E-1	6.282053E-1	6.267030E-1	6.436545E-1	6.404219E-1	6.303698E-1	6.607321E-1	6.512636E-1	6.263973E-1	6.490723E-1	6.563186E-1	6.261878E-1	6.676635E-1	6.748642E-1	6.662196E-1	6.426916E-1	6.269152E-1	6.254361E-1	6.644017E-1	6.578552E-1	6.499035E-1	6.156925E-1	6.542519E-1	6.410477E-1	6.433127E-1	6.520418E-1	6.456177E-1	6.538280E-1	6.648266E-1	6.652887E-1	6.464502E-1	6.729958E-1	6.630053E-1	6.413833E-1	6.472640E-1	6.759908E-1	6.518386E-1	6.573946E-1	6.650657E-1	6.517806E-1	6.748955E-1	6.757108E-1	6.902682E-1	6.720534E-1	6.352713E-1	6.418911E-1	6.514552E-1	6.293964E-1	6.559868E-1	6.677998E-1	6.032488E-1	6.654931E-1	6.393359E-1	6.176845E-1	6.826662E-1	6.408511E-1	6.552432E-1	6.354005E-1	6.535463E-1	6.565325E-1	6.866121E-1	6.448634E-1	6.508376E-1	6.643359E-1	6.578311E-1	6.307183E-1	6.252506E-1	6.327596E-1	6.462761E-1	6.760687E-1	6.811464E-1	6.279318E-1	6.124088E-1	6.595399E-1	6.365153E-1	6.602767E-1	6.699327E-1	6.453128E-1	6.657921E-1	6.625850E-1	6.751082E-1	6.561774E-1	6.878907E-1
5.375060E+2	7.396963E-1	7.296693E-1	7.257972E-1	7.417319E-1	7.599211E-1	7.481163E-1	7.406133E-1	7.382736E-1	7.438707E-1	7.148452E-1	6.946670E-1	7.677143E-1	6.980922E-1	7.284554E-1	7.520189E-1	7.554746E-1	7.186609E-1	7.230478E-1	7.091322E-1	7.768720E-1	7.345729E-1	7.334056E-1	7.220989E-1	7.233175E-1	7.008408E-1	7.175430E-1	7.358981E-1	7.491299E-1	7.580496E-1	7.320070E-1	7.162960E-1	7.436720E-1	7.239591E-1	7.423179E-1	7.603146E-1	7.385388E-1	7.320898E-1	7.444437E-1	7.876163E-1	7.477116E-1	7.373075E-1	7.465727E-1	7.485171E-1	7.410370E-1	7.450721E-1	7.774582E-1	7.222764E-1	7.620558E-1	7.209817E-1	7.182352E-1	7.740926E-1	7.847482E-1	7.288206E-1	7.352117E-1	7.309588E-1	7.495742E-1	7.626036E-1	6.964572E-1	7.461478E-1	7.521773E-1	7.636583E-1	7.615429E-1	7.270117E-1	7.329804E-1	7.439062E-1	7.394905E-1	7.627500E-1	7.316991E-1	7.225509E-1	7.484554E-1	7.237445E-1	7.687586E-1	7.090446E-1	7.545810E-1	7.238012E-1	7.285930E-1	7.678416E-1	7.114162E-1	7.399657E-1	8.041476E-1	7.372350E-1	7.092928E-1	7.555193E-1	7.554854E-1	7.682722E-1	7.681304E-1	7.829355E-1	7.456506E-1	7.751954E-1	7.662723E-1	7.124790E-1	7.624260E-1	7.633503E-1	7.041354E-1	7.316298E-1	7.555700E-1	7.442615E-1	7.674052E-1	7.783442E-1	7.549393E-1	7.380899E-1	7.593617E-1	7.432993E-1	7.473040E-1	7.739396E-1	7.094745E-1	7.944765E-1	7.647305E-1	7.185322E-1	7.585113E-1	7.861599E-1	7.636010E-1	7.326546E-1	7.692939E-1	7.523699E-1	7.476669E-1	7.226459E-1	7.337433E-1	7.267740E-1	7.659762E-1	7.799408E-1	7.640739E-1	7.383081E-1	7.119158E-1	7.408830E-1	7.281841E-1	7.720356E-1	7.200712E-1	7.493950E-1	7.413484E-1	7.739844E-1	7.357280E-1	7.202720E-1	7.198722E-1	7.489869E-1	7.197663E-1	7.216187E-1	7.223634E-1	7.688243E-1	7.451305E-1	7.655411E-1	7.458040E-1	7.401274E-1	7.911275E-1	7.490169E-1	7.825462E-1	7.493622E-1	7.555598E-1	7.544832E-1	7.240531E-1	7.419447E-1	7.652211E-1	7.291381E-1	7.391494E-1	7.194692E-1	7.173180E-1	7.599776E-1	7.726570E-1	7.608011E-1	7.515815E-1	7.452983E-1	7.638131E-1	7.491889E-1	7.421365E-1	7.110331E-1	7.450149E-1	7.365511E-1	7.779761E-1	7.371624E-1	7.550208E-1	7.561937E-1
5.377580E+2	8.758841E-1	8.420829E-1	8.033948E-1	8.409306E-1	8.252683E-1	8.566160E-1	9.024053E-1	8.512668E-1	7.836882E-1	8.609431E-1	8.462274E-1	8.875589E-1	8.425831E-1	8.601744E-1	8.659123E-1	8.431360E-1	8.095771E-1	8.502238E-1	8.672118E-1	8.311171E-1	8.445144E-1	8.285915E-1	8.550859E-1	7.970786E-1	8.111375E-1	8.869923E-1	8.870374E-1	8.605914E-1	8.565938E-1	8.435565E-1	8.405284E-1	8.709687E-1	8.035847E-1	8.413327E-1	8.447136E-1	8.482016E-1	8.479218E-1	8.404873E-1	8.364090E-1	8.488247E-1	8.680957E-1	8.662992E-1	8.672501E-1	8.526315E-1	8.416224E-1	8.197718E-1	8.397974E-1	8.702977E-1	7.974380E-1	8.715104E-1	8.747155E-1	9.174263E-1	8.611389E-1	8.606339E-1	8.554069E-1	8.382644E-1	8.389423E-1	8.793113E-1	8.754470E-1	8.613678E-1	8.337841E-1	8.569168E-1	8.465906E-1	8.533707E-1	8.374118E-1	8.486434E-1	8.244741E-1	8.687995E-1	8.409336E-1	8.341983E-1	8.741150E-1	8.664627E-1	8.582711E-1	8.439555E-1	8.778547E-1	8.451470E-1	8.198286E-1	8.055339E-1	8.319168E-1	8.650517E-1	8.415561E-1	8.622611E-1	8.124842E-1	8.965906E-1	8.340388E-1	8.216513E-1	8.869572E-1	8.476174E-1	8.522784E-1	8.337753E-1	8.451682E-1	8.624974E-1	8.747174E-1	8.526599E-1	8.914189E-1	8.514869E-1	8.795202E-1	8.431620E-1	8.186958E-1	8.335352E-1	8.443835E-1	8.560152E-1	8.721462E-1	8.749525E-1	9.206449E-1	8.241626E-1	8.185361E-1	8.769375E-1	8.137203E-1	8.375776E-1	8.717354E-1	8.598348E-1	8.102785E-1	9.117221E-1	8.524812E-1	8.576946E-1	8.418244E-1	8.798737E-1	8.951468E-1	8.524042E-1	8.638762E-1	8.420043E-1	8.642952E-1	8.332000E-1	8.837972E-1	8.828282E-1	8.653010E-1	8.244554E-1	8.447967E-1	8.107811E-1	8.974619E-1	8.681362E-1	8.387968E-1	8.312545E-1	8.218415E-1	8.831394E-1	8.674092E-1	8.833639E-1	8.724106E-1	8.638041E-1	8.666656E-1	8.572084E-1	8.751086E-1	9.022686E-1	9.054116E-1	9.191665E-1	8.245432E-1	8.403111E-1	8.251901E-1	8.191560E-1	8.598644E-1	8.676358E-1	8.705761E-1	8.271050E-1	8.186791E-1	8.317871E-1	8.613842E-1	8.869715E-1	8.890528E-1	8.486875E-1	8.756021E-1	8.523216E-1	8.479841E-1	8.191583E-1	8.852686E-1	8.549194E-1	8.714574E-1	8.132507E-1	8.539711E-1	8.545121E-1	9.543041E-1
5.380160E+2	1.048650E+0	9.895673E-1	9.876119E-1	1.038432E+0	9.538004E-1	1.029813E+0	1.055316E+0	1.021046E+0	1.052026E+0	9.920313E-1	9.789729E-1	9.596949E-1	9.957799E-1	1.001911E+0	9.984417E-1	9.895002E-1	1.037724E+0	1.076428E+0	1.025342E+0	1.024183E+0	1.012941E+0	9.651206E-1	9.827298E-1	1.039503E+0	9.970808E-1	1.008383E+0	1.014644E+0	1.009081E+0	9.814713E-1	1.007314E+0	1.012997E+0	1.031739E+0	1.013429E+0	1.008758E+0	1.021756E+0	1.054113E+0	1.010372E+0	1.000161E+0	1.032933E+0	1.034737E+0	1.050392E+0	1.028674E+0	9.853684E-1	1.010073E+0	9.888780E-1	9.993054E-1	9.861089E-1	1.037910E+0	9.863061E-1	1.015263E+0	1.018809E+0	1.008308E+0	9.822770E-1	1.013457E+0	9.965772E-1	9.781772E-1	9.759141E-1	1.086740E+0	1.004242E+0	1.042298E+0	9.992892E-1	9.959551E-1	1.054020E+0	1.019851E+0	1.027373E+0	1.048770E+0	1.003183E+0	9.837366E-1	9.860371E-1	1.006985E+0	1.070943E+0	9.984508E-1	9.887318E-1	1.025430E+0	1.068429E+0	1.026478E+0	1.031051E+0	9.813803E-1	1.026921E+0	1.050968E+0	9.196348E-1	9.878113E-1	1.025685E+0	1.012529E+0	9.602173E-1	1.003969E+0	1.020537E+0	9.824083E-1	9.821308E-1	1.035558E+0	1.012619E+0	1.018406E+0	1.042987E+0	9.861405E-1	9.983199E-1	1.031897E+0	9.569810E-1	1.042418E+0	9.621629E-1	9.921969E-1	1.025599E+0	1.007638E+0	1.040234E+0	9.958408E-1	1.043606E+0	1.020148E+0	1.015279E+0	1.016805E+0	9.554160E-1	1.017464E+0	1.017882E+0	9.910808E-1	1.000113E+0	9.740756E-1	9.607285E-1	9.884757E-1	1.000678E+0	1.025541E+0	1.026449E+0	9.775424E-1	1.002801E+0	1.022755E+0	1.026606E+0	1.026873E+0	1.030239E+0	1.039182E+0	1.018804E+0	1.024537E+0	1.004670E+0	1.037246E+0	9.704226E-1	9.926318E-1	1.041837E+0	9.895129E-1	1.004940E+0	1.041835E+0	1.000841E+0	1.012931E+0	1.022855E+0	1.026992E+0	1.009136E+0	1.004498E+0	9.872827E-1	1.052847E+0	1.022704E+0	1.055698E+0	9.871349E-1	1.046170E+0	9.815095E-1	1.027541E+0	1.003129E+0	1.016782E+0	1.020629E+0	9.987330E-1	9.787250E-1	1.008055E+0	9.870388E-1	1.027960E+0	1.005152E+0	1.041368E+0	1.051643E+0	1.024793E+0	1.029710E+0	9.822545E-1	9.820268E-1	1.051582E+0	9.912909E-1	9.955570E-1	1.018488E+0	1.030748E+0	9.943503E-1
5.382740E+2	1.275904E+0	1.257570E+0	1.227734E+0	1.242966E+0	1.228682E+0	1.186282E+0	1.217914E+0	1.241094E+0	1.245677E+0	1.211117E+0	1.199045E+0	1.200290E+0	1.199640E+0	1.216335E+0	1.239559E+0	1.244484E+0	1.221629E+0	1.201162E+0	1.269889E+0	1.218720E+0	1.284251E+0	1.254901E+0	1.272700E+0	1.259748E+0	1.154795E+0	1.211332E+0	1.251656E+0	1.273408E+0	1.289326E+0	1.195280E+0	1.224866E+0	1.217441E+0	1.212341E+0	1.181619E+0	1.208425E+0	1.192599E+0	1.229627E+0	1.232593E+0	1.274960E+0	1.247922E+0	1.213324E+0	1.160284E+0	1.213183E+0	1.209735E+0	1.217709E+0	1.234855E+0	1.253394E+0	1.228561E+0	1.236127E+0	1.209924E+0	1.180187E+0	1.224675E+0	1.196104E+0	1.230911E+0	1.203300E+0	1.278359E+0	1.248203E+0	1.262373E+0	1.219983E+0	1.200385E+0	1.247225E+0	1.251392E+0	1.230309E+0	1.202732E+0	1.286903E+0	1.236071E+0	1.245302E+0	1.264148E+0	1.203730E+0	1.235252E+0	1.273063E+0	1.283183E+0	1.197418E+0	1.237484E+0	1.208015E+0	1.186534E+0	1.249489E+0	1.224432E+0	1.235823E+0	1.232558E+0	1.204075E+0	1.232583E+0	1.205391E+0	1.219137E+0	1.236181E+0	1.255495E+0	1.267865E+0	1.246721E+0	1.263960E+0	1.241511E+0	1.202213E+0	1.249606E+0	1.199477E+0	1.216364E+0	1.242946E+0	1.246003E+0	1.200538E+0	1.182222E+0	1.223524E+0	1.218563E+0	1.199576E+0	1.226802E+0	1.237046E+0	1.191870E+0	1.205529E+0	1.224560E+0	1.264120E+0	1.248629E+0	1.214079E+0	1.204803E+0	1.215614E+0	1.183569E+0	1.182502E+0	1.228624E+0	1.182429E+0	1.218930E+0	1.222934E+0	1.208529E+0	1.203992E+0	1.224580E+0	1.183947E+0	1.231397E+0	1.252146E+0	1.246040E+0	1.229750E+0	1.275078E+0	1.206814E+0	1.225348E+0	1.186377E+0	1.253021E+0	1.261846E+0	1.284678E+0	1.205276E+0	1.217723E+0	1.191794E+0	1.262407E+0	1.197274E+0	1.264843E+0	1.216620E+0	1.215808E+0	1.230163E+0	1.195541E+0	1.254959E+0	1.217214E+0	1.266329E+0	1.246846E+0	1.238412E+0	1.217656E+0	1.215485E+0	1.224801E+0	1.207353E+0	1.224108E+0	1.180419E+0	1.213965E+0	1.204523E+0	1.241945E+0	1.257612E+0	1.250660E+0	1.188695E+0	1.220007E+0	1.196338E+0	1.232834E+0	1.216675E+0	1.202545E+0	1.210575E+0	1.259608E+0	1.255400E+0	1.219076E+0	1.227442E+0	1.126089E+0	1.263412E+0
5.385060E+2	1.468840E+0	1.486052E+0	1.462581E+0	1.434989E+0	1.489994E+0	1.442301E+0	1.452290E+0	1.391760E+0	1.442658E+0	1.437567E+0	1.520630E+0	1.468630E+0	1.404437E+0	1.432397E+0	1.428984E+0	1.489927E+0	1.492472E+0	1.490752E+0	1.435867E+0	1.516431E+0	1.399005E+0	1.411620E+0	1.525196E+0	1.444999E+0	1.411077E+0	1.436358E+0	1.473507E+0	1.493825E+0	1.425386E+0	1.405038E+0	1.379160E+0	1.409481E+0	1.415488E+0	1.365632E+0	1.437525E+0	1.410127E+0	1.404739E+0	1.410617E+0	1.404898E+0	1.424917E+0	1.381875E+0	1.448282E+0	1.388995E+0	1.436274E+0	1.421098E+0	1.453663E+0	1.459552E+0	1.472763E+0	1.434963E+0	1.456738E+0	1.399207E+0	1.447473E+0	1.378015E+0	1.446302E+0	1.454728E+0	1.418364E+0	1.406194E+0	1.445069E+0	1.427960E+0	1.432834E+0	1.442953E+0	1.402417E+0	1.413329E+0	1.411201E+0	1.413859E+0	1.406442E+0	1.408091E+0	1.378121E+0	1.416818E+0	1.399120E+0	1.478796E+0	1.451537E+0	1.379965E+0	1.419292E+0	1.427225E+0	1.411029E+0	1.431563E+0	1.409191E+0	1.407888E+0	1.442311E+0	1.411857E+0	1.444162E+0	1.480945E+0	1.382603E+0	1.444511E+0	1.384222E+0	1.465338E+0	1.437543E+0	1.441315E+0	1.435373E+0	1.364870E+0	1.459699E+0	1.435324E+0	1.469189E+0	1.439871E+0	1.453653E+0	1.388095E+0	1.475845E+0	1.416300E+0	1.448446E+0	1.432386E+0	1.494322E+0	1.403537E+0	1.425649E+0	1.441480E+0	1.409487E+0	1.389190E+0	1.448612E+0	1.439928E+0	1.510618E+0	1.402509E+0	1.432479E+0	1.448873E+0	1.404983E+0	1.425043E+0	1.390987E+0	1.435791E+0	1.388453E+0	1.431047E+0	1.437255E+0	1.416910E+0	1.455619E+0	1.431662E+0	1.389779E+0	1.426088E+0	1.476397E+0	1.418441E+0	1.399661E+0	1.411287E+0	1.401874E+0	1.486411E+0	1.461073E+0	1.416493E+0	1.399002E+0	1.445107E+0	1.471716E+0	1.402496E+0	1.456160E+0	1.426802E+0	1.445902E+0	1.454374E+0	1.407769E+0	1.377644E+0	1.448668E+0	1.415353E+0	1.419796E+0	1.352926E+0	1.519227E+0	1.433876E+0	1.438635E+0	1.431374E+0	1.402491E+0	1.408950E+0	1.402101E+0	1.445722E+0	1.380742E+0	1.452964E+0	1.463100E+0	1.423416E+0	1.457303E+0	1.417875E+0	1.446230E+0	1.476366E+0	1.390702E+0	1.375879E+0	1.392966E+0	1.416263E+0	1.451893E+0	1.440758E+0	1.355377E+0	1.476866E+0
5.387650E+2	1.782283E+0	1.663289E+0	1.691147E+0	1.689996E+0	1.652477E+0	1.691430E+0	1.686677E+0	1.718238E+0	1.641840E+0	1.688777E+0	1.622076E+0	1.631841E+0	1.671605E+0	1.706205E+0	1.683242E+0	1.699168E+0	1.625935E+0	1.653869E+0	1.687582E+0	1.733471E+0	1.665773E+0	1.602648E+0	1.649952E+0	1.669094E+0	1.612781E+0	1.652880E+0	1.690155E+0	1.739432E+0	1.684709E+0	1.641007E+0	1.679214E+0	1.704112E+0	1.661729E+0	1.666319E+0	1.665323E+0	1.640639E+0	1.670682E+0	1.691937E+0	1.649240E+0	1.666494E+0	1.680010E+0	1.649935E+0	1.694917E+0	1.658879E+0	1.673192E+0	1.656800E+0	1.729057E+0	1.655232E+0	1.702186E+0	1.689339E+0	1.674169E+0	1.684866E+0	1.649997E+0	1.684259E+0	1.681287E+0	1.698301E+0	1.703526E+0	1.640522E+0	1.628825E+0	1.677307E+0	1.693186E+0	1.651132E+0	1.683380E+0	1.630111E+0	1.681247E+0	1.700544E+0	1.634916E+0	1.624989E+0	1.620297E+0	1.685973E+0	1.707899E+0	1.675681E+0	1.696691E+0	1.683790E+0	1.666535E+0	1.638506E+0	1.629270E+0	1.695588E+0	1.770128E+0	1.678813E+0	1.560218E+0	1.617658E+0	1.592409E+0	1.726137E+0	1.647900E+0	1.594453E+0	1.729020E+0	1.630213E+0	1.690137E+0	1.678033E+0	1.667704E+0	1.692751E+0	1.684623E+0	1.669180E+0	1.669618E+0	1.674566E+0	1.599276E+0	1.697637E+0	1.616396E+0	1.626115E+0	1.644715E+0	1.643530E+0	1.705378E+0	1.646643E+0	1.690618E+0	1.628076E+0	1.662312E+0	1.650275E+0	1.559131E+0	1.665538E+0	1.632661E+0	1.681123E+0	1.643592E+0	1.653091E+0	1.636514E+0	1.588564E+0	1.614237E+0	1.609450E+0	1.694259E+0	1.637508E+0	1.638030E+0	1.627095E+0	1.679489E+0	1.612673E+0	1.645685E+0	1.709534E+0	1.615638E+0	1.657403E+0	1.620335E+0	1.682321E+0	1.689222E+0	1.677638E+0	1.627053E+0	1.626926E+0	1.625757E+0	1.620192E+0	1.681622E+0	1.610276E+0	1.618709E+0	1.670564E+0	1.647060E+0	1.670945E+0	1.619523E+0	1.594974E+0	1.675257E+0	1.697524E+0	1.603329E+0	1.630401E+0	1.717988E+0	1.652272E+0	1.718819E+0	1.686866E+0	1.635725E+0	1.713718E+0	1.606635E+0	1.636079E+0	1.719513E+0	1.678239E+0	1.643263E+0	1.616648E+0	1.657031E+0	1.620803E+0	1.640938E+0	1.616086E+0	1.640810E+0	1.611711E+0	1.690263E+0	1.608708E+0	1.653738E+0	1.541278E+0	1.670258E+0
5.390450E+2	1.971439E+0	1.918702E+0	1.825979E+0	1.911222E+0	1.934599E+0	1.864962E+0	1.923340E+0	1.943440E+0	1.898887E+0	1.861076E+0	1.894531E+0	1.889633E+0	1.855004E+0	1.870643E+0	1.867473E+0	1.935517E+0	1.914848E+0	1.937528E+0	1.901634E+0	1.908361E+0	1.897995E+0	1.876838E+0	1.951027E+0	1.912745E+0	1.846829E+0	1.882841E+0	1.985847E+0	1.903109E+0	1.906729E+0	1.902088E+0	1.856603E+0	1.912798E+0	1.907772E+0	1.912998E+0	1.921594E+0	1.871427E+0	1.802618E+0	1.871075E+0	1.870410E+0	1.945099E+0	1.886157E+0	1.860834E+0	1.952151E+0	1.907813E+0	1.897812E+0	1.949405E+0	1.922151E+0	1.876111E+0	1.845630E+0	1.918043E+0	1.917064E+0	1.813767E+0	1.858828E+0	1.910290E+0	1.949331E+0	1.911175E+0	1.842509E+0	1.939602E+0	1.902056E+0	1.865109E+0	1.885433E+0	1.884511E+0	1.882260E+0	1.805896E+0	1.872398E+0	1.873529E+0	1.840530E+0	1.806214E+0	1.892488E+0	1.887678E+0	1.867979E+0	1.885279E+0	1.898577E+0	1.924665E+0	1.900510E+0	1.809344E+0	1.813969E+0	1.782102E+0	1.868453E+0	1.899117E+0	1.864145E+0	1.853914E+0	1.950914E+0	1.910036E+0	1.829518E+0	1.835628E+0	1.939606E+0	1.860124E+0	1.836717E+0	1.856833E+0	1.876460E+0	1.902164E+0	1.810436E+0	1.878806E+0	1.907250E+0	1.914513E+0	1.860715E+0	1.892719E+0	1.864039E+0	1.836252E+0	1.881529E+0	1.826611E+0	1.884400E+0	1.837566E+0	1.851440E+0	1.779672E+0	1.882259E+0	1.815383E+0	1.841136E+0	1.852007E+0	1.867088E+0	1.874496E+0	1.839030E+0	1.820968E+0	1.879759E+0	1.867472E+0	1.844477E+0	1.803567E+0	1.870691E+0	1.839817E+0	1.799691E+0	1.890423E+0	1.937733E+0	1.854080E+0	1.841764E+0	1.891336E+0	1.875787E+0	1.833303E+0	1.871455E+0	1.845373E+0	1.820451E+0	1.877596E+0	1.904411E+0	1.883206E+0	1.792470E+0	1.819303E+0	1.767600E+0	1.814008E+0	1.842169E+0	1.855906E+0	1.872054E+0	1.826172E+0	1.815338E+0	1.836648E+0	1.888601E+0	1.851228E+0	1.793466E+0	1.801107E+0	1.849334E+0	1.846862E+0	1.821706E+0	1.826732E+0	1.784161E+0	1.843411E+0	1.794751E+0	1.820212E+0	1.929862E+0	1.850782E+0	1.856373E+0	1.804686E+0	1.864810E+0	1.820702E+0	1.849017E+0	1.801180E+0	1.792953E+0	1.793746E+0	1.812605E+0	1.845358E+0	1.822874E+0	1.760376E+0	1.789543E+0
5.392720E+2	2.141569E+0	2.044815E+0	2.011512E+0	1.983628E+0	2.083966E+0	2.010558E+0	2.068648E+0	2.037128E+0	2.058494E+0	1.976271E+0	2.081200E+0	2.066131E+0	2.027153E+0	2.014658E+0	2.028867E+0	2.037745E+0	2.104276E+0	2.052370E+0	2.063211E+0	2.106576E+0	2.057609E+0	2.036053E+0	2.054467E+0	2.072893E+0	2.008404E+0	1.997993E+0	2.108382E+0	2.092693E+0	2.105661E+0	2.069868E+0	2.018413E+0	2.035813E+0	1.992673E+0	1.993902E+0	2.048986E+0	2.090808E+0	2.041782E+0	2.030674E+0	2.068911E+0	2.021097E+0	2.131677E+0	1.972454E+0	2.101124E+0	2.015021E+0	2.090636E+0	2.072389E+0	2.022338E+0	2.012345E+0	2.029286E+0	2.078441E+0	2.038931E+0	2.053146E+0	2.030199E+0	1.990937E+0	2.072671E+0	2.001880E+0	2.022679E+0	2.073335E+0	2.122352E+0	2.006604E+0	1.986525E+0	2.062343E+0	2.043887E+0	2.050900E+0	2.043109E+0	2.041023E+0	2.040326E+0	2.026705E+0	2.071757E+0	1.994428E+0	2.072523E+0	2.017370E+0	1.993324E+0	2.040389E+0	2.090042E+0	2.036708E+0	2.079071E+0	2.020414E+0	2.078286E+0	2.059743E+0	2.004112E+0	1.982365E+0	1.966431E+0	2.033533E+0	1.977336E+0	2.030638E+0	2.167735E+0	2.000965E+0	2.092053E+0	2.105060E+0	2.044822E+0	1.995219E+0	2.117338E+0	2.025477E+0	2.009530E+0	2.004279E+0	2.005147E+0	2.058746E+0	1.999442E+0	1.988819E+0	1.980043E+0	1.967944E+0	2.045536E+0	2.008890E+0	2.058776E+0	1.999249E+0	2.013571E+0	2.043568E+0	1.963850E+0	1.984639E+0	2.081474E+0	2.017240E+0	2.004365E+0	2.044584E+0	2.015880E+0	2.019159E+0	1.962435E+0	2.025671E+0	2.027231E+0	2.010911E+0	1.918454E+0	2.017127E+0	2.015261E+0	1.938625E+0	2.005763E+0	1.965866E+0	2.060944E+0	2.034974E+0	2.004954E+0	1.995959E+0	2.067413E+0	2.048173E+0	1.959256E+0	1.963693E+0	2.070475E+0	2.028508E+0	1.944536E+0	2.046180E+0	1.940449E+0	2.047223E+0	2.062232E+0	2.005650E+0	1.963067E+0	1.975752E+0	2.062875E+0	2.055766E+0	1.968842E+0	2.011738E+0	1.994003E+0	1.912922E+0	2.036920E+0	1.975758E+0	2.007022E+0	1.983762E+0	1.975105E+0	1.971395E+0	1.978385E+0	1.959807E+0	2.022733E+0	1.978011E+0	1.979089E+0	1.918342E+0	2.036967E+0	1.999754E+0	1.945024E+0	1.868682E+0	2.001021E+0	1.943657E+0	2.009436E+0	1.842341E+0	1.970572E+0
5.395160E+2	2.256338E+0	2.189437E+0	2.121315E+0	2.219332E+0	2.219576E+0	2.230155E+0	2.190075E+0	2.180751E+0	2.227673E+0	2.141018E+0	2.150047E+0	2.193011E+0	2.159685E+0	2.149413E+0	2.189523E+0	2.200004E+0	2.213173E+0	2.217981E+0	2.109683E+0	2.177863E+0	2.150792E+0	2.187158E+0	2.209392E+0	2.236443E+0	2.108585E+0	2.094500E+0	2.261516E+0	2.287194E+0	2.227661E+0	2.156297E+0	2.200203E+0	2.223691E+0	2.141345E+0	2.124020E+0	2.175851E+0	2.126413E+0	2.163875E+0	2.142596E+0	2.198516E+0	2.183147E+0	2.198289E+0	2.069979E+0	2.116013E+0	2.152018E+0	2.202528E+0	2.156338E+0	2.153614E+0	2.283346E+0	2.150215E+0	2.203741E+0	2.204958E+0	2.146659E+0	2.098438E+0	2.159371E+0	2.186964E+0	2.155802E+0	2.172840E+0	2.142276E+0	2.208786E+0	2.175511E+0	2.205842E+0	2.163755E+0	2.155619E+0	2.138075E+0	2.142803E+0	2.138268E+0	2.100188E+0	2.133657E+0	2.098086E+0	2.138146E+0	2.196595E+0	2.161339E+0	2.102452E+0	2.159418E+0	2.151282E+0	2.088898E+0	2.103431E+0	2.134239E+0	2.118009E+0	2.189109E+0	2.113228E+0	2.134891E+0	2.159227E+0	2.107720E+0	2.130818E+0	2.130078E+0	2.163672E+0	2.133001E+0	2.203077E+0	2.081071E+0	2.133487E+0	2.128975E+0	2.136737E+0	2.136978E+0	2.168502E+0	2.118144E+0	2.131439E+0	2.196669E+0	2.125502E+0	2.136952E+0	2.117352E+0	2.159729E+0	2.152315E+0	2.074516E+0	2.145243E+0	2.025354E+0	2.167648E+0	2.177186E+0	2.158412E+0	2.153971E+0	2.186450E+0	2.153886E+0	2.069019E+0	2.167238E+0	2.052908E+0	2.133378E+0	2.107908E+0	2.036013E+0	2.105290E+0	2.087264E+0	2.095709E+0	2.128872E+0	2.170197E+0	2.081249E+0	2.145144E+0	2.158143E+0	2.080814E+0	2.181855E+0	2.157455E+0	2.146994E+0	2.194842E+0	2.157567E+0	2.157733E+0	2.136142E+0	2.122213E+0	2.104445E+0	2.075083E+0	2.111106E+0	2.091419E+0	2.107986E+0	2.097841E+0	2.119269E+0	2.077926E+0	2.121418E+0	2.163841E+0	2.123312E+0	2.114630E+0	2.154846E+0	2.082254E+0	2.083858E+0	2.150179E+0	2.127623E+0	2.089690E+0	2.133839E+0	2.044464E+0	2.131271E+0	2.119410E+0	2.116586E+0	2.107527E+0	2.060146E+0	2.084306E+0	2.082488E+0	2.088462E+0	2.086078E+0	2.045772E+0	2.066200E+0	2.090447E+0	2.087864E+0	2.111119E+0	2.033261E+0	2.119329E+0
5.397810E+2	2.246611E+0	2.201067E+0	2.038652E+0	2.151291E+0	2.100053E+0	2.092845E+0	2.227027E+0	2.164788E+0	2.150641E+0	2.092330E+0	2.161489E+0	2.196477E+0	2.059141E+0	2.128569E+0	2.126381E+0	2.202058E+0	2.204162E+0	2.201095E+0	2.151257E+0	2.191991E+0	2.201131E+0	2.113064E+0	2.098699E+0	2.187601E+0	2.132933E+0	2.076239E+0	2.129560E+0	2.178867E+0	2.144641E+0	2.164595E+0	2.121020E+0	2.127534E+0	2.120247E+0	2.053094E+0	2.194325E+0	2.113408E+0	2.122073E+0	2.076219E+0	2.143989E+0	2.178356E+0	2.102902E+0	2.180180E+0	2.114044E+0	2.113757E+0	2.020235E+0	2.161007E+0	2.181951E+0	2.204910E+0	2.110977E+0	2.131264E+0	2.112267E+0	2.176203E+0	2.148327E+0	2.143662E+0	2.152586E+0	2.178246E+0	2.140690E+0	2.162564E+0	2.147707E+0	2.188814E+0	2.123652E+0	2.192632E+0	2.077578E+0	2.064013E+0	2.080499E+0	2.142885E+0	2.121177E+0	2.111342E+0	2.131708E+0	2.083576E+0	2.130924E+0	2.175162E+0	2.111746E+0	2.110781E+0	2.152910E+0	2.091675E+0	2.076512E+0	2.088728E+0	2.162096E+0	2.198534E+0	2.089941E+0	2.048607E+0	2.124715E+0	2.089759E+0	2.108940E+0	2.064332E+0	2.209041E+0	2.065435E+0	2.156152E+0	2.110575E+0	2.090114E+0	2.160709E+0	2.122826E+0	2.084635E+0	2.208701E+0	2.153238E+0	2.113377E+0	2.127468E+0	2.134039E+0	2.056836E+0	2.088421E+0	2.096451E+0	2.113250E+0	2.119159E+0	2.130685E+0	2.054936E+0	2.097270E+0	2.170197E+0	2.057762E+0	2.093163E+0	2.053239E+0	2.070483E+0	2.071712E+0	2.091265E+0	2.089449E+0	2.079164E+0	2.102602E+0	2.092948E+0	2.166287E+0	2.100397E+0	2.125533E+0	2.063507E+0	2.122282E+0	2.114294E+0	2.074453E+0	2.105811E+0	2.080921E+0	2.102903E+0	2.096846E+0	2.069525E+0	2.193512E+0	2.127079E+0	2.042482E+0	2.079147E+0	2.019954E+0	2.117608E+0	2.000706E+0	2.054734E+0	2.121498E+0	2.091491E+0	2.105677E+0	2.058705E+0	2.094393E+0	2.116498E+0	2.182779E+0	2.162633E+0	2.049070E+0	2.138270E+0	2.121000E+0	2.052667E+0	2.124167E+0	2.056175E+0	2.095661E+0	2.054673E+0	2.038452E+0	2.020319E+0	2.093713E+0	2.094426E+0	2.069783E+0	2.063743E+0	2.079220E+0	2.106459E+0	2.120400E+0	2.079392E+0	2.029620E+0	2.088348E+0	2.030553E+0	2.067737E+0	2.056465E+0	1.946097E+0	1.990456E+0
5.400190E+2	2.067994E+0	1.962387E+0	1.998829E+0	2.080088E+0	2.010945E+0	2.035509E+0	2.013109E+0	2.000024E+0	2.019026E+0	1.996939E+0	1.976008E+0	2.041286E+0	2.093900E+0	2.068310E+0	2.003466E+0	2.050790E+0	2.093568E+0	2.000848E+0	2.036382E+0	2.035390E+0	1.987853E+0	1.989856E+0	2.005794E+0	2.021876E+0	2.001204E+0	2.017843E+0	2.049388E+0	2.064726E+0	2.081372E+0	1.970333E+0	2.033348E+0	2.076910E+0	2.016850E+0	1.962226E+0	2.024150E+0	1.996232E+0	1.966756E+0	2.042264E+0	1.986827E+0	2.032728E+0	2.033574E+0	2.011962E+0	2.061361E+0	2.056468E+0	2.023957E+0	2.060092E+0	1.999486E+0	2.026758E+0	1.965725E+0	2.029587E+0	2.049213E+0	2.034107E+0	1.999926E+0	2.004191E+0	2.007522E+0	2.098061E+0	1.999213E+0	2.004639E+0	2.048227E+0	2.022368E+0	1.992635E+0	1.989749E+0	2.006078E+0	1.939687E+0	2.054943E+0	2.023440E+0	1.950198E+0	1.968383E+0	2.070169E+0	1.946022E+0	1.974127E+0	1.976795E+0	1.970910E+0	2.056945E+0	2.019864E+0	2.068679E+0	1.988180E+0	1.980364E+0	2.035119E+0	1.953666E+0	2.001720E+0	1.951118E+0	2.024793E+0	1.948454E+0	1.948913E+0	1.993703E+0	2.077341E+0	1.987859E+0	1.996736E+0	2.028705E+0	1.980703E+0	2.040217E+0	1.916021E+0	1.943480E+0	2.008457E+0	2.059124E+0	1.925278E+0	2.017301E+0	1.973011E+0	1.998856E+0	2.015885E+0	2.011007E+0	2.034276E+0	1.971056E+0	1.983626E+0	1.979825E+0	2.019554E+0	1.942896E+0	2.021960E+0	2.009097E+0	2.040960E+0	2.008219E+0	1.930202E+0	2.020276E+0	1.958907E+0	1.953702E+0	1.934409E+0	2.022344E+0	1.991866E+0	1.936040E+0	1.873876E+0	2.030284E+0	2.052458E+0	1.948536E+0	1.949539E+0	1.977624E+0	2.102441E+0	1.980558E+0	1.952439E+0	1.974688E+0	2.060937E+0	2.064897E+0	1.968001E+0	1.953433E+0	1.967781E+0	1.980437E+0	1.893376E+0	1.944858E+0	2.005496E+0	1.948710E+0	1.925308E+0	2.010513E+0	1.899541E+0	1.951801E+0	1.988513E+0	2.055696E+0	1.934008E+0	2.019325E+0	1.970873E+0	1.928407E+0	2.030922E+0	1.977681E+0	1.934713E+0	1.973830E+0	1.974924E+0	1.960975E+0	2.011361E+0	2.012112E+0	1.989113E+0	1.945415E+0	1.942889E+0	1.979073E+0	1.926607E+0	1.952190E+0	1.910804E+0	1.893227E+0	1.951744E+0	1.906186E+0	1.955101E+0	1.921435E+0	1.957749E+0
5.402740E+2	2.016820E+0	1.909726E+0	1.896375E+0	1.920102E+0	1.882208E+0	1.790203E+0	1.813229E+0	1.866496E+0	1.911356E+0	1.854194E+0	1.831862E+0	1.877739E+0	1.902812E+0	1.904084E+0	1.839590E+0	1.918816E+0	1.949070E+0	1.885630E+0	1.922214E+0	1.905839E+0	1.901549E+0	1.855266E+0	1.887084E+0	1.862524E+0	1.781873E+0	1.851883E+0	1.893082E+0	1.938717E+0	1.907335E+0	1.858114E+0	1.879874E+0	1.883849E+0	1.846908E+0	1.873770E+0	1.912000E+0	1.890979E+0	1.906279E+0	1.861534E+0	1.856777E+0	1.887136E+0	1.841779E+0	1.828831E+0	1.896609E+0	1.902835E+0	1.874103E+0	1.937374E+0	1.846901E+0	1.923277E+0	1.855882E+0	1.888395E+0	1.840607E+0	1.908206E+0	1.882585E+0	1.900375E+0	1.896261E+0	1.948017E+0	1.866704E+0	1.842178E+0	1.893185E+0	1.889626E+0	1.892168E+0	1.948732E+0	1.889609E+0	1.893719E+0	1.815362E+0	1.881538E+0	1.843204E+0	1.833710E+0	1.892607E+0	1.866233E+0	1.886185E+0	1.897483E+0	1.828314E+0	1.916810E+0	1.857988E+0	1.826001E+0	1.880973E+0	1.869395E+0	1.864573E+0	1.798795E+0	1.758689E+0	1.826540E+0	1.886336E+0	1.884922E+0	1.889501E+0	1.846283E+0	1.921037E+0	1.838055E+0	1.894806E+0	1.890127E+0	1.808125E+0	1.902892E+0	1.899712E+0	1.821387E+0	1.865633E+0	1.883683E+0	1.869647E+0	1.909317E+0	1.898806E+0	1.893016E+0	1.842272E+0	1.859828E+0	1.799076E+0	1.844112E+0	1.970162E+0	1.793976E+0	1.890988E+0	1.853024E+0	1.841081E+0	1.847120E+0	1.863933E+0	1.831457E+0	1.781984E+0	1.816326E+0	1.834244E+0	1.892989E+0	1.877706E+0	1.785591E+0	1.895689E+0	1.868585E+0	1.799892E+0	1.839689E+0	1.881887E+0	1.877064E+0	1.837441E+0	1.877761E+0	1.828016E+0	1.857020E+0	1.875670E+0	1.878205E+0	1.890834E+0	1.885382E+0	1.807463E+0	1.867219E+0	1.857524E+0	1.820968E+0	1.815952E+0	1.774459E+0	1.780258E+0	1.878198E+0	1.886039E+0	1.812251E+0	1.817861E+0	1.859694E+0	1.873009E+0	1.857050E+0	1.807046E+0	1.847915E+0	1.824646E+0	1.800569E+0	1.827189E+0	1.861560E+0	1.846750E+0	1.857130E+0	1.812462E+0	1.830856E+0	1.868232E+0	1.834415E+0	1.890939E+0	1.849693E+0	1.824805E+0	1.828153E+0	1.916532E+0	1.832527E+0	1.813152E+0	1.816575E+0	1.874765E+0	1.827315E+0	1.879290E+0	1.805395E+0	1.904000E+0
5.405080E+2	1.895944E+0	1.820587E+0	1.769486E+0	1.817519E+0	1.809574E+0	1.795047E+0	1.842109E+0	1.851090E+0	1.801721E+0	1.844494E+0	1.759657E+0	1.849203E+0	1.824490E+0	1.874357E+0	1.796248E+0	1.795745E+0	1.824900E+0	1.920134E+0	1.815882E+0	1.821877E+0	1.832239E+0	1.771052E+0	1.805511E+0	1.907898E+0	1.760912E+0	1.845235E+0	1.849980E+0	1.901444E+0	1.803682E+0	1.760811E+0	1.848610E+0	1.856505E+0	1.794903E+0	1.856001E+0	1.860866E+0	1.856513E+0	1.821561E+0	1.814554E+0	1.807897E+0	1.841159E+0	1.881474E+0	1.746157E+0	1.860671E+0	1.836925E+0	1.807857E+0	1.775235E+0	1.796133E+0	1.833806E+0	1.851938E+0	1.814085E+0	1.810313E+0	1.826170E+0	1.784318E+0	1.745235E+0	1.800511E+0	1.847013E+0	1.744157E+0	1.818689E+0	1.724389E+0	1.823363E+0	1.832996E+0	1.829396E+0	1.852165E+0	1.801204E+0	1.802814E+0	1.779324E+0	1.801951E+0	1.833764E+0	1.854585E+0	1.736619E+0	1.801570E+0	1.829554E+0	1.811324E+0	1.825403E+0	1.859695E+0	1.775173E+0	1.824863E+0	1.825572E+0	1.839887E+0	1.841605E+0	1.779940E+0	1.745979E+0	1.737174E+0	1.839905E+0	1.791378E+0	1.738081E+0	1.887273E+0	1.870115E+0	1.834201E+0	1.876344E+0	1.779182E+0	1.801560E+0	1.830560E+0	1.776475E+0	1.785975E+0	1.749890E+0	1.774508E+0	1.814985E+0	1.760230E+0	1.756702E+0	1.815762E+0	1.775034E+0	1.780495E+0	1.763840E+0	1.849851E+0	1.723388E+0	1.756645E+0	1.829506E+0	1.819649E+0	1.759080E+0	1.825481E+0	1.851085E+0	1.774292E+0	1.837296E+0	1.805934E+0	1.785289E+0	1.758283E+0	1.763271E+0	1.795876E+0	1.806587E+0	1.848944E+0	1.773249E+0	1.859851E+0	1.738097E+0	1.797640E+0	1.803099E+0	1.831199E+0	1.808224E+0	1.768230E+0	1.751546E+0	1.857695E+0	1.853292E+0	1.751532E+0	1.729732E+0	1.788067E+0	1.841261E+0	1.805101E+0	1.804953E+0	1.723647E+0	1.823995E+0	1.812223E+0	1.712701E+0	1.721109E+0	1.830164E+0	1.816385E+0	1.778592E+0	1.732556E+0	1.828821E+0	1.774166E+0	1.765035E+0	1.812923E+0	1.780597E+0	1.773589E+0	1.785929E+0	1.682329E+0	1.755703E+0	1.773300E+0	1.825151E+0	1.789196E+0	1.759939E+0	1.740138E+0	1.756612E+0	1.765127E+0	1.758582E+0	1.736297E+0	1.678773E+0	1.763090E+0	1.811132E+0	1.814632E+0	1.731718E+0	1.856996E+0
5.407680E+2	1.845549E+0	1.793950E+0	1.738388E+0	1.715847E+0	1.721002E+0	1.771683E+0	1.736124E+0	1.740149E+0	1.761016E+0	1.721963E+0	1.763765E+0	1.800176E+0	1.707848E+0	1.812188E+0	1.741887E+0	1.778692E+0	1.777285E+0	1.797903E+0	1.786381E+0	1.782686E+0	1.742161E+0	1.746101E+0	1.751685E+0	1.755519E+0	1.756034E+0	1.769024E+0	1.786639E+0	1.832032E+0	1.774268E+0	1.782791E+0	1.769192E+0	1.771875E+0	1.752521E+0	1.697915E+0	1.758543E+0	1.733866E+0	1.689834E+0	1.763252E+0	1.756739E+0	1.751385E+0	1.761553E+0	1.698941E+0	1.745014E+0	1.717178E+0	1.755676E+0	1.823324E+0	1.772807E+0	1.776481E+0	1.776995E+0	1.783775E+0	1.766083E+0	1.783156E+0	1.763844E+0	1.724286E+0	1.717567E+0	1.777489E+0	1.762459E+0	1.716656E+0	1.762802E+0	1.756368E+0	1.728047E+0	1.834002E+0	1.723423E+0	1.727964E+0	1.736348E+0	1.755986E+0	1.734253E+0	1.744670E+0	1.719066E+0	1.716264E+0	1.751881E+0	1.753370E+0	1.759967E+0	1.706542E+0	1.840564E+0	1.762158E+0	1.777404E+0	1.774994E+0	1.759292E+0	1.740097E+0	1.701465E+0	1.715029E+0	1.713530E+0	1.721045E+0	1.725834E+0	1.734309E+0	1.789957E+0	1.756082E+0	1.772469E+0	1.758184E+0	1.726665E+0	1.841362E+0	1.754458E+0	1.729232E+0	1.715529E+0	1.701438E+0	1.780639E+0	1.775812E+0	1.724295E+0	1.741434E+0	1.682363E+0	1.731533E+0	1.694306E+0	1.741036E+0	1.745483E+0	1.747980E+0	1.717397E+0	1.748418E+0	1.735130E+0	1.751977E+0	1.763743E+0	1.727934E+0	1.711249E+0	1.731886E+0	1.684629E+0	1.771162E+0	1.723015E+0	1.738727E+0	1.711552E+0	1.741748E+0	1.748432E+0	1.736418E+0	1.746811E+0	1.758496E+0	1.739836E+0	1.773758E+0	1.732047E+0	1.777482E+0	1.704726E+0	1.768812E+0	1.754392E+0	1.798969E+0	1.748010E+0	1.721367E+0	1.707489E+0	1.760113E+0	1.691207E+0	1.689936E+0	1.721590E+0	1.745654E+0	1.738864E+0	1.696223E+0	1.652050E+0	1.750305E+0	1.853300E+0	1.804303E+0	1.697276E+0	1.767635E+0	1.680745E+0	1.704427E+0	1.752933E+0	1.707495E+0	1.737089E+0	1.797954E+0	1.676212E+0	1.707725E+0	1.775557E+0	1.706324E+0	1.739702E+0	1.753714E+0	1.673082E+0	1.722076E+0	1.706687E+0	1.719402E+0	1.673622E+0	1.745316E+0	1.720559E+0	1.700476E+0	1.685888E+0	1.629846E+0	1.693177E+0
5.410130E+2	1.796296E+0	1.738950E+0	1.694102E+0	1.729377E+0	1.670358E+0	1.718163E+0	1.683490E+0	1.754832E+0	1.686228E+0	1.709724E+0	1.711491E+0	1.752856E+0	1.700128E+0	1.679689E+0	1.694634E+0	1.711675E+0	1.763673E+0	1.734599E+0	1.676759E+0	1.712525E+0	1.684191E+0	1.695229E+0	1.687010E+0	1.758494E+0	1.723821E+0	1.622831E+0	1.743988E+0	1.750725E+0	1.715737E+0	1.738587E+0	1.698806E+0	1.721074E+0	1.707113E+0	1.733462E+0	1.691379E+0	1.732842E+0	1.686741E+0	1.740742E+0	1.684048E+0	1.663445E+0	1.706832E+0	1.646235E+0	1.719983E+0	1.689136E+0	1.732414E+0	1.759599E+0	1.710662E+0	1.703129E+0	1.705795E+0	1.711004E+0	1.675029E+0	1.726662E+0	1.646619E+0	1.702289E+0	1.710903E+0	1.690439E+0	1.733867E+0	1.671228E+0	1.735310E+0	1.750039E+0	1.738111E+0	1.749851E+0	1.674637E+0	1.663494E+0	1.612962E+0	1.704774E+0	1.615227E+0	1.665622E+0	1.701711E+0	1.659089E+0	1.718854E+0	1.705313E+0	1.659228E+0	1.714920E+0	1.711733E+0	1.699578E+0	1.718878E+0	1.699790E+0	1.691176E+0	1.714644E+0	1.611822E+0	1.628687E+0	1.726453E+0	1.713236E+0	1.692352E+0	1.704646E+0	1.759958E+0	1.663660E+0	1.706613E+0	1.673027E+0	1.667459E+0	1.696777E+0	1.715147E+0	1.675770E+0	1.712669E+0	1.757785E+0	1.658727E+0	1.696119E+0	1.650373E+0	1.778915E+0	1.672854E+0	1.688523E+0	1.636197E+0	1.673592E+0	1.708663E+0	1.659188E+0	1.657834E+0	1.667927E+0	1.747212E+0	1.672434E+0	1.719997E+0	1.686903E+0	1.648872E+0	1.637587E+0	1.653401E+0	1.667386E+0	1.686830E+0	1.633526E+0	1.674051E+0	1.621904E+0	1.673305E+0	1.697980E+0	1.730443E+0	1.714595E+0	1.696685E+0	1.702737E+0	1.738242E+0	1.721845E+0	1.701131E+0	1.668562E+0	1.758344E+0	1.751252E+0	1.703338E+0	1.704947E+0	1.613460E+0	1.703512E+0	1.625159E+0	1.661616E+0	1.640206E+0	1.624951E+0	1.690785E+0	1.673749E+0	1.686726E+0	1.632912E+0	1.688234E+0	1.700198E+0	1.655402E+0	1.725100E+0	1.665905E+0	1.676077E+0	1.704583E+0	1.697104E+0	1.672675E+0	1.716017E+0	1.605397E+0	1.680954E+0	1.708696E+0	1.730404E+0	1.670317E+0	1.648532E+0	1.684247E+0	1.711259E+0	1.587558E+0	1.614346E+0	1.654789E+0	1.648980E+0	1.674773E+0	1.698674E+0	1.640007E+0	1.649850E+0	1.785480E+0
5.412690E+2	1.611504E+0	1.578104E+0	1.553160E+0	1.516981E+0	1.526703E+0	1.601660E+0	1.593893E+0	1.540711E+0	1.551026E+0	1.524249E+0	1.560040E+0	1.548207E+0	1.557369E+0	1.544929E+0	1.563126E+0	1.552369E+0	1.634190E+0	1.535363E+0	1.539969E+0	1.565216E+0	1.546956E+0	1.542023E+0	1.508492E+0	1.558831E+0	1.533684E+0	1.538630E+0	1.587245E+0	1.573616E+0	1.593071E+0	1.562905E+0	1.555862E+0	1.552296E+0	1.487315E+0	1.519053E+0	1.501868E+0	1.581013E+0	1.592857E+0	1.554010E+0	1.509301E+0	1.581808E+0	1.567034E+0	1.527585E+0	1.534922E+0	1.525538E+0	1.540150E+0	1.644065E+0	1.584061E+0	1.572195E+0	1.534425E+0	1.585702E+0	1.557098E+0	1.548869E+0	1.493257E+0	1.580945E+0	1.533676E+0	1.589110E+0	1.606265E+0	1.561124E+0	1.524659E+0	1.640801E+0	1.538645E+0	1.555941E+0	1.601938E+0	1.533451E+0	1.587099E+0	1.541190E+0	1.490671E+0	1.539304E+0	1.564066E+0	1.518720E+0	1.522618E+0	1.597371E+0	1.490291E+0	1.507627E+0	1.536245E+0	1.603339E+0	1.544011E+0	1.570154E+0	1.546587E+0	1.557071E+0	1.526247E+0	1.536543E+0	1.525643E+0	1.510992E+0	1.554147E+0	1.512238E+0	1.572476E+0	1.543344E+0	1.554209E+0	1.545265E+0	1.466677E+0	1.605564E+0	1.575374E+0	1.499038E+0	1.548922E+0	1.592954E+0	1.516644E+0	1.547793E+0	1.529623E+0	1.550954E+0	1.506951E+0	1.575067E+0	1.533973E+0	1.555779E+0	1.579765E+0	1.520250E+0	1.548776E+0	1.564903E+0	1.591184E+0	1.475568E+0	1.543717E+0	1.550301E+0	1.537933E+0	1.499341E+0	1.523496E+0	1.535070E+0	1.558724E+0	1.577456E+0	1.566961E+0	1.473579E+0	1.509997E+0	1.556748E+0	1.522985E+0	1.596361E+0	1.527026E+0	1.535142E+0	1.524594E+0	1.554195E+0	1.558271E+0	1.516488E+0	1.527360E+0	1.542615E+0	1.569214E+0	1.530160E+0	1.497341E+0	1.565938E+0	1.534046E+0	1.503847E+0	1.532049E+0	1.569220E+0	1.554842E+0	1.525118E+0	1.564418E+0	1.535524E+0	1.536864E+0	1.555333E+0	1.549235E+0	1.591475E+0	1.528318E+0	1.537892E+0	1.527149E+0	1.575530E+0	1.531694E+0	1.550894E+0	1.550054E+0	1.572534E+0	1.621995E+0	1.562100E+0	1.522150E+0	1.549691E+0	1.516764E+0	1.549162E+0	1.514789E+0	1.512069E+0	1.498803E+0	1.496193E+0	1.505716E+0	1.511394E+0	1.520821E+0	1.490583E+0	1.558041E+0
5.415140E+2	1.426815E+0	1.298185E+0	1.369093E+0	1.375694E+0	1.342340E+0	1.345148E+0	1.354127E+0	1.367374E+0	1.439234E+0	1.314408E+0	1.342378E+0	1.340575E+0	1.340410E+0	1.389593E+0	1.383442E+0	1.378845E+0	1.372625E+0	1.366133E+0	1.378457E+0	1.364601E+0	1.357847E+0	1.357988E+0	1.372936E+0	1.366784E+0	1.356420E+0	1.361398E+0	1.378616E+0	1.388411E+0	1.415967E+0	1.335265E+0	1.384563E+0	1.366628E+0	1.369711E+0	1.331058E+0	1.386170E+0	1.351591E+0	1.339088E+0	1.402721E+0	1.358954E+0	1.400549E+0	1.405042E+0	1.334883E+0	1.364286E+0	1.368913E+0	1.366750E+0	1.370162E+0	1.378264E+0	1.364246E+0	1.329527E+0	1.345429E+0	1.349854E+0	1.408575E+0	1.313977E+0	1.381615E+0	1.348127E+0	1.401360E+0	1.361699E+0	1.362942E+0	1.368381E+0	1.406022E+0	1.361229E+0	1.374317E+0	1.327655E+0	1.305824E+0	1.381263E+0	1.335213E+0	1.301901E+0	1.324820E+0	1.387150E+0	1.354846E+0	1.346934E+0	1.361079E+0	1.359312E+0	1.358132E+0	1.350560E+0	1.391180E+0	1.321640E+0	1.326648E+0	1.382876E+0	1.362296E+0	1.329456E+0	1.382339E+0	1.368148E+0	1.349511E+0	1.326085E+0	1.404104E+0	1.399821E+0	1.365339E+0	1.421166E+0	1.318259E+0	1.344250E+0	1.410512E+0	1.407354E+0	1.354530E+0	1.396121E+0	1.360522E+0	1.365210E+0	1.395226E+0	1.369946E+0	1.353026E+0	1.362248E+0	1.351552E+0	1.355655E+0	1.342217E+0	1.394570E+0	1.336686E+0	1.363979E+0	1.362003E+0	1.374930E+0	1.370963E+0	1.405273E+0	1.345693E+0	1.274051E+0	1.349742E+0	1.388098E+0	1.255860E+0	1.395073E+0	1.309423E+0	1.438221E+0	1.450168E+0	1.299006E+0	1.292027E+0	1.399776E+0	1.375575E+0	1.292673E+0	1.370133E+0	1.363139E+0	1.340209E+0	1.330349E+0	1.369351E+0	1.396908E+0	1.368173E+0	1.364434E+0	1.331378E+0	1.380114E+0	1.353351E+0	1.284158E+0	1.376370E+0	1.344829E+0	1.360777E+0	1.337042E+0	1.355801E+0	1.384450E+0	1.387816E+0	1.389364E+0	1.401242E+0	1.333004E+0	1.396066E+0	1.315328E+0	1.331455E+0	1.328392E+0	1.382231E+0	1.391932E+0	1.382492E+0	1.317954E+0	1.358349E+0	1.370917E+0	1.345427E+0	1.367623E+0	1.342514E+0	1.385443E+0	1.289494E+0	1.340989E+0	1.357702E+0	1.303624E+0	1.385410E+0	1.377407E+0	1.341168E+0	1.289455E+0	1.281275E+0	1.287262E+0
5.417700E+2	1.192795E+0	1.160254E+0	1.164969E+0	1.156589E+0	1.167502E+0	1.161600E+0	1.130391E+0	1.162169E+0	1.191506E+0	1.145879E+0	1.147246E+0	1.149110E+0	1.126326E+0	1.169361E+0	1.079992E+0	1.138776E+0	1.179053E+0	1.152063E+0	1.153723E+0	1.147608E+0	1.092173E+0	1.176793E+0	1.121005E+0	1.144167E+0	1.191118E+0	1.188990E+0	1.185057E+0	1.175283E+0	1.216851E+0	1.137631E+0	1.152512E+0	1.178019E+0	1.160739E+0	1.125077E+0	1.143458E+0	1.218544E+0	1.158762E+0	1.172831E+0	1.179016E+0	1.149652E+0	1.171129E+0	1.140276E+0	1.156584E+0	1.149355E+0	1.159970E+0	1.153170E+0	1.177743E+0	1.154502E+0	1.112879E+0	1.211633E+0	1.139966E+0	1.174465E+0	1.107019E+0	1.138695E+0	1.151821E+0	1.153539E+0	1.205619E+0	1.170816E+0	1.176303E+0	1.143772E+0	1.168099E+0	1.197257E+0	1.162538E+0	1.210162E+0	1.180009E+0	1.181695E+0	1.183828E+0	1.137626E+0	1.126268E+0	1.179104E+0	1.153747E+0	1.198732E+0	1.128708E+0	1.186398E+0	1.167096E+0	1.196723E+0	1.147934E+0	1.170419E+0	1.187071E+0	1.201952E+0	1.134779E+0	1.148981E+0	1.146047E+0	1.120718E+0	1.119625E+0	1.138971E+0	1.194928E+0	1.195421E+0	1.189768E+0	1.175095E+0	1.109698E+0	1.168583E+0	1.168281E+0	1.135586E+0	1.176946E+0	1.173997E+0	1.163599E+0	1.170081E+0	1.206206E+0	1.169929E+0	1.195374E+0	1.164103E+0	1.153038E+0	1.146528E+0	1.161888E+0	1.168180E+0	1.210626E+0	1.148254E+0	1.217155E+0	1.133694E+0	1.133649E+0	1.152227E+0	1.125226E+0	1.178971E+0	1.161992E+0	1.146441E+0	1.125431E+0	1.147685E+0	1.160509E+0	1.170561E+0	1.165968E+0	1.155125E+0	1.184479E+0	1.148652E+0	1.155470E+0	1.200481E+0	1.136208E+0	1.208913E+0	1.160987E+0	1.148216E+0	1.216569E+0	1.184032E+0	1.151793E+0	1.165988E+0	1.129051E+0	1.201929E+0	1.188077E+0	1.140823E+0	1.150321E+0	1.184349E+0	1.159205E+0	1.162687E+0	1.164858E+0	1.168533E+0	1.182480E+0	1.120897E+0	1.221550E+0	1.158409E+0	1.144965E+0	1.179123E+0	1.149186E+0	1.140421E+0	1.160016E+0	1.208982E+0	1.129415E+0	1.173093E+0	1.153015E+0	1.251031E+0	1.170200E+0	1.166478E+0	1.140006E+0	1.189163E+0	1.218984E+0	1.209404E+0	1.163681E+0	1.112065E+0	1.112402E+0	1.195221E+0	1.160722E+0	1.142763E+0	1.125361E+0
5.420270E+2	1.100826E+0	1.068039E+0	9.882831E-1	1.021162E+0	1.024990E+0	1.053744E+0	1.023283E+0	1.001505E+0	1.063426E+0	1.029623E+0	1.056228E+0	1.049277E+0	1.044567E+0	1.055756E+0	1.008873E+0	1.020783E+0	1.071676E+0	1.059191E+0	1.065498E+0	1.020862E+0	1.050453E+0	1.066015E+0	1.018744E+0	1.042835E+0	1.021165E+0	1.045582E+0	1.036629E+0	1.091874E+0	1.056872E+0	1.025824E+0	1.029875E+0	1.064348E+0	1.020362E+0	1.021484E+0	1.009838E+0	1.036401E+0	1.049043E+0	1.019596E+0	1.046300E+0	1.084240E+0	1.061948E+0	1.083654E+0	1.021469E+0	1.024934E+0	1.023451E+0	1.074837E+0	1.052011E+0	1.026614E+0	1.047971E+0	1.030327E+0	1.053736E+0	1.077499E+0	1.011044E+0	1.035199E+0	1.074647E+0	1.041360E+0	1.012086E+0	1.068438E+0	1.026763E+0	1.014970E+0	1.063958E+0	1.033267E+0	1.072963E+0	1.054361E+0	1.044507E+0	1.023612E+0	1.038755E+0	1.039462E+0	9.899580E-1	1.049902E+0	1.067073E+0	1.061069E+0	1.011337E+0	1.037023E+0	1.044137E+0	1.036576E+0	1.038850E+0	1.016784E+0	1.054176E+0	1.069603E+0	9.977173E-1	1.025748E+0	1.062458E+0	1.046975E+0	1.016021E+0	1.017021E+0	1.034314E+0	1.011276E+0	1.059296E+0	1.050210E+0	1.011978E+0	1.062786E+0	1.049270E+0	1.014484E+0	1.018319E+0	1.021200E+0	1.013100E+0	1.080055E+0	1.082071E+0	1.060934E+0	1.057848E+0	1.044330E+0	1.051499E+0	1.023736E+0	1.074105E+0	1.053204E+0	1.020636E+0	1.037239E+0	1.083520E+0	1.058998E+0	1.053672E+0	1.018609E+0	1.006387E+0	1.042307E+0	1.033578E+0	1.026721E+0	1.024953E+0	1.043963E+0	1.060202E+0	1.067633E+0	1.032499E+0	1.037659E+0	1.088059E+0	1.051455E+0	1.028949E+0	1.065724E+0	1.038985E+0	1.055092E+0	1.063938E+0	1.052917E+0	1.087980E+0	1.043445E+0	9.903889E-1	1.068821E+0	1.015757E+0	1.084113E+0	1.033029E+0	1.026262E+0	1.033579E+0	1.057071E+0	1.048330E+0	1.060592E+0	1.028490E+0	1.031537E+0	1.117638E+0	1.049998E+0	1.040223E+0	1.059129E+0	1.077594E+0	1.031288E+0	1.005721E+0	1.049082E+0	1.074107E+0	1.072066E+0	1.005970E+0	1.003787E+0	1.057038E+0	1.066460E+0	1.022299E+0	1.048039E+0	1.036218E+0	1.031120E+0	1.069796E+0	1.058001E+0	9.978247E-1	1.027668E+0	1.013415E+0	1.029570E+0	1.095521E+0	1.109067E+0	1.137451E+0
5.422780E+2	9.413153E-1	9.921408E-1	9.183667E-1	9.327768E-1	9.883735E-1	9.704185E-1	9.426568E-1	9.764347E-1	9.096216E-1	8.941469E-1	9.602383E-1	9.594717E-1	9.633015E-1	1.000675E+0	9.607342E-1	9.687394E-1	9.722430E-1	9.695730E-1	9.290156E-1	9.738165E-1	9.436082E-1	9.962109E-1	9.736633E-1	9.727701E-1	9.428605E-1	1.004154E+0	9.703215E-1	9.891241E-1	9.586897E-1	1.008332E+0	9.799613E-1	9.871207E-1	9.324009E-1	9.652565E-1	9.399730E-1	9.823938E-1	1.004744E+0	9.502978E-1	9.956959E-1	9.717349E-1	9.651876E-1	9.383550E-1	9.544657E-1	9.428212E-1	9.612935E-1	9.771747E-1	9.728755E-1	9.830982E-1	9.178340E-1	9.898006E-1	1.011641E+0	9.443129E-1	9.600503E-1	9.482858E-1	9.290798E-1	9.679092E-1	9.815087E-1	9.511747E-1	9.741433E-1	9.671797E-1	9.620682E-1	9.821286E-1	9.943117E-1	9.779757E-1	9.077502E-1	9.747636E-1	9.576919E-1	9.586569E-1	9.718246E-1	9.539884E-1	1.004008E+0	9.715730E-1	9.808197E-1	9.752951E-1	9.333973E-1	9.579276E-1	9.966005E-1	9.702464E-1	9.510385E-1	9.705661E-1	9.747534E-1	9.373129E-1	9.725986E-1	9.556717E-1	9.413834E-1	9.408267E-1	9.781889E-1	9.800141E-1	9.887822E-1	1.006719E+0	9.614850E-1	9.786584E-1	9.818729E-1	1.002387E+0	9.646843E-1	9.645982E-1	9.090973E-1	9.743653E-1	9.556994E-1	9.924482E-1	9.759017E-1	9.647101E-1	9.745328E-1	9.852984E-1	1.042311E+0	9.795799E-1	9.757033E-1	9.833822E-1	1.006878E+0	9.588315E-1	9.729179E-1	9.705225E-1	9.353336E-1	9.807224E-1	9.740315E-1	1.006912E+0	9.451449E-1	9.685771E-1	9.633224E-1	9.485001E-1	9.559677E-1	9.705226E-1	1.011804E+0	9.136904E-1	1.009389E+0	1.017152E+0	9.838649E-1	9.823990E-1	1.004152E+0	9.748959E-1	9.755899E-1	9.711520E-1	9.526422E-1	9.530685E-1	9.583996E-1	1.009342E+0	9.645238E-1	9.734744E-1	9.703664E-1	9.798397E-1	1.021743E+0	9.814038E-1	1.005598E+0	9.736336E-1	9.455245E-1	9.942500E-1	9.533438E-1	9.793713E-1	9.404126E-1	1.017236E+0	9.525646E-1	1.055793E+0	9.726099E-1	9.890986E-1	9.805635E-1	9.868137E-1	9.989888E-1	1.001743E+0	9.881116E-1	9.764803E-1	9.740651E-1	1.047722E+0	9.964667E-1	9.788320E-1	1.001985E+0	9.599098E-1	9.473256E-1	9.708568E-1	1.025563E+0	1.003643E+0	1.008011E+0
5.425300E+2	1.013565E+0	9.563585E-1	9.677552E-1	1.023864E+0	9.580297E-1	9.487392E-1	9.826205E-1	9.724750E-1	1.002468E+0	1.026166E+0	9.557454E-1	1.021501E+0	9.693771E-1	9.626490E-1	9.796413E-1	9.714420E-1	9.775144E-1	9.742006E-1	9.600397E-1	9.651438E-1	9.576847E-1	9.857527E-1	9.467821E-1	1.005642E+0	9.347094E-1	9.688893E-1	1.003686E+0	9.996238E-1	9.917405E-1	1.003259E+0	9.603367E-1	1.001861E+0	9.755087E-1	9.369922E-1	9.681228E-1	9.992734E-1	9.838246E-1	9.760300E-1	9.999149E-1	1.028163E+0	9.852634E-1	1.001940E+0	9.904828E-1	9.573273E-1	9.487038E-1	9.904644E-1	1.020677E+0	9.917969E-1	9.771103E-1	9.868050E-1	9.790397E-1	9.841729E-1	9.907529E-1	9.888931E-1	9.645222E-1	9.893620E-1	9.660535E-1	9.540848E-1	1.005732E+0	9.683299E-1	9.708403E-1	1.048727E+0	9.952444E-1	9.975423E-1	9.556736E-1	9.549053E-1	9.502718E-1	9.587559E-1	9.912089E-1	9.923850E-1	1.007221E+0	1.002153E+0	9.805339E-1	1.015707E+0	9.904016E-1	1.016630E+0	9.683908E-1	9.839228E-1	9.931738E-1	9.805428E-1	9.523669E-1	9.911901E-1	9.712022E-1	9.684399E-1	9.799266E-1	9.726394E-1	1.020779E+0	9.710213E-1	1.013745E+0	1.010281E+0	9.925892E-1	9.856916E-1	1.001583E+0	9.375815E-1	1.024999E+0	9.966810E-1	9.808984E-1	9.988597E-1	9.829507E-1	1.005357E+0	9.505492E-1	9.732221E-1	9.989443E-1	1.007150E+0	9.920178E-1	1.011553E+0	9.681085E-1	9.801203E-1	9.659788E-1	9.914034E-1	1.006400E+0	9.873600E-1	9.372901E-1	1.014322E+0	1.015083E+0	9.475699E-1	9.610288E-1	9.789868E-1	9.646609E-1	9.741512E-1	9.703760E-1	9.598773E-1	1.012188E+0	9.793946E-1	9.906484E-1	9.951592E-1	9.874043E-1	1.001020E+0	9.737956E-1	9.899382E-1	9.990543E-1	9.666347E-1	1.011192E+0	1.002219E+0	1.025236E+0	9.972562E-1	9.984159E-1	1.016224E+0	9.794936E-1	9.581769E-1	9.815213E-1	9.970553E-1	9.765580E-1	9.795661E-1	1.002532E+0	9.977736E-1	9.774374E-1	9.389745E-1	9.382432E-1	9.627571E-1	1.007313E+0	9.546490E-1	1.005563E+0	9.927084E-1	9.403509E-1	9.735668E-1	1.004333E+0	9.919391E-1	1.006509E+0	9.819459E-1	1.001312E+0	9.815918E-1	1.025198E+0	9.799469E-1	9.782391E-1	9.703652E-1	9.717135E-1	9.516173E-1	1.049730E+0	1.008835E+0	9.506362E-1
5.427650E+2	1.122400E+0	1.077552E+0	1.004182E+0	1.008238E+0	1.079420E+0	1.045447E+0	1.101712E+0	1.073606E+0	1.085539E+0	9.825572E-1	1.082689E+0	1.072662E+0	1.041007E+0	1.068305E+0	1.073609E+0	1.058804E+0	1.068373E+0	1.095123E+0	1.041510E+0	1.075356E+0	1.082148E+0	1.071788E+0	1.062042E+0	1.075703E+0	1.076909E+0	1.111771E+0	1.080873E+0	1.079622E+0	1.075808E+0	1.046861E+0	1.046340E+0	1.084435E+0	1.100273E+0	1.122541E+0	1.065805E+0	1.078067E+0	1.090045E+0	1.055974E+0	1.079672E+0	1.030006E+0	1.087231E+0	1.073113E+0	1.042318E+0	1.009410E+0	1.037680E+0	1.079625E+0	1.073025E+0	1.076835E+0	1.049385E+0	1.086407E+0	1.070659E+0	1.114260E+0	1.045608E+0	1.042235E+0	1.060583E+0	1.085517E+0	1.055575E+0	1.069577E+0	1.073841E+0	1.036656E+0	1.065025E+0	1.112597E+0	1.058123E+0	1.075148E+0	1.064209E+0	1.064245E+0	1.077328E+0	1.039822E+0	1.084024E+0	1.038453E+0	1.045583E+0	1.049465E+0	1.069281E+0	1.076647E+0	1.061918E+0	1.048963E+0	1.080112E+0	1.023382E+0	1.072809E+0	1.075085E+0	1.054847E+0	1.065027E+0	1.071341E+0	1.063649E+0	1.088160E+0	1.026484E+0	1.113415E+0	1.032638E+0	9.974066E-1	1.118756E+0	1.047569E+0	1.068476E+0	1.049585E+0	1.090082E+0	1.043373E+0	1.074378E+0	1.124768E+0	1.082260E+0	1.033805E+0	1.085123E+0	1.042529E+0	1.040862E+0	1.049447E+0	1.078216E+0	1.039159E+0	1.036746E+0	1.041743E+0	1.122911E+0	1.091603E+0	1.081808E+0	1.051794E+0	1.050917E+0	1.003555E+0	1.035391E+0	1.040952E+0	1.011373E+0	1.083435E+0	1.017803E+0	1.058972E+0	1.012843E+0	1.115948E+0	1.060863E+0	1.049810E+0	1.053015E+0	1.066114E+0	1.085982E+0	1.082659E+0	1.093752E+0	1.099805E+0	1.089206E+0	1.112443E+0	1.080710E+0	1.034062E+0	1.047509E+0	1.057388E+0	1.062439E+0	1.064231E+0	1.065788E+0	1.079977E+0	1.064607E+0	1.056777E+0	1.063824E+0	1.109099E+0	1.114141E+0	1.086647E+0	1.035190E+0	1.069337E+0	1.129880E+0	1.054082E+0	1.064016E+0	1.070584E+0	1.079433E+0	1.089440E+0	1.074390E+0	1.034448E+0	1.098807E+0	1.116660E+0	1.117851E+0	1.079544E+0	1.105950E+0	1.113328E+0	1.051321E+0	1.071568E+0	1.077255E+0	1.065305E+0	1.038588E+0	1.051221E+0	1.058467E+0	1.034003E+0	1.100339E+0	1.072520E+0
5.430070E+2	1.267960E+0	1.238140E+0	1.208027E+0	1.209249E+0	1.226976E+0	1.214304E+0	1.229944E+0	1.250038E+0	1.222968E+0	1.233489E+0	1.208513E+0	1.210462E+0	1.175020E+0	1.208909E+0	1.131919E+0	1.187835E+0	1.292517E+0	1.203269E+0	1.228484E+0	1.202734E+0	1.222523E+0	1.151379E+0	1.220092E+0	1.194908E+0	1.187694E+0	1.210800E+0	1.238584E+0	1.248237E+0	1.240468E+0	1.198127E+0	1.204896E+0	1.214704E+0	1.171155E+0	1.172983E+0	1.191586E+0	1.266728E+0	1.170769E+0	1.190662E+0	1.193610E+0	1.199169E+0	1.203095E+0	1.153585E+0	1.207592E+0	1.200967E+0	1.190770E+0	1.205784E+0	1.213647E+0	1.216931E+0	1.190223E+0	1.253599E+0	1.182923E+0	1.199258E+0	1.182797E+0	1.206719E+0	1.208428E+0	1.193907E+0	1.206762E+0	1.256410E+0	1.200125E+0	1.237985E+0	1.233876E+0	1.257306E+0	1.199718E+0	1.179578E+0	1.203963E+0	1.242529E+0	1.214035E+0	1.209565E+0	1.226059E+0	1.222638E+0	1.188611E+0	1.184773E+0	1.225516E+0	1.247932E+0	1.199701E+0	1.160207E+0	1.235058E+0	1.190262E+0	1.239543E+0	1.168333E+0	1.184875E+0	1.217968E+0	1.221725E+0	1.219329E+0	1.212866E+0	1.216169E+0	1.251358E+0	1.193324E+0	1.258128E+0	1.282555E+0	1.203484E+0	1.189158E+0	1.252073E+0	1.222742E+0	1.237568E+0	1.216762E+0	1.204055E+0	1.255641E+0	1.261591E+0	1.232743E+0	1.149375E+0	1.175133E+0	1.199147E+0	1.194860E+0	1.230395E+0	1.151779E+0	1.182149E+0	1.178881E+0	1.230937E+0	1.243167E+0	1.268456E+0	1.249430E+0	1.170994E+0	1.218102E+0	1.178654E+0	1.163621E+0	1.211978E+0	1.197820E+0	1.191881E+0	1.209959E+0	1.167084E+0	1.231424E+0	1.273784E+0	1.239557E+0	1.198854E+0	1.211769E+0	1.185992E+0	1.234742E+0	1.191828E+0	1.210692E+0	1.228311E+0	1.179737E+0	1.169510E+0	1.179855E+0	1.208791E+0	1.176155E+0	1.189936E+0	1.189611E+0	1.137264E+0	1.247038E+0	1.220562E+0	1.221758E+0	1.178040E+0	1.246124E+0	1.183745E+0	1.190151E+0	1.249442E+0	1.162621E+0	1.227290E+0	1.172006E+0	1.174868E+0	1.204532E+0	1.216705E+0	1.142870E+0	1.153512E+0	1.204385E+0	1.191081E+0	1.267282E+0	1.197885E+0	1.270619E+0	1.275738E+0	1.156806E+0	1.252358E+0	1.180948E+0	1.164097E+0	1.196870E+0	1.199954E+0	1.187605E+0	1.172069E+0	1.236801E+0	1.210986E+0
5.432800E+2	1.462002E+0	1.357104E+0	1.324350E+0	1.395225E+0	1.396492E+0	1.336849E+0	1.356974E+0	1.369744E+0	1.383889E+0	1.367394E+0	1.333844E+0	1.375961E+0	1.340247E+0	1.391545E+0	1.349508E+0	1.417563E+0	1.355414E+0	1.361347E+0	1.336505E+0	1.396669E+0	1.378537E+0	1.370778E+0	1.358307E+0	1.343008E+0	1.345116E+0	1.347863E+0	1.372213E+0	1.375586E+0	1.386479E+0	1.349114E+0	1.387257E+0	1.403399E+0	1.383485E+0	1.330999E+0	1.377562E+0	1.335140E+0	1.366662E+0	1.364612E+0	1.393875E+0	1.366788E+0	1.315580E+0	1.352144E+0	1.347924E+0	1.336475E+0	1.390042E+0	1.400691E+0	1.386052E+0	1.416050E+0	1.343193E+0	1.403171E+0	1.376986E+0	1.416684E+0	1.396727E+0	1.351658E+0	1.411193E+0	1.373087E+0	1.390518E+0	1.397910E+0	1.379289E+0	1.355814E+0	1.369059E+0	1.388594E+0	1.389934E+0	1.356412E+0	1.342708E+0	1.343118E+0	1.367165E+0	1.347548E+0	1.365646E+0	1.330981E+0	1.390388E+0	1.379556E+0	1.345441E+0	1.437093E+0	1.379006E+0	1.353150E+0	1.455117E+0	1.372056E+0	1.363756E+0	1.407660E+0	1.334087E+0	1.397441E+0	1.314627E+0	1.386116E+0	1.385470E+0	1.356917E+0	1.332677E+0	1.386154E+0	1.408219E+0	1.346281E+0	1.401771E+0	1.421912E+0	1.429998E+0	1.389061E+0	1.386487E+0	1.385139E+0	1.347615E+0	1.402906E+0	1.344241E+0	1.368310E+0	1.398589E+0	1.364058E+0	1.334725E+0	1.345873E+0	1.413171E+0	1.401719E+0	1.303413E+0	1.360972E+0	1.400972E+0	1.360422E+0	1.367314E+0	1.413155E+0	1.388674E+0	1.373455E+0	1.323351E+0	1.372550E+0	1.343754E+0	1.370466E+0	1.372036E+0	1.368633E+0	1.363384E+0	1.404109E+0	1.381633E+0	1.349889E+0	1.399033E+0	1.356612E+0	1.335508E+0	1.385820E+0	1.286667E+0	1.373722E+0	1.400198E+0	1.337972E+0	1.296221E+0	1.333003E+0	1.367754E+0	1.373109E+0	1.342559E+0	1.354793E+0	1.328937E+0	1.317256E+0	1.408383E+0	1.333147E+0	1.323995E+0	1.340576E+0	1.406718E+0	1.359861E+0	1.386164E+0	1.355666E+0	1.356533E+0	1.341002E+0	1.441622E+0	1.323178E+0	1.313123E+0	1.323343E+0	1.312445E+0	1.341831E+0	1.422969E+0	1.350373E+0	1.371699E+0	1.399041E+0	1.410050E+0	1.297575E+0	1.371449E+0	1.363424E+0	1.319543E+0	1.356304E+0	1.355311E+0	1.316110E+0	1.402303E+0	1.344849E+0	1.439722E+0
5.435540E+2	1.565685E+0	1.505119E+0	1.468289E+0	1.574951E+0	1.514773E+0	1.556210E+0	1.539502E+0	1.511749E+0	1.543841E+0	1.478309E+0	1.541463E+0	1.549129E+0	1.529981E+0	1.566429E+0	1.537927E+0	1.563617E+0	1.519468E+0	1.509080E+0	1.531862E+0	1.530195E+0	1.505780E+0	1.597863E+0	1.533754E+0	1.519988E+0	1.527809E+0	1.507291E+0	1.567629E+0	1.533610E+0	1.549126E+0	1.506033E+0	1.517657E+0	1.525862E+0	1.529281E+0	1.498420E+0	1.532587E+0	1.501607E+0	1.531237E+0	1.568838E+0	1.486654E+0	1.525026E+0	1.526833E+0	1.567741E+0	1.540087E+0	1.471830E+0	1.568239E+0	1.530832E+0	1.509565E+0	1.569103E+0	1.537567E+0	1.555689E+0	1.525498E+0	1.562042E+0	1.539095E+0	1.529745E+0	1.556329E+0	1.511167E+0	1.533247E+0	1.551389E+0	1.586799E+0	1.487748E+0	1.530358E+0	1.522903E+0	1.565581E+0	1.540561E+0	1.521228E+0	1.537699E+0	1.531897E+0	1.503486E+0	1.570985E+0	1.482585E+0	1.510178E+0	1.468545E+0	1.513020E+0	1.549398E+0	1.501144E+0	1.526358E+0	1.522094E+0	1.553295E+0	1.538896E+0	1.532357E+0	1.523116E+0	1.520924E+0	1.546516E+0	1.527335E+0	1.497179E+0	1.483477E+0	1.539244E+0	1.522936E+0	1.563469E+0	1.547110E+0	1.525031E+0	1.541744E+0	1.547383E+0	1.520276E+0	1.529854E+0	1.492066E+0	1.479263E+0	1.568090E+0	1.503256E+0	1.533201E+0	1.519755E+0	1.496493E+0	1.465508E+0	1.513069E+0	1.647635E+0	1.452730E+0	1.550770E+0	1.489781E+0	1.534707E+0	1.529895E+0	1.588951E+0	1.522705E+0	1.471565E+0	1.493088E+0	1.495515E+0	1.515841E+0	1.558741E+0	1.489421E+0	1.535108E+0	1.476030E+0	1.509409E+0	1.524223E+0	1.569147E+0	1.470483E+0	1.528022E+0	1.497223E+0	1.521836E+0	1.506448E+0	1.518431E+0	1.488457E+0	1.603893E+0	1.530947E+0	1.493830E+0	1.528683E+0	1.483799E+0	1.494812E+0	1.531681E+0	1.507170E+0	1.514390E+0	1.490874E+0	1.514978E+0	1.521139E+0	1.523377E+0	1.490787E+0	1.531941E+0	1.529810E+0	1.541061E+0	1.517252E+0	1.500666E+0	1.498417E+0	1.503299E+0	1.497341E+0	1.525252E+0	1.554281E+0	1.540326E+0	1.494928E+0	1.601828E+0	1.520359E+0	1.496654E+0	1.536264E+0	1.544490E+0	1.475262E+0	1.518493E+0	1.485357E+0	1.523924E+0	1.539724E+0	1.457231E+0	1.520946E+0	1.615399E+0	1.487445E+0	1.622077E+0
5.437590E+2	1.664196E+0	1.581950E+0	1.579306E+0	1.648394E+0	1.571225E+0	1.613099E+0	1.558198E+0	1.614448E+0	1.569497E+0	1.587676E+0	1.549695E+0	1.683834E+0	1.572542E+0	1.588048E+0	1.624866E+0	1.623229E+0	1.569011E+0	1.676380E+0	1.636091E+0	1.589491E+0	1.579985E+0	1.646837E+0	1.637665E+0	1.571887E+0	1.633119E+0	1.572962E+0	1.635051E+0	1.643075E+0	1.577520E+0	1.580559E+0	1.567517E+0	1.571322E+0	1.568077E+0	1.587150E+0	1.609296E+0	1.638083E+0	1.576149E+0	1.600984E+0	1.598630E+0	1.594702E+0	1.605683E+0	1.608096E+0	1.579165E+0	1.577835E+0	1.589281E+0	1.630866E+0	1.603722E+0	1.640678E+0	1.586326E+0	1.626171E+0	1.619799E+0	1.663236E+0	1.586511E+0	1.555343E+0	1.554260E+0	1.626290E+0	1.639752E+0	1.593503E+0	1.593113E+0	1.551323E+0	1.642075E+0	1.693442E+0	1.599848E+0	1.587612E+0	1.544151E+0	1.597391E+0	1.509054E+0	1.601813E+0	1.585948E+0	1.580427E+0	1.662481E+0	1.547965E+0	1.601130E+0	1.609844E+0	1.636815E+0	1.598071E+0	1.546121E+0	1.577703E+0	1.593077E+0	1.586533E+0	1.572360E+0	1.604921E+0	1.575990E+0	1.628820E+0	1.608124E+0	1.562475E+0	1.664501E+0	1.562841E+0	1.638800E+0	1.600262E+0	1.538645E+0	1.558567E+0	1.571415E+0	1.559920E+0	1.541784E+0	1.665247E+0	1.611197E+0	1.635686E+0	1.573461E+0	1.609992E+0	1.594799E+0	1.595296E+0	1.581305E+0	1.499162E+0	1.663977E+0	1.566342E+0	1.592359E+0	1.622529E+0	1.609611E+0	1.597363E+0	1.599308E+0	1.588465E+0	1.601159E+0	1.520589E+0	1.609898E+0	1.541697E+0	1.541636E+0	1.613786E+0	1.561314E+0	1.545002E+0	1.612172E+0	1.563091E+0	1.697120E+0	1.582535E+0	1.539797E+0	1.581911E+0	1.631267E+0	1.586764E+0	1.624618E+0	1.602448E+0	1.645410E+0	1.633614E+0	1.629696E+0	1.545385E+0	1.535691E+0	1.560360E+0	1.545977E+0	1.581584E+0	1.498845E+0	1.537161E+0	1.593454E+0	1.595806E+0	1.535201E+0	1.574308E+0	1.547850E+0	1.592452E+0	1.632366E+0	1.568053E+0	1.565704E+0	1.539010E+0	1.578685E+0	1.552942E+0	1.548012E+0	1.605240E+0	1.449154E+0	1.527877E+0	1.610114E+0	1.571922E+0	1.557571E+0	1.598624E+0	1.572053E+0	1.627714E+0	1.533163E+0	1.512363E+0	1.546358E+0	1.571524E+0	1.576221E+0	1.584629E+0	1.584296E+0	1.563180E+0	1.605037E+0
5.440170E+2	1.683087E+0	1.686414E+0	1.594892E+0	1.657113E+0	1.657548E+0	1.620675E+0	1.681856E+0	1.657431E+0	1.618481E+0	1.649265E+0	1.642866E+0	1.666108E+0	1.638196E+0	1.632004E+0	1.672730E+0	1.605718E+0	1.609744E+0	1.598426E+0	1.671395E+0	1.671928E+0	1.677273E+0	1.622671E+0	1.617884E+0	1.672897E+0	1.600880E+0	1.638523E+0	1.641054E+0	1.651076E+0	1.616673E+0	1.658578E+0	1.661624E+0	1.681536E+0	1.599515E+0	1.638303E+0	1.667619E+0	1.667543E+0	1.650198E+0	1.613060E+0	1.697105E+0	1.680776E+0	1.666180E+0	1.615121E+0	1.636472E+0	1.619482E+0	1.613103E+0	1.701955E+0	1.655579E+0	1.628451E+0	1.652642E+0	1.693151E+0	1.677119E+0	1.658252E+0	1.580595E+0	1.666892E+0	1.651062E+0	1.724363E+0	1.613967E+0	1.665035E+0	1.639463E+0	1.655940E+0	1.608068E+0	1.585962E+0	1.673273E+0	1.629846E+0	1.584495E+0	1.677981E+0	1.644941E+0	1.681237E+0	1.698074E+0	1.638772E+0	1.619726E+0	1.699902E+0	1.649443E+0	1.686211E+0	1.674819E+0	1.615816E+0	1.636661E+0	1.711382E+0	1.631601E+0	1.703228E+0	1.608256E+0	1.623230E+0	1.558368E+0	1.659772E+0	1.646094E+0	1.633965E+0	1.681154E+0	1.617157E+0	1.691256E+0	1.657423E+0	1.624189E+0	1.680396E+0	1.645937E+0	1.641835E+0	1.635702E+0	1.642218E+0	1.645991E+0	1.656239E+0	1.602278E+0	1.632342E+0	1.626538E+0	1.648644E+0	1.644894E+0	1.536002E+0	1.623608E+0	1.587803E+0	1.695788E+0	1.597823E+0	1.612628E+0	1.613371E+0	1.637019E+0	1.639248E+0	1.650738E+0	1.636512E+0	1.620831E+0	1.644943E+0	1.675724E+0	1.618650E+0	1.607860E+0	1.611971E+0	1.681008E+0	1.663357E+0	1.644284E+0	1.570996E+0	1.671382E+0	1.628648E+0	1.600066E+0	1.626543E+0	1.636086E+0	1.593158E+0	1.628882E+0	1.650762E+0	1.623544E+0	1.646863E+0	1.615081E+0	1.596987E+0	1.618900E+0	1.664299E+0	1.571899E+0	1.633538E+0	1.696614E+0	1.598032E+0	1.640816E+0	1.642464E+0	1.658492E+0	1.585229E+0	1.661175E+0	1.654384E+0	1.588004E+0	1.638868E+0	1.616014E+0	1.617728E+0	1.615958E+0	1.585435E+0	1.629873E+0	1.559526E+0	1.650344E+0	1.684444E+0	1.620110E+0	1.604492E+0	1.569449E+0	1.603028E+0	1.660045E+0	1.624889E+0	1.673025E+0	1.634901E+0	1.597854E+0	1.576541E+0	1.669650E+0	1.575831E+0	1.708749E+0
5.442700E+2	1.707388E+0	1.585702E+0	1.588867E+0	1.568848E+0	1.606723E+0	1.564366E+0	1.586374E+0	1.638597E+0	1.651857E+0	1.617977E+0	1.606174E+0	1.641169E+0	1.596346E+0	1.553983E+0	1.578075E+0	1.645600E+0	1.652985E+0	1.636912E+0	1.685202E+0	1.589118E+0	1.630021E+0	1.609404E+0	1.607995E+0	1.609504E+0	1.571075E+0	1.620544E+0	1.648506E+0	1.615960E+0	1.600638E+0	1.596366E+0	1.615334E+0	1.649491E+0	1.585281E+0	1.610216E+0	1.623503E+0	1.607026E+0	1.562259E+0	1.607337E+0	1.623668E+0	1.593361E+0	1.617087E+0	1.594943E+0	1.653664E+0	1.564114E+0	1.574878E+0	1.675835E+0	1.591636E+0	1.641286E+0	1.560493E+0	1.678390E+0	1.638023E+0	1.601250E+0	1.641282E+0	1.591102E+0	1.591540E+0	1.586668E+0	1.566229E+0	1.591618E+0	1.636059E+0	1.606862E+0	1.588107E+0	1.653939E+0	1.596870E+0	1.591893E+0	1.525054E+0	1.610823E+0	1.572270E+0	1.575370E+0	1.570250E+0	1.577072E+0	1.584362E+0	1.553668E+0	1.599077E+0	1.607335E+0	1.606201E+0	1.569811E+0	1.553190E+0	1.618681E+0	1.596133E+0	1.615371E+0	1.577365E+0	1.597267E+0	1.565658E+0	1.567813E+0	1.548767E+0	1.571087E+0	1.606847E+0	1.573237E+0	1.630835E+0	1.640328E+0	1.597708E+0	1.598590E+0	1.600844E+0	1.652905E+0	1.552895E+0	1.608684E+0	1.586780E+0	1.558030E+0	1.532034E+0	1.653681E+0	1.577353E+0	1.585693E+0	1.593891E+0	1.520924E+0	1.628249E+0	1.572795E+0	1.615435E+0	1.558088E+0	1.542429E+0	1.597328E+0	1.619884E+0	1.596384E+0	1.530964E+0	1.576926E+0	1.539072E+0	1.591790E+0	1.591811E+0	1.545663E+0	1.560957E+0	1.582569E+0	1.554964E+0	1.570756E+0	1.624638E+0	1.569880E+0	1.609852E+0	1.613733E+0	1.597680E+0	1.656820E+0	1.622078E+0	1.551265E+0	1.575978E+0	1.653380E+0	1.591063E+0	1.618610E+0	1.526641E+0	1.645151E+0	1.521807E+0	1.591901E+0	1.565081E+0	1.591332E+0	1.631335E+0	1.601415E+0	1.524180E+0	1.648725E+0	1.588993E+0	1.633515E+0	1.609195E+0	1.594298E+0	1.535818E+0	1.589197E+0	1.549821E+0	1.573840E+0	1.570882E+0	1.632531E+0	1.558031E+0	1.584317E+0	1.565380E+0	1.549828E+0	1.577596E+0	1.599640E+0	1.551736E+0	1.578669E+0	1.593010E+0	1.559576E+0	1.596420E+0	1.580840E+0	1.583828E+0	1.553175E+0	1.675944E+0	1.573357E+0	1.557394E+0
5.445290E+2	1.599521E+0	1.533628E+0	1.512133E+0	1.596708E+0	1.495952E+0	1.561095E+0	1.554109E+0	1.587365E+0	1.550966E+0	1.563150E+0	1.521067E+0	1.508602E+0	1.486363E+0	1.582076E+0	1.548256E+0	1.565229E+0	1.566796E+0	1.569794E+0	1.553414E+0	1.568074E+0	1.501252E+0	1.522419E+0	1.536879E+0	1.573576E+0	1.513347E+0	1.563148E+0	1.515496E+0	1.585298E+0	1.539049E+0	1.543286E+0	1.499004E+0	1.562408E+0	1.498318E+0	1.507356E+0	1.538904E+0	1.570966E+0	1.526128E+0	1.628891E+0	1.567260E+0	1.580848E+0	1.523939E+0	1.483579E+0	1.570247E+0	1.503831E+0	1.585075E+0	1.544752E+0	1.594433E+0	1.575569E+0	1.490292E+0	1.580970E+0	1.553552E+0	1.552987E+0	1.511175E+0	1.474469E+0	1.556430E+0	1.526094E+0	1.533573E+0	1.535127E+0	1.521681E+0	1.538582E+0	1.527805E+0	1.522867E+0	1.549560E+0	1.523780E+0	1.496787E+0	1.617749E+0	1.533429E+0	1.502967E+0	1.504655E+0	1.540453E+0	1.566828E+0	1.509352E+0	1.551097E+0	1.623281E+0	1.561404E+0	1.508382E+0	1.493996E+0	1.551487E+0	1.563149E+0	1.560493E+0	1.517658E+0	1.520242E+0	1.583134E+0	1.533719E+0	1.548618E+0	1.522073E+0	1.543353E+0	1.541214E+0	1.502234E+0	1.545341E+0	1.493000E+0	1.573529E+0	1.479626E+0	1.556058E+0	1.580925E+0	1.584808E+0	1.514069E+0	1.556892E+0	1.521762E+0	1.575010E+0	1.540160E+0	1.514677E+0	1.517062E+0	1.480084E+0	1.554382E+0	1.470590E+0	1.501278E+0	1.527076E+0	1.510116E+0	1.541470E+0	1.577495E+0	1.530283E+0	1.531627E+0	1.551736E+0	1.514019E+0	1.496557E+0	1.547256E+0	1.501091E+0	1.521446E+0	1.539761E+0	1.532808E+0	1.567907E+0	1.565341E+0	1.478908E+0	1.506711E+0	1.558277E+0	1.505019E+0	1.598279E+0	1.550988E+0	1.578545E+0	1.589517E+0	1.588872E+0	1.469274E+0	1.552988E+0	1.537656E+0	1.528492E+0	1.527956E+0	1.551429E+0	1.534548E+0	1.537044E+0	1.568956E+0	1.475425E+0	1.508183E+0	1.502678E+0	1.522593E+0	1.526223E+0	1.510745E+0	1.532252E+0	1.522249E+0	1.566778E+0	1.570619E+0	1.535959E+0	1.512539E+0	1.550274E+0	1.543333E+0	1.531028E+0	1.573329E+0	1.542352E+0	1.547379E+0	1.497858E+0	1.516589E+0	1.502172E+0	1.516107E+0	1.487507E+0	1.544437E+0	1.535077E+0	1.508809E+0	1.537983E+0	1.522072E+0	1.541493E+0	1.592353E+0
5.447720E+2	1.522366E+0	1.480765E+0	1.484777E+0	1.526264E+0	1.484024E+0	1.513607E+0	1.457105E+0	1.493811E+0	1.426939E+0	1.511533E+0	1.478187E+0	1.516197E+0	1.505769E+0	1.507136E+0	1.511232E+0	1.512472E+0	1.486686E+0	1.492118E+0	1.548022E+0	1.472364E+0	1.487468E+0	1.501551E+0	1.468587E+0	1.500566E+0	1.431630E+0	1.483921E+0	1.526898E+0	1.517680E+0	1.493733E+0	1.456788E+0	1.457901E+0	1.479124E+0	1.457517E+0	1.480843E+0	1.517053E+0	1.461558E+0	1.453054E+0	1.487226E+0	1.460824E+0	1.534878E+0	1.435297E+0	1.435556E+0	1.459512E+0	1.409741E+0	1.493437E+0	1.508986E+0	1.468740E+0	1.526155E+0	1.458439E+0	1.524124E+0	1.453670E+0	1.429121E+0	1.463203E+0	1.482159E+0	1.467480E+0	1.530870E+0	1.503270E+0	1.537481E+0	1.485466E+0	1.461190E+0	1.483537E+0	1.494919E+0	1.498008E+0	1.477678E+0	1.440301E+0	1.477966E+0	1.477150E+0	1.501250E+0	1.511631E+0	1.445651E+0	1.455015E+0	1.463154E+0	1.453926E+0	1.498409E+0	1.441471E+0	1.501419E+0	1.503423E+0	1.485343E+0	1.470250E+0	1.468683E+0	1.446978E+0	1.506879E+0	1.446277E+0	1.526235E+0	1.447039E+0	1.478737E+0	1.506704E+0	1.470926E+0	1.468418E+0	1.486897E+0	1.460363E+0	1.438617E+0	1.494108E+0	1.494607E+0	1.500305E+0	1.504493E+0	1.449061E+0	1.512376E+0	1.563998E+0	1.443283E+0	1.497526E+0	1.508167E+0	1.454432E+0	1.418243E+0	1.514462E+0	1.507159E+0	1.502739E+0	1.482216E+0	1.449979E+0	1.473324E+0	1.469265E+0	1.477116E+0	1.445852E+0	1.457083E+0	1.395845E+0	1.426125E+0	1.513629E+0	1.466736E+0	1.427649E+0	1.398935E+0	1.493569E+0	1.551034E+0	1.525406E+0	1.458509E+0	1.444225E+0	1.497871E+0	1.458885E+0	1.444419E+0	1.426847E+0	1.491738E+0	1.457455E+0	1.511189E+0	1.426605E+0	1.487447E+0	1.454218E+0	1.508997E+0	1.438867E+0	1.470121E+0	1.405269E+0	1.514624E+0	1.472805E+0	1.472950E+0	1.484668E+0	1.489068E+0	1.498652E+0	1.531738E+0	1.463900E+0	1.482598E+0	1.423978E+0	1.427247E+0	1.443296E+0	1.456261E+0	1.467852E+0	1.508751E+0	1.465413E+0	1.510979E+0	1.457925E+0	1.505186E+0	1.469753E+0	1.436611E+0	1.472885E+0	1.520762E+0	1.444780E+0	1.455165E+0	1.445890E+0	1.433085E+0	1.438307E+0	1.420147E+0	1.452875E+0	1.503408E+0	1.488577E+0
5.450150E+2	1.459818E+0	1.342084E+0	1.413748E+0	1.378963E+0	1.382040E+0	1.376168E+0	1.390614E+0	1.389117E+0	1.365327E+0	1.467270E+0	1.367939E+0	1.407834E+0	1.358475E+0	1.413566E+0	1.360417E+0	1.450447E+0	1.357329E+0	1.414726E+0	1.377423E+0	1.397200E+0	1.410807E+0	1.382859E+0	1.436082E+0	1.409778E+0	1.386448E+0	1.397678E+0	1.394671E+0	1.410693E+0	1.358750E+0	1.370564E+0	1.405336E+0	1.395646E+0	1.371270E+0	1.385255E+0	1.411137E+0	1.366415E+0	1.392010E+0	1.411565E+0	1.441542E+0	1.379592E+0	1.378395E+0	1.382314E+0	1.384017E+0	1.339925E+0	1.383744E+0	1.419567E+0	1.351686E+0	1.414568E+0	1.370025E+0	1.423515E+0	1.413224E+0	1.422123E+0	1.388695E+0	1.380827E+0	1.387798E+0	1.438925E+0	1.421181E+0	1.380073E+0	1.409100E+0	1.348587E+0	1.363001E+0	1.449426E+0	1.502623E+0	1.399293E+0	1.405605E+0	1.427134E+0	1.363122E+0	1.408941E+0	1.424435E+0	1.378102E+0	1.416550E+0	1.440082E+0	1.381777E+0	1.481754E+0	1.385172E+0	1.367594E+0	1.411084E+0	1.430927E+0	1.392784E+0	1.413958E+0	1.396266E+0	1.406810E+0	1.388616E+0	1.417381E+0	1.377097E+0	1.379856E+0	1.400304E+0	1.408808E+0	1.392968E+0	1.397310E+0	1.372706E+0	1.386303E+0	1.396405E+0	1.404392E+0	1.412720E+0	1.472947E+0	1.368920E+0	1.393557E+0	1.330548E+0	1.399644E+0	1.343127E+0	1.402888E+0	1.393503E+0	1.353843E+0	1.467696E+0	1.362291E+0	1.408460E+0	1.415283E+0	1.377756E+0	1.437784E+0	1.412660E+0	1.413139E+0	1.357580E+0	1.386092E+0	1.366112E+0	1.367747E+0	1.373437E+0	1.382062E+0	1.352558E+0	1.406270E+0	1.352084E+0	1.346654E+0	1.400729E+0	1.395124E+0	1.391248E+0	1.406007E+0	1.385512E+0	1.397646E+0	1.357281E+0	1.362554E+0	1.417460E+0	1.367432E+0	1.389562E+0	1.432405E+0	1.375647E+0	1.373742E+0	1.341405E+0	1.418193E+0	1.329819E+0	1.395607E+0	1.373589E+0	1.373976E+0	1.385096E+0	1.363321E+0	1.358514E+0	1.430783E+0	1.389036E+0	1.415179E+0	1.376645E+0	1.414456E+0	1.387255E+0	1.340111E+0	1.402549E+0	1.352210E+0	1.344148E+0	1.376117E+0	1.415595E+0	1.397424E+0	1.371209E+0	1.391284E+0	1.362895E+0	1.401254E+0	1.439190E+0	1.390944E+0	1.318106E+0	1.354800E+0	1.387636E+0	1.393552E+0	1.370447E+0	1.305804E+0	1.509786E+0
5.452690E+2	1.338470E+0	1.335637E+0	1.351391E+0	1.320115E+0	1.335806E+0	1.321877E+0	1.365478E+0	1.291551E+0	1.264697E+0	1.321640E+0	1.309152E+0	1.356540E+0	1.305381E+0	1.339309E+0	1.319606E+0	1.340426E+0	1.308744E+0	1.355087E+0	1.315447E+0	1.338874E+0	1.324082E+0	1.338015E+0	1.334779E+0	1.325421E+0	1.294057E+0	1.333524E+0	1.311450E+0	1.387785E+0	1.319161E+0	1.303502E+0	1.284923E+0	1.324256E+0	1.258026E+0	1.318013E+0	1.321685E+0	1.343036E+0	1.371272E+0	1.286813E+0	1.307638E+0	1.307623E+0	1.288856E+0	1.311435E+0	1.370794E+0	1.290040E+0	1.371064E+0	1.282827E+0	1.321986E+0	1.351488E+0	1.277482E+0	1.411724E+0	1.286759E+0	1.324843E+0	1.298303E+0	1.340813E+0	1.315713E+0	1.357525E+0	1.302419E+0	1.369736E+0	1.278411E+0	1.287944E+0	1.339277E+0	1.356779E+0	1.327301E+0	1.298321E+0	1.346054E+0	1.334483E+0	1.312562E+0	1.394088E+0	1.358996E+0	1.304334E+0	1.293072E+0	1.304260E+0	1.302189E+0	1.370933E+0	1.332660E+0	1.310174E+0	1.342122E+0	1.286143E+0	1.326702E+0	1.313022E+0	1.308006E+0	1.281208E+0	1.358348E+0	1.325155E+0	1.361345E+0	1.328458E+0	1.313976E+0	1.370546E+0	1.271758E+0	1.334304E+0	1.323515E+0	1.389433E+0	1.333138E+0	1.333775E+0	1.322560E+0	1.349023E+0	1.315696E+0	1.337932E+0	1.318235E+0	1.309417E+0	1.345058E+0	1.338280E+0	1.278166E+0	1.293514E+0	1.324883E+0	1.308924E+0	1.311790E+0	1.309027E+0	1.308419E+0	1.326460E+0	1.281295E+0	1.346016E+0	1.320996E+0	1.343619E+0	1.261076E+0	1.319175E+0	1.318298E+0	1.294250E+0	1.331637E+0	1.306325E+0	1.358257E+0	1.341431E+0	1.372227E+0	1.330567E+0	1.295019E+0	1.278920E+0	1.340739E+0	1.303515E+0	1.298083E+0	1.386287E+0	1.338612E+0	1.371050E+0	1.324245E+0	1.338246E+0	1.326708E+0	1.357377E+0	1.289041E+0	1.307850E+0	1.247371E+0	1.344774E+0	1.324595E+0	1.321663E+0	1.277549E+0	1.305985E+0	1.334984E+0	1.295369E+0	1.328620E+0	1.347699E+0	1.288204E+0	1.295143E+0	1.323319E+0	1.292456E+0	1.312154E+0	1.360809E+0	1.330007E+0	1.332031E+0	1.338849E+0	1.333665E+0	1.332825E+0	1.301926E+0	1.358795E+0	1.306047E+0	1.362554E+0	1.304154E+0	1.281799E+0	1.288928E+0	1.321836E+0	1.275793E+0	1.319565E+0	1.446025E+0	1.243406E+0
5.455450E+2	1.303076E+0	1.309450E+0	1.251260E+0	1.273635E+0	1.274205E+0	1.232817E+0	1.298113E+0	1.266300E+0	1.296006E+0	1.256040E+0	1.309367E+0	1.268956E+0	1.254614E+0	1.301994E+0	1.270368E+0	1.261299E+0	1.299258E+0	1.313887E+0	1.274193E+0	1.292353E+0	1.293353E+0	1.255052E+0	1.282850E+0	1.265549E+0	1.255336E+0	1.313674E+0	1.332041E+0	1.260794E+0	1.236270E+0	1.256785E+0	1.262752E+0	1.302085E+0	1.192014E+0	1.234177E+0	1.278207E+0	1.272002E+0	1.248604E+0	1.326102E+0	1.275474E+0	1.297553E+0	1.288907E+0	1.269540E+0	1.293559E+0	1.307498E+0	1.255673E+0	1.249432E+0	1.255575E+0	1.318946E+0	1.277474E+0	1.292016E+0	1.292390E+0	1.270589E+0	1.288803E+0	1.225147E+0	1.241130E+0	1.259564E+0	1.274672E+0	1.230899E+0	1.249593E+0	1.242482E+0	1.270001E+0	1.307744E+0	1.243677E+0	1.249863E+0	1.253058E+0	1.255662E+0	1.230563E+0	1.214890E+0	1.289943E+0	1.242358E+0	1.279975E+0	1.252227E+0	1.258864E+0	1.234526E+0	1.288524E+0	1.229130E+0	1.250664E+0	1.253651E+0	1.299542E+0	1.283731E+0	1.234301E+0	1.239996E+0	1.253463E+0	1.304018E+0	1.224010E+0	1.250810E+0	1.284457E+0	1.257905E+0	1.291394E+0	1.274543E+0	1.193401E+0	1.343305E+0	1.259460E+0	1.272939E+0	1.281458E+0	1.262233E+0	1.247460E+0	1.319219E+0	1.241028E+0	1.274605E+0	1.264623E+0	1.209660E+0	1.273179E+0	1.294771E+0	1.272363E+0	1.253551E+0	1.249168E+0	1.267447E+0	1.222820E+0	1.251905E+0	1.278784E+0	1.258856E+0	1.246409E+0	1.238604E+0	1.222312E+0	1.279054E+0	1.318090E+0	1.279719E+0	1.216750E+0	1.226457E+0	1.240220E+0	1.290231E+0	1.277706E+0	1.280033E+0	1.251130E+0	1.285135E+0	1.240682E+0	1.286965E+0	1.287686E+0	1.348097E+0	1.289384E+0	1.282056E+0	1.181384E+0	1.296195E+0	1.244360E+0	1.271529E+0	1.256910E+0	1.260794E+0	1.304372E+0	1.277360E+0	1.296026E+0	1.252843E+0	1.284914E+0	1.281130E+0	1.260789E+0	1.269734E+0	1.250145E+0	1.265611E+0	1.243815E+0	1.268718E+0	1.243568E+0	1.248776E+0	1.277725E+0	1.351813E+0	1.232317E+0	1.241998E+0	1.235021E+0	1.291810E+0	1.299769E+0	1.276479E+0	1.199116E+0	1.257924E+0	1.255173E+0	1.287119E+0	1.220729E+0	1.232122E+0	1.287795E+0	1.245811E+0	1.180945E+0	1.256047E+0	1.192236E+0
5.457780E+2	1.221657E+0	1.193959E+0	1.181928E+0	1.210013E+0	1.222982E+0	1.176761E+0	1.218107E+0	1.220579E+0	1.227109E+0	1.145338E+0	1.176557E+0	1.226571E+0	1.186488E+0	1.207910E+0	1.191857E+0	1.207957E+0	1.210097E+0	1.189563E+0	1.227899E+0	1.196840E+0	1.233835E+0	1.175195E+0	1.220423E+0	1.248603E+0	1.182156E+0	1.216603E+0	1.188097E+0	1.216942E+0	1.241904E+0	1.191366E+0	1.187325E+0	1.206064E+0	1.123623E+0	1.188755E+0	1.231580E+0	1.214274E+0	1.232081E+0	1.208125E+0	1.215292E+0	1.216810E+0	1.169342E+0	1.187000E+0	1.217939E+0	1.245405E+0	1.175631E+0	1.239760E+0	1.233733E+0	1.224602E+0	1.181550E+0	1.201859E+0	1.231755E+0	1.217758E+0	1.198506E+0	1.202699E+0	1.194420E+0	1.176252E+0	1.224660E+0	1.156464E+0	1.249142E+0	1.228861E+0	1.187224E+0	1.197053E+0	1.201455E+0	1.205274E+0	1.220797E+0	1.217890E+0	1.171691E+0	1.168882E+0	1.180127E+0	1.183764E+0	1.195136E+0	1.148138E+0	1.228543E+0	1.223062E+0	1.183525E+0	1.248119E+0	1.190074E+0	1.237324E+0	1.238635E+0	1.207959E+0	1.149732E+0	1.146750E+0	1.220342E+0	1.201962E+0	1.210660E+0	1.212689E+0	1.263608E+0	1.204940E+0	1.200665E+0	1.207704E+0	1.214629E+0	1.200113E+0	1.218995E+0	1.178789E+0	1.248601E+0	1.197500E+0	1.118154E+0	1.225311E+0	1.178214E+0	1.209969E+0	1.182296E+0	1.212011E+0	1.195691E+0	1.216968E+0	1.163577E+0	1.179211E+0	1.215891E+0	1.232489E+0	1.188364E+0	1.187726E+0	1.263235E+0	1.184031E+0	1.166243E+0	1.232606E+0	1.207774E+0	1.185433E+0	1.221486E+0	1.194867E+0	1.214913E+0	1.200578E+0	1.184714E+0	1.165514E+0	1.238086E+0	1.233108E+0	1.173314E+0	1.244562E+0	1.203833E+0	1.199042E+0	1.174291E+0	1.198037E+0	1.219080E+0	1.179886E+0	1.183858E+0	1.172579E+0	1.162278E+0	1.175018E+0	1.131949E+0	1.144007E+0	1.159523E+0	1.203978E+0	1.210410E+0	1.223799E+0	1.235943E+0	1.188068E+0	1.157184E+0	1.241947E+0	1.211040E+0	1.220105E+0	1.164408E+0	1.187751E+0	1.171170E+0	1.185945E+0	1.190407E+0	1.257425E+0	1.192223E+0	1.240900E+0	1.219589E+0	1.240961E+0	1.231959E+0	1.211703E+0	1.178639E+0	1.207800E+0	1.167557E+0	1.189474E+0	1.141104E+0	1.173170E+0	1.221381E+0	1.206195E+0	1.220261E+0	1.239117E+0	1.252238E+0
5.460220E+2	1.226179E+0	1.192335E+0	1.182814E+0	1.195630E+0	1.184561E+0	1.172042E+0	1.185300E+0	1.148513E+0	1.231722E+0	1.131226E+0	1.160397E+0	1.188385E+0	1.165521E+0	1.188412E+0	1.152260E+0	1.213664E+0	1.237971E+0	1.171085E+0	1.167610E+0	1.173870E+0	1.156437E+0	1.187699E+0	1.172228E+0	1.202246E+0	1.135040E+0	1.210285E+0	1.207495E+0	1.210912E+0	1.176119E+0	1.175157E+0	1.137368E+0	1.185792E+0	1.128146E+0	1.151068E+0	1.158261E+0	1.220703E+0	1.151058E+0	1.144042E+0	1.189191E+0	1.156053E+0	1.194419E+0	1.157652E+0	1.149603E+0	1.202997E+0	1.196966E+0	1.168246E+0	1.205761E+0	1.205478E+0	1.148335E+0	1.186507E+0	1.203855E+0	1.172189E+0	1.184318E+0	1.163407E+0	1.185045E+0	1.184114E+0	1.176430E+0	1.184559E+0	1.208638E+0	1.175568E+0	1.187058E+0	1.189632E+0	1.176821E+0	1.167475E+0	1.154277E+0	1.162987E+0	1.145309E+0	1.174619E+0	1.228537E+0	1.190400E+0	1.206878E+0	1.172680E+0	1.200956E+0	1.181209E+0	1.187702E+0	1.241553E+0	1.167354E+0	1.186867E+0	1.239143E+0	1.217999E+0	1.183984E+0	1.161842E+0	1.189964E+0	1.150270E+0	1.200064E+0	1.166445E+0	1.210475E+0	1.188059E+0	1.190441E+0	1.194571E+0	1.171782E+0	1.180723E+0	1.168270E+0	1.144423E+0	1.218363E+0	1.252337E+0	1.159394E+0	1.234134E+0	1.189785E+0	1.221041E+0	1.176796E+0	1.172240E+0	1.204293E+0	1.147185E+0	1.234174E+0	1.169601E+0	1.173268E+0	1.229323E+0	1.169227E+0	1.152241E+0	1.252270E+0	1.162235E+0	1.163567E+0	1.185340E+0	1.151471E+0	1.169138E+0	1.160053E+0	1.198353E+0	1.215293E+0	1.201491E+0	1.212301E+0	1.189986E+0	1.214987E+0	1.132178E+0	1.170182E+0	1.223302E+0	1.184064E+0	1.230032E+0	1.183751E+0	1.176406E+0	1.147732E+0	1.209952E+0	1.197932E+0	1.193128E+0	1.196903E+0	1.232907E+0	1.152213E+0	1.203156E+0	1.201102E+0	1.184343E+0	1.190974E+0	1.160337E+0	1.230314E+0	1.201341E+0	1.213967E+0	1.177322E+0	1.181282E+0	1.232353E+0	1.116888E+0	1.192092E+0	1.177731E+0	1.176444E+0	1.192833E+0	1.232644E+0	1.137634E+0	1.178970E+0	1.165870E+0	1.155143E+0	1.209955E+0	1.188556E+0	1.166314E+0	1.229749E+0	1.201685E+0	1.189570E+0	1.203520E+0	1.188887E+0	1.148466E+0	1.132432E+0	1.213997E+0	1.217395E+0	1.210219E+0
5.467710E+2	1.329786E+0	1.267594E+0	1.241865E+0	1.285968E+0	1.283615E+0	1.257849E+0	1.235037E+0	1.277915E+0	1.266415E+0	1.261761E+0	1.249458E+0	1.257686E+0	1.236538E+0	1.248239E+0	1.330725E+0	1.276483E+0	1.223743E+0	1.299788E+0	1.239944E+0	1.284821E+0	1.257314E+0	1.262153E+0	1.282651E+0	1.261675E+0	1.278066E+0	1.192332E+0	1.287614E+0	1.303238E+0	1.261060E+0	1.270908E+0	1.260977E+0	1.226403E+0	1.251472E+0	1.249927E+0	1.309197E+0	1.259286E+0	1.254677E+0	1.238319E+0	1.247457E+0	1.274679E+0	1.212980E+0	1.246223E+0	1.281968E+0	1.315669E+0	1.254283E+0	1.233244E+0	1.315694E+0	1.312075E+0	1.226884E+0	1.245075E+0	1.253593E+0	1.272785E+0	1.246467E+0	1.245017E+0	1.292567E+0	1.268565E+0	1.252253E+0	1.310155E+0	1.325089E+0	1.281766E+0	1.277698E+0	1.278963E+0	1.283287E+0	1.233334E+0	1.282246E+0	1.260415E+0	1.297364E+0	1.252629E+0	1.296225E+0	1.272278E+0	1.271590E+0	1.293133E+0	1.251639E+0	1.327370E+0	1.263283E+0	1.286338E+0	1.278776E+0	1.272172E+0	1.281562E+0	1.209163E+0	1.248537E+0	1.252132E+0	1.223579E+0	1.285908E+0	1.251663E+0	1.243239E+0	1.315101E+0	1.324192E+0	1.289111E+0	1.241864E+0	1.266017E+0	1.277759E+0	1.251037E+0	1.277172E+0	1.285694E+0	1.295147E+0	1.263339E+0	1.232791E+0	1.287082E+0	1.253043E+0	1.258673E+0	1.266157E+0	1.281018E+0	1.246142E+0	1.290452E+0	1.240678E+0	1.316485E+0	1.304327E+0	1.270949E+0	1.229249E+0	1.291157E+0	1.277296E+0	1.250456E+0	1.230770E+0	1.272063E+0	1.231760E+0	1.327713E+0	1.281178E+0	1.278745E+0	1.244609E+0	1.299757E+0	1.307544E+0	1.312866E+0	1.210527E+0	1.240899E+0	1.257898E+0	1.281272E+0	1.278686E+0	1.233681E+0	1.260935E+0	1.313300E+0	1.321725E+0	1.282892E+0	1.296694E+0	1.276882E+0	1.253742E+0	1.262533E+0	1.243109E+0	1.290572E+0	1.247631E+0	1.275256E+0	1.239893E+0	1.305625E+0	1.290359E+0	1.324649E+0	1.257747E+0	1.216799E+0	1.296582E+0	1.244372E+0	1.219397E+0	1.271021E+0	1.264685E+0	1.270088E+0	1.298404E+0	1.281020E+0	1.211081E+0	1.300087E+0	1.300643E+0	1.282359E+0	1.288948E+0	1.225412E+0	1.293302E+0	1.291431E+0	1.250412E+0	1.283644E+0	1.234260E+0	1.283972E+0	1.306710E+0	1.269503E+0	1.221491E+0	1.320688E+0
5.475120E+2	1.482334E+0	1.389863E+0	1.343077E+0	1.387233E+0	1.439662E+0	1.409413E+0	1.368320E+0	1.377955E+0	1.389597E+0	1.358990E+0	1.457755E+0	1.417470E+0	1.392318E+0	1.378598E+0	1.384114E+0	1.395307E+0	1.369868E+0	1.445774E+0	1.343844E+0	1.399022E+0	1.393433E+0	1.394049E+0	1.414905E+0	1.386834E+0	1.348151E+0	1.357565E+0	1.376177E+0	1.411303E+0	1.367028E+0	1.412783E+0	1.422323E+0	1.429049E+0	1.366902E+0	1.382356E+0	1.452690E+0	1.339717E+0	1.357154E+0	1.392464E+0	1.408704E+0	1.395367E+0	1.362674E+0	1.370529E+0	1.483434E+0	1.397448E+0	1.459934E+0	1.375682E+0	1.416050E+0	1.414135E+0	1.327714E+0	1.389971E+0	1.401518E+0	1.427481E+0	1.397862E+0	1.383846E+0	1.425692E+0	1.402846E+0	1.369703E+0	1.393237E+0	1.436774E+0	1.379138E+0	1.394903E+0	1.340692E+0	1.315813E+0	1.434923E+0	1.369515E+0	1.381540E+0	1.368400E+0	1.359328E+0	1.404737E+0	1.365617E+0	1.357106E+0	1.362717E+0	1.366200E+0	1.432989E+0	1.420360E+0	1.386537E+0	1.407389E+0	1.383337E+0	1.394920E+0	1.414118E+0	1.402543E+0	1.351884E+0	1.413572E+0	1.419488E+0	1.361892E+0	1.419091E+0	1.395478E+0	1.385318E+0	1.419131E+0	1.366643E+0	1.357969E+0	1.399721E+0	1.388102E+0	1.388425E+0	1.455487E+0	1.353151E+0	1.410165E+0	1.386988E+0	1.379741E+0	1.418868E+0	1.330514E+0	1.396796E+0	1.388944E+0	1.362202E+0	1.430147E+0	1.346476E+0	1.367246E+0	1.388791E+0	1.391025E+0	1.395802E+0	1.408174E+0	1.399561E+0	1.356673E+0	1.392406E+0	1.312010E+0	1.365189E+0	1.402960E+0	1.371542E+0	1.374222E+0	1.391215E+0	1.363055E+0	1.337643E+0	1.400219E+0	1.385393E+0	1.403956E+0	1.331281E+0	1.352259E+0	1.446671E+0	1.418134E+0	1.371195E+0	1.480993E+0	1.363535E+0	1.366278E+0	1.405083E+0	1.398310E+0	1.427249E+0	1.366451E+0	1.399045E+0	1.345818E+0	1.388232E+0	1.368954E+0	1.370480E+0	1.401359E+0	1.375602E+0	1.366210E+0	1.370343E+0	1.312094E+0	1.412918E+0	1.328510E+0	1.360624E+0	1.386189E+0	1.356634E+0	1.387212E+0	1.354544E+0	1.336214E+0	1.378592E+0	1.407879E+0	1.389227E+0	1.431580E+0	1.379849E+0	1.405584E+0	1.405630E+0	1.412032E+0	1.372836E+0	1.346207E+0	1.336038E+0	1.371853E+0	1.346599E+0	1.379652E+0	1.360793E+0	1.550425E+0
5.482600E+2	1.532646E+0	1.462566E+0	1.469921E+0	1.443704E+0	1.497757E+0	1.479651E+0	1.439822E+0	1.453641E+0	1.486445E+0	1.441308E+0	1.474789E+0	1.472555E+0	1.452831E+0	1.429086E+0	1.485485E+0	1.472992E+0	1.482921E+0	1.516626E+0	1.467641E+0	1.474790E+0	1.495697E+0	1.481247E+0	1.484943E+0	1.478993E+0	1.478685E+0	1.462681E+0	1.477884E+0	1.471324E+0	1.474004E+0	1.445460E+0	1.435005E+0	1.502799E+0	1.462948E+0	1.515668E+0	1.495624E+0	1.508114E+0	1.429647E+0	1.472651E+0	1.454058E+0	1.518240E+0	1.472714E+0	1.437119E+0	1.540148E+0	1.428328E+0	1.459428E+0	1.449370E+0	1.487003E+0	1.502028E+0	1.424540E+0	1.512502E+0	1.418433E+0	1.493960E+0	1.462066E+0	1.495280E+0	1.450785E+0	1.489909E+0	1.538444E+0	1.471420E+0	1.497642E+0	1.456883E+0	1.491462E+0	1.440724E+0	1.506716E+0	1.495745E+0	1.456016E+0	1.445071E+0	1.498099E+0	1.503604E+0	1.468769E+0	1.505550E+0	1.477123E+0	1.440643E+0	1.456142E+0	1.540917E+0	1.478738E+0	1.449539E+0	1.477051E+0	1.427565E+0	1.462697E+0	1.459495E+0	1.430898E+0	1.472206E+0	1.475456E+0	1.491598E+0	1.482248E+0	1.512695E+0	1.514715E+0	1.496452E+0	1.422897E+0	1.487328E+0	1.457833E+0	1.506243E+0	1.483362E+0	1.433789E+0	1.512993E+0	1.424884E+0	1.384101E+0	1.498878E+0	1.421349E+0	1.495678E+0	1.477469E+0	1.511634E+0	1.428380E+0	1.427935E+0	1.446901E+0	1.467329E+0	1.507191E+0	1.471573E+0	1.436331E+0	1.478372E+0	1.483128E+0	1.464285E+0	1.379175E+0	1.429699E+0	1.451066E+0	1.433662E+0	1.527306E+0	1.455462E+0	1.491498E+0	1.444747E+0	1.488371E+0	1.419129E+0	1.512423E+0	1.443376E+0	1.467796E+0	1.435052E+0	1.478340E+0	1.495046E+0	1.450683E+0	1.474396E+0	1.537856E+0	1.517421E+0	1.431967E+0	1.483562E+0	1.487248E+0	1.474922E+0	1.442868E+0	1.483426E+0	1.453900E+0	1.462986E+0	1.468597E+0	1.424256E+0	1.471579E+0	1.533666E+0	1.459365E+0	1.512203E+0	1.479152E+0	1.475376E+0	1.422737E+0	1.484132E+0	1.498873E+0	1.485208E+0	1.478151E+0	1.434639E+0	1.473267E+0	1.480473E+0	1.481103E+0	1.457091E+0	1.445657E+0	1.490452E+0	1.435462E+0	1.434732E+0	1.495285E+0	1.410956E+0	1.394726E+0	1.427900E+0	1.446974E+0	1.435013E+0	1.468116E+0	1.456782E+0	1.462225E+0
5.490100E+2	1.503090E+0	1.385061E+0	1.497660E+0	1.457110E+0	1.460032E+0	1.420739E+0	1.452650E+0	1.449629E+0	1.420333E+0	1.399898E+0	1.458216E+0	1.498663E+0	1.431144E+0	1.434043E+0	1.460934E+0	1.440529E+0	1.418559E+0	1.468748E+0	1.390488E+0	1.421198E+0	1.375376E+0	1.437370E+0	1.454383E+0	1.407788E+0	1.419692E+0	1.447819E+0	1.450205E+0	1.487341E+0	1.406325E+0	1.446210E+0	1.420063E+0	1.422032E+0	1.405576E+0	1.416852E+0	1.424885E+0	1.434950E+0	1.419315E+0	1.444168E+0	1.423278E+0	1.409154E+0	1.409210E+0	1.423850E+0	1.421254E+0	1.439520E+0	1.460156E+0	1.467180E+0	1.470359E+0	1.501504E+0	1.404920E+0	1.420915E+0	1.455617E+0	1.396921E+0	1.418145E+0	1.377146E+0	1.378375E+0	1.402800E+0	1.421583E+0	1.460304E+0	1.437712E+0	1.427545E+0	1.427455E+0	1.423400E+0	1.406361E+0	1.457378E+0	1.379488E+0	1.432198E+0	1.387366E+0	1.414805E+0	1.440959E+0	1.353229E+0	1.422263E+0	1.396966E+0	1.410700E+0	1.408090E+0	1.467518E+0	1.371745E+0	1.437864E+0	1.433116E+0	1.463573E+0	1.420427E+0	1.392593E+0	1.411064E+0	1.400577E+0	1.426649E+0	1.417916E+0	1.431199E+0	1.436015E+0	1.438690E+0	1.422132E+0	1.434902E+0	1.439010E+0	1.404619E+0	1.400670E+0	1.393593E+0	1.454653E+0	1.429069E+0	1.366032E+0	1.460868E+0	1.450645E+0	1.441836E+0	1.445273E+0	1.422125E+0	1.450182E+0	1.428814E+0	1.463147E+0	1.401243E+0	1.384190E+0	1.427579E+0	1.409831E+0	1.400195E+0	1.475572E+0	1.441671E+0	1.401480E+0	1.391889E+0	1.367152E+0	1.410037E+0	1.398829E+0	1.428707E+0	1.389383E+0	1.404971E+0	1.393314E+0	1.391728E+0	1.437497E+0	1.383556E+0	1.431650E+0	1.369939E+0	1.473056E+0	1.444459E+0	1.366636E+0	1.407204E+0	1.422167E+0	1.435826E+0	1.340268E+0	1.444576E+0	1.396832E+0	1.347677E+0	1.395181E+0	1.411272E+0	1.426283E+0	1.439572E+0	1.370521E+0	1.390946E+0	1.368393E+0	1.431833E+0	1.424763E+0	1.447331E+0	1.444051E+0	1.407803E+0	1.378519E+0	1.462886E+0	1.405727E+0	1.449049E+0	1.419374E+0	1.446915E+0	1.403354E+0	1.454659E+0	1.429037E+0	1.431839E+0	1.458014E+0	1.446245E+0	1.404484E+0	1.433180E+0	1.373328E+0	1.446075E+0	1.404413E+0	1.454790E+0	1.442036E+0	1.339558E+0	1.359930E+0	1.409343E+0	1.463350E+0
5.497740E+2	1.411002E+0	1.333287E+0	1.362394E+0	1.332629E+0	1.420103E+0	1.406410E+0	1.358719E+0	1.420197E+0	1.406728E+0	1.315829E+0	1.377362E+0	1.329649E+0	1.359827E+0	1.352888E+0	1.403199E+0	1.347672E+0	1.421022E+0	1.369119E+0	1.310244E+0	1.374211E+0	1.362114E+0	1.357717E+0	1.374374E+0	1.356295E+0	1.358056E+0	1.373915E+0	1.363158E+0	1.429071E+0	1.363226E+0	1.405956E+0	1.366951E+0	1.373666E+0	1.309223E+0	1.319654E+0	1.377101E+0	1.386698E+0	1.374444E+0	1.350497E+0	1.394933E+0	1.378500E+0	1.302341E+0	1.346602E+0	1.433407E+0	1.382260E+0	1.387004E+0	1.410506E+0	1.396135E+0	1.435380E+0	1.321407E+0	1.383015E+0	1.388852E+0	1.348110E+0	1.357084E+0	1.341031E+0	1.352213E+0	1.334454E+0	1.336775E+0	1.346818E+0	1.374040E+0	1.349407E+0	1.369099E+0	1.355860E+0	1.427058E+0	1.300162E+0	1.449274E+0	1.413279E+0	1.338479E+0	1.354620E+0	1.412101E+0	1.383055E+0	1.322397E+0	1.366124E+0	1.388398E+0	1.360240E+0	1.331958E+0	1.369095E+0	1.374366E+0	1.388482E+0	1.395939E+0	1.399283E+0	1.323406E+0	1.389334E+0	1.375649E+0	1.340228E+0	1.323615E+0	1.366388E+0	1.407816E+0	1.381568E+0	1.340731E+0	1.342073E+0	1.342172E+0	1.347679E+0	1.329890E+0	1.338687E+0	1.361982E+0	1.379131E+0	1.353997E+0	1.354935E+0	1.372282E+0	1.385267E+0	1.326871E+0	1.403106E+0	1.326591E+0	1.367836E+0	1.382034E+0	1.348234E+0	1.395193E+0	1.366331E+0	1.377901E+0	1.361513E+0	1.330266E+0	1.391792E+0	1.326564E+0	1.317604E+0	1.254073E+0	1.338535E+0	1.338522E+0	1.317940E+0	1.424648E+0	1.337905E+0	1.379968E+0	1.326503E+0	1.351417E+0	1.345755E+0	1.373917E+0	1.360808E+0	1.354029E+0	1.372229E+0	1.343125E+0	1.337990E+0	1.373160E+0	1.324031E+0	1.348474E+0	1.397427E+0	1.344528E+0	1.389226E+0	1.363618E+0	1.366056E+0	1.341012E+0	1.306899E+0	1.358038E+0	1.333713E+0	1.338863E+0	1.345963E+0	1.361374E+0	1.351936E+0	1.331060E+0	1.375262E+0	1.317965E+0	1.355423E+0	1.364452E+0	1.382942E+0	1.337985E+0	1.341667E+0	1.348608E+0	1.348855E+0	1.385572E+0	1.331297E+0	1.304869E+0	1.374450E+0	1.337089E+0	1.362684E+0	1.351280E+0	1.312070E+0	1.378515E+0	1.382948E+0	1.384078E+0	1.342207E+0	1.324802E+0	1.373312E+0	1.418868E+0
5.505170E+2	1.399512E+0	1.364066E+0	1.390022E+0	1.302387E+0	1.285376E+0	1.295705E+0	1.376828E+0	1.332136E+0	1.294201E+0	1.346804E+0	1.287205E+0	1.367997E+0	1.359257E+0	1.333369E+0	1.341187E+0	1.367858E+0	1.340676E+0	1.342876E+0	1.302304E+0	1.365140E+0	1.319006E+0	1.318838E+0	1.297256E+0	1.334420E+0	1.262087E+0	1.295210E+0	1.404662E+0	1.341448E+0	1.331617E+0	1.308060E+0	1.308247E+0	1.321108E+0	1.347984E+0	1.328124E+0	1.316164E+0	1.341381E+0	1.314468E+0	1.320273E+0	1.352325E+0	1.278923E+0	1.356389E+0	1.291458E+0	1.330952E+0	1.334313E+0	1.328740E+0	1.380484E+0	1.378920E+0	1.337340E+0	1.256242E+0	1.373266E+0	1.304758E+0	1.316715E+0	1.288135E+0	1.303689E+0	1.330353E+0	1.382376E+0	1.326461E+0	1.341299E+0	1.316452E+0	1.346810E+0	1.251488E+0	1.333964E+0	1.324648E+0	1.338281E+0	1.334783E+0	1.344807E+0	1.308091E+0	1.312628E+0	1.380036E+0	1.318495E+0	1.299320E+0	1.312599E+0	1.320683E+0	1.323948E+0	1.361303E+0	1.345628E+0	1.293059E+0	1.325429E+0	1.378307E+0	1.366899E+0	1.278498E+0	1.267032E+0	1.338437E+0	1.316885E+0	1.271951E+0	1.300285E+0	1.379280E+0	1.265697E+0	1.355881E+0	1.361192E+0	1.254249E+0	1.321818E+0	1.327568E+0	1.332282E+0	1.378894E+0	1.358369E+0	1.307570E+0	1.367074E+0	1.287555E+0	1.296321E+0	1.359680E+0	1.341295E+0	1.325039E+0	1.309537E+0	1.353721E+0	1.285692E+0	1.321098E+0	1.356103E+0	1.302342E+0	1.337780E+0	1.347839E+0	1.386808E+0	1.303397E+0	1.416443E+0	1.290888E+0	1.308199E+0	1.310795E+0	1.295883E+0	1.285803E+0	1.302337E+0	1.328175E+0	1.317835E+0	1.357582E+0	1.306448E+0	1.283837E+0	1.386076E+0	1.291023E+0	1.342056E+0	1.339450E+0	1.354432E+0	1.390249E+0	1.366004E+0	1.340633E+0	1.299442E+0	1.300415E+0	1.305585E+0	1.353847E+0	1.332495E+0	1.276036E+0	1.339854E+0	1.323448E+0	1.265677E+0	1.344715E+0	1.316344E+0	1.364257E+0	1.284891E+0	1.314428E+0	1.340780E+0	1.313476E+0	1.284121E+0	1.296337E+0	1.336837E+0	1.304831E+0	1.323391E+0	1.348389E+0	1.312626E+0	1.293209E+0	1.345154E+0	1.280037E+0	1.351568E+0	1.273809E+0	1.324497E+0	1.356421E+0	1.271526E+0	1.254598E+0	1.309784E+0	1.379150E+0	1.326287E+0	1.380138E+0	1.360582E+0	1.274692E+0
5.512620E+2	1.363129E+0	1.341891E+0	1.343128E+0	1.282437E+0	1.315895E+0	1.294907E+0	1.322532E+0	1.315717E+0	1.301577E+0	1.310889E+0	1.327528E+0	1.319260E+0	1.276742E+0	1.286709E+0	1.319361E+0	1.314636E+0	1.294245E+0	1.280339E+0	1.280966E+0	1.367091E+0	1.276690E+0	1.335513E+0	1.295945E+0	1.323230E+0	1.277720E+0	1.304402E+0	1.350744E+0	1.307392E+0	1.312563E+0	1.284024E+0	1.295154E+0	1.345099E+0	1.345858E+0	1.311092E+0	1.327229E+0	1.314388E+0	1.309036E+0	1.277324E+0	1.342817E+0	1.339197E+0	1.340910E+0	1.305606E+0	1.265858E+0	1.268926E+0	1.351426E+0	1.352964E+0	1.303306E+0	1.341186E+0	1.317724E+0	1.336239E+0	1.246993E+0	1.367049E+0	1.279373E+0	1.296257E+0	1.327434E+0	1.310486E+0	1.367983E+0	1.367084E+0	1.362568E+0	1.319704E+0	1.315839E+0	1.293638E+0	1.302122E+0	1.363194E+0	1.322169E+0	1.344137E+0	1.289575E+0	1.286971E+0	1.338325E+0	1.302542E+0	1.314782E+0	1.309348E+0	1.229013E+0	1.352442E+0	1.326708E+0	1.266418E+0	1.327318E+0	1.304253E+0	1.304855E+0	1.317039E+0	1.248844E+0	1.288176E+0	1.263541E+0	1.333312E+0	1.322190E+0	1.342823E+0	1.305910E+0	1.304689E+0	1.333591E+0	1.295939E+0	1.286298E+0	1.327746E+0	1.357969E+0	1.287689E+0	1.279101E+0	1.336234E+0	1.321142E+0	1.310771E+0	1.365821E+0	1.299591E+0	1.291256E+0	1.369666E+0	1.241372E+0	1.317503E+0	1.348867E+0	1.280383E+0	1.330109E+0	1.329309E+0	1.360264E+0	1.313520E+0	1.315916E+0	1.341486E+0	1.287856E+0	1.284651E+0	1.321517E+0	1.365822E+0	1.342137E+0	1.341309E+0	1.302505E+0	1.299838E+0	1.357102E+0	1.263547E+0	1.325392E+0	1.386401E+0	1.301002E+0	1.331133E+0	1.348230E+0	1.297794E+0	1.285410E+0	1.357999E+0	1.357139E+0	1.323820E+0	1.242995E+0	1.375466E+0	1.287269E+0	1.326963E+0	1.299850E+0	1.346426E+0	1.259873E+0	1.273534E+0	1.314792E+0	1.250593E+0	1.304976E+0	1.328090E+0	1.296588E+0	1.291612E+0	1.317200E+0	1.321578E+0	1.329775E+0	1.284669E+0	1.312320E+0	1.320974E+0	1.259373E+0	1.291340E+0	1.321497E+0	1.321238E+0	1.272117E+0	1.298780E+0	1.331498E+0	1.313516E+0	1.265312E+0	1.311530E+0	1.315796E+0	1.327446E+0	1.298514E+0	1.270324E+0	1.306643E+0	1.371344E+0	1.290184E+0	1.284035E+0	1.355461E+0
5.520150E+2	1.389543E+0	1.339872E+0	1.278013E+0	1.305138E+0	1.319420E+0	1.316752E+0	1.312454E+0	1.349736E+0	1.335559E+0	1.316151E+0	1.324939E+0	1.336229E+0	1.302425E+0	1.283416E+0	1.322799E+0	1.366296E+0	1.306517E+0	1.339001E+0	1.281240E+0	1.320900E+0	1.271733E+0	1.302009E+0	1.305763E+0	1.313178E+0	1.294928E+0	1.363455E+0	1.322909E+0	1.294910E+0	1.352599E+0	1.305199E+0	1.305397E+0	1.328966E+0	1.297086E+0	1.312719E+0	1.299882E+0	1.287197E+0	1.326748E+0	1.292497E+0	1.308363E+0	1.312146E+0	1.324709E+0	1.364271E+0	1.282894E+0	1.351668E+0	1.356144E+0	1.377530E+0	1.314220E+0	1.325731E+0	1.316658E+0	1.294013E+0	1.294707E+0	1.368416E+0	1.307651E+0	1.313261E+0	1.307012E+0	1.339278E+0	1.345690E+0	1.356211E+0	1.305258E+0	1.305641E+0	1.333503E+0	1.309950E+0	1.304350E+0	1.309130E+0	1.290617E+0	1.317438E+0	1.335072E+0	1.263915E+0	1.334940E+0	1.307003E+0	1.293700E+0	1.302949E+0	1.294204E+0	1.310144E+0	1.336653E+0	1.335918E+0	1.301092E+0	1.338064E+0	1.376528E+0	1.331530E+0	1.278851E+0	1.305489E+0	1.290056E+0	1.325256E+0	1.315032E+0	1.312638E+0	1.344293E+0	1.340482E+0	1.340995E+0	1.336375E+0	1.318755E+0	1.349671E+0	1.333069E+0	1.299616E+0	1.319375E+0	1.339257E+0	1.279085E+0	1.321619E+0	1.306464E+0	1.352295E+0	1.328929E+0	1.310009E+0	1.355761E+0	1.316394E+0	1.341971E+0	1.304801E+0	1.305034E+0	1.308636E+0	1.296281E+0	1.288834E+0	1.318788E+0	1.334475E+0	1.310769E+0	1.291918E+0	1.355617E+0	1.344932E+0	1.288423E+0	1.268360E+0	1.276021E+0	1.288362E+0	1.372873E+0	1.301883E+0	1.371270E+0	1.328378E+0	1.323047E+0	1.294920E+0	1.343389E+0	1.350774E+0	1.291511E+0	1.342246E+0	1.315090E+0	1.313524E+0	1.306908E+0	1.299649E+0	1.273082E+0	1.304642E+0	1.282313E+0	1.241341E+0	1.296431E+0	1.336714E+0	1.332329E+0	1.295159E+0	1.330009E+0	1.234642E+0	1.295393E+0	1.327779E+0	1.309936E+0	1.285549E+0	1.278083E+0	1.329263E+0	1.261083E+0	1.354584E+0	1.298187E+0	1.353580E+0	1.266827E+0	1.303137E+0	1.316395E+0	1.326156E+0	1.362459E+0	1.322785E+0	1.339459E+0	1.252906E+0	1.286573E+0	1.282659E+0	1.318710E+0	1.259843E+0	1.274527E+0	1.250719E+0	1.272968E+0	1.377257E+0	1.387698E+0
5.527650E+2	1.336030E+0	1.295937E+0	1.261418E+0	1.271209E+0	1.306005E+0	1.231882E+0	1.315886E+0	1.301360E+0	1.276549E+0	1.326197E+0	1.256221E+0	1.303524E+0	1.270479E+0	1.327034E+0	1.214407E+0	1.335179E+0	1.297377E+0	1.302221E+0	1.274732E+0	1.301878E+0	1.310847E+0	1.333407E+0	1.300660E+0	1.286028E+0	1.322405E+0	1.234731E+0	1.251277E+0	1.305130E+0	1.283964E+0	1.219308E+0	1.249853E+0	1.311737E+0	1.262543E+0	1.302953E+0	1.270655E+0	1.307579E+0	1.290614E+0	1.307662E+0	1.267186E+0	1.229690E+0	1.295520E+0	1.213373E+0	1.245891E+0	1.299527E+0	1.246438E+0	1.219854E+0	1.280650E+0	1.337368E+0	1.253532E+0	1.246896E+0	1.309506E+0	1.274348E+0	1.247151E+0	1.279950E+0	1.232183E+0	1.283586E+0	1.265092E+0	1.275049E+0	1.303632E+0	1.293905E+0	1.283449E+0	1.273501E+0	1.264054E+0	1.288007E+0	1.285636E+0	1.277281E+0	1.289672E+0	1.277362E+0	1.241862E+0	1.297243E+0	1.268765E+0	1.307266E+0	1.297500E+0	1.275462E+0	1.278265E+0	1.245936E+0	1.274535E+0	1.267911E+0	1.240000E+0	1.291313E+0	1.268805E+0	1.281653E+0	1.228618E+0	1.338572E+0	1.293330E+0	1.291932E+0	1.320828E+0	1.276373E+0	1.255128E+0	1.298044E+0	1.242900E+0	1.387763E+0	1.288990E+0	1.261653E+0	1.293388E+0	1.297852E+0	1.225536E+0	1.307091E+0	1.323935E+0	1.279765E+0	1.301190E+0	1.274002E+0	1.284600E+0	1.308590E+0	1.326435E+0	1.300967E+0	1.301816E+0	1.318428E+0	1.323312E+0	1.260378E+0	1.288434E+0	1.287001E+0	1.248596E+0	1.259333E+0	1.280481E+0	1.252245E+0	1.213890E+0	1.274195E+0	1.297183E+0	1.296749E+0	1.251456E+0	1.309180E+0	1.246423E+0	1.286680E+0	1.321309E+0	1.303275E+0	1.284393E+0	1.263019E+0	1.298627E+0	1.323011E+0	1.270989E+0	1.368961E+0	1.296907E+0	1.288546E+0	1.280874E+0	1.302178E+0	1.266765E+0	1.242414E+0	1.297089E+0	1.308782E+0	1.261618E+0	1.260526E+0	1.311633E+0	1.303275E+0	1.268861E+0	1.333813E+0	1.292251E+0	1.364168E+0	1.251526E+0	1.279730E+0	1.307344E+0	1.269083E+0	1.278992E+0	1.268931E+0	1.283934E+0	1.275294E+0	1.283983E+0	1.222403E+0	1.339452E+0	1.284071E+0	1.302592E+0	1.272477E+0	1.319118E+0	1.289733E+0	1.230477E+0	1.281937E+0	1.313958E+0	1.291528E+0	1.289632E+0	1.274120E+0	1.193283E+0
5.535270E+2	1.225291E+0	1.147593E+0	1.241308E+0	1.193514E+0	1.243702E+0	1.228727E+0	1.251072E+0	1.288264E+0	1.227683E+0	1.217858E+0	1.163454E+0	1.271995E+0	1.186907E+0	1.194474E+0	1.194293E+0	1.252412E+0	1.201296E+0	1.186695E+0	1.221823E+0	1.253349E+0	1.241191E+0	1.220571E+0	1.197047E+0	1.247122E+0	1.167928E+0	1.192441E+0	1.198142E+0	1.264662E+0	1.218272E+0	1.227836E+0	1.195974E+0	1.211415E+0	1.195376E+0	1.162795E+0	1.258592E+0	1.194969E+0	1.191938E+0	1.192275E+0	1.200261E+0	1.233662E+0	1.221849E+0	1.195987E+0	1.199958E+0	1.196086E+0	1.204948E+0	1.270442E+0	1.194115E+0	1.251865E+0	1.242421E+0	1.246073E+0	1.188047E+0	1.183745E+0	1.205869E+0	1.222020E+0	1.156159E+0	1.258723E+0	1.200492E+0	1.224673E+0	1.216209E+0	1.219814E+0	1.183710E+0	1.243312E+0	1.210729E+0	1.260108E+0	1.218863E+0	1.191848E+0	1.178312E+0	1.203640E+0	1.223689E+0	1.180294E+0	1.215896E+0	1.224042E+0	1.162735E+0	1.200933E+0	1.213906E+0	1.230922E+0	1.205722E+0	1.181535E+0	1.224310E+0	1.260233E+0	1.209301E+0	1.185452E+0	1.193705E+0	1.216252E+0	1.223063E+0	1.218230E+0	1.231613E+0	1.172817E+0	1.197361E+0	1.174330E+0	1.166963E+0	1.219845E+0	1.174609E+0	1.237570E+0	1.224534E+0	1.240791E+0	1.184976E+0	1.231756E+0	1.217010E+0	1.195485E+0	1.180876E+0	1.224849E+0	1.203513E+0	1.171610E+0	1.182008E+0	1.155687E+0	1.218279E+0	1.209886E+0	1.238461E+0	1.179286E+0	1.202251E+0	1.199302E+0	1.171022E+0	1.228793E+0	1.199708E+0	1.221199E+0	1.191645E+0	1.244269E+0	1.191182E+0	1.192496E+0	1.284515E+0	1.252418E+0	1.263487E+0	1.241096E+0	1.240454E+0	1.225884E+0	1.200428E+0	1.228517E+0	1.201726E+0	1.218919E+0	1.243199E+0	1.268160E+0	1.213420E+0	1.232270E+0	1.184638E+0	1.229553E+0	1.186818E+0	1.182450E+0	1.187045E+0	1.266023E+0	1.250479E+0	1.196136E+0	1.166933E+0	1.256107E+0	1.194664E+0	1.232053E+0	1.227449E+0	1.257214E+0	1.195449E+0	1.184869E+0	1.232519E+0	1.248730E+0	1.174318E+0	1.218746E+0	1.237947E+0	1.230768E+0	1.208100E+0	1.235674E+0	1.155515E+0	1.249312E+0	1.190478E+0	1.195661E+0	1.192704E+0	1.185454E+0	1.161839E+0	1.168517E+0	1.194821E+0	1.191523E+0	1.241663E+0	1.197156E+0	1.200115E+0
5.542580E+2	1.125650E+0	1.109888E+0	1.130879E+0	1.111947E+0	1.107081E+0	1.123393E+0	1.137332E+0	1.092613E+0	1.106681E+0	1.111553E+0	1.131878E+0	1.145592E+0	1.086390E+0	1.086544E+0	1.087062E+0	1.146422E+0	1.113079E+0	1.087657E+0	1.131086E+0	1.121218E+0	1.042677E+0	1.108413E+0	1.090397E+0	1.117601E+0	1.071114E+0	1.058382E+0	1.097393E+0	1.079512E+0	1.140884E+0	1.109264E+0	1.067655E+0	1.074543E+0	1.095648E+0	1.071508E+0	1.069041E+0	1.089858E+0	1.112775E+0	1.119807E+0	1.059992E+0	1.091973E+0	1.095066E+0	1.116043E+0	1.114104E+0	1.136701E+0	1.078634E+0	1.081184E+0	1.066368E+0	1.112145E+0	1.086030E+0	1.127483E+0	1.071514E+0	1.111005E+0	1.119139E+0	1.100632E+0	1.147331E+0	1.164146E+0	1.102838E+0	1.097287E+0	1.076892E+0	1.089685E+0	1.060966E+0	1.094702E+0	1.111604E+0	1.120055E+0	1.072428E+0	1.131155E+0	1.066799E+0	1.042226E+0	1.121641E+0	1.078800E+0	1.095712E+0	1.119297E+0	1.085460E+0	1.159291E+0	1.103062E+0	1.114451E+0	1.063944E+0	1.099398E+0	1.112457E+0	1.119919E+0	1.070930E+0	1.056282E+0	1.078949E+0	1.154002E+0	1.121098E+0	1.057855E+0	1.119383E+0	1.086976E+0	1.112274E+0	1.117314E+0	1.111649E+0	1.118693E+0	1.108444E+0	1.089406E+0	1.114539E+0	1.103151E+0	1.086799E+0	1.056275E+0	1.100463E+0	1.122445E+0	1.116781E+0	1.084824E+0	1.103553E+0	1.103365E+0	1.118241E+0	1.063167E+0	1.093528E+0	1.150036E+0	1.059440E+0	1.117560E+0	1.137085E+0	1.071563E+0	1.079901E+0	1.109859E+0	1.072238E+0	1.080777E+0	1.129874E+0	1.050936E+0	1.077679E+0	1.067742E+0	1.138991E+0	1.095860E+0	1.084935E+0	1.090070E+0	1.154360E+0	1.115267E+0	1.043232E+0	1.091494E+0	1.073654E+0	1.095910E+0	1.093993E+0	1.157557E+0	1.078832E+0	1.105686E+0	1.096474E+0	1.055362E+0	1.109581E+0	1.087205E+0	1.106908E+0	1.076688E+0	1.115876E+0	1.122995E+0	1.076257E+0	1.134517E+0	1.102043E+0	1.111688E+0	1.097510E+0	1.123914E+0	1.088552E+0	1.066458E+0	1.099625E+0	1.075229E+0	1.086954E+0	1.116571E+0	1.069301E+0	1.059286E+0	1.099567E+0	1.043484E+0	1.111746E+0	1.130200E+0	1.102394E+0	1.077060E+0	1.120302E+0	1.084156E+0	1.094658E+0	1.072561E+0	1.122658E+0	1.085247E+0	1.159347E+0	1.112194E+0	1.146414E+0
5.550250E+2	1.026336E+0	9.997781E-1	1.027165E+0	1.050395E+0	1.015050E+0	1.005052E+0	1.023163E+0	9.774702E-1	1.000231E+0	1.032592E+0	1.021497E+0	1.000388E+0	9.967485E-1	1.049750E+0	1.002653E+0	1.011923E+0	9.902875E-1	1.010022E+0	1.068957E+0	1.021339E+0	9.845678E-1	1.040243E+0	1.003940E+0	9.619698E-1	9.972553E-1	1.043320E+0	1.002945E+0	1.038903E+0	1.018729E+0	1.047728E+0	1.015013E+0	1.034359E+0	1.023575E+0	1.013826E+0	1.021011E+0	1.027635E+0	1.059650E+0	1.056066E+0	9.907331E-1	1.017785E+0	1.008633E+0	1.006130E+0	9.904544E-1	1.011196E+0	1.009625E+0	9.845611E-1	1.016368E+0	1.045301E+0	1.017288E+0	1.002658E+0	1.025482E+0	1.022184E+0	1.024948E+0	9.877511E-1	1.011987E+0	1.006704E+0	1.075242E+0	1.000633E+0	1.065937E+0	1.039263E+0	1.013220E+0	1.030041E+0	1.028579E+0	9.912097E-1	1.031887E+0	1.061858E+0	9.712752E-1	1.022333E+0	9.920548E-1	1.032400E+0	9.675777E-1	1.020332E+0	9.935559E-1	1.023855E+0	1.029413E+0	9.906508E-1	1.025714E+0	1.005474E+0	1.039076E+0	1.059549E+0	1.023810E+0	9.921109E-1	1.031369E+0	1.011528E+0	1.030961E+0	9.853476E-1	1.024260E+0	1.065570E+0	1.013436E+0	1.045469E+0	9.850830E-1	1.035743E+0	1.014291E+0	1.053256E+0	1.045293E+0	1.002076E+0	9.957705E-1	1.023088E+0	1.011675E+0	1.041081E+0	1.034087E+0	1.024711E+0	1.037633E+0	1.010909E+0	1.092193E+0	1.009883E+0	1.043337E+0	1.011352E+0	1.008022E+0	1.032281E+0	1.050584E+0	1.037080E+0	1.028374E+0	1.016381E+0	1.024399E+0	1.016309E+0	1.025821E+0	1.028238E+0	1.023484E+0	1.042250E+0	1.028237E+0	1.034160E+0	1.013194E+0	1.020794E+0	1.066636E+0	1.044382E+0	1.054356E+0	1.008189E+0	9.824366E-1	1.020867E+0	9.946503E-1	1.011840E+0	9.968407E-1	1.049232E+0	1.003965E+0	1.034050E+0	9.593174E-1	1.069689E+0	1.043251E+0	1.006811E+0	9.695568E-1	9.868292E-1	1.034701E+0	1.018384E+0	1.035234E+0	1.019190E+0	1.025507E+0	1.019622E+0	9.721650E-1	1.026653E+0	1.060790E+0	1.016841E+0	1.049642E+0	9.939174E-1	1.028607E+0	1.017920E+0	1.038065E+0	1.008120E+0	1.002513E+0	1.028423E+0	1.032705E+0	9.970009E-1	1.034705E+0	1.024519E+0	9.949100E-1	1.004129E+0	1.035355E+0	1.025371E+0	1.044372E+0	9.513903E-1	1.078907E+0
5.557600E+2	9.789818E-1	9.516535E-1	9.503735E-1	9.952705E-1	9.879373E-1	9.660847E-1	9.471797E-1	9.563477E-1	9.759729E-1	9.364211E-1	9.682214E-1	9.809662E-1	9.110572E-1	9.668376E-1	9.648876E-1	9.887690E-1	9.115645E-1	9.693075E-1	9.595647E-1	1.001973E+0	9.212311E-1	1.009070E+0	9.553517E-1	9.945442E-1	9.252580E-1	9.417720E-1	9.820651E-1	1.009481E+0	9.765759E-1	9.761023E-1	9.446483E-1	9.464962E-1	9.037460E-1	9.597464E-1	9.763590E-1	9.200410E-1	9.920791E-1	9.750490E-1	9.471719E-1	9.796792E-1	9.634261E-1	9.511151E-1	9.603812E-1	1.005218E+0	9.663441E-1	9.674378E-1	9.578335E-1	1.002551E+0	9.825746E-1	9.496983E-1	9.587304E-1	9.879065E-1	9.537285E-1	9.555806E-1	9.613668E-1	9.600412E-1	1.017247E+0	9.725239E-1	9.876634E-1	9.661006E-1	9.367775E-1	9.844309E-1	9.840982E-1	9.703918E-1	9.478570E-1	9.549697E-1	9.309505E-1	9.216793E-1	9.969345E-1	9.472255E-1	9.942533E-1	9.655008E-1	9.483959E-1	9.887005E-1	9.441977E-1	1.009420E+0	9.731323E-1	9.764987E-1	9.785533E-1	9.925521E-1	9.427509E-1	9.699773E-1	9.486288E-1	9.622735E-1	9.530743E-1	9.415383E-1	9.702903E-1	9.315903E-1	9.874734E-1	9.837043E-1	9.547554E-1	9.682701E-1	9.808978E-1	9.347568E-1	9.733338E-1	1.036983E+0	9.406241E-1	9.172388E-1	9.326834E-1	9.571220E-1	9.626578E-1	1.007569E+0	9.710803E-1	9.828684E-1	9.592367E-1	9.765436E-1	9.982089E-1	9.337104E-1	9.406070E-1	9.247834E-1	9.373915E-1	9.843421E-1	9.241881E-1	9.961189E-1	9.473171E-1	9.524328E-1	9.461111E-1	9.860986E-1	9.224997E-1	9.395302E-1	9.548740E-1	9.508056E-1	1.017011E+0	9.948921E-1	9.583071E-1	9.646021E-1	9.619575E-1	1.006503E+0	9.913458E-1	9.967095E-1	9.802214E-1	1.046148E+0	9.743087E-1	9.726677E-1	9.609427E-1	9.986747E-1	9.929777E-1	9.059661E-1	9.605000E-1	9.927831E-1	9.338732E-1	9.724578E-1	9.392150E-1	9.880240E-1	9.600004E-1	9.581795E-1	9.606971E-1	9.945371E-1	9.517750E-1	9.972622E-1	9.962706E-1	9.647419E-1	9.579877E-1	9.662595E-1	8.891245E-1	9.566678E-1	9.616228E-1	9.819070E-1	9.969314E-1	9.578092E-1	9.503001E-1	9.537339E-1	9.647427E-1	9.967138E-1	9.655081E-1	9.385550E-1	9.831034E-1	9.622817E-1	9.711991E-1	9.470049E-1	9.449789E-1
5.560190E+2	9.807280E-1	1.005333E+0	9.898216E-1	9.698305E-1	9.756003E-1	9.921638E-1	9.813947E-1	9.891059E-1	9.771993E-1	9.713905E-1	9.664976E-1	9.325493E-1	9.429960E-1	9.680637E-1	9.786803E-1	1.020396E+0	9.975620E-1	9.672004E-1	1.009071E+0	9.778150E-1	9.790509E-1	9.715308E-1	9.905415E-1	9.780400E-1	9.616037E-1	9.629992E-1	9.662670E-1	9.964613E-1	9.988562E-1	9.662042E-1	9.664485E-1	1.002737E+0	9.455312E-1	9.808562E-1	9.273480E-1	9.492150E-1	9.737194E-1	9.852380E-1	9.871947E-1	9.526383E-1	9.857292E-1	9.903526E-1	9.687412E-1	9.369110E-1	9.847018E-1	9.867059E-1	9.622688E-1	9.809685E-1	9.139470E-1	1.002231E+0	9.911539E-1	9.492690E-1	9.716150E-1	9.726764E-1	9.799828E-1	1.011735E+0	1.003775E+0	9.994820E-1	9.898600E-1	9.933391E-1	9.720968E-1	9.748768E-1	9.580641E-1	1.002829E+0	9.624111E-1	9.875546E-1	1.002657E+0	9.846647E-1	9.901912E-1	9.554540E-1	9.800583E-1	9.444113E-1	9.880867E-1	9.990012E-1	9.531888E-1	9.417782E-1	1.000699E+0	9.465057E-1	1.035542E+0	1.014644E+0	9.387698E-1	9.515920E-1	9.838595E-1	1.013311E+0	9.959286E-1	1.007066E+0	1.014088E+0	9.482504E-1	9.679545E-1	9.903240E-1	9.586194E-1	1.050728E+0	9.631990E-1	1.001636E+0	1.010390E+0	1.002173E+0	9.896630E-1	9.906667E-1	1.037425E+0	9.579598E-1	9.397401E-1	9.777620E-1	9.531007E-1	9.947064E-1	1.024333E+0	9.186447E-1	9.454944E-1	9.725033E-1	9.753411E-1	9.785474E-1	9.578779E-1	1.013816E+0	9.381995E-1	9.549047E-1	9.756931E-1	9.715475E-1	9.252431E-1	9.488246E-1	9.982400E-1	1.001717E+0	9.836596E-1	9.718044E-1	9.907051E-1	9.166669E-1	1.025288E+0	1.029372E+0	9.808938E-1	9.939591E-1	9.529700E-1	9.576445E-1	9.513217E-1	9.658123E-1	9.263483E-1	9.717841E-1	9.755908E-1	9.885533E-1	9.657332E-1	9.413174E-1	9.558992E-1	1.000613E+0	9.969424E-1	9.845741E-1	9.443893E-1	9.862192E-1	9.462308E-1	1.000878E+0	9.896592E-1	1.006590E+0	9.429798E-1	9.721988E-1	9.800670E-1	9.547880E-1	9.781489E-1	9.525188E-1	9.539229E-1	9.594986E-1	9.989295E-1	9.966357E-1	9.543007E-1	1.043734E+0	9.896603E-1	9.889186E-1	9.992009E-1	9.703754E-1	9.732505E-1	9.728931E-1	9.502874E-1	9.642186E-1	9.408647E-1	9.832110E-1	9.430075E-1
5.565200E+2	1.003833E+0	9.899135E-1	1.016425E+0	9.912131E-1	1.004281E+0	9.928605E-1	9.748346E-1	9.917292E-1	9.632666E-1	9.524124E-1	9.983090E-1	1.017491E+0	1.023789E+0	9.825664E-1	1.000253E+0	1.000270E+0	9.885930E-1	9.847910E-1	9.266402E-1	1.014883E+0	1.013169E+0	1.032340E+0	1.045480E+0	1.000489E+0	9.588059E-1	9.925542E-1	1.021271E+0	1.002223E+0	1.014712E+0	1.011099E+0	1.014574E+0	9.872213E-1	9.608845E-1	9.878748E-1	9.998050E-1	9.786056E-1	1.039145E+0	1.003446E+0	9.749025E-1	9.843889E-1	9.618073E-1	1.018418E+0	9.921274E-1	1.000344E+0	9.728540E-1	9.961685E-1	9.942314E-1	9.986372E-1	1.037259E+0	1.015062E+0	1.020713E+0	9.988118E-1	9.709146E-1	9.870102E-1	1.003840E+0	9.844816E-1	1.011887E+0	9.641567E-1	9.979543E-1	1.038847E+0	1.017888E+0	1.004422E+0	9.903568E-1	1.010033E+0	9.779299E-1	9.598032E-1	1.024225E+0	9.751864E-1	1.003921E+0	1.042885E+0	1.017773E+0	9.881670E-1	9.901202E-1	1.061305E+0	1.002963E+0	9.693445E-1	1.015907E+0	1.054675E+0	1.021487E+0	1.027748E+0	9.961408E-1	9.902223E-1	1.016070E+0	1.062956E+0	1.008298E+0	9.720620E-1	9.921683E-1	1.047158E+0	1.003095E+0	9.863703E-1	1.035800E+0	1.014095E+0	9.829261E-1	9.687402E-1	1.020808E+0	1.012241E+0	9.809278E-1	1.027161E+0	1.036997E+0	1.028086E+0	1.022192E+0	1.000003E+0	1.022941E+0	1.012183E+0	1.047129E+0	9.860358E-1	1.018936E+0	9.898682E-1	9.934789E-1	9.887462E-1	1.009814E+0	9.760297E-1	1.016807E+0	1.003071E+0	9.732216E-1	9.696169E-1	9.977033E-1	1.006587E+0	9.827513E-1	1.007181E+0	9.746365E-1	1.030034E+0	9.721197E-1	9.781593E-1	1.005944E+0	9.774040E-1	9.786124E-1	1.037563E+0	1.012653E+0	9.654002E-1	9.872692E-1	9.912605E-1	9.684576E-1	9.920384E-1	1.043298E+0	1.041618E+0	1.051296E+0	1.017791E+0	9.857890E-1	1.018893E+0	9.688736E-1	1.013582E+0	9.635458E-1	9.863993E-1	1.024785E+0	1.000420E+0	9.684628E-1	1.064101E+0	1.003870E+0	1.005390E+0	1.004880E+0	9.995317E-1	1.005333E+0	1.008069E+0	1.044976E+0	9.666705E-1	1.020939E+0	1.023614E+0	1.027856E+0	1.014114E+0	9.885344E-1	1.028654E+0	1.004325E+0	1.028298E+0	9.903807E-1	9.960619E-1	9.750915E-1	1.031526E+0	9.702016E-1	1.043701E+0	1.078694E+0
5.570500E+2	1.029506E+0	9.743018E-1	9.978133E-1	1.040982E+0	1.011103E+0	9.739418E-1	9.780296E-1	1.018260E+0	9.715370E-1	1.026226E+0	1.047703E+0	9.685425E-1	9.841751E-1	1.009938E+0	9.681108E-1	9.862069E-1	1.028965E+0	9.934345E-1	9.742146E-1	1.036129E+0	9.488933E-1	9.783944E-1	9.991012E-1	1.030369E+0	9.870147E-1	9.916984E-1	9.719698E-1	1.015783E+0	9.676187E-1	9.938629E-1	9.893625E-1	1.021117E+0	9.928963E-1	1.017693E+0	9.270436E-1	1.032615E+0	9.838498E-1	1.011272E+0	1.000446E+0	1.028050E+0	1.011760E+0	9.967408E-1	9.665516E-1	9.624749E-1	1.023216E+0	9.853797E-1	9.978519E-1	1.020868E+0	1.017177E+0	1.019374E+0	9.910194E-1	9.855600E-1	9.884340E-1	9.795830E-1	9.934273E-1	9.841557E-1	9.843746E-1	9.966087E-1	1.032093E+0	1.030770E+0	9.764157E-1	9.925822E-1	1.018689E+0	1.012603E+0	9.970151E-1	9.398075E-1	9.745495E-1	9.561832E-1	9.598174E-1	9.667166E-1	1.004174E+0	1.016742E+0	1.010013E+0	9.722985E-1	9.970809E-1	9.912800E-1	9.996816E-1	9.843374E-1	9.949901E-1	9.717901E-1	1.035849E+0	9.592425E-1	9.408194E-1	1.008534E+0	9.788846E-1	9.770723E-1	1.016975E+0	9.909865E-1	9.974667E-1	9.775791E-1	1.005179E+0	9.814769E-1	1.058838E+0	1.005932E+0	9.564041E-1	1.016354E+0	9.445331E-1	9.681935E-1	1.027937E+0	9.875915E-1	9.880164E-1	9.926964E-1	9.896511E-1	9.421689E-1	1.015896E+0	9.991326E-1	1.009867E+0	1.003267E+0	9.811668E-1	9.877200E-1	9.960241E-1	1.020831E+0	1.022994E+0	9.798885E-1	1.014124E+0	9.798584E-1	9.884872E-1	1.038603E+0	9.931228E-1	9.996172E-1	9.970345E-1	9.727254E-1	9.916815E-1	1.035708E+0	9.756900E-1	1.021243E+0	1.036138E+0	1.025481E+0	9.869612E-1	9.841260E-1	9.665381E-1	9.941721E-1	1.035596E+0	9.896920E-1	9.582553E-1	9.947821E-1	9.302157E-1	9.685724E-1	9.846000E-1	9.918159E-1	9.942007E-1	1.005709E+0	1.017599E+0	1.017884E+0	9.845223E-1	1.025049E+0	1.003806E+0	9.884171E-1	1.027418E+0	9.970934E-1	9.564142E-1	9.876019E-1	9.697822E-1	9.682265E-1	1.009360E+0	9.544561E-1	9.912788E-1	1.003993E+0	9.812295E-1	1.020321E+0	9.963076E-1	1.053758E+0	9.834811E-1	1.054866E+0	9.830814E-1	1.034625E+0	1.017017E+0	1.005222E+0	1.009664E+0	9.519776E-1	9.498833E-1
5.575420E+2	1.008942E+0	9.600414E-1	9.734919E-1	9.761137E-1	1.022827E+0	9.740244E-1	1.035492E+0	9.871022E-1	1.020069E+0	1.003523E+0	9.846576E-1	1.000894E+0	1.014615E+0	1.020293E+0	1.013863E+0	1.000446E+0	9.874833E-1	9.770702E-1	9.927469E-1	1.008330E+0	1.025930E+0	9.771457E-1	1.024215E+0	9.748544E-1	9.771301E-1	1.025774E+0	9.856120E-1	9.772530E-1	1.001989E+0	9.809556E-1	9.878348E-1	9.818005E-1	9.801925E-1	1.007357E+0	9.650461E-1	1.003318E+0	9.840167E-1	9.976611E-1	1.014922E+0	9.835451E-1	1.023493E+0	9.676511E-1	1.004512E+0	9.941194E-1	1.012280E+0	9.671845E-1	1.014584E+0	1.014423E+0	9.610602E-1	1.007378E+0	9.784406E-1	9.779534E-1	9.713097E-1	9.691114E-1	9.956441E-1	1.029883E+0	1.007516E+0	1.036124E+0	9.827109E-1	1.007083E+0	9.894749E-1	1.008267E+0	1.002381E+0	1.008742E+0	1.021398E+0	1.011324E+0	1.020263E+0	1.023463E+0	1.001721E+0	9.969491E-1	1.009468E+0	1.016850E+0	9.920511E-1	9.759653E-1	9.751387E-1	1.010553E+0	9.719683E-1	9.939716E-1	1.004982E+0	1.021818E+0	1.007440E+0	1.019180E+0	9.865451E-1	9.957004E-1	9.549163E-1	1.007675E+0	9.959196E-1	1.012969E+0	9.643363E-1	1.017393E+0	9.897992E-1	9.876079E-1	9.787072E-1	1.021368E+0	9.810113E-1	1.000711E+0	1.019236E+0	1.043169E+0	9.847390E-1	9.677175E-1	9.788394E-1	1.020841E+0	1.022249E+0	1.054016E+0	9.721911E-1	1.028030E+0	9.559477E-1	9.918490E-1	9.653250E-1	1.023158E+0	1.023751E+0	9.875267E-1	9.970421E-1	1.003778E+0	1.011401E+0	9.978260E-1	9.659346E-1	1.005750E+0	1.003510E+0	1.008718E+0	1.000094E+0	1.012499E+0	1.037076E+0	1.019846E+0	9.880091E-1	1.002662E+0	9.742582E-1	9.852414E-1	9.787155E-1	9.872280E-1	1.021575E+0	9.728882E-1	9.627544E-1	9.764667E-1	1.034471E+0	9.987613E-1	1.003350E+0	1.002214E+0	9.929393E-1	1.009230E+0	9.815481E-1	9.928227E-1	9.731560E-1	9.913097E-1	9.889368E-1	9.892017E-1	9.811460E-1	1.004719E+0	1.014519E+0	9.878428E-1	1.065216E+0	9.904968E-1	1.041222E+0	9.996447E-1	9.939620E-1	1.014468E+0	1.013331E+0	9.911879E-1	9.990987E-1	1.008005E+0	9.716701E-1	9.824647E-1	9.700828E-1	9.931858E-1	9.819248E-1	1.033627E+0	1.003877E+0	1.006279E+0	1.065073E+0	1.060007E+0	1.072853E+0
5.580060E+2	1.005339E+0	1.013124E+0	9.817074E-1	1.010360E+0	9.864671E-1	9.913352E-1	1.006607E+0	1.012595E+0	9.576998E-1	9.824260E-1	9.751667E-1	1.000815E+0	9.933027E-1	9.928333E-1	9.688739E-1	9.958834E-1	1.004584E+0	9.886144E-1	1.017685E+0	9.794490E-1	1.001782E+0	1.027864E+0	9.830045E-1	1.000596E+0	1.001585E+0	9.820322E-1	1.026621E+0	9.847029E-1	1.021159E+0	9.499949E-1	9.873541E-1	1.006775E+0	9.806449E-1	1.007284E+0	1.022906E+0	1.031593E+0	1.065639E+0	1.002337E+0	1.023718E+0	9.785922E-1	1.009249E+0	9.932244E-1	1.070600E+0	9.422187E-1	9.871164E-1	1.004501E+0	9.939115E-1	9.685179E-1	9.855768E-1	9.475842E-1	1.002382E+0	1.008465E+0	1.004916E+0	1.028632E+0	9.890310E-1	1.010017E+0	9.815335E-1	9.805083E-1	1.005447E+0	1.017479E+0	1.021113E+0	9.667965E-1	1.019122E+0	9.879086E-1	1.014415E+0	1.010854E+0	9.975738E-1	1.003297E+0	1.002054E+0	9.737734E-1	9.898411E-1	1.010514E+0	9.960169E-1	9.998324E-1	1.011245E+0	1.002999E+0	1.024579E+0	1.020786E+0	9.747616E-1	1.005585E+0	9.913029E-1	9.965065E-1	1.020855E+0	9.893828E-1	1.011443E+0	1.010582E+0	1.022419E+0	9.633107E-1	9.707682E-1	1.017156E+0	9.987346E-1	9.719075E-1	9.725951E-1	1.035043E+0	9.921500E-1	9.876303E-1	1.037919E+0	9.903250E-1	9.692889E-1	9.907278E-1	1.010418E+0	1.006927E+0	9.838268E-1	9.894350E-1	1.022365E+0	1.008558E+0	1.041932E+0	9.982493E-1	9.580184E-1	9.967349E-1	1.000588E+0	9.945822E-1	1.000457E+0	1.042779E+0	1.016569E+0	9.814626E-1	1.021365E+0	9.723294E-1	1.011562E+0	9.788262E-1	1.040794E+0	1.017351E+0	9.589002E-1	9.463583E-1	9.881443E-1	1.010317E+0	1.038634E+0	9.676990E-1	1.062913E+0	1.017027E+0	1.005338E+0	9.774117E-1	9.620680E-1	9.651623E-1	1.010262E+0	9.874867E-1	1.009752E+0	9.856967E-1	1.030245E+0	9.750313E-1	9.697335E-1	1.046932E+0	1.027679E+0	1.032843E+0	9.973099E-1	9.507786E-1	9.964314E-1	9.852729E-1	9.757112E-1	9.936410E-1	9.901316E-1	1.003244E+0	9.946434E-1	1.024550E+0	9.989209E-1	1.019711E+0	9.995465E-1	1.024967E+0	9.820231E-1	9.624277E-1	1.024121E+0	9.918677E-1	1.042625E+0	9.710401E-1	1.036273E+0	1.006680E+0	1.013917E+0	1.016958E+0	9.823016E-1	9.854551E-1	9.865807E-1
5.585160E+2	1.011378E+0	1.078639E+0	1.007959E+0	1.004521E+0	9.947150E-1	9.845647E-1	9.791209E-1	1.009415E+0	9.976629E-1	1.031055E+0	9.809986E-1	1.003853E+0	9.889163E-1	9.573590E-1	1.047044E+0	9.907684E-1	1.012468E+0	1.030244E+0	9.978369E-1	9.946734E-1	1.004413E+0	1.014083E+0	1.002450E+0	9.751257E-1	1.013788E+0	9.848119E-1	1.008473E+0	1.009708E+0	1.037479E+0	9.992300E-1	9.976604E-1	9.809919E-1	1.010489E+0	9.787544E-1	1.068058E+0	1.041800E+0	9.786959E-1	9.962360E-1	1.017524E+0	9.757996E-1	9.995091E-1	1.035525E+0	9.859968E-1	9.839892E-1	1.060667E+0	1.056988E+0	9.946920E-1	1.008423E+0	9.984235E-1	9.778365E-1	1.007155E+0	9.926189E-1	1.002236E+0	9.957549E-1	9.783653E-1	1.025107E+0	9.686238E-1	1.017191E+0	1.017155E+0	9.511071E-1	1.016977E+0	9.876074E-1	1.007857E+0	1.030024E+0	1.011108E+0	1.040798E+0	1.040436E+0	9.842506E-1	1.022084E+0	1.009524E+0	1.024727E+0	9.942040E-1	1.008512E+0	9.817423E-1	1.050286E+0	1.038292E+0	9.814727E-1	9.656759E-1	1.021241E+0	9.874793E-1	1.005235E+0	1.023907E+0	1.018873E+0	9.864508E-1	9.979659E-1	1.036328E+0	9.753716E-1	9.727842E-1	1.004742E+0	9.849378E-1	1.016798E+0	1.021127E+0	1.002539E+0	9.863271E-1	9.955938E-1	1.052678E+0	9.382907E-1	9.625268E-1	1.043331E+0	1.023026E+0	1.004513E+0	9.980225E-1	1.023269E+0	1.009609E+0	1.008100E+0	9.910476E-1	9.790028E-1	1.029387E+0	1.039488E+0	9.779941E-1	1.013182E+0	1.009323E+0	9.924034E-1	9.761977E-1	1.004495E+0	9.844663E-1	1.024757E+0	9.598210E-1	9.843626E-1	1.039648E+0	1.025523E+0	1.015971E+0	1.038006E+0	9.930351E-1	1.027072E+0	1.033160E+0	9.902929E-1	1.032470E+0	9.835706E-1	9.777144E-1	9.949476E-1	9.981013E-1	9.759191E-1	1.026064E+0	9.589228E-1	9.853535E-1	1.044727E+0	1.013236E+0	9.524698E-1	9.882052E-1	1.044090E+0	1.011845E+0	1.054489E+0	9.923563E-1	1.032291E+0	1.031823E+0	1.033832E+0	9.943842E-1	1.029248E+0	9.926534E-1	1.002326E+0	9.869061E-1	1.022149E+0	1.007220E+0	1.021691E+0	1.013543E+0	9.790539E-1	9.844904E-1	1.006789E+0	9.940099E-1	1.004566E+0	9.988759E-1	9.850951E-1	1.014797E+0	1.007858E+0	9.695162E-1	1.009066E+0	9.710787E-1	9.873061E-1	1.013822E+0	9.512408E-1
5.590160E+2	1.003265E+0	9.828367E-1	1.046441E+0	1.000829E+0	9.887559E-1	1.047976E+0	1.026596E+0	1.051443E+0	1.045605E+0	1.013673E+0	1.019046E+0	1.003691E+0	1.005598E+0	1.024373E+0	1.037284E+0	1.030541E+0	1.069406E+0	9.727672E-1	1.029768E+0	1.025413E+0	1.036005E+0	9.957559E-1	1.041516E+0	1.009195E+0	1.031383E+0	1.012935E+0	1.011491E+0	1.014451E+0	1.033432E+0	9.895216E-1	1.035647E+0	1.034740E+0	1.019412E+0	1.028991E+0	1.019368E+0	9.788394E-1	1.016930E+0	1.049864E+0	9.978180E-1	9.881747E-1	9.898279E-1	1.018083E+0	1.020680E+0	1.002215E+0	1.014045E+0	1.059685E+0	9.964094E-1	1.035585E+0	1.045016E+0	1.040927E+0	9.827771E-1	1.051639E+0	1.030565E+0	1.009121E+0	1.039546E+0	9.743753E-1	1.029019E+0	1.069515E+0	1.039439E+0	1.006856E+0	9.930506E-1	1.015726E+0	1.047978E+0	1.011667E+0	1.004980E+0	1.050375E+0	9.841498E-1	1.014720E+0	1.035598E+0	9.871130E-1	9.768557E-1	1.024712E+0	1.061267E+0	1.022769E+0	1.034550E+0	1.021961E+0	1.061589E+0	9.918552E-1	1.016653E+0	1.066639E+0	1.030256E+0	1.035294E+0	1.032076E+0	9.919708E-1	1.014889E+0	1.032295E+0	1.048391E+0	1.046743E+0	1.019195E+0	1.020250E+0	1.020023E+0	1.061231E+0	9.712457E-1	1.014005E+0	1.004821E+0	1.019135E+0	1.014569E+0	1.013085E+0	9.693935E-1	1.049196E+0	9.928382E-1	9.943988E-1	1.011706E+0	1.010737E+0	1.021797E+0	9.961844E-1	9.392551E-1	9.880695E-1	1.007728E+0	9.860577E-1	1.015218E+0	1.016929E+0	9.689775E-1	1.042336E+0	1.016204E+0	1.014916E+0	1.020845E+0	1.012261E+0	1.032854E+0	9.916994E-1	1.015922E+0	1.001237E+0	1.047974E+0	1.038936E+0	1.056997E+0	1.016822E+0	1.024349E+0	1.036385E+0	9.568997E-1	1.041057E+0	9.992028E-1	1.043870E+0	1.070192E+0	1.020065E+0	1.023452E+0	1.009805E+0	9.817822E-1	1.003932E+0	1.022363E+0	1.085830E+0	9.983739E-1	1.025597E+0	1.010198E+0	9.962458E-1	1.004460E+0	1.007878E+0	1.020317E+0	9.586426E-1	1.002093E+0	1.047557E+0	9.792009E-1	1.028364E+0	1.002295E+0	1.015254E+0	1.027812E+0	1.014299E+0	1.015809E+0	9.678221E-1	1.026256E+0	1.007160E+0	1.051327E+0	9.963452E-1	1.072594E+0	1.009950E+0	1.000332E+0	9.968979E-1	1.018816E+0	1.001236E+0	1.007183E+0	1.016473E+0	1.000846E+0
5.595110E+2	1.026171E+0	1.024648E+0	1.072461E+0	1.030878E+0	1.020758E+0	1.017716E+0	9.786297E-1	9.936642E-1	1.027177E+0	1.022319E+0	1.006708E+0	1.056089E+0	1.024039E+0	1.022435E+0	9.784888E-1	9.920124E-1	1.021210E+0	1.041910E+0	1.059952E+0	9.852764E-1	1.033010E+0	1.003547E+0	1.011673E+0	1.008611E+0	1.023336E+0	1.029332E+0	9.783307E-1	9.989605E-1	1.024388E+0	1.065721E+0	9.818428E-1	1.000823E+0	1.047875E+0	1.011489E+0	1.002879E+0	1.005094E+0	1.009055E+0	1.030860E+0	1.020740E+0	1.074058E+0	9.887293E-1	1.027304E+0	1.005224E+0	1.075066E+0	9.872433E-1	9.947668E-1	1.049259E+0	1.018533E+0	1.025852E+0	9.957332E-1	9.858375E-1	1.006486E+0	1.043224E+0	1.013830E+0	1.018341E+0	1.009579E+0	1.016833E+0	9.953639E-1	9.721538E-1	9.964508E-1	1.024824E+0	1.016293E+0	9.951244E-1	1.000415E+0	1.006381E+0	1.003512E+0	9.803186E-1	1.099381E+0	9.908896E-1	1.028527E+0	9.943000E-1	1.031471E+0	9.909187E-1	1.028871E+0	1.007287E+0	1.026845E+0	1.031188E+0	1.023952E+0	1.008690E+0	9.752253E-1	1.002028E+0	9.918739E-1	1.023328E+0	1.003177E+0	1.010546E+0	9.876203E-1	9.880940E-1	1.008802E+0	1.019796E+0	1.033730E+0	9.964516E-1	9.789736E-1	1.047558E+0	9.929578E-1	1.066052E+0	1.011664E+0	1.030234E+0	1.024639E+0	1.024266E+0	1.048036E+0	1.053157E+0	1.016369E+0	1.012301E+0	1.029213E+0	9.814013E-1	9.980992E-1	1.031628E+0	1.005698E+0	1.020324E+0	1.037930E+0	9.534214E-1	9.990036E-1	1.048494E+0	1.001700E+0	9.938089E-1	1.033092E+0	1.017355E+0	1.071807E+0	1.000294E+0	1.017529E+0	1.050811E+0	1.020740E+0	9.927335E-1	1.067599E+0	9.935089E-1	1.000257E+0	1.022379E+0	9.953102E-1	1.049009E+0	1.047577E+0	1.043062E+0	1.001756E+0	1.025806E+0	1.034943E+0	1.003133E+0	1.024306E+0	1.048453E+0	9.895677E-1	1.021225E+0	9.960380E-1	1.042074E+0	9.615225E-1	9.833778E-1	9.921183E-1	1.014542E+0	9.966784E-1	9.998694E-1	1.028120E+0	1.001827E+0	9.881035E-1	1.030878E+0	1.016567E+0	9.845044E-1	9.882034E-1	9.851036E-1	1.022972E+0	1.027598E+0	1.020950E+0	1.019225E+0	1.008158E+0	9.856458E-1	1.013230E+0	1.008608E+0	9.703986E-1	1.031143E+0	9.922874E-1	1.031483E+0	1.006064E+0	1.008105E+0	1.009585E+0	1.019446E+0
5.600520E+2	9.977334E-1	1.000703E+0	9.945220E-1	9.056065E-1	1.030718E+0	1.020701E+0	9.701744E-1	9.390924E-1	1.002573E+0	9.815790E-1	9.991220E-1	1.002297E+0	1.007888E+0	1.003521E+0	1.022813E+0	9.928409E-1	9.929160E-1	1.030918E+0	9.734362E-1	9.996700E-1	1.000476E+0	1.026357E+0	9.536410E-1	1.028098E+0	1.024928E+0	9.718141E-1	1.010219E+0	1.020777E+0	9.596909E-1	1.007839E+0	9.802199E-1	1.007150E+0	9.888957E-1	9.807874E-1	1.017216E+0	9.692123E-1	1.002803E+0	9.632819E-1	9.882564E-1	1.006279E+0	1.026770E+0	9.748379E-1	1.006191E+0	1.027665E+0	9.969485E-1	9.725099E-1	1.006720E+0	9.851071E-1	9.861402E-1	9.886981E-1	9.885434E-1	1.031943E+0	1.009047E+0	1.022559E+0	9.841498E-1	9.898436E-1	1.050013E+0	9.924854E-1	9.761624E-1	9.944186E-1	9.782754E-1	9.800743E-1	9.927894E-1	9.834153E-1	1.011847E+0	9.693175E-1	1.005617E+0	1.031260E+0	9.894344E-1	1.019817E+0	9.937559E-1	1.007685E+0	1.037908E+0	9.396041E-1	9.729862E-1	9.985787E-1	9.500075E-1	9.750847E-1	9.927834E-1	9.934041E-1	9.775257E-1	9.760959E-1	9.902728E-1	1.026295E+0	1.047668E+0	9.922544E-1	9.527048E-1	9.870834E-1	1.066549E+0	9.978963E-1	1.000597E+0	9.843429E-1	9.268394E-1	9.832816E-1	9.997640E-1	9.624520E-1	9.993773E-1	9.724113E-1	9.642540E-1	9.923145E-1	9.720969E-1	9.756126E-1	9.724415E-1	1.021062E+0	9.748158E-1	1.009578E+0	1.003550E+0	9.887561E-1	1.022621E+0	1.011745E+0	1.033440E+0	9.852290E-1	1.023328E+0	1.031078E+0	1.015418E+0	1.021252E+0	9.728501E-1	9.540079E-1	1.023755E+0	9.864308E-1	9.770286E-1	9.740815E-1	1.023964E+0	9.902872E-1	9.672428E-1	9.918249E-1	9.977891E-1	9.997559E-1	9.869169E-1	9.688739E-1	9.746396E-1	9.832043E-1	9.681668E-1	1.028410E+0	9.893603E-1	1.000454E+0	9.837871E-1	9.916207E-1	1.015343E+0	9.904519E-1	1.023227E+0	9.792776E-1	1.003679E+0	9.851023E-1	9.862909E-1	9.989109E-1	1.020530E+0	9.990035E-1	9.834358E-1	9.973740E-1	9.985862E-1	1.001505E+0	9.920277E-1	9.935138E-1	1.011428E+0	9.879333E-1	9.863375E-1	1.000319E+0	9.972556E-1	1.002004E+0	1.016577E+0	9.855614E-1	9.798906E-1	1.000771E+0	9.907067E-1	9.692653E-1	9.600339E-1	9.894110E-1	1.013380E+0	9.395162E-1	9.708526E-1
5.605090E+2	9.687973E-1	9.908347E-1	9.607998E-1	1.048658E+0	9.549717E-1	1.009262E+0	1.027218E+0	9.946099E-1	1.002521E+0	1.017625E+0	9.915747E-1	9.782460E-1	9.903109E-1	1.000394E+0	9.876552E-1	1.020024E+0	9.600606E-1	9.997738E-1	1.038389E+0	9.856576E-1	9.535814E-1	9.824135E-1	9.473159E-1	1.003103E+0	9.736425E-1	1.033885E+0	1.007660E+0	1.005313E+0	9.811404E-1	9.856084E-1	1.009738E+0	9.661673E-1	1.047720E+0	9.959769E-1	9.978319E-1	1.008315E+0	9.620768E-1	9.832793E-1	9.637397E-1	1.038061E+0	9.793577E-1	1.003403E+0	9.820650E-1	9.741170E-1	9.655089E-1	9.982538E-1	1.006579E+0	9.792274E-1	9.948076E-1	1.009599E+0	1.028040E+0	9.821011E-1	1.013483E+0	9.798427E-1	1.022074E+0	1.019860E+0	9.997468E-1	9.796937E-1	9.886077E-1	9.889018E-1	9.891304E-1	1.038335E+0	9.398915E-1	9.663668E-1	1.016700E+0	9.982339E-1	9.886749E-1	9.704596E-1	1.031599E+0	9.649736E-1	9.770115E-1	9.666133E-1	9.687757E-1	1.003429E+0	1.000940E+0	9.718481E-1	9.925397E-1	1.019291E+0	1.007203E+0	9.371186E-1	9.863155E-1	1.010126E+0	1.013779E+0	9.616286E-1	1.008546E+0	1.016377E+0	9.904870E-1	9.948773E-1	9.824306E-1	9.942568E-1	9.907206E-1	9.973770E-1	1.044108E+0	1.015644E+0	1.012572E+0	9.536289E-1	1.060587E+0	1.004279E+0	9.710179E-1	9.505369E-1	1.000974E+0	9.904144E-1	9.901750E-1	9.948452E-1	9.793407E-1	1.000977E+0	1.012479E+0	9.827157E-1	1.009335E+0	1.000198E+0	9.594143E-1	1.011286E+0	9.398677E-1	9.683672E-1	9.685230E-1	1.040816E+0	9.893488E-1	9.560060E-1	1.016576E+0	9.839254E-1	9.323231E-1	9.548488E-1	9.542084E-1	9.621108E-1	1.023962E+0	9.491371E-1	9.411860E-1	9.567629E-1	9.841538E-1	1.005190E+0	1.000833E+0	9.966405E-1	9.954995E-1	9.817453E-1	1.001213E+0	9.980318E-1	9.673937E-1	1.010252E+0	9.999699E-1	9.598272E-1	9.753374E-1	1.012722E+0	1.009468E+0	1.004083E+0	9.975967E-1	9.989440E-1	9.826286E-1	1.006339E+0	9.812244E-1	1.027836E+0	1.011644E+0	1.008254E+0	9.834175E-1	9.897783E-1	9.448468E-1	1.004349E+0	9.882065E-1	9.850105E-1	9.872313E-1	9.866750E-1	9.626860E-1	9.759248E-1	9.843155E-1	9.888750E-1	9.756867E-1	1.014373E+0	9.807506E-1	9.852859E-1	9.854088E-1	9.852668E-1	9.233437E-1
5.610010E+2	9.450354E-1	9.849577E-1	9.483794E-1	9.908395E-1	9.854031E-1	9.876188E-1	1.023298E+0	1.002089E+0	1.011889E+0	9.691608E-1	9.967151E-1	9.680814E-1	9.673668E-1	9.862879E-1	9.756135E-1	9.910075E-1	9.343143E-1	9.804765E-1	9.893323E-1	9.705185E-1	9.827399E-1	9.620996E-1	9.916039E-1	9.695599E-1	1.008385E+0	9.751629E-1	9.783534E-1	9.708287E-1	9.583912E-1	1.016168E+0	1.015767E+0	1.013214E+0	9.709898E-1	9.837931E-1	9.798462E-1	9.506078E-1	9.577892E-1	9.617630E-1	9.979322E-1	9.430520E-1	1.009496E+0	9.648133E-1	9.660524E-1	1.037790E+0	9.801206E-1	9.645626E-1	9.457618E-1	9.706782E-1	9.486882E-1	9.978088E-1	1.015092E+0	9.644212E-1	9.658708E-1	1.014556E+0	9.755807E-1	9.726975E-1	9.504545E-1	9.683531E-1	9.882769E-1	9.680866E-1	9.928504E-1	9.898967E-1	9.858109E-1	9.888267E-1	9.382261E-1	1.015976E+0	9.841929E-1	9.417996E-1	9.628809E-1	1.009721E+0	1.012094E+0	9.430417E-1	9.444185E-1	1.014183E+0	9.475241E-1	9.682995E-1	9.710678E-1	9.703708E-1	9.572087E-1	1.013193E+0	9.679085E-1	9.975521E-1	9.573819E-1	9.739035E-1	9.668428E-1	9.677336E-1	1.017469E+0	9.752860E-1	9.716212E-1	9.704316E-1	9.458968E-1	1.001861E+0	1.014643E+0	9.767017E-1	9.708240E-1	9.835060E-1	9.743253E-1	9.942107E-1	1.008775E+0	9.627675E-1	9.769563E-1	1.004715E+0	9.714388E-1	9.367314E-1	9.769627E-1	9.823572E-1	1.007403E+0	1.022141E+0	1.002515E+0	9.897160E-1	9.951474E-1	9.992593E-1	9.896291E-1	9.508039E-1	9.862351E-1	9.766933E-1	1.001354E+0	1.022828E+0	9.512116E-1	9.864245E-1	9.858336E-1	1.000513E+0	9.833368E-1	9.679599E-1	9.734297E-1	9.971716E-1	9.963622E-1	9.633320E-1	9.982066E-1	1.005806E+0	1.006595E+0	1.040696E+0	1.035540E+0	9.854128E-1	9.776320E-1	9.594015E-1	9.792421E-1	1.017118E+0	9.950556E-1	9.846767E-1	1.002541E+0	9.499897E-1	9.568084E-1	1.001657E+0	9.692657E-1	1.000317E+0	9.929778E-1	9.710009E-1	9.806525E-1	9.625095E-1	9.607243E-1	9.775278E-1	1.004626E+0	1.005540E+0	9.618990E-1	1.001598E+0	9.778993E-1	9.976466E-1	9.730359E-1	9.971246E-1	9.985655E-1	9.733191E-1	9.689832E-1	9.678181E-1	1.002614E+0	9.866660E-1	9.899480E-1	9.869387E-1	9.713765E-1	9.941968E-1	1.046261E+0
