Photon Energy (eV)	#1	#2	#3	#4	#5	#6	#7	#8	#9	#10	#11	#12	#13	#14	#15	#16	#17	#18	#19	#20	#21	#22	#23	#24	#25	#26	#27	#28	#29	#30	#31	#32	#33	#34	#35	#36	#37	#38	#39	#40	#41	#42	#43	#44	#45	#46	#47	#48	#49	#50	#51	#52	#53	#54	#55	#56	#57	#58	#59	#60	#61	#62	#63	#64	#65	#66	#67	#68	#69	#70	#71	#72	#73	#74	#75	#76	#77	#78	#79	#80	#81	#82	#83	#84	#85	#86	#87	#88	#89	#90	#91	#92	#93	#94	#95	#96	#97	#98	#99	#100	#101	#102	#103	#104	#105	#106	#107	#108	#109	#110	#111	#112	#113	#114	#115	#116	#117	#118	#119	#120	#121	#122	#123	#124	#125	#126	#127	#128	#129	#130	#131	#132	#133	#134	#135	#136	#137	#138	#139	#140	#141	#142	#143	#144	#145	#146	#147	#148	#149	#150	#151	#152	#153	#154	#155	#156	#157	#158	#159	#160	#161	#162	#163	#164	#165	#166	#167	#168	#169	#170	
5.300160E+2	-1.185266E-2	-2.013812E-4	-7.698155E-3	-1.482956E-3	-2.365909E-3	-1.509275E-2	-4.004590E-3	-5.813404E-3	-1.294293E-3	-5.331071E-3	-1.554178E-3	-1.112621E-2	-7.351489E-3	-9.215499E-3	-1.119248E-2	-1.056474E-2	-2.198749E-3	-4.164451E-3	-3.594242E-3	-7.038602E-3	-9.989004E-3	-9.437664E-3	-2.836872E-3	3.349365E-3	-6.515999E-3	-1.137677E-2	-5.793120E-3	1.761690E-4	-3.191772E-3	-9.720811E-3	-8.776456E-4	-4.840450E-3	-5.480100E-3	-3.079748E-3	-5.800155E-3	-1.104147E-2	-9.969723E-3	-5.967232E-3	8.661628E-5	-1.352095E-2	-7.873714E-3	-5.537615E-3	-1.029445E-2	-5.065960E-3	-1.171089E-2	-1.164143E-2	-4.506732E-3	-5.863381E-3	9.671446E-4	-6.458788E-3	-6.896047E-3	-1.865958E-3	-1.120104E-2	-1.135858E-2	-1.264908E-2	1.032599E-3	-2.843375E-3	-6.416921E-3	-3.589145E-3	-2.161968E-3	5.254574E-3	8.596873E-4	-8.211760E-3	-1.631823E-2	-3.267621E-3	-3.532038E-3	-3.870140E-4	-8.853817E-3	-9.291748E-3	-5.237127E-4	3.428469E-4	-5.367280E-3	-2.735248E-3	-1.149602E-3	-6.285341E-3	-1.408605E-3	-1.055233E-2	-7.039524E-3	2.280877E-3	-1.045596E-2	-4.960696E-3	-9.264363E-3	1.641485E-3	-1.018072E-2	-9.027706E-4	-8.610120E-3	-5.869496E-3	-6.474353E-3	-6.340904E-3	-6.385236E-3	2.884837E-3	-2.508934E-3	-4.538512E-3	-6.626399E-3	-7.824329E-3	-4.004106E-3	-5.713386E-3	1.475535E-3	-1.032610E-2	-9.785814E-3	-5.761309E-3	1.547587E-3	-1.841902E-2	-3.101270E-3	-4.882065E-3	-5.521445E-3	-4.524048E-9	-9.561843E-3	-5.982982E-3	-4.785729E-4	-8.866730E-3	-1.949599E-2	-3.878719E-3	-1.534255E-2	-3.798889E-3	-6.168578E-3	-9.308288E-3	-3.507353E-4	-2.023357E-2	-6.565084E-3	-8.968623E-3	-7.505481E-3	-1.333361E-2	-1.018232E-3	-1.096017E-3	-8.383247E-4	-1.604852E-3	-4.248884E-3	-6.349754E-3	-1.052812E-2	-1.111534E-2	3.529277E-3	-1.561045E-3	-4.670722E-3	-1.082598E-2	1.016940E-3	-8.195727E-3	-4.769269E-3	-9.267507E-3	-8.318040E-3	-4.270474E-3	-5.493696E-3	-2.027639E-3	-7.195353E-3	-2.434928E-3	-6.661864E-3	1.834527E-4	-1.253809E-2	-8.729630E-3	-7.751023E-3	-9.498944E-3	1.211328E-3	-3.291826E-3	-3.231530E-3	-1.564319E-2	-7.811571E-3	3.862284E-3	-6.483870E-3	-1.085858E-2	4.722912E-4	-5.530304E-3	-9.109539E-3	-3.765906E-3	-1.171645E-2	-1.335951E-2	-5.996515E-3	-9.848013E-3	-9.751129E-3	-1.473332E-2	-5.346818E-3
5.305130E+2	5.175130E-3	-2.013788E-3	-3.794872E-3	-8.473838E-3	1.040959E-3	1.012553E-2	-5.148762E-3	-5.328953E-3	-4.622539E-3	-1.402917E-3	-1.612438E-2	-6.241514E-3	-6.371319E-3	-1.017710E-2	1.865418E-3	1.609196E-3	-5.796631E-3	-1.147772E-2	6.621033E-3	-2.867588E-3	-9.988672E-4	1.780751E-4	-1.694007E-2	-4.514410E-3	-1.468527E-2	-8.273933E-4	-6.344840E-3	-8.807674E-4	-9.575248E-3	7.560624E-3	-7.579533E-3	-5.658570E-3	-1.217826E-3	-4.311648E-3	2.186922E-3	1.781115E-4	4.138394E-3	-3.254853E-3	-3.550916E-3	-3.895879E-3	-7.873683E-3	-6.354763E-4	-5.632833E-3	1.816150E-3	-5.123532E-3	-7.408187E-3	-6.438210E-3	-5.863353E-3	-8.317544E-3	-1.174317E-3	-8.644308E-3	-6.131047E-3	2.545694E-3	-8.284066E-3	-8.002509E-3	-6.116157E-3	-6.499135E-3	5.473223E-3	4.850088E-4	-3.397394E-3	-1.208554E-2	-6.643119E-3	-2.898258E-3	-4.685444E-3	2.859158E-3	1.622837E-3	-5.031069E-3	-7.063114E-3	-6.686583E-3	-6.284695E-3	-1.199871E-3	-4.420081E-3	-3.950869E-3	-3.448893E-3	-9.142331E-3	-4.789245E-3	-9.522856E-3	3.641111E-3	-1.046070E-2	9.092390E-4	-3.837501E-3	-3.919560E-3	-5.471664E-3	-9.005994E-3	-5.236197E-3	-7.544939E-3	-6.365540E-3	-6.474372E-3	-1.975060E-3	9.621615E-4	-1.096234E-2	-9.734618E-3	-1.037378E-2	-4.172188E-3	1.467052E-3	-8.162237E-3	-1.162379E-2	-5.016838E-3	-4.805241E-3	-1.035591E-2	-4.115253E-3	-4.126914E-3	-9.164138E-3	-5.615807E-3	-1.686509E-3	-4.950300E-3	-8.343513E-3	-5.062160E-3	-6.510838E-3	-5.742716E-3	-6.095900E-3	-3.411799E-3	-3.232258E-3	3.068521E-3	-3.165723E-3	-7.382110E-3	-5.512689E-3	1.753813E-4	2.305115E-3	-2.625878E-4	2.920030E-3	-8.122377E-3	-4.941827E-3	-1.201508E-2	-2.613457E-3	-3.353425E-3	-1.123379E-2	-1.416289E-3	-6.954534E-3	9.571387E-4	3.426532E-3	-8.117337E-3	-8.993305E-9	-6.287507E-3	-8.805168E-9	-5.593113E-3	-4.640972E-3	-6.557769E-3	-1.462706E-2	-3.155113E-3	-8.212352E-4	-4.494814E-3	-1.032259E-2	-2.143298E-3	8.116213E-4	-6.106697E-3	-3.669197E-3	1.194119E-3	-2.249875E-3	-1.107281E-3	-8.950927E-3	-5.087724E-3	-7.114654E-3	-8.235176E-3	-1.748360E-2	-5.438423E-3	-7.172797E-3	-7.494327E-3	-2.777798E-3	9.445896E-4	-8.602685E-3	8.280799E-4	-1.744196E-2	-1.171631E-3	7.252291E-3	-1.005048E-2	-5.494163E-3	-1.209141E-2	-1.348826E-2	-1.336722E-2
5.310150E+2	1.669471E-4	-5.034463E-3	-2.493776E-3	3.601393E-3	-8.044053E-3	-1.910491E-3	4.576631E-3	-4.360048E-3	-9.614859E-3	8.417424E-4	1.942727E-3	-8.412475E-3	-4.900999E-3	-5.849803E-3	-5.596218E-3	-1.749138E-3	-5.196966E-3	-4.164448E-3	-1.210702E-2	-1.824819E-3	-4.495064E-3	-3.561632E-4	5.673708E-4	-6.261919E-3	4.862344E-4	5.998632E-3	-4.689655E-3	-6.165582E-3	-3.191751E-3	-7.560600E-3	-1.356332E-3	-3.204244E-3	-9.742453E-3	1.878657E-9	-3.518099E-3	1.246627E-3	-6.019446E-3	4.339780E-3	8.660043E-5	-2.979184E-3	7.681428E-4	-5.537602E-3	1.359653E-3	-6.786468E-3	4.757547E-3	4.233226E-3	-1.561268E-2	4.606948E-3	-3.094883E-3	-3.522991E-3	-3.399427E-3	5.064744E-3	-3.563975E-3	-1.622655E-3	-6.969899E-3	-2.780038E-3	2.640265E-3	-4.152090E-3	-9.409417E-3	1.019209E-2	-8.407332E-3	-1.953883E-3	-2.898272E-3	-2.261914E-3	-6.331029E-3	-9.546492E-5	-1.257764E-2	-4.974030E-4	-9.552389E-4	-1.309311E-2	3.427936E-4	-5.367257E-3	-6.990046E-3	2.874031E-3	-2.856957E-3	-1.972061E-3	1.801606E-3	-1.092340E-2	3.932519E-4	-4.091494E-3	6.552069E-4	4.632212E-3	-4.377362E-3	8.614435E-3	-1.986120E-3	-1.153932E-3	5.538830E-3	-1.874173E-3	-9.459467E-3	5.685491E-3	-6.346626E-3	-1.304668E-3	3.241442E-4	-1.227143E-3	-1.956093E-3	-4.004132E-3	-3.940275E-3	-1.446025E-2	-1.738033E-3	-1.149601E-2	2.469112E-3	-6.706196E-3	-4.264530E-3	-5.112881E-3	-9.142695E-3	-3.807941E-3	-7.231076E-3	5.062150E-3	4.047270E-3	-6.699864E-3	7.887690E-9	-4.874012E-3	-5.818092E-3	2.789208E-4	-7.597820E-3	-1.011230E-4	2.078538E-3	-4.033750E-3	-1.280608E-3	-8.665973E-3	-2.085754E-3	-1.336566E-3	-4.662034E-4	-7.738537E-3	-9.189309E-3	-4.862416E-3	-3.049160E-3	4.721049E-4	2.116567E-3	-1.282519E-2	-4.596565E-3	-4.940979E-3	-1.561003E-3	1.796567E-4	-4.871708E-3	-8.135498E-3	-6.418387E-3	-5.365465E-3	5.471160E-3	-6.023411E-3	-2.792215E-3	1.997705E-3	9.585243E-3	-3.521112E-3	2.705562E-4	6.661846E-3	-2.568433E-3	-3.582301E-3	-4.949776E-3	-1.660989E-3	-4.018762E-3	-2.180426E-3	-3.291872E-3	-5.733329E-3	-2.147122E-3	-4.251876E-3	-1.655282E-3	1.599912E-3	6.818202E-3	-3.306064E-3	-7.988169E-3	-4.761784E-3	4.558729E-3	-1.757474E-3	-2.481043E-3	-2.449263E-3	1.005536E-2	-8.971053E-3	7.677991E-3	-9.357054E-3
5.315130E+2	-3.338728E-4	3.423417E-3	7.264484E-3	4.872472E-3	3.880077E-3	-1.337325E-3	-2.288309E-3	-6.782285E-3	7.580935E-3	-3.086435E-3	-3.885383E-3	8.141297E-4	4.901012E-3	1.194008E-2	4.663524E-3	-4.267874E-3	-1.599077E-3	-5.078604E-4	4.350967E-3	2.607098E-4	-4.994879E-4	7.122743E-4	2.998950E-3	2.912773E-4	3.403897E-3	1.034241E-3	-2.758126E-4	-3.523057E-4	6.137981E-3	1.080083E-3	-3.749869E-3	4.976797E-3	-4.262310E-3	-8.623339E-3	-4.088613E-3	1.246611E-3	7.524109E-4	-4.882276E-3	-3.550938E-3	5.270877E-3	7.681358E-4	-9.080558E-5	5.438566E-3	1.816094E-3	-4.574529E-3	5.820717E-3	-3.058163E-3	-2.682497E-8	-8.897800E-3	-1.761491E-3	9.421290E-3	-1.865941E-3	-3.054834E-3	1.272500E-2	9.551398E-3	-2.303496E-3	-8.936424E-3	-8.681680E-3	2.231089E-3	2.779702E-3	-2.101812E-3	-7.112006E-3	-5.313503E-3	6.462686E-3	-8.169098E-3	-8.114054E-3	7.740032E-4	2.487040E-3	-1.997291E-3	2.618637E-3	2.913953E-3	2.683640E-3	-6.382189E-3	-7.472508E-3	-5.714037E-4	-5.916188E-3	-2.573668E-4	-1.699197E-3	-1.046076E-2	-1.363812E-3	-6.083878E-3	4.632199E-3	-2.188625E-3	-1.957507E-4	-9.027937E-4	-1.686522E-3	-4.381457E-3	6.815114E-3	3.014547E-3	-8.748174E-5	-1.730940E-3	-7.025255E-4	5.186910E-3	5.153892E-3	-2.445092E-3	6.622186E-3	7.880607E-4	-2.950998E-4	3.782804E-3	6.175545E-3	-6.309994E-3	-5.158840E-4	3.901592E-3	6.453988E-3	4.438141E-4	5.331059E-3	7.787314E-3	-2.249829E-3	3.519501E-4	-3.349914E-3	1.108339E-3	-5.361381E-3	5.171606E-3	-2.789378E-4	1.266289E-3	-6.168619E-3	-2.259310E-3	-8.242866E-3	-1.792840E-3	7.878105E-4	5.422881E-3	-7.196956E-4	6.806664E-3	-4.072895E-3	4.215334E-4	-4.359420E-3	-2.086275E-3	-8.025651E-3	-2.721328E-3	6.125452E-3	-3.593728E-3	-7.058445E-4	-4.683110E-3	-1.437165E-3	-4.871711E-3	-2.033864E-3	-4.936854E-4	1.550021E-2	3.461376E-3	6.597061E-3	-1.314006E-3	4.994477E-4	-3.133641E-3	1.990238E-3	8.116576E-4	2.775774E-3	-5.320360E-3	5.970301E-4	-6.029713E-3	-1.051931E-2	-1.826952E-4	6.541353E-3	-1.093742E-2	8.652155E-3	1.318939E-2	1.680950E-3	-1.103519E-3	-4.462959E-3	-1.262644E-3	-8.501367E-3	2.457878E-3	-1.035151E-3	-1.982064E-3	-1.171649E-3	5.534634E-3	3.124903E-3	-6.738106E-3	-3.900735E-4	3.942724E-3	1.470392E-2
5.320070E+2	-9.348633E-3	4.027900E-4	2.060057E-3	-1.482933E-3	-4.637141E-3	2.674659E-3	5.720835E-3	7.266761E-3	6.471552E-3	5.892262E-3	1.185042E-2	7.326961E-3	2.940596E-3	1.362290E-3	3.730815E-3	3.498362E-4	4.397469E-3	-5.078381E-4	5.485953E-3	4.431701E-3	4.994500E-3	7.122775E-4	1.272533E-2	2.038749E-3	4.570911E-3	-2.689070E-3	9.655169E-3	7.046275E-4	3.191754E-3	-2.700237E-3	-8.775901E-4	8.862814E-4	2.070266E-2	8.623358E-3	3.898457E-3	7.123579E-4	1.316764E-3	2.169892E-3	6.842049E-3	4.812541E-3	4.224914E-3	5.356071E-3	3.690483E-3	8.698140E-3	3.659647E-3	-3.704069E-3	1.191067E-2	-2.931664E-3	9.671541E-3	1.761470E-3	7.090262E-3	-1.865990E-3	-3.563965E-3	1.451861E-3	4.388429E-3	3.892092E-3	3.858880E-3	3.774540E-4	2.813132E-3	-1.544259E-3	4.729149E-3	7.424630E-3	1.014392E-2	1.082495E-2	7.147965E-3	7.923159E-3	7.159605E-3	4.277649E-3	2.170989E-3	8.903307E-3	-4.799441E-3	3.630807E-3	1.002921E-2	5.748138E-3	1.085650E-2	5.916156E-3	5.919591E-3	8.981476E-3	1.030344E-2	8.182924E-3	2.339965E-3	-7.126568E-4	1.094311E-3	2.740959E-3	1.805573E-3	-6.213642E-4	7.522880E-3	1.703791E-3	-3.846165E-3	-3.761177E-3	1.038541E-2	3.512492E-3	6.645722E-3	2.454118E-4	6.357292E-3	6.160068E-4	1.379110E-3	9.738535E-3	4.396248E-3	1.016585E-2	-3.566504E-3	-2.579320E-3	1.043442E-2	6.956883E-3	9.763981E-4	1.903762E-4	5.562328E-4	8.999369E-3	-1.231817E-3	4.785719E-4	9.420898E-3	1.364720E-2	5.818110E-3	-4.184333E-3	6.331479E-3	5.056743E-4	6.416429E-3	-8.769097E-4	-5.378564E-3	1.129199E-2	-2.711431E-3	2.981596E-3	6.806654E-3	5.702063E-3	1.433180E-3	4.694767E-3	2.246765E-3	2.832591E-3	9.071285E-4	4.402661E-3	-5.850115E-4	7.764393E-3	5.203510E-4	2.335366E-3	1.407380E-2	5.593134E-3	4.838446E-3	2.980793E-3	1.451543E-3	6.023390E-3	8.048198E-3	-9.988710E-4	2.949340E-3	-3.061859E-3	-6.222598E-3	-1.110302E-3	7.338763E-4	1.791175E-3	1.286940E-2	9.965658E-3	1.132566E-2	-7.025853E-3	1.136221E-2	-5.107897E-3	5.827850E-3	-9.888706E-5	1.103514E-3	9.683718E-3	-3.787878E-3	5.195264E-3	3.686862E-3	2.070219E-4	5.153315E-3	5.858215E-3	-3.053610E-3	9.205924E-3	-5.183520E-4	6.630759E-3	1.390328E-2	-3.341841E-3
5.325170E+2	1.619309E-2	3.423425E-3	4.662261E-3	2.965863E-3	1.012607E-2	5.540374E-3	1.144194E-3	1.501793E-2	1.479205E-3	3.086419E-3	7.770788E-3	1.763910E-2	1.078220E-2	1.194003E-2	6.528939E-3	1.462273E-2	1.039395E-2	2.082232E-2	-7.566899E-4	7.038599E-3	1.098792E-2	8.191200E-3	3.485293E-3	5.096938E-3	1.274023E-2	7.860357E-3	7.448258E-3	6.517858E-3	6.629036E-3	1.134094E-2	1.444097E-2	7.840185E-3	2.723822E-8	7.391376E-3	7.321488E-3	7.657763E-3	9.781600E-3	7.594689E-3	8.658775E-5	1.031260E-2	9.986205E-3	6.445429E-3	5.438584E-3	-4.779557E-4	1.299176E-2	1.269974E-2	1.770511E-2	1.005148E-2	9.671541E-3	1.115612E-2	2.428231E-3	6.664192E-3	1.883812E-2	7.088446E-3	1.368166E-2	6.274999E-3	1.177979E-2	1.340002E-2	7.469332E-3	-5.868167E-3	1.261096E-2	7.424690E-3	9.177877E-3	5.977961E-3	7.760624E-3	2.195560E-3	1.006212E-2	9.649645E-3	1.675987E-2	8.379577E-3	2.399718E-3	8.840170E-3	1.002915E-2	3.448834E-3	7.999537E-3	8.169943E-3	1.261136E-2	7.039538E-3	7.943894E-3	6.819105E-3	1.188690E-2	4.632169E-3	9.301855E-3	8.027074E-3	7.222308E-3	1.961688E-2	3.554783E-3	6.303994E-3	1.860705E-2	3.586242E-3	5.769660E-3	1.073825E-2	2.755514E-3	6.626426E-3	4.401170E-3	8.932282E-3	1.911028E-2	8.558120E-3	8.690318E-3	1.529634E-2	1.728395E-2	1.238073E-2	1.751168E-2	4.190863E-4	1.429106E-2	8.758251E-3	7.231047E-3	2.812313E-3	9.326416E-3	1.579249E-2	4.433385E-3	1.949598E-2	1.939355E-3	1.645838E-2	6.964664E-3	1.931476E-2	8.585320E-3	1.332888E-2	2.638047E-2	3.413842E-3	5.422896E-3	1.470252E-2	5.128326E-3	1.914268E-2	1.104407E-2	8.718818E-3	1.572731E-2	1.038613E-2	1.300192E-2	1.186805E-2	1.646411E-2	2.470490E-3	7.284816E-3	9.880371E-3	6.495610E-3	9.152402E-3	1.491033E-2	-1.788495E-3	1.351049E-2	4.876113E-3	1.149732E-3	8.490228E-3	2.949286E-3	1.393138E-2	6.763691E-3	4.441243E-3	1.064066E-2	1.253806E-2	9.089597E-3	1.107295E-2	1.132567E-2	6.541321E-3	1.327356E-2	1.365578E-2	1.625666E-2	1.591981E-2	4.965800E-3	7.157527E-3	1.186869E-2	5.195287E-3	1.597642E-2	1.387137E-2	1.347789E-2	9.958990E-3	6.107240E-3	6.165431E-3	1.254327E-2	2.457290E-2	2.697588E-3	1.670901E-2
5.330280E+2	2.019964E-2	2.879696E-2	2.547978E-2	2.711635E-2	2.261801E-2	1.757638E-2	2.059496E-2	2.373801E-2	2.755022E-2	1.262629E-2	1.709566E-2	3.337857E-2	2.254454E-2	1.770973E-2	1.399057E-2	3.435295E-2	2.898311E-2	8.024224E-3	1.570122E-2	1.903018E-2	2.297468E-2	2.101214E-2	3.169174E-2	3.567839E-2	3.549754E-2	2.647691E-2	3.117244E-2	3.664100E-2	1.743186E-2	1.296102E-2	1.156870E-2	2.256609E-2	1.948483E-2	2.833382E-2	2.671862E-2	2.956258E-2	1.881079E-2	2.169901E-2	2.243162E-2	1.947935E-2	1.978032E-2	2.550926E-2	2.699873E-2	3.565280E-2	1.244283E-2	2.592865E-2	1.287643E-2	2.094064E-2	2.998183E-2	1.820210E-2	2.224206E-2	3.385403E-2	2.087469E-2	2.092372E-2	3.175178E-2	2.581495E-2	1.848204E-2	3.151836E-2	1.619980E-2	1.389826E-2	2.206926E-2	3.040204E-2	2.077094E-2	1.906487E-2	1.940158E-2	1.880556E-2	4.082899E-2	2.815302E-2	2.718050E-2	1.152193E-2	1.062739E-2	1.547034E-2	8.205709E-3	2.069320E-2	1.314210E-2	8.733368E-3	1.158178E-2	1.626372E-2	1.549450E-2	2.182120E-2	2.761138E-2	2.814945E-2	2.243375E-2	2.036140E-2	2.401416E-2	2.867086E-2	2.885155E-2	1.857123E-2	2.733887E-2	1.670660E-2	3.346413E-2	2.940469E-2	1.539855E-2	1.595246E-2	2.787423E-2	2.879892E-2	1.911027E-2	2.685473E-2	1.850524E-2	2.384705E-2	4.362139E-2	3.043590E-2	3.384387E-2	2.355290E-2	2.174724E-2	2.418029E-2	2.113693E-2	1.124924E-2	1.671711E-2	2.392801E-2	1.717928E-2	1.169761E-2	2.133298E-2	2.036374E-2	3.862225E-2	2.841600E-2	2.268331E-2	7.015218E-3	3.150293E-2	2.337189E-2	2.419438E-2	3.567679E-2	1.911458E-2	3.013944E-2	2.217236E-2	2.230009E-2	1.380152E-2	2.596545E-2	1.783983E-2	1.646215E-2	2.348437E-2	1.199950E-2	2.133421E-2	2.443145E-2	2.273465E-2	2.389791E-2	2.498225E-2	3.100038E-2	2.288970E-2	2.438043E-2	2.085969E-2	2.646954E-2	1.843314E-2	2.495407E-2	2.407878E-2	1.054795E-2	1.614444E-2	2.746435E-2	1.610926E-2	3.266526E-2	2.612208E-2	2.301576E-2	1.518495E-2	1.678304E-2	1.809700E-2	2.066605E-2	1.931141E-2	2.130417E-2	1.287881E-2	2.928260E-2	2.826596E-2	1.821911E-2	2.655936E-2	1.230229E-2	1.469550E-2	1.883413E-2	2.995877E-2	2.847338E-2	1.514833E-2	3.675955E-2
5.331580E+2	2.671029E-2	2.094324E-2	3.133468E-2	2.520974E-2	1.977895E-2	1.814952E-2	2.631578E-2	3.536479E-2	2.976903E-2	2.216609E-2	2.350650E-2	2.795115E-2	3.185652E-2	2.011378E-2	3.077927E-2	3.309358E-2	3.857758E-2	1.960343E-2	2.194396E-2	2.893641E-2	2.447310E-2	2.528580E-2	3.363703E-2	4.223158E-2	3.024583E-2	2.027143E-2	3.062068E-2	2.712842E-2	2.479745E-2	3.510287E-2	1.587706E-2	2.542950E-2	3.531634E-2	2.402216E-2	2.443664E-2	2.101437E-2	2.276104E-2	2.278403E-2	2.451021E-2	2.772940E-2	2.957445E-2	2.496459E-2	4.098366E-2	3.507933E-2	1.079594E-2	2.592864E-2	2.881096E-2	2.973574E-2	4.332854E-2	2.289938E-2	3.564565E-2	3.811912E-2	3.462145E-2	2.809756E-2	4.517528E-2	4.344853E-2	2.457496E-2	3.208451E-2	2.376617E-2	2.872319E-2	2.417108E-2	3.274661E-2	1.932182E-2	1.809549E-2	2.981719E-2	2.281490E-2	4.431201E-2	2.874992E-2	2.561746E-2	3.456581E-2	2.399723E-2	3.536078E-2	2.887185E-2	3.678795E-2	2.628418E-2	3.296147E-2	2.599475E-2	3.228469E-2	2.257317E-2	2.864029E-2	2.648816E-2	2.280461E-2	1.532064E-2	2.858431E-2	2.997253E-2	3.452926E-2	2.736349E-2	4.106111E-2	3.357590E-2	3.140144E-2	3.807987E-2	3.843685E-2	2.172012E-2	1.251656E-2	2.640718E-2	2.094467E-2	2.679375E-2	3.629815E-2	2.586648E-2	2.099687E-2	1.947877E-2	1.857103E-2	3.384385E-2	3.461689E-2	3.612703E-2	2.989220E-2	2.781179E-2	3.487260E-2	2.357995E-2	3.493487E-2	2.161266E-2	1.900861E-2	2.585821E-2	3.877480E-2	2.659238E-2	3.084295E-2	2.864786E-2	2.963923E-2	2.740498E-2	1.811974E-2	3.483154E-2	3.012481E-2	3.198195E-2	4.419103E-2	3.026573E-2	2.733018E-2	2.535631E-2	3.257484E-2	2.812050E-2	2.622461E-2	2.348437E-2	1.147011E-2	3.850558E-2	3.197644E-2	1.948684E-2	3.254183E-2	2.379731E-2	2.980798E-2	2.757926E-2	3.126436E-2	3.662766E-2	2.646956E-2	2.341013E-2	3.505820E-2	3.381849E-2	9.437615E-3	2.109782E-2	3.044961E-2	2.906873E-2	5.315025E-2	3.489030E-2	2.350033E-2	4.831583E-2	4.555403E-2	2.423166E-2	2.422574E-2	3.420882E-2	2.736701E-2	4.621214E-2	2.975488E-2	4.362786E-2	2.629343E-2	4.261387E-2	1.640300E-2	3.702498E-2	3.758384E-2	2.933677E-2	2.145251E-2	2.386381E-2	1.269870E-2
5.333130E+2	3.121761E-2	3.785892E-2	5.670608E-2	4.618254E-2	3.681343E-2	3.362437E-2	4.691074E-2	4.505378E-2	4.197251E-2	3.282825E-2	3.574551E-2	4.748982E-2	4.508920E-2	3.261483E-2	3.357737E-2	4.400814E-2	4.157586E-2	3.544869E-2	4.180697E-2	3.415015E-2	3.596041E-2	4.718829E-2	4.287704E-2	5.577481E-2	3.316351E-2	3.516465E-2	5.213796E-2	4.139729E-2	3.265407E-2	4.698385E-2	3.598268E-2	4.138259E-2	5.601897E-2	5.235604E-2	4.782733E-2	4.612482E-2	3.856208E-2	3.363353E-2	5.309113E-2	4.789630E-2	4.282532E-2	3.367949E-2	4.564527E-2	4.540239E-2	3.110704E-2	4.339081E-2	3.605399E-2	4.523179E-2	3.230297E-2	3.522987E-2	3.448014E-2	3.651966E-2	4.582253E-2	4.551974E-2	5.033816E-2	5.822272E-2	3.188659E-2	5.190149E-2	4.471907E-2	3.922420E-2	3.888390E-2	4.634540E-2	3.622836E-2	4.184575E-2	3.900743E-2	5.317114E-2	4.721454E-2	4.188138E-2	2.665947E-2	4.451657E-2	3.171065E-2	4.672673E-2	3.312666E-2	5.058331E-2	2.971257E-2	5.718944E-2	4.246669E-2	3.374114E-2	4.097790E-2	2.727643E-2	3.940472E-2	2.120115E-2	3.392421E-2	4.033125E-2	4.297271E-2	3.665961E-2	4.323598E-2	3.799428E-2	4.604986E-2	2.457884E-2	5.423494E-2	5.047969E-2	4.797882E-2	3.902221E-2	3.080837E-2	3.018495E-2	4.570711E-2	5.105347E-2	5.408445E-2	2.897756E-2	4.965704E-2	4.642768E-2	4.037672E-2	4.115469E-2	3.399671E-2	3.731767E-2	2.503061E-2	4.105969E-2	4.047304E-2	4.211328E-2	3.047935E-2	3.704246E-2	3.878717E-2	5.774378E-2	3.545649E-2	3.387670E-2	4.274587E-2	4.963259E-2	3.662530E-2	3.230044E-2	3.921157E-2	4.986534E-2	3.813593E-2	3.685978E-2	3.178324E-2	4.392951E-2	4.605856E-2	3.824003E-2	4.323897E-2	5.149216E-2	4.153640E-2	3.582204E-2	3.330213E-2	4.868324E-2	3.626718E-2	3.050793E-2	3.860886E-2	4.769282E-2	5.906658E-2	3.355904E-2	4.106236E-2	4.394951E-2	4.829490E-2	3.689532E-2	3.868836E-2	3.386443E-2	3.926031E-2	5.552572E-2	4.796788E-2	5.038202E-2	4.365859E-2	3.609842E-2	4.767871E-2	3.804853E-2	4.999693E-2	4.855039E-2	3.420884E-2	2.787229E-2	4.823230E-2	4.203467E-2	5.898983E-2	4.244215E-2	3.131629E-2	3.983595E-2	5.076624E-2	5.227952E-2	4.799622E-2	2.067241E-2	2.261880E-2	5.079525E-2
5.334630E+2	4.223561E-2	4.692096E-2	6.646431E-2	5.126684E-2	4.249155E-2	5.884267E-2	6.121292E-2	5.280494E-2	3.808958E-2	6.537597E-2	5.964059E-2	6.160110E-2	4.901003E-2	4.175018E-2	5.269787E-2	6.583729E-2	6.616163E-2	5.007512E-2	5.315725E-2	5.396245E-2	5.643780E-2	6.374883E-2	5.746661E-2	7.543430E-2	4.425036E-2	5.502237E-2	6.482758E-2	5.883698E-2	4.689416E-2	6.588546E-2	4.603548E-2	4.997263E-2	5.419231E-2	5.851554E-2	4.839784E-2	5.146740E-2	6.508532E-2	6.129981E-2	5.776781E-2	5.247955E-2	5.665234E-2	5.056464E-2	4.914147E-2	5.916645E-2	6.129917E-2	5.079899E-2	5.198861E-2	5.821489E-2	5.145269E-2	7.633142E-2	5.720784E-2	7.970347E-2	4.633167E-2	5.679285E-2	5.240332E-2	7.490313E-2	5.747710E-2	5.812967E-2	5.926980E-2	6.393232E-2	5.937666E-2	4.962798E-2	4.299100E-2	5.493264E-2	7.209230E-2	5.660770E-2	5.127809E-2	6.098165E-2	6.730001E-2	4.923012E-2	6.204991E-2	7.324736E-2	6.291029E-2	6.495378E-2	5.485402E-2	5.155513E-2	4.864365E-2	5.316049E-2	5.230375E-2	5.046140E-2	3.659675E-2	5.701152E-2	5.088640E-2	5.560235E-2	5.705618E-2	5.956080E-2	4.918830E-2	7.581835E-2	5.291063E-2	5.081957E-2	4.384954E-2	6.854403E-2	3.436315E-2	4.147644E-2	5.721552E-2	5.651980E-2	5.930096E-2	4.515136E-2	5.408443E-2	5.177951E-2	5.624141E-2	5.829248E-2	6.596375E-2	5.925936E-2	5.530010E-2	4.759907E-2	6.452322E-2	7.199504E-2	3.730558E-2	5.216311E-2	4.821283E-2	5.410143E-2	6.787774E-2	5.718589E-2	5.001895E-2	5.571963E-2	6.280852E-2	4.963257E-2	6.582322E-2	6.118698E-2	6.674309E-2	4.986530E-2	6.778680E-2	6.801745E-2	3.279488E-2	4.392949E-2	5.424319E-2	6.751005E-2	4.384369E-2	5.206633E-2	5.507547E-2	5.117431E-2	4.839215E-2	5.245573E-2	5.088232E-2	5.237197E-2	5.342047E-2	6.676997E-2	5.638676E-2	4.904773E-2	4.598988E-2	5.593559E-2	5.437789E-2	5.985915E-2	5.438015E-2	4.441236E-2	4.861674E-2	7.642242E-2	5.768759E-2	6.920617E-2	6.064702E-2	5.499564E-2	6.742983E-2	5.556128E-2	6.656031E-2	5.329664E-2	5.462374E-2	5.616547E-2	5.984859E-2	4.675759E-2	7.619502E-2	5.237986E-2	5.747924E-2	5.389569E-2	6.622517E-2	5.126604E-2	6.292371E-2	4.173493E-2	4.876524E-2	5.480546E-2
5.336080E+2	5.876262E-2	7.954410E-2	6.971705E-2	8.812816E-2	6.009390E-2	6.170837E-2	8.295177E-2	8.768524E-2	5.805893E-2	8.445569E-2	9.286054E-2	9.633635E-2	6.371292E-2	6.771372E-2	6.948654E-2	7.423324E-2	8.594996E-2	8.054684E-2	8.380301E-2	7.794565E-2	5.294176E-2	8.244608E-2	8.275521E-2	9.028824E-2	6.584065E-2	7.612113E-2	7.144830E-2	9.952968E-2	7.537437E-2	7.884649E-2	5.321608E-2	5.365419E-2	8.220178E-2	7.699417E-2	6.151946E-2	6.535832E-2	8.935110E-2	7.540412E-2	7.335732E-2	7.722987E-2	6.356583E-2	6.363699E-2	8.410389E-2	6.490153E-2	6.075023E-2	7.196526E-2	5.778301E-2	6.952309E-2	8.452935E-2	8.572611E-2	8.692845E-2	7.757105E-2	6.567895E-2	9.573678E-2	7.098983E-2	8.348154E-2	7.941177E-2	9.436643E-2	8.720699E-2	7.628632E-2	6.410598E-2	6.510264E-2	6.231272E-2	7.722864E-2	7.086698E-2	8.295463E-2	8.088374E-2	8.963196E-2	7.198937E-2	6.703674E-2	7.696271E-2	9.976785E-2	7.202762E-2	7.357594E-2	7.371008E-2	8.085429E-2	5.893859E-2	6.626857E-2	7.778708E-2	5.773517E-2	6.748408E-2	6.609765E-2	5.690520E-2	7.439749E-2	7.980653E-2	6.754962E-2	9.085341E-2	9.524124E-2	6.912684E-2	7.653552E-2	8.077547E-2	8.058691E-2	6.791594E-2	5.914694E-2	6.406180E-2	6.760798E-2	7.348597E-2	7.230119E-2	8.230245E-2	5.976024E-2	9.574755E-2	9.285515E-2	8.229584E-2	1.045210E-1	6.541924E-2	8.244158E-2	6.952951E-2	1.018055E-1	7.584281E-2	6.412709E-2	6.816294E-2	7.554710E-2	8.468557E-2	6.053337E-2	7.724452E-2	6.785452E-2	7.256842E-2	7.804412E-2	8.016605E-2	8.061974E-2	8.301185E-2	6.590450E-2	8.177308E-2	7.779245E-2	4.948741E-2	6.455287E-2	6.820516E-2	7.553571E-2	6.621914E-2	7.905665E-2	5.708125E-2	6.917365E-2	7.857218E-2	8.586923E-2	8.606695E-2	1.001678E-1	7.356428E-2	7.094314E-2	9.993296E-2	8.231988E-2	7.210542E-2	5.543622E-2	7.152071E-2	6.582979E-2	5.654454E-2	7.217007E-2	6.677921E-2	9.313985E-2	7.496657E-2	8.747639E-2	9.188386E-2	7.631550E-2	9.610081E-2	7.182317E-2	8.557759E-2	7.287501E-2	7.338337E-2	6.879651E-2	8.055561E-2	7.698492E-2	1.038465E-1	7.536075E-2	7.829067E-2	8.260117E-2	8.855469E-2	8.521818E-2	8.780306E-2	9.634136E-2	1.060387E-1	6.483103E-2
5.337630E+2	8.280176E-2	9.827201E-2	9.964220E-2	1.002035E-1	9.416295E-2	9.953550E-2	9.610968E-2	1.046409E-1	8.412992E-2	9.567897E-2	1.091793E-1	1.256446E-1	9.017835E-2	9.944718E-2	8.487625E-2	9.984043E-2	9.914245E-2	1.067525E-1	1.036659E-1	9.410844E-2	9.189870E-2	1.155667E-1	1.109616E-1	1.086372E-1	1.107717E-1	1.220422E-1	1.161380E-1	1.153840E-1	1.013992E-1	9.774784E-2	9.677847E-2	9.374121E-2	1.071667E-1	9.670466E-2	1.020252E-1	1.027567E-1	1.153101E-1	1.122924E-1	1.040167E-1	1.207718E-1	8.430633E-2	9.904132E-2	1.120735E-1	1.136493E-1	1.101557E-1	1.079480E-1	9.399775E-2	9.423292E-2	1.025183E-1	1.291762E-1	9.333891E-2	1.020951E-1	1.074281E-1	9.881114E-2	1.060971E-1	1.139829E-1	1.098767E-1	9.719727E-2	9.826552E-2	1.257027E-1	9.510791E-2	8.526627E-2	9.709205E-2	1.256988E-1	1.229448E-1	9.784642E-2	1.087482E-1	9.022904E-2	1.209659E-1	1.031737E-1	1.073020E-1	1.073452E-1	8.539966E-2	1.189860E-1	1.022798E-1	1.045188E-1	8.519073E-2	9.928151E-2	9.052864E-2	8.728457E-2	1.174650E-1	9.442541E-2	8.699915E-2	1.254968E-1	1.058066E-1	1.090914E-1	9.978179E-2	1.003523E-1	1.028066E-1	7.968440E-2	1.038541E-1	1.004575E-1	1.029273E-1	7.338133E-2	9.633718E-2	9.070889E-2	1.024468E-1	1.000411E-1	9.089050E-2	1.036542E-1	8.751718E-2	1.129739E-1	1.051609E-1	1.155851E-1	1.074935E-1	9.158063E-2	8.176657E-2	1.141796E-1	8.904063E-2	9.906211E-2	1.058464E-1	9.211865E-2	1.002001E-1	1.057242E-1	1.146004E-1	8.727044E-2	1.083558E-1	1.117173E-1	1.088516E-1	1.026784E-1	1.142974E-1	1.152557E-1	1.019131E-1	1.052845E-1	9.551823E-2	7.863709E-2	1.004621E-1	9.914067E-2	1.091558E-1	1.261462E-1	7.513337E-2	7.605568E-2	1.181185E-1	9.556982E-2	1.331603E-1	1.149134E-1	9.074571E-2	1.102897E-1	1.173513E-1	1.058398E-1	1.139890E-1	1.073765E-1	1.002766E-1	9.889765E-2	8.576375E-2	9.215565E-2	9.539864E-2	1.056779E-1	9.818572E-2	1.057467E-1	9.517185E-2	1.228315E-1	1.082059E-1	1.162307E-1	1.266795E-1	1.464422E-1	1.191790E-1	7.384883E-2	8.560614E-2	1.124071E-1	1.419444E-1	1.002051E-1	1.294275E-1	1.118920E-1	1.097390E-1	1.095419E-1	1.344516E-1	1.057024E-1	1.085287E-1	1.370137E-1
5.339090E+2	1.173582E-1	1.695596E-1	1.659981E-1	1.713841E-1	1.469697E-1	1.385098E-1	1.670481E-1	1.710106E-1	1.351626E-1	1.366442E-1	1.476443E-1	1.630936E-1	1.416389E-1	1.306994E-1	1.529635E-1	1.531541E-1	1.573086E-1	1.457561E-1	1.683630E-1	1.519813E-1	1.708121E-1	1.657824E-1	1.591070E-1	1.636840E-1	1.603709E-1	1.896822E-1	1.801377E-1	1.766871E-1	1.460840E-1	1.630932E-1	1.226283E-1	1.587810E-1	1.668390E-1	1.860178E-1	1.716268E-1	1.663341E-1	1.807716E-1	1.600303E-1	1.705321E-1	1.624808E-1	1.499848E-1	1.289989E-1	1.674307E-1	1.612503E-1	1.436411E-1	1.381099E-1	1.432503E-1	1.361144E-1	1.657704E-1	1.755619E-1	1.551118E-1	1.591405E-1	1.557969E-1	1.464663E-1	1.742475E-1	1.773687E-1	1.659322E-1	1.475890E-1	1.634527E-1	1.880909E-1	1.602646E-1	1.373168E-1	1.400831E-1	1.576889E-1	1.695089E-1	1.459580E-1	1.586718E-1	1.946836E-1	1.636908E-1	1.665446E-1	1.669526E-1	1.831185E-1	1.492215E-1	1.580734E-1	1.537052E-1	1.738226E-1	1.387242E-1	1.434603E-1	1.471586E-1	1.441107E-1	1.534068E-1	1.468048E-1	1.335081E-1	1.777707E-1	1.648491E-1	1.522305E-1	1.726961E-1	1.637330E-1	1.539500E-1	1.410879E-1	1.552040E-1	1.853598E-1	1.491234E-1	1.533893E-1	1.398602E-1	1.429166E-1	1.781002E-1	1.342738E-1	1.503934E-1	1.714899E-1	1.709192E-1	1.511476E-1	1.732118E-1	1.869981E-1	1.538285E-1	1.698336E-1	1.334963E-1	1.822376E-1	1.381362E-1	1.263398E-1	1.379883E-1	1.574302E-1	1.764817E-1	1.603995E-1	1.494238E-1	1.485519E-1	1.745078E-1	1.580176E-1	1.703204E-1	1.714812E-1	1.943896E-1	1.738601E-1	1.707258E-1	1.504940E-1	1.319381E-1	1.485554E-1	1.486068E-1	1.633461E-1	1.557207E-1	1.617506E-1	1.383155E-1	1.602286E-1	1.477780E-1	1.742534E-1	1.656384E-1	1.723699E-1	1.867249E-1	1.448669E-1	1.890350E-1	1.643528E-1	1.514379E-1	1.498276E-1	1.699540E-1	1.503367E-1	1.263459E-1	1.382336E-1	1.460337E-1	1.582184E-1	1.554230E-1	1.616655E-1	1.658656E-1	1.771006E-1	1.604510E-1	1.437506E-1	1.548987E-1	1.909385E-1	1.362830E-1	1.455925E-1	1.472223E-1	1.653049E-1	1.984761E-1	1.567257E-1	1.882939E-1	1.570007E-1	1.578334E-1	1.561628E-1	1.997595E-1	1.540681E-1	1.633118E-1	1.410240E-1
5.340690E+2	2.120131E-1	2.474929E-1	2.772422E-1	2.635373E-1	2.486092E-1	2.680398E-1	2.625858E-1	2.664471E-1	2.239154E-1	2.623458E-1	2.863525E-1	3.009497E-1	2.411294E-1	2.153214E-1	2.411042E-1	2.585220E-1	2.628470E-1	2.542358E-1	2.637057E-1	2.578206E-1	2.687043E-1	2.801025E-1	2.704741E-1	2.646027E-1	2.712397E-1	3.113109E-1	3.026205E-1	3.003504E-1	2.408543E-1	2.808230E-1	2.356031E-1	2.655440E-1	2.861844E-1	2.851864E-1	2.686124E-1	2.528847E-1	3.077439E-1	3.021592E-1	2.999258E-1	3.082316E-1	2.600243E-1	2.264969E-1	2.793101E-1	2.759511E-1	2.539796E-1	2.534657E-1	2.282350E-1	2.596641E-1	2.922739E-1	2.630498E-1	2.675849E-1	2.540384E-1	2.454048E-1	2.971166E-1	2.645982E-1	2.779278E-1	2.609823E-1	2.868735E-1	2.885883E-1	3.363397E-1	2.606275E-1	2.395427E-1	2.439378E-1	2.841955E-1	2.853060E-1	2.524916E-1	2.434259E-1	2.925730E-1	2.684185E-1	2.498165E-1	2.857391E-1	3.237722E-1	2.890229E-1	2.810832E-1	2.639849E-1	2.741152E-1	2.293200E-1	2.658027E-1	2.608894E-1	2.418512E-1	2.853803E-1	2.323221E-1	2.341866E-1	2.529514E-1	2.645168E-1	2.470311E-1	2.679311E-1	3.211626E-1	2.606029E-1	2.177106E-1	2.855990E-1	3.232508E-1	2.633966E-1	2.250528E-1	2.469559E-1	2.593446E-1	2.484334E-1	2.641208E-1	2.626521E-1	2.564273E-1	2.987654E-1	2.857875E-1	3.098576E-1	3.051816E-1	2.385097E-1	2.709339E-1	2.419626E-1	3.087914E-1	2.632505E-1	2.397586E-1	2.477142E-1	2.597845E-1	3.006012E-1	2.703076E-1	2.760543E-1	2.565529E-1	2.688557E-1	3.011275E-1	2.819897E-1	3.022585E-1	2.732294E-1	2.626929E-1	2.842945E-1	2.720700E-1	2.260233E-1	2.546905E-1	2.434521E-1	2.667359E-1	2.657839E-1	2.800481E-1	2.140335E-1	2.661068E-1	2.534084E-1	2.841952E-1	2.836422E-1	2.766053E-1	2.892214E-1	2.819844E-1	3.236934E-1	2.756426E-1	2.445675E-1	2.512113E-1	2.965902E-1	2.564301E-1	2.345651E-1	2.525952E-1	2.473029E-1	2.931517E-1	2.785376E-1	2.823609E-1	2.946500E-1	2.972671E-1	2.623920E-1	2.926091E-1	2.702289E-1	3.001029E-1	2.565657E-1	2.481560E-1	2.997478E-1	2.555142E-1	2.832737E-1	2.753566E-1	3.072167E-1	2.893962E-1	3.112773E-1	2.706883E-1	2.893246E-1	3.046257E-1	2.604271E-1	3.094508E-1
5.342040E+2	3.742781E-1	4.251074E-1	4.990786E-1	5.304632E-1	4.251997E-1	4.715051E-1	4.685354E-1	5.324092E-1	3.648096E-1	4.761502E-1	4.751818E-1	4.654000E-1	3.896293E-1	3.768731E-1	4.080586E-1	4.260187E-1	4.901156E-1	4.358475E-1	4.731186E-1	4.330032E-1	4.330236E-1	5.034013E-1	4.805634E-1	4.611980E-1	5.052321E-1	5.806308E-1	4.979311E-1	4.969438E-1	4.461082E-1	4.817196E-1	4.562861E-1	4.438912E-1	5.285269E-1	5.309519E-1	4.871161E-1	4.516312E-1	5.447601E-1	4.730390E-1	4.984326E-1	4.979836E-1	4.795282E-1	4.623440E-1	4.902494E-1	4.915885E-1	4.406224E-1	4.624826E-1	4.571136E-1	4.163001E-1	4.988587E-1	4.926313E-1	4.616447E-1	4.433012E-1	4.785908E-1	5.051580E-1	5.057051E-1	4.990626E-1	4.693628E-1	4.793807E-1	4.399151E-1	5.086787E-1	4.455889E-1	4.177347E-1	4.236309E-1	4.761367E-1	4.746247E-1	4.598304E-1	4.715647E-1	4.996913E-1	4.648478E-1	4.912538E-1	4.765166E-1	5.037332E-1	4.883905E-1	4.713453E-1	4.822583E-1	4.994926E-1	3.960982E-1	4.493157E-1	4.425761E-1	4.141475E-1	4.926056E-1	4.028221E-1	4.196761E-1	4.632225E-1	4.882277E-1	4.350334E-1	5.015539E-1	5.389061E-1	4.751558E-1	3.945736E-1	5.250401E-1	5.466464E-1	4.219211E-1	4.209000E-1	4.210478E-1	4.686369E-1	4.411124E-1	4.217083E-1	4.816479E-1	4.622156E-1	4.765430E-1	4.575701E-1	5.052987E-1	5.365197E-1	3.897633E-1	4.531430E-1	4.533319E-1	4.899036E-1	4.353490E-1	4.192192E-1	4.289278E-1	4.644931E-1	4.919517E-1	4.521870E-1	4.849946E-1	4.774086E-1	5.237047E-1	4.531823E-1	5.048156E-1	4.703256E-1	4.984873E-1	4.563965E-1	4.918508E-1	4.932283E-1	4.126762E-1	4.257136E-1	3.936641E-1	4.612406E-1	4.490203E-1	4.672574E-1	3.519314E-1	4.074539E-1	5.073366E-1	5.003053E-1	4.866299E-1	4.881272E-1	4.782169E-1	5.055447E-1	5.219965E-1	4.615075E-1	4.470868E-1	4.315036E-1	4.956677E-1	4.424369E-1	3.974352E-1	4.246928E-1	4.234241E-1	4.579381E-1	4.729290E-1	4.927474E-1	4.946751E-1	5.366313E-1	4.739197E-1	4.771182E-1	4.843259E-1	5.332635E-1	4.833370E-1	4.088213E-1	4.815656E-1	4.685214E-1	5.210767E-1	4.536140E-1	4.683567E-1	4.710019E-1	5.277016E-1	4.749074E-1	4.927126E-1	5.074498E-1	4.783152E-1	4.999336E-1
5.343600E+2	6.917967E-1	7.791291E-1	8.881063E-1	8.698419E-1	7.465838E-1	8.457671E-1	8.604120E-1	8.749153E-1	7.164913E-1	8.409092E-1	8.073827E-1	9.071916E-1	8.351307E-1	6.884364E-1	7.522270E-1	7.492586E-1	9.050751E-1	8.581849E-1	8.255456E-1	8.115223E-1	8.425732E-1	8.896333E-1	8.545421E-1	8.233704E-1	8.670151E-1	9.932985E-1	8.079999E-1	8.726894E-1	8.767488E-1	8.754116E-1	7.463818E-1	7.580443E-1	9.724167E-1	9.190017E-1	8.653611E-1	8.416440E-1	9.764676E-1	9.227511E-1	8.912888E-1	8.820701E-1	8.384544E-1	7.842518E-1	8.340454E-1	8.288095E-1	8.402565E-1	7.196528E-1	8.052599E-1	7.341796E-1	9.224729E-1	8.508016E-1	8.252882E-1	7.434556E-1	8.416070E-1	8.730741E-1	9.027311E-1	8.584070E-1	8.203175E-1	8.270266E-1	8.135766E-1	9.138925E-1	7.514057E-1	7.483269E-1	7.385755E-1	8.226973E-1	8.544880E-1	7.857308E-1	7.716869E-1	8.721479E-1	8.285282E-1	8.405775E-1	8.596165E-1	8.887556E-1	7.789329E-1	8.466975E-1	8.565223E-1	9.012284E-1	7.044320E-1	7.702210E-1	7.743312E-1	7.010049E-1	8.334890E-1	6.983911E-1	7.512585E-1	8.714293E-1	8.338151E-1	7.950608E-1	8.209881E-1	9.340127E-1	8.450104E-1	6.968669E-1	8.377572E-1	8.850507E-1	7.910008E-1	7.124627E-1	7.706975E-1	7.999014E-1	8.288350E-1	8.035765E-1	8.681113E-1	8.498489E-1	8.908095E-1	8.217689E-1	8.695060E-1	9.534306E-1	7.125105E-1	8.689689E-1	7.097561E-1	8.701281E-1	7.695152E-1	7.207122E-1	7.564427E-1	7.817911E-1	8.733594E-1	8.717364E-1	8.579208E-1	7.941308E-1	9.113995E-1	8.425263E-1	8.469934E-1	8.453258E-1	8.513925E-1	8.364011E-1	8.722774E-1	8.616229E-1	6.802626E-1	7.642397E-1	7.215305E-1	7.685773E-1	7.259915E-1	8.221510E-1	6.367526E-1	7.452048E-1	9.069619E-1	8.468369E-1	8.752844E-1	8.379513E-1	8.710204E-1	8.697985E-1	8.737159E-1	8.624945E-1	7.230263E-1	7.930880E-1	8.694935E-1	7.850580E-1	7.096477E-1	7.122638E-1	7.046669E-1	8.537825E-1	8.595521E-1	8.614776E-1	8.711613E-1	9.179671E-1	8.670305E-1	8.505158E-1	8.425864E-1	9.426301E-1	8.143899E-1	7.645086E-1	7.623739E-1	8.317195E-1	9.174143E-1	8.107497E-1	8.762606E-1	7.885177E-1	9.181820E-1	8.691580E-1	9.169032E-1	9.458613E-1	8.543267E-1	9.029556E-1
5.345110E+2	1.002304E+0	1.241894E+0	1.390979E+0	1.385900E+0	1.173581E+0	1.242955E+0	1.320939E+0	1.388916E+0	1.103120E+0	1.273007E+0	1.260806E+0	1.356039E+0	1.319837E+0	1.100970E+0	1.156555E+0	1.171569E+0	1.390793E+0	1.293320E+0	1.272748E+0	1.228102E+0	1.301071E+0	1.309519E+0	1.248461E+0	1.298257E+0	1.326247E+0	1.427684E+0	1.319448E+0	1.283844E+0	1.381535E+0	1.303128E+0	1.109719E+0	1.156056E+0	1.455275E+0	1.365568E+0	1.280118E+0	1.182504E+0	1.470252E+0	1.364327E+0	1.339748E+0	1.291825E+0	1.222154E+0	1.138840E+0	1.238443E+0	1.264673E+0	1.424886E+0	1.102233E+0	1.122502E+0	1.100221E+0	1.479554E+0	1.318186E+0	1.287419E+0	1.126246E+0	1.352783E+0	1.341425E+0	1.334349E+0	1.343092E+0	1.261450E+0	1.265264E+0	1.256500E+0	1.479709E+0	1.276865E+0	1.077044E+0	1.138537E+0	1.272015E+0	1.347698E+0	1.233628E+0	1.141469E+0	1.295936E+0	1.305793E+0	1.238608E+0	1.318822E+0	1.326346E+0	1.296803E+0	1.242168E+0	1.268500E+0	1.302964E+0	1.108509E+0	1.167345E+0	1.157998E+0	1.094239E+0	1.303537E+0	1.039391E+0	1.056577E+0	1.324275E+0	1.317529E+0	1.210479E+0	1.231688E+0	1.402213E+0	1.217984E+0	1.020153E+0	1.286061E+0	1.389650E+0	1.114858E+0	1.042311E+0	1.179031E+0	1.178753E+0	1.216557E+0	1.196659E+0	1.319600E+0	1.210120E+0	1.275446E+0	1.326285E+0	1.343138E+0	1.377384E+0	1.101298E+0	1.288794E+0	1.154744E+0	1.308287E+0	1.138524E+0	1.082504E+0	1.203658E+0	1.151239E+0	1.258000E+0	1.305232E+0	1.242244E+0	1.230988E+0	1.343558E+0	1.268174E+0	1.238859E+0	1.283876E+0	1.244342E+0	1.295367E+0	1.292985E+0	1.305162E+0	1.020689E+0	1.122885E+0	1.091763E+0	1.187800E+0	1.190433E+0	1.170154E+0	9.867620E-1	1.071838E+0	1.255595E+0	1.266123E+0	1.312656E+0	1.316925E+0	1.267378E+0	1.266246E+0	1.333967E+0	1.259465E+0	1.131022E+0	1.139688E+0	1.307466E+0	1.191519E+0	1.039175E+0	1.094765E+0	1.068467E+0	1.287241E+0	1.298013E+0	1.306056E+0	1.304640E+0	1.322560E+0	1.300917E+0	1.280204E+0	1.240721E+0	1.322924E+0	1.211653E+0	1.150005E+0	1.129545E+0	1.290794E+0	1.320511E+0	1.211983E+0	1.309139E+0	1.279438E+0	1.297211E+0	1.291279E+0	1.324301E+0	1.320306E+0	1.235318E+0	1.332041E+0
5.346620E+2	1.338852E+0	1.620685E+0	1.792369E+0	1.837771E+0	1.538689E+0	1.714649E+0	1.780321E+0	1.793432E+0	1.506944E+0	1.678733E+0	1.704904E+0	1.785347E+0	1.719763E+0	1.435611E+0	1.542230E+0	1.519574E+0	1.839335E+0	1.690672E+0	1.693843E+0	1.588893E+0	1.752573E+0	1.722459E+0	1.750339E+0	1.628973E+0	1.669356E+0	1.913579E+0	1.685791E+0	1.702397E+0	1.849989E+0	1.674676E+0	1.510398E+0	1.470206E+0	1.947877E+0	1.717894E+0	1.704003E+0	1.615257E+0	1.924531E+0	1.719648E+0	1.771580E+0	1.687824E+0	1.602396E+0	1.545717E+0	1.592729E+0	1.645480E+0	1.903569E+0	1.543551E+0	1.542116E+0	1.501863E+0	1.921739E+0	1.683399E+0	1.586958E+0	1.521833E+0	1.768747E+0	1.712925E+0	1.755638E+0	1.730558E+0	1.661759E+0	1.662734E+0	1.659846E+0	1.868862E+0	1.818086E+0	1.434367E+0	1.442854E+0	1.719876E+0	1.863580E+0	1.595043E+0	1.540860E+0	1.728080E+0	1.712200E+0	1.690581E+0	1.689579E+0	1.712316E+0	1.700398E+0	1.639365E+0	1.650193E+0	1.738503E+0	1.700468E+0	1.542139E+0	1.482199E+0	1.467473E+0	1.833113E+0	1.387875E+0	1.444517E+0	1.629697E+0	1.761699E+0	1.573701E+0	1.597251E+0	1.833610E+0	1.698232E+0	1.390148E+0	1.775905E+0	1.833429E+0	1.692548E+0	1.483092E+0	1.516457E+0	1.571928E+0	1.769769E+0	1.579708E+0	1.590124E+0	1.645066E+0	1.706724E+0	1.692544E+0	1.777029E+0	1.783228E+0	1.416587E+0	1.589241E+0	1.462898E+0	1.658137E+0	1.498027E+0	1.475400E+0	1.509004E+0	1.558709E+0	1.672378E+0	1.671781E+0	1.706979E+0	1.601712E+0	1.806621E+0	1.663831E+0	1.701413E+0	1.681987E+0	1.648554E+0	1.669818E+0	1.757327E+0	1.600241E+0	1.416759E+0	1.463924E+0	1.442259E+0	1.530073E+0	1.576862E+0	1.635879E+0	1.334265E+0	1.367767E+0	1.609948E+0	1.682717E+0	1.667208E+0	1.705901E+0	1.661960E+0	1.725286E+0	1.762729E+0	1.686267E+0	1.511423E+0	1.517256E+0	1.695114E+0	1.525412E+0	1.351928E+0	1.381222E+0	1.389889E+0	1.670548E+0	1.629017E+0	1.760603E+0	1.653726E+0	1.720371E+0	1.747548E+0	1.703638E+0	1.667690E+0	1.812978E+0	1.656919E+0	1.451127E+0	1.503283E+0	1.611488E+0	1.762934E+0	1.616319E+0	1.733693E+0	1.622728E+0	1.706584E+0	1.587725E+0	1.742269E+0	1.712691E+0	1.688525E+0	1.586689E+0
5.348070E+2	1.573237E+0	1.933625E+0	2.116342E+0	2.163165E+0	1.785684E+0	1.949068E+0	2.038902E+0	2.170817E+0	1.775419E+0	1.990738E+0	1.971830E+0	2.136501E+0	2.012351E+0	1.677458E+0	1.806186E+0	1.816370E+0	2.109773E+0	2.028298E+0	1.963415E+0	1.899112E+0	2.000800E+0	2.128993E+0	2.048451E+0	1.998135E+0	2.019469E+0	2.218273E+0	1.960549E+0	1.966110E+0	2.105820E+0	1.995465E+0	1.753101E+0	1.763907E+0	2.298604E+0	2.099167E+0	1.969857E+0	1.850870E+0	2.171705E+0	2.060320E+0	2.030362E+0	2.034788E+0	1.851861E+0	1.685703E+0	1.877671E+0	1.951728E+0	2.224155E+0	1.750980E+0	1.792238E+0	1.688234E+0	2.218266E+0	2.022196E+0	1.891163E+0	1.734552E+0	1.962733E+0	2.063932E+0	2.037018E+0	2.067023E+0	1.996873E+0	1.915260E+0	1.921173E+0	2.099267E+0	2.123378E+0	1.700244E+0	1.708047E+0	1.959319E+0	2.137444E+0	1.908340E+0	1.773643E+0	2.019358E+0	1.971155E+0	1.912122E+0	2.038741E+0	2.049980E+0	1.988515E+0	1.950336E+0	1.942745E+0	2.075446E+0	2.059765E+0	1.812557E+0	1.820090E+0	1.736600E+0	2.113909E+0	1.594187E+0	1.673780E+0	1.876382E+0	2.075330E+0	1.821352E+0	1.911725E+0	2.068730E+0	2.069338E+0	1.564385E+0	2.040156E+0	2.117037E+0	2.073298E+0	1.658322E+0	1.736025E+0	1.747494E+0	2.018600E+0	1.822286E+0	1.914017E+0	1.899310E+0	1.973390E+0	1.996906E+0	2.106939E+0	2.089000E+0	1.714303E+0	1.889683E+0	1.673712E+0	2.024858E+0	2.045472E+0	1.691713E+0	1.721807E+0	1.770238E+0	2.138467E+0	1.955756E+0	2.015955E+0	1.818321E+0	2.096175E+0	1.930581E+0	1.984173E+0	1.940388E+0	2.051513E+0	1.962225E+0	1.997330E+0	1.999795E+0	1.920569E+0	1.765731E+0	1.735939E+0	1.791142E+0	1.997761E+0	1.864437E+0	1.505256E+0	1.650461E+0	2.008531E+0	1.989364E+0	1.981165E+0	1.874202E+0	2.006184E+0	1.921425E+0	2.093008E+0	1.990880E+0	1.765188E+0	1.708035E+0	1.964977E+0	1.753212E+0	1.600835E+0	1.638258E+0	1.601233E+0	1.937426E+0	1.937346E+0	2.026353E+0	1.967739E+0	2.052767E+0	2.003675E+0	1.915044E+0	1.922274E+0	2.088855E+0	1.949900E+0	1.665853E+0	1.764394E+0	1.892976E+0	2.057271E+0	1.843648E+0	2.014354E+0	1.881080E+0	1.992864E+0	1.920657E+0	2.050154E+0	2.013809E+0	1.903922E+0	1.991713E+0
5.349580E+2	1.807119E+0	2.162592E+0	2.415591E+0	2.398311E+0	1.971364E+0	2.196094E+0	2.271167E+0	2.322933E+0	1.976774E+0	2.213525E+0	2.136182E+0	2.305835E+0	2.253480E+0	1.825546E+0	1.980602E+0	1.993523E+0	2.362231E+0	2.173342E+0	2.150126E+0	2.131646E+0	2.255021E+0	2.236370E+0	2.235685E+0	2.155850E+0	2.193945E+0	2.384576E+0	2.074759E+0	2.162173E+0	2.238892E+0	2.158018E+0	1.865593E+0	1.917711E+0	2.427692E+0	2.211888E+0	2.150707E+0	1.983902E+0	2.477003E+0	2.260495E+0	2.120785E+0	2.245624E+0	2.064452E+0	1.880694E+0	2.040247E+0	2.120914E+0	2.350961E+0	1.898082E+0	1.929856E+0	1.918582E+0	2.432396E+0	2.180141E+0	2.079975E+0	1.907290E+0	2.216790E+0	2.224831E+0	2.193453E+0	2.209524E+0	2.226582E+0	2.121923E+0	2.056788E+0	2.340170E+0	2.388733E+0	1.900946E+0	1.950537E+0	2.109574E+0	2.321246E+0	2.034920E+0	2.060991E+0	2.192457E+0	2.157681E+0	2.145704E+0	2.177065E+0	2.152271E+0	2.246841E+0	2.154971E+0	2.111311E+0	2.214618E+0	2.141606E+0	1.916934E+0	1.992341E+0	1.839343E+0	2.427274E+0	1.763082E+0	1.810024E+0	2.096639E+0	2.210748E+0	1.965150E+0	2.032258E+0	2.336567E+0	2.185965E+0	1.696641E+0	2.163629E+0	2.299494E+0	2.228905E+0	1.799196E+0	1.934082E+0	1.929527E+0	2.234329E+0	2.106181E+0	2.147739E+0	2.121058E+0	2.265842E+0	2.131547E+0	2.179889E+0	2.265521E+0	1.887394E+0	2.038764E+0	1.855599E+0	2.241972E+0	2.146301E+0	1.874999E+0	1.911889E+0	1.920359E+0	2.342748E+0	2.071802E+0	2.092570E+0	2.059807E+0	2.265348E+0	2.139987E+0	2.140405E+0	2.101626E+0	2.266138E+0	2.050442E+0	2.153421E+0	2.099987E+0	2.115312E+0	1.872370E+0	1.814898E+0	1.913416E+0	2.239659E+0	2.025804E+0	1.598525E+0	1.819336E+0	2.187012E+0	2.119246E+0	2.168993E+0	2.143694E+0	2.207026E+0	2.096695E+0	2.212927E+0	2.119379E+0	2.175650E+0	1.919293E+0	2.120921E+0	2.010410E+0	1.902225E+0	1.822573E+0	1.783961E+0	2.052659E+0	2.140372E+0	2.163104E+0	2.135431E+0	2.234955E+0	2.219024E+0	2.103307E+0	2.095883E+0	2.224714E+0	2.192672E+0	1.834605E+0	1.900760E+0	2.025221E+0	2.239152E+0	1.980289E+0	2.200466E+0	2.063856E+0	2.157181E+0	2.067110E+0	2.268470E+0	2.172164E+0	2.230131E+0	2.146105E+0
5.351140E+2	1.753029E+0	2.067136E+0	2.349234E+0	2.339210E+0	2.003160E+0	2.128462E+0	2.210525E+0	2.294355E+0	1.880259E+0	2.157407E+0	2.142008E+0	2.346542E+0	2.196138E+0	1.816893E+0	1.928837E+0	1.962457E+0	2.266285E+0	2.117884E+0	2.108698E+0	2.099844E+0	2.179103E+0	2.256671E+0	2.197267E+0	2.109538E+0	2.171769E+0	2.321281E+0	2.115589E+0	2.140503E+0	2.275226E+0	2.119133E+0	1.830649E+0	1.852263E+0	2.352797E+0	2.165689E+0	2.107920E+0	2.007943E+0	2.353417E+0	2.212760E+0	2.218994E+0	2.232791E+0	2.086918E+0	1.868167E+0	2.029171E+0	2.077325E+0	2.374564E+0	1.927186E+0	1.912956E+0	1.795869E+0	2.391773E+0	2.210089E+0	2.078806E+0	1.977128E+0	2.132274E+0	2.211508E+0	2.140274E+0	2.216193E+0	2.160774E+0	2.150800E+0	2.029430E+0	2.297549E+0	2.260523E+0	1.877033E+0	1.855859E+0	2.121692E+0	2.321858E+0	2.024037E+0	1.966367E+0	2.153062E+0	2.187382E+0	2.103802E+0	2.148271E+0	2.222364E+0	2.170859E+0	2.054378E+0	2.179302E+0	2.205599E+0	2.188964E+0	1.879551E+0	1.892765E+0	1.899350E+0	2.326190E+0	1.732616E+0	1.730685E+0	2.180631E+0	2.151159E+0	1.995507E+0	2.063508E+0	2.214912E+0	2.217777E+0	1.696640E+0	2.127275E+0	2.279013E+0	2.276071E+0	1.781524E+0	1.936036E+0	1.964177E+0	2.188229E+0	2.028863E+0	2.071057E+0	2.034984E+0	2.179151E+0	2.131544E+0	2.204386E+0	2.213214E+0	1.882067E+0	1.962799E+0	1.911781E+0	2.151977E+0	2.153692E+0	1.864950E+0	1.909673E+0	1.873572E+0	2.287801E+0	2.051717E+0	2.171712E+0	1.999129E+0	2.195403E+0	2.132621E+0	2.105061E+0	2.100580E+0	2.249243E+0	2.083139E+0	2.186985E+0	2.079827E+0	2.159321E+0	1.865828E+0	1.822122E+0	1.893590E+0	2.158625E+0	2.055093E+0	1.556904E+0	1.781224E+0	2.197939E+0	2.044872E+0	2.154920E+0	2.118774E+0	2.191029E+0	2.130678E+0	2.249775E+0	2.064308E+0	2.190920E+0	1.895322E+0	2.050693E+0	1.976884E+0	1.905472E+0	1.831456E+0	1.769648E+0	2.071171E+0	2.092320E+0	2.197981E+0	2.121185E+0	2.170995E+0	2.197998E+0	2.099552E+0	2.070118E+0	2.269214E+0	2.124257E+0	1.873504E+0	1.880554E+0	2.045058E+0	2.260047E+0	1.977805E+0	2.138031E+0	2.022849E+0	2.156039E+0	1.990591E+0	2.277176E+0	2.144081E+0	2.068271E+0	2.017778E+0
5.352600E+2	1.620314E+0	1.917316E+0	2.143015E+0	2.128843E+0	1.819191E+0	1.940471E+0	2.038902E+0	2.108323E+0	1.754341E+0	2.008140E+0	1.904807E+0	2.091995E+0	1.989803E+0	1.611587E+0	1.791728E+0	1.800839E+0	2.108579E+0	2.005139E+0	1.973061E+0	1.845932E+0	2.030768E+0	2.010935E+0	2.004200E+0	1.952265E+0	1.944195E+0	2.132635E+0	1.842483E+0	1.878906E+0	2.048369E+0	1.891776E+0	1.702358E+0	1.707866E+0	2.184741E+0	1.964890E+0	1.953313E+0	1.817210E+0	2.142360E+0	2.039169E+0	1.960214E+0	1.952746E+0	1.897947E+0	1.724918E+0	1.832803E+0	1.923630E+0	2.137969E+0	1.723461E+0	1.735742E+0	1.666037E+0	2.156758E+0	1.920617E+0	1.813652E+0	1.750013E+0	1.981570E+0	2.006543E+0	1.974028E+0	2.007450E+0	1.956658E+0	1.891481E+0	1.914192E+0	2.065290E+0	2.098681E+0	1.701184E+0	1.682446E+0	1.935083E+0	2.114775E+0	1.821852E+0	1.848525E+0	1.970416E+0	1.961772E+0	1.908975E+0	1.985260E+0	2.006410E+0	2.004316E+0	1.890557E+0	1.828468E+0	2.024171E+0	1.982037E+0	1.716428E+0	1.746002E+0	1.646133E+0	2.186912E+0	1.554631E+0	1.688552E+0	1.894587E+0	1.982159E+0	1.813895E+0	1.829884E+0	2.100420E+0	1.955818E+0	1.576455E+0	2.012460E+0	2.027921E+0	2.016403E+0	1.599421E+0	1.735049E+0	1.816794E+0	1.987866E+0	1.825827E+0	1.960024E+0	1.944918E+0	1.990394E+0	1.961825E+0	2.075365E+0	2.100064E+0	1.749454E+0	1.862267E+0	1.697075E+0	1.911241E+0	1.984234E+0	1.613707E+0	1.760045E+0	1.735147E+0	2.046675E+0	1.890484E+0	1.973534E+0	1.806791E+0	2.043035E+0	1.944265E+0	1.971877E+0	1.889969E+0	2.074045E+0	1.893754E+0	1.930759E+0	1.956420E+0	1.967608E+0	1.758693E+0	1.672389E+0	1.751487E+0	2.012879E+0	1.882809E+0	1.488711E+0	1.671107E+0	1.957021E+0	1.953256E+0	1.970880E+0	1.882343E+0	1.994923E+0	1.902351E+0	2.054156E+0	1.893929E+0	1.901683E+0	1.708034E+0	1.943963E+0	1.802358E+0	1.733944E+0	1.605508E+0	1.555001E+0	1.837724E+0	1.842850E+0	2.008635E+0	1.916773E+0	2.031933E+0	1.985197E+0	1.945062E+0	1.925957E+0	2.002237E+0	2.021630E+0	1.690105E+0	1.730559E+0	1.793795E+0	2.095983E+0	1.882158E+0	1.950132E+0	1.851200E+0	1.958506E+0	1.849208E+0	2.081875E+0	1.918635E+0	1.978626E+0	1.893465E+0
5.354060E+2	1.326333E+0	1.596520E+0	1.770247E+0	1.756418E+0	1.525061E+0	1.583975E+0	1.690506E+0	1.709622E+0	1.518039E+0	1.617567E+0	1.612238E+0	1.783176E+0	1.627131E+0	1.424070E+0	1.429371E+0	1.528392E+0	1.743388E+0	1.608400E+0	1.614393E+0	1.554483E+0	1.673160E+0	1.670643E+0	1.630219E+0	1.600142E+0	1.651851E+0	1.784500E+0	1.581516E+0	1.615726E+0	1.724773E+0	1.599613E+0	1.429016E+0	1.396168E+0	1.835842E+0	1.692025E+0	1.622420E+0	1.512680E+0	1.793042E+0	1.661062E+0	1.667650E+0	1.651161E+0	1.636388E+0	1.467281E+0	1.627691E+0	1.578953E+0	1.811895E+0	1.446185E+0	1.463408E+0	1.384179E+0	1.861968E+0	1.578297E+0	1.539753E+0	1.412005E+0	1.614478E+0	1.669374E+0	1.710205E+0	1.639529E+0	1.589864E+0	1.633294E+0	1.520741E+0	1.730494E+0	1.725604E+0	1.413266E+0	1.393103E+0	1.584159E+0	1.768610E+0	1.527455E+0	1.486289E+0	1.655259E+0	1.624144E+0	1.583217E+0	1.677751E+0	1.657852E+0	1.658463E+0	1.580734E+0	1.585622E+0	1.703572E+0	1.600091E+0	1.495048E+0	1.489280E+0	1.392915E+0	1.807281E+0	1.411926E+0	1.411688E+0	1.636744E+0	1.670156E+0	1.495411E+0	1.579891E+0	1.715030E+0	1.677026E+0	1.304077E+0	1.692244E+0	1.755754E+0	1.734852E+0	1.341235E+0	1.485158E+0	1.503087E+0	1.756176E+0	1.489405E+0	1.545344E+0	1.570391E+0	1.677089E+0	1.624454E+0	1.694278E+0	1.730927E+0	1.401145E+0	1.580100E+0	1.412837E+0	1.645198E+0	1.647428E+0	1.374425E+0	1.459682E+0	1.473898E+0	1.747364E+0	1.599810E+0	1.628465E+0	1.485215E+0	1.752945E+0	1.583854E+0	1.633797E+0	1.575892E+0	1.779957E+0	1.592090E+0	1.616345E+0	1.573362E+0	1.600373E+0	1.418154E+0	1.380633E+0	1.466339E+0	1.607704E+0	1.554337E+0	1.260050E+0	1.359298E+0	1.651058E+0	1.593254E+0	1.633646E+0	1.558958E+0	1.665516E+0	1.616787E+0	1.704444E+0	1.678237E+0	1.669105E+0	1.469811E+0	1.572347E+0	1.434935E+0	1.475297E+0	1.348472E+0	1.368975E+0	1.603679E+0	1.650077E+0	1.699700E+0	1.632903E+0	1.661257E+0	1.687019E+0	1.684248E+0	1.591007E+0	1.707372E+0	1.750166E+0	1.423341E+0	1.429041E+0	1.585037E+0	1.786284E+0	1.567877E+0	1.656987E+0	1.506152E+0	1.680820E+0	1.584180E+0	1.724856E+0	1.650284E+0	1.626271E+0	1.538565E+0
5.355630E+2	1.131516E+0	1.294454E+0	1.485959E+0	1.481231E+0	1.229796E+0	1.330646E+0	1.421054E+0	1.459159E+0	1.217388E+0	1.422842E+0	1.345312E+0	1.414112E+0	1.386985E+0	1.291848E+0	1.226974E+0	1.278197E+0	1.474746E+0	1.424349E+0	1.278991E+0	1.266686E+0	1.371491E+0	1.440937E+0	1.358367E+0	1.332770E+0	1.289484E+0	1.439477E+0	1.351448E+0	1.361530E+0	1.404125E+0	1.367933E+0	1.138441E+0	1.149101E+0	1.537478E+0	1.416691E+0	1.330323E+0	1.212957E+0	1.501290E+0	1.388737E+0	1.334032E+0	1.346825E+0	1.329313E+0	1.157359E+0	1.311864E+0	1.328904E+0	1.520402E+0	1.172610E+0	1.227769E+0	1.153829E+0	1.465628E+0	1.401562E+0	1.227394E+0	1.190756E+0	1.365511E+0	1.450057E+0	1.372037E+0	1.339279E+0	1.405244E+0	1.340002E+0	1.330417E+0	1.425350E+0	1.398245E+0	1.111744E+0	1.158826E+0	1.346654E+0	1.461656E+0	1.293197E+0	1.245960E+0	1.380693E+0	1.313611E+0	1.328690E+0	1.321392E+0	1.363284E+0	1.356978E+0	1.312296E+0	1.316495E+0	1.340716E+0	1.333968E+0	1.198419E+0	1.171684E+0	1.163339E+0	1.502343E+0	1.316788E+0	1.132086E+0	1.299607E+0	1.423699E+0	1.313266E+0	1.309067E+0	1.434413E+0	1.426925E+0	1.123541E+0	1.346643E+0	1.466723E+0	1.412453E+0	1.118392E+0	1.239671E+0	1.227726E+0	1.364317E+0	1.300537E+0	1.293834E+0	1.316718E+0	1.441150E+0	1.344339E+0	1.391045E+0	1.448294E+0	1.149763E+0	1.300216E+0	1.171431E+0	1.362844E+0	1.361830E+0	1.174866E+0	1.239679E+0	1.237511E+0	1.471330E+0	1.276779E+0	1.313790E+0	1.313506E+0	1.384223E+0	1.359722E+0	1.340796E+0	1.320116E+0	1.418919E+0	1.315108E+0	1.413827E+0	1.357092E+0	1.381347E+0	1.203368E+0	1.156758E+0	1.239733E+0	1.319847E+0	1.283285E+0	1.023869E+0	1.130071E+0	1.381519E+0	1.321093E+0	1.379776E+0	1.301163E+0	1.388242E+0	1.390843E+0	1.431107E+0	1.387966E+0	1.402526E+0	1.180641E+0	1.346728E+0	1.238363E+0	1.283211E+0	1.196913E+0	1.125156E+0	1.311720E+0	1.347149E+0	1.395747E+0	1.362183E+0	1.386520E+0	1.407956E+0	1.310852E+0	1.286731E+0	1.430308E+0	1.376628E+0	1.163648E+0	1.229545E+0	1.276625E+0	1.453854E+0	1.274094E+0	1.369196E+0	1.267135E+0	1.411149E+0	1.312563E+0	1.406402E+0	1.380373E+0	1.324964E+0	1.305975E+0
5.357140E+2	9.542249E-1	1.126506E+0	1.261521E+0	1.266418E+0	1.082163E+0	1.154691E+0	1.191648E+0	1.209185E+0	1.053196E+0	1.180977E+0	1.112191E+0	1.221438E+0	1.203195E+0	1.161553E+0	1.024109E+0	1.088450E+0	1.228887E+0	1.262239E+0	1.132571E+0	1.122784E+0	1.195187E+0	1.232061E+0	1.152654E+0	1.122196E+0	1.171613E+0	1.273788E+0	1.089931E+0	1.114203E+0	1.187085E+0	1.243723E+0	9.689798E-1	9.932513E-1	1.314620E+0	1.249769E+0	1.154036E+0	1.053747E+0	1.241700E+0	1.207552E+0	1.142799E+0	1.111238E+0	1.092526E+0	1.076745E+0	1.106169E+0	1.097209E+0	1.277218E+0	1.101704E+0	1.016273E+0	9.720652E-1	1.294440E+0	1.200165E+0	1.039745E+0	9.988274E-1	1.112469E+0	1.193847E+0	1.155196E+0	1.193923E+0	1.140809E+0	1.182599E+0	1.084219E+0	1.217802E+0	1.242184E+0	1.170360E+0	9.762342E-1	1.143085E+0	1.218422E+0	1.165470E+0	1.030593E+0	1.126420E+0	1.130727E+0	1.099298E+0	1.152211E+0	1.150648E+0	1.188002E+0	1.157671E+0	1.119364E+0	1.173935E+0	1.130644E+0	1.061997E+0	1.037660E+0	1.003319E+0	1.233339E+0	1.198133E+0	9.870868E-1	1.143372E+0	1.155027E+0	1.136980E+0	1.112644E+0	1.222292E+0	1.184927E+0	9.162394E-1	1.181052E+0	1.190940E+0	1.201414E+0	9.696655E-1	1.021077E+0	1.086811E+0	1.205919E+0	1.045565E+0	1.128821E+0	1.105801E+0	1.159123E+0	1.124065E+0	1.193972E+0	1.288871E+0	9.846621E-1	1.134002E+0	1.000667E+0	1.167670E+0	1.183397E+0	9.853564E-1	1.014132E+0	1.044988E+0	1.237313E+0	1.079279E+0	1.177029E+0	1.090831E+0	1.243245E+0	1.149266E+0	1.171244E+0	1.145746E+0	1.201794E+0	1.104748E+0	1.200675E+0	1.148763E+0	1.204307E+0	1.021780E+0	9.733275E-1	1.038618E+0	1.173500E+0	1.101817E+0	8.729336E-1	9.564312E-1	1.148922E+0	1.145403E+0	1.139439E+0	1.115065E+0	1.151256E+0	1.186956E+0	1.215387E+0	1.168254E+0	1.207397E+0	9.973533E-1	1.122212E+0	1.031231E+0	1.025106E+0	9.881754E-1	9.716005E-1	1.111111E+0	1.134400E+0	1.194220E+0	1.163802E+0	1.178652E+0	1.211082E+0	1.160117E+0	1.151770E+0	1.181130E+0	1.173030E+0	1.009549E+0	9.967172E-1	1.093372E+0	1.219737E+0	1.066644E+0	1.181298E+0	1.162858E+0	1.163234E+0	1.114425E+0	1.231004E+0	1.144785E+0	1.143184E+0	1.045315E+0
5.358600E+2	8.375349E-1	9.204962E-1	1.050092E+0	1.038260E+0	9.265815E-1	9.328850E-1	9.519453E-1	1.041565E+0	8.912232E-1	1.042368E+0	9.280236E-1	1.084668E+0	9.777497E-1	9.663432E-1	8.459638E-1	9.486584E-1	1.065182E+0	1.107443E+0	9.101058E-1	9.632427E-1	1.014384E+0	1.110261E+0	9.911976E-1	1.009045E+0	1.012896E+0	1.160848E+0	9.514485E-1	9.873692E-1	1.066781E+0	1.069288E+0	8.411658E-1	8.643983E-1	1.190404E+0	1.048968E+0	9.669106E-1	8.587406E-1	1.039672E+0	9.807962E-1	9.661190E-1	9.925294E-1	9.675063E-1	9.313158E-1	9.435943E-1	9.469507E-1	1.056542E+0	9.847602E-1	8.786556E-1	8.409767E-1	1.070447E+0	1.029299E+0	9.348471E-1	8.671430E-1	9.836568E-1	1.046784E+0	1.015282E+0	1.003288E+0	9.787353E-1	1.016137E+0	9.876029E-1	1.039903E+0	1.018864E+0	1.020303E+0	8.491934E-1	9.705298E-1	1.019299E+0	1.051491E+0	8.674699E-1	1.013012E+0	9.671229E-1	9.840787E-1	9.393215E-1	1.016149E+0	9.995743E-1	9.915505E-1	9.633737E-1	9.761661E-1	9.906319E-1	1.027042E+0	8.809831E-1	8.214758E-1	1.118215E+0	1.067719E+0	8.502949E-1	9.554202E-1	1.026109E+0	9.825313E-1	9.489603E-1	1.075086E+0	1.072661E+0	8.249216E-1	1.032772E+0	1.066898E+0	1.032191E+0	9.416874E-1	8.958873E-1	9.154052E-1	1.098940E+0	9.953966E-1	9.748489E-1	9.610086E-1	1.032373E+0	1.022956E+0	1.085635E+0	1.055521E+0	8.994481E-1	9.472220E-1	8.994332E-1	1.016930E+0	9.833178E-1	8.977799E-1	9.105017E-1	9.021783E-1	1.046610E+0	1.011772E+0	9.896158E-1	9.603794E-1	1.065393E+0	9.588032E-1	1.003227E+0	9.803049E-1	1.087913E+0	9.622461E-1	9.271035E-1	9.978616E-1	9.893272E-1	8.728893E-1	8.462251E-1	8.969883E-1	1.028967E+0	9.438945E-1	7.330303E-1	8.362597E-1	1.047455E+0	9.627068E-1	1.024142E+0	9.630348E-1	1.033948E+0	1.049839E+0	1.086758E+0	1.031149E+0	1.010299E+0	9.089548E-1	9.485713E-1	9.182485E-1	8.519561E-1	8.194081E-1	8.422619E-1	9.731921E-1	1.042604E+0	1.039752E+0	9.840530E-1	1.029412E+0	1.069002E+0	9.768580E-1	9.763204E-1	1.074931E+0	1.024056E+0	8.903127E-1	8.891414E-1	9.705761E-1	1.112204E+0	9.250328E-1	1.080214E+0	9.390739E-1	1.030975E+0	1.000912E+0	1.040056E+0	9.996878E-1	1.007471E+0	9.691227E-1
5.360070E+2	7.879542E-1	8.093358E-1	8.978636E-1	8.990766E-1	7.727033E-1	8.073667E-1	8.907320E-1	9.194845E-1	7.641956E-1	9.357467E-1	8.475957E-1	8.724563E-1	8.508136E-1	8.403719E-1	7.596884E-1	7.853606E-1	9.200660E-1	9.343640E-1	8.283835E-1	8.271635E-1	8.490662E-1	9.302326E-1	8.584328E-1	8.006523E-1	8.658482E-1	9.690966E-1	7.958618E-1	8.716328E-1	8.379574E-1	9.661396E-1	7.234039E-1	7.277744E-1	9.334470E-1	9.257775E-1	8.328416E-1	7.689843E-1	9.104414E-1	8.299879E-1	8.736208E-1	8.614449E-1	8.442156E-1	7.706346E-1	8.404557E-1	8.322498E-1	9.593772E-1	7.746851E-1	7.555254E-1	7.312474E-1	9.271155E-1	8.713522E-1	8.019784E-1	7.802419E-1	8.192047E-1	8.643632E-1	8.521349E-1	8.688917E-1	8.483457E-1	9.074263E-1	7.955339E-1	8.471799E-1	8.922280E-1	8.650892E-1	7.293983E-1	8.328755E-1	9.267844E-1	8.189508E-1	7.769117E-1	8.608065E-1	8.650005E-1	8.196287E-1	8.164214E-1	8.409243E-1	8.166184E-1	8.961317E-1	8.148105E-1	8.826352E-1	8.655478E-1	9.129525E-1	7.630052E-1	7.787424E-1	9.093038E-1	9.148571E-1	7.145986E-1	8.050588E-1	8.565650E-1	8.190277E-1	8.274364E-1	9.421910E-1	8.680874E-1	7.446250E-1	8.591046E-1	9.169643E-1	8.974945E-1	8.175034E-1	7.628735E-1	8.105275E-1	8.973955E-1	8.566961E-1	8.969427E-1	8.270469E-1	8.891634E-1	8.542687E-1	8.956378E-1	9.202386E-1	7.109131E-1	8.506909E-1	7.609301E-1	8.521289E-1	8.777362E-1	8.169025E-1	8.096426E-1	7.871520E-1	9.179659E-1	9.091165E-1	8.902113E-1	8.202211E-1	9.200756E-1	8.320032E-1	8.869480E-1	8.595064E-1	9.452496E-1	8.801996E-1	8.991312E-1	8.432951E-1	8.674210E-1	8.034738E-1	7.037170E-1	7.638561E-1	8.493593E-1	8.807256E-1	6.598192E-1	7.584397E-1	9.106049E-1	8.603098E-1	8.898997E-1	8.440537E-1	8.639110E-1	8.560869E-1	8.904643E-1	8.607734E-1	8.540972E-1	8.100679E-1	8.213822E-1	7.685246E-1	7.572637E-1	7.411317E-1	7.575032E-1	7.636276E-1	8.573923E-1	8.980177E-1	7.873153E-1	8.690277E-1	8.886930E-1	8.555199E-1	8.389057E-1	9.242381E-1	8.778414E-1	7.675403E-1	7.457071E-1	8.166066E-1	9.487526E-1	8.200658E-1	8.625853E-1	8.435850E-1	8.586372E-1	8.519280E-1	9.137933E-1	8.584913E-1	8.095031E-1	8.006959E-1
5.362680E+2	6.181765E-1	6.576984E-1	6.727743E-1	6.912550E-1	6.148502E-1	6.400088E-1	6.647594E-1	7.000286E-1	5.783707E-1	6.473061E-1	6.430310E-1	7.014926E-1	6.866303E-1	6.509336E-1	5.470319E-1	6.103072E-1	7.161846E-1	7.070449E-1	6.388331E-1	6.217419E-1	6.348019E-1	7.063995E-1	6.585558E-1	6.621621E-1	6.277715E-1	7.425951E-1	6.204137E-1	6.068669E-1	6.773875E-1	7.285195E-1	5.850584E-1	5.551538E-1	7.404256E-1	7.274406E-1	6.080630E-1	6.306095E-1	7.259077E-1	6.840622E-1	6.532882E-1	6.396097E-1	6.333537E-1	6.126764E-1	6.330120E-1	6.452877E-1	7.101556E-1	6.841992E-1	5.903845E-1	5.612094E-1	7.286550E-1	6.529269E-1	6.137452E-1	5.797836E-1	6.649354E-1	6.906532E-1	6.698848E-1	6.663437E-1	6.503238E-1	6.605643E-1	5.894962E-1	7.026375E-1	7.067416E-1	6.456326E-1	5.608153E-1	6.559605E-1	7.007045E-1	6.849245E-1	5.847637E-1	6.620447E-1	6.393936E-1	6.635592E-1	6.539254E-1	6.827475E-1	6.391323E-1	6.846004E-1	6.251070E-1	6.814850E-1	6.478097E-1	7.250709E-1	5.869813E-1	5.778060E-1	7.178019E-1	7.058740E-1	5.624862E-1	6.341406E-1	6.978546E-1	6.794899E-1	6.255578E-1	7.126916E-1	6.572764E-1	5.677626E-1	6.773596E-1	7.032038E-1	6.918014E-1	6.687774E-1	6.078538E-1	6.090892E-1	7.112181E-1	7.150447E-1	6.564768E-1	6.332301E-1	7.218102E-1	6.633996E-1	6.686206E-1	6.783396E-1	5.798970E-1	6.850467E-1	5.768160E-1	7.064511E-1	6.512635E-1	6.364856E-1	5.719034E-1	6.126625E-1	6.897667E-1	7.060367E-1	6.660756E-1	6.375905E-1	6.939651E-1	7.088867E-1	6.605372E-1	6.525739E-1	7.106057E-1	6.630548E-1	6.994067E-1	6.453517E-1	6.979662E-1	6.973391E-1	5.559123E-1	6.278916E-1	6.963599E-1	7.228038E-1	5.143998E-1	5.408603E-1	6.759291E-1	6.344989E-1	6.376531E-1	6.772770E-1	6.879492E-1	6.915461E-1	7.089097E-1	6.680242E-1	6.890265E-1	7.051890E-1	7.085715E-1	6.312004E-1	6.176615E-1	6.112248E-1	5.500110E-1	6.889961E-1	6.592210E-1	7.214043E-1	6.645596E-1	6.761798E-1	6.739795E-1	7.172937E-1	6.468928E-1	6.762445E-1	6.930041E-1	6.861974E-1	5.871215E-1	6.668871E-1	7.238539E-1	6.865275E-1	6.859851E-1	6.367896E-1	6.885892E-1	6.917958E-1	7.016983E-1	7.375768E-1	7.484952E-1	6.683603E-1
5.365140E+2	4.869621E-1	5.217689E-1	5.979618E-1	6.029153E-1	5.046941E-1	5.024547E-1	5.526312E-1	5.687432E-1	4.502337E-1	5.479797E-1	5.620204E-1	5.614654E-1	5.391100E-1	5.590995E-1	4.570255E-1	4.915063E-1	5.812628E-1	5.711411E-1	5.253300E-1	5.080814E-1	5.414042E-1	5.904766E-1	5.442710E-1	5.468258E-1	5.384927E-1	6.296542E-1	5.420690E-1	5.249530E-1	6.056963E-1	6.016093E-1	4.869230E-1	4.802967E-1	5.985507E-1	5.783796E-1	5.726924E-1	4.959749E-1	6.130435E-1	5.945536E-1	5.810572E-1	5.456506E-1	5.480873E-1	4.819529E-1	5.310391E-1	5.013382E-1	6.086002E-1	5.423856E-1	4.735312E-1	4.485486E-1	6.288442E-1	5.783573E-1	5.397351E-1	4.928829E-1	5.661625E-1	5.794592E-1	5.475245E-1	5.791288E-1	5.345570E-1	6.067757E-1	5.260554E-1	6.050406E-1	5.879882E-1	5.537231E-1	4.777318E-1	5.570812E-1	6.271826E-1	5.795374E-1	5.104590E-1	5.802713E-1	5.690543E-1	5.787157E-1	5.485092E-1	5.681408E-1	5.819959E-1	5.679140E-1	5.473974E-1	5.394973E-1	5.613319E-1	5.998156E-1	4.841044E-1	4.473340E-1	6.127853E-1	5.930983E-1	4.689208E-1	5.624838E-1	5.575615E-1	5.522019E-1	5.129623E-1	5.797967E-1	5.805616E-1	4.769691E-1	5.798526E-1	5.460437E-1	5.979515E-1	5.617725E-1	4.890214E-1	5.046740E-1	5.941921E-1	5.816568E-1	5.123197E-1	5.368919E-1	5.895747E-1	5.922108E-1	5.640943E-1	6.109499E-1	5.271707E-1	5.382511E-1	4.766939E-1	5.422128E-1	5.583516E-1	5.402945E-1	5.137160E-1	4.947116E-1	6.361111E-1	5.838543E-1	5.495754E-1	5.526459E-1	5.779280E-1	5.489396E-1	5.570640E-1	5.501576E-1	5.535512E-1	6.001315E-1	5.696141E-1	5.659304E-1	5.801076E-1	5.610234E-1	4.841766E-1	4.796526E-1	5.869013E-1	5.924464E-1	4.331655E-1	4.662160E-1	5.999586E-1	5.504259E-1	5.954312E-1	5.710071E-1	5.540524E-1	5.830450E-1	5.889906E-1	5.515716E-1	5.727376E-1	5.383807E-1	6.134562E-1	5.324553E-1	4.937503E-1	5.085214E-1	4.613999E-1	5.546598E-1	5.350264E-1	5.818844E-1	5.286518E-1	5.584364E-1	5.739497E-1	5.840718E-1	5.395376E-1	5.836928E-1	5.936883E-1	5.679714E-1	5.032830E-1	5.483397E-1	6.365982E-1	5.790767E-1	5.652788E-1	5.500877E-1	5.614823E-1	5.362243E-1	6.096450E-1	5.433343E-1	6.239890E-1	5.199844E-1
5.367710E+2	4.724386E-1	5.042491E-1	5.452675E-1	5.310992E-1	4.643788E-1	5.076134E-1	5.245996E-1	5.576012E-1	4.801876E-1	5.721098E-1	4.949978E-1	5.370418E-1	5.224466E-1	5.033257E-1	4.649536E-1	4.965437E-1	5.548785E-1	5.882054E-1	5.088722E-1	5.044315E-1	5.503946E-1	5.498777E-1	5.282226E-1	5.393990E-1	5.151518E-1	6.302745E-1	5.122760E-1	5.492626E-1	5.880186E-1	5.870279E-1	4.534141E-1	4.594356E-1	6.186447E-1	5.574373E-1	5.264810E-1	4.740702E-1	5.938560E-1	5.343389E-1	5.540354E-1	5.360257E-1	4.922034E-1	4.835871E-1	4.844221E-1	5.139552E-1	5.767615E-1	5.429145E-1	4.667705E-1	4.380783E-1	6.131763E-1	5.695498E-1	5.105969E-1	4.566295E-1	5.249222E-1	5.333411E-1	4.964121E-1	5.572060E-1	5.229803E-1	5.620457E-1	5.085941E-1	5.760084E-1	5.443747E-1	5.326216E-1	4.216986E-1	5.158819E-1	6.026760E-1	4.930508E-1	5.046534E-1	5.611709E-1	5.221612E-1	5.326280E-1	5.269112E-1	5.510916E-1	5.090568E-1	5.207797E-1	5.222564E-1	5.569643E-1	5.500076E-1	5.799107E-1	4.812727E-1	4.568804E-1	5.594344E-1	5.647703E-1	4.842415E-1	5.090357E-1	5.283112E-1	5.101281E-1	5.422273E-1	5.884862E-1	5.612267E-1	4.622745E-1	5.342720E-1	5.912050E-1	5.551590E-1	5.288861E-1	4.968458E-1	4.797257E-1	5.965558E-1	5.509646E-1	5.129332E-1	5.289110E-1	5.544584E-1	5.478461E-1	5.706275E-1	5.556302E-1	4.707167E-1	5.279694E-1	4.716880E-1	5.484002E-1	5.372349E-1	5.254591E-1	4.799117E-1	4.878879E-1	5.753445E-1	5.894329E-1	5.445103E-1	5.180606E-1	5.719634E-1	5.294729E-1	5.770411E-1	5.375526E-1	5.548023E-1	5.396761E-1	5.086343E-1	4.858973E-1	5.376171E-1	5.439213E-1	4.581784E-1	4.914550E-1	5.324745E-1	5.430601E-1	4.216327E-1	4.651572E-1	5.354356E-1	5.073116E-1	5.477971E-1	5.125335E-1	5.416107E-1	5.681413E-1	5.682224E-1	5.263311E-1	5.495785E-1	5.763371E-1	5.376956E-1	4.846911E-1	4.807639E-1	5.118527E-1	4.355320E-1	5.385396E-1	5.350266E-1	5.647214E-1	5.675611E-1	5.618277E-1	5.420930E-1	5.415409E-1	5.088643E-1	5.486885E-1	5.622382E-1	5.341206E-1	4.674241E-1	4.911913E-1	5.561015E-1	5.281467E-1	5.730087E-1	5.125954E-1	5.666357E-1	5.514268E-1	5.343853E-1	5.495749E-1	5.430584E-1	5.701114E-1
5.370170E+2	4.909683E-1	5.447255E-1	5.966606E-1	5.946531E-1	5.268386E-1	5.500258E-1	5.898175E-1	5.827923E-1	5.140244E-1	6.074635E-1	5.853322E-1	5.663503E-1	5.601843E-1	5.566949E-1	5.642869E-1	4.822707E-1	6.088465E-1	6.241617E-1	5.968365E-1	5.320645E-1	5.698731E-1	5.990240E-1	5.899847E-1	5.376518E-1	5.466624E-1	6.290336E-1	5.884141E-1	5.513766E-1	5.688681E-1	6.415722E-1	5.367090E-1	4.852059E-1	6.387386E-1	6.227283E-1	6.074924E-1	5.323051E-1	5.966780E-1	5.929261E-1	5.950878E-1	5.502342E-1	5.590334E-1	5.070082E-1	5.799859E-1	5.753204E-1	6.552611E-1	5.614348E-1	5.020198E-1	4.711643E-1	6.172385E-1	5.971467E-1	5.309936E-1	5.051445E-1	6.063847E-1	5.932944E-1	5.857294E-1	5.948562E-1	5.467434E-1	5.722371E-1	5.586489E-1	5.846557E-1	6.011244E-1	5.785764E-1	5.086464E-1	5.701687E-1	6.039009E-1	5.680826E-1	5.313573E-1	5.725113E-1	5.654067E-1	5.724309E-1	5.680496E-1	5.681405E-1	5.850353E-1	5.753867E-1	5.445399E-1	5.687965E-1	5.119165E-1	6.119529E-1	5.086442E-1	4.882483E-1	6.593974E-1	6.433393E-1	6.254105E-1	5.601345E-1	5.748956E-1	5.958744E-1	5.829007E-1	6.728231E-1	5.524949E-1	5.173799E-1	5.250405E-1	5.755491E-1	5.804451E-1	5.622635E-1	4.983125E-1	5.213066E-1	5.587301E-1	5.875582E-1	5.478988E-1	5.528534E-1	6.131685E-1	6.174881E-1	5.902260E-1	6.044123E-1	4.856290E-1	5.890867E-1	4.983870E-1	5.883347E-1	6.053356E-1	5.532158E-1	5.054031E-1	5.332160E-1	6.186568E-1	6.390872E-1	5.293147E-1	5.526453E-1	5.860609E-1	6.257564E-1	5.954823E-1	5.758928E-1	5.979773E-1	5.729884E-1	6.020624E-1	5.689844E-1	6.028700E-1	5.821498E-1	4.962124E-1	5.183647E-1	5.729924E-1	5.912984E-1	4.431943E-1	4.667455E-1	5.739409E-1	6.000073E-1	5.840642E-1	5.527025E-1	5.801206E-1	5.824493E-1	5.816218E-1	5.905805E-1	6.195486E-1	5.953154E-1	5.675572E-1	5.333742E-1	5.105242E-1	5.307281E-1	4.911206E-1	5.540632E-1	5.944242E-1	6.234084E-1	5.790697E-1	5.947766E-1	5.835060E-1	6.065879E-1	5.524198E-1	6.216630E-1	5.903774E-1	5.851497E-1	5.255051E-1	5.601475E-1	6.064886E-1	6.119960E-1	5.712246E-1	5.559460E-1	5.992711E-1	5.904462E-1	6.214629E-1	5.643969E-1	5.891264E-1	5.239936E-1
5.372640E+2	5.956395E-1	6.129928E-1	6.721246E-1	6.963401E-1	5.949769E-1	6.503260E-1	6.687651E-1	6.709624E-1	5.572923E-1	6.921995E-1	6.838273E-1	6.618727E-1	6.322289E-1	6.639153E-1	6.589565E-1	6.027512E-1	6.826041E-1	7.046073E-1	6.813969E-1	6.102711E-1	6.427931E-1	6.786213E-1	6.624464E-1	6.149794E-1	6.662840E-1	7.314244E-1	6.844135E-1	6.539011E-1	7.039037E-1	7.063782E-1	6.683525E-1	5.817427E-1	7.513854E-1	7.095788E-1	6.850817E-1	5.905397E-1	7.264723E-1	6.390363E-1	6.964191E-1	6.419012E-1	6.201025E-1	5.952469E-1	6.429179E-1	6.579052E-1	7.392499E-1	6.175257E-1	6.657115E-1	5.620471E-1	7.077644E-1	6.981383E-1	6.650288E-1	5.829822E-1	6.201315E-1	6.988521E-1	6.838247E-1	6.558587E-1	6.716490E-1	6.996317E-1	6.389686E-1	6.915188E-1	6.641798E-1	6.517284E-1	6.467978E-1	6.297862E-1	7.203103E-1	6.946617E-1	6.625518E-1	6.751756E-1	6.545034E-1	6.583222E-1	6.503260E-1	6.713816E-1	6.877586E-1	6.731047E-1	6.605337E-1	6.764144E-1	6.560458E-1	6.595302E-1	5.931165E-1	5.441650E-1	7.318416E-1	7.480981E-1	6.303353E-1	5.971374E-1	6.864794E-1	6.475345E-1	6.533350E-1	7.275145E-1	7.146566E-1	5.598897E-1	6.692826E-1	7.170529E-1	6.811039E-1	6.545426E-1	6.054086E-1	5.758241E-1	7.224473E-1	7.056015E-1	6.184441E-1	6.001675E-1	6.614540E-1	6.613362E-1	6.762422E-1	6.823634E-1	5.745712E-1	6.342106E-1	5.495603E-1	6.502050E-1	6.275076E-1	6.604136E-1	5.591577E-1	6.048643E-1	7.020493E-1	6.932046E-1	6.521461E-1	6.479049E-1	7.454768E-1	6.573250E-1	6.431209E-1	6.499477E-1	6.930859E-1	6.389958E-1	6.893366E-1	6.300787E-1	6.807684E-1	7.073993E-1	5.583193E-1	5.773768E-1	6.721699E-1	6.716942E-1	5.138984E-1	5.466833E-1	6.728065E-1	6.662955E-1	6.490203E-1	6.579547E-1	6.873566E-1	6.790270E-1	6.914921E-1	6.227054E-1	6.959249E-1	6.922036E-1	6.328112E-1	5.930798E-1	5.505652E-1	5.929050E-1	5.687236E-1	6.382471E-1	6.894602E-1	6.859707E-1	6.590796E-1	6.640662E-1	6.899076E-1	6.910244E-1	6.499600E-1	6.637862E-1	6.858305E-1	6.750815E-1	5.866160E-1	6.172959E-1	7.465899E-1	6.722428E-1	6.907418E-1	6.654950E-1	6.662591E-1	6.390941E-1	7.203573E-1	7.204142E-1	6.937122E-1	5.941725E-1
5.375060E+2	6.497283E-1	7.706714E-1	7.911742E-1	8.278953E-1	6.722000E-1	7.345780E-1	7.660180E-1	7.993411E-1	6.477081E-1	7.494389E-1	7.374453E-1	7.742201E-1	7.273083E-1	7.461335E-1	7.312414E-1	6.598428E-1	7.755500E-1	8.405114E-1	7.829819E-1	7.150683E-1	7.162123E-1	8.062965E-1	7.674912E-1	7.259460E-1	7.433083E-1	8.257489E-1	7.324138E-1	7.558970E-1	7.706848E-1	8.419291E-1	7.703171E-1	6.165117E-1	8.055774E-1	8.198334E-1	8.060282E-1	6.851048E-1	7.795183E-1	7.632636E-1	7.696904E-1	7.418189E-1	7.215011E-1	6.736809E-1	7.454746E-1	7.336074E-1	8.446479E-1	7.117151E-1	7.618020E-1	5.880138E-1	7.669541E-1	8.255530E-1	7.670123E-1	6.938741E-1	7.820379E-1	7.787890E-1	7.638490E-1	7.468865E-1	7.106447E-1	8.241962E-1	7.425695E-1	8.187654E-1	8.076296E-1	7.581744E-1	7.723892E-1	7.112157E-1	8.318185E-1	7.611021E-1	7.879405E-1	7.509800E-1	7.222378E-1	7.384517E-1	8.015083E-1	7.670452E-1	7.321300E-1	7.570272E-1	7.451002E-1	7.389566E-1	7.445826E-1	7.842996E-1	7.752752E-1	6.164476E-1	8.351742E-1	8.138395E-1	8.568616E-1	7.704053E-1	7.677306E-1	7.258246E-1	7.788270E-1	7.847610E-1	7.651767E-1	6.632790E-1	7.517890E-1	7.760629E-1	8.051026E-1	7.345505E-1	7.731428E-1	6.853217E-1	7.780056E-1	7.545893E-1	7.380637E-1	7.312787E-1	7.514403E-1	7.939126E-1	8.123437E-1	8.085933E-1	6.294276E-1	7.227446E-1	6.207586E-1	7.626974E-1	7.473431E-1	7.307617E-1	6.722086E-1	6.584782E-1	8.429768E-1	7.752181E-1	7.464860E-1	7.237480E-1	8.100022E-1	7.520305E-1	7.593996E-1	7.581413E-1	8.075918E-1	7.938355E-1	7.290578E-1	7.693711E-1	7.500678E-1	7.582033E-1	6.555717E-1	6.987067E-1	7.459482E-1	8.118143E-1	5.575239E-1	6.186802E-1	7.706316E-1	7.643801E-1	7.383351E-1	7.662584E-1	7.934077E-1	7.630852E-1	7.933225E-1	7.925078E-1	7.925038E-1	7.701145E-1	7.340093E-1	6.936621E-1	6.669010E-1	6.800641E-1	6.776990E-1	7.421338E-1	7.634364E-1	8.033439E-1	7.462140E-1	7.701810E-1	7.880260E-1	7.792135E-1	7.505675E-1	8.038016E-1	7.917678E-1	7.928022E-1	6.542930E-1	7.051431E-1	8.141825E-1	7.517441E-1	7.781504E-1	6.807260E-1	7.968012E-1	7.181461E-1	7.831777E-1	8.101257E-1	7.846032E-1	8.327759E-1
5.377580E+2	7.093254E-1	8.093360E-1	9.147785E-1	8.908144E-1	8.152894E-1	8.337313E-1	8.901600E-1	8.957464E-1	7.192644E-1	8.908530E-1	8.767360E-1	8.854818E-1	7.988628E-1	7.995035E-1	8.851375E-1	7.710877E-1	8.894840E-1	9.343645E-1	9.004576E-1	8.047443E-1	8.645487E-1	8.869622E-1	8.511379E-1	9.098721E-1	8.740172E-1	9.579266E-1	9.056548E-1	8.393959E-1	8.836237E-1	9.828809E-1	8.785043E-1	7.110036E-1	9.645008E-1	9.473361E-1	8.904631E-1	7.540243E-1	9.533304E-1	8.516870E-1	9.032408E-1	8.380699E-1	7.992776E-1	8.103964E-1	8.841582E-1	8.580574E-1	9.527903E-1	7.879140E-1	8.448555E-1	7.128198E-1	9.538086E-1	9.212614E-1	9.284372E-1	7.621154E-1	8.955755E-1	8.454037E-1	8.805304E-1	8.903380E-1	8.745457E-1	8.842120E-1	9.008807E-1	8.947430E-1	8.822446E-1	7.952197E-1	9.477344E-1	8.134876E-1	9.690600E-1	8.756539E-1	8.750165E-1	8.512571E-1	8.353019E-1	8.547190E-1	8.477886E-1	8.740750E-1	8.804403E-1	8.512959E-1	8.308093E-1	9.260200E-1	8.696662E-1	9.095542E-1	9.135453E-1	7.041868E-1	9.345746E-1	9.485296E-1	9.230684E-1	8.356012E-1	8.939408E-1	8.589712E-1	8.557093E-1	9.013001E-1	9.042614E-1	7.325548E-1	9.121854E-1	9.145559E-1	8.863101E-1	8.214306E-1	9.017557E-1	7.638643E-1	8.956220E-1	9.233901E-1	9.153462E-1	8.390181E-1	9.001370E-1	8.759347E-1	9.304795E-1	9.126950E-1	7.641714E-1	8.655421E-1	7.687174E-1	8.639410E-1	8.407831E-1	8.628444E-1	8.578560E-1	7.296384E-1	9.173184E-1	8.879155E-1	8.959095E-1	7.789625E-1	9.227866E-1	8.851435E-1	9.105111E-1	8.248424E-1	8.801752E-1	8.401022E-1	8.935365E-1	8.909484E-1	8.567988E-1	8.658475E-1	8.231157E-1	8.030402E-1	8.384735E-1	9.335581E-1	7.104650E-1	7.134413E-1	8.668952E-1	8.883345E-1	8.731188E-1	8.603245E-1	9.130856E-1	9.002026E-1	9.360203E-1	8.315167E-1	8.777488E-1	8.904757E-1	8.401843E-1	7.809249E-1	7.626753E-1	8.055297E-1	8.692304E-1	8.400503E-1	8.924907E-1	9.041077E-1	9.117150E-1	8.632138E-1	9.466723E-1	8.867920E-1	8.413596E-1	8.904209E-1	9.175684E-1	8.640409E-1	7.568184E-1	8.624190E-1	9.536681E-1	8.821759E-1	8.691261E-1	8.265963E-1	8.420328E-1	8.453404E-1	9.249891E-1	8.577108E-1	8.717584E-1	8.468118E-1
5.380160E+2	9.316886E-1	9.735388E-1	1.017055E+0	1.078500E+0	1.040987E+0	1.085694E+0	9.641207E-1	1.002680E+0	1.038293E+0	1.113112E+0	9.693150E-1	1.023627E+0	9.983095E-1	9.333598E-1	9.291065E-1	1.016441E+0	1.026565E+0	1.083523E+0	9.775834E-1	1.026764E+0	1.083034E+0	1.112834E+0	9.512872E-1	9.551034E-1	1.096553E+0	1.187541E+0	1.004037E+0	9.621258E-1	1.013012E+0	1.077020E+0	1.022993E+0	9.111605E-1	1.073718E+0	1.092393E+0	9.978987E-1	9.737671E-1	1.153233E+0	1.126090E+0	1.002157E+0	1.003904E+0	9.756298E-1	1.146937E+0	9.459159E-1	9.903364E-1	1.061629E+0	9.589288E-1	9.368494E-1	9.774885E-1	1.075003E+0	1.047942E+0	9.672878E-1	9.723125E-1	1.133445E+0	1.144912E+0	1.011659E+0	9.752494E-1	1.093192E+0	1.084014E+0	9.723828E-1	9.940902E-1	1.031816E+0	9.880264E-1	9.824894E-1	1.030496E+0	1.069591E+0	1.046556E+0	9.795175E-1	1.079913E+0	1.116060E+0	1.153721E+0	1.002006E+0	1.012219E+0	1.036328E+0	1.059196E+0	9.565263E-1	1.028247E+0	9.733703E-1	1.025698E+0	9.665412E-1	9.501370E-1	1.044571E+0	1.037868E+0	1.029338E+0	1.042749E+0	1.098025E+0	1.147003E+0	9.449339E-1	1.054965E+0	1.106050E+0	1.094467E+0	1.021675E+0	1.015766E+0	9.103725E-1	1.007608E+0	9.613835E-1	9.620531E-1	1.002147E+0	1.000246E+0	1.025099E+0	9.878012E-1	1.142560E+0	1.091832E+0	1.006116E+0	1.029479E+0	8.567083E-1	1.016260E+0	1.067341E+0	9.695146E-1	9.296915E-1	9.646026E-1	1.017808E+0	1.033005E+0	1.065637E+0	9.858195E-1	1.076538E+0	1.035252E+0	1.179541E+0	9.848822E-1	9.401445E-1	9.723482E-1	1.082709E+0	9.629257E-1	9.975477E-1	9.613276E-1	9.757032E-1	9.511914E-1	9.766578E-1	9.664967E-1	1.010704E+0	9.868498E-1	8.178249E-1	8.644145E-1	1.144136E+0	9.808501E-1	9.948665E-1	9.643993E-1	1.080486E+0	9.889015E-1	1.101831E+0	9.512107E-1	1.002924E+0	1.019402E+0	1.058645E+0	1.004440E+0	8.713000E-1	8.564647E-1	1.087080E+0	1.044291E+0	1.099302E+0	9.854853E-1	9.691009E-1	1.041485E+0	1.046956E+0	9.222348E-1	9.704518E-1	1.046712E+0	1.017978E+0	9.753865E-1	9.890403E-1	1.047183E+0	1.068555E+0	1.003902E+0	1.045379E+0	1.010457E+0	1.212140E+0	9.613518E-1	1.023583E+0	9.776759E-1	1.069537E+0	9.272152E-1
5.382740E+2	1.097459E+0	1.136172E+0	1.254364E+0	1.230193E+0	1.257051E+0	1.379362E+0	1.168764E+0	1.221780E+0	1.300037E+0	1.302188E+0	1.132589E+0	1.245319E+0	1.239462E+0	1.166359E+0	1.192931E+0	1.202635E+0	1.271462E+0	1.277475E+0	1.249480E+0	1.242701E+0	1.314555E+0	1.362405E+0	1.189616E+0	1.165006E+0	1.290069E+0	1.422100E+0	1.230069E+0	1.134814E+0	1.245519E+0	1.256683E+0	1.162855E+0	1.162190E+0	1.283566E+0	1.304589E+0	1.274412E+0	1.186778E+0	1.409303E+0	1.434306E+0	1.191646E+0	1.195572E+0	1.169151E+0	1.394841E+0	1.180172E+0	1.159721E+0	1.260750E+0	1.203302E+0	1.181896E+0	1.196130E+0	1.297922E+0	1.292349E+0	1.183687E+0	1.166231E+0	1.414896E+0	1.371143E+0	1.176364E+0	1.203931E+0	1.318115E+0	1.311126E+0	1.194223E+0	1.214714E+0	1.294206E+0	1.165201E+0	1.159792E+0	1.275890E+0	1.288267E+0	1.259975E+0	1.198940E+0	1.324586E+0	1.364672E+0	1.357495E+0	1.187692E+0	1.202268E+0	1.336312E+0	1.256540E+0	1.165648E+0	1.266340E+0	1.163071E+0	1.247936E+0	1.184896E+0	1.136974E+0	1.357449E+0	1.297545E+0	1.251915E+0	1.236760E+0	1.363571E+0	1.405935E+0	1.152327E+0	1.247338E+0	1.322765E+0	1.357084E+0	1.203554E+0	1.266208E+0	1.189744E+0	1.247485E+0	1.231357E+0	1.137635E+0	1.239017E+0	1.311161E+0	1.303036E+0	1.245464E+0	1.330316E+0	1.356719E+0	1.211937E+0	1.260707E+0	1.099168E+0	1.286508E+0	1.361108E+0	1.239665E+0	1.143803E+0	1.163859E+0	1.243002E+0	1.272603E+0	1.380180E+0	1.269526E+0	1.222616E+0	1.260113E+0	1.399407E+0	1.341306E+0	1.179440E+0	1.207720E+0	1.309417E+0	1.312023E+0	1.243754E+0	1.186030E+0	1.124384E+0	1.220972E+0	1.120168E+0	1.226515E+0	1.223089E+0	1.255719E+0	1.000802E+0	1.091955E+0	1.351857E+0	1.390074E+0	1.217928E+0	1.184725E+0	1.278636E+0	1.299035E+0	1.270322E+0	1.160796E+0	1.243860E+0	1.205116E+0	1.308571E+0	1.216322E+0	1.083545E+0	1.048687E+0	1.258898E+0	1.250224E+0	1.332031E+0	1.285020E+0	1.152841E+0	1.221776E+0	1.329588E+0	1.202022E+0	1.121710E+0	1.280208E+0	1.226551E+0	1.183351E+0	1.177020E+0	1.222311E+0	1.300848E+0	1.229374E+0	1.279409E+0	1.236087E+0	1.381950E+0	1.217294E+0	1.239089E+0	1.179109E+0	1.291346E+0	1.197702E+0
5.385060E+2	1.323327E+0	1.359096E+0	1.457335E+0	1.490128E+0	1.502916E+0	1.628108E+0	1.372427E+0	1.405386E+0	1.489746E+0	1.544612E+0	1.382030E+0	1.388061E+0	1.377182E+0	1.402435E+0	1.336568E+0	1.447373E+0	1.456755E+0	1.509061E+0	1.408951E+0	1.446039E+0	1.462392E+0	1.596388E+0	1.373929E+0	1.386067E+0	1.545650E+0	1.685835E+0	1.402759E+0	1.335635E+0	1.509208E+0	1.528865E+0	1.416570E+0	1.336854E+0	1.556964E+0	1.589775E+0	1.435296E+0	1.410634E+0	1.626568E+0	1.619831E+0	1.405744E+0	1.383491E+0	1.383469E+0	1.624152E+0	1.375378E+0	1.354713E+0	1.528637E+0	1.415494E+0	1.364900E+0	1.370356E+0	1.552671E+0	1.494922E+0	1.398144E+0	1.368288E+0	1.598189E+0	1.616080E+0	1.401467E+0	1.376932E+0	1.566709E+0	1.531945E+0	1.332747E+0	1.469824E+0	1.463929E+0	1.360746E+0	1.375712E+0	1.444566E+0	1.551107E+0	1.474187E+0	1.422435E+0	1.505441E+0	1.548076E+0	1.612547E+0	1.341958E+0	1.398331E+0	1.512580E+0	1.476118E+0	1.363352E+0	1.464107E+0	1.437434E+0	1.418826E+0	1.365167E+0	1.321999E+0	1.483806E+0	1.521495E+0	1.480629E+0	1.496371E+0	1.553156E+0	1.563582E+0	1.340317E+0	1.467638E+0	1.485551E+0	1.536571E+0	1.399147E+0	1.433602E+0	1.421208E+0	1.480146E+0	1.443592E+0	1.351086E+0	1.443518E+0	1.430974E+0	1.480318E+0	1.414768E+0	1.562966E+0	1.566158E+0	1.458007E+0	1.433206E+0	1.279714E+0	1.461294E+0	1.461788E+0	1.420212E+0	1.389280E+0	1.334704E+0	1.458022E+0	1.445143E+0	1.490079E+0	1.426299E+0	1.416362E+0	1.484608E+0	1.617926E+0	1.635949E+0	1.340794E+0	1.334297E+0	1.425173E+0	1.578519E+0	1.454105E+0	1.431014E+0	1.357069E+0	1.386963E+0	1.354152E+0	1.403079E+0	1.460146E+0	1.494612E+0	1.143213E+0	1.184069E+0	1.599024E+0	1.576548E+0	1.469090E+0	1.295572E+0	1.491330E+0	1.492188E+0	1.470634E+0	1.362725E+0	1.380846E+0	1.402885E+0	1.539724E+0	1.390386E+0	1.193388E+0	1.204131E+0	1.429516E+0	1.405457E+0	1.546940E+0	1.525856E+0	1.392872E+0	1.400086E+0	1.512446E+0	1.482228E+0	1.380589E+0	1.467689E+0	1.462699E+0	1.402624E+0	1.360859E+0	1.449486E+0	1.478432E+0	1.506386E+0	1.484552E+0	1.426480E+0	1.664219E+0	1.613065E+0	1.387121E+0	1.365551E+0	1.499273E+0	1.490443E+0
5.387650E+2	1.492606E+0	1.644852E+0	1.686327E+0	1.696676E+0	1.775466E+0	1.836158E+0	1.538900E+0	1.598197E+0	1.731042E+0	1.794333E+0	1.616900E+0	1.655632E+0	1.638404E+0	1.600527E+0	1.575809E+0	1.593461E+0	1.770370E+0	1.703467E+0	1.652415E+0	1.668666E+0	1.802018E+0	1.881117E+0	1.607849E+0	1.558201E+0	1.724791E+0	1.894340E+0	1.652692E+0	1.567638E+0	1.642769E+0	1.738402E+0	1.594648E+0	1.508248E+0	1.801741E+0	1.835542E+0	1.658365E+0	1.638763E+0	1.936946E+0	1.852012E+0	1.677003E+0	1.598451E+0	1.545937E+0	1.782655E+0	1.606130E+0	1.569777E+0	1.737236E+0	1.591702E+0	1.591849E+0	1.579344E+0	1.824827E+0	1.715695E+0	1.585793E+0	1.547420E+0	1.867523E+0	1.855379E+0	1.569778E+0	1.593299E+0	1.776309E+0	1.789562E+0	1.567885E+0	1.634751E+0	1.738741E+0	1.625222E+0	1.632208E+0	1.734903E+0	1.817626E+0	1.751403E+0	1.636062E+0	1.757330E+0	1.854963E+0	1.882266E+0	1.582621E+0	1.575922E+0	1.804949E+0	1.754902E+0	1.578195E+0	1.624124E+0	1.568180E+0	1.649433E+0	1.617640E+0	1.583399E+0	1.806158E+0	1.737425E+0	1.702782E+0	1.689017E+0	1.812075E+0	1.852245E+0	1.527314E+0	1.639890E+0	1.769336E+0	1.843586E+0	1.625316E+0	1.678679E+0	1.619121E+0	1.624945E+0	1.616216E+0	1.578398E+0	1.674021E+0	1.688901E+0	1.701157E+0	1.636517E+0	1.809880E+0	1.852979E+0	1.639839E+0	1.697738E+0	1.437362E+0	1.677203E+0	1.768275E+0	1.646326E+0	1.579856E+0	1.605092E+0	1.608753E+0	1.631333E+0	1.716982E+0	1.675130E+0	1.595544E+0	1.617488E+0	1.879822E+0	1.835355E+0	1.515468E+0	1.564864E+0	1.751172E+0	1.724725E+0	1.654389E+0	1.554423E+0	1.549287E+0	1.605772E+0	1.502920E+0	1.641486E+0	1.712929E+0	1.715125E+0	1.356328E+0	1.418589E+0	1.845145E+0	1.833077E+0	1.630397E+0	1.574722E+0	1.705209E+0	1.789678E+0	1.743970E+0	1.593909E+0	1.582377E+0	1.625132E+0	1.733823E+0	1.624614E+0	1.436341E+0	1.462275E+0	1.685442E+0	1.640097E+0	1.782375E+0	1.778873E+0	1.630162E+0	1.642845E+0	1.764751E+0	1.686126E+0	1.560332E+0	1.617194E+0	1.690577E+0	1.550658E+0	1.558333E+0	1.660131E+0	1.758634E+0	1.653589E+0	1.715263E+0	1.694785E+0	1.854303E+0	1.804108E+0	1.608549E+0	1.564474E+0	1.732102E+0	1.711002E+0
5.390450E+2	1.690930E+0	1.806759E+0	1.917271E+0	1.892427E+0	1.974768E+0	2.165142E+0	1.839245E+0	1.853501E+0	1.925743E+0	2.010941E+0	1.823215E+0	1.934600E+0	1.805036E+0	1.836607E+0	1.801055E+0	1.843654E+0	1.982652E+0	1.872285E+0	1.817563E+0	1.822471E+0	2.063730E+0	2.106556E+0	1.805781E+0	1.779697E+0	1.945946E+0	2.195930E+0	1.798346E+0	1.775329E+0	1.882395E+0	1.998165E+0	1.766027E+0	1.759817E+0	1.936305E+0	2.006778E+0	1.928211E+0	1.836443E+0	2.119223E+0	2.062492E+0	1.835496E+0	1.753370E+0	1.846676E+0	2.037562E+0	1.770451E+0	1.772226E+0	1.950230E+0	1.793312E+0	1.774854E+0	1.729698E+0	2.073775E+0	2.002231E+0	1.833467E+0	1.791063E+0	2.044195E+0	2.074181E+0	1.782486E+0	1.794418E+0	1.987124E+0	2.020571E+0	1.767520E+0	1.870714E+0	1.937890E+0	1.826857E+0	1.806105E+0	1.956411E+0	1.998981E+0	1.892875E+0	1.816015E+0	1.905355E+0	2.065980E+0	2.123180E+0	1.756427E+0	1.840180E+0	1.915574E+0	1.939992E+0	1.770757E+0	1.820770E+0	1.730326E+0	1.803819E+0	1.812070E+0	1.691141E+0	1.995411E+0	1.941066E+0	1.938060E+0	1.918085E+0	2.033075E+0	2.038646E+0	1.714311E+0	1.912325E+0	1.998235E+0	2.047216E+0	1.836485E+0	1.931574E+0	1.860796E+0	1.914052E+0	1.850947E+0	1.810326E+0	1.911621E+0	1.840582E+0	1.897453E+0	1.883920E+0	2.015089E+0	2.079443E+0	1.910955E+0	1.891356E+0	1.575829E+0	1.914815E+0	1.929026E+0	1.822938E+0	1.810024E+0	1.828579E+0	1.840399E+0	1.831164E+0	1.979443E+0	1.888809E+0	1.894390E+0	1.838949E+0	2.148228E+0	2.048966E+0	1.718317E+0	1.709296E+0	2.027115E+0	1.947419E+0	1.821668E+0	1.801242E+0	1.751113E+0	1.785852E+0	1.702723E+0	1.780283E+0	1.862906E+0	1.880516E+0	1.454108E+0	1.644637E+0	2.061088E+0	2.065356E+0	1.865327E+0	1.721158E+0	1.941012E+0	1.963158E+0	1.934234E+0	1.710932E+0	1.779974E+0	1.848375E+0	1.930690E+0	1.890078E+0	1.636546E+0	1.609949E+0	1.880827E+0	1.903995E+0	2.013483E+0	2.032997E+0	1.804980E+0	1.811466E+0	1.980102E+0	1.885020E+0	1.779952E+0	1.854507E+0	1.850031E+0	1.777003E+0	1.732577E+0	1.836303E+0	1.877842E+0	1.906997E+0	1.936458E+0	1.809609E+0	2.071875E+0	2.085352E+0	1.788921E+0	1.818004E+0	1.964932E+0	1.957627E+0
5.392720E+2	1.822144E+0	2.000681E+0	2.126750E+0	2.065295E+0	2.099122E+0	2.235064E+0	1.955377E+0	2.017246E+0	2.098256E+0	2.234288E+0	1.989898E+0	2.116421E+0	1.905511E+0	1.952962E+0	1.962409E+0	1.990580E+0	2.084588E+0	2.130071E+0	1.978738E+0	2.069603E+0	2.142645E+0	2.221413E+0	1.950705E+0	1.903772E+0	2.157766E+0	2.302045E+0	1.984276E+0	1.915372E+0	1.986003E+0	2.130474E+0	1.918732E+0	1.869854E+0	2.118371E+0	2.112106E+0	2.055433E+0	1.958788E+0	2.174526E+0	2.228493E+0	1.929556E+0	1.912413E+0	1.934821E+0	2.186265E+0	1.947596E+0	1.937393E+0	2.113270E+0	1.897555E+0	1.939030E+0	1.828957E+0	2.181709E+0	2.090310E+0	1.964585E+0	1.931280E+0	2.200502E+0	2.250967E+0	1.904852E+0	2.016983E+0	2.150417E+0	2.157027E+0	1.863551E+0	2.060348E+0	2.034047E+0	1.987694E+0	1.913343E+0	2.108118E+0	2.086594E+0	2.079596E+0	1.898450E+0	2.130381E+0	2.265537E+0	2.295484E+0	1.949263E+0	1.894644E+0	2.119193E+0	2.096911E+0	1.990174E+0	1.994874E+0	1.876000E+0	2.009663E+0	1.854069E+0	1.916626E+0	2.118402E+0	2.085374E+0	2.056800E+0	2.116611E+0	2.211287E+0	2.230377E+0	1.853197E+0	2.083043E+0	2.164760E+0	2.145881E+0	2.014771E+0	2.123061E+0	1.977502E+0	1.969025E+0	2.048021E+0	1.916594E+0	2.020962E+0	2.050698E+0	2.077804E+0	1.993366E+0	2.189577E+0	2.198094E+0	2.018746E+0	2.062847E+0	1.754780E+0	2.079889E+0	2.075871E+0	1.947241E+0	1.873372E+0	1.920463E+0	1.979493E+0	1.966176E+0	1.989143E+0	2.069013E+0	2.026718E+0	1.974861E+0	2.192147E+0	2.232063E+0	1.918607E+0	1.839549E+0	2.144749E+0	2.111512E+0	1.907260E+0	1.951532E+0	1.900840E+0	1.858791E+0	1.836564E+0	1.906337E+0	1.927010E+0	2.007999E+0	1.616574E+0	1.716108E+0	2.199501E+0	2.159667E+0	1.991991E+0	1.865052E+0	2.089126E+0	2.047216E+0	2.063531E+0	1.888769E+0	1.918431E+0	1.938770E+0	2.038527E+0	1.942898E+0	1.705804E+0	1.750403E+0	2.031629E+0	2.040121E+0	2.138758E+0	2.073416E+0	1.968289E+0	1.895290E+0	2.014506E+0	2.043260E+0	1.860928E+0	1.998677E+0	1.913485E+0	1.885631E+0	1.878536E+0	1.981773E+0	2.080005E+0	1.998926E+0	1.982834E+0	1.854132E+0	2.213865E+0	2.178089E+0	1.922646E+0	1.870272E+0	2.014732E+0	2.041841E+0
5.395160E+2	2.043005E+0	2.061098E+0	2.405836E+0	2.179686E+0	2.282525E+0	2.395542E+0	2.451371E+0	2.137389E+0	2.278533E+0	2.372896E+0	2.334918E+0	2.224969E+0	2.115761E+0	2.097203E+0	2.076670E+0	2.153045E+0	2.323255E+0	2.250741E+0	2.189283E+0	2.168666E+0	2.307962E+0	2.353364E+0	2.284803E+0	2.011244E+0	2.225453E+0	2.353552E+0	2.153656E+0	1.999400E+0	2.136751E+0	2.240107E+0	2.058993E+0	2.053108E+0	2.297387E+0	2.366495E+0	2.163257E+0	2.116396E+0	2.461764E+0	2.404253E+0	2.142614E+0	2.000875E+0	2.111117E+0	2.399780E+0	2.022183E+0	2.079623E+0	2.153338E+0	2.082232E+0	2.047191E+0	1.967999E+0	2.246118E+0	2.257061E+0	2.109697E+0	2.073094E+0	2.379206E+0	2.309890E+0	2.029273E+0	2.027942E+0	2.175392E+0	2.303108E+0	2.036999E+0	2.155473E+0	2.099735E+0	2.032715E+0	2.098832E+0	2.209422E+0	2.278973E+0	2.146606E+0	1.996555E+0	2.271243E+0	2.363489E+0	2.390280E+0	2.154440E+0	1.980360E+0	2.247448E+0	2.254986E+0	1.979888E+0	2.076569E+0	2.013439E+0	2.101419E+0	2.027732E+0	2.000727E+0	2.237458E+0	2.267635E+0	2.130112E+0	2.228203E+0	2.385706E+0	2.380036E+0	1.976211E+0	2.164312E+0	2.305095E+0	2.302801E+0	2.081120E+0	2.181466E+0	2.133109E+0	2.093702E+0	2.067094E+0	2.063047E+0	2.078294E+0	2.132740E+0	2.115223E+0	2.097118E+0	2.289439E+0	2.274438E+0	2.084620E+0	2.123195E+0	1.905501E+0	2.167856E+0	2.219377E+0	2.025419E+0	2.024882E+0	1.930035E+0	2.134662E+0	2.086561E+0	2.149460E+0	2.104720E+0	2.064709E+0	2.040996E+0	2.404162E+0	2.377803E+0	1.928339E+0	1.910977E+0	2.206069E+0	2.230575E+0	2.051042E+0	2.041339E+0	2.034380E+0	2.010700E+0	1.981961E+0	1.967235E+0	2.078801E+0	2.102752E+0	1.685778E+0	1.823041E+0	2.388384E+0	2.276074E+0	2.034752E+0	1.941323E+0	2.243759E+0	2.192680E+0	2.180100E+0	1.987436E+0	2.081533E+0	2.018678E+0	2.113181E+0	2.053123E+0	1.768033E+0	1.791485E+0	2.224815E+0	2.124906E+0	2.218672E+0	2.274386E+0	2.006650E+0	1.998499E+0	2.245146E+0	2.152088E+0	2.023494E+0	2.059190E+0	2.062462E+0	1.952825E+0	1.954294E+0	2.135738E+0	2.187538E+0	2.097057E+0	2.200466E+0	2.073815E+0	2.367311E+0	2.329609E+0	2.119193E+0	1.971683E+0	2.093173E+0	2.310521E+0
5.397810E+2	1.964376E+0	2.027262E+0	2.429252E+0	2.126302E+0	2.195652E+0	2.383512E+0	2.421050E+0	2.073930E+0	2.143739E+0	2.315094E+0	2.207869E+0	2.116420E+0	2.024603E+0	1.991426E+0	2.080399E+0	2.055233E+0	2.271682E+0	2.256229E+0	2.221064E+0	2.102453E+0	2.307462E+0	2.343744E+0	2.397143E+0	2.008621E+0	2.181106E+0	2.344239E+0	2.225931E+0	1.939156E+0	2.084212E+0	2.142897E+0	2.070479E+0	1.939801E+0	2.261463E+0	2.258083E+0	2.251686E+0	2.080068E+0	2.312221E+0	2.366278E+0	2.374371E+0	1.956870E+0	2.005108E+0	2.248904E+0	2.093855E+0	1.975242E+0	2.151694E+0	1.956293E+0	2.035602E+0	1.921515E+0	2.327362E+0	2.252951E+0	2.109697E+0	1.997388E+0	2.338477E+0	2.436970E+0	2.324074E+0	2.027470E+0	2.206474E+0	2.267999E+0	2.301820E+0	2.129534E+0	2.133886E+0	1.984884E+0	2.087721E+0	2.210394E+0	2.190747E+0	2.151186E+0	2.045897E+0	2.168577E+0	2.273871E+0	2.314341E+0	2.231573E+0	2.012567E+0	2.153234E+0	2.274529E+0	2.103881E+0	2.034313E+0	1.975346E+0	2.097047E+0	2.085778E+0	1.951176E+0	2.179618E+0	2.252664E+0	2.110964E+0	2.211171E+0	2.339123E+0	2.337430E+0	1.998532E+0	2.130575E+0	2.252704E+0	2.255044E+0	2.022850E+0	2.118241E+0	2.069403E+0	2.003877E+0	2.137023E+0	2.001602E+0	2.100161E+0	2.096144E+0	2.130560E+0	2.052087E+0	2.243347E+0	2.193964E+0	2.084074E+0	2.109113E+0	1.767560E+0	2.186702E+0	2.130383E+0	2.107543E+0	1.906104E+0	1.962097E+0	2.003327E+0	2.089972E+0	2.119075E+0	2.125920E+0	2.042550E+0	2.125940E+0	2.395483E+0	2.266263E+0	1.925775E+0	1.944588E+0	2.184171E+0	2.171357E+0	2.079014E+0	1.999798E+0	2.009089E+0	1.976491E+0	1.929487E+0	2.023886E+0	2.040095E+0	2.188319E+0	1.728399E+0	1.755808E+0	2.296802E+0	2.253979E+0	2.067230E+0	1.970305E+0	2.150148E+0	2.190298E+0	2.164695E+0	2.055131E+0	2.001711E+0	1.996705E+0	2.185069E+0	2.018678E+0	1.830259E+0	1.809805E+0	2.118039E+0	2.074152E+0	2.259169E+0	2.251691E+0	1.989112E+0	1.982992E+0	2.131739E+0	2.117062E+0	1.995278E+0	2.014100E+0	2.002867E+0	1.956868E+0	1.997222E+0	2.147077E+0	2.168488E+0	2.156688E+0	2.123164E+0	1.968953E+0	2.344408E+0	2.300216E+0	2.060106E+0	1.930338E+0	2.129280E+0	2.093973E+0
5.400190E+2	1.855702E+0	1.900400E+0	2.197006E+0	2.029702E+0	2.061080E+0	2.170873E+0	2.266592E+0	1.914057E+0	2.054434E+0	2.102977E+0	2.114620E+0	2.021982E+0	1.941777E+0	1.918826E+0	1.944225E+0	1.954481E+0	2.088787E+0	2.041707E+0	2.070675E+0	2.058653E+0	2.209572E+0	2.177605E+0	2.335382E+0	1.853093E+0	2.053314E+0	2.227576E+0	2.083036E+0	1.819718E+0	1.934445E+0	2.069988E+0	1.937399E+0	1.855125E+0	2.085490E+0	2.145984E+0	2.082248E+0	1.932612E+0	2.214027E+0	2.194860E+0	2.184179E+0	1.894080E+0	1.887004E+0	2.188440E+0	2.022181E+0	1.880044E+0	2.094052E+0	1.970580E+0	1.916818E+0	1.849478E+0	2.211304E+0	2.097353E+0	2.046754E+0	1.900891E+0	2.175550E+0	2.214584E+0	2.280188E+0	1.919758E+0	2.088264E+0	2.202887E+0	2.049799E+0	2.017727E+0	1.962587E+0	1.897195E+0	1.980485E+0	2.133811E+0	2.098236E+0	2.088759E+0	2.065058E+0	2.032489E+0	2.194676E+0	2.189694E+0	2.348821E+0	1.881858E+0	2.076647E+0	2.097487E+0	2.052455E+0	1.937964E+0	1.947545E+0	1.977133E+0	1.959775E+0	1.837068E+0	2.052134E+0	2.130806E+0	2.062270E+0	2.010883E+0	2.155495E+0	2.189370E+0	2.156759E+0	2.032952E+0	2.127339E+0	2.105994E+0	2.186130E+0	2.014074E+0	1.947841E+0	1.910128E+0	1.981514E+0	1.905963E+0	1.899799E+0	1.938554E+0	2.099274E+0	1.928953E+0	2.110012E+0	2.211506E+0	2.047054E+0	1.997467E+0	1.749455E+0	2.055330E+0	2.036379E+0	1.948931E+0	1.856479E+0	1.845811E+0	1.955670E+0	1.958378E+0	2.062191E+0	2.044465E+0	1.953271E+0	1.942704E+0	2.209501E+0	2.165769E+0	1.866869E+0	1.828518E+0	2.092186E+0	2.022065E+0	1.850194E+0	1.886771E+0	1.800683E+0	1.910598E+0	1.853415E+0	1.902557E+0	1.997764E+0	2.045904E+0	1.559415E+0	1.707638E+0	2.185452E+0	2.181764E+0	1.943816E+0	1.842679E+0	2.067204E+0	2.024560E+0	2.013285E+0	1.846316E+0	1.850433E+0	1.863359E+0	2.040736E+0	1.910287E+0	1.681455E+0	1.741521E+0	1.987601E+0	1.963100E+0	2.183032E+0	2.103863E+0	1.878961E+0	1.877847E+0	2.028521E+0	1.945063E+0	1.870746E+0	1.920364E+0	1.933348E+0	1.788122E+0	1.775505E+0	1.968547E+0	2.060342E+0	2.054201E+0	2.063106E+0	1.880493E+0	2.182376E+0	2.117787E+0	1.917672E+0	1.881973E+0	1.973647E+0	2.013768E+0
5.402740E+2	1.694419E+0	1.764630E+0	2.066021E+0	1.886812E+0	1.950780E+0	2.038398E+0	2.148295E+0	1.855731E+0	1.933278E+0	1.984867E+0	1.969490E+0	1.968838E+0	1.873765E+0	1.798573E+0	1.838479E+0	1.756492E+0	1.870922E+0	1.893948E+0	1.941708E+0	1.843066E+0	1.976211E+0	2.058932E+0	2.073134E+0	1.740378E+0	1.925912E+0	2.135778E+0	1.941894E+0	1.769661E+0	1.810770E+0	1.868742E+0	1.812883E+0	1.697156E+0	1.915626E+0	1.965340E+0	1.942161E+0	1.786890E+0	2.071198E+0	2.055948E+0	2.106857E+0	1.782552E+0	1.803848E+0	2.044026E+0	1.897931E+0	1.724996E+0	1.906030E+0	1.744372E+0	1.706111E+0	1.688989E+0	1.972338E+0	1.935011E+0	1.936578E+0	1.772873E+0	1.972515E+0	2.019598E+0	2.057248E+0	1.759697E+0	1.975295E+0	1.976820E+0	1.874768E+0	1.879567E+0	1.895108E+0	1.736509E+0	1.821775E+0	1.883986E+0	1.964065E+0	1.889735E+0	1.943877E+0	1.948898E+0	1.977379E+0	1.998193E+0	2.129160E+0	1.784021E+0	1.942257E+0	1.945716E+0	1.980687E+0	1.827351E+0	1.737428E+0	1.790740E+0	1.730352E+0	1.668832E+0	1.965509E+0	1.883928E+0	1.921063E+0	1.825001E+0	2.020997E+0	2.035001E+0	1.978210E+0	1.880690E+0	1.981739E+0	1.962572E+0	2.025905E+0	1.877103E+0	1.780968E+0	1.790581E+0	1.840879E+0	1.792509E+0	1.862622E+0	1.810317E+0	1.910068E+0	1.780626E+0	1.994385E+0	2.077294E+0	2.038350E+0	1.797949E+0	1.625042E+0	1.965722E+0	2.057542E+0	1.826698E+0	1.749243E+0	1.695866E+0	1.939537E+0	1.774308E+0	1.901633E+0	1.913775E+0	1.967423E+0	1.789055E+0	2.063223E+0	1.984093E+0	2.023366E+0	1.698539E+0	1.977765E+0	1.937549E+0	1.949107E+0	1.759464E+0	1.709559E+0	1.725952E+0	1.778902E+0	1.739724E+0	1.844399E+0	1.833987E+0	1.505548E+0	1.504350E+0	2.070977E+0	1.989004E+0	1.898498E+0	1.714481E+0	1.915929E+0	1.924715E+0	1.943681E+0	1.779965E+0	1.767890E+0	1.760716E+0	1.925012E+0	1.836045E+0	1.617253E+0	1.621800E+0	1.879402E+0	1.815790E+0	1.911785E+0	1.929991E+0	1.777526E+0	1.758738E+0	1.898747E+0	1.819462E+0	1.801823E+0	1.828425E+0	1.743850E+0	1.774641E+0	1.707895E+0	1.841866E+0	1.885061E+0	1.906252E+0	1.874783E+0	1.825219E+0	2.019505E+0	2.010800E+0	1.806429E+0	1.719219E+0	1.832828E+0	2.042275E+0
5.405080E+2	1.618312E+0	1.726408E+0	2.035022E+0	1.840945E+0	1.824867E+0	2.013834E+0	2.018879E+0	1.782771E+0	1.888578E+0	1.932941E+0	1.871589E+0	1.867300E+0	1.678103E+0	1.728423E+0	1.725972E+0	1.764735E+0	1.920285E+0	1.838763E+0	1.785215E+0	1.804746E+0	1.978321E+0	1.971403E+0	2.042613E+0	1.649067E+0	1.822239E+0	1.956394E+0	1.891033E+0	1.604102E+0	1.830837E+0	1.843172E+0	1.765065E+0	1.692322E+0	1.830967E+0	1.956882E+0	1.875155E+0	1.725317E+0	1.963467E+0	2.083647E+0	1.976839E+0	1.693787E+0	1.686513E+0	1.911744E+0	1.805417E+0	1.695376E+0	1.821224E+0	1.682186E+0	1.717394E+0	1.699544E+0	1.994854E+0	1.883035E+0	1.842793E+0	1.680174E+0	1.966295E+0	2.001931E+0	2.011721E+0	1.788698E+0	1.916444E+0	1.965649E+0	1.808845E+0	1.737291E+0	1.794969E+0	1.736822E+0	1.807068E+0	1.846866E+0	1.869706E+0	1.811543E+0	1.811952E+0	1.864768E+0	1.924261E+0	1.927307E+0	2.003769E+0	1.756833E+0	1.911925E+0	1.844574E+0	1.839323E+0	1.753155E+0	1.696863E+0	1.790708E+0	1.762517E+0	1.705231E+0	1.844346E+0	1.828287E+0	1.818780E+0	1.820587E+0	1.876536E+0	1.974740E+0	1.993073E+0	1.800898E+0	1.881602E+0	1.900794E+0	1.980729E+0	1.752138E+0	1.667746E+0	1.767290E+0	1.791283E+0	1.658325E+0	1.758540E+0	1.742607E+0	1.898066E+0	1.758506E+0	1.909192E+0	1.909208E+0	2.023101E+0	1.800833E+0	1.527364E+0	1.809146E+0	2.004676E+0	1.777941E+0	1.746149E+0	1.686927E+0	1.782210E+0	1.793636E+0	1.817832E+0	1.788385E+0	1.832974E+0	1.736411E+0	1.918324E+0	1.966364E+0	1.975464E+0	1.609504E+0	1.918240E+0	1.873393E+0	1.878170E+0	1.644845E+0	1.665123E+0	1.684746E+0	1.702242E+0	1.687755E+0	1.741356E+0	1.833998E+0	1.408977E+0	1.474175E+0	1.980436E+0	1.954334E+0	1.918913E+0	1.611839E+0	1.848584E+0	1.926792E+0	1.962374E+0	1.657586E+0	1.686351E+0	1.725017E+0	1.895850E+0	1.723820E+0	1.535900E+0	1.528896E+0	1.943018E+0	1.699207E+0	1.920065E+0	1.882958E+0	1.985275E+0	1.679181E+0	1.860319E+0	1.808086E+0	1.814309E+0	1.796363E+0	1.772239E+0	1.652718E+0	1.720453E+0	1.776318E+0	1.821924E+0	1.788991E+0	1.837750E+0	1.702401E+0	1.960797E+0	1.939914E+0	1.838059E+0	1.688509E+0	1.886491E+0	1.895470E+0
5.407680E+2	1.541183E+0	1.651496E+0	1.903611E+0	1.703034E+0	1.751615E+0	1.947922E+0	1.987987E+0	1.648097E+0	1.819242E+0	1.912178E+0	1.821468E+0	1.747898E+0	1.669281E+0	1.630818E+0	1.674673E+0	1.705542E+0	1.829139E+0	1.768676E+0	1.776703E+0	1.756258E+0	1.931376E+0	1.916379E+0	1.919580E+0	1.620235E+0	1.811151E+0	1.974392E+0	1.805516E+0	1.643734E+0	1.715934E+0	1.782686E+0	1.657356E+0	1.585149E+0	1.863243E+0	1.860794E+0	1.832367E+0	1.645711E+0	1.948798E+0	1.947490E+0	1.913445E+0	1.624577E+0	1.650791E+0	1.813157E+0	1.713347E+0	1.593864E+0	1.804209E+0	1.691714E+0	1.663796E+0	1.614942E+0	1.833533E+0	1.802008E+0	1.748967E+0	1.559151E+0	1.909270E+0	1.846666E+0	1.919306E+0	1.616653E+0	1.802506E+0	1.787298E+0	1.827468E+0	1.663782E+0	1.711944E+0	1.701651E+0	1.694038E+0	1.791608E+0	1.830488E+0	1.713026E+0	1.799763E+0	1.756728E+0	1.863301E+0	1.903740E+0	1.939493E+0	1.663536E+0	1.791573E+0	1.779616E+0	1.809611E+0	1.679344E+0	1.647447E+0	1.672250E+0	1.688428E+0	1.599310E+0	1.819638E+0	1.778048E+0	1.819871E+0	1.761851E+0	1.873825E+0	1.858635E+0	1.835338E+0	1.790673E+0	1.854158E+0	1.820494E+0	1.842834E+0	1.731665E+0	1.681362E+0	1.719188E+0	1.753630E+0	1.613971E+0	1.658065E+0	1.721360E+0	1.781514E+0	1.681550E+0	1.866939E+0	1.898892E+0	1.905513E+0	1.676109E+0	1.511389E+0	1.802293E+0	1.903437E+0	1.688509E+0	1.674877E+0	1.630937E+0	1.726245E+0	1.633280E+0	1.802318E+0	1.670106E+0	1.832339E+0	1.709107E+0	1.892300E+0	1.851139E+0	1.902724E+0	1.635765E+0	1.802482E+0	1.836385E+0	1.829498E+0	1.674779E+0	1.633253E+0	1.608289E+0	1.637727E+0	1.657539E+0	1.738328E+0	1.683540E+0	1.395942E+0	1.465177E+0	1.858672E+0	1.864336E+0	1.830681E+0	1.596074E+0	1.808890E+0	1.779541E+0	1.874611E+0	1.586450E+0	1.673047E+0	1.607654E+0	1.844425E+0	1.713717E+0	1.442832E+0	1.536670E+0	1.850003E+0	1.692039E+0	1.809368E+0	1.828703E+0	1.939790E+0	1.631214E+0	1.813806E+0	1.734911E+0	1.781181E+0	1.737632E+0	1.719818E+0	1.617856E+0	1.617425E+0	1.729564E+0	1.745115E+0	1.749862E+0	1.812778E+0	1.738723E+0	1.885795E+0	1.930288E+0	1.876620E+0	1.618300E+0	1.758249E+0	1.849352E+0
5.410130E+2	1.518147E+0	1.600748E+0	1.853520E+0	1.688416E+0	1.755593E+0	1.838452E+0	1.895881E+0	1.628716E+0	1.719949E+0	1.829686E+0	1.751528E+0	1.706652E+0	1.653107E+0	1.641879E+0	1.590729E+0	1.614451E+0	1.766776E+0	1.757712E+0	1.713139E+0	1.652502E+0	1.786037E+0	1.809003E+0	1.895261E+0	1.570431E+0	1.639597E+0	1.857108E+0	1.750344E+0	1.544384E+0	1.627547E+0	1.702759E+0	1.621456E+0	1.495976E+0	1.767644E+0	1.790576E+0	1.700011E+0	1.631287E+0	1.815619E+0	1.884019E+0	1.820945E+0	1.575994E+0	1.579353E+0	1.781020E+0	1.681298E+0	1.542248E+0	1.714183E+0	1.634033E+0	1.593779E+0	1.517779E+0	1.802779E+0	1.792616E+0	1.701179E+0	1.578876E+0	1.865996E+0	1.836419E+0	1.882646E+0	1.574711E+0	1.793365E+0	1.712559E+0	1.686037E+0	1.668727E+0	1.694079E+0	1.596148E+0	1.626896E+0	1.709211E+0	1.779639E+0	1.695274E+0	1.762029E+0	1.668391E+0	1.838809E+0	1.854509E+0	1.911724E+0	1.620439E+0	1.767263E+0	1.713516E+0	1.805613E+0	1.594265E+0	1.626859E+0	1.667397E+0	1.606315E+0	1.600219E+0	1.741016E+0	1.772700E+0	1.754213E+0	1.716623E+0	1.850533E+0	1.867687E+0	1.794169E+0	1.733428E+0	1.741891E+0	1.820494E+0	1.792062E+0	1.706980E+0	1.615231E+0	1.656852E+0	1.687615E+0	1.571004E+0	1.619057E+0	1.652304E+0	1.767407E+0	1.614288E+0	1.804390E+0	1.854011E+0	1.870667E+0	1.642919E+0	1.371854E+0	1.708049E+0	1.749361E+0	1.650262E+0	1.542374E+0	1.624235E+0	1.674145E+0	1.662524E+0	1.703407E+0	1.721434E+0	1.803851E+0	1.630836E+0	1.816383E+0	1.775899E+0	1.867890E+0	1.522846E+0	1.782462E+0	1.711153E+0	1.792015E+0	1.597189E+0	1.540686E+0	1.621368E+0	1.602098E+0	1.617413E+0	1.632498E+0	1.688709E+0	1.388921E+0	1.446647E+0	1.806639E+0	1.824455E+0	1.773303E+0	1.534552E+0	1.691583E+0	1.788483E+0	1.881979E+0	1.582434E+0	1.628698E+0	1.563203E+0	1.760369E+0	1.671463E+0	1.440129E+0	1.444515E+0	1.802120E+0	1.669353E+0	1.724596E+0	1.836453E+0	1.904170E+0	1.566768E+0	1.711230E+0	1.637963E+0	1.737008E+0	1.642704E+0	1.609469E+0	1.567333E+0	1.578535E+0	1.679026E+0	1.660315E+0	1.608870E+0	1.689097E+0	1.619801E+0	1.898963E+0	1.784852E+0	1.770882E+0	1.572275E+0	1.784395E+0	1.698969E+0
5.412690E+2	1.359387E+0	1.491401E+0	1.651848E+0	1.513643E+0	1.521087E+0	1.647593E+0	1.709384E+0	1.525045E+0	1.551319E+0	1.673682E+0	1.583097E+0	1.518863E+0	1.465401E+0	1.472634E+0	1.490463E+0	1.493550E+0	1.538307E+0	1.579755E+0	1.589991E+0	1.534151E+0	1.648687E+0	1.657823E+0	1.714355E+0	1.428447E+0	1.538646E+0	1.715001E+0	1.595309E+0	1.440803E+0	1.534738E+0	1.569369E+0	1.483587E+0	1.372855E+0	1.553917E+0	1.618110E+0	1.597889E+0	1.475281E+0	1.666637E+0	1.678962E+0	1.649460E+0	1.405032E+0	1.426678E+0	1.623605E+0	1.522805E+0	1.427547E+0	1.561575E+0	1.447244E+0	1.472580E+0	1.392133E+0	1.661187E+0	1.590629E+0	1.566562E+0	1.403475E+0	1.630772E+0	1.683210E+0	1.668906E+0	1.452229E+0	1.598999E+0	1.599886E+0	1.540530E+0	1.500710E+0	1.516473E+0	1.419830E+0	1.453966E+0	1.577858E+0	1.583579E+0	1.520582E+0	1.587879E+0	1.601541E+0	1.695002E+0	1.674871E+0	1.686495E+0	1.427693E+0	1.573974E+0	1.551992E+0	1.644477E+0	1.488900E+0	1.435890E+0	1.434365E+0	1.522787E+0	1.377463E+0	1.558499E+0	1.593650E+0	1.610307E+0	1.560973E+0	1.612197E+0	1.689805E+0	1.683062E+0	1.516194E+0	1.630874E+0	1.580133E+0	1.696284E+0	1.554636E+0	1.541317E+0	1.481124E+0	1.552156E+0	1.428704E+0	1.567044E+0	1.569675E+0	1.581535E+0	1.503697E+0	1.564612E+0	1.679133E+0	1.648552E+0	1.534793E+0	1.328179E+0	1.565249E+0	1.690958E+0	1.529333E+0	1.413036E+0	1.390696E+0	1.529512E+0	1.478777E+0	1.570237E+0	1.536208E+0	1.651262E+0	1.489461E+0	1.722577E+0	1.650150E+0	1.768006E+0	1.395745E+0	1.594119E+0	1.605045E+0	1.591169E+0	1.410245E+0	1.398041E+0	1.419158E+0	1.417704E+0	1.425267E+0	1.569607E+0	1.533662E+0	1.224446E+0	1.273007E+0	1.695287E+0	1.668703E+0	1.610915E+0	1.381501E+0	1.565982E+0	1.564921E+0	1.664249E+0	1.441316E+0	1.456235E+0	1.516257E+0	1.528112E+0	1.440449E+0	1.306478E+0	1.448955E+0	1.660673E+0	1.472924E+0	1.572323E+0	1.635474E+0	1.702500E+0	1.446605E+0	1.564690E+0	1.546024E+0	1.515552E+0	1.499132E+0	1.523393E+0	1.398584E+0	1.483082E+0	1.561425E+0	1.540495E+0	1.503281E+0	1.640338E+0	1.462212E+0	1.707731E+0	1.627251E+0	1.613521E+0	1.456042E+0	1.555303E+0	1.614758E+0
5.415140E+2	1.181597E+0	1.228603E+0	1.480755E+0	1.347767E+0	1.393896E+0	1.457885E+0	1.474257E+0	1.471274E+0	1.425402E+0	1.443600E+0	1.398349E+0	1.489553E+0	1.324250E+0	1.315889E+0	1.314649E+0	1.351661E+0	1.381198E+0	1.361578E+0	1.376602E+0	1.383472E+0	1.369495E+0	1.446275E+0	1.505724E+0	1.463835E+0	1.441784E+0	1.464919E+0	1.366898E+0	1.443444E+0	1.313282E+0	1.425718E+0	1.283489E+0	1.286952E+0	1.374901E+0	1.449338E+0	1.382239E+0	1.358279E+0	1.444855E+0	1.450583E+0	1.439001E+0	1.285407E+0	1.263059E+0	1.479267E+0	1.336919E+0	1.356431E+0	1.350230E+0	1.275267E+0	1.293919E+0	1.263558E+0	1.455180E+0	1.390992E+0	1.347445E+0	1.227009E+0	1.440353E+0	1.481314E+0	1.482005E+0	1.313545E+0	1.365031E+0	1.443616E+0	1.357189E+0	1.355550E+0	1.326255E+0	1.233196E+0	1.292631E+0	1.377196E+0	1.389359E+0	1.385411E+0	1.353936E+0	1.360995E+0	1.425111E+0	1.464336E+0	1.481318E+0	1.305033E+0	1.420799E+0	1.400817E+0	1.395919E+0	1.319866E+0	1.184178E+0	1.307650E+0	1.298152E+0	1.209255E+0	1.356327E+0	1.385738E+0	1.448345E+0	1.350705E+0	1.474074E+0	1.450140E+0	1.441998E+0	1.393012E+0	1.369542E+0	1.456798E+0	1.484539E+0	1.342680E+0	1.293319E+0	1.316693E+0	1.379040E+0	1.256834E+0	1.354859E+0	1.337129E+0	1.410387E+0	1.303040E+0	1.498766E+0	1.437195E+0	1.504281E+0	1.322564E+0	1.220597E+0	1.379041E+0	1.431752E+0	1.282412E+0	1.244633E+0	1.211235E+0	1.360489E+0	1.343764E+0	1.358200E+0	1.326991E+0	1.334684E+0	1.316540E+0	1.485620E+0	1.480735E+0	1.473468E+0	1.239234E+0	1.403276E+0	1.440954E+0	1.435085E+0	1.243458E+0	1.279170E+0	1.314028E+0	1.268455E+0	1.289302E+0	1.373064E+0	1.359087E+0	1.056463E+0	1.131130E+0	1.536057E+0	1.423492E+0	1.372197E+0	1.204047E+0	1.374614E+0	1.410516E+0	1.411679E+0	1.289296E+0	1.251745E+0	1.254057E+0	1.364425E+0	1.297613E+0	1.186895E+0	1.387887E+0	1.471342E+0	1.382172E+0	1.412487E+0	1.476580E+0	1.521656E+0	1.295426E+0	1.417511E+0	1.358386E+0	1.375682E+0	1.316399E+0	1.324212E+0	1.224274E+0	1.278031E+0	1.372976E+0	1.388720E+0	1.345521E+0	1.378710E+0	1.345635E+0	1.494743E+0	1.474217E+0	1.481662E+0	1.294562E+0	1.341149E+0	1.518512E+0
5.417700E+2	1.039865E+0	1.075758E+0	1.271929E+0	1.172994E+0	1.181531E+0	1.221176E+0	1.245995E+0	1.239220E+0	1.154707E+0	1.207352E+0	1.175716E+0	1.246404E+0	1.106646E+0	1.122125E+0	1.130437E+0	1.142603E+0	1.179116E+0	1.224454E+0	1.129167E+0	1.159279E+0	1.217162E+0	1.260907E+0	1.254297E+0	1.237092E+0	1.191453E+0	1.296128E+0	1.194207E+0	1.233110E+0	1.121287E+0	1.150294E+0	1.144187E+0	1.085697E+0	1.176399E+0	1.204804E+0	1.177998E+0	1.131750E+0	1.271609E+0	1.269393E+0	1.301295E+0	1.273951E+0	1.105777E+0	1.229257E+0	1.152202E+0	1.186102E+0	1.132296E+0	1.091650E+0	1.090151E+0	1.061271E+0	1.223065E+0	1.195468E+0	1.155131E+0	1.135309E+0	1.322233E+0	1.177964E+0	1.312149E+0	1.320218E+0	1.197473E+0	1.225630E+0	1.141840E+0	1.246835E+0	1.150228E+0	1.098145E+0	1.124047E+0	1.221119E+0	1.147350E+0	1.163752E+0	1.173978E+0	1.227891E+0	1.234932E+0	1.254844E+0	1.297737E+0	1.158697E+0	1.184355E+0	1.196183E+0	1.245072E+0	1.200417E+0	1.065270E+0	1.132877E+0	1.111277E+0	1.074691E+0	1.148540E+0	1.179426E+0	1.209783E+0	1.152182E+0	1.276361E+0	1.274921E+0	1.234169E+0	1.114956E+0	1.203014E+0	1.216958E+0	1.234711E+0	1.133736E+0	1.091517E+0	1.145878E+0	1.186855E+0	1.072490E+0	1.146223E+0	1.106947E+0	1.147224E+0	1.120623E+0	1.207955E+0	1.265410E+0	1.231535E+0	1.168677E+0	9.963789E-1	1.203686E+0	1.265436E+0	1.111423E+0	1.078342E+0	1.121267E+0	1.182045E+0	1.160988E+0	1.195294E+0	1.180261E+0	1.204254E+0	1.128448E+0	1.234027E+0	1.238183E+0	1.280864E+0	1.032300E+0	1.198040E+0	1.180625E+0	1.240395E+0	1.130434E+0	1.059638E+0	1.098238E+0	1.127873E+0	1.075913E+0	1.132378E+0	1.173025E+0	8.909858E-1	9.961354E-1	1.256633E+0	1.261273E+0	1.209808E+0	1.065236E+0	1.171400E+0	1.203649E+0	1.255583E+0	1.100562E+0	1.082733E+0	1.124207E+0	1.207926E+0	1.118952E+0	1.006168E+0	1.189696E+0	1.245689E+0	1.127232E+0	1.192718E+0	1.220241E+0	1.241072E+0	1.063815E+0	1.231470E+0	1.138226E+0	1.206367E+0	1.175790E+0	1.090819E+0	1.065125E+0	1.125001E+0	1.181220E+0	1.189627E+0	1.161674E+0	1.199136E+0	1.145870E+0	1.326984E+0	1.255805E+0	1.226650E+0	1.082378E+0	1.191740E+0	1.171635E+0
5.420270E+2	9.086508E-1	9.658059E-1	1.151577E+0	1.047157E+0	1.052637E+0	1.116864E+0	1.135584E+0	1.159287E+0	1.032672E+0	1.079966E+0	1.004954E+0	1.145455E+0	9.846109E-1	9.927875E-1	1.010586E+0	1.011629E+0	1.035199E+0	1.038577E+0	1.037797E+0	1.043535E+0	1.101788E+0	1.094234E+0	1.142928E+0	1.057974E+0	1.027484E+0	1.132302E+0	1.102069E+0	1.090951E+0	1.017677E+0	1.042826E+0	9.847774E-1	9.707513E-1	1.091153E+0	1.067447E+0	1.017115E+0	1.001923E+0	1.148586E+0	1.116415E+0	1.115259E+0	1.118573E+0	1.074090E+0	1.110516E+0	1.041489E+0	1.127605E+0	1.059835E+0	1.002752E+0	9.906809E-1	9.992883E-1	1.066966E+0	1.070989E+0	1.007693E+0	9.897637E-1	1.101777E+0	1.128769E+0	1.150035E+0	1.151030E+0	1.086581E+0	1.047844E+0	1.063266E+0	1.089320E+0	1.011508E+0	9.579375E-1	9.578785E-1	1.115454E+0	1.054222E+0	9.833326E-1	1.050911E+0	1.068522E+0	1.120307E+0	1.119200E+0	1.090504E+0	1.120811E+0	1.042123E+0	1.099040E+0	1.063940E+0	1.120408E+0	9.628352E-1	1.035781E+0	1.023972E+0	9.774062E-1	1.095750E+0	1.092305E+0	1.012256E+0	1.039998E+0	1.130110E+0	1.137514E+0	1.142405E+0	1.107798E+0	1.048336E+0	1.108847E+0	1.121625E+0	1.079543E+0	9.752973E-1	1.005006E+0	1.023522E+0	9.810111E-1	1.044565E+0	1.039662E+0	1.102443E+0	1.006613E+0	1.106447E+0	1.160693E+0	1.192883E+0	1.042949E+0	9.116973E-1	1.051750E+0	1.099678E+0	1.002306E+0	9.643138E-1	9.614277E-1	1.055694E+0	1.048887E+0	1.079579E+0	1.004519E+0	1.073192E+0	1.070201E+0	1.168959E+0	1.121907E+0	1.170731E+0	9.687502E-1	1.069768E+0	1.060332E+0	1.098855E+0	1.015578E+0	9.604945E-1	9.644374E-1	9.906594E-1	9.937678E-1	1.009616E+0	1.015677E+0	8.448524E-1	8.865515E-1	1.151004E+0	1.162110E+0	1.046877E+0	9.325267E-1	1.060609E+0	1.055205E+0	1.139682E+0	9.789473E-1	1.012269E+0	9.648907E-1	1.019908E+0	9.903551E-1	8.541205E-1	1.116971E+0	1.096537E+0	1.033494E+0	1.089582E+0	1.154911E+0	1.129277E+0	9.349256E-1	1.032685E+0	1.065047E+0	1.062204E+0	1.013230E+0	9.964692E-1	9.554890E-1	9.199497E-1	1.058425E+0	1.045840E+0	1.040559E+0	1.064753E+0	9.976569E-1	1.172395E+0	1.142801E+0	1.124023E+0	9.606833E-1	1.057273E+0	1.113489E+0
5.422780E+2	8.280194E-1	9.277455E-1	1.063754E+0	9.810615E-1	9.549722E-1	1.035478E+0	1.056064E+0	1.012983E+0	9.466928E-1	9.991581E-1	9.734826E-1	1.080326E+0	8.900214E-1	9.067231E-1	9.075224E-1	9.444618E-1	9.710373E-1	9.599604E-1	9.197532E-1	9.814911E-1	9.749270E-1	1.051497E+0	1.006760E+0	1.064964E+0	1.021648E+0	1.089484E+0	1.001104E+0	9.952965E-1	9.769214E-1	9.801799E-1	9.014827E-1	9.077579E-1	9.657184E-1	1.018787E+0	9.646287E-1	9.319348E-1	1.003555E+0	1.057285E+0	1.031595E+0	1.038364E+0	1.057958E+0	1.017375E+0	9.616582E-1	1.002007E+0	1.007685E+0	9.085614E-1	8.854162E-1	9.289275E-1	9.683159E-1	9.964184E-1	9.156160E-1	9.124590E-1	1.073774E+0	1.002716E+0	1.015798E+0	1.021399E+0	9.817821E-1	1.008776E+0	9.538450E-1	1.040522E+0	9.389943E-1	8.852532E-1	9.071588E-1	1.009791E+0	1.003370E+0	9.621404E-1	9.615131E-1	9.986870E-1	1.094255E+0	1.076778E+0	1.004628E+0	1.065875E+0	9.959272E-1	1.013967E+0	9.890864E-1	1.058429E+0	9.031243E-1	8.959610E-1	9.177927E-1	9.337637E-1	9.778174E-1	9.977018E-1	9.931058E-1	9.489595E-1	1.054275E+0	9.798679E-1	1.064532E+0	1.027550E+0	1.002807E+0	1.000735E+0	1.043734E+0	1.042210E+0	9.373680E-1	8.940751E-1	9.746193E-1	9.191016E-1	9.257656E-1	9.765097E-1	9.791430E-1	9.279453E-1	1.007133E+0	1.070416E+0	1.048071E+0	1.016295E+0	8.445920E-1	1.006054E+0	1.062965E+0	9.741830E-1	9.004365E-1	8.982582E-1	1.008590E+0	9.533556E-1	9.645101E-1	9.515174E-1	1.027605E+0	9.785820E-1	1.057802E+0	1.026149E+0	1.033449E+0	1.069590E+0	9.621442E-1	9.998767E-1	1.042910E+0	1.026576E+0	8.760204E-1	9.181604E-1	9.126651E-1	9.555280E-1	9.666790E-1	9.812216E-1	7.636181E-1	8.124371E-1	1.038089E+0	1.034923E+0	1.030096E+0	9.574412E-1	9.551499E-1	9.806847E-1	1.022443E+0	9.554265E-1	9.014011E-1	9.269339E-1	1.015484E+0	9.233007E-1	8.021749E-1	1.030367E+0	1.056359E+0	9.648341E-1	1.004265E+0	1.040306E+0	1.035566E+0	9.257195E-1	1.000191E+0	9.768578E-1	9.879761E-1	9.912785E-1	9.407420E-1	8.994073E-1	9.108588E-1	9.587683E-1	9.923805E-1	9.778265E-1	9.963731E-1	8.980664E-1	1.042999E+0	1.032330E+0	1.063690E+0	8.959359E-1	1.012451E+0	1.075391E+0
5.425300E+2	8.039800E-1	9.144542E-1	1.054646E+0	9.575458E-1	1.010618E+0	1.029173E+0	1.070938E+0	1.038659E+0	9.966163E-1	1.015993E+0	1.023021E+0	1.047219E+0	8.988433E-1	9.173009E-1	9.224457E-1	9.255708E-1	9.296606E-1	9.630075E-1	9.668568E-1	9.945250E-1	1.018380E+0	1.067524E+0	1.052474E+0	1.067148E+0	1.028068E+0	1.070247E+0	1.003310E+0	1.024892E+0	9.769212E-1	9.499383E-1	9.168008E-1	9.204386E-1	9.912930E-1	1.012627E+0	9.686224E-1	9.773472E-1	1.045315E+0	1.031246E+0	1.102787E+0	1.051656E+0	1.022815E+0	1.022277E+0	1.000116E+0	1.015198E+0	9.774934E-1	9.445444E-1	8.858989E-1	9.389789E-1	1.005455E+0	9.858495E-1	9.808855E-1	9.289867E-1	1.096685E+0	1.042172E+0	1.092726E+0	1.106706E+0	1.026870E+0	1.004813E+0	1.003317E+0	1.070789E+0	9.657928E-1	9.124517E-1	9.206839E-1	1.015123E+0	1.019912E+0	1.001088E+0	9.882156E-1	1.047632E+0	1.008805E+0	1.006075E+0	1.103874E+0	1.091448E+0	1.011123E+0	9.789041E-1	1.023942E+0	1.038146E+0	8.938593E-1	9.168369E-1	9.409166E-1	9.060330E-1	1.000281E+0	1.018012E+0	1.031954E+0	9.906609E-1	1.082443E+0	1.093309E+0	1.062051E+0	1.071508E+0	9.996878E-1	1.026975E+0	1.083545E+0	1.005480E+0	9.363957E-1	9.289259E-1	9.462565E-1	8.909185E-1	9.293115E-1	9.475890E-1	1.031285E+0	9.028635E-1	1.048285E+0	1.021924E+0	1.036638E+0	1.014283E+0	8.275493E-1	9.420817E-1	1.070753E+0	9.994942E-1	9.004367E-1	9.006510E-1	9.781108E-1	9.289856E-1	9.722673E-1	1.007867E+0	1.040268E+0	9.791888E-1	1.055091E+0	1.047721E+0	1.045231E+0	1.120012E+0	1.056001E+0	1.002344E+0	1.004308E+0	1.004582E+0	9.109229E-1	8.884828E-1	9.035177E-1	9.432535E-1	9.382557E-1	9.467657E-1	7.821721E-1	8.230252E-1	1.044334E+0	1.031689E+0	1.001949E+0	1.039813E+0	1.004917E+0	9.818771E-1	1.018423E+0	9.720623E-1	8.900678E-1	8.804873E-1	1.003318E+0	9.150335E-1	8.054217E-1	1.034253E+0	1.031592E+0	9.905065E-1	1.011826E+0	1.057468E+0	1.079408E+0	1.060422E+0	1.015482E+0	9.293235E-1	1.038893E+0	1.040521E+0	9.396383E-1	8.953651E-1	9.148992E-1	9.937180E-1	9.573553E-1	9.442867E-1	9.892379E-1	9.935555E-1	1.084795E+0	1.040945E+0	1.062447E+0	1.050394E+0	1.046068E+0	1.011229E+0
5.427650E+2	8.961306E-1	9.790969E-1	1.134663E+0	1.052877E+0	1.045823E+0	1.151825E+0	1.186499E+0	1.129736E+0	1.113104E+0	1.099607E+0	1.083633E+0	1.111805E+0	1.022838E+0	1.000961E+0	9.704798E-1	1.020444E+0	1.038198E+0	1.050765E+0	1.081495E+0	9.997390E-1	1.076316E+0	1.136436E+0	1.172107E+0	1.118263E+0	1.097506E+0	1.193737E+0	1.123586E+0	1.124773E+0	9.877235E-1	1.073068E+0	9.996173E-1	9.654340E-1	1.116118E+0	1.104404E+0	1.092422E+0	1.018485E+0	1.169466E+0	1.141912E+0	1.139164E+0	1.159363E+0	1.177216E+0	1.127946E+0	1.021677E+0	1.125311E+0	1.074108E+0	1.003281E+0	9.506033E-1	1.007246E+0	1.110488E+0	1.073924E+0	1.056062E+0	1.040412E+0	1.127233E+0	1.155929E+0	1.178946E+0	1.134349E+0	1.118265E+0	1.104463E+0	1.088876E+0	1.152943E+0	1.043035E+0	9.771631E-1	1.000386E+0	1.079588E+0	1.108751E+0	1.023426E+0	1.042203E+0	1.129405E+0	1.158862E+0	1.151669E+0	1.117244E+0	1.159643E+0	1.081631E+0	1.108812E+0	1.085081E+0	1.119845E+0	9.823954E-1	1.013447E+0	1.055121E+0	9.746786E-1	1.067671E+0	1.077874E+0	1.075181E+0	1.088161E+0	1.149610E+0	1.135383E+0	1.141414E+0	1.127733E+0	1.125675E+0	1.116194E+0	1.097969E+0	1.034985E+0	1.028301E+0	1.023659E+0	1.027434E+0	1.002726E+0	1.056976E+0	1.065042E+0	1.115939E+0	1.004332E+0	1.121262E+0	1.097756E+0	1.143342E+0	1.152582E+0	9.037084E-1	1.033471E+0	1.108021E+0	1.047303E+0	9.727604E-1	9.604708E-1	1.110557E+0	1.052298E+0	1.087982E+0	1.004520E+0	1.047866E+0	1.060492E+0	1.174381E+0	1.156106E+0	1.139484E+0	1.142594E+0	1.121701E+0	1.059097E+0	1.137457E+0	1.117605E+0	9.630238E-1	9.594071E-1	9.805491E-1	1.037202E+0	1.049528E+0	1.034053E+0	8.463567E-1	9.151390E-1	1.162972E+0	1.178817E+0	1.142146E+0	1.082524E+0	1.083715E+0	1.040300E+0	1.216726E+0	1.070158E+0	1.009806E+0	9.948560E-1	1.076866E+0	1.026179E+0	8.838804E-1	1.130850E+0	1.132311E+0	1.173204E+0	1.108482E+0	1.153250E+0	1.190654E+0	1.159270E+0	1.074735E+0	1.051288E+0	1.081835E+0	1.151465E+0	1.020194E+0	9.479103E-1	1.007828E+0	1.099987E+0	1.080865E+0	1.054222E+0	1.045726E+0	1.067955E+0	1.232513E+0	1.141282E+0	1.110961E+0	1.181449E+0	1.087155E+0	1.183666E+0
5.430070E+2	1.047378E+0	1.083611E+0	1.239401E+0	1.232099E+0	1.206515E+0	1.299698E+0	1.323799E+0	1.270709E+0	1.239575E+0	1.246072E+0	1.211850E+0	1.302849E+0	1.145854E+0	1.081257E+0	1.143962E+0	1.161914E+0	1.168922E+0	1.184842E+0	1.215996E+0	1.184829E+0	1.286584E+0	1.261975E+0	1.298066E+0	1.289955E+0	1.259142E+0	1.306057E+0	1.217931E+0	1.280146E+0	1.154185E+0	1.181077E+0	1.135571E+0	1.128648E+0	1.193448E+0	1.260856E+0	1.223638E+0	1.192122E+0	1.283459E+0	1.317674E+0	1.282068E+0	1.282657E+0	1.368490E+0	1.260304E+0	1.190661E+0	1.202734E+0	1.251966E+0	1.127632E+0	1.080977E+0	1.123676E+0	1.269488E+0	1.200165E+0	1.215156E+0	1.172629E+0	1.327835E+0	1.277372E+0	1.274459E+0	1.285425E+0	1.201739E+0	1.200717E+0	1.206445E+0	1.301193E+0	1.233250E+0	1.117840E+0	1.139986E+0	1.239053E+0	1.264985E+0	1.220455E+0	1.164690E+0	1.266091E+0	1.273489E+0	1.339163E+0	1.276657E+0	1.287040E+0	1.228726E+0	1.237568E+0	1.206788E+0	1.274792E+0	1.098729E+0	1.127051E+0	1.163187E+0	1.092875E+0	1.195713E+0	1.216840E+0	1.197199E+0	1.233236E+0	1.276904E+0	1.301550E+0	1.286250E+0	1.300495E+0	1.275364E+0	1.220633E+0	1.230095E+0	1.243928E+0	1.148410E+0	1.123300E+0	1.183432E+0	1.162584E+0	1.143859E+0	1.192529E+0	1.236172E+0	1.178198E+0	1.248012E+0	1.278308E+0	1.299585E+0	1.223490E+0	1.041116E+0	1.200830E+0	1.227613E+0	1.230103E+0	1.097874E+0	1.113132E+0	1.177058E+0	1.144903E+0	1.243778E+0	1.188630E+0	1.273269E+0	1.227348E+0	1.274695E+0	1.286064E+0	1.300839E+0	1.343750E+0	1.207426E+0	1.265139E+0	1.262774E+0	1.238571E+0	1.081389E+0	1.113328E+0	1.106689E+0	1.149089E+0	1.116655E+0	1.215520E+0	9.626925E-1	9.993113E-1	1.268601E+0	1.269357E+0	1.281803E+0	1.220317E+0	1.243088E+0	1.235841E+0	1.264292E+0	1.202674E+0	1.104414E+0	1.082256E+0	1.180829E+0	1.146511E+0	1.012662E+0	1.263532E+0	1.284215E+0	1.153501E+0	1.220256E+0	1.263426E+0	1.261897E+0	1.274589E+0	1.227010E+0	1.172000E+0	1.211888E+0	1.280801E+0	1.162547E+0	1.106555E+0	1.131060E+0	1.227981E+0	1.232641E+0	1.171611E+0	1.217569E+0	1.209139E+0	1.285187E+0	1.236042E+0	1.249041E+0	1.275840E+0	1.180535E+0	1.307980E+0
5.432800E+2	1.157057E+0	1.220146E+0	1.451481E+0	1.335692E+0	1.387648E+0	1.491126E+0	1.457665E+0	1.467881E+0	1.354956E+0	1.429574E+0	1.348810E+0	1.459159E+0	1.261028E+0	1.239922E+0	1.295993E+0	1.313879E+0	1.385397E+0	1.346951E+0	1.321553E+0	1.372003E+0	1.417441E+0	1.439867E+0	1.460009E+0	1.410097E+0	1.305823E+0	1.490362E+0	1.367999E+0	1.390069E+0	1.283328E+0	1.364151E+0	1.283489E+0	1.255045E+0	1.391950E+0	1.437019E+0	1.362843E+0	1.355071E+0	1.515394E+0	1.436477E+0	1.433286E+0	1.503574E+0	1.456059E+0	1.480899E+0	1.301376E+0	1.390844E+0	1.385363E+0	1.258334E+0	1.260121E+0	1.241361E+0	1.418626E+0	1.430922E+0	1.355601E+0	1.302182E+0	1.432205E+0	1.459280E+0	1.456708E+0	1.465097E+0	1.358937E+0	1.417572E+0	1.351370E+0	1.553213E+0	1.328359E+0	1.227569E+0	1.260265E+0	1.429058E+0	1.399163E+0	1.348753E+0	1.337099E+0	1.396213E+0	1.412084E+0	1.443385E+0	1.442236E+0	1.470789E+0	1.403171E+0	1.362306E+0	1.375923E+0	1.415088E+0	1.280948E+0	1.324644E+0	1.291547E+0	1.271992E+0	1.352397E+0	1.370769E+0	1.346575E+0	1.337783E+0	1.474613E+0	1.492749E+0	1.422656E+0	1.474792E+0	1.383888E+0	1.391722E+0	1.457419E+0	1.384829E+0	1.250527E+0	1.285281E+0	1.324272E+0	1.286863E+0	1.300485E+0	1.347163E+0	1.396278E+0	1.261995E+0	1.400549E+0	1.446994E+0	1.465632E+0	1.422142E+0	1.184381E+0	1.397320E+0	1.429525E+0	1.327409E+0	1.212958E+0	1.229901E+0	1.336660E+0	1.312083E+0	1.363374E+0	1.303559E+0	1.356844E+0	1.422114E+0	1.507852E+0	1.448643E+0	1.507276E+0	1.416757E+0	1.467099E+0	1.366925E+0	1.348929E+0	1.392525E+0	1.205318E+0	1.231536E+0	1.225126E+0	1.303939E+0	1.333152E+0	1.341283E+0	1.057466E+0	1.121601E+0	1.414299E+0	1.452593E+0	1.421999E+0	1.365740E+0	1.359211E+0	1.351497E+0	1.476664E+0	1.421810E+0	1.263078E+0	1.294512E+0	1.370505E+0	1.286130E+0	1.128997E+0	1.355131E+0	1.425111E+0	1.372022E+0	1.364429E+0	1.446131E+0	1.433973E+0	1.493604E+0	1.356985E+0	1.279578E+0	1.335808E+0	1.394119E+0	1.317038E+0	1.258633E+0	1.269445E+0	1.346524E+0	1.418829E+0	1.290243E+0	1.371574E+0	1.434095E+0	1.448365E+0	1.422526E+0	1.405160E+0	1.438100E+0	1.463166E+0	1.458361E+0
5.435540E+2	1.329838E+0	1.348825E+0	1.558822E+0	1.494577E+0	1.526196E+0	1.629254E+0	1.717966E+0	1.635501E+0	1.609564E+0	1.625422E+0	1.560369E+0	1.601899E+0	1.613406E+0	1.400513E+0	1.417714E+0	1.410850E+0	1.617462E+0	1.525512E+0	1.482163E+0	1.540408E+0	1.609728E+0	1.578226E+0	1.647725E+0	1.625916E+0	1.505971E+0	1.643015E+0	1.496001E+0	1.587720E+0	1.491038E+0	1.474322E+0	1.459653E+0	1.382670E+0	1.605063E+0	1.575609E+0	1.565372E+0	1.459787E+0	1.705574E+0	1.580233E+0	1.621398E+0	1.636952E+0	1.593179E+0	1.613257E+0	1.481431E+0	1.569776E+0	1.567614E+0	1.440892E+0	1.398219E+0	1.368681E+0	1.557892E+0	1.499032E+0	1.424949E+0	1.465319E+0	1.605317E+0	1.580209E+0	1.621922E+0	1.623800E+0	1.542947E+0	1.549493E+0	1.473012E+0	1.623016E+0	1.439230E+0	1.394038E+0	1.442371E+0	1.520181E+0	1.516186E+0	1.517719E+0	1.531571E+0	1.613479E+0	1.616851E+0	1.643448E+0	1.643296E+0	1.673956E+0	1.572757E+0	1.567511E+0	1.563338E+0	1.559896E+0	1.444640E+0	1.416401E+0	1.421796E+0	1.387916E+0	1.530979E+0	1.509738E+0	1.584046E+0	1.499305E+0	1.611659E+0	1.638677E+0	1.576916E+0	1.612798E+0	1.550414E+0	1.593776E+0	1.629356E+0	1.566676E+0	1.441147E+0	1.341233E+0	1.454838E+0	1.409301E+0	1.484296E+0	1.461664E+0	1.540434E+0	1.472342E+0	1.595888E+0	1.592985E+0	1.607174E+0	1.562455E+0	1.270659E+0	1.522408E+0	1.583602E+0	1.514145E+0	1.370274E+0	1.364377E+0	1.521200E+0	1.424674E+0	1.543088E+0	1.487113E+0	1.482841E+0	1.559847E+0	1.667270E+0	1.568072E+0	1.576428E+0	1.697745E+0	1.567211E+0	1.524851E+0	1.563759E+0	1.502494E+0	1.375276E+0	1.360304E+0	1.368115E+0	1.445095E+0	1.457125E+0	1.442930E+0	1.194863E+0	1.295770E+0	1.586533E+0	1.632055E+0	1.512938E+0	1.570651E+0	1.521548E+0	1.546444E+0	1.569116E+0	1.530233E+0	1.442931E+0	1.372421E+0	1.575670E+0	1.428045E+0	1.532114E+0	1.440627E+0	1.617193E+0	1.509343E+0	1.705156E+0	1.631047E+0	1.665237E+0	1.625884E+0	1.505437E+0	1.417179E+0	1.510644E+0	1.566765E+0	1.436218E+0	1.444053E+0	1.366920E+0	1.524582E+0	1.585967E+0	1.474089E+0	1.492875E+0	1.521382E+0	1.648759E+0	1.591779E+0	1.558166E+0	1.606599E+0	1.490559E+0	1.618770E+0
5.437590E+2	1.381925E+0	1.473881E+0	1.671363E+0	1.602619E+0	1.589222E+0	1.662493E+0	1.721969E+0	1.671838E+0	1.702751E+0	1.705106E+0	1.582513E+0	1.664315E+0	1.693294E+0	1.474560E+0	1.457816E+0	1.516218E+0	1.700813E+0	1.605963E+0	1.574099E+0	1.627999E+0	1.660172E+0	1.705368E+0	1.677393E+0	1.669165E+0	1.627341E+0	1.831665E+0	1.616827E+0	1.647436E+0	1.701694E+0	1.596912E+0	1.509918E+0	1.466118E+0	1.711627E+0	1.559591E+0	1.564230E+0	1.546339E+0	1.701623E+0	1.645326E+0	1.694666E+0	1.656201E+0	1.661738E+0	1.662826E+0	1.509400E+0	1.627128E+0	1.703750E+0	1.473702E+0	1.430574E+0	1.440298E+0	1.668150E+0	1.529565E+0	1.500711E+0	1.487709E+0	1.670484E+0	1.644773E+0	1.674585E+0	1.699579E+0	1.671506E+0	1.633858E+0	1.546347E+0	1.671817E+0	1.641006E+0	1.429209E+0	1.481499E+0	1.585130E+0	1.666904E+0	1.538338E+0	1.609939E+0	1.554387E+0	1.749195E+0	1.676444E+0	1.664894E+0	1.725104E+0	1.598893E+0	1.676151E+0	1.626764E+0	1.615675E+0	1.635094E+0	1.493109E+0	1.498720E+0	1.457471E+0	1.670256E+0	1.578147E+0	1.583496E+0	1.565086E+0	1.714035E+0	1.669033E+0	1.629989E+0	1.654714E+0	1.605926E+0	1.605845E+0	1.660515E+0	1.624481E+0	1.493179E+0	1.487997E+0	1.489070E+0	1.442102E+0	1.529218E+0	1.467569E+0	1.587670E+0	1.467784E+0	1.634294E+0	1.722467E+0	1.647460E+0	1.632860E+0	1.348419E+0	1.549827E+0	1.655357E+0	1.586704E+0	1.441544E+0	1.392136E+0	1.579384E+0	1.469027E+0	1.619368E+0	1.532303E+0	1.661391E+0	1.571374E+0	1.735588E+0	1.675410E+0	1.681949E+0	1.688814E+0	1.584733E+0	1.561864E+0	1.600122E+0	1.646677E+0	1.431931E+0	1.453363E+0	1.463443E+0	1.468702E+0	1.531506E+0	1.478534E+0	1.258546E+0	1.288360E+0	1.642211E+0	1.669779E+0	1.634730E+0	1.619463E+0	1.580791E+0	1.642425E+0	1.680994E+0	1.603658E+0	1.427658E+0	1.502273E+0	1.561841E+0	1.492804E+0	1.597046E+0	1.578860E+0	1.640310E+0	1.592931E+0	1.657099E+0	1.632711E+0	1.710176E+0	1.663677E+0	1.568514E+0	1.494111E+0	1.527206E+0	1.679487E+0	1.472635E+0	1.453149E+0	1.418434E+0	1.543475E+0	1.586582E+0	1.526262E+0	1.532119E+0	1.578206E+0	1.673376E+0	1.613573E+0	1.585533E+0	1.714252E+0	1.568998E+0	1.564632E+0
5.440170E+2	1.390938E+0	1.456966E+0	1.778054E+0	1.645837E+0	1.689161E+0	1.727260E+0	1.870136E+0	1.746439E+0	1.795942E+0	1.671995E+0	1.597087E+0	1.800541E+0	1.774655E+0	1.523601E+0	1.504921E+0	1.528392E+0	1.724800E+0	1.636434E+0	1.615525E+0	1.595150E+0	1.734094E+0	1.700023E+0	1.715326E+0	1.714163E+0	1.725375E+0	1.775818E+0	1.644966E+0	1.653250E+0	1.773384E+0	1.610952E+0	1.502738E+0	1.552838E+0	1.706753E+0	1.637820E+0	1.654939E+0	1.535118E+0	1.713474E+0	1.727786E+0	1.725851E+0	1.697452E+0	1.748158E+0	1.683520E+0	1.590979E+0	1.690784E+0	1.790482E+0	1.509684E+0	1.534390E+0	1.482179E+0	1.748231E+0	1.645823E+0	1.577053E+0	1.567680E+0	1.722926E+0	1.718051E+0	1.763386E+0	1.723885E+0	1.722078E+0	1.636690E+0	1.629577E+0	1.766938E+0	1.785509E+0	1.566602E+0	1.450101E+0	1.638447E+0	1.737975E+0	1.585877E+0	1.620387E+0	1.765682E+0	1.693965E+0	1.717818E+0	1.751286E+0	1.772460E+0	1.708304E+0	1.634190E+0	1.636479E+0	1.707518E+0	1.784887E+0	1.545539E+0	1.538829E+0	1.512027E+0	1.763479E+0	1.604874E+0	1.683628E+0	1.662587E+0	1.761702E+0	1.690338E+0	1.673638E+0	1.702758E+0	1.777444E+0	1.687717E+0	1.636854E+0	1.680484E+0	1.769865E+0	1.519902E+0	1.615728E+0	1.533118E+0	1.718351E+0	1.592103E+0	1.616501E+0	1.586352E+0	1.741836E+0	1.749292E+0	1.772127E+0	1.659012E+0	1.359602E+0	1.593237E+0	1.692627E+0	1.605263E+0	1.562960E+0	1.446690E+0	1.582156E+0	1.537750E+0	1.701467E+0	1.565220E+0	1.612638E+0	1.602320E+0	1.776800E+0	1.695400E+0	1.727026E+0	1.769169E+0	1.674211E+0	1.584690E+0	1.682921E+0	1.698607E+0	1.486560E+0	1.525795E+0	1.463442E+0	1.553202E+0	1.571422E+0	1.576732E+0	1.221938E+0	1.319064E+0	1.732232E+0	1.681638E+0	1.634732E+0	1.656582E+0	1.548207E+0	1.625731E+0	1.698416E+0	1.696591E+0	1.509454E+0	1.490285E+0	1.623225E+0	1.504287E+0	1.577024E+0	1.648254E+0	1.656270E+0	1.647261E+0	1.756449E+0	1.710776E+0	1.694828E+0	1.757195E+0	1.585716E+0	1.580423E+0	1.637630E+0	1.737630E+0	1.543809E+0	1.441019E+0	1.466414E+0	1.615735E+0	1.620374E+0	1.575330E+0	1.661744E+0	1.637961E+0	1.711169E+0	1.647018E+0	1.680697E+0	1.687729E+0	1.631251E+0	1.654860E+0
5.442700E+2	1.390940E+0	1.417093E+0	1.688282E+0	1.577831E+0	1.649411E+0	1.693447E+0	1.689361E+0	1.698477E+0	1.691661E+0	1.671437E+0	1.560952E+0	1.699052E+0	1.722214E+0	1.429842E+0	1.450824E+0	1.553997E+0	1.654040E+0	1.646185E+0	1.608719E+0	1.571166E+0	1.687144E+0	1.699489E+0	1.694901E+0	1.692322E+0	1.628509E+0	1.727412E+0	1.554484E+0	1.667519E+0	1.730173E+0	1.545067E+0	1.494119E+0	1.468162E+0	1.676917E+0	1.594702E+0	1.579632E+0	1.560228E+0	1.756926E+0	1.729414E+0	1.656734E+0	1.677285E+0	1.729717E+0	1.677529E+0	1.500077E+0	1.611641E+0	1.708691E+0	1.469996E+0	1.473547E+0	1.432338E+0	1.673953E+0	1.587106E+0	1.550241E+0	1.553287E+0	1.624153E+0	1.666809E+0	1.690587E+0	1.680038E+0	1.659933E+0	1.608946E+0	1.573705E+0	1.728645E+0	1.730861E+0	1.437646E+0	1.499373E+0	1.571073E+0	1.707342E+0	1.572129E+0	1.540279E+0	1.591395E+0	1.646030E+0	1.653924E+0	1.692150E+0	1.672061E+0	1.660284E+0	1.608326E+0	1.609049E+0	1.599334E+0	1.636641E+0	1.463492E+0	1.470403E+0	1.401100E+0	1.750562E+0	1.631062E+0	1.568724E+0	1.583882E+0	1.686409E+0	1.642407E+0	1.573446E+0	1.661358E+0	1.718193E+0	1.644686E+0	1.697441E+0	1.605217E+0	1.703244E+0	1.483091E+0	1.505208E+0	1.451806E+0	1.695298E+0	1.477601E+0	1.605461E+0	1.489446E+0	1.699041E+0	1.644570E+0	1.642017E+0	1.650967E+0	1.384101E+0	1.577817E+0	1.723771E+0	1.578829E+0	1.634231E+0	1.448122E+0	1.573289E+0	1.523129E+0	1.682076E+0	1.559083E+0	1.584778E+0	1.607172E+0	1.681367E+0	1.689611E+0	1.663506E+0	1.665707E+0	1.707998E+0	1.535337E+0	1.611311E+0	1.612464E+0	1.631734E+0	1.440285E+0	1.450926E+0	1.475784E+0	1.671806E+0	1.492314E+0	1.269576E+0	1.319594E+0	1.757727E+0	1.696188E+0	1.634731E+0	1.601667E+0	1.638260E+0	1.616191E+0	1.676977E+0	1.597351E+0	1.624262E+0	1.498276E+0	1.535852E+0	1.550675E+0	1.656026E+0	1.578860E+0	1.602884E+0	1.644872E+0	1.661418E+0	1.659842E+0	1.710720E+0	1.639451E+0	1.606742E+0	1.514127E+0	1.546225E+0	1.609478E+0	1.507947E+0	1.388478E+0	1.479040E+0	1.533087E+0	1.584122E+0	1.581542E+0	1.523795E+0	1.556529E+0	1.768996E+0	1.682995E+0	1.629694E+0	1.701771E+0	1.524175E+0	1.620774E+0
5.445290E+2	1.309306E+0	1.395948E+0	1.580288E+0	1.525719E+0	1.537552E+0	1.628679E+0	1.701943E+0	1.627749E+0	1.625651E+0	1.622616E+0	1.533561E+0	1.606785E+0	1.616839E+0	1.408206E+0	1.391595E+0	1.440657E+0	1.657636E+0	1.521250E+0	1.528698E+0	1.547183E+0	1.574768E+0	1.639125E+0	1.620980E+0	1.613247E+0	1.584744E+0	1.647358E+0	1.563311E+0	1.570277E+0	1.661921E+0	1.530487E+0	1.428059E+0	1.391260E+0	1.653778E+0	1.581766E+0	1.523726E+0	1.488103E+0	1.635599E+0	1.615494E+0	1.651537E+0	1.601661E+0	1.604127E+0	1.594739E+0	1.484344E+0	1.511279E+0	1.636229E+0	1.395913E+0	1.418981E+0	1.361143E+0	1.625785E+0	1.533089E+0	1.507121E+0	1.488246E+0	1.602771E+0	1.630939E+0	1.555837E+0	1.627136E+0	1.606314E+0	1.479854E+0	1.436927E+0	1.588424E+0	1.678842E+0	1.379504E+0	1.402283E+0	1.523087E+0	1.595221E+0	1.463879E+0	1.501963E+0	1.594378E+0	1.636650E+0	1.656540E+0	1.586732E+0	1.600075E+0	1.602541E+0	1.554294E+0	1.549626E+0	1.606098E+0	1.677820E+0	1.485823E+0	1.449166E+0	1.376552E+0	1.692157E+0	1.526305E+0	1.475159E+0	1.550993E+0	1.567781E+0	1.630689E+0	1.598247E+0	1.573953E+0	1.655818E+0	1.585378E+0	1.673208E+0	1.599195E+0	1.694978E+0	1.483090E+0	1.497874E+0	1.428241E+0	1.606053E+0	1.521867E+0	1.585830E+0	1.464362E+0	1.654594E+0	1.632704E+0	1.610441E+0	1.585586E+0	1.334038E+0	1.536118E+0	1.702635E+0	1.519206E+0	1.575629E+0	1.307427E+0	1.458022E+0	1.435394E+0	1.607732E+0	1.504408E+0	1.591113E+0	1.501596E+0	1.679741E+0	1.612796E+0	1.701924E+0	1.655723E+0	1.573471E+0	1.524235E+0	1.562083E+0	1.555645E+0	1.656520E+0	1.369861E+0	1.415779E+0	1.401191E+0	1.637336E+0	1.392391E+0	1.189848E+0	1.223243E+0	1.658343E+0	1.574929E+0	1.538380E+0	1.579802E+0	1.640037E+0	1.467749E+0	1.660227E+0	1.519333E+0	1.676495E+0	1.390900E+0	1.475575E+0	1.451009E+0	1.663059E+0	1.501136E+0	1.493357E+0	1.544568E+0	1.640361E+0	1.588418E+0	1.622492E+0	1.616679E+0	1.615022E+0	1.463462E+0	1.535184E+0	1.623126E+0	1.690027E+0	1.373826E+0	1.407323E+0	1.531194E+0	1.634509E+0	1.411981E+0	1.495848E+0	1.495021E+0	1.644748E+0	1.613065E+0	1.495967E+0	1.533270E+0	1.627518E+0	1.570647E+0
5.447720E+2	1.302293E+0	1.580813E+0	1.507427E+0	1.472333E+0	1.505753E+0	1.543856E+0	1.546338E+0	1.521655E+0	1.583491E+0	1.554716E+0	1.415834E+0	1.581276E+0	1.644776E+0	1.329351E+0	1.325376E+0	1.397837E+0	1.519118E+0	1.462134E+0	1.487837E+0	1.378780E+0	1.538805E+0	1.523734E+0	1.540251E+0	1.558201E+0	1.510055E+0	1.546833E+0	1.431448E+0	1.524304E+0	1.541616E+0	1.461360E+0	1.338540E+0	1.327445E+0	1.606893E+0	1.501694E+0	1.484931E+0	1.453913E+0	1.597224E+0	1.543886E+0	1.526304E+0	1.575994E+0	1.559762E+0	1.491248E+0	1.354984E+0	1.526188E+0	1.559380E+0	1.388506E+0	1.321446E+0	1.361562E+0	1.561377E+0	1.503142E+0	1.454670E+0	1.354428E+0	1.505524E+0	1.643235E+0	1.567192E+0	1.596161E+0	1.540510E+0	1.456639E+0	1.451480E+0	1.572982E+0	1.587411E+0	1.330266E+0	1.394552E+0	1.459111E+0	1.556623E+0	1.434668E+0	1.427658E+0	1.588408E+0	1.573605E+0	1.543939E+0	1.557421E+0	1.525248E+0	1.523525E+0	1.444503E+0	1.445631E+0	1.544680E+0	1.541410E+0	1.405232E+0	1.340154E+0	1.313815E+0	1.523118E+0	1.511339E+0	1.472424E+0	1.397105E+0	1.534740E+0	1.572636E+0	1.551120E+0	1.546862E+0	1.519855E+0	1.448929E+0	1.475305E+0	1.555237E+0	1.537914E+0	1.380505E+0	1.458752E+0	1.313663E+0	1.507941E+0	1.407958E+0	1.469276E+0	1.379427E+0	1.548695E+0	1.535210E+0	1.499383E+0	1.497075E+0	1.290899E+0	1.436162E+0	1.527977E+0	1.449464E+0	1.504894E+0	1.250478E+0	1.417011E+0	1.321342E+0	1.544381E+0	1.393385E+0	1.444852E+0	1.479755E+0	1.590271E+0	1.532823E+0	1.567719E+0	1.589549E+0	1.584733E+0	1.432934E+0	1.556484E+0	1.464618E+0	1.579638E+0	1.301955E+0	1.349337E+0	1.341704E+0	1.528483E+0	1.408473E+0	1.146221E+0	1.253419E+0	1.583932E+0	1.510260E+0	1.475590E+0	1.449637E+0	1.588494E+0	1.493381E+0	1.578494E+0	1.469424E+0	1.560207E+0	1.334964E+0	1.497697E+0	1.396357E+0	1.637624E+0	1.445622E+0	1.502717E+0	1.489640E+0	1.584739E+0	1.548557E+0	1.567690E+0	1.552719E+0	1.561504E+0	1.427813E+0	1.465860E+0	1.619566E+0	1.585745E+0	1.313705E+0	1.347221E+0	1.404149E+0	1.542339E+0	1.428129E+0	1.425685E+0	1.500294E+0	1.548561E+0	1.508169E+0	1.538266E+0	1.580857E+0	1.615065E+0	1.430290E+0
5.450150E+2	1.219158E+0	1.478714E+0	1.470346E+0	1.363656E+0	1.322349E+0	1.488261E+0	1.550914E+0	1.476116E+0	1.497513E+0	1.427328E+0	1.339486E+0	1.474897E+0	1.542345E+0	1.250983E+0	1.255423E+0	1.340324E+0	1.457356E+0	1.368281E+0	1.397601E+0	1.353233E+0	1.436918E+0	1.442003E+0	1.480435E+0	1.450728E+0	1.501303E+0	1.490983E+0	1.396689E+0	1.356775E+0	1.478274E+0	1.388453E+0	1.280139E+0	1.255864E+0	1.425440E+0	1.392670E+0	1.357706E+0	1.301108E+0	1.505805E+0	1.469567E+0	1.429131E+0	1.450407E+0	1.412275E+0	1.383401E+0	1.361392E+0	1.400019E+0	1.517657E+0	1.259921E+0	1.260603E+0	1.238849E+0	1.470271E+0	1.409194E+0	1.353270E+0	1.301649E+0	1.425591E+0	1.469016E+0	1.466002E+0	1.479872E+0	1.480797E+0	1.384164E+0	1.354280E+0	1.471059E+0	1.484946E+0	1.271182E+0	1.279103E+0	1.398033E+0	1.492290E+0	1.356772E+0	1.323749E+0	1.427250E+0	1.479299E+0	1.465381E+0	1.473605E+0	1.469367E+0	1.497384E+0	1.381848E+0	1.358780E+0	1.435935E+0	1.514128E+0	1.339693E+0	1.238693E+0	1.271538E+0	1.480998E+0	1.363820E+0	1.337274E+0	1.346595E+0	1.532572E+0	1.419251E+0	1.449439E+0	1.461505E+0	1.462475E+0	1.378600E+0	1.432611E+0	1.454677E+0	1.530134E+0	1.262703E+0	1.371217E+0	1.279934E+0	1.508529E+0	1.303489E+0	1.426950E+0	1.271115E+0	1.457065E+0	1.447512E+0	1.477061E+0	1.448292E+0	1.199827E+0	1.317924E+0	1.445098E+0	1.416840E+0	1.438902E+0	1.234206E+0	1.366029E+0	1.365207E+0	1.527571E+0	1.291843E+0	1.399898E+0	1.379641E+0	1.389104E+0	1.388135E+0	1.499591E+0	1.458770E+0	1.427050E+0	1.382966E+0	1.345013E+0	1.396192E+0	1.438002E+0	1.200851E+0	1.256420E+0	1.262391E+0	1.464383E+0	1.345877E+0	1.065489E+0	1.167129E+0	1.492872E+0	1.449358E+0	1.388438E+0	1.396246E+0	1.494885E+0	1.383689E+0	1.512839E+0	1.416072E+0	1.478903E+0	1.305000E+0	1.385993E+0	1.263168E+0	1.480170E+0	1.376230E+0	1.443275E+0	1.385157E+0	1.510766E+0	1.498726E+0	1.442193E+0	1.449025E+0	1.479314E+0	1.327739E+0	1.404515E+0	1.466499E+0	1.505738E+0	1.247010E+0	1.231061E+0	1.318661E+0	1.514070E+0	1.315086E+0	1.318058E+0	1.329232E+0	1.466111E+0	1.410365E+0	1.456161E+0	1.451361E+0	1.522930E+0	1.366129E+0
5.452690E+2	1.139528E+0	1.372387E+0	1.383824E+0	1.252436E+0	1.282602E+0	1.373059E+0	1.364990E+0	1.341926E+0	1.346634E+0	1.377384E+0	1.328995E+0	1.383175E+0	1.430110E+0	1.254828E+0	1.219512E+0	1.231600E+0	1.372204E+0	1.279304E+0	1.294314E+0	1.277112E+0	1.389971E+0	1.417962E+0	1.335025E+0	1.365973E+0	1.406772E+0	1.403482E+0	1.321103E+0	1.345677E+0	1.394305E+0	1.218880E+0	1.227001E+0	1.187961E+0	1.377337E+0	1.339083E+0	1.280689E+0	1.266918E+0	1.422846E+0	1.360532E+0	1.352741E+0	1.409616E+0	1.452604E+0	1.371419E+0	1.261752E+0	1.339800E+0	1.372186E+0	1.202244E+0	1.204107E+0	1.177285E+0	1.364656E+0	1.271799E+0	1.288002E+0	1.264326E+0	1.353291E+0	1.328100E+0	1.349320E+0	1.368830E+0	1.347970E+0	1.313390E+0	1.296659E+0	1.434000E+0	1.415061E+0	1.221003E+0	1.186358E+0	1.323876E+0	1.384458E+0	1.313815E+0	1.310977E+0	1.309069E+0	1.390201E+0	1.384201E+0	1.417038E+0	1.382700E+0	1.370350E+0	1.254813E+0	1.277070E+0	1.368887E+0	1.431770E+0	1.254247E+0	1.268424E+0	1.248352E+0	1.419226E+0	1.326410E+0	1.298425E+0	1.292558E+0	1.405278E+0	1.438423E+0	1.305098E+0	1.359278E+0	1.393867E+0	1.312474E+0	1.357604E+0	1.370381E+0	1.442603E+0	1.209691E+0	1.250427E+0	1.159349E+0	1.430515E+0	1.267485E+0	1.272364E+0	1.210121E+0	1.362688E+0	1.348980E+0	1.381249E+0	1.389454E+0	1.149230E+0	1.344199E+0	1.396150E+0	1.300411E+0	1.370804E+0	1.173911E+0	1.243003E+0	1.212652E+0	1.445471E+0	1.323088E+0	1.328352E+0	1.328068E+0	1.423265E+0	1.358670E+0	1.343354E+0	1.388919E+0	1.380121E+0	1.273160E+0	1.296342E+0	1.374808E+0	1.364149E+0	1.153569E+0	1.205867E+0	1.195355E+0	1.375483E+0	1.268352E+0	9.677067E-1	1.016253E+0	1.424185E+0	1.371213E+0	1.371116E+0	1.300655E+0	1.400684E+0	1.350304E+0	1.374832E+0	1.300194E+0	1.404002E+0	1.154671E+0	1.283687E+0	1.181414E+0	1.423355E+0	1.322378E+0	1.324944E+0	1.295002E+0	1.387646E+0	1.334846E+0	1.385199E+0	1.394758E+0	1.351251E+0	1.267069E+0	1.323538E+0	1.347842E+0	1.423527E+0	1.155059E+0	1.217928E+0	1.297409E+0	1.399164E+0	1.272852E+0	1.313897E+0	1.268892E+0	1.445501E+0	1.273541E+0	1.310617E+0	1.427958E+0	1.425815E+0	1.235797E+0
5.455450E+2	1.097960E+0	1.350034E+0	1.316166E+0	1.230192E+0	1.171878E+0	1.308866E+0	1.366133E+0	1.347253E+0	1.362721E+0	1.371212E+0	1.217096E+0	1.324561E+0	1.343855E+0	1.350989E+0	1.120179E+0	1.204732E+0	1.316436E+0	1.309775E+0	1.230185E+0	1.211419E+0	1.264111E+0	1.328751E+0	1.287852E+0	1.355050E+0	1.322162E+0	1.350736E+0	1.235033E+0	1.312910E+0	1.347165E+0	1.297187E+0	1.140834E+0	1.155643E+0	1.288437E+0	1.321836E+0	1.247029E+0	1.148311E+0	1.258629E+0	1.318758E+0	1.276871E+0	1.317492E+0	1.362729E+0	1.359436E+0	1.192992E+0	1.245747E+0	1.339249E+0	1.270503E+0	1.124917E+0	1.097710E+0	1.311849E+0	1.354001E+0	1.246625E+0	1.143306E+0	1.264191E+0	1.275322E+0	1.273426E+0	1.345954E+0	1.343705E+0	1.283947E+0	1.272214E+0	1.294397E+0	1.334663E+0	1.170830E+0	1.155445E+0	1.244871E+0	1.306647E+0	1.208427E+0	1.223321E+0	1.319811E+0	1.294332E+0	1.314026E+0	1.291567E+0	1.339605E+0	1.327194E+0	1.218601E+0	1.222216E+0	1.295076E+0	1.365367E+0	1.132391E+0	1.173098E+0	1.125609E+0	1.372050E+0	1.253183E+0	1.282008E+0	1.244396E+0	1.339195E+0	1.299951E+0	1.291710E+0	1.301007E+0	1.388254E+0	1.309326E+0	1.319524E+0	1.258380E+0	1.346812E+0	1.165513E+0	1.186366E+0	1.148721E+0	1.309942E+0	1.191347E+0	1.217156E+0	1.174207E+0	1.320439E+0	1.235492E+0	1.305031E+0	1.311000E+0	1.056028E+0	1.238529E+0	1.285462E+0	1.226166E+0	1.282115E+0	1.116003E+0	1.171516E+0	1.164399E+0	1.325877E+0	1.241072E+0	1.272002E+0	1.189123E+0	1.352232E+0	1.343936E+0	1.333111E+0	1.346901E+0	1.321305E+0	1.209002E+0	1.257739E+0	1.291722E+0	1.312046E+0	1.080633E+0	1.140871E+0	1.180249E+0	1.359156E+0	1.185659E+0	9.516608E-1	1.041134E+0	1.349777E+0	1.318399E+0	1.263396E+0	1.251845E+0	1.308851E+0	1.235841E+0	1.350715E+0	1.256597E+0	1.359163E+0	1.097738E+0	1.246084E+0	1.182790E+0	1.414696E+0	1.251318E+0	1.279813E+0	1.259179E+0	1.362811E+0	1.302734E+0	1.344648E+0	1.271199E+0	1.302192E+0	1.222037E+0	1.219864E+0	1.325298E+0	1.328075E+0	1.115144E+0	1.130556E+0	1.239314E+0	1.295317E+0	1.196456E+0	1.237192E+0	1.241945E+0	1.296066E+0	1.295333E+0	1.290713E+0	1.385053E+0	1.313759E+0	1.265874E+0
5.457780E+2	1.008314E+0	1.230416E+0	1.254364E+0	1.187612E+0	1.172446E+0	1.234357E+0	1.253432E+0	1.253269E+0	1.253445E+0	1.217453E+0	1.157649E+0	1.256717E+0	1.260536E+0	1.273100E+0	1.034837E+0	1.128328E+0	1.273861E+0	1.299415E+0	1.153002E+0	1.117049E+0	1.213164E+0	1.292959E+0	1.230468E+0	1.233161E+0	1.219462E+0	1.334603E+0	1.226759E+0	1.167051E+0	1.233243E+0	1.236702E+0	1.116422E+0	1.082834E+0	1.263472E+0	1.253465E+0	1.135210E+0	1.161668E+0	1.281766E+0	1.202127E+0	1.252966E+0	1.282658E+0	1.263059E+0	1.251043E+0	1.170849E+0	1.233703E+0	1.283258E+0	1.320775E+0	1.110431E+0	1.084306E+0	1.252079E+0	1.260642E+0	1.162707E+0	1.101189E+0	1.269284E+0	1.299406E+0	1.239868E+0	1.259690E+0	1.250483E+0	1.259036E+0	1.136020E+0	1.269072E+0	1.318374E+0	1.298845E+0	1.082021E+0	1.159564E+0	1.268048E+0	1.235347E+0	1.183846E+0	1.258332E+0	1.236497E+0	1.306169E+0	1.228830E+0	1.242997E+0	1.259118E+0	1.249641E+0	1.185646E+0	1.270846E+0	1.246460E+0	1.273184E+0	1.108917E+0	1.066964E+0	1.293430E+0	1.250511E+0	1.154520E+0	1.125751E+0	1.344071E+0	1.296756E+0	1.253019E+0	1.246827E+0	1.261643E+0	1.247398E+0	1.227788E+0	1.204789E+0	1.305473E+0	1.182202E+0	1.121326E+0	1.083579E+0	1.209464E+0	1.193118E+0	1.230037E+0	1.113782E+0	1.293553E+0	1.212795E+0	1.284887E+0	1.223996E+0	1.023008E+0	1.207113E+0	1.244298E+0	1.183419E+0	1.236186E+0	1.061447E+0	1.142145E+0	1.105912E+0	1.234728E+0	1.123354E+0	1.169432E+0	1.223708E+0	1.262223E+0	1.238710E+0	1.211711E+0	1.272322E+0	1.316927E+0	1.145463E+0	1.223614E+0	1.231850E+0	1.249832E+0	1.070572E+0	1.101874E+0	1.123594E+0	1.213413E+0	1.156946E+0	9.336082E-1	1.023135E+0	1.237383E+0	1.199296E+0	1.216845E+0	1.194894E+0	1.250198E+0	1.216765E+0	1.274341E+0	1.202100E+0	1.322207E+0	1.061280E+0	1.198525E+0	1.087723E+0	1.297820E+0	1.198579E+0	1.217620E+0	1.209624E+0	1.330411E+0	1.291664E+0	1.261898E+0	1.257631E+0	1.272246E+0	1.131971E+0	1.192872E+0	1.280801E+0	1.255793E+0	1.093419E+0	1.099242E+0	1.150050E+0	1.287944E+0	1.135587E+0	1.176540E+0	1.129467E+0	1.241101E+0	1.201077E+0	1.217320E+0	1.253998E+0	1.252749E+0	1.229781E+0
5.460220E+2	1.035858E+0	1.232832E+0	1.258919E+0	1.178079E+0	1.181531E+0	1.227480E+0	1.236271E+0	1.205795E+0	1.174676E+0	1.229798E+0	1.108111E+0	1.201357E+0	1.253675E+0	1.241845E+0	1.068882E+0	1.096426E+0	1.236683E+0	1.248222E+0	1.174567E+0	1.145203E+0	1.257618E+0	1.219240E+0	1.226089E+0	1.199088E+0	1.185034E+0	1.258895E+0	1.219033E+0	1.203517E+0	1.215074E+0	1.240482E+0	1.093443E+0	1.060745E+0	1.194057E+0	1.250385E+0	1.142626E+0	1.135489E+0	1.256373E+0	1.221114E+0	1.282068E+0	1.260658E+0	1.254417E+0	1.248866E+0	1.120154E+0	1.167751E+0	1.262946E+0	1.251984E+0	1.029793E+0	1.029025E+0	1.230028E+0	1.294111E+0	1.135318E+0	1.095324E+0	1.168983E+0	1.210244E+0	1.200629E+0	1.268269E+0	1.244999E+0	1.204680E+0	1.179089E+0	1.246834E+0	1.254271E+0	1.200372E+0	1.085402E+0	1.169258E+0	1.223935E+0	1.245084E+0	1.176880E+0	1.167008E+0	1.211487E+0	1.295171E+0	1.212890E+0	1.232579E+0	1.234196E+0	1.200782E+0	1.151363E+0	1.142946E+0	1.251608E+0	1.307166E+0	1.073523E+0	1.052871E+0	1.223231E+0	1.279375E+0	1.114576E+0	1.098733E+0	1.211903E+0	1.258941E+0	1.247066E+0	1.203381E+0	1.240437E+0	1.247923E+0	1.226633E+0	1.162639E+0	1.278729E+0	1.272028E+0	1.167296E+0	1.073415E+0	1.195279E+0	1.252139E+0	1.169921E+0	1.104661E+0	1.287518E+0	1.230332E+0	1.222824E+0	1.178734E+0	9.612282E-1	1.197403E+0	1.252642E+0	1.150234E+0	1.237241E+0	1.177260E+0	1.104461E+0	1.130283E+0	1.258000E+0	1.184167E+0	1.167532E+0	1.130269E+0	1.223724E+0	1.277118E+0	1.215295E+0	1.270220E+0	1.226197E+0	1.166438E+0	1.163751E+0	1.164647E+0	1.248316E+0	1.044416E+0	1.062877E+0	1.092909E+0	1.246069E+0	1.185659E+0	9.015162E-1	9.860774E-1	1.276927E+0	1.228937E+0	1.198982E+0	1.160321E+0	1.224129E+0	1.157744E+0	1.228785E+0	1.143013E+0	1.247804E+0	1.071767E+0	1.165898E+0	1.071187E+0	1.306477E+0	1.185255E+0	1.181295E+0	1.144545E+0	1.217556E+0	1.194774E+0	1.255869E+0	1.216930E+0	1.231470E+0	1.059418E+0	1.143182E+0	1.216727E+0	1.278416E+0	1.058052E+0	1.086111E+0	1.142966E+0	1.227725E+0	1.071614E+0	1.131945E+0	1.137668E+0	1.285761E+0	1.209694E+0	1.199283E+0	1.204851E+0	1.251504E+0	1.115492E+0
5.467710E+2	1.075925E+0	1.323452E+0	1.273229E+0	1.230193E+0	1.224685E+0	1.271613E+0	1.333524E+0	1.309468E+0	1.300039E+0	1.369529E+0	1.242739E+0	1.266486E+0	1.306116E+0	1.353393E+0	1.172878E+0	1.151838E+0	1.317636E+0	1.319526E+0	1.205214E+0	1.246349E+0	1.264611E+0	1.320205E+0	1.318978E+0	1.348060E+0	1.325663E+0	1.361286E+0	1.228414E+0	1.297055E+0	1.341764E+0	1.332830E+0	1.143228E+0	1.146236E+0	1.284175E+0	1.329843E+0	1.251593E+0	1.214026E+0	1.339327E+0	1.338288E+0	1.293499E+0	1.304198E+0	1.288408E+0	1.306602E+0	1.272240E+0	1.297363E+0	1.338702E+0	1.321834E+0	1.107052E+0	1.131214E+0	1.301984E+0	1.389817E+0	1.219235E+0	1.241936E+0	1.295758E+0	1.364482E+0	1.318343E+0	1.380743E+0	1.294352E+0	1.343967E+0	1.188402E+0	1.344431E+0	1.373548E+0	1.312914E+0	1.146748E+0	1.226939E+0	1.315837E+0	1.338443E+0	1.259313E+0	1.275642E+0	1.337057E+0	1.277365E+0	1.342989E+0	1.337237E+0	1.290116E+0	1.333563E+0	1.246786E+0	1.283244E+0	1.311319E+0	1.334354E+0	1.140063E+0	1.156975E+0	1.356326E+0	1.299684E+0	1.224557E+0	1.224426E+0	1.378197E+0	1.272257E+0	1.333868E+0	1.291808E+0	1.385135E+0	1.319823E+0	1.280291E+0	1.269219E+0	1.315200E+0	1.350071E+0	1.163871E+0	1.147338E+0	1.335947E+0	1.278699E+0	1.244760E+0	1.182758E+0	1.324278E+0	1.324735E+0	1.306120E+0	1.289371E+0	1.122069E+0	1.379612E+0	1.352208E+0	1.195231E+0	1.307982E+0	1.334226E+0	1.211417E+0	1.201930E+0	1.347857E+0	1.335360E+0	1.251741E+0	1.305012E+0	1.361994E+0	1.346043E+0	1.267032E+0	1.344802E+0	1.338825E+0	1.270075E+0	1.252146E+0	1.276449E+0	1.291310E+0	1.318051E+0	1.114872E+0	1.156170E+0	1.306543E+0	1.332669E+0	9.822486E-1	9.950764E-1	1.319077E+0	1.356125E+0	1.246076E+0	1.242182E+0	1.355657E+0	1.337190E+0	1.323917E+0	1.180301E+0	1.349312E+0	1.279029E+0	1.222858E+0	1.208510E+0	1.355716E+0	1.305724E+0	1.292471E+0	1.284256E+0	1.351470E+0	1.305503E+0	1.332042E+0	1.314807E+0	1.363994E+0	1.218909E+0	1.187964E+0	1.280801E+0	1.299381E+0	1.150005E+0	1.184595E+0	1.210032E+0	1.316209E+0	1.195214E+0	1.252057E+0	1.247217E+0	1.371642E+0	1.287734E+0	1.269566E+0	1.282081E+0	1.329945E+0	1.185671E+0
5.475120E+2	1.158058E+0	1.421926E+0	1.502873E+0	1.376366E+0	1.335977E+0	1.428653E+0	1.439360E+0	1.427187E+0	1.344416E+0	1.477272E+0	1.347645E+0	1.493896E+0	1.483041E+0	1.463018E+0	1.261485E+0	1.319755E+0	1.434570E+0	1.431662E+0	1.347092E+0	1.302658E+0	1.416440E+0	1.475124E+0	1.416726E+0	1.427134E+0	1.473292E+0	1.506494E+0	1.366897E+0	1.378969E+0	1.412472E+0	1.394934E+0	1.254768E+0	1.220685E+0	1.446753E+0	1.467815E+0	1.368547E+0	1.262645E+0	1.472509E+0	1.454376E+0	1.459269E+0	1.458658E+0	1.437047E+0	1.458567E+0	1.275736E+0	1.348403E+0	1.452883E+0	1.411791E+0	1.232598E+0	1.232149E+0	1.432550E+0	1.496682E+0	1.320053E+0	1.287785E+0	1.398094E+0	1.436220E+0	1.433992E+0	1.423634E+0	1.419258E+0	1.470229E+0	1.414809E+0	1.430910E+0	1.451317E+0	1.426394E+0	1.267991E+0	1.398522E+0	1.436537E+0	1.435240E+0	1.322587E+0	1.392631E+0	1.452723E+0	1.387870E+0	1.437091E+0	1.445214E+0	1.437212E+0	1.392771E+0	1.376491E+0	1.390296E+0	1.493028E+0	1.465433E+0	1.237751E+0	1.220166E+0	1.459659E+0	1.424220E+0	1.345479E+0	1.330150E+0	1.428031E+0	1.483695E+0	1.382973E+0	1.412947E+0	1.456237E+0	1.439482E+0	1.409532E+0	1.341476E+0	1.470321E+0	1.470327E+0	1.291505E+0	1.230038E+0	1.482525E+0	1.436876E+0	1.362539E+0	1.262566E+0	1.441700E+0	1.497551E+0	1.451474E+0	1.427170E+0	1.162546E+0	1.475572E+0	1.386139E+0	1.354406E+0	1.398255E+0	1.455302E+0	1.305072E+0	1.291125E+0	1.419615E+0	1.499385E+0	1.382170E+0	1.366900E+0	1.475862E+0	1.459690E+0	1.434533E+0	1.470327E+0	1.467722E+0	1.471182E+0	1.347250E+0	1.415742E+0	1.433954E+0	1.511208E+0	1.220310E+0	1.253424E+0	1.413584E+0	1.411918E+0	1.072007E+0	1.143307E+0	1.502756E+0	1.402471E+0	1.375988E+0	1.375401E+0	1.451636E+0	1.403960E+0	1.390911E+0	1.343793E+0	1.483337E+0	1.492781E+0	1.397605E+0	1.281537E+0	1.424435E+0	1.439515E+0	1.406398E+0	1.358887E+0	1.458926E+0	1.442253E+0	1.450962E+0	1.441273E+0	1.416875E+0	1.411550E+0	1.397767E+0	1.435056E+0	1.496358E+0	1.410203E+0	1.203787E+0	1.289849E+0	1.367213E+0	1.433718E+0	1.348978E+0	1.315172E+0	1.445503E+0	1.426075E+0	1.382767E+0	1.436540E+0	1.456942E+0	1.502473E+0
5.482600E+2	1.247705E+0	1.461195E+0	1.513283E+0	1.516821E+0	1.411495E+0	1.597155E+0	1.524599E+0	1.557987E+0	1.512490E+0	1.519361E+0	1.419331E+0	1.521575E+0	1.578120E+0	1.531296E+0	1.317447E+0	1.364254E+0	1.517321E+0	1.574877E+0	1.418600E+0	1.362616E+0	1.450407E+0	1.604934E+0	1.550463E+0	1.476503E+0	1.493134E+0	1.570411E+0	1.457930E+0	1.477270E+0	1.569604E+0	1.501864E+0	1.376839E+0	1.279589E+0	1.597758E+0	1.527565E+0	1.414186E+0	1.393005E+0	1.552077E+0	1.494521E+0	1.481095E+0	1.485243E+0	1.479104E+0	1.526107E+0	1.435396E+0	1.490634E+0	1.547303E+0	1.524500E+0	1.290058E+0	1.294970E+0	1.498123E+0	1.616465E+0	1.373085E+0	1.346964E+0	1.502466E+0	1.480291E+0	1.550161E+0	1.555169E+0	1.485672E+0	1.443619E+0	1.427615E+0	1.522947E+0	1.574799E+0	1.577857E+0	1.327407E+0	1.429538E+0	1.529053E+0	1.556666E+0	1.384122E+0	1.557372E+0	1.510559E+0	1.484762E+0	1.514225E+0	1.537564E+0	1.570325E+0	1.511179E+0	1.407920E+0	1.490026E+0	1.504350E+0	1.568841E+0	1.352426E+0	1.271992E+0	1.543338E+0	1.503320E+0	1.407310E+0	1.438808E+0	1.541782E+0	1.515648E+0	1.460352E+0	1.495752E+0	1.479938E+0	1.538142E+0	1.544542E+0	1.463712E+0	1.552502E+0	1.536592E+0	1.356056E+0	1.302574E+0	1.538675E+0	1.531311E+0	1.462530E+0	1.336103E+0	1.541566E+0	1.516122E+0	1.524424E+0	1.485003E+0	1.299952E+0	1.492136E+0	1.489041E+0	1.376906E+0	1.430456E+0	1.542878E+0	1.389304E+0	1.375932E+0	1.504947E+0	1.530070E+0	1.385336E+0	1.443956E+0	1.538759E+0	1.548607E+0	1.536987E+0	1.531253E+0	1.480865E+0	1.535339E+0	1.453549E+0	1.478669E+0	1.542707E+0	1.516238E+0	1.285788E+0	1.321406E+0	1.487964E+0	1.535383E+0	1.112123E+0	1.234361E+0	1.512122E+0	1.507561E+0	1.433366E+0	1.421161E+0	1.564206E+0	1.520210E+0	1.483363E+0	1.530231E+0	1.549363E+0	1.539729E+0	1.407005E+0	1.358695E+0	1.554298E+0	1.543884E+0	1.463089E+0	1.396502E+0	1.585282E+0	1.492638E+0	1.463564E+0	1.454359E+0	1.465298E+0	1.475347E+0	1.443163E+0	1.519893E+0	1.508496E+0	1.529943E+0	1.331566E+0	1.403675E+0	1.439105E+0	1.482165E+0	1.423901E+0	1.414177E+0	1.572607E+0	1.520836E+0	1.462381E+0	1.468523E+0	1.509234E+0	1.578668E+0
5.490100E+2	1.244700E+0	1.466028E+0	1.419604E+0	1.467885E+0	1.308721E+0	1.539269E+0	1.509152E+0	1.528440E+0	1.473107E+0	1.501965E+0	1.379117E+0	1.442337E+0	1.490394E+0	1.500519E+0	1.296459E+0	1.299188E+0	1.414782E+0	1.479197E+0	1.348795E+0	1.318822E+0	1.416442E+0	1.491683E+0	1.470710E+0	1.474756E+0	1.451119E+0	1.611369E+0	1.336553E+0	1.452956E+0	1.468450E+0	1.479182E+0	1.307902E+0	1.257909E+0	1.497901E+0	1.487529E+0	1.389655E+0	1.335837E+0	1.475896E+0	1.514048E+0	1.460308E+0	1.493034E+0	1.472768E+0	1.466192E+0	1.379456E+0	1.405180E+0	1.441903E+0	1.450420E+0	1.283781E+0	1.249319E+0	1.447057E+0	1.448532E+0	1.351524E+0	1.313907E+0	1.435263E+0	1.480799E+0	1.429347E+0	1.511801E+0	1.461910E+0	1.454373E+0	1.395602E+0	1.541480E+0	1.497556E+0	1.455466E+0	1.260264E+0	1.350048E+0	1.569488E+0	1.523446E+0	1.330133E+0	1.464255E+0	1.429797E+0	1.477428E+0	1.486458E+0	1.478367E+0	1.437212E+0	1.472094E+0	1.358207E+0	1.461294E+0	1.483245E+0	1.519321E+0	1.297209E+0	1.279266E+0	1.493355E+0	1.538598E+0	1.320858E+0	1.391820E+0	1.465407E+0	1.507660E+0	1.414223E+0	1.545838E+0	1.536693E+0	1.491961E+0	1.402030E+0	1.425174E+0	1.526242E+0	1.511071E+0	1.326715E+0	1.276239E+0	1.484298E+0	1.496487E+0	1.420818E+0	1.280236E+0	1.527297E+0	1.393862E+0	1.499927E+0	1.463883E+0	1.211010E+0	1.441870E+0	1.425074E+0	1.350469E+0	1.425707E+0	1.498374E+0	1.315600E+0	1.316468E+0	1.460986E+0	1.469256E+0	1.429657E+0	1.372360E+0	1.519241E+0	1.461268E+0	1.451953E+0	1.433564E+0	1.459589E+0	1.463778E+0	1.375225E+0	1.398637E+0	1.488079E+0	1.504667E+0	1.282417E+0	1.280332E+0	1.415397E+0	1.465897E+0	1.068497E+0	1.144894E+0	1.488710E+0	1.468223E+0	1.388982E+0	1.341333E+0	1.454005E+0	1.450459E+0	1.437807E+0	1.468279E+0	1.471018E+0	1.490288E+0	1.310785E+0	1.319657E+0	1.473675E+0	1.468384E+0	1.469691E+0	1.396503E+0	1.490785E+0	1.523640E+0	1.496446E+0	1.497964E+0	1.411778E+0	1.482851E+0	1.375680E+0	1.452262E+0	1.494151E+0	1.485483E+0	1.281567E+0	1.327636E+0	1.509157E+0	1.505145E+0	1.348384E+0	1.362040E+0	1.482143E+0	1.479789E+0	1.392720E+0	1.469304E+0	1.419589E+0	1.482423E+0
5.497740E+2	1.144536E+0	1.397760E+0	1.370812E+0	1.394162E+0	1.253076E+0	1.405155E+0	1.457092E+0	1.417013E+0	1.370486E+0	1.390293E+0	1.330161E+0	1.407599E+0	1.396784E+0	1.422629E+0	1.219512E+0	1.283653E+0	1.446562E+0	1.484682E+0	1.295449E+0	1.286496E+0	1.406452E+0	1.439332E+0	1.359341E+0	1.367720E+0	1.427194E+0	1.445062E+0	1.303449E+0	1.387955E+0	1.379573E+0	1.387915E+0	1.191577E+0	1.210459E+0	1.393777E+0	1.422235E+0	1.318913E+0	1.318207E+0	1.420024E+0	1.481500E+0	1.389633E+0	1.362406E+0	1.412850E+0	1.430245E+0	1.208725E+0	1.380522E+0	1.401830E+0	1.412318E+0	1.234047E+0	1.151317E+0	1.413980E+0	1.415067E+0	1.305484E+0	1.271259E+0	1.372641E+0	1.409574E+0	1.383914E+0	1.412674E+0	1.392449E+0	1.388696E+0	1.324596E+0	1.408672E+0	1.431873E+0	1.417483E+0	1.235629E+0	1.350049E+0	1.399774E+0	1.446695E+0	1.302270E+0	1.321005E+0	1.381864E+0	1.419293E+0	1.392356E+0	1.426270E+0	1.392232E+0	1.422084E+0	1.251356E+0	1.349729E+0	1.365882E+0	1.411544E+0	1.219346E+0	1.176523E+0	1.427086E+0	1.400165E+0	1.311011E+0	1.290796E+0	1.398780E+0	1.338296E+0	1.379007E+0	1.404768E+0	1.448127E+0	1.385423E+0	1.361067E+0	1.336056E+0	1.413427E+0	1.440388E+0	1.247493E+0	1.151956E+0	1.390912E+0	1.415039E+0	1.274205E+0	1.186748E+0	1.448286E+0	1.380449E+0	1.347495E+0	1.327597E+0	1.170534E+0	1.391606E+0	1.370563E+0	1.363968E+0	1.377139E+0	1.380644E+0	1.302299E+0	1.215090E+0	1.410562E+0	1.394498E+0	1.351779E+0	1.285596E+0	1.461765E+0	1.416545E+0	1.398165E+0	1.419907E+0	1.358849E+0	1.422447E+0	1.324314E+0	1.371755E+0	1.447108E+0	1.440286E+0	1.241013E+0	1.251533E+0	1.350085E+0	1.411919E+0	1.160263E+0	1.055956E+0	1.413260E+0	1.406246E+0	1.336472E+0	1.354552E+0	1.388242E+0	1.400380E+0	1.360094E+0	1.313390E+0	1.428642E+0	1.344455E+0	1.329032E+0	1.238365E+0	1.384937E+0	1.386776E+0	1.333198E+0	1.406650E+0	1.460006E+0	1.432289E+0	1.395064E+0	1.431099E+0	1.462112E+0	1.342749E+0	1.286730E+0	1.398865E+0	1.427389E+0	1.401106E+0	1.219444E+0	1.287017E+0	1.380731E+0	1.480300E+0	1.296653E+0	1.327475E+0	1.453516E+0	1.386041E+0	1.352913E+0	1.399095E+0	1.356091E+0	1.412245E+0
5.505170E+2	1.145538E+0	1.325869E+0	1.325924E+0	1.418948E+0	1.274085E+0	1.344976E+0	1.401029E+0	1.413138E+0	1.303921E+0	1.366162E+0	1.376202E+0	1.401629E+0	1.369339E+0	1.401954E+0	1.369212E+0	1.224883E+0	1.329029E+0	1.322573E+0	1.318150E+0	1.291189E+0	1.299070E+0	1.361339E+0	1.364205E+0	1.351556E+0	1.297654E+0	1.397899E+0	1.353104E+0	1.307627E+0	1.380554E+0	1.373872E+0	1.289235E+0	1.167099E+0	1.377946E+0	1.335386E+0	1.319483E+0	1.188381E+0	1.333683E+0	1.374093E+0	1.305971E+0	1.349116E+0	1.373674E+0	1.434058E+0	1.261169E+0	1.358725E+0	1.366148E+0	1.363105E+0	1.181413E+0	1.177702E+0	1.443574E+0	1.369854E+0	1.253619E+0	1.220611E+0	1.381295E+0	1.405475E+0	1.390624E+0	1.396947E+0	1.337612E+0	1.326413E+0	1.264065E+0	1.366669E+0	1.427147E+0	1.354651E+0	1.176215E+0	1.268619E+0	1.348922E+0	1.369374E+0	1.226804E+0	1.356222E+0	1.329239E+0	1.367971E+0	1.360987E+0	1.411117E+0	1.346038E+0	1.366327E+0	1.307353E+0	1.366634E+0	1.344265E+0	1.329014E+0	1.225479E+0	1.174707E+0	1.401815E+0	1.333358E+0	1.277632E+0	1.274938E+0	1.392281E+0	1.368122E+0	1.379501E+0	1.350587E+0	1.366424E+0	1.359181E+0	1.337986E+0	1.306552E+0	1.386196E+0	1.370196E+0	1.258741E+0	1.175983E+0	1.394462E+0	1.318243E+0	1.301810E+0	1.241473E+0	1.356103E+0	1.383545E+0	1.340418E+0	1.336143E+0	1.083722E+0	1.331633E+0	1.387252E+0	1.299848E+0	1.308511E+0	1.390697E+0	1.264063E+0	1.174148E+0	1.293554E+0	1.348751E+0	1.284665E+0	1.277101E+0	1.393442E+0	1.374453E+0	1.338749E+0	1.424634E+0	1.345709E+0	1.388518E+0	1.281796E+0	1.307606E+0	1.389442E+0	1.366845E+0	1.204902E+0	1.218015E+0	1.370646E+0	1.326354E+0	1.259549E+0	1.111013E+0	1.340411E+0	1.391155E+0	1.386813E+0	1.324554E+0	1.395349E+0	1.375342E+0	1.304488E+0	1.231356E+0	1.484815E+0	1.419866E+0	1.234468E+0	1.208972E+0	1.416320E+0	1.394550E+0	1.323293E+0	1.273509E+0	1.352550E+0	1.369728E+0	1.333137E+0	1.367137E+0	1.342331E+0	1.333368E+0	1.260352E+0	1.366827E+0	1.376075E+0	1.371804E+0	1.222980E+0	1.280877E+0	1.385032E+0	1.341173E+0	1.280598E+0	1.249560E+0	1.395689E+0	1.369318E+0	1.275786E+0	1.375692E+0	1.429550E+0	1.412244E+0
5.512620E+2	1.081934E+0	1.378428E+0	1.456684E+0	1.305821E+0	1.219007E+0	1.299124E+0	1.372998E+0	1.340471E+0	1.298929E+0	1.338104E+0	1.400680E+0	1.341928E+0	1.310527E+0	1.363490E+0	1.405120E+0	1.200953E+0	1.371604E+0	1.399972E+0	1.431085E+0	1.216633E+0	1.333033E+0	1.309519E+0	1.375876E+0	1.282528E+0	1.322162E+0	1.368112E+0	1.379034E+0	1.283843E+0	1.363369E+0	1.381974E+0	1.393115E+0	1.155644E+0	1.354807E+0	1.349553E+0	1.399923E+0	1.249286E+0	1.319010E+0	1.333407E+0	1.375605E+0	1.341325E+0	1.354088E+0	1.379588E+0	1.304872E+0	1.253202E+0	1.363953E+0	1.335062E+0	1.369729E+0	1.179376E+0	1.281674E+0	1.381597E+0	1.327048E+0	1.206218E+0	1.290668E+0	1.333740E+0	1.378234E+0	1.343094E+0	1.352236E+0	1.335471E+0	1.287928E+0	1.353079E+0	1.374599E+0	1.300722E+0	1.295045E+0	1.285102E+0	1.338507E+0	1.358491E+0	1.298787E+0	1.297129E+0	1.314130E+0	1.341784E+0	1.421666E+0	1.351447E+0	1.361234E+0	1.354255E+0	1.301068E+0	1.300710E+0	1.368970E+0	1.329014E+0	1.184897E+0	1.168342E+0	1.324317E+0	1.350994E+0	1.286935E+0	1.220902E+0	1.360320E+0	1.370254E+0	1.314523E+0	1.332185E+0	1.292828E+0	1.346064E+0	1.305102E+0	1.245736E+0	1.350699E+0	1.366269E+0	1.199082E+0	1.174594E+0	1.382048E+0	1.374903E+0	1.306717E+0	1.169077E+0	1.362139E+0	1.373225E+0	1.346405E+0	1.323573E+0	1.080527E+0	1.381325E+0	1.334408E+0	1.317847E+0	1.299007E+0	1.385432E+0	1.208091E+0	1.192181E+0	1.342039E+0	1.308582E+0	1.280233E+0	1.313506E+0	1.370669E+0	1.327099E+0	1.312110E+0	1.375263E+0	1.348211E+0	1.326828E+0	1.276762E+0	1.314937E+0	1.327731E+0	1.363324E+0	1.119207E+0	1.164194E+0	1.343433E+0	1.297067E+0	1.259549E+0	1.049604E+0	1.365388E+0	1.383610E+0	1.315363E+0	1.205573E+0	1.315961E+0	1.402170E+0	1.332626E+0	1.239961E+0	1.366554E+0	1.309493E+0	1.287003E+0	1.198866E+0	1.349222E+0	1.332925E+0	1.356317E+0	1.265150E+0	1.344450E+0	1.364744E+0	1.316697E+0	1.319654E+0	1.421973E+0	1.367768E+0	1.248083E+0	1.324705E+0	1.332486E+0	1.320774E+0	1.164899E+0	1.201057E+0	1.343247E+0	1.367259E+0	1.237786E+0	1.189220E+0	1.345304E+0	1.366782E+0	1.283873E+0	1.321866E+0	1.322474E+0	1.426280E+0
5.520150E+2	1.131515E+0	1.305328E+0	1.346092E+0	1.372553E+0	1.219574E+0	1.368474E+0	1.372996E+0	1.338533E+0	1.328885E+0	1.417228E+0	1.352889E+0	1.357123E+0	1.390904E+0	1.406762E+0	1.436367E+0	1.190041E+0	1.345220E+0	1.357311E+0	1.348793E+0	1.270855E+0	1.325542E+0	1.403008E+0	1.396300E+0	1.279908E+0	1.346668E+0	1.374318E+0	1.350346E+0	1.279616E+0	1.357968E+0	1.379272E+0	1.371094E+0	1.167917E+0	1.395605E+0	1.355097E+0	1.392509E+0	1.235397E+0	1.338199E+0	1.319302E+0	1.355339E+0	1.303739E+0	1.333922E+0	1.371420E+0	1.357317E+0	1.329479E+0	1.396888E+0	1.353054E+0	1.379388E+0	1.129121E+0	1.343185E+0	1.397453E+0	1.361428E+0	1.221144E+0	1.303396E+0	1.372683E+0	1.356032E+0	1.342617E+0	1.298617E+0	1.323582E+0	1.333909E+0	1.370375E+0	1.347277E+0	1.390756E+0	1.401314E+0	1.256019E+0	1.356887E+0	1.315534E+0	1.398053E+0	1.286983E+0	1.329760E+0	1.375303E+0	1.314705E+0	1.306927E+0	1.327194E+0	1.330113E+0	1.363921E+0	1.292259E+0	1.380810E+0	1.398438E+0	1.409528E+0	1.156976E+0	1.350150E+0	1.343512E+0	1.338915E+0	1.207980E+0	1.342989E+0	1.365459E+0	1.369581E+0	1.354165E+0	1.371414E+0	1.321922E+0	1.425687E+0	1.310767E+0	1.400298E+0	1.314729E+0	1.326226E+0	1.122386E+0	1.363135E+0	1.361329E+0	1.299356E+0	1.194728E+0	1.334706E+0	1.361880E+0	1.401390E+0	1.305972E+0	1.127395E+0	1.367617E+0	1.323839E+0	1.271162E+0	1.286338E+0	1.306471E+0	1.256305E+0	1.167326E+0	1.318767E+0	1.347075E+0	1.253641E+0	1.264360E+0	1.363078E+0	1.318685E+0	1.291108E+0	1.355831E+0	1.340077E+0	1.343484E+0	1.318161E+0	1.295387E+0	1.356057E+0	1.342701E+0	1.135094E+0	1.184969E+0	1.301705E+0	1.332669E+0	1.271584E+0	1.058075E+0	1.311790E+0	1.364207E+0	1.318610E+0	1.219809E+0	1.359803E+0	1.358054E+0	1.329276E+0	1.261187E+0	1.353744E+0	1.341457E+0	1.282579E+0	1.199786E+0	1.378983E+0	1.344029E+0	1.304027E+0	1.254403E+0	1.335813E+0	1.348135E+0	1.359991E+0	1.343878E+0	1.321943E+0	1.300219E+0	1.241335E+0	1.341317E+0	1.402006E+0	1.366752E+0	1.137626E+0	1.195390E+0	1.327271E+0	1.349868E+0	1.202109E+0	1.323960E+0	1.400843E+0	1.286212E+0	1.296933E+0	1.349949E+0	1.363561E+0	1.368134E+0
5.527650E+2	1.100965E+0	1.324661E+0	1.270628E+0	1.357936E+0	1.157115E+0	1.318037E+0	1.296338E+0	1.295903E+0	1.285063E+0	1.326879E+0	1.321419E+0	1.264316E+0	1.352676E+0	1.285119E+0	1.301125E+0	1.184582E+0	1.290651E+0	1.322574E+0	1.363550E+0	1.240614E+0	1.337032E+0	1.353859E+0	1.320923E+0	1.290827E+0	1.315160E+0	1.401001E+0	1.299033E+0	1.269575E+0	1.289221E+0	1.325810E+0	1.301201E+0	1.091424E+0	1.342629E+0	1.326763E+0	1.345156E+0	1.167011E+0	1.340457E+0	1.303028E+0	1.303894E+0	1.324365E+0	1.384622E+0	1.336560E+0	1.275736E+0	1.261231E+0	1.239340E+0	1.340883E+0	1.262534E+0	1.140846E+0	1.375102E+0	1.358697E+0	1.265856E+0	1.152903E+0	1.260628E+0	1.334762E+0	1.314729E+0	1.304965E+0	1.344924E+0	1.282817E+0	1.325179E+0	1.364816E+0	1.326781E+0	1.309630E+0	1.288767E+0	1.224513E+0	1.314000E+0	1.329281E+0	1.286596E+0	1.267882E+0	1.295894E+0	1.286266E+0	1.340418E+0	1.316875E+0	1.353937E+0	1.311720E+0	1.297070E+0	1.258452E+0	1.324704E+0	1.292116E+0	1.273143E+0	1.106060E+0	1.358013E+0	1.308236E+0	1.347668E+0	1.243221E+0	1.332696E+0	1.286636E+0	1.287738E+0	1.346497E+0	1.301560E+0	1.275739E+0	1.306832E+0	1.266208E+0	1.373067E+0	1.335836E+0	1.318890E+0	1.104831E+0	1.308759E+0	1.292274E+0	1.327574E+0	1.114922E+0	1.300684E+0	1.346916E+0	1.327895E+0	1.277810E+0	1.039518E+0	1.304787E+0	1.303259E+0	1.256539E+0	1.318540E+0	1.335663E+0	1.369909E+0	1.198520E+0	1.311655E+0	1.305232E+0	1.311258E+0	1.206112E+0	1.341390E+0	1.259756E+0	1.263960E+0	1.319065E+0	1.328189E+0	1.302770E+0	1.349488E+0	1.260564E+0	1.307494E+0	1.327609E+0	1.302155E+0	1.120764E+0	1.270259E+0	1.332094E+0	1.317214E+0	1.068662E+0	1.268602E+0	1.301152E+0	1.322398E+0	1.258456E+0	1.300557E+0	1.269226E+0	1.325257E+0	1.242829E+0	1.357192E+0	1.271539E+0	1.307467E+0	1.136407E+0	1.354094E+0	1.327932E+0	1.334302E+0	1.191116E+0	1.356871E+0	1.358100E+0	1.281076E+0	1.291065E+0	1.330863E+0	1.302721E+0	1.267100E+0	1.296227E+0	1.367247E+0	1.282378E+0	1.221971E+0	1.191140E+0	1.331572E+0	1.292727E+0	1.257408E+0	1.219098E+0	1.312097E+0	1.300401E+0	1.301910E+0	1.268820E+0	1.369786E+0	1.332041E+0
5.535270E+2	1.085940E+0	1.207458E+0	1.237450E+0	1.260063E+0	1.145191E+0	1.240662E+0	1.282035E+0	1.230984E+0	1.219050E+0	1.225870E+0	1.214765E+0	1.243148E+0	1.315428E+0	1.215400E+0	1.221379E+0	1.080895E+0	1.243879E+0	1.271990E+0	1.202376E+0	1.133733E+0	1.232643E+0	1.214431E+0	1.216850E+0	1.235345E+0	1.200789E+0	1.278752E+0	1.223449E+0	1.186605E+0	1.288732E+0	1.250204E+0	1.203066E+0	1.054200E+0	1.257992E+0	1.232523E+0	1.256157E+0	1.072446E+0	1.242264E+0	1.243897E+0	1.219708E+0	1.223071E+0	1.207751E+0	1.264116E+0	1.234364E+0	1.159721E+0	1.266238E+0	1.253043E+0	1.226320E+0	1.046195E+0	1.219002E+0	1.257119E+0	1.260611E+0	1.115051E+0	1.221933E+0	1.249704E+0	1.288916E+0	1.213938E+0	1.206613E+0	1.238652E+0	1.286765E+0	1.212243E+0	1.229572E+0	1.216785E+0	1.248670E+0	1.163924E+0	1.213519E+0	1.249666E+0	1.244219E+0	1.216550E+0	1.234411E+0	1.239658E+0	1.254542E+0	1.227840E+0	1.260333E+0	1.257688E+0	1.219359E+0	1.217321E+0	1.212488E+0	1.281435E+0	1.242939E+0	1.042416E+0	1.217053E+0	1.241961E+0	1.227840E+0	1.159230E+0	1.204319E+0	1.230716E+0	1.300636E+0	1.221781E+0	1.235447E+0	1.234277E+0	1.222594E+0	1.174682E+0	1.217459E+0	1.269080E+0	1.233801E+0	1.078034E+0	1.233106E+0	1.253321E+0	1.245374E+0	1.106941E+0	1.240878E+0	1.227754E+0	1.260389E+0	1.185273E+0	1.067213E+0	1.261947E+0	1.269885E+0	1.153608E+0	1.168086E+0	1.272013E+0	1.220837E+0	1.104451E+0	1.186890E+0	1.248883E+0	1.214385E+0	1.155145E+0	1.261681E+0	1.229240E+0	1.240907E+0	1.206670E+0	1.187402E+0	1.225658E+0	1.268928E+0	1.149985E+0	1.301929E+0	1.228012E+0	1.270863E+0	1.056558E+0	1.242441E+0	1.187381E+0	1.272585E+0	9.829009E-1	1.253512E+0	1.224626E+0	1.204936E+0	1.185234E+0	1.286930E+0	1.259688E+0	1.246873E+0	1.153339E+0	1.277862E+0	1.263548E+0	1.296958E+0	1.103338E+0	1.185812E+0	1.253539E+0	1.247340E+0	1.164846E+0	1.245095E+0	1.240726E+0	1.225180E+0	1.265384E+0	1.249309E+0	1.233295E+0	1.214956E+0	1.260630E+0	1.221585E+0	1.251557E+0	1.219949E+0	1.133992E+0	1.241858E+0	1.221300E+0	1.225893E+0	1.141769E+0	1.271447E+0	1.258343E+0	1.231625E+0	1.214213E+0	1.267691E+0	1.307982E+0
5.542580E+2	1.129011E+0	1.120464E+0	1.127508E+0	1.160283E+0	1.064561E+0	1.100816E+0	1.139589E+0	1.109389E+0	1.127526E+0	1.163581E+0	1.160564E+0	1.111262E+0	1.103214E+0	1.163956E+0	1.126241E+0	9.977747E-1	1.135341E+0	1.086722E+0	1.168325E+0	1.027894E+0	1.115771E+0	1.140710E+0	1.153141E+0	1.113023E+0	1.119096E+0	1.120511E+0	1.121931E+0	1.054486E+0	1.136017E+0	1.093050E+0	1.094402E+0	9.151207E-1	1.124033E+0	1.150601E+0	1.151754E+0	9.885669E-1	1.052087E+0	1.144624E+0	1.140721E+0	1.136907E+0	1.139768E+0	1.135571E+0	1.123068E+0	1.057637E+0	1.146020E+0	1.060430E+0	1.107535E+0	9.435847E-1	1.127897E+0	1.126182E+0	1.170284E+0	9.876311E-1	1.084466E+0	1.103661E+0	1.149517E+0	1.107659E+0	1.118874E+0	1.096537E+0	1.119723E+0	1.173327E+0	1.185434E+0	1.131439E+0	1.107138E+0	1.012214E+0	1.096497E+0	1.140841E+0	1.063681E+0	1.073297E+0	1.073934E+0	1.134911E+0	1.115187E+0	1.128863E+0	1.074338E+0	1.070300E+0	1.158220E+0	1.080404E+0	1.141453E+0	1.113458E+0	1.147615E+0	9.401284E-1	1.087326E+0	1.106736E+0	1.158350E+0	1.052920E+0	1.092193E+0	1.121003E+0	1.096773E+0	1.115465E+0	1.129418E+0	1.199638E+0	1.112970E+0	1.054253E+0	1.145006E+0	1.145387E+0	1.094429E+0	9.870175E-1	1.091257E+0	1.063271E+0	1.099990E+0	9.621488E-1	1.184910E+0	1.062677E+0	1.105234E+0	1.080164E+0	8.898621E-1	1.142569E+0	1.094672E+0	1.053490E+0	1.079925E+0	1.159072E+0	1.129399E+0	9.631036E-1	1.131295E+0	1.150134E+0	1.177662E+0	1.073841E+0	1.103349E+0	1.154528E+0	1.144606E+0	1.129465E+0	1.095422E+0	1.126339E+0	1.179975E+0	1.103553E+0	1.097070E+0	1.124395E+0	1.108134E+0	9.748841E-1	1.077347E+0	1.098371E+0	1.116133E+0	8.812579E-1	1.146321E+0	1.087738E+0	1.100465E+0	1.043881E+0	1.099119E+0	1.086801E+0	1.178539E+0	1.070732E+0	1.161571E+0	1.100734E+0	1.105622E+0	9.944888E-1	1.150100E+0	1.137512E+0	1.125156E+0	1.076482E+0	1.146280E+0	1.079615E+0	1.126537E+0	1.082713E+0	1.114238E+0	1.161993E+0	1.129072E+0	1.140786E+0	1.181858E+0	1.117670E+0	1.145202E+0	1.024890E+0	1.144770E+0	1.102669E+0	1.117079E+0	1.072641E+0	1.117430E+0	1.123545E+0	1.087948E+0	1.128403E+0	1.171820E+0	1.121509E+0
5.550250E+2	1.011819E+0	1.023198E+0	9.980487E-1	1.082747E+0	1.006076E+0	1.017710E+0	1.074942E+0	1.005232E+0	1.015477E+0	1.085017E+0	1.011365E+0	1.013569E+0	1.025289E+0	1.016347E+0	1.036236E+0	9.037420E-1	1.026205E+0	1.034920E+0	1.059362E+0	9.350888E-1	9.704321E-1	1.046156E+0	1.055391E+0	1.001617E+0	9.907214E-1	1.046045E+0	1.039724E+0	1.025420E+0	1.047140E+0	1.054167E+0	1.044614E+0	8.619443E-1	1.052792E+0	1.041577E+0	1.048493E+0	9.420858E-1	1.052087E+0	1.041554E+0	1.007691E+0	1.026905E+0	1.040674E+0	1.017375E+0	1.033331E+0	1.021506E+0	1.040622E+0	1.067837E+0	1.038484E+0	9.373036E-1	9.967509E-1	1.048676E+0	1.015851E+0	9.508447E-1	1.010641E+0	1.038073E+0	1.070525E+0	1.004242E+0	1.005545E+0	1.034255E+0	1.042313E+0	1.022608E+0	1.047764E+0	1.054067E+0	1.062700E+0	1.001066E+0	1.019911E+0	1.021707E+0	1.069487E+0	9.879429E-1	9.963002E-1	1.014978E+0	1.046795E+0	1.063981E+0	1.047593E+0	1.034661E+0	1.039941E+0	9.722222E-1	1.034900E+0	1.034324E+0	1.036714E+0	8.887578E-1	1.058124E+0	1.038857E+0	1.020464E+0	9.589445E-1	1.019067E+0	1.025138E+0	1.023362E+0	1.018350E+0	1.050208E+0	9.960110E-1	1.057004E+0	9.765764E-1	1.099296E+0	1.054091E+0	1.043083E+0	9.006204E-1	1.029197E+0	1.047335E+0	1.092015E+0	8.977330E-1	1.039506E+0	1.057519E+0	1.035550E+0	1.012271E+0	8.483202E-1	1.066029E+0	1.032373E+0	9.983690E-1	1.040860E+0	1.032733E+0	1.025215E+0	8.899940E-1	9.994180E-1	1.041341E+0	1.011777E+0	9.731217E-1	1.080576E+0	1.095074E+0	1.029864E+0	9.971112E-1	1.027844E+0	1.076371E+0	1.002070E+0	9.575398E-1	1.023218E+0	1.033852E+0	1.020028E+0	9.021810E-1	1.008406E+0	1.041519E+0	1.041921E+0	8.224956E-1	1.030804E+0	1.067797E+0	1.006820E+0	9.742207E-1	1.071274E+0	9.943959E-1	1.043881E+0	9.858306E-1	1.092095E+0	1.054787E+0	1.066359E+0	9.297304E-1	1.104648E+0	1.059790E+0	1.062413E+0	9.594602E-1	1.055024E+0	1.005980E+0	1.082147E+0	9.862873E-1	1.010385E+0	1.057542E+0	1.057911E+0	1.041709E+0	1.101854E+0	1.043905E+0	1.045707E+0	9.531007E-1	1.061816E+0	1.041179E+0	1.047510E+0	9.648503E-1	1.025822E+0	1.052601E+0	1.067422E+0	1.058195E+0	1.007471E+0	9.991986E-1
5.557600E+2	9.772628E-1	1.005075E+0	9.752792E-1	9.829676E-1	9.572434E-1	9.816023E-1	1.022883E+0	9.955430E-1	9.622248E-1	1.028339E+0	9.997085E-1	9.511533E-1	9.846116E-1	1.005289E+0	9.835378E-1	8.634418E-1	9.680381E-1	1.036140E+0	1.005448E+0	9.319603E-1	9.739289E-1	1.024253E+0	9.790394E-1	9.657926E-1	9.574608E-1	1.051630E+0	9.851030E-1	9.376926E-1	9.484412E-1	1.019064E+0	9.775969E-1	8.116308E-1	9.559760E-1	9.959967E-1	1.011410E+0	9.057562E-1	9.838041E-1	9.428230E-1	1.000415E+0	9.719039E-1	1.003227E+0	1.023911E+0	9.855489E-1	9.503921E-1	1.019762E+0	9.540690E-1	9.684691E-1	8.405581E-1	9.770201E-1	1.046915E+0	9.989511E-1	8.820706E-1	9.276511E-1	9.699207E-1	1.021994E+0	1.000429E+0	9.470523E-1	9.776353E-1	9.672319E-1	9.768972E-1	1.017813E+0	1.008581E+0	1.019225E+0	9.419332E-1	9.641578E-1	9.455308E-1	9.702194E-1	9.342231E-1	9.879643E-1	1.002933E+0	9.542339E-1	9.219065E-1	9.418310E-1	9.605105E-1	9.970859E-1	9.710954E-1	9.942352E-1	9.653853E-1	9.895239E-1	8.455700E-1	1.013198E+0	9.645638E-1	1.027577E+0	8.925739E-1	9.741082E-1	1.035257E+0	1.020387E+0	9.621251E-1	1.018399E+0	9.655723E-1	9.329564E-1	9.368355E-1	9.704347E-1	9.981348E-1	9.262066E-1	7.952818E-1	9.700933E-1	1.010152E+0	9.748497E-1	8.578290E-1	9.945127E-1	9.589886E-1	1.005607E+0	9.644948E-1	8.137020E-1	9.443663E-1	9.962175E-1	9.168124E-1	9.690642E-1	9.867916E-1	1.011361E+0	8.704974E-1	9.140861E-1	1.014561E+0	9.832845E-1	9.512783E-1	1.007917E+0	9.966855E-1	1.015009E+0	9.740027E-1	9.809163E-1	1.029487E+0	9.713001E-1	9.453212E-1	9.873039E-1	9.810364E-1	1.006066E+0	8.710225E-1	9.479311E-1	9.973007E-1	1.008826E+0	8.076727E-1	9.652413E-1	9.783349E-1	9.537729E-1	9.579500E-1	1.001362E+0	9.848575E-1	9.916256E-1	9.204336E-1	9.984724E-1	9.793742E-1	1.067465E+0	8.539498E-1	9.482713E-1	9.631937E-1	1.039847E+0	9.403547E-1	9.670076E-1	9.644558E-1	9.873407E-1	9.693282E-1	1.021854E+0	9.624721E-1	9.413535E-1	9.509353E-1	9.732952E-1	1.022180E+0	1.009849E+0	8.846169E-1	9.911514E-1	9.678885E-1	1.045726E+0	9.267723E-1	9.794449E-1	9.902704E-1	9.809676E-1	1.017630E+0	9.863040E-1	1.027269E+0
5.560190E+2	1.007813E+0	9.712430E-1	9.947957E-1	9.759766E-1	9.339630E-1	1.001089E+0	9.799771E-1	9.669603E-1	9.932882E-1	9.997192E-1	1.013113E+0	1.013026E+0	9.973533E-1	1.002403E+0	9.784077E-1	9.927364E-1	1.018409E+0	9.770243E-1	9.776399E-1	9.778416E-1	9.499549E-1	9.954063E-1	9.581280E-1	1.010791E+0	9.621298E-1	1.023705E+0	9.321376E-1	9.572466E-1	9.823226E-1	9.909812E-1	9.790326E-1	9.179858E-1	1.003471E+0	9.664302E-1	1.000000E+0	9.100299E-1	1.017663E+0	9.721169E-1	9.364984E-1	9.966547E-1	1.021086E+0	1.004303E+0	1.009440E+0	9.876702E-1	9.720031E-1	9.879351E-1	1.005649E+0	8.041213E-1	9.990716E-1	1.055722E+0	1.031586E+0	8.362211E-1	9.515806E-1	9.796572E-1	9.806909E-1	9.894675E-1	9.647219E-1	9.549873E-1	1.011466E+0	1.002842E+0	9.983710E-1	1.030152E+0	9.907256E-1	9.385398E-1	9.610947E-1	1.011397E+0	9.911177E-1	9.855553E-1	1.004116E+0	1.015502E+0	1.008228E+0	9.777891E-1	9.290663E-1	1.032937E+0	9.856581E-1	9.294011E-1	1.026149E+0	9.920873E-1	9.833888E-1	8.733012E-1	9.912950E-1	9.960978E-1	1.017728E+0	8.814144E-1	1.044525E+0	9.804012E-1	9.350719E-1	9.621250E-1	9.672559E-1	9.744938E-1	9.889221E-1	9.422547E-1	1.030732E+0	1.027095E+0	9.765759E-1	8.433312E-1	1.006147E+0	9.652956E-1	9.760756E-1	8.817719E-1	9.934154E-1	1.006964E+0	1.010507E+0	9.473962E-1	8.009194E-1	1.020905E+0	1.018467E+0	9.072505E-1	9.373903E-1	1.003541E+0	1.036853E+0	8.807329E-1	9.845498E-1	9.582122E-1	9.351650E-1	9.069859E-1	9.965301E-1	9.903712E-1	1.022181E+0	1.036503E+0	9.840447E-1	1.039975E+0	9.808106E-1	9.434886E-1	9.610003E-1	9.750003E-1	1.005103E+0	8.696067E-1	9.721214E-1	9.662911E-1	9.882661E-1	8.950222E-1	1.004787E+0	9.724073E-1	1.016023E+0	9.721868E-1	1.004325E+0	9.788961E-1	1.008374E+0	9.273173E-1	1.014241E+0	9.663887E-1	9.928107E-1	8.580834E-1	1.034305E+0	9.604177E-1	1.001321E+0	9.427426E-1	9.675474E-1	1.001550E+0	1.019674E+0	9.814425E-1	9.460349E-1	9.706034E-1	9.701858E-1	9.527151E-1	1.017987E+0	1.013591E+0	1.001262E+0	9.346810E-1	1.033550E+0	1.016335E+0	1.015995E+0	9.308727E-1	1.024677E+0	1.017635E+0	9.890534E-1	9.911068E-1	9.564229E-1	9.390458E-1
5.565200E+2	9.617377E-1	1.011720E+0	1.036431E+0	1.014744E+0	9.685994E-1	1.044075E+0	9.999997E-1	9.984500E-1	1.007711E+0	1.032829E+0	1.034094E+0	9.641788E-1	1.038522E+0	1.001923E+0	9.807395E-1	1.014985E+0	9.884268E-1	1.057470E+0	1.006584E+0	9.867053E-1	9.549495E-1	9.702982E-1	9.926564E-1	1.039188E+0	9.761341E-1	1.064041E+0	9.961380E-1	9.931829E-1	1.036828E+0	1.041745E+0	9.747247E-1	1.020249E+0	1.012604E+0	1.032337E+0	1.043358E+0	9.533054E-1	9.860612E-1	1.013887E+0	1.011328E+0	1.013612E+0	9.738443E-1	1.005392E+0	1.004778E+0	1.008316E+0	9.763956E-1	1.031326E+0	9.486713E-1	9.800236E-1	9.996514E-1	1.029887E+0	9.890439E-1	9.753690E-1	9.337613E-1	1.053957E+0	1.016315E+0	1.022352E+0	9.854377E-1	1.032557E+0	1.027181E+0	9.954289E-1	9.988963E-1	1.039530E+0	1.045310E+0	9.724689E-1	9.947921E-1	1.005098E+0	1.043364E+0	9.849580E-1	9.754597E-1	1.065780E+0	9.814880E-1	1.034619E+0	1.005045E+0	1.007645E+0	1.025084E+0	1.009409E+0	1.080198E+0	1.020245E+0	1.013120E+0	9.287633E-1	1.035099E+0	1.014805E+0	9.892753E-1	9.289900E-1	1.005525E+0	1.017149E+0	1.015922E+0	1.005571E+0	9.971931E-1	9.939119E-1	1.018925E+0	9.723615E-1	9.806469E-1	1.008933E+0	1.044550E+0	8.673557E-1	1.049293E+0	1.001889E+0	1.017790E+0	8.629604E-1	1.037311E+0	1.006964E+0	1.020850E+0	9.795819E-1	8.121040E-1	1.032329E+0	9.878739E-1	9.438102E-1	9.616737E-1	9.882276E-1	1.040732E+0	9.104646E-1	1.010408E+0	1.042457E+0	9.908825E-1	9.124464E-1	1.004121E+0	1.004051E+0	1.024229E+0	9.892333E-1	1.048493E+0	9.998764E-1	1.012140E+0	9.318803E-1	9.888210E-1	1.012223E+0	9.954744E-1	8.941553E-1	1.035619E+0	9.760530E-1	9.872633E-1	9.278443E-1	1.017796E+0	1.019293E+0	9.802965E-1	9.782886E-1	1.001363E+0	9.681650E-1	9.809069E-1	9.909934E-1	9.984729E-1	1.040304E+0	9.413828E-1	8.870179E-1	9.920998E-1	1.032588E+0	1.071769E+0	9.696099E-1	1.037745E+0	1.035876E+0	9.922729E-1	1.007123E+0	1.030136E+0	1.015011E+0	9.977916E-1	9.717008E-1	1.012469E+0	1.019654E+0	9.598486E-1	1.008359E+0	1.011429E+0	9.977017E-1	1.023130E+0	9.648509E-1	1.020669E+0	1.009527E+0	1.041922E+0	9.762851E-1	9.464619E-1	1.081407E+0
5.570500E+2	1.018330E+0	1.058238E+0	9.824354E-1	1.012838E+0	9.771170E-1	9.701391E-1	1.023456E+0	1.009592E+0	9.716545E-1	9.941079E-1	9.641573E-1	9.972865E-1	9.958830E-1	9.947113E-1	9.812060E-1	1.003653E+0	9.524474E-1	9.825093E-1	9.810449E-1	1.041971E+0	9.479571E-1	1.043484E+0	1.025240E+0	9.924418E-1	1.016980E+0	1.008191E+0	1.045793E+0	1.062413E+0	1.031918E+0	9.801807E-1	1.000096E+0	9.969331E-1	1.032089E+0	9.941485E-1	1.049634E+0	1.015280E+0	9.950899E-1	9.818816E-1	9.946994E-1	1.000321E+0	9.715396E-1	1.016286E+0	1.015850E+0	1.001434E+0	1.007685E+0	1.013864E+0	1.007098E+0	1.000962E+0	1.001974E+0	1.044566E+0	9.983685E-1	1.004158E+0	9.704190E-1	9.883679E-1	9.848207E-1	9.775525E-1	9.708147E-1	1.045013E+0	9.940054E-1	1.028785E+0	1.005727E+0	9.879481E-1	1.003768E+0	9.962189E-1	9.960172E-1	9.781782E-1	9.940210E-1	1.027337E+0	1.021832E+0	1.049544E+0	1.000514E+0	9.848931E-1	1.001398E+0	1.035236E+0	1.047368E+0	1.012790E+0	9.767336E-1	1.018788E+0	1.016894E+0	9.937709E-1	1.040715E+0	1.023892E+0	9.690306E-1	9.959467E-1	9.871083E-1	1.019279E+0	9.931055E-1	1.019372E+0	1.007172E+0	1.000210E+0	1.016040E+0	9.844042E-1	1.025383E+0	1.034457E+0	1.013742E+0	1.005036E+0	1.011466E+0	1.013693E+0	1.032512E+0	1.018583E+0	1.016461E+0	9.662108E-1	1.036094E+0	1.027861E+0	9.681516E-1	1.043182E+0	1.000111E+0	9.156870E-1	1.035581E+0	1.033212E+0	9.930727E-1	8.631869E-1	9.955394E-1	9.983815E-1	1.026972E+0	9.713008E-1	9.883965E-1	1.012470E+0	1.016546E+0	1.002889E+0	1.002190E+0	9.813696E-1	9.975942E-1	9.569292E-1	9.938793E-1	9.936121E-1	1.053249E+0	8.941554E-1	1.011430E+0	1.017974E+0	9.877651E-1	9.537843E-1	1.017796E+0	1.013366E+0	1.030096E+0	1.004221E+0	1.010250E+0	1.026589E+0	9.788966E-1	9.594422E-1	1.037893E+0	1.029816E+0	1.050322E+0	8.925287E-1	1.001299E+0	9.953922E-1	9.936153E-1	9.146817E-1	9.929261E-1	1.019267E+0	1.028990E+0	9.494616E-1	1.007200E+0	1.014386E+0	9.438067E-1	9.705136E-1	1.048885E+0	9.989387E-1	1.002273E+0	9.162608E-1	1.010814E+0	9.827954E-1	9.904269E-1	9.478617E-1	1.023532E+0	1.004966E+0	9.666618E-1	9.286995E-1	1.004981E+0	1.011228E+0
5.575420E+2	1.003305E+0	9.990336E-1	9.772305E-1	9.886873E-1	9.288527E-1	9.752972E-1	1.051488E+0	9.810097E-1	9.500219E-1	9.946689E-1	9.554155E-1	1.041249E+0	9.870612E-1	9.764404E-1	9.779418E-1	1.023803E+0	9.704374E-1	1.014200E+0	1.002043E+0	1.056047E+0	1.000899E+0	9.986107E-1	9.775807E-1	1.015597E+0	9.738000E-1	9.945396E-1	1.016000E+0	9.968816E-1	9.813400E-1	1.023384E+0	1.027382E+0	1.022293E+0	9.754611E-1	1.000924E+0	1.024532E+0	9.976491E-1	1.007506E+0	1.010633E+0	1.005612E+0	1.020945E+0	1.007836E+0	9.885075E-1	9.581618E-1	1.004301E+0	9.928636E-1	9.688853E-1	1.017238E+0	1.026510E+0	9.787610E-1	9.905462E-1	9.768060E-1	1.013222E+0	1.017260E+0	9.924676E-1	1.004956E+0	9.713572E-1	1.027479E+0	1.008776E+0	1.008556E+0	1.030638E+0	9.810313E-1	1.032029E+0	1.006667E+0	9.937960E-1	1.043194E+0	9.884878E-1	1.027691E+0	9.897337E-1	1.016100E+0	1.009218E+0	1.039081E+0	1.002889E+0	9.631051E-1	9.955738E-1	9.822297E-1	1.058429E+0	1.010192E+0	1.006651E+0	9.871635E-1	1.051509E+0	9.688315E-1	1.040995E+0	1.008426E+0	1.001821E+0	9.919831E-1	1.004367E+0	9.658245E-1	9.800145E-1	1.041476E+0	1.038522E+0	9.900760E-1	1.034984E+0	9.762700E-1	9.888089E-1	1.007873E+0	1.009194E+0	9.813231E-1	1.024907E+0	9.834372E-1	1.035115E+0	1.002194E+0	1.034305E+0	1.008874E+0	9.680150E-1	1.033660E+0	9.803515E-1	1.006230E+0	1.012430E+0	9.859577E-1	9.695636E-1	1.025769E+0	1.011844E+0	9.683884E-1	1.005077E+0	1.022539E+0	1.031976E+0	9.856850E-1	1.020361E+0	1.006813E+0	9.934349E-1	9.496300E-1	9.955588E-1	1.013818E+0	9.703693E-1	9.852801E-1	1.000151E+0	1.014732E+0	9.597772E-1	9.745403E-1	9.938557E-1	1.029886E+0	9.617252E-1	1.019878E+0	1.015521E+0	1.022518E+0	1.018457E+0	1.020321E+0	9.896271E-1	1.003685E+0	9.473956E-1	9.984726E-1	9.539031E-1	1.032627E+0	8.695648E-1	1.010497E+0	1.032588E+0	1.009026E+0	9.600571E-1	1.037745E+0	1.002104E+0	1.026250E+0	1.011483E+0	1.033959E+0	1.022516E+0	1.016808E+0	1.004331E+0	9.848817E-1	9.832764E-1	9.760099E-1	9.219289E-1	9.800910E-1	9.883854E-1	1.026698E+0	9.396600E-1	9.931869E-1	9.953376E-1	9.921628E-1	9.762855E-1	9.153350E-1	9.290197E-1
5.580060E+2	9.507196E-1	1.009304E+0	1.009758E+0	9.905938E-1	9.754138E-1	1.020003E+0	1.000000E+0	1.016374E+0	9.550134E-1	9.615600E-1	1.030015E+0	9.848033E-1	1.001765E+0	9.899034E-1	9.937975E-1	9.906390E-1	9.746352E-1	1.002620E+0	1.025311E+0	9.971324E-1	9.719308E-1	9.708323E-1	1.006760E+0	1.004238E+0	1.007060E+0	9.604086E-1	1.005517E+0	9.905402E-1	1.005893E+0	1.005562E+0	1.050839E+0	9.903861E-1	9.900752E-1	1.011396E+0	1.010839E+0	9.923068E-1	9.657452E-1	1.024737E+0	1.017045E+0	9.764871E-1	9.974648E-1	9.846944E-1	1.020511E+0	1.022080E+0	9.912167E-1	1.002751E+0	9.964749E-1	1.023999E+0	9.671554E-1	1.019318E+0	9.779714E-1	1.004691E+0	9.907846E-1	9.909305E-1	1.014766E+0	1.019492E+0	1.020777E+0	1.032556E+0	1.024853E+0	1.008401E+0	1.003626E+0	1.019366E+0	1.020191E+0	1.030148E+0	1.003983E+0	9.999427E-1	9.940208E-1	9.813770E-1	9.775432E-1	9.992666E-1	1.056051E+0	1.010940E+0	9.752609E-1	1.005921E+0	9.759443E-1	9.868719E-1	1.014310E+0	9.663560E-1	1.027748E+0	1.016046E+0	9.991578E-1	1.008391E+0	1.016087E+0	1.025902E+0	9.827746E-1	1.004367E+0	9.891374E-1	9.851260E-1	9.797301E-1	1.005458E+0	9.918070E-1	1.021738E+0	1.006905E+0	1.005498E+0	1.017654E+0	1.028136E+0	9.966901E-1	9.523107E-1	1.005521E+0	1.008323E+0	9.775032E-1	1.001290E+0	1.018129E+0	9.926575E-1	1.032595E+0	1.059175E+0	1.011236E+0	9.983688E-1	1.007602E+0	1.018855E+0	9.880857E-1	1.044013E+0	9.955400E-1	1.011214E+0	1.022541E+0	1.023481E+0	9.710447E-1	9.935285E-1	1.008862E+0	9.965858E-1	9.896754E-1	1.023935E+0	9.959162E-1	1.034517E+0	1.020182E+0	1.020272E+0	1.033027E+0	1.057030E+0	1.001754E+0	1.013381E+0	9.912747E-1	1.030546E+0	1.011031E+0	9.530054E-1	9.846270E-1	1.060151E+0	1.001955E+0	1.056993E+0	1.029813E+0	9.886990E-1	1.002907E+0	1.025820E+0	9.889398E-1	1.032609E+0	9.942647E-1	9.792927E-1	9.903135E-1	1.009613E+0	1.030185E+0	9.998892E-1	1.009261E+0	9.591528E-1	1.024402E+0	9.887419E-1	1.021103E+0	9.978049E-1	1.040609E+0	1.023190E+0	9.972224E-1	9.734093E-1	9.936095E-1	1.029378E+0	9.993461E-1	9.531348E-1	1.064183E+0	9.806423E-1	9.840779E-1	1.023091E+0	1.041087E+0	1.087422E+0
5.585160E+2	1.025842E+0	9.712431E-1	9.720263E-1	1.044615E+0	9.487261E-1	1.017710E+0	9.593822E-1	9.819787E-1	9.910696E-1	9.755889E-1	1.022438E+0	1.022252E+0	1.005195E+0	1.028848E+0	1.037169E+0	1.024640E+0	1.008215E+0	9.800718E-1	1.016798E+0	1.015902E+0	9.689343E-1	1.001816E+0	1.029616E+0	1.019091E+0	9.907216E-1	9.535827E-1	1.001104E+0	1.000581E+0	1.042230E+0	1.011503E+0	1.013499E+0	1.014111E+0	1.041832E+0	1.045272E+0	9.680520E-1	1.005663E+0	9.821112E-1	9.856785E-1	1.002495E+0	1.006278E+0	1.006107E+0	1.004303E+0	1.001864E+0	1.022654E+0	1.052699E+0	1.047730E+0	1.048624E+0	1.032794E+0	9.863050E-1	9.811524E-1	9.867129E-1	1.015354E+0	9.714373E-1	1.004765E+0	9.765602E-1	1.034266E+0	9.927496E-1	9.787670E-1	1.005064E+0	1.002224E+0	9.689453E-1	1.002485E+0	1.039514E+0	1.024332E+0	1.008884E+0	1.002234E+0	1.002728E+0	1.041663E+0	1.024957E+0	9.704618E-1	9.655469E-1	1.017570E+0	1.010516E+0	1.023165E+0	9.999426E-1	9.801105E-1	9.844543E-1	1.004224E+0	1.001793E+0	1.007865E+0	1.037907E+0	1.008926E+0	9.996720E-1	1.082288E+0	1.019067E+0	9.772056E-1	1.014930E+0	1.021417E+0	9.946985E-1	9.960113E-1	9.987307E-1	1.022339E+0	1.006905E+0	9.976438E-1	9.653283E-1	1.041535E+0	9.836875E-1	1.004250E+0	9.975461E-1	1.025424E+0	1.010425E+0	9.677585E-1	9.713099E-1	1.012774E+0	1.040050E+0	9.563616E-1	1.039604E+0	1.006806E+0	1.035581E+0	1.015984E+0	1.003602E+0	1.022078E+0	1.002004E+0	1.006750E+0	9.832845E-1	9.761548E-1	1.040450E+0	1.023518E+0	1.023717E+0	1.008141E+0	9.809154E-1	1.028253E+0	9.903210E-1	1.018634E+0	1.008043E+0	1.000654E+0	1.009918E+0	1.027287E+0	9.951013E-1	1.039222E+0	9.802427E-1	1.008841E+0	1.018837E+0	1.017138E+0	1.023601E+0	1.001678E+0	1.007880E+0	9.771070E-1	1.028473E+0	9.967299E-1	9.797484E-1	1.014333E+0	1.013272E+0	1.046847E+0	9.758672E-1	9.915063E-1	1.026088E+0	1.051406E+0	9.734870E-1	9.744219E-1	9.703524E-1	1.064299E+0	9.632376E-1	1.010007E+0	1.013128E+0	1.037555E+0	9.937098E-1	9.994441E-1	9.997475E-1	1.058896E+0	1.026177E+0	9.914908E-1	9.933998E-1	1.032806E+0	9.914694E-1	1.016115E+0	9.865649E-1	1.044933E+0	1.042332E+0	9.791465E-1
5.590160E+2	1.004807E+0	1.012928E+0	9.960969E-1	1.009661E+0	9.475905E-1	9.879066E-1	1.032609E+0	1.026548E+0	9.738739E-1	1.039001E+0	1.049247E+0	1.035278E+0	1.006175E+0	1.016828E+0	1.035302E+0	1.012468E+0	9.470500E-1	9.727579E-1	9.952334E-1	9.971331E-1	9.414646E-1	9.980771E-1	1.039343E+0	1.032198E+0	9.854704E-1	1.008812E+0	1.038069E+0	1.009566E+0	1.002455E+0	9.980019E-1	1.035041E+0	1.015340E+0	1.004688E+0	1.042193E+0	1.021679E+0	1.057487E+0	1.014277E+0	1.006293E+0	1.034193E+0	1.020945E+0	1.005531E+0	1.052235E+0	1.032748E+0	1.014625E+0	1.015920E+0	9.916390E-1	1.028344E+0	9.854683E-1	1.027506E+0	1.046327E+0	1.019930E+0	1.043610E+0	9.821291E-1	1.045247E+0	1.022510E+0	1.027594E+0	9.964050E-1	9.799002E-1	1.002153E+0	1.001606E+0	9.910149E-1	1.019368E+0	1.011013E+0	1.065048E+0	9.856014E-1	1.038318E+0	1.023046E+0	1.039275E+0	9.712912E-1	1.005028E+0	9.784025E-1	1.027988E+0	9.685754E-1	1.060527E+0	1.022799E+0	1.013917E+0	9.721009E-1	1.036751E+0	1.044267E+0	1.015594E+0	1.042400E+0	1.030840E+0	1.039068E+0	1.005345E+0	1.034234E+0	9.761400E-1	1.040723E+0	1.008127E+0	1.050832E+0	1.001785E+0	1.031041E+0	9.536952E-1	1.011768E+0	1.017278E+0	1.044550E+0	1.042922E+0	1.039836E+0	1.018415E+0	9.969327E-1	1.040815E+0	9.561042E-1	1.031210E+0	1.031739E+0	1.013780E+0	1.075201E+0	9.969152E-1	1.019023E+0	1.065864E+0	1.019216E+0	1.036084E+0	1.022998E+0	1.063995E+0	9.968325E-1	1.022930E+0	9.668230E-1	9.943569E-1	1.010086E+0	1.007735E+0	1.042157E+0	9.908090E-1	1.020961E+0	1.047377E+0	1.018854E+0	1.032685E+0	1.030806E+0	1.039386E+0	1.001733E+0	1.018318E+0	1.005382E+0	1.029460E+0	1.029384E+0	1.045898E+0	9.902179E-1	1.014443E+0	9.992422E-1	1.046931E+0	1.007880E+0	1.032550E+0	1.024453E+0	1.028855E+0	1.035429E+0	1.018329E+0	1.007742E+0	1.036283E+0	1.034305E+0	1.021484E+0	9.760036E-1	1.038271E+0	1.016686E+0	9.794042E-1	1.045978E+0	9.979163E-1	1.008474E+0	1.023142E+0	1.026624E+0	1.014417E+0	1.027367E+0	1.043400E+0	1.057323E+0	1.060785E+0	1.016345E+0	1.032483E+0	1.051077E+0	1.035735E+0	1.009790E+0	1.002433E+0	1.002736E+0	1.020750E+0	1.036107E+0	1.019250E+0
5.595110E+2	9.882809E-1	1.040719E+0	1.057248E+0	1.006483E+0	9.248779E-1	1.030319E+0	9.902743E-1	1.008623E+0	9.894052E-1	9.795172E-1	1.009034E+0	1.002171E+0	1.012056E+0	1.003366E+0	1.016649E+0	9.843427E-1	1.035199E+0	1.016028E+0	1.029284E+0	1.000260E+0	9.794224E-1	1.058977E+0	1.019404E+0	9.719088E-1	1.013480E+0	1.041701E+0	1.004414E+0	9.937111E-1	9.872330E-1	1.060107E+0	9.847770E-1	1.041519E+0	1.002253E+0	1.001540E+0	9.954357E-1	9.816210E-1	9.730819E-1	1.050234E+0	1.009250E+0	1.017738E+0	1.014749E+0	9.955878E-1	9.814697E-1	1.030109E+0	1.026899E+0	1.060430E+0	1.014341E+0	1.012271E+0	9.845644E-1	1.003464E+0	1.040910E+0	1.008424E+0	9.836562E-1	1.011427E+0	9.677835E-1	1.051424E+0	9.470517E-1	9.759367E-1	1.051626E+0	9.818394E-1	1.008880E+0	9.926377E-1	9.728526E-1	1.009791E+0	1.015624E+0	1.022853E+0	9.986645E-1	9.783928E-1	1.055177E+0	1.005028E+0	1.000000E+0	9.910493E-1	1.012339E+0	9.737318E-1	1.014799E+0	9.818009E-1	1.025120E+0	9.818914E-1	9.961303E-1	9.678596E-1	1.001966E+0	1.005185E+0	1.024294E+0	9.982964E-1	9.930664E-1	1.013421E+0	9.861611E-1	1.057707E+0	1.020270E+0	1.013855E+0	1.056428E+0	1.008491E+0	1.030732E+0	1.013842E+0	1.027434E+0	1.024903E+0	1.032743E+0	1.011332E+0	1.028218E+0	9.906512E-1	1.037860E+0	1.047202E+0	9.887307E-1	1.019312E+0	1.030464E+0	1.002627E+0	1.026254E+0	1.041116E+0	1.013409E+0	9.872704E-1	1.019118E+0	1.064972E+0	1.051135E+0	9.950346E-1	1.009244E+0	1.021661E+0	1.033402E+0	9.908978E-1	1.016033E+0	1.033876E+0	1.022838E+0	1.015299E+0	1.056896E+0	1.010081E+0	1.058626E+0	1.009204E+0	1.008473E+0	1.069304E+0	1.005987E+0	1.057024E+0	1.015345E+0	1.026311E+0	9.980223E-1	1.024683E+0	1.001407E+0	1.024051E+0	1.028023E+0	1.015262E+0	1.029143E+0	1.046065E+0	1.030501E+0	9.843678E-1	1.008295E+0	1.108389E+0	9.991339E-1	9.837337E-1	1.003522E+0	1.040062E+0	1.010205E+0	1.019267E+0	9.961091E-1	1.026020E+0	1.006563E+0	1.005004E+0	1.008221E+0	1.003738E+0	1.009160E+0	1.014601E+0	1.018434E+0	1.052284E+0	1.007743E+0	1.037453E+0	1.000535E+0	1.062683E+0	1.005210E+0	1.006486E+0	1.017042E+0	1.036352E+0	1.007470E+0	9.671174E-1
5.600520E+2	9.667459E-1	9.778885E-1	1.019516E+0	9.785188E-1	1.064561E+0	1.003382E+0	9.462244E-1	9.950584E-1	9.949521E-1	9.980361E-1	9.857206E-1	9.696065E-1	9.841211E-1	9.947111E-1	1.039500E+0	9.906379E-1	9.998206E-1	9.879941E-1	9.844501E-1	9.814912E-1	1.006892E+0	9.751059E-1	9.868212E-1	9.675399E-1	9.557110E-1	1.030531E+0	9.685519E-1	9.873690E-1	1.012276E+0	9.434573E-1	9.699371E-1	9.777076E-1	9.596297E-1	9.559593E-1	9.709042E-1	1.025431E+0	9.538949E-1	9.764563E-1	9.655992E-1	9.888628E-1	9.571357E-1	9.672646E-1	9.977861E-1	9.916838E-1	1.002195E+0	9.683565E-1	9.800579E-1	9.502859E-1	1.006035E+0	9.670599E-1	1.002448E+0	1.001493E+0	9.638004E-1	9.950294E-1	1.030771E+0	9.737404E-1	9.695965E-1	1.014438E+0	9.870210E-1	1.006547E+0	1.016236E+0	9.677845E-1	9.863779E-1	9.841016E-1	9.770245E-1	9.701591E-1	9.574487E-1	1.008237E+0	9.587861E-1	9.531791E-1	1.010798E+0	9.886813E-1	1.014770E+0	9.812038E-1	9.730871E-1	9.592632E-1	9.901169E-1	9.678126E-1	9.697030E-1	1.012865E+0	9.531076E-1	9.763224E-1	9.952942E-1	9.900740E-1	9.860247E-1	1.023007E+0	1.035267E+0	9.774591E-1	1.035863E+0	9.860401E-1	9.952688E-1	1.019329E+0	1.002042E+0	9.986255E-1	9.814659E-1	9.833216E-1	9.624095E-1	9.971674E-1	1.037419E+0	9.986321E-1	1.014815E+0	1.006449E+0	9.691322E-1	1.026353E+0	9.841288E-1	9.706410E-1	9.700746E-1	1.020868E+0	1.004434E+0	9.800920E-1	1.006927E+0	1.002096E+0	9.754991E-1	1.013446E+0	1.004812E+0	1.028336E+0	1.005206E+0	9.945808E-1	9.269027E-1	1.020221E+0	9.583902E-1	9.875388E-1	9.673838E-1	1.007637E+0	9.690937E-1	9.478381E-1	9.627356E-1	9.966007E-1	9.860304E-1	9.519345E-1	1.003811E+0	1.030546E+0	9.704442E-1	9.637838E-1	9.570205E-1	9.396450E-1	1.010842E+0	9.848578E-1	9.675078E-1	9.921411E-1	1.015226E+0	9.828696E-1	9.729032E-1	1.042254E+0	9.893947E-1	9.937268E-1	9.963673E-1	1.020956E+0	9.718672E-1	9.805119E-1	9.999450E-1	1.022144E+0	9.785286E-1	9.756077E-1	9.603705E-1	1.009077E+0	9.821229E-1	9.802452E-1	1.039142E+0	1.030086E+0	9.721029E-1	1.017577E+0	9.654531E-1	1.037492E+0	9.628416E-1	1.005980E+0	1.028860E+0	9.544430E-1	1.007470E+0	9.169896E-1
5.605090E+2	1.067911E+0	9.784928E-1	9.882900E-1	9.658081E-1	1.120207E+0	9.546645E-1	1.005148E+0	1.005716E+0	1.090360E+0	1.014871E+0	9.880526E-1	1.010855E+0	1.010096E+0	9.822099E-1	9.844706E-1	9.793036E-1	1.080773E+0	9.508190E-1	9.912600E-1	9.767988E-1	1.083308E+0	1.017843E+0	9.688269E-1	9.950638E-1	1.040905E+0	9.995039E-1	9.542064E-1	9.725721E-1	9.504050E-1	9.645191E-1	9.742455E-1	9.572542E-1	1.026000E+0	9.719741E-1	9.760388E-1	9.650590E-1	1.071274E+0	9.721165E-1	9.770315E-1	1.019572E+0	9.974653E-1	9.923200E-1	9.966201E-1	9.521124E-1	9.780419E-1	9.710026E-1	1.008547E+0	1.002219E+0	1.000812E+0	9.764550E-1	1.028089E+0	9.966945E-1	1.032534E+0	9.817066E-1	9.915343E-1	9.542001E-1	1.008591E+0	9.600832E-1	9.846927E-1	9.639260E-1	1.013609E+0	9.673159E-1	9.588442E-1	9.559890E-1	9.531298E-1	1.004525E+0	9.748640E-1	9.228822E-1	9.577443E-1	9.427040E-1	9.969148E-1	9.602668E-1	1.014162E+0	9.587864E-1	9.839440E-1	9.987039E-1	9.638646E-1	1.028012E+0	9.815007E-1	9.914995E-1	9.761324E-1	9.586843E-1	1.004049E+0	9.795013E-1	9.903584E-1	9.921177E-1	9.955851E-1	9.846150E-1	9.248440E-1	9.918127E-1	9.641124E-1	9.856086E-1	9.845368E-1	9.927357E-1	9.531028E-1	9.985677E-1	9.795499E-1	1.016053E+0	9.582868E-1	1.037965E+0	1.007133E+0	9.791073E-1	9.734875E-1	9.735471E-1	9.969107E-1	9.814934E-1	9.244635E-1	9.927441E-1	9.759273E-1	1.025077E+0	9.564980E-1	1.003558E+0	1.010408E+0	9.520754E-1	9.877168E-1	1.017414E+0	9.900231E-1	9.777443E-1	9.530275E-1	9.881829E-1	9.690268E-1	9.449733E-1	9.908812E-1	9.807554E-1	9.852803E-1	9.714793E-1	9.916230E-1	1.051837E+0	9.872400E-1	9.634195E-1	9.817472E-1	1.003018E+0	9.818918E-1	9.675564E-1	1.003031E+0	9.772716E-1	9.545582E-1	9.622031E-1	9.728669E-1	1.027707E+0	9.659512E-1	9.878641E-1	9.828571E-1	1.045928E+0	1.023484E+0	1.000389E+0	9.936156E-1	9.958804E-1	9.567476E-1	9.904774E-1	1.012550E+0	9.950091E-1	9.957311E-1	9.812367E-1	1.030305E+0	9.764468E-1	9.396381E-1	9.787294E-1	9.977273E-1	9.786047E-1	9.917660E-1	9.436663E-1	9.624798E-1	1.004686E+0	9.708574E-1	9.978715E-1	9.952729E-1	9.989075E-1	9.962654E-1	9.631068E-1
5.610010E+2	1.012320E+0	9.404329E-1	9.609673E-1	9.880515E-1	1.144055E+0	9.965038E-1	9.914189E-1	9.766494E-1	1.075939E+0	1.009820E+0	9.618262E-1	9.723203E-1	9.591254E-1	1.011059E+0	9.532250E-1	9.755266E-1	1.042995E+0	1.035530E+0	9.679919E-1	9.465588E-1	1.144242E+0	9.649558E-1	9.537514E-1	9.627342E-1	1.039738E+0	9.386888E-1	9.702073E-1	9.931826E-1	9.494233E-1	9.715399E-1	9.694586E-1	9.642065E-1	9.553671E-1	9.442565E-1	9.395270E-1	1.006198E+0	1.050958E+0	9.780839E-1	9.827473E-1	9.352371E-1	1.068328E+0	9.934094E-1	9.902108E-1	9.526860E-1	9.560845E-1	9.440153E-1	9.506027E-1	9.854667E-1	1.047236E+0	9.412249E-1	9.797203E-1	9.369835E-1	1.154218E+0	9.361018E-1	9.899841E-1	9.680215E-1	1.081097E+0	9.719732E-1	9.148493E-1	9.806038E-1	1.012033E+0	9.715360E-1	9.554630E-1	9.681064E-1	1.021750E+0	9.902060E-1	9.841522E-1	1.026144E+0	1.041109E+0	9.997906E-1	9.712030E-1	9.811043E-1	1.034829E+0	9.582109E-1	9.748016E-1	9.987043E-1	9.829101E-1	9.692687E-1	9.616805E-1	1.014228E+0	9.446839E-1	9.319600E-1	9.548042E-1	9.918361E-1	1.009858E+0	9.729448E-1	9.633442E-1	9.605911E-1	9.479206E-1	9.723948E-1	9.375720E-1	9.970490E-1	9.748112E-1	9.421785E-1	9.443005E-1	9.990300E-1	9.630011E-1	9.599835E-1	9.423369E-1	9.815304E-1	9.401924E-1	9.595048E-1	9.816536E-1	9.861194E-1	1.026736E+0	9.769236E-1	1.015130E+0	1.002306E+0	9.606183E-1	9.456355E-1	9.431977E-1	1.013794E+0	9.942460E-1	9.526333E-1	9.851847E-1	1.022874E+0	9.715871E-1	9.751138E-1	9.817132E-1	9.766283E-1	1.057879E+0	9.758181E-1	9.561951E-1	1.056512E+0	9.599889E-1	1.005181E+0	9.290343E-1	1.031535E+0	9.969158E-1	9.576769E-1	9.932805E-1	1.011488E+0	9.740869E-1	1.011210E+0	9.981597E-1	9.493060E-1	9.569278E-1	9.866459E-1	9.842559E-1	1.021971E+0	9.354004E-1	9.623933E-1	1.001659E+0	1.038580E+0	9.796547E-1	9.692998E-1	9.396787E-1	9.994624E-1	9.724071E-1	9.987818E-1	9.182911E-1	9.673906E-1	9.517687E-1	9.643489E-1	9.818418E-1	1.014417E+0	9.611570E-1	9.585200E-1	9.522728E-1	9.993862E-1	9.899226E-1	9.790682E-1	9.874535E-1	1.021089E+0	9.582605E-1	9.806420E-1	9.846995E-1	1.040253E+0	1.002490E+0	1.045314E+0
