Photon Energy (eV)	#1	#2	#3	#4	#5	#6	#7	#8	#9	#10	#11	#12	#13	#14	#15	#16	#17	#18	#19	#20	#21	#22	#23	#24	#25	#26	#27	#28	#29	#30	#31	#32	#33	#34	#35	#36	#37	#38	#39	#40	#41	#42	#43	#44	#45	#46	#47	#48	#49	#50	#51	#52	#53	#54	#55	#56	#57	#58	#59	#60	#61	#62	#63	#64	#65	#66	#67	#68	#69	#70	#71	#72	#73	#74	#75	#76	#77	#78	#79	#80	#81	#82	#83	#84	#85	#86	#87	#88	#89	#90	#91	#92	#93	#94	#95	#96	#97	#98	#99	#100	#101	#102	#103	#104	#105	#106	#107	#108	#109	#110	#111	#112	#113	#114	#115	#116	#117	#118	#119	#120	#121	#122	#123	#124	#125	#126	#127	#128	#129	#130	#131	#132	#133	#134	#135	#136	#137	#138	#139	#140	#141	#142	#143	#144	#145	#146	#147	#148	#149	#150	#151	#152	#153	#154	#155	#156	#157	#158	#159	#160	#161	#162	#163	#164	#165	#166	#167	#168	#169	#170	#171	
5.300160E+2	-4.252555E-3	-6.452793E-3	-1.608558E-2	-6.819130E-3	-4.325249E-3	-4.700128E-3	-3.222934E-3	-2.594459E-3	-3.221998E-3	-7.386610E-3	-3.449092E-3	2.690539E-4	-6.543035E-3	-3.047548E-3	3.339770E-3	-6.069690E-3	2.922898E-3	-5.867675E-3	-5.988016E-3	-4.309286E-3	-3.418974E-3	-1.347012E-2	-9.960633E-3	-2.272179E-3	-3.644259E-3	-9.916636E-3	6.545746E-4	-6.068842E-3	3.313353E-3	-7.147749E-4	-4.667968E-3	-7.827052E-3	-1.668442E-2	-9.856944E-3	-9.373107E-3	8.926248E-5	-8.071333E-3	-9.829073E-3	-1.750527E-2	-3.052234E-4	7.039458E-3	-1.148206E-2	-8.510364E-3	-4.501732E-3	-2.911130E-3	-1.222559E-2	-5.221728E-3	-9.653299E-3	-1.207421E-2	-1.005704E-2	-3.704643E-3	-1.151619E-2	4.333175E-3	-8.593849E-3	-1.573796E-2	4.250513E-3	-1.350835E-3	-7.667426E-3	-3.395467E-3	-1.046348E-2	-8.128693E-3	-7.383404E-3	7.554318E-3	-3.156280E-3	-6.942860E-3	-2.876193E-3	-2.095657E-3	-2.782699E-3	-4.414841E-3	8.600524E-5	-4.325484E-3	-1.974875E-3	-9.739928E-3	-1.623506E-2	-1.235066E-2	3.167074E-3	-7.647345E-3	-6.229853E-3	-8.406915E-3	-1.071877E-2	-4.255435E-3	-3.451382E-3	-5.764407E-3	7.758384E-4	-4.448949E-3	-5.216703E-3	-9.155776E-3	-8.328396E-3	-1.278854E-2	-4.509035E-3	-4.933702E-3	-8.964244E-3	-3.768591E-3	-7.960631E-3	-6.901653E-3	-1.132327E-2	4.446061E-3	-7.120526E-3	-1.115104E-3	-4.530509E-3	-7.978176E-3	-1.320764E-2	-5.452568E-3	-4.360723E-3	-7.658846E-3	-2.731527E-3	-8.496595E-3	-4.022318E-3	-7.079548E-3	-8.436641E-3	1.111369E-3	-1.021847E-2	-1.225775E-2	-7.099625E-3	-1.249842E-2	-7.264843E-3	-1.119670E-2	-2.701196E-3	-1.442018E-2	-1.011694E-2	-1.051293E-2	-1.314303E-2	-1.379389E-2	-5.636511E-3	-2.201716E-3	-1.174815E-3	-5.493978E-3	-1.126634E-2	-1.022219E-4	-1.133590E-2	-5.010519E-3	-1.390369E-2	-8.365590E-3	-6.740719E-3	-1.542373E-2	-7.773191E-3	1.756731E-3	-7.116542E-3	-8.830464E-3	-9.357142E-3	-8.482315E-3	-3.577913E-3	-3.608785E-4	-9.679289E-3	-1.067703E-2	-2.243279E-3	-2.297532E-3	-3.687247E-3	5.057232E-3	2.586904E-3	-1.141697E-2	-2.904842E-3	-7.150176E-3	-8.363348E-3	-4.350741E-3	-4.885412E-3	-1.561609E-2	-3.384726E-3	-7.630139E-3	-6.845998E-3	-2.830747E-3	-1.962156E-2	2.269808E-3	-1.492504E-2	-6.734390E-3	-8.075903E-3	-1.860642E-2	-5.213411E-3	-7.781030E-3	-9.568419E-3	-2.174564E-2
5.305130E+2	-7.254354E-3	-4.609129E-3	-1.936839E-2	-1.059586E-2	-7.710230E-3	1.055115E-3	-6.066735E-3	-5.026768E-3	-4.326692E-3	-2.954669E-3	2.874240E-3	-1.103099E-2	-2.712938E-3	-2.566400E-3	-4.582476E-3	4.093481E-3	-7.357546E-3	-4.046679E-3	-8.794888E-3	-2.198603E-3	-3.418928E-3	2.587000E-3	-1.285227E-3	-1.326627E-2	-7.672253E-3	4.047836E-4	9.350382E-5	-3.391363E-3	3.313102E-4	-5.003202E-3	-3.243790E-3	1.484438E-3	3.819304E-3	-5.588998E-3	1.312209E-3	-6.336535E-3	-8.621622E-3	-5.460600E-3	-1.178572E-2	-9.920026E-3	-4.375869E-3	-1.255858E-3	-4.401944E-3	-2.813575E-3	-1.164439E-2	8.920175E-5	-4.739721E-3	-8.394056E-4	-7.400367E-3	-1.005701E-2	3.899607E-3	8.996490E-4	-1.784259E-3	-8.083325E-3	-8.081679E-3	-1.889107E-3	-7.585508E-3	3.258662E-3	-8.634229E-3	-4.924030E-3	-6.053291E-3	-1.190859E-3	-4.018267E-3	-2.670661E-3	-1.184373E-2	-1.150482E-2	-9.525783E-3	-1.590135E-3	-1.395094E-2	-1.281541E-2	-3.816577E-3	-2.922818E-3	-8.534998E-3	-2.738445E-3	-6.031712E-3	1.490377E-3	1.117044E-3	-3.317193E-3	-8.642602E-4	3.062727E-4	3.515328E-3	-3.451395E-3	-6.845229E-3	-7.952096E-3	-1.207575E-2	-9.460822E-3	-7.615561E-3	-9.348145E-3	-2.096486E-3	-2.387166E-3	2.466831E-3	-3.463458E-3	-8.098549E-3	-1.688655E-3	-4.436808E-3	-3.412519E-3	-6.224462E-3	-8.925695E-3	-6.589340E-3	-5.663422E-4	-7.978136E-3	-2.848692E-3	-6.543075E-3	6.708761E-4	-3.918503E-3	-1.120866E-2	-2.334196E-3	-6.547959E-4	2.621954E-4	1.114263E-3	3.889726E-3	4.866093E-4	1.172470E-3	-1.158355E-2	-4.306169E-3	-4.279312E-3	-9.046925E-3	-1.002057E-2	3.194857E-3	-4.972707E-3	3.504334E-3	9.651930E-3	-1.889578E-3	-6.844345E-3	-2.201695E-3	3.356623E-4	-5.493952E-3	-3.540826E-3	-1.052568E-2	-2.615954E-3	2.004172E-3	-8.486650E-3	-1.202551E-2	-9.437009E-3	-8.929501E-3	-1.243719E-2	2.342316E-3	-1.008183E-2	-6.868122E-3	-2.411658E-3	-3.099309E-3	2.413015E-3	-3.608815E-3	-1.316392E-3	-1.013873E-2	-7.290656E-3	-9.191540E-5	-1.086241E-2	-6.121902E-3	-5.173801E-3	1.735384E-3	-4.841461E-3	-1.227268E-2	-4.552155E-3	-5.564902E-3	-8.402851E-3	-5.144139E-3	-2.877003E-3	-8.636292E-3	-2.496756E-3	-4.088827E-3	3.184633E-3	-1.727030E-2	-6.676988E-3	-5.611999E-3	-1.009473E-3	-1.213465E-2	3.066512E-4	-9.611856E-3	1.425105E-3	-1.049793E-2
5.310150E+2	-6.253747E-3	-3.072867E-4	1.641417E-3	-4.301325E-3	2.444691E-3	1.630666E-3	-3.222906E-3	-2.107982E-3	-1.012632E-3	-5.170634E-3	-2.299381E-3	-3.497627E-3	-3.191707E-3	-1.122741E-3	-6.446506E-3	-7.763549E-3	3.527562E-3	6.272380E-3	-5.988016E-3	-1.222430E-2	-4.169680E-4	3.122222E-3	-2.249222E-3	-5.350511E-3	-2.493506E-3	4.047614E-3	-1.112754E-2	8.924517E-4	-1.308767E-2	-2.858992E-3	-3.955873E-4	3.508682E-3	-3.417298E-3	-1.016150E-4	3.561784E-3	3.837640E-3	2.935038E-3	-4.914505E-3	1.733325E-4	5.188940E-3	-1.008350E-2	-2.870499E-3	8.803995E-4	2.746047E-8	-3.456937E-3	-4.194174E-3	-4.257700E-3	-4.197098E-3	-7.984581E-3	-1.181457E-2	-7.799259E-3	3.598988E-4	-2.294052E-3	4.169296E-3	-2.977484E-3	-9.917832E-3	1.766486E-3	-1.571817E-2	-4.559655E-3	6.155005E-3	-8.647559E-4	1.667258E-3	-7.875760E-3	2.185107E-3	1.633604E-3	5.752583E-4	1.333614E-3	2.583957E-3	8.829643E-4	-4.300766E-4	-1.094093E-2	1.342922E-3	2.309453E-3	-3.912101E-4	-6.606131E-3	9.873681E-3	-5.069601E-3	-8.899731E-4	6.678400E-3	-5.206230E-3	-8.695811E-3	-3.982347E-3	2.882190E-3	-1.551625E-3	7.535979E-3	2.210465E-3	5.219623E-3	-1.189794E-3	-3.354398E-3	-7.691908E-3	-6.072212E-3	-5.908244E-3	-5.211922E-3	-5.065851E-3	-2.464850E-3	-1.551139E-3	-2.667604E-3	-5.014551E-4	-7.197601E-3	-6.795772E-3	-5.195114E-3	-3.366644E-3	-5.452216E-4	-1.844943E-3	5.699639E-3	-2.731521E-3	9.990479E-3	-3.461017E-3	3.933085E-3	-7.959107E-3	-1.667019E-3	-4.865974E-4	-1.289728E-2	-4.857652E-3	-5.566538E-3	-6.667742E-3	-4.209948E-3	4.618167E-3	2.676812E-3	-1.371789E-3	-2.867175E-3	-6.366177E-3	-3.023277E-3	-1.529914E-2	-2.201682E-3	-3.188733E-3	2.149809E-3	-3.540858E-3	-5.620483E-3	-6.103954E-3	-3.507361E-3	-9.028476E-4	-3.659937E-3	-3.505153E-3	-7.305989E-3	-9.327868E-3	-3.513484E-3	1.779123E-3	-3.597595E-3	7.427837E-3	3.262421E-4	-6.074153E-3	5.052342E-3	-3.174792E-3	-8.523675E-3	-7.290734E-3	-8.363027E-3	-9.963610E-5	-8.251271E-3	-9.608437E-3	-3.744764E-3	-1.452422E-3	1.173945E-3	1.513868E-2	2.327143E-3	-1.954158E-3	1.469753E-3	-6.430980E-3	-2.096169E-3	-5.879494E-3	-7.863145E-3	-5.136390E-4	-2.467167E-3	3.927636E-4	-5.050767E-3	-9.085417E-3	-7.280730E-3	1.533360E-3	-4.576805E-4	-7.125436E-3	-1.049789E-2
5.315130E+2	5.253130E-3	5.838257E-3	5.580693E-3	-5.245488E-4	-4.325273E-3	-1.246986E-3	-9.479118E-4	-3.567362E-3	7.824829E-3	-1.292634E-3	4.023912E-3	2.690408E-4	-2.712990E-3	-4.009941E-3	1.009689E-3	6.634314E-3	-4.333894E-3	-5.260705E-3	4.116757E-3	2.550397E-3	2.585059E-3	-3.835870E-3	5.462309E-3	4.764130E-3	-4.795159E-3	-2.023803E-3	6.545507E-4	-1.784825E-4	2.816314E-3	-6.611378E-3	2.927338E-3	-3.373752E-3	2.010197E-4	4.776074E-3	7.498508E-4	-5.265591E-3	-3.118460E-3	-5.460623E-3	3.813008E-3	3.815379E-3	2.473323E-3	3.049933E-3	-3.228061E-3	-3.939043E-3	9.097194E-3	3.837227E-3	1.044347E-3	-3.777382E-3	1.363218E-2	5.174961E-3	5.069527E-3	-2.878988E-3	2.803834E-3	-1.956996E-3	-1.446185E-3	-1.416869E-3	-1.974286E-3	-1.916959E-4	4.753653E-3	1.230996E-3	9.512296E-3	7.145298E-4	-3.053849E-3	-5.098555E-3	1.633649E-3	6.902872E-3	1.905203E-4	1.987638E-3	7.240348E-3	5.246578E-3	-2.289981E-3	2.764823E-3	-1.004102E-4	-3.325277E-3	4.882809E-3	-6.334058E-3	8.590108E-5	-6.229885E-3	-6.521271E-3	-2.450032E-3	2.405255E-3	-3.982360E-3	-8.466487E-3	1.939526E-3	-1.725108E-3	7.515605E-3	-1.018260E-2	9.008255E-3	1.174031E-2	1.856671E-3	-1.518016E-3	-8.353000E-3	7.777823E-3	5.065870E-3	-4.929755E-3	-1.550859E-4	-1.215248E-2	3.710694E-3	6.183824E-3	-5.663250E-4	1.484316E-3	1.294858E-3	3.816837E-3	6.708731E-4	-7.124513E-3	1.083190E-2	-6.815944E-3	-6.267317E-3	-6.030734E-3	2.069361E-3	-1.111361E-2	-4.866241E-4	8.207419E-3	9.715270E-3	1.018778E-2	-3.682156E-3	1.191327E-2	-8.452127E-3	-2.504112E-3	3.772416E-3	-3.185454E-4	2.258973E-3	4.346005E-3	5.233927E-3	-1.185527E-3	3.357053E-4	2.388443E-4	-4.023706E-3	2.963529E-3	2.906808E-4	-1.018806E-8	1.047292E-2	-5.228668E-4	2.695899E-4	9.470727E-3	6.736830E-3	-3.513509E-3	-1.186139E-3	8.830481E-3	-7.041980E-3	-1.141826E-3	-6.573361E-3	1.804475E-4	-3.871617E-4	5.473103E-3	-6.729843E-3	-7.811632E-3	4.983008E-4	2.395557E-3	9.238559E-4	2.831402E-3	7.262151E-3	6.296417E-3	3.070087E-3	5.058975E-4	-1.954013E-4	1.469709E-3	6.261699E-3	5.450058E-3	5.235182E-3	2.830749E-3	3.184648E-3	4.046138E-3	-4.909582E-3	-3.367176E-3	1.312337E-2	1.860643E-2	-9.199936E-4	-4.577252E-4	2.035503E-4	7.498823E-4
5.320070E+2	2.751636E-3	-9.218415E-4	1.477248E-2	5.770021E-3	1.316384E-2	-2.398027E-3	3.033371E-3	8.107680E-3	-5.431357E-3	6.463290E-3	-2.874225E-3	2.421421E-3	6.862213E-3	4.651522E-3	4.271789E-3	-1.411549E-3	2.922868E-3	2.023313E-3	2.993985E-3	5.188733E-3	2.585077E-3	3.122193E-3	7.390179E-3	6.523240E-3	1.016570E-2	-4.452357E-3	-3.833852E-3	-4.462392E-3	7.786361E-3	4.109795E-3	5.538252E-4	-5.397994E-4	3.819345E-3	1.209250E-2	-1.499707E-3	1.695683E-3	1.834376E-3	1.092120E-2	1.317228E-2	5.188946E-3	3.614829E-3	4.126356E-3	4.988834E-3	4.501721E-3	-4.002707E-3	4.908125E-3	-1.847686E-3	4.616793E-3	-3.894763E-4	6.932516E-3	-1.949806E-3	5.758066E-3	-2.294018E-3	5.700884E-3	1.131434E-2	-9.445349E-4	9.871543E-3	6.133964E-3	-6.888015E-3	6.154994E-3	1.729765E-4	2.381556E-4	3.214607E-3	6.069725E-3	1.021005E-3	-1.150494E-3	7.620078E-4	-9.938019E-4	8.829805E-4	-5.074548E-3	5.852130E-3	-7.662531E-3	8.334174E-3	1.251862E-2	1.235066E-2	-8.010746E-3	3.179233E-3	6.391671E-3	-2.278506E-3	6.737517E-3	7.401135E-4	2.654556E-4	3.422593E-3	2.521368E-3	5.901667E-3	1.679947E-3	2.652637E-3	1.869624E-3	4.193179E-4	-1.326133E-3	1.897779E-4	1.242765E-2	4.410058E-3	1.688624E-3	4.436808E-3	1.240922E-3	4.446032E-3	4.312407E-3	2.534364E-3	-5.096844E-3	3.154143E-3	1.165379E-2	-5.452881E-4	6.708669E-4	1.264602E-2	2.919905E-3	1.027050E-3	-1.777275E-3	-7.866086E-4	3.024459E-3	-5.556776E-4	-3.406146E-3	6.928257E-3	2.989292E-3	1.081798E-2	1.184269E-2	1.164449E-3	1.481328E-3	2.158733E-3	6.344485E-3	6.689995E-3	2.875044E-3	2.645397E-3	1.006521E-2	8.467883E-4	-2.181771E-3	1.672088E-3	1.046160E-2	4.189863E-3	3.197308E-3	1.503173E-3	1.805636E-4	5.228484E-3	6.201504E-3	3.517648E-3	4.663908E-3	-6.441413E-3	-2.372180E-3	2.943482E-3	4.533883E-3	-3.099306E-3	7.904707E-3	-5.774103E-3	2.400446E-3	9.779843E-3	1.121641E-2	4.319365E-3	-3.089328E-3	1.863180E-3	3.695566E-3	2.831412E-3	-3.873143E-3	3.094820E-3	-3.917006E-3	-1.011647E-4	3.908188E-4	2.020908E-3	4.230922E-3	8.468606E-3	-4.429761E-3	1.037934E-2	9.348496E-3	6.414710E-3	2.749374E-3	2.805984E-3	4.037960E-3	-2.966261E-3	3.066737E-4	4.119363E-3	9.975579E-3	-1.049787E-2
5.325170E+2	9.755890E-3	6.452793E-3	1.345938E-2	1.647085E-2	7.522166E-4	5.659359E-3	1.042712E-2	5.188890E-3	6.167850E-3	1.034126E-2	1.724546E-3	1.156910E-2	8.298457E-3	6.095108E-3	2.407733E-3	4.516993E-3	2.318111E-3	6.879365E-3	1.366018E-2	1.099306E-2	2.084733E-3	8.474572E-3	6.425928E-4	9.601591E-3	8.439477E-3	1.194040E-2	1.355876E-2	1.320863E-2	-1.159666E-3	1.107855E-2	4.826183E-3	6.747483E-3	1.226205E-2	-1.321018E-3	5.248969E-3	5.979541E-3	1.504200E-2	1.474360E-2	1.213238E-2	-3.968016E-3	1.331756E-3	8.432124E-3	1.027113E-2	6.752601E-3	1.291797E-2	7.585212E-3	1.502249E-2	1.385039E-2	1.421645E-2	1.982114E-2	4.484574E-3	7.377561E-3	-7.646795E-4	8.763990E-3	1.692897E-2	9.917829E-3	-7.274001E-4	1.418466E-2	1.872371E-2	1.846511E-3	5.361468E-3	5.954320E-3	4.178951E-3	2.670664E-3	1.449833E-2	8.053380E-3	9.335298E-3	7.950411E-4	9.359489E-3	1.298745E-2	1.552084E-2	8.452479E-3	7.731709E-3	1.017137E-2	7.755037E-3	-1.863280E-4	8.334767E-3	1.027523E-2	1.139255E-2	1.133124E-2	6.290550E-3	1.460203E-2	1.477134E-2	4.266989E-3	4.812161E-3	3.271509E-3	1.908168E-2	7.988456E-3	6.079795E-3	1.405757E-2	9.867322E-3	1.426130E-2	4.891181E-3	7.960643E-3	1.429626E-2	1.520110E-2	1.215246E-2	8.524575E-3	6.183857E-3	1.755579E-2	1.651297E-2	6.474328E-3	9.269316E-3	4.193050E-3	3.562015E-4	2.919898E-3	6.629206E-3	1.618272E-2	9.701610E-3	1.018767E-2	8.335208E-3	1.411123E-2	8.846887E-3	1.083626E-2	1.365367E-3	1.005136E-2	1.137585E-2	1.507439E-2	8.893888E-3	6.344536E-3	3.504318E-3	4.723256E-3	1.171535E-2	1.248085E-2	6.943832E-3	5.873951E-3	6.927188E-3	1.191013E-2	9.094995E-3	1.656782E-2	5.010545E-3	1.263971E-2	1.934542E-2	1.321179E-2	1.867085E-2	1.813751E-2	9.369361E-3	1.897757E-2	7.522217E-3	6.849060E-3	1.549651E-2	5.907705E-3	4.511006E-3	1.215719E-2	1.408649E-2	1.233810E-2	1.424474E-2	1.724032E-2	5.057206E-3	7.575913E-3	7.763539E-3	5.809716E-3	8.857671E-3	-1.376254E-3	7.183767E-3	1.504700E-2	1.579986E-2	2.200089E-3	4.443935E-3	1.441683E-2	1.572627E-3	4.417419E-3	7.006808E-3	2.336948E-2	1.795835E-2	1.009467E-3	2.238163E-2	3.986720E-3	1.418893E-2	5.089621E-3	5.248945E-2
5.330280E+2	2.276364E-2	2.304568E-2	1.608565E-2	2.402432E-2	2.388294E-2	1.601889E-2	1.213346E-2	4.118698E-2	2.826154E-2	2.806912E-2	9.197498E-3	3.632155E-2	1.404362E-2	1.379423E-2	1.871814E-2	1.806786E-2	2.045999E-2	3.115958E-2	7.485087E-3	2.260175E-2	2.760170E-2	2.024977E-2	2.811473E-2	2.147527E-2	1.822162E-2	2.651178E-2	3.824504E-2	3.034409E-2	2.269641E-2	1.590307E-2	1.954207E-2	3.306253E-2	1.165903E-2	4.135842E-2	1.593433E-2	1.347637E-2	2.274642E-2	2.566484E-2	2.617120E-2	2.853913E-2	1.103481E-2	1.973483E-2	2.670501E-2	2.025774E-2	1.346385E-2	5.978905E-3	3.912272E-2	1.678842E-2	6.037121E-3	3.388140E-2	3.022211E-2	1.817395E-2	2.625409E-2	2.407982E-2	1.488732E-2	2.455839E-2	1.049502E-2	1.073434E-2	1.464909E-2	3.015938E-2	2.092703E-2	3.262993E-2	7.072140E-3	2.986305E-2	2.123703E-2	2.128393E-2	2.705325E-2	2.524298E-2	2.843168E-2	4.291884E-2	3.180499E-2	1.935382E-2	1.797368E-2	1.838671E-2	3.073299E-2	2.049256E-2	2.277027E-2	2.435315E-2	2.553509E-2	1.684378E-2	1.350627E-2	1.672592E-2	2.179670E-2	1.415853E-2	2.660301E-2	1.547336E-2	1.035372E-2	2.481516E-2	1.299813E-2	2.625855E-2	2.068348E-2	1.426123E-2	3.327610E-2	2.629422E-2	2.908552E-2	1.008236E-2	3.112218E-2	2.176267E-2	2.017358E-2	1.642318E-2	1.929606E-2	2.201274E-2	2.508179E-2	3.035743E-2	2.386722E-2	2.948154E-2	1.391195E-2	1.618276E-2	1.809219E-2	1.639577E-2	2.389417E-2	1.800396E-2	2.163767E-2	2.933264E-2	1.648949E-2	2.139643E-2	2.319961E-2	2.709908E-2	2.340038E-2	2.589253E-2	1.688436E-2	2.690220E-2	2.532027E-2	2.576697E-2	1.253284E-2	2.601324E-2	2.078157E-2	1.335869E-2	1.829217E-2	1.540520E-2	1.553264E-2	2.076523E-2	2.561957E-2	2.992881E-2	1.975318E-2	1.140074E-2	3.279265E-2	2.846637E-2	2.322078E-2	1.668855E-2	1.060290E-2	2.487894E-2	2.724647E-2	2.377229E-2	2.754501E-2	1.738545E-2	2.361874E-2	2.202377E-2	2.581845E-2	3.640127E-2	2.639606E-2	4.308882E-2	2.678646E-2	2.784249E-2	2.053949E-2	2.735813E-2	1.910678E-2	3.418571E-2	2.104576E-2	1.731634E-2	1.037932E-2	2.229255E-2	2.891536E-2	3.397423E-2	2.918229E-2	4.239857E-2	2.777473E-2	2.177380E-2	1.785051E-2	2.585508E-2	2.099574E-2
5.331580E+2	1.776071E-2	2.857672E-2	3.184294E-2	3.409567E-2	2.501132E-2	3.270917E-2	2.407721E-2	3.924113E-2	2.218581E-2	2.031318E-2	3.679003E-2	4.923587E-2	2.409752E-2	2.774883E-2	2.198021E-2	3.500653E-2	2.832155E-2	2.751755E-2	2.376498E-2	2.049110E-2	3.010340E-2	3.844779E-2	3.871795E-2	3.950571E-2	3.088076E-2	3.926169E-2	2.029136E-2	3.569899E-2	2.716941E-2	1.965550E-2	3.235913E-2	2.901408E-2	3.397192E-2	2.672543E-2	1.874620E-2	1.722471E-2	2.384707E-2	1.856606E-2	3.553043E-2	4.181670E-2	2.359161E-2	3.049930E-2	2.259657E-2	2.869840E-2	1.510135E-2	2.578972E-2	3.092867E-2	3.315707E-2	3.817018E-2	2.802291E-2	1.325873E-2	2.465179E-2	2.217575E-2	3.275875E-2	3.530417E-2	5.147820E-2	2.919904E-2	2.971111E-2	2.338037E-2	4.000734E-2	3.026637E-2	2.596101E-2	2.780638E-2	3.083426E-2	3.593962E-2	1.783251E-2	1.505074E-2	2.464666E-2	2.260407E-2	3.362976E-2	3.536715E-2	4.257844E-2	1.797367E-2	2.484157E-2	3.877526E-2	2.440475E-2	2.122356E-2	3.114936E-2	3.402053E-2	2.511251E-2	1.739164E-2	2.097380E-2	1.639257E-2	2.812313E-2	2.660302E-2	2.714461E-2	2.832304E-2	2.634488E-2	2.935073E-2	2.307568E-2	2.694551E-2	2.404040E-2	3.231392E-2	3.304867E-2	2.514174E-2	1.799315E-2	2.400853E-2	3.078866E-2	3.233854E-2	1.472420E-2	3.488131E-2	3.081780E-2	2.835333E-2	2.130052E-2	2.493587E-2	2.948154E-2	3.295925E-2	2.291776E-2	3.330011E-2	2.833447E-2	2.722829E-2	1.508443E-2	3.762601E-2	2.092518E-2	2.027054E-2	2.677037E-2	3.394843E-2	2.605346E-2	4.101546E-2	2.846460E-2	2.899016E-2	1.026764E-3	3.722466E-2	3.120214E-2	2.269456E-2	3.054461E-2	3.224729E-2	2.253267E-2	2.687616E-2	2.179980E-2	3.056418E-2	2.780737E-2	2.718814E-2	2.885028E-2	3.707108E-2	2.383793E-2	3.454946E-2	4.685092E-2	2.779955E-2	1.726730E-2	1.011355E-2	3.037061E-2	1.804403E-2	2.237850E-2	9.779837E-3	2.187197E-2	2.913282E-2	1.843620E-2	4.125632E-2	4.748781E-2	3.790438E-2	2.711208E-2	2.614617E-2	3.101840E-2	2.964567E-2	3.028939E-2	3.839726E-2	2.961638E-2	2.356117E-2	1.828286E-2	3.113790E-2	2.105975E-2	2.832329E-2	4.222224E-2	2.862112E-2	3.836063E-2	2.615684E-2	2.790730E-2	4.073595E-2	1.852604E-2	2.999413E-3
5.333130E+2	4.227537E-2	4.209683E-2	4.234790E-2	3.598406E-2	2.783214E-2	3.213366E-2	4.227730E-2	6.405049E-2	2.881395E-2	3.693305E-2	4.426306E-2	6.322640E-2	4.037536E-2	3.352313E-2	3.456256E-2	4.389928E-2	3.557826E-2	4.694173E-2	3.499248E-2	4.740214E-2	4.411269E-2	4.915251E-2	4.546553E-2	5.357828E-2	3.663495E-2	5.869018E-2	3.712297E-2	4.694418E-2	3.313342E-2	4.806660E-2	4.232793E-2	4.277880E-2	3.457496E-2	2.733517E-2	2.661967E-2	3.114737E-2	4.751080E-2	4.586897E-2	4.488968E-2	4.731091E-2	4.528075E-2	3.319045E-2	6.133352E-2	3.657641E-2	4.894289E-2	2.471886E-2	3.285665E-2	3.567533E-2	3.232782E-2	5.555775E-2	3.080706E-2	2.951025E-2	5.123375E-2	4.654292E-2	3.173120E-2	5.289504E-2	3.481024E-2	3.776188E-2	4.840989E-2	6.216534E-2	4.375653E-2	4.215693E-2	3.262829E-2	4.200263E-2	4.635396E-2	3.739065E-2	3.734113E-2	3.836137E-2	3.425927E-2	3.569403E-2	4.350924E-2	5.442767E-2	4.809718E-2	3.657771E-2	3.073299E-2	4.508366E-2	2.741017E-2	4.231459E-2	2.883495E-2	3.338132E-2	3.737351E-2	3.955824E-2	3.260497E-2	4.499700E-2	3.913273E-2	3.669382E-2	4.218505E-2	4.776072E-2	4.381640E-2	3.209378E-2	4.345434E-2	4.359874E-2	4.145484E-2	3.690837E-2	4.042395E-2	3.707208E-2	3.645741E-2	5.786663E-2	2.929723E-2	4.360631E-2	3.877769E-2	4.635621E-2	3.707753E-2	4.746502E-2	4.898117E-2	4.417523E-2	3.968177E-2	3.975529E-2	3.697098E-2	3.263240E-2	1.944875E-2	3.844094E-2	4.082372E-2	3.493761E-2	4.736790E-2	4.050397E-2	3.986028E-2	2.709911E-2	3.635264E-2	2.640693E-2	4.555597E-2	2.690216E-2	5.649828E-2	3.301389E-2	4.555847E-2	2.450279E-2	4.275750E-2	2.494691E-2	3.546029E-2	3.749565E-2	4.359151E-2	2.509884E-2	4.444211E-2	5.419545E-2	5.980084E-2	3.212937E-2	4.626111E-2	3.854824E-2	4.938506E-2	3.984027E-2	3.556046E-2	3.236758E-2	4.673413E-2	3.771043E-2	2.700671E-2	4.430489E-2	3.188986E-2	3.099272E-2	3.965929E-2	4.859658E-2	4.174049E-2	2.178649E-2	4.471530E-2	4.308698E-2	3.693062E-2	2.266815E-2	3.894837E-2	3.469342E-2	4.016299E-2	4.534461E-2	4.560610E-2	2.845635E-2	4.490283E-2	5.047034E-2	4.994668E-2	3.482739E-2	4.611157E-2	4.998778E-2	4.165131E-2	3.684848E-2	3.224353E-2
5.334630E+2	4.427656E-2	6.360620E-2	4.694374E-2	5.612671E-2	5.491201E-2	5.342822E-2	5.478980E-2	6.696926E-2	4.483185E-2	4.025702E-2	5.001152E-2	7.667870E-2	4.947178E-2	3.448552E-2	5.599909E-2	4.601669E-2	4.948702E-2	6.515184E-2	4.285181E-2	5.426180E-2	6.112409E-2	6.788571E-2	4.980319E-2	6.193384E-2	5.619918E-2	5.444021E-2	4.385554E-2	6.836355E-2	5.748650E-2	3.895364E-2	3.283384E-2	5.087593E-2	5.568178E-2	5.721079E-2	6.598678E-2	4.721191E-2	7.172457E-2	4.095450E-2	5.632877E-2	6.104619E-2	3.443617E-2	5.256643E-2	4.783427E-2	7.540373E-2	5.767616E-2	4.827773E-2	4.924485E-2	4.281027E-2	5.628151E-2	5.907282E-2	4.016612E-2	5.326236E-2	6.958609E-2	5.062712E-2	6.031477E-2	8.217624E-2	5.538468E-2	4.581268E-2	4.375332E-2	5.724134E-2	5.257701E-2	5.501837E-2	5.480904E-2	7.065162E-2	4.512877E-2	5.637369E-2	4.820056E-2	5.267240E-2	6.233781E-2	6.717339E-2	5.317808E-2	6.675093E-2	6.074908E-2	5.066111E-2	5.198763E-2	6.855691E-2	5.370339E-2	5.833424E-2	5.099145E-2	4.991895E-2	5.235988E-2	4.964687E-2	7.259560E-2	5.547050E-2	6.092344E-2	5.685334E-2	4.783257E-2	7.274570E-2	4.947688E-2	4.588616E-2	5.427051E-2	7.599219E-2	5.011458E-2	4.945243E-2	5.225525E-2	5.568563E-2	4.119982E-2	5.786663E-2	6.822517E-2	6.682528E-2	5.491955E-2	7.173549E-2	5.725190E-2	6.658493E-2	5.379028E-2	6.791106E-2	5.032585E-2	5.659287E-2	4.798363E-2	4.648127E-2	5.112252E-2	6.520361E-2	6.000979E-2	4.558701E-2	4.988870E-2	5.782004E-2	5.867077E-2	6.474143E-2	5.759428E-2	5.058475E-2	4.746738E-2	5.832222E-2	5.423073E-2	6.200177E-2	6.689809E-2	6.377444E-2	3.702462E-2	3.267235E-2	5.937298E-2	4.389025E-2	3.156627E-2	4.893364E-2	5.751331E-2	4.826360E-2	7.224824E-2	5.026675E-2	4.743221E-2	5.574667E-2	5.200150E-2	5.546766E-2	5.758186E-2	4.335090E-2	5.539516E-2	6.837439E-2	3.992676E-2	4.766978E-2	4.402091E-2	5.491000E-2	5.509711E-2	6.134632E-2	5.324881E-2	6.051814E-2	6.136349E-2	4.435747E-2	6.546336E-2	4.670429E-2	6.154581E-2	6.160197E-2	4.620005E-2	5.307669E-2	5.755801E-2	5.311169E-2	7.154839E-2	6.460986E-2	6.285420E-2	6.056933E-2	6.498766E-2	4.998773E-2	7.369087E-2	5.272794E-2	6.148763E-2
5.336080E+2	7.929770E-2	7.589728E-2	6.795353E-2	6.745695E-2	7.465776E-2	6.033458E-2	7.526499E-2	8.010396E-2	5.974518E-2	5.743091E-2	5.748450E-2	8.528840E-2	6.431329E-2	5.132733E-2	4.108674E-2	6.295504E-2	5.976740E-2	8.639705E-2	6.755241E-2	8.064514E-2	7.813539E-2	7.752003E-2	8.450482E-2	7.556644E-2	7.633882E-2	9.815428E-2	8.649534E-2	8.067976E-2	6.444451E-2	7.326141E-2	6.843678E-2	6.099705E-2	6.352142E-2	6.818547E-2	8.229612E-2	7.130872E-2	7.887876E-2	7.044185E-2	7.400732E-2	9.996340E-2	5.612523E-2	6.171620E-2	7.248509E-2	7.371557E-2	7.241378E-2	6.862392E-2	7.382695E-2	6.337611E-2	5.744985E-2	7.957747E-2	6.531859E-2	1.002265E-1	7.315465E-2	8.840581E-2	8.175224E-2	7.745332E-2	7.408873E-2	7.686567E-2	6.063367E-2	6.524282E-2	7.488759E-2	6.311617E-2	5.191593E-2	6.628134E-2	9.168686E-2	7.478143E-2	7.563487E-2	8.129423E-2	7.134400E-2	8.213923E-2	8.930836E-2	9.992906E-2	5.833921E-2	6.415772E-2	7.554007E-2	9.258927E-2	7.535662E-2	7.872290E-2	6.937658E-2	7.426565E-2	5.180485E-2	5.017783E-2	5.368112E-2	7.699922E-2	7.290849E-2	5.738387E-2	6.528846E-2	8.243365E-2	6.771633E-2	6.180041E-2	6.280962E-2	8.332669E-2	6.647196E-2	6.875089E-2	7.887606E-2	7.290322E-2	7.380405E-2	7.170654E-2	7.552412E-2	7.248839E-2	7.328788E-2	7.846893E-2	8.506014E-2	9.073671E-2	6.768313E-2	8.090936E-2	6.040974E-2	8.353274E-2	6.109406E-2	6.701561E-2	5.890206E-2	6.569006E-2	9.326560E-2	7.921683E-2	6.753345E-2	9.125836E-2	8.984232E-2	6.787850E-2	7.935402E-2	8.659425E-2	7.486458E-2	7.865284E-2	9.051074E-2	8.857404E-2	6.232540E-2	6.629174E-2	6.759984E-2	6.695412E-2	6.611757E-2	7.470057E-2	4.709895E-2	5.705939E-2	8.156421E-2	7.846185E-2	8.523620E-2	7.565930E-2	7.788252E-2	8.065471E-2	1.017136E-1	7.688304E-2	6.296480E-2	7.530240E-2	7.217608E-2	6.837444E-2	6.361366E-2	6.337277E-2	6.773153E-2	8.062117E-2	6.148519E-2	7.354152E-2	8.064969E-2	8.763023E-2	8.249381E-2	7.421115E-2	6.242790E-2	9.125886E-2	6.430159E-2	6.109433E-2	6.883869E-2	7.482266E-2	6.762286E-2	5.434445E-2	8.339092E-2	9.112151E-2	8.361855E-2	8.681605E-2	1.011216E-1	7.084138E-2	7.918339E-2	7.715801E-2	5.473908E-2
5.337630E+2	8.830300E-2	1.096976E-1	1.112860E-1	1.411036E-1	1.011735E-1	9.716828E-2	1.167838E-1	1.092916E-1	8.073420E-2	8.291477E-2	8.565171E-2	1.164979E-1	9.591126E-2	7.249977E-2	9.234798E-2	9.175089E-2	9.786526E-2	1.222103E-1	1.057261E-1	1.107220E-1	9.514674E-2	1.010707E-1	1.018556E-1	1.151456E-1	9.590312E-2	1.145473E-1	1.027659E-1	1.278024E-1	9.177962E-2	9.791987E-2	9.169756E-2	1.071498E-1	1.033229E-1	1.236686E-1	1.059161E-1	9.647633E-2	9.318711E-2	1.032054E-1	1.072843E-1	1.104939E-1	8.808807E-2	8.916540E-2	1.100483E-1	1.159191E-1	1.002511E-1	8.361588E-2	8.684116E-2	8.520117E-2	9.834679E-2	1.053543E-1	8.988656E-2	9.914693E-2	9.303624E-2	1.108690E-1	9.706496E-2	1.147632E-1	9.715713E-2	9.756749E-2	1.060361E-1	1.206375E-1	8.059487E-2	9.646067E-2	9.434856E-2	1.143538E-1	1.094522E-1	9.376428E-2	9.963996E-2	1.123016E-1	9.995228E-2	1.022655E-1	9.541494E-2	1.264715E-1	1.023196E-1	8.997739E-2	9.679440E-2	1.322703E-1	8.618312E-2	9.474254E-2	1.037901E-1	7.794072E-2	9.787421E-2	9.690423E-2	8.880781E-2	1.055101E-1	1.132214E-1	8.550081E-2	8.736509E-2	1.262853E-1	9.476102E-2	7.559277E-2	1.146133E-1	1.034959E-1	9.726247E-2	9.190917E-2	1.005667E-1	9.756624E-2	1.111506E-1	8.313947E-2	9.802917E-2	1.240229E-1	9.276948E-2	1.095458E-1	1.117776E-1	1.430655E-1	1.029496E-1	1.091666E-1	9.234192E-2	1.200142E-1	9.255878E-2	7.322383E-2	8.001789E-2	9.731862E-2	9.838200E-2	1.134071E-1	1.129061E-1	1.073801E-1	1.022033E-1	1.055206E-1	9.334251E-2	1.056277E-1	9.843900E-2	1.008317E-1	1.205543E-1	1.109185E-1	9.077819E-2	8.945214E-2	9.530861E-2	1.046159E-1	1.127166E-1	1.055108E-1	7.816419E-2	6.843502E-2	1.118894E-1	1.216030E-1	1.177075E-1	1.124526E-1	1.253148E-1	1.002252E-1	8.732336E-2	1.069801E-1	8.596494E-2	9.327489E-2	1.116924E-1	1.036843E-1	7.384219E-2	9.365725E-2	9.309618E-2	9.676504E-2	9.129605E-2	1.106818E-1	1.047620E-1	1.244251E-1	8.441476E-2	1.161338E-1	1.049234E-1	1.106053E-1	1.078430E-1	8.444884E-2	9.852079E-2	1.052675E-1	1.047367E-1	9.256030E-2	1.129968E-1	1.064393E-1	1.178517E-1	9.539653E-2	1.081329E-1	1.438299E-1	1.212925E-1	1.101384E-1	1.087282E-1
5.339090E+2	1.233241E-1	1.367379E-1	1.454273E-1	1.555812E-1	1.350231E-1	1.604766E-1	1.537529E-1	1.662074E-1	1.326541E-1	1.482861E-1	1.299148E-1	1.729983E-1	1.284671E-1	1.278369E-1	1.277649E-1	1.442606E-1	1.480577E-1	1.361714E-1	1.349176E-1	1.497697E-1	1.576883E-1	1.492420E-1	1.693311E-1	1.595620E-1	1.240985E-1	1.697968E-1	1.650430E-1	1.679635E-1	1.494319E-1	1.692160E-1	1.367943E-1	1.561363E-1	1.461391E-1	1.517153E-1	1.413468E-1	1.489541E-1	1.586747E-1	1.578116E-1	1.561610E-1	1.576521E-1	1.257585E-1	1.273794E-1	1.658057E-1	1.637498E-1	1.330007E-1	1.339461E-1	1.490200E-1	1.372451E-1	1.643654E-1	1.569093E-1	1.448709E-1	1.223595E-1	1.531915E-1	1.874478E-1	1.817951E-1	1.643523E-1	1.507754E-1	1.470219E-1	1.659909E-1	1.563366E-1	1.527154E-1	1.240893E-1	1.387105E-1	1.837912E-1	1.480464E-1	1.346066E-1	1.322182E-1	1.427123E-1	1.614072E-1	1.755456E-1	1.580072E-1	1.696027E-1	1.505167E-1	1.545262E-1	1.823876E-1	1.568612E-1	1.269117E-1	1.437728E-1	1.532889E-1	1.408755E-1	1.600400E-1	1.298254E-1	1.217730E-1	1.351846E-1	1.475422E-1	1.645477E-1	1.520545E-1	1.849238E-1	1.740078E-1	1.450854E-1	1.612933E-1	1.860074E-1	1.285342E-1	1.377431E-1	1.552869E-1	1.492191E-1	1.627245E-1	1.535423E-1	1.515548E-1	1.608338E-1	1.712525E-1	1.696276E-1	1.733915E-1	1.652046E-1	1.387504E-1	1.634201E-1	1.444416E-1	1.581791E-1	1.476217E-1	1.386478E-1	1.466993E-1	1.503576E-1	1.584982E-1	1.397502E-1	1.538670E-1	1.575374E-1	1.742208E-1	1.755777E-1	1.560315E-1	1.673584E-1	1.436762E-1	1.482696E-1	1.936812E-1	1.676866E-1	1.456515E-1	1.453385E-1	1.445154E-1	1.601428E-1	1.568632E-1	1.415531E-1	1.072250E-1	1.453567E-1	1.526718E-1	1.717535E-1	1.810262E-1	1.912217E-1	1.452249E-1	1.749493E-1	1.723572E-1	1.521264E-1	1.344120E-1	1.417015E-1	1.750272E-1	1.413173E-1	1.260611E-1	1.480566E-1	1.311436E-1	1.619395E-1	1.658239E-1	1.722133E-1	1.634001E-1	1.781650E-1	1.638136E-1	1.586914E-1	1.583466E-1	1.874036E-1	1.579982E-1	1.458819E-1	1.266938E-1	1.642238E-1	1.701580E-1	1.363237E-1	1.751703E-1	1.706564E-1	1.571358E-1	1.746415E-1	1.809406E-1	1.757237E-1	1.304466E-1	1.565554E-1	1.649670E-1
5.340690E+2	2.208827E-1	2.670231E-1	2.649203E-1	2.997276E-1	2.377008E-1	2.531369E-1	2.788783E-1	3.004698E-1	2.287625E-1	2.635174E-1	2.558057E-1	2.768512E-1	2.184736E-1	2.154143E-1	2.298217E-1	2.780762E-1	2.708177E-1	2.739609E-1	2.775075E-1	2.531926E-1	2.587556E-1	2.712756E-1	2.686159E-1	2.848953E-1	2.708304E-1	2.924390E-1	2.520057E-1	2.970156E-1	2.433651E-1	2.560576E-1	2.364827E-1	2.415590E-1	2.830322E-1	2.712178E-1	2.695712E-1	2.442705E-1	2.924023E-1	2.757604E-1	2.767910E-1	2.657039E-1	2.484733E-1	2.242594E-1	2.638219E-1	2.678520E-1	2.465335E-1	2.399610E-1	2.550610E-1	2.346175E-1	2.835497E-1	2.682198E-1	2.448965E-1	2.330229E-1	2.673841E-1	2.706635E-1	2.808167E-1	2.706149E-1	2.530237E-1	2.792845E-1	2.457363E-1	2.751277E-1	2.289867E-1	2.341259E-1	2.418992E-1	2.809070E-1	2.724064E-1	2.945236E-1	2.299528E-1	2.494486E-1	2.520002E-1	2.591471E-1	2.424814E-1	2.771939E-1	2.601665E-1	2.443080E-1	2.616612E-1	2.870820E-1	2.114625E-1	2.437738E-1	2.570004E-1	2.175912E-1	2.693851E-1	1.946051E-1	2.206686E-1	2.771583E-1	2.875483E-1	2.679975E-1	2.614103E-1	2.879238E-1	2.796706E-1	2.161691E-1	2.893794E-1	3.149701E-1	2.454416E-1	2.187969E-1	2.588120E-1	2.567124E-1	2.314898E-1	2.492177E-1	2.786787E-1	2.723978E-1	2.931521E-1	2.923809E-1	2.742640E-1	3.166564E-1	2.279852E-1	2.854910E-1	2.632067E-1	2.861443E-1	2.477841E-1	2.465733E-1	2.489444E-1	2.651939E-1	2.729756E-1	2.568938E-1	2.748607E-1	2.506860E-1	2.978325E-1	2.634103E-1	2.622399E-1	2.666414E-1	2.768400E-1	2.505392E-1	2.804126E-1	2.576698E-1	2.132271E-1	2.520769E-1	2.419739E-1	2.625056E-1	2.604849E-1	2.508427E-1	1.909009E-1	2.385295E-1	2.875668E-1	2.682806E-1	2.795212E-1	2.751722E-1	2.535573E-1	2.965250E-1	2.763604E-1	2.933519E-1	2.401148E-1	2.405518E-1	2.518948E-1	2.811631E-1	1.976600E-1	2.220854E-1	2.353605E-1	2.785359E-1	2.760182E-1	2.830794E-1	2.719071E-1	2.929070E-1	2.809911E-1	2.577809E-1	2.469798E-1	2.993764E-1	2.544502E-1	2.245767E-1	2.439125E-1	2.623230E-1	2.909353E-1	2.466560E-1	2.817528E-1	2.590285E-1	2.733037E-1	2.564103E-1	3.341062E-1	2.855131E-1	2.769131E-1	2.628256E-1	2.751948E-1
5.342040E+2	3.754752E-1	4.642945E-1	5.288556E-1	4.696811E-1	4.475707E-1	4.804707E-1	4.859044E-1	5.193772E-1	3.922563E-1	4.463361E-1	4.673491E-1	5.308329E-1	4.377455E-1	3.828696E-1	4.185566E-1	4.440744E-1	4.879159E-1	4.815574E-1	4.756734E-1	4.442081E-1	4.713978E-1	4.901877E-1	4.845370E-1	4.726761E-1	4.618691E-1	4.660811E-1	4.612781E-1	4.956806E-1	4.491238E-1	4.468946E-1	4.244665E-1	3.893281E-1	4.380164E-1	4.846149E-1	4.619076E-1	4.589992E-1	5.174818E-1	4.810790E-1	5.008927E-1	4.863868E-1	4.088585E-1	3.911083E-1	4.422466E-1	4.439816E-1	4.293879E-1	4.295019E-1	4.271365E-1	3.953662E-1	4.430465E-1	4.814678E-1	4.437773E-1	4.203403E-1	4.886319E-1	4.830420E-1	4.538494E-1	5.020304E-1	4.724842E-1	4.857291E-1	4.797335E-1	4.825505E-1	4.411970E-1	4.365740E-1	4.101836E-1	4.731959E-1	4.537378E-1	4.647953E-1	4.208503E-1	5.279164E-1	4.872231E-1	4.691828E-1	4.648622E-1	5.061221E-1	5.204334E-1	4.496910E-1	4.518037E-1	4.486008E-1	4.099504E-1	4.379524E-1	4.568816E-1	4.096102E-1	4.442266E-1	3.868209E-1	4.184607E-1	4.447332E-1	4.961956E-1	4.351095E-1	4.672871E-1	5.285969E-1	4.721274E-1	3.700068E-1	4.823619E-1	5.368347E-1	4.398063E-1	4.185363E-1	4.441711E-1	4.256310E-1	4.365997E-1	4.477898E-1	4.629780E-1	4.264354E-1	4.924205E-1	4.912726E-1	4.994551E-1	5.053421E-1	4.112640E-1	4.471211E-1	3.825330E-1	4.808989E-1	4.082544E-1	3.970008E-1	4.128691E-1	4.364750E-1	4.334992E-1	4.760481E-1	4.689536E-1	4.244454E-1	5.122717E-1	4.448263E-1	4.881270E-1	4.497751E-1	4.902833E-1	4.852654E-1	4.754165E-1	4.575647E-1	3.961387E-1	4.287992E-1	4.015383E-1	4.561252E-1	4.646624E-1	4.909311E-1	3.592547E-1	4.243335E-1	5.097770E-1	4.812878E-1	5.095249E-1	5.275432E-1	4.380159E-1	4.863012E-1	4.765177E-1	5.005598E-1	4.162860E-1	4.347569E-1	4.760018E-1	4.465630E-1	3.763884E-1	4.138860E-1	4.200821E-1	4.764517E-1	4.564809E-1	4.964984E-1	4.900169E-1	4.788186E-1	4.519550E-1	4.864493E-1	4.564219E-1	4.881477E-1	4.749135E-1	4.342601E-1	4.099311E-1	5.126447E-1	5.136187E-1	4.463643E-1	5.061674E-1	4.935096E-1	5.045176E-1	4.694124E-1	5.072270E-1	4.787168E-1	4.792207E-1	4.753659E-1	5.001501E-1
5.343600E+2	6.846609E-1	7.807888E-1	9.096579E-1	8.649809E-1	7.804272E-1	8.833401E-1	8.447871E-1	8.822764E-1	7.860773E-1	7.815037E-1	8.306510E-1	9.005059E-1	7.901120E-1	7.009384E-1	7.223966E-1	7.849645E-1	8.731279E-1	8.651839E-1	8.411297E-1	7.871918E-1	8.416441E-1	8.445140E-1	8.363723E-1	8.425193E-1	7.915837E-1	9.262932E-1	8.484039E-1	8.480294E-1	8.909578E-1	7.915804E-1	7.396713E-1	7.310197E-1	9.192514E-1	8.358061E-1	8.358950E-1	7.979616E-1	8.762883E-1	8.382026E-1	8.653831E-1	8.352662E-1	7.518887E-1	7.188864E-1	7.891183E-1	8.029938E-1	7.781737E-1	7.454044E-1	7.221240E-1	7.374296E-1	8.677874E-1	8.605104E-1	7.666659E-1	7.372153E-1	8.128568E-1	8.659360E-1	8.591237E-1	8.751298E-1	8.340955E-1	8.646896E-1	8.022076E-1	9.004737E-1	7.343482E-1	7.333398E-1	7.313230E-1	8.402936E-1	8.047619E-1	7.875056E-1	7.392026E-1	8.534909E-1	8.326417E-1	8.257786E-1	8.378708E-1	8.890907E-1	8.017869E-1	8.305298E-1	8.234719E-1	8.571481E-1	7.228907E-1	7.447527E-1	7.354883E-1	7.376046E-1	8.199966E-1	6.682421E-1	7.308200E-1	8.060667E-1	7.854692E-1	7.974500E-1	8.513165E-1	9.145918E-1	8.633305E-1	6.829879E-1	8.387253E-1	9.023305E-1	7.457866E-1	7.142855E-1	7.956617E-1	7.788239E-1	8.308140E-1	8.280849E-1	8.175867E-1	8.494732E-1	8.731473E-1	8.688561E-1	8.833151E-1	9.179340E-1	7.094263E-1	8.201156E-1	7.197811E-1	8.720912E-1	7.192300E-1	6.978556E-1	7.968438E-1	7.600602E-1	8.677443E-1	8.129063E-1	8.098773E-1	8.012218E-1	8.750448E-1	8.646440E-1	8.678868E-1	8.258171E-1	8.521823E-1	8.506007E-1	8.597559E-1	8.712461E-1	6.715216E-1	7.847612E-1	7.421650E-1	7.656278E-1	7.399652E-1	8.205442E-1	6.107830E-1	6.930172E-1	8.658370E-1	8.231768E-1	8.715772E-1	8.783751E-1	7.723838E-1	8.302695E-1	8.755237E-1	8.761961E-1	7.691180E-1	7.827291E-1	8.181161E-1	7.931580E-1	7.026213E-1	7.240197E-1	7.051612E-1	8.465712E-1	8.046311E-1	8.412939E-1	8.385548E-1	8.748484E-1	8.630367E-1	8.446959E-1	8.413102E-1	8.744846E-1	7.868680E-1	7.749329E-1	7.661153E-1	8.576835E-1	8.935648E-1	7.675002E-1	9.022995E-1	7.833704E-1	8.642461E-1	8.222292E-1	9.537809E-1	8.393646E-1	7.996157E-1	8.381518E-1	9.163166E-1
5.345110E+2	1.061387E+0	1.174103E+0	1.362681E+0	1.291124E+0	1.154469E+0	1.232687E+0	1.300927E+0	1.401329E+0	1.129635E+0	1.254617E+0	1.215797E+0	1.327753E+0	1.225783E+0	1.061834E+0	1.130158E+0	1.191914E+0	1.339374E+0	1.287659E+0	1.202657E+0	1.234652E+0	1.267928E+0	1.304280E+0	1.258576E+0	1.284046E+0	1.213365E+0	1.418077E+0	1.234407E+0	1.296229E+0	1.353664E+0	1.269742E+0	1.109943E+0	1.124126E+0	1.440889E+0	1.327230E+0	1.259374E+0	1.131570E+0	1.376526E+0	1.283242E+0	1.303188E+0	1.271135E+0	1.161698E+0	1.102639E+0	1.234594E+0	1.240786E+0	1.388961E+0	1.101999E+0	1.172800E+0	1.075716E+0	1.457867E+0	1.301652E+0	1.223507E+0	1.110232E+0	1.294096E+0	1.340726E+0	1.257254E+0	1.249173E+0	1.296085E+0	1.280453E+0	1.225383E+0	1.298701E+0	1.248013E+0	1.097746E+0	1.110806E+0	1.280712E+0	1.390414E+0	1.149333E+0	1.132428E+0	1.295343E+0	1.285075E+0	1.225723E+0	1.262787E+0	1.290071E+0	1.293401E+0	1.263009E+0	1.256606E+0	1.254519E+0	1.067796E+0	1.169031E+0	1.129120E+0	1.142316E+0	1.292900E+0	1.024532E+0	1.073983E+0	1.266897E+0	1.277941E+0	1.177828E+0	1.308250E+0	1.334748E+0	1.258307E+0	1.049016E+0	1.258277E+0	1.250714E+0	1.144618E+0	1.023544E+0	1.174760E+0	1.166451E+0	1.227400E+0	1.166860E+0	1.263434E+0	1.228340E+0	1.307308E+0	1.261977E+0	1.323335E+0	1.352161E+0	1.073311E+0	1.169938E+0	1.071035E+0	1.314357E+0	1.124601E+0	1.071297E+0	1.160258E+0	1.146416E+0	1.232279E+0	1.245048E+0	1.218859E+0	1.212631E+0	1.316821E+0	1.242114E+0	1.285985E+0	1.218834E+0	1.276521E+0	1.280008E+0	1.320624E+0	1.237217E+0	1.059701E+0	1.137704E+0	1.054128E+0	1.139347E+0	1.212087E+0	1.200732E+0	9.600161E-1	1.064625E+0	1.287775E+0	1.261053E+0	1.290995E+0	1.292429E+0	1.277155E+0	1.231764E+0	1.284341E+0	1.268037E+0	1.116567E+0	1.107238E+0	1.198664E+0	1.226171E+0	1.005168E+0	1.049857E+0	1.065783E+0	1.243597E+0	1.237422E+0	1.329108E+0	1.268197E+0	1.292181E+0	1.288206E+0	1.269638E+0	1.229840E+0	1.337033E+0	1.260312E+0	1.117128E+0	1.160535E+0	1.263610E+0	1.333271E+0	1.192805E+0	1.279482E+0	1.220518E+0	1.278412E+0	1.241166E+0	1.326450E+0	1.324521E+0	1.264646E+0	1.240024E+0	1.276245E+0
5.346620E+2	1.385082E+0	1.632557E+0	1.876765E+0	1.782103E+0	1.527946E+0	1.707498E+0	1.725215E+0	1.813362E+0	1.536161E+0	1.652941E+0	1.614162E+0	1.802358E+0	1.682041E+0	1.441493E+0	1.496908E+0	1.538731E+0	1.861255E+0	1.752627E+0	1.611340E+0	1.626712E+0	1.683707E+0	1.780105E+0	1.704392E+0	1.669722E+0	1.671973E+0	1.773863E+0	1.595724E+0	1.644296E+0	1.831285E+0	1.636406E+0	1.441288E+0	1.438692E+0	1.926949E+0	1.702201E+0	1.616490E+0	1.556208E+0	1.811830E+0	1.674767E+0	1.706677E+0	1.684118E+0	1.614315E+0	1.457329E+0	1.640158E+0	1.675201E+0	1.914595E+0	1.491789E+0	1.515506E+0	1.433306E+0	1.993614E+0	1.759782E+0	1.634721E+0	1.536150E+0	1.689695E+0	1.779774E+0	1.644664E+0	1.666665E+0	1.725652E+0	1.731293E+0	1.564155E+0	1.842186E+0	1.788651E+0	1.478352E+0	1.422306E+0	1.620132E+0	1.845580E+0	1.547976E+0	1.535370E+0	1.683529E+0	1.767179E+0	1.622056E+0	1.713143E+0	1.708587E+0	1.701878E+0	1.650299E+0	1.550726E+0	1.687655E+0	1.746262E+0	1.556418E+0	1.512384E+0	1.480876E+0	1.849064E+0	1.353740E+0	1.432278E+0	1.611358E+0	1.720295E+0	1.521604E+0	1.685093E+0	1.821703E+0	1.716178E+0	1.365178E+0	1.676122E+0	1.802623E+0	1.629571E+0	1.376707E+0	1.533152E+0	1.510806E+0	1.667258E+0	1.591684E+0	1.644195E+0	1.612868E+0	1.743699E+0	1.727094E+0	1.780805E+0	1.832177E+0	1.463380E+0	1.631659E+0	1.446380E+0	1.690957E+0	1.489591E+0	1.428503E+0	1.524784E+0	1.551750E+0	1.673559E+0	1.636274E+0	1.651788E+0	1.599556E+0	1.763437E+0	1.732513E+0	1.718594E+0	1.603109E+0	1.672190E+0	1.632406E+0	1.675483E+0	1.657542E+0	1.388939E+0	1.519342E+0	1.462591E+0	1.590808E+0	1.575070E+0	1.580341E+0	1.277685E+0	1.480112E+0	1.720174E+0	1.650938E+0	1.722318E+0	1.687827E+0	1.581659E+0	1.642750E+0	1.747448E+0	1.701554E+0	1.448846E+0	1.497645E+0	1.613315E+0	1.560685E+0	1.361550E+0	1.463182E+0	1.398283E+0	1.648998E+0	1.578654E+0	1.706610E+0	1.680306E+0	1.723069E+0	1.694163E+0	1.684418E+0	1.603800E+0	1.763233E+0	1.581084E+0	1.496894E+0	1.456349E+0	1.694185E+0	1.818894E+0	1.545374E+0	1.673247E+0	1.594035E+0	1.612884E+0	1.629821E+0	1.795652E+0	1.690692E+0	1.642713E+0	1.561279E+0	1.618176E+0
5.348070E+2	1.658746E+0	1.949056E+0	2.147921E+0	2.059065E+0	1.802129E+0	1.940588E+0	2.081255E+0	2.125181E+0	1.776983E+0	1.961516E+0	1.934353E+0	2.139744E+0	1.985575E+0	1.697970E+0	1.786304E+0	1.877082E+0	2.173898E+0	1.954150E+0	1.961639E+0	1.922202E+0	2.023934E+0	2.056285E+0	2.010927E+0	2.010100E+0	1.955080E+0	2.163038E+0	2.065888E+0	1.946843E+0	2.152843E+0	1.965551E+0	1.709971E+0	1.728969E+0	2.270088E+0	1.984495E+0	1.967984E+0	1.845371E+0	2.186042E+0	2.015510E+0	2.037368E+0	2.045358E+0	1.895700E+0	1.730206E+0	1.905449E+0	1.870463E+0	2.203887E+0	1.824824E+0	1.782534E+0	1.685554E+0	2.250675E+0	1.958970E+0	1.854663E+0	1.792024E+0	1.976195E+0	2.060563E+0	1.956018E+0	2.010484E+0	2.028037E+0	2.022277E+0	1.900599E+0	2.112392E+0	2.112935E+0	1.696995E+0	1.713064E+0	1.997912E+0	2.132280E+0	1.789577E+0	1.769131E+0	1.964978E+0	1.991278E+0	1.916209E+0	2.036282E+0	1.999604E+0	2.036848E+0	1.992998E+0	1.965475E+0	2.053727E+0	2.023116E+0	1.751081E+0	1.771189E+0	1.676110E+0	2.173770E+0	1.621887E+0	1.630069E+0	1.877845E+0	2.060776E+0	1.809672E+0	1.989029E+0	2.133256E+0	2.030653E+0	1.587452E+0	2.029072E+0	2.141840E+0	2.044278E+0	1.594299E+0	1.755483E+0	1.813272E+0	2.108307E+0	1.870285E+0	1.949538E+0	1.897724E+0	2.015881E+0	1.980371E+0	1.973826E+0	2.114454E+0	1.670173E+0	1.866757E+0	1.758975E+0	1.965409E+0	1.975720E+0	1.656769E+0	1.755944E+0	1.786773E+0	2.029778E+0	1.908677E+0	1.954899E+0	1.815117E+0	2.094502E+0	1.969870E+0	1.975563E+0	1.853629E+0	2.102899E+0	1.917651E+0	2.076830E+0	1.951647E+0	1.867049E+0	1.708652E+0	1.626457E+0	1.858785E+0	2.014695E+0	1.903555E+0	1.481611E+0	1.644246E+0	2.045909E+0	1.976650E+0	1.969640E+0	1.944344E+0	1.914271E+0	1.964182E+0	2.043107E+0	1.995004E+0	1.707720E+0	1.719307E+0	1.867193E+0	1.832940E+0	1.575269E+0	1.673489E+0	1.651382E+0	1.843919E+0	1.924675E+0	1.999296E+0	1.928556E+0	2.026630E+0	1.993191E+0	1.932777E+0	1.849061E+0	1.997732E+0	1.866034E+0	1.641590E+0	1.700849E+0	1.951753E+0	2.078064E+0	1.844319E+0	2.055760E+0	1.831462E+0	1.987204E+0	1.886232E+0	2.121939E+0	1.993068E+0	1.857836E+0	1.927728E+0	1.919617E+0
5.349580E+2	1.785817E+0	2.122971E+0	2.474884E+0	2.321546E+0	2.014256E+0	2.239860E+0	2.308188E+0	2.304200E+0	1.988528E+0	2.188655E+0	2.140723E+0	2.327538E+0	2.128243E+0	1.806241E+0	1.992281E+0	2.079075E+0	2.453288E+0	2.229122E+0	2.110406E+0	2.131163E+0	2.275100E+0	2.246299E+0	2.112138E+0	2.148627E+0	2.132306E+0	2.415607E+0	2.220175E+0	2.230653E+0	2.264173E+0	2.124757E+0	1.919316E+0	1.868641E+0	2.505881E+0	2.197890E+0	2.041091E+0	2.017260E+0	2.326926E+0	2.150386E+0	2.245868E+0	2.216136E+0	2.074348E+0	1.947109E+0	2.090917E+0	2.121432E+0	2.415665E+0	1.894433E+0	1.963289E+0	1.866868E+0	2.497809E+0	2.195653E+0	2.076939E+0	1.942094E+0	2.187245E+0	2.303066E+0	2.140791E+0	2.186173E+0	2.200735E+0	2.195366E+0	2.049612E+0	2.337044E+0	2.280006E+0	1.926120E+0	1.864474E+0	2.152327E+0	2.392027E+0	2.050737E+0	1.937741E+0	2.199316E+0	2.192062E+0	2.097861E+0	2.171648E+0	2.192984E+0	2.197110E+0	2.167869E+0	2.066003E+0	2.224188E+0	2.125192E+0	1.935063E+0	1.962114E+0	1.901204E+0	2.368032E+0	1.717993E+0	1.814351E+0	2.084989E+0	2.175728E+0	1.956622E+0	2.088119E+0	2.331093E+0	2.230657E+0	1.806004E+0	2.195867E+0	2.294639E+0	2.286271E+0	1.805132E+0	1.970421E+0	1.962647E+0	2.236348E+0	2.050806E+0	2.168505E+0	2.078945E+0	2.254117E+0	2.122801E+0	2.242093E+0	2.258356E+0	1.929856E+0	2.043648E+0	1.849171E+0	2.200012E+0	2.206460E+0	1.817705E+0	1.934873E+0	1.955623E+0	2.316295E+0	2.085796E+0	2.145212E+0	2.019327E+0	2.234234E+0	2.129327E+0	2.181762E+0	2.053741E+0	2.340554E+0	2.089537E+0	2.223649E+0	2.083300E+0	2.164283E+0	1.912562E+0	1.829016E+0	1.990601E+0	2.201089E+0	2.068073E+0	1.666500E+0	1.815423E+0	2.238838E+0	2.059153E+0	2.223454E+0	2.138673E+0	2.118638E+0	2.148025E+0	2.204017E+0	2.177324E+0	2.123192E+0	1.924997E+0	2.077229E+0	2.003453E+0	1.977944E+0	1.812015E+0	1.806878E+0	2.060967E+0	2.068404E+0	2.218812E+0	2.160916E+0	2.139434E+0	2.257637E+0	2.089031E+0	2.090071E+0	2.243956E+0	2.164758E+0	1.861938E+0	1.921198E+0	2.128141E+0	2.279992E+0	1.984240E+0	2.171222E+0	2.110724E+0	2.110665E+0	2.063904E+0	2.296679E+0	2.117578E+0	2.067464E+0	2.038885E+0	2.124324E+0
5.351140E+2	1.858863E+0	2.071965E+0	2.386910E+0	2.344209E+0	1.952197E+0	2.154681E+0	2.234250E+0	2.359170E+0	1.895734E+0	2.155415E+0	2.151067E+0	2.297406E+0	2.142128E+0	1.856764E+0	1.908865E+0	1.961352E+0	2.320852E+0	2.171462E+0	2.119946E+0	2.129049E+0	2.147514E+0	2.248438E+0	2.115511E+0	2.176335E+0	2.120802E+0	2.362182E+0	2.139383E+0	2.167999E+0	2.278089E+0	2.073832E+0	1.904602E+0	1.869857E+0	2.442559E+0	2.151554E+0	2.066961E+0	1.996915E+0	2.335182E+0	2.161308E+0	2.126801E+0	2.163483E+0	2.044103E+0	1.886292E+0	2.073892E+0	2.060098E+0	2.284671E+0	2.041139E+0	1.861103E+0	1.857213E+0	2.425365E+0	2.175737E+0	1.997975E+0	1.926440E+0	2.153087E+0	2.156544E+0	2.178050E+0	2.202700E+0	2.237517E+0	2.168913E+0	2.022839E+0	2.269341E+0	2.220857E+0	1.938981E+0	1.828307E+0	2.086774E+0	2.391416E+0	2.054762E+0	1.888014E+0	2.235692E+0	2.248751E+0	2.099411E+0	2.145694E+0	2.227586E+0	2.242896E+0	2.180779E+0	2.070598E+0	2.191776E+0	2.143751E+0	1.962732E+0	1.937603E+0	1.838272E+0	2.364153E+0	1.695163E+0	1.852177E+0	2.056480E+0	2.185532E+0	1.944420E+0	2.118924E+0	2.221978E+0	2.237572E+0	1.703623E+0	2.149186E+0	2.254299E+0	2.223245E+0	1.788244E+0	1.937887E+0	1.991967E+0	2.287332E+0	2.032155E+0	2.071796E+0	2.064219E+0	2.245765E+0	2.113481E+0	2.172299E+0	2.389681E+0	1.861999E+0	2.076424E+0	1.897348E+0	2.187666E+0	2.168704E+0	1.766607E+0	1.936543E+0	1.890417E+0	2.268331E+0	2.042635E+0	2.091019E+0	2.070080E+0	2.182639E+0	2.063975E+0	2.189535E+0	2.074319E+0	2.213122E+0	2.072288E+0	2.272399E+0	2.153959E+0	2.181048E+0	1.850132E+0	1.746371E+0	1.978530E+0	2.232364E+0	1.982035E+0	1.604873E+0	1.826800E+0	2.169298E+0	2.121174E+0	2.116843E+0	2.108101E+0	2.167243E+0	2.045428E+0	2.217100E+0	2.144328E+0	2.169187E+0	1.913514E+0	2.035006E+0	2.009958E+0	1.926805E+0	1.813695E+0	1.804121E+0	2.016122E+0	2.118979E+0	2.214381E+0	2.076521E+0	2.196078E+0	2.183367E+0	2.165888E+0	2.037255E+0	2.225197E+0	2.167515E+0	1.909154E+0	1.863848E+0	2.065803E+0	2.332829E+0	1.996570E+0	2.113787E+0	1.999962E+0	2.111789E+0	2.054814E+0	2.274024E+0	2.043979E+0	2.262449E+0	1.972923E+0	2.056839E+0
5.352600E+2	1.638234E+0	1.898660E+0	2.182064E+0	2.079840E+0	1.771098E+0	1.983752E+0	2.049405E+0	2.129076E+0	1.728928E+0	1.936586E+0	1.926305E+0	2.028358E+0	1.921896E+0	1.670543E+0	1.727585E+0	1.852523E+0	2.131566E+0	1.962042E+0	1.886977E+0	1.892125E+0	2.002920E+0	2.030063E+0	1.953572E+0	1.957767E+0	1.905017E+0	2.110218E+0	2.024365E+0	1.935063E+0	2.087238E+0	1.955902E+0	1.712818E+0	1.668645E+0	2.176612E+0	2.027173E+0	1.982605E+0	1.797173E+0	2.088088E+0	1.990391E+0	2.019689E+0	1.951498E+0	1.845475E+0	1.690376E+0	1.870233E+0	1.843451E+0	2.127468E+0	1.782525E+0	1.756025E+0	1.683034E+0	2.227305E+0	1.953114E+0	1.818982E+0	1.745060E+0	1.989959E+0	2.065157E+0	1.887115E+0	1.958531E+0	1.985639E+0	1.899789E+0	1.859274E+0	2.040380E+0	2.029403E+0	1.720812E+0	1.648933E+0	1.919737E+0	2.113292E+0	1.871261E+0	1.784562E+0	1.948881E+0	2.071272E+0	1.921885E+0	1.909573E+0	2.001029E+0	1.963351E+0	1.926687E+0	1.923541E+0	1.989455E+0	1.972075E+0	1.755448E+0	1.719806E+0	1.688970E+0	2.071639E+0	1.590027E+0	1.603047E+0	1.968617E+0	2.005212E+0	1.756087E+0	1.902264E+0	2.125606E+0	2.069015E+0	1.605485E+0	2.011423E+0	2.099669E+0	2.052456E+0	1.587542E+0	1.711118E+0	1.785352E+0	2.009307E+0	1.883524E+0	1.875937E+0	1.844492E+0	2.042600E+0	1.937901E+0	1.998910E+0	2.024890E+0	1.717194E+0	1.823804E+0	1.772981E+0	1.985053E+0	1.913316E+0	1.637195E+0	1.768172E+0	1.759524E+0	2.040013E+0	1.918764E+0	2.000905E+0	1.801381E+0	2.035921E+0	1.881512E+0	1.983333E+0	1.873177E+0	2.103536E+0	1.884999E+0	2.017309E+0	1.899108E+0	1.894485E+0	1.740370E+0	1.590149E+0	1.778632E+0	2.008562E+0	1.900647E+0	1.483615E+0	1.641535E+0	1.978980E+0	1.911937E+0	1.969641E+0	1.974402E+0	1.911342E+0	1.906655E+0	1.999281E+0	1.946961E+0	1.926953E+0	1.737780E+0	1.842839E+0	1.836663E+0	1.751844E+0	1.680223E+0	1.584658E+0	1.955732E+0	1.959808E+0	2.005396E+0	1.975138E+0	1.929795E+0	2.034171E+0	1.930871E+0	1.925552E+0	2.044636E+0	2.014841E+0	1.680178E+0	1.697326E+0	1.930008E+0	2.108257E+0	1.836925E+0	1.991808E+0	1.901569E+0	1.885066E+0	1.905917E+0	2.082571E+0	1.900455E+0	1.976840E+0	1.881311E+0	1.915117E+0
5.354060E+2	1.317041E+0	1.636861E+0	1.807827E+0	1.783361E+0	1.498044E+0	1.644191E+0	1.689953E+0	1.731635E+0	1.469327E+0	1.587570E+0	1.583122E+0	1.711952E+0	1.652358E+0	1.362581E+0	1.483861E+0	1.538733E+0	1.694353E+0	1.705279E+0	1.552393E+0	1.557586E+0	1.720730E+0	1.681623E+0	1.632583E+0	1.648612E+0	1.636873E+0	1.795717E+0	1.660243E+0	1.699986E+0	1.746297E+0	1.678222E+0	1.420400E+0	1.391730E+0	1.832874E+0	1.661349E+0	1.614801E+0	1.472671E+0	1.765051E+0	1.650740E+0	1.621921E+0	1.635583E+0	1.529842E+0	1.421805E+0	1.594378E+0	1.505825E+0	1.821804E+0	1.446280E+0	1.443204E+0	1.400571E+0	1.852226E+0	1.678937E+0	1.594361E+0	1.548565E+0	1.665221E+0	1.721066E+0	1.619651E+0	1.641165E+0	1.739373E+0	1.608235E+0	1.561825E+0	1.695701E+0	1.704083E+0	1.424045E+0	1.439180E+0	1.595364E+0	1.768390E+0	1.545099E+0	1.422201E+0	1.639998E+0	1.624666E+0	1.532777E+0	1.653608E+0	1.667825E+0	1.600062E+0	1.652062E+0	1.598402E+0	1.665299E+0	1.705019E+0	1.417579E+0	1.451569E+0	1.457448E+0	1.798000E+0	1.385600E+0	1.305819E+0	1.577612E+0	1.694149E+0	1.570940E+0	1.565982E+0	1.700855E+0	1.696680E+0	1.327517E+0	1.653352E+0	1.758006E+0	1.664208E+0	1.354995E+0	1.477450E+0	1.505219E+0	1.656590E+0	1.601914E+0	1.619865E+0	1.613998E+0	1.709742E+0	1.654582E+0	1.730642E+0	1.755698E+0	1.436661E+0	1.524285E+0	1.452541E+0	1.663457E+0	1.658976E+0	1.370718E+0	1.539790E+0	1.465619E+0	1.747104E+0	1.604885E+0	1.678883E+0	1.552983E+0	1.737102E+0	1.623245E+0	1.671962E+0	1.554237E+0	1.660722E+0	1.581887E+0	1.663581E+0	1.622512E+0	1.642476E+0	1.428211E+0	1.351280E+0	1.461403E+0	1.665814E+0	1.607662E+0	1.235092E+0	1.444362E+0	1.700303E+0	1.650937E+0	1.613000E+0	1.632376E+0	1.669496E+0	1.521767E+0	1.724554E+0	1.626891E+0	1.654379E+0	1.451217E+0	1.509925E+0	1.481238E+0	1.447683E+0	1.368405E+0	1.400489E+0	1.572461E+0	1.563213E+0	1.611818E+0	1.573444E+0	1.688210E+0	1.755634E+0	1.648214E+0	1.593478E+0	1.621364E+0	1.737062E+0	1.426833E+0	1.395977E+0	1.573855E+0	1.735231E+0	1.515790E+0	1.598637E+0	1.566346E+0	1.604468E+0	1.545530E+0	1.708824E+0	1.676584E+0	1.688484E+0	1.545400E+0	1.618178E+0
5.355630E+2	1.112417E+0	1.316679E+0	1.457883E+0	1.484998E+0	1.236836E+0	1.291965E+0	1.427189E+0	1.420788E+0	1.215247E+0	1.387575E+0	1.306621E+0	1.403088E+0	1.335895E+0	1.311092E+0	1.173030E+0	1.222404E+0	1.437340E+0	1.440018E+0	1.326723E+0	1.322775E+0	1.403521E+0	1.449333E+0	1.384848E+0	1.336376E+0	1.381962E+0	1.470288E+0	1.364012E+0	1.330502E+0	1.431198E+0	1.371593E+0	1.202510E+0	1.151252E+0	1.501801E+0	1.387592E+0	1.284680E+0	1.199041E+0	1.517959E+0	1.438870E+0	1.366103E+0	1.325165E+0	1.260440E+0	1.186601E+0	1.303850E+0	1.277363E+0	1.449549E+0	1.178566E+0	1.181959E+0	1.157559E+0	1.557774E+0	1.332116E+0	1.252754E+0	1.248427E+0	1.390448E+0	1.357063E+0	1.350148E+0	1.358742E+0	1.365913E+0	1.327608E+0	1.282428E+0	1.435341E+0	1.363196E+0	1.211119E+0	1.184101E+0	1.308877E+0	1.466377E+0	1.283365E+0	1.199297E+0	1.369284E+0	1.377257E+0	1.282490E+0	1.359980E+0	1.426101E+0	1.394014E+0	1.332839E+0	1.311178E+0	1.408772E+0	1.391562E+0	1.207382E+0	1.216333E+0	1.154719E+0	1.467741E+0	1.334094E+0	1.185849E+0	1.237804E+0	1.419039E+0	1.272259E+0	1.358565E+0	1.430612E+0	1.450137E+0	1.104717E+0	1.343668E+0	1.451796E+0	1.406820E+0	1.105564E+0	1.232438E+0	1.252075E+0	1.440217E+0	1.278783E+0	1.284113E+0	1.290632E+0	1.401934E+0	1.329829E+0	1.437841E+0	1.454808E+0	1.160942E+0	1.324222E+0	1.181397E+0	1.413700E+0	1.349574E+0	1.135767E+0	1.211935E+0	1.204806E+0	1.415188E+0	1.282600E+0	1.351194E+0	1.268162E+0	1.396363E+0	1.323674E+0	1.408257E+0	1.256903E+0	1.447274E+0	1.354554E+0	1.380711E+0	1.333843E+0	1.330511E+0	1.194597E+0	1.098556E+0	1.248470E+0	1.404616E+0	1.346645E+0	1.017136E+0	1.183799E+0	1.405940E+0	1.302579E+0	1.409514E+0	1.402809E+0	1.370851E+0	1.349780E+0	1.431516E+0	1.398846E+0	1.382781E+0	1.246524E+0	1.279322E+0	1.320020E+0	1.189817E+0	1.126128E+0	1.143532E+0	1.350028E+0	1.343359E+0	1.371238E+0	1.314229E+0	1.406923E+0	1.418829E+0	1.368728E+0	1.268693E+0	1.396830E+0	1.389833E+0	1.226285E+0	1.210843E+0	1.350112E+0	1.443981E+0	1.300055E+0	1.389619E+0	1.241138E+0	1.386724E+0	1.289120E+0	1.397635E+0	1.345988E+0	1.339711E+0	1.244911E+0	1.226754E+0
5.357140E+2	9.082949E-1	1.118793E+0	1.287834E+0	1.156421E+0	1.064766E+0	1.130818E+0	1.201396E+0	1.241287E+0	9.733214E-1	1.197555E+0	1.073810E+0	1.227131E+0	1.168810E+0	1.132569E+0	1.002471E+0	1.058948E+0	1.225080E+0	1.282804E+0	1.076909E+0	1.155504E+0	1.161358E+0	1.187066E+0	1.136156E+0	1.141120E+0	1.131081E+0	1.336114E+0	1.122759E+0	1.191812E+0	1.220967E+0	1.258488E+0	9.575611E-1	9.933611E-1	1.195449E+0	1.244310E+0	1.136210E+0	1.048033E+0	1.230692E+0	1.155464E+0	1.108203E+0	1.121878E+0	1.095489E+0	1.025135E+0	1.085514E+0	1.079849E+0	1.221934E+0	1.115384E+0	1.010847E+0	1.008563E+0	1.296617E+0	1.250684E+0	1.092480E+0	1.041674E+0	1.144218E+0	1.201861E+0	1.157211E+0	1.182582E+0	1.181990E+0	1.158542E+0	1.079862E+0	1.239613E+0	1.136977E+0	1.169199E+0	1.029317E+0	1.144265E+0	1.242776E+0	1.195927E+0	1.000972E+0	1.193973E+0	1.155808E+0	1.110644E+0	1.095873E+0	1.169209E+0	1.166281E+0	1.155621E+0	1.076230E+0	1.168449E+0	1.148223E+0	1.123400E+0	1.042850E+0	9.718863E-1	1.216858E+0	1.185950E+0	9.232068E-1	1.146453E+0	1.168989E+0	1.135918E+0	1.149608E+0	1.195546E+0	1.216169E+0	9.137448E-1	1.119376E+0	1.217097E+0	1.233622E+0	9.342883E-1	1.012078E+0	1.070127E+0	1.207835E+0	1.106687E+0	1.174628E+0	1.121305E+0	1.183740E+0	1.151139E+0	1.181025E+0	1.238953E+0	9.867485E-1	1.063691E+0	1.022296E+0	1.167870E+0	1.136138E+0	9.514331E-1	1.009669E+0	1.011143E+0	1.206698E+0	1.101562E+0	1.147020E+0	1.106345E+0	1.187300E+0	1.096772E+0	1.183402E+0	1.109264E+0	1.196878E+0	1.106890E+0	1.201580E+0	1.181053E+0	1.173513E+0	1.042041E+0	9.662240E-1	1.066440E+0	1.202890E+0	1.094350E+0	8.948795E-1	1.002329E+0	1.188956E+0	1.105209E+0	1.161651E+0	1.162358E+0	1.160626E+0	1.142806E+0	1.213697E+0	1.167908E+0	1.182139E+0	1.012381E+0	1.097438E+0	1.060306E+0	1.019703E+0	9.769503E-1	9.439214E-1	1.156299E+0	1.133086E+0	1.240970E+0	1.154211E+0	1.186638E+0	1.253629E+0	1.171183E+0	1.088998E+0	1.215094E+0	1.205195E+0	9.902014E-1	1.046335E+0	1.146185E+0	1.269737E+0	1.078157E+0	1.197769E+0	1.118006E+0	1.205455E+0	1.130122E+0	1.239079E+0	1.209213E+0	1.141065E+0	1.127646E+0	1.195261E+0
5.358600E+2	8.492593E-1	9.983406E-1	1.077080E+0	1.020458E+0	9.383927E-1	9.604613E-1	1.016551E+0	1.033566E+0	8.744517E-1	1.004210E+0	9.576915E-1	1.046868E+0	9.452298E-1	9.766622E-1	9.004136E-1	9.136990E-1	1.044266E+0	1.056391E+0	9.141092E-1	9.159427E-1	9.882424E-1	1.053791E+0	9.983127E-1	9.898425E-1	9.998848E-1	1.147292E+0	9.953994E-1	9.845783E-1	1.059441E+0	1.048352E+0	8.488536E-1	8.415429E-1	1.138762E+0	1.093712E+0	9.281272E-1	9.029169E-1	1.094214E+0	1.008027E+0	9.657348E-1	9.685010E-1	9.174101E-1	8.453690E-1	9.927806E-1	9.352314E-1	1.106218E+0	9.890237E-1	9.115521E-1	8.377402E-1	1.105572E+0	1.043294E+0	9.532628E-1	8.824266E-1	9.719109E-1	1.024708E+0	1.035730E+0	1.018230E+0	1.051062E+0	1.053883E+0	9.442368E-1	1.066658E+0	1.009339E+0	1.005335E+0	8.475315E-1	9.849962E-1	1.035715E+0	1.049816E+0	8.849474E-1	9.781165E-1	1.020185E+0	9.547936E-1	9.767950E-1	1.020855E+0	1.071694E+0	1.022416E+0	9.004478E-1	1.022020E+0	9.853065E-1	1.040389E+0	8.674846E-1	8.547455E-1	1.114174E+0	1.030903E+0	8.470088E-1	9.433852E-1	9.690570E-1	9.762334E-1	9.735079E-1	1.088468E+0	1.045724E+0	8.718373E-1	9.884438E-1	1.068576E+0	1.017609E+0	9.617890E-1	8.937639E-1	9.523958E-1	1.045409E+0	9.917557E-1	9.945870E-1	9.683994E-1	1.021207E+0	1.015953E+0	1.021265E+0	1.048756E+0	8.398050E-1	9.274923E-1	8.491906E-1	9.905149E-1	1.002412E+0	8.817112E-1	9.185372E-1	8.602987E-1	1.009720E+0	9.816160E-1	9.825444E-1	9.385575E-1	1.070673E+0	1.017305E+0	1.044556E+0	9.600811E-1	1.037592E+0	9.596469E-1	1.051925E+0	1.013769E+0	9.931406E-1	8.320890E-1	8.181253E-1	9.669738E-1	1.014655E+0	9.449483E-1	7.565885E-1	8.934475E-1	1.035240E+0	9.774051E-1	1.061532E+0	9.882367E-1	1.028284E+0	9.874276E-1	1.025968E+0	1.002373E+0	1.018694E+0	8.745896E-1	9.794294E-1	9.320747E-1	9.088052E-1	8.238460E-1	8.534902E-1	1.012198E+0	9.834975E-1	1.038637E+0	1.022139E+0	9.682886E-1	1.037202E+0	1.009845E+0	9.445136E-1	1.001700E+0	1.059139E+0	8.840903E-1	8.913838E-1	9.697970E-1	1.083538E+0	9.690579E-1	1.037896E+0	1.006658E+0	9.602114E-1	1.000404E+0	1.057869E+0	9.577401E-1	9.936837E-1	9.297636E-1	9.793042E-1
5.360070E+2	8.012307E-1	8.268803E-1	9.477385E-1	9.058958E-1	7.962236E-1	8.419020E-1	8.868749E-1	8.851960E-1	7.507270E-1	8.402275E-1	8.145557E-1	9.085773E-1	8.475631E-1	8.529959E-1	7.666679E-1	7.565924E-1	9.608135E-1	9.204217E-1	7.950974E-1	7.824432E-1	8.531521E-1	9.076717E-1	8.228774E-1	8.433990E-1	8.629351E-1	9.165788E-1	7.777111E-1	8.464226E-1	8.959281E-1	9.277394E-1	7.548621E-1	7.468089E-1	9.234726E-1	9.242136E-1	8.370202E-1	7.915362E-1	8.867446E-1	8.720586E-1	8.799419E-1	7.968074E-1	8.043988E-1	7.269594E-1	8.026175E-1	7.934276E-1	9.501105E-1	8.589148E-1	7.375484E-1	7.034332E-1	9.221211E-1	8.827723E-1	8.169707E-1	7.534098E-1	8.480326E-1	9.021837E-1	8.514674E-1	9.048832E-1	8.646450E-1	8.738908E-1	8.016260E-1	9.170923E-1	8.936359E-1	8.786262E-1	7.096250E-1	8.378656E-1	9.095181E-1	8.991026E-1	7.517762E-1	8.326212E-1	8.262841E-1	8.541620E-1	8.521198E-1	8.777157E-1	9.168587E-1	8.792351E-1	8.389821E-1	8.945940E-1	8.796188E-1	9.136876E-1	7.576448E-1	7.403610E-1	9.448835E-1	9.677163E-1	7.367641E-1	8.299230E-1	8.867960E-1	8.117738E-1	8.436156E-1	9.360074E-1	9.029535E-1	7.657418E-1	8.455573E-1	9.561165E-1	8.564392E-1	8.532349E-1	7.793935E-1	7.965071E-1	8.906868E-1	8.792321E-1	8.035964E-1	7.775511E-1	8.909588E-1	8.900918E-1	8.925845E-1	8.807006E-1	7.340055E-1	8.675868E-1	7.786039E-1	8.849997E-1	8.776022E-1	8.688176E-1	7.740612E-1	7.342710E-1	8.779759E-1	9.205216E-1	8.319324E-1	8.179408E-1	9.110536E-1	8.740547E-1	8.860200E-1	7.985532E-1	8.980561E-1	7.951536E-1	9.005707E-1	8.114580E-1	8.681510E-1	8.532347E-1	7.120676E-1	8.177748E-1	8.466525E-1	9.199511E-1	6.413468E-1	7.639809E-1	8.574712E-1	8.571501E-1	8.499297E-1	8.830385E-1	8.783745E-1	8.717828E-1	8.794475E-1	8.842990E-1	8.674798E-1	7.997036E-1	8.143271E-1	7.815428E-1	7.650691E-1	7.565476E-1	6.952362E-1	8.358081E-1	8.637212E-1	8.662391E-1	8.840399E-1	8.438633E-1	9.277083E-1	8.567646E-1	8.595217E-1	9.166942E-1	8.982017E-1	7.322851E-1	8.239702E-1	8.335210E-1	9.778577E-1	8.470137E-1	8.614424E-1	8.687965E-1	8.810823E-1	8.504945E-1	8.842084E-1	8.786190E-1	8.801722E-1	7.831838E-1	8.780738E-1
5.362680E+2	5.825997E-1	5.822892E-1	6.614799E-1	7.088755E-1	6.066646E-1	6.496762E-1	6.815550E-1	6.891520E-1	5.535406E-1	7.161322E-1	6.737182E-1	7.051767E-1	6.728165E-1	6.359772E-1	5.662831E-1	5.846651E-1	6.947328E-1	7.407482E-1	6.261222E-1	6.399722E-1	5.984820E-1	6.791260E-1	6.194877E-1	6.710105E-1	6.178075E-1	7.222941E-1	6.402535E-1	6.402612E-1	6.876846E-1	7.304694E-1	5.540610E-1	5.561257E-1	7.256721E-1	7.108164E-1	6.188129E-1	6.223227E-1	7.376085E-1	6.705618E-1	6.381613E-1	6.663209E-1	6.160464E-1	5.514987E-1	6.065851E-1	6.279892E-1	7.050321E-1	6.484916E-1	6.199392E-1	5.607322E-1	7.322443E-1	6.455047E-1	6.122408E-1	5.968623E-1	6.349413E-1	6.857209E-1	6.692475E-1	6.474921E-1	6.719938E-1	7.007993E-1	6.281650E-1	7.299808E-1	6.762371E-1	6.699855E-1	5.572517E-1	6.387785E-1	7.367622E-1	6.839626E-1	6.174626E-1	6.817597E-1	6.795343E-1	6.575439E-1	6.444969E-1	6.715381E-1	6.680391E-1	6.914564E-1	6.160961E-1	6.676848E-1	6.172020E-1	6.792177E-1	5.841634E-1	5.598261E-1	7.139815E-1	7.489513E-1	5.222202E-1	6.629300E-1	6.569029E-1	6.441317E-1	6.177156E-1	6.994139E-1	6.847108E-1	5.943979E-1	6.918537E-1	6.920787E-1	6.967137E-1	6.583201E-1	6.009365E-1	5.926884E-1	6.968408E-1	7.281971E-1	6.223391E-1	6.303093E-1	6.955863E-1	7.134715E-1	6.690293E-1	7.186824E-1	5.843899E-1	6.714826E-1	5.993354E-1	6.891228E-1	6.610202E-1	6.491455E-1	5.645699E-1	6.106757E-1	6.989066E-1	7.131379E-1	6.781711E-1	6.358227E-1	6.939271E-1	6.330383E-1	6.679048E-1	6.313656E-1	6.935330E-1	6.688574E-1	6.732552E-1	6.459856E-1	6.522146E-1	6.911132E-1	5.639693E-1	6.072557E-1	6.719057E-1	6.577725E-1	4.905300E-1	5.841350E-1	6.864996E-1	6.845880E-1	6.648447E-1	6.488060E-1	6.593664E-1	7.181828E-1	6.596677E-1	6.157400E-1	6.648827E-1	6.664061E-1	6.032119E-1	6.268293E-1	5.976456E-1	6.292410E-1	5.364295E-1	6.576246E-1	6.135216E-1	6.611359E-1	6.659300E-1	6.928104E-1	6.805472E-1	7.011432E-1	6.506867E-1	6.974380E-1	6.518342E-1	6.962377E-1	5.583412E-1	6.266912E-1	7.331571E-1	6.713445E-1	6.772919E-1	6.219440E-1	6.986924E-1	6.652537E-1	7.337399E-1	6.246937E-1	6.888498E-1	6.378259E-1	6.148762E-1
5.365140E+2	5.020509E-1	5.435711E-1	5.964807E-1	6.062733E-1	5.259890E-1	5.144269E-1	5.803173E-1	5.967240E-1	4.706888E-1	5.449478E-1	5.156357E-1	5.609665E-1	5.516901E-1	5.219348E-1	4.399937E-1	5.130996E-1	5.743921E-1	6.138842E-1	4.790419E-1	5.054172E-1	5.149264E-1	6.068685E-1	5.515303E-1	5.439182E-1	5.453050E-1	6.530803E-1	5.448748E-1	5.481579E-1	5.440509E-1	5.825169E-1	4.572208E-1	4.698929E-1	6.080772E-1	5.870459E-1	5.547012E-1	5.050512E-1	5.549031E-1	5.804622E-1	5.560081E-1	5.303399E-1	5.344270E-1	4.696891E-1	5.261767E-1	5.469584E-1	6.149703E-1	5.178476E-1	4.791936E-1	4.595821E-1	5.885218E-1	6.273431E-1	5.268394E-1	4.980742E-1	5.258464E-1	5.815734E-1	5.492981E-1	5.634267E-1	5.123863E-1	5.932643E-1	5.361956E-1	5.859543E-1	5.491183E-1	5.813843E-1	4.704576E-1	5.397204E-1	6.332319E-1	5.717903E-1	5.054393E-1	5.249350E-1	5.645716E-1	5.311100E-1	5.432296E-1	5.791140E-1	5.493521E-1	5.893516E-1	5.299291E-1	5.201385E-1	5.651315E-1	5.835858E-1	4.710237E-1	4.560073E-1	6.013062E-1	5.880633E-1	4.584513E-1	5.378305E-1	5.751873E-1	5.640242E-1	5.473789E-1	5.826463E-1	5.576633E-1	4.845901E-1	5.358734E-1	5.845082E-1	5.586383E-1	5.598975E-1	4.885381E-1	4.954318E-1	5.616815E-1	5.807730E-1	5.365759E-1	5.578205E-1	6.109798E-1	5.663745E-1	5.528896E-1	6.281132E-1	5.010331E-1	5.420655E-1	4.945755E-1	5.431980E-1	5.928470E-1	5.650975E-1	5.212270E-1	5.201692E-1	5.722782E-1	5.808610E-1	5.414230E-1	5.259543E-1	5.735399E-1	5.729149E-1	5.606598E-1	5.212800E-1	6.228099E-1	5.795256E-1	5.604479E-1	5.849911E-1	6.075027E-1	5.763193E-1	4.564775E-1	5.179294E-1	5.854518E-1	5.746425E-1	4.243915E-1	4.676693E-1	5.944788E-1	5.756574E-1	5.593137E-1	5.731465E-1	5.363940E-1	5.491638E-1	5.765957E-1	5.480205E-1	5.704357E-1	5.670566E-1	5.046914E-1	5.167184E-1	5.185100E-1	5.310978E-1	4.763262E-1	5.320591E-1	5.278147E-1	5.685617E-1	5.492026E-1	6.037277E-1	5.678520E-1	5.798223E-1	5.013458E-1	5.919134E-1	5.829403E-1	5.398635E-1	4.879091E-1	5.208603E-1	6.450905E-1	5.702573E-1	5.932105E-1	5.700987E-1	5.785959E-1	5.335146E-1	5.875854E-1	5.995466E-1	5.698455E-1	5.865231E-1	5.631370E-1
5.367710E+2	4.920453E-1	5.355824E-1	5.551176E-1	5.439567E-1	4.656234E-1	4.971608E-1	5.683737E-1	5.407815E-1	4.916779E-1	5.244500E-1	5.047139E-1	5.259899E-1	5.301458E-1	5.281899E-1	4.698179E-1	4.783756E-1	5.725773E-1	6.053863E-1	5.385480E-1	5.244131E-1	5.134255E-1	5.463871E-1	5.124910E-1	5.188512E-1	5.585391E-1	5.777949E-1	5.712440E-1	5.610096E-1	5.684039E-1	5.755485E-1	4.572211E-1	4.431729E-1	5.519929E-1	5.870458E-1	5.057734E-1	4.440060E-1	5.879222E-1	5.356851E-1	5.331300E-1	5.101948E-1	4.819163E-1	4.605395E-1	5.250026E-1	5.070056E-1	5.876789E-1	5.531857E-1	4.690715E-1	4.222278E-1	6.101386E-1	5.687590E-1	4.946677E-1	4.613668E-1	5.044351E-1	5.591103E-1	5.247980E-1	5.369791E-1	5.766032E-1	5.662363E-1	5.123302E-1	5.545639E-1	5.408163E-1	5.642354E-1	4.617784E-1	5.436051E-1	5.885115E-1	5.769671E-1	4.402830E-1	5.225495E-1	5.566253E-1	5.316254E-1	5.340693E-1	5.374041E-1	5.180239E-1	5.635318E-1	5.241843E-1	5.726741E-1	5.269802E-1	5.690218E-1	5.120365E-1	4.481981E-1	5.946456E-1	5.758507E-1	4.454815E-1	5.389944E-1	5.566653E-1	5.263580E-1	5.176014E-1	5.551119E-1	5.482291E-1	4.522310E-1	5.392893E-1	5.832857E-1	5.610436E-1	5.338446E-1	5.146658E-1	4.856599E-1	5.711661E-1	5.603138E-1	4.721018E-1	5.193112E-1	5.291578E-1	5.508362E-1	5.594330E-1	5.848414E-1	4.369123E-1	5.087220E-1	4.710460E-1	5.353402E-1	5.299176E-1	5.335797E-1	4.667704E-1	4.744294E-1	5.703595E-1	5.836638E-1	5.634792E-1	5.390909E-1	5.305448E-1	5.347496E-1	5.052242E-1	5.017322E-1	5.813953E-1	5.351680E-1	5.082953E-1	5.088978E-1	5.328142E-1	5.476207E-1	4.688993E-1	5.029615E-1	5.725760E-1	5.746426E-1	3.983364E-1	4.763366E-1	5.427168E-1	5.449202E-1	5.723024E-1	5.482721E-1	5.287815E-1	5.871194E-1	5.903325E-1	5.485996E-1	5.577121E-1	5.525786E-1	5.398771E-1	4.846604E-1	4.743664E-1	4.929619E-1	4.597838E-1	5.326570E-1	5.256851E-1	5.563667E-1	5.338583E-1	5.862988E-1	5.403180E-1	5.480627E-1	4.970961E-1	5.696361E-1	5.967191E-1	5.261555E-1	4.884123E-1	5.261756E-1	5.941377E-1	5.351238E-1	5.677490E-1	5.117729E-1	5.275265E-1	5.375529E-1	5.676301E-1	5.572255E-1	5.442148E-1	5.645354E-1	5.653870E-1
5.370170E+2	5.270661E-1	5.460299E-1	5.787540E-1	5.943140E-1	5.429137E-1	5.754324E-1	5.513110E-1	5.860225E-1	4.883639E-1	5.842813E-1	5.823174E-1	6.206952E-1	5.421145E-1	5.305961E-1	5.546323E-1	5.190275E-1	6.040239E-1	6.150985E-1	5.946858E-1	5.365499E-1	5.629587E-1	6.116861E-1	5.698450E-1	5.447976E-1	5.642937E-1	6.184731E-1	5.953697E-1	5.802871E-1	5.748654E-1	6.173610E-1	5.535862E-1	4.816334E-1	5.767185E-1	6.144826E-1	5.991298E-1	4.857739E-1	5.653592E-1	5.848306E-1	5.851256E-1	5.669677E-1	5.110255E-1	5.122086E-1	5.431973E-1	5.362666E-1	6.531780E-1	5.890592E-1	5.269118E-1	4.805675E-1	6.411033E-1	5.447389E-1	5.432179E-1	5.283048E-1	6.007850E-1	5.861684E-1	5.697149E-1	5.794844E-1	5.342077E-1	5.777377E-1	5.472554E-1	5.927244E-1	6.051538E-1	5.447052E-1	4.468306E-1	5.436051E-1	6.105653E-1	5.878972E-1	5.225856E-1	5.970863E-1	5.704000E-1	5.899406E-1	5.493357E-1	5.829053E-1	5.782705E-1	5.799627E-1	5.328006E-1	6.039718E-1	5.537893E-1	5.957218E-1	5.077941E-1	4.817322E-1	6.301685E-1	6.225777E-1	5.676146E-1	5.349212E-1	5.523069E-1	5.629631E-1	5.802371E-1	6.346561E-1	6.262184E-1	5.058086E-1	5.353044E-1	6.022323E-1	5.783634E-1	5.444588E-1	5.536108E-1	5.280057E-1	5.978426E-1	5.651278E-1	5.554317E-1	5.833049E-1	5.770266E-1	5.907184E-1	5.643402E-1	5.999363E-1	5.063764E-1	5.816256E-1	4.811301E-1	5.892203E-1	5.472236E-1	5.899300E-1	4.934431E-1	5.128700E-1	6.215225E-1	6.088862E-1	5.760826E-1	5.408822E-1	6.159983E-1	5.509566E-1	5.616961E-1	5.382557E-1	6.164382E-1	5.641235E-1	6.023964E-1	5.813677E-1	5.881954E-1	5.516491E-1	5.118954E-1	5.208264E-1	5.909706E-1	5.978956E-1	4.294020E-1	4.893370E-1	6.153932E-1	5.540876E-1	5.874556E-1	5.747008E-1	5.767992E-1	5.485708E-1	5.864075E-1	5.896935E-1	5.660319E-1	5.760429E-1	5.274264E-1	5.208995E-1	5.050512E-1	5.608212E-1	4.834948E-1	5.679346E-1	5.544315E-1	6.106909E-1	5.727677E-1	5.925920E-1	6.286818E-1	5.779162E-1	5.717670E-1	5.895689E-1	6.165606E-1	6.063734E-1	5.296651E-1	5.513051E-1	6.520102E-1	5.955293E-1	5.938024E-1	5.730441E-1	5.522195E-1	6.072080E-1	6.291125E-1	5.682660E-1	5.350603E-1	5.181196E-1	5.496402E-1
5.372640E+2	6.011105E-1	6.689409E-1	7.159740E-1	7.076162E-1	6.134345E-1	6.151444E-1	6.787113E-1	6.833141E-1	5.596161E-1	6.496527E-1	6.265809E-1	7.143244E-1	6.201526E-1	6.095116E-1	6.711358E-1	5.867825E-1	6.892902E-1	6.575888E-1	6.502618E-1	6.204489E-1	6.540192E-1	6.844781E-1	6.787698E-1	6.279134E-1	6.598128E-1	7.405084E-1	6.913090E-1	6.397258E-1	6.787383E-1	6.822242E-1	6.466283E-1	5.698903E-1	7.383358E-1	7.028900E-1	6.789894E-1	5.414641E-1	6.792749E-1	6.498116E-1	6.558399E-1	6.750197E-1	5.937862E-1	5.794866E-1	6.635167E-1	5.970399E-1	7.017576E-1	6.699091E-1	6.941675E-1	5.489797E-1	7.509398E-1	6.865141E-1	6.526018E-1	6.001008E-1	6.430979E-1	6.596837E-1	6.268820E-1	6.503256E-1	6.476787E-1	6.841227E-1	6.462100E-1	6.635069E-1	6.803874E-1	7.019007E-1	6.189726E-1	6.227543E-1	7.514653E-1	6.471473E-1	6.471833E-1	6.662559E-1	6.472179E-1	6.436103E-1	6.455140E-1	6.634805E-1	6.469527E-1	6.456854E-1	6.270107E-1	7.118374E-1	6.306066E-1	6.534895E-1	6.133909E-1	5.662577E-1	7.173119E-1	7.043483E-1	6.654296E-1	6.093990E-1	6.585375E-1	6.064654E-1	6.551948E-1	6.836067E-1	6.733894E-1	5.302104E-1	6.406197E-1	6.914676E-1	6.625558E-1	6.255128E-1	5.876263E-1	5.917573E-1	6.713499E-1	6.794569E-1	6.405866E-1	6.087891E-1	7.011523E-1	6.953436E-1	6.870231E-1	6.995624E-1	5.400397E-1	6.347486E-1	5.679632E-1	6.734077E-1	6.610209E-1	6.157173E-1	5.784618E-1	5.707747E-1	7.072205E-1	7.024890E-1	6.479225E-1	6.191031E-1	7.030634E-1	6.790459E-1	6.523619E-1	6.560580E-1	7.120101E-1	6.485264E-1	6.534146E-1	6.713505E-1	6.679652E-1	6.704711E-1	5.544140E-1	5.985644E-1	7.062416E-1	7.188122E-1	5.100713E-1	5.711345E-1	6.603575E-1	6.549286E-1	6.675504E-1	6.410323E-1	6.781049E-1	6.950539E-1	6.348118E-1	6.707247E-1	6.550957E-1	6.464364E-1	6.578857E-1	5.919836E-1	5.761119E-1	5.894227E-1	5.380842E-1	6.420782E-1	6.843224E-1	6.860805E-1	6.451052E-1	6.899056E-1	6.837492E-1	6.592209E-1	6.154762E-1	6.698848E-1	6.760856E-1	6.942068E-1	5.995939E-1	6.092945E-1	6.796878E-1	6.775086E-1	6.500542E-1	6.449205E-1	6.846625E-1	6.410256E-1	7.186391E-1	6.743747E-1	6.851880E-1	6.598132E-1	6.711149E-1
5.375060E+2	6.446370E-1	7.051994E-1	8.013264E-1	8.001471E-1	7.014443E-1	7.406091E-1	7.509432E-1	7.869306E-1	6.474384E-1	7.477100E-1	7.151069E-1	8.074153E-1	6.938817E-1	7.254793E-1	7.773865E-1	6.837561E-1	7.715339E-1	7.874876E-1	7.434502E-1	7.365355E-1	7.370751E-1	7.824268E-1	7.346777E-1	7.176256E-1	7.023930E-1	8.079010E-1	7.648073E-1	7.264749E-1	8.005038E-1	8.060538E-1	7.420448E-1	6.265687E-1	8.299999E-1	8.016627E-1	8.072135E-1	6.656969E-1	7.920901E-1	7.584778E-1	8.248263E-1	7.372875E-1	6.959532E-1	6.564526E-1	7.603594E-1	7.090200E-1	8.267530E-1	7.577192E-1	7.442964E-1	6.308233E-1	8.286439E-1	7.503710E-1	8.017625E-1	6.972679E-1	7.323102E-1	7.612781E-1	7.452998E-1	7.513931E-1	7.711251E-1	7.376028E-1	7.544771E-1	7.939923E-1	7.986855E-1	7.857382E-1	7.544683E-1	7.203554E-1	8.133386E-1	7.604695E-1	7.923567E-1	7.413880E-1	7.282746E-1	7.509502E-1	7.366033E-1	7.900309E-1	7.210562E-1	7.800641E-1	7.327085E-1	7.431348E-1	7.759925E-1	7.534908E-1	7.713155E-1	6.769670E-1	8.238820E-1	7.813415E-1	8.307962E-1	7.234429E-1	7.881928E-1	7.603140E-1	7.979224E-1	7.993543E-1	7.972913E-1	6.447933E-1	7.578892E-1	8.149298E-1	7.861992E-1	6.954693E-1	7.552379E-1	6.815677E-1	7.928746E-1	7.979980E-1	8.297519E-1	7.277159E-1	7.712858E-1	7.787334E-1	7.878954E-1	8.087480E-1	6.650756E-1	7.178247E-1	6.777648E-1	7.783621E-1	7.286698E-1	7.556387E-1	6.945988E-1	6.787989E-1	8.037905E-1	8.269188E-1	7.544215E-1	7.074760E-1	7.627194E-1	7.475339E-1	7.321474E-1	7.440241E-1	8.349792E-1	7.711262E-1	7.441138E-1	7.051695E-1	7.563723E-1	7.404551E-1	6.427956E-1	6.598854E-1	7.822724E-1	7.868273E-1	5.711993E-1	6.258464E-1	7.471505E-1	7.331210E-1	7.660462E-1	7.301646E-1	7.442756E-1	7.502077E-1	8.081498E-1	7.488621E-1	7.813518E-1	7.777365E-1	7.120173E-1	7.295068E-1	6.568626E-1	7.240197E-1	6.963385E-1	7.353562E-1	7.498007E-1	7.681218E-1	7.442957E-1	7.910915E-1	7.567447E-1	7.710139E-1	7.071458E-1	7.572353E-1	7.929305E-1	7.906718E-1	6.685166E-1	7.276901E-1	8.256278E-1	7.822929E-1	7.637423E-1	7.232770E-1	7.250685E-1	7.384412E-1	7.930644E-1	7.890705E-1	7.465213E-1	7.575329E-1	7.363530E-1
5.377580E+2	7.612070E-1	8.109024E-1	8.853654E-1	9.052661E-1	7.601174E-1	8.465067E-1	9.136065E-1	9.041677E-1	6.805793E-1	8.983974E-1	8.691652E-1	9.306389E-1	8.346368E-1	8.534769E-1	8.920253E-1	7.612501E-1	8.670806E-1	9.234569E-1	9.068110E-1	7.861366E-1	8.456470E-1	8.819806E-1	8.681822E-1	7.879884E-1	8.111473E-1	9.967216E-1	9.196571E-1	8.319646E-1	9.013950E-1	9.261311E-1	8.673669E-1	7.322345E-1	9.186482E-1	9.065328E-1	8.943835E-1	7.631553E-1	9.153608E-1	8.545842E-1	8.737025E-1	8.343505E-1	8.175262E-1	7.603297E-1	8.789181E-1	8.136850E-1	9.304614E-1	7.968056E-1	8.623880E-1	7.189624E-1	9.139419E-1	9.085493E-1	9.035422E-1	8.133299E-1	8.633258E-1	8.894205E-1	8.703526E-1	8.373477E-1	8.465644E-1	9.290958E-1	8.831180E-1	9.066286E-1	8.692498E-1	8.810081E-1	8.750161E-1	8.368946E-1	9.131934E-1	8.703406E-1	8.540837E-1	8.785356E-1	8.458863E-1	8.350682E-1	8.877411E-1	8.871947E-1	8.710714E-1	8.704328E-1	8.866616E-1	8.593835E-1	8.260010E-1	8.500945E-1	8.641849E-1	7.265795E-1	9.365576E-1	9.448838E-1	8.902418E-1	8.572702E-1	8.535654E-1	8.112435E-1	9.016308E-1	9.059231E-1	8.746511E-1	6.999628E-1	9.133001E-1	9.188330E-1	8.978145E-1	8.387611E-1	9.731326E-1	7.653289E-1	9.339617E-1	8.738167E-1	9.045659E-1	8.002041E-1	8.814967E-1	8.755890E-1	9.340239E-1	9.415831E-1	7.895766E-1	8.319832E-1	7.287445E-1	8.894894E-1	8.214899E-1	8.310913E-1	8.885308E-1	7.581136E-1	8.856507E-1	9.760107E-1	9.214174E-1	8.083869E-1	8.863312E-1	8.939215E-1	9.181416E-1	8.242739E-1	9.229053E-1	8.475206E-1	8.926344E-1	8.217249E-1	8.981283E-1	8.940170E-1	8.047488E-1	7.501770E-1	8.785361E-1	8.571675E-1	7.190100E-1	7.341870E-1	8.679286E-1	8.442085E-1	8.640009E-1	8.908122E-1	8.924288E-1	9.150753E-1	9.160776E-1	8.651993E-1	8.811820E-1	8.905655E-1	8.403101E-1	8.298618E-1	7.914477E-1	8.479612E-1	8.617610E-1	8.112932E-1	8.174074E-1	8.662393E-1	8.741755E-1	8.927618E-1	9.020962E-1	8.605761E-1	8.030638E-1	8.750705E-1	8.959973E-1	9.043980E-1	7.796986E-1	8.195073E-1	9.677926E-1	8.704359E-1	8.626269E-1	7.963314E-1	9.012853E-1	8.454472E-1	9.359832E-1	8.221914E-1	8.627791E-1	8.552519E-1	9.275652E-1
5.380160E+2	9.119887E-1	9.583848E-1	1.022706E+0	1.049979E+0	9.955342E-1	1.163441E+0	9.933838E-1	1.008075E+0	1.102045E+0	1.081031E+0	9.383573E-1	9.737677E-1	9.758545E-1	9.741679E-1	9.556356E-1	9.796396E-1	1.076136E+0	1.114967E+0	1.002199E+0	1.032425E+0	1.106871E+0	1.080990E+0	9.242348E-1	9.852523E-1	1.053696E+0	1.137750E+0	9.820651E-1	9.413020E-1	9.910125E-1	1.049835E+0	9.714067E-1	9.505555E-1	1.088800E+0	1.094860E+0	1.006814E+0	1.027738E+0	1.118960E+0	1.142430E+0	9.954504E-1	9.891945E-1	9.927800E-1	1.140413E+0	9.225263E-1	9.453317E-1	1.027819E+0	9.742287E-1	9.378536E-1	9.647091E-1	1.101190E+0	1.057999E+0	9.795758E-1	9.643627E-1	1.114397E+0	1.148052E+0	9.360867E-1	9.413509E-1	1.058772E+0	1.186978E+0	9.431210E-1	1.053425E+0	1.010092E+0	9.749592E-1	1.008101E+0	1.083746E+0	1.108043E+0	1.085730E+0	9.656117E-1	1.037189E+0	1.121089E+0	1.134235E+0	1.002273E+0	9.697294E-1	1.060408E+0	1.092305E+0	1.003993E+0	1.012612E+0	9.946211E-1	9.810676E-1	9.858013E-1	9.978028E-1	9.856607E-1	1.057443E+0	1.038306E+0	1.047596E+0	1.087463E+0	1.141700E+0	9.531256E-1	1.023523E+0	1.053261E+0	1.143813E+0	1.004184E+0	1.031487E+0	1.014889E+0	9.741561E-1	1.002695E+0	9.899954E-1	9.727909E-1	1.055068E+0	9.891633E-1	9.911274E-1	1.146214E+0	1.092748E+0	1.024837E+0	1.019523E+0	9.143182E-1	1.057042E+0	1.072632E+0	1.005631E+0	9.133234E-1	9.622493E-1	1.017810E+0	9.936982E-1	1.071618E+0	9.767024E-1	9.768522E-1	9.902270E-1	1.150699E+0	1.006030E+0	9.770916E-1	9.156862E-1	1.103770E+0	9.879456E-1	1.007605E+0	9.977249E-1	9.954524E-1	9.829406E-1	9.574017E-1	1.019315E+0	1.034316E+0	1.017827E+0	7.749941E-1	8.722756E-1	1.197497E+0	9.266703E-1	1.005331E+0	9.981861E-1	1.075540E+0	9.758823E-1	1.078624E+0	9.981768E-1	9.768937E-1	9.641455E-1	1.028590E+0	1.060886E+0	8.727818E-1	9.005480E-1	1.032818E+0	1.062843E+0	1.071751E+0	9.994456E-1	9.760151E-1	9.936413E-1	1.099750E+0	9.663452E-1	9.451507E-1	1.025228E+0	9.729661E-1	9.704092E-1	9.638284E-1	1.100935E+0	1.127005E+0	9.705156E-1	1.066940E+0	1.005145E+0	1.129515E+0	9.569202E-1	1.018921E+0	9.645586E-1	1.090337E+0	9.561273E-1	9.646081E-1
5.382740E+2	1.105914E+0	1.214049E+0	1.269450E+0	1.253987E+0	1.276892E+0	1.335130E+0	1.143951E+0	1.220852E+0	1.299204E+0	1.315004E+0	1.146815E+0	1.213679E+0	1.171205E+0	1.177802E+0	1.182352E+0	1.227063E+0	1.263178E+0	1.240313E+0	1.238022E+0	1.224101E+0	1.398014E+0	1.400623E+0	1.194955E+0	1.189054E+0	1.216242E+0	1.362826E+0	1.208600E+0	1.183778E+0	1.296509E+0	1.241869E+0	1.170230E+0	1.117245E+0	1.298571E+0	1.278453E+0	1.187387E+0	1.158878E+0	1.357266E+0	1.402282E+0	1.226233E+0	1.188727E+0	1.143433E+0	1.280790E+0	1.133643E+0	1.128806E+0	1.260688E+0	1.199447E+0	1.188223E+0	1.137411E+0	1.375488E+0	1.257128E+0	1.131671E+0	1.166912E+0	1.351192E+0	1.389224E+0	1.128116E+0	1.225087E+0	1.349702E+0	1.374189E+0	1.143309E+0	1.209454E+0	1.255795E+0	1.220169E+0	1.172529E+0	1.273431E+0	1.383675E+0	1.275311E+0	1.195298E+0	1.328737E+0	1.362954E+0	1.385702E+0	1.188995E+0	1.241251E+0	1.280147E+0	1.314059E+0	1.132525E+0	1.166772E+0	1.200809E+0	1.219517E+0	1.182390E+0	1.165743E+0	1.284021E+0	1.312853E+0	1.215572E+0	1.257590E+0	1.393980E+0	1.419742E+0	1.181952E+0	1.294467E+0	1.351392E+0	1.364120E+0	1.189966E+0	1.262937E+0	1.163382E+0	1.196749E+0	1.244270E+0	1.190652E+0	1.219693E+0	1.214398E+0	1.256133E+0	1.215313E+0	1.337365E+0	1.388356E+0	1.215378E+0	1.217316E+0	1.053007E+0	1.307832E+0	1.328172E+0	1.231854E+0	1.157638E+0	1.146752E+0	1.209713E+0	1.180966E+0	1.262337E+0	1.266349E+0	1.196803E+0	1.215019E+0	1.399588E+0	1.361838E+0	1.135221E+0	1.140643E+0	1.297547E+0	1.304651E+0	1.220854E+0	1.205813E+0	1.182150E+0	1.233867E+0	1.128176E+0	1.213705E+0	1.216379E+0	1.303627E+0	1.001102E+0	1.124213E+0	1.378228E+0	1.376994E+0	1.178428E+0	1.202779E+0	1.279498E+0	1.363422E+0	1.272567E+0	1.177169E+0	1.185079E+0	1.190112E+0	1.300431E+0	1.221060E+0	1.076228E+0	1.070608E+0	1.288000E+0	1.232236E+0	1.321003E+0	1.279771E+0	1.167364E+0	1.190512E+0	1.267075E+0	1.223904E+0	1.158204E+0	1.258477E+0	1.235508E+0	1.187701E+0	1.134878E+0	1.283909E+0	1.277914E+0	1.188490E+0	1.255205E+0	1.225820E+0	1.386162E+0	1.217951E+0	1.283304E+0	1.176092E+0	1.308586E+0	1.086116E+0	1.220007E+0
5.385060E+2	1.270012E+0	1.432215E+0	1.509751E+0	1.444713E+0	1.541486E+0	1.618288E+0	1.362351E+0	1.365331E+0	1.499705E+0	1.556546E+0	1.452057E+0	1.481113E+0	1.367016E+0	1.382792E+0	1.359435E+0	1.464624E+0	1.540143E+0	1.535926E+0	1.396893E+0	1.519066E+0	1.518597E+0	1.571366E+0	1.429674E+0	1.359686E+0	1.482087E+0	1.612361E+0	1.420116E+0	1.385119E+0	1.429211E+0	1.456292E+0	1.314063E+0	1.289709E+0	1.512655E+0	1.474170E+0	1.409531E+0	1.366647E+0	1.546576E+0	1.599956E+0	1.348423E+0	1.353550E+0	1.299254E+0	1.592423E+0	1.295633E+0	1.337012E+0	1.467016E+0	1.408264E+0	1.379097E+0	1.359438E+0	1.592823E+0	1.510215E+0	1.338742E+0	1.375285E+0	1.551540E+0	1.627642E+0	1.361888E+0	1.355434E+0	1.516793E+0	1.569130E+0	1.335980E+0	1.440266E+0	1.448806E+0	1.363549E+0	1.343221E+0	1.489999E+0	1.516610E+0	1.447307E+0	1.348474E+0	1.445011E+0	1.599237E+0	1.564774E+0	1.378811E+0	1.400032E+0	1.471732E+0	1.503600E+0	1.335880E+0	1.384181E+0	1.371972E+0	1.399619E+0	1.343616E+0	1.360058E+0	1.500489E+0	1.532682E+0	1.488479E+0	1.422836E+0	1.623874E+0	1.560329E+0	1.363698E+0	1.488741E+0	1.537558E+0	1.571004E+0	1.348792E+0	1.472578E+0	1.388538E+0	1.440872E+0	1.435052E+0	1.384696E+0	1.408205E+0	1.512254E+0	1.451990E+0	1.441271E+0	1.592852E+0	1.686175E+0	1.377319E+0	1.451789E+0	1.259263E+0	1.504503E+0	1.455339E+0	1.425485E+0	1.369501E+0	1.435666E+0	1.392530E+0	1.424749E+0	1.542453E+0	1.444028E+0	1.438788E+0	1.381615E+0	1.637675E+0	1.558938E+0	1.346601E+0	1.334062E+0	1.550494E+0	1.537531E+0	1.392614E+0	1.341091E+0	1.366079E+0	1.424184E+0	1.321661E+0	1.381735E+0	1.442630E+0	1.454191E+0	1.175969E+0	1.272637E+0	1.614032E+0	1.576519E+0	1.425750E+0	1.397624E+0	1.494409E+0	1.565058E+0	1.489077E+0	1.395953E+0	1.396483E+0	1.396799E+0	1.423316E+0	1.448250E+0	1.199509E+0	1.224272E+0	1.401593E+0	1.532995E+0	1.553103E+0	1.584655E+0	1.377252E+0	1.358995E+0	1.507832E+0	1.457656E+0	1.385254E+0	1.395069E+0	1.423455E+0	1.395860E+0	1.354726E+0	1.528431E+0	1.511290E+0	1.467710E+0	1.516332E+0	1.413168E+0	1.569673E+0	1.568242E+0	1.433772E+0	1.395056E+0	1.529202E+0	1.450123E+0	1.415718E+0
5.387650E+2	1.537172E+0	1.599988E+0	1.742828E+0	1.699641E+0	1.707350E+0	1.892818E+0	1.579047E+0	1.681044E+0	1.701862E+0	1.824120E+0	1.542884E+0	1.642005E+0	1.622672E+0	1.642635E+0	1.596171E+0	1.665773E+0	1.674391E+0	1.700425E+0	1.638286E+0	1.732245E+0	1.803286E+0	1.779574E+0	1.542935E+0	1.565935E+0	1.689813E+0	1.851577E+0	1.624338E+0	1.608951E+0	1.684669E+0	1.696983E+0	1.595093E+0	1.554884E+0	1.771970E+0	1.794874E+0	1.629423E+0	1.586196E+0	1.834944E+0	1.913394E+0	1.580326E+0	1.578811E+0	1.576074E+0	1.808253E+0	1.578532E+0	1.540712E+0	1.722463E+0	1.601016E+0	1.628295E+0	1.523547E+0	1.884943E+0	1.747481E+0	1.598458E+0	1.596611E+0	1.851807E+0	1.890051E+0	1.571160E+0	1.618021E+0	1.832892E+0	1.776728E+0	1.521080E+0	1.682155E+0	1.695262E+0	1.600773E+0	1.595410E+0	1.716276E+0	1.799026E+0	1.745284E+0	1.562235E+0	1.699624E+0	1.823337E+0	1.879568E+0	1.589486E+0	1.611424E+0	1.804902E+0	1.779401E+0	1.557040E+0	1.603262E+0	1.557056E+0	1.679234E+0	1.684921E+0	1.578264E+0	1.653131E+0	1.711092E+0	1.596023E+0	1.771949E+0	1.846684E+0	1.791101E+0	1.606025E+0	1.683519E+0	1.798573E+0	1.829346E+0	1.645380E+0	1.704220E+0	1.625241E+0	1.631929E+0	1.658859E+0	1.590842E+0	1.618651E+0	1.734898E+0	1.653318E+0	1.614001E+0	1.823849E+0	1.848810E+0	1.670665E+0	1.671667E+0	1.472462E+0	1.731689E+0	1.735448E+0	1.619676E+0	1.479103E+0	1.576541E+0	1.615356E+0	1.666099E+0	1.745826E+0	1.695128E+0	1.649268E+0	1.574480E+0	1.835988E+0	1.801524E+0	1.591658E+0	1.515654E+0	1.787514E+0	1.714346E+0	1.630702E+0	1.552459E+0	1.571852E+0	1.644710E+0	1.501292E+0	1.631367E+0	1.652326E+0	1.740785E+0	1.333298E+0	1.457362E+0	1.848271E+0	1.827811E+0	1.600551E+0	1.534436E+0	1.787200E+0	1.726365E+0	1.685962E+0	1.608950E+0	1.577059E+0	1.653408E+0	1.669073E+0	1.589954E+0	1.416461E+0	1.460941E+0	1.655239E+0	1.641221E+0	1.855468E+0	1.815260E+0	1.650713E+0	1.629630E+0	1.746671E+0	1.777790E+0	1.536414E+0	1.648916E+0	1.680843E+0	1.596914E+0	1.559984E+0	1.690318E+0	1.762912E+0	1.640917E+0	1.681533E+0	1.638222E+0	1.866546E+0	1.808500E+0	1.707746E+0	1.541645E+0	1.750732E+0	1.644340E+0	1.597932E+0
5.390450E+2	1.696267E+0	1.842738E+0	1.878079E+0	1.918697E+0	1.994509E+0	2.081591E+0	1.797448E+0	1.896546E+0	1.962565E+0	2.005282E+0	1.798688E+0	1.897062E+0	1.795987E+0	1.796136E+0	1.766264E+0	1.891905E+0	1.967688E+0	1.987537E+0	1.842067E+0	1.902153E+0	2.048953E+0	2.078768E+0	1.820547E+0	1.789335E+0	1.930335E+0	2.104749E+0	1.902619E+0	1.756212E+0	1.901361E+0	1.962331E+0	1.757918E+0	1.740304E+0	2.029471E+0	2.055826E+0	1.875749E+0	1.804674E+0	1.974725E+0	2.109979E+0	1.787788E+0	1.837492E+0	1.765568E+0	2.033224E+0	1.811537E+0	1.768051E+0	1.948438E+0	1.878905E+0	1.804227E+0	1.721646E+0	2.038598E+0	1.979476E+0	1.826000E+0	1.714290E+0	2.079680E+0	2.137655E+0	1.817695E+0	1.815435E+0	1.977535E+0	2.095304E+0	1.770793E+0	1.866193E+0	1.882566E+0	1.821800E+0	1.778162E+0	1.895938E+0	1.998735E+0	1.917855E+0	1.754274E+0	1.884478E+0	2.123190E+0	2.097859E+0	1.734516E+0	1.807649E+0	2.014564E+0	2.028791E+0	1.771888E+0	1.765901E+0	1.728735E+0	1.759818E+0	1.773548E+0	1.779929E+0	1.968399E+0	1.954284E+0	1.948912E+0	1.955817E+0	2.043888E+0	2.054770E+0	1.797527E+0	1.915529E+0	1.949514E+0	2.017136E+0	1.847473E+0	1.910805E+0	1.741663E+0	1.831187E+0	1.891055E+0	1.814206E+0	1.878297E+0	1.929255E+0	1.901488E+0	1.817876E+0	2.080448E+0	2.048223E+0	1.841331E+0	1.859851E+0	1.607119E+0	1.886537E+0	1.958972E+0	1.777388E+0	1.742356E+0	1.747983E+0	1.842632E+0	1.852463E+0	1.949196E+0	1.862717E+0	1.890623E+0	1.846762E+0	2.091812E+0	2.012740E+0	1.753820E+0	1.698276E+0	1.958903E+0	1.986650E+0	1.877861E+0	1.780739E+0	1.754256E+0	1.814885E+0	1.738246E+0	1.799394E+0	1.903716E+0	1.904719E+0	1.433510E+0	1.629618E+0	2.156751E+0	2.109307E+0	1.760741E+0	1.718403E+0	1.873863E+0	1.939865E+0	1.914895E+0	1.783164E+0	1.787487E+0	1.802183E+0	1.866112E+0	1.825510E+0	1.593035E+0	1.589927E+0	1.846026E+0	1.808643E+0	1.991747E+0	2.023686E+0	1.745517E+0	1.759865E+0	1.900985E+0	1.908002E+0	1.713073E+0	1.830067E+0	1.882016E+0	1.756334E+0	1.757697E+0	1.881202E+0	1.979935E+0	1.838774E+0	1.890555E+0	1.821447E+0	2.033782E+0	2.006362E+0	1.826938E+0	1.763675E+0	1.924660E+0	1.872761E+0	1.708158E+0
5.392720E+2	1.838353E+0	1.964418E+0	2.065196E+0	1.987308E+0	2.142884E+0	2.238136E+0	1.929397E+0	1.982650E+0	2.121641E+0	2.123837E+0	1.971720E+0	2.069250E+0	1.957326E+0	1.929425E+0	1.913989E+0	1.986338E+0	2.157574E+0	2.100441E+0	1.994200E+0	2.094225E+0	2.215060E+0	2.248974E+0	1.912120E+0	1.933579E+0	2.093754E+0	2.228002E+0	2.015391E+0	1.926496E+0	2.094199E+0	2.130120E+0	1.906023E+0	1.847185E+0	2.114497E+0	2.137528E+0	1.994976E+0	2.010835E+0	2.230619E+0	2.283079E+0	1.972894E+0	1.903881E+0	1.990448E+0	2.148943E+0	1.945356E+0	1.863146E+0	2.140567E+0	1.992413E+0	1.893395E+0	1.841266E+0	2.235483E+0	2.139413E+0	1.937139E+0	1.935078E+0	2.264225E+0	2.221380E+0	1.927434E+0	1.896192E+0	2.165200E+0	2.233892E+0	1.969870E+0	2.002832E+0	1.978034E+0	1.988042E+0	1.924747E+0	2.146983E+0	2.175165E+0	2.083524E+0	1.939454E+0	2.108686E+0	2.317093E+0	2.209848E+0	1.919242E+0	1.928510E+0	2.109750E+0	2.145570E+0	1.940775E+0	1.982749E+0	1.975682E+0	1.989432E+0	1.965886E+0	1.924632E+0	2.109938E+0	2.083311E+0	1.958644E+0	2.076843E+0	2.202418E+0	2.265913E+0	2.003918E+0	2.054730E+0	2.214929E+0	2.278658E+0	2.006869E+0	1.999427E+0	2.031286E+0	1.968207E+0	1.985702E+0	1.896572E+0	2.019386E+0	2.092927E+0	2.034691E+0	1.963979E+0	2.183422E+0	2.199980E+0	1.994549E+0	2.027407E+0	1.782915E+0	2.113159E+0	2.089501E+0	1.995713E+0	1.852484E+0	1.867369E+0	2.048790E+0	1.987736E+0	2.119316E+0	2.086355E+0	2.022959E+0	1.991858E+0	2.219189E+0	2.253756E+0	1.896292E+0	1.851056E+0	2.083783E+0	2.114177E+0	1.948151E+0	1.857437E+0	1.905157E+0	1.881346E+0	1.904499E+0	1.991566E+0	2.034315E+0	2.054701E+0	1.623911E+0	1.773714E+0	2.212169E+0	2.192892E+0	2.029173E+0	1.910661E+0	2.055979E+0	2.182421E+0	2.012363E+0	1.962013E+0	1.963656E+0	1.973923E+0	2.012809E+0	1.957923E+0	1.735694E+0	1.761540E+0	2.020273E+0	2.014930E+0	2.141335E+0	2.090210E+0	1.947190E+0	1.897846E+0	2.133420E+0	2.048378E+0	1.881236E+0	1.977216E+0	1.924452E+0	1.854828E+0	1.910133E+0	2.055654E+0	2.096307E+0	1.932465E+0	2.077665E+0	2.017044E+0	2.199897E+0	2.083586E+0	2.011919E+0	1.852611E+0	2.115983E+0	1.954601E+0	1.876875E+0
5.395160E+2	1.932412E+0	2.100233E+0	2.389536E+0	2.210135E+0	2.275463E+0	2.474677E+0	2.465167E+0	2.101345E+0	2.287344E+0	2.291698E+0	2.231545E+0	2.182790E+0	2.079409E+0	2.052129E+0	2.114375E+0	2.136670E+0	2.264004E+0	2.264333E+0	2.099177E+0	2.157017E+0	2.308622E+0	2.408476E+0	2.258173E+0	2.072107E+0	2.191001E+0	2.327574E+0	2.269548E+0	2.095710E+0	2.209500E+0	2.212674E+0	2.105402E+0	2.010742E+0	2.266472E+0	2.271053E+0	2.120387E+0	2.039217E+0	2.357193E+0	2.401572E+0	2.106523E+0	2.049937E+0	2.047525E+0	2.248517E+0	1.962378E+0	1.984696E+0	2.249191E+0	2.067909E+0	2.012931E+0	2.082595E+0	2.362264E+0	2.262441E+0	2.089806E+0	2.017132E+0	2.333044E+0	2.402106E+0	2.028500E+0	2.035988E+0	2.319819E+0	2.302323E+0	2.045538E+0	2.165935E+0	2.190246E+0	2.079978E+0	2.024081E+0	2.231476E+0	2.275024E+0	2.176714E+0	1.990895E+0	2.213629E+0	2.339341E+0	2.361564E+0	2.029157E+0	2.059801E+0	2.219398E+0	2.264689E+0	1.992477E+0	2.028021E+0	1.993211E+0	2.095261E+0	1.997469E+0	2.039016E+0	2.218168E+0	2.236234E+0	2.144004E+0	2.146666E+0	2.365849E+0	2.369361E+0	1.994163E+0	2.183734E+0	2.326251E+0	2.245768E+0	2.087135E+0	2.127779E+0	2.043798E+0	2.070006E+0	2.134582E+0	2.000341E+0	2.138535E+0	2.225306E+0	2.155126E+0	2.104430E+0	2.328147E+0	2.405606E+0	2.091602E+0	2.086276E+0	1.851843E+0	2.133506E+0	2.241884E+0	2.119752E+0	2.028160E+0	2.021136E+0	2.147146E+0	2.116684E+0	2.183268E+0	2.206300E+0	2.055729E+0	2.099936E+0	2.377196E+0	2.258985E+0	1.964685E+0	1.916388E+0	2.269830E+0	2.225690E+0	2.093272E+0	1.989089E+0	2.032180E+0	2.060079E+0	1.917875E+0	2.129174E+0	2.183923E+0	2.204687E+0	1.720110E+0	1.863634E+0	2.429156E+0	2.378399E+0	2.074631E+0	1.976991E+0	2.188325E+0	2.245877E+0	2.164114E+0	2.015262E+0	1.992037E+0	2.080258E+0	2.125405E+0	2.093587E+0	1.816442E+0	1.815378E+0	2.163642E+0	2.145275E+0	2.230769E+0	2.270922E+0	2.050763E+0	2.035343E+0	2.216663E+0	2.198287E+0	1.943156E+0	2.131399E+0	2.056734E+0	1.998003E+0	1.985090E+0	2.133936E+0	2.202617E+0	2.092726E+0	2.125036E+0	2.094813E+0	2.307650E+0	2.296589E+0	2.096592E+0	1.983257E+0	2.217597E+0	2.151263E+0	2.014095E+0
5.397810E+2	1.919402E+0	2.106990E+0	2.290397E+0	2.137116E+0	2.147400E+0	2.315829E+0	2.499290E+0	2.079939E+0	2.202291E+0	2.232973E+0	2.237295E+0	2.180101E+0	1.976956E+0	2.026146E+0	2.047269E+0	2.131587E+0	2.248887E+0	2.241268E+0	2.195732E+0	2.162291E+0	2.354652E+0	2.319089E+0	2.325164E+0	2.012740E+0	2.208262E+0	2.298432E+0	2.231395E+0	1.986473E+0	2.120539E+0	2.213746E+0	2.053658E+0	1.916411E+0	2.237523E+0	2.188743E+0	2.256485E+0	2.015650E+0	2.303260E+0	2.318024E+0	2.363382E+0	2.026129E+0	1.950494E+0	2.357239E+0	2.118499E+0	1.936863E+0	2.056513E+0	2.064698E+0	2.074629E+0	2.002435E+0	2.311439E+0	2.180423E+0	2.136020E+0	2.032246E+0	2.378415E+0	2.374028E+0	2.368947E+0	2.034098E+0	2.274925E+0	2.312676E+0	2.189314E+0	2.162243E+0	2.101003E+0	2.099032E+0	1.988876E+0	2.144073E+0	2.200895E+0	2.173260E+0	2.096058E+0	2.177857E+0	2.366365E+0	2.290867E+0	2.176226E+0	2.055535E+0	2.219397E+0	2.203660E+0	2.128045E+0	2.017401E+0	1.960215E+0	2.041860E+0	2.079024E+0	2.037181E+0	2.184872E+0	2.136941E+0	2.102933E+0	2.119320E+0	2.331531E+0	2.292436E+0	2.028052E+0	2.105719E+0	2.267760E+0	2.268050E+0	2.037042E+0	2.149174E+0	2.022150E+0	2.010179E+0	2.165639E+0	2.022676E+0	2.108897E+0	2.142872E+0	2.152083E+0	2.011551E+0	2.281389E+0	2.326875E+0	2.048528E+0	2.118476E+0	1.830472E+0	2.154415E+0	2.156729E+0	2.100667E+0	1.921707E+0	1.959058E+0	2.011560E+0	2.029098E+0	2.181348E+0	2.123907E+0	2.087868E+0	2.047991E+0	2.364831E+0	2.315449E+0	2.017012E+0	1.923589E+0	2.289583E+0	2.151765E+0	2.041685E+0	2.015661E+0	1.960029E+0	2.004699E+0	1.912619E+0	2.046127E+0	2.117704E+0	2.119815E+0	1.715100E+0	1.834381E+0	2.292693E+0	2.307755E+0	1.969094E+0	1.983727E+0	2.104002E+0	2.179456E+0	2.189624E+0	1.993847E+0	1.993508E+0	2.014860E+0	2.136232E+0	2.081972E+0	1.828287E+0	1.849027E+0	2.091407E+0	2.123154E+0	2.265370E+0	2.229897E+0	2.020076E+0	1.960782E+0	2.216660E+0	2.110627E+0	1.932232E+0	2.014734E+0	2.025869E+0	1.971094E+0	1.943841E+0	2.129589E+0	2.191296E+0	2.111217E+0	2.151686E+0	2.078320E+0	2.282396E+0	2.312740E+0	2.029717E+0	1.956265E+0	2.153516E+0	2.052320E+0	1.885873E+0
5.400190E+2	1.761807E+0	1.874077E+0	2.240494E+0	2.061581E+0	2.050925E+0	2.246765E+0	2.253589E+0	1.916981E+0	2.063095E+0	2.126054E+0	2.040702E+0	2.021362E+0	2.005681E+0	1.964070E+0	1.924242E+0	1.979987E+0	2.130963E+0	2.032453E+0	2.073356E+0	2.002936E+0	2.120997E+0	2.178325E+0	2.216243E+0	1.855740E+0	2.067284E+0	2.228609E+0	2.142188E+0	1.878304E+0	2.052947E+0	2.010041E+0	1.963937E+0	1.865808E+0	2.123545E+0	2.086924E+0	2.076521E+0	1.899452E+0	2.129360E+0	2.274341E+0	2.184517E+0	1.886027E+0	1.882004E+0	2.170473E+0	2.060981E+0	1.880029E+0	2.055421E+0	1.963502E+0	1.896288E+0	1.835808E+0	2.147266E+0	2.071453E+0	2.070505E+0	1.895132E+0	2.208655E+0	2.213722E+0	2.211740E+0	1.954283E+0	2.119683E+0	2.138435E+0	2.087448E+0	1.992984E+0	1.966621E+0	1.899916E+0	1.916550E+0	2.009568E+0	2.169040E+0	2.047282E+0	1.998324E+0	2.022221E+0	2.291662E+0	2.133473E+0	2.193018E+0	1.855992E+0	2.065167E+0	2.140288E+0	2.111963E+0	1.984985E+0	1.872059E+0	1.930210E+0	1.992756E+0	1.804274E+0	2.087732E+0	2.030211E+0	2.092662E+0	1.966872E+0	2.148483E+0	2.207025E+0	2.292969E+0	2.005779E+0	2.091662E+0	2.170973E+0	2.159435E+0	2.012268E+0	1.819602E+0	1.868333E+0	2.026128E+0	1.928215E+0	1.916237E+0	2.026136E+0	2.011577E+0	1.948689E+0	2.195114E+0	2.224841E+0	2.049075E+0	1.963000E+0	1.698489E+0	2.069079E+0	2.114710E+0	1.876167E+0	1.883422E+0	1.875490E+0	2.012669E+0	1.961946E+0	2.027227E+0	2.045997E+0	1.953011E+0	1.919012E+0	2.169204E+0	2.230752E+0	1.849148E+0	1.768749E+0	2.011788E+0	2.112331E+0	1.969691E+0	1.853208E+0	1.837581E+0	1.877820E+0	1.927431E+0	1.921553E+0	1.966868E+0	2.017496E+0	1.607376E+0	1.775878E+0	2.202761E+0	2.162151E+0	1.913356E+0	1.850544E+0	1.986298E+0	2.057883E+0	2.064691E+0	1.853199E+0	1.817825E+0	1.962442E+0	1.932153E+0	1.914249E+0	1.661401E+0	1.754247E+0	1.968993E+0	1.999979E+0	2.099282E+0	2.089099E+0	1.926367E+0	1.880899E+0	2.041216E+0	2.022337E+0	1.867274E+0	1.950249E+0	1.940990E+0	1.888338E+0	1.862840E+0	2.001530E+0	2.042213E+0	1.978695E+0	1.949768E+0	1.946346E+0	2.143217E+0	2.090651E+0	1.945584E+0	1.798640E+0	2.041835E+0	2.020562E+0	1.849879E+0
5.402740E+2	1.714111E+0	1.819979E+0	2.120741E+0	1.898553E+0	1.915535E+0	1.971494E+0	2.024948E+0	1.784549E+0	1.948861E+0	1.969243E+0	1.887465E+0	1.855090E+0	1.818396E+0	1.803874E+0	1.762483E+0	1.847575E+0	1.979285E+0	1.911052E+0	1.952470E+0	1.870915E+0	2.023498E+0	2.025647E+0	2.079163E+0	1.705078E+0	1.836437E+0	2.040181E+0	1.973996E+0	1.759548E+0	1.876775E+0	1.890759E+0	1.811163E+0	1.687721E+0	1.939783E+0	1.988092E+0	1.956509E+0	1.794810E+0	2.058343E+0	2.067328E+0	2.035783E+0	1.746061E+0	1.700140E+0	1.968317E+0	1.891578E+0	1.735394E+0	1.898502E+0	1.841925E+0	1.746906E+0	1.737046E+0	2.021850E+0	1.922228E+0	1.854963E+0	1.773319E+0	2.073223E+0	2.092695E+0	2.082920E+0	1.809460E+0	1.974061E+0	1.959867E+0	1.924297E+0	1.857522E+0	1.862531E+0	1.855396E+0	1.800309E+0	1.956065E+0	1.910855E+0	1.898642E+0	1.883710E+0	1.878634E+0	2.088978E+0	2.041895E+0	2.091319E+0	1.776380E+0	1.910576E+0	1.988978E+0	1.937263E+0	1.747299E+0	1.766163E+0	1.816625E+0	1.820214E+0	1.656317E+0	1.829857E+0	1.895263E+0	1.945948E+0	1.896477E+0	2.076639E+0	2.038648E+0	2.123895E+0	1.850889E+0	1.976591E+0	2.015887E+0	1.967817E+0	1.869115E+0	1.795524E+0	1.743265E+0	1.881281E+0	1.759251E+0	1.854518E+0	1.909703E+0	1.994040E+0	1.836332E+0	1.999581E+0	2.050595E+0	2.005473E+0	1.825210E+0	1.680838E+0	1.867170E+0	2.088711E+0	1.786786E+0	1.711986E+0	1.719638E+0	1.879345E+0	1.783742E+0	1.867456E+0	1.834877E+0	1.937864E+0	1.851041E+0	2.099795E+0	1.963839E+0	2.107970E+0	1.688675E+0	1.925137E+0	1.906169E+0	1.984469E+0	1.773179E+0	1.727928E+0	1.777881E+0	1.733063E+0	1.794921E+0	1.885205E+0	1.913807E+0	1.480520E+0	1.617415E+0	2.017701E+0	2.060990E+0	1.876303E+0	1.694686E+0	1.900091E+0	1.872447E+0	1.880622E+0	1.780213E+0	1.776407E+0	1.764574E+0	1.858509E+0	1.818533E+0	1.561300E+0	1.581327E+0	1.855778E+0	1.824537E+0	1.938230E+0	1.945122E+0	1.778311E+0	1.763956E+0	1.943425E+0	1.898197E+0	1.738246E+0	1.815546E+0	1.798351E+0	1.717306E+0	1.773485E+0	1.897333E+0	1.912992E+0	1.823395E+0	1.935012E+0	1.822138E+0	2.028134E+0	2.000168E+0	1.863859E+0	1.719698E+0	1.957723E+0	1.893729E+0	1.794805E+0
5.405080E+2	1.608218E+0	1.731501E+0	1.974592E+0	1.792804E+0	1.837669E+0	1.972242E+0	2.052251E+0	1.765688E+0	1.833318E+0	1.954319E+0	1.809036E+0	1.822805E+0	1.739493E+0	1.771591E+0	1.716868E+0	1.724637E+0	1.849159E+0	1.942011E+0	1.840381E+0	1.784483E+0	1.944879E+0	1.928901E+0	1.983932E+0	1.742283E+0	1.810648E+0	2.028253E+0	1.924499E+0	1.721937E+0	1.770650E+0	1.787578E+0	1.776903E+0	1.658931E+0	1.881121E+0	1.964984E+0	1.899930E+0	1.758089E+0	1.962060E+0	2.010049E+0	1.977054E+0	1.699225E+0	1.733034E+0	1.874990E+0	1.851450E+0	1.671824E+0	1.827261E+0	1.684008E+0	1.694809E+0	1.651977E+0	2.012894E+0	1.842387E+0	1.820150E+0	1.693238E+0	1.959880E+0	1.916597E+0	1.972353E+0	1.711535E+0	1.840370E+0	1.930267E+0	1.748678E+0	1.788638E+0	1.800070E+0	1.737484E+0	1.760321E+0	1.855638E+0	1.893366E+0	1.791302E+0	1.837149E+0	1.874341E+0	2.041606E+0	1.893503E+0	1.990484E+0	1.708590E+0	1.888640E+0	1.889720E+0	1.934455E+0	1.694921E+0	1.709657E+0	1.769527E+0	1.791461E+0	1.691267E+0	1.847397E+0	1.807733E+0	1.788410E+0	1.847012E+0	1.963807E+0	1.913649E+0	2.080931E+0	1.878818E+0	1.910521E+0	1.996448E+0	1.932297E+0	1.764116E+0	1.725788E+0	1.695129E+0	1.794429E+0	1.629464E+0	1.754402E+0	1.811920E+0	1.844920E+0	1.700076E+0	1.965789E+0	1.950848E+0	1.980912E+0	1.741105E+0	1.573454E+0	1.788203E+0	1.933201E+0	1.757748E+0	1.686766E+0	1.633370E+0	1.835964E+0	1.797966E+0	1.855186E+0	1.851505E+0	1.911421E+0	1.741667E+0	1.960679E+0	1.933793E+0	2.015455E+0	1.627800E+0	1.971647E+0	1.832632E+0	1.969128E+0	1.637612E+0	1.686173E+0	1.702612E+0	1.735862E+0	1.742903E+0	1.773113E+0	1.780319E+0	1.461067E+0	1.585743E+0	1.949703E+0	1.903851E+0	1.905238E+0	1.704929E+0	1.883237E+0	1.898943E+0	1.888736E+0	1.721812E+0	1.702334E+0	1.662897E+0	1.773547E+0	1.784158E+0	1.510666E+0	1.510853E+0	1.874147E+0	1.796681E+0	1.878894E+0	1.900628E+0	2.020072E+0	1.673200E+0	1.860003E+0	1.818441E+0	1.748890E+0	1.730991E+0	1.702338E+0	1.703533E+0	1.708898E+0	1.799048E+0	1.819527E+0	1.747549E+0	1.802920E+0	1.743094E+0	1.936698E+0	1.842821E+0	1.900280E+0	1.693756E+0	1.884384E+0	1.810464E+0	1.836382E+0
5.407680E+2	1.562186E+0	1.702617E+0	1.935856E+0	1.688314E+0	1.744023E+0	1.942315E+0	1.929969E+0	1.655260E+0	1.788027E+0	1.820249E+0	1.809613E+0	1.767918E+0	1.624590E+0	1.709040E+0	1.660945E+0	1.703039E+0	1.797152E+0	1.814537E+0	1.806699E+0	1.741743E+0	1.844812E+0	1.897319E+0	1.919834E+0	1.598918E+0	1.801442E+0	1.940217E+0	1.854369E+0	1.653935E+0	1.737847E+0	1.805802E+0	1.696678E+0	1.578771E+0	1.832874E+0	1.793653E+0	1.791393E+0	1.638139E+0	1.815681E+0	1.948346E+0	1.916217E+0	1.612232E+0	1.618880E+0	1.820091E+0	1.732306E+0	1.559281E+0	1.770496E+0	1.725772E+0	1.668780E+0	1.596158E+0	1.927009E+0	1.807236E+0	1.771601E+0	1.649516E+0	1.932351E+0	1.888516E+0	1.876396E+0	1.643054E+0	1.855334E+0	1.817554E+0	1.783600E+0	1.719087E+0	1.693186E+0	1.737485E+0	1.633984E+0	1.775518E+0	1.819238E+0	1.763688E+0	1.763990E+0	1.778936E+0	1.887439E+0	1.865637E+0	1.929420E+0	1.633225E+0	1.830804E+0	1.762381E+0	1.909753E+0	1.678713E+0	1.661197E+0	1.716130E+0	1.708489E+0	1.593882E+0	1.761919E+0	1.770561E+0	1.758686E+0	1.721910E+0	1.886997E+0	1.904103E+0	1.967466E+0	1.757968E+0	1.838197E+0	1.864357E+0	1.867399E+0	1.798957E+0	1.648814E+0	1.645922E+0	1.718015E+0	1.578280E+0	1.754403E+0	1.765582E+0	1.799909E+0	1.679689E+0	1.816612E+0	1.895943E+0	1.877318E+0	1.711923E+0	1.481546E+0	1.809681E+0	1.885585E+0	1.675805E+0	1.604958E+0	1.622865E+0	1.769837E+0	1.674371E+0	1.785481E+0	1.741088E+0	1.779081E+0	1.724353E+0	1.916608E+0	1.901902E+0	1.915982E+0	1.566068E+0	1.858872E+0	1.790739E+0	1.844978E+0	1.653314E+0	1.628251E+0	1.670890E+0	1.637924E+0	1.709104E+0	1.705673E+0	1.793687E+0	1.376890E+0	1.535906E+0	1.940814E+0	1.889829E+0	1.814859E+0	1.626159E+0	1.760262E+0	1.773812E+0	1.882195E+0	1.644253E+0	1.629421E+0	1.642922E+0	1.698307E+0	1.701925E+0	1.538122E+0	1.526554E+0	1.831692E+0	1.732702E+0	1.775615E+0	1.830780E+0	1.948283E+0	1.600580E+0	1.817745E+0	1.826699E+0	1.738574E+0	1.679987E+0	1.700686E+0	1.588788E+0	1.657583E+0	1.787936E+0	1.745299E+0	1.709333E+0	1.746668E+0	1.700085E+0	1.862058E+0	1.910459E+0	1.897582E+0	1.584581E+0	1.746155E+0	1.699308E+0	1.696910E+0
5.410130E+2	1.517163E+0	1.646080E+0	1.881361E+0	1.697126E+0	1.688167E+0	1.878431E+0	1.866270E+0	1.664506E+0	1.707940E+0	1.802519E+0	1.751555E+0	1.716801E+0	1.613100E+0	1.580080E+0	1.611545E+0	1.634014E+0	1.779013E+0	1.745946E+0	1.691057E+0	1.668394E+0	1.778268E+0	1.836844E+0	1.843685E+0	1.596720E+0	1.764040E+0	1.775074E+0	1.805557E+0	1.575220E+0	1.676220E+0	1.756486E+0	1.624999E+0	1.528569E+0	1.781013E+0	1.826578E+0	1.718283E+0	1.632781E+0	1.807429E+0	1.918310E+0	1.831983E+0	1.526614E+0	1.564660E+0	1.759270E+0	1.703548E+0	1.527210E+0	1.742658E+0	1.661518E+0	1.606122E+0	1.524806E+0	1.845216E+0	1.729321E+0	1.676253E+0	1.592833E+0	1.799299E+0	1.859419E+0	1.864143E+0	1.558515E+0	1.821044E+0	1.765226E+0	1.751587E+0	1.707393E+0	1.698894E+0	1.653646E+0	1.583837E+0	1.704137E+0	1.686303E+0	1.708468E+0	1.639391E+0	1.694264E+0	1.863599E+0	1.799063E+0	1.888201E+0	1.584884E+0	1.722359E+0	1.767073E+0	1.771887E+0	1.615558E+0	1.602940E+0	1.639427E+0	1.638251E+0	1.566779E+0	1.665898E+0	1.678704E+0	1.768954E+0	1.712602E+0	1.846137E+0	1.864313E+0	1.927421E+0	1.660577E+0	1.769637E+0	1.772587E+0	1.802502E+0	1.655939E+0	1.610325E+0	1.593334E+0	1.709637E+0	1.626674E+0	1.633470E+0	1.686153E+0	1.722054E+0	1.713671E+0	1.802701E+0	1.843114E+0	1.806979E+0	1.641480E+0	1.447882E+0	1.715300E+0	1.815001E+0	1.591052E+0	1.611779E+0	1.544071E+0	1.720383E+0	1.629116E+0	1.715133E+0	1.640760E+0	1.740642E+0	1.615680E+0	1.869849E+0	1.780610E+0	1.867283E+0	1.453923E+0	1.775406E+0	1.745763E+0	1.821739E+0	1.607415E+0	1.583029E+0	1.598894E+0	1.638400E+0	1.650195E+0	1.697087E+0	1.686722E+0	1.375890E+0	1.490401E+0	1.884870E+0	1.865562E+0	1.709332E+0	1.569154E+0	1.686478E+0	1.738821E+0	1.788005E+0	1.526182E+0	1.579505E+0	1.615964E+0	1.728615E+0	1.582521E+0	1.397078E+0	1.433459E+0	1.780961E+0	1.686066E+0	1.754329E+0	1.794751E+0	1.888549E+0	1.586056E+0	1.745390E+0	1.738405E+0	1.660260E+0	1.648917E+0	1.631790E+0	1.606556E+0	1.586650E+0	1.675337E+0	1.752214E+0	1.693923E+0	1.619956E+0	1.591680E+0	1.835681E+0	1.799415E+0	1.841494E+0	1.578449E+0	1.693976E+0	1.715187E+0	1.784642E+0
5.412690E+2	1.358066E+0	1.489983E+0	1.720503E+0	1.484998E+0	1.539226E+0	1.746633E+0	1.762182E+0	1.462622E+0	1.567091E+0	1.602527E+0	1.592319E+0	1.516087E+0	1.473777E+0	1.449677E+0	1.482462E+0	1.478601E+0	1.644154E+0	1.541388E+0	1.549026E+0	1.520649E+0	1.628671E+0	1.666105E+0	1.643667E+0	1.411579E+0	1.565521E+0	1.678541E+0	1.638925E+0	1.412429E+0	1.552468E+0	1.574762E+0	1.484484E+0	1.374727E+0	1.547630E+0	1.596108E+0	1.521444E+0	1.485525E+0	1.701763E+0	1.707532E+0	1.637002E+0	1.447409E+0	1.432810E+0	1.628482E+0	1.516317E+0	1.375837E+0	1.545612E+0	1.548544E+0	1.483211E+0	1.403509E+0	1.655338E+0	1.598090E+0	1.554000E+0	1.424947E+0	1.626986E+0	1.721576E+0	1.666098E+0	1.460753E+0	1.682632E+0	1.644464E+0	1.535053E+0	1.595373E+0	1.500171E+0	1.466441E+0	1.511024E+0	1.565748E+0	1.655062E+0	1.540497E+0	1.509076E+0	1.561289E+0	1.707841E+0	1.642184E+0	1.667852E+0	1.480133E+0	1.542826E+0	1.549371E+0	1.586340E+0	1.517756E+0	1.436417E+0	1.510299E+0	1.493997E+0	1.417941E+0	1.573757E+0	1.579940E+0	1.559815E+0	1.506043E+0	1.690879E+0	1.648395E+0	1.715894E+0	1.535141E+0	1.608627E+0	1.633602E+0	1.582193E+0	1.562422E+0	1.476097E+0	1.422538E+0	1.542521E+0	1.467526E+0	1.490603E+0	1.535723E+0	1.593101E+0	1.491111E+0	1.618459E+0	1.713628E+0	1.689205E+0	1.521223E+0	1.334604E+0	1.566669E+0	1.690631E+0	1.487222E+0	1.463370E+0	1.358302E+0	1.539788E+0	1.492872E+0	1.595537E+0	1.497831E+0	1.599482E+0	1.483122E+0	1.722590E+0	1.714213E+0	1.742425E+0	1.317604E+0	1.597006E+0	1.596060E+0	1.598392E+0	1.492672E+0	1.420949E+0	1.437275E+0	1.432973E+0	1.485064E+0	1.550543E+0	1.528602E+0	1.192001E+0	1.309474E+0	1.731153E+0	1.669274E+0	1.581612E+0	1.438567E+0	1.587516E+0	1.569209E+0	1.665685E+0	1.470036E+0	1.448355E+0	1.468190E+0	1.598703E+0	1.483560E+0	1.268416E+0	1.427848E+0	1.657443E+0	1.550334E+0	1.603672E+0	1.660045E+0	1.686336E+0	1.468410E+0	1.593636E+0	1.566905E+0	1.598945E+0	1.538702E+0	1.544706E+0	1.446121E+0	1.441758E+0	1.569990E+0	1.572936E+0	1.529348E+0	1.541203E+0	1.486813E+0	1.657780E+0	1.627799E+0	1.650577E+0	1.400576E+0	1.566733E+0	1.545399E+0	1.552940E+0
5.415140E+2	1.199470E+0	1.221423E+0	1.511720E+0	1.367918E+0	1.348541E+0	1.462322E+0	1.492026E+0	1.500081E+0	1.438948E+0	1.375944E+0	1.363533E+0	1.450980E+0	1.258817E+0	1.299543E+0	1.306776E+0	1.343093E+0	1.374449E+0	1.367176E+0	1.381736E+0	1.371849E+0	1.422532E+0	1.461640E+0	1.489920E+0	1.482381E+0	1.365274E+0	1.477577E+0	1.415626E+0	1.439739E+0	1.367084E+0	1.339969E+0	1.315488E+0	1.258941E+0	1.417374E+0	1.393688E+0	1.398844E+0	1.284718E+0	1.424405E+0	1.535524E+0	1.468014E+0	1.364540E+0	1.275280E+0	1.418036E+0	1.342002E+0	1.298183E+0	1.364398E+0	1.286189E+0	1.285588E+0	1.229748E+0	1.428070E+0	1.350863E+0	1.342250E+0	1.292152E+0	1.426131E+0	1.498474E+0	1.458869E+0	1.283649E+0	1.421401E+0	1.430544E+0	1.373235E+0	1.362711E+0	1.322726E+0	1.290669E+0	1.248233E+0	1.328299E+0	1.435134E+0	1.329960E+0	1.313609E+0	1.338873E+0	1.508643E+0	1.459496E+0	1.469898E+0	1.256892E+0	1.402450E+0	1.390933E+0	1.389877E+0	1.312640E+0	1.225555E+0	1.271459E+0	1.330888E+0	1.236028E+0	1.366724E+0	1.416929E+0	1.394447E+0	1.340211E+0	1.437563E+0	1.526375E+0	1.522339E+0	1.353109E+0	1.465859E+0	1.390112E+0	1.444428E+0	1.366843E+0	1.313003E+0	1.280214E+0	1.384276E+0	1.247888E+0	1.335884E+0	1.379274E+0	1.421576E+0	1.296295E+0	1.457596E+0	1.466047E+0	1.487462E+0	1.308388E+0	1.174837E+0	1.372825E+0	1.484474E+0	1.290222E+0	1.259896E+0	1.257539E+0	1.396976E+0	1.291420E+0	1.317339E+0	1.343695E+0	1.452652E+0	1.210242E+0	1.536098E+0	1.417780E+0	1.593214E+0	1.292397E+0	1.370181E+0	1.320056E+0	1.463475E+0	1.281906E+0	1.198917E+0	1.278175E+0	1.276754E+0	1.275993E+0	1.319387E+0	1.375713E+0	1.086782E+0	1.156715E+0	1.499528E+0	1.447099E+0	1.452269E+0	1.239052E+0	1.324005E+0	1.431028E+0	1.457025E+0	1.270355E+0	1.240865E+0	1.300445E+0	1.409780E+0	1.335818E+0	1.142444E+0	1.462623E+0	1.415379E+0	1.354216E+0	1.369978E+0	1.458267E+0	1.460552E+0	1.283951E+0	1.439960E+0	1.392229E+0	1.354898E+0	1.324723E+0	1.299996E+0	1.241011E+0	1.290833E+0	1.354945E+0	1.430146E+0	1.268619E+0	1.359422E+0	1.330688E+0	1.431619E+0	1.502119E+0	1.504423E+0	1.238653E+0	1.320487E+0	1.324308E+0	1.278495E+0
5.417700E+2	1.000851E+0	1.088680E+0	1.282582E+0	1.146349E+0	1.170265E+0	1.259736E+0	1.242346E+0	1.272418E+0	1.189288E+0	1.196448E+0	1.162336E+0	1.241122E+0	1.055345E+0	1.091185E+0	1.017383E+0	1.106374E+0	1.177307E+0	1.149869E+0	1.153256E+0	1.152864E+0	1.140845E+0	1.263069E+0	1.213269E+0	1.248863E+0	1.195527E+0	1.286935E+0	1.213647E+0	1.224474E+0	1.171763E+0	1.138409E+0	1.092378E+0	1.084452E+0	1.197861E+0	1.174803E+0	1.150832E+0	1.183511E+0	1.227942E+0	1.280513E+0	1.269909E+0	1.248702E+0	1.052681E+0	1.208129E+0	1.133055E+0	1.190704E+0	1.150977E+0	1.079511E+0	1.094713E+0	1.062703E+0	1.190872E+0	1.213189E+0	1.130501E+0	1.136142E+0	1.196218E+0	1.230962E+0	1.242449E+0	1.227448E+0	1.244336E+0	1.224099E+0	1.175324E+0	1.229149E+0	1.127637E+0	1.121087E+0	1.089592E+0	1.258377E+0	1.221335E+0	1.174068E+0	1.191298E+0	1.174296E+0	1.220443E+0	1.266492E+0	1.255150E+0	1.197645E+0	1.156041E+0	1.210781E+0	1.196863E+0	1.186333E+0	1.059547E+0	1.118546E+0	1.139021E+0	1.106026E+0	1.163574E+0	1.175862E+0	1.165851E+0	1.110378E+0	1.210393E+0	1.235125E+0	1.295417E+0	1.181271E+0	1.223717E+0	1.236805E+0	1.189396E+0	1.129085E+0	1.087369E+0	1.071309E+0	1.163913E+0	1.073384E+0	1.136107E+0	1.154224E+0	1.248834E+0	1.117907E+0	1.275024E+0	1.258869E+0	1.261177E+0	1.114669E+0	9.760615E-1	1.197630E+0	1.314727E+0	1.084805E+0	1.112014E+0	1.036914E+0	1.124139E+0	1.102622E+0	1.160012E+0	1.169942E+0	1.212557E+0	1.101568E+0	1.235130E+0	1.238978E+0	1.281839E+0	1.040845E+0	1.226824E+0	1.177123E+0	1.234459E+0	1.067518E+0	1.068846E+0	1.116556E+0	1.061294E+0	1.147558E+0	1.148320E+0	1.150157E+0	9.439823E-1	9.985379E-1	1.262155E+0	1.263749E+0	1.184382E+0	1.097580E+0	1.221525E+0	1.182541E+0	1.242478E+0	1.102504E+0	1.072524E+0	1.111732E+0	1.182426E+0	1.121168E+0	9.696376E-1	1.168191E+0	1.294068E+0	1.120423E+0	1.188979E+0	1.287534E+0	1.259978E+0	1.056403E+0	1.196000E+0	1.213741E+0	1.157598E+0	1.140640E+0	1.089452E+0	1.150638E+0	1.101170E+0	1.173728E+0	1.172234E+0	1.166916E+0	1.232111E+0	1.182223E+0	1.273922E+0	1.202301E+0	1.211036E+0	1.100650E+0	1.185005E+0	1.177728E+0	1.114276E+0
5.420270E+2	9.218031E-1	9.995702E-1	1.084958E+0	1.009127E+0	1.025275E+0	1.140026E+0	1.121770E+0	1.094373E+0	1.059487E+0	1.072352E+0	1.067487E+0	1.130811E+0	9.763490E-1	9.829179E-1	9.479467E-1	9.890760E-1	1.067246E+0	1.054570E+0	1.062313E+0	1.023059E+0	1.094314E+0	1.141034E+0	1.099525E+0	1.135842E+0	1.022326E+0	1.128470E+0	1.058798E+0	1.135049E+0	1.015209E+0	1.023695E+0	9.737011E-1	9.771667E-1	1.050114E+0	1.063836E+0	1.013610E+0	1.004123E+0	1.108523E+0	1.110140E+0	1.123804E+0	1.174531E+0	1.088069E+0	1.139776E+0	9.968895E-1	1.058466E+0	1.037990E+0	1.002410E+0	9.751771E-1	9.422488E-1	1.118425E+0	1.028648E+0	1.042174E+0	1.047072E+0	1.089164E+0	1.115584E+0	1.155679E+0	1.125436E+0	1.040463E+0	1.113688E+0	1.022817E+0	1.102357E+0	1.023867E+0	9.648455E-1	1.002797E+0	1.096679E+0	1.077985E+0	1.014150E+0	1.042695E+0	1.105126E+0	1.068395E+0	1.124060E+0	1.156939E+0	1.177266E+0	1.025906E+0	1.054103E+0	1.066463E+0	1.100265E+0	9.533423E-1	9.685430E-1	1.007967E+0	1.004961E+0	1.019815E+0	1.047364E+0	1.077766E+0	1.041719E+0	1.094899E+0	1.101434E+0	1.118802E+0	1.089997E+0	1.080316E+0	1.102064E+0	1.080097E+0	1.094247E+0	9.690174E-1	9.526219E-1	1.004683E+0	9.444853E-1	9.837567E-1	1.062159E+0	1.116236E+0	1.017103E+0	1.124181E+0	1.127310E+0	1.147220E+0	1.041210E+0	8.959106E-1	1.073864E+0	1.106329E+0	1.007913E+0	9.861558E-1	9.662374E-1	1.042453E+0	9.775677E-1	1.034663E+0	1.031500E+0	1.075810E+0	9.976706E-1	1.121193E+0	1.123958E+0	1.167859E+0	9.858017E-1	1.079006E+0	1.054523E+0	1.130721E+0	9.968596E-1	9.489374E-1	9.886719E-1	9.681345E-1	1.003669E+0	1.049604E+0	1.051912E+0	8.422691E-1	8.782796E-1	1.082297E+0	1.155360E+0	1.062615E+0	9.877185E-1	1.059320E+0	1.060965E+0	1.113619E+0	9.815369E-1	9.673103E-1	1.011382E+0	1.041140E+0	9.868985E-1	9.141888E-1	1.091919E+0	1.100522E+0	1.021765E+0	1.116050E+0	1.122895E+0	1.099958E+0	9.692566E-1	1.104435E+0	1.073364E+0	1.028289E+0	9.735600E-1	9.957560E-1	9.780164E-1	9.593008E-1	1.051467E+0	1.062151E+0	1.009122E+0	1.078160E+0	1.031402E+0	1.089286E+0	1.107913E+0	1.099935E+0	9.454734E-1	1.115434E+0	1.139863E+0	1.123275E+0
5.422780E+2	7.867218E-1	9.252090E-1	1.005515E+0	9.191145E-1	9.863473E-1	1.047366E+0	1.030769E+0	1.064213E+0	9.048311E-1	9.288669E-1	9.680386E-1	1.031801E+0	8.983116E-1	9.295056E-1	9.004136E-1	9.361431E-1	9.656515E-1	9.629122E-1	9.236530E-1	9.734582E-1	9.802369E-1	1.063426E+0	1.047954E+0	1.057126E+0	9.417678E-1	1.081114E+0	9.886669E-1	1.026346E+0	9.187903E-1	1.003860E+0	9.243314E-1	9.038894E-1	9.572434E-1	1.002866E+0	9.410616E-1	9.495043E-1	1.058994E+0	1.032054E+0	1.066607E+0	1.050455E+0	1.042979E+0	9.831542E-1	9.288061E-1	9.712453E-1	9.834069E-1	9.087096E-1	8.995023E-1	8.998558E-1	9.770391E-1	9.858809E-1	9.983041E-1	9.158962E-1	1.031556E+0	1.019094E+0	9.964270E-1	1.043732E+0	1.006795E+0	9.889012E-1	9.681025E-1	1.048194E+0	9.237290E-1	9.148290E-1	9.270928E-1	1.014616E+0	9.346347E-1	9.635299E-1	9.592486E-1	1.016874E+0	1.046144E+0	1.018785E+0	1.085697E+0	1.075835E+0	9.927703E-1	9.889681E-1	9.509995E-1	1.014754E+0	9.126138E-1	9.219405E-1	9.070841E-1	9.098704E-1	9.942832E-1	9.555039E-1	9.848142E-1	9.492036E-1	1.012094E+0	1.014961E+0	1.054627E+0	1.060933E+0	1.006101E+0	1.054320E+0	1.023739E+0	1.013569E+0	9.055120E-1	9.405609E-1	9.484841E-1	8.909707E-1	8.812020E-1	9.556521E-1	9.836382E-1	9.570729E-1	1.034009E+0	1.036671E+0	1.059433E+0	1.061839E+0	8.643842E-1	9.975700E-1	1.054228E+0	9.893920E-1	9.122135E-1	8.721606E-1	9.596576E-1	9.352340E-1	9.585578E-1	9.676029E-1	1.010902E+0	1.028124E+0	1.028753E+0	1.039263E+0	1.057508E+0	1.032614E+0	9.866202E-1	9.824416E-1	1.046824E+0	9.521702E-1	9.250573E-1	9.408409E-1	9.136729E-1	9.524880E-1	9.870625E-1	9.711080E-1	7.530813E-1	8.268177E-1	1.037331E+0	1.027017E+0	9.992965E-1	1.019848E+0	9.814368E-1	1.002846E+0	1.041666E+0	9.821151E-1	9.374591E-1	9.330014E-1	1.014616E+0	9.450840E-1	7.704526E-1	1.031349E+0	1.006231E+0	9.601780E-1	9.701888E-1	1.104048E+0	1.038580E+0	1.034616E+0	9.936612E-1	9.869789E-1	9.991502E-1	9.934931E-1	9.367824E-1	9.160760E-1	9.245876E-1	9.852613E-1	9.948418E-1	1.022683E+0	1.001184E+0	9.518665E-1	1.090409E+0	1.031698E+0	1.024970E+0	8.890455E-1	1.041285E+0	1.028705E+0	9.928016E-1
5.425300E+2	8.447567E-1	8.889505E-1	1.057383E+0	1.007239E+0	9.524973E-1	1.021467E+0	1.071720E+0	1.056916E+0	9.943105E-1	1.063488E+0	9.611405E-1	1.095297E+0	9.016627E-1	8.919722E-1	9.157917E-1	9.361423E-1	9.686748E-1	9.653402E-1	9.522830E-1	9.623770E-1	9.922448E-1	1.049510E+0	1.016147E+0	1.089228E+0	9.314101E-1	1.040435E+0	1.020086E+0	1.034378E+0	9.481132E-1	9.963546E-1	9.034449E-1	9.148192E-1	9.994572E-1	9.711613E-1	9.669312E-1	9.634267E-1	1.034229E+0	1.057173E+0	1.068166E+0	1.107687E+0	1.061814E+0	1.046664E+0	9.616741E-1	9.836249E-1	9.681231E-1	9.188827E-1	9.414367E-1	9.053133E-1	1.037800E+0	9.806089E-1	9.637922E-1	9.520637E-1	1.061633E+0	1.059936E+0	1.031646E+0	1.063568E+0	9.887158E-1	9.894766E-1	9.972060E-1	1.046963E+0	9.299555E-1	9.743727E-1	9.256461E-1	1.032097E+0	9.818049E-1	9.416705E-1	9.495321E-1	1.014490E+0	1.064156E+0	1.056973E+0	1.086204E+0	1.106170E+0	9.903604E-1	1.027697E+0	1.006721E+0	1.073997E+0	8.847745E-1	9.326198E-1	9.447973E-1	9.167614E-1	9.693060E-1	1.007540E+0	9.810316E-1	9.596775E-1	1.050772E+0	1.045730E+0	1.097240E+0	1.047166E+0	1.029372E+0	1.055382E+0	1.054479E+0	1.019069E+0	9.218692E-1	8.783226E-1	1.004190E+0	9.188912E-1	9.493745E-1	9.779165E-1	1.009793E+0	9.672668E-1	1.005065E+0	1.042369E+0	1.082881E+0	1.081461E+0	8.227059E-1	1.028087E+0	1.044705E+0	9.820965E-1	8.739310E-1	8.989029E-1	9.896643E-1	9.483725E-1	9.579182E-1	9.978707E-1	1.050603E+0	9.636360E-1	1.042726E+0	1.047105E+0	1.055436E+0	1.056792E+0	1.001911E+0	9.688881E-1	1.043989E+0	1.017392E+0	9.052414E-1	9.176805E-1	9.141506E-1	9.674568E-1	9.545658E-1	9.833160E-1	7.691151E-1	8.241095E-1	1.097459E+0	1.076628E+0	1.065862E+0	1.042649E+0	1.011302E+0	1.043767E+0	1.048208E+0	9.850087E-1	8.968417E-1	9.449831E-1	9.821365E-1	9.539115E-1	8.145963E-1	1.031911E+0	1.028287E+0	9.506112E-1	9.638009E-1	1.041409E+0	1.094478E+0	1.041393E+0	1.017993E+0	9.869786E-1	9.542263E-1	1.050945E+0	9.362312E-1	9.043983E-1	9.386740E-1	1.004107E+0	1.019374E+0	9.554967E-1	1.027238E+0	1.010192E+0	1.058982E+0	1.039269E+0	1.047621E+0	1.027049E+0	1.054101E+0	1.029927E+0	9.320640E-1
5.427650E+2	9.328096E-1	1.001414E+0	1.094807E+0	9.896141E-1	1.069280E+0	1.122760E+0	1.198551E+0	1.162966E+0	1.073296E+0	1.015290E+0	1.086457E+0	1.146954E+0	9.643805E-1	9.872485E-1	1.001072E+0	1.017447E+0	1.055756E+0	1.083099E+0	1.030876E+0	1.069494E+0	1.118330E+0	1.138359E+0	1.136639E+0	1.160910E+0	1.070661E+0	1.191613E+0	1.095828E+0	1.113630E+0	1.025645E+0	1.037095E+0	9.817726E-1	9.872867E-1	1.124892E+0	1.161389E+0	1.061975E+0	1.036788E+0	1.143193E+0	1.140718E+0	1.150320E+0	1.106311E+0	1.167976E+0	1.117710E+0	1.009802E+0	1.034269E+0	1.056002E+0	9.991973E-1	9.872267E-1	9.800204E-1	1.111999E+0	1.077273E+0	1.051534E+0	1.074603E+0	1.117201E+0	1.114050E+0	1.131178E+0	1.162747E+0	1.077871E+0	1.106787E+0	1.062399E+0	1.117745E+0	1.017641E+0	1.031057E+0	9.815801E-1	1.109304E+0	1.090850E+0	1.046939E+0	1.073558E+0	1.097374E+0	1.160577E+0	1.102902E+0	1.124372E+0	1.154513E+0	1.077718E+0	1.086965E+0	1.076804E+0	1.105294E+0	9.842756E-1	9.675715E-1	1.017867E+0	1.002204E+0	1.070325E+0	1.079223E+0	1.078846E+0	1.051610E+0	1.163539E+0	1.100373E+0	1.193245E+0	1.110392E+0	1.010503E+0	1.164660E+0	1.110268E+0	1.102192E+0	9.637251E-1	1.018237E+0	1.020459E+0	9.872979E-1	1.086312E+0	1.056743E+0	1.059061E+0	1.042587E+0	1.101360E+0	1.111773E+0	1.134677E+0	1.152910E+0	8.601098E-1	1.049563E+0	1.121454E+0	1.122970E+0	9.866799E-1	9.776982E-1	1.031340E+0	1.006277E+0	1.023151E+0	1.015806E+0	1.074549E+0	1.025138E+0	1.172250E+0	1.085270E+0	1.154909E+0	1.094859E+0	1.150366E+0	1.068076E+0	1.079702E+0	1.090466E+0	9.712929E-1	9.987412E-1	9.991864E-1	1.053885E+0	1.075355E+0	1.079235E+0	8.542943E-1	9.178243E-1	1.118895E+0	1.121925E+0	1.096169E+0	1.106908E+0	1.075130E+0	1.091804E+0	1.152865E+0	1.090928E+0	9.629056E-1	1.005392E+0	1.112593E+0	1.081679E+0	8.808112E-1	1.067243E+0	1.120924E+0	1.140754E+0	1.079850E+0	1.147841E+0	1.159691E+0	1.172598E+0	1.100593E+0	1.065742E+0	1.047110E+0	1.182264E+0	1.038746E+0	1.016602E+0	1.004075E+0	1.127334E+0	1.131346E+0	1.020834E+0	1.071055E+0	1.112115E+0	1.149896E+0	1.108925E+0	1.130137E+0	1.150944E+0	1.034877E+0	1.120317E+0	1.049042E+0
5.430070E+2	1.051381E+0	1.148906E+0	1.314752E+0	1.185375E+0	1.212013E+0	1.300599E+0	1.334484E+0	1.349280E+0	1.205307E+0	1.271789E+0	1.210048E+0	1.290627E+0	1.085028E+0	1.114283E+0	1.052799E+0	1.138136E+0	1.274668E+0	1.187504E+0	1.213323E+0	1.192969E+0	1.259925E+0	1.219716E+0	1.301953E+0	1.284487E+0	1.177689E+0	1.294827E+0	1.252922E+0	1.283378E+0	1.177728E+0	1.184512E+0	1.127506E+0	1.102670E+0	1.193640E+0	1.210776E+0	1.184576E+0	1.215103E+0	1.224638E+0	1.282696E+0	1.268349E+0	1.283040E+0	1.287838E+0	1.197905E+0	1.167685E+0	1.226718E+0	1.206651E+0	1.113243E+0	1.113994E+0	1.104256E+0	1.257473E+0	1.240725E+0	1.159163E+0	1.153417E+0	1.259941E+0	1.286610E+0	1.285326E+0	1.274202E+0	1.229374E+0	1.297131E+0	1.184637E+0	1.330707E+0	1.175373E+0	1.162055E+0	1.109844E+0	1.213703E+0	1.231137E+0	1.219513E+0	1.206730E+0	1.273281E+0	1.308917E+0	1.294874E+0	1.274492E+0	1.298128E+0	1.232553E+0	1.257140E+0	1.213522E+0	1.218748E+0	1.122443E+0	1.122427E+0	1.172961E+0	1.085811E+0	1.198542E+0	1.230023E+0	1.226379E+0	1.202894E+0	1.293193E+0	1.299317E+0	1.336999E+0	1.279679E+0	1.272144E+0	1.330170E+0	1.272511E+0	1.223820E+0	1.147024E+0	1.138851E+0	1.206803E+0	1.115730E+0	1.161005E+0	1.224025E+0	1.290196E+0	1.182467E+0	1.211014E+0	1.252653E+0	1.293346E+0	1.274676E+0	1.016672E+0	1.163721E+0	1.267669E+0	1.175728E+0	1.109394E+0	1.120485E+0	1.240277E+0	1.192641E+0	1.191349E+0	1.192362E+0	1.213817E+0	1.175610E+0	1.307684E+0	1.273482E+0	1.295831E+0	1.301657E+0	1.200701E+0	1.236883E+0	1.307018E+0	1.279492E+0	1.089171E+0	1.111521E+0	1.091392E+0	1.186184E+0	1.162423E+0	1.196664E+0	9.409765E-1	9.996213E-1	1.261634E+0	1.259977E+0	1.249864E+0	1.220916E+0	1.199274E+0	1.215751E+0	1.211080E+0	1.273827E+0	1.109227E+0	1.151670E+0	1.178636E+0	1.206190E+0	9.572557E-1	1.222590E+0	1.304544E+0	1.170650E+0	1.253925E+0	1.260923E+0	1.268747E+0	1.303315E+0	1.226735E+0	1.131167E+0	1.164883E+0	1.291894E+0	1.105436E+0	1.149623E+0	1.111234E+0	1.291156E+0	1.294270E+0	1.120687E+0	1.249285E+0	1.215805E+0	1.253157E+0	1.273976E+0	1.286540E+0	1.286493E+0	1.170359E+0	1.255904E+0	1.181764E+0
5.432800E+2	1.209477E+0	1.257682E+0	1.438842E+0	1.366030E+0	1.379004E+0	1.428365E+0	1.468711E+0	1.473813E+0	1.359963E+0	1.406410E+0	1.332490E+0	1.462817E+0	1.234402E+0	1.279334E+0	1.252254E+0	1.354526E+0	1.333931E+0	1.341076E+0	1.317180E+0	1.381875E+0	1.417026E+0	1.448796E+0	1.445096E+0	1.437964E+0	1.330175E+0	1.438114E+0	1.384770E+0	1.409753E+0	1.312914E+0	1.330856E+0	1.294601E+0	1.270276E+0	1.407120E+0	1.371128E+0	1.366228E+0	1.277219E+0	1.426058E+0	1.465626E+0	1.476853E+0	1.456563E+0	1.403133E+0	1.399199E+0	1.300329E+0	1.361206E+0	1.403698E+0	1.289934E+0	1.269201E+0	1.280953E+0	1.415219E+0	1.385428E+0	1.345762E+0	1.358009E+0	1.482720E+0	1.436705E+0	1.496131E+0	1.459337E+0	1.412050E+0	1.439168E+0	1.358096E+0	1.453190E+0	1.298861E+0	1.279714E+0	1.281986E+0	1.391424E+0	1.368360E+0	1.314427E+0	1.354761E+0	1.414004E+0	1.453015E+0	1.404796E+0	1.485675E+0	1.504780E+0	1.348831E+0	1.443743E+0	1.391025E+0	1.416594E+0	1.316290E+0	1.289907E+0	1.286575E+0	1.303556E+0	1.343410E+0	1.405776E+0	1.315007E+0	1.363486E+0	1.471880E+0	1.447326E+0	1.419659E+0	1.483643E+0	1.419317E+0	1.391172E+0	1.477445E+0	1.457908E+0	1.304344E+0	1.287451E+0	1.347797E+0	1.266036E+0	1.293794E+0	1.363628E+0	1.370486E+0	1.307056E+0	1.467059E+0	1.451027E+0	1.436206E+0	1.431662E+0	1.162012E+0	1.410688E+0	1.390357E+0	1.354206E+0	1.257274E+0	1.223634E+0	1.334184E+0	1.345920E+0	1.410711E+0	1.342576E+0	1.360649E+0	1.386389E+0	1.446885E+0	1.453852E+0	1.488043E+0	1.467300E+0	1.396303E+0	1.407537E+0	1.414725E+0	1.390008E+0	1.268018E+0	1.241924E+0	1.226112E+0	1.328142E+0	1.252555E+0	1.355364E+0	1.070749E+0	1.133962E+0	1.394962E+0	1.420135E+0	1.411140E+0	1.420427E+0	1.350356E+0	1.381804E+0	1.412546E+0	1.342124E+0	1.277079E+0	1.254016E+0	1.322085E+0	1.294466E+0	1.141906E+0	1.392519E+0	1.442948E+0	1.361988E+0	1.384347E+0	1.439421E+0	1.552617E+0	1.426774E+0	1.321503E+0	1.307749E+0	1.322723E+0	1.435524E+0	1.318734E+0	1.222224E+0	1.269705E+0	1.417767E+0	1.428255E+0	1.254443E+0	1.365342E+0	1.400207E+0	1.417029E+0	1.439534E+0	1.449412E+0	1.420816E+0	1.397382E+0	1.362175E+0	1.402219E+0
5.435540E+2	1.291525E+0	1.391654E+0	1.591162E+0	1.538503E+0	1.491274E+0	1.657427E+0	1.660945E+0	1.620238E+0	1.594711E+0	1.512225E+0	1.534834E+0	1.640388E+0	1.589160E+0	1.427059E+0	1.421416E+0	1.487493E+0	1.590335E+0	1.478261E+0	1.505239E+0	1.508510E+0	1.564127E+0	1.682693E+0	1.625832E+0	1.619588E+0	1.540202E+0	1.602041E+0	1.576650E+0	1.565044E+0	1.532586E+0	1.477735E+0	1.410905E+0	1.375538E+0	1.588037E+0	1.537578E+0	1.515262E+0	1.431438E+0	1.602158E+0	1.678591E+0	1.569405E+0	1.617728E+0	1.621735E+0	1.615564E+0	1.481103E+0	1.493444E+0	1.577819E+0	1.405051E+0	1.377649E+0	1.414002E+0	1.615028E+0	1.531303E+0	1.486148E+0	1.491885E+0	1.627498E+0	1.619983E+0	1.643641E+0	1.598659E+0	1.551709E+0	1.591558E+0	1.557171E+0	1.588601E+0	1.446730E+0	1.398325E+0	1.438699E+0	1.574487E+0	1.545403E+0	1.499653E+0	1.512510E+0	1.572024E+0	1.664929E+0	1.558581E+0	1.608314E+0	1.595307E+0	1.511496E+0	1.551131E+0	1.508790E+0	1.591526E+0	1.371455E+0	1.454960E+0	1.446382E+0	1.413348E+0	1.527133E+0	1.523124E+0	1.539282E+0	1.496151E+0	1.584104E+0	1.576244E+0	1.634263E+0	1.623351E+0	1.568375E+0	1.590101E+0	1.600409E+0	1.573426E+0	1.403932E+0	1.402759E+0	1.482870E+0	1.359103E+0	1.413539E+0	1.516468E+0	1.525589E+0	1.458262E+0	1.587842E+0	1.585695E+0	1.570883E+0	1.601728E+0	1.351168E+0	1.456465E+0	1.647497E+0	1.477682E+0	1.373171E+0	1.372154E+0	1.545346E+0	1.445184E+0	1.490652E+0	1.455233E+0	1.533315E+0	1.526114E+0	1.673146E+0	1.574623E+0	1.659010E+0	1.575843E+0	1.541575E+0	1.523359E+0	1.601794E+0	1.508979E+0	1.380301E+0	1.366285E+0	1.392367E+0	1.438713E+0	1.473900E+0	1.464073E+0	1.223067E+0	1.293765E+0	1.602010E+0	1.622899E+0	1.525871E+0	1.540137E+0	1.535984E+0	1.532441E+0	1.604851E+0	1.513448E+0	1.369077E+0	1.426254E+0	1.516418E+0	1.434313E+0	1.537584E+0	1.547305E+0	1.595692E+0	1.516852E+0	1.598351E+0	1.598515E+0	1.613448E+0	1.606874E+0	1.531524E+0	1.528161E+0	1.548557E+0	1.593808E+0	1.480225E+0	1.370475E+0	1.380885E+0	1.550659E+0	1.560360E+0	1.421484E+0	1.507450E+0	1.520397E+0	1.631405E+0	1.627801E+0	1.552963E+0	1.634872E+0	1.605181E+0	1.500204E+0	1.575436E+0
5.437590E+2	1.370072E+0	1.459871E+0	1.708030E+0	1.607113E+0	1.543179E+0	1.713827E+0	1.676872E+0	1.725313E+0	1.644420E+0	1.619150E+0	1.539434E+0	1.778142E+0	1.690182E+0	1.440533E+0	1.497840E+0	1.539581E+0	1.671368E+0	1.637296E+0	1.604041E+0	1.562862E+0	1.644181E+0	1.729791E+0	1.731382E+0	1.669719E+0	1.713979E+0	1.665183E+0	1.640048E+0	1.671607E+0	1.700075E+0	1.540454E+0	1.452680E+0	1.411569E+0	1.700807E+0	1.621716E+0	1.587244E+0	1.557282E+0	1.664341E+0	1.708074E+0	1.683277E+0	1.686403E+0	1.703355E+0	1.652703E+0	1.515143E+0	1.596420E+0	1.713730E+0	1.488040E+0	1.459113E+0	1.473601E+0	1.704413E+0	1.595162E+0	1.574472E+0	1.584194E+0	1.678476E+0	1.642444E+0	1.637004E+0	1.714840E+0	1.723784E+0	1.627787E+0	1.558918E+0	1.651381E+0	1.730545E+0	1.543133E+0	1.465218E+0	1.616736E+0	1.642198E+0	1.550852E+0	1.486216E+0	1.670409E+0	1.689827E+0	1.656633E+0	1.765052E+0	1.675883E+0	1.660909E+0	1.604532E+0	1.640339E+0	1.660830E+0	1.556023E+0	1.466610E+0	1.492112E+0	1.457904E+0	1.652020E+0	1.599586E+0	1.564676E+0	1.591577E+0	1.721932E+0	1.654230E+0	1.763133E+0	1.660575E+0	1.657685E+0	1.638905E+0	1.610087E+0	1.585648E+0	1.460222E+0	1.433152E+0	1.490265E+0	1.513131E+0	1.565296E+0	1.576640E+0	1.591886E+0	1.527916E+0	1.671336E+0	1.685656E+0	1.691930E+0	1.582611E+0	1.361858E+0	1.564974E+0	1.686712E+0	1.605643E+0	1.436627E+0	1.428978E+0	1.551457E+0	1.503578E+0	1.618560E+0	1.478215E+0	1.646743E+0	1.548207E+0	1.650037E+0	1.701144E+0	1.682323E+0	1.644259E+0	1.642244E+0	1.558478E+0	1.728202E+0	1.619496E+0	1.387416E+0	1.439793E+0	1.488391E+0	1.511138E+0	1.573229E+0	1.572202E+0	1.251627E+0	1.377188E+0	1.742651E+0	1.635841E+0	1.575116E+0	1.602840E+0	1.546525E+0	1.604198E+0	1.584576E+0	1.556279E+0	1.436122E+0	1.492151E+0	1.523999E+0	1.510044E+0	1.548891E+0	1.605631E+0	1.685016E+0	1.563489E+0	1.662764E+0	1.636763E+0	1.689623E+0	1.661097E+0	1.550733E+0	1.573258E+0	1.453243E+0	1.624294E+0	1.484079E+0	1.412616E+0	1.433206E+0	1.608652E+0	1.584260E+0	1.564484E+0	1.518109E+0	1.543960E+0	1.651048E+0	1.655559E+0	1.675387E+0	1.698054E+0	1.570395E+0	1.569829E+0	1.555189E+0
5.440170E+2	1.383079E+0	1.548364E+0	1.721162E+0	1.612147E+0	1.617647E+0	1.717858E+0	1.805411E+0	1.766661E+0	1.691369E+0	1.677870E+0	1.628536E+0	1.755004E+0	1.755766E+0	1.477106E+0	1.538385E+0	1.519256E+0	1.710676E+0	1.557776E+0	1.634919E+0	1.639903E+0	1.741244E+0	1.700357E+0	1.706320E+0	1.771748E+0	1.676575E+0	1.731361E+0	1.642295E+0	1.675890E+0	1.737848E+0	1.613359E+0	1.536703E+0	1.506706E+0	1.731561E+0	1.670494E+0	1.641236E+0	1.581914E+0	1.738634E+0	1.717361E+0	1.783108E+0	1.772941E+0	1.763855E+0	1.656470E+0	1.567380E+0	1.635247E+0	1.735563E+0	1.550153E+0	1.502972E+0	1.459328E+0	1.772186E+0	1.657847E+0	1.627116E+0	1.576097E+0	1.668791E+0	1.756803E+0	1.735517E+0	1.814017E+0	1.708818E+0	1.697370E+0	1.601411E+0	1.759094E+0	1.731062E+0	1.440717E+0	1.529350E+0	1.656064E+0	1.699780E+0	1.625635E+0	1.617101E+0	1.750311E+0	1.809031E+0	1.714431E+0	1.715688E+0	1.835138E+0	1.754894E+0	1.676120E+0	1.675378E+0	1.675920E+0	1.765335E+0	1.583116E+0	1.524639E+0	1.561266E+0	1.743046E+0	1.612862E+0	1.545223E+0	1.620087E+0	1.777496E+0	1.722133E+0	1.773914E+0	1.711565E+0	1.814925E+0	1.691424E+0	1.698325E+0	1.710332E+0	1.789295E+0	1.497323E+0	1.574067E+0	1.486141E+0	1.789972E+0	1.587471E+0	1.621081E+0	1.547175E+0	1.765960E+0	1.733311E+0	1.750271E+0	1.614810E+0	1.359718E+0	1.584751E+0	1.793708E+0	1.571973E+0	1.551996E+0	1.434233E+0	1.582019E+0	1.545422E+0	1.718966E+0	1.581349E+0	1.652418E+0	1.640756E+0	1.802671E+0	1.699573E+0	1.726359E+0	1.709079E+0	1.718062E+0	1.653353E+0	1.668680E+0	1.602584E+0	1.528156E+0	1.476547E+0	1.454950E+0	1.543971E+0	1.597143E+0	1.557665E+0	1.232089E+0	1.382063E+0	1.734813E+0	1.737219E+0	1.651423E+0	1.634967E+0	1.615037E+0	1.683074E+0	1.657182E+0	1.648886E+0	1.524697E+0	1.486661E+0	1.624142E+0	1.570441E+0	1.653866E+0	1.593294E+0	1.709279E+0	1.644812E+0	1.680862E+0	1.737651E+0	1.724149E+0	1.724520E+0	1.614766E+0	1.549122E+0	1.630514E+0	1.653018E+0	1.517148E+0	1.509587E+0	1.486534E+0	1.609618E+0	1.577343E+0	1.535513E+0	1.639493E+0	1.654131E+0	1.781244E+0	1.717140E+0	1.693722E+0	1.684556E+0	1.650952E+0	1.578379E+0	1.651920E+0
5.442700E+2	1.400089E+0	1.451881E+0	1.710657E+0	1.522136E+0	1.561793E+0	1.653976E+0	1.698486E+0	1.741850E+0	1.721748E+0	1.641860E+0	1.588296E+0	1.724331E+0	1.706456E+0	1.403000E+0	1.447512E+0	1.552709E+0	1.752407E+0	1.591770E+0	1.644460E+0	1.554421E+0	1.687707E+0	1.682159E+0	1.691381E+0	1.700065E+0	1.641477E+0	1.708288E+0	1.645660E+0	1.636262E+0	1.715981E+0	1.549032E+0	1.490182E+0	1.473915E+0	1.712263E+0	1.638182E+0	1.593995E+0	1.520867E+0	1.641778E+0	1.706984E+0	1.701474E+0	1.676330E+0	1.707917E+0	1.631714E+0	1.580291E+0	1.575602E+0	1.690259E+0	1.522846E+0	1.441276E+0	1.466884E+0	1.669362E+0	1.639684E+0	1.585586E+0	1.518338E+0	1.728438E+0	1.672568E+0	1.668652E+0	1.665249E+0	1.654578E+0	1.618586E+0	1.594422E+0	1.703082E+0	1.705120E+0	1.498832E+0	1.456057E+0	1.613335E+0	1.632394E+0	1.557179E+0	1.542229E+0	1.636421E+0	1.668639E+0	1.645794E+0	1.673962E+0	1.673514E+0	1.697660E+0	1.593967E+0	1.602995E+0	1.624502E+0	1.671508E+0	1.493795E+0	1.487867E+0	1.477200E+0	1.705859E+0	1.583659E+0	1.549010E+0	1.526988E+0	1.668544E+0	1.652105E+0	1.691252E+0	1.661086E+0	1.746369E+0	1.670202E+0	1.667015E+0	1.623543E+0	1.735891E+0	1.504077E+0	1.492234E+0	1.452172E+0	1.725355E+0	1.492400E+0	1.548703E+0	1.567562E+0	1.709184E+0	1.665974E+0	1.694112E+0	1.597706E+0	1.398190E+0	1.564971E+0	1.705199E+0	1.531561E+0	1.619122E+0	1.410357E+0	1.559791E+0	1.499201E+0	1.653093E+0	1.515208E+0	1.559782E+0	1.579850E+0	1.722590E+0	1.616970E+0	1.670408E+0	1.672555E+0	1.655624E+0	1.554166E+0	1.643174E+0	1.595944E+0	1.737488E+0	1.447344E+0	1.446828E+0	1.565700E+0	1.753493E+0	1.505928E+0	1.187995E+0	1.377186E+0	1.737948E+0	1.700548E+0	1.556172E+0	1.678498E+0	1.591029E+0	1.601825E+0	1.644757E+0	1.600845E+0	1.652910E+0	1.478173E+0	1.502887E+0	1.569977E+0	1.669479E+0	1.633111E+0	1.651381E+0	1.580232E+0	1.646259E+0	1.678892E+0	1.648522E+0	1.672233E+0	1.579550E+0	1.589772E+0	1.554019E+0	1.674127E+0	1.463688E+0	1.383677E+0	1.443267E+0	1.599952E+0	1.569790E+0	1.506542E+0	1.569032E+0	1.583433E+0	1.698189E+0	1.655058E+0	1.673769E+0	1.654502E+0	1.652783E+0	1.571051E+0	1.501201E+0
5.445290E+2	1.309035E+0	1.411320E+0	1.623990E+0	1.546685E+0	1.454038E+0	1.647642E+0	1.660378E+0	1.683478E+0	1.613487E+0	1.582582E+0	1.500921E+0	1.581737E+0	1.585331E+0	1.425135E+0	1.416755E+0	1.473096E+0	1.657461E+0	1.523176E+0	1.512538E+0	1.530148E+0	1.550614E+0	1.587422E+0	1.612338E+0	1.657847E+0	1.577605E+0	1.643931E+0	1.509322E+0	1.601457E+0	1.645900E+0	1.493817E+0	1.379576E+0	1.392540E+0	1.614572E+0	1.530261E+0	1.507387E+0	1.483383E+0	1.599955E+0	1.725549E+0	1.638040E+0	1.658477E+0	1.605753E+0	1.514379E+0	1.496950E+0	1.511453E+0	1.696810E+0	1.400233E+0	1.440313E+0	1.404348E+0	1.590490E+0	1.540679E+0	1.500185E+0	1.469213E+0	1.587227E+0	1.545447E+0	1.627307E+0	1.597240E+0	1.615925E+0	1.557054E+0	1.479170E+0	1.626761E+0	1.636113E+0	1.376412E+0	1.409283E+0	1.540014E+0	1.598088E+0	1.560052E+0	1.500505E+0	1.557114E+0	1.594469E+0	1.602964E+0	1.650553E+0	1.620904E+0	1.642234E+0	1.605706E+0	1.554169E+0	1.556875E+0	1.603454E+0	1.427775E+0	1.452982E+0	1.422991E+0	1.637032E+0	1.503480E+0	1.561975E+0	1.489748E+0	1.663640E+0	1.595872E+0	1.619375E+0	1.622334E+0	1.604225E+0	1.569413E+0	1.553160E+0	1.593595E+0	1.599743E+0	1.411927E+0	1.512449E+0	1.425182E+0	1.638209E+0	1.485179E+0	1.532277E+0	1.485445E+0	1.661874E+0	1.583620E+0	1.605780E+0	1.547390E+0	1.331396E+0	1.458726E+0	1.579712E+0	1.494519E+0	1.580837E+0	1.357826E+0	1.515893E+0	1.433992E+0	1.650535E+0	1.490546E+0	1.534575E+0	1.484912E+0	1.672073E+0	1.566780E+0	1.624299E+0	1.623684E+0	1.628225E+0	1.548005E+0	1.579682E+0	1.500523E+0	1.622660E+0	1.394479E+0	1.359879E+0	1.506794E+0	1.673173E+0	1.529185E+0	1.198517E+0	1.323016E+0	1.600962E+0	1.627750E+0	1.563753E+0	1.556201E+0	1.640217E+0	1.555571E+0	1.608778E+0	1.542387E+0	1.697441E+0	1.355358E+0	1.482858E+0	1.426414E+0	1.647944E+0	1.520386E+0	1.547162E+0	1.515059E+0	1.643066E+0	1.650622E+0	1.666608E+0	1.627694E+0	1.618604E+0	1.502117E+0	1.535203E+0	1.613157E+0	1.700132E+0	1.364890E+0	1.411072E+0	1.492672E+0	1.640247E+0	1.427647E+0	1.489687E+0	1.506254E+0	1.663955E+0	1.602058E+0	1.590171E+0	1.633648E+0	1.604265E+0	1.530742E+0	1.530444E+0
5.447720E+2	1.243494E+0	1.587084E+0	1.580657E+0	1.473667E+0	1.441630E+0	1.614838E+0	1.552314E+0	1.580835E+0	1.481476E+0	1.526627E+0	1.455508E+0	1.586040E+0	1.602087E+0	1.353918E+0	1.379476E+0	1.419740E+0	1.569172E+0	1.442448E+0	1.504119E+0	1.434113E+0	1.532605E+0	1.561194E+0	1.536669E+0	1.576930E+0	1.488990E+0	1.556506E+0	1.517180E+0	1.529700E+0	1.593221E+0	1.406440E+0	1.338276E+0	1.314811E+0	1.566929E+0	1.499169E+0	1.482640E+0	1.376820E+0	1.519610E+0	1.571015E+0	1.522610E+0	1.605824E+0	1.508725E+0	1.461635E+0	1.387782E+0	1.413539E+0	1.594736E+0	1.364359E+0	1.323187E+0	1.356501E+0	1.552514E+0	1.481506E+0	1.400161E+0	1.348832E+0	1.532675E+0	1.549019E+0	1.529816E+0	1.597241E+0	1.579760E+0	1.555331E+0	1.440171E+0	1.541207E+0	1.584226E+0	1.347356E+0	1.358655E+0	1.489027E+0	1.533766E+0	1.421423E+0	1.441634E+0	1.551155E+0	1.597116E+0	1.499750E+0	1.527911E+0	1.566396E+0	1.534993E+0	1.477778E+0	1.430664E+0	1.545138E+0	1.608610E+0	1.362726E+0	1.362472E+0	1.335254E+0	1.556550E+0	1.485954E+0	1.423091E+0	1.478113E+0	1.549785E+0	1.545473E+0	1.575735E+0	1.543299E+0	1.563342E+0	1.505755E+0	1.514449E+0	1.449354E+0	1.609842E+0	1.348722E+0	1.431599E+0	1.347935E+0	1.562334E+0	1.438242E+0	1.569381E+0	1.356324E+0	1.608438E+0	1.571189E+0	1.537077E+0	1.477955E+0	1.290253E+0	1.488111E+0	1.574667E+0	1.446813E+0	1.510568E+0	1.295269E+0	1.409202E+0	1.381443E+0	1.555246E+0	1.398065E+0	1.413582E+0	1.413858E+0	1.632837E+0	1.527573E+0	1.520678E+0	1.472959E+0	1.578529E+0	1.528287E+0	1.536032E+0	1.476972E+0	1.552037E+0	1.337586E+0	1.315450E+0	1.358558E+0	1.536443E+0	1.441982E+0	1.097806E+0	1.258012E+0	1.550767E+0	1.555491E+0	1.475539E+0	1.532882E+0	1.541255E+0	1.470762E+0	1.470109E+0	1.516343E+0	1.589784E+0	1.350368E+0	1.453086E+0	1.410616E+0	1.618336E+0	1.522630E+0	1.495884E+0	1.463036E+0	1.533406E+0	1.499843E+0	1.527957E+0	1.539578E+0	1.567382E+0	1.458924E+0	1.454459E+0	1.588534E+0	1.571714E+0	1.328844E+0	1.337117E+0	1.427916E+0	1.589295E+0	1.442440E+0	1.416262E+0	1.470316E+0	1.553960E+0	1.491520E+0	1.511975E+0	1.504845E+0	1.556663E+0	1.487989E+0	1.426964E+0
5.450150E+2	1.188964E+0	1.434058E+0	1.500558E+0	1.327004E+0	1.339514E+0	1.463474E+0	1.476673E+0	1.465054E+0	1.412990E+0	1.476771E+0	1.342263E+0	1.467662E+0	1.440746E+0	1.265380E+0	1.237340E+0	1.356643E+0	1.428267E+0	1.362321E+0	1.334021E+0	1.356544E+0	1.448547E+0	1.432202E+0	1.497149E+0	1.476226E+0	1.437199E+0	1.460574E+0	1.380843E+0	1.417250E+0	1.444618E+0	1.317989E+0	1.285582E+0	1.236270E+0	1.469837E+0	1.395516E+0	1.374661E+0	1.283111E+0	1.450819E+0	1.484738E+0	1.497131E+0	1.438252E+0	1.444227E+0	1.402430E+0	1.311482E+0	1.339259E+0	1.473017E+0	1.278690E+0	1.213287E+0	1.252833E+0	1.453774E+0	1.376640E+0	1.356874E+0	1.338034E+0	1.449583E+0	1.436704E+0	1.441513E+0	1.496176E+0	1.488735E+0	1.390866E+0	1.361589E+0	1.418110E+0	1.450882E+0	1.301625E+0	1.358172E+0	1.405020E+0	1.492108E+0	1.366774E+0	1.326184E+0	1.450975E+0	1.499636E+0	1.423889E+0	1.482112E+0	1.536061E+0	1.454261E+0	1.456654E+0	1.370346E+0	1.403184E+0	1.504982E+0	1.308354E+0	1.286103E+0	1.281047E+0	1.497160E+0	1.382944E+0	1.362024E+0	1.368141E+0	1.469700E+0	1.437250E+0	1.459193E+0	1.472932E+0	1.478439E+0	1.410800E+0	1.418813E+0	1.392510E+0	1.499191E+0	1.263329E+0	1.342864E+0	1.314895E+0	1.471042E+0	1.320906E+0	1.330948E+0	1.311020E+0	1.437558E+0	1.456206E+0	1.467284E+0	1.405501E+0	1.246436E+0	1.341176E+0	1.471027E+0	1.376094E+0	1.430331E+0	1.259451E+0	1.350303E+0	1.316723E+0	1.455476E+0	1.325202E+0	1.378923E+0	1.351159E+0	1.475906E+0	1.433986E+0	1.435196E+0	1.475014E+0	1.424977E+0	1.321900E+0	1.405087E+0	1.408125E+0	1.489541E+0	1.250987E+0	1.244743E+0	1.309792E+0	1.456734E+0	1.312349E+0	1.064235E+0	1.133421E+0	1.504760E+0	1.492397E+0	1.390572E+0	1.390889E+0	1.431749E+0	1.413830E+0	1.386381E+0	1.392481E+0	1.477227E+0	1.255014E+0	1.350776E+0	1.286571E+0	1.462754E+0	1.417755E+0	1.414826E+0	1.391884E+0	1.476977E+0	1.480996E+0	1.463292E+0	1.411764E+0	1.492466E+0	1.302668E+0	1.329402E+0	1.441974E+0	1.520457E+0	1.229332E+0	1.243042E+0	1.377655E+0	1.465372E+0	1.324712E+0	1.406198E+0	1.400795E+0	1.411415E+0	1.404706E+0	1.453190E+0	1.471110E+0	1.463291E+0	1.287662E+0	1.442712E+0
5.452690E+2	1.087402E+0	1.422997E+0	1.430308E+0	1.266576E+0	1.287611E+0	1.401893E+0	1.445959E+0	1.358523E+0	1.305835E+0	1.347135E+0	1.280178E+0	1.410085E+0	1.380420E+0	1.261047E+0	1.194003E+0	1.249506E+0	1.372633E+0	1.339862E+0	1.268902E+0	1.295863E+0	1.355486E+0	1.393133E+0	1.385334E+0	1.384311E+0	1.338230E+0	1.390148E+0	1.294441E+0	1.390476E+0	1.398398E+0	1.249910E+0	1.172129E+0	1.169470E+0	1.345005E+0	1.324181E+0	1.284119E+0	1.257943E+0	1.425504E+0	1.349860E+0	1.354143E+0	1.359501E+0	1.347197E+0	1.327080E+0	1.295634E+0	1.285802E+0	1.455551E+0	1.152329E+0	1.183402E+0	1.193654E+0	1.352122E+0	1.361994E+0	1.232282E+0	1.243568E+0	1.351705E+0	1.391268E+0	1.362909E+0	1.407858E+0	1.360923E+0	1.377062E+0	1.231786E+0	1.351018E+0	1.421828E+0	1.214929E+0	1.196636E+0	1.300135E+0	1.425947E+0	1.274160E+0	1.274173E+0	1.432490E+0	1.427057E+0	1.343903E+0	1.349296E+0	1.388184E+0	1.367506E+0	1.343989E+0	1.315199E+0	1.341147E+0	1.428165E+0	1.172915E+0	1.221990E+0	1.186873E+0	1.400025E+0	1.256571E+0	1.329600E+0	1.276209E+0	1.449547E+0	1.380485E+0	1.365753E+0	1.429590E+0	1.346987E+0	1.344492E+0	1.364734E+0	1.395565E+0	1.427986E+0	1.199644E+0	1.255116E+0	1.202282E+0	1.412354E+0	1.265545E+0	1.316349E+0	1.225509E+0	1.439226E+0	1.386285E+0	1.340786E+0	1.341093E+0	1.125677E+0	1.287489E+0	1.369629E+0	1.271703E+0	1.357960E+0	1.157732E+0	1.220271E+0	1.249574E+0	1.411350E+0	1.277559E+0	1.266122E+0	1.297421E+0	1.410874E+0	1.337788E+0	1.407735E+0	1.365960E+0	1.431986E+0	1.312660E+0	1.371640E+0	1.338676E+0	1.382337E+0	1.133677E+0	1.200315E+0	1.217087E+0	1.388672E+0	1.330948E+0	9.995991E-1	1.131796E+0	1.428945E+0	1.389399E+0	1.336456E+0	1.369644E+0	1.371437E+0	1.299370E+0	1.296115E+0	1.337493E+0	1.419483E+0	1.203092E+0	1.241430E+0	1.228031E+0	1.432610E+0	1.279794E+0	1.349208E+0	1.321328E+0	1.377429E+0	1.351281E+0	1.390953E+0	1.357058E+0	1.391936E+0	1.307116E+0	1.309975E+0	1.391554E+0	1.433375E+0	1.169423E+0	1.203801E+0	1.284874E+0	1.456564E+0	1.231020E+0	1.326852E+0	1.309479E+0	1.368202E+0	1.332022E+0	1.379841E+0	1.342924E+0	1.404705E+0	1.422027E+0	1.184014E+0
5.455450E+2	1.056384E+0	1.390426E+0	1.320662E+0	1.218737E+0	1.224989E+0	1.304052E+0	1.370886E+0	1.328358E+0	1.334557E+0	1.325528E+0	1.275006E+0	1.315377E+0	1.322971E+0	1.379422E+0	1.139944E+0	1.171590E+0	1.357514E+0	1.387816E+0	1.222305E+0	1.247319E+0	1.319962E+0	1.328900E+0	1.326050E+0	1.318349E+0	1.295076E+0	1.383469E+0	1.310711E+0	1.260354E+0	1.306947E+0	1.313700E+0	1.144594E+0	1.145987E+0	1.270226E+0	1.294915E+0	1.236315E+0	1.188330E+0	1.293979E+0	1.402826E+0	1.316707E+0	1.345310E+0	1.343772E+0	1.320080E+0	1.217572E+0	1.299308E+0	1.329464E+0	1.251919E+0	1.115440E+0	1.160916E+0	1.347447E+0	1.324499E+0	1.231111E+0	1.189585E+0	1.337941E+0	1.289672E+0	1.281243E+0	1.303014E+0	1.328505E+0	1.252852E+0	1.199771E+0	1.299932E+0	1.344520E+0	1.227790E+0	1.115631E+0	1.247694E+0	1.323640E+0	1.231592E+0	1.190154E+0	1.245255E+0	1.350768E+0	1.288168E+0	1.331485E+0	1.329412E+0	1.318707E+0	1.207260E+0	1.268095E+0	1.255076E+0	1.327632E+0	1.140392E+0	1.193706E+0	1.157474E+0	1.318434E+0	1.213561E+0	1.224217E+0	1.252934E+0	1.300277E+0	1.296663E+0	1.331354E+0	1.308745E+0	1.364599E+0	1.281364E+0	1.226969E+0	1.346061E+0	1.345718E+0	1.142229E+0	1.213706E+0	1.122246E+0	1.338254E+0	1.246891E+0	1.238495E+0	1.192094E+0	1.350170E+0	1.251102E+0	1.333151E+0	1.340592E+0	1.078655E+0	1.230973E+0	1.301844E+0	1.229608E+0	1.266192E+0	1.089443E+0	1.214161E+0	1.164906E+0	1.327570E+0	1.172185E+0	1.221380E+0	1.252040E+0	1.404961E+0	1.318445E+0	1.281843E+0	1.279021E+0	1.303918E+0	1.259062E+0	1.273004E+0	1.284322E+0	1.331527E+0	1.135687E+0	1.107156E+0	1.197774E+0	1.373346E+0	1.290258E+0	9.585132E-1	1.053791E+0	1.270521E+0	1.341404E+0	1.249323E+0	1.279472E+0	1.333371E+0	1.248962E+0	1.351713E+0	1.266883E+0	1.384248E+0	1.136693E+0	1.244679E+0	1.200615E+0	1.349165E+0	1.250632E+0	1.265946E+0	1.237020E+0	1.325792E+0	1.319684E+0	1.302177E+0	1.307189E+0	1.351597E+0	1.295045E+0	1.206771E+0	1.294236E+0	1.318184E+0	1.129314E+0	1.169088E+0	1.255878E+0	1.281059E+0	1.182326E+0	1.217902E+0	1.288859E+0	1.299175E+0	1.269432E+0	1.339931E+0	1.307348E+0	1.253661E+0	1.231474E+0	1.130024E+0
5.457780E+2	9.883426E-1	1.265671E+0	1.244501E+0	1.155161E+0	1.173650E+0	1.241894E+0	1.283296E+0	1.277283E+0	1.261093E+0	1.205866E+0	1.142791E+0	1.268563E+0	1.248285E+0	1.276925E+0	1.066782E+0	1.119080E+0	1.261364E+0	1.253667E+0	1.175150E+0	1.152336E+0	1.255922E+0	1.241124E+0	1.258094E+0	1.297238E+0	1.216818E+0	1.280256E+0	1.165958E+0	1.213766E+0	1.309433E+0	1.258489E+0	1.072916E+0	1.058541E+0	1.194243E+0	1.252845E+0	1.187950E+0	1.131569E+0	1.273619E+0	1.276691E+0	1.251192E+0	1.258318E+0	1.216491E+0	1.251188E+0	1.142447E+0	1.234596E+0	1.241585E+0	1.311351E+0	1.090376E+0	1.074457E+0	1.242283E+0	1.270603E+0	1.168522E+0	1.137222E+0	1.240570E+0	1.274356E+0	1.228668E+0	1.213751E+0	1.273017E+0	1.221223E+0	1.193951E+0	1.282083E+0	1.253201E+0	1.271616E+0	1.067894E+0	1.198651E+0	1.284434E+0	1.286238E+0	1.126141E+0	1.194570E+0	1.231567E+0	1.253593E+0	1.238360E+0	1.215657E+0	1.283159E+0	1.275918E+0	1.157801E+0	1.270165E+0	1.259066E+0	1.284082E+0	1.127234E+0	1.084892E+0	1.223519E+0	1.198163E+0	1.184769E+0	1.151108E+0	1.281754E+0	1.278096E+0	1.304658E+0	1.249596E+0	1.264597E+0	1.237334E+0	1.243478E+0	1.198150E+0	1.297609E+0	1.133065E+0	1.175251E+0	1.060356E+0	1.193017E+0	1.208982E+0	1.167938E+0	1.125835E+0	1.257213E+0	1.262497E+0	1.247000E+0	1.254047E+0	9.830082E-1	1.153549E+0	1.262628E+0	1.190321E+0	1.226336E+0	1.031184E+0	1.196933E+0	1.093379E+0	1.239954E+0	1.167140E+0	1.207516E+0	1.160086E+0	1.300160E+0	1.227999E+0	1.276660E+0	1.249184E+0	1.241478E+0	1.134613E+0	1.230491E+0	1.234802E+0	1.246169E+0	1.097424E+0	1.071804E+0	1.113275E+0	1.250102E+0	1.143762E+0	9.059024E-1	9.692857E-1	1.270000E+0	1.210364E+0	1.163816E+0	1.179975E+0	1.198103E+0	1.130352E+0	1.198652E+0	1.191639E+0	1.289801E+0	1.107738E+0	1.194333E+0	1.110482E+0	1.236115E+0	1.220347E+0	1.223487E+0	1.189784E+0	1.237954E+0	1.232099E+0	1.223260E+0	1.238441E+0	1.256190E+0	1.201672E+0	1.164882E+0	1.290135E+0	1.298342E+0	1.082098E+0	1.105196E+0	1.188708E+0	1.255897E+0	1.132399E+0	1.129676E+0	1.188115E+0	1.211067E+0	1.205329E+0	1.267125E+0	1.262574E+0	1.292110E+0	1.211930E+0	1.184013E+0
5.460220E+2	9.898434E-1	1.261369E+0	1.242532E+0	1.138795E+0	1.134158E+0	1.233837E+0	1.245758E+0	1.198961E+0	1.262750E+0	1.188138E+0	1.124396E+0	1.226055E+0	1.222910E+0	1.252867E+0	1.028568E+0	1.121196E+0	1.287367E+0	1.231208E+0	1.114521E+0	1.127537E+0	1.173865E+0	1.251293E+0	1.205078E+0	1.245785E+0	1.165605E+0	1.270541E+0	1.182229E+0	1.204664E+0	1.236868E+0	1.238118E+0	1.024969E+0	1.037893E+0	1.196052E+0	1.210166E+0	1.114277E+0	1.134783E+0	1.186667E+0	1.205703E+0	1.221035E+0	1.192388E+0	1.239324E+0	1.217280E+0	1.075537E+0	1.189577E+0	1.260687E+0	1.232644E+0	1.062903E+0	1.054730E+0	1.204307E+0	1.251269E+0	1.139274E+0	1.091877E+0	1.222727E+0	1.229431E+0	1.213864E+0	1.218476E+0	1.220022E+0	1.247676E+0	1.152041E+0	1.223611E+0	1.249566E+0	1.260181E+0	1.043301E+0	1.157860E+0	1.211533E+0	1.225265E+0	1.098135E+0	1.197551E+0	1.278721E+0	1.257203E+0	1.247011E+0	1.237933E+0	1.251229E+0	1.243642E+0	1.158376E+0	1.260108E+0	1.231740E+0	1.256897E+0	1.123463E+0	1.090866E+0	1.256268E+0	1.225242E+0	1.151802E+0	1.098741E+0	1.267046E+0	1.230347E+0	1.246126E+0	1.228690E+0	1.250760E+0	1.259084E+0	1.194520E+0	1.175536E+0	1.239876E+0	1.211222E+0	1.141236E+0	1.105493E+0	1.231550E+0	1.300446E+0	1.171587E+0	1.132065E+0	1.247752E+0	1.238671E+0	1.250274E+0	1.178068E+0	1.040183E+0	1.207802E+0	1.212769E+0	1.184147E+0	1.202739E+0	1.142930E+0	1.175817E+0	1.069533E+0	1.232279E+0	1.205254E+0	1.145129E+0	1.142172E+0	1.230832E+0	1.253615E+0	1.272514E+0	1.246614E+0	1.266963E+0	1.162953E+0	1.203849E+0	1.130928E+0	1.239055E+0	1.090376E+0	1.050783E+0	1.138865E+0	1.256847E+0	1.128648E+0	8.512874E-1	9.920373E-1	1.281502E+0	1.230856E+0	1.195205E+0	1.234388E+0	1.216256E+0	1.186099E+0	1.238554E+0	1.169065E+0	1.265330E+0	1.047329E+0	1.185672E+0	1.119776E+0	1.292639E+0	1.154170E+0	1.190401E+0	1.198751E+0	1.184190E+0	1.233210E+0	1.226550E+0	1.224884E+0	1.255549E+0	1.174995E+0	1.108424E+0	1.222716E+0	1.237715E+0	1.004417E+0	1.082558E+0	1.162610E+0	1.239542E+0	1.150274E+0	1.159874E+0	1.185169E+0	1.273921E+0	1.217947E+0	1.187844E+0	1.182225E+0	1.282039E+0	1.187500E+0	1.141271E+0
5.467710E+2	1.071392E+0	1.338188E+0	1.302278E+0	1.223143E+0	1.227246E+0	1.321318E+0	1.295240E+0	1.330307E+0	1.295339E+0	1.322204E+0	1.208324E+0	1.294392E+0	1.293764E+0	1.312053E+0	1.185614E+0	1.176247E+0	1.269830E+0	1.363536E+0	1.181325E+0	1.231488E+0	1.273434E+0	1.326763E+0	1.315447E+0	1.303395E+0	1.309460E+0	1.248685E+0	1.257973E+0	1.293019E+0	1.322357E+0	1.335681E+0	1.133676E+0	1.070687E+0	1.323900E+0	1.311376E+0	1.257122E+0	1.167982E+0	1.290677E+0	1.301809E+0	1.277711E+0	1.310513E+0	1.255302E+0	1.306626E+0	1.197030E+0	1.297620E+0	1.317456E+0	1.297432E+0	1.157375E+0	1.144967E+0	1.283765E+0	1.309854E+0	1.183731E+0	1.182568E+0	1.283392E+0	1.312136E+0	1.320547E+0	1.301124E+0	1.295461E+0	1.376487E+0	1.260307E+0	1.330705E+0	1.340887E+0	1.350213E+0	1.134918E+0	1.220016E+0	1.342631E+0	1.324207E+0	1.241022E+0	1.273876E+0	1.345472E+0	1.339773E+0	1.310112E+0	1.360217E+0	1.300632E+0	1.393864E+0	1.229032E+0	1.302022E+0	1.344644E+0	1.342822E+0	1.158819E+0	1.079840E+0	1.320652E+0	1.316043E+0	1.180983E+0	1.225585E+0	1.317709E+0	1.307272E+0	1.349837E+0	1.365345E+0	1.350763E+0	1.304707E+0	1.287311E+0	1.269049E+0	1.323107E+0	1.347761E+0	1.198916E+0	1.139928E+0	1.338255E+0	1.294429E+0	1.264649E+0	1.158682E+0	1.329019E+0	1.333971E+0	1.328245E+0	1.275682E+0	1.083998E+0	1.316312E+0	1.352262E+0	1.251497E+0	1.301326E+0	1.300999E+0	1.205268E+0	1.172206E+0	1.320536E+0	1.297177E+0	1.260450E+0	1.201883E+0	1.405498E+0	1.351906E+0	1.335205E+0	1.287765E+0	1.352980E+0	1.373034E+0	1.294547E+0	1.205814E+0	1.309171E+0	1.328522E+0	1.125790E+0	1.179906E+0	1.304672E+0	1.329786E+0	9.685339E-1	1.083585E+0	1.368294E+0	1.371602E+0	1.270972E+0	1.252007E+0	1.329274E+0	1.275055E+0	1.325549E+0	1.228103E+0	1.349993E+0	1.240037E+0	1.249548E+0	1.199223E+0	1.404616E+0	1.289890E+0	1.220729E+0	1.258547E+0	1.315678E+0	1.275340E+0	1.319712E+0	1.312514E+0	1.333668E+0	1.263921E+0	1.244409E+0	1.252615E+0	1.376053E+0	1.183131E+0	1.142425E+0	1.257331E+0	1.299302E+0	1.241498E+0	1.242771E+0	1.242905E+0	1.355296E+0	1.270442E+0	1.324290E+0	1.359483E+0	1.336964E+0	1.188722E+0	1.242501E+0
5.475120E+2	1.191966E+0	1.464170E+0	1.405357E+0	1.317562E+0	1.376749E+0	1.477287E+0	1.431738E+0	1.430515E+0	1.417407E+0	1.420814E+0	1.407221E+0	1.455282E+0	1.452237E+0	1.444383E+0	1.230351E+0	1.282537E+0	1.418595E+0	1.513467E+0	1.277882E+0	1.338076E+0	1.408020E+0	1.462178E+0	1.447507E+0	1.427849E+0	1.377934E+0	1.419290E+0	1.341567E+0	1.396366E+0	1.429211E+0	1.480953E+0	1.275617E+0	1.244365E+0	1.442701E+0	1.447341E+0	1.392094E+0	1.239735E+0	1.393038E+0	1.460164E+0	1.439418E+0	1.430011E+0	1.405986E+0	1.432567E+0	1.382498E+0	1.374711E+0	1.528692E+0	1.442532E+0	1.242689E+0	1.230589E+0	1.386005E+0	1.458659E+0	1.320607E+0	1.322920E+0	1.435308E+0	1.454569E+0	1.452745E+0	1.433834E+0	1.413295E+0	1.459869E+0	1.363336E+0	1.427956E+0	1.459184E+0	1.410710E+0	1.160474E+0	1.415703E+0	1.430234E+0	1.447307E+0	1.305606E+0	1.378822E+0	1.454078E+0	1.433693E+0	1.394074E+0	1.428470E+0	1.415704E+0	1.500663E+0	1.378388E+0	1.399269E+0	1.474566E+0	1.454961E+0	1.257817E+0	1.258997E+0	1.478288E+0	1.415868E+0	1.359862E+0	1.349523E+0	1.429387E+0	1.487119E+0	1.427876E+0	1.423983E+0	1.482841E+0	1.430429E+0	1.376688E+0	1.382733E+0	1.462628E+0	1.459690E+0	1.356669E+0	1.188323E+0	1.489417E+0	1.452082E+0	1.351019E+0	1.309322E+0	1.399707E+0	1.467601E+0	1.436752E+0	1.391913E+0	1.196209E+0	1.422557E+0	1.399880E+0	1.330634E+0	1.419846E+0	1.472438E+0	1.311959E+0	1.281690E+0	1.429897E+0	1.464201E+0	1.297631E+0	1.332053E+0	1.481817E+0	1.443918E+0	1.431570E+0	1.434893E+0	1.414144E+0	1.401377E+0	1.377876E+0	1.376722E+0	1.476331E+0	1.402029E+0	1.185505E+0	1.332003E+0	1.495974E+0	1.442567E+0	1.090290E+0	1.117170E+0	1.453520E+0	1.482690E+0	1.388947E+0	1.420947E+0	1.435263E+0	1.466610E+0	1.377880E+0	1.362961E+0	1.444439E+0	1.449218E+0	1.334536E+0	1.274955E+0	1.443914E+0	1.440749E+0	1.311160E+0	1.368564E+0	1.400851E+0	1.431104E+0	1.435344E+0	1.403534E+0	1.453405E+0	1.418271E+0	1.291156E+0	1.421452E+0	1.485182E+0	1.462876E+0	1.263669E+0	1.341413E+0	1.485500E+0	1.475109E+0	1.351130E+0	1.361325E+0	1.417028E+0	1.406723E+0	1.410044E+0	1.396898E+0	1.448645E+0	1.397598E+0	1.451710E+0
5.482600E+2	1.229988E+0	1.537303E+0	1.532731E+0	1.508288E+0	1.423577E+0	1.546352E+0	1.500557E+0	1.518566E+0	1.511305E+0	1.503361E+0	1.419868E+0	1.508017E+0	1.511123E+0	1.492984E+0	1.317026E+0	1.350292E+0	1.532283E+0	1.583879E+0	1.390721E+0	1.407201E+0	1.507586E+0	1.549956E+0	1.514500E+0	1.518002E+0	1.507977E+0	1.526150E+0	1.437508E+0	1.452059E+0	1.536565E+0	1.511509E+0	1.283683E+0	1.305093E+0	1.540394E+0	1.583306E+0	1.429773E+0	1.392350E+0	1.464027E+0	1.540435E+0	1.482050E+0	1.551341E+0	1.515574E+0	1.498232E+0	1.432387E+0	1.401720E+0	1.524326E+0	1.515348E+0	1.301976E+0	1.303617E+0	1.483573E+0	1.583446E+0	1.333475E+0	1.381223E+0	1.497504E+0	1.567908E+0	1.474692E+0	1.518371E+0	1.584128E+0	1.538079E+0	1.418052E+0	1.504896E+0	1.555689E+0	1.511219E+0	1.325866E+0	1.472030E+0	1.517222E+0	1.510009E+0	1.426204E+0	1.521935E+0	1.516592E+0	1.576644E+0	1.513664E+0	1.505726E+0	1.505474E+0	1.609813E+0	1.431815E+0	1.459072E+0	1.543133E+0	1.497190E+0	1.315804E+0	1.296206E+0	1.504378E+0	1.537461E+0	1.416063E+0	1.415272E+0	1.551963E+0	1.581019E+0	1.545957E+0	1.534123E+0	1.483471E+0	1.551908E+0	1.475170E+0	1.487858E+0	1.558366E+0	1.505039E+0	1.404981E+0	1.248352E+0	1.458592E+0	1.565210E+0	1.389950E+0	1.377278E+0	1.550551E+0	1.584139E+0	1.473284E+0	1.452793E+0	1.208499E+0	1.548018E+0	1.538253E+0	1.404159E+0	1.461272E+0	1.554098E+0	1.378085E+0	1.337163E+0	1.449724E+0	1.498954E+0	1.431858E+0	1.393555E+0	1.608653E+0	1.527570E+0	1.549173E+0	1.485304E+0	1.541573E+0	1.482698E+0	1.484448E+0	1.430469E+0	1.538316E+0	1.506251E+0	1.292519E+0	1.372562E+0	1.526017E+0	1.546618E+0	1.129372E+0	1.240136E+0	1.518876E+0	1.560881E+0	1.473372E+0	1.463957E+0	1.511390E+0	1.550823E+0	1.485152E+0	1.432416E+0	1.544271E+0	1.501138E+0	1.397873E+0	1.417587E+0	1.534893E+0	1.584879E+0	1.473274E+0	1.425368E+0	1.495606E+0	1.556937E+0	1.547684E+0	1.531349E+0	1.544970E+0	1.498307E+0	1.420463E+0	1.522288E+0	1.557936E+0	1.529388E+0	1.272725E+0	1.444828E+0	1.513178E+0	1.501613E+0	1.427514E+0	1.395493E+0	1.464164E+0	1.499090E+0	1.483392E+0	1.483993E+0	1.537440E+0	1.524633E+0	1.363977E+0
5.490100E+2	1.203471E+0	1.452495E+0	1.558336E+0	1.518989E+0	1.384649E+0	1.481316E+0	1.510230E+0	1.510298E+0	1.440605E+0	1.456271E+0	1.400320E+0	1.530618E+0	1.484314E+0	1.493946E+0	1.291397E+0	1.316839E+0	1.462132E+0	1.530462E+0	1.313249E+0	1.352850E+0	1.382505E+0	1.500180E+0	1.478834E+0	1.441044E+0	1.444106E+0	1.506718E+0	1.406650E+0	1.463837E+0	1.462012E+0	1.508293E+0	1.266595E+0	1.231410E+0	1.476473E+0	1.476609E+0	1.357226E+0	1.321665E+0	1.449718E+0	1.506580E+0	1.446176E+0	1.435963E+0	1.446512E+0	1.480474E+0	1.317938E+0	1.409038E+0	1.521050E+0	1.529806E+0	1.283661E+0	1.299422E+0	1.459619E+0	1.483853E+0	1.362722E+0	1.288373E+0	1.448565E+0	1.439767E+0	1.396086E+0	1.425804E+0	1.460056E+0	1.522551E+0	1.357517E+0	1.471041E+0	1.485128E+0	1.488826E+0	1.234247E+0	1.430270E+0	1.433913E+0	1.492751E+0	1.317037E+0	1.428316E+0	1.483746E+0	1.413050E+0	1.453108E+0	1.455962E+0	1.454865E+0	1.467217E+0	1.417454E+0	1.377475E+0	1.498281E+0	1.498650E+0	1.312976E+0	1.258080E+0	1.460526E+0	1.470025E+0	1.340407E+0	1.350103E+0	1.480597E+0	1.491893E+0	1.461247E+0	1.470891E+0	1.479065E+0	1.493553E+0	1.452402E+0	1.383342E+0	1.467436E+0	1.457278E+0	1.346807E+0	1.248818E+0	1.435472E+0	1.521279E+0	1.414886E+0	1.324047E+0	1.512700E+0	1.485731E+0	1.491821E+0	1.449776E+0	1.219721E+0	1.473984E+0	1.409403E+0	1.358695E+0	1.430334E+0	1.467662E+0	1.367529E+0	1.312829E+0	1.469547E+0	1.455237E+0	1.345523E+0	1.367281E+0	1.468916E+0	1.495157E+0	1.438824E+0	1.440549E+0	1.440267E+0	1.450046E+0	1.406788E+0	1.367664E+0	1.496149E+0	1.433748E+0	1.284396E+0	1.322347E+0	1.434047E+0	1.472214E+0	1.041688E+0	1.170257E+0	1.417442E+0	1.515583E+0	1.379750E+0	1.334402E+0	1.457517E+0	1.471357E+0	1.453101E+0	1.405792E+0	1.437101E+0	1.461700E+0	1.296103E+0	1.319555E+0	1.494517E+0	1.513093E+0	1.434676E+0	1.356608E+0	1.445034E+0	1.530329E+0	1.447402E+0	1.489714E+0	1.479658E+0	1.507200E+0	1.349436E+0	1.491801E+0	1.498959E+0	1.498416E+0	1.280268E+0	1.397954E+0	1.476693E+0	1.496065E+0	1.307312E+0	1.426721E+0	1.470342E+0	1.522813E+0	1.474222E+0	1.381563E+0	1.420267E+0	1.470887E+0	1.361727E+0
5.497740E+2	1.126926E+0	1.394726E+0	1.413236E+0	1.385544E+0	1.343464E+0	1.462896E+0	1.408990E+0	1.475757E+0	1.423484E+0	1.365415E+0	1.319272E+0	1.354661E+0	1.406753E+0	1.405886E+0	1.236876E+0	1.228333E+0	1.460924E+0	1.423022E+0	1.234094E+0	1.304834E+0	1.365493E+0	1.413468E+0	1.393527E+0	1.384751E+0	1.377936E+0	1.425968E+0	1.318563E+0	1.402790E+0	1.413307E+0	1.462189E+0	1.215799E+0	1.186067E+0	1.371542E+0	1.371738E+0	1.308303E+0	1.274007E+0	1.400191E+0	1.405011E+0	1.413419E+0	1.400706E+0	1.333499E+0	1.396510E+0	1.325567E+0	1.349390E+0	1.440815E+0	1.466625E+0	1.215216E+0	1.238562E+0	1.369062E+0	1.440498E+0	1.296626E+0	1.240327E+0	1.382291E+0	1.397904E+0	1.365461E+0	1.352601E+0	1.369030E+0	1.400064E+0	1.293487E+0	1.386718E+0	1.420268E+0	1.414045E+0	1.248715E+0	1.271973E+0	1.502522E+0	1.469170E+0	1.266740E+0	1.363917E+0	1.449836E+0	1.439886E+0	1.346751E+0	1.419465E+0	1.427755E+0	1.413230E+0	1.282457E+0	1.370765E+0	1.428167E+0	1.447677E+0	1.247919E+0	1.235568E+0	1.384487E+0	1.443477E+0	1.311226E+0	1.264571E+0	1.378179E+0	1.420273E+0	1.427360E+0	1.408176E+0	1.390385E+0	1.393297E+0	1.349930E+0	1.321612E+0	1.389018E+0	1.396003E+0	1.256100E+0	1.201353E+0	1.418874E+0	1.407552E+0	1.332165E+0	1.268548E+0	1.384679E+0	1.461389E+0	1.358235E+0	1.386376E+0	1.147585E+0	1.414077E+0	1.416687E+0	1.298081E+0	1.393622E+0	1.423248E+0	1.229717E+0	1.264172E+0	1.387685E+0	1.373962E+0	1.230833E+0	1.296226E+0	1.401737E+0	1.375432E+0	1.471462E+0	1.368533E+0	1.421791E+0	1.378580E+0	1.318921E+0	1.327202E+0	1.432128E+0	1.420155E+0	1.177383E+0	1.252817E+0	1.405839E+0	1.396060E+0	1.175971E+0	1.068958E+0	1.421103E+0	1.460581E+0	1.349984E+0	1.370678E+0	1.421211E+0	1.420354E+0	1.362834E+0	1.273247E+0	1.419975E+0	1.397796E+0	1.264707E+0	1.236855E+0	1.424533E+0	1.409904E+0	1.319431E+0	1.321925E+0	1.377962E+0	1.413920E+0	1.401364E+0	1.418060E+0	1.391295E+0	1.394135E+0	1.293583E+0	1.379829E+0	1.449356E+0	1.389259E+0	1.142425E+0	1.324499E+0	1.401836E+0	1.419016E+0	1.283035E+0	1.291217E+0	1.439478E+0	1.443570E+0	1.411120E+0	1.380335E+0	1.379988E+0	1.429356E+0	1.316736E+0
5.505170E+2	1.115419E+0	1.423611E+0	1.438842E+0	1.350923E+0	1.213141E+0	1.344341E+0	1.424347E+0	1.380897E+0	1.306939E+0	1.394224E+0	1.323293E+0	1.386408E+0	1.401966E+0	1.381345E+0	1.376211E+0	1.235533E+0	1.373240E+0	1.390245E+0	1.340758E+0	1.287947E+0	1.318461E+0	1.368509E+0	1.344367E+0	1.357489E+0	1.277235E+0	1.340361E+0	1.402723E+0	1.311758E+0	1.376527E+0	1.356048E+0	1.254251E+0	1.133844E+0	1.407724E+0	1.376006E+0	1.303239E+0	1.226883E+0	1.335254E+0	1.369520E+0	1.383783E+0	1.295402E+0	1.384865E+0	1.335688E+0	1.234592E+0	1.298744E+0	1.376408E+0	1.431285E+0	1.207503E+0	1.150004E+0	1.297785E+0	1.426439E+0	1.221167E+0	1.207938E+0	1.308372E+0	1.355019E+0	1.341472E+0	1.396525E+0	1.354692E+0	1.390291E+0	1.235860E+0	1.379948E+0	1.294710E+0	1.386890E+0	1.155653E+0	1.305479E+0	1.380001E+0	1.394387E+0	1.234735E+0	1.318001E+0	1.412752E+0	1.368672E+0	1.319272E+0	1.359745E+0	1.354251E+0	1.371568E+0	1.307156E+0	1.343380E+0	1.340006E+0	1.377773E+0	1.228589E+0	1.203410E+0	1.333974E+0	1.313386E+0	1.272315E+0	1.238968E+0	1.320436E+0	1.347594E+0	1.393991E+0	1.288350E+0	1.401706E+0	1.408677E+0	1.255433E+0	1.292274E+0	1.381801E+0	1.383947E+0	1.269409E+0	1.179948E+0	1.366710E+0	1.415977E+0	1.245793E+0	1.183600E+0	1.414734E+0	1.393535E+0	1.353873E+0	1.324490E+0	1.121402E+0	1.342306E+0	1.338256E+0	1.287977E+0	1.316010E+0	1.394599E+0	1.243056E+0	1.256388E+0	1.360186E+0	1.473172E+0	1.264231E+0	1.263982E+0	1.368953E+0	1.348769E+0	1.324321E+0	1.328920E+0	1.365085E+0	1.366258E+0	1.321757E+0	1.285530E+0	1.335082E+0	1.442309E+0	1.119578E+0	1.221914E+0	1.398483E+0	1.409430E+0	1.326786E+0	1.093877E+0	1.408034E+0	1.353268E+0	1.321842E+0	1.284140E+0	1.407739E+0	1.381806E+0	1.293498E+0	1.302188E+0	1.379844E+0	1.322910E+0	1.266870E+0	1.206192E+0	1.423458E+0	1.336435E+0	1.299582E+0	1.285453E+0	1.369445E+0	1.335759E+0	1.327934E+0	1.365769E+0	1.353516E+0	1.371903E+0	1.290547E+0	1.335275E+0	1.349598E+0	1.399415E+0	1.117771E+0	1.296955E+0	1.332013E+0	1.375871E+0	1.284812E+0	1.247619E+0	1.306470E+0	1.363315E+0	1.402491E+0	1.359482E+0	1.433999E+0	1.412256E+0	1.179514E+0
5.512620E+2	1.084401E+0	1.397186E+0	1.386974E+0	1.327003E+0	1.239093E+0	1.340310E+0	1.364626E+0	1.360467E+0	1.311357E+0	1.353782E+0	1.368706E+0	1.333673E+0	1.313875E+0	1.329859E+0	1.364562E+0	1.183868E+0	1.322441E+0	1.322259E+0	1.323918E+0	1.286363E+0	1.272933E+0	1.382426E+0	1.341954E+0	1.342533E+0	1.290471E+0	1.347042E+0	1.394308E+0	1.273740E+0	1.353168E+0	1.327641E+0	1.340177E+0	1.147609E+0	1.401692E+0	1.354056E+0	1.372976E+0	1.196899E+0	1.326450E+0	1.321464E+0	1.389500E+0	1.352177E+0	1.366031E+0	1.346993E+0	1.306784E+0	1.226718E+0	1.395509E+0	1.398091E+0	1.350175E+0	1.142028E+0	1.356794E+0	1.382499E+0	1.289605E+0	1.245727E+0	1.296136E+0	1.343277E+0	1.374649E+0	1.319542E+0	1.393967E+0	1.413292E+0	1.352277E+0	1.345479E+0	1.356969E+0	1.340686E+0	1.257395E+0	1.320530E+0	1.362847E+0	1.389211E+0	1.281602E+0	1.286398E+0	1.366663E+0	1.348547E+0	1.348788E+0	1.352162E+0	1.257255E+0	1.397384E+0	1.282456E+0	1.260666E+0	1.371455E+0	1.352045E+0	1.181449E+0	1.155640E+0	1.300116E+0	1.331972E+0	1.210707E+0	1.251188E+0	1.369463E+0	1.388444E+0	1.320574E+0	1.322002E+0	1.375918E+0	1.338125E+0	1.287310E+0	1.295942E+0	1.410187E+0	1.336178E+0	1.172789E+0	1.157613E+0	1.377973E+0	1.355203E+0	1.319999E+0	1.184166E+0	1.340146E+0	1.418918E+0	1.263905E+0	1.328011E+0	1.114990E+0	1.336653E+0	1.343298E+0	1.257109E+0	1.368978E+0	1.364990E+0	1.210269E+0	1.211619E+0	1.340361E+0	1.331926E+0	1.290699E+0	1.314140E+0	1.397438E+0	1.391639E+0	1.337275E+0	1.322234E+0	1.391845E+0	1.306500E+0	1.286610E+0	1.360414E+0	1.348803E+0	1.380886E+0	1.165917E+0	1.177977E+0	1.338395E+0	1.408847E+0	1.291210E+0	1.057041E+0	1.301369E+0	1.428225E+0	1.304525E+0	1.301238E+0	1.348012E+0	1.392480E+0	1.273875E+0	1.234469E+0	1.366631E+0	1.302940E+0	1.225731E+0	1.213162E+0	1.349165E+0	1.339240E+0	1.298479E+0	1.263327E+0	1.382221E+0	1.332433E+0	1.340538E+0	1.345434E+0	1.302932E+0	1.335062E+0	1.261408E+0	1.339964E+0	1.323693E+0	1.347122E+0	1.159529E+0	1.256361E+0	1.319431E+0	1.358611E+0	1.242771E+0	1.298876E+0	1.348560E+0	1.318394E+0	1.324830E+0	1.400577E+0	1.336965E+0	1.329193E+0	1.251499E+0
5.520150E+2	1.103412E+0	1.391654E+0	1.316723E+0	1.347776E+0	1.237965E+0	1.359879E+0	1.350976E+0	1.392087E+0	1.342288E+0	1.355999E+0	1.362958E+0	1.347664E+0	1.336855E+0	1.323119E+0	1.364561E+0	1.227487E+0	1.332115E+0	1.379925E+0	1.321109E+0	1.239930E+0	1.264928E+0	1.344425E+0	1.348701E+0	1.328903E+0	1.304857E+0	1.405326E+0	1.362326E+0	1.258746E+0	1.390941E+0	1.346403E+0	1.347293E+0	1.131010E+0	1.348022E+0	1.352839E+0	1.341482E+0	1.169587E+0	1.341305E+0	1.334026E+0	1.350503E+0	1.321499E+0	1.346625E+0	1.404045E+0	1.321458E+0	1.303807E+0	1.397148E+0	1.420043E+0	1.357890E+0	1.126080E+0	1.352706E+0	1.335631E+0	1.335817E+0	1.244105E+0	1.321625E+0	1.357572E+0	1.350149E+0	1.345046E+0	1.368407E+0	1.398915E+0	1.344710E+0	1.325783E+0	1.371498E+0	1.353546E+0	1.347080E+0	1.260805E+0	1.326704E+0	1.357572E+0	1.374193E+0	1.258372E+0	1.359774E+0	1.349578E+0	1.336062E+0	1.341734E+0	1.321116E+0	1.350441E+0	1.377815E+0	1.322702E+0	1.340525E+0	1.382626E+0	1.422813E+0	1.157934E+0	1.326759E+0	1.344713E+0	1.329600E+0	1.236059E+0	1.358567E+0	1.353429E+0	1.389368E+0	1.353618E+0	1.380322E+0	1.375788E+0	1.347654E+0	1.313055E+0	1.380361E+0	1.342933E+0	1.316736E+0	1.152958E+0	1.329954E+0	1.361820E+0	1.320608E+0	1.226639E+0	1.375772E+0	1.353136E+0	1.393673E+0	1.320966E+0	1.106440E+0	1.358697E+0	1.320889E+0	1.232976E+0	1.300279E+0	1.335382E+0	1.240832E+0	1.200913E+0	1.360826E+0	1.335850E+0	1.337332E+0	1.288464E+0	1.337781E+0	1.312170E+0	1.309301E+0	1.306802E+0	1.403951E+0	1.342848E+0	1.327993E+0	1.300023E+0	1.367603E+0	1.339601E+0	1.158752E+0	1.222880E+0	1.341461E+0	1.389082E+0	1.248119E+0	1.046207E+0	1.364635E+0	1.345717E+0	1.286666E+0	1.275843E+0	1.326346E+0	1.280392E+0	1.307888E+0	1.292349E+0	1.380823E+0	1.345378E+0	1.246302E+0	1.124420E+0	1.344324E+0	1.372889E+0	1.288002E+0	1.225658E+0	1.324725E+0	1.375117E+0	1.284639E+0	1.375453E+0	1.340071E+0	1.396039E+0	1.206164E+0	1.318273E+0	1.366134E+0	1.371491E+0	1.183675E+0	1.261678E+0	1.393659E+0	1.294507E+0	1.211980E+0	1.251743E+0	1.365958E+0	1.303756E+0	1.288694E+0	1.274227E+0	1.315910E+0	1.422027E+0	1.278494E+0
5.527650E+2	1.058885E+0	1.341875E+0	1.297026E+0	1.310009E+0	1.221604E+0	1.269520E+0	1.351547E+0	1.339064E+0	1.280422E+0	1.363200E+0	1.289375E+0	1.311612E+0	1.300950E+0	1.364505E+0	1.249923E+0	1.196574E+0	1.320022E+0	1.339254E+0	1.311564E+0	1.219351E+0	1.300951E+0	1.373864E+0	1.340027E+0	1.298116E+0	1.329600E+0	1.269328E+0	1.285463E+0	1.265707E+0	1.317385E+0	1.254737E+0	1.287007E+0	1.113599E+0	1.309426E+0	1.340033E+0	1.308302E+0	1.185654E+0	1.301683E+0	1.346582E+0	1.304748E+0	1.235423E+0	1.314094E+0	1.246344E+0	1.280374E+0	1.250914E+0	1.281429E+0	1.255133E+0	1.319811E+0	1.133216E+0	1.284934E+0	1.284077E+0	1.348101E+0	1.156117E+0	1.257392E+0	1.319793E+0	1.269503E+0	1.286013E+0	1.283615E+0	1.312083E+0	1.340052E+0	1.311011E+0	1.317020E+0	1.312581E+0	1.302237E+0	1.237495E+0	1.318740E+0	1.313276E+0	1.324468E+0	1.269107E+0	1.261764E+0	1.336162E+0	1.307056E+0	1.342682E+0	1.321721E+0	1.311712E+0	1.314626E+0	1.231043E+0	1.310103E+0	1.306897E+0	1.278559E+0	1.120265E+0	1.313435E+0	1.317103E+0	1.263667E+0	1.245951E+0	1.332961E+0	1.329023E+0	1.361645E+0	1.285800E+0	1.289127E+0	1.333350E+0	1.278773E+0	1.346671E+0	1.331289E+0	1.299030E+0	1.331527E+0	1.112007E+0	1.270673E+0	1.343168E+0	1.360753E+0	1.156982E+0	1.343488E+0	1.312221E+0	1.322791E+0	1.308892E+0	1.091479E+0	1.351347E+0	1.337138E+0	1.237465E+0	1.324400E+0	1.301952E+0	1.326406E+0	1.150794E+0	1.292396E+0	1.297738E+0	1.319057E+0	1.193523E+0	1.256628E+0	1.314262E+0	1.338832E+0	1.311431E+0	1.276521E+0	1.347162E+0	1.284910E+0	1.252315E+0	1.361503E+0	1.343626E+0	1.325480E+0	1.131140E+0	1.343913E+0	1.363505E+0	1.310252E+0	1.083043E+0	1.350518E+0	1.330080E+0	1.322921E+0	1.269110E+0	1.307022E+0	1.278022E+0	1.321625E+0	1.261672E+0	1.303995E+0	1.305436E+0	1.292853E+0	1.181569E+0	1.313097E+0	1.375133E+0	1.301234E+0	1.296215E+0	1.293852E+0	1.320237E+0	1.338345E+0	1.284918E+0	1.317019E+0	1.305209E+0	1.251088E+0	1.285443E+0	1.328655E+0	1.260809E+0	1.229457E+0	1.218670E+0	1.351513E+0	1.311152E+0	1.277114E+0	1.254099E+0	1.271116E+0	1.322934E+0	1.334536E+0	1.311641E+0	1.329641E+0	1.312092E+0	1.096280E+0
5.535270E+2	1.020362E+0	1.182706E+0	1.272733E+0	1.225031E+0	1.170829E+0	1.262613E+0	1.281589E+0	1.321550E+0	1.228504E+0	1.248524E+0	1.191079E+0	1.276635E+0	1.212378E+0	1.225439E+0	1.225691E+0	1.119079E+0	1.219033E+0	1.217248E+0	1.253743E+0	1.170806E+0	1.228403E+0	1.253971E+0	1.229657E+0	1.255462E+0	1.171359E+0	1.222577E+0	1.227674E+0	1.223405E+0	1.246812E+0	1.260098E+0	1.228144E+0	1.025345E+0	1.236456E+0	1.192484E+0	1.292556E+0	1.080698E+0	1.198775E+0	1.224267E+0	1.232475E+0	1.235883E+0	1.236469E+0	1.225355E+0	1.229898E+0	1.148500E+0	1.235581E+0	1.303321E+0	1.227266E+0	1.057667E+0	1.270326E+0	1.279976E+0	1.219997E+0	1.071364E+0	1.212531E+0	1.256489E+0	1.187836E+0	1.257676E+0	1.215034E+0	1.256876E+0	1.246920E+0	1.232843E+0	1.211693E+0	1.277809E+0	1.243894E+0	1.207390E+0	1.247064E+0	1.222389E+0	1.207301E+0	1.192781E+0	1.240043E+0	1.212307E+0	1.249045E+0	1.254048E+0	1.181344E+0	1.231907E+0	1.245118E+0	1.213160E+0	1.236380E+0	1.214664E+0	1.258758E+0	1.090406E+0	1.249052E+0	1.215686E+0	1.224757E+0	1.128998E+0	1.257243E+0	1.249978E+0	1.266152E+0	1.178211E+0	1.226860E+0	1.203914E+0	1.197365E+0	1.182259E+0	1.210049E+0	1.271047E+0	1.258565E+0	1.060821E+0	1.225622E+0	1.262535E+0	1.247617E+0	1.077698E+0	1.216023E+0	1.257835E+0	1.235551E+0	1.169010E+0	9.717869E-1	1.197065E+0	1.250302E+0	1.132513E+0	1.238397E+0	1.214561E+0	1.234163E+0	1.069048E+0	1.208617E+0	1.262425E+0	1.232092E+0	1.160682E+0	1.228683E+0	1.279236E+0	1.225370E+0	1.202888E+0	1.308378E+0	1.284937E+0	1.298513E+0	1.204606E+0	1.274621E+0	1.260050E+0	1.235191E+0	1.096858E+0	1.240292E+0	1.252471E+0	1.277685E+0	1.000162E+0	1.259541E+0	1.268064E+0	1.219559E+0	1.195003E+0	1.220940E+0	1.212786E+0	1.217621E+0	1.216526E+0	1.288332E+0	1.234044E+0	1.198664E+0	1.133249E+0	1.232886E+0	1.266334E+0	1.260431E+0	1.189783E+0	1.232101E+0	1.218240E+0	1.266004E+0	1.260226E+0	1.205605E+0	1.249947E+0	1.269301E+0	1.234440E+0	1.245981E+0	1.269948E+0	1.188705E+0	1.176144E+0	1.230106E+0	1.227322E+0	1.225008E+0	1.146285E+0	1.196476E+0	1.201797E+0	1.228294E+0	1.206146E+0	1.276547E+0	1.229031E+0	1.222255E+0
5.542580E+2	1.125425E+0	1.133542E+0	1.154553E+0	1.135019E+0	1.074357E+0	1.149810E+0	1.162152E+0	1.117723E+0	1.105331E+0	1.136615E+0	1.156013E+0	1.146954E+0	1.107051E+0	1.112358E+0	1.112915E+0	1.020836E+0	1.126510E+0	1.112843E+0	1.157747E+0	1.043110E+0	1.028769E+0	1.135683E+0	1.116877E+0	1.122210E+0	1.071812E+0	1.081721E+0	1.121636E+0	1.041875E+0	1.164807E+0	1.135194E+0	1.093801E+0	9.067239E-1	1.130319E+0	1.096151E+0	1.095156E+0	9.827037E-1	1.116227E+0	1.146726E+0	1.085325E+0	1.091203E+0	1.105763E+0	1.140852E+0	1.138925E+0	1.088853E+0	1.103490E+0	1.106818E+0	1.093269E+0	9.367921E-1	1.107324E+0	1.155191E+0	1.097744E+0	1.003347E+0	1.122299E+0	1.128347E+0	1.175585E+0	1.160386E+0	1.113408E+0	1.122889E+0	1.101399E+0	1.098664E+0	1.083536E+0	1.122516E+0	1.139257E+0	1.069971E+0	1.094525E+0	1.157386E+0	1.090705E+0	1.029994E+0	1.133559E+0	1.104966E+0	1.122335E+0	1.144088E+0	1.100010E+0	1.186137E+0	1.128504E+0	1.095794E+0	1.088933E+0	1.127285E+0	1.140908E+0	9.663739E-1	1.104183E+0	1.081346E+0	1.104785E+0	1.068485E+0	1.149378E+0	1.082867E+0	1.147554E+0	1.088979E+0	1.136921E+0	1.142911E+0	1.137593E+0	1.081412E+0	1.138845E+0	1.116659E+0	1.143701E+0	9.407626E-1	1.121288E+0	1.080211E+0	1.125360E+0	1.009174E+0	1.148116E+0	1.110739E+0	1.129771E+0	1.098067E+0	9.172839E-1	1.098165E+0	1.120895E+0	1.074141E+0	1.057477E+0	1.147703E+0	1.164147E+0	9.522646E-1	1.111407E+0	1.136873E+0	1.097866E+0	1.024541E+0	1.159890E+0	1.076907E+0	1.105172E+0	1.074797E+0	1.156738E+0	1.121060E+0	1.111447E+0	1.055439E+0	1.183167E+0	1.143242E+0	1.070849E+0	9.713187E-1	1.105400E+0	1.122835E+0	1.122358E+0	9.102399E-1	1.116282E+0	1.134329E+0	1.125392E+0	1.023475E+0	1.138373E+0	1.111968E+0	1.131934E+0	1.031892E+0	1.146905E+0	1.152169E+0	1.102851E+0	1.020350E+0	1.134908E+0	1.139589E+0	1.124784E+0	1.060630E+0	1.118711E+0	1.092962E+0	1.126263E+0	1.082545E+0	1.112759E+0	1.141965E+0	1.093248E+0	1.059738E+0	1.130790E+0	1.069911E+0	1.140412E+0	1.060647E+0	1.135749E+0	1.102813E+0	1.147439E+0	1.045541E+0	1.124081E+0	1.099838E+0	1.150631E+0	1.095743E+0	1.188667E+0	1.138640E+0	1.172764E+0
5.550250E+2	1.024365E+0	1.018622E+0	1.045565E+0	1.069555E+0	9.829622E-1	1.026071E+0	1.042713E+0	9.975678E-1	9.970727E-1	1.052962E+0	1.040470E+0	9.989773E-1	1.013214E+0	1.071940E+0	1.023907E+0	8.980299E-1	9.995161E-1	1.030897E+0	1.091504E+0	9.470749E-1	9.687293E-1	1.062890E+0	1.025302E+0	9.638954E-1	9.952821E-1	1.063507E+0	1.022330E+0	1.000107E+0	1.037573E+0	1.069259E+0	1.037311E+0	8.698823E-1	1.053129E+0	1.034571E+0	1.043416E+0	9.227292E-1	1.060094E+0	1.078468E+0	1.011491E+0	1.013827E+0	1.016152E+0	1.026212E+0	1.009802E+0	9.661809E-1	1.030348E+0	1.005622E+0	1.039283E+0	8.776126E-1	1.034295E+0	1.024547E+0	1.048023E+0	9.196747E-1	1.024929E+0	1.009394E+0	1.033688E+0	1.000756E+0	1.082859E+0	1.021104E+0	1.087429E+0	1.045115E+0	1.032169E+0	1.053446E+0	1.051497E+0	9.437214E-1	1.050418E+0	1.083755E+0	9.906834E-1	1.007334E+0	9.995232E-1	1.054393E+0	9.879903E-1	1.040287E+0	1.004218E+0	1.044715E+0	1.050379E+0	9.717204E-1	1.047173E+0	1.028253E+0	1.062651E+0	9.117082E-1	1.053118E+0	1.013381E+0	1.053447E+0	9.334933E-1	1.054041E+0	1.005942E+0	1.046926E+0	1.064504E+0	1.033146E+0	1.067052E+0	1.004953E+0	9.982886E-1	1.039259E+0	1.076616E+0	1.068771E+0	8.509514E-1	1.024661E+0	1.043505E+0	1.031690E+0	9.332878E-1	1.059057E+0	1.045993E+0	1.058888E+0	1.003470E+0	8.932386E-1	1.040521E+0	1.065993E+0	9.416856E-1	1.003461E+0	1.057450E+0	1.073017E+0	9.191760E-1	1.055767E+0	1.038226E+0	1.046191E+0	9.612477E-1	1.050789E+0	1.050765E+0	1.046628E+0	1.046504E+0	1.041414E+0	1.055139E+0	1.034919E+0	9.859893E-1	1.090694E+0	1.067720E+0	1.078971E+0	8.945469E-1	1.009136E+0	1.043192E+0	1.018639E+0	7.932325E-1	1.028443E+0	1.073393E+0	1.027438E+0	1.000155E+0	9.814372E-1	1.091211E+0	1.063906E+0	9.624359E-1	9.942258E-1	1.009885E+0	1.057380E+0	9.130265E-1	1.063847E+0	1.042566E+0	1.048690E+0	9.595798E-1	9.962734E-1	1.049169E+0	1.083518E+0	1.021060E+0	1.071779E+0	1.013656E+0	1.048931E+0	1.015770E+0	1.064651E+0	1.030818E+0	1.025708E+0	9.620651E-1	1.060892E+0	1.018368E+0	1.056844E+0	9.854481E-1	1.018575E+0	1.026651E+0	1.057869E+0	1.032569E+0	1.067832E+0	9.712948E-1	1.100780E+0
5.557600E+2	9.748347E-1	9.669979E-1	9.641522E-1	1.010386E+0	9.541900E-1	9.834824E-1	9.625193E-1	9.732446E-1	9.705600E-1	9.521350E-1	9.835593E-1	9.769154E-1	9.236859E-1	9.848427E-1	9.824319E-1	8.747393E-1	9.172727E-1	9.865852E-1	9.769832E-1	9.264962E-1	9.036863E-1	1.028100E+0	9.727687E-1	9.933590E-1	9.210529E-1	9.566505E-1	9.982049E-1	9.690491E-1	9.918493E-1	9.931387E-1	9.627830E-1	7.933661E-1	9.270911E-1	9.766482E-1	9.950509E-1	8.236650E-1	9.896543E-1	9.927373E-1	9.641749E-1	9.730785E-1	9.682085E-1	9.675449E-1	9.763473E-1	9.577402E-1	9.834068E-1	9.852759E-1	9.766231E-1	8.389992E-1	9.963193E-1	9.677202E-1	9.772458E-1	8.862056E-1	9.510097E-1	9.736570E-1	9.790724E-1	9.516384E-1	1.021759E+0	9.894760E-1	1.004773E+0	9.687942E-1	9.517471E-1	1.003906E+0	1.003280E+0	9.208996E-1	9.622022E-1	9.721588E-1	9.472462E-1	9.047723E-1	1.001642E+0	9.645982E-1	1.012416E+0	9.815152E-1	9.560193E-1	1.005986E+0	9.607651E-1	9.873690E-1	9.909778E-1	9.957282E-1	9.980686E-1	8.510710E-1	9.676408E-1	9.884246E-1	9.669810E-1	8.840359E-1	9.717804E-1	9.587262E-1	9.889101E-1	9.273395E-1	1.004214E+0	1.001804E+0	9.713658E-1	9.304461E-1	1.002213E+0	9.535872E-1	9.928517E-1	8.779415E-1	9.665659E-1	9.345915E-1	9.495767E-1	8.562691E-1	9.844707E-1	1.026829E+0	9.890946E-1	9.737851E-1	7.826305E-1	1.003786E+0	1.018375E+0	8.687231E-1	9.342391E-1	9.447478E-1	9.546563E-1	8.695438E-1	9.457674E-1	1.014125E+0	9.642691E-1	8.973567E-1	9.642599E-1	1.004235E+0	9.399016E-1	9.410474E-1	9.649571E-1	9.670403E-1	1.035486E+0	9.582086E-1	9.773900E-1	9.831332E-1	9.815114E-1	8.902017E-1	1.015268E+0	1.015289E+0	1.000601E+0	8.625702E-1	1.000208E+0	9.914257E-1	9.798139E-1	9.726896E-1	1.012473E+0	9.210062E-1	9.762564E-1	9.462298E-1	9.545865E-1	9.919120E-1	9.566942E-1	8.828268E-1	9.841726E-1	9.775107E-1	9.797634E-1	9.332709E-1	9.723183E-1	1.015910E+0	1.014467E+0	9.658675E-1	9.750915E-1	9.825324E-1	9.038389E-1	9.518694E-1	9.830792E-1	1.000863E+0	1.016652E+0	8.929608E-1	9.728255E-1	9.715226E-1	9.822364E-1	9.559911E-1	9.854650E-1	9.564908E-1	1.001240E+0	9.663271E-1	9.900215E-1	9.639660E-1	9.613078E-1
5.560190E+2	9.743343E-1	1.019235E+0	1.002233E+0	9.820601E-1	9.400858E-1	1.007655E+0	9.949381E-1	1.003891E+0	9.694548E-1	9.853751E-1	9.795352E-1	9.408627E-1	9.528900E-1	9.833989E-1	9.936151E-1	1.003473E+0	9.952830E-1	9.811225E-1	1.023578E+0	9.697643E-1	9.552203E-1	9.868866E-1	1.005543E+0	9.889609E-1	9.544270E-1	9.760783E-1	9.796900E-1	9.770812E-1	1.010735E+0	9.802725E-1	9.817713E-1	9.107711E-1	9.626712E-1	9.949396E-1	9.416238E-1	8.938131E-1	9.665409E-1	1.000383E+0	1.002132E+0	9.533910E-1	9.876149E-1	1.004683E+0	9.822166E-1	8.907769E-1	9.992352E-1	1.001874E+0	9.780692E-1	8.184330E-1	9.238740E-1	1.018689E+0	1.007663E+0	8.494976E-1	9.663031E-1	9.884622E-1	9.954063E-1	9.998103E-1	1.005549E+0	1.014204E+0	1.004191E+0	9.934143E-1	9.844351E-1	9.910452E-1	9.738651E-1	9.490629E-1	9.744542E-1	1.002646E+0	1.017547E+0	9.644009E-1	9.921061E-1	9.702754E-1	9.951148E-1	9.573422E-1	9.933725E-1	1.013614E+0	9.670841E-1	9.186253E-1	1.015724E+0	9.622325E-1	1.052750E+0	8.676080E-1	9.609799E-1	9.671848E-1	9.999457E-1	9.288391E-1	1.012638E+0	1.022388E+0	1.030496E+0	9.411063E-1	9.815724E-1	1.005517E+0	9.725041E-1	1.007457E+0	9.810445E-1	1.018236E+0	1.027360E+0	8.449024E-1	1.013990E+0	1.006198E+0	1.053587E+0	8.534373E-1	9.577528E-1	9.931629E-1	9.678298E-1	9.818352E-1	8.333925E-1	9.416206E-1	9.617937E-1	9.012763E-1	9.657030E-1	9.968003E-1	9.729941E-1	8.933869E-1	9.579182E-1	9.692849E-1	9.907367E-1	9.134788E-1	9.416874E-1	9.634554E-1	1.014507E+0	1.000206E+0	9.917174E-1	9.861385E-1	1.006009E+0	8.809081E-1	1.042425E+0	1.046069E+0	9.977547E-1	8.766819E-1	9.735735E-1	9.728514E-1	9.685339E-1	9.042813E-1	9.437411E-1	9.871119E-1	9.911791E-1	9.856455E-1	9.808513E-1	9.548092E-1	9.690609E-1	9.514393E-1	1.015757E+0	1.001399E+0	9.594010E-1	8.786452E-1	9.674841E-1	1.017890E+0	1.006231E+0	9.422400E-1	9.606066E-1	9.876386E-1	9.952872E-1	9.532802E-1	9.930206E-1	9.660170E-1	9.675825E-1	9.524557E-1	1.016149E+0	1.013048E+0	9.703683E-1	9.707634E-1	1.009310E+0	1.004808E+0	1.014803E+0	9.283006E-1	9.905156E-1	9.887947E-1	9.651060E-1	9.657139E-1	9.561509E-1	9.981671E-1	9.568072E-1
5.565200E+2	9.948469E-1	1.001413E+0	1.027181E+0	1.001573E+0	9.654729E-1	1.005928E+0	9.858385E-1	1.003892E+0	9.534372E-1	9.637686E-1	1.009427E+0	1.029111E+0	1.031406E+0	9.954291E-1	1.012722E+0	1.013635E+0	9.819789E-1	9.962971E-1	9.371261E-1	1.026753E+0	9.852403E-1	1.046298E+0	1.058559E+0	1.013590E+0	9.492483E-1	1.004007E+0	1.032990E+0	1.014030E+0	1.022663E+0	1.023158E+0	1.027344E+0	1.001052E+0	9.687016E-1	9.985979E-1	1.011360E+0	9.902009E-1	1.025975E+0	1.016218E+0	9.865333E-1	9.973448E-1	9.607885E-1	1.030517E+0	1.003346E+0	1.005571E+0	9.823154E-1	1.008299E+0	1.006990E+0	9.938707E-1	1.035463E+0	1.027476E+0	1.032816E+0	9.984886E-1	9.586562E-1	1.000204E+0	1.016333E+0	9.946161E-1	1.009913E+0	9.756753E-1	1.009430E+0	1.042039E+0	1.027499E+0	1.017721E+0	1.003279E+0	9.786836E-1	9.860943E-1	9.715829E-1	1.036407E+0	9.649975E-1	1.002702E+0	1.056457E+0	1.030737E+0	9.995255E-1	9.927698E-1	1.074055E+0	1.014764E+0	9.476883E-1	1.027582E+0	1.068545E+0	1.035308E+0	8.970082E-1	1.015375E+0	1.003292E+0	1.029669E+0	9.852791E-1	1.021900E+0	9.841906E-1	1.005339E+0	1.039516E+0	1.014277E+0	9.986209E-1	1.048217E+0	9.695623E-1	9.978832E-1	9.820524E-1	1.035248E+0	8.514166E-1	1.001541E+0	1.039895E+0	1.049937E+0	9.145994E-1	1.039576E+0	1.012327E+0	1.035441E+0	9.959244E-1	8.499570E-1	1.007742E+0	1.033501E+0	9.153070E-1	9.809110E-1	1.003964E+0	1.023005E+0	8.578654E-1	1.035942E+0	1.015806E+0	9.856949E-1	9.092994E-1	1.011555E+0	1.019396E+0	9.958553E-1	1.002778E+0	9.796118E-1	1.042818E+0	9.844678E-1	9.376765E-1	1.020071E+0	9.906858E-1	9.925001E-1	9.128950E-1	1.031822E+0	9.780835E-1	1.001603E+0	9.254073E-1	9.840010E-1	1.004907E+0	1.057204E+0	1.035394E+0	1.065176E+0	1.030127E+0	9.971871E-1	9.664876E-1	9.844380E-1	1.027859E+0	9.761820E-1	8.763225E-1	1.043929E+0	1.014525E+0	9.819690E-1	9.936623E-1	1.019697E+0	1.018681E+0	1.017756E+0	9.949180E-1	1.017993E+0	1.020008E+0	1.057430E+0	9.571459E-1	1.034888E+0	1.037418E+0	1.041806E+0	9.403186E-1	1.004907E+0	1.042407E+0	1.017172E+0	9.813241E-1	1.005107E+0	1.009489E+0	9.877573E-1	1.030116E+0	9.826985E-1	1.056800E+0	1.091782E+0
5.570500E+2	1.017860E+0	9.835919E-1	1.006171E+0	1.050042E+0	9.699864E-1	9.846335E-1	9.869754E-1	1.028215E+0	9.595130E-1	1.036342E+0	1.057140E+0	9.774540E-1	9.892760E-1	1.020451E+0	9.777727E-1	9.966985E-1	1.020077E+0	1.002974E+0	9.831585E-1	1.045748E+0	9.201970E-1	9.890272E-1	1.008916E+0	1.040854E+0	9.751420E-1	1.000971E+0	9.808118E-1	1.025274E+0	9.729630E-1	1.003323E+0	9.993350E-1	1.032226E+0	9.988544E-1	1.026644E+0	9.354378E-1	1.042143E+0	9.687423E-1	1.021678E+0	1.009931E+0	1.038550E+0	1.008162E+0	1.006297E+0	9.751727E-1	9.723708E-1	1.030348E+0	9.949134E-1	1.007952E+0	1.034166E+0	1.011510E+0	1.029234E+0	1.000059E+0	9.963290E-1	9.729303E-1	9.899936E-1	1.003063E+0	9.946172E-1	9.799862E-1	1.006153E+0	1.041444E+0	1.040808E+0	9.828780E-1	1.002952E+0	1.028835E+0	1.027727E+0	1.000184E+0	9.485736E-1	9.832535E-1	9.667867E-1	9.550212E-1	9.764678E-1	1.013943E+0	1.027016E+0	1.010242E+0	9.813398E-1	1.006146E+0	1.004136E+0	1.006960E+0	9.942725E-1	1.005140E+0	9.980697E-1	1.043682E+0	9.682471E-1	9.496873E-1	1.027755E+0	9.854000E-1	9.863130E-1	1.026902E+0	1.002804E+0	1.004843E+0	9.869501E-1	1.014061E+0	9.823979E-1	1.069566E+0	1.015824E+0	9.652451E-1	1.004515E+0	9.529312E-1	9.761112E-1	1.035948E+0	9.785930E-1	9.950460E-1	1.001450E+0	9.978188E-1	9.466147E-1	9.493447E-1	1.011698E+0	1.018375E+0	9.237257E-1	9.819602E-1	9.996656E-1	1.006891E+0	8.953332E-1	1.040419E+0	9.905840E-1	1.025396E+0	9.182559E-1	1.001881E+0	1.049720E+0	1.004144E+0	9.930040E-1	9.980885E-1	9.824419E-1	1.002041E+0	9.908204E-1	9.870438E-1	1.032475E+0	1.047917E+0	9.003413E-1	1.003617E+0	9.949429E-1	9.785549E-1	9.259494E-1	1.049879E+0	1.000054E+0	9.684489E-1	9.866819E-1	9.398611E-1	9.779386E-1	9.939164E-1	9.387055E-1	1.007438E+0	1.017373E+0	1.028690E+0	9.023401E-1	1.000861E+0	1.036958E+0	1.015054E+0	9.207144E-1	1.040990E+0	1.007595E+0	9.662424E-1	9.803927E-1	9.795738E-1	9.774510E-1	1.019183E+0	9.430754E-1	1.002370E+0	1.015079E+0	9.920010E-1	9.437020E-1	1.010568E+0	1.065214E+0	9.934864E-1	1.004301E+0	9.950052E-1	1.045831E+0	1.027667E+0	1.001288E+0	1.020231E+0	9.615226E-1	9.590567E-1
5.575420E+2	9.953472E-1	9.669988E-1	9.792532E-1	9.820606E-1	9.790132E-1	9.823317E-1	1.042713E+0	9.941627E-1	1.004805E+0	1.010858E+0	9.910327E-1	1.007587E+0	1.017044E+0	1.028148E+0	1.021111E+0	1.008129E+0	9.765366E-1	9.841569E-1	9.994389E-1	1.015144E+0	9.927453E-1	9.852811E-1	1.031568E+0	9.823654E-1	9.630583E-1	1.033150E+0	9.920333E-1	9.840426E-1	1.004771E+0	9.877779E-1	9.950632E-1	9.897164E-1	9.837784E-1	1.013840E+0	9.714309E-1	1.010014E+0	9.665409E-1	1.005296E+0	1.021890E+0	9.909342E-1	1.017294E+0	9.745419E-1	1.010975E+0	1.001632E+0	1.016703E+0	9.740319E-1	1.021930E+0	1.024510E+0	9.530860E-1	1.014587E+0	9.848501E-1	9.860728E-1	9.535586E-1	9.767198E-1	1.002552E+0	1.037593E+0	1.000561E+0	1.043532E+0	9.890566E-1	1.014341E+0	9.932556E-1	1.015814E+0	1.009547E+0	1.020928E+0	1.022237E+0	1.018178E+0	1.026692E+0	1.032378E+0	9.942253E-1	1.004335E+0	1.016488E+0	1.024172E+0	9.897584E-1	9.825131E-1	9.814453E-1	1.020902E+0	9.765422E-1	1.001067E+0	1.012209E+0	1.045846E+0	1.012600E+0	1.025593E+0	9.929207E-1	1.012044E+0	9.587065E-1	1.014430E+0	1.002773E+0	1.022181E+0	9.689929E-1	1.024083E+0	9.958443E-1	1.001345E+0	9.853740E-1	1.028369E+0	9.869361E-1	1.034294E+0	1.022882E+0	1.048319E+0	9.891122E-1	9.893530E-1	9.816872E-1	1.026830E+0	1.027808E+0	1.063851E+0	1.014000E+0	1.032609E+0	9.606726E-1	1.008475E+0	9.767159E-1	1.031184E+0	1.031340E+0	1.013089E+0	1.002686E+0	1.011322E+0	1.018464E+0	1.016182E+0	9.739339E-1	1.013645E+0	1.011398E+0	1.018725E+0	9.968143E-1	1.020022E+0	1.045123E+0	1.002899E+0	9.956808E-1	1.010825E+0	9.824676E-1	9.341400E-1	9.889017E-1	9.949419E-1	1.030164E+0	9.454507E-1	9.714524E-1	9.838761E-1	1.042591E+0	9.980830E-1	1.010716E+0	1.009370E+0	9.998035E-1	9.531758E-1	9.917787E-1	1.001397E+0	9.810537E-1	8.763223E-1	1.002476E+0	9.982611E-1	9.896885E-1	9.338687E-1	1.025020E+0	9.953993E-1	1.073653E+0	9.803919E-1	1.049368E+0	1.006669E+0	1.000972E+0	9.999412E-1	1.021660E+0	9.993399E-1	1.007093E+0	9.296876E-1	9.828898E-1	9.906313E-1	9.774994E-1	9.430297E-1	9.910767E-1	1.041793E+0	1.011487E+0	9.994480E-1	1.073325E+0	1.067793E+0	1.080535E+0
5.580060E+2	9.893436E-1	1.018007E+0	9.851622E-1	1.014163E+0	9.417782E-1	9.972947E-1	1.010863E+0	1.017026E+0	9.412860E-1	9.870366E-1	9.789606E-1	1.004897E+0	9.931059E-1	9.978346E-1	9.731115E-1	1.000508E+0	9.910496E-1	9.932620E-1	1.021894E+0	9.834841E-1	9.667283E-1	1.033988E+0	9.872278E-1	1.005234E+0	9.849241E-1	9.864005E-1	1.030746E+0	9.888625E-1	1.021172E+0	9.540063E-1	9.917406E-1	1.011579E+0	9.819687E-1	1.011401E+0	1.027107E+0	1.035717E+0	1.044686E+0	1.007481E+0	1.028130E+0	9.831512E-1	1.000742E+0	9.976857E-1	1.074951E+0	9.470481E-1	9.888653E-1	1.008834E+0	9.983125E-1	9.754055E-1	9.752864E-1	9.519022E-1	1.006493E+0	1.014143E+0	9.841458E-1	1.034409E+0	9.933649E-1	1.014924E+0	9.725057E-1	9.848761E-1	1.009430E+0	1.022342E+0	1.022311E+0	9.715141E-1	1.023531E+0	9.971356E-1	1.013048E+0	1.015302E+0	1.001543E+0	1.009720E+0	9.921062E-1	9.785322E-1	9.940970E-1	1.015167E+0	9.915656E-1	1.004225E+0	1.015338E+0	1.010842E+0	1.026551E+0	1.025341E+0	9.792096E-1	1.026553E+0	9.942827E-1	1.000637E+0	1.024805E+0	1.003317E+0	1.013183E+0	1.014960E+0	1.026903E+0	9.696611E-1	9.733955E-1	1.021431E+0	1.002676E+0	9.836201E-1	9.767144E-1	1.039465E+0	9.967954E-1	1.017077E+0	1.040073E+0	9.935614E-1	9.720817E-1	1.012572E+0	1.012858E+0	1.010773E+0	9.874587E-1	9.974341E-1	1.063159E+0	1.011133E+0	1.045826E+0	1.025874E+0	9.662280E-1	1.001098E+0	1.004668E+0	1.035472E+0	1.002047E+0	1.047194E+0	1.020354E+0	1.005434E+0	1.026066E+0	9.765257E-1	1.016061E+0	9.878594E-1	1.036954E+0	1.021871E+0	9.629265E-1	9.684755E-1	9.911080E-1	1.014853E+0	1.043141E+0	1.019602E+0	1.064320E+0	1.021102E+0	1.009620E+0	1.009372E+0	9.651782E-1	9.693162E-1	1.014449E+0	9.986010E-1	1.013644E+0	9.897991E-1	1.034471E+0	1.002952E+0	9.736721E-1	1.051821E+0	1.031938E+0	1.086788E+0	9.992463E-1	9.556394E-1	1.000165E+0	1.019373E+0	9.787062E-1	9.981705E-1	9.941910E-1	1.014766E+0	9.981432E-1	1.028901E+0	1.002792E+0	1.016942E+0	1.004024E+0	1.029802E+0	9.864670E-1	9.393524E-1	1.030069E+0	9.967947E-1	1.047370E+0	9.565799E-1	1.041585E+0	1.011508E+0	1.018498E+0	1.016622E+0	9.863609E-1	9.896173E-1	9.905522E-1
5.585160E+2	9.923450E-1	1.081305E+0	1.009454E+0	1.005980E+0	9.429065E-1	9.880864E-1	9.807193E-1	1.011188E+0	9.771886E-1	1.033572E+0	9.824095E-1	1.005435E+0	9.859246E-1	9.598208E-1	1.048604E+0	9.924635E-1	9.964928E-1	1.032718E+0	9.994389E-1	9.961482E-1	9.667279E-1	1.017395E+0	1.004097E+0	9.770885E-1	9.935553E-1	9.870075E-1	1.009987E+0	1.011352E+0	1.034591E+0	1.001179E+0	9.993359E-1	9.828342E-1	1.009709E+0	9.803066E-1	1.069849E+0	1.043214E+0	9.566351E-1	9.987441E-1	1.019290E+0	9.776570E-1	9.887555E-1	1.037515E+0	9.874987E-1	9.864389E-1	1.059823E+0	1.058629E+0	9.963850E-1	1.012339E+0	9.858031E-1	9.800223E-1	1.008833E+0	9.957896E-1	9.790480E-1	9.986726E-1	9.800934E-1	1.027202E+0	9.575423E-1	1.019379E+0	1.018743E+0	9.534067E-1	1.015566E+0	9.896158E-1	1.009546E+0	1.036952E+0	1.007535E+0	1.042913E+0	1.042123E+0	9.882533E-1	1.009589E+0	1.012076E+0	1.026665E+0	9.962097E-1	1.001808E+0	9.836872E-1	1.052103E+0	1.043817E+0	9.811824E-1	9.675719E-1	1.023053E+0	1.005421E+0	1.005939E+0	1.025593E+0	1.020481E+0	9.980801E-1	9.973850E-1	1.038303E+0	9.771019E-1	9.767995E-1	1.005472E+0	9.869501E-1	1.018615E+0	1.031293E+0	1.004137E+0	9.883245E-1	9.967961E-1	1.080365E+0	9.392972E-1	9.652800E-1	1.046288E+0	1.043720E+0	1.005622E+0	1.000932E+0	1.026172E+0	1.016554E+0	1.046595E+0	9.913537E-1	9.808408E-1	1.055620E+0	1.045414E+0	9.791308E-1	1.014114E+0	1.047151E+0	9.911741E-1	9.771313E-1	1.005231E+0	1.003642E+0	1.024991E+0	9.608417E-1	9.854933E-1	1.045474E+0	1.019752E+0	1.017558E+0	1.039454E+0	1.013165E+0	1.026674E+0	1.034489E+0	9.915441E-1	1.083822E+0	9.821575E-1	9.786652E-1	9.960918E-1	1.027248E+0	9.761583E-1	1.027556E+0	9.597900E-1	9.934184E-1	1.045851E+0	1.014708E+0	9.533620E-1	1.017422E+0	1.044630E+0	1.013380E+0	1.055756E+0	1.048690E+0	1.030470E+0	1.033593E+0	1.034353E+0	1.030734E+0	1.029279E+0	9.942903E-1	1.003507E+0	9.963687E-1	1.023116E+0	1.008575E+0	1.022826E+0	1.026909E+0	9.797728E-1	9.861393E-1	1.008100E+0	1.044217E+0	1.003020E+0	1.000493E+0	9.857894E-1	1.049665E+0	1.007913E+0	9.711286E-1	1.010409E+0	9.804340E-1	9.881909E-1	1.015269E+0	9.523097E-1
5.590160E+2	9.818394E-1	9.829770E-1	1.046221E+0	1.000315E+0	9.344439E-1	1.049668E+0	1.026219E+0	1.050592E+0	1.021375E+0	1.013628E+0	1.018050E+0	1.002744E+0	9.998085E-1	1.023819E+0	1.036023E+0	1.029303E+0	1.049709E+0	9.726243E-1	1.029192E+0	1.024642E+0	9.932455E-1	9.965215E-1	1.040727E+0	1.008312E+0	1.006790E+0	1.013114E+0	1.010548E+0	1.013494E+0	1.027633E+0	9.888498E-1	1.034462E+0	1.033440E+0	1.015739E+0	1.028474E+0	1.018671E+0	9.778842E-1	9.907548E-1	1.050074E+0	9.969326E-1	9.872722E-1	9.761993E-1	1.017600E+0	1.019779E+0	1.002194E+0	1.010698E+0	1.058630E+0	9.954213E-1	1.036264E+0	1.029620E+0	1.040951E+0	9.819248E-1	1.051931E+0	1.004027E+0	1.009394E+0	1.038792E+0	9.738370E-1	1.014901E+0	1.069409E+0	1.038534E+0	1.006956E+0	9.891041E-1	1.014862E+0	1.046677E+0	1.015587E+0	9.989584E-1	1.049816E+0	9.832534E-1	1.016279E+0	1.020184E+0	9.867889E-1	9.757776E-1	1.023698E+0	1.051813E+0	1.022416E+0	1.033720E+0	1.024815E+0	1.058000E+0	9.908748E-1	1.015509E+0	1.082136E+0	1.028141E+0	1.034089E+0	1.030750E+0	1.000989E+0	1.011549E+0	1.031406E+0	1.047439E+0	1.048186E+0	1.017422E+0	1.019309E+0	1.019184E+0	1.069188E+0	9.699804E-1	1.012930E+0	1.004190E+0	1.042673E+0	1.011619E+0	1.012215E+0	9.684320E-1	1.067505E+0	9.911498E-1	9.936809E-1	1.010905E+0	1.014038E+0	1.056746E+0	9.936138E-1	9.388247E-1	1.010720E+0	1.010803E+0	9.843840E-1	1.013558E+0	1.052018E+0	9.655928E-1	1.041028E+0	1.014683E+0	1.032901E+0	1.019079E+0	1.011032E+0	1.031603E+0	9.950619E-1	1.007645E+0	1.000308E+0	1.046823E+0	1.057251E+0	1.053603E+0	1.015356E+0	1.022595E+0	1.084787E+0	9.533397E-1	1.039705E+0	9.975952E-1	1.071125E+0	1.068180E+0	1.018928E+0	1.022026E+0	1.015184E+0	9.802657E-1	1.002846E+0	1.021390E+0	1.114659E+0	9.961830E-1	1.024363E+0	1.008661E+0	1.049620E+0	1.000323E+0	1.007235E+0	1.018362E+0	9.912700E-1	9.994676E-1	1.046952E+0	9.777506E-1	1.035101E+0	1.000704E+0	1.014291E+0	1.026469E+0	1.025150E+0	1.013944E+0	9.668469E-1	1.024702E+0	1.054848E+0	1.047682E+0	9.955621E-1	1.071054E+0	1.042007E+0	9.978110E-1	9.958609E-1	1.017420E+0	1.008035E+0	1.005584E+0	1.015268E+0	9.995491E-1
5.595110E+2	1.001351E+0	1.022308E+0	1.069858E+0	1.028011E+0	9.626525E-1	1.016863E+0	9.756009E-1	9.902711E-1	1.000939E+0	1.019722E+0	1.003104E+0	1.052249E+0	1.015129E+0	1.019007E+0	9.745092E-1	9.878047E-1	9.995162E-1	1.039395E+0	1.056699E+0	9.819009E-1	9.877417E-1	1.001873E+0	1.007952E+0	1.004792E+0	9.964321E-1	1.027078E+0	9.746404E-1	9.952878E-1	1.015705E+0	1.062290E+0	9.779737E-1	9.965990E-1	1.041068E+0	1.008353E+0	9.995500E-1	1.001446E+0	9.797481E-1	1.028231E+0	1.017210E+0	1.069685E+0	9.722037E-1	1.024058E+0	1.001585E+0	1.071971E+0	9.812238E-1	9.911656E-1	1.045068E+0	1.016117E+0	1.007420E+0	9.929117E-1	9.825106E-1	1.004427E+0	1.012184E+0	1.011436E+0	1.014802E+0	1.005950E+0	9.993141E-1	9.923517E-1	9.686842E-1	9.940291E-1	1.017641E+0	1.012481E+0	9.912238E-1	1.001504E+0	9.977335E-1	1.000345E+0	9.769665E-1	1.098567E+0	9.725043E-1	1.025494E+0	9.905350E-1	1.027490E+0	9.789131E-1	1.025937E+0	1.003849E+0	1.027050E+0	1.025004E+0	1.019999E+0	1.004667E+0	9.870457E-1	9.976134E-1	9.884246E-1	1.019401E+0	1.009717E+0	1.004467E+0	9.841911E-1	9.842898E-1	1.007394E+0	1.015535E+0	1.029919E+0	9.929984E-1	9.836201E-1	1.043107E+0	9.892892E-1	1.061375E+0	1.031969E+0	1.026439E+0	1.022444E+0	1.021958E+0	1.063541E+0	1.049038E+0	1.013881E+0	1.009815E+0	1.030642E+0	1.012931E+0	9.930489E-1	1.027899E+0	1.025874E+0	1.020767E+0	1.032618E+0	9.491000E-1	1.030120E+0	1.042337E+0	9.973099E-1	9.894764E-1	1.047829E+0	1.012630E+0	1.067494E+0	9.958554E-1	1.017696E+0	1.040140E+0	1.016942E+0	9.884358E-1	1.083219E+0	9.875518E-1	9.957203E-1	1.017343E+0	1.038434E+0	1.042246E+0	1.043193E+0	1.037679E+0	1.025081E+0	1.020600E+0	1.030792E+0	9.987551E-1	1.026584E+0	1.044094E+0	9.856482E-1	1.017465E+0	1.019737E+0	1.036311E+0	9.574643E-1	9.788888E-1	1.041722E+0	1.007321E+0	9.932139E-1	9.952027E-1	1.060032E+0	9.962744E-1	9.843121E-1	1.026524E+0	1.020091E+0	9.802146E-1	9.844378E-1	9.809376E-1	1.031013E+0	1.022763E+0	1.016602E+0	1.014640E+0	1.052433E+0	9.791153E-1	1.009739E+0	1.004144E+0	9.984090E-1	1.025871E+0	9.882900E-1	1.027128E+0	1.009875E+0	1.003753E+0	1.005497E+0	1.015297E+0
5.600520E+2	1.018361E+0	9.928093E-1	9.877880E-1	8.989720E-1	1.094103E+0	1.011108E+0	9.630879E-1	9.318951E-1	1.024137E+0	9.737410E-1	9.921823E-1	9.952107E-1	1.006511E+0	9.944664E-1	1.015052E+0	9.848400E-1	9.801651E-1	1.024220E+0	9.668783E-1	9.924543E-1	9.787358E-1	1.020071E+0	9.462606E-1	1.020186E+0	1.009092E+0	9.657574E-1	1.003254E+0	1.013494E+0	9.510952E-1	1.000644E+0	9.727521E-1	9.986229E-1	9.789534E-1	9.742093E-1	1.010235E+0	9.623553E-1	9.703930E-1	9.572434E-1	9.813339E-1	9.987181E-1	1.006450E+0	9.686216E-1	9.992371E-1	1.021327E+0	9.872277E-1	9.654648E-1	9.987950E-1	9.787634E-1	9.647706E-1	9.823659E-1	9.819249E-1	1.026019E+0	9.754794E-1	1.016542E+0	9.770312E-1	9.828091E-1	1.028617E+0	9.860260E-1	9.692659E-1	9.884901E-1	9.678314E-1	9.724670E-1	9.849556E-1	9.806256E-1	9.995710E-1	9.629543E-1	9.986855E-1	1.027013E+0	9.672068E-1	1.013108E+0	9.864637E-1	1.000001E+0	1.021689E+0	9.332211E-1	9.659351E-1	9.951936E-1	9.409694E-1	9.675719E-1	9.848679E-1	1.001286E+0	9.698611E-1	9.693094E-1	9.831931E-1	1.029500E+0	1.037155E+0	9.852517E-1	9.452705E-1	9.818987E-1	1.058303E+0	9.906634E-1	9.935670E-1	9.854531E-1	9.194638E-1	9.757804E-1	9.928517E-1	9.779884E-1	9.914636E-1	9.664832E-1	9.586999E-1	1.003511E+0	9.627625E-1	9.693375E-1	9.661940E-1	1.018567E+0	1.001176E+0	1.000961E+0	9.965266E-1	1.005108E+0	1.019194E+0	1.003009E+0	1.025227E+0	1.012117E+0	1.014198E+0	1.023093E+0	1.007751E+0	1.032304E+0	9.637231E-1	9.462026E-1	1.015543E+0	9.832298E-1	9.636827E-1	9.670398E-1	1.016213E+0	1.001691E+0	9.580827E-1	9.836370E-1	9.891541E-1	1.038918E+0	9.772527E-1	9.612252E-1	9.665298E-1	1.002329E+0	9.594269E-1	1.020546E+0	9.814371E-1	9.991190E-1	9.761666E-1	9.844620E-1	1.008307E+0	1.010476E+0	1.013800E+0	9.704446E-1	9.956695E-1	1.030107E+0	9.760978E-1	9.898495E-1	1.012297E+0	1.026548E+0	9.744475E-1	9.893012E-1	9.909031E-1	1.001209E+0	9.846958E-1	9.863435E-1	1.004007E+0	9.923198E-1	9.781189E-1	9.922320E-1	9.889824E-1	1.041801E+0	1.006793E+0	9.783029E-1	9.721704E-1	1.026099E+0	9.820979E-1	9.615385E-1	9.521630E-1	9.896350E-1	1.005584E+0	9.322074E-1	9.635577E-1
5.605090E+2	1.017861E+0	9.792894E-1	9.516776E-1	1.039341E+0	1.089025E+0	9.938415E-1	1.017119E+0	9.839469E-1	1.055069E+0	1.005872E+0	9.824099E-1	9.688441E-1	9.935847E-1	9.886924E-1	9.777703E-1	1.008978E+0	1.017053E+0	9.877993E-1	1.028630E+0	9.755690E-1	1.089310E+0	9.660125E-1	9.366213E-1	9.916008E-1	1.043617E+0	1.021614E+0	9.982046E-1	9.952877E-1	9.873759E-1	9.754483E-1	9.993353E-1	9.553058E-1	1.047701E+0	9.864041E-1	9.883022E-1	9.982327E-1	1.029277E+0	9.703488E-1	9.537759E-1	1.026647E+0	1.008733E+0	9.923032E-1	9.728257E-1	9.656179E-1	9.632106E-1	9.879528E-1	9.959034E-1	9.699486E-1	1.011509E+0	9.987696E-1	1.018191E+0	9.736568E-1	1.049398E+0	9.680411E-1	1.011739E+0	1.009256E+0	1.014901E+0	9.693499E-1	9.791611E-1	9.804887E-1	9.844343E-1	1.026772E+0	9.299858E-1	9.607167E-1	1.002022E+0	9.888398E-1	9.792531E-1	9.638045E-1	1.005880E+0	9.558256E-1	9.671262E-1	9.568684E-1	9.512000E-1	9.942492E-1	9.912109E-1	9.661311E-1	9.801512E-1	1.008350E+0	9.961826E-1	9.420268E-1	9.759661E-1	1.000106E+0	1.003729E+0	9.620046E-1	9.957509E-1	1.006472E+0	9.801825E-1	9.869977E-1	9.721375E-1	9.842982E-1	9.810431E-1	9.958437E-1	1.032522E+0	1.004729E+0	1.002712E+0	9.663560E-1	1.048965E+0	9.947652E-1	9.617409E-1	9.587726E-1	9.889235E-1	9.802144E-1	9.803706E-1	9.888800E-1	1.003313E+0	9.896578E-1	1.002689E+0	9.961274E-1	1.002937E+0	9.891592E-1	9.496554E-1	1.035959E+0	9.291391E-1	9.580749E-1	9.585977E-1	1.049619E+0	9.776962E-1	9.456800E-1	1.005699E+0	9.780854E-1	9.165339E-1	9.454768E-1	9.442202E-1	9.708913E-1	1.011432E+0	9.388266E-1	9.308712E-1	9.915983E-1	9.723470E-1	9.949424E-1	9.895783E-1	1.013163E+0	9.840011E-1	9.714733E-1	9.906376E-1	9.939366E-1	9.574279E-1	1.000475E+0	9.906465E-1	9.769065E-1	9.638850E-1	9.999006E-1	9.989174E-1	1.046831E+0	9.847110E-1	9.859233E-1	9.725946E-1	1.031332E+0	9.696567E-1	1.016463E+0	1.001315E+0	1.005083E+0	9.738110E-1	9.799912E-1	9.354070E-1	1.006390E+0	9.775681E-1	9.734471E-1	9.764051E-1	1.022954E+0	9.508082E-1	9.628937E-1	9.745383E-1	1.011370E+0	9.647008E-1	1.002423E+0	9.704995E-1	9.828876E-1	9.753753E-1	9.749591E-1	9.140686E-1
5.610010E+2	9.908445E-1	9.713005E-1	9.372335E-1	9.795427E-1	1.120619E+0	9.702456E-1	1.010863E+0	9.888116E-1	1.062249E+0	9.554584E-1	9.852840E-1	9.564682E-1	9.682102E-1	9.723315E-1	9.633252E-1	9.776402E-1	9.874216E-1	9.665536E-1	9.775448E-1	9.581561E-1	1.119328E+0	9.435323E-1	9.780705E-1	9.559781E-1	1.078142E+0	9.609003E-1	9.667856E-1	9.588747E-1	9.620296E-1	1.003323E+0	1.002658E+0	9.986244E-1	9.735262E-1	9.717705E-1	9.680566E-1	9.387940E-1	1.067249E+0	9.446846E-1	9.849731E-1	9.300406E-1	1.060672E+0	9.508604E-1	9.546305E-1	1.025829E+0	9.795854E-1	9.520794E-1	9.332427E-1	9.586158E-1	1.025531E+0	9.817800E-1	1.002398E+0	9.531436E-1	1.110572E+0	9.945886E-1	9.622286E-1	9.591950E-1	1.021759E+0	9.532480E-1	9.762513E-1	9.571000E-1	9.994800E-1	9.758013E-1	9.724190E-1	9.801400E-1	9.726166E-1	1.001496E+0	9.718227E-1	9.322018E-1	1.080580E+0	9.909169E-1	9.981681E-1	9.298521E-1	1.010242E+0	9.983565E-1	9.354897E-1	9.594250E-1	9.770579E-1	9.564063E-1	9.438541E-1	1.014609E+0	9.565395E-1	9.847079E-1	9.453644E-1	9.713142E-1	9.745041E-1	9.544818E-1	1.003799E+0	9.645617E-1	9.696219E-1	9.577741E-1	9.337940E-1	9.976773E-1	1.001251E+0	9.632362E-1	9.578506E-1	9.933455E-1	9.647878E-1	9.809252E-1	9.958033E-1	9.678333E-1	9.733377E-1	9.905735E-1	9.580156E-1	9.274946E-1	1.002779E+0	9.681822E-1	9.948460E-1	1.033170E+0	9.950705E-1	9.757880E-1	9.824406E-1	1.020875E+0	9.764652E-1	9.384574E-1	9.743519E-1	9.845345E-1	9.884450E-1	1.009463E+0	9.383474E-1	9.780857E-1	1.040777E+0	9.855223E-1	9.702961E-1	9.739110E-1	9.687527E-1	9.831336E-1	9.824670E-1	9.954619E-1	9.839969E-1	9.931986E-1	9.925840E-1	1.054875E+0	1.021123E+0	9.725518E-1	9.646607E-1	9.529979E-1	9.667976E-1	1.004626E+0	9.834511E-1	9.994791E-1	9.878635E-1	9.359969E-1	9.442440E-1	1.041256E+0	9.545645E-1	9.848015E-1	9.803150E-1	9.924661E-1	9.664623E-1	9.488352E-1	9.481580E-1	9.716774E-1	9.923805E-1	9.933310E-1	9.499768E-1	1.001114E+0	9.648915E-1	9.830930E-1	9.598039E-1	1.030686E+0	9.841476E-1	9.579629E-1	9.567750E-1	9.872155E-1	9.888321E-1	9.721382E-1	9.769713E-1	9.816607E-1	9.588977E-1	9.810666E-1	1.033292E+0
