Photon Energy (eV)	#1	#2	#3	#4	#5	#6	#7	#8	#9	#10	#11	#12	#13	#14	#15	#16	#17	#18	#19	#20	#21	#22	#23	#24	#25	#26	#27	#28	#29	#30	#31	#32	#33	#34	#35	#36	#37	#38	#39	#40	#41	#42	#43	#44	#45	#46	#47	#48	#49	#50	#51	#52	#53	#54	#55	#56	#57	#58	#59	#60	#61	#62	#63	#64	#65	#66	#67	#68	#69	#70	#71	#72	#73	#74	#75	#76	#77	#78	#79	#80	#81	#82	#83	#84	#85	#86	#87	#88	#89	#90	#91	#92	#93	#94	#95	#96	#97	#98	#99	#100	#101	#102	#103	#104	#105	#106	#107	#108	#109	#110	#111	#112	#113	#114	#115	#116	#117	#118	#119	#120	#121	#122	#123	#124	#125	#126	#127	#128	#129	#130	#131	#132	#133	#134	#135	#136	#137	#138	#139	#140	#141	#142	#143	#144	#145	#146	#147	#148	#149	#150	#151	#152	#153	#154	#155	#156	#157	#158	#159	#160	#161	#162	#163	#164	#165	#166	#167	#168	#169	#170	
5.300160E+2	-1.436266E-2	-7.543243E-4	-6.826185E-3	-1.830259E-3	-2.953483E-3	-1.413322E-2	-4.139003E-3	-6.021190E-3	-2.036761E-3	-5.397396E-3	-2.075873E-3	-1.112166E-2	-8.239415E-3	-1.047430E-2	-1.176301E-2	-1.116561E-2	-2.565516E-3	-4.448177E-3	-3.932673E-3	-7.416809E-3	-9.597121E-3	-8.695751E-3	-3.177743E-3	2.988744E-3	-6.746410E-3	-9.897303E-3	-5.840430E-3	-4.343546E-4	-3.874731E-3	-9.383795E-3	-1.613207E-3	-5.855222E-3	-5.381827E-3	-3.261649E-3	-6.005269E-3	-1.160158E-2	-9.167128E-3	-5.921746E-3	-5.581270E-4	-1.454209E-2	-8.523437E-3	-6.263787E-3	-1.008983E-2	-5.774479E-3	-1.227321E-2	-1.250500E-2	-5.147336E-3	-6.917714E-3	2.591998E-4	-6.357994E-3	-7.115188E-3	-2.574972E-3	-1.094334E-2	-1.040019E-2	-1.191092E-2	4.556146E-4	-3.194952E-3	-6.282213E-3	-3.962111E-3	-2.724220E-3	4.709336E-3	2.618814E-4	-9.169144E-3	-1.566507E-2	-3.516270E-3	-3.965633E-3	-9.602232E-4	-8.702330E-3	-8.981411E-3	-1.162837E-3	-4.276908E-4	-6.359354E-3	-3.123626E-3	-1.621116E-3	-6.463518E-3	-2.073683E-3	-1.204373E-2	-7.606693E-3	1.612312E-3	-1.189518E-2	-5.912078E-3	-1.082751E-2	1.226485E-3	-1.011556E-2	-1.437125E-3	-8.948331E-3	-5.042648E-3	-6.792860E-3	-6.381993E-3	-7.810879E-3	2.550154E-3	-2.832978E-3	-5.159652E-3	-7.791581E-3	-8.188739E-3	-4.622819E-3	-5.868996E-3	7.978970E-4	-9.891097E-3	-1.007044E-2	-5.587102E-3	6.093472E-4	-1.517452E-2	-3.866138E-3	-5.765625E-3	-5.739122E-3	1.037814E-4	-1.019477E-2	-6.727678E-3	-1.171949E-3	-9.318561E-3	-2.065444E-2	-4.037435E-3	-1.443554E-2	-2.285551E-3	-6.887307E-3	-8.624310E-3	-1.074349E-3	-1.395482E-2	-8.270711E-3	-8.391067E-3	-7.617474E-3	-9.081821E-3	-1.916167E-3	-1.830505E-3	-1.553119E-3	-9.530445E-4	-4.940555E-3	-6.738510E-3	-1.034681E-2	-1.227669E-2	3.102329E-3	-2.052895E-3	-4.892279E-3	-4.805598E-3	1.085602E-4	-8.130839E-3	-4.943478E-3	-5.495192E-3	-9.048863E-3	-5.044661E-3	-6.087605E-3	-1.467012E-3	-7.779564E-3	-3.419295E-3	-7.776189E-3	-2.281233E-4	-1.254474E-2	-8.604702E-3	-7.280343E-3	-6.225411E-3	4.186543E-4	-3.476959E-3	-3.564553E-3	-1.308479E-2	-8.268061E-3	2.857263E-3	-7.285286E-3	-1.099386E-2	-2.720164E-4	-5.168849E-3	-9.388849E-3	-1.737894E-3	-1.178059E-2	-1.221051E-2	-6.154331E-3	-3.310204E-3	-1.103239E-2	-1.412896E-2	-5.806960E-3
5.305130E+2	5.828446E-3	-2.016210E-3	-3.263063E-3	-7.418479E-3	8.632968E-4	8.942122E-3	-4.718404E-3	-5.098095E-3	-5.168086E-3	-1.452999E-3	-1.503838E-2	-5.985112E-3	-6.849237E-3	-1.114984E-2	1.682255E-3	1.493003E-3	-5.344407E-3	-1.065385E-2	5.920819E-3	-2.985127E-3	-1.122846E-3	-3.717125E-5	-1.531105E-2	-5.095570E-3	-1.401883E-2	-8.793385E-4	-5.980763E-3	-1.134693E-3	-9.941159E-3	6.684074E-3	-8.117318E-3	-6.336357E-3	-1.230061E-3	-3.944001E-3	1.834593E-3	-1.566903E-5	3.348385E-3	-3.085328E-3	-3.315610E-3	-4.261988E-3	-8.167052E-3	-8.205241E-4	-5.426110E-3	1.673379E-3	-5.327894E-3	-7.822058E-3	-6.663386E-3	-6.544212E-3	-7.392389E-3	-1.234396E-3	-8.388649E-3	-6.707597E-3	2.138581E-3	-7.368382E-3	-7.380326E-3	-6.796087E-3	-6.124750E-3	4.720868E-3	2.895365E-4	-3.458039E-3	-1.246288E-2	-7.049624E-3	-3.231254E-3	-4.576649E-3	2.408885E-3	1.406439E-3	-5.106019E-3	-6.691775E-3	-6.246217E-3	-5.925110E-3	-1.290300E-3	-4.926021E-3	-3.794488E-3	-3.288340E-3	-8.710436E-3	-5.004652E-3	-1.057199E-2	3.471948E-3	-1.064799E-2	7.599011E-4	-4.294489E-3	-4.540611E-3	-6.017780E-3	-8.618824E-3	-5.029808E-3	-7.544908E-3	-6.224786E-3	-6.297555E-3	-1.980472E-3	9.265163E-4	-9.834150E-3	-8.894541E-3	-1.049830E-2	-4.676721E-3	1.179624E-3	-8.331015E-3	-1.098173E-2	-4.992806E-3	-4.591940E-3	-1.020862E-2	-3.743666E-3	-3.924076E-3	-8.370441E-3	-5.895300E-3	-1.908074E-3	-4.734929E-3	-9.013632E-3	-5.320096E-3	-6.876063E-3	-6.250391E-3	-6.335354E-3	-3.794695E-3	-3.053985E-3	2.539988E-3	-3.334561E-3	-7.590704E-3	-4.959283E-3	-8.465051E-5	8.714689E-4	-4.413762E-4	2.430458E-3	-7.704530E-3	-5.208883E-3	-1.234469E-2	-3.045602E-3	-3.597506E-3	-1.238223E-2	-1.634271E-3	-6.927051E-3	6.510911E-4	4.444535E-3	-9.092656E-3	-2.163966E-4	-5.850063E-3	8.693373E-4	-6.248869E-3	-4.450268E-3	-6.064706E-3	-1.225055E-2	-3.399799E-3	-1.061218E-3	-4.674839E-3	-9.535250E-3	-2.366260E-3	7.321565E-4	-6.760971E-3	-4.037559E-3	9.178884E-4	-2.289932E-3	-1.183386E-3	-6.349555E-3	-5.614927E-3	-6.340718E-3	-7.602621E-3	-1.503554E-2	-5.541826E-3	-6.916912E-3	-7.872606E-3	-2.609444E-3	6.764528E-4	-7.340902E-3	5.721846E-4	-1.397959E-2	-1.434630E-3	6.041308E-3	-9.404478E-3	1.192875E-3	-1.293441E-2	-1.262528E-2	-1.276953E-2
5.310150E+2	4.071074E-4	-4.477389E-3	-1.821366E-3	3.407566E-3	-7.889959E-3	-1.540775E-3	4.277510E-3	-3.732537E-3	-1.021454E-2	9.702304E-4	2.025434E-3	-7.749358E-3	-4.970320E-3	-6.151640E-3	-5.488520E-3	-1.541535E-3	-4.451996E-3	-3.601635E-3	-1.098746E-2	-1.602456E-3	-3.870878E-3	-1.210531E-4	7.056603E-4	-6.657468E-3	6.636420E-4	5.153967E-3	-4.134327E-3	-6.449506E-3	-3.058234E-3	-6.722723E-3	-1.196836E-3	-3.314602E-3	-8.456942E-3	2.053402E-4	-3.062876E-3	1.434367E-3	-5.006907E-3	4.080230E-3	2.952095E-4	-2.896776E-3	9.725845E-4	-5.580073E-3	1.456353E-3	-6.835628E-3	4.989010E-3	4.564116E-3	-1.558979E-2	5.163555E-3	-2.509264E-3	-2.987223E-3	-3.047229E-3	5.629531E-3	-3.144636E-3	-1.224403E-3	-6.080436E-3	-2.807265E-3	2.644827E-3	-3.548362E-3	-8.720516E-3	1.009100E-2	-8.409667E-3	-1.824678E-3	-2.857257E-3	-1.936763E-3	-5.509785E-3	1.267499E-4	-1.226368E-2	-2.752089E-4	-6.842190E-4	-1.180018E-2	5.581685E-4	-5.576026E-3	-6.228799E-3	2.840507E-3	-2.469863E-3	-1.782510E-3	2.166250E-3	-1.082824E-2	6.154909E-4	-4.252024E-3	9.256492E-4	5.392210E-3	-4.503716E-3	8.306683E-3	-1.651517E-3	-9.538886E-4	5.129850E-3	-1.555964E-3	-8.483037E-3	6.714186E-3	-5.452838E-3	-9.894051E-4	5.457479E-4	-1.100368E-3	-1.760606E-3	-3.785336E-3	-3.492065E-3	-1.382633E-2	-1.404028E-3	-1.097864E-2	2.375287E-3	-5.768373E-3	-3.798917E-3	-5.000029E-3	-9.680135E-3	-3.287424E-3	-7.506738E-3	5.341175E-3	4.405162E-3	-6.900112E-3	1.736527E-4	-4.909186E-3	-4.983320E-3	4.136383E-4	-6.913891E-3	8.910100E-5	1.983584E-3	-3.405864E-3	-1.851982E-3	-9.478168E-3	-1.629065E-3	-1.030306E-3	-8.674135E-4	-7.645098E-3	-9.893377E-3	-4.726870E-3	-3.336059E-3	6.780340E-4	2.257809E-3	-1.172575E-2	-5.948849E-3	-5.207274E-3	-1.179766E-3	3.769708E-4	-5.611958E-3	-8.500378E-3	-5.646525E-3	-4.591602E-3	4.025497E-3	-5.847057E-3	-2.678156E-3	2.182745E-3	8.738768E-3	-3.312357E-3	5.336694E-4	7.381142E-3	-2.697578E-3	-3.258931E-3	-4.382511E-3	-1.221142E-3	-4.624968E-3	-2.021133E-3	-2.648029E-3	-4.958034E-3	-2.405044E-3	-3.904559E-3	-1.313886E-3	1.860805E-3	6.831416E-3	-2.937240E-3	-6.508666E-3	-4.390435E-3	3.283533E-3	-1.418791E-3	-1.958955E-3	-2.038641E-3	5.638209E-3	-8.900143E-3	7.300341E-3	-8.533119E-3
5.315130E+2	-2.845577E-4	3.316819E-3	6.051808E-3	4.424057E-3	4.023227E-3	-1.101480E-3	-1.893953E-3	-6.244915E-3	8.337302E-3	-2.686748E-3	-3.479223E-3	1.315332E-3	5.236282E-3	1.301235E-2	4.823814E-3	-4.146194E-3	-1.308167E-3	-3.443225E-4	4.184729E-3	3.773236E-4	-3.291477E-4	7.306589E-4	2.815083E-3	4.643735E-4	3.332814E-3	9.677009E-4	-1.431830E-4	-2.314527E-4	6.419034E-3	1.109534E-3	-3.799292E-3	5.540689E-3	-3.655846E-3	-7.485286E-3	-3.679137E-3	1.358651E-3	7.745585E-4	-4.209264E-3	-3.007218E-3	5.569090E-3	8.848887E-4	2.283642E-5	5.198926E-3	1.991297E-3	-4.488813E-3	6.112812E-3	-2.961828E-3	9.889762E-5	-7.661497E-3	-1.473660E-3	9.116850E-3	-1.890467E-3	-2.739686E-3	1.115471E-2	8.694633E-3	-2.367179E-3	-8.112337E-3	-7.692476E-3	2.253288E-3	2.807660E-3	-2.016574E-3	-7.269944E-3	-5.477853E-3	6.110482E-3	-7.246532E-3	-7.731923E-3	8.981294E-4	2.405493E-3	-1.700480E-3	2.557668E-3	2.815881E-3	3.017155E-3	-5.745791E-3	-6.688402E-3	-4.064829E-4	-5.853786E-3	-1.837589E-4	-1.583062E-3	-1.038906E-2	-1.361305E-3	-6.452091E-3	5.288473E-3	-2.232105E-3	-6.812681E-5	-7.099412E-4	-1.546639E-3	-4.113838E-3	6.609613E-3	2.894173E-3	2.590967E-5	-1.498930E-3	-5.069809E-4	5.335397E-3	5.812840E-3	-2.312081E-3	6.764965E-3	8.676940E-4	-1.405875E-4	3.567078E-3	6.153429E-3	-5.366382E-3	-3.092153E-4	3.171364E-3	6.776354E-3	5.997406E-4	5.139044E-3	8.164459E-3	-2.141289E-3	5.040871E-4	-3.417443E-3	1.203106E-3	-5.482133E-3	4.746522E-3	-1.643823E-4	9.213093E-4	-6.078654E-3	-1.812345E-3	-7.256434E-3	-2.360981E-3	1.087574E-3	4.938351E-3	-5.397853E-4	5.472637E-3	-3.989246E-3	5.888552E-4	-4.284837E-3	-2.381907E-3	-7.982944E-3	-2.534427E-3	5.818003E-3	-4.809711E-3	-6.085649E-4	-4.017557E-3	-1.146435E-3	-5.673571E-3	-1.970818E-3	-3.135499E-4	1.406797E-2	2.223580E-3	6.818106E-3	-1.216250E-3	6.188782E-4	-3.038046E-3	2.106937E-3	1.067702E-3	3.098401E-3	-5.764000E-3	6.825571E-4	-5.440941E-3	-8.896542E-3	-1.243433E-3	7.096395E-3	-9.352465E-3	7.933978E-3	1.140130E-2	1.789609E-3	-8.754139E-4	-4.431647E-3	-1.378530E-3	-7.979272E-3	2.162877E-3	-8.717062E-4	-2.505180E-3	-9.464019E-4	4.971880E-3	3.006721E-3	-8.264690E-3	-1.313306E-4	3.762580E-3	1.396503E-2
5.320070E+2	-1.097313E-2	3.888399E-4	1.680613E-3	-1.194069E-3	-4.644834E-3	2.424457E-3	5.070221E-3	7.840721E-3	6.978471E-3	5.362895E-3	1.094367E-2	7.575782E-3	3.050758E-3	1.448596E-3	3.765231E-3	4.707831E-4	3.933687E-3	-4.711319E-4	5.105955E-3	4.349027E-3	4.526480E-3	6.305878E-4	1.142122E-2	2.273703E-3	4.295848E-3	-2.214784E-3	8.870491E-3	8.140400E-4	3.266568E-3	-2.458045E-3	-9.076842E-4	9.998424E-4	1.837842E-2	7.596064E-3	3.646910E-3	7.153225E-4	1.151250E-3	1.942003E-3	6.104074E-3	4.977976E-3	4.282975E-3	5.565786E-3	3.433099E-3	9.045040E-3	3.644630E-3	-3.851378E-3	1.201438E-2	-3.144844E-3	8.460564E-3	1.586019E-3	6.753485E-3	-1.986554E-3	-3.315444E-3	1.267142E-3	3.934062E-3	4.251939E-3	3.544018E-3	3.450969E-4	2.671536E-3	-1.444867E-3	4.850136E-3	7.740090E-3	1.066293E-2	1.007031E-2	6.455594E-3	7.671641E-3	7.079658E-3	3.944438E-3	1.963531E-3	8.185182E-3	-4.294456E-3	3.901146E-3	9.232140E-3	5.251368E-3	1.015799E-2	5.974514E-3	6.435990E-3	9.055427E-3	1.038128E-2	8.878450E-3	2.501499E-3	-8.280446E-4	1.159862E-3	2.549829E-3	1.698103E-3	-6.240158E-4	6.780375E-3	1.631571E-3	-3.532425E-3	-4.289428E-3	8.925860E-3	3.122118E-3	6.636413E-3	1.987905E-4	6.351830E-3	5.966757E-4	1.285244E-3	9.451060E-3	3.992092E-3	9.872675E-3	-3.099976E-3	-2.201796E-3	8.805817E-3	7.147194E-3	9.938871E-4	1.186434E-4	4.663001E-4	9.117914E-3	-1.258258E-3	5.391469E-4	9.427000E-3	1.411857E-2	5.203793E-3	-3.806648E-3	5.323293E-3	4.970634E-4	5.544729E-3	-7.212162E-4	-5.589054E-3	1.276467E-2	-2.422642E-3	2.779389E-3	5.369297E-3	5.847061E-3	1.592919E-3	4.812750E-3	2.119236E-3	2.903389E-3	8.792174E-4	4.105051E-3	-1.267964E-3	8.617842E-3	5.186476E-4	2.136637E-3	1.067997E-2	6.150167E-3	4.429512E-3	2.715221E-3	3.974497E-4	6.109232E-3	8.372781E-3	-9.671404E-4	2.448021E-3	-2.998958E-3	-7.134697E-3	-1.196457E-3	6.943054E-4	1.723189E-3	1.185847E-2	8.583727E-3	8.988559E-3	-7.295917E-3	9.842490E-3	-4.573064E-3	4.612809E-3	-6.347424E-5	1.086039E-3	9.927906E-3	-4.015750E-3	5.046166E-3	3.087211E-3	2.053240E-4	3.613019E-3	5.614676E-3	-2.629582E-3	8.468129E-3	-3.224182E-3	6.955915E-3	1.279273E-2	-3.088292E-3
5.325170E+2	1.938479E-2	3.542265E-3	4.178193E-3	2.611184E-3	1.060175E-2	5.408891E-3	1.403629E-3	1.325601E-2	2.103618E-3	3.204017E-3	7.624377E-3	1.596502E-2	1.177193E-2	1.331483E-2	6.980232E-3	1.488955E-2	9.736399E-3	1.951912E-2	-2.913703E-4	7.278041E-3	1.039351E-2	7.492728E-3	3.546832E-3	6.026218E-3	1.247294E-2	6.869757E-3	7.228211E-3	7.435967E-3	7.188523E-3	1.077096E-2	1.563434E-2	8.965648E-3	3.462591E-4	6.889532E-3	7.265779E-3	8.108904E-3	8.899842E-3	7.194104E-3	4.816723E-4	1.115379E-2	1.055004E-2	7.075762E-3	5.427566E-3	-9.960793E-5	1.345628E-2	1.350151E-2	1.834796E-2	1.134432E-2	8.843385E-3	1.046725E-2	2.680731E-3	7.530059E-3	1.800452E-2	6.571125E-3	1.274299E-2	7.262977E-3	1.124319E-2	1.245709E-2	7.468267E-3	-5.271534E-3	1.332965E-2	8.142275E-3	1.007258E-2	5.997688E-3	7.408109E-3	2.492726E-3	1.035214E-2	9.319382E-3	1.564880E-2	8.145279E-3	2.638397E-3	9.943100E-3	9.660564E-3	3.505983E-3	7.892306E-3	8.740117E-3	1.419723E-2	7.490616E-3	8.427965E-3	7.870163E-3	1.323151E-2	5.515482E-3	1.036725E-2	7.945995E-3	7.130288E-3	1.961778E-2	3.471048E-3	6.405194E-3	1.748375E-2	4.433696E-3	5.309904E-3	1.010179E-2	3.140396E-3	7.557039E-3	4.729972E-3	9.377529E-3	1.818986E-2	8.710762E-3	8.327895E-3	1.523160E-2	1.542184E-2	1.159411E-2	1.536670E-2	8.379180E-4	1.576021E-2	8.503788E-3	7.785830E-3	3.197062E-3	9.952749E-3	1.720075E-2	4.850158E-3	2.072189E-2	2.124426E-3	1.545294E-2	6.289401E-3	1.997050E-2	7.867625E-3	1.254251E-2	2.288537E-2	4.338010E-3	5.073964E-3	1.411271E-2	4.316183E-3	2.004814E-2	1.258771E-2	9.349582E-3	1.693400E-2	1.097635E-2	1.306296E-2	1.149841E-2	1.985868E-2	3.188323E-3	6.947967E-3	9.375169E-3	4.541822E-3	1.046134E-2	1.411167E-2	-1.183402E-3	1.109921E-2	5.368380E-3	1.627503E-3	8.927962E-3	2.853519E-3	1.435020E-2	8.220463E-3	5.254074E-3	1.203295E-2	1.248004E-2	8.859615E-3	9.997686E-3	9.454807E-3	7.416928E-3	1.197568E-2	1.276429E-2	1.451127E-2	1.598831E-2	5.162909E-3	7.800829E-3	1.216617E-2	5.465910E-3	1.376833E-2	1.387348E-2	1.132611E-2	9.965741E-3	5.785856E-3	6.122599E-3	7.967992E-3	2.604236E-2	2.898588E-3	1.623287E-2
5.330280E+2	2.431788E-2	2.747408E-2	2.144050E-2	2.177244E-2	2.352347E-2	1.660234E-2	1.894448E-2	1.237117E-2	3.150550E-2	1.219038E-2	1.661745E-2	2.294571E-2	2.477563E-2	1.983010E-2	1.481086E-2	3.269770E-2	2.683988E-2	7.939650E-3	1.525278E-2	1.766652E-2	2.160464E-2	1.889477E-2	2.930487E-2	2.877589E-2	3.504974E-2	2.259505E-2	2.954427E-2	3.174777E-2	1.883043E-2	1.247922E-2	1.286796E-2	2.352288E-2	1.803751E-2	2.567360E-2	2.573498E-2	3.037571E-2	1.700734E-2	2.007039E-2	2.069627E-2	1.957930E-2	2.089972E-2	2.729554E-2	2.597487E-2	3.660148E-2	1.315274E-2	2.748676E-2	1.366709E-2	2.331732E-2	2.696491E-2	1.708737E-2	2.194061E-2	3.709262E-2	2.018592E-2	1.890986E-2	2.936929E-2	2.891242E-2	1.768135E-2	2.909694E-2	1.599533E-2	1.417267E-2	2.330582E-2	3.247283E-2	2.258236E-2	1.850525E-2	1.821741E-2	1.890022E-2	4.126329E-2	2.680956E-2	2.544913E-2	1.128545E-2	1.039199E-2	1.736361E-2	8.176079E-3	1.954439E-2	1.295620E-2	9.517358E-3	1.328358E-2	1.707433E-2	1.631836E-2	2.455817E-2	3.058520E-2	3.225170E-2	2.479531E-2	1.984924E-2	2.315195E-2	2.879768E-2	2.726954E-2	1.835486E-2	2.580367E-2	1.968291E-2	2.990097E-2	2.741440E-2	1.616204E-2	1.814870E-2	2.866588E-2	2.970897E-2	1.842352E-2	2.681561E-2	1.759252E-2	2.396095E-2	3.897865E-2	2.802531E-2	2.981242E-2	2.488093E-2	2.411431E-2	2.321469E-2	2.276634E-2	1.203294E-2	1.796307E-2	2.609038E-2	1.792907E-2	1.278082E-2	1.970948E-2	1.923063E-2	3.489073E-2	2.942877E-2	2.028795E-2	7.027995E-3	2.768180E-2	2.714502E-2	2.205474E-2	3.392943E-2	1.693861E-2	3.156960E-2	2.512438E-2	2.347139E-2	1.508748E-2	2.706503E-2	1.799362E-2	1.599501E-2	2.863861E-2	1.392834E-2	1.974464E-2	2.276214E-2	1.898397E-2	2.675012E-2	2.360397E-2	2.867114E-2	1.933961E-2	2.539787E-2	2.242719E-2	2.710776E-2	1.738207E-2	2.562689E-2	2.854925E-2	1.203358E-2	1.826608E-2	2.713226E-2	1.575884E-2	2.890058E-2	2.308746E-2	2.512811E-2	1.396998E-2	1.578615E-2	1.639301E-2	2.085474E-2	1.901011E-2	2.261313E-2	1.339874E-2	2.895591E-2	2.434353E-2	1.832577E-2	2.304940E-2	1.240520E-2	1.371067E-2	1.803695E-2	2.266759E-2	3.037528E-2	1.476311E-2	3.542877E-2
5.331580E+2	3.209854E-2	2.019900E-2	2.635809E-2	2.026218E-2	2.073568E-2	1.722300E-2	2.417018E-2	2.242542E-2	3.406842E-2	2.105973E-2	2.272380E-2	1.837568E-2	3.480662E-2	2.255758E-2	3.207572E-2	3.159617E-2	3.564385E-2	1.872106E-2	2.119431E-2	2.655528E-2	2.313176E-2	2.274868E-2	3.122001E-2	3.071602E-2	3.040805E-2	1.757406E-2	2.919401E-2	1.961375E-2	2.674507E-2	3.304099E-2	1.757287E-2	2.590955E-2	3.239869E-2	2.194559E-2	2.370919E-2	2.082486E-2	2.061511E-2	2.117460E-2	2.270208E-2	1.932440E-2	3.163641E-2	2.691119E-2	3.943876E-2	2.965020E-2	1.181183E-2	2.763011E-2	3.008396E-2	3.194675E-2	3.893993E-2	2.147502E-2	3.499381E-2	3.759820E-2	3.341142E-2	2.536815E-2	4.176839E-2	3.358854E-2	2.413340E-2	2.984220E-2	2.348029E-2	2.065571E-2	2.592924E-2	3.511342E-2	2.121822E-2	1.566860E-2	2.796549E-2	2.295392E-2	4.493288E-2	2.647165E-2	2.422278E-2	3.281093E-2	2.281743E-2	3.385987E-2	2.779500E-2	3.455830E-2	2.556625E-2	3.108696E-2	2.949287E-2	3.353695E-2	2.367096E-2	3.139950E-2	2.955569E-2	2.644490E-2	1.723433E-2	2.777154E-2	2.894745E-2	3.476519E-2	2.604836E-2	4.006391E-2	3.176618E-2	3.678591E-2	3.414483E-2	3.594514E-2	2.280385E-2	1.454754E-2	2.733174E-2	2.194159E-2	2.578574E-2	3.621525E-2	2.454332E-2	2.132483E-2	1.786251E-2	1.749587E-2	2.997225E-2	3.648666E-2	4.000139E-2	2.881145E-2	2.993185E-2	3.626714E-2	2.522333E-2	3.796941E-2	2.252313E-2	2.055063E-2	2.389368E-2	3.629960E-2	2.418116E-2	3.187799E-2	2.560161E-2	2.770270E-2	2.417092E-2	2.128401E-2	3.175389E-2	2.884966E-2	2.852100E-2	4.614940E-2	3.422164E-2	2.876783E-2	2.761516E-2	3.396045E-2	2.817799E-2	2.525825E-2	2.875219E-2	1.342689E-2	3.529657E-2	2.973496E-2	1.626120E-2	3.632012E-2	2.263945E-2	2.772695E-2	2.349128E-2	3.254776E-2	3.909751E-2	2.724608E-2	2.213162E-2	3.592604E-2	4.000092E-2	1.087718E-2	2.373486E-2	3.014198E-2	2.798723E-2	4.682325E-2	3.120281E-2	2.578139E-2	4.315271E-2	4.208252E-2	2.212290E-2	2.448291E-2	3.332331E-2	2.903186E-2	4.737613E-2	2.956464E-2	3.746056E-2	2.631425E-2	3.733486E-2	1.644539E-2	3.368994E-2	3.554829E-2	2.230409E-2	2.322770E-2	2.306798E-2	1.279594E-2
5.333130E+2	3.842204E-2	3.700430E-2	4.833668E-2	3.898085E-2	3.901557E-2	3.233023E-2	4.364652E-2	3.168317E-2	4.866508E-2	3.176204E-2	3.514855E-2	3.627431E-2	5.000501E-2	3.717228E-2	3.586423E-2	4.343020E-2	3.934603E-2	3.433926E-2	4.082593E-2	3.244572E-2	3.463529E-2	4.294412E-2	4.064040E-2	4.421614E-2	3.417716E-2	3.088969E-2	5.031150E-2	3.394602E-2	3.589471E-2	4.506394E-2	3.997658E-2	4.390376E-2	5.212485E-2	4.822611E-2	4.688112E-2	4.706641E-2	3.541744E-2	3.188654E-2	4.948808E-2	3.893746E-2	4.642695E-2	3.701283E-2	4.486374E-2	4.046125E-2	3.345956E-2	4.693725E-2	3.848957E-2	4.978461E-2	3.003663E-2	3.363496E-2	3.481122E-2	3.604246E-2	4.509224E-2	4.172509E-2	4.761484E-2	4.544494E-2	3.204842E-2	4.897805E-2	4.465848E-2	2.908008E-2	4.231785E-2	5.055905E-2	4.025654E-2	3.781809E-2	3.736558E-2	5.382294E-2	4.890953E-2	3.662342E-2	2.614861E-2	4.316234E-2	3.091948E-2	3.308207E-2	3.346600E-2	4.848566E-2	2.986986E-2	4.590557E-2	4.936725E-2	3.601481E-2	4.355295E-2	2.876630E-2	4.484801E-2	2.550442E-2	3.840861E-2	3.871585E-2	4.229523E-2	3.787231E-2	4.195390E-2	2.992215E-2	4.497708E-2	3.004747E-2	4.969028E-2	4.296843E-2	5.103829E-2	4.501805E-2	3.274508E-2	3.108181E-2	4.470542E-2	5.188324E-2	5.185891E-2	2.962991E-2	4.562864E-2	4.383641E-2	3.654615E-2	4.196184E-2	3.886347E-2	3.689306E-2	2.787050E-2	4.212141E-2	4.393511E-2	4.671338E-2	3.244275E-2	4.012717E-2	3.651434E-2	5.493114E-2	3.307740E-2	3.583430E-2	3.891972E-2	4.704947E-2	3.333934E-2	3.841485E-2	3.661874E-2	4.845406E-2	3.496958E-2	3.961112E-2	3.685838E-2	4.693306E-2	5.100269E-2	4.077037E-2	4.407239E-2	5.013390E-2	5.198079E-2	4.158772E-2	3.156319E-2	4.603169E-2	3.198043E-2	3.507593E-2	3.733001E-2	4.502432E-2	5.168760E-2	3.585377E-2	4.484836E-2	4.589992E-2	4.636329E-2	3.881109E-2	4.677160E-2	3.841495E-2	4.464273E-2	5.566823E-2	4.674543E-2	4.553860E-2	4.023539E-2	4.024567E-2	4.363388E-2	3.622706E-2	4.678963E-2	4.954266E-2	3.434467E-2	3.052803E-2	5.061411E-2	4.255074E-2	5.154675E-2	4.315800E-2	2.827697E-2	4.001616E-2	4.699501E-2	5.034714E-2	3.890603E-2	2.336233E-2	2.277323E-2	5.014479E-2
5.334630E+2	5.097959E-2	4.507766E-2	5.586149E-2	4.281351E-2	4.432611E-2	5.514927E-2	5.600487E-2	3.792714E-2	4.378633E-2	6.145551E-2	5.717394E-2	4.809190E-2	5.366617E-2	4.672423E-2	5.508238E-2	6.472765E-2	6.125183E-2	4.743599E-2	5.099556E-2	5.106155E-2	5.304862E-2	5.706611E-2	5.351473E-2	6.189595E-2	4.446523E-2	4.708271E-2	6.167571E-2	4.999841E-2	5.032729E-2	6.211978E-2	5.020319E-2	5.261210E-2	4.993103E-2	5.322116E-2	4.689059E-2	5.195784E-2	5.830440E-2	5.645921E-2	5.320614E-2	4.270949E-2	6.033948E-2	5.443806E-2	4.770367E-2	5.315445E-2	6.392449E-2	5.420194E-2	5.439403E-2	6.340778E-2	4.667995E-2	7.089984E-2	5.641954E-2	7.992570E-2	4.508754E-2	5.121629E-2	4.899199E-2	6.019346E-2	5.580458E-2	5.417530E-2	5.819827E-2	5.007296E-2	6.328517E-2	5.352946E-2	4.703802E-2	4.933799E-2	6.734697E-2	5.666693E-2	5.247588E-2	5.331882E-2	6.335137E-2	4.706870E-2	5.851257E-2	5.625260E-2	6.124697E-2	6.133182E-2	5.344608E-2	4.035920E-2	5.575813E-2	5.552110E-2	5.469547E-2	5.312629E-2	4.128309E-2	6.593405E-2	5.653018E-2	5.208451E-2	5.526620E-2	6.025746E-2	4.712047E-2	5.862897E-2	5.121327E-2	6.006828E-2	4.005357E-2	5.603359E-2	3.657909E-2	4.726574E-2	5.913954E-2	5.645387E-2	5.710201E-2	4.558806E-2	5.138156E-2	4.732595E-2	5.117948E-2	5.434029E-2	5.861295E-2	4.095669E-2	6.283501E-2	4.629507E-2	6.975095E-2	5.872794E-2	4.035887E-2	5.703276E-2	5.015334E-2	5.432648E-2	6.255129E-2	5.387313E-2	4.583511E-2	5.411476E-2	5.611136E-2	4.656046E-2	5.914097E-2	5.739669E-2	6.156459E-2	4.798769E-2	6.119028E-2	6.334078E-2	3.773313E-2	4.640747E-2	5.932960E-2	6.756673E-2	4.426309E-2	5.012708E-2	6.812383E-2	5.779590E-2	4.484192E-2	4.897594E-2	4.449694E-2	5.651600E-2	5.067645E-2	6.193387E-2	4.880606E-2	5.007999E-2	4.958332E-2	5.749629E-2	5.152681E-2	6.125056E-2	6.464581E-2	4.945356E-2	5.435305E-2	7.551271E-2	5.542241E-2	6.149628E-2	5.530187E-2	6.001539E-2	6.057733E-2	5.177679E-2	6.147404E-2	5.366432E-2	5.342041E-2	5.955846E-2	6.194892E-2	4.669688E-2	6.568694E-2	5.239539E-2	5.108549E-2	5.312270E-2	6.028962E-2	4.889548E-2	5.099775E-2	4.498845E-2	4.690727E-2	5.339037E-2
5.336080E+2	7.135893E-2	7.663307E-2	5.925162E-2	7.494777E-2	6.301025E-2	5.848278E-2	7.638281E-2	6.874556E-2	6.670765E-2	7.993553E-2	8.935076E-2	7.918324E-2	7.017265E-2	7.603140E-2	7.312025E-2	7.389039E-2	8.009848E-2	7.655618E-2	8.068250E-2	7.490392E-2	5.050447E-2	7.432489E-2	7.745892E-2	7.645700E-2	6.616453E-2	6.549403E-2	6.861130E-2	8.934276E-2	8.097107E-2	7.494714E-2	5.858877E-2	5.724714E-2	7.601785E-2	7.049917E-2	6.005279E-2	6.669223E-2	8.051116E-2	6.999808E-2	6.806145E-2	6.640769E-2	6.826826E-2	6.899937E-2	8.182034E-2	5.932333E-2	6.408626E-2	7.722270E-2	6.106485E-2	7.650424E-2	7.688418E-2	8.032641E-2	8.610225E-2	7.853469E-2	6.419482E-2	8.652070E-2	6.675721E-2	6.881678E-2	7.731723E-2	8.820985E-2	8.600675E-2	6.150379E-2	6.896328E-2	7.067748E-2	6.848444E-2	7.050195E-2	6.692930E-2	8.342604E-2	8.306266E-2	7.982160E-2	6.844971E-2	6.444123E-2	7.312354E-2	8.070065E-2	7.063236E-2	7.007233E-2	7.222501E-2	6.737691E-2	6.801283E-2	6.970999E-2	8.167111E-2	6.162541E-2	7.596292E-2	7.682767E-2	6.370677E-2	7.043670E-2	7.764816E-2	6.892697E-2	8.722479E-2	7.606513E-2	6.702628E-2	9.054550E-2	7.357322E-2	6.686326E-2	7.164256E-2	6.767136E-2	6.690511E-2	6.830268E-2	7.124475E-2	7.302517E-2	7.838363E-2	5.556744E-2	8.724899E-2	8.684214E-2	7.382560E-2	7.994516E-2	7.497018E-2	8.013569E-2	7.592915E-2	8.639124E-2	8.197805E-2	7.072195E-2	7.135534E-2	7.709649E-2	7.866110E-2	5.770004E-2	7.129451E-2	6.428096E-2	6.558303E-2	7.348654E-2	7.289733E-2	6.842425E-2	7.761952E-2	6.394306E-2	7.468010E-2	6.798939E-2	5.731130E-2	6.855797E-2	7.532794E-2	7.436308E-2	6.725159E-2	7.648906E-2	7.142385E-2	7.370808E-2	7.317804E-2	8.044085E-2	7.657114E-2	8.272716E-2	7.126959E-2	6.667418E-2	8.756931E-2	7.069465E-2	7.856212E-2	5.775705E-2	6.845796E-2	6.461451E-2	6.815424E-2	8.066706E-2	7.543798E-2	8.881572E-2	7.264450E-2	7.838736E-2	8.487786E-2	6.812001E-2	8.766061E-2	6.755833E-2	8.000431E-2	6.377335E-2	7.264274E-2	7.358999E-2	8.409966E-2	7.355323E-2	9.028735E-2	7.582378E-2	7.041661E-2	8.156632E-2	8.113948E-2	8.151304E-2	7.276492E-2	1.027060E-1	1.017406E-1	6.377535E-2
5.337630E+2	9.920604E-2	9.357055E-2	8.337357E-2	8.448263E-2	9.716090E-2	9.274595E-2	8.748805E-2	8.267819E-2	9.495405E-2	8.959585E-2	1.039005E-1	1.039826E-1	9.789385E-2	1.101743E-1	8.828038E-2	9.878580E-2	9.137565E-2	1.001313E-1	9.860180E-2	8.973889E-2	8.583858E-2	1.028400E-1	1.025493E-1	9.273764E-2	1.091002E-1	1.033079E-1	1.098594E-1	1.035625E-1	1.074548E-1	9.180380E-2	1.044737E-1	9.953200E-2	9.785972E-2	8.744739E-2	9.781863E-2	1.037733E-1	1.026137E-1	1.026759E-1	9.514352E-2	1.060586E-1	8.923153E-2	1.058348E-1	1.077399E-1	1.053729E-1	1.140359E-1	1.142843E-1	9.764551E-2	1.026958E-1	9.218537E-2	1.194375E-1	9.152968E-2	1.029879E-1	1.032447E-1	8.848622E-2	9.823853E-2	9.603228E-2	1.053854E-1	9.002978E-2	9.589428E-2	1.037056E-1	1.007321E-1	9.136514E-2	1.050881E-1	1.141461E-1	1.141662E-1	9.732362E-2	1.103330E-1	7.962026E-2	1.131277E-1	9.755905E-2	1.004695E-1	8.674816E-2	8.258885E-2	1.116052E-1	9.879636E-2	8.792104E-2	9.672874E-2	1.029368E-1	9.399832E-2	9.256631E-2	1.155796E-1	1.089076E-1	9.598101E-2	1.177205E-1	9.970319E-2	1.097635E-1	9.489510E-2	7.974135E-2	9.796477E-2	9.329202E-2	9.337172E-2	8.312506E-2	1.067769E-1	8.267717E-2	9.903686E-2	9.060910E-2	9.791766E-2	9.963116E-2	8.562178E-2	9.635648E-2	7.913019E-2	1.044621E-1	9.330925E-2	8.859206E-2	1.208217E-1	8.793010E-2	8.829091E-2	9.683165E-2	9.522135E-2	1.077045E-1	1.091915E-1	9.332947E-2	9.203643E-2	9.908646E-2	1.044866E-1	8.233292E-2	9.637008E-2	1.036998E-1	9.803723E-2	8.862855E-2	1.053827E-1	1.098844E-1	9.212307E-2	9.278097E-2	1.083182E-1	8.250032E-2	1.095638E-1	9.705442E-2	1.090765E-1	1.202812E-1	9.297011E-2	8.039341E-2	1.084276E-1	8.859310E-2	1.176381E-1	9.535295E-2	8.667320E-2	1.020085E-1	1.018532E-1	9.144703E-2	1.222895E-1	1.097339E-1	9.473691E-2	9.644133E-2	1.017584E-1	1.017535E-1	1.063747E-1	9.731611E-2	9.397830E-2	9.369489E-2	8.716861E-2	9.998072E-2	9.827951E-2	1.077008E-1	1.173015E-1	1.209677E-1	1.163433E-1	7.816596E-2	8.857289E-2	1.037448E-1	1.221437E-1	9.949771E-2	1.152282E-1	1.041061E-1	9.951953E-2	1.035746E-1	1.114125E-1	8.767586E-2	1.043676E-1	1.322093E-1
5.339090E+2	1.418584E-1	1.625819E-1	1.399129E-1	1.466987E-1	1.528210E-1	1.302313E-1	1.530700E-1	1.415382E-1	1.534344E-1	1.290505E-1	1.417245E-1	1.382097E-1	1.551951E-1	1.461316E-1	1.600978E-1	1.537177E-1	1.462867E-1	1.379579E-1	1.613101E-1	1.470540E-1	1.604943E-1	1.487797E-1	1.482996E-1	1.453154E-1	1.590746E-1	1.617989E-1	1.716576E-1	1.633049E-1	1.562945E-1	1.542448E-1	1.336703E-1	1.709955E-1	1.536620E-1	1.692061E-1	1.656780E-1	1.697579E-1	1.621195E-1	1.475535E-1	1.570665E-1	1.464477E-1	1.594908E-1	1.391103E-1	1.622202E-1	1.526177E-1	1.501523E-1	1.476059E-1	1.499581E-1	1.499518E-1	1.502014E-1	1.637488E-1	1.531519E-1	1.633233E-1	1.509383E-1	1.322118E-1	1.624664E-1	1.557550E-1	1.601023E-1	1.377345E-1	1.605580E-1	1.596132E-1	1.707482E-1	1.482094E-1	1.528831E-1	1.451027E-1	1.587143E-1	1.463275E-1	1.622730E-1	1.752462E-1	1.544181E-1	1.585744E-1	1.574603E-1	1.560377E-1	1.447141E-1	1.495720E-1	1.496028E-1	1.517958E-1	1.584157E-1	1.499559E-1	1.538387E-1	1.550838E-1	1.363557E-1	1.714644E-1	1.485222E-1	1.687392E-1	1.537977E-1	1.546181E-1	1.654494E-1	1.352020E-1	1.476303E-1	1.661683E-1	1.406605E-1	1.573408E-1	1.559015E-1	1.732893E-1	1.448062E-1	1.444469E-1	1.712932E-1	1.349039E-1	1.426435E-1	1.620860E-1	1.550704E-1	1.409580E-1	1.550031E-1	1.506658E-1	1.738095E-1	1.636495E-1	1.450811E-1	1.598166E-1	1.487784E-1	1.387463E-1	1.437337E-1	1.619184E-1	1.631435E-1	1.515970E-1	1.376583E-1	1.434683E-1	1.563207E-1	1.479952E-1	1.551294E-1	1.555708E-1	1.797521E-1	1.671083E-1	1.558457E-1	1.362972E-1	1.508172E-1	1.567322E-1	1.635909E-1	1.624429E-1	1.569089E-1	1.557451E-1	1.727234E-1	1.726461E-1	1.370280E-1	1.624779E-1	1.482393E-1	1.491385E-1	1.786608E-1	1.352685E-1	1.657732E-1	1.464754E-1	1.639114E-1	1.545048E-1	1.618841E-1	1.486889E-1	1.510886E-1	1.538911E-1	1.641523E-1	1.480875E-1	1.497503E-1	1.443931E-1	1.538013E-1	1.497090E-1	1.466085E-1	1.345260E-1	1.450225E-1	1.613650E-1	1.344668E-1	1.548187E-1	1.534847E-1	1.549910E-1	1.722499E-1	1.568245E-1	1.694957E-1	1.480933E-1	1.442617E-1	1.489432E-1	1.683301E-1	1.329504E-1	1.580337E-1	1.377393E-1
5.340690E+2	2.541066E-1	2.356904E-1	2.317880E-1	2.247779E-1	2.564914E-1	2.497381E-1	2.388313E-1	2.236215E-1	2.518582E-1	2.454925E-1	2.723788E-1	2.583154E-1	2.619453E-1	2.388563E-1	2.505766E-1	2.588220E-1	2.423885E-1	2.385531E-1	2.508110E-1	2.487515E-1	2.506243E-1	2.494912E-1	2.501522E-1	2.385709E-1	2.666716E-1	2.635534E-1	2.863412E-1	2.801685E-1	2.555664E-1	2.635477E-1	2.543382E-1	2.851302E-1	2.615656E-1	2.576955E-1	2.574604E-1	2.568602E-1	2.739219E-1	2.762475E-1	2.741358E-1	2.815935E-1	2.743422E-1	2.423206E-1	2.686723E-1	2.622587E-1	2.636078E-1	2.686910E-1	2.371161E-1	2.844674E-1	2.630244E-1	2.437177E-1	2.621904E-1	2.605658E-1	2.360343E-1	2.656637E-1	2.449813E-1	2.475360E-1	2.498104E-1	2.654373E-1	2.812290E-1	2.881329E-1	2.760311E-1	2.564911E-1	2.641242E-1	2.608356E-1	2.653489E-1	2.511387E-1	2.472465E-1	2.628279E-1	2.513218E-1	2.361747E-1	2.672557E-1	2.814036E-1	2.772827E-1	2.638540E-1	2.548039E-1	2.415590E-1	2.598948E-1	2.756155E-1	2.705400E-1	2.595023E-1	2.586371E-1	2.692640E-1	2.584193E-1	2.389171E-1	2.458376E-1	2.490418E-1	2.550819E-1	2.690677E-1	2.476529E-1	2.545802E-1	2.565933E-1	2.750705E-1	2.730334E-1	2.526908E-1	2.536761E-1	2.606640E-1	2.374642E-1	2.629911E-1	2.470697E-1	2.420212E-1	2.690064E-1	2.639265E-1	2.753802E-1	2.504333E-1	2.675136E-1	2.591389E-1	2.609512E-1	2.736666E-1	2.808253E-1	2.609560E-1	2.557805E-1	2.663384E-1	2.757111E-1	2.535293E-1	2.523948E-1	2.474775E-1	2.389795E-1	2.794159E-1	2.554839E-1	2.792987E-1	2.511978E-1	2.506873E-1	2.578846E-1	2.488512E-1	2.561635E-1	2.665252E-1	2.661244E-1	2.645974E-1	2.656474E-1	2.674690E-1	2.657181E-1	2.861333E-1	2.329115E-1	2.629347E-1	2.528621E-1	2.433524E-1	2.744719E-1	2.607411E-1	2.821822E-1	2.477259E-1	2.625637E-1	2.569947E-1	2.804345E-1	2.527555E-1	2.780017E-1	2.788501E-1	2.758117E-1	2.740724E-1	2.659785E-1	2.500387E-1	2.718692E-1	2.558139E-1	2.374581E-1	2.711691E-1	2.513144E-1	2.556741E-1	2.503582E-1	2.616892E-1	3.098873E-1	2.390843E-1	2.442498E-1	2.732458E-1	2.750868E-1	2.720934E-1	2.816365E-1	2.560465E-1	2.435051E-1	2.687171E-1	2.497678E-1	2.989084E-1
5.342040E+2	4.532803E-1	4.090480E-1	4.214771E-1	4.585118E-1	4.431895E-1	4.438927E-1	4.304853E-1	4.598887E-1	4.132943E-1	4.502011E-1	4.568281E-1	4.075323E-1	4.242227E-1	4.225820E-1	4.286288E-1	4.323339E-1	4.548274E-1	4.132420E-1	4.545652E-1	4.233837E-1	4.079124E-1	4.530749E-1	4.491195E-1	4.268633E-1	5.013324E-1	4.965894E-1	4.762614E-1	4.729370E-1	4.778602E-1	4.572336E-1	4.974165E-1	4.829741E-1	4.879254E-1	4.846990E-1	4.716797E-1	4.642130E-1	4.900099E-1	4.372965E-1	4.605679E-1	4.643628E-1	5.109250E-1	4.995035E-1	4.765510E-1	4.755220E-1	4.618810E-1	4.953181E-1	4.795631E-1	4.616163E-1	4.536508E-1	4.611169E-1	4.571690E-1	4.616471E-1	4.649161E-1	4.565886E-1	4.729888E-1	4.566478E-1	4.536093E-1	4.483114E-1	4.333959E-1	4.439175E-1	4.769388E-1	4.519950E-1	4.635193E-1	4.430057E-1	4.461871E-1	4.621273E-1	4.838790E-1	4.554254E-1	4.398662E-1	4.690316E-1	4.505097E-1	4.483845E-1	4.732738E-1	4.472150E-1	4.701792E-1	4.503834E-1	4.540959E-1	4.708885E-1	4.638150E-1	4.504201E-1	4.576609E-1	4.715524E-1	4.679586E-1	4.427976E-1	4.597165E-1	4.431795E-1	4.826033E-1	4.608581E-1	4.559814E-1	4.661323E-1	4.765613E-1	4.727362E-1	4.427387E-1	4.776258E-1	4.371042E-1	4.768636E-1	4.261711E-1	4.243535E-1	4.575892E-1	4.427470E-1	4.337837E-1	4.267736E-1	4.539291E-1	4.526545E-1	4.414309E-1	4.380387E-1	4.938100E-1	4.426219E-1	4.688190E-1	4.610745E-1	4.474650E-1	4.826256E-1	4.559656E-1	4.286406E-1	4.482561E-1	4.673832E-1	4.699539E-1	4.251738E-1	4.628158E-1	4.448447E-1	4.623668E-1	4.400080E-1	4.512885E-1	4.605062E-1	4.722989E-1	4.502098E-1	4.351457E-1	4.638907E-1	4.534292E-1	4.509893E-1	4.419212E-1	4.441234E-1	4.707228E-1	4.676602E-1	4.395296E-1	4.414866E-1	4.583200E-1	4.722228E-1	4.604374E-1	4.232907E-1	4.846891E-1	4.460886E-1	4.738125E-1	4.419091E-1	4.758504E-1	4.737519E-1	4.772169E-1	4.341403E-1	4.561807E-1	4.409202E-1	4.621035E-1	4.744568E-1	4.327062E-1	4.468926E-1	4.554862E-1	4.644316E-1	4.759883E-1	4.356997E-1	5.033810E-1	4.448455E-1	4.537722E-1	4.548998E-1	4.244803E-1	4.486986E-1	4.823539E-1	4.538919E-1	4.211289E-1	4.583771E-1	4.628983E-1	4.880697E-1
5.343600E+2	8.354308E-1	7.477413E-1	7.480711E-1	7.513015E-1	7.761761E-1	7.943392E-1	7.885037E-1	7.597356E-1	7.687049E-1	7.946647E-1	7.744960E-1	7.987294E-1	7.793043E-1	7.755832E-1	7.889697E-1	7.608940E-1	7.833061E-1	8.138673E-1	7.913292E-1	7.933358E-1	7.785483E-1	7.993002E-1	7.967562E-1	7.673431E-1	8.184916E-1	8.491648E-1	7.716032E-1	8.342064E-1	8.069554E-1	8.354123E-1	8.127518E-1	8.253755E-1	8.138466E-1	8.410158E-1	8.361399E-1	8.643875E-1	8.468924E-1	8.519115E-1	8.217746E-1	8.262684E-1	8.768896E-1	8.462919E-1	8.092816E-1	8.034234E-1	8.361525E-1	7.711339E-1	8.433018E-1	8.133526E-1	8.165239E-1	7.955767E-1	8.153921E-1	7.745840E-1	8.074291E-1	7.877690E-1	8.424495E-1	7.906644E-1	7.903486E-1	7.719781E-1	7.996211E-1	8.008538E-1	8.024848E-1	8.079842E-1	8.063778E-1	7.650994E-1	8.011301E-1	7.879514E-1	7.901775E-1	7.947370E-1	7.821012E-1	8.008584E-1	8.106467E-1	7.971587E-1	7.529160E-1	8.016555E-1	8.330953E-1	8.163443E-1	8.053113E-1	8.055791E-1	8.096878E-1	7.619209E-1	7.783437E-1	8.154846E-1	8.356830E-1	8.315861E-1	7.844845E-1	8.080663E-1	7.886705E-1	8.020221E-1	8.087243E-1	8.214057E-1	7.587949E-1	7.660604E-1	8.274751E-1	8.059342E-1	7.970354E-1	8.123552E-1	7.989146E-1	8.067431E-1	8.228558E-1	8.139362E-1	8.080419E-1	7.646182E-1	7.794451E-1	8.107394E-1	8.041863E-1	8.371555E-1	7.708272E-1	7.886379E-1	8.265311E-1	7.910965E-1	7.873497E-1	8.121549E-1	8.077051E-1	8.245655E-1	7.915254E-1	7.782994E-1	8.161483E-1	7.884824E-1	7.756915E-1	8.054585E-1	7.865384E-1	8.042416E-1	7.990358E-1	8.070699E-1	7.769201E-1	8.064350E-1	7.959459E-1	7.730704E-1	7.316361E-1	7.918594E-1	7.981761E-1	8.122623E-1	8.396837E-1	7.900344E-1	7.899906E-1	7.633866E-1	8.322720E-1	8.107148E-1	7.695241E-1	7.944631E-1	7.822858E-1	8.181177E-1	8.297368E-1	7.838831E-1	8.477061E-1	7.934251E-1	7.923843E-1	8.095240E-1	8.271247E-1	7.697416E-1	8.130267E-1	8.170144E-1	7.890873E-1	7.973167E-1	7.908275E-1	8.245484E-1	8.000584E-1	8.136113E-1	7.955176E-1	7.898918E-1	7.972212E-1	8.112994E-1	7.929452E-1	7.506286E-1	8.372470E-1	8.292936E-1	7.843521E-1	8.598432E-1	8.242792E-1	8.816943E-1
5.345110E+2	1.211496E+0	1.192870E+0	1.172735E+0	1.199155E+0	1.221149E+0	1.168630E+0	1.211815E+0	1.212652E+0	1.185746E+0	1.204237E+0	1.210480E+0	1.198583E+0	1.237056E+0	1.241310E+0	1.214449E+0	1.192416E+0	1.206753E+0	1.227746E+0	1.221212E+0	1.202911E+0	1.204160E+0	1.178199E+0	1.165742E+0	1.216836E+0	1.234391E+0	1.222760E+0	1.261448E+0	1.232093E+0	1.216702E+0	1.248123E+0	1.210266E+0	1.262002E+0	1.182986E+0	1.253154E+0	1.238525E+0	1.216822E+0	1.262756E+0	1.261946E+0	1.237115E+0	1.215419E+0	1.207927E+0	1.233711E+0	1.203670E+0	1.230585E+0	1.194892E+0	1.192870E+0	1.178734E+0	1.222890E+0	1.197866E+0	1.239737E+0	1.274005E+0	1.177346E+0	1.251106E+0	1.214061E+0	1.247493E+0	1.244817E+0	1.180734E+0	1.184212E+0	1.237047E+0	1.303203E+0	1.202479E+0	1.171459E+0	1.246178E+0	1.187168E+0	1.183392E+0	1.242747E+0	1.170851E+0	1.184458E+0	1.211998E+0	1.183089E+0	1.245847E+0	1.197290E+0	1.237503E+0	1.179123E+0	1.236339E+0	1.185924E+0	1.198035E+0	1.226184E+0	1.213586E+0	1.192899E+0	1.186982E+0	1.218727E+0	1.177978E+0	1.266581E+0	1.229128E+0	1.233490E+0	1.185778E+0	1.209479E+0	1.168334E+0	1.206152E+0	1.167855E+0	1.208678E+0	1.169998E+0	1.184144E+0	1.222833E+0	1.199879E+0	1.174993E+0	1.203976E+0	1.253458E+0	1.162769E+0	1.160597E+0	1.234038E+0	1.205155E+0	1.177968E+0	1.246860E+0	1.246086E+0	1.256405E+0	1.189824E+0	1.221483E+0	1.189293E+0	1.253506E+0	1.197857E+0	1.164215E+0	1.235883E+0	1.147218E+0	1.207663E+0	1.204425E+0	1.188041E+0	1.136249E+0	1.229593E+0	1.153416E+0	1.246530E+0	1.185754E+0	1.226612E+0	1.166519E+0	1.186035E+0	1.205596E+0	1.197202E+0	1.200453E+0	1.128335E+0	1.238279E+0	1.170625E+0	1.164069E+0	1.182524E+0	1.186757E+0	1.206716E+0	1.211889E+0	1.181339E+0	1.176149E+0	1.164255E+0	1.224768E+0	1.177087E+0	1.249233E+0	1.192310E+0	1.242612E+0	1.220016E+0	1.201635E+0	1.223124E+0	1.250378E+0	1.168379E+0	1.219536E+0	1.183218E+0	1.184740E+0	1.201170E+0	1.166000E+0	1.161618E+0	1.191543E+0	1.225359E+0	1.180279E+0	1.229047E+0	1.149069E+0	1.214224E+0	1.186661E+0	1.220300E+0	1.184398E+0	1.234247E+0	1.135882E+0	1.205705E+0	1.193062E+0	1.303552E+0
5.346620E+2	1.621625E+0	1.560445E+0	1.514675E+0	1.594603E+0	1.604837E+0	1.615950E+0	1.637421E+0	1.572795E+0	1.624363E+0	1.592157E+0	1.640784E+0	1.584529E+0	1.618434E+0	1.622643E+0	1.623615E+0	1.551466E+0	1.601116E+0	1.608559E+0	1.629253E+0	1.560844E+0	1.626610E+0	1.553862E+0	1.638633E+0	1.533627E+0	1.558329E+0	1.642918E+0	1.615927E+0	1.640263E+0	1.636937E+0	1.607979E+0	1.651125E+0	1.610006E+0	1.589354E+0	1.580524E+0	1.652716E+0	1.666465E+0	1.658260E+0	1.594754E+0	1.640271E+0	1.594649E+0	1.588674E+0	1.678474E+0	1.551886E+0	1.606580E+0	1.604261E+0	1.674201E+0	1.623489E+0	1.674094E+0	1.561667E+0	1.587174E+0	1.574510E+0	1.595902E+0	1.640929E+0	1.554622E+0	1.645760E+0	1.611290E+0	1.537547E+0	1.560940E+0	1.638361E+0	1.652102E+0	1.622719E+0	1.568421E+0	1.584000E+0	1.610997E+0	1.590619E+0	1.613248E+0	1.584580E+0	1.584638E+0	1.579655E+0	1.619329E+0	1.600573E+0	1.553214E+0	1.562290E+0	1.562800E+0	1.612865E+0	1.589487E+0	1.572645E+0	1.635638E+0	1.559403E+0	1.606816E+0	1.535304E+0	1.640266E+0	1.614266E+0	1.564252E+0	1.595821E+0	1.609908E+0	1.542229E+0	1.588837E+0	1.565204E+0	1.651308E+0	1.616681E+0	1.601418E+0	1.589612E+0	1.698423E+0	1.578426E+0	1.606409E+0	1.589227E+0	1.599361E+0	1.514608E+0	1.586325E+0	1.529108E+0	1.580435E+0	1.599257E+0	1.533394E+0	1.603729E+0	1.541812E+0	1.596195E+0	1.518040E+0	1.592412E+0	1.626095E+0	1.575867E+0	1.627234E+0	1.541842E+0	1.587773E+0	1.580411E+0	1.576247E+0	1.621450E+0	1.563451E+0	1.565489E+0	1.618741E+0	1.532131E+0	1.611486E+0	1.616422E+0	1.509528E+0	1.623215E+0	1.550610E+0	1.596979E+0	1.547076E+0	1.593914E+0	1.581510E+0	1.678814E+0	1.498301E+0	1.497013E+0	1.576302E+0	1.512240E+0	1.570781E+0	1.593406E+0	1.614015E+0	1.558379E+0	1.565041E+0	1.641111E+0	1.571445E+0	1.624154E+0	1.531497E+0	1.620611E+0	1.543539E+0	1.567790E+0	1.592444E+0	1.573975E+0	1.579603E+0	1.550681E+0	1.546895E+0	1.595421E+0	1.602557E+0	1.571394E+0	1.598941E+0	1.633544E+0	1.550622E+0	1.575261E+0	1.539901E+0	1.538408E+0	1.623684E+0	1.576169E+0	1.552615E+0	1.562599E+0	1.522271E+0	1.499677E+0	1.571275E+0	1.634737E+0	1.557120E+0
5.348070E+2	1.912379E+0	1.868750E+0	1.795312E+0	1.884465E+0	1.869313E+0	1.843934E+0	1.882746E+0	1.913543E+0	1.921457E+0	1.895639E+0	1.905281E+0	1.905489E+0	1.902992E+0	1.903527E+0	1.909275E+0	1.862632E+0	1.844284E+0	1.937101E+0	1.895871E+0	1.873160E+0	1.864708E+0	1.928264E+0	1.925676E+0	1.891284E+0	1.893084E+0	1.912139E+0	1.887022E+0	1.903136E+0	1.872693E+0	1.923515E+0	1.924004E+0	1.940107E+0	1.883854E+0	1.938587E+0	1.917938E+0	1.917177E+0	1.879341E+0	1.918237E+0	1.887716E+0	1.932046E+0	1.843776E+0	1.837760E+0	1.836593E+0	1.913949E+0	1.884149E+0	1.906507E+0	1.894424E+0	1.889788E+0	1.810903E+0	1.913772E+0	1.883441E+0	1.826601E+0	1.828813E+0	1.880980E+0	1.917444E+0	1.934714E+0	1.854993E+0	1.805173E+0	1.903611E+0	1.863896E+0	1.904490E+0	1.866424E+0	1.882367E+0	1.843335E+0	1.832301E+0	1.937491E+0	1.831152E+0	1.859539E+0	1.826472E+0	1.839185E+0	1.939262E+0	1.869606E+0	1.834273E+0	1.866331E+0	1.906063E+0	1.906508E+0	1.914848E+0	1.929911E+0	1.922497E+0	1.909370E+0	1.780065E+0	1.889341E+0	1.877682E+0	1.808339E+0	1.888347E+0	1.870729E+0	1.853496E+0	1.801984E+0	1.887647E+0	1.864799E+0	1.864438E+0	1.855548E+0	1.882177E+0	1.911343E+0	1.815536E+0	1.794013E+0	1.774519E+0	1.854204E+0	1.830022E+0	1.839618E+0	1.764015E+0	1.873830E+0	1.904740E+0	1.806112E+0	1.874902E+0	1.843554E+0	1.834174E+0	1.867818E+0	1.885156E+0	1.883856E+0	1.807475E+0	1.858863E+0	1.825766E+0	1.871109E+0	1.874487E+0	1.798374E+0	1.849761E+0	1.823577E+0	1.833917E+0	1.877519E+0	1.831180E+0	1.905034E+0	1.845908E+0	1.896752E+0	1.873966E+0	1.891362E+0	1.932407E+0	1.821613E+0	1.857047E+0	1.816120E+0	1.901817E+0	1.816688E+0	1.825153E+0	1.873597E+0	1.805174E+0	1.735035E+0	1.909180E+0	1.806309E+0	1.858578E+0	1.857348E+0	1.862382E+0	1.779351E+0	1.891178E+0	1.768631E+0	1.884342E+0	1.839734E+0	1.811987E+0	1.854833E+0	1.868348E+0	1.826543E+0	1.853277E+0	1.856387E+0	1.836432E+0	1.809495E+0	1.819035E+0	1.851369E+0	1.930440E+0	1.787730E+0	1.856572E+0	1.817144E+0	1.802340E+0	1.859637E+0	1.839191E+0	1.807290E+0	1.832518E+0	1.849809E+0	1.773184E+0	1.857461E+0	1.851036E+0	1.962892E+0
5.349580E+2	2.214091E+0	2.107089E+0	2.065922E+0	2.106770E+0	2.080533E+0	2.094829E+0	2.114735E+0	2.066011E+0	2.156797E+0	2.125220E+0	2.081034E+0	2.074409E+0	2.149794E+0	2.088686E+0	2.111136E+0	2.062066E+0	2.082558E+0	2.092678E+0	2.093359E+0	2.120205E+0	2.119488E+0	2.042579E+0	2.119718E+0	2.059077E+0	2.073790E+0	2.072546E+0	2.013585E+0	2.111209E+0	2.008921E+0	2.097484E+0	2.064558E+0	2.127530E+0	2.006744E+0	2.059467E+0	2.111302E+0	2.071893E+0	2.161777E+0	2.122151E+0	1.988599E+0	2.151424E+0	2.072706E+0	2.067144E+0	2.012002E+0	2.097709E+0	2.009446E+0	2.083729E+0	2.056987E+0	2.165914E+0	2.002878E+0	2.080145E+0	2.088395E+0	2.025314E+0	2.083174E+0	2.044921E+0	2.082261E+0	2.086738E+0	2.085630E+0	2.016589E+0	2.055016E+0	2.095914E+0	2.161917E+0	2.104142E+0	2.167398E+0	2.001953E+0	2.006696E+0	2.082760E+0	2.144936E+0	2.035706E+0	2.016261E+0	2.081019E+0	2.088448E+0	1.980530E+0	2.089781E+0	2.079254E+0	2.088541E+0	2.052003E+0	2.008437E+0	2.058102E+0	2.122101E+0	2.039487E+0	2.063057E+0	2.105352E+0	2.046909E+0	2.037232E+0	2.028712E+0	2.034970E+0	1.986981E+0	2.053559E+0	2.010517E+0	2.038525E+0	1.993749E+0	2.031777E+0	2.041487E+0	2.088026E+0	2.037773E+0	1.996884E+0	1.980900E+0	2.160087E+0	2.070582E+0	2.070695E+0	2.040644E+0	2.018830E+0	1.988745E+0	1.977037E+0	2.079974E+0	2.002290E+0	2.050390E+0	2.084334E+0	1.995984E+0	2.106180E+0	2.024316E+0	2.034564E+0	2.017948E+0	1.999477E+0	1.962661E+0	2.056590E+0	2.017125E+0	2.039243E+0	1.996162E+0	2.052374E+0	2.002657E+0	2.009258E+0	2.007962E+0	2.009616E+0	1.961761E+0	2.028731E+0	2.038813E+0	1.964314E+0	2.030984E+0	1.993152E+0	2.037204E+0	2.020579E+0	1.983615E+0	2.014334E+0	1.993981E+0	2.003652E+0	2.020037E+0	1.992078E+0	1.982633E+0	1.995789E+0	2.013131E+0	2.030250E+0	2.061083E+0	2.048681E+0	2.052116E+0	2.072736E+0	2.034489E+0	1.983508E+0	2.026122E+0	1.968843E+0	2.029155E+0	2.040634E+0	2.027403E+0	2.005272E+0	2.000532E+0	1.989962E+0	2.035995E+0	1.992272E+0	2.018443E+0	1.962565E+0	1.926214E+0	2.016929E+0	2.026246E+0	2.000199E+0	1.993125E+0	2.008640E+0	1.979652E+0	2.022338E+0	2.130450E+0	2.136107E+0
5.351140E+2	2.150014E+0	2.025802E+0	2.011668E+0	2.057339E+0	2.116738E+0	2.035247E+0	2.061322E+0	2.044174E+0	2.054356E+0	2.075262E+0	2.089515E+0	2.114520E+0	2.098665E+0	2.081886E+0	2.059381E+0	2.033339E+0	2.000734E+0	2.043410E+0	2.055782E+0	2.091774E+0	2.051481E+0	2.065129E+0	2.086949E+0	2.018461E+0	2.055949E+0	2.020627E+0	2.056238E+0	2.093201E+0	2.045203E+0	2.062657E+0	2.028735E+0	2.058442E+0	1.947644E+0	2.019143E+0	2.072425E+0	2.099915E+0	2.057453E+0	2.080687E+0	2.083906E+0	2.142991E+0	2.098160E+0	2.056073E+0	2.003835E+0	2.057175E+0	2.033284E+0	2.118427E+0	2.042328E+0	2.030888E+0	1.972622E+0	2.111869E+0	2.089970E+0	2.102609E+0	2.007093E+0	2.036208E+0	2.035212E+0	2.096848E+0	2.026701E+0	2.046773E+0	2.030241E+0	2.060584E+0	2.049089E+0	2.080781E+0	2.065401E+0	2.016873E+0	2.010162E+0	2.074328E+0	2.049368E+0	2.001964E+0	2.047286E+0	2.043536E+0	2.064085E+0	2.049015E+0	2.021703E+0	1.984836E+0	2.158619E+0	2.046568E+0	2.056615E+0	2.020910E+0	2.019345E+0	2.109341E+0	1.980162E+0	2.071605E+0	1.959715E+0	2.121560E+0	1.977118E+0	2.069065E+0	2.020640E+0	1.949764E+0	2.042327E+0	2.040968E+0	1.963051E+0	2.016589E+0	2.088637E+0	2.070791E+0	2.042448E+0	2.039015E+0	1.943657E+0	2.083207E+0	1.999322E+0	1.990051E+0	1.965395E+0	2.024134E+0	2.018046E+0	1.938574E+0	2.075091E+0	1.930282E+0	2.115895E+0	2.003525E+0	2.010399E+0	2.098784E+0	2.025502E+0	1.988941E+0	1.973939E+0	1.983756E+0	2.040720E+0	2.004221E+0	1.958905E+0	2.036504E+0	1.967233E+0	2.055300E+0	1.991409E+0	2.044358E+0	2.043134E+0	1.993823E+0	2.007559E+0	2.025317E+0	2.050716E+0	1.947834E+0	1.960880E+0	2.025288E+0	1.987383E+0	1.986214E+0	1.997557E+0	1.947482E+0	1.984834E+0	1.984276E+0	2.009081E+0	2.027804E+0	2.018975E+0	1.947370E+0	2.031726E+0	2.008638E+0	1.996430E+0	2.018714E+0	2.059196E+0	2.086091E+0	2.027082E+0	2.008531E+0	1.984471E+0	2.004273E+0	2.019337E+0	1.986425E+0	2.003349E+0	2.005177E+0	1.979241E+0	2.033609E+0	1.925374E+0	2.040429E+0	2.000874E+0	1.986088E+0	1.928593E+0	2.018474E+0	1.972223E+0	1.963903E+0	1.992916E+0	1.938107E+0	1.991170E+0	1.999997E+0	1.929932E+0	2.014030E+0
5.352600E+2	1.983295E+0	1.876365E+0	1.831680E+0	1.868843E+0	1.918877E+0	1.852355E+0	1.898191E+0	1.875478E+0	1.913411E+0	1.928993E+0	1.855306E+0	1.882098E+0	1.898399E+0	1.844234E+0	1.910212E+0	1.863163E+0	1.857950E+0	1.933098E+0	1.919999E+0	1.835722E+0	1.908963E+0	1.838587E+0	1.901003E+0	1.865314E+0	1.837451E+0	1.853881E+0	1.788283E+0	1.833995E+0	1.838033E+0	1.838762E+0	1.883671E+0	1.895167E+0	1.804915E+0	1.831121E+0	1.917093E+0	1.897103E+0	1.869988E+0	1.915915E+0	1.838374E+0	1.871310E+0	1.904853E+0	1.895507E+0	1.806993E+0	1.901442E+0	1.827252E+0	1.891889E+0	1.850443E+0	1.881182E+0	1.775519E+0	1.834465E+0	1.820272E+0	1.857660E+0	1.862400E+0	1.846003E+0	1.874453E+0	1.896174E+0	1.832009E+0	1.797538E+0	1.911615E+0	1.848591E+0	1.899100E+0	1.883036E+0	1.869544E+0	1.836753E+0	1.827575E+0	1.864817E+0	1.923089E+0	1.828869E+0	1.833444E+0	1.851918E+0	1.904694E+0	1.846624E+0	1.863027E+0	1.823405E+0	1.808192E+0	1.874627E+0	1.858635E+0	1.842582E+0	1.859948E+0	1.825337E+0	1.858224E+0	1.855432E+0	1.908318E+0	1.840099E+0	1.818775E+0	1.877659E+0	1.789265E+0	1.845987E+0	1.797640E+0	1.892605E+0	1.853793E+0	1.791215E+0	1.847339E+0	1.853463E+0	1.826622E+0	1.882613E+0	1.762197E+0	1.871611E+0	1.888565E+0	1.897097E+0	1.790563E+0	1.859948E+0	1.897913E+0	1.837188E+0	1.925444E+0	1.827632E+0	1.875197E+0	1.774430E+0	1.847519E+0	1.813987E+0	1.864257E+0	1.839652E+0	1.763024E+0	1.825505E+0	1.852884E+0	1.809253E+0	1.820900E+0	1.854560E+0	1.840592E+0	1.846170E+0	1.832326E+0	1.855819E+0	1.801708E+0	1.872554E+0	1.826819E+0	1.906449E+0	1.879759E+0	1.799357E+0	1.825526E+0	1.852839E+0	1.897575E+0	1.861538E+0	1.776547E+0	1.857923E+0	1.813113E+0	1.759956E+0	1.826648E+0	1.808027E+0	1.840674E+0	1.783867E+0	1.761004E+0	1.807916E+0	1.889868E+0	1.838354E+0	1.870542E+0	1.825841E+0	1.779784E+0	1.781464E+0	1.745596E+0	1.829350E+0	1.822410E+0	1.856865E+0	1.806722E+0	1.854936E+0	1.838496E+0	1.791357E+0	1.829786E+0	1.838224E+0	1.838729E+0	1.739985E+0	1.785853E+0	1.917624E+0	1.796371E+0	1.794434E+0	1.807942E+0	1.798199E+0	1.818160E+0	1.786876E+0	1.843489E+0	1.887143E+0
5.354060E+2	1.639635E+0	1.577837E+0	1.528277E+0	1.557255E+0	1.624571E+0	1.527402E+0	1.589723E+0	1.535358E+0	1.671756E+0	1.569831E+0	1.586166E+0	1.619985E+0	1.567508E+0	1.646199E+0	1.539801E+0	1.597659E+0	1.551274E+0	1.566427E+0	1.586810E+0	1.561411E+0	1.588995E+0	1.543200E+0	1.562558E+0	1.543669E+0	1.576670E+0	1.567392E+0	1.550777E+0	1.592549E+0	1.562807E+0	1.570964E+0	1.597568E+0	1.565362E+0	1.531287E+0	1.592548E+0	1.608345E+0	1.594994E+0	1.581023E+0	1.576979E+0	1.580121E+0	1.598272E+0	1.658716E+0	1.628939E+0	1.621067E+0	1.576166E+0	1.563470E+0	1.604045E+0	1.576200E+0	1.579193E+0	1.547861E+0	1.523641E+0	1.560791E+0	1.513633E+0	1.532976E+0	1.552377E+0	1.640954E+0	1.563628E+0	1.503703E+0	1.568281E+0	1.534455E+0	1.563944E+0	1.576621E+0	1.581124E+0	1.564050E+0	1.519261E+0	1.543176E+0	1.581307E+0	1.561739E+0	1.551580E+0	1.533624E+0	1.552866E+0	1.626638E+0	1.540571E+0	1.557006E+0	1.540520E+0	1.584140E+0	1.593040E+0	1.514457E+0	1.621647E+0	1.602993E+0	1.560251E+0	1.549365E+0	1.583151E+0	1.616697E+0	1.606459E+0	1.548660E+0	1.544778E+0	1.561771E+0	1.522175E+0	1.556758E+0	1.581646E+0	1.574782E+0	1.566142E+0	1.605207E+0	1.570813E+0	1.579122E+0	1.573721E+0	1.572001E+0	1.543629E+0	1.504163E+0	1.546060E+0	1.524429E+0	1.557013E+0	1.564465E+0	1.528588E+0	1.557379E+0	1.566441E+0	1.575261E+0	1.541784E+0	1.550110E+0	1.561175E+0	1.562237E+0	1.578869E+0	1.520262E+0	1.561009E+0	1.544114E+0	1.502080E+0	1.578844E+0	1.526956E+0	1.541264E+0	1.554090E+0	1.587337E+0	1.576304E+0	1.524200E+0	1.520665E+0	1.500018E+0	1.553771E+0	1.568274E+0	1.522213E+0	1.472237E+0	1.545508E+0	1.622624E+0	1.529832E+0	1.514482E+0	1.531692E+0	1.518581E+0	1.471652E+0	1.540625E+0	1.552599E+0	1.543160E+0	1.596489E+0	1.561357E+0	1.572020E+0	1.544785E+0	1.479140E+0	1.607024E+0	1.549665E+0	1.584151E+0	1.570384E+0	1.579224E+0	1.564316E+0	1.568760E+0	1.532942E+0	1.551073E+0	1.622678E+0	1.534345E+0	1.542624E+0	1.600286E+0	1.564268E+0	1.534231E+0	1.553479E+0	1.537340E+0	1.613644E+0	1.542000E+0	1.474855E+0	1.567833E+0	1.556946E+0	1.522109E+0	1.552155E+0	1.530781E+0	1.549698E+0
5.355630E+2	1.394400E+0	1.276122E+0	1.279186E+0	1.309251E+0	1.306450E+0	1.279567E+0	1.332760E+0	1.305860E+0	1.336427E+0	1.310388E+0	1.322931E+0	1.280520E+0	1.332176E+0	1.276630E+0	1.326983E+0	1.333556E+0	1.309864E+0	1.268425E+0	1.258568E+0	1.269033E+0	1.299721E+0	1.292417E+0	1.299926E+0	1.281304E+0	1.227175E+0	1.244690E+0	1.322298E+0	1.337534E+0	1.268037E+0	1.280107E+0	1.272337E+0	1.285517E+0	1.278751E+0	1.300099E+0	1.316574E+0	1.275475E+0	1.320220E+0	1.307976E+0	1.261278E+0	1.299445E+0	1.343419E+0	1.279453E+0	1.303343E+0	1.322605E+0	1.307325E+0	1.286248E+0	1.319585E+0	1.313200E+0	1.214496E+0	1.344067E+0	1.241180E+0	1.272616E+0	1.292902E+0	1.344003E+0	1.313547E+0	1.272762E+0	1.325308E+0	1.283493E+0	1.339066E+0	1.283844E+0	1.273145E+0	1.240984E+0	1.297751E+0	1.288172E+0	1.271162E+0	1.335078E+0	1.305596E+0	1.290336E+0	1.237176E+0	1.300088E+0	1.278410E+0	1.262336E+0	1.270337E+0	1.275783E+0	1.312095E+0	1.249387E+0	1.258067E+0	1.296818E+0	1.258355E+0	1.299555E+0	1.282656E+0	1.271102E+0	1.302859E+0	1.273656E+0	1.317897E+0	1.315913E+0	1.292661E+0	1.269140E+0	1.321145E+0	1.359018E+0	1.250125E+0	1.304416E+0	1.302679E+0	1.306786E+0	1.314831E+0	1.282426E+0	1.217603E+0	1.345989E+0	1.256765E+0	1.293311E+0	1.306225E+0	1.286044E+0	1.280346E+0	1.274564E+0	1.274155E+0	1.286066E+0	1.302696E+0	1.273016E+0	1.279067E+0	1.331031E+0	1.323578E+0	1.321899E+0	1.276288E+0	1.243004E+0	1.242452E+0	1.325350E+0	1.243774E+0	1.307615E+0	1.261957E+0	1.297031E+0	1.261944E+0	1.298648E+0	1.329856E+0	1.307563E+0	1.290087E+0	1.315498E+0	1.310882E+0	1.283712E+0	1.204776E+0	1.272833E+0	1.317175E+0	1.267694E+0	1.263997E+0	1.267080E+0	1.279384E+0	1.223977E+0	1.280521E+0	1.332211E+0	1.292510E+0	1.316090E+0	1.308004E+0	1.260002E+0	1.319885E+0	1.273531E+0	1.393322E+0	1.373069E+0	1.299639E+0	1.280832E+0	1.286077E+0	1.281560E+0	1.306576E+0	1.275249E+0	1.291042E+0	1.259896E+0	1.241438E+0	1.287646E+0	1.254912E+0	1.275762E+0	1.318552E+0	1.247872E+0	1.247991E+0	1.307771E+0	1.271529E+0	1.237310E+0	1.313056E+0	1.287115E+0	1.238172E+0	1.294084E+0	1.243822E+0	1.312085E+0
5.357140E+2	1.179752E+0	1.114516E+0	1.089992E+0	1.123285E+0	1.153710E+0	1.114514E+0	1.121973E+0	1.085247E+0	1.159946E+0	1.080091E+0	1.098320E+0	1.109516E+0	1.159278E+0	1.116737E+0	1.113451E+0	1.140091E+0	1.095542E+0	1.107676E+0	1.119519E+0	1.128909E+0	1.137147E+0	1.102852E+0	1.107776E+0	1.082004E+0	1.118694E+0	1.081034E+0	1.071586E+0	1.097791E+0	1.075375E+0	1.079746E+0	1.091352E+0	1.115980E+0	1.097472E+0	1.106052E+0	1.148347E+0	1.112072E+0	1.096230E+0	1.130811E+0	1.085140E+0	1.075517E+0	1.107736E+0	1.170511E+0	1.104064E+0	1.095642E+0	1.101421E+0	1.080918E+0	1.102026E+0	1.111486E+0	1.077228E+0	1.097242E+0	1.058127E+0	1.071169E+0	1.057595E+0	1.098926E+0	1.110934E+0	1.138210E+0	1.079841E+0	1.077314E+0	1.098681E+0	1.100881E+0	1.135475E+0	1.113661E+0	1.106766E+0	1.098906E+0	1.064768E+0	1.100555E+0	1.088959E+0	1.056595E+0	1.069676E+0	1.050218E+0	1.120536E+0	1.068668E+0	1.116434E+0	1.108720E+0	1.121285E+0	1.097920E+0	1.069835E+0	1.080232E+0	1.122413E+0	1.125787E+0	1.055774E+0	1.117835E+0	1.142693E+0	1.124894E+0	1.073294E+0	1.126979E+0	1.104110E+0	1.085310E+0	1.101411E+0	1.112270E+0	1.101263E+0	1.063067E+0	1.112044E+0	1.137775E+0	1.088250E+0	1.140041E+0	1.079821E+0	1.086119E+0	1.100769E+0	1.089794E+0	1.055453E+0	1.079637E+0	1.103807E+0	1.138234E+0	1.095259E+0	1.126052E+0	1.117494E+0	1.094260E+0	1.113881E+0	1.120728E+0	1.087055E+0	1.120455E+0	1.076760E+0	1.054946E+0	1.117327E+0	1.104564E+0	1.121626E+0	1.110065E+0	1.107031E+0	1.129006E+0	1.072927E+0	1.095075E+0	1.133965E+0	1.110161E+0	1.128192E+0	1.121497E+0	1.107506E+0	1.079710E+0	1.074771E+0	1.097314E+0	1.127761E+0	1.076816E+0	1.055601E+0	1.103283E+0	1.060957E+0	1.051971E+0	1.065762E+0	1.141367E+0	1.101758E+0	1.111156E+0	1.129905E+0	1.068912E+0	1.104496E+0	1.065035E+0	1.116722E+0	1.139248E+0	1.126649E+0	1.088858E+0	1.087446E+0	1.101139E+0	1.121026E+0	1.087275E+0	1.114750E+0	1.119214E+0	1.116087E+0	1.066509E+0	1.073303E+0	1.111436E+0	1.073853E+0	1.073132E+0	1.051193E+0	1.099309E+0	1.101619E+0	1.139715E+0	1.086955E+0	1.097439E+0	1.088453E+0	1.076536E+0	1.077115E+0	1.054752E+0
5.358600E+2	9.580675E-1	9.118456E-1	9.064694E-1	9.198585E-1	9.696416E-1	8.998674E-1	8.953370E-1	9.327552E-1	9.797647E-1	9.516714E-1	9.151897E-1	9.831643E-1	9.398232E-1	9.267373E-1	9.186843E-1	9.924124E-1	9.478351E-1	9.698983E-1	8.986545E-1	9.669876E-1	9.639105E-1	9.922921E-1	9.515133E-1	9.709130E-1	9.653060E-1	9.835876E-1	9.340599E-1	9.707716E-1	9.643800E-1	9.265186E-1	9.462204E-1	9.699158E-1	9.918248E-1	9.267238E-1	9.609325E-1	9.049723E-1	9.164875E-1	9.174314E-1	9.163113E-1	9.587893E-1	9.790826E-1	1.010751E+0	9.404520E-1	9.436609E-1	9.085594E-1	9.643725E-1	9.516273E-1	9.604328E-1	8.890429E-1	9.394568E-1	9.498638E-1	9.282018E-1	9.337064E-1	9.623832E-1	9.752017E-1	9.541359E-1	9.248201E-1	9.152464E-1	9.996767E-1	9.379121E-1	9.291388E-1	9.425002E-1	9.629664E-1	9.320065E-1	8.892017E-1	9.750223E-1	9.160519E-1	9.485837E-1	9.138249E-1	9.340923E-1	9.129340E-1	9.416124E-1	9.378367E-1	9.151227E-1	9.654050E-1	9.109876E-1	9.354595E-1	9.239527E-1	9.575861E-1	9.213136E-1	9.559083E-1	9.256770E-1	9.871318E-1	9.389738E-1	9.524917E-1	9.448105E-1	9.416988E-1	9.529897E-1	9.955611E-1	9.435066E-1	9.640336E-1	9.511286E-1	9.541604E-1	9.310369E-1	9.604255E-1	9.602633E-1	9.836234E-1	9.263671E-1	9.540486E-1	9.464307E-1	9.392199E-1	9.527450E-1	1.003187E+0	9.296523E-1	9.994100E-1	9.281277E-1	1.004246E+0	9.513349E-1	9.234822E-1	9.792875E-1	9.765383E-1	9.662271E-1	9.093959E-1	9.661330E-1	9.385708E-1	9.702315E-1	9.601967E-1	9.186743E-1	9.476137E-1	9.636534E-1	9.700170E-1	9.524408E-1	8.751008E-1	9.624462E-1	9.243986E-1	9.570797E-1	9.618205E-1	9.312200E-1	9.402990E-1	9.387622E-1	9.449845E-1	9.399848E-1	9.610963E-1	9.264834E-1	9.525366E-1	9.064752E-1	9.556890E-1	1.008264E+0	9.839793E-1	9.788534E-1	9.434231E-1	9.740191E-1	9.324618E-1	9.471735E-1	9.259716E-1	9.437172E-1	9.742886E-1	9.522815E-1	9.981007E-1	9.578100E-1	9.469354E-1	9.477618E-1	9.825918E-1	9.413690E-1	9.449122E-1	9.687160E-1	9.354793E-1	9.789676E-1	9.568843E-1	9.515086E-1	9.572367E-1	9.521632E-1	1.006130E+0	9.191862E-1	9.623892E-1	9.846690E-1	9.185671E-1	9.381379E-1	9.478720E-1	9.765585E-1
5.360070E+2	8.647160E-1	8.026895E-1	7.746808E-1	7.958867E-1	8.002594E-1	7.785256E-1	8.369491E-1	8.220639E-1	8.390871E-1	8.533720E-1	8.350528E-1	7.892528E-1	8.165048E-1	8.044894E-1	8.244286E-1	8.210971E-1	8.176888E-1	8.170118E-1	8.172093E-1	8.295697E-1	8.063621E-1	8.307247E-1	8.236453E-1	7.685937E-1	8.241315E-1	8.203984E-1	7.808570E-1	8.556004E-1	7.556534E-1	8.361379E-1	8.133228E-1	8.161089E-1	7.762450E-1	8.168799E-1	8.271219E-1	8.095358E-1	8.018013E-1	7.758381E-1	8.280060E-1	8.309877E-1	8.531724E-1	8.356462E-1	8.369284E-1	8.281832E-1	8.235397E-1	7.573467E-1	8.178599E-1	8.346310E-1	7.689066E-1	7.943907E-1	8.142097E-1	8.341017E-1	7.769564E-1	7.943916E-1	8.181588E-1	8.247949E-1	8.007068E-1	8.165293E-1	8.049161E-1	7.625886E-1	8.122986E-1	7.977386E-1	8.266237E-1	7.992672E-1	8.073437E-1	7.580627E-1	8.195699E-1	8.051442E-1	8.166883E-1	7.774872E-1	7.931783E-1	7.774388E-1	7.653976E-1	8.261638E-1	8.160508E-1	8.223964E-1	8.157150E-1	8.201329E-1	8.289238E-1	8.724938E-1	7.746707E-1	7.909470E-1	8.289849E-1	7.905752E-1	7.942225E-1	7.865801E-1	8.206308E-1	8.340345E-1	8.047669E-1	8.433000E-1	8.018002E-1	8.164213E-1	8.284642E-1	7.875928E-1	8.182662E-1	8.497988E-1	8.013090E-1	7.822782E-1	8.776885E-1	8.127066E-1	8.081644E-1	7.905804E-1	8.272098E-1	8.083856E-1	7.892104E-1	8.005788E-1	8.497135E-1	7.959455E-1	8.243044E-1	7.804561E-1	8.737939E-1	8.432258E-1	7.977918E-1	8.062902E-1	8.467960E-1	8.276162E-1	8.293811E-1	7.774289E-1	8.382306E-1	8.434902E-1	8.420486E-1	8.381881E-1	8.492718E-1	8.123757E-1	8.095274E-1	7.722622E-1	8.044185E-1	7.931818E-1	7.758923E-1	8.047145E-1	8.525617E-1	8.506731E-1	8.355261E-1	8.082663E-1	8.279865E-1	7.930747E-1	7.980678E-1	8.066949E-1	8.066123E-1	8.160801E-1	7.965341E-1	8.117990E-1	8.094741E-1	7.927879E-1	8.223555E-1	8.148682E-1	8.765991E-1	7.462441E-1	8.205534E-1	8.180145E-1	7.577848E-1	7.986971E-1	8.166040E-1	8.236424E-1	8.116751E-1	8.317371E-1	8.011422E-1	8.436837E-1	8.023561E-1	8.001912E-1	8.158468E-1	8.433542E-1	8.031383E-1	8.249646E-1	8.012108E-1	8.379045E-1	8.066469E-1	8.043753E-1	7.611097E-1	8.067838E-1
5.362680E+2	6.833548E-1	6.582421E-1	5.863225E-1	6.174258E-1	6.426576E-1	6.230370E-1	6.308546E-1	6.301331E-1	6.405337E-1	5.954859E-1	6.396745E-1	6.393881E-1	6.639279E-1	6.274013E-1	5.996552E-1	6.439596E-1	6.418779E-1	6.230751E-1	6.364080E-1	6.291777E-1	6.087908E-1	6.366287E-1	6.381899E-1	6.402952E-1	6.026962E-1	6.343504E-1	6.145337E-1	5.996996E-1	6.151709E-1	6.354248E-1	6.641630E-1	6.283933E-1	6.204228E-1	6.472961E-1	6.099445E-1	6.697483E-1	6.450086E-1	6.453985E-1	6.253500E-1	6.215835E-1	6.453290E-1	6.703131E-1	6.363736E-1	6.472218E-1	6.131880E-1	6.743458E-1	6.453507E-1	6.466635E-1	6.090568E-1	6.004707E-1	6.290082E-1	6.249769E-1	6.362405E-1	6.408693E-1	6.495173E-1	6.366855E-1	6.192513E-1	5.995645E-1	6.023727E-1	6.373468E-1	6.480335E-1	5.994136E-1	6.418160E-1	6.353144E-1	6.151648E-1	6.390415E-1	6.227248E-1	6.245070E-1	6.093823E-1	6.352327E-1	6.415876E-1	6.354976E-1	6.043260E-1	6.366675E-1	6.321726E-1	6.395978E-1	6.141927E-1	6.561467E-1	6.440200E-1	6.533401E-1	6.146639E-1	6.132392E-1	6.586383E-1	6.284551E-1	6.525237E-1	6.580057E-1	6.264796E-1	6.356261E-1	6.145914E-1	6.483244E-1	6.383285E-1	6.312012E-1	6.433246E-1	6.488654E-1	6.581540E-1	6.447618E-1	6.395105E-1	6.575829E-1	6.477709E-1	6.273578E-1	6.620163E-1	6.195242E-1	6.238597E-1	5.989454E-1	6.490532E-1	6.501893E-1	6.496920E-1	6.650134E-1	6.163881E-1	6.122742E-1	6.237992E-1	6.626606E-1	6.045830E-1	6.316735E-1	6.399272E-1	6.501660E-1	6.325271E-1	6.688545E-1	6.306791E-1	6.447394E-1	6.384143E-1	6.322262E-1	6.674494E-1	6.266083E-1	6.560644E-1	6.582735E-1	6.427678E-1	6.582649E-1	6.414742E-1	6.547034E-1	6.713710E-1	6.131413E-1	6.263869E-1	5.991568E-1	5.994196E-1	6.409097E-1	6.413723E-1	6.404092E-1	6.491747E-1	6.384928E-1	6.477516E-1	6.487081E-1	7.081868E-1	6.577859E-1	6.768322E-1	6.351683E-1	6.438440E-1	6.797089E-1	6.375277E-1	6.528938E-1	6.461498E-1	6.258312E-1	6.255070E-1	6.617635E-1	6.334627E-1	6.132976E-1	6.382572E-1	6.430309E-1	6.430721E-1	6.602650E-1	6.292147E-1	6.440692E-1	6.473112E-1	6.286748E-1	6.493452E-1	6.703177E-1	6.257727E-1	6.967295E-1	7.101975E-1	6.546383E-1
5.365140E+2	5.392484E-1	5.244749E-1	5.241033E-1	5.402936E-1	5.300623E-1	4.913196E-1	5.272547E-1	5.127713E-1	5.003691E-1	5.057919E-1	5.614760E-1	5.127757E-1	5.222737E-1	5.399634E-1	5.032518E-1	5.206880E-1	5.225347E-1	5.045546E-1	5.258667E-1	5.160464E-1	5.213447E-1	5.341514E-1	5.299107E-1	5.296405E-1	5.186493E-1	5.398290E-1	5.389808E-1	5.199144E-1	5.513287E-1	5.260925E-1	5.552840E-1	5.457247E-1	5.026157E-1	5.163022E-1	5.767392E-1	5.287836E-1	5.466602E-1	5.631331E-1	5.584671E-1	5.316333E-1	5.600701E-1	5.292691E-1	5.359580E-1	5.040691E-1	5.262518E-1	5.357624E-1	5.200340E-1	5.190862E-1	5.270410E-1	5.335870E-1	5.551862E-1	5.329112E-1	5.436441E-1	5.399494E-1	5.332727E-1	5.544539E-1	5.107290E-1	5.524790E-1	5.394287E-1	5.500592E-1	5.401156E-1	5.151517E-1	5.489448E-1	5.415909E-1	5.521470E-1	5.421077E-1	5.455220E-1	5.491177E-1	5.442783E-1	5.560267E-1	5.405486E-1	5.295378E-1	5.519789E-1	5.298685E-1	5.556808E-1	5.071863E-1	5.330373E-1	5.438417E-1	5.334837E-1	5.078081E-1	5.249330E-1	5.153086E-1	5.512067E-1	5.593003E-1	5.229602E-1	5.362435E-1	5.158833E-1	5.182421E-1	5.444815E-1	5.462105E-1	5.485598E-1	4.914497E-1	5.573731E-1	5.458960E-1	5.318225E-1	5.363999E-1	5.352724E-1	5.359139E-1	5.067486E-1	5.334695E-1	5.427311E-1	5.547885E-1	5.286140E-1	5.401912E-1	5.905940E-1	5.117823E-1	5.388597E-1	5.110610E-1	5.299135E-1	5.203001E-1	5.626951E-1	5.372414E-1	5.594774E-1	5.241722E-1	5.305536E-1	5.666614E-1	5.299425E-1	5.204783E-1	5.343971E-1	5.446766E-1	4.986128E-1	5.743666E-1	5.462372E-1	5.511626E-1	5.462851E-1	5.309750E-1	5.623382E-1	5.051489E-1	5.421474E-1	5.383774E-1	5.677059E-1	5.306452E-1	5.582869E-1	5.220745E-1	5.619696E-1	5.414078E-1	5.186020E-1	5.420817E-1	5.417127E-1	5.286173E-1	5.397612E-1	4.963973E-1	6.157924E-1	5.573159E-1	5.424950E-1	5.299975E-1	5.426645E-1	5.494080E-1	5.206738E-1	5.290789E-1	5.164258E-1	5.178571E-1	5.349146E-1	5.409044E-1	5.306573E-1	5.307595E-1	5.486372E-1	5.335220E-1	5.537282E-1	5.451963E-1	5.554261E-1	5.448819E-1	5.357704E-1	5.451408E-1	5.320338E-1	5.220988E-1	5.458106E-1	5.139055E-1	5.943141E-1	5.001330E-1
5.367710E+2	5.220565E-1	5.055379E-1	4.772655E-1	4.751778E-1	4.864409E-1	4.953089E-1	4.997164E-1	5.018330E-1	5.325442E-1	5.271098E-1	4.940656E-1	4.895235E-1	5.052551E-1	4.848444E-1	5.111819E-1	5.252332E-1	4.978740E-1	5.186767E-1	5.087361E-1	5.113366E-1	5.290525E-1	4.966613E-1	5.136536E-1	5.216404E-1	4.953390E-1	5.394578E-1	5.086688E-1	5.433050E-1	5.343299E-1	5.125084E-1	5.166581E-1	5.213332E-1	5.186588E-1	4.966508E-1	5.301216E-1	5.045410E-1	5.286772E-1	5.055458E-1	5.320375E-1	5.214289E-1	5.021125E-1	5.300786E-1	4.884731E-1	5.158329E-1	4.976442E-1	5.354090E-1	5.118248E-1	5.062630E-1	5.130249E-1	5.245610E-1	5.245619E-1	4.928175E-1	5.034025E-1	4.965390E-1	4.831758E-1	5.325665E-1	4.988527E-1	5.109941E-1	5.207139E-1	5.226378E-1	4.990007E-1	4.946912E-1	4.844830E-1	5.009797E-1	5.295742E-1	4.601794E-1	5.391538E-1	5.301454E-1	4.988658E-1	5.111550E-1	5.188929E-1	5.127905E-1	4.821652E-1	4.851359E-1	5.294929E-1	5.228437E-1	5.213412E-1	5.249934E-1	5.295416E-1	5.177830E-1	4.776724E-1	4.895713E-1	5.522285E-1	5.061427E-1	4.948423E-1	4.947018E-1	5.426309E-1	5.254273E-1	5.254478E-1	5.284990E-1	5.049159E-1	5.311777E-1	5.165794E-1	5.129282E-1	5.394193E-1	5.093244E-1	5.365458E-1	5.067174E-1	5.068496E-1	5.246561E-1	5.097665E-1	5.126792E-1	5.340520E-1	4.900622E-1	5.269072E-1	5.013529E-1	5.320727E-1	5.158026E-1	5.086389E-1	5.054239E-1	5.249689E-1	5.289544E-1	5.050720E-1	5.283714E-1	5.248271E-1	5.299189E-1	5.235294E-1	5.013051E-1	5.525960E-1	5.312101E-1	4.983449E-1	5.157937E-1	4.873576E-1	4.720567E-1	5.051366E-1	5.140092E-1	5.314896E-1	5.167536E-1	4.908118E-1	4.926436E-1	5.517127E-1	5.285590E-1	4.977432E-1	4.805938E-1	5.164154E-1	4.846456E-1	5.061319E-1	5.274155E-1	5.217915E-1	5.035097E-1	5.171166E-1	5.309313E-1	5.393496E-1	5.067949E-1	5.272321E-1	5.325454E-1	5.117361E-1	5.327222E-1	5.197486E-1	5.127475E-1	5.533025E-1	5.203707E-1	5.045277E-1	5.007390E-1	4.997886E-1	4.979258E-1	5.187705E-1	5.008123E-1	5.137375E-1	4.879036E-1	4.846083E-1	4.959738E-1	5.421267E-1	5.071906E-1	5.359883E-1	5.360494E-1	4.779205E-1	5.191458E-1	5.165934E-1	5.473250E-1
5.370170E+2	5.494315E-1	5.515232E-1	5.284816E-1	5.384633E-1	5.580315E-1	5.430772E-1	5.683894E-1	5.315202E-1	5.770673E-1	5.666678E-1	5.571564E-1	5.241506E-1	5.490777E-1	5.438972E-1	5.370187E-1	5.200386E-1	5.537550E-1	5.582798E-1	5.582958E-1	5.478158E-1	5.547548E-1	5.480091E-1	5.668357E-1	5.271236E-1	5.323119E-1	5.453398E-1	5.697218E-1	5.532082E-1	5.236826E-1	5.677989E-1	5.517652E-1	5.600790E-1	5.428830E-1	5.623489E-1	5.848345E-1	5.747238E-1	5.381051E-1	5.680412E-1	5.655397E-1	5.428997E-1	5.775451E-1	5.628228E-1	5.895341E-1	5.850829E-1	5.738143E-1	5.609996E-1	5.530724E-1	5.515935E-1	5.231559E-1	5.570187E-1	5.496503E-1	5.521714E-1	5.888272E-1	5.591887E-1	5.760527E-1	5.765937E-1	5.282380E-1	5.271094E-1	5.789503E-1	5.376478E-1	5.588242E-1	5.449839E-1	5.911271E-1	5.608097E-1	5.375252E-1	5.372314E-1	5.748328E-1	5.478056E-1	5.470815E-1	5.564117E-1	5.666108E-1	5.360491E-1	5.611998E-1	5.429090E-1	5.591567E-1	5.411621E-1	4.913556E-1	5.616751E-1	5.667350E-1	5.605435E-1	5.722452E-1	5.665228E-1	6.095448E-1	5.683654E-1	5.462118E-1	5.863015E-1	5.786081E-1	6.098861E-1	5.240552E-1	5.992993E-1	5.028998E-1	5.238371E-1	5.476228E-1	5.530284E-1	5.482497E-1	5.606829E-1	5.093285E-1	5.480576E-1	5.492421E-1	5.558025E-1	5.710569E-1	5.855380E-1	5.596549E-1	5.411604E-1	5.516663E-1	5.674998E-1	5.693675E-1	5.613145E-1	5.814619E-1	5.404381E-1	5.593580E-1	5.855184E-1	5.499097E-1	5.802054E-1	5.163569E-1	5.707058E-1	5.422200E-1	5.994679E-1	5.772011E-1	5.766987E-1	5.446937E-1	5.543004E-1	5.834288E-1	5.600249E-1	5.745013E-1	5.574381E-1	5.825632E-1	5.519051E-1	5.349858E-1	5.433298E-1	5.867523E-1	5.368570E-1	5.401455E-1	5.750599E-1	5.574001E-1	5.298762E-1	5.489320E-1	5.474733E-1	5.407583E-1	5.725422E-1	5.910614E-1	5.557207E-1	5.763002E-1	5.646207E-1	5.670113E-1	5.591460E-1	5.834277E-1	5.546439E-1	5.832921E-1	5.729538E-1	5.715827E-1	5.589420E-1	5.496342E-1	5.677433E-1	5.490812E-1	5.734818E-1	5.516357E-1	5.562330E-1	5.842738E-1	5.639703E-1	5.348634E-1	5.821617E-1	5.472369E-1	5.570665E-1	5.738620E-1	5.811574E-1	5.628038E-1	5.406351E-1	5.674657E-1	5.097886E-1
5.372640E+2	6.620134E-1	6.167979E-1	5.903869E-1	6.255772E-1	6.252701E-1	6.367515E-1	6.392851E-1	6.083162E-1	6.208528E-1	6.409481E-1	6.433343E-1	6.086335E-1	6.156661E-1	6.449681E-1	6.168681E-1	6.450801E-1	6.162975E-1	6.258611E-1	6.294469E-1	6.236125E-1	6.208605E-1	6.161658E-1	6.305747E-1	5.994997E-1	6.437100E-1	6.291121E-1	6.379650E-1	6.527233E-1	6.447289E-1	6.210676E-1	6.236048E-1	6.688887E-1	6.348291E-1	6.365634E-1	6.247127E-1	6.340589E-1	6.501908E-1	6.077536E-1	6.441649E-1	6.297716E-1	6.359991E-1	6.556271E-1	6.130244E-1	6.660091E-1	6.439184E-1	6.132065E-1	6.248094E-1	6.570954E-1	5.965142E-1	6.472933E-1	6.214669E-1	6.351876E-1	5.980666E-1	6.537824E-1	6.493396E-1	6.325587E-1	6.438248E-1	6.399107E-1	6.261506E-1	6.332373E-1	6.139574E-1	6.107068E-1	6.442013E-1	6.187928E-1	6.374780E-1	6.534745E-1	6.456905E-1	6.439067E-1	6.286103E-1	6.353658E-1	6.267012E-1	6.309647E-1	6.548574E-1	6.306818E-1	6.663939E-1	6.400888E-1	6.272148E-1	6.018937E-1	6.394338E-1	6.209669E-1	6.319998E-1	6.561410E-1	6.019068E-1	6.018516E-1	6.476634E-1	6.327739E-1	6.406283E-1	6.555251E-1	6.727780E-1	6.440747E-1	6.353694E-1	6.483930E-1	6.390000E-1	6.404063E-1	6.610703E-1	6.148457E-1	6.549557E-1	6.544953E-1	6.153670E-1	5.996820E-1	6.117104E-1	6.231668E-1	6.367128E-1	6.083682E-1	6.478235E-1	6.066369E-1	6.238706E-1	6.165267E-1	5.987861E-1	6.413936E-1	6.137503E-1	6.591277E-1	6.195028E-1	6.249527E-1	6.306562E-1	6.639333E-1	6.839220E-1	6.251770E-1	6.188120E-1	6.470405E-1	6.269544E-1	6.133774E-1	6.626542E-1	6.157788E-1	6.449836E-1	6.733186E-1	6.501577E-1	6.102327E-1	6.234336E-1	6.129814E-1	6.748774E-1	6.238181E-1	6.284203E-1	6.338435E-1	6.147421E-1	6.274828E-1	6.453368E-1	6.332862E-1	6.374615E-1	5.994237E-1	6.599008E-1	6.423219E-1	6.375158E-1	6.232350E-1	6.073042E-1	6.204521E-1	6.700461E-1	6.335229E-1	6.714799E-1	6.258238E-1	6.455162E-1	6.205603E-1	6.444239E-1	6.418454E-1	6.406069E-1	6.083879E-1	6.363965E-1	6.379667E-1	6.471283E-1	6.171718E-1	6.533704E-1	6.350797E-1	6.563987E-1	6.617213E-1	6.330686E-1	6.244649E-1	6.476563E-1	6.868023E-1	6.631173E-1	5.736678E-1
5.375060E+2	7.288018E-1	7.790828E-1	7.004996E-1	7.500384E-1	7.124381E-1	7.252552E-1	7.383359E-1	7.325160E-1	7.278370E-1	7.002856E-1	7.000756E-1	7.190238E-1	7.153544E-1	7.322259E-1	6.913615E-1	7.126301E-1	7.065284E-1	7.537115E-1	7.299205E-1	7.370365E-1	6.978997E-1	7.384848E-1	7.370308E-1	7.153912E-1	7.245841E-1	7.165129E-1	6.889843E-1	7.619290E-1	7.130876E-1	7.475494E-1	7.265860E-1	7.154240E-1	6.871031E-1	7.420827E-1	7.420614E-1	7.418671E-1	7.041278E-1	7.319983E-1	7.184799E-1	7.352280E-1	7.466968E-1	7.483730E-1	7.172539E-1	7.495326E-1	7.437068E-1	7.136601E-1	7.224177E-1	6.938933E-1	6.526444E-1	7.723412E-1	7.236594E-1	7.628248E-1	7.608980E-1	7.351239E-1	7.319782E-1	7.280595E-1	6.873782E-1	7.607773E-1	7.178615E-1	7.580386E-1	7.547473E-1	7.182816E-1	7.278155E-1	7.073724E-1	7.436647E-1	7.233860E-1	7.414582E-1	7.242995E-1	7.001221E-1	7.195296E-1	7.692421E-1	7.291410E-1	7.036225E-1	7.159487E-1	7.193448E-1	7.078856E-1	7.198997E-1	7.240176E-1	7.269072E-1	7.152696E-1	7.304683E-1	7.227350E-1	7.620728E-1	7.863012E-1	7.314687E-1	7.166560E-1	7.469197E-1	7.152845E-1	7.272714E-1	7.704896E-1	6.906966E-1	7.100352E-1	7.638466E-1	7.270344E-1	7.321782E-1	7.419530E-1	7.142358E-1	7.091781E-1	6.764425E-1	7.419417E-1	7.030153E-1	7.564647E-1	7.490703E-1	7.301594E-1	7.164745E-1	6.981765E-1	7.111483E-1	7.322543E-1	7.203961E-1	7.168234E-1	7.433741E-1	7.238247E-1	7.504484E-1	7.051918E-1	7.274957E-1	7.472199E-1	7.496274E-1	7.213288E-1	7.367309E-1	7.627730E-1	7.377487E-1	7.685376E-1	7.070528E-1	7.593388E-1	7.179602E-1	7.286587E-1	7.694670E-1	7.448102E-1	6.982986E-1	7.476762E-1	7.381932E-1	7.100406E-1	7.261524E-1	7.333806E-1	7.054561E-1	7.387127E-1	7.515761E-1	7.179995E-1	7.374747E-1	7.705203E-1	7.591784E-1	7.217447E-1	7.454457E-1	7.353097E-1	7.426084E-1	7.182900E-1	7.127934E-1	7.451860E-1	7.506991E-1	7.398446E-1	7.270496E-1	7.279620E-1	7.420463E-1	7.301937E-1	7.458930E-1	7.440595E-1	7.416368E-1	7.570482E-1	7.279615E-1	7.114515E-1	7.189858E-1	7.171138E-1	7.459516E-1	6.832131E-1	7.633386E-1	7.081019E-1	7.107350E-1	7.802395E-1	7.566865E-1	8.108483E-1
5.377580E+2	7.961233E-1	8.199404E-1	8.096618E-1	8.072766E-1	8.639685E-1	8.230361E-1	8.577805E-1	8.221019E-1	8.083812E-1	8.327592E-1	8.325486E-1	8.232704E-1	7.866166E-1	7.855482E-1	8.382247E-1	8.330431E-1	8.106418E-1	8.385000E-1	8.399596E-1	8.296731E-1	8.422902E-1	8.127021E-1	8.176628E-1	8.986688E-1	8.521669E-1	8.313248E-1	8.523010E-1	8.469894E-1	8.189858E-1	8.735886E-1	8.301600E-1	8.252697E-1	8.235428E-1	8.577493E-1	8.204402E-1	8.165829E-1	8.612109E-1	8.169148E-1	8.433988E-1	8.316453E-1	8.275100E-1	9.000580E-1	8.509853E-1	8.772337E-1	8.404124E-1	7.907587E-1	8.022771E-1	8.409955E-1	8.124852E-1	8.621893E-1	8.766471E-1	8.381704E-1	8.716881E-1	7.982615E-1	8.439233E-1	8.696458E-1	8.457270E-1	8.166628E-1	8.712197E-1	8.290553E-1	8.255129E-1	7.543244E-1	8.950808E-1	8.092491E-1	8.669464E-1	8.328947E-1	8.241740E-1	8.211566E-1	8.097879E-1	8.329438E-1	8.141594E-1	8.324367E-1	8.461459E-1	8.053980E-1	8.024202E-1	8.882762E-1	8.423583E-1	8.410919E-1	8.579918E-1	8.171287E-1	8.190887E-1	8.446562E-1	8.222928E-1	8.528587E-1	8.520936E-1	8.485792E-1	8.212066E-1	8.224222E-1	8.595438E-1	8.512881E-1	8.232802E-1	8.378557E-1	8.420378E-1	8.143971E-1	8.054109E-1	8.284019E-1	8.232037E-1	8.692244E-1	8.077684E-1	8.529736E-1	8.411677E-1	8.352007E-1	8.477279E-1	8.269898E-1	8.697944E-1	8.362575E-1	8.418140E-1	8.306533E-1	8.125118E-1	8.483591E-1	8.209929E-1	8.070956E-1	8.180979E-1	8.094254E-1	8.087741E-1	8.059299E-1	8.545019E-1	8.497253E-1	8.661236E-1	8.318837E-1	8.042189E-1	8.140085E-1	8.438960E-1	8.813909E-1	8.220821E-1	8.337512E-1	8.633866E-1	8.604327E-1	7.863562E-1	8.614853E-1	8.647604E-1	8.219799E-1	8.173976E-1	8.529518E-1	8.097978E-1	8.319161E-1	8.654556E-1	8.475595E-1	8.691276E-1	8.094188E-1	8.422739E-1	8.360572E-1	8.533274E-1	8.283418E-1	8.501763E-1	8.516159E-1	8.116607E-1	8.485811E-1	8.785369E-1	8.336895E-1	8.746402E-1	8.181039E-1	8.911238E-1	8.314577E-1	8.362004E-1	8.253400E-1	8.604031E-1	8.262755E-1	8.419908E-1	8.705390E-1	8.424655E-1	8.423355E-1	8.333292E-1	8.297709E-1	8.071413E-1	8.336463E-1	8.399326E-1	8.272465E-1	8.411744E-1	8.251491E-1
5.380160E+2	1.040597E+0	9.763496E-1	9.538297E-1	1.035701E+0	9.691772E-1	9.330700E-1	9.950132E-1	9.860744E-1	9.621050E-1	9.921996E-1	9.818491E-1	9.795192E-1	9.894891E-1	9.318542E-1	9.423379E-1	9.972527E-1	9.621099E-1	1.015486E+0	9.714064E-1	9.893010E-1	9.625513E-1	9.648663E-1	9.820162E-1	9.784142E-1	1.007258E+0	1.021647E+0	1.007447E+0	1.001712E+0	9.744262E-1	1.003814E+0	1.036207E+0	9.605705E-1	9.709453E-1	9.776913E-1	9.838244E-1	9.694607E-1	1.010992E+0	9.573305E-1	1.009808E+0	1.019908E+0	1.002066E+0	1.004965E+0	9.806704E-1	1.027790E+0	9.917770E-1	9.552629E-1	9.565164E-1	1.021052E+0	9.356957E-1	9.768777E-1	9.767491E-1	9.872000E-1	9.706417E-1	9.812503E-1	1.045469E+0	9.843374E-1	9.794391E-1	9.643471E-1	1.005406E+0	9.550705E-1	9.912983E-1	9.803894E-1	9.975158E-1	9.415631E-1	9.632368E-1	9.817639E-1	9.883127E-1	9.948818E-1	9.532233E-1	9.944311E-1	1.039819E+0	1.012221E+0	9.381290E-1	9.661089E-1	9.886741E-1	1.012091E+0	9.799855E-1	9.964916E-1	9.778399E-1	9.710827E-1	9.469729E-1	9.417256E-1	9.873697E-1	9.790801E-1	9.420338E-1	9.799608E-1	9.820463E-1	9.832741E-1	1.001901E+0	9.616055E-1	1.000325E+0	9.741477E-1	9.083782E-1	9.907364E-1	9.297340E-1	9.733952E-1	9.577772E-1	9.596799E-1	9.681400E-1	9.607358E-1	9.934372E-1	9.773533E-1	9.919263E-1	9.764058E-1	9.504138E-1	9.523239E-1	9.810927E-1	9.517274E-1	9.445382E-1	9.905032E-1	9.885503E-1	1.000385E+0	9.652655E-1	9.549435E-1	1.027926E+0	1.003043E+0	9.956648E-1	9.749548E-1	9.593757E-1	1.008131E+0	9.561218E-1	9.678579E-1	9.870482E-1	9.609393E-1	9.805399E-1	9.765298E-1	1.009410E+0	9.434956E-1	9.533115E-1	9.767160E-1	9.942600E-1	9.543928E-1	9.669090E-1	1.016750E+0	9.655969E-1	9.774337E-1	9.760972E-1	9.966782E-1	1.014226E+0	9.500272E-1	1.006094E+0	1.031263E+0	9.865200E-1	9.680070E-1	9.904051E-1	9.751375E-1	1.009716E+0	9.984853E-1	9.781246E-1	9.840228E-1	9.673751E-1	1.034972E+0	9.440129E-1	9.258249E-1	9.754580E-1	9.992202E-1	1.002755E+0	1.003339E+0	1.001428E+0	9.618098E-1	9.692788E-1	1.028830E+0	9.797022E-1	9.592680E-1	1.023439E+0	1.025856E+0	9.669180E-1	9.798888E-1	9.697105E-1	9.711726E-1
5.382740E+2	1.213271E+0	1.128114E+0	1.162434E+0	1.168424E+0	1.159474E+0	1.174314E+0	1.192151E+0	1.189775E+0	1.194317E+0	1.149270E+0	1.134491E+0	1.179727E+0	1.216749E+0	1.153712E+0	1.197823E+0	1.168811E+0	1.178931E+0	1.184761E+0	1.227914E+0	1.185593E+0	1.156996E+0	1.169556E+0	1.213880E+0	1.182324E+0	1.173096E+0	1.210499E+0	1.220742E+0	1.169633E+0	1.186698E+0	1.159188E+0	1.166274E+0	1.213718E+0	1.148621E+0	1.155587E+0	1.242823E+0	1.169660E+0	1.222964E+0	1.207881E+0	1.187288E+0	1.202618E+0	1.188210E+0	1.211571E+0	1.209583E+0	1.191041E+0	1.166464E+0	1.187011E+0	1.194362E+0	1.237651E+0	1.118324E+0	1.192046E+0	1.182299E+0	1.172537E+0	1.200686E+0	1.163703E+0	1.201895E+0	1.203737E+0	1.168872E+0	1.154674E+0	1.220834E+0	1.154931E+0	1.231530E+0	1.145062E+0	1.165895E+0	1.154399E+0	1.148148E+0	1.170122E+0	1.196898E+0	1.207654E+0	1.154672E+0	1.158986E+0	1.218314E+0	1.190694E+0	1.197327E+0	1.134299E+0	1.191010E+0	1.233759E+0	1.159625E+0	1.200540E+0	1.186624E+0	1.150873E+0	1.220160E+0	1.167516E+0	1.189451E+0	1.149064E+0	1.158971E+0	1.191585E+0	1.184000E+0	1.150814E+0	1.185661E+0	1.183145E+0	1.164776E+0	1.200685E+0	1.175026E+0	1.215114E+0	1.178806E+0	1.140129E+0	1.169010E+0	1.223081E+0	1.215771E+0	1.196966E+0	1.143972E+0	1.147966E+0	1.182063E+0	1.182534E+0	1.206542E+0	1.153693E+0	1.241318E+0	1.203628E+0	1.149352E+0	1.171585E+0	1.196803E+0	1.221884E+0	1.237968E+0	1.180576E+0	1.157354E+0	1.210542E+0	1.170939E+0	1.140147E+0	1.198267E+0	1.242253E+0	1.145786E+0	1.186542E+0	1.222075E+0	1.174366E+0	1.120443E+0	1.208751E+0	1.148111E+0	1.186610E+0	1.142872E+0	1.156458E+0	1.208295E+0	1.194388E+0	1.133019E+0	1.177315E+0	1.179708E+0	1.191277E+0	1.145919E+0	1.154359E+0	1.163081E+0	1.148187E+0	1.237015E+0	1.159835E+0	1.209574E+0	1.161721E+0	1.220149E+0	1.170116E+0	1.159803E+0	1.183979E+0	1.174752E+0	1.178058E+0	1.142438E+0	1.203509E+0	1.187113E+0	1.142499E+0	1.117403E+0	1.210149E+0	1.196113E+0	1.193745E+0	1.180888E+0	1.112603E+0	1.167785E+0	1.221176E+0	1.187946E+0	1.162171E+0	1.156184E+0	1.205938E+0	1.161436E+0	1.170846E+0	1.159877E+0	1.189162E+0
5.385060E+2	1.477350E+0	1.361446E+0	1.362813E+0	1.428254E+0	1.402647E+0	1.400347E+0	1.411952E+0	1.382310E+0	1.383115E+0	1.376901E+0	1.396822E+0	1.327921E+0	1.365694E+0	1.401630E+0	1.355307E+0	1.421142E+0	1.363399E+0	1.412895E+0	1.397598E+0	1.393207E+0	1.300196E+0	1.383980E+0	1.414647E+0	1.421324E+0	1.419579E+0	1.448630E+0	1.404987E+0	1.390156E+0	1.452840E+0	1.423854E+0	1.435159E+0	1.410317E+0	1.406579E+0	1.421587E+0	1.412985E+0	1.403998E+0	1.425368E+0	1.378137E+0	1.413166E+0	1.405704E+0	1.419455E+0	1.425811E+0	1.422336E+0	1.404688E+0	1.428884E+0	1.410129E+0	1.393891E+0	1.432285E+0	1.350808E+0	1.392012E+0	1.409753E+0	1.389512E+0	1.370501E+0	1.385521E+0	1.444362E+0	1.390741E+0	1.402885E+0	1.362303E+0	1.374827E+0	1.410960E+0	1.406926E+0	1.350828E+0	1.396878E+0	1.320161E+0	1.395710E+0	1.382595E+0	1.433480E+0	1.385821E+0	1.323356E+0	1.391156E+0	1.388989E+0	1.399111E+0	1.368393E+0	1.345286E+0	1.405458E+0	1.440207E+0	1.447933E+0	1.378603E+0	1.380531E+0	1.351895E+0	1.347424E+0	1.383947E+0	1.421378E+0	1.403697E+0	1.333662E+0	1.339062E+0	1.389541E+0	1.367477E+0	1.344223E+0	1.354478E+0	1.365943E+0	1.371870E+0	1.417482E+0	1.456844E+0	1.398201E+0	1.368172E+0	1.373802E+0	1.347628E+0	1.393180E+0	1.372708E+0	1.357213E+0	1.338653E+0	1.433698E+0	1.357890E+0	1.414751E+0	1.320706E+0	1.346519E+0	1.392435E+0	1.409755E+0	1.355172E+0	1.417222E+0	1.401854E+0	1.350000E+0	1.339763E+0	1.354008E+0	1.441720E+0	1.368209E+0	1.405945E+0	1.375193E+0	1.386995E+0	1.257995E+0	1.442279E+0	1.442358E+0	1.431379E+0	1.367120E+0	1.387395E+0	1.402668E+0	1.371790E+0	1.378419E+0	1.390553E+0	1.394110E+0	1.310597E+0	1.354691E+0	1.349607E+0	1.436521E+0	1.316295E+0	1.350248E+0	1.339551E+0	1.359317E+0	1.361595E+0	1.387586E+0	1.364410E+0	1.437776E+0	1.342164E+0	1.357337E+0	1.347590E+0	1.332041E+0	1.344460E+0	1.378757E+0	1.336530E+0	1.396957E+0	1.394245E+0	1.364365E+0	1.376206E+0	1.389970E+0	1.401523E+0	1.440670E+0	1.418680E+0	1.379571E+0	1.333458E+0	1.339956E+0	1.431939E+0	1.394728E+0	1.355187E+0	1.407707E+0	1.382181E+0	1.322419E+0	1.371472E+0	1.362459E+0	1.343456E+0
5.387650E+2	1.693094E+0	1.672920E+0	1.601055E+0	1.650331E+0	1.681989E+0	1.604935E+0	1.608273E+0	1.597689E+0	1.634004E+0	1.625164E+0	1.662435E+0	1.609203E+0	1.651302E+0	1.625635E+0	1.624818E+0	1.590112E+0	1.682640E+0	1.620030E+0	1.664964E+0	1.633539E+0	1.628436E+0	1.657072E+0	1.681350E+0	1.624210E+0	1.609607E+0	1.653422E+0	1.682386E+0	1.657828E+0	1.607069E+0	1.644800E+0	1.642520E+0	1.617280E+0	1.653408E+0	1.667287E+0	1.658346E+0	1.657181E+0	1.724581E+0	1.601773E+0	1.711516E+0	1.650689E+0	1.611318E+0	1.591068E+0	1.686495E+0	1.653567E+0	1.650476E+0	1.611267E+0	1.653313E+0	1.677870E+0	1.612967E+0	1.622906E+0	1.624318E+0	1.596900E+0	1.628406E+0	1.616947E+0	1.642985E+0	1.636091E+0	1.616165E+0	1.617210E+0	1.642299E+0	1.594321E+0	1.698518E+0	1.640013E+0	1.684515E+0	1.611695E+0	1.661822E+0	1.669311E+0	1.674864E+0	1.643751E+0	1.612325E+0	1.651202E+0	1.663186E+0	1.603010E+0	1.659357E+0	1.625095E+0	1.652152E+0	1.623449E+0	1.605500E+0	1.629061E+0	1.662450E+0	1.646354E+0	1.668371E+0	1.607398E+0	1.661841E+0	1.610050E+0	1.582207E+0	1.613526E+0	1.608278E+0	1.553215E+0	1.626808E+0	1.654215E+0	1.611340E+0	1.631545E+0	1.641393E+0	1.626119E+0	1.591643E+0	1.624475E+0	1.618621E+0	1.616508E+0	1.626554E+0	1.613589E+0	1.597468E+0	1.610534E+0	1.637795E+0	1.635574E+0	1.615564E+0	1.542058E+0	1.656748E+0	1.640387E+0	1.629134E+0	1.658691E+0	1.590528E+0	1.609655E+0	1.580273E+0	1.598575E+0	1.549009E+0	1.595548E+0	1.615971E+0	1.603685E+0	1.578474E+0	1.653627E+0	1.571057E+0	1.601342E+0	1.666609E+0	1.579766E+0	1.586595E+0	1.632493E+0	1.582285E+0	1.631440E+0	1.643038E+0	1.621495E+0	1.680421E+0	1.595803E+0	1.589362E+0	1.595491E+0	1.619514E+0	1.626462E+0	1.569051E+0	1.632564E+0	1.637020E+0	1.618211E+0	1.616291E+0	1.606449E+0	1.645177E+0	1.594268E+0	1.659765E+0	1.661937E+0	1.597358E+0	1.594101E+0	1.614801E+0	1.583483E+0	1.660419E+0	1.663192E+0	1.617177E+0	1.590424E+0	1.595363E+0	1.569253E+0	1.691637E+0	1.593998E+0	1.605399E+0	1.552899E+0	1.618596E+0	1.597147E+0	1.636985E+0	1.635992E+0	1.594363E+0	1.572089E+0	1.557730E+0	1.597109E+0	1.599654E+0	1.567917E+0
5.390450E+2	1.894495E+0	1.813817E+0	1.796725E+0	1.817090E+0	1.847270E+0	1.869778E+0	1.896822E+0	1.830371E+0	1.796167E+0	1.799107E+0	1.850710E+0	1.857011E+0	1.797311E+0	1.843162E+0	1.834651E+0	1.818230E+0	1.860931E+0	1.758489E+0	1.808507E+0	1.762460E+0	1.842716E+0	1.833169E+0	1.865105E+0	1.833160E+0	1.793688E+0	1.892479E+0	1.809851E+0	1.854399E+0	1.819608E+0	1.867310E+0	1.798137E+0	1.864785E+0	1.755153E+0	1.800372E+0	1.904323E+0	1.834611E+0	1.864044E+0	1.762624E+0	1.850746E+0	1.789160E+0	1.900744E+0	1.797459E+0	1.838797E+0	1.843521E+0	1.830573E+0	1.793315E+0	1.822308E+0	1.816138E+0	1.810789E+0	1.870473E+0	1.854900E+0	1.826153E+0	1.761755E+0	1.786173E+0	1.842284E+0	1.821038E+0	1.785913E+0	1.803817E+0	1.830087E+0	1.801798E+0	1.870489E+0	1.821665E+0	1.842578E+0	1.795940E+0	1.805220E+0	1.782318E+0	1.836541E+0	1.760488E+0	1.774654E+0	1.841024E+0	1.822655E+0	1.849946E+0	1.739607E+0	1.774708E+0	1.830522E+0	1.797913E+0	1.750387E+0	1.760591E+0	1.840087E+0	1.737712E+0	1.821780E+0	1.775359E+0	1.869441E+0	1.806075E+0	1.754605E+0	1.755756E+0	1.782880E+0	1.789694E+0	1.815013E+0	1.816500E+0	1.797644E+0	1.853936E+0	1.863981E+0	1.893473E+0	1.799790E+0	1.840480E+0	1.826147E+0	1.740335E+0	1.792491E+0	1.834968E+0	1.757579E+0	1.786575E+0	1.885114E+0	1.800799E+0	1.751126E+0	1.740556E+0	1.786183E+0	1.794096E+0	1.843602E+0	1.867395E+0	1.797364E+0	1.785432E+0	1.798969E+0	1.780407E+0	1.815705E+0	1.791355E+0	1.824851E+0	1.769320E+0	1.766904E+0	1.784476E+0	1.796597E+0	1.786140E+0	1.811952E+0	1.807886E+0	1.771964E+0	1.793608E+0	1.771151E+0	1.748375E+0	1.764971E+0	1.756144E+0	1.779324E+0	1.824549E+0	1.754593E+0	1.776608E+0	1.829555E+0	1.756196E+0	1.764186E+0	1.769020E+0	1.792583E+0	1.715640E+0	1.796412E+0	1.805163E+0	1.809717E+0	1.832933E+0	1.867828E+0	1.806628E+0	1.761528E+0	1.827905E+0	1.802534E+0	1.787800E+0	1.815406E+0	1.812053E+0	1.791804E+0	1.755826E+0	1.796461E+0	1.777396E+0	1.828379E+0	1.804705E+0	1.763304E+0	1.697567E+0	1.706785E+0	1.819292E+0	1.825002E+0	1.725352E+0	1.760352E+0	1.796323E+0	1.710911E+0	1.833538E+0	1.792783E+0	1.772518E+0
5.392720E+2	2.063086E+0	2.024238E+0	2.012990E+0	2.003152E+0	1.984894E+0	1.951105E+0	2.037284E+0	2.013878E+0	1.978761E+0	2.020612E+0	2.040861E+0	2.053193E+0	1.918089E+0	1.981083E+0	2.020563E+0	1.984721E+0	1.977149E+0	2.021651E+0	1.989401E+0	2.023170E+0	1.934309E+0	1.954301E+0	2.036351E+0	1.982695E+0	2.010548E+0	2.005158E+0	2.017762E+0	2.021949E+0	1.940564E+0	2.012310E+0	1.975009E+0	2.003094E+0	1.940723E+0	1.915084E+0	2.051897E+0	1.978138E+0	1.933802E+0	1.925943E+0	1.966499E+0	1.973146E+0	2.012835E+0	1.950170E+0	2.043882E+0	2.036474E+0	2.005350E+0	1.917969E+0	2.012342E+0	1.941748E+0	1.925780E+0	1.973992E+0	2.008942E+0	1.990725E+0	1.918100E+0	1.960091E+0	1.990270E+0	2.069838E+0	1.953649E+0	1.946528E+0	1.951564E+0	2.005691E+0	1.984855E+0	2.003984E+0	1.974202E+0	1.956712E+0	1.904900E+0	1.979687E+0	1.940971E+0	1.990040E+0	1.968178E+0	2.012909E+0	2.044850E+0	1.926028E+0	1.945310E+0	1.938671E+0	2.082448E+0	1.991082E+0	1.918704E+0	1.983238E+0	1.904868E+0	1.991752E+0	1.955679E+0	1.928959E+0	2.006392E+0	2.014634E+0	1.929846E+0	1.942676E+0	1.948234E+0	1.971094E+0	1.987417E+0	1.925796E+0	1.994613E+0	2.059263E+0	2.002722E+0	1.969620E+0	2.014666E+0	1.967304E+0	1.951007E+0	1.960152E+0	1.983743E+0	1.962483E+0	1.930684E+0	1.909851E+0	2.012237E+0	1.985921E+0	1.970591E+0	1.911722E+0	1.943672E+0	1.937026E+0	1.930029E+0	1.983423E+0	1.954208E+0	1.938477E+0	1.827147E+0	1.971128E+0	1.962922E+0	1.944370E+0	1.882891E+0	1.949149E+0	1.993321E+0	1.941614E+0	1.920453E+0	1.957764E+0	1.917378E+0	1.979649E+0	1.944668E+0	1.887288E+0	1.931463E+0	1.892961E+0	1.845399E+0	1.895648E+0	1.999374E+0	1.923775E+0	1.893590E+0	1.878669E+0	1.974791E+0	1.923964E+0	1.919538E+0	1.864870E+0	1.932582E+0	1.914389E+0	1.957407E+0	1.914188E+0	1.931476E+0	1.905269E+0	1.967753E+0	1.985005E+0	1.924227E+0	1.979783E+0	1.935986E+0	1.843533E+0	2.000691E+0	1.917048E+0	1.842490E+0	1.923438E+0	1.897909E+0	1.936081E+0	1.911469E+0	1.935971E+0	1.932721E+0	1.852670E+0	1.910374E+0	1.927575E+0	1.888892E+0	1.787028E+0	1.901963E+0	1.897642E+0	1.858638E+0	1.906993E+0	1.858307E+0	1.869172E+0
5.395160E+2	2.303723E+0	2.075233E+0	2.062646E+0	2.113514E+0	2.151026E+0	2.084356E+0	2.102628E+0	2.141415E+0	2.143154E+0	2.140719E+0	2.171882E+0	2.157952E+0	2.122143E+0	2.120297E+0	2.075633E+0	2.140770E+0	2.194245E+0	2.127726E+0	2.124176E+0	2.114290E+0	2.076219E+0	2.063438E+0	2.158050E+0	2.095197E+0	2.067046E+0	2.043958E+0	2.072814E+0	2.106937E+0	2.080172E+0	2.108339E+0	2.077913E+0	2.192820E+0	2.096538E+0	2.137505E+0	2.143772E+0	2.129690E+0	2.181362E+0	2.070817E+0	2.159013E+0	2.057735E+0	2.187553E+0	2.133501E+0	2.104955E+0	2.177553E+0	2.035529E+0	2.096451E+0	2.114492E+0	2.082503E+0	1.975288E+0	2.123310E+0	2.148713E+0	2.129630E+0	2.067150E+0	2.004487E+0	2.111930E+0	2.073638E+0	1.968780E+0	2.070260E+0	2.123965E+0	2.090091E+0	2.041367E+0	2.041881E+0	2.157976E+0	2.043750E+0	2.072853E+0	2.036017E+0	2.033700E+0	2.114029E+0	2.046429E+0	2.089154E+0	2.250648E+0	2.006332E+0	2.055195E+0	2.076952E+0	2.063901E+0	2.064935E+0	2.052028E+0	2.066616E+0	2.076042E+0	2.072319E+0	2.058513E+0	2.091054E+0	2.070693E+0	2.113036E+0	2.075270E+0	2.066345E+0	2.070004E+0	2.040955E+0	2.108281E+0	2.060611E+0	2.053716E+0	2.108096E+0	2.152804E+0	2.087526E+0	2.028104E+0	2.108173E+0	2.001018E+0	2.032584E+0	2.013879E+0	2.057049E+0	2.011533E+0	1.970593E+0	2.071665E+0	2.038039E+0	2.132866E+0	1.986498E+0	2.071562E+0	2.007913E+0	2.080735E+0	1.985872E+0	2.098717E+0	2.049441E+0	1.965610E+0	1.997072E+0	1.991108E+0	2.000919E+0	2.057321E+0	2.068880E+0	1.995489E+0	2.009212E+0	1.968327E+0	2.060023E+0	2.053211E+0	2.062595E+0	2.073398E+0	2.033592E+0	2.076416E+0	1.946438E+0	1.982608E+0	1.977254E+0	2.076266E+0	2.035741E+0	2.048945E+0	1.972995E+0	2.009288E+0	1.994992E+0	2.053663E+0	1.989618E+0	2.033188E+0	2.006385E+0	2.116066E+0	1.985485E+0	1.994197E+0	2.008709E+0	2.031109E+0	2.023039E+0	2.099780E+0	2.061210E+0	2.000183E+0	2.014549E+0	2.031371E+0	2.016664E+0	2.044307E+0	2.017532E+0	2.054505E+0	1.987590E+0	2.051858E+0	1.997242E+0	2.002883E+0	1.990363E+0	2.000928E+0	2.014055E+0	2.087481E+0	1.994661E+0	2.026152E+0	2.022868E+0	2.040258E+0	2.004291E+0	1.922944E+0	2.107288E+0
5.397810E+2	2.229572E+0	2.053946E+0	2.096663E+0	2.075306E+0	2.083108E+0	2.088395E+0	2.091411E+0	2.092495E+0	2.030035E+0	2.103387E+0	2.067869E+0	2.066976E+0	2.044933E+0	2.027629E+0	2.094183E+0	2.058723E+0	2.160087E+0	2.147303E+0	2.109611E+0	2.066485E+0	2.091447E+0	2.070389E+0	2.097409E+0	2.115877E+0	2.041637E+0	2.052148E+0	2.060318E+0	2.062218E+0	2.043814E+0	2.032060E+0	2.073601E+0	2.088365E+0	2.078399E+0	2.054065E+0	2.123267E+0	2.113287E+0	2.064893E+0	2.054642E+0	2.088449E+0	2.040128E+0	2.094996E+0	2.016228E+0	2.026006E+0	2.090252E+0	2.049116E+0	1.985093E+0	2.075387E+0	2.050504E+0	2.062005E+0	2.135536E+0	2.022371E+0	2.073044E+0	2.048715E+0	2.132988E+0	2.046210E+0	2.105388E+0	2.014493E+0	2.057234E+0	2.189639E+0	2.089737E+0	2.090825E+0	2.010328E+0	2.114285E+0	2.062791E+0	2.008110E+0	2.056473E+0	2.007522E+0	2.038538E+0	1.985616E+0	2.040406E+0	2.117264E+0	2.064844E+0	1.985945E+0	2.113112E+0	2.063554E+0	2.044697E+0	2.029245E+0	2.079686E+0	2.103063E+0	2.039880E+0	2.021674E+0	2.094846E+0	2.067263E+0	2.114542E+0	2.051910E+0	2.041191E+0	2.110257E+0	2.025941E+0	2.077029E+0	2.034444E+0	2.012057E+0	2.065415E+0	2.105810E+0	2.015296E+0	2.113677E+0	2.064866E+0	2.041435E+0	2.017519E+0	2.047953E+0	2.035281E+0	1.992125E+0	1.915524E+0	2.084698E+0	2.045013E+0	1.996318E+0	2.021666E+0	2.008152E+0	2.110244E+0	1.978942E+0	2.032451E+0	1.982431E+0	2.067102E+0	1.950119E+0	2.030218E+0	1.982195E+0	2.091432E+0	2.063935E+0	1.985632E+0	2.005845E+0	2.058247E+0	1.967547E+0	2.018850E+0	2.095067E+0	2.034030E+0	2.061593E+0	2.012708E+0	2.035466E+0	2.016714E+0	1.958245E+0	2.071345E+0	2.142486E+0	1.971922E+0	1.984348E+0	1.968090E+0	2.055235E+0	2.038951E+0	1.981675E+0	2.001573E+0	2.032473E+0	2.089190E+0	2.049407E+0	1.977830E+0	2.076363E+0	1.989616E+0	2.115953E+0	2.052176E+0	2.012138E+0	2.025637E+0	2.051338E+0	2.009012E+0	2.027820E+0	2.015719E+0	1.954776E+0	1.998602E+0	2.039763E+0	1.957666E+0	2.006735E+0	2.015783E+0	2.061342E+0	2.016811E+0	1.997082E+0	2.085413E+0	2.028154E+0	1.910664E+0	2.021067E+0	2.012914E+0	1.998211E+0	1.978384E+0	1.970307E+0	1.923951E+0
5.400190E+2	2.123901E+0	1.940389E+0	1.911310E+0	1.996656E+0	1.971321E+0	1.917279E+0	1.973762E+0	1.946610E+0	1.960533E+0	1.925830E+0	1.995938E+0	1.990287E+0	1.976570E+0	1.969191E+0	1.972665E+0	1.973746E+0	2.001998E+0	1.958668E+0	1.982556E+0	2.039513E+0	2.019000E+0	1.939165E+0	2.060211E+0	1.967610E+0	1.936951E+0	1.965424E+0	1.943392E+0	1.950133E+0	1.912035E+0	1.978576E+0	1.955817E+0	2.013596E+0	1.931701E+0	1.967509E+0	1.979083E+0	1.978897E+0	1.993049E+0	1.921146E+0	1.936739E+0	1.990483E+0	1.986884E+0	1.977638E+0	1.971935E+0	2.005115E+0	2.009930E+0	2.015554E+0	1.970094E+0	1.989761E+0	1.974650E+0	2.003828E+0	1.974527E+0	1.988421E+0	1.921246E+0	1.954224E+0	2.016476E+0	2.009577E+0	1.921522E+0	2.014172E+0	1.961110E+0	1.995773E+0	1.938247E+0	1.937162E+0	2.020797E+0	2.007646E+0	1.938253E+0	2.012561E+0	1.965034E+0	1.928889E+0	1.932410E+0	1.946821E+0	2.059784E+0	1.954133E+0	1.931705E+0	1.965969E+0	1.913632E+0	1.968731E+0	2.016944E+0	1.977407E+0	1.951181E+0	1.937756E+0	1.918344E+0	1.997375E+0	1.944755E+0	1.942650E+0	1.906698E+0	1.928393E+0	1.905679E+0	1.964022E+0	1.980203E+0	1.918226E+0	1.954439E+0	1.991253E+0	1.999110E+0	1.937662E+0	1.915342E+0	1.983263E+0	1.861662E+0	1.881495E+0	2.006813E+0	1.929875E+0	1.890119E+0	1.947843E+0	1.981712E+0	1.954882E+0	1.993209E+0	1.916830E+0	1.895441E+0	1.966901E+0	1.943062E+0	1.927548E+0	1.933257E+0	1.953668E+0	1.913021E+0	1.968750E+0	1.910211E+0	1.927137E+0	1.919930E+0	1.913716E+0	1.960534E+0	1.950924E+0	1.901283E+0	1.894738E+0	1.879895E+0	1.934304E+0	1.862298E+0	1.961406E+0	1.971060E+0	1.911765E+0	1.933124E+0	1.952259E+0	1.948644E+0	1.933698E+0	1.904016E+0	1.921001E+0	1.948365E+0	1.922297E+0	1.920431E+0	1.864931E+0	1.905672E+0	1.891930E+0	1.910165E+0	1.860921E+0	1.955264E+0	1.898851E+0	1.959557E+0	1.989419E+0	1.903464E+0	1.932639E+0	1.998607E+0	1.892764E+0	1.931238E+0	1.924506E+0	1.875073E+0	1.851268E+0	1.928077E+0	1.882002E+0	1.953000E+0	1.857385E+0	1.847945E+0	1.864849E+0	1.912814E+0	2.002183E+0	1.986774E+0	1.839495E+0	1.896703E+0	1.868918E+0	1.875630E+0	1.944706E+0	1.841401E+0	1.865823E+0
5.402740E+2	1.939844E+0	1.801983E+0	1.797809E+0	1.856547E+0	1.865977E+0	1.800763E+0	1.871435E+0	1.888065E+0	1.845035E+0	1.818360E+0	1.859397E+0	1.938462E+0	1.907938E+0	1.846360E+0	1.866112E+0	1.774922E+0	1.793772E+0	1.817363E+0	1.859658E+0	1.826592E+0	1.806890E+0	1.834499E+0	1.830242E+0	1.848916E+0	1.817252E+0	1.885126E+0	1.812371E+0	1.897012E+0	1.790425E+0	1.787136E+0	1.830933E+0	1.843406E+0	1.775096E+0	1.802536E+0	1.846808E+0	1.830469E+0	1.865700E+0	1.800856E+0	1.869576E+0	1.874625E+0	1.900150E+0	1.847853E+0	1.851462E+0	1.840391E+0	1.830201E+0	1.784929E+0	1.754628E+0	1.818581E+0	1.762382E+0	1.849841E+0	1.869144E+0	1.855385E+0	1.743160E+0	1.783927E+0	1.820975E+0	1.843351E+0	1.818522E+0	1.808595E+0	1.794737E+0	1.859918E+0	1.872715E+0	1.774472E+0	1.860106E+0	1.774295E+0	1.815549E+0	1.821883E+0	1.850780E+0	1.850819E+0	1.742567E+0	1.776376E+0	1.866776E+0	1.854043E+0	1.807850E+0	1.824973E+0	1.848092E+0	1.857637E+0	1.800515E+0	1.792615E+0	1.724442E+0	1.761878E+0	1.838574E+0	1.766881E+0	1.811244E+0	1.765320E+0	1.789404E+0	1.793316E+0	1.741478E+0	1.816831E+0	1.848579E+0	1.789907E+0	1.810621E+0	1.859551E+0	1.832867E+0	1.820649E+0	1.776446E+0	1.866221E+0	1.827624E+0	1.760722E+0	1.769059E+0	1.786739E+0	1.788570E+0	1.832096E+0	1.779691E+0	1.766851E+0	1.854520E+0	1.836995E+0	1.811981E+0	1.842392E+0	1.830167E+0	1.772088E+0	1.871520E+0	1.771841E+0	1.764317E+0	1.843538E+0	1.812177E+0	1.779010E+0	1.794094E+0	1.754739E+0	1.770954E+0	1.828173E+0	1.800298E+0	1.819215E+0	1.798235E+0	1.812315E+0	1.768502E+0	1.773303E+0	1.825665E+0	1.751104E+0	1.785106E+0	1.751161E+0	1.870045E+0	1.704309E+0	1.805383E+0	1.752480E+0	1.827941E+0	1.792104E+0	1.780896E+0	1.774093E+0	1.789009E+0	1.826213E+0	1.825603E+0	1.759092E+0	1.831258E+0	1.826662E+0	1.885141E+0	1.852711E+0	1.780666E+0	1.789437E+0	1.751420E+0	1.737679E+0	1.776710E+0	1.805337E+0	1.756021E+0	1.732301E+0	1.826835E+0	1.793404E+0	1.762468E+0	1.844074E+0	1.771285E+0	1.746458E+0	1.751157E+0	1.858611E+0	1.806282E+0	1.786483E+0	1.756312E+0	1.775979E+0	1.767968E+0	1.777524E+0	1.710799E+0	1.893152E+0
5.405080E+2	1.868278E+0	1.777709E+0	1.785814E+0	1.827166E+0	1.760439E+0	1.794586E+0	1.774177E+0	1.829763E+0	1.817865E+0	1.786328E+0	1.782267E+0	1.854441E+0	1.723588E+0	1.789804E+0	1.767303E+0	1.799283E+0	1.856587E+0	1.779525E+0	1.724640E+0	1.804072E+0	1.824941E+0	1.772128E+0	1.819757E+0	1.767390E+0	1.734463E+0	1.742110E+0	1.780375E+0	1.734355E+0	1.826234E+0	1.778003E+0	1.798254E+0	1.854688E+0	1.711209E+0	1.810140E+0	1.798562E+0	1.782738E+0	1.784387E+0	1.841498E+0	1.770018E+0	1.797275E+0	1.791896E+0	1.743269E+0	1.776605E+0	1.824084E+0	1.763956E+0	1.736230E+0	1.781790E+0	1.846391E+0	1.798005E+0	1.815750E+0	1.794227E+0	1.773629E+0	1.753492E+0	1.784477E+0	1.797026E+0	1.890369E+0	1.779582E+0	1.814160E+0	1.746730E+0	1.733848E+0	1.789253E+0	1.790613E+0	1.861448E+0	1.755068E+0	1.743375E+0	1.761799E+0	1.740295E+0	1.786420E+0	1.711141E+0	1.730420E+0	1.774356E+0	1.842032E+0	1.794991E+0	1.745236E+0	1.731280E+0	1.797601E+0	1.773719E+0	1.808642E+0	1.772351E+0	1.816609E+0	1.740114E+0	1.729570E+0	1.729539E+0	1.776313E+0	1.676357E+0	1.756576E+0	1.770609E+0	1.755030E+0	1.769067E+0	1.748598E+0	1.785311E+0	1.752264E+0	1.731795E+0	1.814042E+0	1.746031E+0	1.742735E+0	1.742207E+0	1.708969E+0	1.772638E+0	1.779989E+0	1.727559E+0	1.700096E+0	1.781110E+0	1.785883E+0	1.759491E+0	1.706810E+0	1.783709E+0	1.811204E+0	1.844368E+0	1.778726E+0	1.734972E+0	1.807517E+0	1.701313E+0	1.738221E+0	1.696150E+0	1.741820E+0	1.683605E+0	1.755200E+0	1.724214E+0	1.748627E+0	1.762623E+0	1.774777E+0	1.736948E+0	1.709620E+0	1.738007E+0	1.746753E+0	1.758320E+0	1.714430E+0	1.700120E+0	1.766681E+0	1.753515E+0	1.685225E+0	1.742458E+0	1.737959E+0	1.762634E+0	1.704122E+0	1.734421E+0	1.792746E+0	1.752368E+0	1.718592E+0	1.757245E+0	1.739410E+0	1.800768E+0	1.731330E+0	1.805876E+0	1.762096E+0	1.759348E+0	1.693773E+0	1.775641E+0	1.711708E+0	1.743945E+0	1.749287E+0	1.737401E+0	1.739038E+0	1.708116E+0	1.783523E+0	1.807274E+0	1.733647E+0	1.763242E+0	1.700973E+0	1.707587E+0	1.760000E+0	1.761219E+0	1.682354E+0	1.721053E+0	1.729713E+0	1.669944E+0	1.768185E+0	1.777760E+0	1.774225E+0
5.407680E+2	1.781426E+0	1.702775E+0	1.672698E+0	1.693153E+0	1.691931E+0	1.738134E+0	1.749358E+0	1.694843E+0	1.753330E+0	1.769694E+0	1.736556E+0	1.740854E+0	1.717022E+0	1.690981E+0	1.717368E+0	1.742751E+0	1.770709E+0	1.713828E+0	1.718493E+0	1.758462E+0	1.784375E+0	1.725190E+0	1.713078E+0	1.739661E+0	1.726418E+0	1.760287E+0	1.702290E+0	1.781176E+0	1.713950E+0	1.722158E+0	1.690918E+0	1.740745E+0	1.743387E+0	1.723509E+0	1.759963E+0	1.702938E+0	1.773761E+0	1.723975E+0	1.716151E+0	1.726780E+0	1.756328E+0	1.655636E+0	1.688464E+0	1.717297E+0	1.749978E+0	1.748419E+0	1.728866E+0	1.757551E+0	1.655034E+0	1.740392E+0	1.705343E+0	1.648251E+0	1.705572E+0	1.649175E+0	1.717669E+0	1.711225E+0	1.676262E+0	1.652188E+0	1.767151E+0	1.662768E+0	1.708904E+0	1.757226E+0	1.747791E+0	1.705557E+0	1.709369E+0	1.668440E+0	1.731200E+0	1.685582E+0	1.659938E+0	1.712980E+0	1.721450E+0	1.747207E+0	1.684532E+0	1.686367E+0	1.706118E+0	1.724328E+0	1.724719E+0	1.691847E+0	1.700864E+0	1.706758E+0	1.719459E+0	1.685405E+0	1.734456E+0	1.723234E+0	1.676963E+0	1.656304E+0	1.634146E+0	1.749731E+0	1.749321E+0	1.679224E+0	1.666643E+0	1.734395E+0	1.749869E+0	1.767573E+0	1.713488E+0	1.701141E+0	1.647074E+0	1.693568E+0	1.669191E+0	1.706385E+0	1.692187E+0	1.695783E+0	1.683023E+0	1.667152E+0	1.743117E+0	1.702665E+0	1.695947E+0	1.722757E+0	1.771368E+0	1.722330E+0	1.682877E+0	1.648401E+0	1.688859E+0	1.625787E+0	1.697751E+0	1.716457E+0	1.663430E+0	1.655224E+0	1.663516E+0	1.779472E+0	1.659809E+0	1.741910E+0	1.694520E+0	1.742900E+0	1.707183E+0	1.670081E+0	1.694341E+0	1.686374E+0	1.699428E+0	1.624282E+0	1.739461E+0	1.677097E+0	1.638066E+0	1.660693E+0	1.684331E+0	1.689810E+0	1.699669E+0	1.658207E+0	1.676434E+0	1.647034E+0	1.746138E+0	1.623626E+0	1.754590E+0	1.724110E+0	1.698619E+0	1.776637E+0	1.677391E+0	1.688869E+0	1.675924E+0	1.665098E+0	1.706877E+0	1.702029E+0	1.696203E+0	1.670989E+0	1.679293E+0	1.727526E+0	1.756351E+0	1.699667E+0	1.660299E+0	1.659144E+0	1.637990E+0	1.723888E+0	1.732307E+0	1.720887E+0	1.658003E+0	1.724423E+0	1.664729E+0	1.699306E+0	1.659796E+0	1.734322E+0
5.410130E+2	1.751783E+0	1.648327E+0	1.626761E+0	1.676573E+0	1.693751E+0	1.638560E+0	1.666405E+0	1.673107E+0	1.655105E+0	1.691232E+0	1.667557E+0	1.697716E+0	1.698088E+0	1.700282E+0	1.629292E+0	1.648131E+0	1.707932E+0	1.701038E+0	1.655138E+0	1.652868E+0	1.648463E+0	1.626802E+0	1.689588E+0	1.684709E+0	1.560652E+0	1.653643E+0	1.647973E+0	1.672629E+0	1.623441E+0	1.642805E+0	1.652086E+0	1.641706E+0	1.651574E+0	1.656294E+0	1.630951E+0	1.685923E+0	1.650738E+0	1.665721E+0	1.631208E+0	1.673661E+0	1.677966E+0	1.624050E+0	1.654190E+0	1.662366E+0	1.660254E+0	1.686197E+0	1.653923E+0	1.651238E+0	1.624909E+0	1.728615E+0	1.656190E+0	1.667223E+0	1.664781E+0	1.637995E+0	1.682741E+0	1.664696E+0	1.665048E+0	1.580705E+0	1.627964E+0	1.666507E+0	1.688552E+0	1.645933E+0	1.676053E+0	1.625655E+0	1.658930E+0	1.648334E+0	1.692014E+0	1.598399E+0	1.635890E+0	1.666253E+0	1.694504E+0	1.699120E+0	1.658658E+0	1.621065E+0	1.699701E+0	1.634157E+0	1.700327E+0	1.684438E+0	1.615853E+0	1.705164E+0	1.641961E+0	1.676868E+0	1.667921E+0	1.673917E+0	1.653461E+0	1.664390E+0	1.597070E+0	1.692091E+0	1.637255E+0	1.674520E+0	1.615141E+0	1.704445E+0	1.676102E+0	1.698614E+0	1.647798E+0	1.653444E+0	1.602690E+0	1.619465E+0	1.650122E+0	1.633894E+0	1.632421E+0	1.654368E+0	1.651190E+0	1.631868E+0	1.578865E+0	1.609626E+0	1.556685E+0	1.685141E+0	1.629343E+0	1.714214E+0	1.630942E+0	1.677044E+0	1.594877E+0	1.674526E+0	1.670011E+0	1.639180E+0	1.596004E+0	1.587268E+0	1.632530E+0	1.655157E+0	1.638207E+0	1.621746E+0	1.658719E+0	1.660441E+0	1.608973E+0	1.682368E+0	1.656370E+0	1.644486E+0	1.594406E+0	1.627870E+0	1.729077E+0	1.654643E+0	1.591322E+0	1.624212E+0	1.630431E+0	1.623170E+0	1.587994E+0	1.664990E+0	1.681229E+0	1.641035E+0	1.698396E+0	1.577607E+0	1.673303E+0	1.680568E+0	1.693606E+0	1.669387E+0	1.632663E+0	1.664536E+0	1.596235E+0	1.670708E+0	1.674306E+0	1.633274E+0	1.598604E+0	1.576030E+0	1.635993E+0	1.631470E+0	1.642216E+0	1.644932E+0	1.618938E+0	1.609497E+0	1.556760E+0	1.583195E+0	1.612573E+0	1.601490E+0	1.667943E+0	1.593188E+0	1.569547E+0	1.649166E+0	1.682425E+0	1.591639E+0
5.412690E+2	1.580369E+0	1.547616E+0	1.461173E+0	1.514506E+0	1.478743E+0	1.479896E+0	1.514460E+0	1.573499E+0	1.504327E+0	1.559443E+0	1.519189E+0	1.519162E+0	1.517138E+0	1.536841E+0	1.538730E+0	1.536158E+0	1.499000E+0	1.540907E+0	1.548289E+0	1.546805E+0	1.534115E+0	1.502919E+0	1.540957E+0	1.544686E+0	1.476000E+0	1.539294E+0	1.513891E+0	1.572439E+0	1.542818E+0	1.526095E+0	1.523464E+0	1.518854E+0	1.463330E+0	1.508845E+0	1.545356E+0	1.536997E+0	1.527881E+0	1.496634E+0	1.489798E+0	1.504515E+0	1.527641E+0	1.491869E+0	1.509955E+0	1.550633E+0	1.524051E+0	1.505055E+0	1.540386E+0	1.526899E+0	1.509189E+0	1.546444E+0	1.537319E+0	1.493847E+0	1.466774E+0	1.513921E+0	1.504029E+0	1.547855E+0	1.496306E+0	1.488472E+0	1.499071E+0	1.511832E+0	1.523301E+0	1.475801E+0	1.509745E+0	1.513607E+0	1.487840E+0	1.490149E+0	1.536721E+0	1.546742E+0	1.520342E+0	1.517080E+0	1.507087E+0	1.509342E+0	1.489074E+0	1.479819E+0	1.559978E+0	1.540593E+0	1.512230E+0	1.460608E+0	1.544200E+0	1.480558E+0	1.480713E+0	1.518742E+0	1.542751E+0	1.534562E+0	1.451849E+0	1.518949E+0	1.511582E+0	1.493119E+0	1.543779E+0	1.463775E+0	1.539935E+0	1.565050E+0	1.611008E+0	1.529426E+0	1.527147E+0	1.518374E+0	1.562198E+0	1.549536E+0	1.487167E+0	1.532935E+0	1.427800E+0	1.511186E+0	1.467049E+0	1.537241E+0	1.541133E+0	1.487593E+0	1.517353E+0	1.575700E+0	1.505161E+0	1.479831E+0	1.502087E+0	1.503855E+0	1.481862E+0	1.506638E+0	1.540975E+0	1.509395E+0	1.526168E+0	1.487212E+0	1.558182E+0	1.528924E+0	1.477497E+0	1.533455E+0	1.485146E+0	1.477753E+0	1.471626E+0	1.484732E+0	1.477654E+0	1.461131E+0	1.545021E+0	1.490468E+0	1.536391E+0	1.467471E+0	1.505699E+0	1.497920E+0	1.493383E+0	1.472929E+0	1.481985E+0	1.468832E+0	1.498642E+0	1.506516E+0	1.530924E+0	1.542696E+0	1.464468E+0	1.460469E+0	1.548632E+0	1.545998E+0	1.520863E+0	1.481342E+0	1.468210E+0	1.483863E+0	1.509915E+0	1.520108E+0	1.473669E+0	1.499265E+0	1.438738E+0	1.500519E+0	1.566920E+0	1.479879E+0	1.533436E+0	1.509322E+0	1.456364E+0	1.491079E+0	1.578764E+0	1.457336E+0	1.512313E+0	1.464574E+0	1.441956E+0	1.539545E+0	1.478123E+0	1.524917E+0
5.415140E+2	1.368541E+0	1.271446E+0	1.305853E+0	1.319631E+0	1.351599E+0	1.305534E+0	1.302513E+0	1.304778E+0	1.388174E+0	1.342545E+0	1.340034E+0	1.339272E+0	1.373032E+0	1.369372E+0	1.354266E+0	1.351061E+0	1.343720E+0	1.324196E+0	1.336942E+0	1.339859E+0	1.272802E+0	1.308072E+0	1.350525E+0	1.314110E+0	1.393926E+0	1.313618E+0	1.296330E+0	1.355165E+0	1.324311E+0	1.383237E+0	1.315339E+0	1.360343E+0	1.293977E+0	1.347782E+0	1.333758E+0	1.390254E+0	1.322121E+0	1.289888E+0	1.296916E+0	1.284352E+0	1.353964E+0	1.355932E+0	1.323080E+0	1.392718E+0	1.316521E+0	1.322504E+0	1.350295E+0	1.364087E+0	1.319565E+0	1.348967E+0	1.318945E+0	1.301683E+0	1.292497E+0	1.329459E+0	1.332499E+0	1.396327E+0	1.273977E+0	1.339550E+0	1.316796E+0	1.361442E+0	1.328480E+0	1.278435E+0	1.338367E+0	1.317903E+0	1.302088E+0	1.354002E+0	1.306557E+0	1.311058E+0	1.275411E+0	1.323133E+0	1.320478E+0	1.375903E+0	1.340419E+0	1.331978E+0	1.320502E+0	1.361670E+0	1.243409E+0	1.328145E+0	1.313179E+0	1.296476E+0	1.284519E+0	1.316375E+0	1.383397E+0	1.324498E+0	1.324175E+0	1.298718E+0	1.291413E+0	1.368275E+0	1.292947E+0	1.345265E+0	1.344711E+0	1.348966E+0	1.349358E+0	1.356655E+0	1.354355E+0	1.333204E+0	1.348291E+0	1.316681E+0	1.322890E+0	1.324821E+0	1.364178E+0	1.289349E+0	1.335172E+0	1.320546E+0	1.411382E+0	1.306961E+0	1.280420E+0	1.317404E+0	1.322368E+0	1.285464E+0	1.332291E+0	1.362814E+0	1.278080E+0	1.298000E+0	1.242008E+0	1.329325E+0	1.312955E+0	1.331116E+0	1.295420E+0	1.353375E+0	1.295984E+0	1.372801E+0	1.336304E+0	1.299288E+0	1.342778E+0	1.371124E+0	1.318513E+0	1.318291E+0	1.347649E+0	1.317023E+0	1.321609E+0	1.301075E+0	1.361033E+0	1.274583E+0	1.269132E+0	1.280155E+0	1.297569E+0	1.320494E+0	1.267867E+0	1.343890E+0	1.312660E+0	1.272739E+0	1.304129E+0	1.312439E+0	1.403329E+0	1.293998E+0	1.349648E+0	1.387183E+0	1.320518E+0	1.312122E+0	1.347046E+0	1.357376E+0	1.334384E+0	1.313438E+0	1.302241E+0	1.313820E+0	1.359343E+0	1.292102E+0	1.317942E+0	1.323965E+0	1.310727E+0	1.330832E+0	1.323768E+0	1.337147E+0	1.324959E+0	1.323125E+0	1.320687E+0	1.364921E+0	1.274254E+0	1.429517E+0
5.417700E+2	1.216007E+0	1.124960E+0	1.133604E+0	1.160843E+0	1.157067E+0	1.104663E+0	1.112192E+0	1.109601E+0	1.134987E+0	1.134417E+0	1.138339E+0	1.131601E+0	1.158909E+0	1.179356E+0	1.176506E+0	1.153894E+0	1.159234E+0	1.203107E+0	1.108287E+0	1.132226E+0	1.143203E+0	1.152389E+0	1.136747E+0	1.112205E+0	1.164142E+0	1.174407E+0	1.144258E+0	1.161170E+0	1.142434E+0	1.127937E+0	1.184582E+0	1.157217E+0	1.118702E+0	1.132120E+0	1.148516E+0	1.142537E+0	1.176982E+0	1.140493E+0	1.185263E+0	1.150505E+0	1.205866E+0	1.138369E+0	1.153620E+0	1.123513E+0	1.119340E+0	1.143961E+0	1.150482E+0	1.130692E+0	1.121785E+0	1.171621E+0	1.142451E+0	1.151202E+0	1.201058E+0	1.069007E+0	1.192706E+0	1.217588E+0	1.138978E+0	1.150487E+0	1.121318E+0	1.138130E+0	1.168674E+0	1.150572E+0	1.176435E+0	1.151934E+0	1.087852E+0	1.149048E+0	1.144606E+0	1.167026E+0	1.117871E+0	1.145936E+0	1.169464E+0	1.137522E+0	1.134290E+0	1.150198E+0	1.191033E+0	1.187775E+0	1.132501E+0	1.162780E+0	1.136232E+0	1.144870E+0	1.098936E+0	1.130991E+0	1.166751E+0	1.141190E+0	1.158657E+0	1.153764E+0	1.117343E+0	1.107037E+0	1.147675E+0	1.134050E+0	1.129910E+0	1.150943E+0	1.150345E+0	1.192071E+0	1.177695E+0	1.150092E+0	1.151923E+0	1.100826E+0	1.086965E+0	1.151270E+0	1.111591E+0	1.147506E+0	1.105013E+0	1.179066E+0	1.164300E+0	1.151672E+0	1.142868E+0	1.153628E+0	1.157997E+0	1.202559E+0	1.169516E+0	1.189911E+0	1.136847E+0	1.166949E+0	1.132354E+0	1.151603E+0	1.102671E+0	1.125037E+0	1.138187E+0	1.138756E+0	1.117740E+0	1.136511E+0	1.167580E+0	1.193468E+0	1.123734E+0	1.158344E+0	1.184759E+0	1.111933E+0	1.123050E+0	1.148817E+0	1.126232E+0	1.157458E+0	1.125323E+0	1.141312E+0	1.131004E+0	1.144285E+0	1.117574E+0	1.138944E+0	1.139845E+0	1.159343E+0	1.147693E+0	1.153312E+0	1.167070E+0	1.144100E+0	1.202111E+0	1.119982E+0	1.153596E+0	1.143345E+0	1.127023E+0	1.096167E+0	1.110197E+0	1.126445E+0	1.171915E+0	1.112628E+0	1.154209E+0	1.186047E+0	1.132600E+0	1.136202E+0	1.172608E+0	1.151308E+0	1.135380E+0	1.160909E+0	1.163836E+0	1.150595E+0	1.189060E+0	1.139137E+0	1.105332E+0	1.153564E+0	1.144574E+0	1.114844E+0
5.420270E+2	1.056703E+0	1.005094E+0	1.021220E+0	1.031449E+0	1.025268E+0	1.005120E+0	1.008572E+0	1.032640E+0	1.009231E+0	1.009647E+0	9.682016E-1	1.034397E+0	1.025859E+0	1.037947E+0	1.046574E+0	1.016700E+0	1.012928E+0	1.015589E+0	1.013560E+0	1.013989E+0	1.029895E+0	9.953788E-1	1.030894E+0	9.455663E-1	9.989518E-1	1.021252E+0	1.050779E+0	1.021601E+0	1.031640E+0	1.017648E+0	1.014373E+0	1.029705E+0	1.032492E+0	9.981942E-1	9.869159E-1	1.006394E+0	1.058143E+0	9.982560E-1	1.011072E+0	1.004744E+0	1.020729E+0	1.027963E+0	1.038770E+0	1.063718E+0	1.017310E+0	1.046820E+0	1.040461E+0	1.059804E+0	9.739847E-1	1.044617E+0	9.918761E-1	9.914772E-1	9.962413E-1	1.019741E+0	1.040678E+0	1.036954E+0	1.029693E+0	9.792750E-1	1.039344E+0	9.763755E-1	1.023233E+0	9.989258E-1	9.977718E-1	1.044041E+0	9.948404E-1	9.663633E-1	1.019516E+0	9.787446E-1	1.010583E+0	1.017683E+0	9.785773E-1	9.828791E-1	1.000195E+0	1.052930E+0	1.014226E+0	1.027522E+0	1.021793E+0	1.058576E+0	1.042735E+0	1.012110E+0	1.044303E+0	1.042231E+0	9.712190E-1	1.018071E+0	1.021425E+0	1.023075E+0	1.028916E+0	1.000585E+0	1.001065E+0	1.028767E+0	1.022978E+0	1.021228E+0	1.028112E+0	1.042460E+0	1.010381E+0	1.032054E+0	1.047342E+0	1.029253E+0	1.040375E+0	1.023008E+0	1.014156E+0	1.046516E+0	1.064881E+0	9.982665E-1	1.064903E+0	1.004265E+0	9.877994E-1	1.004001E+0	1.031684E+0	1.025926E+0	1.038973E+0	1.063913E+0	1.021858E+0	9.885260E-1	1.004062E+0	1.071812E+0	1.039970E+0	1.014442E+0	1.035332E+0	1.021292E+0	9.972843E-1	1.015782E+0	1.029601E+0	1.043169E+0	1.014042E+0	1.012207E+0	1.035267E+0	1.017141E+0	9.963656E-1	9.899589E-1	1.062253E+0	1.024320E+0	1.025814E+0	1.046434E+0	9.740512E-1	9.964673E-1	1.006834E+0	9.936706E-1	1.029370E+0	1.026073E+0	1.067770E+0	9.851527E-1	9.807867E-1	1.007880E+0	1.015448E+0	1.045891E+0	1.009466E+0	1.043027E+0	1.024552E+0	1.032462E+0	1.005136E+0	9.850841E-1	9.783848E-1	1.035841E+0	1.011392E+0	1.016950E+0	1.029944E+0	1.014470E+0	9.544524E-1	1.026858E+0	9.938423E-1	1.034759E+0	1.028647E+0	9.970031E-1	1.045560E+0	1.031734E+0	1.008220E+0	1.018953E+0	1.010592E+0	1.054387E+0
5.422780E+2	9.702070E-1	9.741091E-1	9.510975E-1	9.742971E-1	9.374157E-1	9.393129E-1	9.455611E-1	9.091527E-1	9.321450E-1	9.416026E-1	9.453564E-1	9.832342E-1	9.346202E-1	9.553657E-1	9.474895E-1	9.569905E-1	9.578264E-1	9.463618E-1	9.058141E-1	9.613894E-1	9.190323E-1	9.643414E-1	9.156957E-1	9.599864E-1	1.000985E+0	9.904968E-1	9.621565E-1	9.389691E-1	9.981364E-1	9.642177E-1	9.359432E-1	9.707829E-1	9.211978E-1	9.602307E-1	9.436011E-1	9.435346E-1	9.323688E-1	9.530703E-1	9.429507E-1	9.400776E-1	9.590468E-1	9.509603E-1	9.672204E-1	9.527555E-1	9.642663E-1	9.565028E-1	9.375683E-1	9.932882E-1	8.910418E-1	9.796494E-1	9.083670E-1	9.210586E-1	9.788635E-1	9.135274E-1	9.268768E-1	9.269852E-1	9.376998E-1	9.502818E-1	9.398611E-1	9.398687E-1	9.573243E-1	9.305547E-1	9.524487E-1	9.528628E-1	9.541889E-1	9.529438E-1	9.399935E-1	9.219816E-1	9.950720E-1	9.870863E-1	9.089714E-1	9.420871E-1	9.633136E-1	9.791708E-1	9.504370E-1	9.781397E-1	9.657809E-1	9.230907E-1	9.421699E-1	9.746121E-1	9.385494E-1	9.588477E-1	9.602526E-1	9.357865E-1	9.604250E-1	8.894305E-1	9.672221E-1	9.290744E-1	9.650505E-1	9.349716E-1	9.595843E-1	9.855125E-1	9.949396E-1	9.330069E-1	9.708009E-1	9.735673E-1	9.350105E-1	9.746696E-1	9.313083E-1	9.427711E-1	9.310342E-1	9.748896E-1	9.442381E-1	9.229464E-1	9.978705E-1	9.671522E-1	9.633146E-1	9.478154E-1	9.731321E-1	9.667878E-1	1.001172E+0	9.683721E-1	9.210762E-1	9.443648E-1	9.694730E-1	9.375844E-1	9.510839E-1	9.362247E-1	9.221757E-1	9.620794E-1	9.132238E-1	9.669277E-1	9.869154E-1	9.647691E-1	9.357643E-1	9.718561E-1	9.622956E-1	9.649538E-1	9.627352E-1	9.644121E-1	9.682463E-1	9.332945E-1	9.336607E-1	9.400709E-1	9.668765E-1	9.275574E-1	9.189850E-1	9.319801E-1	9.321923E-1	9.328879E-1	9.615853E-1	9.545316E-1	9.851485E-1	9.313122E-1	9.624851E-1	9.724644E-1	9.806300E-1	9.635670E-1	9.532054E-1	9.383758E-1	9.297255E-1	9.244889E-1	9.586678E-1	9.585529E-1	9.490261E-1	9.637807E-1	9.822333E-1	9.629719E-1	9.529560E-1	9.300998E-1	9.515073E-1	9.804557E-1	9.709077E-1	9.048351E-1	9.383989E-1	9.400551E-1	9.623722E-1	9.583603E-1	9.758236E-1	1.026777E+0
5.425300E+2	9.397181E-1	9.581557E-1	9.402823E-1	9.483309E-1	9.907257E-1	9.310445E-1	9.563535E-1	9.301490E-1	9.788163E-1	9.549200E-1	9.906077E-1	9.506472E-1	9.414130E-1	9.639754E-1	9.605297E-1	9.356099E-1	9.145642E-1	9.465605E-1	9.493750E-1	9.715470E-1	9.574548E-1	9.764715E-1	9.549748E-1	9.598777E-1	1.004415E+0	9.704250E-1	9.617722E-1	9.646768E-1	9.954163E-1	9.320167E-1	9.494287E-1	9.820078E-1	9.426639E-1	9.517140E-1	9.448866E-1	9.868262E-1	9.684608E-1	9.272627E-1	1.005499E+0	9.501367E-1	9.245888E-1	9.531164E-1	1.002963E+0	9.627980E-1	9.328076E-1	9.915631E-1	9.355442E-1	1.001614E+0	9.225360E-1	9.665294E-1	9.702480E-1	9.352428E-1	9.972942E-1	9.470298E-1	9.945383E-1	1.002822E+0	9.777729E-1	9.439938E-1	9.856982E-1	9.645647E-1	9.818704E-1	9.566113E-1	9.640504E-1	9.555406E-1	9.670975E-1	9.886699E-1	9.634404E-1	9.645267E-1	9.150707E-1	9.199266E-1	9.963053E-1	9.627190E-1	9.749943E-1	9.426641E-1	9.811223E-1	9.567044E-1	9.531207E-1	9.420301E-1	9.634227E-1	9.432051E-1	9.575203E-1	9.758480E-1	9.952513E-1	9.739843E-1	9.835284E-1	9.908659E-1	9.628030E-1	9.676382E-1	9.590956E-1	9.571571E-1	9.932167E-1	9.475935E-1	9.907557E-1	9.661831E-1	9.410116E-1	9.407524E-1	9.354119E-1	9.426617E-1	9.775857E-1	9.147392E-1	9.658623E-1	9.290350E-1	9.318096E-1	9.195522E-1	9.725534E-1	9.028930E-1	9.666826E-1	9.714103E-1	9.693718E-1	9.674559E-1	9.687759E-1	9.417374E-1	9.262034E-1	9.978819E-1	9.790931E-1	9.372395E-1	9.467566E-1	9.539430E-1	9.309659E-1	1.005971E+0	9.964827E-1	9.670036E-1	9.484977E-1	9.418339E-1	9.709255E-1	9.384788E-1	9.506170E-1	9.506370E-1	9.321869E-1	9.284589E-1	9.892882E-1	9.392373E-1	9.375056E-1	9.351832E-1	9.385199E-1	9.688613E-1	9.661676E-1	9.311401E-1	9.266042E-1	9.206541E-1	9.484378E-1	9.048747E-1	9.714061E-1	9.152391E-1	9.641715E-1	9.740009E-1	9.554419E-1	9.531787E-1	9.594839E-1	9.519566E-1	9.673680E-1	9.469708E-1	9.771888E-1	9.106967E-1	9.966569E-1	9.384480E-1	9.817908E-1	9.565146E-1	9.554141E-1	9.463282E-1	9.165112E-1	9.444738E-1	9.617337E-1	9.390424E-1	9.759775E-1	9.463115E-1	9.597151E-1	9.471370E-1	1.014090E+0	9.643969E-1
5.427650E+2	1.048145E+0	1.024200E+0	1.011465E+0	1.042073E+0	1.026690E+0	1.042379E+0	1.059966E+0	1.012883E+0	1.094535E+0	1.034151E+0	1.049451E+0	1.010007E+0	1.073316E+0	1.052384E+0	1.011016E+0	1.032220E+0	1.021861E+0	1.032607E+0	1.061821E+0	9.770550E-1	1.012457E+0	1.039841E+0	1.064232E+0	1.007139E+0	1.072511E+0	1.082208E+0	1.077340E+0	1.059881E+0	1.007031E+0	1.052866E+0	1.035690E+0	1.030844E+0	1.061337E+0	1.037873E+0	1.065800E+0	1.028729E+0	1.083641E+0	1.027266E+0	1.039243E+0	1.049081E+0	1.065435E+0	1.052625E+0	1.024728E+0	1.068077E+0	1.025651E+0	1.053508E+0	1.004200E+0	1.075298E+0	1.019003E+0	1.052907E+0	1.044822E+0	1.048311E+0	1.025802E+0	1.050898E+0	1.073758E+0	1.028871E+0	1.064948E+0	1.037735E+0	1.069779E+0	1.039224E+0	1.060742E+0	1.024894E+0	1.047970E+0	1.016875E+0	1.051488E+0	1.011098E+0	1.016598E+0	1.040303E+0	1.051829E+0	1.053799E+0	1.009087E+0	1.024297E+0	1.042974E+0	1.067640E+0	1.039999E+0	1.032674E+0	1.047990E+0	1.041635E+0	1.080847E+0	1.015413E+0	1.022771E+0	1.034156E+0	1.037594E+0	1.069985E+0	1.045196E+0	1.029754E+0	1.035582E+0	1.019162E+0	1.079758E+0	1.041595E+0	1.006744E+0	9.755779E-1	1.088140E+0	1.065378E+0	1.021297E+0	1.059837E+0	1.063935E+0	1.059994E+0	1.058476E+0	1.016648E+0	1.031870E+0	9.985488E-1	1.028099E+0	1.047464E+0	1.061689E+0	9.921279E-1	1.000314E+0	1.017489E+0	1.046033E+0	1.032857E+0	1.100795E+0	1.067850E+0	1.036562E+0	9.952608E-1	9.867647E-1	1.016272E+0	1.054486E+0	1.053556E+0	1.015959E+0	1.027524E+0	1.058189E+0	1.022268E+0	1.074734E+0	1.048976E+0	1.027308E+0	1.013948E+0	1.032687E+0	1.046224E+0	1.043137E+0	1.014395E+0	1.070844E+0	1.046116E+0	1.044874E+0	1.069383E+0	1.070335E+0	1.009869E+0	1.042385E+0	9.869760E-1	1.107118E+0	1.014586E+0	1.076627E+0	1.023015E+0	1.043148E+0	1.027302E+0	1.058341E+0	1.066392E+0	1.050240E+0	1.129608E+0	1.051771E+0	1.038763E+0	1.068076E+0	1.037068E+0	1.034283E+0	1.030147E+0	1.038308E+0	1.039628E+0	1.066019E+0	1.013167E+0	1.052978E+0	1.048552E+0	1.034383E+0	1.054685E+0	1.016907E+0	1.005704E+0	1.109626E+0	1.038493E+0	1.004307E+0	1.055150E+0	1.055000E+0	1.129368E+0
5.430070E+2	1.235937E+0	1.142932E+0	1.114541E+0	1.229317E+0	1.195645E+0	1.187121E+0	1.193595E+0	1.150827E+0	1.230851E+0	1.182361E+0	1.183957E+0	1.194946E+0	1.214199E+0	1.147212E+0	1.202396E+0	1.186463E+0	1.160763E+0	1.174430E+0	1.204477E+0	1.168680E+0	1.221429E+0	1.165233E+0	1.189867E+0	1.174320E+0	1.241760E+0	1.194477E+0	1.178203E+0	1.218074E+0	1.189431E+0	1.169012E+0	1.187522E+0	1.216609E+0	1.145885E+0	1.195147E+0	1.204440E+0	1.215095E+0	1.200151E+0	1.196440E+0	1.180390E+0	1.172565E+0	1.251299E+0	1.187608E+0	1.204361E+0	1.152191E+0	1.208548E+0	1.194767E+0	1.152113E+0	1.210997E+0	1.176037E+0	1.186750E+0	1.212791E+0	1.192660E+0	1.220045E+0	1.172011E+0	1.171667E+0	1.178213E+0	1.154785E+0	1.138370E+0	1.195815E+0	1.184030E+0	1.266256E+0	1.183289E+0	1.205389E+0	1.177980E+0	1.210408E+0	1.216427E+0	1.146434E+0	1.176821E+0	1.166791E+0	1.236886E+0	1.164059E+0	1.148872E+0	1.195156E+0	1.202173E+0	1.167159E+0	1.187124E+0	1.182975E+0	1.169083E+0	1.202591E+0	1.149636E+0	1.156578E+0	1.179078E+0	1.166501E+0	1.223323E+0	1.171875E+0	1.192055E+0	1.178204E+0	1.186279E+0	1.234090E+0	1.150605E+0	1.138073E+0	1.182830E+0	1.226227E+0	1.180202E+0	1.187617E+0	1.239481E+0	1.160819E+0	1.196686E+0	1.182426E+0	1.202387E+0	1.159132E+0	1.172763E+0	1.179166E+0	1.121626E+0	1.233369E+0	1.162599E+0	1.119768E+0	1.206453E+0	1.191792E+0	1.208139E+0	1.177624E+0	1.173032E+0	1.195340E+0	1.188093E+0	1.209580E+0	1.187833E+0	1.155390E+0	1.183216E+0	1.171052E+0	1.222044E+0	1.148726E+0	1.232011E+0	1.204051E+0	1.173777E+0	1.164425E+0	1.187363E+0	1.176640E+0	1.170185E+0	1.120002E+0	1.203035E+0	1.228980E+0	1.152512E+0	1.150770E+0	1.162556E+0	1.212336E+0	1.150253E+0	1.206336E+0	1.182809E+0	1.160859E+0	1.151271E+0	1.188451E+0	1.123228E+0	1.154364E+0	1.158804E+0	1.223289E+0	1.203471E+0	1.203452E+0	1.120993E+0	1.168662E+0	1.148624E+0	1.142947E+0	1.152224E+0	1.190819E+0	1.158357E+0	1.173526E+0	1.167710E+0	1.225154E+0	1.193419E+0	1.192608E+0	1.181921E+0	1.189448E+0	1.182554E+0	1.194109E+0	1.149379E+0	1.167902E+0	1.135644E+0	1.139739E+0	1.151257E+0	1.155977E+0	1.259604E+0
5.432800E+2	1.354298E+0	1.275053E+0	1.293570E+0	1.320923E+0	1.361348E+0	1.351128E+0	1.303832E+0	1.320107E+0	1.335191E+0	1.345639E+0	1.307019E+0	1.328267E+0	1.325825E+0	1.305224E+0	1.351347E+0	1.331392E+0	1.363601E+0	1.323516E+0	1.298195E+0	1.342598E+0	1.335188E+0	1.318868E+0	1.328396E+0	1.275113E+0	1.278035E+0	1.351795E+0	1.312798E+0	1.313146E+0	1.312209E+0	1.339045E+0	1.331876E+0	1.342699E+0	1.325404E+0	1.350723E+0	1.330721E+0	1.370627E+0	1.405666E+0	1.294705E+0	1.309780E+0	1.365906E+0	1.322162E+0	1.385773E+0	1.305890E+0	1.322511E+0	1.327916E+0	1.322785E+0	1.332192E+0	1.328049E+0	1.304175E+0	1.403334E+0	1.342567E+0	1.314846E+0	1.306708E+0	1.329027E+0	1.329601E+0	1.334516E+0	1.296449E+0	1.333633E+0	1.328926E+0	1.402982E+0	1.355280E+0	1.289669E+0	1.322660E+0	1.348581E+0	1.329430E+0	1.334205E+0	1.306509E+0	1.288415E+0	1.284670E+0	1.323838E+0	1.305853E+0	1.305025E+0	1.354880E+0	1.313350E+0	1.320564E+0	1.308321E+0	1.371225E+0	1.363937E+0	1.325467E+0	1.328773E+0	1.300446E+0	1.319508E+0	1.303198E+0	1.317154E+0	1.344158E+0	1.355277E+0	1.293508E+0	1.333758E+0	1.329566E+0	1.303841E+0	1.338527E+0	1.308189E+0	1.327257E+0	1.342950E+0	1.319280E+0	1.362234E+0	1.311709E+0	1.341685E+0	1.325651E+0	1.279888E+0	1.293276E+0	1.316468E+0	1.319109E+0	1.294064E+0	1.395394E+0	1.344066E+0	1.297583E+0	1.291195E+0	1.308661E+0	1.323762E+0	1.326156E+0	1.333336E+0	1.298842E+0	1.291404E+0	1.277815E+0	1.362273E+0	1.355097E+0	1.321801E+0	1.346069E+0	1.278737E+0	1.387511E+0	1.320050E+0	1.275541E+0	1.309272E+0	1.287406E+0	1.302363E+0	1.292022E+0	1.317233E+0	1.325601E+0	1.316152E+0	1.338394E+0	1.279834E+0	1.272655E+0	1.319636E+0	1.333924E+0	1.278022E+0	1.308023E+0	1.282714E+0	1.344213E+0	1.350672E+0	1.348057E+0	1.332154E+0	1.328336E+0	1.289518E+0	1.344730E+0	1.280943E+0	1.325575E+0	1.322418E+0	1.294678E+0	1.304020E+0	1.288662E+0	1.341271E+0	1.305586E+0	1.253783E+0	1.282704E+0	1.261070E+0	1.375833E+0	1.346175E+0	1.327518E+0	1.286054E+0	1.356925E+0	1.291451E+0	1.333667E+0	1.352357E+0	1.305679E+0	1.297106E+0	1.272138E+0	1.288790E+0	1.420605E+0	1.393261E+0
5.435540E+2	1.571397E+0	1.422153E+0	1.402217E+0	1.491296E+0	1.511816E+0	1.490859E+0	1.551785E+0	1.486596E+0	1.518918E+0	1.548417E+0	1.527083E+0	1.473733E+0	1.514079E+0	1.497652E+0	1.494073E+0	1.445519E+0	1.507095E+0	1.517341E+0	1.470068E+0	1.522875E+0	1.510414E+0	1.460641E+0	1.514631E+0	1.487320E+0	1.455364E+0	1.505983E+0	1.450122E+0	1.516390E+0	1.468889E+0	1.464710E+0	1.530632E+0	1.495118E+0	1.506858E+0	1.496725E+0	1.543323E+0	1.491531E+0	1.588203E+0	1.439247E+0	1.496871E+0	1.503803E+0	1.461876E+0	1.525604E+0	1.501104E+0	1.508281E+0	1.518228E+0	1.529825E+0	1.492978E+0	1.479584E+0	1.446259E+0	1.484673E+0	1.425282E+0	1.494866E+0	1.480169E+0	1.454213E+0	1.496011E+0	1.495970E+0	1.486747E+0	1.472618E+0	1.463183E+0	1.481197E+0	1.483399E+0	1.479697E+0	1.529420E+0	1.449536E+0	1.454883E+0	1.516553E+0	1.511917E+0	1.504111E+0	1.486566E+0	1.523415E+0	1.502818E+0	1.501977E+0	1.534107E+0	1.526322E+0	1.515779E+0	1.457595E+0	1.562953E+0	1.473535E+0	1.474359E+0	1.465400E+0	1.488378E+0	1.469645E+0	1.550805E+0	1.492157E+0	1.484841E+0	1.503385E+0	1.448007E+0	1.474351E+0	1.506505E+0	1.511243E+0	1.512843E+0	1.496626E+0	1.547715E+0	1.417059E+0	1.463221E+0	1.506848E+0	1.513946E+0	1.472886E+0	1.479038E+0	1.509530E+0	1.489174E+0	1.464635E+0	1.461692E+0	1.438061E+0	1.511401E+0	1.479670E+0	1.452380E+0	1.487386E+0	1.492592E+0	1.482474E+0	1.524268E+0	1.462519E+0	1.483790E+0	1.487179E+0	1.409842E+0	1.509101E+0	1.513151E+0	1.445272E+0	1.422193E+0	1.550209E+0	1.496284E+0	1.486750E+0	1.493010E+0	1.426991E+0	1.483710E+0	1.452726E+0	1.457435E+0	1.474645E+0	1.462834E+0	1.429720E+0	1.526640E+0	1.492682E+0	1.442176E+0	1.497806E+0	1.433421E+0	1.485895E+0	1.478450E+0	1.481995E+0	1.442407E+0	1.468567E+0	1.555390E+0	1.426454E+0	1.542151E+0	1.446549E+0	1.486745E+0	1.387683E+0	1.522441E+0	1.471634E+0	1.560721E+0	1.489646E+0	1.511807E+0	1.476494E+0	1.461614E+0	1.405267E+0	1.463917E+0	1.431691E+0	1.514839E+0	1.561059E+0	1.443668E+0	1.471605E+0	1.530738E+0	1.490233E+0	1.465470E+0	1.449013E+0	1.500912E+0	1.466856E+0	1.424985E+0	1.455685E+0	1.461336E+0	1.563468E+0
5.437590E+2	1.646958E+0	1.566975E+0	1.516407E+0	1.612547E+0	1.588381E+0	1.535045E+0	1.569623E+0	1.533920E+0	1.594777E+0	1.640027E+0	1.562580E+0	1.545397E+0	1.545642E+0	1.594079E+0	1.550527E+0	1.568356E+0	1.567361E+0	1.612838E+0	1.575083E+0	1.624267E+0	1.565208E+0	1.592616E+0	1.556226E+0	1.541619E+0	1.520395E+0	1.696253E+0	1.581669E+0	1.588477E+0	1.549088E+0	1.607530E+0	1.598824E+0	1.601378E+0	1.548684E+0	1.497843E+0	1.556287E+0	1.594668E+0	1.580532E+0	1.512738E+0	1.578893E+0	1.536145E+0	1.536665E+0	1.587085E+0	1.543103E+0	1.578046E+0	1.549586E+0	1.584321E+0	1.542390E+0	1.572432E+0	1.523915E+0	1.530251E+0	1.514356E+0	1.531753E+0	1.549624E+0	1.527847E+0	1.558969E+0	1.581082E+0	1.560915E+0	1.569598E+0	1.550440E+0	1.540515E+0	1.527115E+0	1.538726E+0	1.586596E+0	1.526917E+0	1.537826E+0	1.554290E+0	1.603748E+0	1.462462E+0	1.610142E+0	1.568808E+0	1.537417E+0	1.563201E+0	1.511855E+0	1.649969E+0	1.592381E+0	1.524674E+0	1.594383E+0	1.575410E+0	1.569764E+0	1.554751E+0	1.559779E+0	1.553709E+0	1.564319E+0	1.571874E+0	1.570670E+0	1.546731E+0	1.510053E+0	1.527542E+0	1.557773E+0	1.538002E+0	1.556354E+0	1.566828E+0	1.576066E+0	1.589480E+0	1.511747E+0	1.556209E+0	1.544705E+0	1.493563E+0	1.539249E+0	1.518294E+0	1.530492E+0	1.598540E+0	1.511034E+0	1.517272E+0	1.617391E+0	1.521632E+0	1.532820E+0	1.572456E+0	1.584462E+0	1.526552E+0	1.597061E+0	1.522050E+0	1.570750E+0	1.546365E+0	1.593559E+0	1.534183E+0	1.589950E+0	1.558923E+0	1.531902E+0	1.556663E+0	1.527111E+0	1.536545E+0	1.541733E+0	1.578657E+0	1.558973E+0	1.566381E+0	1.573569E+0	1.512876E+0	1.551329E+0	1.478578E+0	1.622529E+0	1.497697E+0	1.507030E+0	1.547049E+0	1.562959E+0	1.546741E+0	1.549852E+0	1.588139E+0	1.558904E+0	1.553352E+0	1.553362E+0	1.575909E+0	1.542978E+0	1.526774E+0	1.564911E+0	1.535984E+0	1.558893E+0	1.567470E+0	1.531154E+0	1.505728E+0	1.567211E+0	1.525682E+0	1.536315E+0	1.495944E+0	1.493294E+0	1.549401E+0	1.567374E+0	1.586189E+0	1.512055E+0	1.504283E+0	1.545336E+0	1.557165E+0	1.517717E+0	1.517067E+0	1.537432E+0	1.502069E+0	1.463566E+0	1.568628E+0	1.551976E+0	1.527908E+0
5.440170E+2	1.651947E+0	1.549103E+0	1.607805E+0	1.650622E+0	1.690026E+0	1.590082E+0	1.699859E+0	1.598102E+0	1.677644E+0	1.603703E+0	1.572059E+0	1.667466E+0	1.615952E+0	1.642019E+0	1.595837E+0	1.576433E+0	1.584820E+0	1.637993E+0	1.611595E+0	1.586979E+0	1.630136E+0	1.582955E+0	1.586792E+0	1.579146E+0	1.606919E+0	1.639286E+0	1.604327E+0	1.589310E+0	1.609978E+0	1.616380E+0	1.586063E+0	1.691432E+0	1.539071E+0	1.567822E+0	1.641227E+0	1.578095E+0	1.586765E+0	1.583347E+0	1.602963E+0	1.569869E+0	1.611402E+0	1.601709E+0	1.620659E+0	1.634432E+0	1.623614E+0	1.617291E+0	1.649040E+0	1.613221E+0	1.591712E+0	1.640628E+0	1.585886E+0	1.609070E+0	1.593087E+0	1.590600E+0	1.636154E+0	1.598633E+0	1.588284E+0	1.567325E+0	1.628061E+0	1.622832E+0	1.618537E+0	1.682693E+0	1.547918E+0	1.573372E+0	1.581106E+0	1.597243E+0	1.608519E+0	1.655137E+0	1.551307E+0	1.602131E+0	1.612276E+0	1.601636E+0	1.566413E+0	1.604713E+0	1.596324E+0	1.606161E+0	1.615060E+0	1.630110E+0	1.606961E+0	1.608295E+0	1.587986E+0	1.576552E+0	1.656835E+0	1.662558E+0	1.592353E+0	1.565118E+0	1.548235E+0	1.569680E+0	1.616625E+0	1.613720E+0	1.527392E+0	1.611694E+0	1.588155E+0	1.626881E+0	1.638819E+0	1.652028E+0	1.542901E+0	1.620634E+0	1.558835E+0	1.634065E+0	1.566304E+0	1.622979E+0	1.625597E+0	1.539699E+0	1.585300E+0	1.557522E+0	1.560986E+0	1.591727E+0	1.584790E+0	1.587875E+0	1.597423E+0	1.591177E+0	1.593509E+0	1.580925E+0	1.543835E+0	1.566601E+0	1.611035E+0	1.575308E+0	1.570141E+0	1.628235E+0	1.599469E+0	1.555611E+0	1.618121E+0	1.625099E+0	1.586431E+0	1.642052E+0	1.570577E+0	1.596596E+0	1.570610E+0	1.573567E+0	1.575891E+0	1.535759E+0	1.582280E+0	1.555213E+0	1.559633E+0	1.579074E+0	1.514209E+0	1.568528E+0	1.571178E+0	1.639534E+0	1.638338E+0	1.562975E+0	1.599784E+0	1.535237E+0	1.541753E+0	1.600301E+0	1.570684E+0	1.616994E+0	1.619693E+0	1.574160E+0	1.549756E+0	1.608432E+0	1.548963E+0	1.578360E+0	1.596713E+0	1.599317E+0	1.638531E+0	1.569114E+0	1.559306E+0	1.571104E+0	1.573964E+0	1.604006E+0	1.641556E+0	1.570584E+0	1.568343E+0	1.529670E+0	1.547282E+0	1.540501E+0	1.608940E+0	1.611525E+0
5.442700E+2	1.667175E+0	1.521354E+0	1.541300E+0	1.597833E+0	1.668590E+0	1.573977E+0	1.550552E+0	1.569457E+0	1.595079E+0	1.618549E+0	1.551168E+0	1.588600E+0	1.583424E+0	1.555768E+0	1.553372E+0	1.618601E+0	1.534346E+0	1.663169E+0	1.620122E+0	1.578463E+0	1.601498E+0	1.597672E+0	1.583217E+0	1.574508E+0	1.531076E+0	1.609830E+0	1.530755E+0	1.618454E+0	1.586089E+0	1.565107E+0	1.592141E+0	1.614983E+0	1.526340E+0	1.540835E+0	1.581527E+0	1.619042E+0	1.642451E+0	1.600069E+0	1.553747E+0	1.566601E+0	1.609517E+0	1.611329E+0	1.542576E+0	1.572658E+0	1.564211E+0	1.589601E+0	1.598919E+0	1.574215E+0	1.538523E+0	1.597024E+0	1.573510E+0	1.609414E+0	1.516248E+0	1.558126E+0	1.583839E+0	1.573128E+0	1.545261E+0	1.555338E+0	1.587086E+0	1.602600E+0	1.584143E+0	1.559062E+0	1.615616E+0	1.523350E+0	1.567713E+0	1.598012E+0	1.543260E+0	1.505743E+0	1.521933E+0	1.557374E+0	1.572939E+0	1.525319E+0	1.536504E+0	1.594092E+0	1.584340E+0	1.518438E+0	1.494567E+0	1.558218E+0	1.550210E+0	1.504490E+0	1.591096E+0	1.617278E+0	1.557856E+0	1.598558E+0	1.538682E+0	1.535036E+0	1.469557E+0	1.546122E+0	1.577173E+0	1.587203E+0	1.598437E+0	1.553738E+0	1.543086E+0	1.602277E+0	1.539799E+0	1.579555E+0	1.533236E+0	1.515753E+0	1.560412E+0	1.545212E+0	1.541671E+0	1.537778E+0	1.518723E+0	1.544346E+0	1.585128E+0	1.558187E+0	1.604698E+0	1.577980E+0	1.530079E+0	1.611559E+0	1.605528E+0	1.593379E+0	1.529898E+0	1.594581E+0	1.536844E+0	1.590466E+0	1.526290E+0	1.586835E+0	1.528216E+0	1.548501E+0	1.577488E+0	1.524751E+0	1.565658E+0	1.558856E+0	1.485143E+0	1.578069E+0	1.574641E+0	1.534642E+0	1.519547E+0	1.510717E+0	1.654368E+0	1.555179E+0	1.581755E+0	1.586152E+0	1.575381E+0	1.542493E+0	1.539490E+0	1.578117E+0	1.567371E+0	1.559813E+0	1.575275E+0	1.594898E+0	1.530266E+0	1.600287E+0	1.548095E+0	1.551714E+0	1.534966E+0	1.630999E+0	1.523652E+0	1.543728E+0	1.580206E+0	1.516057E+0	1.570589E+0	1.528385E+0	1.522867E+0	1.496278E+0	1.584648E+0	1.528335E+0	1.588473E+0	1.505854E+0	1.539700E+0	1.627743E+0	1.520359E+0	1.507143E+0	1.634075E+0	1.579183E+0	1.515619E+0	1.569389E+0	1.518300E+0	1.594534E+0
5.445290E+2	1.564936E+0	1.483880E+0	1.439461E+0	1.540510E+0	1.548113E+0	1.509189E+0	1.557898E+0	1.500334E+0	1.528585E+0	1.567333E+0	1.519770E+0	1.498352E+0	1.482831E+0	1.528324E+0	1.486427E+0	1.497254E+0	1.533542E+0	1.533151E+0	1.535428E+0	1.550649E+0	1.491283E+0	1.537176E+0	1.510892E+0	1.497446E+0	1.486143E+0	1.531543E+0	1.535439E+0	1.520181E+0	1.519973E+0	1.546617E+0	1.518075E+0	1.526989E+0	1.501531E+0	1.524047E+0	1.521775E+0	1.540309E+0	1.525562E+0	1.491368E+0	1.545447E+0	1.492807E+0	1.489010E+0	1.528052E+0	1.522588E+0	1.470948E+0	1.494333E+0	1.505979E+0	1.536179E+0	1.492858E+0	1.490594E+0	1.538999E+0	1.526037E+0	1.538153E+0	1.493086E+0	1.521564E+0	1.454788E+0	1.520575E+0	1.492008E+0	1.427583E+0	1.445972E+0	1.469040E+0	1.533242E+0	1.492736E+0	1.507680E+0	1.473828E+0	1.461478E+0	1.484637E+0	1.501288E+0	1.505247E+0	1.510197E+0	1.556801E+0	1.472284E+0	1.456929E+0	1.480005E+0	1.537204E+0	1.522562E+0	1.521653E+0	1.529523E+0	1.578699E+0	1.524818E+0	1.475214E+0	1.534693E+0	1.509938E+0	1.461690E+0	1.562058E+0	1.427575E+0	1.521311E+0	1.490187E+0	1.462169E+0	1.516849E+0	1.526794E+0	1.572511E+0	1.544776E+0	1.533143E+0	1.599206E+0	1.531740E+0	1.552343E+0	1.452703E+0	1.559974E+0	1.539996E+0	1.519515E+0	1.500432E+0	1.526723E+0	1.488452E+0	1.483113E+0	1.524308E+0	1.514335E+0	1.582829E+0	1.517724E+0	1.472135E+0	1.451607E+0	1.483814E+0	1.497684E+0	1.458196E+0	1.531869E+0	1.535334E+0	1.479297E+0	1.519517E+0	1.510887E+0	1.559625E+0	1.535474E+0	1.449791E+0	1.509704E+0	1.513891E+0	1.499731E+0	1.504419E+0	1.497132E+0	1.532537E+0	1.453571E+0	1.484250E+0	1.406100E+0	1.542851E+0	1.435316E+0	1.488864E+0	1.469253E+0	1.479091E+0	1.517709E+0	1.493731E+0	1.431673E+0	1.547962E+0	1.480185E+0	1.515759E+0	1.480569E+0	1.467452E+0	1.494942E+0	1.502295E+0	1.473635E+0	1.426151E+0	1.527933E+0	1.486808E+0	1.474416E+0	1.495128E+0	1.491830E+0	1.476538E+0	1.477418E+0	1.508789E+0	1.506173E+0	1.529403E+0	1.518284E+0	1.509153E+0	1.502193E+0	1.479637E+0	1.452417E+0	1.488752E+0	1.444486E+0	1.493008E+0	1.511118E+0	1.388450E+0	1.410682E+0	1.509399E+0	1.546364E+0
5.447720E+2	1.538619E+0	1.423726E+0	1.366723E+0	1.471362E+0	1.496656E+0	1.396288E+0	1.400528E+0	1.386676E+0	1.472329E+0	1.485267E+0	1.387381E+0	1.458106E+0	1.491966E+0	1.427324E+0	1.400236E+0	1.437076E+0	1.389743E+0	1.459181E+0	1.477537E+0	1.365925E+0	1.441240E+0	1.414083E+0	1.420140E+0	1.430735E+0	1.400322E+0	1.422638E+0	1.390581E+0	1.459304E+0	1.394491E+0	1.460717E+0	1.407460E+0	1.441287E+0	1.442812E+0	1.431649E+0	1.466470E+0	1.488263E+0	1.473339E+0	1.410057E+0	1.413042E+0	1.453222E+0	1.432068E+0	1.413271E+0	1.374909E+0	1.469288E+0	1.408596E+0	1.481636E+0	1.415223E+0	1.477473E+0	1.416050E+0	1.492468E+0	1.456822E+0	1.384398E+0	1.387465E+0	1.516874E+0	1.449882E+0	1.476116E+0	1.415503E+0	1.390083E+0	1.444743E+0	1.438812E+0	1.434285E+0	1.424210E+0	1.483336E+0	1.397118E+0	1.410688E+0	1.439276E+0	1.411640E+0	1.483528E+0	1.436845E+0	1.435903E+0	1.430158E+0	1.374324E+0	1.392114E+0	1.413679E+0	1.405359E+0	1.447984E+0	1.389906E+0	1.477648E+0	1.395512E+0	1.393272E+0	1.366159E+0	1.479424E+0	1.443718E+0	1.392609E+0	1.383056E+0	1.452164E+0	1.431592E+0	1.422390E+0	1.377796E+0	1.380238E+0	1.372545E+0	1.489746E+0	1.376616E+0	1.476734E+0	1.475567E+0	1.414026E+0	1.350427E+0	1.428422E+0	1.412813E+0	1.417205E+0	1.392031E+0	1.421519E+0	1.369477E+0	1.385953E+0	1.463128E+0	1.403498E+0	1.406714E+0	1.432392E+0	1.393900E+0	1.372448E+0	1.425431E+0	1.362871E+0	1.384504E+0	1.401444E+0	1.376735E+0	1.439443E+0	1.421878E+0	1.419832E+0	1.420674E+0	1.457084E+0	1.447889E+0	1.403171E+0	1.491402E+0	1.395579E+0	1.418410E+0	1.406851E+0	1.444043E+0	1.376376E+0	1.369562E+0	1.405968E+0	1.467770E+0	1.451162E+0	1.406358E+0	1.393182E+0	1.402818E+0	1.376671E+0	1.430447E+0	1.440051E+0	1.454971E+0	1.415628E+0	1.394873E+0	1.404902E+0	1.476077E+0	1.422288E+0	1.462864E+0	1.402884E+0	1.419199E+0	1.456772E+0	1.420510E+0	1.421462E+0	1.428574E+0	1.417050E+0	1.411541E+0	1.424945E+0	1.424487E+0	1.486009E+0	1.419142E+0	1.435817E+0	1.428683E+0	1.362644E+0	1.380781E+0	1.452161E+0	1.403204E+0	1.433198E+0	1.390244E+0	1.397738E+0	1.411923E+0	1.438966E+0	1.453743E+0	1.394001E+0
5.450150E+2	1.449319E+0	1.340269E+0	1.341326E+0	1.371555E+0	1.321662E+0	1.354794E+0	1.413800E+0	1.354391E+0	1.401374E+0	1.372929E+0	1.321414E+0	1.369173E+0	1.408405E+0	1.352362E+0	1.335308E+0	1.387425E+0	1.341652E+0	1.375461E+0	1.396796E+0	1.349298E+0	1.355001E+0	1.347743E+0	1.374534E+0	1.341209E+0	1.401476E+0	1.380806E+0	1.365940E+0	1.307241E+0	1.346190E+0	1.397801E+0	1.355179E+0	1.372839E+0	1.287940E+0	1.338649E+0	1.349680E+0	1.340458E+0	1.398387E+0	1.352347E+0	1.332307E+0	1.346706E+0	1.304902E+0	1.319923E+0	1.390418E+0	1.356471E+0	1.379942E+0	1.353961E+0	1.359341E+0	1.353536E+0	1.342014E+0	1.410929E+0	1.364146E+0	1.338931E+0	1.322711E+0	1.366713E+0	1.365703E+0	1.377694E+0	1.369452E+0	1.330031E+0	1.356956E+0	1.354174E+0	1.350523E+0	1.370390E+0	1.369748E+0	1.347824E+0	1.361122E+0	1.371371E+0	1.317310E+0	1.341815E+0	1.360002E+0	1.372894E+0	1.362652E+0	1.333069E+0	1.377050E+0	1.361267E+0	1.329602E+0	1.354619E+0	1.374583E+0	1.418151E+0	1.298764E+0	1.357586E+0	1.337139E+0	1.343429E+0	1.319497E+0	1.351040E+0	1.390574E+0	1.319223E+0	1.346951E+0	1.353073E+0	1.334260E+0	1.321617E+0	1.341562E+0	1.402158E+0	1.379439E+0	1.359430E+0	1.396928E+0	1.387268E+0	1.359972E+0	1.331114E+0	1.380618E+0	1.314698E+0	1.318469E+0	1.349615E+0	1.358402E+0	1.350395E+0	1.368814E+0	1.295949E+0	1.339258E+0	1.410254E+0	1.341877E+0	1.363945E+0	1.383352E+0	1.417993E+0	1.378467E+0	1.308319E+0	1.342691E+0	1.351257E+0	1.251025E+0	1.294980E+0	1.368594E+0	1.345970E+0	1.311745E+0	1.363452E+0	1.298195E+0	1.339182E+0	1.299887E+0	1.306696E+0	1.353957E+0	1.304015E+0	1.320817E+0	1.352580E+0	1.373400E+0	1.361445E+0	1.334938E+0	1.346402E+0	1.329322E+0	1.335092E+0	1.355413E+0	1.343536E+0	1.403822E+0	1.373438E+0	1.331598E+0	1.382776E+0	1.375414E+0	1.295810E+0	1.330527E+0	1.344312E+0	1.372058E+0	1.363555E+0	1.363646E+0	1.385362E+0	1.323354E+0	1.331611E+0	1.346298E+0	1.334139E+0	1.374044E+0	1.354453E+0	1.356945E+0	1.372193E+0	1.314531E+0	1.288760E+0	1.364475E+0	1.346033E+0	1.306193E+0	1.278234E+0	1.325369E+0	1.316394E+0	1.346070E+0	1.330091E+0	1.380070E+0	1.340609E+0
5.452690E+2	1.379857E+0	1.267489E+0	1.286416E+0	1.284059E+0	1.309708E+0	1.273506E+0	1.268025E+0	1.254378E+0	1.283243E+0	1.329094E+0	1.336572E+0	1.308427E+0	1.330528E+0	1.310451E+0	1.324669E+0	1.299691E+0	1.287809E+0	1.272676E+0	1.319772E+0	1.297868E+0	1.335676E+0	1.339330E+0	1.265152E+0	1.286515E+0	1.337533E+0	1.323962E+0	1.316716E+0	1.320943E+0	1.293817E+0	1.250742E+0	1.323563E+0	1.323461E+0	1.267643E+0	1.311258E+0	1.297040E+0	1.329503E+0	1.346213E+0	1.275593E+0	1.284945E+0	1.333699E+0	1.367361E+0	1.333063E+0	1.312867E+0	1.322619E+0	1.270827E+0	1.316210E+0	1.322942E+0	1.310494E+0	1.268789E+0	1.297341E+0	1.322422E+0	1.324579E+0	1.279127E+0	1.259192E+0	1.280817E+0	1.298053E+0	1.269804E+0	1.285529E+0	1.323653E+0	1.344632E+0	1.310950E+0	1.341178E+0	1.294092E+0	1.300308E+0	1.285726E+0	1.353238E+0	1.328416E+0	1.253312E+0	1.301979E+0	1.321405E+0	1.334990E+0	1.277655E+0	1.283317E+0	1.259488E+0	1.272893E+0	1.315189E+0	1.323674E+0	1.352342E+0	1.354523E+0	1.357402E+0	1.304467E+0	1.330970E+0	1.304389E+0	1.320596E+0	1.298415E+0	1.361751E+0	1.235414E+0	1.281652E+0	1.294806E+0	1.281010E+0	1.294923E+0	1.342326E+0	1.324440E+0	1.323506E+0	1.296496E+0	1.278933E+0	1.311689E+0	1.317821E+0	1.253356E+0	1.272799E+0	1.253358E+0	1.280682E+0	1.295420E+0	1.318136E+0	1.331325E+0	1.344078E+0	1.315316E+0	1.316262E+0	1.299315E+0	1.322826E+0	1.283682E+0	1.284535E+0	1.329940E+0	1.368521E+0	1.301264E+0	1.327543E+0	1.307583E+0	1.292719E+0	1.250454E+0	1.306442E+0	1.288522E+0	1.279639E+0	1.275916E+0	1.344272E+0	1.256896E+0	1.280025E+0	1.324995E+0	1.259198E+0	1.264647E+0	1.299645E+0	1.274420E+0	1.209852E+0	1.298566E+0	1.298881E+0	1.338387E+0	1.267736E+0	1.294632E+0	1.336509E+0	1.300744E+0	1.285353E+0	1.289004E+0	1.247725E+0	1.299007E+0	1.235940E+0	1.304198E+0	1.316661E+0	1.283498E+0	1.299378E+0	1.276924E+0	1.258313E+0	1.296086E+0	1.306693E+0	1.253459E+0	1.297729E+0	1.321243E+0	1.268655E+0	1.307776E+0	1.295837E+0	1.326252E+0	1.292604E+0	1.285213E+0	1.327596E+0	1.327163E+0	1.243607E+0	1.331911E+0	1.211904E+0	1.235148E+0	1.334057E+0	1.316823E+0	1.236290E+0
5.455450E+2	1.326288E+0	1.245320E+0	1.221125E+0	1.258643E+0	1.194385E+0	1.211564E+0	1.266621E+0	1.257078E+0	1.296036E+0	1.272284E+0	1.223911E+0	1.250791E+0	1.248021E+0	1.248178E+0	1.221386E+0	1.269979E+0	1.234564E+0	1.213521E+0	1.255664E+0	1.228963E+0	1.213113E+0	1.228630E+0	1.219804E+0	1.274012E+0	1.254357E+0	1.255710E+0	1.229368E+0	1.286171E+0	1.247941E+0	1.215442E+0	1.232896E+0	1.285952E+0	1.184330E+0	1.233804E+0	1.262798E+0	1.202714E+0	1.189270E+0	1.220580E+0	1.211218E+0	1.243995E+0	1.279972E+0	1.280237E+0	1.240751E+0	1.227634E+0	1.238253E+0	1.241701E+0	1.239740E+0	1.220570E+0	1.218405E+0	1.293510E+0	1.280962E+0	1.195345E+0	1.192926E+0	1.186281E+0	1.207418E+0	1.274085E+0	1.263213E+0	1.235456E+0	1.297299E+0	1.211246E+0	1.234281E+0	1.221141E+0	1.260849E+0	1.221005E+0	1.211398E+0	1.206311E+0	1.238534E+0	1.260780E+0	1.210068E+0	1.240819E+0	1.215142E+0	1.235394E+0	1.240322E+0	1.220258E+0	1.216063E+0	1.241697E+0	1.259774E+0	1.218684E+0	1.250573E+0	1.221409E+0	1.258123E+0	1.254332E+0	1.285128E+0	1.268598E+0	1.234668E+0	1.227973E+0	1.220526E+0	1.224271E+0	1.286664E+0	1.275310E+0	1.256199E+0	1.230043E+0	1.233876E+0	1.272350E+0	1.226922E+0	1.264120E+0	1.196407E+0	1.234090E+0	1.194190E+0	1.230247E+0	1.211551E+0	1.169426E+0	1.220714E+0	1.239465E+0	1.220626E+0	1.234965E+0	1.207594E+0	1.237150E+0	1.212530E+0	1.255511E+0	1.208054E+0	1.231731E+0	1.218147E+0	1.283665E+0	1.246270E+0	1.188821E+0	1.241801E+0	1.276990E+0	1.239403E+0	1.264825E+0	1.231289E+0	1.212985E+0	1.236097E+0	1.260660E+0	1.206936E+0	1.197565E+0	1.251875E+0	1.241565E+0	1.247710E+0	1.213314E+0	1.253103E+0	1.238753E+0	1.229183E+0	1.247181E+0	1.231795E+0	1.218113E+0	1.207741E+0	1.221441E+0	1.275730E+0	1.240081E+0	1.246227E+0	1.184667E+0	1.259256E+0	1.235800E+0	1.294626E+0	1.243884E+0	1.237773E+0	1.261474E+0	1.252263E+0	1.226157E+0	1.257147E+0	1.188833E+0	1.205845E+0	1.249341E+0	1.219228E+0	1.244968E+0	1.218266E+0	1.249096E+0	1.230763E+0	1.232897E+0	1.188135E+0	1.245780E+0	1.248356E+0	1.214933E+0	1.192438E+0	1.230641E+0	1.214715E+0	1.291961E+0	1.211177E+0	1.263909E+0
5.457780E+2	1.221123E+0	1.137447E+0	1.167037E+0	1.218306E+0	1.197631E+0	1.145782E+0	1.165555E+0	1.172679E+0	1.194885E+0	1.132847E+0	1.167418E+0	1.189956E+0	1.173841E+0	1.179513E+0	1.131749E+0	1.193169E+0	1.197957E+0	1.207192E+0	1.180330E+0	1.136524E+0	1.167824E+0	1.199068E+0	1.169171E+0	1.162538E+0	1.160117E+0	1.241879E+0	1.224569E+0	1.146115E+0	1.145559E+0	1.147194E+0	1.210769E+0	1.208845E+0	1.164871E+0	1.165365E+0	1.153525E+0	1.220184E+0	1.214617E+0	1.114358E+0	1.192216E+0	1.215011E+0	1.189628E+0	1.162710E+0	1.222233E+0	1.219386E+0	1.190148E+0	1.223475E+0	1.230651E+0	1.209991E+0	1.167069E+0	1.168438E+0	1.200281E+0	1.154792E+0	1.201761E+0	1.201222E+0	1.180300E+0	1.196052E+0	1.179255E+0	1.168443E+0	1.164550E+0	1.191418E+0	1.223651E+0	1.198231E+0	1.192181E+0	1.142270E+0	1.180862E+0	1.145860E+0	1.206611E+0	1.206144E+0	1.160441E+0	1.208141E+0	1.161225E+0	1.150020E+0	1.180754E+0	1.173900E+0	1.187153E+0	1.223065E+0	1.154215E+0	1.201795E+0	1.193772E+0	1.162880E+0	1.191168E+0	1.173186E+0	1.164589E+0	1.152046E+0	1.243914E+0	1.205517E+0	1.189111E+0	1.177649E+0	1.173710E+0	1.192693E+0	1.174772E+0	1.182267E+0	1.201079E+0	1.205212E+0	1.167513E+0	1.197853E+0	1.111241E+0	1.184480E+0	1.215305E+0	1.173551E+0	1.192069E+0	1.140351E+0	1.207067E+0	1.163291E+0	1.186936E+0	1.208706E+0	1.173656E+0	1.199950E+0	1.173605E+0	1.197469E+0	1.180746E+0	1.172858E+0	1.137012E+0	1.162359E+0	1.145971E+0	1.224325E+0	1.161335E+0	1.180511E+0	1.130071E+0	1.197799E+0	1.231665E+0	1.152353E+0	1.206058E+0	1.205153E+0	1.152731E+0	1.189475E+0	1.212430E+0	1.185307E+0	1.116482E+0	1.187015E+0	1.230251E+0	1.218309E+0	1.130270E+0	1.138005E+0	1.189991E+0	1.165801E+0	1.156773E+0	1.205857E+0	1.206905E+0	1.189339E+0	1.216027E+0	1.148584E+0	1.214708E+0	1.140035E+0	1.190496E+0	1.194789E+0	1.180850E+0	1.215186E+0	1.226224E+0	1.219354E+0	1.183357E+0	1.179774E+0	1.181359E+0	1.160673E+0	1.195435E+0	1.206425E+0	1.155442E+0	1.228360E+0	1.200299E+0	1.147977E+0	1.184896E+0	1.185928E+0	1.190966E+0	1.108254E+0	1.145532E+0	1.144878E+0	1.149537E+0	1.172905E+0	1.158385E+0	1.231489E+0
5.460220E+2	1.254901E+0	1.139962E+0	1.171853E+0	1.209085E+0	1.207513E+0	1.140186E+0	1.150248E+0	1.129063E+0	1.120134E+0	1.145004E+0	1.118255E+0	1.138291E+0	1.168602E+0	1.151616E+0	1.169747E+0	1.160680E+0	1.163765E+0	1.160392E+0	1.203033E+0	1.165753E+0	1.211498E+0	1.131618E+0	1.166043E+0	1.131473E+0	1.127977E+0	1.172479E+0	1.217584E+0	1.182983E+0	1.129775E+0	1.151635E+0	1.186939E+0	1.185324E+0	1.101742E+0	1.163186E+0	1.161771E+0	1.193491E+0	1.191435E+0	1.132844E+0	1.220832E+0	1.195305E+0	1.182337E+0	1.161574E+0	1.170158E+0	1.154999E+0	1.172259E+0	1.160631E+0	1.142433E+0	1.149489E+0	1.147319E+0	1.200225E+0	1.172753E+0	1.149555E+0	1.107727E+0	1.119921E+0	1.145826E+0	1.205390E+0	1.174685E+0	1.118945E+0	1.209596E+0	1.171242E+0	1.165084E+0	1.108165E+0	1.196778E+0	1.152822E+0	1.140473E+0	1.155762E+0	1.200220E+0	1.119402E+0	1.137988E+0	1.199073E+0	1.147373E+0	1.141552E+0	1.158199E+0	1.115732E+0	1.154335E+0	1.100733E+0	1.160188E+0	1.207229E+0	1.158047E+0	1.148643E+0	1.127222E+0	1.187061E+0	1.125655E+0	1.125220E+0	1.122641E+0	1.167377E+0	1.184778E+0	1.137717E+0	1.154736E+0	1.157567E+0	1.176378E+0	1.142052E+0	1.178021E+0	1.175478E+0	1.218958E+0	1.188406E+0	1.101038E+0	1.161923E+0	1.161755E+0	1.166096E+0	1.187780E+0	1.138224E+0	1.152110E+0	1.122234E+0	1.116280E+0	1.133690E+0	1.185091E+0	1.167269E+0	1.176328E+0	1.160677E+0	1.150156E+0	1.200659E+0	1.160864E+0	1.139165E+0	1.147887E+0	1.130758E+0	1.127441E+0	1.193550E+0	1.135399E+0	1.197037E+0	1.148060E+0	1.166832E+0	1.148654E+0	1.140283E+0	1.152812E+0	1.145952E+0	1.171247E+0	1.154168E+0	1.147541E+0	1.208153E+0	1.187972E+0	1.174589E+0	1.167518E+0	1.164670E+0	1.173809E+0	1.133043E+0	1.133693E+0	1.148380E+0	1.164878E+0	1.131858E+0	1.148736E+0	1.160854E+0	1.182826E+0	1.123857E+0	1.199606E+0	1.182307E+0	1.146461E+0	1.150713E+0	1.123272E+0	1.129343E+0	1.179006E+0	1.142806E+0	1.144455E+0	1.087393E+0	1.146786E+0	1.146878E+0	1.177492E+0	1.189681E+0	1.186982E+0	1.142132E+0	1.130525E+0	1.120019E+0	1.146969E+0	1.117140E+0	1.187779E+0	1.154352E+0	1.133730E+0	1.128016E+0	1.158246E+0	1.118343E+0
5.467710E+2	1.296890E+0	1.217732E+0	1.179179E+0	1.255747E+0	1.244658E+0	1.175462E+0	1.234599E+0	1.220889E+0	1.234321E+0	1.269064E+0	1.247546E+0	1.194499E+0	1.212303E+0	1.250225E+0	1.277252E+0	1.213891E+0	1.233752E+0	1.220744E+0	1.228257E+0	1.262521E+0	1.212611E+0	1.219411E+0	1.248611E+0	1.267447E+0	1.255846E+0	1.261396E+0	1.221214E+0	1.269446E+0	1.242575E+0	1.231753E+0	1.235257E+0	1.275115E+0	1.179199E+0	1.231049E+0	1.266092E+0	1.269957E+0	1.264029E+0	1.235858E+0	1.226246E+0	1.231592E+0	1.209071E+0	1.210107E+0	1.322304E+0	1.277552E+0	1.237299E+0	1.220349E+0	1.222128E+0	1.258104E+0	1.208717E+0	1.283057E+0	1.253261E+0	1.297622E+0	1.222538E+0	1.256977E+0	1.252549E+0	1.307488E+0	1.215706E+0	1.242689E+0	1.213549E+0	1.257275E+0	1.270887E+0	1.207767E+0	1.258695E+0	1.204330E+0	1.220461E+0	1.237140E+0	1.278359E+0	1.218046E+0	1.250487E+0	1.177746E+0	1.265006E+0	1.234131E+0	1.205329E+0	1.233652E+0	1.244252E+0	1.230736E+0	1.210893E+0	1.227541E+0	1.224385E+0	1.256962E+0	1.245385E+0	1.201017E+0	1.231753E+0	1.247873E+0	1.271460E+0	1.174973E+0	1.262117E+0	1.216395E+0	1.283836E+0	1.219823E+0	1.222460E+0	1.241018E+0	1.207141E+0	1.242122E+0	1.212422E+0	1.264866E+0	1.225367E+0	1.182509E+0	1.230101E+0	1.242843E+0	1.218292E+0	1.220547E+0	1.223515E+0	1.222788E+0	1.297837E+0	1.262301E+0	1.278128E+0	1.209139E+0	1.240498E+0	1.224297E+0	1.259894E+0	1.271315E+0	1.238589E+0	1.230789E+0	1.226661E+0	1.298012E+0	1.248922E+0	1.238404E+0	1.178741E+0	1.262139E+0	1.249656E+0	1.174446E+0	1.233176E+0	1.244493E+0	1.188313E+0	1.211485E+0	1.232151E+0	1.216500E+0	1.199572E+0	1.227123E+0	1.292807E+0	1.177398E+0	1.201232E+0	1.244559E+0	1.215363E+0	1.207854E+0	1.249872E+0	1.265533E+0	1.251140E+0	1.163802E+0	1.237942E+0	1.241756E+0	1.240519E+0	1.262592E+0	1.240680E+0	1.236262E+0	1.251467E+0	1.284725E+0	1.241505E+0	1.211722E+0	1.245502E+0	1.230042E+0	1.261610E+0	1.216073E+0	1.187199E+0	1.202106E+0	1.191850E+0	1.227582E+0	1.290922E+0	1.204020E+0	1.206277E+0	1.208513E+0	1.263296E+0	1.218846E+0	1.261407E+0	1.214380E+0	1.195322E+0	1.195648E+0	1.225567E+0	1.182849E+0
5.475120E+2	1.412360E+0	1.323896E+0	1.407868E+0	1.420390E+0	1.370728E+0	1.336456E+0	1.348761E+0	1.347469E+0	1.292262E+0	1.385436E+0	1.368874E+0	1.426331E+0	1.394342E+0	1.368953E+0	1.390201E+0	1.407814E+0	1.359171E+0	1.340343E+0	1.388741E+0	1.335382E+0	1.374629E+0	1.378784E+0	1.357661E+0	1.359168E+0	1.412753E+0	1.412177E+0	1.374966E+0	1.366504E+0	1.324692E+0	1.305161E+0	1.372446E+0	1.374859E+0	1.344473E+0	1.374838E+0	1.400806E+0	1.336804E+0	1.406282E+0	1.359710E+0	1.400232E+0	1.395568E+0	1.365701E+0	1.368244E+0	1.342194E+0	1.344218E+0	1.359974E+0	1.320230E+0	1.377114E+0	1.387563E+0	1.346011E+0	1.398693E+0	1.373190E+0	1.362010E+0	1.335693E+0	1.339729E+0	1.379385E+0	1.365650E+0	1.349530E+0	1.376312E+0	1.461846E+0	1.354875E+0	1.360159E+0	1.329574E+0	1.409066E+0	1.389847E+0	1.348952E+0	1.343353E+0	1.359190E+0	1.346193E+0	1.375731E+0	1.296137E+0	1.370977E+0	1.351735E+0	1.359687E+0	1.304595E+0	1.390660E+0	1.350526E+0	1.397497E+0	1.366177E+0	1.346027E+0	1.342714E+0	1.357910E+0	1.333819E+0	1.370918E+0	1.372378E+0	1.334325E+0	1.388349E+0	1.325490E+0	1.347666E+0	1.366782E+0	1.348451E+0	1.362968E+0	1.331736E+0	1.367864E+0	1.371256E+0	1.359135E+0	1.372217E+0	1.377080E+0	1.345688E+0	1.364267E+0	1.342680E+0	1.344124E+0	1.396992E+0	1.376078E+0	1.369286E+0	1.363841E+0	1.369098E+0	1.327244E+0	1.385523E+0	1.343184E+0	1.352601E+0	1.373255E+0	1.381964E+0	1.319920E+0	1.398602E+0	1.369916E+0	1.372883E+0	1.369562E+0	1.359244E+0	1.350622E+0	1.397679E+0	1.387792E+0	1.376927E+0	1.342492E+0	1.397050E+0	1.336766E+0	1.407019E+0	1.364864E+0	1.334708E+0	1.313688E+0	1.316017E+0	1.427336E+0	1.366441E+0	1.385287E+0	1.302915E+0	1.357980E+0	1.354441E+0	1.354720E+0	1.312996E+0	1.331548E+0	1.341480E+0	1.378820E+0	1.384220E+0	1.438381E+0	1.355691E+0	1.320887E+0	1.342402E+0	1.380526E+0	1.375638E+0	1.356957E+0	1.344195E+0	1.373742E+0	1.365950E+0	1.326466E+0	1.322187E+0	1.417374E+0	1.364280E+0	1.390690E+0	1.312716E+0	1.337329E+0	1.300448E+0	1.269880E+0	1.339083E+0	1.382272E+0	1.301044E+0	1.346430E+0	1.327554E+0	1.319138E+0	1.357395E+0	1.359794E+0	1.433693E+0
5.482600E+2	1.534473E+0	1.372330E+0	1.432385E+0	1.432826E+0	1.466501E+0	1.508042E+0	1.443586E+0	1.471315E+0	1.468321E+0	1.437496E+0	1.454703E+0	1.465863E+0	1.497603E+0	1.446321E+0	1.465158E+0	1.468661E+0	1.450105E+0	1.487436E+0	1.477266E+0	1.409218E+0	1.420406E+0	1.513259E+0	1.499848E+0	1.419459E+0	1.444309E+0	1.484746E+0	1.479295E+0	1.477216E+0	1.486030E+0	1.417700E+0	1.519440E+0	1.454392E+0	1.497848E+0	1.443445E+0	1.460405E+0	1.487767E+0	1.495314E+0	1.409848E+0	1.434004E+0	1.434219E+0	1.418223E+0	1.444597E+0	1.522564E+0	1.499323E+0	1.461667E+0	1.439163E+0	1.453951E+0	1.471604E+0	1.420129E+0	1.524002E+0	1.440781E+0	1.437218E+0	1.448241E+0	1.393282E+0	1.504237E+0	1.506065E+0	1.424827E+0	1.363549E+0	1.487925E+0	1.454788E+0	1.489740E+0	1.484995E+0	1.488163E+0	1.433506E+0	1.448276E+0	1.470197E+0	1.434824E+0	1.518303E+0	1.443332E+0	1.399119E+0	1.457536E+0	1.451742E+0	1.498577E+0	1.428036E+0	1.434910E+0	1.460603E+0	1.421006E+0	1.476362E+0	1.483565E+0	1.412283E+0	1.448975E+0	1.420824E+0	1.446576E+0	1.496882E+0	1.453371E+0	1.431092E+0	1.412276E+0	1.439714E+0	1.401141E+0	1.454578E+0	1.505844E+0	1.462518E+0	1.457957E+0	1.444728E+0	1.441674E+0	1.465967E+0	1.441739E+0	1.447049E+0	1.475575E+0	1.433079E+0	1.450120E+0	1.427309E+0	1.458668E+0	1.440175E+0	1.536623E+0	1.395443E+0	1.439428E+0	1.423501E+0	1.387574E+0	1.448330E+0	1.475256E+0	1.486433E+0	1.412012E+0	1.440713E+0	1.385621E+0	1.465229E+0	1.441332E+0	1.455828E+0	1.460713E+0	1.469804E+0	1.411848E+0	1.450206E+0	1.461519E+0	1.472584E+0	1.452520E+0	1.425317E+0	1.451406E+0	1.420242E+0	1.395761E+0	1.444544E+0	1.493983E+0	1.488627E+0	1.407188E+0	1.413758E+0	1.427645E+0	1.412877E+0	1.473219E+0	1.434766E+0	1.432540E+0	1.541704E+0	1.454284E+0	1.441702E+0	1.461343E+0	1.450671E+0	1.457845E+0	1.453436E+0	1.449707E+0	1.426578E+0	1.488520E+0	1.404022E+0	1.398657E+0	1.391576E+0	1.384093E+0	1.394462E+0	1.476427E+0	1.458293E+0	1.415118E+0	1.438248E+0	1.492305E+0	1.428359E+0	1.348594E+0	1.397102E+0	1.471831E+0	1.411629E+0	1.478075E+0	1.429062E+0	1.407768E+0	1.400886E+0	1.421514E+0	1.487820E+0
5.490100E+2	1.547811E+0	1.392194E+0	1.359087E+0	1.402037E+0	1.374873E+0	1.469626E+0	1.445129E+0	1.460048E+0	1.446340E+0	1.437344E+0	1.429707E+0	1.405545E+0	1.430731E+0	1.433632E+0	1.458792E+0	1.414944E+0	1.367563E+0	1.412668E+0	1.421692E+0	1.379213E+0	1.403067E+0	1.422679E+0	1.439721E+0	1.434469E+0	1.419722E+0	1.540589E+0	1.372200E+0	1.469618E+0	1.406351E+0	1.412338E+0	1.460519E+0	1.446438E+0	1.420041E+0	1.421224E+0	1.452858E+0	1.442646E+0	1.438389E+0	1.444652E+0	1.430729E+0	1.458795E+0	1.428380E+0	1.403688E+0	1.480133E+0	1.429430E+0	1.377595E+0	1.384803E+0	1.463834E+0	1.436390E+0	1.387185E+0	1.381300E+0	1.436787E+0	1.417777E+0	1.399514E+0	1.409962E+0	1.404442E+0	1.481123E+0	1.417932E+0	1.389303E+0	1.471368E+0	1.489088E+0	1.432813E+0	1.385518E+0	1.429130E+0	1.369723E+0	1.503212E+0	1.455164E+0	1.394922E+0	1.443866E+0	1.382151E+0	1.408519E+0	1.447748E+0	1.412136E+0	1.387246E+0	1.406955E+0	1.400025E+0	1.448631E+0	1.417234E+0	1.446414E+0	1.439652E+0	1.436770E+0	1.417880E+0	1.471063E+0	1.373591E+0	1.464560E+0	1.397338E+0	1.440003E+0	1.383812E+0	1.505101E+0	1.471182E+0	1.426920E+0	1.383008E+0	1.440590E+0	1.450134E+0	1.438888E+0	1.427119E+0	1.452820E+0	1.407015E+0	1.430601E+0	1.450148E+0	1.389212E+0	1.453168E+0	1.328062E+0	1.451788E+0	1.436039E+0	1.447204E+0	1.364408E+0	1.393259E+0	1.412088E+0	1.399116E+0	1.423248E+0	1.413095E+0	1.438823E+0	1.386359E+0	1.399551E+0	1.445792E+0	1.408324E+0	1.439660E+0	1.389998E+0	1.396210E+0	1.391693E+0	1.406394E+0	1.398723E+0	1.399116E+0	1.408834E+0	1.417437E+0	1.431251E+0	1.464334E+0	1.392177E+0	1.342810E+0	1.395099E+0	1.451687E+0	1.396813E+0	1.401640E+0	1.392996E+0	1.399634E+0	1.348832E+0	1.385363E+0	1.384853E+0	1.404618E+0	1.496248E+0	1.397040E+0	1.411887E+0	1.377455E+0	1.425523E+0	1.397935E+0	1.398085E+0	1.472964E+0	1.442685E+0	1.416154E+0	1.449733E+0	1.446677E+0	1.450443E+0	1.348840E+0	1.417584E+0	1.423632E+0	1.409434E+0	1.418065E+0	1.412979E+0	1.452960E+0	1.366917E+0	1.429924E+0	1.435065E+0	1.409973E+0	1.375117E+0	1.409398E+0	1.406962E+0	1.356538E+0	1.418219E+0	1.352647E+0	1.413494E+0
5.497740E+2	1.414331E+0	1.318977E+0	1.304373E+0	1.323261E+0	1.308077E+0	1.333095E+0	1.386424E+0	1.345061E+0	1.336525E+0	1.322107E+0	1.370225E+0	1.363070E+0	1.332440E+0	1.350700E+0	1.364048E+0	1.389692E+0	1.389397E+0	1.408884E+0	1.356990E+0	1.336884E+0	1.384562E+0	1.364047E+0	1.322842E+0	1.321894E+0	1.387468E+0	1.373559E+0	1.329958E+0	1.395209E+0	1.313104E+0	1.317299E+0	1.322779E+0	1.383671E+0	1.313280E+0	1.350339E+0	1.370410E+0	1.414569E+0	1.375411E+0	1.404833E+0	1.353398E+0	1.322987E+0	1.361767E+0	1.360947E+0	1.289851E+0	1.395745E+0	1.331290E+0	1.340344E+0	1.398866E+0	1.316026E+0	1.347126E+0	1.341005E+0	1.379367E+0	1.363012E+0	1.330427E+0	1.334324E+0	1.351927E+0	1.375565E+0	1.342487E+0	1.318752E+0	1.388429E+0	1.352529E+0	1.361906E+0	1.341525E+0	1.393027E+0	1.361534E+0	1.332684E+0	1.373258E+0	1.357795E+0	1.294751E+0	1.327898E+0	1.345228E+0	1.348478E+0	1.354436E+0	1.335839E+0	1.351128E+0	1.282556E+0	1.330048E+0	1.296966E+0	1.335855E+0	1.346121E+0	1.313814E+0	1.346467E+0	1.330017E+0	1.356832E+0	1.350357E+0	1.325877E+0	1.270549E+0	1.342327E+0	1.359931E+0	1.378171E+0	1.316761E+0	1.335200E+0	1.344400E+0	1.335152E+0	1.363209E+0	1.335307E+0	1.304339E+0	1.310534E+0	1.344151E+0	1.295459E+0	1.280205E+0	1.369779E+0	1.307646E+0	1.299018E+0	1.292191E+0	1.391886E+0	1.309045E+0	1.331634E+0	1.416101E+0	1.343661E+0	1.303169E+0	1.389769E+0	1.319798E+0	1.329864E+0	1.320115E+0	1.358530E+0	1.309421E+0	1.376731E+0	1.339163E+0	1.336292E+0	1.369835E+0	1.302279E+0	1.350640E+0	1.338974E+0	1.372764E+0	1.369912E+0	1.361659E+0	1.408304E+0	1.352453E+0	1.272694E+0	1.335440E+0	1.336531E+0	1.289062E+0	1.323642E+0	1.327464E+0	1.313240E+0	1.354737E+0	1.314133E+0	1.328859E+0	1.320259E+0	1.329810E+0	1.348547E+0	1.265772E+0	1.387794E+0	1.329773E+0	1.305290E+0	1.312054E+0	1.327420E+0	1.443866E+0	1.378262E+0	1.354593E+0	1.340247E+0	1.377103E+0	1.387680E+0	1.275560E+0	1.323279E+0	1.349077E+0	1.346464E+0	1.324804E+0	1.374117E+0	1.317357E+0	1.300595E+0	1.402389E+0	1.347537E+0	1.331657E+0	1.373544E+0	1.309917E+0	1.309629E+0	1.342122E+0	1.284075E+0	1.338343E+0
5.505170E+2	1.419712E+0	1.255156E+0	1.265823E+0	1.350908E+0	1.334163E+0	1.280318E+0	1.337603E+0	1.346015E+0	1.275529E+0	1.303436E+0	1.322001E+0	1.365610E+0	1.311228E+0	1.336342E+0	1.317769E+0	1.339360E+0	1.282471E+0	1.261338E+0	1.264576E+0	1.351457E+0	1.283890E+0	1.295583E+0	1.299917E+0	1.312190E+0	1.266011E+0	1.333617E+0	1.338562E+0	1.320697E+0	1.319109E+0	1.309192E+0	1.328444E+0	1.343317E+0	1.303632E+0	1.273377E+0	1.316478E+0	1.282227E+0	1.296767E+0	1.308139E+0	1.260749E+0	1.315661E+0	1.328705E+0	1.369678E+0	1.342185E+0	1.378989E+0	1.302272E+0	1.298453E+0	1.332494E+0	1.351768E+0	1.380172E+0	1.302890E+0	1.322339E+0	1.313634E+0	1.343656E+0	1.335384E+0	1.361507E+0	1.365706E+0	1.294381E+0	1.264437E+0	1.329804E+0	1.317223E+0	1.362684E+0	1.287060E+0	1.331087E+0	1.284563E+0	1.288903E+0	1.304377E+0	1.283668E+0	1.333909E+0	1.282251E+0	1.301529E+0	1.323248E+0	1.345461E+0	1.296342E+0	1.303038E+0	1.344595E+0	1.351817E+0	1.281381E+0	1.262644E+0	1.357895E+0	1.316779E+0	1.327411E+0	1.270951E+0	1.327027E+0	1.338729E+0	1.324782E+0	1.303942E+0	1.348166E+0	1.310382E+0	1.305713E+0	1.296784E+0	1.319731E+0	1.319856E+0	1.315058E+0	1.302674E+0	1.350923E+0	1.336165E+0	1.318366E+0	1.256908E+0	1.328632E+0	1.343786E+0	1.287806E+0	1.314875E+0	1.295952E+0	1.304532E+0	1.293107E+0	1.259539E+0	1.352522E+0	1.351148E+0	1.279020E+0	1.317550E+0	1.353381E+0	1.279808E+0	1.223740E+0	1.281365E+0	1.295396E+0	1.304849E+0	1.317244E+0	1.304041E+0	1.284102E+0	1.379186E+0	1.293839E+0	1.322766E+0	1.300442E+0	1.312672E+0	1.319808E+0	1.296886E+0	1.372146E+0	1.320985E+0	1.296456E+0	1.259023E+0	1.302773E+0	1.368336E+0	1.260902E+0	1.319006E+0	1.346943E+0	1.330241E+0	1.325066E+0	1.309673E+0	1.270615E+0	1.250857E+0	1.407120E+0	1.341860E+0	1.294063E+0	1.303046E+0	1.340043E+0	1.324459E+0	1.322137E+0	1.311934E+0	1.281562E+0	1.300202E+0	1.285250E+0	1.321517E+0	1.278468E+0	1.270710E+0	1.300214E+0	1.326749E+0	1.302262E+0	1.302090E+0	1.382741E+0	1.317687E+0	1.308819E+0	1.274769E+0	1.335328E+0	1.258411E+0	1.323531E+0	1.298898E+0	1.239497E+0	1.325186E+0	1.358152E+0	1.343166E+0
5.512620E+2	1.338797E+0	1.303380E+0	1.387987E+0	1.242188E+0	1.275073E+0	1.235370E+0	1.309617E+0	1.275448E+0	1.269094E+0	1.275273E+0	1.336938E+0	1.306181E+0	1.253501E+0	1.298303E+0	1.337170E+0	1.312543E+0	1.321929E+0	1.333565E+0	1.362664E+0	1.272534E+0	1.315922E+0	1.245168E+0	1.307456E+0	1.243913E+0	1.287957E+0	1.303577E+0	1.315188E+0	1.296991E+0	1.301677E+0	1.315721E+0	1.325083E+0	1.333428E+0	1.280780E+0	1.286387E+0	1.332131E+0	1.348923E+0	1.281225E+0	1.268322E+0	1.308436E+0	1.307426E+0	1.308091E+0	1.316115E+0	1.244230E+0	1.276136E+0	1.299672E+0	1.271552E+0	1.301081E+0	1.362225E+0	1.225779E+0	1.314593E+0	1.262836E+0	1.302279E+0	1.254466E+0	1.266792E+0	1.309357E+0	1.312921E+0	1.306903E+0	1.271984E+0	1.277480E+0	1.306055E+0	1.311766E+0	1.235438E+0	1.319938E+0	1.305785E+0	1.278334E+0	1.293650E+0	1.286357E+0	1.277161E+0	1.266341E+0	1.275542E+0	1.363164E+0	1.287867E+0	1.309391E+0	1.290466E+0	1.324569E+0	1.285879E+0	1.304164E+0	1.261756E+0	1.288062E+0	1.309408E+0	1.252288E+0	1.286451E+0	1.321682E+0	1.281110E+0	1.292817E+0	1.304379E+0	1.279503E+0	1.293912E+0	1.233610E+0	1.283033E+0	1.283290E+0	1.256337E+0	1.279708E+0	1.296026E+0	1.287566E+0	1.333369E+0	1.304830E+0	1.308828E+0	1.330752E+0	1.263922E+0	1.292060E+0	1.304334E+0	1.301435E+0	1.292102E+0	1.287542E+0	1.302029E+0	1.300245E+0	1.370905E+0	1.270283E+0	1.312223E+0	1.292566E+0	1.298790E+0	1.268445E+0	1.242685E+0	1.290057E+0	1.342949E+0	1.295278E+0	1.258838E+0	1.258215E+0	1.330670E+0	1.294540E+0	1.262949E+0	1.294496E+0	1.318995E+0	1.260281E+0	1.293159E+0	1.273998E+0	1.262133E+0	1.269810E+0	1.230675E+0	1.302447E+0	1.292043E+0	1.283742E+0	1.311242E+0	1.277120E+0	1.209772E+0	1.248687E+0	1.334113E+0	1.296535E+0	1.258530E+0	1.294173E+0	1.237061E+0	1.347995E+0	1.291714E+0	1.275704E+0	1.265160E+0	1.354480E+0	1.302552E+0	1.273314E+0	1.294721E+0	1.268559E+0	1.274987E+0	1.352689E+0	1.302306E+0	1.286458E+0	1.285252E+0	1.260308E+0	1.253046E+0	1.316543E+0	1.235375E+0	1.268542E+0	1.298653E+0	1.289920E+0	1.196992E+0	1.274984E+0	1.295705E+0	1.246363E+0	1.273243E+0	1.255445E+0	1.355433E+0
5.520150E+2	1.403522E+0	1.238172E+0	1.286625E+0	1.308982E+0	1.281112E+0	1.304992E+0	1.313611E+0	1.277653E+0	1.302423E+0	1.354639E+0	1.295155E+0	1.324955E+0	1.334862E+0	1.343982E+0	1.371408E+0	1.304685E+0	1.300247E+0	1.296660E+0	1.288261E+0	1.333061E+0	1.312571E+0	1.337804E+0	1.331077E+0	1.245455E+0	1.315695E+0	1.313125E+0	1.291766E+0	1.296524E+0	1.300531E+0	1.317098E+0	1.308290E+0	1.351800E+0	1.322848E+0	1.295280E+0	1.329130E+0	1.337671E+0	1.303703E+0	1.258758E+0	1.293187E+0	1.274887E+0	1.292248E+0	1.312203E+0	1.297901E+0	1.357655E+0	1.335086E+0	1.292641E+0	1.314595E+0	1.308359E+0	1.288080E+0	1.333634E+0	1.299413E+0	1.322296E+0	1.270719E+0	1.307752E+0	1.292348E+0	1.316633E+0	1.258592E+0	1.264327E+0	1.275424E+0	1.328987E+0	1.289900E+0	1.325996E+0	1.336696E+0	1.284485E+0	1.300201E+0	1.257324E+0	1.337893E+0	1.272979E+0	1.285440E+0	1.311713E+0	1.253232E+0	1.249690E+0	1.280361E+0	1.271327E+0	1.303148E+0	1.285207E+0	1.320297E+0	1.332886E+0	1.342954E+0	1.309205E+0	1.281969E+0	1.284975E+0	1.279342E+0	1.276174E+0	1.280472E+0	1.304375E+0	1.305355E+0	1.320655E+0	1.312409E+0	1.264239E+0	1.373536E+0	1.326885E+0	1.331580E+0	1.252922E+0	1.309104E+0	1.283274E+0	1.291838E+0	1.301122E+0	1.265887E+0	1.298420E+0	1.270252E+0	1.298156E+0	1.342850E+0	1.281480E+0	1.347489E+0	1.293260E+0	1.288013E+0	1.328156E+0	1.263042E+0	1.241772E+0	1.314829E+0	1.277239E+0	1.250472E+0	1.283481E+0	1.251834E+0	1.299218E+0	1.292411E+0	1.255202E+0	1.239644E+0	1.316510E+0	1.291353E+0	1.282779E+0	1.340503E+0	1.303773E+0	1.291878E+0	1.278059E+0	1.296205E+0	1.288895E+0	1.234165E+0	1.268380E+0	1.319382E+0	1.306477E+0	1.237682E+0	1.297284E+0	1.284537E+0	1.228370E+0	1.294448E+0	1.296352E+0	1.297228E+0	1.284231E+0	1.286536E+0	1.271814E+0	1.347549E+0	1.297177E+0	1.308419E+0	1.280016E+0	1.306365E+0	1.295675E+0	1.269545E+0	1.283345E+0	1.314629E+0	1.303199E+0	1.261648E+0	1.242044E+0	1.283396E+0	1.305549E+0	1.330433E+0	1.301393E+0	1.289894E+0	1.233849E+0	1.257448E+0	1.286403E+0	1.256953E+0	1.336601E+0	1.331846E+0	1.223762E+0	1.263170E+0	1.304849E+0	1.298405E+0	1.304453E+0
5.527650E+2	1.368523E+0	1.260627E+0	1.217543E+0	1.297932E+0	1.219624E+0	1.259814E+0	1.243481E+0	1.240163E+0	1.262349E+0	1.271633E+0	1.268118E+0	1.237532E+0	1.301572E+0	1.230570E+0	1.245423E+0	1.302124E+0	1.250516E+0	1.266389E+0	1.305413E+0	1.304537E+0	1.327226E+0	1.294255E+0	1.262837E+0	1.259735E+0	1.288086E+0	1.341539E+0	1.245931E+0	1.289598E+0	1.237789E+0	1.269378E+0	1.244714E+0	1.266819E+0	1.275561E+0	1.271106E+0	1.287201E+0	1.266709E+0	1.309117E+0	1.246421E+0	1.247501E+0	1.298797E+0	1.344713E+0	1.282043E+0	1.223014E+0	1.290932E+0	1.187240E+0	1.284225E+0	1.206450E+0	1.325396E+0	1.321630E+0	1.299859E+0	1.211120E+0	1.251366E+0	1.232302E+0	1.275150E+0	1.256526E+0	1.283172E+0	1.306392E+0	1.228495E+0	1.270160E+0	1.326758E+0	1.273539E+0	1.251968E+0	1.232462E+0	1.255586E+0	1.262167E+0	1.273594E+0	1.234239E+0	1.257030E+0	1.256032E+0	1.230257E+0	1.281106E+0	1.262789E+0	1.309116E+0	1.256832E+0	1.242408E+0	1.254548E+0	1.269779E+0	1.234855E+0	1.216337E+0	1.254912E+0	1.292653E+0	1.254378E+0	1.290996E+0	1.316198E+0	1.273955E+0	1.232129E+0	1.230787E+0	1.316570E+0	1.248549E+0	1.223033E+0	1.251013E+0	1.285620E+0	1.309395E+0	1.278231E+0	1.262245E+0	1.269350E+0	1.244092E+0	1.238752E+0	1.272202E+0	1.216165E+0	1.241432E+0	1.287771E+0	1.270553E+0	1.258156E+0	1.245512E+0	1.237233E+0	1.249671E+0	1.318176E+0	1.297852E+0	1.273871E+0	1.311061E+0	1.319897E+0	1.247644E+0	1.248113E+0	1.254108E+0	1.246050E+0	1.275728E+0	1.203110E+0	1.206880E+0	1.284644E+0	1.283111E+0	1.247175E+0	1.289390E+0	1.276026E+0	1.249626E+0	1.268260E+0	1.243016E+0	1.232484E+0	1.209002E+0	1.273358E+0	1.258509E+0	1.328840E+0	1.200523E+0	1.241566E+0	1.260901E+0	1.271992E+0	1.241467E+0	1.215324E+0	1.280834E+0	1.269499E+0	1.293894E+0	1.209418E+0	1.306316E+0	1.234888E+0	1.288759E+0	1.268547E+0	1.305664E+0	1.235076E+0	1.293100E+0	1.296438E+0	1.232715E+0	1.256035E+0	1.273432E+0	1.247888E+0	1.280431E+0	1.266530E+0	1.301494E+0	1.224728E+0	1.311277E+0	1.235733E+0	1.265089E+0	1.235512E+0	1.279465E+0	1.235735E+0	1.251151E+0	1.240966E+0	1.262770E+0	1.230299E+0	1.308027E+0	1.273682E+0
5.535270E+2	1.282832E+0	1.152725E+0	1.187312E+0	1.207369E+0	1.197375E+0	1.187558E+0	1.230942E+0	1.179708E+0	1.198412E+0	1.176127E+0	1.167004E+0	1.218017E+0	1.267082E+0	1.164950E+0	1.170513E+0	1.189936E+0	1.206380E+0	1.219197E+0	1.152575E+0	1.193594E+0	1.225238E+0	1.162643E+0	1.164986E+0	1.206909E+0	1.177194E+0	1.226272E+0	1.174697E+0	1.206378E+0	1.238715E+0	1.198474E+0	1.152069E+0	1.225279E+0	1.196512E+0	1.182238E+0	1.203318E+0	1.165287E+0	1.214783E+0	1.191254E+0	1.168375E+0	1.200776E+0	1.173741E+0	1.213614E+0	1.184636E+0	1.188163E+0	1.214380E+0	1.201357E+0	1.173362E+0	1.217160E+0	1.173175E+0	1.204045E+0	1.207282E+0	1.211276E+0	1.195796E+0	1.195538E+0	1.233279E+0	1.194824E+0	1.173276E+0	1.187500E+0	1.234650E+0	1.179607E+0	1.181362E+0	1.164552E+0	1.195600E+0	1.194995E+0	1.166909E+0	1.198465E+0	1.194625E+0	1.207299E+0	1.197797E+0	1.187091E+0	1.200654E+0	1.178539E+0	1.219884E+0	1.206228E+0	1.169287E+0	1.214673E+0	1.163052E+0	1.226150E+0	1.189011E+0	1.184062E+0	1.158940E+0	1.191704E+0	1.176961E+0	1.228595E+0	1.152525E+0	1.179818E+0	1.244521E+0	1.196138E+0	1.186122E+0	1.184311E+0	1.171778E+0	1.192017E+0	1.162165E+0	1.215306E+0	1.180918E+0	1.239127E+0	1.173227E+0	1.202638E+0	1.194676E+0	1.208714E+0	1.185433E+0	1.175723E+0	1.207661E+0	1.168217E+0	1.277117E+0	1.198101E+0	1.216987E+0	1.211615E+0	1.148888E+0	1.215027E+0	1.169847E+0	1.218234E+0	1.130612E+0	1.196016E+0	1.163215E+0	1.194905E+0	1.203041E+0	1.175939E+0	1.186757E+0	1.176412E+0	1.147441E+0	1.175031E+0	1.214463E+0	1.165504E+0	1.246239E+0	1.174794E+0	1.215094E+0	1.163744E+0	1.183952E+0	1.136746E+0	1.217595E+0	1.224143E+0	1.188043E+0	1.170409E+0	1.150929E+0	1.199474E+0	1.230046E+0	1.207703E+0	1.195105E+0	1.180082E+0	1.220071E+0	1.204636E+0	1.241440E+0	1.202911E+0	1.129484E+0	1.199454E+0	1.194933E+0	1.210605E+0	1.188417E+0	1.186659E+0	1.173126E+0	1.233099E+0	1.197017E+0	1.183010E+0	1.165151E+0	1.235934E+0	1.164961E+0	1.197561E+0	1.166019E+0	1.184152E+0	1.182653E+0	1.169898E+0	1.173807E+0	1.162017E+0	1.214162E+0	1.202964E+0	1.178288E+0	1.179486E+0	1.212165E+0	1.252574E+0
5.542580E+2	1.121231E+0	1.089377E+0	1.096511E+0	1.128271E+0	1.089697E+0	1.067786E+0	1.107210E+0	1.076243E+0	1.120963E+0	1.129465E+0	1.127934E+0	1.101642E+0	1.074805E+0	1.128671E+0	1.092052E+0	1.112377E+0	1.114323E+0	1.054207E+0	1.133064E+0	1.096579E+0	1.122494E+0	1.104961E+0	1.117306E+0	1.100383E+0	1.109804E+0	1.088059E+0	1.089882E+0	1.084648E+0	1.104543E+0	1.060628E+0	1.060353E+0	1.076862E+0	1.081909E+0	1.116538E+0	1.116306E+0	1.087219E+0	1.041739E+0	1.109436E+0	1.105790E+0	1.129544E+0	1.120500E+0	1.102670E+0	1.090618E+0	1.096212E+0	1.111923E+0	1.028368E+0	1.072253E+0	1.111201E+0	1.098316E+0	1.091465E+0	1.133814E+0	1.085163E+0	1.074102E+0	1.068931E+0	1.113413E+0	1.102908E+0	1.100738E+0	1.064076E+0	1.087013E+0	1.155109E+0	1.152386E+0	1.095638E+0	1.072439E+0	1.052239E+0	1.066776E+0	1.106817E+0	1.032923E+0	1.077869E+0	1.054777E+0	1.099976E+0	1.080455E+0	1.096153E+0	1.052454E+0	1.038933E+0	1.123810E+0	1.090643E+0	1.107578E+0	1.077954E+0	1.110816E+0	1.080731E+0	1.046945E+0	1.073707E+0	1.123171E+0	1.129404E+0	1.057718E+0	1.087247E+0	1.062220E+0	1.105261E+0	1.097058E+0	1.164482E+0	1.079688E+0	1.082551E+0	1.106094E+0	1.109401E+0	1.058892E+0	1.147629E+0	1.050528E+0	1.032166E+0	1.067748E+0	1.063711E+0	1.144221E+0	1.030328E+0	1.071961E+0	1.077246E+0	1.077748E+0	1.097956E+0	1.060004E+0	1.119191E+0	1.074202E+0	1.120422E+0	1.095149E+0	1.075564E+0	1.090651E+0	1.114843E+0	1.141593E+0	1.124008E+0	1.066952E+0	1.118125E+0	1.108155E+0	1.114060E+0	1.071311E+0	1.092949E+0	1.143186E+0	1.131649E+0	1.062017E+0	1.088642E+0	1.072047E+0	1.087120E+0	1.038723E+0	1.064363E+0	1.079761E+0	1.111066E+0	1.099927E+0	1.052578E+0	1.064185E+0	1.068758E+0	1.063447E+0	1.054826E+0	1.143532E+0	1.108615E+0	1.122162E+0	1.064938E+0	1.070861E+0	1.097750E+0	1.108468E+0	1.101538E+0	1.090164E+0	1.132154E+0	1.107370E+0	1.045765E+0	1.091823E+0	1.067505E+0	1.080687E+0	1.127972E+0	1.095874E+0	1.131739E+0	1.140788E+0	1.082212E+0	1.107825E+0	1.083558E+0	1.103382E+0	1.068809E+0	1.082689E+0	1.104685E+0	1.080376E+0	1.087365E+0	1.053925E+0	1.109291E+0	1.134001E+0	1.087186E+0
5.550250E+2	1.001339E+0	9.921338E-1	9.687430E-1	1.050116E+0	1.026747E+0	9.845840E-1	1.041657E+0	9.725711E-1	1.006368E+0	1.050703E+0	9.806630E-1	1.002312E+0	9.962967E-1	9.825354E-1	1.002222E+0	1.005743E+0	1.004757E+0	1.001210E+0	1.024707E+0	9.957384E-1	9.744042E-1	1.011094E+0	1.020395E+0	9.876490E-1	9.801685E-1	1.013632E+0	1.007574E+0	1.052071E+0	1.015510E+0	1.020421E+0	1.009403E+0	1.012559E+0	1.010857E+0	1.008254E+0	1.013554E+0	1.035018E+0	1.038855E+0	1.007287E+0	9.748636E-1	1.018222E+0	1.020229E+0	9.850981E-1	1.001023E+0	1.056080E+0	1.006930E+0	1.032948E+0	1.002840E+0	1.101516E+0	9.686425E-1	1.013778E+0	9.815989E-1	1.043268E+0	9.986788E-1	1.003287E+0	1.034706E+0	9.977448E-1	9.868307E-1	1.001208E+0	1.009265E+0	1.004239E+0	1.015748E+0	1.018156E+0	1.026911E+0	1.038247E+0	9.898574E-1	9.886640E-1	1.035844E+0	9.901881E-1	9.763807E-1	9.817042E-1	1.012042E+0	1.030669E+0	1.023552E+0	1.001730E+0	1.006606E+0	9.788283E-1	1.001230E+0	9.989396E-1	1.001117E+0	1.019300E+0	1.016084E+0	1.004978E+0	9.865208E-1	1.026505E+0	9.845799E-1	9.918507E-1	9.889566E-1	1.006840E+0	1.017555E+0	9.632217E-1	1.022992E+0	1.000534E+0	1.059529E+0	1.018264E+0	1.007721E+0	1.046124E+0	9.882880E-1	1.014141E+0	1.057329E+0	9.903324E-1	1.002706E+0	1.022982E+0	1.002444E+0	1.007016E+0	1.025340E+0	1.021733E+0	9.977433E-1	1.058354E+0	1.032825E+0	9.956065E-1	9.914051E-1	9.915860E-1	9.612287E-1	1.007060E+0	9.786122E-1	1.015752E+0	1.041428E+0	1.058066E+0	9.949445E-1	9.803135E-1	1.002644E+0	1.041818E+0	9.690562E-1	9.792777E-1	9.878294E-1	9.984889E-1	9.842730E-1	1.003818E+0	9.695671E-1	1.006717E+0	1.004924E+0	1.034381E+0	9.870015E-1	1.030739E+0	9.715071E-1	9.947946E-1	1.033837E+0	9.629305E-1	1.010847E+0	1.018131E+0	1.052508E+0	1.018046E+0	1.030319E+0	1.024059E+0	1.061728E+0	1.023299E+0	1.026448E+0	1.006733E+0	1.016833E+0	9.723908E-1	1.046280E+0	9.699022E-1	9.777749E-1	1.024146E+0	1.024235E+0	1.030799E+0	1.061003E+0	1.008252E+0	1.009073E+0	1.005575E+0	1.021095E+0	1.006483E+0	1.012838E+0	9.913732E-1	9.896975E-1	1.016468E+0	1.031592E+0	1.037621E+0	9.728048E-1	9.663969E-1
5.557600E+2	9.719305E-1	9.795205E-1	9.516747E-1	9.588215E-1	9.819304E-1	9.547120E-1	9.964066E-1	9.683594E-1	9.581459E-1	1.001045E+0	9.742940E-1	9.455377E-1	9.618799E-1	9.770761E-1	9.564090E-1	9.663537E-1	9.529528E-1	1.007584E+0	9.777388E-1	9.975629E-1	9.829207E-1	9.951327E-1	9.518602E-1	9.573400E-1	9.520167E-1	1.024262E+0	9.597740E-1	9.670578E-1	9.245604E-1	9.918058E-1	9.496333E-1	9.589167E-1	9.228446E-1	9.691803E-1	9.828298E-1	1.000201E+0	9.767046E-1	9.169691E-1	9.729074E-1	9.688388E-1	9.884197E-1	9.967227E-1	9.598273E-1	9.877725E-1	9.920405E-1	9.275974E-1	9.402576E-1	9.936786E-1	9.542748E-1	1.017232E+0	9.701842E-1	9.731085E-1	9.216357E-1	9.427043E-1	9.931982E-1	9.994786E-1	9.342158E-1	9.516207E-1	9.415452E-1	9.644817E-1	9.919711E-1	9.794719E-1	9.900759E-1	9.827238E-1	9.406356E-1	9.196520E-1	9.442827E-1	9.420002E-1	9.733207E-1	9.751515E-1	9.277882E-1	8.975194E-1	9.251725E-1	9.349829E-1	9.701705E-1	9.828179E-1	9.668154E-1	9.373168E-1	9.605502E-1	9.755653E-1	9.777328E-1	9.373382E-1	9.983761E-1	9.623041E-1	9.459980E-1	1.006750E+0	9.912435E-1	9.569674E-1	9.915948E-1	9.384006E-1	9.081379E-1	9.648841E-1	9.401574E-1	9.689602E-1	8.991317E-1	9.300224E-1	9.351557E-1	9.816400E-1	9.479277E-1	9.504575E-1	9.629433E-1	9.318135E-1	9.775223E-1	9.636754E-1	9.878638E-1	9.097101E-1	9.666687E-1	9.750915E-1	9.661884E-1	9.566295E-1	9.835254E-1	9.754023E-1	8.842275E-1	9.868580E-1	9.563841E-1	9.992128E-1	9.786951E-1	9.689307E-1	9.863226E-1	9.629300E-1	9.612215E-1	1.001985E+0	9.447674E-1	9.719773E-1	9.584471E-1	9.528682E-1	9.765203E-1	9.747557E-1	9.163450E-1	9.694585E-1	9.784321E-1	9.688514E-1	9.312729E-1	9.503130E-1	9.260565E-1	9.738523E-1	9.722621E-1	9.588917E-1	9.657320E-1	9.558167E-1	9.676018E-1	9.506406E-1	1.037106E+0	9.463721E-1	9.154322E-1	9.347520E-1	1.010169E+0	9.919214E-1	9.373666E-1	9.376244E-1	9.600830E-1	9.585818E-1	9.939049E-1	9.373785E-1	9.165748E-1	9.461348E-1	9.426947E-1	9.928600E-1	9.800328E-1	9.388295E-1	9.586351E-1	9.405428E-1	1.016598E+0	9.573857E-1	9.502736E-1	9.617878E-1	9.536169E-1	1.003242E+0	9.575319E-1	9.988878E-1
5.560190E+2	1.005501E+0	9.494347E-1	9.733676E-1	9.549313E-1	9.609269E-1	9.765724E-1	9.578157E-1	9.435840E-1	9.922233E-1	9.762595E-1	9.902341E-1	9.946059E-1	9.780983E-1	9.775498E-1	9.547038E-1	1.000138E+0	1.011821E+0	9.541257E-1	9.549933E-1	9.768446E-1	9.649540E-1	9.705946E-1	9.351454E-1	9.906449E-1	9.601286E-1	1.000277E+0	9.111407E-1	9.671115E-1	9.617742E-1	9.678959E-1	9.547030E-1	1.001472E+0	9.765247E-1	9.442376E-1	9.759239E-1	9.567492E-1	1.015594E+0	9.485229E-1	9.142855E-1	9.867786E-1	1.009662E+0	9.807378E-1	9.862950E-1	1.029369E+0	9.487862E-1	9.640614E-1	9.801125E-1	9.542078E-1	9.789622E-1	1.029123E+0	1.005089E+0	9.253902E-1	9.484563E-1	9.553128E-1	9.564115E-1	9.919222E-1	9.546815E-1	9.327949E-1	9.879252E-1	9.933824E-1	9.766362E-1	1.004313E+0	9.658830E-1	9.826813E-1	9.407245E-1	9.869218E-1	9.676393E-1	9.966454E-1	9.925118E-1	9.907303E-1	9.834694E-1	9.556716E-1	9.157950E-1	1.008721E+0	9.624930E-1	9.439442E-1	1.001765E+0	9.669013E-1	9.581903E-1	1.010926E+0	9.597038E-1	9.714572E-1	9.920924E-1	9.534190E-1	1.017757E+0	9.567623E-1	9.118564E-1	9.604684E-1	9.451842E-1	9.505761E-1	9.656539E-1	9.736448E-1	1.002513E+0	1.000960E+0	9.516734E-1	9.901812E-1	9.733249E-1	9.415744E-1	9.522939E-1	9.815067E-1	9.656461E-1	9.819743E-1	9.857600E-1	9.507122E-1	9.761050E-1	9.866264E-1	9.921217E-1	9.693948E-1	9.380132E-1	9.760753E-1	1.011540E+0	9.899574E-1	9.549007E-1	9.354738E-1	9.126567E-1	9.554153E-1	9.695445E-1	9.661241E-1	9.966335E-1	1.028492E+0	9.672523E-1	1.015146E+0	9.570481E-1	9.729256E-1	9.359213E-1	9.502107E-1	9.791192E-1	9.764169E-1	9.426949E-1	9.424903E-1	9.618091E-1	9.464573E-1	9.770831E-1	9.484512E-1	9.904419E-1	9.661168E-1	9.795118E-1	9.559688E-1	9.850778E-1	9.658537E-1	9.864276E-1	9.412949E-1	9.679589E-1	9.542950E-1	1.002647E+0	9.353256E-1	9.759531E-1	9.975580E-1	9.411200E-1	9.766078E-1	9.947038E-1	9.739371E-1	9.236701E-1	9.482958E-1	9.473608E-1	9.507361E-1	9.914693E-1	9.878330E-1	9.752588E-1	9.950253E-1	1.003985E+0	9.907079E-1	9.910265E-1	9.646542E-1	9.974200E-1	9.916656E-1	9.645601E-1	9.802744E-1	9.320094E-1	9.163604E-1
5.565200E+2	9.532788E-1	9.827653E-1	1.007378E+0	9.865108E-1	9.904949E-1	1.012282E+0	9.714618E-1	9.687424E-1	1.000629E+0	1.002431E+0	1.004597E+0	9.363049E-1	1.012825E+0	9.714509E-1	9.515383E-1	9.841183E-1	9.782265E-1	1.026523E+0	9.777264E-1	9.582561E-1	9.651989E-1	9.407285E-1	9.632399E-1	1.008031E+0	9.683254E-1	1.032950E+0	9.677877E-1	9.642832E-1	1.010771E+0	1.011534E+0	9.453508E-1	9.886486E-1	9.867966E-1	1.003361E+0	1.013518E+0	9.253278E-1	9.816618E-1	9.833821E-1	9.817457E-1	9.828496E-1	9.577312E-1	9.759996E-1	9.760788E-1	9.857050E-1	9.498340E-1	1.001220E+0	9.199080E-1	9.673234E-1	9.841159E-1	9.997936E-1	9.601403E-1	9.585241E-1	9.296406E-1	1.021658E+0	9.859527E-1	9.942342E-1	9.705475E-1	1.002454E+0	9.977916E-1	9.748529E-1	9.719700E-1	1.008215E+0	1.014036E+0	9.860528E-1	9.694436E-1	9.754831E-1	1.013096E+0	9.776800E-1	9.592778E-1	1.033638E+0	9.519930E-1	1.004941E+0	9.847278E-1	9.785341E-1	9.953257E-1	1.014235E+0	1.049558E+0	9.891775E-1	9.819690E-1	1.044485E+0	9.978405E-1	9.843650E-1	9.587939E-1	9.853286E-1	9.748072E-1	9.870353E-1	9.849985E-1	9.952092E-1	9.690272E-1	9.643568E-1	9.892090E-1	9.987660E-1	9.487531E-1	9.778599E-1	1.012096E+0	1.012015E+0	1.009988E+0	9.721816E-1	9.875519E-1	9.544023E-1	1.002167E+0	9.771185E-1	9.909618E-1	9.778585E-1	9.837718E-1	9.922302E-1	9.565863E-1	1.002186E+0	9.569123E-1	9.561068E-1	1.009380E+0	1.017174E+0	9.739993E-1	1.011413E+0	9.611303E-1	9.555553E-1	9.727867E-1	9.739417E-1	9.930964E-1	9.758545E-1	1.024778E+0	9.702382E-1	9.817699E-1	9.552234E-1	9.577538E-1	9.809929E-1	9.644302E-1	9.980695E-1	9.984272E-1	9.465386E-1	9.557407E-1	9.757637E-1	9.841741E-1	9.884023E-1	9.504398E-1	9.667239E-1	9.709620E-1	9.398847E-1	9.525972E-1	1.025901E+0	9.656867E-1	1.007793E+0	9.127726E-1	9.807762E-1	9.561435E-1	1.000395E+0	1.039237E+0	1.019961E+0	1.003748E+0	1.004190E+0	9.625480E-1	9.939552E-1	9.995430E-1	9.856161E-1	9.685214E-1	9.639522E-1	9.812810E-1	9.882268E-1	9.298116E-1	1.067161E+0	9.775519E-1	9.669157E-1	9.923677E-1	9.939062E-1	9.880669E-1	9.783432E-1	1.010021E+0	9.600552E-1	9.176522E-1	1.048860E+0
5.570500E+2	1.023222E+0	1.041234E+0	9.678709E-1	9.974988E-1	1.012331E+0	9.532193E-1	1.007230E+0	9.928015E-1	9.774728E-1	9.777748E-1	9.492808E-1	9.813678E-1	9.841716E-1	9.775025E-1	9.649115E-1	9.864910E-1	9.552540E-1	9.665795E-1	9.656616E-1	1.025475E+0	9.711024E-1	1.024766E+0	1.008201E+0	9.756876E-1	1.022043E+0	9.921275E-1	1.029341E+0	1.045575E+0	1.019552E+0	9.646787E-1	9.833732E-1	9.794414E-1	1.019025E+0	9.791533E-1	1.033289E+0	9.988496E-1	1.003886E+0	9.653753E-1	9.787700E-1	9.833909E-1	9.682689E-1	9.997928E-1	9.999521E-1	9.849143E-1	9.937653E-1	9.975649E-1	9.901000E-1	9.812444E-1	1.000927E+0	1.027730E+0	9.825092E-1	9.867564E-1	9.797292E-1	9.716072E-1	9.686990E-1	9.606307E-1	9.690789E-1	1.028126E+0	9.786219E-1	1.011894E+0	9.922975E-1	9.713185E-1	9.872049E-1	9.749610E-1	9.864339E-1	9.626272E-1	9.787057E-1	1.009029E+0	1.019406E+0	1.031982E+0	9.840294E-1	9.681813E-1	9.944756E-1	1.018772E+0	1.030830E+0	9.929260E-1	9.631247E-1	1.001812E+0	9.998479E-1	9.606626E-1	1.026000E+0	1.008188E+0	9.536005E-1	9.711614E-1	9.740163E-1	1.002952E+0	9.769040E-1	1.000547E+0	9.931436E-1	9.840788E-1	1.000287E+0	9.768549E-1	1.007963E+0	1.017543E+0	9.979961E-1	1.009630E+0	9.960093E-1	9.986610E-1	1.017539E+0	1.021512E+0	1.002409E+0	9.513963E-1	1.020508E+0	1.016186E+0	1.029788E+0	1.023200E+0	9.849182E-1	9.873434E-1	1.027964E+0	1.014107E+0	9.758336E-1	9.774242E-1	9.720335E-1	9.810814E-1	1.008779E+0	1.029001E+0	9.685180E-1	9.950252E-1	9.987513E-1	1.002680E+0	9.945278E-1	9.650579E-1	9.806562E-1	9.937442E-1	9.758038E-1	9.759424E-1	1.034490E+0	1.011129E+0	9.878686E-1	1.000138E+0	9.690447E-1	1.016515E+0	9.974611E-1	9.959969E-1	1.011910E+0	1.005865E+0	9.928597E-1	1.009611E+0	9.631861E-1	1.006462E+0	1.017635E+0	1.011113E+0	1.031677E+0	1.000014E+0	9.781323E-1	9.771191E-1	9.761431E-1	9.751298E-1	9.735736E-1	1.001701E+0	1.011513E+0	9.498649E-1	9.904085E-1	9.980052E-1	9.283704E-1	9.754656E-1	1.030230E+0	9.812640E-1	9.843774E-1	9.833488E-1	9.898967E-1	9.654028E-1	9.738483E-1	9.897050E-1	1.004424E+0	9.873562E-1	9.503901E-1	9.258188E-1	9.874262E-1	9.942258E-1
5.575420E+2	1.011787E+0	9.866589E-1	9.662038E-1	9.773551E-1	9.659051E-1	9.618869E-1	1.038534E+0	9.685774E-1	9.592555E-1	9.820489E-1	9.442401E-1	1.028534E+0	9.793676E-1	9.633117E-1	9.655716E-1	1.010600E+0	9.767249E-1	1.001282E+0	9.900210E-1	1.043349E+0	1.028994E+0	9.847320E-1	9.654557E-1	1.002731E+0	9.824510E-1	9.824981E-1	1.004033E+0	9.847150E-1	9.733837E-1	1.010917E+0	1.014463E+0	1.008869E+0	9.668827E-1	9.893820E-1	1.012518E+0	9.853635E-1	1.020162E+0	9.973622E-1	9.934044E-1	1.007956E+0	1.008324E+0	9.762081E-1	9.469365E-1	9.916357E-1	9.830377E-1	9.570299E-1	1.004265E+0	1.010869E+0	9.815500E-1	9.785142E-1	9.650693E-1	9.996727E-1	1.030858E+0	9.795630E-1	9.924674E-1	9.585775E-1	1.029367E+0	9.964656E-1	9.967895E-1	1.017646E+0	9.718647E-1	1.019060E+0	9.942457E-1	9.766612E-1	1.036839E+0	9.765073E-1	1.015801E+0	9.759170E-1	1.017772E+0	9.965318E-1	1.026006E+0	9.901499E-1	9.602949E-1	9.837137E-1	9.706785E-1	1.041894E+0	1.000364E+0	9.940820E-1	9.747914E-1	1.021324E+0	9.586208E-1	1.029243E+0	9.965236E-1	9.807362E-1	9.826995E-1	9.922866E-1	9.540889E-1	9.660180E-1	1.030740E+0	1.026172E+0	9.787730E-1	1.015267E+0	9.642921E-1	9.765668E-1	9.966827E-1	9.708833E-1	9.729429E-1	1.014280E+0	9.738173E-1	1.007428E+0	9.938093E-1	1.022544E+0	9.981318E-1	9.535164E-1	9.866409E-1	9.709281E-1	9.959803E-1	9.902462E-1	9.693460E-1	9.566083E-1	1.012787E+0	9.807342E-1	9.575751E-1	9.923418E-1	1.009878E+0	1.007252E+0	9.720896E-1	1.006822E+0	9.937619E-1	9.780637E-1	9.479998E-1	9.828448E-1	1.000689E+0	9.815545E-1	9.722948E-1	9.865553E-1	1.001109E+0	1.006701E+0	9.592469E-1	9.809128E-1	1.015590E+0	9.839196E-1	1.005246E+0	1.002259E+0	1.008922E+0	1.013903E+0	1.007294E+0	9.773130E-1	9.912749E-1	9.973046E-1	9.830682E-1	9.405983E-1	1.018431E+0	9.783569E-1	9.913201E-1	1.017856E+0	9.953065E-1	1.026903E+0	1.021588E+0	9.890433E-1	1.012779E+0	1.016396E+0	1.020590E+0	1.009922E+0	1.003868E+0	1.013244E+0	9.717067E-1	9.699180E-1	9.626610E-1	9.934367E-1	9.637251E-1	9.747029E-1	1.013155E+0	9.849690E-1	9.788505E-1	9.821052E-1	9.793356E-1	9.775235E-1	9.034268E-1	9.174646E-1
5.580060E+2	9.651732E-1	1.003761E+0	1.004974E+0	9.861128E-1	1.021428E+0	1.012892E+0	9.950145E-1	1.010813E+0	9.711221E-1	9.561937E-1	1.024896E+0	9.797748E-1	1.001152E+0	9.838216E-1	9.884831E-1	9.852091E-1	9.878094E-1	9.969506E-1	1.020196E+0	9.922255E-1	1.006547E+0	9.643389E-1	1.001326E+0	9.988133E-1	1.022847E+0	9.556818E-1	1.000739E+0	9.854802E-1	1.005011E+0	1.000472E+0	1.045395E+0	9.847601E-1	9.879693E-1	1.006512E+0	1.006155E+0	9.870438E-1	9.850638E-1	1.018327E+0	1.011756E+0	9.711299E-1	1.004857E+0	9.792757E-1	1.015393E+0	1.016409E+0	9.884645E-1	9.976278E-1	9.910165E-1	1.016044E+0	9.765875E-1	1.013745E+0	9.729562E-1	9.981732E-1	1.011225E+0	9.849558E-1	1.009177E+0	1.013612E+0	1.029557E+0	1.026961E+0	1.019965E+0	1.002637E+0	1.001315E+0	1.013845E+0	1.014958E+0	1.019582E+0	1.004700E+0	9.946107E-1	9.892594E-1	9.742511E-1	9.861841E-1	9.936450E-1	1.050108E+0	1.005283E+0	9.788965E-1	1.000724E+0	9.712330E-1	9.781526E-1	1.011501E+0	9.610666E-1	1.022210E+0	9.938782E-1	9.954134E-1	1.003636E+0	1.011075E+0	1.011110E+0	9.802751E-1	9.991031E-1	9.839157E-1	9.778391E-1	9.763178E-1	1.000169E+0	9.870743E-1	1.008610E+0	1.001657E+0	1.000149E+0	1.012252E+0	9.972553E-1	9.941000E-1	9.483708E-1	1.001611E+0	9.860800E-1	9.745151E-1	9.965297E-1	1.013296E+0	9.836686E-1	9.927020E-1	1.055411E+0	1.006312E+0	9.704654E-1	9.983676E-1	1.013536E+0	9.832730E-1	1.001648E+0	9.927512E-1	1.006231E+0	1.017714E+0	9.975900E-1	9.659377E-1	9.882516E-1	1.003669E+0	9.865484E-1	9.927762E-1	1.018343E+0	9.907293E-1	1.010268E+0	1.016261E+0	1.014644E+0	1.027678E+0	1.002856E+0	9.994111E-1	1.008495E+0	9.858482E-1	9.969600E-1	1.006804E+0	9.482032E-1	9.796456E-1	1.047905E+0	9.971941E-1	1.051232E+0	1.024552E+0	9.600194E-1	9.982233E-1	1.020025E+0	9.838888E-1	9.803661E-1	9.911351E-1	9.736235E-1	9.859550E-1	9.752916E-1	1.025979E+0	9.944097E-1	1.004235E+0	9.471946E-1	1.019837E+0	9.839294E-1	1.015848E+0	9.994564E-1	1.034997E+0	1.017380E+0	9.915350E-1	9.958920E-1	9.872226E-1	1.023054E+0	9.941001E-1	9.672533E-1	1.057739E+0	9.749882E-1	9.788143E-1	1.022387E+0	1.035178E+0	1.081488E+0
5.585160E+2	1.046126E+0	9.694136E-1	9.710380E-1	1.042927E+0	1.001707E+0	1.014108E+0	9.582037E-1	9.802057E-1	1.012284E+0	9.734120E-1	1.020949E+0	1.020611E+0	1.008518E+0	1.026477E+0	1.035493E+0	1.023118E+0	1.025115E+0	9.780133E-1	1.015331E+0	1.014584E+0	1.007162E+0	9.985302E-1	1.027788E+0	1.017535E+0	1.010811E+0	9.520788E-1	9.998576E-1	9.990204E-1	1.045335E+0	1.009827E+0	1.011983E+0	1.012570E+0	1.042731E+0	1.043562E+0	9.671532E-1	1.003993E+0	1.005042E+0	9.832907E-1	1.000936E+0	1.004652E+0	1.017026E+0	1.002279E+0	1.000321E+0	1.020570E+0	1.053469E+0	1.046246E+0	1.046847E+0	1.028934E+0	9.991032E-1	9.793480E-1	9.850498E-1	1.012390E+0	9.951026E-1	1.002164E+0	9.749130E-1	1.032270E+0	1.004672E+0	9.770864E-1	1.003769E+0	9.999090E-1	9.701900E-1	1.000822E+0	1.038098E+0	1.017608E+0	1.012840E+0	1.000281E+0	1.001268E+0	1.037317E+0	1.037309E+0	9.685117E-1	9.640006E-1	1.015676E+0	1.017446E+0	1.021247E+0	9.984424E-1	9.748229E-1	9.850725E-1	1.002399E+0	1.000120E+0	9.896082E-1	1.037565E+0	1.007566E+0	9.980229E-1	1.070064E+0	1.019726E+0	9.754646E-1	1.013047E+0	1.017330E+0	9.942590E-1	9.941527E-1	9.971921E-1	1.012481E+0	1.005300E+0	9.958671E-1	9.645596E-1	1.014607E+0	9.829640E-1	1.001484E+0	9.949851E-1	1.005619E+0	1.009438E+0	9.652049E-1	9.690497E-1	1.005829E+0	1.002708E+0	9.564670E-1	1.037882E+0	9.816962E-1	1.029867E+0	1.015068E+0	1.002891E+0	9.849416E-1	1.003006E+0	1.005913E+0	9.827263E-1	9.570489E-1	1.040019E+0	1.022216E+0	1.022657E+0	1.002278E+0	9.869008E-1	1.026614E+0	9.893080E-1	9.986384E-1	1.008374E+0	9.993105E-1	1.009004E+0	9.789121E-1	9.965818E-1	1.038233E+0	9.789736E-1	9.800249E-1	1.018667E+0	1.015809E+0	1.022338E+0	9.939576E-1	1.007006E+0	9.759465E-1	1.027050E+0	9.679313E-1	9.793362E-1	1.012891E+0	1.012081E+0	9.908231E-1	9.770324E-1	9.897745E-1	1.025892E+0	1.014809E+0	9.738149E-1	9.731047E-1	9.695514E-1	1.054516E+0	9.629783E-1	1.008862E+0	1.011839E+0	1.023974E+0	9.932011E-1	9.979367E-1	9.982592E-1	1.008105E+0	1.027573E+0	9.897844E-1	9.928271E-1	9.990100E-1	9.918247E-1	1.014216E+0	9.853844E-1	1.035106E+0	1.040846E+0	9.779705E-1
5.590160E+2	1.026869E+0	1.012637E+0	9.964347E-1	1.009820E+0	1.003118E+0	9.862668E-1	1.032719E+0	1.026866E+0	9.968038E-1	1.038475E+0	1.049807E+0	1.035799E+0	1.011824E+0	1.016828E+0	1.036024E+0	1.013412E+0	9.657732E-1	9.726981E-1	9.957063E-1	9.976602E-1	9.824186E-1	9.967969E-1	1.039661E+0	1.033016E+0	1.009113E+0	1.008505E+0	1.038739E+0	1.010199E+0	1.007883E+0	9.985887E-1	1.035929E+0	1.016316E+0	1.008239E+0	1.042486E+0	1.022443E+0	1.057921E+0	1.040908E+0	1.005873E+0	1.034589E+0	1.021754E+0	1.019139E+0	1.052356E+0	1.033176E+0	1.014624E+0	1.018889E+0	9.922814E-1	1.028947E+0	9.842599E-1	1.042595E+0	1.046174E+0	1.020279E+0	1.042965E+0	1.008380E+0	1.044662E+0	1.022878E+0	1.028127E+0	1.010469E+0	9.801890E-1	1.002923E+0	1.001206E+0	9.945485E-1	1.020136E+0	1.011956E+0	1.060465E+0	9.916118E-1	1.038478E+0	1.023781E+0	1.037196E+0	9.855884E-1	1.005250E+0	9.791496E-1	1.028651E+0	9.773846E-1	1.060529E+0	1.023336E+0	1.010653E+0	9.748850E-1	1.037457E+0	1.045153E+0	9.999244E-1	1.044415E+0	1.031986E+0	1.039975E+0	9.964466E-1	1.037266E+0	9.767101E-1	1.041215E+0	1.006554E+0	1.052315E+0	1.002279E+0	1.031494E+0	9.468069E-1	1.012740E+0	1.018149E+0	1.045186E+0	1.018819E+0	1.042743E+0	1.018936E+0	9.975896E-1	1.023071E+0	9.577486E-1	1.031404E+0	1.032137E+0	1.010051E+0	1.040261E+0	9.993515E-1	1.019432E+0	1.041700E+0	1.015944E+0	1.037714E+0	1.024470E+0	1.027985E+0	9.996172E-1	1.024055E+0	9.681652E-1	9.761428E-1	1.011452E+0	1.008640E+0	1.043199E+0	9.870864E-1	1.029069E+0	1.047759E+0	1.019803E+0	1.014524E+0	1.033601E+0	1.040481E+0	1.003234E+0	9.727553E-1	1.008758E+0	1.030576E+0	1.030905E+0	1.018536E+0	9.923284E-1	1.015303E+0	1.000312E+0	1.041430E+0	1.009046E+0	1.033155E+0	1.025023E+0	1.001415E+0	1.037640E+0	1.019222E+0	1.008818E+0	9.833736E-1	1.038200E+0	1.021933E+0	9.776864E-1	1.004213E+0	1.019045E+0	9.801439E-1	1.047061E+0	9.909777E-1	1.009875E+0	1.023860E+0	1.027337E+0	1.003226E+0	1.029008E+0	1.044309E+0	1.058297E+0	1.012503E+0	1.019733E+0	1.032686E+0	1.052307E+0	1.003993E+0	1.012165E+0	1.002997E+0	1.003765E+0	1.013476E+0	1.036855E+0	1.020136E+0
5.595110E+2	1.015072E+0	1.045412E+0	1.062022E+0	1.011530E+0	9.835945E-1	1.033289E+0	9.954989E-1	1.014104E+0	1.017733E+0	9.840984E-1	1.014754E+0	1.007840E+0	1.023160E+0	1.008578E+0	1.022799E+0	9.906917E-1	1.060356E+0	1.020702E+0	1.034761E+0	1.005874E+0	1.026865E+0	1.062320E+0	1.025128E+0	9.776340E-1	1.042750E+0	1.046128E+0	1.010349E+0	9.994775E-1	9.978526E-1	1.065905E+0	9.908707E-1	1.048396E+0	1.011256E+0	1.006980E+0	1.001280E+0	9.868974E-1	1.004741E+0	1.054823E+0	1.014892E+0	1.023985E+0	1.034005E+0	1.000647E+0	9.870282E-1	1.035341E+0	1.035320E+0	1.066746E+0	1.020337E+0	1.016702E+0	1.004860E+0	1.008637E+0	1.046313E+0	1.012671E+0	1.016563E+0	1.016214E+0	9.733793E-1	1.057612E+0	9.663383E-1	9.811622E-1	1.057563E+0	9.863339E-1	1.017933E+0	9.986159E-1	9.788383E-1	1.010820E+0	1.026775E+0	1.028164E+0	1.004301E+0	9.813828E-1	1.076537E+0	1.010425E+0	1.005812E+0	9.968016E-1	1.026902E+0	9.788801E-1	1.020399E+0	9.835205E-1	1.033617E+0	9.876797E-1	1.002247E+0	9.578396E-1	1.008700E+0	1.011212E+0	1.030271E+0	9.944016E-1	1.001208E+0	1.019064E+0	9.919203E-1	1.061340E+0	1.026781E+0	1.019607E+0	1.061889E+0	1.005797E+0	1.037130E+0	1.019959E+0	1.034352E+0	1.006594E+0	1.038967E+0	1.015584E+0	1.032676E+0	9.787148E-1	1.044172E+0	1.051714E+0	9.934112E-1	1.019863E+0	1.001439E+0	1.009986E+0	1.032009E+0	1.022706E+0	1.015182E+0	9.942977E-1	1.026107E+0	1.034849E+0	1.059118E+0	1.001612E+0	1.015604E+0	1.008782E+0	1.040081E+0	9.973018E-1	1.022761E+0	1.035865E+0	1.035651E+0	1.021110E+0	1.063343E+0	9.975401E-1	1.067473E+0	1.015862E+0	1.015715E+0	1.027508E+0	1.014559E+0	1.063667E+0	1.022373E+0	1.004842E+0	1.005508E+0	1.030992E+0	1.007778E+0	1.024112E+0	1.034499E+0	1.021258E+0	1.034958E+0	1.023665E+0	1.038475E+0	9.906714E-1	1.014801E+0	1.058061E+0	1.008044E+0	9.892821E-1	1.010674E+0	1.011174E+0	1.017956E+0	1.025088E+0	1.002641E+0	1.024601E+0	1.013056E+0	1.010973E+0	1.014251E+0	9.978638E-1	1.016201E+0	1.021076E+0	1.024892E+0	1.010088E+0	1.016177E+0	1.042902E+0	1.007161E+0	1.035469E+0	1.012812E+0	1.012454E+0	1.023396E+0	1.034577E+0	1.013503E+0	9.732963E-1
5.600520E+2	9.543723E-1	9.935313E-1	1.033960E+0	9.928120E-1	1.010963E+0	1.020767E+0	9.608698E-1	1.010505E+0	9.815616E-1	1.013570E+0	1.000334E+0	9.840511E-1	9.931293E-1	1.011320E+0	1.055240E+0	1.006461E+0	1.021259E+0	1.002371E+0	9.989081E-1	9.963244E-1	1.037382E+0	9.887448E-1	1.001931E+0	9.824421E-1	9.782114E-1	1.044525E+0	9.830289E-1	1.002043E+0	1.029576E+0	9.580726E-1	9.850911E-1	9.937069E-1	9.771555E-1	9.701814E-1	9.857476E-1	1.040348E+0	9.939555E-1	9.900470E-1	9.800419E-1	1.004187E+0	9.837728E-1	9.809146E-1	1.012306E+0	1.005712E+0	1.019842E+0	9.831293E-1	9.953472E-1	9.636994E-1	1.035947E+0	9.811650E-1	1.016767E+0	1.014957E+0	1.005251E+0	1.009081E+0	1.045950E+0	9.883216E-1	9.980620E-1	1.028902E+0	1.001845E+0	1.020394E+0	1.035016E+0	9.831127E-1	1.002045E+0	9.946011E-1	9.970841E-1	9.841081E-1	9.716493E-1	1.020139E+0	9.881442E-1	9.674659E-1	1.025992E+0	1.003926E+0	1.038967E+0	9.954707E-1	9.878278E-1	9.699045E-1	1.007822E+0	9.828444E-1	9.851135E-1	1.012298E+0	9.682324E-1	9.911227E-1	1.010153E+0	9.951788E-1	1.003820E+0	1.038158E+0	1.050943E+0	9.903754E-1	1.052118E+0	1.000908E+0	1.010101E+0	1.025906E+0	1.017919E+0	1.014336E+0	9.962575E-1	9.750359E-1	9.779589E-1	1.010988E+0	1.051219E+0	9.956592E-1	1.032184E+0	1.020591E+0	9.829579E-1	1.036670E+0	9.664037E-1	9.869112E-1	9.843385E-1	1.011960E+0	1.015676E+0	9.962172E-1	1.022894E+0	9.828063E-1	9.918229E-1	1.029305E+0	1.020168E+0	1.024607E+0	1.022152E+0	1.010306E+0	9.422743E-1	1.031627E+0	9.792680E-1	1.002267E+0	9.826238E-1	1.004052E+0	9.859663E-1	9.630769E-1	9.787749E-1	9.667072E-1	1.003411E+0	9.671436E-1	1.020319E+0	1.018636E+0	9.870092E-1	9.791138E-1	9.723114E-1	9.482181E-1	1.026497E+0	9.996933E-1	9.821407E-1	9.797370E-1	1.032681E+0	9.995114E-1	9.882875E-1	1.004563E+0	1.007280E+0	1.010670E+0	1.012438E+0	1.001563E+0	9.884833E-1	9.962813E-1	1.015590E+0	1.030386E+0	9.936264E-1	9.904714E-1	9.748955E-1	1.012269E+0	9.982108E-1	9.959285E-1	1.055674E+0	9.983481E-1	9.892496E-1	1.032752E+0	9.808124E-1	1.020161E+0	9.791976E-1	1.021585E+0	1.044658E+0	9.616028E-1	1.022672E+0	9.316914E-1
5.605090E+2	1.021174E+0	9.940547E-1	1.001139E+0	9.787239E-1	9.865930E-1	9.734692E-1	1.019208E+0	1.020461E+0	1.040296E+0	1.030433E+0	1.001112E+0	1.024504E+0	1.010801E+0	9.974489E-1	9.980413E-1	9.938620E-1	1.024779E+0	9.664034E-1	1.004768E+0	9.907589E-1	9.521306E-1	1.038450E+0	9.834572E-1	1.010585E+0	9.744988E-1	1.015780E+0	9.672292E-1	9.860951E-1	9.481591E-1	9.786156E-1	9.882462E-1	9.720436E-1	1.030206E+0	9.854758E-1	9.897492E-1	9.781539E-1	1.005074E+0	9.887708E-1	9.909338E-1	1.034967E+0	9.722751E-1	1.007148E+0	1.009721E+0	9.644640E-1	9.841543E-1	9.850035E-1	1.023155E+0	1.015757E+0	9.883289E-1	9.912091E-1	1.041752E+0	1.009335E+0	1.001504E+0	9.977646E-1	1.005577E+0	9.677875E-1	9.979520E-1	9.742231E-1	9.981596E-1	9.760177E-1	1.022253E+0	9.820345E-1	9.730803E-1	9.654588E-1	9.713883E-1	1.017892E+0	9.881333E-1	9.329490E-1	9.859446E-1	9.558284E-1	1.010841E+0	9.738468E-1	1.036772E+0	9.716230E-1	9.974917E-1	1.008463E+0	9.799581E-1	1.043059E+0	9.962232E-1	9.900617E-1	9.904907E-1	9.721188E-1	1.017869E+0	9.833622E-1	1.006940E+0	1.005710E+0	1.009675E+0	9.964342E-1	9.386245E-1	1.005773E+0	9.775846E-1	9.909808E-1	9.992981E-1	1.007468E+0	9.665157E-1	9.890738E-1	9.946619E-1	1.029627E+0	9.714186E-1	1.033544E+0	1.023175E+0	9.931517E-1	9.870818E-1	9.830892E-1	9.776685E-1	9.968036E-1	9.368659E-1	9.830793E-1	9.860262E-1	1.040590E+0	9.702254E-1	9.831154E-1	1.025321E+0	9.661368E-1	1.001535E+0	1.012159E+0	1.005506E+0	9.920918E-1	9.674902E-1	9.979434E-1	9.892427E-1	9.579841E-1	1.005021E+0	9.758661E-1	1.001153E+0	9.859697E-1	1.006933E+0	1.019352E+0	1.003001E+0	9.773322E-1	9.965585E-1	9.901739E-1	9.973938E-1	9.816991E-1	1.017472E+0	9.852621E-1	9.683505E-1	9.755700E-1	9.859906E-1	1.013488E+0	9.813772E-1	1.004377E+0	9.969969E-1	1.007169E+0	1.040788E+0	1.017623E+0	1.008130E+0	9.758134E-1	9.720102E-1	1.005637E+0	1.027002E+0	1.001950E+0	1.009405E+0	9.949492E-1	1.044023E+0	9.781527E-1	9.538617E-1	9.942545E-1	1.012462E+0	9.475278E-1	1.007399E+0	9.599934E-1	9.760821E-1	9.866214E-1	9.859266E-1	1.013524E+0	1.009343E+0	1.005255E+0	1.009885E+0	9.772615E-1
5.610010E+2	9.829254E-1	9.705321E-1	9.889798E-1	1.016710E+0	1.023865E+0	1.031820E+0	1.021260E+0	1.006925E+0	1.042843E+0	1.041563E+0	9.900308E-1	1.001214E+0	9.750521E-1	1.043262E+0	9.818990E-1	1.006037E+0	1.004703E+0	1.068476E+0	9.969197E-1	9.754921E-1	1.022199E+0	1.000593E+0	9.838129E-1	9.935248E-1	9.889481E-1	9.697250E-1	9.988941E-1	1.023111E+0	9.624767E-1	1.001389E+0	9.992988E-1	9.952489E-1	9.697385E-1	9.729077E-1	9.681469E-1	1.036102E+0	9.595044E-1	1.012749E+0	1.012932E+0	9.651295E-1	1.034600E+0	1.025380E+0	1.019087E+0	9.806248E-1	9.732245E-1	9.731511E-1	9.800765E-1	1.015167E+0	9.859854E-1	9.736835E-1	1.009164E+0	9.645567E-1	1.021746E+0	9.723314E-1	1.021007E+0	9.988262E-1	1.023955E+0	1.004432E+0	9.425726E-1	1.009109E+0	1.022612E+0	1.002840E+0	9.855365E-1	9.937901E-1	1.002884E+0	1.021850E+0	1.014006E+0	1.054139E+0	9.438368E-1	1.036722E+0	1.002069E+0	1.012543E+0	9.841334E-1	9.905067E-1	1.004436E+0	1.025428E+0	9.940976E-1	1.000424E+0	9.923246E-1	1.029918E+0	9.727227E-1	9.605616E-1	9.837162E-1	1.012210E+0	1.019243E+0	1.003516E+0	9.932935E-1	9.883535E-1	9.666746E-1	1.002504E+0	9.663964E-1	1.018530E+0	1.004947E+0	9.721027E-1	9.741029E-1	1.006086E+0	9.896638E-1	9.898858E-1	9.715925E-1	9.939694E-1	9.603814E-1	9.903460E-1	1.012465E+0	1.013268E+0	1.018618E+0	1.008710E+0	1.045676E+0	1.008617E+0	9.847141E-1	9.757555E-1	9.721392E-1	1.009322E+0	1.024756E+0	9.819106E-1	1.014300E+0	1.031861E+0	1.001458E+0	1.005404E+0	1.012340E+0	1.002055E+0	1.019786E+0	1.007783E+0	9.860564E-1	1.068590E+0	9.813184E-1	1.037165E+0	9.586326E-1	1.016008E+0	1.028735E+0	9.869638E-1	1.024647E+0	1.014630E+0	1.005408E+0	1.042222E+0	1.028872E+0	9.726241E-1	9.862916E-1	1.016337E+0	1.013227E+0	1.024077E+0	9.658773E-1	9.937976E-1	1.032246E+0	1.016497E+0	1.011925E+0	1.001724E+0	9.685370E-1	9.951419E-1	1.003802E+0	1.030401E+0	9.470789E-1	9.901586E-1	9.806812E-1	9.934129E-1	1.011046E+0	1.032396E+0	9.913019E-1	9.897062E-1	9.820321E-1	9.835893E-1	1.021472E+0	1.011807E+0	1.017339E+0	1.018911E+0	9.889943E-1	1.012432E+0	1.014892E+0	1.064199E+0	1.032554E+0	1.077606E+0
