Photon Energy (eV)	#1	#2	#3	#4	#5	#6	#7	#8	#9	#10	#11	#12	#13	#14	#15	#16	#17	#18	#19	#20	#21	#22	#23	#24	#25	#26	#27	#28	#29	#30	#31	#32	#33	#34	#35	#36	#37	#38	#39	#40	#41	#42	#43	#44	#45	#46	#47	#48	#49	#50	#51	#52	#53	#54	#55	#56	#57	#58	#59	#60	#61	#62	#63	#64	#65	#66	#67	#68	#69	#70	#71	#72	#73	#74	#75	#76	#77	#78	#79	#80	#81	#82	#83	#84	#85	#86	#87	#88	#89	#90	#91	#92	#93	#94	#95	#96	#97	#98	#99	#100	#101	#102	#103	#104	#105	#106	#107	#108	#109	#110	#111	#112	#113	#114	#115	#116	#117	#118	#119	#120	#121	#122	#123	#124	#125	#126	#127	#128	#129	#130	#131	#132	#133	#134	#135	#136	#137	#138	#139	#140	#141	#142	#143	#144	#145	#146	#147	#148	#149	#150	#151	#152	#153	#154	#155	#156	#157	#158	#159	#160	#161	#162	#163	#164	#165	
2.790010E+2	-1.423569E-2	6.864325E-3	-1.314357E-2	2.682576E-3	2.236841E-3	6.253497E-3	-6.022689E-3	-4.617124E-3	-2.701481E-3	3.449448E-3	-8.095623E-3	-6.853688E-3	-4.446110E-3	-7.357462E-3	5.230330E-4	-2.837756E-3	-1.487305E-2	-7.921250E-4	6.563638E-3	-2.610289E-3	-2.885202E-3	-5.698026E-4	4.787640E-3	-1.212447E-2	4.733103E-4	7.689041E-3	4.021796E-3	-7.305833E-3	-2.940537E-3	3.072275E-3	1.015582E-3	2.124644E-3	-6.663939E-3	6.139364E-3	-9.672779E-3	-8.510787E-3	2.929432E-4	-5.127852E-3	-5.515097E-3	3.865066E-3	-7.302947E-3	1.978170E-3	2.334202E-3	-4.656628E-3	-1.381975E-2	-5.047302E-3	-5.727900E-3	-4.296365E-4	8.074361E-3	-1.237094E-2	-3.517561E-3	2.381446E-3	-7.256143E-3	4.457109E-3	6.544972E-3	-5.524017E-3	-3.449477E-3	-6.287366E-3	9.082749E-4	-9.702804E-3	1.066573E-2	-6.519605E-3	-8.351005E-4	-2.816771E-3	7.718770E-4	-3.985740E-4	-4.847540E-3	4.064046E-3	9.881868E-3	-8.134035E-3	2.456478E-3	-9.392249E-3	1.845855E-3	-1.752771E-2	2.150415E-3	-1.346167E-3	-7.622156E-3	2.282901E-3	-7.925776E-3	1.124698E-2	-2.152303E-3	-5.414343E-3	2.539211E-3	-1.043449E-3	5.472691E-4	-2.955637E-3	-9.452087E-3	-3.658913E-3	-7.092201E-3	-4.541704E-3	-9.951074E-4	3.066269E-3	-3.918851E-3	-3.789216E-3	-6.149982E-3	-3.127878E-3	-7.442663E-4	-4.254145E-3	-1.052468E-2	-4.040771E-3	-5.752071E-3	-6.727526E-3	1.120785E-4	-1.381686E-3	2.889660E-3	1.672063E-3	-3.790196E-3	-4.653139E-3	-5.477097E-3	1.852968E-3	-6.715825E-3	1.089235E-3	-7.597577E-3	-1.637507E-3	-4.448588E-3	1.977673E-3	-1.109432E-2	-5.710411E-3	-4.904828E-3	5.823000E-3	-1.055860E-2	-1.227169E-3	-5.813211E-3	-6.051174E-3	-1.071439E-2	-6.692108E-3	-7.768340E-3	4.379222E-3	-4.324952E-3	-4.003193E-3	-6.085552E-3	6.127851E-3	-6.994248E-4	-8.595220E-3	-1.461559E-2	-2.114516E-3	4.791179E-3	1.089748E-3	7.236584E-3	-4.561422E-4	1.871781E-3	-2.278262E-3	-2.740380E-3	-6.102730E-3	-9.279385E-4	-7.716045E-4	-5.956165E-3	-2.642710E-3	-3.774048E-3	-4.091885E-3	-5.661543E-3	-1.103516E-2	6.866006E-4	8.466673E-3	-5.494316E-3	-5.566471E-3	1.034521E-2	-8.124774E-3	-9.352349E-3	-5.494211E-3	6.390526E-3	-2.324436E-3	1.001634E-3	-1.283766E-2	-1.501656E-2
2.795040E+2	-4.991285E-3	3.657635E-3	-4.161141E-4	-3.542946E-3	-2.319262E-3	7.240011E-4	8.143299E-4	3.770207E-4	5.557648E-3	-6.405792E-3	-7.860308E-3	-4.236464E-3	-6.401244E-3	-3.981824E-4	1.965302E-3	2.006636E-3	1.163289E-2	1.642134E-4	3.541173E-3	-9.039016E-3	-9.696799E-3	2.086597E-3	4.085727E-4	-4.301500E-5	-1.721619E-3	-5.703736E-3	-5.714235E-3	-2.482337E-3	-6.543840E-3	-6.911642E-3	-1.014590E-2	-5.137915E-3	1.677890E-3	-5.840155E-3	-4.303691E-3	-2.658790E-3	-5.253030E-3	-2.165456E-3	1.202797E-3	-1.016899E-2	-1.710959E-3	-2.351828E-3	9.057766E-4	1.084976E-2	-6.989659E-3	6.650392E-4	-4.818054E-3	6.633308E-3	-4.023575E-3	-9.001065E-3	-1.056142E-2	-2.965162E-3	8.956130E-4	-5.060250E-3	-6.688674E-3	-4.509429E-3	-1.465838E-2	-6.794061E-3	-1.325085E-3	2.066466E-4	-1.166233E-3	4.307526E-3	-3.528483E-3	1.027159E-3	-6.050657E-3	-7.980120E-3	-6.866611E-3	9.680674E-4	-4.699784E-4	-5.851495E-3	-2.701700E-3	-3.840234E-3	-3.586244E-3	2.465333E-3	-5.321835E-3	-5.365428E-3	-2.929424E-3	1.528333E-4	6.182402E-3	-4.635548E-3	3.303197E-4	-3.542689E-3	-5.584642E-3	-1.177348E-2	5.679683E-3	6.206588E-4	-5.007140E-3	1.106147E-6	1.112732E-2	-4.353655E-3	-1.540754E-3	-4.695546E-3	-8.014523E-4	-5.750862E-3	-2.092526E-3	-8.460920E-4	2.512667E-4	6.280145E-3	-3.269330E-3	-4.549360E-3	-6.240007E-3	2.860135E-3	4.276167E-3	2.780063E-3	3.014568E-3	-1.495098E-3	-3.532877E-3	1.473766E-3	2.993695E-3	-2.528502E-3	-7.203081E-3	-4.460477E-3	2.245792E-3	-4.606993E-3	-2.553013E-3	-5.851680E-3	-5.076663E-3	-5.514735E-3	-5.876097E-4	-5.526238E-3	-1.784423E-3	-7.021099E-3	-3.681802E-3	2.791256E-3	-3.140669E-3	2.937917E-3	8.940465E-3	-6.659746E-3	-6.339711E-3	2.981696E-3	-7.580017E-3	-7.992711E-3	-4.084853E-3	5.239772E-3	-6.198303E-3	-3.114664E-4	-6.732544E-3	-7.321440E-3	3.705791E-4	-4.562480E-3	-6.233048E-3	-3.571018E-3	-1.206787E-2	1.969528E-3	3.005993E-3	1.018006E-2	-4.234804E-3	-6.746583E-3	-2.760327E-3	-1.753795E-3	3.564367E-3	-2.867112E-3	-1.460766E-3	-2.798665E-3	6.551993E-3	-9.994710E-3	-4.186537E-3	-1.013798E-2	7.667435E-3	-1.180334E-2	-7.055773E-3	-1.211057E-2	1.439174E-3	-9.332698E-3	7.960033E-3
2.800020E+2	7.762438E-3	-5.487466E-4	-9.183746E-3	-2.698655E-3	-3.148977E-3	-6.214188E-3	6.246748E-3	4.533011E-3	2.293187E-3	-2.620336E-3	-3.089392E-3	6.128608E-4	-5.917767E-5	2.951972E-3	-8.553054E-3	-2.712804E-3	-8.400498E-3	-2.968378E-3	-1.047475E-2	3.364161E-3	-2.777842E-3	-1.003271E-2	-6.330217E-3	2.851936E-3	-3.237857E-3	-7.153253E-3	-7.219106E-3	2.057068E-3	-2.086823E-3	-6.946859E-3	2.602572E-3	-9.803696E-3	2.211737E-4	2.435288E-3	-1.274281E-2	-7.489435E-3	-3.340204E-4	-1.744081E-4	2.756287E-3	8.209090E-4	1.289488E-3	3.506078E-3	-8.778264E-3	2.739433E-3	4.512342E-3	-7.729248E-3	-4.085516E-3	-2.408685E-3	-1.590421E-3	-2.205768E-3	-4.168637E-3	1.154699E-4	-3.067852E-3	-1.064421E-2	-2.016314E-3	-3.846208E-5	-1.117749E-2	-3.779688E-3	-6.314535E-3	9.852657E-4	-1.306884E-2	-4.224672E-3	-3.580642E-3	2.198126E-4	-3.457884E-3	1.156771E-3	3.092788E-3	-4.983751E-3	-2.022611E-3	-5.908725E-3	-4.327730E-3	3.514405E-3	-1.084205E-2	-5.141040E-4	2.384730E-3	-7.994119E-3	6.458938E-3	-1.310783E-2	2.088084E-3	-6.960537E-3	-5.944269E-3	-1.599690E-2	-1.905033E-3	-2.674190E-3	-5.754345E-3	-9.664072E-3	-6.631670E-3	-5.064616E-3	-6.022279E-3	-5.930835E-3	-4.668158E-3	-1.732346E-2	-8.179325E-3	2.484487E-3	-2.106696E-3	-4.418425E-3	-4.659980E-3	-9.298696E-4	1.282890E-2	-2.096822E-3	-9.979846E-3	-5.863975E-3	-7.603518E-3	4.288348E-3	-2.803174E-3	6.829419E-3	-1.039566E-2	1.396835E-3	-1.575296E-3	-8.631973E-3	-9.427084E-3	2.516115E-3	-4.919009E-3	4.900061E-3	-9.071498E-3	-1.069483E-2	-1.544931E-3	-1.309660E-3	4.990253E-3	1.040777E-2	-1.646249E-2	-2.639904E-3	-5.540675E-3	-6.678179E-3	3.393151E-3	-8.757422E-3	1.049091E-2	-1.551613E-3	-6.394842E-3	-7.624909E-3	-9.473253E-3	-1.306778E-2	-9.724125E-3	-1.238289E-2	2.589655E-3	-6.840769E-3	-2.153881E-3	-4.540291E-3	-2.312195E-3	-2.001559E-3	-6.284695E-3	6.250432E-3	7.683957E-3	-1.528240E-2	-4.612553E-3	-1.055241E-2	-7.338430E-3	2.910953E-3	-9.800960E-3	-7.629902E-3	2.460795E-4	-7.579988E-3	-7.595263E-3	-1.035584E-2	2.128329E-4	-7.705985E-3	-5.016653E-3	5.300787E-3	2.013840E-3	-6.087393E-3	-3.379197E-3	5.449636E-3	-2.757746E-3	1.053040E-2	-1.543933E-2
2.805050E+2	-7.447535E-3	-2.178062E-3	-1.018697E-2	-4.998307E-3	-3.109221E-3	-6.858598E-3	-3.262106E-3	-8.747868E-4	-7.320064E-3	2.016516E-3	-9.394101E-3	-2.400373E-3	-9.949035E-3	-3.763474E-3	-4.303713E-3	-3.306185E-3	-4.524813E-3	-3.697101E-3	-8.756764E-3	-1.441970E-4	3.544395E-3	-8.712345E-3	-3.737335E-4	-1.234698E-2	-1.402045E-2	-2.839177E-3	-6.060343E-3	-7.666941E-3	-4.276402E-3	1.861031E-3	-1.960157E-3	4.961612E-3	1.016100E-3	-3.496478E-3	-2.286539E-3	-4.999507E-3	-8.788465E-3	-3.553088E-3	-1.360542E-2	-2.910407E-3	-1.695086E-3	-1.342532E-2	-1.149136E-2	-1.053383E-2	-1.206445E-3	-7.230750E-4	-1.698050E-3	-9.027975E-4	-3.175921E-3	-5.975201E-3	-7.075438E-3	-5.339274E-3	-9.339756E-3	-9.272961E-3	-9.146448E-3	-8.147077E-4	-5.306508E-4	-3.740619E-3	-8.481764E-3	1.930196E-4	5.109852E-3	4.706774E-5	-6.729117E-3	-4.588267E-4	-1.054121E-2	-1.088473E-2	-1.078634E-2	-1.080582E-2	2.369706E-4	-5.184445E-3	-1.208859E-2	-3.183422E-3	4.356634E-3	3.894942E-3	-1.488717E-3	5.802345E-4	2.081826E-3	3.786361E-3	-2.699792E-3	-3.145104E-3	-1.133432E-2	-2.828647E-3	-1.115180E-3	-1.277291E-2	-1.354310E-2	4.701799E-3	-1.074377E-2	-5.034429E-3	-6.809863E-3	-4.373875E-3	-5.914150E-4	7.063898E-3	-4.484833E-3	-8.530764E-3	-3.587149E-3	-7.186272E-3	-1.268485E-2	-1.682765E-3	-7.371142E-4	-2.074638E-3	-7.742229E-3	-4.259961E-5	-5.994579E-3	-1.545957E-2	-2.761429E-3	-1.244733E-2	-1.019222E-3	-5.235082E-3	-8.283348E-3	-7.842565E-3	2.201493E-3	-1.010240E-2	-1.548605E-4	-5.430676E-3	1.453704E-3	1.304495E-3	2.088586E-3	-6.228207E-3	-7.881032E-3	-8.590455E-3	-2.371970E-4	-3.354298E-3	-5.510705E-3	-5.785974E-3	-6.092538E-3	-5.078362E-3	-8.284903E-3	-5.190268E-3	-5.455574E-4	-6.832617E-3	6.146506E-4	-1.219903E-2	-6.184721E-3	-4.516120E-3	-9.124485E-4	-7.607044E-3	-5.201221E-3	-2.367531E-3	-4.877112E-3	-1.423529E-2	-6.244809E-3	-5.697605E-3	-4.157884E-3	2.035528E-3	-4.570672E-3	-3.905563E-3	-5.016547E-3	-8.412214E-3	-8.992680E-3	-5.398197E-3	-1.350068E-2	3.375486E-4	-3.007638E-3	-4.311482E-3	1.820649E-3	-6.873837E-3	3.424224E-3	-1.236372E-2	-5.905462E-3	-5.286397E-3	-1.086367E-3	4.737476E-3	-5.824331E-3	-9.239171E-3	-7.074498E-3
2.810050E+2	3.582489E-3	3.399121E-3	-2.568927E-3	6.855009E-3	-5.614635E-3	-1.216256E-4	3.383763E-3	-8.280611E-3	-1.389560E-2	1.057109E-3	-2.761147E-3	-7.330670E-3	-1.602215E-3	-8.639235E-3	-6.320929E-3	3.958457E-3	-1.310439E-2	-3.852977E-3	-1.038055E-2	-8.360788E-3	-4.957709E-3	-1.199550E-2	-6.282666E-3	-9.508119E-3	-9.706817E-4	-1.350144E-2	-1.024012E-2	-1.163839E-2	-9.685235E-3	-8.309393E-3	-6.403994E-3	-1.109528E-2	-9.496256E-3	-8.896776E-3	-1.279926E-3	-9.866625E-3	-8.198944E-3	-7.112834E-3	8.486156E-3	-3.703169E-3	-3.251576E-4	-2.454004E-3	5.664215E-3	-4.159700E-3	1.450771E-4	-9.172393E-3	-2.699171E-3	-5.429887E-3	-8.166116E-3	-8.061717E-4	-2.757814E-3	-1.325767E-2	-7.932910E-3	-1.133386E-3	-1.797440E-3	7.078494E-4	4.632986E-3	-6.910858E-3	-5.955055E-3	-2.321731E-3	-9.221404E-3	-7.810875E-4	8.548214E-3	-7.038383E-3	-7.187496E-3	-6.777665E-3	5.967798E-4	-2.565893E-3	-8.132525E-3	-1.283765E-2	-6.996758E-3	-7.772557E-3	-9.441370E-3	-7.141346E-3	-6.727899E-3	3.729620E-4	-7.492451E-3	-1.513797E-3	-7.272197E-3	1.231451E-3	-6.577880E-4	-4.585030E-3	-2.679007E-3	-1.289126E-2	-6.660280E-3	-4.302254E-3	-6.335450E-3	-1.932440E-3	-3.880168E-3	-3.776618E-3	-9.517507E-3	-7.984415E-3	4.114653E-3	-4.533371E-3	-5.555146E-3	-5.900903E-3	-1.681905E-2	-2.637085E-3	-8.537559E-3	-1.072036E-2	-2.748290E-3	-5.969762E-3	-8.487394E-3	2.569679E-3	-9.472039E-3	-6.720642E-3	-5.433549E-3	-8.712403E-3	5.502327E-4	3.152394E-4	-1.095896E-2	-4.017339E-4	1.272416E-3	-2.398628E-3	-5.153187E-3	3.350928E-4	-3.085407E-3	-6.365289E-3	1.823155E-5	-1.251094E-2	-1.168270E-3	-1.094688E-2	-1.212455E-3	-3.384290E-3	-6.971420E-3	5.638160E-3	-9.231257E-3	1.284862E-3	1.458539E-3	-3.216824E-3	4.066397E-3	-4.823213E-3	2.742191E-3	1.841933E-3	-1.345689E-2	-6.138557E-3	-6.886372E-3	-1.801029E-3	-7.633499E-3	-6.483745E-3	-7.124716E-3	-8.649289E-3	-1.151769E-3	-1.142618E-2	-1.073720E-2	-7.356764E-3	1.344266E-4	4.598555E-3	-9.115128E-3	-1.496013E-2	-5.527114E-3	-1.380955E-3	-9.956722E-3	-6.697004E-3	-1.081847E-2	4.576768E-3	-6.641540E-3	-3.653793E-3	-1.319624E-2	-9.012872E-3	-7.206908E-3	-6.126168E-3	-5.955587E-3	-8.043963E-3	4.439273E-3
2.815020E+2	-4.559478E-3	-1.071379E-2	-6.613973E-3	-2.905645E-3	-3.317149E-4	-3.713710E-3	-1.721764E-4	-3.646460E-3	-2.839267E-3	-1.199443E-2	1.387661E-4	-3.543355E-3	-3.874450E-3	4.003712E-3	-6.446769E-3	-8.309540E-3	4.939515E-4	-4.772974E-3	9.969798E-4	-4.123267E-3	-1.642910E-3	6.872103E-3	-1.530852E-4	3.665908E-3	-3.659176E-4	3.201064E-4	8.369592E-4	-5.649138E-3	-6.071019E-3	9.151206E-4	5.379168E-4	1.435388E-5	6.696657E-4	-8.293013E-3	1.657206E-3	6.653557E-3	-2.686036E-3	-5.186743E-3	7.603498E-3	8.940856E-5	-6.576798E-3	-4.064569E-3	-6.817892E-3	-9.173944E-3	3.695719E-3	-4.434357E-3	-5.609665E-3	-6.011267E-3	-6.677251E-3	-7.794586E-3	-8.662328E-3	3.035928E-3	-8.855726E-3	5.559836E-3	-3.891692E-3	-5.459471E-3	-4.362786E-3	-7.818441E-3	-5.387254E-3	4.420228E-3	-3.883133E-3	1.862792E-3	-9.077626E-3	-5.025068E-3	-1.218802E-3	2.195542E-3	-2.012086E-3	6.313843E-4	-2.400185E-3	-6.765587E-4	-3.244584E-3	-4.648573E-4	-9.066852E-4	-2.941871E-3	-2.562138E-3	5.263364E-3	-7.628106E-3	-8.229969E-3	-3.010813E-3	-1.187519E-3	-8.533578E-3	6.741239E-3	-7.874042E-3	-1.327859E-4	1.649340E-3	-6.444153E-3	5.080183E-3	-6.772992E-3	5.511155E-4	-7.646564E-3	-2.181708E-3	6.838908E-4	-3.316097E-3	-7.409445E-3	8.845273E-3	2.418362E-3	-1.738465E-3	1.934508E-3	-3.487383E-3	8.517337E-3	4.357571E-3	2.509936E-3	-4.993087E-3	-5.273413E-3	-2.270155E-3	6.727036E-4	-9.959340E-3	-1.037416E-2	-3.333256E-3	5.436570E-3	-3.178345E-4	-7.496382E-3	-3.568163E-3	3.003744E-3	1.278808E-2	-8.527233E-3	-4.652241E-3	-3.678541E-3	-8.418975E-3	-2.018137E-3	-6.682858E-3	2.223999E-3	9.749581E-4	1.552616E-3	-2.748339E-3	-2.493790E-3	2.485175E-4	-9.137152E-3	-5.914550E-3	-7.852274E-3	-1.583351E-3	6.663431E-3	-1.587802E-3	-8.028129E-3	7.521064E-3	2.539418E-3	-2.421330E-3	2.266669E-3	-8.894799E-4	6.427942E-3	7.546080E-3	1.015946E-2	-1.075615E-2	1.694820E-3	-4.110492E-3	2.338355E-3	-8.336958E-3	-1.130331E-2	4.623135E-3	1.021616E-2	3.186689E-3	-9.317604E-3	-8.573067E-3	2.851828E-3	7.381530E-4	5.941707E-3	-6.018611E-3	2.791459E-3	-1.015207E-2	8.062373E-3	-1.624680E-2	-9.396266E-4	-1.018269E-2	5.051342E-3	7.586213E-3
2.820030E+2	-1.753972E-3	-6.227485E-3	1.621264E-3	-8.945446E-4	-3.805482E-3	-3.282778E-3	-4.091562E-4	2.781286E-5	-7.812564E-4	1.373162E-3	9.934242E-3	7.257420E-3	2.940132E-3	-2.512217E-4	2.142261E-3	-7.262774E-3	4.816348E-3	-9.018576E-3	-3.619732E-3	-2.240747E-3	4.376906E-3	2.891023E-3	3.422908E-3	-2.533778E-3	3.915309E-3	8.113872E-4	-3.385065E-3	-2.127379E-3	3.376326E-3	7.382854E-3	9.483268E-4	1.108396E-2	-4.847668E-3	4.838246E-3	5.246566E-3	3.996230E-3	-2.260158E-3	2.126930E-3	-1.661221E-4	-1.901968E-3	-5.388614E-3	-6.633615E-3	-2.053986E-3	8.992443E-3	-1.626208E-3	-1.216834E-3	3.885399E-3	-4.270538E-3	5.123957E-3	-3.550629E-3	7.775093E-3	-5.088533E-3	8.850944E-3	6.130294E-4	-1.746364E-4	4.150274E-3	4.075469E-3	1.094925E-3	7.704121E-4	1.474108E-3	-1.134869E-2	2.258722E-4	-2.257500E-4	2.635875E-3	1.354957E-2	1.270913E-2	6.835704E-4	-8.127639E-3	-7.830210E-3	4.637479E-3	1.392166E-3	-1.408877E-3	3.703176E-3	6.312377E-3	3.242193E-3	-4.395959E-3	-1.432671E-3	4.709677E-3	7.046150E-3	-1.057409E-2	3.574469E-3	1.754995E-2	1.312338E-3	4.090476E-3	-3.462667E-3	-4.672671E-3	4.320524E-3	3.740683E-3	4.982633E-3	-4.925965E-3	-2.419725E-3	2.009306E-3	5.953622E-3	4.158411E-3	-4.952542E-3	4.335774E-3	5.213705E-3	-8.671946E-3	2.203137E-3	-1.829230E-3	6.474487E-3	8.870679E-4	-2.561529E-3	7.284385E-3	8.954617E-3	-1.332835E-3	-5.350445E-3	6.936096E-3	-6.630017E-3	-1.073345E-2	9.722991E-3	5.697185E-3	-8.090370E-4	-8.491141E-3	1.504613E-3	6.518245E-3	-4.193996E-3	-1.059899E-3	1.051464E-2	1.008968E-3	1.394203E-2	1.330627E-2	2.121530E-3	1.011137E-2	1.103682E-2	-9.995363E-3	1.049659E-3	-1.086215E-2	3.282218E-3	3.166149E-3	2.565933E-3	6.158921E-4	3.113836E-3	-1.692338E-3	7.577610E-3	2.474892E-3	6.614818E-3	-6.437355E-3	-1.707369E-3	9.808095E-4	8.146597E-3	-1.047990E-2	2.539140E-3	7.846080E-3	6.204335E-3	2.062371E-3	1.339590E-2	8.498713E-3	4.373141E-3	3.547634E-3	-9.336306E-3	7.601615E-3	1.239317E-2	8.672857E-3	-2.737477E-3	1.846734E-3	-4.818247E-3	9.277818E-3	7.031775E-3	-1.480968E-3	7.344747E-3	3.193213E-4	-2.601237E-3	-7.743976E-3	-1.026818E-2
2.825040E+2	9.473076E-3	6.990425E-3	2.114490E-2	3.113585E-3	1.109108E-2	3.639986E-3	-4.517152E-3	1.625597E-3	9.692164E-3	-1.656545E-4	1.884942E-3	1.662351E-3	8.623119E-3	4.504959E-3	1.795666E-2	8.352394E-3	5.571311E-3	6.438398E-3	1.381353E-2	1.027459E-2	1.577354E-3	1.439480E-2	2.772278E-3	2.688954E-3	5.482919E-3	1.066548E-2	5.908514E-3	1.634708E-2	1.770015E-2	2.650167E-3	1.375623E-2	4.064487E-4	7.064603E-3	3.516726E-4	8.337778E-3	4.784356E-3	1.268282E-2	8.319481E-3	-3.652387E-3	2.855877E-3	1.145914E-2	1.190763E-2	1.550116E-2	4.119515E-3	4.184849E-3	1.568191E-3	9.494656E-3	3.166646E-3	2.665433E-3	1.939284E-2	2.229713E-2	6.779910E-3	1.113305E-2	4.040729E-3	4.415174E-3	7.115663E-3	6.726808E-3	2.353117E-2	5.069732E-3	3.206369E-3	5.269950E-3	-6.865725E-3	6.114975E-3	-1.718004E-3	-4.246979E-3	4.843251E-3	5.791521E-3	1.368842E-2	2.571135E-3	1.774441E-2	1.251727E-2	4.562594E-3	6.833625E-3	-5.383374E-3	2.495723E-3	6.806090E-4	6.558854E-3	6.911778E-3	-9.119237E-4	6.872342E-3	1.134573E-2	4.281432E-3	1.993039E-3	1.979403E-2	6.423555E-5	6.992810E-3	1.784591E-2	6.245984E-3	-3.583527E-3	1.864183E-2	4.036057E-4	1.207621E-3	8.150919E-3	1.459272E-2	8.720310E-3	2.921740E-3	9.243389E-3	8.562071E-4	2.959171E-3	1.428487E-2	2.751611E-3	2.339525E-3	1.610571E-2	-2.335387E-3	-9.387353E-4	3.447324E-4	1.383268E-2	9.452145E-3	1.144401E-2	1.129066E-2	8.351385E-3	6.410248E-3	7.103055E-3	-1.284547E-3	-1.397487E-3	4.901124E-3	5.901151E-3	9.641550E-3	-1.864369E-3	8.712606E-3	6.187230E-3	6.564968E-3	7.586562E-3	2.341585E-3	-1.792636E-5	7.543949E-3	1.813914E-3	1.888143E-2	1.826296E-3	1.073400E-2	1.068479E-3	4.078502E-3	1.016168E-2	1.013201E-2	-7.157713E-4	5.121464E-3	5.864772E-3	3.680783E-6	5.489880E-3	2.021210E-3	4.418577E-3	6.593506E-3	7.166854E-3	1.506234E-2	8.490194E-3	-1.369473E-2	9.120047E-3	8.701229E-3	1.609042E-2	7.977757E-3	1.490730E-2	7.120818E-3	1.167547E-2	-3.170122E-4	2.550846E-3	6.737072E-3	6.702288E-3	3.385695E-3	1.285049E-2	1.529202E-2	5.106485E-3	2.648806E-3	1.029698E-2	8.361676E-3	3.151532E-3
2.830060E+2	1.216995E-2	-1.243421E-3	1.934715E-2	2.388927E-3	5.001373E-3	9.573416E-3	3.938439E-3	1.085554E-2	9.994666E-3	1.328998E-2	1.924262E-2	1.483192E-2	1.476898E-2	8.948931E-3	3.037215E-3	1.011157E-2	1.838825E-2	1.849952E-2	8.316476E-3	1.287955E-2	1.246181E-2	5.065841E-3	1.748304E-3	2.734956E-2	1.044499E-2	9.711597E-3	2.185160E-2	1.846587E-2	1.052738E-2	6.286446E-3	-3.505750E-4	7.445868E-3	1.035843E-2	1.276185E-2	1.504419E-2	1.809100E-2	1.454489E-2	1.287397E-2	2.890282E-3	1.105327E-2	1.025093E-2	1.153746E-2	4.736148E-3	1.822960E-3	1.110407E-2	2.608998E-2	1.125830E-2	9.652858E-3	7.769532E-3	2.231152E-2	6.670980E-3	1.433788E-2	1.557278E-2	1.144011E-2	1.275506E-2	4.372301E-3	1.874352E-2	1.070494E-2	2.071527E-2	1.538898E-3	1.764277E-2	1.194783E-2	9.313529E-3	1.317421E-2	1.838158E-2	5.136395E-3	1.434792E-2	7.131183E-3	8.165537E-3	1.621101E-2	1.299345E-2	1.798520E-2	8.037057E-3	2.083576E-2	5.827528E-3	1.220450E-2	1.200519E-2	5.008049E-3	6.503865E-3	7.152021E-3	1.337174E-2	3.794984E-3	1.331332E-2	1.740358E-2	2.147987E-2	1.572352E-2	1.092350E-2	1.247562E-2	1.072697E-2	1.690738E-2	2.151077E-2	1.597243E-2	2.481363E-3	8.778039E-3	6.878459E-3	1.180370E-2	2.193825E-2	9.104949E-3	8.564852E-3	2.508973E-3	1.887877E-2	1.000720E-2	9.146154E-3	7.527578E-3	3.386687E-3	1.247699E-2	2.564861E-2	9.715944E-3	1.031108E-2	1.084105E-2	1.434691E-2	6.748213E-3	6.427383E-3	1.594568E-2	6.877380E-3	1.003711E-2	2.165782E-2	2.022519E-2	8.133685E-3	2.693425E-3	1.676457E-2	3.094112E-3	1.107580E-2	5.102792E-3	1.525531E-2	1.689702E-2	2.741035E-3	8.855417E-3	1.695256E-2	1.264797E-2	1.640671E-2	2.059705E-2	6.263222E-3	1.800098E-2	1.821067E-2	1.287658E-2	6.124577E-3	1.910755E-2	4.322613E-3	1.830925E-2	3.904233E-3	7.672670E-3	1.348411E-2	4.203010E-3	7.258336E-3	2.170028E-2	8.232536E-3	4.395367E-3	9.356443E-3	1.209236E-2	1.212121E-2	1.712084E-2	5.838214E-3	4.488639E-3	7.175785E-3	1.103872E-2	6.209865E-3	1.352451E-2	9.042579E-3	1.581080E-2	1.613329E-2	8.345562E-3	1.458380E-2	2.325405E-2	2.466152E-2
2.835020E+2	1.838916E-2	3.681582E-2	1.671801E-2	1.764531E-2	7.697492E-3	8.588954E-3	7.803400E-3	3.735823E-3	8.685604E-3	1.382848E-2	1.736319E-2	1.538106E-2	2.495546E-2	2.145017E-2	1.457473E-2	1.697461E-2	2.941372E-2	9.352821E-3	1.096915E-2	1.719721E-2	2.753364E-2	1.739220E-2	2.899095E-2	1.343540E-2	1.657932E-2	2.200757E-2	1.703350E-2	4.627734E-3	1.884913E-2	1.012622E-2	1.022470E-2	1.279518E-2	1.774577E-2	1.096640E-2	4.193734E-3	2.956034E-2	1.355539E-2	1.694615E-2	8.304142E-3	1.970689E-2	1.785871E-2	1.739470E-2	1.263912E-2	5.392828E-3	1.761320E-2	1.015040E-2	6.642526E-3	2.363852E-2	1.228346E-2	9.424139E-3	1.464995E-2	2.308060E-2	2.262215E-2	2.132273E-2	8.500310E-3	1.811699E-2	1.642665E-2	2.240184E-2	1.687842E-2	1.992039E-2	9.093848E-3	1.756413E-2	1.194309E-2	2.195324E-2	1.417758E-2	1.883144E-2	2.411728E-2	2.048059E-2	2.879707E-2	1.175967E-2	2.805088E-2	1.468718E-2	1.262594E-2	1.848485E-4	1.321009E-2	3.892047E-5	2.305052E-2	2.150282E-2	2.086142E-2	2.015942E-2	1.634013E-2	1.544199E-2	3.433385E-2	2.465070E-2	1.258487E-2	2.559525E-2	7.254609E-3	3.041874E-2	1.920267E-2	1.910755E-2	1.114874E-2	4.937732E-3	1.577431E-2	1.726915E-2	2.979624E-2	2.998471E-2	1.329503E-2	7.803933E-3	9.743840E-3	1.682942E-2	7.871961E-3	1.274754E-2	1.931919E-2	1.619384E-2	9.662426E-3	1.637809E-2	1.338288E-2	5.637394E-3	9.954079E-3	2.390186E-2	2.425904E-2	2.194894E-2	1.733266E-2	2.478756E-2	2.466617E-2	2.384373E-2	9.558783E-3	1.270687E-2	1.646240E-2	2.058941E-2	2.380771E-2	1.749961E-2	1.884757E-2	2.784136E-2	5.110987E-3	1.984871E-2	2.134331E-2	9.303647E-3	1.757571E-2	2.339541E-2	7.459354E-3	1.500701E-2	2.573383E-2	1.600526E-2	1.967522E-2	2.359680E-2	1.536949E-2	1.307099E-2	1.169383E-2	1.687246E-2	1.827562E-2	1.849120E-2	1.556785E-2	2.263861E-2	2.186426E-2	1.799391E-2	6.533387E-3	2.214147E-2	2.434627E-2	2.255274E-2	2.203662E-2	3.540001E-3	1.650210E-2	1.663978E-2	1.782422E-2	2.453245E-2	2.415695E-2	2.261132E-2	8.662327E-3	1.563858E-2	1.124763E-2	1.434517E-2	8.455275E-3	2.482791E-2	1.917090E-2
2.840030E+2	5.502140E-2	3.345403E-2	5.749674E-2	5.005103E-2	5.253496E-2	5.356517E-2	4.851589E-2	4.202392E-2	6.431205E-2	4.226241E-2	4.661394E-2	4.751887E-2	5.699357E-2	5.061595E-2	5.787153E-2	6.418737E-2	3.939934E-2	4.283202E-2	4.801644E-2	4.936928E-2	6.208583E-2	7.141324E-2	5.087183E-2	5.245859E-2	4.707791E-2	3.798524E-2	6.185930E-2	5.961999E-2	5.184790E-2	5.310604E-2	5.028809E-2	4.839644E-2	4.535631E-2	4.680846E-2	4.791099E-2	3.996061E-2	5.221745E-2	6.636227E-2	6.309148E-2	6.038099E-2	5.788652E-2	4.185632E-2	5.777262E-2	5.256184E-2	4.476085E-2	5.557997E-2	5.645640E-2	5.234943E-2	5.015704E-2	6.147249E-2	5.262504E-2	5.441969E-2	5.521437E-2	4.664338E-2	4.760128E-2	4.408085E-2	6.162915E-2	5.709993E-2	6.357774E-2	4.589929E-2	4.426472E-2	4.249035E-2	5.178259E-2	4.768316E-2	6.502759E-2	6.066615E-2	4.940343E-2	5.431386E-2	4.012142E-2	4.557518E-2	6.850254E-2	4.276324E-2	5.871053E-2	5.367444E-2	3.938936E-2	5.077516E-2	5.652602E-2	4.990450E-2	4.954685E-2	5.743283E-2	5.117368E-2	3.604299E-2	5.648157E-2	6.763915E-2	5.153988E-2	4.045181E-2	4.330202E-2	4.456357E-2	5.314648E-2	5.404958E-2	4.949262E-2	6.131133E-2	3.606577E-2	4.933167E-2	5.699360E-2	4.837425E-2	3.544759E-2	4.731625E-2	5.969846E-2	4.825230E-2	6.461644E-2	5.452775E-2	5.289899E-2	4.761898E-2	5.859158E-2	4.852257E-2	4.956339E-2	6.900993E-2	5.479104E-2	5.067114E-2	5.981963E-2	3.948173E-2	5.932925E-2	6.156495E-2	5.661505E-2	5.904781E-2	4.246600E-2	4.688586E-2	5.400387E-2	5.095538E-2	4.453519E-2	6.474561E-2	3.876226E-2	5.912254E-2	5.525761E-2	6.212736E-2	3.599410E-2	4.962686E-2	4.483309E-2	4.121563E-2	4.941184E-2	3.989379E-2	6.126766E-2	4.907864E-2	4.950975E-2	6.641007E-2	6.003335E-2	3.655014E-2	5.211398E-2	3.627988E-2	5.023118E-2	5.575740E-2	4.981733E-2	4.541210E-2	4.454365E-2	5.235034E-2	3.324851E-2	5.881834E-2	6.597092E-2	5.629632E-2	3.547781E-2	4.537847E-2	6.445178E-2	5.204227E-2	5.322865E-2	4.628254E-2	5.944158E-2	4.491863E-2	3.700902E-2	4.505902E-2	3.911219E-2	4.869585E-2	6.235622E-2	4.663151E-2	5.832768E-2
2.841030E+2	5.017466E-2	7.719243E-2	5.282343E-2	6.486733E-2	5.379122E-2	6.881689E-2	7.752690E-2	6.994765E-2	4.591552E-2	7.956918E-2	7.013333E-2	5.698202E-2	6.283705E-2	6.412594E-2	5.827403E-2	5.544839E-2	6.128521E-2	8.464345E-2	6.631427E-2	5.678274E-2	6.773863E-2	7.185738E-2	5.262460E-2	6.407570E-2	6.260862E-2	4.587642E-2	6.729704E-2	5.089998E-2	8.135877E-2	8.098577E-2	6.897035E-2	5.520215E-2	5.535487E-2	7.475948E-2	5.995491E-2	5.747811E-2	7.169451E-2	6.603613E-2	6.049272E-2	7.189542E-2	7.127345E-2	6.206974E-2	7.069816E-2	5.985588E-2	5.368044E-2	5.520005E-2	5.768570E-2	6.147955E-2	5.917925E-2	5.035402E-2	4.824350E-2	6.329058E-2	6.803550E-2	5.876054E-2	6.059620E-2	4.843545E-2	6.102869E-2	6.822485E-2	7.473188E-2	7.067079E-2	6.497018E-2	5.878024E-2	7.103420E-2	6.046971E-2	6.154176E-2	6.854452E-2	5.431929E-2	7.359781E-2	6.120573E-2	5.108363E-2	6.442627E-2	7.380016E-2	6.324512E-2	6.188060E-2	5.811750E-2	8.625423E-2	6.071038E-2	7.081782E-2	6.260449E-2	7.250550E-2	5.820870E-2	6.721225E-2	4.889528E-2	7.272514E-2	5.599266E-2	6.220420E-2	5.461940E-2	7.465146E-2	7.095382E-2	7.236152E-2	4.528962E-2	7.381787E-2	5.448480E-2	6.685749E-2	6.043424E-2	5.262287E-2	7.129050E-2	5.872373E-2	7.054384E-2	6.232035E-2	4.903512E-2	7.358882E-2	5.971109E-2	6.340194E-2	7.663621E-2	5.879987E-2	6.654804E-2	5.131493E-2	5.919298E-2	4.855861E-2	5.799454E-2	7.481389E-2	6.309146E-2	6.280606E-2	6.947606E-2	5.682854E-2	6.059807E-2	5.948596E-2	5.880571E-2	7.777009E-2	6.314184E-2	6.434328E-2	6.674025E-2	5.116645E-2	5.564265E-2	6.410646E-2	6.916723E-2	6.516445E-2	6.397101E-2	6.428993E-2	4.798066E-2	6.735377E-2	6.091986E-2	6.071942E-2	7.742058E-2	6.330850E-2	6.709281E-2	6.288610E-2	6.527044E-2	7.078005E-2	6.426664E-2	7.597942E-2	7.289086E-2	7.630036E-2	7.666423E-2	6.339673E-2	6.809708E-2	6.392773E-2	5.473578E-2	6.689163E-2	9.097645E-2	6.953168E-2	6.658081E-2	6.454644E-2	7.254374E-2	7.348452E-2	7.055895E-2	7.792442E-2	5.951242E-2	6.957008E-2	7.648388E-2	7.134990E-2	6.272621E-2	5.128548E-2	6.591610E-2
2.842030E+2	6.770118E-2	6.684762E-2	7.001056E-2	6.399871E-2	7.295519E-2	7.160328E-2	6.849000E-2	5.824248E-2	6.433603E-2	8.108648E-2	5.731142E-2	4.818835E-2	6.823810E-2	7.128944E-2	7.324240E-2	6.743525E-2	7.275812E-2	7.348888E-2	6.364148E-2	8.126790E-2	7.228621E-2	7.041670E-2	8.876419E-2	9.574344E-2	5.920762E-2	6.320479E-2	6.874523E-2	6.719984E-2	7.358334E-2	9.579766E-2	8.127321E-2	7.160937E-2	8.180381E-2	5.911134E-2	7.831026E-2	5.848931E-2	7.696180E-2	6.957940E-2	6.631927E-2	8.177023E-2	6.502968E-2	6.098974E-2	1.070871E-1	6.565034E-2	7.228391E-2	7.313208E-2	7.642179E-2	7.276415E-2	7.889574E-2	5.137183E-2	6.805263E-2	7.816768E-2	9.465411E-2	7.934888E-2	7.450931E-2	6.076507E-2	7.180331E-2	7.197079E-2	6.820736E-2	8.614681E-2	7.560648E-2	5.755790E-2	8.749419E-2	8.588328E-2	6.913257E-2	7.040492E-2	7.278611E-2	7.479573E-2	8.717967E-2	5.584235E-2	8.673072E-2	6.662887E-2	7.472692E-2	7.971530E-2	8.010761E-2	5.127065E-2	6.651385E-2	6.567070E-2	6.438829E-2	7.705874E-2	8.046768E-2	8.414671E-2	8.215182E-2	7.312920E-2	8.198970E-2	7.824769E-2	6.822909E-2	6.713665E-2	7.120023E-2	9.098869E-2	7.311548E-2	8.463571E-2	7.071277E-2	8.169742E-2	8.424554E-2	6.674479E-2	7.693043E-2	6.155422E-2	6.186350E-2	6.345224E-2	7.238802E-2	7.883103E-2	7.243608E-2	6.457865E-2	8.067720E-2	6.816880E-2	7.742681E-2	7.064093E-2	8.488234E-2	6.356945E-2	8.084757E-2	7.074972E-2	8.998505E-2	7.004439E-2	6.834746E-2	8.064295E-2	7.428804E-2	7.613643E-2	6.369753E-2	7.910956E-2	6.185053E-2	6.471310E-2	7.646788E-2	7.937252E-2	8.001823E-2	7.963226E-2	9.036774E-2	6.721140E-2	7.788419E-2	7.124813E-2	7.951757E-2	6.584247E-2	5.065409E-2	7.761746E-2	6.052291E-2	6.808665E-2	6.665482E-2	6.718817E-2	7.704276E-2	9.125072E-2	7.117971E-2	6.499960E-2	8.056123E-2	7.164802E-2	7.069030E-2	6.281019E-2	6.180336E-2	6.992459E-2	7.812023E-2	8.324479E-2	7.588428E-2	7.765747E-2	9.294379E-2	7.476700E-2	8.686265E-2	9.687496E-2	8.360343E-2	6.964687E-2	8.398159E-2	7.322774E-2	7.715823E-2	7.767216E-2	5.622442E-2	1.003955E-1	8.012941E-2
2.843040E+2	8.973527E-2	1.004506E-1	6.492856E-2	6.981447E-2	7.389688E-2	6.960129E-2	8.533951E-2	7.093354E-2	5.616372E-2	6.283370E-2	8.007555E-2	8.527528E-2	7.551349E-2	7.983361E-2	7.154705E-2	9.034705E-2	7.713215E-2	8.211781E-2	8.536953E-2	7.656955E-2	7.344070E-2	6.932324E-2	8.794366E-2	7.343848E-2	7.230143E-2	7.034317E-2	6.319178E-2	8.872100E-2	9.157289E-2	7.034179E-2	7.060147E-2	6.681894E-2	8.136426E-2	9.897472E-2	7.066332E-2	5.952303E-2	6.810535E-2	7.436065E-2	7.191990E-2	1.024390E-1	8.851624E-2	6.599165E-2	7.802743E-2	8.062440E-2	6.902757E-2	8.589929E-2	7.851501E-2	8.913078E-2	7.132845E-2	5.715794E-2	7.476509E-2	9.644796E-2	9.106558E-2	9.739828E-2	8.078819E-2	7.318181E-2	7.796514E-2	8.244281E-2	7.325280E-2	6.463954E-2	9.370918E-2	9.203675E-2	8.265705E-2	8.084223E-2	7.593578E-2	7.224047E-2	7.955257E-2	8.574330E-2	7.780648E-2	7.038873E-2	9.807736E-2	7.836748E-2	7.230164E-2	7.127257E-2	7.475918E-2	7.363444E-2	6.423151E-2	6.664351E-2	8.176450E-2	8.484401E-2	6.022631E-2	7.169292E-2	8.646147E-2	9.193506E-2	7.145634E-2	7.337615E-2	7.083492E-2	8.509520E-2	6.960016E-2	7.223493E-2	7.732486E-2	7.709810E-2	7.743146E-2	8.224334E-2	7.517645E-2	6.225631E-2	6.730999E-2	8.341685E-2	8.691743E-2	7.547712E-2	9.299681E-2	8.162823E-2	7.134268E-2	7.513830E-2	7.184029E-2	8.205251E-2	7.372261E-2	6.598616E-2	9.114561E-2	7.614483E-2	7.827733E-2	7.261106E-2	7.982607E-2	8.156830E-2	9.580059E-2	9.506634E-2	7.220638E-2	8.672397E-2	7.834874E-2	8.020073E-2	6.959455E-2	7.724388E-2	9.051052E-2	8.232968E-2	7.802607E-2	8.489691E-2	8.153002E-2	7.397171E-2	8.389786E-2	7.810338E-2	7.515067E-2	1.048069E-1	8.556290E-2	8.758482E-2	7.682804E-2	7.804425E-2	7.530898E-2	8.709025E-2	7.413988E-2	8.263469E-2	8.462287E-2	1.005269E-1	6.732009E-2	7.439432E-2	7.422612E-2	7.002822E-2	7.977892E-2	7.565591E-2	7.748211E-2	7.079811E-2	7.013598E-2	9.796499E-2	8.672701E-2	7.588168E-2	8.114225E-2	7.153983E-2	8.907130E-2	9.772557E-2	7.846480E-2	8.634948E-2	7.174643E-2	6.774796E-2	8.773211E-2	4.805408E-2	8.781530E-2
2.844010E+2	8.059727E-2	1.064649E-1	7.582470E-2	7.787725E-2	8.745700E-2	8.766489E-2	1.107013E-1	8.389579E-2	9.084724E-2	9.795451E-2	8.824294E-2	9.389449E-2	1.022455E-1	1.012673E-1	8.945281E-2	7.392950E-2	8.449128E-2	1.039284E-1	1.042862E-1	7.482598E-2	9.556784E-2	1.029305E-1	8.925430E-2	8.580086E-2	1.031283E-1	7.703834E-2	1.010445E-1	9.528762E-2	9.955314E-2	9.742891E-2	8.519262E-2	8.335275E-2	1.096632E-1	9.760291E-2	7.210335E-2	1.007901E-1	1.025292E-1	8.346974E-2	9.644695E-2	1.132664E-1	1.081392E-1	9.515565E-2	8.424263E-2	9.821715E-2	1.086082E-1	1.071672E-1	1.037027E-1	9.242552E-2	9.192221E-2	8.903779E-2	9.562409E-2	1.050047E-1	7.658894E-2	1.005562E-1	1.067127E-1	8.240477E-2	9.433133E-2	9.939660E-2	9.218214E-2	9.866938E-2	8.266506E-2	1.020444E-1	8.435152E-2	8.525908E-2	9.094246E-2	8.638557E-2	1.103445E-1	8.966508E-2	1.074757E-1	1.295742E-1	8.657021E-2	1.026775E-1	9.381975E-2	9.451135E-2	9.378560E-2	1.045895E-1	1.044169E-1	9.909790E-2	7.842215E-2	1.188891E-1	8.840762E-2	9.147224E-2	9.894829E-2	1.067571E-1	8.094055E-2	9.217875E-2	9.611437E-2	1.283672E-1	9.222526E-2	1.081523E-1	8.891816E-2	8.443326E-2	1.051358E-1	9.281699E-2	9.169478E-2	9.281943E-2	1.073241E-1	8.671443E-2	7.947108E-2	1.119181E-1	9.967043E-2	9.023275E-2	9.031900E-2	9.169381E-2	8.887266E-2	7.997316E-2	7.922430E-2	1.028715E-1	9.009612E-2	9.183174E-2	9.936152E-2	9.427593E-2	9.619135E-2	1.060463E-1	7.634927E-2	1.036643E-1	1.149352E-1	1.148283E-1	1.047224E-1	1.062628E-1	1.105217E-1	9.450644E-2	1.109091E-1	1.001048E-1	9.084978E-2	1.015868E-1	1.049198E-1	1.049066E-1	9.574859E-2	1.062320E-1	9.947766E-2	7.387873E-2	9.155469E-2	9.967076E-2	8.872035E-2	8.320625E-2	1.084537E-1	9.471207E-2	9.032335E-2	9.505271E-2	9.925064E-2	1.042107E-1	8.722801E-2	1.029134E-1	1.083136E-1	9.537942E-2	9.498620E-2	9.687349E-2	1.117056E-1	8.107280E-2	8.449594E-2	8.895244E-2	1.041783E-1	8.231039E-2	1.058507E-1	7.649336E-2	8.291344E-2	1.105485E-1	1.018536E-1	1.101261E-1	1.129181E-1	8.618666E-2	1.107317E-1	1.231207E-1	8.572504E-2
2.845040E+2	1.648797E-1	1.660129E-1	1.942370E-1	1.851449E-1	1.893290E-1	1.884242E-1	1.671629E-1	1.675518E-1	2.053446E-1	1.642347E-1	1.628443E-1	1.649575E-1	1.811084E-1	2.108114E-1	1.767708E-1	1.807746E-1	1.845907E-1	1.922239E-1	1.810225E-1	2.144398E-1	1.866592E-1	1.827060E-1	1.638966E-1	1.834685E-1	1.693860E-1	1.693220E-1	1.803895E-1	1.986213E-1	1.972687E-1	1.581563E-1	1.792331E-1	2.007777E-1	1.772317E-1	2.074619E-1	1.654056E-1	1.582826E-1	1.955599E-1	1.844442E-1	1.796580E-1	1.700453E-1	2.034961E-1	1.785305E-1	1.900355E-1	1.672222E-1	1.993021E-1	1.788997E-1	1.799545E-1	1.726342E-1	2.141251E-1	1.978006E-1	1.844672E-1	1.751882E-1	1.718700E-1	1.898250E-1	1.617552E-1	1.729377E-1	2.209439E-1	1.812207E-1	1.760688E-1	1.945271E-1	1.932738E-1	1.834054E-1	2.064033E-1	1.676909E-1	1.968897E-1	1.791067E-1	1.645820E-1	1.879095E-1	1.750621E-1	1.829779E-1	1.837274E-1	1.677700E-1	2.059384E-1	1.766805E-1	1.803867E-1	1.900666E-1	1.874111E-1	2.010159E-1	1.807660E-1	2.095282E-1	1.948139E-1	1.591374E-1	1.847182E-1	1.836470E-1	1.770416E-1	1.725833E-1	2.033573E-1	1.653305E-1	1.806876E-1	1.854167E-1	1.978405E-1	1.836659E-1	1.789190E-1	1.966627E-1	1.935175E-1	1.859177E-1	1.993356E-1	1.812158E-1	1.806923E-1	1.796193E-1	1.911965E-1	1.694639E-1	1.841049E-1	2.037245E-1	1.848877E-1	1.858831E-1	1.738345E-1	1.762563E-1	1.868441E-1	1.965250E-1	1.871626E-1	1.957904E-1	1.766419E-1	1.906554E-1	2.023239E-1	1.770854E-1	1.851577E-1	1.770434E-1	1.555862E-1	1.738961E-1	1.924119E-1	1.936816E-1	1.701930E-1	1.816301E-1	1.683414E-1	2.057147E-1	1.782524E-1	2.132201E-1	1.957467E-1	1.812420E-1	1.784235E-1	1.606315E-1	1.800780E-1	1.758356E-1	1.824532E-1	1.975331E-1	2.095636E-1	1.867268E-1	2.126824E-1	1.774438E-1	1.767919E-1	1.929178E-1	1.829305E-1	1.794292E-1	1.987952E-1	1.911898E-1	1.721401E-1	2.000622E-1	1.805217E-1	1.705277E-1	2.096083E-1	1.883834E-1	1.833248E-1	1.853556E-1	2.010017E-1	1.910080E-1	1.792431E-1	1.866463E-1	1.921372E-1	1.886680E-1	1.816428E-1	1.862078E-1	1.909856E-1	1.837961E-1	1.669266E-1
2.846040E+2	3.287716E-1	3.366674E-1	3.254938E-1	3.700823E-1	3.328214E-1	3.777168E-1	3.477712E-1	3.472791E-1	3.302600E-1	3.811219E-1	3.561131E-1	3.689433E-1	3.289585E-1	3.419141E-1	3.621182E-1	3.472866E-1	3.750313E-1	3.533916E-1	3.417296E-1	3.281342E-1	4.025431E-1	3.592036E-1	3.396040E-1	3.769470E-1	3.476126E-1	3.537224E-1	3.535476E-1	3.631628E-1	3.472441E-1	3.631397E-1	3.479728E-1	3.287770E-1	3.998054E-1	3.764131E-1	3.811048E-1	3.289008E-1	3.466027E-1	3.262084E-1	3.458552E-1	3.401299E-1	3.605063E-1	3.410168E-1	3.365545E-1	3.520938E-1	3.783552E-1	3.479453E-1	3.586542E-1	3.452952E-1	3.949674E-1	3.981764E-1	3.463541E-1	3.683663E-1	3.810829E-1	3.648390E-1	3.234592E-1	3.347617E-1	3.819798E-1	3.647252E-1	3.746860E-1	3.561229E-1	3.633309E-1	3.253958E-1	3.548223E-1	3.456105E-1	3.769088E-1	3.551767E-1	3.659329E-1	3.559087E-1	3.714076E-1	3.587649E-1	3.314751E-1	3.372171E-1	3.433510E-1	3.805240E-1	3.647443E-1	3.640247E-1	3.443455E-1	3.648943E-1	3.368275E-1	3.487870E-1	3.357946E-1	3.487279E-1	3.551084E-1	3.626151E-1	3.694256E-1	3.582060E-1	3.511266E-1	3.610467E-1	3.529043E-1	3.643164E-1	3.544428E-1	3.408765E-1	3.657954E-1	4.045872E-1	3.257493E-1	3.720654E-1	4.048947E-1	3.803119E-1	3.520043E-1	3.582714E-1	3.722734E-1	3.506173E-1	3.166710E-1	3.694807E-1	4.042774E-1	3.381720E-1	3.358621E-1	3.304988E-1	3.703249E-1	3.631225E-1	3.731407E-1	3.655235E-1	3.359032E-1	3.470503E-1	3.612171E-1	3.504576E-1	3.462308E-1	3.554424E-1	3.447586E-1	3.670598E-1	3.985412E-1	3.481160E-1	3.864567E-1	3.703190E-1	3.838636E-1	3.838648E-1	3.773313E-1	3.458076E-1	3.791050E-1	3.700949E-1	3.284840E-1	3.504690E-1	3.449263E-1	3.395040E-1	3.533729E-1	3.579800E-1	3.525945E-1	3.499506E-1	3.574193E-1	3.892403E-1	4.045187E-1	3.452916E-1	3.777847E-1	3.508252E-1	3.757179E-1	3.298573E-1	3.416079E-1	3.632897E-1	3.570482E-1	3.943573E-1	3.564021E-1	3.753265E-1	3.526011E-1	3.651904E-1	3.626391E-1	4.158934E-1	3.551657E-1	3.569410E-1	3.875852E-1	3.742685E-1	3.709634E-1	3.670406E-1	3.435211E-1	3.558303E-1	3.611809E-1
2.847030E+2	7.188629E-1	8.169273E-1	6.635549E-1	7.330840E-1	7.416904E-1	7.164954E-1	7.577011E-1	7.075664E-1	7.863688E-1	7.114864E-1	7.769346E-1	6.910787E-1	7.183719E-1	7.672340E-1	7.535719E-1	7.183928E-1	7.532410E-1	7.346417E-1	7.265487E-1	6.565257E-1	7.028336E-1	7.137952E-1	7.112944E-1	7.234545E-1	7.344632E-1	7.410729E-1	7.258542E-1	7.420760E-1	6.921871E-1	7.063504E-1	7.433698E-1	6.961174E-1	7.405402E-1	7.141404E-1	7.525478E-1	6.830336E-1	7.389034E-1	7.082119E-1	7.114571E-1	6.961446E-1	7.062773E-1	7.327801E-1	7.527717E-1	7.371646E-1	7.300776E-1	7.162299E-1	7.435651E-1	7.566493E-1	7.367200E-1	7.238187E-1	7.307629E-1	7.742262E-1	7.651937E-1	7.519260E-1	7.202563E-1	7.199737E-1	7.451160E-1	7.307533E-1	7.031873E-1	6.741469E-1	7.043200E-1	7.342373E-1	7.173980E-1	7.268609E-1	7.517467E-1	6.934943E-1	6.917644E-1	7.226719E-1	7.038457E-1	7.333667E-1	7.368628E-1	7.203674E-1	7.510854E-1	6.902771E-1	6.993143E-1	7.520830E-1	7.142610E-1	7.320614E-1	7.390548E-1	7.109388E-1	7.102698E-1	7.112510E-1	7.275734E-1	7.571248E-1	7.585336E-1	7.644620E-1	7.495537E-1	7.435186E-1	7.006342E-1	7.083003E-1	7.192737E-1	7.359987E-1	7.369070E-1	7.252310E-1	7.087806E-1	7.908563E-1	7.034104E-1	7.193041E-1	7.570277E-1	7.093254E-1	7.319968E-1	7.292518E-1	6.878116E-1	7.716579E-1	7.944102E-1	6.649142E-1	7.520794E-1	7.204694E-1	7.248505E-1	7.676741E-1	7.317343E-1	7.507032E-1	6.919057E-1	7.672709E-1	7.452121E-1	7.544789E-1	7.140930E-1	7.694567E-1	7.199005E-1	7.602234E-1	7.313664E-1	7.272017E-1	7.802029E-1	7.451179E-1	7.617267E-1	7.715997E-1	7.116665E-1	7.368716E-1	7.571856E-1	7.561716E-1	7.324798E-1	7.643714E-1	7.732850E-1	7.603670E-1	7.557888E-1	7.608305E-1	7.804134E-1	7.159987E-1	7.362695E-1	7.441815E-1	7.458770E-1	7.484209E-1	7.637950E-1	7.696293E-1	7.649349E-1	7.905272E-1	7.438147E-1	7.519306E-1	7.509208E-1	7.418504E-1	7.241278E-1	7.502009E-1	8.031680E-1	7.460170E-1	7.464853E-1	7.506073E-1	7.967450E-1	7.666982E-1	7.368382E-1	7.213152E-1	7.219574E-1	7.841370E-1	7.639071E-1	7.747941E-1	7.429424E-1
2.848050E+2	1.157059E+0	1.281457E+0	1.256720E+0	1.218488E+0	1.240504E+0	1.279357E+0	1.195334E+0	1.173346E+0	1.249944E+0	1.294762E+0	1.246790E+0	1.286781E+0	1.227434E+0	1.184309E+0	1.240125E+0	1.320517E+0	1.206623E+0	1.262501E+0	1.213123E+0	1.268680E+0	1.289511E+0	1.215644E+0	1.243208E+0	1.165136E+0	1.261629E+0	1.277086E+0	1.239955E+0	1.277296E+0	1.297101E+0	1.161205E+0	1.213346E+0	1.259430E+0	1.208949E+0	1.205280E+0	1.229971E+0	1.178329E+0	1.239820E+0	1.191199E+0	1.237096E+0	1.228846E+0	1.180271E+0	1.245466E+0	1.215383E+0	1.280201E+0	1.250414E+0	1.228299E+0	1.241834E+0	1.252860E+0	1.300721E+0	1.215840E+0	1.209676E+0	1.308464E+0	1.258458E+0	1.234658E+0	1.181665E+0	1.139255E+0	1.243246E+0	1.291534E+0	1.276237E+0	1.188290E+0	1.244971E+0	1.200232E+0	1.205480E+0	1.247262E+0	1.277327E+0	1.245919E+0	1.198617E+0	1.283879E+0	1.267403E+0	1.285644E+0	1.258465E+0	1.294210E+0	1.170648E+0	1.237795E+0	1.252092E+0	1.316492E+0	1.243728E+0	1.216241E+0	1.213593E+0	1.224717E+0	1.183444E+0	1.311314E+0	1.266513E+0	1.224814E+0	1.196142E+0	1.163604E+0	1.202991E+0	1.278675E+0	1.224438E+0	1.245092E+0	1.245267E+0	1.265427E+0	1.197897E+0	1.319996E+0	1.249547E+0	1.266528E+0	1.220042E+0	1.270531E+0	1.254184E+0	1.212659E+0	1.244616E+0	1.187418E+0	1.216456E+0	1.263547E+0	1.321330E+0	1.265608E+0	1.175920E+0	1.239382E+0	1.275574E+0	1.204629E+0	1.199381E+0	1.267523E+0	1.098734E+0	1.269919E+0	1.225225E+0	1.213474E+0	1.218826E+0	1.211578E+0	1.220025E+0	1.214173E+0	1.254736E+0	1.261784E+0	1.261883E+0	1.198091E+0	1.319869E+0	1.229218E+0	1.202168E+0	1.300275E+0	1.295675E+0	1.217868E+0	1.234357E+0	1.227932E+0	1.209201E+0	1.234000E+0	1.270024E+0	1.273734E+0	1.221373E+0	1.228515E+0	1.230633E+0	1.260112E+0	1.212293E+0	1.266776E+0	1.251290E+0	1.313141E+0	1.246099E+0	1.267865E+0	1.238218E+0	1.214747E+0	1.279934E+0	1.176519E+0	1.186093E+0	1.255057E+0	1.220432E+0	1.252136E+0	1.222065E+0	1.225141E+0	1.236482E+0	1.302131E+0	1.276774E+0	1.210754E+0	1.270268E+0	1.172138E+0	1.211250E+0	1.177159E+0	1.291105E+0
2.849040E+2	1.389406E+0	1.485693E+0	1.396368E+0	1.443828E+0	1.398938E+0	1.412380E+0	1.443094E+0	1.410795E+0	1.392610E+0	1.446971E+0	1.411670E+0	1.458776E+0	1.464481E+0	1.388318E+0	1.380105E+0	1.368670E+0	1.415081E+0	1.464763E+0	1.414120E+0	1.352532E+0	1.446235E+0	1.396779E+0	1.359954E+0	1.364542E+0	1.372527E+0	1.425117E+0	1.377569E+0	1.433583E+0	1.479284E+0	1.474858E+0	1.399756E+0	1.384961E+0	1.442878E+0	1.494573E+0	1.424534E+0	1.425715E+0	1.434637E+0	1.407745E+0	1.447354E+0	1.370326E+0	1.419598E+0	1.370586E+0	1.407745E+0	1.323062E+0	1.451636E+0	1.377932E+0	1.457363E+0	1.380999E+0	1.417135E+0	1.380997E+0	1.392154E+0	1.402649E+0	1.405202E+0	1.513133E+0	1.386574E+0	1.349837E+0	1.428561E+0	1.439080E+0	1.445522E+0	1.436089E+0	1.440781E+0	1.393889E+0	1.435219E+0	1.480554E+0	1.467652E+0	1.427157E+0	1.454580E+0	1.404887E+0	1.466165E+0	1.415526E+0	1.445009E+0	1.387088E+0	1.371838E+0	1.467682E+0	1.378917E+0	1.420215E+0	1.399398E+0	1.392967E+0	1.426902E+0	1.428105E+0	1.470423E+0	1.483359E+0	1.350395E+0	1.452109E+0	1.407868E+0	1.430564E+0	1.389721E+0	1.436609E+0	1.438451E+0	1.396242E+0	1.358147E+0	1.386216E+0	1.393933E+0	1.425790E+0	1.418549E+0	1.348580E+0	1.399465E+0	1.454995E+0	1.435424E+0	1.437408E+0	1.467249E+0	1.503479E+0	1.375551E+0	1.417184E+0	1.484458E+0	1.460093E+0	1.353151E+0	1.458803E+0	1.432983E+0	1.493337E+0	1.424578E+0	1.424258E+0	1.449798E+0	1.435385E+0	1.462198E+0	1.416808E+0	1.375002E+0	1.454707E+0	1.327479E+0	1.413055E+0	1.411042E+0	1.453186E+0	1.420988E+0	1.473585E+0	1.389299E+0	1.421384E+0	1.402085E+0	1.436979E+0	1.501625E+0	1.478184E+0	1.424766E+0	1.430634E+0	1.431515E+0	1.423604E+0	1.426352E+0	1.465273E+0	1.458403E+0	1.353375E+0	1.413134E+0	1.420690E+0	1.370799E+0	1.433586E+0	1.394599E+0	1.469096E+0	1.386267E+0	1.465381E+0	1.416697E+0	1.451846E+0	1.424393E+0	1.479569E+0	1.401159E+0	1.414357E+0	1.442402E+0	1.471816E+0	1.432633E+0	1.400116E+0	1.434839E+0	1.303017E+0	1.347849E+0	1.460756E+0	1.434838E+0	1.411079E+0	1.359375E+0	1.446496E+0	1.342423E+0
2.850030E+2	1.363564E+0	1.438597E+0	1.381692E+0	1.365109E+0	1.352527E+0	1.437576E+0	1.395686E+0	1.371541E+0	1.476671E+0	1.429023E+0	1.419004E+0	1.397102E+0	1.351194E+0	1.374673E+0	1.411067E+0	1.371154E+0	1.403164E+0	1.417059E+0	1.394021E+0	1.384238E+0	1.385145E+0	1.347515E+0	1.375638E+0	1.359405E+0	1.441345E+0	1.382509E+0	1.398137E+0	1.356826E+0	1.388325E+0	1.375932E+0	1.355101E+0	1.410342E+0	1.438883E+0	1.404560E+0	1.448636E+0	1.406006E+0	1.419374E+0	1.296277E+0	1.354698E+0	1.360535E+0	1.462024E+0	1.347068E+0	1.366186E+0	1.383476E+0	1.370674E+0	1.393207E+0	1.395492E+0	1.370181E+0	1.376034E+0	1.394516E+0	1.433267E+0	1.434715E+0	1.384297E+0	1.399548E+0	1.352762E+0	1.332807E+0	1.469141E+0	1.345109E+0	1.388763E+0	1.418554E+0	1.407787E+0	1.373134E+0	1.436376E+0	1.375216E+0	1.489677E+0	1.303482E+0	1.436349E+0	1.492097E+0	1.380785E+0	1.380244E+0	1.390092E+0	1.389935E+0	1.424411E+0	1.346622E+0	1.355890E+0	1.408552E+0	1.378715E+0	1.405017E+0	1.462091E+0	1.392272E+0	1.460371E+0	1.405739E+0	1.380707E+0	1.432822E+0	1.437293E+0	1.364685E+0	1.376951E+0	1.376452E+0	1.364291E+0	1.432274E+0	1.408178E+0	1.358243E+0	1.383664E+0	1.377971E+0	1.398137E+0	1.325797E+0	1.351733E+0	1.372824E+0	1.382116E+0	1.392430E+0	1.399220E+0	1.390562E+0	1.374005E+0	1.387648E+0	1.388689E+0	1.350445E+0	1.394557E+0	1.405003E+0	1.392506E+0	1.422110E+0	1.398735E+0	1.320156E+0	1.367194E+0	1.368391E+0	1.384234E+0	1.363631E+0	1.381196E+0	1.328289E+0	1.343658E+0	1.417471E+0	1.456003E+0	1.339279E+0	1.401984E+0	1.422625E+0	1.344490E+0	1.434160E+0	1.419661E+0	1.391254E+0	1.409031E+0	1.385831E+0	1.391707E+0	1.356452E+0	1.354887E+0	1.391842E+0	1.373214E+0	1.359490E+0	1.422552E+0	1.375534E+0	1.395944E+0	1.421926E+0	1.357529E+0	1.437130E+0	1.369489E+0	1.386335E+0	1.369476E+0	1.430272E+0	1.375452E+0	1.404922E+0	1.418614E+0	1.436297E+0	1.363271E+0	1.343484E+0	1.465134E+0	1.428801E+0	1.405078E+0	1.388779E+0	1.402867E+0	1.307487E+0	1.390327E+0	1.442167E+0	1.385151E+0	1.392275E+0	1.367675E+0	1.437631E+0	1.336289E+0
2.851050E+2	1.252308E+0	1.298121E+0	1.187633E+0	1.219352E+0	1.307738E+0	1.220910E+0	1.233892E+0	1.243997E+0	1.307717E+0	1.269007E+0	1.255737E+0	1.208005E+0	1.229770E+0	1.178213E+0	1.219408E+0	1.243351E+0	1.261041E+0	1.228592E+0	1.227996E+0	1.216611E+0	1.255850E+0	1.251715E+0	1.175181E+0	1.313579E+0	1.271123E+0	1.215942E+0	1.278832E+0	1.289259E+0	1.289839E+0	1.212896E+0	1.297060E+0	1.219060E+0	1.249229E+0	1.197686E+0	1.249453E+0	1.293828E+0	1.258449E+0	1.232438E+0	1.180252E+0	1.239012E+0	1.289508E+0	1.255978E+0	1.200484E+0	1.220470E+0	1.283878E+0	1.258606E+0	1.258941E+0	1.173381E+0	1.236547E+0	1.248176E+0	1.179735E+0	1.291591E+0	1.299727E+0	1.279020E+0	1.215243E+0	1.238994E+0	1.270929E+0	1.252261E+0	1.284556E+0	1.253267E+0	1.299158E+0	1.261680E+0	1.244277E+0	1.231211E+0	1.244361E+0	1.187204E+0	1.216155E+0	1.324075E+0	1.218851E+0	1.212138E+0	1.305548E+0	1.271531E+0	1.219794E+0	1.234289E+0	1.222198E+0	1.265711E+0	1.245466E+0	1.252753E+0	1.195454E+0	1.345742E+0	1.267725E+0	1.317152E+0	1.243224E+0	1.238275E+0	1.228305E+0	1.249621E+0	1.254306E+0	1.289844E+0	1.223222E+0	1.223154E+0	1.253536E+0	1.227449E+0	1.286047E+0	1.225690E+0	1.217715E+0	1.218267E+0	1.278814E+0	1.252117E+0	1.283118E+0	1.172834E+0	1.223511E+0	1.253721E+0	1.205140E+0	1.206685E+0	1.233103E+0	1.227544E+0	1.222913E+0	1.256640E+0	1.283005E+0	1.223426E+0	1.243608E+0	1.233293E+0	1.233542E+0	1.222916E+0	1.232375E+0	1.306859E+0	1.289667E+0	1.192938E+0	1.194529E+0	1.204422E+0	1.274021E+0	1.180517E+0	1.252719E+0	1.289915E+0	1.301651E+0	1.223180E+0	1.230343E+0	1.246539E+0	1.300771E+0	1.238030E+0	1.217613E+0	1.303699E+0	1.256045E+0	1.260907E+0	1.230113E+0	1.252819E+0	1.276684E+0	1.230547E+0	1.263978E+0	1.227472E+0	1.259357E+0	1.277376E+0	1.230935E+0	1.273162E+0	1.230992E+0	1.252644E+0	1.213693E+0	1.244544E+0	1.271779E+0	1.224268E+0	1.252582E+0	1.245380E+0	1.301430E+0	1.281379E+0	1.231815E+0	1.240318E+0	1.216608E+0	1.261087E+0	1.271824E+0	1.196225E+0	1.256947E+0	1.292302E+0	1.194243E+0	1.343087E+0	1.278850E+0
2.852020E+2	1.018770E+0	1.021354E+0	1.018798E+0	9.581462E-1	1.028455E+0	1.009868E+0	1.029386E+0	1.008260E+0	1.059344E+0	1.007964E+0	9.621144E-1	1.075840E+0	1.000778E+0	1.045598E+0	1.026759E+0	9.923292E-1	9.922424E-1	1.006674E+0	1.048638E+0	9.931848E-1	9.657393E-1	9.867155E-1	1.029574E+0	9.300507E-1	9.656589E-1	1.043088E+0	9.829937E-1	1.040718E+0	1.026395E+0	1.071967E+0	9.980709E-1	9.942976E-1	9.979890E-1	1.023652E+0	9.524294E-1	9.573880E-1	1.016057E+0	1.030823E+0	9.810197E-1	9.989683E-1	1.018865E+0	1.017694E+0	1.022134E+0	1.009809E+0	1.015048E+0	9.733568E-1	1.012210E+0	9.509803E-1	9.990848E-1	1.033524E+0	1.020076E+0	1.062139E+0	9.883647E-1	9.697307E-1	9.663807E-1	9.437440E-1	1.033064E+0	1.081008E+0	1.004377E+0	1.056888E+0	9.470018E-1	1.033143E+0	1.031572E+0	9.754142E-1	1.076674E+0	1.033773E+0	1.025842E+0	1.024452E+0	9.582562E-1	1.041531E+0	1.001713E+0	9.937800E-1	9.590546E-1	9.964042E-1	1.018776E+0	1.004920E+0	9.800459E-1	1.002610E+0	9.945028E-1	1.021301E+0	1.016432E+0	1.010757E+0	9.996594E-1	1.003203E+0	1.039743E+0	1.019755E+0	1.040575E+0	9.903742E-1	9.856184E-1	1.078536E+0	1.018065E+0	9.869927E-1	1.058505E+0	1.045497E+0	1.048037E+0	9.394754E-1	1.040870E+0	1.019983E+0	1.106840E+0	9.909467E-1	1.079587E+0	1.004164E+0	1.071464E+0	1.068520E+0	1.023954E+0	1.000660E+0	1.015446E+0	1.012554E+0	1.016500E+0	1.055645E+0	9.939488E-1	1.058114E+0	1.025093E+0	1.043982E+0	9.825558E-1	1.039598E+0	1.027227E+0	1.032061E+0	9.769960E-1	9.727717E-1	1.041236E+0	1.073691E+0	1.001422E+0	1.006077E+0	1.044523E+0	1.018149E+0	1.068920E+0	1.011963E+0	1.011736E+0	1.006263E+0	1.023633E+0	9.835296E-1	1.027060E+0	1.035015E+0	1.032741E+0	1.027863E+0	1.060323E+0	9.597038E-1	9.643169E-1	9.779438E-1	1.034183E+0	9.842816E-1	1.002317E+0	1.070449E+0	9.838281E-1	1.089827E+0	1.064313E+0	1.043200E+0	1.017072E+0	9.795964E-1	9.832404E-1	9.729322E-1	9.728580E-1	1.025066E+0	1.020606E+0	1.044637E+0	1.029619E+0	9.996729E-1	9.998159E-1	9.945995E-1	9.618274E-1	1.021312E+0	1.050112E+0	1.081197E+0	9.045474E-1
2.853030E+2	6.602248E-1	6.749506E-1	6.716577E-1	6.530832E-1	7.034790E-1	6.773079E-1	6.921460E-1	6.776111E-1	6.720195E-1	6.973048E-1	6.746445E-1	7.054526E-1	6.500885E-1	6.706349E-1	6.576381E-1	6.983121E-1	6.538437E-1	6.481533E-1	6.308158E-1	6.374220E-1	6.771775E-1	6.715379E-1	6.676750E-1	6.391768E-1	6.851522E-1	6.744970E-1	6.464093E-1	6.688161E-1	6.597741E-1	6.666057E-1	6.828976E-1	6.307876E-1	6.862480E-1	6.705675E-1	6.797586E-1	6.918437E-1	6.867800E-1	6.886257E-1	6.740844E-1	6.792947E-1	6.834931E-1	6.840870E-1	6.673622E-1	6.873163E-1	6.409250E-1	6.980864E-1	7.088057E-1	7.075483E-1	6.985415E-1	7.258164E-1	6.549713E-1	6.967961E-1	6.776402E-1	6.546109E-1	6.700900E-1	6.463765E-1	6.813517E-1	6.760263E-1	6.892817E-1	6.690232E-1	6.869426E-1	6.677179E-1	6.953392E-1	6.882727E-1	7.134697E-1	6.720625E-1	6.743858E-1	6.871996E-1	6.580087E-1	6.871207E-1	6.711684E-1	6.865471E-1	6.510495E-1	6.368263E-1	6.738258E-1	6.657336E-1	6.488201E-1	6.698714E-1	6.732028E-1	6.579984E-1	6.801833E-1	6.563704E-1	6.820532E-1	6.815929E-1	6.906789E-1	6.234139E-1	6.924624E-1	6.577467E-1	6.802105E-1	7.118448E-1	6.553802E-1	6.769766E-1	7.115964E-1	6.742417E-1	6.812572E-1	6.854175E-1	6.838305E-1	6.702975E-1	6.480878E-1	7.070064E-1	6.498266E-1	6.512840E-1	7.147354E-1	6.576401E-1	6.670460E-1	7.073771E-1	6.957888E-1	6.706760E-1	6.906251E-1	7.087015E-1	6.708958E-1	6.834311E-1	6.697197E-1	7.139218E-1	7.019392E-1	6.227225E-1	6.614446E-1	6.855295E-1	7.072369E-1	6.757259E-1	7.104435E-1	6.577328E-1	6.578834E-1	6.453757E-1	6.771503E-1	7.102544E-1	7.068978E-1	6.867206E-1	6.603814E-1	6.754432E-1	6.465985E-1	6.839434E-1	6.921127E-1	7.181946E-1	6.539009E-1	6.868954E-1	7.087429E-1	6.785629E-1	6.736578E-1	7.031912E-1	7.032560E-1	7.071925E-1	7.039943E-1	7.363925E-1	7.124812E-1	6.987454E-1	6.799707E-1	7.464528E-1	7.770675E-1	6.902570E-1	6.847093E-1	6.695990E-1	7.242026E-1	7.144505E-1	6.980790E-1	7.019169E-1	7.348786E-1	6.865218E-1	6.908818E-1	6.984037E-1	7.039727E-1	7.168133E-1	6.726208E-1	6.884489E-1	6.864813E-1
2.854050E+2	4.742193E-1	5.775261E-1	5.158447E-1	5.054566E-1	4.703130E-1	5.132850E-1	5.332446E-1	4.863037E-1	4.891799E-1	5.459547E-1	5.137525E-1	5.417531E-1	4.771013E-1	5.096566E-1	5.252653E-1	5.057395E-1	5.037746E-1	5.098865E-1	4.888828E-1	4.618140E-1	5.423092E-1	5.127353E-1	5.086688E-1	4.850551E-1	5.061129E-1	4.761737E-1	5.116457E-1	5.175868E-1	5.579826E-1	4.944591E-1	4.885692E-1	4.912012E-1	5.234531E-1	5.121332E-1	4.796614E-1	4.864614E-1	5.178055E-1	5.207441E-1	5.409563E-1	5.107353E-1	4.576202E-1	4.950872E-1	4.706765E-1	5.078721E-1	4.753946E-1	5.084632E-1	5.067846E-1	5.300977E-1	5.173602E-1	5.284349E-1	5.123181E-1	5.348366E-1	5.472376E-1	5.192143E-1	5.210365E-1	4.968844E-1	5.265075E-1	5.053782E-1	5.415795E-1	4.670644E-1	4.685520E-1	5.191412E-1	4.844186E-1	5.207058E-1	5.013684E-1	5.276553E-1	5.364471E-1	5.212484E-1	4.748073E-1	5.512492E-1	4.910052E-1	5.251169E-1	5.111215E-1	5.014160E-1	5.115450E-1	5.206446E-1	5.021081E-1	5.300590E-1	4.943358E-1	5.154931E-1	5.631563E-1	5.158907E-1	4.970893E-1	5.240485E-1	5.400318E-1	4.943472E-1	5.363421E-1	5.058110E-1	5.279306E-1	5.522450E-1	5.032829E-1	5.443712E-1	5.051555E-1	5.165980E-1	5.163589E-1	5.068475E-1	4.713889E-1	5.213868E-1	5.175787E-1	4.723798E-1	5.487874E-1	5.560940E-1	5.061724E-1	5.371696E-1	5.112818E-1	4.866237E-1	5.196871E-1	5.106952E-1	5.080783E-1	5.003550E-1	5.249973E-1	5.446184E-1	4.884049E-1	5.148691E-1	5.516903E-1	5.317740E-1	4.872566E-1	4.980465E-1	4.965707E-1	5.332981E-1	5.362612E-1	5.058557E-1	5.523227E-1	5.227785E-1	5.262031E-1	5.451168E-1	5.321519E-1	5.040514E-1	5.140364E-1	5.139474E-1	5.166469E-1	5.568201E-1	4.857459E-1	5.143706E-1	5.417086E-1	5.328627E-1	5.581077E-1	5.422137E-1	4.961235E-1	5.325068E-1	5.091386E-1	5.353973E-1	4.751462E-1	5.446608E-1	5.302817E-1	5.013642E-1	4.942851E-1	5.215351E-1	5.489059E-1	4.909737E-1	5.244385E-1	5.157815E-1	5.422875E-1	5.350540E-1	4.819287E-1	5.165690E-1	5.053487E-1	4.921205E-1	4.912918E-1	5.278586E-1	4.927134E-1	4.885776E-1	5.300594E-1	5.535830E-1	4.901036E-1
2.855050E+2	4.575774E-1	5.221772E-1	4.565817E-1	4.615268E-1	4.615647E-1	4.744936E-1	4.680779E-1	4.549682E-1	4.561314E-1	4.473550E-1	4.928556E-1	5.002279E-1	4.571507E-1	4.545770E-1	5.052971E-1	4.535717E-1	4.383047E-1	4.976832E-1	4.839714E-1	4.808521E-1	5.237648E-1	4.595904E-1	4.846834E-1	4.541325E-1	4.642448E-1	4.618712E-1	4.824766E-1	4.632515E-1	4.811057E-1	4.769456E-1	4.407495E-1	4.468975E-1	4.634196E-1	4.546856E-1	4.633802E-1	4.739444E-1	4.843398E-1	4.695076E-1	4.581705E-1	4.657638E-1	5.026291E-1	4.697471E-1	4.901669E-1	4.570030E-1	4.749251E-1	4.533094E-1	4.792015E-1	4.429031E-1	4.687322E-1	4.597467E-1	4.606983E-1	4.861858E-1	4.792539E-1	4.570706E-1	4.599955E-1	4.725789E-1	4.836309E-1	4.772594E-1	4.812616E-1	4.325756E-1	4.604315E-1	4.811869E-1	4.203167E-1	4.571168E-1	4.750526E-1	4.756535E-1	4.437489E-1	4.856644E-1	4.796808E-1	4.877490E-1	4.836349E-1	4.778232E-1	4.829252E-1	4.711642E-1	4.707031E-1	4.639111E-1	4.618652E-1	4.505374E-1	4.810903E-1	4.594240E-1	4.688237E-1	4.798022E-1	4.435878E-1	4.516999E-1	4.802420E-1	4.374295E-1	4.696050E-1	4.818092E-1	4.401146E-1	4.870817E-1	4.443072E-1	4.159334E-1	4.348143E-1	4.634015E-1	4.764098E-1	4.543613E-1	4.996635E-1	4.657149E-1	4.958530E-1	4.607837E-1	5.094169E-1	4.767862E-1	4.621503E-1	4.975241E-1	4.806894E-1	4.475696E-1	4.299062E-1	4.619265E-1	4.702256E-1	4.522481E-1	5.047396E-1	4.749607E-1	4.799469E-1	4.812801E-1	4.795424E-1	4.747057E-1	4.787392E-1	4.263124E-1	4.349425E-1	4.672113E-1	4.856500E-1	4.662597E-1	4.737073E-1	4.750415E-1	4.555619E-1	4.869095E-1	4.870483E-1	5.060711E-1	5.070898E-1	4.532008E-1	4.956449E-1	4.732108E-1	5.097038E-1	4.603238E-1	4.596557E-1	4.848894E-1	4.943146E-1	5.106960E-1	4.838605E-1	4.619832E-1	4.622547E-1	4.619060E-1	4.606894E-1	4.586025E-1	5.165090E-1	4.956682E-1	4.576259E-1	4.982274E-1	4.935471E-1	4.577530E-1	4.746877E-1	4.616531E-1	4.810120E-1	4.818954E-1	4.678504E-1	4.675266E-1	4.389982E-1	4.931549E-1	4.966357E-1	4.706622E-1	4.886654E-1	4.465611E-1	4.595886E-1	4.796695E-1	4.781450E-1
2.856010E+2	4.124985E-1	4.453699E-1	3.684490E-1	4.357698E-1	4.252007E-1	4.284013E-1	4.026686E-1	4.299307E-1	4.513986E-1	4.033001E-1	3.785997E-1	4.410692E-1	4.054491E-1	4.243546E-1	4.268305E-1	3.790091E-1	3.935399E-1	4.031446E-1	4.024146E-1	4.134712E-1	3.921818E-1	4.211839E-1	4.240687E-1	3.849717E-1	3.995861E-1	3.801349E-1	4.067361E-1	3.913255E-1	4.205825E-1	4.302090E-1	4.235643E-1	4.008328E-1	4.147303E-1	4.524538E-1	3.848567E-1	4.240255E-1	4.263979E-1	3.946027E-1	4.065257E-1	4.075280E-1	3.839995E-1	4.217363E-1	4.369002E-1	4.234184E-1	4.273525E-1	3.950024E-1	4.001170E-1	3.738282E-1	3.936624E-1	4.427757E-1	4.132276E-1	4.309118E-1	3.949639E-1	3.956292E-1	3.796878E-1	4.364917E-1	4.238260E-1	4.114133E-1	4.201518E-1	3.786863E-1	4.329461E-1	3.720222E-1	4.299895E-1	3.895253E-1	4.132722E-1	4.662101E-1	3.886479E-1	4.068046E-1	4.064481E-1	4.138734E-1	3.960749E-1	4.367699E-1	4.078014E-1	3.953445E-1	3.811207E-1	4.215517E-1	3.771590E-1	4.039580E-1	4.457424E-1	4.359307E-1	4.143495E-1	4.448016E-1	4.260744E-1	4.533976E-1	4.234480E-1	3.832858E-1	4.565650E-1	3.738766E-1	4.155091E-1	4.186679E-1	4.292120E-1	4.251718E-1	4.007250E-1	4.044798E-1	4.342273E-1	3.929756E-1	4.107563E-1	4.067495E-1	3.849584E-1	4.049287E-1	4.255549E-1	3.821775E-1	4.020422E-1	4.278628E-1	4.101930E-1	3.980211E-1	4.173442E-1	4.333962E-1	4.135356E-1	3.980578E-1	4.215795E-1	4.860580E-1	4.521589E-1	4.143407E-1	4.255867E-1	3.978913E-1	4.279764E-1	4.285025E-1	3.891814E-1	4.113836E-1	3.581940E-1	4.134487E-1	4.192836E-1	4.056591E-1	4.438683E-1	4.370342E-1	3.772226E-1	4.230977E-1	4.221117E-1	4.292423E-1	3.856276E-1	4.576883E-1	4.179954E-1	4.374774E-1	4.084900E-1	4.108352E-1	4.120785E-1	4.027761E-1	4.287581E-1	4.102644E-1	4.404965E-1	4.377789E-1	4.231711E-1	4.161501E-1	3.909014E-1	4.375800E-1	4.261670E-1	4.061994E-1	4.048775E-1	4.468784E-1	4.129171E-1	4.549980E-1	4.239678E-1	3.963935E-1	4.360950E-1	3.856430E-1	4.090969E-1	4.133734E-1	4.230518E-1	4.277631E-1	3.934470E-1	4.089876E-1	3.789579E-1	4.169093E-1	4.165497E-1
2.858030E+2	5.338432E-1	5.378045E-1	5.004525E-1	5.021559E-1	4.979589E-1	5.481285E-1	5.360569E-1	5.329068E-1	5.471660E-1	5.280340E-1	5.085452E-1	5.680579E-1	5.266328E-1	5.226145E-1	5.024239E-1	5.611263E-1	4.972762E-1	5.015453E-1	5.106323E-1	5.437112E-1	5.185221E-1	5.330441E-1	5.190276E-1	5.460529E-1	5.462718E-1	5.027490E-1	5.778972E-1	5.406081E-1	5.401097E-1	5.030948E-1	5.222589E-1	5.151880E-1	5.209861E-1	5.286392E-1	5.249669E-1	5.403300E-1	5.654579E-1	5.055818E-1	5.131822E-1	5.290726E-1	5.451928E-1	5.004343E-1	5.544365E-1	4.928714E-1	5.309648E-1	5.290363E-1	5.345865E-1	5.624421E-1	5.291071E-1	4.976187E-1	5.342256E-1	5.164043E-1	5.007199E-1	5.309842E-1	5.172205E-1	5.035722E-1	5.368525E-1	5.304438E-1	5.525315E-1	5.155234E-1	5.209007E-1	5.275962E-1	5.556617E-1	5.466950E-1	5.654469E-1	5.453589E-1	5.107513E-1	5.453748E-1	5.309305E-1	5.450145E-1	5.446668E-1	4.894506E-1	5.448557E-1	5.344684E-1	5.513813E-1	5.344498E-1	5.149858E-1	5.337494E-1	5.416568E-1	5.307312E-1	5.082142E-1	5.399456E-1	5.297675E-1	5.302965E-1	4.983440E-1	5.605484E-1	5.071551E-1	5.593804E-1	5.227643E-1	5.516240E-1	5.422752E-1	5.458548E-1	5.364295E-1	5.501261E-1	4.994762E-1	5.387618E-1	5.232300E-1	5.411402E-1	5.669045E-1	5.522106E-1	5.237415E-1	5.579437E-1	5.374661E-1	5.420052E-1	5.771747E-1	5.455902E-1	4.944190E-1	5.206027E-1	5.255643E-1	5.247730E-1	5.545664E-1	5.261967E-1	5.272262E-1	5.573619E-1	5.084321E-1	5.146785E-1	5.357889E-1	5.368746E-1	5.207060E-1	5.474296E-1	5.772000E-1	5.445690E-1	5.337825E-1	5.345985E-1	5.014317E-1	5.385478E-1	5.482920E-1	5.218107E-1	5.431275E-1	5.334779E-1	5.034189E-1	5.564247E-1	5.395801E-1	5.069110E-1	4.963277E-1	5.499302E-1	5.378970E-1	5.273088E-1	5.556975E-1	5.087463E-1	5.547797E-1	5.452667E-1	5.557547E-1	5.606808E-1	5.421600E-1	5.791311E-1	5.407504E-1	5.685494E-1	5.367455E-1	5.401167E-1	5.452498E-1	5.580124E-1	5.367761E-1	5.468176E-1	5.298462E-1	5.409479E-1	5.232435E-1	5.539167E-1	4.946742E-1	5.828415E-1	5.556143E-1	5.852110E-1	5.393153E-1	5.110596E-1	5.287481E-1
2.860020E+2	8.256383E-1	8.504327E-1	8.377883E-1	8.019905E-1	7.959588E-1	8.451417E-1	7.955813E-1	8.402697E-1	8.048912E-1	8.310262E-1	8.134823E-1	8.214385E-1	8.085764E-1	7.568399E-1	8.242576E-1	8.208707E-1	7.897545E-1	7.931219E-1	8.038915E-1	8.031796E-1	7.967956E-1	8.054554E-1	7.755442E-1	8.174316E-1	7.796047E-1	8.279531E-1	7.998781E-1	8.056615E-1	8.231422E-1	8.314337E-1	8.206335E-1	7.920673E-1	8.161486E-1	8.075308E-1	8.046767E-1	8.082441E-1	8.209505E-1	7.770095E-1	7.833678E-1	8.309586E-1	8.010033E-1	8.074165E-1	8.174253E-1	8.011863E-1	7.920334E-1	8.147698E-1	7.917099E-1	8.148351E-1	8.315392E-1	8.452507E-1	8.146556E-1	8.445234E-1	8.255730E-1	8.037791E-1	7.931947E-1	8.180342E-1	8.180627E-1	7.695037E-1	8.146885E-1	7.986417E-1	8.487073E-1	8.208488E-1	8.012842E-1	8.482106E-1	8.112476E-1	8.201039E-1	7.564079E-1	8.172246E-1	7.923593E-1	8.254417E-1	8.886008E-1	8.377527E-1	8.014391E-1	8.333846E-1	8.431297E-1	7.671776E-1	7.925237E-1	7.974962E-1	8.096971E-1	8.878338E-1	8.396150E-1	7.833535E-1	8.032784E-1	8.388544E-1	8.494672E-1	8.227461E-1	7.992391E-1	8.649074E-1	7.740177E-1	8.209148E-1	8.782891E-1	8.585559E-1	8.202591E-1	7.921272E-1	8.147160E-1	8.203373E-1	7.934620E-1	8.227633E-1	8.148805E-1	8.436235E-1	8.547590E-1	8.332008E-1	8.362610E-1	8.299769E-1	8.277588E-1	8.342885E-1	8.163812E-1	7.815607E-1	8.032438E-1	8.100813E-1	7.656041E-1	8.195730E-1	8.003479E-1	8.457456E-1	7.985214E-1	8.252269E-1	8.948991E-1	8.558615E-1	8.291103E-1	8.438720E-1	8.318117E-1	7.638153E-1	7.976232E-1	8.515965E-1	8.386918E-1	8.355448E-1	8.059207E-1	8.568590E-1	8.413377E-1	8.353926E-1	7.922096E-1	8.609294E-1	8.051457E-1	8.470101E-1	7.778045E-1	8.363685E-1	7.891500E-1	8.370658E-1	8.387767E-1	8.120610E-1	8.098765E-1	8.298099E-1	8.388806E-1	8.568750E-1	7.955299E-1	8.584542E-1	8.192465E-1	7.994538E-1	8.118992E-1	8.659462E-1	7.690491E-1	8.125499E-1	7.978115E-1	8.294516E-1	8.815413E-1	8.109645E-1	8.380695E-1	8.392351E-1	7.889055E-1	8.394336E-1	8.514678E-1	8.454476E-1	7.918076E-1	8.175874E-1	8.323188E-1
2.862020E+2	1.206202E+0	1.212992E+0	1.112397E+0	1.152509E+0	1.171330E+0	1.256452E+0	1.161325E+0	1.167395E+0	1.208555E+0	1.223834E+0	1.187579E+0	1.222546E+0	1.170455E+0	1.186037E+0	1.224752E+0	1.174065E+0	1.188445E+0	1.230763E+0	1.168626E+0	1.171387E+0	1.186616E+0	1.169764E+0	1.169427E+0	1.166379E+0	1.244983E+0	1.201372E+0	1.222998E+0	1.187053E+0	1.218241E+0	1.237075E+0	1.206726E+0	1.236003E+0	1.221961E+0	1.227747E+0	1.146394E+0	1.249101E+0	1.184552E+0	1.178113E+0	1.234866E+0	1.205100E+0	1.152699E+0	1.171515E+0	1.217204E+0	1.177629E+0	1.182486E+0	1.230975E+0	1.196200E+0	1.234853E+0	1.282794E+0	1.201703E+0	1.187573E+0	1.228757E+0	1.216817E+0	1.165381E+0	1.138917E+0	1.172445E+0	1.169637E+0	1.222394E+0	1.163441E+0	1.181135E+0	1.190824E+0	1.170117E+0	1.200197E+0	1.245269E+0	1.211280E+0	1.179958E+0	1.214735E+0	1.199935E+0	1.181111E+0	1.207667E+0	1.182722E+0	1.208135E+0	1.255699E+0	1.219622E+0	1.245753E+0	1.208812E+0	1.198704E+0	1.216665E+0	1.204662E+0	1.285110E+0	1.246088E+0	1.182343E+0	1.215320E+0	1.239281E+0	1.213022E+0	1.162893E+0	1.205749E+0	1.188727E+0	1.168517E+0	1.259949E+0	1.224035E+0	1.231260E+0	1.199680E+0	1.229853E+0	1.179138E+0	1.215852E+0	1.170667E+0	1.160667E+0	1.203976E+0	1.195789E+0	1.271402E+0	1.220379E+0	1.230999E+0	1.192578E+0	1.252113E+0	1.150926E+0	1.197712E+0	1.194375E+0	1.214081E+0	1.204016E+0	1.184748E+0	1.180514E+0	1.198487E+0	1.230208E+0	1.216031E+0	1.235626E+0	1.171326E+0	1.239918E+0	1.193596E+0	1.224204E+0	1.219972E+0	1.210192E+0	1.174601E+0	1.178015E+0	1.224409E+0	1.175047E+0	1.179407E+0	1.260277E+0	1.243265E+0	1.261927E+0	1.165132E+0	1.219748E+0	1.178210E+0	1.239811E+0	1.190405E+0	1.180026E+0	1.255844E+0	1.187931E+0	1.208976E+0	1.182379E+0	1.146209E+0	1.249125E+0	1.253353E+0	1.215420E+0	1.148996E+0	1.333255E+0	1.178855E+0	1.271289E+0	1.275673E+0	1.211439E+0	1.160266E+0	1.269228E+0	1.202138E+0	1.271679E+0	1.195430E+0	1.190376E+0	1.246720E+0	1.196554E+0	1.228194E+0	1.251222E+0	1.152095E+0	1.286671E+0	1.140850E+0	1.271077E+0	1.299229E+0
2.864190E+2	1.220837E+0	1.317341E+0	1.196309E+0	1.238260E+0	1.236105E+0	1.317887E+0	1.222148E+0	1.210594E+0	1.266808E+0	1.242603E+0	1.245527E+0	1.261534E+0	1.227664E+0	1.196446E+0	1.221176E+0	1.207694E+0	1.214560E+0	1.245547E+0	1.189694E+0	1.254437E+0	1.265267E+0	1.252960E+0	1.185346E+0	1.237140E+0	1.254217E+0	1.244747E+0	1.238235E+0	1.224744E+0	1.229135E+0	1.308044E+0	1.234631E+0	1.194513E+0	1.226317E+0	1.279463E+0	1.189199E+0	1.194396E+0	1.240012E+0	1.174271E+0	1.208898E+0	1.242544E+0	1.253943E+0	1.205906E+0	1.215499E+0	1.238395E+0	1.183953E+0	1.202540E+0	1.237539E+0	1.236748E+0	1.220558E+0	1.277339E+0	1.267815E+0	1.277099E+0	1.273414E+0	1.290411E+0	1.212639E+0	1.212200E+0	1.280334E+0	1.310489E+0	1.222364E+0	1.247386E+0	1.255787E+0	1.223168E+0	1.256059E+0	1.259141E+0	1.237249E+0	1.301444E+0	1.249639E+0	1.254375E+0	1.194932E+0	1.237098E+0	1.254454E+0	1.252475E+0	1.249981E+0	1.222895E+0	1.232143E+0	1.265277E+0	1.193397E+0	1.242820E+0	1.233871E+0	1.232307E+0	1.264672E+0	1.253610E+0	1.200829E+0	1.236040E+0	1.198806E+0	1.232690E+0	1.223211E+0	1.224155E+0	1.206315E+0	1.305804E+0	1.220555E+0	1.242793E+0	1.243571E+0	1.218973E+0	1.218643E+0	1.214139E+0	1.226865E+0	1.269641E+0	1.218678E+0	1.206699E+0	1.240321E+0	1.235254E+0	1.232376E+0	1.233108E+0	1.274425E+0	1.226406E+0	1.245424E+0	1.251658E+0	1.222375E+0	1.277147E+0	1.216120E+0	1.277917E+0	1.199208E+0	1.301542E+0	1.232244E+0	1.228475E+0	1.234348E+0	1.203507E+0	1.195927E+0	1.252829E+0	1.303836E+0	1.259106E+0	1.255170E+0	1.217618E+0	1.210559E+0	1.275538E+0	1.227700E+0	1.281836E+0	1.217089E+0	1.207094E+0	1.180401E+0	1.215257E+0	1.257352E+0	1.244064E+0	1.206909E+0	1.259914E+0	1.297009E+0	1.233411E+0	1.195540E+0	1.197511E+0	1.234133E+0	1.261995E+0	1.224028E+0	1.250982E+0	1.222845E+0	1.254507E+0	1.239515E+0	1.246269E+0	1.223136E+0	1.233119E+0	1.265776E+0	1.200216E+0	1.239193E+0	1.327514E+0	1.193602E+0	1.183277E+0	1.201716E+0	1.290051E+0	1.178984E+0	1.240991E+0	1.224247E+0	1.237460E+0	1.247612E+0	1.308614E+0	1.198070E+0
2.866120E+2	1.172988E+0	1.205782E+0	1.080300E+0	1.150603E+0	1.125859E+0	1.121208E+0	1.120139E+0	1.114048E+0	1.216514E+0	1.240237E+0	1.176211E+0	1.121328E+0	1.090802E+0	1.162500E+0	1.201271E+0	1.145596E+0	1.139735E+0	1.152584E+0	1.174561E+0	1.108402E+0	1.189640E+0	1.148709E+0	1.206912E+0	1.086354E+0	1.153368E+0	1.142736E+0	1.152226E+0	1.131303E+0	1.236047E+0	1.134847E+0	1.158509E+0	1.136081E+0	1.141133E+0	1.189537E+0	1.180769E+0	1.131874E+0	1.136866E+0	1.130289E+0	1.124673E+0	1.149430E+0	1.172180E+0	1.194626E+0	1.180026E+0	1.143248E+0	1.119798E+0	1.174922E+0	1.146047E+0	1.147210E+0	1.192581E+0	1.126542E+0	1.199442E+0	1.162361E+0	1.220537E+0	1.176245E+0	1.112164E+0	1.152431E+0	1.180324E+0	1.145123E+0	1.236211E+0	1.130631E+0	1.180052E+0	1.110752E+0	1.149454E+0	1.215806E+0	1.177698E+0	1.099665E+0	1.136651E+0	1.179286E+0	1.160315E+0	1.191433E+0	1.170584E+0	1.208018E+0	1.122549E+0	1.136593E+0	1.137203E+0	1.170702E+0	1.119705E+0	1.085223E+0	1.166728E+0	1.150780E+0	1.173621E+0	1.177299E+0	1.160437E+0	1.183199E+0	1.157436E+0	1.196222E+0	1.133531E+0	1.165616E+0	1.205328E+0	1.206465E+0	1.125157E+0	1.162366E+0	1.139209E+0	1.158325E+0	1.214496E+0	1.142701E+0	1.196551E+0	1.171029E+0	1.160531E+0	1.144302E+0	1.169981E+0	1.109779E+0	1.153164E+0	1.162003E+0	1.183649E+0	1.196975E+0	1.184408E+0	1.200536E+0	1.148496E+0	1.188790E+0	1.162252E+0	1.186980E+0	1.167189E+0	1.225054E+0	1.165457E+0	1.239242E+0	1.130207E+0	1.132363E+0	1.170790E+0	1.144117E+0	1.142099E+0	1.204291E+0	1.149257E+0	1.177966E+0	1.185479E+0	1.148579E+0	1.112589E+0	1.167252E+0	1.175635E+0	1.187473E+0	1.183637E+0	1.171080E+0	1.170717E+0	1.183676E+0	1.192725E+0	1.167412E+0	1.183610E+0	1.167715E+0	1.163760E+0	1.146668E+0	1.168504E+0	1.222340E+0	1.192875E+0	1.203331E+0	1.137573E+0	1.201921E+0	1.146198E+0	1.152336E+0	1.220631E+0	1.192344E+0	1.130508E+0	1.186378E+0	1.128052E+0	1.223980E+0	1.145136E+0	1.133444E+0	1.083372E+0	1.173481E+0	1.195133E+0	1.161029E+0	1.152329E+0	1.140767E+0	1.163192E+0	1.168060E+0	1.046072E+0
2.868020E+2	1.321488E+0	1.306220E+0	1.268781E+0	1.223247E+0	1.279224E+0	1.318333E+0	1.279349E+0	1.302054E+0	1.328871E+0	1.312720E+0	1.305113E+0	1.299228E+0	1.262621E+0	1.246360E+0	1.299142E+0	1.302468E+0	1.337145E+0	1.286631E+0	1.309021E+0	1.281991E+0	1.325025E+0	1.240885E+0	1.250526E+0	1.311920E+0	1.343453E+0	1.316276E+0	1.309833E+0	1.303170E+0	1.310123E+0	1.298360E+0	1.275309E+0	1.279059E+0	1.301659E+0	1.277455E+0	1.269584E+0	1.303437E+0	1.288849E+0	1.253253E+0	1.339064E+0	1.264238E+0	1.237692E+0	1.235630E+0	1.348974E+0	1.261385E+0	1.304058E+0	1.323650E+0	1.285858E+0	1.291857E+0	1.221086E+0	1.295810E+0	1.318256E+0	1.365320E+0	1.307040E+0	1.336384E+0	1.307970E+0	1.205166E+0	1.391087E+0	1.321977E+0	1.300254E+0	1.286641E+0	1.266847E+0	1.336858E+0	1.280735E+0	1.302115E+0	1.287378E+0	1.273657E+0	1.256402E+0	1.325894E+0	1.247980E+0	1.309872E+0	1.316181E+0	1.261126E+0	1.312898E+0	1.263952E+0	1.231605E+0	1.300526E+0	1.228759E+0	1.306357E+0	1.305014E+0	1.305702E+0	1.289181E+0	1.301428E+0	1.260308E+0	1.336389E+0	1.282567E+0	1.243461E+0	1.285393E+0	1.315729E+0	1.248104E+0	1.334733E+0	1.309809E+0	1.233999E+0	1.273236E+0	1.262676E+0	1.339021E+0	1.309010E+0	1.247903E+0	1.297749E+0	1.335184E+0	1.312678E+0	1.323143E+0	1.350138E+0	1.284655E+0	1.256974E+0	1.347909E+0	1.307957E+0	1.279393E+0	1.273704E+0	1.216070E+0	1.295346E+0	1.257492E+0	1.281071E+0	1.213600E+0	1.322595E+0	1.241387E+0	1.272788E+0	1.335029E+0	1.321573E+0	1.267579E+0	1.301345E+0	1.300141E+0	1.224256E+0	1.318403E+0	1.299976E+0	1.277102E+0	1.316965E+0	1.248273E+0	1.275333E+0	1.276558E+0	1.308438E+0	1.295985E+0	1.292523E+0	1.288172E+0	1.260977E+0	1.336975E+0	1.280203E+0	1.279706E+0	1.235639E+0	1.307166E+0	1.225082E+0	1.272676E+0	1.243555E+0	1.361869E+0	1.336381E+0	1.320398E+0	1.302174E+0	1.285698E+0	1.273692E+0	1.335101E+0	1.304080E+0	1.272649E+0	1.339622E+0	1.299921E+0	1.316696E+0	1.290497E+0	1.287180E+0	1.284886E+0	1.289943E+0	1.234287E+0	1.296561E+0	1.299284E+0	1.328208E+0	1.323663E+0	1.360688E+0	1.282091E+0
2.870090E+2	1.074599E+0	1.110293E+0	1.068231E+0	1.049937E+0	1.104020E+0	1.086238E+0	1.175097E+0	1.085318E+0	1.090734E+0	1.128617E+0	1.060846E+0	1.047540E+0	1.046473E+0	1.098069E+0	1.114843E+0	1.064266E+0	1.085619E+0	1.077609E+0	1.067208E+0	1.074722E+0	1.033455E+0	1.039955E+0	1.074745E+0	1.048339E+0	1.099991E+0	1.051792E+0	1.088073E+0	1.075739E+0	1.144162E+0	1.032629E+0	1.049587E+0	1.007561E+0	1.024926E+0	1.081085E+0	1.086640E+0	1.095373E+0	1.044592E+0	1.069315E+0	1.104289E+0	1.061163E+0	1.071215E+0	1.051766E+0	1.168203E+0	1.082850E+0	1.124444E+0	1.124748E+0	1.110864E+0	1.091809E+0	1.100843E+0	1.082638E+0	1.063351E+0	1.081716E+0	1.117062E+0	1.122667E+0	1.098543E+0	1.045082E+0	1.074803E+0	1.102277E+0	1.094512E+0	1.053483E+0	1.007679E+0	1.064962E+0	1.072038E+0	1.119055E+0	1.063651E+0	1.051288E+0	1.087462E+0	1.121615E+0	1.020863E+0	1.075885E+0	1.053850E+0	1.088402E+0	1.045578E+0	1.018999E+0	1.131662E+0	1.107901E+0	1.052214E+0	1.054598E+0	1.041827E+0	1.055650E+0	1.111687E+0	1.090224E+0	1.099343E+0	1.111374E+0	1.040828E+0	1.100278E+0	1.077596E+0	1.099781E+0	1.069268E+0	1.118674E+0	1.089898E+0	1.085377E+0	1.104946E+0	1.059673E+0	1.043671E+0	1.080967E+0	1.103108E+0	1.039785E+0	1.109556E+0	1.112658E+0	1.094958E+0	1.055881E+0	1.097310E+0	1.061035E+0	1.111454E+0	1.042575E+0	1.041308E+0	1.070726E+0	1.047291E+0	1.076692E+0	1.071412E+0	1.071713E+0	1.054090E+0	1.104636E+0	1.070390E+0	1.136042E+0	1.092432E+0	1.046010E+0	1.047045E+0	1.096143E+0	1.067768E+0	1.077294E+0	1.033243E+0	1.057856E+0	1.063119E+0	1.079549E+0	1.123922E+0	1.100653E+0	1.085300E+0	1.084973E+0	1.108662E+0	1.054843E+0	1.086409E+0	1.082731E+0	1.076396E+0	1.071208E+0	1.086549E+0	1.133244E+0	1.016529E+0	1.088571E+0	1.067437E+0	1.129650E+0	1.088890E+0	1.121497E+0	1.011488E+0	1.089851E+0	1.088555E+0	1.066859E+0	1.094987E+0	1.109005E+0	1.017493E+0	1.098816E+0	1.082084E+0	1.056113E+0	1.152100E+0	1.083675E+0	1.133335E+0	1.096464E+0	1.101224E+0	1.090401E+0	1.107551E+0	1.121635E+0	1.146609E+0	1.162838E+0	1.046826E+0
2.872050E+2	1.036526E+0	1.033563E+0	9.495007E-1	9.846834E-1	9.804909E-1	9.713505E-1	9.835340E-1	9.464277E-1	1.012813E+0	1.032097E+0	9.616886E-1	1.037009E+0	9.532087E-1	1.003824E+0	1.036782E+0	1.036769E+0	1.041927E+0	9.481247E-1	9.983949E-1	1.027573E+0	1.044607E+0	1.023015E+0	9.873381E-1	1.001635E+0	9.457797E-1	9.917338E-1	1.001273E+0	9.704336E-1	1.030214E+0	9.559846E-1	9.530877E-1	9.936289E-1	9.871112E-1	1.015822E+0	9.828806E-1	1.039247E+0	1.057000E+0	9.759056E-1	9.832844E-1	9.835961E-1	9.889560E-1	1.077816E+0	1.014742E+0	9.792557E-1	9.953664E-1	1.006286E+0	9.732259E-1	9.819185E-1	1.018329E+0	1.010224E+0	1.003514E+0	1.039457E+0	1.066177E+0	1.050747E+0	9.810474E-1	9.971168E-1	9.939742E-1	1.011545E+0	1.002586E+0	9.696022E-1	9.527351E-1	9.974498E-1	1.013664E+0	1.003824E+0	1.002174E+0	9.930243E-1	9.752970E-1	1.036073E+0	9.855979E-1	9.986613E-1	9.634049E-1	9.847334E-1	9.962469E-1	9.374072E-1	1.025107E+0	1.042129E+0	9.726306E-1	9.443334E-1	1.046654E+0	9.865741E-1	9.991404E-1	9.651844E-1	1.001702E+0	9.983515E-1	9.699038E-1	9.862966E-1	1.025248E+0	9.764763E-1	9.541185E-1	1.044721E+0	9.946003E-1	9.663156E-1	1.026226E+0	1.005332E+0	9.470198E-1	1.007679E+0	9.922128E-1	9.478443E-1	1.009351E+0	9.612087E-1	9.657135E-1	9.994297E-1	1.013531E+0	1.019559E+0	1.087573E+0	9.554608E-1	1.032893E+0	1.025718E+0	1.024567E+0	1.000299E+0	1.021065E+0	9.988275E-1	9.512406E-1	1.058253E+0	1.009418E+0	9.532019E-1	1.018875E+0	9.905436E-1	9.845529E-1	1.010971E+0	1.037417E+0	1.071947E+0	1.048635E+0	1.063088E+0	1.020318E+0	1.002872E+0	9.441469E-1	1.046061E+0	1.026497E+0	9.660218E-1	9.857688E-1	9.960219E-1	1.053153E+0	1.005744E+0	1.012822E+0	1.002307E+0	9.896556E-1	9.789304E-1	1.010459E+0	9.942372E-1	9.713549E-1	1.011807E+0	9.776261E-1	1.047054E+0	9.787826E-1	1.015119E+0	1.007858E+0	1.035089E+0	1.060046E+0	1.005578E+0	1.025419E+0	1.030118E+0	1.032381E+0	1.032219E+0	1.056344E+0	1.009705E+0	9.182214E-1	9.902760E-1	1.054615E+0	1.025342E+0	9.831333E-1	9.994444E-1	9.685694E-1	1.012648E+0	1.064222E+0
2.874000E+2	9.311409E-1	9.021918E-1	8.276067E-1	8.581102E-1	8.571444E-1	8.562314E-1	8.964534E-1	8.698329E-1	9.100539E-1	8.994273E-1	8.707637E-1	8.903359E-1	8.651474E-1	8.796779E-1	9.050041E-1	9.404793E-1	8.869856E-1	8.422489E-1	8.653086E-1	9.022509E-1	8.591537E-1	9.136676E-1	9.019414E-1	9.016134E-1	8.724216E-1	8.341382E-1	8.471230E-1	9.030180E-1	8.643602E-1	9.028151E-1	9.114355E-1	8.750949E-1	9.193112E-1	8.937737E-1	8.937310E-1	9.505172E-1	8.901927E-1	8.224390E-1	8.984837E-1	8.953921E-1	9.007286E-1	8.662332E-1	9.413266E-1	9.067407E-1	8.699475E-1	8.762659E-1	8.970309E-1	9.289860E-1	8.871236E-1	8.634130E-1	9.211199E-1	9.692953E-1	8.821038E-1	9.444765E-1	8.818759E-1	8.330159E-1	8.727310E-1	9.385302E-1	8.742928E-1	8.700609E-1	9.015517E-1	8.489343E-1	9.563012E-1	9.090292E-1	8.993102E-1	8.789401E-1	8.400001E-1	8.686477E-1	9.079764E-1	8.444892E-1	9.255073E-1	8.238859E-1	8.795563E-1	8.575359E-1	9.018009E-1	9.179608E-1	9.099823E-1	8.642299E-1	9.306127E-1	8.744202E-1	8.766959E-1	9.251385E-1	8.147897E-1	8.686829E-1	8.728466E-1	8.979383E-1	8.369757E-1	9.084118E-1	8.684784E-1	8.965478E-1	8.914039E-1	8.698783E-1	8.448696E-1	9.227863E-1	9.132651E-1	8.842420E-1	9.117134E-1	8.705740E-1	8.971186E-1	8.516800E-1	8.853677E-1	8.331167E-1	8.818546E-1	8.948036E-1	9.074498E-1	8.121449E-1	8.233303E-1	8.759506E-1	8.642437E-1	8.984150E-1	9.358759E-1	9.087737E-1	8.718883E-1	8.831188E-1	8.617169E-1	9.244315E-1	9.134647E-1	9.012967E-1	8.977358E-1	8.869337E-1	8.915903E-1	8.968123E-1	9.117315E-1	8.643839E-1	9.097098E-1	8.707356E-1	8.606292E-1	8.807914E-1	8.870557E-1	8.362710E-1	8.594942E-1	9.275165E-1	8.906368E-1	9.069904E-1	8.780622E-1	9.261988E-1	9.193432E-1	8.849267E-1	8.778690E-1	9.337364E-1	9.039225E-1	9.314551E-1	8.890949E-1	9.014580E-1	8.748369E-1	9.324852E-1	8.945934E-1	9.336951E-1	8.905457E-1	8.716708E-1	8.587205E-1	9.260737E-1	8.712562E-1	9.478405E-1	9.172914E-1	8.485891E-1	9.256433E-1	8.646173E-1	9.069697E-1	9.296496E-1	8.998099E-1	8.851107E-1	9.061899E-1	9.783682E-1	8.781369E-1
2.876030E+2	7.470686E-1	8.016084E-1	7.348683E-1	7.923277E-1	7.266728E-1	7.779300E-1	7.749099E-1	7.248190E-1	7.706165E-1	7.724211E-1	7.977830E-1	7.613299E-1	7.579678E-1	7.676461E-1	7.732342E-1	7.673803E-1	7.543369E-1	7.502546E-1	7.857771E-1	7.547929E-1	7.708240E-1	7.640316E-1	7.851926E-1	7.425439E-1	8.085089E-1	7.751271E-1	7.715716E-1	7.336069E-1	7.844790E-1	7.421518E-1	7.473378E-1	7.510131E-1	7.557383E-1	7.551868E-1	8.073349E-1	7.187891E-1	7.764754E-1	7.316938E-1	7.517655E-1	7.874880E-1	7.876440E-1	7.522978E-1	7.330857E-1	7.547511E-1	7.870321E-1	7.648685E-1	7.822258E-1	8.023076E-1	7.276448E-1	7.945999E-1	7.602514E-1	7.384881E-1	8.210065E-1	7.628833E-1	7.616611E-1	7.797207E-1	7.732425E-1	7.254056E-1	7.425044E-1	7.671184E-1	7.215478E-1	7.557672E-1	7.561065E-1	7.934371E-1	7.952235E-1	7.992129E-1	7.180953E-1	8.294033E-1	7.565352E-1	7.830283E-1	7.723122E-1	8.040875E-1	7.645352E-1	7.283047E-1	7.686259E-1	7.918334E-1	7.867116E-1	7.027816E-1	8.129822E-1	7.974958E-1	8.211125E-1	7.522230E-1	7.486779E-1	7.784450E-1	7.796930E-1	7.356871E-1	7.599477E-1	7.545098E-1	8.211362E-1	7.839512E-1	7.502877E-1	7.964064E-1	7.373901E-1	7.938827E-1	7.423194E-1	7.620381E-1	8.029820E-1	7.546172E-1	7.874904E-1	7.879577E-1	7.790463E-1	7.390780E-1	7.831096E-1	7.400790E-1	8.199192E-1	7.484651E-1	7.607734E-1	7.683736E-1	7.814141E-1	8.029788E-1	7.655516E-1	7.742008E-1	7.513342E-1	8.041279E-1	7.534828E-1	7.625821E-1	8.068794E-1	7.861630E-1	7.432172E-1	7.685644E-1	7.796232E-1	7.809175E-1	7.917530E-1	7.253494E-1	7.930403E-1	7.692800E-1	8.134995E-1	7.598705E-1	7.821475E-1	7.701176E-1	7.783020E-1	8.003871E-1	8.063521E-1	7.885593E-1	7.575024E-1	7.547214E-1	7.675585E-1	7.649219E-1	7.762394E-1	7.467566E-1	7.832162E-1	7.386044E-1	8.242226E-1	7.884001E-1	7.635859E-1	7.406833E-1	7.435952E-1	8.080713E-1	8.336965E-1	8.077158E-1	7.605865E-1	8.005972E-1	8.256863E-1	7.876231E-1	7.505989E-1	7.958235E-1	7.267154E-1	7.703923E-1	7.815665E-1	7.666823E-1	7.269619E-1	7.633660E-1	7.598356E-1	7.635297E-1	8.385554E-1
2.878030E+2	6.550073E-1	6.828149E-1	5.982950E-1	6.225256E-1	6.649276E-1	6.312990E-1	6.378074E-1	6.510960E-1	6.252993E-1	6.849413E-1	6.461292E-1	6.181769E-1	6.378447E-1	6.333303E-1	6.681417E-1	6.702602E-1	6.102478E-1	6.181938E-1	6.312219E-1	6.468379E-1	6.398891E-1	6.093008E-1	6.673978E-1	6.384534E-1	6.558541E-1	6.080755E-1	6.488717E-1	6.316949E-1	6.887540E-1	6.527331E-1	6.909133E-1	5.976908E-1	6.246253E-1	6.053314E-1	6.461174E-1	6.853259E-1	6.177606E-1	6.142937E-1	6.328395E-1	6.266265E-1	6.287251E-1	6.086346E-1	6.755901E-1	6.386443E-1	6.378397E-1	6.511293E-1	6.255590E-1	6.153027E-1	6.432889E-1	6.495270E-1	6.429267E-1	6.360237E-1	6.606084E-1	6.429613E-1	6.456473E-1	5.882734E-1	6.703655E-1	6.475425E-1	6.684781E-1	6.379860E-1	6.116730E-1	6.494048E-1	6.344693E-1	6.389273E-1	6.447739E-1	6.738584E-1	6.524812E-1	6.573638E-1	6.308299E-1	6.571712E-1	6.192244E-1	6.108304E-1	7.005231E-1	6.256970E-1	6.503781E-1	6.580282E-1	5.988298E-1	6.429235E-1	6.595924E-1	6.683557E-1	6.320936E-1	6.919857E-1	6.387810E-1	7.005726E-1	6.823601E-1	6.811345E-1	6.200107E-1	6.069422E-1	6.013072E-1	6.435466E-1	6.264808E-1	6.320071E-1	6.274683E-1	6.617451E-1	6.625942E-1	6.078493E-1	6.238278E-1	6.349464E-1	6.412195E-1	6.496431E-1	6.385461E-1	6.369937E-1	5.838662E-1	6.469206E-1	6.907379E-1	6.246365E-1	6.334984E-1	6.575499E-1	6.338915E-1	6.553997E-1	6.278884E-1	6.467295E-1	6.324074E-1	6.363335E-1	6.395297E-1	6.600071E-1	6.746129E-1	6.330822E-1	6.274129E-1	6.565828E-1	6.648039E-1	6.498336E-1	6.655186E-1	6.459806E-1	6.395039E-1	6.356037E-1	6.401353E-1	6.632226E-1	6.863218E-1	5.905241E-1	6.601978E-1	6.387641E-1	6.610189E-1	6.430314E-1	6.451682E-1	6.476041E-1	6.318345E-1	6.684221E-1	6.264556E-1	5.997519E-1	6.682793E-1	6.624844E-1	6.654003E-1	7.107054E-1	6.803728E-1	6.370452E-1	6.748591E-1	6.497519E-1	6.803311E-1	6.514000E-1	6.346484E-1	6.102577E-1	6.740623E-1	6.087628E-1	6.318422E-1	6.629795E-1	6.356047E-1	6.504697E-1	6.653569E-1	6.762283E-1	6.457825E-1	6.291602E-1	6.909453E-1	6.481604E-1	6.913014E-1
2.880010E+2	7.299860E-1	7.885045E-1	7.062862E-1	6.791412E-1	7.795773E-1	7.784260E-1	7.201332E-1	7.567658E-1	7.489376E-1	7.474011E-1	7.232999E-1	7.532475E-1	7.107744E-1	7.298218E-1	7.623340E-1	7.473704E-1	7.678565E-1	7.039064E-1	7.183674E-1	7.147491E-1	7.618908E-1	7.360539E-1	7.081914E-1	7.393453E-1	7.515477E-1	6.860101E-1	7.493394E-1	7.365545E-1	7.285693E-1	7.414927E-1	6.673530E-1	7.303093E-1	7.162999E-1	7.117112E-1	7.533996E-1	7.571327E-1	7.546663E-1	7.189228E-1	7.274830E-1	7.331174E-1	7.284354E-1	7.358452E-1	7.736926E-1	7.531435E-1	7.305531E-1	7.416600E-1	7.480710E-1	7.134962E-1	6.822166E-1	7.791704E-1	7.885001E-1	7.461155E-1	7.679964E-1	7.168513E-1	7.101601E-1	7.378435E-1	7.711595E-1	7.426772E-1	7.215638E-1	7.158359E-1	7.199680E-1	7.317676E-1	7.713700E-1	7.555340E-1	7.207167E-1	7.099932E-1	7.581928E-1	7.505347E-1	7.477686E-1	7.628215E-1	7.220998E-1	7.189720E-1	7.266010E-1	7.259447E-1	7.618611E-1	7.576808E-1	7.056263E-1	7.009969E-1	7.640038E-1	7.444233E-1	7.460704E-1	7.607694E-1	7.072282E-1	7.946521E-1	7.514680E-1	7.420008E-1	7.183937E-1	7.203159E-1	7.350566E-1	7.332166E-1	7.749254E-1	7.245491E-1	7.563480E-1	7.303387E-1	7.239143E-1	7.145004E-1	7.238151E-1	7.653173E-1	7.350707E-1	7.409088E-1	7.541618E-1	7.221072E-1	7.568162E-1	6.957995E-1	7.363963E-1	7.389773E-1	7.119525E-1	7.526013E-1	7.304451E-1	7.203015E-1	7.500599E-1	7.325358E-1	7.607055E-1	7.629250E-1	6.913894E-1	7.588939E-1	7.577672E-1	7.440082E-1	7.320581E-1	7.729345E-1	7.553770E-1	7.062950E-1	7.644007E-1	7.123581E-1	7.210763E-1	7.901828E-1	7.536937E-1	7.473058E-1	7.649277E-1	7.220306E-1	7.244043E-1	7.193946E-1	8.119789E-1	7.577777E-1	7.399614E-1	7.737852E-1	7.924808E-1	7.400976E-1	7.528138E-1	7.763170E-1	7.181103E-1	7.217407E-1	7.613312E-1	7.417075E-1	7.583351E-1	7.261545E-1	7.202782E-1	7.762151E-1	7.420809E-1	7.177836E-1	7.198680E-1	7.310799E-1	7.714070E-1	7.611909E-1	7.635879E-1	7.450633E-1	7.115847E-1	7.321731E-1	7.388323E-1	7.360413E-1	7.175497E-1	7.500232E-1	7.483508E-1	7.478319E-1	7.280471E-1
2.882210E+2	8.037549E-1	8.363732E-1	7.907139E-1	7.743941E-1	7.924609E-1	7.540838E-1	7.932928E-1	8.010383E-1	8.341236E-1	8.074379E-1	8.006808E-1	8.344337E-1	8.436006E-1	7.784925E-1	7.937754E-1	8.243202E-1	8.069931E-1	8.148382E-1	8.136855E-1	7.814464E-1	8.081560E-1	7.988471E-1	7.904590E-1	8.602577E-1	7.715199E-1	7.924937E-1	7.784383E-1	7.959457E-1	8.112752E-1	8.206370E-1	7.584704E-1	8.125851E-1	8.012297E-1	8.350387E-1	7.371350E-1	8.343994E-1	8.092990E-1	7.824844E-1	8.356911E-1	8.588614E-1	7.803619E-1	8.376531E-1	7.809293E-1	8.067595E-1	7.993447E-1	8.321598E-1	8.134753E-1	8.005585E-1	7.931203E-1	8.091341E-1	8.048088E-1	8.181908E-1	8.354337E-1	8.359561E-1	7.803535E-1	8.028199E-1	8.324221E-1	8.361964E-1	8.371383E-1	7.962824E-1	7.933246E-1	8.388524E-1	8.167207E-1	7.952158E-1	8.460482E-1	7.761552E-1	7.975271E-1	8.812551E-1	7.633322E-1	8.299758E-1	8.209584E-1	7.879635E-1	8.452819E-1	7.797296E-1	8.346225E-1	7.644851E-1	8.187492E-1	8.130630E-1	7.765387E-1	8.462650E-1	8.470375E-1	8.306555E-1	8.208878E-1	8.275639E-1	8.312280E-1	8.484090E-1	8.001401E-1	8.112581E-1	7.687148E-1	8.573594E-1	8.353856E-1	7.936045E-1	7.840920E-1	8.362209E-1	8.387633E-1	7.948404E-1	8.174163E-1	8.274856E-1	8.098592E-1	7.984504E-1	8.036298E-1	8.341586E-1	7.606335E-1	8.607038E-1	8.449133E-1	8.005841E-1	8.036663E-1	8.130981E-1	7.941845E-1	8.024313E-1	8.090332E-1	8.549412E-1	8.036783E-1	8.512273E-1	8.222149E-1	7.914741E-1	7.847612E-1	8.087239E-1	7.744437E-1	8.092912E-1	8.200939E-1	8.493191E-1	8.407145E-1	8.198255E-1	8.094573E-1	8.069397E-1	7.667798E-1	8.022601E-1	8.254104E-1	8.136841E-1	8.061681E-1	8.222606E-1	8.103679E-1	8.399764E-1	8.127052E-1	8.229582E-1	8.369582E-1	8.302925E-1	8.309038E-1	8.220548E-1	8.260341E-1	8.480519E-1	8.173308E-1	8.333101E-1	8.404338E-1	8.295151E-1	8.676704E-1	8.258841E-1	8.362316E-1	8.447388E-1	7.795871E-1	7.859217E-1	8.506038E-1	8.310181E-1	8.338508E-1	8.037151E-1	8.100738E-1	8.133189E-1	8.635570E-1	7.896803E-1	8.752894E-1	7.807321E-1	8.524745E-1	8.781943E-1	8.292945E-1
2.884090E+2	8.904481E-1	9.590384E-1	8.376293E-1	8.828638E-1	8.469903E-1	8.842820E-1	8.606777E-1	9.113252E-1	9.306680E-1	9.129536E-1	8.609904E-1	9.499783E-1	8.906385E-1	8.887749E-1	9.008309E-1	9.112010E-1	8.893684E-1	9.459659E-1	9.214143E-1	9.305475E-1	8.852571E-1	8.711405E-1	8.952521E-1	9.076747E-1	9.211770E-1	9.026193E-1	8.814635E-1	8.950018E-1	8.949842E-1	8.811345E-1	8.342843E-1	9.228817E-1	9.057298E-1	9.201914E-1	8.585756E-1	8.585748E-1	8.911707E-1	8.998953E-1	8.915126E-1	8.938713E-1	9.235402E-1	8.708247E-1	8.727316E-1	8.712261E-1	8.739222E-1	8.998405E-1	9.025669E-1	9.506159E-1	9.027783E-1	8.900786E-1	9.475804E-1	9.408976E-1	9.053953E-1	9.330464E-1	8.599947E-1	8.395453E-1	9.642772E-1	9.307689E-1	8.611503E-1	8.560072E-1	8.489898E-1	8.781628E-1	9.122094E-1	8.949261E-1	8.641828E-1	8.975508E-1	9.151751E-1	9.129915E-1	9.003397E-1	9.164903E-1	9.321858E-1	9.074513E-1	9.136411E-1	8.924893E-1	9.096422E-1	9.193763E-1	9.341219E-1	8.752102E-1	8.987962E-1	9.280902E-1	8.700330E-1	9.127043E-1	8.977082E-1	9.143906E-1	8.842991E-1	8.880394E-1	8.509482E-1	8.839880E-1	9.151053E-1	9.170260E-1	9.163342E-1	8.598191E-1	8.902900E-1	9.261007E-1	8.690632E-1	8.468051E-1	9.169545E-1	8.393773E-1	8.820780E-1	8.596892E-1	9.214327E-1	9.068245E-1	8.700088E-1	9.013874E-1	9.420673E-1	9.373239E-1	8.916964E-1	9.523920E-1	8.600982E-1	9.192698E-1	8.972886E-1	9.263404E-1	8.818865E-1	8.844168E-1	9.229624E-1	8.830440E-1	9.065907E-1	8.945238E-1	9.585290E-1	9.457248E-1	9.153547E-1	9.121829E-1	9.668790E-1	9.361685E-1	9.286786E-1	8.709547E-1	9.029060E-1	9.119895E-1	9.169739E-1	9.283706E-1	9.013650E-1	9.334984E-1	8.960414E-1	8.825129E-1	8.713306E-1	8.968184E-1	9.033402E-1	9.111907E-1	8.865327E-1	9.456212E-1	9.128506E-1	8.673257E-1	9.160362E-1	9.389200E-1	8.940992E-1	9.238452E-1	8.935678E-1	9.269239E-1	9.629839E-1	9.012662E-1	8.429290E-1	9.427902E-1	9.242194E-1	9.018080E-1	8.779414E-1	8.961921E-1	8.912544E-1	8.740625E-1	9.218446E-1	9.389104E-1	9.393660E-1	9.018289E-1	9.007295E-1	9.236184E-1	8.907291E-1
2.886010E+2	1.000864E+0	9.759468E-1	9.268053E-1	9.454099E-1	9.606106E-1	1.020502E+0	9.677913E-1	9.704303E-1	1.011073E+0	9.334660E-1	9.518313E-1	9.146487E-1	9.412172E-1	9.313961E-1	9.475014E-1	9.355779E-1	9.541514E-1	9.509020E-1	9.275476E-1	9.360509E-1	9.882531E-1	9.891591E-1	9.521468E-1	9.997831E-1	9.427625E-1	9.220061E-1	9.467047E-1	9.900825E-1	1.016145E+0	9.712180E-1	9.769939E-1	9.588922E-1	9.659779E-1	9.572060E-1	9.204849E-1	9.131458E-1	9.611632E-1	9.618667E-1	9.085283E-1	9.898780E-1	9.260829E-1	9.664288E-1	9.795833E-1	9.574269E-1	9.718331E-1	9.988899E-1	9.907411E-1	9.991358E-1	9.904405E-1	9.735591E-1	9.870101E-1	9.834836E-1	9.862871E-1	9.850945E-1	9.309291E-1	9.518075E-1	1.024412E+0	9.680449E-1	9.411900E-1	9.807679E-1	9.681302E-1	9.604473E-1	9.820144E-1	9.546740E-1	9.421185E-1	9.660522E-1	9.468133E-1	1.051702E+0	9.565293E-1	1.006582E+0	9.916749E-1	9.705055E-1	9.831795E-1	9.378792E-1	9.752121E-1	1.005972E+0	9.401564E-1	9.517359E-1	9.345244E-1	9.640420E-1	9.962885E-1	9.873785E-1	9.518211E-1	9.739696E-1	9.586434E-1	9.423630E-1	1.013170E+0	1.015257E+0	9.678869E-1	9.473639E-1	9.335703E-1	9.810232E-1	9.576897E-1	9.298919E-1	9.445783E-1	9.814346E-1	9.645797E-1	9.427051E-1	9.481474E-1	9.815099E-1	1.001212E+0	9.927936E-1	9.763991E-1	9.137070E-1	9.900204E-1	9.723193E-1	9.665024E-1	9.666891E-1	9.622853E-1	9.854201E-1	9.404811E-1	9.648608E-1	9.777709E-1	1.020139E+0	9.650914E-1	1.017113E+0	1.016444E+0	9.839804E-1	9.235637E-1	9.468695E-1	9.529855E-1	9.358377E-1	9.530952E-1	1.007606E+0	9.758551E-1	9.803005E-1	9.630273E-1	1.038048E+0	9.342717E-1	1.017665E+0	9.474586E-1	1.039442E+0	1.000895E+0	1.002326E+0	9.930219E-1	1.011718E+0	9.584150E-1	9.173427E-1	9.480017E-1	9.728637E-1	1.024326E+0	9.179041E-1	9.733558E-1	1.004563E+0	9.838515E-1	1.005447E+0	1.006463E+0	1.007099E+0	9.592966E-1	9.971156E-1	9.155552E-1	9.617930E-1	1.022942E+0	9.624408E-1	9.728824E-1	9.801206E-1	9.819576E-1	9.685307E-1	1.049978E+0	9.843605E-1	9.675479E-1	9.559964E-1	9.834994E-1	9.870087E-1	9.628857E-1
2.887980E+2	1.064990E+0	1.071553E+0	1.037152E+0	1.027165E+0	1.052576E+0	1.029428E+0	9.910184E-1	1.018288E+0	1.062893E+0	1.053080E+0	1.047133E+0	1.023204E+0	1.049735E+0	1.066386E+0	1.045938E+0	1.036600E+0	1.076022E+0	1.016979E+0	1.020376E+0	1.043615E+0	1.009471E+0	9.991002E-1	1.021895E+0	1.073111E+0	9.989953E-1	1.019951E+0	1.066567E+0	1.063990E+0	1.054219E+0	1.019976E+0	1.016500E+0	1.062369E+0	1.027154E+0	1.046865E+0	1.013825E+0	1.079823E+0	9.655849E-1	1.014824E+0	1.072318E+0	1.016396E+0	1.053046E+0	1.057060E+0	1.002978E+0	1.000122E+0	1.033264E+0	1.086699E+0	1.040713E+0	1.022246E+0	1.034281E+0	1.039960E+0	1.037200E+0	1.074967E+0	1.116670E+0	1.039266E+0	9.871196E-1	1.014119E+0	1.057073E+0	1.070903E+0	1.044853E+0	1.036363E+0	1.016830E+0	1.031004E+0	1.040977E+0	1.052820E+0	1.019155E+0	1.084912E+0	1.032481E+0	1.076623E+0	1.009524E+0	1.041332E+0	1.033425E+0	1.054415E+0	1.042639E+0	1.067469E+0	1.032780E+0	1.005777E+0	1.023007E+0	9.657651E-1	1.046454E+0	1.087682E+0	1.052190E+0	1.067215E+0	1.051307E+0	1.101567E+0	1.066584E+0	1.083808E+0	1.063596E+0	1.027149E+0	9.946039E-1	1.040676E+0	1.039769E+0	1.057800E+0	1.072863E+0	1.027180E+0	1.023152E+0	1.082948E+0	1.040392E+0	1.047410E+0	1.042775E+0	1.039379E+0	1.070364E+0	1.025544E+0	1.046388E+0	1.081201E+0	1.038866E+0	1.034756E+0	1.062204E+0	1.017105E+0	1.035695E+0	1.014579E+0	1.071753E+0	1.026797E+0	1.022749E+0	1.105002E+0	9.985989E-1	1.039316E+0	1.031513E+0	1.051719E+0	1.020388E+0	1.068196E+0	1.063535E+0	1.086886E+0	1.039022E+0	1.034503E+0	1.055740E+0	1.023965E+0	1.035470E+0	1.048455E+0	1.090097E+0	1.047656E+0	1.043502E+0	1.026560E+0	1.069645E+0	1.046221E+0	1.019669E+0	1.109009E+0	1.074646E+0	1.069599E+0	1.004415E+0	1.056011E+0	1.037942E+0	1.037628E+0	1.032087E+0	1.025637E+0	1.013589E+0	9.977720E-1	1.033037E+0	1.055546E+0	1.124888E+0	1.102746E+0	1.038011E+0	1.045673E+0	1.093325E+0	1.009354E+0	1.003050E+0	1.028859E+0	1.028493E+0	1.008067E+0	1.063569E+0	1.012094E+0	1.025538E+0	1.031828E+0	1.025539E+0	1.095698E+0	1.082030E+0
2.890110E+2	1.037909E+0	1.073011E+0	9.989194E-1	9.949640E-1	1.038137E+0	1.121019E+0	1.091798E+0	1.002881E+0	1.082128E+0	1.080843E+0	1.018374E+0	1.056406E+0	1.029571E+0	1.029794E+0	1.009186E+0	1.035738E+0	1.056042E+0	9.851582E-1	9.743934E-1	1.047174E+0	1.061791E+0	1.024521E+0	9.915249E-1	1.040105E+0	1.104822E+0	1.050437E+0	1.016582E+0	1.056642E+0	1.056504E+0	1.024012E+0	1.007680E+0	1.065974E+0	1.050512E+0	1.021571E+0	1.036942E+0	1.051643E+0	1.033204E+0	1.013777E+0	1.055487E+0	1.023246E+0	1.071834E+0	1.029287E+0	1.040971E+0	1.019571E+0	1.013078E+0	1.067429E+0	1.101200E+0	1.038797E+0	1.009620E+0	1.004135E+0	1.085071E+0	1.081822E+0	1.090275E+0	9.897574E-1	1.031905E+0	1.030386E+0	1.056259E+0	1.077651E+0	1.035740E+0	1.001718E+0	9.942680E-1	1.059339E+0	1.074465E+0	1.044237E+0	1.035779E+0	1.068415E+0	1.037417E+0	1.096153E+0	1.007129E+0	1.089115E+0	1.047409E+0	1.046160E+0	1.013003E+0	1.039792E+0	1.066719E+0	1.069134E+0	1.044610E+0	1.059181E+0	1.037691E+0	1.108605E+0	1.130849E+0	1.037325E+0	1.045461E+0	1.108390E+0	1.122171E+0	9.880023E-1	9.891820E-1	1.077829E+0	1.060791E+0	1.048506E+0	1.023559E+0	1.065700E+0	1.037136E+0	9.748087E-1	1.037589E+0	1.075951E+0	1.037357E+0	1.006230E+0	1.021770E+0	1.013374E+0	1.028940E+0	1.061623E+0	1.058933E+0	1.009347E+0	1.060164E+0	9.754374E-1	9.408517E-1	1.053671E+0	1.050157E+0	1.047125E+0	1.002043E+0	1.024338E+0	1.064154E+0	1.079877E+0	1.034835E+0	1.069077E+0	1.015121E+0	9.869881E-1	1.073432E+0	1.030192E+0	1.089894E+0	1.027539E+0	1.037391E+0	1.072541E+0	1.044591E+0	1.047311E+0	1.042420E+0	1.017348E+0	1.084307E+0	1.037485E+0	1.054752E+0	1.081324E+0	1.025292E+0	1.051800E+0	1.065851E+0	1.052711E+0	1.079616E+0	1.025461E+0	1.078317E+0	1.029108E+0	9.993340E-1	1.019252E+0	1.037326E+0	1.071102E+0	1.022505E+0	1.046298E+0	1.045277E+0	1.021933E+0	1.125121E+0	1.085223E+0	1.057891E+0	1.059886E+0	1.043415E+0	1.080393E+0	1.024406E+0	9.963136E-1	1.073736E+0	1.006754E+0	1.126824E+0	1.108136E+0	1.090377E+0	1.064181E+0	1.102297E+0	1.081584E+0	1.088074E+0
2.892050E+2	9.717881E-1	1.034006E+0	9.907993E-1	9.135711E-1	9.337538E-1	9.930310E-1	1.014759E+0	1.006422E+0	1.010663E+0	9.984788E-1	9.669115E-1	9.443144E-1	9.708509E-1	9.249423E-1	1.000914E+0	9.738840E-1	1.021073E+0	9.479940E-1	9.889322E-1	1.015589E+0	9.856749E-1	9.380585E-1	9.307471E-1	1.007432E+0	1.011441E+0	1.002206E+0	1.021162E+0	1.010075E+0	1.007859E+0	1.015883E+0	9.543054E-1	9.411461E-1	9.346446E-1	9.235148E-1	9.483593E-1	9.524056E-1	1.004293E+0	9.475588E-1	9.644718E-1	9.625646E-1	1.037245E+0	9.944209E-1	9.644614E-1	9.183641E-1	9.435904E-1	9.605939E-1	9.533439E-1	9.564734E-1	9.680684E-1	9.529727E-1	9.395920E-1	1.000067E+0	1.071212E+0	9.737341E-1	9.866729E-1	9.568169E-1	1.028402E+0	1.023258E+0	9.580701E-1	9.745045E-1	9.761654E-1	9.676753E-1	9.615535E-1	1.003215E+0	1.031520E+0	9.971901E-1	9.823240E-1	1.021681E+0	9.862517E-1	9.696877E-1	9.865166E-1	9.542436E-1	1.012546E+0	9.329891E-1	9.748117E-1	1.045129E+0	9.428059E-1	9.242042E-1	9.946694E-1	1.002749E+0	9.978936E-1	9.433389E-1	1.012107E+0	1.002565E+0	9.718007E-1	1.023695E+0	9.742505E-1	9.501023E-1	1.018378E+0	1.011718E+0	9.564236E-1	9.779617E-1	9.807333E-1	9.397119E-1	9.718431E-1	1.000409E+0	9.810594E-1	9.754657E-1	9.751143E-1	9.908645E-1	1.033865E+0	9.845933E-1	9.480660E-1	9.840814E-1	1.028139E+0	9.498259E-1	9.204968E-1	1.030079E+0	9.611733E-1	9.709416E-1	9.446963E-1	9.550045E-1	9.658626E-1	1.005031E+0	9.536291E-1	9.848595E-1	9.790488E-1	9.948204E-1	9.452885E-1	9.793251E-1	1.022525E+0	9.771866E-1	1.011346E+0	1.012144E+0	9.771256E-1	9.802129E-1	9.686139E-1	9.967725E-1	9.718987E-1	9.995698E-1	9.321030E-1	9.805198E-1	1.029726E+0	9.935248E-1	9.670623E-1	1.032015E+0	9.660924E-1	9.504216E-1	9.935168E-1	9.370812E-1	9.584123E-1	9.791655E-1	9.630988E-1	1.038412E+0	9.848700E-1	9.841744E-1	9.973216E-1	9.605185E-1	1.028480E+0	9.873131E-1	9.593672E-1	1.036379E+0	1.024080E+0	9.703450E-1	9.515605E-1	1.003328E+0	9.835421E-1	9.778462E-1	9.922203E-1	1.003750E+0	9.711612E-1	9.500203E-1	1.002426E+0	9.870640E-1	9.268270E-1
2.894040E+2	8.652742E-1	9.076834E-1	8.357243E-1	8.934983E-1	8.426838E-1	9.048290E-1	8.614040E-1	8.801971E-1	8.883902E-1	9.378197E-1	8.612768E-1	8.656086E-1	8.253527E-1	8.639322E-1	8.890647E-1	9.202963E-1	8.689541E-1	8.651444E-1	8.693899E-1	8.645031E-1	8.793552E-1	8.614523E-1	8.847130E-1	8.753342E-1	9.227883E-1	8.709483E-1	9.201136E-1	9.186709E-1	8.647802E-1	8.478683E-1	8.675976E-1	8.946825E-1	8.336954E-1	9.106451E-1	8.526250E-1	8.710583E-1	8.949161E-1	8.905732E-1	8.489642E-1	8.540530E-1	8.770123E-1	8.684770E-1	8.842558E-1	9.527399E-1	8.844822E-1	9.703948E-1	9.287713E-1	8.517275E-1	8.922614E-1	8.765309E-1	9.091983E-1	8.971266E-1	8.741655E-1	9.210558E-1	8.720178E-1	8.494582E-1	8.891760E-1	8.657235E-1	8.491939E-1	9.491619E-1	8.649644E-1	8.620196E-1	8.937219E-1	8.842283E-1	9.177934E-1	8.668539E-1	9.221948E-1	9.325554E-1	9.268673E-1	9.306756E-1	9.202256E-1	9.241913E-1	8.624501E-1	8.714277E-1	8.938986E-1	8.938159E-1	8.597884E-1	8.609058E-1	8.540567E-1	9.050619E-1	8.956517E-1	8.738789E-1	8.728892E-1	9.793882E-1	8.761810E-1	8.679993E-1	8.836279E-1	9.592913E-1	8.535902E-1	9.407173E-1	8.515272E-1	8.971637E-1	8.638656E-1	8.920795E-1	8.683566E-1	9.264188E-1	9.046866E-1	8.593715E-1	8.780025E-1	9.037136E-1	9.007011E-1	8.972491E-1	8.772499E-1	9.089975E-1	8.962820E-1	8.337172E-1	8.760858E-1	9.171916E-1	8.932143E-1	8.725564E-1	8.923289E-1	9.194521E-1	8.751748E-1	8.928113E-1	8.738200E-1	8.560759E-1	9.088989E-1	8.667212E-1	8.702425E-1	9.487893E-1	9.230905E-1	9.074578E-1	9.144990E-1	8.969560E-1	9.364540E-1	8.972688E-1	8.579015E-1	8.820332E-1	8.803281E-1	8.545053E-1	8.405845E-1	8.951390E-1	9.359322E-1	8.849761E-1	9.072574E-1	9.178285E-1	9.093463E-1	8.951795E-1	9.009741E-1	8.568237E-1	8.239487E-1	8.715384E-1	8.912332E-1	8.841912E-1	8.650194E-1	8.900527E-1	9.007337E-1	8.759473E-1	9.190467E-1	8.865985E-1	9.048947E-1	9.028987E-1	8.671520E-1	8.983203E-1	8.763570E-1	9.262422E-1	8.924729E-1	9.168272E-1	9.290373E-1	8.724632E-1	8.540701E-1	9.312652E-1	9.153477E-1	8.880550E-1	8.329153E-1
2.896030E+2	6.893302E-1	7.954631E-1	7.086167E-1	7.242540E-1	7.416199E-1	7.850684E-1	7.683044E-1	7.533480E-1	7.534183E-1	8.085175E-1	7.602459E-1	7.940352E-1	7.450444E-1	7.215624E-1	7.748262E-1	7.598034E-1	8.181791E-1	7.644007E-1	7.811561E-1	7.737808E-1	7.654490E-1	7.981651E-1	7.725812E-1	7.985056E-1	7.519738E-1	7.348750E-1	7.694237E-1	7.737445E-1	7.976243E-1	7.826347E-1	7.472105E-1	7.550461E-1	7.735620E-1	7.590046E-1	7.579149E-1	7.617479E-1	7.614650E-1	7.419579E-1	7.637425E-1	7.414249E-1	7.497395E-1	7.802342E-1	7.407815E-1	7.280112E-1	7.781486E-1	7.375776E-1	7.899452E-1	7.802997E-1	7.830521E-1	7.949797E-1	7.874558E-1	8.097713E-1	7.956672E-1	7.661139E-1	7.144600E-1	7.396670E-1	7.479176E-1	7.691248E-1	7.690628E-1	7.452974E-1	7.742469E-1	7.481795E-1	7.839816E-1	7.663141E-1	7.412787E-1	7.763236E-1	7.165721E-1	7.780958E-1	7.496340E-1	7.824647E-1	7.581771E-1	7.506847E-1	7.912401E-1	7.162454E-1	7.793232E-1	8.300450E-1	7.689758E-1	7.596862E-1	7.964958E-1	7.764071E-1	8.018055E-1	7.759235E-1	7.761464E-1	8.439448E-1	7.258402E-1	7.731522E-1	7.321271E-1	7.986370E-1	7.760642E-1	7.985986E-1	7.800865E-1	8.012167E-1	7.441405E-1	8.061727E-1	7.751434E-1	7.831235E-1	7.387438E-1	7.849973E-1	7.883610E-1	7.497108E-1	8.108204E-1	7.009858E-1	7.671106E-1	7.706259E-1	8.288868E-1	7.122170E-1	7.732846E-1	7.651018E-1	7.374644E-1	8.376019E-1	7.477445E-1	7.599565E-1	7.467078E-1	7.790412E-1	7.668445E-1	8.378807E-1	7.573591E-1	7.498978E-1	7.777755E-1	7.839399E-1	8.110364E-1	7.894242E-1	7.952588E-1	7.636538E-1	7.753020E-1	7.606251E-1	7.644383E-1	8.055767E-1	7.796527E-1	7.449318E-1	7.136177E-1	8.052479E-1	7.853800E-1	7.492592E-1	7.606013E-1	7.604523E-1	7.822340E-1	7.636295E-1	7.464455E-1	7.951229E-1	7.844450E-1	8.025533E-1	7.880411E-1	7.527235E-1	7.225274E-1	7.394900E-1	7.714413E-1	7.829168E-1	7.665611E-1	7.853624E-1	7.813202E-1	7.473709E-1	7.443901E-1	7.679152E-1	7.699061E-1	7.673458E-1	7.407409E-1	7.644077E-1	7.449404E-1	7.863091E-1	7.500887E-1	8.031032E-1	7.227582E-1	7.646797E-1	8.082535E-1
2.898030E+2	8.435103E-1	8.823637E-1	7.624647E-1	7.868605E-1	8.394091E-1	8.463364E-1	8.257724E-1	8.364522E-1	8.093091E-1	8.361607E-1	8.736029E-1	8.442705E-1	8.251810E-1	7.912606E-1	8.600611E-1	8.003273E-1	8.395966E-1	8.457258E-1	8.342324E-1	8.376580E-1	8.224541E-1	7.924187E-1	8.382719E-1	7.967958E-1	8.489881E-1	8.026484E-1	8.125063E-1	7.929252E-1	8.415399E-1	7.891898E-1	7.955451E-1	8.156460E-1	8.361895E-1	8.590622E-1	8.005312E-1	8.392080E-1	8.125398E-1	8.315400E-1	7.786637E-1	8.185520E-1	8.020042E-1	7.943536E-1	8.501794E-1	8.116443E-1	8.474883E-1	8.340833E-1	8.492013E-1	8.536319E-1	8.563398E-1	8.702774E-1	8.157944E-1	8.400202E-1	8.709747E-1	8.457792E-1	8.274910E-1	8.041393E-1	8.241301E-1	8.448625E-1	8.457976E-1	8.351337E-1	7.847324E-1	8.001582E-1	8.342308E-1	8.180402E-1	8.200868E-1	7.950257E-1	8.368631E-1	8.445829E-1	8.186276E-1	8.399778E-1	8.079083E-1	8.436979E-1	8.179807E-1	7.994596E-1	8.049034E-1	8.394458E-1	8.247231E-1	8.252140E-1	8.061513E-1	8.161826E-1	8.640914E-1	8.360582E-1	7.979390E-1	8.222308E-1	8.293515E-1	8.508165E-1	7.678040E-1	8.163825E-1	7.930195E-1	8.102712E-1	8.421353E-1	8.492347E-1	8.254415E-1	8.211641E-1	8.427414E-1	8.013852E-1	8.090544E-1	8.734371E-1	8.433128E-1	8.323835E-1	8.663494E-1	8.203525E-1	8.404791E-1	8.570668E-1	8.565250E-1	8.171032E-1	8.018097E-1	8.188066E-1	8.161869E-1	8.147063E-1	8.161233E-1	8.341517E-1	8.198132E-1	8.513599E-1	8.142085E-1	8.084517E-1	8.201199E-1	8.518740E-1	7.910752E-1	8.082047E-1	8.261112E-1	7.861783E-1	8.152440E-1	8.681216E-1	8.439078E-1	8.944359E-1	8.375781E-1	8.842622E-1	8.339957E-1	8.295056E-1	7.889914E-1	8.474932E-1	8.185984E-1	8.589189E-1	8.284503E-1	8.546761E-1	8.156016E-1	7.877123E-1	8.313553E-1	8.352257E-1	8.176623E-1	8.559062E-1	8.313141E-1	8.359839E-1	8.419643E-1	8.398698E-1	8.156121E-1	8.450391E-1	8.499982E-1	8.342800E-1	8.389196E-1	8.104039E-1	8.907874E-1	8.682585E-1	8.323165E-1	8.151945E-1	8.533647E-1	8.438151E-1	8.440934E-1	8.758198E-1	8.099978E-1	8.132501E-1	8.336895E-1	8.593037E-1	8.151875E-1
2.900020E+2	8.347543E-1	8.179062E-1	7.894342E-1	8.151821E-1	8.056286E-1	8.100981E-1	8.214817E-1	8.010994E-1	8.198705E-1	8.551738E-1	8.145646E-1	8.096300E-1	8.247970E-1	8.325666E-1	8.149023E-1	8.527041E-1	8.064536E-1	8.088471E-1	7.671601E-1	8.481527E-1	8.249453E-1	8.194489E-1	8.088754E-1	8.303032E-1	8.419598E-1	7.819621E-1	8.115562E-1	8.113462E-1	8.066978E-1	8.791158E-1	8.817931E-1	7.859223E-1	8.064494E-1	8.260281E-1	8.256152E-1	7.761024E-1	8.120724E-1	8.160840E-1	7.816896E-1	8.235217E-1	8.348712E-1	7.717215E-1	8.315767E-1	7.960085E-1	8.028296E-1	8.388563E-1	8.571266E-1	8.295695E-1	8.221312E-1	8.014760E-1	8.328105E-1	7.843205E-1	8.182346E-1	8.068314E-1	7.884334E-1	8.179644E-1	8.317570E-1	8.148052E-1	7.949370E-1	8.527623E-1	8.170731E-1	8.175304E-1	8.250239E-1	8.720416E-1	8.191264E-1	8.167373E-1	8.162286E-1	8.014359E-1	8.203387E-1	8.077375E-1	8.397153E-1	8.159582E-1	8.456007E-1	8.374871E-1	8.295582E-1	8.129540E-1	7.770486E-1	8.253010E-1	8.255227E-1	8.406730E-1	7.997426E-1	8.248298E-1	7.684802E-1	8.031987E-1	8.255753E-1	8.028572E-1	8.431694E-1	8.093679E-1	8.274013E-1	8.360445E-1	8.613313E-1	8.002839E-1	7.595508E-1	8.539679E-1	8.114978E-1	8.321562E-1	8.343936E-1	8.607614E-1	8.451520E-1	8.354159E-1	8.803901E-1	8.042258E-1	8.567963E-1	8.558713E-1	8.331776E-1	8.084192E-1	8.590394E-1	8.346603E-1	8.471182E-1	8.352801E-1	8.356327E-1	8.313005E-1	8.461281E-1	8.028204E-1	8.405864E-1	8.167690E-1	8.066336E-1	8.317282E-1	8.263064E-1	8.206818E-1	8.747520E-1	8.436356E-1	8.279858E-1	8.326741E-1	8.257237E-1	8.299790E-1	7.974266E-1	8.490726E-1	8.141759E-1	8.503114E-1	8.665090E-1	8.144371E-1	8.354400E-1	8.648976E-1	7.899078E-1	8.514866E-1	8.782795E-1	7.984304E-1	8.329408E-1	7.926531E-1	8.318258E-1	8.030521E-1	8.208042E-1	8.536174E-1	8.374937E-1	8.448273E-1	8.361969E-1	8.022166E-1	7.869534E-1	7.892539E-1	8.273369E-1	8.506173E-1	8.285292E-1	8.163775E-1	8.381869E-1	8.238269E-1	8.579504E-1	7.668894E-1	8.317428E-1	7.932880E-1	7.949437E-1	8.797245E-1	7.963786E-1	8.927486E-1	7.994597E-1
2.905110E+2	7.906495E-1	7.819620E-1	7.427228E-1	6.899717E-1	7.647874E-1	8.090347E-1	7.367046E-1	7.788049E-1	7.656927E-1	7.988767E-1	7.419304E-1	7.359277E-1	7.704142E-1	7.634048E-1	7.706832E-1	7.277614E-1	7.649591E-1	7.833928E-1	7.954889E-1	7.176409E-1	7.362626E-1	7.569205E-1	7.680695E-1	7.496775E-1	7.741598E-1	7.825927E-1	7.538905E-1	8.042778E-1	8.202020E-1	7.801918E-1	7.404246E-1	7.833872E-1	7.769639E-1	7.742672E-1	7.987913E-1	7.694025E-1	7.256836E-1	7.554643E-1	7.731758E-1	7.692827E-1	7.357264E-1	7.611076E-1	7.598000E-1	7.586576E-1	7.831311E-1	7.452040E-1	7.990396E-1	7.756790E-1	7.947105E-1	8.030548E-1	7.397636E-1	8.278851E-1	7.737389E-1	7.775207E-1	7.349325E-1	7.105706E-1	8.140950E-1	7.508135E-1	7.410660E-1	8.209394E-1	7.703497E-1	7.850501E-1	8.265119E-1	7.696798E-1	7.857084E-1	7.391584E-1	7.423885E-1	7.784658E-1	7.826334E-1	7.922501E-1	7.756249E-1	7.391010E-1	7.896547E-1	7.877694E-1	7.604191E-1	8.203391E-1	7.276858E-1	7.257904E-1	7.747686E-1	7.999773E-1	8.017358E-1	7.843048E-1	7.801255E-1	7.760547E-1	7.544127E-1	7.764868E-1	7.593251E-1	7.463453E-1	7.870042E-1	7.929828E-1	8.096142E-1	7.789367E-1	7.826690E-1	7.250359E-1	7.519267E-1	7.744402E-1	7.585128E-1	7.423075E-1	8.061257E-1	7.544001E-1	7.745528E-1	7.832557E-1	7.830493E-1	7.152498E-1	8.111802E-1	7.930945E-1	7.722355E-1	7.817869E-1	7.642497E-1	7.481233E-1	7.797536E-1	7.875869E-1	7.539813E-1	7.736701E-1	7.410856E-1	7.721397E-1	7.714940E-1	7.890759E-1	7.841465E-1	8.036229E-1	7.814809E-1	7.877901E-1	7.803314E-1	7.585111E-1	7.848024E-1	7.341081E-1	7.523480E-1	7.237869E-1	7.771516E-1	7.298885E-1	8.105824E-1	8.010287E-1	8.142105E-1	7.688958E-1	7.568485E-1	7.534519E-1	7.744085E-1	7.878255E-1	7.958714E-1	7.257920E-1	7.399625E-1	8.037176E-1	7.638484E-1	7.932413E-1	8.080276E-1	7.919294E-1	7.570661E-1	7.890214E-1	8.009583E-1	7.800342E-1	7.598720E-1	7.896967E-1	8.037016E-1	7.730879E-1	7.258948E-1	7.728852E-1	7.580489E-1	8.071779E-1	8.099330E-1	7.733895E-1	8.148590E-1	7.550234E-1	8.333704E-1	7.970265E-1	8.062704E-1
2.910060E+2	8.329098E-1	8.342331E-1	8.465436E-1	7.671326E-1	8.672950E-1	8.362425E-1	7.748883E-1	8.216838E-1	9.088110E-1	8.513091E-1	8.008626E-1	8.104004E-1	7.585845E-1	8.210172E-1	8.386476E-1	7.889646E-1	8.390861E-1	8.190341E-1	8.173962E-1	8.100757E-1	8.430272E-1	8.781389E-1	7.799403E-1	8.068836E-1	8.380860E-1	8.051105E-1	8.005125E-1	8.426817E-1	8.699195E-1	8.130455E-1	8.137517E-1	8.009264E-1	8.128857E-1	8.039588E-1	8.156369E-1	8.242750E-1	8.133833E-1	8.245120E-1	8.100961E-1	8.270746E-1	8.176506E-1	8.148221E-1	8.074321E-1	7.907352E-1	8.367515E-1	8.067948E-1	8.278279E-1	7.772573E-1	8.722744E-1	8.699678E-1	8.357514E-1	8.815658E-1	8.209768E-1	8.493574E-1	8.083084E-1	7.610339E-1	8.449009E-1	8.497973E-1	7.905988E-1	8.214125E-1	8.076531E-1	8.687161E-1	8.077622E-1	8.339952E-1	8.354414E-1	8.504449E-1	7.768031E-1	8.333508E-1	8.275150E-1	8.528484E-1	8.440292E-1	8.399625E-1	8.243370E-1	8.015660E-1	8.409926E-1	8.345653E-1	8.258966E-1	7.775777E-1	8.141018E-1	8.208425E-1	8.231175E-1	8.050533E-1	7.965907E-1	8.487946E-1	7.804054E-1	8.450617E-1	8.193186E-1	8.351898E-1	8.148427E-1	8.685643E-1	8.056290E-1	7.995848E-1	8.185110E-1	8.510932E-1	7.825865E-1	7.978453E-1	8.629479E-1	8.780458E-1	8.020138E-1	8.613564E-1	8.700072E-1	8.192148E-1	8.167793E-1	8.407904E-1	8.719032E-1	8.086706E-1	7.758553E-1	8.011753E-1	8.680687E-1	8.285204E-1	8.094027E-1	8.003669E-1	8.562532E-1	8.536050E-1	8.192216E-1	7.963464E-1	8.345947E-1	8.663570E-1	7.979653E-1	8.671583E-1	8.331676E-1	8.606486E-1	8.222434E-1	8.118742E-1	7.759224E-1	8.457049E-1	8.304376E-1	8.277821E-1	8.226711E-1	8.449677E-1	8.273086E-1	8.128692E-1	8.504449E-1	8.342994E-1	8.100840E-1	8.373789E-1	8.376721E-1	8.310119E-1	8.464750E-1	8.307612E-1	8.059871E-1	8.180154E-1	8.220865E-1	8.470594E-1	8.519216E-1	8.343592E-1	8.381495E-1	9.114750E-1	8.499216E-1	8.531680E-1	7.965423E-1	8.535581E-1	8.706443E-1	8.348355E-1	8.355799E-1	8.032520E-1	8.227997E-1	8.294202E-1	8.919380E-1	8.428005E-1	8.428419E-1	8.584645E-1	8.512505E-1	8.143448E-1	7.845052E-1
2.915070E+2	1.045850E+0	1.047521E+0	1.039364E+0	1.001486E+0	1.063195E+0	1.020130E+0	9.794258E-1	1.068430E+0	1.029589E+0	1.013297E+0	9.881156E-1	1.023327E+0	1.047663E+0	1.039364E+0	1.041045E+0	1.010824E+0	1.061682E+0	1.009722E+0	1.062606E+0	1.027171E+0	9.988690E-1	1.046548E+0	1.051067E+0	9.546279E-1	9.931813E-1	9.990989E-1	1.028350E+0	1.060253E+0	1.068307E+0	1.024187E+0	1.042836E+0	1.011330E+0	9.981914E-1	9.863331E-1	9.612584E-1	1.030793E+0	1.025705E+0	1.015811E+0	1.008573E+0	9.975872E-1	1.060794E+0	1.063188E+0	1.035684E+0	1.007649E+0	1.008285E+0	1.051671E+0	1.049426E+0	1.048512E+0	1.016147E+0	1.022219E+0	1.027986E+0	1.086677E+0	1.024532E+0	1.040744E+0	1.016823E+0	1.015129E+0	1.044694E+0	1.065638E+0	1.008490E+0	1.057559E+0	9.932401E-1	1.031067E+0	1.035090E+0	1.033797E+0	1.022980E+0	1.029267E+0	9.856667E-1	1.014287E+0	9.856322E-1	1.051807E+0	1.020526E+0	1.043707E+0	1.092385E+0	1.016890E+0	1.006964E+0	1.036233E+0	9.958983E-1	1.019049E+0	1.028508E+0	1.029401E+0	1.088471E+0	1.045999E+0	9.861414E-1	1.033084E+0	1.111283E+0	1.032276E+0	1.025897E+0	9.873564E-1	9.979098E-1	1.089234E+0	1.040580E+0	1.017981E+0	9.845861E-1	1.005999E+0	9.795439E-1	1.024012E+0	1.048772E+0	1.028369E+0	1.015550E+0	1.013850E+0	1.034343E+0	1.021220E+0	1.026564E+0	9.874565E-1	1.066188E+0	9.966420E-1	9.786419E-1	1.010117E+0	1.027706E+0	1.047751E+0	1.059939E+0	1.009741E+0	9.913819E-1	1.016305E+0	9.708839E-1	1.043901E+0	1.044668E+0	1.037716E+0	1.006093E+0	1.048840E+0	1.015694E+0	1.046816E+0	1.058439E+0	1.018719E+0	1.075051E+0	1.033434E+0	1.044970E+0	1.101045E+0	1.029422E+0	1.060309E+0	1.035872E+0	9.609657E-1	1.061479E+0	1.054049E+0	1.040579E+0	1.006019E+0	1.063039E+0	1.015313E+0	1.025505E+0	1.017009E+0	1.015333E+0	1.019381E+0	1.025148E+0	1.069990E+0	1.046993E+0	1.032579E+0	1.013444E+0	1.101595E+0	1.054845E+0	1.005880E+0	1.072485E+0	1.040148E+0	9.916541E-1	1.012368E+0	1.040791E+0	1.052414E+0	1.029097E+0	1.026270E+0	1.095265E+0	1.019803E+0	1.000639E+0	1.033524E+0	1.003076E+0	1.041322E+0	1.052898E+0
2.920030E+2	9.437373E-1	1.039012E+0	1.027813E+0	9.495234E-1	1.035524E+0	1.060038E+0	1.000486E+0	1.011389E+0	9.816218E-1	9.896683E-1	9.759339E-1	1.003978E+0	1.024364E+0	9.917103E-1	1.012902E+0	9.912054E-1	1.063404E+0	1.007724E+0	1.008962E+0	1.042514E+0	9.455626E-1	1.038396E+0	1.012140E+0	1.031400E+0	1.038607E+0	9.504740E-1	1.057153E+0	1.056521E+0	1.046320E+0	1.023802E+0	9.792039E-1	9.864316E-1	1.021514E+0	1.047536E+0	1.005852E+0	9.804684E-1	1.042001E+0	1.008896E+0	1.045093E+0	9.656401E-1	1.054388E+0	1.025322E+0	1.063256E+0	1.006381E+0	1.049210E+0	1.003549E+0	9.817769E-1	1.042865E+0	9.849443E-1	1.032733E+0	9.641044E-1	1.027789E+0	1.084693E+0	1.042662E+0	1.056809E+0	1.009387E+0	1.065607E+0	1.048797E+0	1.078784E+0	9.450350E-1	9.741598E-1	1.007517E+0	9.980270E-1	1.003788E+0	1.001101E+0	1.004596E+0	9.925361E-1	1.058288E+0	1.008969E+0	1.040329E+0	1.018906E+0	1.079047E+0	1.081571E+0	1.005647E+0	1.026081E+0	9.979546E-1	1.037212E+0	9.902844E-1	1.003026E+0	1.068678E+0	1.080052E+0	9.904377E-1	1.012214E+0	1.113176E+0	9.936320E-1	1.030914E+0	1.024094E+0	1.063756E+0	9.937827E-1	1.017107E+0	1.044438E+0	1.011820E+0	1.077787E+0	1.002891E+0	9.884205E-1	9.528792E-1	9.856488E-1	1.049512E+0	1.049263E+0	1.003912E+0	1.045301E+0	1.054652E+0	1.035578E+0	1.004236E+0	1.082571E+0	9.991498E-1	1.037133E+0	1.071761E+0	1.040691E+0	1.006151E+0	1.078523E+0	1.000185E+0	1.004911E+0	1.043659E+0	1.064680E+0	9.971814E-1	1.001714E+0	1.012867E+0	9.584780E-1	1.036303E+0	1.063778E+0	9.977401E-1	1.012208E+0	1.013753E+0	1.069104E+0	1.044352E+0	9.531919E-1	1.046819E+0	1.031113E+0	9.863084E-1	9.799847E-1	1.008620E+0	1.016257E+0	1.020817E+0	1.066800E+0	1.057490E+0	1.083258E+0	9.930098E-1	1.133268E+0	1.017204E+0	1.041331E+0	1.004951E+0	1.054259E+0	1.042851E+0	1.061428E+0	1.067270E+0	1.041771E+0	1.052326E+0	1.136999E+0	9.705267E-1	9.366357E-1	9.960847E-1	1.060831E+0	1.039199E+0	1.049247E+0	1.056019E+0	1.044344E+0	1.051664E+0	1.013497E+0	1.005376E+0	1.000983E+0	1.021665E+0	1.006292E+0	1.022429E+0	1.017062E+0
2.925020E+2	1.124306E+0	1.117909E+0	1.069805E+0	1.028934E+0	1.092604E+0	1.125439E+0	1.080493E+0	1.119776E+0	1.064928E+0	1.169577E+0	1.128912E+0	1.104428E+0	1.081848E+0	1.102927E+0	1.104690E+0	1.120892E+0	1.090973E+0	1.112191E+0	1.119615E+0	1.077262E+0	1.062415E+0	1.083136E+0	1.095520E+0	1.088800E+0	1.072738E+0	1.065597E+0	1.019253E+0	1.155229E+0	1.114549E+0	1.102851E+0	1.118960E+0	1.077835E+0	1.081774E+0	1.078801E+0	1.068992E+0	1.118963E+0	1.145347E+0	1.040853E+0	1.080759E+0	1.106355E+0	1.121830E+0	1.078063E+0	1.054632E+0	1.079501E+0	1.129226E+0	1.093528E+0	1.037186E+0	1.068817E+0	1.158206E+0	1.071520E+0	1.138666E+0	1.069733E+0	1.120940E+0	1.125459E+0	1.112563E+0	1.085256E+0	1.131772E+0	1.091365E+0	1.054366E+0	1.095293E+0	1.074687E+0	1.098584E+0	1.058341E+0	1.058745E+0	1.088367E+0	1.059410E+0	1.068091E+0	1.093492E+0	1.055432E+0	1.103915E+0	1.103480E+0	1.104177E+0	1.059604E+0	1.127180E+0	1.105593E+0	1.105090E+0	1.044683E+0	1.080623E+0	1.103382E+0	1.101343E+0	1.102649E+0	1.164616E+0	1.031146E+0	1.104004E+0	1.106433E+0	1.065855E+0	1.093278E+0	1.090608E+0	1.023638E+0	1.137814E+0	1.080212E+0	1.095084E+0	1.095047E+0	1.071530E+0	1.076283E+0	1.066578E+0	1.065131E+0	1.086254E+0	1.113097E+0	1.099690E+0	1.146771E+0	1.050616E+0	1.049984E+0	1.172320E+0	1.211336E+0	1.079771E+0	1.068178E+0	1.121609E+0	1.141687E+0	1.176682E+0	1.139443E+0	1.137560E+0	1.107439E+0	1.118634E+0	1.090392E+0	1.076828E+0	1.126766E+0	1.068988E+0	1.105721E+0	1.112279E+0	1.096811E+0	1.066033E+0	1.122487E+0	1.093575E+0	1.108303E+0	1.034246E+0	1.095528E+0	1.127172E+0	1.134423E+0	1.079499E+0	1.093816E+0	1.098795E+0	1.078751E+0	1.127621E+0	1.055863E+0	1.127804E+0	1.119410E+0	1.062494E+0	1.069231E+0	1.071377E+0	1.080263E+0	1.075973E+0	1.163947E+0	1.139747E+0	1.118347E+0	1.156939E+0	1.093750E+0	1.115540E+0	1.095763E+0	1.111517E+0	1.013577E+0	1.128141E+0	1.143188E+0	1.078003E+0	1.071511E+0	1.152931E+0	1.071661E+0	1.073494E+0	1.178449E+0	1.085703E+0	1.155392E+0	1.102557E+0	1.108667E+0	1.030916E+0	1.058009E+0
2.930050E+2	1.079069E+0	1.100443E+0	1.051167E+0	1.029415E+0	1.086372E+0	1.140134E+0	1.057749E+0	1.163406E+0	1.095924E+0	1.082026E+0	1.100959E+0	1.037413E+0	1.127615E+0	1.069944E+0	1.101321E+0	1.066118E+0	1.060433E+0	1.078244E+0	1.051333E+0	1.068531E+0	1.069182E+0	1.070450E+0	1.056766E+0	1.144305E+0	1.073042E+0	1.066147E+0	1.064735E+0	1.080226E+0	1.126453E+0	1.124726E+0	1.108308E+0	1.091549E+0	1.088601E+0	1.080327E+0	1.075007E+0	1.106384E+0	1.039588E+0	1.071571E+0	1.116519E+0	1.028060E+0	1.077990E+0	1.094578E+0	1.058026E+0	1.052815E+0	1.099252E+0	1.100653E+0	1.163977E+0	1.146339E+0	1.116110E+0	1.177673E+0	1.075369E+0	1.126879E+0	1.060905E+0	1.080546E+0	1.042020E+0	1.074585E+0	1.055227E+0	1.094806E+0	1.134388E+0	1.067626E+0	1.140458E+0	1.081600E+0	1.076651E+0	1.149230E+0	1.098988E+0	1.159700E+0	1.126263E+0	1.053251E+0	1.105535E+0	1.139337E+0	1.134985E+0	1.053175E+0	1.104323E+0	1.061869E+0	1.105932E+0	1.117314E+0	1.075916E+0	1.059088E+0	1.062853E+0	1.140496E+0	1.076724E+0	1.137892E+0	1.123924E+0	1.111486E+0	1.109964E+0	1.121464E+0	1.093478E+0	1.068068E+0	1.060622E+0	1.143145E+0	1.046660E+0	1.073334E+0	1.146071E+0	1.107760E+0	1.116223E+0	1.072579E+0	1.065641E+0	1.075499E+0	1.040038E+0	1.071336E+0	1.130110E+0	1.089563E+0	1.075064E+0	1.052044E+0	1.107057E+0	1.061484E+0	1.096848E+0	1.133171E+0	1.110103E+0	1.088131E+0	1.075365E+0	1.095293E+0	1.079922E+0	1.077562E+0	1.135031E+0	1.101252E+0	1.094280E+0	1.050424E+0	1.015828E+0	1.078823E+0	1.113789E+0	1.080497E+0	1.060515E+0	1.071352E+0	1.028845E+0	1.078743E+0	1.088532E+0	1.062890E+0	1.061780E+0	1.060867E+0	1.025600E+0	1.084919E+0	1.175370E+0	1.079307E+0	1.122462E+0	1.183839E+0	1.081628E+0	1.081856E+0	1.071974E+0	1.086706E+0	1.087769E+0	1.114296E+0	1.094933E+0	1.147019E+0	1.091547E+0	1.082452E+0	1.120579E+0	1.120985E+0	1.049306E+0	1.135839E+0	1.112243E+0	1.069565E+0	1.058592E+0	1.128439E+0	1.092710E+0	1.024438E+0	1.132086E+0	1.056857E+0	1.100311E+0	1.133370E+0	1.126853E+0	1.148742E+0	1.088356E+0	1.231648E+0	1.095600E+0
2.935090E+2	1.040587E+0	1.050576E+0	1.044621E+0	1.018769E+0	1.027481E+0	1.037211E+0	1.103336E+0	1.084000E+0	1.055892E+0	1.054621E+0	1.042770E+0	1.097468E+0	1.007693E+0	1.018652E+0	1.030136E+0	1.011121E+0	1.047668E+0	1.000137E+0	1.017986E+0	1.061122E+0	1.029627E+0	1.075564E+0	1.086033E+0	1.067167E+0	1.034111E+0	1.006690E+0	1.061275E+0	1.083146E+0	1.054988E+0	1.072846E+0	1.035539E+0	1.022992E+0	1.076909E+0	1.072805E+0	1.054926E+0	1.018790E+0	1.037004E+0	1.077579E+0	1.076301E+0	1.026558E+0	1.007012E+0	1.016392E+0	1.053554E+0	1.048036E+0	1.071125E+0	1.005891E+0	1.005366E+0	1.023720E+0	1.065464E+0	1.104929E+0	1.077970E+0	1.082450E+0	1.030071E+0	1.102353E+0	9.956628E-1	1.039267E+0	1.102979E+0	1.059606E+0	1.028376E+0	1.047230E+0	1.004101E+0	1.007794E+0	1.073445E+0	1.084620E+0	1.066302E+0	1.098274E+0	1.044843E+0	1.069357E+0	1.038855E+0	1.071886E+0	1.035044E+0	1.031673E+0	1.081200E+0	1.064235E+0	1.074635E+0	1.012589E+0	9.896833E-1	1.063051E+0	1.023025E+0	1.012799E+0	1.011187E+0	1.126860E+0	1.008589E+0	1.049611E+0	1.062974E+0	1.013197E+0	1.022500E+0	1.056031E+0	1.045080E+0	1.040799E+0	1.002366E+0	1.029109E+0	1.030799E+0	1.043095E+0	1.050954E+0	1.022593E+0	1.052843E+0	1.029618E+0	1.030324E+0	1.082039E+0	1.067790E+0	1.067294E+0	1.071829E+0	1.084099E+0	1.087146E+0	1.005201E+0	1.051419E+0	1.080143E+0	1.053746E+0	1.090862E+0	1.119259E+0	1.083029E+0	1.057294E+0	1.029805E+0	1.027168E+0	1.042694E+0	1.039136E+0	1.064857E+0	1.031565E+0	1.077514E+0	1.064547E+0	1.055515E+0	1.065812E+0	1.096731E+0	1.069642E+0	1.044769E+0	1.057502E+0	1.049995E+0	1.068290E+0	1.050133E+0	1.039246E+0	1.062797E+0	1.046715E+0	1.045907E+0	1.014729E+0	1.049471E+0	1.087513E+0	1.075954E+0	1.027232E+0	1.015933E+0	1.045462E+0	1.028927E+0	1.062072E+0	1.067296E+0	1.100105E+0	1.106440E+0	1.059481E+0	1.068881E+0	1.059737E+0	1.049756E+0	1.034712E+0	1.067159E+0	1.041923E+0	1.057399E+0	1.085477E+0	1.045267E+0	1.061096E+0	1.019225E+0	1.022821E+0	9.990203E-1	1.067718E+0	1.053034E+0	1.067251E+0	1.097059E+0	1.109597E+0
2.940070E+2	1.035942E+0	1.065210E+0	1.026281E+0	1.005618E+0	9.781593E-1	1.069425E+0	1.083812E+0	1.039486E+0	1.058536E+0	1.104350E+0	1.064320E+0	1.051465E+0	1.047358E+0	1.009908E+0	1.016238E+0	1.049777E+0	1.103721E+0	1.092812E+0	1.080671E+0	1.031421E+0	9.774651E-1	1.007369E+0	1.044405E+0	1.048820E+0	1.022030E+0	1.045807E+0	1.036069E+0	1.062904E+0	1.054616E+0	1.037685E+0	1.029450E+0	1.021280E+0	1.073422E+0	1.036269E+0	1.084760E+0	1.054415E+0	1.051252E+0	1.000395E+0	1.010781E+0	1.065439E+0	1.064258E+0	1.021351E+0	1.026963E+0	1.041476E+0	1.021916E+0	1.053306E+0	1.000771E+0	1.031324E+0	1.040568E+0	1.042022E+0	1.072650E+0	1.068157E+0	1.021196E+0	1.017554E+0	1.040185E+0	1.002109E+0	1.061808E+0	1.117165E+0	1.000000E+0	1.062897E+0	9.927652E-1	1.039728E+0	1.057654E+0	1.077918E+0	1.080551E+0	1.030492E+0	9.799448E-1	1.073141E+0	1.006631E+0	1.025665E+0	1.082464E+0	1.058411E+0	1.052191E+0	9.950654E-1	1.042523E+0	1.058505E+0	1.042519E+0	1.008046E+0	1.027409E+0	1.096655E+0	1.092918E+0	1.067739E+0	1.013862E+0	1.091395E+0	1.063007E+0	1.075261E+0	1.027034E+0	1.092082E+0	1.000353E+0	1.027887E+0	1.040476E+0	1.097499E+0	1.085965E+0	9.970546E-1	1.022059E+0	1.014151E+0	1.009357E+0	1.049678E+0	1.070297E+0	1.021348E+0	1.042988E+0	1.004757E+0	1.040431E+0	9.618145E-1	1.106158E+0	1.046858E+0	1.071678E+0	1.033759E+0	1.029584E+0	1.075064E+0	1.107700E+0	1.059700E+0	1.016215E+0	1.099557E+0	1.078566E+0	1.063926E+0	1.061164E+0	1.016473E+0	1.036512E+0	1.080261E+0	1.038663E+0	1.056701E+0	1.070458E+0	1.098632E+0	1.066294E+0	1.016055E+0	1.040178E+0	1.024724E+0	1.066155E+0	1.026783E+0	1.060819E+0	1.037537E+0	1.068175E+0	1.086107E+0	1.054819E+0	1.047818E+0	1.128057E+0	1.014483E+0	1.077248E+0	1.030538E+0	1.037779E+0	1.033206E+0	1.031944E+0	1.065145E+0	1.065545E+0	1.027018E+0	1.082686E+0	1.079417E+0	1.054444E+0	1.021331E+0	1.037467E+0	1.043413E+0	1.047283E+0	1.037360E+0	1.052466E+0	1.060125E+0	1.080909E+0	1.086486E+0	1.063384E+0	1.037014E+0	1.044455E+0	1.059651E+0	9.890135E-1	1.072338E+0	1.057822E+0
2.945030E+2	1.011291E+0	1.025755E+0	9.410296E-1	1.014896E+0	1.021374E+0	1.007111E+0	1.001962E+0	1.038775E+0	1.008892E+0	1.010930E+0	1.018005E+0	9.877229E-1	9.536512E-1	1.043917E+0	1.021180E+0	9.443750E-1	1.004791E+0	1.002440E+0	9.587228E-1	9.898252E-1	1.029349E+0	1.012594E+0	1.012856E+0	9.660584E-1	9.945966E-1	9.894736E-1	1.003520E+0	9.929062E-1	1.030377E+0	9.962530E-1	1.013653E+0	9.870853E-1	9.758596E-1	9.792075E-1	9.576987E-1	1.015563E+0	9.803960E-1	9.785758E-1	1.025338E+0	9.866331E-1	1.037275E+0	9.652831E-1	1.024507E+0	9.805211E-1	9.950295E-1	1.012318E+0	1.006040E+0	1.031322E+0	1.011047E+0	9.991641E-1	9.945113E-1	1.037400E+0	1.049840E+0	1.038564E+0	9.762781E-1	9.662012E-1	1.010052E+0	9.940498E-1	9.702495E-1	9.904785E-1	9.740135E-1	9.763426E-1	9.619466E-1	1.016152E+0	1.033047E+0	9.912234E-1	9.944844E-1	1.051473E+0	9.934665E-1	1.036092E+0	1.030861E+0	9.708410E-1	9.951802E-1	1.030807E+0	9.693117E-1	1.013960E+0	9.469957E-1	9.629088E-1	9.771435E-1	1.015763E+0	1.087166E+0	1.057625E+0	9.888584E-1	1.027885E+0	1.014977E+0	9.767609E-1	9.940822E-1	9.772090E-1	1.022917E+0	1.030901E+0	9.882758E-1	9.694597E-1	9.816157E-1	9.564528E-1	1.008439E+0	9.716314E-1	9.590912E-1	1.001161E+0	1.012714E+0	1.005147E+0	1.025203E+0	1.025340E+0	1.001894E+0	9.781367E-1	1.023788E+0	9.646263E-1	1.023539E+0	1.044975E+0	9.777389E-1	9.654430E-1	9.967807E-1	1.025499E+0	9.191503E-1	1.005457E+0	9.798980E-1	9.941180E-1	9.753133E-1	9.818193E-1	9.958191E-1	1.003940E+0	1.005516E+0	9.754327E-1	1.006905E+0	1.039047E+0	9.736163E-1	1.011993E+0	1.008421E+0	1.042544E+0	1.020219E+0	1.005093E+0	1.028054E+0	1.021083E+0	9.906329E-1	1.000361E+0	9.788718E-1	9.949252E-1	1.016823E+0	9.337158E-1	1.039682E+0	9.714313E-1	9.963495E-1	1.027336E+0	1.051057E+0	9.991367E-1	9.889957E-1	9.717389E-1	1.008997E+0	1.024626E+0	9.960207E-1	9.867051E-1	9.689828E-1	9.824008E-1	1.001172E+0	1.058349E+0	9.981041E-1	1.062508E+0	9.645861E-1	1.028208E+0	1.045243E+0	9.983772E-1	9.655334E-1	1.010746E+0	9.935198E-1	1.001011E+0	1.020208E+0
2.950050E+2	9.676804E-1	1.026101E+0	9.903146E-1	9.911685E-1	9.688086E-1	1.017800E+0	1.005950E+0	1.007260E+0	9.690056E-1	1.022985E+0	9.665495E-1	9.583513E-1	1.007152E+0	9.490559E-1	9.527597E-1	9.971181E-1	9.979595E-1	1.002026E+0	1.008417E+0	9.777329E-1	9.620164E-1	9.380829E-1	9.780678E-1	9.670381E-1	9.575129E-1	9.828628E-1	9.985129E-1	1.001384E+0	9.689228E-1	9.944935E-1	9.982109E-1	9.628685E-1	9.742341E-1	1.003422E+0	9.965204E-1	9.697512E-1	9.851271E-1	9.990809E-1	1.006891E+0	9.598271E-1	9.907874E-1	9.898119E-1	1.026833E+0	9.811042E-1	9.700656E-1	1.002245E+0	9.902207E-1	9.322854E-1	9.728808E-1	9.867869E-1	1.004162E+0	9.981566E-1	1.000032E+0	1.013978E+0	9.479467E-1	9.149991E-1	9.823820E-1	9.887719E-1	9.956106E-1	9.992233E-1	9.644672E-1	1.015298E+0	9.556342E-1	9.896305E-1	1.029141E+0	9.459753E-1	9.639352E-1	9.599101E-1	9.391200E-1	1.001647E+0	1.019839E+0	9.985684E-1	9.810250E-1	9.728165E-1	9.661740E-1	1.001528E+0	9.675397E-1	9.477783E-1	9.800259E-1	9.787746E-1	9.925314E-1	9.609579E-1	9.758307E-1	1.012833E+0	9.887533E-1	9.846336E-1	9.676718E-1	1.007631E+0	9.913575E-1	9.691060E-1	9.758991E-1	9.590791E-1	9.789122E-1	9.875265E-1	9.681858E-1	9.443151E-1	1.007219E+0	1.008934E+0	9.975805E-1	9.350044E-1	9.814537E-1	9.837468E-1	1.052732E+0	9.850730E-1	9.565744E-1	9.063266E-1	1.000370E+0	1.038981E+0	9.730334E-1	9.723986E-1	1.018215E+0	1.024081E+0	9.762796E-1	1.000847E+0	1.008170E+0	9.973041E-1	9.846089E-1	9.874846E-1	9.961049E-1	1.015683E+0	9.910565E-1	1.045837E+0	9.733342E-1	9.455834E-1	9.816816E-1	9.663801E-1	9.371318E-1	9.750083E-1	9.944150E-1	9.728267E-1	9.632261E-1	9.701654E-1	9.805364E-1	9.546855E-1	9.695075E-1	1.062642E+0	9.711790E-1	9.848436E-1	9.766146E-1	9.855380E-1	1.011985E+0	9.770737E-1	9.858683E-1	9.528076E-1	9.866686E-1	9.997205E-1	9.530871E-1	9.619146E-1	1.033269E+0	1.033273E+0	9.714251E-1	9.629790E-1	1.005524E+0	9.924956E-1	9.801720E-1	9.919816E-1	9.752839E-1	1.034107E+0	1.019230E+0	9.411785E-1	9.744370E-1	1.007398E+0	9.807485E-1	9.378837E-1	1.001836E+0
2.955100E+2	1.006269E+0	9.426700E-1	9.347534E-1	9.774714E-1	1.006781E+0	1.030204E+0	9.690510E-1	9.805661E-1	9.989924E-1	1.046076E+0	9.532146E-1	9.672513E-1	9.967857E-1	1.026097E+0	1.027386E+0	9.987634E-1	1.002736E+0	9.773751E-1	9.794756E-1	9.862552E-1	9.771894E-1	9.774116E-1	9.729603E-1	9.754954E-1	1.015667E+0	9.816098E-1	9.813789E-1	1.012750E+0	9.870820E-1	9.940464E-1	9.626130E-1	9.768175E-1	1.012491E+0	9.417449E-1	9.529923E-1	9.708678E-1	1.003251E+0	1.006710E+0	9.599917E-1	1.025389E+0	9.663186E-1	1.021794E+0	9.499500E-1	9.995172E-1	1.062508E+0	9.985293E-1	9.927840E-1	9.709282E-1	9.625444E-1	9.623038E-1	1.004871E+0	1.036958E+0	1.036879E+0	1.005378E+0	9.873047E-1	9.857629E-1	9.794067E-1	1.022098E+0	9.595595E-1	9.890888E-1	9.750143E-1	9.839233E-1	9.864636E-1	1.011619E+0	1.010318E+0	1.006167E+0	9.601166E-1	1.016088E+0	9.541474E-1	9.979720E-1	9.872286E-1	9.797618E-1	1.035567E+0	9.912821E-1	9.937357E-1	1.007239E+0	9.756912E-1	9.445473E-1	9.875717E-1	1.052969E+0	1.042558E+0	9.948754E-1	1.013061E+0	1.003931E+0	9.685875E-1	1.020539E+0	9.939669E-1	1.005497E+0	9.887045E-1	1.001531E+0	1.017647E+0	1.029550E+0	9.868832E-1	9.893373E-1	1.000223E+0	9.572919E-1	9.488381E-1	9.882222E-1	9.770545E-1	9.944362E-1	9.956634E-1	1.006944E+0	9.755199E-1	9.930949E-1	9.765869E-1	9.677263E-1	1.009280E+0	9.892535E-1	9.449887E-1	9.746432E-1	9.591242E-1	1.017763E+0	1.011538E+0	9.808869E-1	1.020927E+0	9.967104E-1	1.003971E+0	1.022714E+0	9.813359E-1	1.017678E+0	1.035368E+0	1.061520E+0	9.765902E-1	9.988220E-1	1.011005E+0	1.010164E+0	9.832445E-1	9.784931E-1	1.024931E+0	9.801120E-1	1.014303E+0	9.610174E-1	9.978831E-1	1.003688E+0	1.000787E+0	1.008437E+0	1.048913E+0	1.012070E+0	9.638973E-1	9.860370E-1	9.657397E-1	1.022234E+0	9.917130E-1	1.046246E+0	9.960191E-1	1.040265E+0	1.009098E+0	1.031766E+0	1.016859E+0	1.042051E+0	9.759196E-1	9.713105E-1	9.654378E-1	9.884101E-1	9.721580E-1	9.911726E-1	9.747858E-1	9.762124E-1	1.000743E+0	1.023728E+0	9.860199E-1	1.022508E+0	9.462215E-1	1.063385E+0	9.658839E-1
2.960060E+2	9.244945E-1	9.746156E-1	8.915744E-1	9.399833E-1	9.807249E-1	9.902641E-1	9.213774E-1	9.532623E-1	1.001634E+0	9.735516E-1	9.678659E-1	9.638652E-1	9.264569E-1	9.429392E-1	9.526323E-1	9.642226E-1	9.691288E-1	9.548170E-1	9.403696E-1	9.642149E-1	9.209922E-1	9.374689E-1	9.197790E-1	9.278936E-1	9.300764E-1	9.931932E-1	9.462361E-1	9.109357E-1	9.762886E-1	9.542162E-1	9.444252E-1	9.591563E-1	9.214809E-1	9.802380E-1	9.724728E-1	9.630834E-1	9.869891E-1	9.713295E-1	9.629473E-1	9.669059E-1	9.067411E-1	9.657132E-1	9.323201E-1	9.454006E-1	9.230105E-1	9.519434E-1	9.307738E-1	9.468884E-1	9.280276E-1	9.300761E-1	1.008724E+0	9.472399E-1	9.775388E-1	9.649330E-1	9.607658E-1	9.354481E-1	9.818055E-1	9.501861E-1	9.727584E-1	9.817460E-1	9.375333E-1	9.139179E-1	9.578837E-1	9.845817E-1	9.740878E-1	9.835983E-1	9.664979E-1	9.656861E-1	9.410171E-1	9.535094E-1	9.389608E-1	9.343049E-1	9.695511E-1	9.523377E-1	9.026806E-1	9.686430E-1	9.450050E-1	9.599654E-1	9.851673E-1	9.728022E-1	9.634550E-1	9.874376E-1	9.938051E-1	9.730438E-1	9.065588E-1	9.822081E-1	9.639158E-1	1.016473E+0	9.141878E-1	9.792325E-1	9.706212E-1	9.467424E-1	9.590959E-1	9.903197E-1	9.314429E-1	9.138993E-1	1.004668E+0	9.652435E-1	9.282913E-1	9.332763E-1	9.371751E-1	9.885956E-1	9.569560E-1	9.462217E-1	9.538628E-1	9.620587E-1	9.446168E-1	9.429195E-1	9.285215E-1	9.588897E-1	9.764083E-1	9.817637E-1	9.096969E-1	1.013472E+0	9.927347E-1	9.849586E-1	9.614546E-1	9.537801E-1	9.297660E-1	9.698152E-1	9.513172E-1	9.674484E-1	1.022505E+0	9.370922E-1	9.532872E-1	9.931722E-1	9.548172E-1	1.023598E+0	9.763217E-1	9.647283E-1	9.105217E-1	9.643263E-1	9.551874E-1	9.735313E-1	9.479821E-1	9.532381E-1	9.352400E-1	9.481632E-1	9.591992E-1	9.599933E-1	9.055774E-1	9.574863E-1	9.467795E-1	9.908172E-1	9.887882E-1	9.729819E-1	9.603077E-1	9.852889E-1	9.526716E-1	9.519552E-1	9.230543E-1	9.874470E-1	9.554813E-1	9.982039E-1	9.709871E-1	9.941292E-1	9.361655E-1	8.920834E-1	9.570544E-1	9.372921E-1	9.963861E-1	9.357460E-1	9.590655E-1	9.287067E-1	9.881565E-1
2.965070E+2	9.816647E-1	1.014694E+0	1.021967E+0	9.642424E-1	9.357106E-1	9.784716E-1	9.535646E-1	9.291362E-1	9.765990E-1	9.866803E-1	9.443059E-1	9.463020E-1	9.432881E-1	9.515514E-1	9.866829E-1	9.851227E-1	9.342549E-1	9.763431E-1	9.913233E-1	8.909153E-1	1.002059E+0	9.490481E-1	9.086780E-1	9.556314E-1	1.003452E+0	9.582207E-1	9.875011E-1	1.012149E+0	9.588995E-1	9.400412E-1	9.273957E-1	9.466750E-1	1.003301E+0	9.907769E-1	9.410062E-1	9.687977E-1	9.637188E-1	9.645489E-1	9.795219E-1	9.551075E-1	9.873743E-1	9.380507E-1	9.705959E-1	9.685623E-1	9.657486E-1	9.847451E-1	9.669545E-1	9.650101E-1	9.924526E-1	9.982877E-1	9.753989E-1	1.021765E+0	9.309934E-1	9.938695E-1	9.438279E-1	9.336270E-1	9.701328E-1	9.476967E-1	9.542313E-1	9.892421E-1	9.014412E-1	9.577676E-1	9.535791E-1	9.923185E-1	9.819936E-1	9.442727E-1	9.613878E-1	9.294959E-1	9.386549E-1	9.654902E-1	9.880460E-1	9.825803E-1	9.792874E-1	9.883345E-1	9.468938E-1	9.936998E-1	9.610554E-1	9.499763E-1	9.643200E-1	9.908974E-1	9.648745E-1	9.606268E-1	9.577607E-1	1.006564E+0	9.596805E-1	9.463038E-1	9.640181E-1	9.782033E-1	9.218636E-1	1.000282E+0	9.728518E-1	9.493935E-1	9.871999E-1	9.524259E-1	9.712647E-1	9.792927E-1	9.442103E-1	9.229299E-1	9.629096E-1	9.833715E-1	9.794751E-1	9.639113E-1	9.389061E-1	8.891437E-1	1.025492E+0	9.638460E-1	9.884520E-1	9.448991E-1	9.793302E-1	9.736394E-1	9.281154E-1	9.736795E-1	9.662348E-1	9.977643E-1	9.655628E-1	1.008678E+0	9.371646E-1	9.077262E-1	9.835272E-1	9.915538E-1	9.372083E-1	1.008432E+0	9.870640E-1	9.474720E-1	9.232940E-1	1.008580E+0	9.781041E-1	9.615431E-1	9.582953E-1	1.003387E+0	9.815579E-1	9.432383E-1	9.485576E-1	9.775232E-1	9.587948E-1	9.941589E-1	9.408190E-1	9.596856E-1	9.959389E-1	9.264414E-1	9.752606E-1	9.914337E-1	9.560989E-1	9.615449E-1	9.467314E-1	9.221131E-1	1.020830E+0	9.387076E-1	1.021004E+0	1.018810E+0	9.455695E-1	1.003768E+0	9.930856E-1	1.002122E+0	9.547566E-1	9.282458E-1	9.382597E-1	9.550065E-1	9.800041E-1	9.338236E-1	1.000067E+0	9.491409E-1	9.514138E-1	9.984994E-1	9.124431E-1
2.970020E+2	9.616890E-1	1.000121E+0	9.895697E-1	9.605672E-1	9.409439E-1	1.017584E+0	9.831021E-1	9.701049E-1	9.846414E-1	9.800611E-1	9.568393E-1	9.782788E-1	9.503751E-1	9.745579E-1	9.891973E-1	1.004119E+0	9.630766E-1	9.938532E-1	9.976140E-1	9.711331E-1	9.764355E-1	9.507421E-1	9.735927E-1	9.483453E-1	9.452634E-1	9.527740E-1	1.004422E+0	1.037208E+0	1.025957E+0	1.011234E+0	9.166156E-1	9.734710E-1	1.008982E+0	9.980932E-1	9.556755E-1	9.583581E-1	9.517350E-1	9.610497E-1	9.993708E-1	9.809184E-1	9.286016E-1	9.805205E-1	9.661905E-1	9.651290E-1	9.874723E-1	9.671562E-1	9.681827E-1	9.951611E-1	9.949546E-1	9.816582E-1	9.764321E-1	9.912454E-1	1.026584E+0	9.954647E-1	9.790187E-1	9.618315E-1	9.829971E-1	1.030572E+0	9.511655E-1	1.028459E+0	9.641299E-1	1.013279E+0	9.676607E-1	1.008382E+0	9.939629E-1	9.776755E-1	9.313548E-1	1.026779E+0	9.843098E-1	9.648887E-1	9.686586E-1	9.790368E-1	1.009381E+0	9.401918E-1	9.989433E-1	9.650256E-1	9.577897E-1	9.781798E-1	1.021756E+0	9.860080E-1	9.707335E-1	1.000042E+0	9.748105E-1	9.540913E-1	9.945495E-1	9.498281E-1	1.002716E+0	9.899696E-1	9.809423E-1	1.015230E+0	9.517442E-1	9.715544E-1	9.758694E-1	9.654638E-1	9.309817E-1	9.615980E-1	9.786904E-1	1.024679E+0	9.335895E-1	9.799172E-1	9.993273E-1	9.976382E-1	9.387338E-1	9.420545E-1	1.022493E+0	1.008207E+0	9.507816E-1	9.442263E-1	9.319366E-1	9.632676E-1	9.226314E-1	9.625050E-1	9.908853E-1	1.069294E+0	1.008658E+0	9.948522E-1	1.013250E+0	9.340314E-1	9.692586E-1	1.003185E+0	1.007027E+0	9.737156E-1	1.005027E+0	9.532205E-1	9.831931E-1	1.005415E+0	9.979898E-1	9.687593E-1	9.510016E-1	9.579661E-1	9.852871E-1	9.898632E-1	9.685387E-1	9.689318E-1	9.659751E-1	1.039238E+0	9.974750E-1	1.020996E+0	1.020346E+0	9.742672E-1	9.781699E-1	1.044186E+0	9.917856E-1	1.026232E+0	9.422509E-1	9.567178E-1	9.813759E-1	9.785854E-1	9.624921E-1	1.011499E+0	9.499231E-1	1.027178E+0	9.693455E-1	1.008756E+0	9.643212E-1	9.667759E-1	9.458700E-1	9.429243E-1	1.021681E+0	9.733142E-1	1.011705E+0	9.706680E-1	1.007842E+0	1.008900E+0	9.857402E-1
2.975020E+2	9.927384E-1	1.006464E+0	1.001101E+0	9.846247E-1	9.847621E-1	1.013854E+0	1.008361E+0	1.017639E+0	1.042689E+0	9.897870E-1	1.013805E+0	9.917062E-1	1.007554E+0	9.665486E-1	1.021157E+0	9.874746E-1	1.007208E+0	1.017127E+0	9.886088E-1	9.674018E-1	9.815947E-1	9.733294E-1	1.013724E+0	1.049106E+0	9.996434E-1	9.711499E-1	1.014407E+0	1.077655E+0	1.036213E+0	1.028998E+0	9.917818E-1	9.983524E-1	1.023343E+0	1.004415E+0	1.000482E+0	1.000024E+0	9.988773E-1	9.459647E-1	1.005988E+0	1.006406E+0	9.780254E-1	9.928681E-1	1.023285E+0	1.006325E+0	1.009735E+0	1.023377E+0	9.375425E-1	1.013468E+0	1.004673E+0	9.805841E-1	1.020139E+0	9.815892E-1	1.051375E+0	9.891476E-1	9.378128E-1	9.801277E-1	1.013037E+0	1.016330E+0	9.348976E-1	1.020362E+0	9.518774E-1	9.922062E-1	1.006623E+0	1.034959E+0	9.956434E-1	1.040801E+0	9.957767E-1	1.037054E+0	9.719629E-1	1.012675E+0	9.674154E-1	1.025399E+0	9.706287E-1	9.929464E-1	1.007680E+0	9.394514E-1	9.531751E-1	9.903908E-1	1.013594E+0	9.601255E-1	1.014396E+0	9.843424E-1	1.004985E+0	9.506560E-1	9.911885E-1	9.684269E-1	9.709256E-1	1.022965E+0	1.003052E+0	1.023354E+0	9.718933E-1	9.937148E-1	1.011844E+0	9.745294E-1	1.016932E+0	9.587069E-1	9.832915E-1	1.010549E+0	9.984317E-1	9.707153E-1	1.033327E+0	9.948711E-1	9.994986E-1	9.590309E-1	9.763585E-1	9.867881E-1	1.036348E+0	9.828587E-1	1.023004E+0	1.019024E+0	9.591905E-1	9.981916E-1	9.351035E-1	9.978790E-1	9.952577E-1	9.668501E-1	9.925948E-1	9.956293E-1	1.009895E+0	1.019570E+0	1.015634E+0	1.005354E+0	1.078131E+0	1.046458E+0	9.850079E-1	1.039441E+0	9.635041E-1	1.049752E+0	9.976663E-1	1.020451E+0	9.899684E-1	9.621725E-1	1.013246E+0	1.015768E+0	9.744136E-1	1.016969E+0	1.045028E+0	9.939034E-1	1.015946E+0	9.718572E-1	1.002179E+0	1.040601E+0	9.919665E-1	1.000894E+0	9.725768E-1	1.011985E+0	1.045798E+0	1.013435E+0	1.031114E+0	1.026767E+0	1.012045E+0	1.003886E+0	9.634009E-1	1.029966E+0	9.811359E-1	9.685322E-1	9.698072E-1	1.010243E+0	9.831186E-1	9.739919E-1	9.644006E-1	1.013419E+0	9.927675E-1	1.014089E+0	9.309119E-1
2.980050E+2	1.030981E+0	1.000523E+0	1.001237E+0	1.033459E+0	1.062643E+0	1.030708E+0	9.602928E-1	1.054812E+0	1.007884E+0	1.004392E+0	9.968325E-1	1.007285E+0	1.030785E+0	9.902545E-1	1.037527E+0	1.016625E+0	1.028445E+0	1.030848E+0	9.863991E-1	1.024113E+0	1.015170E+0	9.789293E-1	9.837277E-1	9.564997E-1	1.025599E+0	1.000441E+0	1.005688E+0	1.003700E+0	1.043045E+0	1.022257E+0	9.998150E-1	9.745420E-1	1.001886E+0	9.749927E-1	9.942121E-1	1.002262E+0	9.954094E-1	9.959170E-1	9.964166E-1	1.023671E+0	1.001550E+0	1.029185E+0	9.703869E-1	1.027669E+0	9.864103E-1	1.001984E+0	1.031458E+0	9.798437E-1	1.025608E+0	9.872448E-1	9.984048E-1	1.010811E+0	1.015072E+0	1.015264E+0	9.884269E-1	1.023024E+0	9.984270E-1	9.746383E-1	9.547538E-1	1.009330E+0	9.743064E-1	1.025806E+0	1.003433E+0	1.023895E+0	1.008662E+0	9.966454E-1	1.000412E+0	9.839485E-1	9.676248E-1	9.826448E-1	1.000357E+0	1.008633E+0	1.005901E+0	9.707075E-1	9.839942E-1	1.047155E+0	9.649959E-1	1.000283E+0	1.003851E+0	1.014629E+0	1.025977E+0	9.808595E-1	1.001779E+0	9.957901E-1	1.021071E+0	1.010788E+0	1.045031E+0	9.759186E-1	1.036599E+0	9.988013E-1	1.017852E+0	9.804930E-1	9.975618E-1	9.871673E-1	9.955576E-1	1.004304E+0	1.006116E+0	1.020403E+0	9.841371E-1	1.013041E+0	9.669931E-1	1.024578E+0	9.845263E-1	9.939472E-1	1.024159E+0	1.016309E+0	9.884375E-1	9.932911E-1	1.003869E+0	1.034748E+0	1.011414E+0	1.020180E+0	9.986326E-1	1.012924E+0	9.796099E-1	9.817129E-1	1.015226E+0	9.964244E-1	1.001633E+0	1.009725E+0	1.018698E+0	1.004233E+0	1.006747E+0	9.972134E-1	1.007447E+0	9.999465E-1	1.037522E+0	1.022096E+0	1.042835E+0	9.882728E-1	9.829582E-1	9.912505E-1	9.866268E-1	9.866290E-1	9.734659E-1	9.999967E-1	1.003713E+0	1.039944E+0	9.562428E-1	1.020294E+0	9.846993E-1	1.018183E+0	1.008987E+0	1.039920E+0	1.007000E+0	9.679680E-1	9.814850E-1	9.894940E-1	1.009813E+0	9.881784E-1	9.663853E-1	9.923302E-1	9.825587E-1	1.018761E+0	9.678568E-1	9.986973E-1	1.033223E+0	9.766705E-1	1.000188E+0	1.005511E+0	1.018991E+0	1.026118E+0	1.003440E+0	1.038290E+0	1.055511E+0
2.985020E+2	9.517065E-1	1.005880E+0	9.582825E-1	9.713434E-1	9.484680E-1	9.707567E-1	9.530809E-1	9.585550E-1	9.670102E-1	9.680761E-1	9.846373E-1	9.468433E-1	9.575400E-1	9.820570E-1	1.007521E+0	9.275269E-1	9.784607E-1	9.674048E-1	9.624579E-1	9.868031E-1	9.663211E-1	9.650854E-1	1.011463E+0	9.714536E-1	9.842045E-1	9.552856E-1	1.020186E+0	9.722631E-1	9.530621E-1	9.766128E-1	1.003592E+0	9.767486E-1	9.523744E-1	9.593032E-1	9.655059E-1	9.427861E-1	9.775406E-1	9.693046E-1	9.429139E-1	9.690759E-1	9.839054E-1	9.720146E-1	9.698908E-1	9.710593E-1	1.017395E+0	9.668564E-1	1.010383E+0	1.009015E+0	9.331874E-1	9.735296E-1	9.515466E-1	9.718864E-1	9.527540E-1	9.453865E-1	1.018647E+0	9.621998E-1	9.761625E-1	9.397137E-1	9.787801E-1	9.969330E-1	1.001059E+0	9.468593E-1	9.882300E-1	9.827389E-1	9.184860E-1	9.635244E-1	9.897619E-1	1.004043E+0	1.009423E+0	9.936449E-1	9.459746E-1	9.661833E-1	9.681909E-1	9.874051E-1	9.556318E-1	9.806917E-1	1.030802E+0	9.485307E-1	9.903878E-1	9.808221E-1	9.707846E-1	9.401820E-1	9.179897E-1	9.498625E-1	9.589786E-1	9.467162E-1	9.501722E-1	9.990640E-1	9.753083E-1	9.308311E-1	9.827588E-1	9.725730E-1	9.720815E-1	9.769549E-1	9.679019E-1	9.785187E-1	1.003852E+0	9.798121E-1	9.901341E-1	9.706947E-1	9.984185E-1	9.696770E-1	9.890476E-1	1.005989E+0	9.553348E-1	9.946367E-1	9.452826E-1	9.757707E-1	9.687471E-1	9.673774E-1	9.454449E-1	9.675213E-1	9.681807E-1	9.594731E-1	9.837560E-1	9.932594E-1	9.816169E-1	9.937750E-1	9.649063E-1	9.449372E-1	9.454940E-1	9.503688E-1	1.005693E+0	9.508395E-1	9.519393E-1	9.845345E-1	9.626507E-1	9.759014E-1	9.784711E-1	9.862783E-1	9.835786E-1	1.035025E+0	9.684690E-1	9.710078E-1	9.480176E-1	1.007619E+0	9.367472E-1	9.207047E-1	9.566624E-1	9.713280E-1	9.805859E-1	9.559382E-1	9.330013E-1	9.426060E-1	1.014379E+0	1.020093E+0	1.005812E+0	9.733299E-1	9.750061E-1	9.716668E-1	1.024504E+0	9.703163E-1	9.987911E-1	9.935534E-1	9.862006E-1	1.001155E+0	9.616107E-1	9.839592E-1	9.751052E-1	9.698127E-1	9.834055E-1	9.709606E-1	9.786374E-1	9.687107E-1	9.060208E-1
2.990040E+2	1.011750E+0	1.017766E+0	1.043836E+0	1.047328E+0	1.019703E+0	9.973430E-1	1.024597E+0	1.010245E+0	1.057020E+0	1.009503E+0	1.027244E+0	1.037835E+0	1.023846E+0	9.953500E-1	9.711340E-1	1.032320E+0	1.023094E+0	1.017996E+0	1.038106E+0	9.968485E-1	1.005241E+0	1.042668E+0	1.034000E+0	1.049040E+0	9.918960E-1	1.025831E+0	9.881562E-1	1.008199E+0	1.023539E+0	1.018496E+0	1.036253E+0	1.046363E+0	1.044107E+0	1.036153E+0	1.044980E+0	1.024018E+0	1.042397E+0	1.050124E+0	1.073973E+0	1.016423E+0	1.019164E+0	1.041688E+0	1.024190E+0	1.032516E+0	1.007370E+0	1.034993E+0	1.042635E+0	1.066698E+0	1.041392E+0	1.041303E+0	1.024831E+0	1.033126E+0	1.055824E+0	1.040517E+0	1.023705E+0	1.024542E+0	9.735244E-1	1.017395E+0	1.051673E+0	1.003060E+0	1.010810E+0	1.036396E+0	9.912833E-1	1.017031E+0	1.055922E+0	1.049659E+0	9.923623E-1	1.025132E+0	1.028109E+0	1.044853E+0	1.061794E+0	1.030600E+0	1.032013E+0	1.022293E+0	1.056908E+0	1.004837E+0	1.031095E+0	1.061320E+0	1.022591E+0	1.052038E+0	1.051344E+0	1.043497E+0	1.049635E+0	1.026258E+0	1.025438E+0	1.050357E+0	1.048771E+0	9.926105E-1	9.941974E-1	1.029777E+0	1.015224E+0	1.034447E+0	1.040912E+0	1.007349E+0	1.055425E+0	1.024950E+0	1.024674E+0	1.026127E+0	1.010238E+0	1.009039E+0	1.075757E+0	1.000094E+0	9.909071E-1	1.024145E+0	1.040855E+0	1.012239E+0	1.059786E+0	1.032082E+0	1.029017E+0	1.036471E+0	1.016354E+0	1.021220E+0	1.053038E+0	1.038722E+0	1.015907E+0	1.033439E+0	1.029258E+0	1.025411E+0	1.023647E+0	1.060139E+0	1.009125E+0	1.016541E+0	1.015056E+0	1.029298E+0	1.031152E+0	9.967936E-1	1.007727E+0	1.054101E+0	1.029929E+0	1.004499E+0	9.931736E-1	1.010215E+0	1.029680E+0	1.034728E+0	1.038413E+0	1.029207E+0	1.001023E+0	1.013331E+0	1.034794E+0	1.033427E+0	1.013437E+0	1.005329E+0	1.040989E+0	1.041501E+0	9.670237E-1	1.049262E+0	1.023314E+0	1.035371E+0	1.036117E+0	1.010820E+0	1.022493E+0	1.029698E+0	9.985421E-1	1.026517E+0	1.020370E+0	1.049484E+0	1.029825E+0	1.035891E+0	1.024893E+0	9.994348E-1	1.049426E+0	1.111282E+0	1.037000E+0	9.854510E-1	1.014675E+0
2.995040E+2	9.958078E-1	1.015508E+0	1.017876E+0	9.815664E-1	1.000617E+0	1.004076E+0	1.046717E+0	1.004642E+0	1.019843E+0	1.018584E+0	1.013769E+0	1.018927E+0	1.007531E+0	1.017663E+0	1.003203E+0	1.033795E+0	9.903742E-1	9.886921E-1	1.000395E+0	1.009410E+0	1.034849E+0	1.027156E+0	1.001138E+0	1.012374E+0	1.023854E+0	1.003882E+0	9.985661E-1	1.034748E+0	1.001387E+0	1.031776E+0	1.003150E+0	1.019597E+0	1.030273E+0	9.884601E-1	1.034657E+0	1.019795E+0	9.999488E-1	1.024445E+0	1.011866E+0	9.830266E-1	1.016571E+0	9.939400E-1	1.008245E+0	1.007401E+0	9.802161E-1	1.006821E+0	9.641843E-1	9.694118E-1	1.012393E+0	1.032217E+0	1.020123E+0	9.840023E-1	1.021239E+0	1.034735E+0	1.013612E+0	9.945064E-1	1.030529E+0	1.074248E+0	1.014561E+0	9.998749E-1	1.024771E+0	1.001024E+0	9.939203E-1	1.018933E+0	1.039765E+0	1.011503E+0	1.041259E+0	1.034080E+0	1.037410E+0	9.857244E-1	9.775216E-1	1.025823E+0	1.010342E+0	9.971778E-1	1.008852E+0	9.990672E-1	1.010962E+0	9.944971E-1	9.958363E-1	9.675401E-1	1.019071E+0	1.024538E+0	1.023280E+0	1.047527E+0	1.023662E+0	1.017283E+0	9.946818E-1	1.014701E+0	1.001324E+0	1.047124E+0	1.017180E+0	9.947933E-1	1.025767E+0	1.053219E+0	1.002430E+0	9.992970E-1	1.011287E+0	1.011928E+0	1.054424E+0	9.916481E-1	9.916707E-1	1.010924E+0	1.046849E+0	9.951453E-1	9.869433E-1	1.000248E+0	1.000093E+0	1.003284E+0	1.052843E+0	1.035054E+0	1.045520E+0	1.003994E+0	1.017209E+0	1.032546E+0	1.012869E+0	1.016683E+0	9.747966E-1	1.018617E+0	1.037299E+0	1.012357E+0	1.014791E+0	1.040042E+0	1.004266E+0	1.022989E+0	1.027819E+0	1.033087E+0	1.024330E+0	1.016218E+0	9.728788E-1	1.002610E+0	1.038821E+0	1.005757E+0	1.045797E+0	1.017069E+0	1.052317E+0	1.006625E+0	1.056591E+0	1.039415E+0	1.031450E+0	1.003584E+0	1.015331E+0	1.017254E+0	1.012223E+0	1.022847E+0	1.035128E+0	1.008440E+0	1.019474E+0	1.007099E+0	1.022644E+0	1.017163E+0	9.929125E-1	1.036967E+0	1.011904E+0	9.908563E-1	1.013161E+0	1.011651E+0	9.907162E-1	9.976466E-1	1.030496E+0	1.038988E+0	9.891321E-1	9.499995E-1	1.002707E+0	1.005674E+0	1.013128E+0
3.000040E+2	1.009754E+0	9.603228E-1	9.787682E-1	9.663027E-1	9.685686E-1	9.971161E-1	1.015313E+0	9.717453E-1	9.482433E-1	9.994446E-1	9.775174E-1	9.891097E-1	9.802979E-1	1.014676E+0	9.806156E-1	9.897335E-1	9.796267E-1	9.950589E-1	1.012642E+0	9.828256E-1	9.784182E-1	9.861608E-1	9.696714E-1	1.010632E+0	9.744471E-1	1.014561E+0	9.874034E-1	9.810904E-1	9.789672E-1	9.508575E-1	9.571907E-1	9.827490E-1	9.713596E-1	1.041091E+0	9.606455E-1	1.011139E+0	9.847039E-1	9.602096E-1	9.748306E-1	1.007803E+0	9.788096E-1	9.631728E-1	1.027287E+0	9.613557E-1	1.008609E+0	9.893454E-1	9.513395E-1	9.750316E-1	9.874194E-1	9.657049E-1	1.005095E+0	1.000174E+0	9.551114E-1	9.640968E-1	9.556101E-1	9.957280E-1	1.021357E+0	9.940043E-1	1.000232E+0	9.908020E-1	9.890538E-1	9.899150E-1	1.023133E+0	9.574022E-1	9.771651E-1	9.786680E-1	9.762046E-1	9.527958E-1	9.574333E-1	9.931330E-1	1.014352E+0	9.687607E-1	9.835540E-1	1.022417E+0	9.946146E-1	9.682490E-1	9.621457E-1	9.953697E-1	9.873339E-1	9.849709E-1	9.328226E-1	1.010923E+0	1.007316E+0	9.805620E-1	9.708503E-1	9.748554E-1	9.613440E-1	1.017706E+0	9.925708E-1	9.934667E-1	9.669853E-1	1.017693E+0	9.636781E-1	9.753098E-1	9.786855E-1	9.929301E-1	9.540704E-1	9.617299E-1	9.610670E-1	1.015577E+0	9.671606E-1	9.947262E-1	9.886700E-1	9.807735E-1	9.927088E-1	9.765667E-1	1.006401E+0	9.955725E-1	9.455235E-1	9.263501E-1	9.812676E-1	9.870850E-1	9.629402E-1	9.563351E-1	1.007858E+0	9.749064E-1	9.991017E-1	9.657724E-1	9.725147E-1	9.728421E-1	1.011893E+0	9.888154E-1	9.682382E-1	9.996593E-1	9.816427E-1	9.856384E-1	9.677701E-1	9.316832E-1	9.758857E-1	1.018340E+0	1.001469E+0	9.577530E-1	9.694267E-1	9.905658E-1	9.877862E-1	9.565519E-1	1.001925E+0	9.866053E-1	1.020851E+0	9.713668E-1	1.005946E+0	1.003295E+0	1.004799E+0	9.531253E-1	9.764695E-1	9.542365E-1	9.699146E-1	9.947067E-1	9.564192E-1	1.012172E+0	9.937055E-1	9.706883E-1	1.008204E+0	9.703126E-1	1.012411E+0	9.390118E-1	9.846250E-1	1.005833E+0	9.693180E-1	9.862533E-1	9.590450E-1	9.416401E-1	9.782155E-1	1.001874E+0	1.010665E+0
