Photon Energy (eV)	#1	#2	#3	#4	#5	#6	#7	#8	#9	#10	#11	#12	#13	#14	#15	#16	#17	#18	#19	#20	#21	#22	#23	#24	#25	#26	#27	#28	#29	#30	#31	#32	#33	#34	#35	#36	#37	#38	#39	#40	#41	#42	#43	#44	#45	#46	#47	#48	#49	#50	#51	#52	#53	#54	#55	#56	#57	#58	#59	#60	#61	#62	#63	#64	#65	#66	#67	#68	#69	#70	#71	#72	#73	#74	#75	#76	#77	#78	#79	#80	#81	#82	#83	#84	#85	#86	#87	#88	#89	#90	#91	#92	#93	#94	#95	#96	#97	#98	#99	#100	#101	#102	#103	#104	#105	#106	#107	#108	#109	#110	#111	#112	#113	#114	#115	#116	#117	#118	#119	#120	#121	#122	#123	#124	#125	#126	#127	#128	#129	#130	#131	#132	#133	#134	#135	#136	#137	#138	#139	#140	#141	#142	#143	#144	#145	#146	#147	#148	#149	#150	#151	#152	#153	#154	#155	#156	#157	#158	#159	#160	#161	#162	#163	
2.790010E+2	-1.017143E-2	-7.628119E-4	5.153550E-3	2.554049E-3	-1.073438E-2	-9.713831E-3	-1.055120E-2	-2.883623E-3	6.939326E-3	3.566554E-3	-5.671793E-3	-1.128996E-2	1.693098E-3	3.378336E-4	-6.719853E-3	-3.971677E-3	-1.083386E-2	-5.180903E-3	-6.629919E-4	-1.072076E-2	-3.090264E-3	-6.738279E-3	-1.775079E-3	-3.960038E-3	9.367240E-4	-6.758404E-3	-2.354251E-3	-9.204748E-4	8.545200E-4	-7.173405E-3	-3.930742E-3	6.228011E-3	-3.133178E-3	-5.284891E-3	-4.487627E-3	-5.188252E-3	-4.116860E-3	-3.265090E-3	6.577067E-4	-8.170870E-3	2.973202E-3	4.599674E-3	-6.177222E-3	-1.199277E-2	-7.396297E-3	-1.017179E-2	-1.128688E-2	4.840405E-3	-2.657480E-3	-9.217279E-3	2.581160E-3	-9.311505E-3	-2.226519E-3	-3.573662E-3	2.495615E-3	-6.786573E-3	-7.811842E-3	-7.784678E-3	-8.145510E-3	5.641448E-3	3.342054E-3	-4.012162E-4	-1.186740E-3	-2.398704E-3	-1.263517E-2	-9.291252E-3	-6.167369E-3	-2.375269E-3	-1.357055E-2	-4.517758E-3	-1.038290E-2	-2.376122E-3	-6.810097E-3	-4.021800E-3	4.767073E-3	-4.483211E-3	3.166783E-4	-7.303778E-3	-4.850470E-3	-3.231145E-3	-7.188020E-3	-3.041908E-3	-4.519004E-3	-2.878115E-3	-9.173290E-3	-9.035169E-3	-1.019402E-2	4.491991E-3	-6.182566E-3	-1.196002E-3	-8.461642E-3	6.741486E-3	-1.072955E-2	1.564068E-4	1.216883E-2	-5.477788E-4	-5.227929E-3	4.026679E-3	2.950464E-4	1.230298E-3	-1.230419E-2	-5.428651E-3	1.123672E-3	2.344857E-3	4.981766E-3	-7.060089E-3	-2.345065E-3	1.437127E-3	-9.967245E-3	-1.022007E-2	1.114461E-2	-2.236963E-3	-1.181924E-2	-2.806821E-3	2.341515E-3	1.543857E-2	-6.407733E-3	-5.719121E-3	-2.611604E-3	-1.101386E-2	-3.586438E-3	-5.410038E-3	-1.129414E-4	-2.257255E-3	-9.304021E-3	-5.038135E-3	-9.208778E-3	-3.546132E-3	4.689121E-4	-2.752040E-4	-1.020406E-2	-7.471946E-3	6.732175E-3	-2.091489E-3	-1.055046E-3	-5.334724E-4	-1.145495E-2	8.289447E-3	1.490920E-4	-2.206397E-3	-4.211064E-3	-1.271295E-3	-4.220544E-3	-9.543499E-4	-7.430436E-3	-1.080720E-2	-5.346523E-3	1.002949E-2	-2.774140E-3	-1.551580E-3	-1.570066E-3	4.248173E-4	6.695918E-3	-3.971536E-3	4.846703E-4	-5.165882E-3	-6.501818E-3	9.340210E-3	5.881130E-4	-7.706424E-3	-3.030899E-3	-1.014494E-2	2.245769E-3
2.795040E+2	-5.845443E-3	-4.643214E-3	-1.056224E-2	-3.029422E-3	-2.570463E-3	7.052149E-3	5.964215E-3	-3.215973E-4	-4.341277E-3	-1.492418E-3	5.121018E-3	-3.851283E-3	-9.545434E-3	2.524040E-3	-9.276731E-3	-2.448683E-3	5.155538E-3	-2.657512E-3	1.824934E-3	6.034417E-4	-4.294509E-3	-5.303290E-3	-1.579270E-3	-1.217605E-2	-3.493858E-3	-6.565455E-3	-1.369727E-3	-1.520236E-3	-7.144067E-3	-4.301077E-3	-6.007885E-3	-9.880293E-3	-4.421579E-3	-2.151883E-3	-2.558625E-3	5.476985E-3	-5.347174E-3	3.801004E-3	-5.704958E-3	-3.853639E-5	-3.065871E-3	-5.017640E-3	-2.785141E-3	7.679718E-3	2.243234E-3	2.651168E-3	1.376044E-3	-5.346744E-3	4.857285E-3	-3.613425E-3	-3.699239E-3	2.549855E-3	-2.743292E-3	1.471818E-3	-1.152865E-2	-1.810544E-2	5.720164E-3	-4.439182E-3	5.323388E-3	-1.081600E-2	-4.535280E-3	2.601005E-3	-6.182010E-3	5.066441E-3	2.102913E-3	-1.996446E-3	8.911870E-3	-2.894762E-3	6.295225E-3	3.295659E-3	-6.105603E-3	3.784298E-3	-2.534001E-3	-3.847748E-3	-4.159808E-3	-6.317957E-4	5.356184E-4	1.826751E-3	7.822295E-3	-6.043983E-3	-3.105213E-3	9.695355E-3	5.300266E-3	-6.053063E-3	5.964516E-3	-6.742087E-3	-3.425889E-3	-1.007357E-3	-1.064877E-2	-2.719491E-4	1.464923E-3	-1.054611E-2	-1.042525E-2	3.077936E-3	-1.145593E-2	-3.240719E-3	-7.394417E-3	-7.029718E-3	-6.329298E-3	-1.451636E-2	-6.148611E-3	-5.258457E-3	-1.590542E-2	8.771122E-3	-7.812607E-3	-1.351415E-2	-6.352047E-3	9.769528E-3	-1.436401E-3	4.963491E-3	-7.934230E-3	-2.516083E-5	-5.031924E-3	-6.448935E-3	-1.219990E-2	-3.023996E-3	-2.656136E-3	-5.509314E-3	1.662968E-3	-8.458129E-4	-7.161288E-3	-8.134208E-3	-2.389212E-3	-8.086584E-3	-2.493316E-3	1.101347E-3	-7.203758E-3	-1.899172E-3	-8.782547E-4	-1.542921E-2	-1.602426E-3	-5.445201E-3	-6.765296E-3	-1.058346E-2	-7.850470E-3	-5.160576E-3	7.369603E-3	-5.622050E-3	-4.900900E-4	-1.092559E-2	-2.535181E-3	-1.190170E-3	-4.773837E-3	-6.063297E-3	-4.879154E-3	-6.305066E-3	-1.330755E-3	-1.055178E-3	-6.474988E-3	-5.866243E-3	-2.992973E-3	1.304406E-3	-7.559154E-3	-5.343284E-3	-9.467906E-3	-4.985362E-3	-7.043783E-3	-1.860409E-3	-4.743349E-3	1.302708E-3	-2.852434E-3	-2.763536E-3	-7.280650E-3
2.800020E+2	1.303024E-3	-3.090025E-3	7.546222E-4	-9.507597E-3	-1.055765E-3	-3.333435E-3	-8.557128E-4	-8.049840E-3	3.699443E-3	1.420588E-3	-1.004417E-2	6.521107E-3	8.071901E-3	-1.620327E-3	5.836343E-3	-1.076399E-3	5.099869E-3	-6.562675E-3	1.968456E-4	-1.045143E-2	-1.541588E-3	1.684344E-3	-2.227016E-5	-6.901176E-3	-8.108231E-3	-4.517058E-3	-5.848214E-3	-8.349016E-3	1.605689E-3	-2.993069E-3	6.762782E-3	-7.908045E-3	-2.204430E-3	-2.858884E-3	-4.272325E-3	-8.988704E-3	4.304782E-3	-1.803950E-3	-2.508817E-3	-2.462150E-3	-7.696885E-3	4.651904E-3	3.464488E-3	-1.251688E-2	3.627243E-3	-4.408703E-3	-7.910284E-4	-1.432172E-2	-2.474615E-3	1.629510E-3	-5.370047E-3	-1.213591E-2	2.416410E-4	2.241765E-5	-1.873377E-2	-8.086143E-3	3.709242E-4	-4.507985E-3	-2.996621E-3	-3.894848E-3	-7.788847E-3	1.816649E-3	-2.508379E-3	-6.607142E-3	-6.933668E-3	4.196853E-3	3.391016E-3	-7.903314E-3	-1.399276E-2	-3.025123E-3	2.275255E-3	-3.738003E-3	-7.432850E-3	2.531503E-3	3.737913E-4	-4.236153E-3	-5.374464E-3	-7.096909E-3	3.874282E-4	-3.079268E-3	-2.409283E-3	-4.313182E-4	-5.060511E-3	-1.675884E-3	-5.393430E-3	-5.924835E-4	2.947436E-3	-6.792491E-3	-1.071646E-2	6.240586E-3	-4.801803E-3	-8.242407E-3	-2.425003E-3	-1.314949E-2	-5.369381E-3	-1.148994E-3	1.369541E-3	-7.895752E-3	-5.511899E-3	-1.933796E-3	-1.500983E-2	5.715796E-4	-3.447205E-3	-1.091930E-2	-8.677607E-3	-6.610905E-5	-4.721881E-3	-1.141928E-2	-2.250781E-3	-7.767852E-3	2.245473E-3	-5.025426E-3	-6.727839E-3	2.741716E-3	-8.992195E-3	-1.493766E-3	-2.713518E-3	-4.987628E-4	7.833572E-4	-9.111345E-4	-1.023432E-2	-1.841902E-4	1.361095E-4	-3.691415E-4	-4.000681E-3	2.520944E-3	3.633034E-3	-5.654242E-3	2.022093E-3	-5.556052E-3	5.599323E-3	-5.503218E-3	-1.865944E-3	-6.030688E-3	4.408390E-3	-5.223217E-3	4.978178E-3	-1.149958E-2	-2.261258E-3	5.197171E-3	5.644049E-3	-1.127292E-2	-8.717837E-4	7.050225E-4	-6.451126E-3	-2.248072E-3	-5.197689E-3	-1.915954E-3	-7.311109E-3	-8.860905E-3	5.198316E-3	-8.242832E-3	1.403220E-3	-6.147886E-3	-8.747678E-3	5.493797E-4	3.714401E-3	-8.619247E-3	-1.234793E-4	5.071955E-4	-6.022017E-3	3.125193E-3	-8.816402E-3
2.805050E+2	-3.491584E-3	3.420909E-3	-4.195161E-4	-2.854262E-3	-4.917625E-3	1.546604E-3	1.004248E-3	-3.944763E-3	-1.905491E-3	-1.101852E-2	-2.399321E-3	-1.155365E-2	-8.839503E-3	-7.744491E-3	-5.228044E-4	1.059793E-3	-2.665082E-3	-6.520672E-3	-6.536633E-3	-7.713303E-4	-5.687943E-3	-1.103484E-2	-4.530018E-4	-8.839966E-3	-2.784166E-4	-1.624798E-3	-2.550612E-3	-5.866018E-3	-7.134481E-3	-5.599568E-3	2.565209E-3	-9.086843E-3	-8.024158E-3	-1.390778E-2	-4.615242E-3	1.528343E-3	1.601450E-3	-5.197266E-3	-2.802283E-3	-9.345486E-3	2.301130E-3	-1.262051E-3	-2.845712E-3	-1.058582E-2	2.243090E-3	-5.755664E-3	-4.128417E-3	-5.307272E-3	7.352193E-3	1.566669E-4	5.131148E-3	-6.703889E-3	-1.043954E-2	-4.120406E-3	3.133525E-3	-6.563734E-3	-3.097774E-3	1.668849E-3	-8.539459E-3	-3.829089E-3	4.178944E-3	-1.311471E-2	-5.346133E-4	-8.018888E-3	-6.543297E-4	-2.778564E-3	-5.125281E-3	-1.334176E-3	-6.481387E-3	-5.762641E-3	-7.806101E-4	-1.037145E-2	-4.190630E-3	-9.597492E-3	-2.684341E-3	3.738647E-3	-6.127963E-3	-1.897070E-3	2.869959E-3	-5.307607E-3	-2.373019E-3	-5.841663E-3	-1.679208E-2	-5.235963E-3	-1.131645E-3	8.421986E-3	-4.244001E-3	-7.580610E-3	-4.407531E-3	-1.053261E-2	-7.891535E-4	-1.135581E-2	-9.188740E-4	-8.190026E-3	2.297031E-3	3.197774E-3	1.104792E-2	2.464452E-3	-3.759249E-3	-6.127089E-3	-8.380478E-3	-8.219210E-3	9.103919E-3	-3.820047E-3	-1.383368E-3	-1.711022E-3	-8.083375E-3	-2.452874E-3	-1.457698E-3	-1.024580E-3	-1.365461E-3	-1.627137E-2	3.042120E-3	-7.244610E-3	2.455625E-3	-1.664826E-2	-1.123010E-2	-9.131262E-3	-3.216225E-3	-2.381831E-3	-1.322475E-2	4.969652E-3	-1.106149E-2	5.412765E-4	-1.056489E-3	1.084748E-3	-4.716306E-3	3.126918E-4	-3.857502E-3	-6.276385E-3	1.200988E-2	-2.952292E-3	-2.516890E-3	-7.144217E-4	-4.357469E-3	2.756441E-3	-6.546244E-3	-4.899537E-3	-1.373516E-3	-9.154985E-3	-1.079469E-2	-4.816367E-4	-1.273479E-2	-8.280319E-3	-5.655169E-3	-7.151406E-3	-4.395219E-3	-7.006693E-3	-8.814190E-3	2.207901E-3	-4.679618E-3	-2.588490E-3	-5.326091E-3	-6.096205E-3	-9.376379E-4	-6.556273E-3	-1.170936E-2	-3.362744E-3	-4.766921E-3	-7.465081E-3	-5.974672E-3	-6.757039E-3	-4.376272E-3
2.810050E+2	-1.805652E-2	-8.226147E-4	-2.931124E-3	-5.917989E-4	-5.066171E-3	-3.439629E-3	1.661711E-4	6.087386E-4	-4.512580E-3	-7.485966E-3	-1.058061E-2	-1.409596E-3	-7.570943E-3	5.116687E-3	-4.491517E-3	-7.960440E-3	-1.447956E-2	-5.907845E-3	4.037862E-4	-6.062788E-3	-9.397788E-4	-3.180969E-4	-4.574837E-3	1.707017E-3	-1.194772E-3	-5.264492E-3	-9.294411E-3	4.133013E-5	-4.360198E-3	-7.745522E-3	-8.301685E-3	-1.851762E-3	4.266864E-3	-2.959637E-3	9.562599E-3	-1.217938E-2	-1.168791E-2	-4.644799E-3	-4.731039E-3	-6.177009E-3	-4.726352E-3	-1.405947E-2	-8.188367E-3	7.387036E-3	-3.633760E-3	-8.664337E-3	-1.340344E-2	-9.379878E-4	-9.093011E-3	-1.211547E-2	-1.402436E-2	-3.682363E-3	-7.445202E-4	-8.449347E-4	1.257931E-3	-1.137436E-3	-4.092594E-3	-4.565628E-3	2.000286E-3	6.770713E-3	-4.724852E-3	-1.106806E-2	-1.032874E-3	-8.106446E-3	1.752766E-3	-5.690609E-3	-3.563263E-3	-6.380413E-4	-4.448245E-3	-6.584687E-3	-1.007223E-2	-6.040957E-3	-6.851576E-3	3.141132E-3	-2.764823E-4	-1.054464E-2	-9.936395E-3	-1.312657E-3	-9.122178E-3	-4.684758E-3	7.311768E-3	-1.063101E-2	-6.639391E-4	-3.575379E-3	-6.670718E-4	-6.884965E-3	-5.289200E-5	-1.264594E-2	-4.602273E-3	-1.283071E-2	-9.691957E-4	5.826262E-3	3.855861E-4	2.890874E-3	-1.104781E-2	-8.381655E-3	-7.576826E-3	6.225334E-3	-3.944257E-3	3.523705E-4	-4.889575E-3	4.848161E-3	3.447080E-3	-4.759388E-3	-7.177119E-3	-8.620289E-3	-7.390119E-3	-4.225785E-3	-2.365199E-3	-1.190289E-3	-1.100419E-2	5.423571E-3	-6.851804E-3	-5.847254E-3	9.579236E-3	-8.790289E-3	1.759853E-5	4.440274E-3	-5.792760E-3	-1.009743E-2	-6.530930E-3	-1.490307E-2	-3.427138E-3	-1.170814E-2	-3.376019E-3	-8.011903E-3	-4.037890E-3	-8.697181E-3	-4.742190E-3	-6.424706E-3	-9.164564E-4	9.413713E-3	-2.676645E-3	-1.134645E-2	-2.760489E-3	-1.165706E-2	-9.766854E-3	-8.678842E-3	-1.537418E-3	-3.913251E-3	-9.424923E-3	-8.498385E-3	5.924413E-4	-8.760141E-4	-2.015115E-3	9.210547E-4	-7.574025E-3	-1.970623E-3	4.876133E-3	1.305941E-3	-1.528746E-3	-7.513656E-3	-2.460271E-3	-2.555545E-3	2.782523E-3	-5.117639E-3	-2.580199E-3	-1.093368E-2	-1.347503E-2	-1.051409E-2	-3.019068E-3	-4.933206E-3	-1.771682E-2
2.815020E+2	-2.254066E-3	-7.443152E-3	-3.860027E-3	-8.081975E-3	-9.081415E-3	4.619185E-3	-3.343469E-3	-9.752980E-3	-1.832099E-2	1.126205E-3	-1.467191E-3	-7.943363E-4	-6.309867E-3	1.790681E-4	-5.271954E-3	-2.660370E-3	-1.419374E-3	5.876849E-5	-1.394479E-2	1.101792E-3	2.383346E-3	-4.672402E-4	-5.957309E-3	-3.036167E-3	-5.955913E-3	5.701799E-3	-2.247789E-3	-4.633252E-3	-8.875094E-3	-1.820116E-3	7.770480E-4	8.000569E-3	8.454659E-3	-1.785436E-4	-8.947971E-3	6.831477E-3	-2.853320E-3	-4.785652E-3	-2.809418E-3	1.544399E-3	7.233259E-3	-2.893902E-5	-1.198571E-3	1.488290E-3	-3.680771E-3	-1.805255E-3	8.842067E-3	-2.261503E-3	-7.601274E-3	4.328513E-3	-2.105847E-3	-1.305168E-2	-4.697573E-3	-5.797400E-3	2.387611E-3	-2.859797E-3	1.827486E-3	2.902573E-3	-7.442433E-3	-3.045848E-3	-1.516134E-2	-1.274998E-3	-5.088765E-4	-3.301355E-4	-7.350170E-3	-7.899350E-3	-5.321013E-3	-8.090393E-3	2.793364E-3	-6.718645E-3	1.954744E-3	-7.631007E-3	-6.684561E-4	-1.195790E-2	-1.005793E-2	-1.963112E-4	8.152667E-4	-2.932600E-3	-6.367405E-3	3.428167E-3	-5.694215E-3	-2.337942E-3	1.492868E-3	-6.314061E-3	5.820928E-4	-6.992204E-3	7.341963E-3	2.941408E-3	3.026778E-3	-9.269988E-3	-1.243701E-2	-4.093602E-4	-1.219276E-3	-6.332376E-3	-9.840805E-3	-4.159582E-3	-3.734249E-3	2.098480E-3	-5.760815E-3	-1.363177E-3	-7.392991E-4	2.488809E-3	-1.477800E-3	-2.366322E-3	-5.698778E-3	-2.863401E-3	2.879260E-3	-1.788381E-4	-4.747318E-3	-5.767495E-3	-3.425153E-4	-7.322399E-3	-2.978841E-3	1.679356E-3	-3.028149E-3	-1.768613E-3	7.648867E-3	-7.588814E-4	-6.638703E-4	-7.200023E-3	8.684506E-4	-4.151196E-3	-1.240797E-3	-5.820547E-3	-1.356114E-3	-9.635044E-3	-1.839725E-3	2.204252E-3	-1.076476E-2	-1.263321E-3	-1.193352E-2	-1.073104E-2	-3.538220E-3	-1.682502E-3	-9.044845E-3	-2.337307E-3	-1.472385E-3	-8.104133E-3	-1.013132E-2	-1.121082E-2	-4.343819E-3	3.455969E-3	5.160128E-3	1.229379E-3	-4.418350E-3	-4.969484E-3	-2.427329E-3	-4.021746E-4	-6.030939E-3	-9.811453E-3	-8.251956E-3	-5.295315E-3	-3.353874E-3	-6.394545E-3	-2.784057E-3	9.780217E-3	1.109463E-2	7.782192E-4	1.915650E-3	-2.622131E-3	5.324200E-3	2.793165E-3	-1.774969E-3
2.820030E+2	-9.936225E-4	-2.169390E-3	-5.057561E-3	-2.762417E-3	8.457103E-3	-1.284713E-2	3.165728E-3	1.679759E-3	-3.430066E-3	1.043502E-2	4.028290E-3	-1.938715E-3	-4.496436E-3	3.358475E-3	7.291535E-3	2.558196E-3	3.686555E-3	-4.880061E-3	6.420963E-3	5.242171E-3	-3.484397E-3	2.545162E-3	-4.337970E-4	2.049260E-2	7.532764E-3	-3.607145E-3	-1.221937E-3	-4.170778E-4	-4.824827E-3	6.065852E-3	1.923035E-3	-2.443748E-4	-4.292555E-3	1.720214E-3	5.284864E-3	1.147230E-4	3.850749E-3	-2.957725E-3	1.029751E-2	6.802111E-3	-2.141776E-3	3.912048E-4	2.154354E-3	5.287649E-3	-6.172334E-3	-6.394606E-4	-5.195278E-4	5.594843E-3	5.105864E-3	1.827458E-3	3.488535E-3	1.292536E-2	-4.158004E-3	9.328351E-4	9.461201E-4	5.508171E-3	9.377042E-3	4.202910E-3	-6.985859E-3	6.240355E-3	-1.229247E-3	8.498997E-3	5.024577E-3	-5.769645E-4	4.835856E-3	8.965881E-4	-7.076399E-3	8.752809E-3	7.161724E-3	2.084569E-3	3.157329E-3	8.452665E-3	4.810271E-3	9.260630E-3	-5.936645E-3	8.357005E-3	-2.352956E-3	4.184820E-3	-7.451401E-3	1.457759E-2	-7.571749E-3	-8.039437E-3	1.329451E-3	1.029369E-2	-5.249297E-3	-6.572099E-3	-1.306911E-3	9.248495E-3	1.796072E-2	6.527024E-3	-2.969545E-4	6.463703E-3	-7.559467E-4	4.693984E-3	6.415788E-3	-1.588339E-3	1.569297E-3	-6.113614E-3	7.664089E-3	2.562074E-3	1.904527E-2	-2.120974E-3	-3.250027E-3	1.393796E-3	5.275990E-3	8.665775E-3	1.873487E-3	-4.331945E-4	-2.036083E-3	2.909990E-3	4.213367E-3	1.678427E-3	1.603919E-3	-3.236399E-3	5.112877E-3	1.021722E-2	-8.211645E-3	-3.879972E-3	1.276501E-3	3.430671E-3	1.818988E-2	5.195159E-3	-3.886573E-3	5.351793E-3	8.606165E-3	-3.186070E-3	-2.328463E-4	-9.811083E-3	-5.184249E-3	6.167489E-3	-1.289059E-3	-1.883828E-3	-7.298644E-3	2.820483E-3	-1.787027E-3	7.148122E-3	2.149867E-3	1.905173E-3	-7.024216E-3	3.802091E-3	2.152079E-3	3.343842E-3	8.852779E-3	-4.697978E-4	1.199421E-2	7.047361E-3	1.325895E-2	-7.750801E-3	2.166301E-3	9.806090E-3	-1.228399E-3	-2.398541E-3	-3.663963E-3	5.240798E-3	-5.462649E-3	-4.778835E-3	-4.586930E-3	1.027169E-2	8.211889E-5	1.039193E-2	9.024869E-3	-6.577017E-3	3.141133E-3
2.825040E+2	1.909119E-2	1.879462E-3	3.593037E-3	1.443363E-2	1.391322E-2	1.206546E-2	5.194405E-3	1.037179E-2	8.707592E-3	-4.314370E-3	9.632107E-3	9.181225E-3	7.543294E-3	-7.717811E-4	3.463020E-3	-1.854472E-4	2.890485E-3	1.754455E-2	8.562703E-3	1.335371E-2	-2.085114E-3	9.605441E-3	1.108255E-2	1.202485E-2	2.105707E-3	1.040557E-2	1.058539E-2	1.049479E-3	1.357579E-2	4.008136E-3	3.345738E-3	4.445853E-3	1.378807E-4	2.599054E-4	2.946621E-3	1.057541E-2	8.013135E-3	2.571276E-3	4.675571E-3	9.163679E-3	1.391186E-4	4.886418E-3	1.419997E-3	6.930286E-3	2.563959E-3	1.483833E-2	-5.133635E-4	8.374390E-4	6.725818E-3	4.106563E-3	-8.186395E-4	1.212063E-2	1.791842E-2	4.342567E-3	1.145810E-2	1.634331E-2	-3.834871E-3	4.965122E-3	1.748563E-2	-5.246708E-3	1.232725E-2	7.777004E-3	-3.553207E-3	1.324506E-2	1.199923E-2	8.514138E-4	1.731931E-3	2.982775E-3	8.618366E-3	1.674702E-2	1.097529E-3	1.137942E-2	1.278935E-2	8.536239E-3	7.317213E-3	-5.750172E-4	9.389427E-3	8.626620E-3	1.183915E-2	-2.128275E-3	8.428131E-3	1.053905E-2	1.059335E-2	-3.250475E-3	1.878088E-2	8.686148E-3	2.649732E-3	1.818052E-3	1.080452E-2	1.681773E-2	1.082363E-2	8.045519E-3	1.321420E-2	7.524555E-3	5.691603E-3	7.071142E-3	-2.472735E-3	8.226570E-3	3.828240E-3	6.787824E-3	7.967222E-3	8.247604E-3	3.372158E-3	2.972481E-3	1.336661E-2	1.798333E-2	1.146857E-2	3.775533E-4	8.499411E-3	1.114103E-2	5.612306E-3	1.091853E-2	2.112780E-2	-1.427580E-4	-3.686491E-3	3.755107E-3	7.563919E-3	7.029421E-3	-4.227142E-3	2.662665E-3	6.477103E-4	1.180575E-2	7.427875E-3	1.145840E-2	1.225257E-2	5.814788E-3	6.048087E-3	1.105414E-2	3.003616E-3	7.700333E-3	-1.750634E-3	1.001898E-2	8.378864E-3	6.817399E-3	5.491269E-3	8.968195E-3	7.604908E-3	1.586128E-2	6.340776E-3	6.706567E-3	1.497227E-2	3.377808E-3	-2.028267E-3	7.228186E-3	1.505000E-2	1.119855E-2	7.678391E-3	7.189093E-3	3.744255E-3	3.208392E-3	2.805515E-3	1.799008E-2	3.172774E-3	1.349352E-2	1.044871E-2	2.651646E-3	8.642692E-3	2.080888E-3	6.043807E-3	1.048325E-2	4.350095E-3	7.424823E-3	2.302493E-2
2.830060E+2	2.041845E-2	1.363084E-2	1.332926E-2	9.839789E-3	1.105549E-2	4.050632E-3	-7.443809E-4	1.229251E-2	1.316404E-2	7.762903E-3	1.138168E-2	1.513520E-2	1.945389E-2	-1.379505E-3	9.691961E-3	1.468503E-2	1.256543E-2	1.410635E-2	3.735188E-3	7.705197E-3	1.874025E-2	1.002680E-2	3.713010E-3	6.889365E-4	8.455996E-3	1.222998E-2	1.430156E-2	2.061527E-2	1.630267E-2	1.955877E-2	2.866500E-3	1.029688E-2	9.216497E-3	2.536150E-2	7.087706E-3	1.829403E-3	6.235152E-3	1.628220E-2	2.925730E-3	8.683863E-3	4.984174E-3	5.838901E-3	1.415617E-2	6.322487E-3	1.020564E-2	1.395572E-2	2.042455E-2	1.690254E-2	-2.214781E-3	1.289747E-2	1.481729E-2	1.728949E-2	6.849390E-3	7.566764E-3	8.583519E-3	2.168764E-2	1.541465E-3	7.558018E-3	9.300582E-3	8.179980E-3	1.359133E-2	5.165323E-3	1.048212E-2	7.726780E-3	6.882575E-3	2.171137E-2	1.321851E-2	1.150037E-2	1.362426E-2	4.481606E-3	1.885649E-2	6.541155E-3	1.088799E-2	5.955438E-3	1.065713E-2	8.571479E-3	1.273479E-2	5.904823E-3	4.872618E-3	6.469279E-3	1.260160E-2	1.008887E-2	8.319606E-3	1.868925E-2	-3.712756E-3	1.971087E-2	6.284579E-3	9.526447E-3	4.765583E-3	4.515919E-3	1.546721E-2	3.476722E-3	1.287412E-2	9.328134E-3	1.114067E-2	8.798152E-3	1.241940E-2	-2.002431E-3	1.351814E-2	1.300786E-2	2.045949E-2	4.871138E-3	7.033622E-3	6.382802E-3	7.125112E-3	7.185959E-3	1.267117E-2	7.125768E-3	1.576131E-2	6.955771E-3	-2.569352E-3	1.286079E-2	7.635811E-3	2.130570E-2	8.417480E-3	2.314030E-3	1.598875E-2	1.402762E-2	1.278878E-2	2.635676E-2	2.103168E-2	1.081214E-2	1.455417E-2	1.089020E-2	7.279038E-4	1.534932E-2	1.755818E-2	1.603673E-2	1.993234E-2	2.135705E-2	1.008695E-2	1.455483E-2	9.550600E-3	2.281112E-2	1.695569E-2	6.038880E-3	7.137874E-3	1.274825E-2	1.632795E-2	2.170522E-2	8.541283E-3	1.253679E-2	1.002387E-2	7.481190E-3	3.805136E-3	1.231426E-2	5.334195E-3	2.882846E-3	2.061868E-2	9.561856E-3	1.224793E-2	6.319533E-3	1.109144E-2	1.177468E-2	1.368402E-2	1.362275E-2	8.970366E-3	2.305077E-3	1.447909E-2	5.622649E-3	2.199926E-3	1.783256E-2	1.155328E-2
2.835020E+2	5.921068E-3	2.087045E-2	2.025608E-2	8.518013E-3	1.138266E-2	1.957773E-2	2.420544E-2	1.768368E-2	1.812341E-3	1.195938E-2	2.755643E-2	1.730721E-2	5.320861E-3	3.251535E-2	1.357523E-2	1.523466E-2	2.598138E-2	1.380380E-2	2.643220E-2	1.650236E-2	1.197948E-2	1.856252E-2	2.082803E-2	1.623330E-2	2.249941E-2	1.931247E-2	2.028970E-2	1.258315E-2	1.998178E-2	1.317433E-2	1.730692E-2	2.142037E-2	2.949331E-2	1.612436E-2	7.429071E-3	1.967396E-2	2.330630E-2	3.136524E-2	1.211021E-2	2.574545E-2	7.701683E-3	2.255337E-2	1.622880E-2	2.914498E-2	1.290008E-2	3.440105E-2	1.737599E-2	1.335730E-2	1.326895E-2	1.574789E-2	5.691376E-3	1.460181E-2	7.999751E-3	1.885615E-2	2.071116E-2	2.238653E-2	-1.134712E-3	1.513102E-2	1.808044E-2	2.499249E-2	1.077131E-2	2.715196E-2	2.218642E-2	1.187873E-2	1.467447E-2	3.116290E-2	2.989453E-2	1.528375E-2	1.804018E-2	2.524679E-2	2.165921E-2	1.934076E-2	3.830426E-3	3.259387E-2	1.261448E-2	3.476793E-2	2.547616E-2	2.786658E-2	8.515471E-3	2.499932E-2	2.654879E-2	2.986404E-2	1.012090E-2	2.944604E-2	1.790572E-2	1.895120E-2	1.217554E-2	2.793680E-2	-6.490237E-3	1.166258E-2	2.180651E-2	1.120418E-2	2.254817E-2	9.770405E-3	2.817829E-2	1.214762E-2	2.548476E-2	2.564400E-2	1.649962E-2	3.458433E-2	2.120017E-2	1.916888E-2	1.780684E-2	9.153262E-3	1.587250E-2	1.720927E-2	2.861862E-2	1.164351E-2	1.395343E-2	1.513598E-2	7.099108E-3	1.865179E-2	1.653729E-2	2.030942E-2	4.245104E-3	1.853537E-2	1.285909E-2	1.606910E-2	1.333670E-2	2.232962E-2	1.768488E-2	1.057933E-2	2.519575E-2	2.858992E-2	1.539842E-2	1.909235E-2	1.241146E-2	2.674256E-2	2.056842E-2	2.446850E-2	1.133399E-2	3.345550E-2	1.157154E-2	1.679443E-2	1.758297E-2	2.483458E-2	1.561186E-2	3.785847E-2	2.073546E-2	1.178636E-2	4.235278E-3	1.462745E-2	2.342558E-2	1.893195E-2	1.833840E-2	2.044761E-2	2.545028E-2	1.660075E-2	1.726963E-2	1.161957E-2	1.941630E-2	1.596094E-2	1.782405E-2	1.471817E-3	1.568211E-2	2.678170E-2	2.802375E-2	2.134332E-2	2.207173E-2	1.985682E-2	1.794940E-2	1.833792E-2	5.354535E-3
2.840030E+2	5.011229E-2	5.025073E-2	5.368437E-2	5.278568E-2	5.525732E-2	4.703510E-2	4.608506E-2	4.877660E-2	2.723041E-2	4.636440E-2	4.929727E-2	4.768237E-2	4.436860E-2	3.645769E-2	3.481119E-2	5.404554E-2	5.600222E-2	4.995605E-2	6.102976E-2	4.078921E-2	5.373305E-2	4.406704E-2	4.911804E-2	3.915600E-2	5.127432E-2	4.254925E-2	5.333945E-2	4.566983E-2	5.777783E-2	4.722468E-2	3.861006E-2	4.898111E-2	4.212366E-2	5.001967E-2	4.083164E-2	5.654723E-2	4.501380E-2	6.212526E-2	3.903680E-2	4.543492E-2	5.900204E-2	6.663952E-2	4.772296E-2	5.944931E-2	4.231030E-2	5.968625E-2	4.739399E-2	4.964120E-2	4.444174E-2	5.386702E-2	4.230696E-2	5.837256E-2	4.847683E-2	5.522773E-2	5.320020E-2	5.922417E-2	4.605293E-2	4.128909E-2	5.664002E-2	6.166371E-2	4.462012E-2	4.645084E-2	4.528248E-2	5.073471E-2	5.935687E-2	5.837657E-2	4.753098E-2	5.804062E-2	5.814856E-2	5.906923E-2	5.925141E-2	5.599977E-2	4.746474E-2	3.520752E-2	4.864980E-2	3.774509E-2	5.466271E-2	5.969808E-2	4.085691E-2	5.345497E-2	5.430526E-2	5.316153E-2	4.819959E-2	6.367642E-2	4.909509E-2	5.611394E-2	4.170389E-2	4.880842E-2	5.138607E-2	5.620241E-2	5.234868E-2	3.979991E-2	4.536080E-2	5.419143E-2	6.621917E-2	5.202803E-2	5.737662E-2	4.702935E-2	4.935479E-2	3.734463E-2	3.705225E-2	5.802398E-2	6.105390E-2	4.694108E-2	3.377696E-2	3.141812E-2	4.305396E-2	4.801874E-2	5.322449E-2	6.462648E-2	4.039648E-2	4.533797E-2	5.990730E-2	3.011739E-2	6.354208E-2	4.768874E-2	5.031947E-2	4.941239E-2	5.086283E-2	7.154000E-2	6.481216E-2	5.916886E-2	4.529803E-2	4.535013E-2	5.503543E-2	4.316060E-2	5.414010E-2	3.565558E-2	5.396613E-2	4.422732E-2	3.470244E-2	6.146694E-2	5.642927E-2	3.958076E-2	6.193331E-2	4.804110E-2	5.609524E-2	4.781567E-2	4.489080E-2	5.107455E-2	4.248290E-2	4.774028E-2	5.082616E-2	5.707934E-2	6.620285E-2	4.230849E-2	6.158799E-2	5.898867E-2	4.532519E-2	5.652322E-2	4.822330E-2	4.765209E-2	5.083871E-2	4.092676E-2	5.459790E-2	4.151950E-2	5.887318E-2	5.658703E-2	4.697797E-2	6.090928E-2	5.458252E-2	5.099633E-2	4.491454E-2
2.841030E+2	6.077643E-2	4.796911E-2	6.921493E-2	5.050138E-2	6.742630E-2	5.853644E-2	5.152097E-2	6.870484E-2	5.996216E-2	7.125720E-2	5.761699E-2	6.855823E-2	5.622526E-2	6.853708E-2	7.357709E-2	5.769562E-2	6.736147E-2	6.276324E-2	5.526616E-2	6.798583E-2	5.785886E-2	7.268470E-2	6.467986E-2	6.096193E-2	6.676300E-2	6.470389E-2	5.796035E-2	5.828054E-2	5.736799E-2	4.615018E-2	5.270505E-2	6.236998E-2	6.382145E-2	6.407656E-2	6.678014E-2	7.334104E-2	6.627557E-2	5.731885E-2	5.665177E-2	7.744645E-2	4.527022E-2	5.815899E-2	5.578084E-2	7.764844E-2	7.158316E-2	6.763624E-2	5.311411E-2	8.127849E-2	5.613988E-2	6.485127E-2	5.182278E-2	5.706780E-2	7.243311E-2	5.469858E-2	6.201579E-2	7.715509E-2	6.430878E-2	6.059601E-2	6.241911E-2	6.395366E-2	8.006705E-2	5.446633E-2	5.019284E-2	9.255652E-2	5.006728E-2	5.411915E-2	5.167242E-2	6.106413E-2	6.653215E-2	7.969906E-2	4.781269E-2	5.954622E-2	5.719963E-2	6.175886E-2	4.343798E-2	6.669438E-2	5.730910E-2	6.167145E-2	6.016796E-2	6.280705E-2	6.528961E-2	6.514027E-2	5.066947E-2	8.625399E-2	5.731138E-2	6.475424E-2	5.200510E-2	4.821319E-2	6.104177E-2	5.811755E-2	6.763930E-2	4.794805E-2	7.173168E-2	6.517310E-2	5.031588E-2	6.490406E-2	6.118432E-2	5.077993E-2	6.116395E-2	5.043006E-2	5.235364E-2	7.590076E-2	7.212114E-2	5.662389E-2	6.621559E-2	6.262899E-2	4.495663E-2	6.593091E-2	6.327811E-2	4.733939E-2	5.194942E-2	6.858194E-2	5.943708E-2	7.029239E-2	7.262320E-2	5.928289E-2	6.376947E-2	7.319715E-2	5.714179E-2	7.937700E-2	5.946400E-2	4.771358E-2	8.448770E-2	4.661591E-2	6.793363E-2	6.364012E-2	7.979684E-2	6.397566E-2	5.833402E-2	8.492409E-2	6.676640E-2	5.820801E-2	7.136695E-2	6.762707E-2	6.468539E-2	6.649194E-2	5.813666E-2	7.416075E-2	7.257740E-2	4.848281E-2	7.435899E-2	4.887139E-2	8.018937E-2	7.216202E-2	7.071677E-2	7.015022E-2	6.499716E-2	6.587633E-2	5.989278E-2	5.691288E-2	7.215306E-2	7.044687E-2	7.645626E-2	7.003574E-2	5.647501E-2	5.826849E-2	6.262183E-2	6.017380E-2	6.101740E-2	6.605840E-2	5.075339E-2	3.635521E-2	6.832330E-2
2.842030E+2	7.150052E-2	6.131298E-2	6.613343E-2	7.925677E-2	7.476590E-2	7.098422E-2	7.613726E-2	6.316914E-2	9.027890E-2	6.621722E-2	7.909340E-2	7.337545E-2	6.230118E-2	7.653750E-2	6.043224E-2	6.561319E-2	7.391591E-2	8.077731E-2	8.053241E-2	5.952053E-2	7.294059E-2	7.127987E-2	8.280418E-2	8.608507E-2	9.298447E-2	7.681274E-2	8.570013E-2	7.151818E-2	7.595614E-2	7.026087E-2	6.794885E-2	6.602194E-2	9.008171E-2	7.754816E-2	7.496202E-2	9.342950E-2	6.913457E-2	6.607555E-2	6.860306E-2	8.974204E-2	5.870074E-2	7.003396E-2	6.954659E-2	8.253927E-2	8.330256E-2	6.749178E-2	8.261928E-2	6.264914E-2	7.507253E-2	7.345679E-2	5.123601E-2	8.589812E-2	7.696386E-2	9.246037E-2	6.813832E-2	7.487035E-2	7.120462E-2	7.931274E-2	7.844553E-2	7.755202E-2	7.278719E-2	8.895691E-2	6.280011E-2	8.281394E-2	6.736421E-2	7.473974E-2	8.773262E-2	5.768420E-2	6.424315E-2	7.572568E-2	6.668488E-2	6.766396E-2	7.745271E-2	7.462288E-2	7.379108E-2	9.485707E-2	7.430446E-2	8.209464E-2	8.116077E-2	8.703772E-2	7.472868E-2	8.283071E-2	7.324276E-2	7.910095E-2	7.231858E-2	7.196517E-2	8.312733E-2	8.127849E-2	6.467362E-2	7.595621E-2	8.696845E-2	8.618380E-2	7.697694E-2	6.713659E-2	8.270219E-2	7.549153E-2	5.620852E-2	5.442894E-2	7.477335E-2	6.797852E-2	6.047801E-2	8.046512E-2	6.333713E-2	7.581675E-2	7.709771E-2	8.682127E-2	7.162168E-2	7.244965E-2	8.245887E-2	7.923597E-2	7.648877E-2	6.060473E-2	8.800866E-2	8.161044E-2	6.755105E-2	7.006356E-2	7.199351E-2	5.712289E-2	7.850447E-2	1.049150E-1	7.304146E-2	6.069875E-2	7.767390E-2	6.849789E-2	7.393685E-2	8.035226E-2	6.840671E-2	6.842832E-2	7.808601E-2	7.389042E-2	6.980055E-2	5.931375E-2	8.355959E-2	6.535171E-2	7.541518E-2	7.299302E-2	6.182640E-2	6.601130E-2	6.046429E-2	7.023831E-2	8.878939E-2	5.779043E-2	9.110031E-2	6.765166E-2	6.627816E-2	6.692096E-2	7.460815E-2	6.610659E-2	7.314683E-2	8.214854E-2	7.961980E-2	7.526173E-2	7.473489E-2	5.921855E-2	8.120431E-2	1.197626E-1	7.404176E-2	8.330368E-2	7.117367E-2	6.330717E-2	5.871760E-2	5.577914E-2	7.737136E-2
2.843040E+2	5.825986E-2	7.907934E-2	8.339558E-2	6.252180E-2	7.915888E-2	1.025925E-1	8.847258E-2	7.207613E-2	9.061580E-2	6.873402E-2	6.039951E-2	7.744323E-2	7.183002E-2	7.532470E-2	8.468680E-2	8.798541E-2	7.829173E-2	6.142123E-2	7.849250E-2	8.206912E-2	1.074607E-1	7.945597E-2	7.267187E-2	8.347672E-2	7.637824E-2	8.716765E-2	7.173868E-2	8.603035E-2	7.398587E-2	8.552100E-2	7.362155E-2	7.751448E-2	7.757117E-2	5.817076E-2	8.436155E-2	8.206013E-2	7.042824E-2	6.319502E-2	6.581179E-2	8.443728E-2	9.226724E-2	8.183074E-2	7.305275E-2	8.136959E-2	6.571060E-2	6.003405E-2	1.050468E-1	8.288822E-2	7.648196E-2	6.948728E-2	7.029939E-2	6.566886E-2	8.754338E-2	7.945452E-2	7.433704E-2	7.025225E-2	7.633640E-2	8.818382E-2	8.773906E-2	6.550180E-2	7.512413E-2	7.134565E-2	6.223926E-2	7.467475E-2	7.427206E-2	8.739562E-2	8.096738E-2	7.545418E-2	9.828133E-2	7.304237E-2	7.833070E-2	8.339560E-2	7.330665E-2	8.051098E-2	9.922313E-2	7.946998E-2	8.105421E-2	7.672722E-2	9.200557E-2	8.324309E-2	8.419936E-2	6.859243E-2	7.219191E-2	8.447939E-2	7.815217E-2	7.998108E-2	8.443308E-2	5.690230E-2	9.270431E-2	7.378717E-2	8.289060E-2	7.246666E-2	9.352370E-2	8.532537E-2	8.790822E-2	7.736922E-2	6.495546E-2	8.244405E-2	7.250280E-2	8.751356E-2	7.436940E-2	8.823758E-2	6.798178E-2	7.159831E-2	8.262802E-2	6.087777E-2	8.980952E-2	6.977028E-2	8.369266E-2	8.452337E-2	6.615400E-2	6.234493E-2	7.765401E-2	8.274343E-2	6.369978E-2	8.792839E-2	9.208574E-2	7.640141E-2	8.353372E-2	7.937130E-2	9.513851E-2	6.811148E-2	8.622967E-2	6.071542E-2	9.596449E-2	7.909166E-2	7.024838E-2	7.191225E-2	8.087170E-2	7.158070E-2	9.068809E-2	8.793478E-2	7.702997E-2	7.594459E-2	7.897531E-2	9.529468E-2	8.325138E-2	8.407005E-2	7.984326E-2	8.511074E-2	9.594819E-2	8.576139E-2	7.154333E-2	8.622882E-2	8.401323E-2	1.042622E-1	8.273584E-2	9.759939E-2	6.479428E-2	7.773609E-2	8.632136E-2	7.194131E-2	8.668529E-2	6.672027E-2	7.007043E-2	7.096124E-2	8.283771E-2	7.876674E-2	7.303794E-2	7.564600E-2	9.499005E-2	9.167084E-2	9.515828E-2
2.844010E+2	9.510217E-2	9.306974E-2	8.136467E-2	1.029583E-1	8.404406E-2	8.855887E-2	8.372806E-2	7.903972E-2	9.298463E-2	1.017605E-1	9.961618E-2	9.567208E-2	9.532497E-2	1.129618E-1	1.013289E-1	1.082884E-1	1.082147E-1	1.096625E-1	1.279602E-1	1.148403E-1	1.032602E-1	8.204233E-2	1.072974E-1	1.132238E-1	9.423468E-2	8.993571E-2	1.025862E-1	9.977432E-2	9.160030E-2	1.090315E-1	1.071006E-1	1.005604E-1	9.017895E-2	1.108592E-1	1.044214E-1	1.054883E-1	1.086724E-1	9.302497E-2	9.751250E-2	7.789887E-2	1.135953E-1	1.030347E-1	9.424125E-2	8.875185E-2	8.187876E-2	1.017011E-1	1.039151E-1	1.062203E-1	8.542772E-2	1.121338E-1	7.825623E-2	9.331544E-2	9.957471E-2	1.024331E-1	9.888141E-2	1.156172E-1	1.072220E-1	9.826544E-2	8.449172E-2	8.680720E-2	7.722710E-2	9.964895E-2	1.034017E-1	7.706567E-2	9.929748E-2	9.976933E-2	1.013474E-1	8.652788E-2	1.000257E-1	1.075382E-1	1.185320E-1	9.714732E-2	8.518454E-2	7.958998E-2	1.026022E-1	9.251235E-2	7.950010E-2	8.978601E-2	8.062897E-2	9.415921E-2	1.218652E-1	1.131330E-1	1.005186E-1	9.090242E-2	1.017113E-1	8.979271E-2	1.039575E-1	1.047104E-1	1.018360E-1	1.085183E-1	1.027367E-1	1.090976E-1	9.040641E-2	1.038683E-1	1.140106E-1	9.583986E-2	9.509580E-2	9.891425E-2	8.188199E-2	1.080148E-1	8.505918E-2	9.293110E-2	7.440754E-2	9.762937E-2	8.777030E-2	7.562574E-2	9.366135E-2	9.303064E-2	9.261151E-2	9.666045E-2	1.012813E-1	7.624970E-2	1.034276E-1	7.655387E-2	8.373059E-2	9.656058E-2	9.266240E-2	9.865991E-2	1.084045E-1	1.179895E-1	1.009322E-1	9.234138E-2	9.431014E-2	1.037546E-1	9.416325E-2	8.301073E-2	7.436166E-2	1.160586E-1	1.003643E-1	8.573344E-2	9.043335E-2	8.395956E-2	9.567058E-2	9.179617E-2	8.677821E-2	9.590070E-2	1.026562E-1	9.271431E-2	1.028803E-1	9.385362E-2	1.230804E-1	8.316460E-2	8.020135E-2	9.774176E-2	1.106502E-1	1.039682E-1	1.172244E-1	9.731460E-2	1.176573E-1	9.460538E-2	1.095252E-1	9.826540E-2	1.039940E-1	9.357512E-2	9.152199E-2	9.201679E-2	1.057447E-1	1.247303E-1	1.059064E-1	1.071535E-1	9.645712E-2	1.067957E-1	9.487531E-2
2.845040E+2	1.804983E-1	1.964738E-1	1.841029E-1	2.012684E-1	1.863704E-1	1.961661E-1	2.010475E-1	1.719978E-1	2.016427E-1	1.664953E-1	1.915715E-1	1.666007E-1	1.936174E-1	1.880471E-1	1.768541E-1	2.171949E-1	2.082727E-1	2.109031E-1	1.895246E-1	2.036124E-1	1.963234E-1	1.933835E-1	1.848760E-1	1.788880E-1	1.810481E-1	1.725089E-1	2.006673E-1	1.911762E-1	2.107600E-1	2.080249E-1	2.015346E-1	1.807761E-1	1.854184E-1	1.865061E-1	1.900892E-1	1.986929E-1	1.934672E-1	1.868435E-1	2.079908E-1	2.037815E-1	1.747863E-1	1.824379E-1	1.680032E-1	2.092692E-1	2.108003E-1	1.825227E-1	1.916736E-1	2.001098E-1	2.010255E-1	1.758210E-1	1.795595E-1	1.960098E-1	1.876100E-1	1.929365E-1	1.744566E-1	2.154252E-1	1.992507E-1	1.780579E-1	1.686889E-1	1.866537E-1	1.788930E-1	2.009505E-1	1.882617E-1	1.945358E-1	1.732992E-1	1.778488E-1	1.827424E-1	1.962762E-1	1.889340E-1	2.040807E-1	1.773033E-1	2.006582E-1	2.150641E-1	1.859435E-1	1.726462E-1	1.845542E-1	1.933618E-1	1.700424E-1	1.856490E-1	1.913754E-1	1.950222E-1	1.980752E-1	1.832236E-1	1.905046E-1	1.878623E-1	1.818518E-1	2.092296E-1	1.834126E-1	1.993041E-1	1.889496E-1	1.892011E-1	1.847767E-1	2.076462E-1	2.236024E-1	2.066866E-1	1.901468E-1	1.688557E-1	1.655257E-1	1.966125E-1	2.036886E-1	1.924448E-1	1.943828E-1	1.975639E-1	1.846466E-1	1.867110E-1	1.829895E-1	1.843202E-1	1.861132E-1	1.960652E-1	2.023963E-1	1.977098E-1	1.823564E-1	1.880532E-1	1.925079E-1	2.085850E-1	1.851276E-1	1.989935E-1	1.692066E-1	1.869229E-1	1.839597E-1	1.763235E-1	1.831038E-1	1.824316E-1	1.908532E-1	1.724807E-1	1.747208E-1	1.937708E-1	1.659105E-1	1.916854E-1	1.998981E-1	1.953833E-1	1.792858E-1	1.703436E-1	1.913264E-1	1.895865E-1	2.055548E-1	1.915260E-1	1.986939E-1	2.089339E-1	2.096687E-1	1.786480E-1	2.009915E-1	2.010489E-1	1.596171E-1	1.845293E-1	2.022798E-1	2.038835E-1	1.784353E-1	2.051139E-1	1.809243E-1	1.869425E-1	1.715560E-1	2.077406E-1	2.003517E-1	1.781214E-1	1.876762E-1	1.750409E-1	1.999234E-1	1.619819E-1	2.008729E-1	1.721785E-1	1.855042E-1	1.975627E-1
2.846040E+2	3.475546E-1	3.701331E-1	3.311095E-1	3.300994E-1	3.582882E-1	3.379773E-1	3.597709E-1	3.448206E-1	3.545632E-1	3.590509E-1	3.741755E-1	3.453030E-1	3.763744E-1	3.366299E-1	3.835096E-1	3.620142E-1	3.931248E-1	3.871989E-1	3.876958E-1	4.254173E-1	3.712594E-1	3.751435E-1	3.886915E-1	4.148429E-1	4.205013E-1	3.852020E-1	3.734597E-1	4.109947E-1	4.314902E-1	3.558497E-1	4.063217E-1	3.777780E-1	3.709882E-1	3.579736E-1	3.621836E-1	3.940671E-1	3.764757E-1	4.130778E-1	3.609827E-1	3.774014E-1	3.435911E-1	4.313684E-1	3.564430E-1	4.048166E-1	3.629697E-1	3.504788E-1	3.749836E-1	3.907355E-1	3.864460E-1	3.819491E-1	3.889426E-1	3.426061E-1	3.858784E-1	3.884463E-1	3.567453E-1	4.013180E-1	4.115419E-1	4.007534E-1	3.818463E-1	4.146062E-1	3.844928E-1	3.535513E-1	4.336689E-1	3.612881E-1	3.868515E-1	3.549097E-1	3.943612E-1	3.683479E-1	4.098027E-1	3.578921E-1	3.899075E-1	3.571888E-1	3.562672E-1	3.592405E-1	3.970551E-1	3.907170E-1	3.925935E-1	3.629892E-1	4.053291E-1	3.928782E-1	3.769121E-1	4.088341E-1	3.489342E-1	3.664454E-1	3.526269E-1	3.750815E-1	3.607456E-1	3.488537E-1	3.725347E-1	3.968179E-1	3.660487E-1	3.752704E-1	4.101497E-1	4.089403E-1	3.972300E-1	3.964185E-1	3.571316E-1	3.928786E-1	4.278928E-1	4.072219E-1	3.476839E-1	3.962880E-1	3.547608E-1	3.425384E-1	3.823174E-1	3.503359E-1	3.615198E-1	3.702279E-1	3.633846E-1	3.768512E-1	3.707482E-1	3.768253E-1	3.886663E-1	3.568708E-1	3.600648E-1	3.593421E-1	3.643331E-1	3.803988E-1	3.907429E-1	3.633015E-1	3.615008E-1	3.469331E-1	3.728399E-1	3.654506E-1	3.767227E-1	3.578516E-1	3.521265E-1	3.814377E-1	3.854014E-1	3.647741E-1	3.560852E-1	3.971328E-1	3.709325E-1	3.685226E-1	3.841118E-1	3.679702E-1	3.664791E-1	3.856460E-1	3.709975E-1	3.734415E-1	3.965643E-1	3.710621E-1	3.634193E-1	3.579209E-1	3.892900E-1	3.787931E-1	3.643974E-1	3.385731E-1	4.020003E-1	3.912437E-1	3.482181E-1	3.718067E-1	3.512402E-1	4.359516E-1	3.643723E-1	3.629335E-1	3.987489E-1	3.668061E-1	3.870516E-1	3.971128E-1	3.778260E-1	3.630309E-1	4.040024E-1
2.847030E+2	7.281624E-1	7.132117E-1	7.059921E-1	7.111101E-1	7.410181E-1	7.363289E-1	7.359368E-1	7.131225E-1	7.622296E-1	7.302683E-1	6.850346E-1	7.127480E-1	7.297977E-1	7.811669E-1	7.265143E-1	7.398529E-1	8.184160E-1	7.684295E-1	7.526806E-1	8.127184E-1	8.036422E-1	7.627894E-1	7.993548E-1	8.066897E-1	7.825579E-1	7.901632E-1	7.595125E-1	7.456859E-1	7.511272E-1	7.650043E-1	8.279291E-1	7.802840E-1	8.305565E-1	8.214076E-1	7.528813E-1	7.820304E-1	7.455903E-1	7.761721E-1	7.382848E-1	7.789150E-1	8.568140E-1	8.332875E-1	7.986018E-1	8.103174E-1	8.237336E-1	8.176758E-1	7.650939E-1	7.943101E-1	7.614556E-1	8.274464E-1	7.607546E-1	7.843829E-1	8.083791E-1	7.870475E-1	7.396290E-1	7.511454E-1	7.834220E-1	7.954279E-1	7.503607E-1	8.006931E-1	7.693911E-1	8.035583E-1	7.822634E-1	7.768031E-1	7.968330E-1	7.086785E-1	8.065602E-1	7.474926E-1	8.069250E-1	8.177024E-1	7.954472E-1	7.478753E-1	7.530726E-1	7.730996E-1	7.637914E-1	8.103554E-1	7.824705E-1	7.993522E-1	8.078169E-1	7.869207E-1	7.486573E-1	8.077788E-1	7.493440E-1	7.974487E-1	7.569250E-1	7.630712E-1	7.584581E-1	7.613776E-1	7.771575E-1	7.935249E-1	7.821279E-1	7.575869E-1	7.318483E-1	7.737059E-1	7.406069E-1	7.698886E-1	7.455034E-1	7.444587E-1	7.558306E-1	8.031792E-1	7.769931E-1	7.809205E-1	7.831368E-1	7.713490E-1	7.981507E-1	7.366120E-1	7.355108E-1	7.826909E-1	7.483130E-1	7.494150E-1	7.914781E-1	7.356715E-1	7.606660E-1	7.594704E-1	7.520125E-1	7.577742E-1	7.978238E-1	7.632409E-1	7.034074E-1	7.669732E-1	7.582337E-1	7.310880E-1	7.625279E-1	8.135303E-1	7.359255E-1	7.979833E-1	7.338680E-1	7.676917E-1	8.215318E-1	7.818273E-1	7.828787E-1	7.575702E-1	7.245451E-1	7.727505E-1	7.609486E-1	7.561461E-1	7.778194E-1	8.037283E-1	7.055792E-1	8.019857E-1	7.576263E-1	7.515173E-1	7.776896E-1	7.395074E-1	7.438498E-1	8.044672E-1	7.462482E-1	7.525930E-1	7.471347E-1	8.124585E-1	7.542243E-1	7.442007E-1	7.450195E-1	7.948207E-1	7.060775E-1	7.666826E-1	7.630858E-1	7.709312E-1	8.085841E-1	8.553205E-1	7.652477E-1	7.402670E-1	7.659954E-1
2.848050E+2	1.253047E+0	1.233897E+0	1.227699E+0	1.201606E+0	1.291781E+0	1.247439E+0	1.216434E+0	1.239858E+0	1.269844E+0	1.237961E+0	1.227848E+0	1.196202E+0	1.198489E+0	1.210426E+0	1.196730E+0	1.248823E+0	1.301448E+0	1.207128E+0	1.257280E+0	1.265175E+0	1.236391E+0	1.246879E+0	1.286423E+0	1.298903E+0	1.343310E+0	1.291590E+0	1.265430E+0	1.228207E+0	1.309637E+0	1.263950E+0	1.296549E+0	1.238896E+0	1.238312E+0	1.256109E+0	1.215557E+0	1.336504E+0	1.232151E+0	1.228943E+0	1.259073E+0	1.192161E+0	1.262653E+0	1.254545E+0	1.219024E+0	1.281868E+0	1.275857E+0	1.242087E+0	1.331691E+0	1.197055E+0	1.279889E+0	1.203167E+0	1.222437E+0	1.210149E+0	1.250923E+0	1.261210E+0	1.249237E+0	1.276396E+0	1.268192E+0	1.273503E+0	1.201487E+0	1.254785E+0	1.256030E+0	1.208662E+0	1.295248E+0	1.259673E+0	1.248882E+0	1.282094E+0	1.257595E+0	1.293051E+0	1.272742E+0	1.276240E+0	1.260656E+0	1.265412E+0	1.308971E+0	1.204016E+0	1.208645E+0	1.310311E+0	1.198691E+0	1.182510E+0	1.309312E+0	1.294042E+0	1.283483E+0	1.316417E+0	1.268056E+0	1.214768E+0	1.237736E+0	1.243436E+0	1.213146E+0	1.221475E+0	1.256974E+0	1.261143E+0	1.255781E+0	1.211389E+0	1.235210E+0	1.261760E+0	1.225293E+0	1.262117E+0	1.216539E+0	1.295910E+0	1.358726E+0	1.176491E+0	1.234747E+0	1.288285E+0	1.224798E+0	1.237685E+0	1.311016E+0	1.273952E+0	1.262098E+0	1.247980E+0	1.289547E+0	1.245930E+0	1.250800E+0	1.226953E+0	1.219819E+0	1.237624E+0	1.261715E+0	1.227990E+0	1.213551E+0	1.227751E+0	1.243680E+0	1.274125E+0	1.201311E+0	1.248171E+0	1.183486E+0	1.289497E+0	1.209274E+0	1.312612E+0	1.302615E+0	1.217233E+0	1.273740E+0	1.210004E+0	1.199318E+0	1.203454E+0	1.294107E+0	1.251920E+0	1.257140E+0	1.252209E+0	1.266698E+0	1.216809E+0	1.218663E+0	1.268220E+0	1.261774E+0	1.290228E+0	1.258286E+0	1.259989E+0	1.236814E+0	1.229084E+0	1.244002E+0	1.264811E+0	1.284460E+0	1.265220E+0	1.255886E+0	1.235922E+0	1.253480E+0	1.168564E+0	1.180306E+0	1.240517E+0	1.282532E+0	1.201065E+0	1.240310E+0	1.278073E+0	1.229991E+0	1.279539E+0	1.229025E+0
2.849040E+2	1.399626E+0	1.434722E+0	1.377414E+0	1.377624E+0	1.397583E+0	1.453590E+0	1.501897E+0	1.436586E+0	1.479036E+0	1.469126E+0	1.404765E+0	1.445155E+0	1.385830E+0	1.422353E+0	1.420304E+0	1.432485E+0	1.401089E+0	1.388905E+0	1.376452E+0	1.352295E+0	1.431177E+0	1.352828E+0	1.420403E+0	1.456593E+0	1.386959E+0	1.386852E+0	1.402680E+0	1.329256E+0	1.420737E+0	1.431721E+0	1.362027E+0	1.375229E+0	1.360633E+0	1.384167E+0	1.397612E+0	1.356367E+0	1.376204E+0	1.412744E+0	1.442630E+0	1.414366E+0	1.424553E+0	1.426756E+0	1.339303E+0	1.455495E+0	1.482195E+0	1.390425E+0	1.380455E+0	1.444209E+0	1.416423E+0	1.435334E+0	1.345499E+0	1.397347E+0	1.405102E+0	1.440786E+0	1.349142E+0	1.449861E+0	1.413786E+0	1.424008E+0	1.383953E+0	1.405750E+0	1.425822E+0	1.425384E+0	1.468853E+0	1.378780E+0	1.349843E+0	1.412036E+0	1.398105E+0	1.358538E+0	1.435772E+0	1.500016E+0	1.435540E+0	1.493389E+0	1.388914E+0	1.297616E+0	1.422226E+0	1.520476E+0	1.352791E+0	1.430086E+0	1.423313E+0	1.454259E+0	1.384452E+0	1.475891E+0	1.384653E+0	1.461256E+0	1.357110E+0	1.366671E+0	1.375576E+0	1.424440E+0	1.507522E+0	1.380601E+0	1.403771E+0	1.430360E+0	1.454683E+0	1.466801E+0	1.405493E+0	1.432050E+0	1.394597E+0	1.405390E+0	1.459043E+0	1.396748E+0	1.398724E+0	1.492985E+0	1.325126E+0	1.451795E+0	1.499903E+0	1.388372E+0	1.399932E+0	1.426562E+0	1.381167E+0	1.419029E+0	1.404221E+0	1.451315E+0	1.399588E+0	1.374884E+0	1.399322E+0	1.370424E+0	1.348609E+0	1.505954E+0	1.376014E+0	1.394688E+0	1.396014E+0	1.406032E+0	1.392593E+0	1.488707E+0	1.467716E+0	1.332274E+0	1.407429E+0	1.396266E+0	1.455614E+0	1.409201E+0	1.373248E+0	1.427169E+0	1.440862E+0	1.427412E+0	1.398554E+0	1.417180E+0	1.389595E+0	1.427092E+0	1.329877E+0	1.462006E+0	1.451675E+0	1.469934E+0	1.459293E+0	1.375340E+0	1.454922E+0	1.466124E+0	1.383896E+0	1.350184E+0	1.429732E+0	1.447729E+0	1.397552E+0	1.446927E+0	1.452800E+0	1.408283E+0	1.387103E+0	1.413429E+0	1.459680E+0	1.454334E+0	1.418228E+0	1.503949E+0	1.472265E+0	1.473759E+0	1.421392E+0
2.850030E+2	1.410743E+0	1.457549E+0	1.429639E+0	1.462466E+0	1.375923E+0	1.450771E+0	1.372771E+0	1.340735E+0	1.458949E+0	1.368256E+0	1.398806E+0	1.412245E+0	1.306655E+0	1.397715E+0	1.430720E+0	1.431364E+0	1.441806E+0	1.357690E+0	1.338927E+0	1.388660E+0	1.402245E+0	1.369074E+0	1.345869E+0	1.352709E+0	1.356498E+0	1.417692E+0	1.388235E+0	1.332594E+0	1.356918E+0	1.391509E+0	1.396594E+0	1.346665E+0	1.355062E+0	1.354384E+0	1.323937E+0	1.391496E+0	1.274434E+0	1.371044E+0	1.376024E+0	1.346914E+0	1.402891E+0	1.344779E+0	1.386534E+0	1.381741E+0	1.397797E+0	1.383684E+0	1.435428E+0	1.343730E+0	1.427537E+0	1.365791E+0	1.372458E+0	1.384525E+0	1.365760E+0	1.374527E+0	1.346388E+0	1.406987E+0	1.365911E+0	1.363465E+0	1.382932E+0	1.491674E+0	1.378287E+0	1.386653E+0	1.391768E+0	1.387338E+0	1.474006E+0	1.353482E+0	1.332328E+0	1.398348E+0	1.458618E+0	1.370494E+0	1.344813E+0	1.379645E+0	1.460056E+0	1.258600E+0	1.396972E+0	1.397058E+0	1.412402E+0	1.443886E+0	1.371899E+0	1.431092E+0	1.353883E+0	1.390521E+0	1.392027E+0	1.426193E+0	1.374994E+0	1.430004E+0	1.363139E+0	1.340731E+0	1.399569E+0	1.402191E+0	1.386977E+0	1.342208E+0	1.357000E+0	1.349695E+0	1.358191E+0	1.446774E+0	1.433210E+0	1.350828E+0	1.391052E+0	1.363930E+0	1.460277E+0	1.461959E+0	1.312390E+0	1.320352E+0	1.417630E+0	1.377321E+0	1.302400E+0	1.398738E+0	1.360329E+0	1.331172E+0	1.358500E+0	1.417801E+0	1.441192E+0	1.355375E+0	1.368503E+0	1.379315E+0	1.370164E+0	1.450792E+0	1.340149E+0	1.437329E+0	1.400406E+0	1.413740E+0	1.381026E+0	1.379947E+0	1.382017E+0	1.455175E+0	1.398070E+0	1.429891E+0	1.434195E+0	1.398428E+0	1.338514E+0	1.432899E+0	1.412363E+0	1.373001E+0	1.370358E+0	1.447699E+0	1.417177E+0	1.408582E+0	1.355712E+0	1.359044E+0	1.398205E+0	1.388275E+0	1.411114E+0	1.384537E+0	1.362407E+0	1.421832E+0	1.380479E+0	1.369252E+0	1.402936E+0	1.413204E+0	1.403624E+0	1.385513E+0	1.356618E+0	1.405242E+0	1.381096E+0	1.465469E+0	1.472985E+0	1.444473E+0	1.387190E+0	1.408230E+0	1.358858E+0	1.338366E+0	1.335320E+0
2.851050E+2	1.205631E+0	1.240410E+0	1.259650E+0	1.256188E+0	1.286540E+0	1.300305E+0	1.277259E+0	1.207454E+0	1.286602E+0	1.231392E+0	1.274249E+0	1.261180E+0	1.261690E+0	1.195720E+0	1.314773E+0	1.214660E+0	1.311479E+0	1.241919E+0	1.272461E+0	1.247475E+0	1.257401E+0	1.267811E+0	1.259741E+0	1.222908E+0	1.181416E+0	1.246399E+0	1.213469E+0	1.200714E+0	1.263285E+0	1.220259E+0	1.201454E+0	1.226446E+0	1.238399E+0	1.229152E+0	1.125238E+0	1.198934E+0	1.175088E+0	1.238181E+0	1.245058E+0	1.205428E+0	1.259796E+0	1.243337E+0	1.232458E+0	1.251011E+0	1.257331E+0	1.260735E+0	1.236060E+0	1.209968E+0	1.286303E+0	1.209788E+0	1.259583E+0	1.198818E+0	1.222186E+0	1.232634E+0	1.268526E+0	1.194605E+0	1.252317E+0	1.226631E+0	1.247537E+0	1.301620E+0	1.243885E+0	1.297406E+0	1.245494E+0	1.247358E+0	1.328893E+0	1.216490E+0	1.276670E+0	1.332298E+0	1.256819E+0	1.260236E+0	1.279939E+0	1.236816E+0	1.247689E+0	1.223301E+0	1.267368E+0	1.265753E+0	1.252088E+0	1.273819E+0	1.281440E+0	1.268105E+0	1.257303E+0	1.267990E+0	1.185418E+0	1.183753E+0	1.232556E+0	1.251077E+0	1.192326E+0	1.182487E+0	1.253910E+0	1.251334E+0	1.201723E+0	1.260136E+0	1.325031E+0	1.251471E+0	1.219504E+0	1.212222E+0	1.255181E+0	1.232473E+0	1.248918E+0	1.222521E+0	1.305564E+0	1.258073E+0	1.262021E+0	1.240164E+0	1.356357E+0	1.282361E+0	1.238026E+0	1.218694E+0	1.261970E+0	1.262470E+0	1.270156E+0	1.239273E+0	1.260755E+0	1.195614E+0	1.208536E+0	1.274308E+0	1.276704E+0	1.284940E+0	1.248359E+0	1.217261E+0	1.262039E+0	1.209043E+0	1.235978E+0	1.210764E+0	1.274354E+0	1.268198E+0	1.220735E+0	1.292723E+0	1.330406E+0	1.200377E+0	1.216047E+0	1.282024E+0	1.293733E+0	1.311101E+0	1.247025E+0	1.230181E+0	1.245156E+0	1.267788E+0	1.234005E+0	1.250916E+0	1.259407E+0	1.227899E+0	1.251868E+0	1.225465E+0	1.207987E+0	1.329287E+0	1.283289E+0	1.249131E+0	1.320109E+0	1.256519E+0	1.283572E+0	1.264348E+0	1.275985E+0	1.222875E+0	1.186182E+0	1.289272E+0	1.260476E+0	1.225054E+0	1.232138E+0	1.247083E+0	1.262400E+0	1.296378E+0	1.316960E+0
2.852020E+2	9.527264E-1	9.300155E-1	1.012834E+0	9.582560E-1	1.001194E+0	9.813009E-1	1.036083E+0	9.826203E-1	1.017316E+0	1.003953E+0	1.023380E+0	1.030364E+0	9.745436E-1	1.019378E+0	1.036106E+0	9.884252E-1	1.015414E+0	1.000822E+0	9.972340E-1	1.013709E+0	1.067908E+0	1.015530E+0	9.788212E-1	9.797937E-1	1.027473E+0	1.016753E+0	1.047225E+0	1.057477E+0	1.008508E+0	1.049706E+0	9.938062E-1	9.819660E-1	1.026807E+0	9.815728E-1	1.000961E+0	1.046612E+0	9.527943E-1	9.908563E-1	1.034929E+0	9.443928E-1	1.033149E+0	1.026579E+0	9.721575E-1	1.006160E+0	1.041267E+0	9.550610E-1	9.976786E-1	1.012916E+0	9.914951E-1	1.007838E+0	1.039783E+0	1.046750E+0	9.882600E-1	1.023944E+0	1.021470E+0	9.763497E-1	1.045773E+0	1.031464E+0	1.022217E+0	1.045920E+0	9.654835E-1	9.782699E-1	9.966980E-1	9.913484E-1	1.065128E+0	9.475537E-1	1.008995E+0	1.026996E+0	9.869412E-1	1.004678E+0	9.992345E-1	1.044481E+0	1.036453E+0	9.858663E-1	9.848611E-1	1.112712E+0	1.075699E+0	1.024459E+0	1.050822E+0	1.004138E+0	9.662297E-1	9.882954E-1	9.709731E-1	1.005567E+0	1.015358E+0	1.026545E+0	9.623364E-1	1.046647E+0	1.053215E+0	1.003653E+0	1.002902E+0	1.026020E+0	9.827148E-1	1.058741E+0	9.693784E-1	1.065135E+0	1.095259E+0	1.025611E+0	1.060335E+0	1.016701E+0	1.016125E+0	1.035058E+0	1.018673E+0	1.000068E+0	1.031396E+0	9.866087E-1	1.035552E+0	1.012860E+0	1.010067E+0	9.554798E-1	9.952651E-1	1.036886E+0	1.055720E+0	9.371866E-1	1.000022E+0	9.571293E-1	1.005115E+0	9.822992E-1	9.606287E-1	1.044636E+0	9.834607E-1	1.005469E+0	9.822203E-1	1.026809E+0	9.990853E-1	1.009540E+0	1.094062E+0	1.050706E+0	1.034527E+0	1.000785E+0	1.022994E+0	9.734600E-1	1.032019E+0	1.049769E+0	1.004930E+0	1.028024E+0	1.094356E+0	9.794447E-1	9.935171E-1	1.079709E+0	1.056961E+0	9.914968E-1	9.777323E-1	9.448785E-1	1.023677E+0	1.089881E+0	9.758817E-1	9.878131E-1	1.072430E+0	1.077274E+0	1.032987E+0	1.000081E+0	1.051857E+0	9.747518E-1	9.684605E-1	1.042611E+0	1.013766E+0	9.670290E-1	1.002649E+0	1.058337E+0	9.832502E-1	1.012051E+0	1.094100E+0
2.853030E+2	6.667562E-1	6.932704E-1	6.632233E-1	6.692392E-1	6.671115E-1	6.685195E-1	6.566324E-1	7.086273E-1	6.474234E-1	6.985372E-1	6.609557E-1	6.737554E-1	6.778920E-1	7.127748E-1	6.876546E-1	6.943143E-1	6.486855E-1	6.845823E-1	6.919163E-1	6.265733E-1	6.702970E-1	6.671360E-1	7.132024E-1	7.171785E-1	6.816190E-1	6.744818E-1	6.545503E-1	6.551033E-1	7.330581E-1	6.970331E-1	6.866839E-1	6.690248E-1	6.792869E-1	6.390942E-1	6.188325E-1	6.621444E-1	6.406936E-1	6.574726E-1	6.935300E-1	6.796011E-1	6.774475E-1	7.067124E-1	6.622302E-1	7.120242E-1	6.831698E-1	7.159096E-1	6.628881E-1	6.863185E-1	6.571011E-1	6.457363E-1	6.246586E-1	6.597862E-1	6.619714E-1	6.769864E-1	6.398927E-1	6.790801E-1	6.701279E-1	6.682916E-1	6.863367E-1	7.116240E-1	6.676233E-1	6.882599E-1	6.554391E-1	7.221079E-1	7.207284E-1	6.775462E-1	7.148680E-1	6.809932E-1	6.629984E-1	6.682276E-1	6.958452E-1	6.703244E-1	6.932366E-1	6.859360E-1	6.889616E-1	7.278153E-1	7.040266E-1	7.109196E-1	7.046738E-1	6.810899E-1	6.705153E-1	6.973917E-1	6.690435E-1	6.663569E-1	6.641107E-1	6.914762E-1	6.717426E-1	6.608776E-1	6.749321E-1	6.716393E-1	6.325303E-1	7.186255E-1	7.189443E-1	6.536571E-1	6.474139E-1	6.529227E-1	6.527177E-1	6.596170E-1	7.073959E-1	6.967766E-1	6.928429E-1	7.030489E-1	6.954006E-1	6.458678E-1	6.984888E-1	6.900468E-1	6.791831E-1	6.964738E-1	6.461810E-1	6.778786E-1	6.643915E-1	7.061746E-1	7.050052E-1	6.368283E-1	6.943168E-1	6.835331E-1	6.745221E-1	6.988820E-1	6.403570E-1	6.871925E-1	6.711735E-1	6.893664E-1	6.604517E-1	6.911375E-1	6.645585E-1	6.794895E-1	7.060862E-1	7.096456E-1	7.420179E-1	6.708076E-1	6.477098E-1	7.199066E-1	7.201068E-1	7.079153E-1	6.654443E-1	7.213721E-1	6.405032E-1	6.813947E-1	6.516695E-1	6.873008E-1	7.003265E-1	6.854120E-1	6.662014E-1	6.560131E-1	6.560746E-1	7.333470E-1	7.256170E-1	6.484591E-1	6.874744E-1	7.007700E-1	6.925696E-1	7.370688E-1	6.958093E-1	7.303630E-1	6.745276E-1	6.546668E-1	7.310285E-1	6.707135E-1	6.776924E-1	7.139156E-1	7.052473E-1	6.481562E-1	6.359881E-1
2.854050E+2	4.679746E-1	5.368683E-1	4.728740E-1	5.051678E-1	4.977570E-1	5.363807E-1	4.985532E-1	5.025405E-1	4.936248E-1	4.923079E-1	5.485231E-1	5.125963E-1	4.671657E-1	4.994830E-1	5.288600E-1	5.119924E-1	5.488227E-1	5.246156E-1	4.861315E-1	4.796195E-1	4.985882E-1	4.903500E-1	5.426600E-1	5.245998E-1	5.334713E-1	5.062603E-1	5.229218E-1	5.315826E-1	5.233040E-1	5.165836E-1	4.942806E-1	4.428305E-1	4.900118E-1	5.210815E-1	5.416711E-1	5.097389E-1	5.029921E-1	5.145922E-1	5.237920E-1	5.058523E-1	4.707625E-1	5.289615E-1	5.124358E-1	5.194808E-1	5.102523E-1	5.177445E-1	5.376482E-1	5.216844E-1	5.600655E-1	5.408324E-1	5.037310E-1	5.198726E-1	5.206879E-1	4.938267E-1	5.059632E-1	5.079449E-1	5.367090E-1	5.200896E-1	4.878427E-1	5.063563E-1	5.044505E-1	5.365218E-1	5.406899E-1	5.271070E-1	4.856353E-1	5.007776E-1	5.059498E-1	4.984066E-1	5.381832E-1	4.952304E-1	5.140473E-1	5.004695E-1	5.074794E-1	4.644515E-1	4.806438E-1	5.096806E-1	5.590200E-1	5.385199E-1	4.947000E-1	5.166539E-1	5.239282E-1	5.485343E-1	4.919930E-1	5.284526E-1	5.129924E-1	5.025209E-1	4.810355E-1	5.222633E-1	4.826640E-1	5.296792E-1	4.757212E-1	5.233154E-1	5.088102E-1	5.817223E-1	5.030612E-1	5.494495E-1	5.237280E-1	4.664021E-1	4.981083E-1	5.227354E-1	5.810185E-1	4.760913E-1	5.152079E-1	5.293573E-1	5.194393E-1	4.995363E-1	4.814379E-1	5.060298E-1	5.252753E-1	4.868193E-1	5.546521E-1	5.054217E-1	5.020251E-1	5.112032E-1	5.112524E-1	5.435915E-1	4.803076E-1	4.954894E-1	4.805822E-1	4.870257E-1	5.101176E-1	5.206134E-1	5.008969E-1	5.182391E-1	5.209236E-1	5.200792E-1	4.986778E-1	5.069814E-1	5.323639E-1	5.226252E-1	5.156104E-1	5.308702E-1	5.151367E-1	5.299350E-1	5.278058E-1	5.316990E-1	5.251590E-1	5.115610E-1	4.886351E-1	5.433097E-1	5.043078E-1	4.925103E-1	5.281894E-1	5.441311E-1	5.194964E-1	5.430968E-1	4.856162E-1	5.226093E-1	5.218537E-1	5.402925E-1	5.076375E-1	5.311408E-1	4.999232E-1	5.089209E-1	5.151030E-1	5.249944E-1	5.588917E-1	5.914777E-1	5.081034E-1	5.318004E-1	5.441684E-1	5.456807E-1	5.449862E-1
2.855050E+2	4.513162E-1	4.734836E-1	4.535720E-1	4.656017E-1	4.479650E-1	4.704977E-1	4.446923E-1	4.271118E-1	5.055033E-1	4.716369E-1	4.629523E-1	4.794576E-1	4.224404E-1	4.994078E-1	4.771582E-1	4.765913E-1	5.052365E-1	4.803910E-1	4.556486E-1	4.620659E-1	4.993060E-1	4.607730E-1	4.734971E-1	5.028594E-1	4.684072E-1	4.597259E-1	4.550284E-1	4.365968E-1	4.589026E-1	4.920067E-1	4.942326E-1	4.695496E-1	4.849328E-1	4.660268E-1	4.539835E-1	4.258282E-1	4.599395E-1	4.779386E-1	4.505772E-1	4.697077E-1	4.613528E-1	4.796699E-1	4.461304E-1	4.680912E-1	4.939630E-1	4.819768E-1	4.687386E-1	4.645166E-1	5.168610E-1	4.569867E-1	4.775885E-1	4.931084E-1	4.477979E-1	4.568661E-1	4.440734E-1	4.540455E-1	4.709675E-1	4.789936E-1	4.597247E-1	5.048584E-1	4.490602E-1	4.843746E-1	4.829108E-1	4.900614E-1	4.845492E-1	4.678485E-1	4.765819E-1	4.963030E-1	4.670395E-1	4.593371E-1	4.588082E-1	4.753654E-1	5.029181E-1	4.395633E-1	4.775761E-1	4.719894E-1	4.486166E-1	4.785157E-1	5.047515E-1	5.101795E-1	4.968918E-1	4.775844E-1	4.848649E-1	4.620765E-1	4.597265E-1	4.824934E-1	4.523977E-1	4.830264E-1	4.487293E-1	4.683233E-1	4.662402E-1	4.590600E-1	4.679185E-1	4.671146E-1	4.443590E-1	5.136382E-1	4.921927E-1	5.026757E-1	5.028319E-1	4.517202E-1	4.605392E-1	5.075024E-1	4.633076E-1	4.768541E-1	5.050933E-1	4.756279E-1	4.579974E-1	4.388101E-1	4.495457E-1	4.926772E-1	4.378571E-1	4.766462E-1	4.858562E-1	4.857814E-1	4.573510E-1	4.532857E-1	4.894859E-1	4.779886E-1	4.607385E-1	4.918347E-1	4.665865E-1	4.792957E-1	4.656097E-1	4.921911E-1	4.713529E-1	4.442451E-1	4.568642E-1	4.933142E-1	4.986058E-1	4.800112E-1	4.947056E-1	4.934848E-1	4.718674E-1	4.523382E-1	4.928683E-1	4.771989E-1	5.042885E-1	4.923549E-1	4.439538E-1	4.877933E-1	4.905669E-1	5.071096E-1	5.144869E-1	5.039436E-1	4.766062E-1	4.465977E-1	4.568145E-1	5.156951E-1	4.626809E-1	4.951027E-1	4.513668E-1	4.710151E-1	4.948798E-1	4.740516E-1	4.506953E-1	4.584425E-1	4.854620E-1	4.899270E-1	4.518763E-1	5.175571E-1	4.512327E-1	4.767281E-1	4.993608E-1
2.856010E+2	4.017131E-1	4.116268E-1	4.294820E-1	4.342377E-1	4.230923E-1	3.974301E-1	3.981209E-1	4.003982E-1	4.454928E-1	4.027236E-1	4.121308E-1	4.249603E-1	3.936818E-1	4.293947E-1	4.137049E-1	4.213562E-1	4.219926E-1	3.849874E-1	3.904243E-1	4.067728E-1	4.502593E-1	4.257905E-1	4.679914E-1	3.998771E-1	4.214799E-1	4.074209E-1	3.927731E-1	4.191334E-1	3.906789E-1	4.234779E-1	4.442161E-1	3.805242E-1	3.941375E-1	4.255909E-1	4.148791E-1	4.361572E-1	3.944935E-1	4.321849E-1	4.361245E-1	4.114283E-1	4.042610E-1	4.285594E-1	4.195184E-1	4.012612E-1	4.063159E-1	4.152477E-1	4.324267E-1	4.209344E-1	4.140416E-1	4.238994E-1	4.201738E-1	4.294347E-1	4.326518E-1	4.399515E-1	4.262106E-1	4.292432E-1	4.464414E-1	4.367663E-1	4.225770E-1	4.195442E-1	4.170008E-1	4.136856E-1	4.243386E-1	4.030416E-1	4.273393E-1	4.213977E-1	3.790523E-1	4.226394E-1	3.754852E-1	4.254595E-1	4.263916E-1	4.223480E-1	4.247943E-1	3.932684E-1	4.147158E-1	4.538086E-1	4.292931E-1	4.090235E-1	4.525059E-1	4.219302E-1	3.994573E-1	4.103532E-1	4.208135E-1	4.214736E-1	4.331128E-1	3.777699E-1	4.160143E-1	4.016692E-1	4.097302E-1	4.285683E-1	4.349085E-1	4.030016E-1	4.359465E-1	4.359063E-1	4.312386E-1	4.138455E-1	4.159185E-1	4.300456E-1	4.540895E-1	4.226271E-1	4.496471E-1	4.357972E-1	4.185040E-1	4.246558E-1	4.031622E-1	4.152653E-1	3.915738E-1	4.276177E-1	4.494072E-1	3.860029E-1	3.845071E-1	4.164057E-1	4.439315E-1	4.271201E-1	4.218043E-1	4.217117E-1	4.404904E-1	4.286911E-1	4.226094E-1	4.405074E-1	4.015025E-1	4.299795E-1	4.425799E-1	4.449683E-1	3.845333E-1	4.403007E-1	4.242858E-1	4.180219E-1	4.373481E-1	4.393705E-1	4.164167E-1	4.017525E-1	4.231069E-1	4.382410E-1	4.232023E-1	4.459078E-1	4.310920E-1	4.209386E-1	4.162093E-1	3.941959E-1	3.925525E-1	4.518780E-1	4.171103E-1	4.186826E-1	4.040409E-1	4.117773E-1	4.355504E-1	4.305554E-1	4.136374E-1	4.260202E-1	4.059132E-1	3.942652E-1	4.413163E-1	4.457741E-1	4.521980E-1	4.408183E-1	4.362394E-1	4.380796E-1	4.234739E-1	4.245008E-1	4.409859E-1	4.299261E-1	4.903753E-1
2.858030E+2	5.339059E-1	5.250227E-1	5.480339E-1	5.061227E-1	5.300048E-1	5.204742E-1	5.316585E-1	5.068226E-1	5.484303E-1	5.065382E-1	5.490080E-1	4.956544E-1	5.243253E-1	5.060691E-1	5.382494E-1	5.409529E-1	5.465366E-1	5.679270E-1	5.351742E-1	5.877428E-1	5.666040E-1	5.636066E-1	5.592721E-1	5.649069E-1	5.739708E-1	5.306978E-1	5.016876E-1	5.071422E-1	5.417211E-1	5.302243E-1	5.452503E-1	5.155044E-1	5.279698E-1	5.412227E-1	5.513461E-1	5.227174E-1	5.218853E-1	5.486006E-1	5.278833E-1	5.451961E-1	5.573365E-1	5.521162E-1	4.868412E-1	5.406994E-1	5.321776E-1	5.024765E-1	5.271367E-1	5.255471E-1	5.288626E-1	5.839605E-1	5.048288E-1	5.349915E-1	5.818270E-1	5.465460E-1	5.023638E-1	5.611800E-1	5.556693E-1	5.515774E-1	5.037268E-1	5.283949E-1	5.268929E-1	5.608726E-1	5.375407E-1	5.531316E-1	5.360690E-1	5.309202E-1	5.369691E-1	5.401299E-1	5.112525E-1	5.666498E-1	5.536871E-1	5.036978E-1	5.350220E-1	5.070481E-1	5.260783E-1	5.318596E-1	4.941117E-1	5.314994E-1	5.509674E-1	5.642694E-1	5.388567E-1	5.618376E-1	5.255070E-1	5.504339E-1	5.768451E-1	5.161840E-1	5.351981E-1	5.590016E-1	5.312365E-1	5.454959E-1	5.561417E-1	5.366651E-1	5.005327E-1	5.561458E-1	5.462960E-1	5.167994E-1	5.312940E-1	5.451528E-1	5.450604E-1	5.099572E-1	5.079533E-1	5.867580E-1	5.328401E-1	5.790438E-1	5.015353E-1	5.511371E-1	5.385060E-1	5.529585E-1	5.400240E-1	5.525866E-1	5.285259E-1	5.422287E-1	5.041277E-1	5.091425E-1	5.128510E-1	5.132372E-1	5.422560E-1	5.158805E-1	5.309454E-1	5.514219E-1	5.166048E-1	5.860275E-1	5.536255E-1	5.759716E-1	5.026852E-1	5.137312E-1	5.436719E-1	5.069664E-1	5.699467E-1	5.236695E-1	5.377998E-1	5.621879E-1	5.393204E-1	5.641494E-1	5.264070E-1	5.687599E-1	5.476722E-1	5.357985E-1	5.404372E-1	5.447653E-1	5.409223E-1	5.688060E-1	5.588069E-1	5.038344E-1	5.228301E-1	5.541322E-1	5.322457E-1	5.283528E-1	5.535057E-1	5.524053E-1	5.127745E-1	5.546377E-1	5.190452E-1	5.132516E-1	4.883139E-1	5.374517E-1	5.520664E-1	5.262158E-1	5.010811E-1	5.388982E-1	5.634172E-1	5.462549E-1	5.709598E-1
2.860020E+2	8.644572E-1	8.155098E-1	7.849809E-1	7.913140E-1	8.521210E-1	8.417138E-1	7.915128E-1	7.894401E-1	8.370764E-1	7.994293E-1	7.890895E-1	8.291719E-1	8.169997E-1	8.008241E-1	7.874100E-1	7.945363E-1	8.368456E-1	7.906601E-1	8.171812E-1	8.465985E-1	8.516241E-1	8.558937E-1	8.686966E-1	8.477033E-1	8.582112E-1	7.780705E-1	8.432206E-1	8.766428E-1	8.302509E-1	8.311489E-1	8.121935E-1	8.163424E-1	8.861892E-1	8.593545E-1	7.983569E-1	8.221197E-1	8.086424E-1	8.514624E-1	8.294158E-1	8.059711E-1	8.029079E-1	8.574520E-1	8.016471E-1	8.731347E-1	8.026535E-1	8.585632E-1	8.340860E-1	8.169217E-1	8.250061E-1	8.709937E-1	8.324860E-1	8.695595E-1	7.980321E-1	8.378007E-1	8.253393E-1	8.158065E-1	8.704298E-1	8.715925E-1	8.177745E-1	8.267633E-1	7.948313E-1	8.284913E-1	8.439729E-1	8.498078E-1	8.452490E-1	7.778866E-1	7.600389E-1	8.330149E-1	8.241173E-1	8.318894E-1	7.950389E-1	8.739901E-1	8.271410E-1	8.023382E-1	8.201560E-1	8.593962E-1	8.401648E-1	8.249767E-1	9.190962E-1	8.628956E-1	8.267023E-1	8.499191E-1	7.473435E-1	8.648349E-1	8.180571E-1	8.137251E-1	8.165166E-1	8.266346E-1	8.367501E-1	8.566994E-1	8.790980E-1	8.353231E-1	8.205999E-1	8.567312E-1	8.303950E-1	8.317789E-1	8.015549E-1	8.450879E-1	8.164373E-1	8.191204E-1	8.421020E-1	8.781149E-1	8.315918E-1	8.182897E-1	8.744236E-1	8.263423E-1	8.156044E-1	8.381798E-1	8.416267E-1	8.226302E-1	8.360143E-1	7.894001E-1	8.158660E-1	8.239250E-1	8.540583E-1	8.561228E-1	8.322927E-1	8.461740E-1	8.130746E-1	8.063786E-1	8.240436E-1	8.611695E-1	8.106528E-1	9.071995E-1	8.307519E-1	8.255234E-1	8.149039E-1	8.359885E-1	8.147751E-1	7.741916E-1	8.042212E-1	8.226538E-1	8.341072E-1	8.330317E-1	8.185458E-1	9.009987E-1	8.086995E-1	8.574700E-1	7.958371E-1	8.188252E-1	8.105770E-1	8.906242E-1	8.085372E-1	7.625049E-1	8.046762E-1	8.437485E-1	8.393559E-1	7.928998E-1	8.461761E-1	8.796377E-1	8.711561E-1	8.332308E-1	8.621147E-1	8.588487E-1	8.001104E-1	8.485352E-1	8.595594E-1	8.607109E-1	8.165821E-1	8.485780E-1	8.530587E-1	8.364698E-1	7.855978E-1
2.862020E+2	1.224358E+0	1.252458E+0	1.197720E+0	1.231361E+0	1.180024E+0	1.187618E+0	1.160855E+0	1.174602E+0	1.181310E+0	1.185257E+0	1.219461E+0	1.177879E+0	1.116272E+0	1.184968E+0	1.220715E+0	1.208292E+0	1.248646E+0	1.223481E+0	1.169851E+0	1.203392E+0	1.212073E+0	1.152976E+0	1.206906E+0	1.273207E+0	1.201776E+0	1.225495E+0	1.191556E+0	1.195124E+0	1.214946E+0	1.202415E+0	1.224004E+0	1.174631E+0	1.158134E+0	1.237272E+0	1.196019E+0	1.192992E+0	1.162463E+0	1.238712E+0	1.197682E+0	1.222327E+0	1.180934E+0	1.145906E+0	1.195499E+0	1.182432E+0	1.228810E+0	1.248406E+0	1.220687E+0	1.196812E+0	1.275780E+0	1.201820E+0	1.218821E+0	1.150491E+0	1.191600E+0	1.212733E+0	1.132329E+0	1.269437E+0	1.231844E+0	1.212681E+0	1.215452E+0	1.188947E+0	1.161580E+0	1.255106E+0	1.237021E+0	1.226167E+0	1.203828E+0	1.158809E+0	1.168309E+0	1.201434E+0	1.139760E+0	1.240916E+0	1.166446E+0	1.249225E+0	1.181667E+0	1.178084E+0	1.197181E+0	1.264426E+0	1.200810E+0	1.245314E+0	1.182471E+0	1.238574E+0	1.163669E+0	1.194336E+0	1.208305E+0	1.150899E+0	1.212903E+0	1.245480E+0	1.184221E+0	1.170582E+0	1.234404E+0	1.215864E+0	1.174590E+0	1.182391E+0	1.194826E+0	1.251770E+0	1.132265E+0	1.217650E+0	1.213768E+0	1.208084E+0	1.251586E+0	1.169406E+0	1.177640E+0	1.265011E+0	1.260877E+0	1.207649E+0	1.174550E+0	1.244604E+0	1.220348E+0	1.208740E+0	1.214902E+0	1.172122E+0	1.257162E+0	1.153036E+0	1.228077E+0	1.181128E+0	1.175692E+0	1.244110E+0	1.168221E+0	1.233196E+0	1.158574E+0	1.196519E+0	1.150129E+0	1.189891E+0	1.266984E+0	1.209433E+0	1.172235E+0	1.209440E+0	1.221849E+0	1.225287E+0	1.162818E+0	1.198750E+0	1.233960E+0	1.281020E+0	1.276385E+0	1.241574E+0	1.147461E+0	1.198113E+0	1.220348E+0	1.241310E+0	1.177183E+0	1.211424E+0	1.268578E+0	1.227948E+0	1.236381E+0	1.227416E+0	1.202592E+0	1.217247E+0	1.186747E+0	1.221219E+0	1.233839E+0	1.233997E+0	1.130672E+0	1.151763E+0	1.212078E+0	1.184379E+0	1.171836E+0	1.203867E+0	1.218729E+0	1.215331E+0	1.201298E+0	1.271005E+0	1.157557E+0	1.135562E+0	1.132741E+0
2.864190E+2	1.224210E+0	1.206224E+0	1.216992E+0	1.188873E+0	1.251805E+0	1.248779E+0	1.206474E+0	1.158162E+0	1.241973E+0	1.243509E+0	1.247520E+0	1.225427E+0	1.232845E+0	1.276658E+0	1.290415E+0	1.223411E+0	1.241812E+0	1.180724E+0	1.254397E+0	1.226729E+0	1.261469E+0	1.242589E+0	1.239280E+0	1.223849E+0	1.190496E+0	1.208224E+0	1.231458E+0	1.230334E+0	1.285592E+0	1.253628E+0	1.215270E+0	1.288182E+0	1.170230E+0	1.229009E+0	1.203122E+0	1.230459E+0	1.203888E+0	1.192022E+0	1.244054E+0	1.218784E+0	1.280951E+0	1.214188E+0	1.225878E+0	1.246653E+0	1.214558E+0	1.254235E+0	1.202136E+0	1.203895E+0	1.222792E+0	1.239691E+0	1.246998E+0	1.240412E+0	1.241928E+0	1.276248E+0	1.254846E+0	1.246014E+0	1.222998E+0	1.224590E+0	1.281425E+0	1.216288E+0	1.217169E+0	1.222033E+0	1.203121E+0	1.262397E+0	1.257230E+0	1.214023E+0	1.246844E+0	1.253393E+0	1.229758E+0	1.298172E+0	1.224851E+0	1.225001E+0	1.218765E+0	1.170211E+0	1.204085E+0	1.213602E+0	1.194928E+0	1.300773E+0	1.232733E+0	1.222671E+0	1.207639E+0	1.197866E+0	1.187482E+0	1.266514E+0	1.166643E+0	1.238921E+0	1.230059E+0	1.214486E+0	1.236541E+0	1.173805E+0	1.245546E+0	1.200865E+0	1.194538E+0	1.252116E+0	1.204399E+0	1.235489E+0	1.275249E+0	1.226302E+0	1.278982E+0	1.277531E+0	1.232708E+0	1.248202E+0	1.191416E+0	1.245966E+0	1.184435E+0	1.229854E+0	1.189690E+0	1.225390E+0	1.177402E+0	1.258033E+0	1.265361E+0	1.256990E+0	1.212991E+0	1.236135E+0	1.228964E+0	1.260392E+0	1.204728E+0	1.242519E+0	1.183640E+0	1.203465E+0	1.246279E+0	1.253497E+0	1.221935E+0	1.232761E+0	1.189172E+0	1.359119E+0	1.246856E+0	1.291598E+0	1.232536E+0	1.274838E+0	1.247787E+0	1.218461E+0	1.256822E+0	1.263003E+0	1.233618E+0	1.268731E+0	1.232008E+0	1.168420E+0	1.185909E+0	1.227776E+0	1.230151E+0	1.257154E+0	1.225311E+0	1.163572E+0	1.236946E+0	1.280517E+0	1.257033E+0	1.273185E+0	1.258466E+0	1.252490E+0	1.245979E+0	1.219583E+0	1.220733E+0	1.247888E+0	1.251150E+0	1.217538E+0	1.243024E+0	1.300682E+0	1.177919E+0	1.296296E+0	1.224804E+0	1.254998E+0	1.289431E+0
2.866120E+2	1.152546E+0	1.186713E+0	1.139958E+0	1.146041E+0	1.161810E+0	1.170553E+0	1.139273E+0	1.143987E+0	1.172934E+0	1.120342E+0	1.123603E+0	1.129012E+0	1.204480E+0	1.146347E+0	1.166308E+0	1.166146E+0	1.161139E+0	1.147312E+0	1.164037E+0	1.243322E+0	1.155527E+0	1.100278E+0	1.178904E+0	1.215692E+0	1.198728E+0	1.115452E+0	1.168985E+0	1.169424E+0	1.184784E+0	1.171998E+0	1.176303E+0	1.153100E+0	1.217395E+0	1.160340E+0	1.132409E+0	1.177103E+0	1.177073E+0	1.155336E+0	1.175734E+0	1.181723E+0	1.171787E+0	1.203783E+0	1.148939E+0	1.220456E+0	1.172863E+0	1.204459E+0	1.130908E+0	1.118768E+0	1.126400E+0	1.155871E+0	1.148802E+0	1.173139E+0	1.213255E+0	1.170667E+0	1.174474E+0	1.167344E+0	1.184559E+0	1.219579E+0	1.154828E+0	1.143608E+0	1.130966E+0	1.182433E+0	1.233407E+0	1.159885E+0	1.183348E+0	1.165652E+0	1.158507E+0	1.140958E+0	1.217705E+0	1.141926E+0	1.193436E+0	1.181007E+0	1.170058E+0	1.155258E+0	1.218919E+0	1.175317E+0	1.146005E+0	1.175362E+0	1.215135E+0	1.156304E+0	1.179246E+0	1.203278E+0	1.118860E+0	1.201906E+0	1.189580E+0	1.181990E+0	1.148266E+0	1.133648E+0	1.176879E+0	1.151695E+0	1.101678E+0	1.202280E+0	1.198518E+0	1.183646E+0	1.101729E+0	1.126569E+0	1.189962E+0	1.146999E+0	1.254376E+0	1.144708E+0	1.166567E+0	1.206342E+0	1.162341E+0	1.117610E+0	1.175656E+0	1.172080E+0	1.121586E+0	1.090836E+0	1.149326E+0	1.157317E+0	1.158123E+0	1.181721E+0	1.190560E+0	1.153930E+0	1.179494E+0	1.238189E+0	1.201842E+0	1.255478E+0	1.157006E+0	1.137696E+0	1.136427E+0	1.143162E+0	1.159783E+0	1.137680E+0	1.138657E+0	1.238457E+0	1.214090E+0	1.208842E+0	1.180700E+0	1.191901E+0	1.184648E+0	1.249959E+0	1.173506E+0	1.194312E+0	1.153551E+0	1.198373E+0	1.183455E+0	1.163619E+0	1.177337E+0	1.138660E+0	1.113423E+0	1.175162E+0	1.155962E+0	1.237340E+0	1.153541E+0	1.157394E+0	1.227950E+0	1.180031E+0	1.174167E+0	1.107056E+0	1.131486E+0	1.121128E+0	1.163749E+0	1.181601E+0	1.170857E+0	1.173124E+0	1.161109E+0	1.207215E+0	1.192965E+0	1.133814E+0	1.172309E+0	1.209857E+0	1.190475E+0
2.868020E+2	1.315688E+0	1.262421E+0	1.271853E+0	1.303314E+0	1.270815E+0	1.337979E+0	1.220346E+0	1.266820E+0	1.306933E+0	1.343165E+0	1.301043E+0	1.317129E+0	1.240804E+0	1.273666E+0	1.309687E+0	1.351142E+0	1.278971E+0	1.233542E+0	1.278499E+0	1.190667E+0	1.237376E+0	1.269522E+0	1.275416E+0	1.269844E+0	1.243848E+0	1.213603E+0	1.272893E+0	1.287727E+0	1.248569E+0	1.283041E+0	1.322865E+0	1.263442E+0	1.238893E+0	1.227690E+0	1.298923E+0	1.238287E+0	1.266320E+0	1.288961E+0	1.270187E+0	1.292758E+0	1.210114E+0	1.274115E+0	1.247387E+0	1.349201E+0	1.208191E+0	1.293317E+0	1.348133E+0	1.325450E+0	1.326882E+0	1.326876E+0	1.303730E+0	1.307836E+0	1.287998E+0	1.301304E+0	1.235803E+0	1.307651E+0	1.256412E+0	1.250563E+0	1.250968E+0	1.255383E+0	1.267555E+0	1.255625E+0	1.332598E+0	1.290375E+0	1.249285E+0	1.323183E+0	1.305261E+0	1.276969E+0	1.250113E+0	1.293171E+0	1.238529E+0	1.253440E+0	1.304076E+0	1.305481E+0	1.239628E+0	1.331954E+0	1.243364E+0	1.260385E+0	1.356565E+0	1.320799E+0	1.218961E+0	1.312041E+0	1.257095E+0	1.260878E+0	1.286189E+0	1.318353E+0	1.235018E+0	1.235998E+0	1.207750E+0	1.317736E+0	1.286476E+0	1.317941E+0	1.257497E+0	1.284557E+0	1.230258E+0	1.257286E+0	1.320045E+0	1.294849E+0	1.253630E+0	1.247101E+0	1.347829E+0	1.233712E+0	1.328581E+0	1.296433E+0	1.314106E+0	1.233027E+0	1.288232E+0	1.257238E+0	1.246944E+0	1.280629E+0	1.286904E+0	1.299059E+0	1.328861E+0	1.233673E+0	1.260024E+0	1.296011E+0	1.312930E+0	1.308779E+0	1.278837E+0	1.284721E+0	1.263451E+0	1.265070E+0	1.254285E+0	1.281145E+0	1.288894E+0	1.355022E+0	1.255591E+0	1.381243E+0	1.363828E+0	1.286944E+0	1.292955E+0	1.300676E+0	1.293263E+0	1.326413E+0	1.268626E+0	1.326153E+0	1.264860E+0	1.296717E+0	1.258009E+0	1.320584E+0	1.307444E+0	1.320744E+0	1.316904E+0	1.289510E+0	1.263294E+0	1.354120E+0	1.312019E+0	1.288877E+0	1.317872E+0	1.338950E+0	1.248044E+0	1.304570E+0	1.279547E+0	1.289900E+0	1.276918E+0	1.296408E+0	1.246183E+0	1.293409E+0	1.290815E+0	1.370592E+0	1.294694E+0	1.345756E+0	1.268661E+0
2.870090E+2	1.078520E+0	1.135700E+0	1.095179E+0	1.072686E+0	1.032248E+0	1.119512E+0	1.035852E+0	1.090342E+0	1.081542E+0	1.065423E+0	1.119703E+0	1.061516E+0	1.064714E+0	1.048751E+0	1.058303E+0	1.134980E+0	1.103894E+0	1.023523E+0	1.017624E+0	1.093428E+0	1.066242E+0	1.044690E+0	1.041820E+0	1.072278E+0	1.102103E+0	1.085000E+0	1.053414E+0	1.021795E+0	1.037377E+0	1.094302E+0	1.064543E+0	9.901608E-1	1.087336E+0	1.035586E+0	1.062625E+0	1.077097E+0	1.076579E+0	1.040758E+0	1.062973E+0	1.022548E+0	1.055842E+0	1.084838E+0	1.041124E+0	1.049253E+0	1.060133E+0	1.081799E+0	1.081868E+0	1.121303E+0	1.077784E+0	1.073129E+0	1.123782E+0	1.070410E+0	1.074722E+0	1.064496E+0	1.075600E+0	1.075457E+0	1.063480E+0	1.094070E+0	1.075884E+0	1.091388E+0	1.063463E+0	1.063719E+0	1.068802E+0	1.062432E+0	1.092125E+0	1.044390E+0	1.082571E+0	1.113478E+0	1.072706E+0	1.116604E+0	1.096945E+0	1.113545E+0	1.149999E+0	1.086450E+0	1.101242E+0	1.167570E+0	1.059085E+0	1.119651E+0	1.069874E+0	1.128487E+0	1.066941E+0	1.023634E+0	1.062013E+0	1.071164E+0	1.054462E+0	1.042760E+0	1.073683E+0	1.037907E+0	1.020301E+0	1.087064E+0	1.097870E+0	1.073570E+0	1.073246E+0	1.057135E+0	1.076281E+0	1.129243E+0	1.065904E+0	1.095137E+0	1.127945E+0	1.056135E+0	1.054880E+0	1.086568E+0	1.043922E+0	1.054404E+0	1.052029E+0	1.106760E+0	1.047673E+0	1.035154E+0	1.060728E+0	1.046298E+0	1.113593E+0	1.118805E+0	1.117704E+0	1.057704E+0	1.114237E+0	1.063810E+0	1.087438E+0	1.075321E+0	1.099953E+0	1.076457E+0	1.134935E+0	1.084666E+0	1.089579E+0	1.127957E+0	1.097363E+0	1.101121E+0	1.081212E+0	1.131909E+0	1.103984E+0	1.048187E+0	1.087585E+0	1.076259E+0	1.094801E+0	1.124523E+0	1.056846E+0	1.037249E+0	1.115973E+0	1.109076E+0	1.023558E+0	1.089917E+0	1.091119E+0	1.097908E+0	1.106204E+0	1.080971E+0	1.138687E+0	1.122276E+0	1.069704E+0	1.074495E+0	1.164252E+0	1.083476E+0	1.084317E+0	1.029479E+0	1.034863E+0	1.091452E+0	1.095336E+0	1.069208E+0	1.078910E+0	1.065949E+0	1.038372E+0	1.064349E+0	1.055230E+0	1.068213E+0	1.058946E+0
2.872050E+2	1.010224E+0	1.048801E+0	9.559565E-1	9.990709E-1	9.952886E-1	9.810063E-1	9.902035E-1	9.782534E-1	1.014366E+0	1.021597E+0	9.792213E-1	1.012998E+0	9.686544E-1	1.018048E+0	9.836615E-1	1.002491E+0	1.017878E+0	9.986549E-1	9.743369E-1	9.846943E-1	1.016125E+0	9.758732E-1	1.048947E+0	1.040473E+0	9.805896E-1	1.025520E+0	9.591339E-1	1.017597E+0	9.814178E-1	1.013956E+0	9.883746E-1	9.453096E-1	9.905790E-1	9.769532E-1	1.025765E+0	1.008029E+0	1.000749E+0	1.001376E+0	1.014034E+0	9.613715E-1	9.719711E-1	9.892861E-1	9.819474E-1	1.001516E+0	9.809669E-1	1.020423E+0	1.017380E+0	9.956255E-1	9.767169E-1	9.979610E-1	9.887195E-1	9.712584E-1	1.036711E+0	1.006147E+0	9.756826E-1	9.866206E-1	1.036396E+0	9.814072E-1	1.022966E+0	1.055572E+0	9.502404E-1	1.021540E+0	1.008720E+0	9.923339E-1	9.919727E-1	9.985066E-1	1.008786E+0	9.853682E-1	9.689785E-1	9.876876E-1	1.024894E+0	1.011305E+0	9.984669E-1	9.742196E-1	1.005942E+0	1.014399E+0	1.012622E+0	1.013178E+0	1.054369E+0	1.000687E+0	9.600007E-1	9.630738E-1	9.997681E-1	1.000845E+0	9.654227E-1	9.831300E-1	9.571028E-1	9.642990E-1	9.857799E-1	1.039568E+0	1.022061E+0	1.012602E+0	9.808236E-1	1.040078E+0	1.060952E+0	9.941964E-1	9.869482E-1	9.591145E-1	9.994044E-1	9.975359E-1	1.011224E+0	9.865761E-1	1.001824E+0	9.891280E-1	1.045791E+0	9.819892E-1	9.811781E-1	9.823426E-1	9.867031E-1	1.025659E+0	1.034138E+0	9.687574E-1	9.812271E-1	9.195959E-1	1.044421E+0	9.638799E-1	1.004256E+0	1.005423E+0	9.517079E-1	9.806714E-1	9.592601E-1	9.824153E-1	1.035923E+0	1.004730E+0	1.002377E+0	9.961889E-1	1.003559E+0	1.020522E+0	1.023571E+0	1.032196E+0	1.056195E+0	1.038492E+0	9.996509E-1	1.038855E+0	9.866228E-1	1.049111E+0	1.026387E+0	1.050762E+0	1.033358E+0	9.968026E-1	1.026141E+0	1.005886E+0	1.012901E+0	9.965485E-1	1.030567E+0	1.027200E+0	1.025246E+0	1.017558E+0	1.030440E+0	1.018385E+0	1.040245E+0	9.830081E-1	1.050632E+0	1.024026E+0	9.937089E-1	1.035834E+0	9.857039E-1	1.050058E+0	9.911293E-1	1.037690E+0	9.547710E-1	1.013219E+0	1.077126E+0
2.874000E+2	9.282193E-1	8.578334E-1	8.561199E-1	8.983058E-1	8.854232E-1	8.594174E-1	8.286806E-1	8.371006E-1	9.143686E-1	8.774830E-1	8.756581E-1	8.546643E-1	8.688820E-1	8.735520E-1	9.312368E-1	8.957793E-1	8.813514E-1	8.596201E-1	8.762118E-1	9.264244E-1	8.971648E-1	8.563157E-1	8.756318E-1	8.723331E-1	9.118430E-1	8.644830E-1	8.908644E-1	9.372643E-1	8.528086E-1	9.050747E-1	8.671456E-1	8.798992E-1	8.996918E-1	8.511818E-1	9.172038E-1	9.321421E-1	8.537623E-1	8.703679E-1	9.380872E-1	8.683410E-1	8.529725E-1	8.642814E-1	8.598669E-1	9.503966E-1	8.977924E-1	8.908061E-1	8.988971E-1	8.706881E-1	8.882231E-1	9.132158E-1	8.747692E-1	8.682374E-1	8.619078E-1	9.039476E-1	8.714181E-1	9.293931E-1	9.137930E-1	9.126945E-1	9.032139E-1	8.496259E-1	8.758355E-1	8.920437E-1	8.443770E-1	8.935820E-1	8.862393E-1	8.848977E-1	8.627111E-1	8.683832E-1	9.403516E-1	9.197595E-1	8.928061E-1	9.038426E-1	8.740557E-1	8.710662E-1	9.028440E-1	8.800646E-1	8.523043E-1	8.714995E-1	8.560995E-1	9.153637E-1	8.386521E-1	8.847645E-1	8.556429E-1	8.554539E-1	8.963760E-1	8.783734E-1	8.184661E-1	8.617350E-1	9.212954E-1	8.433860E-1	8.886014E-1	8.791800E-1	8.620654E-1	9.145676E-1	9.081465E-1	9.067781E-1	8.459523E-1	9.145822E-1	9.457362E-1	9.334310E-1	9.144828E-1	9.023894E-1	8.767417E-1	8.709931E-1	8.426304E-1	8.929290E-1	9.041555E-1	8.677845E-1	9.019007E-1	8.497769E-1	8.585378E-1	8.899598E-1	8.915016E-1	8.693719E-1	8.812300E-1	8.953967E-1	8.922609E-1	8.973217E-1	8.386088E-1	8.843265E-1	8.811426E-1	8.528670E-1	8.885350E-1	9.432744E-1	8.771161E-1	8.868766E-1	9.269867E-1	9.354051E-1	8.957753E-1	9.006216E-1	8.966124E-1	8.844872E-1	8.599871E-1	9.159232E-1	9.280673E-1	8.780950E-1	9.081523E-1	8.873069E-1	9.305699E-1	9.053453E-1	9.017462E-1	8.955187E-1	9.576114E-1	8.473403E-1	9.062153E-1	9.268649E-1	9.089415E-1	8.845257E-1	8.892430E-1	9.260335E-1	8.943005E-1	8.607179E-1	8.811331E-1	8.805159E-1	8.915122E-1	9.342815E-1	9.226207E-1	9.256959E-1	9.287363E-1	8.953467E-1	8.917501E-1	8.595783E-1	9.161188E-1
2.876030E+2	7.679878E-1	7.541892E-1	7.861537E-1	7.092723E-1	7.778304E-1	7.250203E-1	7.497035E-1	7.119207E-1	8.051102E-1	7.498910E-1	7.713505E-1	7.723284E-1	6.998733E-1	7.602979E-1	8.261997E-1	7.932296E-1	7.819017E-1	7.754139E-1	7.422341E-1	7.699780E-1	7.308255E-1	7.253717E-1	7.530033E-1	7.542136E-1	8.030500E-1	7.658469E-1	7.559604E-1	7.598692E-1	7.404745E-1	7.743006E-1	7.953206E-1	7.337456E-1	7.845373E-1	7.638980E-1	7.574644E-1	7.642001E-1	7.475689E-1	7.605335E-1	7.450478E-1	7.605937E-1	7.350593E-1	7.439182E-1	7.013699E-1	7.806814E-1	7.731904E-1	7.961801E-1	7.958410E-1	7.746277E-1	7.316715E-1	7.654586E-1	7.654289E-1	7.555815E-1	7.613437E-1	7.723428E-1	7.647766E-1	7.620445E-1	7.585150E-1	7.729645E-1	7.939605E-1	7.832188E-1	7.769306E-1	7.321473E-1	7.448589E-1	7.884103E-1	7.440075E-1	7.783748E-1	7.601742E-1	7.950523E-1	7.846612E-1	7.660448E-1	7.733895E-1	7.750252E-1	7.522244E-1	7.399462E-1	8.005531E-1	7.926843E-1	7.744639E-1	7.498916E-1	7.828857E-1	7.737082E-1	7.460057E-1	7.549159E-1	7.854416E-1	7.584625E-1	7.592785E-1	7.926234E-1	7.344081E-1	7.798144E-1	7.875085E-1	7.962503E-1	7.532544E-1	7.444547E-1	7.522412E-1	7.592688E-1	7.975333E-1	7.827354E-1	7.789318E-1	7.555014E-1	7.526681E-1	7.775700E-1	7.978369E-1	8.118591E-1	7.668784E-1	7.505664E-1	7.668449E-1	7.325950E-1	7.685955E-1	7.290653E-1	7.764539E-1	7.251096E-1	7.665260E-1	8.126602E-1	7.741702E-1	7.562619E-1	7.625698E-1	7.734362E-1	7.558027E-1	7.971201E-1	7.494921E-1	7.496243E-1	7.701608E-1	7.580471E-1	7.718211E-1	7.934167E-1	7.557379E-1	7.807096E-1	7.530696E-1	7.757345E-1	8.189901E-1	7.869711E-1	7.545150E-1	7.879411E-1	7.894313E-1	7.495554E-1	7.849664E-1	7.867856E-1	7.695153E-1	7.725393E-1	8.328530E-1	7.775707E-1	7.603703E-1	7.459174E-1	7.913068E-1	7.858756E-1	7.851632E-1	7.342207E-1	8.344881E-1	7.241398E-1	7.832575E-1	7.955387E-1	7.635485E-1	7.605335E-1	7.857523E-1	7.882007E-1	7.911768E-1	7.962043E-1	7.815923E-1	7.393377E-1	7.745363E-1	7.808108E-1	7.732513E-1	7.752855E-1	7.890682E-1
2.878030E+2	6.043334E-1	6.230802E-1	6.600648E-1	6.071878E-1	6.207584E-1	6.331724E-1	6.054633E-1	6.293121E-1	6.584839E-1	6.699717E-1	6.655623E-1	6.546999E-1	6.244746E-1	6.323551E-1	6.460849E-1	6.371869E-1	6.248739E-1	6.608673E-1	6.279064E-1	6.497465E-1	6.100025E-1	6.389204E-1	6.714837E-1	6.524609E-1	6.499473E-1	6.544146E-1	6.299060E-1	6.631918E-1	6.588706E-1	6.511641E-1	6.184766E-1	6.583413E-1	6.779459E-1	6.387349E-1	6.447091E-1	6.449187E-1	6.607946E-1	6.440271E-1	6.523213E-1	6.505322E-1	6.685328E-1	6.571562E-1	6.290045E-1	6.276973E-1	6.565459E-1	6.387589E-1	6.750260E-1	6.378191E-1	6.922778E-1	6.402684E-1	6.186440E-1	6.651835E-1	6.118127E-1	6.273156E-1	6.242524E-1	6.616104E-1	6.442022E-1	6.639921E-1	6.315970E-1	6.491563E-1	6.793688E-1	6.758239E-1	7.044827E-1	6.311081E-1	6.761387E-1	6.445682E-1	6.385782E-1	6.256542E-1	6.616928E-1	6.552376E-1	6.672016E-1	6.359131E-1	6.639667E-1	6.132215E-1	6.280821E-1	6.332485E-1	6.527300E-1	6.257482E-1	6.947125E-1	6.711803E-1	6.390902E-1	6.419943E-1	6.428651E-1	6.020137E-1	6.216630E-1	6.474748E-1	6.056936E-1	6.274608E-1	6.697497E-1	6.451796E-1	6.461424E-1	6.317508E-1	6.623249E-1	6.674824E-1	6.598140E-1	6.694418E-1	6.551108E-1	6.414291E-1	6.243007E-1	6.313544E-1	6.316910E-1	6.908149E-1	6.479584E-1	6.465920E-1	6.503256E-1	6.245690E-1	6.358446E-1	6.536355E-1	6.329748E-1	6.386864E-1	6.856522E-1	6.735806E-1	6.578713E-1	6.278000E-1	6.806785E-1	6.242742E-1	5.920331E-1	6.706653E-1	6.357642E-1	6.003000E-1	6.423357E-1	6.084992E-1	6.649042E-1	6.483680E-1	6.419631E-1	6.307908E-1	6.477471E-1	6.532276E-1	6.491187E-1	6.042507E-1	6.205690E-1	6.701055E-1	6.617831E-1	6.108536E-1	6.245365E-1	6.741659E-1	6.741482E-1	6.641263E-1	6.213857E-1	6.487730E-1	6.225244E-1	6.589085E-1	6.438229E-1	6.021873E-1	6.193956E-1	6.531824E-1	6.816610E-1	6.530354E-1	6.492828E-1	6.571768E-1	6.276360E-1	6.651612E-1	6.315834E-1	5.981760E-1	6.637812E-1	6.924967E-1	6.703188E-1	6.684408E-1	6.169248E-1	6.694548E-1	6.175437E-1	6.914262E-1	6.390522E-1
2.880010E+2	7.268134E-1	7.376764E-1	7.494744E-1	6.855660E-1	7.322782E-1	7.308766E-1	7.479197E-1	7.322812E-1	7.366687E-1	7.081353E-1	7.208807E-1	7.297339E-1	7.271129E-1	7.519381E-1	7.416764E-1	7.568831E-1	7.449424E-1	7.447536E-1	7.595712E-1	7.357661E-1	7.207015E-1	7.434637E-1	7.282561E-1	7.841614E-1	7.536412E-1	7.164066E-1	7.262421E-1	7.129238E-1	7.349292E-1	7.376567E-1	7.506110E-1	7.724801E-1	7.390710E-1	7.063934E-1	7.159868E-1	7.501786E-1	7.066756E-1	7.349859E-1	7.185785E-1	7.642780E-1	7.204365E-1	7.847404E-1	7.216990E-1	7.150731E-1	7.643472E-1	7.648481E-1	7.856259E-1	7.556857E-1	7.549788E-1	7.640809E-1	7.387601E-1	7.145264E-1	7.592116E-1	7.166191E-1	7.318567E-1	7.621189E-1	7.298965E-1	7.294997E-1	7.317049E-1	7.417651E-1	7.363829E-1	7.364985E-1	7.897679E-1	7.452641E-1	7.514943E-1	7.293220E-1	7.094976E-1	7.466614E-1	7.031474E-1	7.329865E-1	7.581594E-1	7.555007E-1	7.470766E-1	6.763559E-1	6.796577E-1	7.278882E-1	7.549207E-1	7.382859E-1	7.617346E-1	7.496721E-1	6.826953E-1	7.427877E-1	7.608435E-1	7.520382E-1	7.195626E-1	7.523659E-1	7.611754E-1	7.318841E-1	7.377896E-1	6.896579E-1	7.665351E-1	7.421569E-1	7.943753E-1	7.879192E-1	6.967370E-1	7.240408E-1	7.137874E-1	7.609986E-1	7.928072E-1	7.377803E-1	7.634379E-1	7.541355E-1	7.498251E-1	7.109685E-1	7.486672E-1	6.859414E-1	7.465475E-1	7.484642E-1	7.815830E-1	7.192469E-1	8.249031E-1	7.597908E-1	7.334884E-1	7.332534E-1	7.721101E-1	7.620560E-1	7.165879E-1	7.898634E-1	7.464036E-1	7.185351E-1	7.510317E-1	7.600822E-1	6.929371E-1	7.838982E-1	7.247915E-1	7.566145E-1	7.816048E-1	7.839452E-1	7.304624E-1	7.743746E-1	7.231998E-1	7.316761E-1	7.715211E-1	7.366270E-1	7.301406E-1	7.487105E-1	7.433934E-1	7.526203E-1	7.033877E-1	7.699090E-1	7.799005E-1	7.656494E-1	7.862726E-1	7.366367E-1	7.729122E-1	6.897564E-1	7.360597E-1	7.848891E-1	7.463500E-1	7.198429E-1	7.384537E-1	7.747153E-1	7.702263E-1	7.263866E-1	7.165587E-1	7.520683E-1	7.824411E-1	7.502693E-1	7.318992E-1	8.069235E-1	7.248794E-1	7.568480E-1	7.656603E-1
2.882210E+2	8.284187E-1	8.576796E-1	8.058403E-1	7.809237E-1	8.104823E-1	8.289630E-1	8.334652E-1	7.970763E-1	7.868621E-1	8.177788E-1	8.575791E-1	8.469169E-1	8.071381E-1	7.943257E-1	8.243580E-1	8.174645E-1	8.177469E-1	8.116462E-1	8.205473E-1	8.186507E-1	7.806650E-1	8.098789E-1	8.068244E-1	8.374481E-1	8.227816E-1	7.607252E-1	8.518035E-1	8.472328E-1	8.359629E-1	8.551706E-1	8.364827E-1	8.263534E-1	8.184878E-1	8.450633E-1	7.829631E-1	8.481936E-1	8.061220E-1	8.279048E-1	8.585099E-1	8.448612E-1	7.927755E-1	7.801864E-1	7.817256E-1	8.591519E-1	8.171845E-1	8.464652E-1	7.920337E-1	8.529490E-1	8.725891E-1	8.142633E-1	8.594880E-1	7.840592E-1	8.619551E-1	8.230117E-1	8.111775E-1	8.461616E-1	8.319234E-1	7.961298E-1	8.184195E-1	8.965120E-1	8.069446E-1	8.037865E-1	8.285766E-1	8.402650E-1	8.144899E-1	8.074038E-1	7.767557E-1	8.249863E-1	8.139168E-1	8.446918E-1	8.162315E-1	8.292585E-1	8.923481E-1	8.185362E-1	8.365296E-1	8.105593E-1	8.105262E-1	8.404316E-1	8.395476E-1	9.025454E-1	8.079821E-1	8.785262E-1	7.976465E-1	8.439223E-1	8.653476E-1	7.524348E-1	8.037643E-1	8.170739E-1	7.967453E-1	8.244532E-1	8.216036E-1	8.351627E-1	8.020297E-1	8.289609E-1	8.279415E-1	8.712291E-1	8.329681E-1	7.901036E-1	8.205800E-1	8.318506E-1	8.349684E-1	8.094265E-1	8.109771E-1	8.321800E-1	8.370480E-1	8.158220E-1	8.393249E-1	8.089591E-1	8.517342E-1	8.288942E-1	8.237903E-1	8.646898E-1	8.169583E-1	7.277650E-1	7.428773E-1	7.790788E-1	8.038980E-1	8.538119E-1	7.845316E-1	8.091005E-1	8.100118E-1	8.538586E-1	8.087431E-1	8.259397E-1	8.261804E-1	8.127500E-1	8.620423E-1	8.578760E-1	8.327459E-1	8.085527E-1	8.011022E-1	9.012599E-1	8.409673E-1	8.296941E-1	7.845582E-1	8.306666E-1	8.173924E-1	8.180955E-1	8.237980E-1	8.558886E-1	8.093051E-1	8.230733E-1	8.354507E-1	8.182977E-1	8.409768E-1	8.000538E-1	8.423691E-1	7.808632E-1	8.345381E-1	8.450593E-1	7.963594E-1	8.277965E-1	8.241215E-1	8.269446E-1	8.092997E-1	8.497873E-1	7.901662E-1	8.033926E-1	7.544661E-1	8.823694E-1	7.748191E-1	8.043960E-1	8.568780E-1
2.884090E+2	8.832531E-1	8.869995E-1	9.193770E-1	8.864924E-1	8.813337E-1	9.014166E-1	9.060806E-1	8.991262E-1	9.302688E-1	8.623465E-1	8.546128E-1	8.858184E-1	8.984199E-1	8.913895E-1	9.054275E-1	8.983056E-1	9.402706E-1	8.945856E-1	8.885637E-1	9.434784E-1	9.054666E-1	9.103633E-1	9.584524E-1	9.652108E-1	9.396012E-1	8.485907E-1	9.367199E-1	9.357034E-1	9.211944E-1	9.307245E-1	8.967107E-1	9.143005E-1	9.136634E-1	9.393692E-1	9.168800E-1	9.254641E-1	9.093948E-1	9.377264E-1	9.620703E-1	9.416080E-1	9.025833E-1	9.043123E-1	9.434376E-1	9.533847E-1	9.246241E-1	9.355069E-1	9.087853E-1	8.643170E-1	9.313952E-1	9.245585E-1	8.790435E-1	9.361139E-1	8.862277E-1	9.334831E-1	8.791888E-1	9.370983E-1	8.823045E-1	8.958528E-1	8.872449E-1	9.389743E-1	8.876525E-1	9.443027E-1	9.278060E-1	9.325530E-1	9.075278E-1	8.977066E-1	8.960829E-1	9.863077E-1	9.123202E-1	9.470167E-1	8.655841E-1	9.233805E-1	9.425956E-1	8.690718E-1	8.893215E-1	9.877472E-1	9.269895E-1	8.900635E-1	9.268825E-1	9.198503E-1	9.043178E-1	9.292816E-1	9.188363E-1	9.131889E-1	8.177982E-1	8.936346E-1	8.912694E-1	8.785988E-1	9.601265E-1	8.314527E-1	8.594015E-1	9.574017E-1	9.338527E-1	9.452390E-1	9.278670E-1	9.703369E-1	8.732938E-1	8.716551E-1	9.402086E-1	9.136081E-1	9.830132E-1	9.428824E-1	8.838305E-1	9.220403E-1	8.923451E-1	9.182348E-1	8.806606E-1	9.002285E-1	8.867514E-1	8.951518E-1	9.339048E-1	9.131373E-1	8.958409E-1	9.059274E-1	8.914370E-1	8.975589E-1	9.251544E-1	9.300830E-1	9.010019E-1	9.236767E-1	9.172698E-1	9.057094E-1	8.654927E-1	9.563260E-1	9.324254E-1	9.408688E-1	9.254984E-1	9.172420E-1	9.349706E-1	9.300400E-1	8.923478E-1	8.964670E-1	9.086067E-1	9.530689E-1	9.149938E-1	9.145523E-1	9.275051E-1	9.104902E-1	8.790240E-1	9.249900E-1	8.852099E-1	9.436806E-1	9.656947E-1	9.170940E-1	9.186474E-1	8.871728E-1	9.193526E-1	8.994411E-1	9.432312E-1	9.123969E-1	9.057594E-1	8.816671E-1	9.481171E-1	8.758138E-1	9.374080E-1	9.266586E-1	9.222380E-1	8.255760E-1	8.880145E-1	8.774387E-1	9.214752E-1	9.087354E-1	9.319684E-1
2.886010E+2	1.001402E+0	9.616696E-1	9.611759E-1	9.752889E-1	9.558335E-1	1.053659E+0	9.532466E-1	9.488259E-1	9.820805E-1	9.289564E-1	9.744293E-1	1.019901E+0	9.427369E-1	9.446985E-1	9.555822E-1	1.023576E+0	9.555411E-1	9.262495E-1	9.165160E-1	9.460875E-1	9.957382E-1	9.453473E-1	9.351557E-1	1.007018E+0	9.717648E-1	9.264755E-1	9.952213E-1	9.205116E-1	9.102481E-1	1.001093E+0	1.004461E+0	9.527517E-1	9.154113E-1	9.826897E-1	9.385300E-1	1.011084E+0	9.215549E-1	9.750748E-1	9.727489E-1	9.401678E-1	9.400638E-1	9.632650E-1	9.530971E-1	1.042470E+0	9.551936E-1	1.036627E+0	9.544732E-1	1.013050E+0	9.686271E-1	9.712153E-1	9.658405E-1	9.426055E-1	9.800902E-1	9.737157E-1	9.476503E-1	9.333179E-1	9.656259E-1	1.010068E+0	9.180397E-1	1.005979E+0	9.439743E-1	9.404632E-1	9.530065E-1	9.955766E-1	1.000825E+0	9.715402E-1	9.472488E-1	9.474599E-1	9.335277E-1	9.740431E-1	9.697778E-1	1.012492E+0	1.008709E+0	9.369870E-1	9.481223E-1	1.006948E+0	9.943485E-1	9.479168E-1	9.715409E-1	9.968058E-1	9.910844E-1	9.679870E-1	9.413186E-1	9.580127E-1	9.622540E-1	9.777510E-1	9.621686E-1	9.540470E-1	9.528172E-1	9.400390E-1	9.728276E-1	1.056970E+0	9.681706E-1	1.037455E+0	1.006332E+0	9.912108E-1	9.396645E-1	9.153187E-1	9.181949E-1	1.003465E+0	9.679062E-1	1.008810E+0	9.385493E-1	9.609112E-1	9.766910E-1	9.862058E-1	9.697142E-1	9.661296E-1	9.679500E-1	9.217783E-1	9.803256E-1	9.989963E-1	9.996395E-1	9.264967E-1	9.386836E-1	9.997178E-1	9.567642E-1	9.579669E-1	9.495735E-1	1.002499E+0	9.527164E-1	9.981891E-1	9.207134E-1	9.610312E-1	9.881775E-1	1.004247E+0	9.753841E-1	1.006845E+0	9.629057E-1	9.695919E-1	9.426444E-1	9.591794E-1	9.645153E-1	9.592920E-1	9.709617E-1	9.503142E-1	1.015625E+0	1.000250E+0	1.016477E+0	1.005965E+0	9.541598E-1	9.843646E-1	9.614507E-1	9.879085E-1	1.033288E+0	9.344531E-1	1.001555E+0	1.006090E+0	9.789484E-1	9.988675E-1	9.282091E-1	9.479056E-1	1.016002E+0	9.886225E-1	9.698593E-1	1.000771E+0	9.801821E-1	9.477771E-1	9.808221E-1	9.975081E-1	9.761796E-1	9.732556E-1	9.747406E-1
2.887980E+2	1.054590E+0	1.062510E+0	1.002573E+0	1.074899E+0	1.014362E+0	1.067167E+0	1.046189E+0	1.031317E+0	9.976261E-1	1.041391E+0	1.013864E+0	1.011017E+0	9.878263E-1	9.945681E-1	1.067152E+0	1.033216E+0	1.037836E+0	1.021331E+0	1.008790E+0	9.962641E-1	1.019985E+0	9.770870E-1	1.047162E+0	1.024958E+0	1.005106E+0	9.987438E-1	1.023166E+0	1.028399E+0	1.021398E+0	1.017119E+0	1.031948E+0	1.056507E+0	1.044221E+0	1.003049E+0	1.048323E+0	1.026641E+0	9.956876E-1	1.010962E+0	1.028323E+0	1.007293E+0	9.900812E-1	1.049583E+0	1.013664E+0	1.028786E+0	1.004970E+0	1.000485E+0	1.003888E+0	1.047687E+0	1.019675E+0	1.020580E+0	1.027601E+0	1.021228E+0	9.790523E-1	1.045139E+0	1.032054E+0	1.019366E+0	1.061668E+0	1.048238E+0	1.015776E+0	1.025480E+0	1.056260E+0	1.050773E+0	1.070268E+0	1.050086E+0	1.066182E+0	1.027453E+0	1.004692E+0	1.038510E+0	1.041688E+0	1.048290E+0	1.028053E+0	1.070902E+0	1.041207E+0	1.027728E+0	1.070848E+0	1.088023E+0	1.045101E+0	9.964619E-1	1.052228E+0	1.058479E+0	1.080214E+0	1.035553E+0	9.996312E-1	1.039378E+0	1.040943E+0	9.941848E-1	9.960763E-1	1.037737E+0	9.791231E-1	1.008088E+0	1.004991E+0	1.004303E+0	1.052281E+0	1.070522E+0	1.053764E+0	1.064992E+0	9.961655E-1	1.037042E+0	1.121676E+0	1.041568E+0	1.005694E+0	1.046007E+0	1.029731E+0	1.002692E+0	1.035646E+0	1.006059E+0	1.022011E+0	9.986515E-1	1.015525E+0	1.020744E+0	1.064495E+0	1.045925E+0	1.046644E+0	1.010475E+0	1.031058E+0	1.090763E+0	1.059751E+0	1.029816E+0	9.964713E-1	9.985045E-1	1.037596E+0	1.057251E+0	1.002300E+0	1.056791E+0	9.602144E-1	1.023023E+0	1.023737E+0	1.022323E+0	1.046691E+0	1.054687E+0	1.077850E+0	1.031995E+0	1.124609E+0	1.063360E+0	1.055969E+0	1.086095E+0	1.035186E+0	1.050061E+0	9.956847E-1	1.036424E+0	9.766779E-1	1.038428E+0	1.030420E+0	9.756502E-1	1.059745E+0	1.017730E+0	1.093848E+0	1.039332E+0	1.043124E+0	1.071446E+0	1.047175E+0	1.079430E+0	1.051082E+0	1.068719E+0	1.055847E+0	1.043169E+0	1.053064E+0	1.034873E+0	1.009842E+0	1.078769E+0	1.038544E+0	9.977032E-1	1.001965E+0
2.890110E+2	1.023299E+0	1.038304E+0	1.071030E+0	1.033870E+0	1.038831E+0	1.025924E+0	1.065248E+0	1.055607E+0	1.042216E+0	9.907522E-1	1.025848E+0	1.022782E+0	1.011205E+0	9.973474E-1	1.072810E+0	1.034495E+0	1.071472E+0	9.916829E-1	1.012675E+0	1.016048E+0	9.849014E-1	1.021961E+0	1.018832E+0	1.059522E+0	1.041634E+0	9.943452E-1	1.017456E+0	1.015631E+0	9.900261E-1	1.094653E+0	1.045491E+0	1.036753E+0	1.006609E+0	1.065901E+0	1.022797E+0	1.094174E+0	1.007409E+0	1.038278E+0	1.048779E+0	1.006458E+0	1.046389E+0	1.036697E+0	1.018398E+0	1.054609E+0	1.016242E+0	1.045357E+0	1.050953E+0	1.079472E+0	1.066106E+0	1.075972E+0	1.012445E+0	9.785101E-1	1.020038E+0	1.048649E+0	1.041586E+0	1.035540E+0	1.030172E+0	1.042225E+0	1.038423E+0	1.053212E+0	1.019329E+0	1.028619E+0	1.068461E+0	1.047364E+0	1.059764E+0	1.092833E+0	1.038256E+0	1.076296E+0	1.042887E+0	1.070097E+0	1.035713E+0	1.000786E+0	1.061390E+0	1.033577E+0	1.011670E+0	1.106395E+0	9.860179E-1	1.023843E+0	1.037343E+0	1.060278E+0	1.000114E+0	1.085857E+0	1.007750E+0	1.023687E+0	1.079471E+0	1.057403E+0	1.049296E+0	1.046754E+0	9.722862E-1	1.012087E+0	1.009099E+0	1.066073E+0	1.054802E+0	1.045561E+0	1.025166E+0	1.014352E+0	1.027225E+0	1.070393E+0	9.980336E-1	1.077142E+0	1.099318E+0	1.101669E+0	1.036100E+0	1.011626E+0	1.108468E+0	1.066424E+0	1.028947E+0	1.035717E+0	1.005723E+0	9.860694E-1	1.079436E+0	1.046276E+0	1.026117E+0	9.849785E-1	1.080230E+0	1.033698E+0	1.021494E+0	1.029637E+0	1.041020E+0	1.002252E+0	1.037361E+0	1.005925E+0	1.019461E+0	1.035400E+0	1.042977E+0	1.063667E+0	1.065395E+0	1.078396E+0	1.093285E+0	1.028439E+0	1.041419E+0	1.047599E+0	1.120148E+0	1.086315E+0	1.033675E+0	1.048526E+0	1.071153E+0	1.083351E+0	1.034409E+0	1.066131E+0	1.052028E+0	1.078526E+0	1.052224E+0	1.022558E+0	1.018595E+0	1.069785E+0	1.046326E+0	1.068938E+0	1.092570E+0	1.064999E+0	1.033430E+0	1.102989E+0	1.061842E+0	1.086900E+0	1.020706E+0	1.035878E+0	1.035011E+0	1.051654E+0	1.044685E+0	1.032194E+0	1.016218E+0	1.038625E+0	9.689637E-1
2.892050E+2	1.001184E+0	9.921524E-1	9.516762E-1	9.993180E-1	9.580246E-1	1.006511E+0	9.686653E-1	9.750315E-1	9.701769E-1	9.753294E-1	1.014369E+0	9.984378E-1	9.763744E-1	1.008468E+0	9.706466E-1	1.042684E+0	9.702276E-1	9.523210E-1	9.584821E-1	1.001701E+0	1.012994E+0	9.698027E-1	9.869374E-1	1.023042E+0	9.946075E-1	9.101774E-1	9.809243E-1	9.419371E-1	9.544641E-1	9.693391E-1	9.463592E-1	9.931516E-1	9.610707E-1	9.510517E-1	9.879611E-1	9.947113E-1	9.445259E-1	9.593804E-1	9.533040E-1	9.844806E-1	9.650582E-1	9.861677E-1	9.332206E-1	1.025798E+0	9.590196E-1	9.926682E-1	9.975351E-1	1.018215E+0	9.814117E-1	1.010255E+0	9.432559E-1	9.963628E-1	9.465323E-1	1.008326E+0	9.414619E-1	1.008304E+0	1.004831E+0	1.041926E+0	9.763961E-1	9.878010E-1	9.666803E-1	9.783751E-1	9.998242E-1	9.914256E-1	9.765576E-1	9.390533E-1	9.758921E-1	9.899685E-1	9.579893E-1	9.891428E-1	1.005018E+0	9.994206E-1	1.012483E+0	9.541331E-1	1.017429E+0	1.036305E+0	1.002802E+0	9.975254E-1	9.365924E-1	1.046280E+0	9.810292E-1	9.871537E-1	9.939380E-1	1.015635E+0	9.658240E-1	9.510364E-1	9.693867E-1	1.010956E+0	9.841381E-1	9.519486E-1	9.367599E-1	9.750115E-1	9.791994E-1	1.010264E+0	9.651899E-1	9.843760E-1	9.488104E-1	9.924354E-1	9.881358E-1	9.898111E-1	9.259027E-1	9.897909E-1	9.793731E-1	9.535076E-1	9.595584E-1	9.536762E-1	1.011523E+0	1.000662E+0	9.975422E-1	9.679071E-1	9.150316E-1	9.930428E-1	1.004062E+0	8.768385E-1	9.578551E-1	9.846956E-1	9.915591E-1	1.003619E+0	9.685454E-1	1.048442E+0	1.031630E+0	9.825994E-1	9.303467E-1	9.992610E-1	9.643130E-1	1.009205E+0	9.949618E-1	9.735035E-1	9.887866E-1	1.032744E+0	9.613675E-1	9.521758E-1	1.005304E+0	1.034740E+0	9.817154E-1	1.001978E+0	1.041544E+0	1.030358E+0	9.367417E-1	1.013007E+0	9.329105E-1	9.851511E-1	1.038112E+0	9.635538E-1	9.603830E-1	9.897236E-1	1.038984E+0	9.894106E-1	9.709860E-1	1.005229E+0	1.018420E+0	1.019066E+0	9.574007E-1	9.499581E-1	9.824151E-1	1.026159E+0	9.711896E-1	9.725336E-1	9.151809E-1	1.045697E+0	1.016955E+0	9.538086E-1	9.901631E-1
2.894040E+2	8.402925E-1	9.039741E-1	8.834882E-1	8.648245E-1	8.457534E-1	9.153632E-1	8.802594E-1	8.984619E-1	8.966580E-1	8.810831E-1	9.252725E-1	9.042515E-1	8.705847E-1	8.961159E-1	9.044345E-1	9.039407E-1	9.273899E-1	8.590002E-1	8.659910E-1	8.256910E-1	8.798031E-1	8.601856E-1	9.173767E-1	9.050766E-1	9.115631E-1	9.078022E-1	8.574752E-1	9.017869E-1	8.641551E-1	8.689537E-1	8.832795E-1	8.594751E-1	8.555372E-1	8.632740E-1	8.728922E-1	9.088214E-1	8.743766E-1	8.813088E-1	9.142010E-1	8.968814E-1	8.803650E-1	9.291355E-1	8.741955E-1	8.975030E-1	8.560976E-1	9.218491E-1	9.558499E-1	9.258364E-1	8.800479E-1	8.312733E-1	8.828181E-1	9.339012E-1	8.723664E-1	9.186397E-1	8.560238E-1	8.880891E-1	9.298409E-1	8.977454E-1	8.504524E-1	8.638211E-1	8.749933E-1	8.806455E-1	8.726529E-1	8.977746E-1	8.997381E-1	8.225054E-1	8.103326E-1	8.821559E-1	8.841803E-1	9.555584E-1	8.698092E-1	9.090375E-1	9.208529E-1	8.708287E-1	9.043647E-1	9.397708E-1	8.532160E-1	8.543293E-1	9.487412E-1	8.185004E-1	9.115050E-1	8.778443E-1	8.533918E-1	8.525262E-1	8.466881E-1	8.747940E-1	9.050103E-1	8.874800E-1	8.693591E-1	8.755374E-1	8.487214E-1	8.670923E-1	8.884063E-1	8.696462E-1	8.580773E-1	9.335305E-1	9.288424E-1	8.789428E-1	8.402487E-1	8.895644E-1	9.079301E-1	9.029736E-1	8.986636E-1	8.819676E-1	8.798344E-1	8.921285E-1	8.676703E-1	9.013754E-1	8.758802E-1	8.603404E-1	8.989502E-1	9.054081E-1	8.934521E-1	8.242868E-1	9.176800E-1	8.682066E-1	8.846052E-1	8.791264E-1	8.947556E-1	9.018472E-1	9.288972E-1	8.988159E-1	8.467950E-1	8.629887E-1	8.891747E-1	9.334405E-1	9.113417E-1	9.331256E-1	9.093308E-1	8.863914E-1	9.119792E-1	9.102290E-1	9.349370E-1	9.369623E-1	8.624267E-1	8.644299E-1	9.243003E-1	8.665609E-1	8.982754E-1	9.585295E-1	9.055546E-1	9.241491E-1	8.829690E-1	9.273531E-1	8.822794E-1	8.753821E-1	8.570349E-1	9.077790E-1	9.042742E-1	8.533584E-1	8.535998E-1	9.116947E-1	8.900787E-1	8.861633E-1	9.233855E-1	9.160339E-1	8.901433E-1	9.718160E-1	9.429545E-1	8.975660E-1	9.233978E-1	9.005638E-1	8.914156E-1
2.896030E+2	7.603346E-1	7.360441E-1	7.156289E-1	7.683783E-1	7.434441E-1	8.232367E-1	7.361124E-1	7.848170E-1	7.701338E-1	7.561886E-1	7.827218E-1	7.342140E-1	7.638183E-1	7.476697E-1	7.763166E-1	7.548395E-1	7.647963E-1	7.919817E-1	7.380954E-1	7.348257E-1	7.735065E-1	7.616755E-1	7.960532E-1	7.703199E-1	8.048313E-1	7.445389E-1	7.561030E-1	7.574123E-1	7.804517E-1	7.325649E-1	7.530165E-1	7.308295E-1	7.790417E-1	7.441929E-1	7.854226E-1	7.679810E-1	7.576161E-1	7.613047E-1	7.724787E-1	7.594030E-1	7.654797E-1	7.891363E-1	7.232168E-1	7.682457E-1	7.582581E-1	7.942001E-1	7.743162E-1	7.587385E-1	8.145388E-1	7.772132E-1	7.847860E-1	7.451304E-1	7.242760E-1	7.629042E-1	7.449762E-1	8.240614E-1	8.168011E-1	8.003059E-1	7.379552E-1	8.061413E-1	7.402857E-1	7.332548E-1	8.174176E-1	8.161729E-1	8.111570E-1	7.490518E-1	7.440260E-1	7.491569E-1	7.478108E-1	7.391498E-1	7.872849E-1	7.671155E-1	7.667041E-1	7.651849E-1	8.140241E-1	8.057758E-1	7.879686E-1	7.591935E-1	7.689017E-1	7.874810E-1	7.513975E-1	7.899057E-1	7.577371E-1	7.834606E-1	7.635510E-1	7.868582E-1	7.708922E-1	7.524387E-1	7.359023E-1	7.979200E-1	7.435826E-1	7.765427E-1	7.916668E-1	7.785498E-1	7.957139E-1	7.503185E-1	7.364623E-1	7.682977E-1	7.621716E-1	7.781586E-1	8.093396E-1	7.909990E-1	7.703744E-1	7.672980E-1	7.923177E-1	7.913514E-1	7.170837E-1	8.252566E-1	7.727969E-1	7.918447E-1	7.975182E-1	7.954859E-1	7.287752E-1	7.904128E-1	8.039883E-1	7.185045E-1	7.888349E-1	8.065451E-1	7.541602E-1	8.013862E-1	7.383139E-1	7.677350E-1	7.470826E-1	8.048615E-1	7.786400E-1	7.845913E-1	7.886314E-1	7.809859E-1	7.962356E-1	8.056198E-1	8.157185E-1	7.905770E-1	7.928432E-1	7.858229E-1	7.720995E-1	7.812469E-1	7.819785E-1	8.000504E-1	7.742704E-1	6.786793E-1	7.871878E-1	7.830125E-1	7.271142E-1	7.761963E-1	7.489530E-1	7.987512E-1	7.594703E-1	7.654420E-1	7.741923E-1	7.768097E-1	7.636037E-1	8.031225E-1	7.937943E-1	7.773525E-1	7.943172E-1	7.949208E-1	7.650832E-1	7.455069E-1	7.759149E-1	7.581837E-1	7.345070E-1	7.576998E-1	7.562669E-1
2.898030E+2	8.239834E-1	8.645564E-1	7.596089E-1	8.718256E-1	7.682704E-1	8.158105E-1	8.191778E-1	8.206923E-1	8.363942E-1	8.397304E-1	8.417587E-1	8.397595E-1	8.328861E-1	8.289119E-1	8.163416E-1	8.029739E-1	8.844217E-1	8.257335E-1	8.314971E-1	8.476462E-1	8.262556E-1	8.324337E-1	8.461197E-1	9.045478E-1	8.171603E-1	8.228913E-1	8.338342E-1	8.326146E-1	8.615611E-1	8.245544E-1	7.942884E-1	8.043157E-1	7.933530E-1	8.134421E-1	8.325637E-1	8.196047E-1	7.939471E-1	8.081664E-1	8.671104E-1	8.402630E-1	8.493459E-1	8.569781E-1	8.249627E-1	8.377684E-1	7.845546E-1	8.543956E-1	8.429586E-1	8.342629E-1	8.045095E-1	8.379071E-1	7.914316E-1	8.865793E-1	8.593303E-1	8.288806E-1	8.465082E-1	9.177754E-1	8.101758E-1	8.465959E-1	8.343627E-1	8.362939E-1	8.412466E-1	7.976208E-1	8.319373E-1	8.183316E-1	8.329851E-1	8.283290E-1	8.273340E-1	7.991739E-1	8.179284E-1	8.238372E-1	8.448057E-1	8.178883E-1	8.576281E-1	8.141609E-1	8.062194E-1	9.004502E-1	8.118515E-1	8.596596E-1	8.043851E-1	8.301816E-1	7.823126E-1	7.854465E-1	7.945082E-1	8.310868E-1	8.272443E-1	8.493310E-1	8.059312E-1	8.063155E-1	8.179570E-1	7.992449E-1	8.248046E-1	8.811658E-1	8.250495E-1	8.651229E-1	8.237129E-1	8.405821E-1	8.439474E-1	8.136543E-1	7.999671E-1	8.290455E-1	8.757865E-1	8.481897E-1	8.545726E-1	8.222270E-1	8.406221E-1	8.210578E-1	8.161474E-1	8.547380E-1	8.332643E-1	8.525460E-1	8.680068E-1	8.427346E-1	8.343398E-1	8.086026E-1	8.346594E-1	8.264280E-1	7.973250E-1	8.366898E-1	7.864301E-1	7.968780E-1	7.635914E-1	8.561206E-1	7.790597E-1	8.909278E-1	8.466568E-1	8.242122E-1	7.745622E-1	8.802584E-1	8.365414E-1	8.499209E-1	8.684458E-1	8.149298E-1	8.485892E-1	8.632728E-1	8.164320E-1	8.408228E-1	8.256408E-1	8.584800E-1	8.352906E-1	8.764912E-1	8.118358E-1	8.242708E-1	8.545353E-1	7.964814E-1	8.237537E-1	8.117096E-1	8.187453E-1	8.472826E-1	8.298351E-1	9.108348E-1	8.096098E-1	8.598168E-1	8.818542E-1	8.625712E-1	8.420264E-1	8.371776E-1	8.278594E-1	8.494522E-1	8.071679E-1	8.799993E-1	8.694647E-1	8.108722E-1	8.387840E-1
2.900020E+2	7.755453E-1	8.020837E-1	8.158316E-1	8.366467E-1	8.047196E-1	7.777078E-1	8.620048E-1	8.314659E-1	8.481518E-1	8.414300E-1	8.209691E-1	8.600812E-1	8.403990E-1	8.227085E-1	8.097931E-1	7.956659E-1	8.445816E-1	8.303454E-1	8.282034E-1	8.135457E-1	8.050402E-1	8.849586E-1	8.319599E-1	8.518577E-1	8.532423E-1	8.083675E-1	7.851599E-1	8.493221E-1	8.168327E-1	8.081685E-1	8.298204E-1	8.153290E-1	8.003465E-1	8.328686E-1	8.466307E-1	7.824276E-1	8.170978E-1	8.146708E-1	8.071236E-1	8.489738E-1	8.193816E-1	7.969604E-1	8.073237E-1	8.195334E-1	7.901819E-1	8.319238E-1	8.473379E-1	8.292306E-1	8.785775E-1	8.219952E-1	7.799650E-1	8.010069E-1	8.737753E-1	8.541830E-1	8.241555E-1	8.648503E-1	8.127347E-1	8.534841E-1	8.305458E-1	8.649975E-1	8.518370E-1	8.208419E-1	8.673503E-1	8.594792E-1	8.270580E-1	8.606331E-1	7.941608E-1	8.382349E-1	8.846412E-1	8.593361E-1	8.341351E-1	8.063652E-1	8.058440E-1	7.855694E-1	7.856068E-1	8.833746E-1	8.717881E-1	8.407289E-1	8.451098E-1	8.611224E-1	8.545508E-1	8.304667E-1	7.874921E-1	8.307576E-1	7.693103E-1	8.660391E-1	8.216539E-1	8.138645E-1	8.264336E-1	7.989514E-1	8.220875E-1	7.969387E-1	8.432612E-1	8.230550E-1	7.913906E-1	8.704104E-1	8.013111E-1	7.916178E-1	8.049672E-1	8.417066E-1	8.563084E-1	8.514994E-1	7.965845E-1	8.347664E-1	8.095214E-1	7.741733E-1	8.116555E-1	7.951595E-1	8.382777E-1	7.901392E-1	8.664132E-1	8.282294E-1	8.464529E-1	7.778913E-1	7.991574E-1	8.155400E-1	8.071909E-1	8.290939E-1	8.532910E-1	8.190727E-1	8.705241E-1	8.223618E-1	8.083560E-1	8.444428E-1	8.309452E-1	8.198421E-1	8.483645E-1	8.134664E-1	8.306331E-1	8.402326E-1	8.427950E-1	8.531514E-1	8.381558E-1	8.634822E-1	7.929853E-1	8.203702E-1	8.176356E-1	8.626803E-1	8.156760E-1	8.958082E-1	8.687369E-1	8.320725E-1	8.397834E-1	7.873205E-1	8.144481E-1	8.139253E-1	8.282777E-1	8.609138E-1	7.998795E-1	8.148570E-1	8.003177E-1	8.193372E-1	8.098828E-1	8.137638E-1	7.612378E-1	8.308510E-1	8.479897E-1	8.076540E-1	8.368347E-1	8.063597E-1	7.812754E-1	8.308064E-1	8.603376E-1
2.905110E+2	7.635548E-1	8.035093E-1	8.002290E-1	7.672712E-1	7.683521E-1	7.708911E-1	7.831747E-1	7.676881E-1	7.872944E-1	7.654302E-1	7.470696E-1	7.650001E-1	7.030973E-1	7.370027E-1	7.713932E-1	7.972841E-1	7.796049E-1	7.613884E-1	7.725112E-1	7.631749E-1	7.767460E-1	7.593001E-1	7.981935E-1	7.569862E-1	7.616460E-1	7.666858E-1	7.217210E-1	7.914072E-1	7.713280E-1	7.787687E-1	8.060897E-1	7.320051E-1	7.894683E-1	7.719409E-1	7.226107E-1	7.940927E-1	7.404195E-1	7.267576E-1	8.063248E-1	7.978307E-1	7.537470E-1	7.863678E-1	7.709094E-1	8.133792E-1	8.040850E-1	8.003281E-1	7.852239E-1	8.188208E-1	7.619605E-1	7.798399E-1	7.678193E-1	8.014059E-1	7.498554E-1	7.705939E-1	7.710067E-1	7.969601E-1	7.967623E-1	7.952975E-1	8.037654E-1	7.963445E-1	7.703034E-1	7.864944E-1	7.693656E-1	7.941679E-1	7.550985E-1	8.227871E-1	7.585104E-1	7.611117E-1	7.437935E-1	8.138265E-1	8.118969E-1	7.629609E-1	8.002435E-1	7.590417E-1	8.135990E-1	8.047287E-1	7.817098E-1	7.652161E-1	7.689160E-1	7.991535E-1	7.634184E-1	7.632179E-1	7.551404E-1	7.908322E-1	7.667064E-1	7.551883E-1	7.384902E-1	7.924763E-1	7.920560E-1	7.586451E-1	7.504357E-1	8.182339E-1	8.038269E-1	7.618296E-1	7.944432E-1	7.959709E-1	7.478245E-1	7.737820E-1	7.492587E-1	7.449589E-1	7.776171E-1	8.010761E-1	7.557660E-1	7.440695E-1	8.253687E-1	7.164743E-1	8.129324E-1	7.751077E-1	7.675064E-1	7.201820E-1	7.981366E-1	8.009938E-1	7.539738E-1	7.631703E-1	7.966748E-1	8.114121E-1	7.630933E-1	7.631132E-1	7.694656E-1	8.083201E-1	8.107984E-1	7.699535E-1	7.702599E-1	7.746326E-1	7.854098E-1	8.167333E-1	7.946537E-1	7.732383E-1	8.091841E-1	7.733260E-1	7.979083E-1	7.841169E-1	8.361994E-1	7.820026E-1	8.112260E-1	7.761200E-1	7.327266E-1	8.348651E-1	7.681602E-1	8.321604E-1	7.446776E-1	7.885963E-1	8.277632E-1	7.511895E-1	7.690773E-1	8.151591E-1	7.878939E-1	8.204116E-1	7.707983E-1	7.801586E-1	7.841458E-1	7.623627E-1	7.485767E-1	7.834383E-1	7.701799E-1	7.991495E-1	7.494013E-1	7.867874E-1	7.944283E-1	8.721284E-1	7.411376E-1	7.609124E-1	7.808279E-1
2.910060E+2	8.008683E-1	8.099322E-1	7.765615E-1	8.798580E-1	8.001726E-1	8.452752E-1	8.540934E-1	8.045942E-1	8.273924E-1	7.959801E-1	8.098434E-1	8.274850E-1	8.401829E-1	7.912781E-1	8.393371E-1	8.330637E-1	9.126427E-1	8.435860E-1	8.012370E-1	8.558027E-1	8.672469E-1	8.121532E-1	8.771518E-1	9.042180E-1	8.251603E-1	8.381093E-1	7.991422E-1	8.341159E-1	8.461521E-1	7.937177E-1	8.489922E-1	8.121276E-1	8.230797E-1	8.764478E-1	8.375784E-1	8.085727E-1	8.304593E-1	8.564058E-1	8.915510E-1	8.075558E-1	8.408887E-1	8.215437E-1	8.219867E-1	8.336384E-1	8.325335E-1	7.866469E-1	8.256051E-1	8.637517E-1	8.285160E-1	8.363907E-1	8.149672E-1	8.239251E-1	8.669009E-1	8.149587E-1	8.080458E-1	8.112161E-1	8.675388E-1	8.654821E-1	8.493838E-1	9.062883E-1	8.228925E-1	8.500735E-1	7.826544E-1	8.027360E-1	8.511969E-1	8.210420E-1	8.351010E-1	8.104981E-1	8.473631E-1	8.872801E-1	8.597378E-1	8.336717E-1	8.831616E-1	8.148735E-1	8.414215E-1	8.697808E-1	8.332131E-1	7.921051E-1	8.587827E-1	8.411158E-1	9.344464E-1	8.501581E-1	7.872304E-1	7.943069E-1	8.084835E-1	8.775658E-1	8.254920E-1	7.911380E-1	8.265872E-1	8.223020E-1	8.086237E-1	8.380480E-1	8.407920E-1	8.598362E-1	8.496517E-1	8.136460E-1	8.518552E-1	8.280103E-1	8.070315E-1	8.273001E-1	8.289694E-1	8.685141E-1	8.071549E-1	8.515830E-1	8.747055E-1	8.109764E-1	8.321018E-1	8.419723E-1	8.182492E-1	8.360529E-1	8.442825E-1	8.437445E-1	7.778490E-1	7.997858E-1	8.619988E-1	8.265656E-1	8.015630E-1	8.363452E-1	8.101977E-1	8.178016E-1	8.700114E-1	8.356960E-1	8.414279E-1	8.435744E-1	8.337063E-1	8.458294E-1	8.142371E-1	8.775604E-1	8.574560E-1	7.942633E-1	8.169898E-1	8.387176E-1	8.213035E-1	8.406266E-1	8.804637E-1	8.165986E-1	8.623107E-1	8.110177E-1	8.378727E-1	8.245447E-1	8.407185E-1	8.148614E-1	8.376882E-1	7.992815E-1	8.708549E-1	7.968942E-1	7.903953E-1	8.324624E-1	8.513127E-1	8.499528E-1	7.883372E-1	8.475521E-1	7.923632E-1	8.720396E-1	8.737740E-1	8.620828E-1	8.161892E-1	8.058400E-1	8.439335E-1	8.878209E-1	8.019966E-1	8.446325E-1	8.100707E-1
2.915070E+2	1.039179E+0	1.019152E+0	1.036288E+0	1.009924E+0	1.037347E+0	1.060741E+0	1.015745E+0	9.858657E-1	1.034712E+0	1.005812E+0	1.066493E+0	1.028665E+0	1.027524E+0	9.952262E-1	1.002114E+0	1.010939E+0	1.067713E+0	1.016517E+0	9.936134E-1	1.022827E+0	1.053471E+0	9.921846E-1	1.053381E+0	9.609499E-1	1.023474E+0	9.818778E-1	9.792695E-1	9.911389E-1	1.039720E+0	1.036010E+0	9.936601E-1	1.020890E+0	1.021230E+0	9.694657E-1	1.018615E+0	1.040709E+0	9.778230E-1	1.056284E+0	1.046466E+0	1.058351E+0	9.980517E-1	1.028548E+0	9.718803E-1	1.005837E+0	1.013997E+0	1.036774E+0	1.034516E+0	9.780439E-1	1.023080E+0	1.021479E+0	9.992925E-1	1.032097E+0	1.025324E+0	1.001814E+0	9.781008E-1	1.094295E+0	1.016642E+0	1.076035E+0	9.983363E-1	1.041272E+0	9.829133E-1	1.022983E+0	1.012153E+0	9.869130E-1	1.018916E+0	1.008938E+0	1.013053E+0	1.048958E+0	1.034985E+0	1.085669E+0	1.066766E+0	9.884063E-1	1.099329E+0	1.001945E+0	1.015824E+0	1.062830E+0	1.011778E+0	1.030890E+0	1.085211E+0	1.020927E+0	1.013806E+0	1.021151E+0	1.002134E+0	1.006381E+0	1.019344E+0	1.042360E+0	1.031762E+0	9.886171E-1	1.018938E+0	9.661835E-1	9.473992E-1	1.032100E+0	9.777617E-1	1.048837E+0	1.017070E+0	1.043628E+0	1.030563E+0	1.009796E+0	1.049188E+0	1.040735E+0	1.017783E+0	1.054297E+0	1.039001E+0	1.060737E+0	1.056065E+0	9.706644E-1	1.035905E+0	1.047503E+0	1.040978E+0	1.040602E+0	1.061344E+0	1.021835E+0	1.050767E+0	9.701846E-1	1.027054E+0	1.013972E+0	1.019041E+0	1.026522E+0	1.024016E+0	9.826142E-1	1.055557E+0	1.024833E+0	1.040532E+0	1.081874E+0	1.027343E+0	1.068129E+0	1.050172E+0	1.049420E+0	1.070897E+0	1.059172E+0	1.002536E+0	1.067153E+0	1.085107E+0	1.032512E+0	1.008567E+0	9.826981E-1	1.076491E+0	1.035858E+0	1.010825E+0	1.037205E+0	1.030397E+0	1.013196E+0	1.037523E+0	1.020002E+0	1.089355E+0	1.010576E+0	1.063838E+0	1.046836E+0	1.117708E+0	1.105502E+0	1.066092E+0	1.069907E+0	1.020603E+0	1.044070E+0	1.028895E+0	1.053997E+0	1.003200E+0	1.044575E+0	1.058009E+0	1.063918E+0	1.029177E+0	9.562157E-1	1.032159E+0
2.920030E+2	1.043962E+0	1.068959E+0	9.680958E-1	9.958648E-1	1.058710E+0	1.031177E+0	1.012556E+0	9.834790E-1	1.029654E+0	1.005962E+0	1.079101E+0	1.074736E+0	9.652386E-1	1.071806E+0	1.037615E+0	1.060340E+0	1.040691E+0	1.042302E+0	9.951750E-1	1.035960E+0	1.036854E+0	9.608745E-1	1.057537E+0	1.100882E+0	1.049732E+0	9.761900E-1	9.435414E-1	1.044132E+0	9.836676E-1	1.015629E+0	1.024289E+0	1.016661E+0	1.016560E+0	1.042725E+0	1.027996E+0	1.018123E+0	9.841780E-1	1.041538E+0	1.070288E+0	1.050077E+0	1.026375E+0	1.037480E+0	9.740738E-1	1.022543E+0	1.030471E+0	1.039639E+0	1.005024E+0	1.065973E+0	9.958204E-1	9.878957E-1	1.016057E+0	9.848429E-1	1.074797E+0	1.026745E+0	1.008392E+0	1.074686E+0	1.087463E+0	1.107258E+0	1.066473E+0	1.041256E+0	1.012755E+0	1.037411E+0	1.043482E+0	1.028097E+0	1.066228E+0	1.006968E+0	1.020056E+0	1.017076E+0	1.059262E+0	1.071314E+0	1.063320E+0	1.030315E+0	1.047577E+0	1.003551E+0	1.054355E+0	1.076354E+0	1.082068E+0	1.042937E+0	1.061622E+0	1.070985E+0	9.892837E-1	9.952724E-1	1.053417E+0	1.054049E+0	1.036206E+0	1.017657E+0	9.733127E-1	1.056419E+0	1.100094E+0	9.987804E-1	9.960473E-1	1.037762E+0	9.788274E-1	1.077342E+0	1.045124E+0	1.040181E+0	1.015501E+0	1.044288E+0	1.054760E+0	1.032940E+0	1.059022E+0	1.039066E+0	1.000017E+0	1.006135E+0	9.952561E-1	1.003254E+0	9.845698E-1	1.025615E+0	1.027841E+0	1.015090E+0	1.056453E+0	1.022442E+0	1.028546E+0	9.829843E-1	9.838767E-1	9.994877E-1	9.766161E-1	1.008638E+0	9.769422E-1	1.048752E+0	1.009467E+0	1.057233E+0	9.851445E-1	1.038631E+0	1.018947E+0	1.111405E+0	1.032680E+0	1.053251E+0	1.064152E+0	1.030262E+0	1.015948E+0	9.835759E-1	1.060313E+0	1.073701E+0	1.049857E+0	1.051790E+0	1.058578E+0	1.065246E+0	9.611189E-1	1.024678E+0	1.002203E+0	1.040930E+0	1.081468E+0	1.038614E+0	1.065281E+0	1.059086E+0	1.099625E+0	1.042816E+0	1.036272E+0	1.064811E+0	9.848747E-1	1.022717E+0	1.074804E+0	9.985957E-1	9.908374E-1	1.137241E+0	1.095172E+0	1.056856E+0	9.905270E-1	1.035887E+0	1.045240E+0	9.916719E-1	1.055718E+0
2.925020E+2	1.086320E+0	1.110259E+0	1.082705E+0	1.116687E+0	1.045707E+0	1.093665E+0	1.053860E+0	1.083792E+0	1.081183E+0	1.048103E+0	1.074559E+0	1.133117E+0	1.085724E+0	1.090315E+0	1.118716E+0	1.126228E+0	1.118312E+0	1.088236E+0	1.049968E+0	1.113141E+0	1.094466E+0	1.060212E+0	1.096439E+0	1.104261E+0	1.123155E+0	1.059021E+0	1.045803E+0	1.080928E+0	1.040178E+0	1.099056E+0	1.068602E+0	1.155793E+0	1.068057E+0	1.121780E+0	1.128335E+0	1.043509E+0	1.123357E+0	1.064294E+0	1.096760E+0	1.118294E+0	1.082232E+0	1.109706E+0	1.067411E+0	1.090133E+0	1.115178E+0	1.135033E+0	1.099074E+0	1.095113E+0	1.140350E+0	1.107193E+0	1.155655E+0	1.039807E+0	1.046531E+0	1.114705E+0	1.112995E+0	1.148369E+0	1.088823E+0	1.110615E+0	1.057546E+0	1.054772E+0	1.063462E+0	1.108418E+0	1.089288E+0	1.100580E+0	1.146872E+0	1.068206E+0	1.027964E+0	1.133150E+0	1.071786E+0	1.124268E+0	1.078199E+0	1.065794E+0	1.050501E+0	1.124799E+0	1.097323E+0	1.124263E+0	1.054971E+0	1.103679E+0	1.117261E+0	1.083030E+0	1.095845E+0	1.105293E+0	1.070352E+0	1.091115E+0	1.094380E+0	1.059548E+0	1.109525E+0	1.103155E+0	1.103831E+0	1.047295E+0	1.044774E+0	1.055275E+0	1.054191E+0	1.136905E+0	1.134377E+0	1.095833E+0	1.072684E+0	1.049231E+0	1.122579E+0	1.087485E+0	1.113177E+0	1.160282E+0	1.069826E+0	1.108471E+0	1.154429E+0	1.127056E+0	1.076019E+0	1.072321E+0	1.061895E+0	1.060599E+0	1.095259E+0	1.125231E+0	1.107214E+0	1.085907E+0	1.135889E+0	1.084780E+0	1.027908E+0	1.089768E+0	1.066108E+0	1.086972E+0	1.141461E+0	1.059899E+0	1.070484E+0	1.096541E+0	1.078395E+0	1.096416E+0	1.072717E+0	1.116905E+0	1.153132E+0	1.088039E+0	1.131525E+0	1.104283E+0	1.181841E+0	1.142690E+0	1.114499E+0	1.133179E+0	1.094625E+0	1.119115E+0	1.043335E+0	1.111354E+0	1.067030E+0	1.114132E+0	1.099712E+0	1.055592E+0	1.093990E+0	1.150746E+0	1.117804E+0	1.070268E+0	1.122756E+0	1.128512E+0	1.185598E+0	1.118420E+0	1.126072E+0	1.143791E+0	1.107743E+0	1.104523E+0	1.079302E+0	1.130090E+0	1.124253E+0	1.103554E+0	1.119702E+0	1.121744E+0	1.037283E+0
2.930050E+2	1.046553E+0	1.133462E+0	1.102834E+0	1.050731E+0	1.092112E+0	1.097056E+0	1.081908E+0	1.081355E+0	1.127917E+0	1.074080E+0	1.064666E+0	1.114233E+0	1.045540E+0	1.083466E+0	1.081292E+0	1.075108E+0	1.100782E+0	1.150915E+0	1.111300E+0	1.079975E+0	1.059684E+0	1.082083E+0	1.114459E+0	1.078340E+0	1.088910E+0	1.037273E+0	1.122361E+0	1.071324E+0	1.064404E+0	1.128652E+0	1.073975E+0	1.084751E+0	1.050323E+0	1.117186E+0	1.076391E+0	1.093516E+0	1.092687E+0	1.101683E+0	1.103993E+0	1.122130E+0	1.097825E+0	1.080277E+0	1.023749E+0	1.128136E+0	1.121385E+0	1.086325E+0	1.076135E+0	1.111824E+0	1.120890E+0	1.085610E+0	1.069245E+0	1.084661E+0	1.087858E+0	1.120787E+0	1.033787E+0	1.162470E+0	1.101154E+0	1.134610E+0	1.047530E+0	1.100403E+0	1.100051E+0	1.082346E+0	1.070774E+0	1.091730E+0	1.115363E+0	1.105277E+0	1.060935E+0	1.114212E+0	1.117899E+0	1.131376E+0	1.078517E+0	1.069173E+0	1.138136E+0	1.075933E+0	1.115913E+0	1.157129E+0	1.097306E+0	1.106505E+0	1.125407E+0	1.067039E+0	1.093389E+0	1.071023E+0	1.069900E+0	1.060746E+0	1.134405E+0	1.044070E+0	1.047146E+0	1.040805E+0	1.094159E+0	1.080237E+0	1.083547E+0	1.080445E+0	1.057072E+0	1.121421E+0	1.058906E+0	1.089931E+0	1.114310E+0	1.075913E+0	1.088750E+0	1.048437E+0	1.137364E+0	1.129105E+0	1.087595E+0	1.089517E+0	1.095191E+0	1.081435E+0	1.165513E+0	1.140042E+0	1.124903E+0	1.033220E+0	1.109210E+0	1.144207E+0	1.160041E+0	1.078012E+0	1.112029E+0	1.131520E+0	1.098939E+0	1.112085E+0	1.100350E+0	1.130887E+0	1.151206E+0	1.074994E+0	1.049921E+0	1.044950E+0	1.105765E+0	1.126677E+0	1.135805E+0	1.098695E+0	1.172920E+0	1.098700E+0	1.083275E+0	1.101861E+0	1.196643E+0	1.071268E+0	1.122780E+0	1.111205E+0	1.110000E+0	1.129129E+0	1.109034E+0	1.103178E+0	1.133892E+0	1.144737E+0	1.120810E+0	1.108463E+0	1.089481E+0	1.125553E+0	1.140610E+0	1.140441E+0	1.113818E+0	1.155074E+0	1.095969E+0	1.115950E+0	1.101418E+0	1.107306E+0	1.112852E+0	1.082614E+0	1.083244E+0	1.171522E+0	1.069120E+0	1.086795E+0	1.052197E+0	1.096328E+0	1.039355E+0
2.935090E+2	1.023516E+0	1.063039E+0	1.096403E+0	9.948119E-1	9.955084E-1	1.047991E+0	1.097622E+0	1.032357E+0	1.072089E+0	1.038842E+0	1.116899E+0	1.043831E+0	1.025200E+0	1.076789E+0	1.095099E+0	1.025259E+0	1.061959E+0	1.043677E+0	1.000112E+0	1.028101E+0	1.044193E+0	1.057288E+0	1.072555E+0	1.030971E+0	1.022022E+0	1.046182E+0	1.004269E+0	1.024965E+0	9.979965E-1	1.109397E+0	1.010403E+0	1.016172E+0	1.011036E+0	1.053089E+0	9.850313E-1	1.049096E+0	1.038804E+0	1.046800E+0	1.087044E+0	1.022276E+0	1.004363E+0	1.060001E+0	1.066307E+0	1.081671E+0	1.049665E+0	1.062462E+0	1.042834E+0	1.041961E+0	1.030785E+0	1.071515E+0	9.819489E-1	1.028254E+0	1.033099E+0	1.061890E+0	1.034207E+0	1.076374E+0	1.023923E+0	1.061352E+0	1.072228E+0	1.054033E+0	1.044581E+0	1.006007E+0	1.025316E+0	1.050524E+0	1.055538E+0	1.043284E+0	1.009140E+0	1.008912E+0	9.990141E-1	1.070718E+0	1.066931E+0	9.908266E-1	1.034365E+0	1.060999E+0	1.007503E+0	1.079792E+0	1.007229E+0	1.075843E+0	1.155137E+0	1.032830E+0	1.064530E+0	1.081232E+0	1.028122E+0	1.046771E+0	1.028813E+0	1.115285E+0	1.039943E+0	1.041453E+0	1.072944E+0	1.007421E+0	1.022979E+0	1.044618E+0	1.037215E+0	1.075065E+0	1.036010E+0	1.064599E+0	1.079072E+0	1.043941E+0	1.036647E+0	1.031430E+0	1.060370E+0	1.053000E+0	1.019089E+0	1.014234E+0	1.059478E+0	1.057963E+0	1.073737E+0	1.057688E+0	1.012737E+0	1.006313E+0	1.024926E+0	1.056054E+0	1.044239E+0	1.034940E+0	1.025912E+0	1.062284E+0	1.089344E+0	1.059269E+0	1.002627E+0	1.070694E+0	1.100580E+0	1.005984E+0	9.980511E-1	1.070774E+0	1.072250E+0	1.101431E+0	1.058532E+0	1.044680E+0	1.070267E+0	1.038295E+0	1.072018E+0	1.027505E+0	1.072840E+0	1.100529E+0	9.681228E-1	1.071971E+0	1.034421E+0	1.032524E+0	9.814756E-1	1.091709E+0	1.005135E+0	1.060244E+0	1.054403E+0	1.066108E+0	1.052018E+0	1.077395E+0	1.083126E+0	1.031569E+0	1.115442E+0	1.081403E+0	1.071753E+0	1.026634E+0	1.089785E+0	1.078380E+0	1.031284E+0	1.086860E+0	1.090717E+0	1.070928E+0	1.023924E+0	1.086373E+0	1.017462E+0	1.148490E+0	1.011397E+0
2.940070E+2	1.000365E+0	1.038476E+0	1.089886E+0	9.879539E-1	1.046917E+0	1.052282E+0	1.033824E+0	1.031683E+0	1.085687E+0	1.099683E+0	1.071573E+0	1.042819E+0	1.014058E+0	1.027962E+0	1.051655E+0	1.074263E+0	1.072087E+0	1.026305E+0	1.068931E+0	1.015990E+0	1.038802E+0	9.746793E-1	1.054320E+0	1.036036E+0	1.056654E+0	1.042745E+0	1.012585E+0	1.040067E+0	1.046050E+0	1.048178E+0	1.020632E+0	1.079058E+0	1.073590E+0	1.032013E+0	9.961566E-1	1.054196E+0	1.017505E+0	1.041408E+0	9.702728E-1	9.929557E-1	1.060288E+0	1.056227E+0	1.020546E+0	1.106626E+0	1.054466E+0	1.047992E+0	1.015404E+0	1.045448E+0	1.082064E+0	1.112608E+0	1.022193E+0	1.042271E+0	1.019846E+0	1.016105E+0	1.024984E+0	1.083147E+0	1.044010E+0	1.038646E+0	1.035579E+0	1.071458E+0	1.040012E+0	1.077217E+0	1.053003E+0	1.070109E+0	1.045766E+0	1.018370E+0	1.042597E+0	1.024333E+0	1.040211E+0	1.068819E+0	1.046956E+0	1.024658E+0	1.061194E+0	1.039572E+0	1.054440E+0	1.062116E+0	1.029116E+0	1.009577E+0	1.052324E+0	1.091626E+0	9.946230E-1	1.045685E+0	1.022671E+0	9.903965E-1	9.808674E-1	1.052728E+0	1.025069E+0	1.079809E+0	1.031562E+0	1.051343E+0	1.013584E+0	1.028955E+0	1.064833E+0	1.022548E+0	1.040864E+0	1.065983E+0	1.026228E+0	1.006736E+0	1.032126E+0	1.077297E+0	1.075883E+0	1.061884E+0	1.050041E+0	1.049654E+0	1.020353E+0	1.051206E+0	1.051438E+0	1.081782E+0	1.042641E+0	1.051547E+0	1.070555E+0	1.032057E+0	1.025238E+0	1.000651E+0	1.048196E+0	1.099241E+0	1.048728E+0	1.017814E+0	1.028067E+0	1.036203E+0	1.092280E+0	1.084572E+0	9.917511E-1	1.007644E+0	1.031726E+0	1.088338E+0	1.089507E+0	1.040625E+0	1.087291E+0	1.046347E+0	1.084667E+0	1.042046E+0	1.066835E+0	1.076726E+0	9.906514E-1	1.056448E+0	1.114316E+0	1.009272E+0	1.021118E+0	1.058628E+0	1.072493E+0	1.067666E+0	1.036732E+0	1.040594E+0	9.884614E-1	1.052404E+0	1.050367E+0	9.992717E-1	1.063722E+0	1.105864E+0	1.012006E+0	1.094469E+0	1.085872E+0	1.008351E+0	1.063939E+0	1.008133E+0	1.076551E+0	1.080482E+0	9.956086E-1	1.052744E+0	1.040785E+0	1.084562E+0	1.115323E+0
2.945030E+2	9.538097E-1	1.019596E+0	1.019749E+0	9.883006E-1	1.008467E+0	1.042898E+0	1.018976E+0	9.331045E-1	9.651255E-1	9.836810E-1	9.909387E-1	9.977414E-1	9.798409E-1	1.006793E+0	1.017582E+0	1.038317E+0	1.007585E+0	9.946075E-1	1.002587E+0	9.994113E-1	1.007840E+0	9.244555E-1	9.849878E-1	9.895425E-1	9.965823E-1	9.591752E-1	9.994630E-1	9.795578E-1	9.860095E-1	9.955057E-1	9.770424E-1	9.750579E-1	9.888326E-1	1.028938E+0	9.625401E-1	9.952650E-1	9.728759E-1	9.725227E-1	9.937973E-1	1.018510E+0	9.929057E-1	1.028752E+0	9.562701E-1	1.057003E+0	1.015135E+0	9.768794E-1	9.973336E-1	9.716674E-1	9.866769E-1	1.016951E+0	9.900067E-1	1.005836E+0	1.012577E+0	9.896536E-1	1.002907E+0	1.036714E+0	9.551060E-1	1.019742E+0	1.011636E+0	1.063696E+0	9.664629E-1	1.010149E+0	1.010039E+0	1.003598E+0	9.781391E-1	1.009762E+0	9.833700E-1	1.043514E+0	9.950396E-1	1.050218E+0	1.018687E+0	1.018812E+0	9.862875E-1	9.425214E-1	1.068424E+0	1.005731E+0	1.008283E+0	9.818149E-1	1.028393E+0	9.945802E-1	1.018664E+0	9.778986E-1	9.947631E-1	9.578747E-1	1.014430E+0	9.788654E-1	9.696443E-1	9.853295E-1	1.021597E+0	1.046952E+0	1.007960E+0	9.932844E-1	9.893580E-1	9.979737E-1	9.928725E-1	9.801961E-1	9.895587E-1	9.747516E-1	1.007253E+0	1.008499E+0	9.736541E-1	1.017255E+0	9.492410E-1	9.738702E-1	1.004002E+0	9.608067E-1	1.060581E+0	1.002755E+0	9.808985E-1	9.851320E-1	1.011905E+0	1.031395E+0	1.018322E+0	9.099779E-1	1.010071E+0	9.800972E-1	1.015079E+0	1.028935E+0	1.042390E+0	1.020915E+0	1.001597E+0	1.010233E+0	9.422405E-1	9.845129E-1	9.766133E-1	1.001872E+0	1.022406E+0	1.000766E+0	9.675114E-1	9.727071E-1	9.882268E-1	1.001097E+0	1.064486E+0	1.076272E+0	1.014734E+0	9.872203E-1	1.028714E+0	1.015044E+0	1.034789E+0	9.777872E-1	1.019150E+0	1.056072E+0	1.029917E+0	9.842024E-1	9.663276E-1	1.070569E+0	1.011393E+0	1.000339E+0	1.016713E+0	1.000371E+0	9.838053E-1	9.786265E-1	1.053160E+0	1.008305E+0	9.689787E-1	1.016955E+0	1.061508E+0	1.003435E+0	1.017215E+0	1.001744E+0	9.771831E-1	9.934023E-1	9.407911E-1
2.950050E+2	1.020603E+0	9.843788E-1	1.006702E+0	9.324603E-1	9.777051E-1	9.785721E-1	9.472849E-1	9.340273E-1	9.597871E-1	1.019496E+0	9.668134E-1	9.738282E-1	9.767058E-1	9.921856E-1	1.017792E+0	1.005975E+0	9.957957E-1	9.517435E-1	9.913339E-1	9.482628E-1	9.658521E-1	9.663956E-1	1.001709E+0	1.024882E+0	1.012472E+0	1.029789E+0	9.818844E-1	9.530856E-1	9.297239E-1	9.894021E-1	9.590857E-1	9.572907E-1	1.005301E+0	9.606345E-1	9.153228E-1	9.763471E-1	9.732270E-1	9.535493E-1	1.056111E+0	9.782849E-1	9.831350E-1	9.562883E-1	1.006481E+0	9.911876E-1	9.681025E-1	9.640829E-1	9.722321E-1	9.815555E-1	9.562484E-1	1.041019E+0	1.015999E+0	9.789412E-1	9.872380E-1	1.009426E+0	9.778818E-1	9.513059E-1	1.015534E+0	9.892816E-1	9.753057E-1	1.025176E+0	9.987113E-1	1.083521E+0	9.761096E-1	9.948260E-1	1.015626E+0	9.688471E-1	9.756253E-1	9.480714E-1	9.456436E-1	1.015333E+0	9.829928E-1	9.475226E-1	9.974619E-1	1.001055E+0	9.780719E-1	1.017134E+0	9.773059E-1	1.009064E+0	1.015205E+0	1.002573E+0	1.003978E+0	9.953704E-1	9.436275E-1	9.916276E-1	9.946939E-1	1.039546E+0	9.899647E-1	9.921446E-1	1.018507E+0	9.893614E-1	9.960837E-1	1.008159E+0	9.785576E-1	9.925605E-1	9.985453E-1	1.024527E+0	9.995538E-1	9.481662E-1	9.967430E-1	9.679050E-1	1.000214E+0	1.004029E+0	1.003308E+0	1.011701E+0	9.898983E-1	9.864993E-1	9.711690E-1	1.013029E+0	9.501470E-1	9.819671E-1	1.016831E+0	1.029333E+0	9.543081E-1	9.954716E-1	9.731690E-1	9.579916E-1	9.442760E-1	1.057818E+0	9.915302E-1	9.978257E-1	9.640856E-1	9.940710E-1	9.224509E-1	9.882128E-1	1.000566E+0	1.000696E+0	1.027474E+0	9.758086E-1	1.012064E+0	1.009854E+0	9.562448E-1	1.010433E+0	1.013152E+0	9.982069E-1	1.004953E+0	1.021097E+0	1.013622E+0	9.821537E-1	1.002628E+0	1.000252E+0	1.019152E+0	1.039017E+0	1.013349E+0	9.936827E-1	9.987159E-1	9.928897E-1	1.034762E+0	1.042374E+0	9.964549E-1	1.054765E+0	1.002497E+0	9.825382E-1	9.908126E-1	1.021947E+0	9.970939E-1	1.000230E+0	1.012531E+0	1.004208E+0	1.000965E+0	9.904797E-1	9.642005E-1	9.350748E-1	1.012786E+0
2.955100E+2	1.020290E+0	9.970475E-1	9.988790E-1	9.415048E-1	9.789968E-1	1.025653E+0	1.003314E+0	9.693247E-1	9.927575E-1	9.690771E-1	9.981636E-1	9.938111E-1	1.006051E+0	1.035694E+0	1.002108E+0	1.031787E+0	9.881045E-1	9.822678E-1	9.914721E-1	1.016458E+0	9.982143E-1	9.821910E-1	1.029279E+0	9.947184E-1	1.014690E+0	9.560066E-1	1.006147E+0	1.014316E+0	1.040389E+0	9.896834E-1	1.015681E+0	9.827293E-1	9.848654E-1	9.681999E-1	9.056803E-1	1.037731E+0	9.598988E-1	9.646320E-1	9.958373E-1	9.336646E-1	9.549949E-1	9.634390E-1	9.628318E-1	1.048403E+0	1.065472E+0	1.046400E+0	9.782800E-1	9.867939E-1	9.850050E-1	9.856604E-1	1.010179E+0	9.944701E-1	9.815828E-1	1.013786E+0	1.004323E+0	9.541687E-1	1.017880E+0	1.016649E+0	1.020972E+0	1.012608E+0	9.607737E-1	1.020780E+0	9.977080E-1	1.001731E+0	1.002204E+0	9.781119E-1	1.024977E+0	9.718769E-1	9.976762E-1	1.055141E+0	9.804472E-1	9.861966E-1	1.019332E+0	9.294106E-1	9.697292E-1	9.795207E-1	9.843518E-1	1.007324E+0	1.002331E+0	9.845288E-1	1.002771E+0	1.001889E+0	9.232265E-1	1.053150E+0	9.540758E-1	9.883027E-1	9.598292E-1	9.993834E-1	9.588536E-1	1.001201E+0	9.983560E-1	9.930152E-1	9.853900E-1	1.019476E+0	9.768583E-1	1.002465E+0	9.677402E-1	1.018246E+0	9.945312E-1	1.034692E+0	9.970172E-1	1.011520E+0	9.844906E-1	9.988891E-1	1.032835E+0	9.634877E-1	9.683495E-1	1.036147E+0	9.723762E-1	1.018650E+0	1.011661E+0	9.976207E-1	9.951315E-1	9.595641E-1	9.809426E-1	9.925479E-1	1.017653E+0	1.031967E+0	9.588155E-1	9.965443E-1	9.852422E-1	9.863049E-1	9.473423E-1	1.027944E+0	1.007282E+0	1.056378E+0	9.915766E-1	9.942803E-1	1.010261E+0	1.069672E+0	1.025730E+0	9.986117E-1	1.072674E+0	1.008818E+0	9.336811E-1	9.820979E-1	1.021495E+0	1.024180E+0	1.006176E+0	1.016186E+0	1.026684E+0	9.925101E-1	9.629534E-1	1.029548E+0	9.984404E-1	1.030044E+0	9.786296E-1	1.020829E+0	9.696331E-1	1.010413E+0	9.903265E-1	9.938496E-1	1.008500E+0	1.016314E+0	9.879506E-1	1.034609E+0	9.572065E-1	1.010643E+0	9.860170E-1	9.929877E-1	9.588047E-1	9.750900E-1	9.156864E-1
2.960060E+2	9.605947E-1	9.825028E-1	1.010177E+0	9.604207E-1	9.648988E-1	9.839224E-1	9.171764E-1	9.040602E-1	1.009047E+0	1.000039E+0	9.271939E-1	9.803738E-1	9.589345E-1	9.913365E-1	9.646371E-1	9.478730E-1	9.639249E-1	9.118881E-1	9.540367E-1	9.435664E-1	9.451587E-1	9.882200E-1	9.580259E-1	1.007338E+0	9.323068E-1	9.693970E-1	9.499872E-1	9.560673E-1	8.999597E-1	9.665500E-1	9.621094E-1	9.711143E-1	9.227226E-1	9.491721E-1	9.495725E-1	9.365359E-1	9.311725E-1	9.578886E-1	9.670724E-1	9.302617E-1	9.141695E-1	9.844897E-1	8.951811E-1	9.502646E-1	9.274826E-1	9.268794E-1	9.500252E-1	9.559582E-1	9.722807E-1	9.732889E-1	9.965522E-1	9.470539E-1	9.748259E-1	9.692773E-1	9.467290E-1	9.260498E-1	9.650954E-1	9.450371E-1	9.467106E-1	9.526060E-1	9.517608E-1	9.590138E-1	9.342878E-1	9.749377E-1	9.733201E-1	9.332419E-1	9.435145E-1	9.503106E-1	9.290715E-1	9.639484E-1	9.468338E-1	9.413793E-1	9.889645E-1	9.782934E-1	9.827769E-1	9.587587E-1	9.438190E-1	9.718121E-1	9.390608E-1	1.016336E+0	9.544314E-1	9.384608E-1	9.318751E-1	9.383627E-1	9.103709E-1	9.698684E-1	9.178013E-1	9.497248E-1	8.975022E-1	9.875892E-1	9.563826E-1	9.426641E-1	9.859938E-1	9.374638E-1	9.447138E-1	1.006027E+0	9.453381E-1	9.335778E-1	9.442438E-1	9.496500E-1	9.338744E-1	9.748374E-1	9.325396E-1	9.508530E-1	9.421642E-1	9.792446E-1	9.448334E-1	9.327940E-1	9.241707E-1	9.582505E-1	9.826791E-1	9.319757E-1	9.694102E-1	9.283736E-1	9.802872E-1	9.286631E-1	9.211038E-1	9.646262E-1	9.522821E-1	9.441640E-1	9.520769E-1	9.773796E-1	9.593369E-1	9.882426E-1	9.571699E-1	9.366302E-1	1.005533E+0	1.002240E+0	9.401933E-1	9.839309E-1	9.261947E-1	1.015969E+0	1.008179E+0	1.009429E+0	9.097102E-1	9.817979E-1	9.470173E-1	9.694408E-1	9.847828E-1	1.002091E+0	9.599750E-1	9.895430E-1	9.743191E-1	9.534657E-1	9.727213E-1	9.447340E-1	9.854000E-1	9.804396E-1	9.758067E-1	1.001673E+0	9.570743E-1	9.601907E-1	9.341086E-1	9.716095E-1	9.910884E-1	9.764077E-1	9.712188E-1	9.692266E-1	9.486759E-1	9.368859E-1	9.786809E-1	9.734237E-1	9.768570E-1
2.965070E+2	9.525173E-1	9.637858E-1	9.648525E-1	9.077425E-1	9.426715E-1	1.012553E+0	9.595384E-1	9.623033E-1	9.916846E-1	9.565761E-1	9.283025E-1	9.902980E-1	9.108578E-1	9.643625E-1	9.987830E-1	9.350247E-1	9.613157E-1	9.529425E-1	9.760239E-1	1.012803E+0	9.274671E-1	9.851300E-1	9.876084E-1	9.787779E-1	9.393422E-1	9.407396E-1	9.831258E-1	9.412015E-1	9.881592E-1	9.625397E-1	9.828784E-1	9.682308E-1	9.820115E-1	9.484088E-1	9.733295E-1	9.625492E-1	9.592326E-1	9.476449E-1	9.487558E-1	9.407111E-1	9.595363E-1	9.676395E-1	9.463867E-1	9.988854E-1	9.523749E-1	9.686518E-1	9.845267E-1	9.790785E-1	9.687928E-1	1.003320E+0	9.332347E-1	8.978552E-1	9.024215E-1	9.927687E-1	9.924634E-1	9.333624E-1	9.670695E-1	9.787579E-1	9.273691E-1	9.961638E-1	9.537982E-1	9.432468E-1	1.009596E+0	9.920960E-1	9.700210E-1	9.771812E-1	9.615258E-1	9.953801E-1	9.317463E-1	1.034169E+0	9.849194E-1	9.458631E-1	9.675082E-1	9.677819E-1	9.516798E-1	9.813212E-1	9.996747E-1	9.974186E-1	9.913372E-1	9.790334E-1	9.690009E-1	9.949910E-1	9.458599E-1	9.926570E-1	9.565158E-1	1.007052E+0	9.234207E-1	9.701132E-1	9.829288E-1	9.777676E-1	9.844999E-1	9.491661E-1	9.803200E-1	9.575383E-1	9.585137E-1	9.438958E-1	8.934089E-1	9.527059E-1	9.945174E-1	9.506766E-1	9.381657E-1	1.008928E+0	9.413388E-1	9.556712E-1	9.266379E-1	9.747771E-1	1.011145E+0	9.530017E-1	9.756500E-1	9.949309E-1	9.604920E-1	9.252898E-1	9.939058E-1	9.407384E-1	9.747825E-1	9.418662E-1	9.583704E-1	9.811162E-1	9.233424E-1	9.322092E-1	9.897628E-1	9.859139E-1	9.568812E-1	9.851189E-1	9.764075E-1	9.347189E-1	1.004043E+0	1.006042E+0	9.985795E-1	9.440592E-1	9.700576E-1	1.036027E+0	9.750642E-1	1.008225E+0	9.494620E-1	9.516401E-1	9.754223E-1	9.680673E-1	9.613521E-1	1.005101E+0	9.638333E-1	9.333045E-1	9.599009E-1	9.253512E-1	9.681047E-1	9.991424E-1	1.006624E+0	9.128315E-1	9.233774E-1	9.666265E-1	9.232435E-1	9.705620E-1	9.834489E-1	9.880141E-1	9.624392E-1	9.945501E-1	9.664604E-1	9.498436E-1	9.072241E-1	1.012297E+0	9.362482E-1	9.719790E-1	9.805882E-1
2.970020E+2	9.925755E-1	9.941765E-1	9.911998E-1	9.417632E-1	9.440834E-1	9.737663E-1	9.812900E-1	9.876830E-1	9.810222E-1	9.553472E-1	9.899267E-1	9.735639E-1	9.577757E-1	9.703221E-1	9.669133E-1	9.724059E-1	9.664735E-1	9.811872E-1	9.682754E-1	9.927536E-1	1.001808E+0	9.577274E-1	1.036639E+0	9.836156E-1	9.879558E-1	9.511752E-1	9.933307E-1	9.779091E-1	9.801263E-1	1.018985E+0	9.603604E-1	9.434380E-1	1.020230E+0	9.781060E-1	9.751385E-1	9.877770E-1	9.690324E-1	9.996231E-1	9.982266E-1	1.015393E+0	1.028027E+0	9.900834E-1	9.315630E-1	1.027336E+0	9.731880E-1	9.822857E-1	9.808176E-1	9.556637E-1	9.658781E-1	9.918307E-1	9.864707E-1	9.588983E-1	9.590487E-1	1.017276E+0	9.478839E-1	9.705478E-1	9.257143E-1	1.007909E+0	9.724871E-1	1.004076E+0	9.667038E-1	9.400763E-1	9.954471E-1	1.001904E+0	9.941676E-1	1.014569E+0	1.006592E+0	9.624796E-1	9.933035E-1	9.925674E-1	9.902634E-1	9.527559E-1	1.007392E+0	9.815479E-1	9.546246E-1	1.011880E+0	9.692855E-1	1.006510E+0	1.014569E+0	1.013826E+0	1.003026E+0	9.941191E-1	9.780175E-1	9.803002E-1	9.533651E-1	9.809025E-1	9.176321E-1	9.539787E-1	9.604615E-1	9.907733E-1	1.000738E+0	1.002171E+0	1.023363E+0	1.008785E+0	9.764684E-1	9.873866E-1	9.588054E-1	9.747624E-1	1.017931E+0	9.691613E-1	1.004266E+0	9.731159E-1	9.568635E-1	9.564337E-1	9.796553E-1	9.389270E-1	9.504460E-1	9.884427E-1	9.903705E-1	9.371553E-1	9.930065E-1	9.799599E-1	9.945551E-1	9.907468E-1	9.874118E-1	9.885167E-1	9.739032E-1	9.860940E-1	9.876055E-1	9.675935E-1	9.357673E-1	9.851717E-1	9.251087E-1	1.003521E+0	9.859707E-1	9.945908E-1	1.005924E+0	9.944236E-1	9.864744E-1	9.800345E-1	9.403695E-1	1.007283E+0	9.678827E-1	1.012329E+0	9.676157E-1	9.921337E-1	9.688924E-1	9.744076E-1	9.539663E-1	9.893219E-1	9.810501E-1	1.019913E+0	1.029378E+0	9.653976E-1	1.004220E+0	1.014853E+0	1.027715E+0	9.890674E-1	9.775700E-1	1.034598E+0	9.400997E-1	1.058293E+0	1.018899E+0	1.004844E+0	9.563039E-1	1.001774E+0	9.869919E-1	9.372989E-1	9.477638E-1	9.689283E-1	9.710800E-1	1.007967E+0	9.400916E-1
2.975020E+2	9.888636E-1	1.018481E+0	1.033136E+0	9.809357E-1	1.005157E+0	1.007993E+0	1.063454E+0	1.023139E+0	1.005029E+0	1.006423E+0	1.004485E+0	1.005750E+0	9.640151E-1	1.015182E+0	9.987680E-1	9.792225E-1	1.039035E+0	9.617314E-1	1.030836E+0	9.739566E-1	1.000186E+0	1.009904E+0	1.013918E+0	1.044447E+0	9.726724E-1	9.953385E-1	9.503915E-1	9.822376E-1	9.809996E-1	9.806737E-1	9.849225E-1	9.571604E-1	9.945585E-1	9.984272E-1	9.698978E-1	9.810699E-1	9.305683E-1	9.729213E-1	9.565661E-1	1.007597E+0	1.032567E+0	9.734904E-1	9.256934E-1	1.044421E+0	1.000605E+0	1.013070E+0	9.826464E-1	1.022553E+0	1.025249E+0	9.871675E-1	9.714784E-1	1.021940E+0	1.025558E+0	1.053050E+0	9.883506E-1	1.008476E+0	1.026132E+0	9.948448E-1	9.861993E-1	1.010375E+0	1.011197E+0	9.554688E-1	1.004827E+0	1.002455E+0	1.003923E+0	9.699473E-1	9.853247E-1	9.734374E-1	1.020965E+0	1.047155E+0	1.018163E+0	9.981944E-1	1.001079E+0	1.001675E+0	1.036866E+0	1.038711E+0	1.034328E+0	1.014497E+0	9.909431E-1	9.554253E-1	9.691651E-1	1.010344E+0	9.743790E-1	9.998468E-1	9.717307E-1	9.923521E-1	9.945042E-1	9.460779E-1	9.893055E-1	9.923922E-1	9.598190E-1	9.795447E-1	9.786842E-1	1.001933E+0	9.628709E-1	9.624171E-1	9.820864E-1	9.693659E-1	9.776811E-1	1.017563E+0	1.053051E+0	1.011799E+0	9.948806E-1	9.641259E-1	1.037260E+0	9.779342E-1	1.016036E+0	1.003026E+0	1.008592E+0	9.913100E-1	1.003866E+0	1.016111E+0	9.507412E-1	9.650331E-1	9.817392E-1	9.864848E-1	9.524887E-1	1.014668E+0	9.728306E-1	9.828896E-1	9.896859E-1	9.514703E-1	9.625407E-1	1.029939E+0	9.973787E-1	1.020328E+0	1.018572E+0	1.029311E+0	1.028389E+0	9.839863E-1	9.833228E-1	1.006600E+0	1.006577E+0	1.023407E+0	1.021493E+0	1.009377E+0	1.024781E+0	9.783162E-1	1.006545E+0	9.996638E-1	9.869364E-1	1.017545E+0	1.017299E+0	1.001544E+0	9.840421E-1	1.031769E+0	1.023008E+0	1.005717E+0	1.028907E+0	1.006220E+0	9.850498E-1	1.015175E+0	1.006040E+0	1.009097E+0	9.828527E-1	1.014007E+0	1.012810E+0	9.937869E-1	9.913126E-1	1.002984E+0	9.748119E-1	9.236122E-1	9.976027E-1
2.980050E+2	9.914556E-1	1.001839E+0	1.008323E+0	1.002626E+0	9.973338E-1	1.002712E+0	9.971422E-1	9.834797E-1	1.018578E+0	1.021788E+0	1.028100E+0	1.005295E+0	1.004061E+0	9.885637E-1	9.588589E-1	1.024414E+0	9.989113E-1	9.939534E-1	9.725076E-1	1.001751E+0	1.002370E+0	1.031046E+0	1.014249E+0	9.726609E-1	1.019239E+0	9.960243E-1	1.008687E+0	9.939555E-1	9.851537E-1	9.905606E-1	1.045684E+0	1.015335E+0	9.842809E-1	1.004130E+0	9.863065E-1	9.938045E-1	1.011655E+0	1.008804E+0	9.830364E-1	1.013456E+0	1.002517E+0	1.042058E+0	9.893016E-1	9.713783E-1	1.008691E+0	9.979572E-1	9.890991E-1	9.888999E-1	9.929102E-1	1.014718E+0	1.002564E+0	1.035357E+0	1.003453E+0	1.004135E+0	1.000650E+0	1.026738E+0	1.021821E+0	9.874093E-1	1.006098E+0	9.955096E-1	9.912068E-1	1.002509E+0	1.021861E+0	9.970162E-1	9.864656E-1	1.001663E+0	1.010149E+0	9.854410E-1	9.950352E-1	1.011944E+0	9.704657E-1	1.022623E+0	1.031013E+0	9.837285E-1	1.094869E+0	9.859334E-1	9.876453E-1	1.022543E+0	1.020236E+0	9.889053E-1	9.976083E-1	1.013290E+0	1.025950E+0	1.006603E+0	9.915228E-1	1.003004E+0	9.994176E-1	9.967830E-1	1.003698E+0	1.028180E+0	1.005047E+0	9.855718E-1	9.751201E-1	1.007622E+0	9.980974E-1	9.841295E-1	9.729856E-1	1.051733E+0	1.004150E+0	1.026160E+0	1.018201E+0	9.849582E-1	1.011386E+0	9.908281E-1	9.836619E-1	1.021079E+0	9.398780E-1	9.645793E-1	9.827559E-1	9.782480E-1	9.909991E-1	1.000688E+0	9.962071E-1	9.806852E-1	1.007997E+0	9.619250E-1	1.046478E+0	9.902917E-1	9.639511E-1	9.967600E-1	1.031408E+0	1.019351E+0	1.018370E+0	1.026530E+0	1.027068E+0	1.033825E+0	1.013864E+0	9.804151E-1	9.952989E-1	9.698838E-1	1.003074E+0	9.879408E-1	1.002742E+0	1.001965E+0	1.006738E+0	9.767532E-1	1.012988E+0	9.922586E-1	9.933972E-1	1.001776E+0	1.009377E+0	1.044459E+0	1.025295E+0	9.949626E-1	9.906940E-1	9.812860E-1	9.875260E-1	9.956510E-1	9.893502E-1	1.017639E+0	9.699665E-1	1.007637E+0	9.950774E-1	1.010782E+0	1.026599E+0	1.005169E+0	1.013623E+0	1.024405E+0	1.001697E+0	9.995301E-1	9.778704E-1	9.834170E-1	9.381459E-1
2.985020E+2	1.005503E+0	9.445034E-1	9.855663E-1	9.653184E-1	9.763037E-1	9.547493E-1	9.667503E-1	9.833850E-1	9.799581E-1	9.569210E-1	9.740197E-1	1.002587E+0	9.680914E-1	1.005721E+0	1.003055E+0	9.648804E-1	9.782913E-1	9.852727E-1	9.757510E-1	9.793987E-1	9.648781E-1	9.576791E-1	9.474520E-1	9.607911E-1	9.488800E-1	9.796720E-1	9.277791E-1	9.870244E-1	9.612448E-1	9.680608E-1	9.649782E-1	9.939690E-1	9.636428E-1	9.924062E-1	1.012209E+0	9.637075E-1	9.613993E-1	9.780522E-1	9.973433E-1	9.867794E-1	9.459980E-1	9.608605E-1	1.014017E+0	9.631208E-1	9.491626E-1	9.711036E-1	9.873523E-1	9.822864E-1	9.940304E-1	9.414835E-1	9.851771E-1	9.627719E-1	9.821854E-1	9.538986E-1	9.950963E-1	9.415025E-1	9.939431E-1	9.545439E-1	1.005540E+0	9.611087E-1	9.845141E-1	9.997894E-1	9.563948E-1	9.793270E-1	9.909684E-1	9.667520E-1	9.625275E-1	9.692661E-1	9.397119E-1	9.452510E-1	1.001224E+0	9.587060E-1	9.859354E-1	9.660989E-1	9.282799E-1	9.741559E-1	9.671901E-1	9.716816E-1	9.902811E-1	9.878905E-1	9.681361E-1	9.714729E-1	9.541629E-1	9.995752E-1	9.788082E-1	9.998809E-1	9.546809E-1	9.273183E-1	9.767942E-1	9.900032E-1	9.806743E-1	9.636119E-1	9.601278E-1	9.799387E-1	9.895545E-1	9.604800E-1	9.729996E-1	9.408827E-1	9.565604E-1	9.451705E-1	9.469777E-1	9.830522E-1	9.419033E-1	9.792120E-1	1.022417E+0	9.366104E-1	9.622046E-1	9.705126E-1	9.653133E-1	9.921158E-1	9.750666E-1	9.806015E-1	9.607031E-1	9.630024E-1	9.567026E-1	1.002267E+0	9.812773E-1	9.820859E-1	9.967930E-1	1.001803E+0	9.228398E-1	1.014139E+0	9.501225E-1	9.413009E-1	9.427302E-1	9.711257E-1	9.695227E-1	9.885038E-1	9.918668E-1	9.717605E-1	9.608686E-1	9.403638E-1	9.735515E-1	1.005604E+0	9.792907E-1	9.878112E-1	9.913046E-1	9.729440E-1	9.995954E-1	9.423023E-1	9.977306E-1	9.737840E-1	9.556302E-1	9.576122E-1	9.662679E-1	1.012983E+0	9.867097E-1	9.387273E-1	9.792233E-1	9.767700E-1	9.740571E-1	9.273683E-1	9.664850E-1	1.011952E+0	9.652378E-1	9.675175E-1	9.773502E-1	9.341905E-1	9.808247E-1	9.826423E-1	9.697685E-1	9.858343E-1	9.542693E-1
2.990040E+2	1.027142E+0	1.013452E+0	1.019237E+0	1.036107E+0	9.999739E-1	1.030296E+0	1.034613E+0	1.023669E+0	1.037660E+0	1.022175E+0	1.023422E+0	1.007005E+0	1.021486E+0	1.035040E+0	1.067071E+0	1.037491E+0	1.011129E+0	1.014582E+0	1.050635E+0	1.022751E+0	1.044148E+0	1.036530E+0	1.065058E+0	1.014342E+0	1.028365E+0	1.035896E+0	1.054066E+0	1.013002E+0	1.077404E+0	1.027846E+0	1.005506E+0	1.009093E+0	1.070043E+0	1.027675E+0	9.960198E-1	1.015050E+0	1.052506E+0	1.016017E+0	1.039254E+0	1.051673E+0	9.963025E-1	1.042125E+0	1.020910E+0	1.044704E+0	1.029827E+0	1.030119E+0	1.032560E+0	1.024063E+0	1.014414E+0	1.051691E+0	1.051485E+0	1.021440E+0	9.995392E-1	1.019880E+0	1.024386E+0	1.058762E+0	1.032164E+0	1.034362E+0	1.011932E+0	1.021225E+0	1.036704E+0	1.027047E+0	1.025314E+0	1.010946E+0	1.025894E+0	1.016915E+0	1.021744E+0	1.031702E+0	1.051198E+0	1.019709E+0	1.056541E+0	1.060491E+0	1.002869E+0	1.034615E+0	9.875929E-1	1.031937E+0	1.021986E+0	1.027576E+0	1.028950E+0	1.018001E+0	1.058200E+0	1.042212E+0	1.044260E+0	1.055417E+0	1.053334E+0	1.023724E+0	1.014858E+0	1.055219E+0	1.018790E+0	1.021690E+0	9.987806E-1	1.025305E+0	1.056181E+0	9.962702E-1	1.025250E+0	1.051446E+0	1.065594E+0	1.045394E+0	1.030161E+0	1.000420E+0	1.014050E+0	1.039610E+0	1.031147E+0	1.024456E+0	9.972049E-1	1.021366E+0	1.043666E+0	1.035121E+0	1.032036E+0	1.040765E+0	1.043327E+0	1.032859E+0	1.064388E+0	1.061423E+0	1.057435E+0	1.037126E+0	1.012011E+0	1.025901E+0	1.007617E+0	1.024913E+0	1.058368E+0	9.976856E-1	1.004057E+0	1.009931E+0	1.047117E+0	1.011158E+0	1.036447E+0	1.047072E+0	1.039770E+0	1.026556E+0	1.061360E+0	1.081871E+0	1.006075E+0	9.930098E-1	1.016210E+0	1.037271E+0	9.546334E-1	1.056595E+0	1.044207E+0	1.084765E+0	1.012922E+0	1.019183E+0	9.729955E-1	1.049828E+0	1.045740E+0	1.041419E+0	1.033223E+0	1.075372E+0	1.031850E+0	1.015103E+0	1.025834E+0	1.009919E+0	1.046223E+0	1.038238E+0	1.032803E+0	1.034764E+0	1.038439E+0	1.031389E+0	1.026133E+0	1.046325E+0	1.032709E+0	1.050695E+0	1.024678E+0
2.995040E+2	9.842205E-1	1.045383E+0	9.979765E-1	1.017991E+0	1.006919E+0	1.014273E+0	1.021234E+0	1.013706E+0	9.847756E-1	1.037894E+0	1.020442E+0	1.003076E+0	1.031224E+0	9.727681E-1	1.006306E+0	1.037455E+0	1.015327E+0	1.031130E+0	1.030217E+0	1.020714E+0	1.002596E+0	1.000727E+0	9.845924E-1	1.055839E+0	1.026144E+0	9.831992E-1	1.039354E+0	1.011725E+0	9.900334E-1	9.918591E-1	1.018422E+0	1.003261E+0	9.888310E-1	9.895408E-1	1.005621E+0	1.025161E+0	1.012157E+0	9.972904E-1	9.965082E-1	9.953664E-1	1.060940E+0	1.018088E+0	9.936870E-1	1.030625E+0	1.020084E+0	1.028620E+0	1.007164E+0	1.011525E+0	9.945580E-1	1.003356E+0	9.847664E-1	1.009374E+0	1.007128E+0	1.018176E+0	1.024147E+0	1.029663E+0	9.620719E-1	9.891060E-1	1.005564E+0	1.015497E+0	1.015769E+0	1.016720E+0	1.024750E+0	1.007611E+0	1.036678E+0	1.013622E+0	1.013131E+0	1.050523E+0	1.032861E+0	1.029319E+0	1.014860E+0	1.003257E+0	1.036483E+0	1.030938E+0	1.028355E+0	9.954174E-1	1.037973E+0	9.743337E-1	9.826714E-1	1.027281E+0	1.025754E+0	1.015802E+0	1.003010E+0	1.002543E+0	1.009251E+0	1.015357E+0	1.039910E+0	1.035776E+0	9.995210E-1	9.799928E-1	1.003838E+0	1.019494E+0	1.007021E+0	1.002140E+0	1.026857E+0	9.959544E-1	1.011033E+0	1.033843E+0	1.047650E+0	1.063867E+0	1.010525E+0	1.014208E+0	1.008511E+0	1.016500E+0	9.939537E-1	1.036810E+0	1.032216E+0	1.029726E+0	1.035591E+0	1.017270E+0	1.043649E+0	1.030087E+0	1.029927E+0	1.026176E+0	1.003050E+0	1.010958E+0	1.001994E+0	1.004833E+0	1.027185E+0	9.951941E-1	1.013443E+0	1.048726E+0	1.044976E+0	1.016921E+0	1.028021E+0	1.001001E+0	9.882393E-1	9.975624E-1	9.840418E-1	1.056627E+0	9.911427E-1	1.023276E+0	1.037306E+0	1.033030E+0	1.016617E+0	9.778718E-1	1.053558E+0	9.944939E-1	1.011210E+0	9.777667E-1	1.024062E+0	1.004080E+0	1.045813E+0	1.019905E+0	9.903599E-1	1.014471E+0	1.012801E+0	1.039961E+0	1.017281E+0	9.919020E-1	1.004991E+0	1.034706E+0	9.887838E-1	9.617854E-1	1.021201E+0	9.994370E-1	9.868830E-1	1.005312E+0	1.016561E+0	9.872506E-1	1.052010E+0	1.015673E+0	1.058676E+0
3.000040E+2	9.916789E-1	9.948229E-1	9.888975E-1	9.779575E-1	1.019470E+0	9.979705E-1	9.802605E-1	9.957604E-1	9.790285E-1	9.612220E-1	9.540157E-1	9.820368E-1	9.751377E-1	9.979071E-1	9.647093E-1	9.357603E-1	9.963412E-1	9.750621E-1	9.708901E-1	9.753852E-1	9.860080E-1	9.740183E-1	9.886489E-1	9.963663E-1	9.773717E-1	1.005209E+0	9.701140E-1	9.942929E-1	9.861636E-1	1.021674E+0	9.654090E-1	9.783420E-1	9.932019E-1	9.862481E-1	9.998435E-1	1.002278E+0	9.622822E-1	9.998361E-1	9.838581E-1	9.527250E-1	9.942424E-1	9.368692E-1	9.820854E-1	9.901717E-1	9.922351E-1	9.721999E-1	9.838243E-1	9.932265E-1	1.004087E+0	9.887512E-1	9.760075E-1	9.710570E-1	1.007695E+0	1.003911E+0	9.557206E-1	9.433356E-1	9.900004E-1	1.034579E+0	9.708663E-1	1.006660E+0	9.718068E-1	9.539350E-1	9.716802E-1	1.005100E+0	9.599934E-1	1.001048E+0	9.924489E-1	9.630674E-1	9.811937E-1	9.937774E-1	9.569091E-1	9.549241E-1	9.437000E-1	9.846199E-1	9.609024E-1	1.012556E+0	9.852051E-1	1.003866E+0	9.778618E-1	9.779221E-1	9.503016E-1	9.572231E-1	9.726169E-1	9.358622E-1	9.670843E-1	9.580335E-1	9.911334E-1	9.849033E-1	1.001198E+0	9.801336E-1	1.011660E+0	1.006017E+0	1.001551E+0	1.014028E+0	9.602409E-1	1.007990E+0	9.773876E-1	9.281468E-1	9.614776E-1	9.643824E-1	1.010247E+0	9.781717E-1	1.007053E+0	9.890038E-1	1.002763E+0	9.841341E-1	1.022036E+0	1.000061E+0	9.843037E-1	9.716010E-1	9.469586E-1	9.557654E-1	9.487750E-1	9.687130E-1	9.748156E-1	9.877241E-1	9.582396E-1	9.968887E-1	1.004454E+0	9.813300E-1	9.739419E-1	9.200984E-1	9.824742E-1	1.005317E+0	9.550640E-1	9.828901E-1	9.919268E-1	9.864469E-1	9.890221E-1	9.751729E-1	9.835553E-1	9.665481E-1	9.803259E-1	9.663920E-1	9.811440E-1	1.020292E+0	9.875165E-1	9.837089E-1	9.515903E-1	9.933901E-1	9.559079E-1	9.584936E-1	1.000266E+0	9.776919E-1	1.006938E+0	9.498411E-1	9.797401E-1	9.502880E-1	9.822957E-1	9.985856E-1	1.025152E+0	1.020369E+0	1.003431E+0	9.772422E-1	9.541594E-1	9.931133E-1	9.837051E-1	1.004704E+0	9.747836E-1	9.842524E-1	9.676417E-1	9.643804E-1	1.024231E+0
