Photon Energy (eV)	#1	#2	#3	#4	#5	#6	#7	#8	#9	#10	#11	#12	#13	#14	#15	#16	#17	#18	#19	#20	#21	#22	#23	#24	#25	#26	#27	#28	#29	#30	#31	#32	#33	#34	#35	#36	#37	#38	#39	#40	#41	#42	#43	#44	#45	#46	#47	#48	#49	#50	#51	#52	#53	#54	#55	#56	#57	#58	#59	#60	#61	#62	#63	#64	#65	#66	#67	#68	#69	#70	#71	#72	#73	#74	#75	#76	#77	#78	#79	#80	#81	#82	#83	#84	#85	#86	#87	#88	#89	#90	#91	#92	#93	#94	#95	#96	#97	#98	#99	#100	#101	#102	#103	#104	#105	#106	#107	#108	#109	#110	#111	#112	#113	#114	#115	#116	#117	#118	#119	#120	#121	#122	#123	#124	#125	#126	#127	#128	#129	#130	#131	#132	#133	#134	#135	#136	#137	#138	#139	#140	#141	#142	#143	#144	#145	#146	#147	#148	#149	#150	#151	#152	#153	#154	#155	#156	#157	#158	#159	#160	#161	#162	#163	#164	#165	#166	#167	#168	#169	#170	
5.300160E+2	-1.566112E-2	-8.442863E-3	-1.155089E-2	-6.803717E-3	-9.412712E-3	-6.380801E-3	-9.761839E-3	-6.597228E-3	-1.131799E-2	-6.808213E-3	-9.905462E-3	-1.425328E-2	-1.936364E-3	-2.978359E-3	-5.367659E-3	-6.572142E-3	-7.170906E-3	-1.048633E-2	-1.924518E-2	-1.073763E-2	-3.868785E-3	-8.965364E-3	-5.337854E-3	-4.452796E-3	-5.113311E-3	6.115680E-4	-8.474774E-3	-9.494542E-3	-3.882711E-3	-9.463789E-3	-6.588627E-3	-5.272653E-3	-7.836520E-3	-7.933252E-3	-8.537414E-3	-5.740422E-3	-6.009722E-3	-2.712003E-3	-9.010019E-3	-1.410708E-2	-1.755994E-2	-1.255361E-2	-8.454705E-3	-5.970163E-3	-1.131340E-2	-5.507463E-3	-4.470030E-3	-1.221318E-2	-9.710210E-3	-7.229267E-3	-1.291662E-2	-1.224796E-2	1.439041E-4	1.633274E-3	-4.746079E-3	-9.328394E-3	-4.993110E-3	-1.679375E-2	-4.709956E-3	-1.115647E-2	-1.200677E-2	-9.466038E-3	-4.324738E-3	-1.038303E-2	-6.919868E-3	-1.660946E-2	-3.381693E-3	-3.889928E-3	-4.355147E-4	-3.625255E-3	-2.880586E-3	-2.293942E-4	-6.783684E-3	2.645148E-3	-1.042756E-2	-1.420842E-3	-7.627384E-3	-5.112056E-3	-1.099883E-2	-1.185219E-2	-7.556117E-3	-1.067823E-2	-1.569064E-2	-4.835391E-3	9.325675E-4	-7.798216E-3	-1.176177E-2	-9.745519E-3	-5.186659E-3	2.002836E-3	-7.260453E-3	-5.240107E-3	-9.281289E-3	-1.666080E-2	-1.134926E-2	-1.291201E-2	1.826866E-3	-5.592887E-3	-1.404726E-2	-1.548320E-2	-2.349864E-3	-1.076664E-2	-8.106254E-4	-9.765018E-3	-1.397045E-2	-3.066106E-3	-6.892911E-3	-1.076683E-2	-6.576616E-3	-1.120672E-2	4.418412E-3	-1.271219E-2	-7.799863E-3	-5.800177E-3	-7.152652E-3	-5.563284E-3	-8.075332E-3	3.309408E-4	-7.462011E-3	-1.062269E-2	-6.878161E-3	-1.073423E-2	-5.886562E-3	-9.267200E-3	-6.387456E-3	-1.245384E-2	-2.887460E-3	-9.410956E-3	-8.594381E-3	-6.375732E-3	-5.846191E-3	-9.294999E-3	-9.868387E-3	-3.164505E-3	-1.363793E-2	-1.306820E-2	-1.597352E-3	-1.468424E-2	-1.533381E-2	-7.450313E-3	-9.695864E-3	-4.864466E-3	-9.940526E-3	-9.996208E-3	-1.344525E-2	-7.762692E-3	-7.514536E-3	-6.971084E-3	-1.188209E-2	-7.981637E-3	-1.282861E-2	-5.980104E-3	-8.139193E-3	-6.964261E-3	-1.076577E-2	-1.321821E-3	-9.685856E-3	-1.100512E-2	-7.488659E-3	-1.580070E-3	-1.910739E-2	-5.075068E-4	1.754536E-3	-6.212184E-3	-9.799650E-3	-1.069113E-2	-6.524455E-3	-1.093591E-2	-1.110277E-2	-2.031367E-2
5.305180E+2	-5.766924E-3	-1.853304E-3	-3.609854E-4	-8.629877E-3	-3.846843E-3	3.641554E-4	6.452187E-3	-8.535770E-3	-8.541224E-3	-6.720964E-3	-7.659102E-3	-7.493691E-3	5.155266E-4	-4.461732E-3	-4.794178E-3	-7.309726E-3	5.175614E-3	2.484943E-3	-5.725670E-3	-4.003856E-3	-3.763397E-3	-1.291578E-2	-1.027776E-2	-4.803256E-3	-3.811896E-3	-6.260459E-3	1.876943E-3	-5.157161E-3	-1.059228E-2	-6.916634E-3	-6.493672E-3	-5.153622E-3	-1.649233E-2	-6.769521E-3	1.771952E-3	3.418683E-3	-7.536480E-3	-4.727038E-3	-7.910265E-3	-6.023794E-4	-1.216213E-3	-8.685878E-3	-4.007324E-3	-1.849610E-3	-4.834030E-3	1.064571E-3	4.406922E-4	1.460282E-3	-4.801437E-3	-2.221405E-3	-4.765306E-3	-4.066656E-3	-1.260924E-2	-1.152006E-2	-5.150827E-3	-5.650526E-3	-9.205766E-3	-3.057687E-5	-2.948492E-3	-9.361655E-3	-7.356481E-3	-1.036314E-2	-7.654800E-3	-1.658107E-3	-7.655333E-3	-3.290726E-3	-7.522934E-3	-8.101884E-3	-8.620613E-3	-1.130727E-2	-1.979302E-4	2.252144E-3	4.837673E-3	-9.586483E-3	-3.274805E-3	-3.720307E-3	1.266801E-3	3.607392E-4	-3.063708E-3	-1.222834E-3	4.515783E-3	-9.687245E-4	-9.474394E-3	-2.932052E-3	-9.775914E-3	-4.994602E-3	-2.404503E-3	-5.852365E-4	3.542667E-4	2.707422E-3	-5.134127E-3	-8.760989E-3	-2.092983E-3	-1.998793E-4	-1.025444E-2	3.639325E-3	-5.465074E-3	-6.611732E-3	-6.224985E-3	-9.121830E-3	1.066371E-3	-1.914558E-3	-1.325354E-2	1.694455E-3	-8.224712E-3	-1.291882E-3	1.303233E-3	3.118974E-4	-3.203686E-3	-5.414936E-3	-9.084353E-3	2.672958E-3	-5.807000E-3	-7.466966E-3	2.120755E-4	-1.241187E-2	-1.324714E-3	-1.482057E-2	-5.748439E-3	4.137271E-3	-1.021675E-2	-8.276951E-3	-8.984877E-3	-5.802020E-3	1.441168E-3	-6.652261E-3	-1.223026E-2	-6.074893E-3	-4.002259E-3	8.331198E-3	-7.474455E-3	-3.823628E-3	-1.449405E-2	-1.911673E-3	-2.846023E-3	5.723994E-3	-2.002198E-3	-4.521953E-3	8.361496E-4	7.112780E-3	-7.146995E-3	-7.776499E-3	-5.294863E-3	-4.508063E-3	-3.000283E-3	-4.808663E-3	-1.181162E-2	-2.366435E-4	1.493455E-3	-1.924683E-3	1.125226E-3	-5.855740E-3	-8.024846E-3	2.710101E-4	-1.485212E-3	-4.533848E-3	-3.452909E-3	-1.190005E-2	-2.789533E-3	6.321589E-4	-6.038143E-3	-9.594463E-4	-1.269129E-2	-6.100499E-3	-3.620576E-3	-7.502303E-3	3.724190E-4	2.823070E-3	-1.763764E-2	-8.994917E-3
5.310250E+2	3.587692E-3	1.211159E-3	1.496397E-3	-1.560172E-2	-4.535360E-4	4.820805E-4	-6.356380E-3	-1.201850E-2	1.639080E-4	1.714440E-3	-4.321494E-3	-4.307388E-3	-1.242035E-3	-7.019302E-3	7.498870E-3	-8.036674E-4	-2.885949E-3	-4.121852E-3	-1.476374E-3	-1.991920E-3	-7.931564E-3	3.311380E-4	-8.467559E-5	-4.248526E-3	-7.335945E-3	-9.163766E-3	8.489506E-3	-7.969923E-4	-8.400266E-3	5.482712E-3	-1.848915E-3	-2.111140E-3	-2.504034E-3	-2.936943E-3	3.523371E-4	-6.548718E-3	-3.712469E-4	-4.618888E-3	3.780389E-3	-1.369648E-3	3.116799E-3	6.280426E-4	-7.180314E-3	3.678549E-3	5.148646E-3	-3.135125E-3	8.559700E-5	-6.333323E-3	-1.747500E-3	-1.506586E-3	1.762875E-4	-1.260575E-3	-6.825754E-3	-4.519632E-3	-6.076885E-3	-1.616475E-3	9.198188E-5	-1.496810E-2	1.046613E-3	-4.163329E-3	-3.213000E-3	1.829458E-3	-9.528740E-3	7.176688E-3	7.130389E-3	-4.245600E-3	-3.661677E-3	-6.963002E-3	-2.308169E-3	-3.911630E-3	-3.136108E-3	-1.144521E-2	-6.013464E-3	7.363459E-4	-2.078556E-3	-5.406881E-3	-1.723513E-3	-5.402476E-3	1.674329E-3	-9.042262E-3	-6.881293E-3	2.466540E-3	3.409365E-3	-3.492704E-3	-4.294631E-3	-2.444694E-6	-5.441014E-3	-5.012837E-4	-8.647658E-3	-8.098485E-3	-6.565155E-3	-5.968082E-3	-1.895332E-3	-1.053885E-3	6.467195E-3	-6.326760E-3	5.093841E-3	-3.635425E-3	-6.676614E-3	6.233802E-3	1.773565E-3	-6.192051E-3	4.823743E-3	-9.656480E-3	-3.620469E-3	-6.174180E-4	-1.245529E-3	-3.056305E-3	-7.817261E-3	4.258299E-4	-4.725313E-3	-9.479669E-4	-3.471538E-3	-1.610198E-4	-2.945175E-3	2.717240E-4	1.167467E-3	-1.118463E-3	3.480608E-3	-4.405650E-3	-3.103915E-3	-2.257029E-3	2.714551E-3	3.143759E-3	1.664565E-3	-7.973550E-4	7.398832E-3	1.625888E-3	-4.077519E-3	-8.654064E-3	-5.534166E-3	-3.060749E-3	-6.877171E-3	-2.340567E-3	-6.978883E-3	5.424142E-3	3.154340E-3	4.015477E-3	2.700992E-3	-9.960972E-3	-4.053599E-3	1.008972E-3	5.458732E-3	8.660969E-4	-4.306951E-4	-2.386757E-3	7.608259E-3	1.512546E-4	-3.301985E-3	1.452252E-3	-4.907399E-3	-2.122948E-3	3.367515E-3	-1.208497E-2	-2.432982E-3	-1.641319E-3	-1.201496E-2	8.368991E-3	-1.632441E-3	-1.027038E-2	-4.741531E-3	-1.413375E-3	-5.800813E-3	1.797639E-3	-4.097185E-3	2.383929E-3	-6.900177E-3	4.492430E-3	1.336038E-3	-6.994625E-3
5.315130E+2	2.538974E-3	-4.021361E-3	4.334496E-4	3.143701E-3	1.855264E-3	-1.552688E-2	-5.179940E-3	6.010912E-3	-9.420400E-3	-1.763735E-3	-2.047997E-3	9.630647E-4	-1.786797E-4	4.866768E-3	-8.326899E-3	-2.801828E-3	-4.825607E-3	3.753214E-3	5.397675E-3	5.119547E-4	-1.403018E-3	-1.074667E-3	1.051956E-3	-6.416610E-3	-2.397229E-3	9.605412E-4	-6.544009E-3	-2.818196E-3	5.914657E-3	-6.209680E-3	-1.223819E-3	-2.395610E-3	5.874204E-3	9.249789E-4	-3.117814E-3	-7.959738E-3	5.746306E-3	-9.306438E-3	-4.679891E-3	1.014145E-3	-2.203141E-3	-5.243647E-3	4.962806E-3	-3.809697E-3	-2.877543E-3	-5.720574E-3	-4.601499E-3	-3.350712E-4	-9.347029E-3	-3.852793E-3	-2.337831E-4	3.735938E-3	-2.560713E-3	-8.143661E-3	7.259473E-4	9.679577E-4	-5.762541E-3	4.677952E-3	-3.301103E-3	2.207235E-3	-2.076200E-3	-6.618426E-3	1.231793E-2	-3.721509E-3	3.998706E-3	2.773479E-3	7.667442E-4	-1.638668E-3	8.013225E-3	4.054669E-3	-1.118831E-2	-1.167790E-3	-7.556216E-3	-6.693482E-3	2.254724E-4	-3.528393E-3	-4.197758E-3	-3.804755E-3	-6.992543E-3	2.643094E-3	-3.346308E-3	-4.846759E-3	2.965707E-3	1.792321E-4	2.440550E-3	1.198377E-3	5.133624E-3	3.469703E-3	2.967729E-3	-5.191996E-4	-1.413324E-3	4.820943E-3	4.831739E-3	1.610348E-3	7.623719E-3	-3.098514E-3	-1.268636E-2	5.163728E-3	8.820661E-3	-4.216225E-3	-5.244352E-3	6.534268E-3	-8.896095E-4	7.176664E-3	-1.385954E-4	-5.466850E-3	-3.810652E-3	6.755625E-4	-4.459070E-3	-5.680910E-3	-5.128350E-3	2.434089E-3	-5.764158E-3	1.158591E-3	-1.702846E-3	-3.036224E-3	-4.808661E-3	1.275596E-3	-1.205085E-3	-3.729864E-3	5.091438E-4	4.390020E-3	-1.675116E-3	1.123593E-4	-9.584974E-3	-1.267451E-4	-1.966917E-3	-3.849787E-3	1.056977E-4	1.689305E-3	-3.636961E-3	-1.174034E-3	1.230885E-3	-6.172047E-3	4.439138E-3	-1.010017E-3	-1.106804E-2	-8.905042E-4	-2.365970E-3	-5.163459E-3	-3.343104E-3	1.567325E-4	-7.031928E-3	-4.487115E-3	5.313860E-3	5.805643E-3	-8.233087E-3	-5.448018E-3	4.808691E-3	-2.753040E-3	-1.149317E-3	-1.119053E-3	-9.572301E-4	2.336072E-3	2.045718E-3	-7.674710E-3	7.180463E-3	-3.066766E-3	-4.468038E-4	3.240663E-3	2.318925E-3	-2.382413E-3	-3.612217E-4	-6.117328E-3	-4.981566E-3	9.951499E-4	-5.541582E-4	-2.598475E-3	-1.812385E-3	1.949238E-2
5.320070E+2	2.056652E-3	-1.556710E-3	-7.833445E-5	4.516411E-3	3.640121E-3	2.371006E-3	-7.670695E-4	1.075250E-2	1.555143E-2	3.129708E-3	5.100319E-3	6.766843E-3	3.715094E-3	1.555590E-4	5.419350E-3	8.875668E-3	-2.679973E-3	-3.415290E-3	7.583345E-3	-3.341516E-4	-3.975624E-3	6.149054E-3	9.287466E-3	6.457909E-3	4.997956E-3	1.573622E-3	-1.008281E-3	2.094798E-3	6.028210E-3	3.774453E-3	5.974493E-3	2.412494E-4	2.877522E-3	-2.718526E-3	1.610949E-3	7.333767E-3	-1.777691E-3	-3.324109E-3	9.094313E-3	5.651334E-3	2.752369E-3	8.439403E-4	6.173792E-3	-2.634046E-3	1.305926E-3	6.308019E-3	3.351040E-4	1.898404E-3	1.332464E-2	7.340212E-3	-1.201586E-3	6.004932E-4	1.056545E-2	2.105934E-3	6.523576E-3	8.487044E-3	2.495099E-3	3.672687E-3	3.497643E-3	5.971182E-4	6.151184E-3	5.642114E-3	6.020365E-3	7.002249E-3	-7.970479E-4	5.022139E-3	3.046645E-3	1.466640E-2	-5.492785E-3	1.309659E-2	3.757549E-3	-4.752693E-3	7.984786E-4	-1.735689E-3	7.986814E-3	-2.253501E-3	-3.048235E-3	7.157427E-3	3.802491E-3	1.182563E-2	-7.222536E-3	5.604785E-3	6.576125E-3	5.249401E-3	1.839269E-4	6.874282E-3	-1.998389E-4	-5.056355E-3	7.906185E-5	-2.102256E-3	2.830149E-3	4.457610E-3	-5.793437E-3	2.389621E-3	4.361739E-3	9.032801E-3	1.169057E-3	7.663668E-3	8.500579E-3	6.529554E-3	1.510643E-3	1.206085E-3	5.783291E-3	5.283427E-4	7.266085E-3	6.256203E-3	6.054163E-3	4.474658E-3	6.528389E-3	5.886451E-3	2.923987E-3	5.810278E-3	9.503404E-3	1.258676E-3	1.208245E-3	1.143285E-2	-8.123358E-4	4.804600E-3	-3.788938E-3	1.102474E-2	1.005530E-2	3.299817E-3	-1.581525E-3	1.817513E-3	2.450491E-3	-2.465686E-6	3.967919E-3	3.398883E-3	3.632739E-3	-1.313746E-4	7.038841E-3	9.126748E-3	1.198194E-2	-2.097547E-3	5.106588E-3	2.527999E-3	2.895437E-3	7.672435E-3	4.941160E-5	1.358166E-2	9.560514E-3	6.417944E-3	5.769840E-3	9.632822E-4	8.348185E-3	-3.253572E-3	1.128408E-2	8.243823E-6	1.564563E-3	2.799343E-3	8.796029E-3	2.478994E-3	2.547305E-3	4.249285E-3	5.969954E-3	-2.852659E-3	3.219465E-3	2.118173E-3	3.783475E-3	-1.993233E-3	1.219847E-2	1.142722E-3	8.201193E-3	1.587336E-3	1.116654E-2	6.290953E-3	5.788041E-3	5.257881E-3	1.395918E-2	1.587935E-2
5.325170E+2	1.324473E-2	1.466308E-2	1.006036E-2	2.337520E-2	8.217706E-3	1.869043E-2	1.561304E-2	1.038809E-2	1.356427E-2	1.044876E-2	1.883374E-2	1.832445E-2	-8.735418E-4	9.437066E-3	5.570516E-3	8.611695E-3	1.238682E-2	1.178531E-2	1.346621E-2	1.655561E-2	2.094239E-2	1.647562E-2	5.360864E-3	1.346328E-2	1.366042E-2	1.227849E-2	5.660615E-3	1.617209E-2	1.093239E-2	1.333294E-2	1.018054E-2	1.469178E-2	1.808116E-2	1.943326E-2	7.919990E-3	9.496428E-3	9.948835E-3	2.468847E-2	8.725472E-3	9.413631E-3	1.511013E-2	2.501115E-2	8.505744E-3	1.058497E-2	1.257040E-2	6.990571E-3	8.210136E-3	1.552289E-2	1.228154E-2	7.469840E-3	1.894101E-2	1.323876E-2	1.128635E-2	2.044414E-2	8.724268E-3	7.140393E-3	1.737434E-2	2.344179E-2	6.415295E-3	2.187710E-2	1.850126E-2	1.897603E-2	3.169978E-3	1.583707E-3	4.243154E-3	1.635017E-2	1.075291E-2	5.927080E-3	8.843858E-3	1.692895E-3	1.364539E-2	1.534295E-2	1.471721E-2	1.463416E-2	7.568640E-3	1.632992E-2	1.533009E-2	6.801122E-3	1.557826E-2	7.648559E-3	2.049047E-2	8.422389E-3	1.221383E-2	5.831513E-3	1.051350E-2	4.722603E-3	1.467350E-2	1.241869E-2	1.043326E-2	6.009683E-3	1.754291E-2	1.069063E-2	1.423130E-2	1.391460E-2	3.151051E-3	9.665161E-3	1.006167E-2	3.012649E-3	9.627621E-3	1.605790E-2	3.243636E-3	1.113290E-2	4.346741E-3	1.002204E-2	1.868814E-2	4.186055E-3	4.591697E-3	8.361012E-3	1.552824E-2	1.599028E-2	1.159562E-2	2.742828E-3	1.333916E-2	1.101090E-2	1.038035E-2	9.306803E-3	1.385358E-2	9.527895E-3	1.472386E-2	3.596187E-3	9.634375E-3	1.357837E-2	1.541353E-2	9.995588E-3	1.041621E-2	2.003266E-2	5.717887E-3	1.431086E-2	1.293572E-2	5.140668E-3	1.545293E-2	8.226662E-3	1.802677E-2	1.568634E-2	1.391711E-2	4.020786E-4	8.617813E-3	8.408784E-3	1.411323E-2	1.880302E-3	1.467905E-2	5.057317E-3	1.103875E-2	1.716201E-2	3.214185E-3	1.240604E-2	8.666909E-3	1.249625E-2	7.317362E-3	8.407764E-3	8.964069E-3	1.259885E-2	1.120645E-2	1.219286E-2	6.668290E-3	1.802436E-2	1.475380E-2	1.548477E-2	8.573961E-3	9.970859E-3	1.536968E-2	4.120019E-3	8.897600E-3	1.504504E-2	1.133243E-2	8.523402E-3	7.818329E-3	9.610048E-4	1.525758E-2	9.314870E-4
5.330280E+2	2.156486E-2	2.019773E-2	2.380509E-2	1.254145E-2	2.444673E-2	2.836818E-2	3.152657E-2	1.466132E-2	1.263719E-2	3.344205E-2	1.736699E-2	2.577541E-2	1.825694E-2	1.282950E-2	2.419009E-2	1.567815E-2	1.254767E-2	1.662953E-2	3.299726E-2	2.778251E-2	1.950081E-2	1.969717E-2	1.315375E-2	2.692778E-2	1.930211E-2	2.253724E-2	2.493245E-2	1.957257E-2	2.064630E-2	2.096932E-2	1.800027E-2	2.037504E-2	2.347542E-2	8.840126E-3	2.461567E-2	2.288892E-2	1.945424E-2	2.004963E-2	3.280123E-2	1.729161E-2	2.443734E-2	1.971437E-2	2.079232E-2	2.991732E-2	1.920334E-2	2.678803E-2	2.684297E-2	1.742015E-2	2.740397E-2	3.239306E-2	2.021099E-2	2.267919E-2	2.723997E-2	1.901655E-2	2.548802E-2	2.467417E-2	1.759082E-2	2.083494E-2	2.397989E-2	2.378946E-2	5.451704E-3	2.223987E-2	2.423896E-2	2.121631E-2	1.706083E-2	2.564198E-2	2.178129E-2	2.707270E-2	2.454961E-2	2.344584E-2	2.000919E-2	1.600281E-2	1.662046E-2	3.220592E-2	2.310764E-2	2.247940E-2	2.914297E-2	1.639053E-2	2.885458E-2	2.325747E-2	8.571819E-3	2.471936E-2	1.809578E-2	2.797392E-2	1.933407E-2	2.651546E-2	2.190057E-2	2.424290E-2	7.659964E-3	2.478795E-2	2.654616E-2	2.009479E-2	2.162234E-2	3.176122E-2	1.070321E-2	2.189444E-2	1.242383E-2	1.378102E-2	9.898138E-3	1.389446E-2	2.056184E-2	1.585931E-2	2.970779E-2	1.815152E-2	1.602108E-2	2.100407E-2	1.997779E-2	3.496632E-2	2.267062E-2	2.977490E-2	2.559809E-2	1.407030E-2	1.898182E-2	3.041470E-2	3.257582E-2	2.273421E-2	2.632512E-2	2.398615E-2	2.400761E-2	2.719120E-2	1.327251E-2	1.551525E-2	2.270318E-2	1.603532E-2	2.832240E-2	1.602335E-2	2.877065E-2	2.705098E-2	2.283612E-2	2.006784E-2	1.147752E-2	2.023408E-2	2.835675E-2	1.927136E-2	2.003445E-2	1.655958E-2	2.159225E-2	1.761465E-2	1.775506E-2	1.791681E-2	2.326188E-2	2.577959E-2	2.448570E-2	2.093654E-2	1.216782E-2	1.313208E-2	2.052143E-2	1.750335E-2	3.222481E-2	4.413816E-2	1.743307E-2	2.674548E-2	1.420171E-2	2.676471E-2	2.651204E-2	2.086340E-2	3.463214E-2	2.024772E-2	2.732316E-2	1.760765E-2	1.854379E-2	2.526126E-3	2.333677E-2	9.876593E-3	2.074220E-2	9.716330E-3	2.108910E-2	1.971398E-2	1.992327E-2	1.434896E-2
5.331580E+2	3.252273E-2	2.996630E-2	3.348909E-2	2.568840E-2	4.691814E-2	3.537937E-2	4.101725E-2	3.812597E-2	2.737335E-2	1.858342E-2	2.736114E-2	3.638924E-2	2.494095E-2	2.813401E-2	1.726622E-2	2.839725E-2	3.394565E-2	3.196696E-2	3.321859E-2	3.281743E-2	3.699992E-2	4.857302E-2	3.991344E-2	2.435662E-2	2.312937E-2	2.321682E-2	2.293414E-2	2.998194E-2	3.571135E-2	3.461455E-2	3.453718E-2	3.032483E-2	3.201244E-2	3.384521E-2	4.036407E-2	3.175878E-2	3.617845E-2	4.124652E-2	2.535006E-2	3.110453E-2	3.072770E-2	3.470332E-2	3.532880E-2	3.230591E-2	4.174940E-2	1.605385E-2	4.849521E-2	2.906701E-2	3.897186E-2	1.583093E-2	3.398550E-2	2.833439E-2	3.688986E-2	4.664244E-2	2.618580E-2	3.082534E-2	2.597768E-2	1.987976E-2	2.810161E-2	2.914266E-2	1.480832E-2	3.009428E-2	2.193588E-2	3.163617E-2	3.486319E-2	2.957363E-2	3.230421E-2	1.726683E-2	2.988041E-2	3.524163E-2	1.502228E-2	3.253596E-2	4.511029E-2	3.022923E-2	2.824659E-2	3.582959E-2	3.617743E-2	1.904989E-2	3.281044E-2	4.040617E-2	3.361098E-2	4.591178E-2	3.231408E-2	2.552707E-2	2.544077E-2	2.997065E-2	2.810967E-2	3.121391E-2	2.661355E-2	2.598825E-2	2.812334E-2	2.790194E-2	3.126177E-2	3.190781E-2	2.829468E-2	2.527825E-2	2.809369E-2	2.838983E-2	4.430611E-2	2.232272E-2	3.687992E-2	3.136237E-2	4.162759E-2	4.094402E-2	2.466929E-2	3.343649E-2	2.728248E-2	3.380698E-2	3.233765E-2	2.160216E-2	3.064509E-2	3.439492E-2	2.531004E-2	3.004431E-2	3.907376E-2	3.745527E-2	3.618650E-2	3.455541E-2	3.524817E-2	2.470594E-2	2.105166E-2	3.127943E-2	2.422014E-2	3.400059E-2	2.698003E-2	2.097192E-2	3.488520E-2	3.000974E-2	3.167535E-2	4.737316E-2	3.003248E-2	3.506481E-2	4.683682E-2	3.379348E-2	1.917152E-2	3.342238E-2	2.628842E-2	3.257548E-2	2.260934E-2	3.691772E-2	2.696545E-2	3.325248E-2	2.933497E-2	3.283543E-2	2.709536E-2	2.665496E-2	3.696154E-2	3.497014E-2	3.020453E-2	2.355501E-2	3.328567E-2	2.798313E-2	4.233307E-2	2.999908E-2	2.343235E-2	3.551070E-2	4.268464E-2	3.068499E-2	2.962591E-2	3.632776E-2	2.539103E-2	3.306864E-2	2.567577E-2	4.217796E-2	2.898351E-2	3.230088E-2	4.822021E-2	2.813155E-2	4.715140E-2	4.687638E-2
5.333130E+2	4.499921E-2	4.885053E-2	2.773182E-2	2.913176E-2	4.055926E-2	4.338145E-2	4.512588E-2	2.751420E-2	3.266169E-2	3.587808E-2	4.506969E-2	3.296091E-2	3.683175E-2	3.378876E-2	4.076011E-2	3.900735E-2	3.112637E-2	4.176185E-2	3.397244E-2	4.031511E-2	5.203161E-2	5.471224E-2	4.433592E-2	3.479127E-2	3.834910E-2	4.602472E-2	4.288293E-2	4.912926E-2	4.833418E-2	3.439323E-2	3.371693E-2	4.075855E-2	4.640030E-2	3.410823E-2	3.800752E-2	3.864204E-2	3.959441E-2	4.934378E-2	3.017591E-2	5.870015E-2	4.139374E-2	4.549851E-2	4.715642E-2	4.626778E-2	4.260785E-2	2.831670E-2	3.898933E-2	3.568489E-2	2.893590E-2	4.027729E-2	3.693304E-2	4.280349E-2	2.799969E-2	3.662833E-2	3.627464E-2	4.547687E-2	3.375330E-2	3.927631E-2	4.182469E-2	4.545654E-2	4.367238E-2	3.441070E-2	4.915954E-2	4.632362E-2	3.949200E-2	4.645143E-2	3.851826E-2	3.799581E-2	3.753809E-2	3.385672E-2	3.535130E-2	4.258022E-2	3.696202E-2	3.751806E-2	3.340171E-2	3.901559E-2	3.797579E-2	3.518114E-2	3.491288E-2	4.755192E-2	4.657997E-2	5.186156E-2	5.006219E-2	2.934115E-2	4.817523E-2	3.070030E-2	2.076971E-2	4.505132E-2	3.779579E-2	5.336320E-2	3.803768E-2	4.953734E-2	2.853361E-2	4.817474E-2	3.092535E-2	4.305803E-2	3.933146E-2	3.793189E-2	4.118693E-2	3.074981E-2	3.818010E-2	4.431027E-2	5.026600E-2	4.433333E-2	3.213102E-2	5.138142E-2	3.839501E-2	3.613662E-2	2.979508E-2	4.025938E-2	3.569196E-2	5.013344E-2	4.268340E-2	4.357411E-2	3.481680E-2	4.008370E-2	4.959465E-2	3.940622E-2	4.210578E-2	4.145993E-2	2.700547E-2	4.050884E-2	3.424723E-2	5.369397E-2	5.451296E-2	3.490836E-2	3.350160E-2	4.697050E-2	4.400048E-2	4.115734E-2	2.788086E-2	4.073917E-2	5.465046E-2	5.297857E-2	3.572850E-2	3.252018E-2	3.997744E-2	4.364034E-2	5.089144E-2	3.201993E-2	3.515214E-2	5.322101E-2	3.934234E-2	2.726401E-2	3.438870E-2	3.762617E-2	4.615738E-2	4.064017E-2	4.911481E-2	5.084739E-2	3.874949E-2	4.579901E-2	5.058987E-2	3.930223E-2	3.243238E-2	4.807524E-2	3.668231E-2	3.200153E-2	3.920988E-2	4.940673E-2	4.317993E-2	4.219249E-2	4.447789E-2	4.458041E-2	3.725107E-2	4.100703E-2	2.587768E-2	4.332438E-2	3.611342E-2	3.763936E-2
5.334630E+2	5.203448E-2	5.988005E-2	6.063047E-2	5.981277E-2	6.121974E-2	4.702127E-2	5.138796E-2	3.751192E-2	3.238650E-2	6.459714E-2	4.253225E-2	4.047077E-2	4.927881E-2	4.973179E-2	5.766454E-2	4.618589E-2	5.901027E-2	4.672287E-2	5.211094E-2	4.585969E-2	4.408576E-2	4.830971E-2	5.125617E-2	6.047968E-2	5.628848E-2	5.804214E-2	5.739564E-2	6.344417E-2	5.389946E-2	6.218875E-2	4.317007E-2	5.207805E-2	4.014529E-2	5.284048E-2	4.291259E-2	5.068857E-2	4.131348E-2	5.170826E-2	6.071323E-2	4.947037E-2	3.499273E-2	6.144403E-2	4.739554E-2	6.199030E-2	4.294611E-2	5.662306E-2	5.441121E-2	5.385856E-2	5.932779E-2	3.929278E-2	5.029835E-2	4.691704E-2	5.604206E-2	5.622579E-2	5.957028E-2	3.979641E-2	4.567071E-2	6.924189E-2	5.338358E-2	5.034273E-2	4.283322E-2	5.879752E-2	4.993262E-2	6.111175E-2	5.993937E-2	4.476664E-2	5.250047E-2	4.517812E-2	5.202989E-2	6.026568E-2	4.399155E-2	3.825107E-2	5.574777E-2	5.119647E-2	4.914407E-2	5.737156E-2	5.170242E-2	6.201708E-2	5.309238E-2	6.132487E-2	4.382306E-2	4.550884E-2	4.708856E-2	5.419223E-2	5.484806E-2	6.379359E-2	5.571673E-2	5.475886E-2	4.973744E-2	4.884440E-2	4.151690E-2	5.680830E-2	6.119162E-2	5.132387E-2	5.110908E-2	5.318433E-2	6.274312E-2	5.832481E-2	5.493565E-2	4.603068E-2	6.149020E-2	5.529801E-2	4.862547E-2	4.944643E-2	5.982164E-2	3.951311E-2	4.307582E-2	5.350425E-2	5.411891E-2	4.624586E-2	4.283261E-2	3.999788E-2	4.775691E-2	5.707846E-2	5.424911E-2	3.319775E-2	6.192394E-2	6.727031E-2	6.114958E-2	4.432222E-2	5.578225E-2	5.511633E-2	4.743914E-2	4.844916E-2	4.945344E-2	6.152214E-2	5.084379E-2	4.266233E-2	5.746554E-2	6.205662E-2	6.669062E-2	5.341464E-2	4.945922E-2	6.640667E-2	4.845700E-2	6.211813E-2	4.803123E-2	4.954917E-2	5.167400E-2	4.822211E-2	5.279593E-2	5.812068E-2	5.137538E-2	6.258530E-2	5.719075E-2	4.578983E-2	6.151514E-2	4.734293E-2	5.387404E-2	6.210497E-2	4.418477E-2	6.817579E-2	3.877405E-2	4.979210E-2	5.301114E-2	5.205249E-2	6.771576E-2	5.739617E-2	6.283607E-2	4.876740E-2	5.309740E-2	5.630931E-2	5.001688E-2	7.279393E-2	4.801391E-2	4.387087E-2	5.626836E-2	6.233212E-2	4.198495E-2	6.655292E-2
5.336130E+2	7.168044E-2	6.673424E-2	6.979847E-2	7.330757E-2	7.253827E-2	7.169850E-2	8.129579E-2	6.312488E-2	7.234581E-2	6.725555E-2	7.462664E-2	7.795041E-2	5.470077E-2	7.063978E-2	6.939304E-2	8.128277E-2	6.967634E-2	8.282382E-2	7.243415E-2	7.814106E-2	6.468644E-2	7.143953E-2	6.180779E-2	7.234447E-2	7.322757E-2	7.569028E-2	8.575069E-2	6.151473E-2	6.610095E-2	8.306518E-2	8.821484E-2	8.010667E-2	6.703118E-2	8.031957E-2	6.558760E-2	7.924162E-2	7.426053E-2	7.110137E-2	6.714991E-2	6.669361E-2	8.466552E-2	8.279244E-2	6.765045E-2	8.715396E-2	7.423805E-2	8.004389E-2	6.302818E-2	7.468587E-2	7.272031E-2	6.951178E-2	7.247296E-2	7.142128E-2	8.164760E-2	8.209276E-2	7.609446E-2	8.218572E-2	5.488729E-2	9.231440E-2	7.008100E-2	7.143877E-2	7.688579E-2	7.658939E-2	6.429321E-2	9.004746E-2	7.350197E-2	7.269228E-2	7.528745E-2	7.249601E-2	9.451774E-2	7.086761E-2	6.665489E-2	6.162994E-2	8.304580E-2	7.960979E-2	6.161022E-2	7.758485E-2	7.341080E-2	7.795107E-2	7.891463E-2	7.790890E-2	7.056596E-2	8.027574E-2	7.493718E-2	7.243463E-2	7.015004E-2	8.884626E-2	7.077639E-2	7.547190E-2	7.465887E-2	6.772900E-2	7.851027E-2	6.492009E-2	7.598438E-2	8.636470E-2	6.589425E-2	6.947679E-2	6.403349E-2	7.129273E-2	8.672290E-2	7.039203E-2	7.782082E-2	7.307886E-2	8.327811E-2	7.023971E-2	8.269205E-2	6.825260E-2	9.282969E-2	7.735778E-2	6.946955E-2	8.096995E-2	7.260807E-2	7.508926E-2	8.664430E-2	9.445623E-2	6.303486E-2	6.315505E-2	8.621055E-2	7.479682E-2	8.044384E-2	7.598116E-2	7.994076E-2	7.484211E-2	8.106631E-2	7.523277E-2	8.406258E-2	7.191410E-2	6.881579E-2	7.647601E-2	8.598560E-2	6.684942E-2	5.321991E-2	7.815120E-2	8.803971E-2	6.377234E-2	6.726447E-2	7.274060E-2	6.398186E-2	8.006314E-2	8.183031E-2	8.454633E-2	8.153327E-2	6.826791E-2	9.809488E-2	8.455392E-2	6.760745E-2	8.566794E-2	7.752138E-2	6.493364E-2	7.286838E-2	9.169198E-2	8.275007E-2	8.256918E-2	6.652689E-2	7.912992E-2	7.147457E-2	6.735414E-2	7.953068E-2	7.467747E-2	8.189686E-2	8.323777E-2	8.685506E-2	9.016378E-2	7.535102E-2	6.714827E-2	7.314291E-2	7.723243E-2	9.372562E-2	5.509260E-2	6.943828E-2	8.219349E-2
5.337580E+2	1.137721E-1	1.026930E-1	1.179168E-1	1.000792E-1	9.423432E-2	1.135985E-1	1.080632E-1	1.018366E-1	9.178725E-2	1.132672E-1	8.759430E-2	1.077317E-1	9.850937E-2	1.124117E-1	9.079591E-2	1.157062E-1	1.013058E-1	1.117125E-1	1.156870E-1	1.013522E-1	9.857288E-2	1.171274E-1	1.080749E-1	1.084900E-1	1.320863E-1	1.052142E-1	1.109243E-1	1.074908E-1	1.148525E-1	1.146175E-1	1.014472E-1	1.018898E-1	1.197352E-1	1.090112E-1	1.129846E-1	1.270212E-1	1.088019E-1	1.201700E-1	1.148675E-1	9.226551E-2	1.091717E-1	1.159070E-1	1.125130E-1	1.151833E-1	1.189269E-1	1.068625E-1	1.140169E-1	9.988200E-2	1.022908E-1	1.211632E-1	1.134120E-1	8.054075E-2	1.141770E-1	1.162224E-1	1.215663E-1	1.076346E-1	1.038223E-1	8.519479E-2	1.254909E-1	9.491708E-2	1.084932E-1	1.140353E-1	1.008843E-1	1.200249E-1	1.196026E-1	1.017447E-1	1.118812E-1	1.184788E-1	1.072501E-1	1.140917E-1	1.107417E-1	1.096464E-1	9.847065E-2	1.008577E-1	9.908512E-2	1.214306E-1	1.084819E-1	1.179081E-1	1.104870E-1	1.150010E-1	9.767785E-2	1.016977E-1	1.074598E-1	9.874420E-2	1.013307E-1	1.080644E-1	1.048082E-1	1.094413E-1	9.344080E-2	9.569937E-2	1.058548E-1	1.036300E-1	1.075558E-1	1.093566E-1	1.132901E-1	1.081905E-1	1.065631E-1	1.218813E-1	9.298034E-2	9.556923E-2	1.243956E-1	1.254613E-1	1.172030E-1	1.120665E-1	1.172641E-1	1.016032E-1	1.082031E-1	1.226843E-1	1.198856E-1	1.032047E-1	1.043187E-1	1.195033E-1	9.776095E-2	1.097785E-1	1.109459E-1	1.057152E-1	1.051313E-1	1.228460E-1	1.083740E-1	1.075395E-1	1.012842E-1	9.339379E-2	1.308212E-1	1.094473E-1	1.241516E-1	1.070646E-1	9.780362E-2	1.183599E-1	8.986776E-2	1.162942E-1	9.363506E-2	1.059322E-1	1.108795E-1	1.048797E-1	1.061561E-1	9.299491E-2	8.804389E-2	1.337179E-1	1.169709E-1	1.080159E-1	1.086158E-1	1.141596E-1	1.192851E-1	1.076962E-1	1.091132E-1	1.001804E-1	1.118268E-1	1.159775E-1	1.147542E-1	1.118951E-1	9.320053E-2	1.093349E-1	9.723135E-2	1.228772E-1	1.011878E-1	1.049799E-1	1.110048E-1	1.169763E-1	1.006144E-1	1.144357E-1	1.249967E-1	1.225776E-1	1.202053E-1	1.037436E-1	1.046620E-1	1.198324E-1	1.010901E-1	1.165131E-1	9.787830E-2	1.364089E-1
5.339090E+2	1.468385E-1	1.557816E-1	1.428351E-1	1.263623E-1	1.389434E-1	1.710946E-1	1.625375E-1	1.499774E-1	1.512650E-1	1.460231E-1	1.575327E-1	1.534888E-1	1.567701E-1	1.538368E-1	1.569949E-1	1.463619E-1	1.664731E-1	1.661661E-1	1.739866E-1	1.515082E-1	1.535432E-1	1.536143E-1	1.369414E-1	1.621021E-1	1.654956E-1	1.852878E-1	1.511784E-1	1.465874E-1	1.413659E-1	1.584404E-1	1.504564E-1	1.860405E-1	1.505255E-1	1.624494E-1	1.584924E-1	1.683021E-1	1.544926E-1	1.760793E-1	1.380199E-1	1.695836E-1	1.445498E-1	1.631335E-1	1.654121E-1	1.672508E-1	1.609212E-1	1.587299E-1	1.603245E-1	1.656457E-1	1.529771E-1	1.862215E-1	1.468428E-1	1.573281E-1	1.591293E-1	1.801090E-1	1.546357E-1	1.458450E-1	1.529937E-1	1.724505E-1	1.617793E-1	1.575002E-1	1.556882E-1	1.645903E-1	1.644648E-1	1.624452E-1	1.622370E-1	1.587203E-1	1.574896E-1	1.647114E-1	1.578591E-1	1.440798E-1	1.315233E-1	1.550735E-1	1.454166E-1	1.581890E-1	1.863219E-1	1.527286E-1	1.702791E-1	1.415011E-1	1.355972E-1	1.644099E-1	1.480394E-1	1.828557E-1	1.364297E-1	1.537934E-1	1.487616E-1	1.453102E-1	1.645808E-1	1.803146E-1	1.668893E-1	1.628857E-1	1.651161E-1	1.395460E-1	1.722596E-1	1.731516E-1	1.728283E-1	1.454019E-1	1.420772E-1	1.476006E-1	1.646846E-1	1.535054E-1	1.617869E-1	1.581851E-1	1.525860E-1	1.703491E-1	1.384163E-1	1.468959E-1	1.496052E-1	1.664859E-1	1.881831E-1	1.767158E-1	1.486074E-1	1.413750E-1	1.667549E-1	1.677740E-1	1.665216E-1	1.431350E-1	1.551271E-1	1.738219E-1	1.830077E-1	1.640401E-1	1.560383E-1	1.352463E-1	1.607998E-1	1.733833E-1	1.537295E-1	1.617601E-1	1.577208E-1	1.583706E-1	1.456611E-1	1.580660E-1	1.545796E-1	1.419735E-1	1.576214E-1	1.592699E-1	1.661341E-1	1.656196E-1	1.511248E-1	1.719585E-1	1.747137E-1	1.615757E-1	1.469420E-1	1.874653E-1	1.737737E-1	1.586271E-1	1.646322E-1	1.570004E-1	1.615577E-1	1.683848E-1	1.752306E-1	1.724529E-1	1.502739E-1	1.658316E-1	1.733629E-1	1.745049E-1	1.833183E-1	1.515014E-1	1.525418E-1	1.688424E-1	1.666106E-1	1.574266E-1	1.530955E-1	1.774848E-1	1.432919E-1	1.508965E-1	1.642401E-1	1.646631E-1	1.493110E-1	1.596555E-1	1.481762E-1	1.241385E-1
5.340800E+2	2.796675E-1	2.529241E-1	2.363282E-1	2.395836E-1	2.783018E-1	2.351406E-1	2.548648E-1	2.652699E-1	2.681362E-1	2.465418E-1	2.692965E-1	2.724301E-1	2.514779E-1	2.563712E-1	2.466683E-1	2.325320E-1	2.614439E-1	2.586225E-1	2.602797E-1	2.679691E-1	2.685245E-1	2.690241E-1	2.413095E-1	2.552703E-1	3.033171E-1	3.037604E-1	2.726562E-1	2.640895E-1	2.911131E-1	2.715610E-1	2.780676E-1	2.801397E-1	2.693010E-1	2.836360E-1	2.710350E-1	2.668270E-1	2.811641E-1	2.890532E-1	2.856841E-1	2.718353E-1	2.825335E-1	2.934532E-1	2.634103E-1	2.820334E-1	2.663252E-1	2.719838E-1	2.741889E-1	2.533735E-1	2.520147E-1	2.824564E-1	2.505631E-1	2.561644E-1	2.681480E-1	2.695834E-1	2.560421E-1	2.667198E-1	2.540778E-1	2.647618E-1	2.702728E-1	2.612571E-1	2.697270E-1	2.828846E-1	2.558456E-1	2.657055E-1	2.840447E-1	2.602456E-1	2.398838E-1	2.721568E-1	2.696060E-1	2.633867E-1	2.841084E-1	2.649948E-1	2.887345E-1	2.907652E-1	2.561952E-1	2.919179E-1	2.804761E-1	2.385942E-1	2.690451E-1	2.736349E-1	2.886735E-1	2.648167E-1	2.563080E-1	2.673230E-1	2.810080E-1	2.557207E-1	2.664159E-1	2.526672E-1	2.580924E-1	2.628450E-1	2.240638E-1	2.782382E-1	2.682431E-1	2.596611E-1	2.861068E-1	2.714796E-1	2.656923E-1	2.800619E-1	2.668867E-1	2.545519E-1	2.531319E-1	2.878511E-1	2.658517E-1	2.624921E-1	2.805249E-1	2.725528E-1	2.781756E-1	2.741701E-1	2.810351E-1	3.022976E-1	2.586474E-1	2.612017E-1	2.917922E-1	2.664359E-1	2.682826E-1	2.694764E-1	2.661706E-1	2.826102E-1	2.572975E-1	2.774370E-1	2.357733E-1	2.695247E-1	2.575472E-1	2.703491E-1	2.751323E-1	2.598710E-1	2.625490E-1	2.841269E-1	2.818259E-1	2.837527E-1	2.607659E-1	2.808408E-1	2.704353E-1	2.503871E-1	2.649146E-1	2.787253E-1	2.417947E-1	2.528759E-1	2.746838E-1	2.644505E-1	2.532877E-1	2.835771E-1	2.961692E-1	2.631004E-1	2.689397E-1	2.451097E-1	2.693614E-1	2.773052E-1	2.661405E-1	2.707062E-1	2.440722E-1	2.606189E-1	2.543577E-1	2.755714E-1	2.568445E-1	2.622464E-1	2.708679E-1	2.603693E-1	2.660583E-1	2.858191E-1	2.569686E-1	2.704127E-1	2.978167E-1	2.618202E-1	2.823935E-1	2.730579E-1	2.917312E-1	2.650585E-1	2.594860E-1	2.836723E-1
5.342040E+2	4.344689E-1	4.357857E-1	4.392490E-1	4.410383E-1	4.324260E-1	4.648051E-1	4.408163E-1	4.136491E-1	4.304043E-1	4.396337E-1	4.414796E-1	4.719833E-1	4.549387E-1	4.319246E-1	4.179555E-1	4.363369E-1	4.396077E-1	4.566125E-1	4.752083E-1	4.263137E-1	4.381079E-1	4.582092E-1	4.592016E-1	4.582279E-1	4.905850E-1	4.752090E-1	4.486198E-1	4.665611E-1	4.878031E-1	4.965722E-1	4.718805E-1	4.715465E-1	4.927940E-1	4.665512E-1	4.917929E-1	4.594820E-1	4.980979E-1	4.597561E-1	4.632540E-1	4.639770E-1	4.562872E-1	4.710606E-1	4.618112E-1	4.688239E-1	5.255509E-1	4.802273E-1	4.759632E-1	4.605339E-1	4.701988E-1	4.644744E-1	4.500073E-1	4.713370E-1	4.613552E-1	4.608440E-1	4.273507E-1	4.540726E-1	4.398754E-1	5.226585E-1	4.640052E-1	4.631357E-1	4.649966E-1	4.873666E-1	4.437948E-1	4.719835E-1	4.276760E-1	4.509917E-1	4.435223E-1	4.422529E-1	4.483836E-1	4.779961E-1	4.674544E-1	4.603056E-1	4.806949E-1	4.574682E-1	4.484565E-1	4.872474E-1	4.299298E-1	4.608515E-1	4.629006E-1	4.847262E-1	4.676864E-1	4.786951E-1	4.522878E-1	4.994113E-1	4.866598E-1	4.741577E-1	4.952613E-1	4.611914E-1	4.739993E-1	4.387218E-1	4.760582E-1	4.616858E-1	4.725656E-1	4.723950E-1	4.686981E-1	4.644061E-1	4.359158E-1	4.455604E-1	4.369664E-1	4.684481E-1	4.516113E-1	4.831996E-1	4.653382E-1	4.670304E-1	4.499155E-1	4.712934E-1	4.274075E-1	4.579311E-1	4.726664E-1	4.724849E-1	4.557293E-1	4.765795E-1	5.181303E-1	4.547915E-1	4.438531E-1	4.590002E-1	4.661380E-1	4.515661E-1	4.269779E-1	4.382564E-1	4.322527E-1	4.412326E-1	4.652597E-1	4.650038E-1	4.582613E-1	4.804312E-1	4.315925E-1	4.496518E-1	4.511916E-1	4.534618E-1	4.464093E-1	4.694496E-1	4.585258E-1	4.586437E-1	4.538561E-1	4.648671E-1	4.562767E-1	4.478362E-1	4.410248E-1	4.692968E-1	4.747004E-1	4.575721E-1	4.625606E-1	4.413341E-1	4.584760E-1	4.480606E-1	4.511798E-1	4.663876E-1	4.811554E-1	4.860450E-1	4.510344E-1	4.493398E-1	4.569771E-1	4.797586E-1	4.602908E-1	4.568718E-1	4.470518E-1	4.790701E-1	4.805163E-1	4.576905E-1	4.590458E-1	4.734875E-1	4.428693E-1	4.922269E-1	5.000457E-1	4.853270E-1	4.648473E-1	4.464143E-1	4.551843E-1	4.673042E-1
5.343650E+2	7.489502E-1	7.929293E-1	7.819880E-1	7.775874E-1	7.677624E-1	7.665279E-1	7.874987E-1	7.766825E-1	7.602539E-1	7.976694E-1	7.575433E-1	7.720427E-1	8.039043E-1	8.139246E-1	7.946035E-1	7.862453E-1	7.628830E-1	7.662583E-1	7.892629E-1	7.759810E-1	7.665322E-1	7.781397E-1	7.697069E-1	7.776615E-1	8.523877E-1	8.305682E-1	8.144788E-1	7.888146E-1	8.376495E-1	8.347786E-1	7.782676E-1	8.170268E-1	8.183038E-1	8.219764E-1	7.783180E-1	8.284065E-1	8.028795E-1	8.063935E-1	7.896876E-1	8.440753E-1	7.770998E-1	7.959840E-1	7.799404E-1	7.960631E-1	8.414745E-1	8.121521E-1	7.699298E-1	7.384103E-1	7.813532E-1	8.094872E-1	7.639090E-1	7.865768E-1	8.230904E-1	8.410102E-1	7.774851E-1	8.279196E-1	7.689619E-1	8.477815E-1	7.469623E-1	7.803770E-1	8.095126E-1	8.303220E-1	8.072807E-1	8.294940E-1	7.549267E-1	7.521022E-1	7.469102E-1	8.427672E-1	8.011781E-1	8.281340E-1	7.883721E-1	7.661022E-1	7.531349E-1	7.991617E-1	8.241976E-1	8.111744E-1	8.137967E-1	7.648524E-1	7.864240E-1	8.054404E-1	8.159134E-1	7.888159E-1	8.131523E-1	7.851756E-1	7.999139E-1	7.936783E-1	8.258651E-1	8.170330E-1	8.193649E-1	8.201224E-1	7.956474E-1	7.783114E-1	8.056943E-1	7.910709E-1	7.757594E-1	7.870267E-1	7.861866E-1	7.806629E-1	8.225653E-1	7.839714E-1	8.238870E-1	7.919626E-1	7.904713E-1	7.740955E-1	8.141597E-1	8.005765E-1	7.957533E-1	8.129066E-1	7.752020E-1	8.238714E-1	7.778649E-1	7.775675E-1	8.048383E-1	8.046056E-1	7.893686E-1	7.957227E-1	7.575345E-1	7.706787E-1	7.550566E-1	7.790960E-1	7.707411E-1	8.309899E-1	8.142762E-1	7.291912E-1	8.009231E-1	7.481000E-1	7.873309E-1	7.569485E-1	8.125868E-1	8.218153E-1	7.533767E-1	7.410481E-1	8.065570E-1	8.046909E-1	7.944612E-1	7.835844E-1	7.492283E-1	7.479750E-1	7.768143E-1	7.898679E-1	7.667830E-1	7.910201E-1	7.985677E-1	7.867511E-1	7.770926E-1	7.415115E-1	7.689337E-1	7.981787E-1	7.950920E-1	8.241363E-1	7.781709E-1	7.827350E-1	8.040923E-1	7.794034E-1	7.718677E-1	7.590478E-1	7.881639E-1	7.957003E-1	8.333111E-1	7.787575E-1	7.806753E-1	7.636796E-1	8.000763E-1	7.810113E-1	8.357756E-1	7.858608E-1	7.638338E-1	8.015533E-1	7.340616E-1	8.450375E-1
5.345160E+2	1.242417E+0	1.268391E+0	1.241454E+0	1.238321E+0	1.231100E+0	1.252751E+0	1.226101E+0	1.290396E+0	1.243801E+0	1.229705E+0	1.213880E+0	1.198799E+0	1.182571E+0	1.238389E+0	1.250084E+0	1.235712E+0	1.205471E+0	1.214620E+0	1.263196E+0	1.259355E+0	1.228199E+0	1.276179E+0	1.258017E+0	1.218004E+0	1.329117E+0	1.295145E+0	1.310128E+0	1.288466E+0	1.288903E+0	1.303630E+0	1.261941E+0	1.255941E+0	1.267774E+0	1.263310E+0	1.267421E+0	1.293604E+0	1.290269E+0	1.302837E+0	1.254277E+0	1.239545E+0	1.183103E+0	1.242175E+0	1.255715E+0	1.269141E+0	1.262145E+0	1.296319E+0	1.292162E+0	1.235814E+0	1.267273E+0	1.303001E+0	1.253060E+0	1.250935E+0	1.269101E+0	1.249249E+0	1.231703E+0	1.251678E+0	1.252793E+0	1.339538E+0	1.217779E+0	1.253606E+0	1.262337E+0	1.247574E+0	1.291397E+0	1.226255E+0	1.274366E+0	1.256146E+0	1.250867E+0	1.267475E+0	1.328245E+0	1.279998E+0	1.288479E+0	1.271967E+0	1.238993E+0	1.284488E+0	1.252497E+0	1.231127E+0	1.265326E+0	1.272474E+0	1.277104E+0	1.258261E+0	1.259388E+0	1.272542E+0	1.260821E+0	1.308777E+0	1.208295E+0	1.275913E+0	1.274991E+0	1.256506E+0	1.266805E+0	1.209387E+0	1.231654E+0	1.260235E+0	1.257278E+0	1.259362E+0	1.237313E+0	1.259731E+0	1.211177E+0	1.302178E+0	1.270403E+0	1.255302E+0	1.236249E+0	1.301593E+0	1.217448E+0	1.196898E+0	1.196146E+0	1.293362E+0	1.207906E+0	1.261065E+0	1.230727E+0	1.269649E+0	1.236645E+0	1.224023E+0	1.307114E+0	1.271568E+0	1.214704E+0	1.214012E+0	1.230496E+0	1.241458E+0	1.267993E+0	1.211855E+0	1.216274E+0	1.258807E+0	1.232610E+0	1.211305E+0	1.219135E+0	1.293123E+0	1.276023E+0	1.262061E+0	1.264576E+0	1.267806E+0	1.231900E+0	1.241591E+0	1.275535E+0	1.253251E+0	1.283734E+0	1.307336E+0	1.226596E+0	1.245550E+0	1.233029E+0	1.198920E+0	1.203793E+0	1.197628E+0	1.248986E+0	1.250566E+0	1.191700E+0	1.190340E+0	1.183852E+0	1.199876E+0	1.233034E+0	1.261278E+0	1.219496E+0	1.292377E+0	1.242772E+0	1.243532E+0	1.241211E+0	1.211124E+0	1.224069E+0	1.250743E+0	1.237540E+0	1.263210E+0	1.221133E+0	1.176410E+0	1.188596E+0	1.251322E+0	1.268376E+0	1.245495E+0	1.197613E+0	1.205090E+0	1.227188E+0	1.185410E+0
5.346620E+2	1.725329E+0	1.638892E+0	1.659325E+0	1.614081E+0	1.635664E+0	1.643265E+0	1.680752E+0	1.694547E+0	1.669624E+0	1.657278E+0	1.706300E+0	1.613265E+0	1.643812E+0	1.667833E+0	1.657629E+0	1.673473E+0	1.639232E+0	1.639751E+0	1.672555E+0	1.657755E+0	1.685919E+0	1.600463E+0	1.649055E+0	1.691007E+0	1.733603E+0	1.667611E+0	1.643610E+0	1.607943E+0	1.668667E+0	1.682833E+0	1.677970E+0	1.654799E+0	1.678372E+0	1.658794E+0	1.612101E+0	1.610855E+0	1.710139E+0	1.650428E+0	1.648801E+0	1.689486E+0	1.669757E+0	1.627339E+0	1.612121E+0	1.706196E+0	1.632164E+0	1.701107E+0	1.664382E+0	1.663873E+0	1.700360E+0	1.645727E+0	1.726987E+0	1.655514E+0	1.662763E+0	1.687898E+0	1.633133E+0	1.624181E+0	1.650168E+0	1.656063E+0	1.639886E+0	1.733369E+0	1.681561E+0	1.675524E+0	1.712064E+0	1.727477E+0	1.622178E+0	1.636338E+0	1.600124E+0	1.673576E+0	1.641347E+0	1.648244E+0	1.655679E+0	1.620023E+0	1.593831E+0	1.653586E+0	1.628308E+0	1.674573E+0	1.646484E+0	1.663074E+0	1.661751E+0	1.687719E+0	1.573924E+0	1.636554E+0	1.597190E+0	1.638130E+0	1.611486E+0	1.686088E+0	1.690756E+0	1.608947E+0	1.635079E+0	1.586147E+0	1.627051E+0	1.643975E+0	1.623649E+0	1.658972E+0	1.644413E+0	1.641204E+0	1.638518E+0	1.663283E+0	1.657753E+0	1.594964E+0	1.637267E+0	1.695289E+0	1.610602E+0	1.662465E+0	1.610799E+0	1.613151E+0	1.658279E+0	1.688421E+0	1.643121E+0	1.626053E+0	1.661771E+0	1.638761E+0	1.648122E+0	1.612046E+0	1.614976E+0	1.678326E+0	1.621718E+0	1.674672E+0	1.573781E+0	1.616584E+0	1.595931E+0	1.667282E+0	1.597966E+0	1.580369E+0	1.640723E+0	1.579037E+0	1.658221E+0	1.636348E+0	1.658431E+0	1.658807E+0	1.668777E+0	1.616319E+0	1.636071E+0	1.707297E+0	1.650196E+0	1.657627E+0	1.663638E+0	1.626614E+0	1.609908E+0	1.707762E+0	1.584240E+0	1.627733E+0	1.642971E+0	1.660205E+0	1.677808E+0	1.614826E+0	1.620417E+0	1.588357E+0	1.639704E+0	1.657289E+0	1.599315E+0	1.625374E+0	1.576631E+0	1.666423E+0	1.563632E+0	1.612603E+0	1.601805E+0	1.609128E+0	1.626295E+0	1.623495E+0	1.628958E+0	1.630506E+0	1.623421E+0	1.553374E+0	1.699869E+0	1.645823E+0	1.631102E+0	1.572213E+0	1.498900E+0	1.562667E+0
5.348120E+2	1.839371E+0	1.895671E+0	1.830845E+0	1.874296E+0	1.783929E+0	1.900841E+0	1.891016E+0	1.867554E+0	1.879454E+0	1.890391E+0	1.882499E+0	1.897521E+0	1.833892E+0	1.844499E+0	1.884440E+0	1.854807E+0	1.828016E+0	1.815520E+0	1.907063E+0	1.814126E+0	1.897769E+0	1.847039E+0	1.898944E+0	1.887949E+0	1.873778E+0	1.888318E+0	1.935044E+0	1.824788E+0	1.867438E+0	1.900583E+0	1.826643E+0	1.886563E+0	1.884383E+0	1.867087E+0	1.870319E+0	1.909088E+0	1.956875E+0	1.854243E+0	1.800370E+0	1.864014E+0	1.894280E+0	1.858457E+0	1.871702E+0	1.847888E+0	1.905207E+0	1.856969E+0	1.869812E+0	1.866301E+0	1.862241E+0	1.885266E+0	1.841171E+0	1.848310E+0	1.904844E+0	1.803747E+0	1.826372E+0	1.886118E+0	1.805322E+0	1.874292E+0	1.829421E+0	1.898621E+0	1.896663E+0	1.844747E+0	1.867582E+0	1.914866E+0	1.841188E+0	1.920957E+0	1.912648E+0	1.892925E+0	1.905979E+0	1.916941E+0	1.929952E+0	1.862375E+0	1.870605E+0	1.846684E+0	1.850376E+0	1.891304E+0	1.795363E+0	1.835373E+0	1.872317E+0	1.906797E+0	1.794844E+0	1.775376E+0	1.837027E+0	1.876865E+0	1.832797E+0	1.835240E+0	1.946519E+0	1.827386E+0	1.827063E+0	1.782278E+0	1.823244E+0	1.875392E+0	1.804786E+0	1.838583E+0	1.844875E+0	1.854015E+0	1.831347E+0	1.817315E+0	1.816811E+0	1.827127E+0	1.802927E+0	1.904339E+0	1.823976E+0	1.869525E+0	1.808611E+0	1.831285E+0	1.830624E+0	1.923462E+0	1.792264E+0	1.880420E+0	1.821827E+0	1.807847E+0	1.874134E+0	1.854641E+0	1.802137E+0	1.821225E+0	1.846387E+0	1.842396E+0	1.861077E+0	1.813561E+0	1.776667E+0	1.842647E+0	1.778263E+0	1.746371E+0	1.840473E+0	1.833919E+0	1.823203E+0	1.810478E+0	1.869114E+0	1.794129E+0	1.766225E+0	1.768259E+0	1.841418E+0	1.831671E+0	1.824220E+0	1.884233E+0	1.778022E+0	1.858552E+0	1.781820E+0	1.876951E+0	1.833687E+0	1.820095E+0	1.811618E+0	1.835966E+0	1.835509E+0	1.836651E+0	1.856104E+0	1.808961E+0	1.814730E+0	1.841315E+0	1.803011E+0	1.858556E+0	1.750438E+0	1.885355E+0	1.802401E+0	1.783850E+0	1.806787E+0	1.851865E+0	1.818217E+0	1.827249E+0	1.789951E+0	1.770480E+0	1.843521E+0	1.824193E+0	1.854895E+0	1.848606E+0	1.784876E+0	1.728973E+0	1.737539E+0	1.712558E+0
5.349630E+2	2.083159E+0	2.023508E+0	2.013215E+0	2.052843E+0	2.070785E+0	2.122030E+0	2.102712E+0	2.074842E+0	1.985658E+0	2.092537E+0	2.053239E+0	2.028026E+0	2.008264E+0	2.055906E+0	2.084339E+0	1.983823E+0	2.029755E+0	1.946458E+0	2.038466E+0	2.010550E+0	2.075813E+0	2.067525E+0	2.071370E+0	2.048211E+0	2.042482E+0	2.035034E+0	2.089116E+0	2.014757E+0	2.012293E+0	2.093141E+0	2.008525E+0	2.063364E+0	1.971218E+0	2.045472E+0	2.019464E+0	2.046977E+0	2.086852E+0	2.036527E+0	2.042443E+0	2.050609E+0	1.976253E+0	1.995347E+0	2.062400E+0	2.015556E+0	2.091181E+0	2.019952E+0	2.043091E+0	2.010537E+0	2.059096E+0	2.069352E+0	1.967806E+0	2.012619E+0	2.110029E+0	2.104200E+0	2.065686E+0	2.066982E+0	1.959403E+0	2.075888E+0	2.013510E+0	2.084085E+0	1.971565E+0	1.988011E+0	2.062158E+0	2.034940E+0	2.030137E+0	2.002823E+0	2.007265E+0	2.019123E+0	2.068517E+0	2.044293E+0	2.041316E+0	1.967309E+0	1.957451E+0	2.057139E+0	2.062018E+0	2.028296E+0	1.990747E+0	2.059346E+0	2.065016E+0	2.043677E+0	2.008441E+0	2.012565E+0	2.022842E+0	2.056048E+0	2.006360E+0	2.000177E+0	2.050804E+0	1.969245E+0	2.006151E+0	1.865993E+0	1.990065E+0	2.019657E+0	1.980093E+0	2.009822E+0	2.074118E+0	2.027577E+0	1.953963E+0	2.014916E+0	2.088437E+0	2.038722E+0	1.995391E+0	2.051400E+0	2.022099E+0	1.999749E+0	2.043754E+0	2.005033E+0	1.966967E+0	1.990058E+0	1.999429E+0	2.002031E+0	2.060274E+0	1.974982E+0	2.027858E+0	2.009158E+0	2.023334E+0	2.068066E+0	1.970099E+0	2.067796E+0	2.022148E+0	1.929429E+0	1.958598E+0	2.025311E+0	2.006974E+0	1.906669E+0	2.014560E+0	2.013098E+0	1.995961E+0	1.968793E+0	1.979184E+0	1.996970E+0	1.953111E+0	1.998399E+0	2.070762E+0	1.990735E+0	1.989093E+0	2.022884E+0	1.885069E+0	2.026808E+0	1.988193E+0	1.976883E+0	1.941954E+0	1.998259E+0	2.007211E+0	1.975614E+0	2.050588E+0	1.948074E+0	1.975787E+0	1.945086E+0	1.955924E+0	1.985671E+0	1.935573E+0	1.958735E+0	1.966909E+0	2.056402E+0	1.959721E+0	1.972639E+0	1.913758E+0	1.989516E+0	1.991547E+0	2.007199E+0	2.023142E+0	1.910929E+0	1.930409E+0	1.978229E+0	2.013350E+0	1.996513E+0	2.011067E+0	1.954268E+0	1.903789E+0	1.969042E+0
5.351140E+2	2.006167E+0	2.009798E+0	2.039956E+0	2.009607E+0	1.993130E+0	2.082234E+0	1.993125E+0	1.991115E+0	1.919433E+0	2.024581E+0	1.968738E+0	2.037314E+0	2.013116E+0	2.078611E+0	1.997079E+0	1.999997E+0	1.957645E+0	1.983415E+0	2.053923E+0	2.006353E+0	1.993810E+0	2.023397E+0	2.007038E+0	2.003270E+0	1.970671E+0	1.964970E+0	1.965210E+0	2.013725E+0	2.034489E+0	1.982439E+0	2.006338E+0	1.971802E+0	1.980589E+0	1.989892E+0	1.982242E+0	1.970649E+0	2.102473E+0	2.002061E+0	1.970724E+0	2.003262E+0	2.038500E+0	1.972980E+0	2.018562E+0	1.994074E+0	2.044580E+0	1.968649E+0	1.993154E+0	1.956735E+0	2.022203E+0	2.008235E+0	2.003833E+0	1.952863E+0	2.030961E+0	2.011291E+0	1.933944E+0	1.878366E+0	1.930019E+0	2.028554E+0	2.005859E+0	1.991539E+0	1.989025E+0	1.923081E+0	2.031216E+0	1.973833E+0	1.943075E+0	1.973352E+0	1.947882E+0	2.033592E+0	2.003492E+0	2.008448E+0	1.969114E+0	1.990540E+0	1.961885E+0	2.013417E+0	1.985950E+0	2.037893E+0	1.947332E+0	1.997414E+0	2.042479E+0	2.040645E+0	1.945971E+0	1.970833E+0	1.966427E+0	2.019789E+0	1.999769E+0	1.971156E+0	2.115448E+0	1.982583E+0	1.993052E+0	1.982585E+0	1.987370E+0	1.945374E+0	2.043425E+0	1.959025E+0	1.916930E+0	1.970193E+0	1.971377E+0	2.040122E+0	2.064412E+0	2.037268E+0	1.932943E+0	2.062533E+0	1.962949E+0	2.028514E+0	1.979103E+0	1.913337E+0	1.971929E+0	1.975905E+0	1.918755E+0	2.045314E+0	1.971483E+0	1.957691E+0	1.966612E+0	1.977706E+0	1.924850E+0	1.926783E+0	2.060507E+0	1.954015E+0	1.936487E+0	1.885184E+0	1.915208E+0	1.959013E+0	1.928136E+0	1.938669E+0	1.927644E+0	1.913539E+0	1.899114E+0	1.942252E+0	1.931048E+0	1.971125E+0	1.937159E+0	1.952024E+0	1.972611E+0	1.920320E+0	1.996672E+0	2.082019E+0	1.895275E+0	1.969856E+0	1.962056E+0	1.998869E+0	1.957337E+0	1.851802E+0	1.980871E+0	2.002488E+0	1.935686E+0	1.864946E+0	1.975632E+0	2.044819E+0	1.987428E+0	1.972878E+0	1.937377E+0	1.924850E+0	1.902253E+0	1.945873E+0	1.962957E+0	1.948426E+0	1.942498E+0	1.916970E+0	2.005614E+0	1.963486E+0	1.962780E+0	1.930533E+0	1.959273E+0	1.926001E+0	2.003376E+0	1.966246E+0	1.952266E+0	1.855924E+0	1.877068E+0	1.866373E+0
5.352600E+2	1.893979E+0	1.891948E+0	1.804264E+0	1.810980E+0	1.859948E+0	1.809745E+0	1.829946E+0	1.837503E+0	1.769139E+0	1.876209E+0	1.867796E+0	1.819537E+0	1.785270E+0	1.777502E+0	1.851368E+0	1.795912E+0	1.796875E+0	1.777849E+0	1.814010E+0	1.767743E+0	1.834489E+0	1.834415E+0	1.860749E+0	1.818615E+0	1.778052E+0	1.821660E+0	1.820617E+0	1.773374E+0	1.855185E+0	1.857814E+0	1.744495E+0	1.825833E+0	1.763134E+0	1.744643E+0	1.805178E+0	1.816671E+0	1.866319E+0	1.729706E+0	1.734335E+0	1.794543E+0	1.768857E+0	1.811863E+0	1.798745E+0	1.813651E+0	1.778967E+0	1.795432E+0	1.781437E+0	1.767742E+0	1.882866E+0	1.859885E+0	1.781576E+0	1.863382E+0	1.827353E+0	1.902094E+0	1.795117E+0	1.842421E+0	1.690770E+0	1.850092E+0	1.794754E+0	1.763189E+0	1.809139E+0	1.836717E+0	1.837333E+0	1.822913E+0	1.794311E+0	1.742847E+0	1.810609E+0	1.828672E+0	1.872847E+0	1.762442E+0	1.870385E+0	1.768393E+0	1.788693E+0	1.805671E+0	1.845428E+0	1.824294E+0	1.782195E+0	1.810342E+0	1.808999E+0	1.790719E+0	1.768189E+0	1.768059E+0	1.770444E+0	1.815108E+0	1.772996E+0	1.751454E+0	1.840448E+0	1.833443E+0	1.793588E+0	1.755829E+0	1.803423E+0	1.792808E+0	1.786927E+0	1.778140E+0	1.796297E+0	1.819297E+0	1.762657E+0	1.778491E+0	1.815089E+0	1.792234E+0	1.767051E+0	1.797622E+0	1.738044E+0	1.775741E+0	1.739555E+0	1.769209E+0	1.842043E+0	1.819566E+0	1.765401E+0	1.779991E+0	1.795207E+0	1.774926E+0	1.801431E+0	1.785255E+0	1.771499E+0	1.774214E+0	1.774442E+0	1.796971E+0	1.804751E+0	1.729235E+0	1.752411E+0	1.786898E+0	1.773975E+0	1.752577E+0	1.798408E+0	1.771803E+0	1.749969E+0	1.732331E+0	1.780189E+0	1.736224E+0	1.768143E+0	1.841119E+0	1.784163E+0	1.824029E+0	1.815218E+0	1.853772E+0	1.788251E+0	1.762794E+0	1.831097E+0	1.823294E+0	1.776176E+0	1.789944E+0	1.838673E+0	1.788527E+0	1.775782E+0	1.712205E+0	1.762167E+0	1.771872E+0	1.723541E+0	1.731170E+0	1.746195E+0	1.794226E+0	1.768292E+0	1.761100E+0	1.778903E+0	1.746390E+0	1.733540E+0	1.782994E+0	1.804525E+0	1.806842E+0	1.803806E+0	1.714714E+0	1.809196E+0	1.776388E+0	1.848018E+0	1.759630E+0	1.767959E+0	1.715475E+0	1.707696E+0	1.689733E+0
5.354170E+2	1.611027E+0	1.583062E+0	1.610172E+0	1.584493E+0	1.560342E+0	1.688827E+0	1.593401E+0	1.624137E+0	1.518350E+0	1.637461E+0	1.606770E+0	1.622787E+0	1.587015E+0	1.623715E+0	1.641199E+0	1.602070E+0	1.472035E+0	1.573364E+0	1.631646E+0	1.638748E+0	1.582007E+0	1.603925E+0	1.553084E+0	1.583391E+0	1.563698E+0	1.515570E+0	1.559821E+0	1.577546E+0	1.586923E+0	1.557236E+0	1.542259E+0	1.574437E+0	1.570023E+0	1.619730E+0	1.581831E+0	1.584082E+0	1.571536E+0	1.572872E+0	1.557055E+0	1.539437E+0	1.584315E+0	1.524455E+0	1.619179E+0	1.552112E+0	1.596616E+0	1.627925E+0	1.618437E+0	1.582080E+0	1.609072E+0	1.564257E+0	1.581902E+0	1.574715E+0	1.607522E+0	1.596093E+0	1.580816E+0	1.537945E+0	1.596282E+0	1.621201E+0	1.573622E+0	1.587978E+0	1.579384E+0	1.626692E+0	1.558291E+0	1.568828E+0	1.602599E+0	1.612000E+0	1.541222E+0	1.599086E+0	1.602325E+0	1.613145E+0	1.600439E+0	1.564979E+0	1.584683E+0	1.616054E+0	1.536152E+0	1.571302E+0	1.573346E+0	1.541941E+0	1.630446E+0	1.658461E+0	1.543819E+0	1.496300E+0	1.600602E+0	1.603064E+0	1.612768E+0	1.563692E+0	1.572883E+0	1.609468E+0	1.598315E+0	1.477124E+0	1.566005E+0	1.530373E+0	1.583531E+0	1.555031E+0	1.550902E+0	1.666636E+0	1.603154E+0	1.558648E+0	1.593954E+0	1.586756E+0	1.589704E+0	1.577011E+0	1.523077E+0	1.554346E+0	1.539887E+0	1.546005E+0	1.632218E+0	1.551078E+0	1.595239E+0	1.572913E+0	1.573136E+0	1.565444E+0	1.629419E+0	1.580418E+0	1.538683E+0	1.605466E+0	1.586411E+0	1.578284E+0	1.575179E+0	1.561727E+0	1.495817E+0	1.572982E+0	1.601609E+0	1.547830E+0	1.591471E+0	1.563228E+0	1.498283E+0	1.567545E+0	1.583600E+0	1.537745E+0	1.538526E+0	1.500853E+0	1.556135E+0	1.595885E+0	1.574822E+0	1.556864E+0	1.585069E+0	1.561758E+0	1.586271E+0	1.575945E+0	1.556001E+0	1.554748E+0	1.572758E+0	1.548990E+0	1.572043E+0	1.568970E+0	1.532638E+0	1.561244E+0	1.560328E+0	1.537119E+0	1.555130E+0	1.537971E+0	1.600773E+0	1.608056E+0	1.555962E+0	1.587461E+0	1.543548E+0	1.517954E+0	1.579602E+0	1.587351E+0	1.579559E+0	1.506696E+0	1.553953E+0	1.498024E+0	1.566546E+0	1.537200E+0	1.577602E+0	1.528401E+0	1.493545E+0	1.463319E+0
5.355630E+2	1.457064E+0	1.375150E+0	1.438178E+0	1.401504E+0	1.336978E+0	1.414725E+0	1.332641E+0	1.380801E+0	1.312265E+0	1.385492E+0	1.412692E+0	1.348842E+0	1.346816E+0	1.367992E+0	1.352161E+0	1.343861E+0	1.366750E+0	1.345932E+0	1.402171E+0	1.348415E+0	1.435620E+0	1.331341E+0	1.358052E+0	1.360792E+0	1.392461E+0	1.305255E+0	1.373817E+0	1.308632E+0	1.341337E+0	1.350252E+0	1.324606E+0	1.324791E+0	1.367702E+0	1.349669E+0	1.325314E+0	1.328741E+0	1.366991E+0	1.343299E+0	1.315466E+0	1.344409E+0	1.332983E+0	1.399808E+0	1.340847E+0	1.344010E+0	1.376756E+0	1.313446E+0	1.350282E+0	1.306884E+0	1.399600E+0	1.322627E+0	1.394748E+0	1.345722E+0	1.353229E+0	1.384604E+0	1.337981E+0	1.361583E+0	1.355651E+0	1.380328E+0	1.322506E+0	1.351751E+0	1.337430E+0	1.308825E+0	1.399060E+0	1.353483E+0	1.338554E+0	1.380805E+0	1.316128E+0	1.345147E+0	1.388647E+0	1.399349E+0	1.337266E+0	1.317835E+0	1.314443E+0	1.332495E+0	1.377989E+0	1.337134E+0	1.322500E+0	1.364484E+0	1.345902E+0	1.358563E+0	1.314690E+0	1.319683E+0	1.357583E+0	1.340371E+0	1.355931E+0	1.289802E+0	1.294721E+0	1.323579E+0	1.337218E+0	1.344012E+0	1.318281E+0	1.362489E+0	1.339626E+0	1.360248E+0	1.378487E+0	1.375495E+0	1.438160E+0	1.352056E+0	1.358926E+0	1.402386E+0	1.297610E+0	1.360608E+0	1.328799E+0	1.349619E+0	1.352889E+0	1.345680E+0	1.294557E+0	1.334885E+0	1.305197E+0	1.394928E+0	1.320802E+0	1.310584E+0	1.359440E+0	1.386478E+0	1.309121E+0	1.351065E+0	1.262132E+0	1.410738E+0	1.273283E+0	1.382917E+0	1.327707E+0	1.374061E+0	1.321297E+0	1.313690E+0	1.306261E+0	1.335148E+0	1.269887E+0	1.397493E+0	1.379509E+0	1.314503E+0	1.285030E+0	1.322370E+0	1.338733E+0	1.332436E+0	1.354250E+0	1.372202E+0	1.310016E+0	1.369203E+0	1.356677E+0	1.431586E+0	1.292596E+0	1.305993E+0	1.321344E+0	1.353979E+0	1.286506E+0	1.296762E+0	1.341597E+0	1.352394E+0	1.346471E+0	1.293636E+0	1.315247E+0	1.332100E+0	1.220480E+0	1.290927E+0	1.318153E+0	1.258664E+0	1.337938E+0	1.314797E+0	1.385391E+0	1.381824E+0	1.332138E+0	1.338630E+0	1.345117E+0	1.332808E+0	1.375678E+0	1.290155E+0	1.390311E+0	1.364596E+0	1.259906E+0	1.375339E+0
5.357090E+2	1.107408E+0	1.109356E+0	1.104822E+0	1.160739E+0	1.079138E+0	1.078733E+0	1.123641E+0	1.095937E+0	1.074861E+0	1.160413E+0	1.139459E+0	1.109463E+0	1.102121E+0	1.111923E+0	1.138512E+0	1.143615E+0	1.109385E+0	1.085433E+0	1.141486E+0	1.143138E+0	1.098492E+0	1.116008E+0	1.081152E+0	1.115813E+0	1.092420E+0	1.107906E+0	1.106461E+0	1.118697E+0	1.139014E+0	1.155473E+0	1.122099E+0	1.117897E+0	1.108468E+0	1.087758E+0	1.127361E+0	1.100331E+0	1.133219E+0	1.093353E+0	1.124411E+0	1.099732E+0	1.106107E+0	1.091675E+0	1.096684E+0	1.059571E+0	1.123154E+0	1.061780E+0	1.144414E+0	1.077727E+0	1.115247E+0	1.128081E+0	1.145125E+0	1.044217E+0	1.088463E+0	1.100383E+0	1.116285E+0	1.151925E+0	1.119062E+0	1.157151E+0	1.075101E+0	1.094136E+0	1.101237E+0	1.124676E+0	1.135705E+0	1.139139E+0	1.090304E+0	1.123797E+0	1.148947E+0	1.107784E+0	1.123790E+0	1.117964E+0	1.134110E+0	1.106706E+0	1.104089E+0	1.141845E+0	1.140257E+0	1.091511E+0	1.110921E+0	1.083262E+0	1.099057E+0	1.077988E+0	1.127820E+0	1.090182E+0	1.128655E+0	1.134159E+0	1.121638E+0	1.081165E+0	1.083544E+0	1.129137E+0	1.126016E+0	1.074036E+0	1.101193E+0	1.119616E+0	1.097112E+0	1.102990E+0	1.104745E+0	1.122441E+0	1.095849E+0	1.106412E+0	1.080663E+0	1.110980E+0	1.068253E+0	1.087293E+0	1.106672E+0	1.086778E+0	1.120392E+0	1.061499E+0	1.186336E+0	1.079634E+0	1.101051E+0	1.124951E+0	1.074661E+0	1.076583E+0	1.092444E+0	1.142726E+0	1.140675E+0	1.101723E+0	1.093670E+0	1.090747E+0	1.165482E+0	1.111974E+0	1.069672E+0	1.073029E+0	1.079098E+0	1.078779E+0	1.069545E+0	1.123329E+0	1.074597E+0	1.121554E+0	1.133238E+0	1.105673E+0	1.147319E+0	1.100722E+0	1.142039E+0	1.086985E+0	1.107012E+0	1.094651E+0	1.085474E+0	1.126515E+0	1.131293E+0	1.109195E+0	1.077757E+0	1.096511E+0	1.137026E+0	1.120546E+0	1.100015E+0	1.102149E+0	1.041993E+0	1.102344E+0	1.087158E+0	1.126988E+0	1.114096E+0	1.107557E+0	1.052553E+0	1.102382E+0	1.118549E+0	1.104988E+0	1.102658E+0	1.099369E+0	1.118183E+0	1.125943E+0	1.057005E+0	1.052386E+0	1.105410E+0	1.051376E+0	1.131857E+0	1.076847E+0	1.102561E+0	1.117109E+0	1.057178E+0	1.102159E+0
5.358650E+2	9.573276E-1	8.883101E-1	9.125495E-1	9.266989E-1	9.424049E-1	9.337870E-1	9.191528E-1	9.599530E-1	9.059099E-1	9.646421E-1	9.252399E-1	8.735393E-1	9.494678E-1	9.365913E-1	9.606250E-1	8.980140E-1	9.253637E-1	9.089276E-1	9.273365E-1	9.208832E-1	9.142252E-1	9.105640E-1	8.921550E-1	9.362851E-1	9.188276E-1	9.100021E-1	9.053535E-1	8.950520E-1	9.392756E-1	9.136618E-1	8.977408E-1	9.183676E-1	9.059431E-1	9.227893E-1	9.495360E-1	9.805513E-1	9.736455E-1	9.239279E-1	9.241497E-1	9.332025E-1	8.954965E-1	9.206300E-1	9.363146E-1	8.950739E-1	9.488571E-1	9.571976E-1	9.299945E-1	9.148331E-1	9.270127E-1	9.481802E-1	9.184835E-1	9.284587E-1	9.964107E-1	9.692300E-1	9.300303E-1	9.228982E-1	9.224088E-1	9.449381E-1	9.478903E-1	9.046288E-1	8.835643E-1	9.329513E-1	9.628364E-1	9.451413E-1	8.776807E-1	9.243151E-1	9.356407E-1	9.540786E-1	9.818882E-1	9.055929E-1	9.340517E-1	9.135582E-1	9.169203E-1	9.325247E-1	9.410170E-1	9.423784E-1	9.066201E-1	9.495905E-1	9.556633E-1	9.457059E-1	9.337271E-1	9.338861E-1	9.646985E-1	8.789944E-1	9.343058E-1	9.069472E-1	9.654397E-1	9.437588E-1	9.484062E-1	9.047385E-1	9.495498E-1	9.026548E-1	9.564219E-1	9.004981E-1	9.392381E-1	9.362405E-1	9.176927E-1	9.228242E-1	9.334547E-1	9.005300E-1	9.108283E-1	9.289572E-1	9.127737E-1	9.205357E-1	9.006477E-1	8.968338E-1	9.541370E-1	9.372854E-1	8.910052E-1	9.583380E-1	9.073371E-1	9.567864E-1	9.286938E-1	9.186126E-1	9.192880E-1	9.383111E-1	9.649227E-1	8.878378E-1	9.782831E-1	9.496789E-1	9.062177E-1	9.774876E-1	9.164891E-1	9.290954E-1	9.015145E-1	8.991217E-1	9.372136E-1	9.289940E-1	9.167287E-1	9.588202E-1	9.175067E-1	9.192518E-1	9.397198E-1	9.224053E-1	9.204751E-1	9.212932E-1	8.687252E-1	9.179745E-1	9.450185E-1	9.721592E-1	8.921142E-1	9.625759E-1	9.479216E-1	9.316694E-1	9.026297E-1	8.858788E-1	9.093840E-1	9.457760E-1	9.451725E-1	9.152045E-1	9.526440E-1	9.178487E-1	9.260468E-1	9.460195E-1	9.340297E-1	9.271479E-1	8.881288E-1	9.154020E-1	9.120227E-1	9.827490E-1	8.786705E-1	9.560960E-1	9.752410E-1	9.293617E-1	9.494252E-1	9.040143E-1	9.774921E-1	9.171770E-1	9.518206E-1	8.989724E-1
5.360070E+2	7.939886E-1	8.304425E-1	8.064132E-1	7.988342E-1	7.844332E-1	7.931350E-1	7.697602E-1	7.944283E-1	7.603914E-1	8.160796E-1	8.155592E-1	7.693767E-1	7.710632E-1	8.402912E-1	7.950414E-1	8.073203E-1	8.126590E-1	7.887485E-1	8.171674E-1	8.476367E-1	8.116847E-1	7.903273E-1	7.687685E-1	8.603311E-1	7.944583E-1	8.041450E-1	8.005430E-1	7.624002E-1	8.036054E-1	8.331496E-1	7.871193E-1	7.968051E-1	7.657715E-1	7.860957E-1	7.996458E-1	8.082051E-1	7.993234E-1	7.794349E-1	7.885933E-1	7.799180E-1	7.778258E-1	7.549047E-1	8.057906E-1	8.038379E-1	8.071470E-1	7.560661E-1	8.229885E-1	8.033797E-1	8.244101E-1	8.020594E-1	8.065227E-1	8.026429E-1	7.908526E-1	8.387042E-1	7.854016E-1	8.135949E-1	7.952537E-1	8.067446E-1	8.048691E-1	7.946600E-1	7.861608E-1	8.284198E-1	7.836375E-1	8.230543E-1	8.074941E-1	7.819476E-1	7.961128E-1	8.099497E-1	7.976848E-1	8.050111E-1	7.744388E-1	8.396169E-1	7.746570E-1	8.162698E-1	7.856764E-1	7.970106E-1	8.070602E-1	7.962217E-1	7.981817E-1	7.853327E-1	8.017400E-1	7.756729E-1	8.190364E-1	7.757227E-1	7.738980E-1	7.606802E-1	8.242168E-1	8.125541E-1	8.065205E-1	7.940024E-1	8.003778E-1	8.358876E-1	7.884130E-1	7.839205E-1	8.487027E-1	8.201011E-1	7.912567E-1	8.288308E-1	7.995302E-1	7.946232E-1	8.038766E-1	7.813520E-1	7.855174E-1	8.465064E-1	7.848800E-1	7.861994E-1	7.828791E-1	7.840308E-1	7.855468E-1	8.188462E-1	7.947654E-1	7.912875E-1	8.064950E-1	8.576952E-1	8.427471E-1	8.056509E-1	8.299662E-1	8.311994E-1	8.377914E-1	7.970591E-1	8.177300E-1	7.687394E-1	7.984655E-1	7.724135E-1	7.558662E-1	8.126209E-1	7.813743E-1	7.945137E-1	7.923707E-1	8.107701E-1	8.209681E-1	8.235051E-1	7.879236E-1	7.994520E-1	8.365283E-1	8.339301E-1	7.949499E-1	7.887510E-1	8.064358E-1	8.380701E-1	7.967563E-1	8.363288E-1	8.398075E-1	7.906463E-1	8.080888E-1	7.655841E-1	7.726724E-1	8.126870E-1	8.241557E-1	8.288245E-1	7.947877E-1	7.941784E-1	8.028552E-1	7.764789E-1	7.857448E-1	8.136141E-1	7.982776E-1	7.986878E-1	8.125927E-1	7.696055E-1	8.302729E-1	8.038514E-1	8.077077E-1	8.065186E-1	8.204689E-1	7.634670E-1	9.009755E-1	7.598261E-1	7.768410E-1	8.089392E-1
5.362630E+2	6.464395E-1	6.523492E-1	6.280824E-1	6.178971E-1	6.162824E-1	6.262355E-1	5.901166E-1	6.226594E-1	5.960431E-1	6.078270E-1	6.065597E-1	6.270733E-1	6.065817E-1	6.476265E-1	6.388256E-1	5.989209E-1	6.394977E-1	6.432186E-1	6.072430E-1	6.110048E-1	6.041780E-1	6.237754E-1	6.435468E-1	6.468811E-1	6.234316E-1	6.202430E-1	6.168975E-1	6.235199E-1	6.024032E-1	6.430579E-1	5.862784E-1	6.405828E-1	6.089725E-1	6.325157E-1	5.724470E-1	6.484366E-1	6.154433E-1	6.037172E-1	6.372406E-1	6.201428E-1	6.696022E-1	6.159366E-1	5.990097E-1	6.119967E-1	6.187400E-1	6.361090E-1	6.028747E-1	6.478652E-1	6.022823E-1	6.093602E-1	6.243510E-1	6.314262E-1	6.307719E-1	6.566785E-1	5.853920E-1	6.142774E-1	6.328479E-1	6.185365E-1	6.045299E-1	6.428790E-1	6.130500E-1	6.430460E-1	6.475310E-1	6.103607E-1	5.984223E-1	6.357670E-1	6.029771E-1	6.427839E-1	6.549018E-1	6.021420E-1	6.355207E-1	6.167344E-1	6.132911E-1	6.173208E-1	5.889604E-1	6.102650E-1	6.280245E-1	6.295186E-1	6.507407E-1	6.595838E-1	6.380282E-1	6.368044E-1	6.331164E-1	6.431035E-1	6.132646E-1	6.457937E-1	6.292392E-1	6.132999E-1	6.222566E-1	6.028119E-1	6.317473E-1	6.440968E-1	5.788821E-1	6.404916E-1	6.148952E-1	6.254933E-1	6.343060E-1	6.263450E-1	6.331865E-1	6.409151E-1	6.273681E-1	6.609159E-1	6.498509E-1	6.244610E-1	6.041747E-1	6.122012E-1	6.483726E-1	6.333565E-1	6.458194E-1	6.260912E-1	6.508499E-1	5.966228E-1	6.328646E-1	6.549104E-1	6.298935E-1	6.243278E-1	6.108478E-1	6.203368E-1	6.185172E-1	5.984936E-1	6.011429E-1	6.164917E-1	6.099046E-1	6.047648E-1	6.007661E-1	6.179987E-1	6.168340E-1	6.312427E-1	6.515674E-1	6.167119E-1	6.028459E-1	6.154481E-1	6.274753E-1	6.068300E-1	6.442424E-1	6.348425E-1	6.156889E-1	6.126093E-1	6.537970E-1	6.413629E-1	5.954630E-1	6.299523E-1	6.818728E-1	6.230447E-1	6.401993E-1	6.336789E-1	6.766412E-1	6.067853E-1	6.148838E-1	6.143220E-1	6.260145E-1	6.210389E-1	5.977017E-1	6.216050E-1	6.179138E-1	6.620646E-1	6.377785E-1	6.295253E-1	6.533961E-1	6.416223E-1	6.426131E-1	6.306692E-1	6.421125E-1	6.481196E-1	6.059643E-1	6.401712E-1	6.448206E-1	6.402965E-1	6.541084E-1	6.539469E-1
5.365140E+2	5.215540E-1	5.755759E-1	5.450151E-1	5.445697E-1	5.518218E-1	5.709465E-1	5.387719E-1	5.506020E-1	5.436343E-1	5.518008E-1	5.248685E-1	5.753588E-1	5.355871E-1	5.418650E-1	5.262738E-1	5.402538E-1	5.493880E-1	5.404236E-1	5.405679E-1	5.188508E-1	5.299013E-1	5.620511E-1	5.588308E-1	5.122510E-1	5.527665E-1	5.249411E-1	5.324871E-1	5.180368E-1	5.555615E-1	5.655431E-1	5.182051E-1	5.269973E-1	5.541762E-1	5.413739E-1	5.440308E-1	5.142237E-1	5.514178E-1	5.496733E-1	5.595236E-1	5.294985E-1	5.395559E-1	5.038942E-1	5.185684E-1	5.278237E-1	5.553450E-1	5.692437E-1	5.306159E-1	5.623720E-1	5.519201E-1	5.601624E-1	5.425830E-1	5.744782E-1	5.899088E-1	5.601049E-1	5.446465E-1	5.516104E-1	5.579397E-1	5.348970E-1	5.462856E-1	5.344348E-1	5.496812E-1	5.668565E-1	5.232359E-1	5.339791E-1	5.486644E-1	5.626475E-1	5.287609E-1	5.352226E-1	5.796927E-1	5.471190E-1	5.731835E-1	5.594157E-1	5.272811E-1	5.392863E-1	5.517564E-1	5.621881E-1	5.297001E-1	5.453006E-1	5.624734E-1	5.383905E-1	5.606730E-1	5.634758E-1	5.399916E-1	5.720073E-1	5.602998E-1	5.306415E-1	5.409019E-1	5.260402E-1	5.493679E-1	5.388562E-1	5.468632E-1	5.403666E-1	5.514715E-1	5.706548E-1	5.577206E-1	5.676586E-1	5.566131E-1	5.287925E-1	5.584186E-1	5.467030E-1	5.375506E-1	5.740870E-1	5.452146E-1	5.379066E-1	5.407581E-1	5.624284E-1	5.396661E-1	5.727382E-1	5.788249E-1	5.774349E-1	5.665046E-1	5.039629E-1	5.281603E-1	5.794871E-1	5.070783E-1	5.680671E-1	5.524530E-1	5.501426E-1	5.259731E-1	5.387797E-1	5.364911E-1	5.309277E-1	5.373548E-1	5.304968E-1	5.260855E-1	5.378078E-1	5.793596E-1	5.609915E-1	5.728947E-1	5.377903E-1	5.419860E-1	5.303637E-1	5.910925E-1	5.478572E-1	5.554431E-1	5.627251E-1	5.336100E-1	5.703521E-1	5.369448E-1	5.769243E-1	5.302210E-1	5.670776E-1	5.780412E-1	5.858533E-1	5.538566E-1	5.526775E-1	5.351884E-1	5.454883E-1	5.914930E-1	5.516247E-1	5.855631E-1	5.626331E-1	5.363419E-1	5.381937E-1	5.338878E-1	5.386447E-1	4.857501E-1	5.897918E-1	5.748332E-1	5.615040E-1	5.681806E-1	5.393099E-1	5.418710E-1	5.537871E-1	5.293853E-1	5.502491E-1	5.471873E-1	5.621988E-1	5.361889E-1	5.536355E-1
5.367710E+2	5.118446E-1	5.115789E-1	5.187626E-1	5.384420E-1	5.153064E-1	5.250791E-1	5.138529E-1	5.417253E-1	5.131072E-1	5.294469E-1	5.219960E-1	5.167476E-1	5.118059E-1	5.251781E-1	5.159568E-1	5.202589E-1	5.351806E-1	5.262072E-1	5.418764E-1	5.109919E-1	5.113691E-1	5.036858E-1	5.223345E-1	5.269237E-1	5.122397E-1	5.367528E-1	4.729775E-1	5.393561E-1	5.570237E-1	5.160978E-1	5.342665E-1	5.298652E-1	5.255506E-1	5.010636E-1	5.160580E-1	5.134520E-1	5.684789E-1	5.111371E-1	5.250266E-1	5.150932E-1	5.416225E-1	5.239641E-1	5.032303E-1	5.343817E-1	5.278823E-1	5.078228E-1	5.443270E-1	5.506002E-1	5.502135E-1	5.202430E-1	5.529143E-1	5.128170E-1	5.137596E-1	5.393697E-1	5.339547E-1	5.091525E-1	5.196122E-1	5.533120E-1	5.195230E-1	5.279366E-1	5.244013E-1	5.373603E-1	5.523915E-1	5.464768E-1	5.337440E-1	5.261201E-1	5.286886E-1	5.335341E-1	5.492620E-1	5.368177E-1	5.365136E-1	5.382006E-1	4.943933E-1	4.907299E-1	5.120627E-1	5.408925E-1	5.475927E-1	5.418949E-1	5.442990E-1	5.197328E-1	5.586818E-1	5.166337E-1	5.335124E-1	5.726232E-1	5.070508E-1	5.519352E-1	5.635532E-1	5.615674E-1	5.348867E-1	4.818497E-1	5.322129E-1	5.288629E-1	5.666205E-1	5.310427E-1	5.114028E-1	5.038932E-1	5.351907E-1	5.599970E-1	5.395972E-1	5.605496E-1	5.133508E-1	5.344845E-1	5.402436E-1	5.290674E-1	5.234851E-1	5.322172E-1	5.150817E-1	5.333741E-1	5.450345E-1	5.214792E-1	5.323655E-1	5.280580E-1	5.538114E-1	5.317221E-1	5.226049E-1	5.324666E-1	5.102101E-1	5.460954E-1	5.444058E-1	5.253469E-1	5.160009E-1	5.262269E-1	5.451855E-1	5.039636E-1	5.385441E-1	5.424433E-1	4.916385E-1	5.365966E-1	5.492723E-1	5.856968E-1	5.077164E-1	5.333785E-1	5.294474E-1	5.138831E-1	5.201819E-1	5.803693E-1	5.181108E-1	5.245322E-1	5.564912E-1	5.592096E-1	4.900705E-1	5.328419E-1	5.644161E-1	5.282480E-1	5.264928E-1	4.996309E-1	5.107076E-1	5.023422E-1	5.118055E-1	5.518681E-1	5.273405E-1	5.547261E-1	5.472001E-1	5.595372E-1	5.367276E-1	5.249557E-1	5.412340E-1	5.172852E-1	5.419609E-1	5.620546E-1	5.602494E-1	5.066117E-1	5.426738E-1	5.418010E-1	5.823789E-1	4.879344E-1	5.192877E-1	5.313278E-1	5.308279E-1	5.256284E-1
5.370280E+2	5.574083E-1	5.568603E-1	5.446718E-1	5.473665E-1	5.496370E-1	5.574920E-1	5.500257E-1	5.897860E-1	5.599590E-1	6.042447E-1	5.515419E-1	5.602059E-1	5.687323E-1	5.462799E-1	5.880363E-1	5.579187E-1	5.501129E-1	5.515136E-1	5.490726E-1	5.528726E-1	5.710458E-1	5.476431E-1	5.575612E-1	5.545734E-1	6.040834E-1	5.741404E-1	5.685904E-1	5.747325E-1	5.644755E-1	5.619379E-1	6.029164E-1	5.342519E-1	5.661778E-1	5.579860E-1	5.538330E-1	5.890301E-1	5.530435E-1	5.657841E-1	5.568491E-1	5.870124E-1	5.683798E-1	5.612719E-1	5.773230E-1	5.735502E-1	5.949777E-1	5.846322E-1	5.903312E-1	5.753282E-1	5.784281E-1	5.602620E-1	5.841108E-1	5.304454E-1	5.717470E-1	5.575093E-1	5.661170E-1	5.819590E-1	5.199088E-1	5.619095E-1	5.689177E-1	5.500192E-1	5.780444E-1	5.690005E-1	5.482774E-1	5.713320E-1	5.434867E-1	5.472538E-1	5.406067E-1	5.500964E-1	6.030225E-1	5.911705E-1	5.328387E-1	5.883696E-1	5.605391E-1	5.836828E-1	5.964463E-1	5.981583E-1	5.665164E-1	5.654823E-1	6.079311E-1	6.096111E-1	5.257355E-1	5.450071E-1	5.616139E-1	5.905857E-1	5.983446E-1	5.502885E-1	5.539397E-1	5.642170E-1	5.640661E-1	5.592431E-1	5.496917E-1	6.240929E-1	5.922313E-1	5.807778E-1	5.616366E-1	5.639222E-1	5.715689E-1	5.715229E-1	5.815603E-1	5.727927E-1	5.658891E-1	5.793806E-1	5.477299E-1	5.615329E-1	5.695168E-1	5.509138E-1	5.443505E-1	5.724018E-1	5.440077E-1	5.478664E-1	5.599776E-1	5.630167E-1	5.975509E-1	5.269325E-1	5.628608E-1	6.052853E-1	5.628703E-1	5.364113E-1	5.674900E-1	5.999154E-1	5.570045E-1	5.608630E-1	5.557124E-1	5.718729E-1	5.830940E-1	5.736062E-1	5.633871E-1	5.541447E-1	5.583278E-1	5.618933E-1	5.775165E-1	5.837463E-1	5.590765E-1	5.819941E-1	5.472048E-1	6.082800E-1	5.637857E-1	5.784909E-1	5.730542E-1	5.558797E-1	5.631140E-1	5.882812E-1	5.866086E-1	5.720983E-1	5.706079E-1	5.670732E-1	5.685702E-1	5.364582E-1	6.079284E-1	5.652361E-1	5.211888E-1	5.557267E-1	5.396398E-1	5.702279E-1	5.673078E-1	5.811226E-1	5.438627E-1	5.083086E-1	5.600890E-1	5.585782E-1	5.647967E-1	5.994588E-1	5.502275E-1	5.691062E-1	5.939946E-1	5.863814E-1	5.734876E-1	5.981309E-1	5.642079E-1	5.922330E-1
5.372590E+2	6.106373E-1	6.427068E-1	6.283239E-1	6.538536E-1	6.262894E-1	6.725616E-1	6.761832E-1	6.624881E-1	6.411607E-1	6.677760E-1	6.447412E-1	6.238970E-1	6.352646E-1	6.461777E-1	6.678446E-1	6.583249E-1	6.000767E-1	6.410680E-1	6.460852E-1	6.391226E-1	6.765477E-1	6.447038E-1	6.664620E-1	6.483143E-1	6.770576E-1	7.018593E-1	6.338944E-1	6.595876E-1	6.911519E-1	6.540196E-1	6.270855E-1	6.578694E-1	6.485660E-1	6.539467E-1	6.315159E-1	6.552681E-1	6.784167E-1	6.459077E-1	6.343752E-1	6.804452E-1	6.555772E-1	6.125696E-1	6.151382E-1	6.527678E-1	6.707128E-1	6.662309E-1	6.615793E-1	6.807692E-1	6.836731E-1	6.468137E-1	6.275177E-1	6.822827E-1	6.675507E-1	6.709858E-1	6.395895E-1	6.294062E-1	6.191842E-1	6.819032E-1	6.359685E-1	6.877936E-1	6.275056E-1	6.970133E-1	6.611373E-1	6.693909E-1	6.577905E-1	6.390356E-1	6.147519E-1	6.316214E-1	6.762215E-1	6.532548E-1	6.596808E-1	6.984207E-1	6.373204E-1	6.880751E-1	6.762929E-1	6.740281E-1	6.317846E-1	6.795490E-1	6.678464E-1	6.599335E-1	6.402174E-1	6.396408E-1	6.748750E-1	6.100837E-1	6.879973E-1	6.309682E-1	6.555661E-1	6.738476E-1	6.450161E-1	6.208625E-1	6.455509E-1	6.469297E-1	6.762344E-1	6.623862E-1	6.668270E-1	6.618886E-1	7.076141E-1	6.518058E-1	6.651055E-1	6.805950E-1	6.653435E-1	6.528728E-1	6.506884E-1	6.472716E-1	6.538692E-1	6.223830E-1	6.360371E-1	6.690802E-1	6.813258E-1	6.685574E-1	6.346882E-1	6.327655E-1	6.826812E-1	6.294500E-1	6.384710E-1	6.631302E-1	6.479881E-1	6.266164E-1	6.348003E-1	6.785181E-1	6.288053E-1	6.183034E-1	6.330214E-1	6.447654E-1	6.710764E-1	6.451207E-1	6.525999E-1	6.708600E-1	6.668337E-1	6.615595E-1	6.526266E-1	6.587073E-1	6.654048E-1	6.631108E-1	6.700697E-1	6.696209E-1	6.885921E-1	6.464982E-1	6.487976E-1	6.752342E-1	6.324254E-1	6.162457E-1	6.626367E-1	6.855196E-1	6.628137E-1	6.570043E-1	6.717257E-1	6.838010E-1	6.721212E-1	6.638340E-1	6.360795E-1	6.620642E-1	6.408184E-1	6.434144E-1	6.593750E-1	6.575069E-1	6.792744E-1	6.156216E-1	6.609190E-1	6.800502E-1	7.053997E-1	6.515714E-1	6.370456E-1	6.641045E-1	6.598884E-1	6.332768E-1	6.641295E-1	6.280019E-1	6.559594E-1	7.278677E-1
5.375110E+2	7.236179E-1	6.904032E-1	7.341641E-1	7.255336E-1	7.254808E-1	7.466867E-1	7.106538E-1	7.550401E-1	7.409092E-1	7.336377E-1	6.952652E-1	7.155323E-1	7.416540E-1	7.097746E-1	7.431788E-1	7.277209E-1	7.202862E-1	6.830095E-1	7.452216E-1	7.238507E-1	7.458748E-1	7.196258E-1	7.051336E-1	7.319359E-1	7.310359E-1	7.300330E-1	7.489189E-1	7.124224E-1	7.334541E-1	7.398483E-1	7.316172E-1	7.243207E-1	7.437864E-1	7.606396E-1	7.312405E-1	6.984823E-1	7.658360E-1	7.074994E-1	7.148509E-1	7.230909E-1	7.247924E-1	7.094401E-1	7.071273E-1	7.055842E-1	7.256570E-1	7.222486E-1	7.415234E-1	7.420232E-1	7.411572E-1	7.255988E-1	7.537109E-1	7.794407E-1	7.582712E-1	6.895095E-1	7.144273E-1	7.083775E-1	7.023199E-1	7.318403E-1	7.454182E-1	7.799901E-1	7.744967E-1	7.295676E-1	7.617183E-1	7.414033E-1	7.127154E-1	7.352854E-1	7.496833E-1	7.282832E-1	7.598349E-1	7.544400E-1	7.541869E-1	7.441820E-1	7.277401E-1	7.115270E-1	7.390584E-1	7.410551E-1	7.149399E-1	7.476855E-1	7.334191E-1	7.283413E-1	7.349958E-1	7.203490E-1	6.982292E-1	7.213303E-1	7.323943E-1	7.094678E-1	7.291499E-1	7.615611E-1	7.324553E-1	7.533769E-1	7.143272E-1	6.921702E-1	7.259942E-1	7.184743E-1	7.294602E-1	7.376058E-1	7.175916E-1	7.408721E-1	7.401900E-1	7.211504E-1	7.432655E-1	7.480400E-1	7.330275E-1	7.260866E-1	7.297870E-1	7.373576E-1	7.091227E-1	7.101659E-1	7.440647E-1	7.067507E-1	7.413566E-1	7.838486E-1	7.377101E-1	7.477296E-1	7.285920E-1	7.208530E-1	7.283906E-1	7.520511E-1	7.224119E-1	7.635997E-1	7.400435E-1	7.395220E-1	7.036049E-1	6.932898E-1	7.443096E-1	7.205208E-1	7.355541E-1	7.385413E-1	7.632009E-1	7.794412E-1	7.149988E-1	7.197705E-1	7.671095E-1	7.424033E-1	7.341069E-1	7.604810E-1	6.995342E-1	7.721638E-1	7.547753E-1	7.563637E-1	7.219704E-1	7.351672E-1	7.498344E-1	7.148401E-1	7.685286E-1	7.231232E-1	7.417999E-1	7.113319E-1	7.531814E-1	7.238982E-1	7.430470E-1	7.230834E-1	7.392342E-1	7.027657E-1	7.208465E-1	7.401480E-1	7.522415E-1	7.009650E-1	7.720992E-1	7.420801E-1	7.329570E-1	7.297058E-1	7.139070E-1	7.235660E-1	7.567386E-1	7.620066E-1	7.598372E-1	7.630682E-1	7.118930E-1	7.063854E-1
5.377580E+2	7.996952E-1	8.147067E-1	8.651173E-1	8.675983E-1	8.288940E-1	8.535692E-1	8.591571E-1	8.521339E-1	8.779163E-1	8.676347E-1	8.057136E-1	8.325382E-1	8.264778E-1	8.571610E-1	8.596133E-1	8.214687E-1	8.355767E-1	8.435105E-1	8.682990E-1	8.949454E-1	8.714032E-1	8.606087E-1	8.460957E-1	8.449744E-1	8.536137E-1	8.547084E-1	8.743253E-1	8.504421E-1	9.044278E-1	8.391945E-1	8.594687E-1	8.602419E-1	8.673129E-1	8.442722E-1	8.196808E-1	8.804165E-1	8.946868E-1	8.571116E-1	8.540992E-1	8.790763E-1	8.527789E-1	8.516350E-1	8.380089E-1	8.543779E-1	8.744181E-1	8.579304E-1	8.465543E-1	8.674261E-1	8.569430E-1	8.636418E-1	8.789943E-1	8.501680E-1	8.886263E-1	8.711695E-1	8.113209E-1	8.569577E-1	8.206222E-1	8.403732E-1	8.159350E-1	8.888593E-1	8.746452E-1	8.390727E-1	8.964487E-1	8.715463E-1	8.754618E-1	8.326692E-1	8.371414E-1	8.582869E-1	8.320130E-1	8.496109E-1	8.351493E-1	8.700492E-1	8.425281E-1	8.696406E-1	8.143165E-1	8.603633E-1	8.793596E-1	9.027558E-1	8.985489E-1	8.948798E-1	8.298085E-1	8.458137E-1	8.410781E-1	8.462768E-1	8.421398E-1	8.348882E-1	8.474948E-1	8.615065E-1	8.489455E-1	8.682183E-1	8.200271E-1	8.638182E-1	9.079298E-1	8.789523E-1	8.716698E-1	9.014059E-1	8.885262E-1	8.683261E-1	9.060540E-1	8.601616E-1	8.659766E-1	8.642498E-1	8.476314E-1	8.611431E-1	8.698968E-1	8.446887E-1	8.724445E-1	8.424496E-1	8.492150E-1	8.860271E-1	8.607466E-1	8.621089E-1	8.686488E-1	8.668888E-1	8.267416E-1	8.759456E-1	8.858369E-1	8.541375E-1	8.511721E-1	8.897072E-1	8.627281E-1	8.486303E-1	8.027792E-1	8.428564E-1	8.515585E-1	8.636076E-1	8.129638E-1	8.768970E-1	8.899572E-1	8.528574E-1	8.694566E-1	8.343095E-1	8.777098E-1	8.396593E-1	8.640832E-1	8.684196E-1	8.651491E-1	8.538203E-1	8.713649E-1	8.837074E-1	8.430511E-1	8.643505E-1	8.500596E-1	8.317466E-1	8.442550E-1	8.532049E-1	8.183112E-1	8.476654E-1	8.696036E-1	8.641423E-1	8.467381E-1	8.352696E-1	8.519214E-1	8.812766E-1	8.457988E-1	8.925328E-1	8.569082E-1	8.886889E-1	8.885934E-1	8.581328E-1	8.352160E-1	8.589072E-1	8.503383E-1	8.823565E-1	8.782104E-1	8.720266E-1	8.957383E-1	8.647918E-1	8.179726E-1	8.376032E-1
5.380160E+2	9.619682E-1	9.539133E-1	9.549883E-1	9.934453E-1	9.266502E-1	9.567297E-1	9.356532E-1	9.876707E-1	9.274830E-1	9.381916E-1	9.664704E-1	9.442515E-1	9.426894E-1	9.402688E-1	9.577241E-1	9.816100E-1	9.627587E-1	9.283767E-1	9.667985E-1	9.449960E-1	9.785704E-1	9.659297E-1	9.583445E-1	9.682793E-1	1.025484E+0	9.608504E-1	9.968201E-1	9.147199E-1	9.786977E-1	9.837500E-1	9.262290E-1	9.725101E-1	9.261915E-1	9.685711E-1	9.168637E-1	9.768069E-1	9.376631E-1	9.638863E-1	9.528459E-1	9.776213E-1	1.011887E+0	9.201832E-1	9.322348E-1	9.317209E-1	1.009720E+0	9.872037E-1	9.324258E-1	9.163369E-1	9.478913E-1	9.318866E-1	9.422360E-1	9.281800E-1	9.621903E-1	9.663488E-1	9.103091E-1	9.434345E-1	9.256530E-1	9.683847E-1	9.657958E-1	9.461184E-1	9.599947E-1	9.593368E-1	9.692437E-1	9.727753E-1	9.681146E-1	9.831984E-1	9.758889E-1	9.584311E-1	1.020453E+0	9.284211E-1	9.223957E-1	9.405984E-1	9.909142E-1	9.335634E-1	9.732532E-1	1.016155E+0	9.369245E-1	9.437416E-1	9.782054E-1	9.635245E-1	9.448979E-1	9.615265E-1	9.921760E-1	9.861308E-1	9.303652E-1	9.493219E-1	9.427810E-1	9.868466E-1	9.350746E-1	9.662902E-1	9.633767E-1	9.234503E-1	9.497594E-1	9.573014E-1	9.873703E-1	9.696610E-1	9.808705E-1	9.463449E-1	9.524442E-1	9.692026E-1	9.654355E-1	9.283437E-1	9.771390E-1	9.737749E-1	1.009343E+0	9.169211E-1	9.587697E-1	9.471490E-1	1.000600E+0	9.548429E-1	9.329552E-1	9.760231E-1	9.699877E-1	9.684461E-1	9.225761E-1	9.727221E-1	9.370982E-1	9.701351E-1	9.178886E-1	9.779551E-1	9.208774E-1	9.373944E-1	9.424012E-1	9.728500E-1	9.320612E-1	9.471447E-1	9.314659E-1	9.384945E-1	1.028605E+0	9.666945E-1	1.001700E+0	9.499811E-1	9.873714E-1	9.718183E-1	9.821751E-1	9.759159E-1	9.225110E-1	9.581027E-1	9.567037E-1	9.017384E-1	9.301524E-1	9.306823E-1	9.658033E-1	9.425676E-1	9.483444E-1	9.294698E-1	9.280653E-1	9.697046E-1	9.668055E-1	9.753239E-1	9.316491E-1	9.967921E-1	9.474960E-1	9.658622E-1	9.093077E-1	9.694939E-1	9.741143E-1	9.567400E-1	9.572597E-1	9.544262E-1	9.524101E-1	9.580102E-1	9.531500E-1	9.461409E-1	9.939271E-1	9.466778E-1	9.816987E-1	9.432142E-1	8.940654E-1	9.180562E-1
5.382740E+2	1.192274E+0	1.175039E+0	1.116922E+0	1.171585E+0	1.185930E+0	1.177598E+0	1.112640E+0	1.211713E+0	1.127713E+0	1.163069E+0	1.139278E+0	1.139180E+0	1.164165E+0	1.131470E+0	1.166813E+0	1.136252E+0	1.190666E+0	1.162864E+0	1.161945E+0	1.097555E+0	1.150883E+0	1.128064E+0	1.109006E+0	1.138883E+0	1.175044E+0	1.207397E+0	1.190343E+0	1.134131E+0	1.225214E+0	1.228213E+0	1.114496E+0	1.122637E+0	1.171141E+0	1.112344E+0	1.196707E+0	1.182709E+0	1.194996E+0	1.160300E+0	1.204300E+0	1.159593E+0	1.179951E+0	1.182389E+0	1.174469E+0	1.147288E+0	1.203005E+0	1.186302E+0	1.173931E+0	1.182186E+0	1.169197E+0	1.196927E+0	1.115756E+0	1.197103E+0	1.186463E+0	1.206186E+0	1.112664E+0	1.156923E+0	1.149220E+0	1.151112E+0	1.131428E+0	1.155645E+0	1.181191E+0	1.190052E+0	1.145471E+0	1.189540E+0	1.128443E+0	1.139375E+0	1.140020E+0	1.199040E+0	1.195939E+0	1.185479E+0	1.176265E+0	1.165185E+0	1.172818E+0	1.150035E+0	1.182170E+0	1.182605E+0	1.132394E+0	1.185307E+0	1.203447E+0	1.178255E+0	1.159318E+0	1.166490E+0	1.142588E+0	1.146108E+0	1.142368E+0	1.191015E+0	1.172173E+0	1.205522E+0	1.191474E+0	1.161760E+0	1.171762E+0	1.167041E+0	1.154630E+0	1.127424E+0	1.180522E+0	1.209688E+0	1.142014E+0	1.160851E+0	1.159557E+0	1.201640E+0	1.109920E+0	1.156474E+0	1.118404E+0	1.111217E+0	1.156513E+0	1.137123E+0	1.161129E+0	1.171762E+0	1.185142E+0	1.238893E+0	1.133967E+0	1.158382E+0	1.186117E+0	1.138670E+0	1.088653E+0	1.154938E+0	1.131948E+0	1.137434E+0	1.085575E+0	1.191634E+0	1.176538E+0	1.160314E+0	1.099734E+0	1.182558E+0	1.189575E+0	1.123370E+0	1.101049E+0	1.120284E+0	1.135585E+0	1.147825E+0	1.186973E+0	1.089784E+0	1.192860E+0	1.140200E+0	1.167607E+0	1.205026E+0	1.141036E+0	1.157046E+0	1.180060E+0	1.156674E+0	1.145093E+0	1.179346E+0	1.146755E+0	1.146065E+0	1.162871E+0	1.136496E+0	1.155705E+0	1.165808E+0	1.174640E+0	1.183939E+0	1.102141E+0	1.141081E+0	1.161575E+0	1.163811E+0	1.125601E+0	1.138677E+0	1.148995E+0	1.165109E+0	1.149410E+0	1.173845E+0	1.166587E+0	1.134245E+0	1.166550E+0	1.147653E+0	1.213518E+0	1.185210E+0	1.194521E+0	1.150756E+0	1.107972E+0	1.167354E+0
5.385110E+2	1.334171E+0	1.363065E+0	1.328591E+0	1.386193E+0	1.322099E+0	1.384437E+0	1.373277E+0	1.336887E+0	1.367575E+0	1.361089E+0	1.383616E+0	1.341747E+0	1.352195E+0	1.318080E+0	1.324467E+0	1.354032E+0	1.324666E+0	1.373454E+0	1.373757E+0	1.353776E+0	1.329972E+0	1.400442E+0	1.317396E+0	1.315523E+0	1.418502E+0	1.335093E+0	1.384723E+0	1.302114E+0	1.426987E+0	1.384109E+0	1.387600E+0	1.345561E+0	1.372801E+0	1.387201E+0	1.387003E+0	1.332822E+0	1.363850E+0	1.380817E+0	1.349417E+0	1.337463E+0	1.357021E+0	1.399350E+0	1.354837E+0	1.356127E+0	1.396704E+0	1.405274E+0	1.346464E+0	1.349971E+0	1.364509E+0	1.391225E+0	1.367528E+0	1.361266E+0	1.361424E+0	1.404228E+0	1.306617E+0	1.336213E+0	1.391391E+0	1.411158E+0	1.346649E+0	1.336027E+0	1.374300E+0	1.406317E+0	1.400058E+0	1.408333E+0	1.341847E+0	1.354734E+0	1.238844E+0	1.343209E+0	1.373648E+0	1.389153E+0	1.310652E+0	1.333288E+0	1.329818E+0	1.356966E+0	1.385500E+0	1.315527E+0	1.338577E+0	1.337865E+0	1.346444E+0	1.392958E+0	1.376827E+0	1.330914E+0	1.309829E+0	1.303508E+0	1.364146E+0	1.291453E+0	1.360618E+0	1.369832E+0	1.378416E+0	1.288645E+0	1.341965E+0	1.370767E+0	1.359584E+0	1.346340E+0	1.414333E+0	1.374921E+0	1.410349E+0	1.358851E+0	1.349758E+0	1.357331E+0	1.362290E+0	1.391182E+0	1.361834E+0	1.350155E+0	1.352395E+0	1.341628E+0	1.323643E+0	1.316000E+0	1.366083E+0	1.396532E+0	1.339784E+0	1.313654E+0	1.366729E+0	1.284982E+0	1.322024E+0	1.343000E+0	1.305972E+0	1.365510E+0	1.330823E+0	1.366994E+0	1.339148E+0	1.301721E+0	1.350324E+0	1.316288E+0	1.328824E+0	1.331844E+0	1.296360E+0	1.365742E+0	1.362584E+0	1.363372E+0	1.311532E+0	1.343290E+0	1.334761E+0	1.318795E+0	1.345615E+0	1.357106E+0	1.318450E+0	1.317332E+0	1.314700E+0	1.270905E+0	1.301788E+0	1.399766E+0	1.358070E+0	1.321747E+0	1.376571E+0	1.323818E+0	1.356462E+0	1.354051E+0	1.376687E+0	1.329710E+0	1.320819E+0	1.334526E+0	1.326912E+0	1.345529E+0	1.337301E+0	1.317622E+0	1.334526E+0	1.345135E+0	1.373393E+0	1.376249E+0	1.328061E+0	1.298429E+0	1.337178E+0	1.369704E+0	1.343006E+0	1.329197E+0	1.345366E+0	1.345061E+0	1.319420E+0	1.285730E+0
5.387700E+2	1.629250E+0	1.633814E+0	1.589773E+0	1.605744E+0	1.559827E+0	1.567723E+0	1.567054E+0	1.625682E+0	1.601623E+0	1.661785E+0	1.530216E+0	1.554705E+0	1.579001E+0	1.600224E+0	1.598093E+0	1.569377E+0	1.612012E+0	1.614472E+0	1.589072E+0	1.616480E+0	1.620695E+0	1.618579E+0	1.597804E+0	1.591441E+0	1.614323E+0	1.596198E+0	1.640508E+0	1.554127E+0	1.636352E+0	1.645620E+0	1.672722E+0	1.626436E+0	1.573134E+0	1.617927E+0	1.534877E+0	1.652772E+0	1.656744E+0	1.627975E+0	1.556570E+0	1.596559E+0	1.594284E+0	1.586150E+0	1.595178E+0	1.562777E+0	1.617478E+0	1.620569E+0	1.584768E+0	1.583692E+0	1.566107E+0	1.588961E+0	1.647876E+0	1.578651E+0	1.637999E+0	1.593751E+0	1.538285E+0	1.551416E+0	1.575871E+0	1.631953E+0	1.539049E+0	1.585472E+0	1.572085E+0	1.622355E+0	1.548843E+0	1.582759E+0	1.596171E+0	1.594986E+0	1.530850E+0	1.644952E+0	1.627458E+0	1.631242E+0	1.589518E+0	1.575844E+0	1.546306E+0	1.568166E+0	1.585652E+0	1.575309E+0	1.564052E+0	1.578689E+0	1.610225E+0	1.561519E+0	1.594400E+0	1.584579E+0	1.592130E+0	1.601817E+0	1.590899E+0	1.601460E+0	1.619372E+0	1.604866E+0	1.595612E+0	1.582964E+0	1.589995E+0	1.523283E+0	1.595690E+0	1.577171E+0	1.555359E+0	1.576305E+0	1.537330E+0	1.576598E+0	1.621104E+0	1.620519E+0	1.563106E+0	1.609674E+0	1.548856E+0	1.527067E+0	1.602485E+0	1.579975E+0	1.537027E+0	1.566712E+0	1.618274E+0	1.641497E+0	1.568522E+0	1.523085E+0	1.572465E+0	1.616890E+0	1.540510E+0	1.545412E+0	1.561197E+0	1.583023E+0	1.557841E+0	1.542136E+0	1.562934E+0	1.554826E+0	1.519225E+0	1.505113E+0	1.560220E+0	1.523659E+0	1.557361E+0	1.548689E+0	1.613408E+0	1.612305E+0	1.539225E+0	1.543660E+0	1.594498E+0	1.597387E+0	1.546624E+0	1.656575E+0	1.585153E+0	1.576022E+0	1.589611E+0	1.600376E+0	1.510566E+0	1.605297E+0	1.595486E+0	1.596154E+0	1.524587E+0	1.523563E+0	1.527102E+0	1.584033E+0	1.587978E+0	1.556023E+0	1.481746E+0	1.534921E+0	1.589067E+0	1.533979E+0	1.521687E+0	1.539981E+0	1.567709E+0	1.510684E+0	1.535626E+0	1.596826E+0	1.554068E+0	1.570306E+0	1.582101E+0	1.610291E+0	1.549683E+0	1.496704E+0	1.538878E+0	1.523933E+0	1.511321E+0	1.441902E+0
5.390290E+2	1.805619E+0	1.864805E+0	1.748169E+0	1.808189E+0	1.746547E+0	1.825332E+0	1.771766E+0	1.825979E+0	1.800361E+0	1.866250E+0	1.768686E+0	1.749843E+0	1.769610E+0	1.758097E+0	1.816790E+0	1.799021E+0	1.742469E+0	1.755320E+0	1.845202E+0	1.795253E+0	1.781344E+0	1.794047E+0	1.834142E+0	1.755339E+0	1.847815E+0	1.821047E+0	1.750326E+0	1.722089E+0	1.768129E+0	1.762304E+0	1.751123E+0	1.835257E+0	1.853684E+0	1.779376E+0	1.776070E+0	1.776880E+0	1.865289E+0	1.791641E+0	1.800307E+0	1.802574E+0	1.840675E+0	1.787683E+0	1.746070E+0	1.775851E+0	1.779017E+0	1.797510E+0	1.774842E+0	1.754333E+0	1.811887E+0	1.863044E+0	1.814243E+0	1.802281E+0	1.795137E+0	1.778261E+0	1.745181E+0	1.781045E+0	1.815041E+0	1.814162E+0	1.769718E+0	1.730402E+0	1.722021E+0	1.799741E+0	1.788531E+0	1.819805E+0	1.823513E+0	1.799249E+0	1.699667E+0	1.854078E+0	1.834602E+0	1.783241E+0	1.733405E+0	1.751183E+0	1.747981E+0	1.811886E+0	1.806522E+0	1.784697E+0	1.727077E+0	1.765362E+0	1.788624E+0	1.802424E+0	1.752170E+0	1.784331E+0	1.742740E+0	1.804544E+0	1.834924E+0	1.779306E+0	1.745082E+0	1.733674E+0	1.837995E+0	1.693185E+0	1.757851E+0	1.768987E+0	1.752029E+0	1.795659E+0	1.808891E+0	1.769998E+0	1.757030E+0	1.771691E+0	1.767370E+0	1.806679E+0	1.821055E+0	1.736967E+0	1.809338E+0	1.798375E+0	1.719800E+0	1.725657E+0	1.784435E+0	1.705628E+0	1.795338E+0	1.801486E+0	1.655737E+0	1.710771E+0	1.800814E+0	1.743923E+0	1.732854E+0	1.736036E+0	1.743600E+0	1.800714E+0	1.723743E+0	1.717555E+0	1.767236E+0	1.727618E+0	1.708597E+0	1.670921E+0	1.752621E+0	1.729727E+0	1.770574E+0	1.758063E+0	1.767400E+0	1.779645E+0	1.763603E+0	1.722798E+0	1.805104E+0	1.801122E+0	1.741433E+0	1.724710E+0	1.729077E+0	1.789088E+0	1.693802E+0	1.753832E+0	1.693381E+0	1.768818E+0	1.774067E+0	1.746717E+0	1.740767E+0	1.714509E+0	1.726408E+0	1.724843E+0	1.677832E+0	1.759739E+0	1.678195E+0	1.712226E+0	1.800449E+0	1.769796E+0	1.743978E+0	1.765207E+0	1.741487E+0	1.739119E+0	1.764573E+0	1.741126E+0	1.795125E+0	1.749096E+0	1.736703E+0	1.677248E+0	1.798848E+0	1.746157E+0	1.713516E+0	1.707012E+0	1.761757E+0	1.648139E+0
5.392780E+2	1.980190E+0	1.977707E+0	2.030088E+0	1.985104E+0	1.931294E+0	1.943151E+0	1.976055E+0	1.977129E+0	1.981816E+0	1.997793E+0	1.997252E+0	1.935639E+0	1.943696E+0	2.025477E+0	1.994851E+0	1.874253E+0	1.972447E+0	1.995591E+0	1.969393E+0	1.971472E+0	1.979835E+0	1.987377E+0	1.982560E+0	1.893395E+0	1.954205E+0	1.926263E+0	1.963661E+0	1.874106E+0	1.979013E+0	1.948221E+0	1.939377E+0	1.970034E+0	1.948019E+0	1.999481E+0	1.968533E+0	1.924784E+0	2.042057E+0	1.910352E+0	1.923861E+0	1.950572E+0	1.960318E+0	1.903082E+0	1.978427E+0	1.911502E+0	2.004566E+0	1.969550E+0	1.953922E+0	1.982437E+0	1.948936E+0	1.948598E+0	1.905380E+0	1.913919E+0	2.018142E+0	1.997140E+0	1.926828E+0	1.955028E+0	1.958356E+0	2.022965E+0	1.906776E+0	1.979351E+0	1.954522E+0	2.005071E+0	1.962349E+0	1.972942E+0	1.938712E+0	1.918236E+0	1.852811E+0	1.969847E+0	1.927667E+0	1.877701E+0	1.946386E+0	1.871510E+0	2.005226E+0	1.998262E+0	1.927013E+0	1.959860E+0	1.949620E+0	1.916230E+0	1.929297E+0	1.954398E+0	1.873388E+0	1.854893E+0	1.928772E+0	1.964931E+0	1.954451E+0	1.931841E+0	1.888723E+0	1.920204E+0	1.917607E+0	1.862192E+0	1.936206E+0	1.932218E+0	1.888723E+0	1.897750E+0	1.954009E+0	1.926247E+0	1.910715E+0	1.974299E+0	1.959506E+0	1.981798E+0	1.918789E+0	1.991052E+0	1.940288E+0	1.877331E+0	1.911636E+0	1.934064E+0	1.924092E+0	1.874228E+0	1.967986E+0	1.977777E+0	1.902056E+0	1.866559E+0	2.009107E+0	1.961355E+0	1.908257E+0	1.940217E+0	1.908994E+0	1.899021E+0	1.891121E+0	1.884651E+0	1.867192E+0	1.881275E+0	1.939964E+0	1.824478E+0	1.854874E+0	1.888595E+0	1.880874E+0	1.983557E+0	1.919859E+0	1.967331E+0	1.929755E+0	1.900183E+0	1.988261E+0	1.900712E+0	1.887187E+0	1.949542E+0	1.844223E+0	1.962453E+0	1.932535E+0	1.966429E+0	1.893110E+0	1.911771E+0	1.980785E+0	1.893686E+0	1.949315E+0	1.921685E+0	1.884255E+0	1.878377E+0	1.931887E+0	1.874226E+0	1.878599E+0	1.896206E+0	1.891638E+0	1.889585E+0	1.907690E+0	1.915135E+0	1.871081E+0	1.918006E+0	1.910064E+0	1.896484E+0	1.944883E+0	1.858263E+0	1.897749E+0	1.954041E+0	1.973184E+0	1.869051E+0	1.842951E+0	1.827408E+0	1.851375E+0	1.834336E+0
5.395160E+2	2.187227E+0	2.115183E+0	2.088329E+0	2.197096E+0	2.074984E+0	2.147831E+0	2.085460E+0	2.140613E+0	2.067893E+0	2.140382E+0	2.108765E+0	2.057516E+0	2.099084E+0	2.142981E+0	2.132801E+0	2.035042E+0	2.075670E+0	2.092696E+0	2.126953E+0	2.074324E+0	2.097941E+0	2.128310E+0	2.085566E+0	2.061447E+0	2.108704E+0	2.149190E+0	2.115020E+0	2.089471E+0	2.089359E+0	2.128225E+0	2.014105E+0	2.078461E+0	2.019874E+0	2.089084E+0	2.061995E+0	2.097669E+0	2.140183E+0	2.126173E+0	2.065053E+0	2.022536E+0	2.149316E+0	2.028661E+0	2.050219E+0	2.084393E+0	2.138833E+0	2.070574E+0	2.050229E+0	2.063786E+0	2.102231E+0	2.066785E+0	2.065013E+0	2.091033E+0	2.054981E+0	2.071509E+0	1.991617E+0	2.032618E+0	2.094706E+0	2.169007E+0	2.040040E+0	2.076817E+0	2.072507E+0	2.111353E+0	2.021999E+0	2.091277E+0	2.029791E+0	2.169209E+0	2.043051E+0	2.065354E+0	2.076996E+0	2.074573E+0	2.053303E+0	2.022242E+0	2.078504E+0	2.094460E+0	2.090985E+0	2.125058E+0	2.024545E+0	2.106380E+0	2.047953E+0	2.129204E+0	1.991545E+0	2.072392E+0	2.001827E+0	2.048874E+0	2.040251E+0	2.033680E+0	2.049290E+0	2.058470E+0	2.013489E+0	2.018537E+0	2.037088E+0	2.032946E+0	2.003282E+0	2.032323E+0	2.063320E+0	2.053518E+0	2.047691E+0	2.082033E+0	2.066321E+0	2.049153E+0	2.131909E+0	2.079771E+0	2.076074E+0	1.997780E+0	2.050512E+0	2.049404E+0	1.994397E+0	2.008309E+0	2.007678E+0	2.125706E+0	2.009984E+0	2.045067E+0	2.080180E+0	2.061286E+0	1.935164E+0	2.085668E+0	2.016834E+0	2.109030E+0	1.978868E+0	1.994950E+0	2.063114E+0	1.997615E+0	1.999549E+0	1.906252E+0	2.084779E+0	2.053607E+0	2.032759E+0	1.997764E+0	2.072564E+0	2.035877E+0	1.990859E+0	2.063427E+0	2.089388E+0	2.055565E+0	2.006338E+0	2.066672E+0	2.038883E+0	2.107679E+0	2.016170E+0	2.046976E+0	2.013265E+0	2.083025E+0	2.115935E+0	2.062061E+0	2.056554E+0	2.034316E+0	1.970832E+0	2.034425E+0	2.036750E+0	1.938968E+0	1.948324E+0	1.963824E+0	2.044475E+0	2.063453E+0	2.020997E+0	1.983802E+0	1.975843E+0	2.122174E+0	2.029572E+0	2.061007E+0	1.997683E+0	2.009678E+0	1.972491E+0	2.000935E+0	2.060574E+0	1.983024E+0	2.010304E+0	1.977584E+0	1.981351E+0	1.920833E+0
5.397860E+2	2.100304E+0	2.078664E+0	2.071485E+0	2.096542E+0	2.012864E+0	2.077973E+0	2.098017E+0	2.045525E+0	2.038216E+0	2.133325E+0	2.105415E+0	2.059897E+0	2.152688E+0	2.110776E+0	2.092816E+0	2.055659E+0	2.109603E+0	2.029604E+0	2.068178E+0	2.032589E+0	2.131857E+0	2.117222E+0	2.047593E+0	2.067894E+0	2.109522E+0	2.037419E+0	2.054446E+0	2.033152E+0	2.104637E+0	2.052235E+0	2.047822E+0	1.990325E+0	2.126445E+0	2.052848E+0	2.054937E+0	2.088222E+0	2.072933E+0	2.034392E+0	2.024410E+0	2.063294E+0	2.130511E+0	2.118198E+0	2.117289E+0	2.025516E+0	2.180683E+0	2.068967E+0	2.111968E+0	2.068906E+0	2.001276E+0	2.116244E+0	2.110437E+0	2.072045E+0	2.079662E+0	2.126504E+0	2.045415E+0	2.013449E+0	2.080153E+0	2.112485E+0	2.123576E+0	2.037517E+0	2.039270E+0	2.099685E+0	2.035747E+0	2.081752E+0	2.040045E+0	2.096487E+0	2.022238E+0	2.156244E+0	2.076198E+0	2.041423E+0	2.065244E+0	2.022260E+0	2.089491E+0	2.075265E+0	2.087002E+0	2.033520E+0	2.010835E+0	2.003783E+0	2.069223E+0	2.027381E+0	2.066057E+0	2.045545E+0	2.081991E+0	2.055267E+0	2.023539E+0	2.026003E+0	2.073511E+0	1.998043E+0	2.097698E+0	2.065420E+0	2.081147E+0	2.019084E+0	2.049441E+0	1.989236E+0	2.143579E+0	2.063714E+0	2.085051E+0	2.077643E+0	2.021633E+0	2.033617E+0	1.998607E+0	2.122815E+0	1.999012E+0	1.987085E+0	2.073488E+0	2.058338E+0	2.013849E+0	1.970714E+0	2.037696E+0	2.034477E+0	2.029640E+0	2.045165E+0	2.044626E+0	2.021905E+0	1.957363E+0	1.992654E+0	2.039366E+0	2.039692E+0	1.959010E+0	2.000491E+0	2.034467E+0	2.082722E+0	1.974845E+0	1.866432E+0	1.972567E+0	2.008458E+0	1.916981E+0	2.039134E+0	2.023440E+0	2.060511E+0	2.028648E+0	2.064530E+0	2.085245E+0	2.025780E+0	1.994443E+0	2.026617E+0	2.014239E+0	2.050883E+0	2.074904E+0	2.010216E+0	1.973908E+0	2.075021E+0	2.027466E+0	1.983585E+0	1.988500E+0	2.003208E+0	1.976613E+0	2.004900E+0	2.015673E+0	1.934142E+0	1.937431E+0	1.968917E+0	2.021940E+0	2.029459E+0	1.909240E+0	1.991855E+0	2.034693E+0	1.995795E+0	2.027661E+0	2.084344E+0	1.985056E+0	1.967162E+0	1.943699E+0	1.941891E+0	2.059056E+0	1.942423E+0	1.971011E+0	1.950851E+0	1.984187E+0	1.992823E+0
5.400240E+2	2.006593E+0	2.058325E+0	2.034650E+0	2.034593E+0	1.944139E+0	2.055014E+0	1.987045E+0	2.074705E+0	2.017289E+0	2.059413E+0	2.003983E+0	2.009170E+0	1.987664E+0	2.168860E+0	2.046627E+0	2.048294E+0	2.024673E+0	2.063126E+0	2.047738E+0	1.996733E+0	1.993856E+0	1.987375E+0	1.988872E+0	1.925279E+0	2.039414E+0	2.000262E+0	2.037527E+0	2.022093E+0	1.975474E+0	1.981061E+0	1.961827E+0	1.991955E+0	1.974749E+0	2.020227E+0	2.064065E+0	2.058565E+0	1.971732E+0	2.065994E+0	1.973268E+0	1.958702E+0	2.030950E+0	1.989720E+0	1.959480E+0	1.964335E+0	2.057083E+0	2.014652E+0	2.084414E+0	1.969629E+0	2.007863E+0	2.023139E+0	2.044070E+0	1.999787E+0	2.036898E+0	2.029875E+0	1.955857E+0	1.989528E+0	2.004909E+0	2.034485E+0	1.911006E+0	1.943202E+0	1.996359E+0	2.067287E+0	2.020748E+0	1.963553E+0	2.028892E+0	2.027369E+0	1.935552E+0	2.076794E+0	2.078484E+0	1.988630E+0	1.967971E+0	1.933193E+0	2.020397E+0	2.000512E+0	1.969702E+0	2.004767E+0	1.957202E+0	2.011235E+0	2.007110E+0	1.996859E+0	1.963287E+0	1.935692E+0	1.983191E+0	1.974740E+0	2.009929E+0	1.976549E+0	1.948918E+0	1.984553E+0	2.009282E+0	1.971900E+0	1.970264E+0	1.911220E+0	1.983618E+0	1.892634E+0	2.020446E+0	1.985141E+0	1.944866E+0	2.020951E+0	1.983122E+0	2.021114E+0	1.984687E+0	2.030463E+0	1.965240E+0	1.955647E+0	1.953005E+0	1.919010E+0	1.947023E+0	1.942685E+0	1.903254E+0	1.984805E+0	1.980646E+0	1.936458E+0	2.040723E+0	2.023721E+0	1.889642E+0	1.976955E+0	1.941519E+0	1.996771E+0	1.970953E+0	1.888647E+0	1.971468E+0	1.950630E+0	2.016598E+0	1.863496E+0	1.911116E+0	1.930031E+0	1.929063E+0	1.955663E+0	1.998588E+0	1.999554E+0	1.906976E+0	2.005174E+0	1.977754E+0	2.008013E+0	1.905012E+0	1.933131E+0	1.926031E+0	1.984509E+0	1.934380E+0	1.972685E+0	1.967111E+0	1.977164E+0	1.929507E+0	1.954692E+0	1.960823E+0	1.946399E+0	1.936790E+0	1.962067E+0	1.934167E+0	1.918945E+0	1.943063E+0	1.914286E+0	1.970268E+0	1.989092E+0	1.933080E+0	1.903949E+0	1.998040E+0	1.998135E+0	1.964126E+0	1.974489E+0	1.983612E+0	1.884406E+0	1.869993E+0	1.956090E+0	1.969410E+0	1.936290E+0	1.904146E+0	1.967470E+0	1.964890E+0	1.905482E+0
5.402790E+2	1.923522E+0	1.864328E+0	1.873320E+0	1.908137E+0	1.842081E+0	1.844922E+0	1.848744E+0	1.926495E+0	1.918962E+0	1.915021E+0	1.899154E+0	1.850757E+0	1.861523E+0	1.908936E+0	1.873952E+0	1.830864E+0	1.816420E+0	1.901475E+0	1.864716E+0	1.838315E+0	1.905683E+0	1.882585E+0	1.891341E+0	1.855466E+0	1.840872E+0	1.924094E+0	1.901387E+0	1.798198E+0	1.836185E+0	1.939571E+0	1.885615E+0	1.828643E+0	1.863025E+0	1.904865E+0	1.884262E+0	1.870400E+0	1.869707E+0	1.803458E+0	1.896231E+0	1.859793E+0	1.861951E+0	1.809629E+0	1.841171E+0	1.819350E+0	1.866216E+0	1.916025E+0	1.922212E+0	1.897030E+0	1.821573E+0	1.940916E+0	1.879778E+0	1.830834E+0	1.852015E+0	1.873647E+0	1.843205E+0	1.847628E+0	1.844125E+0	1.907188E+0	1.851618E+0	1.857602E+0	1.825246E+0	1.878341E+0	1.882583E+0	1.890301E+0	1.857095E+0	1.893180E+0	1.772143E+0	1.902575E+0	1.899094E+0	1.868590E+0	1.849489E+0	1.827178E+0	1.842570E+0	1.867175E+0	1.862145E+0	1.912226E+0	1.859811E+0	1.899286E+0	1.852042E+0	1.823783E+0	1.806607E+0	1.833531E+0	1.813135E+0	1.860383E+0	1.938154E+0	1.854117E+0	1.834518E+0	1.856485E+0	1.860683E+0	1.863276E+0	1.858061E+0	1.849554E+0	1.887113E+0	1.862191E+0	1.873747E+0	1.811796E+0	1.897591E+0	1.833533E+0	1.882071E+0	1.896921E+0	1.853620E+0	1.905797E+0	1.765024E+0	1.808574E+0	1.823650E+0	1.784506E+0	1.841271E+0	1.816075E+0	1.881734E+0	1.925810E+0	1.796205E+0	1.801158E+0	1.896581E+0	1.858350E+0	1.808240E+0	1.835797E+0	1.857618E+0	1.875860E+0	1.788722E+0	1.787129E+0	1.808774E+0	1.787067E+0	1.850374E+0	1.736295E+0	1.878252E+0	1.835120E+0	1.797567E+0	1.838109E+0	1.910600E+0	1.876338E+0	1.874451E+0	1.828509E+0	1.849554E+0	1.865424E+0	1.801042E+0	1.859423E+0	1.780958E+0	1.852637E+0	1.834864E+0	1.836759E+0	1.876776E+0	1.816194E+0	1.829001E+0	1.837226E+0	1.825863E+0	1.810748E+0	1.792139E+0	1.772916E+0	1.852777E+0	1.798496E+0	1.833708E+0	1.795431E+0	1.824871E+0	1.839427E+0	1.725831E+0	1.764256E+0	1.855216E+0	1.825855E+0	1.893641E+0	1.856502E+0	1.845662E+0	1.835708E+0	1.867452E+0	1.819399E+0	1.847329E+0	1.786166E+0	1.787012E+0	1.825512E+0	1.809744E+0	1.807375E+0
5.405130E+2	1.771346E+0	1.865145E+0	1.834585E+0	1.871006E+0	1.803621E+0	1.890395E+0	1.761834E+0	1.821771E+0	1.843691E+0	1.828386E+0	1.811693E+0	1.807901E+0	1.801357E+0	1.786633E+0	1.833987E+0	1.848825E+0	1.744473E+0	1.805859E+0	1.850711E+0	1.769517E+0	1.800021E+0	1.847328E+0	1.846285E+0	1.802769E+0	1.899023E+0	1.858420E+0	1.828128E+0	1.813571E+0	1.807500E+0	1.858121E+0	1.849496E+0	1.786830E+0	1.770225E+0	1.846302E+0	1.803654E+0	1.793262E+0	1.836780E+0	1.809770E+0	1.775326E+0	1.756537E+0	1.857177E+0	1.759682E+0	1.798269E+0	1.777038E+0	1.830084E+0	1.833218E+0	1.826396E+0	1.762108E+0	1.759156E+0	1.824423E+0	1.798836E+0	1.840636E+0	1.819981E+0	1.869044E+0	1.782911E+0	1.788302E+0	1.837105E+0	1.855454E+0	1.792421E+0	1.787310E+0	1.797823E+0	1.874419E+0	1.816242E+0	1.812104E+0	1.806321E+0	1.774002E+0	1.823983E+0	1.798067E+0	1.847895E+0	1.790001E+0	1.833478E+0	1.757145E+0	1.859044E+0	1.780956E+0	1.769463E+0	1.836613E+0	1.756339E+0	1.785625E+0	1.790086E+0	1.818601E+0	1.747390E+0	1.793084E+0	1.824794E+0	1.772404E+0	1.838583E+0	1.799247E+0	1.807640E+0	1.783192E+0	1.808221E+0	1.775340E+0	1.779197E+0	1.808522E+0	1.806215E+0	1.830608E+0	1.773985E+0	1.824572E+0	1.822114E+0	1.810527E+0	1.815357E+0	1.826472E+0	1.768289E+0	1.796648E+0	1.808089E+0	1.750763E+0	1.794493E+0	1.824103E+0	1.712740E+0	1.784990E+0	1.794111E+0	1.858008E+0	1.721224E+0	1.684338E+0	1.830549E+0	1.840647E+0	1.663211E+0	1.748043E+0	1.801686E+0	1.800185E+0	1.754570E+0	1.779151E+0	1.823277E+0	1.721946E+0	1.798382E+0	1.754445E+0	1.768771E+0	1.761688E+0	1.759264E+0	1.768886E+0	1.806250E+0	1.845825E+0	1.828509E+0	1.797867E+0	1.821405E+0	1.798187E+0	1.820632E+0	1.736922E+0	1.783715E+0	1.820573E+0	1.749883E+0	1.816788E+0	1.781300E+0	1.758961E+0	1.762160E+0	1.738126E+0	1.788638E+0	1.738269E+0	1.779285E+0	1.790021E+0	1.786768E+0	1.785755E+0	1.716382E+0	1.797320E+0	1.790478E+0	1.780410E+0	1.777623E+0	1.748588E+0	1.803541E+0	1.794872E+0	1.819855E+0	1.747970E+0	1.723312E+0	1.777080E+0	1.819315E+0	1.783023E+0	1.841621E+0	1.748946E+0	1.752979E+0	1.709280E+0	1.782596E+0	1.763383E+0
5.407740E+2	1.715106E+0	1.783481E+0	1.764891E+0	1.840345E+0	1.736867E+0	1.761668E+0	1.709876E+0	1.760739E+0	1.749130E+0	1.759121E+0	1.744637E+0	1.743953E+0	1.709983E+0	1.745911E+0	1.774846E+0	1.752874E+0	1.720840E+0	1.710247E+0	1.808494E+0	1.720411E+0	1.737572E+0	1.706658E+0	1.741954E+0	1.746446E+0	1.731721E+0	1.747610E+0	1.767301E+0	1.694329E+0	1.726708E+0	1.802001E+0	1.705058E+0	1.736677E+0	1.712819E+0	1.745781E+0	1.739363E+0	1.726599E+0	1.694149E+0	1.734242E+0	1.722195E+0	1.746816E+0	1.764192E+0	1.733643E+0	1.725606E+0	1.729923E+0	1.748095E+0	1.735992E+0	1.777018E+0	1.799701E+0	1.697028E+0	1.812195E+0	1.695235E+0	1.744580E+0	1.743904E+0	1.730549E+0	1.704044E+0	1.725087E+0	1.719916E+0	1.782700E+0	1.733121E+0	1.799755E+0	1.667981E+0	1.753301E+0	1.759207E+0	1.780889E+0	1.709314E+0	1.731078E+0	1.663316E+0	1.728536E+0	1.724411E+0	1.739109E+0	1.686766E+0	1.712437E+0	1.702714E+0	1.728340E+0	1.710205E+0	1.733297E+0	1.697161E+0	1.776835E+0	1.683878E+0	1.792126E+0	1.730474E+0	1.718623E+0	1.755618E+0	1.706306E+0	1.786266E+0	1.723384E+0	1.739569E+0	1.732705E+0	1.777776E+0	1.750549E+0	1.717938E+0	1.711248E+0	1.726213E+0	1.777244E+0	1.761607E+0	1.709643E+0	1.709940E+0	1.723093E+0	1.734050E+0	1.744878E+0	1.754222E+0	1.794469E+0	1.722921E+0	1.733294E+0	1.728697E+0	1.642308E+0	1.662269E+0	1.678454E+0	1.735115E+0	1.726704E+0	1.712957E+0	1.731371E+0	1.740601E+0	1.738952E+0	1.700637E+0	1.704508E+0	1.713408E+0	1.746606E+0	1.686817E+0	1.701095E+0	1.678082E+0	1.694354E+0	1.695347E+0	1.669391E+0	1.679244E+0	1.661798E+0	1.678456E+0	1.702962E+0	1.738869E+0	1.755465E+0	1.723725E+0	1.670075E+0	1.685847E+0	1.718168E+0	1.701421E+0	1.751734E+0	1.691735E+0	1.744261E+0	1.745236E+0	1.708726E+0	1.674606E+0	1.759032E+0	1.762412E+0	1.716248E+0	1.736531E+0	1.746043E+0	1.690059E+0	1.717105E+0	1.745710E+0	1.668020E+0	1.681989E+0	1.715567E+0	1.664239E+0	1.673110E+0	1.645286E+0	1.670819E+0	1.704192E+0	1.695171E+0	1.712191E+0	1.640521E+0	1.637591E+0	1.744355E+0	1.697629E+0	1.712205E+0	1.778296E+0	1.612176E+0	1.675516E+0	1.720549E+0	1.672908E+0	1.629623E+0
5.410290E+2	1.731667E+0	1.710060E+0	1.652208E+0	1.714797E+0	1.678265E+0	1.710634E+0	1.690188E+0	1.663683E+0	1.725828E+0	1.780263E+0	1.708460E+0	1.736444E+0	1.663170E+0	1.702963E+0	1.704595E+0	1.680457E+0	1.713906E+0	1.667531E+0	1.644595E+0	1.631552E+0	1.707847E+0	1.684549E+0	1.659421E+0	1.677941E+0	1.713675E+0	1.684913E+0	1.690498E+0	1.646232E+0	1.674514E+0	1.735895E+0	1.614905E+0	1.694956E+0	1.707002E+0	1.656863E+0	1.630548E+0	1.753370E+0	1.783960E+0	1.697793E+0	1.662714E+0	1.727565E+0	1.692536E+0	1.699335E+0	1.691920E+0	1.700683E+0	1.668432E+0	1.694362E+0	1.684291E+0	1.689701E+0	1.752652E+0	1.712722E+0	1.656865E+0	1.684494E+0	1.704336E+0	1.694581E+0	1.658112E+0	1.668106E+0	1.671023E+0	1.737014E+0	1.692703E+0	1.651660E+0	1.678899E+0	1.712963E+0	1.648273E+0	1.667354E+0	1.603610E+0	1.705793E+0	1.705449E+0	1.744345E+0	1.774854E+0	1.712191E+0	1.601832E+0	1.675640E+0	1.709099E+0	1.748251E+0	1.705013E+0	1.720482E+0	1.660585E+0	1.620346E+0	1.677979E+0	1.689349E+0	1.679005E+0	1.657420E+0	1.695608E+0	1.668453E+0	1.728747E+0	1.655957E+0	1.678969E+0	1.668182E+0	1.722853E+0	1.664365E+0	1.668111E+0	1.660782E+0	1.711002E+0	1.767429E+0	1.735953E+0	1.676840E+0	1.658782E+0	1.681078E+0	1.702309E+0	1.707018E+0	1.683734E+0	1.717264E+0	1.673714E+0	1.637984E+0	1.640213E+0	1.671065E+0	1.735360E+0	1.670716E+0	1.612356E+0	1.674127E+0	1.643186E+0	1.664047E+0	1.714079E+0	1.650036E+0	1.665311E+0	1.656744E+0	1.677687E+0	1.707220E+0	1.668822E+0	1.616440E+0	1.688201E+0	1.651042E+0	1.667249E+0	1.586411E+0	1.597046E+0	1.647819E+0	1.605718E+0	1.693109E+0	1.688050E+0	1.657685E+0	1.693240E+0	1.633919E+0	1.701440E+0	1.659682E+0	1.666147E+0	1.665634E+0	1.635795E+0	1.671050E+0	1.661424E+0	1.678890E+0	1.684679E+0	1.703980E+0	1.666964E+0	1.707940E+0	1.615255E+0	1.673622E+0	1.649099E+0	1.693523E+0	1.669692E+0	1.679788E+0	1.674282E+0	1.628320E+0	1.650758E+0	1.679605E+0	1.637514E+0	1.655958E+0	1.649121E+0	1.692902E+0	1.684908E+0	1.685655E+0	1.600545E+0	1.622515E+0	1.599213E+0	1.655755E+0	1.747145E+0	1.650536E+0	1.644894E+0	1.602874E+0	1.591536E+0	1.650855E+0
5.412850E+2	1.556913E+0	1.546927E+0	1.592642E+0	1.577685E+0	1.532195E+0	1.565779E+0	1.597891E+0	1.543938E+0	1.549317E+0	1.628046E+0	1.554148E+0	1.581230E+0	1.537616E+0	1.577417E+0	1.569438E+0	1.575981E+0	1.484056E+0	1.538702E+0	1.552628E+0	1.613307E+0	1.570435E+0	1.565177E+0	1.555512E+0	1.537052E+0	1.610671E+0	1.578301E+0	1.549872E+0	1.524836E+0	1.575180E+0	1.573873E+0	1.542555E+0	1.526415E+0	1.504876E+0	1.566052E+0	1.560869E+0	1.553445E+0	1.658071E+0	1.576932E+0	1.563825E+0	1.603845E+0	1.584931E+0	1.544767E+0	1.586380E+0	1.588749E+0	1.561196E+0	1.569019E+0	1.557754E+0	1.523708E+0	1.538303E+0	1.594633E+0	1.555233E+0	1.581770E+0	1.577591E+0	1.548315E+0	1.544015E+0	1.499699E+0	1.526283E+0	1.616106E+0	1.549922E+0	1.546462E+0	1.528867E+0	1.600193E+0	1.568991E+0	1.572507E+0	1.564380E+0	1.646990E+0	1.498917E+0	1.588508E+0	1.610682E+0	1.595349E+0	1.574967E+0	1.547544E+0	1.602487E+0	1.505501E+0	1.561847E+0	1.602591E+0	1.538673E+0	1.625477E+0	1.558112E+0	1.606689E+0	1.505630E+0	1.548137E+0	1.546548E+0	1.566431E+0	1.562734E+0	1.521303E+0	1.564921E+0	1.542034E+0	1.583738E+0	1.529377E+0	1.593673E+0	1.552047E+0	1.555519E+0	1.503506E+0	1.579665E+0	1.557234E+0	1.561913E+0	1.512714E+0	1.611786E+0	1.553661E+0	1.503261E+0	1.624642E+0	1.526441E+0	1.530218E+0	1.522708E+0	1.545198E+0	1.541233E+0	1.545547E+0	1.557932E+0	1.500167E+0	1.565101E+0	1.523207E+0	1.570545E+0	1.551968E+0	1.512976E+0	1.506483E+0	1.520415E+0	1.583108E+0	1.493429E+0	1.498944E+0	1.565428E+0	1.572611E+0	1.486794E+0	1.464871E+0	1.469816E+0	1.548844E+0	1.475803E+0	1.497544E+0	1.565013E+0	1.598529E+0	1.487871E+0	1.530974E+0	1.542794E+0	1.554313E+0	1.541454E+0	1.574742E+0	1.525455E+0	1.557729E+0	1.507727E+0	1.532706E+0	1.504909E+0	1.572663E+0	1.534079E+0	1.581034E+0	1.537053E+0	1.564969E+0	1.503901E+0	1.568528E+0	1.576144E+0	1.537253E+0	1.538470E+0	1.538610E+0	1.523254E+0	1.524379E+0	1.512229E+0	1.503890E+0	1.479515E+0	1.584971E+0	1.643005E+0	1.526676E+0	1.479226E+0	1.573339E+0	1.506464E+0	1.591368E+0	1.586479E+0	1.511989E+0	1.475446E+0	1.466583E+0	1.518782E+0	1.444798E+0
5.415140E+2	1.404629E+0	1.395313E+0	1.422276E+0	1.435112E+0	1.382659E+0	1.427131E+0	1.404982E+0	1.433969E+0	1.377279E+0	1.379890E+0	1.372832E+0	1.365911E+0	1.388430E+0	1.428552E+0	1.394970E+0	1.399334E+0	1.386721E+0	1.432133E+0	1.430697E+0	1.404780E+0	1.375236E+0	1.382875E+0	1.375001E+0	1.378132E+0	1.459458E+0	1.382448E+0	1.370997E+0	1.380615E+0	1.432786E+0	1.490084E+0	1.386789E+0	1.430160E+0	1.398561E+0	1.410010E+0	1.412591E+0	1.404080E+0	1.429441E+0	1.370590E+0	1.370803E+0	1.422183E+0	1.421949E+0	1.387449E+0	1.487823E+0	1.391022E+0	1.400318E+0	1.436447E+0	1.435046E+0	1.454643E+0	1.331047E+0	1.446246E+0	1.343769E+0	1.378024E+0	1.462543E+0	1.438278E+0	1.417049E+0	1.348820E+0	1.431932E+0	1.465461E+0	1.335679E+0	1.363280E+0	1.410813E+0	1.404345E+0	1.404434E+0	1.388013E+0	1.384418E+0	1.377463E+0	1.366435E+0	1.500916E+0	1.436460E+0	1.446630E+0	1.422384E+0	1.414925E+0	1.423544E+0	1.396950E+0	1.452953E+0	1.336322E+0	1.379426E+0	1.442077E+0	1.396042E+0	1.371812E+0	1.448314E+0	1.367566E+0	1.391827E+0	1.413083E+0	1.419414E+0	1.378162E+0	1.383350E+0	1.394678E+0	1.440950E+0	1.396672E+0	1.413723E+0	1.434280E+0	1.401942E+0	1.406062E+0	1.394271E+0	1.442292E+0	1.385824E+0	1.403239E+0	1.440766E+0	1.424959E+0	1.421914E+0	1.444247E+0	1.420062E+0	1.362892E+0	1.396813E+0	1.379329E+0	1.362846E+0	1.438734E+0	1.384080E+0	1.446197E+0	1.380628E+0	1.413370E+0	1.367672E+0	1.453855E+0	1.391880E+0	1.379477E+0	1.396160E+0	1.418455E+0	1.362994E+0	1.356046E+0	1.433719E+0	1.401481E+0	1.418164E+0	1.310242E+0	1.356677E+0	1.385165E+0	1.340392E+0	1.409308E+0	1.381852E+0	1.473341E+0	1.459457E+0	1.368996E+0	1.418816E+0	1.383226E+0	1.431746E+0	1.443900E+0	1.376075E+0	1.392832E+0	1.406049E+0	1.437540E+0	1.366036E+0	1.446996E+0	1.439714E+0	1.352719E+0	1.346419E+0	1.391705E+0	1.416173E+0	1.392081E+0	1.431652E+0	1.351049E+0	1.305131E+0	1.393244E+0	1.363629E+0	1.362157E+0	1.355062E+0	1.377783E+0	1.366263E+0	1.362257E+0	1.399831E+0	1.440802E+0	1.353697E+0	1.405321E+0	1.434365E+0	1.368817E+0	1.386663E+0	1.322661E+0	1.422029E+0	1.323732E+0	1.394092E+0	1.325152E+0
5.417760E+2	1.189887E+0	1.139419E+0	1.240536E+0	1.241175E+0	1.163780E+0	1.191286E+0	1.204276E+0	1.226403E+0	1.205843E+0	1.264865E+0	1.159852E+0	1.210569E+0	1.137354E+0	1.228400E+0	1.228366E+0	1.160365E+0	1.195824E+0	1.160619E+0	1.218009E+0	1.170760E+0	1.220267E+0	1.289857E+0	1.213767E+0	1.259980E+0	1.251271E+0	1.174186E+0	1.235262E+0	1.148450E+0	1.200258E+0	1.241230E+0	1.154693E+0	1.166762E+0	1.179245E+0	1.210870E+0	1.207678E+0	1.173806E+0	1.191032E+0	1.252842E+0	1.186499E+0	1.175659E+0	1.230324E+0	1.159842E+0	1.251533E+0	1.205687E+0	1.186981E+0	1.215440E+0	1.191400E+0	1.212340E+0	1.141346E+0	1.252127E+0	1.207951E+0	1.186270E+0	1.212187E+0	1.166122E+0	1.212711E+0	1.199964E+0	1.185590E+0	1.244856E+0	1.194798E+0	1.195421E+0	1.229941E+0	1.184444E+0	1.188759E+0	1.233722E+0	1.161283E+0	1.221891E+0	1.175473E+0	1.262067E+0	1.235408E+0	1.273299E+0	1.172539E+0	1.152843E+0	1.216368E+0	1.194821E+0	1.205019E+0	1.186323E+0	1.183057E+0	1.195345E+0	1.195432E+0	1.200570E+0	1.215871E+0	1.215630E+0	1.229874E+0	1.209710E+0	1.222041E+0	1.153435E+0	1.207923E+0	1.176769E+0	1.208096E+0	1.174157E+0	1.158835E+0	1.183061E+0	1.200629E+0	1.213450E+0	1.229930E+0	1.214195E+0	1.185058E+0	1.227079E+0	1.256886E+0	1.190052E+0	1.176395E+0	1.232141E+0	1.195287E+0	1.154167E+0	1.189093E+0	1.204187E+0	1.206393E+0	1.188417E+0	1.161809E+0	1.232239E+0	1.162585E+0	1.197107E+0	1.184965E+0	1.162730E+0	1.152114E+0	1.155687E+0	1.211083E+0	1.180867E+0	1.171513E+0	1.209961E+0	1.218704E+0	1.162097E+0	1.162068E+0	1.160983E+0	1.144517E+0	1.170314E+0	1.199180E+0	1.181600E+0	1.219953E+0	1.238373E+0	1.190870E+0	1.203260E+0	1.236006E+0	1.224350E+0	1.163267E+0	1.219363E+0	1.136755E+0	1.171136E+0	1.209675E+0	1.196560E+0	1.194446E+0	1.269292E+0	1.198799E+0	1.208293E+0	1.153057E+0	1.203103E+0	1.210016E+0	1.183616E+0	1.238367E+0	1.161550E+0	1.154172E+0	1.198419E+0	1.227022E+0	1.209169E+0	1.181664E+0	1.173298E+0	1.145840E+0	1.211344E+0	1.206695E+0	1.228937E+0	1.162455E+0	1.176727E+0	1.170236E+0	1.203242E+0	1.162188E+0	1.144349E+0	1.144680E+0	1.163196E+0	1.215649E+0	1.217934E+0
5.420320E+2	1.060056E+0	1.028334E+0	1.048499E+0	1.057375E+0	1.019374E+0	1.094206E+0	1.048126E+0	1.036714E+0	1.030852E+0	1.071723E+0	1.081081E+0	1.045616E+0	9.888904E-1	1.011257E+0	1.086752E+0	1.038770E+0	1.035344E+0	1.072534E+0	1.057923E+0	1.080823E+0	1.084252E+0	1.036304E+0	1.060232E+0	1.078936E+0	1.044972E+0	1.055302E+0	1.054592E+0	1.030134E+0	1.055714E+0	1.062642E+0	1.089810E+0	1.031903E+0	1.024349E+0	1.039482E+0	1.014285E+0	1.052368E+0	1.065252E+0	1.060475E+0	1.024487E+0	1.004906E+0	1.090838E+0	1.039116E+0	1.044820E+0	1.073202E+0	1.083370E+0	1.028992E+0	1.063346E+0	1.058309E+0	1.023682E+0	1.058713E+0	1.085551E+0	1.055099E+0	1.063576E+0	1.050623E+0	1.018970E+0	1.060962E+0	9.983688E-1	1.094668E+0	1.066411E+0	1.046805E+0	1.074850E+0	1.111264E+0	1.050240E+0	1.110883E+0	1.020190E+0	1.081154E+0	1.050195E+0	1.067060E+0	1.109301E+0	1.040286E+0	1.036831E+0	1.058719E+0	1.039584E+0	1.037137E+0	1.033599E+0	1.096068E+0	1.035022E+0	1.065169E+0	1.059578E+0	1.078112E+0	1.026641E+0	1.097026E+0	1.043263E+0	1.060243E+0	1.031233E+0	1.053059E+0	1.053830E+0	1.044268E+0	1.058300E+0	1.012564E+0	1.028946E+0	1.057004E+0	1.049067E+0	1.076224E+0	1.083771E+0	1.057469E+0	1.039041E+0	1.117340E+0	1.104079E+0	1.087972E+0	1.085331E+0	1.074657E+0	1.059797E+0	1.059868E+0	1.075048E+0	1.049614E+0	1.076727E+0	1.063128E+0	1.030205E+0	1.089900E+0	1.059628E+0	1.031704E+0	1.101345E+0	1.031935E+0	1.022925E+0	9.916507E-1	1.060893E+0	1.064278E+0	1.037822E+0	1.033533E+0	1.061058E+0	1.019765E+0	1.051921E+0	1.043674E+0	1.053876E+0	1.026817E+0	1.016852E+0	1.045659E+0	1.057259E+0	1.043675E+0	1.038352E+0	1.049188E+0	1.070643E+0	1.034354E+0	1.055773E+0	1.045768E+0	1.054371E+0	1.065017E+0	1.042200E+0	1.026269E+0	1.016791E+0	1.048967E+0	1.052499E+0	1.072867E+0	1.052178E+0	1.032721E+0	1.055192E+0	1.059903E+0	1.077549E+0	1.066814E+0	1.005899E+0	1.119593E+0	1.097150E+0	1.140730E+0	1.020193E+0	1.036743E+0	1.044532E+0	1.025661E+0	1.070731E+0	1.059484E+0	1.023126E+0	1.100375E+0	1.054653E+0	1.105375E+0	1.094466E+0	1.069042E+0	1.062871E+0	1.041622E+0	1.097081E+0	1.001213E+0
5.422780E+2	9.395114E-1	1.007337E+0	9.498314E-1	9.770052E-1	9.508001E-1	9.670600E-1	9.505427E-1	9.472840E-1	9.348850E-1	9.519120E-1	9.338660E-1	9.467624E-1	9.259069E-1	9.855000E-1	9.755124E-1	9.933319E-1	8.878722E-1	1.017843E+0	9.616054E-1	9.215242E-1	9.597229E-1	9.556603E-1	9.853222E-1	9.627029E-1	9.571236E-1	9.487643E-1	9.744635E-1	9.255648E-1	9.995474E-1	9.495128E-1	9.626153E-1	9.779866E-1	9.437789E-1	9.391491E-1	9.688107E-1	9.860365E-1	9.845928E-1	9.771994E-1	9.735943E-1	9.378038E-1	9.761325E-1	9.490876E-1	9.538019E-1	9.341934E-1	9.761823E-1	9.336779E-1	9.775782E-1	9.700760E-1	9.737827E-1	9.810042E-1	1.000350E+0	9.656179E-1	9.797286E-1	9.660559E-1	9.687326E-1	9.770143E-1	9.898118E-1	9.094522E-1	9.497251E-1	9.241190E-1	9.384919E-1	9.994383E-1	9.611513E-1	9.936993E-1	9.782989E-1	9.601801E-1	9.220852E-1	9.426652E-1	9.873555E-1	9.460667E-1	9.532547E-1	9.387242E-1	9.619975E-1	9.568419E-1	9.522251E-1	9.873705E-1	9.617007E-1	9.454936E-1	9.804414E-1	9.471797E-1	9.637250E-1	9.387867E-1	9.624528E-1	9.713403E-1	9.527961E-1	9.208513E-1	9.777106E-1	9.429249E-1	9.841489E-1	9.535024E-1	9.372700E-1	9.404880E-1	9.345356E-1	9.838745E-1	1.003764E+0	1.008651E+0	9.572293E-1	9.585543E-1	9.527212E-1	9.871564E-1	9.837742E-1	9.869094E-1	9.316163E-1	9.486226E-1	9.089242E-1	9.227044E-1	9.734672E-1	9.499447E-1	9.792061E-1	9.611541E-1	9.892439E-1	9.601851E-1	9.626525E-1	9.719710E-1	9.842142E-1	9.157527E-1	9.682369E-1	9.764156E-1	1.012175E+0	9.156760E-1	9.476625E-1	9.528589E-1	9.376257E-1	9.236305E-1	9.710202E-1	9.434246E-1	9.334214E-1	9.523962E-1	9.911232E-1	1.008268E+0	1.002837E+0	9.728446E-1	1.024951E+0	9.195507E-1	9.680544E-1	9.596577E-1	9.817164E-1	1.008305E+0	9.545405E-1	9.345970E-1	9.520166E-1	9.578621E-1	9.860848E-1	9.718095E-1	9.502534E-1	9.486481E-1	9.570015E-1	9.844949E-1	9.623032E-1	9.733200E-1	9.670217E-1	9.701457E-1	9.212133E-1	9.660693E-1	9.423667E-1	9.006281E-1	9.413809E-1	9.432046E-1	9.489845E-1	9.601003E-1	9.364631E-1	9.994087E-1	9.505797E-1	9.253543E-1	9.889738E-1	9.703317E-1	9.580366E-1	9.281457E-1	8.973771E-1	1.041036E+0
5.425400E+2	9.564763E-1	9.068451E-1	9.420847E-1	9.306531E-1	9.272843E-1	9.573669E-1	9.319247E-1	9.778516E-1	9.332518E-1	9.865287E-1	9.345298E-1	9.188950E-1	9.414314E-1	9.363153E-1	9.701963E-1	9.327061E-1	9.351834E-1	9.580994E-1	9.251965E-1	9.424732E-1	9.342895E-1	9.351692E-1	9.274972E-1	9.461933E-1	9.949089E-1	9.497792E-1	9.891471E-1	9.400503E-1	9.129865E-1	1.006121E+0	9.509504E-1	9.386091E-1	9.398486E-1	9.466254E-1	9.568616E-1	9.741955E-1	9.613142E-1	9.174128E-1	9.651201E-1	9.609635E-1	9.141344E-1	9.783988E-1	9.359840E-1	9.479696E-1	9.933046E-1	9.676713E-1	9.466805E-1	9.433215E-1	9.478251E-1	9.926684E-1	9.493963E-1	9.463128E-1	9.668862E-1	9.284240E-1	9.785187E-1	9.388368E-1	9.574680E-1	9.427732E-1	9.709946E-1	9.325346E-1	9.080586E-1	9.979471E-1	9.634110E-1	1.008157E+0	9.553299E-1	9.703917E-1	8.943060E-1	9.500784E-1	9.606222E-1	9.364793E-1	9.576239E-1	9.254580E-1	9.588934E-1	9.039049E-1	9.549608E-1	9.752837E-1	9.596934E-1	9.562606E-1	9.915749E-1	1.009247E+0	9.202994E-1	9.268770E-1	1.016477E+0	8.994715E-1	1.002040E+0	9.695622E-1	9.597540E-1	9.246319E-1	9.489610E-1	9.365529E-1	9.598421E-1	9.608992E-1	9.489465E-1	9.491945E-1	9.786842E-1	9.798896E-1	9.556467E-1	9.892308E-1	9.839264E-1	9.648319E-1	9.502487E-1	9.273747E-1	9.642024E-1	9.088418E-1	9.487965E-1	9.573567E-1	1.011817E+0	9.835310E-1	1.001129E+0	9.942898E-1	9.454471E-1	9.909838E-1	1.006046E+0	9.166209E-1	9.381944E-1	9.819565E-1	9.793222E-1	9.625714E-1	9.425927E-1	9.391389E-1	9.247618E-1	9.628229E-1	9.518555E-1	9.313197E-1	9.149469E-1	9.589207E-1	9.897121E-1	1.002790E+0	9.657915E-1	9.857194E-1	9.508631E-1	9.420412E-1	9.638748E-1	9.587977E-1	9.730975E-1	9.590585E-1	9.330122E-1	9.706941E-1	9.663926E-1	9.535019E-1	9.467391E-1	9.454484E-1	9.829268E-1	9.636180E-1	9.550115E-1	9.253050E-1	9.576878E-1	9.914130E-1	9.615312E-1	9.795284E-1	9.130747E-1	9.342212E-1	9.636223E-1	9.433660E-1	9.313792E-1	9.493955E-1	9.648421E-1	1.020689E+0	1.001767E+0	9.962370E-1	9.470933E-1	9.069736E-1	9.728098E-1	9.382756E-1	9.982939E-1	9.982164E-1	9.705706E-1	9.413433E-1	9.748597E-1	9.652605E-1
5.427650E+2	1.030868E+0	1.001534E+0	9.752122E-1	1.043165E+0	9.977928E-1	1.022641E+0	9.979362E-1	1.023401E+0	9.681978E-1	1.004589E+0	1.016184E+0	9.870658E-1	9.898035E-1	1.018004E+0	1.022773E+0	9.945804E-1	9.726991E-1	9.455669E-1	9.866552E-1	9.686070E-1	1.077244E+0	1.027344E+0	9.946711E-1	1.005459E+0	9.761728E-1	1.006177E+0	9.863861E-1	1.001251E+0	1.048605E+0	9.909195E-1	1.007999E+0	1.005260E+0	9.763820E-1	1.008436E+0	9.976507E-1	1.004870E+0	1.015253E+0	1.020005E+0	9.943978E-1	1.033963E+0	9.834823E-1	9.739798E-1	1.028746E+0	9.988415E-1	1.060940E+0	1.005772E+0	1.031473E+0	1.030842E+0	1.020565E+0	1.021701E+0	9.800991E-1	1.015401E+0	1.068506E+0	1.023013E+0	1.012913E+0	9.647560E-1	1.007801E+0	1.024786E+0	1.002169E+0	1.025727E+0	9.826589E-1	1.005815E+0	1.013883E+0	1.025157E+0	9.968165E-1	1.020854E+0	9.956483E-1	1.065008E+0	1.057815E+0	1.014921E+0	9.810668E-1	1.036808E+0	1.017976E+0	9.677230E-1	9.822044E-1	1.083088E+0	9.667488E-1	9.579655E-1	1.026914E+0	1.049578E+0	1.023730E+0	9.991734E-1	1.061319E+0	9.628430E-1	1.029381E+0	1.012915E+0	9.896106E-1	1.012983E+0	1.015477E+0	1.014283E+0	1.023704E+0	1.016880E+0	9.985473E-1	1.013744E+0	1.073403E+0	1.024098E+0	1.000848E+0	1.026066E+0	1.010303E+0	1.049434E+0	9.931318E-1	1.030860E+0	1.040802E+0	9.668319E-1	9.658281E-1	9.837375E-1	9.867579E-1	9.600471E-1	1.003800E+0	1.029559E+0	1.021808E+0	9.984853E-1	9.983474E-1	9.856097E-1	1.020988E+0	1.040367E+0	1.014201E+0	1.034508E+0	1.058528E+0	1.005996E+0	9.952587E-1	1.004422E+0	9.846132E-1	9.677823E-1	1.016665E+0	1.024434E+0	9.744014E-1	1.016789E+0	1.051589E+0	1.035561E+0	9.973951E-1	9.795264E-1	1.044676E+0	1.016918E+0	1.022463E+0	1.053649E+0	1.033888E+0	9.803199E-1	1.007260E+0	9.827589E-1	1.003520E+0	9.621451E-1	9.947818E-1	1.006980E+0	9.951671E-1	9.408015E-1	1.013926E+0	9.946936E-1	1.008188E+0	1.002776E+0	9.571650E-1	1.006612E+0	9.758619E-1	1.019114E+0	9.887559E-1	9.746130E-1	9.635719E-1	1.013381E+0	1.025020E+0	1.049577E+0	9.935323E-1	9.985976E-1	1.019940E+0	1.038133E+0	1.001071E+0	9.968184E-1	1.028272E+0	1.000472E+0	1.003870E+0	9.383119E-1
5.430170E+2	1.112267E+0	1.118388E+0	1.144645E+0	1.203633E+0	1.135589E+0	1.163162E+0	1.122278E+0	1.136848E+0	1.119560E+0	1.181383E+0	1.198840E+0	1.147389E+0	1.126001E+0	1.080972E+0	1.182596E+0	1.160354E+0	1.102567E+0	1.169099E+0	1.198104E+0	1.118851E+0	1.149101E+0	1.139987E+0	1.146440E+0	1.180837E+0	1.162268E+0	1.143822E+0	1.172520E+0	1.178970E+0	1.135898E+0	1.169108E+0	1.150890E+0	1.174759E+0	1.137546E+0	1.082720E+0	1.140974E+0	1.135291E+0	1.167598E+0	1.152510E+0	1.115834E+0	1.120772E+0	1.165368E+0	1.093183E+0	1.134780E+0	1.129042E+0	1.122377E+0	1.141386E+0	1.129610E+0	1.082474E+0	1.105675E+0	1.147067E+0	1.149911E+0	1.144444E+0	1.131048E+0	1.102683E+0	1.115108E+0	1.115415E+0	1.136302E+0	1.180321E+0	1.142464E+0	1.134543E+0	1.135760E+0	1.161422E+0	1.125480E+0	1.201230E+0	1.179351E+0	1.133416E+0	1.116273E+0	1.177482E+0	1.177535E+0	1.158894E+0	1.123753E+0	1.109012E+0	1.139108E+0	1.126621E+0	1.191423E+0	1.207332E+0	1.132056E+0	1.116642E+0	1.172684E+0	1.186569E+0	1.103969E+0	1.135111E+0	1.139563E+0	1.126141E+0	1.180862E+0	1.129142E+0	1.161351E+0	1.146693E+0	1.142164E+0	1.126621E+0	1.153729E+0	1.106281E+0	1.088230E+0	1.083259E+0	1.138794E+0	1.175214E+0	1.154746E+0	1.185053E+0	1.176552E+0	1.170103E+0	1.178998E+0	1.171787E+0	1.105162E+0	1.145732E+0	1.143345E+0	1.080974E+0	1.102558E+0	1.119535E+0	1.122749E+0	1.117612E+0	1.132089E+0	1.101010E+0	1.137938E+0	1.160915E+0	1.101983E+0	1.134375E+0	1.122989E+0	1.174043E+0	1.130536E+0	1.124013E+0	1.097753E+0	1.141985E+0	1.134216E+0	1.133446E+0	1.118760E+0	1.102015E+0	1.101625E+0	1.076929E+0	1.128442E+0	1.154070E+0	1.144130E+0	1.131323E+0	1.169220E+0	1.164940E+0	1.126493E+0	1.152617E+0	1.132656E+0	1.152683E+0	1.142052E+0	1.163858E+0	1.168802E+0	1.115479E+0	1.144117E+0	1.162199E+0	1.145972E+0	1.142522E+0	1.136233E+0	1.112459E+0	1.101385E+0	1.146402E+0	1.101508E+0	1.062191E+0	1.083000E+0	1.101544E+0	1.144417E+0	1.171899E+0	1.128200E+0	1.177904E+0	1.215763E+0	1.115036E+0	1.114857E+0	1.163952E+0	1.153820E+0	1.148422E+0	1.168944E+0	1.077859E+0	1.144259E+0	1.155750E+0	1.146351E+0	1.076852E+0
5.432800E+2	1.288342E+0	1.332240E+0	1.304522E+0	1.283809E+0	1.288084E+0	1.284103E+0	1.317405E+0	1.353044E+0	1.311702E+0	1.350721E+0	1.345342E+0	1.320516E+0	1.281177E+0	1.327969E+0	1.309189E+0	1.266286E+0	1.351603E+0	1.264441E+0	1.317173E+0	1.300771E+0	1.290331E+0	1.338858E+0	1.346303E+0	1.317902E+0	1.326294E+0	1.328416E+0	1.301747E+0	1.293039E+0	1.291346E+0	1.300896E+0	1.283518E+0	1.312943E+0	1.293042E+0	1.297773E+0	1.305791E+0	1.341256E+0	1.308564E+0	1.310280E+0	1.278716E+0	1.328073E+0	1.346238E+0	1.284466E+0	1.308632E+0	1.309241E+0	1.306532E+0	1.326142E+0	1.334793E+0	1.321770E+0	1.290409E+0	1.298576E+0	1.279649E+0	1.339996E+0	1.327956E+0	1.278891E+0	1.265520E+0	1.305661E+0	1.324027E+0	1.323331E+0	1.264269E+0	1.295696E+0	1.268747E+0	1.314421E+0	1.341117E+0	1.299060E+0	1.334992E+0	1.307256E+0	1.310242E+0	1.306881E+0	1.319541E+0	1.301114E+0	1.335082E+0	1.263791E+0	1.278885E+0	1.292060E+0	1.319207E+0	1.240119E+0	1.327328E+0	1.260588E+0	1.325873E+0	1.307047E+0	1.301537E+0	1.277239E+0	1.345310E+0	1.305076E+0	1.302017E+0	1.301049E+0	1.341230E+0	1.282091E+0	1.267600E+0	1.261535E+0	1.267660E+0	1.305741E+0	1.320106E+0	1.271109E+0	1.357313E+0	1.333131E+0	1.308670E+0	1.282836E+0	1.342400E+0	1.331444E+0	1.296300E+0	1.322948E+0	1.283602E+0	1.251827E+0	1.278888E+0	1.291131E+0	1.290045E+0	1.286215E+0	1.265212E+0	1.308287E+0	1.331648E+0	1.261270E+0	1.340810E+0	1.252741E+0	1.341295E+0	1.302310E+0	1.257411E+0	1.337094E+0	1.260418E+0	1.289360E+0	1.286950E+0	1.294771E+0	1.307044E+0	1.246179E+0	1.291393E+0	1.331523E+0	1.299198E+0	1.316051E+0	1.286602E+0	1.331703E+0	1.344304E+0	1.330264E+0	1.334291E+0	1.301842E+0	1.268327E+0	1.310192E+0	1.276518E+0	1.305914E+0	1.246127E+0	1.301974E+0	1.287440E+0	1.326655E+0	1.407688E+0	1.276322E+0	1.253860E+0	1.226295E+0	1.289705E+0	1.319865E+0	1.290558E+0	1.314384E+0	1.292897E+0	1.297130E+0	1.259699E+0	1.258545E+0	1.267545E+0	1.249012E+0	1.314815E+0	1.278611E+0	1.349188E+0	1.336702E+0	1.285104E+0	1.328232E+0	1.264296E+0	1.331454E+0	1.311863E+0	1.280724E+0	1.307540E+0	1.268765E+0	1.269285E+0	1.250405E+0
5.435540E+2	1.455072E+0	1.444367E+0	1.512455E+0	1.470914E+0	1.402579E+0	1.452731E+0	1.376182E+0	1.455789E+0	1.461208E+0	1.483473E+0	1.450069E+0	1.497775E+0	1.472418E+0	1.426457E+0	1.451272E+0	1.460485E+0	1.407609E+0	1.428258E+0	1.434959E+0	1.456208E+0	1.432592E+0	1.499884E+0	1.434116E+0	1.433033E+0	1.449510E+0	1.494086E+0	1.429283E+0	1.397976E+0	1.433966E+0	1.437543E+0	1.490802E+0	1.459105E+0	1.421841E+0	1.444590E+0	1.458736E+0	1.440535E+0	1.476385E+0	1.392682E+0	1.429940E+0	1.437015E+0	1.423654E+0	1.428629E+0	1.477048E+0	1.469875E+0	1.445313E+0	1.408494E+0	1.457094E+0	1.452856E+0	1.431005E+0	1.476593E+0	1.459236E+0	1.443642E+0	1.480014E+0	1.432312E+0	1.395215E+0	1.469612E+0	1.433331E+0	1.420615E+0	1.456488E+0	1.397315E+0	1.424123E+0	1.415901E+0	1.478410E+0	1.445491E+0	1.422410E+0	1.441178E+0	1.453608E+0	1.483263E+0	1.465939E+0	1.428817E+0	1.447987E+0	1.442612E+0	1.458100E+0	1.430084E+0	1.435185E+0	1.487333E+0	1.437147E+0	1.465590E+0	1.491295E+0	1.470023E+0	1.409055E+0	1.390877E+0	1.432871E+0	1.388638E+0	1.457649E+0	1.474156E+0	1.381460E+0	1.439361E+0	1.479063E+0	1.466766E+0	1.434280E+0	1.471067E+0	1.447130E+0	1.431996E+0	1.418391E+0	1.457165E+0	1.478710E+0	1.432678E+0	1.457021E+0	1.444462E+0	1.371925E+0	1.472351E+0	1.388971E+0	1.442754E+0	1.428521E+0	1.434110E+0	1.433827E+0	1.436820E+0	1.442208E+0	1.417863E+0	1.413534E+0	1.450120E+0	1.504555E+0	1.451187E+0	1.424591E+0	1.439956E+0	1.426770E+0	1.439161E+0	1.392861E+0	1.438063E+0	1.394935E+0	1.522252E+0	1.423571E+0	1.346217E+0	1.446713E+0	1.426330E+0	1.419733E+0	1.440233E+0	1.418921E+0	1.404090E+0	1.395754E+0	1.383593E+0	1.473242E+0	1.439187E+0	1.422816E+0	1.488475E+0	1.415452E+0	1.371916E+0	1.455750E+0	1.400557E+0	1.442185E+0	1.445719E+0	1.443861E+0	1.458468E+0	1.403384E+0	1.466209E+0	1.428473E+0	1.440895E+0	1.419229E+0	1.388673E+0	1.406227E+0	1.421464E+0	1.438872E+0	1.435304E+0	1.392902E+0	1.400698E+0	1.435049E+0	1.394786E+0	1.506985E+0	1.434697E+0	1.356844E+0	1.461725E+0	1.406730E+0	1.492308E+0	1.411638E+0	1.422779E+0	1.427315E+0	1.415274E+0	1.465425E+0	1.454705E+0
5.437640E+2	1.542591E+0	1.484172E+0	1.581349E+0	1.555898E+0	1.532004E+0	1.611269E+0	1.564117E+0	1.539375E+0	1.575026E+0	1.602711E+0	1.581463E+0	1.497955E+0	1.521255E+0	1.535348E+0	1.560435E+0	1.492685E+0	1.592787E+0	1.535748E+0	1.579638E+0	1.614024E+0	1.576574E+0	1.567590E+0	1.526557E+0	1.554075E+0	1.591957E+0	1.573008E+0	1.560590E+0	1.578985E+0	1.572828E+0	1.549562E+0	1.570951E+0	1.567672E+0	1.503752E+0	1.573319E+0	1.566966E+0	1.542392E+0	1.562873E+0	1.563723E+0	1.499752E+0	1.529915E+0	1.594664E+0	1.533362E+0	1.507647E+0	1.601519E+0	1.583364E+0	1.603132E+0	1.606360E+0	1.597014E+0	1.484618E+0	1.526677E+0	1.545075E+0	1.510929E+0	1.567337E+0	1.582526E+0	1.501319E+0	1.534855E+0	1.548063E+0	1.606239E+0	1.530205E+0	1.499728E+0	1.534766E+0	1.605123E+0	1.564600E+0	1.526059E+0	1.534641E+0	1.549214E+0	1.567364E+0	1.543291E+0	1.573011E+0	1.564095E+0	1.497018E+0	1.586607E+0	1.542226E+0	1.569666E+0	1.587410E+0	1.527863E+0	1.541453E+0	1.495619E+0	1.577221E+0	1.552981E+0	1.578114E+0	1.530412E+0	1.561485E+0	1.539684E+0	1.563725E+0	1.520014E+0	1.546375E+0	1.582957E+0	1.576553E+0	1.485915E+0	1.563935E+0	1.587285E+0	1.502123E+0	1.504801E+0	1.591974E+0	1.608579E+0	1.546827E+0	1.502671E+0	1.573537E+0	1.552013E+0	1.552472E+0	1.564558E+0	1.544188E+0	1.482287E+0	1.495333E+0	1.498980E+0	1.510239E+0	1.545464E+0	1.549259E+0	1.533842E+0	1.514510E+0	1.474946E+0	1.546134E+0	1.528940E+0	1.547596E+0	1.584027E+0	1.585309E+0	1.533847E+0	1.495640E+0	1.514092E+0	1.525524E+0	1.505512E+0	1.568931E+0	1.498489E+0	1.551375E+0	1.491799E+0	1.514855E+0	1.511259E+0	1.536236E+0	1.502028E+0	1.508543E+0	1.550798E+0	1.511115E+0	1.562843E+0	1.523552E+0	1.584244E+0	1.562776E+0	1.567537E+0	1.533905E+0	1.561564E+0	1.535848E+0	1.514198E+0	1.556224E+0	1.550660E+0	1.510697E+0	1.531756E+0	1.569711E+0	1.539045E+0	1.594800E+0	1.528456E+0	1.524992E+0	1.542511E+0	1.536587E+0	1.522541E+0	1.545485E+0	1.492730E+0	1.468303E+0	1.531180E+0	1.525147E+0	1.543453E+0	1.487636E+0	1.574104E+0	1.566965E+0	1.514218E+0	1.597430E+0	1.527554E+0	1.469399E+0	1.538869E+0	1.531309E+0	1.545198E+0
5.440170E+2	1.664652E+0	1.610581E+0	1.636707E+0	1.576731E+0	1.580915E+0	1.628379E+0	1.623338E+0	1.605702E+0	1.598805E+0	1.618520E+0	1.613756E+0	1.649636E+0	1.618151E+0	1.638873E+0	1.616476E+0	1.666242E+0	1.636117E+0	1.628519E+0	1.604561E+0	1.664663E+0	1.592578E+0	1.597370E+0	1.649778E+0	1.618586E+0	1.644906E+0	1.575249E+0	1.637273E+0	1.562608E+0	1.587859E+0	1.669377E+0	1.566505E+0	1.639904E+0	1.610732E+0	1.646371E+0	1.615414E+0	1.658813E+0	1.621308E+0	1.609569E+0	1.598639E+0	1.653536E+0	1.687545E+0	1.593540E+0	1.646993E+0	1.600857E+0	1.614971E+0	1.569036E+0	1.609487E+0	1.610166E+0	1.570995E+0	1.608623E+0	1.589994E+0	1.650978E+0	1.646129E+0	1.594908E+0	1.602496E+0	1.589814E+0	1.627070E+0	1.619961E+0	1.619785E+0	1.577311E+0	1.591304E+0	1.634175E+0	1.653667E+0	1.692139E+0	1.597246E+0	1.608834E+0	1.580814E+0	1.633174E+0	1.607089E+0	1.606973E+0	1.632456E+0	1.579747E+0	1.635572E+0	1.638273E+0	1.555371E+0	1.627897E+0	1.562521E+0	1.567968E+0	1.582614E+0	1.623935E+0	1.604379E+0	1.561259E+0	1.653177E+0	1.581751E+0	1.650507E+0	1.576933E+0	1.574997E+0	1.574125E+0	1.558106E+0	1.533453E+0	1.582717E+0	1.571489E+0	1.560001E+0	1.563186E+0	1.665404E+0	1.652428E+0	1.604125E+0	1.624480E+0	1.639105E+0	1.596792E+0	1.611655E+0	1.615199E+0	1.614967E+0	1.558608E+0	1.591203E+0	1.579958E+0	1.585226E+0	1.629528E+0	1.619373E+0	1.593577E+0	1.624541E+0	1.570110E+0	1.664953E+0	1.657835E+0	1.601879E+0	1.645486E+0	1.648225E+0	1.645935E+0	1.545088E+0	1.673977E+0	1.634644E+0	1.542822E+0	1.609809E+0	1.602327E+0	1.557383E+0	1.604377E+0	1.590188E+0	1.605308E+0	1.619507E+0	1.657933E+0	1.591662E+0	1.629213E+0	1.686942E+0	1.590774E+0	1.623500E+0	1.660146E+0	1.577330E+0	1.631164E+0	1.593866E+0	1.589944E+0	1.535446E+0	1.567587E+0	1.645142E+0	1.597603E+0	1.555244E+0	1.555582E+0	1.632255E+0	1.616208E+0	1.630595E+0	1.601637E+0	1.530615E+0	1.539233E+0	1.563742E+0	1.640533E+0	1.567473E+0	1.610836E+0	1.558702E+0	1.570818E+0	1.594299E+0	1.591485E+0	1.550451E+0	1.585014E+0	1.589260E+0	1.561964E+0	1.621148E+0	1.604377E+0	1.578357E+0	1.592393E+0	1.513379E+0	1.462271E+0
5.442700E+2	1.623513E+0	1.616320E+0	1.655604E+0	1.679555E+0	1.580298E+0	1.648800E+0	1.614314E+0	1.653502E+0	1.611362E+0	1.711577E+0	1.614920E+0	1.653711E+0	1.620332E+0	1.655989E+0	1.637414E+0	1.630631E+0	1.588180E+0	1.608168E+0	1.660399E+0	1.624780E+0	1.671662E+0	1.654447E+0	1.616985E+0	1.626851E+0	1.601752E+0	1.603294E+0	1.648488E+0	1.550663E+0	1.671122E+0	1.596593E+0	1.593835E+0	1.586763E+0	1.636926E+0	1.602247E+0	1.567723E+0	1.640164E+0	1.636709E+0	1.632853E+0	1.609087E+0	1.677058E+0	1.659986E+0	1.603205E+0	1.579551E+0	1.634046E+0	1.595907E+0	1.670859E+0	1.594390E+0	1.629722E+0	1.581222E+0	1.634898E+0	1.638827E+0	1.596226E+0	1.635428E+0	1.625633E+0	1.604103E+0	1.607413E+0	1.560653E+0	1.636661E+0	1.604601E+0	1.641394E+0	1.556589E+0	1.633851E+0	1.609515E+0	1.635190E+0	1.602766E+0	1.617185E+0	1.621532E+0	1.636513E+0	1.610194E+0	1.629948E+0	1.612102E+0	1.592354E+0	1.645238E+0	1.628951E+0	1.607055E+0	1.627804E+0	1.598994E+0	1.645172E+0	1.595924E+0	1.621591E+0	1.592929E+0	1.620116E+0	1.613252E+0	1.621511E+0	1.656109E+0	1.581104E+0	1.644972E+0	1.639066E+0	1.658729E+0	1.547394E+0	1.614813E+0	1.591736E+0	1.614967E+0	1.557674E+0	1.610570E+0	1.629404E+0	1.626192E+0	1.613606E+0	1.632129E+0	1.612321E+0	1.631004E+0	1.632225E+0	1.548243E+0	1.563583E+0	1.651399E+0	1.572730E+0	1.601092E+0	1.549104E+0	1.542320E+0	1.627330E+0	1.646972E+0	1.548969E+0	1.606505E+0	1.619499E+0	1.641921E+0	1.645937E+0	1.608437E+0	1.648127E+0	1.635128E+0	1.575012E+0	1.595287E+0	1.576546E+0	1.580452E+0	1.564948E+0	1.509152E+0	1.620472E+0	1.608017E+0	1.635879E+0	1.616183E+0	1.619709E+0	1.595220E+0	1.591992E+0	1.670403E+0	1.540870E+0	1.614558E+0	1.620149E+0	1.606451E+0	1.603262E+0	1.621332E+0	1.609013E+0	1.583442E+0	1.647453E+0	1.637609E+0	1.619214E+0	1.551766E+0	1.594814E+0	1.618317E+0	1.593286E+0	1.613962E+0	1.532289E+0	1.553066E+0	1.589566E+0	1.584301E+0	1.665625E+0	1.584000E+0	1.635937E+0	1.579384E+0	1.596030E+0	1.617978E+0	1.624297E+0	1.592731E+0	1.572203E+0	1.602596E+0	1.610479E+0	1.618814E+0	1.594627E+0	1.596528E+0	1.536217E+0	1.562704E+0	1.594360E+0
5.445240E+2	1.610639E+0	1.607734E+0	1.568014E+0	1.589543E+0	1.534172E+0	1.620085E+0	1.567334E+0	1.542644E+0	1.549434E+0	1.584205E+0	1.554076E+0	1.538140E+0	1.519067E+0	1.576794E+0	1.586382E+0	1.591265E+0	1.588772E+0	1.543655E+0	1.596204E+0	1.552851E+0	1.576156E+0	1.576889E+0	1.547227E+0	1.508013E+0	1.594857E+0	1.585171E+0	1.565395E+0	1.530636E+0	1.562032E+0	1.570290E+0	1.564207E+0	1.565813E+0	1.556751E+0	1.542696E+0	1.548761E+0	1.574816E+0	1.581975E+0	1.531800E+0	1.538801E+0	1.541552E+0	1.554611E+0	1.557886E+0	1.592994E+0	1.540721E+0	1.572405E+0	1.556850E+0	1.584568E+0	1.615708E+0	1.521948E+0	1.574214E+0	1.539851E+0	1.546748E+0	1.541893E+0	1.604527E+0	1.534535E+0	1.558285E+0	1.568559E+0	1.563271E+0	1.561732E+0	1.511680E+0	1.522796E+0	1.581633E+0	1.550131E+0	1.557963E+0	1.538818E+0	1.625785E+0	1.523363E+0	1.607025E+0	1.630230E+0	1.550524E+0	1.561018E+0	1.600023E+0	1.552058E+0	1.520639E+0	1.551834E+0	1.520693E+0	1.480546E+0	1.483810E+0	1.542009E+0	1.600257E+0	1.519427E+0	1.621146E+0	1.553326E+0	1.596379E+0	1.574476E+0	1.527051E+0	1.601189E+0	1.620141E+0	1.622350E+0	1.518255E+0	1.505326E+0	1.578313E+0	1.585987E+0	1.519520E+0	1.524543E+0	1.632252E+0	1.505776E+0	1.545330E+0	1.568156E+0	1.562927E+0	1.571814E+0	1.615583E+0	1.520512E+0	1.487192E+0	1.488843E+0	1.515849E+0	1.498394E+0	1.525671E+0	1.534097E+0	1.566767E+0	1.534210E+0	1.527205E+0	1.562099E+0	1.558859E+0	1.507344E+0	1.570231E+0	1.536184E+0	1.576920E+0	1.505773E+0	1.547747E+0	1.522406E+0	1.609475E+0	1.484496E+0	1.537915E+0	1.522207E+0	1.551343E+0	1.550346E+0	1.553260E+0	1.560420E+0	1.541640E+0	1.570885E+0	1.513105E+0	1.581056E+0	1.541395E+0	1.557798E+0	1.583046E+0	1.574130E+0	1.552765E+0	1.553431E+0	1.624647E+0	1.505513E+0	1.540850E+0	1.538831E+0	1.552185E+0	1.533698E+0	1.525379E+0	1.528771E+0	1.502388E+0	1.558648E+0	1.555443E+0	1.515644E+0	1.563732E+0	1.561209E+0	1.475852E+0	1.498812E+0	1.615621E+0	1.514541E+0	1.536647E+0	1.593017E+0	1.590756E+0	1.530243E+0	1.519872E+0	1.575802E+0	1.548309E+0	1.521751E+0	1.538927E+0	1.554461E+0	1.551742E+0	1.575572E+0	1.510054E+0
5.447660E+2	1.495750E+0	1.441667E+0	1.430987E+0	1.480150E+0	1.448254E+0	1.475375E+0	1.460926E+0	1.481905E+0	1.498233E+0	1.531864E+0	1.460160E+0	1.497134E+0	1.471070E+0	1.458210E+0	1.469994E+0	1.519417E+0	1.476312E+0	1.465087E+0	1.512642E+0	1.538750E+0	1.509660E+0	1.500157E+0	1.447961E+0	1.491315E+0	1.500367E+0	1.445940E+0	1.498252E+0	1.454591E+0	1.515337E+0	1.476930E+0	1.462356E+0	1.514185E+0	1.477670E+0	1.517969E+0	1.446803E+0	1.432404E+0	1.501570E+0	1.502624E+0	1.445007E+0	1.489000E+0	1.536375E+0	1.519739E+0	1.433498E+0	1.521936E+0	1.477986E+0	1.478135E+0	1.526009E+0	1.473032E+0	1.455664E+0	1.484849E+0	1.508267E+0	1.452609E+0	1.470769E+0	1.469674E+0	1.449268E+0	1.468019E+0	1.494953E+0	1.460343E+0	1.495105E+0	1.474715E+0	1.490886E+0	1.505387E+0	1.455052E+0	1.495396E+0	1.464272E+0	1.464174E+0	1.467995E+0	1.415565E+0	1.574030E+0	1.480291E+0	1.488867E+0	1.410032E+0	1.521174E+0	1.463304E+0	1.450411E+0	1.540318E+0	1.431031E+0	1.508044E+0	1.459254E+0	1.552024E+0	1.445328E+0	1.483293E+0	1.471126E+0	1.509769E+0	1.507968E+0	1.489028E+0	1.456396E+0	1.468076E+0	1.474334E+0	1.477778E+0	1.432405E+0	1.495701E+0	1.467303E+0	1.459034E+0	1.498939E+0	1.511165E+0	1.480736E+0	1.465642E+0	1.431716E+0	1.438422E+0	1.444848E+0	1.438880E+0	1.475538E+0	1.449396E+0	1.459934E+0	1.493168E+0	1.427482E+0	1.422652E+0	1.449412E+0	1.506335E+0	1.416852E+0	1.456028E+0	1.518163E+0	1.403275E+0	1.443074E+0	1.447722E+0	1.492079E+0	1.486914E+0	1.442140E+0	1.427043E+0	1.491167E+0	1.436571E+0	1.454956E+0	1.441519E+0	1.405332E+0	1.449597E+0	1.411473E+0	1.438562E+0	1.504263E+0	1.447618E+0	1.415792E+0	1.491319E+0	1.501663E+0	1.437957E+0	1.405801E+0	1.426033E+0	1.444021E+0	1.456574E+0	1.460696E+0	1.489996E+0	1.447479E+0	1.453230E+0	1.502454E+0	1.492051E+0	1.474333E+0	1.488659E+0	1.486670E+0	1.426055E+0	1.465152E+0	1.495689E+0	1.494849E+0	1.406418E+0	1.436969E+0	1.500204E+0	1.444393E+0	1.473113E+0	1.450667E+0	1.482064E+0	1.501254E+0	1.470583E+0	1.440114E+0	1.469389E+0	1.460274E+0	1.490734E+0	1.456567E+0	1.444608E+0	1.432086E+0	1.487510E+0	1.381103E+0	1.452738E+0
5.450200E+2	1.366701E+0	1.356900E+0	1.464122E+0	1.410007E+0	1.330858E+0	1.433514E+0	1.379582E+0	1.377540E+0	1.347798E+0	1.482744E+0	1.440358E+0	1.395643E+0	1.389794E+0	1.343864E+0	1.359518E+0	1.362482E+0	1.403930E+0	1.344881E+0	1.378483E+0	1.422800E+0	1.395607E+0	1.379019E+0	1.385536E+0	1.374616E+0	1.355709E+0	1.390132E+0	1.384073E+0	1.365923E+0	1.414693E+0	1.359003E+0	1.400939E+0	1.431230E+0	1.340217E+0	1.376113E+0	1.361906E+0	1.407298E+0	1.401306E+0	1.389397E+0	1.384324E+0	1.417351E+0	1.425003E+0	1.327218E+0	1.391778E+0	1.396763E+0	1.415569E+0	1.363585E+0	1.350677E+0	1.440889E+0	1.349793E+0	1.420118E+0	1.366634E+0	1.410695E+0	1.411375E+0	1.416423E+0	1.404451E+0	1.407595E+0	1.383801E+0	1.439496E+0	1.406213E+0	1.426455E+0	1.325785E+0	1.409605E+0	1.325243E+0	1.389668E+0	1.379464E+0	1.421569E+0	1.369513E+0	1.438969E+0	1.439731E+0	1.349583E+0	1.364738E+0	1.352099E+0	1.435815E+0	1.362704E+0	1.404596E+0	1.406639E+0	1.416470E+0	1.402458E+0	1.381823E+0	1.392025E+0	1.335941E+0	1.342975E+0	1.355503E+0	1.382213E+0	1.399235E+0	1.407493E+0	1.357266E+0	1.382488E+0	1.359216E+0	1.437345E+0	1.369934E+0	1.383537E+0	1.410326E+0	1.373868E+0	1.408341E+0	1.411674E+0	1.409353E+0	1.405934E+0	1.411137E+0	1.387469E+0	1.419964E+0	1.385330E+0	1.379550E+0	1.344254E+0	1.395849E+0	1.365063E+0	1.386116E+0	1.383479E+0	1.363682E+0	1.383053E+0	1.358372E+0	1.368184E+0	1.434824E+0	1.398210E+0	1.385211E+0	1.391075E+0	1.373351E+0	1.376488E+0	1.379433E+0	1.385087E+0	1.407891E+0	1.399652E+0	1.371762E+0	1.323854E+0	1.337135E+0	1.386897E+0	1.383108E+0	1.366104E+0	1.422892E+0	1.371855E+0	1.398424E+0	1.433064E+0	1.395721E+0	1.412833E+0	1.374229E+0	1.363013E+0	1.356967E+0	1.380253E+0	1.391189E+0	1.350986E+0	1.393054E+0	1.432157E+0	1.365276E+0	1.382251E+0	1.365836E+0	1.329903E+0	1.329541E+0	1.331332E+0	1.460333E+0	1.384186E+0	1.344692E+0	1.345774E+0	1.369158E+0	1.434534E+0	1.354371E+0	1.391685E+0	1.353290E+0	1.400559E+0	1.364926E+0	1.415990E+0	1.342493E+0	1.357292E+0	1.398312E+0	1.377723E+0	1.397774E+0	1.340673E+0	1.364710E+0	1.340448E+0	1.365904E+0	1.434120E+0
5.452800E+2	1.377536E+0	1.331107E+0	1.359911E+0	1.413853E+0	1.312945E+0	1.381032E+0	1.332865E+0	1.320670E+0	1.327308E+0	1.378962E+0	1.337433E+0	1.324262E+0	1.223880E+0	1.296836E+0	1.321074E+0	1.353908E+0	1.387946E+0	1.314127E+0	1.315720E+0	1.335228E+0	1.334329E+0	1.333871E+0	1.309899E+0	1.322734E+0	1.310209E+0	1.367821E+0	1.364030E+0	1.326089E+0	1.345137E+0	1.313624E+0	1.307824E+0	1.326698E+0	1.302245E+0	1.320061E+0	1.279673E+0	1.365208E+0	1.310827E+0	1.345787E+0	1.322466E+0	1.341784E+0	1.323683E+0	1.337404E+0	1.328043E+0	1.336071E+0	1.350362E+0	1.313894E+0	1.341442E+0	1.325766E+0	1.305701E+0	1.367203E+0	1.343929E+0	1.353419E+0	1.364334E+0	1.331723E+0	1.350129E+0	1.323143E+0	1.326317E+0	1.382225E+0	1.346912E+0	1.337932E+0	1.310153E+0	1.268232E+0	1.290994E+0	1.363915E+0	1.354402E+0	1.329272E+0	1.306842E+0	1.413873E+0	1.288748E+0	1.335382E+0	1.392396E+0	1.337392E+0	1.349461E+0	1.281719E+0	1.303728E+0	1.362473E+0	1.303304E+0	1.328978E+0	1.334418E+0	1.376798E+0	1.318652E+0	1.346613E+0	1.299519E+0	1.360427E+0	1.323811E+0	1.294257E+0	1.336711E+0	1.319571E+0	1.301765E+0	1.311930E+0	1.298631E+0	1.321877E+0	1.308414E+0	1.307938E+0	1.341246E+0	1.316019E+0	1.324031E+0	1.326720E+0	1.374523E+0	1.330995E+0	1.316099E+0	1.368303E+0	1.336900E+0	1.278517E+0	1.327255E+0	1.306710E+0	1.289270E+0	1.328431E+0	1.273007E+0	1.341723E+0	1.297050E+0	1.313854E+0	1.383875E+0	1.294412E+0	1.305808E+0	1.296689E+0	1.302895E+0	1.374859E+0	1.301323E+0	1.351889E+0	1.351141E+0	1.307655E+0	1.300213E+0	1.267390E+0	1.262290E+0	1.328928E+0	1.278691E+0	1.325038E+0	1.344168E+0	1.331590E+0	1.347412E+0	1.341257E+0	1.331209E+0	1.318765E+0	1.273826E+0	1.306085E+0	1.301056E+0	1.333739E+0	1.290012E+0	1.346702E+0	1.282653E+0	1.304306E+0	1.340646E+0	1.270896E+0	1.305605E+0	1.280768E+0	1.255578E+0	1.341347E+0	1.291231E+0	1.374624E+0	1.280516E+0	1.315152E+0	1.285789E+0	1.369700E+0	1.298004E+0	1.321715E+0	1.286813E+0	1.327054E+0	1.295091E+0	1.378807E+0	1.279737E+0	1.306442E+0	1.269094E+0	1.370473E+0	1.383584E+0	1.302490E+0	1.357662E+0	1.287687E+0	1.375414E+0	1.258136E+0
5.455390E+2	1.287815E+0	1.236184E+0	1.289050E+0	1.245063E+0	1.235078E+0	1.240438E+0	1.265028E+0	1.300708E+0	1.234096E+0	1.313798E+0	1.295803E+0	1.237638E+0	1.214412E+0	1.262927E+0	1.255571E+0	1.255080E+0	1.258284E+0	1.293835E+0	1.217839E+0	1.314434E+0	1.278281E+0	1.305288E+0	1.264894E+0	1.261016E+0	1.326541E+0	1.277469E+0	1.241636E+0	1.287441E+0	1.242512E+0	1.304893E+0	1.273794E+0	1.282118E+0	1.260767E+0	1.228463E+0	1.244625E+0	1.282096E+0	1.273918E+0	1.270110E+0	1.316726E+0	1.268230E+0	1.266613E+0	1.267947E+0	1.273896E+0	1.266050E+0	1.281390E+0	1.285208E+0	1.225999E+0	1.275803E+0	1.232547E+0	1.310471E+0	1.288108E+0	1.267874E+0	1.270253E+0	1.273406E+0	1.255020E+0	1.193792E+0	1.270967E+0	1.298056E+0	1.259182E+0	1.260938E+0	1.257937E+0	1.279428E+0	1.215479E+0	1.265426E+0	1.257989E+0	1.263881E+0	1.261152E+0	1.281227E+0	1.327925E+0	1.262540E+0	1.238016E+0	1.286239E+0	1.303660E+0	1.252082E+0	1.280898E+0	1.284966E+0	1.288773E+0	1.273442E+0	1.292156E+0	1.256263E+0	1.253174E+0	1.245652E+0	1.245833E+0	1.329434E+0	1.272920E+0	1.232751E+0	1.320874E+0	1.259600E+0	1.312061E+0	1.240944E+0	1.255314E+0	1.275746E+0	1.313016E+0	1.188417E+0	1.268389E+0	1.267279E+0	1.321518E+0	1.307099E+0	1.314971E+0	1.248492E+0	1.274583E+0	1.274806E+0	1.312798E+0	1.216994E+0	1.312530E+0	1.229682E+0	1.248632E+0	1.249511E+0	1.269871E+0	1.245570E+0	1.272158E+0	1.289405E+0	1.293945E+0	1.284509E+0	1.233937E+0	1.276596E+0	1.239056E+0	1.301103E+0	1.218338E+0	1.206726E+0	1.247808E+0	1.223780E+0	1.210324E+0	1.171084E+0	1.273426E+0	1.287936E+0	1.216485E+0	1.249392E+0	1.276791E+0	1.282158E+0	1.246971E+0	1.227685E+0	1.246847E+0	1.259097E+0	1.233574E+0	1.273051E+0	1.246746E+0	1.274213E+0	1.236753E+0	1.235257E+0	1.289094E+0	1.242290E+0	1.261365E+0	1.318223E+0	1.225436E+0	1.261136E+0	1.258731E+0	1.246047E+0	1.273052E+0	1.252913E+0	1.179536E+0	1.243937E+0	1.238215E+0	1.264047E+0	1.265979E+0	1.250451E+0	1.248000E+0	1.225547E+0	1.250239E+0	1.270489E+0	1.198976E+0	1.257462E+0	1.209397E+0	1.265385E+0	1.267048E+0	1.287384E+0	1.230833E+0	1.322319E+0	1.232782E+0	1.293389E+0
5.457780E+2	1.271645E+0	1.258266E+0	1.180209E+0	1.229706E+0	1.193676E+0	1.231333E+0	1.250086E+0	1.251953E+0	1.210915E+0	1.291123E+0	1.219977E+0	1.235034E+0	1.185685E+0	1.243888E+0	1.251125E+0	1.193011E+0	1.240760E+0	1.239094E+0	1.209699E+0	1.208345E+0	1.213532E+0	1.278372E+0	1.236972E+0	1.237653E+0	1.325075E+0	1.216589E+0	1.243829E+0	1.199234E+0	1.242949E+0	1.254269E+0	1.246212E+0	1.239702E+0	1.228916E+0	1.210943E+0	1.214728E+0	1.240346E+0	1.274363E+0	1.222855E+0	1.210451E+0	1.235182E+0	1.237469E+0	1.214507E+0	1.231017E+0	1.226395E+0	1.280435E+0	1.209443E+0	1.266751E+0	1.235798E+0	1.198290E+0	1.231877E+0	1.192532E+0	1.263657E+0	1.246583E+0	1.246800E+0	1.200103E+0	1.221042E+0	1.180721E+0	1.267048E+0	1.190024E+0	1.190375E+0	1.219700E+0	1.196886E+0	1.244668E+0	1.323607E+0	1.259531E+0	1.256201E+0	1.255536E+0	1.274192E+0	1.283845E+0	1.208302E+0	1.222803E+0	1.226693E+0	1.219872E+0	1.171920E+0	1.179508E+0	1.183512E+0	1.199026E+0	1.263606E+0	1.246094E+0	1.237288E+0	1.194730E+0	1.223002E+0	1.211890E+0	1.258547E+0	1.215581E+0	1.195031E+0	1.273191E+0	1.261764E+0	1.208760E+0	1.253608E+0	1.241661E+0	1.241109E+0	1.242717E+0	1.198050E+0	1.225345E+0	1.276445E+0	1.217764E+0	1.191537E+0	1.258885E+0	1.236294E+0	1.228439E+0	1.291005E+0	1.220557E+0	1.159587E+0	1.242670E+0	1.235730E+0	1.210268E+0	1.209528E+0	1.217093E+0	1.249635E+0	1.194978E+0	1.194911E+0	1.240978E+0	1.282754E+0	1.235613E+0	1.247686E+0	1.238526E+0	1.198595E+0	1.221457E+0	1.230809E+0	1.248309E+0	1.221669E+0	1.166708E+0	1.158973E+0	1.160036E+0	1.187026E+0	1.197669E+0	1.257684E+0	1.267103E+0	1.195916E+0	1.221522E+0	1.230766E+0	1.256990E+0	1.240642E+0	1.216087E+0	1.193371E+0	1.220072E+0	1.205461E+0	1.247291E+0	1.195217E+0	1.242913E+0	1.207932E+0	1.236533E+0	1.218921E+0	1.188170E+0	1.184212E+0	1.167997E+0	1.250439E+0	1.255554E+0	1.203797E+0	1.167016E+0	1.209335E+0	1.223489E+0	1.224731E+0	1.191506E+0	1.198917E+0	1.204515E+0	1.188458E+0	1.239955E+0	1.301173E+0	1.199511E+0	1.215865E+0	1.182876E+0	1.250064E+0	1.267704E+0	1.194972E+0	1.214705E+0	1.251767E+0	1.244341E+0	1.211172E+0
5.460060E+2	1.201429E+0	1.189625E+0	1.210378E+0	1.174588E+0	1.140932E+0	1.145926E+0	1.160126E+0	1.177292E+0	1.154132E+0	1.250538E+0	1.168551E+0	1.165271E+0	1.180474E+0	1.222409E+0	1.212724E+0	1.215343E+0	1.191165E+0	1.182713E+0	1.194933E+0	1.166649E+0	1.186514E+0	1.212569E+0	1.228368E+0	1.192728E+0	1.210698E+0	1.201500E+0	1.216845E+0	1.222375E+0	1.174950E+0	1.188361E+0	1.169015E+0	1.205887E+0	1.208064E+0	1.191148E+0	1.162413E+0	1.167333E+0	1.223048E+0	1.221083E+0	1.181617E+0	1.202315E+0	1.227966E+0	1.179254E+0	1.230042E+0	1.157920E+0	1.197693E+0	1.196356E+0	1.244057E+0	1.239867E+0	1.231800E+0	1.216079E+0	1.199378E+0	1.168810E+0	1.198854E+0	1.216778E+0	1.175040E+0	1.211630E+0	1.162568E+0	1.190650E+0	1.190268E+0	1.227314E+0	1.219925E+0	1.219703E+0	1.247232E+0	1.197413E+0	1.233220E+0	1.190435E+0	1.172170E+0	1.232898E+0	1.209510E+0	1.216598E+0	1.187568E+0	1.183644E+0	1.207444E+0	1.195539E+0	1.249469E+0	1.197973E+0	1.154350E+0	1.154187E+0	1.187534E+0	1.193543E+0	1.151843E+0	1.174659E+0	1.162057E+0	1.197547E+0	1.220434E+0	1.171609E+0	1.215404E+0	1.212647E+0	1.212940E+0	1.219639E+0	1.211713E+0	1.208850E+0	1.159193E+0	1.175463E+0	1.162635E+0	1.225316E+0	1.231622E+0	1.179920E+0	1.189776E+0	1.182910E+0	1.239745E+0	1.238639E+0	1.219618E+0	1.134837E+0	1.175773E+0	1.177289E+0	1.188904E+0	1.176638E+0	1.182028E+0	1.228805E+0	1.176332E+0	1.223681E+0	1.185897E+0	1.204925E+0	1.159303E+0	1.217231E+0	1.153939E+0	1.220451E+0	1.130883E+0	1.163364E+0	1.186702E+0	1.164060E+0	1.155500E+0	1.179611E+0	1.197176E+0	1.159557E+0	1.153657E+0	1.161573E+0	1.184925E+0	1.210054E+0	1.168505E+0	1.224306E+0	1.258506E+0	1.216758E+0	1.207738E+0	1.211868E+0	1.163302E+0	1.269024E+0	1.225368E+0	1.217556E+0	1.168963E+0	1.210498E+0	1.221073E+0	1.199169E+0	1.250590E+0	1.166926E+0	1.185442E+0	1.202587E+0	1.216349E+0	1.165992E+0	1.176522E+0	1.214846E+0	1.188161E+0	1.165094E+0	1.152423E+0	1.199226E+0	1.158740E+0	1.193801E+0	1.164017E+0	1.238745E+0	1.179217E+0	1.146462E+0	1.178788E+0	1.171212E+0	1.227535E+0	1.184457E+0	1.166445E+0	1.161642E+0	1.277506E+0	1.185992E+0
5.467600E+2	1.258453E+0	1.228436E+0	1.219961E+0	1.309122E+0	1.217959E+0	1.238863E+0	1.229930E+0	1.226470E+0	1.182702E+0	1.269883E+0	1.275062E+0	1.207618E+0	1.224971E+0	1.248393E+0	1.280355E+0	1.242649E+0	1.252010E+0	1.208401E+0	1.222091E+0	1.253947E+0	1.263677E+0	1.193792E+0	1.238030E+0	1.223792E+0	1.258818E+0	1.294122E+0	1.237323E+0	1.212727E+0	1.255940E+0	1.216435E+0	1.235854E+0	1.236310E+0	1.251239E+0	1.233502E+0	1.236149E+0	1.259633E+0	1.269728E+0	1.265668E+0	1.193999E+0	1.202222E+0	1.282669E+0	1.245323E+0	1.224973E+0	1.276037E+0	1.261388E+0	1.254413E+0	1.262696E+0	1.221069E+0	1.234009E+0	1.271361E+0	1.174144E+0	1.252849E+0	1.274493E+0	1.237808E+0	1.144246E+0	1.214010E+0	1.208241E+0	1.251987E+0	1.248697E+0	1.227186E+0	1.250103E+0	1.253507E+0	1.239406E+0	1.201180E+0	1.234568E+0	1.223532E+0	1.205563E+0	1.242374E+0	1.256542E+0	1.253790E+0	1.287329E+0	1.236379E+0	1.244483E+0	1.206295E+0	1.258393E+0	1.234173E+0	1.284581E+0	1.209841E+0	1.270206E+0	1.265971E+0	1.199464E+0	1.264876E+0	1.245741E+0	1.212211E+0	1.241631E+0	1.228572E+0	1.244218E+0	1.263145E+0	1.263422E+0	1.237451E+0	1.258413E+0	1.246084E+0	1.258138E+0	1.198057E+0	1.231484E+0	1.250347E+0	1.257535E+0	1.299961E+0	1.278665E+0	1.223462E+0	1.236576E+0	1.284700E+0	1.208223E+0	1.243121E+0	1.248903E+0	1.238447E+0	1.189830E+0	1.233222E+0	1.261091E+0	1.291821E+0	1.184765E+0	1.260412E+0	1.253030E+0	1.222407E+0	1.213403E+0	1.253217E+0	1.247466E+0	1.280910E+0	1.257226E+0	1.255081E+0	1.270284E+0	1.246653E+0	1.192349E+0	1.197759E+0	1.263278E+0	1.215629E+0	1.268150E+0	1.310652E+0	1.218884E+0	1.233242E+0	1.232866E+0	1.233129E+0	1.260130E+0	1.206435E+0	1.234119E+0	1.282057E+0	1.194256E+0	1.224765E+0	1.233661E+0	1.251666E+0	1.206288E+0	1.204106E+0	1.243213E+0	1.248214E+0	1.213066E+0	1.244185E+0	1.208038E+0	1.252729E+0	1.251782E+0	1.262045E+0	1.243683E+0	1.186717E+0	1.248693E+0	1.219633E+0	1.228313E+0	1.283573E+0	1.217285E+0	1.200469E+0	1.241854E+0	1.244620E+0	1.230713E+0	1.253020E+0	1.250051E+0	1.272611E+0	1.224052E+0	1.274483E+0	1.256685E+0	1.255786E+0	1.246666E+0	1.259211E+0
5.475120E+2	1.340292E+0	1.308113E+0	1.333256E+0	1.362192E+0	1.352198E+0	1.330939E+0	1.339815E+0	1.327759E+0	1.326334E+0	1.426977E+0	1.291729E+0	1.403109E+0	1.360479E+0	1.374327E+0	1.360356E+0	1.334382E+0	1.274489E+0	1.292198E+0	1.372471E+0	1.342394E+0	1.370278E+0	1.348512E+0	1.357006E+0	1.365920E+0	1.334160E+0	1.362804E+0	1.346128E+0	1.346079E+0	1.366977E+0	1.385262E+0	1.338008E+0	1.298471E+0	1.350259E+0	1.339585E+0	1.338296E+0	1.305920E+0	1.347612E+0	1.366508E+0	1.361716E+0	1.341039E+0	1.356064E+0	1.294554E+0	1.343755E+0	1.333640E+0	1.331363E+0	1.307497E+0	1.361917E+0	1.313527E+0	1.333896E+0	1.361906E+0	1.350066E+0	1.341486E+0	1.425091E+0	1.378944E+0	1.327531E+0	1.272185E+0	1.330178E+0	1.384424E+0	1.344148E+0	1.332329E+0	1.361153E+0	1.318332E+0	1.338036E+0	1.326923E+0	1.329220E+0	1.376576E+0	1.295091E+0	1.346515E+0	1.326226E+0	1.349893E+0	1.311847E+0	1.346103E+0	1.383634E+0	1.319916E+0	1.325619E+0	1.305320E+0	1.342280E+0	1.314596E+0	1.353320E+0	1.340313E+0	1.350712E+0	1.348080E+0	1.339484E+0	1.319735E+0	1.334745E+0	1.315942E+0	1.323552E+0	1.334869E+0	1.314746E+0	1.301056E+0	1.332997E+0	1.360043E+0	1.372722E+0	1.287478E+0	1.289778E+0	1.330029E+0	1.386641E+0	1.293466E+0	1.361994E+0	1.330591E+0	1.400021E+0	1.384802E+0	1.382824E+0	1.319303E+0	1.346522E+0	1.341111E+0	1.327544E+0	1.362875E+0	1.324029E+0	1.356187E+0	1.302535E+0	1.308133E+0	1.400319E+0	1.378424E+0	1.312201E+0	1.321295E+0	1.348550E+0	1.325915E+0	1.290296E+0	1.357555E+0	1.341574E+0	1.316756E+0	1.339852E+0	1.289464E+0	1.328235E+0	1.302302E+0	1.263741E+0	1.319245E+0	1.353285E+0	1.344509E+0	1.334389E+0	1.308703E+0	1.371597E+0	1.333186E+0	1.349274E+0	1.325449E+0	1.319994E+0	1.308452E+0	1.378444E+0	1.310266E+0	1.367790E+0	1.342078E+0	1.354420E+0	1.366705E+0	1.362851E+0	1.283078E+0	1.344650E+0	1.340624E+0	1.359935E+0	1.335891E+0	1.322840E+0	1.313185E+0	1.342667E+0	1.340484E+0	1.327255E+0	1.330665E+0	1.282410E+0	1.373012E+0	1.360675E+0	1.345026E+0	1.299757E+0	1.299587E+0	1.323386E+0	1.338731E+0	1.338910E+0	1.325714E+0	1.311593E+0	1.323604E+0	1.379092E+0	1.327281E+0
5.482600E+2	1.461238E+0	1.494813E+0	1.479898E+0	1.481627E+0	1.427993E+0	1.476972E+0	1.398469E+0	1.504716E+0	1.433748E+0	1.522754E+0	1.514494E+0	1.506626E+0	1.458355E+0	1.538637E+0	1.501354E+0	1.470695E+0	1.440374E+0	1.468649E+0	1.468018E+0	1.446127E+0	1.524279E+0	1.497559E+0	1.443099E+0	1.477253E+0	1.515761E+0	1.486839E+0	1.488976E+0	1.384177E+0	1.486863E+0	1.461401E+0	1.433620E+0	1.430968E+0	1.430335E+0	1.474471E+0	1.419637E+0	1.442500E+0	1.514791E+0	1.491320E+0	1.504899E+0	1.471977E+0	1.457436E+0	1.425288E+0	1.448441E+0	1.452601E+0	1.478081E+0	1.450944E+0	1.441393E+0	1.446484E+0	1.424796E+0	1.508704E+0	1.502503E+0	1.513846E+0	1.485100E+0	1.470236E+0	1.402911E+0	1.427772E+0	1.431068E+0	1.496117E+0	1.399981E+0	1.422931E+0	1.438958E+0	1.495194E+0	1.418907E+0	1.421209E+0	1.453416E+0	1.521584E+0	1.363072E+0	1.528145E+0	1.545450E+0	1.442786E+0	1.479727E+0	1.414081E+0	1.452439E+0	1.459703E+0	1.458376E+0	1.449857E+0	1.437090E+0	1.415118E+0	1.432674E+0	1.360877E+0	1.450993E+0	1.441839E+0	1.459315E+0	1.437895E+0	1.488241E+0	1.477780E+0	1.432095E+0	1.459120E+0	1.482353E+0	1.452274E+0	1.450488E+0	1.432471E+0	1.453590E+0	1.401562E+0	1.518909E+0	1.447320E+0	1.396491E+0	1.471988E+0	1.495136E+0	1.470312E+0	1.448739E+0	1.473763E+0	1.449451E+0	1.439630E+0	1.422619E+0	1.404386E+0	1.431742E+0	1.433714E+0	1.427945E+0	1.496773E+0	1.435452E+0	1.401900E+0	1.499068E+0	1.432438E+0	1.453907E+0	1.403981E+0	1.437284E+0	1.437238E+0	1.462491E+0	1.434451E+0	1.452408E+0	1.401431E+0	1.462473E+0	1.424475E+0	1.476587E+0	1.426709E+0	1.432950E+0	1.468658E+0	1.500423E+0	1.445499E+0	1.368557E+0	1.442201E+0	1.500421E+0	1.388454E+0	1.484447E+0	1.493445E+0	1.457751E+0	1.430937E+0	1.438111E+0	1.510639E+0	1.404914E+0	1.434106E+0	1.471957E+0	1.459939E+0	1.463106E+0	1.441527E+0	1.443963E+0	1.448616E+0	1.485980E+0	1.424790E+0	1.438055E+0	1.392921E+0	1.463123E+0	1.476421E+0	1.434063E+0	1.417908E+0	1.444302E+0	1.421617E+0	1.541421E+0	1.482252E+0	1.479583E+0	1.413904E+0	1.415208E+0	1.413365E+0	1.507548E+0	1.422089E+0	1.470234E+0	1.431121E+0	1.412496E+0	1.407242E+0
5.490430E+2	1.460276E+0	1.466371E+0	1.478067E+0	1.417407E+0	1.474572E+0	1.482212E+0	1.453626E+0	1.482947E+0	1.451961E+0	1.425173E+0	1.439971E+0	1.414689E+0	1.457426E+0	1.439906E+0	1.463491E+0	1.428352E+0	1.434379E+0	1.416336E+0	1.441472E+0	1.429697E+0	1.473185E+0	1.392775E+0	1.444210E+0	1.472922E+0	1.441572E+0	1.455815E+0	1.483712E+0	1.434627E+0	1.477911E+0	1.390170E+0	1.419916E+0	1.426056E+0	1.474038E+0	1.446715E+0	1.427718E+0	1.407678E+0	1.462386E+0	1.449237E+0	1.418126E+0	1.440659E+0	1.475544E+0	1.445145E+0	1.406153E+0	1.458456E+0	1.408480E+0	1.421706E+0	1.449344E+0	1.436685E+0	1.469606E+0	1.501657E+0	1.437252E+0	1.459113E+0	1.457532E+0	1.498471E+0	1.329955E+0	1.432848E+0	1.424651E+0	1.426440E+0	1.419018E+0	1.430049E+0	1.443378E+0	1.398914E+0	1.405498E+0	1.444367E+0	1.447076E+0	1.409916E+0	1.432163E+0	1.396548E+0	1.471483E+0	1.451591E+0	1.458365E+0	1.407630E+0	1.531366E+0	1.415669E+0	1.419414E+0	1.404006E+0	1.452696E+0	1.420657E+0	1.507911E+0	1.416420E+0	1.394359E+0	1.408739E+0	1.414266E+0	1.451403E+0	1.461854E+0	1.467855E+0	1.428943E+0	1.438679E+0	1.490821E+0	1.426237E+0	1.410745E+0	1.404574E+0	1.478409E+0	1.433577E+0	1.460038E+0	1.427138E+0	1.464241E+0	1.392921E+0	1.423316E+0	1.426538E+0	1.453038E+0	1.486737E+0	1.386017E+0	1.402047E+0	1.439811E+0	1.427697E+0	1.479210E+0	1.434599E+0	1.408116E+0	1.453081E+0	1.391349E+0	1.453974E+0	1.475828E+0	1.440453E+0	1.444904E+0	1.471545E+0	1.454311E+0	1.434951E+0	1.397788E+0	1.382376E+0	1.464280E+0	1.422391E+0	1.418637E+0	1.324935E+0	1.394765E+0	1.365253E+0	1.363202E+0	1.421799E+0	1.375379E+0	1.450275E+0	1.412339E+0	1.436279E+0	1.443628E+0	1.526088E+0	1.459165E+0	1.468506E+0	1.402960E+0	1.394647E+0	1.425234E+0	1.475249E+0	1.449983E+0	1.406179E+0	1.425225E+0	1.416806E+0	1.517536E+0	1.457650E+0	1.410235E+0	1.436491E+0	1.466732E+0	1.450717E+0	1.395063E+0	1.427992E+0	1.415780E+0	1.476380E+0	1.414582E+0	1.402980E+0	1.422242E+0	1.457784E+0	1.417583E+0	1.535240E+0	1.409402E+0	1.449943E+0	1.419915E+0	1.400820E+0	1.452215E+0	1.423801E+0	1.450256E+0	1.416397E+0	1.414745E+0	1.408784E+0
5.498070E+2	1.414480E+0	1.411682E+0	1.376547E+0	1.429648E+0	1.343212E+0	1.383601E+0	1.362959E+0	1.442167E+0	1.406809E+0	1.393423E+0	1.442705E+0	1.391291E+0	1.367189E+0	1.408426E+0	1.358960E+0	1.378127E+0	1.387948E+0	1.360506E+0	1.390368E+0	1.397629E+0	1.422843E+0	1.365110E+0	1.380626E+0	1.399548E+0	1.388465E+0	1.373777E+0	1.397410E+0	1.345916E+0	1.403890E+0	1.435545E+0	1.403884E+0	1.390035E+0	1.313635E+0	1.390906E+0	1.411356E+0	1.431795E+0	1.399149E+0	1.391634E+0	1.401033E+0	1.424956E+0	1.385268E+0	1.389303E+0	1.402726E+0	1.403981E+0	1.426187E+0	1.357556E+0	1.386601E+0	1.380146E+0	1.368552E+0	1.400958E+0	1.433377E+0	1.363282E+0	1.382668E+0	1.418531E+0	1.390410E+0	1.409345E+0	1.403087E+0	1.472230E+0	1.364161E+0	1.447103E+0	1.364092E+0	1.377929E+0	1.409613E+0	1.337641E+0	1.403826E+0	1.416114E+0	1.394006E+0	1.365010E+0	1.467732E+0	1.389225E+0	1.403719E+0	1.396513E+0	1.433223E+0	1.400780E+0	1.395142E+0	1.435740E+0	1.351506E+0	1.334860E+0	1.459061E+0	1.402414E+0	1.431748E+0	1.431372E+0	1.376614E+0	1.403371E+0	1.430980E+0	1.393876E+0	1.362571E+0	1.395149E+0	1.413893E+0	1.401832E+0	1.353764E+0	1.343490E+0	1.383606E+0	1.369313E+0	1.395256E+0	1.358470E+0	1.428013E+0	1.382373E+0	1.460505E+0	1.404360E+0	1.351155E+0	1.430352E+0	1.364845E+0	1.388044E+0	1.395412E+0	1.433540E+0	1.365124E+0	1.449853E+0	1.359899E+0	1.413488E+0	1.340878E+0	1.350686E+0	1.358847E+0	1.349816E+0	1.349072E+0	1.430456E+0	1.392007E+0	1.418490E+0	1.335197E+0	1.382425E+0	1.358832E+0	1.344542E+0	1.351965E+0	1.369870E+0	1.324342E+0	1.335110E+0	1.399059E+0	1.372335E+0	1.449300E+0	1.394412E+0	1.391797E+0	1.327750E+0	1.460173E+0	1.380598E+0	1.385940E+0	1.419095E+0	1.405548E+0	1.361329E+0	1.379361E+0	1.358258E+0	1.343202E+0	1.397194E+0	1.416614E+0	1.405258E+0	1.365088E+0	1.396715E+0	1.396990E+0	1.388883E+0	1.370687E+0	1.438850E+0	1.345012E+0	1.378845E+0	1.348897E+0	1.366400E+0	1.326097E+0	1.404686E+0	1.380903E+0	1.358061E+0	1.457991E+0	1.358444E+0	1.374106E+0	1.397977E+0	1.376663E+0	1.455995E+0	1.457794E+0	1.390854E+0	1.346887E+0	1.372966E+0	1.395763E+0	1.470048E+0
5.505060E+2	1.324956E+0	1.335416E+0	1.318188E+0	1.317224E+0	1.221195E+0	1.340136E+0	1.317807E+0	1.316852E+0	1.304507E+0	1.331346E+0	1.309500E+0	1.241588E+0	1.300699E+0	1.340161E+0	1.341923E+0	1.326005E+0	1.301022E+0	1.298951E+0	1.322468E+0	1.285810E+0	1.336680E+0	1.348340E+0	1.321256E+0	1.284403E+0	1.352136E+0	1.324896E+0	1.340347E+0	1.284065E+0	1.348729E+0	1.349588E+0	1.290514E+0	1.305683E+0	1.345885E+0	1.305536E+0	1.296569E+0	1.330206E+0	1.350487E+0	1.279105E+0	1.331220E+0	1.268352E+0	1.286925E+0	1.285347E+0	1.286167E+0	1.302857E+0	1.333777E+0	1.342156E+0	1.368130E+0	1.316598E+0	1.296042E+0	1.368186E+0	1.287773E+0	1.347298E+0	1.324796E+0	1.329505E+0	1.327869E+0	1.336190E+0	1.341148E+0	1.356952E+0	1.283729E+0	1.297295E+0	1.323582E+0	1.330942E+0	1.283406E+0	1.328031E+0	1.353403E+0	1.327753E+0	1.351194E+0	1.311594E+0	1.356813E+0	1.312303E+0	1.255335E+0	1.303231E+0	1.339876E+0	1.359191E+0	1.340452E+0	1.305244E+0	1.294772E+0	1.324266E+0	1.352484E+0	1.291165E+0	1.285890E+0	1.315706E+0	1.290288E+0	1.323137E+0	1.354092E+0	1.303152E+0	1.329393E+0	1.297873E+0	1.329032E+0	1.305716E+0	1.307681E+0	1.314627E+0	1.320862E+0	1.305924E+0	1.257473E+0	1.308570E+0	1.304100E+0	1.326300E+0	1.330573E+0	1.307910E+0	1.299950E+0	1.358317E+0	1.325801E+0	1.286115E+0	1.331381E+0	1.343692E+0	1.271444E+0	1.350847E+0	1.302254E+0	1.356154E+0	1.324531E+0	1.277453E+0	1.358134E+0	1.286483E+0	1.256726E+0	1.350224E+0	1.299305E+0	1.387451E+0	1.280019E+0	1.289602E+0	1.296094E+0	1.323391E+0	1.286844E+0	1.286500E+0	1.294509E+0	1.244349E+0	1.291690E+0	1.305752E+0	1.308868E+0	1.306116E+0	1.293317E+0	1.356359E+0	1.345616E+0	1.282360E+0	1.324783E+0	1.377459E+0	1.277755E+0	1.313420E+0	1.276830E+0	1.294787E+0	1.326429E+0	1.281347E+0	1.304260E+0	1.366673E+0	1.358588E+0	1.299344E+0	1.315479E+0	1.322734E+0	1.325858E+0	1.321553E+0	1.286018E+0	1.332262E+0	1.306589E+0	1.337477E+0	1.330842E+0	1.277267E+0	1.306193E+0	1.317445E+0	1.301709E+0	1.310005E+0	1.252140E+0	1.322886E+0	1.305772E+0	1.314022E+0	1.299846E+0	1.304769E+0	1.357833E+0	1.310609E+0	1.357520E+0	1.374196E+0
5.512510E+2	1.342844E+0	1.322209E+0	1.318452E+0	1.305981E+0	1.290338E+0	1.299923E+0	1.316316E+0	1.310665E+0	1.297162E+0	1.367435E+0	1.347664E+0	1.330664E+0	1.334604E+0	1.357417E+0	1.280076E+0	1.304919E+0	1.345521E+0	1.314002E+0	1.341521E+0	1.299718E+0	1.389849E+0	1.359007E+0	1.339136E+0	1.323436E+0	1.340945E+0	1.272844E+0	1.309469E+0	1.280513E+0	1.303713E+0	1.341163E+0	1.289277E+0	1.318600E+0	1.360406E+0	1.325431E+0	1.302740E+0	1.305435E+0	1.367938E+0	1.348492E+0	1.318517E+0	1.312696E+0	1.316579E+0	1.327853E+0	1.290656E+0	1.325934E+0	1.375908E+0	1.284669E+0	1.330256E+0	1.266363E+0	1.375740E+0	1.314963E+0	1.319624E+0	1.311749E+0	1.324217E+0	1.355556E+0	1.275368E+0	1.353305E+0	1.319571E+0	1.348457E+0	1.292544E+0	1.307713E+0	1.327052E+0	1.338066E+0	1.308073E+0	1.302125E+0	1.299665E+0	1.268642E+0	1.355128E+0	1.332376E+0	1.403067E+0	1.311874E+0	1.297031E+0	1.350786E+0	1.316554E+0	1.262427E+0	1.321083E+0	1.323962E+0	1.329684E+0	1.302925E+0	1.325972E+0	1.323072E+0	1.281199E+0	1.216614E+0	1.289344E+0	1.286629E+0	1.354546E+0	1.311344E+0	1.280412E+0	1.330126E+0	1.382741E+0	1.312793E+0	1.289977E+0	1.296496E+0	1.315378E+0	1.292496E+0	1.273791E+0	1.287649E+0	1.266664E+0	1.350442E+0	1.361192E+0	1.308796E+0	1.359736E+0	1.341744E+0	1.334485E+0	1.298164E+0	1.325069E+0	1.274035E+0	1.352355E+0	1.295772E+0	1.310976E+0	1.308719E+0	1.251168E+0	1.323878E+0	1.350729E+0	1.256496E+0	1.328911E+0	1.315046E+0	1.255159E+0	1.310187E+0	1.259147E+0	1.305562E+0	1.337823E+0	1.341998E+0	1.338684E+0	1.320715E+0	1.304791E+0	1.269976E+0	1.262630E+0	1.336915E+0	1.311184E+0	1.324352E+0	1.273224E+0	1.322257E+0	1.334760E+0	1.270926E+0	1.280949E+0	1.338521E+0	1.297950E+0	1.300099E+0	1.346550E+0	1.307134E+0	1.265763E+0	1.314442E+0	1.315273E+0	1.305462E+0	1.341042E+0	1.280016E+0	1.326135E+0	1.289739E+0	1.354576E+0	1.279815E+0	1.270679E+0	1.341251E+0	1.285329E+0	1.267808E+0	1.289372E+0	1.305234E+0	1.263864E+0	1.325227E+0	1.303869E+0	1.262351E+0	1.299125E+0	1.320837E+0	1.321996E+0	1.292493E+0	1.325350E+0	1.298832E+0	1.261830E+0	1.321719E+0	1.364562E+0	1.356655E+0
5.520210E+2	1.291074E+0	1.287940E+0	1.254752E+0	1.288549E+0	1.244451E+0	1.298291E+0	1.285874E+0	1.282101E+0	1.284436E+0	1.266470E+0	1.253859E+0	1.280126E+0	1.236285E+0	1.305803E+0	1.270753E+0	1.286801E+0	1.245943E+0	1.312250E+0	1.302349E+0	1.271611E+0	1.313315E+0	1.278257E+0	1.279183E+0	1.295974E+0	1.279420E+0	1.320393E+0	1.243959E+0	1.288295E+0	1.308445E+0	1.294949E+0	1.234686E+0	1.301555E+0	1.317362E+0	1.283936E+0	1.301587E+0	1.263063E+0	1.312110E+0	1.291904E+0	1.251405E+0	1.288771E+0	1.263141E+0	1.293643E+0	1.259718E+0	1.278765E+0	1.276359E+0	1.301497E+0	1.274560E+0	1.305587E+0	1.310035E+0	1.296894E+0	1.301427E+0	1.276229E+0	1.291266E+0	1.256497E+0	1.237707E+0	1.252544E+0	1.311974E+0	1.309836E+0	1.245743E+0	1.288352E+0	1.274208E+0	1.295069E+0	1.272489E+0	1.289426E+0	1.295085E+0	1.291133E+0	1.261942E+0	1.361719E+0	1.324111E+0	1.284794E+0	1.303288E+0	1.253990E+0	1.228647E+0	1.279782E+0	1.284603E+0	1.314817E+0	1.237341E+0	1.280774E+0	1.252964E+0	1.231066E+0	1.337667E+0	1.234850E+0	1.312566E+0	1.289130E+0	1.304101E+0	1.258598E+0	1.342196E+0	1.298211E+0	1.334350E+0	1.253252E+0	1.268616E+0	1.243564E+0	1.247585E+0	1.273200E+0	1.330346E+0	1.263104E+0	1.350649E+0	1.274930E+0	1.315848E+0	1.319315E+0	1.301330E+0	1.351710E+0	1.284838E+0	1.233095E+0	1.294126E+0	1.257520E+0	1.260110E+0	1.263918E+0	1.253467E+0	1.270639E+0	1.245937E+0	1.267949E+0	1.282025E+0	1.254221E+0	1.255672E+0	1.329586E+0	1.347581E+0	1.318808E+0	1.269001E+0	1.223260E+0	1.289788E+0	1.292345E+0	1.270063E+0	1.235678E+0	1.265296E+0	1.297048E+0	1.221600E+0	1.278467E+0	1.333058E+0	1.252942E+0	1.281222E+0	1.283133E+0	1.324102E+0	1.294750E+0	1.282596E+0	1.242997E+0	1.328082E+0	1.271599E+0	1.337559E+0	1.268145E+0	1.290249E+0	1.310572E+0	1.312007E+0	1.279902E+0	1.315265E+0	1.251852E+0	1.285028E+0	1.257399E+0	1.326522E+0	1.309882E+0	1.281017E+0	1.229054E+0	1.296584E+0	1.317104E+0	1.286163E+0	1.253549E+0	1.252898E+0	1.224678E+0	1.252217E+0	1.268498E+0	1.279082E+0	1.295832E+0	1.256991E+0	1.236091E+0	1.338747E+0	1.267769E+0	1.257298E+0	1.263328E+0	1.335592E+0	1.305087E+0
5.527650E+2	1.329133E+0	1.299352E+0	1.362483E+0	1.261225E+0	1.244833E+0	1.276100E+0	1.323093E+0	1.299219E+0	1.261872E+0	1.338425E+0	1.281591E+0	1.265345E+0	1.249893E+0	1.303528E+0	1.294494E+0	1.285177E+0	1.330787E+0	1.267169E+0	1.276280E+0	1.301059E+0	1.258920E+0	1.317289E+0	1.237275E+0	1.302075E+0	1.310637E+0	1.342061E+0	1.278990E+0	1.275624E+0	1.302969E+0	1.349565E+0	1.239967E+0	1.294637E+0	1.261559E+0	1.261470E+0	1.343315E+0	1.270062E+0	1.262748E+0	1.321254E+0	1.293995E+0	1.276961E+0	1.287255E+0	1.286404E+0	1.271919E+0	1.300157E+0	1.243735E+0	1.251618E+0	1.276034E+0	1.293673E+0	1.259784E+0	1.260374E+0	1.271452E+0	1.299674E+0	1.331863E+0	1.281784E+0	1.270957E+0	1.304382E+0	1.269766E+0	1.355874E+0	1.329971E+0	1.281080E+0	1.283655E+0	1.309002E+0	1.320325E+0	1.314622E+0	1.281186E+0	1.330492E+0	1.260925E+0	1.302011E+0	1.280036E+0	1.285622E+0	1.296980E+0	1.242324E+0	1.265338E+0	1.299099E+0	1.329344E+0	1.288084E+0	1.283432E+0	1.323864E+0	1.215113E+0	1.271786E+0	1.257381E+0	1.278895E+0	1.228086E+0	1.296449E+0	1.328321E+0	1.302441E+0	1.298713E+0	1.276780E+0	1.316989E+0	1.259755E+0	1.251575E+0	1.254840E+0	1.245501E+0	1.275354E+0	1.275517E+0	1.277262E+0	1.315428E+0	1.310296E+0	1.272463E+0	1.265357E+0	1.271063E+0	1.300389E+0	1.282407E+0	1.229220E+0	1.283666E+0	1.226309E+0	1.308175E+0	1.302059E+0	1.283853E+0	1.293572E+0	1.283487E+0	1.238297E+0	1.264229E+0	1.286460E+0	1.297404E+0	1.272802E+0	1.293026E+0	1.329540E+0	1.269503E+0	1.313008E+0	1.327024E+0	1.235157E+0	1.244273E+0	1.253048E+0	1.278070E+0	1.266100E+0	1.218385E+0	1.273793E+0	1.267139E+0	1.313591E+0	1.300267E+0	1.270918E+0	1.309747E+0	1.287743E+0	1.268517E+0	1.325994E+0	1.304055E+0	1.286551E+0	1.292960E+0	1.282806E+0	1.245170E+0	1.282223E+0	1.321201E+0	1.238944E+0	1.293239E+0	1.250206E+0	1.281741E+0	1.304015E+0	1.277816E+0	1.293943E+0	1.282984E+0	1.238442E+0	1.284322E+0	1.264796E+0	1.242780E+0	1.283514E+0	1.270951E+0	1.280301E+0	1.290257E+0	1.311854E+0	1.315104E+0	1.256789E+0	1.246059E+0	1.233431E+0	1.377394E+0	1.298289E+0	1.322430E+0	1.276813E+0	1.224515E+0	1.258264E+0
5.535100E+2	1.299802E+0	1.253186E+0	1.214410E+0	1.223544E+0	1.213777E+0	1.278744E+0	1.254066E+0	1.245324E+0	1.205222E+0	1.260890E+0	1.270258E+0	1.232700E+0	1.210159E+0	1.225478E+0	1.275294E+0	1.230268E+0	1.216802E+0	1.217600E+0	1.234306E+0	1.257933E+0	1.264756E+0	1.277958E+0	1.222858E+0	1.237500E+0	1.228007E+0	1.224441E+0	1.243450E+0	1.154372E+0	1.236238E+0	1.285431E+0	1.216040E+0	1.187041E+0	1.222850E+0	1.188752E+0	1.209074E+0	1.241301E+0	1.257679E+0	1.268292E+0	1.253326E+0	1.242642E+0	1.212289E+0	1.202184E+0	1.224583E+0	1.192754E+0	1.268468E+0	1.260708E+0	1.229415E+0	1.253774E+0	1.215163E+0	1.271613E+0	1.222277E+0	1.258691E+0	1.229373E+0	1.243415E+0	1.206539E+0	1.220502E+0	1.208173E+0	1.260996E+0	1.224943E+0	1.201975E+0	1.200545E+0	1.207682E+0	1.183427E+0	1.183529E+0	1.208191E+0	1.283534E+0	1.178968E+0	1.241074E+0	1.270827E+0	1.259662E+0	1.214544E+0	1.215645E+0	1.217487E+0	1.213251E+0	1.285563E+0	1.212553E+0	1.202625E+0	1.190354E+0	1.222675E+0	1.226619E+0	1.240746E+0	1.185164E+0	1.209180E+0	1.240350E+0	1.254832E+0	1.193185E+0	1.197712E+0	1.213774E+0	1.256432E+0	1.264337E+0	1.221617E+0	1.196743E+0	1.237765E+0	1.213581E+0	1.231684E+0	1.246451E+0	1.206242E+0	1.207185E+0	1.244962E+0	1.216515E+0	1.185020E+0	1.249679E+0	1.244360E+0	1.237091E+0	1.217249E+0	1.213927E+0	1.220653E+0	1.255699E+0	1.214854E+0	1.185439E+0	1.179948E+0	1.180771E+0	1.246917E+0	1.205586E+0	1.214306E+0	1.219603E+0	1.185877E+0	1.259239E+0	1.210907E+0	1.226652E+0	1.207822E+0	1.207222E+0	1.213766E+0	1.194630E+0	1.234076E+0	1.230394E+0	1.187342E+0	1.236738E+0	1.237118E+0	1.258816E+0	1.237138E+0	1.196869E+0	1.277583E+0	1.218060E+0	1.226692E+0	1.256963E+0	1.221042E+0	1.230906E+0	1.225593E+0	1.208568E+0	1.205125E+0	1.172585E+0	1.237307E+0	1.174611E+0	1.246286E+0	1.210559E+0	1.234869E+0	1.196399E+0	1.261560E+0	1.221921E+0	1.204233E+0	1.158696E+0	1.229887E+0	1.199055E+0	1.250713E+0	1.181553E+0	1.203313E+0	1.208694E+0	1.237941E+0	1.228341E+0	1.161867E+0	1.269272E+0	1.236310E+0	1.220500E+0	1.248181E+0	1.138623E+0	1.208636E+0	1.213439E+0	1.208427E+0	1.178377E+0
5.542580E+2	1.142818E+0	1.082474E+0	1.138911E+0	1.127130E+0	1.098310E+0	1.152310E+0	1.128937E+0	1.130307E+0	1.130481E+0	1.164189E+0	1.108413E+0	1.136706E+0	1.096580E+0	1.146319E+0	1.185600E+0	1.097439E+0	1.103684E+0	1.117950E+0	1.146964E+0	1.140978E+0	1.139374E+0	1.167815E+0	1.106291E+0	1.135169E+0	1.104955E+0	1.112053E+0	1.142101E+0	1.073452E+0	1.147747E+0	1.161719E+0	1.095188E+0	1.131118E+0	1.120419E+0	1.140240E+0	1.089393E+0	1.095108E+0	1.114225E+0	1.166266E+0	1.114627E+0	1.123504E+0	1.065598E+0	1.159179E+0	1.133673E+0	1.146680E+0	1.156271E+0	1.099962E+0	1.162532E+0	1.141760E+0	1.128376E+0	1.116674E+0	1.116096E+0	1.099267E+0	1.098139E+0	1.138332E+0	1.154769E+0	1.110880E+0	1.080528E+0	1.174506E+0	1.150992E+0	1.060783E+0	1.095967E+0	1.089814E+0	1.098768E+0	1.152620E+0	1.098948E+0	1.126828E+0	1.105514E+0	1.132273E+0	1.132774E+0	1.138623E+0	1.128724E+0	1.103204E+0	1.130119E+0	1.157207E+0	1.102374E+0	1.096576E+0	1.122127E+0	1.128560E+0	1.145716E+0	1.131989E+0	1.118827E+0	1.141235E+0	1.101552E+0	1.155924E+0	1.157118E+0	1.123336E+0	1.155709E+0	1.142937E+0	1.111902E+0	1.125257E+0	1.133203E+0	1.094091E+0	1.129581E+0	1.111736E+0	1.141980E+0	1.134800E+0	1.115295E+0	1.169016E+0	1.150342E+0	1.113371E+0	1.116452E+0	1.154606E+0	1.140654E+0	1.090818E+0	1.126963E+0	1.088251E+0	1.129797E+0	1.116108E+0	1.152607E+0	1.137705E+0	1.103886E+0	1.118852E+0	1.169459E+0	1.119368E+0	1.113736E+0	1.083467E+0	1.134061E+0	1.130997E+0	1.079112E+0	1.093134E+0	1.128118E+0	1.106105E+0	1.096900E+0	1.107450E+0	1.132081E+0	1.110448E+0	1.078019E+0	1.122386E+0	1.105960E+0	1.142172E+0	1.115035E+0	1.097302E+0	1.134265E+0	1.130291E+0	1.144636E+0	1.123253E+0	1.126582E+0	1.146993E+0	1.149516E+0	1.158083E+0	1.098778E+0	1.112881E+0	1.124089E+0	1.136372E+0	1.075745E+0	1.127466E+0	1.115289E+0	1.081296E+0	1.133711E+0	1.150145E+0	1.150270E+0	1.119374E+0	1.097014E+0	1.122363E+0	1.079511E+0	1.080858E+0	1.115930E+0	1.109985E+0	1.133942E+0	1.167432E+0	1.088920E+0	1.097108E+0	1.132721E+0	1.133370E+0	1.186656E+0	1.104158E+0	1.103979E+0	1.111881E+0	1.134511E+0	1.201447E+0
5.550140E+2	1.046600E+0	1.001972E+0	1.066081E+0	1.041094E+0	1.029014E+0	1.057051E+0	1.058920E+0	1.008165E+0	1.082179E+0	1.052348E+0	1.055135E+0	1.026976E+0	9.885733E-1	1.018676E+0	1.011411E+0	1.015987E+0	9.902491E-1	1.004168E+0	1.047505E+0	9.997698E-1	1.058349E+0	1.032985E+0	1.009768E+0	9.903321E-1	1.003428E+0	1.048963E+0	1.038623E+0	9.842720E-1	1.024748E+0	1.057323E+0	1.044337E+0	1.036636E+0	1.060897E+0	9.999913E-1	1.054019E+0	1.046347E+0	1.046279E+0	1.025100E+0	1.020159E+0	9.832748E-1	1.024585E+0	1.011348E+0	1.030248E+0	1.066876E+0	1.027437E+0	1.052781E+0	9.805096E-1	1.039385E+0	1.020864E+0	1.034246E+0	1.053304E+0	1.070548E+0	1.054779E+0	1.061963E+0	9.999501E-1	1.062815E+0	1.011062E+0	1.081140E+0	1.026224E+0	1.006276E+0	1.039390E+0	1.064568E+0	1.038606E+0	1.006986E+0	1.006684E+0	1.046845E+0	1.026402E+0	1.019023E+0	1.066821E+0	1.020150E+0	9.937978E-1	1.047628E+0	9.743555E-1	1.083705E+0	1.038460E+0	1.020256E+0	1.014669E+0	1.010683E+0	1.033214E+0	1.002338E+0	1.006663E+0	1.038950E+0	1.021118E+0	1.072616E+0	1.019498E+0	1.067156E+0	9.956010E-1	1.008277E+0	1.028420E+0	1.034281E+0	9.982559E-1	1.019934E+0	1.008617E+0	1.017402E+0	1.040070E+0	1.003796E+0	9.876777E-1	1.053528E+0	1.038158E+0	1.016177E+0	1.037086E+0	1.047803E+0	1.030342E+0	1.052717E+0	1.025563E+0	1.038890E+0	1.030231E+0	1.048013E+0	1.035305E+0	1.048342E+0	1.022993E+0	1.046741E+0	1.047056E+0	1.071673E+0	1.024716E+0	1.064214E+0	1.041391E+0	1.100639E+0	1.018136E+0	1.034433E+0	1.007801E+0	1.035624E+0	1.032739E+0	1.045166E+0	1.023201E+0	1.004644E+0	1.013571E+0	1.033096E+0	1.005714E+0	1.067357E+0	1.042134E+0	1.049243E+0	1.053661E+0	9.808615E-1	1.001846E+0	1.031834E+0	1.038624E+0	1.035466E+0	1.071285E+0	1.058008E+0	1.001923E+0	1.032330E+0	1.043989E+0	9.947845E-1	1.053665E+0	9.816348E-1	1.010698E+0	1.027965E+0	1.030463E+0	1.050565E+0	1.055233E+0	1.015949E+0	9.993852E-1	1.003260E+0	1.018949E+0	1.020029E+0	1.018570E+0	1.057947E+0	9.881788E-1	1.014806E+0	1.013173E+0	1.052305E+0	1.042778E+0	1.043375E+0	1.039320E+0	1.053281E+0	9.736133E-1	1.033135E+0	1.036626E+0	9.607986E-1
5.557600E+2	1.009338E+0	9.926011E-1	9.543198E-1	1.005011E+0	9.784751E-1	9.865103E-1	9.452513E-1	1.002582E+0	9.553135E-1	9.757194E-1	9.610850E-1	9.903090E-1	9.195863E-1	1.037790E+0	9.827846E-1	9.747488E-1	9.821335E-1	9.713815E-1	9.317199E-1	9.484451E-1	9.940228E-1	9.942276E-1	9.876411E-1	9.696965E-1	9.331422E-1	1.028597E+0	1.009595E+0	9.622643E-1	9.741638E-1	9.917123E-1	9.493732E-1	9.513263E-1	9.818713E-1	9.721709E-1	9.711344E-1	9.780904E-1	9.706326E-1	9.621948E-1	9.237672E-1	9.795125E-1	9.696106E-1	9.680857E-1	9.508768E-1	1.000271E+0	9.908246E-1	9.815749E-1	9.825527E-1	9.682410E-1	9.852703E-1	9.825221E-1	9.506247E-1	9.603899E-1	9.568085E-1	1.024908E+0	9.215267E-1	9.677857E-1	9.739860E-1	9.749933E-1	9.808879E-1	9.496074E-1	9.311416E-1	9.758861E-1	9.973130E-1	9.805502E-1	1.000770E+0	9.947207E-1	9.897414E-1	9.999415E-1	1.027421E+0	9.933784E-1	9.607672E-1	1.013809E+0	9.883916E-1	9.807258E-1	9.694142E-1	9.678214E-1	1.009335E+0	9.605211E-1	9.803454E-1	9.807352E-1	9.588735E-1	1.005073E+0	9.693357E-1	9.832710E-1	9.762370E-1	9.712067E-1	9.594620E-1	9.942483E-1	9.550832E-1	9.273907E-1	1.004202E+0	9.563913E-1	9.671519E-1	9.871817E-1	9.744861E-1	9.688844E-1	9.741009E-1	9.639784E-1	1.013158E+0	9.714427E-1	9.568144E-1	1.002902E+0	9.599242E-1	9.432511E-1	9.856353E-1	9.208654E-1	9.846314E-1	9.804161E-1	9.626011E-1	9.666100E-1	9.340802E-1	9.627703E-1	9.464454E-1	9.977782E-1	9.600765E-1	9.921740E-1	9.922940E-1	1.006170E+0	9.704767E-1	9.869199E-1	9.628876E-1	9.722258E-1	1.003466E+0	9.693713E-1	9.357431E-1	9.559996E-1	9.775364E-1	1.009849E+0	9.852852E-1	9.441792E-1	9.538690E-1	9.643772E-1	1.021060E+0	1.026763E+0	9.720652E-1	9.524578E-1	9.782453E-1	9.913047E-1	9.430444E-1	1.003326E+0	9.557547E-1	9.587299E-1	9.772122E-1	9.585694E-1	9.531173E-1	9.711398E-1	9.549900E-1	1.002187E+0	1.007322E+0	9.961500E-1	9.595870E-1	9.810512E-1	1.006492E+0	9.647360E-1	9.504247E-1	9.634919E-1	9.507200E-1	9.458019E-1	9.879677E-1	9.877995E-1	9.427161E-1	9.558230E-1	1.020380E+0	9.549215E-1	9.832179E-1	9.705253E-1	9.634019E-1	9.714212E-1	1.028491E+0	1.039958E+0
5.560190E+2	1.001091E+0	9.814251E-1	9.477251E-1	9.688489E-1	9.555648E-1	9.430818E-1	9.619480E-1	9.971556E-1	9.547083E-1	9.621004E-1	9.683824E-1	9.285806E-1	9.610995E-1	9.848540E-1	9.700838E-1	9.627624E-1	9.428535E-1	9.685860E-1	9.521939E-1	9.682178E-1	9.747554E-1	9.934887E-1	9.230628E-1	9.451178E-1	9.747314E-1	9.784270E-1	9.585273E-1	9.495627E-1	9.369761E-1	9.708516E-1	9.489988E-1	9.749614E-1	9.812840E-1	9.407552E-1	1.004107E+0	9.671218E-1	9.826214E-1	9.679404E-1	9.883838E-1	9.791584E-1	9.604402E-1	1.011616E+0	9.302437E-1	9.787753E-1	9.732581E-1	9.711832E-1	9.701685E-1	9.558190E-1	9.579565E-1	9.930806E-1	9.561074E-1	9.917894E-1	9.677152E-1	9.872121E-1	9.385944E-1	9.616245E-1	9.737061E-1	9.871143E-1	9.851411E-1	9.722961E-1	9.435180E-1	9.565503E-1	9.489346E-1	9.268623E-1	9.587277E-1	9.866952E-1	9.317628E-1	9.754281E-1	9.990679E-1	9.891514E-1	1.019135E+0	9.804867E-1	1.017812E+0	9.640082E-1	9.840897E-1	9.409142E-1	9.887040E-1	9.775288E-1	9.832399E-1	9.850758E-1	9.707979E-1	9.469086E-1	9.875613E-1	9.620684E-1	9.790153E-1	9.644172E-1	9.811321E-1	9.125848E-1	9.648928E-1	9.811666E-1	9.402932E-1	9.631188E-1	9.827596E-1	9.746439E-1	9.789628E-1	9.583207E-1	9.725692E-1	9.493584E-1	9.556566E-1	9.859328E-1	9.566397E-1	9.868097E-1	1.001746E+0	9.311353E-1	1.007966E+0	9.840282E-1	9.348080E-1	1.008723E+0	9.632109E-1	9.684592E-1	9.313905E-1	9.543959E-1	1.003086E+0	9.493128E-1	9.556493E-1	9.142671E-1	9.551208E-1	9.683370E-1	1.007410E+0	9.610666E-1	9.733792E-1	1.015231E+0	9.627533E-1	9.155505E-1	9.839446E-1	9.339547E-1	9.697494E-1	1.027244E+0	9.777939E-1	1.021491E+0	9.775745E-1	1.007589E+0	9.803512E-1	9.790273E-1	9.625104E-1	9.749707E-1	9.576298E-1	9.764121E-1	9.346463E-1	1.011850E+0	9.229814E-1	9.687095E-1	9.862507E-1	9.698557E-1	9.348716E-1	9.530093E-1	9.326864E-1	9.741409E-1	9.504209E-1	1.010447E+0	9.406495E-1	9.907754E-1	9.392787E-1	9.542899E-1	9.749454E-1	9.599295E-1	9.740020E-1	1.002931E+0	9.873331E-1	9.644149E-1	1.004583E+0	9.577617E-1	9.684211E-1	9.848176E-1	9.462273E-1	9.738045E-1	9.356107E-1	9.536858E-1	9.617949E-1	9.797654E-1
5.565140E+2	9.342787E-1	9.659694E-1	9.878492E-1	9.510548E-1	9.746557E-1	1.009220E+0	9.716923E-1	9.426927E-1	1.003691E+0	9.599056E-1	9.946807E-1	9.879855E-1	9.687500E-1	1.026934E+0	9.624304E-1	9.985722E-1	9.721017E-1	1.010578E+0	9.977178E-1	9.679141E-1	9.763162E-1	9.833319E-1	9.657704E-1	1.026167E+0	9.460912E-1	9.875706E-1	9.655862E-1	9.809350E-1	9.970344E-1	9.739580E-1	9.724845E-1	9.395374E-1	9.653071E-1	9.421445E-1	9.815814E-1	9.889772E-1	9.862037E-1	1.009507E+0	9.668922E-1	9.545590E-1	9.618630E-1	9.822177E-1	9.432159E-1	9.669136E-1	9.899906E-1	9.686809E-1	1.009401E+0	9.906434E-1	1.003084E+0	9.893549E-1	9.777794E-1	9.267518E-1	9.874283E-1	1.002414E+0	9.781350E-1	9.613998E-1	9.645299E-1	1.003435E+0	9.959602E-1	9.451299E-1	1.003239E+0	9.954555E-1	9.792819E-1	9.519331E-1	9.564352E-1	9.701058E-1	1.017942E+0	9.843817E-1	9.873544E-1	9.748337E-1	9.795336E-1	9.798710E-1	9.777635E-1	9.939766E-1	1.017913E+0	9.746116E-1	9.536490E-1	1.006159E+0	9.775745E-1	9.803353E-1	1.009904E+0	9.725751E-1	9.657438E-1	9.560957E-1	9.707982E-1	9.480393E-1	9.316550E-1	9.697438E-1	9.617155E-1	9.807465E-1	9.554020E-1	1.003030E+0	9.799923E-1	1.026987E+0	1.001662E+0	9.865065E-1	9.954988E-1	1.014248E+0	9.933130E-1	9.907355E-1	9.853003E-1	1.002101E+0	9.967814E-1	1.006526E+0	9.810653E-1	9.859338E-1	9.877147E-1	9.614306E-1	9.673908E-1	9.443005E-1	9.949669E-1	9.493906E-1	9.094106E-1	9.923873E-1	9.927530E-1	9.375124E-1	9.764342E-1	9.818875E-1	9.750126E-1	9.868933E-1	9.875003E-1	9.826435E-1	9.951874E-1	9.911987E-1	9.720524E-1	1.009455E+0	9.833687E-1	1.003253E+0	1.012145E+0	9.693651E-1	9.572453E-1	1.001104E+0	1.024878E+0	9.784447E-1	9.820061E-1	9.723781E-1	9.813495E-1	1.008603E+0	9.875504E-1	9.932384E-1	9.527252E-1	9.751331E-1	9.634944E-1	9.652545E-1	9.814569E-1	9.769955E-1	9.645300E-1	9.493783E-1	9.827513E-1	9.720230E-1	9.572777E-1	9.874470E-1	1.027498E+0	1.004941E+0	9.919521E-1	9.422797E-1	1.042028E+0	9.919140E-1	9.678127E-1	9.796691E-1	9.837844E-1	9.777136E-1	9.787344E-1	9.742820E-1	9.724497E-1	1.013754E+0	9.936096E-1	1.005397E+0	9.789955E-1	9.468888E-1
5.570100E+2	9.918112E-1	9.720142E-1	1.016375E+0	1.024344E+0	9.574258E-1	9.705415E-1	1.017877E+0	1.027001E+0	1.022309E+0	1.006990E+0	1.055962E+0	9.588339E-1	1.029058E+0	9.798780E-1	9.645506E-1	9.823545E-1	1.017222E+0	9.739006E-1	9.934538E-1	1.007156E+0	9.922158E-1	9.996767E-1	9.801078E-1	9.950210E-1	1.039835E+0	9.641117E-1	9.895031E-1	9.926555E-1	9.849048E-1	1.040003E+0	9.834294E-1	1.024329E+0	1.031512E+0	1.006892E+0	1.014816E+0	9.954537E-1	1.006579E+0	9.886610E-1	9.664854E-1	9.914024E-1	1.008864E+0	9.694503E-1	9.734933E-1	1.002714E+0	9.817176E-1	9.874504E-1	1.002228E+0	1.012678E+0	9.552277E-1	1.000927E+0	9.921734E-1	9.959082E-1	9.843673E-1	1.025861E+0	1.008827E+0	1.004142E+0	9.748886E-1	1.040985E+0	9.803606E-1	9.901736E-1	1.005138E+0	1.001991E+0	1.016557E+0	9.585352E-1	1.009712E+0	9.975500E-1	9.734760E-1	9.939228E-1	9.847308E-1	1.022269E+0	1.001009E+0	9.777249E-1	9.635290E-1	1.009238E+0	9.708062E-1	1.022562E+0	9.968604E-1	9.867543E-1	1.025097E+0	1.034625E+0	1.006780E+0	9.535315E-1	1.014985E+0	1.003603E+0	1.007464E+0	9.866912E-1	1.002553E+0	9.807820E-1	1.016153E+0	9.665556E-1	9.823498E-1	9.872343E-1	9.894895E-1	9.840099E-1	9.801374E-1	1.036525E+0	1.021952E+0	1.029805E+0	9.980534E-1	9.720343E-1	9.681264E-1	1.031097E+0	9.966338E-1	9.847430E-1	1.026677E+0	1.038845E+0	9.818538E-1	9.983836E-1	9.911397E-1	9.684655E-1	9.994780E-1	9.571460E-1	9.877306E-1	9.733801E-1	9.994926E-1	9.668861E-1	9.844870E-1	9.857633E-1	1.007883E+0	9.903250E-1	1.007276E+0	9.880003E-1	9.906806E-1	1.001110E+0	9.912937E-1	1.039537E+0	1.044660E+0	9.819878E-1	9.316552E-1	1.000580E+0	1.037969E+0	9.708087E-1	9.685589E-1	1.027196E+0	9.936218E-1	9.913850E-1	1.027403E+0	9.691479E-1	9.710704E-1	9.992029E-1	9.861626E-1	1.000961E+0	9.929480E-1	9.943327E-1	9.825019E-1	9.815428E-1	1.029500E+0	1.028484E+0	9.839750E-1	1.007464E+0	9.707130E-1	1.007825E+0	9.949386E-1	1.030793E+0	1.002734E+0	9.974806E-1	9.883931E-1	1.001674E+0	1.017090E+0	1.010186E+0	1.014728E+0	9.974993E-1	9.901245E-1	1.013859E+0	9.876201E-1	9.966955E-1	9.781083E-1	9.696622E-1	1.010455E+0	1.010515E+0
5.575470E+2	9.831528E-1	9.991752E-1	9.513281E-1	9.632304E-1	9.600571E-1	9.977611E-1	1.053014E+0	1.009516E+0	9.779390E-1	1.020737E+0	1.008084E+0	1.008999E+0	9.723818E-1	1.005517E+0	9.727446E-1	1.037272E+0	9.954685E-1	9.862284E-1	1.024921E+0	9.854279E-1	9.759876E-1	1.049568E+0	9.996689E-1	1.025337E+0	1.002474E+0	1.050882E+0	1.016861E+0	9.769619E-1	1.004119E+0	9.726499E-1	9.674220E-1	9.777368E-1	1.033371E+0	1.047757E+0	1.025164E+0	1.026701E+0	1.015572E+0	1.017027E+0	1.016336E+0	9.961685E-1	9.885638E-1	1.011848E+0	1.026661E+0	9.901745E-1	9.535895E-1	1.011953E+0	9.922230E-1	9.981607E-1	1.011129E+0	1.007811E+0	1.001877E+0	9.723995E-1	1.006155E+0	9.940542E-1	1.003953E+0	9.977873E-1	1.033274E+0	1.020277E+0	1.020221E+0	1.019279E+0	1.019938E+0	1.022572E+0	9.574666E-1	1.014036E+0	1.013095E+0	1.014190E+0	9.660586E-1	9.656248E-1	1.047654E+0	9.990992E-1	1.010078E+0	1.009769E+0	1.004467E+0	9.933164E-1	9.979455E-1	1.014941E+0	9.642863E-1	9.680619E-1	1.031600E+0	9.800387E-1	9.766666E-1	9.900432E-1	9.702952E-1	1.027960E+0	9.829718E-1	1.022092E+0	1.010621E+0	9.738163E-1	1.073812E+0	1.041267E+0	1.019601E+0	1.017639E+0	1.016214E+0	9.948419E-1	9.775253E-1	9.853083E-1	1.008906E+0	1.002964E+0	1.003325E+0	9.994440E-1	1.025126E+0	9.756846E-1	9.723407E-1	1.019534E+0	1.010671E+0	1.028937E+0	9.571455E-1	1.013083E+0	1.028512E+0	9.923245E-1	1.018951E+0	9.960037E-1	1.015100E+0	9.875907E-1	1.004863E+0	9.613262E-1	1.032650E+0	1.022070E+0	9.792062E-1	9.751078E-1	1.023311E+0	1.031475E+0	9.709965E-1	1.046002E+0	1.039693E+0	1.036537E+0	9.766990E-1	1.032002E+0	1.011936E+0	1.038849E+0	1.049690E+0	1.018471E+0	1.002646E+0	1.000776E+0	9.771991E-1	1.011654E+0	1.008081E+0	1.011788E+0	9.868847E-1	1.042998E+0	1.004172E+0	1.041907E+0	9.992449E-1	9.644058E-1	9.823748E-1	9.856225E-1	1.026632E+0	9.815566E-1	9.980851E-1	1.080040E+0	9.952620E-1	1.000686E+0	1.049436E+0	1.055704E+0	1.025737E+0	9.938429E-1	1.027483E+0	9.981695E-1	1.049164E+0	9.790429E-1	9.759307E-1	9.973301E-1	1.001729E+0	1.011825E+0	9.495668E-1	1.039921E+0	1.016816E+0	1.018400E+0	1.018834E+0	1.058824E+0
5.580060E+2	1.016273E+0	9.707813E-1	1.004245E+0	1.004320E+0	1.016597E+0	9.742867E-1	9.886580E-1	1.007667E+0	1.019185E+0	1.016617E+0	1.022390E+0	1.027558E+0	9.943857E-1	9.882881E-1	1.028226E+0	9.806085E-1	9.919714E-1	9.908352E-1	9.510601E-1	9.788592E-1	1.018461E+0	9.764886E-1	1.033582E+0	9.960742E-1	1.004329E+0	1.013986E+0	1.032321E+0	1.041813E+0	1.029852E+0	9.615725E-1	1.015321E+0	1.023488E+0	9.609983E-1	9.921295E-1	9.760708E-1	1.009466E+0	1.020249E+0	9.961848E-1	9.963457E-1	9.533558E-1	1.000268E+0	9.569478E-1	1.054062E+0	9.774953E-1	1.045779E+0	9.981905E-1	9.764912E-1	1.004987E+0	9.900488E-1	9.928568E-1	1.036180E+0	1.011849E+0	1.031105E+0	1.021430E+0	1.004335E+0	1.016361E+0	9.686602E-1	1.007357E+0	9.848684E-1	1.014063E+0	1.009454E+0	1.013064E+0	1.023627E+0	1.021859E+0	9.921375E-1	1.026804E+0	1.014528E+0	1.019498E+0	1.030473E+0	1.031685E+0	1.009038E+0	9.586540E-1	1.012933E+0	1.038589E+0	9.976622E-1	1.024376E+0	1.003231E+0	9.922025E-1	9.812221E-1	9.891765E-1	1.017581E+0	1.007210E+0	9.982485E-1	9.889757E-1	9.963726E-1	1.023524E+0	9.757375E-1	1.042197E+0	9.919008E-1	1.016775E+0	1.016104E+0	9.812932E-1	1.025959E+0	9.978590E-1	1.022426E+0	1.017422E+0	9.807250E-1	1.006778E+0	9.825082E-1	1.012542E+0	1.012923E+0	1.024678E+0	1.014427E+0	1.007612E+0	1.007327E+0	9.604405E-1	9.888716E-1	9.805550E-1	9.780261E-1	1.038275E+0	1.017859E+0	1.018817E+0	1.006687E+0	9.988288E-1	9.822166E-1	9.843867E-1	9.810075E-1	1.023438E+0	9.624333E-1	9.873574E-1	9.681484E-1	1.005997E+0	1.017596E+0	9.791285E-1	1.031691E+0	9.535082E-1	1.009941E+0	9.866030E-1	1.006333E+0	9.782320E-1	9.773913E-1	1.017738E+0	9.659266E-1	9.710073E-1	1.018861E+0	9.964854E-1	9.836455E-1	1.041955E+0	9.899023E-1	9.995331E-1	9.698763E-1	9.906179E-1	9.603239E-1	1.028638E+0	9.807943E-1	1.043364E+0	9.662073E-1	1.013858E+0	1.018776E+0	9.728513E-1	9.958776E-1	1.007898E+0	9.923269E-1	9.917154E-1	9.835870E-1	9.823226E-1	9.853288E-1	1.006174E+0	9.859637E-1	1.012634E+0	1.007725E+0	1.021837E+0	1.001836E+0	1.024596E+0	1.000871E+0	1.005724E+0	9.545667E-1	9.534136E-1	1.002660E+0	9.661690E-1
5.585160E+2	9.805408E-1	1.021097E+0	1.000673E+0	9.669824E-1	1.038155E+0	9.699495E-1	9.872913E-1	9.696569E-1	9.718517E-1	1.025534E+0	1.012270E+0	1.005028E+0	1.035763E+0	9.778896E-1	1.016514E+0	1.018207E+0	1.006811E+0	9.817659E-1	1.013513E+0	1.018453E+0	9.914678E-1	1.018897E+0	9.876771E-1	9.780698E-1	1.001764E+0	9.753470E-1	1.024494E+0	1.010196E+0	1.021392E+0	9.791906E-1	1.023969E+0	1.009853E+0	1.025290E+0	1.030956E+0	1.031332E+0	1.022226E+0	9.788373E-1	9.911587E-1	9.844949E-1	1.037875E+0	1.015974E+0	1.017821E+0	9.989841E-1	1.004140E+0	1.045582E+0	9.990572E-1	9.955396E-1	9.795906E-1	1.005957E+0	1.029436E+0	1.007238E+0	1.021736E+0	1.017452E+0	1.002451E+0	9.935282E-1	1.009419E+0	1.043798E+0	1.008903E+0	9.913077E-1	9.952638E-1	1.022984E+0	1.004887E+0	1.026198E+0	1.004225E+0	1.013471E+0	1.014179E+0	9.997002E-1	9.989530E-1	9.892569E-1	9.674052E-1	1.003287E+0	1.035775E+0	1.016962E+0	9.933168E-1	9.999109E-1	9.823282E-1	1.026378E+0	1.028836E+0	1.031029E+0	9.990628E-1	9.696630E-1	1.019260E+0	1.007008E+0	1.020910E+0	9.739740E-1	9.871870E-1	9.978966E-1	9.973302E-1	9.540421E-1	9.853290E-1	1.008243E+0	9.716597E-1	1.018278E+0	9.985122E-1	9.844721E-1	9.849282E-1	1.011125E+0	9.601443E-1	1.020586E+0	1.028252E+0	1.029994E+0	9.886892E-1	1.012492E+0	9.902096E-1	1.028972E+0	1.008420E+0	9.913946E-1	1.015638E+0	1.002998E+0	9.907541E-1	9.594846E-1	9.956442E-1	9.862945E-1	1.033030E+0	9.729154E-1	1.044621E+0	9.772640E-1	1.046098E+0	9.743270E-1	1.020705E+0	1.018436E+0	1.024637E+0	1.033781E+0	1.033794E+0	1.048940E+0	9.894947E-1	9.937477E-1	9.845398E-1	9.845732E-1	1.027660E+0	9.742382E-1	1.035714E+0	1.015706E+0	1.018973E+0	9.771665E-1	9.760156E-1	9.756392E-1	9.979069E-1	1.019205E+0	9.844232E-1	1.027863E+0	1.013615E+0	9.825039E-1	1.016028E+0	1.026612E+0	9.697393E-1	9.878250E-1	1.016441E+0	1.015844E+0	1.008778E+0	9.908022E-1	9.804846E-1	9.948204E-1	9.870801E-1	9.870887E-1	1.009501E+0	1.029524E+0	9.828031E-1	1.004416E+0	9.651481E-1	9.723369E-1	1.003198E+0	1.020544E+0	1.014269E+0	1.008177E+0	1.006519E+0	1.043270E+0	1.012768E+0	1.010123E+0	1.010044E+0
5.590100E+2	9.921648E-1	1.056398E+0	1.027021E+0	1.007944E+0	1.011692E+0	1.040512E+0	1.017009E+0	1.027819E+0	9.946367E-1	9.963960E-1	1.018690E+0	9.927742E-1	1.015703E+0	1.022958E+0	1.013159E+0	1.006297E+0	1.004767E+0	1.042737E+0	9.997864E-1	1.003182E+0	1.038288E+0	9.668963E-1	1.012328E+0	9.986196E-1	1.001957E+0	9.819389E-1	9.860697E-1	1.003183E+0	1.019453E+0	1.042300E+0	1.010251E+0	1.001799E+0	1.000696E+0	1.013931E+0	9.790424E-1	9.999157E-1	9.942484E-1	9.900721E-1	1.029187E+0	9.764045E-1	9.869004E-1	1.021386E+0	1.038394E+0	1.046852E+0	9.960351E-1	1.040224E+0	1.028689E+0	9.946099E-1	1.010501E+0	9.920628E-1	9.844525E-1	9.898155E-1	1.017521E+0	1.000279E+0	9.929064E-1	1.045708E+0	9.873728E-1	9.512652E-1	1.007277E+0	1.028657E+0	1.003852E+0	1.035406E+0	1.012676E+0	1.016828E+0	1.012043E+0	9.830401E-1	9.949440E-1	1.023410E+0	1.019929E+0	9.760767E-1	9.803530E-1	9.998441E-1	1.043291E+0	9.835560E-1	1.018107E+0	1.010543E+0	1.004084E+0	1.014686E+0	9.914604E-1	1.012325E+0	1.000939E+0	9.951232E-1	1.020133E+0	1.000497E+0	1.041872E+0	9.893100E-1	9.890121E-1	1.036144E+0	9.833388E-1	1.012722E+0	1.009191E+0	1.019038E+0	9.853538E-1	9.797025E-1	9.817836E-1	9.845892E-1	1.003927E+0	9.998640E-1	1.018470E+0	1.025349E+0	9.760387E-1	9.888240E-1	1.026392E+0	9.973651E-1	9.778256E-1	9.859036E-1	1.057409E+0	1.013073E+0	1.023571E+0	1.015919E+0	9.806832E-1	9.975320E-1	1.011531E+0	1.001830E+0	9.835386E-1	1.033805E+0	1.001074E+0	1.003661E+0	1.040693E+0	1.029349E+0	1.004518E+0	9.989215E-1	9.935833E-1	1.017078E+0	1.002399E+0	1.020629E+0	1.013552E+0	1.017425E+0	1.008100E+0	1.013413E+0	1.008737E+0	9.900873E-1	1.042965E+0	9.847367E-1	1.020650E+0	1.013793E+0	1.017973E+0	9.832662E-1	9.842312E-1	9.985813E-1	1.037818E+0	9.752215E-1	1.048757E+0	1.007735E+0	1.010876E+0	1.035078E+0	1.011282E+0	9.573198E-1	9.886777E-1	9.952026E-1	1.007509E+0	9.967768E-1	9.980917E-1	9.883122E-1	9.813259E-1	1.033704E+0	9.640428E-1	1.000105E+0	9.993508E-1	1.032912E+0	1.054946E+0	1.015070E+0	9.832926E-1	9.844416E-1	1.007503E+0	9.866067E-1	9.806467E-1	9.867744E-1	9.719205E-1	9.752558E-1
5.595340E+2	1.029790E+0	1.028088E+0	1.019233E+0	1.071933E+0	1.038414E+0	9.912392E-1	1.051820E+0	1.024682E+0	1.044004E+0	9.628948E-1	9.643633E-1	1.033054E+0	1.029520E+0	9.827983E-1	1.020673E+0	1.021608E+0	1.007325E+0	1.048663E+0	1.015194E+0	1.016605E+0	1.024829E+0	1.024420E+0	1.028882E+0	1.030814E+0	1.016776E+0	1.071261E+0	1.019069E+0	1.031062E+0	9.971929E-1	1.006564E+0	1.039283E+0	1.027531E+0	1.003196E+0	9.782930E-1	1.037244E+0	1.014797E+0	1.029229E+0	1.052032E+0	1.036893E+0	1.043366E+0	1.008601E+0	1.037847E+0	1.002295E+0	1.000458E+0	1.010740E+0	1.007808E+0	1.046563E+0	1.030802E+0	1.027189E+0	1.036413E+0	1.026706E+0	1.030177E+0	9.833306E-1	1.002748E+0	9.975099E-1	1.004815E+0	1.025564E+0	9.937932E-1	1.064701E+0	1.004585E+0	1.003887E+0	1.012910E+0	9.808852E-1	1.019729E+0	9.909190E-1	1.000720E+0	1.029945E+0	9.950205E-1	1.017446E+0	1.004862E+0	1.030172E+0	1.013115E+0	9.912531E-1	1.014954E+0	1.034751E+0	9.774336E-1	1.029681E+0	1.013084E+0	1.024123E+0	1.014089E+0	9.723457E-1	1.031264E+0	1.026201E+0	1.046086E+0	1.029901E+0	1.024258E+0	1.053294E+0	1.027843E+0	1.018084E+0	9.928947E-1	1.046902E+0	1.014703E+0	1.004894E+0	1.049278E+0	1.043072E+0	9.825301E-1	1.036592E+0	1.000668E+0	1.013137E+0	1.033537E+0	1.006281E+0	1.003181E+0	1.033292E+0	1.030427E+0	9.859915E-1	1.052303E+0	1.038552E+0	1.022991E+0	1.035477E+0	1.035116E+0	1.016505E+0	1.017536E+0	1.022106E+0	1.005259E+0	1.040876E+0	1.046369E+0	1.033890E+0	9.949492E-1	1.038048E+0	1.029183E+0	1.012937E+0	9.999443E-1	1.034818E+0	1.022050E+0	1.007343E+0	9.844798E-1	1.027871E+0	1.019480E+0	1.059953E+0	1.009645E+0	1.023375E+0	1.051655E+0	1.023925E+0	1.013828E+0	1.009114E+0	1.027192E+0	1.060015E+0	1.018029E+0	1.026294E+0	9.865451E-1	9.850817E-1	1.011170E+0	1.009988E+0	1.000712E+0	1.042499E+0	9.975883E-1	1.005603E+0	1.032162E+0	1.032454E+0	1.010686E+0	1.054456E+0	1.042897E+0	9.852147E-1	9.926890E-1	9.832178E-1	1.073524E+0	9.962838E-1	1.001363E+0	9.974722E-1	1.032316E+0	1.009114E+0	1.019431E+0	1.031013E+0	1.003997E+0	1.048345E+0	9.882572E-1	1.016042E+0	1.007368E+0	1.038907E+0	1.014077E+0
5.600180E+2	1.039065E+0	1.014494E+0	9.903555E-1	1.001624E+0	9.999408E-1	9.918729E-1	9.668704E-1	1.002347E+0	1.019794E+0	1.037286E+0	9.761660E-1	1.022980E+0	1.029191E+0	1.008393E+0	1.031783E+0	1.010900E+0	9.861699E-1	1.010524E+0	1.008564E+0	1.033749E+0	1.022990E+0	9.982468E-1	9.990747E-1	9.862277E-1	1.004783E+0	9.952567E-1	9.904434E-1	1.027014E+0	1.010093E+0	1.032632E+0	1.051264E+0	9.958560E-1	1.027518E+0	9.943369E-1	9.986485E-1	9.668569E-1	9.951029E-1	1.017101E+0	1.021802E+0	1.024393E+0	1.000656E+0	1.000532E+0	9.756380E-1	1.042608E+0	1.040125E+0	1.004947E+0	1.001654E+0	9.887219E-1	1.008760E+0	1.025277E+0	9.875343E-1	1.031844E+0	1.002428E+0	1.013025E+0	1.016631E+0	1.008770E+0	1.014368E+0	9.689837E-1	1.023377E+0	1.022404E+0	9.884593E-1	9.947646E-1	1.017488E+0	1.013981E+0	1.008741E+0	1.043954E+0	1.011477E+0	9.886536E-1	9.999251E-1	1.012131E+0	9.899811E-1	1.004810E+0	9.931837E-1	1.042132E+0	9.868503E-1	1.030405E+0	1.022679E+0	1.029691E+0	9.665587E-1	1.048214E+0	1.063537E+0	1.036701E+0	1.018295E+0	9.718697E-1	1.042896E+0	1.016516E+0	1.009751E+0	9.994104E-1	9.858843E-1	1.015306E+0	1.006498E+0	9.891297E-1	1.004387E+0	9.854752E-1	9.986052E-1	1.037700E+0	1.036900E+0	1.011775E+0	1.027817E+0	9.944556E-1	1.028830E+0	9.941080E-1	9.759932E-1	1.031809E+0	1.011783E+0	1.010338E+0	9.958634E-1	9.946625E-1	1.006329E+0	1.010303E+0	9.812223E-1	1.026224E+0	1.049836E+0	9.981641E-1	1.030638E+0	9.995399E-1	1.019641E+0	1.035789E+0	1.000933E+0	1.014415E+0	1.011588E+0	1.028468E+0	1.009157E+0	9.745024E-1	9.735673E-1	1.028793E+0	1.012716E+0	1.048461E+0	1.005018E+0	9.961868E-1	1.033765E+0	9.837479E-1	1.023092E+0	1.021955E+0	1.014292E+0	1.032452E+0	9.845224E-1	9.872839E-1	1.036498E+0	9.845891E-1	1.017519E+0	1.039958E+0	1.029234E+0	1.042832E+0	1.005882E+0	9.790682E-1	1.007232E+0	1.002913E+0	1.028192E+0	9.807160E-1	9.971030E-1	9.733860E-1	1.007552E+0	9.810574E-1	1.034268E+0	9.928603E-1	1.019675E+0	9.986833E-1	1.041067E+0	9.829981E-1	9.983677E-1	1.015122E+0	1.004824E+0	1.000661E+0	1.040958E+0	1.028062E+0	1.018934E+0	1.035990E+0	1.006781E+0	9.863191E-1
5.605150E+2	1.020350E+0	9.696774E-1	1.008383E+0	1.007344E+0	9.859067E-1	1.041937E+0	9.567403E-1	9.666209E-1	9.672065E-1	9.874019E-1	9.502288E-1	9.872678E-1	9.908034E-1	9.808178E-1	1.006720E+0	9.751450E-1	1.021232E+0	9.526900E-1	1.017464E+0	9.945409E-1	9.766789E-1	9.866225E-1	1.031846E+0	9.750644E-1	9.847063E-1	9.639893E-1	9.992172E-1	9.417462E-1	9.837952E-1	1.046776E+0	9.466143E-1	9.927783E-1	9.903977E-1	9.798363E-1	9.865700E-1	9.848374E-1	9.785219E-1	9.538210E-1	9.665544E-1	1.023761E+0	9.981667E-1	1.003263E+0	1.001083E+0	1.016633E+0	9.893015E-1	1.033475E+0	9.862180E-1	1.006279E+0	9.850750E-1	9.561455E-1	9.733500E-1	1.036652E+0	1.008070E+0	9.539130E-1	9.860626E-1	9.677659E-1	9.685726E-1	1.023963E+0	9.627028E-1	9.828976E-1	9.805948E-1	9.716152E-1	9.909763E-1	1.022215E+0	1.019029E+0	9.498823E-1	9.762315E-1	1.055724E+0	9.527886E-1	1.034141E+0	1.010591E+0	1.007738E+0	9.884311E-1	9.800318E-1	9.886030E-1	9.888692E-1	9.857707E-1	9.732550E-1	9.772841E-1	9.792820E-1	9.469169E-1	1.015788E+0	9.813180E-1	9.902722E-1	9.854558E-1	9.953634E-1	1.000247E+0	9.706836E-1	9.949167E-1	9.790940E-1	9.922250E-1	1.015333E+0	9.732345E-1	9.699755E-1	9.952400E-1	9.984316E-1	9.523495E-1	1.003543E+0	9.662468E-1	9.790593E-1	9.899169E-1	1.008348E+0	1.001898E+0	9.660093E-1	1.022644E+0	9.775734E-1	9.857736E-1	1.008734E+0	9.908464E-1	1.027045E+0	1.043928E+0	1.039776E+0	1.020355E+0	1.042109E+0	9.781891E-1	1.043485E+0	9.914451E-1	9.365282E-1	1.003118E+0	9.878542E-1	9.869331E-1	9.601434E-1	9.755406E-1	9.603367E-1	9.533172E-1	9.674646E-1	9.810706E-1	9.800687E-1	9.502010E-1	1.021580E+0	9.702449E-1	9.567717E-1	9.786076E-1	9.915505E-1	9.795120E-1	1.007184E+0	1.004281E+0	9.890833E-1	1.028112E+0	1.004436E+0	9.994680E-1	9.703229E-1	9.969941E-1	9.919298E-1	1.004211E+0	1.021426E+0	9.997132E-1	1.020059E+0	9.675259E-1	9.909730E-1	1.014392E+0	1.012581E+0	9.788515E-1	9.715689E-1	1.015633E+0	9.801213E-1	9.938723E-1	1.037058E+0	9.557953E-1	1.006072E+0	9.590709E-1	9.606485E-1	9.893765E-1	9.541918E-1	9.698905E-1	9.671923E-1	1.001532E+0	9.650270E-1	9.924915E-1	9.727996E-1
5.610010E+2	1.012575E+0	1.002305E+0	9.945372E-1	1.001224E+0	1.017156E+0	1.012681E+0	9.890266E-1	1.021997E+0	9.793828E-1	9.862375E-1	9.971650E-1	9.755194E-1	9.344448E-1	1.026526E+0	9.831986E-1	9.690357E-1	9.969318E-1	1.002077E+0	9.783261E-1	9.941131E-1	9.827661E-1	9.958521E-1	9.610629E-1	9.886048E-1	9.972847E-1	9.956564E-1	9.764353E-1	9.944341E-1	9.521630E-1	9.443548E-1	9.899618E-1	1.007091E+0	9.617141E-1	1.013724E+0	9.695308E-1	9.907690E-1	9.954579E-1	9.844355E-1	1.015010E+0	9.987141E-1	1.030142E+0	9.986876E-1	9.861737E-1	9.520108E-1	9.471395E-1	9.482132E-1	9.609930E-1	9.935283E-1	1.003029E+0	9.697147E-1	1.012709E+0	9.828681E-1	9.621420E-1	9.838245E-1	1.018112E+0	9.838315E-1	1.018971E+0	9.810391E-1	9.692250E-1	9.975470E-1	9.624524E-1	9.473355E-1	9.948437E-1	9.766600E-1	9.844176E-1	9.995745E-1	1.015698E+0	9.748115E-1	9.704422E-1	9.774963E-1	9.859574E-1	1.012699E+0	1.008186E+0	9.508895E-1	9.874518E-1	9.739307E-1	1.013381E+0	9.872709E-1	9.940524E-1	9.628520E-1	1.035667E+0	9.785042E-1	9.977723E-1	9.937303E-1	9.682950E-1	1.007018E+0	1.029232E+0	1.002049E+0	1.020153E+0	1.009310E+0	9.634845E-1	1.000940E+0	1.002199E+0	1.013358E+0	1.015076E+0	9.860590E-1	9.520264E-1	9.702104E-1	9.765432E-1	9.645918E-1	9.774649E-1	9.832892E-1	9.697498E-1	9.657650E-1	9.470440E-1	9.513052E-1	1.015422E+0	9.914503E-1	9.757093E-1	9.774973E-1	9.869214E-1	1.001931E+0	9.909500E-1	9.674217E-1	1.014518E+0	9.820685E-1	1.002107E+0	9.698165E-1	1.018346E+0	9.788102E-1	9.793531E-1	9.797697E-1	9.786593E-1	9.748009E-1	9.797040E-1	9.701025E-1	9.563735E-1	9.461801E-1	1.030085E+0	9.444888E-1	9.673431E-1	9.739030E-1	9.536943E-1	9.915324E-1	1.027578E+0	9.714612E-1	9.570908E-1	9.929374E-1	9.702517E-1	1.006453E+0	1.019314E+0	9.810934E-1	1.016512E+0	9.881326E-1	9.827928E-1	1.009576E+0	1.001475E+0	9.978281E-1	9.837177E-1	9.812657E-1	1.016608E+0	9.900201E-1	9.712702E-1	9.961391E-1	9.944568E-1	9.943634E-1	9.533685E-1	9.820560E-1	9.818679E-1	9.990226E-1	1.023996E+0	9.921489E-1	9.985262E-1	1.017878E+0	1.014619E+0	9.672677E-1	9.964741E-1	1.045199E+0	9.688324E-1	1.059109E+0
