Photon Energy (eV)	#1	#2	#3	#4	#5	#6	#7	#8	#9	#10	#11	#12	#13	#14	#15	#16	#17	#18	#19	#20	#21	#22	#23	#24	#25	#26	#27	#28	#29	#30	#31	#32	#33	#34	#35	#36	#37	#38	#39	#40	#41	#42	#43	#44	#45	#46	#47	#48	#49	#50	#51	#52	#53	#54	#55	#56	#57	#58	#59	#60	#61	#62	#63	#64	#65	#66	#67	#68	#69	#70	#71	#72	#73	#74	#75	#76	#77	#78	#79	#80	#81	#82	#83	#84	#85	#86	#87	#88	#89	#90	#91	#92	#93	#94	#95	#96	#97	#98	#99	#100	#101	#102	#103	#104	#105	#106	#107	#108	#109	#110	#111	#112	#113	#114	#115	#116	#117	#118	#119	#120	#121	#122	#123	#124	#125	#126	#127	#128	#129	#130	#131	#132	#133	#134	#135	#136	#137	#138	#139	#140	#141	#142	#143	#144	#145	#146	#147	#148	#149	#150	#151	#152	#153	#154	#155	#156	#157	#158	#159	#160	#161	#162	#163	#164	#165	#166	#167	#168	#169	#170	#171	
5.300160E+2	-7.278323E-3	-1.017437E-2	-2.307343E-3	-1.097814E-2	2.055713E-3	-7.983002E-3	-8.317666E-3	5.618161E-4	-3.285693E-3	-5.584334E-3	-6.149465E-3	-6.933730E-3	-8.574593E-3	-2.838407E-3	-1.198049E-2	-1.081477E-2	-7.212697E-3	-8.086519E-3	-1.042578E-2	-3.990769E-3	-7.493889E-3	-2.968423E-3	-5.060761E-3	-1.390495E-2	-1.296451E-2	-1.102463E-2	-1.049527E-2	-5.823946E-3	-6.774364E-3	-4.136743E-3	-1.220740E-2	-7.447647E-3	-8.612521E-3	-9.850596E-3	-5.867198E-3	8.074401E-4	-4.654524E-3	-7.630625E-3	-9.845748E-3	-5.251141E-3	-1.687616E-2	-5.213255E-3	-7.431663E-3	-3.021205E-3	-4.327844E-3	-8.185563E-3	-5.208575E-3	-4.292395E-3	-1.094379E-2	-6.724224E-3	-3.296618E-3	-5.606318E-3	1.583206E-4	-6.142513E-3	-6.986664E-3	-1.097170E-2	-6.001935E-3	-9.629981E-4	-1.038701E-2	-1.254999E-2	-8.420792E-3	-5.312599E-3	-6.885505E-3	-1.468963E-2	-6.774205E-3	-1.193027E-2	-5.203886E-3	-4.441748E-3	-5.628825E-3	-3.419779E-3	-8.758932E-3	-1.047119E-2	-1.994064E-3	-1.014306E-2	-7.625053E-3	-1.121517E-2	3.539287E-3	-8.560378E-3	-4.051671E-3	-1.089090E-2	-1.028494E-2	-5.829361E-3	-1.655970E-3	-7.331371E-3	-2.352477E-3	-1.600863E-2	-3.363893E-3	-1.050739E-2	-4.557059E-3	-5.143027E-3	-8.351498E-3	-9.981824E-3	-1.820033E-2	-5.687678E-3	-6.161822E-3	-9.095005E-3	-1.344735E-2	-1.772047E-2	-5.539179E-3	-1.125712E-2	-1.049951E-2	-1.590557E-2	-1.731682E-2	-7.980255E-3	-4.953095E-3	-5.557272E-3	-1.603818E-2	-5.019049E-3	1.718344E-3	1.099011E-3	-3.410881E-3	-1.215745E-2	-1.366388E-2	-6.306455E-3	-8.678230E-3	-7.619339E-3	-1.806374E-2	-3.575219E-3	-4.414283E-3	-7.875998E-3	-3.419553E-3	-1.126802E-2	-5.823897E-3	-1.055313E-2	-9.409406E-3	-8.404645E-3	-8.599361E-3	-1.386583E-2	-5.295837E-3	-7.923046E-3	-4.557355E-3	-1.260323E-2	-5.018032E-3	-1.019907E-3	-1.042183E-2	-8.911370E-3	-2.372740E-3	-1.482743E-3	-6.054389E-3	-4.760993E-3	-8.128017E-3	-9.528792E-3	-5.255087E-3	-1.812526E-2	-1.099255E-2	-5.228340E-3	-9.922009E-3	-6.775088E-3	-1.026029E-2	-3.213953E-3	-1.144370E-2	-9.234728E-4	-7.092452E-3	-3.692317E-3	-2.175749E-3	-5.542107E-3	2.361778E-8	-5.401763E-3	1.720636E-4	-1.450552E-2	-4.937115E-3	2.021760E-4	-1.026922E-2	-1.258950E-2	-4.071033E-3	-3.164421E-3	-8.349703E-3	-8.748942E-3	-1.061453E-2	-5.070217E-3	-8.641012E-3
5.305180E+2	1.915442E-4	-5.039645E-3	-6.737400E-3	-1.646709E-3	-1.083910E-2	-5.321979E-3	1.988998E-3	-7.143205E-3	-5.077940E-3	-7.107340E-3	-1.040704E-3	-4.827286E-3	-2.461990E-3	-9.547408E-3	-3.411685E-3	-3.557513E-3	-6.678431E-3	-2.788964E-4	-1.646192E-3	-8.066446E-3	-5.695344E-3	-2.499725E-3	-7.591094E-3	-3.124708E-3	-1.772139E-3	-4.823237E-3	-1.049524E-2	4.159938E-3	-2.258166E-3	-4.136722E-3	-2.987834E-3	-6.133359E-3	-1.139079E-2	-4.925292E-3	-8.102370E-3	-6.190119E-3	-7.062015E-3	-5.195281E-3	1.640981E-3	8.621308E-4	-4.655506E-3	-1.033176E-2	2.209386E-3	-1.003822E-2	-5.409789E-3	-4.911350E-3	-1.240174E-3	-8.358943E-3	-4.169053E-3	-3.008202E-3	2.520918E-3	-1.045219E-3	-3.166414E-3	-4.760437E-3	-1.149706E-3	1.591314E-3	-8.325255E-3	-2.013544E-3	-1.038699E-2	-7.843576E-4	-6.293417E-3	-1.266858E-2	-1.368381E-2	1.461273E-3	-7.330969E-3	9.320281E-4	-2.201642E-3	-6.142859E-3	-5.153161E-3	-9.770557E-4	4.244024E-3	2.493135E-3	-6.551972E-3	-6.339461E-3	-8.211629E-3	-1.682276E-3	-9.313866E-4	-5.136244E-3	-3.079253E-3	-3.029826E-3	-9.074982E-3	1.284402E-3	-4.870570E-4	6.245239E-3	-8.401316E-4	-6.612255E-3	-2.859327E-3	-2.263131E-3	-8.544604E-3	-2.769283E-3	-4.131787E-3	-7.803998E-3	3.640083E-3	-4.136499E-3	-2.164991E-3	-1.044796E-2	-3.987832E-3	-3.115674E-3	-1.528049E-3	-9.596238E-3	-1.362508E-3	3.956210E-3	-1.604955E-3	-7.465352E-3	-2.095545E-3	-6.650501E-3	-5.476476E-3	-1.041733E-3	-6.963822E-3	-9.552956E-3	-1.226077E-2	-1.620990E-2	2.732805E-3	-5.788138E-3	-5.615360E-3	-8.822406E-3	1.600585E-3	-1.055942E-2	-1.269103E-2	-2.689406E-3	-1.025876E-2	-3.691268E-3	-3.639904E-3	2.524469E-8	-1.106990E-2	-1.782783E-3	-3.860941E-3	-5.159395E-3	-8.893092E-3	-5.190989E-3	-1.377839E-3	-1.376662E-2	-6.407692E-3	-1.376921E-2	-1.261586E-2	3.637407E-4	-3.467931E-3	-3.150925E-3	-9.748574E-3	-5.343926E-3	-4.572035E-3	-6.999019E-3	-4.221293E-3	-4.474443E-3	-7.361964E-3	-3.418520E-3	6.876353E-4	-1.129176E-2	-4.302723E-3	-9.303592E-3	-3.521133E-3	-9.990278E-3	7.465378E-4	-3.109347E-3	-6.922868E-3	-2.675487E-3	-5.678594E-3	-1.363310E-2	-6.538863E-3	-1.177149E-2	-8.574981E-3	-1.011000E-2	-9.168934E-3	-9.207239E-3	-7.062055E-3	-7.302619E-4	-4.658259E-3	-5.624298E-3	5.307261E-3	-6.240210E-3	-1.335428E-2
5.310250E+2	-4.979852E-3	1.806677E-3	3.230259E-3	-6.586882E-3	-4.672011E-3	1.064413E-3	9.041382E-4	2.006531E-3	-4.480552E-3	-2.030717E-3	-4.730299E-4	1.492089E-3	1.103668E-3	1.290172E-3	3.729031E-3	-2.276792E-3	-5.609900E-3	-3.624984E-3	-7.133455E-3	2.632212E-3	1.049144E-3	-2.031028E-3	-8.097156E-3	-2.656032E-3	2.704815E-3	-6.890451E-4	4.254825E-3	-1.026122E-2	-1.756336E-3	1.323749E-3	3.670777E-3	-2.190481E-3	-2.778601E-4	-6.019827E-3	8.661141E-3	-3.498780E-3	-1.283976E-3	7.955326E-3	-1.093963E-3	-7.602339E-3	5.237428E-3	-1.800966E-3	-9.239367E-3	-2.436457E-3	-2.704904E-3	-2.728515E-3	3.224358E-3	-5.196111E-3	1.042253E-3	3.892962E-3	-3.296607E-3	-4.466087E-3	-5.541225E-3	3.071277E-3	-6.456066E-3	-6.951544E-3	1.548870E-3	-7.266324E-3	5.045110E-3	-6.078909E-3	-4.431989E-4	-2.370266E-3	6.711177E-3	-3.614695E-3	1.020804E-3	1.491269E-3	-3.402491E-3	8.032949E-3	-1.181261E-2	-3.908345E-3	-2.257455E-3	-3.490419E-3	8.546105E-4	7.244852E-4	1.173111E-3	-1.121509E-3	-3.725577E-3	-2.690372E-3	-5.996455E-3	-1.064527E-3	-3.629991E-3	3.062871E-3	-9.254001E-3	-7.874461E-3	2.184414E-3	1.218039E-3	-2.859311E-3	-3.718022E-3	-9.683832E-3	-2.175896E-3	-2.549433E-3	9.074425E-4	-5.581430E-3	-6.721814E-3	-6.661381E-4	8.267984E-4	-1.010869E-2	6.815543E-3	-3.820248E-4	-1.291798E-3	-3.766988E-3	-9.607927E-3	-1.604952E-3	-5.405953E-3	-4.381626E-3	-1.730970E-3	1.564708E-3	-1.609840E-3	-8.591690E-3	-2.451658E-3	-6.729610E-3	6.078732E-3	-1.073590E-2	-3.196438E-3	-5.002760E-3	3.809640E-3	-4.801774E-3	2.910088E-3	5.517993E-4	-4.418205E-3	-2.279692E-3	-4.274086E-3	-1.455944E-3	3.103869E-3	2.767484E-3	2.546612E-4	-4.913924E-3	6.932938E-3	-4.696339E-3	6.283800E-3	-2.649696E-3	7.755867E-3	7.717868E-5	3.059784E-3	-1.097033E-2	-6.183386E-3	-7.848438E-3	-2.038826E-3	1.026065E-4	-3.012017E-3	-2.540033E-3	1.096251E-3	-5.771974E-3	-8.342066E-4	-2.521243E-3	-6.434879E-3	-7.564272E-3	-2.258343E-3	3.640759E-3	-1.691581E-3	9.154947E-3	-3.945723E-3	-9.332004E-4	3.303652E-3	-5.736074E-3	1.911076E-3	-2.064958E-3	7.716740E-4	-8.603780E-3	-1.040447E-2	-2.858343E-3	-5.257171E-3	-3.117399E-3	-4.133860E-3	-6.563535E-3	-7.302470E-4	-3.603596E-3	-8.123945E-3	7.821277E-3	1.248042E-2	7.855520E-3
5.315130E+2	-8.427546E-3	-5.039645E-3	-4.522365E-3	-3.738976E-8	-9.717821E-3	5.854202E-3	-2.893138E-3	5.618131E-4	-8.064990E-3	-3.045947E-3	9.461291E-5	4.388498E-4	-3.480737E-3	-2.322339E-3	-3.887734E-3	-5.692001E-3	8.014492E-4	2.788295E-4	3.292378E-3	-9.340259E-4	3.297316E-3	-1.093633E-3	1.012177E-3	-7.811703E-4	-9.047164E-3	-3.789699E-3	-4.822137E-3	-8.319720E-4	3.261731E-3	-8.604403E-3	5.975518E-4	-4.380954E-4	-2.777821E-4	2.114230E-8	-1.145508E-2	1.345684E-3	3.049501E-3	-5.195311E-3	-5.469894E-3	-4.310605E-3	-3.491604E-3	3.886236E-3	-1.405958E-3	8.089022E-3	1.622944E-3	-1.091392E-3	-2.232239E-3	3.388781E-3	3.973631E-8	-3.539068E-3	-5.041896E-3	6.651370E-4	-2.216476E-3	-3.378369E-3	9.728069E-4	5.611480E-3	-2.516925E-3	-4.114647E-3	-9.199888E-3	7.451539E-3	-3.634227E-3	2.533698E-3	-1.656054E-3	1.461273E-3	3.804652E-3	-4.101016E-3	5.003755E-3	-8.978015E-3	3.409009E-3	-1.291383E-8	9.932995E-4	-4.986356E-4	-4.842763E-3	-1.992364E-3	-2.932737E-3	6.168331E-3	-1.490242E-3	1.002785E-2	1.782719E-3	-3.029823E-3	2.420010E-3	-9.979034E-3	-4.870677E-4	-7.331364E-3	-6.385256E-3	-1.392035E-3	1.177345E-3	2.586435E-3	1.139274E-2	-1.285755E-2	-4.659255E-3	-1.814883E-3	1.213364E-3	-2.068240E-3	-9.159500E-3	3.532780E-3	4.637008E-4	-1.947325E-3	-9.550734E-4	-2.399048E-3	2.965502E-3	2.987337E-3	2.449693E-3	1.287137E-3	2.476530E-3	3.735252E-3	-1.134407E-2	9.468406E-5	8.229931E-3	1.606293E-3	-1.751573E-3	5.065328E-4	-7.807915E-3	6.652031E-3	-7.146987E-4	2.005039E-4	-2.972517E-3	-2.577477E-3	-2.804907E-8	-2.113056E-3	-5.699464E-4	-7.770974E-4	7.279495E-4	1.862303E-3	4.981436E-3	-4.839032E-3	-2.281442E-3	-2.257244E-3	6.095226E-3	-8.196280E-4	-7.736949E-3	-3.878025E-4	6.098876E-3	-4.079757E-3	9.324777E-3	3.637274E-4	-6.753317E-3	-3.706902E-3	-6.670065E-3	-7.675914E-3	2.117518E-8	3.120038E-3	1.981433E-3	5.308489E-4	4.134787E-3	3.217432E-3	3.045347E-3	9.033422E-3	1.654862E-3	-1.184095E-3	-7.746444E-3	-2.434585E-3	1.306512E-3	1.554710E-3	-8.703036E-3	-5.542072E-3	-1.548695E-3	-3.858411E-3	-8.603777E-4	5.543960E-3	-3.897731E-3	-4.650591E-3	-9.169190E-4	3.758058E-3	1.412408E-3	-1.217038E-3	-4.130937E-3	-3.124568E-3	-6.424592E-3	-8.580355E-3	7.854917E-4
5.320070E+2	5.362972E-3	3.518228E-3	-6.460647E-4	7.135811E-3	4.298231E-3	-5.854173E-3	-1.808166E-3	-1.364436E-3	4.480538E-3	8.122671E-3	6.338701E-3	7.811391E-3	6.706808E-3	4.902734E-3	9.441605E-3	5.834297E-3	1.869938E-3	6.413479E-3	2.743596E-3	3.651140E-3	5.545444E-3	6.874239E-3	-6.174088E-9	4.374596E-3	7.741418E-3	1.016333E-2	1.276450E-2	2.495977E-3	3.261777E-3	-2.151105E-3	3.670737E-3	5.695249E-3	9.723802E-3	6.019826E-3	3.073284E-3	5.113526E-3	-2.247048E-3	-8.117812E-4	9.298750E-3	1.332364E-3	1.163878E-3	-1.232192E-3	4.017304E-4	3.411026E-3	5.409788E-4	4.365633E-3	-2.480396E-4	6.777429E-4	5.732454E-3	1.238659E-3	3.684477E-3	4.656081E-3	5.857860E-3	-1.535642E-3	-4.333510E-3	-2.931362E-3	-4.259393E-3	-4.639923E-3	6.232199E-3	1.568762E-3	4.343359E-3	5.721543E-4	4.358118E-4	6.075805E-3	-9.282571E-5	8.202093E-3	-2.201646E-3	-6.709904E-3	5.787382E-3	-2.442739E-3	-9.029424E-5	-4.986295E-4	1.424341E-3	2.354674E-3	1.173086E-3	-3.925307E-3	-3.725584E-3	-2.690393E-3	8.103337E-4	8.270555E-3	4.839982E-3	-9.979052E-3	1.850772E-3	1.900724E-3	7.729554E-3	1.270252E-2	1.682207E-4	1.131568E-3	6.266009E-3	3.164906E-3	9.054776E-3	1.451909E-3	4.125383E-3	4.136498E-3	1.831905E-3	3.758377E-4	3.245906E-3	3.310412E-3	-3.247142E-3	5.905405E-3	-1.362538E-3	1.170713E-2	1.207951E-2	6.435659E-3	5.334129E-3	1.357433E-2	1.447348E-2	-2.178031E-3	2.803610E-3	5.156903E-3	4.885881E-3	3.545921E-3	6.831962E-3	3.541992E-3	7.861480E-3	5.012737E-3	8.917543E-3	5.404403E-3	-5.517834E-3	4.226161E-3	1.139859E-2	6.216850E-3	-1.455984E-3	-4.345357E-3	2.767471E-3	7.895275E-3	7.195365E-3	2.096027E-3	-2.897714E-3	-2.732045E-4	2.437646E-3	3.684009E-3	1.466822E-3	9.689429E-3	3.291127E-3	4.728467E-3	1.076874E-2	-5.375054E-3	1.334030E-3	9.230485E-3	-5.079816E-4	2.614076E-3	5.082794E-3	9.176394E-3	8.975630E-3	5.027237E-3	-4.911881E-4	-5.645697E-4	5.130162E-3	6.427944E-3	2.816920E-3	1.091337E-3	3.546248E-3	3.886531E-4	1.977960E-4	5.924323E-3	-1.032476E-3	-7.716908E-4	1.720774E-3	1.192338E-2	3.378043E-3	6.268214E-3	1.283652E-2	6.012875E-3	7.892842E-3	1.703912E-3	2.724647E-3	8.748891E-3	-3.072651E-3	-5.070174E-3	3.142182E-3
5.325170E+2	1.513121E-2	1.492876E-2	1.098291E-2	1.207596E-2	1.887499E-2	1.224054E-2	1.012583E-2	5.377480E-3	1.642864E-2	9.645668E-3	1.229885E-3	2.018686E-3	6.706845E-3	8.515248E-3	6.109277E-3	1.650678E-2	1.682964E-2	5.298091E-3	1.316945E-2	6.707889E-3	3.297330E-3	1.718570E-3	1.973684E-2	1.609227E-2	1.333758E-2	1.016328E-2	8.793323E-3	1.026122E-2	4.265359E-3	1.770522E-2	7.256166E-3	1.051433E-2	1.083515E-2	1.477587E-2	1.369023E-2	2.422249E-3	1.219806E-2	1.087767E-2	5.469874E-3	1.496959E-2	1.862197E-2	1.469194E-2	1.546587E-2	3.995831E-3	1.027861E-2	1.255119E-2	5.704669E-3	1.378093E-2	8.338095E-3	8.139872E-3	5.429726E-3	5.796406E-3	4.907933E-3	1.274568E-2	1.795314E-2	1.365182E-2	1.955464E-2	1.899744E-2	1.869658E-2	1.039296E-2	1.444828E-2	1.724559E-2	1.507838E-2	9.305979E-3	9.372544E-3	5.405893E-3	8.005911E-3	1.823958E-2	1.339821E-2	1.074793E-2	5.869357E-3	1.246574E-2	1.110985E-2	1.539573E-2	1.642322E-2	1.177594E-2	6.333502E-3	9.049536E-3	1.053433E-2	9.744520E-3	1.572992E-2	2.144017E-2	1.003332E-2	1.439123E-2	-3.361037E-4	1.009236E-2	7.736966E-3	1.277054E-2	5.126746E-3	1.978085E-2	1.063720E-2	1.724135E-2	1.480293E-2	1.447773E-2	1.632055E-2	1.480755E-2	2.383427E-2	1.265751E-2	1.165147E-2	1.863880E-2	1.402604E-2	6.862817E-3	5.997527E-3	1.312876E-2	3.619607E-3	-3.370835E-3	1.682055E-2	9.753969E-3	2.803627E-3	4.142407E-3	1.926696E-2	1.823616E-2	2.264294E-2	5.097007E-3	1.214957E-2	7.418864E-3	1.531990E-2	8.397623E-3	2.207138E-2	1.287050E-2	5.129364E-3	1.379362E-2	1.164778E-2	9.932294E-3	9.962916E-3	6.876523E-3	1.246030E-2	1.225350E-2	1.568776E-2	7.923067E-3	1.388419E-2	1.531778E-2	3.782849E-3	6.119666E-3	2.139213E-2	9.638821E-3	9.673686E-3	1.575445E-2	2.103639E-2	1.156237E-2	1.574805E-2	9.697446E-3	8.184127E-3	1.372667E-2	7.765336E-3	6.837070E-3	1.424449E-2	1.185634E-2	4.137230E-3	8.965278E-3	1.073941E-2	1.620272E-2	2.426355E-3	1.554650E-3	2.333993E-2	5.924267E-3	1.032470E-2	2.289329E-2	1.411018E-2	1.921413E-2	1.689013E-2	1.354737E-2	1.063595E-2	1.615966E-2	8.391374E-3	4.138056E-3	1.801785E-2	1.687286E-2	6.983235E-3	1.248053E-2	1.021210E-2
5.330280E+2	1.455659E-2	9.794031E-3	1.430550E-2	2.140741E-2	1.214728E-2	2.075574E-2	1.446546E-2	2.223220E-2	2.300023E-2	1.472228E-2	1.201509E-2	2.518957E-2	1.689446E-2	1.883671E-2	1.467814E-2	1.095710E-2	1.469256E-2	3.039433E-2	7.682190E-3	2.504839E-2	1.588700E-2	1.390474E-2	2.783403E-2	1.843578E-2	1.501638E-2	1.171363E-2	2.467803E-2	2.079984E-2	2.584303E-2	3.259754E-2	1.954891E-2	1.796195E-2	1.528031E-2	2.572103E-2	1.816049E-2	2.233825E-2	2.086509E-2	1.331296E-2	2.133245E-2	2.202335E-2	1.804008E-2	2.549767E-2	7.632529E-3	1.686030E-2	2.380309E-2	2.182808E-2	2.058636E-2	1.106991E-2	2.032413E-2	1.610277E-2	1.939187E-2	2.119006E-2	1.250733E-2	1.735257E-2	2.803521E-2	1.817451E-2	1.606973E-2	2.004792E-2	1.691597E-2	2.745309E-2	2.242591E-2	2.607273E-2	2.239965E-2	1.853506E-2	1.215637E-2	1.994595E-2	3.142327E-2	2.334277E-2	1.530095E-2	2.149592E-2	1.995590E-2	2.543010E-2	1.452825E-2	1.376563E-2	2.052904E-2	2.915941E-2	2.756925E-2	2.030038E-2	1.734114E-2	1.367505E-2	1.754494E-2	2.084729E-2	1.354009E-2	1.819267E-2	2.134023E-2	2.262088E-2	2.136062E-2	1.810508E-2	1.082313E-2	2.156114E-2	3.542797E-2	1.778587E-2	1.237623E-2	3.102382E-2	2.331506E-2	1.931750E-2	2.550357E-2	2.025194E-2	2.425790E-2	1.642430E-2	1.306424E-2	1.994250E-2	2.373673E-2	9.009948E-3	2.476570E-2	2.669316E-2	3.618368E-2	1.884503E-2	1.799734E-2	2.240298E-2	2.147938E-2	3.241978E-2	1.912941E-2	1.909222E-2	1.153695E-2	1.463713E-2	1.486255E-2	1.538174E-2	1.765707E-2	8.836463E-3	1.595804E-2	3.069571E-2	1.383177E-2	2.607236E-2	2.380026E-2	1.808272E-2	1.772522E-2	2.773163E-2	3.607184E-2	1.721216E-2	2.851024E-2	2.811496E-2	1.628940E-2	2.906829E-2	1.755255E-2	1.945947E-2	2.226760E-2	2.798735E-2	2.411490E-2	1.739215E-2	1.981205E-2	2.082841E-2	9.734808E-3	1.145153E-2	1.865704E-2	8.043574E-3	3.369547E-2	2.371277E-2	1.803826E-2	1.556237E-2	2.711264E-2	2.325467E-2	1.362500E-2	1.496364E-2	3.046066E-2	1.624402E-2	1.238967E-2	3.678361E-2	2.391848E-2	2.787191E-2	2.260679E-2	1.112099E-2	1.833788E-2	3.814420E-2	9.388300E-3	2.361132E-2	1.854525E-2	5.624331E-3	1.536309E-2	3.120123E-2	7.855506E-3
5.331580E+2	2.375026E-2	2.177510E-2	2.870326E-2	2.030958E-2	3.457298E-2	2.288450E-2	3.236650E-2	2.752941E-2	4.151983E-2	2.995225E-2	3.528853E-2	2.729602E-2	2.759146E-2	1.522422E-2	3.419605E-2	2.034890E-2	2.804936E-2	1.756735E-2	2.798510E-2	3.574704E-2	2.263156E-2	2.796570E-2	2.074900E-2	3.343431E-2	2.061257E-2	3.651896E-2	2.978387E-2	3.411169E-2	3.186467E-2	2.515140E-2	3.901247E-2	2.760008E-2	4.472968E-2	2.189022E-2	3.213007E-2	3.902464E-2	3.001364E-2	1.672239E-2	3.117818E-2	3.660106E-2	3.258850E-2	3.345975E-2	3.113260E-2	2.914005E-2	3.083581E-2	2.128234E-2	2.554687E-2	3.546901E-2	1.094377E-2	2.618911E-2	2.695472E-2	4.399553E-2	2.058163E-2	1.735255E-2	3.599477E-2	2.621486E-2	2.187805E-2	3.475562E-2	4.243828E-2	3.333596E-2	3.146719E-2	2.950551E-2	3.024387E-2	2.361102E-2	2.551920E-2	2.721595E-2	2.902151E-2	5.793180E-2	2.766855E-2	3.126679E-2	3.729320E-2	3.340818E-2	3.788737E-2	4.256476E-2	3.519268E-2	3.308471E-2	3.986368E-2	3.155114E-2	2.560653E-2	3.136260E-2	3.206488E-2	3.151801E-2	4.393222E-2	2.688169E-2	1.680333E-2	2.940714E-2	1.681946E-2	2.392458E-2	3.246941E-2	2.749538E-2	3.437294E-2	3.738660E-2	3.033391E-2	2.843849E-2	2.681235E-2	2.743534E-2	3.607596E-2	3.427258E-2	1.967372E-2	2.860411E-2	3.133817E-2	4.319533E-2	2.880507E-2	2.291097E-2	2.247963E-2	3.325262E-2	3.324990E-2	3.929998E-2	3.536161E-2	3.762008E-2	2.092630E-2	4.457727E-2	2.557094E-2	2.531231E-2	3.604024E-2	3.268300E-2	1.577719E-2	2.885125E-2	2.262318E-2	4.226138E-2	2.165736E-2	3.011283E-2	1.819968E-2	4.159165E-2	2.988874E-2	2.725141E-2	2.562259E-2	3.692182E-2	4.926157E-2	2.540848E-2	4.122861E-2	1.706288E-2	2.509033E-2	3.518792E-2	1.974659E-2	2.000511E-2	1.569685E-2	2.798733E-2	3.519756E-2	2.671973E-2	2.997205E-2	3.246537E-2	2.110652E-2	2.692250E-2	2.773348E-2	3.519073E-2	4.076858E-2	3.443998E-2	2.697468E-2	2.165197E-2	3.661968E-2	2.325462E-2	2.762329E-2	3.420259E-2	2.630695E-2	4.490989E-2	2.942541E-2	3.369691E-2	3.321058E-2	3.015021E-2	2.988254E-2	2.567938E-2	3.264136E-2	3.758052E-2	2.384473E-2	2.994014E-2	4.385817E-2	2.562182E-2	2.625696E-2	2.769108E-2	7.855467E-2
5.333130E+2	4.960736E-2	3.717929E-2	2.482692E-2	2.854316E-2	4.746774E-2	4.523682E-2	2.965427E-2	3.764220E-2	5.944206E-2	3.756726E-2	3.869441E-2	4.098788E-2	3.217586E-2	3.019038E-2	3.419602E-2	3.913252E-2	4.300902E-2	3.206741E-2	5.048285E-2	4.542676E-2	4.286509E-2	4.718236E-2	3.593118E-2	2.921595E-2	4.131841E-2	4.478740E-2	5.928405E-2	5.130620E-2	4.139905E-2	3.507957E-2	4.669555E-2	4.293350E-2	4.917491E-2	3.994969E-2	3.492398E-2	2.987406E-2	4.927377E-2	3.230833E-2	4.375891E-2	3.895222E-2	4.364523E-2	4.881514E-2	4.197882E-2	3.557227E-2	2.326212E-2	4.965892E-2	3.745224E-2	3.953549E-2	3.074680E-2	3.043601E-2	2.753646E-2	4.684626E-2	3.720534E-2	3.624079E-2	4.183173E-2	4.028544E-2	3.465637E-2	3.633151E-2	3.294162E-2	3.098286E-2	2.933978E-2	2.852472E-2	4.017990E-2	4.391499E-2	5.224481E-2	4.567060E-2	4.103036E-2	4.035380E-2	3.004696E-2	3.957200E-2	4.433648E-2	4.387929E-2	3.902689E-2	5.071547E-2	5.278896E-2	3.701005E-2	3.762832E-2	4.280194E-2	3.873394E-2	4.315428E-2	4.113985E-2	5.285933E-2	4.977693E-2	3.502768E-2	4.402470E-2	3.880353E-2	2.993863E-2	3.992823E-2	4.784963E-2	4.648493E-2	5.019691E-2	4.773142E-2	3.955539E-2	3.309204E-2	3.480608E-2	3.600421E-2	4.887413E-2	3.368836E-2	3.629138E-2	4.133753E-2	2.989542E-2	3.253775E-2	3.590071E-2	5.225772E-2	3.676752E-2	4.855783E-2	2.620874E-2	5.407296E-2	3.427636E-2	3.406941E-2	3.917911E-2	4.255114E-2	4.313880E-2	3.671581E-2	4.400380E-2	3.328454E-2	4.321579E-2	2.935014E-2	4.579818E-2	3.188812E-2	3.362592E-2	4.176948E-2	3.403343E-2	4.904092E-2	4.040517E-2	3.438265E-2	4.089080E-2	4.998145E-2	3.847000E-2	3.688325E-2	5.013140E-2	3.567690E-2	2.092148E-2	4.334746E-2	4.333280E-2	3.637289E-2	2.829086E-2	5.801332E-2	4.073883E-2	3.429843E-2	3.860808E-2	2.841773E-2	3.971465E-2	4.512359E-2	4.891178E-2	3.881035E-2	4.017915E-2	4.121501E-2	2.598177E-2	3.383117E-2	4.295772E-2	2.375835E-2	3.602230E-2	3.420269E-2	3.283425E-2	4.834982E-2	5.317226E-2	3.009570E-2	3.682421E-2	5.521206E-2	3.300075E-2	2.931897E-2	3.374166E-2	4.209020E-2	3.780265E-2	3.432160E-2	4.438549E-2	3.937009E-2	4.301673E-2	4.524183E-2	2.435188E-2
5.334630E+2	5.650259E-2	4.573718E-2	5.473005E-2	4.501043E-2	6.821158E-2	4.151144E-2	5.840446E-2	5.112605E-2	8.154611E-2	3.350595E-2	5.458843E-2	4.467422E-2	6.324806E-2	5.909070E-2	5.466614E-2	4.553602E-2	5.743443E-2	4.879821E-2	5.487279E-2	4.746463E-2	5.725332E-2	5.702510E-2	4.048594E-2	5.030786E-2	5.922628E-2	5.202233E-2	5.588019E-2	5.241557E-2	6.096953E-2	4.202934E-2	5.284182E-2	6.483832E-2	4.806358E-2	5.363102E-2	4.386458E-2	4.279255E-2	6.468187E-2	5.568727E-2	5.798056E-2	4.177381E-2	6.284917E-2	5.052131E-2	6.126097E-2	5.194524E-2	3.570461E-2	5.075032E-2	5.084580E-2	4.405395E-2	3.960601E-2	4.901612E-2	4.557090E-2	4.684620E-2	5.287916E-2	3.946559E-2	6.995546E-2	5.184347E-2	5.847046E-2	4.263478E-2	5.608975E-2	4.568983E-2	4.901787E-2	5.059249E-2	5.011592E-2	5.268267E-2	6.616434E-2	5.014448E-2	4.403258E-2	6.303512E-2	6.049024E-2	5.569396E-2	5.679763E-2	5.435051E-2	5.953734E-2	5.451912E-2	5.513518E-2	4.429993E-2	5.998174E-2	5.649853E-2	6.304395E-2	4.757616E-2	7.320473E-2	4.989523E-2	5.269929E-2	4.534596E-2	4.755344E-2	5.133199E-2	3.347070E-2	5.059732E-2	5.639423E-2	4.885866E-2	5.547154E-2	5.807615E-2	4.877690E-2	5.170633E-2	4.679666E-2	5.765182E-2	5.889022E-2	5.004574E-2	3.686443E-2	4.576659E-2	4.624584E-2	4.707064E-2	4.857163E-2	4.144573E-2	5.276998E-2	4.637137E-2	6.200126E-2	6.486862E-2	5.760957E-2	5.486611E-2	5.024151E-2	6.483960E-2	5.133712E-2	5.278438E-2	5.135484E-2	4.772116E-2	5.419122E-2	4.232072E-2	4.028031E-2	4.571912E-2	5.357347E-2	6.624835E-2	4.276927E-2	6.580172E-2	7.029377E-2	4.253253E-2	5.036766E-2	5.094884E-2	5.345829E-2	4.289380E-2	3.995672E-2	4.323884E-2	4.500819E-2	3.671784E-2	5.814274E-2	4.237445E-2	4.855076E-2	4.300033E-2	4.997435E-2	4.770693E-2	5.232407E-2	4.663203E-2	5.212017E-2	4.785381E-2	5.133219E-2	4.604959E-2	4.017915E-2	6.549241E-2	6.669198E-2	4.956270E-2	5.985916E-2	6.052912E-2	5.170032E-2	3.770066E-2	4.351526E-2	5.006978E-2	4.439622E-2	4.707273E-2	4.250265E-2	5.202247E-2	3.507953E-2	4.751697E-2	6.234871E-2	4.885471E-2	3.381464E-2	5.233432E-2	3.172897E-2	6.249225E-2	5.391062E-2	5.811234E-2	7.384132E-2
5.336130E+2	6.569624E-2	6.399406E-2	6.635911E-2	6.806456E-2	8.278825E-2	6.812133E-2	8.064505E-2	7.231481E-2	7.915642E-2	4.924358E-2	6.537372E-2	7.205797E-2	7.700145E-2	6.941215E-2	8.180066E-2	6.858857E-2	7.666828E-2	7.556748E-2	7.956555E-2	7.701317E-2	6.040065E-2	7.671034E-2	5.921054E-2	8.499191E-2	6.985895E-2	8.406243E-2	7.006297E-2	8.403112E-2	8.254713E-2	6.833893E-2	6.359788E-2	6.921935E-2	7.028951E-2	7.169045E-2	7.739166E-2	7.939488E-2	9.260886E-2	7.711786E-2	6.727931E-2	7.422104E-2	7.565177E-2	7.327018E-2	7.572258E-2	6.539438E-2	7.465524E-2	8.076406E-2	6.721566E-2	7.342288E-2	5.732442E-2	6.706544E-2	7.640392E-2	7.991412E-2	6.855270E-2	7.447789E-2	8.375202E-2	7.194417E-2	8.112303E-2	6.312052E-2	9.348272E-2	6.863289E-2	7.082329E-2	6.138128E-2	6.423554E-2	8.544572E-2	9.344640E-2	7.307290E-2	8.065952E-2	8.514924E-2	7.333350E-2	7.230448E-2	7.955291E-2	8.077783E-2	8.916346E-2	7.625427E-2	7.214499E-2	7.289863E-2	8.848243E-2	7.753263E-2	8.540897E-2	6.772013E-2	8.590958E-2	8.072161E-2	8.250698E-2	6.598242E-2	8.384847E-2	7.430105E-2	5.769068E-2	7.533004E-2	7.917969E-2	6.488110E-2	7.867987E-2	8.475496E-2	7.935357E-2	8.014477E-2	6.927920E-2	9.012304E-2	8.559930E-2	7.458178E-2	5.863920E-2	7.898422E-2	7.413742E-2	7.129254E-2	6.529717E-2	6.924774E-2	8.134572E-2	8.900724E-2	6.082776E-2	7.452778E-2	8.040001E-2	8.276405E-2	6.406948E-2	7.446422E-2	6.949050E-2	6.677956E-2	7.157003E-2	6.697010E-2	5.967883E-2	5.778563E-2	6.786949E-2	8.951719E-2	6.782168E-2	6.683110E-2	6.406294E-2	8.194171E-2	7.195440E-2	5.934187E-2	7.563937E-2	8.480718E-2	7.863868E-2	7.076115E-2	9.083008E-2	7.523157E-2	6.538926E-2	6.986595E-2	8.337453E-2	8.056599E-2	7.100095E-2	6.524194E-2	7.706512E-2	1.025067E-1	7.264423E-2	6.282255E-2	7.848176E-2	7.015001E-2	6.948503E-2	9.189818E-2	8.674376E-2	7.283199E-2	6.768485E-2	6.326438E-2	7.306336E-2	7.110726E-2	6.681834E-2	6.801659E-2	6.250370E-2	8.733544E-2	7.898407E-2	8.205569E-2	6.263548E-2	9.121005E-2	6.626115E-2	8.330649E-2	5.904788E-2	6.914830E-2	7.469145E-2	7.521518E-2	7.602646E-2	8.873876E-2	7.569834E-2	6.747267E-2	1.091909E-1
5.337580E+2	1.369472E-1	1.016488E-1	8.518676E-2	9.386316E-2	9.736489E-2	8.781273E-2	1.213293E-1	1.156556E-1	9.648116E-2	8.884159E-2	8.751192E-2	1.094473E-1	1.075642E-1	8.850692E-2	1.041747E-1	1.112787E-1	1.156701E-1	9.787504E-2	1.163300E-1	1.147131E-1	1.026664E-1	9.873919E-2	1.052632E-1	1.253008E-1	1.107113E-1	1.109349E-1	1.035342E-1	1.023350E-1	9.459035E-2	9.762715E-2	8.818349E-2	1.073337E-1	1.041840E-1	1.001477E-1	9.750789E-2	1.036171E-1	1.214989E-1	9.319067E-2	9.462859E-2	1.137218E-1	1.105681E-1	1.005689E-1	9.620979E-2	1.022336E-1	1.114416E-1	1.145978E-1	1.128527E-1	1.091180E-1	9.745185E-2	1.042255E-1	1.043282E-1	1.135521E-1	9.182608E-2	9.336611E-2	1.017934E-1	1.121460E-1	9.796690E-2	7.835340E-2	1.190054E-1	1.080477E-1	1.075200E-1	1.020840E-1	1.149616E-1	9.698203E-2	1.123770E-1	1.071861E-1	9.326889E-2	1.078309E-1	1.042525E-1	9.819712E-2	1.191037E-1	1.022189E-1	1.165110E-1	1.072269E-1	1.149625E-1	1.065440E-1	1.276009E-1	9.661030E-2	1.140949E-1	9.228642E-2	1.113195E-1	1.180692E-1	1.082231E-1	9.530788E-2	1.181272E-1	9.257169E-2	7.787403E-2	8.890890E-2	1.110795E-1	9.633258E-2	1.087453E-1	1.152450E-1	9.294301E-2	1.085833E-1	9.525886E-2	1.018491E-1	1.267757E-1	1.242382E-1	1.044811E-1	8.396690E-2	1.092425E-1	8.970089E-2	1.038165E-1	1.021982E-1	1.070641E-1	9.611355E-2	1.183305E-1	1.103240E-1	1.102451E-1	9.037244E-2	1.094252E-1	1.038447E-1	9.877021E-2	8.906816E-2	1.070997E-1	9.524189E-2	1.163855E-1	9.270653E-2	9.325171E-2	1.085346E-1	1.350734E-1	9.130999E-2	8.808649E-2	1.005648E-1	1.178945E-1	1.138449E-1	1.067023E-1	1.118939E-1	1.236037E-1	9.534994E-2	1.200824E-1	1.025710E-1	1.112465E-1	9.740445E-2	1.014756E-1	1.105734E-1	1.131632E-1	1.080571E-1	1.041560E-1	1.077538E-1	1.270004E-1	1.007690E-1	1.100120E-1	1.015469E-1	1.100264E-1	1.118059E-1	1.215200E-1	1.146116E-1	1.054163E-1	1.084289E-1	1.063379E-1	9.981848E-2	1.144123E-1	1.105755E-1	9.217318E-2	1.291875E-1	1.104745E-1	1.221833E-1	1.013524E-1	1.149051E-1	6.937948E-2	1.081769E-1	9.480663E-2	1.210092E-1	8.765219E-2	1.068593E-1	1.029212E-1	9.748782E-2	1.041898E-1	1.119345E-1	1.044777E-1
5.339090E+2	1.541850E-1	1.267519E-1	1.294876E-1	1.531449E-1	1.803398E-1	1.495478E-1	1.625562E-1	1.440680E-1	1.938590E-1	1.228551E-1	1.584674E-1	1.484166E-1	1.773496E-1	1.432107E-1	1.474951E-1	1.445770E-1	1.530696E-1	1.542023E-1	1.613257E-1	1.544513E-1	1.525757E-1	1.399847E-1	1.462552E-1	1.613912E-1	1.593976E-1	1.393579E-1	1.438134E-1	1.611295E-1	1.327277E-1	1.527287E-1	1.588669E-1	1.559627E-1	1.730843E-1	1.559678E-1	1.589740E-1	1.682097E-1	1.455741E-1	1.526119E-1	1.706597E-1	1.739135E-1	1.524675E-1	1.727962E-1	1.661076E-1	1.577852E-1	1.428184E-1	1.560707E-1	1.555136E-1	1.696637E-1	1.281984E-1	1.169663E-1	1.683212E-1	1.443397E-1	1.587954E-1	1.320638E-1	1.591022E-1	1.528500E-1	1.723137E-1	1.398108E-1	1.676756E-1	1.451093E-1	1.436852E-1	1.491623E-1	1.588894E-1	1.565098E-1	1.541360E-1	1.575171E-1	1.617195E-1	1.968547E-1	1.608582E-1	1.455863E-1	1.640722E-1	1.610572E-1	1.780421E-1	1.729758E-1	1.695111E-1	1.441150E-1	1.706314E-1	1.587339E-1	1.729251E-1	1.394532E-1	1.579045E-1	1.560091E-1	1.456292E-1	1.430977E-1	1.569431E-1	1.327673E-1	1.338828E-1	1.388596E-1	1.828540E-1	1.331250E-1	1.694033E-1	1.533575E-1	1.628325E-1	1.623581E-1	1.462189E-1	1.645372E-1	1.601624E-1	1.423481E-1	1.497498E-1	1.437588E-1	1.505998E-1	1.352378E-1	1.610888E-1	1.464758E-1	1.870761E-1	1.261772E-1	1.611643E-1	1.711204E-1	1.509424E-1	1.476905E-1	1.603121E-1	1.843879E-1	1.784109E-1	1.352007E-1	1.763217E-1	1.590040E-1	1.493116E-1	1.485799E-1	1.462230E-1	1.644352E-1	2.091646E-1	1.682434E-1	1.623413E-1	1.669871E-1	1.688158E-1	1.230133E-1	1.514540E-1	1.675186E-1	1.571773E-1	1.423419E-1	1.576014E-1	1.688838E-1	1.584937E-1	1.264729E-1	1.552301E-1	1.362165E-1	1.618968E-1	1.530962E-1	1.515648E-1	1.707147E-1	1.640843E-1	1.604717E-1	1.482626E-1	1.657061E-1	1.675103E-1	1.745462E-1	1.492230E-1	1.405825E-1	1.595312E-1	1.475040E-1	1.470067E-1	1.607678E-1	1.653664E-1	1.560500E-1	1.538857E-1	1.773463E-1	1.497081E-1	1.443050E-1	1.519426E-1	1.550041E-1	1.286248E-1	1.463929E-1	1.421183E-1	1.824538E-1	1.679104E-1	1.521347E-1	1.440553E-1	1.662291E-1	1.745806E-1	1.704368E-1	1.610370E-1
5.340800E+2	2.599117E-1	2.499857E-1	2.374714E-1	2.261497E-1	2.969538E-1	2.682278E-1	2.591130E-1	2.476039E-1	2.954183E-1	2.177886E-1	2.316933E-1	2.563716E-1	2.664912E-1	2.376530E-1	2.741235E-1	2.530095E-1	2.647326E-1	2.729910E-1	2.809484E-1	2.818153E-1	2.771242E-1	2.548161E-1	2.489876E-1	2.523200E-1	2.668446E-1	2.752708E-1	2.550067E-1	2.565311E-1	2.320853E-1	2.659100E-1	2.735995E-1	2.584772E-1	3.053289E-1	2.375089E-1	2.690547E-1	2.710196E-1	2.755798E-1	2.407701E-1	2.680228E-1	2.637314E-1	2.537243E-1	2.848337E-1	2.697494E-1	2.764892E-1	2.526374E-1	2.526605E-1	2.562128E-1	2.518973E-1	2.178333E-1	2.146447E-1	2.829272E-1	2.634982E-1	2.623374E-1	2.209765E-1	2.620457E-1	2.578769E-1	2.878992E-1	2.469666E-1	2.786681E-1	3.004154E-1	2.697310E-1	2.639146E-1	2.551119E-1	2.686427E-1	2.705035E-1	2.794295E-1	2.559891E-1	2.677340E-1	2.783502E-1	2.345008E-1	2.708048E-1	2.892046E-1	2.891408E-1	2.648072E-1	2.950316E-1	2.388834E-1	3.360469E-1	2.565671E-1	2.871819E-1	2.382086E-1	2.946335E-1	2.799075E-1	2.508328E-1	2.006626E-1	2.764148E-1	2.408255E-1	2.342948E-1	2.310015E-1	2.745657E-1	2.518101E-1	2.785888E-1	2.943740E-1	2.909628E-1	2.704242E-1	2.486386E-1	2.488724E-1	2.770151E-1	2.469185E-1	2.574783E-1	2.356613E-1	2.900584E-1	2.345460E-1	2.725922E-1	2.571693E-1	2.762329E-1	2.480733E-1	2.902519E-1	2.853270E-1	2.757478E-1	2.547173E-1	2.703824E-1	2.963374E-1	2.756194E-1	2.342037E-1	2.933252E-1	2.648726E-1	2.810172E-1	2.293965E-1	2.411298E-1	2.554892E-1	2.980738E-1	2.323546E-1	2.890108E-1	2.743811E-1	2.773010E-1	2.447536E-1	2.809710E-1	2.710284E-1	2.746859E-1	2.264907E-1	2.746100E-1	2.695158E-1	2.641046E-1	2.279567E-1	2.835831E-1	2.333320E-1	2.807182E-1	2.320541E-1	2.710110E-1	2.459193E-1	2.616204E-1	2.682393E-1	2.681817E-1	2.567118E-1	3.078925E-1	2.813249E-1	2.930428E-1	2.693088E-1	2.831519E-1	2.373261E-1	2.552819E-1	2.892139E-1	2.622343E-1	2.592404E-1	2.725640E-1	2.736640E-1	2.622475E-1	2.724042E-1	2.608664E-1	2.839589E-1	2.367215E-1	2.877307E-1	2.714002E-1	2.935044E-1	2.691051E-1	2.465799E-1	2.352869E-1	2.599674E-1	3.153632E-1	2.406399E-1	2.906522E-1
5.342040E+2	4.242482E-1	3.960402E-1	3.952929E-1	4.182674E-1	4.533735E-1	4.012775E-1	4.120858E-1	4.050760E-1	5.427445E-1	3.761805E-1	4.814566E-1	4.406861E-1	4.789033E-1	4.172473E-1	4.445484E-1	4.297461E-1	4.714964E-1	4.475489E-1	4.505050E-1	4.789762E-1	4.515816E-1	4.179230E-1	4.357288E-1	4.393338E-1	4.677473E-1	4.328875E-1	4.393827E-1	4.345776E-1	4.338117E-1	4.401498E-1	4.190642E-1	4.639449E-1	4.792463E-1	4.432767E-1	4.713347E-1	4.357304E-1	4.469946E-1	3.980911E-1	4.665792E-1	4.762837E-1	4.591483E-1	4.429380E-1	5.023405E-1	4.478209E-1	4.170948E-1	4.174623E-1	4.665411E-1	4.651635E-1	4.012720E-1	3.744340E-1	4.993405E-1	4.556341E-1	4.703700E-1	3.670148E-1	4.482986E-1	4.186840E-1	4.906100E-1	4.150546E-1	4.507955E-1	4.733700E-1	4.494928E-1	4.247649E-1	4.454652E-1	4.435333E-1	4.742857E-1	4.746013E-1	4.709484E-1	4.815050E-1	4.400806E-1	3.869265E-1	4.560973E-1	4.796807E-1	4.828508E-1	4.327116E-1	4.792068E-1	4.183257E-1	4.930801E-1	4.223939E-1	4.821481E-1	4.293320E-1	5.233231E-1	4.607161E-1	4.507198E-1	3.842181E-1	4.614194E-1	4.193560E-1	3.538811E-1	4.225603E-1	4.671035E-1	4.482333E-1	4.732229E-1	5.192379E-1	4.482136E-1	4.301965E-1	4.644694E-1	4.739173E-1	4.995916E-1	4.525538E-1	4.717882E-1	4.465928E-1	4.626981E-1	4.152401E-1	4.555591E-1	4.198629E-1	4.739770E-1	4.251775E-1	4.744956E-1	4.688537E-1	4.390806E-1	4.383371E-1	4.551239E-1	4.964284E-1	4.454422E-1	3.611967E-1	4.758744E-1	4.675874E-1	4.666847E-1	4.030032E-1	4.524640E-1	4.669881E-1	4.570845E-1	4.369284E-1	4.675504E-1	5.059283E-1	4.765597E-1	4.276183E-1	4.536602E-1	4.587010E-1	4.809252E-1	3.767554E-1	4.895499E-1	4.684529E-1	4.493869E-1	4.038965E-1	4.261974E-1	4.532064E-1	4.898881E-1	4.433491E-1	4.495641E-1	4.546247E-1	4.566929E-1	4.488652E-1	4.506453E-1	4.359926E-1	4.567460E-1	4.417945E-1	4.804797E-1	4.697381E-1	4.464889E-1	4.052983E-1	4.163731E-1	4.539270E-1	4.531709E-1	4.347236E-1	4.357453E-1	4.989777E-1	4.284758E-1	4.617244E-1	4.570328E-1	4.575690E-1	3.827567E-1	4.424137E-1	4.562454E-1	4.800914E-1	4.415846E-1	3.950635E-1	4.852516E-1	4.618172E-1	4.997209E-1	4.582685E-1	5.074625E-1
5.343650E+2	7.523465E-1	7.389274E-1	6.932161E-1	6.943682E-1	8.861896E-1	7.227248E-1	7.212859E-1	6.949772E-1	8.659419E-1	6.543812E-1	8.282881E-1	7.977283E-1	7.865693E-1	7.310213E-1	7.515988E-1	7.447987E-1	8.038151E-1	7.715692E-1	7.808388E-1	7.719152E-1	7.654259E-1	6.939869E-1	7.722670E-1	7.889882E-1	8.102337E-1	7.259013E-1	8.041642E-1	7.490708E-1	7.293753E-1	7.628158E-1	7.166518E-1	7.811264E-1	8.298605E-1	7.765558E-1	7.635783E-1	7.866835E-1	8.187146E-1	7.049390E-1	7.920357E-1	8.031072E-1	8.065645E-1	7.762082E-1	8.439953E-1	7.939929E-1	7.503383E-1	7.787172E-1	7.884818E-1	7.877734E-1	6.779927E-1	7.582459E-1	8.332688E-1	7.977153E-1	7.857450E-1	6.526408E-1	7.608424E-1	7.629105E-1	8.263309E-1	7.465028E-1	7.867402E-1	7.892776E-1	7.638103E-1	7.494067E-1	7.822442E-1	7.310189E-1	7.710508E-1	7.805010E-1	8.023942E-1	8.721911E-1	7.583085E-1	7.025254E-1	8.169290E-1	8.022937E-1	8.469121E-1	7.603693E-1	8.076717E-1	7.099198E-1	8.395581E-1	7.545370E-1	7.748405E-1	7.108582E-1	8.482063E-1	7.654232E-1	7.745132E-1	6.845337E-1	7.598463E-1	7.169081E-1	6.399798E-1	7.605759E-1	8.043292E-1	7.722432E-1	7.860080E-1	7.985480E-1	7.685402E-1	7.311272E-1	7.662329E-1	7.823961E-1	8.084173E-1	7.761961E-1	8.041406E-1	7.322654E-1	8.079797E-1	7.020248E-1	7.865217E-1	7.411313E-1	8.426047E-1	7.761058E-1	7.801989E-1	8.438600E-1	7.521793E-1	7.604322E-1	7.836751E-1	8.140415E-1	7.973844E-1	6.457664E-1	8.348475E-1	7.491030E-1	7.671376E-1	6.738894E-1	7.537380E-1	7.845249E-1	8.628749E-1	7.318404E-1	8.098860E-1	8.243838E-1	8.379919E-1	7.103198E-1	7.642900E-1	8.234039E-1	8.328505E-1	6.832961E-1	7.807995E-1	7.947804E-1	7.513971E-1	6.777500E-1	7.695682E-1	7.069073E-1	8.364971E-1	7.352697E-1	8.109805E-1	7.805091E-1	8.026416E-1	7.590142E-1	7.757720E-1	7.654329E-1	8.034647E-1	7.838483E-1	8.011279E-1	7.836497E-1	7.821009E-1	7.072409E-1	7.422537E-1	7.304644E-1	8.244059E-1	7.483770E-1	7.941529E-1	8.292087E-1	6.989828E-1	7.739993E-1	7.992908E-1	7.888424E-1	7.127639E-1	8.063733E-1	7.984300E-1	7.523635E-1	7.471625E-1	7.246483E-1	7.658029E-1	7.974003E-1	8.910616E-1	7.379093E-1	8.892385E-1
5.345160E+2	1.202834E+0	1.136584E+0	1.124043E+0	1.155450E+0	1.283685E+0	1.265567E+0	1.189426E+0	1.166909E+0	1.373141E+0	1.084882E+0	1.291484E+0	1.241662E+0	1.271501E+0	1.167105E+0	1.254303E+0	1.202009E+0	1.326869E+0	1.386705E+0	1.270850E+0	1.299205E+0	1.239789E+0	1.244239E+0	1.212044E+0	1.262850E+0	1.269679E+0	1.337250E+0	1.266525E+0	1.211658E+0	1.179997E+0	1.259720E+0	1.198631E+0	1.221414E+0	1.325498E+0	1.220927E+0	1.286045E+0	1.288892E+0	1.283845E+0	1.083871E+0	1.320423E+0	1.274295E+0	1.251746E+0	1.265878E+0	1.337499E+0	1.257113E+0	1.187990E+0	1.247475E+0	1.255765E+0	1.273040E+0	1.050081E+0	1.320425E+0	1.310890E+0	1.311979E+0	1.210360E+0	1.105959E+0	1.252209E+0	1.234776E+0	1.355469E+0	1.167772E+0	1.244955E+0	1.239312E+0	1.291392E+0	1.137800E+0	1.261266E+0	1.184166E+0	1.308345E+0	1.294434E+0	1.295960E+0	1.368911E+0	1.206395E+0	1.096780E+0	1.240609E+0	1.299426E+0	1.326061E+0	1.189641E+0	1.262830E+0	1.108619E+0	1.300038E+0	1.174240E+0	1.245482E+0	1.109319E+0	1.370926E+0	1.212406E+0	1.239162E+0	1.089660E+0	1.241262E+0	1.089109E+0	1.005803E+0	1.178612E+0	1.268583E+0	1.209598E+0	1.266529E+0	1.257533E+0	1.297077E+0	1.175285E+0	1.221877E+0	1.202722E+0	1.300312E+0	1.209082E+0	1.278601E+0	1.107625E+0	1.266268E+0	1.100230E+0	1.261427E+0	1.144777E+0	1.332965E+0	1.165844E+0	1.283641E+0	1.285345E+0	1.243263E+0	1.186512E+0	1.279822E+0	1.325163E+0	1.244193E+0	1.088946E+0	1.314500E+0	1.227919E+0	1.205696E+0	1.068495E+0	1.164818E+0	1.297423E+0	1.284624E+0	1.174791E+0	1.296364E+0	1.347072E+0	1.268613E+0	1.167226E+0	1.277618E+0	1.244699E+0	1.313676E+0	1.042293E+0	1.346129E+0	1.295615E+0	1.204878E+0	1.057678E+0	1.188086E+0	1.119376E+0	1.299737E+0	1.175097E+0	1.197024E+0	1.258551E+0	1.225808E+0	1.186039E+0	1.193422E+0	1.181783E+0	1.233688E+0	1.268877E+0	1.248502E+0	1.203705E+0	1.168850E+0	1.103065E+0	1.205987E+0	1.199420E+0	1.247154E+0	1.171635E+0	1.293193E+0	1.283276E+0	1.207474E+0	1.254502E+0	1.232406E+0	1.241777E+0	1.045890E+0	1.265570E+0	1.235240E+0	1.260265E+0	1.172381E+0	1.105351E+0	1.245165E+0	1.212348E+0	1.305866E+0	1.150936E+0	1.372349E+0
5.346620E+2	1.661942E+0	1.521687E+0	1.521642E+0	1.560541E+0	1.837603E+0	1.706761E+0	1.615795E+0	1.591651E+0	1.885717E+0	1.427555E+0	1.661022E+0	1.652421E+0	1.706004E+0	1.604738E+0	1.609913E+0	1.591769E+0	1.732382E+0	1.796609E+0	1.676359E+0	1.650223E+0	1.598596E+0	1.728405E+0	1.606778E+0	1.618130E+0	1.646305E+0	1.785297E+0	1.687466E+0	1.648731E+0	1.543307E+0	1.608201E+0	1.542314E+0	1.626654E+0	1.753901E+0	1.771465E+0	1.696749E+0	1.679677E+0	1.646419E+0	1.756502E+0	1.680344E+0	1.666014E+0	1.629423E+0	1.772040E+0	1.727360E+0	1.726084E+0	1.533137E+0	1.694950E+0	1.629295E+0	1.690089E+0	1.407577E+0	1.725475E+0	1.733828E+0	1.639807E+0	1.580358E+0	1.597973E+0	1.625781E+0	1.559908E+0	1.799226E+0	1.673612E+0	1.668151E+0	1.632872E+0	1.657299E+0	1.553657E+0	1.617915E+0	1.587938E+0	1.686401E+0	1.726162E+0	1.683244E+0	1.742016E+0	1.584559E+0	1.556497E+0	1.672416E+0	1.699327E+0	1.726016E+0	1.673250E+0	1.727373E+0	1.468628E+0	1.719166E+0	1.558236E+0	1.680146E+0	1.488127E+0	1.742998E+0	1.595361E+0	1.661731E+0	1.498044E+0	1.622362E+0	1.527606E+0	1.321168E+0	1.601979E+0	1.661633E+0	1.565652E+0	1.649993E+0	1.714882E+0	1.663514E+0	1.559980E+0	1.615569E+0	1.601849E+0	1.705402E+0	1.622106E+0	1.727849E+0	1.455302E+0	1.661566E+0	1.391374E+0	1.657768E+0	1.507746E+0	1.727882E+0	1.547382E+0	1.731343E+0	1.652398E+0	1.547678E+0	1.508604E+0	1.631053E+0	1.770930E+0	1.633027E+0	1.351228E+0	1.672859E+0	1.615305E+0	1.583433E+0	1.382283E+0	1.632181E+0	1.693914E+0	1.771914E+0	1.465625E+0	1.698757E+0	1.694084E+0	1.704767E+0	1.547221E+0	1.569295E+0	1.622945E+0	1.767523E+0	1.338450E+0	1.696518E+0	1.671386E+0	1.597676E+0	1.466676E+0	1.562723E+0	1.513840E+0	1.702198E+0	1.558762E+0	1.637866E+0	1.638068E+0	1.624080E+0	1.533630E+0	1.592464E+0	1.588577E+0	1.639707E+0	1.597660E+0	1.610996E+0	1.627711E+0	1.611698E+0	1.473518E+0	1.558804E+0	1.544463E+0	1.606068E+0	1.565745E+0	1.669403E+0	1.702946E+0	1.599295E+0	1.588385E+0	1.593250E+0	1.610870E+0	1.403440E+0	1.701108E+0	1.619782E+0	1.691503E+0	1.549244E+0	1.461226E+0	1.544703E+0	1.581052E+0	1.756703E+0	1.510139E+0	1.706993E+0
5.348120E+2	1.905000E+0	1.689421E+0	1.750900E+0	1.682404E+0	2.051767E+0	1.901010E+0	1.778536E+0	1.703855E+0	2.110940E+0	1.579347E+0	1.840397E+0	1.853059E+0	1.931147E+0	1.803942E+0	1.837939E+0	1.732219E+0	1.984027E+0	2.033629E+0	1.874452E+0	1.957933E+0	1.806778E+0	1.878857E+0	1.803140E+0	1.780300E+0	1.816986E+0	2.096395E+0	1.878652E+0	1.798490E+0	1.786180E+0	1.905551E+0	1.772806E+0	1.882065E+0	1.949487E+0	1.935643E+0	1.905175E+0	1.942888E+0	1.923279E+0	2.007828E+0	1.923204E+0	1.877625E+0	1.869183E+0	2.045023E+0	1.953321E+0	1.936012E+0	1.713279E+0	1.842836E+0	1.855996E+0	1.897929E+0	1.617591E+0	2.001520E+0	1.922898E+0	1.910620E+0	1.736618E+0	1.921834E+0	1.875708E+0	1.850866E+0	1.932814E+0	1.944126E+0	1.848589E+0	1.814066E+0	1.892905E+0	1.731181E+0	1.853243E+0	1.819587E+0	1.836175E+0	1.955449E+0	1.927625E+0	1.965431E+0	1.747716E+0	1.930722E+0	1.923265E+0	1.884318E+0	2.014302E+0	1.931899E+0	1.900402E+0	1.686762E+0	1.953877E+0	1.785205E+0	1.899420E+0	1.662054E+0	2.014641E+0	1.975951E+0	1.907204E+0	1.581134E+0	1.866348E+0	1.846558E+0	1.479103E+0	1.750373E+0	1.825117E+0	1.898565E+0	1.851484E+0	1.896188E+0	1.841146E+0	1.743021E+0	1.805920E+0	1.805248E+0	1.941891E+0	1.832414E+0	1.891163E+0	1.678418E+0	1.876043E+0	1.673799E+0	1.871147E+0	1.710601E+0	1.962205E+0	1.760017E+0	1.929668E+0	1.925701E+0	1.812483E+0	1.735343E+0	1.878297E+0	1.880858E+0	1.834474E+0	1.521245E+0	1.841936E+0	1.789145E+0	1.767276E+0	1.593304E+0	1.798821E+0	1.867379E+0	1.945172E+0	1.740137E+0	1.929713E+0	1.924392E+0	1.926716E+0	1.698502E+0	1.745144E+0	1.917518E+0	1.955773E+0	1.898533E+0	1.908914E+0	1.883119E+0	1.750532E+0	1.662504E+0	1.833139E+0	1.642055E+0	1.886728E+0	1.752820E+0	1.841660E+0	1.794891E+0	1.876047E+0	1.716786E+0	1.778547E+0	1.843397E+0	1.812764E+0	1.812422E+0	1.859736E+0	1.882905E+0	1.804329E+0	1.598356E+0	1.705631E+0	1.716731E+0	1.836203E+0	1.726067E+0	1.915659E+0	1.811301E+0	1.685510E+0	1.737576E+0	1.786833E+0	1.787672E+0	1.574940E+0	1.754488E+0	1.856344E+0	1.825661E+0	1.739667E+0	1.644762E+0	1.765663E+0	1.834146E+0	1.877374E+0	1.751170E+0	2.015712E+0
5.349630E+2	2.111855E+0	1.915356E+0	1.886018E+0	1.915691E+0	2.191367E+0	2.097393E+0	2.009619E+0	1.923448E+0	2.291957E+0	1.762108E+0	2.108327E+0	2.047379E+0	2.132352E+0	1.967021E+0	2.008840E+0	1.915360E+0	2.142704E+0	2.214320E+0	2.121375E+0	2.104659E+0	1.936720E+0	2.143672E+0	1.980769E+0	1.997782E+0	2.085603E+0	2.260214E+0	2.056790E+0	2.027013E+0	1.913640E+0	2.023202E+0	1.996125E+0	2.006924E+0	2.144527E+0	2.199967E+0	2.101305E+0	2.031168E+0	2.073990E+0	2.227493E+0	2.168251E+0	2.016821E+0	2.085081E+0	2.205405E+0	2.163621E+0	2.110848E+0	1.949147E+0	1.996725E+0	1.994394E+0	2.085444E+0	1.688466E+0	2.170869E+0	2.207960E+0	2.033772E+0	1.970299E+0	2.058662E+0	2.012614E+0	1.934284E+0	2.109390E+0	2.048136E+0	2.053953E+0	2.025846E+0	2.062028E+0	1.986677E+0	1.990259E+0	1.960791E+0	2.122918E+0	2.122658E+0	2.107161E+0	2.148013E+0	1.915153E+0	2.148614E+0	2.107472E+0	2.054847E+0	2.149901E+0	2.136209E+0	2.101005E+0	1.851062E+0	2.117620E+0	1.975005E+0	2.033612E+0	1.873318E+0	2.221549E+0	2.176913E+0	2.090146E+0	1.786955E+0	2.001950E+0	2.179608E+0	1.623919E+0	1.957452E+0	2.022782E+0	2.164418E+0	2.009724E+0	2.108529E+0	2.009075E+0	2.006208E+0	2.000268E+0	1.931073E+0	2.060413E+0	2.152551E+0	2.108913E+0	1.867754E+0	2.039547E+0	2.027432E+0	1.989746E+0	1.825931E+0	2.207953E+0	2.133356E+0	2.091027E+0	2.050132E+0	2.038763E+0	1.942294E+0	2.027638E+0	2.068285E+0	1.921725E+0	1.745170E+0	2.058787E+0	2.014117E+0	1.930533E+0	1.811810E+0	1.977047E+0	2.083481E+0	2.183402E+0	1.937714E+0	2.061299E+0	2.130488E+0	2.114905E+0	1.846732E+0	1.959950E+0	2.061169E+0	2.160213E+0	2.063000E+0	2.033554E+0	2.030283E+0	1.998811E+0	1.915448E+0	1.943392E+0	1.830829E+0	2.046070E+0	1.969680E+0	2.080551E+0	2.021667E+0	1.953770E+0	1.897411E+0	1.974450E+0	1.950779E+0	1.973719E+0	1.995815E+0	2.035384E+0	1.990177E+0	1.959720E+0	1.782568E+0	1.965492E+0	1.886981E+0	2.010898E+0	1.879395E+0	2.004670E+0	2.107132E+0	1.947241E+0	1.987601E+0	1.946862E+0	1.990447E+0	1.681478E+0	2.031706E+0	1.952617E+0	1.962646E+0	1.918131E+0	1.769389E+0	1.906465E+0	1.940381E+0	2.102795E+0	1.904445E+0	2.079341E+0
5.351140E+2	2.041182E+0	1.946163E+0	1.853343E+0	1.880007E+0	2.162213E+0	2.126664E+0	1.949949E+0	1.859400E+0	2.224446E+0	1.834705E+0	1.988554E+0	1.976287E+0	2.130826E+0	1.857100E+0	1.968851E+0	1.864985E+0	2.206283E+0	2.150743E+0	2.032485E+0	1.994107E+0	1.968648E+0	2.074305E+0	1.907898E+0	1.965908E+0	1.930589E+0	2.136705E+0	2.001759E+0	1.997616E+0	1.894569E+0	2.026177E+0	1.937222E+0	2.015247E+0	2.118961E+0	2.053302E+0	2.088454E+0	2.070997E+0	2.052326E+0	2.171479E+0	2.116835E+0	2.000833E+0	2.092061E+0	2.124077E+0	2.126862E+0	2.078688E+0	1.883689E+0	1.987995E+0	1.928422E+0	2.047488E+0	1.744229E+0	2.123090E+0	2.072410E+0	2.044606E+0	1.929450E+0	2.042533E+0	1.876241E+0	1.975996E+0	2.072215E+0	2.047608E+0	2.017748E+0	1.939957E+0	2.011506E+0	1.888596E+0	1.996531E+0	1.945566E+0	1.980941E+0	2.101968E+0	2.121572E+0	2.086207E+0	1.901836E+0	2.106601E+0	2.059794E+0	2.039392E+0	2.134516E+0	2.103600E+0	2.116256E+0	1.787138E+0	2.091910E+0	1.950545E+0	1.940749E+0	1.803063E+0	2.147739E+0	2.096885E+0	2.006566E+0	1.721787E+0	1.968174E+0	2.190048E+0	1.700109E+0	1.869676E+0	1.972087E+0	2.245124E+0	1.947484E+0	2.070962E+0	1.995002E+0	1.942605E+0	1.960797E+0	1.973013E+0	2.091015E+0	2.024032E+0	2.012646E+0	1.823465E+0	2.002033E+0	2.026465E+0	1.945142E+0	1.853731E+0	2.042788E+0	1.957891E+0	2.059341E+0	2.080249E+0	1.951400E+0	1.952948E+0	1.912588E+0	2.052075E+0	1.966815E+0	1.684521E+0	2.061852E+0	1.959976E+0	1.908126E+0	1.922062E+0	1.898142E+0	1.975721E+0	2.109313E+0	1.913819E+0	1.989769E+0	2.143522E+0	2.054025E+0	1.894612E+0	1.854125E+0	2.006995E+0	2.051097E+0	2.006174E+0	2.001125E+0	2.081472E+0	1.973337E+0	2.039879E+0	1.889638E+0	1.860838E+0	1.971599E+0	2.075324E+0	1.998668E+0	1.884671E+0	1.984760E+0	1.902466E+0	1.918111E+0	1.877065E+0	1.997317E+0	2.073639E+0	1.980566E+0	2.008241E+0	1.894186E+0	2.043406E+0	1.826057E+0	1.803368E+0	1.888836E+0	2.099188E+0	1.983307E+0	2.032604E+0	1.836767E+0	1.946444E+0	1.902467E+0	1.944422E+0	1.671085E+0	1.944355E+0	1.926209E+0	1.978989E+0	1.777554E+0	1.909595E+0	1.850567E+0	1.892890E+0	2.029889E+0	1.926677E+0	2.131187E+0
5.352600E+2	1.786055E+0	1.653483E+0	1.610245E+0	1.628609E+0	1.903755E+0	1.867483E+0	1.730797E+0	1.736118E+0	2.071508E+0	1.593056E+0	1.876158E+0	1.837259E+0	1.819594E+0	1.690406E+0	1.801281E+0	1.691661E+0	1.916708E+0	1.986222E+0	1.854697E+0	1.839742E+0	1.741130E+0	1.884015E+0	1.734818E+0	1.742338E+0	1.841609E+0	1.951698E+0	1.847450E+0	1.771313E+0	1.736000E+0	1.790881E+0	1.768707E+0	1.797071E+0	1.900037E+0	1.930719E+0	1.881706E+0	1.921897E+0	1.842385E+0	1.890443E+0	1.930313E+0	1.829190E+0	1.863944E+0	1.899430E+0	1.874381E+0	1.882216E+0	1.686234E+0	1.820464E+0	1.851528E+0	1.832414E+0	1.507634E+0	1.922424E+0	1.849596E+0	1.826809E+0	1.769863E+0	1.805741E+0	1.723415E+0	1.789058E+0	1.939203E+0	1.802830E+0	1.829595E+0	1.784651E+0	1.773244E+0	1.734611E+0	1.853244E+0	1.729143E+0	1.885732E+0	1.846395E+0	1.905413E+0	1.916099E+0	1.694441E+0	1.865257E+0	1.827367E+0	1.828969E+0	1.917445E+0	1.892232E+0	1.828846E+0	1.681155E+0	1.867816E+0	1.763195E+0	1.830866E+0	1.610954E+0	1.961401E+0	1.933267E+0	1.802589E+0	1.603943E+0	1.746873E+0	1.967144E+0	1.783365E+0	1.681994E+0	1.808034E+0	1.967400E+0	1.922165E+0	1.842289E+0	1.759126E+0	1.789038E+0	1.808917E+0	1.717755E+0	1.847295E+0	1.829495E+0	1.861364E+0	1.640214E+0	1.784194E+0	1.823490E+0	1.814888E+0	1.675588E+0	1.954201E+0	1.822878E+0	1.842828E+0	1.848423E+0	1.739226E+0	1.751064E+0	1.746655E+0	1.798289E+0	1.777668E+0	1.517614E+0	1.867662E+0	1.803582E+0	1.684045E+0	1.732488E+0	1.747501E+0	1.808021E+0	1.887038E+0	1.731975E+0	1.878387E+0	1.889630E+0	1.889631E+0	1.677616E+0	1.780942E+0	1.833351E+0	1.929397E+0	1.930225E+0	1.865673E+0	1.908131E+0	1.813992E+0	1.865471E+0	1.762932E+0	1.643692E+0	1.840730E+0	1.858469E+0	1.840430E+0	1.730763E+0	1.818136E+0	1.739553E+0	1.754253E+0	1.710528E+0	1.751043E+0	1.848016E+0	1.787236E+0	1.819673E+0	1.701061E+0	1.908420E+0	1.691902E+0	1.726304E+0	1.766213E+0	1.864821E+0	1.774433E+0	1.810157E+0	1.756748E+0	1.799824E+0	1.751214E+0	1.779927E+0	1.511017E+0	1.888548E+0	1.761715E+0	1.831302E+0	1.646450E+0	1.840464E+0	1.663356E+0	1.744159E+0	1.915085E+0	1.827223E+0	1.940298E+0
5.354170E+2	1.589543E+0	1.478898E+0	1.405352E+0	1.486442E+0	1.729396E+0	1.578499E+0	1.496996E+0	1.510267E+0	1.729193E+0	1.386945E+0	1.602554E+0	1.507600E+0	1.642840E+0	1.513909E+0	1.537075E+0	1.478642E+0	1.611637E+0	1.769282E+0	1.643440E+0	1.644107E+0	1.566674E+0	1.654348E+0	1.552128E+0	1.533764E+0	1.539977E+0	1.677807E+0	1.543368E+0	1.582729E+0	1.522732E+0	1.577920E+0	1.492118E+0	1.544293E+0	1.646663E+0	1.622611E+0	1.601196E+0	1.615619E+0	1.561673E+0	1.653245E+0	1.609230E+0	1.571966E+0	1.595671E+0	1.737346E+0	1.641190E+0	1.612057E+0	1.457938E+0	1.567803E+0	1.580186E+0	1.645808E+0	1.361720E+0	1.663892E+0	1.639583E+0	1.591915E+0	1.507685E+0	1.635286E+0	1.515406E+0	1.563426E+0	1.666214E+0	1.607427E+0	1.589210E+0	1.579339E+0	1.639218E+0	1.485980E+0	1.576604E+0	1.504876E+0	1.632951E+0	1.657376E+0	1.609993E+0	1.689285E+0	1.487524E+0	1.677170E+0	1.615528E+0	1.578660E+0	1.667334E+0	1.641731E+0	1.641155E+0	1.414793E+0	1.669988E+0	1.538179E+0	1.579499E+0	1.412955E+0	1.707302E+0	1.622635E+0	1.636598E+0	1.404092E+0	1.581532E+0	1.693607E+0	1.619376E+0	1.519536E+0	1.541443E+0	1.710448E+0	1.590390E+0	1.656626E+0	1.590225E+0	1.552221E+0	1.488666E+0	1.501729E+0	1.667564E+0	1.589389E+0	1.589757E+0	1.461396E+0	1.596164E+0	1.606461E+0	1.555895E+0	1.462956E+0	1.651299E+0	1.652881E+0	1.599320E+0	1.675696E+0	1.549309E+0	1.496939E+0	1.520428E+0	1.638722E+0	1.589695E+0	1.309242E+0	1.560146E+0	1.507029E+0	1.486943E+0	1.469088E+0	1.493682E+0	1.583265E+0	1.642540E+0	1.553049E+0	1.656174E+0	1.614628E+0	1.659382E+0	1.503413E+0	1.505590E+0	1.640845E+0	1.595457E+0	1.633519E+0	1.625298E+0	1.602161E+0	1.523563E+0	1.630885E+0	1.476058E+0	1.480016E+0	1.610754E+0	1.636610E+0	1.533814E+0	1.583852E+0	1.606806E+0	1.481011E+0	1.535605E+0	1.571745E+0	1.571937E+0	1.646524E+0	1.547340E+0	1.593271E+0	1.517371E+0	1.683611E+0	1.492782E+0	1.496611E+0	1.519840E+0	1.721988E+0	1.563781E+0	1.604334E+0	1.480565E+0	1.573977E+0	1.492066E+0	1.595381E+0	1.332241E+0	1.656825E+0	1.535610E+0	1.576504E+0	1.471475E+0	1.629668E+0	1.477201E+0	1.537934E+0	1.638548E+0	1.636505E+0	1.579733E+0
5.355630E+2	1.363149E+0	1.236996E+0	1.230365E+0	1.233395E+0	1.474303E+0	1.437468E+0	1.290865E+0	1.278634E+0	1.483063E+0	1.173724E+0	1.417502E+0	1.284319E+0	1.353513E+0	1.270837E+0	1.355701E+0	1.293792E+0	1.437996E+0	1.440243E+0	1.361941E+0	1.396511E+0	1.319375E+0	1.402659E+0	1.264677E+0	1.280663E+0	1.350267E+0	1.457660E+0	1.301130E+0	1.333131E+0	1.328032E+0	1.309360E+0	1.273414E+0	1.314733E+0	1.340503E+0	1.413561E+0	1.366508E+0	1.362631E+0	1.334885E+0	1.457445E+0	1.439669E+0	1.285582E+0	1.408286E+0	1.413743E+0	1.420652E+0	1.455931E+0	1.267511E+0	1.284039E+0	1.318764E+0	1.363410E+0	1.162124E+0	1.410143E+0	1.352779E+0	1.357588E+0	1.262607E+0	1.322481E+0	1.305277E+0	1.283523E+0	1.410070E+0	1.354770E+0	1.347043E+0	1.293435E+0	1.371702E+0	1.268246E+0	1.392002E+0	1.339213E+0	1.439188E+0	1.463323E+0	1.401034E+0	1.374580E+0	1.248730E+0	1.401141E+0	1.308873E+0	1.341312E+0	1.466214E+0	1.371127E+0	1.373686E+0	1.243201E+0	1.417955E+0	1.316098E+0	1.362171E+0	1.216427E+0	1.440500E+0	1.398548E+0	1.311053E+0	1.187410E+0	1.280580E+0	1.424767E+0	1.374149E+0	1.310518E+0	1.389346E+0	1.511057E+0	1.356723E+0	1.377311E+0	1.310667E+0	1.355221E+0	1.333290E+0	1.320881E+0	1.407706E+0	1.397775E+0	1.338199E+0	1.194545E+0	1.362449E+0	1.401546E+0	1.336437E+0	1.242083E+0	1.438122E+0	1.370827E+0	1.388672E+0	1.423984E+0	1.355588E+0	1.279842E+0	1.346748E+0	1.424954E+0	1.355457E+0	1.119530E+0	1.361668E+0	1.362661E+0	1.274295E+0	1.281014E+0	1.290626E+0	1.296848E+0	1.421974E+0	1.378781E+0	1.303462E+0	1.434601E+0	1.348866E+0	1.279291E+0	1.238132E+0	1.372876E+0	1.375427E+0	1.382712E+0	1.360121E+0	1.385193E+0	1.295666E+0	1.412106E+0	1.269814E+0	1.279781E+0	1.362159E+0	1.407519E+0	1.387276E+0	1.308686E+0	1.268986E+0	1.288242E+0	1.352108E+0	1.290988E+0	1.387381E+0	1.426935E+0	1.389963E+0	1.336384E+0	1.292966E+0	1.461338E+0	1.260389E+0	1.275984E+0	1.299228E+0	1.400170E+0	1.384575E+0	1.366408E+0	1.246709E+0	1.366653E+0	1.286091E+0	1.285067E+0	1.132159E+0	1.348066E+0	1.323259E+0	1.338055E+0	1.254132E+0	1.455384E+0	1.254131E+0	1.357956E+0	1.391341E+0	1.314743E+0	1.402986E+0
5.357090E+2	1.112048E+0	1.053287E+0	1.063683E+0	1.012735E+0	1.183330E+0	1.170836E+0	1.171525E+0	9.757297E-1	1.177192E+0	9.300436E-1	1.122895E+0	1.048922E+0	1.130401E+0	1.007122E+0	1.111492E+0	1.021430E+0	1.125447E+0	1.138531E+0	1.112270E+0	1.134650E+0	1.105349E+0	1.174873E+0	1.089575E+0	1.095990E+0	1.101794E+0	1.219422E+0	1.159868E+0	1.090188E+0	1.029958E+0	1.103849E+0	1.056752E+0	1.081225E+0	1.137689E+0	1.174957E+0	1.155845E+0	1.082732E+0	1.097984E+0	1.197358E+0	1.132261E+0	1.109237E+0	1.140596E+0	1.167488E+0	1.150701E+0	1.120868E+0	1.012713E+0	1.115416E+0	1.097029E+0	1.124841E+0	9.338684E-1	1.155331E+0	1.125892E+0	1.124974E+0	1.047923E+0	1.105956E+0	1.098858E+0	1.054875E+0	1.185285E+0	1.111043E+0	1.116156E+0	1.119891E+0	1.111101E+0	1.065711E+0	1.153537E+0	1.091415E+0	1.155231E+0	1.172523E+0	1.164462E+0	1.130191E+0	1.006612E+0	1.128046E+0	1.125208E+0	1.118424E+0	1.197298E+0	1.158125E+0	1.110329E+0	1.031234E+0	1.136300E+0	1.085700E+0	1.107401E+0	9.668358E-1	1.178534E+0	1.129412E+0	1.170196E+0	9.500921E-1	1.166151E+0	1.196644E+0	1.114792E+0	1.018574E+0	1.090288E+0	1.163904E+0	1.141520E+0	1.104537E+0	1.114104E+0	1.097208E+0	1.096476E+0	1.036305E+0	1.105557E+0	1.143653E+0	1.089506E+0	1.012401E+0	1.113345E+0	1.127357E+0	1.101772E+0	1.001133E+0	1.164939E+0	1.125394E+0	1.176264E+0	1.155230E+0	1.077217E+0	1.026224E+0	1.038110E+0	1.170660E+0	1.067343E+0	9.432938E-1	1.097645E+0	1.101598E+0	1.105088E+0	1.049037E+0	1.043977E+0	1.108401E+0	1.169497E+0	1.125250E+0	1.156590E+0	1.167049E+0	1.162894E+0	1.037337E+0	1.043330E+0	1.149412E+0	1.169188E+0	1.126988E+0	1.172524E+0	1.158918E+0	1.060820E+0	1.129075E+0	1.075092E+0	1.021714E+0	1.100971E+0	1.141179E+0	1.110211E+0	1.103479E+0	1.072390E+0	1.084850E+0	1.132429E+0	1.081677E+0	1.145343E+0	1.182610E+0	1.074621E+0	1.097561E+0	1.118210E+0	1.177156E+0	1.079754E+0	1.047299E+0	1.113890E+0	1.142485E+0	1.127045E+0	1.121028E+0	1.084611E+0	1.104278E+0	1.091475E+0	1.105079E+0	9.362330E-1	1.169727E+0	1.076249E+0	1.101299E+0	1.029811E+0	1.166204E+0	1.042663E+0	1.062992E+0	1.176816E+0	1.150936E+0	1.070697E+0
5.358650E+2	9.132350E-1	8.872641E-1	8.427317E-1	8.755075E-1	9.887871E-1	9.446514E-1	1.024519E+0	8.476332E-1	1.057710E+0	8.234342E-1	1.003689E+0	8.535491E-1	9.174803E-1	8.750062E-1	9.234514E-1	8.587811E-1	9.443284E-1	1.021973E+0	1.003073E+0	8.946950E-1	8.827801E-1	9.752069E-1	1.078948E+0	9.000717E-1	9.473393E-1	1.011679E+0	1.062858E+0	8.622220E-1	8.673725E-1	9.454939E-1	9.015556E-1	8.910902E-1	9.848868E-1	9.768509E-1	9.446245E-1	9.465497E-1	8.904581E-1	1.015196E+0	1.023411E+0	9.018590E-1	9.380823E-1	1.001422E+0	9.994572E-1	8.922307E-1	8.688125E-1	8.780355E-1	9.035665E-1	9.346204E-1	7.910782E-1	9.737753E-1	9.693997E-1	9.208656E-1	9.139843E-1	9.341211E-1	9.566470E-1	8.860282E-1	9.419166E-1	9.082873E-1	9.855770E-1	9.004625E-1	9.191074E-1	9.112377E-1	9.422663E-1	8.819141E-1	9.503350E-1	1.019853E+0	9.585090E-1	9.617822E-1	8.810331E-1	9.599881E-1	9.030734E-1	9.468957E-1	9.899159E-1	9.532694E-1	9.572411E-1	8.360901E-1	9.435014E-1	8.743822E-1	8.818046E-1	8.194397E-1	1.033336E+0	9.450460E-1	9.177072E-1	8.175839E-1	8.853678E-1	9.977552E-1	9.472705E-1	8.595077E-1	9.040158E-1	9.751947E-1	8.967754E-1	9.303081E-1	9.185113E-1	9.022750E-1	9.316034E-1	8.762027E-1	9.169234E-1	9.421069E-1	9.336440E-1	8.429909E-1	9.431106E-1	9.660406E-1	8.691357E-1	8.137261E-1	9.831978E-1	9.275192E-1	9.861521E-1	9.637492E-1	9.437284E-1	8.573141E-1	8.860021E-1	9.462538E-1	9.262149E-1	8.002313E-1	9.555265E-1	9.205380E-1	8.755201E-1	8.709422E-1	8.878225E-1	9.816166E-1	9.859795E-1	9.445733E-1	9.261818E-1	1.006270E+0	9.691705E-1	9.038814E-1	9.011780E-1	9.428758E-1	9.659464E-1	9.504944E-1	9.658516E-1	9.332218E-1	9.209309E-1	9.908717E-1	8.825624E-1	8.962280E-1	9.547706E-1	9.521249E-1	9.384298E-1	9.536530E-1	9.276099E-1	8.591932E-1	9.220527E-1	8.996661E-1	9.462680E-1	9.630197E-1	9.384638E-1	9.592369E-1	9.255797E-1	9.853340E-1	9.292253E-1	8.916521E-1	9.442306E-1	9.617554E-1	9.840382E-1	9.685253E-1	8.641782E-1	9.087869E-1	9.092472E-1	9.291889E-1	8.078685E-1	9.501374E-1	9.040563E-1	8.927264E-1	8.942188E-1	9.826689E-1	8.633630E-1	8.923882E-1	9.648036E-1	9.052257E-1	9.858599E-1
5.360070E+2	9.166827E-1	7.326510E-1	7.502537E-1	6.927216E-1	8.917961E-1	8.163920E-1	8.872776E-1	7.262793E-1	8.934230E-1	6.909333E-1	8.390732E-1	7.761376E-1	8.339420E-1	7.258608E-1	7.944431E-1	7.524828E-1	7.835125E-1	8.847806E-1	8.702815E-1	7.831232E-1	7.829618E-1	8.158485E-1	9.078945E-1	7.702400E-1	7.923264E-1	8.685320E-1	8.830202E-1	7.291029E-1	7.941087E-1	7.702620E-1	7.740185E-1	7.706125E-1	8.220813E-1	8.444154E-1	8.054869E-1	8.071375E-1	7.960840E-1	8.184243E-1	8.861180E-1	7.932316E-1	8.065643E-1	8.404741E-1	8.488161E-1	8.021790E-1	7.362725E-1	7.585267E-1	7.825291E-1	7.828030E-1	6.680912E-1	8.357516E-1	8.507221E-1	8.210916E-1	7.448979E-1	7.922295E-1	9.136656E-1	7.689409E-1	7.926423E-1	7.969289E-1	8.763651E-1	7.798655E-1	7.542369E-1	7.445034E-1	8.528421E-1	7.582445E-1	8.111391E-1	8.498461E-1	8.624382E-1	8.228591E-1	7.316708E-1	8.158677E-1	9.279961E-1	7.973076E-1	8.366572E-1	8.358992E-1	9.120767E-1	6.930972E-1	8.021160E-1	7.711685E-1	8.278366E-1	7.128234E-1	8.699857E-1	8.573093E-1	8.066590E-1	6.888780E-1	7.502688E-1	8.145260E-1	8.286937E-1	7.586360E-1	8.043293E-1	8.440479E-1	8.176562E-1	8.061706E-1	8.204720E-1	7.724921E-1	7.987076E-1	8.035928E-1	8.256667E-1	8.118323E-1	8.115902E-1	7.610541E-1	8.007660E-1	7.998801E-1	8.230139E-1	7.648148E-1	8.688942E-1	8.242080E-1	8.177517E-1	8.256781E-1	7.896211E-1	7.614468E-1	7.748263E-1	8.383565E-1	7.675190E-1	7.027835E-1	8.054439E-1	8.315117E-1	7.456442E-1	7.856360E-1	8.111233E-1	7.764566E-1	8.651546E-1	8.011964E-1	8.311798E-1	8.305919E-1	8.717553E-1	7.429197E-1	7.358592E-1	8.190506E-1	8.436422E-1	8.494072E-1	8.386677E-1	8.122311E-1	8.014237E-1	8.531800E-1	7.470790E-1	7.418252E-1	7.779072E-1	8.320206E-1	7.937405E-1	8.114073E-1	7.680975E-1	7.913956E-1	7.623321E-1	8.004704E-1	8.034649E-1	8.351258E-1	8.176321E-1	7.830848E-1	7.786257E-1	8.767353E-1	7.475349E-1	8.040067E-1	7.734518E-1	8.346616E-1	7.644833E-1	8.429677E-1	7.738372E-1	7.878897E-1	7.796743E-1	7.943102E-1	7.241969E-1	8.646065E-1	8.099832E-1	8.047874E-1	7.755772E-1	8.585266E-1	7.668581E-1	7.849018E-1	8.206702E-1	8.256637E-1	8.350354E-1
5.362630E+2	6.839686E-1	5.751859E-1	6.118132E-1	5.587885E-1	6.619324E-1	6.024482E-1	6.654130E-1	5.760313E-1	6.747718E-1	5.107114E-1	6.880796E-1	5.918234E-1	6.357925E-1	5.767144E-1	6.197338E-1	5.373254E-1	6.194904E-1	6.717418E-1	6.765805E-1	6.139831E-1	5.788279E-1	6.147763E-1	6.725709E-1	6.146297E-1	6.110097E-1	6.452833E-1	6.736826E-1	6.320372E-1	5.818445E-1	6.094250E-1	6.183094E-1	5.944977E-1	6.431628E-1	6.211352E-1	5.981782E-1	6.214338E-1	6.116684E-1	6.625646E-1	7.356963E-1	5.816195E-1	6.383847E-1	6.954506E-1	6.710585E-1	6.057031E-1	5.788478E-1	6.253753E-1	6.178379E-1	5.894178E-1	5.419775E-1	6.180984E-1	6.639775E-1	6.027289E-1	5.829360E-1	6.042690E-1	7.300658E-1	6.116515E-1	6.108422E-1	6.004765E-1	6.787150E-1	5.839671E-1	6.329775E-1	5.875764E-1	6.509838E-1	5.782779E-1	6.068002E-1	6.585889E-1	6.823049E-1	6.482131E-1	5.832592E-1	6.614877E-1	7.421617E-1	6.551983E-1	6.919439E-1	6.419126E-1	6.921230E-1	5.282340E-1	6.288769E-1	5.901778E-1	6.387047E-1	5.413528E-1	6.824370E-1	6.527882E-1	7.037931E-1	5.107529E-1	6.146661E-1	6.798443E-1	7.767221E-1	5.884158E-1	6.516665E-1	6.600863E-1	7.074163E-1	6.390199E-1	6.345855E-1	6.028954E-1	6.473267E-1	6.132742E-1	6.058723E-1	6.266431E-1	6.689082E-1	5.351739E-1	6.593836E-1	6.434083E-1	7.115105E-1	5.604181E-1	6.334299E-1	5.990017E-1	7.162417E-1	6.807893E-1	6.208625E-1	5.965948E-1	6.005938E-1	6.240821E-1	6.234630E-1	5.239563E-1	6.847650E-1	6.348122E-1	5.855857E-1	6.040470E-1	6.533134E-1	6.266210E-1	7.038639E-1	6.216855E-1	6.761185E-1	6.344281E-1	6.852271E-1	6.038610E-1	6.110809E-1	6.096125E-1	6.451970E-1	6.669035E-1	6.447131E-1	6.348162E-1	6.022449E-1	6.792803E-1	5.874607E-1	5.590514E-1	6.333504E-1	6.351825E-1	6.256544E-1	6.190240E-1	6.380490E-1	6.143119E-1	5.943418E-1	5.943425E-1	5.880512E-1	6.131229E-1	6.095643E-1	6.283874E-1	5.810317E-1	6.493897E-1	6.170774E-1	5.904328E-1	6.480271E-1	6.784173E-1	6.167299E-1	6.302671E-1	6.086418E-1	6.320090E-1	6.041571E-1	6.298130E-1	5.407441E-1	6.510839E-1	6.168860E-1	6.108720E-1	5.796685E-1	6.769391E-1	6.007420E-1	6.049246E-1	6.522349E-1	6.560063E-1	6.394343E-1
5.365140E+2	6.265085E-1	5.169928E-1	4.772493E-1	4.984082E-1	5.907305E-1	5.375202E-1	6.187614E-1	5.192063E-1	6.335507E-1	4.954817E-1	6.069062E-1	5.370561E-1	5.094664E-1	4.750472E-1	5.007220E-1	4.916468E-1	5.313353E-1	5.585296E-1	5.761635E-1	5.294129E-1	5.050879E-1	5.613448E-1	6.108300E-1	5.072962E-1	5.102785E-1	5.512301E-1	5.970956E-1	5.150034E-1	4.674330E-1	5.334745E-1	5.363574E-1	5.493736E-1	5.698172E-1	5.554644E-1	5.383885E-1	4.997850E-1	5.432952E-1	5.763549E-1	5.852748E-1	5.491722E-1	5.057028E-1	5.418961E-1	5.848917E-1	5.191604E-1	5.317822E-1	5.260577E-1	5.359889E-1	5.338424E-1	4.726666E-1	5.650129E-1	6.127829E-1	5.400140E-1	4.917437E-1	5.351653E-1	6.207551E-1	5.206952E-1	5.672800E-1	5.416457E-1	5.564459E-1	5.198446E-1	5.345868E-1	5.096034E-1	5.756792E-1	5.039838E-1	5.411001E-1	5.596045E-1	5.922379E-1	5.671272E-1	5.347402E-1	5.667104E-1	6.164666E-1	5.454997E-1	5.478009E-1	5.815976E-1	5.982755E-1	4.749621E-1	5.796994E-1	5.163137E-1	5.336856E-1	4.995905E-1	6.062070E-1	5.822433E-1	5.506637E-1	4.504725E-1	5.183824E-1	5.843152E-1	6.283743E-1	5.035484E-1	5.257765E-1	5.817541E-1	6.261868E-1	5.524504E-1	5.176183E-1	4.989657E-1	5.079360E-1	5.433698E-1	5.507844E-1	5.600453E-1	5.520111E-1	4.609879E-1	5.415654E-1	5.688053E-1	6.339648E-1	5.001805E-1	5.705633E-1	5.383267E-1	6.123846E-1	5.648777E-1	5.237310E-1	4.926115E-1	5.148602E-1	5.683601E-1	5.168849E-1	4.773052E-1	6.075796E-1	5.554109E-1	4.758312E-1	5.282198E-1	6.268279E-1	5.205832E-1	5.522627E-1	5.604882E-1	6.362612E-1	5.748338E-1	5.800633E-1	5.091174E-1	5.484283E-1	5.375425E-1	5.762504E-1	5.543413E-1	5.684032E-1	5.417460E-1	5.156257E-1	5.752462E-1	6.346331E-1	4.913978E-1	5.490251E-1	5.879192E-1	6.127246E-1	5.315774E-1	5.222254E-1	5.227341E-1	5.679801E-1	5.206281E-1	5.233062E-1	6.155363E-1	5.624106E-1	5.589432E-1	5.413145E-1	5.808816E-1	5.906690E-1	4.972461E-1	5.265223E-1	5.711452E-1	5.763789E-1	5.184707E-1	4.816478E-1	5.424939E-1	5.225936E-1	5.418687E-1	4.586319E-1	5.825377E-1	5.305144E-1	5.595746E-1	5.148633E-1	5.936904E-1	5.242759E-1	5.361830E-1	5.944133E-1	5.682530E-1	6.040844E-1
5.367710E+2	5.937559E-1	4.667857E-1	4.783574E-1	4.473595E-1	6.142775E-1	5.689200E-1	6.214739E-1	4.647895E-1	5.654458E-1	4.406541E-1	5.790921E-1	4.986130E-1	5.313693E-1	4.987873E-1	5.140511E-1	5.078691E-1	5.468294E-1	5.468182E-1	5.393989E-1	5.166765E-1	4.898009E-1	5.543142E-1	5.900809E-1	5.068272E-1	5.169938E-1	5.352096E-1	5.709993E-1	5.227689E-1	4.975413E-1	5.041861E-1	4.887227E-1	5.173925E-1	5.537033E-1	5.242707E-1	5.601809E-1	5.412316E-1	5.365542E-1	5.320323E-1	5.994967E-1	5.035582E-1	5.423652E-1	5.089102E-1	5.475321E-1	5.361183E-1	4.711928E-1	5.200542E-1	4.953125E-1	5.573375E-1	4.413990E-1	5.368769E-1	5.627520E-1	5.377337E-1	5.102670E-1	5.167378E-1	6.143876E-1	5.252182E-1	5.306869E-1	5.148571E-1	5.445749E-1	5.133737E-1	5.276734E-1	4.860640E-1	5.469171E-1	5.104445E-1	5.372022E-1	5.266101E-1	5.478056E-1	5.569205E-1	5.057241E-1	5.310465E-1	6.175502E-1	5.220640E-1	5.438128E-1	5.593190E-1	5.888912E-1	5.046822E-1	5.355511E-1	4.908768E-1	5.132652E-1	4.725679E-1	5.711172E-1	5.632735E-1	5.781333E-1	4.863149E-1	4.962025E-1	5.357670E-1	6.132371E-1	4.797849E-1	5.217888E-1	5.781938E-1	6.219669E-1	5.279492E-1	4.962629E-1	5.129268E-1	5.179279E-1	5.181143E-1	5.318655E-1	5.320041E-1	5.600335E-1	4.654164E-1	5.252148E-1	5.247220E-1	5.792268E-1	4.780413E-1	5.745637E-1	5.323145E-1	5.936085E-1	5.620374E-1	4.835768E-1	5.215240E-1	4.966075E-1	5.090926E-1	5.209838E-1	4.544983E-1	5.800131E-1	5.133041E-1	5.009831E-1	5.122555E-1	6.240688E-1	5.326853E-1	5.505529E-1	4.940455E-1	5.674664E-1	5.717301E-1	5.319090E-1	4.928181E-1	5.210511E-1	5.360912E-1	5.384800E-1	5.324847E-1	5.690397E-1	5.254583E-1	4.943179E-1	5.237395E-1	5.978827E-1	4.919435E-1	5.210995E-1	5.228623E-1	5.517702E-1	5.694714E-1	5.080011E-1	5.110975E-1	5.498886E-1	5.133475E-1	5.275420E-1	5.521928E-1	5.688943E-1	5.098238E-1	5.189734E-1	5.311500E-1	5.700705E-1	5.073207E-1	5.338012E-1	5.274203E-1	5.508630E-1	5.746558E-1	5.022973E-1	5.399217E-1	5.060743E-1	5.168067E-1	4.503173E-1	5.776852E-1	5.486683E-1	5.556284E-1	5.437760E-1	5.430604E-1	5.938859E-1	5.380579E-1	5.449714E-1	5.600620E-1	6.488610E-1
5.370280E+2	6.592601E-1	4.873246E-1	5.442546E-1	4.967615E-1	5.907305E-1	5.391166E-1	5.645159E-1	4.898315E-1	6.102512E-1	4.838054E-1	5.654685E-1	5.238905E-1	5.772136E-1	4.874337E-1	5.388056E-1	5.010388E-1	5.649944E-1	5.663377E-1	5.679323E-1	5.630371E-1	5.154300E-1	5.721248E-1	6.275303E-1	5.274504E-1	5.388186E-1	5.662165E-1	6.095760E-1	5.366355E-1	5.201223E-1	5.607771E-1	5.455775E-1	5.270306E-1	5.842641E-1	5.346686E-1	5.758268E-1	5.751426E-1	5.649628E-1	5.851221E-1	6.159065E-1	5.482319E-1	5.691339E-1	5.851186E-1	6.204427E-1	5.805591E-1	5.328647E-1	5.036836E-1	5.072179E-1	5.532713E-1	4.585963E-1	5.612970E-1	6.023114E-1	5.628198E-1	5.363902E-1	5.476042E-1	6.419800E-1	5.126555E-1	5.661183E-1	5.626570E-1	5.985874E-1	5.469056E-1	5.547973E-1	5.547196E-1	6.007810E-1	5.182892E-1	5.856422E-1	5.640784E-1	6.108524E-1	5.892413E-1	5.361675E-1	5.588939E-1	6.511411E-1	5.814011E-1	5.734389E-1	5.810543E-1	6.340545E-1	5.086077E-1	5.623757E-1	4.977256E-1	5.818192E-1	5.000818E-1	5.777725E-1	5.958779E-1	6.143702E-1	5.362770E-1	5.657681E-1	5.780503E-1	6.662182E-1	5.326459E-1	5.440046E-1	5.924356E-1	6.604723E-1	5.693284E-1	5.501360E-1	5.377455E-1	5.464051E-1	5.343504E-1	5.958563E-1	5.933440E-1	6.116052E-1	5.241016E-1	5.333899E-1	5.731656E-1	6.273758E-1	5.387940E-1	5.871371E-1	5.962687E-1	6.288134E-1	5.574913E-1	5.389249E-1	5.387702E-1	5.497066E-1	5.683604E-1	5.397225E-1	4.405031E-1	6.039042E-1	5.439821E-1	5.284218E-1	5.327096E-1	6.538653E-1	5.499737E-1	5.579617E-1	5.569912E-1	6.542790E-1	5.897325E-1	6.071843E-1	5.004583E-1	5.452697E-1	5.564063E-1	6.158195E-1	5.652694E-1	6.027428E-1	5.522162E-1	5.466605E-1	5.813658E-1	6.488943E-1	4.930350E-1	5.358841E-1	6.101606E-1	5.924061E-1	5.525652E-1	5.394973E-1	5.353828E-1	5.540241E-1	5.561199E-1	5.553767E-1	5.950249E-1	5.871663E-1	5.645888E-1	5.269172E-1	6.103148E-1	6.677817E-1	5.309953E-1	5.545185E-1	6.166196E-1	6.321575E-1	5.637625E-1	5.208817E-1	5.239738E-1	5.406614E-1	5.573615E-1	4.955305E-1	5.989162E-1	5.998311E-1	5.708486E-1	5.238362E-1	6.000194E-1	6.250003E-1	5.443073E-1	5.759773E-1	5.390018E-1	6.653572E-1
5.372590E+2	7.092509E-1	5.911605E-1	6.118143E-1	5.862333E-1	7.034201E-1	6.460881E-1	7.158610E-1	5.769938E-1	6.998625E-1	5.599550E-1	6.914853E-1	6.097286E-1	6.154170E-1	5.947771E-1	6.283025E-1	6.291088E-1	6.446012E-1	6.823375E-1	6.760320E-1	6.506642E-1	6.242409E-1	6.485228E-1	7.029351E-1	6.525952E-1	6.322748E-1	6.850753E-1	6.889997E-1	5.987576E-1	5.923825E-1	5.935401E-1	6.080653E-1	6.383074E-1	6.492750E-1	6.523290E-1	6.780843E-1	6.644958E-1	6.482626E-1	6.898400E-1	7.143638E-1	6.065423E-1	6.255817E-1	6.783887E-1	6.879307E-1	6.331864E-1	5.918311E-1	6.177350E-1	6.381768E-1	6.707479E-1	5.633438E-1	6.616294E-1	6.715405E-1	6.209731E-1	5.701125E-1	6.190110E-1	7.088404E-1	6.041140E-1	6.729915E-1	6.361954E-1	7.190765E-1	6.598557E-1	6.255319E-1	5.983652E-1	6.494151E-1	6.110413E-1	6.752845E-1	6.686550E-1	7.525565E-1	6.589861E-1	6.370107E-1	6.815183E-1	7.356605E-1	6.302669E-1	6.822588E-1	6.511498E-1	6.780453E-1	5.893567E-1	6.758196E-1	6.356696E-1	6.576669E-1	6.017852E-1	6.654972E-1	6.462677E-1	6.950262E-1	6.546651E-1	6.096251E-1	6.620962E-1	7.575478E-1	6.524305E-1	6.174880E-1	6.986589E-1	7.311519E-1	6.907440E-1	6.447780E-1	6.049639E-1	6.653124E-1	6.218428E-1	6.631859E-1	6.704573E-1	6.654698E-1	5.750350E-1	6.454376E-1	6.453458E-1	7.262084E-1	5.835867E-1	7.071548E-1	6.962996E-1	7.438192E-1	6.648798E-1	6.056684E-1	6.321014E-1	6.359931E-1	6.620734E-1	6.363461E-1	5.535015E-1	7.215198E-1	6.402258E-1	6.203412E-1	6.125283E-1	7.802240E-1	6.427569E-1	6.474411E-1	6.292620E-1	7.214355E-1	6.778818E-1	6.464823E-1	6.079361E-1	6.352996E-1	6.560467E-1	6.877640E-1	6.488718E-1	6.669702E-1	6.732073E-1	6.133620E-1	6.558214E-1	7.284300E-1	5.830576E-1	6.245892E-1	6.646529E-1	6.933811E-1	6.569180E-1	6.502417E-1	6.224073E-1	6.212201E-1	6.230088E-1	6.552169E-1	6.517325E-1	6.626130E-1	6.441960E-1	6.267067E-1	7.077493E-1	7.385565E-1	5.884178E-1	6.385079E-1	6.451867E-1	6.986172E-1	6.858789E-1	6.370347E-1	6.458992E-1	6.248067E-1	6.325466E-1	5.558159E-1	6.747415E-1	6.999556E-1	6.531500E-1	5.761788E-1	7.183194E-1	6.909194E-1	6.011753E-1	7.134075E-1	6.700474E-1	7.313433E-1
5.375110E+2	7.885462E-1	6.870087E-1	6.948775E-1	6.400265E-1	8.088206E-1	7.221928E-1	7.646825E-1	6.482655E-1	7.536296E-1	6.234134E-1	7.397349E-1	7.145237E-1	7.035401E-1	6.567064E-1	7.035180E-1	6.841787E-1	7.348937E-1	7.453575E-1	7.841309E-1	7.077230E-1	7.065239E-1	7.282017E-1	8.259105E-1	7.336808E-1	6.971905E-1	7.708605E-1	8.177796E-1	7.135724E-1	6.681554E-1	6.848794E-1	6.930906E-1	7.092790E-1	7.165086E-1	7.727245E-1	7.859300E-1	7.102486E-1	6.863014E-1	7.268567E-1	8.177445E-1	7.424447E-1	6.925045E-1	7.676780E-1	7.451740E-1	7.372719E-1	6.264536E-1	7.175990E-1	7.289547E-1	7.285829E-1	6.034712E-1	7.853199E-1	7.454232E-1	7.121955E-1	6.921776E-1	6.899565E-1	8.149673E-1	6.804970E-1	7.351406E-1	7.349468E-1	7.802116E-1	6.939757E-1	7.446635E-1	6.552511E-1	7.587114E-1	6.765674E-1	7.343037E-1	7.419140E-1	7.873827E-1	7.514129E-1	6.879081E-1	7.303726E-1	8.283071E-1	7.100478E-1	7.346742E-1	7.674332E-1	7.701329E-1	6.544053E-1	7.730569E-1	6.767596E-1	7.393484E-1	6.450213E-1	7.592714E-1	7.725368E-1	7.347695E-1	7.089714E-1	6.776780E-1	7.816384E-1	8.428224E-1	7.445724E-1	7.194537E-1	7.241765E-1	8.387541E-1	7.234118E-1	7.466997E-1	6.959670E-1	7.112762E-1	6.845309E-1	7.594502E-1	7.388083E-1	7.307943E-1	6.519892E-1	7.406547E-1	6.976650E-1	8.311230E-1	6.505175E-1	7.574490E-1	7.236305E-1	7.995619E-1	7.489725E-1	7.174510E-1	6.574634E-1	7.294695E-1	7.643989E-1	7.154016E-1	6.089641E-1	7.895169E-1	6.859422E-1	6.555539E-1	7.023247E-1	8.155385E-1	6.992337E-1	7.557276E-1	7.330061E-1	7.989665E-1	7.492708E-1	7.732330E-1	6.328954E-1	6.932138E-1	7.126386E-1	7.387235E-1	7.335670E-1	7.655375E-1	6.970563E-1	7.249944E-1	7.654652E-1	8.496517E-1	6.081544E-1	7.111048E-1	7.452784E-1	8.115959E-1	7.262923E-1	7.335532E-1	6.664249E-1	7.245989E-1	6.871677E-1	7.284335E-1	7.283477E-1	7.333440E-1	7.288845E-1	6.892614E-1	7.676300E-1	8.093311E-1	6.735450E-1	7.213779E-1	7.664499E-1	7.822854E-1	7.535307E-1	6.865930E-1	7.024903E-1	7.177277E-1	6.781142E-1	6.285731E-1	7.323677E-1	7.406663E-1	7.089573E-1	6.983098E-1	7.489901E-1	8.470160E-1	7.449070E-1	7.477656E-1	7.999221E-1	8.043990E-1
5.377580E+2	9.494351E-1	7.617479E-1	7.513615E-1	8.162264E-1	9.192677E-1	8.334222E-1	9.312169E-1	8.837505E-1	9.119426E-1	7.315463E-1	9.474929E-1	9.330671E-1	8.940483E-1	7.821128E-1	8.677539E-1	8.404246E-1	8.962438E-1	9.137808E-1	9.202152E-1	8.682030E-1	8.004974E-1	8.884968E-1	9.240891E-1	7.988311E-1	8.382145E-1	8.819677E-1	9.028764E-1	8.428087E-1	7.800583E-1	8.203990E-1	8.011645E-1	8.161748E-1	8.515308E-1	9.068023E-1	8.881874E-1	8.060609E-1	8.177513E-1	8.875866E-1	9.408160E-1	8.280302E-1	8.746506E-1	9.422747E-1	8.723158E-1	8.425271E-1	8.049772E-1	7.907229E-1	8.073315E-1	8.388306E-1	7.103031E-1	8.787512E-1	8.926078E-1	8.176704E-1	8.094927E-1	8.166455E-1	9.380747E-1	8.036149E-1	8.908035E-1	8.599618E-1	9.553060E-1	8.475171E-1	7.999753E-1	7.773595E-1	8.732371E-1	8.108505E-1	8.278427E-1	9.018548E-1	8.816523E-1	8.676545E-1	7.687732E-1	8.456684E-1	9.545434E-1	8.082772E-1	8.537492E-1	8.375294E-1	9.138360E-1	7.323496E-1	8.278229E-1	8.127477E-1	8.414498E-1	7.540941E-1	8.863215E-1	8.804294E-1	8.873153E-1	8.447375E-1	8.092488E-1	9.204960E-1	9.735098E-1	7.925830E-1	8.305322E-1	9.027971E-1	9.194564E-1	8.421050E-1	8.277516E-1	8.216131E-1	8.291841E-1	7.860043E-1	8.640613E-1	8.708354E-1	9.004086E-1	7.909501E-1	8.502982E-1	8.454168E-1	9.750642E-1	7.292900E-1	9.031849E-1	8.930820E-1	9.626823E-1	8.682928E-1	8.151251E-1	7.979676E-1	8.323498E-1	8.854669E-1	8.454029E-1	6.836052E-1	9.365366E-1	8.531667E-1	7.977774E-1	7.881305E-1	1.000386E+0	8.386962E-1	9.107486E-1	8.408290E-1	9.229062E-1	8.920481E-1	8.695409E-1	8.076104E-1	8.595850E-1	8.611323E-1	8.993986E-1	8.827386E-1	9.041669E-1	8.186297E-1	8.227311E-1	8.582793E-1	9.692284E-1	7.669226E-1	8.562096E-1	8.631586E-1	9.673682E-1	8.283130E-1	8.036577E-1	8.096095E-1	8.589916E-1	8.214012E-1	8.143564E-1	8.616704E-1	9.019196E-1	8.305103E-1	8.337337E-1	8.696314E-1	9.514084E-1	7.984649E-1	7.980887E-1	8.608965E-1	9.300392E-1	9.008740E-1	8.089414E-1	8.125838E-1	8.390403E-1	8.439783E-1	7.106850E-1	9.058555E-1	9.029561E-1	8.042235E-1	7.860455E-1	8.867632E-1	9.772711E-1	7.955256E-1	8.793302E-1	8.654447E-1	9.740775E-1
5.380160E+2	1.056311E+0	8.324935E-1	9.075219E-1	8.886813E-1	1.026911E+0	9.313466E-1	1.008245E+0	1.051335E+0	9.967738E-1	8.031276E-1	9.826870E-1	1.072620E+0	9.989811E-1	8.925530E-1	9.315445E-1	9.091552E-1	9.667683E-1	1.034243E+0	9.904521E-1	9.201674E-1	9.052616E-1	9.691128E-1	1.082490E+0	1.063651E+0	9.355881E-1	1.023565E+0	9.953485E-1	1.080204E+0	8.488056E-1	9.385444E-1	8.764576E-1	9.642526E-1	9.443244E-1	9.462049E-1	9.496539E-1	9.707718E-1	9.241630E-1	9.937668E-1	1.039274E+0	9.968503E-1	9.683432E-1	1.003697E+0	1.026573E+0	9.910538E-1	8.487960E-1	9.107779E-1	9.392830E-1	9.332637E-1	8.134869E-1	9.456398E-1	1.031066E+0	9.031905E-1	8.745629E-1	9.276720E-1	1.088775E+0	9.116568E-1	9.546950E-1	9.392786E-1	9.297836E-1	9.234058E-1	9.100660E-1	8.793620E-1	9.448810E-1	9.123708E-1	9.542323E-1	9.650481E-1	9.873309E-1	9.498745E-1	8.605792E-1	9.453314E-1	1.035270E+0	8.860635E-1	9.910548E-1	9.701141E-1	1.055194E+0	8.517919E-1	9.541194E-1	8.885681E-1	9.250768E-1	8.248444E-1	9.928004E-1	9.889143E-1	9.632954E-1	9.376019E-1	9.267035E-1	1.023856E+0	1.106721E+0	9.080034E-1	8.880662E-1	9.698543E-1	1.115145E+0	9.809435E-1	9.388954E-1	9.120995E-1	9.465921E-1	8.676336E-1	9.041252E-1	9.415225E-1	1.020743E+0	8.645829E-1	9.272414E-1	9.466634E-1	1.088594E+0	8.667557E-1	1.020346E+0	9.909263E-1	1.041308E+0	9.665904E-1	9.106283E-1	8.857197E-1	9.374427E-1	9.700624E-1	8.981067E-1	7.800164E-1	1.044964E+0	9.488099E-1	8.640873E-1	8.734368E-1	1.035149E+0	9.597172E-1	9.392454E-1	9.259224E-1	1.073599E+0	9.652993E-1	1.031162E+0	8.656782E-1	8.980191E-1	9.317510E-1	9.737401E-1	9.532262E-1	1.017360E+0	9.477646E-1	8.848007E-1	9.602736E-1	1.054797E+0	8.656749E-1	9.317732E-1	9.465650E-1	1.061570E+0	9.285851E-1	9.103377E-1	9.482411E-1	9.044782E-1	9.301532E-1	9.178277E-1	9.955966E-1	9.585047E-1	9.586721E-1	9.394811E-1	9.873641E-1	1.055458E+0	9.173408E-1	9.027960E-1	9.629215E-1	1.035663E+0	9.266723E-1	8.502406E-1	8.912955E-1	8.777576E-1	9.132402E-1	7.922774E-1	1.014437E+0	9.739229E-1	9.152740E-1	8.927237E-1	9.821822E-1	1.113856E+0	8.936388E-1	9.840780E-1	9.730884E-1	9.811466E-1
5.382740E+2	1.321777E+0	1.028754E+0	1.095247E+0	1.096718E+0	1.274715E+0	1.137839E+0	1.263741E+0	1.239628E+0	1.253062E+0	9.564422E-1	1.198392E+0	1.318021E+0	1.171661E+0	1.045828E+0	1.107682E+0	1.112360E+0	1.184218E+0	1.207685E+0	1.224210E+0	1.174898E+0	1.120185E+0	1.183307E+0	1.256072E+0	1.253477E+0	1.041356E+0	1.207022E+0	1.271631E+0	1.200566E+0	1.079135E+0	1.057683E+0	1.089532E+0	1.148690E+0	1.210480E+0	1.163466E+0	1.132376E+0	1.180160E+0	1.086429E+0	1.170568E+0	1.273382E+0	1.311444E+0	1.179586E+0	1.192512E+0	1.176010E+0	1.260623E+0	1.040303E+0	1.145975E+0	1.131255E+0	1.188099E+0	9.432487E-1	1.186650E+0	1.227699E+0	1.160323E+0	1.085446E+0	1.129912E+0	1.239477E+0	1.299602E+0	1.178315E+0	1.093709E+0	1.209342E+0	1.212252E+0	1.127588E+0	1.065223E+0	1.151446E+0	1.120485E+0	1.129618E+0	1.195451E+0	1.231712E+0	1.226020E+0	1.063694E+0	1.150032E+0	1.310498E+0	1.205186E+0	1.178498E+0	1.195618E+0	1.252858E+0	1.066001E+0	1.140212E+0	1.093040E+0	1.150674E+0	1.001228E+0	1.214834E+0	1.181579E+0	1.174287E+0	1.144509E+0	1.050208E+0	1.201864E+0	1.317128E+0	1.117506E+0	1.119909E+0	1.153815E+0	1.288153E+0	1.209617E+0	1.102457E+0	1.092039E+0	1.134445E+0	1.097189E+0	1.168435E+0	1.084065E+0	1.176032E+0	1.015169E+0	1.130660E+0	1.076008E+0	1.264975E+0	1.019152E+0	1.223234E+0	1.187162E+0	1.238460E+0	1.162618E+0	1.134736E+0	1.069846E+0	1.081253E+0	1.157487E+0	1.153426E+0	9.484772E-1	1.245890E+0	1.082951E+0	1.072163E+0	1.075977E+0	1.275175E+0	1.107824E+0	1.208253E+0	1.138072E+0	1.222110E+0	1.197467E+0	1.172857E+0	1.056184E+0	1.078606E+0	1.130548E+0	1.135614E+0	1.160865E+0	1.201140E+0	1.167060E+0	1.115478E+0	1.172422E+0	1.298338E+0	1.054450E+0	1.110829E+0	1.082794E+0	1.254900E+0	1.143121E+0	1.102362E+0	1.102557E+0	1.174295E+0	1.046639E+0	1.182860E+0	1.200104E+0	1.168930E+0	1.088528E+0	1.074520E+0	1.165992E+0	1.302113E+0	1.091626E+0	1.103251E+0	1.123829E+0	1.264116E+0	1.172053E+0	1.080480E+0	1.087303E+0	1.086313E+0	1.113736E+0	9.882031E-1	1.217043E+0	1.179674E+0	1.095097E+0	1.062711E+0	1.193953E+0	1.265732E+0	1.121110E+0	1.180168E+0	1.127536E+0	1.273371E+0
5.385110E+2	1.514846E+0	1.189072E+0	1.246978E+0	1.224613E+0	1.450195E+0	1.284195E+0	1.435702E+0	1.507857E+0	1.478284E+0	1.130064E+0	1.431126E+0	1.519714E+0	1.356566E+0	1.229552E+0	1.341897E+0	1.316417E+0	1.374421E+0	1.421839E+0	1.393770E+0	1.324169E+0	1.287450E+0	1.322042E+0	1.462046E+0	1.491113E+0	1.287027E+0	1.400813E+0	1.467922E+0	1.446834E+0	1.248747E+0	1.326238E+0	1.313875E+0	1.356352E+0	1.349391E+0	1.339682E+0	1.367064E+0	1.411615E+0	1.328145E+0	1.380005E+0	1.490538E+0	1.469452E+0	1.287825E+0	1.363696E+0	1.398961E+0	1.540718E+0	1.215039E+0	1.262756E+0	1.271639E+0	1.364316E+0	1.145448E+0	1.348031E+0	1.403390E+0	1.373552E+0	1.244084E+0	1.277795E+0	1.514343E+0	1.484529E+0	1.407745E+0	1.323778E+0	1.430139E+0	1.436977E+0	1.311603E+0	1.243725E+0	1.343367E+0	1.344293E+0	1.337298E+0	1.345327E+0	1.459282E+0	1.432988E+0	1.283457E+0	1.360107E+0	1.474121E+0	1.474945E+0	1.415508E+0	1.360261E+0	1.464015E+0	1.301521E+0	1.383865E+0	1.328329E+0	1.339319E+0	1.194810E+0	1.420536E+0	1.368318E+0	1.343783E+0	1.363364E+0	1.290158E+0	1.447735E+0	1.531073E+0	1.535541E+0	1.267446E+0	1.365073E+0	1.430039E+0	1.452996E+0	1.330080E+0	1.263185E+0	1.344283E+0	1.293372E+0	1.339263E+0	1.356883E+0	1.369140E+0	1.180704E+0	1.343696E+0	1.304178E+0	1.488995E+0	1.396540E+0	1.399832E+0	1.326002E+0	1.466124E+0	1.488761E+0	1.293185E+0	1.269698E+0	1.320753E+0	1.359098E+0	1.298653E+0	1.087911E+0	1.421091E+0	1.274838E+0	1.220332E+0	1.258564E+0	1.554379E+0	1.359089E+0	1.394050E+0	1.301264E+0	1.487460E+0	1.388666E+0	1.453479E+0	1.197280E+0	1.290254E+0	1.307578E+0	1.329862E+0	1.365228E+0	1.431342E+0	1.290379E+0	1.247955E+0	1.377940E+0	1.473314E+0	1.190849E+0	1.295355E+0	1.300204E+0	1.445153E+0	1.248640E+0	1.271018E+0	1.275591E+0	1.277676E+0	1.271423E+0	1.356522E+0	1.366004E+0	1.322769E+0	1.279357E+0	1.210553E+0	1.346146E+0	1.499650E+0	1.257346E+0	1.359139E+0	1.408916E+0	1.424924E+0	1.307357E+0	1.235352E+0	1.340929E+0	1.280931E+0	1.334734E+0	1.103056E+0	1.366265E+0	1.388175E+0	1.322835E+0	1.182352E+0	1.360937E+0	1.463487E+0	1.267342E+0	1.367877E+0	1.370906E+0	1.563238E+0
5.387700E+2	1.792377E+0	1.481182E+0	1.455190E+0	1.435944E+0	1.750702E+0	1.596063E+0	1.711810E+0	1.752494E+0	1.704103E+0	1.303684E+0	1.674645E+0	1.727198E+0	1.572544E+0	1.480362E+0	1.547550E+0	1.555909E+0	1.581718E+0	1.627627E+0	1.596798E+0	1.622202E+0	1.478995E+0	1.576076E+0	1.697872E+0	1.718432E+0	1.498562E+0	1.594089E+0	1.657968E+0	1.754119E+0	1.426885E+0	1.538703E+0	1.549999E+0	1.528957E+0	1.630547E+0	1.620424E+0	1.573817E+0	1.684519E+0	1.582859E+0	1.588465E+0	1.724101E+0	1.784043E+0	1.536894E+0	1.585499E+0	1.678549E+0	1.794502E+0	1.388151E+0	1.550342E+0	1.521157E+0	1.557249E+0	1.328888E+0	1.670266E+0	1.653544E+0	1.566828E+0	1.454967E+0	1.478654E+0	1.722884E+0	1.742826E+0	1.546561E+0	1.548594E+0	1.690111E+0	1.688762E+0	1.515300E+0	1.465385E+0	1.575555E+0	1.568095E+0	1.575603E+0	1.610961E+0	1.656826E+0	1.638819E+0	1.416169E+0	1.542332E+0	1.814906E+0	1.717278E+0	1.682142E+0	1.616191E+0	1.662853E+0	1.527506E+0	1.542016E+0	1.482414E+0	1.534773E+0	1.360874E+0	1.607480E+0	1.591808E+0	1.620235E+0	1.568096E+0	1.468107E+0	1.637232E+0	1.828274E+0	1.800814E+0	1.532328E+0	1.664161E+0	1.713815E+0	1.699095E+0	1.568868E+0	1.445190E+0	1.474177E+0	1.411079E+0	1.510645E+0	1.515199E+0	1.593194E+0	1.418765E+0	1.550479E+0	1.572552E+0	1.767245E+0	1.697216E+0	1.631868E+0	1.487255E+0	1.643914E+0	1.783650E+0	1.496671E+0	1.408172E+0	1.517664E+0	1.620991E+0	1.536405E+0	1.297321E+0	1.663058E+0	1.527480E+0	1.438469E+0	1.449132E+0	1.759094E+0	1.691030E+0	1.606633E+0	1.491264E+0	1.710768E+0	1.730087E+0	1.571928E+0	1.418346E+0	1.488740E+0	1.531529E+0	1.593054E+0	1.588165E+0	1.629110E+0	1.598673E+0	1.531900E+0	1.555406E+0	1.671328E+0	1.697160E+0	1.513287E+0	1.586011E+0	1.690813E+0	1.633403E+0	1.465584E+0	1.481515E+0	1.522683E+0	1.551719E+0	1.559227E+0	1.589818E+0	1.627502E+0	1.511407E+0	1.512404E+0	1.552176E+0	1.708803E+0	1.506684E+0	1.479525E+0	1.589648E+0	1.686610E+0	1.541841E+0	1.536833E+0	1.482919E+0	1.506007E+0	1.489210E+0	1.306777E+0	1.593135E+0	1.581272E+0	1.590032E+0	1.383742E+0	1.584391E+0	1.642259E+0	1.522934E+0	1.601676E+0	1.596725E+0	1.730559E+0
5.390290E+2	1.962460E+0	1.616398E+0	1.647349E+0	1.699968E+0	1.918897E+0	1.759978E+0	1.890278E+0	1.914300E+0	1.895277E+0	1.482385E+0	1.893191E+0	1.920464E+0	1.826726E+0	1.603705E+0	1.704167E+0	1.734780E+0	1.772989E+0	1.877476E+0	1.860736E+0	1.788792E+0	1.701111E+0	1.866203E+0	1.990892E+0	1.912944E+0	1.686036E+0	1.841625E+0	1.837805E+0	1.925509E+0	1.601515E+0	1.675712E+0	1.672925E+0	1.770347E+0	1.792243E+0	1.796642E+0	1.778332E+0	1.876144E+0	1.703233E+0	1.804722E+0	1.960948E+0	1.993778E+0	1.756283E+0	1.880664E+0	1.896078E+0	1.920809E+0	1.590476E+0	1.765347E+0	1.714617E+0	1.776837E+0	1.675964E+0	1.819436E+0	1.916499E+0	1.844487E+0	1.665849E+0	1.706235E+0	1.929301E+0	1.961422E+0	1.732429E+0	1.724035E+0	1.841462E+0	1.902897E+0	1.712080E+0	1.646834E+0	1.759636E+0	1.693608E+0	1.769362E+0	1.805015E+0	1.859175E+0	1.791916E+0	1.614053E+0	1.779275E+0	1.972026E+0	1.881825E+0	1.849079E+0	1.831372E+0	1.927971E+0	1.659285E+0	1.778959E+0	1.619869E+0	1.694730E+0	1.538240E+0	1.784742E+0	1.753644E+0	1.789727E+0	1.766317E+0	1.689911E+0	1.825158E+0	1.982673E+0	1.961818E+0	1.668469E+0	1.832096E+0	1.884714E+0	1.895098E+0	1.725638E+0	1.655635E+0	1.715990E+0	1.628006E+0	1.728216E+0	1.716163E+0	1.782864E+0	1.618625E+0	1.736102E+0	1.734835E+0	1.911695E+0	1.969057E+0	1.843902E+0	1.754549E+0	1.858669E+0	2.001837E+0	1.685509E+0	1.635923E+0	1.689684E+0	1.810443E+0	1.722625E+0	1.468372E+0	1.867050E+0	1.705534E+0	1.629167E+0	1.628226E+0	1.979253E+0	1.882934E+0	1.786163E+0	1.723233E+0	1.928076E+0	1.985848E+0	1.792219E+0	1.548239E+0	1.703547E+0	1.723554E+0	1.751935E+0	1.783783E+0	1.812892E+0	1.762129E+0	1.628248E+0	1.754809E+0	1.951622E+0	1.962862E+0	1.703292E+0	1.730583E+0	1.877989E+0	1.877086E+0	1.706374E+0	1.638867E+0	1.665862E+0	1.707796E+0	1.662097E+0	1.819058E+0	1.817889E+0	1.757564E+0	1.620634E+0	1.755672E+0	1.879401E+0	1.934331E+0	1.608310E+0	1.766879E+0	1.888365E+0	1.911634E+0	1.607042E+0	1.627485E+0	1.674810E+0	1.685603E+0	1.457489E+0	1.745390E+0	1.757868E+0	1.716867E+0	1.587130E+0	1.749427E+0	1.891700E+0	1.789776E+0	1.689665E+0	1.737130E+0	1.947370E+0
5.392780E+2	2.257232E+0	1.752756E+0	1.788554E+0	1.815238E+0	2.090451E+0	1.929215E+0	2.155536E+0	2.105963E+0	2.106754E+0	1.601176E+0	2.008987E+0	2.089505E+0	1.931659E+0	1.783299E+0	1.884591E+0	1.879926E+0	1.946624E+0	2.034747E+0	2.009438E+0	1.957428E+0	1.802730E+0	1.983377E+0	2.129555E+0	2.163702E+0	1.798520E+0	1.993040E+0	2.061325E+0	2.115204E+0	1.800231E+0	1.878743E+0	1.851171E+0	1.946904E+0	1.988386E+0	1.966291E+0	1.971671E+0	1.981648E+0	1.842387E+0	1.989804E+0	2.134886E+0	2.203036E+0	1.900605E+0	1.974505E+0	2.018396E+0	2.207916E+0	1.786313E+0	1.886494E+0	1.920482E+0	1.930012E+0	2.014175E+0	2.059385E+0	2.033433E+0	1.969344E+0	1.824958E+0	1.873003E+0	2.122984E+0	2.106651E+0	1.947336E+0	1.904207E+0	2.056328E+0	2.044082E+0	1.841847E+0	1.808663E+0	1.925933E+0	1.924339E+0	1.985950E+0	1.921335E+0	2.006883E+0	1.967132E+0	1.771501E+0	1.942447E+0	2.217998E+0	2.117179E+0	2.005185E+0	1.989492E+0	2.091032E+0	1.850500E+0	1.944378E+0	1.817982E+0	1.853231E+0	1.657634E+0	1.997701E+0	1.946310E+0	1.971498E+0	1.920005E+0	1.858784E+0	1.992204E+0	2.195109E+0	2.157739E+0	1.893477E+0	1.992326E+0	2.078820E+0	2.090562E+0	1.827072E+0	1.830920E+0	1.896351E+0	1.821930E+0	1.903494E+0	1.872142E+0	1.947320E+0	1.722154E+0	1.917878E+0	1.840929E+0	2.165618E+0	2.085412E+0	2.007353E+0	1.883553E+0	2.091027E+0	2.175701E+0	1.837989E+0	1.820049E+0	1.814133E+0	1.995337E+0	1.805774E+0	1.606769E+0	2.091254E+0	1.885992E+0	1.748524E+0	1.784872E+0	2.155272E+0	2.058706E+0	1.932066E+0	1.894584E+0	2.087506E+0	2.075237E+0	1.953840E+0	1.772870E+0	1.817797E+0	1.973138E+0	1.949179E+0	1.891429E+0	2.010025E+0	1.995967E+0	1.771379E+0	1.906267E+0	2.093138E+0	2.132544E+0	1.821565E+0	1.937426E+0	2.009745E+0	2.076469E+0	1.807975E+0	1.749671E+0	1.854532E+0	1.864781E+0	1.821235E+0	1.977112E+0	1.938721E+0	1.903796E+0	1.797872E+0	1.940389E+0	2.065318E+0	2.146898E+0	1.853001E+0	1.952852E+0	2.061039E+0	2.070440E+0	1.760878E+0	1.840981E+0	1.852907E+0	1.843718E+0	1.604046E+0	1.890367E+0	1.924007E+0	1.950810E+0	1.699290E+0	1.954382E+0	2.070473E+0	2.062867E+0	1.926813E+0	1.867004E+0	2.039278E+0
5.395160E+2	2.352612E+0	1.849172E+0	1.978493E+0	1.934352E+0	2.280507E+0	1.988291E+0	2.245044E+0	2.276913E+0	2.249538E+0	1.702206E+0	2.220718E+0	2.239588E+0	2.024364E+0	1.924190E+0	2.019309E+0	2.020805E+0	2.076988E+0	2.204841E+0	2.164728E+0	2.118419E+0	1.960100E+0	2.070088E+0	2.271255E+0	2.226509E+0	1.978715E+0	2.158407E+0	2.223008E+0	2.198403E+0	1.956294E+0	1.920445E+0	1.979731E+0	2.060369E+0	2.177863E+0	2.094345E+0	2.090693E+0	2.149585E+0	2.042692E+0	2.119363E+0	2.282572E+0	2.356811E+0	2.024555E+0	2.124645E+0	2.212425E+0	2.278670E+0	1.985392E+0	1.972170E+0	1.979514E+0	2.056525E+0	2.118402E+0	2.046645E+0	2.184106E+0	2.153497E+0	1.924227E+0	1.968365E+0	2.211070E+0	2.268965E+0	2.070472E+0	2.000334E+0	2.216584E+0	2.245863E+0	2.029055E+0	1.875356E+0	1.985551E+0	2.000937E+0	2.011008E+0	2.054431E+0	2.181615E+0	2.100385E+0	1.836671E+0	2.043089E+0	2.326896E+0	2.200450E+0	2.081528E+0	2.125337E+0	2.252332E+0	1.952559E+0	2.024291E+0	1.912394E+0	2.023403E+0	1.778987E+0	2.092083E+0	2.091554E+0	2.097744E+0	2.091616E+0	1.889533E+0	2.124798E+0	2.329831E+0	2.326508E+0	1.985761E+0	2.093211E+0	2.239169E+0	2.230488E+0	1.945013E+0	1.925543E+0	1.980280E+0	1.935131E+0	2.132747E+0	1.994822E+0	2.080260E+0	1.904849E+0	1.986650E+0	1.963490E+0	2.277121E+0	2.288264E+0	2.095937E+0	1.999437E+0	2.191364E+0	2.272296E+0	1.975274E+0	1.936714E+0	1.951859E+0	2.042451E+0	1.960376E+0	1.664826E+0	2.104730E+0	1.946747E+0	1.856451E+0	1.865690E+0	2.287152E+0	2.204508E+0	2.042062E+0	1.975014E+0	2.251300E+0	2.224840E+0	2.071177E+0	1.810564E+0	1.980484E+0	2.018122E+0	1.970761E+0	2.065187E+0	2.077434E+0	2.057045E+0	1.903391E+0	2.040900E+0	2.206681E+0	2.243301E+0	1.928344E+0	2.036403E+0	2.128578E+0	2.176153E+0	1.918722E+0	1.847825E+0	1.972384E+0	1.954418E+0	1.980979E+0	2.059158E+0	2.038924E+0	2.044377E+0	1.868869E+0	2.013970E+0	2.194189E+0	2.198783E+0	1.905631E+0	2.015821E+0	2.128094E+0	2.179374E+0	1.837283E+0	1.886255E+0	1.870461E+0	1.951258E+0	1.648736E+0	2.029278E+0	2.078593E+0	2.020710E+0	1.796993E+0	1.980186E+0	2.147991E+0	2.159727E+0	2.039945E+0	2.067083E+0	2.307936E+0
5.397860E+2	2.368133E+0	1.892531E+0	1.969635E+0	1.870678E+0	2.201460E+0	2.044173E+0	2.250466E+0	2.258616E+0	2.130654E+0	1.725048E+0	2.187798E+0	2.242749E+0	2.074284E+0	1.863291E+0	1.940766E+0	1.990066E+0	2.056683E+0	2.114494E+0	2.191064E+0	2.096509E+0	1.955155E+0	2.035872E+0	2.258604E+0	2.232601E+0	1.946257E+0	2.169263E+0	2.257615E+0	2.173998E+0	1.846898E+0	1.987951E+0	1.952075E+0	2.104176E+0	2.078960E+0	2.154544E+0	2.084547E+0	2.074228E+0	1.963726E+0	2.036076E+0	2.216935E+0	2.321538E+0	2.001277E+0	2.100756E+0	2.143131E+0	2.200317E+0	1.876657E+0	1.944885E+0	1.885262E+0	2.048394E+0	2.038145E+0	2.017979E+0	2.153272E+0	2.092499E+0	1.919951E+0	1.956848E+0	2.267318E+0	2.257909E+0	1.998451E+0	2.017143E+0	2.155450E+0	2.172914E+0	1.915776E+0	1.916060E+0	1.996007E+0	1.924337E+0	1.998756E+0	2.039332E+0	2.126978E+0	2.069766E+0	1.915155E+0	2.060678E+0	2.303601E+0	2.231862E+0	2.068994E+0	2.040028E+0	2.222419E+0	1.888634E+0	1.969526E+0	1.942718E+0	1.995202E+0	1.815345E+0	2.053362E+0	2.069619E+0	2.100666E+0	1.992777E+0	1.909196E+0	2.110704E+0	2.265748E+0	2.261524E+0	1.980633E+0	2.112198E+0	2.208578E+0	2.211975E+0	1.892108E+0	1.917785E+0	1.923328E+0	1.885524E+0	2.018677E+0	1.991900E+0	2.114070E+0	1.811841E+0	1.930381E+0	1.903904E+0	2.217820E+0	2.217733E+0	2.084507E+0	1.974835E+0	2.169067E+0	2.291613E+0	1.963333E+0	1.879907E+0	1.940797E+0	2.072846E+0	1.950421E+0	1.658602E+0	2.150674E+0	1.994266E+0	1.859650E+0	1.873172E+0	2.244660E+0	2.216605E+0	2.039784E+0	1.899247E+0	2.186328E+0	2.231052E+0	2.076159E+0	1.864560E+0	1.890454E+0	2.065041E+0	2.041508E+0	2.005083E+0	2.087609E+0	2.034358E+0	1.917288E+0	1.993984E+0	2.221489E+0	2.199653E+0	1.958459E+0	2.021947E+0	2.135352E+0	2.174991E+0	1.918208E+0	1.890831E+0	1.892262E+0	1.937131E+0	1.973716E+0	2.040459E+0	2.066036E+0	1.980578E+0	1.898654E+0	1.987077E+0	2.133451E+0	2.280885E+0	1.912352E+0	1.994831E+0	2.196332E+0	2.192558E+0	1.868257E+0	1.937186E+0	1.935505E+0	1.973584E+0	1.652375E+0	1.978322E+0	2.021933E+0	1.972229E+0	1.796495E+0	2.007450E+0	2.168030E+0	2.152229E+0	2.004746E+0	1.912637E+0	2.138256E+0
5.400240E+2	2.245736E+0	1.792120E+0	1.838395E+0	1.837195E+0	2.185199E+0	1.907397E+0	2.139811E+0	2.179159E+0	2.179640E+0	1.638236E+0	2.087324E+0	2.112679E+0	2.284662E+0	1.812716E+0	1.900297E+0	1.898284E+0	2.053478E+0	2.096091E+0	2.041266E+0	2.033842E+0	1.880516E+0	1.942129E+0	2.154856E+0	2.136987E+0	1.939545E+0	2.082445E+0	2.142451E+0	2.171222E+0	2.148484E+0	1.920938E+0	1.912124E+0	1.995532E+0	2.180640E+0	1.969024E+0	2.029226E+0	2.051620E+0	1.986839E+0	2.019025E+0	2.216388E+0	2.182818E+0	1.949491E+0	2.040473E+0	2.119027E+0	2.183357E+0	1.996212E+0	1.951432E+0	1.921969E+0	1.957119E+0	2.081400E+0	1.979224E+0	2.041578E+0	2.005835E+0	1.925178E+0	1.933354E+0	2.205231E+0	2.192588E+0	2.004844E+0	1.919443E+0	2.037930E+0	2.127030E+0	1.947685E+0	1.797383E+0	2.002281E+0	1.925719E+0	1.971472E+0	2.024791E+0	2.106557E+0	2.034038E+0	1.783866E+0	1.976649E+0	2.205536E+0	2.118672E+0	2.016007E+0	1.948198E+0	2.102173E+0	1.888634E+0	2.015909E+0	1.786184E+0	1.892127E+0	1.773090E+0	2.034003E+0	1.930305E+0	2.036959E+0	1.985717E+0	1.906173E+0	2.016737E+0	2.339414E+0	2.158709E+0	1.862144E+0	2.039803E+0	2.132620E+0	2.103626E+0	1.890653E+0	1.852636E+0	1.907839E+0	1.889582E+0	2.008659E+0	1.906608E+0	2.029262E+0	1.770871E+0	1.974623E+0	1.881138E+0	2.132671E+0	2.118364E+0	1.942773E+0	1.913068E+0	2.097480E+0	2.177975E+0	1.847757E+0	1.808889E+0	1.895995E+0	1.965452E+0	1.904156E+0	1.562710E+0	2.109631E+0	1.981032E+0	1.711938E+0	1.861198E+0	2.146446E+0	2.056974E+0	1.989627E+0	1.863113E+0	2.042188E+0	2.193806E+0	1.935019E+0	1.832978E+0	1.858864E+0	1.902033E+0	1.955777E+0	1.938420E+0	2.031011E+0	1.929655E+0	1.780641E+0	1.979701E+0	2.200649E+0	2.154910E+0	1.817186E+0	1.914074E+0	2.091022E+0	2.155752E+0	1.897383E+0	1.789642E+0	1.870034E+0	1.832020E+0	1.854516E+0	1.934888E+0	2.004735E+0	1.924120E+0	1.831134E+0	2.027674E+0	2.045773E+0	2.126751E+0	1.878754E+0	1.969179E+0	2.033745E+0	2.099108E+0	1.737649E+0	1.829149E+0	1.814709E+0	1.842808E+0	1.617038E+0	1.916450E+0	1.989475E+0	1.999287E+0	1.742163E+0	1.935400E+0	2.080492E+0	2.152230E+0	1.915085E+0	1.913807E+0	2.138257E+0
5.402790E+2	2.113004E+0	1.677442E+0	1.733733E+0	1.775716E+0	2.048404E+0	1.826503E+0	1.992807E+0	2.031803E+0	2.128263E+0	1.578841E+0	1.888078E+0	2.060015E+0	2.117582E+0	1.769365E+0	1.762244E+0	1.777468E+0	1.959980E+0	1.975072E+0	1.955116E+0	1.864195E+0	1.715051E+0	1.847923E+0	2.045041E+0	1.999190E+0	1.860078E+0	1.864364E+0	1.933114E+0	1.990959E+0	2.055648E+0	1.787407E+0	1.703658E+0	1.817224E+0	2.069511E+0	1.875444E+0	1.886735E+0	1.913825E+0	1.762459E+0	1.891417E+0	2.087846E+0	2.057731E+0	1.939596E+0	1.963124E+0	1.953927E+0	2.019629E+0	2.056259E+0	1.740248E+0	1.713627E+0	1.869916E+0	2.044403E+0	1.832708E+0	1.892064E+0	1.812556E+0	1.824483E+0	1.819562E+0	1.977059E+0	2.026750E+0	1.915974E+0	1.795477E+0	1.948303E+0	1.928780E+0	2.080645E+0	1.696361E+0	1.797810E+0	1.774367E+0	1.930827E+0	1.929166E+0	1.933631E+0	1.806660E+0	1.739154E+0	1.860863E+0	2.026749E+0	1.881325E+0	1.899782E+0	1.867774E+0	1.986627E+0	1.734987E+0	2.001941E+0	1.749500E+0	1.797804E+0	1.635521E+0	1.948699E+0	1.884064E+0	1.917726E+0	1.902086E+0	1.738808E+0	1.918599E+0	2.034650E+0	2.048623E+0	1.799486E+0	1.895005E+0	2.019746E+0	1.948457E+0	1.838234E+0	1.759567E+0	1.753459E+0	1.665891E+0	1.897931E+0	1.788016E+0	1.949041E+0	1.622498E+0	1.729850E+0	1.711586E+0	2.045500E+0	1.909850E+0	1.857047E+0	1.803200E+0	1.947857E+0	2.034224E+0	1.764191E+0	1.701862E+0	1.764350E+0	1.875284E+0	1.736093E+0	1.487036E+0	1.886038E+0	1.719365E+0	1.663463E+0	1.695074E+0	2.025605E+0	1.997615E+0	1.864813E+0	1.738973E+0	1.955918E+0	2.021233E+0	1.871365E+0	1.639416E+0	1.736721E+0	1.857538E+0	1.871242E+0	1.804548E+0	1.918456E+0	1.840657E+0	1.689855E+0	1.783873E+0	1.945037E+0	1.998326E+0	1.777214E+0	1.839009E+0	1.908157E+0	1.967451E+0	1.747015E+0	1.681870E+0	1.750118E+0	1.739647E+0	1.721393E+0	1.823282E+0	1.820246E+0	1.789183E+0	1.681202E+0	1.861222E+0	1.985563E+0	1.979667E+0	1.715256E+0	1.836258E+0	1.959571E+0	1.964951E+0	1.619434E+0	1.736033E+0	1.729013E+0	1.766711E+0	1.552075E+0	1.865496E+0	1.811776E+0	1.840320E+0	1.697794E+0	1.844848E+0	1.981875E+0	1.922262E+0	1.794413E+0	1.804992E+0	1.959153E+0
5.405130E+2	2.021070E+0	1.579885E+0	1.681127E+0	1.611593E+0	1.940758E+0	1.773286E+0	1.887564E+0	1.926819E+0	1.984290E+0	1.553456E+0	1.852889E+0	1.969441E+0	1.994821E+0	1.626928E+0	1.772719E+0	1.739903E+0	1.883051E+0	1.828955E+0	1.884329E+0	1.863686E+0	1.645359E+0	1.755120E+0	1.925608E+0	1.889042E+0	1.836574E+0	1.866431E+0	1.928576E+0	1.961561E+0	1.950770E+0	1.727833E+0	1.715439E+0	1.772979E+0	2.003944E+0	1.797735E+0	1.769949E+0	1.786255E+0	1.743200E+0	1.792542E+0	1.908435E+0	1.985311E+0	1.840085E+0	1.825498E+0	1.887640E+0	1.925483E+0	1.916686E+0	1.739155E+0	1.735451E+0	1.812982E+0	1.991245E+0	1.762105E+0	1.829236E+0	1.796022E+0	1.758943E+0	1.726967E+0	1.958486E+0	1.915193E+0	1.832912E+0	1.676764E+0	1.899037E+0	1.892305E+0	2.001933E+0	1.634079E+0	1.747608E+0	1.668228E+0	1.908001E+0	1.794947E+0	1.872987E+0	1.840117E+0	1.601683E+0	1.815916E+0	2.029997E+0	1.853901E+0	1.810334E+0	1.760187E+0	1.917416E+0	1.684519E+0	1.918668E+0	1.619867E+0	1.725845E+0	1.530379E+0	1.956562E+0	1.849681E+0	1.758168E+0	1.757628E+0	1.750906E+0	1.848649E+0	1.999830E+0	1.968606E+0	1.785246E+0	1.848121E+0	1.862560E+0	1.920688E+0	1.947923E+0	1.630298E+0	1.707995E+0	1.689794E+0	1.909618E+0	1.767568E+0	1.784010E+0	1.638557E+0	1.745720E+0	1.718849E+0	1.950719E+0	1.892856E+0	1.868475E+0	1.725033E+0	1.924972E+0	1.997858E+0	1.945971E+0	1.645559E+0	1.718445E+0	1.768401E+0	1.871363E+0	1.469928E+0	1.826006E+0	1.696509E+0	1.672613E+0	1.640197E+0	1.908074E+0	1.967651E+0	1.818081E+0	1.766362E+0	1.866379E+0	1.941770E+0	1.813806E+0	1.567595E+0	1.691441E+0	1.756932E+0	1.818481E+0	1.718212E+0	1.828154E+0	1.808080E+0	1.640756E+0	1.741040E+0	1.983437E+0	1.972683E+0	1.710958E+0	1.791189E+0	1.936480E+0	1.928389E+0	1.723646E+0	1.623687E+0	1.748568E+0	1.675491E+0	1.651204E+0	1.733998E+0	1.757177E+0	1.858064E+0	1.676736E+0	1.730804E+0	1.940138E+0	1.904109E+0	1.683342E+0	1.723153E+0	1.853352E+0	1.948324E+0	1.546643E+0	1.638801E+0	1.697525E+0	1.673299E+0	1.735005E+0	1.811512E+0	1.711658E+0	1.780004E+0	1.630000E+0	1.712431E+0	1.892757E+0	1.873516E+0	1.771788E+0	1.732448E+0	1.959151E+0
5.407740E+2	1.963031E+0	1.517123E+0	1.601937E+0	1.578656E+0	1.853298E+0	1.674828E+0	1.873464E+0	1.809799E+0	1.870784E+0	1.420960E+0	1.839261E+0	1.817249E+0	1.841499E+0	1.535070E+0	1.687984E+0	1.675441E+0	1.794358E+0	1.785456E+0	1.771842E+0	1.713904E+0	1.598595E+0	1.704031E+0	1.851722E+0	1.823423E+0	1.767741E+0	1.755322E+0	1.818519E+0	1.861168E+0	1.884035E+0	1.597778E+0	1.592001E+0	1.708578E+0	1.911705E+0	1.728778E+0	1.763242E+0	1.693135E+0	1.747532E+0	1.699030E+0	1.802318E+0	1.833424E+0	1.787710E+0	1.704924E+0	1.770142E+0	1.985714E+0	1.871788E+0	1.580354E+0	1.721563E+0	1.696413E+0	1.915160E+0	1.654869E+0	1.765244E+0	1.710504E+0	1.667748E+0	1.611329E+0	1.931954E+0	1.939819E+0	1.777153E+0	1.624762E+0	1.869361E+0	1.820533E+0	1.904073E+0	1.597794E+0	1.719370E+0	1.687610E+0	1.813905E+0	1.733992E+0	1.762505E+0	1.685317E+0	1.647347E+0	1.688407E+0	1.930310E+0	1.886810E+0	1.780136E+0	1.748233E+0	1.837058E+0	1.591992E+0	1.846021E+0	1.566549E+0	1.735572E+0	1.482723E+0	1.836167E+0	1.705627E+0	1.713164E+0	1.640873E+0	1.648071E+0	1.749462E+0	1.925656E+0	1.872582E+0	1.680432E+0	1.782253E+0	1.852537E+0	1.776951E+0	1.847456E+0	1.568253E+0	1.665529E+0	1.590574E+0	1.828932E+0	1.675853E+0	1.758794E+0	1.578765E+0	1.636079E+0	1.616633E+0	1.867600E+0	1.839831E+0	1.767317E+0	1.682945E+0	1.794711E+0	1.952970E+0	1.953570E+0	1.579110E+0	1.618331E+0	1.727875E+0	1.823349E+0	1.386992E+0	1.852958E+0	1.624926E+0	1.592583E+0	1.576342E+0	1.830824E+0	1.829341E+0	1.712069E+0	1.632314E+0	1.782296E+0	1.856106E+0	1.815463E+0	1.538049E+0	1.597726E+0	1.653416E+0	1.862247E+0	1.675044E+0	1.723226E+0	1.669642E+0	1.580999E+0	1.670149E+0	1.906097E+0	1.889753E+0	1.729027E+0	1.665525E+0	1.815186E+0	1.774483E+0	1.903478E+0	1.592321E+0	1.612622E+0	1.627710E+0	1.741970E+0	1.711677E+0	1.738315E+0	1.715783E+0	1.611202E+0	1.706954E+0	1.840845E+0	1.845677E+0	1.688938E+0	1.746474E+0	1.840299E+0	1.798688E+0	1.821795E+0	1.552887E+0	1.619577E+0	1.625452E+0	1.751116E+0	1.678665E+0	1.690751E+0	1.710102E+0	1.587130E+0	1.686627E+0	1.850565E+0	1.863517E+0	1.639385E+0	1.661076E+0	1.850748E+0
5.410290E+2	1.916492E+0	1.840044E+0	1.563173E+0	1.544628E+0	1.811250E+0	1.687601E+0	1.759003E+0	1.801129E+0	1.864807E+0	1.386435E+0	1.750707E+0	1.806719E+0	1.889379E+0	1.456624E+0	1.538028E+0	1.615676E+0	1.729712E+0	1.744741E+0	1.696663E+0	1.667542E+0	1.560379E+0	1.658567E+0	1.804656E+0	1.852014E+0	1.694432E+0	1.682455E+0	1.722641E+0	1.795162E+0	1.762597E+0	1.583380E+0	1.578171E+0	1.634977E+0	1.814468E+0	1.689925E+0	1.697865E+0	1.690976E+0	1.686381E+0	1.717051E+0	1.831857E+0	1.892676E+0	1.691691E+0	1.714028E+0	1.751461E+0	1.810287E+0	1.800920E+0	1.596727E+0	1.581181E+0	1.625924E+0	1.876593E+0	1.688848E+0	1.744882E+0	1.692259E+0	1.597455E+0	1.591525E+0	1.850236E+0	1.759910E+0	1.734752E+0	1.575911E+0	1.824253E+0	1.787590E+0	1.824830E+0	1.533549E+0	1.611640E+0	1.539025E+0	1.764907E+0	1.692048E+0	1.823751E+0	1.699492E+0	1.536039E+0	1.658115E+0	1.825200E+0	1.795065E+0	1.645114E+0	1.664553E+0	1.790135E+0	1.588068E+0	1.802992E+0	1.482901E+0	1.597490E+0	1.428184E+0	1.845848E+0	1.653459E+0	1.695047E+0	1.666939E+0	1.550780E+0	1.717100E+0	1.847448E+0	1.818270E+0	1.666193E+0	1.682559E+0	1.754958E+0	1.751360E+0	1.825617E+0	1.534124E+0	1.645042E+0	1.617634E+0	1.838392E+0	1.609836E+0	1.691753E+0	1.569351E+0	1.612992E+0	1.557532E+0	1.783972E+0	1.796068E+0	1.797036E+0	1.622269E+0	1.702590E+0	1.912630E+0	1.906904E+0	1.469547E+0	1.561911E+0	1.626562E+0	1.697443E+0	1.342935E+0	1.761071E+0	1.639965E+0	1.582521E+0	1.512989E+0	1.837995E+0	1.752121E+0	1.667046E+0	1.547218E+0	1.767005E+0	1.790922E+0	1.727456E+0	1.439743E+0	1.567717E+0	1.571194E+0	1.750138E+0	1.688161E+0	1.640561E+0	1.674293E+0	1.486504E+0	1.646183E+0	1.806261E+0	1.839012E+0	1.628824E+0	1.634943E+0	1.815802E+0	1.784977E+0	1.839472E+0	1.589284E+0	1.577472E+0	1.601776E+0	1.755886E+0	1.665227E+0	1.685857E+0	1.673444E+0	1.539212E+0	1.615610E+0	1.745774E+0	1.809918E+0	1.652545E+0	1.698083E+0	1.747138E+0	1.782062E+0	1.849672E+0	1.561114E+0	1.551433E+0	1.570772E+0	1.716299E+0	1.641054E+0	1.628587E+0	1.687555E+0	1.580149E+0	1.643787E+0	1.766191E+0	1.746032E+0	1.688827E+0	1.632995E+0	1.834250E+0
5.412850E+2	1.721701E+0	1.688854E+0	1.374898E+0	1.470521E+0	1.690151E+0	1.550826E+0	1.674923E+0	1.646066E+0	1.673039E+0	1.279320E+0	1.582120E+0	1.683489E+0	1.684100E+0	1.394697E+0	1.465192E+0	1.469250E+0	1.590800E+0	1.612568E+0	1.605575E+0	1.548332E+0	1.475396E+0	1.529676E+0	1.643726E+0	1.649534E+0	1.527107E+0	1.570833E+0	1.644918E+0	1.678130E+0	1.677287E+0	1.439920E+0	1.393267E+0	1.536407E+0	1.696118E+0	1.609478E+0	1.544199E+0	1.534341E+0	1.536154E+0	1.545605E+0	1.677062E+0	1.679179E+0	1.572392E+0	1.551375E+0	1.647820E+0	1.659424E+0	1.722478E+0	1.445019E+0	1.420457E+0	1.535106E+0	1.694722E+0	1.494020E+0	1.595372E+0	1.574243E+0	1.465414E+0	1.452855E+0	1.683087E+0	1.664431E+0	1.591870E+0	1.483986E+0	1.630757E+0	1.598754E+0	1.734949E+0	1.459500E+0	1.550977E+0	1.509491E+0	1.645756E+0	1.523164E+0	1.589577E+0	1.536188E+0	1.385726E+0	1.503737E+0	1.708716E+0	1.649466E+0	1.610357E+0	1.486868E+0	1.648775E+0	1.507876E+0	1.607400E+0	1.403658E+0	1.482265E+0	1.380038E+0	1.623207E+0	1.536082E+0	1.537242E+0	1.537691E+0	1.464074E+0	1.582418E+0	1.738457E+0	1.666960E+0	1.538592E+0	1.591170E+0	1.591972E+0	1.626137E+0	1.685352E+0	1.432781E+0	1.481174E+0	1.437686E+0	1.614144E+0	1.445095E+0	1.538184E+0	1.406585E+0	1.463435E+0	1.434003E+0	1.703893E+0	1.608662E+0	1.681018E+0	1.458285E+0	1.671493E+0	1.699557E+0	1.715354E+0	1.375710E+0	1.491112E+0	1.497391E+0	1.623073E+0	1.222679E+0	1.603637E+0	1.466725E+0	1.436641E+0	1.368813E+0	1.719911E+0	1.673165E+0	1.545651E+0	1.474950E+0	1.619044E+0	1.654974E+0	1.684841E+0	1.393897E+0	1.429774E+0	1.484127E+0	1.604448E+0	1.510571E+0	1.553437E+0	1.548649E+0	1.414245E+0	1.526339E+0	1.689980E+0	1.687884E+0	1.528618E+0	1.547644E+0	1.664342E+0	1.583853E+0	1.721613E+0	1.403601E+0	1.444116E+0	1.415213E+0	1.569515E+0	1.505964E+0	1.466589E+0	1.536245E+0	1.472685E+0	1.540504E+0	1.633273E+0	1.664342E+0	1.545036E+0	1.464883E+0	1.601162E+0	1.573375E+0	1.710804E+0	1.454623E+0	1.413084E+0	1.487841E+0	1.619114E+0	1.508818E+0	1.569170E+0	1.516752E+0	1.431100E+0	1.545444E+0	1.614839E+0	1.670417E+0	1.565642E+0	1.510140E+0	1.626867E+0
5.415140E+2	1.546448E+0	1.486317E+0	1.317858E+0	1.272368E+0	1.487198E+0	1.402342E+0	1.440584E+0	1.454885E+0	1.541611E+0	1.172710E+0	1.442478E+0	1.432823E+0	1.545038E+0	1.239873E+0	1.277632E+0	1.355693E+0	1.436929E+0	1.424628E+0	1.420656E+0	1.351171E+0	1.311282E+0	1.405001E+0	1.495950E+0	1.508453E+0	1.383282E+0	1.424068E+0	1.441824E+0	1.481778E+0	1.483089E+0	1.267168E+0	1.309777E+0	1.375188E+0	1.544426E+0	1.364309E+0	1.421269E+0	1.392236E+0	1.326218E+0	1.364905E+0	1.502023E+0	1.501424E+0	1.381518E+0	1.438767E+0	1.500190E+0	1.513234E+0	1.503381E+0	1.324965E+0	1.323231E+0	1.330424E+0	1.513886E+0	1.347501E+0	1.445277E+0	1.411755E+0	1.341924E+0	1.290693E+0	1.512755E+0	1.500612E+0	1.450144E+0	1.331658E+0	1.440824E+0	1.418736E+0	1.487109E+0	1.276583E+0	1.383112E+0	1.307837E+0	1.502105E+0	1.377202E+0	1.476090E+0	1.413140E+0	1.290117E+0	1.427526E+0	1.509878E+0	1.510845E+0	1.392149E+0	1.419488E+0	1.478093E+0	1.286939E+0	1.503455E+0	1.306804E+0	1.311606E+0	1.250817E+0	1.462883E+0	1.371281E+0	1.363654E+0	1.406809E+0	1.294697E+0	1.388750E+0	1.540660E+0	1.482195E+0	1.393335E+0	1.364481E+0	1.456411E+0	1.455173E+0	1.561589E+0	1.305586E+0	1.304813E+0	1.282996E+0	1.444985E+0	1.355715E+0	1.365704E+0	1.247141E+0	1.320610E+0	1.318709E+0	1.475309E+0	1.492304E+0	1.469558E+0	1.374653E+0	1.468470E+0	1.527967E+0	1.561790E+0	1.310278E+0	1.285352E+0	1.407224E+0	1.394692E+0	1.219569E+0	1.465808E+0	1.328976E+0	1.271549E+0	1.270039E+0	1.479336E+0	1.549839E+0	1.402597E+0	1.324576E+0	1.480364E+0	1.506610E+0	1.498864E+0	1.258406E+0	1.283938E+0	1.358367E+0	1.430584E+0	1.354846E+0	1.409723E+0	1.407297E+0	1.260459E+0	1.378957E+0	1.467281E+0	1.530754E+0	1.394464E+0	1.320223E+0	1.517805E+0	1.441605E+0	1.519940E+0	1.264462E+0	1.321612E+0	1.309190E+0	1.485406E+0	1.347905E+0	1.384661E+0	1.383806E+0	1.271120E+0	1.417188E+0	1.493312E+0	1.545971E+0	1.339541E+0	1.368106E+0	1.458751E+0	1.473618E+0	1.530124E+0	1.291543E+0	1.297451E+0	1.319697E+0	1.463725E+0	1.404481E+0	1.334813E+0	1.420357E+0	1.316446E+0	1.375540E+0	1.504622E+0	1.531684E+0	1.443296E+0	1.333463E+0	1.586802E+0
5.417760E+2	1.282130E+0	1.263241E+0	1.091371E+0	1.100011E+0	1.247244E+0	1.194254E+0	1.224685E+0	1.290193E+0	1.292493E+0	1.021931E+0	1.190445E+0	1.253246E+0	1.315307E+0	1.178975E+0	1.118156E+0	1.134985E+0	1.269702E+0	1.315877E+0	1.302678E+0	1.181520E+0	1.106696E+0	1.154249E+0	1.236842E+0	1.253945E+0	1.133693E+0	1.236995E+0	1.235889E+0	1.228300E+0	1.252758E+0	1.177318E+0	1.090044E+0	1.141681E+0	1.263823E+0	1.235154E+0	1.148022E+0	1.168318E+0	1.177915E+0	1.173492E+0	1.260802E+0	1.341543E+0	1.204609E+0	1.237439E+0	1.213972E+0	1.285181E+0	1.239923E+0	1.145430E+0	1.174412E+0	1.104057E+0	1.260617E+0	1.150552E+0	1.222464E+0	1.177427E+0	1.117267E+0	1.073709E+0	1.322255E+0	1.303121E+0	1.170184E+0	1.126275E+0	1.250298E+0	1.216370E+0	1.248316E+0	1.134369E+0	1.165566E+0	1.156477E+0	1.266586E+0	1.201605E+0	1.261134E+0	1.155141E+0	1.062742E+0	1.166154E+0	1.296954E+0	1.266517E+0	1.238319E+0	1.206486E+0	1.212974E+0	1.113105E+0	1.297245E+0	1.093527E+0	1.160884E+0	1.044956E+0	1.254160E+0	1.154902E+0	1.181301E+0	1.186326E+0	1.124815E+0	1.208651E+0	1.322176E+0	1.262022E+0	1.219594E+0	1.244610E+0	1.307142E+0	1.220509E+0	1.279605E+0	1.076526E+0	1.099472E+0	1.121992E+0	1.279165E+0	1.185131E+0	1.200673E+0	1.108732E+0	1.175381E+0	1.086664E+0	1.261424E+0	1.201925E+0	1.242093E+0	1.140700E+0	1.236113E+0	1.287620E+0	1.330628E+0	1.077455E+0	1.074062E+0	1.197507E+0	1.240093E+0	1.221642E+0	1.226288E+0	1.099192E+0	1.073078E+0	1.093438E+0	1.277382E+0	1.225966E+0	1.215092E+0	1.121170E+0	1.283805E+0	1.296171E+0	1.313997E+0	1.012378E+0	1.095980E+0	1.117487E+0	1.230340E+0	1.169610E+0	1.182698E+0	1.165897E+0	1.045997E+0	1.170382E+0	1.288466E+0	1.234498E+0	1.168320E+0	1.161196E+0	1.190252E+0	1.269044E+0	1.273051E+0	1.046903E+0	1.118989E+0	1.097147E+0	1.227637E+0	1.154859E+0	1.190738E+0	1.150068E+0	1.109769E+0	1.177665E+0	1.331690E+0	1.282530E+0	1.144686E+0	1.157061E+0	1.264711E+0	1.207599E+0	1.308143E+0	1.100165E+0	1.127095E+0	1.106902E+0	1.307295E+0	1.150315E+0	1.180225E+0	1.170634E+0	1.120038E+0	1.164744E+0	1.294208E+0	1.292339E+0	1.172626E+0	1.174337E+0	1.381775E+0
5.420320E+2	1.133308E+0	1.066410E+0	9.723121E-1	9.364359E-1	1.126145E+0	1.001597E+0	1.065746E+0	1.081192E+0	1.138957E+0	8.919689E-1	1.080889E+0	1.113696E+0	1.140589E+0	1.113949E+0	9.577274E-1	9.761784E-1	1.089651E+0	1.131281E+0	1.060689E+0	1.045495E+0	9.888934E-1	1.037075E+0	1.113359E+0	1.119426E+0	1.022329E+0	1.104183E+0	1.079878E+0	1.091296E+0	1.106735E+0	1.138100E+0	9.584095E-1	9.765182E-1	1.144913E+0	1.098342E+0	1.008326E+0	1.013295E+0	1.013241E+0	1.090204E+0	1.173832E+0	1.146860E+0	1.082984E+0	1.077630E+0	1.054291E+0	1.127301E+0	1.120909E+0	1.130150E+0	1.001290E+0	1.024084E+0	1.149616E+0	1.103306E+0	1.025248E+0	1.075372E+0	9.880774E-1	1.007830E+0	1.114246E+0	1.115681E+0	1.102227E+0	1.058516E+0	1.122091E+0	1.104596E+0	1.131311E+0	1.025009E+0	1.013387E+0	9.603613E-1	1.055567E+0	1.083046E+0	1.034766E+0	1.024723E+0	9.580913E-1	1.028384E+0	1.169093E+0	1.088009E+0	1.038913E+0	1.001087E+0	1.130858E+0	9.454387E-1	1.102210E+0	9.624318E-1	1.027665E+0	8.921551E-1	1.075685E+0	1.047010E+0	1.036354E+0	1.024492E+0	9.599743E-1	1.047347E+0	1.151124E+0	1.111200E+0	1.027627E+0	1.006053E+0	1.111981E+0	1.072414E+0	1.215056E+0	9.638057E-1	9.920565E-1	9.411449E-1	1.041566E+0	9.736530E-1	1.039080E+0	9.155162E-1	9.863904E-1	1.030955E+0	1.131167E+0	1.089172E+0	1.095215E+0	1.016071E+0	1.087076E+0	1.134207E+0	1.181403E+0	9.415159E-1	1.029813E+0	1.088597E+0	1.092524E+0	9.920178E-1	1.040062E+0	9.969326E-1	9.948787E-1	9.851834E-1	1.096949E+0	1.122232E+0	1.012767E+0	1.033163E+0	1.087249E+0	1.156496E+0	1.072120E+0	9.268032E-1	9.964727E-1	9.897949E-1	1.061272E+0	1.017704E+0	1.074593E+0	1.036181E+0	9.848542E-1	1.053598E+0	1.135978E+0	1.184847E+0	1.031977E+0	1.003836E+0	1.077578E+0	1.123883E+0	1.156720E+0	9.725268E-1	9.970021E-1	9.510833E-1	1.091490E+0	1.049287E+0	1.108809E+0	1.058040E+0	1.022888E+0	1.060947E+0	1.129929E+0	1.121849E+0	1.053417E+0	9.874079E-1	1.096782E+0	1.095802E+0	1.146560E+0	9.900712E-1	9.706784E-1	1.027158E+0	1.104616E+0	1.031422E+0	1.056994E+0	1.038163E+0	9.904288E-1	1.040602E+0	1.107000E+0	1.160480E+0	1.082123E+0	1.047972E+0	1.134329E+0
5.422780E+2	1.018388E+0	1.031607E+0	8.748504E-1	8.442199E-1	1.014016E+0	9.787120E-1	1.003363E+0	1.024849E+0	1.076827E+0	8.026197E-1	9.747397E-1	1.025225E+0	1.016300E+0	1.007121E+0	8.525203E-1	9.189727E-1	9.950849E-1	1.027550E+0	9.630160E-1	9.099788E-1	8.499570E-1	9.498964E-1	1.003036E+0	1.053339E+0	9.697251E-1	9.941086E-1	9.675499E-1	1.030285E+0	9.973405E-1	1.018963E+0	9.036042E-1	9.357757E-1	1.016003E+0	1.016801E+0	9.898862E-1	9.696950E-1	9.102003E-1	9.533397E-1	9.862164E-1	1.064095E+0	9.869648E-1	9.718482E-1	9.693292E-1	1.039003E+0	1.018664E+0	1.042292E+0	9.025748E-1	8.916949E-1	1.046954E+0	9.557269E-1	9.304227E-1	8.934985E-1	9.192094E-1	9.216827E-1	9.911385E-1	1.042815E+0	9.727004E-1	9.676431E-1	1.022377E+0	9.622320E-1	9.935646E-1	1.045116E+0	9.260551E-1	8.736077E-1	1.007683E+0	1.026004E+0	9.957365E-1	9.765250E-1	8.686652E-1	9.228589E-1	1.014682E+0	1.048118E+0	1.005868E+0	9.733742E-1	1.006511E+0	8.602027E-1	1.001062E+0	1.045101E+0	9.532763E-1	8.268098E-1	9.746506E-1	1.033376E+0	9.977793E-1	9.039316E-1	8.752854E-1	9.961891E-1	1.054242E+0	1.027787E+0	9.478777E-1	1.020888E+0	1.037608E+0	9.967330E-1	1.053922E+0	9.875906E-1	8.806439E-1	8.671828E-1	1.020978E+0	1.040251E+0	9.834971E-1	8.352402E-1	9.609037E-1	9.171129E-1	1.039938E+0	1.029449E+0	1.024346E+0	9.116666E-1	9.779378E-1	1.070001E+0	1.064737E+0	9.496312E-1	9.075740E-1	9.888045E-1	9.648641E-1	9.780224E-1	9.824802E-1	9.385840E-1	8.613434E-1	9.298087E-1	1.057220E+0	9.977527E-1	9.700219E-1	8.903695E-1	1.032104E+0	1.069588E+0	1.057730E+0	8.172879E-1	8.343136E-1	9.525502E-1	1.033694E+0	9.504948E-1	9.938311E-1	9.669601E-1	8.857272E-1	9.215160E-1	1.010367E+0	1.034263E+0	9.334160E-1	9.460085E-1	9.975374E-1	1.048679E+0	1.052578E+0	8.657708E-1	8.998261E-1	8.887455E-1	9.662359E-1	9.316494E-1	9.196023E-1	9.287491E-1	9.057214E-1	9.609755E-1	1.040141E+0	1.072485E+0	9.744666E-1	9.191965E-1	9.941257E-1	1.060256E+0	1.044344E+0	8.686592E-1	8.596898E-1	8.781537E-1	1.054724E+0	9.361858E-1	8.985551E-1	9.209115E-1	9.076783E-1	9.373936E-1	1.013659E+0	1.057368E+0	9.589388E-1	9.847887E-1	1.016497E+0
5.425400E+2	1.080445E+0	1.017915E+0	8.371941E-1	8.453180E-1	1.010653E+0	9.276208E-1	1.003906E+0	1.035444E+0	9.830338E-1	8.371409E-1	9.594136E-1	9.957348E-1	1.030054E+0	9.477731E-1	8.610897E-1	9.112899E-1	9.961531E-1	1.014723E+0	9.476521E-1	9.970962E-1	8.710894E-1	8.964648E-1	9.964571E-1	9.703769E-1	9.204782E-1	9.589676E-1	9.930788E-1	1.049697E+0	9.747591E-1	9.742859E-1	8.877261E-1	9.068594E-1	9.959996E-1	1.016801E+0	9.490953E-1	9.373989E-1	9.236820E-1	9.470078E-1	1.001532E+0	9.921458E-1	9.817270E-1	9.695734E-1	9.608937E-1	1.008596E+0	1.034352E+0	1.015007E+0	9.075349E-1	9.459153E-1	1.022982E+0	1.010405E+0	9.374032E-1	9.442408E-1	9.025856E-1	9.332000E-1	9.752194E-1	9.920600E-1	9.599227E-1	9.335005E-1	9.885443E-1	1.008118E+0	1.015902E+0	1.008338E+0	9.030453E-1	9.137543E-1	1.037750E+0	1.057321E+0	9.507037E-1	8.886350E-1	8.634330E-1	9.594992E-1	1.045023E+0	9.822984E-1	9.363610E-1	9.842420E-1	9.384713E-1	8.585206E-1	9.591490E-1	1.008903E+0	8.827769E-1	8.174742E-1	1.010346E+0	1.031004E+0	9.679714E-1	9.071898E-1	8.788140E-1	9.909686E-1	1.037591E+0	1.018574E+0	9.159783E-1	1.023856E+0	1.013345E+0	9.684213E-1	1.045671E+0	1.053775E+0	8.986298E-1	8.513979E-1	1.022091E+0	9.771580E-1	9.336436E-1	8.579388E-1	9.209893E-1	8.754517E-1	1.018652E+0	9.645781E-1	9.917701E-1	1.017164E+0	9.820451E-1	1.009204E+0	1.018070E+0	1.030790E+0	8.738337E-1	9.300434E-1	1.009955E+0	9.629903E-1	1.008208E+0	8.140673E-1	8.558554E-1	9.118499E-1	9.595541E-1	1.035212E+0	9.660324E-1	9.399104E-1	9.775051E-1	1.032962E+0	1.021199E+0	1.032753E+0	9.048634E-1	9.167568E-1	9.551549E-1	1.011693E+0	9.213369E-1	9.163527E-1	8.463547E-1	9.633333E-1	1.010916E+0	1.024443E+0	9.372491E-1	9.504568E-1	1.046177E+0	1.014866E+0	1.059690E+0	9.209195E-1	8.315958E-1	8.746398E-1	9.819678E-1	9.738782E-1	9.773663E-1	9.575431E-1	8.491239E-1	9.772146E-1	1.013204E+0	1.047802E+0	9.229534E-1	9.098680E-1	9.769170E-1	1.006938E+0	1.073254E+0	8.588849E-1	8.633030E-1	8.590152E-1	9.944393E-1	9.367920E-1	8.980048E-1	9.440242E-1	8.932219E-1	8.930918E-1	1.024733E+0	1.004874E+0	9.564243E-1	8.724653E-1	1.016496E+0
5.427650E+2	1.064355E+0	1.091513E+0	9.357636E-1	9.117358E-1	1.051579E+0	1.019159E+0	1.042962E+0	1.101417E+0	1.103710E+0	8.493245E-1	1.026963E+0	1.049449E+0	1.042788E+0	1.039118E+0	9.134544E-1	8.967749E-1	1.033018E+0	1.107858E+0	9.613695E-1	9.711140E-1	9.601174E-1	9.456779E-1	1.056174E+0	1.095990E+0	1.026246E+0	1.076793E+0	1.029954E+0	1.028066E+0	1.037988E+0	1.046762E+0	9.358730E-1	9.681953E-1	1.054898E+0	1.074810E+0	9.815044E-1	1.017063E+0	9.785733E-1	9.913301E-1	1.054042E+0	9.968489E-1	1.009078E+0	1.028152E+0	9.946374E-1	1.092800E+0	1.080337E+0	1.117053E+0	9.308496E-1	9.789006E-1	1.074574E+0	1.086849E+0	9.949971E-1	1.009236E+0	9.790533E-1	9.295140E-1	1.077101E+0	1.051860E+0	1.014521E+0	9.744717E-1	1.028312E+0	1.031061E+0	1.136629E+0	1.099059E+0	9.767811E-1	9.114472E-1	1.000446E+0	1.037748E+0	1.032964E+0	9.872986E-1	9.381142E-1	9.697587E-1	1.159340E+0	1.073049E+0	1.004729E+0	1.048360E+0	1.020001E+0	8.988953E-1	1.097182E+0	1.059286E+0	9.396628E-1	8.214050E-1	1.079920E+0	1.093250E+0	9.866742E-1	9.642116E-1	8.904085E-1	1.022813E+0	1.160711E+0	1.074344E+0	9.860436E-1	1.084385E+0	1.071366E+0	1.097459E+0	1.059260E+0	1.101344E+0	9.091205E-1	8.955955E-1	1.112234E+0	1.040251E+0	9.743283E-1	9.321248E-1	9.844673E-1	9.936536E-1	1.089609E+0	1.070124E+0	1.042636E+0	1.014978E+0	1.019598E+0	1.085343E+0	1.081558E+0	1.059702E+0	9.645453E-1	9.969099E-1	1.037478E+0	1.063030E+0	1.020460E+0	9.644496E-1	9.066171E-1	9.422811E-1	1.056116E+0	1.006973E+0	1.011626E+0	1.019758E+0	1.008081E+0	1.079521E+0	1.082637E+0	1.072993E+0	9.306607E-1	9.593217E-1	1.026500E+0	1.014971E+0	1.077772E+0	9.803387E-1	9.005501E-1	1.005661E+0	1.030114E+0	1.082276E+0	9.525808E-1	1.062221E+0	1.067111E+0	1.097649E+0	1.067310E+0	1.130890E+0	9.489304E-1	9.674661E-1	1.030981E+0	1.107804E+0	1.032772E+0	1.028681E+0	8.933096E-1	1.044708E+0	1.082923E+0	1.046291E+0	9.711075E-1	1.010144E+0	1.054651E+0	1.077456E+0	1.097517E+0	1.103250E+0	9.515781E-1	9.688322E-1	1.065118E+0	1.145463E+0	9.854763E-1	9.564256E-1	9.585251E-1	1.018695E+0	1.054264E+0	1.061117E+0	1.020949E+0	1.002339E+0	1.028279E+0
5.430170E+2	1.243632E+0	1.183367E+0	1.043193E+0	1.039082E+0	1.179967E+0	1.078765E+0	1.184543E+0	1.188100E+0	1.199296E+0	9.828409E-1	1.170578E+0	1.167410E+0	1.226165E+0	1.171749E+0	1.043892E+0	1.034237E+0	1.141475E+0	1.199877E+0	1.116660E+0	1.143819E+0	1.015423E+0	1.103162E+0	1.158402E+0	1.193481E+0	1.100116E+0	1.167229E+0	1.155330E+0	1.175605E+0	1.210608E+0	1.193700E+0	1.029605E+0	1.088233E+0	1.171584E+0	1.196301E+0	1.088791E+0	1.141404E+0	1.067653E+0	1.127706E+0	1.214309E+0	1.211281E+0	1.117900E+0	1.180568E+0	1.141664E+0	1.254191E+0	1.229644E+0	1.218010E+0	1.089589E+0	1.062036E+0	1.203295E+0	1.182936E+0	1.119493E+0	1.113571E+0	1.043649E+0	1.052518E+0	1.189596E+0	1.218196E+0	1.130687E+0	1.127327E+0	1.156517E+0	1.161660E+0	1.243531E+0	1.233917E+0	1.110655E+0	1.045730E+0	1.189751E+0	1.188181E+0	1.124232E+0	1.108643E+0	1.044668E+0	1.143679E+0	1.182096E+0	1.216655E+0	1.119816E+0	1.142366E+0	1.160772E+0	1.026748E+0	1.189950E+0	1.211417E+0	1.096219E+0	9.751882E-1	1.164619E+0	1.191064E+0	1.140973E+0	1.117358E+0	1.078943E+0	1.151229E+0	1.242958E+0	1.210619E+0	1.141555E+0	1.213753E+0	1.239626E+0	1.187842E+0	1.155359E+0	1.239916E+0	1.082486E+0	1.019618E+0	1.189580E+0	1.178120E+0	1.104978E+0	9.703257E-1	1.082569E+0	1.068741E+0	1.186413E+0	1.247233E+0	1.148938E+0	1.120474E+0	1.193867E+0	1.200686E+0	1.222099E+0	1.210352E+0	1.049725E+0	1.126083E+0	1.174507E+0	1.174991E+0	1.137464E+0	1.081748E+0	1.039236E+0	1.085954E+0	1.181372E+0	1.230572E+0	1.091417E+0	1.157889E+0	1.170785E+0	1.198088E+0	1.191676E+0	1.205430E+0	1.047542E+0	1.108782E+0	1.142808E+0	1.184908E+0	1.164893E+0	1.130996E+0	1.045071E+0	1.113776E+0	1.196316E+0	1.235587E+0	1.085092E+0	1.150631E+0	1.153309E+0	1.189176E+0	1.214631E+0	1.253330E+0	1.035769E+0	1.066660E+0	1.122955E+0	1.213376E+0	1.078747E+0	1.125226E+0	1.027852E+0	1.150261E+0	1.179578E+0	1.273968E+0	1.116130E+0	1.204867E+0	1.204185E+0	1.201866E+0	1.221931E+0	1.202026E+0	1.024882E+0	1.047208E+0	1.118648E+0	1.191564E+0	1.087801E+0	1.093406E+0	1.004387E+0	1.162311E+0	1.180301E+0	1.213598E+0	1.162570E+0	1.119344E+0	1.148469E+0
5.432800E+2	1.373493E+0	1.368787E+0	1.174989E+0	1.178505E+0	1.366660E+0	1.272485E+0	1.315276E+0	1.372057E+0	1.386881E+0	1.097574E+0	1.280699E+0	1.389115E+0	1.412599E+0	1.359602E+0	1.189562E+0	1.175969E+0	1.310306E+0	1.419608E+0	1.227503E+0	1.257939E+0	1.188530E+0	1.274705E+0	1.357288E+0	1.326125E+0	1.241141E+0	1.379625E+0	1.288648E+0	1.318708E+0	1.361150E+0	1.368931E+0	1.209389E+0	1.221413E+0	1.365507E+0	1.370329E+0	1.291628E+0	1.286736E+0	1.252065E+0	1.276747E+0	1.377313E+0	1.413021E+0	1.315758E+0	1.368814E+0	1.277845E+0	1.377572E+0	1.319991E+0	1.369165E+0	1.173422E+0	1.272141E+0	1.412786E+0	1.353340E+0	1.344632E+0	1.277769E+0	1.188988E+0	1.211918E+0	1.375319E+0	1.387545E+0	1.293901E+0	1.231857E+0	1.402837E+0	1.314023E+0	1.382339E+0	1.354065E+0	1.282184E+0	1.216468E+0	1.294426E+0	1.373289E+0	1.313974E+0	1.260608E+0	1.168818E+0	1.231128E+0	1.444322E+0	1.342307E+0	1.279909E+0	1.304293E+0	1.397738E+0	1.170863E+0	1.391129E+0	1.346913E+0	1.236731E+0	1.107845E+0	1.375157E+0	1.398548E+0	1.317483E+0	1.188498E+0	1.180772E+0	1.281736E+0	1.369101E+0	1.375017E+0	1.225291E+0	1.320568E+0	1.329295E+0	1.317966E+0	1.405794E+0	1.337644E+0	1.195895E+0	1.150407E+0	1.345940E+0	1.342861E+0	1.267716E+0	1.143058E+0	1.237417E+0	1.226665E+0	1.342013E+0	1.398084E+0	1.300390E+0	1.266969E+0	1.344664E+0	1.331368E+0	1.440779E+0	1.384840E+0	1.175283E+0	1.281597E+0	1.276988E+0	1.350708E+0	1.341455E+0	1.225513E+0	1.111949E+0	1.208178E+0	1.388290E+0	1.379836E+0	1.274364E+0	1.275622E+0	1.341135E+0	1.349555E+0	1.313444E+0	1.355185E+0	1.213915E+0	1.216163E+0	1.290294E+0	1.377794E+0	1.252014E+0	1.253733E+0	1.163651E+0	1.220867E+0	1.367453E+0	1.391083E+0	1.258671E+0	1.321335E+0	1.304156E+0	1.384472E+0	1.399035E+0	1.375769E+0	1.184117E+0	1.240480E+0	1.319612E+0	1.402801E+0	1.205474E+0	1.277101E+0	1.211050E+0	1.290323E+0	1.381339E+0	1.343985E+0	1.285789E+0	1.322048E+0	1.315741E+0	1.339460E+0	1.388158E+0	1.380543E+0	1.216918E+0	1.178440E+0	1.297420E+0	1.382644E+0	1.240189E+0	1.227570E+0	1.214252E+0	1.300569E+0	1.364875E+0	1.320460E+0	1.299163E+0	1.284321E+0	1.348781E+0
5.435540E+2	1.617696E+0	1.485177E+0	1.245316E+0	1.334396E+0	1.514673E+0	1.383184E+0	1.525208E+0	1.494855E+0	1.573872E+0	1.204691E+0	1.394797E+0	1.484958E+0	1.605144E+0	1.464365E+0	1.331899E+0	1.275436E+0	1.440136E+0	1.567397E+0	1.408035E+0	1.429118E+0	1.288797E+0	1.403130E+0	1.505567E+0	1.469547E+0	1.377686E+0	1.429234E+0	1.487209E+0	1.518386E+0	1.533770E+0	1.511897E+0	1.306707E+0	1.347588E+0	1.511084E+0	1.568436E+0	1.354212E+0	1.363708E+0	1.357998E+0	1.395104E+0	1.528827E+0	1.525408E+0	1.409452E+0	1.454693E+0	1.444151E+0	1.519666E+0	1.534759E+0	1.524692E+0	1.273625E+0	1.435703E+0	1.548804E+0	1.531708E+0	1.416770E+0	1.467056E+0	1.371375E+0	1.422911E+0	1.463403E+0	1.528248E+0	1.414715E+0	1.415176E+0	1.458630E+0	1.471098E+0	1.479134E+0	1.498240E+0	1.389910E+0	1.311526E+0	1.431952E+0	1.544411E+0	1.426856E+0	1.425615E+0	1.274417E+0	1.427034E+0	1.508794E+0	1.444526E+0	1.379047E+0	1.524362E+0	1.452872E+0	1.277408E+0	1.476632E+0	1.501981E+0	1.313064E+0	1.200704E+0	1.471960E+0	1.527191E+0	1.403398E+0	1.338383E+0	1.348638E+0	1.438340E+0	1.490203E+0	1.545236E+0	1.404727E+0	1.508686E+0	1.546083E+0	1.406715E+0	1.443654E+0	1.539295E+0	1.337285E+0	1.302842E+0	1.469469E+0	1.410628E+0	1.408107E+0	1.331845E+0	1.341289E+0	1.359399E+0	1.538664E+0	1.450601E+0	1.487847E+0	1.369186E+0	1.458496E+0	1.501259E+0	1.546049E+0	1.485779E+0	1.327946E+0	1.351501E+0	1.500684E+0	1.460083E+0	1.443755E+0	1.353036E+0	1.298989E+0	1.333394E+0	1.577001E+0	1.508924E+0	1.437933E+0	1.386358E+0	1.464527E+0	1.547583E+0	1.531521E+0	1.541106E+0	1.314474E+0	1.396093E+0	1.456363E+0	1.508934E+0	1.391916E+0	1.407880E+0	1.300760E+0	1.449337E+0	1.514455E+0	1.523117E+0	1.398847E+0	1.454785E+0	1.510417E+0	1.453849E+0	1.483871E+0	1.549313E+0	1.291114E+0	1.375623E+0	1.447891E+0	1.533713E+0	1.386429E+0	1.382679E+0	1.272114E+0	1.362888E+0	1.522358E+0	1.524816E+0	1.405054E+0	1.447978E+0	1.498507E+0	1.492536E+0	1.531155E+0	1.492694E+0	1.307775E+0	1.368457E+0	1.479317E+0	1.533081E+0	1.422836E+0	1.321707E+0	1.273077E+0	1.440776E+0	1.478255E+0	1.504812E+0	1.390503E+0	1.363884E+0	1.454833E+0
5.437640E+2	1.670562E+0	1.598709E+0	1.352191E+0	1.357447E+0	1.591476E+0	1.468866E+0	1.608201E+0	1.601280E+0	1.623452E+0	1.286426E+0	1.661586E+0	1.633457E+0	1.644878E+0	1.589773E+0	1.651328E+0	1.423572E+0	1.607363E+0	1.656628E+0	1.649473E+0	1.493310E+0	1.422341E+0	1.471090E+0	1.642207E+0	1.618597E+0	1.507517E+0	1.556879E+0	1.671582E+0	1.591604E+0	1.623596E+0	1.695569E+0	1.495704E+0	1.440463E+0	1.612215E+0	1.636842E+0	1.601754E+0	1.544567E+0	1.430704E+0	1.506640E+0	1.608685E+0	1.655198E+0	1.469391E+0	1.587773E+0	1.499588E+0	1.648313E+0	1.626724E+0	1.685130E+0	1.412024E+0	1.449711E+0	1.656157E+0	1.658056E+0	1.543013E+0	1.457366E+0	1.434546E+0	1.451015E+0	1.640635E+0	1.662926E+0	1.568055E+0	1.499223E+0	1.585054E+0	1.593461E+0	1.643473E+0	1.641929E+0	1.466261E+0	1.423199E+0	1.615691E+0	1.651225E+0	1.526529E+0	1.484586E+0	1.354331E+0	1.538423E+0	1.664831E+0	1.579653E+0	1.496411E+0	1.548269E+0	1.624727E+0	1.399090E+0	1.583369E+0	1.603728E+0	1.429753E+0	1.316655E+0	1.572388E+0	1.638638E+0	1.482301E+0	1.477409E+0	1.403583E+0	1.508289E+0	1.686483E+0	1.619920E+0	1.484479E+0	1.614315E+0	1.529730E+0	1.528676E+0	1.679531E+0	1.689243E+0	1.448701E+0	1.402511E+0	1.609138E+0	1.582966E+0	1.492914E+0	1.554958E+0	1.458146E+0	1.485837E+0	1.608605E+0	1.617929E+0	1.548996E+0	1.490534E+0	1.589343E+0	1.614330E+0	1.733802E+0	1.605489E+0	1.408699E+0	1.501948E+0	1.518250E+0	1.540941E+0	1.560756E+0	1.484768E+0	1.342891E+0	1.465094E+0	1.603487E+0	1.639740E+0	1.464721E+0	1.540225E+0	1.573729E+0	1.620211E+0	1.579677E+0	1.601720E+0	1.415033E+0	1.468165E+0	1.585264E+0	1.629693E+0	1.521645E+0	1.531780E+0	1.347079E+0	1.477896E+0	1.598373E+0	1.597863E+0	1.464006E+0	1.522623E+0	1.608310E+0	1.587931E+0	1.630683E+0	1.676814E+0	1.385706E+0	1.450251E+0	1.548334E+0	1.681516E+0	1.499009E+0	1.500115E+0	1.425522E+0	1.501935E+0	1.616372E+0	1.642682E+0	1.464967E+0	1.509773E+0	1.525210E+0	1.592867E+0	1.645242E+0	1.653202E+0	1.402760E+0	1.419493E+0	1.549477E+0	1.683517E+0	1.489403E+0	1.475603E+0	1.403682E+0	1.505039E+0	1.535737E+0	1.596673E+0	1.486033E+0	1.574493E+0	1.730558E+0
5.440170E+2	1.699291E+0	1.652913E+0	1.394277E+0	1.429357E+0	1.690713E+0	1.559870E+0	1.665705E+0	1.681224E+0	1.753689E+0	1.327545E+0	1.716082E+0	1.718774E+0	1.761526E+0	1.665633E+0	1.739874E+0	1.481201E+0	1.657050E+0	1.700687E+0	1.688433E+0	1.574822E+0	1.450217E+0	1.600919E+0	1.708501E+0	1.660782E+0	1.593139E+0	1.687108E+0	1.751009E+0	1.651507E+0	1.685315E+0	1.673728E+0	1.731829E+0	1.455796E+0	1.676669E+0	1.644502E+0	1.745922E+0	1.558026E+0	1.545781E+0	1.581647E+0	1.693469E+0	1.703163E+0	1.600909E+0	1.611089E+0	1.700844E+0	1.719066E+0	1.710576E+0	1.696588E+0	1.747853E+0	1.507996E+0	1.746313E+0	1.688846E+0	1.694269E+0	1.544597E+0	1.457815E+0	1.512285E+0	1.691048E+0	1.737299E+0	1.613357E+0	1.573284E+0	1.666963E+0	1.596400E+0	1.697722E+0	1.662036E+0	1.621576E+0	1.467039E+0	1.646314E+0	1.669682E+0	1.634609E+0	1.578148E+0	1.398571E+0	1.556989E+0	1.707633E+0	1.623036E+0	1.531166E+0	1.639560E+0	1.679279E+0	1.454044E+0	1.633106E+0	1.652644E+0	1.495387E+0	1.331395E+0	1.671001E+0	1.668874E+0	1.560618E+0	1.545834E+0	1.498353E+0	1.630442E+0	1.707677E+0	1.684420E+0	1.577899E+0	1.721723E+0	1.673730E+0	1.654989E+0	1.729034E+0	1.679937E+0	1.490667E+0	1.442200E+0	1.697613E+0	1.615681E+0	1.530732E+0	1.540562E+0	1.483634E+0	1.537187E+0	1.696289E+0	1.697216E+0	1.590718E+0	1.592207E+0	1.679707E+0	1.740467E+0	1.686592E+0	1.671430E+0	1.485029E+0	1.563752E+0	1.600234E+0	1.674672E+0	1.594448E+0	1.472742E+0	1.405544E+0	1.523963E+0	1.681840E+0	1.677200E+0	1.502336E+0	1.579858E+0	1.550795E+0	1.668010E+0	1.645539E+0	1.715312E+0	1.437146E+0	1.498634E+0	1.623035E+0	1.653735E+0	1.607490E+0	1.574243E+0	1.443426E+0	1.575297E+0	1.692173E+0	1.718437E+0	1.591043E+0	1.654401E+0	1.634787E+0	1.671299E+0	1.645924E+0	1.693002E+0	1.477197E+0	1.457984E+0	1.599771E+0	1.692371E+0	1.544985E+0	1.483738E+0	1.400698E+0	1.595310E+0	1.711972E+0	1.703130E+0	1.577516E+0	1.656692E+0	1.585735E+0	1.597457E+0	1.667961E+0	1.649091E+0	1.432185E+0	1.510623E+0	1.631585E+0	1.742966E+0	1.546615E+0	1.596234E+0	1.437582E+0	1.604351E+0	1.618002E+0	1.659794E+0	1.502794E+0	1.594383E+0	1.711706E+0
5.442700E+2	1.751583E+0	1.645492E+0	1.479005E+0	1.459546E+0	1.712018E+0	1.551357E+0	1.657566E+0	1.698556E+0	1.717843E+0	1.394053E+0	1.763766E+0	1.677695E+0	1.755411E+0	1.604222E+0	1.735112E+0	1.489313E+0	1.666132E+0	1.780438E+0	1.753733E+0	1.583486E+0	1.514514E+0	1.580762E+0	1.716091E+0	1.672499E+0	1.603212E+0	1.663853E+0	1.715267E+0	1.675914E+0	1.717935E+0	1.705496E+0	1.734903E+0	1.548672E+0	1.723343E+0	1.759424E+0	1.733627E+0	1.554796E+0	1.506782E+0	1.594799E+0	1.714800E+0	1.705986E+0	1.610219E+0	1.656590E+0	1.741824E+0	1.735441E+0	1.710576E+0	1.706959E+0	1.777120E+0	1.575770E+0	1.705145E+0	1.650622E+0	1.721610E+0	1.575381E+0	1.524786E+0	1.537161E+0	1.729780E+0	1.667449E+0	1.643560E+0	1.552802E+0	1.672900E+0	1.670522E+0	1.764199E+0	1.690476E+0	1.782647E+0	1.480880E+0	1.663571E+0	1.695963E+0	1.754699E+0	1.543557E+0	1.470395E+0	1.579461E+0	1.700587E+0	1.657939E+0	1.568200E+0	1.627601E+0	1.689835E+0	1.460211E+0	1.644281E+0	1.692264E+0	1.760367E+0	1.324024E+0	1.605664E+0	1.699699E+0	1.707321E+0	1.562124E+0	1.485246E+0	1.611129E+0	1.738960E+0	1.711579E+0	1.553972E+0	1.641020E+0	1.639970E+0	1.646278E+0	1.730485E+0	1.748710E+0	1.657534E+0	1.447611E+0	1.703175E+0	1.653068E+0	1.625854E+0	1.547760E+0	1.510563E+0	1.539610E+0	1.729743E+0	1.719351E+0	1.645584E+0	1.563235E+0	1.619855E+0	1.658647E+0	1.792407E+0	1.678024E+0	1.505492E+0	1.565779E+0	1.679875E+0	1.677264E+0	1.674698E+0	1.445674E+0	1.457676E+0	1.538430E+0	1.704464E+0	1.644353E+0	1.537101E+0	1.558294E+0	1.641431E+0	1.712707E+0	1.672108E+0	1.697483E+0	1.491373E+0	1.481225E+0	1.629632E+0	1.676682E+0	1.594776E+0	1.638227E+0	1.442038E+0	1.554390E+0	1.707532E+0	1.697159E+0	1.549430E+0	1.658854E+0	1.645870E+0	1.640985E+0	1.711456E+0	1.697559E+0	1.464790E+0	1.468906E+0	1.669356E+0	1.692974E+0	1.603336E+0	1.495030E+0	1.460771E+0	1.615104E+0	1.632747E+0	1.631604E+0	1.554557E+0	1.619379E+0	1.605909E+0	1.663960E+0	1.696348E+0	1.686133E+0	1.466773E+0	1.474170E+0	1.567145E+0	1.676239E+0	1.542765E+0	1.551139E+0	1.419631E+0	1.609221E+0	1.622747E+0	1.656042E+0	1.555587E+0	1.614276E+0	1.758841E+0
5.445240E+2	1.629190E+0	1.628947E+0	1.386527E+0	1.364583E+0	1.657634E+0	1.554548E+0	1.606034E+0	1.575759E+0	1.616286E+0	1.327038E+0	1.661022E+0	1.650310E+0	1.611766E+0	1.591833E+0	1.710834E+0	1.434670E+0	1.534167E+0	1.662206E+0	1.692824E+0	1.377663E+0	1.362987E+0	1.522177E+0	1.715587E+0	1.609222E+0	1.510317E+0	1.643698E+0	1.651727E+0	1.617671E+0	1.595998E+0	1.662309E+0	1.638611E+0	1.450540E+0	1.649440E+0	1.654354E+0	1.691159E+0	1.526268E+0	1.454298E+0	1.495925E+0	1.687452E+0	1.658019E+0	1.539805E+0	1.573557E+0	1.644205E+0	1.625504E+0	1.600756E+0	1.634925E+0	1.712633E+0	1.457391E+0	1.679610E+0	1.613464E+0	1.697175E+0	1.505827E+0	1.426945E+0	1.467598E+0	1.698476E+0	1.612673E+0	1.574441E+0	1.551221E+0	1.691299E+0	1.594634E+0	1.689211E+0	1.632120E+0	1.681717E+0	1.427353E+0	1.576716E+0	1.614315E+0	1.695254E+0	1.525981E+0	1.323414E+0	1.508134E+0	1.676211E+0	1.648963E+0	1.559082E+0	1.567833E+0	1.642323E+0	1.416477E+0	1.628077E+0	1.586116E+0	1.625693E+0	1.317147E+0	1.563919E+0	1.587655E+0	1.638354E+0	1.489357E+0	1.412153E+0	1.564150E+0	1.681442E+0	1.603433E+0	1.444602E+0	1.569808E+0	1.612542E+0	1.621778E+0	1.630505E+0	1.658220E+0	1.629058E+0	1.413334E+0	1.559057E+0	1.594063E+0	1.661959E+0	1.499594E+0	1.421116E+0	1.475180E+0	1.678043E+0	1.667870E+0	1.554713E+0	1.524424E+0	1.634525E+0	1.643877E+0	1.689304E+0	1.655198E+0	1.648196E+0	1.561219E+0	1.582080E+0	1.641498E+0	1.652033E+0	1.463117E+0	1.409660E+0	1.480061E+0	1.696184E+0	1.600554E+0	1.503479E+0	1.478442E+0	1.583557E+0	1.584209E+0	1.623957E+0	1.581348E+0	1.584038E+0	1.455106E+0	1.586464E+0	1.620951E+0	1.660909E+0	1.507348E+0	1.400812E+0	1.502370E+0	1.704788E+0	1.604410E+0	1.458530E+0	1.532073E+0	1.538124E+0	1.548292E+0	1.600206E+0	1.629759E+0	1.473578E+0	1.363795E+0	1.587669E+0	1.622995E+0	1.487220E+0	1.420506E+0	1.388784E+0	1.536447E+0	1.602111E+0	1.577709E+0	1.533277E+0	1.562247E+0	1.521053E+0	1.549297E+0	1.643695E+0	1.624393E+0	1.359397E+0	1.415389E+0	1.640421E+0	1.675023E+0	1.494901E+0	1.454744E+0	1.435586E+0	1.502116E+0	1.569489E+0	1.579179E+0	1.517039E+0	1.466849E+0	1.504320E+0
5.447660E+2	1.532080E+0	1.518838E+0	1.258052E+0	1.305301E+0	1.481591E+0	1.385843E+0	1.460113E+0	1.499189E+0	1.538028E+0	1.226013E+0	1.492998E+0	1.512339E+0	1.561846E+0	1.504619E+0	1.542787E+0	1.332641E+0	1.463644E+0	1.587474E+0	1.579237E+0	1.396512E+0	1.303185E+0	1.398911E+0	1.561236E+0	1.456893E+0	1.426932E+0	1.480914E+0	1.578546E+0	1.535027E+0	1.496135E+0	1.499487E+0	1.598145E+0	1.394024E+0	1.495525E+0	1.525200E+0	1.504527E+0	1.419150E+0	1.421556E+0	1.451116E+0	1.572586E+0	1.560209E+0	1.447277E+0	1.479715E+0	1.591179E+0	1.539547E+0	1.548281E+0	1.530150E+0	1.583659E+0	1.375610E+0	1.605084E+0	1.516317E+0	1.672742E+0	1.407193E+0	1.365672E+0	1.337224E+0	1.581206E+0	1.524733E+0	1.520427E+0	1.423581E+0	1.569623E+0	1.514626E+0	1.541360E+0	1.505599E+0	1.549409E+0	1.339676E+0	1.456450E+0	1.563986E+0	1.585977E+0	1.411437E+0	1.304387E+0	1.453418E+0	1.654536E+0	1.545254E+0	1.462797E+0	1.446115E+0	1.564316E+0	1.352551E+0	1.524690E+0	1.510789E+0	1.545465E+0	1.268505E+0	1.514911E+0	1.579950E+0	1.495156E+0	1.397034E+0	1.297719E+0	1.402843E+0	1.575477E+0	1.538932E+0	1.386501E+0	1.495627E+0	1.609908E+0	1.491107E+0	1.560619E+0	1.528437E+0	1.587091E+0	1.270819E+0	1.560170E+0	1.483654E+0	1.590901E+0	1.430389E+0	1.342733E+0	1.368607E+0	1.546775E+0	1.521136E+0	1.498132E+0	1.398702E+0	1.561764E+0	1.541604E+0	1.554192E+0	1.514691E+0	1.555831E+0	1.398611E+0	1.477842E+0	1.507249E+0	1.560145E+0	1.358451E+0	1.298989E+0	1.361830E+0	1.536169E+0	1.498547E+0	1.456742E+0	1.416083E+0	1.558440E+0	1.519645E+0	1.534843E+0	1.546708E+0	1.563502E+0	1.347727E+0	1.421592E+0	1.520408E+0	1.542629E+0	1.440456E+0	1.349395E+0	1.420779E+0	1.620319E+0	1.510019E+0	1.428416E+0	1.528737E+0	1.469778E+0	1.478915E+0	1.556515E+0	1.595355E+0	1.548008E+0	1.340134E+0	1.467861E+0	1.531902E+0	1.554412E+0	1.448736E+0	1.292468E+0	1.415665E+0	1.563026E+0	1.490564E+0	1.376498E+0	1.464883E+0	1.557844E+0	1.499421E+0	1.505345E+0	1.559064E+0	1.547305E+0	1.312865E+0	1.521414E+0	1.591922E+0	1.538913E+0	1.389918E+0	1.327413E+0	1.386741E+0	1.545758E+0	1.508564E+0	1.404749E+0	1.355694E+0	1.570307E+0
5.450200E+2	1.479792E+0	1.428694E+0	1.183295E+0	1.193326E+0	1.421044E+0	1.334221E+0	1.430276E+0	1.373502E+0	1.478881E+0	1.131079E+0	1.478240E+0	1.428610E+0	1.444181E+0	1.407080E+0	1.482331E+0	1.234453E+0	1.408611E+0	1.464780E+0	1.444799E+0	1.299203E+0	1.221353E+0	1.300481E+0	1.476721E+0	1.421271E+0	1.331798E+0	1.400812E+0	1.458843E+0	1.372510E+0	1.388248E+0	1.439421E+0	1.493146E+0	1.303340E+0	1.481638E+0	1.492365E+0	1.457588E+0	1.365324E+0	1.287216E+0	1.372701E+0	1.433653E+0	1.448755E+0	1.300049E+0	1.418294E+0	1.491755E+0	1.388098E+0	1.426563E+0	1.435743E+0	1.442779E+0	1.301961E+0	1.413313E+0	1.442526E+0	1.499381E+0	1.331932E+0	1.310102E+0	1.301292E+0	1.520182E+0	1.459405E+0	1.333981E+0	1.321681E+0	1.463379E+0	1.402855E+0	1.498281E+0	1.447730E+0	1.470965E+0	1.280610E+0	1.408569E+0	1.432005E+0	1.507315E+0	1.379684E+0	1.189747E+0	1.284868E+0	1.433486E+0	1.389181E+0	1.338594E+0	1.349938E+0	1.473985E+0	1.256659E+0	1.443102E+0	1.443281E+0	1.461355E+0	1.120128E+0	1.404198E+0	1.454867E+0	1.444894E+0	1.322636E+0	1.181275E+0	1.363692E+0	1.495753E+0	1.434668E+0	1.333523E+0	1.395339E+0	1.501777E+0	1.425770E+0	1.434916E+0	1.404861E+0	1.482672E+0	1.217603E+0	1.416050E+0	1.426985E+0	1.515262E+0	1.325754E+0	1.273003E+0	1.272204E+0	1.439324E+0	1.449568E+0	1.427836E+0	1.339122E+0	1.422117E+0	1.437053E+0	1.438610E+0	1.451288E+0	1.433035E+0	1.328202E+0	1.399962E+0	1.432088E+0	1.450494E+0	1.391536E+0	1.196550E+0	1.262555E+0	1.493132E+0	1.454753E+0	1.360424E+0	1.299516E+0	1.485275E+0	1.474952E+0	1.412523E+0	1.371994E+0	1.447675E+0	1.322574E+0	1.427588E+0	1.422052E+0	1.393822E+0	1.331097E+0	1.238691E+0	1.320312E+0	1.462344E+0	1.398174E+0	1.316710E+0	1.359146E+0	1.427297E+0	1.339585E+0	1.442723E+0	1.480503E+0	1.510275E+0	1.265511E+0	1.371045E+0	1.415474E+0	1.421205E+0	1.326221E+0	1.269134E+0	1.369489E+0	1.491195E+0	1.434149E+0	1.280190E+0	1.386179E+0	1.479518E+0	1.433483E+0	1.475917E+0	1.427872E+0	1.480195E+0	1.265018E+0	1.400321E+0	1.465748E+0	1.444841E+0	1.307615E+0	1.236189E+0	1.341464E+0	1.449777E+0	1.416696E+0	1.340223E+0	1.352184E+0	1.546740E+0
5.452800E+2	1.401072E+0	1.409867E+0	1.137887E+0	1.132945E+0	1.311718E+0	1.277277E+0	1.371691E+0	1.353275E+0	1.378519E+0	1.091481E+0	1.347115E+0	1.374895E+0	1.396298E+0	1.360118E+0	1.424729E+0	1.167858E+0	1.358390E+0	1.412914E+0	1.438763E+0	1.275262E+0	1.154358E+0	1.254082E+0	1.417005E+0	1.311597E+0	1.268000E+0	1.312441E+0	1.391898E+0	1.370291E+0	1.375703E+0	1.405665E+0	1.424510E+0	1.228862E+0	1.367729E+0	1.444754E+0	1.414563E+0	1.244212E+0	1.215953E+0	1.286488E+0	1.392081E+0	1.413490E+0	1.280843E+0	1.326162E+0	1.380880E+0	1.351259E+0	1.388152E+0	1.324420E+0	1.418474E+0	1.238700E+0	1.358069E+0	1.367671E+0	1.402811E+0	1.255535E+0	1.207986E+0	1.223433E+0	1.416709E+0	1.378500E+0	1.356632E+0	1.274404E+0	1.434889E+0	1.314613E+0	1.364258E+0	1.363385E+0	1.379453E+0	1.247847E+0	1.318923E+0	1.348122E+0	1.402840E+0	1.259474E+0	1.143130E+0	1.296596E+0	1.379849E+0	1.355273E+0	1.242877E+0	1.297228E+0	1.363130E+0	1.224695E+0	1.343630E+0	1.407084E+0	1.380646E+0	1.084754E+0	1.298929E+0	1.409219E+0	1.356055E+0	1.285707E+0	1.171194E+0	1.341243E+0	1.398876E+0	1.377926E+0	1.301625E+0	1.371602E+0	1.388899E+0	1.307079E+0	1.395604E+0	1.369180E+0	1.419223E+0	1.211739E+0	1.382109E+0	1.358636E+0	1.480881E+0	1.239943E+0	1.237896E+0	1.254279E+0	1.453515E+0	1.407869E+0	1.314104E+0	1.251663E+0	1.402169E+0	1.376827E+0	1.371865E+0	1.390926E+0	1.419207E+0	1.253736E+0	1.323250E+0	1.337233E+0	1.422927E+0	1.340405E+0	1.196095E+0	1.235615E+0	1.372290E+0	1.356781E+0	1.286903E+0	1.230743E+0	1.431770E+0	1.355765E+0	1.374328E+0	1.352129E+0	1.347643E+0	1.190526E+0	1.310675E+0	1.336265E+0	1.403364E+0	1.228720E+0	1.187737E+0	1.298386E+0	1.406396E+0	1.364894E+0	1.257028E+0	1.295756E+0	1.347257E+0	1.276623E+0	1.394971E+0	1.403600E+0	1.432745E+0	1.194979E+0	1.348656E+0	1.382895E+0	1.391142E+0	1.299118E+0	1.192678E+0	1.308591E+0	1.402994E+0	1.369168E+0	1.283548E+0	1.324963E+0	1.367963E+0	1.368699E+0	1.370090E+0	1.405238E+0	1.387788E+0	1.220362E+0	1.336400E+0	1.379612E+0	1.415681E+0	1.246735E+0	1.163408E+0	1.291805E+0	1.403901E+0	1.314210E+0	1.282402E+0	1.361545E+0	1.511392E+0
5.455390E+2	1.342463E+0	1.284919E+0	1.099677E+0	1.119772E+0	1.286489E+0	1.185738E+0	1.281642E+0	1.308010E+0	1.337296E+0	1.080820E+0	1.292619E+0	1.272731E+0	1.339756E+0	1.302316E+0	1.376173E+0	1.101258E+0	1.269168E+0	1.313647E+0	1.303776E+0	1.238069E+0	1.086015E+0	1.165499E+0	1.319331E+0	1.302689E+0	1.176783E+0	1.296424E+0	1.397574E+0	1.294858E+0	1.297419E+0	1.303903E+0	1.361507E+0	1.204328E+0	1.286603E+0	1.309034E+0	1.298337E+0	1.236139E+0	1.157210E+0	1.234863E+0	1.299093E+0	1.337308E+0	1.254074E+0	1.255070E+0	1.381487E+0	1.320852E+0	1.286447E+0	1.359343E+0	1.351010E+0	1.187197E+0	1.323154E+0	1.288046E+0	1.352196E+0	1.246412E+0	1.141015E+0	1.169532E+0	1.360461E+0	1.305131E+0	1.277057E+0	1.205594E+0	1.320927E+0	1.252843E+0	1.277566E+0	1.288354E+0	1.313037E+0	1.102028E+0	1.269372E+0	1.275420E+0	1.342192E+0	1.210708E+0	1.126006E+0	1.182763E+0	1.348425E+0	1.235602E+0	1.198439E+0	1.284189E+0	1.359023E+0	1.191611E+0	1.248626E+0	1.279899E+0	1.340291E+0	1.098018E+0	1.234800E+0	1.354680E+0	1.304040E+0	1.174922E+0	1.124813E+0	1.238927E+0	1.356991E+0	1.290636E+0	1.187126E+0	1.284371E+0	1.334568E+0	1.284758E+0	1.337360E+0	1.299381E+0	1.362767E+0	1.119736E+0	1.295305E+0	1.285610E+0	1.322154E+0	1.187901E+0	1.189810E+0	1.180645E+0	1.296905E+0	1.322402E+0	1.312391E+0	1.191535E+0	1.342319E+0	1.317733E+0	1.336594E+0	1.343247E+0	1.321859E+0	1.185350E+0	1.244779E+0	1.312354E+0	1.330428E+0	1.280252E+0	1.114237E+0	1.148813E+0	1.331456E+0	1.308950E+0	1.170637E+0	1.227244E+0	1.373349E+0	1.283756E+0	1.279680E+0	1.241087E+0	1.326582E+0	1.188593E+0	1.274106E+0	1.323699E+0	1.311790E+0	1.153682E+0	1.111307E+0	1.190780E+0	1.399815E+0	1.332158E+0	1.186939E+0	1.319668E+0	1.358953E+0	1.313350E+0	1.296924E+0	1.383865E+0	1.355210E+0	1.157668E+0	1.265758E+0	1.297231E+0	1.346935E+0	1.201446E+0	1.135585E+0	1.195428E+0	1.306866E+0	1.325849E+0	1.191160E+0	1.314469E+0	1.317523E+0	1.291301E+0	1.331888E+0	1.311092E+0	1.334104E+0	1.177075E+0	1.257924E+0	1.341393E+0	1.319960E+0	1.127229E+0	1.168392E+0	1.214401E+0	1.350635E+0	1.257343E+0	1.227095E+0	1.179018E+0	1.450119E+0
5.457780E+2	1.283854E+0	1.263241E+0	1.065344E+0	1.074212E+0	1.253411E+0	1.208622E+0	1.275133E+0	1.243960E+0	1.252465E+0	9.797947E-1	1.305108E+0	1.323288E+0	1.278121E+0	1.203231E+0	1.321429E+0	1.314283E+0	1.206657E+0	1.277395E+0	1.275790E+0	1.285960E+0	1.082867E+0	1.166436E+0	1.265182E+0	1.296129E+0	1.175664E+0	1.190486E+0	1.285810E+0	1.252703E+0	1.199569E+0	1.278586E+0	1.257533E+0	1.272234E+0	1.236038E+0	1.270179E+0	1.301131E+0	1.250134E+0	1.108099E+0	1.197357E+0	1.284871E+0	1.262540E+0	1.190642E+0	1.223222E+0	1.302548E+0	1.318514E+0	1.232350E+0	1.237653E+0	1.274120E+0	1.156471E+0	1.281463E+0	1.196738E+0	1.262605E+0	1.196242E+0	1.107294E+0	1.123003E+0	1.251680E+0	1.224224E+0	1.174830E+0	1.153064E+0	1.270478E+0	1.231665E+0	1.218001E+0	1.228524E+0	1.313560E+0	1.080802E+0	1.235965E+0	1.203840E+0	1.315775E+0	1.167615E+0	1.074157E+0	1.170550E+0	1.319710E+0	1.294442E+0	1.157418E+0	1.182033E+0	1.293330E+0	1.245443E+0	1.253098E+0	1.257400E+0	1.315008E+0	1.075418E+0	1.246900E+0	1.254496E+0	1.268970E+0	1.161343E+0	1.121287E+0	1.214917E+0	1.294927E+0	1.276087E+0	1.134149E+0	1.198916E+0	1.278658E+0	1.265155E+0	1.244174E+0	1.233197E+0	1.301812E+0	1.065168E+0	1.221855E+0	1.224856E+0	1.256829E+0	1.170185E+0	1.128735E+0	1.118637E+0	1.267506E+0	1.259073E+0	1.228378E+0	1.158191E+0	1.327650E+0	1.273983E+0	1.317062E+0	1.238251E+0	1.274842E+0	1.139761E+0	1.242437E+0	1.274514E+0	1.338390E+0	1.159946E+0	1.074908E+0	1.132350E+0	1.327594E+0	1.246133E+0	1.193434E+0	1.223748E+0	1.240672E+0	1.268856E+0	1.281340E+0	1.228354E+0	1.285516E+0	1.139255E+0	1.257919E+0	1.300203E+0	1.305430E+0	1.189165E+0	1.067768E+0	1.161712E+0	1.276947E+0	1.220311E+0	1.145324E+0	1.222915E+0	1.325705E+0	1.271376E+0	1.291338E+0	1.262946E+0	1.290598E+0	1.104885E+0	1.192541E+0	1.235697E+0	1.273258E+0	1.181120E+0	1.066578E+0	1.173097E+0	1.301583E+0	1.292606E+0	1.193959E+0	1.222940E+0	1.332950E+0	1.190973E+0	1.257549E+0	1.285884E+0	1.344943E+0	1.116468E+0	1.229342E+0	1.248585E+0	1.275399E+0	1.149213E+0	1.131503E+0	1.198333E+0	1.298430E+0	1.200475E+0	1.207821E+0	1.166146E+0	1.457189E+0
5.460060E+2	1.230416E+0	1.245555E+0	1.017167E+0	1.022615E+0	1.243879E+0	1.165513E+0	1.206784E+0	1.165467E+0	1.250075E+0	9.863949E-1	1.209177E+0	1.282738E+0	1.258765E+0	1.193428E+0	1.238118E+0	1.242992E+0	1.174068E+0	1.266241E+0	1.257132E+0	1.245202E+0	1.057237E+0	1.133159E+0	1.299089E+0	1.253946E+0	1.203645E+0	1.181183E+0	1.235321E+0	1.242718E+0	1.230179E+0	1.246814E+0	1.251386E+0	1.270043E+0	1.229371E+0	1.188090E+0	1.241336E+0	1.285120E+0	1.129765E+0	1.156444E+0	1.239472E+0	1.253606E+0	1.117901E+0	1.164076E+0	1.229638E+0	1.251852E+0	1.200432E+0	1.295499E+0	1.216083E+0	1.268976E+0	1.259053E+0	1.189306E+0	1.266096E+0	1.231589E+0	1.072147E+0	1.104115E+0	1.280334E+0	1.323723E+0	1.202130E+0	1.158318E+0	1.294812E+0	1.221076E+0	1.282883E+0	1.188803E+0	1.248191E+0	1.223853E+0	1.231509E+0	1.207196E+0	1.286953E+0	1.263442E+0	1.060839E+0	1.148078E+0	1.314291E+0	1.209675E+0	1.152860E+0	1.158123E+0	1.290985E+0	1.207873E+0	1.220126E+0	1.239300E+0	1.288755E+0	1.121601E+0	1.180350E+0	1.233747E+0	1.219293E+0	1.098349E+0	1.034077E+0	1.176808E+0	1.278277E+0	1.266874E+0	1.136429E+0	1.213750E+0	1.236989E+0	1.137750E+0	1.248543E+0	1.278181E+0	1.311806E+0	1.060659E+0	1.187910E+0	1.191556E+0	1.289489E+0	1.143058E+0	1.129698E+0	1.124451E+0	1.283218E+0	1.230756E+0	1.164940E+0	1.181695E+0	1.293029E+0	1.221140E+0	1.238922E+0	1.224046E+0	1.221745E+0	1.138239E+0	1.190318E+0	1.217496E+0	1.263043E+0	1.134081E+0	1.070335E+0	1.046545E+0	1.279590E+0	1.263998E+0	1.123903E+0	1.133993E+0	1.201906E+0	1.246508E+0	1.219905E+0	1.215109E+0	1.291309E+0	1.128614E+0	1.156598E+0	1.217693E+0	1.307338E+0	1.149610E+0	1.036269E+0	1.159162E+0	1.280236E+0	1.225221E+0	1.116303E+0	1.207903E+0	1.284454E+0	1.233482E+0	1.180594E+0	1.220951E+0	1.213064E+0	1.068935E+0	1.191936E+0	1.247160E+0	1.201348E+0	1.112241E+0	1.058633E+0	1.156351E+0	1.236621E+0	1.214028E+0	1.125089E+0	1.185628E+0	1.245129E+0	1.207599E+0	1.278199E+0	1.204086E+0	1.300030E+0	1.062699E+0	1.231419E+0	1.243732E+0	1.223136E+0	1.110881E+0	1.027318E+0	1.121417E+0	1.218799E+0	1.243595E+0	1.207821E+0	1.205928E+0	1.348784E+0
5.467600E+2	1.337292E+0	1.232433E+0	1.095801E+0	1.079702E+0	1.209680E+0	1.186271E+0	1.263200E+0	1.250224E+0	1.291893E+0	1.023962E+0	1.280701E+0	1.300641E+0	1.256726E+0	1.235741E+0	1.302387E+0	1.343314E+0	1.215204E+0	1.247839E+0	1.301580E+0	1.372568E+0	1.082868E+0	1.147689E+0	1.242916E+0	1.320969E+0	1.163912E+0	1.240096E+0	1.275600E+0	1.247157E+0	1.240715E+0	1.270145E+0	1.282118E+0	1.288443E+0	1.284379E+0	1.261970E+0	1.316216E+0	1.292121E+0	1.096540E+0	1.127220E+0	1.227985E+0	1.328376E+0	1.179004E+0	1.237442E+0	1.313393E+0	1.317345E+0	1.292401E+0	1.257845E+0	1.250310E+0	1.303767E+0	1.254884E+0	1.275304E+0	1.287619E+0	1.270359E+0	1.120593E+0	1.137745E+0	1.294132E+0	1.314177E+0	1.221878E+0	1.122599E+0	1.287096E+0	1.311670E+0	1.276502E+0	1.239805E+0	1.281136E+0	1.312910E+0	1.254339E+0	1.269270E+0	1.298362E+0	1.337158E+0	1.064168E+0	1.165665E+0	1.296415E+0	1.296437E+0	1.150581E+0	1.229849E+0	1.288052E+0	1.294231E+0	1.230744E+0	1.277452E+0	1.278546E+0	1.295530E+0	1.257789E+0	1.338676E+0	1.325665E+0	1.235203E+0	1.093057E+0	1.208127E+0	1.321671E+0	1.267842E+0	1.182570E+0	1.228587E+0	1.301868E+0	1.311434E+0	1.253884E+0	1.287486E+0	1.334789E+0	1.226624E+0	1.249675E+0	1.234202E+0	1.314703E+0	1.287000E+0	1.150857E+0	1.129296E+0	1.272578E+0	1.281213E+0	1.237523E+0	1.203561E+0	1.261931E+0	1.287051E+0	1.276905E+0	1.286437E+0	1.249953E+0	1.167622E+0	1.228382E+0	1.250669E+0	1.377595E+0	1.155134E+0	1.083596E+0	1.149810E+0	1.290073E+0	1.222507E+0	1.197994E+0	1.204516E+0	1.269065E+0	1.247129E+0	1.267504E+0	1.204922E+0	1.312896E+0	1.159570E+0	1.244729E+0	1.285995E+0	1.286353E+0	1.145538E+0	1.095560E+0	1.147941E+0	1.305468E+0	1.206671E+0	1.228006E+0	1.223474E+0	1.289379E+0	1.245141E+0	1.307596E+0	1.296338E+0	1.345389E+0	1.085774E+0	1.191331E+0	1.256208E+0	1.304497E+0	1.102642E+0	1.073528E+0	1.221308E+0	1.328522E+0	1.243242E+0	1.173242E+0	1.231103E+0	1.324643E+0	1.198999E+0	1.264260E+0	1.279195E+0	1.334618E+0	1.146088E+0	1.238698E+0	1.305606E+0	1.315557E+0	1.209530E+0	1.035792E+0	1.169126E+0	1.293681E+0	1.303587E+0	1.173463E+0	1.226988E+0	1.336999E+0
5.475120E+2	1.424055E+0	1.367076E+0	1.140102E+0	1.152706E+0	1.344234E+0	1.268228E+0	1.329923E+0	1.284412E+0	1.368958E+0	1.056960E+0	1.360169E+0	1.366996E+0	1.387129E+0	1.317286E+0	1.416161E+0	1.406921E+0	1.302826E+0	1.395627E+0	1.425046E+0	1.410268E+0	1.214610E+0	1.272360E+0	1.398785E+0	1.406743E+0	1.253452E+0	1.322780E+0	1.362968E+0	1.404682E+0	1.358642E+0	1.420061E+0	1.345632E+0	1.397531E+0	1.344945E+0	1.332568E+0	1.341361E+0	1.386856E+0	1.184176E+0	1.298181E+0	1.368561E+0	1.405966E+0	1.273859E+0	1.337535E+0	1.376061E+0	1.423769E+0	1.308629E+0	1.344068E+0	1.382754E+0	1.426216E+0	1.352859E+0	1.361304E+0	1.409790E+0	1.421444E+0	1.232683E+0	1.242783E+0	1.356214E+0	1.374981E+0	1.276476E+0	1.250766E+0	1.378502E+0	1.365794E+0	1.381277E+0	1.308461E+0	1.418671E+0	1.427350E+0	1.326720E+0	1.364340E+0	1.400439E+0	1.408605E+0	1.134093E+0	1.253113E+0	1.397728E+0	1.392171E+0	1.316376E+0	1.318422E+0	1.350813E+0	1.438905E+0	1.372689E+0	1.343490E+0	1.374812E+0	1.410008E+0	1.351563E+0	1.355867E+0	1.370082E+0	1.401923E+0	1.193877E+0	1.296348E+0	1.424100E+0	1.363380E+0	1.242951E+0	1.368636E+0	1.415800E+0	1.337025E+0	1.375219E+0	1.361428E+0	1.447198E+0	1.411983E+0	1.316449E+0	1.304304E+0	1.395499E+0	1.468035E+0	1.227319E+0	1.241200E+0	1.418036E+0	1.378006E+0	1.343253E+0	1.265874E+0	1.399819E+0	1.443302E+0	1.357217E+0	1.361002E+0	1.386020E+0	1.403171E+0	1.372437E+0	1.388547E+0	1.399650E+0	1.434243E+0	1.140304E+0	1.225639E+0	1.416431E+0	1.376952E+0	1.208822E+0	1.262798E+0	1.377171E+0	1.417220E+0	1.366579E+0	1.358244E+0	1.395553E+0	1.346273E+0	1.251325E+0	1.411674E+0	1.373475E+0	1.310157E+0	1.146512E+0	1.244327E+0	1.379519E+0	1.370893E+0	1.250458E+0	1.306879E+0	1.388508E+0	1.387972E+0	1.378208E+0	1.441041E+0	1.446183E+0	1.273244E+0	1.302669E+0	1.410644E+0	1.327486E+0	1.295733E+0	1.148495E+0	1.274592E+0	1.329578E+0	1.420044E+0	1.272349E+0	1.310971E+0	1.378045E+0	1.346916E+0	1.342729E+0	1.401638E+0	1.397082E+0	1.200769E+0	1.330162E+0	1.371723E+0	1.378272E+0	1.268719E+0	1.191820E+0	1.282070E+0	1.360655E+0	1.352331E+0	1.254749E+0	1.287831E+0	1.402987E+0
5.482600E+2	1.548172E+0	1.473764E+0	1.281310E+0	1.272368E+0	1.499530E+0	1.364554E+0	1.457401E+0	1.423104E+0	1.429298E+0	1.145802E+0	1.545788E+0	1.522872E+0	1.519060E+0	1.444237E+0	1.559450E+0	1.521758E+0	1.460439E+0	1.494898E+0	1.560580E+0	1.499422E+0	1.268566E+0	1.380160E+0	1.520242E+0	1.476581E+0	1.362018E+0	1.481948E+0	1.502524E+0	1.508958E+0	1.583453E+0	1.504948E+0	1.515682E+0	1.492159E+0	1.514418E+0	1.491818E+0	1.462059E+0	1.513888E+0	1.331997E+0	1.408742E+0	1.482880E+0	1.545160E+0	1.338455E+0	1.449004E+0	1.515856E+0	1.509142E+0	1.416823E+0	1.489223E+0	1.523141E+0	1.507546E+0	1.486269E+0	1.471725E+0	1.493563E+0	1.517229E+0	1.354750E+0	1.349662E+0	1.519122E+0	1.494583E+0	1.399031E+0	1.356345E+0	1.476438E+0	1.535216E+0	1.546147E+0	1.446749E+0	1.580786E+0	1.551022E+0	1.413580E+0	1.488492E+0	1.545145E+0	1.520309E+0	1.296775E+0	1.371830E+0	1.483872E+0	1.540266E+0	1.402406E+0	1.446657E+0	1.517391E+0	1.502268E+0	1.426895E+0	1.476545E+0	1.458921E+0	1.528909E+0	1.424162E+0	1.459611E+0	1.526718E+0	1.482841E+0	1.257395E+0	1.420593E+0	1.580526E+0	1.525842E+0	1.331814E+0	1.448156E+0	1.535005E+0	1.494916E+0	1.444621E+0	1.472597E+0	1.537630E+0	1.504437E+0	1.451664E+0	1.449769E+0	1.474575E+0	1.507342E+0	1.305225E+0	1.342444E+0	1.531062E+0	1.477887E+0	1.425552E+0	1.397608E+0	1.544748E+0	1.468304E+0	1.529232E+0	1.405637E+0	1.475626E+0	1.576921E+0	1.453837E+0	1.473555E+0	1.573624E+0	1.513645E+0	1.217588E+0	1.310944E+0	1.540034E+0	1.543498E+0	1.346743E+0	1.335652E+0	1.496741E+0	1.480539E+0	1.446284E+0	1.452476E+0	1.524543E+0	1.537819E+0	1.377225E+0	1.491449E+0	1.550895E+0	1.531197E+0	1.231277E+0	1.390690E+0	1.524326E+0	1.572220E+0	1.398847E+0	1.396955E+0	1.535658E+0	1.488244E+0	1.482854E+0	1.474434E+0	1.529402E+0	1.464808E+0	1.416426E+0	1.485450E+0	1.484863E+0	1.422198E+0	1.306370E+0	1.391816E+0	1.520246E+0	1.494592E+0	1.397775E+0	1.414163E+0	1.459343E+0	1.501137E+0	1.447526E+0	1.453597E+0	1.538529E+0	1.482372E+0	1.440860E+0	1.450584E+0	1.480596E+0	1.479549E+0	1.271581E+0	1.390634E+0	1.458216E+0	1.511685E+0	1.356145E+0	1.373246E+0	1.539671E+0
5.490430E+2	1.514270E+0	1.452084E+0	1.243655E+0	1.194423E+0	1.441225E+0	1.356571E+0	1.423227E+0	1.458737E+0	1.456179E+0	1.179815E+0	1.525923E+0	1.478635E+0	1.485438E+0	1.439079E+0	1.507560E+0	1.511941E+0	1.413956E+0	1.493781E+0	1.522171E+0	1.506046E+0	1.290597E+0	1.363289E+0	1.432185E+0	1.539859E+0	1.386081E+0	1.457142E+0	1.450331E+0	1.488435E+0	1.418356E+0	1.434952E+0	1.476753E+0	1.514062E+0	1.459965E+0	1.434357E+0	1.538612E+0	1.488049E+0	1.326699E+0	1.349808E+0	1.500384E+0	1.543278E+0	1.351839E+0	1.395546E+0	1.497177E+0	1.541303E+0	1.421153E+0	1.427013E+0	1.542488E+0	1.502575E+0	1.449789E+0	1.453672E+0	1.489488E+0	1.537755E+0	1.290154E+0	1.291616E+0	1.535570E+0	1.501116E+0	1.390320E+0	1.341114E+0	1.430732E+0	1.488153E+0	1.493493E+0	1.468817E+0	1.493456E+0	1.523334E+0	1.437520E+0	1.463321E+0	1.497706E+0	1.507269E+0	1.242071E+0	1.357173E+0	1.517465E+0	1.526301E+0	1.423485E+0	1.442312E+0	1.539095E+0	1.510119E+0	1.406218E+0	1.481438E+0	1.534287E+0	1.492056E+0	1.427191E+0	1.454273E+0	1.489899E+0	1.494245E+0	1.275038E+0	1.366300E+0	1.507862E+0	1.449701E+0	1.413841E+0	1.460615E+0	1.445863E+0	1.496551E+0	1.448018E+0	1.487077E+0	1.504155E+0	1.493611E+0	1.481156E+0	1.382003E+0	1.504371E+0	1.511773E+0	1.321572E+0	1.285280E+0	1.513828E+0	1.455234E+0	1.437551E+0	1.370280E+0	1.490769E+0	1.487623E+0	1.497757E+0	1.432522E+0	1.470647E+0	1.522719E+0	1.411672E+0	1.478738E+0	1.498887E+0	1.457703E+0	1.244112E+0	1.296978E+0	1.456158E+0	1.519295E+0	1.305709E+0	1.335070E+0	1.506023E+0	1.504749E+0	1.418610E+0	1.441269E+0	1.515067E+0	1.478808E+0	1.398808E+0	1.470685E+0	1.483490E+0	1.436964E+0	1.261850E+0	1.401400E+0	1.537489E+0	1.487651E+0	1.376397E+0	1.444221E+0	1.473474E+0	1.481249E+0	1.442724E+0	1.466338E+0	1.457035E+0	1.486197E+0	1.385566E+0	1.473387E+0	1.474843E+0	1.431797E+0	1.238851E+0	1.370502E+0	1.460564E+0	1.487543E+0	1.369779E+0	1.426991E+0	1.475956E+0	1.430047E+0	1.483664E+0	1.534367E+0	1.538528E+0	1.486019E+0	1.388368E+0	1.499112E+0	1.526812E+0	1.453616E+0	1.278061E+0	1.316637E+0	1.452943E+0	1.459191E+0	1.340223E+0	1.451638E+0	1.600944E+0
5.498070E+2	1.501055E+0	1.518268E+0	1.170558E+0	1.140631E+0	1.370025E+0	1.271953E+0	1.395561E+0	1.397579E+0	1.417348E+0	1.112803E+0	1.435665E+0	1.459680E+0	1.485440E+0	1.415340E+0	1.462337E+0	1.489315E+0	1.342364E+0	1.432995E+0	1.446994E+0	1.413833E+0	1.206514E+0	1.320168E+0	1.366395E+0	1.458772E+0	1.254011E+0	1.424068E+0	1.452601E+0	1.469021E+0	1.386240E+0	1.411127E+0	1.498778E+0	1.437834E+0	1.394398E+0	1.411372E+0	1.436912E+0	1.413233E+0	1.231361E+0	1.321070E+0	1.409036E+0	1.415372E+0	1.300048E+0	1.362559E+0	1.409807E+0	1.485753E+0	1.414659E+0	1.425375E+0	1.443774E+0	1.456940E+0	1.390900E+0	1.403241E+0	1.485418E+0	1.512096E+0	1.260233E+0	1.246469E+0	1.433158E+0	1.426742E+0	1.309584E+0	1.279658E+0	1.393932E+0	1.455803E+0	1.454138E+0	1.398203E+0	1.443250E+0	1.507645E+0	1.366808E+0	1.355390E+0	1.482096E+0	1.463039E+0	1.198308E+0	1.321510E+0	1.424816E+0	1.421092E+0	1.320363E+0	1.379278E+0	1.427649E+0	1.430493E+0	1.385540E+0	1.381159E+0	1.483235E+0	1.446854E+0	1.358221E+0	1.453679E+0	1.440220E+0	1.395950E+0	1.264956E+0	1.357427E+0	1.479605E+0	1.448248E+0	1.273711E+0	1.427384E+0	1.437954E+0	1.400181E+0	1.443167E+0	1.457084E+0	1.518647E+0	1.452121E+0	1.389899E+0	1.372656E+0	1.514687E+0	1.418210E+0	1.280215E+0	1.270266E+0	1.435777E+0	1.409926E+0	1.362112E+0	1.359895E+0	1.393952E+0	1.432507E+0	1.403881E+0	1.407159E+0	1.422528E+0	1.466489E+0	1.371852E+0	1.350711E+0	1.477449E+0	1.452290E+0	1.221245E+0	1.239108E+0	1.497546E+0	1.419023E+0	1.276075E+0	1.350806E+0	1.427401E+0	1.421563E+0	1.393703E+0	1.393895E+0	1.436621E+0	1.431406E+0	1.343053E+0	1.422054E+0	1.410993E+0	1.432309E+0	1.222477E+0	1.318783E+0	1.442048E+0	1.439092E+0	1.293168E+0	1.395843E+0	1.485172E+0	1.421783E+0	1.420881E+0	1.409166E+0	1.456522E+0	1.446156E+0	1.366204E+0	1.400388E+0	1.394679E+0	1.427844E+0	1.168353E+0	1.361371E+0	1.436269E+0	1.467895E+0	1.351861E+0	1.355863E+0	1.414838E+0	1.391060E+0	1.422745E+0	1.429932E+0	1.470904E+0	1.426325E+0	1.398243E+0	1.412366E+0	1.454192E+0	1.423737E+0	1.256625E+0	1.340002E+0	1.425519E+0	1.422323E+0	1.282401E+0	1.297193E+0	1.586805E+0
5.505060E+2	1.391878E+0	1.347109E+0	1.101338E+0	1.175760E+0	1.339190E+0	1.240553E+0	1.302256E+0	1.284413E+0	1.380906E+0	1.083866E+0	1.378334E+0	1.400171E+0	1.361152E+0	1.254322E+0	1.359035E+0	1.433814E+0	1.343431E+0	1.371646E+0	1.374015E+0	1.345057E+0	1.179988E+0	1.237679E+0	1.327933E+0	1.302689E+0	1.245618E+0	1.293841E+0	1.314743E+0	1.325364E+0	1.322510E+0	1.358011E+0	1.343069E+0	1.394464E+0	1.274377E+0	1.380179E+0	1.335771E+0	1.337872E+0	1.181286E+0	1.256292E+0	1.346132E+0	1.397971E+0	1.256984E+0	1.257347E+0	1.364011E+0	1.356522E+0	1.286989E+0	1.354432E+0	1.304380E+0	1.340365E+0	1.387253E+0	1.291232E+0	1.388263E+0	1.358730E+0	1.145290E+0	1.158936E+0	1.383810E+0	1.401112E+0	1.231171E+0	1.184582E+0	1.339328E+0	1.316377E+0	1.372236E+0	1.321700E+0	1.356442E+0	1.332295E+0	1.252667E+0	1.366017E+0	1.378220E+0	1.371179E+0	1.133142E+0	1.244320E+0	1.387973E+0	1.307902E+0	1.255983E+0	1.278754E+0	1.360197E+0	1.358717E+0	1.344190E+0	1.322947E+0	1.374811E+0	1.357434E+0	1.326154E+0	1.325039E+0	1.385281E+0	1.357390E+0	1.140947E+0	1.306792E+0	1.382224E+0	1.378898E+0	1.208203E+0	1.353798E+0	1.373077E+0	1.376226E+0	1.316492E+0	1.314890E+0	1.381748E+0	1.378159E+0	1.303093E+0	1.307812E+0	1.384040E+0	1.331290E+0	1.142199E+0	1.199054E+0	1.358232E+0	1.337848E+0	1.289530E+0	1.251115E+0	1.357573E+0	1.365462E+0	1.294270E+0	1.300132E+0	1.315774E+0	1.346943E+0	1.312706E+0	1.316499E+0	1.354930E+0	1.333185E+0	1.149907E+0	1.190218E+0	1.329249E+0	1.356783E+0	1.248716E+0	1.213257E+0	1.385361E+0	1.332175E+0	1.367689E+0	1.308324E+0	1.328688E+0	1.372875E+0	1.285497E+0	1.281077E+0	1.379197E+0	1.342729E+0	1.130299E+0	1.211690E+0	1.340025E+0	1.349069E+0	1.214318E+0	1.299648E+0	1.366340E+0	1.389721E+0	1.341122E+0	1.339849E+0	1.321095E+0	1.351509E+0	1.274834E+0	1.378672E+0	1.329254E+0	1.366870E+0	1.166365E+0	1.284231E+0	1.342782E+0	1.373201E+0	1.229797E+0	1.270164E+0	1.350751E+0	1.370995E+0	1.335499E+0	1.324468E+0	1.382110E+0	1.293726E+0	1.314571E+0	1.329871E+0	1.381025E+0	1.339182E+0	1.131005E+0	1.238254E+0	1.343780E+0	1.362956E+0	1.197765E+0	1.297191E+0	1.421840E+0
5.512510E+2	1.375216E+0	1.348250E+0	1.129580E+0	1.113734E+0	1.326295E+0	1.234166E+0	1.278387E+0	1.288747E+0	1.370749E+0	1.039699E+0	1.384010E+0	1.373315E+0	1.397827E+0	1.297673E+0	1.323332E+0	1.323250E+0	1.305497E+0	1.374437E+0	1.353707E+0	1.340981E+0	1.196174E+0	1.231584E+0	1.399797E+0	1.350502E+0	1.242259E+0	1.259216E+0	1.372041E+0	1.306505E+0	1.322512E+0	1.309859E+0	1.322070E+0	1.377816E+0	1.273266E+0	1.312866E+0	1.348070E+0	1.301272E+0	1.180324E+0	1.220250E+0	1.318785E+0	1.376809E+0	1.217412E+0	1.291468E+0	1.321228E+0	1.329040E+0	1.282661E+0	1.315141E+0	1.325708E+0	1.352115E+0	1.305436E+0	1.282735E+0	1.288784E+0	1.379825E+0	1.216059E+0	1.192107E+0	1.336048E+0	1.369955E+0	1.285188E+0	1.253391E+0	1.367818E+0	1.309907E+0	1.278098E+0	1.323170E+0	1.361673E+0	1.350750E+0	1.250996E+0	1.307296E+0	1.352402E+0	1.372312E+0	1.114115E+0	1.233086E+0	1.351677E+0	1.337821E+0	1.245156E+0	1.229307E+0	1.344946E+0	1.351989E+0	1.331892E+0	1.334197E+0	1.415166E+0	1.371193E+0	1.279571E+0	1.376026E+0	1.387035E+0	1.324808E+0	1.167664E+0	1.333934E+0	1.421581E+0	1.362893E+0	1.211051E+0	1.293272E+0	1.329294E+0	1.371323E+0	1.352893E+0	1.368150E+0	1.400238E+0	1.373646E+0	1.290851E+0	1.239460E+0	1.327312E+0	1.347347E+0	1.218182E+0	1.202443E+0	1.373437E+0	1.364617E+0	1.237522E+0	1.291020E+0	1.383388E+0	1.379099E+0	1.286131E+0	1.347305E+0	1.285908E+0	1.387467E+0	1.265858E+0	1.335158E+0	1.381269E+0	1.400558E+0	1.128869E+0	1.213168E+0	1.348011E+0	1.359665E+0	1.195144E+0	1.249976E+0	1.427948E+0	1.332794E+0	1.302376E+0	1.300684E+0	1.360278E+0	1.359818E+0	1.287294E+0	1.327522E+0	1.372202E+0	1.300850E+0	1.102043E+0	1.268805E+0	1.404203E+0	1.369801E+0	1.185296E+0	1.251832E+0	1.325705E+0	1.325010E+0	1.343665E+0	1.386903E+0	1.365028E+0	1.358334E+0	1.210694E+0	1.308089E+0	1.324538E+0	1.381550E+0	1.145515E+0	1.216739E+0	1.364437E+0	1.345996E+0	1.282989E+0	1.272494E+0	1.317522E+0	1.407113E+0	1.332921E+0	1.310064E+0	1.332038E+0	1.371643E+0	1.277156E+0	1.317130E+0	1.334261E+0	1.348202E+0	1.153439E+0	1.225598E+0	1.373838E+0	1.332334E+0	1.247206E+0	1.228160E+0	1.369994E+0
5.520210E+2	1.375217E+0	1.247266E+0	1.111860E+0	1.067077E+0	1.288731E+0	1.188399E+0	1.250724E+0	1.314267E+0	1.312205E+0	9.985790E-1	1.282402E+0	1.308014E+0	1.294934E+0	1.229549E+0	1.312858E+0	1.326663E+0	1.293743E+0	1.286321E+0	1.350967E+0	1.341491E+0	1.385472E+0	1.214709E+0	1.320344E+0	1.299878E+0	1.256811E+0	1.251465E+0	1.298292E+0	1.325364E+0	1.321005E+0	1.324254E+0	1.320022E+0	1.281433E+0	1.317721E+0	1.277296E+0	1.298337E+0	1.322264E+0	1.318514E+0	1.192974E+0	1.325347E+0	1.351885E+0	1.284334E+0	1.207865E+0	1.281459E+0	1.336056E+0	1.325939E+0	1.321147E+0	1.361427E+0	1.333586E+0	1.289803E+0	1.287515E+0	1.345215E+0	1.334782E+0	1.226984E+0	1.166307E+0	1.344540E+0	1.260407E+0	1.268925E+0	1.231855E+0	1.271070E+0	1.320495E+0	1.342984E+0	1.249119E+0	1.291596E+0	1.317525E+0	1.229283E+0	1.259764E+0	1.331383E+0	1.291793E+0	1.119822E+0	1.205725E+0	1.353301E+0	1.306905E+0	1.186474E+0	1.227133E+0	1.317965E+0	1.340213E+0	1.265950E+0	1.290663E+0	1.392316E+0	1.300934E+0	1.275940E+0	1.285914E+0	1.304038E+0	1.317746E+0	1.148507E+0	1.244148E+0	1.339332E+0	1.309548E+0	1.191114E+0	1.300393E+0	1.324549E+0	1.322325E+0	1.307755E+0	1.293691E+0	1.341782E+0	1.323584E+0	1.248561E+0	1.298464E+0	1.331323E+0	1.267625E+0	1.174903E+0	1.108463E+0	1.324273E+0	1.341451E+0	1.255810E+0	1.239092E+0	1.294201E+0	1.359211E+0	1.314889E+0	1.284408E+0	1.359471E+0	1.347957E+0	1.237166E+0	1.283326E+0	1.339004E+0	1.280853E+0	1.106461E+0	1.152802E+0	1.286763E+0	1.295120E+0	1.167787E+0	1.216755E+0	1.339496E+0	1.311069E+0	1.307355E+0	1.297116E+0	1.304994E+0	1.288234E+0	1.240532E+0	1.252118E+0	1.303523E+0	1.319463E+0	1.101580E+0	1.210159E+0	1.353190E+0	1.278141E+0	1.166131E+0	1.257948E+0	1.298001E+0	1.316846E+0	1.287781E+0	1.280654E+0	1.270955E+0	1.282800E+0	1.274834E+0	1.294818E+0	1.274438E+0	1.281618E+0	1.106791E+0	1.266976E+0	1.269368E+0	1.354057E+0	1.164282E+0	1.261417E+0	1.322270E+0	1.245438E+0	1.292655E+0	1.308006E+0	1.343394E+0	1.310584E+0	1.231942E+0	1.292866E+0	1.338115E+0	1.316071E+0	1.133499E+0	1.157442E+0	1.284717E+0	1.272966E+0	1.231285E+0	1.207098E+0	1.421839E+0
5.527650E+2	1.364872E+0	1.287773E+0	1.100231E+0	1.295971E+0	1.298263E+0	1.210217E+0	1.239875E+0	1.325826E+0	1.325946E+0	9.965477E-1	1.301702E+0	1.358570E+0	1.260804E+0	1.277029E+0	1.365225E+0	1.300621E+0	1.300154E+0	1.309184E+0	1.312005E+0	1.325189E+0	1.335560E+0	1.156593E+0	1.303640E+0	1.271287E+0	1.356422E+0	1.259215E+0	1.294890E+0	1.217760E+0	1.299426E+0	1.297944E+0	1.279046E+0	1.343644E+0	1.343834E+0	1.324359E+0	1.354772E+0	1.279741E+0	1.272291E+0	1.262134E+0	1.317691E+0	1.329315E+0	1.276770E+0	1.253366E+0	1.315201E+0	1.307987E+0	1.246955E+0	1.305867E+0	1.315789E+0	1.340817E+0	1.317420E+0	1.306626E+0	1.259115E+0	1.293736E+0	1.317699E+0	1.117013E+0	1.315356E+0	1.295583E+0	1.317134E+0	1.194561E+0	1.312024E+0	1.299906E+0	1.316391E+0	1.259909E+0	1.318267E+0	1.323985E+0	1.352889E+0	1.303385E+0	1.342194E+0	1.336590E+0	1.380972E+0	1.265328E+0	1.347339E+0	1.294440E+0	1.363092E+0	1.274407E+0	1.330869E+0	1.317782E+0	1.329658E+0	1.261801E+0	1.290212E+0	1.353014E+0	1.303164E+0	1.272874E+0	1.282999E+0	1.277019E+0	1.183795E+0	1.265554E+0	1.353967E+0	1.286755E+0	1.264597E+0	1.320567E+0	1.280771E+0	1.277130E+0	1.278634E+0	1.333506E+0	1.332790E+0	1.329448E+0	1.236879E+0	1.289700E+0	1.349660E+0	1.302503E+0	1.133063E+0	1.185490E+0	1.310083E+0	1.334244E+0	1.238094E+0	1.198642E+0	1.303003E+0	1.318869E+0	1.298069E+0	1.285930E+0	1.341772E+0	1.327691E+0	1.284013E+0	1.238750E+0	1.353094E+0	1.292284E+0	1.075823E+0	1.153801E+0	1.253104E+0	1.337765E+0	1.213382E+0	1.199853E+0	1.291449E+0	1.261407E+0	1.230973E+0	1.262992E+0	1.322373E+0	1.320156E+0	1.263914E+0	1.260859E+0	1.323872E+0	1.313646E+0	1.074253E+0	1.170381E+0	1.331249E+0	1.322336E+0	1.140396E+0	1.210683E+0	1.308466E+0	1.273125E+0	1.314196E+0	1.288243E+0	1.334533E+0	1.332854E+0	1.224611E+0	1.311106E+0	1.305088E+0	1.304200E+0	1.094379E+0	1.204053E+0	1.316901E+0	1.286058E+0	1.225877E+0	1.208947E+0	1.321675E+0	1.293597E+0	1.303496E+0	1.330125E+0	1.347523E+0	1.314684E+0	1.235058E+0	1.269815E+0	1.320508E+0	1.283939E+0	1.093120E+0	1.219755E+0	1.288409E+0	1.304214E+0	1.199441E+0	1.186037E+0	1.431267E+0
5.535100E+2	1.276384E+0	1.219881E+0	1.076419E+0	1.292677E+0	1.269669E+0	1.147419E+0	1.264827E+0	1.285375E+0	1.288309E+0	9.899483E-1	1.248912E+0	1.253249E+0	1.239920E+0	1.208908E+0	1.257638E+0	1.233601E+0	1.247795E+0	1.203782E+0	1.248355E+0	1.199862E+0	1.266765E+0	1.125190E+0	1.236334E+0	1.250665E+0	1.255690E+0	1.223557E+0	1.262551E+0	1.247713E+0	1.274335E+0	1.180297E+0	1.222191E+0	1.266539E+0	1.279937E+0	1.229135E+0	1.248604E+0	1.272201E+0	1.226548E+0	1.207097E+0	1.253694E+0	1.263012E+0	1.255238E+0	1.170901E+0	1.245304E+0	1.313834E+0	1.210711E+0	1.208730E+0	1.245844E+0	1.295634E+0	1.294492E+0	1.219032E+0	1.234099E+0	1.225889E+0	1.235058E+0	1.080621E+0	1.236824E+0	1.242314E+0	1.238141E+0	1.119973E+0	1.194505E+0	1.228724E+0	1.247785E+0	1.218226E+0	1.234072E+0	1.281534E+0	1.224273E+0	1.250817E+0	1.294757E+0	1.278754E+0	1.295823E+0	1.161268E+0	1.256861E+0	1.223636E+0	1.220091E+0	1.193987E+0	1.241129E+0	1.269557E+0	1.257008E+0	1.220712E+0	1.258125E+0	1.285702E+0	1.231169E+0	1.219519E+0	1.260788E+0	1.243347E+0	1.209504E+0	1.159582E+0	1.280298E+0	1.275115E+0	1.284533E+0	1.230962E+0	1.294482E+0	1.276590E+0	1.240293E+0	1.169597E+0	1.287824E+0	1.238798E+0	1.263030E+0	1.158257E+0	1.258549E+0	1.211707E+0	1.220105E+0	1.117668E+0	1.260918E+0	1.287905E+0	1.222663E+0	1.142339E+0	1.274840E+0	1.231938E+0	1.264424E+0	1.244843E+0	1.272078E+0	1.245124E+0	1.193831E+0	1.195209E+0	1.301023E+0	1.261604E+0	1.164083E+0	1.114888E+0	1.301109E+0	1.265728E+0	1.212812E+0	1.139821E+0	1.228659E+0	1.255820E+0	1.263078E+0	1.238032E+0	1.253401E+0	1.275173E+0	1.197366E+0	1.224250E+0	1.269184E+0	1.241517E+0	1.068230E+0	1.147943E+0	1.280785E+0	1.272688E+0	1.139302E+0	1.178433E+0	1.231504E+0	1.310436E+0	1.257809E+0	1.231574E+0	1.210996E+0	1.301912E+0	1.130822E+0	1.235094E+0	1.196632E+0	1.215560E+0	1.014448E+0	1.150770E+0	1.232393E+0	1.247272E+0	1.147486E+0	1.203117E+0	1.213680E+0	1.266651E+0	1.202830E+0	1.220033E+0	1.256666E+0	1.259095E+0	1.157104E+0	1.297721E+0	1.241838E+0	1.277175E+0	1.059720E+0	1.128230E+0	1.276279E+0	1.254843E+0	1.077933E+0	1.171997E+0	1.268658E+0
5.542580E+2	1.163762E+0	1.088089E+0	9.645594E-1	1.142277E+0	1.162587E+0	1.036721E+0	1.093411E+0	1.159204E+0	1.110282E+0	8.939994E-1	1.117786E+0	1.136340E+0	1.168604E+0	1.101563E+0	1.132913E+0	1.156758E+0	1.113160E+0	1.138531E+0	1.176471E+0	1.125988E+0	1.167849E+0	1.035200E+0	1.140181E+0	1.144735E+0	1.164472E+0	1.101082E+0	1.124696E+0	1.096844E+0	1.146378E+0	1.128670E+0	1.156117E+0	1.164460E+0	1.182697E+0	1.114760E+0	1.137405E+0	1.166704E+0	1.151431E+0	1.007891E+0	1.156329E+0	1.160496E+0	1.194716E+0	1.081043E+0	1.122381E+0	1.149520E+0	1.132811E+0	1.079945E+0	1.136216E+0	1.168668E+0	1.127731E+0	1.135689E+0	1.156143E+0	1.154051E+0	1.154790E+0	1.005066E+0	1.150860E+0	1.150354E+0	1.130106E+0	1.023847E+0	1.165420E+0	1.175779E+0	1.145139E+0	1.122109E+0	1.160860E+0	1.194319E+0	1.097882E+0	1.097586E+0	1.172868E+0	1.171017E+0	1.172622E+0	1.047924E+0	1.149588E+0	1.161305E+0	1.148302E+0	1.081507E+0	1.167224E+0	1.184882E+0	1.158094E+0	1.100375E+0	1.159912E+0	1.148133E+0	1.131345E+0	1.131783E+0	1.155585E+0	1.089660E+0	1.155060E+0	1.112600E+0	1.160204E+0	1.160182E+0	1.152948E+0	1.160936E+0	1.074531E+0	1.090926E+0	1.176713E+0	1.159773E+0	1.130947E+0	1.125151E+0	1.116686E+0	1.101591E+0	1.153112E+0	1.197867E+0	1.134024E+0	9.684628E-1	1.133704E+0	1.175668E+0	1.149509E+0	1.030829E+0	1.170396E+0	1.127389E+0	1.161866E+0	1.139846E+0	1.168646E+0	1.155970E+0	1.135272E+0	1.083246E+0	1.128275E+0	1.128667E+0	1.120180E+0	9.966577E-1	1.103570E+0	1.113011E+0	1.139291E+0	1.086783E+0	1.131475E+0	1.160221E+0	1.155697E+0	1.092859E+0	1.177059E+0	1.133936E+0	1.109834E+0	1.089831E+0	1.213859E+0	1.089115E+0	1.124278E+0	1.027591E+0	1.145851E+0	1.151020E+0	1.129992E+0	1.093915E+0	1.170549E+0	1.140789E+0	1.162813E+0	1.168330E+0	1.149486E+0	1.139012E+0	1.107223E+0	1.139777E+0	1.142995E+0	1.138776E+0	1.135586E+0	1.080230E+0	1.130457E+0	1.200930E+0	1.133488E+0	1.051538E+0	1.143659E+0	1.169186E+0	1.158431E+0	1.098622E+0	1.158584E+0	1.147000E+0	1.087465E+0	1.147283E+0	1.153268E+0	1.132302E+0	1.025324E+0	1.089285E+0	1.130203E+0	1.108612E+0	1.103073E+0	1.057333E+0	1.172036E+0
5.550140E+2	1.041946E+0	1.031607E+0	1.033226E+0	1.044571E+0	1.023547E+0	9.222994E-1	9.881743E-1	1.026293E+0	1.060697E+0	8.229265E-1	1.083728E+0	1.044709E+0	1.037694E+0	9.632552E-1	1.032943E+0	1.026981E+0	1.018059E+0	1.051532E+0	1.041484E+0	1.053646E+0	1.017221E+0	9.742684E-1	1.040992E+0	1.049120E+0	1.049750E+0	1.006511E+0	1.024849E+0	1.059127E+0	1.059565E+0	1.013006E+0	1.102338E+0	1.044425E+0	1.093793E+0	1.024463E+0	1.013355E+0	1.055281E+0	1.047909E+0	9.284996E-1	1.049666E+0	1.025534E+0	1.063199E+0	9.860667E-1	1.063329E+0	1.050114E+0	1.002434E+0	1.064120E+0	1.058336E+0	1.042607E+0	1.099067E+0	9.785528E-1	1.059572E+0	1.006386E+0	1.028451E+0	9.189183E-1	1.061713E+0	1.042815E+0	1.080155E+0	9.261464E-1	1.031279E+0	1.024002E+0	1.059513E+0	1.030895E+0	1.118502E+0	1.040655E+0	1.051113E+0	9.946872E-1	1.027561E+0	1.044569E+0	1.045617E+0	9.287215E-1	1.035271E+0	1.024184E+0	1.015554E+0	9.369680E-1	1.031732E+0	1.060954E+0	1.035710E+0	9.771073E-1	1.095246E+0	1.020389E+0	1.040595E+0	9.995852E-1	1.055056E+0	1.033181E+0	1.032061E+0	9.753085E-1	1.096124E+0	1.034092E+0	1.023640E+0	1.001899E+0	1.052904E+0	1.047913E+0	1.050524E+0	1.070838E+0	1.101971E+0	1.043069E+0	1.044349E+0	1.000526E+0	1.059136E+0	1.056692E+0	1.066700E+0	8.982203E-1	1.042980E+0	1.054677E+0	1.026633E+0	9.756206E-1	1.037787E+0	1.025114E+0	1.065279E+0	1.046006E+0	1.054150E+0	1.025784E+0	1.083154E+0	9.546976E-1	1.104384E+0	1.073928E+0	1.052957E+0	9.218270E-1	1.082602E+0	1.083044E+0	1.066910E+0	9.678864E-1	1.051760E+0	1.046620E+0	1.023413E+0	9.746846E-1	1.080711E+0	1.027521E+0	1.034293E+0	1.021529E+0	1.063782E+0	1.022220E+0	1.056187E+0	9.674133E-1	1.057539E+0	1.019532E+0	1.085091E+0	1.024966E+0	1.041868E+0	1.059756E+0	1.050546E+0	1.039819E+0	1.064715E+0	1.015699E+0	1.058210E+0	9.986129E-1	1.049275E+0	1.020212E+0	1.066578E+0	9.645277E-1	1.045422E+0	1.057876E+0	1.054537E+0	1.004898E+0	1.036256E+0	1.015537E+0	1.086158E+0	1.097593E+0	1.039337E+0	1.008931E+0	1.063559E+0	1.028389E+0	1.064146E+0	1.078751E+0	1.121035E+0	9.617352E-1	1.016296E+0	1.047994E+0	9.891060E-1	9.555375E-1	1.134329E+0
5.557600E+2	1.001724E+0	9.945229E-1	9.662207E-1	1.030300E+0	9.517843E-1	8.866423E-1	9.756978E-1	9.853602E-1	1.029631E+0	7.777437E-1	9.452223E-1	1.013113E+0	9.694369E-1	9.224851E-1	9.972389E-1	9.561150E-1	9.315059E-1	9.756846E-1	9.630159E-1	9.583769E-1	1.028461E+0	9.063071E-1	9.245952E-1	9.614725E-1	1.030163E+0	9.646523E-1	1.015771E+0	9.942314E-1	9.762647E-1	9.886822E-1	9.891413E-1	9.778328E-1	9.882204E-1	9.412794E-1	9.608296E-1	9.853052E-1	1.019500E+0	8.919699E-1	9.544904E-1	1.016129E+0	1.000350E+0	9.456869E-1	9.675217E-1	1.011520E+0	9.894510E-1	9.724422E-1	1.008731E+0	1.019563E+0	9.943196E-1	9.047637E-1	9.583466E-1	9.584944E-1	9.838041E-1	8.516579E-1	9.810566E-1	9.880400E-1	1.029041E+0	8.972566E-1	9.553063E-1	9.592910E-1	9.722909E-1	9.166320E-1	1.005543E+0	1.002354E+0	9.848554E-1	9.695217E-1	9.891324E-1	1.052507E+0	9.652280E-1	9.125997E-1	1.000054E+0	9.583647E-1	1.015554E+0	9.070821E-1	9.824622E-1	9.919811E-1	9.787086E-1	9.267230E-1	9.678623E-1	9.938580E-1	1.020025E+0	9.924712E-1	1.010053E+0	9.843052E-1	9.992940E-1	8.896970E-1	9.886471E-1	9.758971E-1	9.997152E-1	9.609524E-1	1.005433E+0	9.352083E-1	9.927684E-1	9.736300E-1	1.004546E+0	9.718140E-1	1.020978E+0	9.502851E-1	9.972497E-1	9.714324E-1	9.772542E-1	8.434792E-1	9.998986E-1	9.784789E-1	1.023204E+0	9.078405E-1	1.002582E+0	1.021137E+0	9.648915E-1	9.765150E-1	9.988381E-1	9.958969E-1	9.918010E-1	9.837241E-1	1.026586E+0	1.014978E+0	9.669830E-1	8.410102E-1	1.015285E+0	9.787350E-1	9.643223E-1	8.746331E-1	9.802352E-1	9.708855E-1	9.913103E-1	9.818154E-1	1.017006E+0	1.009142E+0	9.839324E-1	9.417516E-1	1.018633E+0	9.582349E-1	9.871696E-1	8.669492E-1	9.873292E-1	9.436944E-1	9.887199E-1	9.582413E-1	9.679834E-1	9.886324E-1	9.540261E-1	9.856816E-1	9.825290E-1	9.820261E-1	1.070312E+0	9.292359E-1	9.237284E-1	9.547199E-1	9.940924E-1	9.092139E-1	9.408448E-1	9.631786E-1	9.974240E-1	9.401840E-1	1.055838E+0	9.851519E-1	1.046410E+0	9.509724E-1	1.017139E+0	9.870593E-1	9.549422E-1	9.501375E-1	1.004181E+0	9.592437E-1	9.804592E-1	9.038027E-1	9.572314E-1	9.861273E-1	9.497207E-1	9.110764E-1	1.032995E+0
5.560190E+2	9.994253E-1	9.865356E-1	9.839413E-1	9.880336E-1	1.010091E+0	8.435343E-1	9.257923E-1	9.569479E-1	9.669043E-1	7.929741E-1	9.821194E-1	9.888881E-1	9.317425E-1	9.028744E-1	9.667716E-1	9.424534E-1	9.379174E-1	9.879539E-1	9.602723E-1	9.507356E-1	9.915923E-1	9.063070E-1	9.898781E-1	9.727209E-1	9.949074E-1	9.186590E-1	1.020310E+0	9.592874E-1	9.697413E-1	9.678329E-1	9.855559E-1	1.010689E+0	9.915542E-1	9.773986E-1	9.692109E-1	9.729253E-1	9.809808E-1	9.202197E-1	9.626959E-1	9.954384E-1	9.700886E-1	9.235068E-1	9.819835E-1	9.565529E-1	9.510412E-1	9.571625E-1	9.859123E-1	9.716693E-1	9.646150E-1	9.599730E-1	9.664907E-1	9.710375E-1	9.766795E-1	8.590291E-1	9.322380E-1	9.960806E-1	9.721203E-1	9.208938E-1	9.297833E-1	1.007530E+0	9.940967E-1	9.333053E-1	1.018094E+0	9.986606E-1	9.909799E-1	9.980426E-1	9.687173E-1	9.759577E-1	1.004708E+0	8.998973E-1	9.848838E-1	9.693345E-1	9.654171E-1	9.157761E-1	1.010030E+0	9.510461E-1	9.446195E-1	9.604754E-1	1.032041E+0	9.796100E-1	9.946156E-1	9.628301E-1	9.966099E-1	9.739872E-1	9.463634E-1	9.413770E-1	9.866289E-1	9.681388E-1	9.877531E-1	9.621393E-1	9.954114E-1	9.586205E-1	9.825762E-1	9.731129E-1	1.006045E+0	9.767739E-1	9.831396E-1	9.111443E-1	9.886539E-1	9.553778E-1	9.387825E-1	8.817492E-1	1.005475E+0	1.058281E+0	9.260458E-1	8.652042E-1	9.849790E-1	9.864769E-1	9.784577E-1	9.689067E-1	9.938604E-1	9.908308E-1	9.519814E-1	9.396649E-1	1.011883E+0	1.024603E+0	9.884756E-1	8.704436E-1	1.009214E+0	1.019075E+0	1.008777E+0	9.113517E-1	9.463835E-1	9.845425E-1	9.686169E-1	9.375006E-1	9.406643E-1	1.009625E+0	1.023501E+0	9.597838E-1	9.912881E-1	9.844108E-1	9.913392E-1	8.643993E-1	1.008173E+0	9.747933E-1	9.816020E-1	9.471207E-1	1.012930E+0	9.903811E-1	1.033274E+0	9.750565E-1	9.711572E-1	9.265125E-1	9.529241E-1	9.986119E-1	9.455369E-1	9.801267E-1	1.047711E+0	8.554222E-1	9.725353E-1	9.928977E-1	9.834259E-1	9.384356E-1	9.982792E-1	9.570585E-1	9.736204E-1	9.206195E-1	9.897789E-1	1.015311E+0	9.544224E-1	9.689421E-1	9.788744E-1	1.043236E+0	9.919244E-1	9.028289E-1	9.835992E-1	9.755024E-1	1.031006E+0	9.087372E-1	1.063630E+0
5.565140E+2	9.465623E-1	9.631439E-1	9.424089E-1	1.005050E+0	9.646796E-1	8.594995E-1	9.474900E-1	9.227573E-1	1.036800E+0	9.584724E-1	1.017881E+0	9.709835E-1	9.775873E-1	9.658359E-1	1.007713E+0	1.002220E+0	9.678370E-1	9.517037E-1	9.756367E-1	9.940394E-1	1.005530E+0	9.053697E-1	9.509111E-1	1.019122E+0	9.848346E-1	9.388133E-1	9.754920E-1	9.670533E-1	1.003864E+0	9.976169E-1	1.026020E+0	9.949176E-1	9.921095E-1	9.949100E-1	9.882095E-1	9.982239E-1	9.400529E-1	8.836901E-1	1.010283E+0	9.709846E-1	1.032938E+0	9.371561E-1	9.392010E-1	9.436882E-1	9.970247E-1	9.729878E-1	9.844237E-1	9.775447E-1	9.583612E-1	9.605041E-1	9.763805E-1	9.847205E-1	1.012302E+0	8.461302E-1	1.017670E+0	9.774870E-1	9.715392E-1	8.993575E-1	9.926995E-1	9.875285E-1	9.823963E-1	9.990186E-1	9.757350E-1	1.010659E+0	1.002116E+0	9.421197E-1	9.867305E-1	9.816284E-1	9.990009E-1	9.038055E-1	9.875929E-1	1.014211E+0	1.012135E+0	9.902197E-1	1.021174E+0	9.774011E-1	9.507663E-1	9.580295E-1	1.016482E+0	1.007615E+0	9.885656E-1	1.003142E+0	9.814138E-1	1.008743E+0	9.574539E-1	9.361571E-1	9.730053E-1	9.778372E-1	1.016805E+0	9.704475E-1	9.732579E-1	9.607990E-1	9.995635E-1	9.591522E-1	1.015538E+0	9.943624E-1	9.914868E-1	9.578800E-1	9.892270E-1	1.022920E+0	1.027267E+0	8.647943E-1	1.000405E+0	9.944393E-1	9.374762E-1	8.646572E-1	9.755908E-1	1.014319E+0	9.990774E-1	9.790516E-1	9.938609E-1	9.842458E-1	1.067929E+0	9.189314E-1	9.641027E-1	1.016181E+0	1.001281E+0	8.440034E-1	9.761078E-1	9.729717E-1	9.899691E-1	8.956153E-1	9.856956E-1	1.004408E+0	9.973985E-1	1.005756E+0	1.007529E+0	9.820550E-1	9.959235E-1	9.253595E-1	1.007822E+0	9.867376E-1	9.936543E-1	8.587897E-1	9.895234E-1	9.857056E-1	9.816016E-1	9.309953E-1	9.550536E-1	9.618152E-1	9.712980E-1	9.462175E-1	1.007856E+0	9.934020E-1	9.904392E-1	9.901666E-1	9.779553E-1	9.784327E-1	1.009483E+0	9.366171E-1	1.001056E+0	9.979344E-1	9.537499E-1	9.763301E-1	9.798840E-1	9.662313E-1	9.509059E-1	9.993310E-1	9.841003E-1	9.788565E-1	1.014707E+0	9.707615E-1	9.887771E-1	9.941937E-1	9.954141E-1	8.960126E-1	9.809624E-1	1.050494E+0	1.005028E+0	9.309671E-1	1.021209E+0
5.570100E+2	1.008619E+0	1.009357E+0	1.028242E+0	1.020419E+0	1.030835E+0	1.018627E+0	1.023434E+0	1.007513E+0	1.009320E+0	1.024469E+0	1.003690E+0	1.034704E+0	1.049919E+0	1.000929E+0	1.000095E+0	1.031249E+0	9.881394E-1	9.996649E-1	9.882572E-1	1.003209E+0	1.018570E+0	1.000516E+0	1.029858E+0	9.970937E-1	1.003302E+0	9.853232E-1	1.027685E+0	1.040268E+0	1.035980E+0	1.005063E+0	1.001434E+0	9.800217E-1	9.598824E-1	1.037596E+0	1.045765E+0	9.740015E-1	1.012278E+0	9.830502E-1	9.769170E-1	1.048107E+0	9.828909E-1	1.026445E+0	1.045855E+0	1.005672E+0	9.959425E-1	9.849933E-1	1.008731E+0	1.017758E+0	1.021418E+0	1.008812E+0	1.012450E+0	1.009807E+0	9.890285E-1	9.470211E-1	1.015017E+0	9.870350E-1	1.028461E+0	9.760476E-1	1.005164E+0	9.851749E-1	1.035580E+0	1.000491E+0	1.010250E+0	1.027733E+0	1.000445E+0	9.902135E-1	1.040770E+0	9.907008E-1	9.909135E-1	9.316526E-1	9.951783E-1	1.006731E+0	1.044040E+0	9.146891E-1	1.027626E+0	1.005439E+0	1.007209E+0	1.001566E+0	9.965479E-1	1.051343E+0	1.017605E+0	9.924714E-1	1.017651E+0	1.045672E+0	1.012905E+0	9.424210E-1	9.825917E-1	1.000145E+0	1.017944E+0	9.366225E-1	1.048684E+0	9.929221E-1	1.023830E+0	1.009307E+0	1.000550E+0	1.029090E+0	1.061042E+0	9.572958E-1	1.076327E+0	1.013509E+0	1.017649E+0	8.730295E-1	9.836800E-1	1.019667E+0	1.026633E+0	9.652351E-1	1.014316E+0	1.056364E+0	1.058224E+0	9.973119E-1	1.006029E+0	9.953903E-1	9.918018E-1	9.546972E-1	9.928942E-1	1.011971E+0	1.020487E+0	8.978813E-1	1.027976E+0	1.011584E+0	9.882597E-1	9.597263E-1	1.043024E+0	1.006890E+0	1.010129E+0	1.009831E+0	1.029115E+0	9.699628E-1	9.797362E-1	9.963934E-1	9.868367E-1	1.032109E+0	9.996754E-1	9.312059E-1	1.009819E+0	1.025534E+0	1.000219E+0	1.003837E+0	1.017240E+0	9.991251E-1	1.020574E+0	1.039311E+0	1.011475E+0	1.014333E+0	9.583692E-1	1.008264E+0	1.029236E+0	9.880305E-1	9.945887E-1	8.787656E-1	1.003169E+0	1.029669E+0	9.991041E-1	9.477636E-1	9.763239E-1	1.019550E+0	1.031955E+0	9.797820E-1	1.035206E+0	1.007564E+0	1.041732E+0	9.283001E-1	1.007482E+0	1.045491E+0	1.005883E+0	9.310649E-1	1.009440E+0	9.498805E-1	9.798883E-1	9.473480E-1	1.028280E+0
5.575470E+2	1.045394E+0	1.021338E+0	1.010521E+0	1.021517E+0	1.008970E+0	1.043640E+0	1.032656E+0	1.041221E+0	9.997607E-1	9.980707E-1	9.912015E-1	1.047342E+0	1.040750E+0	1.018476E+0	9.991429E-1	1.040214E+0	1.011113E+0	1.017512E+0	1.057397E+0	1.003719E+0	1.063085E+0	1.069415E+0	9.802631E-1	1.014437E+0	1.062622E+0	1.068525E+0	9.902418E-1	1.039714E+0	9.802787E-1	1.017970E+0	9.911900E-1	1.018575E+0	1.052676E+0	9.987418E-1	9.993853E-1	9.820759E-1	9.930187E-1	1.027373E+0	9.933270E-1	1.006724E+0	1.006169E+0	1.025877E+0	1.019343E+0	1.024385E+0	1.021369E+0	1.010095E+0	1.013195E+0	1.025439E+0	1.007348E+0	1.065615E+0	9.944151E-1	1.013797E+0	1.011827E+0	1.034552E+0	1.032528E+0	9.870352E-1	1.047047E+0	1.063769E+0	9.808286E-1	9.845867E-1	1.010052E+0	1.024030E+0	1.021232E+0	1.000508E+0	1.021047E+0	1.013701E+0	1.025759E+0	9.975050E-1	1.032298E+0	1.008842E+0	1.041230E+0	1.015706E+0	9.950434E-1	1.023365E+0	1.008857E+0	1.000953E+0	1.025092E+0	1.026513E+0	1.015509E+0	1.036112E+0	9.782803E-1	1.003142E+0	1.002455E+0	9.984252E-1	9.927403E-1	9.439870E-1	1.013876E+0	1.006935E+0	1.010538E+0	9.929972E-1	1.027586E+0	9.950998E-1	9.956804E-1	1.022233E+0	9.970523E-1	1.007892E+0	9.937123E-1	9.421069E-1	1.044811E+0	9.957925E-1	1.014283E+0	8.686696E-1	1.013583E+0	1.025331E+0	1.013487E+0	9.220524E-1	9.755909E-1	9.847725E-1	9.871397E-1	9.907175E-1	1.061340E+0	1.027304E+0	1.007613E+0	9.811325E-1	1.005146E+0	1.019189E+0	1.004482E+0	9.243213E-1	1.024113E+0	1.034059E+0	1.028725E+0	9.241739E-1	9.725915E-1	1.015581E+0	1.007915E+0	9.833436E-1	9.975254E-1	1.013979E+0	1.036691E+0	9.789084E-1	9.995548E-1	9.675418E-1	1.004771E+0	9.230462E-1	9.982993E-1	1.030445E+0	1.027050E+0	9.315514E-1	9.741401E-1	1.028274E+0	1.021590E+0	1.000354E+0	1.015610E+0	1.038905E+0	1.039452E+0	1.002232E+0	1.015679E+0	1.045618E+0	1.022389E+0	9.330649E-1	1.022711E+0	9.808084E-1	1.001344E+0	9.664191E-1	1.024981E+0	1.016110E+0	1.041763E+0	1.038430E+0	9.665490E-1	1.042194E+0	9.726121E-1	1.025962E+0	9.755740E-1	1.004341E+0	9.889335E-1	9.232755E-1	1.044245E+0	1.007999E+0	1.025977E+0	9.473479E-1	9.528666E-1
5.580060E+2	1.000574E+0	9.825421E-1	9.856024E-1	1.019322E+0	1.025790E+0	9.968070E-1	9.898018E-1	1.040259E+0	9.967741E-1	1.040207E+0	9.656578E-1	1.052082E+0	9.974529E-1	1.080404E+0	9.943826E-1	9.736184E-1	1.015387E+0	1.025878E+0	1.018986E+0	1.006776E+0	9.569709E-1	1.009889E+0	9.954451E-1	1.017249E+0	9.999441E-1	9.842901E-1	9.647134E-1	1.020300E+0	1.004366E+0	1.017474E+0	1.031142E+0	9.940426E-1	9.604383E-1	9.954581E-1	1.012237E+0	1.018678E+0	9.915749E-1	1.002533E+0	1.003172E+0	1.026005E+0	1.011406E+0	9.889106E-1	1.000060E+0	9.898836E-1	9.943198E-1	9.888132E-1	1.003274E+0	1.010981E+0	9.739951E-1	9.562573E-1	9.891793E-1	1.004105E+0	1.038899E+0	1.079239E+0	9.693825E-1	1.014171E+0	1.012779E+0	1.048010E+0	1.017035E+0	9.522317E-1	1.004201E+0	1.023538E+0	1.004497E+0	1.005123E+0	9.798447E-1	1.043900E+0	1.020955E+0	1.006011E+0	1.008515E+0	1.049393E+0	1.081322E+0	9.852906E-1	1.006438E+0	1.004890E+0	1.021761E+0	1.008243E+0	9.854145E-1	1.036295E+0	9.785587E-1	1.004668E+0	9.522660E-1	9.978064E-1	1.005961E+0	1.001684E+0	1.018954E+0	1.016548E+0	9.881422E-1	1.022453E+0	1.023640E+0	1.016141E+0	9.864442E-1	1.037023E+0	1.024316E+0	1.011376E+0	9.915565E-1	9.740680E-1	9.803575E-1	1.032072E+0	1.000115E+0	1.015723E+0	9.911995E-1	1.053725E+0	1.030309E+0	9.928949E-1	9.729096E-1	1.027550E+0	1.029572E+0	1.005227E+0	9.822556E-1	9.851380E-1	1.037556E+0	9.938707E-1	1.051532E+0	9.821691E-1	1.006983E+0	1.048062E+0	9.605798E-1	9.637321E-1	1.000386E+0	1.011583E+0	9.768613E-1	9.725486E-1	9.955226E-1	1.008132E+0	1.020092E+0	9.925122E-1	1.010688E+0	1.004304E+0	9.881294E-1	9.854650E-1	1.004006E+0	1.011750E+0	1.002917E+0	9.210057E-1	1.006527E+0	9.786125E-1	1.021027E+0	9.504569E-1	9.839919E-1	1.004372E+0	1.011938E+0	1.008450E+0	9.975194E-1	1.005233E+0	1.031586E+0	9.684489E-1	1.006837E+0	9.575430E-1	9.901205E-1	9.234231E-1	9.952463E-1	1.026647E+0	9.991040E-1	9.862415E-1	1.025576E+0	9.696718E-1	1.039182E+0	1.001903E+0	1.022818E+0	1.012121E+0	9.959985E-1	1.022930E+0	9.667716E-1	9.806649E-1	1.012861E+0	9.451831E-1	1.034225E+0	9.898764E-1	9.958100E-1	9.309670E-1	1.002357E+0
5.585160E+2	9.988505E-1	1.033889E+0	1.014951E+0	9.874849E-1	1.001121E+0	1.026610E+0	9.643064E-1	9.800632E-1	1.021267E+0	1.022439E+0	9.633869E-1	1.017326E+0	1.024450E+0	9.890590E-1	9.972388E-1	9.612375E-1	1.013250E+0	9.974346E-1	9.838676E-1	9.848690E-1	1.020369E+0	1.052542E+0	9.610323E-1	1.018186E+0	1.010577E+0	1.019431E+0	9.737897E-1	9.814742E-1	9.742572E-1	9.981134E-1	9.957999E-1	1.013758E+0	1.002111E+0	1.034313E+0	9.803866E-1	9.971473E-1	9.723139E-1	1.046856E+0	9.905917E-1	1.005784E+0	9.497208E-1	1.048626E+0	1.009701E+0	1.052452E+0	1.012172E+0	9.866299E-1	1.004266E+0	1.029955E+0	1.065715E+0	1.024207E+0	9.955788E-1	1.014367E+0	9.752544E-1	1.045608E+0	9.890161E-1	9.945727E-1	9.918685E-1	1.034878E+0	1.007538E+0	1.028120E+0	1.007393E+0	9.965675E-1	1.009204E+0	1.002355E+0	1.025500E+0	1.011464E+0	1.009547E+0	1.025289E+0	1.011369E+0	1.014216E+0	1.037438E+0	9.992522E-1	1.035494E+0	1.026082E+0	9.971262E-1	1.002636E+0	1.061974E+0	9.800421E-1	1.014538E+0	9.737144E-1	1.009741E+0	1.011441E+0	1.019989E+0	1.001684E+0	1.029540E+0	1.062486E+0	1.038601E+0	1.000630E+0	1.035602E+0	1.016735E+0	1.001213E+0	1.023412E+0	1.007329E+0	1.016546E+0	1.030026E+0	1.025481E+0	9.942686E-1	9.993572E-1	9.726094E-1	9.858268E-1	1.018130E+0	1.061474E+0	1.058691E+0	9.964986E-1	1.011773E+0	1.013884E+0	9.808718E-1	9.819313E-1	9.931089E-1	9.937615E-1	1.008242E+0	1.022744E+0	9.836034E-1	1.025192E+0	9.984075E-1	1.028212E+0	1.015914E+0	1.076477E+0	9.871432E-1	9.804634E-1	9.854096E-1	9.760457E-1	1.005897E+0	9.739898E-1	1.002380E+0	1.013906E+0	9.985783E-1	1.024136E+0	1.034893E+0	9.931152E-1	9.900164E-1	9.640515E-1	9.788313E-1	1.058696E+0	9.747137E-1	9.998907E-1	1.038549E+0	1.038311E+0	1.030785E+0	1.055674E+0	9.941578E-1	1.028182E+0	9.964852E-1	1.013879E+0	1.020694E+0	9.889605E-1	1.008016E+0	1.026423E+0	9.717511E-1	1.020857E+0	9.778172E-1	1.017580E+0	1.019262E+0	1.013642E+0	1.019048E+0	1.002924E+0	1.008208E+0	1.021967E+0	1.016622E+0	9.711107E-1	1.041212E+0	9.871404E-1	1.001980E+0	1.002650E+0	1.034795E+0	9.704979E-1	1.012604E+0	9.873766E-1	1.023464E+0	9.356476E-1	1.011783E+0
5.590100E+2	9.821877E-1	9.973756E-1	9.817262E-1	1.052804E+0	9.971971E-1	9.952104E-1	9.773254E-1	1.009920E+0	9.722805E-1	9.950249E-1	9.991486E-1	9.620311E-1	9.882845E-1	1.017959E+0	9.867659E-1	9.889872E-1	9.870703E-1	1.007473E+0	9.739902E-1	1.030721E+0	1.000584E+0	1.009890E+0	9.746964E-1	1.006468E+0	9.865136E-1	9.801558E-1	1.031089E+0	9.842474E-1	1.022431E+0	9.971209E-1	9.988732E-1	9.962310E-1	1.036006E+0	1.028841E+0	9.859743E-1	9.987617E-1	1.016611E+0	1.041011E+0	9.364403E-1	9.935580E-1	1.045159E+0	1.016777E+0	9.874062E-1	1.023799E+0	9.997296E-1	1.014461E+0	9.973213E-1	1.012785E+0	1.038616E+0	1.010935E+0	9.996510E-1	1.055987E+0	9.762043E-1	1.015203E+0	9.985674E-1	1.043820E+0	9.825748E-1	9.865530E-1	1.031874E+0	1.030473E+0	1.001542E+0	9.838162E-1	9.919470E-1	1.013890E+0	9.748334E-1	9.835031E-1	9.675159E-1	1.001475E+0	1.028494E+0	1.033760E+0	9.718815E-1	1.011220E+0	9.802305E-1	1.025539E+0	9.654526E-1	9.942241E-1	1.003297E+0	1.026023E+0	1.040307E+0	1.008598E+0	1.026681E+0	9.640159E-1	9.691405E-1	1.017975E+0	1.005344E+0	1.006108E+0	1.008830E+0	1.030214E+0	9.547140E-1	1.029196E+0	1.027059E+0	1.023957E+0	1.016065E+0	9.824196E-1	1.014539E+0	9.880488E-1	9.681160E-1	1.065371E+0	1.009856E+0	9.703256E-1	9.734065E-1	1.058084E+0	9.897623E-1	1.026875E+0	9.934846E-1	1.064720E+0	1.014904E+0	9.972727E-1	1.016442E+0	1.002384E+0	9.839041E-1	1.002482E+0	1.014640E+0	1.040223E+0	1.015559E+0	9.824954E-1	1.008140E+0	1.037066E+0	1.025216E+0	1.045008E+0	1.007067E+0	1.048317E+0	9.966151E-1	9.926127E-1	9.857750E-1	1.003719E+0	1.005949E+0	1.057027E+0	9.797355E-1	1.069614E+0	1.030714E+0	9.879012E-1	9.885600E-1	1.027590E+0	9.972025E-1	1.024443E+0	9.810544E-1	1.066669E+0	9.722939E-1	1.019530E+0	1.043942E+0	1.013509E+0	1.007857E+0	1.006144E+0	9.904393E-1	1.029982E+0	1.050455E+0	1.006098E+0	1.003525E+0	1.095963E+0	1.012148E+0	9.853423E-1	9.867856E-1	1.019472E+0	9.911583E-1	1.044203E+0	1.010273E+0	9.638338E-1	9.820354E-1	9.948055E-1	9.985969E-1	1.017470E+0	1.042141E+0	1.006031E+0	9.630113E-1	1.082470E+0	9.883452E-1	1.017998E+0	1.038548E+0	1.056163E+0	1.016496E+0
5.595340E+2	1.034476E+0	9.899586E-1	1.021042E+0	1.019870E+0	9.635586E-1	1.051623E+0	9.984813E-1	1.051816E+0	1.054126E+0	1.048330E+0	1.012772E+0	1.019959E+0	1.009168E+0	9.916397E-1	1.029134E+0	1.057289E+0	1.027141E+0	1.023089E+0	1.005817E+0	1.036324E+0	9.983352E-1	1.030511E+0	9.913970E-1	9.952191E-1	9.809168E-1	1.017881E+0	9.720885E-1	1.015309E+0	1.004867E+0	1.013006E+0	1.005532E+0	1.056252E+0	1.036006E+0	9.735673E-1	1.000503E+0	1.054742E+0	1.058983E+0	1.035653E+0	1.022864E+0	1.004374E+0	1.023045E+0	1.022464E+0	9.868038E-1	1.008011E+0	1.008385E+0	1.029195E+0	9.938489E-1	1.022275E+0	9.891084E-1	1.052874E+0	1.027575E+0	1.010947E+0	1.036523E+0	1.018889E+0	1.026161E+0	1.038292E+0	1.009874E+0	1.026473E+0	9.944803E-1	1.048121E+0	1.015902E+0	1.026972E+0	1.024369E+0	1.025425E+0	1.013808E+0	1.050610E+0	1.049177E+0	9.861647E-1	1.003758E+0	1.019590E+0	9.697138E-1	1.016704E+0	1.016693E+0	1.056512E+0	1.042290E+0	1.049179E+0	1.042974E+0	9.976522E-1	1.015024E+0	1.004668E+0	1.002481E+0	1.023891E+0	1.033431E+0	1.013088E+0	1.010889E+0	1.037950E+0	9.941970E-1	1.017119E+0	9.552833E-1	1.052934E+0	1.006488E+0	1.008167E+0	9.947095E-1	9.762149E-1	1.012540E+0	1.021872E+0	1.009849E+0	1.040251E+0	9.840699E-1	9.924705E-1	1.035923E+0	1.111372E+0	1.015104E+0	1.073213E+0	1.025490E+0	1.043401E+0	1.041895E+0	9.870455E-1	1.045201E+0	1.003399E+0	1.011560E+0	1.035915E+0	9.929731E-1	1.086356E+0	1.069467E+0	1.002947E+0	1.031463E+0	1.049538E+0	1.030183E+0	1.018499E+0	1.004787E+0	1.083869E+0	1.024460E+0	9.981999E-1	1.077102E+0	1.007284E+0	1.007529E+0	1.009143E+0	1.008513E+0	1.052675E+0	1.033258E+0	1.032691E+0	1.017277E+0	1.042888E+0	1.006528E+0	1.056633E+0	9.826968E-1	1.023854E+0	1.036942E+0	9.641469E-1	1.029718E+0	1.033241E+0	9.820122E-1	1.005687E+0	1.020089E+0	1.069798E+0	1.002712E+0	1.002146E+0	1.006504E+0	1.076171E+0	1.022183E+0	1.003475E+0	1.025421E+0	1.055035E+0	1.032696E+0	1.005791E+0	9.947861E-1	1.030713E+0	1.033141E+0	1.031260E+0	9.850844E-1	1.049620E+0	1.018484E+0	9.806648E-1	9.999005E-1	1.074192E+0	1.025788E+0	1.007374E+0	9.966481E-1	1.090093E+0	9.528668E-1
5.600180E+2	1.027581E+0	1.027614E+0	1.041532E+0	9.424744E-1	1.027471E+0	1.013305E+0	9.860045E-1	1.004623E+0	9.525659E-1	9.599960E-1	1.016178E+0	9.667710E-1	9.877748E-1	9.792537E-1	9.829579E-1	1.003926E+0	1.019127E+0	1.021973E+0	9.937443E-1	9.807933E-1	1.001485E+0	9.592701E-1	9.939271E-1	9.863134E-1	1.014494E+0	1.049921E+0	1.013502E+0	9.798105E-1	9.913189E-1	1.033359E+0	9.717270E-1	1.042671E+0	1.007668E+0	1.014065E+0	1.010002E+0	1.003068E+0	1.011315E+0	1.012759E+0	9.851221E-1	1.001552E+0	1.020717E+0	9.758293E-1	9.801755E-1	9.957315E-1	1.021909E+0	1.054297E+0	1.025597E+0	9.779956E-1	9.906715E-1	1.001380E+0	1.017686E+0	9.773086E-1	9.595810E-1	1.020269E+0	9.725662E-1	1.003618E+0	9.878025E-1	1.017019E+0	9.885446E-1	1.019295E+0	9.776094E-1	1.003924E+0	9.841024E-1	1.004198E+0	9.915369E-1	1.023208E+0	9.807255E-1	1.039465E+0	1.009943E+0	1.030827E+0	9.707978E-1	9.872850E-1	9.614289E-1	1.011411E+0	9.982989E-1	1.007121E+0	9.932381E-1	1.015751E+0	9.527900E-1	9.874712E-1	1.036361E+0	9.948428E-1	1.017650E+0	9.777887E-1	1.009880E+0	1.041605E+0	9.598861E-1	9.860817E-1	9.940186E-1	1.013174E+0	9.975209E-1	1.008167E+0	1.030140E+0	1.017063E+0	9.840623E-1	1.009245E+0	1.018195E+0	1.056024E+0	1.010429E+0	1.026242E+0	9.676360E-1	1.060505E+0	9.765844E-1	9.789936E-1	9.980572E-1	1.090957E+0	1.009036E+0	1.009205E+0	9.969069E-1	1.055135E+0	9.739481E-1	1.007548E+0	9.689631E-1	1.050590E+0	9.757416E-1	1.019189E+0	9.939641E-1	1.101421E+0	9.799705E-1	9.764298E-1	9.802804E-1	1.076292E+0	1.021185E+0	9.895086E-1	9.785798E-1	9.864000E-1	1.019112E+0	1.019299E+0	9.977215E-1	1.033004E+0	9.982828E-1	1.064683E+0	1.012183E+0	1.113264E+0	1.027371E+0	9.846140E-1	1.004052E+0	1.044984E+0	1.044947E+0	1.032938E+0	9.926339E-1	9.968126E-1	9.990694E-1	9.970418E-1	9.843886E-1	9.853409E-1	9.838499E-1	1.054088E+0	9.921067E-1	1.075663E+0	9.577462E-1	1.004483E+0	1.028781E+0	1.000816E+0	1.005994E+0	1.051656E+0	1.011305E+0	1.004990E+0	9.804862E-1	9.993622E-1	1.012629E+0	9.956323E-1	9.986801E-1	1.003777E+0	9.919240E-1	1.091718E+0	9.999472E-1	1.014248E+0	9.840787E-1	1.072542E+0	1.002357E+0
5.605150E+2	1.007470E+0	9.853945E-1	9.867098E-1	1.014382E+0	9.927114E-1	1.045237E+0	9.925144E-1	9.771738E-1	9.967740E-1	9.630423E-1	1.007663E+0	9.657179E-1	9.709655E-1	1.006606E+0	9.939063E-1	9.552612E-1	9.833307E-1	9.890692E-1	9.871598E-1	9.833405E-1	9.740556E-1	9.709875E-1	9.989877E-1	9.656906E-1	1.006659E+0	9.951424E-1	1.013502E+0	9.992235E-1	9.847952E-1	9.425163E-1	9.727512E-1	9.572428E-1	1.005445E+0	9.615278E-1	9.999440E-1	9.863817E-1	1.007946E+0	1.002533E+0	9.758232E-1	9.653424E-1	9.549579E-1	9.837913E-1	1.004881E+0	9.717564E-1	9.932381E-1	1.016644E+0	9.789674E-1	9.752846E-1	9.661789E-1	9.546644E-1	1.035719E+0	9.653359E-1	1.012302E+0	1.036395E+0	9.773417E-1	9.840197E-1	1.006970E+0	9.996849E-1	9.766733E-1	9.981182E-1	9.940969E-1	9.754800E-1	9.710283E-1	9.682061E-1	1.004900E+0	9.868577E-1	9.374938E-1	1.010547E+0	9.547627E-1	9.956519E-1	1.014683E+0	9.643479E-1	9.790908E-1	9.983695E-1	9.402311E-1	9.841303E-1	9.848556E-1	9.937391E-1	9.493863E-1	9.663447E-1	1.004900E+0	1.015591E+0	9.714783E-1	9.614967E-1	9.690480E-1	1.002975E+0	1.017913E+0	9.860814E-1	1.016804E+0	9.989318E-1	9.484670E-1	9.667877E-1	9.636479E-1	1.028439E+0	9.795660E-1	9.654994E-1	9.898169E-1	9.876735E-1	9.640140E-1	9.908099E-1	9.695593E-1	1.014484E+0	9.730364E-1	9.316279E-1	1.010630E+0	1.037935E+0	1.003756E+0	9.887499E-1	9.600084E-1	1.000355E+0	9.584608E-1	9.700625E-1	9.490535E-1	9.785409E-1	9.922815E-1	9.313655E-1	9.903041E-1	1.077473E+0	9.860396E-1	9.741243E-1	1.036134E+0	1.068716E+0	9.709530E-1	1.007512E+0	9.741517E-1	9.894558E-1	9.864691E-1	9.598051E-1	9.941248E-1	9.636085E-1	9.620356E-1	9.698687E-1	9.802214E-1	1.066857E+0	1.007076E+0	9.556978E-1	9.646268E-1	1.021074E+0	9.926115E-1	9.851341E-1	9.824742E-1	9.775865E-1	9.887314E-1	9.542698E-1	9.644208E-1	9.799111E-1	9.537887E-1	9.643180E-1	1.008489E+0	1.042678E+0	1.018486E+0	9.707343E-1	9.912651E-1	1.030549E+0	9.810707E-1	9.650847E-1	9.524550E-1	9.730938E-1	1.019204E+0	9.957164E-1	9.679349E-1	9.853203E-1	9.964795E-1	9.643176E-1	1.010867E+0	1.076629E+0	9.081881E-1	9.811278E-1	9.924578E-1	1.060843E+0	9.434422E-1
5.610010E+2	9.482856E-1	9.893881E-1	9.872636E-1	9.166761E-1	9.876656E-1	9.494416E-1	1.087986E+0	9.646535E-1	9.603319E-1	9.899482E-1	1.022422E+0	9.630844E-1	9.536466E-1	9.498376E-1	1.008664E+0	9.859979E-1	9.876050E-1	9.662040E-1	1.015145E+0	9.762083E-1	9.610161E-1	9.916103E-1	1.123482E+0	9.802209E-1	9.501374E-1	9.605181E-1	1.037896E+0	9.725996E-1	9.978426E-1	9.777610E-1	1.005532E+0	9.462884E-1	9.476577E-1	9.609802E-1	9.775933E-1	9.869198E-1	9.959059E-1	9.645422E-1	1.105459E+0	9.775692E-1	9.729979E-1	9.741233E-1	1.026573E+0	9.846209E-1	9.559099E-1	9.418826E-1	9.903765E-1	9.499815E-1	9.885876E-1	9.647509E-1	9.513653E-1	9.636253E-1	9.880785E-1	9.566938E-1	1.001751E+0	9.699492E-1	9.610840E-1	9.482082E-1	1.005164E+0	9.663503E-1	9.712278E-1	9.661620E-1	1.007635E+0	9.419032E-1	9.859689E-1	9.544227E-1	9.813263E-1	9.612148E-1	9.609472E-1	1.012262E+0	9.301635E-1	9.992520E-1	9.694059E-1	9.489223E-1	9.771835E-1	9.706726E-1	9.451781E-1	9.643886E-1	1.020857E+0	9.594662E-1	9.831204E-1	9.936567E-1	9.808293E-1	9.734438E-1	9.932448E-1	1.009762E+0	1.022958E+0	9.725025E-1	9.746508E-1	9.728209E-1	9.832793E-1	9.836661E-1	9.447192E-1	9.772492E-1	9.745699E-1	9.844408E-1	9.931553E-1	9.619687E-1	9.485425E-1	9.863808E-1	9.849481E-1	1.033862E+0	9.588447E-1	9.604591E-1	1.010059E+0	9.696080E-1	9.544672E-1	9.751135E-1	9.616358E-1	9.927466E-1	9.650987E-1	9.604375E-1	9.718917E-1	9.821688E-1	9.794168E-1	9.403887E-1	9.733847E-1	1.028087E+0	9.628647E-1	9.752775E-1	1.002508E+0	9.946960E-1	9.840569E-1	1.003166E+0	9.464771E-1	1.007794E+0	9.375055E-1	9.602890E-1	9.845322E-1	1.001858E+0	9.874726E-1	9.826659E-1	1.021910E+0	1.056658E+0	9.829408E-1	9.584258E-1	9.991241E-1	9.882677E-1	9.919960E-1	9.489899E-1	9.316741E-1	9.563360E-1	9.933837E-1	9.711062E-1	1.000121E+0	9.768947E-1	9.714718E-1	9.773037E-1	1.001043E+0	1.016797E+0	9.894363E-1	9.833271E-1	9.951844E-1	1.003731E+0	9.632689E-1	9.587787E-1	9.591656E-1	9.859555E-1	9.598374E-1	9.670093E-1	9.694938E-1	1.016863E+0	1.003631E+0	1.017870E+0	9.964106E-1	1.008958E+0	9.962558E-1	9.936256E-1	9.581011E-1	1.028081E+0	1.068342E+0
