Photon Energy (eV)	#1	#2	#3	#4	#5	#6	#7	#8	#9	#10	#11	#12	#13	#14	#15	#16	#17	#18	#19	#20	#21	#22	#23	#24	#25	#26	#27	#28	#29	#30	#31	#32	#33	#34	#35	#36	#37	#38	#39	#40	#41	#42	#43	#44	#45	#46	#47	#48	#49	#50	#51	#52	#53	#54	#55	#56	#57	#58	#59	#60	#61	#62	#63	#64	#65	#66	#67	#68	#69	#70	#71	#72	#73	#74	#75	#76	#77	#78	#79	#80	#81	#82	#83	#84	#85	#86	#87	#88	#89	#90	#91	#92	#93	#94	#95	#96	#97	#98	#99	#100	#101	#102	#103	#104	#105	#106	#107	#108	#109	#110	#111	#112	#113	#114	#115	#116	#117	#118	#119	#120	#121	#122	#123	#124	#125	#126	#127	#128	#129	#130	#131	#132	#133	#134	#135	#136	#137	#138	#139	#140	#141	#142	#143	#144	#145	#146	#147	#148	#149	#150	#151	#152	#153	#154	#155	#156	#157	#158	#159	#160	#161	#162	#163	#164	#165	#166	#167	#168	#169	#170	
5.300220E+2	-6.970728E-3	6.841380E-4	-1.694665E-2	-4.546398E-4	-9.609051E-3	-4.472264E-3	-1.248113E-2	-6.072189E-3	-9.453590E-3	-4.946501E-3	-7.085190E-3	-4.153624E-3	-1.514759E-3	-7.252280E-3	-3.407849E-3	-8.569779E-3	-6.505948E-3	-7.106890E-3	-6.832813E-3	3.641337E-4	-6.585677E-3	-1.228409E-2	-7.267515E-3	-9.862639E-3	-8.068915E-3	-1.038223E-2	-8.488770E-3	-4.183773E-3	-3.756706E-3	-1.236378E-2	-1.021318E-2	-8.173585E-3	-8.223724E-3	-9.149303E-3	-1.033327E-2	-5.809151E-3	-5.344798E-3	-8.216138E-3	-1.573511E-2	-3.673131E-3	6.141200E-3	-7.722085E-3	-5.750559E-3	-9.309485E-4	-6.671307E-3	-3.970671E-3	-1.527854E-2	-5.259006E-3	-7.186116E-3	-1.784151E-3	-6.746759E-3	-1.193502E-2	-6.554781E-3	-8.841650E-3	-5.848170E-3	-1.426163E-2	-9.243588E-3	-2.700122E-3	-1.233733E-2	-7.631484E-3	-5.603958E-3	-5.999007E-3	-5.576870E-3	-8.291109E-3	-1.359515E-2	-1.322496E-2	-7.021474E-3	-1.056588E-2	-1.375926E-2	-8.697880E-3	-2.700222E-3	-1.076237E-2	-4.299004E-3	-6.336574E-4	-2.059468E-3	-1.230456E-3	-5.683082E-3	-4.597059E-3	-1.070330E-2	-9.035284E-3	-1.003945E-2	-4.904765E-3	-7.330261E-3	-8.781738E-3	-6.237452E-3	-8.312072E-3	-1.114173E-2	-7.997175E-3	-6.521239E-3	-1.240475E-2	-1.170819E-2	-5.782784E-3	-1.474891E-2	-1.352570E-2	-1.047016E-2	-1.016124E-2	-1.677264E-3	-8.034246E-3	-9.028680E-3	-2.851584E-3	-2.237039E-3	-1.278467E-2	-3.699230E-3	-1.184727E-2	-5.993073E-3	-1.261732E-2	-1.084168E-3	-5.277221E-3	-5.800561E-3	-2.096884E-3	-7.262715E-3	-3.814829E-3	-7.641989E-3	-6.826467E-3	-7.263962E-3	-6.966548E-3	-4.083791E-3	-2.554912E-3	-1.268329E-2	5.621803E-3	-1.144582E-2	2.847423E-3	-1.282542E-2	1.775292E-3	-9.938601E-3	-5.225943E-3	-5.083667E-3	-1.511380E-2	-2.991992E-3	-9.707466E-3	-1.368701E-2	-9.501424E-3	-1.181135E-2	-1.699685E-2	-8.526307E-3	-1.155365E-2	-7.194882E-3	-8.148586E-3	-1.846574E-2	-3.261934E-3	-1.153255E-2	-8.656868E-3	-8.711527E-3	-3.421628E-3	-9.774014E-3	-1.063532E-2	-3.375623E-3	-8.146846E-3	-8.757618E-3	-1.809882E-3	-1.259651E-2	-6.171352E-3	-1.031468E-2	-1.097914E-2	-4.713566E-3	-6.189702E-3	-2.676852E-3	-7.454309E-3	-1.600567E-3	-1.557292E-2	2.123512E-4	-1.510985E-2	-6.688853E-3	-7.676258E-3	-9.984051E-3	-9.817590E-3	-1.169592E-2	-9.390680E-3	-7.930448E-3	-1.925563E-2
5.305230E+2	-6.556232E-3	-8.634887E-3	-1.098684E-2	-6.759528E-3	-8.685542E-3	-9.865036E-3	-1.762685E-2	-3.171582E-3	-4.317270E-3	-5.214958E-3	-2.021042E-3	-5.562845E-3	-1.350960E-2	-6.430102E-3	-7.383616E-3	-3.409469E-3	-7.925737E-3	-6.167458E-3	-4.209548E-3	-1.096967E-2	-9.764064E-3	-5.365439E-3	-9.827122E-3	-1.134961E-2	-6.282083E-3	-2.663545E-3	-1.135481E-2	-5.723305E-4	-2.306262E-3	-5.834461E-3	-5.798815E-3	-7.923315E-3	-7.094977E-3	-1.013192E-3	-9.920259E-3	-1.097135E-2	-8.846701E-3	9.699686E-4	-1.102527E-2	8.118052E-4	-1.613992E-2	-3.785690E-3	-1.475588E-2	-9.138388E-3	-1.611011E-2	-8.695929E-4	-7.235551E-3	-7.906619E-3	-1.049829E-2	-3.388601E-3	-7.566442E-3	2.601051E-3	-3.562883E-3	-3.046993E-3	-1.030803E-2	-9.498171E-3	-6.342546E-3	-2.163044E-2	-6.212389E-3	7.355961E-4	2.175391E-3	9.998373E-4	-2.776668E-3	-9.110294E-3	-7.375128E-3	-2.938873E-3	-6.569932E-3	3.015735E-3	-5.492257E-3	-1.850626E-2	-9.778062E-3	-2.563271E-3	-7.052027E-3	-3.746088E-3	-1.276237E-2	-1.441272E-4	-9.975476E-3	-5.454047E-3	-2.127856E-3	-5.519311E-3	-8.755837E-3	-7.541565E-3	-1.301781E-3	-6.939873E-3	-1.391455E-2	-1.191972E-2	-6.851316E-3	-4.502710E-3	-9.793397E-3	-1.569514E-3	-1.399395E-3	-3.321512E-3	-1.605227E-2	-6.675627E-3	-4.456512E-3	-9.161295E-3	2.926952E-3	-9.527985E-3	-6.989946E-3	-2.432794E-3	-1.058056E-2	-7.684916E-3	-2.242008E-4	-3.746983E-3	3.585565E-3	-1.084711E-2	-8.346283E-3	-7.558650E-3	-2.980264E-3	-5.354421E-3	-3.959272E-3	-2.909825E-3	-7.155882E-3	-1.242846E-3	-8.772496E-3	-6.450969E-3	-9.714412E-3	-9.221795E-3	-8.249930E-3	-1.015308E-2	4.270539E-4	-1.606114E-2	-4.997981E-3	-5.389031E-3	-7.096446E-3	-6.691279E-3	-4.196065E-3	-1.005524E-2	-5.170851E-3	-5.231188E-3	-1.243934E-2	-3.795512E-3	-7.327935E-3	-4.567375E-3	-1.063095E-2	-6.821506E-3	-7.380375E-3	-8.419562E-3	-1.551125E-2	-1.502448E-2	-6.834555E-3	-9.973621E-4	-5.754877E-3	1.181249E-3	-3.455811E-3	-1.918176E-3	-6.683400E-3	-1.664977E-2	-7.398693E-3	-1.053670E-2	1.057668E-3	-1.997507E-3	-1.383992E-2	-1.350777E-3	-1.178172E-2	-1.061184E-2	-1.154692E-2	-4.820487E-3	-6.442850E-3	-1.393408E-2	-1.224517E-2	-7.677906E-3	-3.775475E-3	-1.548718E-3	-5.595832E-3	-2.842174E-3	-1.175734E-2	-3.326472E-3	-1.044403E-2	-9.684653E-3
5.310050E+2	-2.697230E-3	-9.929195E-3	-1.400024E-2	-2.725565E-3	-1.963332E-3	-6.713396E-3	-1.692304E-2	-6.309276E-3	-4.317300E-3	-5.214927E-3	-1.659521E-2	1.555029E-3	-2.426059E-3	-8.086699E-3	-6.346436E-3	-1.525713E-2	6.747858E-4	-1.045612E-2	-4.782604E-3	-5.785192E-3	-1.113178E-3	-5.365473E-3	-8.675293E-3	8.140474E-3	-4.974606E-3	-8.595355E-3	-6.246963E-3	-7.555419E-3	-1.025208E-2	-2.236697E-3	-6.316088E-3	-3.181768E-3	-5.913721E-3	-6.089445E-3	-1.056113E-2	2.243266E-3	-1.045472E-2	-1.161101E-2	-7.412604E-3	-5.775845E-3	-1.365503E-2	-5.611842E-3	-1.163382E-2	-5.858324E-3	-5.263106E-3	-8.335104E-3	-1.708054E-4	-9.052279E-3	1.301192E-3	-1.119419E-2	-6.930489E-3	-4.741714E-3	-1.305985E-2	-7.362127E-3	-1.150616E-2	-5.271415E-3	1.855928E-3	-4.407641E-3	-2.767135E-3	-3.126142E-3	-6.991771E-3	-2.634186E-3	-8.335858E-3	-8.543167E-3	-7.375162E-3	3.438904E-4	-1.818023E-2	-1.272560E-2	-4.929439E-3	-3.245873E-3	-5.482263E-3	-4.345695E-3	9.209458E-4	-4.446431E-3	-5.390446E-3	-1.131777E-2	-5.951314E-3	-4.832000E-3	-4.903718E-4	-4.297545E-3	-3.254797E-3	-1.425192E-3	-4.456219E-3	-6.249169E-3	-2.927824E-3	-8.565488E-3	-1.194882E-2	-8.802528E-3	-1.089165E-3	-1.111666E-2	-1.107937E-2	-9.254955E-3	-7.316977E-3	-2.500609E-3	-3.973541E-4	5.640752E-3	-6.741900E-3	-1.173445E-4	-8.446164E-3	-4.526564E-3	-5.103845E-3	-1.513141E-2	-1.485265E-3	-8.740304E-3	-4.880002E-3	-8.888314E-3	-1.026488E-2	-4.745929E-3	-4.194768E-3	-1.162872E-2	-8.056053E-3	-4.733312E-3	-3.211251E-4	-1.487720E-2	-6.775846E-3	-7.175935E-3	-8.415063E-3	-4.864826E-3	-2.420285E-3	-1.222673E-2	-5.283782E-3	-6.142419E-3	-8.890068E-3	-7.680970E-3	-5.860752E-3	-9.111212E-3	-7.827219E-3	2.302189E-3	-7.838833E-3	-1.129436E-2	-6.961961E-3	-1.240215E-2	-4.954367E-3	-3.241990E-3	-4.871600E-3	-9.837725E-3	-1.085854E-2	-6.895744E-3	-6.647658E-3	-1.096324E-2	8.176814E-3	-5.877725E-3	-1.440309E-2	-1.959289E-2	-8.648820E-3	-2.550847E-3	-1.478907E-2	-1.509628E-3	-1.482827E-2	-4.223089E-3	-1.019351E-2	-5.127889E-3	-4.047498E-3	-1.195298E-2	-2.184846E-3	-4.966530E-3	-1.706462E-3	-1.010109E-2	-7.720856E-3	-1.075530E-2	-1.033410E-2	-2.239926E-3	-6.272687E-3	-5.790870E-3	-1.530329E-3	-8.949020E-3	-4.846409E-3	-3.950935E-3	-8.037371E-3	-1.083933E-2
5.315080E+2	-3.983547E-3	-2.810467E-3	-5.713449E-3	-4.070232E-3	-3.796651E-3	-3.561830E-3	3.487859E-3	-1.132964E-2	2.230355E-3	1.533686E-4	1.953767E-3	-4.915757E-3	-1.018452E-2	2.957359E-3	1.432275E-3	1.447963E-4	-1.345462E-2	-8.005452E-3	-1.280515E-2	-4.489082E-3	-6.303709E-3	3.650118E-3	-5.219818E-3	3.444222E-4	-3.013403E-3	-1.345386E-3	-4.331559E-3	-4.381277E-3	2.801777E-3	-1.637100E-3	-1.083896E-4	-9.108704E-3	5.831327E-4	-4.820419E-3	3.537987E-3	-6.102822E-3	-6.166671E-3	-8.016390E-3	-1.102527E-2	-3.979217E-3	-4.957924E-3	-1.350794E-3	-1.018874E-3	-4.546257E-3	4.458136E-4	-2.018142E-3	1.459498E-3	-3.896969E-3	6.801839E-4	5.141948E-4	-5.713266E-4	-5.965534E-3	-7.473388E-3	-1.352660E-2	-1.321782E-3	3.785839E-3	-3.189307E-3	4.866076E-3	-8.279560E-3	-5.516993E-4	-1.329414E-2	3.941625E-4	-6.482809E-3	-5.140312E-3	-5.331314E-4	-7.534778E-3	-3.667389E-3	-1.775139E-3	-4.929465E-3	-6.180557E-3	-3.641225E-3	1.595675E-3	-6.438739E-3	-3.746108E-3	-4.758653E-4	-1.271450E-2	-1.927208E-3	-3.588018E-3	-2.673654E-3	-4.297531E-3	-1.219399E-2	-4.483394E-3	-6.348905E-3	-4.867767E-3	-9.031562E-3	1.497115E-3	-6.851298E-3	-3.274112E-3	-3.265244E-3	-7.025038E-3	-1.399395E-3	2.611985E-3	1.703350E-4	2.370251E-3	-8.515704E-3	-5.608774E-3	-6.051267E-3	-1.461734E-3	-6.989950E-3	-3.130740E-3	3.728506E-4	9.238730E-3	-4.007485E-3	-3.746963E-3	-3.469106E-3	7.435246E-3	3.165134E-3	7.208183E-3	-1.087433E-2	-6.495222E-3	-1.618266E-3	-4.733315E-3	-5.105465E-3	-5.936131E-4	-7.859766E-4	-1.370061E-2	-4.516942E-3	7.370195E-4	-6.954454E-3	-4.623398E-3	-5.918278E-3	-6.850878E-3	-4.349256E-3	6.070573E-3	3.177633E-4	-7.296280E-3	4.881954E-3	-2.900946E-3	8.321639E-4	-1.189099E-3	3.308175E-3	6.245450E-3	-7.327918E-3	-5.230114E-3	-1.063093E-2	-2.598761E-3	-3.902203E-3	-4.610066E-3	5.170392E-3	-6.901962E-3	-1.205256E-3	-4.657650E-3	-4.424426E-3	-9.205808E-3	-6.052350E-3	-1.457209E-2	-7.883013E-4	3.307667E-3	3.459874E-3	-5.485815E-3	-7.693258E-3	-1.371418E-3	-4.700348E-3	2.183279E-3	5.571120E-4	2.795761E-3	-6.011678E-3	-1.186131E-2	4.420318E-3	9.588760E-3	-2.052649E-3	-3.599380E-3	5.945450E-4	5.723835E-4	-3.853484E-3	1.432702E-3	6.211032E-3	-2.702045E-3	1.589175E-3	5.326162E-3
5.320070E+2	2.448122E-3	-2.163341E-3	1.086009E-2	1.308371E-3	6.592270E-3	7.153663E-3	1.474902E-2	1.221187E-3	-4.317288E-3	-5.176406E-4	7.915888E-3	2.202117E-3	3.115719E-3	-4.221277E-3	1.432292E-3	-4.475953E-4	6.047096E-5	6.698443E-3	2.093883E-3	4.583747E-3	6.170154E-4	-1.759246E-3	3.994844E-3	-2.254249E-3	-2.359662E-3	5.245503E-3	1.226897E-2	-1.841999E-3	3.369299E-3	4.359219E-3	-6.256893E-4	7.486810E-3	1.173754E-3	-1.013241E-3	-1.588916E-3	4.329831E-3	3.481518E-3	9.699603E-4	1.787590E-2	-9.848339E-4	-1.117013E-2	-4.394393E-3	2.727576E-3	7.918029E-3	1.016762E-3	-1.235501E-2	-3.431445E-3	1.831189E-3	-1.803952E-3	-2.738170E-3	-1.207238E-3	7.653367E-4	-1.328325E-3	3.524275E-5	-4.916301E-3	-1.044676E-3	-2.558649E-3	-3.082841E-3	1.367189E-3	9.194841E-5	9.623668E-3	-4.451135E-3	8.959445E-3	-4.005995E-3	8.886286E-5	5.596370E-3	1.412114E-3	-1.090712E-3	1.357973E-4	9.666782E-3	-1.161914E-2	-2.563271E-3	7.053996E-3	1.156080E-3	-1.090197E-3	2.649328E-3	2.096914E-3	-4.209979E-3	-4.903768E-4	-1.854036E-3	-5.042610E-4	5.914415E-3	2.483465E-3	2.729922E-3	1.955139E-3	-2.527938E-3	-3.028175E-3	-5.731217E-3	1.086884E-3	-2.056592E-4	3.812864E-3	1.184183E-2	7.033739E-3	2.827562E-4	-1.054528E-2	2.680336E-3	-1.907415E-3	-6.839215E-3	2.475572E-3	-3.130724E-3	-1.452723E-3	-4.300232E-3	-5.268552E-3	-3.122825E-3	3.585555E-3	2.529150E-4	-6.427715E-3	-1.037139E-2	4.913800E-3	9.198825E-4	1.893262E-3	-2.302007E-3	1.729291E-3	3.951160E-3	5.451497E-4	5.873334E-3	1.980016E-3	-1.130232E-3	2.761648E-3	2.979875E-3	1.696141E-3	5.193249E-3	6.678367E-3	-8.051824E-4	4.024862E-3	9.038267E-3	1.250766E-3	-6.152869E-3	-2.502865E-3	4.874060E-3	5.694583E-4	2.659403E-3	5.726713E-3	-2.579312E-3	6.647151E-3	-3.202015E-3	7.923624E-3	-1.562479E-3	1.329533E-2	1.137368E-2	4.569333E-5	-2.217463E-3	2.322985E-4	9.124356E-3	1.737182E-3	1.878000E-3	-2.998962E-3	-2.886045E-3	6.023387E-4	-5.485841E-3	1.293385E-2	-7.006138E-3	1.488445E-2	1.490584E-2	3.299038E-3	-2.143871E-3	1.386303E-4	-3.647048E-3	-4.525833E-3	4.502749E-3	-3.326742E-3	-2.007039E-4	-4.399785E-3	-7.204914E-3	-1.530364E-3	-1.010058E-3	-5.537490E-3	-1.081998E-2	-6.433004E-3	7.074777E-4
5.325070E+2	5.186239E-4	-1.516203E-3	1.990025E-2	-7.086400E-4	4.147796E-3	4.002043E-3	3.487814E-3	1.126188E-2	2.885144E-3	-2.530773E-3	2.616203E-3	-6.856963E-3	2.007339E-3	9.583805E-3	4.543764E-3	1.495435E-2	1.111821E-2	3.635119E-3	6.105135E-3	-3.192992E-3	4.077365E-3	1.245964E-3	2.843012E-3	1.203850E-2	1.267620E-2	4.586405E-3	3.968716E-3	6.972940E-4	2.234181E-3	6.757738E-3	-3.212247E-3	8.079506E-3	5.308131E-3	1.167734E-2	4.819749E-3	-4.711797E-3	6.697569E-3	5.163588E-3	2.221127E-3	2.608436E-3	1.057258E-2	2.301561E-3	8.347274E-3	3.981885E-3	6.725689E-3	8.893003E-3	1.015463E-2	7.559321E-3	1.301183E-3	6.368368E-3	7.059709E-3	1.534703E-4	8.727231E-3	5.583266E-3	1.245710E-2	1.405075E-2	3.747914E-3	1.215266E-2	-6.999824E-4	-3.126139E-3	2.748299E-3	2.816873E-3	8.959436E-3	1.981401E-2	9.418862E-3	3.439266E-4	2.863427E-3	9.625103E-4	1.026626E-2	1.142760E-2	-4.254913E-3	6.348800E-3	-9.190157E-4	5.357922E-3	3.824406E-3	2.649305E-3	-1.352311E-3	6.364401E-3	1.692918E-3	9.752856E-3	1.393598E-2	1.632979E-3	-4.005635E-5	4.111282E-3	7.343912E-4	7.534795E-3	1.863630E-2	2.868540E-3	-1.089185E-3	2.161629E-2	1.498213E-2	-2.002923E-3	9.529559E-3	5.849464E-3	5.014953E-3	6.824902E-3	1.644604E-4	9.965420E-3	9.028686E-3	5.942411E-3	4.632482E-3	1.126956E-2	4.820205E-3	1.435384E-2	2.174584E-3	1.331170E-2	6.070575E-4	1.072410E-2	-2.980270E-3	3.771788E-3	1.374711E-4	-1.086380E-3	-3.210968E-4	7.197460E-3	8.531620E-3	1.384789E-2	9.126620E-3	3.849178E-3	1.247768E-2	4.362311E-3	3.599730E-3	1.369505E-2	-1.105852E-3	-5.389070E-3	2.171313E-3	5.408336E-3	7.907883E-3	1.596033E-2	4.167199E-3	4.200369E-3	4.677534E-3	2.659367E-3	6.913482E-3	7.361272E-3	9.846754E-3	1.067272E-2	-4.239897E-4	1.748486E-2	3.693147E-3	6.635523E-3	8.802304E-3	5.103082E-3	1.353721E-2	5.458310E-3	1.471970E-2	8.204971E-3	8.054201E-3	6.060427E-3	2.888352E-3	7.772741E-3	6.683201E-3	8.019779E-3	-6.006009E-3	-2.057595E-3	2.613557E-3	-7.083539E-3	9.979109E-3	1.747527E-2	5.862821E-4	-1.219020E-3	1.514725E-2	3.198044E-3	6.213214E-3	4.107481E-3	6.019912E-3	1.432702E-3	9.666517E-3	1.852957E-2	8.809042E-3	1.225424E-2
5.330180E+2	1.724099E-2	2.436996E-2	1.688684E-2	1.341023E-2	1.331451E-2	1.345682E-2	2.530634E-2	1.439961E-2	1.728995E-2	1.827143E-2	1.321558E-2	1.773204E-2	2.251188E-2	1.344919E-2	9.729571E-3	1.258483E-2	1.603284E-2	2.140236E-2	2.043109E-2	1.948905E-2	1.907225E-2	1.987816E-2	2.415189E-2	2.943102E-3	1.202247E-2	1.315461E-2	1.418442E-2	1.783750E-2	7.909791E-3	1.095508E-2	2.627441E-2	1.282106E-2	1.416740E-2	1.040826E-2	2.404584E-2	2.102202E-2	2.063380E-2	2.074002E-2	2.510122E-2	1.099279E-2	2.920923E-2	2.056324E-2	2.208428E-2	8.574004E-3	1.985625E-2	1.865552E-2	1.450221E-2	1.672436E-2	1.620580E-2	1.222255E-2	1.596255E-2	1.912241E-2	2.325200E-2	2.715886E-2	2.144334E-2	1.223930E-2	1.573025E-2	1.480231E-2	2.892920E-2	1.360792E-2	1.134251E-2	8.873456E-3	5.253324E-3	1.527686E-2	1.937084E-2	1.741443E-2	3.116349E-2	2.217909E-2	1.870837E-2	1.553619E-2	3.747582E-2	1.229013E-2	1.073384E-2	6.058283E-3	1.795394E-2	2.010822E-2	2.279248E-2	1.631670E-2	1.479264E-2	1.525085E-2	2.081235E-2	1.080752E-2	1.699376E-2	1.999734E-2	2.942186E-2	2.229331E-2	2.118503E-2	2.743920E-2	2.067135E-2	1.070533E-2	6.791363E-3	5.908356E-3	2.138453E-2	1.419947E-2	2.937006E-2	9.785318E-3	1.328643E-2	1.601510E-2	1.995048E-2	1.013000E-2	1.436884E-2	1.939293E-2	9.864528E-3	1.685050E-2	4.996477E-3	1.135289E-2	2.235086E-2	1.002091E-2	2.191639E-2	2.088358E-2	1.886557E-2	1.957967E-2	1.881627E-2	1.239150E-2	1.452151E-2	1.457283E-2	1.562357E-2	1.318557E-2	1.506863E-2	1.403922E-2	1.692495E-2	7.318711E-3	2.549021E-2	1.141839E-2	1.638186E-2	1.387811E-2	3.066349E-3	1.596034E-2	1.350518E-2	1.834769E-2	2.453315E-2	1.413487E-2	1.878138E-2	2.525436E-2	1.816588E-2	2.334094E-2	2.183636E-2	1.215157E-2	1.846578E-2	1.814242E-2	2.547549E-3	1.730399E-2	1.952441E-2	1.645641E-2	1.147411E-2	1.959346E-2	2.058116E-2	1.982419E-2	2.403401E-2	1.976858E-2	9.808568E-3	1.365452E-2	2.402401E-2	9.251378E-3	1.221043E-2	2.819972E-2	1.182418E-2	2.040897E-2	1.528351E-2	2.738981E-2	1.259906E-2	2.562972E-2	1.432904E-2	1.754090E-2	1.647415E-2	1.975344E-2	1.795961E-2	1.166055E-2	2.244663E-2	2.149172E-2
5.331520E+2	1.595464E-2	1.854561E-2	3.496711E-2	2.752909E-2	2.370342E-2	3.173617E-2	2.319488E-2	2.004750E-2	1.663526E-2	1.961346E-2	3.706417E-2	1.643791E-2	9.765843E-3	1.068819E-2	2.424990E-2	2.384007E-2	1.234688E-2	1.772635E-2	2.788059E-2	1.624872E-2	1.907223E-2	3.310100E-2	2.875919E-2	1.983448E-2	1.659859E-2	2.040455E-2	2.886951E-2	1.656789E-2	2.834180E-2	2.594585E-2	2.472251E-2	6.894130E-3	1.121427E-2	4.594187E-2	1.635541E-2	9.893888E-3	2.545791E-2	1.894277E-2	2.028437E-2	2.177259E-2	1.492111E-2	2.665052E-2	3.145047E-2	2.235029E-2	1.072194E-2	1.520990E-2	1.287189E-2	1.729716E-2	1.682687E-2	1.352346E-2	1.596254E-2	1.361527E-2	2.325198E-2	1.174773E-2	3.102864E-2	2.190041E-2	2.203685E-2	3.599954E-2	3.099638E-2	2.261860E-2	9.050703E-3	1.916976E-2	1.946015E-2	2.718688E-2	1.563885E-2	1.544471E-2	2.318141E-2	1.738825E-2	2.658767E-2	7.905982E-3	2.274733E-2	1.347839E-2	2.483995E-2	2.846822E-2	2.962618E-2	1.312465E-2	2.279247E-2	1.756076E-2	2.625490E-2	1.158552E-2	1.806176E-2	1.998209E-2	1.888641E-2	2.828571E-2	2.148700E-2	2.430586E-2	3.329168E-2	1.208255E-2	2.067134E-2	2.025236E-2	2.391745E-2	2.239022E-2	2.076059E-2	2.046199E-2	2.801702E-2	1.689031E-2	2.157397E-2	2.340915E-2	2.213486E-2	2.548458E-2	1.619439E-2	2.751630E-2	2.247542E-2	2.371633E-2	2.122211E-2	2.637053E-2	3.258321E-2	2.338132E-2	2.495260E-2	2.658743E-2	2.062133E-2	2.140314E-2	2.018327E-2	1.953327E-2	1.052823E-2	1.239797E-2	1.887203E-2	1.940984E-2	2.996663E-2	3.131947E-2	2.263575E-2	1.794593E-2	2.354416E-2	2.364195E-2	3.177689E-4	3.263258E-2	2.727424E-2	1.400919E-2	1.550620E-2	2.508450E-2	1.289366E-2	2.489312E-2	3.539639E-2	2.127813E-2	2.072559E-2	2.092792E-2	2.809709E-2	1.062781E-2	1.107951E-2	1.543496E-2	3.006841E-2	1.974415E-2	2.950311E-2	2.073346E-2	1.926357E-2	3.667624E-2	1.468610E-2	2.257691E-2	1.717599E-2	2.545081E-2	9.808554E-3	1.365450E-2	1.292598E-2	3.045572E-2	1.906529E-2	4.207093E-3	2.043456E-2	2.158243E-2	3.956594E-2	1.403903E-2	7.502859E-3	3.106772E-2	-2.974807E-5	1.683386E-2	1.647414E-2	2.097483E-2	1.450411E-2	3.538995E-2	2.485331E-2	1.802764E-2
5.333180E+2	1.273878E-2	1.401547E-2	2.743364E-2	2.147811E-2	2.614789E-2	2.732396E-2	4.149427E-2	2.569541E-2	3.824250E-2	2.363967E-2	3.242697E-2	2.226163E-2	2.140356E-2	1.841903E-2	3.825164E-2	3.213340E-2	1.910440E-2	2.936694E-2	3.189190E-2	2.467348E-2	3.522059E-2	3.370204E-2	4.603667E-2	3.607623E-2	3.882552E-2	4.281362E-2	4.738546E-2	1.656788E-2	2.380136E-2	2.774476E-2	2.834369E-2	1.934072E-2	2.243615E-2	3.007863E-2	1.315105E-2	1.406693E-2	2.224185E-2	4.230738E-2	4.015394E-2	1.698153E-2	1.989089E-2	1.995453E-2	2.520634E-2	2.628641E-2	2.213982E-2	2.899243E-2	2.211044E-2	2.245247E-2	1.744788E-2	3.173651E-2	1.977809E-2	2.646519E-2	3.051435E-2	2.099442E-2	4.061392E-2	3.095770E-2	2.519007E-2	3.202501E-2	5.166796E-2	2.776756E-2	3.311438E-2	1.674710E-2	3.057863E-2	2.775401E-2	3.554290E-2	2.332342E-2	2.173009E-2	1.533501E-2	2.208518E-2	2.844885E-2	4.729479E-2	9.913571E-3	2.974640E-2	3.056912E-2	4.867028E-2	2.290160E-2	2.164275E-2	3.062319E-2	3.062143E-2	2.991213E-2	2.562575E-2	2.426357E-2	2.771880E-2	2.552294E-2	1.965590E-2	1.558488E-2	3.775201E-2	3.788179E-2	2.792491E-2	1.684276E-2	2.615130E-2	2.766438E-2	3.635925E-2	1.907030E-2	1.719249E-2	2.103491E-2	2.157397E-2	1.534289E-2	3.014417E-2	2.618246E-2	3.688416E-2	4.105524E-2	4.202229E-2	2.246802E-2	1.910569E-2	2.049408E-2	3.833896E-2	1.845909E-2	3.284666E-2	3.172094E-2	2.705913E-2	3.599091E-2	3.248591E-2	2.018257E-2	3.515335E-2	2.254743E-2	2.601862E-2	2.563414E-2	3.709175E-2	2.578979E-2	2.327027E-2	3.494941E-2	4.949154E-2	2.669782E-2	2.812099E-2	3.626245E-2	3.756258E-2	3.872399E-2	4.285319E-2	2.238976E-2	2.384842E-2	3.708582E-2	2.649548E-2	3.917121E-2	3.096445E-2	2.032468E-2	4.200981E-2	3.119890E-2	2.363618E-2	3.371062E-2	2.569016E-2	2.706473E-2	1.420244E-2	3.845259E-2	3.484263E-2	4.047243E-2	1.615988E-2	3.978160E-2	2.974907E-2	3.807800E-2	1.293390E-2	3.431513E-2	3.055230E-2	3.611019E-2	3.620252E-2	1.973169E-2	1.981954E-2	1.688859E-2	3.061980E-2	1.086026E-2	2.024351E-2	2.902847E-2	1.495329E-2	3.238838E-2	2.518600E-2	4.234910E-2	2.141501E-2	2.976981E-2	2.485329E-2	1.918234E-2
5.334580E+2	2.881798E-2	3.601870E-2	6.359417E-2	2.752909E-2	2.920339E-2	3.362714E-2	3.938272E-2	3.636363E-2	4.217109E-2	3.907353E-2	4.103893E-2	2.743826E-2	2.583693E-2	3.277632E-2	3.254722E-2	3.983438E-2	3.630544E-2	4.162023E-2	4.621787E-2	2.402543E-2	3.637404E-2	4.452081E-2	4.085340E-2	4.062394E-2	3.751807E-2	3.622274E-2	4.802395E-2	2.672503E-2	2.777426E-2	3.434065E-2	3.351674E-2	3.356550E-2	2.243612E-2	4.150017E-2	3.365891E-2	3.840976E-2	4.421822E-2	3.631638E-2	3.533709E-2	3.554684E-2	4.970955E-2	2.908541E-2	4.830953E-2	3.415859E-2	2.499431E-2	3.243808E-2	3.950066E-2	3.562721E-2	3.048942E-2	4.344488E-2	4.903025E-2	2.279378E-2	3.163164E-2	4.441951E-2	4.960021E-2	2.673092E-2	2.266751E-2	3.070023E-2	2.548397E-2	3.098567E-2	3.597910E-2	4.279068E-2	4.169705E-2	5.157406E-2	2.123691E-2	3.514143E-2	4.567637E-2	2.765434E-2	2.771325E-2	2.962272E-2	5.895482E-2	3.130251E-2	4.630573E-2	4.597595E-2	5.849962E-2	2.848841E-2	3.946390E-2	4.368568E-2	3.771713E-2	3.846451E-2	2.975150E-2	1.753557E-2	4.286002E-2	3.657411E-2	4.162929E-2	3.436845E-2	3.520326E-2	3.542472E-2	1.559390E-2	3.048144E-2	3.061896E-2	3.359788E-2	2.700001E-2	2.394115E-2	3.816495E-2	4.886272E-2	3.814908E-2	2.744226E-2	2.650356E-2	4.153701E-2	2.836482E-2	5.865587E-2	4.832773E-2	2.746129E-2	4.238594E-2	4.269411E-2	3.833893E-2	3.392904E-2	3.831177E-2	3.514328E-2	4.578721E-2	3.599092E-2	4.615545E-2	3.446613E-2	5.445410E-2	4.284625E-2	4.031184E-2	4.119481E-2	6.235350E-2	3.615792E-2	4.040274E-2	4.274265E-2	4.819421E-2	5.038098E-2	2.750315E-2	3.142260E-2	5.632376E-2	3.287049E-2	4.085223E-2	5.607397E-2	3.206452E-2	4.784402E-2	4.607743E-2	4.778637E-2	5.272205E-2	3.600911E-2	3.366217E-2	4.643673E-2	3.471560E-2	2.423436E-2	3.069389E-2	3.682547E-2	4.746468E-2	5.311674E-2	3.549170E-2	4.110513E-2	3.163435E-2	2.945881E-2	5.089474E-2	5.323066E-2	3.856156E-2	3.431517E-2	3.251075E-2	3.540337E-2	4.648488E-2	3.737331E-2	4.073049E-2	4.563845E-2	3.573189E-2	4.836972E-2	3.489525E-2	4.126396E-2	3.118494E-2	3.663053E-2	2.460514E-2	3.563141E-2	3.178138E-2	3.414098E-2	3.046879E-2	5.959619E-2
5.336030E+2	3.332013E-2	3.278292E-2	5.681409E-2	5.442211E-2	5.670358E-2	4.812454E-2	5.416306E-2	4.514923E-2	4.544492E-2	4.444185E-2	5.826298E-2	3.908567E-2	3.414959E-2	4.437263E-2	5.173480E-2	4.872010E-2	4.244858E-2	3.671888E-2	3.876836E-2	4.217101E-2	6.117336E-2	4.872804E-2	4.891632E-2	4.582129E-2	4.732400E-2	4.017728E-2	6.207061E-2	4.767423E-2	4.934149E-2	4.753258E-2	5.317457E-2	4.779017E-2	3.247673E-2	4.784547E-2	5.096255E-2	5.440643E-2	4.046623E-2	5.069466E-2	6.845308E-2	4.812330E-2	5.405808E-2	3.395521E-2	3.020163E-2	3.547061E-2	2.956146E-2	4.105209E-2	4.547859E-2	4.536506E-2	4.663608E-2	5.190088E-2	4.903033E-2	3.074850E-2	5.062559E-2	4.750166E-2	5.259557E-2	3.941118E-2	3.843385E-2	4.262363E-2	5.442412E-2	3.291651E-2	5.374045E-2	5.914361E-2	6.393387E-2	4.703692E-2	4.549494E-2	5.746449E-2	5.220709E-2	4.887092E-2	4.516023E-2	4.370925E-2	6.693283E-2	4.793838E-2	4.078600E-2	5.578033E-2	6.341404E-2	6.131113E-2	3.601463E-2	4.306365E-2	6.009582E-2	4.946046E-2	3.318969E-2	3.527304E-2	5.232326E-2	4.693461E-2	4.529153E-2	4.845625E-2	5.304458E-2	5.508130E-2	3.953051E-2	3.457304E-2	4.402205E-2	3.162001E-2	5.070998E-2	4.968709E-2	4.493031E-2	4.175776E-2	3.262404E-2	4.290254E-2	4.761904E-2	3.246389E-2	3.323302E-2	4.511695E-2	7.418011E-2	4.368956E-2	4.097498E-2	5.901767E-2	6.519896E-2	3.252269E-2	5.288545E-2	3.970644E-2	5.398077E-2	4.753957E-2	4.478855E-2	4.939902E-2	5.645064E-2	4.792098E-2	5.395551E-2	4.990878E-2	6.947860E-2	5.482052E-2	5.753518E-2	4.841054E-2	6.635735E-2	4.044937E-2	5.592429E-2	4.049735E-2	3.998341E-2	4.717906E-2	4.685521E-2	4.866338E-2	3.411863E-2	3.923740E-2	4.311051E-2	5.375067E-2	5.400191E-2	4.988385E-2	5.383562E-2	4.567485E-2	5.687456E-2	3.235683E-2	4.695635E-2	4.658618E-2	4.546895E-2	4.150758E-2	3.224609E-2	4.933013E-2	5.153010E-2	5.492176E-2	4.346531E-2	4.817986E-2	5.043782E-2	4.683679E-2	4.034478E-2	5.590104E-2	8.007392E-2	4.301859E-2	3.519524E-2	5.619970E-2	4.851212E-2	4.201224E-2	4.381368E-2	4.058419E-2	3.992504E-2	3.804455E-2	3.680174E-2	4.967730E-2	3.661904E-2	4.163449E-2	4.410640E-2	3.996657E-2
5.337740E+2	5.004249E-2	5.608050E-2	6.359416E-2	6.652393E-2	5.487020E-2	5.947030E-2	7.879697E-2	6.836835E-2	5.264736E-2	5.987575E-2	8.211165E-2	6.626310E-2	5.687084E-2	6.756518E-2	6.573649E-2	6.945327E-2	5.473501E-2	7.102796E-2	6.226295E-2	6.096472E-2	6.636370E-2	7.938090E-2	6.907335E-2	5.621600E-2	5.582266E-2	6.719995E-2	8.761003E-2	6.354485E-2	4.139561E-2	7.151753E-2	5.938215E-2	7.327616E-2	3.897356E-2	7.068848E-2	5.608940E-2	7.040335E-2	6.673089E-2	6.627133E-2	7.688247E-2	4.632665E-2	6.337642E-2	6.743528E-2	8.202769E-2	6.105518E-2	4.554653E-2	5.483459E-2	5.852118E-2	4.421941E-2	5.222536E-2	5.320182E-2	7.065156E-2	6.623881E-2	5.286018E-2	6.106347E-2	8.554520E-2	6.114862E-2	7.375039E-2	7.243228E-2	6.613821E-2	5.415592E-2	7.207470E-2	7.125687E-2	7.381706E-2	6.461826E-2	5.980096E-2	5.943412E-2	6.164047E-2	5.503061E-2	5.360229E-2	6.659997E-2	8.718438E-2	6.398003E-2	5.734543E-2	7.538903E-2	7.078601E-2	6.759633E-2	5.728511E-2	6.607846E-2	7.483288E-2	6.412176E-2	6.688366E-2	3.343809E-2	6.178654E-2	6.972771E-2	6.604418E-2	5.918970E-2	7.343469E-2	6.613810E-2	6.709385E-2	5.707697E-2	5.816968E-2	5.996896E-2	6.006932E-2	6.708301E-2	7.943359E-2	5.655969E-2	6.024926E-2	6.777345E-2	1.015000E-1	7.224614E-2	5.939955E-2	5.865595E-2	7.039697E-2	6.990451E-2	6.919370E-2	7.599399E-2	7.798958E-2	5.221176E-2	6.442295E-2	6.138135E-2	7.739090E-2	7.610735E-2	7.554510E-2	6.757812E-2	6.377164E-2	7.619446E-2	7.604496E-2	6.360221E-2	7.530834E-2	6.933597E-2	7.149502E-2	7.816673E-2	8.322314E-2	5.496487E-2	6.272076E-2	5.320199E-2	6.056002E-2	6.929235E-2	8.420733E-2	5.405289E-2	5.808232E-2	7.653273E-2	6.743971E-2	5.905236E-2	7.128003E-2	5.893257E-2	7.957414E-2	7.005543E-2	9.159022E-2	6.146249E-2	5.446209E-2	5.207660E-2	7.274399E-2	6.778086E-2	5.301814E-2	5.818790E-2	7.511034E-2	5.767451E-2	7.318337E-2	7.848517E-2	8.606640E-2	6.624531E-2	5.013710E-2	8.417346E-2	7.596083E-2	6.983383E-2	7.086696E-2	6.617399E-2	7.662874E-2	7.252845E-2	6.610986E-2	5.961713E-2	4.367086E-2	6.703263E-2	6.642219E-2	7.899069E-2	9.190636E-2	6.286611E-2	5.694179E-2	7.922567E-2
5.339090E+2	9.249163E-2	7.808363E-2	1.057815E-1	7.728117E-2	1.031480E-1	6.640389E-2	1.062459E-1	9.284216E-2	8.734998E-2	9.544081E-2	7.416201E-2	9.020497E-2	8.291695E-2	6.535637E-2	9.166589E-2	7.360015E-2	7.193616E-2	9.369651E-2	1.018024E-1	9.920017E-2	8.943290E-2	9.080074E-2	9.556563E-2	1.166351E-1	9.243171E-2	9.092719E-2	9.399483E-2	7.687618E-2	9.531342E-2	8.890692E-2	7.386710E-2	8.157402E-2	6.673277E-2	8.274455E-2	8.300616E-2	8.083584E-2	8.977907E-2	8.963577E-2	9.313944E-2	8.764950E-2	9.195243E-2	7.595708E-2	1.088772E-1	8.664003E-2	8.094218E-2	7.493416E-2	8.569357E-2	7.629699E-2	6.402488E-2	7.531764E-2	7.891851E-2	7.847697E-2	6.738482E-2	8.757080E-2	9.393241E-2	8.530149E-2	9.393128E-2	8.634294E-2	1.109263E-1	6.767200E-2	8.353346E-2	9.063801E-2	1.016131E-1	8.957270E-2	7.659498E-2	9.554490E-2	1.225944E-1	9.746387E-2	9.918953E-2	9.066425E-2	1.166413E-1	9.131015E-2	8.494422E-2	9.149631E-2	1.058027E-1	7.667499E-2	7.683097E-2	1.021558E-1	1.015782E-1	7.939401E-2	6.825893E-2	8.236919E-2	1.072103E-1	8.216008E-2	9.534189E-2	8.401101E-2	9.255046E-2	8.026626E-2	8.885468E-2	7.685322E-2	1.192280E-1	8.436201E-2	9.937773E-2	1.039624E-1	1.037886E-1	9.741337E-2	8.234940E-2	6.777347E-2	9.057815E-2	8.969455E-2	9.286805E-2	9.250318E-2	1.252541E-1	8.925388E-2	9.600112E-2	9.492942E-2	1.016519E-1	7.541685E-2	8.081836E-2	9.389350E-2	9.260750E-2	9.191095E-2	8.374697E-2	9.874249E-2	1.130218E-1	7.909427E-2	1.013830E-1	9.098904E-2	1.063996E-1	9.214600E-2	1.000489E-1	8.879403E-2	9.295360E-2	8.170408E-2	8.063837E-2	6.227663E-2	8.779437E-2	9.725925E-2	8.954350E-2	8.436875E-2	1.039556E-1	9.015976E-2	9.592246E-2	1.027911E-1	1.141554E-1	8.306259E-2	9.139995E-2	8.300760E-2	9.897656E-2	7.364640E-2	8.260817E-2	8.867944E-2	1.080021E-1	1.099403E-1	8.417632E-2	9.614947E-2	1.045856E-1	8.451375E-2	8.461324E-2	1.005826E-1	1.160694E-1	7.688866E-2	8.538964E-2	1.082051E-1	1.068080E-1	8.465270E-2	9.054800E-2	9.375047E-2	9.579920E-2	7.634276E-2	7.630254E-2	9.496419E-2	6.739410E-2	7.268871E-2	8.500709E-2	1.070823E-1	1.402829E-1	7.410637E-2	9.464582E-2	1.011645E-1
5.340640E+2	1.175749E-1	9.361549E-2	1.735820E-1	1.001403E-1	1.379815E-1	1.294360E-1	1.562173E-1	1.235923E-1	1.155049E-1	1.518076E-1	1.582949E-1	1.063820E-1	1.106259E-1	1.354861E-1	1.326337E-1	1.203981E-1	1.352109E-1	1.408716E-1	1.442074E-1	1.277145E-1	1.315335E-1	1.418888E-1	1.393349E-1	1.367749E-1	1.244649E-1	1.199271E-1	1.393268E-1	1.403587E-1	1.197185E-1	1.416740E-1	1.204248E-1	1.319533E-1	9.153902E-2	1.322377E-1	1.086406E-1	1.260438E-1	1.353399E-1	1.489458E-1	1.419101E-1	1.163956E-1	1.261196E-1	1.258725E-1	1.457175E-1	1.371531E-1	1.191917E-1	1.203013E-1	1.367770E-1	1.226949E-1	1.292324E-1	1.481695E-1	1.571365E-1	1.262052E-1	1.271598E-1	1.405850E-1	1.646237E-1	1.142845E-1	1.298784E-1	1.254251E-1	1.502026E-1	1.069328E-1	1.253585E-1	1.257665E-1	1.615290E-1	1.298398E-1	1.195129E-1	1.349381E-1	1.588767E-1	1.522162E-1	1.256414E-1	1.276415E-1	1.853744E-1	1.144816E-1	1.475016E-1	1.314138E-1	1.445052E-1	1.283532E-1	1.021255E-1	1.363669E-1	1.354194E-1	1.245994E-1	1.260199E-1	1.141742E-1	1.179354E-1	1.090975E-1	1.374579E-1	1.383492E-1	1.390653E-1	1.177365E-1	1.490586E-1	1.082222E-1	1.497572E-1	1.080958E-1	1.212158E-1	1.185750E-1	1.450572E-1	1.252413E-1	1.438156E-1	1.296144E-1	1.539246E-1	1.224977E-1	1.403329E-1	1.317662E-1	1.712839E-1	1.079786E-1	1.474998E-1	1.099473E-1	1.521740E-1	1.169044E-1	1.275756E-1	1.264059E-1	1.259669E-1	1.405368E-1	1.104025E-1	1.331527E-1	1.522888E-1	1.588398E-1	1.254215E-1	1.208657E-1	1.478549E-1	1.481339E-1	1.298721E-1	1.468890E-1	1.318747E-1	1.359461E-1	1.356272E-1	1.427394E-1	1.670747E-1	1.382332E-1	1.228933E-1	1.180528E-1	1.279193E-1	1.439512E-1	1.333063E-1	1.346008E-1	1.493515E-1	1.458006E-1	1.435726E-1	1.409114E-1	1.595444E-1	1.277963E-1	1.514107E-1	1.197918E-1	1.425950E-1	1.264374E-1	1.205273E-1	1.454997E-1	1.554303E-1	1.540208E-1	1.269049E-1	1.536171E-1	1.573236E-1	1.501400E-1	1.323935E-1	1.456664E-1	1.657598E-1	1.298152E-1	1.225291E-1	1.588775E-1	1.641737E-1	1.259316E-1	1.387318E-1	1.384681E-1	1.154648E-1	1.136960E-1	1.419246E-1	1.589909E-1	1.499580E-1	1.203163E-1	1.516029E-1	1.762188E-1
5.342040E+2	1.831781E-1	1.667435E-1	2.587101E-1	1.909039E-1	2.045929E-1	1.975104E-1	2.505297E-1	1.970147E-1	2.038983E-1	2.148859E-1	2.536890E-1	1.982674E-1	1.804521E-1	1.962286E-1	1.787877E-1	2.021468E-1	1.757563E-1	2.205177E-1	2.129722E-1	1.730785E-1	2.191961E-1	2.146145E-1	2.216910E-1	2.212318E-1	2.048738E-1	2.326311E-1	2.370147E-1	2.038408E-1	2.042848E-1	2.364154E-1	1.969869E-1	2.084110E-1	1.653665E-1	2.058426E-1	2.009260E-1	1.983768E-1	2.018050E-1	2.358143E-1	2.454728E-1	2.014364E-1	1.938329E-1	1.897886E-1	2.119050E-1	1.929143E-1	2.099642E-1	1.978275E-1	2.019905E-1	1.971606E-1	1.900931E-1	1.897997E-1	2.029224E-1	1.892308E-1	2.154251E-1	2.398328E-1	2.401084E-1	1.885544E-1	2.074490E-1	2.095516E-1	2.032589E-1	1.539169E-1	2.095816E-1	2.099542E-1	1.911782E-1	1.950616E-1	1.692733E-1	2.124124E-1	2.292641E-1	2.008088E-1	1.869874E-1	2.057043E-1	2.436744E-1	1.952843E-1	2.026995E-1	1.993440E-1	2.366543E-1	2.037752E-1	1.918062E-1	2.066557E-1	2.167464E-1	2.125675E-1	1.954708E-1	1.759497E-1	1.999501E-1	1.857650E-1	2.204681E-1	1.906750E-1	2.397414E-1	2.074194E-1	2.143402E-1	2.002836E-1	2.554922E-1	2.096239E-1	1.892262E-1	1.992916E-1	2.215051E-1	2.028039E-1	1.818003E-1	1.901113E-1	2.194553E-1	2.160204E-1	2.048364E-1	2.529402E-1	2.444270E-1	2.122145E-1	2.046422E-1	2.255175E-1	2.174057E-1	1.661272E-1	2.125885E-1	2.096826E-1	2.190221E-1	1.994957E-1	1.944705E-1	1.954814E-1	2.175123E-1	2.095871E-1	2.371686E-1	2.285454E-1	2.443678E-1	2.061953E-1	2.263212E-1	2.212794E-1	2.596656E-1	2.314429E-1	1.838194E-1	2.183623E-1	2.269896E-1	2.195322E-1	2.036007E-1	1.935053E-1	2.107651E-1	2.049146E-1	2.146012E-1	2.253917E-1	2.542996E-1	1.856150E-1	2.166146E-1	2.452906E-1	2.304529E-1	1.833004E-1	2.070778E-1	2.125186E-1	2.423812E-1	2.034240E-1	1.795977E-1	2.277503E-1	2.151173E-1	2.207751E-1	2.086301E-1	2.470581E-1	2.467082E-1	2.108700E-1	2.061627E-1	2.304836E-1	2.555591E-1	1.947363E-1	1.846472E-1	2.064033E-1	2.478837E-1	2.257449E-1	1.992499E-1	1.976060E-1	1.991201E-1	2.027808E-1	2.174273E-1	2.163959E-1	2.384174E-1	2.052428E-1	1.933182E-1	2.443447E-1
5.343600E+2	3.130979E-1	2.897030E-1	4.206790E-1	3.374711E-1	3.543154E-1	3.702188E-1	4.004437E-1	3.237782E-1	3.531852E-1	3.886844E-1	4.047301E-1	3.606850E-1	3.245379E-1	3.618896E-1	3.670329E-1	3.579433E-1	3.336368E-1	3.675571E-1	3.745690E-1	3.402776E-1	3.639544E-1	4.021385E-1	3.714286E-1	3.544140E-1	3.794202E-1	3.763130E-1	3.940807E-1	3.485804E-1	3.325525E-1	3.473468E-1	3.449375E-1	3.506583E-1	2.876252E-1	3.511499E-1	3.508898E-1	3.284369E-1	3.567118E-1	4.011641E-1	4.002147E-1	3.050425E-1	3.435475E-1	3.377084E-1	3.842424E-1	3.634780E-1	3.469786E-1	3.149789E-1	3.367650E-1	4.005100E-1	3.229927E-1	3.576194E-1	3.663531E-1	3.318038E-1	3.740804E-1	4.216848E-1	3.922748E-1	3.219983E-1	3.997982E-1	3.903908E-1	3.996388E-1	2.736300E-1	3.637036E-1	3.589476E-1	4.061347E-1	3.652044E-1	3.795092E-1	3.765514E-1	3.968871E-1	3.876517E-1	3.637080E-1	3.853079E-1	4.155066E-1	3.450066E-1	3.682924E-1	3.800245E-1	3.939220E-1	3.518271E-1	3.516219E-1	3.155093E-1	3.586599E-1	3.652891E-1	3.598151E-1	3.080633E-1	3.658719E-1	3.363374E-1	4.182285E-1	3.630817E-1	4.226149E-1	3.339588E-1	3.623119E-1	3.503097E-1	3.962244E-1	3.507089E-1	3.358535E-1	3.593337E-1	3.764309E-1	3.756922E-1	3.171634E-1	3.527808E-1	3.854667E-1	3.472322E-1	3.594008E-1	4.384234E-1	4.285461E-1	3.414162E-1	3.739532E-1	3.894058E-1	3.836822E-1	3.004348E-1	3.565034E-1	3.505693E-1	3.834780E-1	3.587455E-1	3.817439E-1	3.564960E-1	3.685904E-1	4.053257E-1	3.963431E-1	3.704589E-1	4.030635E-1	3.990427E-1	3.906658E-1	4.026502E-1	4.030249E-1	3.636098E-1	3.283965E-1	3.508533E-1	3.649746E-1	4.016416E-1	3.510077E-1	3.531678E-1	3.983658E-1	3.447711E-1	4.104208E-1	4.056475E-1	4.430789E-1	3.406499E-1	3.759150E-1	4.121451E-1	4.077235E-1	3.518422E-1	3.740794E-1	3.802808E-1	4.339718E-1	3.659515E-1	3.256513E-1	3.359410E-1	3.934424E-1	3.597889E-1	3.697939E-1	4.560385E-1	4.367277E-1	3.592514E-1	3.543542E-1	4.170823E-1	4.433833E-1	3.344581E-1	3.334841E-1	3.671679E-1	4.236118E-1	4.240995E-1	3.304785E-1	3.559872E-1	2.971343E-1	3.703453E-1	3.748211E-1	4.325804E-1	4.118815E-1	3.507417E-1	3.617824E-1	4.210106E-1
5.345050E+2	5.337038E-1	5.330326E-1	7.061960E-1	6.164862E-1	6.445941E-1	6.223475E-1	6.714151E-1	7.028135E-1	5.915198E-1	6.436789E-1	6.849519E-1	6.894016E-1	5.417753E-1	6.009934E-1	6.268428E-1	6.363628E-1	5.781368E-1	6.769514E-1	6.238409E-1	5.612650E-1	6.390520E-1	6.930418E-1	6.680255E-1	6.623574E-1	6.311079E-1	6.300627E-1	6.807591E-1	6.025096E-1	5.862507E-1	5.925951E-1	6.108347E-1	6.298183E-1	4.955246E-1	6.087685E-1	5.989067E-1	6.365470E-1	6.177485E-1	6.815393E-1	6.946453E-1	5.721432E-1	6.025962E-1	6.232005E-1	6.683490E-1	6.298202E-1	5.833292E-1	6.336986E-1	5.997919E-1	6.044316E-1	5.415938E-1	6.282127E-1	6.181768E-1	5.930857E-1	6.237936E-1	6.910721E-1	6.738433E-1	6.486645E-1	6.306173E-1	6.487316E-1	7.324509E-1	5.999452E-1	5.837143E-1	6.702591E-1	6.785358E-1	6.425379E-1	5.841479E-1	6.306392E-1	7.074626E-1	6.135060E-1	6.338547E-1	6.588208E-1	7.843322E-1	5.862261E-1	6.332418E-1	6.482438E-1	6.494822E-1	5.697138E-1	5.493797E-1	5.979071E-1	6.310251E-1	5.858188E-1	6.004859E-1	5.196896E-1	6.144406E-1	6.029470E-1	6.355212E-1	6.206858E-1	6.762166E-1	5.557093E-1	6.481004E-1	5.678470E-1	7.104512E-1	5.847508E-1	6.072702E-1	6.112268E-1	7.025192E-1	6.101559E-1	5.872002E-1	5.961117E-1	6.832674E-1	5.887174E-1	6.387121E-1	7.301877E-1	7.349911E-1	5.948274E-1	6.441451E-1	6.819239E-1	6.567588E-1	6.006933E-1	6.066851E-1	6.226457E-1	6.983442E-1	6.280116E-1	6.606037E-1	6.161978E-1	6.754054E-1	7.040096E-1	6.581691E-1	6.486844E-1	7.321142E-1	6.596287E-1	6.178287E-1	6.647877E-1	6.715800E-1	6.348206E-1	6.138435E-1	6.400353E-1	6.476019E-1	6.396841E-1	6.611633E-1	6.084940E-1	6.920918E-1	6.029698E-1	6.869426E-1	7.025398E-1	7.752022E-1	5.795360E-1	6.611259E-1	7.153780E-1	7.548803E-1	6.016098E-1	6.818124E-1	6.236894E-1	7.266795E-1	6.409038E-1	5.710206E-1	6.048367E-1	7.103008E-1	6.708498E-1	6.515457E-1	7.243660E-1	7.498851E-1	6.234571E-1	6.220130E-1	7.330271E-1	6.929006E-1	6.308369E-1	5.856456E-1	6.329572E-1	6.696312E-1	7.152737E-1	5.999431E-1	6.435204E-1	5.412332E-1	6.079052E-1	6.315304E-1	7.147200E-1	6.675848E-1	5.999003E-1	6.257106E-1	7.385480E-1
5.346560E+2	9.073839E-1	8.352532E-1	1.157449E+0	9.513042E-1	1.054651E+0	1.002431E+0	1.132419E+0	1.131426E+0	1.004677E+0	9.409488E-1	1.088391E+0	1.075709E+0	8.637519E-1	9.212708E-1	8.752436E-1	1.051030E+0	8.551962E-1	1.083147E+0	9.590673E-1	9.319542E-1	9.625967E-1	1.058474E+0	9.991765E-1	9.988864E-1	9.540520E-1	1.015630E+0	1.060656E+0	9.142081E-1	8.921642E-1	9.062006E-1	9.155311E-1	1.010922E+0	7.618950E-1	9.387228E-1	8.751219E-1	1.010035E+0	9.066574E-1	1.042194E+0	1.047480E+0	9.835725E-1	9.740860E-1	9.732153E-1	1.009901E+0	9.991556E-1	9.207276E-1	9.036056E-1	8.840132E-1	1.007121E+0	8.893685E-1	9.905221E-1	9.278692E-1	9.333022E-1	9.729471E-1	1.014707E+0	1.068040E+0	9.215900E-1	9.610793E-1	9.806010E-1	1.032877E+0	9.835422E-1	9.240439E-1	9.845989E-1	1.017030E+0	9.805551E-1	8.795982E-1	9.773019E-1	1.027471E+0	9.468117E-1	9.794164E-1	1.039745E+0	1.101608E+0	8.535879E-1	9.380559E-1	1.001901E+0	1.015006E+0	9.335562E-1	8.638368E-1	8.977214E-1	9.956332E-1	9.456313E-1	9.305489E-1	7.716841E-1	9.765671E-1	9.068544E-1	9.431487E-1	9.614743E-1	1.077009E+0	8.788136E-1	9.476707E-1	9.340471E-1	1.033614E+0	8.708764E-1	9.173713E-1	9.361818E-1	1.025225E+0	9.215907E-1	8.517115E-1	9.288442E-1	1.054609E+0	9.286111E-1	1.000174E+0	1.111309E+0	1.110796E+0	8.457420E-1	1.013102E+0	1.052795E+0	1.038554E+0	9.234535E-1	9.667759E-1	9.563235E-1	9.652196E-1	9.149047E-1	1.000976E+0	9.369295E-1	1.004184E+0	1.022267E+0	1.056430E+0	1.050772E+0	1.054040E+0	9.741287E-1	1.022027E+0	9.892716E-1	1.116578E+0	1.009168E+0	9.017617E-1	8.898930E-1	1.048849E+0	1.012357E+0	9.186257E-1	9.278199E-1	1.054285E+0	9.099378E-1	1.056628E+0	1.023953E+0	1.126523E+0	9.191650E-1	9.880745E-1	1.046801E+0	1.127150E+0	9.102653E-1	9.714070E-1	9.146813E-1	1.101213E+0	9.873439E-1	9.345315E-1	9.256136E-1	1.044107E+0	1.026643E+0	9.521569E-1	1.091818E+0	1.088670E+0	9.352457E-1	9.236194E-1	1.111878E+0	1.093226E+0	9.201593E-1	8.919305E-1	9.603536E-1	1.010863E+0	1.011534E+0	8.770527E-1	9.541658E-1	7.847078E-1	1.010202E+0	9.283140E-1	1.045103E+0	1.022115E+0	9.133781E-1	9.498043E-1	1.113818E+0
5.348020E+2	1.170439E+0	1.108352E+0	1.613977E+0	1.317724E+0	1.399930E+0	1.338392E+0	1.544860E+0	1.483479E+0	1.280334E+0	1.403294E+0	1.484545E+0	1.435485E+0	1.174091E+0	1.244861E+0	1.213876E+0	1.356107E+0	1.203518E+0	1.381514E+0	1.320082E+0	1.233949E+0	1.370917E+0	1.500838E+0	1.380436E+0	1.389339E+0	1.280921E+0	1.404494E+0	1.454598E+0	1.287485E+0	1.191836E+0	1.321143E+0	1.227986E+0	1.416921E+0	1.053662E+0	1.341648E+0	1.265412E+0	1.331358E+0	1.273288E+0	1.480728E+0	1.420187E+0	1.445309E+0	1.271029E+0	1.420018E+0	1.412646E+0	1.447871E+0	1.239859E+0	1.321675E+0	1.272032E+0	1.335343E+0	1.170692E+0	1.348927E+0	1.327861E+0	1.343887E+0	1.306458E+0	1.409850E+0	1.421497E+0	1.486161E+0	1.316768E+0	1.419120E+0	1.462846E+0	1.503585E+0	1.232863E+0	1.367380E+0	1.396910E+0	1.395705E+0	1.200551E+0	1.344972E+0	1.388113E+0	1.393043E+0	1.288959E+0	1.411273E+0	1.615877E+0	1.288495E+0	1.315852E+0	1.338051E+0	1.397732E+0	1.316255E+0	1.210489E+0	1.201891E+0	1.330769E+0	1.307275E+0	1.237233E+0	1.089737E+0	1.279390E+0	1.227339E+0	1.342331E+0	1.347879E+0	1.401340E+0	1.236932E+0	1.329207E+0	1.255240E+0	1.464747E+0	1.158320E+0	1.258670E+0	1.324459E+0	1.354018E+0	1.254341E+0	1.177689E+0	1.230655E+0	1.393184E+0	1.262224E+0	1.326343E+0	1.583143E+0	1.560375E+0	1.236469E+0	1.396168E+0	1.440643E+0	1.390291E+0	1.220899E+0	1.324438E+0	1.240381E+0	1.310518E+0	1.339773E+0	1.396028E+0	1.292072E+0	1.283046E+0	1.320225E+0	1.400765E+0	1.453485E+0	1.582592E+0	1.363972E+0	1.368483E+0	1.449782E+0	1.450649E+0	1.313229E+0	1.258263E+0	1.297653E+0	1.378076E+0	1.403894E+0	1.217442E+0	1.274764E+0	1.339108E+0	1.307275E+0	1.322468E+0	1.393077E+0	1.505363E+0	1.238283E+0	1.375544E+0	1.480320E+0	1.492031E+0	1.254796E+0	1.347943E+0	1.225195E+0	1.505017E+0	1.358221E+0	1.237674E+0	1.261574E+0	1.494342E+0	1.393444E+0	1.351069E+0	1.430226E+0	1.487462E+0	1.330927E+0	1.221307E+0	1.514764E+0	1.429118E+0	1.256055E+0	1.249262E+0	1.302418E+0	1.443473E+0	1.443209E+0	1.226147E+0	1.274329E+0	1.087490E+0	1.321293E+0	1.345319E+0	1.437777E+0	1.415344E+0	1.226855E+0	1.259459E+0	1.562988E+0
5.349580E+2	1.571775E+0	1.545179E+0	2.045644E+0	1.668675E+0	1.752541E+0	1.741168E+0	1.989675E+0	1.897027E+0	1.667955E+0	1.785785E+0	1.969466E+0	1.913677E+0	1.534859E+0	1.702085E+0	1.633411E+0	1.815793E+0	1.595456E+0	1.767490E+0	1.602590E+0	1.528166E+0	1.749826E+0	1.880092E+0	1.788183E+0	1.779788E+0	1.776450E+0	1.885629E+0	1.967936E+0	1.644887E+0	1.507963E+0	1.698912E+0	1.633557E+0	1.785578E+0	1.342476E+0	1.788354E+0	1.629425E+0	1.819607E+0	1.651712E+0	1.836590E+0	1.844068E+0	1.898662E+0	1.702157E+0	1.708554E+0	1.779175E+0	1.870342E+0	1.627496E+0	1.694951E+0	1.625815E+0	1.773543E+0	1.536477E+0	1.676113E+0	1.654726E+0	1.726324E+0	1.667340E+0	1.844444E+0	1.833065E+0	1.980690E+0	1.707772E+0	1.792059E+0	1.851473E+0	1.905847E+0	1.618454E+0	1.744101E+0	1.737259E+0	1.770022E+0	1.588678E+0	1.731032E+0	1.805361E+0	1.691447E+0	1.683486E+0	1.738791E+0	1.963226E+0	1.868371E+0	1.670345E+0	1.758939E+0	1.805643E+0	1.928017E+0	1.562886E+0	1.646636E+0	1.704655E+0	1.752613E+0	1.624370E+0	1.402892E+0	1.727951E+0	1.714279E+0	1.759213E+0	1.722881E+0	1.877317E+0	1.755374E+0	1.721623E+0	1.584615E+0	1.913748E+0	1.670576E+0	1.622431E+0	1.635496E+0	1.789030E+0	1.709061E+0	1.508503E+0	1.611112E+0	1.822049E+0	1.611889E+0	1.713359E+0	2.023834E+0	1.925458E+0	1.548553E+0	1.745373E+0	1.836325E+0	1.711972E+0	1.621713E+0	1.608015E+0	1.648210E+0	1.696786E+0	1.722702E+0	1.756903E+0	1.619945E+0	1.771552E+0	1.818273E+0	1.750949E+0	1.856196E+0	1.935612E+0	1.780078E+0	1.692731E+0	1.677205E+0	1.810021E+0	1.728067E+0	1.633918E+0	1.658219E+0	1.674621E+0	1.762254E+0	1.675675E+0	1.681672E+0	1.771138E+0	1.632891E+0	1.723006E+0	1.825166E+0	1.888678E+0	1.559816E+0	1.733799E+0	1.862790E+0	1.885722E+0	1.585110E+0	1.703211E+0	1.581459E+0	1.883539E+0	1.617293E+0	1.587552E+0	1.616519E+0	1.854675E+0	1.732723E+0	1.672253E+0	1.836190E+0	1.863749E+0	1.573850E+0	1.597335E+0	1.961470E+0	1.956256E+0	1.627238E+0	1.509421E+0	1.613387E+0	1.810903E+0	1.742646E+0	1.523002E+0	1.631194E+0	1.396517E+0	1.681169E+0	1.638620E+0	1.831675E+0	1.765035E+0	1.512235E+0	1.581146E+0	1.970593E+0
5.351090E+2	1.741571E+0	1.661669E+0	2.168437E+0	1.901303E+0	1.961541E+0	1.900638E+0	2.174781E+0	2.215195E+0	1.807418E+0	1.939453E+0	2.158929E+0	2.156335E+0	1.692245E+0	1.779394E+0	1.854327E+0	1.976920E+0	1.758863E+0	1.947002E+0	1.861605E+0	1.670739E+0	1.975902E+0	2.112095E+0	2.007031E+0	2.012369E+0	1.886275E+0	2.037877E+0	2.073285E+0	1.766775E+0	1.716256E+0	1.800850E+0	1.778405E+0	1.953904E+0	1.758273E+0	1.876558E+0	1.855654E+0	1.928105E+0	1.869865E+0	2.057655E+0	2.056012E+0	2.032810E+0	1.802175E+0	1.908216E+0	1.987726E+0	2.136688E+0	1.735964E+0	1.781088E+0	1.821998E+0	1.951119E+0	1.685525E+0	1.830923E+0	1.733578E+0	1.917852E+0	1.910909E+0	1.992390E+0	2.094266E+0	2.087563E+0	1.792281E+0	1.921893E+0	2.094707E+0	2.058384E+0	1.804661E+0	1.912475E+0	1.928124E+0	2.041114E+0	1.752886E+0	1.950319E+0	2.008539E+0	1.948099E+0	1.776912E+0	2.003496E+0	2.181697E+0	2.072164E+0	1.878870E+0	1.936815E+0	1.986872E+0	2.146598E+0	1.714653E+0	1.755490E+0	1.851481E+0	2.071494E+0	1.776337E+0	1.538677E+0	1.886300E+0	1.995396E+0	1.978338E+0	1.869125E+0	2.032160E+0	2.102435E+0	1.934150E+0	1.778967E+0	2.062670E+0	2.044386E+0	1.767808E+0	1.864428E+0	2.004167E+0	1.922800E+0	1.703950E+0	1.804703E+0	2.038302E+0	1.758457E+0	1.861232E+0	2.127410E+0	2.123450E+0	1.830051E+0	1.914684E+0	1.938182E+0	1.896155E+0	1.881189E+0	1.812051E+0	1.781679E+0	1.887580E+0	1.830894E+0	1.856690E+0	1.824460E+0	1.931286E+0	1.948040E+0	1.995886E+0	1.945825E+0	2.041193E+0	1.912793E+0	1.903395E+0	1.951386E+0	2.051981E+0	1.853356E+0	1.721650E+0	1.783451E+0	1.920940E+0	1.881928E+0	1.701685E+0	1.864238E+0	1.887535E+0	1.837299E+0	1.958584E+0	2.007407E+0	2.131212E+0	1.745614E+0	1.948054E+0	2.010597E+0	2.040840E+0	1.681225E+0	1.877720E+0	1.720548E+0	2.079788E+0	1.819532E+0	1.751132E+0	1.783549E+0	2.023420E+0	1.910964E+0	1.851703E+0	2.047067E+0	2.093150E+0	1.763550E+0	1.733779E+0	2.072437E+0	2.005613E+0	1.760604E+0	1.664406E+0	1.805249E+0	2.058841E+0	1.891415E+0	1.633212E+0	1.828323E+0	1.556335E+0	1.838835E+0	1.884292E+0	1.964803E+0	1.903256E+0	1.711437E+0	1.824213E+0	2.109154E+0
5.352550E+2	1.792381E+0	1.670730E+0	2.175215E+0	1.929538E+0	1.979263E+0	1.921439E+0	2.206452E+0	2.200756E+0	1.876824E+0	2.049501E+0	2.168867E+0	2.138863E+0	1.738244E+0	1.855598E+0	1.779651E+0	2.091844E+0	1.758248E+0	2.019298E+0	1.934381E+0	1.722583E+0	1.933801E+0	2.158373E+0	2.043888E+0	2.031211E+0	1.880390E+0	2.000311E+0	2.170337E+0	1.832161E+0	1.703772E+0	1.883596E+0	1.876693E+0	1.940269E+0	1.720474E+0	1.917166E+0	1.856932E+0	1.952448E+0	1.870406E+0	2.149917E+0	2.032528E+0	2.133422E+0	1.876099E+0	1.928304E+0	1.999594E+0	2.072393E+0	1.801046E+0	1.861488E+0	1.882320E+0	1.967156E+0	1.714712E+0	1.907680E+0	1.899552E+0	1.944160E+0	1.958393E+0	2.056500E+0	2.099658E+0	2.128018E+0	1.906429E+0	1.943087E+0	2.080236E+0	2.098290E+0	1.839037E+0	1.942154E+0	2.038689E+0	2.036578E+0	1.762215E+0	1.965422E+0	2.092716E+0	1.928934E+0	1.847826E+0	1.952434E+0	2.232018E+0	2.125634E+0	1.854339E+0	1.928414E+0	2.009602E+0	2.141012E+0	1.730175E+0	1.821426E+0	1.872220E+0	1.958479E+0	1.779772E+0	1.567425E+0	1.916585E+0	2.011282E+0	1.897160E+0	1.985852E+0	2.137930E+0	2.158332E+0	1.912388E+0	1.721680E+0	2.070861E+0	2.052296E+0	1.774676E+0	1.919397E+0	1.960190E+0	1.964839E+0	1.741244E+0	1.750927E+0	2.061597E+0	1.920377E+0	1.914782E+0	2.220150E+0	2.248298E+0	2.133396E+0	1.937255E+0	2.067466E+0	1.917899E+0	2.146987E+0	1.891598E+0	1.873512E+0	1.846028E+0	2.038165E+0	1.956482E+0	1.904967E+0	1.901335E+0	1.987912E+0	2.125822E+0	1.998108E+0	2.221911E+0	2.027533E+0	1.954793E+0	1.983974E+0	1.947541E+0	2.006918E+0	1.801972E+0	1.807046E+0	1.957249E+0	1.958675E+0	1.772386E+0	1.837291E+0	1.989550E+0	1.872441E+0	1.910520E+0	1.967646E+0	2.133129E+0	1.692531E+0	1.914660E+0	2.109642E+0	2.119130E+0	1.759747E+0	1.961535E+0	1.782776E+0	2.109059E+0	1.902021E+0	1.801114E+0	1.750017E+0	2.097846E+0	1.970147E+0	1.829988E+0	2.098837E+0	2.146278E+0	1.754159E+0	1.797754E+0	2.115550E+0	2.149564E+0	1.783892E+0	1.748048E+0	1.856880E+0	2.035198E+0	2.010302E+0	1.699464E+0	1.791612E+0	1.525123E+0	1.886203E+0	1.820410E+0	2.049082E+0	1.949557E+0	1.870676E+0	1.837054E+0	2.127626E+0
5.354060E+2	1.603293E+0	1.540652E+0	2.097623E+0	1.700276E+0	1.792876E+0	1.767643E+0	2.024161E+0	1.998687E+0	1.702003E+0	1.806590E+0	1.942304E+0	1.980976E+0	1.538738E+0	1.613735E+0	1.659339E+0	1.814015E+0	1.693127E+0	1.829985E+0	1.740118E+0	1.550200E+0	1.737714E+0	1.957027E+0	1.804884E+0	1.872041E+0	1.762721E+0	1.804560E+0	1.906008E+0	1.640444E+0	1.580046E+0	1.692313E+0	1.645456E+0	1.833587E+0	1.576362E+0	1.700793E+0	1.636476E+0	1.763966E+0	1.734259E+0	1.945028E+0	1.961480E+0	1.910639E+0	1.722035E+0	1.735948E+0	1.812892E+0	1.901176E+0	1.593241E+0	1.731702E+0	1.731243E+0	1.768390E+0	1.596096E+0	1.670909E+0	1.689062E+0	1.789966E+0	1.732702E+0	1.854308E+0	1.934312E+0	1.963177E+0	1.808679E+0	1.740389E+0	1.954826E+0	1.891689E+0	1.606994E+0	1.804669E+0	1.802732E+0	1.850551E+0	1.570641E+0	1.776333E+0	1.859058E+0	1.786579E+0	1.767907E+0	1.850892E+0	2.008024E+0	1.851142E+0	1.680774E+0	1.691705E+0	1.864621E+0	1.946174E+0	1.570935E+0	1.654100E+0	1.713934E+0	1.895558E+0	1.661499E+0	1.410235E+0	1.753187E+0	1.777133E+0	1.722593E+0	1.745020E+0	1.904083E+0	1.918768E+0	1.743384E+0	1.551883E+0	1.848968E+0	1.886817E+0	1.649262E+0	1.703690E+0	1.813384E+0	1.795503E+0	1.576875E+0	1.638002E+0	1.802389E+0	1.676099E+0	1.724922E+0	1.904691E+0	1.955095E+0	1.958007E+0	1.746076E+0	1.851996E+0	1.752262E+0	2.010572E+0	1.675421E+0	1.653344E+0	1.714929E+0	1.889854E+0	1.748701E+0	1.644618E+0	1.768894E+0	1.824797E+0	1.839310E+0	1.905985E+0	1.995204E+0	1.990205E+0	1.749840E+0	1.813940E+0	1.811317E+0	1.902252E+0	1.533205E+0	1.693913E+0	1.807162E+0	1.898189E+0	1.635652E+0	1.658092E+0	1.764979E+0	1.784222E+0	1.798368E+0	1.797991E+0	1.934113E+0	1.925384E+0	1.801971E+0	1.856693E+0	1.927089E+0	1.944531E+0	1.733859E+0	1.655276E+0	1.987317E+0	1.845194E+0	1.589501E+0	1.631701E+0	1.891518E+0	1.785715E+0	1.727117E+0	1.835562E+0	1.918756E+0	1.796732E+0	1.652827E+0	2.016598E+0	1.865770E+0	1.799415E+0	1.569694E+0	1.645069E+0	1.862664E+0	1.833563E+0	1.558677E+0	1.716844E+0	1.355936E+0	1.737023E+0	1.686825E+0	1.842058E+0	1.845203E+0	1.643994E+0	1.704687E+0	1.853968E+0
5.355630E+2	1.436711E+0	1.379508E+0	1.854291E+0	1.506646E+0	1.614433E+0	1.552071E+0	1.804569E+0	1.773401E+0	1.501644E+0	1.588501E+0	1.760129E+0	1.702083E+0	1.361957E+0	1.508816E+0	1.438943E+0	1.651112E+0	1.403169E+0	1.610034E+0	1.501163E+0	1.399852E+0	1.584883E+0	1.706394E+0	1.647658E+0	1.594633E+0	1.561369E+0	1.647697E+0	1.755323E+0	1.438572E+0	1.402967E+0	1.556799E+0	1.458705E+0	1.599469E+0	1.438748E+0	1.497108E+0	1.442932E+0	1.556707E+0	1.530038E+0	1.750922E+0	1.650796E+0	1.727381E+0	1.506475E+0	1.536897E+0	1.680517E+0	1.700436E+0	1.515029E+0	1.466965E+0	1.488866E+0	1.608575E+0	1.379356E+0	1.530409E+0	1.557427E+0	1.629647E+0	1.494718E+0	1.681087E+0	1.742006E+0	1.768748E+0	1.537496E+0	1.578760E+0	1.739155E+0	1.752665E+0	1.468342E+0	1.540599E+0	1.574804E+0	1.616890E+0	1.379687E+0	1.608913E+0	1.677649E+0	1.575781E+0	1.488757E+0	1.668942E+0	1.776052E+0	1.698451E+0	1.481447E+0	1.518728E+0	1.689540E+0	1.745743E+0	1.368577E+0	1.481800E+0	1.529446E+0	1.600502E+0	1.394015E+0	1.188822E+0	1.562656E+0	1.641068E+0	1.565119E+0	1.551818E+0	1.654940E+0	1.725889E+0	1.567121E+0	1.443454E+0	1.667282E+0	1.713428E+0	1.452095E+0	1.527645E+0	1.607718E+0	1.669982E+0	1.395239E+0	1.461889E+0	1.601426E+0	1.532324E+0	1.533240E+0	1.753735E+0	1.780435E+0	1.725815E+0	1.516802E+0	1.604531E+0	1.582789E+0	1.801023E+0	1.462887E+0	1.493063E+0	1.558665E+0	1.693527E+0	1.592187E+0	1.462826E+0	1.579213E+0	1.638481E+0	1.613218E+0	1.638341E+0	1.760073E+0	1.779388E+0	1.570901E+0	1.540468E+0	1.702342E+0	1.743348E+0	1.440527E+0	1.432564E+0	1.546927E+0	1.688760E+0	1.414207E+0	1.505842E+0	1.591070E+0	1.644367E+0	1.620353E+0	1.646896E+0	1.727417E+0	1.776383E+0	1.558497E+0	1.724887E+0	1.747596E+0	1.713040E+0	1.607514E+0	1.409427E+0	1.733196E+0	1.621565E+0	1.436307E+0	1.424813E+0	1.657930E+0	1.664593E+0	1.528235E+0	1.706764E+0	1.737489E+0	1.816140E+0	1.477871E+0	1.709137E+0	1.690286E+0	1.805768E+0	1.408555E+0	1.473157E+0	1.619840E+0	1.713405E+0	1.394961E+0	1.488448E+0	1.286641E+0	1.524208E+0	1.520718E+0	1.716253E+0	1.637188E+0	1.577801E+0	1.472044E+0	1.699241E+0
5.357140E+2	1.175585E+0	1.162713E+0	1.528846E+0	1.295533E+0	1.330876E+0	1.288596E+0	1.518113E+0	1.487242E+0	1.286880E+0	1.340214E+0	1.464671E+0	1.533192E+0	1.234496E+0	1.300635E+0	1.215952E+0	1.452664E+0	1.252662E+0	1.415212E+0	1.312634E+0	1.265055E+0	1.344966E+0	1.528485E+0	1.344727E+0	1.440661E+0	1.345637E+0	1.374831E+0	1.435445E+0	1.253201E+0	1.200347E+0	1.309752E+0	1.245056E+0	1.371875E+0	1.188326E+0	1.365759E+0	1.294891E+0	1.399521E+0	1.338146E+0	1.475336E+0	1.523749E+0	1.436926E+0	1.264198E+0	1.350626E+0	1.400158E+0	1.474767E+0	1.247850E+0	1.295258E+0	1.325834E+0	1.377158E+0	1.204228E+0	1.310550E+0	1.304967E+0	1.318188E+0	1.377401E+0	1.372863E+0	1.453250E+0	1.513334E+0	1.315504E+0	1.374072E+0	1.528304E+0	1.484275E+0	1.286719E+0	1.414014E+0	1.417911E+0	1.335022E+0	1.188734E+0	1.314119E+0	1.341675E+0	1.408786E+0	1.266448E+0	1.435339E+0	1.588877E+0	1.437625E+0	1.251457E+0	1.395475E+0	1.422918E+0	1.511094E+0	1.231184E+0	1.279023E+0	1.302384E+0	1.453277E+0	1.275054E+0	1.090958E+0	1.343739E+0	1.411756E+0	1.404590E+0	1.351905E+0	1.484811E+0	1.462982E+0	1.360395E+0	1.224552E+0	1.460278E+0	1.403573E+0	1.216868E+0	1.342548E+0	1.420997E+0	1.413018E+0	1.208076E+0	1.227968E+0	1.445611E+0	1.320849E+0	1.323299E+0	1.499201E+0	1.549654E+0	1.522336E+0	1.330559E+0	1.416482E+0	1.346804E+0	1.531702E+0	1.324440E+0	1.332783E+0	1.308763E+0	1.429733E+0	1.381674E+0	1.345310E+0	1.383545E+0	1.415920E+0	1.475480E+0	1.459704E+0	1.519763E+0	1.549908E+0	1.331047E+0	1.388854E+0	1.451300E+0	1.503460E+0	1.261351E+0	1.267402E+0	1.306058E+0	1.464378E+0	1.221445E+0	1.334725E+0	1.414425E+0	1.427052E+0	1.374685E+0	1.387779E+0	1.538638E+0	1.536892E+0	1.392239E+0	1.431556E+0	1.537091E+0	1.588495E+0	1.346064E+0	1.227024E+0	1.505682E+0	1.397327E+0	1.280513E+0	1.272962E+0	1.525288E+0	1.457448E+0	1.331635E+0	1.518617E+0	1.473085E+0	1.560700E+0	1.248072E+0	1.505572E+0	1.514115E+0	1.594776E+0	1.216051E+0	1.328821E+0	1.444114E+0	1.530946E+0	1.275834E+0	1.336866E+0	1.090612E+0	1.350987E+0	1.276206E+0	1.454878E+0	1.436078E+0	1.474143E+0	1.353318E+0	1.562988E+0
5.358600E+2	1.071392E+0	1.024869E+0	1.343525E+0	1.146951E+0	1.176264E+0	1.143623E+0	1.299929E+0	1.319060E+0	1.097654E+0	1.181182E+0	1.307668E+0	1.262715E+0	1.035548E+0	1.107365E+0	1.075415E+0	1.193199E+0	1.059151E+0	1.211193E+0	1.141293E+0	1.048604E+0	1.173678E+0	1.248400E+0	1.247973E+0	1.214576E+0	1.175670E+0	1.263447E+0	1.236239E+0	1.140206E+0	1.026109E+0	1.067499E+0	1.107971E+0	1.179248E+0	1.067836E+0	1.144945E+0	1.121215E+0	1.169305E+0	1.135533E+0	1.249481E+0	1.262433E+0	1.287206E+0	1.162937E+0	1.130875E+0	1.221578E+0	1.275340E+0	1.067448E+0	1.141927E+0	1.111715E+0	1.189276E+0	1.038415E+0	1.142730E+0	1.141538E+0	1.243536E+0	1.118752E+0	1.166353E+0	1.277719E+0	1.318297E+0	1.125681E+0	1.230991E+0	1.265088E+0	1.318867E+0	1.109104E+0	1.146314E+0	1.196778E+0	1.193233E+0	1.065576E+0	1.234673E+0	1.263306E+0	1.211678E+0	1.145445E+0	1.223457E+0	1.391271E+0	1.283743E+0	1.168046E+0	1.174177E+0	1.244152E+0	1.286224E+0	1.102411E+0	1.081218E+0	1.138092E+0	1.243132E+0	1.129963E+0	9.882040E-1	1.201161E+0	1.252895E+0	1.174480E+0	1.184867E+0	1.293654E+0	1.361626E+0	1.221854E+0	1.071799E+0	1.225725E+0	1.286879E+0	1.053392E+0	1.080221E+0	1.224801E+0	1.191583E+0	1.058900E+0	1.106301E+0	1.249018E+0	1.159628E+0	1.170561E+0	1.308981E+0	1.340945E+0	1.349446E+0	1.167598E+0	1.260432E+0	1.170937E+0	1.342549E+0	1.177487E+0	1.117174E+0	1.150160E+0	1.251030E+0	1.209437E+0	1.138847E+0	1.210502E+0	1.199882E+0	1.227301E+0	1.274224E+0	1.284633E+0	1.392310E+0	1.152743E+0	1.196855E+0	1.288479E+0	1.307882E+0	1.083410E+0	1.160321E+0	1.189254E+0	1.293325E+0	1.144072E+0	1.175734E+0	1.227509E+0	1.293647E+0	1.276181E+0	1.207523E+0	1.327462E+0	1.353501E+0	1.273980E+0	1.228132E+0	1.297774E+0	1.292024E+0	1.177188E+0	1.137346E+0	1.322071E+0	1.245800E+0	1.075392E+0	1.092012E+0	1.294646E+0	1.222087E+0	1.161327E+0	1.325420E+0	1.270565E+0	1.361606E+0	1.130564E+0	1.310493E+0	1.272824E+0	1.366139E+0	1.044457E+0	1.131678E+0	1.276054E+0	1.282364E+0	1.086001E+0	1.132939E+0	9.582611E-1	1.254126E+0	1.190831E+0	1.328463E+0	1.228060E+0	1.314905E+0	1.210524E+0	1.404797E+0
5.360120E+2	8.713666E-1	8.339592E-1	1.137109E+0	9.566828E-1	9.556503E-1	9.797396E-1	1.064148E+0	1.027253E+0	9.110454E-1	9.986580E-1	1.040694E+0	1.066002E+0	8.316095E-1	9.107793E-1	8.985799E-1	1.023188E+0	8.625669E-1	9.771566E-1	9.241130E-1	8.185439E-1	9.452936E-1	1.029622E+0	9.588626E-1	1.008631E+0	9.971984E-1	1.026834E+0	1.032563E+0	8.875456E-1	8.575429E-1	9.547708E-1	9.455352E-1	1.057154E+0	8.794285E-1	1.002810E+0	9.321594E-1	1.022554E+0	9.345302E-1	1.039199E+0	1.038450E+0	1.051847E+0	9.324643E-1	9.409538E-1	9.905444E-1	1.064102E+0	8.687764E-1	8.794863E-1	9.084670E-1	1.012275E+0	8.676327E-1	9.066120E-1	8.998887E-1	9.669569E-1	9.550690E-1	9.740213E-1	1.018914E+0	1.091868E+0	9.465745E-1	1.012396E+0	1.054239E+0	1.067856E+0	9.228981E-1	9.555269E-1	1.035562E+0	1.023092E+0	8.814643E-1	1.000938E+0	1.034727E+0	9.885612E-1	9.563424E-1	9.992444E-1	1.031649E+0	1.036582E+0	9.067766E-1	1.004001E+0	1.020537E+0	1.091385E+0	8.230203E-1	9.157609E-1	9.912665E-1	1.034821E+0	8.755385E-1	8.034897E-1	9.475466E-1	1.054664E+0	9.925887E-1	1.038622E+0	1.036229E+0	1.048351E+0	9.759598E-1	8.740364E-1	1.064144E+0	1.077889E+0	9.510648E-1	9.821070E-1	1.042138E+0	9.985613E-1	8.786458E-1	8.885131E-1	1.020388E+0	9.334967E-1	9.691392E-1	1.052415E+0	1.108274E+0	1.122247E+0	9.855884E-1	1.024719E+0	1.010415E+0	1.128079E+0	9.455229E-1	9.124046E-1	1.000920E+0	1.019450E+0	9.380962E-1	9.804297E-1	1.014167E+0	9.932682E-1	1.049934E+0	1.063222E+0	1.085779E+0	1.086797E+0	1.001721E+0	9.928138E-1	1.045871E+0	1.071813E+0	9.054688E-1	9.104620E-1	1.024035E+0	1.059186E+0	8.906118E-1	9.345559E-1	9.461062E-1	1.028996E+0	1.003221E+0	1.054436E+0	1.077889E+0	1.125478E+0	9.964229E-1	1.049849E+0	1.088741E+0	1.118066E+0	9.276238E-1	9.140710E-1	1.163080E+0	1.064330E+0	9.007765E-1	9.116937E-1	1.085373E+0	1.033525E+0	9.733022E-1	1.066563E+0	1.076168E+0	1.201956E+0	9.725809E-1	1.097742E+0	1.011653E+0	1.045062E+0	8.679444E-1	9.791286E-1	1.055594E+0	1.127242E+0	9.069930E-1	9.623224E-1	7.728462E-1	1.049795E+0	9.683884E-1	1.086631E+0	1.079475E+0	1.114456E+0	9.834973E-1	1.075713E+0
5.362630E+2	7.028575E-1	6.346359E-1	8.380312E-1	7.005268E-1	7.552053E-1	7.358050E-1	8.741165E-1	8.320878E-1	7.041396E-1	7.335978E-1	8.260564E-1	7.961695E-1	6.764404E-1	6.937635E-1	6.662546E-1	7.767569E-1	6.518553E-1	7.645621E-1	6.943249E-1	6.506971E-1	7.267145E-1	7.615595E-1	7.388631E-1	7.292736E-1	7.389735E-1	7.730848E-1	8.295254E-1	6.799581E-1	6.265472E-1	7.161182E-1	7.008467E-1	7.649533E-1	6.496767E-1	7.299632E-1	7.302850E-1	7.540886E-1	7.276303E-1	8.019571E-1	7.668985E-1	7.721688E-1	7.169007E-1	7.151171E-1	7.801180E-1	8.036640E-1	6.889445E-1	6.825114E-1	7.133718E-1	7.419068E-1	6.987132E-1	7.238312E-1	7.218318E-1	7.791031E-1	7.439024E-1	7.946352E-1	8.517710E-1	8.600010E-1	7.636846E-1	7.560429E-1	8.358091E-1	8.200628E-1	7.258050E-1	7.423329E-1	7.637776E-1	7.724137E-1	6.849116E-1	7.494764E-1	7.988937E-1	7.195887E-1	7.109587E-1	8.125988E-1	8.819087E-1	8.078392E-1	7.007056E-1	7.266786E-1	7.490031E-1	8.106461E-1	6.839003E-1	6.856124E-1	7.243605E-1	7.800810E-1	6.651235E-1	6.016493E-1	7.469260E-1	7.376334E-1	7.185317E-1	7.394255E-1	8.042916E-1	8.327435E-1	7.634317E-1	6.660462E-1	8.199099E-1	7.752815E-1	6.765286E-1	7.183852E-1	8.249719E-1	7.469266E-1	6.597161E-1	6.935787E-1	8.310760E-1	7.394712E-1	7.555481E-1	8.452695E-1	8.409228E-1	8.944265E-1	7.337389E-1	7.550534E-1	7.814659E-1	8.271176E-1	7.026281E-1	7.099156E-1	7.480908E-1	7.556547E-1	7.610745E-1	7.544892E-1	7.439561E-1	7.605565E-1	7.926556E-1	8.074029E-1	8.163202E-1	9.050081E-1	7.390254E-1	7.795616E-1	8.065066E-1	8.227585E-1	6.984887E-1	7.204978E-1	8.442913E-1	8.439067E-1	6.691672E-1	7.236932E-1	8.091711E-1	8.088106E-1	7.664574E-1	8.178505E-1	8.609526E-1	8.678886E-1	7.724274E-1	7.610919E-1	8.139708E-1	8.378396E-1	7.781354E-1	6.871341E-1	8.224745E-1	8.144293E-1	7.268109E-1	7.250488E-1	8.149379E-1	8.153690E-1	6.949798E-1	8.279089E-1	8.792734E-1	8.776458E-1	7.016582E-1	8.779234E-1	8.416519E-1	8.672339E-1	6.766701E-1	7.192068E-1	8.178817E-1	8.627684E-1	6.738392E-1	7.033391E-1	6.398716E-1	7.903172E-1	7.401379E-1	8.228125E-1	7.961278E-1	8.353212E-1	7.388225E-1	8.609434E-1
5.365040E+2	5.446379E-1	5.084408E-1	6.956498E-1	5.869038E-1	5.663717E-1	5.794856E-1	6.277788E-1	6.695536E-1	5.450313E-1	5.873114E-1	6.577910E-1	6.415175E-1	5.096330E-1	5.546083E-1	5.547598E-1	6.079281E-1	5.431203E-1	6.438677E-1	5.751327E-1	4.925707E-1	5.560038E-1	6.605855E-1	6.288634E-1	6.149315E-1	5.873078E-1	5.885395E-1	6.405348E-1	5.510887E-1	4.789827E-1	5.566173E-1	5.389288E-1	6.215208E-1	5.492708E-1	5.852907E-1	5.489188E-1	6.052492E-1	6.005962E-1	6.689587E-1	6.254033E-1	6.110700E-1	5.497923E-1	5.720668E-1	6.127761E-1	6.350678E-1	5.690567E-1	5.217165E-1	5.796844E-1	6.027131E-1	5.521517E-1	5.560115E-1	6.194489E-1	5.900262E-1	5.807782E-1	6.374410E-1	6.756408E-1	7.138765E-1	6.041294E-1	6.262095E-1	6.497646E-1	6.733171E-1	5.728281E-1	6.066641E-1	5.815588E-1	6.362993E-1	5.256794E-1	6.063465E-1	6.182082E-1	6.018709E-1	5.691319E-1	6.382781E-1	6.885978E-1	6.676227E-1	5.872437E-1	6.251336E-1	6.414961E-1	6.982106E-1	5.189106E-1	5.761365E-1	6.141044E-1	5.919278E-1	5.908591E-1	5.019519E-1	6.213799E-1	6.761612E-1	5.909638E-1	5.918400E-1	6.488175E-1	6.582921E-1	5.704879E-1	5.392061E-1	6.940699E-1	6.229890E-1	5.779445E-1	5.826972E-1	6.483968E-1	5.852884E-1	5.326405E-1	5.920788E-1	6.417646E-1	5.684773E-1	5.924642E-1	6.821247E-1	6.668920E-1	6.953184E-1	5.997006E-1	6.120595E-1	6.004801E-1	6.899975E-1	5.544626E-1	5.724513E-1	6.000218E-1	6.116002E-1	6.018244E-1	5.636088E-1	6.108480E-1	6.126647E-1	6.328309E-1	6.710917E-1	6.744657E-1	6.983363E-1	6.000620E-1	6.038586E-1	6.560115E-1	6.325291E-1	5.427907E-1	5.541278E-1	6.403398E-1	6.110669E-1	5.751200E-1	6.111884E-1	6.126693E-1	6.108590E-1	6.234489E-1	6.197015E-1	7.348864E-1	6.513227E-1	5.943447E-1	6.780455E-1	6.640285E-1	6.984032E-1	5.836131E-1	5.449935E-1	6.867649E-1	6.616779E-1	5.924418E-1	5.687731E-1	6.638770E-1	6.261174E-1	5.892514E-1	6.441837E-1	7.255073E-1	6.985873E-1	5.658703E-1	6.743617E-1	6.682229E-1	6.894072E-1	5.573546E-1	5.707637E-1	6.165932E-1	6.834862E-1	5.477067E-1	5.925395E-1	4.837982E-1	6.234598E-1	5.502198E-1	6.072383E-1	6.834808E-1	6.573509E-1	6.120729E-1	6.623388E-1
5.367810E+2	4.758192E-1	4.301357E-1	6.263420E-1	4.840379E-1	5.315380E-1	5.051073E-1	5.524690E-1	5.609892E-1	4.553282E-1	5.087999E-1	5.292732E-1	5.476913E-1	4.420236E-1	4.673603E-1	4.588217E-1	5.291415E-1	4.325425E-1	5.274618E-1	4.908958E-1	4.433185E-1	5.087124E-1	5.722325E-1	5.586013E-1	4.960421E-1	5.010149E-1	5.331761E-1	5.524244E-1	4.882415E-1	4.432262E-1	4.954549E-1	4.758168E-1	5.148353E-1	4.701274E-1	4.958223E-1	4.797046E-1	4.981411E-1	4.762419E-1	5.263744E-1	5.386994E-1	5.493854E-1	4.659273E-1	5.191082E-1	5.272320E-1	5.537224E-1	4.708626E-1	5.073590E-1	4.595832E-1	5.242374E-1	4.285669E-1	4.987702E-1	4.909936E-1	5.055835E-1	4.846916E-1	5.326451E-1	5.534281E-1	5.508454E-1	4.698002E-1	5.102876E-1	5.450290E-1	5.523170E-1	4.891786E-1	4.806861E-1	4.969351E-1	5.421534E-1	4.603694E-1	5.032671E-1	5.688648E-1	4.889443E-1	4.931535E-1	5.161948E-1	5.996131E-1	5.583021E-1	4.719414E-1	5.046796E-1	5.505752E-1	5.669198E-1	4.596988E-1	4.399137E-1	5.054858E-1	5.228975E-1	5.110939E-1	4.328373E-1	5.052974E-1	5.456195E-1	5.158882E-1	5.187178E-1	5.857352E-1	5.716801E-1	4.776425E-1	4.423712E-1	6.069501E-1	5.445355E-1	4.506599E-1	5.117221E-1	5.435344E-1	5.284487E-1	4.387143E-1	4.878900E-1	5.340035E-1	4.812352E-1	4.951008E-1	5.887058E-1	5.742023E-1	5.586258E-1	5.136341E-1	5.402360E-1	5.371677E-1	5.711597E-1	4.785585E-1	4.931669E-1	5.122336E-1	5.575041E-1	5.184394E-1	4.908917E-1	5.263234E-1	5.155200E-1	5.152367E-1	5.410042E-1	5.675886E-1	5.884342E-1	5.340705E-1	5.351364E-1	5.249775E-1	5.645354E-1	4.649415E-1	5.057289E-1	5.634799E-1	5.876527E-1	5.010831E-1	5.438205E-1	5.366703E-1	4.946696E-1	5.652969E-1	5.514428E-1	5.857828E-1	5.741067E-1	5.282591E-1	5.416670E-1	5.399388E-1	5.494905E-1	4.935447E-1	4.955798E-1	6.049394E-1	5.578072E-1	4.600199E-1	4.637457E-1	5.437656E-1	5.249540E-1	4.835231E-1	5.501107E-1	6.211216E-1	5.984141E-1	4.836141E-1	5.273448E-1	5.784239E-1	5.765008E-1	4.933915E-1	5.009426E-1	5.648332E-1	5.798589E-1	4.699891E-1	5.170876E-1	4.219928E-1	5.449801E-1	4.967871E-1	5.272378E-1	5.266024E-1	5.774196E-1	4.756972E-1	5.838204E-1
5.370070E+2	4.121453E-1	4.165449E-1	5.645678E-1	4.598343E-1	4.753160E-1	4.666579E-1	5.017943E-1	4.982349E-1	4.749710E-1	5.081291E-1	5.093996E-1	5.593384E-1	5.173917E-1	4.358845E-1	4.515615E-1	4.930064E-1	5.339058E-1	4.619070E-1	4.662550E-1	3.973069E-1	5.144794E-1	5.325641E-1	4.601199E-1	5.051376E-1	4.709431E-1	4.909943E-1	5.332698E-1	4.279335E-1	4.296050E-1	4.510824E-1	4.732304E-1	4.757174E-1	4.281935E-1	4.888425E-1	4.380480E-1	4.605835E-1	4.531939E-1	5.347619E-1	5.230444E-1	4.996784E-1	4.696547E-1	4.588444E-1	5.116219E-1	5.169855E-1	4.525942E-1	4.510808E-1	4.769733E-1	5.030436E-1	4.341563E-1	4.610431E-1	4.432996E-1	5.184335E-1	4.623459E-1	4.999733E-1	5.318607E-1	5.496382E-1	4.628633E-1	4.672300E-1	5.326261E-1	5.806362E-1	4.845950E-1	4.794747E-1	4.895228E-1	5.171989E-1	4.186954E-1	4.697829E-1	5.275031E-1	5.005790E-1	4.436265E-1	5.091517E-1	5.597235E-1	5.588959E-1	4.449563E-1	4.892730E-1	5.075726E-1	5.655237E-1	4.424523E-1	4.374256E-1	4.820154E-1	4.850227E-1	4.423310E-1	4.077603E-1	4.800621E-1	5.449282E-1	4.652273E-1	5.066420E-1	5.137331E-1	5.268386E-1	4.798189E-1	4.566915E-1	5.309993E-1	4.924528E-1	4.300693E-1	4.671888E-1	5.124140E-1	5.142388E-1	4.552900E-1	4.354595E-1	4.925005E-1	4.672768E-1	4.871906E-1	5.392884E-1	5.584389E-1	5.392767E-1	4.882377E-1	4.958356E-1	4.796104E-1	5.943647E-1	4.931314E-1	4.886039E-1	4.870676E-1	5.167796E-1	4.917839E-1	4.668696E-1	4.810672E-1	5.147948E-1	5.204340E-1	5.167297E-1	5.423269E-1	5.483444E-1	4.985362E-1	5.195490E-1	5.334104E-1	5.385604E-1	4.365205E-1	4.706399E-1	4.987236E-1	4.959483E-1	4.717352E-1	4.872312E-1	4.894278E-1	5.097311E-1	5.261330E-1	5.487918E-1	5.473874E-1	5.795363E-1	5.018251E-1	5.409050E-1	5.761320E-1	5.481366E-1	5.073050E-1	4.534866E-1	5.949612E-1	5.138146E-1	4.898797E-1	4.763995E-1	5.179752E-1	5.084371E-1	4.772368E-1	5.299074E-1	5.686162E-1	5.627276E-1	4.594594E-1	5.428948E-1	5.112460E-1	5.863799E-1	4.374241E-1	4.856875E-1	5.367165E-1	5.150117E-1	4.355891E-1	4.647468E-1	3.670552E-1	5.273041E-1	4.631015E-1	5.168561E-1	5.134717E-1	5.724245E-1	4.965546E-1	5.457160E-1
5.372690E+2	4.578105E-1	4.061903E-1	6.150418E-1	4.752980E-1	5.113717E-1	4.691791E-1	5.390967E-1	5.678924E-1	5.483052E-1	5.134975E-1	5.584217E-1	5.852217E-1	6.082762E-1	4.822698E-1	4.831950E-1	5.617225E-1	5.676936E-1	5.415533E-1	5.206939E-1	4.497996E-1	5.536968E-1	5.854553E-1	5.246222E-1	5.376208E-1	5.428544E-1	5.028583E-1	5.581708E-1	4.723709E-1	5.272249E-1	5.260361E-1	4.670229E-1	5.379504E-1	5.717146E-1	4.989952E-1	5.002123E-1	5.120511E-1	5.357390E-1	5.563292E-1	6.055335E-1	5.475888E-1	5.305346E-1	5.075423E-1	5.528330E-1	5.622506E-1	4.697208E-1	4.964483E-1	5.068629E-1	5.551693E-1	4.689340E-1	5.091777E-1	4.960804E-1	5.025241E-1	5.254725E-1	5.566871E-1	6.025530E-1	6.341726E-1	4.761074E-1	5.288350E-1	5.346933E-1	5.478119E-1	4.817302E-1	5.630566E-1	5.309077E-1	5.863906E-1	4.846273E-1	5.275600E-1	5.333079E-1	5.245328E-1	4.689524E-1	5.273469E-1	6.014541E-1	5.755320E-1	5.038335E-1	5.312915E-1	5.647050E-1	5.424776E-1	4.763699E-1	4.815889E-1	5.000277E-1	5.351152E-1	4.808381E-1	4.132647E-1	5.027743E-1	5.414751E-1	5.146675E-1	5.012755E-1	5.793633E-1	5.870370E-1	5.189877E-1	4.846510E-1	5.793993E-1	5.491499E-1	4.768658E-1	4.964139E-1	5.469171E-1	5.645662E-1	4.649586E-1	4.838568E-1	5.573031E-1	5.356742E-1	5.456084E-1	6.029217E-1	5.931182E-1	6.029418E-1	5.235111E-1	5.885531E-1	5.544351E-1	6.091314E-1	4.992039E-1	4.834708E-1	5.169157E-1	5.799937E-1	5.122887E-1	4.980337E-1	5.256582E-1	5.387185E-1	5.490207E-1	5.515853E-1	6.174650E-1	5.932726E-1	5.302633E-1	5.684345E-1	5.671421E-1	5.790509E-1	5.205478E-1	5.027044E-1	5.537963E-1	5.785477E-1	5.104212E-1	5.620097E-1	5.585798E-1	5.326825E-1	5.178255E-1	5.567443E-1	6.433764E-1	6.217637E-1	5.546934E-1	5.553807E-1	5.923817E-1	5.779191E-1	5.373279E-1	4.925295E-1	5.816562E-1	5.999661E-1	4.885816E-1	5.149938E-1	5.518716E-1	5.758798E-1	5.126701E-1	5.280132E-1	5.542397E-1	6.015444E-1	5.051570E-1	6.029740E-1	5.907625E-1	5.630929E-1	4.810914E-1	5.238252E-1	5.942276E-1	5.518853E-1	4.680776E-1	5.191264E-1	4.419704E-1	5.343746E-1	4.793635E-1	5.339554E-1	5.570104E-1	6.048957E-1	5.294452E-1	5.815108E-1
5.375060E+2	4.764623E-1	4.314296E-1	6.173013E-1	4.921059E-1	5.498717E-1	5.549027E-1	6.200362E-1	5.904836E-1	5.764601E-1	5.873115E-1	6.008189E-1	5.903983E-1	6.376479E-1	5.142976E-1	4.868255E-1	5.664616E-1	5.554067E-1	5.384899E-1	5.413232E-1	4.925709E-1	6.032955E-1	5.758390E-1	5.603291E-1	5.804992E-1	5.761948E-1	5.476762E-1	6.392575E-1	4.939547E-1	5.930615E-1	5.416261E-1	5.239264E-1	5.468408E-1	6.561735E-1	5.592751E-1	5.239249E-1	5.169195E-1	6.054202E-1	6.072523E-1	5.706112E-1	6.044828E-1	5.733988E-1	5.026729E-1	5.809311E-1	5.674985E-1	6.227209E-1	5.337758E-1	5.302309E-1	5.379853E-1	5.465622E-1	5.449537E-1	5.545853E-1	5.435213E-1	5.612257E-1	5.492896E-1	5.803868E-1	6.432298E-1	5.366501E-1	5.593059E-1	5.925735E-1	6.089554E-1	5.367329E-1	5.521547E-1	5.642632E-1	5.313774E-1	5.138619E-1	5.479130E-1	5.630598E-1	5.765478E-1	5.359265E-1	5.754755E-1	6.450257E-1	6.159329E-1	5.412457E-1	5.445975E-1	5.548759E-1	6.255823E-1	4.895925E-1	5.276188E-1	5.256814E-1	5.717687E-1	4.925275E-1	4.517984E-1	5.444125E-1	5.932771E-1	5.604453E-1	5.106672E-1	6.003911E-1	6.183645E-1	5.349457E-1	4.880607E-1	5.875901E-1	6.315595E-1	4.856007E-1	5.200715E-1	5.834494E-1	5.746313E-1	5.139934E-1	5.127608E-1	5.740500E-1	5.607999E-1	5.389145E-1	6.564005E-1	6.334731E-1	6.684792E-1	5.975842E-1	5.852890E-1	5.589113E-1	6.203823E-1	5.556770E-1	4.948784E-1	5.479340E-1	6.036986E-1	5.526138E-1	5.097203E-1	5.289861E-1	5.720666E-1	5.678624E-1	5.995124E-1	6.543857E-1	6.160823E-1	5.518373E-1	5.755195E-1	6.015221E-1	5.813428E-1	5.236368E-1	5.480782E-1	5.822407E-1	5.896040E-1	5.317654E-1	5.431467E-1	5.578953E-1	6.058379E-1	5.641099E-1	5.905423E-1	6.568148E-1	6.531325E-1	5.783452E-1	6.102370E-1	6.522105E-1	6.422225E-1	5.542160E-1	5.102210E-1	6.747903E-1	6.066876E-1	5.164938E-1	5.428327E-1	6.255595E-1	6.350637E-1	5.383876E-1	6.283995E-1	6.042450E-1	6.403609E-1	5.064631E-1	6.326597E-1	6.476583E-1	6.216632E-1	5.155326E-1	5.244120E-1	5.737791E-1	6.338977E-1	5.018403E-1	5.218460E-1	4.313574E-1	5.548790E-1	5.490585E-1	5.748717E-1	5.922563E-1	5.967784E-1	5.206209E-1	6.450187E-1
5.377690E+2	5.529989E-1	5.556832E-1	7.619437E-1	6.272437E-1	6.775937E-1	6.809672E-1	7.432053E-1	7.410937E-1	7.159255E-1	6.289160E-1	6.915763E-1	7.236966E-1	6.980534E-1	5.893972E-1	5.760214E-1	6.831604E-1	6.954724E-1	6.806271E-1	6.049310E-1	5.541363E-1	7.065290E-1	7.513417E-1	6.674495E-1	6.266254E-1	6.984424E-1	6.577444E-1	7.024679E-1	5.796560E-1	7.309778E-1	6.621521E-1	6.134214E-1	6.232987E-1	7.158264E-1	6.125756E-1	6.027518E-1	6.400250E-1	7.115504E-1	7.120930E-1	6.862158E-1	7.398290E-1	6.560208E-1	6.560713E-1	6.783392E-1	6.750853E-1	7.545975E-1	6.526497E-1	6.074001E-1	6.456742E-1	6.540000E-1	6.028447E-1	6.207209E-1	6.665137E-1	6.930656E-1	6.849079E-1	7.121846E-1	6.873086E-1	6.589964E-1	6.633048E-1	6.842176E-1	6.939135E-1	7.424205E-1	6.714708E-1	6.285030E-1	6.595520E-1	7.471121E-1	6.378616E-1	6.951262E-1	6.470420E-1	7.070193E-1	6.646902E-1	7.683766E-1	7.555554E-1	6.430549E-1	6.223320E-1	7.115289E-1	6.982106E-1	6.425095E-1	6.078598E-1	6.212003E-1	6.866153E-1	5.915469E-1	5.404852E-1	6.724817E-1	6.450795E-1	6.562739E-1	6.562405E-1	7.310145E-1	7.227901E-1	6.582553E-1	6.224024E-1	7.231099E-1	7.027614E-1	6.047744E-1	5.653016E-1	7.099609E-1	6.906794E-1	5.989411E-1	5.826680E-1	6.876369E-1	6.326873E-1	6.374950E-1	6.976945E-1	7.198580E-1	7.602317E-1	6.589595E-1	7.080421E-1	6.548399E-1	7.624252E-1	6.425118E-1	6.192234E-1	6.146529E-1	6.766376E-1	7.016120E-1	6.233398E-1	6.181692E-1	6.880600E-1	6.971505E-1	6.941212E-1	7.787508E-1	7.156167E-1	6.470179E-1	6.598286E-1	6.942838E-1	7.081623E-1	5.724471E-1	6.061563E-1	6.851242E-1	7.151296E-1	5.771215E-1	6.751886E-1	7.051009E-1	6.789942E-1	6.863492E-1	7.085043E-1	7.604837E-1	7.792115E-1	6.764298E-1	7.153786E-1	7.497100E-1	6.896037E-1	6.173887E-1	6.212491E-1	7.546198E-1	7.026153E-1	5.976348E-1	6.111638E-1	7.250383E-1	6.839250E-1	6.618327E-1	6.890099E-1	7.505103E-1	7.524301E-1	5.985117E-1	6.913251E-1	6.983848E-1	7.366866E-1	5.770356E-1	5.959931E-1	6.932745E-1	7.343462E-1	6.069511E-1	6.645928E-1	5.131398E-1	6.743652E-1	6.547623E-1	7.312085E-1	7.042130E-1	7.210456E-1	6.160840E-1	7.015974E-1
5.380270E+2	6.571921E-1	5.899820E-1	8.252238E-1	7.186793E-1	7.930947E-1	7.408479E-1	8.846734E-1	8.245571E-1	7.715807E-1	7.980174E-1	8.452678E-1	8.298179E-1	8.310554E-1	7.014944E-1	6.729963E-1	7.589854E-1	8.533528E-1	7.731398E-1	6.885943E-1	6.604181E-1	7.665086E-1	7.837979E-1	7.636276E-1	7.903425E-1	7.533558E-1	7.697892E-1	8.135633E-1	6.602787E-1	8.359761E-1	7.305094E-1	7.210218E-1	7.791781E-1	8.374942E-1	7.642276E-1	6.585074E-1	7.714756E-1	7.806957E-1	7.833851E-1	7.837572E-1	8.440342E-1	7.442344E-1	7.394662E-1	7.632592E-1	7.898876E-1	8.841900E-1	7.284531E-1	7.198930E-1	7.212856E-1	7.937306E-1	7.622087E-1	6.989385E-1	7.368820E-1	8.081465E-1	7.188125E-1	7.960565E-1	8.080725E-1	8.008935E-1	7.712786E-1	7.965325E-1	8.432330E-1	8.604469E-1	7.502068E-1	7.372164E-1	7.423549E-1	8.142878E-1	7.507899E-1	8.083271E-1	7.750261E-1	7.779329E-1	8.067298E-1	8.671802E-1	7.609028E-1	8.025148E-1	7.399840E-1	7.748047E-1	8.141378E-1	8.396917E-1	7.322638E-1	7.145352E-1	8.344499E-1	8.033378E-1	5.949213E-1	7.273686E-1	8.122285E-1	8.283986E-1	7.984592E-1	7.870874E-1	8.235297E-1	7.489247E-1	6.708193E-1	8.072514E-1	7.976969E-1	7.170852E-1	6.919435E-1	7.640840E-1	7.806759E-1	7.211826E-1	7.117281E-1	7.917578E-1	7.276060E-1	7.494630E-1	8.547461E-1	8.390306E-1	8.382519E-1	7.069310E-1	7.779063E-1	7.750706E-1	8.468065E-1	7.050570E-1	7.019303E-1	7.480905E-1	8.285940E-1	7.426211E-1	6.895636E-1	7.306453E-1	8.098535E-1	7.861587E-1	7.930873E-1	8.156719E-1	9.236712E-1	7.580606E-1	8.008161E-1	8.058578E-1	8.433855E-1	6.842784E-1	7.253377E-1	7.480646E-1	7.801683E-1	7.105215E-1	7.095463E-1	7.886309E-1	8.145482E-1	7.884125E-1	7.953186E-1	8.577527E-1	8.853830E-1	8.141655E-1	8.136626E-1	8.464698E-1	7.965502E-1	7.643751E-1	6.993349E-1	8.630547E-1	7.753250E-1	7.125302E-1	7.225186E-1	8.156742E-1	7.981645E-1	7.561307E-1	8.500067E-1	8.336435E-1	9.164632E-1	7.356049E-1	9.012483E-1	7.957243E-1	8.340682E-1	6.914311E-1	7.145131E-1	8.281058E-1	8.564112E-1	6.693799E-1	7.223713E-1	6.148994E-1	7.563800E-1	7.517538E-1	8.081555E-1	8.120230E-1	9.239944E-1	6.922945E-1	8.759542E-1
5.382690E+2	8.302041E-1	7.627722E-1	1.076841E+0	8.733149E-1	8.988171E-1	9.129256E-1	1.003619E+0	9.550859E-1	9.529504E-1	9.698032E-1	9.837219E-1	9.902937E-1	1.010054E+0	8.494849E-1	8.290896E-1	9.580259E-1	9.706880E-1	9.587763E-1	8.627981E-1	8.107677E-1	9.533668E-1	1.017002E+0	9.260356E-1	9.612053E-1	9.462069E-1	9.609252E-1	1.026177E+0	8.227939E-1	1.000566E+0	8.648265E-1	8.803540E-1	9.309086E-1	9.904653E-1	8.448128E-1	8.924251E-1	8.855393E-1	9.484669E-1	9.966622E-1	9.384992E-1	1.000941E+0	8.927064E-1	8.472104E-1	9.693144E-1	9.427391E-1	1.044613E+0	8.559410E-1	8.459722E-1	8.874018E-1	9.545762E-1	9.105146E-1	8.680926E-1	9.222884E-1	9.059087E-1	9.678569E-1	9.901580E-1	1.012163E+0	9.579262E-1	9.289325E-1	9.867113E-1	9.822545E-1	1.023163E+0	8.992002E-1	9.046106E-1	9.323469E-1	1.018926E+0	9.306863E-1	9.774016E-1	8.434668E-1	9.675993E-1	9.505299E-1	1.091790E+0	9.825153E-1	9.883470E-1	9.423740E-1	9.830606E-1	9.950123E-1	1.012730E+0	8.044188E-1	8.924731E-1	9.407440E-1	1.004126E+0	8.407995E-1	9.248346E-1	9.393174E-1	9.156819E-1	9.225649E-1	9.929002E-1	1.029923E+0	9.759597E-1	8.065249E-1	9.829802E-1	9.710864E-1	1.090205E+0	8.839944E-1	9.724558E-1	9.529714E-1	1.007794E+0	8.145725E-1	9.526716E-1	9.034854E-1	9.575773E-1	1.093032E+0	1.025672E+0	1.037985E+0	9.580754E-1	9.235120E-1	9.445439E-1	1.033853E+0	8.653675E-1	8.034600E-1	8.856250E-1	9.380023E-1	9.162252E-1	8.921312E-1	9.010249E-1	9.193226E-1	9.245430E-1	1.014049E+0	1.018414E+0	1.038411E+0	9.458835E-1	9.517222E-1	9.745159E-1	9.954161E-1	8.362698E-1	8.868680E-1	9.229668E-1	9.356115E-1	8.465896E-1	8.759454E-1	9.461061E-1	9.615776E-1	9.201463E-1	9.689475E-1	1.011336E+0	1.002414E+0	9.491189E-1	9.424219E-1	9.676060E-1	1.036841E+0	8.832150E-1	8.402553E-1	1.062628E+0	9.684027E-1	8.137933E-1	8.566495E-1	9.718933E-1	9.887922E-1	8.818615E-1	9.623887E-1	9.899095E-1	1.088010E+0	8.518085E-1	1.018579E+0	9.698389E-1	1.005545E+0	8.193569E-1	8.377268E-1	1.008307E+0	1.029336E+0	7.980606E-1	9.147403E-1	7.172840E-1	9.479830E-1	9.201826E-1	9.693780E-1	8.942630E-1	1.026406E+0	8.912429E-1	1.075714E+0
5.385170E+2	9.890662E-1	9.303843E-1	1.275724E+0	1.010469E+0	1.071762E+0	1.105804E+0	1.304150E+0	1.250656E+0	1.140212E+0	1.111392E+0	1.210947E+0	1.190242E+0	1.189607E+0	1.012384E+0	1.067120E+0	1.128631E+0	1.175869E+0	1.164632E+0	1.063936E+0	9.773180E-1	1.143687E+0	1.169066E+0	1.100537E+0	1.098286E+0	1.157363E+0	1.145472E+0	1.203038E+0	1.017685E+0	1.182755E+0	1.090888E+0	9.874369E-1	1.147836E+0	1.191866E+0	1.033902E+0	1.098785E+0	1.117839E+0	1.184311E+0	1.169200E+0	1.173322E+0	1.197375E+0	1.085286E+0	1.024349E+0	1.166005E+0	1.190056E+0	1.270116E+0	1.070143E+0	1.012810E+0	1.105071E+0	1.138400E+0	1.017841E+0	1.056961E+0	1.116261E+0	1.108137E+0	1.107789E+0	1.166288E+0	1.200556E+0	1.136401E+0	1.159451E+0	1.161729E+0	1.198509E+0	1.268958E+0	1.054251E+0	1.109066E+0	1.154669E+0	1.161365E+0	1.083663E+0	1.144299E+0	1.122021E+0	1.199475E+0	1.138351E+0	1.231096E+0	1.220762E+0	1.196259E+0	1.107648E+0	1.137257E+0	1.255497E+0	1.201291E+0	1.010308E+0	1.036569E+0	1.152109E+0	1.288806E+0	1.047533E+0	1.032716E+0	1.127187E+0	1.189129E+0	1.148640E+0	1.180233E+0	1.210520E+0	1.223306E+0	9.695079E-1	1.187004E+0	1.141837E+0	1.276767E+0	1.056562E+0	1.124675E+0	1.129412E+0	1.201859E+0	9.920301E-1	1.171109E+0	1.067500E+0	1.206465E+0	1.214881E+0	1.248887E+0	1.219618E+0	1.099874E+0	1.120701E+0	1.108902E+0	1.194177E+0	1.204204E+0	1.033328E+0	1.058860E+0	1.166545E+0	1.203970E+0	1.065482E+0	1.102684E+0	1.207131E+0	1.167528E+0	1.154719E+0	1.201724E+0	1.234714E+0	1.127360E+0	1.134509E+0	1.115930E+0	1.224608E+0	1.088352E+0	1.018150E+0	1.114210E+0	1.141133E+0	1.093380E+0	1.111061E+0	1.146032E+0	1.112911E+0	1.131987E+0	1.143902E+0	1.168759E+0	1.228026E+0	1.141115E+0	1.175562E+0	1.194365E+0	1.192523E+0	1.039584E+0	1.085495E+0	1.240248E+0	1.182254E+0	1.069549E+0	1.047724E+0	1.229064E+0	1.156710E+0	1.068171E+0	1.173893E+0	1.188056E+0	1.302755E+0	1.036558E+0	1.227089E+0	1.264598E+0	1.186194E+0	9.263723E-1	1.067727E+0	1.155280E+0	1.209890E+0	1.024844E+0	9.976694E-1	8.602470E-1	1.131102E+0	1.078738E+0	1.160525E+0	1.174846E+0	1.256207E+0	1.078159E+0	1.215430E+0
5.387860E+2	1.162721E+0	1.083761E+0	1.547681E+0	1.210824E+0	1.283819E+0	1.243845E+0	1.443511E+0	1.435156E+0	1.358253E+0	1.345582E+0	1.365964E+0	1.308010E+0	1.431229E+0	1.225534E+0	1.180687E+0	1.331818E+0	1.424059E+0	1.346589E+0	1.288567E+0	1.118595E+0	1.354192E+0	1.374618E+0	1.329177E+0	1.295134E+0	1.295956E+0	1.305630E+0	1.421396E+0	1.182105E+0	1.475612E+0	1.278571E+0	1.201087E+0	1.309640E+0	1.399175E+0	1.210935E+0	1.208373E+0	1.314669E+0	1.393891E+0	1.378283E+0	1.401519E+0	1.361466E+0	1.291531E+0	1.267230E+0	1.320235E+0	1.392767E+0	1.486486E+0	1.265395E+0	1.224752E+0	1.284362E+0	1.317256E+0	1.235096E+0	1.252823E+0	1.338993E+0	1.315394E+0	1.359300E+0	1.396933E+0	1.369021E+0	1.316768E+0	1.313133E+0	1.379470E+0	1.378077E+0	1.470061E+0	1.268656E+0	1.350581E+0	1.368482E+0	1.393373E+0	1.334469E+0	1.409160E+0	1.332132E+0	1.374504E+0	1.354931E+0	1.466753E+0	1.363953E+0	1.350200E+0	1.309337E+0	1.349813E+0	1.473385E+0	1.472056E+0	1.193181E+0	1.270727E+0	1.318885E+0	1.422206E+0	1.264051E+0	1.230182E+0	1.348902E+0	1.395437E+0	1.317020E+0	1.421730E+0	1.428584E+0	1.458318E+0	1.203412E+0	1.390286E+0	1.339620E+0	1.493273E+0	1.275750E+0	1.350636E+0	1.337231E+0	1.415959E+0	1.127811E+0	1.374981E+0	1.309682E+0	1.417011E+0	1.378026E+0	1.424807E+0	1.450557E+0	1.334087E+0	1.287856E+0	1.288606E+0	1.365051E+0	1.424025E+0	1.209007E+0	1.254335E+0	1.367735E+0	1.419267E+0	1.258309E+0	1.294360E+0	1.341248E+0	1.383876E+0	1.342070E+0	1.470535E+0	1.440004E+0	1.390693E+0	1.276913E+0	1.346859E+0	1.446926E+0	1.489339E+0	1.254700E+0	1.307874E+0	1.327796E+0	1.484242E+0	1.256576E+0	1.363758E+0	1.317318E+0	1.411475E+0	1.335424E+0	1.482965E+0	1.481993E+0	1.353978E+0	1.369084E+0	1.393058E+0	1.377986E+0	1.390475E+0	1.220315E+0	1.412548E+0	1.400384E+0	1.266234E+0	1.245757E+0	1.422864E+0	1.398952E+0	1.293344E+0	1.404342E+0	1.425579E+0	1.499970E+0	1.283324E+0	1.414394E+0	1.385243E+0	1.444467E+0	1.139787E+0	1.256069E+0	1.347623E+0	1.412694E+0	1.107020E+0	1.234902E+0	1.094982E+0	1.364419E+0	1.247168E+0	1.364495E+0	1.350382E+0	1.464775E+0	1.269888E+0	1.400180E+0
5.390080E+2	1.385256E+0	1.285026E+0	1.755604E+0	1.434707E+0	1.558817E+0	1.455003E+0	1.670142E+0	1.662954E+0	1.520633E+0	1.556293E+0	1.652808E+0	1.663904E+0	1.682273E+0	1.405002E+0	1.409383E+0	1.525528E+0	1.672858E+0	1.545097E+0	1.428386E+0	1.342173E+0	1.614295E+0	1.627054E+0	1.598705E+0	1.573192E+0	1.587521E+0	1.552131E+0	1.683174E+0	1.358584E+0	1.666313E+0	1.476447E+0	1.405940E+0	1.560945E+0	1.613570E+0	1.470460E+0	1.497407E+0	1.506629E+0	1.557371E+0	1.616126E+0	1.607442E+0	1.572273E+0	1.541883E+0	1.514371E+0	1.555636E+0	1.621057E+0	1.734252E+0	1.434234E+0	1.478541E+0	1.581079E+0	1.609141E+0	1.473817E+0	1.491292E+0	1.521951E+0	1.550025E+0	1.538071E+0	1.615603E+0	1.621414E+0	1.607499E+0	1.536364E+0	1.642691E+0	1.683155E+0	1.700384E+0	1.486696E+0	1.508092E+0	1.563010E+0	1.611694E+0	1.476943E+0	1.609439E+0	1.536087E+0	1.605254E+0	1.518687E+0	1.673567E+0	1.634878E+0	1.639679E+0	1.511725E+0	1.563603E+0	1.613057E+0	1.695682E+0	1.390984E+0	1.434473E+0	1.551629E+0	1.665629E+0	1.505648E+0	1.468026E+0	1.586504E+0	1.595026E+0	1.533033E+0	1.590585E+0	1.645420E+0	1.639656E+0	1.407309E+0	1.571969E+0	1.592123E+0	1.705415E+0	1.440663E+0	1.572539E+0	1.496504E+0	1.593448E+0	1.361730E+0	1.568663E+0	1.478582E+0	1.595918E+0	1.732070E+0	1.714859E+0	1.645921E+0	1.550664E+0	1.635220E+0	1.537381E+0	1.685000E+0	1.658420E+0	1.384689E+0	1.469707E+0	1.552513E+0	1.659852E+0	1.391408E+0	1.533288E+0	1.573234E+0	1.583330E+0	1.653903E+0	1.662265E+0	1.668102E+0	1.546787E+0	1.516382E+0	1.568062E+0	1.595898E+0	1.758721E+0	1.393239E+0	1.489431E+0	1.569092E+0	1.656328E+0	1.461377E+0	1.500009E+0	1.541804E+0	1.633999E+0	1.593217E+0	1.658942E+0	1.667193E+0	1.614843E+0	1.650981E+0	1.583624E+0	1.622339E+0	1.651298E+0	1.366117E+0	1.636734E+0	1.526863E+0	1.609620E+0	1.405196E+0	1.591608E+0	1.586828E+0	1.520232E+0	1.621532E+0	1.685607E+0	1.662753E+0	1.452408E+0	1.661779E+0	1.588148E+0	1.599010E+0	1.495274E+0	1.403337E+0	1.528464E+0	1.668266E+0	1.486694E+0	1.394643E+0	1.216717E+0	1.608342E+0	1.566021E+0	1.584955E+0	1.617145E+0	1.669598E+0	1.464021E+0	1.694622E+0
5.392930E+2	1.567914E+0	1.441634E+0	1.952981E+0	1.641110E+0	1.674318E+0	1.605648E+0	1.923514E+0	1.824234E+0	1.730812E+0	1.745523E+0	1.846911E+0	1.843793E+0	1.818042E+0	1.630853E+0	1.559771E+0	1.758332E+0	1.866980E+0	1.727668E+0	1.595714E+0	1.460121E+0	1.781548E+0	1.878288E+0	1.734044E+0	1.720665E+0	1.745068E+0	1.760404E+0	1.811510E+0	1.595375E+0	1.877443E+0	1.666530E+0	1.578203E+0	1.704376E+0	1.771859E+0	1.628454E+0	1.610841E+0	1.670075E+0	1.820020E+0	1.811431E+0	1.815169E+0	1.773495E+0	1.751852E+0	1.659857E+0	1.767310E+0	1.806054E+0	2.017416E+0	1.533578E+0	1.604076E+0	1.696788E+0	1.786752E+0	1.620173E+0	1.580322E+0	1.731222E+0	1.727676E+0	1.687869E+0	1.807905E+0	1.815845E+0	1.733630E+0	1.680108E+0	1.852162E+0	1.770687E+0	1.884301E+0	1.633871E+0	1.692165E+0	1.745634E+0	1.793941E+0	1.640427E+0	1.760368E+0	1.653118E+0	1.806742E+0	1.729398E+0	1.857055E+0	1.769745E+0	1.794234E+0	1.679805E+0	1.717797E+0	1.876333E+0	1.907240E+0	1.557689E+0	1.609136E+0	1.776437E+0	1.794215E+0	1.633483E+0	1.612498E+0	1.790947E+0	1.794008E+0	1.732272E+0	1.844825E+0	1.837686E+0	1.820995E+0	1.525970E+0	1.810991E+0	1.741775E+0	1.883244E+0	1.616710E+0	1.685522E+0	1.728599E+0	1.820666E+0	1.529106E+0	1.776179E+0	1.669117E+0	1.731617E+0	1.872876E+0	1.818898E+0	1.888724E+0	1.672003E+0	1.710306E+0	1.717090E+0	1.896658E+0	1.780473E+0	1.562079E+0	1.630066E+0	1.748839E+0	1.857376E+0	1.571900E+0	1.617813E+0	1.730552E+0	1.869844E+0	1.813871E+0	1.861123E+0	1.904498E+0	1.716208E+0	1.697042E+0	1.640716E+0	1.824330E+0	1.942839E+0	1.519681E+0	1.654652E+0	1.765509E+0	1.879772E+0	1.640578E+0	1.668441E+0	1.776336E+0	1.813204E+0	1.770161E+0	1.806767E+0	1.878329E+0	1.845098E+0	1.818597E+0	1.839190E+0	1.883615E+0	1.857078E+0	1.535097E+0	1.773111E+0	1.712606E+0	1.707641E+0	1.555777E+0	1.788358E+0	1.704509E+0	1.671679E+0	1.778736E+0	1.822497E+0	1.967025E+0	1.706356E+0	1.818689E+0	1.780086E+0	1.867868E+0	1.931943E+0	1.571142E+0	1.816017E+0	1.858356E+0	1.732587E+0	1.612842E+0	1.318478E+0	1.746210E+0	1.723413E+0	1.737017E+0	1.736700E+0	1.823841E+0	1.587566E+0	1.766212E+0
5.395210E+2	1.527397E+0	1.391159E+0	2.001948E+0	1.637749E+0	1.719541E+0	1.661116E+0	1.893249E+0	1.839919E+0	1.775335E+0	1.755591E+0	1.828359E+0	1.836025E+0	1.918903E+0	1.647419E+0	1.566512E+0	1.744710E+0	1.903839E+0	1.755850E+0	1.675369E+0	1.496414E+0	1.877859E+0	1.782123E+0	1.789907E+0	1.734963E+0	1.747683E+0	1.780170E+0	1.867057E+0	1.649332E+0	1.915473E+0	1.610762E+0	1.621138E+0	1.691337E+0	1.851593E+0	1.690639E+0	1.623659E+0	1.744490E+0	1.862363E+0	1.814425E+0	1.823598E+0	1.783678E+0	1.757448E+0	1.720119E+0	1.749202E+0	1.869689E+0	1.965461E+0	1.646711E+0	1.613859E+0	1.709390E+0	1.715953E+0	1.637083E+0	1.648362E+0	1.707967E+0	1.720413E+0	1.763074E+0	1.859426E+0	1.858113E+0	1.757595E+0	1.717866E+0	1.886614E+0	1.886540E+0	1.931855E+0	1.673239E+0	1.708845E+0	1.840912E+0	1.839969E+0	1.714617E+0	1.798828E+0	1.697605E+0	1.822501E+0	1.803349E+0	2.028278E+0	1.849954E+0	1.767860E+0	1.705014E+0	1.730084E+0	1.819770E+0	1.868146E+0	1.578212E+0	1.651163E+0	1.752002E+0	1.909049E+0	1.653055E+0	1.707130E+0	1.737076E+0	1.825138E+0	1.671898E+0	1.813599E+0	1.846287E+0	1.863790E+0	1.518470E+0	1.796844E+0	1.794519E+0	1.955619E+0	1.657765E+0	1.748438E+0	1.686560E+0	1.854507E+0	1.572126E+0	1.822774E+0	1.655858E+0	1.805248E+0	1.888445E+0	1.912220E+0	1.914312E+0	1.712214E+0	1.755361E+0	1.695346E+0	1.948692E+0	1.828444E+0	1.614556E+0	1.622461E+0	1.813270E+0	1.877881E+0	1.633578E+0	1.636448E+0	1.753025E+0	1.815268E+0	1.781501E+0	1.887677E+0	1.879613E+0	1.803139E+0	1.749469E+0	1.710127E+0	1.880100E+0	1.946547E+0	1.615267E+0	1.647387E+0	1.801282E+0	1.926464E+0	1.586007E+0	1.761554E+0	1.638630E+0	1.804897E+0	1.809922E+0	1.873960E+0	1.833692E+0	1.785273E+0	1.844502E+0	1.837716E+0	1.878876E+0	1.948399E+0	1.586950E+0	1.840299E+0	1.799982E+0	1.773849E+0	1.606394E+0	1.776567E+0	1.773326E+0	1.689398E+0	1.883543E+0	1.844997E+0	1.915687E+0	1.686773E+0	1.863220E+0	1.906214E+0	1.877040E+0	1.860599E+0	1.518921E+0	1.748285E+0	1.860263E+0	1.770808E+0	1.645469E+0	1.357809E+0	1.766719E+0	1.679856E+0	1.704037E+0	1.767798E+0	1.868801E+0	1.662969E+0	1.752355E+0
5.397650E+2	1.770512E+0	1.700496E+0	2.291984E+0	1.862309E+0	1.967045E+0	1.872273E+0	2.143811E+0	2.085917E+0	2.032662E+0	1.887782E+0	2.090033E+0	2.050855E+0	2.093469E+0	1.758412E+0	1.741796E+0	2.016613E+0	2.056193E+0	1.959866E+0	1.840401E+0	1.604641E+0	2.056643E+0	2.047182E+0	1.952892E+0	2.053300E+0	2.113119E+0	1.948900E+0	2.145435E+0	1.788360E+0	2.104469E+0	1.881794E+0	1.798576E+0	1.977610E+0	2.132729E+0	1.848634E+0	1.864627E+0	1.928105E+0	2.068191E+0	2.054662E+0	2.003027E+0	2.044787E+0	1.987919E+0	1.830909E+0	2.000841E+0	2.068460E+0	2.120747E+0	1.787409E+0	1.793739E+0	1.938514E+0	2.020258E+0	1.876455E+0	1.856310E+0	1.944775E+0	1.972916E+0	2.034926E+0	2.042143E+0	2.089977E+0	2.010489E+0	1.898042E+0	2.079544E+0	2.066107E+0	2.179367E+0	1.882798E+0	1.999776E+0	1.964551E+0	2.016615E+0	1.912239E+0	1.977339E+0	1.970683E+0	1.991339E+0	1.992343E+0	2.198269E+0	2.039484E+0	1.970866E+0	1.957125E+0	1.924211E+0	2.091428E+0	2.142365E+0	1.825779E+0	1.814365E+0	1.989634E+0	2.096086E+0	1.854282E+0	1.876207E+0	1.908366E+0	2.003973E+0	1.931517E+0	2.015590E+0	2.013366E+0	2.084296E+0	1.733959E+0	2.040336E+0	1.983072E+0	2.182110E+0	1.851205E+0	1.912832E+0	1.892013E+0	2.078271E+0	1.736142E+0	1.976408E+0	1.848490E+0	1.978070E+0	2.105744E+0	2.149306E+0	2.085333E+0	1.917504E+0	1.928391E+0	1.926213E+0	2.045733E+0	2.155138E+0	1.752591E+0	1.768772E+0	1.987108E+0	2.089761E+0	1.778363E+0	1.894015E+0	1.941517E+0	2.016027E+0	1.958271E+0	2.083295E+0	2.110475E+0	1.991596E+0	1.954929E+0	1.971542E+0	2.065742E+0	2.208513E+0	1.779823E+0	1.896731E+0	2.042577E+0	2.099885E+0	1.804954E+0	1.906024E+0	1.981460E+0	2.016738E+0	2.057773E+0	2.134411E+0	2.102739E+0	2.012744E+0	2.057074E+0	2.085890E+0	1.990561E+0	2.107894E+0	1.712619E+0	2.069807E+0	2.059658E+0	2.025716E+0	1.772159E+0	1.972579E+0	1.944684E+0	1.921429E+0	1.967515E+0	2.096276E+0	2.127931E+0	1.980546E+0	2.032148E+0	2.035775E+0	2.074624E+0	2.106613E+0	1.789407E+0	2.021138E+0	1.977877E+0	2.020526E+0	1.781422E+0	1.540727E+0	1.952664E+0	1.988255E+0	2.012439E+0	1.933662E+0	2.095478E+0	1.858713E+0	2.102226E+0
5.400190E+2	1.720348E+0	1.617015E+0	2.156380E+0	1.840118E+0	2.000043E+0	1.825631E+0	2.167743E+0	2.094706E+0	2.001232E+0	1.973675E+0	2.112557E+0	1.996503E+0	2.080723E+0	1.800379E+0	1.745422E+0	1.957965E+0	2.011350E+0	1.890022E+0	1.755593E+0	1.666852E+0	1.996665E+0	2.024341E+0	1.907972E+0	1.979887E+0	1.956226E+0	2.010856E+0	2.106490E+0	1.711547E+0	2.109576E+0	1.774463E+0	1.747882E+0	1.875072E+0	2.029963E+0	1.858789E+0	1.779388E+0	1.900286E+0	1.980286E+0	2.016322E+0	2.038552E+0	2.019637E+0	1.943811E+0	1.822385E+0	1.968995E+0	2.038943E+0	2.116749E+0	1.754674E+0	1.807867E+0	1.845719E+0	1.974919E+0	1.758719E+0	1.822605E+0	1.932536E+0	1.914258E+0	1.941842E+0	2.030165E+0	2.021144E+0	1.934810E+0	1.834451E+0	2.005132E+0	1.920652E+0	2.075088E+0	1.912476E+0	1.877475E+0	1.970223E+0	2.032786E+0	1.889261E+0	1.932351E+0	1.852966E+0	1.909169E+0	1.958303E+0	2.179855E+0	2.051367E+0	1.943881E+0	1.901801E+0	1.909469E+0	2.037656E+0	2.048659E+0	1.753003E+0	1.784893E+0	1.943210E+0	2.056891E+0	1.769264E+0	1.862958E+0	1.893170E+0	1.972235E+0	1.985854E+0	1.955696E+0	2.066194E+0	2.029168E+0	1.753737E+0	2.007569E+0	1.907914E+0	2.146549E+0	1.819892E+0	1.946665E+0	1.932866E+0	1.955339E+0	1.750255E+0	1.991699E+0	1.812893E+0	1.956770E+0	2.097622E+0	2.110211E+0	2.015427E+0	1.870236E+0	1.923820E+0	1.837959E+0	2.108314E+0	2.074375E+0	1.795939E+0	1.817348E+0	1.914777E+0	2.005007E+0	1.739409E+0	1.871385E+0	1.963988E+0	2.003028E+0	1.962629E+0	2.107260E+0	2.216924E+0	1.917988E+0	1.889039E+0	1.953383E+0	2.058869E+0	2.093596E+0	1.749573E+0	1.845289E+0	1.963878E+0	2.057863E+0	1.787436E+0	1.912869E+0	1.951339E+0	1.976387E+0	1.919929E+0	1.964189E+0	2.082830E+0	1.964053E+0	1.868123E+0	2.136116E+0	2.044708E+0	2.095383E+0	1.686996E+0	2.101743E+0	1.984506E+0	1.973785E+0	1.744954E+0	1.967415E+0	1.977719E+0	1.868852E+0	2.013600E+0	2.053770E+0	2.030886E+0	1.848023E+0	2.012355E+0	1.934322E+0	2.028052E+0	2.000828E+0	1.677339E+0	1.970656E+0	2.002037E+0	1.842795E+0	1.716841E+0	1.459571E+0	1.918725E+0	1.895908E+0	1.875032E+0	1.947487E+0	2.050517E+0	1.813787E+0	2.173815E+0
5.402740E+2	1.654101E+0	1.498587E+0	2.107415E+0	1.787676E+0	1.852155E+0	1.760081E+0	2.080466E+0	2.008728E+0	1.854563E+0	1.875030E+0	2.002588E+0	2.008151E+0	1.936639E+0	1.658463E+0	1.679564E+0	1.877997E+0	2.029167E+0	1.875933E+0	1.702872E+0	1.637041E+0	1.877283E+0	1.967241E+0	1.864200E+0	1.884386E+0	1.832666E+0	1.896832E+0	2.023489E+0	1.658855E+0	1.982444E+0	1.778061E+0	1.700289E+0	1.811063E+0	1.970308E+0	1.721730E+0	1.697997E+0	1.792482E+0	1.924005E+0	1.919264E+0	1.832629E+0	1.874708E+0	1.869885E+0	1.718902E+0	1.880329E+0	1.958247E+0	2.053380E+0	1.674276E+0	1.665488E+0	1.819369E+0	1.894193E+0	1.759370E+0	1.710051E+0	1.802813E+0	1.902530E+0	1.864172E+0	1.936109E+0	1.998804E+0	1.876155E+0	1.762912E+0	1.967921E+0	1.889116E+0	2.014358E+0	1.807090E+0	1.790380E+0	1.895360E+0	1.925804E+0	1.821637E+0	1.867042E+0	1.793424E+0	1.857957E+0	1.847374E+0	1.982861E+0	1.930163E+0	1.885005E+0	1.744231E+0	1.911923E+0	1.935697E+0	2.022216E+0	1.654724E+0	1.721575E+0	1.819812E+0	1.953747E+0	1.783944E+0	1.758230E+0	1.873833E+0	1.860536E+0	1.784597E+0	1.895799E+0	1.899110E+0	1.930522E+0	1.619394E+0	1.918958E+0	1.857149E+0	2.083528E+0	1.717603E+0	1.780233E+0	1.780110E+0	1.894565E+0	1.678335E+0	1.922526E+0	1.775207E+0	1.803421E+0	2.002176E+0	1.970856E+0	1.994203E+0	1.784169E+0	1.782783E+0	1.822607E+0	2.005649E+0	1.952926E+0	1.656763E+0	1.724291E+0	1.892285E+0	1.998855E+0	1.684869E+0	1.733617E+0	1.810299E+0	1.915972E+0	1.882336E+0	1.927190E+0	1.988821E+0	1.941469E+0	1.800481E+0	1.806779E+0	1.969485E+0	2.002153E+0	1.647936E+0	1.782953E+0	1.835100E+0	1.996500E+0	1.693798E+0	1.811537E+0	1.753387E+0	1.909333E+0	1.874204E+0	1.991068E+0	2.052670E+0	1.909790E+0	1.870409E+0	1.966232E+0	1.914074E+0	1.980299E+0	1.647958E+0	1.961373E+0	1.902016E+0	1.910816E+0	1.617149E+0	1.903309E+0	1.846275E+0	1.841988E+0	1.851342E+0	1.965011E+0	1.980175E+0	1.839534E+0	1.925422E+0	1.917183E+0	1.963131E+0	1.968847E+0	1.660322E+0	1.872250E+0	1.912397E+0	1.899491E+0	1.665183E+0	1.463941E+0	1.850144E+0	1.822731E+0	1.934270E+0	1.805812E+0	1.959347E+0	1.744798E+0	1.933641E+0
5.405130E+2	1.579493E+0	1.510234E+0	2.059955E+0	1.603460E+0	1.791042E+0	1.664899E+0	1.867915E+0	1.919618E+0	1.796289E+0	1.813295E+0	1.859497E+0	1.940853E+0	1.928325E+0	1.608765E+0	1.605408E+0	1.750635E+0	1.946233E+0	1.801187E+0	1.666201E+0	1.620193E+0	1.879015E+0	1.853648E+0	1.789908E+0	1.892183E+0	1.839209E+0	1.805217E+0	1.877271E+0	1.623940E+0	1.929657E+0	1.739083E+0	1.603035E+0	1.770761E+0	1.904749E+0	1.690640E+0	1.617889E+0	1.694417E+0	1.792684E+0	1.853965E+0	1.830825E+0	1.935194E+0	1.843176E+0	1.655594E+0	1.741084E+0	1.792280E+0	2.012280E+0	1.598473E+0	1.680702E+0	1.726571E+0	1.786752E+0	1.720342E+0	1.644549E+0	1.772828E+0	1.750022E+0	1.744581E+0	1.783345E+0	1.871999E+0	1.814987E+0	1.741051E+0	1.864563E+0	1.814456E+0	1.989149E+0	1.711397E+0	1.734786E+0	1.724651E+0	1.834370E+0	1.769767E+0	1.878649E+0	1.735935E+0	1.808430E+0	1.845023E+0	1.981635E+0	1.844608E+0	1.812021E+0	1.664394E+0	1.783530E+0	1.908462E+0	1.911261E+0	1.650368E+0	1.689920E+0	1.736727E+0	1.961997E+0	1.709324E+0	1.699558E+0	1.820649E+0	1.879458E+0	1.825519E+0	1.893887E+0	1.966681E+0	1.807939E+0	1.585977E+0	1.887683E+0	1.749687E+0	1.933160E+0	1.669596E+0	1.795121E+0	1.806161E+0	1.832405E+0	1.693119E+0	1.871558E+0	1.661445E+0	1.816811E+0	1.947341E+0	1.919152E+0	1.858137E+0	1.793340E+0	1.789965E+0	1.705577E+0	1.922676E+0	1.889165E+0	1.612847E+0	1.689761E+0	1.795642E+0	1.840289E+0	1.610205E+0	1.718310E+0	1.790001E+0	1.884139E+0	1.759093E+0	1.944681E+0	2.035826E+0	1.761896E+0	1.682876E+0	1.780179E+0	1.878569E+0	1.987943E+0	1.598932E+0	1.721222E+0	1.803881E+0	1.849758E+0	1.660785E+0	1.775933E+0	1.827259E+0	1.800743E+0	1.778774E+0	1.886758E+0	1.968215E+0	1.865967E+0	1.899359E+0	1.884987E+0	1.911364E+0	2.007817E+0	1.638195E+0	1.868237E+0	1.787148E+0	1.795921E+0	1.639928E+0	1.810462E+0	1.762315E+0	1.784840E+0	1.872178E+0	1.913129E+0	1.936346E+0	1.754666E+0	1.944505E+0	1.863716E+0	1.870688E+0	1.903038E+0	1.628052E+0	1.781511E+0	1.888240E+0	1.830053E+0	1.631874E+0	1.372168E+0	1.776614E+0	1.721671E+0	1.796863E+0	1.742232E+0	1.881915E+0	1.703884E+0	1.925558E+0
5.407680E+2	1.549906E+0	1.404102E+0	1.927366E+0	1.572533E+0	1.689595E+0	1.681916E+0	1.891844E+0	1.885731E+0	1.728194E+0	1.683788E+0	1.817099E+0	1.791379E+0	1.815827E+0	1.498324E+0	1.559774E+0	1.740562E+0	1.824595E+0	1.744212E+0	1.558468E+0	1.659724E+0	1.831718E+0	1.746663E+0	1.706402E+0	1.809022E+0	1.713690E+0	1.721515E+0	1.845347E+0	1.533795E+0	1.829202E+0	1.598172E+0	1.525437E+0	1.646886E+0	1.755911E+0	1.605612E+0	1.614045E+0	1.680506E+0	1.804476E+0	1.781478E+0	1.733282E+0	1.815417E+0	1.679171E+0	1.642812E+0	1.719853E+0	1.769318E+0	1.925502E+0	1.582393E+0	1.575819E+0	1.707098E+0	1.719062E+0	1.594803E+0	1.538989E+0	1.645556E+0	1.711472E+0	1.741498E+0	1.786937E+0	1.803165E+0	1.718495E+0	1.693355E+0	1.789456E+0	1.791284E+0	1.943315E+0	1.639927E+0	1.674871E+0	1.733155E+0	1.761596E+0	1.665375E+0	1.832207E+0	1.689392E+0	1.713315E+0	1.705921E+0	1.864420E+0	1.805394E+0	1.676478E+0	1.650388E+0	1.702441E+0	1.844913E+0	1.809506E+0	1.532183E+0	1.562741E+0	1.711069E+0	1.827222E+0	1.610852E+0	1.657924E+0	1.654883E+0	1.798279E+0	1.766486E+0	1.791935E+0	1.878841E+0	1.863065E+0	1.547110E+0	1.745466E+0	1.727273E+0	1.923174E+0	1.530426E+0	1.725436E+0	1.638009E+0	1.804782E+0	1.543222E+0	1.669870E+0	1.558846E+0	1.751090E+0	1.757119E+0	1.865557E+0	1.850024E+0	1.738316E+0	1.713573E+0	1.641627E+0	1.868531E+0	1.867307E+0	1.588320E+0	1.633579E+0	1.692310E+0	1.762373E+0	1.553071E+0	1.605166E+0	1.730553E+0	1.787985E+0	1.805776E+0	1.797644E+0	1.880994E+0	1.740321E+0	1.663744E+0	1.699096E+0	1.822032E+0	1.890325E+0	1.622528E+0	1.667359E+0	1.726486E+0	1.841756E+0	1.569166E+0	1.675971E+0	1.659430E+0	1.732501E+0	1.723772E+0	1.856685E+0	1.837912E+0	1.819359E+0	1.702031E+0	1.732826E+0	1.767192E+0	1.846446E+0	1.501544E+0	1.790409E+0	1.745600E+0	1.749833E+0	1.545655E+0	1.744144E+0	1.670096E+0	1.661392E+0	1.737067E+0	1.822496E+0	1.881882E+0	1.672409E+0	1.802433E+0	1.797911E+0	1.840346E+0	1.757895E+0	1.592851E+0	1.699719E+0	1.825299E+0	1.791834E+0	1.595848E+0	1.289135E+0	1.702375E+0	1.664174E+0	1.768161E+0	1.733247E+0	1.852566E+0	1.565903E+0	1.807781E+0
5.410190E+2	1.406483E+0	1.291495E+0	1.770671E+0	1.553708E+0	1.570431E+0	1.551443E+0	1.783456E+0	1.720062E+0	1.686943E+0	1.638825E+0	1.720381E+0	1.737676E+0	1.701110E+0	1.701536E+0	1.411458E+0	1.609052E+0	1.633541E+0	1.719706E+0	1.473658E+0	1.527520E+0	1.616603E+0	1.725024E+0	1.638443E+0	1.636211E+0	1.607785E+0	1.770289E+0	1.695946E+0	1.438573E+0	1.707744E+0	1.643144E+0	1.388867E+0	1.618436E+0	1.696849E+0	1.665891E+0	1.409608E+0	1.497586E+0	1.644744E+0	1.659262E+0	1.608646E+0	1.608805E+0	1.589717E+0	1.535069E+0	1.628691E+0	1.643361E+0	1.769647E+0	1.499126E+0	1.424196E+0	1.547282E+0	1.638324E+0	1.488776E+0	1.467764E+0	1.498697E+0	1.611476E+0	1.615127E+0	1.674907E+0	1.670326E+0	1.580383E+0	1.540341E+0	1.695745E+0	1.604632E+0	1.762836E+0	1.552712E+0	1.516742E+0	1.578894E+0	1.658345E+0	1.566235E+0	1.597828E+0	1.544983E+0	1.633959E+0	1.593814E+0	1.819007E+0	1.709739E+0	1.597364E+0	1.569854E+0	1.627490E+0	1.702444E+0	1.706029E+0	1.371701E+0	1.529993E+0	1.567514E+0	1.744016E+0	1.501979E+0	1.522281E+0	1.633470E+0	1.643247E+0	1.598775E+0	1.654943E+0	1.631293E+0	1.686081E+0	1.362304E+0	1.653132E+0	1.607285E+0	1.760949E+0	1.460144E+0	1.583363E+0	1.521963E+0	1.636960E+0	1.452478E+0	1.587593E+0	1.532324E+0	1.651291E+0	1.782164E+0	1.793674E+0	1.738924E+0	1.581704E+0	1.572537E+0	1.563604E+0	1.643510E+0	1.707605E+0	1.398948E+0	1.498969E+0	1.591412E+0	1.674205E+0	1.468671E+0	1.548596E+0	1.621809E+0	1.647000E+0	1.602863E+0	1.750356E+0	1.761415E+0	1.581687E+0	1.524880E+0	1.643310E+0	1.630279E+0	1.701876E+0	1.415017E+0	1.559637E+0	1.596405E+0	1.650995E+0	1.496410E+0	1.609557E+0	1.605636E+0	1.657141E+0	1.637619E+0	1.687740E+0	1.741394E+0	1.677450E+0	1.635747E+0	1.741690E+0	1.704243E+0	1.738866E+0	1.458841E+0	1.669997E+0	1.598959E+0	1.631045E+0	1.403300E+0	1.638033E+0	1.557235E+0	1.551090E+0	1.668248E+0	1.659980E+0	1.741639E+0	1.560780E+0	1.711963E+0	1.640931E+0	1.687924E+0	1.681010E+0	1.504841E+0	1.681826E+0	1.656824E+0	1.589892E+0	1.463298E+0	1.271033E+0	1.531985E+0	1.581701E+0	1.579460E+0	1.599174E+0	1.703317E+0	1.521782E+0	1.680766E+0
5.412580E+2	1.360174E+0	1.276611E+0	1.757863E+0	1.409831E+0	1.530097E+0	1.499125E+0	1.662397E+0	1.627185E+0	1.497716E+0	1.581119E+0	1.597824E+0	1.602431E+0	1.584736E+0	1.662327E+0	1.383453E+0	1.582987E+0	1.619414E+0	1.678041E+0	1.395722E+0	1.504838E+0	1.596992E+0	1.606618E+0	1.541691E+0	1.558901E+0	1.557449E+0	1.629901E+0	1.642952E+0	1.368744E+0	1.661772E+0	1.721696E+0	1.379038E+0	1.494566E+0	1.640742E+0	1.711579E+0	1.402558E+0	1.508019E+0	1.562733E+0	1.649673E+0	1.619485E+0	1.580654E+0	1.528836E+0	1.602028E+0	1.515675E+0	1.538402E+0	1.697144E+0	1.697246E+0	1.419306E+0	1.472816E+0	1.583677E+0	1.723595E+0	1.469670E+0	1.501759E+0	1.545555E+0	1.619440E+0	1.571270E+0	1.654625E+0	1.547589E+0	1.495958E+0	1.598587E+0	1.587257E+0	1.639080E+0	1.435818E+0	1.457443E+0	1.505728E+0	1.517771E+0	1.545226E+0	1.557190E+0	1.475175E+0	1.590062E+0	1.520449E+0	1.776664E+0	1.628936E+0	1.553818E+0	1.424188E+0	1.548854E+0	1.645879E+0	1.650845E+0	1.404048E+0	1.444844E+0	1.470992E+0	1.668377E+0	1.396777E+0	1.432696E+0	1.554036E+0	1.682918E+0	1.563222E+0	1.653030E+0	1.642350E+0	1.614991E+0	1.348664E+0	1.610689E+0	1.573661E+0	1.679836E+0	1.447621E+0	1.563744E+0	1.556896E+0	1.599665E+0	1.393997E+0	1.601429E+0	1.422049E+0	1.556971E+0	1.694840E+0	1.656845E+0	1.657156E+0	1.517509E+0	1.419749E+0	1.490057E+0	1.694844E+0	1.671775E+0	1.418910E+0	1.450394E+0	1.618157E+0	1.572364E+0	1.395305E+0	1.498017E+0	1.546414E+0	1.598275E+0	1.646435E+0	1.618218E+0	1.728240E+0	1.576608E+0	1.477414E+0	1.496056E+0	1.661600E+0	1.690757E+0	1.388397E+0	1.490037E+0	1.528770E+0	1.664333E+0	1.394684E+0	1.560944E+0	1.584122E+0	1.644678E+0	1.546829E+0	1.674305E+0	1.644269E+0	1.591193E+0	1.531365E+0	1.705494E+0	1.629109E+0	1.730733E+0	1.396007E+0	1.652035E+0	1.522583E+0	1.601833E+0	1.385584E+0	1.571712E+0	1.511815E+0	1.568237E+0	1.563445E+0	1.661230E+0	1.738508E+0	1.453062E+0	1.645522E+0	1.579239E+0	1.690746E+0	1.663791E+0	1.414486E+0	1.557219E+0	1.653006E+0	1.544664E+0	1.389204E+0	1.245434E+0	1.568045E+0	1.504457E+0	1.566022E+0	1.575679E+0	1.670222E+0	1.434339E+0	1.670373E+0
5.415190E+2	1.234754E+0	1.157535E+0	1.586101E+0	1.289483E+0	1.395041E+0	1.368648E+0	1.519523E+0	1.425743E+0	1.430276E+0	1.484488E+0	1.430884E+0	1.476250E+0	1.508258E+0	1.569007E+0	1.270404E+0	1.470437E+0	1.504534E+0	1.508948E+0	1.305755E+0	1.377819E+0	1.400905E+0	1.572360E+0	1.384465E+0	1.441313E+0	1.430621E+0	1.577174E+0	1.490992E+0	1.243046E+0	1.527830E+0	1.543008E+0	1.253852E+0	1.352318E+0	1.460010E+0	1.552312E+0	1.294249E+0	1.414822E+0	1.440523E+0	1.533447E+0	1.478592E+0	1.466270E+0	1.431928E+0	1.493067E+0	1.425135E+0	1.431469E+0	1.513316E+0	1.573203E+0	1.307357E+0	1.357682E+0	1.409168E+0	1.491380E+0	1.324679E+0	1.417929E+0	1.394165E+0	1.488752E+0	1.512558E+0	1.547147E+0	1.447945E+0	1.519804E+0	1.446996E+0	1.455957E+0	1.542824E+0	1.593898E+0	1.357379E+0	1.411586E+0	1.462413E+0	1.565579E+0	1.401904E+0	1.344452E+0	1.459489E+0	1.458232E+0	1.580902E+0	1.429900E+0	1.436673E+0	1.406680E+0	1.431521E+0	1.542521E+0	1.468607E+0	1.413376E+0	1.335136E+0	1.401962E+0	1.448337E+0	1.380878E+0	1.384118E+0	1.420732E+0	1.491873E+0	1.372701E+0	1.457411E+0	1.552667E+0	1.490961E+0	1.234780E+0	1.494528E+0	1.409503E+0	1.525718E+0	1.350206E+0	1.389201E+0	1.379273E+0	1.446343E+0	1.302581E+0	1.438327E+0	1.317360E+0	1.429789E+0	1.489724E+0	1.511192E+0	1.484886E+0	1.382058E+0	1.385794E+0	1.357674E+0	1.547176E+0	1.512679E+0	1.243230E+0	1.339782E+0	1.432769E+0	1.496499E+0	1.319989E+0	1.397518E+0	1.407218E+0	1.468986E+0	1.397465E+0	1.507457E+0	1.577554E+0	1.435110E+0	1.349178E+0	1.369564E+0	1.558466E+0	1.512199E+0	1.277082E+0	1.372024E+0	1.442916E+0	1.472236E+0	1.302387E+0	1.384299E+0	1.470801E+0	1.489804E+0	1.438141E+0	1.514963E+0	1.461486E+0	1.472235E+0	1.444508E+0	1.497941E+0	1.491025E+0	1.549970E+0	1.259358E+0	1.525641E+0	1.393051E+0	1.455780E+0	1.281189E+0	1.515711E+0	1.394824E+0	1.411646E+0	1.407497E+0	1.503089E+0	1.529398E+0	1.422380E+0	1.415101E+0	1.488070E+0	1.563018E+0	1.466982E+0	1.285404E+0	1.476703E+0	1.470548E+0	1.425540E+0	1.250537E+0	1.081872E+0	1.392699E+0	1.412114E+0	1.431670E+0	1.419491E+0	1.507240E+0	1.332460E+0	1.498326E+0
5.417600E+2	1.189735E+0	1.050755E+0	1.464061E+0	1.230321E+0	1.313763E+0	1.217371E+0	1.425914E+0	1.357342E+0	1.265929E+0	1.379806E+0	1.395110E+0	1.320305E+0	1.361402E+0	1.370764E+0	1.156314E+0	1.308716E+0	1.341738E+0	1.452581E+0	1.200891E+0	1.309123E+0	1.302865E+0	1.387242E+0	1.294623E+0	1.324369E+0	1.285494E+0	1.432833E+0	1.361381E+0	1.195435E+0	1.378559E+0	1.389501E+0	1.139526E+0	1.293045E+0	1.403902E+0	1.405102E+0	1.209016E+0	1.251376E+0	1.297945E+0	1.444184E+0	1.377437E+0	1.377037E+0	1.269167E+0	1.382279E+0	1.297756E+0	1.358653E+0	1.463646E+0	1.471558E+0	1.225840E+0	1.288371E+0	1.310424E+0	1.405518E+0	1.236924E+0	1.264952E+0	1.290257E+0	1.435739E+0	1.381956E+0	1.423362E+0	1.234153E+0	1.424417E+0	1.327792E+0	1.400608E+0	1.376097E+0	1.436425E+0	1.283875E+0	1.327080E+0	1.368493E+0	1.417196E+0	1.361993E+0	1.203464E+0	1.294025E+0	1.353169E+0	1.396182E+0	1.379993E+0	1.291936E+0	1.361862E+0	1.269951E+0	1.374220E+0	1.408820E+0	1.424573E+0	1.225424E+0	1.320107E+0	1.387825E+0	1.445097E+0	1.258574E+0	1.309532E+0	1.378344E+0	1.449178E+0	1.397517E+0	1.397871E+0	1.389409E+0	1.204093E+0	1.385817E+0	1.329733E+0	1.488908E+0	1.355771E+0	1.265394E+0	1.294010E+0	1.454634E+0	1.231327E+0	1.261395E+0	1.233610E+0	1.375024E+0	1.361781E+0	1.443091E+0	1.403120E+0	1.340437E+0	1.298954E+0	1.274539E+0	1.443102E+0	1.430702E+0	1.237527E+0	1.237946E+0	1.320932E+0	1.377571E+0	1.201825E+0	1.291033E+0	1.366622E+0	1.344896E+0	1.346425E+0	1.380502E+0	1.421343E+0	1.312644E+0	1.313048E+0	1.340373E+0	1.356776E+0	1.462153E+0	1.236548E+0	1.306056E+0	1.318691E+0	1.444889E+0	1.284873E+0	1.246679E+0	1.300105E+0	1.391892E+0	1.359945E+0	1.417690E+0	1.418655E+0	1.307371E+0	1.363748E+0	1.414478E+0	1.369866E+0	1.443639E+0	1.227633E+0	1.378620E+0	1.328286E+0	1.311023E+0	1.197671E+0	1.389704E+0	1.352845E+0	1.255053E+0	1.336153E+0	1.342445E+0	1.399796E+0	1.272883E+0	1.336645E+0	1.349598E+0	1.407774E+0	1.439307E+0	1.169231E+0	1.343149E+0	1.321780E+0	1.379669E+0	1.181202E+0	9.950948E-1	1.288060E+0	1.248908E+0	1.384036E+0	1.351075E+0	1.414819E+0	1.277909E+0	1.403643E+0
5.420050E+2	1.200026E+0	9.277965E-1	1.314897E+0	1.086442E+0	1.170760E+0	1.153078E+0	1.309783E+0	1.248148E+0	1.169679E+0	1.191245E+0	1.218896E+0	1.243950E+0	1.230617E+0	1.244864E+0	1.035486E+0	1.139296E+0	1.217647E+0	1.252242E+0	1.074248E+0	1.145814E+0	1.195016E+0	1.259819E+0	1.118967E+0	1.182092E+0	1.169129E+0	1.295745E+0	1.213254E+0	1.053869E+0	1.262779E+0	1.298959E+0	1.033477E+0	1.127092E+0	1.260380E+0	1.219185E+0	1.051361E+0	1.156092E+0	1.182703E+0	1.256070E+0	1.140206E+0	1.196175E+0	1.124420E+0	1.192356E+0	1.151019E+0	1.193993E+0	1.294665E+0	1.273434E+0	1.026939E+0	1.090750E+0	1.198638E+0	1.292338E+0	1.079217E+0	1.126050E+0	1.128806E+0	1.260669E+0	1.225597E+0	1.256106E+0	1.149643E+0	1.231656E+0	1.227881E+0	1.196578E+0	1.274686E+0	1.263206E+0	1.144891E+0	1.134250E+0	1.184379E+0	1.270784E+0	1.211784E+0	1.090537E+0	1.154450E+0	1.230498E+0	1.292466E+0	1.248690E+0	1.159459E+0	1.203590E+0	1.133571E+0	1.203821E+0	1.268549E+0	1.219929E+0	1.030564E+0	1.210145E+0	1.248236E+0	1.273228E+0	1.117254E+0	1.158267E+0	1.203777E+0	1.259328E+0	1.178961E+0	1.249831E+0	1.186312E+0	1.043839E+0	1.228704E+0	1.143158E+0	1.259917E+0	1.183899E+0	1.149706E+0	1.132963E+0	1.205315E+0	1.150666E+0	1.174748E+0	1.165909E+0	1.171778E+0	1.265653E+0	1.265280E+0	1.222739E+0	1.139381E+0	1.265000E+0	1.146633E+0	1.241995E+0	1.261284E+0	1.243800E+0	1.120897E+0	1.154388E+0	1.203971E+0	1.289475E+0	1.108008E+0	1.188282E+0	1.170778E+0	1.281691E+0	1.222450E+0	1.295541E+0	1.186372E+0	1.091292E+0	1.189230E+0	1.252111E+0	1.230457E+0	1.085907E+0	1.084557E+0	1.138533E+0	1.210772E+0	1.073335E+0	1.135077E+0	1.093545E+0	1.234051E+0	1.139264E+0	1.229551E+0	1.285940E+0	1.157114E+0	1.224325E+0	1.233513E+0	1.226366E+0	1.269761E+0	1.037300E+0	1.228275E+0	1.192032E+0	1.181849E+0	1.091380E+0	1.215800E+0	1.197313E+0	1.109321E+0	1.194098E+0	1.237435E+0	1.265192E+0	1.121426E+0	1.203764E+0	1.193308E+0	1.177727E+0	1.269559E+0	1.122293E+0	1.167421E+0	1.253756E+0	1.219777E+0	1.054768E+0	9.220518E-1	1.175645E+0	1.132752E+0	1.240525E+0	1.175537E+0	1.241843E+0	1.166402E+0	1.223513E+0
5.422730E+2	1.003859E+0	8.320178E-1	1.161969E+0	9.028971E-1	9.495395E-1	9.494842E-1	1.095116E+0	1.068044E+0	1.019736E+0	1.067104E+0	1.075805E+0	1.079591E+0	1.094843E+0	1.117303E+0	8.773175E-1	1.006009E+0	1.083108E+0	1.105815E+0	9.493268E-1	1.016850E+0	1.017961E+0	1.098742E+0	9.738364E-1	1.046962E+0	1.019425E+0	1.123720E+0	1.048525E+0	9.091292E-1	1.071511E+0	1.123267E+0	8.555220E-1	9.664705E-1	1.080241E+0	1.099258E+0	8.687132E-1	9.794327E-1	1.050310E+0	1.077542E+0	1.010150E+0	1.050048E+0	9.330857E-1	1.038349E+0	9.974128E-1	1.081158E+0	1.177060E+0	1.125849E+0	9.378134E-1	9.819162E-1	1.018542E+0	1.082888E+0	9.463108E-1	9.669574E-1	1.040541E+0	1.107790E+0	1.060850E+0	1.050807E+0	1.004595E+0	1.108445E+0	1.052171E+0	1.048547E+0	1.107958E+0	1.129354E+0	9.898524E-1	1.006077E+0	1.037586E+0	1.096795E+0	1.038356E+0	9.461275E-1	1.043014E+0	1.022135E+0	1.167272E+0	1.092431E+0	1.050904E+0	1.050922E+0	9.885908E-1	1.043198E+0	1.063319E+0	1.173278E+0	9.508757E-1	9.303591E-1	1.036444E+0	1.076891E+0	9.910774E-1	1.023583E+0	1.067053E+0	1.094302E+0	1.026034E+0	1.094423E+0	1.052847E+0	9.333654E-1	1.068610E+0	1.015257E+0	1.139497E+0	1.073957E+0	1.003577E+0	1.002706E+0	1.038872E+0	9.194337E-1	1.005825E+0	9.509453E-1	1.030601E+0	1.055800E+0	1.078639E+0	1.072313E+0	9.813558E-1	1.075648E+0	9.624507E-1	1.092217E+0	1.074256E+0	1.103485E+0	9.371273E-1	1.042548E+0	1.109651E+0	1.083662E+0	1.007511E+0	9.983423E-1	1.048634E+0	1.109903E+0	1.116222E+0	1.096473E+0	1.027104E+0	1.084916E+0	1.029654E+0	1.077926E+0	1.158169E+0	1.067152E+0	9.616986E-1	1.053332E+0	1.129398E+0	1.133966E+0	1.019366E+0	9.658812E-1	1.072649E+0	1.061726E+0	1.096447E+0	1.088678E+0	1.035378E+0	1.053659E+0	1.058458E+0	1.046318E+0	1.102130E+0	9.982573E-1	1.099218E+0	1.014839E+0	1.026058E+0	9.559827E-1	1.029370E+0	1.063805E+0	1.026452E+0	1.095605E+0	1.091172E+0	1.144983E+0	1.029377E+0	1.097742E+0	1.031532E+0	1.113511E+0	1.075823E+0	8.993342E-1	1.068374E+0	1.078288E+0	1.010193E+0	8.732754E-1	7.834591E-1	1.015858E+0	1.027048E+0	1.017623E+0	1.044230E+0	1.076362E+0	1.020399E+0	1.079178E+0
5.425460E+2	9.929255E-1	7.886580E-1	1.005274E+0	8.941567E-1	8.988170E-1	8.656511E-1	1.028957E+0	9.582237E-1	9.071163E-1	9.617510E-1	9.969718E-1	9.864115E-1	9.407813E-1	9.306597E-1	8.114579E-1	9.106353E-1	9.553303E-1	9.691921E-1	8.266966E-1	9.105683E-1	9.106900E-1	1.004979E+0	8.868729E-1	9.625043E-1	9.252880E-1	9.385165E-1	1.002554E+0	8.704057E-1	1.040298E+0	1.033922E+0	8.146546E-1	9.125354E-1	9.337656E-1	1.004714E+0	8.341063E-1	9.383977E-1	9.473944E-1	1.002653E+0	9.120065E-1	9.464416E-1	9.082368E-1	9.452149E-1	9.199862E-1	9.381470E-1	1.016637E+0	1.028797E+0	8.285818E-1	9.000037E-1	9.620287E-1	1.000929E+0	8.795391E-1	8.849622E-1	9.282548E-1	9.690895E-1	9.781768E-1	9.741222E-1	8.961227E-1	1.004448E+0	9.846441E-1	9.442810E-1	1.034049E+0	1.025178E+0	9.015225E-1	9.266771E-1	9.442859E-1	9.924031E-1	9.425706E-1	9.160137E-1	9.366436E-1	9.698982E-1	1.074608E+0	9.694442E-1	9.159766E-1	1.004702E+0	9.259290E-1	1.003392E+0	1.026526E+0	9.792066E-1	8.400745E-1	9.199741E-1	1.030255E+0	1.008388E+0	8.850892E-1	9.192870E-1	9.236158E-1	1.043988E+0	9.572177E-1	9.985961E-1	1.007875E+0	8.563064E-1	9.718110E-1	9.783383E-1	1.057760E+0	1.015507E+0	9.717788E-1	9.144866E-1	1.004341E+0	9.221227E-1	9.708749E-1	8.776618E-1	1.008693E+0	9.806585E-1	1.034500E+0	1.013018E+0	9.178640E-1	9.600773E-1	8.415809E-1	9.972875E-1	9.947084E-1	1.043023E+0	8.645564E-1	8.966699E-1	1.037200E+0	1.005751E+0	9.489429E-1	9.084480E-1	9.628750E-1	1.038945E+0	1.032017E+0	1.058457E+0	9.617464E-1	9.715593E-1	9.265133E-1	9.419381E-1	1.029657E+0	1.004235E+0	9.102576E-1	9.609769E-1	1.032016E+0	9.803666E-1	9.125571E-1	9.106550E-1	9.587170E-1	1.051787E+0	1.026694E+0	9.752669E-1	9.560757E-1	1.053659E+0	9.698216E-1	9.759222E-1	9.901716E-1	1.063531E+0	1.011404E+0	9.836775E-1	9.449167E-1	9.945770E-1	9.623137E-1	9.688350E-1	9.395852E-1	1.099393E+0	9.892847E-1	1.051070E+0	9.327592E-1	9.577929E-1	1.003428E+0	1.009073E+0	1.053683E+0	9.691546E-1	8.983973E-1	9.911903E-1	9.471263E-1	9.099818E-1	6.910636E-1	9.168741E-1	9.689693E-1	1.010294E+0	9.384927E-1	1.012668E+0	8.166372E-1	9.741026E-1
5.427600E+2	9.549785E-1	7.187659E-1	9.962334E-1	8.975181E-1	9.428172E-1	8.473722E-1	9.698361E-1	1.019096E+0	9.313428E-1	9.691323E-1	9.592115E-1	9.728228E-1	1.005621E+0	9.836714E-1	8.207923E-1	9.367001E-1	9.872746E-1	1.024331E+0	8.570675E-1	9.008476E-1	9.597122E-1	1.008586E+0	9.381295E-1	9.371671E-1	8.814876E-1	1.030789E+0	9.559443E-1	8.507256E-1	9.750275E-1	1.014134E+0	8.508665E-1	8.538577E-1	9.786530E-1	1.038978E+0	8.405148E-1	8.869308E-1	9.548986E-1	9.966624E-1	9.541543E-1	9.254822E-1	9.566930E-1	9.902604E-1	9.206103E-1	9.925958E-1	1.041186E+0	9.943404E-1	8.948825E-1	8.816739E-1	1.003016E+0	1.050364E+0	8.731800E-1	9.112742E-1	8.846799E-1	9.752542E-1	9.416331E-1	1.000086E+0	9.036904E-1	9.971610E-1	9.853333E-1	9.462118E-1	1.016289E+0	1.028206E+0	8.885509E-1	9.317808E-1	9.878264E-1	9.983118E-1	9.520039E-1	8.605767E-1	9.512765E-1	9.716586E-1	9.745753E-1	9.985569E-1	9.319228E-1	9.843928E-1	9.462020E-1	9.740613E-1	1.038025E+0	1.066289E+0	8.297037E-1	9.462422E-1	1.079077E+0	1.054873E+0	8.585921E-1	9.275753E-1	9.449800E-1	9.480571E-1	9.374641E-1	9.924532E-1	9.911917E-1	8.849472E-1	9.330906E-1	9.836123E-1	1.065870E+0	1.039861E+0	9.393058E-1	9.180386E-1	9.760250E-1	9.019570E-1	9.796126E-1	8.951104E-1	9.168065E-1	1.020599E+0	1.006125E+0	1.006776E+0	9.065771E-1	1.000560E+0	9.291957E-1	1.066199E+0	9.801349E-1	1.029906E+0	9.289340E-1	9.641385E-1	1.005761E+0	1.012892E+0	8.770648E-1	9.251221E-1	9.680725E-1	1.042058E+0	1.018414E+0	1.009381E+0	9.331924E-1	9.630576E-1	9.446762E-1	1.033615E+0	1.039543E+0	1.029038E+0	9.090477E-1	9.421153E-1	9.533098E-1	1.037630E+0	8.913320E-1	9.278681E-1	9.972864E-1	1.025278E+0	9.978972E-1	9.565664E-1	9.832053E-1	1.022422E+0	1.005276E+0	9.705075E-1	1.013939E+0	1.026928E+0	1.019387E+0	9.488502E-1	9.663385E-1	1.049622E+0	9.409443E-1	9.316727E-1	9.292966E-1	1.081085E+0	1.008662E+0	1.037297E+0	8.968532E-1	1.120360E+0	9.561289E-1	1.042945E+0	9.854151E-1	1.037216E+0	9.680491E-1	9.772039E-1	9.624151E-1	1.046612E+0	7.172843E-1	9.946467E-1	8.917243E-1	1.013349E+0	9.854867E-1	9.814449E-1	9.088913E-1	1.029527E+0
5.430120E+2	1.035374E+0	8.248990E-1	1.168749E+0	9.492874E-1	1.050373E+0	9.293142E-1	1.172537E+0	1.071182E+0	1.055094E+0	1.012079E+0	1.063218E+0	1.087356E+0	1.102603E+0	1.128900E+0	8.799104E-1	9.923840E-1	1.054850E+0	1.089885E+0	9.539112E-1	9.753740E-1	1.020269E+0	1.095137E+0	9.859313E-1	1.019676E+0	1.024001E+0	1.132289E+0	1.108541E+0	8.964330E-1	1.077188E+0	1.100481E+0	9.139781E-1	1.000254E+0	1.079649E+0	1.087202E+0	9.411314E-1	9.662178E-1	1.022435E+0	1.085929E+0	1.010753E+0	1.090174E+0	1.026269E+0	1.069394E+0	1.008028E+0	1.050324E+0	1.138239E+0	1.141929E+0	9.367277E-1	9.922268E-1	1.035930E+0	1.127121E+0	9.577567E-1	1.015910E+0	1.003670E+0	1.039365E+0	1.059651E+0	1.096697E+0	1.006487E+0	1.085924E+0	1.040457E+0	1.065282E+0	1.120564E+0	1.165692E+0	9.960288E-1	1.003807E+0	1.055003E+0	1.090887E+0	1.036179E+0	9.769258E-1	1.021066E+0	1.039159E+0	1.108973E+0	1.067476E+0	1.049677E+0	1.128657E+0	1.045724E+0	1.119319E+0	1.082289E+0	1.098634E+0	9.181268E-1	9.883931E-1	1.114148E+0	1.070165E+0	1.013790E+0	1.047757E+0	1.076210E+0	1.082897E+0	1.064903E+0	1.082137E+0	1.095643E+0	9.524593E-1	1.008297E+0	1.033717E+0	1.176933E+0	1.094136E+0	1.051610E+0	1.024614E+0	1.089288E+0	9.490100E-1	1.083006E+0	9.788619E-1	1.046422E+0	1.116048E+0	1.135388E+0	1.111012E+0	1.013102E+0	1.135067E+0	9.841946E-1	1.110499E+0	1.111906E+0	1.142843E+0	9.394681E-1	1.009117E+0	1.044719E+0	1.093401E+0	9.815550E-1	1.020092E+0	1.042138E+0	1.132311E+0	1.119461E+0	1.191860E+0	1.065176E+0	1.121757E+0	1.038087E+0	1.064174E+0	1.105652E+0	1.117365E+0	9.992219E-1	1.021463E+0	1.100050E+0	1.133965E+0	1.033060E+0	1.003176E+0	1.074429E+0	1.130646E+0	1.106046E+0	1.095916E+0	1.016595E+0	1.163371E+0	1.119025E+0	1.069331E+0	1.137782E+0	1.161749E+0	1.121169E+0	1.074716E+0	1.038391E+0	1.122383E+0	1.044107E+0	1.025955E+0	1.020166E+0	1.172000E+0	1.099922E+0	1.168773E+0	1.000653E+0	1.142271E+0	1.094598E+0	1.076817E+0	1.069674E+0	1.082981E+0	1.005751E+0	1.077017E+0	1.040133E+0	1.171685E+0	8.889649E-1	1.064642E+0	9.985900E-1	1.093960E+0	1.069801E+0	1.115077E+0	9.891128E-1	1.160005E+0
5.432910E+2	1.255337E+0	9.970420E-1	1.281751E+0	1.095854E+0	1.182984E+0	1.155599E+0	1.241511E+0	1.232459E+0	1.182117E+0	1.203325E+0	1.226185E+0	1.200595E+0	1.214545E+0	1.312785E+0	1.016816E+0	1.173061E+0	1.296277E+0	1.272460E+0	1.027835E+0	1.123779E+0	1.190980E+0	1.313311E+0	1.097083E+0	1.247058E+0	1.201815E+0	1.247628E+0	1.194098E+0	1.025937E+0	1.224184E+0	1.264780E+0	1.063480E+0	1.107531E+0	1.285187E+0	1.216013E+0	1.035339E+0	1.159570E+0	1.126958E+0	1.208141E+0	1.204629E+0	1.229113E+0	1.130012E+0	1.259317E+0	1.172873E+0	1.194649E+0	1.296374E+0	1.274585E+0	1.084002E+0	1.163499E+0	1.158895E+0	1.313152E+0	1.076039E+0	1.165213E+0	1.170708E+0	1.291494E+0	1.208825E+0	1.247049E+0	1.193790E+0	1.277363E+0	1.249240E+0	1.221039E+0	1.295885E+0	1.324983E+0	1.099799E+0	1.152400E+0	1.199927E+0	1.301643E+0	1.166069E+0	1.149396E+0	1.199476E+0	1.262194E+0	1.285101E+0	1.254036E+0	1.232443E+0	1.288329E+0	1.159375E+0	1.249912E+0	1.258777E+0	1.322563E+0	1.092245E+0	1.197928E+0	1.290869E+0	1.245702E+0	1.138071E+0	1.149291E+0	1.209880E+0	1.239874E+0	1.210181E+0	1.254130E+0	1.253769E+0	1.054068E+0	1.194450E+0	1.162936E+0	1.276140E+0	1.220778E+0	1.202476E+0	1.123490E+0	1.211530E+0	1.147977E+0	1.227173E+0	1.077969E+0	1.205856E+0	1.302207E+0	1.266540E+0	1.192154E+0	1.135147E+0	1.287204E+0	1.140878E+0	1.264498E+0	1.212706E+0	1.296847E+0	1.101583E+0	1.198151E+0	1.259330E+0	1.245975E+0	1.082052E+0	1.196982E+0	1.234445E+0	1.275469E+0	1.234112E+0	1.345309E+0	1.185105E+0	1.258495E+0	1.136038E+0	1.270446E+0	1.309544E+0	1.280711E+0	1.163230E+0	1.183409E+0	1.274139E+0	1.250513E+0	1.199437E+0	1.151640E+0	1.270248E+0	1.307592E+0	1.256429E+0	1.324548E+0	1.250329E+0	1.341655E+0	1.285218E+0	1.224337E+0	1.294778E+0	1.330121E+0	1.260871E+0	1.216471E+0	1.220797E+0	1.266638E+0	1.195168E+0	1.191120E+0	1.177332E+0	1.329209E+0	1.239935E+0	1.317780E+0	1.163858E+0	1.328868E+0	1.248147E+0	1.289928E+0	1.219742E+0	1.278950E+0	1.154002E+0	1.249306E+0	1.189200E+0	1.294041E+0	1.191748E+0	1.136758E+0	1.173407E+0	1.276556E+0	1.263996E+0	1.277438E+0	1.130302E+0	1.300876E+0
5.435270E+2	1.313864E+0	1.033929E+0	1.422625E+0	1.191997E+0	1.351651E+0	1.248888E+0	1.370311E+0	1.395622E+0	1.282950E+0	1.397925E+0	1.362648E+0	1.368187E+0	1.418484E+0	1.414940E+0	1.129866E+0	1.369734E+0	1.338053E+0	1.465447E+0	1.223240E+0	1.250801E+0	1.345541E+0	1.383635E+0	1.291164E+0	1.394536E+0	1.356753E+0	1.477651E+0	1.415014E+0	1.210036E+0	1.384805E+0	1.418884E+0	1.179360E+0	1.277637E+0	1.354881E+0	1.398123E+0	1.178895E+0	1.251376E+0	1.277042E+0	1.401650E+0	1.319032E+0	1.335713E+0	1.290289E+0	1.372540E+0	1.296505E+0	1.395389E+0	1.425398E+0	1.396903E+0	1.243776E+0	1.257439E+0	1.333402E+0	1.419829E+0	1.214669E+0	1.273518E+0	1.351706E+0	1.390123E+0	1.329837E+0	1.433629E+0	1.328119E+0	1.393945E+0	1.384295E+0	1.419915E+0	1.454018E+0	1.447933E+0	1.265342E+0	1.278872E+0	1.347965E+0	1.358105E+0	1.386663E+0	1.239054E+0	1.384075E+0	1.366669E+0	1.490688E+0	1.347315E+0	1.314014E+0	1.387774E+0	1.282240E+0	1.449641E+0	1.389273E+0	1.438259E+0	1.221060E+0	1.258405E+0	1.436648E+0	1.454270E+0	1.237123E+0	1.301935E+0	1.361864E+0	1.392156E+0	1.327425E+0	1.373916E+0	1.319776E+0	1.169997E+0	1.363478E+0	1.302702E+0	1.453340E+0	1.421875E+0	1.320191E+0	1.317101E+0	1.333771E+0	1.246790E+0	1.345130E+0	1.255941E+0	1.312346E+0	1.371259E+0	1.383822E+0	1.398753E+0	1.273415E+0	1.408648E+0	1.273259E+0	1.381927E+0	1.428883E+0	1.510746E+0	1.231510E+0	1.347069E+0	1.404228E+0	1.448541E+0	1.304346E+0	1.309352E+0	1.389722E+0	1.475269E+0	1.358478E+0	1.455210E+0	1.351985E+0	1.410818E+0	1.294966E+0	1.375112E+0	1.408399E+0	1.416834E+0	1.312714E+0	1.299179E+0	1.440221E+0	1.412196E+0	1.267905E+0	1.279303E+0	1.364004E+0	1.465315E+0	1.401055E+0	1.431925E+0	1.369285E+0	1.425464E+0	1.382718E+0	1.378661E+0	1.386724E+0	1.463111E+0	1.399907E+0	1.315452E+0	1.301936E+0	1.453284E+0	1.361701E+0	1.331510E+0	1.326492E+0	1.489575E+0	1.423078E+0	1.461152E+0	1.311398E+0	1.453268E+0	1.349599E+0	1.443056E+0	1.354431E+0	1.395123E+0	1.353372E+0	1.379635E+0	1.294946E+0	1.461259E+0	1.278523E+0	1.278164E+0	1.198961E+0	1.421901E+0	1.363515E+0	1.393588E+0	1.289943E+0	1.419809E+0
5.437850E+2	1.437354E+0	1.193130E+0	1.580072E+0	1.352681E+0	1.401763E+0	1.332087E+0	1.518816E+0	1.531171E+0	1.425037E+0	1.467715E+0	1.474607E+0	1.425778E+0	1.508814E+0	1.498875E+0	1.269365E+0	1.415345E+0	1.441873E+0	1.550607E+0	1.312633E+0	1.374579E+0	1.490873E+0	1.538101E+0	1.386767E+0	1.473145E+0	1.444351E+0	1.530378E+0	1.496739E+0	1.273519E+0	1.484126E+0	1.560994E+0	1.295236E+0	1.361801E+0	1.497220E+0	1.525661E+0	1.239778E+0	1.321623E+0	1.465179E+0	1.543037E+0	1.391283E+0	1.454294E+0	1.366077E+0	1.473588E+0	1.395786E+0	1.490513E+0	1.606942E+0	1.537600E+0	1.335071E+0	1.376583E+0	1.432767E+0	1.525857E+0	1.329133E+0	1.348172E+0	1.407012E+0	1.512793E+0	1.407121E+0	1.506693E+0	1.391814E+0	1.544314E+0	1.473872E+0	1.510021E+0	1.534228E+0	1.592079E+0	1.335760E+0	1.446747E+0	1.451838E+0	1.527496E+0	1.460681E+0	1.362931E+0	1.445984E+0	1.503426E+0	1.541010E+0	1.476242E+0	1.461821E+0	1.426288E+0	1.392818E+0	1.495733E+0	1.542191E+0	1.534051E+0	1.278369E+0	1.430062E+0	1.544604E+0	1.540513E+0	1.401153E+0	1.426952E+0	1.485768E+0	1.498820E+0	1.507749E+0	1.450697E+0	1.482979E+0	1.314566E+0	1.529527E+0	1.393683E+0	1.582500E+0	1.533207E+0	1.456850E+0	1.386376E+0	1.513338E+0	1.353669E+0	1.436146E+0	1.295723E+0	1.412752E+0	1.489048E+0	1.545869E+0	1.494250E+0	1.431440E+0	1.526178E+0	1.376863E+0	1.511313E+0	1.531508E+0	1.540976E+0	1.322224E+0	1.450398E+0	1.485564E+0	1.534890E+0	1.382211E+0	1.439117E+0	1.458589E+0	1.566141E+0	1.504219E+0	1.619028E+0	1.433207E+0	1.512128E+0	1.382537E+0	1.470607E+0	1.497372E+0	1.532386E+0	1.343577E+0	1.476086E+0	1.495583E+0	1.588029E+0	1.430857E+0	1.384737E+0	1.444708E+0	1.606468E+0	1.525842E+0	1.463900E+0	1.499367E+0	1.589270E+0	1.486126E+0	1.470718E+0	1.553722E+0	1.600982E+0	1.454455E+0	1.409550E+0	1.410342E+0	1.552615E+0	1.408863E+0	1.428546E+0	1.455653E+0	1.534400E+0	1.535593E+0	1.605778E+0	1.424988E+0	1.543033E+0	1.442825E+0	1.447998E+0	1.485436E+0	1.572315E+0	1.406412E+0	1.515687E+0	1.407701E+0	1.529231E+0	1.440841E+0	1.392702E+0	1.403981E+0	1.514116E+0	1.463030E+0	1.532841E+0	1.343692E+0	1.541050E+0
5.440060E+2	1.555697E+0	1.265612E+0	1.747317E+0	1.411174E+0	1.583874E+0	1.489672E+0	1.654656E+0	1.612122E+0	1.491825E+0	1.606616E+0	1.615713E+0	1.583019E+0	1.646248E+0	1.605450E+0	1.342486E+0	1.504795E+0	1.573952E+0	1.669465E+0	1.483401E+0	1.494469E+0	1.602185E+0	1.662518E+0	1.485825E+0	1.573195E+0	1.483575E+0	1.646377E+0	1.594427E+0	1.335731E+0	1.561314E+0	1.657537E+0	1.352142E+0	1.442999E+0	1.573408E+0	1.614495E+0	1.422426E+0	1.525406E+0	1.525751E+0	1.647281E+0	1.556261E+0	1.597424E+0	1.494672E+0	1.580113E+0	1.530659E+0	1.565953E+0	1.725119E+0	1.701267E+0	1.400285E+0	1.463650E+0	1.529025E+0	1.603258E+0	1.433424E+0	1.478507E+0	1.531031E+0	1.649648E+0	1.568871E+0	1.608131E+0	1.547586E+0	1.599295E+0	1.674386E+0	1.601416E+0	1.669446E+0	1.631448E+0	1.472268E+0	1.539191E+0	1.605470E+0	1.669973E+0	1.605810E+0	1.485440E+0	1.556855E+0	1.590881E+0	1.709159E+0	1.526153E+0	1.521311E+0	1.557949E+0	1.487422E+0	1.642387E+0	1.591055E+0	1.758602E+0	1.373888E+0	1.510700E+0	1.645686E+0	1.667732E+0	1.422601E+0	1.562325E+0	1.607233E+0	1.634332E+0	1.612250E+0	1.571707E+0	1.575827E+0	1.374578E+0	1.631540E+0	1.559819E+0	1.684823E+0	1.565914E+0	1.521802E+0	1.504199E+0	1.606573E+0	1.449115E+0	1.527889E+0	1.488355E+0	1.566704E+0	1.643388E+0	1.637931E+0	1.624698E+0	1.546430E+0	1.667213E+0	1.504128E+0	1.705391E+0	1.665099E+0	1.668173E+0	1.430496E+0	1.508747E+0	1.694027E+0	1.655653E+0	1.485373E+0	1.445645E+0	1.557341E+0	1.683780E+0	1.629233E+0	1.627321E+0	1.560112E+0	1.598564E+0	1.553793E+0	1.602012E+0	1.721034E+0	1.601958E+0	1.502142E+0	1.515759E+0	1.659664E+0	1.602850E+0	1.502746E+0	1.500208E+0	1.570506E+0	1.654185E+0	1.709499E+0	1.623759E+0	1.619714E+0	1.706604E+0	1.675955E+0	1.636555E+0	1.683197E+0	1.630872E+0	1.602806E+0	1.511584E+0	1.549903E+0	1.595003E+0	1.536345E+0	1.518697E+0	1.503085E+0	1.626577E+0	1.614973E+0	1.676528E+0	1.444574E+0	1.680859E+0	1.594318E+0	1.582074E+0	1.616433E+0	1.643896E+0	1.562330E+0	1.555738E+0	1.522368E+0	1.672662E+0	1.466436E+0	1.498048E+0	1.469610E+0	1.613047E+0	1.528683E+0	1.634002E+0	1.464022E+0	1.635733E+0
5.442750E+2	1.565987E+0	1.274022E+0	1.784987E+0	1.430671E+0	1.607707E+0	1.451221E+0	1.677881E+0	1.605220E+0	1.594620E+0	1.681102E+0	1.674670E+0	1.609550E+0	1.637936E+0	1.687729E+0	1.357005E+0	1.523749E+0	1.618185E+0	1.674370E+0	1.438702E+0	1.543074E+0	1.550855E+0	1.659511E+0	1.494463E+0	1.605031E+0	1.524105E+0	1.709652E+0	1.610389E+0	1.371280E+0	1.608990E+0	1.742083E+0	1.384212E+0	1.534866E+0	1.580496E+0	1.755995E+0	1.430117E+0	1.500367E+0	1.585782E+0	1.726959E+0	1.543019E+0	1.595630E+0	1.517658E+0	1.586203E+0	1.542525E+0	1.589570E+0	1.746242E+0	1.654176E+0	1.383982E+0	1.492295E+0	1.496111E+0	1.666354E+0	1.469035E+0	1.562335E+0	1.559520E+0	1.672455E+0	1.636568E+0	1.622624E+0	1.563355E+0	1.615193E+0	1.569651E+0	1.574381E+0	1.658559E+0	1.725324E+0	1.504389E+0	1.517640E+0	1.607964E+0	1.702143E+0	1.591294E+0	1.475857E+0	1.581620E+0	1.613770E+0	1.708546E+0	1.591506E+0	1.628640E+0	1.629380E+0	1.532268E+0	1.628423E+0	1.624399E+0	1.691422E+0	1.480323E+0	1.603557E+0	1.719950E+0	1.683637E+0	1.492001E+0	1.594792E+0	1.591364E+0	1.664519E+0	1.623081E+0	1.656477E+0	1.606288E+0	1.377989E+0	1.656854E+0	1.596736E+0	1.687319E+0	1.632019E+0	1.542094E+0	1.509531E+0	1.596212E+0	1.457857E+0	1.589050E+0	1.392738E+0	1.554538E+0	1.692809E+0	1.683959E+0	1.680250E+0	1.528796E+0	1.656766E+0	1.451048E+0	1.631559E+0	1.669956E+0	1.671594E+0	1.450979E+0	1.565278E+0	1.687870E+0	1.697207E+0	1.468069E+0	1.515965E+0	1.576834E+0	1.650171E+0	1.649310E+0	1.666720E+0	1.573439E+0	1.685707E+0	1.546657E+0	1.605064E+0	1.690758E+0	1.681210E+0	1.467038E+0	1.539175E+0	1.629650E+0	1.635860E+0	1.556154E+0	1.530330E+0	1.634589E+0	1.705215E+0	1.603273E+0	1.655733E+0	1.590495E+0	1.682222E+0	1.596181E+0	1.644001E+0	1.683197E+0	1.627825E+0	1.582185E+0	1.588575E+0	1.581711E+0	1.678520E+0	1.587923E+0	1.573062E+0	1.502517E+0	1.666354E+0	1.712484E+0	1.677152E+0	1.445226E+0	1.700656E+0	1.612829E+0	1.623704E+0	1.616434E+0	1.706091E+0	1.567443E+0	1.637750E+0	1.551030E+0	1.680138E+0	1.540103E+0	1.556021E+0	1.554406E+0	1.638085E+0	1.654462E+0	1.622762E+0	1.461618E+0	1.643816E+0
5.445240E+2	1.542189E+0	1.512180E+0	1.736017E+0	1.428656E+0	1.533153E+0	1.476434E+0	1.663099E+0	1.612123E+0	1.643077E+0	1.609974E+0	1.619685E+0	1.572666E+0	1.612445E+0	1.659568E+0	1.344559E+0	1.531449E+0	1.595452E+0	1.695198E+0	1.410623E+0	1.567696E+0	1.542778E+0	1.643283E+0	1.438024E+0	1.592033E+0	1.513647E+0	1.650333E+0	1.608471E+0	1.349699E+0	1.628855E+0	1.656336E+0	1.357311E+0	1.520643E+0	1.574589E+0	1.691274E+0	1.378847E+0	1.482983E+0	1.542901E+0	1.633499E+0	1.543013E+0	1.566883E+0	1.536913E+0	1.614203E+0	1.496942E+0	1.613185E+0	1.645763E+0	1.670829E+0	1.345401E+0	1.455061E+0	1.504185E+0	1.635783E+0	1.428973E+0	1.415479E+0	1.517623E+0	1.656427E+0	1.537119E+0	1.588810E+0	1.455509E+0	1.637055E+0	1.584808E+0	1.632952E+0	1.641943E+0	1.681718E+0	1.436443E+0	1.480775E+0	1.591787E+0	1.643051E+0	1.586216E+0	1.434794E+0	1.559105E+0	1.592642E+0	1.687066E+0	1.566552E+0	1.559950E+0	1.628680E+0	1.513227E+0	1.539732E+0	1.634745E+0	1.599986E+0	1.420829E+0	1.523530E+0	1.671129E+0	1.653664E+0	1.413139E+0	1.576831E+0	1.563896E+0	1.635001E+0	1.584213E+0	1.619007E+0	1.634581E+0	1.390945E+0	1.579417E+0	1.505097E+0	1.599346E+0	1.581222E+0	1.508946E+0	1.541501E+0	1.587234E+0	1.441724E+0	1.609435E+0	1.452760E+0	1.529588E+0	1.623081E+0	1.579920E+0	1.659029E+0	1.437085E+0	1.686150E+0	1.459359E+0	1.660388E+0	1.589803E+0	1.612845E+0	1.452736E+0	1.521515E+0	1.625677E+0	1.680327E+0	1.521979E+0	1.514514E+0	1.518364E+0	1.697474E+0	1.627287E+0	1.672943E+0	1.553769E+0	1.609189E+0	1.502545E+0	1.588261E+0	1.664805E+0	1.611031E+0	1.406519E+0	1.549578E+0	1.636983E+0	1.738934E+0	1.532873E+0	1.493752E+0	1.547957E+0	1.635629E+0	1.595591E+0	1.608678E+0	1.526496E+0	1.685268E+0	1.578453E+0	1.594586E+0	1.625027E+0	1.710791E+0	1.697937E+0	1.523805E+0	1.522639E+0	1.610823E+0	1.558447E+0	1.510441E+0	1.470510E+0	1.676459E+0	1.593097E+0	1.664006E+0	1.545761E+0	1.632799E+0	1.572384E+0	1.591242E+0	1.581378E+0	1.667365E+0	1.511847E+0	1.564639E+0	1.482871E+0	1.612161E+0	1.494531E+0	1.442900E+0	1.489936E+0	1.621598E+0	1.572915E+0	1.569060E+0	1.427924E+0	1.644971E+0
5.447610E+2	1.478515E+0	1.510232E+0	1.585348E+0	1.328481E+0	1.457984E+0	1.381254E+0	1.592718E+0	1.555645E+0	1.447299E+0	1.524751E+0	1.600473E+0	1.483367E+0	1.510476E+0	1.574528E+0	1.577404E+0	1.397571E+0	1.525421E+0	1.546932E+0	1.611188E+0	1.439381E+0	1.502408E+0	1.534497E+0	1.550326E+0	1.490036E+0	1.473771E+0	1.532357E+0	1.582933E+0	1.310338E+0	1.547694E+0	1.534612E+0	1.398182E+0	1.412180E+0	1.526158E+0	1.541523E+0	1.376285E+0	1.403693E+0	1.434627E+0	1.566998E+0	1.471967E+0	1.485433E+0	1.354272E+0	1.446806E+0	1.490699E+0	1.447869E+0	1.588673E+0	1.612828E+0	1.295943E+0	1.388614E+0	1.462574E+0	1.588949E+0	1.364745E+0	1.391004E+0	1.453379E+0	1.510331E+0	1.501775E+0	1.544733E+0	1.389922E+0	1.541664E+0	1.505565E+0	1.531905E+0	1.578921E+0	1.610856E+0	1.439531E+0	1.427464E+0	1.527724E+0	1.557043E+0	1.449068E+0	1.388940E+0	1.441482E+0	1.562706E+0	1.572918E+0	1.507732E+0	1.431159E+0	1.560748E+0	1.425992E+0	1.580930E+0	1.520344E+0	1.600607E+0	1.275094E+0	1.439230E+0	1.572109E+0	1.565587E+0	1.379703E+0	1.451817E+0	1.492483E+0	1.564565E+0	1.503289E+0	1.534852E+0	1.512719E+0	1.288657E+0	1.467723E+0	1.491912E+0	1.542566E+0	1.534600E+0	1.482560E+0	1.431375E+0	1.503665E+0	1.426935E+0	1.474736E+0	1.356444E+0	1.455959E+0	1.585173E+0	1.607034E+0	1.529827E+0	1.426501E+0	1.571883E+0	1.365350E+0	1.528188E+0	1.540614E+0	1.589458E+0	1.380164E+0	1.457086E+0	1.557327E+0	1.566055E+0	1.378217E+0	1.468116E+0	1.551495E+0	1.573612E+0	1.500328E+0	1.601057E+0	1.504910E+0	1.536927E+0	1.436379E+0	1.469079E+0	1.610436E+0	1.526335E+0	1.376865E+0	1.466330E+0	1.559616E+0	1.534135E+0	1.437019E+0	1.381149E+0	1.493363E+0	1.583938E+0	1.525198E+0	1.555592E+0	1.481976E+0	1.610601E+0	1.553340E+0	1.544498E+0	1.605638E+0	1.569260E+0	1.508342E+0	1.424211E+0	1.460323E+0	1.594372E+0	1.481813E+0	1.509753E+0	1.463082E+0	1.588698E+0	1.521839E+0	1.545049E+0	1.405406E+0	1.573426E+0	1.554558E+0	1.567254E+0	1.522950E+0	1.593440E+0	1.440918E+0	1.498519E+0	1.445287E+0	1.528555E+0	1.405254E+0	1.442898E+0	1.399335E+0	1.535490E+0	1.541813E+0	1.505991E+0	1.305185E+0	1.591855E+0
5.450150E+2	1.391045E+0	1.382748E+0	1.507752E+0	1.236371E+0	1.326597E+0	1.320743E+0	1.458993E+0	1.448961E+0	1.381166E+0	1.387188E+0	1.464672E+0	1.374659E+0	1.434553E+0	1.495560E+0	1.425977E+0	1.325894E+0	1.403171E+0	1.412759E+0	1.551019E+0	1.290329E+0	1.342083E+0	1.469584E+0	1.467394E+0	1.363999E+0	1.320141E+0	1.414377E+0	1.442466E+0	1.143379E+0	1.404101E+0	1.438672E+0	1.446289E+0	1.332165E+0	1.410398E+0	1.467285E+0	1.457673E+0	1.267373E+0	1.341898E+0	1.397456E+0	1.471965E+0	1.353083E+0	1.335015E+0	1.402974E+0	1.343335E+0	1.344878E+0	1.434532E+0	1.424469E+0	1.368223E+0	1.265458E+0	1.358243E+0	1.458854E+0	1.336127E+0	1.273519E+0	1.363997E+0	1.486288E+0	1.379563E+0	1.385927E+0	1.357761E+0	1.464826E+0	1.460778E+0	1.374862E+0	1.466051E+0	1.437635E+0	1.289433E+0	1.348064E+0	1.377198E+0	1.417854E+0	1.363445E+0	1.281489E+0	1.411091E+0	1.417146E+0	1.464300E+0	1.416828E+0	1.328122E+0	1.387773E+0	1.327699E+0	1.373519E+0	1.421466E+0	1.392229E+0	1.219418E+0	1.318271E+0	1.351380E+0	1.452437E+0	1.292010E+0	1.308840E+0	1.316696E+0	1.419660E+0	1.373938E+0	1.425512E+0	1.395213E+0	1.201365E+0	1.418579E+0	1.386429E+0	1.505127E+0	1.433009E+0	1.378375E+0	1.324206E+0	1.384878E+0	1.258890E+0	1.350225E+0	1.211275E+0	1.356159E+0	1.432182E+0	1.456965E+0	1.404368E+0	1.332675E+0	1.423015E+0	1.287967E+0	1.437478E+0	1.427063E+0	1.487929E+0	1.269551E+0	1.354363E+0	1.350233E+0	1.470618E+0	1.283046E+0	1.313700E+0	1.326051E+0	1.460954E+0	1.346170E+0	1.448987E+0	1.301224E+0	1.396646E+0	1.327399E+0	1.384278E+0	1.541237E+0	1.443453E+0	1.250984E+0	1.336903E+0	1.414208E+0	1.481588E+0	1.319252E+0	1.342421E+0	1.381807E+0	1.474590E+0	1.384415E+0	1.421672E+0	1.393633E+0	1.462033E+0	1.441805E+0	1.411154E+0	1.457400E+0	1.531436E+0	1.344026E+0	1.320343E+0	1.372041E+0	1.396338E+0	1.300541E+0	1.286779E+0	1.359639E+0	1.440958E+0	1.418705E+0	1.476179E+0	1.266355E+0	1.519001E+0	1.434601E+0	1.434588E+0	1.391948E+0	1.449688E+0	1.350178E+0	1.370734E+0	1.345273E+0	1.474853E+0	1.347821E+0	1.358764E+0	1.313958E+0	1.505564E+0	1.414654E+0	1.433555E+0	1.256250E+0	1.482160E+0
5.452580E+2	1.417415E+0	1.332913E+0	1.480634E+0	1.242420E+0	1.336373E+0	1.337762E+0	1.456880E+0	1.370519E+0	1.299323E+0	1.368401E+0	1.467322E+0	1.368187E+0	1.364728E+0	1.378493E+0	1.424423E+0	1.340704E+0	1.352797E+0	1.453809E+0	1.450162E+0	1.277369E+0	1.298826E+0	1.429915E+0	1.477187E+0	1.357506E+0	1.311644E+0	1.451289E+0	1.488436E+0	1.197339E+0	1.377425E+0	1.385902E+0	1.416804E+0	1.266375E+0	1.356650E+0	1.339111E+0	1.441012E+0	1.296585E+0	1.371914E+0	1.373492E+0	1.479795E+0	1.349489E+0	1.315137E+0	1.412107E+0	1.469467E+0	1.335036E+0	1.456224E+0	1.410111E+0	1.445391E+0	1.270042E+0	1.364452E+0	1.460807E+0	1.397179E+0	1.236806E+0	1.290257E+0	1.407999E+0	1.423296E+0	1.419741E+0	1.352085E+0	1.407197E+0	1.385672E+0	1.313075E+0	1.447143E+0	1.437029E+0	1.366024E+0	1.300991E+0	1.337389E+0	1.383710E+0	1.401178E+0	1.213730E+0	1.323291E+0	1.337321E+0	1.462457E+0	1.355040E+0	1.291934E+0	1.379369E+0	1.292682E+0	1.382598E+0	1.422042E+0	1.459408E+0	1.268545E+0	1.317661E+0	1.402265E+0	1.397391E+0	1.254789E+0	1.339232E+0	1.401536E+0	1.374716E+0	1.384136E+0	1.362243E+0	1.381431E+0	1.181589E+0	1.334437E+0	1.335005E+0	1.420898E+0	1.432313E+0	1.351990E+0	1.293419E+0	1.375211E+0	1.232671E+0	1.324742E+0	1.255940E+0	1.341557E+0	1.388858E+0	1.391390E+0	1.351940E+0	1.267774E+0	1.415176E+0	1.257271E+0	1.469825E+0	1.382125E+0	1.447431E+0	1.277745E+0	1.316068E+0	1.428833E+0	1.447893E+0	1.289702E+0	1.273103E+0	1.376081E+0	1.452858E+0	1.354591E+0	1.443462E+0	1.301857E+0	1.434195E+0	1.272909E+0	1.362886E+0	1.450414E+0	1.395055E+0	1.330870E+0	1.364218E+0	1.379524E+0	1.463396E+0	1.276804E+0	1.291497E+0	1.366972E+0	1.475919E+0	1.357540E+0	1.363760E+0	1.305982E+0	1.446796E+0	1.445501E+0	1.386110E+0	1.404861E+0	1.411255E+0	1.400574E+0	1.339894E+0	1.351269E+0	1.450117E+0	1.344755E+0	1.308111E+0	1.299631E+0	1.425807E+0	1.353699E+0	1.463033E+0	1.353178E+0	1.426411E+0	1.348229E+0	1.459992E+0	1.368575E+0	1.410965E+0	1.283721E+0	1.389173E+0	1.302591E+0	1.417074E+0	1.312237E+0	1.285232E+0	1.288984E+0	1.426175E+0	1.375263E+0	1.362990E+0	1.199292E+0	1.445212E+0
5.455290E+2	1.279779E+0	1.269492E+0	1.400777E+0	1.177207E+0	1.296040E+0	1.224934E+0	1.432245E+0	1.383695E+0	1.278368E+0	1.393226E+0	1.456057E+0	1.249773E+0	1.357523E+0	1.365241E+0	1.369453E+0	1.242369E+0	1.338051E+0	1.417662E+0	1.395725E+0	1.248206E+0	1.282099E+0	1.350577E+0	1.413259E+0	1.333466E+0	1.301837E+0	1.384720E+0	1.346696E+0	1.164330E+0	1.255968E+0	1.366116E+0	1.337656E+0	1.266376E+0	1.307629E+0	1.290886E+0	1.360904E+0	1.256941E+0	1.281331E+0	1.333354E+0	1.418379E+0	1.293193E+0	1.226922E+0	1.302536E+0	1.393291E+0	1.352750E+0	1.348897E+0	1.440548E+0	1.383981E+0	1.204739E+0	1.267572E+0	1.376248E+0	1.327226E+0	1.206210E+0	1.276289E+0	1.366698E+0	1.424493E+0	1.321921E+0	1.268839E+0	1.407195E+0	1.336749E+0	1.266734E+0	1.380681E+0	1.435818E+0	1.409264E+0	1.222158E+0	1.312511E+0	1.377148E+0	1.401176E+0	1.210992E+0	1.271512E+0	1.278630E+0	1.344015E+0	1.304537E+0	1.260042E+0	1.304436E+0	1.383602E+0	1.336508E+0	1.351908E+0	1.349312E+0	1.424650E+0	1.245577E+0	1.320435E+0	1.319709E+0	1.380962E+0	1.333014E+0	1.313036E+0	1.350565E+0	1.410260E+0	1.332143E+0	1.302368E+0	1.182271E+0	1.371669E+0	1.251937E+0	1.385333E+0	1.339766E+0	1.288397E+0	1.221777E+0	1.339295E+0	1.191669E+0	1.349497E+0	1.200804E+0	1.255144E+0	1.342147E+0	1.333378E+0	1.355685E+0	1.288936E+0	1.379265E+0	1.178610E+0	1.360834E+0	1.322011E+0	1.336204E+0	1.157766E+0	1.288718E+0	1.292823E+0	1.355051E+0	1.198521E+0	1.191907E+0	1.238343E+0	1.358251E+0	1.333216E+0	1.455903E+0	1.267593E+0	1.329341E+0	1.217123E+0	1.258223E+0	1.384303E+0	1.373273E+0	1.223750E+0	1.292675E+0	1.412872E+0	1.417588E+0	1.226823E+0	1.283607E+0	1.326621E+0	1.391089E+0	1.297384E+0	1.326961E+0	1.311545E+0	1.421652E+0	1.294080E+0	1.350914E+0	1.382346E+0	1.364283E+0	1.347353E+0	1.257408E+0	1.264287E+0	1.314087E+0	1.310121E+0	1.278521E+0	1.261342E+0	1.411285E+0	1.360572E+0	1.410441E+0	1.244156E+0	1.411569E+0	1.308469E+0	1.380252E+0	1.312610E+0	1.348183E+0	1.318228E+0	1.290630E+0	1.243984E+0	1.393283E+0	1.244186E+0	1.240691E+0	1.221611E+0	1.402359E+0	1.307537E+0	1.352996E+0	1.171216E+0	1.305495E+0
5.457620E+2	1.227039E+0	1.198954E+0	1.277984E+0	1.132833E+0	1.199484E+0	1.206024E+0	1.315413E+0	1.260072E+0	1.206345E+0	1.283179E+0	1.314952E+0	1.222598E+0	1.189052E+0	1.276889E+0	1.249141E+0	1.122116E+0	1.250819E+0	1.279198E+0	1.277678E+0	1.202195E+0	1.195014E+0	1.279655E+0	1.307290E+0	1.231470E+0	1.170439E+0	1.256197E+0	1.320517E+0	1.044347E+0	1.252563E+0	1.268976E+0	1.283337E+0	1.159691E+0	1.212539E+0	1.254718E+0	1.300658E+0	1.185303E+0	1.213257E+0	1.233905E+0	1.317829E+0	1.213543E+0	1.182194E+0	1.259315E+0	1.320234E+0	1.218265E+0	1.331200E+0	1.265396E+0	1.330181E+0	1.144022E+0	1.250186E+0	1.276727E+0	1.296066E+0	1.134006E+0	1.193611E+0	1.323547E+0	1.290899E+0	1.297769E+0	1.215864E+0	1.207145E+0	1.303676E+0	1.199799E+0	1.254634E+0	1.322559E+0	1.320316E+0	1.188127E+0	1.162609E+0	1.287855E+0	1.303215E+0	1.130917E+0	1.188219E+0	1.243998E+0	1.307196E+0	1.251065E+0	1.206073E+0	1.272222E+0	1.282854E+0	1.289018E+0	1.267400E+0	1.285240E+0	1.311664E+0	1.158220E+0	1.323872E+0	1.257326E+0	1.292011E+0	1.189349E+0	1.230021E+0	1.243228E+0	1.249687E+0	1.254747E+0	1.215325E+0	1.099759E+0	1.283803E+0	1.175460E+0	1.335417E+0	1.263225E+0	1.294484E+0	1.155463E+0	1.218436E+0	1.152010E+0	1.286878E+0	1.094022E+0	1.227760E+0	1.340793E+0	1.322658E+0	1.260187E+0	1.142906E+0	1.228436E+0	1.266863E+0	1.303172E+0	1.254607E+0	1.388109E+0	1.264871E+0	1.225501E+0	1.275053E+0	1.332974E+0	1.303012E+0	1.164358E+0	1.202611E+0	1.254306E+0	1.317667E+0	1.256834E+0	1.206678E+0	1.240784E+0	1.261237E+0	1.221552E+0	1.266912E+0	1.232314E+0	1.227987E+0	1.205525E+0	1.240120E+0	1.227610E+0	1.210391E+0	1.173873E+0	1.246513E+0	1.337412E+0	1.246831E+0	1.235871E+0	1.175201E+0	1.329462E+0	1.242376E+0	1.264951E+0	1.244112E+0	1.339881E+0	1.268854E+0	1.241521E+0	1.237024E+0	1.300803E+0	1.200325E+0	1.267509E+0	1.138466E+0	1.366458E+0	1.310568E+0	1.331554E+0	1.186708E+0	1.239811E+0	1.233066E+0	1.304747E+0	1.257872E+0	1.319435E+0	1.194259E+0	1.271557E+0	1.194294E+0	1.333466E+0	1.173019E+0	1.199683E+0	1.146111E+0	1.248464E+0	1.246028E+0	1.223734E+0	1.130302E+0	1.281247E+0
5.460060E+2	1.059171E+0	1.142004E+0	1.205663E+0	1.027950E+0	1.112097E+0	1.067984E+0	1.163387E+0	1.177235E+0	1.107475E+0	1.167759E+0	1.228832E+0	1.176006E+0	1.132528E+0	1.152644E+0	1.202989E+0	1.059323E+0	1.107681E+0	1.141350E+0	1.158486E+0	1.128316E+0	1.126386E+0	1.208132E+0	1.150066E+0	1.103483E+0	1.097218E+0	1.163264E+0	1.275185E+0	9.719770E-1	1.158916E+0	1.184426E+0	1.194877E+0	1.063080E+0	1.129263E+0	1.192536E+0	1.178893E+0	1.046202E+0	1.110876E+0	1.174593E+0	1.269057E+0	1.156650E+0	1.077208E+0	1.206359E+0	1.191605E+0	1.118552E+0	1.189048E+0	1.279179E+0	1.255732E+0	1.052372E+0	1.110454E+0	1.195418E+0	1.225480E+0	1.069757E+0	1.041101E+0	1.206422E+0	1.210621E+0	1.145003E+0	1.099194E+0	1.179324E+0	1.176889E+0	1.126426E+0	1.209943E+0	1.203242E+0	1.149215E+0	1.072432E+0	1.133374E+0	1.205786E+0	1.148653E+0	1.077533E+0	1.097606E+0	1.134242E+0	1.159296E+0	1.149469E+0	1.120209E+0	1.114651E+0	1.194389E+0	1.179378E+0	1.170248E+0	1.193183E+0	1.204682E+0	1.059257E+0	1.156779E+0	1.197385E+0	1.225135E+0	1.065024E+0	1.139687E+0	1.177487E+0	1.231209E+0	1.152777E+0	1.112326E+0	9.490495E-1	1.175835E+0	1.093052E+0	1.222483E+0	1.122666E+0	1.221419E+0	1.045336E+0	1.146611E+0	1.030345E+0	1.248289E+0	1.068198E+0	1.128573E+0	1.205406E+0	1.199705E+0	1.140347E+0	1.102696E+0	1.230393E+0	1.234889E+0	1.140034E+0	1.134980E+0	1.174214E+0	1.161866E+0	1.068076E+0	1.206705E+0	1.136250E+0	1.155926E+0	1.086063E+0	1.155182E+0	1.169032E+0	1.214030E+0	1.218126E+0	1.114670E+0	1.155056E+0	1.119173E+0	1.208565E+0	1.244051E+0	1.166372E+0	1.168072E+0	1.130728E+0	1.130730E+0	1.218177E+0	1.223398E+0	1.113628E+0	1.153945E+0	1.186977E+0	1.155320E+0	1.190023E+0	1.171027E+0	1.252512E+0	1.121241E+0	1.153264E+0	1.215342E+0	1.209332E+0	1.215633E+0	1.127874E+0	1.086427E+0	1.161608E+0	1.140639E+0	1.175979E+0	1.072745E+0	1.226927E+0	1.148677E+0	1.254546E+0	1.130566E+0	1.253241E+0	1.138469E+0	1.155145E+0	1.174844E+0	1.220274E+0	1.164865E+0	1.232776E+0	1.085362E+0	1.176442E+0	1.165526E+0	1.124739E+0	1.109521E+0	1.206326E+0	1.173463E+0	1.173778E+0	1.079763E+0	1.223513E+0
5.467660E+2	1.169154E+0	1.195072E+0	1.282504E+0	1.052153E+0	1.160372E+0	1.128495E+0	1.211248E+0	1.211751E+0	1.150035E+0	1.173128E+0	1.253345E+0	1.153358E+0	1.184619E+0	1.190195E+0	1.255884E+0	1.111454E+0	1.175870E+0	1.266946E+0	1.240429E+0	1.167846E+0	1.150032E+0	1.244194E+0	1.208234E+0	1.220424E+0	1.152133E+0	1.245651E+0	1.268801E+0	9.643590E-1	1.173675E+0	1.194023E+0	1.260574E+0	1.116422E+0	1.178874E+0	1.163345E+0	1.234008E+0	1.065676E+0	1.190744E+0	1.201551E+0	1.231728E+0	1.133294E+0	1.171634E+0	1.139398E+0	1.224697E+0	1.153976E+0	1.255274E+0	1.272862E+0	1.254099E+0	1.111944E+0	1.148957E+0	1.277375E+0	1.255366E+0	1.088726E+0	1.104787E+0	1.238478E+0	1.226795E+0	1.239804E+0	1.120004E+0	1.115071E+0	1.261643E+0	1.193363E+0	1.209368E+0	1.266838E+0	1.271518E+0	1.093984E+0	1.165717E+0	1.253057E+0	1.265480E+0	1.053579E+0	1.128562E+0	1.135415E+0	1.283875E+0	1.164320E+0	1.164978E+0	1.219697E+0	1.257666E+0	1.203122E+0	1.148402E+0	1.212466E+0	1.213963E+0	1.182045E+0	1.233795E+0	1.238975E+0	1.239015E+0	1.159650E+0	1.179974E+0	1.208343E+0	1.257335E+0	1.177962E+0	1.185587E+0	1.026109E+0	1.230192E+0	1.124039E+0	1.299852E+0	1.254180E+0	1.245099E+0	1.124676E+0	1.165258E+0	1.079414E+0	1.233725E+0	1.027718E+0	1.155347E+0	1.183743E+0	1.265279E+0	1.192778E+0	1.172537E+0	1.231049E+0	1.258551E+0	1.230040E+0	1.239426E+0	1.260913E+0	1.268964E+0	1.125211E+0	1.223790E+0	1.190788E+0	1.271066E+0	1.129560E+0	1.164280E+0	1.266131E+0	1.247713E+0	1.264436E+0	1.136879E+0	1.195439E+0	1.184691E+0	1.226900E+0	1.231696E+0	1.177865E+0	1.212857E+0	1.143087E+0	1.236787E+0	1.215482E+0	1.217238E+0	1.124386E+0	1.181832E+0	1.271141E+0	1.246190E+0	1.221997E+0	1.216242E+0	1.279940E+0	1.266752E+0	1.168831E+0	1.244740E+0	1.223364E+0	1.304112E+0	1.160259E+0	1.167565E+0	1.183753E+0	1.270329E+0	1.164281E+0	1.121324E+0	1.276173E+0	1.201806E+0	1.237643E+0	1.111633E+0	1.246880E+0	1.231009E+0	1.215831E+0	1.190834E+0	1.253721E+0	1.260716E+0	1.148221E+0	1.189837E+0	1.209071E+0	1.239193E+0	1.143829E+0	1.121135E+0	1.188006E+0	1.268143E+0	1.195634E+0	1.163193E+0	1.247760E+0
5.475180E+2	1.291355E+0	1.291496E+0	1.372150E+0	1.150313E+0	1.191539E+0	1.184593E+0	1.342862E+0	1.332240E+0	1.253487E+0	1.283847E+0	1.372588E+0	1.318364E+0	1.233388E+0	1.288485E+0	1.313965E+0	1.195571E+0	1.296892E+0	1.312896E+0	1.357904E+0	1.218394E+0	1.275180E+0	1.295283E+0	1.374674E+0	1.202233E+0	1.237119E+0	1.326061E+0	1.332009E+0	1.102116E+0	1.262780E+0	1.339134E+0	1.264198E+0	1.195251E+0	1.284595E+0	1.300404E+0	1.293609E+0	1.165134E+0	1.209503E+0	1.303397E+0	1.310601E+0	1.269837E+0	1.262951E+0	1.254447E+0	1.348958E+0	1.263533E+0	1.341475E+0	1.319953E+0	1.333445E+0	1.158916E+0	1.170073E+0	1.329413E+0	1.309420E+0	1.186016E+0	1.219866E+0	1.336493E+0	1.302881E+0	1.337019E+0	1.225323E+0	1.346915E+0	1.325035E+0	1.259655E+0	1.327399E+0	1.349209E+0	1.381468E+0	1.224426E+0	1.254043E+0	1.308207E+0	1.304667E+0	1.190460E+0	1.219172E+0	1.256913E+0	1.327446E+0	1.230270E+0	1.198097E+0	1.310038E+0	1.381148E+0	1.297401E+0	1.295568E+0	1.327540E+0	1.324763E+0	1.180822E+0	1.252362E+0	1.282401E+0	1.346268E+0	1.181753E+0	1.213544E+0	1.319705E+0	1.289828E+0	1.247989E+0	1.291487E+0	1.109304E+0	1.328480E+0	1.199196E+0	1.354133E+0	1.356467E+0	1.297868E+0	1.164936E+0	1.308219E+0	1.162093E+0	1.335662E+0	1.158232E+0	1.232630E+0	1.373291E+0	1.348511E+0	1.263933E+0	1.147845E+0	1.349232E+0	1.282853E+0	1.342549E+0	1.292256E+0	1.355598E+0	1.364946E+0	1.269874E+0	1.311960E+0	1.310900E+0	1.348269E+0	1.186832E+0	1.257836E+0	1.338956E+0	1.309249E+0	1.336323E+0	1.289800E+0	1.262037E+0	1.306642E+0	1.269683E+0	1.370709E+0	1.349682E+0	1.359315E+0	1.228288E+0	1.326831E+0	1.341461E+0	1.297342E+0	1.188935E+0	1.217435E+0	1.359282E+0	1.357538E+0	1.271460E+0	1.293460E+0	1.274609E+0	1.293341E+0	1.251413E+0	1.336684E+0	1.306329E+0	1.273511E+0	1.218304E+0	1.270130E+0	1.281820E+0	1.324858E+0	1.222775E+0	1.187047E+0	1.344363E+0	1.309315E+0	1.347834E+0	1.156026E+0	1.327455E+0	1.299560E+0	1.276520E+0	1.244957E+0	1.361091E+0	1.358488E+0	1.284273E+0	1.153525E+0	1.372890E+0	1.301622E+0	1.211703E+0	1.219869E+0	1.318693E+0	1.325503E+0	1.293048E+0	1.156775E+0	1.329743E+0
5.482550E+2	1.351812E+0	1.328385E+0	1.527342E+0	1.208807E+0	1.314373E+0	1.301203E+0	1.337231E+0	1.448962E+0	1.320273E+0	1.340885E+0	1.442145E+0	1.349424E+0	1.361956E+0	1.443655E+0	1.407308E+0	1.281467E+0	1.354638E+0	1.403568E+0	1.432398E+0	1.301347E+0	1.294212E+0	1.463572E+0	1.416715E+0	1.337365E+0	1.339101E+0	1.447991E+0	1.431611E+0	1.213208E+0	1.409209E+0	1.408687E+0	1.401802E+0	1.241481E+0	1.399176E+0	1.405734E+0	1.373077E+0	1.275720E+0	1.276504E+0	1.453172E+0	1.453905E+0	1.373445E+0	1.319484E+0	1.368278E+0	1.392039E+0	1.375709E+0	1.399137E+0	1.422746E+0	1.434523E+0	1.220778E+0	1.332161E+0	1.460158E+0	1.409896E+0	1.299219E+0	1.301985E+0	1.430189E+0	1.421499E+0	1.419137E+0	1.272621E+0	1.391297E+0	1.434594E+0	1.363277E+0	1.380680E+0	1.471553E+0	1.435208E+0	1.315737E+0	1.357293E+0	1.372549E+0	1.406257E+0	1.227419E+0	1.331733E+0	1.367843E+0	1.513395E+0	1.387123E+0	1.327505E+0	1.435395E+0	1.376231E+0	1.363046E+0	1.403647E+0	1.390362E+0	1.453579E+0	1.309108E+0	1.422893E+0	1.415127E+0	1.441528E+0	1.341305E+0	1.357592E+0	1.325070E+0	1.429376E+0	1.414454E+0	1.428581E+0	1.192500E+0	1.390286E+0	1.307977E+0	1.442111E+0	1.343941E+0	1.456176E+0	1.256711E+0	1.293027E+0	1.250149E+0	1.392458E+0	1.207088E+0	1.380500E+0	1.431506E+0	1.472727E+0	1.390014E+0	1.330560E+0	1.426276E+0	1.438896E+0	1.438183E+0	1.388805E+0	1.420622E+0	1.390699E+0	1.337344E+0	1.406964E+0	1.403746E+0	1.470062E+0	1.322401E+0	1.295516E+0	1.370700E+0	1.443981E+0	1.395075E+0	1.297415E+0	1.400191E+0	1.428595E+0	1.342260E+0	1.465243E+0	1.440428E+0	1.474910E+0	1.351211E+0	1.423546E+0	1.473502E+0	1.437020E+0	1.304407E+0	1.313564E+0	1.422241E+0	1.412572E+0	1.396938E+0	1.332413E+0	1.445271E+0	1.370162E+0	1.408447E+0	1.410489E+0	1.441152E+0	1.455790E+0	1.336227E+0	1.336990E+0	1.484284E+0	1.394862E+0	1.280583E+0	1.268198E+0	1.445380E+0	1.413077E+0	1.446755E+0	1.243503E+0	1.458922E+0	1.429118E+0	1.433176E+0	1.444225E+0	1.430327E+0	1.437082E+0	1.303978E+0	1.319790E+0	1.392602E+0	1.412748E+0	1.272507E+0	1.308731E+0	1.415791E+0	1.392539E+0	1.386092E+0	1.190468E+0	1.464841E+0
5.490380E+2	1.316439E+0	1.283083E+0	1.456526E+0	1.233681E+0	1.277708E+0	1.320115E+0	1.386500E+0	1.391854E+0	1.253488E+0	1.301294E+0	1.401737E+0	1.342954E+0	1.338680E+0	1.355857E+0	1.392790E+0	1.340702E+0	1.358939E+0	1.352107E+0	1.428959E+0	1.276720E+0	1.275183E+0	1.359593E+0	1.389646E+0	1.300335E+0	1.258693E+0	1.429538E+0	1.416291E+0	1.121794E+0	1.393317E+0	1.361917E+0	1.338687E+0	1.230222E+0	1.318259E+0	1.375279E+0	1.389741E+0	1.289629E+0	1.261497E+0	1.295609E+0	1.400917E+0	1.301578E+0	1.284696E+0	1.337233E+0	1.378303E+0	1.298300E+0	1.407128E+0	1.407814E+0	1.418219E+0	1.232807E+0	1.264467E+0	1.432188E+0	1.374920E+0	1.215388E+0	1.276289E+0	1.369165E+0	1.333433E+0	1.301393E+0	1.290282E+0	1.354867E+0	1.383605E+0	1.291835E+0	1.307345E+0	1.401900E+0	1.348112E+0	1.253352E+0	1.295095E+0	1.333156E+0	1.372877E+0	1.276010E+0	1.311471E+0	1.268063E+0	1.394951E+0	1.316422E+0	1.232446E+0	1.326144E+0	1.419850E+0	1.306477E+0	1.328914E+0	1.404047E+0	1.400089E+0	1.307276E+0	1.356192E+0	1.350904E+0	1.405568E+0	1.260491E+0	1.287397E+0	1.363309E+0	1.421729E+0	1.374527E+0	1.324129E+0	1.261376E+0	1.399219E+0	1.256551E+0	1.429008E+0	1.383604E+0	1.387846E+0	1.212895E+0	1.324791E+0	1.186965E+0	1.393183E+0	1.238493E+0	1.271574E+0	1.346212E+0	1.349141E+0	1.370663E+0	1.280470E+0	1.374043E+0	1.376861E+0	1.313017E+0	1.357229E+0	1.414349E+0	1.411183E+0	1.261367E+0	1.334514E+0	1.375825E+0	1.391531E+0	1.186832E+0	1.328002E+0	1.398085E+0	1.428433E+0	1.343234E+0	1.296148E+0	1.356974E+0	1.431839E+0	1.278085E+0	1.373182E+0	1.341211E+0	1.382314E+0	1.324545E+0	1.433551E+0	1.387945E+0	1.451395E+0	1.247747E+0	1.339675E+0	1.387117E+0	1.426649E+0	1.350487E+0	1.328244E+0	1.393464E+0	1.369420E+0	1.281193E+0	1.406736E+0	1.380144E+0	1.374628E+0	1.278792E+0	1.293498E+0	1.398871E+0	1.423600E+0	1.262693E+0	1.282487E+0	1.416968E+0	1.388076E+0	1.376006E+0	1.251992E+0	1.369866E+0	1.413348E+0	1.316035E+0	1.392563E+0	1.411550E+0	1.362318E+0	1.340217E+0	1.300044E+0	1.391922E+0	1.401509E+0	1.316342E+0	1.236713E+0	1.341287E+0	1.335869E+0	1.361740E+0	1.224161E+0	1.366694E+0
5.497790E+2	1.298431E+0	1.299908E+0	1.359346E+0	1.118714E+0	1.197042E+0	1.171987E+0	1.343566E+0	1.295842E+0	1.252177E+0	1.287205E+0	1.327540E+0	1.364308E+0	1.262204E+0	1.312231E+0	1.330558E+0	1.329449E+0	1.251434E+0	1.388252E+0	1.355612E+0	1.429014E+0	1.240001E+0	1.320525E+0	1.340120E+0	1.306181E+0	1.224045E+0	1.326062E+0	1.386920E+0	1.169409E+0	1.324645E+0	1.325940E+0	1.376453E+0	1.335721E+0	1.303497E+0	1.311828E+0	1.325653E+0	1.304236E+0	1.210576E+0	1.317776E+0	1.385263E+0	1.294991E+0	1.179090E+0	1.231316E+0	1.326477E+0	1.349468E+0	1.331200E+0	1.333157E+0	1.350832E+0	1.263740E+0	1.263225E+0	1.289085E+0	1.297973E+0	1.148079E+0	1.247240E+0	1.341424E+0	1.346013E+0	1.291127E+0	1.260640E+0	1.338965E+0	1.384296E+0	1.281537E+0	1.307344E+0	1.357689E+0	1.377144E+0	1.204578E+0	1.255287E+0	1.297701E+0	1.383762E+0	1.152818E+0	1.268138E+0	1.245758E+0	1.349538E+0	1.311073E+0	1.214044E+0	1.270121E+0	1.328926E+0	1.296703E+0	1.310516E+0	1.365483E+0	1.296927E+0	1.197317E+0	1.312185E+0	1.331945E+0	1.309043E+0	1.196256E+0	1.254440E+0	1.278111E+0	1.349090E+0	1.273787E+0	1.269727E+0	1.310475E+0	1.333692E+0	1.266441E+0	1.344775E+0	1.323763E+0	1.331017E+0	1.163754E+0	1.264710E+0	1.152682E+0	1.359692E+0	1.143575E+0	1.272183E+0	1.306270E+0	1.294287E+0	1.247704E+0	1.222624E+0	1.293729E+0	1.254715E+0	1.366457E+0	1.309864E+0	1.339056E+0	1.315202E+0	1.273521E+0	1.290772E+0	1.348555E+0	1.346270E+0	1.193357E+0	1.265628E+0	1.302233E+0	1.388273E+0	1.332867E+0	1.238405E+0	1.327925E+0	1.305343E+0	1.296421E+0	1.375036E+0	1.341817E+0	1.361129E+0	1.251051E+0	1.296815E+0	1.293630E+0	1.357595E+0	1.192521E+0	1.233458E+0	1.383802E+0	1.257069E+0	1.294387E+0	1.314330E+0	1.358415E+0	1.267490E+0	1.315039E+0	1.380466E+0	1.314260E+0	1.333381E+0	1.272074E+0	1.229884E+0	1.347621E+0	1.354335E+0	1.247550E+0	1.228194E+0	1.355096E+0	1.348073E+0	1.331556E+0	1.203030E+0	1.327455E+0	1.314640E+0	1.290631E+0	1.334750E+0	1.324126E+0	1.334202E+0	1.295717E+0	1.218502E+0	1.279084E+0	1.334710E+0	1.256953E+0	1.200705E+0	1.334570E+0	1.320667E+0	1.286181E+0	1.191270E+0	1.277783E+0
5.505060E+2	1.223178E+0	1.151713E+0	1.297571E+0	1.132160E+0	1.195207E+0	1.144254E+0	1.266851E+0	1.281408E+0	1.157892E+0	1.203995E+0	1.315617E+0	1.288598E+0	1.197920E+0	1.259218E+0	1.272479E+0	1.219266E+0	1.295050E+0	1.310445E+0	1.292003E+0	1.274776E+0	1.237694E+0	1.292876E+0	1.280799E+0	1.325669E+0	1.197895E+0	1.284539E+0	1.332008E+0	1.120527E+0	1.263348E+0	1.258783E+0	1.279718E+0	1.300160E+0	1.264516E+0	1.290252E+0	1.287843E+0	1.301454E+0	1.167695E+0	1.240495E+0	1.325653E+0	1.300383E+0	1.175982E+0	1.221578E+0	1.222203E+0	1.289115E+0	1.287241E+0	1.338327E+0	1.335618E+0	1.294100E+0	1.213545E+0	1.308599E+0	1.292252E+0	1.298606E+0	1.170705E+0	1.224915E+0	1.290299E+0	1.319507E+0	1.151538E+0	1.256827E+0	1.331235E+0	1.275103E+0	1.294739E+0	1.313476E+0	1.311050E+0	1.280008E+0	1.236003E+0	1.230734E+0	1.337320E+0	1.263693E+0	1.203415E+0	1.226392E+0	1.300443E+0	1.326520E+0	1.242255E+0	1.233003E+0	1.320943E+0	1.233848E+0	1.245554E+0	1.273422E+0	1.313301E+0	1.234579E+0	1.276429E+0	1.215122E+0	1.324183E+0	1.225266E+0	1.252607E+0	1.295554E+0	1.271355E+0	1.251674E+0	1.255220E+0	1.159767E+0	1.269657E+0	1.171507E+0	1.307962E+0	1.288275E+0	1.345225E+0	1.122900E+0	1.235701E+0	1.131172E+0	1.342944E+0	1.122637E+0	1.146827E+0	1.255498E+0	1.308157E+0	1.223985E+0	1.172536E+0	1.249983E+0	1.293725E+0	1.322859E+0	1.261892E+0	1.320803E+0	1.258431E+0	1.164114E+0	1.281202E+0	1.297914E+0	1.271733E+0	1.153484E+0	1.243540E+0	1.251195E+0	1.365602E+0	1.287249E+0	1.152107E+0	1.263453E+0	1.238531E+0	1.255931E+0	1.360827E+0	1.288577E+0	1.258853E+0	1.212028E+0	1.253461E+0	1.317882E+0	1.315145E+0	1.161681E+0	1.234646E+0	1.310904E+0	1.307624E+0	1.239490E+0	1.198157E+0	1.308893E+0	1.311807E+0	1.266978E+0	1.289772E+0	1.295959E+0	1.344691E+0	1.202417E+0	1.207164E+0	1.247654E+0	1.289489E+0	1.193874E+0	1.151040E+0	1.275545E+0	1.243060E+0	1.302129E+0	1.195196E+0	1.317560E+0	1.274880E+0	1.291339E+0	1.245572E+0	1.312393E+0	1.263912E+0	1.275371E+0	1.169452E+0	1.236262E+0	1.291012E+0	1.159383E+0	1.180378E+0	1.274111E+0	1.277128E+0	1.261827E+0	1.157578E+0	1.275473E+0
5.512570E+2	1.202598E+0	1.208661E+0	1.305105E+0	1.112663E+0	1.170764E+0	1.142361E+0	1.287964E+0	1.236225E+0	1.178190E+0	1.175140E+0	1.352714E+0	1.291832E+0	1.201799E+0	1.265846E+0	1.266255E+0	1.304568E+0	1.216416E+0	1.312281E+0	1.302319E+0	1.267000E+0	1.164450E+0	1.254410E+0	1.275039E+0	1.241211E+0	1.186128E+0	1.270038E+0	1.326266E+0	1.081168E+0	1.247456E+0	1.256983E+0	1.279201E+0	1.268152E+0	1.253292E+0	1.235046E+0	1.321809E+0	1.307712E+0	1.211649E+0	1.272844E+0	1.329869E+0	1.238696E+0	1.194621E+0	1.239229E+0	1.265908E+0	1.266813E+0	1.268973E+0	1.249316E+0	1.264423E+0	1.316438E+0	1.154547E+0	1.300144E+0	1.301790E+0	1.356127E+0	1.160092E+0	1.306902E+0	1.290899E+0	1.292941E+0	1.183069E+0	1.278689E+0	1.312633E+0	1.296987E+0	1.257496E+0	1.285009E+0	1.307964E+0	1.266963E+0	1.207391E+0	1.274067E+0	1.258950E+0	1.304755E+0	1.199476E+0	1.202326E+0	1.314560E+0	1.288495E+0	1.217110E+0	1.255413E+0	1.295142E+0	1.244326E+0	1.203589E+0	1.283998E+0	1.263631E+0	1.286507E+0	1.222794E+0	1.229798E+0	1.283177E+0	1.279833E+0	1.241010E+0	1.287503E+0	1.305124E+0	1.270717E+0	1.221854E+0	1.187727E+0	1.306886E+0	1.242708E+0	1.329177E+0	1.263921E+0	1.298543E+0	1.321246E+0	1.224652E+0	1.149323E+0	1.254840E+0	1.258735E+0	1.195510E+0	1.316425E+0	1.299329E+0	1.291397E+0	1.175358E+0	1.300913E+0	1.296284E+0	1.280670E+0	1.310472E+0	1.281449E+0	1.236777E+0	1.221250E+0	1.247029E+0	1.293368E+0	1.287040E+0	1.152759E+0	1.205209E+0	1.264265E+0	1.297588E+0	1.320426E+0	1.249189E+0	1.260619E+0	1.343617E+0	1.253639E+0	1.291627E+0	1.252884E+0	1.270351E+0	1.189264E+0	1.254127E+0	1.288241E+0	1.255581E+0	1.120082E+0	1.198449E+0	1.289697E+0	1.319784E+0	1.275082E+0	1.250328E+0	1.308132E+0	1.303683E+0	1.248026E+0	1.243486E+0	1.250816E+0	1.326066E+0	1.177977E+0	1.247410E+0	1.290678E+0	1.296120E+0	1.206948E+0	1.161326E+0	1.326684E+0	1.262437E+0	1.300876E+0	1.163208E+0	1.312613E+0	1.276937E+0	1.238413E+0	1.254798E+0	1.278363E+0	1.270942E+0	1.227056E+0	1.185376E+0	1.283164E+0	1.266663E+0	1.197562E+0	1.132752E+0	1.271669E+0	1.238426E+0	1.267447E+0	1.115862E+0	1.247761E+0
5.520100E+2	1.265630E+0	1.245548E+0	1.289284E+0	1.123420E+0	1.230040E+0	1.209178E+0	1.288667E+0	1.266348E+0	1.138904E+0	1.253651E+0	1.342113E+0	1.302187E+0	1.289914E+0	1.281306E+0	1.316040E+0	1.299829E+0	1.256346E+0	1.291450E+0	1.275959E+0	1.323380E+0	1.253842E+0	1.237583E+0	1.294625E+0	1.287989E+0	1.162593E+0	1.335946E+0	1.328819E+0	1.111639E+0	1.297400E+0	1.310349E+0	1.282305E+0	1.362985E+0	1.266878E+0	1.240759E+0	1.325015E+0	1.357094E+0	1.207893E+0	1.301001E+0	1.356963E+0	1.340504E+0	1.176603E+0	1.277576E+0	1.305249E+0	1.274025E+0	1.318639E+0	1.317081E+0	1.298119E+0	1.286653E+0	1.216030E+0	1.286483E+0	1.285255E+0	1.326755E+0	1.190817E+0	1.264367E+0	1.301080E+0	1.265767E+0	1.179286E+0	1.276698E+0	1.313321E+0	1.233909E+0	1.258071E+0	1.370408E+0	1.333288E+0	1.370752E+0	1.249066E+0	1.317398E+0	1.277092E+0	1.286962E+0	1.218045E+0	1.279215E+0	1.313331E+0	1.312855E+0	1.225699E+0	1.251210E+0	1.346128E+0	1.277846E+0	1.273150E+0	1.306391E+0	1.347142E+0	1.325604E+0	1.279178E+0	1.279957E+0	1.345635E+0	1.337851E+0	1.200115E+0	1.294886E+0	1.315956E+0	1.310030E+0	1.269728E+0	1.234099E+0	1.329226E+0	1.371264E+0	1.343529E+0	1.316108E+0	1.282983E+0	1.350852E+0	1.265398E+0	1.167471E+0	1.337848E+0	1.304100E+0	1.200377E+0	1.288668E+0	1.266541E+0	1.325099E+0	1.197229E+0	1.310054E+0	1.318027E+0	1.345364E+0	1.271001E+0	1.313390E+0	1.343877E+0	1.269874E+0	1.318794E+0	1.289473E+0	1.275727E+0	1.324575E+0	1.217554E+0	1.305346E+0	1.340340E+0	1.344618E+0	1.243480E+0	1.269122E+0	1.335185E+0	1.280379E+0	1.294097E+0	1.312776E+0	1.326634E+0	1.291376E+0	1.324831E+0	1.265335E+0	1.310354E+0	1.279304E+0	1.231677E+0	1.303613E+0	1.300584E+0	1.263017E+0	1.256589E+0	1.356892E+0	1.359078E+0	1.341435E+0	1.306038E+0	1.263627E+0	1.352011E+0	1.260464E+0	1.257147E+0	1.295108E+0	1.298331E+0	1.246175E+0	1.153897E+0	1.313425E+0	1.243684E+0	1.281469E+0	1.156678E+0	1.345126E+0	1.318751E+0	1.282872E+0	1.270788E+0	1.283057E+0	1.309282E+0	1.264565E+0	1.231881E+0	1.316470E+0	1.348445E+0	1.230085E+0	1.139723E+0	1.249685E+0	1.223222E+0	1.228729E+0	1.127093E+0	1.253535E+0
5.527590E+2	1.275277E+0	1.199599E+0	1.248603E+0	1.134177E+0	1.162207E+0	1.173877E+0	1.227435E+0	1.208614E+0	1.117297E+0	1.175812E+0	1.296404E+0	1.268539E+0	1.233389E+0	1.276890E+0	1.258479E+0	1.289166E+0	1.260649E+0	1.307382E+0	1.273094E+0	1.274776E+0	1.212894E+0	1.323532E+0	1.322843E+0	1.279543E+0	1.182859E+0	1.271356E+0	1.310302E+0	1.074818E+0	1.278673E+0	1.244989E+0	1.266267E+0	1.333352E+0	1.250340E+0	1.231876E+0	1.280795E+0	1.277110E+0	1.207897E+0	1.260862E+0	1.333484E+0	1.308765E+0	1.177847E+0	1.215488E+0	1.254048E+0	1.289114E+0	1.273539E+0	1.286644E+0	1.308988E+0	1.247700E+0	1.220998E+0	1.348276E+0	1.295430E+0	1.294325E+0	1.161767E+0	1.239710E+0	1.301682E+0	1.281467E+0	1.159734E+0	1.248217E+0	1.271288E+0	1.290548E+0	1.279271E+0	1.289247E+0	1.268432E+0	1.266963E+0	1.165098E+0	1.241894E+0	1.294508E+0	1.270536E+0	1.176401E+0	1.204088E+0	1.248895E+0	1.321172E+0	1.179700E+0	1.250510E+0	1.255823E+0	1.282733E+0	1.266825E+0	1.282131E+0	1.296382E+0	1.247408E+0	1.276429E+0	1.243870E+0	1.288853E+0	1.312294E+0	1.237957E+0	1.246582E+0	1.263706E+0	1.314944E+0	1.218227E+0	1.204775E+0	1.207109E+0	1.319843E+0	1.329798E+0	1.206166E+0	1.287721E+0	1.284537E+0	1.222580E+0	1.127139E+0	1.370612E+0	1.291536E+0	1.161432E+0	1.287316E+0	1.264020E+0	1.307622E+0	1.167599E+0	1.295689E+0	1.268783E+0	1.288404E+0	1.223030E+0	1.345902E+0	1.267209E+0	1.277774E+0	1.214904E+0	1.249869E+0	1.301015E+0	1.327474E+0	1.238345E+0	1.310325E+0	1.311192E+0	1.281027E+0	1.180661E+0	1.252119E+0	1.256047E+0	1.284962E+0	1.294095E+0	1.271033E+0	1.284876E+0	1.326495E+0	1.280806E+0	1.307101E+0	1.268589E+0	1.280022E+0	1.230492E+0	1.307588E+0	1.255789E+0	1.250347E+0	1.179375E+0	1.391938E+0	1.229820E+0	1.296760E+0	1.264755E+0	1.274608E+0	1.306106E+0	1.249463E+0	1.172110E+0	1.257777E+0	1.299066E+0	1.275765E+0	1.168186E+0	1.279965E+0	1.294943E+0	1.269574E+0	1.178222E+0	1.302718E+0	1.316011E+0	1.280753E+0	1.249261E+0	1.300659E+0	1.318866E+0	1.328138E+0	1.160533E+0	1.207711E+0	1.274778E+0	1.297254E+0	1.218129E+0	1.293654E+0	1.320667E+0	1.265574E+0	1.107038E+0	1.307805E+0
5.534940E+2	1.157576E+0	1.129708E+0	1.218470E+0	1.031984E+0	1.135319E+0	1.131017E+0	1.156351E+0	1.170961E+0	1.152653E+0	1.177825E+0	1.251357E+0	1.182477E+0	1.173537E+0	1.218908E+0	1.178614E+0	1.235852E+0	1.107066E+0	1.205066E+0	1.234126E+0	1.208676E+0	1.109083E+0	1.156443E+0	1.181165E+0	1.193787E+0	1.096566E+0	1.204129E+0	1.206868E+0	1.029111E+0	1.140755E+0	1.182030E+0	1.209360E+0	1.221924E+0	1.144617E+0	1.218550E+0	1.166079E+0	1.211038E+0	1.137140E+0	1.154223E+0	1.234736E+0	1.197972E+0	1.108893E+0	1.210619E+0	1.214081E+0	1.235321E+0	1.218733E+0	1.182701E+0	1.187800E+0	1.205885E+0	1.116044E+0	1.162897E+0	1.166973E+0	1.238028E+0	1.117634E+0	1.252041E+0	1.170483E+0	1.183647E+0	1.109914E+0	1.175349E+0	1.268534E+0	1.175341E+0	1.164680E+0	1.201426E+0	1.219634E+0	1.246546E+0	1.105386E+0	1.232701E+0	1.205979E+0	1.229470E+0	1.084663E+0	1.161829E+0	1.221278E+0	1.226706E+0	1.109167E+0	1.209193E+0	1.231865E+0	1.219183E+0	1.142650E+0	1.198780E+0	1.190493E+0	1.141115E+0	1.224168E+0	1.123375E+0	1.212516E+0	1.188658E+0	1.170208E+0	1.090947E+0	1.224838E+0	1.241845E+0	1.195016E+0	1.154313E+0	1.163921E+0	1.187330E+0	1.251806E+0	1.188770E+0	1.241038E+0	1.151321E+0	1.134179E+0	1.037739E+0	1.226445E+0	1.276183E+0	1.068330E+0	1.224358E+0	1.195918E+0	1.215871E+0	1.070949E+0	1.189261E+0	1.208027E+0	1.220898E+0	1.173844E+0	1.169651E+0	1.211025E+0	1.210307E+0	1.203285E+0	1.199229E+0	1.242447E+0	1.252078E+0	1.138941E+0	1.165297E+0	1.208849E+0	1.231260E+0	1.099441E+0	1.197565E+0	1.183393E+0	1.186410E+0	1.221191E+0	1.186334E+0	1.206200E+0	1.170404E+0	1.237453E+0	1.195947E+0	1.163833E+0	1.220493E+0	1.144449E+0	1.171737E+0	1.229551E+0	1.232853E+0	1.123028E+0	1.246418E+0	1.138230E+0	1.235843E+0	1.213466E+0	1.244716E+0	1.220957E+0	1.185920E+0	1.146796E+0	1.171732E+0	1.245275E+0	1.187680E+0	1.067601E+0	1.235769E+0	1.172428E+0	1.262058E+0	1.058102E+0	1.234864E+0	1.200847E+0	1.155851E+0	1.176689E+0	1.214995E+0	1.289473E+0	1.192089E+0	1.096830E+0	1.204314E+0	1.146799E+0	1.113426E+0	1.099066E+0	1.200830E+0	1.194888E+0	1.234350E+0	1.038850E+0	1.194646E+0
5.542580E+2	1.064316E+0	1.063699E+0	1.217717E+0	9.351688E-1	1.083984E+0	1.084373E+0	1.143679E+0	1.122013E+0	1.041344E+0	1.080524E+0	1.133439E+0	1.159182E+0	1.088194E+0	1.117304E+0	1.134536E+0	1.130409E+0	1.036421E+0	1.128485E+0	1.134418E+0	1.145813E+0	1.099281E+0	1.101748E+0	1.166193E+0	1.159356E+0	1.076954E+0	1.144810E+0	1.138551E+0	1.065298E+0	1.069811E+0	1.153248E+0	1.143664E+0	1.114644E+0	1.082011E+0	1.101161E+0	1.184021E+0	1.211733E+0	1.095869E+0	1.087724E+0	1.192590E+0	1.145271E+0	1.057330E+0	1.082786E+0	1.133533E+0	1.150041E+0	1.110263E+0	1.153412E+0	1.188342E+0	1.147458E+0	1.083129E+0	1.156390E+0	1.071587E+0	1.180510E+0	1.020990E+0	1.136764E+0	1.205228E+0	1.187876E+0	9.926120E-1	1.105134E+0	1.163798E+0	1.196581E+0	1.150931E+0	1.187496E+0	1.178865E+0	1.108730E+0	1.113470E+0	1.126342E+0	1.176227E+0	1.174719E+0	1.070593E+0	1.061461E+0	1.155000E+0	1.133425E+0	1.052130E+0	1.162273E+0	1.174731E+0	1.147253E+0	1.116782E+0	1.125384E+0	1.174115E+0	1.145392E+0	1.136839E+0	1.137443E+0	1.152584E+0	1.176226E+0	1.096353E+0	1.084238E+0	1.138818E+0	1.171205E+0	1.123932E+0	1.121581E+0	1.133393E+0	1.118106E+0	1.102058E+0	1.147020E+0	1.136176E+0	1.134739E+0	1.091360E+0	1.017573E+0	1.189311E+0	1.077271E+0	1.107882E+0	1.174267E+0	1.177632E+0	1.086669E+0	1.054724E+0	1.170324E+0	1.120413E+0	1.169569E+0	1.155627E+0	1.182198E+0	1.161864E+0	1.150741E+0	1.162960E+0	1.164167E+0	1.159255E+0	1.150584E+0	1.078519E+0	1.123595E+0	1.133063E+0	1.159373E+0	1.088020E+0	1.155056E+0	1.122417E+0	1.163491E+0	1.153226E+0	1.171211E+0	1.140233E+0	1.177558E+0	1.118059E+0	1.179103E+0	1.094681E+0	1.143750E+0	1.067307E+0	1.129322E+0	1.162358E+0	1.080838E+0	1.044421E+0	1.189276E+0	1.134536E+0	1.160032E+0	1.222848E+0	1.154428E+0	1.192349E+0	1.163315E+0	1.020215E+0	1.140731E+0	1.173061E+0	1.103720E+0	1.035026E+0	1.183999E+0	1.115548E+0	1.162514E+0	1.061365E+0	1.195989E+0	1.146696E+0	1.206660E+0	1.083818E+0	1.116425E+0	1.125886E+0	1.108805E+0	1.054148E+0	1.127501E+0	1.115584E+0	1.206046E+0	1.029952E+0	1.189226E+0	1.140982E+0	1.167533E+0	9.987397E-1	1.140376E+0
5.550140E+2	1.004502E+0	9.730969E-1	1.024108E+0	8.753315E-1	9.556508E-1	9.362477E-1	9.825049E-1	1.016585E+0	9.274145E-1	9.490014E-1	1.069179E+0	1.036236E+0	9.779131E-1	9.704171E-1	1.011113E+0	1.020227E+0	9.848175E-1	1.065380E+0	1.011788E+0	1.031755E+0	9.770137E-1	1.078307E+0	1.046401E+0	1.018377E+0	9.488226E-1	1.045948E+0	1.042779E+0	9.180171E-1	1.024973E+0	1.042916E+0	1.002956E+0	9.889939E-1	1.030037E+0	9.793329E-1	9.994507E-1	1.036465E+0	9.629386E-1	1.048185E+0	1.089028E+0	1.004533E+0	9.144490E-1	9.506936E-1	1.039248E+0	1.066726E+0	1.036048E+0	9.840044E-1	1.070958E+0	9.864982E-1	9.558186E-1	1.046462E+0	1.037881E+0	1.037326E+0	9.578630E-1	1.027653E+0	1.001542E+0	1.005520E+0	9.276551E-1	9.845755E-1	1.017029E+0	1.005425E+0	9.916518E-1	1.064547E+0	1.025060E+0	1.060523E+0	9.809838E-1	1.061341E+0	1.020215E+0	1.070689E+0	9.366441E-1	9.751821E-1	1.030421E+0	1.081141E+0	9.386692E-1	9.927967E-1	1.022378E+0	1.050182E+0	9.822615E-1	1.062557E+0	1.075868E+0	1.026268E+0	9.718070E-1	1.029183E+0	1.055428E+0	9.904289E-1	9.986923E-1	1.023863E+0	1.057255E+0	1.052652E+0	9.679806E-1	9.592788E-1	1.042549E+0	1.021850E+0	1.033426E+0	1.016899E+0	1.056345E+0	1.050073E+0	9.919093E-1	9.046455E-1	1.007281E+0	1.034697E+0	9.849607E-1	1.028722E+0	1.040175E+0	1.072938E+0	9.616026E-1	1.022760E+0	1.032159E+0	1.033150E+0	9.631323E-1	1.035609E+0	1.062958E+0	1.020666E+0	1.016696E+0	1.051199E+0	1.039457E+0	1.041840E+0	9.602762E-1	1.033344E+0	1.053392E+0	1.042559E+0	9.845897E-1	1.053035E+0	1.003058E+0	1.078690E+0	1.008032E+0	9.885047E-1	9.992221E-1	1.044227E+0	9.679841E-1	1.017419E+0	1.031691E+0	9.737703E-1	9.581229E-1	1.019314E+0	1.043332E+0	1.024734E+0	9.978134E-1	1.016326E+0	1.079139E+0	1.021950E+0	1.036457E+0	1.054381E+0	1.070611E+0	1.052721E+0	9.715315E-1	1.027478E+0	1.083162E+0	1.001868E+0	9.715894E-1	1.029944E+0	9.986607E-1	1.079243E+0	9.477737E-1	1.031302E+0	1.023992E+0	1.026715E+0	1.021086E+0	1.027241E+0	1.075404E+0	1.049044E+0	9.413936E-1	1.006506E+0	1.055026E+0	1.031412E+0	9.904582E-1	1.013348E+0	1.038701E+0	1.079483E+0	9.032763E-1	1.028372E+0
5.557600E+2	9.942115E-1	8.967329E-1	9.525393E-1	8.370094E-1	1.020428E+0	8.536752E-1	9.564637E-1	9.092756E-1	9.549143E-1	9.214882E-1	9.963090E-1	9.618221E-1	9.707074E-1	9.422549E-1	9.436963E-1	9.876448E-1	9.172423E-1	9.875713E-1	9.997539E-1	1.006481E+0	9.441405E-1	9.647108E-1	9.577104E-1	9.741985E-1	9.553599E-1	9.543348E-1	1.019793E+0	8.412037E-1	9.738929E-1	9.667629E-1	9.801946E-1	1.010330E+0	9.668404E-1	9.793327E-1	1.001373E+0	1.000299E+0	9.007627E-1	9.391492E-1	1.031223E+0	9.985454E-1	8.690995E-1	9.866080E-1	9.749345E-1	9.985002E-1	9.846675E-1	9.575871E-1	9.807461E-1	1.007693E+0	9.315983E-1	9.495425E-1	1.005451E+0	9.981626E-1	9.008810E-1	9.888162E-1	1.013522E+0	9.807645E-1	9.068433E-1	9.958364E-1	9.894676E-1	9.874031E-1	9.859209E-1	9.609780E-1	9.700858E-1	9.958681E-1	9.567262E-1	9.661403E-1	1.073912E+0	9.659754E-1	9.135689E-1	9.393779E-1	1.012011E+0	9.967750E-1	9.472555E-1	9.409737E-1	9.492737E-1	1.009677E+0	9.356962E-1	1.015906E+0	9.677975E-1	9.645684E-1	9.498026E-1	9.869809E-1	9.980177E-1	1.009769E+0	9.242267E-1	9.131733E-1	1.008830E+0	1.026852E+0	9.745088E-1	8.944947E-1	9.978726E-1	9.822939E-1	9.885018E-1	9.779322E-1	1.036727E+0	1.036455E+0	9.939811E-1	8.602815E-1	9.992721E-1	9.998004E-1	9.673139E-1	9.617039E-1	9.991890E-1	9.836822E-1	9.291518E-1	9.737889E-1	1.012334E+0	9.719731E-1	9.327705E-1	9.865547E-1	9.663901E-1	9.762952E-1	9.551829E-1	9.538102E-1	1.056761E+0	1.007768E+0	8.985550E-1	1.028366E+0	9.970389E-1	9.858794E-1	9.338269E-1	9.524305E-1	9.959219E-1	1.006876E+0	1.001854E+0	9.679355E-1	9.677515E-1	9.694321E-1	1.000667E+0	1.045714E+0	9.419983E-1	9.644466E-1	9.409155E-1	9.815387E-1	9.716607E-1	9.939676E-1	9.268586E-1	9.500414E-1	9.927190E-1	1.009089E+0	1.017067E+0	9.945970E-1	9.781420E-1	9.855104E-1	9.364786E-1	9.477575E-1	1.001368E+0	9.516303E-1	8.755753E-1	9.661770E-1	9.424051E-1	9.671753E-1	8.707405E-1	9.514328E-1	9.821774E-1	9.893141E-1	9.583536E-1	1.038388E+0	9.782731E-1	9.206219E-1	8.821487E-1	1.021461E+0	1.003835E+0	1.014444E+0	9.114711E-1	1.022508E+0	1.017968E+0	1.015165E+0	8.840235E-1	9.660199E-1
5.560190E+2	9.781322E-1	9.057934E-1	9.856868E-1	8.202012E-1	1.030207E+0	9.312046E-1	9.649097E-1	9.249642E-1	9.994388E-1	9.416191E-1	1.002934E+0	9.922352E-1	9.319156E-1	9.566116E-1	9.706636E-1	9.900142E-1	9.344430E-1	9.704171E-1	9.676647E-1	9.870388E-1	9.775890E-1	9.178300E-1	9.352500E-1	9.352188E-1	9.880459E-1	9.787206E-1	8.908193E-1	8.742142E-1	1.003404E+0	9.901487E-1	9.734697E-1	9.836595E-1	9.508936E-1	1.006618E+0	9.340818E-1	9.717821E-1	9.490029E-1	9.906714E-1	9.812500E-1	9.799797E-1	9.809200E-1	9.379105E-1	9.605726E-1	1.004404E+0	9.829546E-1	9.828558E-1	9.872676E-1	9.538482E-1	9.688600E-1	9.547460E-1	9.590294E-1	9.963278E-1	9.986441E-1	9.653908E-1	9.877633E-1	1.013371E+0	1.011532E+0	9.633778E-1	1.024609E+0	9.680953E-1	1.003111E+0	1.019728E+0	1.001588E+0	9.227064E-1	9.691665E-1	9.569491E-1	9.890115E-1	9.735037E-1	9.056890E-1	9.317476E-1	9.862358E-1	1.006281E+0	9.478687E-1	9.703868E-1	9.818334E-1	9.852350E-1	9.920345E-1	9.636562E-1	9.858082E-1	9.609035E-1	9.477401E-1	9.661849E-1	9.708894E-1	9.862846E-1	8.967606E-1	9.815993E-1	9.897143E-1	9.770966E-1	9.549243E-1	9.585967E-1	1.017232E+0	9.902049E-1	9.816376E-1	1.002286E+0	1.031990E+0	9.500124E-1	9.207746E-1	8.333937E-1	1.042231E+0	9.286108E-1	9.028108E-1	9.853974E-1	1.018106E+0	1.006152E+0	8.515508E-1	9.698717E-1	1.003380E+0	1.007835E+0	9.540236E-1	9.620283E-1	9.371270E-1	9.793341E-1	9.387797E-1	9.973102E-1	9.902068E-1	9.613701E-1	9.232435E-1	9.679893E-1	1.019062E+0	9.706730E-1	9.249435E-1	9.772273E-1	9.576497E-1	1.030559E+0	1.002472E+0	9.709606E-1	1.001641E+0	9.824394E-1	9.419707E-1	9.790200E-1	9.666465E-1	9.192619E-1	8.786086E-1	9.934678E-1	9.889387E-1	9.282138E-1	9.692925E-1	1.004898E+0	9.085152E-1	9.271873E-1	9.607743E-1	9.592140E-1	9.748158E-1	9.482392E-1	9.553027E-1	9.819232E-1	9.357863E-1	9.688350E-1	8.618588E-1	1.022368E+0	9.492807E-1	9.890886E-1	8.452802E-1	9.719294E-1	9.218543E-1	9.702611E-1	9.903344E-1	1.003186E+0	9.999996E-1	1.005177E+0	9.120899E-1	9.473681E-1	9.445270E-1	9.578817E-1	8.975316E-1	9.351797E-1	9.799585E-1	9.964313E-1	8.816169E-1	1.032991E+0
5.565140E+2	9.877802E-1	9.336207E-1	1.051981E+0	9.519769E-1	9.855949E-1	9.148167E-1	9.318299E-1	9.475556E-1	9.850338E-1	9.409485E-1	1.030757E+0	1.035590E+0	9.956457E-1	9.809083E-1	1.032374E+0	9.550648E-1	9.129419E-1	1.002277E+0	1.016946E+0	1.030459E+0	1.024881E+0	9.665140E-1	9.404333E-1	9.573070E-1	1.034461E+0	9.747667E-1	1.020432E+0	8.583436E-1	9.744602E-1	9.805545E-1	9.776072E-1	1.004404E+0	1.001687E+0	9.444337E-1	9.840697E-1	1.012817E+0	9.800908E-1	9.229737E-1	1.027008E+0	1.010522E+0	9.790561E-1	9.811295E-1	9.899200E-1	9.925964E-1	1.025202E+0	9.719451E-1	9.666170E-1	9.670235E-1	9.719648E-1	9.846674E-1	1.003543E+0	1.031207E+0	1.017079E+0	9.752546E-1	9.931537E-1	9.940484E-1	1.014054E+0	9.792759E-1	1.033566E+0	9.790367E-1	9.807643E-1	9.597667E-1	9.812045E-1	9.340497E-1	9.872039E-1	1.023918E+0	9.998968E-1	9.618688E-1	9.923617E-1	9.446601E-1	1.029808E+0	9.807321E-1	9.760810E-1	9.367722E-1	9.707753E-1	1.035516E+0	9.862844E-1	9.841830E-1	1.001636E+0	9.187525E-1	9.869348E-1	9.998250E-1	1.033978E+0	1.013222E+0	9.907576E-1	9.567782E-1	1.001184E+0	1.014567E+0	9.933680E-1	9.899655E-1	1.034358E+0	9.882271E-1	1.027809E+0	9.737572E-1	1.015077E+0	9.748784E-1	1.029204E+0	8.670032E-1	1.005825E+0	9.607163E-1	9.490583E-1	9.881050E-1	9.695536E-1	9.955418E-1	1.025095E+0	9.881538E-1	9.925083E-1	1.054245E+0	9.856003E-1	1.012794E+0	9.880449E-1	1.020058E+0	9.538159E-1	9.797804E-1	9.828861E-1	9.664450E-1	9.797665E-1	9.430919E-1	1.004812E+0	1.069516E+0	9.687264E-1	1.002024E+0	1.003707E+0	1.012988E+0	1.004325E+0	1.008470E+0	1.030087E+0	9.752852E-1	1.011339E+0	9.918190E-1	1.022105E+0	1.003893E+0	9.468488E-1	9.722609E-1	1.000457E+0	1.013876E+0	1.006857E+0	1.003374E+0	9.580039E-1	9.833680E-1	9.970517E-1	9.964275E-1	1.053315E+0	9.464065E-1	9.566014E-1	9.888828E-1	9.844200E-1	1.003245E+0	8.961495E-1	9.926941E-1	9.680328E-1	9.959753E-1	9.634420E-1	1.029182E+0	9.814916E-1	9.850801E-1	9.829545E-1	9.533131E-1	9.974436E-1	1.088462E+0	8.968006E-1	9.765973E-1	9.645048E-1	9.585882E-1	8.946281E-1	9.742633E-1	9.758117E-1	1.014541E+0	8.599565E-1	1.053775E+0
5.570050E+2	1.008361E+0	9.200306E-1	9.525390E-1	9.479431E-1	9.684840E-1	8.706940E-1	9.585749E-1	9.023721E-1	9.909267E-1	9.060548E-1	9.770977E-1	1.008412E+0	9.069773E-1	9.339720E-1	9.545877E-1	9.402545E-1	9.510301E-1	9.747057E-1	9.470346E-1	9.416748E-1	1.011617E+0	9.166283E-1	9.755647E-1	9.378175E-1	9.200582E-1	9.576299E-1	9.048664E-1	8.386642E-1	9.568659E-1	9.343830E-1	9.403615E-1	9.469112E-1	9.550283E-1	9.501446E-1	9.090880E-1	9.759554E-1	9.146976E-1	9.277664E-1	1.004129E+0	9.841720E-1	9.424040E-1	9.500847E-1	9.437136E-1	9.427392E-1	9.749627E-1	9.472491E-1	9.622683E-1	9.481199E-1	9.216621E-1	9.820660E-1	9.355001E-1	9.853139E-1	9.589801E-1	9.438155E-1	9.506191E-1	9.022678E-1	9.799994E-1	9.759637E-1	9.977363E-1	9.198234E-1	9.853483E-1	9.948951E-1	9.805867E-1	9.448256E-1	9.368224E-1	9.484135E-1	9.817555E-1	9.646068E-1	9.664726E-1	9.470071E-1	9.635292E-1	9.516202E-1	9.791476E-1	9.129616E-1	9.640173E-1	9.775533E-1	9.793871E-1	9.835610E-1	9.459642E-1	9.700665E-1	9.216097E-1	8.664878E-1	9.475470E-1	1.002171E+0	8.845528E-1	9.125030E-1	9.374647E-1	9.770964E-1	9.520230E-1	9.326832E-1	9.531956E-1	9.374632E-1	9.816380E-1	9.500983E-1	1.001546E+0	9.559320E-1	9.511624E-1	8.421321E-1	9.584976E-1	9.446636E-1	9.417558E-1	9.420726E-1	9.197406E-1	9.075341E-1	9.319733E-1	9.685655E-1	9.880317E-1	9.874430E-1	9.321635E-1	9.876973E-1	9.757541E-1	9.568448E-1	9.531329E-1	9.882209E-1	9.150008E-1	9.388964E-1	9.349383E-1	9.866621E-1	9.983342E-1	9.921005E-1	9.623811E-1	9.148813E-1	9.459736E-1	9.419385E-1	9.752862E-1	9.419213E-1	9.840916E-1	9.772361E-1	9.226278E-1	1.014725E+0	9.728087E-1	9.709018E-1	9.278605E-1	9.530428E-1	9.697409E-1	8.877956E-1	9.219895E-1	1.002612E+0	9.417535E-1	9.576468E-1	9.789129E-1	1.004358E+0	9.854597E-1	9.292980E-1	9.520580E-1	9.085309E-1	9.667348E-1	9.309847E-1	9.830180E-1	9.775416E-1	8.974003E-1	9.508975E-1	9.810680E-1	1.025647E+0	9.746366E-1	9.399178E-1	9.884902E-1	9.826499E-1	9.373770E-1	9.956409E-1	9.624150E-1	9.201783E-1	9.470244E-1	1.004545E+0	9.399295E-1	9.657135E-1	1.000000E+0	9.414793E-1	8.912427E-1	9.741025E-1
5.575080E+2	9.453308E-1	9.103227E-1	9.683599E-1	9.008800E-1	1.010651E+0	8.322445E-1	9.923586E-1	9.481831E-1	9.856886E-1	8.825684E-1	1.020820E+0	9.663520E-1	9.269288E-1	9.466727E-1	9.156942E-1	9.201133E-1	9.934181E-1	9.820579E-1	9.476091E-1	9.948156E-1	9.885477E-1	9.508869E-1	9.306428E-1	1.000185E+0	9.690877E-1	9.457661E-1	9.853148E-1	9.078602E-1	9.443783E-1	9.835529E-1	9.051840E-1	9.806963E-1	9.851497E-1	9.552208E-1	9.718930E-1	9.662178E-1	9.902767E-1	9.427438E-1	1.014967E+0	9.326684E-1	9.361906E-1	9.111262E-1	9.318499E-1	1.026709E+0	9.635460E-1	9.736663E-1	9.959626E-1	9.315097E-1	9.465033E-1	9.931237E-1	9.526702E-1	9.571667E-1	9.438963E-1	9.943640E-1	9.631992E-1	9.855950E-1	9.963960E-1	9.454930E-1	9.605272E-1	9.404193E-1	9.761823E-1	1.007614E+0	1.016412E+0	9.357508E-1	9.679224E-1	9.707371E-1	9.389429E-1	9.618688E-1	9.445233E-1	9.088573E-1	9.598471E-1	9.599383E-1	9.724010E-1	9.150620E-1	9.726179E-1	9.593955E-1	9.621412E-1	9.512155E-1	9.787107E-1	9.395220E-1	9.491147E-1	9.631266E-1	9.658422E-1	9.793773E-1	9.608494E-1	9.574491E-1	9.935370E-1	9.856966E-1	9.309882E-1	9.510954E-1	9.747894E-1	9.691084E-1	1.009092E+0	9.556651E-1	9.934277E-1	9.494186E-1	1.014700E+0	8.596093E-1	9.694190E-1	9.586223E-1	9.800917E-1	9.366569E-1	9.979284E-1	9.487292E-1	9.489044E-1	9.098007E-1	9.502995E-1	1.017680E+0	9.576677E-1	9.677310E-1	9.248372E-1	9.252378E-1	9.579173E-1	9.986086E-1	1.003518E+0	9.642695E-1	9.687222E-1	9.542961E-1	9.821409E-1	9.941745E-1	9.040043E-1	9.623491E-1	9.946248E-1	9.258949E-1	9.388329E-1	9.528111E-1	9.635153E-1	9.382136E-1	9.619809E-1	9.500509E-1	9.906104E-1	9.422126E-1	9.266730E-1	1.000095E+0	9.575820E-1	9.722509E-1	9.324241E-1	9.828028E-1	9.166405E-1	9.677994E-1	9.920477E-1	1.008628E+0	9.801376E-1	9.787894E-1	9.845139E-1	9.490230E-1	9.357857E-1	9.832873E-1	9.550144E-1	9.484988E-1	1.003661E+0	9.740628E-1	9.732339E-1	9.910132E-1	9.958871E-1	9.406233E-1	9.595836E-1	9.538998E-1	9.565471E-1	1.002634E+0	9.611408E-1	9.099817E-1	9.357865E-1	9.896976E-1	9.556110E-1	9.247977E-1	9.495505E-1	9.283657E-1	8.832210E-1	9.175233E-1
5.580000E+2	1.050810E+0	9.808630E-1	9.977397E-1	9.681124E-1	9.855951E-1	9.129258E-1	9.888397E-1	1.025998E+0	1.003367E+0	9.745004E-1	1.028769E+0	9.915881E-1	9.790209E-1	1.002997E+0	1.042226E+0	1.059915E+0	1.007548E+0	1.023106E+0	1.024395E+0	1.018794E+0	1.014501E+0	9.707196E-1	1.007238E+0	9.644541E-1	1.032500E+0	1.003766E+0	1.021708E+0	1.006892E+0	1.008515E+0	1.009936E+0	9.812291E-1	1.012109E+0	9.751095E-1	1.012963E+0	9.706118E-1	1.021859E+0	9.934904E-1	9.978602E-1	1.008345E+0	1.011122E+0	1.039936E+0	9.446062E-1	1.037377E+0	1.014245E+0	1.017208E+0	1.002379E+0	1.027482E+0	1.013420E+0	1.016679E+0	1.009386E+0	1.032159E+0	9.847027E-1	1.003111E+0	9.777205E-1	9.979466E-1	1.013974E+0	1.003964E+0	9.368812E-1	1.006005E+0	1.020228E+0	1.001391E+0	9.876274E-1	1.030620E+0	9.811222E-1	9.965351E-1	1.001595E+0	9.491012E-1	1.053579E+0	1.001930E+0	9.663769E-1	1.021216E+0	9.842979E-1	1.001840E+0	1.003302E+0	1.009479E+0	1.017359E+0	1.006406E+0	1.016528E+0	9.836263E-1	1.029934E+0	9.979370E-1	9.875927E-1	1.018836E+0	1.026345E+0	9.999119E-1	9.681828E-1	1.031131E+0	9.936821E-1	9.882906E-1	1.017243E+0	9.934050E-1	1.064044E+0	1.012835E+0	9.661030E-1	9.961339E-1	1.014548E+0	1.001579E+0	9.026289E-1	1.019659E+0	1.057031E+0	9.880036E-1	9.468111E-1	1.040806E+0	1.054214E+0	9.764175E-1	1.023412E+0	1.000822E+0	1.065496E+0	9.953160E-1	1.051010E+0	1.004430E+0	1.011549E+0	1.020114E+0	1.030423E+0	9.935345E-1	1.016467E+0	9.947094E-1	1.014672E+0	1.005459E+0	1.037029E+0	9.839552E-1	1.012652E+0	1.040682E+0	9.908320E-1	1.000001E+0	1.049003E+0	1.037349E+0	1.031869E+0	1.007337E+0	1.056494E+0	1.028952E+0	9.881145E-1	9.961003E-1	9.682848E-1	1.013896E+0	9.764734E-1	1.028422E+0	1.046040E+0	9.993670E-1	9.860756E-1	1.003932E+0	9.933769E-1	1.000095E+0	9.946758E-1	1.045531E+0	1.006598E+0	1.038949E+0	1.039030E+0	9.910196E-1	1.028682E+0	1.018663E+0	1.007245E+0	1.043739E+0	1.037663E+0	1.031532E+0	9.780240E-1	1.013092E+0	1.003185E+0	1.004473E+0	9.981835E-1	1.040133E+0	9.942708E-1	1.010078E+0	9.946468E-1	1.016593E+0	9.864777E-1	1.018659E+0	9.845670E-1	1.007564E+0	1.038764E+0
5.585160E+2	1.041162E+0	9.297374E-1	9.404860E-1	1.028622E+0	9.813174E-1	9.148169E-1	1.034588E+0	1.038549E+0	1.046582E+0	9.818821E-1	1.021483E+0	1.005824E+0	9.673829E-1	1.021221E+0	1.001260E+0	9.544714E-1	1.007548E+0	1.035972E+0	1.010644E+0	1.029811E+0	9.983511E-1	9.821412E-1	1.018758E+0	1.006033E+0	1.007004E+0	9.991527E-1	1.018516E+0	9.973699E-1	1.024404E+0	1.015332E+0	9.895052E-1	1.020998E+0	1.093826E+0	9.970995E-1	1.016754E+0	1.045506E+0	1.001530E+0	1.009842E+0	1.032428E+0	1.032082E+0	9.622828E-1	1.012175E+0	1.036126E+0	1.046390E+0	1.016067E+0	9.908940E-1	1.003571E+0	1.016858E+0	1.061393E+0	9.775126E-1	9.927324E-1	1.045281E+0	1.026575E+0	9.308697E-1	1.022508E+0	1.020615E+0	9.957653E-1	1.003123E+0	9.743081E-1	9.841852E-1	1.001966E+0	1.028207E+0	1.021973E+0	1.020822E+0	9.977790E-1	1.002251E+0	1.013684E+0	1.016621E+0	9.833575E-1	1.002179E+0	1.003419E+0	1.026482E+0	1.001227E+0	1.011705E+0	1.040808E+0	1.020153E+0	1.033424E+0	1.024614E+0	1.002729E+0	1.037875E+0	1.008252E+0	9.869811E-1	9.917086E-1	9.966454E-1	1.037755E+0	9.574493E-1	9.865279E-1	1.031152E+0	1.031087E+0	9.824650E-1	1.026168E+0	1.033717E+0	9.735270E-1	9.904570E-1	1.008312E+0	1.071388E+0	1.025751E+0	9.160726E-1	1.002912E+0	9.963110E-1	9.959143E-1	1.015183E+0	9.777509E-1	1.026751E+0	9.982867E-1	9.999067E-1	9.867526E-1	9.937719E-1	9.874215E-1	1.020208E+0	1.038961E+0	1.019451E+0	1.000293E+0	1.018735E+0	1.034799E+0	1.086063E+0	1.009003E+0	1.000978E+0	9.938001E-1	9.983210E-1	1.059465E+0	1.041699E+0	1.003058E+0	1.006112E+0	1.033980E+0	9.346622E-1	9.986171E-1	1.018211E+0	1.010005E+0	9.682404E-1	1.036484E+0	9.917005E-1	1.025771E+0	1.059075E+0	1.029254E+0	9.939677E-1	1.029118E+0	9.888980E-1	1.062150E+0	9.921677E-1	9.970512E-1	9.976467E-1	9.834637E-1	1.005063E+0	1.036444E+0	1.011027E+0	1.003579E+0	1.008750E+0	1.016736E+0	1.024894E+0	9.867840E-1	9.991058E-1	1.028071E+0	1.051093E+0	9.910889E-1	9.843745E-1	9.934103E-1	9.685681E-1	1.012780E+0	1.036965E+0	9.987259E-1	1.019421E+0	1.016945E+0	9.854552E-1	1.004978E+0	9.956372E-1	1.022806E+0	1.001427E+0	1.043663E+0	1.061857E+0
5.590100E+2	9.408286E-1	9.206773E-1	1.003767E+0	9.768530E-1	9.599285E-1	9.242717E-1	1.006435E+0	9.789325E-1	9.961653E-1	8.933050E-1	9.340374E-1	9.411156E-1	1.003403E+0	9.726265E-1	9.571801E-1	9.467704E-1	9.928030E-1	9.630646E-1	1.004912E+0	9.436189E-1	1.004119E+0	9.863485E-1	9.911150E-1	1.024223E+0	9.880455E-1	9.958569E-1	9.725455E-1	9.929263E-1	1.000567E+0	9.853517E-1	1.036065E+0	9.783239E-1	1.018225E+0	9.552205E-1	9.827878E-1	9.724780E-1	9.940292E-1	9.667074E-1	1.020385E+0	9.715957E-1	9.809198E-1	9.482584E-1	9.780565E-1	1.001125E+0	9.703954E-1	9.426558E-1	9.948767E-1	1.002535E+0	9.191777E-1	9.957252E-1	9.545777E-1	9.791953E-1	9.567453E-1	9.863504E-1	9.452262E-1	9.861992E-1	9.938734E-1	9.083981E-1	1.041146E+0	9.507174E-1	1.000817E+0	9.627951E-1	9.805864E-1	1.020822E+0	1.022659E+0	1.004877E+0	9.969935E-1	1.000196E+0	9.692865E-1	9.511165E-1	9.837807E-1	1.044307E+0	9.981602E-1	1.010305E+0	1.031595E+0	9.384451E-1	9.552422E-1	9.599242E-1	1.004365E+0	9.444092E-1	1.013065E+0	9.600686E-1	9.658427E-1	9.683266E-1	9.901472E-1	9.715370E-1	9.788817E-1	1.022552E+0	9.607276E-1	9.401846E-1	9.837253E-1	9.579006E-1	1.024066E+0	1.002286E+0	9.541893E-1	9.867202E-1	9.739533E-1	8.676753E-1	1.024756E+0	1.030510E+0	1.011736E+0	9.623810E-1	9.960368E-1	9.674539E-1	9.961704E-1	1.024066E+0	9.899502E-1	9.860371E-1	9.473447E-1	9.671615E-1	9.605377E-1	9.999988E-1	1.016696E+0	9.817279E-1	1.007511E+0	9.802189E-1	9.908116E-1	1.002223E+0	9.944484E-1	9.824235E-1	9.325579E-1	9.814782E-1	9.719211E-1	9.488139E-1	1.012357E+0	9.600714E-1	1.020404E+0	9.369124E-1	1.003335E+0	9.864302E-1	9.741781E-1	9.723358E-1	9.972870E-1	9.795509E-1	1.013256E+0	9.776801E-1	9.456410E-1	9.629939E-1	9.447084E-1	1.020597E+0	1.009561E+0	9.653149E-1	9.528627E-1	1.029503E+0	9.845139E-1	9.673714E-1	9.217857E-1	9.695234E-1	9.910197E-1	9.402915E-1	1.001786E+0	9.828277E-1	9.908605E-1	9.669819E-1	9.698384E-1	9.970766E-1	1.011246E+0	9.973180E-1	1.009586E+0	9.625812E-1	1.001911E+0	1.001068E+0	9.713717E-1	9.486906E-1	9.695500E-1	9.852562E-1	9.861782E-1	1.002052E+0	1.016388E+0	9.417717E-1
5.595110E+2	1.039233E+0	1.017104E+0	9.969862E-1	1.009797E+0	1.073596E+0	1.018189E+0	9.958776E-1	9.977592E-1	9.837243E-1	9.966447E-1	1.064543E+0	9.980587E-1	1.037762E+0	9.914023E-1	1.006445E+0	1.032073E+0	1.043178E+0	9.740932E-1	9.917315E-1	9.863911E-1	1.023728E+0	9.773327E-1	9.600145E-1	1.072949E+0	9.939297E-1	9.780619E-1	1.028093E+0	1.001179E+0	9.460823E-1	1.013535E+0	9.972638E-1	9.463181E-1	9.503030E-1	1.013597E+0	9.667665E-1	9.829100E-1	9.999227E-1	9.583206E-1	1.001117E+0	9.949517E-1	1.008253E+0	9.446059E-1	1.001160E+0	1.038518E+0	1.029196E+0	1.005250E+0	1.020417E+0	9.647320E-1	9.955642E-1	9.788130E-1	1.041697E+0	1.016521E+0	1.006464E+0	9.832681E-1	1.020112E+0	9.892180E-1	9.919816E-1	1.013059E+0	9.715519E-1	1.031170E+0	9.824833E-1	1.009432E+0	1.019503E+0	9.709138E-1	1.003376E+0	9.818980E-1	1.022391E+0	9.680285E-1	1.017689E+0	9.270518E-1	1.037172E+0	9.842974E-1	1.022692E+0	9.500777E-1	9.935055E-1	1.000599E+0	1.005832E+0	1.010307E+0	1.037661E+0	1.020159E+0	9.938112E-1	1.040805E+0	1.061104E+0	1.016675E+0	1.020055E+0	1.005750E+0	9.852537E-1	1.013953E+0	9.977201E-1	9.742811E-1	1.039571E+0	9.308706E-1	9.959890E-1	1.062128E+0	1.000870E+0	1.008627E+0	1.007795E+0	1.080758E+0	1.006553E+0	9.732791E-1	1.039726E+0	9.982594E-1	1.023150E+0	9.961644E-1	1.012396E+0	1.011660E+0	1.014892E+0	1.009945E+0	1.035393E+0	9.945400E-1	1.001506E+0	9.191593E-1	9.627011E-1	1.036915E+0	1.024815E+0	9.606452E-1	1.018099E+0	1.006580E+0	1.009994E+0	1.004542E+0	1.017586E+0	1.012652E+0	1.023816E+0	1.008404E+0	1.001854E+0	1.030249E+0	1.013746E+0	1.013658E+0	1.012673E+0	9.857564E-1	9.796554E-1	1.008197E+0	1.048319E+0	9.921421E-1	1.015815E+0	9.740606E-1	1.019379E+0	1.004898E+0	9.927190E-1	1.002998E+0	9.626503E-1	1.029980E+0	1.034023E+0	9.714574E-1	1.019566E+0	9.749634E-1	1.025686E+0	9.764052E-1	1.007020E+0	9.737535E-1	1.018038E+0	1.057956E+0	9.830265E-1	9.888927E-1	9.972583E-1	1.032359E+0	1.021087E+0	1.006118E+0	1.015336E+0	9.981837E-1	1.007008E+0	9.990292E-1	9.975917E-1	1.040603E+0	1.005558E+0	1.013348E+0	1.013822E+0	1.008296E+0	9.859040E-1	1.017980E+0
5.600520E+2	9.633398E-1	1.077936E+0	1.045201E+0	1.045430E+0	9.947616E-1	1.077439E+0	9.846162E-1	9.732846E-1	1.002713E+0	1.063749E+0	9.890224E-1	1.040766E+0	9.895498E-1	1.019564E+0	1.037043E+0	9.917911E-1	9.989465E-1	9.943111E-1	9.762587E-1	1.000000E+0	1.013925E+0	1.033829E+0	1.019910E+0	9.982361E-1	1.008312E+0	1.028153E+0	9.757378E-1	1.022128E+0	1.077187E+0	9.829533E-1	9.895076E-1	1.023963E+0	1.036534E+0	1.012963E+0	1.023163E+0	1.001689E+0	1.002066E+0	1.005648E+0	1.017376E+0	9.781836E-1	9.877530E-1	1.019479E+0	9.836759E-1	9.873488E-1	9.761050E-1	1.025350E+0	9.894419E-1	9.905075E-1	1.002396E+0	9.853180E-1	9.889169E-1	1.009178E+0	9.779747E-1	9.771034E-1	9.775782E-1	1.000086E+0	9.642329E-1	1.024320E+0	1.017718E+0	9.996322E-1	1.004830E+0	1.004586E+0	1.012706E+0	9.958679E-1	9.604584E-1	9.333130E-1	1.012232E+0	1.009778E+0	1.005305E+0	9.534641E-1	9.948276E-1	1.030046E+0	9.975456E-1	9.353710E-1	9.726183E-1	9.971066E-1	9.983564E-1	9.742303E-1	1.003821E+0	9.883934E-1	9.841846E-1	9.667967E-1	1.015051E+0	9.703986E-1	9.919784E-1	9.131736E-1	1.034317E+0	9.377833E-1	9.665300E-1	1.006332E+0	1.008297E+0	1.020532E+0	1.030306E+0	9.368776E-1	1.031990E+0	1.009813E+0	1.047851E+0	1.078742E+0	1.017475E+0	9.879361E-1	9.758331E-1	1.033460E+0	9.865785E-1	9.730716E-1	1.036382E+0	9.816241E-1	1.008497E+0	1.021899E+0	9.661679E-1	9.968224E-1	1.017892E+0	1.010333E+0	1.026266E+0	1.007049E+0	9.782273E-1	9.657200E-1	9.960091E-1	9.879071E-1	9.957437E-1	1.000395E+0	1.011875E+0	1.015486E+0	9.887874E-1	9.663853E-1	9.907325E-1	1.024199E+0	9.828818E-1	9.609765E-1	1.007337E+0	1.005967E+0	1.024159E+0	1.012500E+0	9.836395E-1	1.033893E+0	9.767795E-1	1.031972E+0	1.017987E+0	9.957550E-1	9.794241E-1	9.684770E-1	9.726580E-1	9.988674E-1	1.029366E+0	1.002008E+0	1.017619E+0	1.067336E+0	1.024212E+0	9.764050E-1	9.893047E-1	1.021737E+0	1.019913E+0	1.012254E+0	9.308006E-1	1.000202E+0	1.037016E+0	9.970766E-1	1.013706E+0	1.036629E+0	1.026838E+0	1.013441E+0	9.993630E-1	9.833952E-1	1.045038E+0	1.016565E+0	9.991702E-1	1.009683E+0	9.958532E-1	9.808205E-1	9.931237E-1	9.752571E-1
5.605150E+2	9.974273E-1	1.011279E+0	1.039927E+0	9.956776E-1	1.016151E+0	1.078070E+0	1.002916E+0	9.839531E-1	1.000748E+0	1.103340E+0	9.923345E-1	1.031060E+0	9.956462E-1	9.880892E-1	9.794788E-1	1.007785E+0	9.983329E-1	1.012079E+0	1.005486E+0	9.902784E-1	9.389506E-1	1.024214E+0	9.922671E-1	9.703012E-1	9.841238E-1	1.011016E+0	1.007023E+0	1.010701E+0	9.699196E-1	1.029126E+0	1.028821E+0	1.055375E+0	9.579809E-1	1.018672E+0	1.028290E+0	1.000298E+0	1.020829E+0	1.056572E+0	9.902798E-1	9.943541E-1	1.005147E+0	1.093744E+0	9.643189E-1	9.899722E-1	1.008644E+0	1.034538E+0	9.943328E-1	1.002537E+0	9.999109E-1	1.051015E+0	1.011175E+0	1.001837E+0	1.020430E+0	1.084364E+0	1.017117E+0	9.982753E-1	1.018469E+0	1.021008E+0	9.984253E-1	9.893341E-1	1.015143E+0	1.025783E+0	1.006529E+0	1.010047E+0	1.013950E+0	1.074471E+0	1.012958E+0	9.714505E-1	1.014875E+0	1.097264E+0	9.530966E-1	9.646910E-1	1.004294E+0	1.055825E+0	1.008864E+0	1.054372E+0	1.038024E+0	1.012796E+0	1.031111E+0	9.902259E-1	1.005501E+0	1.029795E+0	1.008743E+0	1.024964E+0	9.620700E-1	1.041976E+0	1.008192E+0	9.672684E-1	1.016579E+0	1.032927E+0	9.531956E-1	1.003390E+0	9.797665E-1	1.007157E+0	1.011694E+0	9.298804E-1	9.946722E-1	1.061265E+0	9.839814E-1	1.014457E+0	1.020256E+0	1.008413E+0	1.004232E+0	1.046100E+0	9.968760E-1	9.209007E-1	1.018089E+0	9.593160E-1	1.074863E+0	1.009941E+0	1.005601E+0	1.018842E+0	1.035833E+0	9.693924E-1	9.902068E-1	1.007767E+0	1.022646E+0	1.031477E+0	1.006107E+0	1.015602E+0	1.007433E+0	9.694340E-1	9.907330E-1	9.885408E-1	9.876429E-1	1.012099E+0	9.169150E-1	1.007804E+0	9.879934E-1	9.978827E-1	9.871868E-1	1.018238E+0	1.012122E+0	1.014012E+0	9.742199E-1	1.027145E+0	9.887702E-1	1.033850E+0	1.045900E+0	1.019242E+0	1.043336E+0	9.799558E-1	1.020052E+0	1.017894E+0	9.520575E-1	1.000271E+0	9.888418E-1	1.017008E+0	1.024738E+0	1.012266E+0	9.730328E-1	9.934705E-1	1.016973E+0	9.888927E-1	9.698383E-1	1.008367E+0	1.003251E+0	1.001425E+0	9.833857E-1	1.007720E+0	9.923556E-1	9.861133E-1	9.726202E-1	1.025049E+0	9.974287E-1	1.031670E+0	9.758123E-1	9.983049E-1	9.618373E-1	1.028372E+0
5.609950E+2	9.671988E-1	1.062404E+0	9.758931E-1	9.755082E-1	9.886507E-1	1.074288E+0	9.867282E-1	1.001524E+0	9.667001E-1	9.865793E-1	9.698110E-1	9.915880E-1	1.027235E+0	1.004101E+0	9.763675E-1	1.007193E+0	9.516438E-1	9.973744E-1	9.865733E-1	1.031107E+0	1.006426E+0	1.025415E+0	1.010696E+0	9.638042E-1	9.860848E-1	9.839935E-1	9.763760E-1	9.688031E-1	9.733251E-1	9.637650E-1	9.776080E-1	9.629135E-1	9.680216E-1	9.894855E-1	1.011627E+0	9.752600E-1	9.881316E-1	1.005050E+0	9.300684E-1	1.017711E+0	1.015708E+0	1.037132E+0	9.992860E-1	9.224024E-1	9.823845E-1	9.989330E-1	9.698774E-1	1.009411E+0	1.004879E+0	1.002231E+0	9.787424E-1	9.632857E-1	1.008700E+0	1.060324E+0	1.019512E+0	9.916319E-1	1.031713E+0	1.093211E+0	9.908453E-1	1.024734E+0	9.933698E-1	9.815701E-1	9.280829E-1	1.000406E+0	1.005242E+0	1.001595E+0	9.926401E-1	9.803474E-1	1.007558E+0	1.102547E+0	1.006488E+0	9.658795E-1	9.742410E-1	1.033415E+0	9.431305E-1	9.719660E-1	9.627148E-1	1.001600E+0	9.366861E-1	9.890040E-1	9.972496E-1	1.027961E+0	9.387145E-1	9.966454E-1	9.980819E-1	1.141932E+0	9.756957E-1	1.033609E+0	1.039066E+0	1.046567E+0	9.956387E-1	9.895457E-1	9.835099E-1	1.034991E+0	9.968106E-1	9.790235E-1	9.483999E-1	1.092858E+0	9.446631E-1	9.404760E-1	9.685306E-1	1.035492E+0	9.714450E-1	9.362454E-1	9.834718E-1	1.038430E+0	9.809968E-1	9.635347E-1	9.934939E-1	9.603182E-1	9.710723E-1	1.020666E+0	9.380965E-1	9.557577E-1	9.709062E-1	9.831184E-1	9.687222E-1	9.561635E-1	9.944478E-1	9.616873E-1	9.871281E-1	9.666001E-1	9.810031E-1	1.090913E+0	9.734323E-1	9.897155E-1	1.030087E+0	1.030568E+0	9.713188E-1	9.992299E-1	9.693853E-1	1.008914E+0	9.367611E-1	9.530426E-1	9.767798E-1	1.018701E+0	9.706838E-1	9.675654E-1	9.757308E-1	1.010443E+0	1.010812E+0	1.034859E+0	9.801376E-1	9.793993E-1	9.442684E-1	9.724325E-1	9.969467E-1	1.012879E+0	9.801619E-1	9.983763E-1	9.817838E-1	9.471411E-1	1.006528E+0	9.662753E-1	1.003427E+0	1.002722E+0	9.442081E-1	9.867568E-1	9.476010E-1	9.829256E-1	9.605039E-1	1.016702E+0	9.863546E-1	9.889909E-1	1.006722E+0	9.779279E-1	9.868694E-1	1.024532E+0	9.915198E-1	9.359979E-1
