Photon Energy (eV)	#1	#2	#3	#4	#5	#6	#7	#8	#9	#10	#11	#12	#13	#14	#15	#16	#17	#18	#19	#20	#21	#22	#23	#24	#25	#26	#27	#28	#29	#30	#31	#32	#33	#34	#35	#36	#37	#38	#39	#40	#41	#42	#43	#44	#45	#46	#47	#48	#49	#50	#51	#52	#53	#54	#55	#56	#57	#58	#59	#60	#61	#62	#63	#64	#65	#66	#67	#68	#69	#70	#71	#72	#73	#74	#75	#76	#77	#78	#79	#80	#81	#82	#83	#84	#85	#86	#87	#88	#89	#90	#91	#92	#93	#94	#95	#96	#97	#98	#99	#100	#101	#102	#103	#104	#105	#106	#107	#108	#109	#110	#111	#112	#113	#114	#115	#116	#117	#118	#119	#120	#121	#122	#123	#124	#125	#126	#127	#128	#129	#130	#131	#132	#133	#134	#135	#136	#137	#138	#139	#140	#141	#142	#143	#144	#145	#146	#147	#148	#149	#150	#151	#152	#153	#154	#155	#156	#157	#158	#159	#160	#161	#162	#163	#164	#165	#166	#167	#168	#169	
5.300220E+2	-6.201392E-3	6.436814E-4	-1.297636E-2	-1.054478E-2	-8.648540E-3	-3.085409E-3	7.445075E-3	-1.015218E-2	-6.467490E-3	-9.924711E-3	-1.006151E-2	-7.206811E-3	-1.021213E-2	-1.205590E-2	-5.592883E-3	-9.329458E-3	-1.429724E-2	6.115008E-3	-7.519734E-3	-7.639844E-3	-5.418806E-3	-8.227337E-3	-1.234104E-2	-1.718558E-2	-1.560339E-3	-4.559962E-3	-6.030925E-3	-8.432787E-3	-5.844395E-3	-1.087938E-2	-1.100048E-2	-1.173394E-2	-9.936415E-3	-7.554249E-3	-1.594777E-2	-1.106055E-2	-7.052710E-3	-1.598128E-2	-3.324329E-3	-2.899667E-3	-9.777919E-3	-4.959346E-3	-1.084466E-2	-1.241962E-2	-1.004455E-2	4.033273E-4	-9.779947E-3	-1.300313E-2	-5.406512E-3	-8.998033E-3	-8.338413E-3	-1.310523E-2	-1.041558E-2	-2.829000E-3	-1.511885E-2	-7.577485E-3	-1.079674E-2	-3.608085E-3	-5.727394E-3	-1.645493E-3	-1.028722E-2	-1.121326E-2	-8.491712E-3	3.801262E-3	-1.540736E-3	-1.131361E-2	-5.889349E-3	-8.867431E-3	-8.335805E-3	-9.172301E-3	5.031370E-4	-1.058639E-2	-8.352303E-3	-8.102118E-3	-4.800923E-3	-9.992321E-3	-1.407798E-2	-9.351217E-3	-1.065020E-2	-7.291199E-3	-1.247212E-2	-1.174705E-2	-7.852156E-3	-7.445802E-3	2.789711E-3	-8.981763E-3	-5.056353E-3	1.434427E-3	-1.087993E-2	-7.232683E-3	-1.126959E-2	-6.390986E-3	-9.606691E-3	-4.242978E-3	-9.630537E-3	1.002826E-3	-7.286726E-3	1.708177E-5	-8.317938E-3	-1.399903E-2	-8.211130E-3	-1.787131E-2	-8.591145E-3	-6.623593E-3	-1.362751E-2	-3.848157E-3	-7.430317E-3	-9.894723E-3	-9.989296E-3	-1.029998E-2	-1.496772E-2	-8.584920E-3	-7.498575E-3	1.266128E-3	-2.621931E-3	-2.581514E-3	-8.621867E-3	-9.181186E-3	-2.303977E-3	-1.153522E-2	-1.031159E-2	-2.903360E-3	-1.047965E-2	-4.724116E-3	-1.643753E-2	-5.966275E-3	-1.092518E-2	-1.032279E-2	-1.058480E-4	-3.623026E-3	-1.115911E-2	-1.298089E-2	-5.460415E-3	-3.178436E-3	-5.555431E-3	-1.288664E-2	6.648603E-3	-2.474388E-3	-2.801512E-3	-1.513372E-2	-1.753937E-2	-5.782577E-3	-9.611621E-3	-3.960985E-3	-4.002423E-3	-1.118499E-2	-7.350328E-3	-9.355470E-3	-3.026697E-3	-4.678273E-3	-5.851647E-3	-2.214435E-4	-8.075262E-3	-7.708718E-3	-6.321914E-3	-9.253177E-3	-1.059780E-2	-2.980153E-3	-8.699948E-3	-1.023934E-2	-1.175627E-2	-9.693364E-3	-9.755784E-3	-1.157047E-2	-5.312937E-3	-6.312579E-3	1.974739E-3	-9.365682E-3	-8.799322E-3
5.305230E+2	-1.050022E-2	-2.513279E-3	-5.788681E-3	-1.204572E-2	-1.302807E-3	-6.355318E-3	-7.776197E-3	-1.157617E-2	-7.131734E-3	-9.986593E-3	1.684622E-3	-1.337451E-2	-7.233021E-3	-1.994715E-3	-9.268460E-3	-5.189582E-3	-1.093513E-2	-5.607300E-3	1.419115E-3	-1.310560E-3	-6.220302E-3	-5.389298E-3	-6.494947E-3	-1.663336E-2	-7.557708E-3	-6.521649E-3	-7.507832E-3	-3.897397E-3	-4.764014E-3	7.541337E-4	-2.071896E-3	-6.911506E-3	-1.148164E-2	-2.296167E-3	-7.506203E-3	-3.091324E-3	-1.119295E-2	-9.317872E-3	-8.958866E-3	-5.224202E-3	-1.119054E-2	-6.524388E-3	-4.032811E-3	-4.303646E-3	-6.051842E-3	-8.775172E-3	-5.842082E-3	-7.433369E-3	-2.888945E-3	-3.920578E-3	-8.465392E-3	-9.354973E-3	-7.809027E-3	-1.340581E-2	2.906017E-3	5.022043E-4	-9.020042E-3	5.618134E-4	5.077443E-4	-1.209207E-2	-5.772474E-3	-5.521958E-3	-1.068842E-4	-9.280058E-3	9.043811E-4	-2.664362E-3	-8.809689E-3	-6.236196E-3	3.152731E-3	-8.327182E-3	-3.478171E-3	-8.089058E-3	-1.090217E-2	-7.514552E-3	-1.214462E-2	-1.756555E-2	-6.051147E-4	-3.663007E-3	-9.082353E-3	-1.058678E-2	-1.105639E-2	-9.431702E-3	-9.210633E-3	-4.024721E-3	-1.299869E-2	-2.200482E-3	-1.300984E-2	-8.369260E-4	-4.722135E-3	-6.632004E-3	-1.050078E-2	-3.039760E-3	-6.477946E-3	-9.884036E-3	-9.107426E-3	-8.376016E-3	-1.118889E-2	-9.273924E-3	1.798609E-3	-2.284323E-3	-2.172565E-4	-4.057276E-3	-9.317482E-3	-7.508770E-3	-6.266464E-3	-2.837278E-3	-7.590108E-3	-3.997679E-3	-6.035726E-4	-1.457495E-2	-4.544416E-3	-9.974240E-3	-8.990947E-3	-1.336235E-2	-1.406977E-2	-1.224884E-2	-3.531203E-3	-9.360637E-3	-1.121879E-2	-7.165123E-3	-4.600544E-3	-1.069118E-3	-1.197144E-2	-1.306431E-2	-3.542614E-4	-1.922017E-3	-5.592541E-3	-3.270653E-3	-3.722490E-3	-1.239007E-2	-6.120176E-3	-3.063762E-3	-8.492913E-3	-9.829091E-3	-7.016100E-3	-4.555993E-3	2.905646E-3	-6.411459E-4	-1.460874E-2	-7.243745E-3	-3.504195E-3	8.063582E-4	-9.193573E-3	-6.615207E-4	-4.234720E-3	-2.420963E-3	-1.029782E-2	-3.063368E-3	-3.827094E-3	-9.328012E-3	-5.998871E-3	-8.636683E-3	-1.482498E-2	-5.561194E-3	-4.934981E-3	-6.524217E-3	-5.431003E-3	-9.275404E-3	2.783162E-5	-5.734179E-3	-4.916166E-3	-7.085176E-3	-2.438265E-2	-1.422827E-2	-5.664573E-3	-5.001109E-3	-6.650864E-3	1.784864E-3	-7.392656E-3
5.310050E+2	-1.186984E-2	-2.356555E-4	1.046982E-4	-1.485560E-3	2.300369E-3	-6.873451E-3	-8.218438E-3	-8.744102E-3	-2.396166E-3	-3.596792E-3	-8.796746E-3	-9.419126E-3	-1.093354E-2	-1.143372E-2	-5.775549E-3	-1.601311E-2	-1.353797E-2	-1.122450E-2	-1.265692E-2	-4.814163E-3	-1.061316E-2	-3.736505E-3	-3.164142E-3	-3.455538E-3	-6.866283E-3	-6.457341E-3	-9.359535E-4	-1.124706E-2	-4.040981E-3	-5.072851E-3	-4.849000E-3	-6.833456E-3	-2.205175E-3	1.223129E-2	-6.724408E-3	-3.014906E-3	-8.332281E-3	-1.373395E-3	-8.973190E-4	-7.703892E-3	-4.852164E-3	-1.116592E-2	2.198645E-3	-2.896570E-3	5.854871E-3	-1.159445E-2	-7.550624E-3	-5.649309E-3	-1.305935E-2	-1.034390E-2	-1.866786E-3	-5.491467E-3	-9.915039E-3	-4.196693E-3	9.858427E-3	-2.560419E-3	-1.453121E-2	-6.189091E-3	-1.342846E-2	-4.153320E-3	-6.276013E-3	-7.176068E-3	-1.344689E-2	-8.050473E-3	-2.358682E-3	-1.382229E-2	-7.326152E-3	-5.471512E-3	-1.067147E-2	-4.026855E-3	-4.607794E-3	8.740772E-4	-4.157183E-3	-8.784945E-3	-4.137503E-3	-7.141628E-3	-4.820508E-3	-3.574664E-3	-3.186625E-3	-5.012127E-3	-2.387320E-3	-3.341745E-3	-9.767461E-3	1.658356E-3	-1.235784E-2	2.901594E-3	-6.421402E-3	-1.181775E-2	-9.453204E-3	-6.558896E-3	-5.438666E-3	-1.274114E-2	-3.789479E-3	-2.984002E-3	-7.710221E-3	-4.674752E-3	-8.861001E-3	-5.731289E-3	-8.356851E-3	-1.166630E-2	-1.309072E-2	-3.964615E-3	-7.936102E-3	-8.111342E-3	-1.557833E-2	-3.927389E-3	-8.994174E-3	-6.126249E-3	-1.301001E-2	-1.767990E-3	-6.920932E-3	-8.132694E-3	-9.552370E-3	3.792077E-4	-7.688059E-3	-6.130719E-3	-1.086721E-3	-1.923143E-2	-2.454232E-3	9.068248E-3	-9.189371E-3	-2.302922E-3	1.909016E-3	-7.003624E-3	-1.316590E-2	-3.045325E-3	-6.111063E-3	-3.777083E-3	-1.109728E-2	-1.429657E-2	-1.528515E-3	-1.149307E-2	-7.296727E-3	4.835217E-3	-4.367718E-3	-1.026683E-2	-1.344982E-2	-1.009043E-2	-7.301941E-3	2.824194E-3	-5.168339E-3	9.011355E-4	-4.478039E-3	-6.510495E-3	1.291128E-3	-5.503598E-3	-4.757273E-3	-1.316618E-2	-7.629107E-3	1.229287E-3	-7.245436E-3	-1.018224E-3	5.145545E-4	-1.143152E-2	1.903374E-3	-2.194176E-3	-6.668924E-3	-1.627587E-2	-3.054093E-3	-5.645773E-3	-2.773802E-3	-1.295691E-2	-7.496390E-3	-4.138178E-3	-5.526362E-3	-8.669446E-3	-9.655614E-3	-5.780872E-3	-1.733161E-2
5.315080E+2	-4.586194E-4	-1.629954E-3	6.110299E-4	-1.938550E-3	-8.600046E-3	4.422961E-5	-7.750145E-3	-9.876312E-3	1.055629E-3	-9.302218E-4	-5.567886E-3	6.353779E-3	-1.505632E-3	-1.765932E-3	1.119267E-4	-7.920080E-3	6.701874E-3	-3.156613E-3	4.758752E-3	-8.251031E-3	-2.727190E-3	3.603873E-5	-4.302278E-3	-3.265957E-3	-1.002588E-2	-5.184921E-3	-9.446146E-3	-1.707897E-3	-4.591643E-3	-4.385076E-3	2.195690E-3	-5.074173E-3	-5.236474E-3	-1.298032E-2	4.564376E-3	2.409799E-3	-8.259312E-3	-6.492756E-3	-1.881090E-2	-6.338535E-3	-1.622766E-3	-8.720614E-3	-3.206688E-3	-1.513498E-3	-4.141378E-3	-1.635491E-3	-9.486053E-4	5.271929E-3	1.393990E-3	-5.738784E-3	-5.734263E-3	1.537825E-3	7.569170E-6	-5.822949E-3	-5.017629E-3	-3.736825E-3	-1.750856E-4	1.061548E-4	-5.655874E-3	-5.636600E-3	-2.121557E-3	-8.838320E-3	-7.260798E-3	-1.430503E-2	-1.303617E-2	-1.125293E-2	3.334832E-3	-9.497843E-3	2.807067E-3	2.409055E-3	-4.523573E-3	-3.485173E-3	-7.722392E-3	2.051667E-3	-7.369600E-4	-4.831087E-3	-4.731850E-3	-1.062145E-2	-6.571498E-3	-4.306925E-3	-8.665167E-4	1.409235E-2	-4.021932E-3	-1.055971E-3	-1.412599E-3	-1.019909E-2	-5.036190E-3	-6.521543E-3	-1.126139E-3	-2.909751E-3	-8.898792E-3	-2.168176E-3	-2.391678E-3	3.265120E-3	-4.418344E-3	-3.376467E-3	1.007851E-3	-7.731344E-3	2.697010E-3	6.635631E-5	-5.916406E-3	-1.080413E-2	-3.252299E-3	-1.153695E-3	-2.068691E-3	-3.839641E-3	-7.415697E-3	-1.268234E-2	-9.954385E-3	-8.032879E-3	-1.901232E-3	-1.003732E-3	-4.959163E-3	-2.779846E-3	-4.095077E-3	-4.027121E-3	-8.636972E-3	2.452531E-3	-5.711182E-3	-5.689739E-3	-2.074040E-3	-3.544805E-3	-4.899958E-3	-1.619787E-4	1.791584E-3	-9.672358E-3	-7.237991E-3	4.165309E-3	-4.913554E-3	4.272197E-3	3.087009E-3	9.923890E-3	-1.662214E-3	-4.407475E-3	-4.280001E-3	-1.156642E-3	-1.139482E-2	-1.001288E-2	4.385186E-3	-4.942371E-3	7.939376E-4	-1.321874E-2	-4.386468E-3	-3.760689E-4	-1.358886E-2	8.589360E-3	-6.717685E-3	4.505580E-4	1.360797E-3	-1.190749E-2	3.455513E-3	-3.348761E-3	-4.722555E-3	6.008163E-4	-5.532155E-3	3.614246E-3	3.030527E-5	-1.145604E-2	-1.060635E-2	-5.529928E-3	-1.995921E-3	6.954339E-3	-1.047950E-2	-6.029915E-3	9.111081E-4	-5.878410E-3	1.927893E-3	-7.366521E-3	-1.728474E-2
5.320070E+2	-8.911216E-3	-5.978394E-3	-8.180254E-3	-3.407592E-3	-4.524741E-3	4.516129E-3	1.880863E-3	-7.598364E-4	-1.581037E-3	6.779592E-3	-5.562905E-3	-2.012986E-3	1.712076E-3	5.599966E-3	-1.353590E-3	3.089048E-3	-2.227215E-5	3.439878E-4	3.927956E-4	3.620893E-3	2.446573E-3	1.295730E-3	4.861253E-3	7.964875E-3	2.840840E-3	2.103115E-3	5.459932E-3	-1.901818E-5	-2.534359E-3	-1.875589E-3	1.021189E-3	1.140327E-2	4.912600E-3	-2.008278E-3	-9.938481E-4	-5.471052E-3	-1.431906E-3	9.502688E-4	-4.296478E-3	-9.199893E-4	8.590220E-3	9.922715E-3	-5.237169E-3	5.515180E-3	1.318952E-3	3.166561E-3	-1.552257E-3	1.631153E-2	-8.779870E-3	1.196877E-2	2.868347E-3	3.612873E-3	6.601736E-4	-2.856757E-3	-1.118686E-2	7.715110E-4	-6.991997E-4	-4.231677E-4	-4.151555E-3	-3.175595E-3	-6.679865E-3	2.258336E-3	2.629576E-3	3.690840E-3	-2.856020E-3	-5.106978E-4	2.723747E-3	2.268410E-3	1.232758E-4	4.024919E-4	5.982396E-3	2.344998E-3	9.426788E-3	1.023405E-2	-3.961746E-3	1.162805E-2	-3.054402E-4	1.415147E-2	-1.805990E-3	1.308728E-3	1.001216E-2	-9.171218E-4	6.168501E-3	-1.361810E-2	-1.312678E-3	-4.530813E-5	4.848294E-3	2.073181E-3	2.406431E-3	-1.067789E-2	6.049796E-3	-1.369651E-3	-9.878729E-4	-8.292080E-3	5.962741E-3	-8.737847E-3	1.103091E-3	-2.773531E-3	5.323315E-5	-1.305933E-3	1.079227E-4	-3.765983E-3	7.862660E-4	5.141741E-3	4.756118E-3	-4.345815E-3	9.115510E-3	1.102725E-2	1.479169E-3	8.319737E-3	4.368077E-5	5.560600E-3	3.516054E-3	-8.576539E-3	-2.607413E-3	-3.939784E-3	1.465770E-3	9.226782E-3	1.743142E-3	-4.206988E-4	1.546644E-3	-6.784338E-3	-6.607850E-4	3.680288E-3	-5.888433E-3	3.268286E-3	4.365664E-3	-5.659310E-4	3.320982E-3	4.367221E-3	1.242407E-3	-7.079804E-3	-2.121793E-3	-7.254672E-3	1.590188E-3	2.207218E-4	3.879534E-3	4.420212E-3	8.836159E-3	-1.284486E-3	-1.465090E-3	-2.624200E-3	-1.973188E-3	5.121945E-3	-1.928387E-3	-2.145180E-3	-3.898623E-3	5.374410E-4	-6.917793E-3	-1.591257E-4	-1.113779E-3	2.402992E-3	4.683905E-3	1.297939E-3	-2.446117E-3	-7.651876E-3	1.219894E-4	4.653238E-3	4.768291E-3	4.770799E-4	1.186506E-2	-2.554790E-4	1.337545E-2	-1.837755E-3	-4.215283E-3	1.371532E-2	4.332076E-4	-5.528757E-3	1.193674E-2
5.325070E+2	8.949958E-3	7.262867E-6	1.981466E-3	1.163846E-2	9.456805E-3	3.365584E-3	-2.846257E-3	1.044495E-2	-8.892357E-4	-7.690755E-4	1.144008E-2	3.830236E-4	9.942247E-3	1.530208E-2	6.320511E-3	1.239759E-2	-4.657859E-3	2.099834E-3	1.594430E-3	1.169650E-2	8.113166E-3	8.262552E-3	8.222299E-3	1.956415E-2	8.076837E-3	8.774423E-3	6.699821E-3	4.129871E-3	1.181403E-2	7.717158E-3	-1.561976E-3	7.585031E-3	1.041873E-2	3.528789E-3	8.313959E-3	6.088130E-3	1.555331E-2	5.266467E-3	1.067915E-2	8.562247E-3	5.581259E-3	-4.996579E-5	7.576528E-3	8.486863E-3	6.791159E-3	5.657531E-3	3.912697E-3	-8.709146E-3	1.329349E-2	9.478275E-3	1.934074E-2	1.394936E-2	5.150508E-3	8.738178E-3	7.108652E-4	3.626245E-3	1.378614E-2	-2.171942E-3	8.277377E-3	1.528550E-2	3.881744E-3	9.937449E-3	7.476938E-3	1.024435E-2	3.306925E-3	1.468075E-2	8.391504E-3	1.063401E-2	3.589905E-3	1.039435E-3	-5.066094E-5	1.010578E-2	8.313624E-3	4.263348E-3	1.208521E-2	3.533752E-3	5.365892E-3	9.051855E-3	1.698971E-2	8.166861E-3	5.797741E-3	3.710325E-3	3.736625E-3	1.946568E-3	1.085156E-2	8.881506E-3	9.530795E-3	-2.417810E-3	5.950591E-3	7.987343E-3	1.039464E-2	9.965639E-3	5.003133E-3	8.947375E-3	1.122008E-2	7.140774E-3	5.736281E-3	1.031575E-4	-3.295308E-3	9.762409E-3	-3.818276E-4	1.724101E-2	2.851976E-3	-5.781028E-3	1.227140E-2	1.052706E-2	1.072169E-2	7.707924E-4	4.574092E-3	1.018832E-2	1.686559E-2	1.551007E-3	-3.498258E-3	1.114081E-2	1.299579E-2	1.032581E-2	5.697340E-3	7.116781E-3	7.887052E-3	2.274043E-3	9.883878E-3	5.920952E-3	7.070446E-3	2.271736E-3	4.590842E-3	2.146309E-3	1.237362E-2	-4.100858E-3	-2.041965E-3	9.107099E-3	4.576903E-3	5.842126E-3	1.020949E-2	1.219717E-2	5.550157E-3	1.002989E-2	6.631945E-3	3.836722E-3	6.040845E-3	3.110694E-3	8.643742E-3	8.021533E-3	1.094619E-2	5.834395E-3	-4.730189E-4	-7.740065E-4	2.157845E-2	3.846512E-3	7.146340E-3	5.473485E-3	6.972417E-3	5.027647E-3	8.794569E-3	6.808473E-3	8.967911E-3	6.653380E-3	8.839847E-4	1.667349E-2	7.427701E-3	2.935959E-3	2.267509E-4	9.787412E-3	1.349463E-2	1.915930E-2	4.628154E-3	5.213136E-3	7.448749E-3	1.346575E-2	2.219576E-2
5.330180E+2	2.899134E-2	9.706339E-3	2.424810E-2	1.778374E-2	1.131896E-2	8.388236E-3	1.726510E-2	3.066366E-2	1.741003E-2	1.842780E-2	1.686435E-2	2.527663E-2	1.822999E-2	6.348220E-3	1.555804E-2	2.296559E-2	3.674860E-2	1.142958E-2	1.201156E-2	6.698200E-3	1.441972E-2	7.758819E-3	1.321885E-2	1.301141E-2	1.509253E-2	1.184634E-2	1.176110E-2	2.117429E-2	9.961366E-3	1.374161E-2	1.626647E-2	1.156478E-2	1.352837E-2	9.078934E-3	1.829389E-2	1.413990E-2	2.071584E-2	2.694857E-2	2.560874E-2	1.452404E-2	1.327191E-2	2.149752E-2	1.354615E-2	7.131290E-3	6.272789E-3	1.277769E-2	2.176082E-2	1.321150E-2	1.544720E-2	7.554250E-3	2.195764E-3	8.851611E-3	2.232139E-2	2.037304E-2	1.784802E-2	8.974768E-3	2.143614E-2	1.172432E-2	2.017817E-2	1.141758E-2	2.725539E-2	2.055382E-2	1.919977E-2	1.389910E-2	1.558030E-2	2.488313E-2	7.575107E-3	1.717056E-2	9.334295E-3	1.767536E-2	6.174666E-3	8.835767E-3	1.339364E-2	7.852549E-3	1.369654E-2	2.436879E-2	1.917500E-2	4.007007E-3	1.430695E-2	1.772144E-2	1.097244E-2	7.634935E-3	2.094706E-2	2.253967E-2	1.444053E-2	9.643539E-3	1.514470E-2	1.808642E-2	1.782439E-2	2.602388E-2	1.966338E-2	1.574407E-2	1.825053E-2	1.319060E-2	1.368371E-2	1.702148E-2	1.948939E-2	2.538985E-2	1.542124E-2	1.942682E-2	2.770941E-2	2.322230E-2	2.545879E-2	2.403669E-2	2.051347E-2	8.271220E-3	1.159310E-2	2.090295E-2	2.750400E-2	1.616774E-2	1.142503E-2	2.058398E-2	3.098326E-2	1.193259E-2	1.808646E-2	1.860217E-2	1.471365E-2	1.897715E-2	1.205799E-2	1.346849E-2	1.474502E-2	1.068359E-2	1.903237E-2	1.900200E-2	2.946370E-2	1.519138E-2	1.312749E-2	1.787200E-2	1.856015E-2	1.256314E-2	9.901480E-3	1.885151E-2	1.482457E-2	7.637285E-3	1.407890E-2	1.861549E-2	4.778910E-3	1.496191E-2	5.449999E-3	2.266943E-2	1.823931E-2	1.189649E-2	1.869670E-2	5.527301E-4	2.293628E-2	1.343937E-2	1.144328E-2	2.075051E-2	1.289355E-2	1.937013E-2	9.781803E-3	5.794473E-3	1.362977E-2	1.599420E-2	8.363881E-3	1.535582E-2	2.166145E-2	1.866074E-2	1.013657E-2	2.373618E-2	9.350347E-3	1.324917E-2	2.524425E-2	1.864529E-2	1.517989E-2	6.933084E-3	4.521890E-3	1.279122E-2	1.667583E-2
5.331520E+2	1.695374E-2	2.907437E-2	2.181158E-2	2.161763E-2	1.549013E-2	2.490700E-2	1.431385E-2	2.386538E-2	3.294973E-2	2.491541E-2	2.525865E-2	2.151373E-2	1.976565E-2	3.097270E-2	3.047064E-2	2.008229E-2	9.094082E-3	4.255353E-2	2.546148E-2	1.989462E-2	1.581847E-2	3.132508E-2	2.041727E-2	2.282902E-2	2.178940E-2	1.498914E-2	1.585111E-2	2.535556E-2	2.046880E-2	2.110340E-2	2.663189E-2	1.064992E-2	2.066042E-2	1.525006E-2	1.048752E-2	1.839332E-2	1.817075E-2	1.654351E-2	8.727674E-3	1.071449E-2	1.147367E-2	2.060107E-2	2.306318E-2	2.648256E-2	2.738223E-2	3.278976E-5	2.653179E-2	1.850113E-2	1.421373E-2	1.101372E-2	2.639372E-2	3.154503E-2	1.913455E-2	9.539938E-3	2.852819E-2	2.507055E-2	2.280251E-2	1.810012E-2	1.984265E-2	1.243610E-2	1.818561E-2	1.833554E-2	2.106126E-2	1.925454E-2	2.584880E-2	1.238612E-2	3.522282E-2	1.658035E-2	3.985689E-2	1.032456E-2	3.337613E-2	2.382325E-2	2.883279E-2	2.966715E-2	2.128553E-2	2.146593E-2	2.490126E-2	2.437294E-2	1.223930E-2	2.278019E-2	1.468040E-2	1.533809E-2	1.601032E-2	1.926961E-2	7.636898E-3	1.102785E-2	2.318913E-2	3.380774E-2	2.977133E-2	2.335419E-2	2.672012E-2	1.610645E-2	1.706118E-2	2.294174E-3	2.341247E-2	1.536402E-2	1.050131E-2	2.272218E-2	1.553796E-2	3.135427E-2	1.355282E-2	1.345010E-2	2.391751E-2	2.244471E-2	1.999463E-2	1.672880E-2	1.387953E-2	2.351179E-2	1.862527E-2	1.164433E-2	1.919460E-2	2.497611E-2	3.307029E-2	2.060128E-2	2.161183E-2	2.210774E-2	2.372328E-2	2.637841E-2	1.349907E-2	1.096057E-2	8.996973E-3	2.476522E-2	7.283116E-3	4.179048E-2	1.589441E-2	2.946705E-2	2.604326E-2	1.251577E-2	2.139849E-2	2.730985E-2	2.690153E-2	2.828394E-2	1.438230E-2	1.598570E-2	2.841740E-2	2.978324E-2	1.816493E-2	1.986850E-2	2.451889E-2	1.556820E-2	2.012302E-2	2.507376E-2	1.939378E-2	1.513157E-2	1.893199E-2	1.674716E-2	1.154414E-2	2.862559E-2	3.435243E-2	2.299248E-2	2.191580E-2	2.871835E-2	2.914532E-2	1.068179E-2	3.194448E-2	2.259865E-2	9.098817E-3	1.400261E-2	2.883919E-2	2.090545E-2	3.301887E-2	1.933576E-2	2.537653E-2	3.567305E-2	2.478119E-2	1.146469E-2	2.491631E-2	2.323931E-2	2.831344E-2
5.333180E+2	3.495327E-2	3.143694E-2	3.331325E-2	3.521787E-2	1.439361E-2	3.508016E-2	1.794290E-2	1.580882E-2	4.364243E-2	3.205977E-2	1.481850E-2	2.551827E-2	2.289722E-2	2.596410E-2	2.732755E-2	1.957890E-2	2.662288E-2	2.471158E-2	3.176784E-2	3.023107E-2	3.442638E-2	4.267915E-2	3.368181E-2	2.115407E-2	2.324132E-2	4.057236E-2	2.504466E-2	2.895131E-2	2.450991E-2	2.312850E-2	3.885134E-2	1.932069E-2	2.621165E-2	2.755874E-2	2.910395E-2	2.526411E-2	3.306625E-2	2.408352E-2	2.153355E-2	3.176496E-2	3.014020E-2	3.342614E-2	3.459695E-2	2.878520E-2	2.347191E-2	2.854442E-2	2.615058E-2	2.499498E-2	3.394037E-2	2.177278E-2	2.855605E-2	2.658732E-2	3.253960E-2	2.238204E-2	2.605140E-2	2.520516E-2	3.173429E-2	4.036420E-2	3.905595E-2	3.430317E-2	3.361255E-2	2.675120E-2	2.178787E-2	2.873319E-2	3.209505E-2	2.641596E-2	2.157635E-2	2.503652E-2	3.100372E-2	3.823841E-2	1.897304E-2	3.693090E-2	3.697278E-2	3.267584E-2	3.353305E-2	2.536300E-2	2.129881E-2	2.254504E-2	2.282250E-2	1.239087E-2	2.565399E-2	2.173282E-2	2.633564E-2	3.003751E-2	2.335937E-2	1.684915E-2	3.883051E-2	3.328986E-2	2.295525E-2	3.501650E-2	3.201940E-2	2.970350E-2	3.563928E-2	2.449055E-2	2.668127E-2	2.894237E-2	-3.484346E-5	3.056660E-2	2.250617E-2	2.346652E-2	4.128674E-3	1.943173E-2	3.587229E-2	2.096614E-2	3.512900E-2	3.599295E-2	1.959869E-2	2.550834E-2	2.539854E-2	3.232052E-2	3.779061E-2	3.480468E-2	2.997280E-2	3.128599E-2	2.435477E-2	3.533973E-2	2.684999E-2	3.048117E-2	2.332580E-2	9.389796E-3	2.752341E-2	2.695110E-2	3.298458E-2	1.416110E-2	2.647869E-2	2.284704E-2	2.473821E-2	3.041347E-2	2.425628E-2	3.146478E-2	2.826383E-2	3.128735E-2	3.409820E-2	3.382174E-2	2.659785E-2	3.577364E-2	1.361877E-2	3.995794E-2	2.901031E-2	3.443540E-2	4.097938E-2	2.894133E-2	2.009392E-2	3.097914E-2	3.141747E-2	2.778508E-2	2.475331E-2	3.524587E-2	2.718105E-2	2.592099E-2	3.878005E-2	1.804652E-2	1.986178E-2	2.949326E-2	2.978368E-2	3.058177E-2	2.923815E-2	3.447057E-2	3.090121E-2	2.162700E-2	3.800281E-2	3.344795E-2	1.693951E-2	3.716504E-2	3.023184E-2	2.585839E-2	3.580322E-2	3.458006E-2	1.593184E-2
5.334580E+2	4.215498E-2	2.551802E-2	3.412139E-2	3.311715E-2	4.080614E-2	3.413672E-2	3.568534E-2	4.464352E-2	4.581455E-2	1.993541E-2	3.620187E-2	3.504984E-2	5.651748E-2	4.152232E-2	2.092475E-2	2.221633E-2	3.558436E-2	5.249994E-2	5.380614E-2	2.896123E-2	3.516272E-2	3.883972E-2	4.269345E-2	3.539142E-2	3.258409E-2	4.867686E-2	2.987380E-2	4.712528E-2	4.882434E-2	4.373005E-2	3.692564E-2	2.587867E-2	4.660012E-2	3.447723E-2	2.334080E-2	4.033281E-2	4.068842E-2	4.815935E-2	3.777982E-2	2.870167E-2	5.157182E-2	3.495204E-2	2.479216E-2	3.324243E-2	3.632231E-2	4.060740E-2	2.145035E-2	4.083102E-2	3.137917E-2	3.523548E-2	3.150684E-2	3.208518E-2	4.330532E-2	2.780875E-2	5.015718E-2	5.047278E-2	4.096533E-2	3.440900E-2	4.980762E-2	3.461121E-2	3.927435E-2	3.293810E-2	3.134904E-2	3.129661E-2	3.706394E-2	3.614309E-2	3.361807E-2	4.332748E-2	2.670203E-2	3.956284E-2	3.582914E-2	3.193978E-2	4.028158E-2	3.777166E-2	3.897400E-2	3.613696E-2	3.589512E-2	3.390290E-2	4.013956E-2	2.807805E-2	4.907083E-2	5.105483E-2	3.195421E-2	4.304198E-2	4.559527E-2	4.758263E-2	3.447003E-2	3.016997E-2	3.079236E-2	2.964649E-2	4.711758E-2	1.993588E-2	2.726479E-2	3.436870E-2	4.199358E-2	3.589624E-2	4.273737E-2	2.865880E-2	4.717414E-2	4.951832E-2	3.243807E-2	3.193414E-2	3.294816E-2	5.067711E-2	3.192432E-2	3.979242E-2	2.787703E-2	3.169358E-2	4.492758E-2	2.961507E-2	3.916538E-2	3.084879E-2	2.560214E-2	4.469758E-2	3.899907E-2	2.889803E-2	4.674377E-2	3.916325E-2	4.692865E-2	4.017756E-2	3.489753E-2	3.725186E-2	3.251079E-2	3.443341E-2	2.538380E-2	2.616137E-2	4.393062E-2	3.868224E-2	5.741545E-2	4.640011E-2	2.914690E-2	3.805153E-2	5.174949E-2	3.642556E-2	5.448286E-2	3.601034E-2	3.726266E-2	3.824464E-2	3.960130E-2	3.663400E-2	4.005774E-2	4.550622E-2	4.547252E-2	4.531801E-2	5.367526E-2	4.283613E-2	1.862881E-2	5.050937E-2	4.321774E-2	4.464466E-2	3.292818E-2	3.584405E-2	4.907331E-2	4.493709E-2	3.610509E-2	3.404333E-2	5.962401E-2	3.476007E-2	3.759393E-2	5.170611E-2	3.544075E-2	3.434732E-2	3.320517E-2	4.080051E-2	2.637098E-2	3.158817E-2	3.912145E-2	4.087556E-2	2.179083E-2
5.336030E+2	5.372537E-2	3.604476E-2	3.299897E-2	4.229462E-2	4.623396E-2	4.311793E-2	4.314364E-2	5.177229E-2	4.325556E-2	5.269073E-2	3.517836E-2	2.658899E-2	2.442375E-2	5.482930E-2	4.295262E-2	4.900028E-2	5.200021E-2	5.901297E-2	4.763584E-2	5.034348E-2	4.267604E-2	4.334620E-2	6.375017E-2	3.676448E-2	3.792462E-2	5.611388E-2	4.809932E-2	5.074426E-2	4.045616E-2	6.074583E-2	4.140345E-2	3.745558E-2	4.052993E-2	3.952615E-2	3.741826E-2	5.812685E-2	3.859112E-2	4.890471E-2	3.409737E-2	4.790309E-2	4.345902E-2	3.698443E-2	4.158516E-2	3.409013E-2	4.494239E-2	5.205429E-2	5.553504E-2	4.217650E-2	5.521282E-2	6.119606E-2	5.199539E-2	5.753920E-2	5.350142E-2	4.482193E-2	4.559006E-2	5.710286E-2	4.371604E-2	4.663309E-2	4.628452E-2	4.682641E-2	4.836525E-2	3.664708E-2	6.258522E-2	4.788277E-2	5.768985E-2	4.709624E-2	5.226420E-2	4.141346E-2	4.898359E-2	4.297781E-2	4.866289E-2	4.447663E-2	4.848051E-2	4.548245E-2	5.074510E-2	4.083899E-2	5.239960E-2	4.789243E-2	4.753448E-2	3.321394E-2	5.725203E-2	4.892005E-2	3.633648E-2	5.390723E-2	4.288101E-2	4.329997E-2	4.041543E-2	5.231687E-2	4.140667E-2	5.448634E-2	5.313948E-2	5.713139E-2	5.787798E-2	4.840157E-2	5.163842E-2	4.037032E-2	3.985207E-2	4.994925E-2	4.537986E-2	4.672865E-2	4.942051E-2	5.091355E-2	4.638670E-2	3.818395E-2	5.733241E-2	5.075066E-2	4.424203E-2	5.220523E-2	5.238018E-2	5.098993E-2	4.389229E-2	3.937809E-2	4.273670E-2	5.413778E-2	3.917457E-2	5.234272E-2	5.829438E-2	4.780517E-2	3.137899E-2	4.630871E-2	4.637928E-2	4.615007E-2	4.838527E-2	5.144240E-2	5.703671E-2	4.058564E-2	4.240097E-2	5.051556E-2	5.828456E-2	3.853143E-2	5.099189E-2	5.552661E-2	4.577458E-2	5.084391E-2	4.263549E-2	4.870054E-2	6.087065E-2	4.187306E-2	2.318147E-2	5.429227E-2	5.511925E-2	5.259160E-2	5.750150E-2	5.280688E-2	6.284082E-2	4.429837E-2	4.566459E-2	5.213706E-2	6.210193E-2	3.924481E-2	4.915866E-2	4.880338E-2	3.718540E-2	4.462697E-2	3.928621E-2	5.502418E-2	4.846928E-2	4.765968E-2	4.979610E-2	4.974044E-2	4.887092E-2	4.592974E-2	4.396607E-2	5.531202E-2	5.185243E-2	5.103119E-2	6.131567E-2	6.395233E-2	4.588736E-2
5.337740E+2	6.820508E-2	5.035221E-2	6.572855E-2	5.685946E-2	5.933096E-2	6.289685E-2	6.224664E-2	5.828451E-2	6.575258E-2	6.894573E-2	7.025180E-2	6.114246E-2	5.592318E-2	7.285933E-2	6.725975E-2	7.336513E-2	5.844180E-2	5.867318E-2	7.446360E-2	5.932682E-2	7.354276E-2	5.258557E-2	9.645025E-2	7.179845E-2	7.757808E-2	5.931179E-2	7.321335E-2	6.531706E-2	6.028175E-2	8.265500E-2	6.009145E-2	7.129958E-2	7.422111E-2	7.403557E-2	6.285945E-2	8.481593E-2	7.076271E-2	5.923620E-2	6.149159E-2	5.466773E-2	5.450642E-2	6.449432E-2	7.325618E-2	5.711967E-2	7.963564E-2	7.179350E-2	6.704273E-2	6.561221E-2	6.797586E-2	6.804356E-2	7.517038E-2	6.162536E-2	6.932230E-2	6.017897E-2	6.712581E-2	6.570592E-2	8.374677E-2	6.773795E-2	5.075998E-2	6.796267E-2	6.989531E-2	6.512623E-2	5.400035E-2	6.337759E-2	6.404923E-2	7.658269E-2	6.437678E-2	7.724783E-2	7.081191E-2	5.826212E-2	7.018847E-2	6.621273E-2	5.796916E-2	6.827046E-2	6.199164E-2	7.288522E-2	7.837876E-2	9.032145E-2	6.271598E-2	8.077633E-2	6.766825E-2	8.520882E-2	5.524883E-2	9.413977E-2	6.171735E-2	6.331116E-2	5.969476E-2	5.986108E-2	7.654444E-2	6.265653E-2	5.398816E-2	5.233828E-2	5.610933E-2	6.807132E-2	7.525021E-2	7.260636E-2	7.061170E-2	5.298106E-2	7.215218E-2	6.323572E-2	5.806545E-2	6.939963E-2	6.362385E-2	7.436657E-2	6.781062E-2	7.498674E-2	6.195203E-2	6.978652E-2	6.413231E-2	7.071873E-2	5.607397E-2	7.493582E-2	6.324491E-2	7.027742E-2	6.247677E-2	5.804982E-2	6.811847E-2	7.401719E-2	6.656130E-2	7.635450E-2	7.346003E-2	5.915263E-2	7.404006E-2	7.468588E-2	5.859329E-2	7.687455E-2	6.332985E-2	5.627875E-2	6.954860E-2	6.760023E-2	5.824456E-2	8.322557E-2	6.292489E-2	7.010663E-2	6.045604E-2	6.147130E-2	6.783245E-2	6.152580E-2	7.198511E-2	7.351367E-2	5.475624E-2	7.231175E-2	5.436425E-2	8.171364E-2	4.855360E-2	6.975033E-2	5.826984E-2	7.327498E-2	5.895023E-2	5.690919E-2	6.858727E-2	6.519235E-2	7.880469E-2	6.554777E-2	7.402920E-2	7.851517E-2	6.486217E-2	7.264135E-2	7.533418E-2	7.632000E-2	9.243582E-2	6.696317E-2	5.626344E-2	8.017404E-2	7.983883E-2	7.220156E-2	7.585624E-2	6.981433E-2	7.694060E-2
5.339090E+2	1.002070E-1	9.849007E-2	1.011579E-1	6.928832E-2	1.048139E-1	8.330463E-2	7.465156E-2	1.072927E-1	9.710033E-2	8.465909E-2	8.825881E-2	8.599638E-2	8.468014E-2	8.520447E-2	9.929853E-2	9.308848E-2	9.825862E-2	7.913512E-2	8.917322E-2	8.534300E-2	9.082904E-2	8.068024E-2	1.424963E-1	1.144405E-1	1.042301E-1	1.161072E-1	1.057876E-1	1.034313E-1	1.013492E-1	8.653191E-2	1.013954E-1	8.302302E-2	9.084317E-2	9.944443E-2	9.304392E-2	1.054757E-1	1.030516E-1	7.920062E-2	1.006564E-1	7.926041E-2	8.877362E-2	1.034991E-1	9.797300E-2	8.092036E-2	8.170155E-2	1.000059E-1	8.929842E-2	8.971680E-2	8.985491E-2	1.001404E-1	1.043382E-1	1.080209E-1	1.069677E-1	1.000960E-1	9.836579E-2	1.118660E-1	1.175655E-1	9.848488E-2	8.440788E-2	9.561543E-2	9.143117E-2	1.103753E-1	7.421872E-2	8.539302E-2	7.863788E-2	9.599128E-2	9.442595E-2	1.026957E-1	8.075500E-2	9.627290E-2	8.062914E-2	8.541689E-2	9.477648E-2	9.120840E-2	8.723894E-2	9.666505E-2	9.432423E-2	1.018257E-1	9.905793E-2	8.728800E-2	8.906478E-2	9.856854E-2	9.905539E-2	8.796495E-2	7.770758E-2	8.723012E-2	9.238166E-2	1.082464E-1	1.040953E-1	9.119546E-2	8.936415E-2	9.689289E-2	8.690620E-2	8.919412E-2	9.324670E-2	8.027948E-2	8.078970E-2	8.290306E-2	7.639233E-2	7.979698E-2	9.327112E-2	1.003483E-1	8.466129E-2	1.028999E-1	1.077737E-1	1.035231E-1	8.660208E-2	8.590802E-2	9.356694E-2	8.992342E-2	1.093907E-1	7.820925E-2	9.366548E-2	7.849785E-2	7.943704E-2	8.922817E-2	9.597403E-2	1.077078E-1	1.103876E-1	1.012077E-1	1.036315E-1	8.502477E-2	1.082866E-1	1.026364E-1	9.178064E-2	1.058357E-1	1.033892E-1	9.904946E-2	9.672451E-2	1.001357E-1	7.832845E-2	1.110196E-1	9.596766E-2	8.586726E-2	8.937024E-2	8.488547E-2	9.700403E-2	9.447998E-2	9.726325E-2	1.001248E-1	8.429367E-2	8.391782E-2	8.914175E-2	8.505399E-2	1.007236E-1	8.555131E-2	9.573926E-2	9.971840E-2	1.046860E-1	8.705552E-2	9.182345E-2	1.114520E-1	9.071024E-2	8.837677E-2	1.021175E-1	1.079123E-1	9.210921E-2	9.772877E-2	9.742681E-2	9.580213E-2	8.639911E-2	1.069283E-1	8.699743E-2	7.220001E-2	1.055716E-1	8.742606E-2	9.362949E-2	9.638757E-2	8.752952E-2
5.340640E+2	1.352393E-1	1.483643E-1	1.296350E-1	1.454651E-1	1.298290E-1	1.388431E-1	1.385833E-1	1.204667E-1	1.476346E-1	1.470275E-1	1.295434E-1	1.478403E-1	1.246192E-1	1.285816E-1	1.111934E-1	1.377134E-1	1.362133E-1	1.236035E-1	1.237837E-1	1.319845E-1	1.436658E-1	1.181062E-1	1.920255E-1	1.600795E-1	1.596874E-1	1.468402E-1	1.485502E-1	1.438583E-1	1.424131E-1	1.598841E-1	1.338869E-1	1.529400E-1	1.623157E-1	1.378535E-1	1.286465E-1	1.577244E-1	1.503673E-1	1.494930E-1	1.399662E-1	1.336679E-1	1.481830E-1	1.434721E-1	1.465267E-1	1.276872E-1	1.408351E-1	1.360359E-1	1.469217E-1	1.296948E-1	1.278418E-1	1.562344E-1	1.605061E-1	1.381509E-1	1.413889E-1	1.366530E-1	1.457770E-1	1.329006E-1	1.342208E-1	1.516331E-1	1.461350E-1	1.466846E-1	1.446426E-1	1.318991E-1	1.346240E-1	1.334642E-1	1.364790E-1	1.537519E-1	1.371975E-1	1.352403E-1	1.518116E-1	1.425487E-1	1.481222E-1	1.420523E-1	1.491286E-1	1.478410E-1	1.236562E-1	1.251010E-1	1.279972E-1	1.352284E-1	1.527921E-1	1.213575E-1	1.383178E-1	1.474693E-1	1.242248E-1	1.226382E-1	1.423036E-1	1.292146E-1	1.437783E-1	1.380233E-1	1.443813E-1	1.233869E-1	1.587996E-1	1.172232E-1	1.444588E-1	1.389944E-1	1.462266E-1	1.387029E-1	1.255238E-1	1.398751E-1	1.426615E-1	1.530165E-1	1.177300E-1	1.521326E-1	1.298190E-1	1.463984E-1	1.389549E-1	1.285468E-1	1.364321E-1	1.377334E-1	1.499261E-1	1.240382E-1	1.148791E-1	1.296353E-1	1.452436E-1	1.226939E-1	1.338520E-1	1.205242E-1	1.401959E-1	1.438073E-1	1.356991E-1	1.328095E-1	1.357062E-1	1.319723E-1	1.195798E-1	1.460875E-1	1.198226E-1	1.355305E-1	1.401363E-1	1.432153E-1	1.219328E-1	1.422439E-1	1.305974E-1	1.643373E-1	1.501291E-1	1.524938E-1	1.217364E-1	1.349557E-1	1.465224E-1	1.394169E-1	1.399982E-1	1.275788E-1	1.493225E-1	1.334694E-1	1.354155E-1	1.349681E-1	1.274078E-1	1.358705E-1	1.169856E-1	1.532039E-1	1.625928E-1	1.342962E-1	1.509815E-1	1.371312E-1	1.345860E-1	1.529040E-1	1.340435E-1	1.147875E-1	1.424303E-1	1.465604E-1	1.326193E-1	1.322074E-1	1.421297E-1	1.342209E-1	1.316045E-1	1.486099E-1	1.443759E-1	1.442110E-1	1.373727E-1	1.574089E-1	1.439954E-1
5.342040E+2	2.137628E-1	1.954504E-1	1.918682E-1	2.122991E-1	2.259977E-1	1.947022E-1	2.035005E-1	2.060351E-1	2.230658E-1	2.053145E-1	2.156381E-1	1.829702E-1	2.132749E-1	2.012722E-1	2.018828E-1	2.244817E-1	1.997682E-1	2.052187E-1	2.192963E-1	1.981847E-1	2.095937E-1	2.094286E-1	3.162211E-1	2.787668E-1	2.486334E-1	2.603135E-1	2.458883E-1	2.522580E-1	2.432741E-1	2.368411E-1	2.181143E-1	2.323846E-1	2.475682E-1	2.068422E-1	2.428604E-1	2.444580E-1	2.286055E-1	2.251387E-1	2.293368E-1	2.437512E-1	2.475103E-1	2.579563E-1	2.335932E-1	2.353924E-1	2.290825E-1	2.063686E-1	2.461409E-1	2.130572E-1	2.335512E-1	2.233267E-1	2.424201E-1	2.139887E-1	2.305586E-1	2.345314E-1	2.295707E-1	2.225650E-1	2.486323E-1	2.335638E-1	2.075715E-1	2.287903E-1	2.145741E-1	2.267721E-1	2.185021E-1	2.219172E-1	2.304590E-1	2.196373E-1	2.142423E-1	2.344162E-1	2.279563E-1	2.152559E-1	2.013475E-1	2.299885E-1	2.194597E-1	2.289500E-1	2.317379E-1	2.240086E-1	2.328177E-1	2.207251E-1	2.343162E-1	2.097228E-1	2.231296E-1	2.360895E-1	2.092748E-1	2.280786E-1	2.097079E-1	2.062749E-1	2.165716E-1	2.312663E-1	2.257887E-1	2.162968E-1	2.097442E-1	2.132358E-1	2.191437E-1	2.178533E-1	2.333684E-1	2.230173E-1	2.190312E-1	2.228548E-1	2.154111E-1	2.453889E-1	2.151870E-1	2.411518E-1	2.075396E-1	2.506505E-1	2.110804E-1	2.179827E-1	2.105912E-1	2.348240E-1	2.146790E-1	1.870281E-1	2.215386E-1	2.074352E-1	2.150353E-1	2.086674E-1	2.171452E-1	2.163968E-1	2.300606E-1	2.178775E-1	2.347026E-1	2.134769E-1	2.396478E-1	2.200345E-1	2.353463E-1	2.362800E-1	2.117522E-1	2.225683E-1	2.329367E-1	2.162955E-1	2.112918E-1	2.381535E-1	2.090283E-1	2.144412E-1	2.235269E-1	2.406304E-1	2.381550E-1	2.307076E-1	2.106532E-1	2.316230E-1	2.095422E-1	2.134418E-1	2.232849E-1	2.182684E-1	2.225320E-1	2.104931E-1	2.128601E-1	2.367655E-1	2.172723E-1	2.202791E-1	2.518793E-1	2.188520E-1	2.333024E-1	2.412861E-1	2.273298E-1	2.332829E-1	2.315418E-1	2.272744E-1	2.067139E-1	2.067748E-1	2.274333E-1	2.220692E-1	2.165699E-1	2.152808E-1	2.279064E-1	2.090276E-1	2.193350E-1	2.048323E-1	2.217445E-1	2.294426E-1	2.234956E-1
5.343600E+2	3.568991E-1	3.931446E-1	3.339970E-1	3.440146E-1	3.738484E-1	3.636448E-1	3.822674E-1	4.040534E-1	3.599446E-1	3.556749E-1	3.182810E-1	3.639390E-1	3.853499E-1	3.516200E-1	3.751403E-1	3.586018E-1	3.258131E-1	3.824771E-1	3.772688E-1	3.859370E-1	3.555477E-1	3.597940E-1	4.979748E-1	4.740328E-1	4.343575E-1	4.316863E-1	4.218851E-1	4.425303E-1	4.534507E-1	4.020772E-1	4.083680E-1	3.818466E-1	4.264794E-1	3.897634E-1	4.016797E-1	3.876380E-1	3.773321E-1	4.229909E-1	4.013256E-1	3.931422E-1	4.229126E-1	3.913324E-1	4.279166E-1	4.095122E-1	3.972814E-1	3.947956E-1	3.773557E-1	3.751190E-1	4.196121E-1	4.225857E-1	4.185074E-1	3.980928E-1	3.869168E-1	3.791560E-1	3.846303E-1	4.122206E-1	3.876780E-1	3.965028E-1	3.833307E-1	3.841799E-1	4.001572E-1	3.990228E-1	3.761094E-1	3.824199E-1	4.197734E-1	3.999882E-1	3.922105E-1	4.029609E-1	4.116468E-1	4.071882E-1	3.657324E-1	3.868844E-1	3.786817E-1	3.785004E-1	4.063152E-1	4.377081E-1	3.873461E-1	4.388046E-1	3.825747E-1	3.780599E-1	4.182739E-1	4.264195E-1	3.591344E-1	3.750764E-1	3.941982E-1	3.705618E-1	4.021850E-1	3.624336E-1	4.117144E-1	3.595291E-1	4.128770E-1	3.958926E-1	4.137714E-1	3.515472E-1	4.183020E-1	4.076420E-1	3.997995E-1	4.063843E-1	4.001918E-1	3.730926E-1	3.772318E-1	4.016962E-1	4.030468E-1	3.729085E-1	3.915642E-1	4.009770E-1	3.901235E-1	3.861946E-1	3.603680E-1	3.669248E-1	3.744672E-1	3.905826E-1	3.502743E-1	4.165318E-1	3.796010E-1	3.782306E-1	3.745020E-1	3.958808E-1	4.046072E-1	3.812135E-1	4.112769E-1	4.000278E-1	3.947878E-1	4.125290E-1	4.120348E-1	3.606305E-1	3.747263E-1	3.937174E-1	3.807837E-1	3.613014E-1	3.707996E-1	3.921591E-1	4.058197E-1	3.847575E-1	3.848579E-1	3.693116E-1	3.858900E-1	3.526893E-1	3.637138E-1	3.767765E-1	3.726179E-1	3.819021E-1	3.862405E-1	3.981884E-1	3.898105E-1	3.880916E-1	3.940316E-1	3.632323E-1	4.072149E-1	3.945049E-1	3.846647E-1	3.632197E-1	4.029868E-1	3.954622E-1	3.590494E-1	3.795220E-1	3.830696E-1	4.034830E-1	3.865440E-1	3.791734E-1	4.031713E-1	3.567371E-1	3.857486E-1	3.728457E-1	3.789555E-1	3.829908E-1	3.658177E-1	3.853796E-1	4.168413E-1
5.345050E+2	6.241441E-1	6.423076E-1	6.018279E-1	6.546118E-1	6.197330E-1	6.569471E-1	6.206008E-1	6.193704E-1	6.395558E-1	6.169877E-1	6.400398E-1	6.267759E-1	6.384763E-1	6.057948E-1	6.219410E-1	6.410032E-1	6.423913E-1	6.443480E-1	6.116559E-1	6.537365E-1	6.327524E-1	6.267872E-1	8.096078E-1	7.478910E-1	7.339182E-1	7.278426E-1	6.975408E-1	7.448357E-1	7.130939E-1	6.678294E-1	6.503937E-1	7.190367E-1	6.884588E-1	6.506525E-1	6.589970E-1	6.498503E-1	7.194630E-1	6.275623E-1	6.749046E-1	6.985531E-1	6.899690E-1	6.665942E-1	7.032679E-1	6.575519E-1	7.103525E-1	6.548108E-1	7.251401E-1	6.730604E-1	6.975189E-1	6.518194E-1	7.030945E-1	6.969917E-1	6.887710E-1	6.768522E-1	6.805382E-1	6.807044E-1	6.593705E-1	6.735588E-1	6.550719E-1	6.984210E-1	6.646874E-1	6.842281E-1	6.459754E-1	6.356170E-1	6.267350E-1	6.413253E-1	6.598054E-1	6.587415E-1	6.650684E-1	6.626015E-1	6.344946E-1	6.505297E-1	6.685981E-1	6.944874E-1	6.697970E-1	7.120567E-1	6.905077E-1	6.622674E-1	6.766959E-1	6.610780E-1	6.617424E-1	7.003144E-1	6.591384E-1	6.515785E-1	6.554709E-1	6.709995E-1	6.418942E-1	6.398663E-1	6.881174E-1	6.756852E-1	6.265343E-1	6.877096E-1	6.942645E-1	6.499233E-1	6.351916E-1	6.586387E-1	6.519314E-1	6.445511E-1	5.914911E-1	6.802386E-1	6.665489E-1	6.220114E-1	6.469640E-1	6.924473E-1	6.626879E-1	6.728884E-1	6.874224E-1	6.860783E-1	6.595886E-1	6.874838E-1	6.358863E-1	6.248322E-1	6.647412E-1	6.533365E-1	6.783435E-1	6.592749E-1	6.656839E-1	6.382698E-1	6.508962E-1	6.662994E-1	6.406288E-1	6.992637E-1	6.597145E-1	6.847571E-1	6.817757E-1	6.584958E-1	6.827510E-1	7.020153E-1	6.653912E-1	6.893579E-1	6.722972E-1	6.560563E-1	6.765691E-1	6.795983E-1	6.142479E-1	7.004443E-1	6.480677E-1	6.743950E-1	6.494072E-1	6.515238E-1	6.090106E-1	6.710735E-1	6.531833E-1	6.855961E-1	6.303928E-1	6.763158E-1	6.579605E-1	6.494597E-1	6.323465E-1	6.478140E-1	6.426131E-1	6.740303E-1	6.735292E-1	6.697837E-1	6.387964E-1	6.593421E-1	6.610130E-1	6.560436E-1	6.858983E-1	6.637653E-1	7.009177E-1	6.116226E-1	7.187688E-1	6.616578E-1	6.719623E-1	6.216029E-1	6.623313E-1	6.693153E-1	6.790426E-1
5.346560E+2	1.014269E+0	9.526315E-1	9.621666E-1	9.862333E-1	1.004755E+0	9.904575E-1	9.798549E-1	9.572360E-1	9.696608E-1	9.473293E-1	9.893166E-1	1.013711E+0	9.847737E-1	9.376103E-1	1.015260E+0	9.837664E-1	9.606967E-1	9.436755E-1	9.142815E-1	9.746198E-1	1.001666E+0	9.643979E-1	1.169538E+0	1.070922E+0	1.098905E+0	1.039004E+0	1.085828E+0	1.004495E+0	1.095214E+0	1.023109E+0	1.014038E+0	1.016168E+0	1.041743E+0	9.948171E-1	1.041519E+0	1.025750E+0	1.066910E+0	1.026081E+0	1.045701E+0	1.036451E+0	1.058216E+0	9.792836E-1	1.016775E+0	1.027510E+0	1.042704E+0	1.024507E+0	1.058404E+0	1.012824E+0	9.611396E-1	1.031474E+0	1.027366E+0	1.053837E+0	1.058082E+0	1.003261E+0	9.910794E-1	1.096684E+0	9.954261E-1	9.679434E-1	9.913169E-1	1.038354E+0	1.002643E+0	9.499809E-1	1.029605E+0	9.857101E-1	1.027267E+0	9.639016E-1	1.014627E+0	1.086800E+0	1.026005E+0	9.734450E-1	9.983940E-1	1.049239E+0	1.002106E+0	1.048066E+0	9.992722E-1	1.021706E+0	1.014285E+0	1.011198E+0	1.004308E+0	1.016259E+0	1.035063E+0	1.033427E+0	1.014545E+0	1.002728E+0	1.042801E+0	9.840373E-1	1.024791E+0	1.020837E+0	1.002703E+0	1.043507E+0	9.611532E-1	1.010727E+0	9.620338E-1	1.048489E+0	1.008935E+0	1.033318E+0	9.443404E-1	1.009262E+0	1.043074E+0	1.013797E+0	1.026382E+0	9.820787E-1	1.022185E+0	1.041451E+0	9.940699E-1	1.018073E+0	9.912599E-1	1.064820E+0	1.007147E+0	9.759809E-1	9.719914E-1	9.593179E-1	1.004689E+0	1.000296E+0	9.694407E-1	9.820546E-1	1.015933E+0	1.052152E+0	9.751003E-1	9.863143E-1	9.571841E-1	1.008089E+0	1.003943E+0	1.005112E+0	1.074894E+0	9.855893E-1	9.752761E-1	1.087279E+0	1.006627E+0	9.909761E-1	1.040734E+0	9.739604E-1	1.020102E+0	9.552276E-1	1.031868E+0	1.035760E+0	1.034735E+0	1.003268E+0	9.942284E-1	1.010591E+0	9.670341E-1	9.961418E-1	9.541534E-1	1.036187E+0	9.842014E-1	9.900452E-1	9.951285E-1	9.986931E-1	9.689245E-1	9.871716E-1	9.981816E-1	1.017819E+0	1.019492E+0	1.016525E+0	9.730870E-1	1.029040E+0	9.934260E-1	1.058583E+0	1.004526E+0	1.008008E+0	1.025573E+0	9.787554E-1	1.014781E+0	1.023199E+0	1.002917E+0	1.020908E+0	9.715299E-1	1.062311E+0	9.675343E-1
5.348020E+2	1.450537E+0	1.365158E+0	1.359106E+0	1.384879E+0	1.312179E+0	1.357924E+0	1.333065E+0	1.340407E+0	1.374479E+0	1.339927E+0	1.284202E+0	1.348228E+0	1.348153E+0	1.310417E+0	1.356548E+0	1.291034E+0	1.391634E+0	1.359083E+0	1.379453E+0	1.354700E+0	1.334466E+0	1.311075E+0	1.377561E+0	1.376909E+0	1.399472E+0	1.364480E+0	1.394948E+0	1.378400E+0	1.401343E+0	1.326838E+0	1.400360E+0	1.453729E+0	1.377044E+0	1.293510E+0	1.359234E+0	1.305487E+0	1.382095E+0	1.378007E+0	1.422431E+0	1.300159E+0	1.407069E+0	1.334605E+0	1.403259E+0	1.361152E+0	1.353371E+0	1.375417E+0	1.411019E+0	1.380166E+0	1.410738E+0	1.345456E+0	1.367421E+0	1.370795E+0	1.366186E+0	1.390625E+0	1.354418E+0	1.355266E+0	1.426857E+0	1.312323E+0	1.340320E+0	1.412897E+0	1.344997E+0	1.378981E+0	1.357994E+0	1.383183E+0	1.365623E+0	1.386799E+0	1.341822E+0	1.370255E+0	1.335113E+0	1.374331E+0	1.321227E+0	1.425285E+0	1.342422E+0	1.374876E+0	1.374420E+0	1.392563E+0	1.369725E+0	1.380416E+0	1.380449E+0	1.377182E+0	1.357817E+0	1.414032E+0	1.292499E+0	1.435455E+0	1.331286E+0	1.336042E+0	1.364104E+0	1.351668E+0	1.339919E+0	1.352269E+0	1.275198E+0	1.351456E+0	1.325985E+0	1.290456E+0	1.337824E+0	1.371247E+0	1.375164E+0	1.313127E+0	1.398619E+0	1.414866E+0	1.370206E+0	1.307826E+0	1.346063E+0	1.385967E+0	1.352496E+0	1.280403E+0	1.312085E+0	1.359995E+0	1.369275E+0	1.339143E+0	1.329832E+0	1.310034E+0	1.340922E+0	1.315769E+0	1.339990E+0	1.423404E+0	1.338803E+0	1.343156E+0	1.391634E+0	1.323106E+0	1.286343E+0	1.351580E+0	1.402128E+0	1.375109E+0	1.328135E+0	1.353542E+0	1.361194E+0	1.391209E+0	1.348686E+0	1.329445E+0	1.321148E+0	1.316832E+0	1.322279E+0	1.227312E+0	1.285810E+0	1.366017E+0	1.342040E+0	1.378962E+0	1.299302E+0	1.401010E+0	1.325856E+0	1.379698E+0	1.321075E+0	1.325283E+0	1.331823E+0	1.336231E+0	1.318671E+0	1.368240E+0	1.336926E+0	1.375095E+0	1.334561E+0	1.307511E+0	1.341944E+0	1.331113E+0	1.313748E+0	1.304695E+0	1.398743E+0	1.347286E+0	1.360223E+0	1.335757E+0	1.349915E+0	1.294314E+0	1.381148E+0	1.368455E+0	1.344449E+0	1.327695E+0	1.304221E+0	1.396952E+0	1.353446E+0
5.349580E+2	1.782316E+0	1.764340E+0	1.729059E+0	1.727247E+0	1.774677E+0	1.783889E+0	1.690326E+0	1.737305E+0	1.725091E+0	1.738250E+0	1.772612E+0	1.679505E+0	1.731859E+0	1.759872E+0	1.771432E+0	1.769858E+0	1.781659E+0	1.758834E+0	1.763289E+0	1.793584E+0	1.698251E+0	1.701673E+0	1.790917E+0	1.745047E+0	1.780804E+0	1.710161E+0	1.730981E+0	1.819405E+0	1.824853E+0	1.723714E+0	1.711177E+0	1.769914E+0	1.812627E+0	1.666505E+0	1.818221E+0	1.693708E+0	1.748871E+0	1.727946E+0	1.692028E+0	1.712044E+0	1.797656E+0	1.753921E+0	1.713485E+0	1.688174E+0	1.733062E+0	1.732717E+0	1.721763E+0	1.744473E+0	1.735294E+0	1.748331E+0	1.703951E+0	1.767876E+0	1.778427E+0	1.762792E+0	1.677110E+0	1.707073E+0	1.788897E+0	1.740434E+0	1.716780E+0	1.737967E+0	1.696240E+0	1.742930E+0	1.761752E+0	1.689433E+0	1.808250E+0	1.802181E+0	1.762879E+0	1.701793E+0	1.711452E+0	1.687072E+0	1.717095E+0	1.726902E+0	1.701654E+0	1.741004E+0	1.813232E+0	1.775661E+0	1.771256E+0	1.736975E+0	1.731308E+0	1.753028E+0	1.743794E+0	1.759327E+0	1.687086E+0	1.772122E+0	1.708437E+0	1.699615E+0	1.782856E+0	1.796125E+0	1.724209E+0	1.684834E+0	1.654648E+0	1.721363E+0	1.722730E+0	1.772968E+0	1.705276E+0	1.736991E+0	1.739431E+0	1.723132E+0	1.703683E+0	1.771133E+0	1.697780E+0	1.761033E+0	1.713302E+0	1.790764E+0	1.723277E+0	1.711449E+0	1.704658E+0	1.734739E+0	1.663270E+0	1.657482E+0	1.609781E+0	1.643199E+0	1.706854E+0	1.701707E+0	1.625502E+0	1.638306E+0	1.676263E+0	1.774729E+0	1.745182E+0	1.726888E+0	1.648536E+0	1.768166E+0	1.695196E+0	1.739492E+0	1.728576E+0	1.677467E+0	1.713524E+0	1.742151E+0	1.702215E+0	1.705027E+0	1.705027E+0	1.694909E+0	1.714086E+0	1.726220E+0	1.713106E+0	1.772171E+0	1.699811E+0	1.681672E+0	1.673231E+0	1.685680E+0	1.730494E+0	1.676424E+0	1.645845E+0	1.705915E+0	1.747227E+0	1.652924E+0	1.677353E+0	1.678156E+0	1.735625E+0	1.681804E+0	1.628311E+0	1.703553E+0	1.725116E+0	1.690941E+0	1.675889E+0	1.658322E+0	1.780951E+0	1.739958E+0	1.736702E+0	1.700279E+0	1.660929E+0	1.631583E+0	1.700647E+0	1.690575E+0	1.770070E+0	1.663784E+0	1.685768E+0	1.800545E+0	1.624280E+0
5.351090E+2	1.981563E+0	1.952450E+0	2.020921E+0	1.950551E+0	1.999022E+0	1.943207E+0	1.901077E+0	1.856434E+0	1.988046E+0	1.909195E+0	1.932021E+0	1.976267E+0	2.015489E+0	1.845597E+0	1.914619E+0	1.904583E+0	1.971176E+0	1.904147E+0	1.934817E+0	1.975452E+0	1.891443E+0	1.874250E+0	1.860145E+0	1.789989E+0	1.917362E+0	1.862085E+0	1.795942E+0	1.921808E+0	1.959582E+0	1.932015E+0	1.914799E+0	1.806206E+0	1.907804E+0	1.849612E+0	1.920667E+0	1.860356E+0	1.937170E+0	1.867683E+0	1.927462E+0	1.851876E+0	1.997504E+0	1.898841E+0	1.957613E+0	1.871590E+0	1.869145E+0	1.942232E+0	1.904786E+0	1.920207E+0	2.041045E+0	1.891580E+0	1.934758E+0	1.914646E+0	1.885572E+0	1.919411E+0	1.885456E+0	1.890164E+0	1.930011E+0	1.909290E+0	1.870143E+0	1.884865E+0	1.844449E+0	1.908570E+0	1.921559E+0	1.903548E+0	1.947375E+0	1.883488E+0	1.853865E+0	1.850160E+0	1.903639E+0	1.861894E+0	1.824560E+0	1.932107E+0	1.863142E+0	1.978371E+0	1.840505E+0	1.963983E+0	1.916880E+0	1.887202E+0	1.890251E+0	1.889538E+0	1.907109E+0	1.956816E+0	1.847041E+0	1.918937E+0	1.825505E+0	1.826729E+0	1.934625E+0	1.885879E+0	1.846660E+0	1.847681E+0	1.847388E+0	1.876910E+0	1.925728E+0	1.942974E+0	1.897717E+0	1.910345E+0	1.924010E+0	1.851933E+0	1.849215E+0	1.867594E+0	1.886461E+0	1.869967E+0	1.839558E+0	1.961459E+0	1.888361E+0	1.871950E+0	1.820610E+0	1.992646E+0	1.837587E+0	1.925615E+0	1.803121E+0	1.802633E+0	1.842302E+0	1.897606E+0	1.856116E+0	1.833329E+0	1.898804E+0	1.821211E+0	1.837231E+0	1.856513E+0	1.786192E+0	1.882415E+0	1.783622E+0	1.982028E+0	1.885928E+0	1.868448E+0	1.822730E+0	1.838905E+0	1.849597E+0	1.935646E+0	1.896802E+0	1.833657E+0	1.858086E+0	1.822856E+0	1.852367E+0	1.877781E+0	1.938626E+0	1.959329E+0	1.849730E+0	1.900741E+0	1.868611E+0	1.848569E+0	1.790123E+0	1.858359E+0	1.839685E+0	1.846259E+0	1.775794E+0	1.833262E+0	1.847771E+0	1.785460E+0	1.789766E+0	1.867638E+0	1.867777E+0	1.829974E+0	1.827897E+0	1.862680E+0	1.785854E+0	1.877479E+0	1.853491E+0	1.832999E+0	1.857284E+0	1.822409E+0	1.850860E+0	1.780541E+0	1.921329E+0	1.839891E+0	1.832538E+0	1.928389E+0	1.815768E+0
5.352550E+2	2.036284E+0	1.905983E+0	1.997564E+0	2.031530E+0	1.930053E+0	1.985646E+0	1.970836E+0	1.943215E+0	1.975098E+0	1.956610E+0	1.904336E+0	1.898590E+0	2.020005E+0	2.003300E+0	1.948810E+0	1.947934E+0	2.015796E+0	1.955169E+0	1.952851E+0	2.050431E+0	2.000041E+0	1.907814E+0	1.895123E+0	1.930912E+0	1.923833E+0	1.877157E+0	1.931653E+0	1.941464E+0	1.992124E+0	1.970462E+0	1.934704E+0	1.929548E+0	1.965102E+0	1.870709E+0	1.977757E+0	1.842124E+0	2.003670E+0	1.898433E+0	1.919660E+0	1.871702E+0	1.988166E+0	1.887039E+0	1.921423E+0	1.917165E+0	1.942133E+0	1.872330E+0	1.945842E+0	1.910175E+0	1.918698E+0	1.932047E+0	1.926931E+0	1.949474E+0	1.954037E+0	1.909084E+0	1.860653E+0	1.889499E+0	2.008596E+0	1.907178E+0	1.957692E+0	1.937765E+0	1.890235E+0	1.934697E+0	1.840003E+0	1.883966E+0	1.955816E+0	1.961184E+0	1.837687E+0	1.901269E+0	1.930877E+0	1.884521E+0	1.833810E+0	1.914468E+0	1.926034E+0	1.935104E+0	1.896649E+0	1.930814E+0	1.904493E+0	1.879830E+0	1.991866E+0	1.940024E+0	1.963374E+0	2.001312E+0	1.863483E+0	1.904800E+0	1.952290E+0	1.888279E+0	1.898310E+0	1.875055E+0	1.909055E+0	1.930111E+0	1.921877E+0	1.879428E+0	1.960574E+0	1.906579E+0	1.903787E+0	1.958476E+0	1.941107E+0	1.874025E+0	1.938148E+0	1.953519E+0	1.889509E+0	1.919315E+0	1.869105E+0	1.953409E+0	1.896418E+0	1.901480E+0	1.901438E+0	1.872417E+0	1.882805E+0	1.898211E+0	1.841085E+0	1.935112E+0	1.877246E+0	1.891123E+0	1.948833E+0	1.923544E+0	1.856136E+0	1.954997E+0	1.849378E+0	1.818606E+0	1.811363E+0	1.867633E+0	1.885127E+0	1.976420E+0	1.927231E+0	1.899359E+0	1.870799E+0	1.862575E+0	1.914653E+0	1.903257E+0	1.874975E+0	1.893623E+0	1.919819E+0	1.813577E+0	1.887783E+0	1.918339E+0	1.883090E+0	1.917298E+0	1.831438E+0	1.946072E+0	1.803663E+0	1.934170E+0	1.887608E+0	1.915279E+0	1.961099E+0	1.877204E+0	1.838778E+0	1.815910E+0	1.936933E+0	1.882513E+0	1.882958E+0	1.890042E+0	1.864834E+0	1.889322E+0	1.845610E+0	1.867076E+0	1.994214E+0	1.917426E+0	1.876092E+0	1.939883E+0	1.899725E+0	1.798559E+0	1.945417E+0	1.829962E+0	1.935913E+0	1.891695E+0	1.847620E+0	1.923965E+0	1.834465E+0
5.354060E+2	1.866603E+0	1.829099E+0	1.812298E+0	1.750072E+0	1.761656E+0	1.835060E+0	1.811247E+0	1.771443E+0	1.788946E+0	1.829837E+0	1.793531E+0	1.722560E+0	1.847594E+0	1.836260E+0	1.769923E+0	1.789703E+0	1.782639E+0	1.791822E+0	1.790649E+0	1.841686E+0	1.792196E+0	1.762853E+0	1.723016E+0	1.704954E+0	1.706447E+0	1.711875E+0	1.764609E+0	1.739452E+0	1.785042E+0	1.727821E+0	1.747403E+0	1.819599E+0	1.742015E+0	1.686843E+0	1.731008E+0	1.638478E+0	1.798015E+0	1.696830E+0	1.764362E+0	1.752534E+0	1.758817E+0	1.777513E+0	1.838496E+0	1.708319E+0	1.802115E+0	1.734107E+0	1.730363E+0	1.783392E+0	1.766264E+0	1.761493E+0	1.726639E+0	1.811850E+0	1.723272E+0	1.767855E+0	1.696116E+0	1.790719E+0	1.771555E+0	1.719446E+0	1.761058E+0	1.772321E+0	1.732757E+0	1.821848E+0	1.751798E+0	1.770660E+0	1.832315E+0	1.791864E+0	1.771571E+0	1.770768E+0	1.762629E+0	1.700071E+0	1.732301E+0	1.748867E+0	1.718194E+0	1.733155E+0	1.796060E+0	1.804898E+0	1.751459E+0	1.743616E+0	1.687023E+0	1.768403E+0	1.733879E+0	1.877539E+0	1.726904E+0	1.747679E+0	1.740189E+0	1.691645E+0	1.736407E+0	1.687535E+0	1.737262E+0	1.711594E+0	1.703732E+0	1.651621E+0	1.781593E+0	1.779077E+0	1.669024E+0	1.756285E+0	1.751991E+0	1.771844E+0	1.718042E+0	1.774474E+0	1.700613E+0	1.755006E+0	1.689043E+0	1.785469E+0	1.784397E+0	1.685955E+0	1.797119E+0	1.781920E+0	1.727295E+0	1.820093E+0	1.693162E+0	1.681692E+0	1.744770E+0	1.760946E+0	1.753425E+0	1.650784E+0	1.809563E+0	1.751954E+0	1.824799E+0	1.710605E+0	1.737224E+0	1.724151E+0	1.718475E+0	1.731046E+0	1.751852E+0	1.757615E+0	1.760154E+0	1.703695E+0	1.700421E+0	1.684181E+0	1.739420E+0	1.758698E+0	1.755042E+0	1.740749E+0	1.706401E+0	1.734172E+0	1.768905E+0	1.731532E+0	1.650300E+0	1.703711E+0	1.704012E+0	1.745819E+0	1.727651E+0	1.709161E+0	1.831732E+0	1.734077E+0	1.693089E+0	1.727212E+0	1.787222E+0	1.802105E+0	1.699064E+0	1.760627E+0	1.701866E+0	1.674472E+0	1.736674E+0	1.694858E+0	1.784831E+0	1.756549E+0	1.757576E+0	1.712941E+0	1.717093E+0	1.722702E+0	1.739529E+0	1.691313E+0	1.769895E+0	1.739434E+0	1.721709E+0	1.745958E+0	1.729672E+0
5.355630E+2	1.612330E+0	1.582321E+0	1.604624E+0	1.562072E+0	1.546903E+0	1.604174E+0	1.572110E+0	1.579882E+0	1.597682E+0	1.547485E+0	1.561161E+0	1.588132E+0	1.643787E+0	1.545144E+0	1.557019E+0	1.594988E+0	1.583340E+0	1.599385E+0	1.560206E+0	1.659017E+0	1.612702E+0	1.517732E+0	1.525748E+0	1.550348E+0	1.512735E+0	1.561647E+0	1.465953E+0	1.610116E+0	1.621850E+0	1.521451E+0	1.572973E+0	1.655743E+0	1.573294E+0	1.501243E+0	1.556181E+0	1.552184E+0	1.567080E+0	1.519416E+0	1.550726E+0	1.533653E+0	1.600449E+0	1.551903E+0	1.629115E+0	1.555525E+0	1.578314E+0	1.594630E+0	1.594631E+0	1.574729E+0	1.576421E+0	1.536859E+0	1.574524E+0	1.625475E+0	1.521856E+0	1.571544E+0	1.548996E+0	1.578333E+0	1.607972E+0	1.557351E+0	1.529585E+0	1.611181E+0	1.530207E+0	1.663087E+0	1.520775E+0	1.538478E+0	1.567484E+0	1.624874E+0	1.571183E+0	1.543291E+0	1.461415E+0	1.529847E+0	1.522152E+0	1.551703E+0	1.589443E+0	1.597350E+0	1.576944E+0	1.590603E+0	1.623838E+0	1.521010E+0	1.638324E+0	1.537111E+0	1.602158E+0	1.671994E+0	1.516984E+0	1.545569E+0	1.596056E+0	1.565032E+0	1.550241E+0	1.531403E+0	1.569416E+0	1.557944E+0	1.532611E+0	1.579462E+0	1.561440E+0	1.575042E+0	1.543891E+0	1.570524E+0	1.583077E+0	1.568253E+0	1.583725E+0	1.532068E+0	1.616900E+0	1.590338E+0	1.569186E+0	1.555028E+0	1.612628E+0	1.578312E+0	1.529100E+0	1.535759E+0	1.557445E+0	1.535043E+0	1.529446E+0	1.527180E+0	1.526456E+0	1.574061E+0	1.528432E+0	1.496243E+0	1.530758E+0	1.522897E+0	1.622261E+0	1.525142E+0	1.491051E+0	1.544352E+0	1.577288E+0	1.558538E+0	1.548692E+0	1.597088E+0	1.546215E+0	1.562943E+0	1.555095E+0	1.532064E+0	1.570545E+0	1.477559E+0	1.526935E+0	1.523842E+0	1.555976E+0	1.553418E+0	1.574629E+0	1.546029E+0	1.478036E+0	1.594173E+0	1.575418E+0	1.579486E+0	1.487124E+0	1.535463E+0	1.552846E+0	1.559013E+0	1.547469E+0	1.549152E+0	1.571531E+0	1.542326E+0	1.491043E+0	1.473980E+0	1.631426E+0	1.537927E+0	1.611800E+0	1.536035E+0	1.556579E+0	1.576464E+0	1.559863E+0	1.539587E+0	1.485889E+0	1.493346E+0	1.554908E+0	1.527410E+0	1.576648E+0	1.535774E+0	1.594676E+0	1.563380E+0	1.562165E+0
5.357140E+2	1.389971E+0	1.372145E+0	1.390583E+0	1.321228E+0	1.379407E+0	1.428997E+0	1.371213E+0	1.418231E+0	1.393437E+0	1.365665E+0	1.387001E+0	1.341320E+0	1.460353E+0	1.389446E+0	1.357062E+0	1.379708E+0	1.397391E+0	1.351236E+0	1.327416E+0	1.359307E+0	1.319806E+0	1.329445E+0	1.323200E+0	1.354317E+0	1.323466E+0	1.377336E+0	1.393452E+0	1.363286E+0	1.406738E+0	1.338905E+0	1.363972E+0	1.377804E+0	1.404233E+0	1.292181E+0	1.386050E+0	1.313329E+0	1.421335E+0	1.315344E+0	1.343613E+0	1.341481E+0	1.388497E+0	1.348335E+0	1.359372E+0	1.342842E+0	1.392798E+0	1.337907E+0	1.350678E+0	1.383397E+0	1.399755E+0	1.378072E+0	1.395318E+0	1.329808E+0	1.351250E+0	1.422364E+0	1.315341E+0	1.383976E+0	1.415584E+0	1.361963E+0	1.359354E+0	1.366247E+0	1.327931E+0	1.371202E+0	1.315447E+0	1.350592E+0	1.394145E+0	1.324426E+0	1.290105E+0	1.378145E+0	1.347158E+0	1.357158E+0	1.351774E+0	1.341943E+0	1.377197E+0	1.372486E+0	1.375272E+0	1.365679E+0	1.343157E+0	1.322387E+0	1.389095E+0	1.382330E+0	1.366250E+0	1.456547E+0	1.334091E+0	1.335287E+0	1.294718E+0	1.314195E+0	1.356053E+0	1.334349E+0	1.404537E+0	1.408101E+0	1.289858E+0	1.307965E+0	1.344510E+0	1.309397E+0	1.384187E+0	1.389594E+0	1.358333E+0	1.357918E+0	1.415374E+0	1.342897E+0	1.317035E+0	1.351356E+0	1.356308E+0	1.323431E+0	1.374647E+0	1.295920E+0	1.378312E+0	1.360102E+0	1.350774E+0	1.343015E+0	1.305844E+0	1.332023E+0	1.307011E+0	1.405231E+0	1.304199E+0	1.337487E+0	1.352502E+0	1.361349E+0	1.349705E+0	1.346347E+0	1.338745E+0	1.333727E+0	1.342839E+0	1.418293E+0	1.405963E+0	1.362677E+0	1.395215E+0	1.346939E+0	1.356292E+0	1.340274E+0	1.314397E+0	1.351246E+0	1.343452E+0	1.357783E+0	1.349836E+0	1.319125E+0	1.399520E+0	1.350163E+0	1.388105E+0	1.341978E+0	1.333100E+0	1.349326E+0	1.281412E+0	1.367025E+0	1.282493E+0	1.353633E+0	1.322365E+0	1.307921E+0	1.354819E+0	1.290768E+0	1.292562E+0	1.291546E+0	1.452058E+0	1.340692E+0	1.346357E+0	1.276966E+0	1.398682E+0	1.327608E+0	1.306846E+0	1.389741E+0	1.358665E+0	1.272025E+0	1.425835E+0	1.326291E+0	1.408366E+0	1.363173E+0	1.335137E+0	1.295541E+0	1.378301E+0
5.358600E+2	1.225751E+0	1.147395E+0	1.154313E+0	1.230505E+0	1.191383E+0	1.220040E+0	1.197728E+0	1.193841E+0	1.243523E+0	1.211903E+0	1.175531E+0	1.148916E+0	1.230887E+0	1.190780E+0	1.215367E+0	1.159805E+0	1.219772E+0	1.180868E+0	1.197019E+0	1.249929E+0	1.197076E+0	1.162096E+0	1.191595E+0	1.173252E+0	1.112959E+0	1.169182E+0	1.107256E+0	1.211625E+0	1.255912E+0	1.145077E+0	1.146095E+0	1.161609E+0	1.168074E+0	1.195755E+0	1.194493E+0	1.186510E+0	1.175667E+0	1.207139E+0	1.224701E+0	1.153238E+0	1.165488E+0	1.209288E+0	1.173918E+0	1.113408E+0	1.216676E+0	1.166321E+0	1.182675E+0	1.197333E+0	1.192179E+0	1.181034E+0	1.172826E+0	1.192184E+0	1.192425E+0	1.158819E+0	1.159859E+0	1.207853E+0	1.179461E+0	1.137887E+0	1.200374E+0	1.196811E+0	1.182577E+0	1.178559E+0	1.166089E+0	1.157354E+0	1.211353E+0	1.236895E+0	1.189695E+0	1.209983E+0	1.174116E+0	1.177327E+0	1.130100E+0	1.195562E+0	1.174243E+0	1.206757E+0	1.204430E+0	1.193196E+0	1.234664E+0	1.180601E+0	1.162790E+0	1.144758E+0	1.220303E+0	1.289816E+0	1.142810E+0	1.178420E+0	1.166887E+0	1.165040E+0	1.194972E+0	1.137896E+0	1.142709E+0	1.120903E+0	1.180099E+0	1.130309E+0	1.222917E+0	1.142706E+0	1.211290E+0	1.151414E+0	1.262776E+0	1.130574E+0	1.162628E+0	1.187137E+0	1.194467E+0	1.165369E+0	1.149400E+0	1.211798E+0	1.232388E+0	1.179799E+0	1.191123E+0	1.199899E+0	1.148087E+0	1.212779E+0	1.136572E+0	1.159727E+0	1.153557E+0	1.202816E+0	1.157053E+0	1.225355E+0	1.094654E+0	1.214061E+0	1.161036E+0	1.144405E+0	1.159968E+0	1.189444E+0	1.194737E+0	1.219882E+0	1.169770E+0	1.211802E+0	1.156476E+0	1.175038E+0	1.152256E+0	1.143415E+0	1.163892E+0	1.166689E+0	1.193008E+0	1.161265E+0	1.161962E+0	1.181733E+0	1.225609E+0	1.199127E+0	1.117502E+0	1.170192E+0	1.142939E+0	1.161532E+0	1.148308E+0	1.220691E+0	1.225290E+0	1.164553E+0	1.131098E+0	1.168905E+0	1.196580E+0	1.187209E+0	1.166293E+0	1.185503E+0	1.190690E+0	1.240657E+0	1.188845E+0	1.151170E+0	1.182422E+0	1.184289E+0	1.185195E+0	1.160836E+0	1.180957E+0	1.124065E+0	1.212248E+0	1.243095E+0	1.231607E+0	1.197808E+0	1.150093E+0	1.185208E+0	1.245834E+0
5.360120E+2	9.961645E-1	9.823839E-1	9.749605E-1	1.028419E+0	9.595121E-1	1.041257E+0	9.781503E-1	9.942279E-1	9.814418E-1	9.555967E-1	9.571613E-1	9.732207E-1	1.016491E+0	9.820919E-1	9.844735E-1	9.553418E-1	1.004754E+0	9.912211E-1	9.798401E-1	1.008615E+0	1.004489E+0	9.443159E-1	9.755597E-1	9.756462E-1	9.808509E-1	9.742453E-1	9.740300E-1	1.011542E+0	9.918068E-1	9.607299E-1	9.634518E-1	1.001118E+0	1.009619E+0	9.476259E-1	1.021301E+0	9.924804E-1	1.027736E+0	9.394967E-1	9.848281E-1	9.707749E-1	1.062134E+0	9.957295E-1	9.587177E-1	9.740325E-1	9.800358E-1	9.333118E-1	1.015660E+0	9.638017E-1	1.018295E+0	9.435220E-1	9.857973E-1	9.677953E-1	9.935574E-1	1.006074E+0	9.698931E-1	9.919366E-1	9.984059E-1	9.852841E-1	9.728228E-1	1.005817E+0	9.620573E-1	9.703734E-1	9.546712E-1	9.862135E-1	1.002902E+0	1.000472E+0	9.758361E-1	9.712830E-1	1.002518E+0	9.710391E-1	9.688277E-1	1.010316E+0	9.632334E-1	9.767319E-1	1.007513E+0	9.533600E-1	9.928506E-1	9.930750E-1	9.995473E-1	9.791839E-1	9.987094E-1	1.043021E+0	9.667648E-1	9.973127E-1	9.886870E-1	9.331525E-1	1.009005E+0	1.015036E+0	1.026812E+0	1.004062E+0	9.681747E-1	9.656070E-1	1.003188E+0	1.003602E+0	9.889137E-1	9.917616E-1	1.008920E+0	9.354777E-1	9.304340E-1	9.744987E-1	1.010526E+0	9.891979E-1	9.777311E-1	1.008940E+0	1.035549E+0	9.508382E-1	9.839576E-1	9.974803E-1	9.593066E-1	9.707657E-1	9.990289E-1	9.565042E-1	9.676850E-1	9.757379E-1	9.774891E-1	1.001597E+0	1.008831E+0	9.462284E-1	9.797500E-1	9.650888E-1	1.023333E+0	9.899578E-1	1.011025E+0	9.732190E-1	1.015646E+0	9.606965E-1	1.012183E+0	1.044522E+0	9.831331E-1	1.001993E+0	9.744800E-1	9.869657E-1	1.007281E+0	9.646135E-1	9.235872E-1	9.511144E-1	1.055039E+0	9.785532E-1	9.750442E-1	1.025742E+0	9.364211E-1	9.833584E-1	9.748090E-1	1.002103E+0	9.932692E-1	9.654367E-1	1.024562E+0	9.781303E-1	9.832522E-1	1.023075E+0	9.147257E-1	9.766719E-1	9.822522E-1	9.494956E-1	9.761482E-1	9.474632E-1	1.038229E+0	9.926749E-1	9.806599E-1	9.840399E-1	1.013064E+0	9.744007E-1	1.021578E+0	9.731478E-1	1.013651E+0	1.002932E+0	1.002028E+0	1.003843E+0	1.033792E+0
5.362630E+2	7.598511E-1	7.704931E-1	7.705724E-1	7.563931E-1	7.473864E-1	7.954891E-1	7.526943E-1	7.268374E-1	7.845473E-1	7.451594E-1	7.731101E-1	7.322474E-1	7.828967E-1	7.722298E-1	7.419715E-1	7.318513E-1	7.834379E-1	7.290222E-1	7.368659E-1	7.490308E-1	7.688387E-1	7.447252E-1	7.538562E-1	7.222493E-1	7.271327E-1	7.231972E-1	7.355388E-1	7.767465E-1	7.837762E-1	7.136075E-1	7.688123E-1	7.921538E-1	7.749477E-1	7.022569E-1	7.486517E-1	7.393890E-1	7.302542E-1	7.444101E-1	7.525741E-1	7.231639E-1	7.737907E-1	7.396348E-1	7.268103E-1	7.332167E-1	8.040008E-1	7.309713E-1	7.748456E-1	7.407592E-1	7.429062E-1	7.619009E-1	7.673799E-1	7.637316E-1	7.463002E-1	7.626443E-1	7.513440E-1	7.693777E-1	7.359700E-1	7.293857E-1	7.624327E-1	7.628085E-1	7.832296E-1	7.767114E-1	7.600257E-1	7.433115E-1	7.560734E-1	7.732040E-1	7.640802E-1	7.011377E-1	7.451884E-1	7.430582E-1	7.346228E-1	7.323521E-1	7.752398E-1	7.317280E-1	7.759028E-1	8.031246E-1	7.893053E-1	7.154874E-1	7.486653E-1	7.542785E-1	7.748036E-1	7.553451E-1	7.136292E-1	7.261752E-1	7.461153E-1	7.486288E-1	7.843455E-1	7.731930E-1	7.229048E-1	7.471913E-1	7.439407E-1	7.018158E-1	7.141748E-1	7.534328E-1	7.355881E-1	7.672409E-1	7.977778E-1	7.308656E-1	7.715635E-1	7.782807E-1	7.471230E-1	8.025083E-1	7.477889E-1	7.457082E-1	7.629763E-1	7.459389E-1	7.312546E-1	7.847179E-1	7.527109E-1	7.260202E-1	7.835251E-1	7.604405E-1	7.193652E-1	7.800521E-1	7.747801E-1	7.288185E-1	7.711451E-1	7.858210E-1	7.754997E-1	7.706649E-1	7.447526E-1	7.834636E-1	7.354862E-1	7.541775E-1	7.850214E-1	8.317626E-1	7.244956E-1	7.635169E-1	7.327327E-1	7.983363E-1	7.308200E-1	7.329042E-1	7.562642E-1	7.468482E-1	7.346121E-1	7.012726E-1	7.890553E-1	7.809728E-1	7.464869E-1	7.300577E-1	7.716360E-1	7.231563E-1	7.537169E-1	7.410697E-1	7.563319E-1	7.856785E-1	7.180031E-1	7.309908E-1	7.613387E-1	7.568669E-1	7.508941E-1	7.651428E-1	7.704241E-1	7.307426E-1	7.582978E-1	7.566776E-1	8.057984E-1	7.766632E-1	7.613319E-1	7.697660E-1	7.941427E-1	7.029369E-1	8.020926E-1	7.609278E-1	7.731215E-1	7.336501E-1	7.192763E-1	7.904106E-1	7.965793E-1
5.365040E+2	6.287621E-1	6.129715E-1	5.979794E-1	5.916589E-1	5.961745E-1	6.116174E-1	5.782968E-1	5.924520E-1	5.660111E-1	5.879454E-1	5.677774E-1	6.044954E-1	6.312274E-1	5.756157E-1	5.863661E-1	5.903718E-1	6.372506E-1	6.344352E-1	5.950341E-1	6.189508E-1	6.202004E-1	6.182335E-1	6.401215E-1	6.382118E-1	5.983991E-1	5.955506E-1	6.150326E-1	6.219662E-1	6.529163E-1	5.953773E-1	5.734746E-1	6.012025E-1	6.193074E-1	5.656026E-1	6.131530E-1	5.737934E-1	6.088364E-1	5.753770E-1	5.888580E-1	5.926273E-1	6.643461E-1	5.835685E-1	6.262750E-1	6.162512E-1	6.026006E-1	6.056435E-1	6.359720E-1	6.097128E-1	6.312922E-1	6.317253E-1	6.303484E-1	6.199975E-1	6.485813E-1	5.787400E-1	5.855452E-1	5.904788E-1	6.342173E-1	5.547185E-1	6.062978E-1	5.823852E-1	5.992411E-1	5.864935E-1	6.046383E-1	5.834812E-1	6.325338E-1	5.870731E-1	6.396661E-1	5.977405E-1	5.422311E-1	6.096879E-1	5.705179E-1	6.043217E-1	6.505305E-1	5.659273E-1	6.151046E-1	6.184660E-1	6.118363E-1	5.966308E-1	5.641411E-1	6.030600E-1	5.886336E-1	6.301262E-1	5.784035E-1	6.254560E-1	6.268520E-1	5.890617E-1	6.151990E-1	5.889653E-1	6.079331E-1	6.254279E-1	5.626008E-1	5.842487E-1	6.227527E-1	5.965565E-1	6.110962E-1	6.037061E-1	6.326179E-1	5.692951E-1	6.263967E-1	6.372997E-1	5.965072E-1	6.560344E-1	6.098400E-1	6.212613E-1	6.211335E-1	6.025993E-1	5.924635E-1	5.977831E-1	6.195951E-1	6.287905E-1	5.832019E-1	5.806821E-1	5.770273E-1	5.754266E-1	5.805992E-1	6.073283E-1	6.190017E-1	6.053089E-1	5.816186E-1	6.145816E-1	5.607019E-1	6.061896E-1	6.269205E-1	6.196943E-1	6.323883E-1	6.171598E-1	6.122866E-1	5.827153E-1	5.981570E-1	6.196902E-1	6.102770E-1	6.354749E-1	6.672638E-1	6.222534E-1	6.004197E-1	6.088142E-1	6.341405E-1	5.474799E-1	6.048650E-1	6.136621E-1	6.068660E-1	6.193563E-1	5.747025E-1	5.971874E-1	6.100266E-1	5.704462E-1	6.139068E-1	6.258758E-1	5.826497E-1	6.342749E-1	6.053928E-1	5.781736E-1	6.263073E-1	5.998397E-1	6.340080E-1	5.968467E-1	6.373791E-1	5.830938E-1	6.177217E-1	6.171276E-1	6.079671E-1	5.941689E-1	6.474775E-1	6.005576E-1	6.092479E-1	6.157661E-1	5.721081E-1	5.970895E-1	5.769861E-1
5.367810E+2	5.171509E-1	5.053613E-1	5.047602E-1	4.966878E-1	5.474597E-1	5.313729E-1	4.974257E-1	5.106941E-1	5.345786E-1	5.259176E-1	5.143434E-1	4.693654E-1	5.557631E-1	5.464639E-1	5.026795E-1	5.284905E-1	5.147026E-1	4.981557E-1	5.451429E-1	5.451254E-1	5.209856E-1	4.803824E-1	5.407686E-1	5.724263E-1	5.206236E-1	5.492752E-1	5.236982E-1	5.754209E-1	5.216845E-1	5.411667E-1	5.312052E-1	5.412456E-1	5.455762E-1	5.314420E-1	5.185116E-1	5.052745E-1	5.121504E-1	4.717108E-1	5.335696E-1	4.965947E-1	5.288756E-1	5.364728E-1	5.177923E-1	4.971373E-1	4.929062E-1	5.021113E-1	5.677457E-1	5.450122E-1	4.852811E-1	5.435954E-1	5.343163E-1	5.163682E-1	5.180080E-1	5.260624E-1	4.802361E-1	5.204009E-1	5.314167E-1	5.160363E-1	5.372541E-1	4.915306E-1	5.169988E-1	5.552875E-1	5.423304E-1	5.274099E-1	5.432074E-1	5.031400E-1	5.431168E-1	5.086243E-1	5.350477E-1	5.118179E-1	4.877544E-1	5.073997E-1	5.021700E-1	5.114070E-1	5.335298E-1	5.078311E-1	5.284855E-1	5.143264E-1	5.295965E-1	4.951806E-1	5.229397E-1	5.243635E-1	5.042833E-1	5.163632E-1	4.842881E-1	4.920175E-1	5.086935E-1	5.398245E-1	5.344791E-1	4.772808E-1	5.278947E-1	5.175402E-1	5.177342E-1	5.025257E-1	4.966829E-1	5.211006E-1	5.618297E-1	5.249773E-1	5.110890E-1	5.038128E-1	5.263035E-1	5.206709E-1	4.918946E-1	5.120562E-1	5.032623E-1	4.831823E-1	5.126938E-1	5.030490E-1	5.203836E-1	5.226416E-1	5.132848E-1	5.058138E-1	5.099812E-1	5.359471E-1	5.217893E-1	5.135653E-1	5.367962E-1	5.472429E-1	5.405971E-1	5.375997E-1	4.918134E-1	5.710371E-1	5.010041E-1	5.204847E-1	5.039281E-1	5.318501E-1	5.476984E-1	5.071403E-1	5.305136E-1	5.443093E-1	5.245636E-1	5.440062E-1	5.467467E-1	5.251434E-1	5.192101E-1	5.344759E-1	5.233030E-1	5.399668E-1	5.175588E-1	5.394446E-1	5.010990E-1	5.355934E-1	5.147208E-1	5.393187E-1	4.972682E-1	5.272512E-1	4.994113E-1	5.178699E-1	5.370123E-1	5.277906E-1	4.794114E-1	5.054740E-1	5.276168E-1	4.907966E-1	5.305864E-1	5.030516E-1	5.157814E-1	5.246558E-1	5.614111E-1	5.143610E-1	5.254384E-1	5.200728E-1	5.422106E-1	5.338324E-1	5.527328E-1	5.223761E-1	4.996817E-1	5.629152E-1	5.446055E-1
5.370070E+2	5.032752E-1	5.256356E-1	4.553106E-1	4.927101E-1	5.098854E-1	5.085998E-1	4.952015E-1	4.549523E-1	5.171372E-1	4.716500E-1	5.015655E-1	5.126195E-1	5.173740E-1	4.663779E-1	5.013453E-1	5.141315E-1	4.805786E-1	4.786384E-1	4.825673E-1	4.963039E-1	4.931318E-1	4.797497E-1	5.341331E-1	5.261441E-1	5.174489E-1	5.033440E-1	5.111877E-1	5.506121E-1	4.915558E-1	4.831244E-1	5.068543E-1	5.145669E-1	4.975731E-1	4.262053E-1	5.037495E-1	4.859189E-1	5.087063E-1	5.180043E-1	4.931895E-1	4.560878E-1	5.541574E-1	5.060691E-1	5.284420E-1	5.271951E-1	4.959610E-1	4.513163E-1	4.840562E-1	5.035836E-1	4.957604E-1	5.269780E-1	5.103125E-1	4.829738E-1	5.257231E-1	4.939872E-1	4.692036E-1	4.484803E-1	5.292994E-1	5.216473E-1	5.249052E-1	4.742630E-1	4.888114E-1	4.747921E-1	5.129739E-1	4.844340E-1	5.280404E-1	5.122884E-1	4.927855E-1	4.936548E-1	5.019313E-1	5.142463E-1	5.144631E-1	4.908336E-1	5.560178E-1	5.090557E-1	5.287946E-1	5.051465E-1	5.105808E-1	5.512567E-1	5.095074E-1	4.988611E-1	4.762110E-1	5.255413E-1	4.671708E-1	5.068488E-1	4.909836E-1	5.004896E-1	4.755522E-1	4.939741E-1	4.667591E-1	5.056102E-1	4.755985E-1	4.959166E-1	4.686358E-1	4.913525E-1	5.156529E-1	4.993704E-1	4.853138E-1	5.129792E-1	5.067101E-1	4.616775E-1	4.981107E-1	4.912083E-1	4.853466E-1	4.919515E-1	5.108640E-1	5.244123E-1	4.865577E-1	5.208157E-1	4.961133E-1	4.839115E-1	5.169219E-1	4.858863E-1	5.029542E-1	4.847708E-1	4.896108E-1	4.534532E-1	4.874678E-1	4.966500E-1	5.088793E-1	5.038927E-1	4.898612E-1	5.050404E-1	4.782450E-1	5.317045E-1	5.462133E-1	5.059364E-1	5.358145E-1	5.354888E-1	5.331330E-1	5.337497E-1	5.244003E-1	4.704187E-1	5.250448E-1	4.985819E-1	5.164964E-1	4.897315E-1	5.690479E-1	5.159848E-1	5.061216E-1	5.093812E-1	5.154796E-1	4.955615E-1	4.593145E-1	4.918152E-1	5.533231E-1	5.156322E-1	5.013140E-1	5.034217E-1	5.204408E-1	5.109359E-1	5.091512E-1	4.938530E-1	5.022012E-1	4.924231E-1	5.155704E-1	4.842646E-1	5.465806E-1	5.253621E-1	5.324475E-1	4.999647E-1	5.586029E-1	5.050740E-1	4.895172E-1	5.236627E-1	4.954124E-1	5.178131E-1	5.184287E-1	5.041107E-1	5.614523E-1
5.372690E+2	5.420026E-1	5.048364E-1	5.046459E-1	5.192996E-1	5.164509E-1	5.392283E-1	5.145678E-1	5.158083E-1	5.128757E-1	5.275016E-1	5.308927E-1	5.207652E-1	5.183837E-1	5.383092E-1	5.185880E-1	5.142713E-1	5.158891E-1	5.406250E-1	5.070530E-1	5.536200E-1	5.040620E-1	5.223486E-1	5.438331E-1	5.354123E-1	5.328422E-1	5.440680E-1	5.549714E-1	5.797661E-1	5.346951E-1	5.096500E-1	5.376160E-1	5.870462E-1	5.393987E-1	5.372171E-1	5.246226E-1	5.343323E-1	5.377292E-1	5.271237E-1	5.430198E-1	5.428781E-1	5.486077E-1	5.266749E-1	5.449196E-1	5.057544E-1	5.236065E-1	5.357795E-1	5.403292E-1	5.352363E-1	5.141199E-1	5.456549E-1	5.569095E-1	5.614761E-1	5.319114E-1	5.576836E-1	5.321251E-1	5.389808E-1	5.063102E-1	5.287680E-1	5.454752E-1	5.279912E-1	5.224147E-1	5.318449E-1	5.379806E-1	5.020695E-1	5.475770E-1	5.418967E-1	5.219076E-1	5.142263E-1	5.434622E-1	5.205343E-1	4.960311E-1	5.348571E-1	5.272402E-1	5.647842E-1	5.481225E-1	5.486548E-1	5.651199E-1	5.263261E-1	5.773540E-1	5.296975E-1	5.586044E-1	5.640546E-1	5.450966E-1	5.340510E-1	5.250814E-1	5.415880E-1	5.461965E-1	5.255964E-1	5.736986E-1	5.044871E-1	5.430210E-1	5.354483E-1	5.491024E-1	5.429849E-1	5.067883E-1	5.723821E-1	5.485043E-1	4.950145E-1	5.223357E-1	5.025062E-1	5.516210E-1	5.583022E-1	5.305870E-1	5.572299E-1	5.501436E-1	5.343750E-1	5.399724E-1	5.571812E-1	5.413180E-1	5.368649E-1	5.258740E-1	5.228015E-1	5.088936E-1	5.114816E-1	5.275653E-1	5.279566E-1	5.242796E-1	5.546534E-1	5.544481E-1	4.935980E-1	5.526727E-1	5.685277E-1	5.376197E-1	5.429240E-1	5.591449E-1	5.461079E-1	5.196349E-1	4.979293E-1	5.185011E-1	5.581071E-1	5.529868E-1	4.722148E-1	5.370024E-1	5.371217E-1	5.431492E-1	5.427620E-1	5.200107E-1	5.671958E-1	5.354048E-1	5.285829E-1	5.343588E-1	5.335569E-1	5.315248E-1	5.549302E-1	5.097051E-1	5.452259E-1	4.895335E-1	5.379378E-1	5.223079E-1	5.307274E-1	5.300377E-1	5.139651E-1	5.614395E-1	5.369416E-1	5.329715E-1	5.104753E-1	5.393504E-1	5.257557E-1	5.879342E-1	5.443004E-1	5.445293E-1	5.203411E-1	5.761931E-1	5.141666E-1	5.194885E-1	5.110004E-1	5.398336E-1	5.632208E-1	5.891177E-1
5.375060E+2	5.802420E-1	5.646797E-1	5.368187E-1	5.990828E-1	5.456865E-1	6.020623E-1	5.512798E-1	5.716113E-1	5.581935E-1	5.710511E-1	5.760246E-1	5.591653E-1	5.643151E-1	5.749832E-1	5.840153E-1	5.445420E-1	5.282068E-1	5.676562E-1	5.500227E-1	5.630567E-1	5.429961E-1	5.629006E-1	5.830890E-1	5.815010E-1	5.725824E-1	6.027939E-1	5.720089E-1	5.990160E-1	5.759105E-1	5.465197E-1	5.749213E-1	5.838421E-1	5.543109E-1	5.884551E-1	5.709538E-1	5.590407E-1	5.450468E-1	5.636392E-1	5.931385E-1	5.694546E-1	5.795591E-1	5.839880E-1	6.310400E-1	5.863604E-1	5.334746E-1	5.497427E-1	5.804532E-1	5.778413E-1	5.915830E-1	5.930627E-1	5.858754E-1	5.921232E-1	5.583387E-1	5.718124E-1	5.742201E-1	5.627663E-1	5.373129E-1	5.550722E-1	5.685748E-1	5.648843E-1	5.673934E-1	5.465759E-1	5.447309E-1	5.488321E-1	5.815776E-1	5.676068E-1	5.788656E-1	5.469186E-1	5.660270E-1	5.709025E-1	5.382403E-1	5.887131E-1	6.053572E-1	5.956873E-1	5.859736E-1	5.799981E-1	5.848721E-1	5.688292E-1	6.054602E-1	5.720491E-1	5.306435E-1	5.795215E-1	5.298415E-1	5.963185E-1	5.446104E-1	5.561517E-1	5.462702E-1	5.646912E-1	5.358608E-1	6.051321E-1	5.285355E-1	5.689852E-1	6.082342E-1	5.383328E-1	5.732952E-1	5.706903E-1	5.711503E-1	5.519570E-1	5.886955E-1	5.934226E-1	5.895468E-1	5.689289E-1	5.687445E-1	5.848570E-1	5.844569E-1	5.752331E-1	6.152367E-1	6.012807E-1	5.437442E-1	6.061157E-1	5.712200E-1	5.812119E-1	5.511251E-1	5.783815E-1	5.877862E-1	5.807569E-1	5.675273E-1	6.051755E-1	5.705528E-1	5.432692E-1	5.350888E-1	6.251907E-1	5.971031E-1	5.533292E-1	6.369413E-1	5.902288E-1	6.198254E-1	5.802043E-1	5.498523E-1	5.627773E-1	5.662074E-1	5.490578E-1	5.050006E-1	5.495138E-1	5.588025E-1	5.763111E-1	5.735190E-1	5.791756E-1	5.948398E-1	5.452669E-1	5.285590E-1	5.814663E-1	5.523334E-1	5.714944E-1	5.877397E-1	5.816248E-1	5.614688E-1	5.495972E-1	5.755524E-1	5.734177E-1	5.514703E-1	5.434272E-1	5.855207E-1	5.490363E-1	5.593653E-1	5.523509E-1	5.675213E-1	5.758216E-1	5.688965E-1	5.671639E-1	6.203251E-1	5.593485E-1	5.519097E-1	5.628655E-1	5.938559E-1	5.953963E-1	5.772790E-1	5.920202E-1	5.950885E-1
5.377690E+2	6.547561E-1	6.583739E-1	6.226561E-1	6.426391E-1	6.349604E-1	6.528330E-1	6.731961E-1	6.996671E-1	6.456185E-1	6.684747E-1	6.495746E-1	6.553428E-1	6.340147E-1	6.779121E-1	6.802351E-1	6.593196E-1	6.735008E-1	6.485196E-1	6.813276E-1	6.919176E-1	6.245423E-1	6.768593E-1	6.706964E-1	6.497793E-1	6.374102E-1	6.806230E-1	7.220090E-1	7.014209E-1	6.762752E-1	6.861265E-1	6.538263E-1	6.851048E-1	6.352201E-1	6.650057E-1	6.621576E-1	6.605297E-1	7.089461E-1	6.356183E-1	6.787545E-1	6.481127E-1	6.541342E-1	6.667707E-1	6.764827E-1	6.526224E-1	6.510781E-1	6.640129E-1	6.940023E-1	6.588935E-1	7.079402E-1	6.876670E-1	6.983517E-1	6.983962E-1	6.721955E-1	6.604224E-1	6.920562E-1	6.584725E-1	6.422210E-1	6.671502E-1	6.828684E-1	6.684674E-1	6.602246E-1	6.333610E-1	6.447172E-1	6.861148E-1	6.797602E-1	6.791277E-1	6.720689E-1	6.866089E-1	6.707073E-1	6.720400E-1	6.588015E-1	7.133920E-1	6.925541E-1	7.029619E-1	6.769127E-1	7.059709E-1	7.102384E-1	6.903852E-1	6.378439E-1	6.668462E-1	7.006403E-1	6.750741E-1	6.720441E-1	6.392996E-1	6.937926E-1	6.746916E-1	6.598802E-1	6.663914E-1	6.456104E-1	6.479337E-1	6.718308E-1	6.449607E-1	6.800383E-1	6.976597E-1	6.319821E-1	6.822360E-1	6.631060E-1	6.466003E-1	6.703147E-1	7.076234E-1	6.369492E-1	6.928284E-1	6.743407E-1	6.758040E-1	6.722499E-1	6.812884E-1	6.730965E-1	7.206046E-1	6.314316E-1	6.434730E-1	6.401108E-1	6.530730E-1	6.414861E-1	6.781187E-1	6.757056E-1	6.661006E-1	6.826520E-1	6.553784E-1	6.657261E-1	6.515914E-1	6.878780E-1	6.714157E-1	6.568757E-1	6.800722E-1	6.969265E-1	7.148217E-1	6.671962E-1	6.926355E-1	6.642388E-1	6.778016E-1	7.133842E-1	6.824022E-1	7.032322E-1	6.445079E-1	6.708356E-1	6.730738E-1	6.855603E-1	6.974161E-1	6.652135E-1	6.632575E-1	6.547672E-1	6.691602E-1	6.475764E-1	6.826510E-1	7.016737E-1	7.015217E-1	6.343305E-1	6.749272E-1	6.819779E-1	7.048164E-1	6.371436E-1	6.443191E-1	7.104926E-1	6.645734E-1	7.070995E-1	7.035527E-1	7.423241E-1	6.930014E-1	6.686234E-1	6.575167E-1	6.971845E-1	6.858314E-1	6.746551E-1	6.536745E-1	6.767087E-1	7.044598E-1	6.957157E-1	7.147969E-1	6.814813E-1
5.380270E+2	7.826726E-1	7.596210E-1	7.924921E-1	7.391853E-1	7.476028E-1	7.482192E-1	7.590447E-1	7.661884E-1	7.692887E-1	7.555376E-1	7.549785E-1	7.722559E-1	7.433527E-1	7.870809E-1	7.391292E-1	7.456120E-1	7.819465E-1	7.577212E-1	7.383522E-1	7.994401E-1	7.223869E-1	7.788387E-1	7.959112E-1	8.000976E-1	7.639596E-1	7.843365E-1	7.738734E-1	7.988189E-1	7.892486E-1	8.004651E-1	8.298098E-1	8.055692E-1	7.734006E-1	7.509473E-1	7.965126E-1	7.294383E-1	7.525751E-1	7.559019E-1	7.876388E-1	7.491750E-1	7.506638E-1	7.836963E-1	7.559882E-1	7.684430E-1	7.630185E-1	7.426402E-1	7.609525E-1	8.040612E-1	7.625569E-1	8.030876E-1	7.758805E-1	8.092907E-1	8.118330E-1	7.631831E-1	7.413356E-1	7.848448E-1	8.093395E-1	7.812116E-1	7.999291E-1	7.991251E-1	7.792905E-1	8.329766E-1	7.654749E-1	7.603649E-1	7.531804E-1	7.652478E-1	7.753376E-1	7.666140E-1	7.758113E-1	7.498559E-1	7.416939E-1	7.919640E-1	7.477275E-1	7.454539E-1	7.821772E-1	7.599718E-1	8.168788E-1	8.055218E-1	7.845293E-1	7.981709E-1	7.522249E-1	8.052960E-1	7.354224E-1	7.781282E-1	7.422833E-1	7.839182E-1	7.985968E-1	7.552129E-1	7.158508E-1	7.875248E-1	7.701868E-1	7.591096E-1	8.337474E-1	7.852601E-1	7.836925E-1	7.960110E-1	7.962525E-1	7.983767E-1	7.936980E-1	7.763127E-1	7.710350E-1	8.061806E-1	7.927700E-1	7.984673E-1	7.903148E-1	7.639038E-1	7.859916E-1	7.794745E-1	7.877749E-1	8.003889E-1	7.537851E-1	7.316645E-1	7.653260E-1	8.034532E-1	7.727589E-1	7.511846E-1	7.862521E-1	8.119516E-1	7.822498E-1	7.829872E-1	7.616782E-1	7.936737E-1	7.564838E-1	7.520054E-1	8.030718E-1	8.099140E-1	7.632719E-1	7.749493E-1	8.088512E-1	7.771085E-1	7.524628E-1	7.845673E-1	7.758674E-1	7.450130E-1	7.304660E-1	7.861479E-1	7.767415E-1	8.104847E-1	7.770372E-1	7.754907E-1	7.270190E-1	7.678258E-1	7.724288E-1	8.077456E-1	7.752207E-1	7.982343E-1	7.760703E-1	7.672077E-1	7.780262E-1	7.903546E-1	7.528335E-1	7.746768E-1	7.927227E-1	7.568144E-1	8.262116E-1	8.000619E-1	7.752479E-1	7.895657E-1	7.743058E-1	7.646173E-1	7.788183E-1	7.620982E-1	8.116125E-1	7.689243E-1	8.381945E-1	7.684922E-1	7.682352E-1	8.035434E-1	8.395728E-1
5.382690E+2	9.541299E-1	9.875202E-1	8.914961E-1	9.206007E-1	8.404009E-1	9.424245E-1	9.120666E-1	9.521117E-1	9.143004E-1	9.508679E-1	9.296484E-1	8.967070E-1	9.476537E-1	9.002098E-1	9.199371E-1	9.331447E-1	9.075816E-1	8.819158E-1	9.377525E-1	9.285992E-1	8.786704E-1	9.209663E-1	1.044675E+0	9.326510E-1	9.567796E-1	9.615488E-1	9.775439E-1	9.269574E-1	9.926717E-1	9.550527E-1	8.905066E-1	9.516072E-1	9.283810E-1	9.086574E-1	9.654637E-1	9.597496E-1	9.371867E-1	9.544519E-1	9.405281E-1	9.496737E-1	9.708888E-1	9.662973E-1	9.599055E-1	9.631793E-1	9.384235E-1	9.376958E-1	9.577610E-1	9.029457E-1	9.378790E-1	9.641815E-1	9.750770E-1	9.229353E-1	9.134366E-1	9.744610E-1	9.201787E-1	1.031654E+0	9.048328E-1	9.330095E-1	9.336046E-1	9.692337E-1	8.961320E-1	9.530501E-1	9.492139E-1	9.194142E-1	9.178751E-1	9.965509E-1	8.824516E-1	9.654409E-1	9.060567E-1	9.358761E-1	9.230298E-1	9.609769E-1	8.898277E-1	1.000446E+0	9.358596E-1	9.276701E-1	9.165445E-1	9.494410E-1	9.749420E-1	9.402796E-1	9.372444E-1	9.627316E-1	8.906973E-1	9.764720E-1	9.391688E-1	9.183417E-1	9.388495E-1	9.555755E-1	9.088116E-1	9.714942E-1	9.541298E-1	9.466911E-1	9.409151E-1	9.632424E-1	9.337235E-1	9.433020E-1	9.297237E-1	9.861939E-1	9.364163E-1	9.791976E-1	9.856694E-1	9.343675E-1	9.298699E-1	9.596001E-1	1.009623E+0	9.564935E-1	9.695508E-1	9.949055E-1	9.128376E-1	9.294627E-1	9.369119E-1	8.877519E-1	9.279459E-1	9.092976E-1	9.374017E-1	9.302656E-1	9.516335E-1	9.423850E-1	9.752704E-1	9.269272E-1	9.439463E-1	9.281530E-1	9.450876E-1	9.525158E-1	9.141459E-1	9.458246E-1	9.471361E-1	9.258506E-1	9.254008E-1	9.364933E-1	9.076923E-1	9.290775E-1	9.602396E-1	9.744394E-1	9.438060E-1	9.298924E-1	9.774280E-1	9.282687E-1	9.263266E-1	9.640652E-1	9.136429E-1	9.574929E-1	8.956651E-1	9.235647E-1	9.583861E-1	9.582364E-1	8.953760E-1	9.729992E-1	9.761476E-1	1.028958E+0	9.718786E-1	9.017028E-1	9.242733E-1	9.713574E-1	9.299791E-1	9.459420E-1	9.752161E-1	9.386811E-1	9.324027E-1	8.917133E-1	9.398882E-1	9.390304E-1	9.518798E-1	9.413806E-1	9.440658E-1	9.757152E-1	8.805774E-1	9.399180E-1	9.748586E-1
5.385170E+2	1.194072E+0	1.112483E+0	1.087441E+0	1.164731E+0	1.133218E+0	1.148431E+0	1.129271E+0	1.110186E+0	1.159729E+0	1.108750E+0	1.121518E+0	1.103113E+0	1.149313E+0	1.111020E+0	1.113866E+0	1.120805E+0	1.115775E+0	1.158569E+0	1.109436E+0	1.118284E+0	1.164965E+0	1.091855E+0	1.160357E+0	1.154968E+0	1.173314E+0	1.180034E+0	1.193549E+0	1.194520E+0	1.162376E+0	1.188431E+0	1.120598E+0	1.193798E+0	1.132739E+0	1.140991E+0	1.125393E+0	1.159191E+0	1.145869E+0	1.094186E+0	1.169499E+0	1.124286E+0	1.150390E+0	1.164412E+0	1.182722E+0	1.152575E+0	1.096358E+0	1.176784E+0	1.115170E+0	1.081517E+0	1.126792E+0	1.170808E+0	1.136561E+0	1.128911E+0	1.114853E+0	1.121581E+0	1.105055E+0	1.104391E+0	1.130581E+0	1.097062E+0	1.161145E+0	1.113933E+0	1.114370E+0	1.127821E+0	1.123361E+0	1.105790E+0	1.114580E+0	1.154588E+0	1.113297E+0	1.177988E+0	1.129665E+0	1.138197E+0	1.150490E+0	1.163599E+0	1.123733E+0	1.133438E+0	1.137039E+0	1.133180E+0	1.121778E+0	1.185146E+0	1.141059E+0	1.142117E+0	1.109792E+0	1.161273E+0	1.112413E+0	1.120412E+0	1.124249E+0	1.088222E+0	1.137082E+0	1.106048E+0	1.089617E+0	1.180677E+0	1.154044E+0	1.095630E+0	1.109288E+0	1.099822E+0	1.163986E+0	1.115083E+0	1.143720E+0	1.188191E+0	1.123064E+0	1.157485E+0	1.151151E+0	1.171971E+0	1.125366E+0	1.184617E+0	1.142144E+0	1.107707E+0	1.119380E+0	1.141968E+0	1.113268E+0	1.130968E+0	1.150544E+0	1.125986E+0	1.064638E+0	1.113054E+0	1.129778E+0	1.095533E+0	1.141392E+0	1.082158E+0	1.156293E+0	1.105425E+0	1.164298E+0	1.112846E+0	1.088796E+0	1.163820E+0	1.174518E+0	1.156668E+0	1.075970E+0	1.134966E+0	1.112022E+0	1.163903E+0	1.099876E+0	1.115387E+0	1.151875E+0	1.132834E+0	1.111547E+0	1.123052E+0	1.166756E+0	1.090660E+0	1.086563E+0	1.158091E+0	1.172482E+0	1.166109E+0	1.101225E+0	1.135753E+0	1.208881E+0	1.122544E+0	1.104693E+0	1.134745E+0	1.146754E+0	1.178003E+0	1.094488E+0	1.104316E+0	1.183996E+0	1.077793E+0	1.127143E+0	1.051556E+0	1.108877E+0	1.140497E+0	1.109906E+0	1.134405E+0	1.144145E+0	1.094991E+0	1.153962E+0	1.090446E+0	1.141091E+0	1.136791E+0	1.099695E+0	1.060391E+0	1.100848E+0
5.387860E+2	1.337118E+0	1.312737E+0	1.283878E+0	1.436941E+0	1.337396E+0	1.370399E+0	1.283093E+0	1.338960E+0	1.331833E+0	1.413829E+0	1.355274E+0	1.319585E+0	1.317543E+0	1.293161E+0	1.348413E+0	1.376964E+0	1.334630E+0	1.291551E+0	1.332837E+0	1.360099E+0	1.351351E+0	1.342165E+0	1.335194E+0	1.418382E+0	1.327135E+0	1.366770E+0	1.350718E+0	1.337194E+0	1.356257E+0	1.329570E+0	1.351118E+0	1.425409E+0	1.314658E+0	1.327628E+0	1.348867E+0	1.335761E+0	1.380235E+0	1.248626E+0	1.385865E+0	1.292751E+0	1.340591E+0	1.352604E+0	1.326481E+0	1.351122E+0	1.266435E+0	1.381363E+0	1.371352E+0	1.380141E+0	1.328726E+0	1.351508E+0	1.316774E+0	1.338808E+0	1.333043E+0	1.367371E+0	1.304825E+0	1.365606E+0	1.292833E+0	1.348288E+0	1.348614E+0	1.318241E+0	1.289760E+0	1.382541E+0	1.301164E+0	1.393004E+0	1.310736E+0	1.363219E+0	1.368021E+0	1.345666E+0	1.293944E+0	1.313704E+0	1.309747E+0	1.349360E+0	1.336293E+0	1.331274E+0	1.358016E+0	1.370494E+0	1.271665E+0	1.328060E+0	1.391234E+0	1.333197E+0	1.317031E+0	1.337773E+0	1.356732E+0	1.305828E+0	1.278466E+0	1.311125E+0	1.343233E+0	1.313061E+0	1.266080E+0	1.321519E+0	1.287377E+0	1.300340E+0	1.336331E+0	1.352571E+0	1.307297E+0	1.319323E+0	1.302687E+0	1.308138E+0	1.332708E+0	1.331841E+0	1.340825E+0	1.357088E+0	1.325003E+0	1.377269E+0	1.350511E+0	1.320131E+0	1.351607E+0	1.333906E+0	1.323087E+0	1.308676E+0	1.322654E+0	1.304721E+0	1.293549E+0	1.320727E+0	1.357617E+0	1.292719E+0	1.368553E+0	1.312459E+0	1.307705E+0	1.314356E+0	1.284672E+0	1.381313E+0	1.298283E+0	1.297456E+0	1.302777E+0	1.381605E+0	1.307658E+0	1.327984E+0	1.348982E+0	1.325965E+0	1.314583E+0	1.314490E+0	1.374362E+0	1.301895E+0	1.304511E+0	1.314805E+0	1.381872E+0	1.387022E+0	1.320564E+0	1.290355E+0	1.293987E+0	1.317176E+0	1.322938E+0	1.350641E+0	1.300364E+0	1.373242E+0	1.272397E+0	1.330760E+0	1.286982E+0	1.386290E+0	1.312259E+0	1.300615E+0	1.352822E+0	1.284859E+0	1.315047E+0	1.263773E+0	1.343362E+0	1.369939E+0	1.296168E+0	1.319342E+0	1.301956E+0	1.299283E+0	1.388246E+0	1.275638E+0	1.388150E+0	1.341680E+0	1.272246E+0	1.328829E+0	1.320129E+0
5.390080E+2	1.560776E+0	1.570849E+0	1.532382E+0	1.602113E+0	1.599064E+0	1.570950E+0	1.587816E+0	1.578488E+0	1.542651E+0	1.571210E+0	1.535204E+0	1.529595E+0	1.609311E+0	1.541842E+0	1.497308E+0	1.498552E+0	1.533142E+0	1.552138E+0	1.497589E+0	1.529707E+0	1.563785E+0	1.539039E+0	1.554450E+0	1.594029E+0	1.564789E+0	1.563127E+0	1.566156E+0	1.569710E+0	1.534922E+0	1.517638E+0	1.549935E+0	1.592428E+0	1.564415E+0	1.503729E+0	1.565456E+0	1.562280E+0	1.566950E+0	1.528724E+0	1.538401E+0	1.481300E+0	1.570686E+0	1.603577E+0	1.568488E+0	1.552045E+0	1.562653E+0	1.564630E+0	1.626858E+0	1.536010E+0	1.561048E+0	1.613063E+0	1.636638E+0	1.608280E+0	1.566616E+0	1.594410E+0	1.502666E+0	1.558504E+0	1.515312E+0	1.499510E+0	1.519209E+0	1.552009E+0	1.554654E+0	1.577105E+0	1.552163E+0	1.499891E+0	1.548589E+0	1.574800E+0	1.501901E+0	1.555783E+0	1.579764E+0	1.553896E+0	1.511511E+0	1.551906E+0	1.563626E+0	1.513610E+0	1.536786E+0	1.498021E+0	1.580670E+0	1.607051E+0	1.571740E+0	1.511175E+0	1.580402E+0	1.569262E+0	1.527221E+0	1.557037E+0	1.493251E+0	1.486365E+0	1.530697E+0	1.575570E+0	1.568183E+0	1.573543E+0	1.505898E+0	1.490300E+0	1.526146E+0	1.505925E+0	1.594054E+0	1.540906E+0	1.522085E+0	1.564908E+0	1.484898E+0	1.515182E+0	1.543185E+0	1.540589E+0	1.556796E+0	1.572700E+0	1.537921E+0	1.541142E+0	1.562896E+0	1.524802E+0	1.553480E+0	1.554932E+0	1.498635E+0	1.518376E+0	1.500711E+0	1.571217E+0	1.555921E+0	1.556600E+0	1.539236E+0	1.549751E+0	1.514564E+0	1.521903E+0	1.515769E+0	1.570377E+0	1.561914E+0	1.445888E+0	1.525444E+0	1.594953E+0	1.547961E+0	1.536057E+0	1.509571E+0	1.513907E+0	1.490245E+0	1.484783E+0	1.476711E+0	1.494518E+0	1.525062E+0	1.497197E+0	1.584525E+0	1.560157E+0	1.485027E+0	1.485511E+0	1.487963E+0	1.554159E+0	1.549669E+0	1.529752E+0	1.531560E+0	1.557957E+0	1.582145E+0	1.459907E+0	1.532177E+0	1.548097E+0	1.473864E+0	1.445015E+0	1.541212E+0	1.558412E+0	1.620645E+0	1.473411E+0	1.546053E+0	1.549861E+0	1.527572E+0	1.472593E+0	1.567158E+0	1.542691E+0	1.583846E+0	1.492391E+0	1.558967E+0	1.517871E+0	1.440728E+0	1.484424E+0	1.558336E+0
5.392930E+2	1.739113E+0	1.744555E+0	1.765633E+0	1.784934E+0	1.732374E+0	1.809806E+0	1.728336E+0	1.766998E+0	1.782001E+0	1.784378E+0	1.800074E+0	1.692251E+0	1.776797E+0	1.771815E+0	1.764120E+0	1.834715E+0	1.737605E+0	1.665925E+0	1.707244E+0	1.771627E+0	1.760358E+0	1.713775E+0	1.738693E+0	1.747132E+0	1.725665E+0	1.691464E+0	1.739301E+0	1.840983E+0	1.718359E+0	1.795541E+0	1.756100E+0	1.793292E+0	1.766952E+0	1.716127E+0	1.747033E+0	1.720585E+0	1.798054E+0	1.741649E+0	1.725847E+0	1.677489E+0	1.720829E+0	1.698369E+0	1.748076E+0	1.683499E+0	1.713341E+0	1.758106E+0	1.771251E+0	1.814187E+0	1.724029E+0	1.767075E+0	1.773200E+0	1.770531E+0	1.791752E+0	1.738055E+0	1.683722E+0	1.781178E+0	1.714187E+0	1.717101E+0	1.749590E+0	1.711478E+0	1.723136E+0	1.763530E+0	1.787201E+0	1.699831E+0	1.702088E+0	1.704227E+0	1.704741E+0	1.745148E+0	1.725616E+0	1.754175E+0	1.676741E+0	1.718411E+0	1.776867E+0	1.709038E+0	1.790576E+0	1.790854E+0	1.732944E+0	1.772474E+0	1.748902E+0	1.729451E+0	1.703152E+0	1.783784E+0	1.708568E+0	1.667370E+0	1.660545E+0	1.707029E+0	1.733735E+0	1.719091E+0	1.659075E+0	1.712423E+0	1.685915E+0	1.689814E+0	1.676408E+0	1.658954E+0	1.755023E+0	1.751773E+0	1.692256E+0	1.716977E+0	1.715759E+0	1.740989E+0	1.671101E+0	1.687654E+0	1.750942E+0	1.765769E+0	1.710396E+0	1.686176E+0	1.823021E+0	1.741130E+0	1.662315E+0	1.740048E+0	1.652822E+0	1.736296E+0	1.675592E+0	1.774539E+0	1.641213E+0	1.721584E+0	1.696402E+0	1.724771E+0	1.671685E+0	1.709184E+0	1.699470E+0	1.714292E+0	1.677028E+0	1.740237E+0	1.677316E+0	1.768267E+0	1.691594E+0	1.710889E+0	1.646783E+0	1.670071E+0	1.745135E+0	1.703987E+0	1.669060E+0	1.710657E+0	1.714894E+0	1.723057E+0	1.735609E+0	1.742959E+0	1.641402E+0	1.728734E+0	1.636320E+0	1.675488E+0	1.691947E+0	1.678489E+0	1.674558E+0	1.662993E+0	1.633983E+0	1.700692E+0	1.724046E+0	1.777210E+0	1.711045E+0	1.630044E+0	1.703933E+0	1.749637E+0	1.742888E+0	1.620308E+0	1.730566E+0	1.773051E+0	1.735055E+0	1.725585E+0	1.775295E+0	1.677476E+0	1.721310E+0	1.618435E+0	1.752513E+0	1.727229E+0	1.644521E+0	1.674691E+0	1.741625E+0
5.395210E+2	1.850388E+0	1.775660E+0	1.734867E+0	1.874074E+0	1.797653E+0	1.808259E+0	1.838982E+0	1.759272E+0	1.742778E+0	1.790627E+0	1.768061E+0	1.753650E+0	1.769518E+0	1.787269E+0	1.751005E+0	1.800230E+0	1.755463E+0	1.786178E+0	1.767612E+0	1.773490E+0	1.730744E+0	1.766709E+0	1.786278E+0	1.818173E+0	1.760565E+0	1.791200E+0	1.799188E+0	1.867035E+0	1.779851E+0	1.800951E+0	1.753912E+0	1.825029E+0	1.676904E+0	1.705453E+0	1.803852E+0	1.697962E+0	1.796491E+0	1.761536E+0	1.730122E+0	1.754711E+0	1.877716E+0	1.745653E+0	1.748396E+0	1.748199E+0	1.664582E+0	1.813580E+0	1.754456E+0	1.771633E+0	1.736610E+0	1.759129E+0	1.776666E+0	1.775997E+0	1.712460E+0	1.774702E+0	1.723249E+0	1.744832E+0	1.751177E+0	1.810581E+0	1.712823E+0	1.794908E+0	1.716341E+0	1.751337E+0	1.710707E+0	1.731277E+0	1.745478E+0	1.795333E+0	1.824660E+0	1.771233E+0	1.755155E+0	1.693784E+0	1.722678E+0	1.692538E+0	1.750391E+0	1.800142E+0	1.732355E+0	1.764760E+0	1.684300E+0	1.755304E+0	1.803599E+0	1.776264E+0	1.797604E+0	1.807413E+0	1.802038E+0	1.772133E+0	1.766680E+0	1.744859E+0	1.783033E+0	1.715880E+0	1.741500E+0	1.768089E+0	1.729868E+0	1.684370E+0	1.739188E+0	1.730579E+0	1.710595E+0	1.759029E+0	1.704089E+0	1.741938E+0	1.742304E+0	1.775175E+0	1.772041E+0	1.745172E+0	1.751097E+0	1.762442E+0	1.691501E+0	1.715766E+0	1.806432E+0	1.758838E+0	1.707621E+0	1.780771E+0	1.727230E+0	1.702157E+0	1.673753E+0	1.740867E+0	1.713704E+0	1.708894E+0	1.735970E+0	1.746274E+0	1.735153E+0	1.726008E+0	1.658412E+0	1.768295E+0	1.769824E+0	1.666655E+0	1.700970E+0	1.780039E+0	1.716841E+0	1.779623E+0	1.701589E+0	1.719590E+0	1.739328E+0	1.741135E+0	1.697024E+0	1.720705E+0	1.692252E+0	1.763786E+0	1.802353E+0	1.704373E+0	1.682329E+0	1.758397E+0	1.699800E+0	1.771388E+0	1.674415E+0	1.673347E+0	1.714863E+0	1.800120E+0	1.710812E+0	1.713636E+0	1.678979E+0	1.726666E+0	1.644558E+0	1.661920E+0	1.761560E+0	1.702871E+0	1.767585E+0	1.695720E+0	1.703665E+0	1.799486E+0	1.769508E+0	1.714996E+0	1.670533E+0	1.691486E+0	1.812487E+0	1.746633E+0	1.716634E+0	1.768449E+0	1.727899E+0	1.672621E+0	1.730526E+0
5.397650E+2	2.109679E+0	1.979602E+0	1.995932E+0	1.949783E+0	2.003633E+0	2.073075E+0	1.997333E+0	1.934733E+0	2.047065E+0	1.959833E+0	2.039548E+0	1.957442E+0	2.028982E+0	2.059650E+0	2.007428E+0	1.978190E+0	2.014323E+0	1.979948E+0	1.980467E+0	2.002326E+0	2.034268E+0	1.958696E+0	2.051116E+0	1.884485E+0	1.903154E+0	1.974018E+0	1.915096E+0	1.975012E+0	1.953986E+0	1.980706E+0	2.046096E+0	2.017205E+0	1.906531E+0	1.954260E+0	2.045807E+0	1.902574E+0	2.035053E+0	2.012180E+0	1.933268E+0	1.953959E+0	2.028286E+0	1.946744E+0	2.032618E+0	1.919140E+0	1.970430E+0	1.960391E+0	2.000697E+0	1.915838E+0	2.034972E+0	2.054604E+0	1.923770E+0	1.981812E+0	1.985530E+0	2.034345E+0	1.905418E+0	1.973028E+0	2.011681E+0	1.966803E+0	1.954679E+0	1.949533E+0	1.963277E+0	2.039051E+0	1.986470E+0	1.920568E+0	1.942918E+0	1.981583E+0	1.927110E+0	1.989452E+0	1.938689E+0	1.959802E+0	1.881224E+0	1.963876E+0	1.953841E+0	2.002514E+0	2.019314E+0	1.958388E+0	1.960875E+0	1.996244E+0	2.001055E+0	1.936733E+0	1.930256E+0	1.992178E+0	1.907458E+0	1.973205E+0	1.920742E+0	1.910794E+0	1.943481E+0	1.972701E+0	1.907912E+0	1.961207E+0	1.890473E+0	1.855435E+0	1.994316E+0	1.975919E+0	1.924331E+0	2.015028E+0	1.905564E+0	1.914686E+0	1.940011E+0	2.065783E+0	1.923663E+0	1.974798E+0	1.973327E+0	1.976537E+0	1.966741E+0	1.945466E+0	1.979442E+0	1.931676E+0	1.918729E+0	1.956599E+0	1.877825E+0	1.889129E+0	1.862322E+0	1.966854E+0	1.832571E+0	1.906744E+0	1.864189E+0	2.039487E+0	1.856021E+0	1.914511E+0	1.913464E+0	1.984679E+0	1.898227E+0	1.921970E+0	1.911238E+0	1.946536E+0	1.919531E+0	1.926634E+0	1.921720E+0	1.896467E+0	1.919074E+0	1.963397E+0	1.874599E+0	1.882342E+0	1.884535E+0	1.957861E+0	1.944635E+0	1.951501E+0	1.879724E+0	1.895374E+0	1.835784E+0	1.943161E+0	1.931458E+0	1.908069E+0	1.908133E+0	1.929993E+0	1.896799E+0	1.914800E+0	1.853441E+0	1.916145E+0	1.915293E+0	1.876269E+0	1.944292E+0	1.880722E+0	1.924046E+0	1.871463E+0	1.903738E+0	1.978144E+0	2.001722E+0	1.887157E+0	1.931611E+0	1.914161E+0	1.996792E+0	1.910187E+0	1.904671E+0	2.008220E+0	1.893389E+0	1.974413E+0	1.877721E+0
5.400190E+2	2.009756E+0	1.881217E+0	1.955823E+0	1.948973E+0	1.943775E+0	1.950663E+0	1.871723E+0	1.937648E+0	1.924237E+0	1.957958E+0	1.930952E+0	1.930743E+0	1.949768E+0	1.921555E+0	1.939961E+0	1.925840E+0	1.904075E+0	1.901183E+0	1.994751E+0	2.007676E+0	1.905399E+0	1.890016E+0	1.913954E+0	1.973631E+0	1.862411E+0	1.954978E+0	1.881701E+0	1.970399E+0	1.963054E+0	1.973831E+0	1.947851E+0	1.941215E+0	1.932235E+0	1.920481E+0	2.006711E+0	1.877633E+0	2.006136E+0	1.883409E+0	1.994892E+0	1.896771E+0	2.041627E+0	1.969378E+0	1.965386E+0	1.976204E+0	1.885958E+0	1.996250E+0	1.989012E+0	1.914284E+0	1.948765E+0	1.976950E+0	1.992182E+0	1.904712E+0	1.906671E+0	1.957389E+0	1.886542E+0	1.971440E+0	1.929675E+0	1.906578E+0	1.910662E+0	1.982961E+0	1.930526E+0	1.905728E+0	1.892998E+0	1.903732E+0	1.917403E+0	1.924554E+0	1.954678E+0	1.992374E+0	1.904273E+0	1.906505E+0	1.901580E+0	1.902254E+0	1.902634E+0	1.905490E+0	1.923024E+0	1.952074E+0	1.946999E+0	1.940999E+0	1.895790E+0	1.872292E+0	1.894502E+0	2.004865E+0	1.855281E+0	1.884810E+0	1.886569E+0	1.868660E+0	1.931953E+0	1.865998E+0	1.887762E+0	1.946071E+0	1.858372E+0	1.913063E+0	1.956850E+0	1.887640E+0	1.847708E+0	1.943073E+0	1.843411E+0	1.992387E+0	1.858064E+0	1.831412E+0	1.930114E+0	1.926360E+0	1.839953E+0	1.952823E+0	1.911530E+0	1.880444E+0	1.935169E+0	1.993066E+0	1.880712E+0	1.968882E+0	1.918913E+0	1.881915E+0	1.819179E+0	1.893887E+0	1.888128E+0	1.929000E+0	1.841523E+0	1.849666E+0	1.936367E+0	1.878261E+0	1.878861E+0	1.868302E+0	1.896881E+0	1.929230E+0	1.869047E+0	1.976470E+0	1.906774E+0	1.924779E+0	1.811906E+0	1.873997E+0	1.915215E+0	1.855338E+0	1.886090E+0	1.892549E+0	1.894456E+0	1.863940E+0	1.960699E+0	1.980334E+0	1.869027E+0	1.887235E+0	1.823482E+0	1.926586E+0	1.862593E+0	1.928263E+0	1.849071E+0	1.917588E+0	1.894053E+0	1.894417E+0	1.837917E+0	1.874001E+0	1.873510E+0	1.811138E+0	1.837457E+0	1.873842E+0	1.880892E+0	1.749879E+0	1.989098E+0	1.954626E+0	1.861150E+0	1.925070E+0	1.850678E+0	1.874901E+0	1.941065E+0	1.869914E+0	1.875969E+0	1.867556E+0	1.865929E+0	1.878724E+0	1.930646E+0
5.402740E+2	1.972512E+0	1.823331E+0	1.920972E+0	1.915728E+0	1.832213E+0	1.882618E+0	1.922080E+0	1.914571E+0	1.905397E+0	1.823488E+0	1.869018E+0	1.838769E+0	1.943433E+0	1.901687E+0	1.877350E+0	1.847883E+0	1.849827E+0	1.913345E+0	1.838200E+0	1.987834E+0	1.854866E+0	1.844226E+0	1.869143E+0	1.884731E+0	1.816398E+0	1.892983E+0	1.862942E+0	1.857755E+0	1.899440E+0	1.893714E+0	1.891715E+0	1.891265E+0	1.819167E+0	1.869558E+0	1.874610E+0	1.814720E+0	1.911739E+0	1.830737E+0	1.850064E+0	1.850387E+0	1.887324E+0	1.889116E+0	1.882648E+0	1.803154E+0	1.847637E+0	1.868060E+0	1.844131E+0	1.872833E+0	1.831425E+0	1.867902E+0	1.796282E+0	1.880019E+0	1.860920E+0	1.957431E+0	1.838264E+0	1.896888E+0	1.863014E+0	1.855445E+0	1.834106E+0	1.782850E+0	1.882160E+0	1.853497E+0	1.840252E+0	1.848512E+0	1.853099E+0	1.903249E+0	1.855499E+0	1.827802E+0	1.890693E+0	1.799994E+0	1.823323E+0	1.847299E+0	1.888361E+0	1.873730E+0	1.876345E+0	1.934501E+0	1.836204E+0	1.850815E+0	1.881293E+0	1.830183E+0	1.812651E+0	1.866738E+0	1.847957E+0	1.870086E+0	1.802901E+0	1.726978E+0	1.871214E+0	1.853766E+0	1.782980E+0	1.811756E+0	1.768011E+0	1.779127E+0	1.818267E+0	1.893187E+0	1.868150E+0	1.817102E+0	1.848493E+0	1.939882E+0	1.874880E+0	1.856301E+0	1.815125E+0	1.817938E+0	1.796225E+0	1.851030E+0	1.846042E+0	1.814506E+0	1.836262E+0	1.799907E+0	1.807501E+0	1.843318E+0	1.818057E+0	1.817085E+0	1.764965E+0	1.784087E+0	1.810011E+0	1.766944E+0	1.824074E+0	1.890439E+0	1.783675E+0	1.822895E+0	1.802170E+0	1.769104E+0	1.838276E+0	1.835980E+0	1.903763E+0	1.863019E+0	1.847957E+0	1.790174E+0	1.786411E+0	1.827366E+0	1.810653E+0	1.865741E+0	1.787278E+0	1.764183E+0	1.788132E+0	1.861661E+0	1.829843E+0	1.866224E+0	1.776431E+0	1.783094E+0	1.761148E+0	1.789574E+0	1.805965E+0	1.789885E+0	1.765899E+0	1.893008E+0	1.786474E+0	1.825402E+0	1.785478E+0	1.841120E+0	1.748562E+0	1.768780E+0	1.912413E+0	1.809307E+0	1.747273E+0	1.769689E+0	1.860036E+0	1.888565E+0	1.782999E+0	1.842053E+0	1.857081E+0	1.810407E+0	1.814488E+0	1.827644E+0	1.818039E+0	1.780738E+0	1.780212E+0	1.767836E+0	1.778458E+0
5.405130E+2	1.834091E+0	1.840276E+0	1.819962E+0	1.835692E+0	1.814839E+0	1.849989E+0	1.789411E+0	1.802720E+0	1.759369E+0	1.832393E+0	1.823420E+0	1.799041E+0	1.891416E+0	1.806929E+0	1.846239E+0	1.807085E+0	1.817865E+0	1.763356E+0	1.885610E+0	1.828060E+0	1.825188E+0	1.831270E+0	1.772106E+0	1.738136E+0	1.800905E+0	1.785562E+0	1.784935E+0	1.824450E+0	1.815653E+0	1.826395E+0	1.784844E+0	1.805735E+0	1.748916E+0	1.782622E+0	1.753641E+0	1.736437E+0	1.826564E+0	1.762436E+0	1.820851E+0	1.822154E+0	1.787818E+0	1.875078E+0	1.868226E+0	1.719928E+0	1.776334E+0	1.810507E+0	1.890646E+0	1.840810E+0	1.750957E+0	1.816349E+0	1.789871E+0	1.803588E+0	1.769308E+0	1.870787E+0	1.771036E+0	1.766028E+0	1.815907E+0	1.768686E+0	1.793590E+0	1.787571E+0	1.773554E+0	1.893628E+0	1.804553E+0	1.766176E+0	1.829954E+0	1.814921E+0	1.768113E+0	1.782105E+0	1.800896E+0	1.798573E+0	1.764862E+0	1.763936E+0	1.751225E+0	1.861935E+0	1.849601E+0	1.784771E+0	1.814358E+0	1.824949E+0	1.855514E+0	1.808475E+0	1.780380E+0	1.856802E+0	1.745920E+0	1.794097E+0	1.779687E+0	1.783610E+0	1.794161E+0	1.758221E+0	1.752180E+0	1.800074E+0	1.816384E+0	1.733906E+0	1.747146E+0	1.821427E+0	1.751877E+0	1.806490E+0	1.686309E+0	1.758508E+0	1.745584E+0	1.769299E+0	1.805503E+0	1.800257E+0	1.712080E+0	1.840337E+0	1.839596E+0	1.793626E+0	1.803819E+0	1.807603E+0	1.718996E+0	1.738196E+0	1.774875E+0	1.781029E+0	1.729188E+0	1.799604E+0	1.810727E+0	1.740422E+0	1.748708E+0	1.818498E+0	1.783399E+0	1.782109E+0	1.742977E+0	1.765555E+0	1.730239E+0	1.752665E+0	1.766464E+0	1.760248E+0	1.749766E+0	1.727766E+0	1.752388E+0	1.769857E+0	1.745745E+0	1.783574E+0	1.785468E+0	1.764087E+0	1.764406E+0	1.822553E+0	1.792566E+0	1.855355E+0	1.840956E+0	1.703031E+0	1.740741E+0	1.847346E+0	1.722812E+0	1.762056E+0	1.747696E+0	1.823006E+0	1.733914E+0	1.810173E+0	1.788608E+0	1.776394E+0	1.739429E+0	1.694097E+0	1.746100E+0	1.830045E+0	1.763344E+0	1.696801E+0	1.759512E+0	1.801616E+0	1.813155E+0	1.762752E+0	1.725688E+0	1.720463E+0	1.826849E+0	1.664489E+0	1.749358E+0	1.751097E+0	1.744389E+0	1.709671E+0	1.797417E+0
5.407680E+2	1.813715E+0	1.674142E+0	1.803334E+0	1.747783E+0	1.714182E+0	1.805410E+0	1.776657E+0	1.719128E+0	1.846164E+0	1.783751E+0	1.728840E+0	1.714617E+0	1.764626E+0	1.734498E+0	1.801473E+0	1.730890E+0	1.747275E+0	1.732055E+0	1.794241E+0	1.745730E+0	1.750999E+0	1.831165E+0	1.743816E+0	1.750943E+0	1.717735E+0	1.802495E+0	1.691827E+0	1.765801E+0	1.763453E+0	1.765163E+0	1.779274E+0	1.774436E+0	1.744832E+0	1.658688E+0	1.640722E+0	1.754142E+0	1.710935E+0	1.704819E+0	1.728478E+0	1.706293E+0	1.756844E+0	1.770544E+0	1.746167E+0	1.702975E+0	1.692706E+0	1.685445E+0	1.774274E+0	1.735305E+0	1.728712E+0	1.748085E+0	1.816841E+0	1.728139E+0	1.694712E+0	1.781121E+0	1.743748E+0	1.755721E+0	1.711364E+0	1.755510E+0	1.737628E+0	1.773588E+0	1.700243E+0	1.716855E+0	1.718567E+0	1.691586E+0	1.755718E+0	1.752050E+0	1.725077E+0	1.775953E+0	1.674607E+0	1.732028E+0	1.707081E+0	1.740665E+0	1.749938E+0	1.734212E+0	1.792805E+0	1.753105E+0	1.788576E+0	1.716535E+0	1.765269E+0	1.711740E+0	1.744709E+0	1.798536E+0	1.709990E+0	1.717208E+0	1.664480E+0	1.631940E+0	1.683707E+0	1.702113E+0	1.758516E+0	1.776501E+0	1.679284E+0	1.719951E+0	1.714413E+0	1.730217E+0	1.663826E+0	1.754360E+0	1.696067E+0	1.772746E+0	1.749591E+0	1.687943E+0	1.681821E+0	1.728398E+0	1.693792E+0	1.774657E+0	1.746411E+0	1.661065E+0	1.796474E+0	1.735504E+0	1.657003E+0	1.710402E+0	1.685174E+0	1.701121E+0	1.693127E+0	1.727536E+0	1.762155E+0	1.703252E+0	1.691065E+0	1.749286E+0	1.732647E+0	1.692354E+0	1.683089E+0	1.709400E+0	1.690258E+0	1.742257E+0	1.689621E+0	1.728810E+0	1.708886E+0	1.677353E+0	1.653329E+0	1.704591E+0	1.741190E+0	1.724604E+0	1.729613E+0	1.690641E+0	1.670251E+0	1.638456E+0	1.700552E+0	1.706698E+0	1.661726E+0	1.669279E+0	1.683560E+0	1.714215E+0	1.694817E+0	1.735345E+0	1.709002E+0	1.671593E+0	1.638095E+0	1.725836E+0	1.677661E+0	1.754705E+0	1.645366E+0	1.618303E+0	1.712487E+0	1.677269E+0	1.682116E+0	1.642638E+0	1.665971E+0	1.687877E+0	1.663581E+0	1.687951E+0	1.669679E+0	1.621087E+0	1.722951E+0	1.660963E+0	1.676591E+0	1.763451E+0	1.708229E+0	1.755450E+0	1.760991E+0
5.410190E+2	1.719421E+0	1.625227E+0	1.676452E+0	1.625962E+0	1.616813E+0	1.655065E+0	1.656461E+0	1.626322E+0	1.533199E+0	1.607193E+0	1.633478E+0	1.608076E+0	1.572301E+0	1.620537E+0	1.651478E+0	1.647860E+0	1.577144E+0	1.611622E+0	1.650709E+0	1.687311E+0	1.640992E+0	1.586045E+0	1.646541E+0	1.595186E+0	1.570212E+0	1.562756E+0	1.622104E+0	1.648158E+0	1.610395E+0	1.616719E+0	1.615517E+0	1.671326E+0	1.649812E+0	1.559289E+0	1.593103E+0	1.585271E+0	1.642372E+0	1.593318E+0	1.602095E+0	1.557415E+0	1.656927E+0	1.651300E+0	1.629408E+0	1.580094E+0	1.595780E+0	1.661684E+0	1.647226E+0	1.607084E+0	1.587554E+0	1.608592E+0	1.647739E+0	1.653500E+0	1.643504E+0	1.661331E+0	1.609774E+0	1.633083E+0	1.635739E+0	1.653026E+0	1.593923E+0	1.666344E+0	1.581495E+0	1.635041E+0	1.601446E+0	1.580820E+0	1.626090E+0	1.653946E+0	1.617445E+0	1.609890E+0	1.638850E+0	1.620930E+0	1.577557E+0	1.612970E+0	1.634720E+0	1.623378E+0	1.611672E+0	1.638891E+0	1.616793E+0	1.614019E+0	1.595721E+0	1.583874E+0	1.564397E+0	1.618820E+0	1.522650E+0	1.630264E+0	1.654738E+0	1.565272E+0	1.604732E+0	1.592270E+0	1.586311E+0	1.576018E+0	1.562910E+0	1.484124E+0	1.566074E+0	1.619231E+0	1.557948E+0	1.602063E+0	1.575670E+0	1.627559E+0	1.572450E+0	1.695402E+0	1.590692E+0	1.673412E+0	1.529927E+0	1.622729E+0	1.665037E+0	1.559184E+0	1.613584E+0	1.593844E+0	1.592875E+0	1.598500E+0	1.607556E+0	1.567340E+0	1.495914E+0	1.607768E+0	1.628443E+0	1.568265E+0	1.577737E+0	1.548089E+0	1.598408E+0	1.567641E+0	1.514676E+0	1.608383E+0	1.566243E+0	1.634721E+0	1.592358E+0	1.641620E+0	1.585077E+0	1.626779E+0	1.598306E+0	1.600961E+0	1.543417E+0	1.599303E+0	1.574734E+0	1.568736E+0	1.549237E+0	1.537612E+0	1.577716E+0	1.689668E+0	1.535550E+0	1.590000E+0	1.534290E+0	1.677562E+0	1.605231E+0	1.584903E+0	1.575958E+0	1.564274E+0	1.528401E+0	1.593198E+0	1.574304E+0	1.579329E+0	1.525292E+0	1.525196E+0	1.542258E+0	1.527416E+0	1.614918E+0	1.539177E+0	1.576015E+0	1.613543E+0	1.614085E+0	1.609748E+0	1.612035E+0	1.523076E+0	1.534740E+0	1.635084E+0	1.544368E+0	1.593637E+0	1.580767E+0	1.594823E+0	1.642290E+0
5.412580E+2	1.661304E+0	1.556352E+0	1.590691E+0	1.536714E+0	1.648220E+0	1.597081E+0	1.490719E+0	1.560998E+0	1.580499E+0	1.541439E+0	1.557830E+0	1.566558E+0	1.599638E+0	1.601846E+0	1.591540E+0	1.582954E+0	1.596101E+0	1.568312E+0	1.590915E+0	1.597251E+0	1.573650E+0	1.585065E+0	1.566740E+0	1.532519E+0	1.501007E+0	1.578504E+0	1.564210E+0	1.498422E+0	1.587232E+0	1.552375E+0	1.524616E+0	1.558281E+0	1.560772E+0	1.571043E+0	1.567393E+0	1.532176E+0	1.570070E+0	1.514766E+0	1.558722E+0	1.517476E+0	1.629802E+0	1.538422E+0	1.615538E+0	1.560584E+0	1.546712E+0	1.570898E+0	1.619558E+0	1.584150E+0	1.529273E+0	1.548223E+0	1.547473E+0	1.577078E+0	1.518525E+0	1.578122E+0	1.593253E+0	1.529958E+0	1.585802E+0	1.579003E+0	1.592055E+0	1.556246E+0	1.515097E+0	1.577978E+0	1.603369E+0	1.563467E+0	1.585104E+0	1.629258E+0	1.541493E+0	1.590305E+0	1.572277E+0	1.523290E+0	1.534632E+0	1.525252E+0	1.512699E+0	1.640359E+0	1.559754E+0	1.541127E+0	1.501496E+0	1.593431E+0	1.607969E+0	1.522361E+0	1.531418E+0	1.596424E+0	1.503017E+0	1.575206E+0	1.541723E+0	1.524958E+0	1.554564E+0	1.538817E+0	1.553824E+0	1.548088E+0	1.519384E+0	1.528429E+0	1.535842E+0	1.542034E+0	1.623404E+0	1.570602E+0	1.553738E+0	1.603946E+0	1.533592E+0	1.575524E+0	1.546632E+0	1.557287E+0	1.516897E+0	1.539499E+0	1.531171E+0	1.515123E+0	1.565758E+0	1.507917E+0	1.509085E+0	1.585669E+0	1.513555E+0	1.513388E+0	1.568386E+0	1.592398E+0	1.563527E+0	1.542277E+0	1.547499E+0	1.563961E+0	1.538406E+0	1.580389E+0	1.454644E+0	1.559624E+0	1.521321E+0	1.585398E+0	1.570402E+0	1.602415E+0	1.498664E+0	1.577847E+0	1.484987E+0	1.586835E+0	1.523335E+0	1.546064E+0	1.526176E+0	1.508736E+0	1.542594E+0	1.490327E+0	1.563052E+0	1.535426E+0	1.464031E+0	1.503810E+0	1.496926E+0	1.574400E+0	1.448323E+0	1.539045E+0	1.439177E+0	1.575335E+0	1.507856E+0	1.499885E+0	1.511021E+0	1.611157E+0	1.513893E+0	1.541699E+0	1.557298E+0	1.478882E+0	1.573610E+0	1.531614E+0	1.490868E+0	1.581539E+0	1.553874E+0	1.519402E+0	1.590293E+0	1.557628E+0	1.568248E+0	1.528419E+0	1.626976E+0	1.535778E+0	1.516683E+0	1.505009E+0	1.521814E+0
5.415190E+2	1.499603E+0	1.444034E+0	1.415974E+0	1.449781E+0	1.457222E+0	1.441762E+0	1.466966E+0	1.466894E+0	1.446267E+0	1.452163E+0	1.443293E+0	1.403792E+0	1.444931E+0	1.436823E+0	1.457086E+0	1.462753E+0	1.441525E+0	1.389173E+0	1.471373E+0	1.442660E+0	1.420675E+0	1.444871E+0	1.390514E+0	1.475571E+0	1.451343E+0	1.341921E+0	1.442665E+0	1.418704E+0	1.467234E+0	1.407307E+0	1.421254E+0	1.450361E+0	1.395573E+0	1.368454E+0	1.470727E+0	1.424797E+0	1.487281E+0	1.439235E+0	1.425568E+0	1.414233E+0	1.432348E+0	1.397375E+0	1.485683E+0	1.388802E+0	1.432633E+0	1.448422E+0	1.450376E+0	1.415826E+0	1.426246E+0	1.356082E+0	1.411809E+0	1.487650E+0	1.426102E+0	1.425579E+0	1.381061E+0	1.458013E+0	1.413717E+0	1.431660E+0	1.410281E+0	1.482975E+0	1.398507E+0	1.393894E+0	1.383886E+0	1.400756E+0	1.502273E+0	1.436182E+0	1.392560E+0	1.416855E+0	1.443658E+0	1.426713E+0	1.354113E+0	1.436963E+0	1.391949E+0	1.405459E+0	1.474483E+0	1.404906E+0	1.412841E+0	1.507596E+0	1.443983E+0	1.408462E+0	1.425329E+0	1.491409E+0	1.440604E+0	1.381318E+0	1.433364E+0	1.385467E+0	1.469960E+0	1.408643E+0	1.404474E+0	1.432685E+0	1.373343E+0	1.392617E+0	1.437327E+0	1.485201E+0	1.459848E+0	1.410335E+0	1.430286E+0	1.426923E+0	1.376926E+0	1.425083E+0	1.423554E+0	1.445119E+0	1.394857E+0	1.383365E+0	1.453134E+0	1.458974E+0	1.498836E+0	1.402578E+0	1.413558E+0	1.492525E+0	1.439056E+0	1.403749E+0	1.369175E+0	1.462794E+0	1.431178E+0	1.397259E+0	1.460878E+0	1.388710E+0	1.441597E+0	1.388702E+0	1.377622E+0	1.436312E+0	1.422498E+0	1.426559E+0	1.378633E+0	1.458183E+0	1.409690E+0	1.471124E+0	1.431223E+0	1.402610E+0	1.393595E+0	1.411777E+0	1.420936E+0	1.414651E+0	1.355344E+0	1.395483E+0	1.393732E+0	1.474237E+0	1.398765E+0	1.406734E+0	1.336292E+0	1.447054E+0	1.411303E+0	1.429380E+0	1.410689E+0	1.448757E+0	1.344636E+0	1.439688E+0	1.452934E+0	1.475647E+0	1.405491E+0	1.386032E+0	1.402652E+0	1.445138E+0	1.415467E+0	1.373383E+0	1.478672E+0	1.501286E+0	1.394504E+0	1.400009E+0	1.423778E+0	1.412074E+0	1.475267E+0	1.405074E+0	1.413620E+0	1.415044E+0	1.437927E+0	1.412104E+0	1.413246E+0
5.417600E+2	1.423823E+0	1.337544E+0	1.263639E+0	1.296081E+0	1.316443E+0	1.384887E+0	1.348427E+0	1.318460E+0	1.341671E+0	1.326138E+0	1.345404E+0	1.247309E+0	1.314502E+0	1.264060E+0	1.314656E+0	1.333715E+0	1.361024E+0	1.342377E+0	1.303026E+0	1.376864E+0	1.338597E+0	1.357600E+0	1.308590E+0	1.277095E+0	1.314790E+0	1.306183E+0	1.353189E+0	1.403887E+0	1.347225E+0	1.328078E+0	1.309407E+0	1.386615E+0	1.386978E+0	1.337312E+0	1.383063E+0	1.348248E+0	1.370898E+0	1.316480E+0	1.343678E+0	1.337273E+0	1.385607E+0	1.323481E+0	1.409649E+0	1.307070E+0	1.296026E+0	1.321537E+0	1.350960E+0	1.343361E+0	1.325659E+0	1.315757E+0	1.428419E+0	1.326850E+0	1.338771E+0	1.334014E+0	1.278935E+0	1.279049E+0	1.301663E+0	1.350306E+0	1.308456E+0	1.338161E+0	1.326356E+0	1.350895E+0	1.271424E+0	1.275768E+0	1.317705E+0	1.339164E+0	1.331097E+0	1.383778E+0	1.343349E+0	1.276202E+0	1.282691E+0	1.327810E+0	1.266502E+0	1.296796E+0	1.333500E+0	1.382288E+0	1.275369E+0	1.329218E+0	1.376811E+0	1.338610E+0	1.315596E+0	1.304582E+0	1.302568E+0	1.323770E+0	1.290238E+0	1.250902E+0	1.358827E+0	1.333793E+0	1.316694E+0	1.263356E+0	1.346888E+0	1.289756E+0	1.301478E+0	1.282066E+0	1.339993E+0	1.329118E+0	1.271399E+0	1.325830E+0	1.287398E+0	1.352791E+0	1.329803E+0	1.372720E+0	1.293267E+0	1.322098E+0	1.343664E+0	1.350419E+0	1.391402E+0	1.316025E+0	1.285131E+0	1.324573E+0	1.261101E+0	1.327053E+0	1.248647E+0	1.418842E+0	1.300041E+0	1.277026E+0	1.270006E+0	1.315975E+0	1.315700E+0	1.318803E+0	1.321016E+0	1.283697E+0	1.318574E+0	1.337584E+0	1.319636E+0	1.402023E+0	1.351373E+0	1.303829E+0	1.219233E+0	1.329332E+0	1.319052E+0	1.310070E+0	1.315930E+0	1.261418E+0	1.315956E+0	1.400542E+0	1.329016E+0	1.343941E+0	1.281088E+0	1.367385E+0	1.281272E+0	1.297491E+0	1.291708E+0	1.339549E+0	1.357507E+0	1.296014E+0	1.274120E+0	1.287389E+0	1.327237E+0	1.329912E+0	1.299198E+0	1.242955E+0	1.321129E+0	1.302941E+0	1.335165E+0	1.214039E+0	1.343626E+0	1.376998E+0	1.344331E+0	1.308042E+0	1.337017E+0	1.313206E+0	1.399632E+0	1.281645E+0	1.336115E+0	1.384772E+0	1.296238E+0	1.314516E+0	1.265776E+0
5.420050E+2	1.187613E+0	1.226719E+0	1.197304E+0	1.153885E+0	1.164239E+0	1.112104E+0	1.141525E+0	1.205110E+0	1.204154E+0	1.200443E+0	1.213745E+0	1.117843E+0	1.172604E+0	1.158019E+0	1.182154E+0	1.175189E+0	1.210775E+0	1.162705E+0	1.184427E+0	1.179432E+0	1.182202E+0	1.225535E+0	1.246984E+0	1.164479E+0	1.158145E+0	1.165115E+0	1.174586E+0	1.189539E+0	1.176381E+0	1.154066E+0	1.207836E+0	1.190304E+0	1.182130E+0	1.151650E+0	1.213732E+0	1.175710E+0	1.196276E+0	1.157495E+0	1.196823E+0	1.161114E+0	1.245187E+0	1.117498E+0	1.197069E+0	1.205640E+0	1.169878E+0	1.161005E+0	1.207157E+0	1.182111E+0	1.183605E+0	1.162356E+0	1.224865E+0	1.263405E+0	1.178339E+0	1.198773E+0	1.125691E+0	1.208406E+0	1.185864E+0	1.140882E+0	1.202376E+0	1.241415E+0	1.147264E+0	1.152645E+0	1.181392E+0	1.135521E+0	1.189038E+0	1.196911E+0	1.194342E+0	1.237499E+0	1.151486E+0	1.180733E+0	1.160757E+0	1.200496E+0	1.197243E+0	1.180124E+0	1.252632E+0	1.168220E+0	1.166645E+0	1.168853E+0	1.205703E+0	1.122537E+0	1.172611E+0	1.153529E+0	1.147506E+0	1.118813E+0	1.143398E+0	1.150097E+0	1.185123E+0	1.156247E+0	1.176206E+0	1.171829E+0	1.106528E+0	1.129114E+0	1.176452E+0	1.172622E+0	1.207141E+0	1.185551E+0	1.135757E+0	1.255773E+0	1.171703E+0	1.143792E+0	1.194586E+0	1.171702E+0	1.154608E+0	1.183369E+0	1.165757E+0	1.149122E+0	1.244258E+0	1.169234E+0	1.196227E+0	1.200738E+0	1.181503E+0	1.171493E+0	1.144640E+0	1.165608E+0	1.126227E+0	1.149131E+0	1.176798E+0	1.188362E+0	1.177983E+0	1.121863E+0	1.111613E+0	1.184922E+0	1.163322E+0	1.152923E+0	1.203567E+0	1.171257E+0	1.176436E+0	1.197246E+0	1.144661E+0	1.179863E+0	1.171230E+0	1.172815E+0	1.164488E+0	1.135105E+0	1.146358E+0	1.213535E+0	1.207933E+0	1.206828E+0	1.113710E+0	1.188804E+0	1.127828E+0	1.182966E+0	1.180926E+0	1.187047E+0	1.152191E+0	1.171668E+0	1.121902E+0	1.162593E+0	1.186110E+0	1.185250E+0	1.154400E+0	1.142620E+0	1.203901E+0	1.136598E+0	1.233086E+0	1.121086E+0	1.158011E+0	1.257989E+0	1.180007E+0	1.122550E+0	1.191539E+0	1.123346E+0	1.213167E+0	1.158784E+0	1.201660E+0	1.135050E+0	1.155218E+0	1.221738E+0	1.169941E+0
5.422730E+2	1.067878E+0	1.023321E+0	1.060783E+0	9.938779E-1	1.010815E+0	1.041356E+0	1.005480E+0	9.997789E-1	1.028879E+0	1.017692E+0	1.010731E+0	1.000443E+0	1.046308E+0	9.903181E-1	1.012090E+0	1.027688E+0	1.051335E+0	1.019213E+0	1.018290E+0	1.053229E+0	1.053851E+0	1.031056E+0	1.081814E+0	1.052370E+0	1.051081E+0	1.009035E+0	9.932139E-1	1.092969E+0	1.029852E+0	1.045766E+0	1.019796E+0	1.041155E+0	9.867548E-1	9.663990E-1	1.041955E+0	9.985383E-1	1.071361E+0	1.033908E+0	9.993952E-1	9.708019E-1	1.094484E+0	1.005452E+0	1.072838E+0	9.788420E-1	1.029004E+0	9.950382E-1	1.046403E+0	1.025720E+0	1.017143E+0	1.040491E+0	1.076102E+0	1.047062E+0	1.031745E+0	1.075636E+0	1.054420E+0	1.076718E+0	1.067193E+0	1.021993E+0	1.030734E+0	1.088465E+0	9.909457E-1	1.012492E+0	1.034569E+0	1.057814E+0	1.064435E+0	1.077996E+0	1.069610E+0	1.091720E+0	1.039758E+0	1.019456E+0	9.752065E-1	1.029849E+0	9.924227E-1	1.028326E+0	1.031684E+0	1.042243E+0	1.047453E+0	1.000718E+0	1.042460E+0	9.856945E-1	1.029497E+0	1.017526E+0	1.027703E+0	9.876641E-1	9.885782E-1	1.017523E+0	1.024487E+0	1.052093E+0	1.000325E+0	1.016689E+0	1.010945E+0	1.008966E+0	1.068382E+0	9.943917E-1	9.892313E-1	1.026475E+0	1.031950E+0	1.075321E+0	9.945379E-1	1.063662E+0	1.052793E+0	1.015374E+0	1.057474E+0	1.033090E+0	1.046295E+0	1.032697E+0	1.092427E+0	1.055708E+0	1.009160E+0	9.782829E-1	1.013451E+0	1.039819E+0	1.006478E+0	1.000848E+0	1.064683E+0	1.016798E+0	1.044570E+0	1.032701E+0	1.033505E+0	9.960472E-1	1.019363E+0	1.025395E+0	1.051832E+0	1.052406E+0	1.010909E+0	1.008235E+0	1.003298E+0	1.036525E+0	1.006923E+0	1.006078E+0	1.068066E+0	1.095254E+0	1.044403E+0	9.981658E-1	1.015430E+0	1.042300E+0	1.005369E+0	1.099749E+0	1.043662E+0	1.029909E+0	9.824917E-1	1.018456E+0	1.036002E+0	1.069359E+0	1.069097E+0	1.033680E+0	1.044412E+0	1.006171E+0	1.060818E+0	1.018253E+0	1.025508E+0	9.689515E-1	1.062729E+0	1.001346E+0	1.007751E+0	9.961780E-1	1.014472E+0	1.056918E+0	1.023860E+0	1.003223E+0	1.051195E+0	1.021470E+0	1.042083E+0	1.036815E+0	1.031170E+0	1.021841E+0	1.038360E+0	1.032863E+0	1.046480E+0
5.425460E+2	9.687677E-1	9.584102E-1	9.502001E-1	9.702887E-1	9.881748E-1	9.381607E-1	9.428406E-1	9.908208E-1	1.007035E+0	9.676073E-1	8.856343E-1	9.306424E-1	9.357454E-1	9.563187E-1	9.298223E-1	8.967333E-1	9.446523E-1	9.498236E-1	9.038031E-1	9.545645E-1	9.585194E-1	8.991339E-1	1.012173E+0	9.554141E-1	9.682293E-1	9.838335E-1	9.974013E-1	9.882385E-1	9.930535E-1	9.760943E-1	9.145326E-1	9.391763E-1	9.695322E-1	9.227401E-1	9.858507E-1	9.732848E-1	9.783210E-1	9.481345E-1	9.409523E-1	9.276386E-1	9.845708E-1	9.269950E-1	9.703522E-1	9.333426E-1	9.574388E-1	9.631364E-1	9.794967E-1	9.918737E-1	9.516977E-1	9.489995E-1	9.480518E-1	9.809256E-1	9.422310E-1	9.531953E-1	9.396068E-1	9.317371E-1	9.637369E-1	9.182208E-1	1.000888E+0	9.640880E-1	9.614245E-1	9.389526E-1	9.371127E-1	9.548338E-1	9.177145E-1	9.712373E-1	9.475277E-1	9.656543E-1	8.966755E-1	9.548228E-1	9.818973E-1	9.602534E-1	9.629483E-1	9.841153E-1	9.624145E-1	9.569565E-1	9.624601E-1	9.470992E-1	9.956552E-1	9.159266E-1	9.080527E-1	9.934587E-1	9.321095E-1	9.727670E-1	9.450514E-1	9.304847E-1	9.471051E-1	9.278210E-1	9.286607E-1	9.507483E-1	9.518737E-1	9.506311E-1	9.630536E-1	9.417658E-1	1.003622E+0	9.738216E-1	9.343948E-1	9.749130E-1	9.601678E-1	9.508713E-1	9.291947E-1	9.640157E-1	9.443957E-1	9.668404E-1	9.378962E-1	9.264911E-1	9.721351E-1	9.300434E-1	9.627202E-1	9.996207E-1	8.923258E-1	9.208649E-1	9.808778E-1	9.963572E-1	9.219508E-1	9.190900E-1	1.000442E+0	9.589824E-1	9.783634E-1	9.237253E-1	9.231441E-1	9.307220E-1	9.553414E-1	9.683291E-1	9.332832E-1	9.322866E-1	9.344666E-1	9.444514E-1	8.853108E-1	9.009417E-1	9.419945E-1	9.894420E-1	9.131448E-1	9.546489E-1	9.645952E-1	1.006098E+0	9.772204E-1	9.525973E-1	9.669937E-1	9.543744E-1	9.408871E-1	9.511933E-1	9.857234E-1	9.372847E-1	9.924527E-1	9.249890E-1	9.013805E-1	9.496438E-1	9.869425E-1	9.592487E-1	9.870425E-1	9.396061E-1	9.742001E-1	9.719629E-1	1.027528E+0	9.367381E-1	9.714910E-1	9.744362E-1	9.257674E-1	9.571229E-1	9.765633E-1	9.245822E-1	1.008513E+0	9.508400E-1	9.576221E-1	9.660569E-1	9.702654E-1	1.017219E+0	9.598495E-1
5.427600E+2	9.134776E-1	9.731737E-1	9.104562E-1	9.626602E-1	9.548684E-1	9.548171E-1	9.287888E-1	9.493235E-1	9.761850E-1	9.427493E-1	9.854745E-1	9.388923E-1	9.439842E-1	9.652361E-1	9.851995E-1	9.297776E-1	9.855279E-1	9.425927E-1	9.392920E-1	9.609254E-1	9.320022E-1	9.160044E-1	9.945557E-1	1.012819E+0	9.682118E-1	9.060975E-1	9.499294E-1	9.624260E-1	9.930030E-1	9.508526E-1	9.099246E-1	1.005408E+0	9.236594E-1	9.301118E-1	9.892378E-1	9.487135E-1	9.137612E-1	9.559840E-1	9.120444E-1	9.823747E-1	9.715990E-1	9.620093E-1	9.799678E-1	9.727286E-1	9.387101E-1	9.469529E-1	9.963688E-1	9.375645E-1	9.589458E-1	9.734183E-1	9.966727E-1	9.915068E-1	1.001005E+0	9.500751E-1	9.675845E-1	9.689399E-1	9.395487E-1	9.523035E-1	9.862080E-1	9.680213E-1	9.391356E-1	9.671631E-1	9.449447E-1	9.587878E-1	9.525798E-1	1.014034E+0	9.704167E-1	9.988752E-1	9.268850E-1	9.730141E-1	9.259775E-1	9.442606E-1	9.625885E-1	9.600765E-1	9.594821E-1	9.586162E-1	9.297973E-1	9.586266E-1	9.602983E-1	9.617711E-1	9.519357E-1	9.628183E-1	9.936632E-1	1.005700E+0	9.673788E-1	9.150166E-1	9.962992E-1	1.005763E+0	9.688269E-1	9.966965E-1	9.055046E-1	9.122958E-1	9.411008E-1	9.305733E-1	9.548715E-1	9.396612E-1	1.020186E+0	9.819623E-1	9.569931E-1	9.089400E-1	9.740867E-1	9.296668E-1	8.890028E-1	9.309289E-1	9.367958E-1	9.513255E-1	1.007867E+0	9.332837E-1	9.757359E-1	9.551898E-1	9.371599E-1	9.240195E-1	9.757427E-1	9.546187E-1	9.668613E-1	9.681157E-1	9.111964E-1	9.276589E-1	9.760298E-1	9.497303E-1	8.894345E-1	9.967976E-1	9.398762E-1	9.678307E-1	9.798772E-1	9.429159E-1	9.407949E-1	9.508235E-1	9.087711E-1	9.239648E-1	9.346530E-1	9.259629E-1	9.330382E-1	9.218088E-1	9.622646E-1	9.835308E-1	1.009046E+0	9.357026E-1	9.294316E-1	9.464827E-1	9.417419E-1	9.156082E-1	9.512301E-1	9.440538E-1	9.374344E-1	9.404630E-1	9.346820E-1	9.596410E-1	9.619613E-1	9.721837E-1	9.021810E-1	9.261940E-1	9.610851E-1	9.374741E-1	9.385854E-1	9.432632E-1	9.677881E-1	9.971978E-1	9.644204E-1	9.559749E-1	9.730769E-1	9.602853E-1	9.374010E-1	9.731457E-1	9.764727E-1	9.408017E-1	9.927511E-1	1.009758E+0	9.168732E-1
5.430120E+2	1.058311E+0	1.025906E+0	1.029971E+0	1.041457E+0	1.017797E+0	1.080659E+0	1.038411E+0	1.076951E+0	1.045495E+0	1.018729E+0	1.052318E+0	1.046938E+0	1.076268E+0	1.055392E+0	1.037009E+0	1.024626E+0	1.062055E+0	1.001403E+0	1.048982E+0	1.050539E+0	1.008994E+0	1.041628E+0	1.097019E+0	1.087041E+0	1.062687E+0	1.080691E+0	1.084303E+0	1.106033E+0	1.052029E+0	1.082459E+0	1.056758E+0	1.147421E+0	1.069683E+0	1.002240E+0	1.015162E+0	1.041546E+0	1.098665E+0	1.040583E+0	1.069516E+0	1.065802E+0	1.101211E+0	1.030782E+0	1.097997E+0	1.073503E+0	1.052586E+0	1.045689E+0	1.073508E+0	1.088812E+0	1.089536E+0	1.068999E+0	1.110781E+0	1.099039E+0	1.046859E+0	1.071853E+0	1.018059E+0	1.074161E+0	1.036098E+0	1.025112E+0	1.071781E+0	1.030807E+0	1.042700E+0	1.028606E+0	1.089853E+0	1.073395E+0	1.041054E+0	1.063186E+0	1.078180E+0	1.086288E+0	1.030067E+0	1.026415E+0	1.028450E+0	1.109155E+0	1.032651E+0	1.038707E+0	1.059598E+0	1.044698E+0	1.031008E+0	1.051636E+0	1.069076E+0	1.085024E+0	1.057762E+0	1.064662E+0	1.036654E+0	1.031699E+0	1.022514E+0	1.074165E+0	1.109648E+0	1.092405E+0	1.039823E+0	1.109916E+0	1.028323E+0	1.037443E+0	1.046443E+0	1.029101E+0	1.032079E+0	1.063177E+0	9.833055E-1	1.085407E+0	9.887626E-1	1.045638E+0	1.078154E+0	1.097916E+0	1.030889E+0	1.095654E+0	1.102581E+0	1.053204E+0	1.067972E+0	1.103813E+0	1.001017E+0	1.028872E+0	1.092580E+0	1.062835E+0	1.041683E+0	1.040060E+0	1.083593E+0	1.069938E+0	1.071380E+0	1.036182E+0	1.084320E+0	1.056880E+0	1.045255E+0	1.087432E+0	1.058115E+0	1.061263E+0	1.035512E+0	1.050047E+0	1.058573E+0	1.025130E+0	1.034846E+0	1.081531E+0	1.105038E+0	1.024106E+0	1.061117E+0	1.028409E+0	1.046671E+0	1.073257E+0	1.087972E+0	1.034138E+0	1.045501E+0	1.094225E+0	1.007389E+0	1.094590E+0	1.001034E+0	1.037285E+0	1.029281E+0	1.041359E+0	1.089187E+0	1.079769E+0	1.043650E+0	1.024698E+0	1.040404E+0	1.033194E+0	1.084183E+0	1.036455E+0	1.060531E+0	1.003695E+0	9.978432E-1	1.067543E+0	1.073305E+0	1.071688E+0	1.055118E+0	1.031594E+0	1.058655E+0	1.070555E+0	1.110865E+0	1.029295E+0	1.078453E+0	1.079221E+0	1.069704E+0
5.432910E+2	1.226228E+0	1.208727E+0	1.189087E+0	1.219000E+0	1.165802E+0	1.266649E+0	1.227599E+0	1.242226E+0	1.205102E+0	1.209647E+0	1.209191E+0	1.224236E+0	1.187406E+0	1.150937E+0	1.196476E+0	1.228165E+0	1.211720E+0	1.174597E+0	1.229443E+0	1.248174E+0	1.150434E+0	1.194809E+0	1.286533E+0	1.208490E+0	1.220121E+0	1.214242E+0	1.254732E+0	1.293376E+0	1.244157E+0	1.227767E+0	1.177633E+0	1.283555E+0	1.191525E+0	1.191085E+0	1.210254E+0	1.150373E+0	1.220271E+0	1.166440E+0	1.188787E+0	1.207681E+0	1.256942E+0	1.188183E+0	1.260789E+0	1.134350E+0	1.229198E+0	1.239597E+0	1.245853E+0	1.221412E+0	1.217368E+0	1.182939E+0	1.247896E+0	1.225286E+0	1.223025E+0	1.251130E+0	1.159861E+0	1.235278E+0	1.210620E+0	1.151660E+0	1.237704E+0	1.201068E+0	1.252066E+0	1.205467E+0	1.242954E+0	1.217781E+0	1.249179E+0	1.225993E+0	1.206447E+0	1.226216E+0	1.178704E+0	1.237146E+0	1.199153E+0	1.202082E+0	1.251306E+0	1.176801E+0	1.224946E+0	1.179571E+0	1.241752E+0	1.201120E+0	1.204679E+0	1.230609E+0	1.221059E+0	1.259025E+0	1.195349E+0	1.158717E+0	1.203053E+0	1.160351E+0	1.198281E+0	1.204267E+0	1.233923E+0	1.178770E+0	1.179273E+0	1.176757E+0	1.222991E+0	1.167645E+0	1.253299E+0	1.269897E+0	1.235011E+0	1.254448E+0	1.201909E+0	1.169823E+0	1.193479E+0	1.225755E+0	1.195044E+0	1.236991E+0	1.233139E+0	1.197066E+0	1.231242E+0	1.192242E+0	1.212250E+0	1.182028E+0	1.247262E+0	1.178334E+0	1.164618E+0	1.211689E+0	1.195011E+0	1.268414E+0	1.217503E+0	1.202463E+0	1.206068E+0	1.211581E+0	1.147945E+0	1.260162E+0	1.230306E+0	1.219702E+0	1.249065E+0	1.239680E+0	1.267156E+0	1.199517E+0	1.184389E+0	1.166786E+0	1.169431E+0	1.171229E+0	1.233953E+0	1.155339E+0	1.207065E+0	1.255045E+0	1.218307E+0	1.183638E+0	1.224917E+0	1.196880E+0	1.189077E+0	1.189084E+0	1.174670E+0	1.214933E+0	1.174890E+0	1.215841E+0	1.175185E+0	1.172121E+0	1.229730E+0	1.189128E+0	1.156621E+0	1.208637E+0	1.228859E+0	1.164354E+0	1.277333E+0	1.154476E+0	1.227542E+0	1.225131E+0	1.206977E+0	1.148509E+0	1.187294E+0	1.185584E+0	1.236145E+0	1.180506E+0	1.253220E+0	1.248954E+0	1.182748E+0	1.242250E+0	1.219709E+0
5.435270E+2	1.366650E+0	1.355920E+0	1.364052E+0	1.301256E+0	1.355956E+0	1.452743E+0	1.308624E+0	1.321581E+0	1.324158E+0	1.363354E+0	1.349177E+0	1.303986E+0	1.372012E+0	1.356324E+0	1.416388E+0	1.439337E+0	1.340929E+0	1.392516E+0	1.365389E+0	1.323947E+0	1.359613E+0	1.350899E+0	1.346733E+0	1.334021E+0	1.358560E+0	1.339081E+0	1.392876E+0	1.375418E+0	1.350016E+0	1.294771E+0	1.388798E+0	1.398565E+0	1.335994E+0	1.337559E+0	1.387341E+0	1.323937E+0	1.347516E+0	1.290167E+0	1.368953E+0	1.336184E+0	1.402310E+0	1.339536E+0	1.346988E+0	1.372447E+0	1.362589E+0	1.371479E+0	1.405234E+0	1.355567E+0	1.297265E+0	1.413987E+0	1.368452E+0	1.389136E+0	1.417475E+0	1.355611E+0	1.337289E+0	1.401353E+0	1.411275E+0	1.305084E+0	1.406044E+0	1.401179E+0	1.347540E+0	1.338776E+0	1.362137E+0	1.394086E+0	1.405855E+0	1.336213E+0	1.317893E+0	1.378396E+0	1.358757E+0	1.347220E+0	1.336215E+0	1.412879E+0	1.377134E+0	1.378494E+0	1.358795E+0	1.377988E+0	1.306539E+0	1.388911E+0	1.410687E+0	1.333373E+0	1.330343E+0	1.386102E+0	1.351963E+0	1.373996E+0	1.277897E+0	1.275843E+0	1.384746E+0	1.374401E+0	1.310528E+0	1.358026E+0	1.323793E+0	1.391884E+0	1.336095E+0	1.375692E+0	1.366114E+0	1.334695E+0	1.282558E+0	1.330928E+0	1.317966E+0	1.383417E+0	1.378251E+0	1.417478E+0	1.324403E+0	1.339273E+0	1.322326E+0	1.283980E+0	1.390762E+0	1.363741E+0	1.325648E+0	1.289067E+0	1.343111E+0	1.324596E+0	1.289039E+0	1.381869E+0	1.282416E+0	1.369361E+0	1.346729E+0	1.323855E+0	1.330023E+0	1.283511E+0	1.285193E+0	1.368836E+0	1.339143E+0	1.325598E+0	1.324693E+0	1.295730E+0	1.376079E+0	1.354471E+0	1.385191E+0	1.297694E+0	1.284594E+0	1.483654E+0	1.352350E+0	1.311305E+0	1.358012E+0	1.374770E+0	1.376859E+0	1.329181E+0	1.344365E+0	1.325678E+0	1.343872E+0	1.365767E+0	1.372533E+0	1.408163E+0	1.317368E+0	1.378197E+0	1.333165E+0	1.336833E+0	1.333760E+0	1.360734E+0	1.304428E+0	1.315170E+0	1.357200E+0	1.291048E+0	1.404683E+0	1.255294E+0	1.322106E+0	1.308534E+0	1.337289E+0	1.332483E+0	1.342319E+0	1.276913E+0	1.345968E+0	1.379259E+0	1.380190E+0	1.328782E+0	1.359157E+0	1.316724E+0	1.303253E+0
5.437850E+2	1.429504E+0	1.493027E+0	1.446607E+0	1.453049E+0	1.475243E+0	1.581322E+0	1.435030E+0	1.458158E+0	1.503949E+0	1.465067E+0	1.434223E+0	1.453854E+0	1.537915E+0	1.444770E+0	1.451451E+0	1.442333E+0	1.483799E+0	1.440247E+0	1.508342E+0	1.474132E+0	1.428921E+0	1.490024E+0	1.508834E+0	1.415353E+0	1.414951E+0	1.500284E+0	1.405223E+0	1.512392E+0	1.444897E+0	1.425787E+0	1.554897E+0	1.499160E+0	1.505736E+0	1.440372E+0	1.480845E+0	1.458295E+0	1.465723E+0	1.441845E+0	1.464016E+0	1.423047E+0	1.461145E+0	1.384704E+0	1.460397E+0	1.472507E+0	1.432747E+0	1.432696E+0	1.493619E+0	1.435680E+0	1.455269E+0	1.417624E+0	1.514469E+0	1.518954E+0	1.454799E+0	1.495099E+0	1.445870E+0	1.463468E+0	1.483114E+0	1.487659E+0	1.467964E+0	1.382971E+0	1.421466E+0	1.438959E+0	1.462682E+0	1.462337E+0	1.492961E+0	1.435211E+0	1.436736E+0	1.465760E+0	1.384795E+0	1.382399E+0	1.412320E+0	1.456389E+0	1.470700E+0	1.483795E+0	1.447193E+0	1.423979E+0	1.475643E+0	1.407198E+0	1.454521E+0	1.492578E+0	1.476286E+0	1.485246E+0	1.437583E+0	1.434615E+0	1.436913E+0	1.419442E+0	1.478085E+0	1.456096E+0	1.449688E+0	1.494086E+0	1.411691E+0	1.401173E+0	1.427638E+0	1.403014E+0	1.465436E+0	1.435085E+0	1.406027E+0	1.416433E+0	1.498882E+0	1.468953E+0	1.439696E+0	1.428600E+0	1.382729E+0	1.463782E+0	1.445724E+0	1.408250E+0	1.479001E+0	1.490830E+0	1.367945E+0	1.383082E+0	1.476587E+0	1.454699E+0	1.409135E+0	1.408028E+0	1.470151E+0	1.438210E+0	1.472257E+0	1.449571E+0	1.440865E+0	1.352246E+0	1.426185E+0	1.398758E+0	1.422556E+0	1.433894E+0	1.462091E+0	1.397947E+0	1.431763E+0	1.468609E+0	1.374492E+0	1.431321E+0	1.465802E+0	1.372832E+0	1.469925E+0	1.387468E+0	1.451704E+0	1.427198E+0	1.419808E+0	1.438708E+0	1.449236E+0	1.450182E+0	1.377252E+0	1.367877E+0	1.412834E+0	1.436681E+0	1.429302E+0	1.391348E+0	1.435038E+0	1.419015E+0	1.460887E+0	1.404625E+0	1.420610E+0	1.407660E+0	1.410638E+0	1.440859E+0	1.478289E+0	1.437481E+0	1.424122E+0	1.501311E+0	1.428541E+0	1.429295E+0	1.412976E+0	1.330080E+0	1.405833E+0	1.425703E+0	1.444231E+0	1.500050E+0	1.472294E+0	1.463562E+0	1.510041E+0
5.440060E+2	1.629271E+0	1.537842E+0	1.579682E+0	1.622559E+0	1.590896E+0	1.583533E+0	1.576830E+0	1.613424E+0	1.569084E+0	1.511908E+0	1.660755E+0	1.530970E+0	1.627020E+0	1.579198E+0	1.683501E+0	1.562072E+0	1.594651E+0	1.539531E+0	1.558379E+0	1.659088E+0	1.600028E+0	1.567512E+0	1.637781E+0	1.561189E+0	1.575010E+0	1.542902E+0	1.605596E+0	1.623088E+0	1.596907E+0	1.561997E+0	1.543295E+0	1.559584E+0	1.552193E+0	1.547422E+0	1.603619E+0	1.563704E+0	1.619660E+0	1.548691E+0	1.591432E+0	1.546361E+0	1.657011E+0	1.553626E+0	1.623947E+0	1.583045E+0	1.557812E+0	1.532831E+0	1.596389E+0	1.554255E+0	1.530615E+0	1.581909E+0	1.639135E+0	1.546396E+0	1.591148E+0	1.601803E+0	1.608558E+0	1.558849E+0	1.587895E+0	1.533717E+0	1.629361E+0	1.553297E+0	1.507428E+0	1.540463E+0	1.555585E+0	1.555538E+0	1.603356E+0	1.589768E+0	1.593054E+0	1.592073E+0	1.532502E+0	1.500744E+0	1.513968E+0	1.529481E+0	1.581198E+0	1.583500E+0	1.589932E+0	1.639279E+0	1.602934E+0	1.512391E+0	1.613537E+0	1.553272E+0	1.550720E+0	1.540370E+0	1.543276E+0	1.608010E+0	1.546923E+0	1.465331E+0	1.568057E+0	1.583807E+0	1.552144E+0	1.552337E+0	1.604568E+0	1.537474E+0	1.541718E+0	1.560382E+0	1.538474E+0	1.592009E+0	1.599782E+0	1.597239E+0	1.570542E+0	1.570235E+0	1.568855E+0	1.611317E+0	1.544344E+0	1.550885E+0	1.540820E+0	1.557222E+0	1.556937E+0	1.606015E+0	1.494902E+0	1.537293E+0	1.517050E+0	1.580069E+0	1.534591E+0	1.516695E+0	1.524809E+0	1.505477E+0	1.498110E+0	1.573768E+0	1.571272E+0	1.548644E+0	1.486518E+0	1.555540E+0	1.645948E+0	1.608581E+0	1.563340E+0	1.570776E+0	1.607122E+0	1.542084E+0	1.512664E+0	1.551264E+0	1.551250E+0	1.476448E+0	1.532447E+0	1.526887E+0	1.525735E+0	1.596424E+0	1.574209E+0	1.569806E+0	1.541815E+0	1.533468E+0	1.511794E+0	1.485698E+0	1.523729E+0	1.531789E+0	1.578598E+0	1.479396E+0	1.515620E+0	1.606859E+0	1.546157E+0	1.573279E+0	1.506730E+0	1.486758E+0	1.584953E+0	1.570349E+0	1.509562E+0	1.503364E+0	1.474580E+0	1.597335E+0	1.529258E+0	1.561099E+0	1.556037E+0	1.449930E+0	1.563528E+0	1.520958E+0	1.617500E+0	1.536167E+0	1.484068E+0	1.539564E+0	1.472665E+0
5.442750E+2	1.641653E+0	1.598927E+0	1.621995E+0	1.546722E+0	1.579454E+0	1.643210E+0	1.618144E+0	1.621692E+0	1.652795E+0	1.621528E+0	1.686061E+0	1.608068E+0	1.644838E+0	1.593615E+0	1.611271E+0	1.580463E+0	1.570325E+0	1.574886E+0	1.582874E+0	1.595428E+0	1.540354E+0	1.661393E+0	1.603499E+0	1.587308E+0	1.579548E+0	1.494329E+0	1.568065E+0	1.691057E+0	1.584208E+0	1.637521E+0	1.602541E+0	1.594276E+0	1.577941E+0	1.566774E+0	1.582196E+0	1.558324E+0	1.591346E+0	1.591459E+0	1.601714E+0	1.612224E+0	1.630306E+0	1.568185E+0	1.631317E+0	1.658049E+0	1.561957E+0	1.573322E+0	1.642038E+0	1.588444E+0	1.546751E+0	1.577119E+0	1.640915E+0	1.640170E+0	1.540968E+0	1.629351E+0	1.593720E+0	1.647618E+0	1.591806E+0	1.550269E+0	1.626804E+0	1.609719E+0	1.600274E+0	1.588527E+0	1.605857E+0	1.586941E+0	1.631429E+0	1.588809E+0	1.573937E+0	1.566716E+0	1.503706E+0	1.611261E+0	1.554989E+0	1.620974E+0	1.589225E+0	1.582221E+0	1.589805E+0	1.607109E+0	1.600312E+0	1.611301E+0	1.629516E+0	1.547049E+0	1.604393E+0	1.578526E+0	1.620722E+0	1.579864E+0	1.541345E+0	1.485451E+0	1.641486E+0	1.657609E+0	1.637542E+0	1.587816E+0	1.508344E+0	1.537246E+0	1.629332E+0	1.587110E+0	1.543164E+0	1.608402E+0	1.585624E+0	1.618738E+0	1.523644E+0	1.652828E+0	1.596075E+0	1.572316E+0	1.516924E+0	1.641975E+0	1.642281E+0	1.539031E+0	1.677508E+0	1.616225E+0	1.527049E+0	1.604183E+0	1.597974E+0	1.565485E+0	1.518576E+0	1.574230E+0	1.508725E+0	1.576342E+0	1.610026E+0	1.513559E+0	1.593253E+0	1.554714E+0	1.550545E+0	1.568063E+0	1.645621E+0	1.640508E+0	1.531589E+0	1.566827E+0	1.632813E+0	1.592238E+0	1.498114E+0	1.529878E+0	1.554558E+0	1.564747E+0	1.548646E+0	1.533049E+0	1.565125E+0	1.582003E+0	1.491537E+0	1.514455E+0	1.547865E+0	1.531803E+0	1.598790E+0	1.533508E+0	1.607284E+0	1.574674E+0	1.547268E+0	1.529433E+0	1.586947E+0	1.593551E+0	1.607144E+0	1.555662E+0	1.671948E+0	1.530251E+0	1.576069E+0	1.570739E+0	1.606487E+0	1.521238E+0	1.556753E+0	1.632464E+0	1.700817E+0	1.530026E+0	1.528811E+0	1.533757E+0	1.598663E+0	1.587797E+0	1.681385E+0	1.537401E+0	1.555818E+0	1.483663E+0	1.569412E+0
5.445240E+2	1.644113E+0	1.640527E+0	1.602631E+0	1.602819E+0	1.600463E+0	1.610776E+0	1.618260E+0	1.683921E+0	1.562183E+0	1.567483E+0	1.658741E+0	1.509616E+0	1.640949E+0	1.548713E+0	1.556511E+0	1.549791E+0	1.572098E+0	1.571020E+0	1.596135E+0	1.620217E+0	1.543957E+0	1.565222E+0	1.602621E+0	1.516263E+0	1.570864E+0	1.561302E+0	1.564283E+0	1.622965E+0	1.631899E+0	1.596419E+0	1.550746E+0	1.598680E+0	1.537774E+0	1.498126E+0	1.577872E+0	1.550283E+0	1.598538E+0	1.532876E+0	1.575116E+0	1.548850E+0	1.650266E+0	1.569346E+0	1.653167E+0	1.587092E+0	1.568888E+0	1.546884E+0	1.609941E+0	1.642530E+0	1.594883E+0	1.532523E+0	1.639539E+0	1.615153E+0	1.563220E+0	1.614903E+0	1.544437E+0	1.606745E+0	1.605867E+0	1.563091E+0	1.559778E+0	1.562649E+0	1.509030E+0	1.578076E+0	1.544659E+0	1.558794E+0	1.538508E+0	1.522159E+0	1.630603E+0	1.612624E+0	1.571636E+0	1.553480E+0	1.528350E+0	1.583387E+0	1.638127E+0	1.634027E+0	1.614859E+0	1.600453E+0	1.562199E+0	1.602780E+0	1.529395E+0	1.541722E+0	1.527859E+0	1.559209E+0	1.567504E+0	1.608097E+0	1.570144E+0	1.475449E+0	1.560767E+0	1.557747E+0	1.581661E+0	1.530741E+0	1.603883E+0	1.530466E+0	1.526023E+0	1.567357E+0	1.526762E+0	1.591610E+0	1.515244E+0	1.562219E+0	1.569842E+0	1.583939E+0	1.559134E+0	1.627869E+0	1.534529E+0	1.516092E+0	1.572078E+0	1.540834E+0	1.588675E+0	1.563308E+0	1.478887E+0	1.525725E+0	1.554143E+0	1.562919E+0	1.472496E+0	1.564589E+0	1.596709E+0	1.567231E+0	1.548135E+0	1.541296E+0	1.562790E+0	1.547865E+0	1.480819E+0	1.583662E+0	1.573091E+0	1.543851E+0	1.570131E+0	1.535281E+0	1.558143E+0	1.537155E+0	1.500321E+0	1.621592E+0	1.552155E+0	1.526314E+0	1.587638E+0	1.525561E+0	1.553098E+0	1.593171E+0	1.597143E+0	1.540884E+0	1.565314E+0	1.571670E+0	1.523919E+0	1.541577E+0	1.598156E+0	1.577048E+0	1.554395E+0	1.502537E+0	1.540011E+0	1.574450E+0	1.555710E+0	1.521067E+0	1.477021E+0	1.477579E+0	1.566932E+0	1.541278E+0	1.554620E+0	1.551710E+0	1.562142E+0	1.548989E+0	1.637929E+0	1.601673E+0	1.520438E+0	1.445051E+0	1.555993E+0	1.554856E+0	1.573388E+0	1.575478E+0	1.507297E+0	1.542119E+0	1.488452E+0
5.447610E+2	1.576985E+0	1.476890E+0	1.519218E+0	1.512229E+0	1.523518E+0	1.527487E+0	1.519810E+0	1.532067E+0	1.515294E+0	1.473695E+0	1.587552E+0	1.525195E+0	1.575256E+0	1.430084E+0	1.469634E+0	1.565910E+0	1.482209E+0	1.472653E+0	1.523608E+0	1.484426E+0	1.534771E+0	1.489536E+0	1.508272E+0	1.506404E+0	1.512687E+0	1.425160E+0	1.512854E+0	1.555532E+0	1.512649E+0	1.490780E+0	1.485719E+0	1.487505E+0	1.500721E+0	1.473807E+0	1.533964E+0	1.498349E+0	1.468601E+0	1.522726E+0	1.550343E+0	1.514642E+0	1.531957E+0	1.450068E+0	1.527133E+0	1.462181E+0	1.467086E+0	1.452681E+0	1.548864E+0	1.547064E+0	1.527223E+0	1.445262E+0	1.533438E+0	1.501708E+0	1.477665E+0	1.486967E+0	1.517960E+0	1.491998E+0	1.517307E+0	1.473067E+0	1.564840E+0	1.490143E+0	1.475133E+0	1.517027E+0	1.474224E+0	1.538886E+0	1.543361E+0	1.516611E+0	1.551059E+0	1.541354E+0	1.465236E+0	1.455632E+0	1.479954E+0	1.474304E+0	1.511139E+0	1.525782E+0	1.514917E+0	1.523561E+0	1.503738E+0	1.458945E+0	1.484233E+0	1.532133E+0	1.514747E+0	1.516095E+0	1.484927E+0	1.484764E+0	1.456918E+0	1.434098E+0	1.430223E+0	1.494469E+0	1.457323E+0	1.536903E+0	1.450963E+0	1.491755E+0	1.483780E+0	1.468569E+0	1.429812E+0	1.520601E+0	1.469906E+0	1.557919E+0	1.454783E+0	1.508501E+0	1.508579E+0	1.464873E+0	1.437722E+0	1.512873E+0	1.570425E+0	1.507731E+0	1.555354E+0	1.489277E+0	1.455329E+0	1.473974E+0	1.493016E+0	1.441874E+0	1.460589E+0	1.490153E+0	1.537515E+0	1.503538E+0	1.519316E+0	1.481712E+0	1.532083E+0	1.515624E+0	1.445840E+0	1.492255E+0	1.537630E+0	1.510947E+0	1.512318E+0	1.471669E+0	1.491563E+0	1.489086E+0	1.434456E+0	1.586334E+0	1.455340E+0	1.470627E+0	1.455991E+0	1.424297E+0	1.429828E+0	1.427961E+0	1.499625E+0	1.503818E+0	1.446222E+0	1.495586E+0	1.370630E+0	1.461554E+0	1.489900E+0	1.429455E+0	1.479288E+0	1.467562E+0	1.501023E+0	1.459242E+0	1.522025E+0	1.416865E+0	1.502146E+0	1.477746E+0	1.488357E+0	1.469109E+0	1.518125E+0	1.425387E+0	1.556473E+0	1.483614E+0	1.529585E+0	1.449787E+0	1.468574E+0	1.467548E+0	1.501917E+0	1.488789E+0	1.484077E+0	1.458974E+0	1.486494E+0	1.424515E+0	1.445132E+0
5.450150E+2	1.373232E+0	1.371228E+0	1.433510E+0	1.389976E+0	1.396301E+0	1.409164E+0	1.404786E+0	1.407317E+0	1.408492E+0	1.353899E+0	1.400659E+0	1.317275E+0	1.383594E+0	1.382297E+0	1.398261E+0	1.431445E+0	1.378895E+0	1.377133E+0	1.425658E+0	1.396089E+0	1.439416E+0	1.380521E+0	1.379673E+0	1.395523E+0	1.428892E+0	1.333680E+0	1.402624E+0	1.418514E+0	1.486300E+0	1.407647E+0	1.418327E+0	1.386267E+0	1.335848E+0	1.313042E+0	1.398290E+0	1.376310E+0	1.388647E+0	1.339434E+0	1.426289E+0	1.352660E+0	1.414992E+0	1.329039E+0	1.381020E+0	1.399390E+0	1.344363E+0	1.284559E+0	1.366679E+0	1.418718E+0	1.390960E+0	1.356677E+0	1.471646E+0	1.466344E+0	1.327661E+0	1.423698E+0	1.311634E+0	1.395501E+0	1.360214E+0	1.433593E+0	1.459251E+0	1.394070E+0	1.402740E+0	1.410810E+0	1.372146E+0	1.379130E+0	1.435433E+0	1.349614E+0	1.385069E+0	1.440520E+0	1.345420E+0	1.373760E+0	1.351588E+0	1.398175E+0	1.415698E+0	1.374086E+0	1.439092E+0	1.362497E+0	1.385390E+0	1.368019E+0	1.437815E+0	1.379569E+0	1.397606E+0	1.398548E+0	1.434401E+0	1.371606E+0	1.352780E+0	1.321120E+0	1.415086E+0	1.328584E+0	1.324285E+0	1.324074E+0	1.387837E+0	1.408180E+0	1.414393E+0	1.322308E+0	1.416915E+0	1.348049E+0	1.401799E+0	1.375419E+0	1.327446E+0	1.402315E+0	1.395147E+0	1.382858E+0	1.402680E+0	1.400841E+0	1.389979E+0	1.317694E+0	1.443460E+0	1.400264E+0	1.382981E+0	1.354853E+0	1.384577E+0	1.344121E+0	1.349471E+0	1.374854E+0	1.369318E+0	1.374437E+0	1.375801E+0	1.390444E+0	1.322557E+0	1.358812E+0	1.329377E+0	1.354697E+0	1.364216E+0	1.349945E+0	1.360492E+0	1.349528E+0	1.412638E+0	1.350549E+0	1.335958E+0	1.360128E+0	1.393122E+0	1.369809E+0	1.377146E+0	1.399285E+0	1.351601E+0	1.400686E+0	1.411526E+0	1.388993E+0	1.362261E+0	1.347125E+0	1.361600E+0	1.310911E+0	1.389683E+0	1.368132E+0	1.365046E+0	1.352409E+0	1.341600E+0	1.363896E+0	1.421018E+0	1.356608E+0	1.326378E+0	1.367347E+0	1.386851E+0	1.382051E+0	1.404131E+0	1.356781E+0	1.415279E+0	1.351602E+0	1.392155E+0	1.403427E+0	1.354947E+0	1.333795E+0	1.398185E+0	1.351318E+0	1.408022E+0	1.350598E+0	1.334604E+0	1.398376E+0	1.368114E+0
5.452580E+2	1.447903E+0	1.324323E+0	1.401007E+0	1.395336E+0	1.359034E+0	1.360878E+0	1.341235E+0	1.368411E+0	1.375603E+0	1.383352E+0	1.395056E+0	1.390603E+0	1.412551E+0	1.399079E+0	1.330214E+0	1.390152E+0	1.387640E+0	1.334334E+0	1.343616E+0	1.353965E+0	1.382484E+0	1.383405E+0	1.339637E+0	1.330512E+0	1.394773E+0	1.394165E+0	1.367417E+0	1.403215E+0	1.372814E+0	1.328942E+0	1.323039E+0	1.421605E+0	1.301927E+0	1.320386E+0	1.368061E+0	1.398452E+0	1.417058E+0	1.281568E+0	1.355376E+0	1.282480E+0	1.345187E+0	1.368513E+0	1.349344E+0	1.342829E+0	1.308582E+0	1.332347E+0	1.396621E+0	1.380068E+0	1.345456E+0	1.332314E+0	1.318935E+0	1.448606E+0	1.316510E+0	1.337776E+0	1.367298E+0	1.398386E+0	1.404701E+0	1.345432E+0	1.393499E+0	1.384204E+0	1.282816E+0	1.376875E+0	1.380851E+0	1.379193E+0	1.349494E+0	1.360157E+0	1.323114E+0	1.328018E+0	1.306727E+0	1.315888E+0	1.351584E+0	1.380289E+0	1.361901E+0	1.396263E+0	1.409428E+0	1.362769E+0	1.309805E+0	1.439984E+0	1.410928E+0	1.415589E+0	1.330417E+0	1.383832E+0	1.289078E+0	1.360305E+0	1.372720E+0	1.306096E+0	1.326831E+0	1.350379E+0	1.385243E+0	1.366108E+0	1.323344E+0	1.352084E+0	1.384637E+0	1.325017E+0	1.363603E+0	1.415399E+0	1.358055E+0	1.394075E+0	1.330734E+0	1.330919E+0	1.367527E+0	1.389558E+0	1.323380E+0	1.439838E+0	1.445413E+0	1.351914E+0	1.399263E+0	1.377973E+0	1.288722E+0	1.374835E+0	1.349322E+0	1.309989E+0	1.332593E+0	1.344769E+0	1.310792E+0	1.374420E+0	1.333555E+0	1.354704E+0	1.347881E+0	1.347666E+0	1.344593E+0	1.405752E+0	1.344664E+0	1.373401E+0	1.375338E+0	1.342207E+0	1.368827E+0	1.340948E+0	1.337706E+0	1.355763E+0	1.330883E+0	1.369910E+0	1.346752E+0	1.321781E+0	1.370818E+0	1.347718E+0	1.433656E+0	1.365898E+0	1.344334E+0	1.395920E+0	1.320913E+0	1.293243E+0	1.395449E+0	1.389613E+0	1.361089E+0	1.329465E+0	1.335764E+0	1.349550E+0	1.322291E+0	1.321098E+0	1.345924E+0	1.314776E+0	1.375422E+0	1.316725E+0	1.344018E+0	1.369955E+0	1.351118E+0	1.315713E+0	1.390135E+0	1.357380E+0	1.345343E+0	1.289261E+0	1.395144E+0	1.366146E+0	1.410275E+0	1.343254E+0	1.382414E+0	1.342639E+0	1.405221E+0
5.455290E+2	1.326257E+0	1.323155E+0	1.305880E+0	1.328746E+0	1.291837E+0	1.327878E+0	1.335233E+0	1.298964E+0	1.311346E+0	1.267882E+0	1.306403E+0	1.337564E+0	1.325223E+0	1.343929E+0	1.285440E+0	1.321537E+0	1.305627E+0	1.376127E+0	1.297156E+0	1.395979E+0	1.376615E+0	1.322188E+0	1.337412E+0	1.312008E+0	1.283723E+0	1.320326E+0	1.317150E+0	1.364422E+0	1.368498E+0	1.318238E+0	1.303478E+0	1.308734E+0	1.345845E+0	1.303004E+0	1.329449E+0	1.296968E+0	1.381041E+0	1.302341E+0	1.338044E+0	1.284020E+0	1.358751E+0	1.312253E+0	1.306386E+0	1.322442E+0	1.303359E+0	1.296277E+0	1.346345E+0	1.364895E+0	1.336343E+0	1.324083E+0	1.311154E+0	1.334829E+0	1.333389E+0	1.317222E+0	1.253148E+0	1.298231E+0	1.353200E+0	1.340868E+0	1.254274E+0	1.285846E+0	1.282717E+0	1.327594E+0	1.316117E+0	1.343369E+0	1.305808E+0	1.362360E+0	1.300700E+0	1.385992E+0	1.307905E+0	1.276024E+0	1.272135E+0	1.360088E+0	1.321445E+0	1.308862E+0	1.312284E+0	1.331488E+0	1.280515E+0	1.299330E+0	1.367958E+0	1.330455E+0	1.335250E+0	1.309249E+0	1.320559E+0	1.373766E+0	1.309230E+0	1.231324E+0	1.370759E+0	1.308694E+0	1.303595E+0	1.274449E+0	1.300213E+0	1.235211E+0	1.293066E+0	1.350405E+0	1.295993E+0	1.359345E+0	1.295296E+0	1.304729E+0	1.310750E+0	1.291238E+0	1.261507E+0	1.326788E+0	1.279371E+0	1.354943E+0	1.383616E+0	1.267754E+0	1.332758E+0	1.346796E+0	1.288692E+0	1.279706E+0	1.256762E+0	1.237069E+0	1.256174E+0	1.314207E+0	1.329090E+0	1.248018E+0	1.342753E+0	1.359340E+0	1.320016E+0	1.269312E+0	1.270012E+0	1.362672E+0	1.326256E+0	1.297418E+0	1.306324E+0	1.345737E+0	1.283940E+0	1.309766E+0	1.296004E+0	1.297986E+0	1.311816E+0	1.323014E+0	1.376409E+0	1.251244E+0	1.297849E+0	1.281275E+0	1.307447E+0	1.274306E+0	1.257020E+0	1.314958E+0	1.355513E+0	1.272246E+0	1.313036E+0	1.280551E+0	1.338228E+0	1.290302E+0	1.271371E+0	1.264734E+0	1.305298E+0	1.284453E+0	1.291278E+0	1.257537E+0	1.337095E+0	1.286991E+0	1.297267E+0	1.314815E+0	1.296986E+0	1.323905E+0	1.376301E+0	1.292165E+0	1.289086E+0	1.232112E+0	1.356286E+0	1.302686E+0	1.323631E+0	1.273477E+0	1.252043E+0	1.343153E+0	1.425709E+0
5.457620E+2	1.267734E+0	1.241543E+0	1.231779E+0	1.229351E+0	1.272150E+0	1.263728E+0	1.253969E+0	1.239738E+0	1.241194E+0	1.247332E+0	1.248482E+0	1.220462E+0	1.257175E+0	1.236435E+0	1.219187E+0	1.297076E+0	1.254815E+0	1.265403E+0	1.259035E+0	1.312391E+0	1.287269E+0	1.261544E+0	1.247223E+0	1.216794E+0	1.235314E+0	1.210598E+0	1.202234E+0	1.318776E+0	1.300538E+0	1.235797E+0	1.190115E+0	1.274790E+0	1.250211E+0	1.177571E+0	1.211497E+0	1.257519E+0	1.246228E+0	1.196312E+0	1.180219E+0	1.220175E+0	1.244662E+0	1.271076E+0	1.247219E+0	1.282310E+0	1.233615E+0	1.233489E+0	1.254401E+0	1.230558E+0	1.212082E+0	1.303208E+0	1.248561E+0	1.273295E+0	1.228115E+0	1.266255E+0	1.224696E+0	1.269614E+0	1.271712E+0	1.246806E+0	1.258568E+0	1.192293E+0	1.233908E+0	1.259116E+0	1.245440E+0	1.198647E+0	1.283561E+0	1.293209E+0	1.219729E+0	1.259008E+0	1.205471E+0	1.240959E+0	1.212617E+0	1.288222E+0	1.242878E+0	1.268833E+0	1.253125E+0	1.249086E+0	1.259481E+0	1.215023E+0	1.257817E+0	1.275968E+0	1.265160E+0	1.256426E+0	1.216663E+0	1.271506E+0	1.253272E+0	1.207947E+0	1.291940E+0	1.261921E+0	1.240961E+0	1.265867E+0	1.197807E+0	1.238707E+0	1.166788E+0	1.217373E+0	1.267980E+0	1.246204E+0	1.232275E+0	1.258796E+0	1.259208E+0	1.248102E+0	1.270791E+0	1.261231E+0	1.231356E+0	1.240602E+0	1.210345E+0	1.221916E+0	1.271677E+0	1.205491E+0	1.206044E+0	1.234314E+0	1.229719E+0	1.226395E+0	1.181888E+0	1.248361E+0	1.232928E+0	1.224570E+0	1.201092E+0	1.171534E+0	1.211229E+0	1.217382E+0	1.250535E+0	1.283348E+0	1.230813E+0	1.293709E+0	1.255145E+0	1.212524E+0	1.256553E+0	1.250508E+0	1.200854E+0	1.242740E+0	1.231578E+0	1.248297E+0	1.234593E+0	1.199776E+0	1.186628E+0	1.233161E+0	1.273040E+0	1.262782E+0	1.135107E+0	1.237391E+0	1.221898E+0	1.220743E+0	1.234367E+0	1.219906E+0	1.217004E+0	1.260721E+0	1.208873E+0	1.218139E+0	1.190017E+0	1.232364E+0	1.203298E+0	1.203481E+0	1.221613E+0	1.224959E+0	1.257365E+0	1.165347E+0	1.215088E+0	1.216142E+0	1.255135E+0	1.249154E+0	1.225045E+0	1.262654E+0	1.254916E+0	1.253762E+0	1.249298E+0	1.234342E+0	1.208970E+0	1.250835E+0	1.221352E+0
5.460060E+2	1.132239E+0	1.154866E+0	1.186943E+0	1.154873E+0	1.164276E+0	1.164623E+0	1.099822E+0	1.146986E+0	1.093072E+0	1.115728E+0	1.141914E+0	1.134957E+0	1.161799E+0	1.162708E+0	1.124568E+0	1.171559E+0	1.156222E+0	1.152190E+0	1.094083E+0	1.202786E+0	1.165794E+0	1.151210E+0	1.155375E+0	1.077562E+0	1.125984E+0	1.082234E+0	1.123359E+0	1.218928E+0	1.128616E+0	1.169851E+0	1.180741E+0	1.151993E+0	1.156869E+0	1.163388E+0	1.165518E+0	1.151529E+0	1.176211E+0	1.200668E+0	1.124543E+0	1.116164E+0	1.143865E+0	1.162201E+0	1.202207E+0	1.160584E+0	1.153256E+0	1.117929E+0	1.189802E+0	1.165778E+0	1.145391E+0	1.149464E+0	1.202443E+0	1.201185E+0	1.190743E+0	1.192089E+0	1.101649E+0	1.188016E+0	1.150400E+0	1.173984E+0	1.180705E+0	1.154904E+0	1.127350E+0	1.142447E+0	1.135983E+0	1.200016E+0	1.220600E+0	1.189131E+0	1.127669E+0	1.147361E+0	1.131564E+0	1.159810E+0	1.110104E+0	1.179965E+0	1.148923E+0	1.204070E+0	1.194320E+0	1.215541E+0	1.122626E+0	1.117831E+0	1.145280E+0	1.173892E+0	1.114683E+0	1.201568E+0	1.130148E+0	1.249918E+0	1.109099E+0	1.173151E+0	1.138139E+0	1.190042E+0	1.134032E+0	1.176465E+0	1.122512E+0	1.135949E+0	1.172320E+0	1.152684E+0	1.179614E+0	1.152006E+0	1.112087E+0	1.189962E+0	1.087141E+0	1.187296E+0	1.171388E+0	1.150243E+0	1.139077E+0	1.159276E+0	1.146264E+0	1.098500E+0	1.170967E+0	1.133049E+0	1.118221E+0	1.146498E+0	1.095164E+0	1.191244E+0	1.124017E+0	1.165375E+0	1.095523E+0	1.113083E+0	1.150079E+0	1.136031E+0	1.124712E+0	1.136685E+0	1.127455E+0	1.219798E+0	1.124130E+0	1.197837E+0	1.138649E+0	1.158993E+0	1.182898E+0	1.147875E+0	1.045851E+0	1.115036E+0	1.105361E+0	1.140355E+0	1.102145E+0	1.100359E+0	1.130258E+0	1.126980E+0	1.195322E+0	1.115345E+0	1.129386E+0	1.135718E+0	1.127451E+0	1.155623E+0	1.138529E+0	1.131363E+0	1.172548E+0	1.176347E+0	1.112830E+0	1.117651E+0	1.158890E+0	1.123197E+0	1.114945E+0	1.114324E+0	1.127814E+0	1.123359E+0	1.123301E+0	1.091559E+0	1.128603E+0	1.164196E+0	1.157846E+0	1.165817E+0	1.157675E+0	1.095304E+0	1.110479E+0	1.130862E+0	1.187821E+0	1.181317E+0	1.133255E+0	1.185177E+0	1.194101E+0
5.467660E+2	1.218658E+0	1.187714E+0	1.228472E+0	1.217907E+0	1.201912E+0	1.227720E+0	1.176527E+0	1.212769E+0	1.238141E+0	1.152301E+0	1.179644E+0	1.201041E+0	1.189353E+0	1.225934E+0	1.191798E+0	1.179469E+0	1.204977E+0	1.197539E+0	1.120766E+0	1.218672E+0	1.167901E+0	1.186491E+0	1.189956E+0	1.188588E+0	1.175610E+0	1.150289E+0	1.221018E+0	1.207208E+0	1.244992E+0	1.251323E+0	1.233117E+0	1.218005E+0	1.162255E+0	1.125733E+0	1.143981E+0	1.209256E+0	1.224545E+0	1.165453E+0	1.205954E+0	1.221632E+0	1.215358E+0	1.227346E+0	1.190012E+0	1.214166E+0	1.182907E+0	1.200622E+0	1.206640E+0	1.213528E+0	1.186600E+0	1.225965E+0	1.221648E+0	1.234836E+0	1.127789E+0	1.209778E+0	1.172011E+0	1.219467E+0	1.188568E+0	1.193208E+0	1.199638E+0	1.211404E+0	1.173365E+0	1.180360E+0	1.207027E+0	1.230964E+0	1.228981E+0	1.161997E+0	1.150752E+0	1.249467E+0	1.178420E+0	1.224503E+0	1.166909E+0	1.235209E+0	1.196152E+0	1.214437E+0	1.213099E+0	1.240545E+0	1.219287E+0	1.277814E+0	1.204732E+0	1.157475E+0	1.173727E+0	1.204268E+0	1.177766E+0	1.182345E+0	1.229323E+0	1.172355E+0	1.213024E+0	1.250321E+0	1.213581E+0	1.156981E+0	1.141262E+0	1.197459E+0	1.233772E+0	1.186421E+0	1.189321E+0	1.232871E+0	1.175256E+0	1.167049E+0	1.214565E+0	1.203617E+0	1.148682E+0	1.208664E+0	1.144681E+0	1.225146E+0	1.182226E+0	1.201258E+0	1.200546E+0	1.227868E+0	1.179345E+0	1.164736E+0	1.191228E+0	1.187679E+0	1.148505E+0	1.214219E+0	1.187515E+0	1.150543E+0	1.189943E+0	1.163249E+0	1.226539E+0	1.177347E+0	1.086142E+0	1.206497E+0	1.233546E+0	1.183338E+0	1.141465E+0	1.187849E+0	1.166092E+0	1.178018E+0	1.155508E+0	1.184340E+0	1.129289E+0	1.224773E+0	1.140717E+0	1.156224E+0	1.198345E+0	1.212833E+0	1.246034E+0	1.166326E+0	1.213767E+0	1.195978E+0	1.175708E+0	1.156827E+0	1.174419E+0	1.197136E+0	1.163405E+0	1.208336E+0	1.218826E+0	1.115372E+0	1.156835E+0	1.205283E+0	1.183233E+0	1.124700E+0	1.179897E+0	1.210410E+0	1.187283E+0	1.168133E+0	1.237775E+0	1.242618E+0	1.243275E+0	1.179198E+0	1.205695E+0	1.153543E+0	1.187031E+0	1.216420E+0	1.250780E+0	1.190515E+0	1.163890E+0	1.164684E+0	1.200600E+0
5.475180E+2	1.293032E+0	1.266055E+0	1.269217E+0	1.331108E+0	1.274672E+0	1.263315E+0	1.317120E+0	1.319890E+0	1.271804E+0	1.353816E+0	1.267215E+0	1.280153E+0	1.307169E+0	1.290303E+0	1.217624E+0	1.330286E+0	1.279737E+0	1.237915E+0	1.242314E+0	1.306442E+0	1.264747E+0	1.288092E+0	1.288097E+0	1.330659E+0	1.279133E+0	1.288911E+0	1.322582E+0	1.308459E+0	1.317693E+0	1.293539E+0	1.267821E+0	1.325206E+0	1.232876E+0	1.240541E+0	1.316359E+0	1.259942E+0	1.304205E+0	1.295388E+0	1.281565E+0	1.319863E+0	1.336505E+0	1.259356E+0	1.300076E+0	1.275994E+0	1.258495E+0	1.271446E+0	1.286114E+0	1.305085E+0	1.264547E+0	1.286907E+0	1.322745E+0	1.304772E+0	1.279764E+0	1.308348E+0	1.258538E+0	1.332119E+0	1.261091E+0	1.292646E+0	1.237606E+0	1.318758E+0	1.277584E+0	1.338319E+0	1.241877E+0	1.295922E+0	1.241794E+0	1.290186E+0	1.229819E+0	1.316421E+0	1.269363E+0	1.224742E+0	1.289384E+0	1.326864E+0	1.327563E+0	1.291028E+0	1.276337E+0	1.308257E+0	1.291461E+0	1.314412E+0	1.257581E+0	1.302878E+0	1.296555E+0	1.275793E+0	1.231330E+0	1.289076E+0	1.297640E+0	1.239812E+0	1.286113E+0	1.286686E+0	1.234573E+0	1.263582E+0	1.316265E+0	1.235484E+0	1.259508E+0	1.236459E+0	1.283858E+0	1.303427E+0	1.235652E+0	1.278148E+0	1.209507E+0	1.269267E+0	1.297901E+0	1.315851E+0	1.304489E+0	1.274528E+0	1.277292E+0	1.288180E+0	1.299606E+0	1.267714E+0	1.229090E+0	1.243740E+0	1.242272E+0	1.281557E+0	1.245135E+0	1.274116E+0	1.251166E+0	1.317296E+0	1.305597E+0	1.322210E+0	1.275367E+0	1.259850E+0	1.217431E+0	1.281217E+0	1.299505E+0	1.264436E+0	1.291246E+0	1.256773E+0	1.289391E+0	1.310438E+0	1.255699E+0	1.228386E+0	1.240386E+0	1.292321E+0	1.294663E+0	1.223654E+0	1.254123E+0	1.293906E+0	1.264916E+0	1.216335E+0	1.322473E+0	1.272124E+0	1.220334E+0	1.244404E+0	1.289430E+0	1.327450E+0	1.284686E+0	1.250232E+0	1.272039E+0	1.279652E+0	1.279680E+0	1.279333E+0	1.275616E+0	1.231914E+0	1.281601E+0	1.230067E+0	1.272739E+0	1.213948E+0	1.245217E+0	1.302424E+0	1.316066E+0	1.301984E+0	1.289779E+0	1.274913E+0	1.283232E+0	1.216345E+0	1.290123E+0	1.298421E+0	1.233968E+0	1.276216E+0	1.309973E+0
5.482550E+2	1.409037E+0	1.320908E+0	1.375417E+0	1.391257E+0	1.368752E+0	1.433986E+0	1.391919E+0	1.350900E+0	1.410572E+0	1.430205E+0	1.457518E+0	1.263245E+0	1.430144E+0	1.374711E+0	1.375164E+0	1.367011E+0	1.391852E+0	1.412574E+0	1.378337E+0	1.431640E+0	1.355671E+0	1.389690E+0	1.416102E+0	1.332362E+0	1.406057E+0	1.384140E+0	1.405848E+0	1.405291E+0	1.412202E+0	1.375544E+0	1.389561E+0	1.386097E+0	1.419624E+0	1.308294E+0	1.371373E+0	1.362317E+0	1.363279E+0	1.333123E+0	1.356924E+0	1.349716E+0	1.415883E+0	1.375376E+0	1.398919E+0	1.405248E+0	1.410634E+0	1.354214E+0	1.361219E+0	1.433280E+0	1.408828E+0	1.375184E+0	1.445991E+0	1.425653E+0	1.390882E+0	1.390289E+0	1.332828E+0	1.367443E+0	1.385877E+0	1.367530E+0	1.345458E+0	1.374731E+0	1.382397E+0	1.390976E+0	1.429148E+0	1.408412E+0	1.343803E+0	1.399518E+0	1.339884E+0	1.431502E+0	1.396276E+0	1.360440E+0	1.377718E+0	1.369796E+0	1.375831E+0	1.354875E+0	1.364335E+0	1.398206E+0	1.367413E+0	1.432859E+0	1.434380E+0	1.364298E+0	1.391964E+0	1.406719E+0	1.373061E+0	1.378019E+0	1.361236E+0	1.361214E+0	1.345842E+0	1.432744E+0	1.413556E+0	1.388806E+0	1.339090E+0	1.289094E+0	1.355725E+0	1.380065E+0	1.340441E+0	1.382658E+0	1.389130E+0	1.349216E+0	1.338769E+0	1.407878E+0	1.362580E+0	1.335612E+0	1.359450E+0	1.400827E+0	1.345575E+0	1.328587E+0	1.353750E+0	1.345401E+0	1.312599E+0	1.343449E+0	1.345401E+0	1.318244E+0	1.374592E+0	1.359164E+0	1.304868E+0	1.330341E+0	1.384866E+0	1.372141E+0	1.343441E+0	1.311606E+0	1.332292E+0	1.421412E+0	1.373360E+0	1.387643E+0	1.416108E+0	1.397666E+0	1.340642E+0	1.374921E+0	1.315757E+0	1.300940E+0	1.352459E+0	1.349412E+0	1.407152E+0	1.359576E+0	1.339972E+0	1.404397E+0	1.388846E+0	1.388722E+0	1.360591E+0	1.345087E+0	1.354642E+0	1.286129E+0	1.277138E+0	1.363133E+0	1.416832E+0	1.345182E+0	1.328133E+0	1.382010E+0	1.339451E+0	1.363803E+0	1.312124E+0	1.334645E+0	1.337835E+0	1.349077E+0	1.377187E+0	1.337388E+0	1.360380E+0	1.295373E+0	1.388397E+0	1.421285E+0	1.309106E+0	1.372922E+0	1.377266E+0	1.418334E+0	1.411402E+0	1.372401E+0	1.409535E+0	1.368746E+0	1.402079E+0
5.490380E+2	1.355323E+0	1.374023E+0	1.384520E+0	1.351835E+0	1.418591E+0	1.353832E+0	1.301498E+0	1.371399E+0	1.320760E+0	1.362684E+0	1.361579E+0	1.283231E+0	1.364183E+0	1.352133E+0	1.321757E+0	1.416895E+0	1.365634E+0	1.390137E+0	1.329857E+0	1.349708E+0	1.382424E+0	1.322115E+0	1.364269E+0	1.318046E+0	1.304297E+0	1.361167E+0	1.359844E+0	1.399758E+0	1.370036E+0	1.307933E+0	1.328552E+0	1.359959E+0	1.373377E+0	1.324545E+0	1.277843E+0	1.336419E+0	1.382759E+0	1.358788E+0	1.324095E+0	1.281904E+0	1.338644E+0	1.265209E+0	1.404734E+0	1.379967E+0	1.288444E+0	1.329246E+0	1.326610E+0	1.360852E+0	1.304748E+0	1.372447E+0	1.373178E+0	1.379927E+0	1.334550E+0	1.390845E+0	1.339251E+0	1.345541E+0	1.309256E+0	1.346356E+0	1.344229E+0	1.369242E+0	1.362654E+0	1.392435E+0	1.358666E+0	1.297521E+0	1.328034E+0	1.368033E+0	1.344998E+0	1.311253E+0	1.354643E+0	1.335960E+0	1.332811E+0	1.333796E+0	1.346413E+0	1.390256E+0	1.353637E+0	1.351486E+0	1.283399E+0	1.359497E+0	1.362850E+0	1.317107E+0	1.325521E+0	1.338784E+0	1.299225E+0	1.386902E+0	1.289448E+0	1.321876E+0	1.385462E+0	1.385128E+0	1.321281E+0	1.326740E+0	1.350317E+0	1.297864E+0	1.351260E+0	1.346103E+0	1.366426E+0	1.388727E+0	1.316981E+0	1.341220E+0	1.355908E+0	1.307572E+0	1.382594E+0	1.393300E+0	1.319666E+0	1.337306E+0	1.371560E+0	1.312675E+0	1.380653E+0	1.295752E+0	1.288484E+0	1.275160E+0	1.348887E+0	1.312602E+0	1.243196E+0	1.335694E+0	1.335450E+0	1.356589E+0	1.311527E+0	1.318080E+0	1.331514E+0	1.332747E+0	1.304568E+0	1.335765E+0	1.336859E+0	1.403985E+0	1.280665E+0	1.319087E+0	1.321388E+0	1.300987E+0	1.297154E+0	1.335798E+0	1.303786E+0	1.322146E+0	1.377031E+0	1.298846E+0	1.338499E+0	1.337424E+0	1.325112E+0	1.337469E+0	1.276336E+0	1.276249E+0	1.294653E+0	1.352493E+0	1.286471E+0	1.397199E+0	1.364515E+0	1.305845E+0	1.332779E+0	1.402928E+0	1.326296E+0	1.309701E+0	1.320171E+0	1.350342E+0	1.338398E+0	1.272014E+0	1.329349E+0	1.295442E+0	1.302549E+0	1.323952E+0	1.340457E+0	1.345248E+0	1.347263E+0	1.338997E+0	1.304959E+0	1.341574E+0	1.361257E+0	1.323007E+0	1.336871E+0	1.353610E+0	1.324537E+0
5.497790E+2	1.311618E+0	1.300341E+0	1.316435E+0	1.313676E+0	1.285295E+0	1.330191E+0	1.327241E+0	1.270445E+0	1.310108E+0	1.244533E+0	1.295315E+0	1.295518E+0	1.322733E+0	1.318104E+0	1.269643E+0	1.355818E+0	1.312237E+0	1.312950E+0	1.330047E+0	1.330292E+0	1.338397E+0	1.327867E+0	1.317286E+0	1.298945E+0	1.267214E+0	1.283504E+0	1.285158E+0	1.335475E+0	1.327857E+0	1.244370E+0	1.286814E+0	1.331516E+0	1.316469E+0	1.284871E+0	1.238993E+0	1.340787E+0	1.324704E+0	1.282318E+0	1.272727E+0	1.243326E+0	1.352103E+0	1.261848E+0	1.307420E+0	1.332142E+0	1.302182E+0	1.249024E+0	1.310829E+0	1.321738E+0	1.288098E+0	1.319906E+0	1.318375E+0	1.382472E+0	1.328462E+0	1.288146E+0	1.283826E+0	1.263941E+0	1.311292E+0	1.279469E+0	1.320562E+0	1.258521E+0	1.282523E+0	1.267888E+0	1.348592E+0	1.307574E+0	1.356718E+0	1.286480E+0	1.262344E+0	1.284353E+0	1.347943E+0	1.270770E+0	1.279488E+0	1.332253E+0	1.277013E+0	1.307114E+0	1.236888E+0	1.318215E+0	1.298717E+0	1.267091E+0	1.296280E+0	1.308688E+0	1.290303E+0	1.312368E+0	1.225600E+0	1.355852E+0	1.329492E+0	1.246096E+0	1.300667E+0	1.269514E+0	1.275107E+0	1.278562E+0	1.258074E+0	1.193452E+0	1.293911E+0	1.264348E+0	1.318851E+0	1.299119E+0	1.277478E+0	1.332594E+0	1.235533E+0	1.326846E+0	1.332950E+0	1.269180E+0	1.270344E+0	1.266665E+0	1.305479E+0	1.306366E+0	1.336186E+0	1.324538E+0	1.236015E+0	1.253049E+0	1.282794E+0	1.278880E+0	1.287424E+0	1.313099E+0	1.231596E+0	1.318679E+0	1.294499E+0	1.367128E+0	1.323869E+0	1.299672E+0	1.260729E+0	1.290673E+0	1.272413E+0	1.325392E+0	1.277931E+0	1.263328E+0	1.247271E+0	1.274868E+0	1.248857E+0	1.271316E+0	1.286286E+0	1.333021E+0	1.281806E+0	1.256641E+0	1.279121E+0	1.309200E+0	1.328461E+0	1.294658E+0	1.308112E+0	1.235478E+0	1.215623E+0	1.327085E+0	1.286651E+0	1.298952E+0	1.276875E+0	1.265364E+0	1.249077E+0	1.238856E+0	1.305316E+0	1.296406E+0	1.272229E+0	1.236475E+0	1.338191E+0	1.321465E+0	1.303589E+0	1.306748E+0	1.290158E+0	1.280962E+0	1.317379E+0	1.314646E+0	1.274739E+0	1.278265E+0	1.259610E+0	1.268524E+0	1.310209E+0	1.237036E+0	1.276223E+0	1.310270E+0	1.291424E+0
5.505060E+2	1.252427E+0	1.300511E+0	1.325152E+0	1.260803E+0	1.291192E+0	1.276721E+0	1.222964E+0	1.228026E+0	1.222435E+0	1.288123E+0	1.257728E+0	1.249632E+0	1.243927E+0	1.248180E+0	1.253949E+0	1.246537E+0	1.245144E+0	1.299991E+0	1.210721E+0	1.290889E+0	1.305302E+0	1.294125E+0	1.272523E+0	1.228252E+0	1.209069E+0	1.261838E+0	1.267808E+0	1.286448E+0	1.318485E+0	1.182060E+0	1.242076E+0	1.297557E+0	1.301103E+0	1.249493E+0	1.202954E+0	1.181062E+0	1.279264E+0	1.278430E+0	1.219327E+0	1.258877E+0	1.278828E+0	1.230891E+0	1.242722E+0	1.267554E+0	1.263829E+0	1.282527E+0	1.323417E+0	1.225637E+0	1.282190E+0	1.255195E+0	1.253657E+0	1.319881E+0	1.293037E+0	1.269753E+0	1.287811E+0	1.265481E+0	1.270096E+0	1.229097E+0	1.307246E+0	1.254000E+0	1.233827E+0	1.274880E+0	1.263672E+0	1.268582E+0	1.251776E+0	1.276113E+0	1.257633E+0	1.278920E+0	1.227345E+0	1.243329E+0	1.241432E+0	1.267311E+0	1.260232E+0	1.292021E+0	1.247160E+0	1.310019E+0	1.245915E+0	1.258284E+0	1.175908E+0	1.339264E+0	1.232517E+0	1.283444E+0	1.296680E+0	1.260215E+0	1.278408E+0	1.196676E+0	1.268669E+0	1.230056E+0	1.242511E+0	1.214590E+0	1.266383E+0	1.210893E+0	1.252429E+0	1.281179E+0	1.270528E+0	1.260588E+0	1.244562E+0	1.257811E+0	1.232405E+0	1.249564E+0	1.252118E+0	1.264444E+0	1.239054E+0	1.255178E+0	1.266643E+0	1.258381E+0	1.216532E+0	1.295573E+0	1.192057E+0	1.259722E+0	1.253026E+0	1.243196E+0	1.252532E+0	1.302615E+0	1.265191E+0	1.203757E+0	1.194795E+0	1.249552E+0	1.256749E+0	1.209536E+0	1.274580E+0	1.257394E+0	1.242055E+0	1.263921E+0	1.253856E+0	1.283914E+0	1.278190E+0	1.255570E+0	1.221096E+0	1.253093E+0	1.286978E+0	1.285750E+0	1.276756E+0	1.226825E+0	1.261454E+0	1.252566E+0	1.248495E+0	1.240261E+0	1.278194E+0	1.262924E+0	1.224074E+0	1.248849E+0	1.223450E+0	1.234894E+0	1.274862E+0	1.209263E+0	1.231988E+0	1.253416E+0	1.253065E+0	1.256502E+0	1.222300E+0	1.235540E+0	1.261835E+0	1.224735E+0	1.313712E+0	1.192707E+0	1.279946E+0	1.267625E+0	1.240552E+0	1.274989E+0	1.255584E+0	1.214116E+0	1.238589E+0	1.239035E+0	1.278531E+0	1.253465E+0	1.179869E+0	1.280681E+0	1.277789E+0
5.512570E+2	1.260682E+0	1.248682E+0	1.251702E+0	1.286219E+0	1.250225E+0	1.271724E+0	1.238574E+0	1.253495E+0	1.272277E+0	1.237360E+0	1.249610E+0	1.241099E+0	1.249914E+0	1.283376E+0	1.222135E+0	1.277181E+0	1.270178E+0	1.221124E+0	1.214059E+0	1.196596E+0	1.289062E+0	1.265339E+0	1.238074E+0	1.227241E+0	1.232545E+0	1.259949E+0	1.233210E+0	1.268155E+0	1.293720E+0	1.277028E+0	1.265611E+0	1.264719E+0	1.254209E+0	1.209585E+0	1.214071E+0	1.230459E+0	1.283476E+0	1.243374E+0	1.293819E+0	1.255094E+0	1.241264E+0	1.245112E+0	1.260617E+0	1.282010E+0	1.254910E+0	1.288015E+0	1.231235E+0	1.275472E+0	1.287432E+0	1.205171E+0	1.304775E+0	1.263584E+0	1.263809E+0	1.275977E+0	1.214204E+0	1.259026E+0	1.206757E+0	1.226322E+0	1.244774E+0	1.280362E+0	1.240621E+0	1.206021E+0	1.262805E+0	1.258098E+0	1.217575E+0	1.293724E+0	1.227040E+0	1.204684E+0	1.204122E+0	1.238177E+0	1.195918E+0	1.279811E+0	1.316338E+0	1.274061E+0	1.276919E+0	1.316631E+0	1.274813E+0	1.210969E+0	1.233142E+0	1.281963E+0	1.213915E+0	1.286053E+0	1.231037E+0	1.258693E+0	1.223525E+0	1.233455E+0	1.240706E+0	1.193413E+0	1.255350E+0	1.190546E+0	1.229549E+0	1.189782E+0	1.240105E+0	1.225844E+0	1.201019E+0	1.281557E+0	1.358121E+0	1.256724E+0	1.271479E+0	1.253945E+0	1.319389E+0	1.210315E+0	1.228909E+0	1.233166E+0	1.295533E+0	1.262643E+0	1.234501E+0	1.257668E+0	1.238700E+0	1.246234E+0	1.172743E+0	1.229639E+0	1.174234E+0	1.231764E+0	1.206137E+0	1.259521E+0	1.217324E+0	1.282989E+0	1.239526E+0	1.221716E+0	1.292351E+0	1.197809E+0	1.251084E+0	1.282617E+0	1.251518E+0	1.213818E+0	1.269883E+0	1.238293E+0	1.203039E+0	1.268709E+0	1.224067E+0	1.209846E+0	1.243853E+0	1.252541E+0	1.280735E+0	1.213291E+0	1.231607E+0	1.288176E+0	1.268528E+0	1.206641E+0	1.228760E+0	1.258716E+0	1.214213E+0	1.287605E+0	1.222090E+0	1.185517E+0	1.218907E+0	1.269463E+0	1.279840E+0	1.270810E+0	1.267968E+0	1.215114E+0	1.255945E+0	1.249591E+0	1.233784E+0	1.234991E+0	1.189303E+0	1.271731E+0	1.263207E+0	1.214478E+0	1.202522E+0	1.220489E+0	1.255029E+0	1.220743E+0	1.246103E+0	1.249221E+0	1.239531E+0	1.254430E+0	1.223763E+0
5.520100E+2	1.284084E+0	1.259147E+0	1.316911E+0	1.272419E+0	1.276285E+0	1.256920E+0	1.340261E+0	1.273048E+0	1.254608E+0	1.269888E+0	1.273900E+0	1.280752E+0	1.286951E+0	1.286287E+0	1.268850E+0	1.285863E+0	1.299013E+0	1.316681E+0	1.275063E+0	1.319174E+0	1.231857E+0	1.313192E+0	1.270464E+0	1.276725E+0	1.264202E+0	1.305117E+0	1.288281E+0	1.257887E+0	1.288765E+0	1.297541E+0	1.273573E+0	1.247939E+0	1.321275E+0	1.244819E+0	1.261284E+0	1.219004E+0	1.326424E+0	1.303469E+0	1.275514E+0	1.248406E+0	1.317223E+0	1.307215E+0	1.250306E+0	1.265312E+0	1.281566E+0	1.220357E+0	1.310254E+0	1.262348E+0	1.208902E+0	1.276722E+0	1.273824E+0	1.343458E+0	1.241619E+0	1.309926E+0	1.242175E+0	1.306255E+0	1.288138E+0	1.246016E+0	1.357575E+0	1.371872E+0	1.281935E+0	1.279137E+0	1.247508E+0	1.225331E+0	1.260951E+0	1.280483E+0	1.210878E+0	1.340986E+0	1.249247E+0	1.301289E+0	1.243086E+0	1.270267E+0	1.229657E+0	1.304569E+0	1.286173E+0	1.292858E+0	1.241947E+0	1.259350E+0	1.284469E+0	1.227306E+0	1.326204E+0	1.310335E+0	1.234765E+0	1.297162E+0	1.243430E+0	1.199850E+0	1.321569E+0	1.294880E+0	1.294693E+0	1.259599E+0	1.242429E+0	1.218992E+0	1.247285E+0	1.260991E+0	1.294830E+0	1.259329E+0	1.287002E+0	1.252344E+0	1.223459E+0	1.279284E+0	1.312490E+0	1.200749E+0	1.234686E+0	1.312810E+0	1.253310E+0	1.315515E+0	1.253543E+0	1.269440E+0	1.242842E+0	1.306872E+0	1.232591E+0	1.304417E+0	1.248436E+0	1.285419E+0	1.236193E+0	1.296767E+0	1.292997E+0	1.303740E+0	1.281754E+0	1.294498E+0	1.257657E+0	1.269858E+0	1.271354E+0	1.312242E+0	1.233002E+0	1.262959E+0	1.261164E+0	1.308905E+0	1.278914E+0	1.266066E+0	1.260840E+0	1.255139E+0	1.282219E+0	1.223409E+0	1.249839E+0	1.317485E+0	1.275699E+0	1.264597E+0	1.244308E+0	1.283978E+0	1.265930E+0	1.307153E+0	1.286913E+0	1.257831E+0	1.190705E+0	1.309677E+0	1.273375E+0	1.275936E+0	1.269274E+0	1.261721E+0	1.280762E+0	1.233018E+0	1.270090E+0	1.298571E+0	1.278471E+0	1.233828E+0	1.261768E+0	1.259215E+0	1.288649E+0	1.308082E+0	1.282187E+0	1.233545E+0	1.269703E+0	1.244484E+0	1.269369E+0	1.276234E+0	1.255769E+0	1.296688E+0	1.204069E+0
5.527590E+2	1.301393E+0	1.244262E+0	1.320923E+0	1.267360E+0	1.244690E+0	1.277316E+0	1.190533E+0	1.277445E+0	1.275109E+0	1.223713E+0	1.249674E+0	1.284496E+0	1.307560E+0	1.221812E+0	1.209476E+0	1.251924E+0	1.285910E+0	1.211902E+0	1.194209E+0	1.288367E+0	1.291286E+0	1.292918E+0	1.233457E+0	1.200928E+0	1.274976E+0	1.239916E+0	1.241773E+0	1.254405E+0	1.257473E+0	1.249146E+0	1.217697E+0	1.262000E+0	1.226747E+0	1.233026E+0	1.223999E+0	1.245754E+0	1.297234E+0	1.261478E+0	1.253527E+0	1.194362E+0	1.247401E+0	1.267492E+0	1.254033E+0	1.178998E+0	1.204577E+0	1.229358E+0	1.280183E+0	1.285023E+0	1.268626E+0	1.270488E+0	1.287043E+0	1.229896E+0	1.241897E+0	1.291163E+0	1.255901E+0	1.304999E+0	1.267272E+0	1.236751E+0	1.317398E+0	1.245889E+0	1.252227E+0	1.294847E+0	1.248528E+0	1.260426E+0	1.296886E+0	1.319289E+0	1.218448E+0	1.276710E+0	1.265620E+0	1.242743E+0	1.225368E+0	1.210650E+0	1.285059E+0	1.255613E+0	1.281867E+0	1.259600E+0	1.243646E+0	1.214314E+0	1.258765E+0	1.242774E+0	1.257937E+0	1.266800E+0	1.236320E+0	1.225951E+0	1.262363E+0	1.208918E+0	1.279813E+0	1.234402E+0	1.306703E+0	1.202146E+0	1.232883E+0	1.245189E+0	1.250091E+0	1.234959E+0	1.220565E+0	1.309405E+0	1.216991E+0	1.328101E+0	1.226684E+0	1.258712E+0	1.227484E+0	1.292896E+0	1.191144E+0	1.242540E+0	1.277523E+0	1.311940E+0	1.229570E+0	1.252987E+0	1.200909E+0	1.212321E+0	1.201024E+0	1.198946E+0	1.248265E+0	1.250198E+0	1.198000E+0	1.183770E+0	1.223599E+0	1.194440E+0	1.211242E+0	1.246380E+0	1.201483E+0	1.280841E+0	1.274091E+0	1.260727E+0	1.207795E+0	1.261643E+0	1.200075E+0	1.264200E+0	1.209027E+0	1.203712E+0	1.264295E+0	1.299207E+0	1.287231E+0	1.268335E+0	1.188081E+0	1.270746E+0	1.268106E+0	1.247558E+0	1.235918E+0	1.242482E+0	1.266291E+0	1.256565E+0	1.232271E+0	1.281977E+0	1.257298E+0	1.173522E+0	1.231124E+0	1.268354E+0	1.280321E+0	1.232624E+0	1.198768E+0	1.179593E+0	1.241465E+0	1.228948E+0	1.251901E+0	1.232982E+0	1.280741E+0	1.302402E+0	1.269788E+0	1.268553E+0	1.253430E+0	1.200372E+0	1.208788E+0	1.255389E+0	1.278154E+0	1.252047E+0	1.249692E+0	1.223887E+0	1.273907E+0
5.534940E+2	1.222264E+0	1.170518E+0	1.196861E+0	1.190602E+0	1.201042E+0	1.242078E+0	1.165511E+0	1.162924E+0	1.134109E+0	1.192649E+0	1.197304E+0	1.190337E+0	1.192230E+0	1.142127E+0	1.180178E+0	1.230975E+0	1.160335E+0	1.151665E+0	1.163465E+0	1.185877E+0	1.198628E+0	1.156169E+0	1.143085E+0	1.176186E+0	1.231908E+0	1.138937E+0	1.169327E+0	1.199365E+0	1.168651E+0	1.173277E+0	1.144273E+0	1.155320E+0	1.167600E+0	1.153708E+0	1.222081E+0	1.147342E+0	1.189583E+0	1.149353E+0	1.168481E+0	1.136858E+0	1.198028E+0	1.176730E+0	1.180586E+0	1.225618E+0	1.148523E+0	1.164308E+0	1.170153E+0	1.147675E+0	1.137398E+0	1.215426E+0	1.184661E+0	1.181787E+0	1.158935E+0	1.212920E+0	1.146991E+0	1.177581E+0	1.204430E+0	1.119444E+0	1.195051E+0	1.181094E+0	1.162048E+0	1.170924E+0	1.192880E+0	1.193187E+0	1.197674E+0	1.202082E+0	1.142033E+0	1.159058E+0	1.221991E+0	1.162818E+0	1.159790E+0	1.175285E+0	1.175309E+0	1.189088E+0	1.188481E+0	1.220599E+0	1.206054E+0	1.143901E+0	1.170317E+0	1.153490E+0	1.163277E+0	1.173525E+0	1.160044E+0	1.210261E+0	1.179207E+0	1.144568E+0	1.174266E+0	1.155124E+0	1.185235E+0	1.134296E+0	1.186332E+0	1.158515E+0	1.201956E+0	1.154233E+0	1.178422E+0	1.177855E+0	1.148847E+0	1.206612E+0	1.137938E+0	1.154916E+0	1.196524E+0	1.171115E+0	1.175513E+0	1.172573E+0	1.128812E+0	1.112135E+0	1.187774E+0	1.152612E+0	1.182477E+0	1.181271E+0	1.135905E+0	1.178608E+0	1.120080E+0	1.130620E+0	1.170537E+0	1.144152E+0	1.218334E+0	1.164994E+0	1.198279E+0	1.155281E+0	1.172580E+0	1.212217E+0	1.187100E+0	1.195291E+0	1.141377E+0	1.171144E+0	1.149451E+0	1.177986E+0	1.175115E+0	1.165243E+0	1.172810E+0	1.163940E+0	1.182015E+0	1.186615E+0	1.161491E+0	1.196663E+0	1.159065E+0	1.204516E+0	1.147212E+0	1.181223E+0	1.169138E+0	1.164114E+0	1.159884E+0	1.154058E+0	1.212772E+0	1.153945E+0	1.181207E+0	1.165312E+0	1.152145E+0	1.172943E+0	1.147670E+0	1.163782E+0	1.175054E+0	1.176109E+0	1.240312E+0	1.158081E+0	1.193212E+0	1.175848E+0	1.191609E+0	1.154207E+0	1.184098E+0	1.140139E+0	1.137338E+0	1.180608E+0	1.177166E+0	1.156506E+0	1.135297E+0	1.134588E+0	1.129270E+0
5.542580E+2	1.154405E+0	1.132481E+0	1.147835E+0	1.098032E+0	1.146818E+0	1.124337E+0	1.095654E+0	1.149200E+0	1.115446E+0	1.108341E+0	1.097025E+0	1.128222E+0	1.179116E+0	1.174520E+0	1.119743E+0	1.152126E+0	1.155734E+0	1.134871E+0	1.105860E+0	1.116751E+0	1.137461E+0	1.170022E+0	1.120850E+0	1.080370E+0	1.134980E+0	1.096143E+0	1.195835E+0	1.153694E+0	1.177088E+0	1.118375E+0	1.137758E+0	1.131270E+0	1.125970E+0	1.129601E+0	1.092741E+0	1.075876E+0	1.165549E+0	1.146853E+0	1.131693E+0	1.124660E+0	1.174108E+0	1.084488E+0	1.118461E+0	1.118259E+0	1.137689E+0	1.095501E+0	1.118826E+0	1.141458E+0	1.097182E+0	1.162482E+0	1.149240E+0	1.073265E+0	1.176804E+0	1.140433E+0	1.128362E+0	1.206386E+0	1.200199E+0	1.180060E+0	1.176390E+0	1.154182E+0	1.081095E+0	1.108073E+0	1.110929E+0	1.099691E+0	1.087597E+0	1.126717E+0	1.141374E+0	1.106614E+0	1.110065E+0	1.129519E+0	1.045773E+0	1.120213E+0	1.108729E+0	1.139005E+0	1.145998E+0	1.140167E+0	1.117655E+0	1.131988E+0	1.113892E+0	1.157075E+0	1.175856E+0	1.154825E+0	1.131536E+0	1.141014E+0	1.136973E+0	1.121714E+0	1.152625E+0	1.135250E+0	1.074172E+0	1.105577E+0	1.105857E+0	1.108946E+0	1.136351E+0	1.112629E+0	1.109329E+0	1.107398E+0	1.099969E+0	1.120042E+0	1.112210E+0	1.163374E+0	1.143803E+0	1.133805E+0	1.081962E+0	1.095804E+0	1.158268E+0	1.121294E+0	1.195954E+0	1.133558E+0	1.151590E+0	1.180575E+0	1.123115E+0	1.088933E+0	1.095069E+0	1.116406E+0	1.111217E+0	1.147711E+0	1.156999E+0	1.127167E+0	1.098133E+0	1.129719E+0	1.095412E+0	1.142255E+0	1.124282E+0	1.129311E+0	1.121474E+0	1.144644E+0	1.168048E+0	1.077096E+0	1.046060E+0	1.122406E+0	1.094593E+0	1.106191E+0	1.181979E+0	1.139667E+0	1.173231E+0	1.130335E+0	1.112271E+0	1.166824E+0	1.166094E+0	1.132800E+0	1.128041E+0	1.142540E+0	1.103775E+0	1.149286E+0	1.108428E+0	1.077067E+0	1.118654E+0	1.072233E+0	1.129002E+0	1.093253E+0	1.151189E+0	1.041288E+0	1.096615E+0	1.124755E+0	1.153247E+0	1.077834E+0	1.105688E+0	1.144592E+0	1.180827E+0	1.146687E+0	1.170286E+0	1.144279E+0	1.124193E+0	1.133370E+0	1.132294E+0	1.070356E+0	1.092059E+0	1.088408E+0	1.170748E+0
5.550140E+2	1.043302E+0	9.958319E-1	1.037237E+0	1.093576E+0	1.031862E+0	1.014655E+0	1.004415E+0	9.882799E-1	9.952570E-1	1.020668E+0	1.043810E+0	9.504988E-1	1.039677E+0	1.002267E+0	9.732845E-1	1.029700E+0	1.030338E+0	1.004409E+0	1.004632E+0	1.002431E+0	1.017811E+0	1.037116E+0	1.015851E+0	9.994602E-1	1.003260E+0	1.024823E+0	1.049329E+0	1.027286E+0	1.001598E+0	1.008198E+0	9.868106E-1	1.044298E+0	9.662266E-1	9.725522E-1	1.014834E+0	1.012489E+0	1.002017E+0	1.027861E+0	1.000920E+0	9.686619E-1	1.036432E+0	1.021799E+0	1.041133E+0	1.032011E+0	1.037531E+0	9.839281E-1	1.013526E+0	9.938088E-1	9.871731E-1	9.917969E-1	1.033709E+0	1.050253E+0	1.015060E+0	1.042036E+0	9.835149E-1	1.030466E+0	1.029145E+0	1.025674E+0	1.060959E+0	1.039416E+0	1.012248E+0	1.008649E+0	9.841975E-1	9.728491E-1	1.035967E+0	9.863935E-1	1.011714E+0	1.042610E+0	9.994182E-1	1.024371E+0	9.902602E-1	1.042428E+0	1.020596E+0	1.004325E+0	1.017383E+0	1.053966E+0	1.005072E+0	1.021713E+0	9.989094E-1	1.030708E+0	1.025233E+0	1.008783E+0	1.000114E+0	1.002582E+0	1.028138E+0	9.641171E-1	1.009737E+0	1.023436E+0	1.010713E+0	1.027818E+0	1.046323E+0	9.889768E-1	1.055534E+0	1.025020E+0	9.778196E-1	9.974344E-1	9.697065E-1	9.809513E-1	9.994109E-1	1.008584E+0	1.031336E+0	1.020384E+0	1.018716E+0	1.057119E+0	1.031885E+0	9.993213E-1	1.019928E+0	1.026682E+0	9.893535E-1	9.623713E-1	1.007497E+0	1.027147E+0	9.657151E-1	1.010775E+0	1.034674E+0	9.508076E-1	1.031568E+0	1.012725E+0	1.013633E+0	9.623160E-1	1.025321E+0	1.054164E+0	1.042425E+0	1.009694E+0	9.643715E-1	1.006902E+0	9.965682E-1	1.023292E+0	9.881066E-1	9.833412E-1	1.002404E+0	1.014938E+0	1.017002E+0	1.012931E+0	9.906202E-1	9.870978E-1	1.038302E+0	9.807387E-1	1.029478E+0	9.986368E-1	1.033573E+0	9.782722E-1	9.942927E-1	9.992372E-1	9.975965E-1	1.007966E+0	9.834376E-1	1.032416E+0	1.039658E+0	1.063729E+0	1.011395E+0	9.757616E-1	1.025823E+0	1.018348E+0	1.029000E+0	1.013139E+0	1.012783E+0	1.027283E+0	1.011162E+0	1.012717E+0	1.045015E+0	9.812637E-1	1.024392E+0	1.042492E+0	1.023045E+0	9.701724E-1	1.040644E+0	9.886444E-1	1.086661E+0
5.557600E+2	9.476491E-1	9.582819E-1	9.633388E-1	9.922829E-1	9.550877E-1	9.742637E-1	9.391941E-1	9.488101E-1	9.422445E-1	9.675482E-1	9.996274E-1	9.547302E-1	9.539413E-1	9.452654E-1	9.756831E-1	9.663278E-1	9.650647E-1	9.673231E-1	9.937887E-1	9.199315E-1	9.468421E-1	9.966654E-1	1.016477E+0	9.709154E-1	9.691763E-1	9.433916E-1	9.634795E-1	1.018015E+0	9.804211E-1	9.515276E-1	9.463736E-1	9.617380E-1	9.300851E-1	9.643340E-1	9.372835E-1	9.529258E-1	9.829582E-1	9.518142E-1	9.741393E-1	9.636060E-1	1.013855E+0	9.884399E-1	9.626948E-1	1.007959E+0	9.594001E-1	9.645599E-1	9.954291E-1	9.758646E-1	1.036758E+0	9.725805E-1	9.546710E-1	9.933520E-1	9.834078E-1	9.836381E-1	9.671991E-1	9.605224E-1	1.026862E+0	9.724278E-1	9.756067E-1	9.621912E-1	9.737675E-1	9.912433E-1	9.717141E-1	9.887175E-1	9.944101E-1	9.868799E-1	9.601095E-1	9.488277E-1	9.799933E-1	9.734669E-1	9.696905E-1	9.643156E-1	9.874769E-1	1.003679E+0	9.847063E-1	1.023320E+0	1.003023E+0	9.649094E-1	9.676912E-1	9.827206E-1	9.423185E-1	1.015708E+0	9.976462E-1	9.924920E-1	9.567421E-1	9.493143E-1	9.666429E-1	9.753677E-1	9.761191E-1	9.777620E-1	9.302478E-1	9.874471E-1	9.324403E-1	9.575595E-1	1.012764E+0	1.001830E+0	9.616179E-1	9.993292E-1	9.754354E-1	9.827702E-1	9.857746E-1	1.006114E+0	9.262206E-1	9.494541E-1	9.806143E-1	9.370474E-1	9.533670E-1	9.763710E-1	9.883073E-1	9.318680E-1	9.404681E-1	9.681823E-1	9.774888E-1	1.003666E+0	9.616741E-1	1.015997E+0	9.836399E-1	9.548010E-1	9.694228E-1	9.347403E-1	9.557114E-1	9.746244E-1	9.368692E-1	9.597528E-1	1.015972E+0	9.985737E-1	9.650059E-1	9.656082E-1	9.490631E-1	9.844581E-1	9.385906E-1	9.529486E-1	9.967884E-1	9.304297E-1	9.892578E-1	9.671696E-1	1.026016E+0	9.692358E-1	9.627239E-1	9.794738E-1	9.689240E-1	9.496168E-1	9.191845E-1	9.901294E-1	9.354494E-1	9.752332E-1	9.527958E-1	9.793178E-1	9.578593E-1	9.770749E-1	9.868852E-1	9.517232E-1	1.049555E+0	9.749329E-1	9.983766E-1	9.444058E-1	1.017669E+0	9.727091E-1	9.908863E-1	9.666740E-1	9.527011E-1	9.983359E-1	9.608214E-1	9.332249E-1	9.837694E-1	9.807089E-1	9.780075E-1	1.039143E+0	1.037260E+0
5.560190E+2	9.637388E-1	9.982595E-1	9.908684E-1	9.244320E-1	9.678193E-1	9.596542E-1	9.864436E-1	9.661177E-1	9.503060E-1	9.592291E-1	9.372657E-1	9.466725E-1	9.339693E-1	9.474881E-1	9.376033E-1	9.589933E-1	9.827023E-1	9.609383E-1	9.390591E-1	9.392700E-1	1.009113E+0	9.880980E-1	1.017206E+0	9.797036E-1	9.361278E-1	9.646531E-1	1.023750E+0	9.815002E-1	9.736265E-1	1.035223E+0	1.008348E+0	9.741008E-1	9.272763E-1	9.971704E-1	9.448652E-1	9.059585E-1	9.591998E-1	9.734574E-1	1.013555E+0	9.450932E-1	1.012432E+0	9.567960E-1	9.917827E-1	9.288505E-1	9.692884E-1	9.681096E-1	9.839748E-1	9.653569E-1	9.536172E-1	9.762617E-1	9.827022E-1	9.769943E-1	9.674288E-1	9.728234E-1	9.396728E-1	9.364287E-1	1.044082E+0	9.616839E-1	9.877893E-1	9.618618E-1	9.705437E-1	9.672210E-1	1.002406E+0	9.877214E-1	9.717257E-1	9.277375E-1	9.370619E-1	1.005476E+0	9.436096E-1	9.666663E-1	9.393282E-1	9.356180E-1	1.028747E+0	1.001388E+0	9.656713E-1	1.009621E+0	9.964933E-1	9.524049E-1	9.315285E-1	1.020678E+0	9.198639E-1	9.558141E-1	9.192359E-1	9.796152E-1	9.412101E-1	9.251325E-1	9.816057E-1	9.819909E-1	9.431834E-1	9.301440E-1	9.127328E-1	9.273775E-1	9.438879E-1	9.928484E-1	9.638383E-1	9.673393E-1	9.431031E-1	9.618718E-1	9.654931E-1	1.029292E+0	9.913826E-1	9.604611E-1	9.831393E-1	9.650415E-1	9.810669E-1	9.635903E-1	1.057860E+0	9.792018E-1	9.829145E-1	9.522975E-1	9.388339E-1	1.001613E+0	9.535481E-1	9.394885E-1	9.915420E-1	9.855204E-1	9.776454E-1	9.755250E-1	9.627689E-1	9.441434E-1	9.529051E-1	9.724441E-1	9.344237E-1	9.678195E-1	9.917801E-1	9.609327E-1	9.631588E-1	9.748320E-1	9.616823E-1	9.385405E-1	9.824587E-1	9.706479E-1	9.880871E-1	9.624500E-1	9.501129E-1	9.884589E-1	9.692778E-1	9.632991E-1	9.720129E-1	9.635451E-1	9.688992E-1	1.009494E+0	9.723632E-1	9.810094E-1	9.924416E-1	9.492573E-1	1.007557E+0	9.386010E-1	9.982649E-1	9.914045E-1	9.648757E-1	9.522447E-1	1.007336E+0	9.362830E-1	9.854544E-1	9.375163E-1	1.009997E+0	9.768470E-1	9.381007E-1	9.509038E-1	9.506119E-1	9.717073E-1	9.961494E-1	9.572886E-1	1.001398E+0	9.622279E-1	9.777003E-1	9.846615E-1	9.824982E-1
5.565140E+2	9.838407E-1	9.968701E-1	9.816104E-1	1.003188E+0	9.698205E-1	9.961072E-1	1.026081E+0	9.926290E-1	9.922727E-1	1.019685E+0	1.009329E+0	9.655530E-1	1.006440E+0	9.873702E-1	9.666048E-1	1.034543E+0	9.861501E-1	9.390370E-1	9.914135E-1	9.961293E-1	9.362733E-1	9.607709E-1	1.007447E+0	9.824126E-1	9.998634E-1	9.821076E-1	1.018927E+0	9.756980E-1	1.013815E+0	1.001157E+0	9.831512E-1	1.015012E+0	9.808669E-1	9.629145E-1	9.834030E-1	9.460581E-1	9.864301E-1	1.003560E+0	9.436965E-1	9.867143E-1	1.003194E+0	9.611277E-1	9.854669E-1	9.922493E-1	9.748443E-1	9.645692E-1	9.759178E-1	9.910224E-1	9.450137E-1	9.893204E-1	1.032291E+0	1.009004E+0	9.672841E-1	1.025562E+0	9.398240E-1	9.658279E-1	1.023945E+0	9.887286E-1	1.047476E+0	9.830472E-1	1.033251E+0	1.013252E+0	9.797647E-1	9.446773E-1	9.952201E-1	9.280357E-1	9.944553E-1	9.662130E-1	9.736021E-1	9.472172E-1	9.523182E-1	9.966832E-1	9.919780E-1	1.058343E+0	1.043090E+0	1.003584E+0	9.826552E-1	9.642509E-1	9.946224E-1	9.967059E-1	1.009988E+0	1.020503E+0	9.444636E-1	9.671406E-1	9.557975E-1	1.029324E+0	1.000682E+0	9.860119E-1	9.760047E-1	9.185738E-1	1.004725E+0	9.712233E-1	9.749241E-1	9.720561E-1	9.817745E-1	9.967983E-1	9.972125E-1	9.838333E-1	1.035990E+0	9.784322E-1	9.628607E-1	1.016208E+0	9.587647E-1	1.022340E+0	9.831301E-1	9.873477E-1	9.561124E-1	1.029345E+0	1.015440E+0	9.872937E-1	9.716285E-1	9.802235E-1	9.670513E-1	1.033405E+0	9.479327E-1	9.736498E-1	9.904473E-1	1.000320E+0	9.569140E-1	9.705263E-1	9.327735E-1	1.037861E+0	9.202459E-1	9.846110E-1	9.877309E-1	1.011199E+0	9.842115E-1	1.017141E+0	9.796498E-1	9.687343E-1	9.255322E-1	1.021013E+0	9.926839E-1	9.501243E-1	9.499458E-1	9.746113E-1	9.773804E-1	1.032026E+0	1.021660E+0	1.005551E+0	9.738134E-1	9.632860E-1	1.010177E+0	1.004171E+0	9.870232E-1	9.319569E-1	9.467010E-1	9.501845E-1	9.695421E-1	9.884470E-1	9.847152E-1	9.527811E-1	1.037604E+0	9.870239E-1	9.718645E-1	9.965119E-1	1.006267E+0	1.013784E+0	1.005108E+0	9.565046E-1	9.643329E-1	9.308049E-1	9.881052E-1	1.001041E+0	9.852733E-1	1.027347E+0	9.922968E-1	1.036125E+0	9.726690E-1
5.570050E+2	9.679745E-1	9.461594E-1	9.758245E-1	8.843853E-1	9.810642E-1	8.883477E-1	9.460305E-1	9.206348E-1	9.662112E-1	9.492490E-1	9.093195E-1	8.719979E-1	9.645226E-1	9.573034E-1	9.369928E-1	9.320718E-1	9.786883E-1	9.340307E-1	9.109614E-1	9.385486E-1	9.255497E-1	9.451655E-1	9.868976E-1	9.544468E-1	9.323615E-1	9.523018E-1	9.332640E-1	9.562108E-1	9.350033E-1	9.200054E-1	9.306621E-1	1.020634E+0	9.462664E-1	9.339304E-1	9.555196E-1	8.927601E-1	9.393732E-1	9.906031E-1	9.937644E-1	9.493256E-1	9.374855E-1	9.833466E-1	1.022407E+0	9.733841E-1	9.343210E-1	9.301945E-1	9.514624E-1	9.449788E-1	8.902501E-1	9.773993E-1	9.588251E-1	9.932051E-1	9.253613E-1	1.012568E+0	9.665793E-1	9.715057E-1	9.444100E-1	9.402841E-1	9.650462E-1	9.467498E-1	9.208926E-1	9.965939E-1	9.267043E-1	9.236066E-1	9.396633E-1	9.619141E-1	9.135984E-1	9.337299E-1	9.071612E-1	9.633051E-1	9.377573E-1	9.548996E-1	9.564776E-1	9.507505E-1	9.724337E-1	1.041453E+0	9.917081E-1	9.612516E-1	9.452705E-1	9.294134E-1	9.492659E-1	1.001180E+0	8.993100E-1	9.345337E-1	9.716694E-1	9.194185E-1	9.478132E-1	9.394785E-1	9.086881E-1	9.078907E-1	9.498921E-1	9.427695E-1	9.530024E-1	9.386559E-1	9.456196E-1	9.256400E-1	9.339890E-1	9.376279E-1	9.504143E-1	9.797270E-1	9.574696E-1	1.010082E+0	9.607549E-1	9.539974E-1	1.013326E+0	9.495650E-1	9.297462E-1	9.463836E-1	9.345310E-1	9.525177E-1	8.875538E-1	9.227575E-1	9.645585E-1	9.099644E-1	9.434384E-1	9.130597E-1	9.669794E-1	9.400851E-1	9.469882E-1	9.505959E-1	8.854472E-1	9.579368E-1	9.566197E-1	9.317849E-1	9.401986E-1	9.413280E-1	9.471604E-1	9.786700E-1	9.494612E-1	9.929989E-1	9.435261E-1	9.452909E-1	9.240234E-1	9.276740E-1	9.003606E-1	9.843673E-1	9.266539E-1	1.016825E+0	9.342140E-1	9.969716E-1	9.572662E-1	9.672431E-1	9.335110E-1	9.330342E-1	9.964299E-1	9.319182E-1	9.117921E-1	9.972883E-1	9.207244E-1	9.687841E-1	9.862460E-1	9.468008E-1	9.751017E-1	9.249868E-1	9.537203E-1	9.471134E-1	9.803157E-1	9.503997E-1	9.227537E-1	9.494449E-1	9.445245E-1	9.056945E-1	9.505592E-1	9.182112E-1	9.966463E-1	9.448656E-1	9.294305E-1	9.392103E-1	9.546538E-1
5.575080E+2	9.849814E-1	9.343990E-1	9.669434E-1	9.307931E-1	9.292138E-1	9.909419E-1	9.164031E-1	9.445621E-1	9.728672E-1	1.006421E+0	9.582075E-1	9.629865E-1	9.955908E-1	9.592875E-1	9.403479E-1	9.876321E-1	9.559706E-1	9.386095E-1	9.384528E-1	9.381920E-1	9.242340E-1	9.367369E-1	9.900661E-1	9.677318E-1	9.596480E-1	9.201362E-1	9.426537E-1	9.730818E-1	9.520386E-1	9.615930E-1	9.345179E-1	9.686186E-1	9.371075E-1	9.348564E-1	9.680690E-1	9.474695E-1	9.564020E-1	9.459379E-1	9.394633E-1	9.189813E-1	9.445605E-1	9.457081E-1	9.811778E-1	9.777583E-1	1.000842E+0	9.452993E-1	1.016888E+0	1.018040E+0	9.597475E-1	9.856874E-1	1.014227E+0	9.653304E-1	9.682624E-1	9.671292E-1	9.525660E-1	1.003138E+0	9.548862E-1	9.590737E-1	9.347718E-1	9.255130E-1	9.839839E-1	9.464410E-1	9.630416E-1	9.418492E-1	9.663006E-1	1.001640E+0	9.771714E-1	9.261052E-1	9.700334E-1	9.947891E-1	9.253869E-1	9.728958E-1	9.511027E-1	9.692398E-1	9.285520E-1	1.011656E+0	9.736429E-1	1.018171E+0	9.457094E-1	9.639570E-1	9.765528E-1	9.295811E-1	9.348815E-1	9.716860E-1	9.888723E-1	9.604735E-1	9.465534E-1	9.773358E-1	9.654883E-1	9.221171E-1	9.127959E-1	9.530289E-1	9.488888E-1	9.230784E-1	9.469348E-1	9.229394E-1	9.366749E-1	9.185645E-1	1.005128E+0	9.266559E-1	9.311535E-1	9.561431E-1	9.534528E-1	9.808193E-1	9.843640E-1	9.623454E-1	9.356683E-1	9.926961E-1	9.986834E-1	9.967402E-1	9.063204E-1	9.677853E-1	9.271584E-1	9.326217E-1	9.390167E-1	1.006211E+0	9.322591E-1	9.768698E-1	9.624176E-1	9.910106E-1	9.385144E-1	9.676640E-1	9.911752E-1	9.662764E-1	9.370606E-1	9.772370E-1	9.863167E-1	9.337381E-1	9.463810E-1	9.852976E-1	9.435945E-1	9.430035E-1	9.562784E-1	9.560674E-1	9.391494E-1	9.921697E-1	9.982185E-1	9.379507E-1	9.590869E-1	9.404431E-1	9.137690E-1	9.535676E-1	9.712155E-1	9.848305E-1	9.585620E-1	9.358691E-1	9.302959E-1	9.589331E-1	9.879204E-1	9.574638E-1	9.659251E-1	9.430163E-1	9.684195E-1	9.913615E-1	1.005705E+0	9.512734E-1	9.839523E-1	1.000783E+0	9.893444E-1	9.423069E-1	9.432897E-1	9.397438E-1	9.341929E-1	9.721695E-1	9.880983E-1	9.529458E-1	9.239315E-1	9.992556E-1	9.807572E-1
5.580000E+2	1.046339E+0	1.030335E+0	1.033753E+0	1.042480E+0	9.988163E-1	9.977734E-1	1.016585E+0	1.011893E+0	9.943789E-1	1.037962E+0	1.022190E+0	1.046197E+0	9.982634E-1	9.848016E-1	9.947164E-1	9.794418E-1	1.008163E+0	1.005730E+0	1.009990E+0	9.836964E-1	1.006205E+0	1.014602E+0	9.681994E-1	9.607669E-1	1.026531E+0	1.019364E+0	1.031213E+0	9.966961E-1	1.009827E+0	1.020081E+0	1.004003E+0	9.967043E-1	9.760053E-1	9.991337E-1	9.903231E-1	1.001863E+0	1.032369E+0	1.028129E+0	1.024383E+0	1.058470E+0	1.013580E+0	1.031808E+0	1.035917E+0	9.783094E-1	9.770689E-1	1.042501E+0	9.825198E-1	1.006878E+0	1.008739E+0	1.000222E+0	9.954379E-1	9.924604E-1	9.918149E-1	1.060058E+0	1.041562E+0	1.021645E+0	1.024868E+0	1.012589E+0	9.898793E-1	1.032528E+0	9.879890E-1	1.027720E+0	9.977643E-1	9.705232E-1	9.886067E-1	1.031027E+0	1.033499E+0	1.001794E+0	1.006896E+0	1.028860E+0	9.742299E-1	1.020254E+0	9.908650E-1	9.760635E-1	9.614982E-1	1.025286E+0	1.026977E+0	9.807553E-1	1.019394E+0	9.838694E-1	1.037940E+0	9.744521E-1	1.013056E+0	1.024958E+0	9.921872E-1	9.977754E-1	9.939633E-1	1.036732E+0	1.009136E+0	9.976624E-1	1.007856E+0	1.003010E+0	1.014341E+0	9.971500E-1	1.013938E+0	9.760378E-1	9.475422E-1	1.032873E+0	9.895004E-1	9.990884E-1	1.000339E+0	9.827355E-1	1.039752E+0	9.905292E-1	1.011654E+0	1.023587E+0	9.946666E-1	9.939902E-1	1.033733E+0	9.860669E-1	1.053816E+0	9.959019E-1	1.031727E+0	1.026321E+0	1.018021E+0	9.838830E-1	1.030430E+0	9.467077E-1	1.057100E+0	9.761744E-1	9.829819E-1	1.023155E+0	1.010419E+0	1.037301E+0	1.056654E+0	9.763148E-1	9.812175E-1	1.025037E+0	9.987086E-1	1.025833E+0	1.023928E+0	1.028797E+0	9.956475E-1	9.998359E-1	1.014032E+0	1.005309E+0	1.009385E+0	1.023985E+0	9.639142E-1	9.980181E-1	1.025000E+0	1.009943E+0	1.051614E+0	1.032359E+0	1.014945E+0	1.021837E+0	9.776052E-1	1.021771E+0	9.981562E-1	9.980737E-1	9.974930E-1	1.003331E+0	9.987863E-1	1.039007E+0	1.033380E+0	1.038910E+0	1.031845E+0	9.756766E-1	1.004163E+0	1.044733E+0	9.981386E-1	1.004503E+0	9.866905E-1	1.010357E+0	1.013499E+0	9.980179E-1	9.776485E-1	9.754862E-1	1.040773E+0
5.585160E+2	9.741158E-1	1.015823E+0	1.015680E+0	1.023464E+0	1.014680E+0	1.027170E+0	1.015068E+0	1.018204E+0	1.052138E+0	9.922708E-1	1.025639E+0	1.049431E+0	1.014578E+0	1.015415E+0	1.031263E+0	1.020938E+0	9.899551E-1	1.011893E+0	1.039924E+0	9.875702E-1	9.923289E-1	1.041165E+0	9.971463E-1	1.032836E+0	1.008526E+0	9.392610E-1	1.004028E+0	1.067975E+0	1.036393E+0	1.011978E+0	9.791395E-1	9.735521E-1	1.053280E+0	1.022176E+0	1.009560E+0	1.008338E+0	1.026711E+0	1.029802E+0	1.013199E+0	1.036990E+0	1.030817E+0	1.028705E+0	1.011140E+0	1.003557E+0	1.038731E+0	9.652138E-1	1.024585E+0	1.020345E+0	9.772928E-1	1.014198E+0	9.941751E-1	1.013690E+0	1.009196E+0	9.862960E-1	9.991865E-1	9.966644E-1	9.709588E-1	1.015551E+0	9.958718E-1	1.004012E+0	1.020523E+0	9.950591E-1	1.025811E+0	1.031593E+0	1.030646E+0	1.026267E+0	1.014700E+0	9.893120E-1	1.040448E+0	1.022878E+0	1.008887E+0	1.015709E+0	1.033750E+0	9.743523E-1	1.067560E+0	1.037976E+0	1.001445E+0	1.000301E+0	9.997623E-1	1.033447E+0	9.817232E-1	1.006166E+0	9.879882E-1	9.915273E-1	1.017224E+0	1.031168E+0	1.043469E+0	1.030884E+0	9.913163E-1	1.065826E+0	1.013743E+0	1.016688E+0	1.035610E+0	1.022029E+0	1.003188E+0	9.917831E-1	1.010634E+0	1.069581E+0	9.598553E-1	1.014337E+0	9.951786E-1	1.034627E+0	9.840466E-1	1.066108E+0	9.945704E-1	1.038492E+0	1.049284E+0	1.025133E+0	9.801981E-1	1.017365E+0	1.013960E+0	1.022955E+0	9.942103E-1	9.870887E-1	1.002600E+0	1.000952E+0	1.037789E+0	1.026451E+0	9.927031E-1	1.037477E+0	9.793264E-1	1.007019E+0	9.992399E-1	9.692425E-1	1.019946E+0	1.023374E+0	1.034303E+0	1.019475E+0	1.004759E+0	1.007431E+0	1.011310E+0	9.990614E-1	1.032298E+0	9.678288E-1	1.039071E+0	9.626928E-1	1.038268E+0	9.971764E-1	1.038216E+0	1.033434E+0	1.024232E+0	9.930664E-1	9.746902E-1	9.909762E-1	9.966731E-1	9.910964E-1	9.904315E-1	9.913340E-1	1.039578E+0	9.772210E-1	9.630575E-1	1.026251E+0	1.020935E+0	9.843115E-1	9.987166E-1	9.855431E-1	9.975530E-1	9.880411E-1	1.007580E+0	1.020575E+0	9.712602E-1	9.528779E-1	1.046409E+0	1.002617E+0	1.005453E+0	1.027974E+0	1.038997E+0	1.009326E+0	9.993916E-1
5.590100E+2	1.002045E+0	1.009448E+0	1.013566E+0	9.778397E-1	1.014277E+0	9.715680E-1	9.912708E-1	9.809929E-1	9.768904E-1	9.753520E-1	9.650233E-1	9.611139E-1	9.589750E-1	1.004503E+0	9.783770E-1	9.760658E-1	9.808836E-1	1.018090E+0	9.843992E-1	9.715570E-1	1.014157E+0	1.013253E+0	9.766585E-1	1.004115E+0	9.841827E-1	1.025278E+0	9.559065E-1	9.801755E-1	9.704360E-1	9.666011E-1	9.814717E-1	1.045485E+0	9.588894E-1	9.518870E-1	9.962312E-1	1.002927E+0	1.003331E+0	9.645895E-1	9.622368E-1	9.187867E-1	9.634201E-1	9.435947E-1	9.752340E-1	9.793587E-1	9.708319E-1	9.844548E-1	9.454942E-1	9.392192E-1	9.940162E-1	9.247774E-1	9.672072E-1	9.834683E-1	9.964675E-1	1.030193E+0	9.608338E-1	9.514293E-1	9.930612E-1	9.718641E-1	9.745138E-1	1.003940E+0	1.023399E+0	9.605678E-1	9.936589E-1	9.562975E-1	1.006582E+0	9.909443E-1	9.925001E-1	1.003589E+0	9.318341E-1	9.896155E-1	1.024704E+0	1.007573E+0	9.838365E-1	1.006056E+0	9.683607E-1	9.076265E-1	1.005279E+0	9.636079E-1	9.465259E-1	9.686849E-1	9.432511E-1	9.830290E-1	9.918078E-1	9.760309E-1	9.889883E-1	1.031169E+0	9.220283E-1	9.810272E-1	9.820304E-1	9.766780E-1	9.760473E-1	1.018053E+0	9.907207E-1	1.028999E+0	9.674478E-1	1.008827E+0	1.004987E+0	1.018153E+0	9.519586E-1	1.054146E+0	1.012502E+0	9.830839E-1	9.947305E-1	9.465146E-1	9.498225E-1	9.596791E-1	9.779398E-1	9.699703E-1	9.798195E-1	9.535683E-1	1.013237E+0	9.947712E-1	9.625031E-1	1.016390E+0	9.679612E-1	9.706830E-1	9.714877E-1	9.763192E-1	9.748664E-1	1.018676E+0	9.545372E-1	1.001883E+0	9.720166E-1	9.702553E-1	1.005030E+0	9.885066E-1	9.733834E-1	9.806096E-1	9.732908E-1	9.768086E-1	9.810395E-1	9.276992E-1	9.864662E-1	1.008530E+0	9.813724E-1	9.671364E-1	9.888150E-1	9.664322E-1	1.005415E+0	9.510516E-1	9.948575E-1	9.700180E-1	9.683536E-1	9.795314E-1	9.730700E-1	1.006460E+0	9.488941E-1	1.010946E+0	9.454582E-1	9.749030E-1	1.014325E+0	1.018632E+0	1.013986E+0	9.452481E-1	9.755936E-1	9.526724E-1	1.006480E+0	1.028327E+0	1.005134E+0	1.022712E+0	1.022549E+0	9.388263E-1	9.606241E-1	9.583781E-1	9.937504E-1	9.604007E-1	9.977562E-1	9.618673E-1	1.002627E+0
5.595110E+2	9.912925E-1	9.889005E-1	9.778113E-1	1.007246E+0	9.848658E-1	1.030982E+0	1.009771E+0	1.015740E+0	9.937730E-1	1.022121E+0	9.641313E-1	9.695799E-1	1.000340E+0	1.013424E+0	1.024861E+0	9.467294E-1	9.878650E-1	1.000948E+0	9.772321E-1	1.015132E+0	9.634940E-1	9.956697E-1	1.057754E+0	9.806209E-1	1.010461E+0	9.523932E-1	9.994756E-1	1.003349E+0	9.853997E-1	1.028466E+0	9.888991E-1	9.800061E-1	9.888610E-1	1.019093E+0	9.898746E-1	1.022321E+0	9.846311E-1	1.044951E+0	1.029266E+0	9.921986E-1	9.771026E-1	1.009607E+0	1.001241E+0	9.844889E-1	9.683203E-1	1.024755E+0	1.024992E+0	1.031698E+0	9.935765E-1	1.031243E+0	1.024021E+0	9.821788E-1	1.030101E+0	9.992047E-1	9.889549E-1	9.717598E-1	1.001195E+0	1.032985E+0	1.051936E+0	9.720617E-1	1.017474E+0	1.004051E+0	1.005503E+0	1.027458E+0	1.000965E+0	1.001704E+0	9.570869E-1	9.959426E-1	1.017261E+0	9.980058E-1	1.006471E+0	9.676747E-1	1.059329E+0	1.030931E+0	9.915151E-1	1.023562E+0	9.697637E-1	1.018984E+0	1.037664E+0	1.015945E+0	1.078476E+0	9.965740E-1	1.040226E+0	9.960008E-1	1.006791E+0	9.321675E-1	9.948643E-1	9.921544E-1	1.045645E+0	1.033231E+0	1.004674E+0	1.005566E+0	1.024280E+0	9.805350E-1	1.004925E+0	1.033551E+0	9.978631E-1	1.004177E+0	9.960310E-1	1.009631E+0	1.026846E+0	1.008455E+0	1.002371E+0	9.852968E-1	1.058578E+0	9.990269E-1	1.003219E+0	1.025638E+0	1.039456E+0	9.796999E-1	9.869020E-1	9.713909E-1	1.010499E+0	1.000768E+0	1.027016E+0	9.961511E-1	9.868525E-1	1.015019E+0	9.682540E-1	1.014475E+0	9.948156E-1	9.818171E-1	9.866333E-1	1.006227E+0	9.631364E-1	1.064007E+0	1.033294E+0	1.010621E+0	9.665203E-1	1.003527E+0	9.801164E-1	1.038488E+0	1.014609E+0	1.023218E+0	9.947772E-1	1.007872E+0	1.000515E+0	1.033529E+0	9.642414E-1	1.035577E+0	9.755354E-1	1.023083E+0	9.859918E-1	9.863249E-1	1.009711E+0	1.003835E+0	1.033722E+0	9.629993E-1	1.028658E+0	1.091299E+0	1.019016E+0	9.717777E-1	1.021766E+0	1.036720E+0	9.984632E-1	1.028691E+0	1.024053E+0	1.010164E+0	9.774562E-1	1.005068E+0	1.001032E+0	1.022960E+0	1.031691E+0	1.007695E+0	9.732725E-1	1.024036E+0	1.000381E+0	1.045230E+0	1.018344E+0
5.600520E+2	9.788949E-1	1.009887E+0	1.017719E+0	9.983134E-1	9.754247E-1	1.016923E+0	9.957037E-1	1.009728E+0	1.021054E+0	9.946495E-1	9.928693E-1	9.922462E-1	1.018747E+0	9.902459E-1	1.002372E+0	1.035756E+0	9.985317E-1	9.841462E-1	1.009151E+0	9.893755E-1	1.010498E+0	9.940858E-1	9.980968E-1	1.002378E+0	9.949876E-1	1.036468E+0	9.967387E-1	9.463537E-1	9.810603E-1	9.884959E-1	1.027714E+0	9.798644E-1	1.005075E+0	1.017774E+0	1.000258E+0	9.292525E-1	9.580487E-1	9.924231E-1	9.853275E-1	1.018588E+0	1.035295E+0	1.008519E+0	9.889021E-1	1.030873E+0	1.022622E+0	9.973908E-1	1.016578E+0	1.001579E+0	9.864182E-1	1.026039E+0	1.005121E+0	9.980375E-1	9.669434E-1	9.969938E-1	1.016647E+0	1.014600E+0	9.661801E-1	9.816495E-1	9.897487E-1	9.934224E-1	9.827793E-1	1.033358E+0	9.816081E-1	9.641356E-1	1.021754E+0	9.981669E-1	9.832361E-1	1.015885E+0	9.943606E-1	1.025000E+0	9.728899E-1	1.029417E+0	9.966477E-1	1.009266E+0	1.001367E+0	1.070418E+0	9.941990E-1	1.000432E+0	9.942453E-1	9.809277E-1	1.014551E+0	1.033901E+0	9.974791E-1	1.042541E+0	9.909306E-1	1.033352E+0	1.021080E+0	1.025288E+0	9.777656E-1	9.867040E-1	9.820281E-1	9.980187E-1	9.993686E-1	9.896267E-1	1.013168E+0	1.039121E+0	9.792170E-1	9.344297E-1	1.020534E+0	9.830637E-1	1.011399E+0	1.005443E+0	1.021219E+0	9.676984E-1	1.001396E+0	1.004551E+0	9.866925E-1	9.858686E-1	1.000410E+0	1.025131E+0	9.964535E-1	9.822687E-1	9.883895E-1	1.021397E+0	1.046512E+0	1.021306E+0	1.022583E+0	1.044425E+0	1.010573E+0	1.018749E+0	1.025508E+0	9.563986E-1	1.013794E+0	1.044194E+0	9.883100E-1	9.830417E-1	9.743773E-1	1.005752E+0	1.045235E+0	9.796904E-1	9.972943E-1	9.707076E-1	1.009538E+0	9.893304E-1	9.619979E-1	9.961864E-1	9.942433E-1	9.798902E-1	1.034536E+0	1.003198E+0	9.821907E-1	9.966762E-1	9.811016E-1	1.006028E+0	1.017886E+0	9.914674E-1	9.979681E-1	1.023561E+0	1.016584E+0	9.520859E-1	1.031263E+0	9.647381E-1	1.006765E+0	1.002706E+0	1.003775E+0	9.903423E-1	9.610310E-1	1.004416E+0	1.067677E+0	9.518021E-1	1.059317E+0	1.037880E+0	1.012241E+0	1.044160E+0	9.986617E-1	9.713921E-1	1.027437E+0	1.037005E+0	1.000598E+0
5.605150E+2	1.018740E+0	1.010487E+0	9.593649E-1	9.801409E-1	1.007940E+0	9.749442E-1	1.016621E+0	9.874434E-1	1.005286E+0	9.792848E-1	1.014016E+0	1.016146E+0	1.014215E+0	9.832877E-1	9.883106E-1	1.027718E+0	9.984087E-1	9.972644E-1	9.856196E-1	1.038935E+0	1.048846E+0	1.001189E+0	1.035853E+0	1.027432E+0	9.977292E-1	1.030754E+0	1.007950E+0	1.002274E+0	1.013027E+0	1.038710E+0	1.023559E+0	9.752576E-1	9.996167E-1	9.993127E-1	1.057268E+0	1.022812E+0	9.965885E-1	9.704512E-1	9.999531E-1	1.025390E+0	1.027990E+0	9.942108E-1	1.000341E+0	9.989084E-1	1.016885E+0	1.005299E+0	9.824291E-1	1.027112E+0	1.054694E+0	1.022660E+0	1.027467E+0	1.064772E+0	9.977904E-1	9.565701E-1	1.034556E+0	1.000584E+0	1.053861E+0	1.008421E+0	1.012665E+0	1.010415E+0	9.615315E-1	9.657599E-1	9.962578E-1	1.040311E+0	1.006001E+0	9.848871E-1	1.055359E+0	1.032450E+0	1.009757E+0	9.928715E-1	9.971322E-1	1.020285E+0	1.002829E+0	1.021085E+0	1.019737E+0	1.016936E+0	1.020505E+0	1.031522E+0	9.884586E-1	1.023507E+0	9.560979E-1	9.737551E-1	9.764379E-1	9.836090E-1	1.022067E+0	1.008995E+0	9.993780E-1	9.531253E-1	1.018748E+0	1.006914E+0	9.971675E-1	9.844469E-1	9.469340E-1	9.706763E-1	9.832522E-1	9.652839E-1	1.027790E+0	9.641133E-1	1.021380E+0	9.646088E-1	9.757240E-1	9.857308E-1	9.934045E-1	1.020129E+0	1.003344E+0	9.890326E-1	9.928476E-1	1.041180E+0	9.838792E-1	1.022263E+0	9.807651E-1	1.012536E+0	9.971505E-1	9.726085E-1	9.722505E-1	1.002444E+0	9.667285E-1	9.952051E-1	1.012126E+0	9.731450E-1	1.015399E+0	1.041871E+0	1.021366E+0	9.873399E-1	1.002103E+0	9.666391E-1	1.037737E+0	9.935007E-1	1.028199E+0	1.015267E+0	1.023119E+0	1.007600E+0	9.920224E-1	1.001730E+0	1.001177E+0	1.022498E+0	9.962947E-1	1.036989E+0	9.786519E-1	1.009348E+0	1.035048E+0	1.002561E+0	1.045866E+0	1.032415E+0	9.935326E-1	1.014030E+0	1.023322E+0	1.019466E+0	9.835260E-1	1.030258E+0	9.990991E-1	1.049041E+0	9.538320E-1	1.045368E+0	9.940629E-1	9.946289E-1	9.944719E-1	9.941381E-1	9.687046E-1	9.608016E-1	1.004991E+0	1.010528E+0	1.001270E+0	9.849841E-1	1.029071E+0	1.042505E+0	9.831146E-1	9.984060E-1	9.819833E-1
5.609950E+2	9.885724E-1	9.351200E-1	9.821056E-1	9.705166E-1	1.003996E+0	9.806389E-1	9.549810E-1	9.759984E-1	9.564799E-1	9.983600E-1	1.016131E+0	9.652872E-1	9.948810E-1	1.008323E+0	9.801001E-1	1.013351E+0	1.036193E+0	9.819287E-1	9.936832E-1	1.013733E+0	9.644714E-1	9.400349E-1	9.662916E-1	9.918514E-1	9.775826E-1	9.964814E-1	1.004688E+0	1.003177E+0	1.003858E+0	9.456684E-1	9.952148E-1	1.049131E+0	1.018273E+0	9.906233E-1	9.564842E-1	1.012486E+0	9.983210E-1	9.696544E-1	9.856345E-1	9.495766E-1	9.517969E-1	9.835559E-1	9.872252E-1	1.024505E+0	1.005541E+0	9.803857E-1	1.023403E+0	9.731691E-1	9.852631E-1	9.808604E-1	9.865700E-1	9.653926E-1	1.007687E+0	9.706852E-1	9.582592E-1	1.043318E+0	9.898752E-1	9.769405E-1	9.853855E-1	9.836207E-1	1.006305E+0	1.013485E+0	9.993976E-1	1.009681E+0	9.454453E-1	9.670041E-1	9.636184E-1	9.610264E-1	9.994434E-1	9.427689E-1	1.015685E+0	9.390869E-1	9.327432E-1	9.822457E-1	9.899620E-1	9.181958E-1	9.818329E-1	1.004399E+0	1.013949E+0	9.936203E-1	9.879600E-1	1.032122E+0	9.930053E-1	9.853331E-1	9.818120E-1	9.653733E-1	1.025217E+0	9.807890E-1	9.753589E-1	9.329839E-1	1.018484E+0	9.742182E-1	9.887456E-1	1.010984E+0	1.014081E+0	9.853958E-1	1.031967E+0	9.766737E-1	1.060741E+0	9.751238E-1	9.780116E-1	9.999244E-1	9.644758E-1	1.023724E+0	9.806356E-1	9.856325E-1	9.953499E-1	9.582200E-1	9.825052E-1	1.015907E+0	9.548675E-1	1.020176E+0	1.015521E+0	9.754271E-1	9.656386E-1	1.024581E+0	9.841292E-1	9.958732E-1	9.843771E-1	9.613042E-1	1.047432E+0	9.878565E-1	9.965308E-1	9.854407E-1	9.648205E-1	9.981164E-1	9.656871E-1	9.650047E-1	9.832873E-1	9.914429E-1	9.831941E-1	1.027646E+0	9.694186E-1	1.009528E+0	1.007572E+0	1.038306E+0	9.724790E-1	9.619988E-1	1.015025E+0	9.693740E-1	9.631366E-1	1.004653E+0	9.923835E-1	9.723656E-1	9.941820E-1	9.712733E-1	1.028058E+0	9.699222E-1	9.880403E-1	9.761599E-1	9.757460E-1	9.662291E-1	9.839305E-1	9.466392E-1	9.960085E-1	1.009213E+0	9.845669E-1	9.992375E-1	9.692853E-1	9.943081E-1	9.427116E-1	1.032426E+0	9.610746E-1	9.918079E-1	9.862929E-1	9.756744E-1	9.746664E-1	9.726792E-1	9.562831E-1
