Photon Energy (eV)	#1	#2	#3	#4	#5	#6	#7	#8	#9	#10	#11	#12	#13	#14	#15	#16	#17	#18	#19	#20	#21	#22	#23	#24	#25	#26	#27	#28	#29	#30	#31	#32	#33	#34	#35	#36	#37	#38	#39	#40	#41	#42	#43	#44	#45	#46	#47	#48	#49	#50	#51	#52	#53	#54	#55	#56	#57	#58	#59	#60	#61	#62	#63	#64	#65	#66	#67	#68	#69	#70	#71	#72	#73	#74	#75	#76	#77	#78	#79	#80	#81	#82	#83	#84	#85	#86	#87	#88	#89	#90	#91	#92	#93	#94	#95	#96	#97	#98	#99	#100	#101	#102	#103	#104	#105	#106	#107	#108	#109	#110	#111	#112	#113	#114	#115	#116	#117	#118	#119	#120	#121	#122	#123	#124	#125	#126	#127	#128	#129	#130	#131	#132	#133	#134	#135	#136	#137	#138	#139	#140	#141	#142	#143	#144	#145	#146	#147	#148	#149	#150	#151	#152	#153	#154	#155	#156	#157	#158	#159	#160	#161	#162	#163	#164	#165	#166	
5.300320E+2	-1.046594E-2	-1.384505E-2	-3.400316E-3	-9.826649E-3	1.244992E-3	-3.324081E-3	-1.818188E-3	-1.227772E-2	-1.200160E-2	-1.314395E-2	-4.788460E-4	-1.164231E-2	-7.350065E-3	-8.120425E-3	-2.934600E-3	5.335050E-3	-1.279748E-2	-9.247498E-3	-2.271694E-3	1.148423E-2	-1.564332E-2	-1.185112E-2	-1.493664E-2	-6.900182E-4	-5.513106E-3	-3.954667E-3	-2.158226E-2	-1.490654E-2	-9.372120E-3	-1.024625E-3	-6.313770E-3	-1.611964E-2	-9.004892E-4	-1.572703E-2	-7.376772E-3	-1.609707E-2	-9.997594E-3	-7.229698E-3	-5.159561E-3	-3.009966E-3	-6.388368E-3	-1.344965E-2	-1.696430E-2	-1.023523E-2	-6.399700E-4	-6.026715E-3	-9.674708E-3	-1.138834E-2	2.343315E-3	-5.911576E-3	-1.389347E-3	-1.940691E-2	-6.151952E-3	-7.403105E-3	-7.573354E-3	-1.124805E-2	-2.495241E-3	-9.839351E-3	-1.381093E-2	-9.528782E-3	-1.540885E-2	-5.287090E-3	-7.005693E-3	-4.328700E-3	-1.232253E-2	-8.127874E-3	-4.005599E-3	-6.820383E-4	-1.007510E-2	-9.007581E-3	-7.978694E-4	-3.655164E-3	-6.424099E-3	-5.169582E-3	-1.385319E-2	1.496501E-4	-1.644801E-2	-5.014413E-3	-1.292720E-2	-1.654798E-2	-4.899152E-3	-1.310782E-2	-1.462277E-3	-9.021996E-3	-5.077929E-3	-1.146247E-2	-2.442542E-4	-9.855794E-3	-4.970499E-3	-6.559898E-3	-1.001516E-2	-5.124981E-3	-4.038702E-3	-1.320571E-2	-1.400790E-2	-1.008836E-2	-1.100152E-2	-1.234996E-3	1.139839E-3	-8.408719E-3	-5.269025E-3	-1.129319E-2	-7.529858E-3	-9.261000E-3	6.735208E-4	2.073704E-3	-6.871058E-3	-4.790971E-3	-1.341464E-3	-4.664598E-3	-1.040302E-2	-7.697691E-3	-2.815336E-3	-3.576154E-3	-9.850296E-3	-2.649814E-3	-1.578994E-2	-1.357397E-2	3.682589E-3	-3.372911E-3	-7.703597E-3	-3.177848E-4	-1.008806E-2	-6.620382E-4	3.812506E-4	-1.629443E-2	2.814972E-4	-6.199678E-3	3.592556E-3	-7.452533E-3	-1.188501E-2	-1.106648E-2	-3.436336E-3	-6.575154E-3	-7.937065E-3	8.257995E-4	-1.011817E-2	-1.334313E-2	-1.693936E-2	-6.033741E-3	1.065446E-3	-5.371308E-3	-7.187757E-3	-3.639806E-3	-3.058043E-3	-1.382275E-3	-6.798242E-3	7.308334E-4	-1.114560E-2	-4.204278E-3	-1.365579E-2	1.311362E-4	-6.587378E-3	-1.080874E-2	7.588534E-3	-1.099162E-2	-2.585858E-3	3.818910E-4	-3.251589E-3	-6.242007E-3	-7.202079E-3	-2.025760E-2	-1.507316E-2	-4.807181E-3	-7.392759E-3	-1.557588E-2
5.305030E+2	5.444521E-3	-4.555960E-3	-9.343427E-3	-1.400216E-3	-7.843990E-3	-7.793156E-3	-1.033465E-2	-6.865774E-3	-6.711048E-3	-5.254807E-3	-1.231431E-2	-1.730468E-2	-4.628143E-3	-1.065262E-3	-1.395372E-2	-1.746966E-2	-1.062970E-2	-2.508592E-3	-8.430883E-3	-1.176448E-2	-7.280127E-3	-6.368271E-3	-3.581703E-3	-5.910319E-3	-1.206952E-2	8.405712E-4	-7.504929E-3	-9.058994E-3	-1.580563E-2	-1.346747E-2	-1.202196E-2	-4.789431E-3	-1.838419E-2	-3.531929E-3	-2.776619E-3	-5.249200E-3	-8.633580E-3	8.509139E-5	-5.669730E-3	-1.351115E-2	-1.162392E-2	-6.064436E-3	-4.563457E-3	1.406460E-3	2.531807E-3	-1.131654E-2	-2.231683E-4	-8.611380E-3	-1.263518E-2	-1.164500E-2	-2.038780E-3	-8.540324E-3	-2.460460E-3	-4.979061E-3	-4.180476E-3	9.061360E-4	-1.091988E-2	-3.327136E-3	-5.914617E-3	-1.800817E-2	-1.014529E-2	-9.744714E-3	-1.351868E-2	-9.172041E-3	-1.885537E-3	-2.087064E-3	-1.017969E-2	-8.012752E-3	-1.063614E-2	-1.205993E-4	-1.179660E-2	-2.908106E-3	-8.055128E-3	-2.646722E-3	-4.970402E-3	-6.465553E-3	-1.086550E-2	-1.119734E-2	-9.695457E-3	-6.270148E-3	-7.737794E-3	-7.889496E-3	-7.358468E-3	-2.418429E-3	-1.000293E-3	-4.404183E-3	-7.343620E-3	-9.083135E-3	-4.886250E-3	-2.698072E-3	-6.280609E-3	-4.277365E-3	-3.293208E-3	-8.892420E-3	-3.567467E-3	-8.600377E-3	-1.166505E-2	-1.787458E-2	-4.866112E-3	-9.913763E-3	-7.247110E-3	-8.089630E-3	5.335059E-5	-4.524838E-3	-1.759363E-2	-8.111746E-3	-1.310862E-3	-5.480684E-3	1.931207E-3	-1.441276E-2	-8.598882E-3	-2.033851E-2	-1.284471E-2	-3.486006E-3	-6.499989E-3	-1.403462E-2	-6.755935E-3	-1.013760E-2	-1.130702E-2	-3.968881E-3	-8.337611E-3	-1.779435E-2	-5.078626E-3	-1.253883E-2	-1.058379E-2	-9.401377E-3	-1.355155E-2	-1.223437E-2	-1.525299E-2	-3.024284E-3	-1.390132E-2	-1.255401E-2	-7.338026E-3	-5.771011E-3	-1.322482E-2	-1.694713E-2	-6.852657E-3	-4.539471E-4	-7.365991E-3	-9.338668E-3	-1.432041E-2	-1.223994E-2	-3.410964E-3	-5.825754E-3	-1.250787E-3	-1.218909E-3	-1.409505E-2	-1.234991E-2	-8.981451E-3	-1.876605E-2	5.496949E-3	-8.973240E-3	-8.096956E-3	-1.230348E-2	-1.306300E-2	-1.870388E-2	-1.400068E-2	-1.081915E-2	1.100596E-2	-1.244428E-2	-1.005129E-2	-8.589185E-3	-1.269115E-2	2.994382E-3	-1.037087E-2	-4.583284E-3
5.310100E+2	-3.977233E-3	-5.292446E-3	-2.490222E-3	4.147807E-3	-1.083865E-2	-1.620343E-3	-3.753018E-3	4.108433E-3	-4.302688E-3	-5.850492E-3	-1.219558E-2	-1.005883E-2	-8.461513E-3	-7.366104E-3	-9.670884E-4	1.625645E-3	-6.695453E-4	-1.177894E-2	-4.786092E-3	2.431086E-6	4.459332E-3	-2.131795E-2	-4.739106E-3	-1.052532E-2	-1.194645E-2	-1.236761E-2	-5.953468E-3	-5.354025E-3	-2.381179E-4	-8.231938E-3	2.808606E-4	-1.993606E-2	-5.447116E-3	-5.183600E-4	5.069494E-3	-3.693649E-3	-1.112203E-2	-1.168332E-2	-8.163506E-3	9.162131E-4	-1.384015E-2	-2.316969E-3	-4.536662E-3	-1.296155E-2	-2.922739E-3	-2.206749E-3	-8.888807E-3	-7.185988E-3	-1.255933E-2	-1.352433E-2	3.080977E-4	-7.636352E-3	-7.424448E-3	3.888369E-3	5.422498E-4	-3.691444E-3	-2.745568E-6	-3.257936E-3	-4.400650E-3	-1.171486E-2	-8.776833E-3	-1.102236E-3	-8.155821E-4	-6.983142E-3	-1.106453E-3	-5.011098E-3	-1.079599E-2	-4.637272E-3	-9.911071E-3	-9.520761E-3	-5.822730E-3	-6.019826E-3	-1.055668E-2	-7.440170E-3	-1.515324E-2	-1.534981E-2	-2.503910E-3	-1.111876E-2	-5.190944E-3	-7.546837E-3	1.138915E-3	1.767852E-3	-8.604107E-3	1.260434E-4	-8.867105E-3	-5.715798E-3	-3.307782E-3	-2.782129E-3	-7.043320E-3	-4.867735E-3	-2.533481E-3	-8.842481E-3	-7.099583E-3	-3.181221E-4	-9.575514E-3	2.117355E-3	-1.084326E-2	-7.317877E-3	-6.812668E-3	-9.048035E-3	-7.846191E-3	1.381315E-3	2.658800E-3	-8.408820E-3	-2.195280E-3	-8.017305E-3	-8.747935E-3	-2.257826E-2	-1.574143E-2	-8.159603E-3	-1.306136E-2	-1.856175E-3	1.010452E-3	-1.337084E-2	-6.400503E-3	-1.313672E-2	3.705067E-3	-5.332179E-3	-3.978425E-3	-9.375779E-3	-3.937160E-3	-8.922766E-3	-3.557036E-3	-6.449589E-3	-1.374649E-2	-4.951969E-3	-8.388624E-3	-1.418372E-2	-5.336704E-3	4.347199E-3	-4.728475E-3	-1.484316E-3	-9.230740E-3	-9.968618E-3	-7.743320E-3	-4.708607E-3	-5.953312E-3	-2.755200E-3	-1.076097E-2	-2.840830E-3	-8.143135E-3	-9.600405E-3	9.064593E-4	-9.063362E-3	-1.563173E-2	-1.381941E-2	-3.960559E-3	-9.868887E-3	-6.820118E-3	-1.831528E-3	-1.555340E-2	-1.102723E-2	-1.201544E-2	-1.028230E-3	-3.471160E-3	-4.371787E-3	-4.389517E-3	-6.700794E-3	-1.141579E-2	4.377263E-3	-4.746675E-3	-1.774775E-3	3.852935E-3	-6.747894E-3	-1.487341E-2	-1.261714E-2
5.315130E+2	-1.480700E-3	-1.281871E-2	-7.672366E-3	-4.259565E-3	3.992464E-3	6.858542E-3	7.224437E-3	-6.578917E-3	-4.311280E-4	-2.893223E-3	5.483933E-4	-2.072926E-3	-1.803593E-3	7.274706E-3	-4.951923E-3	-2.853257E-3	8.872526E-4	-8.633474E-4	-1.161408E-2	-1.082320E-2	-3.783899E-3	2.288591E-3	-8.382860E-3	-2.466865E-3	-7.421588E-3	-5.627654E-3	8.252973E-3	1.148998E-2	-4.935495E-3	-1.242397E-3	-8.800896E-4	-1.840163E-3	4.142432E-3	3.172591E-3	-3.248838E-3	-1.358438E-3	2.303815E-3	-7.655559E-3	-7.464274E-3	-6.491334E-3	7.373446E-4	1.443812E-3	1.691289E-3	-4.181846E-3	-3.576411E-4	-9.328581E-3	1.849289E-3	-1.695594E-3	-3.835343E-3	-1.019635E-2	-1.368787E-2	-3.480865E-3	2.036660E-3	-7.142588E-3	1.970630E-3	-6.282019E-3	-4.578960E-3	1.050125E-3	-1.463823E-3	-7.737938E-3	4.056099E-4	1.417451E-4	2.296539E-3	-8.316224E-3	-2.403363E-3	-7.159169E-3	-7.219503E-3	-4.554152E-3	-1.424170E-3	-9.438647E-3	6.078078E-3	5.255557E-4	-1.014578E-3	-8.167881E-3	-5.630400E-3	-4.796636E-3	-3.790027E-3	-8.235991E-3	-3.447229E-5	-1.224393E-2	-8.306121E-3	-9.943512E-3	-1.829419E-3	-4.690910E-3	-9.439136E-3	-1.424795E-3	-5.177709E-3	6.314710E-3	-4.717262E-3	5.287556E-4	-4.635061E-3	-1.791289E-3	-7.008693E-3	-1.114156E-2	-5.199820E-3	-5.604340E-3	-6.299430E-3	-9.224556E-4	-1.557626E-2	-1.838735E-3	-3.591769E-3	-4.138410E-3	-3.650330E-4	-6.312409E-3	-1.331092E-3	-4.233360E-3	-1.140638E-2	1.760911E-3	-1.884043E-2	-6.428816E-4	7.827661E-4	5.348441E-3	-6.133321E-3	-3.998409E-3	2.882777E-3	-3.193357E-3	-5.850388E-3	1.511738E-3	-7.826933E-3	3.854358E-4	-1.031593E-2	-4.827021E-3	-6.975362E-3	-6.348524E-3	7.974444E-5	-9.827676E-3	-1.401766E-2	-3.834253E-3	3.210890E-3	-7.174736E-3	5.878947E-3	-1.708735E-2	-1.180315E-2	-9.153596E-3	-2.916388E-3	-5.884642E-3	-1.145792E-2	-9.895735E-3	5.438602E-3	-3.456592E-3	1.445483E-3	-1.841394E-3	-1.220062E-2	-6.954827E-3	-5.867399E-3	-8.789969E-3	3.530269E-3	3.829862E-3	-1.201358E-3	-7.346970E-3	1.896173E-3	-3.699826E-3	-2.304568E-3	5.484569E-3	-4.073227E-3	-1.902959E-3	-6.326465E-3	-5.260294E-3	-4.099331E-3	-1.955677E-3	-3.912064E-3	8.346654E-4	-9.054467E-3	-6.649673E-3	1.302917E-2	1.487300E-2
5.320170E+2	-2.210691E-3	6.712349E-3	8.250426E-3	-7.278403E-3	-9.114147E-3	-7.552834E-3	-5.655947E-3	-3.559241E-3	-8.615876E-3	-6.522373E-4	-1.165045E-5	1.453561E-2	-4.320220E-3	-1.066793E-2	1.602347E-3	-4.711743E-3	-6.069272E-3	-7.725641E-4	-3.177580E-3	-6.845787E-3	-1.742590E-3	-4.273397E-3	1.379756E-2	-3.685815E-3	1.266466E-2	-8.849174E-4	6.240038E-3	9.439942E-3	-3.062336E-3	8.070047E-3	-4.689084E-3	1.432301E-2	2.220270E-3	2.559012E-3	2.031646E-3	1.909883E-3	4.922379E-3	4.978541E-3	2.203973E-4	1.786270E-3	1.382964E-2	9.629287E-3	-4.384959E-3	3.926118E-3	-2.740430E-3	4.312307E-4	-1.818950E-3	8.570077E-3	2.035947E-3	1.013965E-2	-2.688947E-3	-6.722738E-3	-4.387947E-3	-3.523395E-3	-9.208216E-3	9.989097E-3	-5.874223E-4	4.029203E-3	7.874946E-4	1.032116E-2	5.258555E-4	5.407834E-3	5.962734E-4	3.806089E-3	-2.312977E-3	9.968222E-3	8.282373E-3	-1.159118E-3	-2.807175E-5	8.348025E-3	4.882135E-3	-6.546267E-4	5.150459E-3	-8.900562E-3	3.958969E-3	-1.965791E-4	1.085658E-2	3.073537E-3	5.776084E-3	2.890406E-3	-8.647099E-4	-4.690756E-3	7.651968E-3	-2.145283E-3	-1.344266E-3	7.214101E-5	3.488231E-3	1.683407E-2	4.361887E-3	6.700108E-3	-3.805523E-3	-3.259975E-3	9.256378E-4	9.637825E-3	4.173235E-4	5.871054E-3	4.957712E-3	2.689565E-3	1.545610E-3	1.424192E-3	-1.044127E-2	-4.666299E-3	-4.662327E-3	1.799621E-3	4.915213E-3	-5.611917E-3	3.760040E-4	-3.624652E-3	1.312689E-2	4.419352E-3	-3.113498E-3	6.883083E-3	-9.479383E-4	-3.906904E-3	-2.261161E-3	-3.931821E-3	-2.069558E-4	5.002739E-3	-4.433591E-3	-4.354684E-3	4.911243E-3	7.408829E-5	5.856208E-3	-4.752980E-3	-1.121950E-3	2.467051E-4	7.733249E-3	7.229275E-3	-7.273411E-3	-4.172785E-3	1.082875E-3	-4.894474E-4	5.762843E-3	1.253964E-2	5.975923E-3	-6.431619E-3	5.466382E-3	-4.180648E-3	2.038375E-3	2.090055E-4	-4.554902E-3	6.578678E-3	-5.665208E-5	7.935057E-3	4.723461E-3	3.336514E-3	5.656512E-3	1.275024E-2	5.122491E-3	6.137217E-3	2.647341E-3	-7.070685E-4	-3.025836E-3	-8.309398E-4	-3.982575E-3	-1.017587E-3	8.766983E-3	-4.497812E-3	-1.554780E-3	-1.146481E-3	8.046050E-3	2.600859E-3	-5.714331E-3	-7.847940E-3	8.506037E-3	-4.206115E-3
5.325120E+2	4.297949E-3	1.782498E-2	4.594449E-3	-4.858531E-3	2.615201E-3	1.690620E-3	1.180336E-2	2.054090E-2	1.408251E-2	5.208003E-3	6.129269E-3	1.537654E-2	1.155792E-2	5.366309E-4	1.053602E-2	1.322871E-2	1.313294E-2	1.491059E-2	1.367469E-2	4.239627E-3	4.807918E-3	1.890255E-2	-3.787483E-3	1.125543E-2	4.647247E-3	8.625143E-3	1.199562E-2	-6.415801E-3	7.346237E-3	3.554100E-3	1.306481E-2	1.308088E-2	5.737073E-3	-9.584791E-4	1.754822E-4	1.374387E-2	5.775537E-3	1.566675E-2	1.368350E-2	5.692607E-3	-5.208103E-3	-4.255048E-3	1.503199E-2	9.140348E-3	-2.633362E-3	1.203457E-2	-2.312274E-3	5.640535E-4	1.154253E-2	6.348419E-3	-1.697945E-3	9.388013E-3	1.497365E-3	3.041086E-3	6.832968E-3	3.400938E-3	6.511474E-3	-3.026602E-3	5.891644E-3	2.062051E-2	1.042688E-2	3.524961E-4	8.559866E-3	8.161488E-3	4.034015E-3	-5.375553E-3	9.095483E-3	1.053598E-2	5.908492E-3	7.085459E-3	-9.346330E-4	3.329302E-3	9.185862E-4	1.079257E-2	1.666778E-2	1.529949E-3	9.585770E-3	2.473830E-3	8.434547E-3	1.464658E-2	7.328049E-3	1.316616E-2	5.073332E-3	8.610941E-3	-3.251285E-3	1.070986E-2	5.576146E-3	-9.453738E-3	1.270840E-2	-4.587616E-3	6.582936E-3	9.261358E-3	3.715701E-4	4.270349E-3	-7.137773E-4	1.452583E-2	2.072189E-2	1.613748E-2	1.256805E-2	3.094693E-3	2.236187E-2	1.428306E-2	2.348205E-3	-1.016924E-4	1.930252E-3	3.364584E-3	6.675287E-3	5.104466E-3	1.644761E-2	5.146885E-3	1.424544E-2	-1.334330E-4	7.158780E-3	1.554506E-2	-1.970407E-4	1.263676E-2	1.794552E-2	1.120189E-2	7.564793E-3	5.430910E-3	4.324428E-3	1.060110E-2	8.088728E-3	1.041009E-2	1.407448E-2	1.660178E-2	1.039342E-2	1.557771E-2	2.694626E-3	9.048519E-3	1.453268E-2	1.851436E-2	1.837638E-3	9.768424E-3	6.759610E-3	8.453555E-3	1.359226E-2	1.444805E-2	4.940804E-3	6.019076E-3	1.321281E-2	3.479097E-3	1.514454E-2	6.694851E-3	4.007261E-3	4.134866E-3	5.081558E-3	-2.414903E-3	6.601064E-3	1.400489E-2	4.035503E-3	8.810864E-3	2.039125E-2	1.210286E-2	5.268347E-3	2.199175E-2	6.136659E-3	3.642284E-3	-2.482985E-4	6.132715E-3	2.931793E-3	7.694896E-3	1.805106E-2	2.561131E-2	1.480832E-2	9.620098E-3
5.330230E+2	8.392094E-3	1.197484E-2	1.006146E-2	2.347556E-2	1.994413E-2	1.174125E-2	2.534011E-3	4.632319E-3	1.797982E-2	2.258670E-2	1.832273E-2	1.116659E-2	1.500562E-2	1.940839E-2	1.066896E-2	4.845259E-3	1.614580E-2	1.026035E-2	1.660564E-2	1.370718E-2	1.918268E-2	2.261960E-2	2.163023E-2	1.202291E-2	1.963877E-2	1.336913E-2	8.552026E-3	1.480544E-2	2.606747E-2	1.234228E-2	1.055923E-2	1.528140E-2	1.263202E-2	1.500420E-2	6.125607E-3	1.074461E-2	1.675148E-2	5.838198E-3	1.255317E-2	1.461736E-2	2.249356E-2	1.501301E-2	1.372611E-2	1.290571E-2	6.762335E-3	1.641279E-2	2.106862E-2	1.974717E-2	1.310805E-2	2.478919E-2	2.119479E-2	3.639917E-2	1.689078E-2	1.611869E-2	1.161620E-2	6.925340E-3	1.207278E-2	1.437170E-2	1.891088E-2	1.604807E-2	2.297263E-2	1.023196E-2	9.887275E-3	1.683253E-2	1.599685E-2	1.779254E-2	1.482293E-2	8.509350E-3	2.616606E-2	1.265411E-2	8.391618E-3	9.382865E-3	1.998144E-2	2.153235E-2	1.898048E-2	2.512898E-2	1.316509E-2	3.001914E-2	1.363744E-2	2.507191E-2	1.334081E-2	2.069757E-2	6.528971E-3	9.539634E-3	2.898001E-2	1.222525E-2	7.008988E-3	8.026013E-3	4.547046E-3	1.148446E-2	2.068690E-2	1.403473E-2	2.014298E-2	1.964964E-2	3.264715E-2	1.778844E-3	1.412966E-2	8.522862E-3	1.200154E-2	2.469037E-2	1.203349E-2	1.252315E-2	7.496862E-3	2.680914E-2	1.360102E-2	2.053604E-2	2.128495E-2	2.960919E-2	4.417625E-3	1.831360E-2	2.014855E-2	1.779429E-2	1.457207E-2	1.279326E-2	2.232621E-2	2.430957E-2	6.952628E-3	1.132738E-2	1.629859E-2	1.525591E-2	2.105863E-2	2.118673E-2	1.175415E-2	2.034187E-2	1.091675E-2	2.362696E-2	1.754967E-2	1.364504E-2	1.836504E-2	8.428619E-3	9.020301E-3	2.416724E-2	2.420777E-2	9.160312E-3	1.908606E-2	2.469264E-2	1.532343E-2	1.618061E-2	2.264854E-2	1.544175E-2	1.129471E-2	1.899528E-2	6.805001E-3	1.085384E-2	1.707724E-2	1.773918E-2	1.058551E-2	7.322766E-3	1.642497E-2	1.200672E-2	1.513323E-2	1.546536E-2	1.163893E-2	7.383964E-3	1.173308E-2	1.499608E-2	1.239888E-2	2.325388E-2	9.563826E-3	1.127847E-2	1.493427E-2	1.949114E-2	2.062912E-2	-2.553003E-3	-3.706487E-3	1.248932E-2
5.331580E+2	1.587021E-2	3.858355E-2	2.239909E-2	1.821263E-2	5.246378E-3	1.970063E-2	1.284361E-2	1.280720E-2	1.207153E-2	1.342195E-2	1.775806E-2	6.297452E-3	2.636655E-2	2.017538E-2	1.195714E-2	1.622528E-2	9.178486E-3	1.108844E-2	2.097929E-2	1.397697E-2	1.999202E-2	4.033912E-3	1.802662E-2	1.559452E-2	2.269476E-2	1.218474E-2	2.995956E-2	1.428598E-2	2.688368E-2	2.056584E-2	2.638844E-2	1.474196E-2	2.433645E-2	3.028596E-2	1.340689E-2	7.732213E-3	2.065470E-2	1.854923E-2	1.190204E-2	9.052955E-3	2.491468E-2	1.587261E-2	3.030895E-2	2.033698E-2	2.925933E-2	9.268390E-3	6.670971E-3	3.214759E-2	3.073579E-3	1.962283E-2	2.442619E-2	2.225025E-2	1.329007E-2	1.388714E-2	2.108203E-2	3.213043E-2	1.529169E-2	2.532827E-2	2.120335E-2	2.403716E-2	1.130313E-2	6.321324E-3	3.126019E-2	2.622377E-2	2.030589E-2	1.475958E-3	1.283488E-2	2.865288E-2	2.631284E-2	2.030811E-2	1.578134E-2	9.522163E-3	2.357064E-2	1.265593E-2	1.318275E-2	2.151684E-2	2.513600E-2	2.312514E-2	1.504481E-2	1.974055E-2	2.160556E-2	2.379950E-2	1.135462E-2	2.970367E-2	1.304488E-2	1.657339E-2	1.573860E-2	1.379871E-2	2.271698E-2	2.454110E-3	2.229681E-2	2.823831E-2	2.488357E-2	1.796027E-2	2.911668E-2	2.335285E-2	1.649938E-2	3.050574E-2	2.651995E-2	2.405068E-2	1.146343E-2	1.202382E-2	2.531504E-2	2.296563E-2	1.063176E-2	1.696184E-2	1.243504E-2	1.006712E-2	1.287694E-2	7.256647E-3	1.743508E-2	2.651472E-2	8.123827E-3	3.740182E-2	2.380668E-2	1.866359E-2	1.614657E-2	2.097214E-2	1.644668E-2	1.748552E-2	1.685099E-2	1.971286E-2	2.652576E-3	5.360125E-3	1.699021E-2	2.442504E-2	2.539825E-2	1.104180E-2	1.992569E-2	1.441448E-2	1.761832E-2	2.195185E-2	1.897657E-2	1.942791E-2	2.264298E-2	2.033659E-2	2.352314E-2	1.307798E-2	1.927954E-2	1.342497E-2	1.621493E-2	1.914898E-2	1.967919E-2	3.128165E-2	1.722035E-2	1.716760E-2	2.289232E-2	2.355967E-2	2.421595E-2	1.568740E-2	1.527911E-2	2.725947E-2	2.792283E-2	1.556417E-2	2.249236E-2	1.355262E-2	1.459882E-2	7.911780E-3	1.457488E-2	1.935629E-2	2.102844E-2	2.633699E-2	2.241764E-2	1.420052E-3	1.663152E-2	9.877477E-3
5.333130E+2	2.339247E-2	4.140454E-2	1.873532E-2	3.025962E-2	2.158646E-2	1.988667E-2	2.392029E-2	7.833449E-3	2.510291E-2	2.729589E-2	2.798242E-2	1.184631E-2	3.112696E-2	2.382578E-2	3.461970E-2	2.411162E-2	2.378185E-2	1.671172E-2	2.751680E-2	2.020943E-2	3.078941E-2	3.399658E-2	2.072259E-2	2.297414E-2	2.951849E-2	1.834420E-2	3.365895E-2	-9.525997E-4	2.888864E-2	1.954294E-2	2.587627E-2	8.210126E-3	1.356904E-2	2.610601E-2	3.185671E-2	2.186999E-2	2.081295E-2	2.799165E-2	2.475153E-2	3.256627E-2	1.740799E-2	1.378261E-2	1.942853E-2	2.263046E-2	2.939876E-2	1.913271E-2	8.686114E-3	2.683707E-2	2.132068E-2	1.975182E-2	2.211816E-2	2.152565E-2	2.865784E-2	2.051773E-2	1.853749E-2	1.530596E-2	3.022768E-2	2.465783E-2	2.350133E-2	1.472781E-2	1.468011E-2	3.935274E-2	4.237494E-2	1.637417E-2	2.042975E-2	1.719408E-2	1.788615E-2	3.211543E-2	2.058910E-2	3.209811E-2	1.525027E-2	1.681505E-2	1.763884E-2	2.592747E-2	4.273161E-2	3.672643E-2	3.295972E-2	1.337913E-2	2.410994E-2	3.298333E-2	1.877748E-2	2.169634E-2	2.565065E-2	2.656034E-2	2.393444E-2	2.943384E-2	1.986142E-2	2.022495E-2	3.794623E-2	2.471222E-2	2.243457E-2	2.758740E-2	3.096599E-2	3.220420E-2	2.494473E-2	3.067527E-2	3.313757E-2	2.571572E-2	3.148247E-2	2.347447E-2	1.019558E-2	1.658132E-2	2.736585E-2	2.182522E-2	2.080764E-2	2.230507E-2	2.780510E-2	1.889997E-2	2.136431E-2	3.234213E-2	1.758790E-2	2.022558E-2	1.118272E-2	1.737528E-2	2.992199E-2	2.541946E-2	2.048088E-2	1.432636E-2	1.725125E-2	2.528892E-2	2.933177E-2	2.549467E-2	1.345921E-2	3.048642E-2	1.647302E-2	3.024370E-2	3.519461E-2	2.290927E-2	1.792871E-2	3.143240E-2	3.119518E-2	1.655008E-2	1.778030E-2	2.681976E-2	2.075466E-2	3.084227E-2	1.721049E-2	2.779550E-2	1.235113E-2	2.794884E-2	2.388262E-2	3.156037E-2	1.618495E-2	2.399840E-2	1.410155E-2	4.014312E-2	1.965134E-2	3.096401E-2	3.620643E-2	3.144580E-2	3.683920E-2	2.013156E-2	3.211995E-2	3.346441E-2	2.902514E-2	4.937376E-3	2.098816E-2	2.221038E-2	2.994467E-2	2.527348E-2	2.198328E-2	2.144479E-2	2.173287E-2	2.345987E-2	1.523476E-2	4.868533E-2
5.334580E+2	2.546149E-2	3.894733E-2	4.647507E-2	2.663814E-2	2.411938E-2	2.091172E-2	2.915003E-2	1.235130E-2	3.204189E-2	1.591034E-2	2.878820E-2	2.120250E-2	4.257358E-2	3.812753E-2	2.767076E-2	3.310323E-2	3.189928E-2	3.668336E-2	2.061940E-2	3.606284E-2	3.624307E-2	1.756958E-2	3.106243E-2	2.558844E-2	2.447342E-2	4.939407E-2	3.237716E-2	2.351506E-2	3.216744E-2	3.710330E-2	2.603163E-2	2.638090E-2	2.684421E-2	3.426450E-2	3.337550E-2	3.503728E-2	3.908921E-2	4.148224E-2	3.509358E-2	3.357800E-2	1.608853E-2	3.393729E-2	3.543732E-2	4.063874E-2	2.086102E-2	1.868523E-2	2.718071E-2	2.789782E-2	3.404259E-2	3.244595E-2	3.718732E-2	4.911370E-2	3.494753E-2	3.136143E-2	2.947372E-2	2.311263E-2	3.358478E-2	4.281612E-2	2.725454E-2	2.733249E-2	4.170756E-2	3.664373E-2	3.037183E-2	3.651283E-2	1.775334E-2	2.169243E-2	3.356809E-2	1.951788E-2	3.838085E-2	3.089325E-2	3.461317E-2	3.131748E-2	2.124920E-2	3.842559E-2	3.315563E-2	2.307282E-2	4.153015E-2	2.128647E-2	2.362582E-2	2.900012E-2	3.524717E-2	3.750591E-2	2.647824E-2	3.982199E-2	2.882165E-2	1.258135E-2	1.335498E-2	2.457899E-2	3.055919E-2	3.328617E-2	2.998094E-2	3.243361E-2	3.641927E-2	3.607012E-2	2.882221E-2	3.298644E-2	3.331274E-2	2.587996E-2	1.787973E-2	4.527644E-2	3.137528E-2	1.610195E-2	3.768636E-2	3.684262E-2	3.492578E-2	3.290455E-2	3.143495E-2	1.904638E-2	3.441021E-2	3.815329E-2	4.094996E-2	4.190069E-2	2.233362E-2	3.052887E-2	3.940041E-2	3.138249E-2	3.464793E-2	3.083771E-2	3.675148E-2	3.592769E-2	3.898574E-2	3.779244E-2	2.931593E-2	2.306545E-2	3.052726E-2	3.610017E-2	4.633938E-2	3.206949E-2	1.024233E-2	2.498506E-2	3.208885E-2	1.908538E-2	3.695330E-2	2.190226E-2	3.184757E-2	2.064395E-2	1.978967E-2	2.144625E-2	3.659130E-2	3.315701E-2	4.256092E-2	3.515953E-2	3.155365E-2	3.164055E-2	4.929761E-2	2.534552E-2	2.728206E-2	3.841372E-2	2.801577E-2	1.882754E-2	4.029186E-2	2.030076E-2	3.959410E-2	4.659246E-2	3.062107E-2	2.895289E-2	2.256266E-2	2.170013E-2	3.014979E-2	2.689211E-2	3.715982E-2	4.343978E-2	3.918686E-2	3.785552E-2	4.979048E-2	1.291297E-2
5.336080E+2	2.540551E-2	5.089510E-2	4.415882E-2	5.418789E-2	3.790398E-2	3.705107E-2	2.634804E-2	1.902885E-2	4.356262E-2	3.978302E-2	4.244871E-2	2.555679E-2	4.870371E-2	3.765349E-2	3.853367E-2	3.521583E-2	4.639411E-2	4.910891E-2	3.624733E-2	3.671644E-2	5.276267E-2	4.285497E-2	4.080020E-2	5.052007E-2	3.222323E-2	3.128338E-2	3.609805E-2	3.988148E-2	4.071846E-2	3.903767E-2	4.464004E-2	3.630164E-2	4.235294E-2	4.460457E-2	4.996437E-2	4.377938E-2	4.397182E-2	3.231649E-2	3.151207E-2	5.265422E-2	1.932606E-2	3.335897E-2	4.477883E-2	4.368636E-2	3.800207E-2	1.887095E-2	3.753381E-2	4.129767E-2	4.485859E-2	4.322796E-2	3.433775E-2	4.187454E-2	4.282845E-2	2.978349E-2	3.238719E-2	3.741192E-2	6.218467E-2	4.384519E-2	2.095317E-2	4.158437E-2	3.420311E-2	3.859156E-2	3.668059E-2	2.579689E-2	3.097211E-2	4.283741E-2	3.241954E-2	3.615403E-2	4.495021E-2	3.729557E-2	4.418914E-2	3.982217E-2	3.999241E-2	2.625241E-2	5.864044E-2	2.702226E-2	1.930519E-2	2.710706E-2	2.188187E-2	4.646536E-2	2.128820E-2	3.692659E-2	4.154876E-2	4.080841E-2	3.573572E-2	2.902702E-2	3.281225E-2	3.875899E-2	3.374299E-2	2.501758E-2	3.533682E-2	3.335583E-2	3.462952E-2	4.857342E-2	4.326724E-2	4.249571E-2	3.498398E-2	3.808126E-2	3.732045E-2	2.776184E-2	3.506200E-2	4.036578E-2	3.912062E-2	2.754746E-2	2.342278E-2	3.979132E-2	2.601674E-2	4.693155E-2	3.523967E-2	4.458372E-2	3.707547E-2	2.409042E-2	3.423795E-2	4.007280E-2	5.352330E-2	3.898777E-2	3.691536E-2	3.781746E-2	3.490211E-2	3.047864E-2	3.917022E-2	3.873958E-2	4.018968E-2	4.905326E-2	3.730904E-2	3.183147E-2	4.392658E-2	3.983796E-2	5.171562E-2	4.425983E-2	5.849533E-2	3.589734E-2	3.100096E-2	5.187624E-2	4.499535E-2	3.637378E-2	4.664323E-2	4.189632E-2	4.382894E-2	3.545987E-2	3.447553E-2	3.141848E-2	4.513926E-2	5.627171E-2	4.128794E-2	4.051686E-2	4.034805E-2	3.287555E-2	4.843875E-2	4.032600E-2	3.393962E-2	3.725321E-2	3.322781E-2	5.077973E-2	3.075287E-2	3.624955E-2	3.235236E-2	3.063361E-2	4.988168E-2	4.153295E-2	4.254392E-2	2.339261E-2	3.685468E-2	5.482087E-2	3.430341E-2	4.907140E-2
5.337630E+2	4.099389E-2	4.839804E-2	5.565796E-2	5.117847E-2	6.076185E-2	3.867370E-2	4.912723E-2	5.517658E-2	5.359176E-2	6.098274E-2	4.258455E-2	5.163944E-2	5.614052E-2	4.839158E-2	4.110189E-2	6.187411E-2	5.872571E-2	4.034475E-2	4.134384E-2	5.777314E-2	5.162010E-2	3.688094E-2	4.022086E-2	5.199448E-2	4.219304E-2	5.576624E-2	5.414038E-2	3.864600E-2	4.946914E-2	3.449875E-2	5.535052E-2	6.076072E-2	5.363856E-2	4.478006E-2	5.476485E-2	6.019871E-2	4.422441E-2	5.523443E-2	4.650402E-2	5.531242E-2	3.885231E-2	3.426452E-2	3.323672E-2	3.677087E-2	6.708592E-2	4.780520E-2	4.094565E-2	4.835432E-2	6.424631E-2	3.218047E-2	5.928022E-2	3.729316E-2	4.891083E-2	5.319329E-2	5.748758E-2	2.628184E-2	3.879694E-2	5.575652E-2	3.848019E-2	5.908745E-2	5.294234E-2	3.995114E-2	4.912049E-2	6.316390E-2	6.612195E-2	5.654810E-2	5.253181E-2	5.533711E-2	3.150481E-2	5.405943E-2	4.576714E-2	4.204602E-2	4.033356E-2	4.377138E-2	6.201211E-2	3.027264E-2	4.494725E-2	2.729361E-2	4.454415E-2	7.062359E-2	4.601937E-2	3.643866E-2	4.050536E-2	5.557287E-2	5.890860E-2	6.836871E-2	5.513331E-2	4.699067E-2	5.247072E-2	4.823984E-2	4.820990E-2	4.196830E-2	3.944990E-2	4.754044E-2	5.902982E-2	4.844308E-2	6.004330E-2	4.467329E-2	5.961807E-2	7.055078E-2	2.819479E-2	4.436379E-2	5.650358E-2	5.141409E-2	4.304951E-2	4.446708E-2	4.500016E-2	2.805494E-2	3.090625E-2	6.236291E-2	6.056703E-2	6.093934E-2	3.957552E-2	6.127919E-2	4.439553E-2	4.331111E-2	3.921191E-2	4.963111E-2	5.849645E-2	5.166225E-2	4.887541E-2	5.597283E-2	5.542413E-2	4.467684E-2	4.547666E-2	4.339206E-2	5.316024E-2	4.210457E-2	5.405526E-2	5.329194E-2	5.728041E-2	3.606201E-2	5.297490E-2	6.082843E-2	3.901458E-2	5.087914E-2	4.683186E-2	6.651549E-2	3.903062E-2	5.443614E-2	5.803977E-2	6.213360E-2	4.778695E-2	5.102963E-2	3.819692E-2	5.145812E-2	4.053379E-2	5.170067E-2	6.055226E-2	3.979404E-2	4.783330E-2	4.037086E-2	4.721754E-2	4.934221E-2	5.089934E-2	5.480050E-2	4.220305E-2	4.709369E-2	5.500325E-2	4.243694E-2	6.829062E-2	4.880675E-2	4.530311E-2	1.999237E-2	4.074927E-2	2.426300E-2
5.339090E+2	7.287332E-2	5.720336E-2	7.734983E-2	5.689391E-2	3.584468E-2	6.527282E-2	5.369132E-2	4.945726E-2	5.072388E-2	7.570870E-2	4.546722E-2	6.553005E-2	5.833509E-2	5.694409E-2	5.620097E-2	6.768482E-2	6.900038E-2	6.248731E-2	4.150736E-2	6.231061E-2	7.877566E-2	6.227089E-2	6.414158E-2	7.441963E-2	8.218603E-2	6.677007E-2	6.361359E-2	5.386952E-2	6.786150E-2	6.738679E-2	5.759632E-2	5.436067E-2	6.347358E-2	5.878919E-2	6.945393E-2	5.124008E-2	6.323206E-2	5.339153E-2	6.330177E-2	7.079100E-2	7.238268E-2	6.644813E-2	7.027971E-2	5.117688E-2	5.722192E-2	5.474428E-2	6.468561E-2	6.341388E-2	6.881680E-2	6.543943E-2	6.727083E-2	5.385758E-2	6.161637E-2	5.637029E-2	5.565133E-2	5.102367E-2	6.891017E-2	5.663554E-2	5.387542E-2	5.550445E-2	6.966866E-2	6.690833E-2	6.956491E-2	7.241837E-2	7.981785E-2	6.423541E-2	4.773023E-2	4.661193E-2	5.748438E-2	7.083512E-2	4.995447E-2	6.026216E-2	6.066584E-2	5.634433E-2	6.961614E-2	5.323572E-2	6.492332E-2	6.729934E-2	5.117292E-2	7.585570E-2	5.692247E-2	8.241787E-2	5.637903E-2	5.796077E-2	5.519444E-2	6.574347E-2	6.072473E-2	7.314502E-2	6.723451E-2	5.688841E-2	6.554191E-2	7.768368E-2	6.440453E-2	7.621129E-2	7.613199E-2	5.883420E-2	5.342275E-2	5.563036E-2	5.995376E-2	6.362687E-2	6.434491E-2	5.480966E-2	6.576227E-2	5.940299E-2	6.551265E-2	6.717964E-2	5.222661E-2	6.412073E-2	8.425399E-2	6.888789E-2	5.732680E-2	6.407674E-2	6.125987E-2	5.642993E-2	8.799891E-2	6.284363E-2	7.890850E-2	6.150211E-2	8.087077E-2	7.049925E-2	8.210148E-2	6.104033E-2	8.078712E-2	7.230510E-2	4.703130E-2	6.833503E-2	6.698833E-2	6.525347E-2	7.074916E-2	6.828984E-2	6.889867E-2	6.814269E-2	5.185337E-2	7.786234E-2	5.704968E-2	6.023239E-2	5.273373E-2	4.142597E-2	6.556792E-2	7.640432E-2	8.035360E-2	6.498120E-2	6.639120E-2	6.899791E-2	6.541945E-2	7.323412E-2	5.847759E-2	6.084061E-2	5.726906E-2	6.002487E-2	7.029960E-2	5.012007E-2	7.839394E-2	6.011369E-2	7.827740E-2	7.102606E-2	6.805836E-2	8.814077E-2	6.507609E-2	6.959341E-2	5.722681E-2	7.010371E-2	7.781276E-2	6.044054E-2	4.881688E-2	9.960277E-2
5.340640E+2	9.875697E-2	1.067544E-1	1.070112E-1	7.219316E-2	9.405139E-2	1.208566E-1	8.256967E-2	9.539772E-2	1.234876E-1	1.014483E-1	1.134714E-1	1.098994E-1	1.166424E-1	1.052697E-1	8.093761E-2	1.007829E-1	1.205382E-1	1.115831E-1	9.340954E-2	1.017633E-1	9.221968E-2	8.412857E-2	1.171357E-1	8.974193E-2	9.746143E-2	1.253518E-1	1.104528E-1	1.127999E-1	1.127698E-1	1.103289E-1	8.560882E-2	8.751487E-2	1.044550E-1	8.964871E-2	8.946807E-2	1.098112E-1	1.258890E-1	1.072774E-1	9.806741E-2	1.077644E-1	9.201824E-2	1.017227E-1	8.919802E-2	1.113082E-1	9.711105E-2	7.829377E-2	9.045489E-2	9.457106E-2	1.228361E-1	8.754147E-2	1.047196E-1	9.441826E-2	8.621349E-2	1.032243E-1	1.004492E-1	9.102589E-2	1.085816E-1	1.246496E-1	9.695197E-2	9.571315E-2	1.023668E-1	1.108881E-1	1.183663E-1	8.352268E-2	7.861637E-2	9.447855E-2	1.092151E-1	1.024223E-1	1.120849E-1	8.628780E-2	1.023154E-1	9.059284E-2	1.065430E-1	9.051278E-2	9.493079E-2	9.316064E-2	9.197263E-2	1.045922E-1	9.584217E-2	1.074372E-1	9.633904E-2	9.242072E-2	8.387817E-2	1.084855E-1	8.341666E-2	9.666599E-2	1.065701E-1	1.043937E-1	1.102613E-1	1.048664E-1	9.262393E-2	1.282560E-1	1.039691E-1	9.816256E-2	1.001426E-1	1.072435E-1	1.215930E-1	1.115379E-1	1.164479E-1	1.089604E-1	1.045126E-1	9.336988E-2	9.482916E-2	1.006667E-1	1.152382E-1	1.147660E-1	9.934345E-2	8.295743E-2	8.796710E-2	1.164625E-1	9.388346E-2	1.072554E-1	1.162024E-1	1.012577E-1	1.085915E-1	8.508143E-2	1.164145E-1	1.161298E-1	1.035326E-1	1.114173E-1	1.102419E-1	1.256993E-1	1.092370E-1	9.517324E-2	9.006803E-2	9.658538E-2	1.010525E-1	1.181206E-1	9.497288E-2	8.638673E-2	1.127923E-1	1.022112E-1	9.678394E-2	1.191854E-1	9.723067E-2	1.001343E-1	1.126070E-1	1.095448E-1	1.058236E-1	9.911417E-2	1.138648E-1	1.142234E-1	1.041551E-1	1.041814E-1	1.034815E-1	1.081259E-1	9.772960E-2	1.327612E-1	1.110291E-1	9.899238E-2	1.171452E-1	1.107183E-1	1.105526E-1	1.043683E-1	1.065155E-1	9.456136E-2	1.253491E-1	1.157575E-1	1.214249E-1	8.594670E-2	1.028076E-1	9.742714E-2	1.005076E-1	8.022844E-2	1.089167E-1	6.647714E-2
5.342090E+2	1.274886E-1	1.463266E-1	1.457526E-1	1.251680E-1	1.271365E-1	1.476625E-1	1.188398E-1	1.554655E-1	1.337434E-1	1.192062E-1	1.559046E-1	1.188649E-1	1.343358E-1	1.412536E-1	1.471433E-1	1.308004E-1	1.396174E-1	1.607962E-1	1.412415E-1	1.458392E-1	1.472830E-1	1.428962E-1	1.354489E-1	1.517222E-1	1.437378E-1	1.690902E-1	1.495507E-1	1.239084E-1	1.322770E-1	1.481309E-1	1.433972E-1	1.602295E-1	1.399501E-1	1.557793E-1	1.221243E-1	1.253846E-1	1.351988E-1	1.331286E-1	1.189348E-1	1.682084E-1	1.361250E-1	1.535787E-1	1.332436E-1	1.316183E-1	1.429265E-1	1.284066E-1	1.387566E-1	1.436537E-1	1.562483E-1	1.090627E-1	1.440099E-1	1.399834E-1	1.657214E-1	1.305010E-1	1.400011E-1	1.413210E-1	1.571628E-1	1.657154E-1	1.699941E-1	1.413587E-1	1.463072E-1	1.550511E-1	1.451948E-1	1.605955E-1	1.444653E-1	1.391458E-1	1.416510E-1	1.268131E-1	1.669082E-1	1.323388E-1	1.341060E-1	1.349294E-1	1.393818E-1	1.621716E-1	1.509170E-1	1.495838E-1	1.212593E-1	1.584508E-1	1.361722E-1	1.339444E-1	1.623618E-1	1.469286E-1	1.306414E-1	1.315812E-1	1.268187E-1	1.427157E-1	1.599813E-1	1.331918E-1	1.388788E-1	1.653803E-1	1.617166E-1	1.352662E-1	1.496723E-1	1.251633E-1	1.399087E-1	1.509212E-1	1.364325E-1	1.375921E-1	1.459979E-1	1.510687E-1	1.326109E-1	1.346268E-1	1.541520E-1	1.494538E-1	1.564258E-1	1.414418E-1	1.389112E-1	1.207645E-1	1.397397E-1	1.142807E-1	1.340843E-1	1.238870E-1	1.397059E-1	1.475573E-1	1.209974E-1	1.250767E-1	1.238662E-1	1.550355E-1	1.301513E-1	1.324338E-1	1.482117E-1	1.472609E-1	1.362577E-1	1.450548E-1	1.310417E-1	1.313709E-1	1.554937E-1	1.407749E-1	1.283116E-1	1.351317E-1	1.556541E-1	1.290805E-1	1.642116E-1	1.416643E-1	1.335843E-1	1.440245E-1	1.273559E-1	1.328619E-1	1.319960E-1	1.402795E-1	1.530284E-1	1.453415E-1	1.451745E-1	1.455278E-1	1.252138E-1	1.503843E-1	1.666470E-1	1.257354E-1	1.502063E-1	1.316411E-1	1.313122E-1	1.379230E-1	1.387573E-1	1.569501E-1	1.190667E-1	1.293959E-1	1.146070E-1	1.325308E-1	1.543963E-1	1.513725E-1	1.341861E-1	1.384051E-1	1.340857E-1	1.146205E-1	1.061152E-1	1.730135E-1
5.343600E+2	2.247208E-1	2.347733E-1	2.460541E-1	2.281034E-1	2.468671E-1	2.217269E-1	2.348758E-1	2.268516E-1	2.596899E-1	2.488616E-1	2.535918E-1	2.513015E-1	2.317830E-1	2.314469E-1	2.417394E-1	2.391027E-1	2.399683E-1	2.487957E-1	2.332519E-1	2.323477E-1	2.573761E-1	2.617483E-1	2.451781E-1	2.481777E-1	2.537017E-1	2.589559E-1	2.255624E-1	2.343718E-1	2.432525E-1	2.441373E-1	2.434189E-1	2.352888E-1	2.596011E-1	2.800905E-1	2.483882E-1	2.496150E-1	2.463171E-1	2.089889E-1	2.454765E-1	2.418638E-1	2.132258E-1	2.430826E-1	2.233940E-1	2.451482E-1	2.408763E-1	2.515274E-1	2.603534E-1	2.200090E-1	2.621635E-1	2.385694E-1	2.188270E-1	2.612768E-1	2.477869E-1	2.311718E-1	2.279126E-1	2.280065E-1	2.495837E-1	2.740852E-1	2.433921E-1	2.371869E-1	2.463311E-1	2.492095E-1	2.579603E-1	2.676918E-1	2.670077E-1	2.518659E-1	2.343234E-1	2.430272E-1	2.399350E-1	2.481022E-1	2.486295E-1	2.399054E-1	2.843605E-1	2.290789E-1	2.308195E-1	2.205151E-1	2.619860E-1	2.647850E-1	2.569123E-1	2.496873E-1	2.483187E-1	2.431566E-1	2.701060E-1	2.689709E-1	2.609181E-1	2.376985E-1	2.351703E-1	2.548486E-1	2.581646E-1	2.702040E-1	2.572742E-1	2.532825E-1	2.490636E-1	2.343996E-1	2.413244E-1	2.369765E-1	2.500570E-1	2.282348E-1	2.307493E-1	2.475857E-1	2.622476E-1	2.279882E-1	2.561213E-1	2.759732E-1	2.764840E-1	2.564357E-1	2.341221E-1	2.354418E-1	2.471929E-1	2.532207E-1	2.384914E-1	2.607596E-1	2.531474E-1	2.649728E-1	2.194775E-1	2.420112E-1	2.611181E-1	2.567953E-1	2.649287E-1	2.304730E-1	2.247286E-1	2.515457E-1	2.305397E-1	2.237564E-1	2.382498E-1	2.115076E-1	2.504502E-1	2.186134E-1	2.471326E-1	2.471380E-1	2.615365E-1	2.437726E-1	2.247371E-1	2.603894E-1	2.438356E-1	2.444878E-1	2.614654E-1	2.448480E-1	2.090216E-1	2.389839E-1	2.683822E-1	2.598217E-1	2.517456E-1	2.693524E-1	2.563576E-1	2.479924E-1	2.553281E-1	2.265395E-1	2.462788E-1	2.588169E-1	2.445659E-1	2.237629E-1	2.689253E-1	2.645539E-1	2.130246E-1	2.450044E-1	2.510415E-1	2.342306E-1	2.427444E-1	2.659894E-1	2.344031E-1	2.550881E-1	2.545329E-1	2.532155E-1	2.523103E-1	2.462833E-1
5.345160E+2	4.022649E-1	3.971432E-1	4.327123E-1	4.012572E-1	4.494765E-1	4.195364E-1	3.935799E-1	3.906810E-1	4.075160E-1	4.040959E-1	4.126802E-1	4.266217E-1	4.311824E-1	4.212861E-1	4.160521E-1	3.926104E-1	4.439681E-1	4.241095E-1	3.858146E-1	4.239672E-1	4.240307E-1	4.467814E-1	3.983435E-1	4.111905E-1	4.107183E-1	4.219024E-1	4.060513E-1	4.068015E-1	4.420341E-1	4.040462E-1	4.367999E-1	4.391236E-1	4.170714E-1	4.184556E-1	3.947522E-1	3.726130E-1	4.426450E-1	4.171829E-1	4.224191E-1	4.395346E-1	4.410723E-1	3.963113E-1	4.295186E-1	4.420553E-1	4.481341E-1	4.281560E-1	4.082183E-1	4.487803E-1	4.309918E-1	4.109924E-1	4.171163E-1	4.179945E-1	4.175316E-1	4.079078E-1	3.947282E-1	4.445423E-1	4.201970E-1	4.288761E-1	4.204677E-1	4.278625E-1	4.116426E-1	3.993674E-1	4.310217E-1	4.066519E-1	4.190451E-1	4.470847E-1	3.865331E-1	3.959933E-1	4.091157E-1	4.497439E-1	4.286194E-1	4.215299E-1	4.425822E-1	4.623993E-1	3.817769E-1	3.833838E-1	4.185914E-1	4.170732E-1	3.934462E-1	4.265449E-1	4.221802E-1	4.437629E-1	3.967617E-1	4.079927E-1	4.055640E-1	4.145687E-1	4.359661E-1	4.281276E-1	4.197806E-1	3.998038E-1	4.248699E-1	4.251250E-1	4.484906E-1	4.292954E-1	4.146706E-1	4.283271E-1	4.534800E-1	4.079488E-1	4.189046E-1	4.143671E-1	4.371541E-1	4.140489E-1	4.156254E-1	3.945773E-1	4.265414E-1	4.319603E-1	4.096665E-1	4.270553E-1	4.215811E-1	4.191733E-1	4.233157E-1	4.265554E-1	4.357356E-1	4.462487E-1	4.313184E-1	3.879692E-1	4.514950E-1	4.029281E-1	4.148633E-1	4.201193E-1	4.122454E-1	4.385672E-1	4.059636E-1	4.160131E-1	4.055715E-1	4.075457E-1	4.239992E-1	4.122121E-1	4.272529E-1	4.367777E-1	4.258043E-1	4.387082E-1	4.479910E-1	4.411365E-1	4.533382E-1	4.190394E-1	4.301415E-1	4.316423E-1	4.160271E-1	4.045360E-1	4.824517E-1	4.250530E-1	4.265481E-1	4.325597E-1	4.368693E-1	4.209057E-1	4.182628E-1	4.461673E-1	4.181154E-1	4.314522E-1	4.192210E-1	4.482183E-1	4.140756E-1	3.850473E-1	3.962893E-1	3.674437E-1	4.311224E-1	4.128496E-1	4.025458E-1	4.045582E-1	4.087105E-1	4.373375E-1	4.043710E-1	4.017673E-1	4.287861E-1	4.352423E-1
5.346620E+2	6.925348E-1	6.586802E-1	6.711588E-1	7.135858E-1	6.677038E-1	7.261308E-1	7.090529E-1	7.001550E-1	6.775178E-1	6.826386E-1	7.133731E-1	7.062638E-1	7.347281E-1	6.990916E-1	6.625262E-1	6.446980E-1	7.064499E-1	7.039252E-1	6.997461E-1	6.777485E-1	6.880892E-1	6.987270E-1	6.708183E-1	7.152019E-1	6.895002E-1	6.964202E-1	6.734929E-1	7.001099E-1	6.996754E-1	6.463623E-1	7.155188E-1	6.771201E-1	6.859999E-1	6.861793E-1	6.332744E-1	7.299797E-1	7.299411E-1	6.998644E-1	6.736652E-1	6.904286E-1	6.925525E-1	7.009233E-1	6.618257E-1	6.680999E-1	6.844585E-1	6.915130E-1	6.924311E-1	6.831266E-1	7.244764E-1	6.928126E-1	7.298318E-1	6.787821E-1	7.105994E-1	6.854025E-1	6.901360E-1	6.930592E-1	6.946832E-1	6.690187E-1	6.666703E-1	7.185859E-1	7.167877E-1	6.960564E-1	7.331552E-1	6.739153E-1	6.954792E-1	6.739655E-1	6.968237E-1	6.650331E-1	7.098678E-1	7.035286E-1	6.602724E-1	6.936800E-1	6.830938E-1	6.592123E-1	6.918692E-1	7.224239E-1	6.866155E-1	6.897332E-1	6.707779E-1	6.936576E-1	6.837115E-1	6.787921E-1	7.026569E-1	6.863170E-1	6.889204E-1	7.055232E-1	6.819182E-1	7.205419E-1	6.917392E-1	6.444262E-1	6.838421E-1	6.877572E-1	6.833782E-1	6.747886E-1	6.685136E-1	6.988315E-1	7.194538E-1	6.815210E-1	6.880304E-1	7.029164E-1	6.668359E-1	7.062659E-1	6.898307E-1	6.870113E-1	6.960588E-1	6.796307E-1	6.744675E-1	7.168652E-1	6.993573E-1	6.859467E-1	6.712595E-1	6.862460E-1	6.898975E-1	6.526822E-1	7.002753E-1	6.511860E-1	6.936549E-1	7.120041E-1	6.762541E-1	6.829795E-1	7.350996E-1	7.394642E-1	7.275373E-1	6.844445E-1	6.750644E-1	6.848295E-1	6.941635E-1	6.772054E-1	6.965642E-1	7.320458E-1	6.564957E-1	6.917300E-1	7.285800E-1	6.559040E-1	7.068976E-1	6.649037E-1	6.934535E-1	6.694818E-1	6.765375E-1	6.699532E-1	7.261510E-1	7.123176E-1	7.182884E-1	7.258736E-1	7.439575E-1	6.680515E-1	6.420577E-1	7.122399E-1	6.813856E-1	6.836812E-1	7.179081E-1	7.576774E-1	7.457046E-1	7.032116E-1	6.787247E-1	6.838015E-1	7.290121E-1	6.692974E-1	6.674948E-1	6.682460E-1	6.861042E-1	6.942855E-1	7.097456E-1	7.042706E-1	7.009781E-1	7.487721E-1
5.348070E+2	1.047162E+0	1.017248E+0	9.977570E-1	1.008606E+0	1.038021E+0	1.007240E+0	1.028414E+0	1.061427E+0	1.071325E+0	1.030822E+0	1.027233E+0	1.040452E+0	1.032090E+0	1.011253E+0	1.061519E+0	1.064771E+0	1.045584E+0	1.044956E+0	1.071863E+0	9.661742E-1	1.063463E+0	1.098036E+0	1.038890E+0	1.011674E+0	1.084617E+0	1.014685E+0	9.992802E-1	1.048173E+0	1.054118E+0	1.015808E+0	1.056079E+0	9.762062E-1	1.068193E+0	1.066673E+0	9.941718E-1	1.033670E+0	1.082828E+0	1.039133E+0	1.047880E+0	1.054149E+0	1.075089E+0	1.005811E+0	1.079710E+0	1.056265E+0	1.043876E+0	1.029389E+0	1.011258E+0	1.051754E+0	1.071272E+0	9.946969E-1	1.055389E+0	1.036745E+0	1.082386E+0	9.694138E-1	1.020003E+0	1.034426E+0	1.060244E+0	1.036230E+0	9.908050E-1	1.052138E+0	1.112739E+0	1.006349E+0	1.038968E+0	1.049346E+0	1.034848E+0	1.068456E+0	9.928026E-1	1.019832E+0	1.089028E+0	1.070925E+0	1.024603E+0	1.026071E+0	1.128750E+0	1.043964E+0	1.003720E+0	1.046685E+0	1.049658E+0	1.025317E+0	9.936689E-1	1.038429E+0	1.086568E+0	1.045412E+0	1.031090E+0	1.015247E+0	1.055586E+0	1.058784E+0	1.076113E+0	1.084013E+0	1.028819E+0	1.105662E+0	1.042482E+0	1.035548E+0	1.065493E+0	1.046797E+0	1.017725E+0	1.024910E+0	1.018854E+0	9.950893E-1	9.743014E-1	1.053451E+0	1.051456E+0	1.035236E+0	1.047459E+0	1.029742E+0	1.002963E+0	1.023260E+0	9.615132E-1	1.006223E+0	1.040231E+0	1.035588E+0	1.048458E+0	1.036127E+0	1.038560E+0	1.051432E+0	1.054506E+0	9.963812E-1	1.049568E+0	1.010049E+0	1.069594E+0	1.015428E+0	1.027596E+0	1.047309E+0	1.039429E+0	1.011070E+0	1.066588E+0	1.065590E+0	1.054895E+0	9.804572E-1	1.037946E+0	1.009693E+0	1.024072E+0	1.057106E+0	1.050096E+0	1.083481E+0	1.081384E+0	1.015952E+0	1.106543E+0	1.081796E+0	1.032688E+0	9.899721E-1	9.932666E-1	1.062244E+0	1.040630E+0	1.065687E+0	1.080617E+0	1.003741E+0	9.977393E-1	1.052777E+0	1.040317E+0	1.008017E+0	1.045848E+0	1.054559E+0	1.087663E+0	1.089286E+0	1.006459E+0	1.000609E+0	1.021129E+0	1.039961E+0	1.057234E+0	1.022406E+0	1.065150E+0	1.087229E+0	1.028169E+0	1.073187E+0	1.057379E+0	1.004306E+0
5.349630E+2	1.493258E+0	1.440803E+0	1.485782E+0	1.430015E+0	1.420744E+0	1.482780E+0	1.419455E+0	1.429598E+0	1.542237E+0	1.465518E+0	1.516750E+0	1.421175E+0	1.521037E+0	1.445450E+0	1.433555E+0	1.466533E+0	1.503602E+0	1.385489E+0	1.493551E+0	1.382932E+0	1.449788E+0	1.509520E+0	1.455344E+0	1.440530E+0	1.520360E+0	1.507930E+0	1.456007E+0	1.494493E+0	1.504951E+0	1.461456E+0	1.443716E+0	1.386934E+0	1.468579E+0	1.513204E+0	1.461050E+0	1.466621E+0	1.507946E+0	1.445780E+0	1.456466E+0	1.437812E+0	1.496921E+0	1.430756E+0	1.428865E+0	1.479552E+0	1.446891E+0	1.428568E+0	1.473745E+0	1.462538E+0	1.470196E+0	1.443272E+0	1.487645E+0	1.489517E+0	1.466315E+0	1.452483E+0	1.518548E+0	1.450966E+0	1.467887E+0	1.413451E+0	1.398259E+0	1.447722E+0	1.488641E+0	1.432992E+0	1.435842E+0	1.415195E+0	1.453514E+0	1.445712E+0	1.419463E+0	1.474988E+0	1.461842E+0	1.497533E+0	1.477876E+0	1.439175E+0	1.477577E+0	1.440920E+0	1.404515E+0	1.451584E+0	1.466054E+0	1.414967E+0	1.414553E+0	1.448877E+0	1.417030E+0	1.432737E+0	1.355510E+0	1.469332E+0	1.480669E+0	1.462890E+0	1.508844E+0	1.465550E+0	1.419287E+0	1.472896E+0	1.399864E+0	1.495989E+0	1.418272E+0	1.438065E+0	1.405357E+0	1.397175E+0	1.461000E+0	1.445438E+0	1.369709E+0	1.426431E+0	1.457234E+0	1.455166E+0	1.431447E+0	1.420593E+0	1.448137E+0	1.424126E+0	1.431014E+0	1.426505E+0	1.463281E+0	1.422211E+0	1.427572E+0	1.401863E+0	1.458687E+0	1.432263E+0	1.422807E+0	1.393275E+0	1.429678E+0	1.434947E+0	1.484640E+0	1.431474E+0	1.469212E+0	1.430204E+0	1.455304E+0	1.434223E+0	1.448431E+0	1.463940E+0	1.415679E+0	1.385476E+0	1.429659E+0	1.402492E+0	1.417578E+0	1.457857E+0	1.464107E+0	1.428654E+0	1.450105E+0	1.502977E+0	1.425933E+0	1.397899E+0	1.387954E+0	1.406554E+0	1.392524E+0	1.411435E+0	1.468226E+0	1.396916E+0	1.456071E+0	1.417384E+0	1.401298E+0	1.425165E+0	1.389012E+0	1.422146E+0	1.403530E+0	1.457773E+0	1.406694E+0	1.438731E+0	1.474123E+0	1.408904E+0	1.381178E+0	1.400180E+0	1.414763E+0	1.428725E+0	1.401020E+0	1.471291E+0	1.400850E+0	1.369660E+0	1.421481E+0	1.382303E+0
5.351090E+2	1.694721E+0	1.716358E+0	1.692107E+0	1.734682E+0	1.742707E+0	1.737719E+0	1.723001E+0	1.683338E+0	1.764545E+0	1.728965E+0	1.758576E+0	1.733706E+0	1.757348E+0	1.654407E+0	1.737835E+0	1.803509E+0	1.776985E+0	1.717506E+0	1.758580E+0	1.687484E+0	1.729632E+0	1.723110E+0	1.717725E+0	1.735397E+0	1.816725E+0	1.794768E+0	1.699306E+0	1.745050E+0	1.720084E+0	1.635728E+0	1.793359E+0	1.843568E+0	1.791154E+0	1.696443E+0	1.695573E+0	1.695541E+0	1.738683E+0	1.690787E+0	1.729953E+0	1.697065E+0	1.796703E+0	1.765123E+0	1.717584E+0	1.730582E+0	1.731363E+0	1.756070E+0	1.725955E+0	1.750739E+0	1.744497E+0	1.749211E+0	1.788140E+0	1.723389E+0	1.788108E+0	1.696692E+0	1.756695E+0	1.714533E+0	1.697147E+0	1.730883E+0	1.759930E+0	1.739663E+0	1.786859E+0	1.656137E+0	1.698985E+0	1.679707E+0	1.671701E+0	1.737566E+0	1.740526E+0	1.748400E+0	1.759211E+0	1.724596E+0	1.691956E+0	1.729468E+0	1.850604E+0	1.696694E+0	1.685113E+0	1.698403E+0	1.731289E+0	1.678813E+0	1.677439E+0	1.750424E+0	1.790168E+0	1.699295E+0	1.762290E+0	1.703691E+0	1.694252E+0	1.711839E+0	1.751750E+0	1.697613E+0	1.692595E+0	1.776184E+0	1.765092E+0	1.721249E+0	1.706388E+0	1.725712E+0	1.645933E+0	1.684150E+0	1.752028E+0	1.670556E+0	1.686603E+0	1.655499E+0	1.754403E+0	1.668999E+0	1.727733E+0	1.732523E+0	1.699832E+0	1.649681E+0	1.730522E+0	1.771696E+0	1.763645E+0	1.689148E+0	1.725678E+0	1.653607E+0	1.745884E+0	1.718782E+0	1.680769E+0	1.669377E+0	1.694861E+0	1.748181E+0	1.734336E+0	1.748838E+0	1.733108E+0	1.709148E+0	1.696077E+0	1.678108E+0	1.732233E+0	1.695659E+0	1.740677E+0	1.689706E+0	1.686396E+0	1.707456E+0	1.679332E+0	1.723818E+0	1.728433E+0	1.747108E+0	1.709539E+0	1.636825E+0	1.780556E+0	1.724299E+0	1.694189E+0	1.681320E+0	1.758603E+0	1.654202E+0	1.707019E+0	1.692317E+0	1.681154E+0	1.706713E+0	1.645243E+0	1.690545E+0	1.722046E+0	1.668358E+0	1.666961E+0	1.723053E+0	1.638711E+0	1.673736E+0	1.698443E+0	1.724847E+0	1.732271E+0	1.710864E+0	1.710253E+0	1.738516E+0	1.631680E+0	1.734898E+0	1.696541E+0	1.630317E+0	1.680282E+0	1.705988E+0
5.352550E+2	2.005093E+0	2.041178E+0	1.976990E+0	1.971411E+0	1.941908E+0	2.041625E+0	1.986282E+0	1.984731E+0	1.967466E+0	1.999203E+0	2.021957E+0	1.969925E+0	2.000252E+0	1.938751E+0	1.973852E+0	2.009719E+0	2.015911E+0	1.982093E+0	2.043497E+0	1.951492E+0	2.023544E+0	1.997841E+0	2.009466E+0	2.035151E+0	2.042257E+0	1.965772E+0	1.988314E+0	2.007552E+0	2.008386E+0	1.943377E+0	2.078902E+0	1.949367E+0	1.973302E+0	2.021767E+0	1.983853E+0	1.917501E+0	2.088731E+0	1.964876E+0	1.930660E+0	1.974612E+0	2.047365E+0	1.939057E+0	1.981350E+0	2.023291E+0	1.978994E+0	2.011473E+0	1.932535E+0	2.006977E+0	2.014689E+0	1.988167E+0	2.025847E+0	1.965543E+0	2.057532E+0	1.919568E+0	2.025441E+0	1.901148E+0	2.018533E+0	2.023428E+0	1.879453E+0	1.964708E+0	2.003761E+0	1.868107E+0	2.048661E+0	1.990284E+0	1.893825E+0	2.001971E+0	1.946339E+0	1.937092E+0	1.981258E+0	2.002951E+0	1.957382E+0	1.953527E+0	2.002562E+0	1.931633E+0	1.884752E+0	1.893806E+0	2.046122E+0	1.965212E+0	1.946308E+0	1.889934E+0	1.990139E+0	2.017715E+0	1.914473E+0	1.936856E+0	1.967390E+0	2.017543E+0	1.963185E+0	1.960845E+0	1.907018E+0	1.944366E+0	1.999996E+0	1.941559E+0	2.005436E+0	1.886765E+0	1.930258E+0	1.914661E+0	1.951270E+0	1.939238E+0	1.930464E+0	1.990030E+0	2.032461E+0	1.983259E+0	2.015456E+0	1.912778E+0	1.917393E+0	1.939062E+0	1.940635E+0	1.863067E+0	1.933411E+0	1.928453E+0	1.981462E+0	1.963658E+0	1.917130E+0	1.973631E+0	1.909524E+0	1.865831E+0	1.971879E+0	1.902387E+0	1.940381E+0	1.949155E+0	1.927543E+0	1.964424E+0	2.001409E+0	1.818564E+0	1.913905E+0	1.931610E+0	1.939662E+0	1.913320E+0	1.930893E+0	1.876452E+0	1.959543E+0	1.987341E+0	1.965647E+0	1.958068E+0	1.912379E+0	1.938101E+0	1.989418E+0	1.950575E+0	1.927445E+0	1.909744E+0	1.924430E+0	1.891396E+0	1.899756E+0	1.930969E+0	1.938842E+0	1.866058E+0	1.859605E+0	1.912546E+0	2.054673E+0	1.868445E+0	1.914738E+0	2.017956E+0	1.979848E+0	1.964677E+0	1.861580E+0	1.871203E+0	1.941146E+0	1.901237E+0	1.919737E+0	1.878450E+0	1.931248E+0	1.975628E+0	1.849536E+0	1.860754E+0	1.844332E+0	2.174240E+0
5.354110E+2	2.179525E+0	2.143590E+0	2.121049E+0	2.162220E+0	1.982573E+0	2.040581E+0	2.205310E+0	2.121950E+0	2.087875E+0	2.152894E+0	2.171511E+0	2.132354E+0	2.151516E+0	2.117199E+0	2.093146E+0	2.139863E+0	2.174210E+0	2.137650E+0	2.162998E+0	2.040345E+0	2.037189E+0	2.158799E+0	2.115531E+0	2.111138E+0	2.037407E+0	2.084743E+0	2.099833E+0	2.193295E+0	2.138298E+0	2.064192E+0	2.103397E+0	2.115556E+0	2.149465E+0	2.191711E+0	2.041084E+0	2.089675E+0	2.194754E+0	2.059701E+0	2.084971E+0	2.102405E+0	2.120744E+0	2.060890E+0	2.045406E+0	2.056932E+0	2.082550E+0	2.096795E+0	2.098393E+0	2.095994E+0	2.164620E+0	2.149740E+0	2.210057E+0	2.104613E+0	2.120802E+0	1.966557E+0	2.185986E+0	2.124330E+0	2.143954E+0	2.093131E+0	2.132121E+0	2.136834E+0	2.128335E+0	2.079937E+0	2.113526E+0	2.132901E+0	2.054486E+0	2.117044E+0	2.117131E+0	2.043427E+0	2.066074E+0	2.134235E+0	2.126618E+0	2.052522E+0	2.147860E+0	2.101895E+0	2.044369E+0	2.092403E+0	2.127112E+0	2.107856E+0	2.081108E+0	2.051129E+0	2.095285E+0	2.075161E+0	2.074285E+0	2.017353E+0	2.128739E+0	2.003588E+0	2.099044E+0	2.154266E+0	2.092038E+0	2.076646E+0	2.081281E+0	2.054604E+0	2.081775E+0	2.024187E+0	1.997638E+0	2.019103E+0	2.050666E+0	2.089636E+0	2.058411E+0	2.060267E+0	2.183557E+0	2.104015E+0	2.095912E+0	2.102662E+0	2.152749E+0	2.053264E+0	2.068778E+0	2.087278E+0	2.068967E+0	1.968688E+0	2.021021E+0	2.033952E+0	2.092030E+0	2.047578E+0	2.088031E+0	2.003721E+0	2.125988E+0	2.043981E+0	2.121641E+0	2.098918E+0	2.123332E+0	2.064766E+0	2.083768E+0	2.051195E+0	2.092182E+0	2.073466E+0	2.066041E+0	2.062615E+0	2.117190E+0	1.934805E+0	2.087543E+0	1.955818E+0	2.095530E+0	2.082095E+0	2.043469E+0	2.034814E+0	2.229618E+0	2.056788E+0	1.994630E+0	2.025998E+0	2.083789E+0	2.062029E+0	2.095642E+0	2.011792E+0	2.119571E+0	1.963658E+0	2.001913E+0	2.108027E+0	2.120145E+0	2.012888E+0	1.973521E+0	2.060228E+0	2.011796E+0	2.081430E+0	2.038952E+0	1.981968E+0	2.064245E+0	2.023000E+0	2.043619E+0	2.062578E+0	1.987839E+0	2.115041E+0	2.021210E+0	2.012615E+0	2.021617E+0	2.108181E+0
5.355630E+2	1.870240E+0	1.911241E+0	1.838445E+0	1.825733E+0	1.784280E+0	1.821286E+0	1.809302E+0	1.765811E+0	1.846360E+0	1.873337E+0	1.840426E+0	1.801183E+0	1.900195E+0	1.746626E+0	1.791336E+0	1.805102E+0	1.897626E+0	1.766685E+0	1.827062E+0	1.824985E+0	1.788574E+0	1.834827E+0	1.820532E+0	1.807062E+0	1.878320E+0	1.815854E+0	1.792779E+0	1.880748E+0	1.907635E+0	1.835086E+0	1.852237E+0	1.737160E+0	1.795225E+0	1.803898E+0	1.836457E+0	1.833934E+0	1.855256E+0	1.803725E+0	1.763466E+0	1.782790E+0	1.770025E+0	1.828414E+0	1.827384E+0	1.901177E+0	1.844700E+0	1.815699E+0	1.813414E+0	1.817756E+0	1.817072E+0	1.746627E+0	1.865384E+0	1.840764E+0	1.858078E+0	1.783466E+0	1.708026E+0	1.818105E+0	1.825730E+0	1.803706E+0	1.884218E+0	1.797070E+0	1.842652E+0	1.807869E+0	1.816326E+0	1.833128E+0	1.826079E+0	1.777860E+0	1.762703E+0	1.779361E+0	1.905671E+0	1.812817E+0	1.796443E+0	1.851326E+0	1.840895E+0	1.874290E+0	1.763623E+0	1.819897E+0	1.819316E+0	1.758007E+0	1.735913E+0	1.754726E+0	1.801806E+0	1.766754E+0	1.806953E+0	1.771913E+0	1.782381E+0	1.752148E+0	1.783413E+0	1.787569E+0	1.798788E+0	1.819202E+0	1.758756E+0	1.817146E+0	1.785282E+0	1.750268E+0	1.768259E+0	1.745467E+0	1.876002E+0	1.772093E+0	1.811747E+0	1.821735E+0	1.784856E+0	1.783554E+0	1.784347E+0	1.786340E+0	1.845472E+0	1.805706E+0	1.733107E+0	1.780457E+0	1.830997E+0	1.746486E+0	1.801802E+0	1.807807E+0	1.869668E+0	1.796005E+0	1.788002E+0	1.727563E+0	1.784644E+0	1.842963E+0	1.860426E+0	1.751310E+0	1.785339E+0	1.796299E+0	1.751808E+0	1.756911E+0	1.764407E+0	1.801916E+0	1.785777E+0	1.715278E+0	1.754300E+0	1.738421E+0	1.731148E+0	1.793838E+0	1.817593E+0	1.773554E+0	1.733593E+0	1.767783E+0	1.838290E+0	1.803615E+0	1.781205E+0	1.785315E+0	1.767447E+0	1.773041E+0	1.834616E+0	1.852013E+0	1.778490E+0	1.698496E+0	1.806491E+0	1.683823E+0	1.842479E+0	1.764455E+0	1.789879E+0	1.857874E+0	1.789933E+0	1.690247E+0	1.708292E+0	1.747938E+0	1.738896E+0	1.719543E+0	1.720089E+0	1.773945E+0	1.785736E+0	1.777984E+0	1.794764E+0	1.738423E+0	1.798172E+0	1.786784E+0
5.357250E+2	1.657081E+0	1.765966E+0	1.659000E+0	1.667287E+0	1.576018E+0	1.687372E+0	1.563576E+0	1.665715E+0	1.674623E+0	1.716488E+0	1.660666E+0	1.653752E+0	1.668742E+0	1.569455E+0	1.689254E+0	1.661978E+0	1.640705E+0	1.670999E+0	1.672871E+0	1.668210E+0	1.620708E+0	1.665274E+0	1.707381E+0	1.646979E+0	1.649975E+0	1.607606E+0	1.667544E+0	1.697154E+0	1.717743E+0	1.606118E+0	1.636493E+0	1.582364E+0	1.626955E+0	1.676003E+0	1.648603E+0	1.642552E+0	1.577000E+0	1.675348E+0	1.610119E+0	1.675688E+0	1.675115E+0	1.617223E+0	1.579629E+0	1.666496E+0	1.646397E+0	1.602806E+0	1.644994E+0	1.649909E+0	1.634657E+0	1.641255E+0	1.656522E+0	1.654353E+0	1.687245E+0	1.635156E+0	1.653141E+0	1.728381E+0	1.601625E+0	1.641939E+0	1.712426E+0	1.662906E+0	1.690398E+0	1.568018E+0	1.663892E+0	1.631801E+0	1.571055E+0	1.632205E+0	1.573371E+0	1.610436E+0	1.632657E+0	1.667361E+0	1.576552E+0	1.612808E+0	1.693040E+0	1.635530E+0	1.612103E+0	1.657056E+0	1.693389E+0	1.646038E+0	1.622870E+0	1.635389E+0	1.699986E+0	1.578864E+0	1.581429E+0	1.623965E+0	1.646584E+0	1.567161E+0	1.673710E+0	1.607877E+0	1.629710E+0	1.680144E+0	1.651453E+0	1.656610E+0	1.642757E+0	1.596052E+0	1.595335E+0	1.597255E+0	1.699450E+0	1.645181E+0	1.664830E+0	1.618847E+0	1.603975E+0	1.607488E+0	1.593926E+0	1.614965E+0	1.708493E+0	1.594975E+0	1.552528E+0	1.653311E+0	1.632403E+0	1.622697E+0	1.637337E+0	1.591040E+0	1.656070E+0	1.589791E+0	1.623170E+0	1.585838E+0	1.638690E+0	1.635997E+0	1.585220E+0	1.643149E+0	1.559964E+0	1.634317E+0	1.619462E+0	1.609656E+0	1.604610E+0	1.595030E+0	1.588110E+0	1.586862E+0	1.609956E+0	1.552503E+0	1.617945E+0	1.547862E+0	1.649091E+0	1.651587E+0	1.562026E+0	1.614705E+0	1.699523E+0	1.722407E+0	1.610581E+0	1.599792E+0	1.603619E+0	1.597093E+0	1.619005E+0	1.611626E+0	1.642147E+0	1.612750E+0	1.633807E+0	1.548111E+0	1.649686E+0	1.656216E+0	1.591123E+0	1.673680E+0	1.605609E+0	1.539016E+0	1.635230E+0	1.739118E+0	1.645433E+0	1.587954E+0	1.647281E+0	1.614355E+0	1.613544E+0	1.663991E+0	1.542929E+0	1.606916E+0	1.571240E+0	1.713842E+0
5.358550E+2	1.509282E+0	1.497731E+0	1.490545E+0	1.543473E+0	1.522703E+0	1.537469E+0	1.578404E+0	1.549367E+0	1.573606E+0	1.582316E+0	1.542531E+0	1.551317E+0	1.546173E+0	1.555290E+0	1.601806E+0	1.629073E+0	1.567085E+0	1.573604E+0	1.569263E+0	1.482514E+0	1.547541E+0	1.513391E+0	1.539296E+0	1.523000E+0	1.556396E+0	1.563907E+0	1.493205E+0	1.588453E+0	1.573345E+0	1.521603E+0	1.539822E+0	1.536099E+0	1.536117E+0	1.609130E+0	1.506820E+0	1.530734E+0	1.528445E+0	1.488319E+0	1.493971E+0	1.534869E+0	1.521073E+0	1.533054E+0	1.545625E+0	1.592003E+0	1.558685E+0	1.649131E+0	1.534750E+0	1.560500E+0	1.573122E+0	1.512005E+0	1.613100E+0	1.527671E+0	1.521478E+0	1.538215E+0	1.605754E+0	1.508546E+0	1.588238E+0	1.500860E+0	1.553855E+0	1.545059E+0	1.568341E+0	1.452243E+0	1.522631E+0	1.535408E+0	1.484334E+0	1.556196E+0	1.495518E+0	1.506088E+0	1.531277E+0	1.553339E+0	1.555935E+0	1.517705E+0	1.579111E+0	1.614660E+0	1.510881E+0	1.583660E+0	1.563794E+0	1.564767E+0	1.524376E+0	1.486318E+0	1.529736E+0	1.520617E+0	1.551464E+0	1.535406E+0	1.576081E+0	1.569748E+0	1.548709E+0	1.586861E+0	1.571709E+0	1.559674E+0	1.506669E+0	1.485131E+0	1.559776E+0	1.529779E+0	1.482452E+0	1.522311E+0	1.492148E+0	1.495413E+0	1.463583E+0	1.548541E+0	1.569071E+0	1.487859E+0	1.520877E+0	1.576368E+0	1.525331E+0	1.522522E+0	1.482143E+0	1.646107E+0	1.515147E+0	1.488705E+0	1.557682E+0	1.545443E+0	1.568697E+0	1.513750E+0	1.565768E+0	1.459022E+0	1.597137E+0	1.564463E+0	1.519120E+0	1.518966E+0	1.546355E+0	1.533512E+0	1.551441E+0	1.534603E+0	1.589141E+0	1.525789E+0	1.519161E+0	1.517955E+0	1.549724E+0	1.552333E+0	1.563637E+0	1.559738E+0	1.572094E+0	1.589154E+0	1.530160E+0	1.510917E+0	1.566558E+0	1.536857E+0	1.570310E+0	1.499751E+0	1.576118E+0	1.494268E+0	1.536925E+0	1.525198E+0	1.561874E+0	1.494632E+0	1.466572E+0	1.514113E+0	1.542824E+0	1.592120E+0	1.544138E+0	1.588662E+0	1.516806E+0	1.578495E+0	1.499201E+0	1.482485E+0	1.550740E+0	1.562152E+0	1.521267E+0	1.507788E+0	1.533885E+0	1.564031E+0	1.463923E+0	1.496942E+0	1.572443E+0	1.484516E+0
5.360120E+2	1.236807E+0	1.293573E+0	1.311476E+0	1.225210E+0	1.251298E+0	1.249969E+0	1.259074E+0	1.241500E+0	1.274087E+0	1.303825E+0	1.254998E+0	1.264072E+0	1.218306E+0	1.196883E+0	1.300628E+0	1.272176E+0	1.220902E+0	1.197945E+0	1.291018E+0	1.267051E+0	1.245133E+0	1.346326E+0	1.269243E+0	1.279391E+0	1.248712E+0	1.337635E+0	1.234818E+0	1.300464E+0	1.231662E+0	1.254782E+0	1.295100E+0	1.248284E+0	1.258844E+0	1.266722E+0	1.231295E+0	1.272863E+0	1.218913E+0	1.295525E+0	1.263422E+0	1.280908E+0	1.261959E+0	1.291073E+0	1.223390E+0	1.283807E+0	1.255661E+0	1.232769E+0	1.276764E+0	1.272990E+0	1.298572E+0	1.252799E+0	1.374411E+0	1.262541E+0	1.271292E+0	1.268763E+0	1.290983E+0	1.274446E+0	1.242906E+0	1.265119E+0	1.287806E+0	1.304314E+0	1.288533E+0	1.219534E+0	1.255855E+0	1.228046E+0	1.284646E+0	1.251941E+0	1.332666E+0	1.220601E+0	1.231917E+0	1.309887E+0	1.262833E+0	1.231991E+0	1.226655E+0	1.270070E+0	1.263394E+0	1.223750E+0	1.299336E+0	1.266428E+0	1.267369E+0	1.280564E+0	1.208045E+0	1.273458E+0	1.311148E+0	1.245007E+0	1.253520E+0	1.260480E+0	1.268901E+0	1.249730E+0	1.239854E+0	1.250587E+0	1.289577E+0	1.306080E+0	1.274152E+0	1.219338E+0	1.237821E+0	1.237797E+0	1.280120E+0	1.277424E+0	1.260145E+0	1.277454E+0	1.309702E+0	1.273707E+0	1.342296E+0	1.253601E+0	1.237386E+0	1.270333E+0	1.277429E+0	1.255357E+0	1.231904E+0	1.254736E+0	1.257270E+0	1.261814E+0	1.306820E+0	1.240599E+0	1.275540E+0	1.246562E+0	1.246349E+0	1.227699E+0	1.249683E+0	1.282183E+0	1.276690E+0	1.280432E+0	1.290594E+0	1.229009E+0	1.298084E+0	1.264088E+0	1.255018E+0	1.242231E+0	1.273077E+0	1.283047E+0	1.306862E+0	1.287709E+0	1.285936E+0	1.251657E+0	1.298412E+0	1.239393E+0	1.258313E+0	1.226876E+0	1.231541E+0	1.256383E+0	1.293336E+0	1.316874E+0	1.225106E+0	1.246839E+0	1.284351E+0	1.259465E+0	1.202133E+0	1.228724E+0	1.272575E+0	1.213030E+0	1.274758E+0	1.273651E+0	1.242448E+0	1.286282E+0	1.186352E+0	1.264936E+0	1.251872E+0	1.200250E+0	1.258191E+0	1.267882E+0	1.212972E+0	1.303273E+0	1.215221E+0	1.246049E+0	1.408636E+0	1.203203E+0
5.362680E+2	9.191817E-1	9.668836E-1	9.815911E-1	9.532263E-1	9.337514E-1	9.356697E-1	9.665584E-1	9.283975E-1	8.992407E-1	9.392304E-1	9.228900E-1	9.360045E-1	9.319638E-1	9.290377E-1	9.125399E-1	9.138682E-1	9.696190E-1	9.474547E-1	9.707313E-1	9.874203E-1	9.667714E-1	9.671386E-1	9.492223E-1	9.143718E-1	1.000757E+0	9.263095E-1	9.091310E-1	9.803528E-1	9.541329E-1	9.108970E-1	9.757732E-1	9.752052E-1	9.135333E-1	9.555677E-1	9.446563E-1	9.069219E-1	9.446463E-1	9.041573E-1	9.338683E-1	9.570719E-1	9.371445E-1	9.562593E-1	9.505910E-1	9.371473E-1	9.144237E-1	9.933186E-1	9.175204E-1	9.584048E-1	9.499414E-1	9.378741E-1	1.002759E+0	9.601444E-1	9.647700E-1	9.729252E-1	9.263612E-1	9.691541E-1	9.441560E-1	9.830121E-1	9.617292E-1	9.686898E-1	9.083566E-1	9.207831E-1	9.741026E-1	1.001854E+0	9.577597E-1	9.481889E-1	9.065362E-1	9.362503E-1	9.477769E-1	9.460511E-1	9.162509E-1	9.389382E-1	9.413623E-1	9.886750E-1	9.075104E-1	9.652358E-1	9.467526E-1	9.480448E-1	9.395268E-1	9.039255E-1	9.155129E-1	9.144704E-1	9.675044E-1	9.573807E-1	8.839609E-1	9.124147E-1	9.799762E-1	9.587428E-1	9.175070E-1	9.576318E-1	9.370444E-1	9.645144E-1	8.815082E-1	9.373216E-1	9.398121E-1	9.525698E-1	9.420820E-1	9.686384E-1	9.585312E-1	9.124603E-1	9.593657E-1	9.739024E-1	9.240002E-1	9.519103E-1	9.664934E-1	9.911947E-1	9.496395E-1	9.774797E-1	9.501260E-1	9.515600E-1	9.583112E-1	9.306386E-1	9.345930E-1	9.147273E-1	9.509929E-1	8.584393E-1	9.557409E-1	9.665840E-1	9.364756E-1	9.615306E-1	9.310320E-1	9.825965E-1	9.389862E-1	9.277824E-1	9.281670E-1	9.657255E-1	9.477645E-1	1.004106E+0	9.127115E-1	9.238022E-1	9.215877E-1	9.466661E-1	9.602969E-1	9.616056E-1	9.287633E-1	9.581903E-1	9.538781E-1	9.467398E-1	9.724327E-1	9.865070E-1	9.537086E-1	9.849267E-1	9.139311E-1	9.480483E-1	1.001492E+0	9.018519E-1	8.823921E-1	9.429972E-1	9.173572E-1	9.509320E-1	9.569050E-1	1.008421E+0	9.678760E-1	9.342866E-1	8.937260E-1	9.361567E-1	9.346181E-1	9.610156E-1	9.455798E-1	9.455986E-1	9.036373E-1	1.006051E+0	9.476464E-1	9.154766E-1	9.594114E-1	1.027916E+0
5.365250E+2	6.955209E-1	7.689080E-1	7.515212E-1	7.376378E-1	7.556880E-1	7.811166E-1	7.294720E-1	7.096121E-1	7.169795E-1	7.608115E-1	7.545782E-1	7.167326E-1	7.580809E-1	7.074225E-1	7.603012E-1	7.504230E-1	7.503743E-1	7.776677E-1	7.633921E-1	7.494592E-1	7.411767E-1	7.691721E-1	7.542514E-1	7.705736E-1	7.523700E-1	7.346441E-1	7.687115E-1	7.830181E-1	7.727644E-1	7.694385E-1	7.546542E-1	7.535197E-1	7.876983E-1	7.723538E-1	7.053118E-1	7.109390E-1	7.676786E-1	7.243487E-1	7.587297E-1	7.722240E-1	7.300939E-1	7.737957E-1	6.849021E-1	7.570064E-1	7.550644E-1	7.403833E-1	7.490600E-1	7.489065E-1	7.679003E-1	7.254483E-1	7.007678E-1	7.597866E-1	7.515305E-1	7.575932E-1	7.746951E-1	7.745739E-1	7.326498E-1	7.550382E-1	7.407482E-1	7.445807E-1	7.106816E-1	7.086437E-1	7.428276E-1	7.560783E-1	7.522160E-1	7.379903E-1	7.671106E-1	7.515425E-1	7.571969E-1	7.711987E-1	7.605618E-1	7.514543E-1	7.370142E-1	7.350350E-1	7.191163E-1	7.529404E-1	7.316219E-1	7.744525E-1	7.573688E-1	7.591747E-1	7.514446E-1	7.275591E-1	7.339101E-1	7.519935E-1	7.530463E-1	7.469899E-1	7.342114E-1	7.788813E-1	7.344234E-1	7.784788E-1	6.960632E-1	7.647994E-1	7.702133E-1	7.560997E-1	7.361464E-1	7.428269E-1	7.783285E-1	7.624707E-1	7.566478E-1	8.096180E-1	7.693368E-1	7.699123E-1	7.681327E-1	7.593299E-1	7.332061E-1	7.537116E-1	7.409669E-1	7.265413E-1	7.995633E-1	7.231189E-1	7.397103E-1	7.211859E-1	7.589500E-1	7.552219E-1	7.241975E-1	7.505251E-1	7.381061E-1	7.741182E-1	7.216717E-1	7.422968E-1	7.337977E-1	7.672061E-1	7.889201E-1	7.211573E-1	7.769344E-1	7.268478E-1	7.694777E-1	7.633945E-1	7.468563E-1	7.941837E-1	7.636164E-1	7.420314E-1	7.873840E-1	8.069291E-1	7.742041E-1	7.593883E-1	7.401178E-1	7.471524E-1	7.837107E-1	7.243987E-1	7.490550E-1	7.787527E-1	8.054143E-1	7.543495E-1	7.838239E-1	8.057956E-1	7.829242E-1	7.260953E-1	7.813665E-1	7.803452E-1	7.472106E-1	7.922366E-1	7.605348E-1	7.823350E-1	7.399312E-1	7.399214E-1	7.462740E-1	7.632913E-1	7.933911E-1	7.520834E-1	7.396202E-1	8.012706E-1	7.727131E-1	7.094840E-1	7.775015E-1	7.096248E-1
5.367810E+2	6.136484E-1	5.602653E-1	5.859898E-1	5.956063E-1	5.852238E-1	6.049341E-1	6.086714E-1	5.570116E-1	5.972254E-1	6.100231E-1	6.335101E-1	6.162687E-1	6.250619E-1	5.647873E-1	6.028195E-1	5.939985E-1	5.983997E-1	5.740767E-1	6.130443E-1	5.586952E-1	5.757502E-1	5.771376E-1	6.282024E-1	6.066403E-1	5.748711E-1	6.081343E-1	6.160158E-1	5.914218E-1	5.828985E-1	5.713796E-1	5.877456E-1	5.724000E-1	5.923726E-1	5.953284E-1	5.988661E-1	5.558064E-1	6.061140E-1	6.537399E-1	5.769316E-1	5.661377E-1	5.818010E-1	6.224545E-1	6.032912E-1	5.659211E-1	6.087502E-1	5.978635E-1	5.714286E-1	5.888598E-1	6.023925E-1	5.927588E-1	5.918083E-1	6.028037E-1	5.953941E-1	5.812254E-1	6.189298E-1	6.052458E-1	6.017800E-1	6.264289E-1	6.235067E-1	6.063509E-1	5.721489E-1	5.834322E-1	6.303218E-1	5.930515E-1	5.653624E-1	5.792567E-1	5.733462E-1	5.831594E-1	5.979920E-1	6.267413E-1	5.778759E-1	5.529887E-1	6.163237E-1	5.835790E-1	5.680868E-1	5.771108E-1	5.849855E-1	5.576803E-1	5.944899E-1	5.993125E-1	5.959146E-1	5.768880E-1	6.159921E-1	5.872289E-1	5.805956E-1	6.181409E-1	6.210190E-1	6.168838E-1	6.479997E-1	6.020003E-1	5.955220E-1	6.027631E-1	6.003427E-1	6.063864E-1	6.275353E-1	5.949769E-1	5.983431E-1	6.134743E-1	5.791275E-1	6.361385E-1	5.957034E-1	6.165406E-1	5.982448E-1	6.408509E-1	6.337059E-1	6.188362E-1	5.910081E-1	6.147823E-1	6.244072E-1	5.724726E-1	5.899398E-1	6.052437E-1	6.137818E-1	6.278629E-1	6.104210E-1	5.848504E-1	6.005316E-1	6.182677E-1	6.065007E-1	6.233586E-1	5.651297E-1	5.862238E-1	5.922380E-1	6.228793E-1	6.408674E-1	6.152439E-1	6.114059E-1	5.937717E-1	5.784369E-1	6.205518E-1	6.213493E-1	5.987601E-1	5.629343E-1	6.185776E-1	6.414623E-1	5.981573E-1	6.020234E-1	6.487998E-1	6.336132E-1	6.123929E-1	5.878829E-1	5.852501E-1	5.944730E-1	6.328540E-1	6.023253E-1	5.811759E-1	6.248424E-1	5.817578E-1	6.179249E-1	6.105867E-1	5.726887E-1	6.173302E-1	6.167874E-1	6.532062E-1	5.989092E-1	6.426900E-1	6.154677E-1	6.113476E-1	6.088261E-1	5.938393E-1	5.806638E-1	6.576654E-1	6.130442E-1	6.436423E-1	6.560525E-1	6.196448E-1
5.370120E+2	5.229631E-1	5.376691E-1	5.492491E-1	5.623857E-1	5.335608E-1	5.286129E-1	5.376387E-1	5.138076E-1	5.407602E-1	5.403314E-1	5.412716E-1	5.664502E-1	5.384854E-1	5.218968E-1	5.538628E-1	5.435337E-1	5.420493E-1	5.408146E-1	5.393780E-1	5.323980E-1	5.420116E-1	5.450997E-1	5.309646E-1	5.435827E-1	5.262810E-1	5.204652E-1	5.266035E-1	5.504562E-1	5.704418E-1	5.379491E-1	5.161313E-1	5.603626E-1	5.604159E-1	5.229745E-1	5.235363E-1	5.248505E-1	5.486752E-1	5.477932E-1	5.567455E-1	5.196545E-1	5.126927E-1	5.513635E-1	5.322760E-1	5.057375E-1	5.382046E-1	5.730341E-1	5.519489E-1	5.914781E-1	5.202498E-1	5.816119E-1	5.410186E-1	5.537527E-1	5.276957E-1	5.694007E-1	5.178629E-1	5.836027E-1	5.492972E-1	5.321271E-1	5.268721E-1	5.598544E-1	5.793367E-1	5.379977E-1	5.307729E-1	5.592605E-1	5.721913E-1	5.663921E-1	5.369054E-1	5.366820E-1	5.256339E-1	5.693716E-1	5.346931E-1	5.135714E-1	5.187491E-1	5.346699E-1	5.452059E-1	5.298658E-1	5.426677E-1	5.502513E-1	5.382240E-1	5.185533E-1	5.487884E-1	5.256894E-1	5.557109E-1	5.562877E-1	5.435038E-1	5.523019E-1	5.303660E-1	5.806339E-1	4.901834E-1	5.550442E-1	5.457290E-1	5.170675E-1	5.677069E-1	5.374196E-1	5.640228E-1	5.378604E-1	5.645228E-1	5.738922E-1	5.464812E-1	5.657746E-1	5.746477E-1	5.221806E-1	5.649421E-1	5.573090E-1	5.871566E-1	5.416001E-1	5.421702E-1	5.708514E-1	5.441736E-1	5.415908E-1	5.730771E-1	5.245757E-1	5.561961E-1	5.145381E-1	5.560699E-1	5.236272E-1	5.170583E-1	5.346874E-1	5.589144E-1	5.878956E-1	5.128456E-1	5.695908E-1	5.643642E-1	5.309284E-1	5.658381E-1	5.523275E-1	5.114716E-1	6.115450E-1	5.702973E-1	5.336659E-1	5.899819E-1	5.482324E-1	5.744599E-1	5.293566E-1	5.362227E-1	5.549477E-1	5.194778E-1	5.553259E-1	5.327007E-1	5.153213E-1	5.729871E-1	5.640981E-1	5.587276E-1	5.742336E-1	5.569139E-1	5.403306E-1	5.202506E-1	5.121604E-1	5.539212E-1	5.826854E-1	5.351063E-1	5.422292E-1	5.237831E-1	5.605603E-1	5.614876E-1	5.662469E-1	5.350636E-1	5.615310E-1	5.448478E-1	5.732734E-1	5.397635E-1	5.448902E-1	5.841963E-1	5.556641E-1	5.758300E-1	6.649967E-1
5.372740E+2	5.066157E-1	5.107529E-1	4.738285E-1	5.152909E-1	5.013146E-1	4.997391E-1	4.863066E-1	5.307641E-1	5.289418E-1	5.069431E-1	5.022602E-1	5.120443E-1	5.048207E-1	5.226957E-1	5.151408E-1	5.276233E-1	5.380689E-1	5.090332E-1	5.337997E-1	5.076257E-1	5.159339E-1	5.460507E-1	5.420954E-1	5.351552E-1	5.065673E-1	5.070684E-1	5.105297E-1	4.903302E-1	5.189307E-1	4.732409E-1	5.241814E-1	5.114767E-1	5.085016E-1	5.180995E-1	4.834477E-1	5.054064E-1	5.042672E-1	4.962159E-1	5.565680E-1	5.271729E-1	5.285216E-1	5.033535E-1	4.803622E-1	5.238028E-1	5.403250E-1	5.095463E-1	5.023927E-1	5.198860E-1	5.291655E-1	4.922664E-1	5.469779E-1	5.201252E-1	5.238653E-1	5.254724E-1	5.266707E-1	5.164754E-1	5.084586E-1	5.447038E-1	5.113417E-1	5.311775E-1	5.216579E-1	5.148005E-1	5.274564E-1	4.887918E-1	5.313342E-1	4.847695E-1	5.135909E-1	4.892577E-1	5.246187E-1	5.161255E-1	5.017281E-1	5.329509E-1	4.898314E-1	4.645713E-1	5.050553E-1	4.836460E-1	4.975092E-1	5.088413E-1	5.232906E-1	5.113048E-1	5.135467E-1	5.228266E-1	5.114861E-1	5.517388E-1	4.995362E-1	5.182623E-1	5.461523E-1	5.340596E-1	5.165431E-1	5.150667E-1	5.250946E-1	5.003508E-1	5.205152E-1	5.024097E-1	4.962890E-1	4.694706E-1	5.212547E-1	5.348560E-1	5.166063E-1	5.206769E-1	4.930953E-1	4.997973E-1	5.361010E-1	5.132944E-1	5.126836E-1	5.237851E-1	5.469352E-1	5.410282E-1	5.164380E-1	5.421246E-1	5.341271E-1	4.542274E-1	5.025280E-1	5.330975E-1	5.468312E-1	4.742696E-1	5.250121E-1	5.372590E-1	5.600946E-1	5.192741E-1	4.889620E-1	4.923337E-1	4.944768E-1	4.979537E-1	5.343631E-1	4.904440E-1	4.767689E-1	5.220940E-1	5.351385E-1	4.991228E-1	4.975032E-1	4.693718E-1	5.277133E-1	5.335091E-1	5.295048E-1	4.974238E-1	5.091250E-1	5.324411E-1	5.330613E-1	5.157012E-1	5.328968E-1	5.263734E-1	5.044079E-1	5.077197E-1	5.672866E-1	5.128419E-1	5.085678E-1	4.839570E-1	5.634029E-1	5.688993E-1	5.444394E-1	5.176215E-1	5.426910E-1	5.675485E-1	5.208930E-1	5.312717E-1	5.098320E-1	5.378088E-1	5.203600E-1	5.230368E-1	5.345540E-1	5.352592E-1	5.369839E-1	5.318282E-1	4.574687E-1	5.926444E-1
5.375110E+2	5.367298E-1	5.554467E-1	6.068780E-1	5.643697E-1	5.763570E-1	5.476482E-1	5.361557E-1	5.528307E-1	6.180022E-1	5.815162E-1	6.269710E-1	5.775510E-1	5.875504E-1	5.524496E-1	5.985460E-1	6.173341E-1	5.969349E-1	5.883719E-1	6.101343E-1	5.846797E-1	5.881023E-1	5.916831E-1	5.751434E-1	6.110089E-1	5.844690E-1	5.663272E-1	5.957695E-1	5.563934E-1	6.028385E-1	5.939090E-1	5.964013E-1	5.653086E-1	6.136888E-1	5.914711E-1	5.462236E-1	5.729154E-1	5.541425E-1	5.782908E-1	6.094226E-1	6.118824E-1	5.743933E-1	5.438070E-1	5.683737E-1	5.953176E-1	5.846722E-1	5.253400E-1	6.107137E-1	5.682601E-1	5.729384E-1	6.325963E-1	5.883284E-1	5.814780E-1	6.006000E-1	5.680530E-1	5.706050E-1	5.604470E-1	5.802702E-1	5.593157E-1	5.947259E-1	5.831427E-1	5.564801E-1	5.408917E-1	5.869313E-1	5.742730E-1	5.716530E-1	5.920348E-1	5.790029E-1	5.861378E-1	5.765125E-1	5.629608E-1	5.780931E-1	5.699919E-1	6.071064E-1	6.104299E-1	5.285285E-1	5.904478E-1	5.979876E-1	5.611506E-1	5.681223E-1	5.373289E-1	5.797525E-1	6.022893E-1	5.623326E-1	5.802245E-1	5.848071E-1	5.844852E-1	6.109605E-1	6.060846E-1	6.089479E-1	5.869055E-1	5.967366E-1	6.054577E-1	5.912146E-1	5.767116E-1	5.599872E-1	5.686515E-1	6.050945E-1	6.039003E-1	5.777565E-1	5.732109E-1	6.098618E-1	5.909600E-1	5.788101E-1	5.683314E-1	5.592348E-1	5.767988E-1	5.764467E-1	5.421101E-1	5.776440E-1	5.414149E-1	5.935891E-1	5.944565E-1	5.622266E-1	5.761678E-1	5.766695E-1	5.202235E-1	5.763218E-1	5.875891E-1	6.084017E-1	6.329028E-1	5.576994E-1	5.828942E-1	5.593892E-1	5.731624E-1	5.671734E-1	5.974452E-1	5.991905E-1	6.036202E-1	5.843578E-1	5.971602E-1	5.947161E-1	5.576896E-1	5.911191E-1	5.915789E-1	6.082526E-1	6.017194E-1	5.952539E-1	5.934683E-1	6.241881E-1	5.881649E-1	6.374185E-1	5.767071E-1	5.816614E-1	5.917677E-1	5.556329E-1	5.786415E-1	6.155597E-1	6.125465E-1	6.261279E-1	5.828650E-1	5.894713E-1	5.855067E-1	6.180209E-1	5.992147E-1	6.115704E-1	5.881674E-1	5.544607E-1	5.418372E-1	5.743867E-1	5.757526E-1	5.794709E-1	6.108174E-1	6.057069E-1	5.590409E-1	5.490126E-1	6.350858E-1
5.377840E+2	6.909864E-1	6.517114E-1	6.783096E-1	6.479964E-1	6.555140E-1	6.517078E-1	6.397351E-1	6.827073E-1	6.950220E-1	6.505034E-1	6.917683E-1	6.848922E-1	6.606756E-1	6.457117E-1	6.638303E-1	6.839454E-1	6.774860E-1	6.975077E-1	7.101423E-1	6.296946E-1	6.715358E-1	6.932844E-1	6.794215E-1	6.707410E-1	6.799071E-1	6.662162E-1	6.588932E-1	7.180849E-1	6.943186E-1	6.718100E-1	6.427228E-1	6.837458E-1	6.872922E-1	6.467252E-1	6.574828E-1	6.914360E-1	6.710546E-1	6.646009E-1	7.146160E-1	6.842295E-1	6.754822E-1	6.919690E-1	6.976615E-1	6.835085E-1	6.795147E-1	6.976711E-1	7.103102E-1	6.360856E-1	7.140207E-1	6.613497E-1	6.811097E-1	6.282108E-1	6.669758E-1	6.418722E-1	6.804034E-1	6.931376E-1	6.896268E-1	7.057078E-1	6.389336E-1	7.068318E-1	6.489543E-1	6.680173E-1	6.871244E-1	6.822301E-1	6.789658E-1	7.203232E-1	7.093574E-1	6.855072E-1	6.447217E-1	6.624954E-1	6.421522E-1	6.721519E-1	6.393660E-1	6.649634E-1	6.752732E-1	6.954005E-1	6.569956E-1	6.774129E-1	6.684342E-1	6.979336E-1	6.841222E-1	7.126965E-1	6.796121E-1	6.713916E-1	6.570741E-1	6.651839E-1	6.998569E-1	6.837905E-1	7.050717E-1	6.873759E-1	6.375701E-1	6.878459E-1	6.471061E-1	6.253535E-1	6.814561E-1	6.436728E-1	6.568405E-1	6.753496E-1	7.050472E-1	6.809225E-1	6.767853E-1	6.527973E-1	7.046973E-1	6.880740E-1	6.711547E-1	6.931725E-1	6.572539E-1	6.364543E-1	6.865394E-1	6.556738E-1	6.397195E-1	6.772101E-1	6.806593E-1	6.979389E-1	6.829353E-1	6.299277E-1	6.534840E-1	6.872932E-1	6.941351E-1	6.592825E-1	6.232392E-1	6.515884E-1	6.807864E-1	6.836035E-1	6.790502E-1	6.787529E-1	6.555363E-1	6.488460E-1	6.879099E-1	6.520226E-1	6.773363E-1	6.561879E-1	7.109118E-1	6.814931E-1	6.714346E-1	6.633674E-1	6.888800E-1	6.787016E-1	6.478259E-1	6.971324E-1	6.782749E-1	6.971083E-1	7.004378E-1	6.775484E-1	7.032288E-1	6.854802E-1	6.533520E-1	6.931483E-1	7.070732E-1	6.923279E-1	6.860579E-1	6.686760E-1	7.131196E-1	6.632873E-1	6.613428E-1	6.986735E-1	6.506377E-1	6.715106E-1	7.105199E-1	6.932975E-1	6.492309E-1	7.043408E-1	6.650693E-1	6.187090E-1	6.921861E-1	7.482657E-1
5.380160E+2	7.672415E-1	7.658585E-1	8.265329E-1	7.156731E-1	7.483907E-1	7.529749E-1	7.927530E-1	7.310312E-1	7.152207E-1	7.595452E-1	7.328791E-1	6.918839E-1	7.128520E-1	7.589728E-1	7.318746E-1	7.891502E-1	7.422856E-1	7.459479E-1	7.811805E-1	7.217078E-1	7.585833E-1	7.465324E-1	7.617150E-1	7.452815E-1	7.510029E-1	7.926942E-1	7.684321E-1	7.827053E-1	7.637318E-1	7.368974E-1	7.727671E-1	7.758717E-1	7.728032E-1	7.655657E-1	7.691152E-1	7.292729E-1	7.573143E-1	7.620450E-1	7.568767E-1	7.484920E-1	7.292695E-1	7.074192E-1	7.373287E-1	7.779657E-1	7.474419E-1	7.124784E-1	7.492368E-1	7.553445E-1	7.260812E-1	7.468489E-1	7.370775E-1	7.690520E-1	7.589102E-1	7.205987E-1	7.481426E-1	7.521278E-1	7.373544E-1	7.178784E-1	7.795515E-1	7.656729E-1	7.847174E-1	7.259305E-1	7.554971E-1	7.843128E-1	7.381095E-1	7.475474E-1	8.037245E-1	7.177432E-1	7.450062E-1	7.698830E-1	7.470603E-1	7.721729E-1	7.515560E-1	7.571376E-1	7.381313E-1	7.925906E-1	7.812098E-1	7.820072E-1	7.291891E-1	7.579989E-1	8.067928E-1	7.420506E-1	7.843563E-1	7.823630E-1	7.849103E-1	7.370951E-1	7.652433E-1	7.258950E-1	7.837411E-1	7.816958E-1	7.571706E-1	7.565523E-1	7.414415E-1	7.509689E-1	7.615035E-1	7.455181E-1	8.005041E-1	7.650700E-1	7.333375E-1	8.019197E-1	7.643097E-1	7.803972E-1	7.324361E-1	8.426441E-1	7.257820E-1	8.147327E-1	7.434387E-1	7.734898E-1	7.249302E-1	7.618622E-1	7.365908E-1	7.806162E-1	7.486519E-1	7.529521E-1	7.469048E-1	7.501482E-1	7.507420E-1	7.816927E-1	7.281261E-1	7.785280E-1	7.566123E-1	7.779286E-1	7.123735E-1	7.493355E-1	7.670475E-1	7.518147E-1	7.401051E-1	7.505820E-1	7.309328E-1	7.188349E-1	7.618618E-1	7.467627E-1	7.469146E-1	7.564393E-1	7.342451E-1	7.620817E-1	7.345473E-1	7.333556E-1	7.582667E-1	7.577726E-1	7.508664E-1	7.844612E-1	7.700567E-1	7.720747E-1	7.943257E-1	7.814885E-1	7.351023E-1	7.167642E-1	7.725488E-1	7.488241E-1	7.116859E-1	7.911858E-1	7.694103E-1	7.932886E-1	7.309004E-1	7.396414E-1	7.652415E-1	7.460063E-1	7.646133E-1	7.080327E-1	7.187824E-1	7.734210E-1	7.621681E-1	7.536618E-1	7.344765E-1	7.973110E-1
5.382850E+2	8.552307E-1	8.395631E-1	8.749780E-1	8.764397E-1	8.150526E-1	8.778667E-1	9.086356E-1	9.095753E-1	8.822588E-1	9.113119E-1	9.044883E-1	8.731974E-1	9.109628E-1	8.682411E-1	9.203943E-1	8.929406E-1	9.290900E-1	8.852797E-1	8.897810E-1	8.764137E-1	8.890698E-1	8.937453E-1	8.622383E-1	8.653066E-1	9.159349E-1	8.749297E-1	8.785268E-1	9.316743E-1	8.757237E-1	8.559245E-1	9.063860E-1	8.760371E-1	9.167727E-1	9.094837E-1	8.543575E-1	8.378898E-1	8.892582E-1	8.756750E-1	8.446506E-1	8.929004E-1	8.915601E-1	8.550100E-1	8.384418E-1	9.109365E-1	8.557569E-1	8.520728E-1	8.613525E-1	9.108350E-1	8.712056E-1	8.963393E-1	9.314186E-1	8.992748E-1	9.047451E-1	8.760724E-1	9.118773E-1	8.805260E-1	8.658965E-1	9.199060E-1	8.428615E-1	8.847454E-1	8.033577E-1	8.070401E-1	8.482369E-1	8.946065E-1	8.929288E-1	8.553127E-1	8.300445E-1	8.575603E-1	8.463997E-1	8.960746E-1	8.518413E-1	8.360152E-1	8.675390E-1	8.340391E-1	8.569538E-1	8.628688E-1	8.915301E-1	8.832622E-1	8.539793E-1	8.709786E-1	8.839917E-1	8.755830E-1	9.327197E-1	8.917213E-1	8.713525E-1	8.544277E-1	9.084561E-1	8.890642E-1	8.888943E-1	9.195517E-1	8.725852E-1	8.736363E-1	8.955358E-1	8.468365E-1	8.778439E-1	8.509260E-1	8.715467E-1	8.915535E-1	8.947784E-1	9.269249E-1	8.534322E-1	8.773073E-1	8.968098E-1	8.933456E-1	8.623492E-1	9.240103E-1	8.834291E-1	9.013244E-1	8.555154E-1	8.981854E-1	9.051303E-1	9.120949E-1	8.789741E-1	8.577741E-1	8.698946E-1	8.340484E-1	8.911672E-1	8.689028E-1	9.004831E-1	9.169617E-1	8.557881E-1	9.319978E-1	9.006935E-1	8.186723E-1	9.007914E-1	9.025516E-1	9.037890E-1	8.915683E-1	8.901001E-1	8.900907E-1	8.508896E-1	8.904238E-1	9.377034E-1	8.938948E-1	9.328067E-1	9.446357E-1	8.510313E-1	9.290190E-1	8.425614E-1	8.635583E-1	9.108045E-1	8.656140E-1	9.180600E-1	9.508031E-1	8.758473E-1	9.153867E-1	8.606638E-1	8.411745E-1	9.073481E-1	8.481763E-1	8.912834E-1	8.546068E-1	8.786549E-1	8.661142E-1	8.348326E-1	8.604201E-1	8.791224E-1	8.218318E-1	8.749153E-1	9.179378E-1	8.775282E-1	9.261051E-1	8.148191E-1	9.010686E-1	8.025368E-1	9.433022E-1
5.385170E+2	1.104062E+0	1.061699E+0	1.066261E+0	1.103285E+0	1.052855E+0	1.027180E+0	1.056189E+0	1.067999E+0	1.097419E+0	1.043939E+0	1.052348E+0	1.078015E+0	1.078424E+0	1.075374E+0	1.072841E+0	1.110279E+0	1.102511E+0	1.052262E+0	1.078530E+0	1.028599E+0	1.058855E+0	1.108051E+0	1.045565E+0	1.041083E+0	1.075262E+0	1.055252E+0	1.089582E+0	1.011771E+0	1.035037E+0	1.001096E+0	1.069367E+0	1.079515E+0	1.139232E+0	1.074335E+0	1.067406E+0	1.081249E+0	1.061433E+0	1.070275E+0	1.065310E+0	1.083256E+0	1.014575E+0	1.079931E+0	1.044955E+0	1.101022E+0	1.088075E+0	1.052462E+0	1.077865E+0	1.090865E+0	1.087404E+0	1.084475E+0	1.115546E+0	1.111804E+0	1.034299E+0	1.035615E+0	1.083823E+0	1.067047E+0	1.026339E+0	1.088468E+0	1.091980E+0	1.066657E+0	1.092897E+0	1.032537E+0	1.059573E+0	1.080143E+0	1.099042E+0	1.067042E+0	1.042270E+0	1.067556E+0	1.076860E+0	1.127257E+0	1.047429E+0	1.077018E+0	1.087470E+0	1.053766E+0	9.933860E-1	1.066419E+0	1.061658E+0	1.044029E+0	1.063996E+0	1.058388E+0	1.103395E+0	1.104136E+0	1.068526E+0	1.094734E+0	1.039838E+0	1.026185E+0	1.085977E+0	1.058339E+0	1.083077E+0	1.182406E+0	1.090775E+0	1.127997E+0	1.111183E+0	1.009267E+0	1.061785E+0	1.096045E+0	1.100969E+0	1.099509E+0	1.023361E+0	1.048184E+0	1.084812E+0	1.040386E+0	1.020846E+0	1.099972E+0	1.118633E+0	1.059176E+0	1.050518E+0	1.076290E+0	1.086085E+0	1.047103E+0	1.017123E+0	1.072186E+0	1.096469E+0	1.069764E+0	1.044288E+0	1.083679E+0	1.086541E+0	1.076879E+0	1.109878E+0	1.088079E+0	1.016001E+0	1.096207E+0	1.032550E+0	1.155739E+0	1.088908E+0	1.036717E+0	1.086910E+0	1.067079E+0	1.039965E+0	1.072526E+0	1.095357E+0	1.037885E+0	1.109726E+0	1.100563E+0	1.049239E+0	1.083705E+0	1.084325E+0	1.100773E+0	1.075083E+0	1.098268E+0	1.080607E+0	1.075567E+0	1.074218E+0	1.050117E+0	1.077963E+0	1.081874E+0	1.087008E+0	1.076913E+0	1.168311E+0	1.047909E+0	1.041710E+0	1.135981E+0	1.004289E+0	1.082282E+0	1.047030E+0	1.059581E+0	1.041309E+0	1.036122E+0	1.072011E+0	1.067467E+0	1.085642E+0	1.106385E+0	1.047603E+0	1.046906E+0	1.017941E+0	1.102149E+0
5.387600E+2	1.322762E+0	1.272708E+0	1.251462E+0	1.294350E+0	1.314536E+0	1.294049E+0	1.328809E+0	1.250895E+0	1.285587E+0	1.292981E+0	1.330743E+0	1.306108E+0	1.302908E+0	1.357733E+0	1.312135E+0	1.275117E+0	1.336642E+0	1.315595E+0	1.293911E+0	1.288925E+0	1.273281E+0	1.304318E+0	1.305659E+0	1.308325E+0	1.347717E+0	1.251410E+0	1.352091E+0	1.347201E+0	1.364190E+0	1.265276E+0	1.297381E+0	1.282245E+0	1.349380E+0	1.288878E+0	1.347607E+0	1.329911E+0	1.299949E+0	1.299117E+0	1.323194E+0	1.278255E+0	1.329691E+0	1.307959E+0	1.286241E+0	1.382255E+0	1.315741E+0	1.269387E+0	1.328244E+0	1.363212E+0	1.290938E+0	1.310708E+0	1.351858E+0	1.298897E+0	1.419920E+0	1.236407E+0	1.269606E+0	1.306705E+0	1.281391E+0	1.289622E+0	1.301105E+0	1.297998E+0	1.322937E+0	1.335483E+0	1.323755E+0	1.271626E+0	1.316485E+0	1.321190E+0	1.309941E+0	1.281058E+0	1.314343E+0	1.335410E+0	1.288740E+0	1.238200E+0	1.296429E+0	1.274315E+0	1.275317E+0	1.315135E+0	1.365258E+0	1.266702E+0	1.296810E+0	1.322269E+0	1.298312E+0	1.335751E+0	1.273019E+0	1.283111E+0	1.265348E+0	1.285055E+0	1.255686E+0	1.312804E+0	1.287754E+0	1.347579E+0	1.280219E+0	1.298392E+0	1.290055E+0	1.268588E+0	1.280946E+0	1.315627E+0	1.289863E+0	1.249936E+0	1.255410E+0	1.323137E+0	1.305109E+0	1.234034E+0	1.330027E+0	1.273112E+0	1.270692E+0	1.292711E+0	1.319157E+0	1.344208E+0	1.290566E+0	1.268152E+0	1.282093E+0	1.292931E+0	1.333184E+0	1.300273E+0	1.282908E+0	1.250773E+0	1.268287E+0	1.369352E+0	1.325229E+0	1.323364E+0	1.269454E+0	1.284140E+0	1.301231E+0	1.219033E+0	1.329255E+0	1.344377E+0	1.284632E+0	1.279885E+0	1.271199E+0	1.301712E+0	1.276880E+0	1.227830E+0	1.280671E+0	1.366449E+0	1.290282E+0	1.317497E+0	1.293499E+0	1.203851E+0	1.218578E+0	1.329568E+0	1.313876E+0	1.288550E+0	1.288323E+0	1.319891E+0	1.343504E+0	1.339662E+0	1.297501E+0	1.311134E+0	1.255609E+0	1.272202E+0	1.291734E+0	1.238457E+0	1.309801E+0	1.296681E+0	1.261915E+0	1.299384E+0	1.308708E+0	1.265140E+0	1.279313E+0	1.256630E+0	1.224941E+0	1.313183E+0	1.262811E+0	1.320247E+0	1.259896E+0	1.325581E+0
5.390340E+2	1.529126E+0	1.437385E+0	1.529217E+0	1.493110E+0	1.464157E+0	1.442943E+0	1.491829E+0	1.435651E+0	1.505474E+0	1.473733E+0	1.485931E+0	1.490481E+0	1.515804E+0	1.443248E+0	1.504426E+0	1.458945E+0	1.480908E+0	1.450719E+0	1.536461E+0	1.466144E+0	1.468708E+0	1.490602E+0	1.531080E+0	1.500772E+0	1.476864E+0	1.478929E+0	1.525116E+0	1.572000E+0	1.456942E+0	1.471626E+0	1.477022E+0	1.515339E+0	1.529450E+0	1.485305E+0	1.489467E+0	1.431500E+0	1.453196E+0	1.426887E+0	1.479852E+0	1.460036E+0	1.480358E+0	1.446132E+0	1.486799E+0	1.471139E+0	1.453604E+0	1.501855E+0	1.441426E+0	1.467682E+0	1.549344E+0	1.410059E+0	1.486970E+0	1.478853E+0	1.452677E+0	1.452041E+0	1.540574E+0	1.509252E+0	1.519994E+0	1.481510E+0	1.496073E+0	1.507339E+0	1.459239E+0	1.403655E+0	1.518151E+0	1.497233E+0	1.483591E+0	1.437180E+0	1.486406E+0	1.480888E+0	1.512976E+0	1.503015E+0	1.550329E+0	1.512769E+0	1.449928E+0	1.427587E+0	1.429821E+0	1.481884E+0	1.496284E+0	1.486523E+0	1.433443E+0	1.458163E+0	1.448930E+0	1.518236E+0	1.450092E+0	1.469101E+0	1.462674E+0	1.437000E+0	1.570210E+0	1.558358E+0	1.473211E+0	1.553484E+0	1.506585E+0	1.481234E+0	1.456989E+0	1.478233E+0	1.459537E+0	1.457806E+0	1.524819E+0	1.447230E+0	1.430217E+0	1.524474E+0	1.489836E+0	1.426543E+0	1.446901E+0	1.457656E+0	1.471986E+0	1.460349E+0	1.431113E+0	1.503900E+0	1.427791E+0	1.442685E+0	1.455675E+0	1.443762E+0	1.450993E+0	1.479307E+0	1.448443E+0	1.399908E+0	1.436403E+0	1.460684E+0	1.484539E+0	1.492755E+0	1.420052E+0	1.445174E+0	1.480894E+0	1.435675E+0	1.484044E+0	1.405283E+0	1.443306E+0	1.431934E+0	1.451935E+0	1.433071E+0	1.494502E+0	1.514011E+0	1.437920E+0	1.507064E+0	1.411677E+0	1.441853E+0	1.480165E+0	1.464358E+0	1.488484E+0	1.472181E+0	1.462103E+0	1.495574E+0	1.435086E+0	1.431940E+0	1.544785E+0	1.398079E+0	1.438701E+0	1.466696E+0	1.496213E+0	1.473045E+0	1.488986E+0	1.487389E+0	1.407375E+0	1.501853E+0	1.383361E+0	1.409065E+0	1.423490E+0	1.525450E+0	1.456122E+0	1.491175E+0	1.368345E+0	1.555197E+0	1.499453E+0	1.497820E+0	1.387366E+0	1.432791E+0
5.392670E+2	1.686430E+0	1.640783E+0	1.699297E+0	1.711208E+0	1.616508E+0	1.677021E+0	1.669021E+0	1.638807E+0	1.672668E+0	1.653187E+0	1.713757E+0	1.707831E+0	1.690870E+0	1.653436E+0	1.670059E+0	1.757286E+0	1.685889E+0	1.667596E+0	1.777461E+0	1.701689E+0	1.679085E+0	1.682160E+0	1.741702E+0	1.662107E+0	1.725975E+0	1.655672E+0	1.730085E+0	1.759597E+0	1.737622E+0	1.649605E+0	1.709050E+0	1.695051E+0	1.653224E+0	1.665083E+0	1.648112E+0	1.709217E+0	1.723840E+0	1.597780E+0	1.651694E+0	1.697865E+0	1.656759E+0	1.579756E+0	1.646884E+0	1.738558E+0	1.711439E+0	1.632898E+0	1.735571E+0	1.688127E+0	1.700867E+0	1.729979E+0	1.704140E+0	1.629998E+0	1.718363E+0	1.643402E+0	1.653094E+0	1.645208E+0	1.616559E+0	1.624884E+0	1.697638E+0	1.697526E+0	1.668593E+0	1.586795E+0	1.681794E+0	1.630997E+0	1.665127E+0	1.652611E+0	1.750234E+0	1.655141E+0	1.713460E+0	1.650142E+0	1.608352E+0	1.619652E+0	1.697109E+0	1.588734E+0	1.677407E+0	1.614069E+0	1.648586E+0	1.666468E+0	1.676455E+0	1.672434E+0	1.697832E+0	1.702719E+0	1.687012E+0	1.654683E+0	1.673476E+0	1.726031E+0	1.668365E+0	1.712577E+0	1.638455E+0	1.687353E+0	1.651838E+0	1.684491E+0	1.636061E+0	1.595081E+0	1.643775E+0	1.638452E+0	1.668386E+0	1.740821E+0	1.647328E+0	1.619314E+0	1.654324E+0	1.587981E+0	1.669107E+0	1.670015E+0	1.699055E+0	1.725875E+0	1.625053E+0	1.665906E+0	1.617873E+0	1.591742E+0	1.615812E+0	1.643687E+0	1.615428E+0	1.711724E+0	1.615783E+0	1.536737E+0	1.658323E+0	1.684480E+0	1.697528E+0	1.586275E+0	1.583133E+0	1.722258E+0	1.664407E+0	1.607401E+0	1.695471E+0	1.603078E+0	1.611104E+0	1.663408E+0	1.620347E+0	1.658477E+0	1.599715E+0	1.668566E+0	1.683747E+0	1.690841E+0	1.647244E+0	1.633752E+0	1.627990E+0	1.604934E+0	1.572320E+0	1.625611E+0	1.660565E+0	1.648822E+0	1.702021E+0	1.674350E+0	1.713899E+0	1.609306E+0	1.687928E+0	1.596804E+0	1.584992E+0	1.627532E+0	1.595311E+0	1.687155E+0	1.682985E+0	1.610453E+0	1.595404E+0	1.604655E+0	1.617650E+0	1.597393E+0	1.625983E+0	1.603012E+0	1.612405E+0	1.718656E+0	1.626489E+0	1.572173E+0	1.588826E+0	1.632362E+0
5.395320E+2	1.886449E+0	1.821823E+0	1.858107E+0	1.918184E+0	1.895589E+0	1.784133E+0	1.857686E+0	1.789690E+0	1.877418E+0	1.886994E+0	1.854516E+0	1.864268E+0	1.900920E+0	1.779764E+0	1.886853E+0	1.886185E+0	1.892632E+0	1.810453E+0	1.992789E+0	1.783510E+0	1.815930E+0	1.800749E+0	1.837256E+0	1.938160E+0	1.848368E+0	1.823233E+0	1.849703E+0	1.959486E+0	1.919000E+0	1.762630E+0	1.858081E+0	1.864480E+0	1.825007E+0	1.833911E+0	1.851310E+0	1.837188E+0	1.857842E+0	1.797665E+0	1.793297E+0	1.891165E+0	1.784008E+0	1.821805E+0	1.879384E+0	1.894140E+0	1.920050E+0	1.854046E+0	1.820342E+0	1.798401E+0	1.817132E+0	1.805946E+0	1.925602E+0	1.841257E+0	1.784920E+0	1.756949E+0	1.822331E+0	1.837077E+0	1.833684E+0	1.849349E+0	1.847127E+0	1.923723E+0	1.896576E+0	1.783177E+0	1.860458E+0	1.911557E+0	1.847407E+0	1.841020E+0	1.793569E+0	1.816221E+0	1.889719E+0	1.868536E+0	1.871236E+0	1.846707E+0	1.834849E+0	1.831261E+0	1.831191E+0	1.786611E+0	1.824652E+0	1.747686E+0	1.879783E+0	1.791032E+0	1.853184E+0	1.825781E+0	1.847046E+0	1.824331E+0	1.796059E+0	1.732512E+0	1.852212E+0	1.865304E+0	1.811329E+0	1.804776E+0	1.820777E+0	1.862952E+0	1.859492E+0	1.783583E+0	1.798053E+0	1.757625E+0	1.853701E+0	1.750778E+0	1.839216E+0	1.892586E+0	1.758633E+0	1.769468E+0	1.796898E+0	1.829671E+0	1.739531E+0	1.804665E+0	1.793181E+0	1.906569E+0	1.840015E+0	1.795261E+0	1.806809E+0	1.810517E+0	1.845898E+0	1.845133E+0	1.801343E+0	1.762473E+0	1.813483E+0	1.814387E+0	1.815338E+0	1.832540E+0	1.767103E+0	1.821054E+0	1.758606E+0	1.756964E+0	1.856961E+0	1.825716E+0	1.778256E+0	1.738467E+0	1.795285E+0	1.885475E+0	1.821700E+0	1.794638E+0	1.797894E+0	1.860272E+0	1.792741E+0	1.866394E+0	1.832693E+0	1.835539E+0	1.858532E+0	1.798152E+0	1.834852E+0	1.814438E+0	1.763814E+0	1.804475E+0	1.812172E+0	1.760355E+0	1.759442E+0	1.776799E+0	1.754369E+0	1.809327E+0	1.833384E+0	1.909469E+0	1.806186E+0	1.911034E+0	1.738434E+0	1.802796E+0	1.786408E+0	1.727533E+0	1.816182E+0	1.798726E+0	1.699096E+0	1.851561E+0	1.750962E+0	1.763933E+0	1.692940E+0	1.810422E+0
5.397750E+2	2.115687E+0	2.000756E+0	2.008188E+0	1.969507E+0	1.936703E+0	2.016923E+0	1.993842E+0	1.942574E+0	1.992599E+0	2.067870E+0	2.046749E+0	2.050150E+0	1.988620E+0	1.982023E+0	2.008886E+0	2.035901E+0	1.974597E+0	2.003711E+0	2.065885E+0	2.035346E+0	2.037925E+0	2.034508E+0	1.958840E+0	2.027134E+0	1.984660E+0	1.903241E+0	2.060622E+0	2.125126E+0	2.041590E+0	1.962655E+0	2.042126E+0	1.996501E+0	2.019921E+0	2.029775E+0	1.972480E+0	2.015547E+0	2.091562E+0	1.926190E+0	1.979457E+0	2.075153E+0	2.022169E+0	1.968722E+0	1.994476E+0	2.025269E+0	2.009716E+0	2.061989E+0	1.997064E+0	1.975953E+0	2.071848E+0	2.015732E+0	2.136258E+0	2.022197E+0	2.075120E+0	1.950777E+0	2.052196E+0	2.032632E+0	2.006008E+0	2.009542E+0	2.040383E+0	1.991581E+0	2.028810E+0	1.962549E+0	1.992653E+0	1.911030E+0	2.019085E+0	2.053764E+0	2.026458E+0	2.006292E+0	1.923081E+0	2.027955E+0	2.043935E+0	1.992754E+0	1.970626E+0	2.006847E+0	2.002775E+0	2.048455E+0	2.019515E+0	1.942749E+0	1.958574E+0	1.965446E+0	2.033097E+0	2.037885E+0	2.005559E+0	1.980805E+0	2.012238E+0	1.970492E+0	2.075233E+0	1.988162E+0	2.035671E+0	1.959175E+0	1.992563E+0	2.047000E+0	1.968525E+0	1.869168E+0	2.013892E+0	2.010266E+0	2.045866E+0	1.988278E+0	1.926216E+0	1.956563E+0	1.954736E+0	1.909218E+0	2.002949E+0	1.998251E+0	1.925157E+0	1.920763E+0	1.952980E+0	1.953905E+0	2.042191E+0	1.942082E+0	1.972935E+0	1.966236E+0	2.000545E+0	1.928773E+0	1.959232E+0	1.869253E+0	1.956121E+0	1.981750E+0	2.067513E+0	1.984136E+0	1.947833E+0	1.962632E+0	1.930988E+0	1.956143E+0	1.959363E+0	1.954407E+0	1.900623E+0	1.992915E+0	1.966711E+0	1.983084E+0	1.934033E+0	1.928252E+0	1.999719E+0	2.080580E+0	1.926158E+0	1.963809E+0	1.921995E+0	1.979456E+0	1.998212E+0	1.985437E+0	2.001120E+0	1.955369E+0	1.963750E+0	1.924392E+0	1.980686E+0	2.055172E+0	1.856779E+0	1.900735E+0	1.955349E+0	1.966491E+0	1.924128E+0	1.969692E+0	2.025677E+0	1.886242E+0	1.887890E+0	1.963781E+0	1.958390E+0	1.939504E+0	1.970705E+0	1.907012E+0	1.991710E+0	2.018252E+0	2.030042E+0	2.025364E+0	1.952900E+0	2.104951E+0
5.400190E+2	2.253447E+0	2.171722E+0	2.039463E+0	2.196677E+0	2.084863E+0	2.157449E+0	2.147112E+0	2.054316E+0	2.115031E+0	2.112267E+0	2.186430E+0	2.015874E+0	2.167724E+0	2.133572E+0	2.201109E+0	2.126454E+0	2.152254E+0	2.130580E+0	2.161771E+0	2.106322E+0	2.116189E+0	2.153071E+0	2.149029E+0	2.087959E+0	2.151191E+0	2.099155E+0	2.174932E+0	2.265237E+0	2.142595E+0	2.062301E+0	2.150014E+0	2.113293E+0	2.025271E+0	2.053507E+0	2.165263E+0	2.080158E+0	2.137667E+0	2.100061E+0	2.096633E+0	2.129810E+0	2.107316E+0	2.046798E+0	2.086544E+0	2.184074E+0	2.135289E+0	2.050923E+0	2.085905E+0	2.104210E+0	2.131065E+0	2.105144E+0	2.205759E+0	2.086254E+0	2.193327E+0	2.098528E+0	2.161257E+0	2.137583E+0	2.152175E+0	2.088007E+0	2.156213E+0	2.183746E+0	2.185698E+0	2.069215E+0	2.153342E+0	2.154479E+0	2.041340E+0	2.078900E+0	2.144851E+0	2.128304E+0	2.061526E+0	2.043828E+0	2.052036E+0	2.121475E+0	2.075167E+0	2.029638E+0	2.055777E+0	2.156472E+0	2.080969E+0	2.115429E+0	2.087067E+0	2.082483E+0	2.215819E+0	2.057327E+0	2.104061E+0	2.115855E+0	2.080226E+0	2.058139E+0	2.150450E+0	2.178285E+0	2.040191E+0	2.043324E+0	2.147416E+0	2.130181E+0	2.111303E+0	2.051652E+0	2.152876E+0	2.037294E+0	2.154781E+0	1.973631E+0	2.073440E+0	2.044178E+0	2.074706E+0	1.984417E+0	2.137115E+0	2.175777E+0	2.100495E+0	2.127474E+0	2.108979E+0	2.102750E+0	2.041150E+0	2.013202E+0	2.047437E+0	2.071428E+0	2.019239E+0	1.990491E+0	2.033890E+0	2.021302E+0	2.076554E+0	2.063562E+0	2.088116E+0	2.041731E+0	2.140072E+0	2.079706E+0	2.100352E+0	2.066107E+0	2.054124E+0	2.051243E+0	1.975882E+0	2.074887E+0	2.014210E+0	2.031221E+0	2.057248E+0	2.062993E+0	2.056962E+0	2.036360E+0	2.118826E+0	2.009111E+0	2.054758E+0	1.994188E+0	2.063384E+0	2.035323E+0	2.092545E+0	2.006794E+0	2.048683E+0	2.136357E+0	2.176533E+0	2.050207E+0	2.017457E+0	2.027795E+0	2.057021E+0	2.058799E+0	2.031096E+0	2.110964E+0	2.068215E+0	2.008527E+0	1.952759E+0	2.105429E+0	1.997138E+0	1.986987E+0	2.032169E+0	1.993333E+0	2.035428E+0	1.981120E+0	2.060017E+0	1.998255E+0	2.023652E+0	2.108872E+0
5.402530E+2	2.109532E+0	2.045338E+0	2.112874E+0	2.070684E+0	2.088877E+0	2.099254E+0	2.182873E+0	2.078994E+0	2.072476E+0	2.048652E+0	2.166677E+0	2.121614E+0	2.104115E+0	2.022661E+0	2.089112E+0	2.057990E+0	2.102275E+0	2.030329E+0	2.137147E+0	2.040658E+0	2.056617E+0	2.042046E+0	2.075948E+0	2.101701E+0	2.077331E+0	2.071713E+0	2.026683E+0	2.130723E+0	2.081225E+0	2.003588E+0	2.094736E+0	2.038773E+0	2.127687E+0	2.108682E+0	2.011742E+0	2.060059E+0	2.102758E+0	1.938351E+0	2.009489E+0	2.009084E+0	2.024104E+0	2.048988E+0	2.073472E+0	2.046340E+0	2.119945E+0	2.031634E+0	2.055275E+0	2.071837E+0	2.061841E+0	2.071369E+0	2.055830E+0	2.085512E+0	2.068048E+0	2.047666E+0	2.077193E+0	2.030489E+0	2.146322E+0	2.074153E+0	2.119098E+0	2.093934E+0	2.031701E+0	2.014138E+0	2.044760E+0	2.055071E+0	2.055445E+0	2.124680E+0	2.014166E+0	2.048219E+0	2.040895E+0	2.099372E+0	2.069023E+0	2.039651E+0	2.107974E+0	1.999592E+0	1.967227E+0	2.064592E+0	2.037750E+0	1.992373E+0	2.025718E+0	2.067888E+0	1.985245E+0	2.034472E+0	2.065860E+0	2.044360E+0	2.063146E+0	1.996692E+0	2.097022E+0	2.103397E+0	2.137241E+0	2.013404E+0	2.043649E+0	2.060115E+0	2.021001E+0	1.998622E+0	2.045667E+0	2.059049E+0	2.097397E+0	2.008741E+0	2.037556E+0	2.046212E+0	2.059426E+0	1.958838E+0	2.038682E+0	2.023437E+0	2.016589E+0	2.063006E+0	2.031286E+0	2.053104E+0	2.043921E+0	1.965680E+0	2.062890E+0	2.063968E+0	2.064371E+0	2.001175E+0	2.122286E+0	1.976741E+0	2.050288E+0	1.969821E+0	2.026573E+0	2.067061E+0	2.025918E+0	1.998990E+0	2.022859E+0	2.011740E+0	1.990141E+0	1.990774E+0	2.107029E+0	1.938848E+0	1.986843E+0	2.030444E+0	2.070724E+0	2.051056E+0	2.061438E+0	2.051128E+0	2.010326E+0	2.035458E+0	2.080616E+0	1.976248E+0	2.022368E+0	2.006926E+0	1.998911E+0	1.937844E+0	2.050761E+0	1.960624E+0	2.013003E+0	1.915396E+0	2.007097E+0	1.994799E+0	1.976267E+0	1.996145E+0	2.062375E+0	2.027162E+0	2.048711E+0	1.975893E+0	2.040383E+0	2.061209E+0	2.011852E+0	1.972659E+0	2.052961E+0	2.065981E+0	1.933912E+0	2.016967E+0	1.951273E+0	2.000912E+0	2.006925E+0	1.942161E+0
5.405080E+2	2.026265E+0	1.963675E+0	1.973172E+0	2.042983E+0	1.889379E+0	1.990624E+0	2.037878E+0	2.035202E+0	2.007014E+0	2.032909E+0	2.062651E+0	2.100829E+0	2.020385E+0	1.965933E+0	2.045435E+0	2.040404E+0	2.037831E+0	2.038857E+0	2.103430E+0	2.009115E+0	2.055182E+0	1.968402E+0	1.986364E+0	2.038659E+0	2.035603E+0	1.978326E+0	2.054868E+0	2.060951E+0	2.096168E+0	1.942828E+0	2.074725E+0	1.990224E+0	2.006368E+0	2.063704E+0	2.015326E+0	2.038520E+0	2.055690E+0	1.963669E+0	1.985964E+0	2.021186E+0	2.053460E+0	1.973118E+0	1.992815E+0	2.090557E+0	2.098603E+0	2.024045E+0	2.038060E+0	2.016100E+0	1.991490E+0	1.971659E+0	2.059843E+0	2.116107E+0	2.096551E+0	2.009875E+0	2.044385E+0	2.024025E+0	2.001781E+0	1.954025E+0	2.031532E+0	2.028578E+0	2.136009E+0	1.978782E+0	2.070872E+0	2.008436E+0	2.030789E+0	2.046568E+0	2.010512E+0	2.036230E+0	1.915940E+0	2.002879E+0	1.951966E+0	2.051826E+0	1.988518E+0	1.953170E+0	1.996678E+0	1.939669E+0	2.001060E+0	1.874188E+0	2.023019E+0	1.986883E+0	2.045006E+0	1.970880E+0	1.992325E+0	2.030883E+0	1.987414E+0	1.932787E+0	2.052702E+0	2.082743E+0	2.032311E+0	1.988868E+0	2.102759E+0	2.067238E+0	1.984737E+0	1.955782E+0	1.969295E+0	1.967819E+0	2.046969E+0	1.951935E+0	1.974526E+0	2.005642E+0	1.976462E+0	1.958189E+0	2.060665E+0	2.005224E+0	1.982361E+0	1.969833E+0	1.980071E+0	2.039772E+0	1.998203E+0	1.929285E+0	1.975697E+0	2.017763E+0	1.981100E+0	1.919139E+0	2.024946E+0	1.934466E+0	2.000032E+0	2.061235E+0	2.077634E+0	1.947185E+0	1.926476E+0	1.910305E+0	1.977920E+0	1.949864E+0	1.950217E+0	2.035014E+0	1.979890E+0	1.936053E+0	1.985128E+0	1.994094E+0	1.906616E+0	1.969712E+0	1.907279E+0	1.986384E+0	2.048219E+0	1.942652E+0	1.989801E+0	1.937274E+0	1.968226E+0	1.994889E+0	2.004111E+0	1.893437E+0	1.978981E+0	1.927119E+0	2.005964E+0	1.824013E+0	2.012331E+0	2.017275E+0	2.006919E+0	1.908979E+0	1.972473E+0	2.077241E+0	1.934159E+0	1.964342E+0	1.956638E+0	1.976282E+0	2.021237E+0	1.982548E+0	1.955221E+0	1.968223E+0	1.982417E+0	1.942362E+0	1.941808E+0	1.929499E+0	1.974397E+0	1.960401E+0
5.407630E+2	1.875172E+0	1.915753E+0	1.818688E+0	1.852647E+0	1.768301E+0	1.739455E+0	1.839996E+0	1.871298E+0	1.909834E+0	1.847461E+0	1.875902E+0	1.899533E+0	1.913805E+0	1.821380E+0	1.816978E+0	1.902107E+0	1.852760E+0	1.802692E+0	1.930642E+0	1.836158E+0	1.783032E+0	1.850964E+0	1.834061E+0	1.898881E+0	1.862951E+0	1.824921E+0	1.820839E+0	1.855254E+0	1.878323E+0	1.834701E+0	1.854955E+0	1.815157E+0	1.843878E+0	1.748056E+0	1.844235E+0	1.852228E+0	1.879176E+0	1.836471E+0	1.844581E+0	1.895166E+0	1.808638E+0	1.770442E+0	1.781557E+0	1.865102E+0	1.858131E+0	1.851474E+0	1.846456E+0	1.825683E+0	1.876028E+0	1.776578E+0	1.894365E+0	1.907127E+0	1.846074E+0	1.787274E+0	1.884200E+0	1.876864E+0	1.870969E+0	1.857758E+0	1.897893E+0	1.833508E+0	1.847789E+0	1.765570E+0	1.792908E+0	1.786896E+0	1.823457E+0	1.849875E+0	1.781184E+0	1.870484E+0	1.854943E+0	1.819925E+0	1.890537E+0	1.757819E+0	1.880835E+0	1.788599E+0	1.778755E+0	1.808370E+0	1.747752E+0	1.804685E+0	1.782599E+0	1.809748E+0	1.768808E+0	1.801765E+0	1.809791E+0	1.880323E+0	1.820707E+0	1.812100E+0	1.851332E+0	1.799125E+0	1.841234E+0	1.845065E+0	1.805660E+0	1.815924E+0	1.818290E+0	1.760983E+0	1.763890E+0	1.784319E+0	1.935300E+0	1.744768E+0	1.746347E+0	1.789443E+0	1.833597E+0	1.815237E+0	1.850048E+0	1.917030E+0	1.764717E+0	1.778343E+0	1.785829E+0	1.820214E+0	1.799652E+0	1.708015E+0	1.816884E+0	1.794114E+0	1.792600E+0	1.800819E+0	1.784007E+0	1.820569E+0	1.865043E+0	1.792760E+0	1.782141E+0	1.825928E+0	1.759886E+0	1.729466E+0	1.768073E+0	1.811348E+0	1.782632E+0	1.757510E+0	1.818415E+0	1.783249E+0	1.775677E+0	1.787008E+0	1.772313E+0	1.774103E+0	1.798997E+0	1.789470E+0	1.795643E+0	1.770486E+0	1.787820E+0	1.699151E+0	1.853628E+0	1.835355E+0	1.801911E+0	1.669020E+0	1.773444E+0	1.772552E+0	1.841432E+0	1.724700E+0	1.825090E+0	1.780833E+0	1.779205E+0	1.793397E+0	1.775257E+0	1.779560E+0	1.773773E+0	1.734606E+0	1.716859E+0	1.809900E+0	1.811015E+0	1.802857E+0	1.833504E+0	1.757315E+0	1.776643E+0	1.764388E+0	1.764616E+0	1.737394E+0	1.756480E+0	1.719719E+0
5.410190E+2	1.753325E+0	1.702905E+0	1.728417E+0	1.767265E+0	1.751378E+0	1.779428E+0	1.719832E+0	1.778162E+0	1.770752E+0	1.744444E+0	1.797739E+0	1.770489E+0	1.757122E+0	1.803931E+0	1.791078E+0	1.729873E+0	1.742556E+0	1.779010E+0	1.847582E+0	1.708446E+0	1.741155E+0	1.787565E+0	1.792626E+0	1.749839E+0	1.787272E+0	1.732250E+0	1.789934E+0	1.810673E+0	1.758208E+0	1.669149E+0	1.784634E+0	1.772402E+0	1.750605E+0	1.723308E+0	1.727653E+0	1.727794E+0	1.715044E+0	1.679476E+0	1.666667E+0	1.699775E+0	1.722250E+0	1.777383E+0	1.647127E+0	1.760707E+0	1.767682E+0	1.783757E+0	1.708951E+0	1.736666E+0	1.717650E+0	1.739662E+0	1.806923E+0	1.813180E+0	1.719637E+0	1.724779E+0	1.803225E+0	1.729483E+0	1.737984E+0	1.732446E+0	1.750067E+0	1.795692E+0	1.833327E+0	1.719498E+0	1.740187E+0	1.793653E+0	1.725069E+0	1.741038E+0	1.685698E+0	1.728829E+0	1.727023E+0	1.720393E+0	1.778228E+0	1.730191E+0	1.725030E+0	1.640570E+0	1.803690E+0	1.799720E+0	1.770229E+0	1.740510E+0	1.785527E+0	1.662750E+0	1.750914E+0	1.733031E+0	1.731685E+0	1.707222E+0	1.682274E+0	1.732936E+0	1.855866E+0	1.736055E+0	1.658795E+0	1.695957E+0	1.752819E+0	1.720162E+0	1.723287E+0	1.677302E+0	1.793358E+0	1.696450E+0	1.751903E+0	1.686617E+0	1.688591E+0	1.732145E+0	1.785349E+0	1.634118E+0	1.772060E+0	1.734862E+0	1.721731E+0	1.742178E+0	1.729093E+0	1.751106E+0	1.767920E+0	1.664034E+0	1.745153E+0	1.761398E+0	1.766554E+0	1.765082E+0	1.709351E+0	1.649912E+0	1.758752E+0	1.757273E+0	1.716267E+0	1.759343E+0	1.687761E+0	1.750593E+0	1.724780E+0	1.739172E+0	1.748973E+0	1.700087E+0	1.726722E+0	1.706810E+0	1.657958E+0	1.695058E+0	1.707853E+0	1.719533E+0	1.748185E+0	1.722769E+0	1.762495E+0	1.825882E+0	1.721541E+0	1.668393E+0	1.747419E+0	1.732547E+0	1.761403E+0	1.682359E+0	1.733656E+0	1.699123E+0	1.785990E+0	1.665412E+0	1.724233E+0	1.682299E+0	1.633944E+0	1.642964E+0	1.696815E+0	1.740886E+0	1.680400E+0	1.644207E+0	1.634843E+0	1.678805E+0	1.719737E+0	1.732835E+0	1.714588E+0	1.683641E+0	1.683518E+0	1.675042E+0	1.736735E+0	1.666789E+0	1.727088E+0	1.644316E+0
5.412690E+2	1.815469E+0	1.721783E+0	1.813772E+0	1.761037E+0	1.751209E+0	1.777929E+0	1.818184E+0	1.761180E+0	1.758670E+0	1.782712E+0	1.806895E+0	1.767628E+0	1.844718E+0	1.816979E+0	1.753764E+0	1.833498E+0	1.760594E+0	1.772801E+0	1.783896E+0	1.784604E+0	1.726753E+0	1.791019E+0	1.764591E+0	1.743956E+0	1.825363E+0	1.789512E+0	1.784820E+0	1.829564E+0	1.794304E+0	1.721760E+0	1.765715E+0	1.757647E+0	1.780998E+0	1.779404E+0	1.766956E+0	1.780314E+0	1.704078E+0	1.726696E+0	1.793571E+0	1.758294E+0	1.717655E+0	1.752654E+0	1.792545E+0	1.842113E+0	1.793925E+0	1.764248E+0	1.735286E+0	1.797182E+0	1.837104E+0	1.802411E+0	1.777083E+0	1.778075E+0	1.760442E+0	1.713552E+0	1.752147E+0	1.815391E+0	1.786993E+0	1.819088E+0	1.797906E+0	1.769816E+0	1.791922E+0	1.668043E+0	1.776851E+0	1.734221E+0	1.776199E+0	1.823860E+0	1.759570E+0	1.765495E+0	1.754233E+0	1.773758E+0	1.759065E+0	1.734461E+0	1.771080E+0	1.760096E+0	1.763118E+0	1.833346E+0	1.838741E+0	1.751505E+0	1.773124E+0	1.858424E+0	1.761637E+0	1.753777E+0	1.807872E+0	1.737254E+0	1.749115E+0	1.710484E+0	1.822917E+0	1.841118E+0	1.764836E+0	1.744456E+0	1.771101E+0	1.766182E+0	1.749160E+0	1.752167E+0	1.803613E+0	1.775853E+0	1.796107E+0	1.735468E+0	1.673795E+0	1.771534E+0	1.761147E+0	1.730427E+0	1.764104E+0	1.801265E+0	1.741064E+0	1.722899E+0	1.744040E+0	1.803157E+0	1.768312E+0	1.713058E+0	1.808923E+0	1.719255E+0	1.707532E+0	1.760990E+0	1.708704E+0	1.756409E+0	1.736933E+0	1.718100E+0	1.783519E+0	1.716482E+0	1.772919E+0	1.773445E+0	1.765667E+0	1.756337E+0	1.824099E+0	1.755980E+0	1.768300E+0	1.750924E+0	1.665046E+0	1.760505E+0	1.771457E+0	1.713006E+0	1.736184E+0	1.730172E+0	1.782567E+0	1.687997E+0	1.700549E+0	1.761975E+0	1.751754E+0	1.800523E+0	1.808604E+0	1.698518E+0	1.812932E+0	1.708577E+0	1.782294E+0	1.656026E+0	1.715183E+0	1.728806E+0	1.725151E+0	1.683620E+0	1.706749E+0	1.754886E+0	1.788587E+0	1.740233E+0	1.791598E+0	1.805503E+0	1.759955E+0	1.739099E+0	1.772335E+0	1.760726E+0	1.653357E+0	1.702223E+0	1.769520E+0	1.711873E+0	1.746061E+0	1.723006E+0
5.415090E+2	1.709723E+0	1.715396E+0	1.767927E+0	1.752542E+0	1.655623E+0	1.695898E+0	1.712384E+0	1.770023E+0	1.711705E+0	1.728391E+0	1.675419E+0	1.720209E+0	1.668604E+0	1.691660E+0	1.675858E+0	1.713362E+0	1.752065E+0	1.720827E+0	1.779062E+0	1.683650E+0	1.771375E+0	1.719253E+0	1.759287E+0	1.752411E+0	1.759001E+0	1.702905E+0	1.788274E+0	1.764888E+0	1.706285E+0	1.691866E+0	1.708442E+0	1.739631E+0	1.753864E+0	1.654509E+0	1.696249E+0	1.683369E+0	1.706088E+0	1.664659E+0	1.770166E+0	1.751580E+0	1.664985E+0	1.710246E+0	1.686432E+0	1.791346E+0	1.716262E+0	1.682108E+0	1.719974E+0	1.718441E+0	1.663680E+0	1.708582E+0	1.722960E+0	1.714211E+0	1.772707E+0	1.629205E+0	1.731340E+0	1.748375E+0	1.697253E+0	1.675370E+0	1.688442E+0	1.757674E+0	1.716588E+0	1.660554E+0	1.750582E+0	1.730501E+0	1.698967E+0	1.740175E+0	1.798089E+0	1.755511E+0	1.706193E+0	1.708486E+0	1.715357E+0	1.687870E+0	1.680983E+0	1.683522E+0	1.725757E+0	1.663472E+0	1.704795E+0	1.670423E+0	1.766675E+0	1.817562E+0	1.685084E+0	1.621214E+0	1.713967E+0	1.750878E+0	1.706401E+0	1.703189E+0	1.746195E+0	1.809080E+0	1.722751E+0	1.710355E+0	1.722592E+0	1.739027E+0	1.652659E+0	1.625942E+0	1.658918E+0	1.691018E+0	1.687122E+0	1.630995E+0	1.660368E+0	1.679733E+0	1.705797E+0	1.638294E+0	1.761124E+0	1.711516E+0	1.623426E+0	1.671035E+0	1.656737E+0	1.717358E+0	1.634717E+0	1.712596E+0	1.713003E+0	1.714585E+0	1.687491E+0	1.700360E+0	1.702893E+0	1.724762E+0	1.721280E+0	1.684437E+0	1.726519E+0	1.724325E+0	1.617044E+0	1.689167E+0	1.749086E+0	1.616541E+0	1.700117E+0	1.718638E+0	1.724954E+0	1.708908E+0	1.645408E+0	1.675138E+0	1.679259E+0	1.744872E+0	1.688660E+0	1.664904E+0	1.738005E+0	1.699492E+0	1.689040E+0	1.572180E+0	1.674562E+0	1.726714E+0	1.756754E+0	1.652270E+0	1.732278E+0	1.707077E+0	1.719099E+0	1.622180E+0	1.627815E+0	1.695853E+0	1.646301E+0	1.698917E+0	1.635695E+0	1.687796E+0	1.665664E+0	1.647360E+0	1.712623E+0	1.715611E+0	1.646059E+0	1.633695E+0	1.743091E+0	1.655452E+0	1.667462E+0	1.721975E+0	1.659295E+0	1.639499E+0	1.643889E+0	1.653134E+0
5.417650E+2	1.518616E+0	1.504435E+0	1.574678E+0	1.491493E+0	1.477793E+0	1.506608E+0	1.548783E+0	1.487556E+0	1.520102E+0	1.590354E+0	1.518491E+0	1.546220E+0	1.544170E+0	1.504832E+0	1.532093E+0	1.589244E+0	1.549660E+0	1.504601E+0	1.643702E+0	1.491263E+0	1.536858E+0	1.547924E+0	1.622578E+0	1.567433E+0	1.569004E+0	1.554427E+0	1.594311E+0	1.555346E+0	1.551289E+0	1.493540E+0	1.566197E+0	1.513002E+0	1.582429E+0	1.509709E+0	1.532787E+0	1.528975E+0	1.537964E+0	1.561421E+0	1.532897E+0	1.577711E+0	1.489040E+0	1.557040E+0	1.512896E+0	1.516270E+0	1.549448E+0	1.534994E+0	1.491831E+0	1.548464E+0	1.594730E+0	1.484841E+0	1.576696E+0	1.558652E+0	1.509949E+0	1.461262E+0	1.553288E+0	1.547192E+0	1.547390E+0	1.462807E+0	1.573837E+0	1.511012E+0	1.545934E+0	1.497020E+0	1.596741E+0	1.561907E+0	1.500017E+0	1.539437E+0	1.543754E+0	1.601540E+0	1.551999E+0	1.564376E+0	1.552921E+0	1.505205E+0	1.552275E+0	1.497273E+0	1.531811E+0	1.536739E+0	1.529538E+0	1.498009E+0	1.578242E+0	1.566731E+0	1.540570E+0	1.491478E+0	1.495060E+0	1.493516E+0	1.506316E+0	1.471809E+0	1.524112E+0	1.557842E+0	1.512321E+0	1.540614E+0	1.515503E+0	1.461628E+0	1.486324E+0	1.466361E+0	1.517134E+0	1.482120E+0	1.547776E+0	1.541002E+0	1.486158E+0	1.550445E+0	1.545545E+0	1.442212E+0	1.507398E+0	1.558208E+0	1.483042E+0	1.515484E+0	1.556988E+0	1.572032E+0	1.518040E+0	1.461287E+0	1.476437E+0	1.511394E+0	1.472814E+0	1.473027E+0	1.483346E+0	1.523674E+0	1.560603E+0	1.506762E+0	1.572409E+0	1.575067E+0	1.571948E+0	1.558758E+0	1.532157E+0	1.526442E+0	1.484965E+0	1.455337E+0	1.475734E+0	1.414975E+0	1.479980E+0	1.555000E+0	1.437387E+0	1.506575E+0	1.547138E+0	1.539740E+0	1.513028E+0	1.539022E+0	1.559606E+0	1.508453E+0	1.477635E+0	1.581993E+0	1.578095E+0	1.433284E+0	1.525994E+0	1.558949E+0	1.519954E+0	1.426527E+0	1.524806E+0	1.523840E+0	1.513713E+0	1.456852E+0	1.424805E+0	1.489031E+0	1.523369E+0	1.477452E+0	1.492328E+0	1.456418E+0	1.480097E+0	1.472612E+0	1.467760E+0	1.417644E+0	1.561330E+0	1.565495E+0	1.557407E+0	1.455702E+0	1.424352E+0	1.584647E+0
5.420160E+2	1.293793E+0	1.257548E+0	1.314087E+0	1.324464E+0	1.246524E+0	1.264097E+0	1.326356E+0	1.344365E+0	1.284385E+0	1.356606E+0	1.333852E+0	1.343273E+0	1.321194E+0	1.319428E+0	1.318164E+0	1.278330E+0	1.347025E+0	1.273693E+0	1.301631E+0	1.314062E+0	1.311197E+0	1.354368E+0	1.254687E+0	1.373816E+0	1.293352E+0	1.299815E+0	1.304649E+0	1.307272E+0	1.320246E+0	1.263121E+0	1.299963E+0	1.294741E+0	1.321789E+0	1.276043E+0	1.316414E+0	1.270626E+0	1.283939E+0	1.308642E+0	1.311290E+0	1.279585E+0	1.277980E+0	1.268751E+0	1.399847E+0	1.295853E+0	1.315578E+0	1.294405E+0	1.299414E+0	1.294187E+0	1.309559E+0	1.265563E+0	1.364297E+0	1.357390E+0	1.289795E+0	1.249099E+0	1.306946E+0	1.321753E+0	1.274984E+0	1.334829E+0	1.311168E+0	1.299273E+0	1.370635E+0	1.236835E+0	1.319592E+0	1.333584E+0	1.236187E+0	1.257778E+0	1.244429E+0	1.248769E+0	1.282646E+0	1.302963E+0	1.257778E+0	1.288694E+0	1.307363E+0	1.307145E+0	1.327793E+0	1.314728E+0	1.266489E+0	1.267495E+0	1.340618E+0	1.255207E+0	1.310456E+0	1.308641E+0	1.272400E+0	1.245852E+0	1.322156E+0	1.280272E+0	1.292120E+0	1.281715E+0	1.279745E+0	1.235893E+0	1.334779E+0	1.342672E+0	1.364302E+0	1.234853E+0	1.285342E+0	1.303848E+0	1.309337E+0	1.281540E+0	1.309375E+0	1.297817E+0	1.317502E+0	1.283273E+0	1.337463E+0	1.362029E+0	1.265855E+0	1.260518E+0	1.266578E+0	1.297246E+0	1.292701E+0	1.280604E+0	1.246170E+0	1.347643E+0	1.300709E+0	1.314441E+0	1.305112E+0	1.284172E+0	1.337668E+0	1.231997E+0	1.325873E+0	1.270807E+0	1.296725E+0	1.327128E+0	1.345147E+0	1.329810E+0	1.289218E+0	1.261426E+0	1.318668E+0	1.253769E+0	1.240881E+0	1.298683E+0	1.276089E+0	1.248221E+0	1.289348E+0	1.256439E+0	1.284216E+0	1.291704E+0	1.346561E+0	1.297644E+0	1.270790E+0	1.349927E+0	1.322308E+0	1.268864E+0	1.338231E+0	1.319150E+0	1.376975E+0	1.229410E+0	1.266153E+0	1.245131E+0	1.266787E+0	1.241967E+0	1.276966E+0	1.307772E+0	1.237050E+0	1.308259E+0	1.297773E+0	1.289176E+0	1.286793E+0	1.295007E+0	1.340526E+0	1.248859E+0	1.264201E+0	1.337519E+0	1.321310E+0	1.294824E+0	1.236098E+0	1.253233E+0
5.422780E+2	1.158028E+0	1.113410E+0	1.099469E+0	1.122651E+0	1.127869E+0	1.196423E+0	1.189726E+0	1.131357E+0	1.132812E+0	1.215753E+0	1.172472E+0	1.114915E+0	1.180098E+0	1.113614E+0	1.159030E+0	1.189125E+0	1.185886E+0	1.155954E+0	1.224705E+0	1.142745E+0	1.199821E+0	1.197928E+0	1.208375E+0	1.164791E+0	1.215367E+0	1.108524E+0	1.165619E+0	1.211143E+0	1.180407E+0	1.140171E+0	1.128516E+0	1.162216E+0	1.187345E+0	1.084534E+0	1.221113E+0	1.167198E+0	1.187127E+0	1.168281E+0	1.157721E+0	1.177282E+0	1.161821E+0	1.152275E+0	1.146273E+0	1.158389E+0	1.189906E+0	1.217880E+0	1.154789E+0	1.181328E+0	1.164659E+0	1.159739E+0	1.200675E+0	1.163370E+0	1.152497E+0	1.116924E+0	1.194493E+0	1.157679E+0	1.210542E+0	1.185637E+0	1.193823E+0	1.188865E+0	1.193617E+0	1.128182E+0	1.162453E+0	1.215950E+0	1.180552E+0	1.174710E+0	1.218359E+0	1.112399E+0	1.140145E+0	1.206674E+0	1.174031E+0	1.189874E+0	1.165675E+0	1.190189E+0	1.177047E+0	1.203877E+0	1.216160E+0	1.124317E+0	1.116965E+0	1.146044E+0	1.148850E+0	1.147076E+0	1.160704E+0	1.221580E+0	1.184874E+0	1.138102E+0	1.139825E+0	1.226229E+0	1.143088E+0	1.129745E+0	1.161273E+0	1.104350E+0	1.186777E+0	1.134469E+0	1.157896E+0	1.164765E+0	1.145065E+0	1.178674E+0	1.165650E+0	1.175118E+0	1.149267E+0	1.189876E+0	1.188661E+0	1.187525E+0	1.154721E+0	1.176657E+0	1.145461E+0	1.184195E+0	1.182657E+0	1.147108E+0	1.203901E+0	1.194094E+0	1.164590E+0	1.133238E+0	1.109158E+0	1.070112E+0	1.189340E+0	1.143026E+0	1.153057E+0	1.201089E+0	1.133656E+0	1.131631E+0	1.177519E+0	1.185835E+0	1.178710E+0	1.170121E+0	1.126639E+0	1.203881E+0	1.137701E+0	1.171816E+0	1.234163E+0	1.148138E+0	1.195452E+0	1.151959E+0	1.227026E+0	1.165910E+0	1.181543E+0	1.152210E+0	1.158448E+0	1.168063E+0	1.187382E+0	1.162211E+0	1.157356E+0	1.175541E+0	1.252372E+0	1.200812E+0	1.184722E+0	1.186290E+0	1.168185E+0	1.138139E+0	1.185681E+0	1.183726E+0	1.167005E+0	1.160757E+0	1.117063E+0	1.167449E+0	1.187507E+0	1.149188E+0	1.200032E+0	1.133668E+0	1.164347E+0	1.186733E+0	1.163300E+0	1.157661E+0	1.148024E+0	1.062451E+0
5.425080E+2	9.792715E-1	1.017393E+0	1.017355E+0	1.012328E+0	9.634139E-1	1.028456E+0	1.011156E+0	1.051731E+0	1.014044E+0	1.071326E+0	1.027063E+0	1.007001E+0	1.011085E+0	9.864674E-1	1.009761E+0	1.026600E+0	9.641026E-1	9.829079E-1	1.041587E+0	9.715883E-1	1.008976E+0	1.046954E+0	9.624450E-1	1.106971E+0	1.023852E+0	1.023270E+0	9.960133E-1	1.041213E+0	1.034141E+0	1.036390E+0	1.029409E+0	9.868358E-1	1.021510E+0	1.027104E+0	1.007354E+0	1.062336E+0	1.045318E+0	9.696323E-1	1.029851E+0	1.043592E+0	1.042975E+0	9.999408E-1	1.007717E+0	1.061035E+0	1.021892E+0	1.044914E+0	1.041963E+0	1.040308E+0	1.026788E+0	9.912036E-1	1.027776E+0	1.035349E+0	1.031530E+0	1.026990E+0	1.025837E+0	1.017438E+0	1.014861E+0	1.020635E+0	1.054438E+0	1.091689E+0	9.985012E-1	9.897039E-1	9.709143E-1	1.083132E+0	1.048630E+0	1.041750E+0	1.053235E+0	1.012786E+0	1.048732E+0	9.863912E-1	1.053772E+0	1.024656E+0	1.015194E+0	9.650086E-1	1.067323E+0	1.026520E+0	9.727331E-1	1.010668E+0	9.987591E-1	1.009213E+0	1.026087E+0	9.731996E-1	1.024640E+0	1.026439E+0	9.956891E-1	1.031871E+0	1.034558E+0	1.022458E+0	1.030110E+0	1.042278E+0	9.982991E-1	1.069003E+0	1.047609E+0	1.002351E+0	9.787663E-1	1.025235E+0	1.059645E+0	1.067454E+0	1.022777E+0	1.009542E+0	1.053233E+0	9.867638E-1	9.659401E-1	1.016437E+0	1.027649E+0	1.063893E+0	1.056817E+0	1.001295E+0	1.047668E+0	9.978682E-1	1.003519E+0	1.046041E+0	1.008990E+0	1.017940E+0	9.943679E-1	9.831571E-1	1.015682E+0	9.987371E-1	1.012983E+0	1.012319E+0	9.876589E-1	9.811305E-1	1.040103E+0	1.008756E+0	1.040460E+0	1.006142E+0	1.009861E+0	1.032957E+0	1.033409E+0	1.019770E+0	1.055174E+0	1.003044E+0	1.035645E+0	1.031362E+0	1.048036E+0	1.039196E+0	1.018579E+0	1.004963E+0	9.975224E-1	1.016737E+0	9.810833E-1	1.022158E+0	1.018654E+0	9.937293E-1	1.052507E+0	1.000234E+0	9.985343E-1	9.987557E-1	1.066231E+0	1.003486E+0	1.030341E+0	1.028748E+0	1.008930E+0	9.643815E-1	1.020586E+0	1.066377E+0	9.630625E-1	1.009334E+0	1.028865E+0	1.009881E+0	1.014424E+0	9.915502E-1	9.914472E-1	9.820209E-1	9.850536E-1	1.015404E+0
5.427710E+2	1.023508E+0	9.706076E-1	9.493186E-1	1.036539E+0	1.006058E+0	9.593158E-1	9.589086E-1	9.873527E-1	1.037659E+0	1.022893E+0	1.040298E+0	1.004998E+0	1.014900E+0	9.260698E-1	1.002106E+0	1.028057E+0	1.006224E+0	9.619901E-1	1.005831E+0	1.049929E+0	9.724797E-1	9.898677E-1	9.941270E-1	9.972397E-1	9.951714E-1	9.704567E-1	9.592637E-1	1.069594E+0	9.849653E-1	9.792807E-1	9.848394E-1	9.964721E-1	1.015493E+0	9.959670E-1	9.540030E-1	9.819772E-1	1.024467E+0	9.458743E-1	1.023755E+0	9.734208E-1	9.930643E-1	1.018702E+0	9.421544E-1	1.042482E+0	1.029112E+0	1.017859E+0	9.903970E-1	9.822896E-1	1.037180E+0	1.003325E+0	9.947587E-1	1.023604E+0	1.014858E+0	9.815946E-1	9.507945E-1	1.066354E+0	9.991150E-1	9.505866E-1	9.941887E-1	1.050494E+0	1.046778E+0	9.707535E-1	1.035778E+0	1.012872E+0	1.017105E+0	9.988623E-1	9.927702E-1	9.894534E-1	1.030536E+0	1.006515E+0	9.735472E-1	9.991150E-1	9.742545E-1	9.885936E-1	1.016694E+0	1.016710E+0	9.808893E-1	9.720946E-1	1.026120E+0	1.056676E+0	9.826775E-1	9.809601E-1	9.915787E-1	1.015900E+0	1.009983E+0	9.702796E-1	1.038809E+0	9.744636E-1	9.747738E-1	9.770746E-1	9.821777E-1	1.004238E+0	9.934111E-1	9.819928E-1	1.021133E+0	1.006549E+0	9.791008E-1	1.011815E+0	9.944260E-1	1.023532E+0	1.040113E+0	1.021932E+0	1.046898E+0	1.012476E+0	9.849687E-1	1.017153E+0	1.028917E+0	1.000010E+0	1.018096E+0	9.554072E-1	1.028146E+0	9.921680E-1	9.585308E-1	9.569701E-1	9.853295E-1	1.010327E+0	1.003081E+0	1.007250E+0	1.077112E+0	9.713894E-1	9.986947E-1	1.011304E+0	9.830704E-1	9.508563E-1	9.972354E-1	1.047187E+0	9.557496E-1	1.007135E+0	9.901525E-1	9.567305E-1	9.977955E-1	9.740652E-1	9.939602E-1	1.018273E+0	1.015220E+0	1.072938E+0	1.028108E+0	9.790798E-1	1.061122E+0	1.016366E+0	1.029292E+0	1.033005E+0	1.034979E+0	9.984754E-1	1.091485E+0	9.884482E-1	9.907015E-1	9.591353E-1	1.004714E+0	9.991516E-1	1.012850E+0	1.034613E+0	1.058294E+0	9.833542E-1	1.050041E+0	9.426561E-1	9.984942E-1	1.032887E+0	1.021473E+0	9.616003E-1	1.023749E+0	1.030566E+0	9.566041E-1	1.076414E+0	1.021226E+0	9.819095E-1
5.430170E+2	9.834409E-1	9.698731E-1	9.871934E-1	1.000014E+0	1.032341E+0	1.049059E+0	9.742325E-1	9.743547E-1	1.056486E+0	9.651770E-1	1.016321E+0	1.005954E+0	1.035551E+0	9.674964E-1	9.681582E-1	1.004864E+0	1.018584E+0	1.014920E+0	1.013553E+0	1.061968E+0	1.015275E+0	1.027597E+0	9.856781E-1	1.048014E+0	1.042178E+0	1.020556E+0	1.015846E+0	1.077046E+0	1.020558E+0	9.809177E-1	1.023095E+0	1.050157E+0	1.008784E+0	1.062292E+0	9.844050E-1	1.017276E+0	1.009136E+0	9.656279E-1	9.774806E-1	1.016512E+0	1.012984E+0	9.932550E-1	9.919773E-1	1.041779E+0	1.055184E+0	1.019478E+0	1.000814E+0	9.806144E-1	9.848453E-1	9.841876E-1	9.856136E-1	1.017575E+0	1.092046E+0	9.910290E-1	1.022600E+0	1.005513E+0	9.809113E-1	1.048587E+0	1.044642E+0	1.028937E+0	1.021557E+0	1.008815E+0	1.009594E+0	1.007814E+0	1.002220E+0	9.922270E-1	1.043713E+0	1.049456E+0	1.069625E+0	9.988868E-1	9.981971E-1	1.061165E+0	1.018386E+0	9.846596E-1	9.963584E-1	1.058607E+0	1.027367E+0	1.015975E+0	9.936347E-1	1.035965E+0	9.691298E-1	1.008945E+0	1.002724E+0	9.754269E-1	1.011609E+0	1.006755E+0	1.037877E+0	1.037914E+0	1.017882E+0	1.088176E+0	1.038114E+0	1.044667E+0	9.707421E-1	1.021995E+0	9.666960E-1	1.033295E+0	1.048848E+0	9.851136E-1	1.010499E+0	1.028775E+0	1.007142E+0	9.948041E-1	1.014364E+0	1.029264E+0	1.011206E+0	1.019296E+0	1.067672E+0	9.996021E-1	1.003034E+0	1.005238E+0	1.016177E+0	9.779130E-1	1.052451E+0	9.632139E-1	1.046753E+0	9.244691E-1	1.012393E+0	1.010785E+0	1.002154E+0	1.020076E+0	9.948404E-1	9.657764E-1	1.041789E+0	1.010613E+0	1.033152E+0	1.048715E+0	9.861651E-1	9.991900E-1	9.716526E-1	1.015327E+0	9.872477E-1	1.025470E+0	1.020705E+0	1.019918E+0	1.094637E+0	1.015381E+0	9.939476E-1	1.006974E+0	1.062505E+0	9.934909E-1	1.012962E+0	9.707482E-1	1.016168E+0	1.068252E+0	1.017197E+0	9.948403E-1	1.006240E+0	9.795044E-1	9.792761E-1	9.888963E-1	9.773280E-1	1.083454E+0	1.014376E+0	9.633789E-1	9.806267E-1	1.035352E+0	1.016210E+0	9.747925E-1	1.014883E+0	1.000430E+0	1.035346E+0	1.038405E+0	1.011005E+0	1.013260E+0	1.011954E+0	1.048336E+0
5.432860E+2	1.136080E+0	1.127883E+0	1.170807E+0	1.133007E+0	1.123461E+0	1.143514E+0	1.129691E+0	1.153453E+0	1.162442E+0	1.130640E+0	1.145171E+0	1.137333E+0	1.173841E+0	1.164014E+0	1.115701E+0	1.152748E+0	1.210180E+0	1.138979E+0	1.193688E+0	1.160460E+0	1.135638E+0	1.158308E+0	1.150255E+0	1.229177E+0	1.166388E+0	1.133981E+0	1.175633E+0	1.213058E+0	1.191017E+0	1.121256E+0	1.134772E+0	1.112991E+0	1.127949E+0	1.125883E+0	1.113408E+0	1.136014E+0	1.197687E+0	1.105737E+0	1.097697E+0	1.180120E+0	1.098000E+0	1.159817E+0	1.122480E+0	1.113036E+0	1.170760E+0	1.150159E+0	1.109548E+0	1.108234E+0	1.176742E+0	1.135710E+0	1.179387E+0	1.172553E+0	1.106811E+0	1.130600E+0	1.150419E+0	1.194493E+0	1.117276E+0	1.226396E+0	1.153762E+0	1.208160E+0	1.203927E+0	1.087447E+0	1.184065E+0	1.134562E+0	1.157750E+0	1.145371E+0	1.117537E+0	1.125535E+0	1.127118E+0	1.164622E+0	1.175172E+0	1.142676E+0	1.142832E+0	1.095753E+0	1.133573E+0	1.155952E+0	1.152547E+0	1.117064E+0	1.154867E+0	1.123502E+0	1.210804E+0	1.118204E+0	1.136438E+0	1.182040E+0	1.125814E+0	1.152543E+0	1.173304E+0	1.194666E+0	1.109126E+0	1.174837E+0	1.199224E+0	1.124429E+0	1.138244E+0	1.114644E+0	1.112502E+0	1.127861E+0	1.137097E+0	1.135455E+0	1.108834E+0	1.208868E+0	1.194176E+0	1.060861E+0	1.199763E+0	1.183782E+0	1.218678E+0	1.189686E+0	1.097223E+0	1.188348E+0	1.117511E+0	1.122291E+0	1.106486E+0	1.176841E+0	1.158920E+0	1.121245E+0	1.134492E+0	1.104405E+0	1.152912E+0	1.126510E+0	1.129443E+0	1.123393E+0	1.096975E+0	1.133282E+0	1.144669E+0	1.098572E+0	1.140124E+0	1.139380E+0	1.118482E+0	1.172927E+0	1.109012E+0	1.098979E+0	1.141724E+0	1.082260E+0	1.157000E+0	1.119843E+0	1.152946E+0	1.174559E+0	1.130357E+0	1.055983E+0	1.177373E+0	1.175083E+0	1.173409E+0	1.122723E+0	1.171198E+0	1.155289E+0	1.201856E+0	1.144551E+0	1.108937E+0	1.162670E+0	1.155125E+0	1.196354E+0	1.137854E+0	1.191208E+0	1.142196E+0	1.134866E+0	1.161166E+0	1.118861E+0	1.111662E+0	1.135844E+0	1.149465E+0	1.096905E+0	1.136362E+0	1.150056E+0	1.104102E+0	1.043734E+0	1.128017E+0	1.186362E+0
5.435330E+2	1.376738E+0	1.294383E+0	1.331451E+0	1.331792E+0	1.238111E+0	1.322432E+0	1.269623E+0	1.285677E+0	1.309198E+0	1.342429E+0	1.298035E+0	1.303381E+0	1.305551E+0	1.301259E+0	1.314885E+0	1.329618E+0	1.286431E+0	1.284914E+0	1.287979E+0	1.294637E+0	1.341192E+0	1.337282E+0	1.326180E+0	1.329246E+0	1.333074E+0	1.282901E+0	1.280067E+0	1.367804E+0	1.328125E+0	1.229400E+0	1.322154E+0	1.311470E+0	1.301636E+0	1.293940E+0	1.283619E+0	1.292431E+0	1.321020E+0	1.264275E+0	1.248044E+0	1.300207E+0	1.301820E+0	1.266505E+0	1.248537E+0	1.362055E+0	1.329625E+0	1.305690E+0	1.248873E+0	1.332458E+0	1.315796E+0	1.314821E+0	1.330105E+0	1.315300E+0	1.333755E+0	1.276260E+0	1.286223E+0	1.283444E+0	1.339394E+0	1.255187E+0	1.309883E+0	1.371028E+0	1.339756E+0	1.221473E+0	1.271578E+0	1.316309E+0	1.316760E+0	1.338505E+0	1.296966E+0	1.286591E+0	1.273174E+0	1.304397E+0	1.235777E+0	1.280619E+0	1.290739E+0	1.288235E+0	1.310961E+0	1.291410E+0	1.345924E+0	1.260167E+0	1.288739E+0	1.301881E+0	1.316003E+0	1.260665E+0	1.304561E+0	1.357803E+0	1.312234E+0	1.306082E+0	1.249081E+0	1.411393E+0	1.287686E+0	1.312630E+0	1.295312E+0	1.321506E+0	1.308070E+0	1.317590E+0	1.297040E+0	1.291131E+0	1.313900E+0	1.269023E+0	1.246242E+0	1.334525E+0	1.371359E+0	1.266464E+0	1.262298E+0	1.394214E+0	1.283372E+0	1.328195E+0	1.316602E+0	1.325831E+0	1.329123E+0	1.311212E+0	1.234163E+0	1.291435E+0	1.272831E+0	1.323339E+0	1.261279E+0	1.289508E+0	1.318174E+0	1.333051E+0	1.290275E+0	1.288000E+0	1.306879E+0	1.281608E+0	1.296314E+0	1.295929E+0	1.356486E+0	1.276207E+0	1.267342E+0	1.309872E+0	1.256224E+0	1.225184E+0	1.310751E+0	1.325648E+0	1.358481E+0	1.288930E+0	1.375257E+0	1.326243E+0	1.329744E+0	1.207429E+0	1.357710E+0	1.309816E+0	1.334505E+0	1.330400E+0	1.311332E+0	1.303251E+0	1.318311E+0	1.289795E+0	1.286025E+0	1.301081E+0	1.315800E+0	1.233905E+0	1.306257E+0	1.281986E+0	1.404257E+0	1.201946E+0	1.229786E+0	1.313218E+0	1.354112E+0	1.232483E+0	1.298915E+0	1.322787E+0	1.300798E+0	1.328935E+0	1.300775E+0	1.310815E+0	1.257153E+0	1.259560E+0
5.437640E+2	1.475859E+0	1.446426E+0	1.487968E+0	1.500226E+0	1.467520E+0	1.503283E+0	1.445938E+0	1.420437E+0	1.428472E+0	1.515749E+0	1.544141E+0	1.409526E+0	1.551530E+0	1.441057E+0	1.448224E+0	1.464814E+0	1.510136E+0	1.461105E+0	1.542239E+0	1.454118E+0	1.449608E+0	1.528494E+0	1.404824E+0	1.498492E+0	1.514745E+0	1.477424E+0	1.414221E+0	1.551106E+0	1.553337E+0	1.453383E+0	1.441677E+0	1.481798E+0	1.448406E+0	1.476273E+0	1.456919E+0	1.498631E+0	1.475824E+0	1.396852E+0	1.425113E+0	1.560693E+0	1.515207E+0	1.417225E+0	1.397953E+0	1.464898E+0	1.463942E+0	1.439551E+0	1.454860E+0	1.480922E+0	1.530710E+0	1.453177E+0	1.435974E+0	1.451041E+0	1.508918E+0	1.396278E+0	1.438974E+0	1.529657E+0	1.517394E+0	1.432252E+0	1.488417E+0	1.507755E+0	1.508684E+0	1.422921E+0	1.451729E+0	1.493505E+0	1.502139E+0	1.531556E+0	1.449388E+0	1.508078E+0	1.475840E+0	1.454658E+0	1.406018E+0	1.437777E+0	1.454799E+0	1.421994E+0	1.394059E+0	1.454759E+0	1.455608E+0	1.473965E+0	1.446912E+0	1.457582E+0	1.526870E+0	1.428476E+0	1.490290E+0	1.452882E+0	1.455171E+0	1.395227E+0	1.498193E+0	1.503851E+0	1.477658E+0	1.465358E+0	1.445811E+0	1.415413E+0	1.472080E+0	1.488752E+0	1.485816E+0	1.483554E+0	1.482148E+0	1.421243E+0	1.479224E+0	1.443656E+0	1.415603E+0	1.431134E+0	1.449981E+0	1.474874E+0	1.457737E+0	1.431156E+0	1.359319E+0	1.478181E+0	1.472065E+0	1.455742E+0	1.413766E+0	1.474468E+0	1.512190E+0	1.451112E+0	1.464927E+0	1.445416E+0	1.456622E+0	1.405056E+0	1.416612E+0	1.517072E+0	1.410924E+0	1.417699E+0	1.397404E+0	1.463964E+0	1.467547E+0	1.449697E+0	1.441784E+0	1.436308E+0	1.519355E+0	1.491549E+0	1.467977E+0	1.438563E+0	1.444896E+0	1.455340E+0	1.490827E+0	1.484421E+0	1.484341E+0	1.445054E+0	1.466275E+0	1.482245E+0	1.463981E+0	1.436569E+0	1.463028E+0	1.440984E+0	1.516061E+0	1.436820E+0	1.435061E+0	1.412678E+0	1.482108E+0	1.443724E+0	1.392399E+0	1.516258E+0	1.480140E+0	1.410533E+0	1.421964E+0	1.482530E+0	1.442162E+0	1.447448E+0	1.444686E+0	1.504827E+0	1.495692E+0	1.482933E+0	1.468758E+0	1.431641E+0	1.449059E+0	1.361227E+0
5.440220E+2	1.601498E+0	1.605827E+0	1.590472E+0	1.699434E+0	1.615478E+0	1.531320E+0	1.615123E+0	1.579500E+0	1.634700E+0	1.687561E+0	1.563799E+0	1.627165E+0	1.670466E+0	1.557905E+0	1.532047E+0	1.677887E+0	1.575496E+0	1.593409E+0	1.665216E+0	1.581880E+0	1.506585E+0	1.613221E+0	1.580946E+0	1.591439E+0	1.595331E+0	1.569274E+0	1.550768E+0	1.658524E+0	1.637621E+0	1.452754E+0	1.626821E+0	1.540252E+0	1.646204E+0	1.575708E+0	1.559371E+0	1.620079E+0	1.573556E+0	1.595657E+0	1.578710E+0	1.603046E+0	1.618002E+0	1.578545E+0	1.572265E+0	1.635329E+0	1.635247E+0	1.612607E+0	1.596295E+0	1.559526E+0	1.604971E+0	1.548440E+0	1.512523E+0	1.614345E+0	1.570711E+0	1.570006E+0	1.594637E+0	1.637217E+0	1.565059E+0	1.532592E+0	1.581560E+0	1.663874E+0	1.617204E+0	1.519716E+0	1.569980E+0	1.562629E+0	1.598111E+0	1.561477E+0	1.567441E+0	1.634963E+0	1.632061E+0	1.604530E+0	1.530096E+0	1.607806E+0	1.534589E+0	1.545937E+0	1.537111E+0	1.554261E+0	1.606572E+0	1.593981E+0	1.577194E+0	1.618789E+0	1.661619E+0	1.511137E+0	1.508361E+0	1.600784E+0	1.570055E+0	1.569665E+0	1.626011E+0	1.660057E+0	1.587871E+0	1.615078E+0	1.523640E+0	1.601999E+0	1.592462E+0	1.548922E+0	1.588279E+0	1.594006E+0	1.645781E+0	1.565250E+0	1.594398E+0	1.637504E+0	1.508277E+0	1.521473E+0	1.579355E+0	1.656712E+0	1.584892E+0	1.521709E+0	1.549691E+0	1.609215E+0	1.610118E+0	1.567299E+0	1.542385E+0	1.614717E+0	1.554171E+0	1.505141E+0	1.568585E+0	1.537956E+0	1.546930E+0	1.522937E+0	1.588238E+0	1.578552E+0	1.531824E+0	1.582293E+0	1.558375E+0	1.563989E+0	1.637884E+0	1.609165E+0	1.571969E+0	1.591613E+0	1.587590E+0	1.605877E+0	1.607753E+0	1.569442E+0	1.599517E+0	1.560777E+0	1.576223E+0	1.593548E+0	1.565015E+0	1.560410E+0	1.525392E+0	1.573736E+0	1.538281E+0	1.605946E+0	1.559868E+0	1.550739E+0	1.583618E+0	1.514169E+0	1.586100E+0	1.596159E+0	1.526296E+0	1.579568E+0	1.548240E+0	1.642281E+0	1.543179E+0	1.531971E+0	1.576260E+0	1.559018E+0	1.623906E+0	1.565241E+0	1.467301E+0	1.613209E+0	1.531252E+0	1.529483E+0	1.602935E+0	1.595782E+0	1.544030E+0	1.571471E+0
5.442750E+2	1.623038E+0	1.584924E+0	1.614298E+0	1.629140E+0	1.553604E+0	1.616805E+0	1.569108E+0	1.638300E+0	1.577757E+0	1.586312E+0	1.634446E+0	1.663241E+0	1.623208E+0	1.574371E+0	1.599319E+0	1.646654E+0	1.634634E+0	1.557431E+0	1.658811E+0	1.624878E+0	1.639404E+0	1.613889E+0	1.584999E+0	1.663502E+0	1.586162E+0	1.545178E+0	1.582019E+0	1.740651E+0	1.639261E+0	1.540879E+0	1.600687E+0	1.595178E+0	1.653622E+0	1.616631E+0	1.588533E+0	1.647492E+0	1.631815E+0	1.521675E+0	1.556065E+0	1.614549E+0	1.578953E+0	1.574882E+0	1.559779E+0	1.646442E+0	1.568294E+0	1.517623E+0	1.542165E+0	1.621533E+0	1.542691E+0	1.617689E+0	1.540590E+0	1.639000E+0	1.581436E+0	1.566422E+0	1.601341E+0	1.584970E+0	1.629748E+0	1.603052E+0	1.594975E+0	1.640616E+0	1.648935E+0	1.562862E+0	1.571426E+0	1.624841E+0	1.554567E+0	1.646557E+0	1.636481E+0	1.563041E+0	1.566516E+0	1.594992E+0	1.565873E+0	1.608527E+0	1.610098E+0	1.591581E+0	1.590493E+0	1.618514E+0	1.638398E+0	1.644726E+0	1.591272E+0	1.582895E+0	1.648302E+0	1.549515E+0	1.536802E+0	1.619963E+0	1.567056E+0	1.539735E+0	1.536502E+0	1.622279E+0	1.597610E+0	1.547243E+0	1.647610E+0	1.612417E+0	1.603400E+0	1.563855E+0	1.589204E+0	1.548533E+0	1.534961E+0	1.569829E+0	1.498258E+0	1.547905E+0	1.586340E+0	1.566062E+0	1.641074E+0	1.592181E+0	1.595929E+0	1.625769E+0	1.601285E+0	1.625684E+0	1.616824E+0	1.564223E+0	1.576074E+0	1.620092E+0	1.595516E+0	1.566665E+0	1.582151E+0	1.509831E+0	1.617906E+0	1.621728E+0	1.621628E+0	1.619993E+0	1.638124E+0	1.564558E+0	1.591535E+0	1.572412E+0	1.581918E+0	1.562287E+0	1.676373E+0	1.672801E+0	1.587818E+0	1.467289E+0	1.551023E+0	1.627666E+0	1.583207E+0	1.590797E+0	1.591843E+0	1.649330E+0	1.536678E+0	1.537372E+0	1.581687E+0	1.609125E+0	1.606860E+0	1.563388E+0	1.558497E+0	1.608856E+0	1.655304E+0	1.541947E+0	1.543539E+0	1.574853E+0	1.591477E+0	1.548819E+0	1.559664E+0	1.604644E+0	1.642219E+0	1.516145E+0	1.526850E+0	1.632219E+0	1.545239E+0	1.571712E+0	1.567309E+0	1.591307E+0	1.578200E+0	1.579653E+0	1.523112E+0	1.632208E+0	1.578189E+0	1.597358E+0
5.445130E+2	1.557792E+0	1.588906E+0	1.597744E+0	1.597327E+0	1.598756E+0	1.570807E+0	1.547560E+0	1.631548E+0	1.606013E+0	1.588878E+0	1.574394E+0	1.592152E+0	1.562024E+0	1.591258E+0	1.606521E+0	1.617740E+0	1.570835E+0	1.559413E+0	1.588802E+0	1.669273E+0	1.646073E+0	1.573690E+0	1.586678E+0	1.595285E+0	1.575713E+0	1.609593E+0	1.545237E+0	1.663337E+0	1.602438E+0	1.515926E+0	1.602394E+0	1.543477E+0	1.610263E+0	1.537634E+0	1.553625E+0	1.533011E+0	1.571814E+0	1.540896E+0	1.507972E+0	1.634003E+0	1.556274E+0	1.554274E+0	1.565366E+0	1.639007E+0	1.579499E+0	1.497983E+0	1.559097E+0	1.512536E+0	1.629741E+0	1.558903E+0	1.589784E+0	1.607419E+0	1.554399E+0	1.617658E+0	1.529677E+0	1.570325E+0	1.571672E+0	1.529945E+0	1.548711E+0	1.536790E+0	1.565245E+0	1.525474E+0	1.595494E+0	1.672369E+0	1.556408E+0	1.590788E+0	1.537122E+0	1.609780E+0	1.577429E+0	1.585275E+0	1.520124E+0	1.546945E+0	1.574978E+0	1.542153E+0	1.554385E+0	1.669935E+0	1.551033E+0	1.585594E+0	1.500692E+0	1.592668E+0	1.566191E+0	1.516045E+0	1.602269E+0	1.582153E+0	1.586462E+0	1.494389E+0	1.549347E+0	1.641139E+0	1.584302E+0	1.627831E+0	1.597499E+0	1.516755E+0	1.570722E+0	1.520043E+0	1.581578E+0	1.595495E+0	1.587187E+0	1.559387E+0	1.594840E+0	1.645157E+0	1.574632E+0	1.525352E+0	1.602989E+0	1.543877E+0	1.549603E+0	1.543714E+0	1.513463E+0	1.595056E+0	1.593702E+0	1.553100E+0	1.474916E+0	1.595109E+0	1.610072E+0	1.537017E+0	1.530497E+0	1.529665E+0	1.587450E+0	1.566960E+0	1.594151E+0	1.570667E+0	1.546197E+0	1.561841E+0	1.575012E+0	1.535224E+0	1.503363E+0	1.561238E+0	1.522533E+0	1.585261E+0	1.528692E+0	1.542383E+0	1.597701E+0	1.633451E+0	1.569392E+0	1.556262E+0	1.555757E+0	1.513939E+0	1.531420E+0	1.509948E+0	1.495416E+0	1.599165E+0	1.578578E+0	1.525004E+0	1.534646E+0	1.591038E+0	1.626710E+0	1.501077E+0	1.582133E+0	1.557589E+0	1.512530E+0	1.572508E+0	1.483973E+0	1.671729E+0	1.595973E+0	1.583897E+0	1.516850E+0	1.585285E+0	1.568737E+0	1.544073E+0	1.593845E+0	1.548422E+0	1.540795E+0	1.540242E+0	1.589397E+0	1.497806E+0	1.429607E+0	1.571729E+0
5.447660E+2	1.564022E+0	1.531233E+0	1.606272E+0	1.580346E+0	1.567933E+0	1.564017E+0	1.583525E+0	1.659636E+0	1.557981E+0	1.569298E+0	1.650015E+0	1.524567E+0	1.639051E+0	1.571248E+0	1.560885E+0	1.537190E+0	1.582722E+0	1.561644E+0	1.659192E+0	1.534541E+0	1.639588E+0	1.571800E+0	1.504982E+0	1.589191E+0	1.646023E+0	1.533389E+0	1.561626E+0	1.699358E+0	1.565741E+0	1.527078E+0	1.556783E+0	1.560805E+0	1.641007E+0	1.540075E+0	1.543446E+0	1.586560E+0	1.580808E+0	1.521757E+0	1.518310E+0	1.618626E+0	1.584517E+0	1.541508E+0	1.544746E+0	1.607570E+0	1.595683E+0	1.555786E+0	1.530228E+0	1.564629E+0	1.570050E+0	1.546441E+0	1.604712E+0	1.566733E+0	1.533306E+0	1.506285E+0	1.612283E+0	1.628778E+0	1.572582E+0	1.565690E+0	1.519177E+0	1.586027E+0	1.613912E+0	1.541278E+0	1.543334E+0	1.597336E+0	1.563964E+0	1.529757E+0	1.509415E+0	1.601579E+0	1.556859E+0	1.540173E+0	1.526637E+0	1.523104E+0	1.577642E+0	1.524324E+0	1.515598E+0	1.583099E+0	1.591879E+0	1.471473E+0	1.530099E+0	1.585662E+0	1.525170E+0	1.551568E+0	1.517594E+0	1.567692E+0	1.578911E+0	1.545497E+0	1.546157E+0	1.650965E+0	1.512840E+0	1.599095E+0	1.529583E+0	1.527828E+0	1.562686E+0	1.548707E+0	1.532181E+0	1.583589E+0	1.542920E+0	1.552172E+0	1.563655E+0	1.536925E+0	1.506778E+0	1.489920E+0	1.611661E+0	1.565992E+0	1.575174E+0	1.544810E+0	1.510638E+0	1.611518E+0	1.580140E+0	1.501959E+0	1.562560E+0	1.658419E+0	1.555502E+0	1.530499E+0	1.575319E+0	1.482402E+0	1.566092E+0	1.523060E+0	1.566607E+0	1.557952E+0	1.550517E+0	1.537760E+0	1.513586E+0	1.538953E+0	1.548988E+0	1.527566E+0	1.549927E+0	1.517675E+0	1.573464E+0	1.548357E+0	1.561869E+0	1.507795E+0	1.529306E+0	1.507988E+0	1.582439E+0	1.527333E+0	1.575907E+0	1.541326E+0	1.520326E+0	1.589045E+0	1.613489E+0	1.522110E+0	1.544486E+0	1.627349E+0	1.600713E+0	1.454707E+0	1.478092E+0	1.561106E+0	1.500815E+0	1.528955E+0	1.536805E+0	1.563858E+0	1.560605E+0	1.556064E+0	1.467761E+0	1.575749E+0	1.517936E+0	1.511162E+0	1.509692E+0	1.564561E+0	1.515167E+0	1.600380E+0	1.601309E+0	1.563797E+0	1.487507E+0	1.584868E+0
5.450090E+2	1.631227E+0	1.540665E+0	1.559313E+0	1.660769E+0	1.559906E+0	1.552180E+0	1.562040E+0	1.575217E+0	1.650433E+0	1.603215E+0	1.601797E+0	1.620127E+0	1.612373E+0	1.553674E+0	1.619909E+0	1.650839E+0	1.606045E+0	1.589659E+0	1.644244E+0	1.621989E+0	1.592605E+0	1.583252E+0	1.558211E+0	1.570814E+0	1.579351E+0	1.551069E+0	1.602879E+0	1.673332E+0	1.588195E+0	1.571091E+0	1.552383E+0	1.540949E+0	1.561967E+0	1.632468E+0	1.538868E+0	1.581708E+0	1.559480E+0	1.560544E+0	1.574583E+0	1.616574E+0	1.536274E+0	1.514510E+0	1.550412E+0	1.602305E+0	1.568966E+0	1.602819E+0	1.533494E+0	1.535777E+0	1.535060E+0	1.603600E+0	1.564953E+0	1.627278E+0	1.625078E+0	1.554112E+0	1.582333E+0	1.624738E+0	1.596090E+0	1.529112E+0	1.558747E+0	1.616003E+0	1.622006E+0	1.554483E+0	1.565419E+0	1.600492E+0	1.559579E+0	1.586458E+0	1.524776E+0	1.622193E+0	1.588093E+0	1.593667E+0	1.530799E+0	1.647371E+0	1.587366E+0	1.487768E+0	1.545559E+0	1.566345E+0	1.552821E+0	1.578854E+0	1.568553E+0	1.587181E+0	1.644126E+0	1.558031E+0	1.592731E+0	1.617341E+0	1.549519E+0	1.551885E+0	1.581633E+0	1.669253E+0	1.550681E+0	1.594144E+0	1.562145E+0	1.534650E+0	1.521509E+0	1.502782E+0	1.606414E+0	1.533515E+0	1.612397E+0	1.607291E+0	1.526860E+0	1.551103E+0	1.603490E+0	1.544873E+0	1.604546E+0	1.690366E+0	1.564582E+0	1.589064E+0	1.583629E+0	1.672124E+0	1.535411E+0	1.511869E+0	1.558551E+0	1.571051E+0	1.530603E+0	1.564016E+0	1.487748E+0	1.531194E+0	1.601151E+0	1.561716E+0	1.629864E+0	1.550459E+0	1.537634E+0	1.624897E+0	1.573124E+0	1.541463E+0	1.590355E+0	1.564737E+0	1.561030E+0	1.550657E+0	1.576339E+0	1.528624E+0	1.488682E+0	1.523953E+0	1.570921E+0	1.603391E+0	1.528986E+0	1.542599E+0	1.593239E+0	1.589106E+0	1.501996E+0	1.552095E+0	1.579499E+0	1.564191E+0	1.581012E+0	1.571017E+0	1.646341E+0	1.496237E+0	1.562119E+0	1.590570E+0	1.637681E+0	1.576212E+0	1.542459E+0	1.631499E+0	1.546626E+0	1.576152E+0	1.507161E+0	1.537717E+0	1.589628E+0	1.566195E+0	1.536446E+0	1.574769E+0	1.517102E+0	1.553473E+0	1.579075E+0	1.443821E+0	1.519878E+0	1.423461E+0
5.452580E+2	1.437796E+0	1.406523E+0	1.436150E+0	1.495657E+0	1.351310E+0	1.475723E+0	1.406189E+0	1.449066E+0	1.491122E+0	1.411969E+0	1.479924E+0	1.415560E+0	1.456410E+0	1.420807E+0	1.472375E+0	1.491792E+0	1.455073E+0	1.483012E+0	1.487169E+0	1.485377E+0	1.455285E+0	1.457462E+0	1.408199E+0	1.474662E+0	1.426485E+0	1.441685E+0	1.393425E+0	1.472652E+0	1.478542E+0	1.428444E+0	1.442306E+0	1.423408E+0	1.481059E+0	1.394858E+0	1.369240E+0	1.394785E+0	1.487186E+0	1.415857E+0	1.393512E+0	1.430335E+0	1.434529E+0	1.412387E+0	1.403874E+0	1.481430E+0	1.399299E+0	1.441600E+0	1.428134E+0	1.438002E+0	1.376799E+0	1.479700E+0	1.394920E+0	1.395480E+0	1.426432E+0	1.434502E+0	1.466704E+0	1.472389E+0	1.448676E+0	1.450666E+0	1.431451E+0	1.470017E+0	1.507393E+0	1.368136E+0	1.484359E+0	1.458351E+0	1.411428E+0	1.441471E+0	1.417616E+0	1.405274E+0	1.418199E+0	1.431853E+0	1.411138E+0	1.381192E+0	1.464790E+0	1.356216E+0	1.342330E+0	1.374891E+0	1.455641E+0	1.423340E+0	1.431471E+0	1.438761E+0	1.401458E+0	1.361165E+0	1.425370E+0	1.450017E+0	1.407476E+0	1.358587E+0	1.411319E+0	1.465188E+0	1.419358E+0	1.395001E+0	1.395847E+0	1.458838E+0	1.454113E+0	1.384516E+0	1.429889E+0	1.385353E+0	1.429254E+0	1.413171E+0	1.423037E+0	1.378816E+0	1.409151E+0	1.380385E+0	1.494077E+0	1.488094E+0	1.410622E+0	1.411047E+0	1.366112E+0	1.526942E+0	1.429251E+0	1.416661E+0	1.417824E+0	1.420202E+0	1.368061E+0	1.401168E+0	1.402107E+0	1.409341E+0	1.442549E+0	1.464163E+0	1.425994E+0	1.492291E+0	1.433958E+0	1.379246E+0	1.451743E+0	1.406489E+0	1.388465E+0	1.382188E+0	1.394495E+0	1.371937E+0	1.386926E+0	1.400673E+0	1.407452E+0	1.437094E+0	1.406075E+0	1.429548E+0	1.427522E+0	1.375745E+0	1.447244E+0	1.423250E+0	1.343685E+0	1.469526E+0	1.410572E+0	1.392390E+0	1.446098E+0	1.417644E+0	1.498514E+0	1.428596E+0	1.373502E+0	1.448783E+0	1.449161E+0	1.438258E+0	1.425262E+0	1.476860E+0	1.371497E+0	1.395181E+0	1.371721E+0	1.452600E+0	1.395542E+0	1.401721E+0	1.395228E+0	1.437449E+0	1.392214E+0	1.423718E+0	1.422390E+0	1.443202E+0	1.383604E+0	1.393434E+0
5.455130E+2	1.448150E+0	1.457040E+0	1.387559E+0	1.523669E+0	1.440603E+0	1.492798E+0	1.438291E+0	1.416217E+0	1.501841E+0	1.510810E+0	1.454949E+0	1.515957E+0	1.467271E+0	1.403328E+0	1.528853E+0	1.463966E+0	1.466188E+0	1.411192E+0	1.463320E+0	1.464477E+0	1.496094E+0	1.487556E+0	1.455661E+0	1.455381E+0	1.426318E+0	1.425383E+0	1.448710E+0	1.484212E+0	1.485683E+0	1.455788E+0	1.448069E+0	1.476036E+0	1.448236E+0	1.495112E+0	1.432582E+0	1.441452E+0	1.486916E+0	1.487046E+0	1.429057E+0	1.422772E+0	1.483709E+0	1.452187E+0	1.478684E+0	1.494416E+0	1.464554E+0	1.423560E+0	1.466640E+0	1.450621E+0	1.486310E+0	1.386565E+0	1.429051E+0	1.482022E+0	1.456550E+0	1.415195E+0	1.475393E+0	1.499501E+0	1.390745E+0	1.400732E+0	1.439832E+0	1.476930E+0	1.425267E+0	1.401951E+0	1.455840E+0	1.428774E+0	1.443447E+0	1.447677E+0	1.428995E+0	1.480918E+0	1.455997E+0	1.459034E+0	1.446783E+0	1.441863E+0	1.489253E+0	1.434554E+0	1.460671E+0	1.504603E+0	1.424411E+0	1.450917E+0	1.458157E+0	1.483127E+0	1.445461E+0	1.470968E+0	1.430320E+0	1.452866E+0	1.404625E+0	1.405658E+0	1.418156E+0	1.460422E+0	1.452455E+0	1.402987E+0	1.469850E+0	1.466021E+0	1.404972E+0	1.377567E+0	1.462757E+0	1.487530E+0	1.470419E+0	1.425505E+0	1.414277E+0	1.468896E+0	1.446351E+0	1.434129E+0	1.445588E+0	1.457983E+0	1.426588E+0	1.423695E+0	1.400373E+0	1.519573E+0	1.472386E+0	1.389502E+0	1.477015E+0	1.398698E+0	1.520529E+0	1.386014E+0	1.397969E+0	1.460171E+0	1.466633E+0	1.392088E+0	1.439829E+0	1.462338E+0	1.395221E+0	1.433401E+0	1.435484E+0	1.430241E+0	1.449761E+0	1.429544E+0	1.429130E+0	1.440312E+0	1.393354E+0	1.443400E+0	1.475900E+0	1.403575E+0	1.400115E+0	1.451629E+0	1.393679E+0	1.375624E+0	1.457717E+0	1.440250E+0	1.436211E+0	1.426096E+0	1.456273E+0	1.408110E+0	1.385460E+0	1.428618E+0	1.582598E+0	1.395062E+0	1.395350E+0	1.441802E+0	1.462549E+0	1.463108E+0	1.414893E+0	1.464806E+0	1.490627E+0	1.408844E+0	1.413294E+0	1.498965E+0	1.381234E+0	1.410615E+0	1.382740E+0	1.448861E+0	1.397943E+0	1.441900E+0	1.396156E+0	1.379466E+0	1.346185E+0	1.443263E+0
5.457670E+2	1.338242E+0	1.371480E+0	1.355346E+0	1.402536E+0	1.325582E+0	1.315938E+0	1.352863E+0	1.357250E+0	1.399271E+0	1.377457E+0	1.427931E+0	1.437345E+0	1.388842E+0	1.338640E+0	1.359385E+0	1.416227E+0	1.401859E+0	1.340267E+0	1.394540E+0	1.382313E+0	1.357954E+0	1.355464E+0	1.324087E+0	1.320923E+0	1.363842E+0	1.375650E+0	1.356394E+0	1.430362E+0	1.338639E+0	1.324669E+0	1.364242E+0	1.318006E+0	1.407572E+0	1.386430E+0	1.356194E+0	1.349947E+0	1.418983E+0	1.353458E+0	1.356810E+0	1.431122E+0	1.335212E+0	1.308745E+0	1.336462E+0	1.387438E+0	1.359941E+0	1.342711E+0	1.348237E+0	1.363025E+0	1.374005E+0	1.334361E+0	1.394926E+0	1.378127E+0	1.358376E+0	1.354718E+0	1.293681E+0	1.417837E+0	1.333690E+0	1.373222E+0	1.359055E+0	1.393626E+0	1.398550E+0	1.317442E+0	1.370369E+0	1.378941E+0	1.388079E+0	1.357296E+0	1.348275E+0	1.346970E+0	1.351179E+0	1.411678E+0	1.338197E+0	1.377540E+0	1.357386E+0	1.288093E+0	1.380379E+0	1.357983E+0	1.373497E+0	1.393288E+0	1.373982E+0	1.363101E+0	1.359784E+0	1.295915E+0	1.321185E+0	1.392488E+0	1.340228E+0	1.282961E+0	1.363806E+0	1.391802E+0	1.397348E+0	1.387496E+0	1.328680E+0	1.421221E+0	1.289541E+0	1.339294E+0	1.367961E+0	1.311656E+0	1.407967E+0	1.322581E+0	1.337235E+0	1.374017E+0	1.305308E+0	1.279036E+0	1.423691E+0	1.344021E+0	1.332523E+0	1.343444E+0	1.343250E+0	1.383344E+0	1.357154E+0	1.322442E+0	1.353623E+0	1.405746E+0	1.396480E+0	1.397446E+0	1.339881E+0	1.337152E+0	1.364303E+0	1.350676E+0	1.388367E+0	1.362117E+0	1.326597E+0	1.365592E+0	1.337581E+0	1.374808E+0	1.363665E+0	1.356616E+0	1.315401E+0	1.306696E+0	1.348085E+0	1.378500E+0	1.348063E+0	1.340326E+0	1.332252E+0	1.334597E+0	1.364574E+0	1.343719E+0	1.384548E+0	1.320547E+0	1.414303E+0	1.344858E+0	1.286660E+0	1.370810E+0	1.351999E+0	1.369571E+0	1.373931E+0	1.334274E+0	1.329707E+0	1.275060E+0	1.440118E+0	1.356401E+0	1.312650E+0	1.420351E+0	1.331326E+0	1.271686E+0	1.301702E+0	1.403262E+0	1.386390E+0	1.320988E+0	1.377199E+0	1.394100E+0	1.288686E+0	1.360928E+0	1.352520E+0	1.318535E+0	1.371588E+0	1.309043E+0
5.460060E+2	1.279194E+0	1.274311E+0	1.297317E+0	1.273517E+0	1.237432E+0	1.288339E+0	1.227400E+0	1.249558E+0	1.291776E+0	1.355693E+0	1.332086E+0	1.330716E+0	1.291876E+0	1.302884E+0	1.277020E+0	1.324925E+0	1.332612E+0	1.237260E+0	1.380540E+0	1.286964E+0	1.310801E+0	1.295048E+0	1.314972E+0	1.307401E+0	1.293019E+0	1.252041E+0	1.244401E+0	1.311261E+0	1.358195E+0	1.266253E+0	1.328685E+0	1.342254E+0	1.266561E+0	1.277210E+0	1.308551E+0	1.275646E+0	1.301884E+0	1.278180E+0	1.231431E+0	1.307160E+0	1.324405E+0	1.308513E+0	1.256136E+0	1.347291E+0	1.293912E+0	1.265740E+0	1.219857E+0	1.287128E+0	1.318446E+0	1.334154E+0	1.272686E+0	1.352478E+0	1.304778E+0	1.235419E+0	1.340240E+0	1.322689E+0	1.315940E+0	1.330666E+0	1.248088E+0	1.282980E+0	1.397147E+0	1.283824E+0	1.277184E+0	1.312923E+0	1.318565E+0	1.351829E+0	1.291197E+0	1.271648E+0	1.316611E+0	1.275842E+0	1.286714E+0	1.293973E+0	1.233111E+0	1.268054E+0	1.309357E+0	1.368327E+0	1.302046E+0	1.310025E+0	1.271392E+0	1.283929E+0	1.334094E+0	1.287813E+0	1.289060E+0	1.303465E+0	1.370070E+0	1.266369E+0	1.236944E+0	1.279942E+0	1.270769E+0	1.290702E+0	1.304145E+0	1.309166E+0	1.302744E+0	1.272053E+0	1.336053E+0	1.300988E+0	1.272535E+0	1.304329E+0	1.238196E+0	1.331436E+0	1.283703E+0	1.211347E+0	1.254723E+0	1.337421E+0	1.243071E+0	1.242976E+0	1.281853E+0	1.368786E+0	1.256934E+0	1.264815E+0	1.278731E+0	1.301150E+0	1.292245E+0	1.246186E+0	1.205823E+0	1.301268E+0	1.292511E+0	1.300987E+0	1.346432E+0	1.323728E+0	1.277098E+0	1.305304E+0	1.296357E+0	1.306693E+0	1.317710E+0	1.252681E+0	1.272521E+0	1.310175E+0	1.271541E+0	1.239836E+0	1.291579E+0	1.283079E+0	1.265172E+0	1.287789E+0	1.304757E+0	1.302074E+0	1.342993E+0	1.199755E+0	1.248049E+0	1.257372E+0	1.273933E+0	1.233865E+0	1.297164E+0	1.303637E+0	1.297055E+0	1.308477E+0	1.200261E+0	1.260023E+0	1.245359E+0	1.206165E+0	1.236128E+0	1.347589E+0	1.234323E+0	1.279657E+0	1.320145E+0	1.325488E+0	1.267332E+0	1.291597E+0	1.292234E+0	1.281146E+0	1.264039E+0	1.341995E+0	1.289298E+0	1.315602E+0	1.213311E+0	1.319322E+0
5.467600E+2	1.313564E+0	1.303428E+0	1.267832E+0	1.273752E+0	1.235341E+0	1.303906E+0	1.214836E+0	1.266330E+0	1.239878E+0	1.293762E+0	1.266859E+0	1.239885E+0	1.252293E+0	1.269970E+0	1.272448E+0	1.216692E+0	1.319026E+0	1.257278E+0	1.289078E+0	1.314664E+0	1.242393E+0	1.280584E+0	1.240186E+0	1.275005E+0	1.239332E+0	1.224102E+0	1.261277E+0	1.285369E+0	1.284006E+0	1.228260E+0	1.247778E+0	1.275316E+0	1.262745E+0	1.267381E+0	1.187170E+0	1.242576E+0	1.269016E+0	1.215302E+0	1.162149E+0	1.271373E+0	1.235966E+0	1.222516E+0	1.222369E+0	1.335828E+0	1.281897E+0	1.256403E+0	1.282684E+0	1.238663E+0	1.253645E+0	1.255949E+0	1.231366E+0	1.282234E+0	1.295811E+0	1.205520E+0	1.243557E+0	1.254811E+0	1.289381E+0	1.252359E+0	1.231264E+0	1.307371E+0	1.270472E+0	1.234093E+0	1.302839E+0	1.312112E+0	1.267716E+0	1.246166E+0	1.233693E+0	1.236221E+0	1.302954E+0	1.327070E+0	1.273006E+0	1.329009E+0	1.267962E+0	1.216377E+0	1.250908E+0	1.284371E+0	1.252868E+0	1.243506E+0	1.266256E+0	1.255064E+0	1.280867E+0	1.211840E+0	1.271275E+0	1.216269E+0	1.278681E+0	1.235812E+0	1.329901E+0	1.293638E+0	1.223898E+0	1.271934E+0	1.271522E+0	1.258588E+0	1.291325E+0	1.239534E+0	1.225009E+0	1.261306E+0	1.280575E+0	1.271987E+0	1.206807E+0	1.238481E+0	1.275462E+0	1.215907E+0	1.278668E+0	1.253795E+0	1.263891E+0	1.213767E+0	1.222178E+0	1.245994E+0	1.267021E+0	1.198167E+0	1.250907E+0	1.241503E+0	1.269254E+0	1.282768E+0	1.257936E+0	1.274351E+0	1.262097E+0	1.241763E+0	1.248415E+0	1.257759E+0	1.246126E+0	1.235216E+0	1.237171E+0	1.244385E+0	1.267558E+0	1.206782E+0	1.313697E+0	1.253965E+0	1.260750E+0	1.197594E+0	1.268535E+0	1.267004E+0	1.237878E+0	1.278173E+0	1.261043E+0	1.240257E+0	1.241051E+0	1.261020E+0	1.236823E+0	1.259478E+0	1.291807E+0	1.275383E+0	1.243120E+0	1.280843E+0	1.284594E+0	1.241813E+0	1.187268E+0	1.184198E+0	1.307163E+0	1.277446E+0	1.213054E+0	1.313963E+0	1.215202E+0	1.249960E+0	1.209202E+0	1.270240E+0	1.271100E+0	1.183319E+0	1.260103E+0	1.259535E+0	1.228154E+0	1.250666E+0	1.232602E+0	1.195341E+0	1.293376E+0	1.178603E+0
5.475280E+2	1.359365E+0	1.299113E+0	1.296171E+0	1.303520E+0	1.323084E+0	1.311941E+0	1.289544E+0	1.309294E+0	1.321852E+0	1.394844E+0	1.322064E+0	1.307193E+0	1.330548E+0	1.278455E+0	1.384364E+0	1.372960E+0	1.364538E+0	1.333598E+0	1.376349E+0	1.262337E+0	1.301351E+0	1.356304E+0	1.235124E+0	1.342083E+0	1.306998E+0	1.308439E+0	1.303647E+0	1.299100E+0	1.322943E+0	1.323466E+0	1.357698E+0	1.269314E+0	1.368599E+0	1.325473E+0	1.348836E+0	1.281495E+0	1.266448E+0	1.292095E+0	1.274810E+0	1.339714E+0	1.323327E+0	1.239662E+0	1.332475E+0	1.327565E+0	1.356076E+0	1.313192E+0	1.362078E+0	1.324370E+0	1.349806E+0	1.238211E+0	1.299689E+0	1.309116E+0	1.320062E+0	1.311230E+0	1.322105E+0	1.391635E+0	1.370091E+0	1.313841E+0	1.363549E+0	1.331507E+0	1.339735E+0	1.298671E+0	1.342368E+0	1.308911E+0	1.313826E+0	1.345411E+0	1.307182E+0	1.251694E+0	1.315995E+0	1.309132E+0	1.303584E+0	1.288162E+0	1.357718E+0	1.248738E+0	1.282698E+0	1.297652E+0	1.336186E+0	1.324260E+0	1.285876E+0	1.297165E+0	1.364686E+0	1.306967E+0	1.319109E+0	1.281014E+0	1.319254E+0	1.301533E+0	1.295723E+0	1.294822E+0	1.316347E+0	1.381325E+0	1.294447E+0	1.315206E+0	1.317429E+0	1.274368E+0	1.304571E+0	1.347729E+0	1.328787E+0	1.279112E+0	1.276002E+0	1.328677E+0	1.367932E+0	1.273538E+0	1.325256E+0	1.339348E+0	1.318051E+0	1.292133E+0	1.332232E+0	1.247421E+0	1.332603E+0	1.322126E+0	1.313402E+0	1.333985E+0	1.310636E+0	1.289286E+0	1.357392E+0	1.293332E+0	1.349394E+0	1.331514E+0	1.378894E+0	1.315511E+0	1.282742E+0	1.319303E+0	1.357574E+0	1.293223E+0	1.345023E+0	1.275605E+0	1.333511E+0	1.359268E+0	1.279722E+0	1.295222E+0	1.303487E+0	1.274234E+0	1.337127E+0	1.290402E+0	1.302929E+0	1.343470E+0	1.323227E+0	1.297044E+0	1.309378E+0	1.320348E+0	1.331422E+0	1.320830E+0	1.356061E+0	1.304251E+0	1.363583E+0	1.340453E+0	1.316771E+0	1.339669E+0	1.363412E+0	1.333992E+0	1.245245E+0	1.365937E+0	1.353781E+0	1.307446E+0	1.347110E+0	1.293192E+0	1.334803E+0	1.294009E+0	1.281702E+0	1.313736E+0	1.332886E+0	1.292994E+0	1.335904E+0	1.312353E+0	1.258093E+0	1.194377E+0
5.482600E+2	1.413903E+0	1.419372E+0	1.410108E+0	1.417391E+0	1.332515E+0	1.426614E+0	1.379845E+0	1.328976E+0	1.414320E+0	1.451405E+0	1.468189E+0	1.430411E+0	1.435487E+0	1.462002E+0	1.450197E+0	1.507800E+0	1.394586E+0	1.418604E+0	1.460808E+0	1.380376E+0	1.425098E+0	1.455939E+0	1.409097E+0	1.401000E+0	1.410207E+0	1.451607E+0	1.401694E+0	1.422889E+0	1.398225E+0	1.388338E+0	1.415951E+0	1.347559E+0	1.494321E+0	1.413974E+0	1.428782E+0	1.421748E+0	1.490932E+0	1.301645E+0	1.368430E+0	1.435654E+0	1.349054E+0	1.407750E+0	1.384455E+0	1.421382E+0	1.445681E+0	1.407700E+0	1.362930E+0	1.467253E+0	1.476536E+0	1.383295E+0	1.426276E+0	1.476719E+0	1.410473E+0	1.359675E+0	1.443353E+0	1.429658E+0	1.442805E+0	1.439602E+0	1.381940E+0	1.411163E+0	1.477445E+0	1.368842E+0	1.414777E+0	1.448216E+0	1.453565E+0	1.424574E+0	1.404417E+0	1.456070E+0	1.446311E+0	1.431924E+0	1.391552E+0	1.407116E+0	1.413778E+0	1.425610E+0	1.359276E+0	1.376251E+0	1.423640E+0	1.425268E+0	1.444188E+0	1.443385E+0	1.442173E+0	1.409341E+0	1.453838E+0	1.384933E+0	1.408950E+0	1.345451E+0	1.344949E+0	1.430435E+0	1.409363E+0	1.472906E+0	1.402999E+0	1.443217E+0	1.411459E+0	1.350487E+0	1.383169E+0	1.370305E+0	1.477467E+0	1.378465E+0	1.396632E+0	1.430009E+0	1.383012E+0	1.374304E+0	1.393440E+0	1.403793E+0	1.390438E+0	1.430636E+0	1.370370E+0	1.419201E+0	1.384374E+0	1.408464E+0	1.359191E+0	1.371961E+0	1.375133E+0	1.403436E+0	1.396610E+0	1.304996E+0	1.437429E+0	1.436553E+0	1.431011E+0	1.386075E+0	1.440969E+0	1.363146E+0	1.394308E+0	1.394265E+0	1.403979E+0	1.387132E+0	1.410640E+0	1.426744E+0	1.455181E+0	1.443659E+0	1.416232E+0	1.399322E+0	1.405808E+0	1.387591E+0	1.378389E+0	1.350189E+0	1.413051E+0	1.333034E+0	1.397702E+0	1.420328E+0	1.496183E+0	1.382685E+0	1.470479E+0	1.409653E+0	1.480257E+0	1.379044E+0	1.434222E+0	1.402775E+0	1.424779E+0	1.417824E+0	1.404656E+0	1.473494E+0	1.437107E+0	1.354247E+0	1.412616E+0	1.341598E+0	1.396726E+0	1.394785E+0	1.369958E+0	1.398967E+0	1.465190E+0	1.410208E+0	1.363777E+0	1.397861E+0	1.313832E+0	1.330077E+0
5.490100E+2	1.394392E+0	1.352628E+0	1.375802E+0	1.423648E+0	1.385406E+0	1.347687E+0	1.359137E+0	1.364607E+0	1.370190E+0	1.368628E+0	1.418004E+0	1.356513E+0	1.399687E+0	1.369960E+0	1.380154E+0	1.385899E+0	1.356279E+0	1.421371E+0	1.417873E+0	1.340159E+0	1.303824E+0	1.361489E+0	1.332494E+0	1.368942E+0	1.401524E+0	1.329294E+0	1.377828E+0	1.380814E+0	1.446388E+0	1.371934E+0	1.331815E+0	1.313686E+0	1.403429E+0	1.359098E+0	1.286761E+0	1.304392E+0	1.415461E+0	1.265637E+0	1.351533E+0	1.370286E+0	1.330603E+0	1.321849E+0	1.408395E+0	1.369438E+0	1.402767E+0	1.373058E+0	1.336797E+0	1.343601E+0	1.378638E+0	1.442187E+0	1.355475E+0	1.339271E+0	1.377688E+0	1.360188E+0	1.358036E+0	1.374155E+0	1.399770E+0	1.328275E+0	1.371435E+0	1.355448E+0	1.404728E+0	1.282468E+0	1.357963E+0	1.351678E+0	1.350883E+0	1.327859E+0	1.340925E+0	1.371660E+0	1.342502E+0	1.360388E+0	1.352501E+0	1.404736E+0	1.366780E+0	1.307098E+0	1.365070E+0	1.396552E+0	1.373810E+0	1.380403E+0	1.402914E+0	1.329334E+0	1.360734E+0	1.369422E+0	1.364506E+0	1.328871E+0	1.367768E+0	1.281483E+0	1.397220E+0	1.405282E+0	1.300662E+0	1.311939E+0	1.302788E+0	1.398247E+0	1.359384E+0	1.374148E+0	1.380416E+0	1.316647E+0	1.403508E+0	1.311980E+0	1.338478E+0	1.368306E+0	1.378201E+0	1.329888E+0	1.359110E+0	1.366601E+0	1.373547E+0	1.385790E+0	1.315664E+0	1.288965E+0	1.368847E+0	1.304002E+0	1.329440E+0	1.321138E+0	1.380572E+0	1.281558E+0	1.346180E+0	1.304747E+0	1.393145E+0	1.388694E+0	1.397761E+0	1.271630E+0	1.380591E+0	1.392024E+0	1.357471E+0	1.306315E+0	1.383143E+0	1.361495E+0	1.314502E+0	1.357533E+0	1.301350E+0	1.387003E+0	1.337559E+0	1.322323E+0	1.352288E+0	1.352135E+0	1.386550E+0	1.346596E+0	1.397143E+0	1.406578E+0	1.293342E+0	1.396469E+0	1.414191E+0	1.319174E+0	1.353340E+0	1.388820E+0	1.393484E+0	1.304437E+0	1.334707E+0	1.355050E+0	1.365476E+0	1.336976E+0	1.319434E+0	1.383824E+0	1.402926E+0	1.361688E+0	1.354532E+0	1.343953E+0	1.319931E+0	1.380450E+0	1.317755E+0	1.400105E+0	1.333976E+0	1.393422E+0	1.329492E+0	1.380518E+0	1.365836E+0	1.309062E+0
5.497520E+2	1.268067E+0	1.232660E+0	1.353352E+0	1.278373E+0	1.284501E+0	1.300850E+0	1.286852E+0	1.285499E+0	1.289966E+0	1.308771E+0	1.313210E+0	1.256577E+0	1.303512E+0	1.341135E+0	1.325482E+0	1.269543E+0	1.303043E+0	1.311841E+0	1.338304E+0	1.261742E+0	1.352829E+0	1.260401E+0	1.286604E+0	1.261696E+0	1.318843E+0	1.247465E+0	1.282751E+0	1.251804E+0	1.315341E+0	1.286501E+0	1.294355E+0	1.276317E+0	1.294653E+0	1.285503E+0	1.219622E+0	1.301629E+0	1.275161E+0	1.273294E+0	1.229528E+0	1.264472E+0	1.247233E+0	1.198614E+0	1.322208E+0	1.282722E+0	1.341758E+0	1.271235E+0	1.252135E+0	1.266303E+0	1.367015E+0	1.221608E+0	1.321171E+0	1.300112E+0	1.316971E+0	1.288404E+0	1.305221E+0	1.293265E+0	1.295129E+0	1.226243E+0	1.284678E+0	1.314681E+0	1.259176E+0	1.288268E+0	1.288044E+0	1.300627E+0	1.312215E+0	1.295416E+0	1.287188E+0	1.286698E+0	1.271394E+0	1.312889E+0	1.310079E+0	1.288469E+0	1.272112E+0	1.286189E+0	1.218834E+0	1.363361E+0	1.275538E+0	1.302926E+0	1.270614E+0	1.277084E+0	1.311331E+0	1.295016E+0	1.292114E+0	1.270804E+0	1.361949E+0	1.226387E+0	1.225517E+0	1.260295E+0	1.321962E+0	1.271243E+0	1.252194E+0	1.307924E+0	1.284459E+0	1.296959E+0	1.274555E+0	1.251766E+0	1.370896E+0	1.241803E+0	1.289716E+0	1.223898E+0	1.311352E+0	1.266399E+0	1.283180E+0	1.247133E+0	1.328466E+0	1.295626E+0	1.333746E+0	1.312279E+0	1.271543E+0	1.291367E+0	1.218576E+0	1.264062E+0	1.359666E+0	1.229176E+0	1.321200E+0	1.178566E+0	1.289780E+0	1.274380E+0	1.295949E+0	1.258843E+0	1.266637E+0	1.294922E+0	1.256355E+0	1.242426E+0	1.319642E+0	1.237042E+0	1.299954E+0	1.231676E+0	1.283923E+0	1.253219E+0	1.282013E+0	1.228891E+0	1.266800E+0	1.275541E+0	1.319875E+0	1.337152E+0	1.302332E+0	1.305649E+0	1.301578E+0	1.243177E+0	1.286453E+0	1.209251E+0	1.272432E+0	1.267809E+0	1.311032E+0	1.264731E+0	1.321605E+0	1.299246E+0	1.245120E+0	1.272669E+0	1.315326E+0	1.295684E+0	1.332232E+0	1.331587E+0	1.242018E+0	1.288157E+0	1.262807E+0	1.293530E+0	1.308713E+0	1.269332E+0	1.252291E+0	1.290208E+0	1.274309E+0	1.237238E+0	1.240235E+0	1.252996E+0
5.505110E+2	1.290149E+0	1.267857E+0	1.326866E+0	1.270370E+0	1.284047E+0	1.314936E+0	1.305238E+0	1.265890E+0	1.331104E+0	1.335911E+0	1.313569E+0	1.350629E+0	1.337885E+0	1.299897E+0	1.304701E+0	1.377976E+0	1.416693E+0	1.298312E+0	1.291728E+0	1.287824E+0	1.330183E+0	1.357947E+0	1.328608E+0	1.321208E+0	1.400924E+0	1.268515E+0	1.308875E+0	1.322986E+0	1.351712E+0	1.241745E+0	1.315959E+0	1.305880E+0	1.360935E+0	1.306958E+0	1.269449E+0	1.266984E+0	1.314962E+0	1.282173E+0	1.302467E+0	1.334029E+0	1.343713E+0	1.333663E+0	1.291676E+0	1.322878E+0	1.328176E+0	1.298742E+0	1.353409E+0	1.222543E+0	1.285572E+0	1.285446E+0	1.330912E+0	1.363026E+0	1.318139E+0	1.297149E+0	1.317425E+0	1.291936E+0	1.321286E+0	1.313066E+0	1.312158E+0	1.309239E+0	1.346208E+0	1.242781E+0	1.327309E+0	1.305799E+0	1.361228E+0	1.343029E+0	1.321812E+0	1.287034E+0	1.315804E+0	1.284549E+0	1.301881E+0	1.247051E+0	1.338931E+0	1.260046E+0	1.266433E+0	1.316048E+0	1.380580E+0	1.235768E+0	1.302658E+0	1.229177E+0	1.285777E+0	1.259749E+0	1.315752E+0	1.279821E+0	1.221936E+0	1.275270E+0	1.293890E+0	1.355998E+0	1.298178E+0	1.335671E+0	1.355833E+0	1.281190E+0	1.369754E+0	1.290294E+0	1.305601E+0	1.273743E+0	1.323440E+0	1.288504E+0	1.317031E+0	1.312911E+0	1.315418E+0	1.343493E+0	1.303421E+0	1.326495E+0	1.288655E+0	1.325364E+0	1.363248E+0	1.301501E+0	1.271388E+0	1.302822E+0	1.280498E+0	1.249829E+0	1.309188E+0	1.281363E+0	1.358025E+0	1.282946E+0	1.303995E+0	1.246621E+0	1.245134E+0	1.288253E+0	1.300384E+0	1.225316E+0	1.247899E+0	1.236795E+0	1.346229E+0	1.302356E+0	1.280736E+0	1.321793E+0	1.287324E+0	1.363287E+0	1.326825E+0	1.225791E+0	1.293975E+0	1.333919E+0	1.384031E+0	1.289169E+0	1.301001E+0	1.250858E+0	1.327351E+0	1.269423E+0	1.330936E+0	1.283269E+0	1.300808E+0	1.341610E+0	1.279713E+0	1.279482E+0	1.270964E+0	1.304735E+0	1.290836E+0	1.331085E+0	1.298433E+0	1.341943E+0	1.320461E+0	1.294458E+0	1.263521E+0	1.252558E+0	1.331766E+0	1.268139E+0	1.288728E+0	1.254765E+0	1.341524E+0	1.378643E+0	1.352314E+0	1.365325E+0	1.312407E+0	1.324513E+0
5.512570E+2	1.278952E+0	1.338276E+0	1.278816E+0	1.282527E+0	1.314472E+0	1.310963E+0	1.264819E+0	1.292200E+0	1.353787E+0	1.315706E+0	1.306243E+0	1.341969E+0	1.366585E+0	1.329877E+0	1.373510E+0	1.329956E+0	1.377859E+0	1.357319E+0	1.314090E+0	1.258948E+0	1.278943E+0	1.313699E+0	1.337293E+0	1.365742E+0	1.299988E+0	1.345900E+0	1.313560E+0	1.342981E+0	1.376940E+0	1.238084E+0	1.360587E+0	1.320548E+0	1.387828E+0	1.356147E+0	1.277767E+0	1.313045E+0	1.357214E+0	1.327969E+0	1.314644E+0	1.344567E+0	1.269793E+0	1.286552E+0	1.273746E+0	1.373375E+0	1.325822E+0	1.312780E+0	1.292155E+0	1.299255E+0	1.359611E+0	1.318028E+0	1.309551E+0	1.333528E+0	1.282595E+0	1.321942E+0	1.318790E+0	1.292908E+0	1.329042E+0	1.297123E+0	1.313103E+0	1.299535E+0	1.399256E+0	1.290055E+0	1.303175E+0	1.372165E+0	1.321682E+0	1.317149E+0	1.270663E+0	1.326584E+0	1.324806E+0	1.295023E+0	1.284643E+0	1.349636E+0	1.334365E+0	1.269566E+0	1.318885E+0	1.281033E+0	1.311325E+0	1.317280E+0	1.346500E+0	1.326332E+0	1.347330E+0	1.301439E+0	1.297232E+0	1.303401E+0	1.301610E+0	1.265678E+0	1.279566E+0	1.356305E+0	1.354045E+0	1.285824E+0	1.262163E+0	1.287966E+0	1.319019E+0	1.289506E+0	1.269959E+0	1.246709E+0	1.349401E+0	1.276633E+0	1.293006E+0	1.253853E+0	1.352378E+0	1.329824E+0	1.397983E+0	1.257172E+0	1.320274E+0	1.353611E+0	1.257752E+0	1.320623E+0	1.341571E+0	1.303587E+0	1.395322E+0	1.362890E+0	1.348285E+0	1.317030E+0	1.294691E+0	1.302721E+0	1.304797E+0	1.286575E+0	1.280000E+0	1.297652E+0	1.317837E+0	1.254710E+0	1.317055E+0	1.315265E+0	1.293357E+0	1.246404E+0	1.327554E+0	1.355171E+0	1.266252E+0	1.301446E+0	1.292638E+0	1.299944E+0	1.296872E+0	1.325355E+0	1.294463E+0	1.260969E+0	1.321832E+0	1.298652E+0	1.265125E+0	1.299136E+0	1.294735E+0	1.278891E+0	1.334014E+0	1.290424E+0	1.311636E+0	1.281895E+0	1.343801E+0	1.279893E+0	1.357029E+0	1.296779E+0	1.281157E+0	1.344616E+0	1.366804E+0	1.381869E+0	1.304471E+0	1.294464E+0	1.285745E+0	1.318494E+0	1.306375E+0	1.278926E+0	1.283295E+0	1.390013E+0	1.286827E+0	1.273213E+0	1.274917E+0	1.302958E+0
5.520150E+2	1.217174E+0	1.249385E+0	1.247705E+0	1.268194E+0	1.225422E+0	1.212744E+0	1.223061E+0	1.166108E+0	1.254929E+0	1.346286E+0	1.324406E+0	1.265097E+0	1.247510E+0	1.299161E+0	1.226074E+0	1.289589E+0	1.310348E+0	1.258375E+0	1.269507E+0	1.215747E+0	1.225749E+0	1.297177E+0	1.254676E+0	1.261127E+0	1.260268E+0	1.257687E+0	1.213582E+0	1.290735E+0	1.237104E+0	1.268549E+0	1.278123E+0	1.220757E+0	1.290875E+0	1.237441E+0	1.251808E+0	1.213383E+0	1.258825E+0	1.236039E+0	1.257699E+0	1.231465E+0	1.255815E+0	1.265583E+0	1.240324E+0	1.212755E+0	1.276497E+0	1.255623E+0	1.234106E+0	1.232533E+0	1.286823E+0	1.289144E+0	1.269629E+0	1.280077E+0	1.355427E+0	1.174507E+0	1.240785E+0	1.325773E+0	1.316128E+0	1.266025E+0	1.216296E+0	1.304559E+0	1.256450E+0	1.176972E+0	1.286385E+0	1.249934E+0	1.267470E+0	1.255082E+0	1.314347E+0	1.271696E+0	1.242613E+0	1.267877E+0	1.165897E+0	1.271201E+0	1.224220E+0	1.253612E+0	1.217208E+0	1.263439E+0	1.292218E+0	1.231231E+0	1.230564E+0	1.189824E+0	1.280406E+0	1.253110E+0	1.215817E+0	1.292122E+0	1.213632E+0	1.243959E+0	1.239133E+0	1.257617E+0	1.246964E+0	1.262889E+0	1.233678E+0	1.290460E+0	1.312113E+0	1.229026E+0	1.247936E+0	1.228348E+0	1.280378E+0	1.240643E+0	1.243103E+0	1.241937E+0	1.266779E+0	1.220258E+0	1.289671E+0	1.261091E+0	1.235820E+0	1.229931E+0	1.241319E+0	1.268728E+0	1.263747E+0	1.269392E+0	1.269978E+0	1.266493E+0	1.216349E+0	1.281584E+0	1.219430E+0	1.222992E+0	1.228576E+0	1.242347E+0	1.207930E+0	1.225508E+0	1.266973E+0	1.167835E+0	1.231134E+0	1.249371E+0	1.247153E+0	1.225824E+0	1.241385E+0	1.265095E+0	1.213510E+0	1.247650E+0	1.203700E+0	1.210966E+0	1.305185E+0	1.284774E+0	1.252834E+0	1.300806E+0	1.251610E+0	1.182252E+0	1.216593E+0	1.237436E+0	1.199437E+0	1.274920E+0	1.274786E+0	1.246484E+0	1.273974E+0	1.234662E+0	1.224142E+0	1.230715E+0	1.245182E+0	1.266657E+0	1.238299E+0	1.301145E+0	1.243644E+0	1.295668E+0	1.203082E+0	1.208534E+0	1.249247E+0	1.196877E+0	1.258990E+0	1.214723E+0	1.276432E+0	1.269343E+0	1.211045E+0	1.221504E+0	1.241351E+0	1.289042E+0
5.527700E+2	1.418035E+0	1.302345E+0	1.293394E+0	1.355555E+0	1.252214E+0	1.349593E+0	1.340031E+0	1.358506E+0	1.331005E+0	1.369307E+0	1.325518E+0	1.349680E+0	1.349749E+0	1.279632E+0	1.289343E+0	1.324010E+0	1.359941E+0	1.310265E+0	1.340856E+0	1.342596E+0	1.342857E+0	1.355196E+0	1.319866E+0	1.320894E+0	1.346557E+0	1.351238E+0	1.330920E+0	1.357413E+0	1.369098E+0	1.292359E+0	1.319685E+0	1.349746E+0	1.343288E+0	1.342941E+0	1.353054E+0	1.320031E+0	1.385156E+0	1.327008E+0	1.284445E+0	1.346042E+0	1.332333E+0	1.321296E+0	1.288515E+0	1.362605E+0	1.340840E+0	1.257102E+0	1.322893E+0	1.338093E+0	1.425011E+0	1.331407E+0	1.267055E+0	1.337238E+0	1.332432E+0	1.280348E+0	1.280918E+0	1.324921E+0	1.399910E+0	1.350916E+0	1.316449E+0	1.382057E+0	1.313966E+0	1.355106E+0	1.345275E+0	1.322806E+0	1.317848E+0	1.322971E+0	1.357193E+0	1.337479E+0	1.289801E+0	1.360163E+0	1.309890E+0	1.296580E+0	1.334650E+0	1.315911E+0	1.266299E+0	1.368592E+0	1.332142E+0	1.280424E+0	1.355180E+0	1.334883E+0	1.270112E+0	1.334959E+0	1.292355E+0	1.361506E+0	1.377601E+0	1.263875E+0	1.323738E+0	1.305714E+0	1.343116E+0	1.363341E+0	1.336264E+0	1.324547E+0	1.290648E+0	1.285706E+0	1.301482E+0	1.257637E+0	1.268529E+0	1.273054E+0	1.371134E+0	1.342892E+0	1.303054E+0	1.292005E+0	1.296946E+0	1.298980E+0	1.329612E+0	1.250893E+0	1.289926E+0	1.276971E+0	1.339573E+0	1.301983E+0	1.324901E+0	1.283159E+0	1.343905E+0	1.295353E+0	1.335983E+0	1.250912E+0	1.375283E+0	1.332334E+0	1.342568E+0	1.367335E+0	1.351727E+0	1.256003E+0	1.336798E+0	1.346748E+0	1.314753E+0	1.317499E+0	1.331782E+0	1.291885E+0	1.291430E+0	1.316962E+0	1.287470E+0	1.311923E+0	1.371927E+0	1.316944E+0	1.361550E+0	1.342794E+0	1.393032E+0	1.313031E+0	1.255868E+0	1.337186E+0	1.363000E+0	1.299642E+0	1.409505E+0	1.341884E+0	1.312901E+0	1.277089E+0	1.287436E+0	1.292511E+0	1.346822E+0	1.375976E+0	1.240134E+0	1.326234E+0	1.330783E+0	1.336839E+0	1.321795E+0	1.315363E+0	1.320646E+0	1.334450E+0	1.281043E+0	1.329774E+0	1.332847E+0	1.293178E+0	1.290414E+0	1.248591E+0	1.213777E+0	1.243314E+0
5.535330E+2	1.299857E+0	1.266646E+0	1.242578E+0	1.349589E+0	1.341256E+0	1.238085E+0	1.240397E+0	1.228605E+0	1.288280E+0	1.248953E+0	1.285737E+0	1.203277E+0	1.259705E+0	1.272369E+0	1.301594E+0	1.312297E+0	1.309659E+0	1.235999E+0	1.322017E+0	1.227547E+0	1.259109E+0	1.275717E+0	1.273433E+0	1.280591E+0	1.323092E+0	1.263747E+0	1.280264E+0	1.263664E+0	1.293059E+0	1.226237E+0	1.247933E+0	1.297428E+0	1.268212E+0	1.227679E+0	1.249931E+0	1.248350E+0	1.255744E+0	1.236723E+0	1.232719E+0	1.265455E+0	1.253213E+0	1.243049E+0	1.244443E+0	1.246195E+0	1.275610E+0	1.220636E+0	1.273043E+0	1.265744E+0	1.297986E+0	1.297133E+0	1.276446E+0	1.315192E+0	1.253213E+0	1.282801E+0	1.290910E+0	1.260135E+0	1.251642E+0	1.338945E+0	1.263411E+0	1.268302E+0	1.339871E+0	1.233553E+0	1.268870E+0	1.253308E+0	1.237062E+0	1.242352E+0	1.225067E+0	1.242454E+0	1.301666E+0	1.305359E+0	1.308500E+0	1.265616E+0	1.307332E+0	1.289506E+0	1.228838E+0	1.271072E+0	1.291968E+0	1.276946E+0	1.240655E+0	1.280763E+0	1.267356E+0	1.245295E+0	1.225957E+0	1.311524E+0	1.302207E+0	1.284616E+0	1.268561E+0	1.311012E+0	1.292533E+0	1.269733E+0	1.240701E+0	1.267947E+0	1.254043E+0	1.233857E+0	1.274956E+0	1.281822E+0	1.299338E+0	1.263306E+0	1.230410E+0	1.220794E+0	1.274718E+0	1.273880E+0	1.233849E+0	1.257740E+0	1.299234E+0	1.258593E+0	1.367527E+0	1.257385E+0	1.287768E+0	1.216653E+0	1.262472E+0	1.279895E+0	1.317748E+0	1.304231E+0	1.224618E+0	1.234797E+0	1.286762E+0	1.290030E+0	1.266403E+0	1.212245E+0	1.304977E+0	1.239465E+0	1.241304E+0	1.188267E+0	1.298921E+0	1.262945E+0	1.281459E+0	1.272796E+0	1.255065E+0	1.244896E+0	1.288752E+0	1.338435E+0	1.322495E+0	1.246042E+0	1.249851E+0	1.255951E+0	1.250431E+0	1.241964E+0	1.377979E+0	1.233576E+0	1.322645E+0	1.226474E+0	1.244331E+0	1.295430E+0	1.296086E+0	1.301385E+0	1.294885E+0	1.238189E+0	1.275681E+0	1.242564E+0	1.241987E+0	1.238042E+0	1.250564E+0	1.242265E+0	1.220839E+0	1.207268E+0	1.291723E+0	1.205776E+0	1.265903E+0	1.238271E+0	1.239407E+0	1.299326E+0	1.280405E+0	1.159869E+0	1.203359E+0	1.206096E+0
5.542700E+2	1.205901E+0	1.174036E+0	1.169177E+0	1.214350E+0	1.191357E+0	1.224296E+0	1.165894E+0	1.170497E+0	1.274315E+0	1.252557E+0	1.168249E+0	1.237067E+0	1.225459E+0	1.136919E+0	1.266295E+0	1.256302E+0	1.232189E+0	1.177552E+0	1.282281E+0	1.245163E+0	1.202834E+0	1.219202E+0	1.241179E+0	1.177165E+0	1.207892E+0	1.184019E+0	1.164386E+0	1.244424E+0	1.195629E+0	1.135284E+0	1.175871E+0	1.173665E+0	1.214793E+0	1.178218E+0	1.174350E+0	1.182739E+0	1.269066E+0	1.135826E+0	1.192228E+0	1.172506E+0	1.262400E+0	1.138847E+0	1.167611E+0	1.207781E+0	1.240016E+0	1.232327E+0	1.206798E+0	1.219142E+0	1.190219E+0	1.220076E+0	1.165592E+0	1.171229E+0	1.212624E+0	1.257734E+0	1.205431E+0	1.204597E+0	1.223060E+0	1.240499E+0	1.196872E+0	1.183319E+0	1.209558E+0	1.208984E+0	1.224387E+0	1.174235E+0	1.213284E+0	1.220242E+0	1.217982E+0	1.199524E+0	1.224686E+0	1.274262E+0	1.235037E+0	1.170740E+0	1.243165E+0	1.141230E+0	1.216068E+0	1.190251E+0	1.197000E+0	1.113689E+0	1.200952E+0	1.236190E+0	1.246893E+0	1.193641E+0	1.234144E+0	1.211221E+0	1.193175E+0	1.231798E+0	1.199179E+0	1.216200E+0	1.203603E+0	1.222105E+0	1.224709E+0	1.182276E+0	1.213407E+0	1.195930E+0	1.224283E+0	1.201153E+0	1.168367E+0	1.198271E+0	1.177032E+0	1.202179E+0	1.236610E+0	1.208904E+0	1.156707E+0	1.191232E+0	1.191898E+0	1.206656E+0	1.132157E+0	1.168482E+0	1.218005E+0	1.111183E+0	1.175759E+0	1.220041E+0	1.197475E+0	1.153343E+0	1.185423E+0	1.192566E+0	1.201466E+0	1.259897E+0	1.216783E+0	1.276370E+0	1.171293E+0	1.164975E+0	1.233271E+0	1.213203E+0	1.259263E+0	1.219616E+0	1.211611E+0	1.219301E+0	1.197143E+0	1.170336E+0	1.275891E+0	1.190924E+0	1.200523E+0	1.181726E+0	1.213223E+0	1.180707E+0	1.254396E+0	1.197176E+0	1.144950E+0	1.230675E+0	1.206132E+0	1.207872E+0	1.189683E+0	1.191712E+0	1.196015E+0	1.225914E+0	1.178457E+0	1.217392E+0	1.248265E+0	1.180457E+0	1.149545E+0	1.243261E+0	1.175130E+0	1.199911E+0	1.133957E+0	1.197494E+0	1.240412E+0	1.237003E+0	1.246399E+0	1.153920E+0	1.182998E+0	1.204477E+0	1.209698E+0	1.231084E+0	1.168066E+0	1.281533E+0
5.550310E+2	1.079856E+0	1.104603E+0	1.041247E+0	1.111841E+0	1.120437E+0	1.046918E+0	1.054313E+0	1.053109E+0	1.074985E+0	1.092799E+0	1.130847E+0	1.061151E+0	1.145188E+0	1.095751E+0	1.076735E+0	1.050337E+0	1.084940E+0	1.098562E+0	1.106359E+0	1.080302E+0	1.069244E+0	1.057303E+0	1.072554E+0	1.154673E+0	1.152818E+0	1.124750E+0	1.060413E+0	1.149678E+0	1.083736E+0	1.043096E+0	1.094595E+0	1.054917E+0	1.086004E+0	1.133781E+0	1.029132E+0	1.148210E+0	1.089502E+0	1.015546E+0	1.055464E+0	1.053557E+0	1.075866E+0	1.048233E+0	1.091170E+0	1.093801E+0	1.102407E+0	1.081294E+0	1.076907E+0	1.140344E+0	1.068448E+0	1.060613E+0	1.007933E+0	1.115365E+0	1.149941E+0	1.088649E+0	1.093725E+0	1.114344E+0	1.147690E+0	1.094705E+0	1.073308E+0	1.083801E+0	1.160252E+0	1.056679E+0	1.027608E+0	1.031765E+0	1.105042E+0	1.085200E+0	1.086904E+0	1.050792E+0	1.097274E+0	1.077462E+0	1.037577E+0	1.074245E+0	1.122624E+0	1.052408E+0	1.078532E+0	1.092959E+0	1.112152E+0	1.081822E+0	1.078246E+0	1.105414E+0	1.102240E+0	1.081531E+0	1.110057E+0	1.137536E+0	1.084908E+0	1.128308E+0	1.066159E+0	1.091852E+0	1.106203E+0	1.046617E+0	1.103013E+0	1.050370E+0	1.081012E+0	1.104575E+0	1.111385E+0	1.062076E+0	1.158050E+0	1.077922E+0	1.044156E+0	1.120037E+0	1.125010E+0	9.869736E-1	1.076484E+0	1.121900E+0	1.142047E+0	1.176719E+0	1.086934E+0	1.056107E+0	1.091659E+0	1.042196E+0	1.128198E+0	1.054245E+0	1.075272E+0	1.055933E+0	1.144711E+0	1.041029E+0	1.111683E+0	1.081042E+0	1.085095E+0	1.081901E+0	1.122365E+0	1.061267E+0	1.120475E+0	1.047000E+0	1.053859E+0	1.100260E+0	1.120594E+0	1.111830E+0	1.068866E+0	1.091672E+0	1.052070E+0	1.072057E+0	1.099963E+0	1.050063E+0	1.111472E+0	1.122960E+0	1.101384E+0	1.085558E+0	1.079395E+0	1.098689E+0	1.150316E+0	1.081194E+0	1.141610E+0	1.083588E+0	1.102168E+0	1.018806E+0	1.045544E+0	1.128292E+0	1.114029E+0	1.079663E+0	1.031935E+0	1.092302E+0	1.049331E+0	1.064162E+0	1.074537E+0	1.094720E+0	1.115372E+0	1.073604E+0	1.051257E+0	1.114850E+0	1.159133E+0	1.110239E+0	1.110788E+0	1.087724E+0	1.097979E+0	1.085350E+0
5.557600E+2	9.941284E-1	9.655183E-1	1.031639E+0	1.015835E+0	1.069808E+0	9.821022E-1	1.008344E+0	9.852555E-1	1.029400E+0	1.068150E+0	1.010771E+0	1.050577E+0	1.013648E+0	1.020873E+0	1.024439E+0	1.049250E+0	1.021046E+0	1.017008E+0	1.028939E+0	1.031697E+0	1.031960E+0	9.976322E-1	1.051648E+0	1.020128E+0	1.017239E+0	1.023785E+0	1.010454E+0	1.051930E+0	1.056339E+0	1.053120E+0	1.027207E+0	1.016189E+0	1.005920E+0	1.023747E+0	9.894065E-1	1.066554E+0	1.054862E+0	1.011261E+0	1.023277E+0	1.049745E+0	1.019147E+0	9.920390E-1	9.782332E-1	1.036447E+0	1.037847E+0	1.044548E+0	1.019983E+0	1.020607E+0	1.035517E+0	1.025166E+0	1.035106E+0	1.034006E+0	1.025607E+0	1.001428E+0	1.040907E+0	1.065695E+0	1.070789E+0	1.007471E+0	9.713788E-1	1.054968E+0	1.063716E+0	1.005169E+0	1.048767E+0	1.018364E+0	1.030441E+0	1.054331E+0	1.011921E+0	1.042522E+0	1.020750E+0	1.030006E+0	9.795111E-1	1.007248E+0	1.039711E+0	9.809128E-1	9.892409E-1	1.009490E+0	1.062065E+0	9.968671E-1	1.024841E+0	1.021629E+0	1.051523E+0	9.865164E-1	1.040343E+0	1.036348E+0	1.010372E+0	1.014197E+0	1.043509E+0	1.067055E+0	1.054212E+0	1.057818E+0	1.016373E+0	1.019721E+0	9.992392E-1	9.891917E-1	1.019330E+0	9.969648E-1	1.018982E+0	1.019261E+0	1.049324E+0	1.026564E+0	1.052489E+0	9.816360E-1	1.023864E+0	9.997228E-1	1.042153E+0	1.027829E+0	9.849590E-1	1.053126E+0	1.006355E+0	9.936860E-1	9.773918E-1	1.015342E+0	1.038696E+0	9.664228E-1	1.039628E+0	1.033803E+0	1.028254E+0	1.056863E+0	1.022877E+0	1.000633E+0	1.014398E+0	1.005254E+0	1.088484E+0	9.701620E-1	1.059390E+0	1.068806E+0	1.052106E+0	1.010845E+0	9.870020E-1	9.711243E-1	1.031248E+0	9.978992E-1	1.002148E+0	1.032313E+0	1.064059E+0	9.892687E-1	1.020511E+0	1.005770E+0	1.012579E+0	1.018999E+0	1.060746E+0	1.006547E+0	9.947752E-1	1.047393E+0	1.026965E+0	1.019094E+0	9.982099E-1	9.968097E-1	1.004572E+0	1.012136E+0	9.783228E-1	1.059895E+0	1.043787E+0	1.040704E+0	9.847952E-1	9.802114E-1	9.821527E-1	1.029899E+0	9.936076E-1	1.020726E+0	1.005153E+0	9.633558E-1	1.055989E+0	1.011578E+0	1.013786E+0	1.089336E+0
5.560130E+2	9.895830E-1	9.779615E-1	9.535737E-1	9.792983E-1	9.490351E-1	9.606813E-1	9.574818E-1	9.331540E-1	9.789257E-1	1.024952E+0	1.061875E+0	9.563724E-1	1.016278E+0	9.562632E-1	9.543259E-1	1.008613E+0	9.503243E-1	9.469381E-1	9.620765E-1	9.683280E-1	1.003148E+0	9.921261E-1	9.597285E-1	1.015339E+0	9.862133E-1	9.728541E-1	9.983502E-1	1.023866E+0	1.001047E+0	9.755064E-1	9.812675E-1	9.545296E-1	1.020605E+0	9.452361E-1	9.420465E-1	9.760148E-1	9.683002E-1	9.444831E-1	9.741067E-1	9.635372E-1	9.523907E-1	1.004287E+0	9.123675E-1	1.026714E+0	9.755840E-1	9.764264E-1	9.560799E-1	9.876477E-1	9.339315E-1	9.569428E-1	9.470368E-1	9.647255E-1	9.852538E-1	9.252043E-1	9.678600E-1	9.441671E-1	9.476109E-1	9.923758E-1	9.337748E-1	9.651387E-1	9.600775E-1	9.354343E-1	1.008483E+0	9.899572E-1	9.934617E-1	9.874980E-1	9.077987E-1	9.527092E-1	1.008463E+0	9.813822E-1	1.005814E+0	9.520803E-1	9.661099E-1	9.734060E-1	9.344051E-1	9.679629E-1	9.736422E-1	9.805729E-1	9.710579E-1	9.594084E-1	9.946977E-1	9.798148E-1	1.008103E+0	9.507374E-1	1.000241E+0	9.448528E-1	1.004839E+0	1.024906E+0	1.004083E+0	1.001900E+0	9.921040E-1	9.210128E-1	1.012057E+0	9.302329E-1	9.805593E-1	9.028489E-1	9.722761E-1	9.398070E-1	9.785794E-1	1.025553E+0	9.838521E-1	9.753247E-1	1.009654E+0	9.702256E-1	9.668748E-1	1.001168E+0	9.663021E-1	9.798154E-1	9.701187E-1	9.390925E-1	9.675019E-1	9.648186E-1	1.007449E+0	9.811903E-1	9.631636E-1	9.565262E-1	1.015571E+0	8.952544E-1	9.633064E-1	1.001512E+0	9.656848E-1	9.827294E-1	9.643350E-1	9.868856E-1	9.749988E-1	9.605808E-1	9.954828E-1	9.470556E-1	9.836862E-1	9.880747E-1	9.474859E-1	9.412848E-1	1.003741E+0	9.759517E-1	1.009657E+0	9.616456E-1	1.026270E+0	9.663392E-1	9.720358E-1	1.008947E+0	9.961634E-1	9.417287E-1	9.825526E-1	9.951030E-1	1.006431E+0	9.128091E-1	9.685865E-1	9.746879E-1	9.600127E-1	9.137771E-1	9.804581E-1	9.991987E-1	9.284775E-1	9.627195E-1	9.647727E-1	9.626794E-1	9.771915E-1	9.960107E-1	1.022438E+0	9.378443E-1	9.465189E-1	9.510332E-1	1.006541E+0	9.337921E-1	9.500099E-1	9.176400E-1
5.565030E+2	9.569757E-1	9.664077E-1	9.289808E-1	9.238727E-1	9.299497E-1	9.823079E-1	9.465965E-1	9.659922E-1	9.600400E-1	9.147827E-1	8.840632E-1	9.340868E-1	9.102575E-1	9.681184E-1	9.228494E-1	8.999125E-1	9.421336E-1	9.435860E-1	9.492235E-1	9.920398E-1	9.468088E-1	9.392598E-1	9.723678E-1	8.993784E-1	9.391466E-1	9.331164E-1	9.615381E-1	9.294642E-1	9.756937E-1	9.025446E-1	9.588330E-1	9.360735E-1	9.574588E-1	8.981627E-1	9.438962E-1	9.570171E-1	9.417011E-1	1.003671E+0	9.694290E-1	9.408087E-1	9.350471E-1	9.622239E-1	9.586801E-1	9.569658E-1	9.479731E-1	9.253819E-1	9.298236E-1	9.531885E-1	9.210397E-1	9.580247E-1	9.134318E-1	9.341569E-1	9.826621E-1	9.409657E-1	9.505042E-1	9.718429E-1	9.424000E-1	9.480317E-1	8.979718E-1	9.786650E-1	9.372457E-1	9.757462E-1	9.515947E-1	9.707542E-1	9.776512E-1	9.227885E-1	9.111473E-1	9.674096E-1	9.532746E-1	9.370806E-1	9.408761E-1	9.673032E-1	9.313220E-1	8.996789E-1	9.769506E-1	9.148582E-1	9.253416E-1	9.222499E-1	8.858756E-1	9.595163E-1	9.674672E-1	9.010645E-1	9.597940E-1	9.448707E-1	9.350994E-1	9.786640E-1	9.254148E-1	9.373927E-1	9.874137E-1	9.812204E-1	9.519926E-1	9.051220E-1	9.261190E-1	9.450644E-1	9.705736E-1	9.606645E-1	9.946366E-1	9.271008E-1	9.496437E-1	9.402599E-1	9.557342E-1	9.688318E-1	9.472635E-1	9.719375E-1	9.368453E-1	9.890000E-1	9.577428E-1	9.549846E-1	9.664218E-1	9.512688E-1	9.437549E-1	9.629542E-1	1.007069E+0	9.579666E-1	9.506551E-1	9.415461E-1	1.016351E+0	9.331217E-1	9.289195E-1	9.694203E-1	9.731801E-1	1.004830E+0	9.428875E-1	9.868300E-1	9.615998E-1	9.892803E-1	9.659611E-1	9.362577E-1	9.428347E-1	9.564853E-1	9.752403E-1	9.615121E-1	9.631521E-1	9.719334E-1	9.744198E-1	9.560050E-1	9.549557E-1	9.658624E-1	9.373018E-1	9.550438E-1	9.692889E-1	8.936186E-1	9.695646E-1	9.277628E-1	9.689784E-1	9.263028E-1	9.316781E-1	9.707295E-1	9.942633E-1	9.534807E-1	9.700732E-1	9.374235E-1	9.577568E-1	9.233814E-1	9.372345E-1	9.820416E-1	9.668864E-1	9.530974E-1	9.099338E-1	9.307815E-1	9.729654E-1	9.415309E-1	1.010380E+0	9.336271E-1	9.641722E-1	9.315580E-1
5.570100E+2	9.702895E-1	1.001716E+0	9.940395E-1	9.727077E-1	9.635106E-1	9.712258E-1	9.165033E-1	9.699919E-1	9.692638E-1	9.181937E-1	9.463190E-1	9.958732E-1	9.484485E-1	9.693666E-1	9.398144E-1	9.864012E-1	1.024621E+0	9.525001E-1	9.284510E-1	9.480802E-1	9.694130E-1	9.940759E-1	9.672346E-1	1.002733E+0	9.654260E-1	9.442203E-1	9.517911E-1	9.539672E-1	9.664087E-1	1.025397E+0	9.042443E-1	9.898865E-1	9.385038E-1	9.945429E-1	9.371102E-1	9.364226E-1	9.365589E-1	9.331988E-1	9.633413E-1	9.620979E-1	9.742569E-1	9.882049E-1	9.611154E-1	9.597273E-1	9.591544E-1	9.968947E-1	9.622620E-1	9.424302E-1	9.475268E-1	9.499285E-1	9.676290E-1	1.006041E+0	9.538804E-1	9.390111E-1	9.847380E-1	9.970352E-1	9.399687E-1	9.619094E-1	9.614974E-1	9.137267E-1	9.623017E-1	9.584904E-1	1.016100E+0	9.234251E-1	9.756658E-1	1.021881E+0	9.508942E-1	9.144107E-1	9.135822E-1	9.700097E-1	9.617085E-1	9.311509E-1	9.846533E-1	9.576132E-1	9.869158E-1	9.968337E-1	9.928228E-1	9.530839E-1	9.655529E-1	9.719379E-1	9.680939E-1	9.663434E-1	9.946799E-1	9.622967E-1	9.589491E-1	1.008381E+0	9.660527E-1	1.075976E+0	9.614951E-1	9.684602E-1	9.724690E-1	1.034127E+0	9.352724E-1	9.613402E-1	9.507405E-1	1.014768E+0	1.005792E+0	9.607098E-1	9.457809E-1	1.033146E+0	9.915970E-1	9.674976E-1	9.721737E-1	9.733771E-1	9.675299E-1	9.663539E-1	9.316650E-1	9.274166E-1	9.656174E-1	9.801378E-1	9.506016E-1	9.646963E-1	9.376049E-1	9.138343E-1	9.186410E-1	9.496673E-1	9.461238E-1	9.823435E-1	1.031074E+0	9.796211E-1	8.864092E-1	9.584064E-1	1.011282E+0	9.294746E-1	9.899729E-1	9.037159E-1	9.405720E-1	9.880042E-1	9.845798E-1	9.513724E-1	9.415356E-1	9.509332E-1	9.995098E-1	9.975175E-1	9.643145E-1	9.551110E-1	1.015621E+0	9.704280E-1	9.634776E-1	9.167071E-1	9.241758E-1	9.961419E-1	9.799094E-1	9.709816E-1	9.767565E-1	9.452532E-1	9.764361E-1	9.530888E-1	9.437816E-1	9.458641E-1	9.539298E-1	9.683231E-1	9.910228E-1	9.603074E-1	9.510561E-1	9.547031E-1	9.805223E-1	9.123652E-1	9.663355E-1	9.689448E-1	9.167677E-1	9.807766E-1	9.677016E-1	1.040636E+0	9.952613E-1	8.957011E-1
5.575080E+2	1.011110E+0	9.661761E-1	9.739762E-1	1.013270E+0	9.647305E-1	9.886424E-1	1.008123E+0	1.032315E+0	9.739731E-1	1.001529E+0	1.051747E+0	9.816897E-1	1.028658E+0	1.007750E+0	9.672760E-1	1.009491E+0	9.744106E-1	1.020457E+0	9.815516E-1	9.975879E-1	9.966191E-1	1.041325E+0	1.001179E+0	1.024438E+0	9.904781E-1	1.001711E+0	9.526694E-1	1.014541E+0	9.554784E-1	1.003999E+0	9.939226E-1	1.012754E+0	9.846424E-1	1.014950E+0	9.890009E-1	9.821542E-1	1.006917E+0	9.981530E-1	9.799078E-1	9.942613E-1	9.666651E-1	9.986038E-1	1.013210E+0	1.038712E+0	9.957161E-1	9.780563E-1	9.709096E-1	1.039738E+0	1.029686E+0	9.912927E-1	1.002971E+0	9.744939E-1	1.036403E+0	1.028125E+0	1.023504E+0	9.660754E-1	1.001977E+0	9.591258E-1	9.959896E-1	9.967727E-1	1.018752E+0	1.012417E+0	1.014495E+0	9.968015E-1	9.966196E-1	1.061850E+0	1.050509E+0	9.856675E-1	1.000760E+0	9.705007E-1	9.615446E-1	1.026259E+0	1.011704E+0	1.002140E+0	1.025283E+0	1.017132E+0	1.002799E+0	1.030141E+0	1.001764E+0	1.002935E+0	1.001140E+0	1.015294E+0	9.942994E-1	1.020216E+0	1.031253E+0	9.909976E-1	1.011924E+0	9.953257E-1	9.702764E-1	1.025198E+0	1.022284E+0	9.894739E-1	9.938477E-1	9.686093E-1	9.977512E-1	1.005666E+0	9.497191E-1	1.037947E+0	9.997589E-1	9.486291E-1	9.679145E-1	1.007246E+0	1.002284E+0	1.010613E+0	1.002201E+0	9.779678E-1	9.757838E-1	1.052581E+0	9.885145E-1	9.860965E-1	1.013876E+0	1.039801E+0	9.796846E-1	9.995761E-1	9.816409E-1	1.005062E+0	9.919334E-1	9.771086E-1	1.022880E+0	9.899262E-1	1.009930E+0	9.694654E-1	9.749046E-1	9.849459E-1	9.988483E-1	1.012156E+0	1.023121E+0	9.789021E-1	1.024593E+0	9.470029E-1	9.865539E-1	9.958607E-1	9.959637E-1	9.988744E-1	1.026172E+0	1.029953E+0	9.720264E-1	9.631016E-1	9.897816E-1	1.002461E+0	1.051798E+0	9.663096E-1	9.971188E-1	9.836484E-1	9.947484E-1	9.796335E-1	9.865155E-1	1.004068E+0	1.013487E+0	1.003481E+0	1.017349E+0	9.845542E-1	1.010879E+0	9.893758E-1	9.588530E-1	9.567525E-1	1.034479E+0	1.064850E+0	9.864499E-1	9.837057E-1	1.008777E+0	1.021649E+0	9.595939E-1	9.975305E-1	1.011247E+0	9.497744E-1
5.580400E+2	1.098267E+0	1.032342E+0	1.023392E+0	1.051342E+0	1.071346E+0	1.040774E+0	1.077663E+0	9.643864E-1	1.000791E+0	1.046003E+0	1.087175E+0	1.028186E+0	1.015424E+0	1.024358E+0	1.027461E+0	1.025557E+0	1.015177E+0	1.012934E+0	1.017115E+0	9.830045E-1	1.048848E+0	1.030769E+0	9.965733E-1	1.067289E+0	1.032818E+0	1.020028E+0	1.030187E+0	1.029906E+0	1.032724E+0	1.034502E+0	1.029023E+0	1.039415E+0	1.042205E+0	1.014821E+0	1.024630E+0	1.038655E+0	1.067171E+0	9.938781E-1	1.043907E+0	1.050189E+0	1.037896E+0	9.925055E-1	1.020704E+0	1.046981E+0	1.034596E+0	9.868934E-1	1.055570E+0	1.026960E+0	1.047274E+0	1.003209E+0	1.094332E+0	1.040593E+0	1.057517E+0	1.060756E+0	9.979145E-1	1.046798E+0	1.001374E+0	9.790587E-1	1.038452E+0	1.004873E+0	1.019130E+0	1.019401E+0	1.053782E+0	1.002551E+0	1.008352E+0	1.021148E+0	1.070127E+0	1.025626E+0	1.033505E+0	1.031819E+0	1.027435E+0	1.028353E+0	1.035311E+0	1.072354E+0	9.826588E-1	1.035850E+0	9.999674E-1	1.042848E+0	1.059743E+0	1.032744E+0	1.021241E+0	1.048584E+0	1.014476E+0	1.034379E+0	9.971407E-1	9.938791E-1	1.037082E+0	9.859962E-1	1.046670E+0	1.001361E+0	1.011717E+0	1.036088E+0	1.019302E+0	1.012242E+0	1.026400E+0	1.032019E+0	1.008851E+0	1.019967E+0	1.024929E+0	9.764472E-1	1.039318E+0	1.073592E+0	1.017057E+0	1.060969E+0	1.041640E+0	1.053479E+0	1.076188E+0	1.027221E+0	1.041377E+0	1.011626E+0	9.862795E-1	1.051445E+0	1.008979E+0	1.020299E+0	1.076161E+0	1.024912E+0	1.034526E+0	1.036939E+0	1.004426E+0	9.922972E-1	1.053809E+0	1.012129E+0	1.016080E+0	1.006070E+0	1.030618E+0	1.033552E+0	1.019707E+0	1.042429E+0	1.056764E+0	1.064931E+0	1.032945E+0	1.043720E+0	9.986989E-1	1.055886E+0	1.025775E+0	1.027573E+0	1.017404E+0	1.026356E+0	9.737837E-1	1.021864E+0	9.800217E-1	1.049627E+0	1.025632E+0	1.002423E+0	1.031506E+0	1.014955E+0	1.012414E+0	1.004548E+0	1.003647E+0	1.043589E+0	1.028866E+0	1.075636E+0	9.688599E-1	1.032650E+0	1.031627E+0	1.045768E+0	1.071646E+0	1.042599E+0	1.022737E+0	1.056237E+0	1.033589E+0	1.006930E+0	9.927382E-1	9.757845E-1	9.920189E-1	1.088169E+0
5.585390E+2	1.031306E+0	1.070090E+0	1.032744E+0	1.062540E+0	1.077961E+0	1.015776E+0	1.078450E+0	1.055104E+0	1.092781E+0	1.059354E+0	1.078087E+0	1.068563E+0	1.073088E+0	1.037818E+0	1.050286E+0	1.026623E+0	1.037571E+0	1.059359E+0	1.068272E+0	1.063630E+0	1.043045E+0	1.001270E+0	1.041114E+0	1.032278E+0	1.059044E+0	1.070333E+0	1.071370E+0	1.048018E+0	1.059638E+0	1.008855E+0	1.018849E+0	1.046815E+0	1.056151E+0	1.063592E+0	1.059079E+0	1.006577E+0	1.056353E+0	1.023457E+0	1.019587E+0	1.034227E+0	1.031349E+0	1.055762E+0	1.062837E+0	1.075207E+0	1.070197E+0	1.073197E+0	1.071576E+0	1.054562E+0	1.017644E+0	1.038984E+0	1.039089E+0	1.049208E+0	1.045033E+0	1.102780E+0	1.059289E+0	1.027096E+0	1.070276E+0	1.057571E+0	1.041905E+0	1.032815E+0	1.040532E+0	1.036785E+0	9.997370E-1	1.067413E+0	1.063409E+0	1.001936E+0	1.036883E+0	1.056722E+0	1.081453E+0	1.080565E+0	1.053958E+0	1.017096E+0	1.073378E+0	1.093066E+0	1.027191E+0	1.002501E+0	1.039684E+0	1.058999E+0	1.016836E+0	1.025868E+0	1.050667E+0	1.055330E+0	1.012223E+0	1.052742E+0	1.072005E+0	1.002813E+0	1.006862E+0	1.035927E+0	1.044626E+0	1.029386E+0	1.069248E+0	1.012599E+0	1.045208E+0	1.068240E+0	1.039411E+0	1.054850E+0	1.085764E+0	1.056847E+0	1.100933E+0	1.081281E+0	1.010686E+0	1.014426E+0	1.021889E+0	1.000155E+0	1.039726E+0	1.024836E+0	1.027148E+0	9.839006E-1	1.054731E+0	1.068723E+0	1.126784E+0	9.919232E-1	1.062556E+0	1.037017E+0	1.073251E+0	1.040705E+0	1.042093E+0	1.008413E+0	1.023131E+0	1.055695E+0	1.063040E+0	1.030403E+0	1.043299E+0	1.049515E+0	1.014886E+0	1.051314E+0	1.111667E+0	1.086305E+0	1.034910E+0	1.053965E+0	9.997982E-1	1.059218E+0	1.020562E+0	1.011310E+0	9.888082E-1	1.051254E+0	1.026218E+0	1.026335E+0	1.062357E+0	1.079301E+0	1.058630E+0	1.048685E+0	1.077682E+0	1.058244E+0	1.042265E+0	1.011770E+0	1.044910E+0	1.017229E+0	1.042243E+0	1.058638E+0	1.043697E+0	1.015533E+0	1.072360E+0	1.049854E+0	1.020413E+0	1.062099E+0	1.076514E+0	1.036067E+0	1.082482E+0	1.040428E+0	1.072532E+0	1.036162E+0	1.052914E+0	1.037889E+0	1.030457E+0	1.206576E+0
5.590160E+2	9.933497E-1	9.870385E-1	1.010025E+0	1.011529E+0	1.003223E+0	1.008258E+0	9.944438E-1	1.009958E+0	1.054698E+0	1.026248E+0	1.027742E+0	1.055375E+0	1.024548E+0	1.025162E+0	1.067027E+0	9.821577E-1	1.018696E+0	9.811512E-1	1.017937E+0	1.047317E+0	1.009193E+0	1.051530E+0	1.023575E+0	9.603103E-1	9.996604E-1	1.042339E+0	1.060492E+0	1.031314E+0	1.026052E+0	1.017335E+0	1.077116E+0	9.904241E-1	1.074960E+0	1.026118E+0	1.027941E+0	1.022038E+0	9.949493E-1	1.013072E+0	1.008719E+0	1.048631E+0	1.031489E+0	1.063023E+0	9.687428E-1	1.022052E+0	1.046319E+0	1.008406E+0	9.851111E-1	1.013533E+0	1.074947E+0	9.979248E-1	1.035731E+0	1.036780E+0	1.035113E+0	9.799642E-1	1.023695E+0	1.057069E+0	1.006883E+0	1.050240E+0	1.035621E+0	1.026293E+0	1.017885E+0	9.770304E-1	9.880067E-1	1.013376E+0	1.005297E+0	1.010876E+0	1.020857E+0	1.034148E+0	1.007189E+0	1.062160E+0	9.752129E-1	1.021148E+0	1.031073E+0	1.031220E+0	1.025516E+0	1.057989E+0	1.033408E+0	1.049853E+0	1.029450E+0	1.023423E+0	9.873290E-1	1.048655E+0	1.022919E+0	9.774272E-1	1.071706E+0	9.930599E-1	1.012889E+0	1.016497E+0	1.027021E+0	9.906178E-1	9.680832E-1	1.045436E+0	1.022074E+0	1.014964E+0	1.009561E+0	9.982988E-1	1.050148E+0	1.015394E+0	1.057398E+0	1.017162E+0	1.021192E+0	1.050185E+0	9.982252E-1	1.008524E+0	1.063123E+0	1.033413E+0	1.058771E+0	1.025465E+0	1.055848E+0	1.075594E+0	1.001753E+0	9.821918E-1	1.052813E+0	1.021002E+0	1.002303E+0	1.046476E+0	1.021783E+0	9.960318E-1	1.056125E+0	1.013182E+0	1.033751E+0	1.004637E+0	1.056082E+0	1.040870E+0	1.043535E+0	1.027689E+0	9.712159E-1	1.032504E+0	9.927410E-1	9.999422E-1	1.064439E+0	9.683758E-1	1.025231E+0	1.002201E+0	1.002242E+0	1.027930E+0	1.045294E+0	1.017848E+0	1.023533E+0	1.074484E+0	1.021895E+0	1.059229E+0	1.024203E+0	1.015361E+0	1.003217E+0	9.876960E-1	1.043747E+0	9.992998E-1	1.040579E+0	1.003969E+0	1.021125E+0	1.001357E+0	9.862270E-1	1.045252E+0	1.040040E+0	1.067380E+0	1.013064E+0	1.062711E+0	1.002668E+0	1.028460E+0	1.036745E+0	1.039579E+0	1.042655E+0	1.022129E+0	1.031104E+0	1.016494E+0
5.595000E+2	1.046149E+0	1.010784E+0	1.049329E+0	1.051499E+0	1.024935E+0	1.062635E+0	1.046339E+0	1.074311E+0	1.026979E+0	1.072029E+0	1.011694E+0	1.045088E+0	1.006730E+0	1.047704E+0	1.051253E+0	1.083368E+0	1.066449E+0	1.035109E+0	1.056740E+0	1.070324E+0	1.028050E+0	1.008773E+0	1.023400E+0	1.060748E+0	1.073135E+0	1.005029E+0	1.035402E+0	1.051212E+0	1.046347E+0	1.023279E+0	9.953046E-1	1.030198E+0	9.971761E-1	1.057172E+0	1.080007E+0	1.089645E+0	1.004839E+0	1.042722E+0	1.046625E+0	1.034763E+0	1.096146E+0	1.014909E+0	1.030418E+0	9.948512E-1	1.043286E+0	1.055892E+0	1.075605E+0	1.015456E+0	1.050466E+0	1.078976E+0	1.070465E+0	1.056106E+0	1.032346E+0	1.032530E+0	1.070097E+0	1.037038E+0	1.036335E+0	1.064063E+0	1.029966E+0	1.055997E+0	1.074313E+0	1.099447E+0	1.043517E+0	1.053790E+0	1.031209E+0	1.014222E+0	1.068644E+0	1.031613E+0	1.059463E+0	1.030894E+0	1.063572E+0	1.070943E+0	1.027783E+0	1.057062E+0	1.056136E+0	1.015074E+0	1.063882E+0	1.023487E+0	1.097242E+0	1.031999E+0	1.015974E+0	1.066956E+0	1.072676E+0	1.050853E+0	1.053239E+0	1.014428E+0	1.016321E+0	1.052113E+0	1.043800E+0	1.059471E+0	1.068363E+0	1.029265E+0	1.033015E+0	1.061982E+0	1.033977E+0	1.030714E+0	9.862756E-1	1.060043E+0	1.032175E+0	1.035396E+0	1.016950E+0	1.025093E+0	1.051661E+0	1.047529E+0	9.867292E-1	1.043623E+0	1.032480E+0	1.041561E+0	1.039393E+0	9.909594E-1	1.054880E+0	1.069353E+0	1.086389E+0	1.046377E+0	1.045290E+0	1.035416E+0	1.032004E+0	1.061348E+0	1.073692E+0	1.088212E+0	1.051434E+0	1.085832E+0	1.035285E+0	1.076036E+0	1.046570E+0	1.041898E+0	1.013779E+0	1.034798E+0	1.017655E+0	1.062706E+0	1.044402E+0	1.033549E+0	1.056393E+0	1.015422E+0	1.042085E+0	9.998545E-1	1.067591E+0	1.085817E+0	9.981581E-1	1.038704E+0	1.031394E+0	1.047757E+0	1.075721E+0	1.056599E+0	1.038054E+0	1.067983E+0	1.004909E+0	1.011989E+0	1.077189E+0	1.064921E+0	1.040006E+0	1.040794E+0	1.059603E+0	1.050559E+0	1.039214E+0	1.025338E+0	1.036636E+0	1.032606E+0	1.105254E+0	1.033513E+0	1.021180E+0	1.017153E+0	1.047774E+0	1.036746E+0	1.087236E+0	1.028622E+0
5.600470E+2	9.570352E-1	9.654921E-1	9.942951E-1	9.624517E-1	9.490857E-1	9.680138E-1	1.003706E+0	9.514794E-1	9.485656E-1	9.750086E-1	9.343122E-1	9.004951E-1	9.577157E-1	9.979770E-1	1.027686E+0	9.512349E-1	9.697381E-1	9.756219E-1	9.802264E-1	9.500081E-1	9.734392E-1	9.965847E-1	9.901709E-1	9.985918E-1	9.400094E-1	9.848420E-1	9.818619E-1	9.774496E-1	9.794591E-1	9.639231E-1	9.654176E-1	9.786374E-1	1.003341E+0	9.664181E-1	9.600889E-1	9.883031E-1	9.610323E-1	9.330384E-1	1.025548E+0	9.662304E-1	9.466376E-1	9.592121E-1	9.274476E-1	9.731495E-1	9.520292E-1	9.393023E-1	9.857103E-1	9.617536E-1	9.069590E-1	9.811517E-1	9.970011E-1	9.446208E-1	9.405117E-1	9.628196E-1	9.195263E-1	9.230447E-1	1.012651E+0	9.735019E-1	9.894803E-1	9.437309E-1	9.886488E-1	9.781254E-1	9.840714E-1	9.914843E-1	9.866326E-1	9.617212E-1	9.565443E-1	9.831931E-1	9.697420E-1	9.371642E-1	9.835836E-1	9.890829E-1	9.502874E-1	9.894834E-1	9.789134E-1	9.594173E-1	9.528997E-1	9.746627E-1	1.007877E+0	9.967693E-1	1.005705E+0	9.404427E-1	9.911593E-1	9.317890E-1	9.563091E-1	9.955796E-1	9.700466E-1	9.779259E-1	9.367308E-1	9.611322E-1	9.979806E-1	9.744877E-1	1.008520E+0	9.446615E-1	9.706325E-1	9.801332E-1	9.627446E-1	9.592430E-1	9.459261E-1	9.434879E-1	1.014532E+0	9.806854E-1	9.634396E-1	9.487814E-1	9.893809E-1	9.520802E-1	9.952370E-1	9.838667E-1	9.520678E-1	9.814990E-1	9.521572E-1	9.975714E-1	9.810863E-1	9.977358E-1	9.829133E-1	9.787542E-1	9.792916E-1	9.906935E-1	9.509151E-1	9.641542E-1	9.426714E-1	9.667708E-1	9.400191E-1	9.685494E-1	9.747477E-1	9.303977E-1	9.396400E-1	9.643798E-1	9.346899E-1	1.006265E+0	9.382404E-1	9.947481E-1	9.753481E-1	9.906044E-1	9.664478E-1	9.539037E-1	9.821012E-1	9.932316E-1	9.510930E-1	9.644450E-1	9.472614E-1	9.768392E-1	9.539063E-1	9.942382E-1	9.742078E-1	1.012068E+0	9.465214E-1	1.022468E+0	9.673289E-1	9.520115E-1	9.729185E-1	9.862050E-1	9.342890E-1	9.608819E-1	9.510029E-1	9.600659E-1	9.116793E-1	9.597425E-1	9.777561E-1	9.909407E-1	9.798593E-1	9.504135E-1	9.416665E-1	9.810100E-1	9.563157E-1	8.983834E-1
5.605040E+2	1.001279E+0	1.042611E+0	1.005848E+0	9.957811E-1	1.049648E+0	9.958447E-1	9.844532E-1	1.017703E+0	1.011450E+0	1.037184E+0	1.001410E+0	1.040463E+0	1.060707E+0	9.886413E-1	9.894448E-1	1.008411E+0	9.998825E-1	1.040092E+0	1.038994E+0	9.771408E-1	1.011403E+0	9.842346E-1	1.001133E+0	9.839210E-1	1.016014E+0	1.014331E+0	1.024958E+0	1.014598E+0	9.876586E-1	1.056941E+0	1.045417E+0	1.007364E+0	9.915637E-1	1.007956E+0	9.739155E-1	1.024476E+0	1.025259E+0	1.083578E+0	9.773293E-1	1.027909E+0	9.919506E-1	1.021696E+0	1.068798E+0	1.001593E+0	9.810150E-1	1.034200E+0	9.860574E-1	9.862150E-1	1.033756E+0	9.733529E-1	9.748319E-1	1.000034E+0	9.741408E-1	1.001016E+0	1.002063E+0	1.015289E+0	9.976950E-1	1.013988E+0	9.990675E-1	1.027456E+0	1.004035E+0	9.909193E-1	9.785562E-1	1.006822E+0	9.979489E-1	1.061833E+0	9.893681E-1	1.033008E+0	1.017781E+0	1.010583E+0	1.025295E+0	9.965799E-1	1.008421E+0	9.919289E-1	9.651402E-1	1.028683E+0	1.000645E+0	1.015374E+0	1.005612E+0	9.954824E-1	1.005703E+0	9.790643E-1	1.023648E+0	1.035390E+0	9.829526E-1	9.912751E-1	1.045370E+0	9.885419E-1	9.977945E-1	1.010124E+0	9.759994E-1	1.008208E+0	1.040012E+0	1.040417E+0	1.011489E+0	9.952462E-1	9.978171E-1	1.002281E+0	9.957597E-1	1.005239E+0	9.815778E-1	9.513952E-1	1.023905E+0	1.001454E+0	1.009338E+0	9.953555E-1	1.017759E+0	1.055981E+0	9.626775E-1	9.819646E-1	1.001191E+0	9.746557E-1	9.577951E-1	1.046374E+0	9.862479E-1	1.000650E+0	1.008490E+0	1.040128E+0	9.827035E-1	9.928918E-1	9.982552E-1	1.004633E+0	1.024201E+0	9.746879E-1	9.734929E-1	1.017344E+0	1.034063E+0	9.859461E-1	1.066115E+0	1.003872E+0	1.058136E+0	9.883816E-1	1.014848E+0	9.903924E-1	1.006124E+0	1.014105E+0	9.592000E-1	1.020512E+0	1.067581E+0	9.523716E-1	9.774555E-1	9.655268E-1	9.919897E-1	9.812464E-1	1.015184E+0	1.057782E+0	1.035628E+0	1.021168E+0	1.004351E+0	9.836144E-1	9.714082E-1	1.017859E+0	1.074002E+0	1.041352E+0	1.065377E+0	1.002394E+0	9.583741E-1	9.431337E-1	9.926671E-1	1.007962E+0	9.812817E-1	1.016053E+0	9.829369E-1	9.544196E-1	1.016340E+0	9.783964E-1
5.610180E+2	9.342393E-1	9.573423E-1	9.873715E-1	9.550058E-1	9.656109E-1	9.665228E-1	9.437238E-1	9.587596E-1	9.614578E-1	9.496674E-1	9.774506E-1	9.501803E-1	9.744243E-1	9.331034E-1	9.569020E-1	1.026845E+0	9.513214E-1	9.791896E-1	9.614879E-1	9.708677E-1	9.731808E-1	9.521788E-1	9.832528E-1	9.703133E-1	9.842679E-1	9.840487E-1	9.297311E-1	9.495308E-1	9.705402E-1	9.632240E-1	1.011873E+0	9.684329E-1	9.539988E-1	9.562676E-1	1.004331E+0	9.547114E-1	1.005220E+0	9.752312E-1	9.656058E-1	9.408824E-1	9.885621E-1	9.438600E-1	9.880467E-1	9.307608E-1	9.697143E-1	1.001776E+0	9.773750E-1	1.006164E+0	9.707025E-1	1.027156E+0	9.045188E-1	9.579665E-1	9.423926E-1	9.520331E-1	9.686680E-1	9.587131E-1	9.904408E-1	9.925095E-1	1.010049E+0	1.019671E+0	9.371558E-1	9.516387E-1	9.701404E-1	9.735828E-1	9.572151E-1	9.217439E-1	9.450260E-1	9.682030E-1	9.632500E-1	9.692233E-1	1.006813E+0	9.520846E-1	9.460675E-1	9.054541E-1	9.752952E-1	9.716611E-1	9.885504E-1	9.293010E-1	9.300477E-1	9.593254E-1	9.766799E-1	9.782666E-1	9.141254E-1	9.900362E-1	9.413462E-1	1.030923E+0	1.008038E+0	9.343051E-1	9.841729E-1	9.730301E-1	9.618627E-1	9.651934E-1	9.766310E-1	9.824793E-1	9.894648E-1	9.276399E-1	9.582520E-1	9.604681E-1	9.476955E-1	1.018951E+0	1.000500E+0	9.610488E-1	1.002102E+0	9.766603E-1	9.634863E-1	9.638919E-1	9.272252E-1	9.470235E-1	9.733514E-1	9.721305E-1	9.687238E-1	9.654089E-1	9.260220E-1	9.598176E-1	9.828957E-1	9.768109E-1	9.274038E-1	9.738723E-1	9.261333E-1	9.545995E-1	9.875193E-1	9.628943E-1	9.559590E-1	9.830216E-1	9.657295E-1	9.926532E-1	9.802742E-1	9.504747E-1	9.451181E-1	9.534589E-1	9.587094E-1	1.003702E+0	9.502929E-1	9.658597E-1	1.003612E+0	9.843118E-1	9.595892E-1	9.305072E-1	1.032933E+0	9.946175E-1	1.038080E+0	9.962652E-1	9.042734E-1	1.009495E+0	9.550837E-1	9.965565E-1	1.017240E+0	9.954115E-1	9.131313E-1	9.904323E-1	9.806284E-1	9.723149E-1	9.450007E-1	9.463878E-1	1.005183E+0	9.434579E-1	9.501995E-1	9.928288E-1	9.537174E-1	9.590281E-1	9.763031E-1	9.897536E-1	1.001640E+0	1.020228E+0	9.158478E-1	1.006326E+0
