Photon Energy (eV)	#1	#2	#3	#4	#5	#6	#7	#8	#9	#10	#11	#12	#13	#14	#15	#16	#17	#18	#19	#20	#21	#22	#23	#24	#25	#26	#27	#28	#29	#30	#31	#32	#33	#34	#35	#36	#37	#38	#39	#40	#41	#42	#43	#44	#45	#46	#47	#48	#49	#50	#51	#52	#53	#54	#55	#56	#57	#58	#59	#60	#61	#62	#63	#64	#65	#66	#67	#68	#69	#70	#71	#72	#73	#74	#75	#76	#77	#78	#79	#80	#81	#82	#83	#84	#85	#86	#87	#88	#89	#90	#91	#92	#93	#94	#95	#96	#97	#98	#99	#100	#101	#102	#103	#104	#105	#106	#107	#108	#109	#110	#111	#112	#113	#114	#115	#116	#117	#118	#119	#120	#121	#122	#123	#124	#125	#126	#127	#128	#129	#130	#131	#132	#133	#134	#135	#136	#137	#138	#139	#140	#141	#142	#143	#144	#145	#146	#147	#148	#149	#150	#151	#152	#153	#154	#155	#156	#157	#158	#159	#160	#161	#162	#163	#164	#165	
5.300320E+2	-9.541202E-3	-7.759908E-3	-7.476358E-4	3.151064E-3	-1.129527E-2	-4.328163E-3	-9.809456E-3	-9.019607E-3	-3.655198E-4	-7.138481E-3	-3.156340E-3	-7.641469E-3	-1.184608E-2	-2.669667E-3	-8.037560E-3	-2.359214E-2	-3.283471E-3	-1.142518E-2	-1.113727E-3	-7.022646E-3	-1.154323E-2	-1.774379E-2	3.286235E-3	-5.703503E-3	-8.830029E-3	-6.950711E-4	-4.474570E-3	-1.185748E-2	4.911694E-4	-1.225818E-2	-8.599947E-3	-1.651565E-2	-6.921460E-3	-9.060721E-3	-3.939734E-3	-9.053529E-3	-9.501796E-3	-1.054310E-2	-1.107638E-2	-1.157367E-2	-9.328230E-3	-1.058244E-2	3.422493E-3	6.808390E-4	-5.710316E-3	-4.952762E-3	-1.277446E-2	-1.855116E-3	-1.287956E-2	-1.149348E-2	-3.378657E-3	-9.399030E-3	-1.022929E-2	-2.609268E-3	-7.096878E-4	2.943475E-3	-2.926132E-3	-5.193984E-3	-9.848867E-3	-3.909257E-4	-4.859738E-3	-8.266832E-3	-1.195367E-2	-6.780625E-3	-1.177800E-2	-8.883598E-3	-9.097839E-3	-3.211719E-3	-1.197867E-2	-2.541512E-3	-1.294188E-2	-3.098927E-3	-1.466827E-2	-1.231874E-2	-1.139916E-2	-1.089461E-2	-1.129171E-2	-2.543935E-3	-5.192220E-3	-5.831318E-3	-4.942226E-3	-2.092975E-3	-7.713327E-3	-4.343261E-3	-9.664787E-4	-3.713413E-3	-6.159210E-3	-5.355199E-3	-8.494464E-3	-4.763952E-3	-1.078505E-2	-5.430173E-3	-4.697644E-3	-9.947096E-3	-5.010988E-3	-1.324635E-2	-4.051205E-3	-9.176592E-3	-1.411570E-2	-6.782879E-3	-9.622932E-3	-9.182710E-3	-5.935809E-3	-2.973404E-3	-8.429978E-3	-1.475557E-2	-5.489629E-3	-9.206595E-3	-1.375518E-2	-7.013293E-3	-7.621078E-3	-7.816181E-3	-8.523095E-3	-1.632269E-3	-2.901070E-3	-5.572396E-3	-4.466775E-3	-6.998020E-3	-1.638903E-2	-1.176000E-2	-7.447472E-3	-4.638499E-3	-4.219287E-3	-8.491672E-3	-1.823742E-2	-5.305263E-3	-5.864945E-3	-8.428914E-3	9.589115E-4	-5.121917E-3	-4.718641E-3	-1.580923E-2	-1.246088E-2	-7.413523E-3	-9.496179E-3	-1.242969E-2	-1.460162E-2	-1.614179E-2	-4.080105E-3	-1.131401E-2	-5.381052E-3	-1.468574E-2	-3.757312E-3	-1.001063E-2	-4.891822E-3	-9.343634E-3	-1.864015E-2	-8.120891E-3	-8.652980E-3	-2.142924E-2	-3.926402E-3	-8.988554E-3	-6.594846E-3	-9.280436E-3	2.025297E-3	2.550896E-3	-6.310481E-3	-9.312812E-3	-6.387225E-5	-1.036655E-2	-8.330911E-3	-5.576065E-3	-8.908749E-3	-1.175360E-2	4.193371E-3
5.305030E+2	-9.327775E-3	-8.423760E-3	-2.157437E-2	-1.937950E-2	2.690468E-3	-2.606773E-3	-8.229169E-3	-6.480420E-3	-5.097468E-3	-1.722235E-2	-9.211318E-3	-1.024999E-2	3.650259E-3	-6.736011E-3	-4.893910E-3	2.367840E-3	-9.824652E-3	-4.704493E-3	-1.254039E-2	-3.883068E-3	-8.205189E-3	-7.815494E-3	-1.393471E-2	-6.631148E-3	-2.000476E-2	-3.436715E-3	-7.234607E-5	-1.582993E-2	-5.196949E-3	-4.185178E-3	3.321085E-3	-9.988130E-3	-3.386481E-3	-1.586800E-2	-4.285278E-3	-1.043293E-2	3.732568E-3	-5.068586E-3	-1.513155E-2	-4.061347E-4	-6.902317E-3	-8.969109E-3	-6.826185E-3	-8.570506E-3	-8.923832E-3	-1.030395E-2	-4.709893E-3	6.395521E-3	-5.021903E-3	-1.836061E-3	-8.368021E-3	-2.033548E-3	-1.061221E-3	-5.685221E-3	-1.440377E-2	-1.151552E-2	-4.921712E-3	-7.058951E-3	-1.030245E-2	-5.969681E-3	-9.450319E-3	-3.540885E-3	-7.787598E-3	-1.058295E-2	-9.512951E-3	-1.220386E-2	-8.956178E-3	-3.758771E-3	-9.406168E-3	-1.115698E-2	-7.680999E-3	-7.132522E-3	-6.329792E-3	-6.703522E-3	-6.198490E-3	2.831054E-3	-3.004607E-3	-6.881206E-3	1.217114E-3	-5.587026E-3	-1.100990E-2	-1.803952E-3	-1.200523E-2	-3.336139E-3	-1.085230E-2	-1.378273E-2	-1.037398E-2	-1.621500E-2	-1.047001E-2	-1.982444E-2	-4.265400E-3	3.733919E-5	-7.482094E-3	-6.769741E-3	-8.776506E-3	-1.313296E-2	-7.337822E-3	2.380393E-3	-1.783350E-3	-1.110646E-2	-5.357807E-3	-5.234920E-3	-5.585769E-3	-3.876424E-3	-1.414357E-2	-1.187529E-2	-5.175819E-3	-5.986181E-3	-1.411536E-2	-6.664081E-3	-3.261070E-3	-4.760094E-3	-4.196828E-3	-9.320922E-3	-1.404535E-2	-6.148249E-3	-1.534152E-2	-8.635913E-3	-6.593171E-3	-8.157962E-3	-1.129938E-2	-2.781778E-3	4.904577E-3	-9.090399E-3	-3.048066E-3	-7.109351E-4	-9.891842E-3	-5.567522E-3	-1.864844E-2	-6.249014E-3	-4.350044E-3	-1.124810E-2	-7.110967E-3	-1.415861E-2	-9.890684E-3	-8.576939E-3	-7.665416E-3	-1.612737E-2	-8.286971E-4	-6.817881E-3	-6.325024E-3	-5.239346E-3	-3.962031E-3	-5.508838E-3	-7.708124E-3	2.453502E-3	7.106523E-4	6.062121E-4	-4.261266E-3	-3.734132E-3	-7.238542E-3	-8.623981E-3	-1.852440E-3	1.678638E-3	-5.565471E-3	-7.787534E-3	-4.723501E-3	-6.456371E-3	-9.714099E-3	-3.520094E-4	-4.442525E-3	4.111975E-4	-4.848131E-3	-1.481804E-2	-4.883277E-4
5.310100E+2	-6.213112E-3	-1.448063E-3	-7.700378E-3	-6.701290E-3	-1.946422E-2	-1.215209E-2	-1.092210E-2	-2.128611E-3	8.452088E-4	-4.802039E-3	-3.314845E-3	-2.503165E-3	-5.120922E-3	-4.966342E-3	-8.157003E-3	-9.321055E-3	-4.876379E-3	-3.868947E-3	4.062266E-3	-7.615423E-4	1.437312E-4	-6.564214E-3	-8.948131E-3	-2.131286E-3	-8.548354E-3	-9.936775E-3	-1.510818E-2	1.238733E-4	-7.402276E-3	-2.949452E-3	-1.319107E-2	-5.945073E-3	-1.183162E-2	2.916159E-4	-1.110970E-2	-9.665763E-3	-8.543861E-3	-6.305354E-3	-3.892077E-3	1.510342E-3	-1.050282E-2	2.555275E-3	-1.151594E-2	-2.754603E-4	-4.046063E-3	-4.401030E-3	-1.128032E-2	-9.939240E-3	-4.938841E-3	-9.344511E-3	3.029967E-3	-1.951695E-3	-1.272489E-2	-3.874179E-3	-7.255199E-3	-8.186241E-3	-8.570166E-3	-6.290446E-3	-3.976888E-3	-2.872607E-3	-5.592709E-3	-2.895110E-3	-7.141357E-3	4.468649E-3	-1.423454E-2	-5.869077E-3	3.947531E-3	-1.250336E-2	-1.887838E-3	-1.458695E-3	-1.855965E-3	6.880392E-3	-6.257691E-3	-9.829155E-3	-1.875355E-3	-3.539257E-3	-3.603000E-3	-4.780146E-3	-8.450551E-3	-1.081830E-2	-3.851391E-3	-3.875505E-3	1.007627E-3	-7.988635E-3	-1.271086E-2	-6.747253E-3	1.926388E-3	-7.602842E-3	-1.112692E-2	-6.593444E-3	-4.182063E-3	-8.152186E-3	-6.765266E-3	-7.274891E-3	-7.510002E-3	3.540758E-3	-1.226849E-2	-8.207270E-3	-9.147493E-3	-3.373312E-3	-9.946560E-3	-8.853849E-3	-5.494938E-3	-4.414236E-3	-1.108668E-2	-8.987423E-3	-5.756236E-3	-1.125094E-2	-4.926035E-4	-5.323344E-4	-1.041070E-2	-1.501890E-2	-5.513419E-3	-1.192904E-2	-6.253776E-3	-5.235768E-3	-5.966796E-3	-9.193113E-3	-1.228291E-2	-5.349436E-3	-7.748189E-3	-1.452417E-2	-1.721780E-3	-2.131400E-4	-1.112562E-2	-4.827933E-3	-7.310459E-3	-7.451052E-3	-9.577506E-3	1.508589E-3	-1.168253E-2	-8.874326E-3	-7.011783E-3	7.435735E-3	-5.278548E-3	-5.407262E-3	-6.041187E-3	-3.505606E-3	-1.099337E-2	-9.532952E-3	-6.867742E-3	-5.746543E-3	-4.426286E-3	-6.687663E-3	-6.097352E-3	-3.618430E-3	-5.140963E-3	-9.995123E-3	-8.352197E-5	-9.126156E-4	-8.697914E-4	-7.185839E-3	-1.493330E-2	-9.840057E-3	-8.215867E-3	-6.836745E-3	-2.670836E-3	7.302852E-4	-4.668483E-3	-1.305048E-3	2.340456E-3	-3.327018E-3	2.325375E-3	-4.517761E-3	-6.172119E-3
5.315130E+2	-6.128724E-3	-1.853601E-2	1.109474E-3	-1.179353E-2	-2.444278E-3	-1.704989E-3	1.087135E-2	-2.709363E-3	-7.017390E-3	2.818344E-3	-8.364964E-3	-1.710903E-3	-7.556211E-3	-2.034019E-3	2.106913E-3	-4.901367E-3	-1.375984E-2	-1.785655E-3	-5.712724E-3	2.368153E-3	-9.211421E-3	4.507828E-4	-8.224932E-3	-1.227595E-2	-6.540552E-4	-1.313105E-2	-6.726208E-3	-4.252838E-4	-7.352107E-3	-3.408320E-3	-8.330478E-4	-4.545486E-3	-5.782125E-4	-3.243156E-4	-5.404264E-3	-4.380810E-3	-1.100050E-2	-4.927221E-3	-4.452394E-3	-9.388894E-3	-9.710640E-3	-3.819520E-3	7.399257E-3	-9.133232E-3	-1.358416E-2	-1.995198E-3	2.907593E-4	-6.594378E-3	-4.171198E-3	5.903932E-3	-6.807465E-3	-8.425909E-3	3.227555E-3	-7.850490E-3	-3.967076E-3	-1.594779E-3	2.624264E-3	-3.495836E-3	-7.388322E-3	-6.567957E-3	-1.101847E-3	-6.185421E-3	-2.788969E-4	-7.046434E-3	-6.622146E-3	3.303290E-3	-2.743302E-3	-6.024315E-3	-1.820933E-3	-3.958010E-3	-1.782783E-3	-4.441848E-3	-3.679909E-3	8.634728E-3	5.331296E-3	-6.351111E-3	-2.853183E-3	4.061270E-3	2.009985E-3	-1.216095E-4	-5.911986E-3	-4.527657E-3	-8.581069E-4	-1.188493E-2	-6.188542E-3	1.686995E-3	5.873418E-3	1.485286E-2	3.646538E-3	-1.238852E-2	-4.826806E-3	3.966310E-3	-7.326361E-3	-1.161154E-4	1.423591E-3	-1.922019E-3	-1.451252E-3	-2.121182E-3	-4.321247E-3	7.428434E-3	1.504696E-3	-7.544637E-3	6.015649E-3	-5.609018E-3	-1.176882E-2	1.639437E-3	-9.734704E-4	-1.348761E-2	-6.561461E-3	-3.459602E-3	-7.968193E-4	-1.149297E-2	-1.230825E-3	3.656193E-3	-2.952589E-3	-5.162311E-3	-2.560101E-3	-3.920634E-3	-2.535881E-3	-6.625078E-3	-3.644726E-5	5.634210E-4	-4.338449E-3	-8.943158E-3	-6.003663E-3	-1.713800E-3	-9.926218E-4	-7.377935E-3	-4.903434E-4	-8.871290E-3	1.007082E-2	6.508996E-3	-2.416361E-3	-2.899160E-3	5.151332E-3	-1.010605E-3	-3.662737E-3	1.070598E-2	3.470519E-3	-2.431469E-3	2.825895E-4	-1.144184E-4	-2.037127E-3	-1.112788E-2	-2.964451E-3	-2.172782E-3	2.581540E-4	-7.568457E-4	-2.707763E-3	-4.202454E-3	-2.042643E-3	-9.124830E-3	-9.450735E-3	1.865509E-3	-1.325505E-3	1.589483E-4	-2.587977E-3	-1.076233E-2	-1.693038E-3	-1.218319E-3	-4.215903E-3	-1.407408E-2	-1.046176E-2	-1.847911E-2	-1.774711E-2
5.320170E+2	6.697257E-4	1.489869E-2	3.988804E-3	-6.304762E-4	4.456335E-3	4.949667E-3	-7.317158E-3	-6.955362E-3	-1.354851E-2	8.285648E-3	-3.228633E-3	-2.418250E-3	1.979408E-3	-2.610647E-3	9.572723E-4	2.556592E-3	1.036259E-4	-4.436195E-3	-9.687999E-3	-1.454104E-3	-2.900236E-3	-7.368507E-4	1.610006E-3	-7.997774E-4	7.858981E-3	3.252216E-3	-5.349294E-3	4.405615E-3	-2.863486E-3	1.119194E-3	-2.707319E-3	7.896491E-3	9.948753E-3	-1.730896E-3	-3.952533E-4	-5.401094E-4	6.290835E-5	-1.000468E-3	8.040260E-3	-7.533096E-3	-1.646643E-3	-2.592288E-4	-8.123316E-3	-4.327111E-3	-1.579444E-3	2.078533E-3	-1.541720E-3	-4.629608E-3	-6.716108E-4	-1.243430E-2	-6.851828E-3	-1.189928E-3	4.575838E-3	-3.807391E-3	-3.334502E-3	-4.217191E-3	-3.524226E-4	-3.492652E-3	-4.484411E-4	-2.823179E-3	-1.729821E-3	-1.705408E-3	1.984447E-3	-2.287815E-3	9.843134E-3	-2.308556E-3	-2.756285E-3	1.642787E-2	3.765102E-3	-3.970734E-3	-4.352694E-3	-6.497743E-4	-1.153478E-3	-1.792486E-3	-4.009220E-3	1.010439E-4	1.009334E-2	6.069068E-3	2.004448E-3	-2.130608E-3	-9.473420E-3	4.913374E-4	2.371889E-3	-4.986018E-5	4.781728E-3	7.245099E-3	-1.152622E-2	2.987441E-3	-7.853943E-4	5.909267E-3	-2.704579E-3	-1.327609E-3	-4.806439E-3	-1.199044E-4	-3.306517E-3	7.067455E-3	2.115286E-3	-1.465388E-3	-1.614915E-3	-1.328120E-2	1.528924E-4	7.313022E-3	-2.412231E-3	3.894487E-3	1.059270E-2	-2.599512E-3	-1.656367E-3	1.558636E-2	-1.639298E-3	-5.881507E-3	1.446628E-3	2.326869E-3	1.561350E-3	-7.155161E-3	9.019422E-4	-1.095330E-3	1.271570E-2	-1.329777E-3	4.546882E-3	2.185715E-3	-1.440133E-3	6.068621E-3	-1.246320E-2	2.049104E-3	5.971950E-3	4.334972E-3	-2.868700E-3	1.176750E-2	1.871824E-4	1.813190E-4	-1.458627E-3	4.186370E-3	1.626865E-2	1.256470E-3	-6.500408E-3	1.449114E-3	7.049779E-3	-3.453177E-3	7.117443E-4	-4.553369E-3	4.129334E-3	4.935525E-4	6.575377E-3	4.996705E-3	4.672080E-3	-2.875342E-3	1.574366E-3	-1.544189E-3	4.066716E-3	5.192380E-4	-1.423329E-3	7.660809E-3	7.591679E-3	-4.859665E-4	7.031857E-4	-3.713156E-3	-8.425375E-3	4.669595E-3	-1.091943E-3	-8.256618E-3	-5.457290E-4	-1.301603E-3	1.099270E-2	1.556206E-2	-3.205879E-3
5.325120E+2	1.581022E-2	1.036623E-2	1.108793E-2	1.781905E-2	1.273220E-2	4.686874E-3	2.948929E-3	1.342134E-2	1.381393E-2	3.972625E-3	7.604296E-3	1.134565E-2	1.148021E-2	1.877111E-3	9.981772E-3	1.058513E-2	1.174817E-2	4.633312E-3	-6.512174E-4	2.838693E-3	1.409128E-2	2.111829E-3	3.955111E-3	8.776333E-3	1.128353E-2	1.642992E-2	9.726211E-3	7.754627E-3	5.617863E-3	1.179386E-2	7.739151E-3	1.036426E-2	3.866963E-3	4.330889E-3	1.269326E-2	1.451421E-2	1.060244E-2	2.067792E-2	4.883276E-3	1.013926E-2	1.291253E-2	3.821510E-3	-1.545880E-3	-3.926830E-3	7.390710E-3	-2.705254E-3	1.730699E-2	1.791394E-3	1.115060E-2	7.722609E-3	5.964178E-3	9.182704E-3	1.598564E-3	7.088390E-3	1.010515E-2	1.140088E-2	6.072956E-3	4.766418E-3	8.437130E-3	6.035504E-3	7.051709E-3	5.489095E-3	1.875510E-3	1.191707E-2	1.110723E-2	5.293514E-3	9.927207E-3	6.514544E-3	2.329806E-3	1.328986E-2	1.540913E-2	5.567079E-3	1.284294E-2	9.133977E-3	2.327119E-3	5.746572E-3	-4.506801E-3	-5.657097E-3	-6.109616E-4	1.036317E-2	1.595721E-2	6.747604E-3	8.062560E-3	5.194478E-3	9.848597E-3	7.785512E-3	4.417303E-3	3.463460E-3	4.875974E-3	1.234615E-2	1.065211E-2	5.195514E-3	9.000324E-3	8.669092E-3	9.630019E-3	2.000406E-3	8.382229E-3	3.697720E-3	1.323667E-2	-5.953749E-3	8.066206E-3	5.328378E-3	4.095690E-3	-7.353076E-4	1.869950E-2	1.914307E-2	8.300071E-3	1.524182E-3	1.687711E-2	7.948510E-3	9.320674E-3	1.818618E-2	4.831348E-3	1.570310E-2	2.085498E-2	6.812466E-3	1.917038E-3	6.343365E-3	1.027928E-2	7.481300E-3	1.378919E-2	4.209807E-3	1.313292E-2	1.765911E-3	1.477379E-2	1.174960E-3	7.627563E-3	5.659707E-3	5.551489E-3	-2.181154E-3	8.582831E-3	2.354690E-3	1.038116E-2	5.210515E-3	8.910186E-3	1.745966E-2	9.899150E-3	1.677608E-2	-2.996264E-3	5.789894E-3	1.375105E-3	1.030093E-2	4.202476E-3	1.268822E-2	1.131596E-2	9.770560E-4	4.729714E-3	7.335763E-3	-2.030416E-4	1.196676E-2	2.798557E-3	8.872599E-3	8.067786E-3	3.085272E-3	1.169657E-3	6.003342E-3	5.002618E-3	1.231751E-2	4.638751E-3	9.826214E-3	9.582720E-3	1.505484E-2	-3.764480E-4	2.219001E-2	-5.741047E-3
5.330230E+2	1.473087E-2	1.090282E-2	1.383618E-2	1.753468E-2	1.332476E-2	1.115547E-2	2.245760E-2	1.387202E-2	1.136975E-2	1.408626E-2	1.967180E-2	1.317813E-2	7.413338E-3	1.713958E-2	8.042516E-3	2.230500E-2	1.989255E-2	2.158716E-2	2.564379E-2	7.914515E-3	1.762506E-2	3.029774E-2	2.225642E-2	1.876534E-2	1.889469E-2	7.517480E-3	2.200439E-2	1.582858E-2	1.670579E-2	9.888070E-3	1.427115E-2	1.873358E-2	8.902054E-3	2.236143E-2	1.244097E-2	1.955893E-2	1.464825E-2	7.166808E-3	2.162887E-2	1.725220E-2	2.517812E-2	1.725351E-2	1.718958E-2	2.555230E-2	2.645311E-2	2.227966E-2	1.270864E-2	1.483143E-2	1.653251E-2	2.148182E-2	1.641183E-2	1.381741E-2	1.461344E-2	1.673816E-2	1.956509E-2	1.116938E-2	8.073213E-3	2.076545E-2	2.352784E-2	1.258885E-2	1.568272E-2	1.710456E-2	2.330157E-2	1.031210E-2	2.119728E-2	2.066829E-2	9.678865E-3	2.555749E-3	1.899870E-2	9.796063E-3	1.320520E-2	2.875601E-3	1.924620E-2	1.287520E-2	1.582381E-2	1.210631E-2	1.516596E-2	9.732047E-3	9.022186E-3	1.412569E-2	1.923171E-2	5.061148E-3	9.134594E-3	2.240835E-2	1.608786E-2	7.525788E-3	1.584230E-2	7.869285E-3	2.235427E-2	2.531494E-2	1.611179E-2	5.710805E-3	2.207748E-2	1.555866E-2	1.355040E-2	1.569271E-2	1.461125E-2	1.489232E-2	1.774603E-2	3.306917E-2	1.520350E-2	1.817472E-2	9.317407E-3	1.371390E-2	1.613686E-2	1.743529E-2	1.075145E-2	2.282078E-2	1.968679E-2	1.560231E-2	1.132236E-2	1.857509E-2	1.307147E-2	1.067810E-2	4.395856E-3	1.640159E-2	1.370245E-2	2.373409E-2	2.297482E-2	2.222546E-2	1.418242E-2	1.110260E-2	4.705222E-3	2.292335E-2	1.766904E-2	7.047998E-3	1.930101E-2	1.139822E-2	2.201871E-2	2.073347E-2	3.556196E-3	2.288160E-2	2.350183E-3	1.056858E-2	1.710430E-2	8.515723E-3	1.502203E-2	1.174589E-2	1.471617E-2	2.885978E-2	1.278679E-2	1.499157E-2	3.404903E-3	1.565008E-2	5.673706E-3	1.457963E-2	1.650823E-2	1.247507E-2	1.184186E-2	1.779245E-2	1.270215E-2	1.738980E-2	1.717186E-2	1.297704E-2	1.120870E-2	9.624248E-3	1.971555E-2	8.814130E-3	1.259268E-2	1.167233E-2	5.611893E-3	8.812734E-3	1.127701E-2	1.181645E-2	2.916111E-2
5.331580E+2	1.139155E-2	1.136854E-2	2.304237E-2	2.178282E-3	2.302824E-2	1.236891E-2	1.012400E-2	1.779232E-2	2.778789E-2	8.926645E-3	1.610684E-2	1.567685E-2	1.801601E-2	2.385529E-2	1.118646E-2	1.511861E-2	1.819933E-2	2.600479E-2	6.090502E-3	2.371314E-2	1.673682E-2	1.334046E-2	8.406680E-3	1.857161E-2	9.857858E-3	9.850659E-3	1.885729E-2	1.694917E-2	2.565067E-2	9.061010E-3	2.891183E-2	2.106492E-2	2.246721E-2	2.764713E-2	2.288373E-2	3.593464E-2	1.989449E-2	1.608129E-2	1.995973E-2	3.176933E-2	3.148946E-2	1.254204E-2	1.882006E-2	3.077323E-2	3.229374E-2	2.973160E-2	1.975966E-2	1.449242E-2	1.049584E-2	1.219637E-2	9.034732E-3	2.474712E-2	2.392804E-2	1.648875E-2	6.260076E-3	1.873932E-2	1.433600E-2	1.332308E-2	1.340242E-2	1.827128E-2	5.821935E-3	1.800364E-2	1.566277E-2	1.820855E-2	2.157393E-2	2.164707E-2	1.406285E-2	1.175259E-2	2.560480E-2	1.853589E-2	1.805144E-2	1.150390E-2	2.298466E-2	2.369778E-2	9.594435E-3	2.262969E-2	2.513998E-2	1.345134E-2	1.981961E-2	2.588921E-2	2.533346E-2	1.986230E-2	1.531861E-2	3.103346E-2	2.230353E-2	1.486775E-2	1.942882E-2	1.822260E-2	1.975777E-2	3.975101E-2	1.644529E-2	2.200468E-2	1.863072E-2	1.530081E-2	1.209460E-2	2.023401E-2	2.435487E-2	1.590287E-2	1.947649E-2	8.791814E-3	2.366861E-2	2.666064E-2	1.206473E-2	1.342422E-2	2.101536E-2	2.275863E-2	2.466269E-2	6.213973E-3	8.247177E-3	1.657855E-2	2.302082E-2	3.641935E-2	2.542856E-2	2.258372E-2	2.030045E-2	2.007774E-2	1.540662E-2	1.560276E-2	2.403944E-2	2.742786E-2	2.786111E-2	1.942060E-2	1.389224E-2	9.964847E-3	2.951620E-2	1.287400E-2	2.031244E-2	1.306541E-2	2.591226E-2	1.406400E-2	1.891580E-2	1.167289E-2	2.934105E-2	2.421674E-2	2.269725E-2	1.754959E-2	2.389014E-2	2.951688E-2	1.782362E-2	2.005388E-2	2.091822E-2	1.038432E-2	1.008928E-2	2.710421E-2	3.610553E-2	3.224785E-2	2.492336E-2	9.693118E-3	2.110542E-2	7.937989E-3	2.065031E-2	2.929699E-2	3.316285E-2	2.348460E-2	1.016963E-2	2.546984E-2	2.140069E-2	1.499215E-2	1.881872E-2	2.334433E-2	8.146690E-3	2.801915E-2	6.185868E-3	2.831545E-2	3.544862E-2
5.333130E+2	1.990085E-2	1.903972E-2	3.256066E-2	2.317132E-2	5.444396E-3	2.354728E-2	1.207596E-2	2.702785E-2	1.887041E-2	1.921090E-2	2.190641E-2	3.419549E-2	1.601763E-2	2.272263E-2	2.497480E-2	3.041004E-2	1.547175E-2	2.135548E-2	1.940308E-2	2.376031E-2	3.364525E-2	1.856059E-2	2.083631E-2	1.900922E-2	2.047349E-2	1.037645E-2	2.013341E-2	2.362680E-2	3.205980E-2	2.391492E-2	1.704641E-2	3.799365E-2	2.244705E-2	1.834596E-2	1.709542E-2	3.162406E-2	2.616482E-2	1.865710E-2	1.358781E-2	3.490128E-2	3.000743E-2	2.620948E-2	2.693992E-2	3.347581E-2	1.525115E-2	2.212251E-2	2.159408E-2	1.101277E-2	3.030618E-2	2.365762E-2	2.881787E-2	6.483219E-3	1.608229E-2	2.879123E-2	1.986052E-2	2.730470E-2	4.425926E-2	3.376453E-2	9.721182E-3	1.812909E-2	1.659526E-2	3.510151E-2	2.428025E-2	1.601525E-2	1.660541E-2	3.579728E-2	2.007147E-2	2.949735E-2	2.176632E-2	1.452355E-2	2.903140E-2	3.207800E-2	2.104728E-2	2.920497E-2	2.247297E-2	2.242537E-2	3.339805E-2	2.292142E-2	3.222585E-2	2.922242E-2	1.587051E-2	2.263218E-2	1.585664E-2	1.318140E-2	2.621550E-2	1.473395E-2	3.312885E-2	1.947382E-2	2.635753E-2	2.486364E-2	1.555065E-2	2.030343E-2	2.308649E-2	2.426213E-2	2.344371E-2	3.001127E-2	3.667299E-2	1.577827E-2	4.084024E-2	1.486896E-2	2.840988E-2	2.793690E-2	3.098040E-2	2.046716E-2	2.315486E-2	2.551909E-2	2.324634E-2	2.855037E-2	2.447202E-2	1.038607E-2	2.483386E-2	1.605894E-2	2.033238E-2	2.595239E-2	1.632671E-2	1.070885E-2	3.021186E-2	3.140030E-2	2.404465E-2	4.124304E-2	1.511327E-2	2.164262E-2	2.134174E-2	2.464985E-2	4.048989E-2	1.650599E-2	2.472837E-2	2.638172E-2	2.374750E-2	1.816114E-2	1.953893E-2	3.011272E-2	2.215734E-2	4.039185E-2	2.793767E-2	3.444858E-2	3.234231E-2	2.061799E-2	2.257236E-2	2.494729E-2	3.199913E-2	2.537328E-2	3.577679E-2	1.333402E-2	3.680493E-2	2.241340E-2	1.474536E-2	3.895127E-2	2.174069E-2	2.986201E-2	3.147268E-2	2.656158E-2	3.462667E-2	3.436816E-2	1.902122E-2	3.627246E-2	2.471519E-2	3.128041E-2	4.901767E-2	3.039563E-2	2.525340E-2	4.471263E-2	3.507075E-2	2.080460E-2	6.539636E-3
5.334580E+2	1.986143E-2	2.221891E-2	3.173506E-2	2.924385E-2	2.626414E-2	3.258922E-2	3.609131E-2	2.181992E-2	1.868485E-2	3.239188E-2	2.696029E-2	2.964057E-2	3.397864E-2	3.473290E-2	2.596940E-2	3.153134E-2	2.317948E-2	3.124443E-2	4.606617E-2	2.332426E-2	3.545390E-2	3.593107E-2	2.943864E-2	1.936311E-2	2.611301E-2	3.890318E-2	4.037709E-2	3.548474E-2	4.290421E-2	1.861587E-2	3.626487E-2	3.064600E-2	1.905179E-2	2.816920E-2	3.167881E-2	2.988005E-2	2.042272E-2	2.785681E-2	2.928779E-2	2.831277E-2	1.795986E-2	3.258768E-2	2.812173E-2	3.105015E-2	2.310159E-2	2.849032E-2	2.758486E-2	4.042589E-2	3.031177E-2	3.255287E-2	3.320166E-2	2.716554E-2	2.250006E-2	2.689459E-2	2.763257E-2	3.484869E-2	3.507955E-2	3.349504E-2	1.804994E-2	1.477264E-2	4.140329E-2	2.241007E-2	2.931983E-2	2.902213E-2	2.690828E-2	2.549894E-2	4.807590E-2	3.647822E-2	2.920516E-2	3.397336E-2	1.977059E-2	2.028472E-2	4.387668E-2	3.471027E-2	2.800905E-2	2.503202E-2	3.808482E-2	2.343935E-2	3.951233E-2	2.973213E-2	2.941514E-2	3.562979E-2	4.336720E-2	4.587778E-2	3.788569E-2	2.449692E-2	3.753560E-2	3.473745E-2	2.917681E-2	2.990612E-2	3.708554E-2	3.162659E-2	2.935973E-2	2.652344E-2	2.630463E-2	1.998822E-2	2.775342E-2	2.515437E-2	3.927239E-2	2.251142E-2	2.144390E-2	3.031104E-2	3.204800E-2	4.549727E-2	2.299585E-2	2.321381E-2	5.384156E-2	3.693055E-2	2.494843E-2	2.623963E-2	2.411556E-2	1.240238E-2	3.944592E-2	1.757107E-2	3.452784E-2	2.635102E-2	1.654129E-2	3.190335E-2	3.373178E-2	3.415665E-2	3.051817E-2	1.666212E-2	1.432224E-2	2.971654E-2	3.582739E-2	2.315366E-2	2.840213E-2	3.428837E-2	2.853545E-2	3.290168E-2	2.146735E-2	3.461624E-2	3.774951E-2	3.597862E-2	2.779176E-2	3.178532E-2	3.606533E-2	2.683014E-2	3.707890E-2	3.479465E-2	2.530744E-2	2.853078E-2	4.378303E-2	2.829521E-2	4.052110E-2	2.999392E-2	3.352962E-2	3.411591E-2	4.229299E-2	3.863835E-2	2.877190E-2	2.436104E-2	4.627818E-2	3.813516E-2	3.896107E-2	3.609338E-2	3.777696E-2	3.570261E-2	3.467158E-2	3.094910E-2	3.038451E-2	2.852315E-2	2.182733E-2	3.286297E-2	1.827991E-2
5.336080E+2	2.026009E-2	3.851487E-2	4.785800E-2	3.643527E-2	3.294954E-2	2.080779E-2	3.100511E-2	4.260416E-2	3.844605E-2	3.702955E-2	3.086340E-2	2.873151E-2	5.678276E-2	4.583236E-2	3.583826E-2	3.284234E-2	3.799079E-2	2.576462E-2	4.341312E-2	4.638284E-2	3.999086E-2	4.260988E-2	6.095501E-2	3.754238E-2	3.701523E-2	3.614053E-2	4.178710E-2	2.986459E-2	3.596980E-2	3.766451E-2	4.644455E-2	4.214923E-2	3.396417E-2	3.950840E-2	4.387946E-2	2.303962E-2	4.202841E-2	3.723761E-2	3.898143E-2	3.735816E-2	2.832852E-2	3.838316E-2	4.268404E-2	2.509590E-2	3.424761E-2	3.813310E-2	3.009691E-2	4.033804E-2	4.433636E-2	4.622425E-2	4.646857E-2	3.134433E-2	4.901046E-2	4.647521E-2	4.219097E-2	3.738431E-2	2.746694E-2	5.222025E-2	3.715934E-2	4.494079E-2	3.074034E-2	4.709398E-2	3.867453E-2	3.621869E-2	3.294161E-2	2.686731E-2	4.131154E-2	2.646366E-2	3.913498E-2	3.730304E-2	4.659438E-2	4.290342E-2	3.634214E-2	3.867396E-2	3.760170E-2	2.488893E-2	5.484114E-2	4.198353E-2	4.148318E-2	4.260092E-2	3.586354E-2	4.733845E-2	3.215750E-2	3.609227E-2	3.527810E-2	2.795630E-2	5.140718E-2	2.999167E-2	4.261525E-2	5.003430E-2	3.922515E-2	4.921588E-2	3.260079E-2	4.164911E-2	3.900985E-2	3.330246E-2	3.717996E-2	4.011448E-2	3.511382E-2	3.252197E-2	4.465959E-2	4.616762E-2	4.994512E-2	5.143703E-2	4.573022E-2	3.747701E-2	4.087592E-2	3.683486E-2	3.442489E-2	2.993635E-2	4.657977E-2	3.060506E-2	4.513912E-2	3.535449E-2	3.057411E-2	4.201884E-2	4.363941E-2	3.454128E-2	4.496810E-2	4.038106E-2	3.047756E-2	4.063788E-2	3.421109E-2	3.481268E-2	4.038303E-2	3.364779E-2	3.028080E-2	6.265908E-2	4.191194E-2	3.637774E-2	2.204553E-2	4.386255E-2	4.437993E-2	4.586355E-2	3.105015E-2	4.440949E-2	2.495258E-2	5.872790E-2	4.894983E-2	4.839458E-2	3.509196E-2	3.421563E-2	4.098928E-2	4.345984E-2	4.039002E-2	4.745127E-2	3.214192E-2	4.957175E-2	3.121350E-2	2.411780E-2	3.773454E-2	3.869712E-2	4.934736E-2	5.068122E-2	2.988118E-2	3.908094E-2	2.517117E-2	3.834014E-2	3.592684E-2	2.366880E-2	3.477287E-2	3.415988E-2	5.093825E-2	2.732613E-2	4.263201E-2
5.337630E+2	4.225848E-2	4.540321E-2	5.805553E-2	4.013597E-2	4.265771E-2	4.040673E-2	5.160680E-2	5.046103E-2	4.868719E-2	4.534763E-2	5.574958E-2	5.545692E-2	6.117235E-2	4.743368E-2	4.966868E-2	5.094814E-2	5.419855E-2	4.184735E-2	6.086407E-2	6.111075E-2	4.961067E-2	4.014234E-2	5.066136E-2	6.195700E-2	5.373362E-2	4.886797E-2	4.666406E-2	4.418390E-2	6.257308E-2	5.602994E-2	5.201906E-2	5.529339E-2	5.895357E-2	7.017961E-2	5.409542E-2	5.009164E-2	5.088639E-2	4.994451E-2	4.348176E-2	5.290104E-2	4.332048E-2	5.587681E-2	6.136381E-2	5.219541E-2	6.437008E-2	4.404803E-2	4.435457E-2	4.980563E-2	4.576828E-2	5.069212E-2	5.668880E-2	5.123523E-2	5.746708E-2	5.707114E-2	4.740801E-2	5.457136E-2	3.505505E-2	5.223483E-2	4.703414E-2	4.252312E-2	5.079575E-2	4.475337E-2	5.255254E-2	4.533199E-2	4.444720E-2	4.769418E-2	4.752786E-2	5.080737E-2	5.979656E-2	4.581181E-2	5.050058E-2	4.192991E-2	4.245160E-2	5.414874E-2	5.756127E-2	4.618213E-2	5.360527E-2	5.436656E-2	4.083834E-2	5.270177E-2	3.646408E-2	5.325449E-2	4.283495E-2	5.992715E-2	6.299857E-2	5.147619E-2	4.352404E-2	5.443939E-2	3.834450E-2	5.597250E-2	5.959873E-2	5.045866E-2	6.164810E-2	4.703025E-2	3.836054E-2	5.024235E-2	4.810813E-2	4.348116E-2	6.564852E-2	4.106110E-2	2.814462E-2	5.623870E-2	5.234089E-2	4.420836E-2	4.108525E-2	4.748549E-2	5.664356E-2	4.536714E-2	4.258515E-2	4.101854E-2	4.881730E-2	4.538098E-2	4.579150E-2	3.804324E-2	4.631621E-2	5.279064E-2	4.357152E-2	4.245896E-2	3.960666E-2	4.030546E-2	5.105177E-2	4.944161E-2	4.105358E-2	5.575080E-2	6.293162E-2	4.846877E-2	5.448582E-2	5.378331E-2	3.616586E-2	4.057803E-2	5.178660E-2	5.551021E-2	4.101154E-2	5.431553E-2	4.289224E-2	5.444551E-2	6.015517E-2	5.140241E-2	4.886679E-2	4.902602E-2	3.897451E-2	4.931789E-2	4.622601E-2	3.875922E-2	4.501050E-2	7.127854E-2	6.335593E-2	5.339426E-2	3.462336E-2	4.828711E-2	4.862431E-2	4.756392E-2	5.560468E-2	4.979537E-2	4.584526E-2	5.788082E-2	4.764788E-2	5.143255E-2	4.837808E-2	3.292898E-2	4.225084E-2	4.915589E-2	5.088035E-2	3.953669E-2	5.149639E-2
5.339090E+2	5.811138E-2	6.686128E-2	5.235802E-2	6.090992E-2	5.587877E-2	5.590231E-2	7.904426E-2	6.807322E-2	6.447496E-2	5.537962E-2	6.719598E-2	5.425649E-2	4.710056E-2	6.582501E-2	7.483690E-2	6.123100E-2	9.719514E-2	6.702987E-2	6.178147E-2	8.194016E-2	8.748480E-2	7.419836E-2	7.743559E-2	5.087319E-2	6.997401E-2	6.994556E-2	5.820956E-2	4.790300E-2	6.332809E-2	8.759508E-2	6.619431E-2	7.305669E-2	6.118243E-2	5.680548E-2	7.300094E-2	7.184278E-2	6.315014E-2	6.766531E-2	8.269618E-2	6.695660E-2	5.708928E-2	5.829187E-2	5.187860E-2	6.260822E-2	6.894764E-2	6.760356E-2	7.126419E-2	5.901705E-2	7.420999E-2	6.844339E-2	5.366194E-2	5.813261E-2	9.259981E-2	7.273469E-2	6.018913E-2	6.159415E-2	6.870371E-2	7.113888E-2	5.152222E-2	6.989943E-2	5.749592E-2	7.027302E-2	6.790966E-2	6.781891E-2	5.671653E-2	7.095640E-2	7.826713E-2	6.445932E-2	8.122559E-2	6.908819E-2	6.253806E-2	7.076477E-2	7.199036E-2	7.484809E-2	7.251619E-2	6.416997E-2	5.809835E-2	7.466020E-2	6.992744E-2	7.041861E-2	3.902612E-2	6.973538E-2	7.502318E-2	6.548737E-2	6.943109E-2	6.744773E-2	7.815519E-2	7.198729E-2	6.282848E-2	6.296828E-2	6.131026E-2	7.900461E-2	5.823231E-2	8.002866E-2	5.316587E-2	6.778032E-2	5.641602E-2	5.681526E-2	5.071298E-2	4.333735E-2	4.195475E-2	6.862831E-2	5.454311E-2	6.036230E-2	5.317049E-2	5.639045E-2	5.557558E-2	9.027413E-2	7.574933E-2	6.233233E-2	5.889001E-2	6.891898E-2	6.624543E-2	8.115458E-2	7.035648E-2	6.648997E-2	5.479811E-2	7.003272E-2	6.895371E-2	7.771619E-2	7.132882E-2	5.290233E-2	6.415787E-2	8.903054E-2	7.424582E-2	5.743268E-2	7.076425E-2	7.300597E-2	6.127169E-2	5.366362E-2	5.829761E-2	8.004975E-2	5.580997E-2	8.021356E-2	6.368208E-2	8.065806E-2	7.771871E-2	7.093858E-2	7.019183E-2	7.666293E-2	5.504172E-2	6.415065E-2	5.709845E-2	5.421487E-2	7.426354E-2	7.930367E-2	5.341618E-2	6.145695E-2	7.383363E-2	6.174467E-2	7.920587E-2	6.710617E-2	7.094746E-2	6.115565E-2	7.611613E-2	7.784178E-2	7.514267E-2	7.083472E-2	5.938782E-2	7.986984E-2	6.444475E-2	7.660250E-2	5.334505E-2	8.897961E-2	7.266057E-2
5.340640E+2	7.894762E-2	9.873663E-2	8.618421E-2	1.028678E-1	8.339787E-2	7.433076E-2	9.915616E-2	1.058163E-1	9.709277E-2	1.067046E-1	9.751993E-2	9.529380E-2	8.494781E-2	9.566696E-2	9.864517E-2	9.901383E-2	1.521644E-1	1.062122E-1	1.172424E-1	1.033363E-1	1.141438E-1	9.983548E-2	9.776059E-2	1.201875E-1	1.086127E-1	1.050681E-1	1.099887E-1	1.222217E-1	9.127989E-2	9.053727E-2	9.906158E-2	1.104336E-1	9.424959E-2	9.618031E-2	1.122938E-1	1.134423E-1	1.018063E-1	8.853560E-2	1.138871E-1	1.054325E-1	8.647917E-2	1.147571E-1	1.181670E-1	1.170167E-1	1.164506E-1	1.011199E-1	1.098077E-1	9.717821E-2	1.082139E-1	9.702433E-2	9.403981E-2	1.127462E-1	1.089803E-1	1.095362E-1	8.995766E-2	8.567319E-2	1.242107E-1	1.163448E-1	1.092212E-1	9.559246E-2	1.035251E-1	9.905690E-2	9.642269E-2	1.141251E-1	9.928428E-2	1.012035E-1	8.936742E-2	8.929824E-2	1.062821E-1	8.952415E-2	1.130795E-1	8.569789E-2	1.133850E-1	1.198949E-1	1.032485E-1	1.011721E-1	1.149044E-1	1.133974E-1	1.007069E-1	1.170408E-1	1.241354E-1	1.110567E-1	1.209582E-1	1.157633E-1	1.048210E-1	1.031982E-1	1.079396E-1	1.122035E-1	9.384782E-2	1.095061E-1	1.102079E-1	9.990515E-2	1.030970E-1	1.158546E-1	8.535645E-2	1.045593E-1	1.187255E-1	9.321787E-2	1.114601E-1	1.034445E-1	9.527793E-2	9.665120E-2	9.415252E-2	1.249509E-1	1.092769E-1	1.069334E-1	1.059931E-1	1.070047E-1	9.941034E-2	9.838643E-2	1.056461E-1	1.023563E-1	1.144142E-1	1.055988E-1	8.778170E-2	9.515263E-2	1.202451E-1	1.188842E-1	9.698279E-2	9.435015E-2	1.027043E-1	1.063730E-1	1.142131E-1	8.455713E-2	1.184806E-1	9.543502E-2	1.227552E-1	1.051777E-1	9.858515E-2	1.109736E-1	1.091653E-1	8.577538E-2	8.650451E-2	1.280533E-1	1.049074E-1	1.150789E-1	7.786551E-2	9.108419E-2	1.061332E-1	1.061839E-1	1.059397E-1	9.972014E-2	8.963734E-2	1.059340E-1	1.065251E-1	1.026388E-1	1.093673E-1	1.265021E-1	1.017710E-1	9.235321E-2	1.134896E-1	9.473552E-2	8.928906E-2	9.696276E-2	9.923580E-2	1.196845E-1	1.144676E-1	1.105265E-1	1.054625E-1	1.101577E-1	9.178934E-2	9.478775E-2	1.106776E-1	1.095498E-1	9.363270E-2
5.342090E+2	1.455651E-1	1.602198E-1	1.288606E-1	1.153498E-1	1.422328E-1	1.300707E-1	1.601535E-1	1.617343E-1	1.483584E-1	1.545762E-1	1.147581E-1	1.250744E-1	1.104722E-1	1.360891E-1	1.469512E-1	1.255906E-1	1.864811E-1	1.677381E-1	1.687727E-1	1.569203E-1	1.668551E-1	1.342884E-1	1.464825E-1	1.417230E-1	1.524746E-1	1.657654E-1	1.476881E-1	1.306326E-1	1.485067E-1	1.538117E-1	1.520984E-1	1.500809E-1	1.483151E-1	1.385445E-1	1.368710E-1	1.348305E-1	1.493546E-1	1.297359E-1	1.748030E-1	1.704951E-1	1.600017E-1	1.515312E-1	1.436475E-1	1.504493E-1	1.456536E-1	1.581051E-1	1.621799E-1	1.646523E-1	1.581728E-1	1.218053E-1	1.283882E-1	1.402125E-1	1.489904E-1	1.660695E-1	1.456469E-1	1.438195E-1	1.326688E-1	1.658711E-1	1.420539E-1	1.375433E-1	1.566161E-1	1.331366E-1	1.308745E-1	1.259929E-1	1.540419E-1	1.459852E-1	1.686124E-1	1.646386E-1	1.269577E-1	1.417192E-1	1.223799E-1	1.604032E-1	1.609433E-1	1.412879E-1	1.473747E-1	1.321161E-1	1.606228E-1	1.501738E-1	1.523334E-1	1.507548E-1	1.359876E-1	1.414191E-1	1.217406E-1	1.386761E-1	1.603732E-1	1.583549E-1	1.722485E-1	1.370898E-1	1.416104E-1	1.186108E-1	1.409925E-1	1.544744E-1	1.584635E-1	1.536190E-1	1.358712E-1	1.319999E-1	1.610689E-1	1.496241E-1	1.597613E-1	1.361902E-1	1.361878E-1	1.457669E-1	1.369546E-1	1.341337E-1	1.477778E-1	1.604848E-1	1.468533E-1	1.387459E-1	1.375928E-1	1.283192E-1	1.375216E-1	1.208282E-1	1.617504E-1	1.403545E-1	1.282894E-1	1.624499E-1	1.451335E-1	1.550834E-1	1.362279E-1	1.602273E-1	1.472431E-1	1.761309E-1	1.421074E-1	1.494452E-1	1.295240E-1	1.504251E-1	1.390432E-1	1.408134E-1	1.393625E-1	1.456586E-1	1.436841E-1	1.454519E-1	1.400707E-1	1.718423E-1	1.490756E-1	1.310333E-1	1.501715E-1	1.515876E-1	1.422600E-1	1.525298E-1	1.272368E-1	1.284233E-1	1.441689E-1	1.582369E-1	1.435931E-1	1.550093E-1	1.552475E-1	1.570125E-1	1.479571E-1	1.383548E-1	1.498339E-1	1.372181E-1	1.220511E-1	1.583232E-1	1.399476E-1	1.403057E-1	1.412658E-1	1.278654E-1	1.347962E-1	1.657276E-1	1.518415E-1	1.544167E-1	1.361677E-1	1.982380E-1	1.117122E-1
5.343600E+2	2.095364E-1	2.142928E-1	2.212692E-1	2.402998E-1	2.353667E-1	2.180186E-1	2.434882E-1	2.175637E-1	2.336009E-1	2.348470E-1	2.336624E-1	2.668586E-1	2.372681E-1	2.509667E-1	2.326392E-1	2.224123E-1	3.420012E-1	3.216216E-1	3.079998E-1	3.039253E-1	2.979505E-1	2.641337E-1	2.934047E-1	2.512062E-1	2.923031E-1	2.763802E-1	2.722689E-1	2.784908E-1	2.490740E-1	2.831019E-1	2.644582E-1	2.620115E-1	2.689738E-1	2.678459E-1	2.526375E-1	2.835056E-1	2.695632E-1	2.351575E-1	2.583016E-1	2.437711E-1	3.057580E-1	2.515285E-1	2.702086E-1	2.439431E-1	2.996857E-1	2.123170E-1	2.559336E-1	2.562519E-1	2.749230E-1	2.678664E-1	2.432565E-1	2.418381E-1	2.612489E-1	2.730079E-1	2.552882E-1	2.505352E-1	2.638680E-1	2.606259E-1	2.327449E-1	2.405343E-1	2.515698E-1	2.505627E-1	2.308288E-1	2.296379E-1	2.444259E-1	2.870037E-1	2.494174E-1	2.672209E-1	2.591502E-1	2.522406E-1	2.429033E-1	2.546508E-1	2.749620E-1	2.750059E-1	2.792658E-1	2.558913E-1	2.796414E-1	2.689273E-1	2.432059E-1	2.760404E-1	2.462900E-1	2.664574E-1	2.814592E-1	2.503826E-1	2.448377E-1	2.336089E-1	2.640292E-1	2.377345E-1	2.781623E-1	2.653182E-1	2.492634E-1	2.432560E-1	2.276285E-1	2.683137E-1	2.474621E-1	2.777020E-1	2.613219E-1	2.494839E-1	2.501391E-1	2.370603E-1	2.381149E-1	2.467054E-1	2.387925E-1	2.489888E-1	2.670125E-1	2.850759E-1	2.639355E-1	2.511200E-1	2.413625E-1	2.579460E-1	2.639250E-1	2.733752E-1	2.446953E-1	2.389619E-1	2.584492E-1	2.463586E-1	2.437452E-1	2.515517E-1	2.539446E-1	2.435588E-1	2.477512E-1	2.441849E-1	2.527442E-1	2.787712E-1	2.279911E-1	2.510946E-1	2.633071E-1	2.576963E-1	2.328276E-1	2.756559E-1	2.428398E-1	2.470074E-1	2.738735E-1	2.612777E-1	2.210149E-1	2.655449E-1	2.305747E-1	2.295186E-1	2.756947E-1	2.585904E-1	2.621913E-1	2.315609E-1	2.457591E-1	2.517355E-1	2.629810E-1	2.663597E-1	2.287360E-1	2.350770E-1	2.524820E-1	2.402307E-1	2.461031E-1	2.272035E-1	2.246561E-1	2.562883E-1	2.297328E-1	2.312819E-1	2.420991E-1	2.298736E-1	2.579968E-1	2.561167E-1	2.709839E-1	2.519716E-1	2.614686E-1	2.310182E-1	2.392442E-1
5.345160E+2	4.010769E-1	4.373553E-1	4.045755E-1	4.121781E-1	4.075364E-1	4.175695E-1	3.914239E-1	4.258882E-1	4.169343E-1	3.806310E-1	4.254002E-1	4.116100E-1	3.786216E-1	4.222071E-1	3.936427E-1	4.025495E-1	5.794698E-1	4.995354E-1	4.894655E-1	5.111932E-1	4.762543E-1	4.555087E-1	4.787376E-1	4.577232E-1	4.701555E-1	4.574349E-1	4.198039E-1	4.561404E-1	4.501189E-1	4.572373E-1	4.442507E-1	4.357992E-1	4.343945E-1	4.632823E-1	4.651632E-1	4.496404E-1	4.497177E-1	4.483205E-1	4.320759E-1	4.704163E-1	4.506925E-1	4.723148E-1	4.427347E-1	4.143624E-1	4.545539E-1	4.091992E-1	4.173954E-1	4.578451E-1	5.008846E-1	4.282949E-1	4.554116E-1	4.326275E-1	4.434343E-1	4.410027E-1	4.474592E-1	4.268796E-1	4.239445E-1	4.666427E-1	4.334052E-1	4.108548E-1	4.395391E-1	4.186127E-1	4.146704E-1	4.309518E-1	4.480327E-1	4.356773E-1	4.078493E-1	4.609206E-1	4.549405E-1	4.336469E-1	4.747338E-1	4.107061E-1	4.469749E-1	4.242742E-1	4.045837E-1	4.200382E-1	4.463719E-1	4.255823E-1	4.262622E-1	4.440786E-1	4.291966E-1	4.565439E-1	4.351379E-1	4.436558E-1	4.717556E-1	4.342721E-1	4.428318E-1	4.770111E-1	4.492971E-1	4.533112E-1	4.519461E-1	4.559066E-1	4.339411E-1	4.097668E-1	4.300962E-1	4.494121E-1	4.407782E-1	4.340463E-1	4.377744E-1	4.430698E-1	4.722819E-1	4.327667E-1	4.541595E-1	4.166104E-1	4.179263E-1	4.836092E-1	4.314599E-1	4.166290E-1	4.139360E-1	4.207687E-1	4.166782E-1	4.490655E-1	4.647071E-1	4.229142E-1	4.466602E-1	4.208514E-1	4.592125E-1	4.405747E-1	4.215146E-1	4.398453E-1	4.255357E-1	4.564120E-1	4.097345E-1	4.625326E-1	4.357623E-1	4.117721E-1	4.113023E-1	4.414682E-1	4.488171E-1	4.151877E-1	4.363677E-1	4.463973E-1	4.417939E-1	4.652617E-1	3.847007E-1	4.571543E-1	4.068319E-1	4.580823E-1	4.485827E-1	4.493927E-1	4.501324E-1	4.085836E-1	4.654460E-1	4.334967E-1	4.350935E-1	4.410614E-1	4.114671E-1	4.429765E-1	4.656960E-1	4.192160E-1	4.586801E-1	3.906640E-1	4.545616E-1	4.429416E-1	4.309484E-1	4.358098E-1	4.136584E-1	4.522293E-1	4.404524E-1	4.631956E-1	4.603722E-1	3.780157E-1	3.645543E-1	4.686957E-1	4.121686E-1
5.346620E+2	6.761270E-1	6.653086E-1	6.768715E-1	6.481912E-1	6.947059E-1	6.565846E-1	7.009116E-1	6.771835E-1	6.942180E-1	6.392375E-1	6.926045E-1	6.630131E-1	6.427163E-1	6.809237E-1	6.902641E-1	6.714251E-1	8.534287E-1	7.987016E-1	7.195713E-1	7.653485E-1	7.849044E-1	7.299054E-1	7.048230E-1	7.615494E-1	7.813526E-1	7.315383E-1	6.835146E-1	7.770460E-1	7.094374E-1	7.215800E-1	7.107308E-1	7.224667E-1	7.145286E-1	7.147169E-1	7.076168E-1	7.254368E-1	7.070569E-1	7.333829E-1	7.203344E-1	6.851070E-1	7.581419E-1	7.146894E-1	7.099048E-1	6.866258E-1	7.503544E-1	7.136411E-1	7.019930E-1	7.473717E-1	7.317245E-1	6.821571E-1	7.509929E-1	6.934886E-1	7.608158E-1	6.913020E-1	6.941199E-1	7.116685E-1	6.896557E-1	6.842118E-1	7.126767E-1	7.601739E-1	6.920868E-1	6.683896E-1	6.882723E-1	6.941129E-1	6.976522E-1	7.239835E-1	6.827483E-1	6.794581E-1	7.524236E-1	6.847367E-1	7.066145E-1	7.093647E-1	7.858473E-1	7.162792E-1	6.941262E-1	6.913997E-1	7.277821E-1	7.240586E-1	6.850805E-1	7.118085E-1	7.081721E-1	7.362151E-1	7.456909E-1	7.050770E-1	7.129278E-1	7.311208E-1	7.027806E-1	7.028248E-1	6.828818E-1	6.934220E-1	7.103203E-1	6.850818E-1	7.173105E-1	6.878442E-1	7.056503E-1	6.923542E-1	7.542446E-1	7.065388E-1	7.346029E-1	7.092321E-1	7.089364E-1	6.749263E-1	7.123122E-1	6.964842E-1	7.075927E-1	7.248439E-1	7.000443E-1	7.310108E-1	6.642917E-1	6.981706E-1	6.742809E-1	7.098437E-1	6.892789E-1	6.616743E-1	7.297016E-1	7.293143E-1	6.999897E-1	7.314375E-1	6.731782E-1	7.306362E-1	6.873851E-1	6.555463E-1	6.978230E-1	6.805482E-1	6.739971E-1	6.518104E-1	6.606490E-1	6.916003E-1	7.696008E-1	6.829802E-1	6.952300E-1	6.814279E-1	7.073444E-1	6.907285E-1	7.140562E-1	7.042064E-1	7.035747E-1	6.884346E-1	7.185282E-1	7.034341E-1	7.035088E-1	6.913916E-1	6.790251E-1	6.979427E-1	7.117882E-1	6.955249E-1	7.373943E-1	6.841754E-1	6.898659E-1	6.816641E-1	6.972460E-1	6.658778E-1	7.455268E-1	6.914849E-1	7.048407E-1	7.465262E-1	6.823140E-1	7.171731E-1	6.723444E-1	7.312299E-1	7.096424E-1	6.971436E-1	7.065824E-1	7.175540E-1	7.092601E-1
5.348070E+2	1.016488E+0	1.091617E+0	1.015955E+0	1.036837E+0	1.039253E+0	1.000923E+0	9.856420E-1	1.011730E+0	1.054729E+0	1.041350E+0	1.058045E+0	1.040485E+0	9.948960E-1	1.012862E+0	1.009927E+0	1.048801E+0	1.245195E+0	1.151790E+0	1.164033E+0	1.075905E+0	1.147433E+0	1.127240E+0	1.107088E+0	1.076111E+0	1.108267E+0	1.092923E+0	1.130401E+0	1.074830E+0	1.046071E+0	1.078587E+0	1.125370E+0	1.107955E+0	1.107142E+0	1.036642E+0	1.068512E+0	1.094787E+0	1.092677E+0	1.101097E+0	1.090237E+0	1.074502E+0	1.077508E+0	1.097885E+0	1.099601E+0	1.098294E+0	1.059252E+0	1.119390E+0	1.011017E+0	1.070993E+0	1.094412E+0	1.015554E+0	1.113387E+0	1.025912E+0	1.054324E+0	1.060408E+0	1.126399E+0	1.087779E+0	1.025655E+0	1.077487E+0	1.070620E+0	1.025450E+0	1.060058E+0	1.018741E+0	9.998987E-1	1.081815E+0	1.133758E+0	1.078207E+0	1.026133E+0	1.070770E+0	1.073201E+0	1.045450E+0	1.071516E+0	1.039984E+0	1.075049E+0	1.113413E+0	1.013706E+0	1.075567E+0	1.124961E+0	1.048364E+0	1.030252E+0	1.034042E+0	1.100552E+0	1.035666E+0	1.077561E+0	1.072933E+0	1.132207E+0	1.033794E+0	1.113014E+0	1.041140E+0	1.043590E+0	1.034736E+0	1.050174E+0	1.077120E+0	1.084919E+0	1.038358E+0	9.785978E-1	1.021268E+0	1.067099E+0	9.652480E-1	1.054827E+0	1.094893E+0	1.006964E+0	1.091449E+0	1.090325E+0	1.019805E+0	1.094694E+0	1.050966E+0	1.052274E+0	1.053129E+0	1.087855E+0	1.023662E+0	1.056749E+0	1.050115E+0	1.085344E+0	1.061514E+0	1.092590E+0	1.024279E+0	1.036009E+0	1.056567E+0	1.038522E+0	1.032789E+0	9.968356E-1	1.053251E+0	1.045912E+0	1.062033E+0	1.052682E+0	1.030017E+0	1.072989E+0	1.013876E+0	1.025715E+0	1.011658E+0	1.033308E+0	1.058983E+0	1.017928E+0	1.033666E+0	1.027897E+0	1.028164E+0	1.022940E+0	1.047199E+0	1.044403E+0	1.078541E+0	1.011572E+0	1.066060E+0	1.058900E+0	1.037792E+0	1.085069E+0	1.047790E+0	1.072313E+0	9.728392E-1	1.066215E+0	1.030797E+0	1.036886E+0	1.028296E+0	1.053380E+0	1.073723E+0	9.893225E-1	1.044381E+0	1.014287E+0	1.061358E+0	1.033338E+0	1.089078E+0	1.041789E+0	1.059669E+0	9.970984E-1	1.009187E+0	9.845722E-1
5.349630E+2	1.434279E+0	1.523988E+0	1.413846E+0	1.385817E+0	1.392558E+0	1.383097E+0	1.410488E+0	1.462560E+0	1.435295E+0	1.386992E+0	1.477780E+0	1.436688E+0	1.453470E+0	1.461932E+0	1.462459E+0	1.413800E+0	1.588337E+0	1.486875E+0	1.517083E+0	1.460808E+0	1.555258E+0	1.474019E+0	1.500485E+0	1.492441E+0	1.462223E+0	1.466936E+0	1.486823E+0	1.500457E+0	1.434542E+0	1.450764E+0	1.443317E+0	1.470514E+0	1.505049E+0	1.415121E+0	1.446349E+0	1.472255E+0	1.480490E+0	1.477467E+0	1.396312E+0	1.465751E+0	1.437447E+0	1.502727E+0	1.463065E+0	1.503836E+0	1.410287E+0	1.441769E+0	1.454986E+0	1.440986E+0	1.519329E+0	1.484257E+0	1.485548E+0	1.445616E+0	1.492473E+0	1.448428E+0	1.463942E+0	1.457111E+0	1.531626E+0	1.433121E+0	1.461072E+0	1.476973E+0	1.472443E+0	1.461065E+0	1.409840E+0	1.443640E+0	1.518544E+0	1.404946E+0	1.400279E+0	1.406984E+0	1.475306E+0	1.437393E+0	1.501912E+0	1.465878E+0	1.540688E+0	1.502645E+0	1.388978E+0	1.486098E+0	1.504756E+0	1.408465E+0	1.393048E+0	1.472441E+0	1.490738E+0	1.481401E+0	1.421927E+0	1.414226E+0	1.431179E+0	1.505010E+0	1.530347E+0	1.446019E+0	1.505792E+0	1.468182E+0	1.486161E+0	1.433549E+0	1.429848E+0	1.366259E+0	1.437925E+0	1.410592E+0	1.475213E+0	1.378668E+0	1.449135E+0	1.412802E+0	1.497575E+0	1.392232E+0	1.403644E+0	1.423067E+0	1.517560E+0	1.455518E+0	1.398732E+0	1.508027E+0	1.471275E+0	1.455397E+0	1.501469E+0	1.366852E+0	1.392492E+0	1.440685E+0	1.436617E+0	1.468099E+0	1.467215E+0	1.463880E+0	1.428796E+0	1.432922E+0	1.417858E+0	1.511993E+0	1.408965E+0	1.427831E+0	1.464343E+0	1.428654E+0	1.468657E+0	1.405280E+0	1.392216E+0	1.350964E+0	1.426128E+0	1.429763E+0	1.470779E+0	1.392174E+0	1.416327E+0	1.433359E+0	1.495093E+0	1.495839E+0	1.406807E+0	1.470838E+0	1.431194E+0	1.428746E+0	1.382110E+0	1.418712E+0	1.410194E+0	1.362239E+0	1.371980E+0	1.427059E+0	1.433564E+0	1.440378E+0	1.438801E+0	1.400614E+0	1.480331E+0	1.421597E+0	1.372055E+0	1.448534E+0	1.384869E+0	1.385498E+0	1.406123E+0	1.382146E+0	1.428137E+0	1.471745E+0	1.364784E+0	1.495140E+0	1.325925E+0
5.351090E+2	1.714720E+0	1.739802E+0	1.657390E+0	1.639541E+0	1.712196E+0	1.710039E+0	1.716357E+0	1.657683E+0	1.711472E+0	1.656259E+0	1.672357E+0	1.723535E+0	1.755875E+0	1.665358E+0	1.662837E+0	1.654527E+0	1.838106E+0	1.647524E+0	1.719897E+0	1.715848E+0	1.755836E+0	1.729698E+0	1.691018E+0	1.683906E+0	1.768733E+0	1.737613E+0	1.756626E+0	1.738012E+0	1.712551E+0	1.687235E+0	1.667174E+0	1.728169E+0	1.756833E+0	1.746066E+0	1.692050E+0	1.749187E+0	1.737977E+0	1.711673E+0	1.833005E+0	1.765371E+0	1.788157E+0	1.730111E+0	1.740764E+0	1.668576E+0	1.710560E+0	1.726122E+0	1.696695E+0	1.675789E+0	1.716878E+0	1.723445E+0	1.722515E+0	1.714764E+0	1.716630E+0	1.665737E+0	1.748723E+0	1.727266E+0	1.709086E+0	1.734246E+0	1.705594E+0	1.697597E+0	1.736685E+0	1.659611E+0	1.676508E+0	1.681263E+0	1.712524E+0	1.669087E+0	1.688890E+0	1.665599E+0	1.767668E+0	1.665624E+0	1.670988E+0	1.655479E+0	1.719860E+0	1.719819E+0	1.669497E+0	1.717094E+0	1.787072E+0	1.661594E+0	1.693204E+0	1.666553E+0	1.685381E+0	1.716143E+0	1.683793E+0	1.729639E+0	1.728956E+0	1.721916E+0	1.686669E+0	1.622429E+0	1.696628E+0	1.728075E+0	1.763989E+0	1.573463E+0	1.693023E+0	1.597516E+0	1.676028E+0	1.696781E+0	1.762584E+0	1.631318E+0	1.706464E+0	1.654267E+0	1.715635E+0	1.695540E+0	1.636020E+0	1.728199E+0	1.657259E+0	1.688408E+0	1.650473E+0	1.742556E+0	1.719170E+0	1.674755E+0	1.681230E+0	1.706169E+0	1.687740E+0	1.539671E+0	1.738759E+0	1.773801E+0	1.633317E+0	1.674603E+0	1.740713E+0	1.726099E+0	1.656191E+0	1.724753E+0	1.631664E+0	1.702929E+0	1.680288E+0	1.632180E+0	1.685498E+0	1.669964E+0	1.706630E+0	1.634896E+0	1.639162E+0	1.622133E+0	1.703565E+0	1.643724E+0	1.624242E+0	1.675424E+0	1.696036E+0	1.757972E+0	1.750226E+0	1.709494E+0	1.674997E+0	1.620500E+0	1.534582E+0	1.659586E+0	1.734787E+0	1.617506E+0	1.680191E+0	1.636605E+0	1.695476E+0	1.667440E+0	1.596245E+0	1.643976E+0	1.727204E+0	1.628337E+0	1.646906E+0	1.681076E+0	1.576010E+0	1.649782E+0	1.650891E+0	1.684827E+0	1.647682E+0	1.624528E+0	1.557842E+0	1.748572E+0	1.577610E+0
5.352550E+2	1.979209E+0	2.065288E+0	1.938300E+0	1.961491E+0	1.983711E+0	2.010284E+0	1.894530E+0	1.987526E+0	1.931306E+0	1.976893E+0	1.983637E+0	1.932971E+0	1.949618E+0	1.987570E+0	1.947808E+0	1.863032E+0	1.975438E+0	1.931931E+0	1.872932E+0	1.936929E+0	1.929416E+0	1.941929E+0	1.960786E+0	1.929978E+0	1.953681E+0	1.969352E+0	1.951575E+0	1.888843E+0	1.888024E+0	1.889099E+0	1.865855E+0	1.972196E+0	1.977034E+0	1.923049E+0	1.917264E+0	1.906766E+0	1.986777E+0	1.956766E+0	2.053659E+0	1.924950E+0	1.948648E+0	1.961504E+0	1.998480E+0	1.879202E+0	1.948995E+0	1.977865E+0	1.925319E+0	1.917431E+0	2.032073E+0	1.954410E+0	2.024421E+0	1.986131E+0	1.930482E+0	1.908398E+0	1.929200E+0	1.956555E+0	1.888573E+0	1.985181E+0	1.906059E+0	1.944111E+0	1.882693E+0	1.914373E+0	1.874371E+0	1.981705E+0	1.971750E+0	1.946354E+0	1.844672E+0	1.944557E+0	1.872740E+0	1.957121E+0	1.963885E+0	1.858762E+0	2.000033E+0	1.876814E+0	1.855731E+0	1.879415E+0	1.956668E+0	1.848693E+0	1.879976E+0	1.930081E+0	1.995724E+0	1.942343E+0	1.828768E+0	1.884227E+0	1.987377E+0	1.921780E+0	1.982982E+0	1.903167E+0	1.977486E+0	2.014940E+0	1.878308E+0	1.801286E+0	1.929283E+0	1.883975E+0	1.922941E+0	1.858991E+0	1.980327E+0	1.870234E+0	1.943116E+0	1.904208E+0	1.929562E+0	1.927106E+0	1.880670E+0	1.939424E+0	1.908291E+0	1.851881E+0	1.875909E+0	1.901266E+0	1.919797E+0	1.847255E+0	1.872902E+0	1.822322E+0	1.916381E+0	1.804248E+0	1.894921E+0	1.904012E+0	1.853110E+0	1.956452E+0	1.916793E+0	1.900488E+0	1.939989E+0	1.981412E+0	1.858826E+0	1.890747E+0	1.880031E+0	1.905224E+0	1.918634E+0	1.861998E+0	1.894906E+0	1.847478E+0	1.871675E+0	1.828047E+0	1.906865E+0	1.990754E+0	1.890418E+0	1.882560E+0	1.914817E+0	1.904121E+0	1.861938E+0	1.927224E+0	1.952784E+0	1.909375E+0	1.862733E+0	1.898196E+0	1.921687E+0	1.845790E+0	1.890453E+0	1.872273E+0	1.943457E+0	1.923288E+0	1.893053E+0	1.776614E+0	1.889622E+0	1.936233E+0	1.774521E+0	1.898989E+0	1.830032E+0	1.842906E+0	1.841518E+0	1.927270E+0	1.865935E+0	1.802304E+0	1.815576E+0	1.834291E+0	1.725945E+0
5.354110E+2	2.147638E+0	2.215341E+0	2.085508E+0	2.061850E+0	2.107487E+0	2.089355E+0	2.103056E+0	1.993862E+0	2.023212E+0	2.094014E+0	2.053743E+0	2.071432E+0	2.108314E+0	2.064022E+0	2.062853E+0	2.096164E+0	2.126019E+0	2.036399E+0	1.997665E+0	2.050747E+0	2.128977E+0	2.069219E+0	1.992040E+0	2.068577E+0	2.111295E+0	2.106432E+0	2.115136E+0	1.999044E+0	2.043872E+0	2.024127E+0	1.961314E+0	2.110628E+0	2.094878E+0	2.020188E+0	2.019784E+0	2.033970E+0	2.032537E+0	2.075445E+0	2.041776E+0	2.034580E+0	2.003438E+0	2.076212E+0	2.070163E+0	2.009439E+0	2.096357E+0	2.041505E+0	2.035682E+0	1.993998E+0	2.063775E+0	2.033116E+0	2.029528E+0	2.026436E+0	2.060584E+0	1.983730E+0	2.025050E+0	2.093104E+0	2.061185E+0	2.140175E+0	2.035463E+0	2.082457E+0	2.029050E+0	1.965866E+0	1.859244E+0	2.022021E+0	2.060203E+0	2.054600E+0	2.066076E+0	2.016666E+0	2.086870E+0	1.991578E+0	1.992890E+0	2.101273E+0	2.093735E+0	2.060098E+0	2.068206E+0	1.957677E+0	2.147515E+0	2.008782E+0	1.993961E+0	1.955562E+0	2.124968E+0	1.983846E+0	2.044076E+0	2.023767E+0	1.970057E+0	2.110876E+0	2.071143E+0	2.043978E+0	2.055991E+0	2.040118E+0	2.021222E+0	2.027561E+0	1.969973E+0	1.970675E+0	1.960321E+0	2.046700E+0	2.059742E+0	1.960892E+0	2.013149E+0	1.986413E+0	2.050632E+0	1.955671E+0	1.916538E+0	2.066354E+0	2.055273E+0	1.989044E+0	2.047834E+0	2.074877E+0	1.999510E+0	1.974209E+0	1.922468E+0	2.055600E+0	1.980264E+0	1.945869E+0	1.954796E+0	1.958280E+0	1.999250E+0	1.959620E+0	1.976526E+0	2.047328E+0	1.988005E+0	2.055401E+0	2.029258E+0	1.940662E+0	1.977096E+0	1.986138E+0	2.019820E+0	1.932824E+0	2.021046E+0	1.917333E+0	2.049446E+0	1.986386E+0	1.961535E+0	1.986487E+0	1.968529E+0	2.030293E+0	2.000946E+0	1.975827E+0	2.017827E+0	2.035396E+0	1.942234E+0	1.928910E+0	1.936713E+0	1.973631E+0	1.968980E+0	1.978991E+0	2.041836E+0	1.973206E+0	2.092141E+0	1.979566E+0	1.944570E+0	1.943282E+0	2.016496E+0	2.038694E+0	1.940553E+0	1.996016E+0	1.882563E+0	1.943720E+0	1.966920E+0	2.048584E+0	1.948832E+0	1.882584E+0	1.911390E+0	2.000039E+0	1.814826E+0
5.355630E+2	1.777636E+0	1.859429E+0	1.766949E+0	1.800761E+0	1.773781E+0	1.814688E+0	1.766250E+0	1.786881E+0	1.765901E+0	1.783764E+0	1.781875E+0	1.744722E+0	1.803292E+0	1.781882E+0	1.780840E+0	1.728595E+0	1.762945E+0	1.702207E+0	1.685799E+0	1.777420E+0	1.749725E+0	1.773832E+0	1.740870E+0	1.752732E+0	1.726210E+0	1.732346E+0	1.736269E+0	1.838398E+0	1.725492E+0	1.684132E+0	1.713183E+0	1.732471E+0	1.705345E+0	1.793292E+0	1.740643E+0	1.716255E+0	1.791490E+0	1.872999E+0	1.739496E+0	1.788984E+0	1.788931E+0	1.755896E+0	1.687121E+0	1.708024E+0	1.834019E+0	1.745982E+0	1.714141E+0	1.708099E+0	1.800317E+0	1.763297E+0	1.823484E+0	1.782624E+0	1.726571E+0	1.778231E+0	1.726021E+0	1.793148E+0	1.739882E+0	1.775883E+0	1.719461E+0	1.718130E+0	1.760575E+0	1.695346E+0	1.675731E+0	1.805154E+0	1.730212E+0	1.739313E+0	1.727324E+0	1.769622E+0	1.735818E+0	1.705776E+0	1.739185E+0	1.769509E+0	1.810006E+0	1.874887E+0	1.678503E+0	1.754644E+0	1.805087E+0	1.744913E+0	1.688592E+0	1.766333E+0	1.781027E+0	1.730482E+0	1.737864E+0	1.725598E+0	1.796842E+0	1.777534E+0	1.780390E+0	1.700138E+0	1.817289E+0	1.752976E+0	1.737615E+0	1.818800E+0	1.753316E+0	1.715812E+0	1.716167E+0	1.733405E+0	1.756055E+0	1.719167E+0	1.700150E+0	1.688198E+0	1.789737E+0	1.779657E+0	1.657388E+0	1.706586E+0	1.836618E+0	1.778321E+0	1.695599E+0	1.748720E+0	1.708664E+0	1.753927E+0	1.749345E+0	1.784620E+0	1.690044E+0	1.585567E+0	1.754947E+0	1.735859E+0	1.743944E+0	1.767037E+0	1.759128E+0	1.747223E+0	1.739630E+0	1.752653E+0	1.680969E+0	1.746924E+0	1.650771E+0	1.660013E+0	1.702046E+0	1.694122E+0	1.757154E+0	1.691675E+0	1.675299E+0	1.739648E+0	1.778259E+0	1.741171E+0	1.666846E+0	1.673963E+0	1.728191E+0	1.661370E+0	1.753554E+0	1.709596E+0	1.734611E+0	1.726788E+0	1.704168E+0	1.665618E+0	1.782480E+0	1.676851E+0	1.760715E+0	1.686076E+0	1.788015E+0	1.739521E+0	1.749935E+0	1.649024E+0	1.789566E+0	1.710982E+0	1.701350E+0	1.765448E+0	1.750432E+0	1.646454E+0	1.716459E+0	1.750561E+0	1.729185E+0	1.761655E+0	1.615793E+0	1.703681E+0	1.720701E+0
5.357250E+2	1.548283E+0	1.702521E+0	1.631501E+0	1.572015E+0	1.588205E+0	1.639551E+0	1.661284E+0	1.577259E+0	1.616836E+0	1.608153E+0	1.626420E+0	1.591545E+0	1.601282E+0	1.616635E+0	1.595016E+0	1.645745E+0	1.581042E+0	1.562358E+0	1.609968E+0	1.617105E+0	1.588665E+0	1.592330E+0	1.654999E+0	1.582523E+0	1.588967E+0	1.626480E+0	1.632599E+0	1.566574E+0	1.554011E+0	1.617820E+0	1.567725E+0	1.620119E+0	1.597694E+0	1.627985E+0	1.579966E+0	1.576141E+0	1.667646E+0	1.672324E+0	1.624782E+0	1.594082E+0	1.518183E+0	1.692421E+0	1.666352E+0	1.672626E+0	1.607659E+0	1.617030E+0	1.591688E+0	1.597913E+0	1.640718E+0	1.581106E+0	1.627474E+0	1.541584E+0	1.577982E+0	1.533553E+0	1.589188E+0	1.646921E+0	1.571509E+0	1.617681E+0	1.615466E+0	1.599824E+0	1.526212E+0	1.544569E+0	1.528030E+0	1.591465E+0	1.660569E+0	1.570228E+0	1.549683E+0	1.588113E+0	1.596102E+0	1.600642E+0	1.606356E+0	1.621018E+0	1.618015E+0	1.679215E+0	1.578329E+0	1.583840E+0	1.613626E+0	1.577184E+0	1.630066E+0	1.628130E+0	1.627553E+0	1.598325E+0	1.584088E+0	1.507897E+0	1.646136E+0	1.586845E+0	1.603313E+0	1.578161E+0	1.600346E+0	1.541882E+0	1.609821E+0	1.610056E+0	1.578635E+0	1.532338E+0	1.525681E+0	1.553785E+0	1.592100E+0	1.558238E+0	1.657489E+0	1.561566E+0	1.554141E+0	1.614701E+0	1.561441E+0	1.552947E+0	1.627901E+0	1.622932E+0	1.610787E+0	1.597318E+0	1.577813E+0	1.597191E+0	1.614623E+0	1.613575E+0	1.577178E+0	1.477284E+0	1.570413E+0	1.585282E+0	1.584300E+0	1.554928E+0	1.660386E+0	1.553427E+0	1.560371E+0	1.588625E+0	1.538091E+0	1.595038E+0	1.522785E+0	1.601640E+0	1.614554E+0	1.559949E+0	1.642634E+0	1.551948E+0	1.604891E+0	1.566116E+0	1.604479E+0	1.626599E+0	1.529786E+0	1.593497E+0	1.588216E+0	1.579060E+0	1.663308E+0	1.581101E+0	1.621946E+0	1.658970E+0	1.560708E+0	1.575884E+0	1.556204E+0	1.546807E+0	1.552639E+0	1.545777E+0	1.583943E+0	1.549485E+0	1.535018E+0	1.540468E+0	1.583639E+0	1.569532E+0	1.533013E+0	1.627218E+0	1.545900E+0	1.518871E+0	1.529376E+0	1.570960E+0	1.540346E+0	1.531819E+0	1.457244E+0	1.565046E+0	1.514278E+0
5.358550E+2	1.469961E+0	1.586341E+0	1.490805E+0	1.456567E+0	1.535169E+0	1.546576E+0	1.519110E+0	1.488490E+0	1.521445E+0	1.567940E+0	1.494475E+0	1.561914E+0	1.501217E+0	1.535856E+0	1.505588E+0	1.532083E+0	1.517613E+0	1.472146E+0	1.451616E+0	1.500542E+0	1.507614E+0	1.559828E+0	1.529197E+0	1.524528E+0	1.508506E+0	1.569460E+0	1.476398E+0	1.524185E+0	1.476398E+0	1.462386E+0	1.473473E+0	1.494620E+0	1.506356E+0	1.580929E+0	1.529057E+0	1.514962E+0	1.468664E+0	1.556977E+0	1.541527E+0	1.534031E+0	1.507327E+0	1.477184E+0	1.551885E+0	1.530224E+0	1.459453E+0	1.503937E+0	1.532638E+0	1.540827E+0	1.550748E+0	1.566630E+0	1.554304E+0	1.510837E+0	1.488914E+0	1.485449E+0	1.524513E+0	1.575197E+0	1.501510E+0	1.552020E+0	1.538789E+0	1.484793E+0	1.531195E+0	1.484690E+0	1.506085E+0	1.481655E+0	1.519422E+0	1.528451E+0	1.512498E+0	1.461697E+0	1.482704E+0	1.527024E+0	1.533767E+0	1.526405E+0	1.448117E+0	1.583359E+0	1.438172E+0	1.434028E+0	1.529713E+0	1.527597E+0	1.490744E+0	1.541593E+0	1.540137E+0	1.516875E+0	1.492668E+0	1.527469E+0	1.512808E+0	1.589208E+0	1.583019E+0	1.442745E+0	1.550392E+0	1.528347E+0	1.472931E+0	1.496263E+0	1.473794E+0	1.485136E+0	1.498811E+0	1.451509E+0	1.493565E+0	1.502289E+0	1.531584E+0	1.522083E+0	1.539717E+0	1.534972E+0	1.485378E+0	1.509563E+0	1.518314E+0	1.505019E+0	1.481665E+0	1.558573E+0	1.548637E+0	1.553744E+0	1.497695E+0	1.549245E+0	1.521837E+0	1.473433E+0	1.500103E+0	1.488934E+0	1.482512E+0	1.494368E+0	1.511463E+0	1.477013E+0	1.523807E+0	1.535490E+0	1.506842E+0	1.461754E+0	1.489257E+0	1.469813E+0	1.522932E+0	1.512602E+0	1.574216E+0	1.464971E+0	1.455077E+0	1.490198E+0	1.574806E+0	1.501072E+0	1.567995E+0	1.533013E+0	1.469822E+0	1.510669E+0	1.528806E+0	1.519468E+0	1.545725E+0	1.493768E+0	1.479590E+0	1.492479E+0	1.501022E+0	1.503864E+0	1.491692E+0	1.453954E+0	1.498113E+0	1.523237E+0	1.507610E+0	1.486091E+0	1.541218E+0	1.499386E+0	1.401162E+0	1.573594E+0	1.415910E+0	1.492089E+0	1.504629E+0	1.449712E+0	1.407324E+0	1.454351E+0	1.378049E+0	1.517838E+0	1.439027E+0
5.360120E+2	1.229545E+0	1.269558E+0	1.223222E+0	1.188390E+0	1.236239E+0	1.260104E+0	1.202317E+0	1.200170E+0	1.203405E+0	1.208004E+0	1.257846E+0	1.259509E+0	1.299464E+0	1.248887E+0	1.216597E+0	1.234032E+0	1.222326E+0	1.154043E+0	1.235466E+0	1.275673E+0	1.265435E+0	1.222946E+0	1.215202E+0	1.249610E+0	1.264202E+0	1.250944E+0	1.189124E+0	1.217641E+0	1.220470E+0	1.201015E+0	1.217594E+0	1.210002E+0	1.250291E+0	1.200648E+0	1.196573E+0	1.240111E+0	1.273272E+0	1.246609E+0	1.237782E+0	1.265485E+0	1.154383E+0	1.249694E+0	1.228598E+0	1.203494E+0	1.266658E+0	1.251232E+0	1.181786E+0	1.182571E+0	1.201968E+0	1.280913E+0	1.228425E+0	1.152568E+0	1.184187E+0	1.229947E+0	1.267968E+0	1.238611E+0	1.187026E+0	1.218995E+0	1.244015E+0	1.231480E+0	1.204455E+0	1.205756E+0	1.193140E+0	1.159186E+0	1.261955E+0	1.226199E+0	1.188936E+0	1.238600E+0	1.181753E+0	1.222404E+0	1.208986E+0	1.277609E+0	1.228509E+0	1.237641E+0	1.188088E+0	1.204187E+0	1.282116E+0	1.227566E+0	1.209010E+0	1.189847E+0	1.225590E+0	1.229171E+0	1.264741E+0	1.252249E+0	1.207095E+0	1.248019E+0	1.268039E+0	1.273085E+0	1.251634E+0	1.224782E+0	1.220678E+0	1.230360E+0	1.186287E+0	1.241108E+0	1.189990E+0	1.242863E+0	1.218881E+0	1.246369E+0	1.216959E+0	1.218781E+0	1.224677E+0	1.206313E+0	1.227053E+0	1.178956E+0	1.251895E+0	1.184977E+0	1.228334E+0	1.252153E+0	1.210868E+0	1.176950E+0	1.178884E+0	1.166459E+0	1.327071E+0	1.166160E+0	1.238032E+0	1.243672E+0	1.204054E+0	1.284922E+0	1.262686E+0	1.214956E+0	1.199826E+0	1.269927E+0	1.222947E+0	1.220737E+0	1.215378E+0	1.232506E+0	1.225060E+0	1.214057E+0	1.233316E+0	1.181104E+0	1.154913E+0	1.144841E+0	1.162333E+0	1.221527E+0	1.206531E+0	1.178556E+0	1.238937E+0	1.206992E+0	1.221353E+0	1.220551E+0	1.219967E+0	1.199191E+0	1.220240E+0	1.259923E+0	1.339928E+0	1.214949E+0	1.200400E+0	1.193103E+0	1.231758E+0	1.209094E+0	1.202457E+0	1.158048E+0	1.228381E+0	1.168777E+0	1.199880E+0	1.201269E+0	1.165120E+0	1.151777E+0	1.247703E+0	1.259637E+0	1.152646E+0	1.186493E+0	1.204114E+0	1.235477E+0	1.172443E+0
5.362680E+2	8.933940E-1	1.001487E+0	9.276643E-1	9.178348E-1	9.199439E-1	9.254395E-1	8.941473E-1	9.146309E-1	9.092162E-1	8.977199E-1	9.127262E-1	9.859025E-1	9.516053E-1	9.056888E-1	9.217408E-1	9.408655E-1	9.519658E-1	8.966476E-1	9.037653E-1	9.168276E-1	9.295540E-1	8.323949E-1	9.018973E-1	8.904146E-1	9.322510E-1	9.343388E-1	9.387898E-1	9.230119E-1	8.481948E-1	9.371538E-1	9.380635E-1	9.534115E-1	9.591185E-1	9.599071E-1	9.100661E-1	9.653305E-1	9.228373E-1	9.095711E-1	9.056682E-1	9.306459E-1	9.512957E-1	9.678456E-1	9.540625E-1	9.349642E-1	9.031208E-1	8.841591E-1	9.315322E-1	9.563853E-1	9.729660E-1	9.277332E-1	9.180025E-1	9.243022E-1	9.135053E-1	9.267143E-1	9.532373E-1	8.825319E-1	9.044158E-1	9.776875E-1	9.775093E-1	9.362032E-1	9.634763E-1	8.994817E-1	9.142346E-1	9.365393E-1	9.519023E-1	9.104866E-1	8.948080E-1	9.059068E-1	9.482867E-1	9.532184E-1	9.538657E-1	9.452593E-1	9.186660E-1	9.524464E-1	8.910022E-1	9.668644E-1	9.123332E-1	9.197372E-1	8.849665E-1	8.921513E-1	9.237056E-1	9.013836E-1	9.390792E-1	8.750199E-1	9.199265E-1	9.599583E-1	9.073841E-1	9.099055E-1	8.702323E-1	8.896711E-1	8.888173E-1	9.448939E-1	9.406814E-1	8.950495E-1	9.088031E-1	9.325869E-1	9.685333E-1	9.492216E-1	9.500601E-1	9.251517E-1	9.167006E-1	9.366681E-1	8.946794E-1	9.266629E-1	9.425895E-1	9.070715E-1	8.961510E-1	9.454047E-1	8.913960E-1	9.046959E-1	9.059931E-1	9.188698E-1	8.961350E-1	8.981617E-1	9.615717E-1	8.854553E-1	9.172502E-1	8.920149E-1	9.420636E-1	9.402239E-1	9.130938E-1	9.447150E-1	9.373475E-1	9.284378E-1	9.457222E-1	8.903635E-1	9.389834E-1	9.221013E-1	9.170385E-1	8.704638E-1	9.346246E-1	9.432766E-1	9.524092E-1	9.533245E-1	9.516572E-1	9.197453E-1	9.680760E-1	9.148689E-1	9.191910E-1	9.209386E-1	9.335588E-1	8.929615E-1	9.124100E-1	9.845024E-1	9.714986E-1	9.514212E-1	9.743361E-1	9.116749E-1	1.005429E+0	9.376168E-1	9.158797E-1	9.052507E-1	9.381227E-1	9.428024E-1	8.968582E-1	9.168835E-1	8.967262E-1	9.292861E-1	9.164697E-1	9.301766E-1	9.140910E-1	9.277115E-1	9.143272E-1	1.045910E+0	9.967890E-1
5.365250E+2	7.243737E-1	7.572746E-1	7.366959E-1	7.537974E-1	6.910987E-1	7.161917E-1	7.148938E-1	6.866105E-1	7.631275E-1	7.593392E-1	7.120707E-1	7.457506E-1	7.295995E-1	7.244247E-1	7.183551E-1	7.274007E-1	7.107062E-1	7.345003E-1	7.360499E-1	7.092224E-1	6.860436E-1	7.311266E-1	7.415351E-1	7.223307E-1	7.326279E-1	7.101007E-1	7.944389E-1	7.647042E-1	7.555054E-1	7.208250E-1	7.238456E-1	7.151545E-1	7.268493E-1	7.061384E-1	7.146000E-1	7.345709E-1	6.768123E-1	7.392360E-1	6.970653E-1	7.398290E-1	7.136292E-1	7.540042E-1	7.479031E-1	7.131410E-1	7.601455E-1	7.236951E-1	7.036272E-1	7.515968E-1	7.915025E-1	7.313544E-1	7.809877E-1	7.301908E-1	7.193191E-1	7.283971E-1	7.428373E-1	7.427192E-1	7.590637E-1	7.684514E-1	7.525541E-1	7.278667E-1	6.986528E-1	7.104868E-1	7.404589E-1	7.474231E-1	7.195489E-1	6.907897E-1	7.036498E-1	7.484266E-1	7.551772E-1	7.260371E-1	7.355720E-1	7.163006E-1	7.335382E-1	7.581869E-1	7.386261E-1	7.309938E-1	7.507986E-1	7.106147E-1	6.868049E-1	7.389702E-1	7.182322E-1	7.627285E-1	7.259499E-1	7.549945E-1	7.264197E-1	7.228256E-1	7.622091E-1	7.453750E-1	7.604203E-1	7.358731E-1	7.124304E-1	7.626277E-1	7.030345E-1	7.439621E-1	6.816995E-1	7.574769E-1	7.453935E-1	7.271792E-1	7.625839E-1	7.317265E-1	7.406206E-1	7.395707E-1	7.486667E-1	6.893196E-1	7.433824E-1	7.655971E-1	7.326699E-1	7.540352E-1	7.425909E-1	7.037727E-1	7.227675E-1	7.541658E-1	7.461444E-1	7.326282E-1	7.616466E-1	7.470966E-1	7.846238E-1	7.851242E-1	7.595768E-1	7.279926E-1	7.201716E-1	7.542324E-1	7.543752E-1	7.270263E-1	7.426725E-1	7.494757E-1	7.478866E-1	7.630667E-1	7.836614E-1	7.263180E-1	7.115004E-1	7.372589E-1	7.690202E-1	7.756833E-1	7.815115E-1	7.093820E-1	7.410782E-1	7.277540E-1	7.436367E-1	7.595752E-1	7.010213E-1	6.953010E-1	7.615157E-1	6.850001E-1	7.688439E-1	7.162531E-1	7.543497E-1	7.745946E-1	7.401935E-1	7.503704E-1	7.755380E-1	7.314227E-1	7.072117E-1	7.535087E-1	6.788810E-1	7.317992E-1	7.222156E-1	7.285054E-1	7.341294E-1	7.075767E-1	7.227496E-1	7.460145E-1	6.390774E-1	7.590289E-1	7.430086E-1
5.367810E+2	5.503584E-1	5.727078E-1	6.009702E-1	5.632552E-1	6.193493E-1	5.812639E-1	6.139084E-1	6.066172E-1	5.685270E-1	5.854858E-1	5.603921E-1	5.834045E-1	5.544854E-1	5.645046E-1	5.989271E-1	5.782555E-1	6.139550E-1	5.733940E-1	5.821593E-1	6.132026E-1	5.711579E-1	5.870853E-1	5.963268E-1	5.695091E-1	6.350608E-1	6.206630E-1	5.800160E-1	5.814325E-1	5.683660E-1	5.591872E-1	5.790780E-1	5.701619E-1	5.884022E-1	5.961177E-1	5.842321E-1	5.472153E-1	6.309808E-1	5.982688E-1	5.809872E-1	5.883874E-1	5.599753E-1	5.830909E-1	6.149516E-1	6.244940E-1	5.667865E-1	6.056351E-1	5.689869E-1	5.546322E-1	6.195528E-1	5.746472E-1	5.743935E-1	6.437877E-1	5.751988E-1	5.765952E-1	5.897771E-1	6.044391E-1	5.870591E-1	6.224895E-1	5.619209E-1	5.744040E-1	5.823485E-1	5.675759E-1	5.784126E-1	5.184585E-1	6.014630E-1	5.703496E-1	5.736786E-1	5.687479E-1	6.038322E-1	5.858416E-1	5.944763E-1	5.750485E-1	6.040423E-1	5.832792E-1	5.332134E-1	5.896539E-1	5.848746E-1	6.096349E-1	5.743309E-1	5.886733E-1	5.946211E-1	5.514380E-1	5.779604E-1	5.727747E-1	5.817843E-1	6.004117E-1	6.460362E-1	5.957043E-1	5.989413E-1	6.129339E-1	5.619585E-1	5.906271E-1	5.896280E-1	5.668541E-1	5.712620E-1	5.908139E-1	5.762877E-1	5.924709E-1	5.612345E-1	5.774172E-1	5.587812E-1	6.142591E-1	5.900979E-1	5.477932E-1	5.639533E-1	5.789655E-1	5.812563E-1	5.692417E-1	5.825895E-1	6.214326E-1	6.091364E-1	5.837904E-1	5.909448E-1	5.806929E-1	5.973900E-1	6.017016E-1	5.544113E-1	5.657167E-1	6.278970E-1	5.760081E-1	5.708565E-1	5.944581E-1	5.707097E-1	5.856798E-1	5.892945E-1	5.927330E-1	5.688623E-1	6.080112E-1	6.258413E-1	5.913253E-1	6.024228E-1	5.803661E-1	5.867984E-1	6.243859E-1	5.704694E-1	6.008610E-1	6.060379E-1	5.721391E-1	5.920531E-1	5.762450E-1	6.374108E-1	5.951237E-1	5.690581E-1	5.874743E-1	6.080288E-1	5.908563E-1	6.096352E-1	5.660442E-1	5.648396E-1	5.867172E-1	5.987255E-1	5.984404E-1	5.822097E-1	6.017698E-1	5.888593E-1	6.399146E-1	5.916090E-1	6.205641E-1	5.895120E-1	5.577944E-1	5.768636E-1	5.859057E-1	5.844614E-1	6.251944E-1	6.304285E-1
5.370120E+2	5.190791E-1	5.335639E-1	5.762446E-1	5.123053E-1	5.297032E-1	5.444530E-1	5.530292E-1	5.418498E-1	5.241085E-1	5.161197E-1	5.241854E-1	5.480674E-1	5.518910E-1	5.223219E-1	5.165970E-1	5.000879E-1	5.682251E-1	5.488735E-1	5.584474E-1	5.489363E-1	5.321159E-1	5.526116E-1	5.451216E-1	5.624463E-1	5.303040E-1	5.437703E-1	5.247396E-1	5.545308E-1	5.369747E-1	5.139670E-1	4.946753E-1	5.847072E-1	5.484234E-1	5.685775E-1	5.505911E-1	5.305194E-1	5.750951E-1	5.541768E-1	5.447788E-1	5.528983E-1	5.212860E-1	5.553337E-1	5.498710E-1	5.726767E-1	5.303576E-1	5.717067E-1	5.136342E-1	5.145820E-1	5.225412E-1	5.472692E-1	5.552923E-1	5.404903E-1	5.190444E-1	5.256585E-1	5.337214E-1	5.293199E-1	5.187010E-1	5.470272E-1	5.484839E-1	5.299986E-1	5.279233E-1	5.378152E-1	5.326229E-1	5.232777E-1	5.453104E-1	5.191570E-1	5.788782E-1	5.047007E-1	5.447089E-1	4.989874E-1	5.875065E-1	5.404149E-1	5.528340E-1	5.968833E-1	5.396726E-1	5.579903E-1	5.511996E-1	5.653182E-1	5.605577E-1	5.292102E-1	5.415669E-1	5.896151E-1	5.457363E-1	5.276654E-1	5.298283E-1	5.616179E-1	6.020784E-1	5.383987E-1	5.575284E-1	5.398854E-1	5.822980E-1	5.218906E-1	5.271173E-1	5.466268E-1	5.631725E-1	5.613592E-1	5.549721E-1	5.526011E-1	5.416533E-1	5.563441E-1	5.384298E-1	5.635455E-1	5.431123E-1	5.484472E-1	5.757646E-1	5.334752E-1	5.139132E-1	5.627005E-1	5.682807E-1	5.380528E-1	5.284872E-1	5.113037E-1	5.305404E-1	5.171223E-1	5.696397E-1	5.306830E-1	5.802613E-1	5.540595E-1	5.941747E-1	5.579840E-1	4.912141E-1	5.821548E-1	5.571258E-1	5.531652E-1	5.774630E-1	5.420753E-1	5.639903E-1	5.314068E-1	5.611164E-1	5.539003E-1	5.272783E-1	5.214339E-1	5.443186E-1	5.699599E-1	5.396123E-1	5.170230E-1	5.504549E-1	5.917179E-1	5.512039E-1	5.447448E-1	5.503235E-1	5.288155E-1	5.273075E-1	5.490262E-1	5.329195E-1	5.504265E-1	5.290508E-1	5.387259E-1	5.673111E-1	5.353088E-1	5.029792E-1	5.265354E-1	5.660245E-1	5.467019E-1	5.475762E-1	5.413939E-1	5.443371E-1	5.550047E-1	5.311781E-1	5.521027E-1	5.630283E-1	5.332517E-1	5.442400E-1	5.574022E-1	5.588695E-1
5.372740E+2	5.052136E-1	5.089468E-1	4.903151E-1	4.803176E-1	4.846037E-1	5.167847E-1	5.132287E-1	4.854722E-1	4.897224E-1	4.992073E-1	4.874883E-1	4.762698E-1	4.853969E-1	5.041652E-1	4.867258E-1	4.971803E-1	5.524425E-1	5.289240E-1	5.200842E-1	5.290640E-1	5.175342E-1	5.480245E-1	5.080778E-1	4.767433E-1	5.297071E-1	5.453517E-1	5.435229E-1	4.951158E-1	4.923844E-1	4.786982E-1	5.340343E-1	5.356520E-1	5.215310E-1	5.063372E-1	5.194424E-1	4.939182E-1	5.006641E-1	5.475404E-1	5.318867E-1	5.220471E-1	5.139735E-1	5.141236E-1	5.378523E-1	5.305535E-1	5.519273E-1	4.939544E-1	5.217634E-1	5.022287E-1	5.068838E-1	5.334483E-1	5.189581E-1	5.229796E-1	5.446029E-1	5.286930E-1	4.934014E-1	5.402159E-1	4.940800E-1	4.955961E-1	5.243619E-1	5.157530E-1	4.744006E-1	5.214948E-1	5.429283E-1	5.434852E-1	5.303336E-1	4.810938E-1	5.113240E-1	4.938720E-1	5.281730E-1	4.958861E-1	5.139988E-1	5.241394E-1	5.288266E-1	5.322765E-1	4.974534E-1	5.261647E-1	5.270322E-1	5.074690E-1	5.249912E-1	5.191484E-1	5.371454E-1	5.267413E-1	4.899208E-1	5.042979E-1	5.145136E-1	4.838567E-1	5.003099E-1	5.136677E-1	5.185429E-1	5.275409E-1	5.529977E-1	4.986943E-1	4.564871E-1	4.626666E-1	5.181100E-1	5.054767E-1	5.001876E-1	4.940660E-1	5.435657E-1	5.422241E-1	4.927276E-1	5.352155E-1	5.352189E-1	4.992017E-1	4.999527E-1	4.761157E-1	4.926641E-1	5.371469E-1	4.949619E-1	4.904388E-1	5.394398E-1	5.311127E-1	5.045584E-1	5.232871E-1	5.494534E-1	5.397447E-1	5.178073E-1	5.186493E-1	5.254348E-1	5.144670E-1	4.904969E-1	5.612125E-1	5.322535E-1	5.485836E-1	5.359722E-1	5.191243E-1	5.324131E-1	5.356541E-1	4.986089E-1	5.204937E-1	5.262262E-1	4.935163E-1	5.347111E-1	5.095129E-1	5.227371E-1	5.064021E-1	5.266231E-1	5.312489E-1	5.295763E-1	5.517035E-1	4.683244E-1	4.979919E-1	5.157313E-1	5.118245E-1	5.102773E-1	5.079582E-1	5.273716E-1	5.356053E-1	5.219746E-1	5.320614E-1	5.439170E-1	5.027538E-1	5.456496E-1	4.904625E-1	4.699024E-1	5.432341E-1	5.112640E-1	5.278227E-1	4.898146E-1	4.942515E-1	5.301674E-1	5.278738E-1	4.935273E-1	5.053627E-1	4.935811E-1
5.375110E+2	5.031421E-1	5.383109E-1	5.534875E-1	5.708837E-1	5.839864E-1	5.702681E-1	5.859493E-1	5.939756E-1	5.524439E-1	5.443449E-1	5.627173E-1	5.720989E-1	5.452443E-1	5.717226E-1	5.559961E-1	5.327481E-1	6.301607E-1	5.447462E-1	5.486523E-1	5.332962E-1	5.472102E-1	5.594592E-1	5.526314E-1	5.872444E-1	5.643827E-1	6.144683E-1	5.982703E-1	6.291470E-1	5.732816E-1	5.538986E-1	5.728646E-1	5.979758E-1	5.401536E-1	5.851679E-1	5.783562E-1	5.463097E-1	5.810910E-1	5.696972E-1	5.574206E-1	5.792898E-1	5.441428E-1	5.734640E-1	6.283280E-1	6.203063E-1	5.947996E-1	5.762005E-1	5.476786E-1	5.469503E-1	5.977136E-1	5.223104E-1	6.109580E-1	5.595852E-1	5.889481E-1	5.831854E-1	5.816191E-1	5.645119E-1	5.744608E-1	5.896866E-1	6.399194E-1	5.757046E-1	5.512064E-1	5.380701E-1	5.564860E-1	5.827245E-1	6.050811E-1	5.888412E-1	5.973209E-1	5.779769E-1	5.627180E-1	5.625485E-1	5.770431E-1	5.501403E-1	5.639499E-1	6.089907E-1	5.681506E-1	5.834630E-1	6.052915E-1	5.463336E-1	5.681721E-1	5.970561E-1	5.561806E-1	5.658692E-1	5.837180E-1	5.757853E-1	5.479228E-1	5.803625E-1	6.257615E-1	5.562900E-1	5.520232E-1	5.533623E-1	6.003480E-1	5.709439E-1	5.474531E-1	5.533960E-1	5.295404E-1	5.308846E-1	5.584937E-1	5.469822E-1	5.411705E-1	5.625663E-1	6.027448E-1	5.514038E-1	5.173491E-1	5.532646E-1	5.531251E-1	5.773462E-1	5.391787E-1	5.746127E-1	5.735056E-1	5.671380E-1	6.172097E-1	5.820895E-1	6.076181E-1	5.189032E-1	5.702823E-1	5.543960E-1	6.063312E-1	5.464274E-1	5.747051E-1	5.777719E-1	5.399118E-1	6.061104E-1	6.011831E-1	6.129681E-1	5.975772E-1	5.829091E-1	5.692698E-1	5.625291E-1	5.590993E-1	5.779345E-1	5.521086E-1	5.697328E-1	5.918790E-1	5.819831E-1	5.707518E-1	5.553259E-1	5.471050E-1	6.162948E-1	5.841910E-1	5.931573E-1	5.870722E-1	5.756338E-1	5.781169E-1	5.746429E-1	5.471449E-1	5.761896E-1	5.847310E-1	5.612760E-1	5.781184E-1	5.629716E-1	5.917434E-1	6.014789E-1	5.773900E-1	5.677647E-1	5.390249E-1	6.317513E-1	5.422917E-1	5.591000E-1	5.466547E-1	6.005318E-1	5.412250E-1	5.559069E-1	5.694256E-1	5.068975E-1	5.634171E-1
5.377840E+2	6.590863E-1	6.980394E-1	7.102549E-1	6.461118E-1	6.561705E-1	6.367333E-1	6.580059E-1	6.561330E-1	6.528168E-1	6.614872E-1	6.723974E-1	6.578508E-1	6.484731E-1	6.530800E-1	6.197848E-1	6.611441E-1	6.806308E-1	6.517189E-1	6.855998E-1	6.672921E-1	6.709661E-1	6.628366E-1	6.566633E-1	6.523338E-1	6.687348E-1	6.505513E-1	6.755423E-1	6.346797E-1	6.689566E-1	6.558243E-1	6.811910E-1	6.552412E-1	6.721219E-1	6.804163E-1	6.261919E-1	6.355557E-1	6.130132E-1	6.429043E-1	6.736701E-1	6.847299E-1	6.309567E-1	6.867111E-1	6.916223E-1	6.424112E-1	6.623008E-1	6.575555E-1	6.648681E-1	6.491633E-1	6.611731E-1	6.460376E-1	7.211280E-1	6.851675E-1	6.743396E-1	6.482633E-1	6.832006E-1	6.855122E-1	6.617989E-1	6.955936E-1	6.799535E-1	6.706738E-1	7.076714E-1	6.650732E-1	6.767036E-1	6.900936E-1	6.689957E-1	6.170616E-1	6.781673E-1	6.444692E-1	7.110312E-1	6.637050E-1	7.004830E-1	7.035705E-1	6.616810E-1	6.861614E-1	6.762382E-1	6.720630E-1	7.080862E-1	6.436746E-1	7.096128E-1	6.790564E-1	6.556841E-1	6.739149E-1	6.219482E-1	6.702357E-1	6.859415E-1	6.858726E-1	6.613817E-1	6.613788E-1	6.648949E-1	6.539624E-1	6.425604E-1	6.846725E-1	6.810748E-1	6.553503E-1	6.610073E-1	6.338762E-1	6.570610E-1	6.643918E-1	6.484486E-1	6.759046E-1	6.728110E-1	6.666923E-1	6.790493E-1	6.500681E-1	6.635379E-1	6.412788E-1	6.791743E-1	6.947795E-1	6.660677E-1	6.435728E-1	6.581559E-1	6.292564E-1	6.425629E-1	6.386484E-1	6.297905E-1	6.565608E-1	6.417645E-1	6.347566E-1	6.675961E-1	6.849720E-1	6.610513E-1	6.748395E-1	6.105722E-1	6.625174E-1	6.480914E-1	6.655201E-1	7.001852E-1	6.455609E-1	6.457861E-1	6.292955E-1	6.375122E-1	6.783457E-1	6.676371E-1	7.280424E-1	6.644666E-1	6.955655E-1	6.394447E-1	6.745054E-1	6.536922E-1	6.255829E-1	6.954329E-1	6.576832E-1	6.581165E-1	6.223017E-1	6.893490E-1	6.570137E-1	6.581154E-1	6.585348E-1	6.769171E-1	6.784956E-1	6.845085E-1	6.442387E-1	6.679605E-1	6.429566E-1	6.616481E-1	6.522725E-1	6.371331E-1	6.599400E-1	6.940702E-1	6.706798E-1	6.734698E-1	6.918816E-1	6.283191E-1	7.310959E-1	6.195340E-1
5.380160E+2	7.324585E-1	7.266406E-1	7.029036E-1	7.276703E-1	7.001240E-1	7.210887E-1	7.784063E-1	7.214640E-1	7.263304E-1	7.493552E-1	7.466475E-1	7.365667E-1	6.923483E-1	7.463979E-1	7.411414E-1	6.809881E-1	7.623916E-1	7.453034E-1	7.661688E-1	7.111757E-1	7.325794E-1	7.239194E-1	7.302113E-1	7.075423E-1	7.138670E-1	7.501272E-1	7.044543E-1	8.049332E-1	7.508967E-1	7.485110E-1	7.441007E-1	7.126801E-1	7.462265E-1	7.322518E-1	7.203572E-1	7.634917E-1	7.407487E-1	7.294701E-1	7.317032E-1	7.820188E-1	7.413627E-1	7.416454E-1	7.060925E-1	7.297906E-1	7.296993E-1	7.176425E-1	7.622015E-1	7.273395E-1	7.890681E-1	8.051104E-1	7.538452E-1	7.561949E-1	7.066509E-1	7.611425E-1	7.509251E-1	7.609850E-1	7.071993E-1	7.607053E-1	6.861942E-1	7.260229E-1	7.509098E-1	6.875318E-1	7.362210E-1	7.299786E-1	7.315769E-1	7.316840E-1	7.362117E-1	7.231266E-1	7.188671E-1	7.562813E-1	7.287787E-1	7.579093E-1	7.268079E-1	7.939226E-1	7.304696E-1	7.130805E-1	7.524007E-1	7.269664E-1	7.476916E-1	7.148768E-1	7.770310E-1	7.456097E-1	7.047847E-1	6.964014E-1	7.014461E-1	7.274419E-1	7.169373E-1	7.475677E-1	7.216158E-1	7.502429E-1	7.219397E-1	7.084601E-1	7.043414E-1	6.854357E-1	7.283832E-1	7.146232E-1	7.294211E-1	7.178500E-1	7.470282E-1	7.359156E-1	7.365939E-1	7.707564E-1	7.038617E-1	7.743539E-1	7.548097E-1	7.552899E-1	7.463520E-1	7.547842E-1	7.470109E-1	7.316669E-1	7.411165E-1	7.415421E-1	6.999950E-1	7.253400E-1	7.407901E-1	7.549982E-1	6.994451E-1	7.391833E-1	7.337432E-1	7.713879E-1	6.769768E-1	7.323207E-1	7.217403E-1	7.566603E-1	7.358843E-1	7.362417E-1	7.373552E-1	7.766050E-1	7.347366E-1	7.235284E-1	7.462162E-1	7.582464E-1	6.991627E-1	7.660024E-1	6.891787E-1	7.690656E-1	7.427403E-1	7.282371E-1	7.348909E-1	7.841414E-1	7.120407E-1	7.510126E-1	7.786406E-1	7.244454E-1	7.778170E-1	7.231538E-1	7.653618E-1	7.450626E-1	7.724370E-1	7.313029E-1	6.963715E-1	7.273407E-1	7.653530E-1	7.008414E-1	7.297964E-1	7.812609E-1	7.188537E-1	7.107737E-1	7.099986E-1	7.388418E-1	7.002271E-1	7.471215E-1	7.014814E-1	7.664983E-1	6.232348E-1
5.382850E+2	8.646963E-1	8.447125E-1	8.143021E-1	8.486056E-1	8.782379E-1	8.929572E-1	8.462025E-1	8.972603E-1	8.870237E-1	8.791871E-1	8.762694E-1	8.217618E-1	8.437100E-1	8.486265E-1	8.739033E-1	8.624374E-1	9.297003E-1	8.973763E-1	8.682994E-1	8.658088E-1	8.840771E-1	8.959965E-1	8.844351E-1	9.257285E-1	8.639919E-1	8.826612E-1	8.793009E-1	8.619692E-1	8.618393E-1	8.539297E-1	8.459660E-1	8.828635E-1	8.607218E-1	8.675735E-1	8.855351E-1	8.559633E-1	8.988000E-1	8.665856E-1	9.020999E-1	8.528552E-1	8.860665E-1	9.364750E-1	8.888688E-1	8.604683E-1	8.829527E-1	8.701390E-1	8.311119E-1	8.692682E-1	9.219754E-1	8.603271E-1	8.875006E-1	9.219710E-1	8.301437E-1	8.956400E-1	8.792747E-1	8.555064E-1	8.979848E-1	9.094827E-1	9.186318E-1	8.719066E-1	9.093462E-1	8.742965E-1	8.602392E-1	8.778417E-1	8.490685E-1	8.527406E-1	8.840325E-1	8.187662E-1	8.101261E-1	8.631020E-1	8.947207E-1	8.853512E-1	9.098960E-1	9.149415E-1	8.699303E-1	8.372847E-1	9.090296E-1	8.417911E-1	8.812371E-1	9.040956E-1	9.059534E-1	9.187427E-1	8.859870E-1	8.711039E-1	8.555008E-1	9.145151E-1	9.022104E-1	8.298692E-1	8.725326E-1	8.807307E-1	8.845261E-1	8.094292E-1	8.738102E-1	8.575784E-1	9.006327E-1	8.129328E-1	8.528806E-1	8.816051E-1	8.204913E-1	8.419452E-1	8.414202E-1	9.103563E-1	8.676716E-1	8.750242E-1	8.398278E-1	8.445367E-1	8.725843E-1	8.965902E-1	8.572760E-1	8.442382E-1	8.534213E-1	8.378157E-1	8.400882E-1	8.114604E-1	8.725625E-1	8.770005E-1	8.639661E-1	8.793912E-1	9.290341E-1	9.299569E-1	8.128424E-1	8.876961E-1	8.788894E-1	8.540968E-1	8.792929E-1	8.700052E-1	8.941111E-1	8.238854E-1	8.620783E-1	9.132013E-1	8.581493E-1	8.637182E-1	8.566714E-1	8.700979E-1	8.559129E-1	8.756916E-1	8.696041E-1	8.696678E-1	8.683614E-1	8.810520E-1	8.522993E-1	8.825646E-1	8.614679E-1	8.473696E-1	9.156180E-1	8.394696E-1	8.474100E-1	8.553344E-1	9.244344E-1	9.149513E-1	8.722328E-1	8.298431E-1	8.710640E-1	8.697833E-1	7.963901E-1	8.581187E-1	8.550452E-1	8.463392E-1	8.358041E-1	8.761396E-1	8.049097E-1	8.886792E-1	7.820659E-1	8.912002E-1	8.178673E-1
5.385170E+2	9.956233E-1	1.039633E+0	1.061939E+0	1.057076E+0	1.034591E+0	1.066487E+0	1.118177E+0	1.021244E+0	9.880991E-1	1.001065E+0	1.068969E+0	1.106829E+0	1.028803E+0	1.020058E+0	1.049111E+0	1.030641E+0	1.108083E+0	1.073517E+0	1.072920E+0	1.091324E+0	1.069403E+0	1.058903E+0	1.051798E+0	1.048843E+0	1.079485E+0	1.096159E+0	1.080505E+0	1.078845E+0	1.070891E+0	1.024801E+0	9.977220E-1	1.061395E+0	1.059596E+0	1.088499E+0	1.108993E+0	1.077599E+0	1.085878E+0	1.067817E+0	1.018651E+0	1.060777E+0	1.021666E+0	1.062377E+0	1.086891E+0	1.034506E+0	1.038479E+0	1.031246E+0	1.014847E+0	1.038768E+0	1.042801E+0	1.065584E+0	1.072259E+0	1.016901E+0	1.002002E+0	1.064887E+0	1.027172E+0	1.016048E+0	1.029662E+0	1.088509E+0	1.018180E+0	1.097372E+0	1.046502E+0	1.003677E+0	1.007538E+0	1.036050E+0	1.068708E+0	1.050374E+0	1.066688E+0	1.076220E+0	1.017560E+0	1.032010E+0	1.085823E+0	1.062169E+0	1.031335E+0	1.027752E+0	1.032382E+0	1.038988E+0	1.059101E+0	9.951857E-1	1.027024E+0	1.068216E+0	1.057987E+0	1.076147E+0	1.023149E+0	1.030362E+0	1.018952E+0	1.044757E+0	1.094389E+0	1.046113E+0	1.103141E+0	1.077275E+0	1.054171E+0	1.055692E+0	1.032640E+0	1.022643E+0	1.051124E+0	1.038100E+0	1.090413E+0	9.839139E-1	1.066652E+0	1.028877E+0	1.022591E+0	1.015014E+0	1.043604E+0	9.915727E-1	1.006455E+0	1.011845E+0	1.013087E+0	1.007935E+0	1.024126E+0	1.025838E+0	1.040860E+0	1.025202E+0	1.043580E+0	1.013356E+0	1.078203E+0	1.062962E+0	1.044407E+0	1.079431E+0	1.079417E+0	1.044740E+0	1.075936E+0	1.021406E+0	1.028042E+0	1.057350E+0	1.050326E+0	1.035756E+0	1.027705E+0	1.056724E+0	1.046899E+0	9.916395E-1	1.065457E+0	1.119224E+0	1.065392E+0	1.045405E+0	1.045261E+0	9.967329E-1	1.025181E+0	1.094940E+0	1.013250E+0	1.062326E+0	1.033733E+0	1.033587E+0	1.040573E+0	1.022838E+0	1.027243E+0	1.079405E+0	1.064002E+0	1.023243E+0	1.038208E+0	1.034842E+0	1.054943E+0	1.018537E+0	1.046472E+0	1.062246E+0	1.053246E+0	1.077829E+0	1.023707E+0	1.073329E+0	1.006949E+0	1.020909E+0	1.015803E+0	1.027908E+0	9.728074E-1	1.011986E+0	1.068545E+0
5.387600E+2	1.229871E+0	1.313322E+0	1.275180E+0	1.204541E+0	1.231443E+0	1.274161E+0	1.284829E+0	1.250740E+0	1.205225E+0	1.200993E+0	1.258140E+0	1.242362E+0	1.249339E+0	1.224978E+0	1.265376E+0	1.211953E+0	1.311413E+0	1.287026E+0	1.255198E+0	1.281626E+0	1.239949E+0	1.332710E+0	1.290245E+0	1.253905E+0	1.336912E+0	1.289686E+0	1.290674E+0	1.270799E+0	1.262187E+0	1.250601E+0	1.239970E+0	1.291554E+0	1.257240E+0	1.219766E+0	1.228476E+0	1.345723E+0	1.278773E+0	1.294209E+0	1.314391E+0	1.277189E+0	1.234211E+0	1.255744E+0	1.240634E+0	1.235963E+0	1.222094E+0	1.236030E+0	1.259423E+0	1.235574E+0	1.291667E+0	1.253094E+0	1.327455E+0	1.216172E+0	1.227112E+0	1.241763E+0	1.245925E+0	1.237203E+0	1.197014E+0	1.291299E+0	1.304888E+0	1.243476E+0	1.278093E+0	1.250406E+0	1.230686E+0	1.228740E+0	1.286107E+0	1.264813E+0	1.223791E+0	1.274651E+0	1.268332E+0	1.198843E+0	1.301769E+0	1.281255E+0	1.264749E+0	1.276325E+0	1.304913E+0	1.250838E+0	1.255884E+0	1.248666E+0	1.265707E+0	1.278583E+0	1.258393E+0	1.241451E+0	1.229231E+0	1.254503E+0	1.267425E+0	1.283984E+0	1.309644E+0	1.282388E+0	1.262994E+0	1.301852E+0	1.279268E+0	1.280249E+0	1.251546E+0	1.272254E+0	1.226092E+0	1.242690E+0	1.249314E+0	1.214437E+0	1.292840E+0	1.224059E+0	1.263223E+0	1.180764E+0	1.262043E+0	1.235170E+0	1.228515E+0	1.242419E+0	1.214191E+0	1.238077E+0	1.230680E+0	1.218391E+0	1.271249E+0	1.246474E+0	1.236428E+0	1.228724E+0	1.295776E+0	1.285446E+0	1.238342E+0	1.277353E+0	1.298899E+0	1.266344E+0	1.217594E+0	1.284728E+0	1.220104E+0	1.231539E+0	1.268729E+0	1.310473E+0	1.284775E+0	1.191913E+0	1.244308E+0	1.214569E+0	1.228096E+0	1.258557E+0	1.267905E+0	1.263400E+0	1.264594E+0	1.274632E+0	1.240355E+0	1.225865E+0	1.262900E+0	1.246076E+0	1.190757E+0	1.281847E+0	1.180853E+0	1.258681E+0	1.212102E+0	1.189451E+0	1.235731E+0	1.199631E+0	1.265719E+0	1.220234E+0	1.208516E+0	1.266542E+0	1.255833E+0	1.307045E+0	1.210671E+0	1.342930E+0	1.281811E+0	1.246992E+0	1.250433E+0	1.239250E+0	1.173179E+0	1.190262E+0	1.267846E+0	1.215580E+0	1.170001E+0
5.390340E+2	1.491281E+0	1.475118E+0	1.392571E+0	1.385659E+0	1.428182E+0	1.399567E+0	1.464220E+0	1.417268E+0	1.475759E+0	1.392434E+0	1.441705E+0	1.434696E+0	1.443878E+0	1.427828E+0	1.439986E+0	1.370817E+0	1.488743E+0	1.392115E+0	1.417192E+0	1.412357E+0	1.481397E+0	1.436246E+0	1.416287E+0	1.458399E+0	1.403768E+0	1.411464E+0	1.435766E+0	1.429713E+0	1.385274E+0	1.448983E+0	1.455450E+0	1.480149E+0	1.486858E+0	1.374092E+0	1.396200E+0	1.416016E+0	1.392249E+0	1.427115E+0	1.448179E+0	1.466107E+0	1.378887E+0	1.453056E+0	1.505513E+0	1.447065E+0	1.447468E+0	1.413045E+0	1.406105E+0	1.440215E+0	1.501477E+0	1.428731E+0	1.443765E+0	1.379138E+0	1.385850E+0	1.398957E+0	1.477747E+0	1.437820E+0	1.419321E+0	1.440917E+0	1.402029E+0	1.400207E+0	1.430347E+0	1.445185E+0	1.379704E+0	1.443243E+0	1.413386E+0	1.427935E+0	1.383795E+0	1.410149E+0	1.387667E+0	1.413663E+0	1.479747E+0	1.467154E+0	1.467915E+0	1.478683E+0	1.438421E+0	1.379050E+0	1.405968E+0	1.384696E+0	1.377391E+0	1.448813E+0	1.444467E+0	1.359099E+0	1.407097E+0	1.430060E+0	1.470855E+0	1.504241E+0	1.453712E+0	1.443823E+0	1.404650E+0	1.487155E+0	1.449220E+0	1.462750E+0	1.450179E+0	1.390301E+0	1.442342E+0	1.400933E+0	1.434511E+0	1.407241E+0	1.418374E+0	1.409502E+0	1.419255E+0	1.408238E+0	1.383613E+0	1.370499E+0	1.395454E+0	1.421669E+0	1.438305E+0	1.496790E+0	1.401719E+0	1.413512E+0	1.409586E+0	1.445901E+0	1.414240E+0	1.379254E+0	1.435773E+0	1.465725E+0	1.385056E+0	1.464876E+0	1.387430E+0	1.377701E+0	1.385648E+0	1.426721E+0	1.459136E+0	1.433073E+0	1.431431E+0	1.370045E+0	1.445834E+0	1.383463E+0	1.376102E+0	1.373287E+0	1.431215E+0	1.431390E+0	1.419540E+0	1.470045E+0	1.402310E+0	1.354404E+0	1.473105E+0	1.422389E+0	1.398874E+0	1.431561E+0	1.387117E+0	1.416523E+0	1.430956E+0	1.384996E+0	1.378482E+0	1.424154E+0	1.368066E+0	1.354855E+0	1.411125E+0	1.356384E+0	1.387036E+0	1.438940E+0	1.413698E+0	1.455171E+0	1.379825E+0	1.460135E+0	1.364468E+0	1.416312E+0	1.365173E+0	1.440587E+0	1.348888E+0	1.381977E+0	1.349969E+0	1.431552E+0	1.360635E+0
5.392670E+2	1.592506E+0	1.702047E+0	1.651529E+0	1.589902E+0	1.577743E+0	1.603949E+0	1.635573E+0	1.622571E+0	1.573335E+0	1.626917E+0	1.598169E+0	1.658373E+0	1.599923E+0	1.621693E+0	1.627658E+0	1.605599E+0	1.714689E+0	1.598896E+0	1.613240E+0	1.647208E+0	1.641719E+0	1.593558E+0	1.670760E+0	1.599889E+0	1.617091E+0	1.588224E+0	1.625190E+0	1.679267E+0	1.601761E+0	1.577887E+0	1.599946E+0	1.666539E+0	1.655101E+0	1.573499E+0	1.650347E+0	1.647419E+0	1.586875E+0	1.648784E+0	1.665466E+0	1.644886E+0	1.579524E+0	1.671054E+0	1.615151E+0	1.611196E+0	1.613974E+0	1.646153E+0	1.560391E+0	1.619412E+0	1.732957E+0	1.600054E+0	1.659662E+0	1.580700E+0	1.597500E+0	1.623443E+0	1.685526E+0	1.662038E+0	1.554072E+0	1.616957E+0	1.571412E+0	1.650276E+0	1.631459E+0	1.626446E+0	1.583835E+0	1.664669E+0	1.575972E+0	1.562912E+0	1.647095E+0	1.631005E+0	1.591053E+0	1.570795E+0	1.707249E+0	1.692250E+0	1.635441E+0	1.590703E+0	1.633759E+0	1.644747E+0	1.654087E+0	1.558734E+0	1.562024E+0	1.610259E+0	1.613580E+0	1.629379E+0	1.586676E+0	1.660380E+0	1.681723E+0	1.685104E+0	1.665836E+0	1.545507E+0	1.534249E+0	1.607195E+0	1.623506E+0	1.579626E+0	1.599164E+0	1.591197E+0	1.642281E+0	1.555003E+0	1.634676E+0	1.628559E+0	1.640274E+0	1.654474E+0	1.591282E+0	1.601538E+0	1.560975E+0	1.625565E+0	1.555918E+0	1.612622E+0	1.682824E+0	1.656452E+0	1.600414E+0	1.509468E+0	1.626228E+0	1.617904E+0	1.658876E+0	1.502088E+0	1.662397E+0	1.592298E+0	1.553083E+0	1.599076E+0	1.620819E+0	1.527328E+0	1.611009E+0	1.635485E+0	1.569541E+0	1.620748E+0	1.628541E+0	1.557661E+0	1.575755E+0	1.521913E+0	1.596785E+0	1.568908E+0	1.592717E+0	1.588925E+0	1.583342E+0	1.622642E+0	1.583220E+0	1.594414E+0	1.581712E+0	1.597322E+0	1.538075E+0	1.528406E+0	1.581920E+0	1.593184E+0	1.595807E+0	1.590084E+0	1.651684E+0	1.589019E+0	1.627276E+0	1.538869E+0	1.637191E+0	1.582395E+0	1.597410E+0	1.546909E+0	1.535741E+0	1.598708E+0	1.575850E+0	1.607581E+0	1.544635E+0	1.507327E+0	1.510766E+0	1.538239E+0	1.531501E+0	1.574447E+0	1.620487E+0	1.636576E+0	1.522266E+0
5.395320E+2	1.834432E+0	1.849239E+0	1.802626E+0	1.769233E+0	1.796839E+0	1.717161E+0	1.851224E+0	1.768649E+0	1.775354E+0	1.809119E+0	1.836289E+0	1.871526E+0	1.831921E+0	1.771650E+0	1.811714E+0	1.718180E+0	1.820193E+0	1.765659E+0	1.830602E+0	1.812111E+0	1.744313E+0	1.779330E+0	1.787320E+0	1.789389E+0	1.877663E+0	1.747661E+0	1.742124E+0	1.901102E+0	1.722139E+0	1.750307E+0	1.839679E+0	1.818398E+0	1.810900E+0	1.701125E+0	1.794023E+0	1.768984E+0	1.815026E+0	1.760042E+0	1.825006E+0	1.868855E+0	1.777788E+0	1.797988E+0	1.803912E+0	1.823190E+0	1.765439E+0	1.743243E+0	1.812726E+0	1.782266E+0	1.814675E+0	1.807937E+0	1.865913E+0	1.791747E+0	1.736266E+0	1.812476E+0	1.787667E+0	1.892550E+0	1.792272E+0	1.795219E+0	1.758006E+0	1.769002E+0	1.764202E+0	1.810156E+0	1.771420E+0	1.734879E+0	1.793461E+0	1.749815E+0	1.756842E+0	1.759930E+0	1.766719E+0	1.738620E+0	1.794724E+0	1.807783E+0	1.720788E+0	1.837427E+0	1.773987E+0	1.784334E+0	1.851323E+0	1.681824E+0	1.876241E+0	1.779491E+0	1.880159E+0	1.762123E+0	1.775101E+0	1.810411E+0	1.710137E+0	1.735750E+0	1.835685E+0	1.787994E+0	1.823859E+0	1.741682E+0	1.777746E+0	1.770425E+0	1.704095E+0	1.738593E+0	1.759905E+0	1.807014E+0	1.813478E+0	1.700546E+0	1.802108E+0	1.783666E+0	1.802856E+0	1.761373E+0	1.669725E+0	1.747083E+0	1.742010E+0	1.759072E+0	1.791406E+0	1.791471E+0	1.809378E+0	1.739242E+0	1.825208E+0	1.772631E+0	1.743178E+0	1.677527E+0	1.779361E+0	1.749766E+0	1.742877E+0	1.768131E+0	1.761181E+0	1.773157E+0	1.725910E+0	1.871295E+0	1.764936E+0	1.762413E+0	1.754613E+0	1.732075E+0	1.789613E+0	1.817725E+0	1.782639E+0	1.716977E+0	1.734551E+0	1.814069E+0	1.779295E+0	1.765490E+0	1.740701E+0	1.744227E+0	1.694928E+0	1.774209E+0	1.741145E+0	1.803852E+0	1.699065E+0	1.692843E+0	1.790115E+0	1.728240E+0	1.842362E+0	1.709983E+0	1.721659E+0	1.692555E+0	1.803345E+0	1.775224E+0	1.732835E+0	1.736622E+0	1.817958E+0	1.781600E+0	1.735256E+0	1.764157E+0	1.652507E+0	1.809527E+0	1.720585E+0	1.702809E+0	1.645156E+0	1.799553E+0	1.688138E+0	1.777106E+0	1.620579E+0
5.397750E+2	1.953056E+0	2.094100E+0	1.994157E+0	1.930090E+0	1.925343E+0	1.931328E+0	2.013398E+0	1.962073E+0	1.962188E+0	1.884897E+0	2.019639E+0	1.963537E+0	1.949388E+0	1.958392E+0	1.955356E+0	2.004364E+0	1.983958E+0	1.905771E+0	2.008887E+0	1.988238E+0	1.953097E+0	1.938995E+0	1.935265E+0	1.973086E+0	2.041100E+0	1.910168E+0	1.885186E+0	1.952913E+0	1.881222E+0	1.930684E+0	1.934345E+0	1.903201E+0	1.945313E+0	1.926902E+0	1.960960E+0	1.900401E+0	1.924750E+0	1.992650E+0	2.018485E+0	1.919736E+0	1.840062E+0	1.943818E+0	1.937453E+0	1.891485E+0	1.927143E+0	1.989469E+0	1.940672E+0	1.938703E+0	2.015682E+0	2.025800E+0	2.074768E+0	1.950332E+0	1.894971E+0	1.943745E+0	2.041023E+0	1.983161E+0	1.922149E+0	1.953709E+0	1.998298E+0	2.038529E+0	2.000381E+0	1.887263E+0	1.873325E+0	1.916168E+0	1.904424E+0	1.981438E+0	1.917371E+0	1.987368E+0	1.910342E+0	1.872456E+0	1.944606E+0	1.948655E+0	2.009354E+0	1.901488E+0	1.995882E+0	1.978221E+0	1.959740E+0	1.854654E+0	1.971791E+0	1.939954E+0	1.885797E+0	2.009246E+0	1.879827E+0	1.967835E+0	1.977564E+0	1.924025E+0	2.015820E+0	1.891588E+0	1.993263E+0	1.929287E+0	1.952951E+0	1.939866E+0	1.922062E+0	1.891887E+0	1.931184E+0	1.855021E+0	1.978155E+0	1.820530E+0	1.990522E+0	1.865724E+0	1.955943E+0	1.878560E+0	1.892529E+0	1.909137E+0	1.972050E+0	1.863812E+0	1.942787E+0	2.011040E+0	1.860689E+0	1.917191E+0	1.963095E+0	1.946120E+0	1.928670E+0	1.845379E+0	1.892133E+0	1.929009E+0	1.914430E+0	1.882382E+0	1.942459E+0	1.940102E+0	1.901477E+0	1.884499E+0	1.926806E+0	1.935905E+0	1.904790E+0	1.930063E+0	1.901494E+0	1.880829E+0	1.948462E+0	1.856132E+0	1.879026E+0	1.817862E+0	1.940276E+0	1.974807E+0	1.849532E+0	1.887858E+0	1.851858E+0	1.881814E+0	1.861875E+0	1.930731E+0	1.815083E+0	1.828920E+0	1.916918E+0	1.831602E+0	1.973045E+0	1.783191E+0	1.916711E+0	1.840764E+0	1.966241E+0	1.870563E+0	1.986638E+0	1.801334E+0	1.934740E+0	1.924790E+0	1.832925E+0	1.867513E+0	1.845357E+0	1.876017E+0	1.828575E+0	1.928306E+0	1.818094E+0	1.811477E+0	1.782550E+0	1.862530E+0	1.767225E+0
5.400190E+2	2.068615E+0	2.081529E+0	2.043564E+0	1.966068E+0	2.036151E+0	1.963656E+0	2.059958E+0	2.033417E+0	2.101745E+0	2.109007E+0	2.125021E+0	2.089366E+0	2.091115E+0	2.041294E+0	1.981550E+0	2.000937E+0	2.007050E+0	1.985549E+0	2.097871E+0	1.969334E+0	2.069026E+0	2.010219E+0	2.070346E+0	2.087087E+0	1.983942E+0	2.074016E+0	2.088365E+0	2.104697E+0	2.050523E+0	2.032750E+0	2.008237E+0	2.104340E+0	2.083251E+0	2.044398E+0	2.029369E+0	2.049675E+0	2.036358E+0	2.115570E+0	2.125453E+0	2.054341E+0	2.020376E+0	2.076452E+0	2.090080E+0	2.105553E+0	2.084018E+0	2.006839E+0	2.008483E+0	2.022767E+0	2.062999E+0	1.984713E+0	2.130227E+0	2.122376E+0	2.058107E+0	2.030880E+0	2.141894E+0	2.074499E+0	1.965411E+0	2.080657E+0	1.996439E+0	2.022159E+0	2.057243E+0	1.925459E+0	1.964426E+0	1.998885E+0	2.116540E+0	2.047308E+0	2.093310E+0	2.079771E+0	1.984082E+0	1.987820E+0	2.026028E+0	2.099496E+0	1.987121E+0	2.027360E+0	2.019810E+0	2.027288E+0	2.060390E+0	2.019438E+0	1.991756E+0	2.036668E+0	1.996411E+0	2.013896E+0	2.028026E+0	2.045959E+0	2.096998E+0	1.959170E+0	2.001978E+0	2.047827E+0	2.047665E+0	2.013036E+0	2.075725E+0	2.035415E+0	2.036131E+0	1.946190E+0	2.048354E+0	2.013443E+0	2.008768E+0	1.979590E+0	2.090106E+0	1.986163E+0	1.982065E+0	2.015220E+0	2.087698E+0	2.030607E+0	2.091105E+0	2.020988E+0	2.039519E+0	2.040098E+0	2.000941E+0	1.923686E+0	1.985800E+0	1.998548E+0	1.981196E+0	1.880951E+0	2.024376E+0	2.002701E+0	2.112406E+0	1.982384E+0	2.073640E+0	1.989454E+0	1.963488E+0	1.969322E+0	1.969152E+0	2.006152E+0	2.004423E+0	1.921478E+0	1.993825E+0	1.939602E+0	1.995445E+0	1.980212E+0	1.972682E+0	2.007034E+0	1.970449E+0	1.928850E+0	2.064642E+0	2.029843E+0	1.932873E+0	2.040792E+0	2.044238E+0	1.940646E+0	1.912137E+0	1.969709E+0	2.005746E+0	1.967765E+0	1.973526E+0	1.993204E+0	2.011221E+0	1.999797E+0	2.026865E+0	2.008503E+0	1.981213E+0	1.960556E+0	2.010242E+0	2.087021E+0	1.881765E+0	1.968531E+0	1.933934E+0	1.935115E+0	1.970674E+0	1.990311E+0	1.924691E+0	1.937126E+0	2.046898E+0	2.101659E+0	1.909945E+0
5.402530E+2	2.060555E+0	2.061614E+0	2.033769E+0	2.053343E+0	2.037293E+0	2.038508E+0	2.097276E+0	2.000311E+0	1.977931E+0	2.004742E+0	2.019289E+0	2.114443E+0	2.036577E+0	2.015579E+0	2.049896E+0	2.019008E+0	1.996026E+0	1.953963E+0	2.052104E+0	1.954999E+0	1.995086E+0	2.025978E+0	2.033145E+0	1.979893E+0	1.973021E+0	2.011077E+0	2.073742E+0	2.063651E+0	1.937020E+0	1.975823E+0	2.031315E+0	1.975600E+0	1.997179E+0	1.945568E+0	1.992351E+0	1.980342E+0	2.002926E+0	2.041696E+0	2.043277E+0	2.078505E+0	1.945316E+0	2.009148E+0	2.097487E+0	2.022949E+0	2.045223E+0	2.004420E+0	1.986056E+0	2.026189E+0	2.035594E+0	1.936100E+0	2.060804E+0	2.026892E+0	2.005619E+0	1.976471E+0	2.010543E+0	2.020997E+0	1.981432E+0	1.985347E+0	2.110613E+0	2.068813E+0	1.982558E+0	1.954649E+0	1.935284E+0	1.992057E+0	2.024383E+0	1.976723E+0	1.941189E+0	1.975990E+0	1.935499E+0	1.938772E+0	2.057263E+0	1.980156E+0	1.986961E+0	2.019439E+0	1.991984E+0	1.966194E+0	2.015709E+0	1.917464E+0	1.887078E+0	2.033676E+0	1.988822E+0	1.969813E+0	2.016933E+0	1.989317E+0	2.009024E+0	2.032348E+0	2.103008E+0	1.978385E+0	1.974057E+0	2.011165E+0	2.030185E+0	1.930376E+0	1.964157E+0	1.964126E+0	2.001082E+0	2.017388E+0	2.004154E+0	1.865631E+0	2.014531E+0	1.972313E+0	1.933409E+0	1.979597E+0	1.972587E+0	1.944415E+0	1.960639E+0	1.940265E+0	2.018953E+0	1.995526E+0	1.965419E+0	1.946700E+0	1.959670E+0	1.978705E+0	1.945904E+0	1.904232E+0	2.032043E+0	1.968039E+0	1.893865E+0	1.959241E+0	2.038089E+0	2.007448E+0	1.990959E+0	1.952385E+0	2.020984E+0	1.911663E+0	1.975866E+0	1.930356E+0	1.925580E+0	1.913522E+0	1.944373E+0	1.964269E+0	1.943685E+0	2.012733E+0	1.969106E+0	1.865390E+0	1.989549E+0	1.979489E+0	1.868537E+0	1.938565E+0	1.999077E+0	2.053254E+0	1.951388E+0	1.898766E+0	1.925998E+0	1.928952E+0	2.116521E+0	1.889507E+0	1.935633E+0	1.885983E+0	1.995311E+0	1.937213E+0	1.988631E+0	1.939772E+0	2.005173E+0	2.012016E+0	1.891300E+0	1.998101E+0	1.889892E+0	1.914143E+0	1.961987E+0	1.931598E+0	1.934621E+0	1.942652E+0	1.911196E+0	2.001586E+0	1.751734E+0
5.405080E+2	1.962196E+0	2.056390E+0	1.958604E+0	1.974855E+0	2.031078E+0	2.024257E+0	1.989992E+0	1.982054E+0	1.968323E+0	2.002994E+0	2.047351E+0	1.940631E+0	1.993842E+0	1.928049E+0	1.986962E+0	1.918087E+0	1.968452E+0	1.959646E+0	1.955796E+0	1.985918E+0	1.990615E+0	1.863758E+0	1.987423E+0	1.926358E+0	1.928838E+0	1.929933E+0	1.959859E+0	1.950826E+0	1.955220E+0	1.936284E+0	1.903151E+0	1.941186E+0	2.051027E+0	1.991609E+0	1.933707E+0	2.014893E+0	1.968288E+0	1.996032E+0	1.955170E+0	1.938540E+0	1.910463E+0	1.953162E+0	1.990516E+0	1.919848E+0	1.989819E+0	1.929382E+0	1.976693E+0	1.957592E+0	1.960125E+0	1.992424E+0	2.056907E+0	1.920673E+0	1.925307E+0	1.933847E+0	1.954187E+0	2.005491E+0	1.883102E+0	1.920794E+0	2.049268E+0	1.961425E+0	1.972199E+0	1.962010E+0	1.918134E+0	1.915543E+0	2.075086E+0	1.964648E+0	1.907358E+0	1.914146E+0	1.915434E+0	1.939835E+0	1.974998E+0	1.994433E+0	2.000838E+0	1.980359E+0	1.962769E+0	1.973742E+0	2.031191E+0	1.934007E+0	1.968491E+0	1.896608E+0	1.980443E+0	1.867731E+0	1.918317E+0	1.990952E+0	1.944048E+0	1.908151E+0	1.978904E+0	1.961335E+0	1.879915E+0	1.936636E+0	1.928246E+0	1.930491E+0	1.897008E+0	1.881845E+0	1.959685E+0	1.929547E+0	2.003539E+0	1.841463E+0	1.903838E+0	1.973822E+0	1.925168E+0	1.899162E+0	1.867545E+0	1.951494E+0	1.934336E+0	1.854381E+0	1.930199E+0	1.913302E+0	1.921537E+0	1.909628E+0	1.979616E+0	1.927652E+0	1.864947E+0	1.881410E+0	1.957812E+0	1.937428E+0	1.918815E+0	1.913150E+0	1.968276E+0	2.010781E+0	1.886453E+0	1.910561E+0	1.874924E+0	1.935587E+0	1.922403E+0	1.885793E+0	1.970636E+0	1.899753E+0	1.970292E+0	1.887182E+0	1.910893E+0	1.877365E+0	1.877012E+0	1.851562E+0	1.850723E+0	1.833590E+0	1.865673E+0	1.940475E+0	1.912155E+0	1.937509E+0	1.919403E+0	1.857827E+0	1.950038E+0	1.913431E+0	1.966321E+0	1.821214E+0	1.905626E+0	1.792392E+0	1.953222E+0	1.893960E+0	1.896019E+0	1.852368E+0	1.847082E+0	1.827070E+0	1.821415E+0	1.926199E+0	1.885385E+0	1.879340E+0	1.911230E+0	1.895497E+0	1.860828E+0	1.830028E+0	1.912760E+0	2.014412E+0	1.719985E+0
5.407630E+2	1.778535E+0	1.847734E+0	1.799615E+0	1.778812E+0	1.814053E+0	1.756993E+0	1.795328E+0	1.841117E+0	1.725676E+0	1.768485E+0	1.772899E+0	1.745426E+0	1.802051E+0	1.792297E+0	1.753296E+0	1.698509E+0	1.781409E+0	1.746288E+0	1.834561E+0	1.775056E+0	1.762517E+0	1.736314E+0	1.802218E+0	1.799394E+0	1.803238E+0	1.765416E+0	1.826533E+0	1.835005E+0	1.759027E+0	1.743507E+0	1.690760E+0	1.738995E+0	1.773231E+0	1.764054E+0	1.771415E+0	1.816728E+0	1.798170E+0	1.776209E+0	1.850723E+0	1.832259E+0	1.699314E+0	1.742745E+0	1.815333E+0	1.748021E+0	1.793588E+0	1.736002E+0	1.716705E+0	1.767841E+0	1.792168E+0	1.769191E+0	1.894753E+0	1.780510E+0	1.711020E+0	1.743846E+0	1.777479E+0	1.796608E+0	1.750568E+0	1.775884E+0	1.805811E+0	1.708386E+0	1.769084E+0	1.732217E+0	1.696290E+0	1.712092E+0	1.791714E+0	1.745204E+0	1.777174E+0	1.796990E+0	1.773488E+0	1.710181E+0	1.798482E+0	1.802040E+0	1.823677E+0	1.697683E+0	1.736559E+0	1.778454E+0	1.772645E+0	1.726774E+0	1.837628E+0	1.783548E+0	1.759441E+0	1.749847E+0	1.730677E+0	1.793124E+0	1.679524E+0	1.737343E+0	1.814517E+0	1.741046E+0	1.785792E+0	1.724903E+0	1.770044E+0	1.711350E+0	1.800177E+0	1.690746E+0	1.697445E+0	1.767229E+0	1.819050E+0	1.731203E+0	1.847625E+0	1.762457E+0	1.786428E+0	1.787764E+0	1.709425E+0	1.753407E+0	1.719682E+0	1.716104E+0	1.742267E+0	1.814787E+0	1.711319E+0	1.685598E+0	1.796907E+0	1.741945E+0	1.750147E+0	1.662782E+0	1.800793E+0	1.748143E+0	1.681506E+0	1.747090E+0	1.764311E+0	1.669929E+0	1.718419E+0	1.712521E+0	1.726943E+0	1.739108E+0	1.709903E+0	1.707596E+0	1.731840E+0	1.760441E+0	1.716548E+0	1.682283E+0	1.762611E+0	1.751276E+0	1.764341E+0	1.731582E+0	1.718622E+0	1.762747E+0	1.726746E+0	1.682674E+0	1.715957E+0	1.764020E+0	1.748802E+0	1.632631E+0	1.754805E+0	1.760593E+0	1.760644E+0	1.705288E+0	1.777827E+0	1.640848E+0	1.750665E+0	1.769757E+0	1.750716E+0	1.655516E+0	1.743174E+0	1.737091E+0	1.682410E+0	1.793335E+0	1.686116E+0	1.697385E+0	1.708523E+0	1.755714E+0	1.706359E+0	1.685224E+0	1.695451E+0	1.705905E+0	1.673540E+0
5.410190E+2	1.667313E+0	1.755698E+0	1.734313E+0	1.704662E+0	1.834056E+0	1.673651E+0	1.721817E+0	1.733353E+0	1.715916E+0	1.705339E+0	1.737735E+0	1.694008E+0	1.699169E+0	1.723854E+0	1.729421E+0	1.708454E+0	1.730176E+0	1.669711E+0	1.667785E+0	1.652242E+0	1.656277E+0	1.680626E+0	1.734283E+0	1.648401E+0	1.744181E+0	1.700884E+0	1.672206E+0	1.781676E+0	1.709821E+0	1.707264E+0	1.646393E+0	1.702615E+0	1.719418E+0	1.670077E+0	1.694564E+0	1.724856E+0	1.675376E+0	1.717100E+0	1.742316E+0	1.722950E+0	1.688080E+0	1.727073E+0	1.659656E+0	1.682028E+0	1.706134E+0	1.706800E+0	1.657283E+0	1.693426E+0	1.721986E+0	1.667706E+0	1.759574E+0	1.718247E+0	1.670215E+0	1.676634E+0	1.719353E+0	1.750378E+0	1.640692E+0	1.743389E+0	1.656580E+0	1.652322E+0	1.714500E+0	1.672958E+0	1.649186E+0	1.701126E+0	1.687871E+0	1.647123E+0	1.680657E+0	1.730401E+0	1.659665E+0	1.664256E+0	1.767017E+0	1.657468E+0	1.663269E+0	1.629600E+0	1.717482E+0	1.627013E+0	1.731939E+0	1.613169E+0	1.689487E+0	1.709540E+0	1.743090E+0	1.663345E+0	1.721112E+0	1.708853E+0	1.622104E+0	1.682515E+0	1.785969E+0	1.685200E+0	1.701431E+0	1.724192E+0	1.737939E+0	1.724204E+0	1.739034E+0	1.638168E+0	1.658316E+0	1.678848E+0	1.709431E+0	1.614857E+0	1.659334E+0	1.668747E+0	1.655104E+0	1.686088E+0	1.620172E+0	1.666761E+0	1.717863E+0	1.606321E+0	1.639190E+0	1.683418E+0	1.650681E+0	1.655619E+0	1.694457E+0	1.662490E+0	1.715575E+0	1.622289E+0	1.621230E+0	1.693924E+0	1.629549E+0	1.673059E+0	1.710669E+0	1.693845E+0	1.607669E+0	1.648044E+0	1.709446E+0	1.714160E+0	1.611912E+0	1.633842E+0	1.650936E+0	1.664798E+0	1.700373E+0	1.644921E+0	1.697571E+0	1.672638E+0	1.666597E+0	1.628885E+0	1.647011E+0	1.686993E+0	1.630204E+0	1.559308E+0	1.673398E+0	1.684933E+0	1.651887E+0	1.644423E+0	1.758612E+0	1.638435E+0	1.717505E+0	1.588696E+0	1.691522E+0	1.656841E+0	1.667521E+0	1.602268E+0	1.632177E+0	1.639986E+0	1.675360E+0	1.647379E+0	1.641593E+0	1.741878E+0	1.647948E+0	1.626538E+0	1.611924E+0	1.664517E+0	1.660685E+0	1.602498E+0	1.597433E+0	1.737044E+0	1.568430E+0
5.412690E+2	1.734106E+0	1.839801E+0	1.733581E+0	1.680656E+0	1.743790E+0	1.814494E+0	1.777593E+0	1.726751E+0	1.723891E+0	1.736540E+0	1.754001E+0	1.738769E+0	1.797557E+0	1.735451E+0	1.782692E+0	1.718945E+0	1.757922E+0	1.713373E+0	1.745760E+0	1.738722E+0	1.737394E+0	1.714044E+0	1.696910E+0	1.728094E+0	1.759228E+0	1.707527E+0	1.765315E+0	1.756093E+0	1.697832E+0	1.739677E+0	1.769101E+0	1.762146E+0	1.659009E+0	1.732067E+0	1.686022E+0	1.788638E+0	1.724397E+0	1.770602E+0	1.775055E+0	1.764132E+0	1.710131E+0	1.680217E+0	1.735523E+0	1.698504E+0	1.731069E+0	1.702761E+0	1.736080E+0	1.745961E+0	1.748162E+0	1.717701E+0	1.802727E+0	1.717194E+0	1.767054E+0	1.695978E+0	1.781496E+0	1.772382E+0	1.699751E+0	1.693736E+0	1.684173E+0	1.724092E+0	1.721649E+0	1.717820E+0	1.672393E+0	1.700800E+0	1.715124E+0	1.770172E+0	1.683989E+0	1.783077E+0	1.657246E+0	1.689595E+0	1.740815E+0	1.778456E+0	1.751083E+0	1.712385E+0	1.722711E+0	1.686501E+0	1.739241E+0	1.662838E+0	1.671565E+0	1.689267E+0	1.699436E+0	1.657083E+0	1.690180E+0	1.690836E+0	1.743921E+0	1.661130E+0	1.733040E+0	1.698077E+0	1.748452E+0	1.655126E+0	1.756606E+0	1.742847E+0	1.727210E+0	1.648883E+0	1.708405E+0	1.650642E+0	1.710778E+0	1.644153E+0	1.772783E+0	1.647098E+0	1.706324E+0	1.717605E+0	1.728034E+0	1.718990E+0	1.676231E+0	1.701413E+0	1.739562E+0	1.734330E+0	1.679336E+0	1.751846E+0	1.720204E+0	1.698079E+0	1.707444E+0	1.661240E+0	1.665535E+0	1.744032E+0	1.668061E+0	1.688471E+0	1.761243E+0	1.740483E+0	1.663948E+0	1.711583E+0	1.656921E+0	1.718661E+0	1.684881E+0	1.649389E+0	1.719676E+0	1.686842E+0	1.707806E+0	1.606755E+0	1.669638E+0	1.684902E+0	1.685450E+0	1.727989E+0	1.686548E+0	1.680919E+0	1.630833E+0	1.689447E+0	1.677575E+0	1.674323E+0	1.696481E+0	1.629397E+0	1.680818E+0	1.650543E+0	1.736301E+0	1.649181E+0	1.726829E+0	1.686385E+0	1.704325E+0	1.662683E+0	1.752159E+0	1.640830E+0	1.701885E+0	1.678653E+0	1.659029E+0	1.761634E+0	1.693575E+0	1.622907E+0	1.656427E+0	1.685453E+0	1.631273E+0	1.585019E+0	1.597269E+0	1.827854E+0	1.643410E+0
5.415090E+2	1.720079E+0	1.686204E+0	1.661401E+0	1.615395E+0	1.689069E+0	1.683990E+0	1.672634E+0	1.682406E+0	1.719951E+0	1.629036E+0	1.709673E+0	1.703360E+0	1.671008E+0	1.582655E+0	1.687844E+0	1.668700E+0	1.703207E+0	1.659792E+0	1.608595E+0	1.605577E+0	1.697649E+0	1.645586E+0	1.722338E+0	1.672723E+0	1.650241E+0	1.670238E+0	1.653597E+0	1.719239E+0	1.631166E+0	1.685194E+0	1.734422E+0	1.663399E+0	1.703113E+0	1.685740E+0	1.662335E+0	1.629674E+0	1.649884E+0	1.607344E+0	1.723386E+0	1.644240E+0	1.673219E+0	1.654341E+0	1.680547E+0	1.609598E+0	1.676923E+0	1.667320E+0	1.701233E+0	1.669923E+0	1.676216E+0	1.705630E+0	1.728809E+0	1.726997E+0	1.667061E+0	1.651708E+0	1.712859E+0	1.696990E+0	1.591312E+0	1.714992E+0	1.659117E+0	1.675092E+0	1.737939E+0	1.652309E+0	1.575333E+0	1.620659E+0	1.703978E+0	1.683921E+0	1.697692E+0	1.640263E+0	1.592582E+0	1.639497E+0	1.704549E+0	1.705912E+0	1.639274E+0	1.683024E+0	1.617585E+0	1.724358E+0	1.688230E+0	1.627834E+0	1.686930E+0	1.642114E+0	1.633216E+0	1.640002E+0	1.621167E+0	1.658160E+0	1.588411E+0	1.661903E+0	1.732868E+0	1.649346E+0	1.606070E+0	1.608285E+0	1.660210E+0	1.692641E+0	1.634018E+0	1.618638E+0	1.695840E+0	1.673965E+0	1.644246E+0	1.606330E+0	1.662832E+0	1.658288E+0	1.614349E+0	1.606142E+0	1.683522E+0	1.662376E+0	1.683482E+0	1.638817E+0	1.652500E+0	1.685173E+0	1.641033E+0	1.613595E+0	1.603829E+0	1.666568E+0	1.676271E+0	1.573358E+0	1.604290E+0	1.641883E+0	1.670424E+0	1.588192E+0	1.670906E+0	1.697351E+0	1.575763E+0	1.642505E+0	1.691395E+0	1.707637E+0	1.645023E+0	1.679526E+0	1.677024E+0	1.605516E+0	1.637435E+0	1.562887E+0	1.650816E+0	1.551152E+0	1.602863E+0	1.596237E+0	1.599135E+0	1.598406E+0	1.666584E+0	1.680311E+0	1.649192E+0	1.637091E+0	1.605527E+0	1.625876E+0	1.618750E+0	1.589854E+0	1.673342E+0	1.657456E+0	1.655027E+0	1.636165E+0	1.647803E+0	1.571593E+0	1.613806E+0	1.565862E+0	1.615822E+0	1.609784E+0	1.738820E+0	1.655771E+0	1.649080E+0	1.620920E+0	1.624119E+0	1.616293E+0	1.604069E+0	1.586771E+0	1.541671E+0	1.686638E+0	1.667411E+0
5.417650E+2	1.462739E+0	1.497039E+0	1.523785E+0	1.517697E+0	1.513534E+0	1.545348E+0	1.577398E+0	1.514092E+0	1.528163E+0	1.464457E+0	1.520224E+0	1.463648E+0	1.507253E+0	1.486379E+0	1.505946E+0	1.487583E+0	1.488437E+0	1.488412E+0	1.436752E+0	1.489435E+0	1.464873E+0	1.490671E+0	1.477825E+0	1.517533E+0	1.508700E+0	1.439409E+0	1.523026E+0	1.532359E+0	1.445837E+0	1.429146E+0	1.430171E+0	1.506244E+0	1.465425E+0	1.451355E+0	1.462992E+0	1.542376E+0	1.461870E+0	1.495851E+0	1.513011E+0	1.484892E+0	1.433981E+0	1.429115E+0	1.494321E+0	1.498771E+0	1.537095E+0	1.482561E+0	1.512143E+0	1.496462E+0	1.513481E+0	1.493646E+0	1.576826E+0	1.489919E+0	1.433267E+0	1.459827E+0	1.471014E+0	1.480091E+0	1.473185E+0	1.508738E+0	1.518261E+0	1.464894E+0	1.531653E+0	1.470365E+0	1.484203E+0	1.449003E+0	1.536721E+0	1.488573E+0	1.459104E+0	1.511650E+0	1.564211E+0	1.406335E+0	1.545861E+0	1.510831E+0	1.477777E+0	1.438197E+0	1.518021E+0	1.481673E+0	1.518550E+0	1.478680E+0	1.542371E+0	1.473963E+0	1.516758E+0	1.504820E+0	1.482104E+0	1.458052E+0	1.529224E+0	1.483850E+0	1.540591E+0	1.485236E+0	1.481850E+0	1.474390E+0	1.551531E+0	1.515693E+0	1.516008E+0	1.456254E+0	1.446216E+0	1.541174E+0	1.466510E+0	1.455729E+0	1.515078E+0	1.440097E+0	1.434379E+0	1.453013E+0	1.490790E+0	1.511466E+0	1.480374E+0	1.477577E+0	1.498753E+0	1.492271E+0	1.452330E+0	1.461656E+0	1.469204E+0	1.523560E+0	1.513123E+0	1.427882E+0	1.503779E+0	1.529149E+0	1.472822E+0	1.485844E+0	1.522472E+0	1.491603E+0	1.442572E+0	1.485959E+0	1.456950E+0	1.503505E+0	1.476786E+0	1.434602E+0	1.479713E+0	1.446040E+0	1.472025E+0	1.397530E+0	1.464379E+0	1.466555E+0	1.497893E+0	1.493436E+0	1.459652E+0	1.454094E+0	1.455060E+0	1.475205E+0	1.487178E+0	1.544201E+0	1.456226E+0	1.413049E+0	1.497606E+0	1.494823E+0	1.519244E+0	1.457031E+0	1.520079E+0	1.383900E+0	1.447585E+0	1.465739E+0	1.557687E+0	1.405646E+0	1.471652E+0	1.500801E+0	1.469753E+0	1.458439E+0	1.417277E+0	1.494532E+0	1.422953E+0	1.503895E+0	1.454170E+0	1.454364E+0	1.405593E+0	1.590642E+0	1.421751E+0
5.420160E+2	1.263765E+0	1.311065E+0	1.260677E+0	1.290966E+0	1.272463E+0	1.340794E+0	1.209293E+0	1.269741E+0	1.245600E+0	1.275306E+0	1.299223E+0	1.259520E+0	1.257898E+0	1.279721E+0	1.255651E+0	1.215034E+0	1.318404E+0	1.252513E+0	1.267969E+0	1.270721E+0	1.296160E+0	1.289881E+0	1.274594E+0	1.274185E+0	1.262670E+0	1.232906E+0	1.294128E+0	1.352799E+0	1.249975E+0	1.278788E+0	1.227843E+0	1.261264E+0	1.251959E+0	1.276490E+0	1.257251E+0	1.276130E+0	1.245906E+0	1.227969E+0	1.265680E+0	1.314039E+0	1.239502E+0	1.259606E+0	1.288211E+0	1.281963E+0	1.295435E+0	1.253493E+0	1.289750E+0	1.264411E+0	1.343260E+0	1.287742E+0	1.280236E+0	1.264327E+0	1.276035E+0	1.220939E+0	1.261948E+0	1.305281E+0	1.239355E+0	1.289706E+0	1.308482E+0	1.256397E+0	1.265600E+0	1.228686E+0	1.213588E+0	1.277425E+0	1.325213E+0	1.285857E+0	1.250109E+0	1.253599E+0	1.251046E+0	1.184177E+0	1.300508E+0	1.301507E+0	1.299490E+0	1.274210E+0	1.308598E+0	1.182295E+0	1.321509E+0	1.268923E+0	1.294972E+0	1.279467E+0	1.278316E+0	1.228135E+0	1.232937E+0	1.306350E+0	1.263654E+0	1.289536E+0	1.285711E+0	1.305485E+0	1.256453E+0	1.275007E+0	1.286679E+0	1.313195E+0	1.233839E+0	1.202744E+0	1.287124E+0	1.282003E+0	1.293542E+0	1.212896E+0	1.291890E+0	1.338321E+0	1.262189E+0	1.255261E+0	1.309822E+0	1.273681E+0	1.280988E+0	1.270982E+0	1.321195E+0	1.325405E+0	1.311660E+0	1.217154E+0	1.321915E+0	1.212756E+0	1.239897E+0	1.179296E+0	1.268554E+0	1.265813E+0	1.271142E+0	1.244059E+0	1.328836E+0	1.235931E+0	1.214024E+0	1.266913E+0	1.299988E+0	1.297363E+0	1.242150E+0	1.217815E+0	1.297513E+0	1.267204E+0	1.277496E+0	1.238201E+0	1.264971E+0	1.267431E+0	1.268845E+0	1.318046E+0	1.239462E+0	1.255796E+0	1.268204E+0	1.180751E+0	1.269409E+0	1.351170E+0	1.275917E+0	1.278478E+0	1.351584E+0	1.276553E+0	1.309993E+0	1.255805E+0	1.320957E+0	1.223929E+0	1.267025E+0	1.274693E+0	1.257283E+0	1.186730E+0	1.313783E+0	1.201822E+0	1.235665E+0	1.274561E+0	1.242101E+0	1.221243E+0	1.198167E+0	1.270895E+0	1.220389E+0	1.167422E+0	1.261283E+0	1.359939E+0	1.171640E+0
5.422780E+2	1.116172E+0	1.137533E+0	1.135731E+0	1.202689E+0	1.135857E+0	1.141930E+0	1.125078E+0	1.125858E+0	1.115470E+0	1.172089E+0	1.143299E+0	1.156855E+0	1.141526E+0	1.126683E+0	1.152432E+0	1.100067E+0	1.157221E+0	1.191117E+0	1.123553E+0	1.088750E+0	1.176134E+0	1.143994E+0	1.158863E+0	1.118878E+0	1.116265E+0	1.136252E+0	1.127064E+0	1.139355E+0	1.127534E+0	1.165646E+0	1.139910E+0	1.136800E+0	1.163564E+0	1.137163E+0	1.147636E+0	1.136313E+0	1.114265E+0	1.135615E+0	1.170781E+0	1.111791E+0	1.191596E+0	1.125246E+0	1.178845E+0	1.165957E+0	1.180443E+0	1.112546E+0	1.174221E+0	1.150611E+0	1.178631E+0	1.145846E+0	1.095641E+0	1.155732E+0	1.191154E+0	1.139328E+0	1.140066E+0	1.117471E+0	1.166284E+0	1.144947E+0	1.158289E+0	1.104445E+0	1.132088E+0	1.087601E+0	1.109245E+0	1.111391E+0	1.153746E+0	1.149840E+0	1.131755E+0	1.183910E+0	1.127922E+0	1.141540E+0	1.178370E+0	1.185972E+0	1.175400E+0	1.102260E+0	1.159056E+0	1.116396E+0	1.132058E+0	1.109462E+0	1.133303E+0	1.138310E+0	1.222604E+0	1.169149E+0	1.160515E+0	1.150850E+0	1.174340E+0	1.042457E+0	1.238648E+0	1.202658E+0	1.171632E+0	1.134381E+0	1.135755E+0	1.169818E+0	1.113997E+0	1.141216E+0	1.172024E+0	1.083488E+0	1.124084E+0	1.091364E+0	1.146242E+0	1.111548E+0	1.176098E+0	1.132199E+0	1.143794E+0	1.156301E+0	1.071401E+0	1.114952E+0	1.153935E+0	1.228496E+0	1.112986E+0	1.152965E+0	1.137535E+0	1.145639E+0	1.125267E+0	1.109232E+0	1.166712E+0	1.167480E+0	1.181061E+0	1.137922E+0	1.110983E+0	1.177484E+0	1.138154E+0	1.129563E+0	1.098727E+0	1.190935E+0	1.139539E+0	1.117518E+0	1.153480E+0	1.157467E+0	1.137778E+0	1.117473E+0	1.132234E+0	1.154423E+0	1.170512E+0	1.144813E+0	1.184592E+0	1.198053E+0	1.111458E+0	1.221577E+0	1.133042E+0	1.170898E+0	1.134260E+0	1.131194E+0	1.104424E+0	1.140598E+0	1.148461E+0	1.136679E+0	1.143357E+0	1.184716E+0	1.093480E+0	1.159550E+0	1.217179E+0	1.124016E+0	1.125279E+0	1.091138E+0	1.088063E+0	1.164771E+0	1.106848E+0	1.084791E+0	1.157992E+0	1.113266E+0	1.094011E+0	1.075005E+0	1.138020E+0	1.217094E+0	1.157944E+0
5.425080E+2	9.414110E-1	1.049252E+0	9.926807E-1	9.801428E-1	1.028863E+0	1.007237E+0	9.584814E-1	9.878751E-1	9.697776E-1	9.981724E-1	1.011424E+0	1.059675E+0	1.041016E+0	9.776095E-1	1.040181E+0	1.000736E+0	1.059108E+0	1.007699E+0	1.041906E+0	9.547025E-1	9.866144E-1	9.749698E-1	1.018212E+0	1.050538E+0	1.016511E+0	1.039971E+0	9.791866E-1	1.065688E+0	9.977392E-1	1.002103E+0	9.895486E-1	1.032527E+0	1.011598E+0	9.708110E-1	1.010260E+0	1.060255E+0	1.010882E+0	9.945977E-1	1.018730E+0	1.034478E+0	9.841860E-1	9.997610E-1	1.048574E+0	1.023596E+0	9.871405E-1	9.712323E-1	1.024274E+0	1.030518E+0	1.016733E+0	9.907928E-1	9.459384E-1	1.030929E+0	9.524865E-1	1.023663E+0	1.042861E+0	1.028506E+0	9.957665E-1	1.010830E+0	9.949637E-1	9.587806E-1	1.053012E+0	9.778252E-1	9.696734E-1	9.768189E-1	1.050977E+0	1.026846E+0	9.961857E-1	9.625366E-1	9.859798E-1	1.012060E+0	1.021177E+0	1.059077E+0	1.010177E+0	9.853876E-1	1.041158E+0	1.031037E+0	1.054093E+0	9.288652E-1	9.725322E-1	9.977175E-1	1.008801E+0	9.655522E-1	1.012259E+0	1.013795E+0	9.867175E-1	1.033339E+0	1.009866E+0	1.002564E+0	1.019143E+0	1.052328E+0	1.023822E+0	9.865584E-1	1.013954E+0	1.002839E+0	9.945394E-1	9.692533E-1	1.025485E+0	9.819028E-1	1.009875E+0	9.919808E-1	9.879964E-1	1.021166E+0	1.030331E+0	9.782990E-1	1.043681E+0	1.044075E+0	9.771494E-1	9.732513E-1	9.983868E-1	9.989127E-1	1.013766E+0	1.058009E+0	9.487684E-1	9.575496E-1	1.001065E+0	1.003416E+0	9.508972E-1	9.864021E-1	1.072947E+0	1.030686E+0	1.015052E+0	1.036383E+0	1.015088E+0	1.014989E+0	9.929336E-1	9.997872E-1	1.040751E+0	1.049574E+0	9.984447E-1	9.652492E-1	9.559650E-1	9.829501E-1	9.955455E-1	1.028326E+0	9.459009E-1	1.036834E+0	1.028603E+0	1.028360E+0	1.038692E+0	1.054191E+0	1.001971E+0	9.349931E-1	9.714235E-1	9.999801E-1	1.050662E+0	9.894082E-1	1.015603E+0	1.013689E+0	9.978128E-1	9.971840E-1	1.039833E+0	9.890609E-1	9.834858E-1	1.006876E+0	9.516301E-1	9.978655E-1	9.721073E-1	9.316164E-1	1.014562E+0	9.838989E-1	9.689772E-1	9.709601E-1	9.428493E-1	1.042462E+0	1.036709E+0
5.427710E+2	9.203907E-1	1.004229E+0	9.901201E-1	9.471112E-1	1.013484E+0	9.180073E-1	9.673591E-1	9.473678E-1	1.011379E+0	9.601296E-1	9.339691E-1	9.398680E-1	9.682030E-1	9.953600E-1	1.009826E+0	9.922805E-1	1.036453E+0	9.703524E-1	9.649662E-1	1.037377E+0	1.013104E+0	9.603552E-1	9.822336E-1	1.002059E+0	1.002503E+0	9.678709E-1	9.295235E-1	1.018281E+0	1.007365E+0	1.015884E+0	9.694331E-1	1.037330E+0	9.222778E-1	9.276351E-1	9.836557E-1	9.583536E-1	9.821269E-1	9.932324E-1	9.762846E-1	1.022304E+0	9.711474E-1	9.453218E-1	9.774140E-1	9.939393E-1	9.932841E-1	9.861657E-1	9.444849E-1	1.006708E+0	9.962041E-1	9.666974E-1	9.618866E-1	1.055907E+0	9.730110E-1	9.801026E-1	1.021164E+0	9.706742E-1	9.558364E-1	9.895516E-1	9.599766E-1	1.007343E+0	1.041588E+0	1.004885E+0	9.521032E-1	1.042669E+0	9.771095E-1	9.862840E-1	9.855136E-1	1.004469E+0	9.662623E-1	9.556777E-1	9.898318E-1	1.013379E+0	1.020596E+0	9.981743E-1	1.041948E+0	9.499139E-1	1.019283E+0	9.346074E-1	9.824574E-1	9.411633E-1	9.860568E-1	9.829840E-1	9.740874E-1	9.881066E-1	9.824574E-1	9.689177E-1	1.022560E+0	1.028757E+0	1.001859E+0	9.706234E-1	9.562389E-1	1.033142E+0	1.006428E+0	9.827005E-1	9.418729E-1	9.910286E-1	1.079039E+0	9.192032E-1	1.035215E+0	9.815373E-1	9.985816E-1	9.746448E-1	9.505745E-1	9.775837E-1	9.698940E-1	9.604620E-1	9.796379E-1	9.490603E-1	1.055116E+0	9.794560E-1	9.624156E-1	1.003021E+0	9.702535E-1	9.482251E-1	9.891143E-1	9.350970E-1	9.650330E-1	9.777745E-1	1.019537E+0	9.510287E-1	9.644203E-1	1.005809E+0	9.835598E-1	1.036973E+0	1.072179E+0	9.803877E-1	9.599809E-1	9.765848E-1	1.005759E+0	9.581729E-1	1.002332E+0	1.014923E+0	9.773690E-1	9.754633E-1	1.015574E+0	9.874132E-1	9.716349E-1	9.407645E-1	9.749990E-1	1.048448E+0	9.657620E-1	9.574415E-1	9.653966E-1	9.660913E-1	9.703714E-1	9.579865E-1	1.023354E+0	9.814630E-1	1.026699E+0	9.591581E-1	9.741600E-1	9.838545E-1	9.637074E-1	9.814648E-1	9.488086E-1	9.610887E-1	9.318233E-1	9.641664E-1	1.026203E+0	9.999008E-1	9.537237E-1	9.397354E-1	9.925432E-1	1.066091E+0	9.332605E-1
5.430170E+2	9.815992E-1	9.856918E-1	9.755581E-1	9.907497E-1	9.515922E-1	9.765226E-1	9.991828E-1	1.021038E+0	9.921781E-1	1.010110E+0	9.934569E-1	9.907956E-1	1.020088E+0	9.874960E-1	9.889925E-1	9.852770E-1	1.027607E+0	9.717648E-1	1.021154E+0	9.903570E-1	1.015286E+0	9.810877E-1	9.838305E-1	1.001584E+0	9.718466E-1	9.957334E-1	1.023114E+0	1.008050E+0	1.002495E+0	9.177691E-1	9.492999E-1	1.007836E+0	1.044477E+0	1.012905E+0	9.968115E-1	9.846899E-1	1.003652E+0	9.794544E-1	9.932479E-1	1.012610E+0	1.006196E+0	1.024697E+0	9.554178E-1	9.391161E-1	1.041039E+0	1.002848E+0	9.636226E-1	1.001521E+0	1.061767E+0	1.042664E+0	1.002242E+0	1.001005E+0	1.016799E+0	9.754518E-1	1.011280E+0	1.011820E+0	9.571793E-1	1.023034E+0	9.998838E-1	9.991046E-1	1.019219E+0	9.655402E-1	9.176965E-1	1.004701E+0	1.029157E+0	1.002144E+0	9.892037E-1	1.007307E+0	9.595043E-1	9.679327E-1	9.781320E-1	1.044145E+0	1.033125E+0	9.387443E-1	9.497135E-1	1.031124E+0	9.997425E-1	9.640583E-1	1.011715E+0	9.762960E-1	1.017037E+0	9.980692E-1	9.796592E-1	1.007715E+0	1.027474E+0	9.888005E-1	1.057229E+0	1.028974E+0	1.012956E+0	1.033726E+0	1.047819E+0	9.963014E-1	9.780572E-1	9.750133E-1	9.557651E-1	9.870203E-1	1.031308E+0	9.944484E-1	9.767285E-1	1.013201E+0	1.000340E+0	9.768527E-1	1.001175E+0	9.313756E-1	9.799641E-1	9.784493E-1	1.040962E+0	9.308089E-1	9.761691E-1	9.991603E-1	9.602778E-1	9.440715E-1	9.855021E-1	9.663355E-1	9.626972E-1	9.981767E-1	9.902373E-1	1.007802E+0	9.863799E-1	9.806964E-1	9.708531E-1	1.005916E+0	1.046715E+0	9.882125E-1	1.014527E+0	9.813682E-1	1.049191E+0	9.912842E-1	9.802393E-1	1.002098E+0	9.859600E-1	1.023219E+0	1.035364E+0	1.002714E+0	9.785542E-1	9.832981E-1	9.712591E-1	1.005455E+0	1.011573E+0	1.015138E+0	9.926298E-1	9.901737E-1	1.006105E+0	9.749023E-1	1.043267E+0	1.004900E+0	1.004313E+0	1.000210E+0	1.027772E+0	9.691299E-1	1.002255E+0	9.462464E-1	9.748026E-1	1.027272E+0	9.171381E-1	1.005128E+0	9.257785E-1	9.739966E-1	1.003022E+0	9.819407E-1	9.540263E-1	8.673623E-1	9.471006E-1	1.069679E+0	9.087567E-1
5.432860E+2	1.102284E+0	1.179683E+0	1.046018E+0	1.101723E+0	1.126681E+0	1.134150E+0	1.093847E+0	1.157097E+0	1.116338E+0	1.133067E+0	1.139528E+0	1.075851E+0	1.153932E+0	1.119645E+0	1.143461E+0	1.143473E+0	1.190531E+0	1.181025E+0	1.125477E+0	1.100436E+0	1.121515E+0	1.106365E+0	1.148278E+0	1.124075E+0	1.142155E+0	1.123581E+0	1.088838E+0	1.224092E+0	1.130325E+0	1.092334E+0	1.140136E+0	1.127359E+0	1.139033E+0	1.105460E+0	1.106804E+0	1.153509E+0	1.117468E+0	1.154937E+0	1.113490E+0	1.180416E+0	1.133794E+0	1.172446E+0	1.131602E+0	1.144038E+0	1.148580E+0	1.133746E+0	1.120739E+0	1.144427E+0	1.168231E+0	1.136875E+0	1.126875E+0	1.164518E+0	1.077371E+0	1.121354E+0	1.099529E+0	1.171948E+0	1.129676E+0	1.128491E+0	1.152377E+0	1.151426E+0	1.103079E+0	1.119603E+0	1.061356E+0	1.160600E+0	1.153783E+0	1.110047E+0	1.112469E+0	1.172301E+0	1.128176E+0	1.084876E+0	1.081229E+0	1.147505E+0	1.161467E+0	1.128506E+0	1.170540E+0	1.123434E+0	1.144598E+0	1.129280E+0	1.116565E+0	1.124042E+0	1.145371E+0	1.126345E+0	1.108576E+0	1.166523E+0	1.137334E+0	1.183700E+0	1.162897E+0	1.172691E+0	1.154174E+0	1.135894E+0	1.124154E+0	1.161405E+0	1.142804E+0	1.173608E+0	1.112384E+0	1.139809E+0	1.108788E+0	1.105997E+0	1.123117E+0	1.147994E+0	1.104006E+0	1.110075E+0	1.150224E+0	1.136024E+0	1.123090E+0	1.104158E+0	1.050017E+0	1.180542E+0	1.167974E+0	1.122599E+0	1.151750E+0	1.121018E+0	1.144611E+0	1.105766E+0	1.105485E+0	1.140059E+0	1.097086E+0	1.037667E+0	1.157886E+0	1.164169E+0	1.084252E+0	1.107583E+0	1.116112E+0	1.137892E+0	1.115993E+0	1.107689E+0	1.101655E+0	1.142145E+0	1.111716E+0	1.096536E+0	1.155719E+0	1.129348E+0	1.117526E+0	1.135710E+0	1.144221E+0	1.158872E+0	1.116199E+0	1.121477E+0	1.172160E+0	1.090976E+0	1.144616E+0	1.110753E+0	1.084887E+0	1.087439E+0	1.095271E+0	1.104993E+0	1.078775E+0	1.119006E+0	1.137650E+0	1.117183E+0	1.163337E+0	1.089010E+0	1.103116E+0	1.099871E+0	1.153049E+0	1.136832E+0	1.111626E+0	1.049665E+0	1.115302E+0	1.117764E+0	1.096378E+0	1.093083E+0	1.092566E+0	1.102942E+0	1.019749E+0
5.435330E+2	1.255961E+0	1.294059E+0	1.273803E+0	1.262935E+0	1.249242E+0	1.288824E+0	1.270554E+0	1.313314E+0	1.308044E+0	1.241479E+0	1.244874E+0	1.327391E+0	1.332764E+0	1.255675E+0	1.310761E+0	1.292828E+0	1.359791E+0	1.267717E+0	1.267935E+0	1.277202E+0	1.332675E+0	1.261176E+0	1.278503E+0	1.277790E+0	1.269773E+0	1.287728E+0	1.298788E+0	1.323683E+0	1.261112E+0	1.283602E+0	1.221977E+0	1.258939E+0	1.276111E+0	1.265372E+0	1.241637E+0	1.299440E+0	1.344354E+0	1.302288E+0	1.290332E+0	1.248324E+0	1.296625E+0	1.295262E+0	1.255167E+0	1.265039E+0	1.299421E+0	1.251753E+0	1.301226E+0	1.336645E+0	1.311584E+0	1.276399E+0	1.216401E+0	1.272756E+0	1.260353E+0	1.275773E+0	1.286033E+0	1.291994E+0	1.247357E+0	1.253850E+0	1.295988E+0	1.323111E+0	1.318091E+0	1.201206E+0	1.294115E+0	1.306007E+0	1.252945E+0	1.263579E+0	1.272085E+0	1.240905E+0	1.307270E+0	1.227787E+0	1.273442E+0	1.324148E+0	1.271968E+0	1.261459E+0	1.282148E+0	1.236877E+0	1.292975E+0	1.281906E+0	1.272435E+0	1.318624E+0	1.263807E+0	1.233311E+0	1.261460E+0	1.288941E+0	1.286263E+0	1.293215E+0	1.262316E+0	1.298860E+0	1.246801E+0	1.234517E+0	1.273846E+0	1.312611E+0	1.308001E+0	1.262040E+0	1.242634E+0	1.206851E+0	1.305274E+0	1.292375E+0	1.208888E+0	1.287087E+0	1.258772E+0	1.304704E+0	1.290150E+0	1.270620E+0	1.217892E+0	1.266885E+0	1.259131E+0	1.346170E+0	1.196242E+0	1.284960E+0	1.218308E+0	1.306037E+0	1.339581E+0	1.206798E+0	1.234259E+0	1.296369E+0	1.289648E+0	1.244954E+0	1.265816E+0	1.315859E+0	1.241284E+0	1.237142E+0	1.208758E+0	1.308192E+0	1.263702E+0	1.178256E+0	1.255661E+0	1.301420E+0	1.276688E+0	1.232322E+0	1.288196E+0	1.204253E+0	1.263418E+0	1.210510E+0	1.274676E+0	1.263034E+0	1.307649E+0	1.276370E+0	1.272598E+0	1.278720E+0	1.231857E+0	1.220562E+0	1.186995E+0	1.264858E+0	1.316387E+0	1.239193E+0	1.262355E+0	1.231984E+0	1.319666E+0	1.281084E+0	1.307914E+0	1.251183E+0	1.281831E+0	1.275962E+0	1.270806E+0	1.268322E+0	1.248302E+0	1.269782E+0	1.299418E+0	1.297518E+0	1.255063E+0	1.317121E+0	1.295005E+0	1.275191E+0	1.290645E+0
5.437640E+2	1.428944E+0	1.519260E+0	1.456263E+0	1.435719E+0	1.416672E+0	1.420658E+0	1.375079E+0	1.452316E+0	1.456757E+0	1.454933E+0	1.449262E+0	1.414968E+0	1.397097E+0	1.424590E+0	1.465336E+0	1.373846E+0	1.510594E+0	1.470672E+0	1.423328E+0	1.507330E+0	1.491563E+0	1.395982E+0	1.441730E+0	1.398744E+0	1.498391E+0	1.430670E+0	1.453377E+0	1.414705E+0	1.453106E+0	1.413756E+0	1.390846E+0	1.467204E+0	1.459731E+0	1.465202E+0	1.399826E+0	1.446918E+0	1.428957E+0	1.415221E+0	1.464944E+0	1.495430E+0	1.380037E+0	1.432873E+0	1.404036E+0	1.377879E+0	1.431998E+0	1.413277E+0	1.347130E+0	1.488145E+0	1.510605E+0	1.473235E+0	1.415030E+0	1.446928E+0	1.372754E+0	1.435704E+0	1.436656E+0	1.471658E+0	1.441190E+0	1.415427E+0	1.401601E+0	1.475190E+0	1.441795E+0	1.339259E+0	1.326209E+0	1.390953E+0	1.494639E+0	1.370364E+0	1.418190E+0	1.436732E+0	1.437905E+0	1.394550E+0	1.391687E+0	1.411202E+0	1.448998E+0	1.406629E+0	1.470201E+0	1.405675E+0	1.422770E+0	1.396749E+0	1.394914E+0	1.479427E+0	1.398923E+0	1.449468E+0	1.467542E+0	1.449363E+0	1.453484E+0	1.394941E+0	1.492955E+0	1.454203E+0	1.438859E+0	1.437034E+0	1.420437E+0	1.438230E+0	1.408213E+0	1.347572E+0	1.400151E+0	1.377783E+0	1.409496E+0	1.387203E+0	1.437042E+0	1.440120E+0	1.429492E+0	1.390860E+0	1.394628E+0	1.480897E+0	1.409216E+0	1.415987E+0	1.430938E+0	1.465035E+0	1.462571E+0	1.425617E+0	1.464182E+0	1.410672E+0	1.413586E+0	1.379312E+0	1.481984E+0	1.432647E+0	1.429478E+0	1.422729E+0	1.460474E+0	1.458587E+0	1.354839E+0	1.466211E+0	1.415812E+0	1.489441E+0	1.391391E+0	1.445168E+0	1.441445E+0	1.385520E+0	1.438361E+0	1.398638E+0	1.411512E+0	1.386428E+0	1.430215E+0	1.407341E+0	1.397159E+0	1.416799E+0	1.498240E+0	1.377823E+0	1.394330E+0	1.417445E+0	1.425549E+0	1.390623E+0	1.358916E+0	1.391790E+0	1.421025E+0	1.399381E+0	1.389842E+0	1.392754E+0	1.468920E+0	1.441261E+0	1.432964E+0	1.428727E+0	1.437507E+0	1.444778E+0	1.396061E+0	1.452075E+0	1.334512E+0	1.372463E+0	1.383860E+0	1.434517E+0	1.453470E+0	1.376027E+0	1.367382E+0	1.426397E+0	1.292240E+0
5.440220E+2	1.472927E+0	1.656972E+0	1.557431E+0	1.578888E+0	1.524276E+0	1.476131E+0	1.508499E+0	1.606033E+0	1.522072E+0	1.535795E+0	1.558854E+0	1.534161E+0	1.547922E+0	1.544456E+0	1.513904E+0	1.471839E+0	1.584505E+0	1.554150E+0	1.550368E+0	1.544055E+0	1.517673E+0	1.532570E+0	1.508114E+0	1.552350E+0	1.541275E+0	1.547862E+0	1.581021E+0	1.540896E+0	1.544740E+0	1.523821E+0	1.575575E+0	1.583327E+0	1.507256E+0	1.509959E+0	1.557439E+0	1.582365E+0	1.565210E+0	1.551293E+0	1.533044E+0	1.549968E+0	1.536943E+0	1.533435E+0	1.491643E+0	1.623986E+0	1.548907E+0	1.546246E+0	1.514812E+0	1.563018E+0	1.654861E+0	1.576426E+0	1.541927E+0	1.618778E+0	1.489931E+0	1.524640E+0	1.480111E+0	1.608037E+0	1.493030E+0	1.538976E+0	1.474823E+0	1.522560E+0	1.567876E+0	1.516794E+0	1.435410E+0	1.551595E+0	1.517775E+0	1.527590E+0	1.511654E+0	1.519249E+0	1.491298E+0	1.523400E+0	1.471646E+0	1.616822E+0	1.563462E+0	1.526627E+0	1.561173E+0	1.582985E+0	1.620128E+0	1.511627E+0	1.512593E+0	1.531693E+0	1.492305E+0	1.487844E+0	1.515563E+0	1.557653E+0	1.473538E+0	1.495156E+0	1.604009E+0	1.594585E+0	1.537791E+0	1.492881E+0	1.534409E+0	1.557307E+0	1.544251E+0	1.480745E+0	1.466233E+0	1.513922E+0	1.520981E+0	1.433436E+0	1.588720E+0	1.466537E+0	1.518572E+0	1.546158E+0	1.531941E+0	1.474667E+0	1.586477E+0	1.486073E+0	1.503031E+0	1.597871E+0	1.530819E+0	1.466730E+0	1.518260E+0	1.526512E+0	1.525745E+0	1.407450E+0	1.527069E+0	1.546434E+0	1.503977E+0	1.475877E+0	1.534741E+0	1.566977E+0	1.558428E+0	1.509192E+0	1.516355E+0	1.535817E+0	1.521978E+0	1.501659E+0	1.506915E+0	1.513087E+0	1.572855E+0	1.555611E+0	1.479857E+0	1.550054E+0	1.545510E+0	1.491132E+0	1.535218E+0	1.528303E+0	1.485784E+0	1.484363E+0	1.475912E+0	1.534698E+0	1.543907E+0	1.453395E+0	1.527975E+0	1.523767E+0	1.514466E+0	1.482208E+0	1.519620E+0	1.510601E+0	1.499374E+0	1.468013E+0	1.510951E+0	1.535991E+0	1.536321E+0	1.469148E+0	1.477699E+0	1.595306E+0	1.547860E+0	1.485621E+0	1.509084E+0	1.490356E+0	1.464120E+0	1.436849E+0	1.536461E+0	1.694618E+0	1.481420E+0
5.442750E+2	1.588369E+0	1.603635E+0	1.558792E+0	1.559015E+0	1.591286E+0	1.552673E+0	1.483275E+0	1.558853E+0	1.556890E+0	1.555842E+0	1.580241E+0	1.626899E+0	1.564924E+0	1.506654E+0	1.546214E+0	1.585331E+0	1.594252E+0	1.508596E+0	1.545759E+0	1.559230E+0	1.560318E+0	1.530290E+0	1.506141E+0	1.500991E+0	1.548762E+0	1.517244E+0	1.541635E+0	1.556683E+0	1.536083E+0	1.544842E+0	1.503535E+0	1.578012E+0	1.567765E+0	1.553541E+0	1.537410E+0	1.494418E+0	1.529186E+0	1.599740E+0	1.529619E+0	1.595231E+0	1.557137E+0	1.524025E+0	1.579213E+0	1.603684E+0	1.534350E+0	1.529869E+0	1.581625E+0	1.565845E+0	1.590917E+0	1.606632E+0	1.540803E+0	1.534240E+0	1.539416E+0	1.588511E+0	1.567914E+0	1.597180E+0	1.504941E+0	1.549535E+0	1.481932E+0	1.562293E+0	1.578115E+0	1.594519E+0	1.466708E+0	1.558224E+0	1.579195E+0	1.505877E+0	1.527615E+0	1.571330E+0	1.519448E+0	1.553590E+0	1.504122E+0	1.576023E+0	1.572880E+0	1.546481E+0	1.543403E+0	1.582655E+0	1.518991E+0	1.541864E+0	1.511490E+0	1.554030E+0	1.610364E+0	1.508467E+0	1.486471E+0	1.480116E+0	1.585509E+0	1.553782E+0	1.539176E+0	1.580201E+0	1.544819E+0	1.575551E+0	1.501485E+0	1.568015E+0	1.544282E+0	1.583031E+0	1.507286E+0	1.494552E+0	1.591221E+0	1.447873E+0	1.596006E+0	1.520260E+0	1.590967E+0	1.564345E+0	1.490782E+0	1.595065E+0	1.466805E+0	1.474313E+0	1.580075E+0	1.529822E+0	1.567974E+0	1.480797E+0	1.551299E+0	1.542920E+0	1.443591E+0	1.441008E+0	1.481049E+0	1.598741E+0	1.528593E+0	1.501010E+0	1.595295E+0	1.583229E+0	1.546391E+0	1.553810E+0	1.565171E+0	1.544526E+0	1.568391E+0	1.501696E+0	1.550288E+0	1.564617E+0	1.545214E+0	1.443050E+0	1.511626E+0	1.529445E+0	1.545163E+0	1.524642E+0	1.499250E+0	1.557775E+0	1.506622E+0	1.545206E+0	1.511416E+0	1.534240E+0	1.580614E+0	1.519029E+0	1.508739E+0	1.545011E+0	1.556093E+0	1.533040E+0	1.516659E+0	1.506385E+0	1.537186E+0	1.436633E+0	1.533784E+0	1.517069E+0	1.528000E+0	1.467309E+0	1.474221E+0	1.595217E+0	1.441938E+0	1.502891E+0	1.514204E+0	1.443480E+0	1.482264E+0	1.492140E+0	1.504681E+0	1.552525E+0	1.464503E+0
5.445130E+2	1.494459E+0	1.559227E+0	1.550565E+0	1.477404E+0	1.503726E+0	1.504651E+0	1.533921E+0	1.663735E+0	1.522338E+0	1.544008E+0	1.520205E+0	1.592647E+0	1.513116E+0	1.515414E+0	1.494876E+0	1.557291E+0	1.617117E+0	1.500537E+0	1.476832E+0	1.490278E+0	1.493595E+0	1.484560E+0	1.511938E+0	1.548959E+0	1.556832E+0	1.553900E+0	1.545391E+0	1.496979E+0	1.522607E+0	1.499657E+0	1.411439E+0	1.553831E+0	1.545370E+0	1.503369E+0	1.489747E+0	1.552992E+0	1.522150E+0	1.515550E+0	1.515176E+0	1.568835E+0	1.541205E+0	1.524150E+0	1.534328E+0	1.479181E+0	1.492027E+0	1.497368E+0	1.462955E+0	1.590447E+0	1.573359E+0	1.493453E+0	1.581476E+0	1.538644E+0	1.516081E+0	1.515105E+0	1.530309E+0	1.529854E+0	1.536908E+0	1.469229E+0	1.480612E+0	1.521521E+0	1.546448E+0	1.510123E+0	1.470162E+0	1.556598E+0	1.565995E+0	1.494728E+0	1.450481E+0	1.574295E+0	1.539532E+0	1.484103E+0	1.493236E+0	1.571042E+0	1.492070E+0	1.546450E+0	1.475171E+0	1.555474E+0	1.564380E+0	1.466798E+0	1.522191E+0	1.518611E+0	1.518370E+0	1.494953E+0	1.517972E+0	1.594277E+0	1.515417E+0	1.467849E+0	1.533388E+0	1.522710E+0	1.551995E+0	1.464833E+0	1.553370E+0	1.500798E+0	1.516105E+0	1.469124E+0	1.495340E+0	1.512830E+0	1.520946E+0	1.436103E+0	1.516689E+0	1.503589E+0	1.543090E+0	1.529025E+0	1.479785E+0	1.472768E+0	1.552121E+0	1.471899E+0	1.510780E+0	1.541097E+0	1.466160E+0	1.407321E+0	1.519636E+0	1.526907E+0	1.575350E+0	1.409254E+0	1.448128E+0	1.518879E+0	1.547798E+0	1.517630E+0	1.520653E+0	1.568988E+0	1.463777E+0	1.519700E+0	1.509087E+0	1.514127E+0	1.575651E+0	1.479167E+0	1.567588E+0	1.487983E+0	1.465529E+0	1.440768E+0	1.496497E+0	1.472809E+0	1.573789E+0	1.474762E+0	1.522458E+0	1.508662E+0	1.463396E+0	1.473132E+0	1.506737E+0	1.550019E+0	1.498625E+0	1.474296E+0	1.454700E+0	1.521962E+0	1.518980E+0	1.481748E+0	1.495156E+0	1.434556E+0	1.518364E+0	1.482972E+0	1.465200E+0	1.512558E+0	1.561618E+0	1.465836E+0	1.441696E+0	1.483261E+0	1.473993E+0	1.467734E+0	1.484636E+0	1.451181E+0	1.467070E+0	1.461983E+0	1.407218E+0	1.509919E+0	1.445742E+0
5.447660E+2	1.542699E+0	1.643643E+0	1.530872E+0	1.556464E+0	1.504441E+0	1.533551E+0	1.528137E+0	1.559497E+0	1.484166E+0	1.534509E+0	1.520686E+0	1.643264E+0	1.480371E+0	1.549675E+0	1.528679E+0	1.490455E+0	1.552097E+0	1.431104E+0	1.511384E+0	1.485295E+0	1.535043E+0	1.507804E+0	1.575012E+0	1.550420E+0	1.536341E+0	1.534499E+0	1.495298E+0	1.506548E+0	1.574852E+0	1.463180E+0	1.531197E+0	1.533037E+0	1.497561E+0	1.509127E+0	1.470144E+0	1.567231E+0	1.497342E+0	1.516973E+0	1.537988E+0	1.588162E+0	1.580726E+0	1.465259E+0	1.478421E+0	1.476419E+0	1.565929E+0	1.443020E+0	1.527937E+0	1.546512E+0	1.522750E+0	1.498550E+0	1.602270E+0	1.503770E+0	1.520043E+0	1.526781E+0	1.498559E+0	1.581588E+0	1.480492E+0	1.600848E+0	1.466805E+0	1.515785E+0	1.475099E+0	1.521493E+0	1.449024E+0	1.519462E+0	1.527350E+0	1.470099E+0	1.469677E+0	1.600978E+0	1.468066E+0	1.481065E+0	1.557218E+0	1.546518E+0	1.519733E+0	1.525663E+0	1.520276E+0	1.499858E+0	1.519726E+0	1.505649E+0	1.491707E+0	1.495646E+0	1.532505E+0	1.498776E+0	1.417978E+0	1.491760E+0	1.556444E+0	1.504822E+0	1.521677E+0	1.563345E+0	1.521059E+0	1.511950E+0	1.538054E+0	1.554032E+0	1.501793E+0	1.507967E+0	1.444803E+0	1.475163E+0	1.545508E+0	1.463591E+0	1.508638E+0	1.520621E+0	1.538269E+0	1.500493E+0	1.473633E+0	1.477230E+0	1.473613E+0	1.519070E+0	1.516337E+0	1.523626E+0	1.488648E+0	1.503553E+0	1.499425E+0	1.540903E+0	1.487274E+0	1.405713E+0	1.500838E+0	1.444048E+0	1.423371E+0	1.579945E+0	1.512826E+0	1.520188E+0	1.437204E+0	1.502382E+0	1.469109E+0	1.542628E+0	1.487821E+0	1.446023E+0	1.489088E+0	1.496539E+0	1.519097E+0	1.466638E+0	1.471099E+0	1.499004E+0	1.482142E+0	1.493317E+0	1.461463E+0	1.545467E+0	1.496278E+0	1.544853E+0	1.530658E+0	1.482938E+0	1.459445E+0	1.482436E+0	1.476159E+0	1.494118E+0	1.601217E+0	1.437382E+0	1.456659E+0	1.532633E+0	1.536230E+0	1.459635E+0	1.515616E+0	1.504973E+0	1.480814E+0	1.440628E+0	1.441556E+0	1.560973E+0	1.507273E+0	1.478788E+0	1.481013E+0	1.484092E+0	1.469348E+0	1.443400E+0	1.418560E+0	1.567865E+0	1.342456E+0
5.450090E+2	1.465291E+0	1.649717E+0	1.575649E+0	1.540747E+0	1.525867E+0	1.552058E+0	1.517278E+0	1.499257E+0	1.510975E+0	1.572193E+0	1.488924E+0	1.586884E+0	1.574993E+0	1.470094E+0	1.544979E+0	1.550255E+0	1.564927E+0	1.461389E+0	1.489910E+0	1.535142E+0	1.523163E+0	1.432737E+0	1.517470E+0	1.498448E+0	1.487451E+0	1.489452E+0	1.507416E+0	1.549658E+0	1.532638E+0	1.461765E+0	1.452021E+0	1.528710E+0	1.540262E+0	1.510075E+0	1.466303E+0	1.562903E+0	1.517651E+0	1.536482E+0	1.548510E+0	1.522985E+0	1.493922E+0	1.509103E+0	1.529452E+0	1.576280E+0	1.520913E+0	1.492128E+0	1.467324E+0	1.483552E+0	1.536403E+0	1.534207E+0	1.505518E+0	1.575342E+0	1.525860E+0	1.510611E+0	1.492192E+0	1.591792E+0	1.464594E+0	1.527816E+0	1.490782E+0	1.577941E+0	1.482281E+0	1.471146E+0	1.462727E+0	1.522482E+0	1.603489E+0	1.454052E+0	1.495696E+0	1.554616E+0	1.493718E+0	1.518159E+0	1.502109E+0	1.480511E+0	1.560956E+0	1.475514E+0	1.499707E+0	1.514288E+0	1.587306E+0	1.493395E+0	1.521342E+0	1.513803E+0	1.506557E+0	1.506416E+0	1.556133E+0	1.503156E+0	1.514580E+0	1.556742E+0	1.528805E+0	1.498655E+0	1.482677E+0	1.523924E+0	1.485348E+0	1.528215E+0	1.519396E+0	1.376718E+0	1.525041E+0	1.502230E+0	1.486741E+0	1.525290E+0	1.533454E+0	1.553148E+0	1.483526E+0	1.550391E+0	1.498794E+0	1.498832E+0	1.532770E+0	1.508273E+0	1.459544E+0	1.542402E+0	1.516343E+0	1.499151E+0	1.540975E+0	1.440093E+0	1.540152E+0	1.421614E+0	1.456914E+0	1.562191E+0	1.502667E+0	1.500703E+0	1.491016E+0	1.531311E+0	1.435874E+0	1.483157E+0	1.484350E+0	1.541940E+0	1.568970E+0	1.500469E+0	1.513106E+0	1.486651E+0	1.486008E+0	1.442969E+0	1.486733E+0	1.567792E+0	1.511385E+0	1.463568E+0	1.450489E+0	1.601622E+0	1.436558E+0	1.549382E+0	1.536821E+0	1.575062E+0	1.489619E+0	1.508455E+0	1.415960E+0	1.510149E+0	1.496994E+0	1.443388E+0	1.520153E+0	1.457659E+0	1.579339E+0	1.475892E+0	1.423154E+0	1.506653E+0	1.509303E+0	1.416720E+0	1.413320E+0	1.547820E+0	1.482481E+0	1.413091E+0	1.453832E+0	1.536003E+0	1.457555E+0	1.472064E+0	1.472165E+0	1.606944E+0	1.457984E+0
5.452580E+2	1.366702E+0	1.407849E+0	1.409979E+0	1.413672E+0	1.386174E+0	1.340537E+0	1.388129E+0	1.353018E+0	1.373536E+0	1.345535E+0	1.365776E+0	1.425951E+0	1.377435E+0	1.358935E+0	1.392412E+0	1.374583E+0	1.380468E+0	1.360158E+0	1.382892E+0	1.380652E+0	1.400680E+0	1.383782E+0	1.401286E+0	1.475898E+0	1.365083E+0	1.384590E+0	1.379986E+0	1.418156E+0	1.352429E+0	1.434455E+0	1.363872E+0	1.401769E+0	1.405109E+0	1.368541E+0	1.366271E+0	1.426722E+0	1.449527E+0	1.435987E+0	1.390474E+0	1.383872E+0	1.378876E+0	1.368851E+0	1.387124E+0	1.415673E+0	1.390244E+0	1.344561E+0	1.383124E+0	1.374816E+0	1.397320E+0	1.298851E+0	1.410238E+0	1.388471E+0	1.333909E+0	1.358877E+0	1.324194E+0	1.426595E+0	1.361508E+0	1.406979E+0	1.392697E+0	1.449460E+0	1.394890E+0	1.387246E+0	1.301882E+0	1.353404E+0	1.412181E+0	1.393443E+0	1.396398E+0	1.326007E+0	1.344256E+0	1.399289E+0	1.391054E+0	1.443330E+0	1.406458E+0	1.340606E+0	1.385212E+0	1.346576E+0	1.418119E+0	1.417949E+0	1.384079E+0	1.353659E+0	1.403965E+0	1.333816E+0	1.331844E+0	1.388997E+0	1.420016E+0	1.358377E+0	1.389091E+0	1.386355E+0	1.411477E+0	1.368263E+0	1.322420E+0	1.385254E+0	1.346071E+0	1.329189E+0	1.347925E+0	1.387607E+0	1.394237E+0	1.324749E+0	1.373435E+0	1.343375E+0	1.339611E+0	1.365506E+0	1.318133E+0	1.360548E+0	1.435778E+0	1.334729E+0	1.415823E+0	1.502706E+0	1.348567E+0	1.371863E+0	1.320096E+0	1.429526E+0	1.361781E+0	1.309804E+0	1.349680E+0	1.403295E+0	1.418545E+0	1.371706E+0	1.380931E+0	1.404198E+0	1.339176E+0	1.407546E+0	1.374915E+0	1.434577E+0	1.397337E+0	1.351601E+0	1.334981E+0	1.370332E+0	1.395935E+0	1.336800E+0	1.408668E+0	1.382261E+0	1.403615E+0	1.395959E+0	1.401965E+0	1.362303E+0	1.335914E+0	1.356615E+0	1.389609E+0	1.346527E+0	1.473762E+0	1.320311E+0	1.351976E+0	1.386077E+0	1.418488E+0	1.323792E+0	1.377251E+0	1.385414E+0	1.403842E+0	1.318258E+0	1.308100E+0	1.376962E+0	1.412119E+0	1.296958E+0	1.267301E+0	1.381512E+0	1.367665E+0	1.336164E+0	1.335901E+0	1.358465E+0	1.370752E+0	1.302379E+0	1.354872E+0	1.444772E+0	1.366658E+0
5.455130E+2	1.380280E+0	1.464772E+0	1.392080E+0	1.408573E+0	1.466653E+0	1.399374E+0	1.386419E+0	1.396044E+0	1.386249E+0	1.384921E+0	1.366590E+0	1.381027E+0	1.460961E+0	1.432667E+0	1.408726E+0	1.382441E+0	1.431597E+0	1.386954E+0	1.374581E+0	1.385076E+0	1.405033E+0	1.404240E+0	1.362754E+0	1.408800E+0	1.397580E+0	1.333572E+0	1.394986E+0	1.400749E+0	1.416960E+0	1.394820E+0	1.378714E+0	1.364480E+0	1.403294E+0	1.363313E+0	1.403224E+0	1.463896E+0	1.422402E+0	1.387123E+0	1.381568E+0	1.463238E+0	1.363674E+0	1.433574E+0	1.378359E+0	1.429383E+0	1.384127E+0	1.422708E+0	1.424781E+0	1.432053E+0	1.463232E+0	1.416287E+0	1.412586E+0	1.399190E+0	1.377673E+0	1.417816E+0	1.391589E+0	1.484745E+0	1.416784E+0	1.370896E+0	1.329574E+0	1.393979E+0	1.444049E+0	1.404292E+0	1.390684E+0	1.403305E+0	1.434053E+0	1.382797E+0	1.333405E+0	1.359848E+0	1.357180E+0	1.364903E+0	1.379158E+0	1.446966E+0	1.392846E+0	1.355802E+0	1.393923E+0	1.390670E+0	1.495312E+0	1.343017E+0	1.443187E+0	1.415765E+0	1.388182E+0	1.340027E+0	1.415051E+0	1.387208E+0	1.436186E+0	1.386927E+0	1.442287E+0	1.392606E+0	1.412717E+0	1.383596E+0	1.444415E+0	1.378715E+0	1.358774E+0	1.371603E+0	1.406948E+0	1.408186E+0	1.466995E+0	1.322300E+0	1.462144E+0	1.343397E+0	1.347651E+0	1.402848E+0	1.386428E+0	1.370478E+0	1.421390E+0	1.367004E+0	1.385613E+0	1.426805E+0	1.413308E+0	1.346121E+0	1.409545E+0	1.364717E+0	1.370730E+0	1.333070E+0	1.395839E+0	1.427146E+0	1.355928E+0	1.414694E+0	1.371636E+0	1.459476E+0	1.353068E+0	1.412513E+0	1.364157E+0	1.424974E+0	1.409840E+0	1.357108E+0	1.424670E+0	1.382627E+0	1.365140E+0	1.358460E+0	1.377981E+0	1.378153E+0	1.412711E+0	1.393185E+0	1.369899E+0	1.399675E+0	1.380506E+0	1.293885E+0	1.375421E+0	1.391344E+0	1.345754E+0	1.344238E+0	1.396397E+0	1.374669E+0	1.443663E+0	1.362097E+0	1.404198E+0	1.390807E+0	1.450866E+0	1.389368E+0	1.376281E+0	1.407370E+0	1.342216E+0	1.392700E+0	1.275121E+0	1.417676E+0	1.410533E+0	1.398845E+0	1.388363E+0	1.440688E+0	1.350957E+0	1.363316E+0	1.374900E+0	1.502956E+0	1.371727E+0
5.457670E+2	1.323511E+0	1.379530E+0	1.369801E+0	1.352403E+0	1.368483E+0	1.263236E+0	1.301033E+0	1.332708E+0	1.282221E+0	1.356894E+0	1.320948E+0	1.366261E+0	1.313680E+0	1.326290E+0	1.356872E+0	1.322737E+0	1.385669E+0	1.311360E+0	1.313681E+0	1.313922E+0	1.305359E+0	1.312008E+0	1.323510E+0	1.277185E+0	1.379600E+0	1.333234E+0	1.329508E+0	1.334465E+0	1.322443E+0	1.289519E+0	1.352408E+0	1.320022E+0	1.317131E+0	1.289747E+0	1.311630E+0	1.305825E+0	1.341461E+0	1.358897E+0	1.352502E+0	1.265403E+0	1.345886E+0	1.287281E+0	1.350679E+0	1.312769E+0	1.336562E+0	1.309641E+0	1.274310E+0	1.341450E+0	1.376902E+0	1.327329E+0	1.263749E+0	1.358224E+0	1.341937E+0	1.310926E+0	1.307288E+0	1.280047E+0	1.313753E+0	1.340402E+0	1.294142E+0	1.339025E+0	1.307712E+0	1.291370E+0	1.267869E+0	1.324346E+0	1.328763E+0	1.257400E+0	1.349603E+0	1.372120E+0	1.326279E+0	1.268951E+0	1.272060E+0	1.297643E+0	1.381109E+0	1.304005E+0	1.317192E+0	1.326390E+0	1.416011E+0	1.305889E+0	1.251704E+0	1.325741E+0	1.350451E+0	1.342736E+0	1.293068E+0	1.349635E+0	1.339144E+0	1.275921E+0	1.327923E+0	1.312958E+0	1.345579E+0	1.281256E+0	1.315302E+0	1.376673E+0	1.290950E+0	1.334929E+0	1.282361E+0	1.279237E+0	1.293335E+0	1.310069E+0	1.353259E+0	1.290536E+0	1.341731E+0	1.296992E+0	1.285697E+0	1.315607E+0	1.301995E+0	1.368886E+0	1.291705E+0	1.345520E+0	1.256781E+0	1.309724E+0	1.325189E+0	1.338801E+0	1.364636E+0	1.296255E+0	1.332994E+0	1.360248E+0	1.323196E+0	1.277787E+0	1.350816E+0	1.371375E+0	1.276984E+0	1.318460E+0	1.270154E+0	1.244446E+0	1.295157E+0	1.393231E+0	1.302478E+0	1.355677E+0	1.342715E+0	1.305653E+0	1.333798E+0	1.334846E+0	1.273320E+0	1.360916E+0	1.317115E+0	1.347540E+0	1.274758E+0	1.309175E+0	1.294334E+0	1.333363E+0	1.258383E+0	1.283463E+0	1.256300E+0	1.363417E+0	1.346369E+0	1.276244E+0	1.396616E+0	1.326771E+0	1.389343E+0	1.310562E+0	1.371138E+0	1.280125E+0	1.353274E+0	1.240842E+0	1.295416E+0	1.329440E+0	1.246986E+0	1.217354E+0	1.285116E+0	1.308448E+0	1.307366E+0	1.272481E+0	1.311113E+0	1.338208E+0	1.269535E+0
5.460060E+2	1.259892E+0	1.330657E+0	1.220008E+0	1.308205E+0	1.247839E+0	1.306336E+0	1.226138E+0	1.269378E+0	1.270185E+0	1.272822E+0	1.263300E+0	1.263047E+0	1.242529E+0	1.258233E+0	1.272008E+0	1.258325E+0	1.309005E+0	1.253710E+0	1.290044E+0	1.225100E+0	1.229613E+0	1.244606E+0	1.259761E+0	1.239982E+0	1.290105E+0	1.230886E+0	1.202394E+0	1.270980E+0	1.307917E+0	1.249515E+0	1.245819E+0	1.237803E+0	1.245268E+0	1.243631E+0	1.245689E+0	1.332190E+0	1.297045E+0	1.256796E+0	1.296167E+0	1.228389E+0	1.279388E+0	1.258083E+0	1.301539E+0	1.313657E+0	1.233114E+0	1.238133E+0	1.269627E+0	1.292125E+0	1.207592E+0	1.265547E+0	1.228108E+0	1.230323E+0	1.297165E+0	1.253541E+0	1.241686E+0	1.282973E+0	1.257515E+0	1.307735E+0	1.240419E+0	1.204954E+0	1.262144E+0	1.226618E+0	1.204875E+0	1.223842E+0	1.359425E+0	1.277477E+0	1.271007E+0	1.252172E+0	1.285228E+0	1.226628E+0	1.262320E+0	1.264822E+0	1.294914E+0	1.234005E+0	1.187720E+0	1.261209E+0	1.323835E+0	1.214974E+0	1.203182E+0	1.302957E+0	1.240674E+0	1.226737E+0	1.260309E+0	1.305096E+0	1.220650E+0	1.243957E+0	1.271389E+0	1.275286E+0	1.235215E+0	1.246217E+0	1.264304E+0	1.257371E+0	1.275375E+0	1.171260E+0	1.206699E+0	1.208555E+0	1.282024E+0	1.176090E+0	1.224741E+0	1.251026E+0	1.234699E+0	1.265422E+0	1.252300E+0	1.267828E+0	1.297132E+0	1.260910E+0	1.236819E+0	1.262826E+0	1.259852E+0	1.238470E+0	1.266242E+0	1.231199E+0	1.277990E+0	1.275921E+0	1.210074E+0	1.277414E+0	1.246420E+0	1.257435E+0	1.241685E+0	1.335513E+0	1.214678E+0	1.266878E+0	1.215843E+0	1.298376E+0	1.248398E+0	1.258468E+0	1.332957E+0	1.273766E+0	1.257712E+0	1.196704E+0	1.264230E+0	1.240987E+0	1.245339E+0	1.244641E+0	1.252876E+0	1.283955E+0	1.221689E+0	1.218143E+0	1.252851E+0	1.318509E+0	1.262654E+0	1.208501E+0	1.221428E+0	1.299297E+0	1.304875E+0	1.227400E+0	1.270474E+0	1.281732E+0	1.287573E+0	1.199645E+0	1.289566E+0	1.232162E+0	1.271557E+0	1.243611E+0	1.193594E+0	1.256858E+0	1.221383E+0	1.257154E+0	1.260719E+0	1.287397E+0	1.162795E+0	1.157698E+0	1.160604E+0	1.275314E+0	1.135830E+0
5.467600E+2	1.224776E+0	1.240272E+0	1.265637E+0	1.249269E+0	1.216020E+0	1.272204E+0	1.240114E+0	1.236502E+0	1.233385E+0	1.239152E+0	1.259024E+0	1.231185E+0	1.255797E+0	1.285256E+0	1.223653E+0	1.251016E+0	1.288022E+0	1.265277E+0	1.216779E+0	1.197436E+0	1.251162E+0	1.253406E+0	1.251294E+0	1.229172E+0	1.226805E+0	1.217897E+0	1.184881E+0	1.219240E+0	1.198093E+0	1.205553E+0	1.223623E+0	1.286080E+0	1.262832E+0	1.231605E+0	1.240040E+0	1.270632E+0	1.236623E+0	1.218614E+0	1.188062E+0	1.192280E+0	1.203593E+0	1.231564E+0	1.261771E+0	1.182671E+0	1.218438E+0	1.208101E+0	1.212184E+0	1.263088E+0	1.317993E+0	1.267732E+0	1.277326E+0	1.202631E+0	1.177973E+0	1.205882E+0	1.236450E+0	1.199019E+0	1.199211E+0	1.240800E+0	1.194719E+0	1.170868E+0	1.188401E+0	1.213287E+0	1.162778E+0	1.244971E+0	1.271193E+0	1.214920E+0	1.192365E+0	1.213467E+0	1.241906E+0	1.175195E+0	1.220687E+0	1.228478E+0	1.294738E+0	1.235062E+0	1.223985E+0	1.208397E+0	1.214941E+0	1.205386E+0	1.200855E+0	1.262216E+0	1.231459E+0	1.167612E+0	1.235113E+0	1.208559E+0	1.252805E+0	1.248377E+0	1.252149E+0	1.220396E+0	1.225657E+0	1.221867E+0	1.189248E+0	1.272506E+0	1.187735E+0	1.216404E+0	1.205729E+0	1.293648E+0	1.254876E+0	1.227060E+0	1.215248E+0	1.317747E+0	1.203441E+0	1.216895E+0	1.247246E+0	1.244651E+0	1.228862E+0	1.161046E+0	1.183999E+0	1.317049E+0	1.254924E+0	1.227795E+0	1.244908E+0	1.258527E+0	1.214509E+0	1.191199E+0	1.230176E+0	1.224201E+0	1.236961E+0	1.269675E+0	1.230164E+0	1.208052E+0	1.212464E+0	1.232196E+0	1.156267E+0	1.231785E+0	1.240452E+0	1.188061E+0	1.218446E+0	1.269435E+0	1.261231E+0	1.165378E+0	1.207224E+0	1.233459E+0	1.231785E+0	1.203641E+0	1.207001E+0	1.230040E+0	1.243821E+0	1.197847E+0	1.208770E+0	1.230414E+0	1.227293E+0	1.202332E+0	1.168054E+0	1.206696E+0	1.271073E+0	1.251572E+0	1.189126E+0	1.251062E+0	1.194585E+0	1.190812E+0	1.230495E+0	1.273240E+0	1.295516E+0	1.146423E+0	1.202522E+0	1.287329E+0	1.155890E+0	1.191886E+0	1.236132E+0	1.233026E+0	1.209122E+0	1.239712E+0	1.259926E+0	1.294818E+0	1.179637E+0
5.475280E+2	1.270850E+0	1.306981E+0	1.307792E+0	1.273668E+0	1.276506E+0	1.256693E+0	1.301151E+0	1.253659E+0	1.295655E+0	1.368939E+0	1.332433E+0	1.287069E+0	1.308568E+0	1.243544E+0	1.319825E+0	1.289796E+0	1.294462E+0	1.343379E+0	1.254555E+0	1.351551E+0	1.289248E+0	1.286221E+0	1.273501E+0	1.249475E+0	1.287467E+0	1.277400E+0	1.243741E+0	1.307525E+0	1.310629E+0	1.303593E+0	1.244947E+0	1.324591E+0	1.317376E+0	1.306392E+0	1.321505E+0	1.283173E+0	1.329089E+0	1.299015E+0	1.253982E+0	1.278143E+0	1.266745E+0	1.306852E+0	1.333577E+0	1.255995E+0	1.330113E+0	1.284172E+0	1.260381E+0	1.318167E+0	1.272808E+0	1.276793E+0	1.295769E+0	1.299818E+0	1.222291E+0	1.285446E+0	1.291876E+0	1.281058E+0	1.285882E+0	1.251409E+0	1.206730E+0	1.289909E+0	1.308354E+0	1.270913E+0	1.280515E+0	1.279658E+0	1.269892E+0	1.306620E+0	1.177053E+0	1.270114E+0	1.224895E+0	1.242430E+0	1.312412E+0	1.305781E+0	1.301495E+0	1.254793E+0	1.350416E+0	1.267705E+0	1.314509E+0	1.278151E+0	1.284796E+0	1.276922E+0	1.337893E+0	1.302319E+0	1.288412E+0	1.271230E+0	1.275341E+0	1.295235E+0	1.343700E+0	1.270622E+0	1.299717E+0	1.244208E+0	1.250277E+0	1.310906E+0	1.258673E+0	1.278733E+0	1.286440E+0	1.258532E+0	1.308753E+0	1.236969E+0	1.327761E+0	1.269265E+0	1.267045E+0	1.296120E+0	1.241635E+0	1.297546E+0	1.263948E+0	1.249123E+0	1.280278E+0	1.334705E+0	1.326633E+0	1.272453E+0	1.371230E+0	1.360109E+0	1.295120E+0	1.208935E+0	1.295629E+0	1.269085E+0	1.233215E+0	1.247300E+0	1.281896E+0	1.297237E+0	1.271842E+0	1.266195E+0	1.268060E+0	1.300364E+0	1.217647E+0	1.249973E+0	1.195418E+0	1.237827E+0	1.300377E+0	1.236759E+0	1.318428E+0	1.294424E+0	1.324191E+0	1.336492E+0	1.305806E+0	1.281910E+0	1.271650E+0	1.316261E+0	1.266931E+0	1.281875E+0	1.334499E+0	1.274930E+0	1.264047E+0	1.249670E+0	1.328821E+0	1.299093E+0	1.252603E+0	1.260243E+0	1.273291E+0	1.190157E+0	1.306389E+0	1.240188E+0	1.321203E+0	1.224353E+0	1.247851E+0	1.296942E+0	1.249483E+0	1.207800E+0	1.226426E+0	1.277047E+0	1.225242E+0	1.245889E+0	1.286066E+0	1.348387E+0	1.181228E+0
5.482600E+2	1.387738E+0	1.438972E+0	1.366985E+0	1.352878E+0	1.426247E+0	1.342793E+0	1.395266E+0	1.411195E+0	1.428226E+0	1.365867E+0	1.418099E+0	1.396005E+0	1.325927E+0	1.433939E+0	1.376335E+0	1.356429E+0	1.406692E+0	1.357285E+0	1.356653E+0	1.432135E+0	1.409170E+0	1.361447E+0	1.339683E+0	1.355091E+0	1.463720E+0	1.421607E+0	1.347945E+0	1.390652E+0	1.357725E+0	1.319533E+0	1.343816E+0	1.325795E+0	1.415590E+0	1.389606E+0	1.384452E+0	1.385459E+0	1.385222E+0	1.439395E+0	1.385667E+0	1.469790E+0	1.378963E+0	1.372026E+0	1.402811E+0	1.363336E+0	1.433179E+0	1.352055E+0	1.376679E+0	1.408068E+0	1.467087E+0	1.459962E+0	1.338587E+0	1.388702E+0	1.369146E+0	1.388436E+0	1.437478E+0	1.407354E+0	1.416845E+0	1.364341E+0	1.338329E+0	1.378087E+0	1.393762E+0	1.340400E+0	1.349936E+0	1.361156E+0	1.435520E+0	1.346604E+0	1.405308E+0	1.387314E+0	1.396991E+0	1.373317E+0	1.376498E+0	1.366238E+0	1.333153E+0	1.370651E+0	1.402363E+0	1.372707E+0	1.446359E+0	1.353972E+0	1.362345E+0	1.353111E+0	1.345367E+0	1.344212E+0	1.380077E+0	1.347189E+0	1.434454E+0	1.400371E+0	1.400508E+0	1.404547E+0	1.384523E+0	1.412474E+0	1.366414E+0	1.309561E+0	1.391942E+0	1.354347E+0	1.329497E+0	1.308643E+0	1.396691E+0	1.281291E+0	1.354113E+0	1.434576E+0	1.367359E+0	1.363759E+0	1.356841E+0	1.373499E+0	1.345686E+0	1.357560E+0	1.392235E+0	1.408094E+0	1.419466E+0	1.371933E+0	1.365432E+0	1.436926E+0	1.339938E+0	1.360646E+0	1.417662E+0	1.421075E+0	1.369865E+0	1.394742E+0	1.382610E+0	1.414653E+0	1.359836E+0	1.375016E+0	1.394592E+0	1.374262E+0	1.430782E+0	1.293626E+0	1.385662E+0	1.430333E+0	1.429189E+0	1.339654E+0	1.338021E+0	1.323678E+0	1.345122E+0	1.372759E+0	1.375162E+0	1.351929E+0	1.385477E+0	1.364791E+0	1.351159E+0	1.397797E+0	1.422145E+0	1.340919E+0	1.311424E+0	1.335582E+0	1.344779E+0	1.340872E+0	1.336752E+0	1.393226E+0	1.373722E+0	1.396527E+0	1.364877E+0	1.365901E+0	1.311231E+0	1.339455E+0	1.347934E+0	1.370944E+0	1.305456E+0	1.350261E+0	1.327343E+0	1.303433E+0	1.335177E+0	1.280804E+0	1.373396E+0	1.403485E+0	1.308244E+0
5.490100E+2	1.302739E+0	1.419411E+0	1.298221E+0	1.337147E+0	1.336652E+0	1.335986E+0	1.310887E+0	1.299503E+0	1.368295E+0	1.367633E+0	1.389474E+0	1.323258E+0	1.317423E+0	1.345753E+0	1.261170E+0	1.354800E+0	1.403016E+0	1.338957E+0	1.288180E+0	1.332636E+0	1.315998E+0	1.313765E+0	1.339741E+0	1.286985E+0	1.355983E+0	1.308518E+0	1.361088E+0	1.354810E+0	1.316698E+0	1.350245E+0	1.341966E+0	1.363994E+0	1.411651E+0	1.360437E+0	1.311134E+0	1.370477E+0	1.352724E+0	1.336435E+0	1.338700E+0	1.329090E+0	1.295553E+0	1.303242E+0	1.325153E+0	1.352166E+0	1.358867E+0	1.296908E+0	1.315581E+0	1.328108E+0	1.360489E+0	1.336059E+0	1.334639E+0	1.371091E+0	1.361756E+0	1.380655E+0	1.310144E+0	1.353246E+0	1.277384E+0	1.323806E+0	1.350178E+0	1.283574E+0	1.358593E+0	1.304812E+0	1.308143E+0	1.325962E+0	1.345174E+0	1.317600E+0	1.391674E+0	1.314271E+0	1.315918E+0	1.313610E+0	1.344718E+0	1.345733E+0	1.365460E+0	1.315274E+0	1.274817E+0	1.273510E+0	1.330107E+0	1.299596E+0	1.314805E+0	1.360216E+0	1.365040E+0	1.329713E+0	1.296182E+0	1.285777E+0	1.327975E+0	1.336763E+0	1.352790E+0	1.313857E+0	1.380804E+0	1.310094E+0	1.278442E+0	1.361106E+0	1.406850E+0	1.285389E+0	1.300997E+0	1.328024E+0	1.306979E+0	1.316006E+0	1.348448E+0	1.363028E+0	1.375635E+0	1.301023E+0	1.344258E+0	1.290142E+0	1.337004E+0	1.274123E+0	1.355237E+0	1.348391E+0	1.323014E+0	1.337261E+0	1.355398E+0	1.301323E+0	1.352252E+0	1.209110E+0	1.316128E+0	1.331939E+0	1.322334E+0	1.340008E+0	1.358322E+0	1.317147E+0	1.264110E+0	1.370031E+0	1.247344E+0	1.315244E+0	1.368489E+0	1.286121E+0	1.280602E+0	1.304295E+0	1.314829E+0	1.303796E+0	1.374090E+0	1.279852E+0	1.322957E+0	1.329012E+0	1.322255E+0	1.312613E+0	1.255998E+0	1.291909E+0	1.297784E+0	1.401544E+0	1.341521E+0	1.286520E+0	1.307760E+0	1.372845E+0	1.313665E+0	1.288021E+0	1.305400E+0	1.246765E+0	1.334587E+0	1.288224E+0	1.284038E+0	1.274940E+0	1.322576E+0	1.295384E+0	1.261917E+0	1.333441E+0	1.322292E+0	1.282328E+0	1.317265E+0	1.365801E+0	1.272122E+0	1.268505E+0	1.337803E+0	1.376893E+0	1.198235E+0
5.497520E+2	1.280648E+0	1.321554E+0	1.292828E+0	1.204657E+0	1.217161E+0	1.258343E+0	1.254133E+0	1.280520E+0	1.271150E+0	1.279040E+0	1.282046E+0	1.279925E+0	1.258646E+0	1.291045E+0	1.284495E+0	1.264875E+0	1.273499E+0	1.257374E+0	1.303263E+0	1.266177E+0	1.312717E+0	1.246351E+0	1.246357E+0	1.242372E+0	1.292187E+0	1.215010E+0	1.257088E+0	1.272690E+0	1.199082E+0	1.267631E+0	1.250824E+0	1.241397E+0	1.293439E+0	1.246321E+0	1.240852E+0	1.239086E+0	1.275502E+0	1.294155E+0	1.265774E+0	1.298541E+0	1.251641E+0	1.252637E+0	1.266517E+0	1.291508E+0	1.279474E+0	1.273491E+0	1.270410E+0	1.215699E+0	1.303375E+0	1.238489E+0	1.250872E+0	1.274152E+0	1.217776E+0	1.198351E+0	1.286564E+0	1.267933E+0	1.238256E+0	1.279405E+0	1.266238E+0	1.268253E+0	1.284567E+0	1.238337E+0	1.207576E+0	1.264202E+0	1.309439E+0	1.276807E+0	1.202878E+0	1.225166E+0	1.233819E+0	1.271752E+0	1.256904E+0	1.246992E+0	1.270730E+0	1.247538E+0	1.200471E+0	1.306733E+0	1.311858E+0	1.195476E+0	1.260959E+0	1.222534E+0	1.346279E+0	1.261561E+0	1.253290E+0	1.292344E+0	1.312256E+0	1.285410E+0	1.278749E+0	1.304796E+0	1.283443E+0	1.308736E+0	1.272588E+0	1.233596E+0	1.262030E+0	1.250492E+0	1.270047E+0	1.283130E+0	1.271972E+0	1.310325E+0	1.321091E+0	1.238094E+0	1.274471E+0	1.266099E+0	1.262159E+0	1.276008E+0	1.270734E+0	1.249824E+0	1.246854E+0	1.255431E+0	1.305065E+0	1.229264E+0	1.238146E+0	1.261067E+0	1.322073E+0	1.204138E+0	1.289770E+0	1.249431E+0	1.269762E+0	1.267797E+0	1.262617E+0	1.264662E+0	1.220595E+0	1.300032E+0	1.266513E+0	1.237114E+0	1.290433E+0	1.204895E+0	1.226554E+0	1.224377E+0	1.241128E+0	1.215146E+0	1.218348E+0	1.220035E+0	1.236021E+0	1.266443E+0	1.239211E+0	1.263595E+0	1.340239E+0	1.314250E+0	1.169482E+0	1.239036E+0	1.236168E+0	1.240004E+0	1.279507E+0	1.222762E+0	1.320093E+0	1.206855E+0	1.241689E+0	1.208781E+0	1.293124E+0	1.220262E+0	1.202331E+0	1.237671E+0	1.253930E+0	1.232707E+0	1.231861E+0	1.239785E+0	1.268652E+0	1.186520E+0	1.225883E+0	1.260323E+0	1.293142E+0	1.177357E+0	1.219686E+0	1.386546E+0	1.203147E+0
5.505110E+2	1.324841E+0	1.371570E+0	1.282497E+0	1.240883E+0	1.297273E+0	1.257239E+0	1.276369E+0	1.255689E+0	1.299564E+0	1.274056E+0	1.255297E+0	1.259003E+0	1.288739E+0	1.252654E+0	1.322702E+0	1.290791E+0	1.348446E+0	1.285716E+0	1.249200E+0	1.300355E+0	1.272142E+0	1.252938E+0	1.275689E+0	1.269734E+0	1.282677E+0	1.253458E+0	1.252701E+0	1.303834E+0	1.270117E+0	1.286148E+0	1.251904E+0	1.302192E+0	1.233806E+0	1.281155E+0	1.227073E+0	1.296576E+0	1.277463E+0	1.353181E+0	1.243430E+0	1.299993E+0	1.253476E+0	1.226341E+0	1.305465E+0	1.294842E+0	1.337556E+0	1.209305E+0	1.310841E+0	1.204578E+0	1.328910E+0	1.286168E+0	1.229109E+0	1.300167E+0	1.271322E+0	1.227910E+0	1.249746E+0	1.327168E+0	1.234927E+0	1.283925E+0	1.266078E+0	1.264286E+0	1.323135E+0	1.194510E+0	1.229391E+0	1.285093E+0	1.296189E+0	1.238724E+0	1.290937E+0	1.251135E+0	1.312576E+0	1.247537E+0	1.315662E+0	1.252674E+0	1.318292E+0	1.297885E+0	1.256319E+0	1.297028E+0	1.313654E+0	1.228543E+0	1.255993E+0	1.235481E+0	1.298265E+0	1.295350E+0	1.183832E+0	1.334959E+0	1.241969E+0	1.314114E+0	1.317241E+0	1.266370E+0	1.345716E+0	1.280211E+0	1.313565E+0	1.283635E+0	1.295448E+0	1.241187E+0	1.232163E+0	1.224443E+0	1.259560E+0	1.261068E+0	1.281769E+0	1.260131E+0	1.266471E+0	1.310619E+0	1.239930E+0	1.223063E+0	1.280803E+0	1.221778E+0	1.295104E+0	1.289054E+0	1.262867E+0	1.264511E+0	1.287458E+0	1.267282E+0	1.338135E+0	1.211903E+0	1.281949E+0	1.288385E+0	1.287208E+0	1.247773E+0	1.291663E+0	1.269235E+0	1.267281E+0	1.249489E+0	1.232840E+0	1.308046E+0	1.330211E+0	1.271504E+0	1.296560E+0	1.330156E+0	1.317743E+0	1.277107E+0	1.310445E+0	1.321206E+0	1.250681E+0	1.295081E+0	1.271784E+0	1.270724E+0	1.363696E+0	1.241884E+0	1.295716E+0	1.329598E+0	1.251747E+0	1.219055E+0	1.236070E+0	1.234181E+0	1.299591E+0	1.234912E+0	1.333110E+0	1.279896E+0	1.301377E+0	1.244906E+0	1.265890E+0	1.262134E+0	1.307583E+0	1.313006E+0	1.300137E+0	1.289022E+0	1.237024E+0	1.289194E+0	1.248219E+0	1.245263E+0	1.205938E+0	1.231133E+0	1.175520E+0	1.300939E+0	1.192154E+0
5.512570E+2	1.303994E+0	1.279367E+0	1.283400E+0	1.306755E+0	1.268840E+0	1.326481E+0	1.260515E+0	1.271670E+0	1.254610E+0	1.308706E+0	1.312511E+0	1.323337E+0	1.329505E+0	1.300309E+0	1.285473E+0	1.299494E+0	1.309318E+0	1.296443E+0	1.257661E+0	1.299183E+0	1.280396E+0	1.284676E+0	1.252417E+0	1.299852E+0	1.285170E+0	1.305818E+0	1.302116E+0	1.294142E+0	1.257608E+0	1.228969E+0	1.295364E+0	1.326741E+0	1.312828E+0	1.314285E+0	1.303745E+0	1.263405E+0	1.266243E+0	1.245387E+0	1.292625E+0	1.330887E+0	1.306042E+0	1.285819E+0	1.276565E+0	1.263614E+0	1.300451E+0	1.319231E+0	1.283893E+0	1.244354E+0	1.343206E+0	1.346943E+0	1.306948E+0	1.287464E+0	1.238558E+0	1.305917E+0	1.259484E+0	1.310328E+0	1.269527E+0	1.327596E+0	1.284183E+0	1.235694E+0	1.353700E+0	1.301543E+0	1.246669E+0	1.300083E+0	1.257179E+0	1.287577E+0	1.281164E+0	1.285525E+0	1.329323E+0	1.243760E+0	1.269037E+0	1.334523E+0	1.310517E+0	1.257704E+0	1.333921E+0	1.293055E+0	1.344821E+0	1.251862E+0	1.271351E+0	1.294469E+0	1.355126E+0	1.305098E+0	1.214281E+0	1.274938E+0	1.286397E+0	1.319717E+0	1.396894E+0	1.262187E+0	1.313749E+0	1.289039E+0	1.296371E+0	1.229082E+0	1.265630E+0	1.273331E+0	1.252925E+0	1.263285E+0	1.356917E+0	1.225694E+0	1.303420E+0	1.337470E+0	1.315791E+0	1.308557E+0	1.324362E+0	1.273327E+0	1.300769E+0	1.255694E+0	1.342401E+0	1.314340E+0	1.333616E+0	1.279914E+0	1.284171E+0	1.279874E+0	1.367449E+0	1.262871E+0	1.312811E+0	1.290748E+0	1.301391E+0	1.255905E+0	1.310191E+0	1.302655E+0	1.253847E+0	1.267283E+0	1.263912E+0	1.295956E+0	1.314867E+0	1.277661E+0	1.263921E+0	1.299789E+0	1.288851E+0	1.274031E+0	1.308027E+0	1.282162E+0	1.341819E+0	1.264805E+0	1.248699E+0	1.279081E+0	1.282853E+0	1.200172E+0	1.259256E+0	1.253294E+0	1.279971E+0	1.256709E+0	1.298779E+0	1.270023E+0	1.257852E+0	1.247361E+0	1.346749E+0	1.238839E+0	1.321583E+0	1.256366E+0	1.231963E+0	1.201785E+0	1.318913E+0	1.310258E+0	1.261940E+0	1.301844E+0	1.253403E+0	1.310178E+0	1.275424E+0	1.280817E+0	1.226660E+0	1.214095E+0	1.216208E+0	1.382110E+0	1.257594E+0
5.520150E+2	1.246023E+0	1.297734E+0	1.242916E+0	1.189028E+0	1.187316E+0	1.196863E+0	1.175863E+0	1.253182E+0	1.243044E+0	1.241128E+0	1.199685E+0	1.256797E+0	1.230706E+0	1.211849E+0	1.219338E+0	1.237024E+0	1.282333E+0	1.202015E+0	1.230324E+0	1.258248E+0	1.274968E+0	1.277422E+0	1.252340E+0	1.227699E+0	1.180111E+0	1.247963E+0	1.244790E+0	1.281077E+0	1.261945E+0	1.194963E+0	1.195631E+0	1.189920E+0	1.221939E+0	1.241000E+0	1.182455E+0	1.285479E+0	1.252685E+0	1.209775E+0	1.257172E+0	1.221173E+0	1.240358E+0	1.219838E+0	1.208676E+0	1.232093E+0	1.219005E+0	1.204464E+0	1.254322E+0	1.258781E+0	1.307405E+0	1.260343E+0	1.195219E+0	1.248037E+0	1.206048E+0	1.206470E+0	1.214068E+0	1.255717E+0	1.220377E+0	1.243914E+0	1.233064E+0	1.240067E+0	1.298747E+0	1.244455E+0	1.245355E+0	1.213024E+0	1.239333E+0	1.226326E+0	1.193069E+0	1.226060E+0	1.243616E+0	1.170041E+0	1.242628E+0	1.241632E+0	1.258236E+0	1.218232E+0	1.249640E+0	1.254241E+0	1.226296E+0	1.210201E+0	1.164186E+0	1.261068E+0	1.242582E+0	1.270981E+0	1.202271E+0	1.193092E+0	1.260218E+0	1.220486E+0	1.250751E+0	1.236838E+0	1.238066E+0	1.247694E+0	1.235652E+0	1.184322E+0	1.236362E+0	1.236780E+0	1.285684E+0	1.216540E+0	1.309671E+0	1.222082E+0	1.263038E+0	1.188780E+0	1.264507E+0	1.156579E+0	1.261336E+0	1.181657E+0	1.253948E+0	1.213591E+0	1.246591E+0	1.219410E+0	1.289516E+0	1.183322E+0	1.236237E+0	1.237473E+0	1.216350E+0	1.222618E+0	1.245555E+0	1.199693E+0	1.224093E+0	1.211973E+0	1.244271E+0	1.263340E+0	1.269947E+0	1.250114E+0	1.202108E+0	1.216749E+0	1.197467E+0	1.209687E+0	1.193084E+0	1.233066E+0	1.212088E+0	1.208671E+0	1.235734E+0	1.264619E+0	1.232971E+0	1.190025E+0	1.234670E+0	1.239533E+0	1.246971E+0	1.248847E+0	1.250694E+0	1.252589E+0	1.248400E+0	1.183193E+0	1.219381E+0	1.186081E+0	1.267279E+0	1.182820E+0	1.222165E+0	1.246611E+0	1.273120E+0	1.258985E+0	1.209201E+0	1.188513E+0	1.230471E+0	1.213862E+0	1.192527E+0	1.276676E+0	1.216976E+0	1.127968E+0	1.186829E+0	1.252746E+0	1.177162E+0	1.170498E+0	1.217495E+0	1.240802E+0	1.108133E+0
5.527700E+2	1.279886E+0	1.283751E+0	1.301537E+0	1.278705E+0	1.328306E+0	1.268670E+0	1.251611E+0	1.291556E+0	1.267728E+0	1.326334E+0	1.314843E+0	1.296124E+0	1.299650E+0	1.249566E+0	1.263408E+0	1.306353E+0	1.322586E+0	1.220104E+0	1.351452E+0	1.324500E+0	1.331974E+0	1.258292E+0	1.258987E+0	1.314409E+0	1.321411E+0	1.334819E+0	1.351948E+0	1.284535E+0	1.342488E+0	1.234266E+0	1.232534E+0	1.291569E+0	1.321649E+0	1.322289E+0	1.295415E+0	1.311194E+0	1.268215E+0	1.322088E+0	1.327802E+0	1.317911E+0	1.275104E+0	1.301945E+0	1.341852E+0	1.284998E+0	1.342846E+0	1.323542E+0	1.307408E+0	1.246492E+0	1.276442E+0	1.324889E+0	1.332008E+0	1.294582E+0	1.267297E+0	1.334572E+0	1.279236E+0	1.299156E+0	1.279764E+0	1.329281E+0	1.305542E+0	1.258676E+0	1.359210E+0	1.308110E+0	1.301367E+0	1.248286E+0	1.334348E+0	1.282203E+0	1.336286E+0	1.316920E+0	1.275290E+0	1.325910E+0	1.278796E+0	1.285464E+0	1.309450E+0	1.271834E+0	1.322685E+0	1.275341E+0	1.347793E+0	1.270678E+0	1.259479E+0	1.304212E+0	1.321164E+0	1.318009E+0	1.321311E+0	1.282679E+0	1.284439E+0	1.364985E+0	1.322517E+0	1.316237E+0	1.303596E+0	1.271923E+0	1.301505E+0	1.304637E+0	1.308539E+0	1.230209E+0	1.285049E+0	1.270288E+0	1.289868E+0	1.315226E+0	1.304980E+0	1.255683E+0	1.297462E+0	1.312209E+0	1.247615E+0	1.249330E+0	1.265859E+0	1.255041E+0	1.268150E+0	1.308895E+0	1.276481E+0	1.294874E+0	1.282223E+0	1.279587E+0	1.331342E+0	1.224274E+0	1.323491E+0	1.296940E+0	1.291586E+0	1.338244E+0	1.259118E+0	1.375834E+0	1.322330E+0	1.305885E+0	1.306086E+0	1.280929E+0	1.325369E+0	1.361237E+0	1.247423E+0	1.265422E+0	1.322097E+0	1.280677E+0	1.268775E+0	1.280420E+0	1.291412E+0	1.325546E+0	1.238927E+0	1.259788E+0	1.297821E+0	1.293747E+0	1.341033E+0	1.301140E+0	1.305966E+0	1.270908E+0	1.269119E+0	1.273811E+0	1.315527E+0	1.286544E+0	1.342077E+0	1.317018E+0	1.296721E+0	1.218875E+0	1.277765E+0	1.164009E+0	1.281737E+0	1.293970E+0	1.207106E+0	1.292437E+0	1.311892E+0	1.293427E+0	1.301053E+0	1.256954E+0	1.270865E+0	1.255838E+0	1.230105E+0	1.353720E+0	1.203216E+0
5.535330E+2	1.214363E+0	1.274442E+0	1.312301E+0	1.284590E+0	1.287260E+0	1.218621E+0	1.226551E+0	1.248013E+0	1.208831E+0	1.238024E+0	1.321489E+0	1.240098E+0	1.264436E+0	1.272782E+0	1.210371E+0	1.212359E+0	1.277789E+0	1.217075E+0	1.249155E+0	1.222224E+0	1.258764E+0	1.204088E+0	1.278099E+0	1.224788E+0	1.217934E+0	1.220857E+0	1.208373E+0	1.228458E+0	1.235885E+0	1.209088E+0	1.276674E+0	1.221734E+0	1.271609E+0	1.246186E+0	1.245111E+0	1.214421E+0	1.201633E+0	1.191520E+0	1.209975E+0	1.291632E+0	1.166433E+0	1.251983E+0	1.217709E+0	1.228954E+0	1.262190E+0	1.269279E+0	1.160453E+0	1.220841E+0	1.302081E+0	1.245875E+0	1.218058E+0	1.226334E+0	1.239410E+0	1.257972E+0	1.269814E+0	1.220980E+0	1.230317E+0	1.279199E+0	1.201117E+0	1.217512E+0	1.195717E+0	1.269890E+0	1.285332E+0	1.189460E+0	1.265720E+0	1.216167E+0	1.202691E+0	1.266682E+0	1.220423E+0	1.230512E+0	1.248626E+0	1.223951E+0	1.238289E+0	1.204802E+0	1.235601E+0	1.202393E+0	1.270385E+0	1.207026E+0	1.198791E+0	1.223949E+0	1.276264E+0	1.187213E+0	1.224581E+0	1.258658E+0	1.250445E+0	1.269989E+0	1.292017E+0	1.239770E+0	1.206666E+0	1.237875E+0	1.218876E+0	1.206045E+0	1.261391E+0	1.223052E+0	1.203847E+0	1.212803E+0	1.251489E+0	1.237787E+0	1.266310E+0	1.245389E+0	1.190575E+0	1.205612E+0	1.245146E+0	1.191165E+0	1.250963E+0	1.231372E+0	1.256946E+0	1.261859E+0	1.284178E+0	1.245809E+0	1.198101E+0	1.259069E+0	1.187868E+0	1.188409E+0	1.225336E+0	1.283375E+0	1.247551E+0	1.192568E+0	1.205517E+0	1.213106E+0	1.260477E+0	1.268825E+0	1.194794E+0	1.293086E+0	1.203483E+0	1.161794E+0	1.216639E+0	1.214938E+0	1.234012E+0	1.245224E+0	1.216994E+0	1.221529E+0	1.260476E+0	1.187081E+0	1.204190E+0	1.230046E+0	1.302049E+0	1.191123E+0	1.246052E+0	1.237373E+0	1.244400E+0	1.196254E+0	1.212819E+0	1.236786E+0	1.233626E+0	1.216951E+0	1.213249E+0	1.179748E+0	1.302697E+0	1.210238E+0	1.257096E+0	1.172637E+0	1.213714E+0	1.235013E+0	1.218762E+0	1.177004E+0	1.245667E+0	1.199189E+0	1.223219E+0	1.235831E+0	1.203438E+0	1.235778E+0	1.269014E+0	1.269679E+0	1.184554E+0
5.542700E+2	1.179615E+0	1.285643E+0	1.215843E+0	1.179773E+0	1.195732E+0	1.129027E+0	1.180394E+0	1.163801E+0	1.209898E+0	1.152898E+0	1.187752E+0	1.167386E+0	1.234489E+0	1.148527E+0	1.203470E+0	1.116614E+0	1.238256E+0	1.146945E+0	1.227132E+0	1.212737E+0	1.186778E+0	1.191523E+0	1.190980E+0	1.182633E+0	1.212469E+0	1.180045E+0	1.127406E+0	1.181485E+0	1.192184E+0	1.145207E+0	1.205557E+0	1.192678E+0	1.189211E+0	1.176386E+0	1.215595E+0	1.226907E+0	1.242541E+0	1.195210E+0	1.185555E+0	1.216909E+0	1.192217E+0	1.181352E+0	1.170220E+0	1.196680E+0	1.212982E+0	1.178177E+0	1.222277E+0	1.204079E+0	1.242599E+0	1.203475E+0	1.233442E+0	1.189439E+0	1.125402E+0	1.164822E+0	1.176578E+0	1.170128E+0	1.193140E+0	1.204789E+0	1.150375E+0	1.125780E+0	1.257136E+0	1.186048E+0	1.196647E+0	1.159180E+0	1.188821E+0	1.176653E+0	1.121492E+0	1.213605E+0	1.159645E+0	1.185198E+0	1.195819E+0	1.200048E+0	1.236743E+0	1.154930E+0	1.189927E+0	1.203439E+0	1.223016E+0	1.133924E+0	1.125673E+0	1.186182E+0	1.192989E+0	1.179556E+0	1.150248E+0	1.188168E+0	1.214002E+0	1.231091E+0	1.168703E+0	1.182215E+0	1.216322E+0	1.160784E+0	1.165257E+0	1.129293E+0	1.148001E+0	1.136374E+0	1.180219E+0	1.228308E+0	1.190762E+0	1.184377E+0	1.222597E+0	1.171254E+0	1.212491E+0	1.205043E+0	1.170407E+0	1.175744E+0	1.194903E+0	1.143001E+0	1.156425E+0	1.215156E+0	1.161299E+0	1.164093E+0	1.162105E+0	1.140898E+0	1.189914E+0	1.129233E+0	1.149543E+0	1.154441E+0	1.210899E+0	1.183047E+0	1.227697E+0	1.245911E+0	1.190189E+0	1.164630E+0	1.204648E+0	1.188117E+0	1.206666E+0	1.121111E+0	1.179536E+0	1.162476E+0	1.156628E+0	1.165987E+0	1.219593E+0	1.195919E+0	1.219221E+0	1.201044E+0	1.178061E+0	1.186370E+0	1.181001E+0	1.219153E+0	1.196099E+0	1.170513E+0	1.214453E+0	1.182723E+0	1.222480E+0	1.201581E+0	1.266644E+0	1.162888E+0	1.167789E+0	1.158342E+0	1.226301E+0	1.126910E+0	1.128010E+0	1.123598E+0	1.149094E+0	1.107895E+0	1.155105E+0	1.197597E+0	1.165987E+0	1.102894E+0	1.139410E+0	1.226476E+0	1.111193E+0	1.177319E+0	1.153851E+0	1.207124E+0	1.103146E+0
5.550310E+2	1.033515E+0	1.141670E+0	1.140497E+0	1.102970E+0	1.061768E+0	1.086257E+0	1.074034E+0	1.064247E+0	1.001349E+0	1.095484E+0	1.096353E+0	1.066323E+0	1.066864E+0	1.096663E+0	1.089873E+0	1.083550E+0	1.068295E+0	9.974267E-1	1.078999E+0	1.020038E+0	1.064045E+0	1.079108E+0	1.050369E+0	1.046024E+0	1.067024E+0	1.092667E+0	1.028994E+0	1.046014E+0	1.043211E+0	1.044354E+0	1.042785E+0	1.064135E+0	1.057698E+0	1.052207E+0	1.038299E+0	1.125053E+0	1.061297E+0	1.062680E+0	1.075537E+0	1.083631E+0	1.098661E+0	1.039750E+0	1.039709E+0	1.051972E+0	1.063091E+0	1.023482E+0	1.081642E+0	1.090905E+0	1.067722E+0	1.078511E+0	1.132426E+0	1.089201E+0	1.077396E+0	1.112497E+0	1.061815E+0	1.112870E+0	1.088788E+0	1.105771E+0	1.112251E+0	1.036163E+0	1.099557E+0	1.062947E+0	1.060592E+0	1.013504E+0	1.112311E+0	1.119101E+0	1.055653E+0	1.014938E+0	1.057616E+0	1.031453E+0	1.039561E+0	1.080097E+0	1.063927E+0	1.029128E+0	1.097053E+0	1.078856E+0	1.066580E+0	1.103007E+0	1.112859E+0	1.073962E+0	1.064051E+0	1.075961E+0	1.085641E+0	1.083938E+0	1.088930E+0	1.091781E+0	1.101741E+0	1.053441E+0	1.086280E+0	1.132219E+0	1.101317E+0	1.064661E+0	1.113900E+0	1.061552E+0	1.054085E+0	1.102922E+0	1.061230E+0	1.034516E+0	1.094299E+0	1.033562E+0	1.113108E+0	1.095078E+0	1.024255E+0	1.048551E+0	1.085195E+0	1.030797E+0	1.052253E+0	1.050419E+0	1.060148E+0	1.105060E+0	1.052861E+0	1.042600E+0	1.101412E+0	9.950523E-1	1.070637E+0	1.109638E+0	1.092959E+0	1.088061E+0	1.077692E+0	1.092316E+0	1.074298E+0	1.042397E+0	1.033614E+0	1.062588E+0	1.102160E+0	1.039874E+0	1.108464E+0	1.106379E+0	1.086961E+0	1.028461E+0	1.073204E+0	1.062887E+0	1.066748E+0	1.075306E+0	1.071695E+0	1.097561E+0	1.096570E+0	1.085374E+0	1.110337E+0	1.084008E+0	1.093536E+0	1.060997E+0	1.056546E+0	1.044819E+0	1.078915E+0	1.025595E+0	1.112390E+0	1.050593E+0	1.069784E+0	1.084761E+0	1.090784E+0	9.736168E-1	1.100953E+0	1.120942E+0	1.076951E+0	1.099087E+0	1.064993E+0	1.091404E+0	1.058081E+0	1.112853E+0	1.078110E+0	1.022993E+0	1.025119E+0	1.045403E+0	1.030089E+0
5.557600E+2	9.637355E-1	1.042908E+0	1.054540E+0	9.932770E-1	1.006436E+0	9.889162E-1	1.000364E+0	9.778215E-1	9.829789E-1	1.011487E+0	9.826365E-1	1.011949E+0	1.031367E+0	1.009415E+0	1.005093E+0	9.721569E-1	1.039011E+0	1.026495E+0	1.016784E+0	1.023432E+0	1.035595E+0	9.998871E-1	1.023488E+0	9.795677E-1	1.079102E+0	1.051551E+0	9.919534E-1	1.009365E+0	9.497910E-1	1.000238E+0	1.007771E+0	9.850553E-1	1.015324E+0	1.048873E+0	1.016125E+0	1.037466E+0	9.905624E-1	1.024991E+0	1.075928E+0	9.773450E-1	1.039023E+0	1.029668E+0	1.003210E+0	9.677505E-1	1.025370E+0	9.812611E-1	9.537986E-1	1.030329E+0	1.020580E+0	1.027744E+0	1.038256E+0	1.056983E+0	9.796617E-1	1.031162E+0	1.021080E+0	1.011206E+0	1.007422E+0	1.023211E+0	1.022999E+0	1.017198E+0	1.011795E+0	9.987730E-1	9.763456E-1	1.032083E+0	1.028920E+0	1.001117E+0	1.049191E+0	1.020553E+0	9.891667E-1	9.864695E-1	9.839450E-1	1.028164E+0	1.054401E+0	1.002271E+0	1.022075E+0	1.043269E+0	9.655378E-1	9.621020E-1	1.025518E+0	1.022299E+0	1.079918E+0	9.790341E-1	9.922535E-1	1.018769E+0	1.027416E+0	1.051274E+0	1.057133E+0	1.037657E+0	1.042867E+0	1.023608E+0	1.021991E+0	1.014126E+0	1.071338E+0	9.627787E-1	9.834053E-1	1.015038E+0	1.030527E+0	9.739936E-1	1.041360E+0	9.888795E-1	1.044757E+0	1.041931E+0	1.017267E+0	9.991751E-1	1.009152E+0	1.037252E+0	1.002544E+0	1.000284E+0	9.822155E-1	1.005592E+0	1.056750E+0	1.004693E+0	9.887315E-1	9.844141E-1	1.039183E+0	1.026636E+0	9.877009E-1	1.012986E+0	9.527865E-1	1.017812E+0	9.899737E-1	1.022211E+0	1.019927E+0	9.888648E-1	9.915158E-1	9.753539E-1	1.044991E+0	1.000027E+0	1.018831E+0	9.341455E-1	1.031380E+0	1.027346E+0	1.027768E+0	9.791951E-1	1.018313E+0	1.004890E+0	1.051561E+0	1.017171E+0	1.079180E+0	1.018368E+0	1.027946E+0	1.002079E+0	1.020638E+0	1.037059E+0	9.940580E-1	9.661789E-1	1.022590E+0	1.037320E+0	1.011363E+0	9.976489E-1	1.000728E+0	9.652116E-1	1.020106E+0	1.049255E+0	9.955139E-1	1.023041E+0	9.469466E-1	1.004006E+0	1.026965E+0	1.000415E+0	1.024806E+0	9.581251E-1	1.041519E+0	1.026546E+0	8.796526E-1
5.560130E+2	9.310011E-1	9.560487E-1	9.702570E-1	9.520600E-1	9.430608E-1	9.736003E-1	9.681319E-1	9.880990E-1	9.141969E-1	9.474110E-1	9.698995E-1	9.411332E-1	9.744827E-1	9.935112E-1	9.614354E-1	9.856750E-1	9.243466E-1	9.364753E-1	9.650494E-1	9.824800E-1	1.003396E+0	9.554617E-1	9.832956E-1	9.551095E-1	9.707711E-1	9.757073E-1	9.075260E-1	9.993987E-1	9.688067E-1	9.786835E-1	9.807806E-1	9.581956E-1	9.787820E-1	9.809471E-1	9.373815E-1	9.971223E-1	9.680601E-1	1.023704E+0	9.376441E-1	9.371859E-1	9.208181E-1	9.156725E-1	9.325764E-1	9.521444E-1	9.355749E-1	9.977579E-1	9.415317E-1	9.785715E-1	9.815896E-1	9.965325E-1	9.294312E-1	9.763670E-1	9.726409E-1	9.799643E-1	9.959813E-1	9.911165E-1	9.210561E-1	9.430199E-1	9.749575E-1	9.318491E-1	9.563993E-1	9.625851E-1	9.895917E-1	9.608775E-1	9.721730E-1	9.624625E-1	9.105530E-1	9.574046E-1	9.999159E-1	9.372181E-1	9.359025E-1	9.244806E-1	9.608992E-1	9.474567E-1	9.826499E-1	9.149918E-1	9.899037E-1	9.767258E-1	9.685606E-1	9.474719E-1	9.684982E-1	9.518806E-1	9.878045E-1	9.326294E-1	9.456624E-1	9.765018E-1	9.899344E-1	9.731982E-1	9.805856E-1	1.000570E+0	9.973529E-1	9.740623E-1	9.381150E-1	1.004206E+0	9.473337E-1	9.643956E-1	9.684722E-1	9.684795E-1	1.054292E+0	9.578481E-1	9.634530E-1	9.660551E-1	9.774284E-1	9.553357E-1	9.661949E-1	9.555522E-1	9.712320E-1	9.618932E-1	9.903108E-1	9.621387E-1	9.735841E-1	9.871169E-1	9.609653E-1	9.620591E-1	1.001038E+0	9.784423E-1	9.586176E-1	9.590429E-1	9.878117E-1	9.858744E-1	9.556295E-1	9.287608E-1	9.688171E-1	9.270970E-1	9.467344E-1	9.449022E-1	9.412289E-1	9.689767E-1	9.377184E-1	9.071255E-1	9.634285E-1	9.873364E-1	9.336197E-1	9.384188E-1	9.639166E-1	9.814911E-1	9.346033E-1	9.850416E-1	9.648667E-1	9.863972E-1	9.781351E-1	9.393154E-1	9.803480E-1	9.311654E-1	9.641210E-1	9.157117E-1	9.537430E-1	9.430955E-1	9.758608E-1	8.865791E-1	1.015213E+0	9.265715E-1	1.001087E+0	9.686960E-1	9.224556E-1	9.601829E-1	9.651114E-1	9.579379E-1	1.002276E+0	9.641053E-1	9.923648E-1	9.426533E-1	9.123281E-1	9.473183E-1	9.109903E-1
5.565030E+2	9.123549E-1	9.552029E-1	8.987678E-1	8.771704E-1	9.195607E-1	9.476964E-1	8.977709E-1	9.467497E-1	9.694693E-1	8.723947E-1	9.429420E-1	9.445947E-1	9.630162E-1	9.775055E-1	9.456280E-1	9.374870E-1	9.639931E-1	9.623516E-1	9.131472E-1	9.371839E-1	9.169232E-1	9.222483E-1	9.388288E-1	9.239038E-1	9.443661E-1	8.832055E-1	9.337130E-1	9.506845E-1	9.306684E-1	8.846753E-1	1.018125E+0	9.747543E-1	8.849573E-1	9.921645E-1	9.597524E-1	9.308623E-1	9.581461E-1	8.862122E-1	9.269887E-1	9.095757E-1	9.352389E-1	9.494269E-1	9.219620E-1	9.538474E-1	9.184224E-1	9.497939E-1	9.407242E-1	9.542094E-1	9.272409E-1	9.433892E-1	9.047455E-1	9.575987E-1	9.963412E-1	9.453786E-1	9.146320E-1	9.422778E-1	9.192396E-1	9.880928E-1	8.803614E-1	9.908146E-1	9.180969E-1	9.354033E-1	9.309256E-1	9.209928E-1	9.094850E-1	9.702361E-1	9.912572E-1	9.629312E-1	8.995995E-1	8.966119E-1	9.037623E-1	9.394966E-1	9.051336E-1	9.476161E-1	9.374309E-1	9.415962E-1	9.682024E-1	9.519659E-1	9.522106E-1	9.445602E-1	9.534970E-1	9.290082E-1	9.372353E-1	9.061721E-1	9.547422E-1	9.392684E-1	9.437875E-1	8.987944E-1	9.535244E-1	9.582837E-1	8.898246E-1	9.116071E-1	9.664390E-1	9.694730E-1	9.448310E-1	9.461259E-1	9.468428E-1	9.276771E-1	9.185536E-1	8.814458E-1	9.338592E-1	9.200282E-1	9.488034E-1	9.265603E-1	9.661745E-1	8.971116E-1	8.777357E-1	9.520959E-1	9.497387E-1	9.629400E-1	9.210904E-1	9.479145E-1	9.646125E-1	9.004349E-1	9.683125E-1	9.310989E-1	9.346797E-1	9.240671E-1	9.025574E-1	9.374493E-1	9.009241E-1	9.135374E-1	9.229700E-1	9.090678E-1	9.426449E-1	9.072590E-1	9.387918E-1	9.517586E-1	9.767130E-1	9.260646E-1	9.335446E-1	9.621255E-1	9.292151E-1	9.195890E-1	9.973112E-1	9.277214E-1	9.435407E-1	9.275472E-1	9.204286E-1	9.357238E-1	9.519516E-1	8.919292E-1	9.853090E-1	9.749565E-1	9.623853E-1	9.444092E-1	9.034891E-1	8.787071E-1	9.166322E-1	9.293339E-1	9.575617E-1	9.477376E-1	9.942661E-1	9.387266E-1	9.238560E-1	9.181980E-1	9.816883E-1	9.777921E-1	9.332118E-1	9.556303E-1	9.121430E-1	9.286503E-1	9.105441E-1	9.799702E-1	9.459362E-1
5.570100E+2	9.526823E-1	9.500429E-1	9.666874E-1	1.023437E+0	9.641381E-1	9.434428E-1	9.383496E-1	9.633183E-1	9.037909E-1	9.464418E-1	9.515481E-1	9.606244E-1	9.725125E-1	9.781240E-1	9.669189E-1	9.511607E-1	9.636668E-1	9.267286E-1	9.831431E-1	9.370315E-1	9.876408E-1	9.335473E-1	9.223856E-1	9.394455E-1	9.826095E-1	1.014026E+0	9.759503E-1	9.832851E-1	9.423736E-1	9.615511E-1	9.561908E-1	9.791738E-1	9.614359E-1	9.919233E-1	9.622680E-1	9.342603E-1	9.709883E-1	9.784887E-1	9.599392E-1	9.821645E-1	1.003437E+0	1.004506E+0	9.750610E-1	9.359038E-1	9.258195E-1	9.626725E-1	9.132755E-1	9.700173E-1	9.412180E-1	9.019029E-1	9.530145E-1	9.411209E-1	9.951011E-1	9.839000E-1	9.909828E-1	9.523351E-1	9.596209E-1	1.001512E+0	9.605486E-1	9.094583E-1	1.007729E+0	9.469412E-1	9.449853E-1	9.466143E-1	9.869892E-1	9.690374E-1	9.209232E-1	9.575955E-1	9.352873E-1	9.167549E-1	9.926496E-1	9.821337E-1	9.780488E-1	9.360181E-1	9.335401E-1	9.431770E-1	9.886630E-1	9.150702E-1	9.531756E-1	9.652528E-1	9.259052E-1	1.004143E+0	9.677731E-1	9.963766E-1	9.523573E-1	9.256672E-1	9.547393E-1	9.916904E-1	9.902414E-1	9.804755E-1	9.791143E-1	9.885489E-1	9.727772E-1	9.694242E-1	9.662978E-1	9.656832E-1	9.414854E-1	9.810495E-1	9.886163E-1	9.804053E-1	1.004500E+0	9.418727E-1	9.211213E-1	9.754387E-1	9.354026E-1	9.776248E-1	9.218928E-1	1.046391E+0	9.562979E-1	9.638890E-1	9.848238E-1	9.470642E-1	9.771331E-1	8.836844E-1	9.474189E-1	9.283560E-1	9.799340E-1	9.530023E-1	9.750310E-1	9.454871E-1	9.526580E-1	9.403494E-1	9.916131E-1	9.791817E-1	9.722999E-1	9.046331E-1	9.791438E-1	1.002986E+0	9.705386E-1	9.522690E-1	9.785869E-1	9.606333E-1	9.502536E-1	9.830236E-1	9.633763E-1	9.940884E-1	9.863000E-1	9.654837E-1	9.650551E-1	9.450722E-1	9.571326E-1	9.541701E-1	1.001515E+0	9.359974E-1	9.950788E-1	9.962162E-1	9.815207E-1	9.150640E-1	9.277202E-1	9.325458E-1	9.768583E-1	9.550792E-1	9.308717E-1	1.013032E+0	9.508149E-1	9.813742E-1	9.652233E-1	9.294384E-1	9.261795E-1	9.518387E-1	9.584945E-1	9.777526E-1	9.597522E-1	9.891088E-1	1.048602E+0
5.575080E+2	1.010729E+0	9.784495E-1	1.012814E+0	9.854260E-1	1.027059E+0	9.904691E-1	9.986516E-1	1.001553E+0	1.039154E+0	9.594785E-1	9.690803E-1	1.066879E+0	9.839201E-1	9.975820E-1	9.982067E-1	9.830163E-1	1.011474E+0	9.836216E-1	1.010079E+0	1.012087E+0	1.003253E+0	1.010765E+0	1.011344E+0	9.746100E-1	1.003647E+0	1.013928E+0	9.093402E-1	9.995431E-1	1.009920E+0	1.006751E+0	1.005082E+0	1.022903E+0	9.992699E-1	9.792529E-1	9.706285E-1	1.011787E+0	1.002046E+0	9.897549E-1	9.975343E-1	1.003143E+0	1.033950E+0	1.002748E+0	1.011855E+0	1.027650E+0	1.021071E+0	9.870436E-1	1.001834E+0	9.885204E-1	9.826644E-1	1.015462E+0	9.823264E-1	9.808671E-1	9.887198E-1	9.797075E-1	1.034400E+0	1.008518E+0	1.048739E+0	9.805499E-1	1.014304E+0	1.033705E+0	9.714248E-1	1.022395E+0	1.011906E+0	1.034950E+0	1.009798E+0	1.001895E+0	9.624488E-1	9.710853E-1	1.009993E+0	9.821523E-1	9.764449E-1	1.001711E+0	1.037664E+0	9.941144E-1	9.735517E-1	1.060149E+0	9.811721E-1	1.004217E+0	9.926400E-1	9.795571E-1	9.727607E-1	9.678488E-1	9.988242E-1	1.007738E+0	1.016810E+0	1.034133E+0	1.013252E+0	1.016782E+0	1.005601E+0	9.844610E-1	9.995356E-1	1.016503E+0	1.015417E+0	9.871018E-1	1.034977E+0	1.014859E+0	9.744965E-1	9.888123E-1	1.008074E+0	9.547215E-1	9.598645E-1	1.003349E+0	1.065891E+0	9.736098E-1	9.680002E-1	9.685741E-1	1.041551E+0	9.718684E-1	1.002459E+0	9.657906E-1	9.871590E-1	9.587801E-1	1.006134E+0	1.015803E+0	1.029069E+0	9.495130E-1	9.829711E-1	1.014482E+0	9.649551E-1	9.986030E-1	9.912310E-1	1.024149E+0	9.575024E-1	9.965288E-1	1.000816E+0	1.014758E+0	9.808565E-1	9.834196E-1	9.757486E-1	9.668867E-1	1.011140E+0	1.007008E+0	9.800256E-1	1.002854E+0	9.620195E-1	1.002791E+0	1.062355E+0	9.902112E-1	1.003265E+0	9.832503E-1	9.730839E-1	9.660857E-1	9.505532E-1	9.774468E-1	1.020507E+0	9.905928E-1	1.029957E+0	9.981641E-1	9.955416E-1	1.004672E+0	1.043277E+0	1.009111E+0	9.768906E-1	9.764613E-1	9.395522E-1	9.956158E-1	1.022312E+0	9.884805E-1	1.001904E+0	9.666745E-1	1.029047E+0	9.832945E-1	1.011093E+0	9.789242E-1	9.526668E-1
5.580400E+2	1.057206E+0	9.878583E-1	1.056943E+0	1.017656E+0	9.908130E-1	1.010299E+0	1.059109E+0	1.011051E+0	1.010188E+0	1.050339E+0	9.900078E-1	1.032931E+0	1.001563E+0	1.036960E+0	1.056606E+0	1.013629E+0	1.013309E+0	1.023134E+0	1.043041E+0	1.032827E+0	1.003687E+0	1.093099E+0	1.018895E+0	1.012809E+0	1.016085E+0	9.939340E-1	1.009737E+0	1.004057E+0	1.019885E+0	1.041513E+0	1.024927E+0	9.881668E-1	1.061728E+0	9.895216E-1	1.040340E+0	1.016982E+0	1.008936E+0	1.019635E+0	1.034961E+0	1.039555E+0	9.993764E-1	9.921189E-1	1.025293E+0	1.024377E+0	1.010293E+0	1.047579E+0	1.011308E+0	1.009292E+0	1.002493E+0	1.021226E+0	1.027002E+0	9.879386E-1	9.834267E-1	1.041200E+0	1.013005E+0	1.037149E+0	9.716539E-1	9.875666E-1	1.019976E+0	1.010213E+0	1.018254E+0	9.573812E-1	9.789815E-1	1.013616E+0	1.001908E+0	1.060409E+0	1.054255E+0	1.009891E+0	1.030776E+0	1.047523E+0	1.024125E+0	1.036449E+0	1.016508E+0	1.016604E+0	1.024933E+0	9.930830E-1	1.057190E+0	1.012869E+0	1.080368E+0	1.028166E+0	1.020449E+0	1.052869E+0	1.005058E+0	1.062519E+0	1.016831E+0	9.869681E-1	9.925547E-1	1.018757E+0	1.051957E+0	1.041099E+0	9.866378E-1	9.686603E-1	9.576912E-1	1.033660E+0	1.006212E+0	1.020941E+0	9.765878E-1	1.012608E+0	1.030528E+0	1.033601E+0	1.007087E+0	1.002171E+0	1.001507E+0	9.997811E-1	1.014337E+0	1.038508E+0	1.048251E+0	1.033239E+0	1.005798E+0	1.071807E+0	1.003862E+0	1.056629E+0	9.930567E-1	1.020802E+0	9.946610E-1	1.039947E+0	1.036693E+0	1.038907E+0	1.009748E+0	1.031959E+0	1.017557E+0	1.009979E+0	1.011616E+0	9.697922E-1	1.004040E+0	1.026608E+0	1.045075E+0	1.007932E+0	1.061292E+0	1.039999E+0	1.003962E+0	9.668820E-1	1.041963E+0	1.063658E+0	1.023571E+0	9.873150E-1	1.042304E+0	1.067730E+0	1.025545E+0	1.024679E+0	9.995126E-1	1.054554E+0	1.015184E+0	1.033665E+0	1.044075E+0	1.104626E+0	1.005848E+0	1.036321E+0	9.980268E-1	1.050834E+0	9.836603E-1	1.000988E+0	1.024043E+0	9.924939E-1	1.043048E+0	1.063999E+0	1.049967E+0	1.050296E+0	1.045592E+0	1.002724E+0	9.684439E-1	1.015053E+0	1.071402E+0	1.007554E+0	1.024519E+0
5.585390E+2	1.053137E+0	1.055506E+0	1.009394E+0	1.013667E+0	1.061048E+0	1.055695E+0	1.060795E+0	1.031655E+0	1.084147E+0	1.046752E+0	1.044475E+0	1.026791E+0	1.076960E+0	1.012636E+0	1.070486E+0	1.065936E+0	1.068710E+0	1.074377E+0	1.034833E+0	1.040917E+0	1.086338E+0	1.014926E+0	1.054446E+0	1.061406E+0	1.052712E+0	1.052944E+0	1.055908E+0	1.023775E+0	1.076318E+0	1.046551E+0	1.066331E+0	1.050903E+0	1.076192E+0	1.068530E+0	1.055990E+0	1.060004E+0	1.052434E+0	1.050691E+0	1.047137E+0	1.085850E+0	1.052124E+0	1.019293E+0	1.090885E+0	1.066928E+0	1.036181E+0	1.055375E+0	1.029781E+0	1.038431E+0	1.058245E+0	1.051923E+0	1.030066E+0	1.021950E+0	1.001348E+0	1.026629E+0	1.014750E+0	1.006537E+0	1.077038E+0	1.073298E+0	1.115905E+0	1.058516E+0	1.015442E+0	1.055955E+0	9.955139E-1	1.010755E+0	1.034981E+0	1.049650E+0	1.027560E+0	1.063372E+0	1.034264E+0	1.072767E+0	9.922932E-1	9.904547E-1	1.084684E+0	1.031491E+0	1.076937E+0	1.046997E+0	1.039887E+0	1.082742E+0	1.039298E+0	1.074940E+0	1.035550E+0	1.018431E+0	1.012481E+0	9.958234E-1	1.064248E+0	9.928687E-1	1.045112E+0	1.039208E+0	1.005327E+0	1.019659E+0	1.042086E+0	1.026212E+0	1.056137E+0	1.000661E+0	1.023788E+0	9.996044E-1	9.927587E-1	1.041319E+0	1.032271E+0	1.060935E+0	1.023686E+0	1.039908E+0	1.018453E+0	9.898412E-1	9.780647E-1	1.059798E+0	1.032850E+0	1.046804E+0	1.001522E+0	1.025980E+0	1.028191E+0	1.052251E+0	1.039799E+0	1.120739E+0	1.028458E+0	1.062462E+0	1.064710E+0	1.029759E+0	1.038597E+0	1.040471E+0	1.049129E+0	1.013268E+0	1.047354E+0	1.065730E+0	1.034120E+0	1.065441E+0	1.052751E+0	1.041302E+0	1.049036E+0	1.069772E+0	1.034754E+0	1.051951E+0	1.020234E+0	1.065447E+0	1.045365E+0	1.075368E+0	1.056317E+0	1.057646E+0	1.018988E+0	1.047741E+0	1.074260E+0	1.063582E+0	1.064874E+0	1.035579E+0	1.012368E+0	1.009363E+0	1.065354E+0	1.058847E+0	1.038036E+0	1.064426E+0	1.043637E+0	1.067794E+0	1.022262E+0	1.038719E+0	9.969245E-1	1.079205E+0	1.025050E+0	1.080657E+0	1.026563E+0	1.037885E+0	9.874052E-1	1.056082E+0	1.053700E+0	9.740183E-1	9.686285E-1
5.590160E+2	1.049934E+0	1.007081E+0	9.924194E-1	1.025779E+0	1.048550E+0	1.055189E+0	1.046383E+0	1.013729E+0	9.943477E-1	1.006048E+0	1.081327E+0	9.842496E-1	9.995137E-1	9.866783E-1	9.974035E-1	1.025110E+0	1.059593E+0	1.007269E+0	1.036129E+0	1.012031E+0	1.026486E+0	1.030680E+0	1.014188E+0	1.037304E+0	9.842734E-1	1.064583E+0	1.072459E+0	1.021243E+0	1.046411E+0	9.979123E-1	9.764577E-1	1.020368E+0	1.042935E+0	1.027384E+0	1.025860E+0	9.782710E-1	1.036014E+0	1.020104E+0	1.020652E+0	1.017486E+0	9.878198E-1	1.051510E+0	9.916055E-1	1.028544E+0	1.028207E+0	1.062426E+0	1.038813E+0	1.002073E+0	1.033509E+0	1.001976E+0	1.061589E+0	1.058270E+0	1.035999E+0	1.019445E+0	1.021677E+0	1.050743E+0	1.008721E+0	1.012897E+0	9.775523E-1	1.016961E+0	1.037074E+0	1.028154E+0	1.040844E+0	1.016978E+0	1.031977E+0	1.046334E+0	1.007998E+0	1.029122E+0	1.030709E+0	9.929848E-1	1.042806E+0	1.013340E+0	9.637716E-1	1.021828E+0	1.030807E+0	1.023057E+0	1.005759E+0	1.002466E+0	9.979262E-1	1.044129E+0	1.074438E+0	1.040708E+0	1.034085E+0	1.059255E+0	1.036549E+0	1.015574E+0	1.016743E+0	1.046807E+0	1.013127E+0	9.819549E-1	1.059369E+0	1.016975E+0	9.927123E-1	9.951540E-1	1.030739E+0	1.044627E+0	1.044666E+0	1.039582E+0	1.040724E+0	1.005426E+0	1.100419E+0	1.030056E+0	1.035687E+0	1.020166E+0	1.044111E+0	1.062734E+0	1.036334E+0	9.618565E-1	1.049930E+0	9.990925E-1	1.064831E+0	9.983907E-1	1.020596E+0	1.045293E+0	1.047479E+0	1.036953E+0	1.011059E+0	1.019091E+0	1.074013E+0	1.002390E+0	1.062542E+0	9.606508E-1	1.053089E+0	9.984056E-1	1.038442E+0	1.049177E+0	9.763214E-1	1.027535E+0	9.633175E-1	9.440503E-1	9.935329E-1	1.022781E+0	1.038669E+0	1.038872E+0	1.027503E+0	1.037033E+0	9.875103E-1	9.983969E-1	1.005312E+0	1.026143E+0	1.031343E+0	1.026460E+0	9.812837E-1	1.002684E+0	1.040733E+0	1.007255E+0	1.008356E+0	1.045231E+0	1.040847E+0	1.018297E+0	1.030491E+0	1.021155E+0	1.007522E+0	9.919274E-1	1.041710E+0	9.736665E-1	1.013229E+0	1.003607E+0	1.021307E+0	1.027447E+0	1.070118E+0	1.054787E+0	1.023406E+0	1.048935E+0	9.700682E-1
5.595000E+2	1.022566E+0	1.070161E+0	1.059130E+0	1.001395E+0	1.015904E+0	1.056362E+0	1.003321E+0	1.057716E+0	1.028500E+0	1.053435E+0	1.029468E+0	1.049450E+0	1.032760E+0	1.047791E+0	1.026118E+0	1.044011E+0	1.006293E+0	1.064483E+0	1.062026E+0	1.028443E+0	1.024661E+0	1.022682E+0	1.083490E+0	1.101222E+0	1.069315E+0	1.064304E+0	1.072573E+0	1.049297E+0	1.060910E+0	1.073732E+0	1.085118E+0	1.029917E+0	1.087484E+0	1.015028E+0	1.030695E+0	1.060787E+0	1.035870E+0	1.056194E+0	1.042030E+0	1.032250E+0	1.017990E+0	1.014197E+0	1.023323E+0	1.025805E+0	1.079429E+0	9.857936E-1	1.093151E+0	1.079774E+0	1.033930E+0	1.071756E+0	1.054450E+0	1.094453E+0	1.024351E+0	1.057821E+0	1.055429E+0	1.037423E+0	1.063699E+0	1.035928E+0	1.041118E+0	1.033571E+0	1.019549E+0	1.075467E+0	1.039773E+0	1.050255E+0	1.048560E+0	1.022580E+0	1.026960E+0	1.025828E+0	1.042566E+0	1.036259E+0	1.051837E+0	1.016021E+0	1.007381E+0	1.036157E+0	1.097733E+0	1.089103E+0	1.065814E+0	1.059035E+0	1.064152E+0	1.080043E+0	1.008254E+0	1.074657E+0	1.088234E+0	1.090310E+0	1.022289E+0	1.084551E+0	1.021814E+0	1.013339E+0	1.010953E+0	1.091917E+0	1.074685E+0	1.082417E+0	1.076498E+0	1.077776E+0	1.007318E+0	1.051135E+0	1.108781E+0	1.046849E+0	9.938570E-1	1.065481E+0	1.051248E+0	1.066371E+0	1.065507E+0	1.095640E+0	1.101816E+0	1.093297E+0	1.079220E+0	1.057889E+0	1.085131E+0	1.019388E+0	1.103336E+0	1.048197E+0	1.010388E+0	1.026919E+0	1.060045E+0	1.007161E+0	1.051645E+0	1.027693E+0	1.034884E+0	1.047465E+0	1.033975E+0	1.081663E+0	1.029248E+0	1.082746E+0	1.037376E+0	1.022158E+0	1.044420E+0	1.027575E+0	1.019361E+0	1.052855E+0	1.009799E+0	1.042005E+0	1.051163E+0	1.014444E+0	1.068477E+0	1.030986E+0	1.015840E+0	1.061670E+0	1.061985E+0	1.024327E+0	1.057453E+0	1.078947E+0	1.047789E+0	1.049140E+0	1.010605E+0	1.023930E+0	1.086299E+0	1.096165E+0	1.039529E+0	1.007192E+0	1.024333E+0	1.037459E+0	1.127569E+0	1.054511E+0	1.078103E+0	1.005479E+0	1.007174E+0	1.046469E+0	1.060508E+0	1.077292E+0	1.090559E+0	1.044323E+0	1.045294E+0	1.043467E+0	1.066854E+0
5.600470E+2	9.526404E-1	1.024290E+0	9.713738E-1	9.675073E-1	9.747782E-1	9.416109E-1	9.572839E-1	9.792394E-1	9.641065E-1	1.001149E+0	1.007963E+0	9.691613E-1	1.000951E+0	9.639553E-1	9.322093E-1	1.005744E+0	9.657928E-1	9.115059E-1	9.851198E-1	9.735807E-1	9.685291E-1	9.587152E-1	9.842734E-1	9.862272E-1	9.539756E-1	9.732377E-1	9.742578E-1	9.733059E-1	9.577185E-1	9.544690E-1	9.103849E-1	9.987583E-1	9.463666E-1	9.557763E-1	9.182520E-1	1.003529E+0	9.507562E-1	9.875951E-1	9.858538E-1	9.746517E-1	9.627813E-1	9.484803E-1	9.497079E-1	9.658353E-1	9.900440E-1	9.962409E-1	9.360926E-1	9.653120E-1	1.006456E+0	9.857062E-1	1.006842E+0	9.622362E-1	9.963531E-1	9.742463E-1	9.728055E-1	9.531647E-1	9.420195E-1	9.738845E-1	9.860608E-1	9.565191E-1	1.004006E+0	9.596656E-1	1.010436E+0	9.970393E-1	9.644023E-1	9.778882E-1	9.526581E-1	9.578086E-1	9.901045E-1	9.809527E-1	9.582084E-1	1.005086E+0	9.368215E-1	9.637240E-1	9.737231E-1	9.532659E-1	9.775337E-1	9.682848E-1	9.678536E-1	9.555043E-1	1.011781E+0	9.686339E-1	9.401316E-1	9.620764E-1	9.719848E-1	9.647874E-1	9.732079E-1	9.587666E-1	9.372938E-1	9.722063E-1	9.526704E-1	9.759738E-1	9.989491E-1	1.025025E+0	9.131132E-1	9.251700E-1	9.896729E-1	9.712494E-1	9.368646E-1	9.776118E-1	9.470528E-1	9.894479E-1	9.873671E-1	1.000996E+0	9.760308E-1	9.438868E-1	9.943419E-1	9.640002E-1	9.544589E-1	9.388448E-1	9.530730E-1	9.728189E-1	9.526456E-1	9.947234E-1	9.479451E-1	9.924255E-1	9.634638E-1	9.779441E-1	9.477976E-1	1.018056E+0	9.737817E-1	9.995052E-1	9.815567E-1	1.013549E+0	9.622018E-1	1.015047E+0	1.026453E+0	9.235590E-1	9.935103E-1	1.036347E+0	9.551912E-1	9.760082E-1	9.853172E-1	9.697021E-1	9.406159E-1	9.492969E-1	9.199916E-1	9.594480E-1	1.013075E+0	9.742399E-1	9.710627E-1	9.624994E-1	9.478193E-1	9.901282E-1	1.014261E+0	9.377743E-1	9.612541E-1	9.507219E-1	1.031571E+0	9.931634E-1	9.694800E-1	9.359158E-1	9.344447E-1	9.744182E-1	1.001244E+0	9.974304E-1	9.554019E-1	9.884555E-1	9.420833E-1	9.744643E-1	9.518188E-1	9.854138E-1	9.391235E-1	1.001413E+0	9.587481E-1
5.605040E+2	9.988060E-1	1.008756E+0	1.033056E+0	1.087500E+0	1.024135E+0	1.014993E+0	1.007748E+0	1.020828E+0	1.053126E+0	1.048638E+0	1.001154E+0	1.019676E+0	1.021620E+0	1.018283E+0	1.013334E+0	1.013977E+0	9.998938E-1	1.044836E+0	9.753725E-1	1.034852E+0	9.939867E-1	1.065240E+0	9.962959E-1	9.861609E-1	1.023097E+0	1.008678E+0	1.030649E+0	1.028630E+0	9.920860E-1	9.895907E-1	1.003249E+0	1.021924E+0	1.015037E+0	1.001898E+0	1.061766E+0	1.009956E+0	9.702380E-1	1.030614E+0	1.011425E+0	9.710640E-1	1.044670E+0	1.022754E+0	1.014141E+0	1.002497E+0	1.006219E+0	1.001009E+0	1.051764E+0	1.020613E+0	1.042955E+0	1.015247E+0	1.011318E+0	1.012723E+0	1.009905E+0	1.026531E+0	1.024555E+0	1.009199E+0	9.919200E-1	9.658834E-1	1.006241E+0	1.021525E+0	1.062243E+0	1.019310E+0	1.043773E+0	1.028611E+0	1.029246E+0	9.520814E-1	1.016380E+0	1.037969E+0	1.025684E+0	1.063332E+0	1.052598E+0	1.018462E+0	1.012997E+0	1.029712E+0	9.903923E-1	1.005871E+0	9.268505E-1	1.014866E+0	9.841958E-1	9.865170E-1	1.015267E+0	9.626064E-1	1.032525E+0	9.742425E-1	9.931188E-1	1.000648E+0	1.011859E+0	1.037794E+0	1.046421E+0	1.020280E+0	1.027685E+0	1.049581E+0	9.785142E-1	9.896942E-1	1.020433E+0	1.009929E+0	9.990769E-1	9.880475E-1	1.053016E+0	1.011426E+0	9.712198E-1	1.006115E+0	9.813972E-1	9.982789E-1	1.036401E+0	1.023267E+0	9.887444E-1	1.015994E+0	1.032009E+0	1.063122E+0	1.001911E+0	1.003446E+0	1.052366E+0	1.031581E+0	1.019803E+0	1.045822E+0	9.985699E-1	1.045924E+0	1.043946E+0	1.005148E+0	1.048102E+0	1.029077E+0	1.027505E+0	1.010644E+0	1.008669E+0	1.033950E+0	9.393207E-1	1.007462E+0	1.009953E+0	1.012576E+0	1.086322E+0	1.001043E+0	9.848651E-1	1.026287E+0	9.915615E-1	1.022154E+0	1.003446E+0	1.001587E+0	1.034622E+0	1.024109E+0	9.854149E-1	1.050588E+0	9.899911E-1	1.005524E+0	9.794594E-1	1.027370E+0	9.678650E-1	1.047719E+0	1.005907E+0	1.034522E+0	9.914707E-1	1.054253E+0	9.727740E-1	1.031997E+0	1.035296E+0	9.949783E-1	1.003184E+0	9.875635E-1	1.049504E+0	1.002022E+0	1.037191E+0	9.786724E-1	9.983174E-1	1.031608E+0	1.008459E+0
5.610180E+2	9.899449E-1	9.626526E-1	9.994136E-1	1.000463E+0	9.740151E-1	9.842437E-1	1.030587E+0	9.741595E-1	9.531697E-1	1.015324E+0	9.820347E-1	9.456439E-1	9.471836E-1	9.804845E-1	9.930895E-1	9.599299E-1	9.472731E-1	1.001693E+0	9.571091E-1	9.910474E-1	9.884951E-1	9.480969E-1	9.758528E-1	9.769127E-1	9.699188E-1	9.311587E-1	9.654122E-1	9.661796E-1	9.637091E-1	1.043254E+0	9.541345E-1	9.131315E-1	9.245943E-1	9.785220E-1	9.744489E-1	9.935616E-1	1.014572E+0	9.807109E-1	9.734779E-1	9.842602E-1	9.626130E-1	9.949669E-1	9.961670E-1	9.686131E-1	9.843137E-1	9.520661E-1	9.832570E-1	9.717582E-1	9.712891E-1	9.914114E-1	9.686474E-1	9.828423E-1	9.684550E-1	9.451416E-1	9.577638E-1	1.002654E+0	1.017350E+0	9.803880E-1	9.979323E-1	9.687158E-1	9.461820E-1	9.993267E-1	1.002862E+0	9.801881E-1	9.826541E-1	9.498883E-1	1.039560E+0	9.843981E-1	1.001016E+0	1.010662E+0	1.005276E+0	9.968454E-1	1.056991E+0	1.022736E+0	9.609526E-1	9.436995E-1	9.889284E-1	9.884845E-1	9.681799E-1	9.413303E-1	9.820985E-1	9.810947E-1	9.836522E-1	9.454866E-1	9.710697E-1	1.055534E+0	1.026931E+0	9.780601E-1	9.855547E-1	9.496641E-1	9.883930E-1	9.635231E-1	9.848645E-1	9.520314E-1	1.052291E+0	1.021925E+0	1.025632E+0	1.002807E+0	9.974956E-1	1.028946E+0	1.001063E+0	1.000681E+0	9.742661E-1	1.019688E+0	9.796619E-1	9.351990E-1	9.790780E-1	9.498627E-1	9.626546E-1	9.891462E-1	9.517228E-1	1.014508E+0	9.832690E-1	9.600209E-1	9.568080E-1	1.006262E+0	9.762742E-1	9.691318E-1	1.008471E+0	9.729708E-1	9.701001E-1	1.027822E+0	9.775456E-1	9.743546E-1	9.993904E-1	9.609690E-1	1.016866E+0	1.026471E+0	9.805304E-1	9.991796E-1	9.931681E-1	1.009563E+0	1.018294E+0	9.161233E-1	9.801989E-1	9.732458E-1	9.823958E-1	9.702800E-1	9.517228E-1	1.014715E+0	9.987859E-1	9.511841E-1	1.015682E+0	9.948794E-1	9.205269E-1	9.584636E-1	9.900560E-1	9.730598E-1	1.006190E+0	9.650139E-1	9.792309E-1	9.705074E-1	1.009357E+0	9.877142E-1	9.894514E-1	9.900534E-1	9.767708E-1	9.472406E-1	9.931463E-1	1.004022E+0	9.947789E-1	9.759719E-1	9.873676E-1	9.450017E-1	1.055519E+0
