Photon Energy (eV)	#1	#2	#3	#4	#5	#6	#7	#8	#9	#10	#11	#12	#13	#14	#15	#16	#17	#18	#19	#20	#21	#22	#23	#24	#25	#26	#27	#28	#29	#30	#31	#32	#33	#34	#35	#36	#37	#38	#39	#40	#41	#42	#43	#44	#45	#46	#47	#48	#49	#50	#51	#52	#53	#54	#55	#56	#57	#58	#59	#60	#61	#62	#63	#64	#65	#66	#67	#68	#69	#70	#71	#72	#73	#74	#75	#76	#77	#78	#79	#80	#81	#82	#83	#84	#85	#86	#87	#88	#89	#90	#91	#92	#93	#94	#95	#96	#97	#98	#99	#100	#101	#102	#103	#104	#105	#106	#107	#108	#109	#110	#111	#112	#113	#114	#115	#116	#117	#118	#119	#120	#121	#122	#123	#124	#125	#126	#127	#128	#129	#130	#131	#132	#133	#134	#135	#136	#137	#138	#139	#140	#141	#142	#143	#144	#145	#146	#147	#148	#149	#150	#151	#152	#153	#154	#155	#156	#157	#158	#159	#160	#161	#162	#163	#164	#165	
1.550000E+3	1.571600E+0	1.740060E+0	1.582340E+0	1.493570E+0	1.710460E+0	1.868140E+0	1.509490E+0	1.363230E+0	1.675750E+0	1.597300E+0	1.789850E+0	1.451180E+0	1.800640E+0	1.724300E+0	1.885390E+0	1.718230E+0	1.703470E+0	1.570620E+0	1.626830E+0	1.645040E+0	1.878310E+0	1.850770E+0	1.600480E+0	1.647880E+0	1.636070E+0	1.731930E+0	1.661920E+0	1.558350E+0	1.692810E+0	1.769590E+0	1.698010E+0	1.813030E+0	1.751360E+0	1.707540E+0	1.533400E+0	1.581600E+0	1.848090E+0	1.883950E+0	1.579290E+0	1.677560E+0	1.635550E+0	1.698250E+0	1.517320E+0	1.529400E+0	1.771170E+0	1.816710E+0	1.739760E+0	1.862040E+0	1.652240E+0	1.570510E+0	1.649830E+0	1.686530E+0	1.784940E+0	1.757830E+0	1.640590E+0	1.785500E+0	1.664980E+0	1.551320E+0	1.594840E+0	1.566110E+0	1.781630E+0	1.719900E+0	1.846900E+0	1.830410E+0	1.584650E+0	1.827170E+0	1.662340E+0	1.607960E+0	1.746260E+0	1.775790E+0	1.667610E+0	1.805480E+0	1.603810E+0	1.644240E+0	1.480270E+0	1.609550E+0	1.706500E+0	1.690240E+0	1.702240E+0	1.898150E+0	1.641840E+0	1.625210E+0	1.560610E+0	1.550360E+0	1.822740E+0	1.819250E+0	1.643290E+0	1.602210E+0	1.606990E+0	1.676140E+0	1.636660E+0	1.417650E+0	1.761960E+0	1.817950E+0	1.789900E+0	1.730860E+0	1.565440E+0	1.617600E+0	1.523420E+0	1.583060E+0	1.797760E+0	1.723830E+0	1.627210E+0	1.713100E+0	1.643190E+0	1.557170E+0	1.525710E+0	1.585320E+0	1.809960E+0	1.792550E+0	1.858650E+0	1.887820E+0	1.617280E+0	1.561820E+0	1.710080E+0	1.601820E+0	1.819270E+0	1.594460E+0	1.673940E+0	1.639210E+0	1.735080E+0	1.598540E+0	1.609670E+0	1.451300E+0	1.847130E+0	1.709300E+0	1.709150E+0	1.756880E+0	1.833870E+0	1.493320E+0	1.583920E+0	1.563110E+0	1.938480E+0	1.640880E+0	1.582850E+0	1.693840E+0	1.689220E+0	1.561380E+0	1.539880E+0	1.563600E+0	1.736720E+0	1.754310E+0	1.667230E+0	1.765180E+0	1.464470E+0	1.493690E+0	1.489470E+0	1.535040E+0	1.695630E+0	1.460150E+0	1.603410E+0	1.666500E+0	1.825860E+0	1.478150E+0	1.702590E+0	1.670370E+0	1.664920E+0	1.647500E+0	1.689410E+0	1.794350E+0	1.798650E+0	1.495580E+0	1.530630E+0	1.539810E+0	1.915490E+0
1.850000E+3	1.569920E+0	1.738050E+0	1.580680E+0	1.492190E+0	1.708600E+0	1.865980E+0	1.508090E+0	1.361700E+0	1.673930E+0	1.595260E+0	1.787720E+0	1.449370E+0	1.798490E+0	1.721990E+0	1.882350E+0	1.715580E+0	1.701690E+0	1.568240E+0	1.625170E+0	1.643010E+0	1.874800E+0	1.847730E+0	1.598470E+0	1.645360E+0	1.633530E+0	1.729180E+0	1.659790E+0	1.555960E+0	1.690640E+0	1.766790E+0	1.695820E+0	1.810530E+0	1.749050E+0	1.704910E+0	1.531130E+0	1.579690E+0	1.846410E+0	1.881310E+0	1.577320E+0	1.675170E+0	1.632980E+0	1.695540E+0	1.515060E+0	1.527540E+0	1.768690E+0	1.814180E+0	1.737810E+0	1.859340E+0	1.650470E+0	1.568500E+0	1.649770E+0	1.684250E+0	1.782480E+0	1.755360E+0	1.638510E+0	1.783100E+0	1.662790E+0	1.549340E+0	1.592390E+0	1.563750E+0	1.780380E+0	1.717530E+0	1.844220E+0	1.827800E+0	1.582590E+0	1.824520E+0	1.660160E+0	1.605900E+0	1.743920E+0	1.773250E+0	1.665430E+0	1.802960E+0	1.601790E+0	1.642160E+0	1.478480E+0	1.608380E+0	1.704210E+0	1.688030E+0	1.699890E+0	1.895340E+0	1.639660E+0	1.623040E+0	1.558610E+0	1.548350E+0	1.820100E+0	1.816670E+0	1.641140E+0	1.600090E+0	1.604980E+0	1.673890E+0	1.634560E+0	1.415950E+0	1.759610E+0	1.815390E+0	1.787410E+0	1.728420E+0	1.563470E+0	1.668360E+0	1.519190E+0	1.580710E+0	1.794640E+0	1.896240E+0	1.617370E+0	1.709610E+0	1.639580E+0	1.658330E+0	1.519270E+0	1.582950E+0	1.806680E+0	1.832660E+0	1.854360E+0	1.884830E+0	1.614850E+0	1.637190E+0	1.704420E+0	1.599040E+0	1.815750E+0	1.761080E+0	1.664110E+0	1.635940E+0	1.730970E+0	1.717260E+0	1.602130E+0	1.448890E+0	1.843600E+0	1.747110E+0	1.705030E+0	1.754240E+0	1.830670E+0	1.492730E+0	1.581540E+0	1.560820E+0	1.935320E+0	1.638710E+0	1.580690E+0	1.691360E+0	1.686910E+0	1.559360E+0	1.537740E+0	1.561510E+0	1.734280E+0	1.751860E+0	1.664590E+0	1.762430E+0	1.462470E+0	1.491660E+0	1.487160E+0	1.532760E+0	1.693060E+0	1.458230E+0	1.601160E+0	1.664200E+0	1.823320E+0	1.476250E+0	1.700030E+0	1.667900E+0	1.662560E+0	1.644970E+0	1.686660E+0	1.791550E+0	1.796750E+0	1.493540E+0	1.528410E+0	1.537790E+0	1.912540E+0
2.150000E+3	1.568020E+0	1.735940E+0	1.579480E+0	1.491060E+0	1.706880E+0	1.864330E+0	1.505590E+0	1.360210E+0	1.671500E+0	1.593210E+0	1.785360E+0	1.447660E+0	1.796390E+0	1.720730E+0	1.879130E+0	1.714270E+0	1.699420E+0	1.566760E+0	1.622350E+0	1.641050E+0	1.872990E+0	1.845010E+0	1.596610E+0	1.643650E+0	1.631780E+0	1.726910E+0	1.659890E+0	1.554060E+0	1.688750E+0	1.766040E+0	1.693180E+0	1.808320E+0	1.747070E+0	1.702540E+0	1.529060E+0	1.577720E+0	1.843780E+0	1.878810E+0	1.575460E+0	1.673220E+0	1.632610E+0	1.693310E+0	1.513800E+0	1.525740E+0	1.767050E+0	1.811570E+0	1.734890E+0	1.856940E+0	1.648300E+0	1.566600E+0	1.647590E+0	1.682070E+0	1.780240E+0	1.753020E+0	1.636680E+0	1.780970E+0	1.660790E+0	1.548490E+0	1.590250E+0	1.561680E+0	1.777570E+0	1.715380E+0	1.841710E+0	1.825220E+0	1.580680E+0	1.822030E+0	1.658060E+0	1.604070E+0	1.741600E+0	1.771130E+0	1.663460E+0	1.800690E+0	1.599870E+0	1.639410E+0	1.476810E+0	1.605840E+0	1.701970E+0	1.685810E+0	1.697660E+0	1.892800E+0	1.637520E+0	1.621030E+0	1.556810E+0	1.546440E+0	1.817840E+0	1.813920E+0	1.639190E+0	1.598030E+0	1.602800E+0	1.671640E+0	1.632350E+0	1.414270E+0	1.757230E+0	1.812930E+0	1.785100E+0	1.726190E+0	1.561620E+0	1.666350E+0	1.517300E+0	1.578750E+0	1.792280E+0	1.893590E+0	1.614980E+0	1.707520E+0	1.637640E+0	1.653400E+0	1.517820E+0	1.581150E+0	1.804390E+0	1.830250E+0	1.851860E+0	1.882330E+0	1.613070E+0	1.705030E+0	1.699300E+0	1.596530E+0	1.812750E+0	1.913000E+0	1.655130E+0	1.633010E+0	1.727400E+0	1.825620E+0	1.595310E+0	1.446800E+0	1.840340E+0	1.781500E+0	1.701360E+0	1.751800E+0	1.827730E+0	1.492010E+0	1.579430E+0	1.558790E+0	1.932310E+0	1.636440E+0	1.578690E+0	1.689030E+0	1.684680E+0	1.557570E+0	1.535880E+0	1.559620E+0	1.731930E+0	1.749680E+0	1.662260E+0	1.759950E+0	1.460500E+0	1.489800E+0	1.485080E+0	1.530710E+0	1.690870E+0	1.456540E+0	1.599010E+0	1.662130E+0	1.820840E+0	1.474580E+0	1.697720E+0	1.665660E+0	1.660490E+0	1.642720E+0	1.684330E+0	1.788990E+0	1.795640E+0	1.491720E+0	1.526290E+0	1.535390E+0	1.909910E+0
2.250000E+3	1.566620E+0	1.733780E+0	1.577140E+0	1.489250E+0	1.704240E+0	1.861050E+0	1.507410E+0	1.359530E+0	1.669550E+0	1.593440E+0	1.783060E+0	1.446740E+0	1.794310E+0	1.718080E+0	1.879410E+0	1.711310E+0	1.697750E+0	1.565310E+0	1.624150E+0	1.638840E+0	1.870870E+0	1.842990E+0	1.594490E+0	1.641550E+0	1.629740E+0	1.725110E+0	1.654730E+0	1.552690E+0	1.686450E+0	1.761420E+0	1.691460E+0	1.805740E+0	1.744430E+0	1.699860E+0	1.527710E+0	1.575650E+0	1.839330E+0	1.875910E+0	1.573180E+0	1.670850E+0	1.629280E+0	1.691520E+0	1.512100E+0	1.523880E+0	1.764160E+0	1.809270E+0	1.732710E+0	1.854190E+0	1.643080E+0	1.564610E+0	1.643000E+0	1.679750E+0	1.777700E+0	1.750550E+0	1.634420E+0	1.778400E+0	1.658500E+0	1.545740E+0	1.584660E+0	1.560350E+0	1.774420E+0	1.712910E+0	1.839110E+0	1.822600E+0	1.578540E+0	1.819410E+0	1.655730E+0	1.601870E+0	1.739120E+0	1.768630E+0	1.661280E+0	1.798170E+0	1.597770E+0	1.637770E+0	1.474910E+0	1.600450E+0	1.699620E+0	1.683510E+0	1.695390E+0	1.890100E+0	1.635350E+0	1.618790E+0	1.554830E+0	1.544600E+0	1.815250E+0	1.811390E+0	1.637090E+0	1.596040E+0	1.600740E+0	1.669440E+0	1.630310E+0	1.412520E+0	1.754830E+0	1.810390E+0	1.782720E+0	1.723820E+0	1.559660E+0	1.664130E+0	1.515470E+0	1.576790E+0	1.789870E+0	1.890930E+0	1.612990E+0	1.705170E+0	1.635620E+0	1.651300E+0	1.516020E+0	1.579190E+0	1.802010E+0	1.827810E+0	1.849300E+0	1.879690E+0	1.610870E+0	1.702760E+0	1.697110E+0	1.594530E+0	1.810260E+0	1.910310E+0	1.653140E+0	1.631040E+0	1.725230E+0	1.823050E+0	1.593390E+0	1.445150E+0	1.837910E+0	1.779230E+0	1.699340E+0	1.749570E+0	1.825230E+0	1.657990E+0	1.570110E+0	1.555720E+0	1.928170E+0	2.004970E+0	1.560180E+0	1.684670E+0	1.679410E+0	1.826770E+0	1.521850E+0	1.556600E+0	1.727700E+0	1.874830E+0	1.654630E+0	1.757010E+0	1.457590E+0	1.491770E+0	1.483070E+0	1.528540E+0	1.688020E+0	1.454430E+0	1.596980E+0	1.659650E+0	1.818090E+0	1.472810E+0	1.695410E+0	1.663340E+0	1.658130E+0	1.640710E+0	1.681710E+0	1.786330E+0	1.790590E+0	1.489780E+0	1.523840E+0	1.533580E+0	1.906990E+0
2.350000E+3	1.561970E+0	1.731560E+0	1.575090E+0	1.487490E+0	1.701980E+0	1.859750E+0	1.502370E+0	1.357450E+0	1.666610E+0	1.589670E+0	1.780830E+0	1.444600E+0	1.791500E+0	1.715800E+0	1.873740E+0	1.708630E+0	1.695020E+0	1.560430E+0	1.619370E+0	1.637130E+0	1.867450E+0	1.840420E+0	1.592930E+0	1.639850E+0	1.628830E+0	1.723300E+0	1.655470E+0	1.550630E+0	1.684660E+0	1.762770E+0	1.689670E+0	1.803520E+0	1.742460E+0	1.698240E+0	1.526110E+0	1.573930E+0	1.838850E+0	1.873650E+0	1.571620E+0	1.669010E+0	1.629070E+0	1.689140E+0	1.510500E+0	1.522160E+0	1.762000E+0	1.807160E+0	1.731520E+0	1.851980E+0	1.644250E+0	1.562910E+0	1.643630E+0	1.677820E+0	1.775540E+0	1.748370E+0	1.632600E+0	1.776330E+0	1.656530E+0	1.546010E+0	1.586270E+0	1.558160E+0	1.773910E+0	1.710790E+0	1.836770E+0	1.820290E+0	1.576750E+0	1.817130E+0	1.653770E+0	1.600050E+0	1.736930E+0	1.766320E+0	1.659290E+0	1.795870E+0	1.595770E+0	1.635760E+0	1.473340E+0	1.601830E+0	1.697420E+0	1.681350E+0	1.693210E+0	1.887450E+0	1.633270E+0	1.616880E+0	1.552970E+0	1.542660E+0	1.812870E+0	1.808850E+0	1.635050E+0	1.594050E+0	1.598680E+0	1.667240E+0	1.628160E+0	1.410880E+0	1.752500E+0	1.807820E+0	1.780200E+0	1.721450E+0	1.557630E+0	1.661900E+0	1.513540E+0	1.574820E+0	1.787390E+0	1.888140E+0	1.610910E+0	1.702970E+0	1.633380E+0	1.649020E+0	1.514050E+0	1.577120E+0	1.799390E+0	1.825020E+0	1.846580E+0	1.876770E+0	1.608520E+0	1.700260E+0	1.694690E+0	1.592230E+0	1.807490E+0	1.907230E+0	1.650780E+0	1.628750E+0	1.722730E+0	1.820330E+0	1.591130E+0	1.443300E+0	1.835020E+0	1.776520E+0	1.696730E+0	1.746910E+0	1.822360E+0	1.655410E+0	1.567830E+0	1.553410E+0	1.925020E+0	2.004160E+0	1.557960E+0	1.682100E+0	1.676770E+0	1.823830E+0	1.519660E+0	1.554340E+0	1.725000E+0	1.871810E+0	1.652190E+0	1.754310E+0	1.455480E+0	1.585790E+0	1.476590E+0	1.525610E+0	1.684520E+0	1.680440E+0	1.584120E+0	1.655620E+0	1.813160E+0	1.636850E+0	1.685300E+0	1.659940E+0	1.654230E+0	1.699850E+0	1.676350E+0	1.783030E+0	1.789140E+0	1.487340E+0	1.518250E+0	1.527890E+0	1.902890E+0
2.400000E+3	1.560420E+0	1.729170E+0	1.573400E+0	1.485920E+0	1.700020E+0	1.856990E+0	1.500390E+0	1.356090E+0	1.665160E+0	1.587890E+0	1.778800E+0	1.443080E+0	1.789730E+0	1.713810E+0	1.870970E+0	1.707530E+0	1.693010E+0	1.558620E+0	1.616710E+0	1.635290E+0	1.863830E+0	1.838620E+0	1.591200E+0	1.638030E+0	1.626140E+0	1.721320E+0	1.654040E+0	1.549020E+0	1.682670E+0	1.760180E+0	1.687680E+0	1.801300E+0	1.740760E+0	1.696210E+0	1.524500E+0	1.572150E+0	1.836590E+0	1.871340E+0	1.569880E+0	1.667180E+0	1.626370E+0	1.687240E+0	1.508810E+0	1.520480E+0	1.759860E+0	1.804860E+0	1.728620E+0	1.849640E+0	1.641690E+0	1.560990E+0	1.642090E+0	1.675790E+0	1.773260E+0	1.746150E+0	1.630640E+0	1.774140E+0	1.654490E+0	1.543410E+0	1.585110E+0	1.556370E+0	1.770480E+0	1.708760E+0	1.834460E+0	1.817950E+0	1.574950E+0	1.814750E+0	1.651730E+0	1.598020E+0	1.734730E+0	1.763990E+0	1.657220E+0	1.793580E+0	1.593910E+0	1.633670E+0	1.471510E+0	1.599950E+0	1.695400E+0	1.679320E+0	1.691170E+0	1.885050E+0	1.631280E+0	1.614800E+0	1.551150E+0	1.540750E+0	1.810470E+0	1.806360E+0	1.632970E+0	1.592050E+0	1.596650E+0	1.665100E+0	1.626240E+0	1.409290E+0	1.750240E+0	1.805530E+0	1.777960E+0	1.719370E+0	1.555840E+0	1.659820E+0	1.511740E+0	1.572940E+0	1.785060E+0	1.885580E+0	1.608880E+0	1.700840E+0	1.631320E+0	1.646890E+0	1.512290E+0	1.575190E+0	1.797050E+0	1.822610E+0	1.844150E+0	1.874320E+0	1.606530E+0	1.698140E+0	1.692530E+0	1.590280E+0	1.805010E+0	1.904490E+0	1.648700E+0	1.626640E+0	1.720560E+0	1.817880E+0	1.589110E+0	1.441410E+0	1.832460E+0	1.774140E+0	1.694550E+0	1.744670E+0	1.819950E+0	1.653320E+0	1.565990E+0	1.551520E+0	1.922280E+0	2.000500E+0	1.555930E+0	1.679990E+0	1.674610E+0	1.821330E+0	1.517790E+0	1.552370E+0	1.722660E+0	1.869160E+0	1.649990E+0	1.751940E+0	1.453770E+0	1.635030E+0	1.472470E+0	1.523410E+0	1.681960E+0	1.799770E+0	1.576650E+0	1.652720E+0	1.809660E+0	1.723210E+0	1.679060E+0	1.657370E+0	1.651310E+0	1.730450E+0	1.673150E+0	1.780380E+0	1.788010E+0	1.538120E+0	1.512630E+0	1.524650E+0	1.899600E+0
2.425000E+3	1.561570E+0	1.727550E+0	1.571320E+0	1.484750E+0	1.697910E+0	1.853790E+0	1.501830E+0	1.354290E+0	1.663560E+0	1.586840E+0	1.776360E+0	1.441090E+0	1.787450E+0	1.711630E+0	1.872080E+0	1.702790E+0	1.690980E+0	1.559690E+0	1.618330E+0	1.632890E+0	1.863480E+0	1.835670E+0	1.588780E+0	1.635160E+0	1.623670E+0	1.718620E+0	1.647690E+0	1.545430E+0	1.680110E+0	1.754590E+0	1.684970E+0	1.798530E+0	1.737570E+0	1.693170E+0	1.522250E+0	1.569850E+0	1.829820E+0	1.868200E+0	1.567630E+0	1.664660E+0	1.623090E+0	1.683340E+0	1.506620E+0	1.518500E+0	1.757220E+0	1.802040E+0	1.725970E+0	1.846590E+0	1.635510E+0	1.558730E+0	1.635940E+0	1.673160E+0	1.770580E+0	1.743540E+0	1.628220E+0	1.771420E+0	1.652040E+0	1.539980E+0	1.578810E+0	1.552570E+0	1.767490E+0	1.706270E+0	1.831610E+0	1.815180E+0	1.572580E+0	1.811930E+0	1.649280E+0	1.595720E+0	1.732050E+0	1.761260E+0	1.654840E+0	1.790880E+0	1.591680E+0	1.631320E+0	1.469550E+0	1.594040E+0	1.693040E+0	1.676950E+0	1.688780E+0	1.882240E+0	1.629000E+0	1.612490E+0	1.549000E+0	1.538610E+0	1.807750E+0	1.803690E+0	1.630750E+0	1.590040E+0	1.594460E+0	1.662750E+0	1.624080E+0	1.407540E+0	1.747850E+0	1.802960E+0	1.775580E+0	1.716980E+0	1.553810E+0	1.657560E+0	1.509840E+0	1.570850E+0	1.782520E+0	1.882800E+0	1.606720E+0	1.698560E+0	1.629260E+0	1.644740E+0	1.510400E+0	1.573270E+0	1.794610E+0	1.820290E+0	1.841700E+0	1.871800E+0	1.604760E+0	1.696020E+0	1.690500E+0	1.588480E+0	1.802800E+0	1.901880E+0	1.646780E+0	1.624790E+0	1.718460E+0	1.815330E+0	1.587390E+0	1.439980E+0	1.830170E+0	1.772010E+0	1.692590E+0	1.742550E+0	1.817670E+0	1.651460E+0	1.564320E+0	1.549980E+0	1.919960E+0	1.996130E+0	1.554410E+0	1.678160E+0	1.672750E+0	1.819120E+0	1.516350E+0	1.550820E+0	1.720830E+0	1.866850E+0	1.648290E+0	1.749940E+0	1.452310E+0	1.633210E+0	1.471020E+0	1.521810E+0	1.680130E+0	1.797680E+0	1.575070E+0	1.651000E+0	1.807660E+0	1.721370E+0	1.677310E+0	1.655740E+0	1.649580E+0	1.728540E+0	1.670960E+0	1.778330E+0	1.781270E+0	1.620070E+0	1.511870E+0	1.526560E+0	1.897020E+0
2.450000E+3	1.560260E+0	1.726760E+0	1.570340E+0	1.484170E+0	1.696950E+0	1.852840E+0	1.500450E+0	1.352710E+0	1.662890E+0	1.587460E+0	1.774300E+0	1.439410E+0	1.785300E+0	1.710590E+0	1.868640E+0	1.700910E+0	1.690230E+0	1.558340E+0	1.616680E+0	1.630770E+0	1.861360E+0	1.832260E+0	1.586770E+0	1.632190E+0	1.620240E+0	1.715300E+0	1.645500E+0	1.543880E+0	1.678000E+0	1.752240E+0	1.681950E+0	1.796040E+0	1.734520E+0	1.690980E+0	1.519540E+0	1.567980E+0	1.826720E+0	1.865470E+0	1.565500E+0	1.662380E+0	1.620090E+0	1.681160E+0	1.503470E+0	1.516610E+0	1.754900E+0	1.798780E+0	1.722410E+0	1.844010E+0	1.633390E+0	1.556750E+0	1.633320E+0	1.670970E+0	1.768010E+0	1.741150E+0	1.626060E+0	1.769020E+0	1.649880E+0	1.537290E+0	1.576880E+0	1.550210E+0	1.763870E+0	1.703890E+0	1.829080E+0	1.812680E+0	1.570640E+0	1.809390E+0	1.647160E+0	1.593680E+0	1.729710E+0	1.758890E+0	1.652780E+0	1.788460E+0	1.589620E+0	1.628500E+0	1.467860E+0	1.591630E+0	1.690790E+0	1.674780E+0	1.686520E+0	1.879540E+0	1.626960E+0	1.610450E+0	1.547060E+0	1.536740E+0	1.805250E+0	1.801210E+0	1.628760E+0	1.588030E+0	1.592420E+0	1.660570E+0	1.622170E+0	1.405940E+0	1.745610E+0	1.800540E+0	1.773330E+0	1.714740E+0	1.551910E+0	1.655430E+0	1.508120E+0	1.568940E+0	1.780170E+0	1.880250E+0	1.604840E+0	1.696490E+0	1.627250E+0	1.642680E+0	1.508730E+0	1.571490E+0	1.792320E+0	1.818010E+0	1.839310E+0	1.869410E+0	1.602880E+0	1.694030E+0	1.688510E+0	1.586760E+0	1.800450E+0	1.899400E+0	1.644940E+0	1.623040E+0	1.716530E+0	1.812890E+0	1.585700E+0	1.438470E+0	1.827910E+0	1.769950E+0	1.690640E+0	1.740530E+0	1.815430E+0	1.649600E+0	1.562660E+0	1.548320E+0	1.917420E+0	1.993470E+0	1.552790E+0	1.676320E+0	1.670910E+0	1.816900E+0	1.514800E+0	1.549220E+0	1.718920E+0	1.864540E+0	1.646400E+0	1.748000E+0	1.450950E+0	1.631390E+0	1.469540E+0	1.520360E+0	1.678210E+0	1.795420E+0	1.573570E+0	1.649280E+0	1.805450E+0	1.719360E+0	1.675600E+0	1.653990E+0	1.647790E+0	1.726760E+0	1.669270E+0	1.776410E+0	1.779340E+0	1.618400E+0	1.510490E+0	1.525050E+0	1.894690E+0
2.475000E+3	1.557730E+0	1.722900E+0	1.567060E+0	1.480780E+0	1.693850E+0	1.849100E+0	1.496730E+0	1.350980E+0	1.659240E+0	1.581930E+0	1.765460E+0	1.437650E+0	1.783250E+0	1.707620E+0	1.864090E+0	1.701490E+0	1.687390E+0	1.555800E+0	1.612980E+0	1.628870E+0	1.858140E+0	1.830530E+0	1.584820E+0	1.631610E+0	1.619720E+0	1.713900E+0	1.644460E+0	1.543210E+0	1.676010E+0	1.749980E+0	1.680560E+0	1.793780E+0	1.732930E+0	1.688900E+0	1.518350E+0	1.566100E+0	1.826550E+0	1.863050E+0	1.563730E+0	1.660400E+0	1.619160E+0	1.680450E+0	1.503200E+0	1.514810E+0	1.752590E+0	1.796990E+0	1.721180E+0	1.841520E+0	1.632160E+0	1.554850E+0	1.631920E+0	1.668790E+0	1.765760E+0	1.738800E+0	1.624090E+0	1.766720E+0	1.647780E+0	1.536350E+0	1.575050E+0	1.549760E+0	1.762460E+0	1.701680E+0	1.826580E+0	1.810140E+0	1.568510E+0	1.806830E+0	1.644920E+0	1.591710E+0	1.727340E+0	1.756480E+0	1.650680E+0	1.786050E+0	1.587600E+0	1.626980E+0	1.465970E+0	1.590110E+0	1.688480E+0	1.672560E+0	1.684340E+0	1.876780E+0	1.624740E+0	1.608200E+0	1.545000E+0	1.534640E+0	1.802750E+0	1.798590E+0	1.626600E+0	1.585860E+0	1.590240E+0	1.658270E+0	1.619880E+0	1.404230E+0	1.743150E+0	1.797890E+0	1.770740E+0	1.712400E+0	1.549780E+0	1.653200E+0	1.506120E+0	1.566850E+0	1.777570E+0	1.877360E+0	1.602620E+0	1.694110E+0	1.624990E+0	1.640320E+0	1.506630E+0	1.569310E+0	1.789750E+0	1.815080E+0	1.836510E+0	1.866430E+0	1.600520E+0	1.691450E+0	1.685980E+0	1.584370E+0	1.797620E+0	1.896200E+0	1.642440E+0	1.620510E+0	1.713900E+0	1.810090E+0	1.583400E+0	1.436420E+0	1.825050E+0	1.767220E+0	1.688130E+0	1.737910E+0	1.812470E+0	1.647010E+0	1.560410E+0	1.545890E+0	1.914230E+0	1.990020E+0	1.550420E+0	1.673650E+0	1.668250E+0	1.813950E+0	1.512600E+0	1.546840E+0	1.716140E+0	1.861520E+0	1.643980E+0	1.745240E+0	1.448780E+0	1.628820E+0	1.467330E+0	1.517980E+0	1.675540E+0	1.792480E+0	1.571170E+0	1.646690E+0	1.802560E+0	1.716530E+0	1.673040E+0	1.651370E+0	1.645140E+0	1.723890E+0	1.666590E+0	1.773500E+0	1.776770E+0	1.615800E+0	1.508160E+0	1.522710E+0	1.891440E+0
2.500000E+3	1.555650E+0	1.720460E+0	1.565050E+0	1.480060E+0	1.691510E+0	1.846960E+0	1.495070E+0	1.349800E+0	1.657380E+0	1.582780E+0	1.762530E+0	1.437840E+0	1.780150E+0	1.705280E+0	1.860270E+0	1.699160E+0	1.685020E+0	1.553830E+0	1.611370E+0	1.626230E+0	1.855470E+0	1.827650E+0	1.580920E+0	1.629050E+0	1.616950E+0	1.711390E+0	1.637770E+0	1.541050E+0	1.673970E+0	1.747520E+0	1.671990E+0	1.790960E+0	1.730830E+0	1.686400E+0	1.512950E+0	1.563780E+0	1.821660E+0	1.860000E+0	1.561390E+0	1.657870E+0	1.616890E+0	1.677390E+0	1.500790E+0	1.512720E+0	1.749950E+0	1.794320E+0	1.718570E+0	1.838710E+0	1.629080E+0	1.552620E+0	1.629340E+0	1.666210E+0	1.762950E+0	1.734830E+0	1.621790E+0	1.764090E+0	1.645370E+0	1.533740E+0	1.572770E+0	1.545970E+0	1.759990E+0	1.699130E+0	1.823670E+0	1.807330E+0	1.566310E+0	1.804040E+0	1.642520E+0	1.589370E+0	1.724660E+0	1.753690E+0	1.648300E+0	1.783360E+0	1.585410E+0	1.624620E+0	1.464000E+0	1.587980E+0	1.685940E+0	1.670140E+0	1.681740E+0	1.873870E+0	1.622260E+0	1.605980E+0	1.542920E+0	1.532570E+0	1.799930E+0	1.795790E+0	1.624350E+0	1.583710E+0	1.588010E+0	1.655760E+0	1.617630E+0	1.402290E+0	1.740460E+0	1.795060E+0	1.768090E+0	1.709810E+0	1.547770E+0	1.650800E+0	1.504120E+0	1.564780E+0	1.775040E+0	1.874520E+0	1.600550E+0	1.691700E+0	1.622670E+0	1.637950E+0	1.504790E+0	1.567270E+0	1.786970E+0	1.812430E+0	1.833800E+0	1.863730E+0	1.598570E+0	1.689170E+0	1.683760E+0	1.582330E+0	1.795000E+0	1.893310E+0	1.640270E+0	1.618400E+0	1.711670E+0	1.807320E+0	1.581290E+0	1.434700E+0	1.822330E+0	1.764690E+0	1.685800E+0	1.735530E+0	1.809970E+0	1.644860E+0	1.558360E+0	1.544070E+0	1.911370E+0	1.986910E+0	1.548550E+0	1.671550E+0	1.666130E+0	1.811390E+0	1.510800E+0	1.545070E+0	1.713940E+0	1.858840E+0	1.641860E+0	1.742930E+0	1.447120E+0	1.626740E+0	1.465620E+0	1.516210E+0	1.673390E+0	1.789990E+0	1.569290E+0	1.644630E+0	1.800070E+0	1.714390E+0	1.671040E+0	1.649380E+0	1.643200E+0	1.721760E+0	1.664590E+0	1.771140E+0	1.773960E+0	1.613850E+0	1.506480E+0	1.520960E+0	1.888820E+0
2.525000E+3	1.554210E+0	1.718930E+0	1.563870E+0	1.477730E+0	1.690030E+0	1.844860E+0	1.493190E+0	1.347910E+0	1.655510E+0	1.578700E+0	1.760270E+0	1.434010E+0	1.778330E+0	1.703760E+0	1.858440E+0	1.697140E+0	1.683090E+0	1.552630E+0	1.609190E+0	1.624450E+0	1.853240E+0	1.824820E+0	1.579020E+0	1.626430E+0	1.614770E+0	1.708670E+0	1.635100E+0	1.538660E+0	1.671580E+0	1.745410E+0	1.670390E+0	1.788830E+0	1.728630E+0	1.684340E+0	1.512450E+0	1.561970E+0	1.821190E+0	1.857630E+0	1.559230E+0	1.655810E+0	1.614190E+0	1.675320E+0	1.496890E+0	1.510860E+0	1.747840E+0	1.791530E+0	1.714600E+0	1.836470E+0	1.627330E+0	1.550900E+0	1.626490E+0	1.664190E+0	1.760850E+0	1.731850E+0	1.619980E+0	1.761860E+0	1.643360E+0	1.531570E+0	1.570900E+0	1.545670E+0	1.757120E+0	1.697030E+0	1.821360E+0	1.804930E+0	1.564380E+0	1.801620E+0	1.640470E+0	1.587480E+0	1.722520E+0	1.751460E+0	1.646300E+0	1.781130E+0	1.583500E+0	1.622020E+0	1.462310E+0	1.585380E+0	1.683850E+0	1.667910E+0	1.679570E+0	1.871320E+0	1.620190E+0	1.603870E+0	1.541060E+0	1.530710E+0	1.797570E+0	1.793500E+0	1.622630E+0	1.581930E+0	1.586030E+0	1.653720E+0	1.615630E+0	1.400630E+0	1.738240E+0	1.792690E+0	1.765730E+0	1.707560E+0	1.545740E+0	1.648680E+0	1.502350E+0	1.562810E+0	1.772730E+0	1.871880E+0	1.598470E+0	1.689570E+0	1.620780E+0	1.635960E+0	1.502820E+0	1.565260E+0	1.784620E+0	1.810050E+0	1.831410E+0	1.861140E+0	1.596470E+0	1.686930E+0	1.681530E+0	1.580330E+0	1.792570E+0	1.890660E+0	1.638230E+0	1.616400E+0	1.709510E+0	1.804900E+0	1.579330E+0	1.432940E+0	1.820050E+0	1.762470E+0	1.683780E+0	1.733340E+0	1.807500E+0	1.642810E+0	1.556420E+0	1.542110E+0	1.908610E+0	1.984020E+0	1.546660E+0	1.669380E+0	1.663960E+0	1.808950E+0	1.509050E+0	1.543190E+0	1.711680E+0	1.856490E+0	1.639880E+0	1.740660E+0	1.445420E+0	1.624710E+0	1.463930E+0	1.514440E+0	1.671120E+0	1.787440E+0	1.567400E+0	1.642570E+0	1.797640E+0	1.712080E+0	1.668930E+0	1.647390E+0	1.641160E+0	1.719520E+0	1.662540E+0	1.768860E+0	1.771650E+0	1.611900E+0	1.504650E+0	1.519200E+0	1.886200E+0
2.550000E+3	1.551230E+0	1.715970E+0	1.561110E+0	1.475110E+0	1.687140E+0	1.843120E+0	1.490260E+0	1.346760E+0	1.653210E+0	1.576590E+0	1.757850E+0	1.433020E+0	1.775770E+0	1.700840E+0	1.856450E+0	1.695060E+0	1.680100E+0	1.549910E+0	1.606010E+0	1.622610E+0	1.851980E+0	1.823510E+0	1.577240E+0	1.626480E+0	1.613470E+0	1.707610E+0	1.634170E+0	1.537940E+0	1.669660E+0	1.744930E+0	1.670910E+0	1.786570E+0	1.726940E+0	1.682260E+0	1.511930E+0	1.560140E+0	1.819320E+0	1.855350E+0	1.557320E+0	1.653910E+0	1.612820E+0	1.674280E+0	1.495370E+0	1.509130E+0	1.745700E+0	1.790200E+0	1.712890E+0	1.834200E+0	1.626300E+0	1.549130E+0	1.624630E+0	1.662360E+0	1.758670E+0	1.729750E+0	1.617850E+0	1.759590E+0	1.641410E+0	1.530370E+0	1.567940E+0	1.545040E+0	1.755880E+0	1.695110E+0	1.818130E+0	1.802800E+0	1.562640E+0	1.799450E+0	1.638050E+0	1.585680E+0	1.720320E+0	1.749180E+0	1.644180E+0	1.778790E+0	1.581740E+0	1.620860E+0	1.459800E+0	1.586020E+0	1.681900E+0	1.665970E+0	1.677010E+0	1.868910E+0	1.618380E+0	1.602020E+0	1.539060E+0	1.529070E+0	1.795190E+0	1.790990E+0	1.620470E+0	1.580040E+0	1.584070E+0	1.651630E+0	1.613700E+0	1.399130E+0	1.736090E+0	1.790340E+0	1.763440E+0	1.705450E+0	1.544010E+0	1.646710E+0	1.500560E+0	1.561000E+0	1.770400E+0	1.869290E+0	1.596540E+0	1.687420E+0	1.618770E+0	1.633860E+0	1.501120E+0	1.563390E+0	1.782250E+0	1.807520E+0	1.828780E+0	1.858510E+0	1.594430E+0	1.684660E+0	1.679320E+0	1.578330E+0	1.790090E+0	1.887920E+0	1.636120E+0	1.614270E+0	1.707320E+0	1.802320E+0	1.577290E+0	1.431280E+0	1.817390E+0	1.759960E+0	1.681410E+0	1.730850E+0	1.804930E+0	1.640590E+0	1.554380E+0	1.540100E+0	1.905920E+0	1.980960E+0	1.544730E+0	1.667220E+0	1.661760E+0	1.806280E+0	1.507050E+0	1.541150E+0	1.709360E+0	1.853700E+0	1.637700E+0	1.738250E+0	1.443590E+0	1.622460E+0	1.462030E+0	1.512420E+0	1.668920E+0	1.784980E+0	1.565290E+0	1.640460E+0	1.795080E+0	1.709770E+0	1.666680E+0	1.645120E+0	1.638950E+0	1.717100E+0	1.660290E+0	1.766350E+0	1.769130E+0	1.609700E+0	1.502690E+0	1.517170E+0	1.883360E+0
2.575000E+3	1.550200E+0	1.714110E+0	1.559100E+0	1.474070E+0	1.684860E+0	1.839310E+0	1.489180E+0	1.344800E+0	1.651420E+0	1.575720E+0	1.755810E+0	1.431540E+0	1.773250E+0	1.698830E+0	1.853360E+0	1.692830E+0	1.678380E+0	1.548420E+0	1.604660E+0	1.620090E+0	1.848040E+0	1.820620E+0	1.574930E+0	1.622760E+0	1.610980E+0	1.704990E+0	1.631730E+0	1.535780E+0	1.668020E+0	1.740730E+0	1.665490E+0	1.783930E+0	1.723690E+0	1.679720E+0	1.507640E+0	1.557870E+0	1.813870E+0	1.852360E+0	1.554930E+0	1.651460E+0	1.610120E+0	1.670470E+0	1.491570E+0	1.507070E+0	1.743040E+0	1.787520E+0	1.708490E+0	1.831230E+0	1.622590E+0	1.546830E+0	1.621720E+0	1.659810E+0	1.755770E+0	1.727030E+0	1.615300E+0	1.756980E+0	1.638990E+0	1.527890E+0	1.565670E+0	1.541250E+0	1.752730E+0	1.692470E+0	1.815130E+0	1.799940E+0	1.560220E+0	1.796680E+0	1.635540E+0	1.583320E+0	1.717650E+0	1.746520E+0	1.641400E+0	1.776000E+0	1.579320E+0	1.617440E+0	1.456660E+0	1.581630E+0	1.679360E+0	1.663540E+0	1.673830E+0	1.866010E+0	1.616020E+0	1.599630E+0	1.536630E+0	1.526660E+0	1.792430E+0	1.788450E+0	1.616850E+0	1.577690E+0	1.581970E+0	1.649370E+0	1.608450E+0	1.397340E+0	1.733750E+0	1.787990E+0	1.758500E+0	1.703330E+0	1.542210E+0	1.644560E+0	1.497370E+0	1.559180E+0	1.768010E+0	1.866540E+0	1.594480E+0	1.685190E+0	1.616710E+0	1.631770E+0	1.499290E+0	1.561500E+0	1.780010E+0	1.805210E+0	1.826340E+0	1.856000E+0	1.592520E+0	1.682490E+0	1.677230E+0	1.576450E+0	1.787730E+0	1.885250E+0	1.634120E+0	1.612350E+0	1.705410E+0	1.799830E+0	1.575530E+0	1.429780E+0	1.815010E+0	1.757840E+0	1.679420E+0	1.728880E+0	1.802650E+0	1.638710E+0	1.552720E+0	1.538380E+0	1.903310E+0	1.978260E+0	1.543070E+0	1.665350E+0	1.659900E+0	1.804200E+0	1.505590E+0	1.539540E+0	1.707400E+0	1.851380E+0	1.635980E+0	1.736250E+0	1.442180E+0	1.620650E+0	1.460570E+0	1.510830E+0	1.667000E+0	1.782800E+0	1.563750E+0	1.638690E+0	1.793020E+0	1.707830E+0	1.664910E+0	1.643320E+0	1.637250E+0	1.715310E+0	1.658580E+0	1.764470E+0	1.767200E+0	1.608150E+0	1.501340E+0	1.515810E+0	1.881260E+0
2.600000E+3	1.548930E+0	1.712560E+0	1.609680E+0	1.470150E+0	1.682950E+0	1.836750E+0	1.643630E+0	1.336320E+0	1.648470E+0	1.571830E+0	1.867490E+0	1.426300E+0	1.771090E+0	1.696360E+0	1.901260E+0	1.688770E+0	1.676600E+0	1.546680E+0	1.604910E+0	1.618170E+0	1.846050E+0	1.817330E+0	1.572970E+0	1.620870E+0	1.608720E+0	1.702460E+0	1.629540E+0	1.533640E+0	1.665180E+0	1.738610E+0	1.664040E+0	1.781600E+0	1.721130E+0	1.677650E+0	1.505910E+0	1.555830E+0	1.811870E+0	1.849900E+0	1.553100E+0	1.649400E+0	1.608110E+0	1.667640E+0	1.489460E+0	1.505330E+0	1.740820E+0	1.784750E+0	1.705860E+0	1.828770E+0	1.620090E+0	1.545030E+0	1.619200E+0	1.657660E+0	1.753510E+0	1.724900E+0	1.613340E+0	1.754630E+0	1.636930E+0	1.525600E+0	1.563790E+0	1.539110E+0	1.750010E+0	1.690380E+0	1.812730E+0	1.797560E+0	1.558450E+0	1.794280E+0	1.633610E+0	1.581380E+0	1.715460E+0	1.744330E+0	1.639340E+0	1.773610E+0	1.577360E+0	1.614470E+0	1.454830E+0	1.579110E+0	1.677140E+0	1.661360E+0	1.671740E+0	1.863440E+0	1.613990E+0	1.597670E+0	1.534890E+0	1.524770E+0	1.790130E+0	1.786020E+0	1.614440E+0	1.575690E+0	1.579950E+0	1.647220E+0	1.605880E+0	1.395710E+0	1.731510E+0	1.785690E+0	1.755840E+0	1.701170E+0	1.540340E+0	1.642490E+0	1.495390E+0	1.557170E+0	1.765690E+0	1.863980E+0	1.592520E+0	1.682980E+0	1.614770E+0	1.629770E+0	1.497690E+0	1.559500E+0	1.777730E+0	1.802960E+0	1.824040E+0	1.853610E+0	1.590660E+0	1.680400E+0	1.675290E+0	1.574580E+0	1.785510E+0	1.882740E+0	1.632200E+0	1.610490E+0	1.703250E+0	1.797590E+0	1.573760E+0	1.428200E+0	1.812880E+0	1.755710E+0	1.677490E+0	1.726510E+0	1.800350E+0	1.636720E+0	1.550870E+0	1.536620E+0	1.900860E+0	1.975570E+0	1.541360E+0	1.663430E+0	1.657870E+0	1.801920E+0	1.503990E+0	1.537920E+0	1.705280E+0	1.848980E+0	1.634020E+0	1.733350E+0	1.440490E+0	1.618780E+0	1.459030E+0	1.506820E+0	1.665320E+0	1.780580E+0	1.562170E+0	1.635220E+0	1.791020E+0	1.705980E+0	1.663180E+0	1.640800E+0	1.635460E+0	1.713280E+0	1.656730E+0	1.762310E+0	1.765210E+0	1.606450E+0	1.499840E+0	1.514130E+0	1.879010E+0
2.650000E+3	1.546820E+0	1.709940E+0	1.674930E+0	1.466110E+0	1.679960E+0	1.834340E+0	1.843420E+0	1.327270E+0	1.644300E+0	1.568340E+0	2.011960E+0	1.421110E+0	1.770380E+0	1.692460E+0	1.965130E+0	1.683800E+0	1.673250E+0	1.542860E+0	1.624720E+0	1.615260E+0	1.843290E+0	1.815470E+0	1.630920E+0	1.618650E+0	1.608110E+0	1.700180E+0	1.674890E+0	1.530740E+0	1.662920E+0	1.737600E+0	1.680720E+0	1.778340E+0	1.719250E+0	1.675110E+0	1.504690E+0	1.553660E+0	1.811040E+0	1.847340E+0	1.551440E+0	1.647370E+0	1.606910E+0	1.665980E+0	1.488700E+0	1.503390E+0	1.738510E+0	1.782830E+0	1.704070E+0	1.826050E+0	1.618310E+0	1.543120E+0	1.617500E+0	1.655370E+0	1.751080E+0	1.722640E+0	1.611410E+0	1.752290E+0	1.634830E+0	1.524240E+0	1.561740E+0	1.536870E+0	1.747920E+0	1.688220E+0	1.810230E+0	1.794930E+0	1.556420E+0	1.791870E+0	1.631470E+0	1.579280E+0	1.713110E+0	1.741910E+0	1.637320E+0	1.771120E+0	1.575280E+0	1.612120E+0	1.453060E+0	1.578100E+0	1.674910E+0	1.659060E+0	1.669340E+0	1.860730E+0	1.611930E+0	1.595610E+0	1.532880E+0	1.522850E+0	1.787530E+0	1.783350E+0	1.612180E+0	1.573490E+0	1.577810E+0	1.644810E+0	1.603630E+0	1.393860E+0	1.729070E+0	1.783040E+0	1.753440E+0	1.698770E+0	1.538410E+0	1.640350E+0	1.493490E+0	1.555150E+0	1.763210E+0	1.861050E+0	1.590330E+0	1.680540E+0	1.612450E+0	1.627280E+0	1.495520E+0	1.557420E+0	1.775170E+0	1.800330E+0	1.821430E+0	1.850840E+0	1.588550E+0	1.678070E+0	1.672870E+0	1.572430E+0	1.782830E+0	1.879820E+0	1.629960E+0	1.608210E+0	1.700500E+0	1.794970E+0	1.571640E+0	1.426310E+0	1.810140E+0	1.753100E+0	1.675060E+0	1.723790E+0	1.797650E+0	1.634320E+0	1.548750E+0	1.534450E+0	1.897840E+0	1.972280E+0	1.539330E+0	1.661120E+0	1.655520E+0	1.799070E+0	1.501970E+0	1.535860E+0	1.702740E+0	1.846120E+0	1.631670E+0	1.729680E+0	1.438490E+0	1.616560E+0	1.457450E+0	1.501660E+0	1.663320E+0	1.778050E+0	1.560340E+0	1.630790E+0	1.788630E+0	1.703560E+0	1.660890E+0	1.637540E+0	1.633320E+0	1.710810E+0	1.654480E+0	1.759400E+0	1.762500E+0	1.604160E+0	1.497990E+0	1.511310E+0	1.876110E+0
2.750000E+3	1.545680E+0	1.708040E+0	1.673210E+0	1.463410E+0	1.678530E+0	1.831780E+0	1.840630E+0	1.441900E+0	1.637710E+0	1.564810E+0	2.008490E+0	1.442090E+0	1.768060E+0	1.690600E+0	1.962160E+0	1.682070E+0	1.671270E+0	1.540710E+0	1.717080E+0	1.608880E+0	1.841080E+0	1.811540E+0	1.912520E+0	1.606840E+0	1.607510E+0	1.696080E+0	1.897180E+0	1.523790E+0	1.659890E+0	1.736530E+0	1.765470E+0	1.772550E+0	1.717010E+0	1.672410E+0	1.507660E+0	1.551820E+0	1.810630E+0	1.844790E+0	1.549630E+0	1.645600E+0	1.606990E+0	1.664920E+0	1.487890E+0	1.501630E+0	1.736740E+0	1.780280E+0	1.703130E+0	1.823550E+0	1.617310E+0	1.541080E+0	1.615850E+0	1.653020E+0	1.748810E+0	1.720450E+0	1.609570E+0	1.749990E+0	1.632820E+0	1.522760E+0	1.559930E+0	1.536240E+0	1.745420E+0	1.686070E+0	1.807880E+0	1.792240E+0	1.554290E+0	1.789550E+0	1.629360E+0	1.577240E+0	1.710910E+0	1.739680E+0	1.635180E+0	1.768730E+0	1.573350E+0	1.611420E+0	1.451230E+0	1.575810E+0	1.672460E+0	1.656910E+0	1.667110E+0	1.858010E+0	1.609810E+0	1.593590E+0	1.531050E+0	1.520860E+0	1.785280E+0	1.780880E+0	1.610050E+0	1.571320E+0	1.575580E+0	1.642400E+0	1.601370E+0	1.391860E+0	1.726690E+0	1.780440E+0	1.750900E+0	1.696420E+0	1.536470E+0	1.638270E+0	1.491530E+0	1.553020E+0	1.760660E+0	1.858180E+0	1.588050E+0	1.678070E+0	1.610100E+0	1.624770E+0	1.493310E+0	1.555280E+0	1.772540E+0	1.797640E+0	1.818830E+0	1.848160E+0	1.586510E+0	1.675740E+0	1.670630E+0	1.570250E+0	1.780150E+0	1.876740E+0	1.627640E+0	1.605850E+0	1.697650E+0	1.792430E+0	1.569470E+0	1.424290E+0	1.807500E+0	1.750530E+0	1.672780E+0	1.721250E+0	1.794840E+0	1.631960E+0	1.546530E+0	1.532110E+0	1.894780E+0	1.969000E+0	1.537120E+0	1.658730E+0	1.653150E+0	1.796390E+0	1.499840E+0	1.533630E+0	1.700420E+0	1.843260E+0	1.629320E+0	1.726770E+0	1.436460E+0	1.613930E+0	1.455230E+0	1.499420E+0	1.659050E+0	1.775490E+0	1.558040E+0	1.628520E+0	1.785550E+0	1.700970E+0	1.658460E+0	1.635150E+0	1.630780E+0	1.708270E+0	1.652060E+0	1.755310E+0	1.759640E+0	1.601840E+0	1.496050E+0	1.504910E+0	1.873670E+0
2.850000E+3	1.543250E+0	1.705980E+0	1.670840E+0	1.461360E+0	1.676100E+0	1.830240E+0	1.838290E+0	1.521520E+0	1.631320E+0	1.562280E+0	2.004620E+0	1.457170E+0	1.765750E+0	1.688140E+0	1.958500E+0	1.680300E+0	1.668890E+0	1.538620E+0	1.714710E+0	1.606690E+0	1.837850E+0	1.809250E+0	1.909790E+0	1.604860E+0	1.605540E+0	1.695370E+0	1.894550E+0	1.522110E+0	1.657840E+0	1.734520E+0	1.763370E+0	1.770070E+0	1.716950E+0	1.670090E+0	1.587700E+0	1.549400E+0	1.807530E+0	1.841540E+0	1.735630E+0	1.635380E+0	1.605720E+0	1.661470E+0	1.616070E+0	1.493960E+0	1.737500E+0	1.777290E+0	1.763300E+0	1.818500E+0	1.617440E+0	1.538580E+0	1.618410E+0	1.650720E+0	1.746470E+0	1.717990E+0	1.607550E+0	1.747790E+0	1.630700E+0	1.523110E+0	1.557970E+0	1.534460E+0	1.743590E+0	1.683720E+0	1.805480E+0	1.789620E+0	1.552220E+0	1.786940E+0	1.627250E+0	1.575090E+0	1.708460E+0	1.737270E+0	1.633020E+0	1.766190E+0	1.571200E+0	1.609440E+0	1.449430E+0	1.576540E+0	1.670090E+0	1.654620E+0	1.664780E+0	1.855060E+0	1.607490E+0	1.591440E+0	1.529090E+0	1.518710E+0	1.782640E+0	1.778290E+0	1.607900E+0	1.569170E+0	1.573400E+0	1.639990E+0	1.599150E+0	1.389920E+0	1.724050E+0	1.777750E+0	1.748320E+0	1.693900E+0	1.534420E+0	1.636010E+0	1.489700E+0	1.550910E+0	1.758020E+0	1.855300E+0	1.585760E+0	1.675560E+0	1.607650E+0	1.622300E+0	1.491220E+0	1.552950E+0	1.769810E+0	1.794920E+0	1.816010E+0	1.845340E+0	1.584300E+0	1.673250E+0	1.668130E+0	1.567960E+0	1.777350E+0	1.873600E+0	1.625040E+0	1.603370E+0	1.694770E+0	1.789550E+0	1.567080E+0	1.422320E+0	1.804660E+0	1.747760E+0	1.670240E+0	1.718610E+0	1.791980E+0	1.629420E+0	1.544240E+0	1.529810E+0	1.891570E+0	1.965530E+0	1.534840E+0	1.656110E+0	1.650550E+0	1.793340E+0	1.497590E+0	1.531330E+0	1.697730E+0	1.840170E+0	1.626850E+0	1.724020E+0	1.434340E+0	1.611300E+0	1.453130E+0	1.497240E+0	1.655150E+0	1.772730E+0	1.555650E+0	1.626020E+0	1.782450E+0	1.698270E+0	1.655880E+0	1.632500E+0	1.628210E+0	1.705420E+0	1.649390E+0	1.752220E+0	1.756630E+0	1.599300E+0	1.493760E+0	1.502440E+0	1.870450E+0
2.950000E+3	1.542080E+0	1.703630E+0	1.668740E+0	1.459830E+0	1.673700E+0	1.826600E+0	1.835480E+0	1.520100E+0	1.629930E+0	1.560470E+0	2.001970E+0	1.454730E+0	1.763700E+0	1.685780E+0	1.956820E+0	1.677560E+0	1.666930E+0	1.536820E+0	1.711770E+0	1.604840E+0	1.836240E+0	1.807240E+0	1.907150E+0	1.602900E+0	1.603600E+0	1.692410E+0	1.891770E+0	1.520390E+0	1.655820E+0	1.732310E+0	1.761430E+0	1.767820E+0	1.714340E+0	1.668080E+0	1.629490E+0	1.546830E+0	1.804830E+0	1.838770E+0	1.833430E+0	1.629050E+0	1.603160E+0	1.659370E+0	1.683680E+0	1.489090E+0	1.735400E+0	1.774860E+0	1.794760E+0	1.814800E+0	1.615860E+0	1.536560E+0	1.645870E+0	1.647510E+0	1.744070E+0	1.715460E+0	1.733920E+0	1.739990E+0	1.627850E+0	1.521050E+0	1.660810E+0	1.531830E+0	1.743780E+0	1.680790E+0	1.842790E+0	1.785580E+0	1.550220E+0	1.784270E+0	1.626470E+0	1.573060E+0	1.706180E+0	1.734880E+0	1.631020E+0	1.763870E+0	1.569250E+0	1.607770E+0	1.447880E+0	1.574590E+0	1.667960E+0	1.652550E+0	1.662690E+0	1.852410E+0	1.605400E+0	1.589390E+0	1.527260E+0	1.516690E+0	1.780250E+0	1.775870E+0	1.605860E+0	1.567140E+0	1.571450E+0	1.638040E+0	1.597150E+0	1.388230E+0	1.721730E+0	1.775450E+0	1.745910E+0	1.691550E+0	1.532550E+0	1.633970E+0	1.487690E+0	1.548820E+0	1.755720E+0	1.852790E+0	1.583870E+0	1.673240E+0	1.605760E+0	1.620360E+0	1.489410E+0	1.551020E+0	1.767400E+0	1.792610E+0	1.813360E+0	1.842680E+0	1.582330E+0	1.671140E+0	1.665980E+0	1.565970E+0	1.775110E+0	1.870960E+0	1.622990E+0	1.601430E+0	1.692300E+0	1.787100E+0	1.565210E+0	1.420480E+0	1.802210E+0	1.745380E+0	1.668080E+0	1.716460E+0	1.789510E+0	1.627340E+0	1.542350E+0	1.527940E+0	1.888940E+0	1.962640E+0	1.532920E+0	1.653860E+0	1.648390E+0	1.790750E+0	1.495770E+0	1.529380E+0	1.695510E+0	1.837630E+0	1.624750E+0	1.721700E+0	1.432740E+0	1.609210E+0	1.451410E+0	1.495370E+0	1.652960E+0	1.770200E+0	1.553650E+0	1.623840E+0	1.779910E+0	1.695940E+0	1.653630E+0	1.630290E+0	1.626180E+0	1.703160E+0	1.647290E+0	1.749810E+0	1.754380E+0	1.597170E+0	1.491920E+0	1.500520E+0	1.867770E+0
3.250000E+3	1.540190E+0	1.701690E+0	1.666880E+0	1.458250E+0	1.671790E+0	1.824350E+0	1.833200E+0	1.518420E+0	1.627570E+0	1.558760E+0	1.999370E+0	1.453560E+0	1.761520E+0	1.684210E+0	1.953870E+0	1.675960E+0	1.664950E+0	1.534810E+0	1.710540E+0	1.603010E+0	1.832820E+0	1.805080E+0	1.904780E+0	1.601160E+0	1.601900E+0	1.690780E+0	1.889400E+0	1.518570E+0	1.653890E+0	1.728940E+0	1.758860E+0	1.765590E+0	1.711860E+0	1.665960E+0	1.627590E+0	1.545060E+0	1.802560E+0	1.836430E+0	1.831110E+0	1.627230E+0	1.601200E+0	1.657020E+0	1.681590E+0	1.487390E+0	1.732030E+0	1.772540E+0	1.792350E+0	1.812400E+0	1.613770E+0	1.534760E+0	1.659380E+0	1.644890E+0	1.741770E+0	1.713210E+0	1.800290E+0	1.734890E+0	1.625560E+0	1.519150E+0	1.714400E+0	1.528820E+0	1.742140E+0	1.678300E+0	1.861470E+0	1.782380E+0	1.548270E+0	1.781770E+0	1.771750E+0	1.564790E+0	1.703010E+0	1.731350E+0	1.937050E+0	1.748180E+0	1.565550E+0	1.603590E+0	1.637120E+0	1.565060E+0	1.665420E+0	1.649050E+0	1.742170E+0	1.846620E+0	1.603010E+0	1.586670E+0	1.527650E+0	1.514690E+0	1.777710E+0	1.773070E+0	1.603830E+0	1.565260E+0	1.569390E+0	1.635920E+0	1.595390E+0	1.386540E+0	1.719510E+0	1.773090E+0	1.743740E+0	1.689020E+0	1.530460E+0	1.631530E+0	1.485940E+0	1.546350E+0	1.753080E+0	1.850090E+0	1.581850E+0	1.670910E+0	1.603620E+0	1.618370E+0	1.487660E+0	1.548730E+0	1.764850E+0	1.790080E+0	1.810740E+0	1.839710E+0	1.580000E+0	1.668830E+0	1.663580E+0	1.563670E+0	1.772600E+0	1.868300E+0	1.620730E+0	1.599130E+0	1.689630E+0	1.784750E+0	1.562890E+0	1.418530E+0	1.799460E+0	1.742860E+0	1.665600E+0	1.713750E+0	1.786940E+0	1.625050E+0	1.540290E+0	1.525830E+0	1.886170E+0	1.959560E+0	1.530910E+0	1.651310E+0	1.646010E+0	1.787750E+0	1.493590E+0	1.527000E+0	1.692940E+0	1.834650E+0	1.622350E+0	1.719050E+0	1.430810E+0	1.606990E+0	1.449450E+0	1.493290E+0	1.650610E+0	1.767310E+0	1.551260E+0	1.621400E+0	1.776990E+0	1.693110E+0	1.650980E+0	1.627760E+0	1.623690E+0	1.700480E+0	1.644800E+0	1.747150E+0	1.752520E+0	1.594930E+0	1.489900E+0	1.498360E+0	1.864810E+0
3.550000E+3	1.538670E+0	1.699540E+0	1.665050E+0	1.458240E+0	1.669720E+0	1.821880E+0	1.830670E+0	1.518210E+0	1.626000E+0	1.557560E+0	1.996480E+0	1.450930E+0	1.759010E+0	1.682160E+0	1.951990E+0	1.673760E+0	1.662920E+0	1.534140E+0	1.709390E+0	1.600870E+0	1.830540E+0	1.802380E+0	1.901740E+0	1.598900E+0	1.599700E+0	1.687530E+0	1.886380E+0	1.516560E+0	1.651620E+0	1.724840E+0	1.756260E+0	1.763120E+0	1.708600E+0	1.663640E+0	1.625270E+0	1.540940E+0	1.799840E+0	1.833610E+0	1.828180E+0	1.624950E+0	1.598930E+0	1.654670E+0	1.679120E+0	1.485480E+0	1.728330E+0	1.769930E+0	1.789390E+0	1.809740E+0	1.610320E+0	1.532730E+0	1.654980E+0	1.642590E+0	1.739250E+0	1.710750E+0	1.797420E+0	1.732400E+0	1.623240E+0	1.515460E+0	1.711930E+0	1.525580E+0	1.737640E+0	1.675950E+0	1.858630E+0	1.779820E+0	1.546260E+0	1.779090E+0	1.769060E+0	1.562680E+0	1.700640E+0	1.728760E+0	1.933890E+0	1.745620E+0	1.563400E+0	1.601390E+0	1.634770E+0	1.562960E+0	1.663050E+0	1.646750E+0	1.739610E+0	1.843900E+0	1.600900E+0	1.584570E+0	1.566230E+0	1.511000E+0	1.774880E+0	1.770150E+0	1.807370E+0	1.554220E+0	1.566030E+0	1.631920E+0	1.784970E+0	1.376460E+0	1.716340E+0	1.769080E+0	1.820630E+0	1.683340E+0	1.528310E+0	1.628800E+0	1.515410E+0	1.543010E+0	1.750380E+0	1.846910E+0	1.637810E+0	1.666100E+0	1.601050E+0	1.615540E+0	1.529690E+0	1.544880E+0	1.762330E+0	1.787370E+0	1.826760E+0	1.836280E+0	1.577870E+0	1.666270E+0	1.662130E+0	1.561390E+0	1.770000E+0	1.865360E+0	1.618720E+0	1.596990E+0	1.687070E+0	1.782470E+0	1.561100E+0	1.416780E+0	1.797010E+0	1.740560E+0	1.663480E+0	1.711250E+0	1.784350E+0	1.622910E+0	1.538300E+0	1.523770E+0	1.883380E+0	1.957080E+0	1.529100E+0	1.649180E+0	1.643990E+0	1.785380E+0	1.491880E+0	1.525150E+0	1.690730E+0	1.832080E+0	1.620150E+0	1.716600E+0	1.429080E+0	1.604770E+0	1.447700E+0	1.491440E+0	1.648540E+0	1.764950E+0	1.549520E+0	1.619280E+0	1.774670E+0	1.690770E+0	1.648820E+0	1.625610E+0	1.621580E+0	1.698140E+0	1.642670E+0	1.744700E+0	1.750960E+0	1.592870E+0	1.488020E+0	1.496640E+0	1.862240E+0
