Photon Energy (eV)	#1	#2	#3	#4	#5	#6	#7	#8	#9	#10	#11	#12	#13	#14	#15	#16	#17	#18	#19	#20	#21	#22	#23	#24	#25	#26	#27	#28	#29	#30	#31	#32	#33	#34	#35	#36	#37	#38	#39	#40	#41	#42	#43	#44	#45	#46	#47	#48	#49	#50	#51	#52	#53	#54	#55	#56	#57	#58	#59	#60	#61	#62	#63	#64	#65	#66	#67	#68	#69	#70	#71	#72	#73	#74	#75	#76	#77	#78	#79	#80	#81	#82	#83	#84	#85	#86	#87	#88	#89	#90	#91	#92	#93	#94	#95	#96	#97	#98	#99	#100	#101	#102	#103	#104	#105	#106	#107	#108	#109	#110	#111	#112	#113	#114	#115	#116	#117	#118	#119	#120	#121	#122	#123	#124	#125	#126	#127	#128	#129	#130	#131	#132	#133	#134	#135	#136	#137	#138	#139	#140	#141	#142	#143	#144	#145	#146	#147	#148	#149	#150	#151	#152	#153	#154	#155	#156	#157	#158	#159	#160	#161	#162	#163	#164	#165	#166	#167	#168	#169	#170	#171	
5.300220E+2	-5.440145E-3	-3.581715E-3	-7.433519E-3	-5.982859E-3	-5.025670E-3	-1.458058E-3	-4.464841E-3	-1.161916E-2	-3.917077E-3	-1.248610E-3	-9.008386E-3	-1.063829E-2	-1.037094E-2	-1.441935E-2	7.663019E-4	-6.441598E-3	2.426014E-3	-3.768524E-3	-9.534238E-3	-4.631695E-3	-7.769718E-3	3.776268E-4	-5.624248E-3	-1.630441E-3	3.604948E-4	-1.080926E-2	-1.444921E-3	-5.146895E-3	9.502815E-4	-6.599143E-3	-6.843881E-3	-2.163498E-2	-5.511773E-3	-1.918591E-3	-9.121023E-3	-1.307591E-2	-1.339528E-2	-6.598673E-3	-1.758686E-3	-1.043408E-2	-2.898205E-3	-7.819915E-3	-1.237228E-2	-2.197057E-3	-7.202668E-3	-8.896145E-3	1.625347E-3	-1.192384E-2	-5.416586E-3	9.800669E-4	4.958630E-3	-6.498310E-3	-8.318659E-4	-1.153550E-2	-8.384204E-3	-6.821496E-3	1.890854E-3	3.574159E-3	-4.035846E-8	-3.622559E-3	-7.196222E-3	-1.668130E-2	3.935429E-4	-1.406826E-2	-5.289934E-3	1.085556E-3	-3.088750E-8	-1.685003E-2	-1.394036E-3	1.778133E-3	-5.703774E-3	-1.033524E-2	-3.887021E-3	-1.173144E-2	-1.075816E-2	-8.391448E-3	-3.780418E-3	6.187874E-4	-7.436109E-3	-2.660785E-3	-4.033722E-3	-8.559491E-3	-4.509209E-3	-3.390021E-3	-6.492106E-3	-8.263155E-3	-1.449883E-3	-1.141824E-2	-9.986907E-3	-1.165825E-2	-4.428712E-3	-9.399048E-3	-1.184957E-2	-4.667966E-3	-6.803861E-3	-1.302879E-2	-6.699868E-3	-3.879920E-3	-5.365368E-3	-9.636565E-3	-6.190856E-3	-4.685471E-3	-1.017399E-2	-6.163845E-3	-7.949011E-3	2.238321E-3	1.260729E-3	-6.782040E-3	-1.802309E-3	-1.775458E-2	-8.111572E-3	-7.477974E-3	-8.903959E-3	-4.091351E-3	-7.014340E-3	-4.103977E-3	3.524092E-3	-4.838718E-3	-9.483107E-3	-4.582331E-3	-1.930278E-4	-1.979632E-3	-8.128333E-3	-4.981004E-3	-1.428002E-3	-1.000109E-2	-8.130610E-3	-6.858109E-3	-7.192254E-3	-6.224674E-3	-6.172187E-3	-1.199793E-2	-1.009233E-2	-9.741103E-3	-1.794830E-3	-1.535456E-3	6.904056E-4	-1.653133E-3	-6.898022E-3	-5.979503E-3	-1.460982E-2	-6.786251E-3	-4.034858E-3	-1.480901E-2	-2.253782E-3	-5.407150E-3	-6.436006E-3	-6.910028E-3	-5.294701E-3	-1.008390E-2	-2.642932E-3	-1.150102E-2	-1.412739E-2	-1.367967E-2	-2.246722E-3	-5.339710E-3	1.187533E-3	-7.310085E-3	-3.917732E-3	-5.538252E-3	-8.747527E-3	-6.328929E-3	-1.187612E-2	-5.669944E-3	-6.779857E-3	-1.044143E-2	1.174750E-3	-1.164508E-2	-9.528526E-3	4.193663E-4	1.133386E-3
5.305080E+2	-5.975201E-3	-5.477925E-3	-4.746695E-3	-8.974276E-3	-9.474609E-3	3.888117E-3	-9.487789E-3	2.427891E-3	5.122356E-3	1.632776E-3	1.923144E-3	-3.887039E-3	-4.938520E-4	-6.130385E-3	-4.853153E-3	-1.947476E-3	-1.271227E-2	1.746360E-3	-3.075336E-4	-1.736877E-3	1.063238E-3	-7.326116E-3	-8.558643E-3	-5.543492E-3	-1.802358E-4	-6.176735E-3	-6.646775E-3	-1.255835E-2	-1.123037E-3	-1.588683E-2	-2.546567E-3	-2.684665E-3	-1.588115E-3	-9.592770E-4	-4.911297E-3	-7.264394E-3	-4.103752E-3	-2.549514E-3	1.406972E-3	-9.000400E-3	-2.354797E-3	-7.819918E-3	8.125069E-3	-1.118511E-2	-3.324299E-3	1.579679E-3	-3.251081E-4	-1.378207E-2	-6.482155E-3	-1.372110E-3	-4.375292E-3	-4.170580E-3	1.663598E-4	-2.768545E-3	-6.330907E-3	-4.749145E-3	-2.886055E-3	-4.673863E-3	-1.989501E-8	-3.001504E-3	-3.722168E-3	5.826461E-3	-6.217984E-3	-3.208543E-3	-9.481987E-3	-3.799299E-3	-4.971455E-3	-2.956173E-4	-9.020138E-4	-7.499029E-3	-5.185247E-4	-1.260398E-3	-3.887007E-3	-2.267451E-3	-4.760596E-4	-1.718725E-3	-4.273495E-3	-8.397398E-3	1.282051E-3	7.257040E-4	-4.624017E-3	3.994391E-3	-3.357965E-3	-1.646628E-3	-4.544466E-3	-4.449375E-3	-9.061959E-4	-2.459291E-3	-3.025934E-4	-4.777981E-3	-2.952638E-4	-4.841888E-3	-1.545580E-3	1.833853E-3	-1.133979E-2	-1.302880E-2	-9.571209E-3	5.334911E-3	1.532942E-3	-1.633137E-2	1.527621E-3	-1.098665E-2	-2.186935E-3	-7.235748E-3	-1.703371E-3	-3.866211E-3	-3.782058E-3	-4.352691E-3	-2.883745E-3	-9.399462E-3	1.110012E-3	-1.246328E-2	-5.723960E-3	1.370608E-2	-1.128395E-2	-1.123189E-2	-2.868440E-3	-1.560889E-3	-1.056686E-2	-7.754668E-3	-1.930234E-3	-5.594615E-3	-2.428006E-3	-1.162230E-2	-2.570378E-3	4.262738E-3	-1.042628E-2	-1.187623E-2	-3.493437E-3	-1.627998E-3	-6.172225E-3	5.229859E-3	-4.279138E-3	-6.244265E-3	-1.136741E-2	-5.328943E-3	-1.898634E-3	-9.092439E-3	-5.584181E-3	-1.722916E-3	-4.812653E-3	3.156276E-4	3.458423E-3	-2.857908E-3	-1.191283E-2	-1.278036E-3	-8.304502E-4	-8.166397E-3	-7.377842E-3	2.213541E-3	-8.742238E-3	-9.393910E-3	2.173587E-4	-2.924619E-3	1.429739E-3	-2.198697E-3	-9.774381E-3	-3.019389E-3	1.192353E-3	-7.912094E-4	2.984415E-3	3.298183E-3	-1.123993E-2	7.820614E-4	-5.736744E-3	-5.966516E-3	-1.400645E-2	-7.935154E-3	-1.488878E-3	1.677615E-3	-1.020024E-2
5.310300E+2	-6.242662E-4	1.474818E-3	-9.582940E-3	-1.794847E-3	4.119492E-4	-1.944044E-3	1.116181E-3	-5.896293E-3	-6.327626E-3	-3.553696E-3	-1.022300E-2	-6.342062E-3	-3.456988E-3	-9.756803E-3	-7.662739E-4	1.647878E-3	3.008251E-3	-1.369525E-2	-9.534215E-3	5.789881E-4	-3.353244E-3	-7.549662E-5	-5.135158E-3	5.217384E-3	-6.669099E-3	-5.147077E-4	5.490844E-3	3.499851E-3	-4.232998E-3	9.043277E-3	6.525551E-3	4.421745E-3	1.214447E-3	-7.194638E-3	2.906672E-3	2.615177E-3	7.742537E-5	-8.398326E-3	-7.034831E-3	-3.265635E-3	-2.354787E-3	5.509502E-3	-7.386095E-4	7.989553E-4	-7.756734E-3	-5.404215E-3	-4.713373E-3	2.942257E-3	6.837351E-3	-7.252551E-3	-2.625186E-3	-4.170576E-3	-1.330989E-3	-2.307098E-3	2.908796E-3	-5.267246E-3	-1.243987E-2	2.474388E-3	-2.795565E-3	-2.380536E-3	2.481482E-4	-1.332908E-2	-5.273505E-3	-1.727690E-3	3.692975E-3	-3.256560E-3	-1.104827E-3	-3.842985E-3	1.558035E-3	-5.411578E-4	-1.192604E-2	-7.562155E-4	-6.219211E-3	-4.633425E-3	-1.018692E-2	7.077313E-4	-5.752805E-3	-2.033084E-3	-8.974597E-3	-7.014803E-3	6.886683E-4	-7.988801E-3	-5.660573E-3	-1.065454E-3	-6.492412E-4	-2.065819E-3	-6.343252E-3	-2.459291E-3	1.513155E-3	4.395751E-3	-7.971650E-3	1.993711E-3	-7.727978E-3	-6.668410E-4	6.299870E-3	9.651135E-4	-6.699829E-3	9.699746E-4	-2.491057E-3	3.753178E-3	-4.261262E-3	3.069762E-3	-5.039466E-3	-2.680204E-4	5.677769E-4	-8.139441E-3	5.042761E-3	-1.589232E-2	-7.209518E-4	5.744126E-3	-1.477160E-2	-7.976554E-3	-3.180012E-3	-4.705082E-3	3.049894E-4	4.320000E-3	-6.802370E-3	-2.965643E-3	2.980393E-3	1.233715E-3	-4.825660E-3	1.635341E-3	-8.761691E-3	-5.645132E-3	-7.139891E-3	-5.574359E-3	-5.260967E-3	-9.868974E-3	-4.109878E-3	7.565378E-3	-1.370437E-2	-8.306253E-3	3.471767E-3	-1.248860E-3	-1.196583E-3	-8.580471E-3	-3.452047E-3	-6.612651E-3	3.613274E-3	-7.803832E-3	-4.297003E-3	-4.418963E-3	1.152837E-3	-2.857873E-3	-2.897730E-3	-7.766668E-3	-5.813117E-3	-1.067913E-2	2.517155E-3	1.721654E-3	-8.132325E-4	-2.546012E-3	2.173548E-4	-6.603746E-4	-7.148681E-3	-4.711578E-3	-1.004816E-3	-6.833334E-3	-5.450818E-3	-8.386486E-3	5.145489E-4	-6.328916E-3	2.120380E-4	-8.602683E-3	-6.258334E-3	-5.966516E-3	-6.415860E-3	8.141267E-3	-5.955324E-3	1.677676E-3	-7.933530E-3
5.315340E+2	2.051170E-3	-2.317561E-3	-2.059898E-3	-3.589704E-3	-5.767151E-4	-1.458043E-3	1.116222E-3	2.427898E-3	3.012917E-4	-9.605639E-5	1.224737E-2	9.615349E-3	-1.481573E-3	6.044267E-4	-8.429088E-3	-8.688726E-3	7.083935E-3	1.277615E-2	3.075273E-4	7.526503E-3	-4.334673E-3	3.549770E-3	5.624253E-3	-4.076066E-3	1.441979E-3	1.132399E-2	4.912803E-3	3.499930E-3	-6.824635E-3	-2.199692E-3	3.183112E-4	1.105452E-3	-1.027616E-3	-7.674247E-3	-1.302970E-3	-1.452893E-3	4.723231E-3	1.049794E-3	-1.231115E-3	3.902848E-3	-1.811161E-4	1.777248E-3	-8.494404E-3	5.592570E-3	-2.216217E-3	4.572767E-3	-8.126563E-3	7.587890E-3	-8.613299E-3	3.920361E-4	-1.020902E-2	-5.334447E-3	-5.822973E-3	-1.384248E-3	2.395501E-3	-1.122549E-3	-4.975802E-4	-1.374707E-3	-2.795517E-3	1.034593E-4	-2.729591E-3	-8.779615E-4	6.060597E-3	4.195803E-3	1.297533E-3	-7.055833E-3	-9.942906E-3	5.616664E-3	-1.886027E-3	-6.107477E-3	5.185237E-3	-2.520975E-4	3.109606E-3	-2.267411E-3	7.521189E-3	1.314272E-3	-8.218057E-4	-3.093788E-3	-9.487440E-3	-3.144582E-3	-5.214329E-3	-2.282557E-3	1.247216E-3	-6.295798E-3	2.272233E-3	1.748001E-3	-6.886959E-3	-5.094282E-3	4.539506E-3	-3.057932E-3	6.200197E-3	2.848462E-4	2.576011E-3	2.834122E-3	2.771946E-3	6.273128E-3	-2.105699E-3	-6.304899E-3	4.407274E-3	5.579040E-3	-8.844151E-4	2.585117E-3	5.800122E-3	5.091873E-3	2.271121E-3	-2.034846E-3	-3.782039E-3	1.143839E-2	-2.883771E-3	4.699746E-3	5.977066E-4	3.489742E-3	2.543990E-3	-5.932499E-3	4.574580E-3	6.911937E-3	-4.097810E-4	3.121748E-3	-6.773631E-3	-2.996110E-3	-1.003732E-2	2.668195E-3	2.005705E-3	1.660297E-3	5.426322E-3	7.705781E-3	5.643611E-3	-4.850850E-3	3.287895E-3	-9.097560E-3	1.203053E-2	2.768740E-3	-2.825845E-3	-3.247032E-3	-2.393132E-3	-3.161200E-3	-2.934238E-3	9.257733E-3	-6.898066E-3	1.043884E-2	3.437415E-4	-4.418951E-3	-4.611248E-3	-4.416744E-3	-9.658933E-4	-3.637601E-3	-3.944644E-3	7.538191E-3	-6.857017E-3	-2.705446E-3	-8.132511E-4	3.248398E-3	-4.346898E-3	-1.226425E-3	-3.472194E-3	-6.596158E-3	1.187550E-3	4.608526E-3	5.280492E-3	-2.690003E-3	2.366972E-3	-1.515393E-3	-7.422625E-3	2.541663E-3	-1.043064E-3	2.983224E-3	-3.704922E-3	3.812987E-3	-5.062048E-3	-9.646322E-3	-3.400107E-3
5.320120E+2	-2.229535E-3	6.531343E-3	1.352359E-2	5.384568E-3	1.029848E-2	-4.860133E-3	6.139174E-3	1.387362E-3	-9.039718E-4	2.785351E-3	8.603499E-3	4.705409E-3	9.877583E-4	1.303787E-2	3.831394E-3	4.793775E-3	-5.143147E-3	2.849329E-3	4.613358E-3	-8.105514E-3	7.442557E-3	-9.818541E-4	8.558609E-3	-6.521981E-4	-2.343195E-3	5.661966E-3	-6.068801E-3	-2.058537E-4	-1.641409E-3	4.155017E-3	3.183199E-4	1.058064E-2	1.214461E-3	4.796451E-4	-2.505759E-3	-2.033996E-3	6.116902E-3	3.299309E-3	1.934589E-3	2.947009E-3	1.992538E-3	3.376777E-3	1.477295E-3	1.997318E-3	6.094605E-3	2.577400E-3	-1.787846E-3	4.800477E-3	-1.154385E-3	9.800884E-4	3.208552E-3	5.140476E-3	4.658435E-3	6.459880E-3	8.555305E-3	6.130700E-3	4.279311E-3	-1.924553E-3	-2.236408E-3	7.244913E-4	4.714749E-3	1.157316E-2	-4.801260E-3	-1.234068E-3	3.094103E-3	8.684081E-3	4.971501E-3	6.207907E-3	-1.394009E-3	4.561231E-3	5.185256E-3	2.772872E-3	4.858806E-3	3.056131E-3	-1.618452E-3	-1.112141E-3	3.616032E-3	2.209825E-3	7.436124E-3	1.209424E-3	-2.262793E-3	6.847566E-3	8.730698E-3	-4.842684E-4	8.115196E-4	4.131580E-3	9.424270E-3	9.134572E-3	-2.118449E-3	5.542440E-3	-3.247700E-3	1.053828E-2	8.758362E-3	-7.168666E-3	7.811823E-3	7.720761E-3	1.225118E-2	-4.849806E-4	-1.341309E-3	4.970430E-3	-4.020374E-4	2.585108E-3	2.947637E-3	-1.340008E-3	1.135601E-3	3.459262E-3	-8.194468E-3	7.794320E-3	3.604706E-3	4.699705E-3	1.238083E-2	6.480941E-3	5.087962E-3	8.182845E-4	6.404379E-3	1.727953E-3	3.032384E-3	1.014566E-2	8.399286E-3	1.233683E-3	9.651264E-3	-5.078169E-3	4.539187E-3	3.652724E-3	8.282299E-3	-6.558240E-4	6.791412E-3	6.189031E-3	3.904400E-3	1.244898E-3	3.243040E-3	1.199795E-2	5.893931E-3	7.243379E-3	1.435882E-2	4.967636E-3	3.279474E-3	2.810360E-3	6.898061E-3	-1.722890E-3	1.426607E-2	5.523706E-3	2.305618E-3	3.897116E-3	8.049203E-3	4.620658E-3	1.038061E-2	1.067911E-2	1.084976E-2	-2.459270E-4	3.456247E-3	1.668073E-3	1.130189E-2	1.009460E-2	8.169950E-4	1.162178E-2	-9.226281E-3	7.945756E-3	2.725401E-3	3.955894E-3	-7.512585E-3	9.181400E-3	1.802634E-2	3.714796E-3	1.095208E-2	4.474938E-3	8.223128E-3	3.194658E-3	-2.382138E-3	-8.388066E-3	2.153380E-2
5.325070E+2	1.221798E-2	3.371040E-3	1.029947E-2	1.495712E-2	4.366564E-3	5.832161E-3	5.581053E-3	1.127230E-2	5.725027E-3	4.802362E-4	-3.542629E-3	6.546633E-3	1.481560E-2	1.666424E-2	9.450818E-3	1.063615E-2	5.337218E-3	9.193564E-5	1.445510E-2	6.368595E-3	6.951841E-3	4.456070E-3	5.135187E-3	6.684814E-3	7.390056E-3	5.147401E-4	3.756848E-3	1.091132E-2	1.287180E-2	1.148737E-2	2.228266E-3	8.211807E-3	5.698597E-3	1.726711E-2	1.493438E-2	2.121202E-2	6.581477E-3	1.319741E-2	6.683072E-3	1.585026E-2	5.796367E-3	4.976306E-3	1.200293E-2	4.993319E-3	1.440531E-2	5.570513E-3	1.332754E-2	1.037529E-2	1.482907E-2	6.272470E-3	9.042315E-3	1.503344E-2	3.161034E-3	1.153551E-2	8.555082E-4	1.182974E-2	9.653340E-3	1.924576E-3	7.827550E-3	8.176649E-3	8.685083E-3	1.348872E-2	9.838610E-3	1.604276E-2	6.687311E-3	4.342055E-3	1.104772E-2	9.164057E-3	4.018050E-3	7.808300E-3	7.777851E-3	9.831079E-3	6.024826E-3	1.784360E-2	1.551840E-2	9.200311E-3	1.101249E-2	1.069566E-2	1.717997E-2	1.088504E-2	1.544619E-2	7.988892E-3	3.549834E-3	1.288217E-2	8.602061E-3	8.898768E-3	6.162020E-3	1.229653E-2	6.355288E-3	9.555977E-3	9.743128E-3	1.424099E-3	9.788753E-3	7.835498E-3	1.260010E-3	1.109859E-2	1.282542E-2	4.364914E-3	3.257516E-3	1.166528E-2	1.021095E-2	7.432138E-3	8.652632E-3	9.915749E-3	5.677883E-3	8.342916E-3	9.455075E-3	7.794335E-3	4.686070E-3	1.201046E-2	8.794627E-3	1.794712E-2	1.017598E-2	2.045688E-4	7.014338E-3	2.375977E-3	3.524116E-3	-3.902159E-3	1.544392E-2	1.286571E-2	7.334977E-3	8.348880E-3	1.277314E-2	1.693541E-2	-2.570350E-3	4.262753E-3	1.138283E-2	2.726513E-2	7.603274E-3	8.139957E-3	1.077521E-2	3.076402E-4	7.831611E-3	1.323788E-2	2.393132E-3	1.363843E-2	4.315040E-3	5.290130E-3	8.868934E-3	6.790297E-3	9.109664E-3	9.784832E-3	1.729228E-3	2.104442E-2	9.981035E-3	1.346880E-2	6.643609E-3	7.538256E-3	6.162641E-3	9.100081E-3	9.555407E-3	1.852447E-2	6.737680E-3	8.396488E-3	1.062086E-2	7.224364E-3	1.763040E-2	4.608526E-3	1.703037E-4	1.345006E-2	1.039418E-2	1.693654E-3	1.230030E-2	7.234107E-3	8.865919E-3	1.491630E-2	1.472935E-2	4.431320E-3	2.441691E-2	1.425973E-2	-1.133312E-3
5.329970E+2	1.756887E-2	1.538029E-2	1.782252E-2	2.094000E-2	1.573616E-2	1.506642E-2	1.841745E-2	2.219781E-2	2.259873E-2	1.085317E-2	2.196429E-2	1.820784E-2	2.321113E-2	3.376023E-2	1.966792E-2	2.726466E-2	1.756425E-2	1.553358E-2	1.937600E-2	2.315860E-2	2.903408E-2	1.895722E-2	8.558588E-3	3.260870E-2	2.415283E-2	3.345728E-2	3.092190E-2	1.214656E-2	2.375669E-2	2.077506E-2	1.941746E-2	2.384585E-2	1.410644E-2	1.247068E-2	1.974539E-2	1.714396E-2	1.726673E-2	2.129579E-2	1.723535E-2	2.158501E-2	1.829490E-2	1.297395E-2	1.920472E-2	2.057262E-2	2.105395E-2	2.751987E-2	1.722832E-2	1.780830E-2	1.376346E-2	1.920942E-2	3.062715E-2	3.714718E-2	9.649481E-3	1.661115E-2	2.344153E-2	3.617997E-2	2.517829E-2	1.952037E-2	2.124620E-2	2.742792E-2	1.662580E-2	1.636206E-2	2.164502E-2	1.406830E-2	8.483893E-3	1.899650E-2	4.419074E-3	2.571849E-2	3.747438E-2	1.847697E-2	2.177790E-2	2.596421E-2	1.127236E-2	1.725217E-2	2.237312E-2	2.739863E-2	2.284681E-2	1.599929E-2	2.692383E-2	2.394704E-2	1.839770E-2	2.681966E-2	1.276024E-2	1.520680E-2	1.834017E-2	1.890992E-2	2.845405E-2	2.441739E-2	1.361850E-2	2.847677E-2	8.562094E-3	3.047566E-2	3.606387E-2	3.434287E-2	2.645946E-2	1.592411E-2	1.914241E-2	2.279460E-2	2.970103E-2	2.201182E-2	1.792940E-2	2.827442E-2	1.207571E-2	2.224342E-2	1.476249E-2	2.848813E-2	2.017088E-2	2.176330E-2	2.252927E-2	2.402089E-2	2.621317E-2	2.492660E-2	3.116388E-2	2.659342E-3	1.921320E-2	3.671968E-2	1.729269E-2	1.576482E-2	1.110879E-2	2.767004E-2	5.597760E-3	1.557883E-2	1.530664E-2	2.689737E-2	2.084855E-2	2.492077E-2	3.778334E-2	2.726511E-2	1.623401E-2	6.703010E-4	2.207342E-2	1.876602E-2	1.509813E-2	1.773371E-2	2.991404E-3	2.610267E-2	1.208218E-2	1.868078E-2	3.449040E-2	2.989766E-2	2.921967E-2	2.162135E-2	2.824391E-2	1.948557E-2	2.285982E-2	1.877763E-2	2.159163E-2	3.140924E-2	1.709919E-2	8.116312E-3	2.053408E-2	2.747945E-2	3.347099E-2	1.292494E-2	1.674837E-2	3.046804E-2	2.091898E-2	1.366667E-2	2.929822E-2	1.582363E-2	1.780385E-2	2.576140E-2	2.184362E-2	3.069603E-2	2.294724E-2	2.585495E-2	2.286214E-2	2.607262E-2	2.441691E-2	2.180906E-2	4.420091E-2
5.331520E+2	1.810394E-2	3.181405E-2	1.513567E-2	2.093997E-2	1.721911E-2	2.770280E-2	2.846340E-2	2.271806E-2	4.610135E-2	2.410756E-2	2.317893E-2	2.680031E-2	1.284021E-2	2.495319E-2	3.448277E-2	2.501750E-2	2.047549E-2	2.490882E-2	2.060623E-2	3.242201E-2	2.363619E-2	2.620780E-2	2.176338E-2	3.701087E-2	2.739723E-2	2.933941E-2	2.918790E-2	3.438101E-2	3.619663E-2	3.201806E-2	2.562468E-2	1.247561E-2	1.242486E-2	2.446175E-2	3.357725E-2	2.528008E-2	1.587303E-2	2.804443E-2	3.306369E-2	2.540820E-2	2.970656E-2	2.577014E-2	2.696048E-2	2.296941E-2	2.770250E-2	2.253140E-2	2.259179E-2	1.502090E-2	1.962410E-2	2.214965E-2	2.187654E-2	2.143482E-2	2.761759E-2	1.845682E-2	2.087494E-2	2.789051E-2	1.263894E-2	1.402170E-2	3.186931E-2	3.053298E-2	2.506275E-2	2.115093E-2	3.439591E-2	3.282600E-2	2.046112E-2	2.713786E-2	2.320017E-2	2.630974E-2	3.452234E-2	2.636255E-2	3.422251E-2	3.050160E-2	2.934695E-2	2.020966E-2	3.436894E-2	3.225157E-2	2.728469E-2	4.039603E-2	2.538535E-2	3.507403E-2	3.315514E-2	3.423788E-2	2.484890E-2	1.462570E-2	2.564378E-2	2.415382E-2	1.975470E-2	2.441737E-2	1.603957E-2	1.528954E-2	2.627694E-2	3.161491E-2	4.842862E-2	3.034175E-2	3.250735E-2	3.570854E-2	2.316233E-2	1.842967E-2	2.280277E-2	3.053254E-2	2.468305E-2	2.294267E-2	2.405628E-2	3.189115E-2	2.327928E-2	2.055212E-2	3.466869E-2	2.297802E-2	2.955842E-2	1.879890E-2	4.311941E-2	3.190608E-2	3.116393E-2	1.677459E-2	3.141203E-2	2.635176E-2	3.106135E-2	1.857440E-2	2.086279E-2	1.603810E-2	2.412816E-2	2.642379E-2	2.164042E-2	1.892779E-2	9.995915E-3	5.098920E-2	3.319194E-2	3.981040E-2	2.301526E-2	2.020618E-2	1.956266E-2	2.922575E-2	2.139570E-2	1.273834E-2	2.752109E-2	3.639921E-2	1.829584E-2	1.967268E-2	2.529290E-2	5.057265E-2	1.632863E-2	1.215213E-2	1.498654E-2	2.987787E-2	3.573847E-2	3.234474E-2	2.096885E-2	3.392196E-2	1.970312E-2	3.221931E-2	2.114396E-2	3.801468E-2	3.412299E-2	2.651027E-2	4.309640E-2	3.737828E-2	3.297709E-2	1.891088E-2	2.418807E-2	3.101427E-2	2.459609E-2	3.110977E-2	2.502473E-2	3.186914E-2	1.773190E-2	3.231866E-2	2.611523E-2	1.741609E-2	3.692307E-2	3.187467E-2	3.286746E-2
5.333080E+2	3.094625E-2	4.003094E-2	2.158402E-2	3.350395E-2	3.106030E-2	3.693703E-2	2.678903E-2	2.427884E-2	2.621448E-2	3.909071E-2	3.228857E-2	4.398524E-2	4.247146E-2	3.842280E-2	5.900379E-2	3.130931E-2	2.396892E-2	5.193178E-2	3.967473E-2	4.921194E-2	3.443198E-2	3.255202E-2	3.301185E-2	3.847822E-2	3.280461E-2	3.551612E-2	4.190347E-2	4.179247E-2	4.915482E-2	3.935038E-2	4.185900E-2	3.947993E-2	2.475631E-2	3.261567E-2	4.079382E-2	3.283503E-2	2.655825E-2	3.344341E-2	3.095318E-2	5.073674E-2	4.329187E-2	3.110191E-2	3.582417E-2	3.255663E-2	4.764837E-2	4.048998E-2	2.600499E-2	3.546173E-2	2.974690E-2	3.273437E-2	3.179384E-2	3.016397E-2	2.112910E-2	2.953092E-2	4.089434E-2	5.172266E-2	2.876100E-2	2.391934E-2	3.019198E-2	4.171121E-2	3.796631E-2	3.072869E-2	3.864621E-2	3.973673E-2	2.225769E-2	2.225305E-2	3.645735E-2	4.759402E-2	3.353836E-2	3.378428E-2	4.666707E-2	3.856819E-2	3.401143E-2	3.085672E-2	3.665387E-2	2.861187E-2	3.961210E-2	4.039598E-2	3.923189E-2	2.152819E-2	4.259993E-2	2.339589E-2	4.384536E-2	3.264134E-2	2.223542E-2	3.511837E-2	4.748382E-2	4.549715E-2	3.722381E-2	4.338408E-2	4.162973E-2	4.414694E-2	4.482225E-2	2.784109E-2	2.897943E-2	5.018498E-2	2.660797E-2	3.055450E-2	2.050338E-2	4.453087E-2	2.757752E-2	2.875913E-2	2.519732E-2	3.778698E-2	3.066053E-2	4.436000E-2	3.340802E-2	3.694705E-2	3.820970E-2	3.603133E-2	3.184854E-2	2.841633E-2	4.769977E-2	2.782131E-2	4.544069E-2	4.838358E-2	3.352003E-2	3.262225E-2	2.899116E-2	3.930210E-2	3.628880E-2	3.520300E-2	3.874165E-2	3.486695E-2	5.340657E-2	3.820089E-2	4.065301E-2	4.031220E-2	2.918009E-2	2.365374E-2	3.086093E-2	4.460777E-2	3.011546E-2	3.971358E-2	3.051253E-2	4.940539E-2	3.279444E-2	2.413623E-2	4.565863E-2	4.509979E-2	3.128219E-2	3.771900E-2	3.977201E-2	6.261370E-2	4.282189E-2	3.352448E-2	2.968854E-2	4.774196E-2	4.574257E-2	2.484083E-2	3.212252E-2	3.274706E-2	4.977174E-2	3.217083E-2	3.206695E-2	5.057065E-2	4.613138E-2	4.227142E-2	2.572112E-2	3.576138E-2	4.435528E-2	3.004008E-2	3.774917E-2	4.418663E-2	3.911457E-2	5.618460E-2	5.593538E-2	3.596577E-2	3.156331E-2	3.690748E-2	4.193425E-2
5.334630E+2	5.288501E-2	5.456841E-2	3.663017E-2	2.811935E-2	4.144125E-2	3.596502E-2	5.134565E-2	4.196777E-2	5.152503E-2	3.448049E-2	5.111510E-2	3.539276E-2	4.098989E-2	6.121755E-2	5.083013E-2	4.344349E-2	5.424553E-2	5.027731E-2	3.536890E-2	4.342230E-2	4.964425E-2	4.977216E-2	4.915094E-2	5.217387E-2	4.524156E-2	4.169287E-2	6.039881E-2	4.364537E-2	4.137991E-2	5.205974E-2	5.045363E-2	4.753390E-2	3.540625E-2	3.981031E-2	4.259799E-2	4.562037E-2	5.303914E-2	3.119377E-2	5.575099E-2	5.790522E-2	4.872602E-2	3.856639E-2	4.524192E-2	5.173104E-2	5.374293E-2	4.996813E-2	5.038466E-2	4.196566E-2	3.560753E-2	4.508330E-2	4.112782E-2	5.984287E-2	4.708293E-2	3.599076E-2	4.397421E-2	4.550554E-2	4.428593E-2	4.536430E-2	3.969685E-2	5.351044E-2	5.434396E-2	4.701092E-2	4.573004E-2	5.701363E-2	4.441558E-2	4.396332E-2	3.921928E-2	4.286421E-2	5.075849E-2	4.862775E-2	3.370400E-2	4.613058E-2	4.392330E-2	4.268673E-2	5.093458E-2	5.105644E-2	5.588430E-2	5.789799E-2	5.461692E-2	5.297390E-2	5.676713E-2	4.907430E-2	4.384534E-2	6.576696E-2	3.927722E-2	4.751310E-2	5.292090E-2	6.868486E-2	3.056592E-2	4.051729E-2	5.343960E-2	5.098262E-2	5.821745E-2	4.184495E-2	4.409916E-2	5.066750E-2	4.785606E-2	3.006950E-2	5.212062E-2	3.296702E-2	4.204968E-2	4.426966E-2	5.486357E-2	4.314679E-2	3.520280E-2	3.886592E-2	4.412382E-2	5.334546E-2	4.523878E-2	6.161883E-2	5.592711E-2	5.832833E-2	5.851174E-2	5.421067E-2	4.361088E-2	3.931161E-2	5.220596E-2	4.479708E-2	4.741547E-2	3.771587E-2	4.439585E-2	4.036728E-2	5.647625E-2	4.814965E-2	4.997937E-2	4.803799E-2	6.533175E-2	6.791189E-2	4.829094E-2	4.778623E-2	4.215920E-2	5.875919E-2	4.271065E-2	4.670716E-2	4.726452E-2	5.753423E-2	3.849035E-2	4.595804E-2	5.419907E-2	5.422113E-2	5.087655E-2	4.766162E-2	5.591134E-2	4.182903E-2	4.089003E-2	5.534983E-2	5.211072E-2	5.528023E-2	4.522174E-2	4.205720E-2	5.042019E-2	6.013870E-2	5.042383E-2	4.519005E-2	4.861109E-2	4.994243E-2	4.393901E-2	4.608538E-2	4.565068E-2	4.478081E-2	5.361737E-2	5.303817E-2	4.602005E-2	7.468715E-2	4.276529E-2	5.170984E-2	5.051356E-2	4.276733E-2	6.908190E-2	4.948961E-2	8.046844E-2
5.336130E+2	5.288502E-2	6.973806E-2	5.543784E-2	6.820447E-2	6.467470E-2	5.151747E-2	7.199558E-2	6.329849E-2	6.056442E-2	5.695529E-2	4.990045E-2	6.730767E-2	5.185466E-2	7.416890E-2	6.973181E-2	6.681318E-2	6.123242E-2	5.634367E-2	7.166045E-2	7.584429E-2	6.534718E-2	5.475684E-2	5.355259E-2	5.951084E-2	7.768564E-2	5.456107E-2	7.369234E-2	5.785054E-2	6.988788E-2	6.721339E-2	6.764291E-2	6.364151E-2	8.361090E-2	5.132174E-2	4.801045E-2	7.177224E-2	7.719687E-2	4.289145E-2	5.627860E-2	5.838317E-2	6.122451E-2	4.976305E-2	5.742959E-2	6.850879E-2	5.762128E-2	6.194054E-2	7.378906E-2	5.404415E-2	6.064824E-2	5.978434E-2	5.454542E-2	6.508028E-2	7.054133E-2	5.029480E-2	6.194021E-2	6.001199E-2	4.607734E-2	4.866352E-2	6.038393E-2	6.406764E-2	7.816583E-2	7.382848E-2	6.037000E-2	5.059645E-2	5.579399E-2	7.381501E-2	5.026698E-2	8.306794E-2	6.404262E-2	6.068792E-2	6.585236E-2	6.175961E-2	5.675046E-2	6.043177E-2	7.264132E-2	7.592759E-2	5.391192E-2	6.479278E-2	6.128369E-2	5.829537E-2	5.145446E-2	5.078618E-2	5.996356E-2	5.879313E-2	6.362267E-2	7.706969E-2	6.923226E-2	6.973885E-2	6.082920E-2	7.778559E-2	6.111602E-2	6.294501E-2	6.697577E-2	6.985275E-2	6.022664E-2	6.514401E-2	7.484682E-2	4.510427E-2	6.074348E-2	6.035501E-2	4.301445E-2	4.766263E-2	5.999811E-2	6.137037E-2	4.882971E-2	5.595880E-2	6.429468E-2	7.035125E-2	6.091910E-2	7.937341E-2	6.002563E-2	8.076211E-2	6.868771E-2	5.973404E-2	5.946937E-2	6.134350E-2	5.712323E-2	4.386058E-2	6.746552E-2	7.261194E-2	5.250287E-2	5.895861E-2	5.900978E-2	7.272258E-2	5.968968E-2	7.902506E-2	6.590564E-2	9.651518E-2	5.445579E-2	5.812874E-2	6.914962E-2	6.860367E-2	6.305673E-2	5.220216E-2	6.700794E-2	7.379181E-2	4.211493E-2	5.538107E-2	5.879775E-2	6.395057E-2	6.325184E-2	5.713082E-2	7.723828E-2	5.741750E-2	8.338994E-2	6.596757E-2	5.273354E-2	5.842116E-2	5.772067E-2	5.287899E-2	6.444831E-2	6.593304E-2	6.216036E-2	6.047359E-2	6.944447E-2	7.444247E-2	7.846910E-2	6.753881E-2	6.302520E-2	7.088971E-2	6.720182E-2	5.089882E-2	7.528632E-2	7.761991E-2	5.841105E-2	6.960951E-2	8.955076E-2	5.760704E-2	6.729521E-2	5.829716E-2	9.633555E-2
5.337580E+2	7.268348E-2	8.933209E-2	7.532023E-2	7.717877E-2	8.345921E-2	6.852794E-2	8.427372E-2	7.370359E-2	9.069608E-2	8.000644E-2	8.390960E-2	6.914891E-2	8.494307E-2	1.026624E-1	9.323093E-2	8.119419E-2	7.753502E-2	7.343987E-2	8.826859E-2	6.600193E-2	9.528105E-2	6.744533E-2	8.142909E-2	8.103262E-2	8.579677E-2	5.301687E-2	8.409595E-2	7.267358E-2	9.010266E-2	8.090033E-2	8.292217E-2	7.548547E-2	9.930548E-2	8.585600E-2	7.928239E-2	7.874590E-2	9.531541E-2	5.818844E-2	8.476956E-2	7.415359E-2	8.187436E-2	7.642190E-2	8.346680E-2	8.828236E-2	9.529664E-2	9.187147E-2	8.646660E-2	9.585519E-2	7.716430E-2	7.272141E-2	7.496354E-2	8.544832E-2	1.039815E-1	7.382726E-2	8.914613E-2	9.679639E-2	7.175317E-2	7.725665E-2	8.274842E-2	9.325522E-2	9.801746E-2	9.537875E-2	9.106665E-2	9.304809E-2	7.974835E-2	7.869964E-2	7.015281E-2	9.134513E-2	9.848316E-2	8.527230E-2	7.622283E-2	7.890088E-2	8.298781E-2	7.699386E-2	7.606869E-2	9.169963E-2	9.434606E-2	9.979672E-2	9.102836E-2	7.522768E-2	8.510147E-2	7.361161E-2	7.493049E-2	5.995545E-2	1.093920E-1	8.136021E-2	9.098050E-2	8.185964E-2	9.472391E-2	8.466585E-2	9.182172E-2	8.516090E-2	8.243168E-2	8.585700E-2	8.089045E-2	8.782359E-2	7.312403E-2	5.868407E-2	9.351035E-2	8.956902E-2	7.871245E-2	7.238239E-2	7.597222E-2	8.066571E-2	7.494795E-2	7.976671E-2	8.950816E-2	9.100122E-2	8.633217E-2	8.825065E-2	8.820238E-2	9.521962E-2	9.412771E-2	7.753154E-2	8.996661E-2	9.179925E-2	7.580946E-2	6.259100E-2	7.180045E-2	8.583007E-2	6.118903E-2	7.445109E-2	9.321240E-2	8.268465E-2	9.053381E-2	8.935399E-2	9.632364E-2	1.005297E-1	7.973154E-2	7.364266E-2	1.049273E-1	9.013824E-2	5.966581E-2	7.717934E-2	9.452882E-2	8.463062E-2	6.955880E-2	7.224334E-2	1.054419E-1	9.921960E-2	8.542446E-2	7.796316E-2	8.184973E-2	8.079994E-2	8.274606E-2	6.537769E-2	6.892717E-2	8.292034E-2	7.126113E-2	7.255473E-2	8.701545E-2	7.910203E-2	9.671805E-2	6.726632E-2	8.108669E-2	6.439122E-2	8.340194E-2	8.803891E-2	7.682247E-2	8.702968E-2	7.769897E-2	8.459378E-2	9.055545E-2	9.404324E-2	9.856883E-2	8.601732E-2	9.334614E-2	8.110336E-2	8.605463E-2	9.478529E-2	6.686815E-2
5.339290E+2	1.251227E-1	1.455862E-1	9.735206E-2	1.202552E-1	1.363523E-1	1.127552E-1	1.305965E-1	1.356149E-1	1.485488E-1	1.347529E-1	1.300650E-1	1.041324E-1	1.318593E-1	1.446253E-1	1.335887E-1	1.261360E-1	1.293546E-1	1.159041E-1	1.307111E-1	1.285299E-1	1.315941E-1	1.118553E-1	1.107730E-1	1.363045E-1	1.085076E-1	1.225052E-1	1.378482E-1	1.171424E-1	1.232754E-1	1.376043E-1	1.321023E-1	1.403906E-1	1.206053E-1	1.419740E-1	1.358121E-1	1.473218E-1	1.361982E-1	1.135275E-1	1.311995E-1	1.358025E-1	1.291509E-1	1.292062E-1	1.150437E-1	1.260320E-1	1.484855E-1	1.377658E-1	1.269368E-1	1.325559E-1	1.197871E-1	1.038875E-1	1.087992E-1	1.186188E-1	1.389198E-1	1.328890E-1	1.240518E-1	1.366895E-1	1.380327E-1	1.195966E-1	1.414549E-1	1.261686E-1	1.526096E-1	1.150131E-1	1.302639E-1	1.488275E-1	1.246634E-1	1.096367E-1	1.204198E-1	1.333222E-1	1.476837E-1	1.209895E-1	1.249640E-1	1.404083E-1	1.039779E-1	1.148498E-1	1.377614E-1	1.341622E-1	1.283694E-1	1.512419E-1	1.330807E-1	1.352163E-1	1.281934E-1	1.340981E-1	1.204065E-1	1.070284E-1	1.405542E-1	1.180675E-1	1.420889E-1	1.256000E-1	1.316455E-1	1.408548E-1	1.154413E-1	1.375678E-1	1.241627E-1	1.243680E-1	1.181856E-1	1.167766E-1	1.127488E-1	1.023332E-1	1.624937E-1	1.285207E-1	1.288823E-1	1.106740E-1	1.193305E-1	1.278325E-1	1.481928E-1	1.286034E-1	1.254379E-1	1.310863E-1	1.382397E-1	1.436030E-1	1.348227E-1	1.475656E-1	1.163872E-1	1.204908E-1	1.405918E-1	1.326228E-1	1.244914E-1	1.117585E-1	1.167774E-1	1.482198E-1	1.289410E-1	1.136998E-1	1.280482E-1	1.378076E-1	1.425127E-1	1.444419E-1	1.743775E-1	1.341511E-1	1.389136E-1	1.178853E-1	1.174808E-1	1.412066E-1	1.362060E-1	1.076513E-1	1.423920E-1	1.404486E-1	1.228927E-1	1.029922E-1	1.251504E-1	1.132058E-1	1.039878E-1	1.399865E-1	1.383374E-1	1.369188E-1	1.110791E-1	1.237751E-1	1.480274E-1	1.457387E-1	1.160491E-1	1.123987E-1	1.498373E-1	1.275643E-1	1.117148E-1	9.387082E-2	1.258171E-1	1.290964E-1	1.360188E-1	1.047250E-1	1.335453E-1	1.463685E-1	1.184523E-1	1.263110E-1	1.306375E-1	1.409672E-1	1.329895E-1	1.317606E-1	1.372629E-1	1.336606E-1	1.271464E-1	1.589542E-1	1.462031E-1
5.340690E+2	1.695355E-1	2.189055E-1	1.747317E-1	1.944425E-1	2.332408E-1	1.681606E-1	1.836166E-1	2.126136E-1	2.106194E-1	1.791259E-1	2.071932E-1	1.937399E-1	1.926032E-1	2.425384E-1	2.245210E-1	2.169180E-1	1.974767E-1	1.649866E-1	2.063697E-1	2.234802E-1	2.081460E-1	1.743912E-1	1.767965E-1	1.945110E-1	1.777215E-1	1.868458E-1	2.020037E-1	1.875514E-1	2.176116E-1	1.864867E-1	1.936974E-1	2.251938E-1	1.878679E-1	1.980921E-1	2.079781E-1	1.932325E-1	2.221446E-1	1.724657E-1	2.166726E-1	2.060533E-1	2.226181E-1	1.723933E-1	1.682261E-1	1.985355E-1	2.216201E-1	1.961311E-1	1.908115E-1	2.073505E-1	2.023681E-1	2.003266E-1	1.974719E-1	2.006722E-1	2.192770E-1	1.868750E-1	2.031028E-1	2.087039E-1	2.258087E-1	1.657859E-1	1.917748E-1	1.951009E-1	2.161351E-1	1.988187E-1	1.977961E-1	2.041136E-1	1.947300E-1	1.763961E-1	2.027249E-1	2.220070E-1	2.086922E-1	1.687672E-1	2.006683E-1	2.119989E-1	1.949337E-1	2.088985E-1	1.977404E-1	2.051360E-1	2.186061E-1	2.297359E-1	2.059034E-1	1.903678E-1	2.090645E-1	2.082807E-1	2.067541E-1	1.709553E-1	2.204069E-1	1.843317E-1	2.035282E-1	2.230940E-1	2.139615E-1	1.872971E-1	1.975203E-1	2.116203E-1	2.045338E-1	1.993885E-1	2.089042E-1	2.195591E-1	1.862557E-1	1.454976E-1	2.487222E-1	1.839056E-1	2.147505E-1	1.790178E-1	1.934963E-1	2.200224E-1	1.868021E-1	2.097945E-1	2.061213E-1	2.051827E-1	2.252930E-1	2.208877E-1	2.173047E-1	2.173602E-1	2.009749E-1	1.916812E-1	1.857272E-1	2.051984E-1	2.115287E-1	1.674817E-1	1.687990E-1	1.889321E-1	2.036419E-1	1.823844E-1	2.236881E-1	2.301218E-1	2.230508E-1	1.936278E-1	2.300483E-1	2.159466E-1	2.350845E-1	2.029239E-1	2.223036E-1	2.175012E-1	2.083862E-1	1.860794E-1	2.231600E-1	2.092732E-1	2.150624E-1	1.897834E-1	2.144967E-1	2.050266E-1	2.086629E-1	2.185807E-1	1.890608E-1	2.070665E-1	2.347156E-1	1.969197E-1	2.414533E-1	2.016473E-1	2.248939E-1	1.851994E-1	2.083898E-1	2.023646E-1	2.297329E-1	1.951949E-1	2.287580E-1	2.220713E-1	2.209739E-1	2.153299E-1	2.260389E-1	2.052323E-1	2.104558E-1	1.963750E-1	2.184364E-1	2.119391E-1	1.877500E-1	1.789957E-1	2.012409E-1	2.053859E-1	2.629278E-1	2.105411E-1	2.232716E-1
5.342150E+2	3.043791E-1	3.459509E-1	2.859661E-1	2.871767E-1	3.849997E-1	3.071604E-1	3.270494E-1	3.431989E-1	3.431986E-1	3.289581E-1	3.711664E-1	3.600655E-1	3.511304E-1	4.083176E-1	4.058751E-1	3.432037E-1	3.412904E-1	3.221604E-1	3.675289E-1	3.606950E-1	3.897111E-1	2.908533E-1	3.181364E-1	3.872279E-1	2.972242E-1	3.546467E-1	3.586362E-1	3.462805E-1	3.674091E-1	3.531763E-1	3.417157E-1	3.445807E-1	3.655527E-1	3.381477E-1	3.613310E-1	3.751329E-1	3.364303E-1	3.083385E-1	3.844530E-1	3.580244E-1	3.769472E-1	3.179500E-1	3.144772E-1	3.747003E-1	4.011328E-1	3.427930E-1	3.736591E-1	3.792390E-1	3.488828E-1	3.408690E-1	3.322315E-1	3.420840E-1	3.640193E-1	3.013074E-1	3.617179E-1	3.817462E-1	3.506056E-1	3.043531E-1	3.595081E-1	3.410385E-1	3.560894E-1	3.678665E-1	3.607240E-1	3.946521E-1	3.252819E-1	3.131708E-1	3.402689E-1	3.999670E-1	3.823702E-1	2.995746E-1	3.183729E-1	3.819007E-1	3.313684E-1	3.183266E-1	3.222685E-1	3.294914E-1	3.448389E-1	3.623268E-1	3.520613E-1	3.417906E-1	3.666741E-1	3.880296E-1	3.333973E-1	2.947402E-1	3.825473E-1	3.058952E-1	3.225998E-1	3.616933E-1	3.489356E-1	3.065552E-1	3.669913E-1	3.722585E-1	3.565174E-1	3.589329E-1	3.525408E-1	3.498468E-1	3.803599E-1	2.570457E-1	3.912880E-1	3.664920E-1	3.806982E-1	2.866223E-1	3.754871E-1	3.566982E-1	3.219356E-1	3.727871E-1	3.731617E-1	3.424436E-1	3.637129E-1	4.120101E-1	3.715101E-1	3.644273E-1	3.548865E-1	3.303784E-1	3.583409E-1	3.555332E-1	3.644587E-1	3.220084E-1	3.459971E-1	3.475501E-1	3.362503E-1	3.130398E-1	3.674655E-1	3.649417E-1	3.926952E-1	3.534813E-1	4.073907E-1	3.925841E-1	3.534489E-1	3.316305E-1	3.490951E-1	3.750124E-1	3.687326E-1	3.344435E-1	3.763214E-1	3.452959E-1	3.548701E-1	3.226978E-1	3.925324E-1	3.381983E-1	3.793399E-1	3.464152E-1	3.717819E-1	3.785402E-1	3.615714E-1	3.361296E-1	3.710031E-1	3.951284E-1	3.899834E-1	2.983358E-1	3.938063E-1	3.972666E-1	4.012173E-1	3.276516E-1	3.917483E-1	3.609046E-1	3.766330E-1	3.507256E-1	3.783217E-1	3.590382E-1	3.555622E-1	3.466645E-1	3.571331E-1	3.879041E-1	3.598538E-1	3.395946E-1	3.492578E-1	3.927380E-1	4.085360E-1	4.156291E-1	3.638080E-1
5.343600E+2	5.590830E-1	5.760238E-1	5.154192E-1	5.982847E-1	6.158516E-1	5.506536E-1	6.200545E-1	6.433897E-1	6.252305E-1	6.274687E-1	6.839296E-1	6.681667E-1	6.257132E-1	6.585412E-1	7.072800E-1	6.389196E-1	5.974770E-1	5.763959E-1	6.720092E-1	6.577036E-1	6.247650E-1	5.690940E-1	5.959245E-1	6.684786E-1	5.513696E-1	5.692876E-1	6.424239E-1	6.124756E-1	6.488612E-1	6.019876E-1	6.310680E-1	6.814232E-1	6.306796E-1	5.712537E-1	6.331565E-1	6.250281E-1	6.676732E-1	5.427415E-1	6.598664E-1	6.576659E-1	6.568042E-1	5.834716E-1	5.598915E-1	6.000002E-1	7.141715E-1	6.101765E-1	6.457363E-1	6.287100E-1	5.859699E-1	6.107810E-1	5.848327E-1	6.289806E-1	6.759649E-1	5.463212E-1	6.081108E-1	6.552971E-1	6.384146E-1	5.232017E-1	6.183759E-1	5.919272E-1	6.404638E-1	6.279033E-1	6.374657E-1	6.498560E-1	6.289051E-1	5.329876E-1	6.335854E-1	6.713419E-1	6.219765E-1	5.245457E-1	6.066719E-1	7.000253E-1	6.339726E-1	6.123034E-1	5.821774E-1	5.818425E-1	6.421762E-1	6.540263E-1	6.028372E-1	6.141585E-1	6.352606E-1	6.111464E-1	6.194954E-1	5.556773E-1	6.201580E-1	5.661844E-1	6.183772E-1	6.410001E-1	6.521741E-1	5.961014E-1	6.303513E-1	6.263170E-1	6.269962E-1	6.085023E-1	6.539272E-1	6.591603E-1	6.112174E-1	4.762623E-1	6.723939E-1	6.306339E-1	6.503632E-1	5.721133E-1	6.653036E-1	5.952121E-1	5.791433E-1	6.334532E-1	6.587054E-1	6.200024E-1	6.205467E-1	6.553522E-1	6.558416E-1	6.465959E-1	6.264572E-1	6.090008E-1	6.431835E-1	6.555548E-1	6.722852E-1	5.528615E-1	6.017704E-1	6.378215E-1	6.205765E-1	5.712525E-1	6.277843E-1	6.412204E-1	6.297399E-1	6.520379E-1	6.955009E-1	6.776134E-1	6.629223E-1	5.723821E-1	6.962028E-1	6.598874E-1	6.555155E-1	5.612357E-1	7.113606E-1	6.520249E-1	6.344859E-1	5.880311E-1	6.185260E-1	6.276478E-1	6.191133E-1	6.262297E-1	6.444215E-1	6.845933E-1	6.365325E-1	6.157302E-1	6.662282E-1	6.759264E-1	7.071435E-1	5.024732E-1	6.786389E-1	6.279889E-1	6.907193E-1	5.291679E-1	6.466500E-1	6.498798E-1	6.682196E-1	6.343892E-1	6.287191E-1	6.633259E-1	6.636825E-1	6.071312E-1	6.803338E-1	6.541967E-1	6.279189E-1	6.046072E-1	6.599298E-1	6.796400E-1	6.720595E-1	6.207185E-1	6.698140E-1
5.345050E+2	8.994025E-1	9.400936E-1	7.910855E-1	9.303331E-1	1.005877E+0	8.242796E-1	9.632889E-1	1.035146E+0	9.807826E-1	9.807268E-1	1.019165E+0	1.008797E+0	9.961042E-1	1.065218E+0	1.079693E+0	1.017329E+0	1.001553E+0	9.117006E-1	1.010320E+0	1.007398E+0	9.653224E-1	8.591165E-1	9.196852E-1	9.942388E-1	8.909514E-1	9.028306E-1	9.452847E-1	9.466099E-1	1.062488E+0	9.485643E-1	1.058888E+0	1.006422E+0	1.014636E+0	9.247499E-1	1.000000E+0	9.841796E-1	1.043980E+0	8.257351E-1	1.056103E+0	1.041417E+0	1.030129E+0	8.340640E-1	9.310598E-1	1.017643E+0	1.092034E+0	9.917961E-1	1.012407E+0	9.195270E-1	8.774015E-1	9.853638E-1	8.823525E-1	9.769806E-1	9.968941E-1	8.743911E-1	9.238009E-1	1.024696E+0	1.002654E+0	8.690697E-1	1.025409E+0	1.021046E+0	1.025090E+0	9.674359E-1	9.571812E-1	1.033402E+0	9.510931E-1	8.624410E-1	9.953969E-1	1.073378E+0	9.708078E-1	8.715112E-1	9.400820E-1	1.070582E+0	9.867195E-1	9.541916E-1	9.386246E-1	9.609743E-1	9.824129E-1	1.043313E+0	9.895154E-1	1.034079E+0	9.959342E-1	1.015724E+0	9.153793E-1	8.805415E-1	1.017963E+0	8.731920E-1	9.239414E-1	1.006207E+0	9.820439E-1	8.999806E-1	9.775607E-1	9.624040E-1	1.037609E+0	9.550985E-1	9.946242E-1	1.019625E+0	1.022397E+0	7.473732E-1	1.060424E+0	9.958070E-1	9.909415E-1	8.420936E-1	9.979077E-1	1.024536E+0	9.357137E-1	1.000339E+0	9.814402E-1	9.722647E-1	9.882244E-1	1.024543E+0	1.005237E+0	9.910816E-1	9.838882E-1	8.906921E-1	9.646233E-1	1.005472E+0	1.026827E+0	8.708119E-1	9.447877E-1	9.925983E-1	9.738131E-1	8.330800E-1	1.012879E+0	9.566842E-1	9.924475E-1	9.761720E-1	1.091509E+0	1.034400E+0	1.004453E+0	9.521815E-1	1.053353E+0	9.675267E-1	1.042577E+0	8.130050E-1	1.077512E+0	1.028120E+0	9.560442E-1	9.337079E-1	1.041607E+0	9.949323E-1	9.826404E-1	9.642803E-1	1.021968E+0	1.074305E+0	1.054449E+0	9.313124E-1	1.058616E+0	1.071682E+0	1.072216E+0	8.153201E-1	1.067159E+0	1.000936E+0	1.068898E+0	9.174814E-1	1.036969E+0	9.765473E-1	1.059012E+0	9.347393E-1	9.961391E-1	1.040243E+0	1.007616E+0	9.681472E-1	1.021985E+0	9.920487E-1	1.018021E+0	9.228216E-1	9.836138E-1	1.023427E+0	9.909677E-1	9.314968E-1	1.111825E+0
5.346620E+2	1.250960E+0	1.502001E+0	1.092008E+0	1.274347E+0	1.458681E+0	1.419649E+0	1.412562E+0	1.417020E+0	1.348989E+0	1.480934E+0	1.462499E+0	1.481998E+0	1.416373E+0	1.532506E+0	1.555301E+0	1.424948E+0	1.423676E+0	1.356751E+0	1.408913E+0	1.424830E+0	1.405986E+0	1.322701E+0	1.337345E+0	1.411958E+0	1.246756E+0	1.336745E+0	1.342355E+0	1.402414E+0	1.515508E+0	1.386552E+0	1.375457E+0	1.444649E+0	1.422134E+0	1.248986E+0	1.445024E+0	1.429343E+0	1.417962E+0	1.202759E+0	1.446009E+0	1.424211E+0	1.452903E+0	1.263270E+0	1.282837E+0	1.353196E+0	1.554666E+0	1.401352E+0	1.431738E+0	1.434729E+0	1.232766E+0	1.307024E+0	1.306466E+0	1.370954E+0	1.385205E+0	1.225530E+0	1.324703E+0	1.463518E+0	1.385404E+0	1.222637E+0	1.426290E+0	1.415387E+0	1.410707E+0	1.384549E+0	1.372765E+0	1.490991E+0	1.381674E+0	1.224461E+0	1.383725E+0	1.504382E+0	1.378187E+0	1.186006E+0	1.278677E+0	1.487019E+0	1.316144E+0	1.383032E+0	1.353335E+0	1.320696E+0	1.422748E+0	1.408203E+0	1.339783E+0	1.403685E+0	1.446925E+0	1.342127E+0	1.322938E+0	1.219352E+0	1.441084E+0	1.208329E+0	1.288771E+0	1.356658E+0	1.344597E+0	1.229662E+0	1.341304E+0	1.373686E+0	1.470375E+0	1.385217E+0	1.403867E+0	1.378639E+0	1.411754E+0	1.046129E+0	1.357051E+0	1.386541E+0	1.367220E+0	1.240520E+0	1.397261E+0	1.352560E+0	1.324082E+0	1.351965E+0	1.431501E+0	1.321489E+0	1.419165E+0	1.522192E+0	1.430454E+0	1.471169E+0	1.371209E+0	1.334402E+0	1.336686E+0	1.398805E+0	1.416774E+0	1.182204E+0	1.333867E+0	1.348958E+0	1.375693E+0	1.232792E+0	1.350469E+0	1.364461E+0	1.416270E+0	1.332769E+0	1.442177E+0	1.442875E+0	1.419959E+0	1.280271E+0	1.488961E+0	1.421603E+0	1.370051E+0	1.203146E+0	1.470586E+0	1.442693E+0	1.328344E+0	1.262521E+0	1.435127E+0	1.385327E+0	1.391028E+0	1.366720E+0	1.405855E+0	1.432319E+0	1.447893E+0	1.307652E+0	1.477784E+0	1.447967E+0	1.552384E+0	1.161614E+0	1.450801E+0	1.430248E+0	1.542275E+0	1.246926E+0	1.397264E+0	1.376086E+0	1.408698E+0	1.368100E+0	1.374801E+0	1.468905E+0	1.401563E+0	1.320606E+0	1.434895E+0	1.417885E+0	1.380482E+0	1.281807E+0	1.407604E+0	1.402461E+0	1.347394E+0	1.378164E+0	1.571969E+0
5.348020E+2	1.569339E+0	1.867969E+0	1.445593E+0	1.603406E+0	1.743908E+0	1.770549E+0	1.757475E+0	1.773399E+0	1.735275E+0	1.785787E+0	1.874860E+0	1.860068E+0	1.728493E+0	1.956802E+0	1.915963E+0	1.853242E+0	1.780009E+0	1.860810E+0	1.782287E+0	1.777421E+0	1.739673E+0	1.806675E+0	1.634695E+0	1.812552E+0	1.539836E+0	1.781988E+0	1.718043E+0	1.797694E+0	1.830131E+0	1.728241E+0	1.784659E+0	1.836922E+0	1.820104E+0	1.737265E+0	1.743909E+0	1.731539E+0	1.785909E+0	1.843883E+0	1.808476E+0	1.791240E+0	1.818077E+0	1.701541E+0	1.621880E+0	1.722901E+0	1.963555E+0	1.805919E+0	1.702352E+0	1.726478E+0	1.535383E+0	1.748643E+0	1.636652E+0	1.709644E+0	1.796974E+0	1.692950E+0	1.701479E+0	1.821002E+0	1.774721E+0	1.593800E+0	1.656648E+0	1.729618E+0	1.791859E+0	1.720250E+0	1.757185E+0	1.803453E+0	1.723028E+0	1.584306E+0	1.732278E+0	1.847889E+0	1.708326E+0	1.522304E+0	1.646827E+0	1.827324E+0	1.773840E+0	1.738523E+0	1.639524E+0	1.645839E+0	1.714171E+0	1.823476E+0	1.704407E+0	1.710888E+0	1.775129E+0	1.762681E+0	1.669481E+0	1.558162E+0	1.790686E+0	1.519624E+0	1.593245E+0	1.663368E+0	1.693837E+0	1.576545E+0	1.665486E+0	1.680150E+0	1.803194E+0	1.729813E+0	1.731460E+0	1.758402E+0	1.750001E+0	1.309963E+0	1.818090E+0	1.671988E+0	1.703934E+0	1.483359E+0	1.825138E+0	1.752406E+0	1.677810E+0	1.727397E+0	1.800248E+0	1.693188E+0	1.774408E+0	1.873106E+0	1.792146E+0	1.773775E+0	1.728643E+0	1.598912E+0	1.647756E+0	1.704008E+0	1.779673E+0	1.448644E+0	1.700727E+0	1.730700E+0	1.689552E+0	1.555558E+0	1.733665E+0	1.776224E+0	1.703585E+0	1.677560E+0	1.901891E+0	1.775078E+0	1.726352E+0	1.596291E+0	1.874987E+0	1.842455E+0	1.664587E+0	1.506371E+0	1.857078E+0	1.761343E+0	1.658193E+0	1.615141E+0	1.801049E+0	1.683289E+0	1.741663E+0	1.637539E+0	1.805305E+0	1.811639E+0	1.820734E+0	1.604359E+0	1.814119E+0	1.843720E+0	1.921622E+0	1.452325E+0	1.804553E+0	1.702586E+0	1.834384E+0	1.535047E+0	1.733047E+0	1.788191E+0	1.835114E+0	1.694193E+0	1.784633E+0	1.765599E+0	1.760934E+0	1.635093E+0	1.753638E+0	1.724649E+0	1.698094E+0	1.615436E+0	1.690623E+0	1.756143E+0	1.848535E+0	1.690200E+0	1.900645E+0
5.349630E+2	1.814946E+0	2.213711E+0	1.666447E+0	1.873824E+0	2.095377E+0	1.996060E+0	2.021457E+0	2.018964E+0	2.044424E+0	2.069889E+0	2.182161E+0	2.167556E+0	2.017890E+0	2.242768E+0	2.187739E+0	2.068060E+0	2.004174E+0	2.054383E+0	2.079998E+0	2.061694E+0	1.966388E+0	2.070417E+0	1.927154E+0	2.096740E+0	1.779919E+0	2.053248E+0	2.011656E+0	2.024363E+0	2.135946E+0	2.018115E+0	2.056819E+0	2.121178E+0	2.085229E+0	2.045194E+0	2.051820E+0	2.091273E+0	2.027491E+0	2.013495E+0	2.149317E+0	1.966626E+0	2.155537E+0	1.952669E+0	1.861748E+0	1.945205E+0	2.168553E+0	2.065822E+0	2.030502E+0	2.047953E+0	1.856118E+0	2.106762E+0	1.891588E+0	2.007597E+0	2.059501E+0	2.059319E+0	1.913478E+0	2.126156E+0	1.996254E+0	1.996305E+0	1.934522E+0	1.993548E+0	2.023629E+0	2.013807E+0	1.969222E+0	2.133690E+0	1.989522E+0	1.873598E+0	1.988586E+0	2.213273E+0	1.975977E+0	2.093778E+0	1.897794E+0	2.079910E+0	1.959835E+0	2.142523E+0	1.900574E+0	1.982507E+0	1.992770E+0	2.217541E+0	2.007492E+0	2.019543E+0	2.067919E+0	2.096500E+0	1.870955E+0	1.755756E+0	2.062377E+0	1.937232E+0	1.913492E+0	2.020673E+0	2.006760E+0	1.963562E+0	1.970179E+0	1.928513E+0	2.011849E+0	1.998388E+0	1.991012E+0	1.990025E+0	2.066998E+0	1.666917E+0	2.024462E+0	1.997599E+0	2.055129E+0	1.782904E+0	2.112676E+0	1.967334E+0	1.894708E+0	1.964255E+0	2.026541E+0	1.942810E+0	2.026373E+0	2.148823E+0	2.028830E+0	2.076387E+0	2.001483E+0	1.909444E+0	1.904546E+0	2.029952E+0	2.016690E+0	1.734756E+0	1.987929E+0	2.027849E+0	1.903231E+0	1.758516E+0	2.004752E+0	1.970152E+0	2.009168E+0	2.009073E+0	2.146957E+0	2.080179E+0	2.021644E+0	1.943913E+0	2.167486E+0	2.044265E+0	1.908253E+0	1.677713E+0	2.108356E+0	1.981364E+0	1.926414E+0	1.816994E+0	2.042152E+0	1.981859E+0	1.982983E+0	1.949550E+0	2.081977E+0	2.060537E+0	2.084751E+0	1.863312E+0	2.101246E+0	2.007050E+0	2.134625E+0	1.722871E+0	2.064990E+0	2.012850E+0	2.002610E+0	1.758642E+0	1.962826E+0	1.987334E+0	2.101489E+0	1.964030E+0	2.011527E+0	1.942190E+0	1.957906E+0	1.833515E+0	2.062847E+0	1.931699E+0	1.922875E+0	1.866529E+0	1.991533E+0	1.960804E+0	2.028983E+0	1.894029E+0	2.138647E+0
5.351350E+2	1.928922E+0	2.340756E+0	1.763709E+0	1.931262E+0	2.155191E+0	2.130684E+0	2.086757E+0	2.108965E+0	2.102883E+0	2.250836E+0	2.180335E+0	2.187194E+0	2.157156E+0	2.366066E+0	2.318011E+0	2.224459E+0	2.080446E+0	2.219278E+0	2.136587E+0	2.143324E+0	2.064039E+0	2.180080E+0	2.026928E+0	2.145165E+0	1.842104E+0	2.109864E+0	2.095462E+0	2.086745E+0	2.174820E+0	2.094370E+0	2.126054E+0	2.167602E+0	2.079062E+0	2.094596E+0	2.199158E+0	2.145898E+0	2.119939E+0	2.103031E+0	2.158285E+0	2.090881E+0	2.206620E+0	2.054504E+0	1.910501E+0	2.093812E+0	2.363026E+0	2.181552E+0	2.132896E+0	2.070253E+0	1.888618E+0	2.246716E+0	2.006515E+0	1.961042E+0	2.146848E+0	2.114228E+0	2.009468E+0	2.176413E+0	2.072682E+0	2.072184E+0	2.022303E+0	2.080488E+0	2.139263E+0	2.090912E+0	2.079259E+0	2.223035E+0	2.085334E+0	2.029367E+0	2.030566E+0	2.303137E+0	2.048791E+0	2.182836E+0	2.002017E+0	2.105624E+0	2.086939E+0	2.278569E+0	1.999394E+0	1.925487E+0	2.047994E+0	2.189429E+0	1.996723E+0	2.046144E+0	2.119273E+0	2.152993E+0	1.937736E+0	1.838281E+0	2.126650E+0	2.064992E+0	1.877606E+0	1.986944E+0	2.042466E+0	2.016884E+0	2.049897E+0	2.067501E+0	2.141162E+0	2.141929E+0	2.116001E+0	2.101012E+0	2.105475E+0	1.985556E+0	2.132535E+0	2.099240E+0	2.076353E+0	2.106202E+0	2.148614E+0	2.127058E+0	2.008261E+0	2.191956E+0	2.097142E+0	2.026016E+0	2.077200E+0	2.213053E+0	2.117976E+0	2.176091E+0	2.111510E+0	2.073917E+0	1.957606E+0	2.062351E+0	1.997514E+0	1.963268E+0	2.025318E+0	2.066973E+0	2.025417E+0	1.940809E+0	2.096591E+0	2.131533E+0	2.058294E+0	2.081866E+0	2.258869E+0	2.149429E+0	2.045071E+0	1.942192E+0	2.158697E+0	2.100872E+0	2.061820E+0	1.801098E+0	2.174765E+0	2.149905E+0	1.947128E+0	1.895853E+0	2.175520E+0	2.054831E+0	2.035062E+0	2.058449E+0	2.148839E+0	2.110938E+0	2.142059E+0	1.948846E+0	2.104984E+0	2.098136E+0	2.242947E+0	1.783864E+0	2.189413E+0	2.090282E+0	2.138232E+0	1.848642E+0	2.095792E+0	2.063343E+0	2.121769E+0	2.005984E+0	2.070806E+0	2.078906E+0	2.080166E+0	1.932463E+0	2.085753E+0	2.073642E+0	2.033956E+0	1.899842E+0	2.063648E+0	2.033148E+0	2.149575E+0	2.039983E+0	2.249718E+0
5.352600E+2	1.813342E+0	2.235833E+0	1.649787E+0	1.867246E+0	2.013815E+0	2.079166E+0	2.014199E+0	2.000233E+0	2.078176E+0	2.146534E+0	2.112322E+0	2.103107E+0	1.996651E+0	2.221009E+0	2.208686E+0	2.104914E+0	2.013488E+0	2.057692E+0	2.056623E+0	2.046640E+0	1.987487E+0	2.036882E+0	1.941341E+0	2.123153E+0	1.819931E+0	2.032143E+0	1.970039E+0	2.024359E+0	2.079966E+0	1.986830E+0	2.035334E+0	2.069536E+0	2.075141E+0	2.039438E+0	2.071063E+0	2.051175E+0	2.088810E+0	2.028793E+0	2.101302E+0	2.018242E+0	2.066416E+0	1.932404E+0	1.829619E+0	1.930228E+0	2.218421E+0	2.053346E+0	2.034398E+0	2.007534E+0	1.780467E+0	2.117936E+0	1.885755E+0	1.931360E+0	2.035550E+0	2.098077E+0	1.977127E+0	2.113201E+0	2.073877E+0	2.060639E+0	2.003291E+0	2.004727E+0	2.052909E+0	1.995612E+0	1.916803E+0	2.128756E+0	1.997905E+0	1.886624E+0	1.921193E+0	2.172477E+0	1.969579E+0	2.030227E+0	1.924239E+0	2.087979E+0	1.974995E+0	2.123593E+0	1.867441E+0	1.984934E+0	2.063280E+0	2.167686E+0	1.887487E+0	1.962938E+0	2.022465E+0	2.038862E+0	1.887080E+0	1.801667E+0	2.013202E+0	1.982994E+0	1.895005E+0	1.917907E+0	1.955916E+0	1.853480E+0	1.980218E+0	2.006549E+0	2.027305E+0	1.980884E+0	2.002603E+0	1.949492E+0	2.033691E+0	1.933663E+0	2.056079E+0	1.944042E+0	1.972636E+0	2.052885E+0	2.056194E+0	2.020934E+0	1.865748E+0	2.033847E+0	1.977378E+0	1.946447E+0	2.070713E+0	2.217755E+0	2.072891E+0	2.122251E+0	2.049182E+0	2.013776E+0	1.905154E+0	2.013102E+0	1.968993E+0	1.995575E+0	1.968961E+0	1.931092E+0	1.871962E+0	1.949075E+0	1.966118E+0	2.011990E+0	2.031446E+0	1.991858E+0	2.109652E+0	2.025986E+0	1.963079E+0	2.005393E+0	2.089655E+0	2.036268E+0	1.976558E+0	1.982932E+0	2.095198E+0	1.983532E+0	1.925380E+0	1.949909E+0	2.023102E+0	1.930780E+0	1.946374E+0	1.930140E+0	2.012807E+0	2.049103E+0	1.978498E+0	1.978337E+0	2.071349E+0	2.049771E+0	2.174723E+0	1.960949E+0	2.107073E+0	1.937520E+0	2.030646E+0	1.892795E+0	1.993466E+0	2.021257E+0	2.056543E+0	1.960218E+0	2.038611E+0	1.990611E+0	2.039415E+0	1.885396E+0	2.019583E+0	1.962202E+0	1.922872E+0	1.909781E+0	1.897195E+0	2.050464E+0	2.025407E+0	1.867608E+0	2.134114E+0
5.354060E+2	1.590208E+0	1.928014E+0	1.565425E+0	1.702119E+0	1.812624E+0	1.808940E+0	1.758589E+0	1.793687E+0	1.808196E+0	1.884328E+0	1.907050E+0	1.863137E+0	1.801580E+0	1.976483E+0	2.005365E+0	1.892338E+0	1.799221E+0	1.837647E+0	1.798893E+0	1.843423E+0	1.757341E+0	1.825706E+0	1.754517E+0	1.834076E+0	1.571198E+0	1.812351E+0	1.742317E+0	1.828575E+0	1.828581E+0	1.766858E+0	1.813783E+0	1.803284E+0	1.849813E+0	1.746378E+0	1.765560E+0	1.761760E+0	1.781263E+0	1.766947E+0	1.820612E+0	1.782637E+0	1.816989E+0	1.719669E+0	1.740429E+0	1.779231E+0	2.004002E+0	1.828369E+0	1.795972E+0	1.743199E+0	1.620099E+0	1.785102E+0	1.702576E+0	1.721864E+0	1.878325E+0	1.854909E+0	1.698397E+0	1.814263E+0	1.744866E+0	1.794502E+0	1.741629E+0	1.796685E+0	1.846949E+0	1.791123E+0	1.760019E+0	1.839983E+0	1.781117E+0	1.716740E+0	1.715154E+0	1.904648E+0	1.700942E+0	1.851178E+0	1.648382E+0	1.831862E+0	1.730694E+0	1.894085E+0	1.690360E+0	1.707110E+0	1.809829E+0	1.903565E+0	1.751077E+0	1.766037E+0	1.747975E+0	1.973245E+0	1.655666E+0	1.602333E+0	1.846193E+0	1.812809E+0	1.630216E+0	1.706052E+0	1.807023E+0	1.768043E+0	1.728669E+0	1.747936E+0	1.776405E+0	1.763321E+0	1.817638E+0	1.750684E+0	1.826377E+0	1.731906E+0	1.818663E+0	1.789450E+0	1.804762E+0	1.789690E+0	1.846816E+0	1.793141E+0	1.651126E+0	1.803095E+0	1.851941E+0	1.715051E+0	1.831722E+0	1.891382E+0	1.741426E+0	1.810669E+0	1.785880E+0	1.835182E+0	1.658739E+0	1.822595E+0	1.763450E+0	1.789074E+0	1.711022E+0	1.757666E+0	1.687234E+0	1.751799E+0	1.833101E+0	1.814077E+0	1.812110E+0	1.772982E+0	1.982814E+0	1.811708E+0	1.792312E+0	1.797972E+0	1.912019E+0	1.817844E+0	1.726593E+0	1.731663E+0	1.912119E+0	1.803070E+0	1.699096E+0	1.685565E+0	1.799079E+0	1.752001E+0	1.722070E+0	1.766320E+0	1.839887E+0	1.864641E+0	1.792403E+0	1.786042E+0	1.865815E+0	1.846232E+0	1.959640E+0	1.811412E+0	1.821021E+0	1.817418E+0	1.865030E+0	1.721282E+0	1.791871E+0	1.745475E+0	1.809354E+0	1.750927E+0	1.845955E+0	1.810223E+0	1.794278E+0	1.805705E+0	1.831260E+0	1.757493E+0	1.731995E+0	1.916744E+0	1.770323E+0	1.839615E+0	1.811910E+0	1.817280E+0	2.032111E+0
5.355630E+2	1.300187E+0	1.571527E+0	1.216140E+0	1.367680E+0	1.473018E+0	1.450748E+0	1.459446E+0	1.457079E+0	1.449027E+0	1.568528E+0	1.551164E+0	1.557487E+0	1.445512E+0	1.598821E+0	1.577779E+0	1.570557E+0	1.471421E+0	1.479183E+0	1.515943E+0	1.441622E+0	1.458985E+0	1.475870E+0	1.472328E+0	1.505872E+0	1.319213E+0	1.474693E+0	1.481073E+0	1.427122E+0	1.551273E+0	1.492626E+0	1.474295E+0	1.527557E+0	1.476505E+0	1.489767E+0	1.525607E+0	1.522906E+0	1.459776E+0	1.457858E+0	1.518292E+0	1.427083E+0	1.577888E+0	1.401363E+0	1.349872E+0	1.458056E+0	1.548571E+0	1.472190E+0	1.445390E+0	1.440300E+0	1.315879E+0	1.505784E+0	1.334469E+0	1.391902E+0	1.540428E+0	1.514381E+0	1.376548E+0	1.513775E+0	1.485719E+0	1.464029E+0	1.421260E+0	1.438987E+0	1.484658E+0	1.510496E+0	1.440300E+0	1.562567E+0	1.476294E+0	1.391088E+0	1.450562E+0	1.562917E+0	1.415090E+0	1.513955E+0	1.361640E+0	1.499623E+0	1.443832E+0	1.544511E+0	1.389324E+0	1.394094E+0	1.474521E+0	1.570496E+0	1.479786E+0	1.460774E+0	1.488241E+0	1.561248E+0	1.385111E+0	1.315822E+0	1.501948E+0	1.454316E+0	1.416541E+0	1.438866E+0	1.448706E+0	1.426324E+0	1.444049E+0	1.487611E+0	1.563112E+0	1.445736E+0	1.426544E+0	1.471288E+0	1.530629E+0	1.460798E+0	1.557103E+0	1.441318E+0	1.415460E+0	1.480451E+0	1.473708E+0	1.427064E+0	1.388242E+0	1.525945E+0	1.511556E+0	1.388904E+0	1.551639E+0	1.557178E+0	1.469389E+0	1.546943E+0	1.404918E+0	1.463895E+0	1.407442E+0	1.479800E+0	1.430050E+0	1.485173E+0	1.429237E+0	1.456290E+0	1.436498E+0	1.395466E+0	1.494246E+0	1.526512E+0	1.509376E+0	1.474914E+0	1.628703E+0	1.502091E+0	1.442154E+0	1.456094E+0	1.644628E+0	1.482516E+0	1.441262E+0	1.506369E+0	1.517846E+0	1.495258E+0	1.407571E+0	1.422217E+0	1.525126E+0	1.490523E+0	1.417325E+0	1.477985E+0	1.460035E+0	1.525849E+0	1.528385E+0	1.507621E+0	1.556264E+0	1.508271E+0	1.619045E+0	1.496107E+0	1.559362E+0	1.491354E+0	1.498588E+0	1.482969E+0	1.396648E+0	1.478483E+0	1.521606E+0	1.456774E+0	1.503575E+0	1.468430E+0	1.392918E+0	1.506196E+0	1.452709E+0	1.407914E+0	1.470707E+0	1.569690E+0	1.531765E+0	1.469857E+0	1.426899E+0	1.535439E+0	1.574235E+0
5.357190E+2	1.159993E+0	1.373059E+0	1.068901E+0	1.172638E+0	1.293084E+0	1.270439E+0	1.347265E+0	1.257296E+0	1.218823E+0	1.310357E+0	1.279092E+0	1.324877E+0	1.224266E+0	1.406102E+0	1.359132E+0	1.262711E+0	1.283358E+0	1.259139E+0	1.316030E+0	1.320039E+0	1.246012E+0	1.244754E+0	1.170575E+0	1.269130E+0	1.140230E+0	1.276008E+0	1.198439E+0	1.230099E+0	1.352751E+0	1.296608E+0	1.251792E+0	1.309154E+0	1.248371E+0	1.237954E+0	1.276636E+0	1.266620E+0	1.293457E+0	1.245501E+0	1.318855E+0	1.222539E+0	1.305097E+0	1.209419E+0	1.135479E+0	1.274702E+0	1.391776E+0	1.362941E+0	1.303499E+0	1.224746E+0	1.169365E+0	1.305261E+0	1.173457E+0	1.240018E+0	1.328305E+0	1.234300E+0	1.212285E+0	1.326223E+0	1.254039E+0	1.206691E+0	1.200969E+0	1.225358E+0	1.279193E+0	1.233696E+0	1.287289E+0	1.295023E+0	1.246931E+0	1.174528E+0	1.226294E+0	1.385547E+0	1.233047E+0	1.311711E+0	1.165119E+0	1.323670E+0	1.229852E+0	1.416156E+0	1.193393E+0	1.213325E+0	1.259531E+0	1.388049E+0	1.259778E+0	1.215495E+0	1.275736E+0	1.290198E+0	1.207234E+0	1.156008E+0	1.297449E+0	1.254567E+0	1.162629E+0	1.237031E+0	1.272571E+0	1.246291E+0	1.239150E+0	1.232413E+0	1.257086E+0	1.232175E+0	1.250653E+0	1.258486E+0	1.254404E+0	1.229456E+0	1.282895E+0	1.287947E+0	1.256747E+0	1.255549E+0	1.311116E+0	1.262514E+0	1.213361E+0	1.362342E+0	1.264462E+0	1.194554E+0	1.229922E+0	1.361881E+0	1.317746E+0	1.269262E+0	1.292345E+0	1.260143E+0	1.222019E+0	1.259486E+0	1.269743E+0	1.228561E+0	1.232532E+0	1.192985E+0	1.221660E+0	1.252418E+0	1.274464E+0	1.253552E+0	1.291753E+0	1.230953E+0	1.374453E+0	1.262727E+0	1.254127E+0	1.265904E+0	1.352129E+0	1.314544E+0	1.291572E+0	1.215136E+0	1.318621E+0	1.299082E+0	1.253266E+0	1.255082E+0	1.284024E+0	1.263708E+0	1.270884E+0	1.254039E+0	1.317664E+0	1.262406E+0	1.296569E+0	1.280517E+0	1.328927E+0	1.346827E+0	1.364899E+0	1.258518E+0	1.356870E+0	1.231659E+0	1.359052E+0	1.270135E+0	1.293098E+0	1.320176E+0	1.251941E+0	1.317088E+0	1.266979E+0	1.276176E+0	1.288566E+0	1.328095E+0	1.301923E+0	1.288842E+0	1.195342E+0	1.362354E+0	1.273685E+0	1.284978E+0	1.250025E+0	1.381937E+0	1.270496E+0
5.358600E+2	9.336484E-1	1.182807E+0	8.792130E-1	1.009905E+0	1.101777E+0	1.047845E+0	1.126814E+0	1.071565E+0	1.075998E+0	1.089067E+0	1.158845E+0	1.103928E+0	1.034624E+0	1.131013E+0	1.157856E+0	1.149905E+0	1.014362E+0	1.099206E+0	1.084748E+0	1.026504E+0	1.065430E+0	1.102462E+0	1.034615E+0	1.095979E+0	9.082553E-1	1.016585E+0	1.062615E+0	1.023195E+0	1.130905E+0	1.022378E+0	1.099474E+0	1.093594E+0	1.116090E+0	1.053774E+0	1.085998E+0	1.076002E+0	1.129461E+0	1.092982E+0	1.125219E+0	1.066746E+0	1.095882E+0	1.093188E+0	9.720550E-1	1.084154E+0	1.165722E+0	1.109025E+0	1.036786E+0	1.058431E+0	9.301466E-1	1.099444E+0	9.826934E-1	1.079402E+0	1.136146E+0	1.052038E+0	1.004904E+0	1.141265E+0	1.091027E+0	1.075821E+0	1.060073E+0	1.122271E+0	1.037497E+0	1.075663E+0	1.046912E+0	1.108431E+0	1.060086E+0	1.005186E+0	1.055607E+0	1.150238E+0	1.047070E+0	1.099265E+0	1.003342E+0	1.051424E+0	1.045024E+0	1.183694E+0	1.013456E+0	1.090182E+0	1.050461E+0	1.187571E+0	1.053620E+0	1.055367E+0	1.141738E+0	1.168083E+0	1.011513E+0	9.305204E-1	1.082232E+0	1.042904E+0	9.886423E-1	1.028341E+0	1.095834E+0	1.067975E+0	1.057278E+0	1.062090E+0	1.129315E+0	1.074132E+0	1.092901E+0	1.091523E+0	1.056853E+0	1.039338E+0	1.071346E+0	1.073103E+0	1.061374E+0	1.082022E+0	1.129123E+0	1.060984E+0	1.041322E+0	1.110832E+0	1.083556E+0	1.099808E+0	1.110423E+0	1.190601E+0	1.075935E+0	1.120202E+0	1.072928E+0	1.099352E+0	1.006099E+0	1.076751E+0	1.099112E+0	1.056243E+0	1.005479E+0	1.065562E+0	1.008558E+0	1.086127E+0	1.111685E+0	1.112091E+0	1.115254E+0	1.052901E+0	1.132258E+0	1.131251E+0	1.109871E+0	1.112491E+0	1.183911E+0	1.110887E+0	1.040639E+0	1.135710E+0	1.130759E+0	1.127834E+0	1.022841E+0	1.065135E+0	1.130953E+0	1.132361E+0	1.085768E+0	1.058500E+0	1.125721E+0	1.082619E+0	1.125282E+0	1.061675E+0	1.166989E+0	1.076708E+0	1.165438E+0	1.113409E+0	1.152548E+0	1.047292E+0	1.132797E+0	1.054467E+0	1.076185E+0	1.055073E+0	1.135747E+0	1.066796E+0	1.060016E+0	1.130914E+0	1.103324E+0	1.087951E+0	1.067793E+0	1.099387E+0	1.013328E+0	1.222141E+0	1.082835E+0	1.091443E+0	1.143722E+0	1.151684E+0	1.107291E+0
5.360070E+2	8.405419E-1	1.011517E+0	8.217151E-1	8.387954E-1	9.678138E-1	9.273140E-1	1.044214E+0	9.196483E-1	9.054535E-1	9.501840E-1	1.051351E+0	9.486495E-1	9.091858E-1	1.017038E+0	1.030651E+0	9.741830E-1	8.938383E-1	9.585767E-1	1.060759E+0	9.367644E-1	9.000571E-1	9.144026E-1	1.052222E+0	9.355432E-1	8.060559E-1	8.997425E-1	9.672477E-1	9.101702E-1	9.272037E-1	8.938165E-1	9.791500E-1	9.609412E-1	9.412078E-1	9.305052E-1	9.320436E-1	9.045618E-1	9.320173E-1	9.260640E-1	9.848752E-1	9.004377E-1	9.937203E-1	9.220382E-1	8.418691E-1	9.085886E-1	9.889804E-1	9.483971E-1	9.334163E-1	9.004800E-1	8.289181E-1	9.506698E-1	8.730186E-1	8.716495E-1	9.325087E-1	8.997691E-1	8.796556E-1	9.438737E-1	8.963675E-1	8.883155E-1	9.152641E-1	9.359672E-1	9.456836E-1	9.157151E-1	8.868159E-1	9.633068E-1	9.241444E-1	8.732961E-1	9.346348E-1	9.758256E-1	8.655189E-1	9.842274E-1	9.037858E-1	9.324426E-1	9.120887E-1	9.606982E-1	8.586527E-1	9.263975E-1	9.365556E-1	9.828517E-1	8.951536E-1	9.194242E-1	9.758631E-1	9.443949E-1	8.629950E-1	8.293999E-1	9.342135E-1	8.846334E-1	8.924057E-1	8.871064E-1	9.136489E-1	9.074345E-1	8.452906E-1	9.020220E-1	9.433279E-1	9.140872E-1	9.119701E-1	9.409679E-1	1.009188E+0	9.025706E-1	9.420031E-1	9.641591E-1	9.016965E-1	9.627850E-1	9.134731E-1	9.527146E-1	9.101634E-1	9.600491E-1	9.707238E-1	9.425042E-1	9.184745E-1	1.022977E+0	9.437597E-1	9.407299E-1	9.330084E-1	9.219912E-1	9.054588E-1	9.303045E-1	9.530666E-1	9.134232E-1	9.144417E-1	9.090592E-1	8.690005E-1	8.883375E-1	9.425732E-1	9.460576E-1	9.404690E-1	9.269865E-1	9.841853E-1	9.867299E-1	8.971845E-1	9.975735E-1	9.604563E-1	9.921380E-1	9.238903E-1	9.303971E-1	9.919563E-1	9.728435E-1	8.788908E-1	8.687385E-1	8.944486E-1	9.231783E-1	9.300445E-1	9.230895E-1	9.308954E-1	9.521952E-1	9.836151E-1	9.307221E-1	9.465048E-1	9.881343E-1	9.852446E-1	9.461647E-1	1.006167E+0	9.156009E-1	9.847864E-1	9.316331E-1	9.089050E-1	9.124698E-1	9.899515E-1	9.013668E-1	9.307294E-1	9.410301E-1	9.063497E-1	9.697517E-1	9.876290E-1	9.416055E-1	9.210179E-1	1.035689E+0	9.028281E-1	9.585039E-1	9.695284E-1	9.944077E-1	1.003023E+0
5.362630E+2	6.104521E-1	8.231615E-1	6.207416E-1	6.479426E-1	7.359737E-1	6.925697E-1	8.326929E-1	6.917740E-1	6.818776E-1	7.698094E-1	7.993185E-1	7.405895E-1	6.889268E-1	7.797673E-1	7.731801E-1	7.288027E-1	7.005333E-1	7.175769E-1	7.858043E-1	6.970731E-1	6.684385E-1	7.213560E-1	7.876375E-1	7.305976E-1	6.157172E-1	7.293676E-1	7.840285E-1	7.143839E-1	7.146889E-1	6.855768E-1	7.537797E-1	7.235878E-1	7.433443E-1	7.017163E-1	7.161472E-1	7.209180E-1	7.420053E-1	7.299043E-1	7.796342E-1	7.111905E-1	7.535320E-1	6.970383E-1	6.701344E-1	7.102530E-1	7.418738E-1	7.338909E-1	7.335033E-1	6.983945E-1	6.328552E-1	7.430906E-1	7.382593E-1	6.871748E-1	7.024179E-1	6.995131E-1	7.739124E-1	7.666868E-1	6.999174E-1	7.255536E-1	7.821952E-1	7.496634E-1	7.139154E-1	6.997365E-1	7.489176E-1	7.194567E-1	6.756164E-1	6.643346E-1	7.633950E-1	7.683033E-1	6.888889E-1	7.328179E-1	8.135626E-1	7.605240E-1	6.695388E-1	7.856136E-1	7.718253E-1	6.873929E-1	7.023341E-1	7.977550E-1	7.069433E-1	6.997873E-1	7.320699E-1	7.640754E-1	6.879978E-1	6.161176E-1	7.326336E-1	7.349437E-1	7.004772E-1	7.042393E-1	7.260164E-1	6.689181E-1	7.390021E-1	7.009393E-1	7.609478E-1	6.885246E-1	6.781185E-1	7.093451E-1	7.708655E-1	6.949939E-1	7.143587E-1	6.921054E-1	7.261007E-1	7.693884E-1	7.297708E-1	7.468960E-1	6.745321E-1	7.238011E-1	6.801373E-1	6.843808E-1	6.800237E-1	7.519576E-1	7.250037E-1	7.403201E-1	7.390293E-1	6.869414E-1	6.889295E-1	7.138741E-1	7.012976E-1	7.411026E-1	7.003949E-1	7.298203E-1	6.958561E-1	7.220482E-1	7.063233E-1	7.056412E-1	7.531175E-1	7.681164E-1	7.752766E-1	7.232788E-1	6.863483E-1	7.344140E-1	7.708969E-1	7.189543E-1	7.262430E-1	7.205893E-1	7.699925E-1	7.544480E-1	6.629655E-1	6.906924E-1	7.242963E-1	7.291985E-1	7.083185E-1	7.071916E-1	7.147431E-1	7.334373E-1	7.144491E-1	7.555302E-1	7.129417E-1	7.305791E-1	7.654716E-1	7.139887E-1	7.347521E-1	7.491438E-1	7.800476E-1	6.825685E-1	7.189545E-1	7.158411E-1	7.537224E-1	7.020874E-1	7.467634E-1	7.079486E-1	6.976432E-1	7.050064E-1	7.083277E-1	7.527376E-1	7.317031E-1	7.955362E-1	7.038469E-1	7.371439E-1	7.506697E-1	7.742207E-1	8.330179E-1
5.365190E+2	5.023634E-1	6.348058E-1	4.853271E-1	5.234993E-1	5.505999E-1	5.871048E-1	6.674931E-1	5.570266E-1	5.812379E-1	6.182489E-1	6.456694E-1	5.564645E-1	5.333625E-1	6.756369E-1	6.005111E-1	5.751026E-1	5.345949E-1	5.725359E-1	6.141886E-1	5.482792E-1	5.884517E-1	5.464359E-1	6.697734E-1	5.677175E-1	4.978370E-1	5.615670E-1	5.753777E-1	5.402139E-1	5.923631E-1	5.672812E-1	5.852302E-1	5.833553E-1	5.443591E-1	5.669365E-1	5.627942E-1	5.826044E-1	5.900894E-1	5.620879E-1	6.150195E-1	5.424929E-1	5.937685E-1	5.546802E-1	5.637694E-1	5.382823E-1	6.565503E-1	5.737603E-1	5.613826E-1	5.776080E-1	4.874058E-1	5.743221E-1	6.035002E-1	5.480903E-1	5.791370E-1	5.666241E-1	5.901444E-1	5.977894E-1	5.625806E-1	5.457462E-1	5.825927E-1	5.608762E-1	5.903388E-1	5.622954E-1	5.718225E-1	5.911149E-1	6.049509E-1	5.405860E-1	6.170132E-1	6.541961E-1	5.850759E-1	5.811360E-1	6.471164E-1	5.840683E-1	5.628403E-1	6.335971E-1	6.164512E-1	5.345260E-1	5.795527E-1	6.169012E-1	5.454004E-1	5.943236E-1	5.963009E-1	6.065812E-1	5.907127E-1	5.591643E-1	5.885087E-1	5.466391E-1	6.341449E-1	5.487761E-1	5.516997E-1	5.915147E-1	6.114558E-1	5.477068E-1	5.734156E-1	5.399832E-1	5.843765E-1	5.843649E-1	6.003061E-1	5.669556E-1	6.425017E-1	5.715974E-1	5.495400E-1	5.677506E-1	6.419131E-1	5.614446E-1	5.717618E-1	6.230757E-1	6.574447E-1	5.683775E-1	6.167619E-1	5.671021E-1	5.877046E-1	6.241625E-1	5.495022E-1	5.414929E-1	5.645014E-1	5.732592E-1	5.660702E-1	5.655045E-1	5.974351E-1	5.532253E-1	5.510874E-1	5.485297E-1	6.100496E-1	5.894183E-1	6.011801E-1	5.787519E-1	6.082646E-1	5.837751E-1	6.037403E-1	6.051329E-1	6.076999E-1	5.878998E-1	5.571766E-1	5.467488E-1	6.120453E-1	6.016258E-1	5.485298E-1	5.478592E-1	5.725386E-1	5.826490E-1	5.938462E-1	5.779370E-1	5.764060E-1	5.952196E-1	5.792220E-1	5.915456E-1	5.946024E-1	5.917498E-1	6.238175E-1	5.728144E-1	6.030086E-1	5.626698E-1	5.811778E-1	5.710560E-1	5.951796E-1	5.606744E-1	6.128619E-1	5.690752E-1	5.719966E-1	5.783531E-1	5.858804E-1	5.664830E-1	5.976250E-1	5.697339E-1	5.575130E-1	6.259876E-1	5.693843E-1	5.899833E-1	6.434745E-1	6.609813E-1	7.196828E-1
5.367600E+2	4.338713E-1	5.551653E-1	4.520107E-1	4.714486E-1	4.715076E-1	4.850418E-1	5.469426E-1	4.644199E-1	4.769833E-1	5.064509E-1	5.636831E-1	4.969307E-1	4.923726E-1	5.538927E-1	5.259261E-1	4.897136E-1	5.060648E-1	5.052541E-1	5.373001E-1	5.077515E-1	4.765683E-1	4.875254E-1	5.333242E-1	4.953259E-1	4.091565E-1	5.162709E-1	5.256720E-1	4.704225E-1	5.213522E-1	5.120437E-1	5.222029E-1	5.085010E-1	5.107279E-1	5.036240E-1	5.032574E-1	4.884575E-1	4.994964E-1	4.856033E-1	5.327120E-1	4.927916E-1	5.073662E-1	4.784358E-1	4.424475E-1	5.041281E-1	5.241318E-1	4.660085E-1	4.809294E-1	5.148915E-1	4.208086E-1	5.284547E-1	5.072434E-1	4.543984E-1	5.052681E-1	4.941812E-1	5.490791E-1	4.874366E-1	4.939127E-1	4.946080E-1	5.255636E-1	4.627565E-1	4.930656E-1	4.684330E-1	4.905943E-1	5.037431E-1	4.845792E-1	4.553730E-1	5.402318E-1	5.501397E-1	4.807708E-1	4.841899E-1	5.625969E-1	5.351653E-1	4.806299E-1	5.377739E-1	5.319091E-1	4.908503E-1	5.208743E-1	5.293910E-1	4.889885E-1	4.714437E-1	5.006724E-1	5.152801E-1	5.366017E-1	5.039552E-1	4.974572E-1	4.932462E-1	5.547633E-1	5.145215E-1	5.190154E-1	4.728292E-1	5.045763E-1	4.559953E-1	5.033485E-1	4.874685E-1	5.107938E-1	4.526297E-1	4.992341E-1	5.024521E-1	5.263800E-1	5.460358E-1	4.747670E-1	5.352757E-1	5.899973E-1	5.003423E-1	4.741025E-1	5.052565E-1	5.345283E-1	4.894220E-1	5.015918E-1	5.347262E-1	5.000997E-1	5.254527E-1	5.030743E-1	5.071260E-1	5.303447E-1	4.812440E-1	4.967355E-1	4.807493E-1	5.697984E-1	5.024674E-1	4.717539E-1	4.839767E-1	5.758474E-1	5.176922E-1	4.966521E-1	4.784130E-1	5.497238E-1	5.165320E-1	5.100347E-1	4.838957E-1	5.763157E-1	5.454453E-1	5.077645E-1	4.967945E-1	5.893110E-1	5.273818E-1	4.801793E-1	4.645397E-1	5.061867E-1	4.750176E-1	4.871093E-1	4.822976E-1	5.083902E-1	5.115613E-1	5.141845E-1	5.307879E-1	5.329411E-1	5.421233E-1	5.878831E-1	5.103435E-1	5.743425E-1	5.136809E-1	5.296674E-1	5.099215E-1	4.364786E-1	5.135583E-1	5.300995E-1	5.194937E-1	5.224274E-1	5.166407E-1	4.790573E-1	4.932104E-1	5.454541E-1	5.110788E-1	4.886713E-1	5.509088E-1	5.623362E-1	4.953798E-1	5.005460E-1	5.427090E-1	5.428791E-1
5.370120E+2	4.526000E-1	5.260899E-1	4.396518E-1	4.355514E-1	4.378931E-1	4.587967E-1	5.424778E-1	4.597375E-1	4.926512E-1	5.001117E-1	5.381759E-1	4.957036E-1	4.676798E-1	5.347242E-1	5.570878E-1	4.667932E-1	4.874334E-1	5.096661E-1	5.096199E-1	4.706980E-1	4.780405E-1	4.902446E-1	5.543539E-1	5.183155E-1	4.286223E-1	4.781814E-1	5.008184E-1	4.623932E-1	4.824776E-1	4.744047E-1	4.997611E-1	5.146600E-1	5.040019E-1	4.647732E-1	4.876216E-1	4.768349E-1	4.981030E-1	4.878525E-1	5.042207E-1	4.617283E-1	4.568292E-1	4.587086E-1	4.241658E-1	4.753662E-1	5.174833E-1	4.789788E-1	4.453350E-1	4.851598E-1	4.309307E-1	4.819996E-1	4.594066E-1	4.922246E-1	4.877995E-1	4.706485E-1	5.413793E-1	4.744841E-1	4.479349E-1	4.847106E-1	5.071131E-1	4.875974E-1	5.005099E-1	4.617289E-1	5.146791E-1	4.988070E-1	5.169183E-1	4.434327E-1	5.076417E-1	5.146656E-1	4.478065E-1	5.101662E-1	5.397823E-1	4.857574E-1	4.928742E-1	5.460552E-1	5.210562E-1	4.483872E-1	4.863576E-1	5.002213E-1	4.607826E-1	4.733789E-1	4.835535E-1	4.776185E-1	5.193319E-1	5.056984E-1	4.950232E-1	4.679804E-1	5.466078E-1	4.634028E-1	4.905682E-1	4.911766E-1	4.856802E-1	4.839077E-1	5.182896E-1	4.919698E-1	4.891223E-1	4.757921E-1	4.756895E-1	4.864473E-1	5.556972E-1	5.046492E-1	4.795914E-1	4.926214E-1	5.563372E-1	4.596075E-1	4.922718E-1	5.339482E-1	5.181399E-1	4.724164E-1	4.913191E-1	5.263705E-1	5.287887E-1	5.389132E-1	5.024381E-1	4.862597E-1	5.218052E-1	4.961480E-1	4.421527E-1	5.022891E-1	5.313248E-1	4.961223E-1	4.462747E-1	4.751976E-1	5.486118E-1	4.897981E-1	5.000792E-1	4.966120E-1	5.589069E-1	5.155281E-1	5.094186E-1	5.028565E-1	6.133490E-1	5.011451E-1	4.694945E-1	4.393474E-1	5.887122E-1	4.894476E-1	4.677524E-1	4.486694E-1	5.206389E-1	4.731935E-1	4.468889E-1	4.775632E-1	4.841806E-1	4.933747E-1	5.174044E-1	5.048337E-1	5.285818E-1	4.975222E-1	5.332001E-1	4.955866E-1	5.578749E-1	4.973515E-1	5.048900E-1	4.765244E-1	4.885623E-1	4.921999E-1	5.284550E-1	4.908889E-1	4.984100E-1	4.796134E-1	4.870844E-1	5.124647E-1	5.766294E-1	4.723670E-1	5.043171E-1	5.374841E-1	5.720953E-1	4.842498E-1	5.309180E-1	5.364175E-1	5.474119E-1
5.372690E+2	4.515294E-1	5.532694E-1	4.407260E-1	4.535000E-1	4.972127E-1	5.103141E-1	5.921498E-1	5.044801E-1	5.101270E-1	5.162476E-1	5.746145E-1	5.110474E-1	4.948420E-1	5.580370E-1	5.627073E-1	5.328575E-1	5.037362E-1	4.876068E-1	5.391447E-1	5.367000E-1	5.055206E-1	5.142613E-1	5.768510E-1	5.144021E-1	4.340305E-1	4.925937E-1	5.620846E-1	4.673344E-1	5.260170E-1	4.924910E-1	5.050133E-1	5.179766E-1	5.040019E-1	5.079409E-1	4.966421E-1	4.896199E-1	5.320171E-1	4.946015E-1	5.121352E-1	5.185982E-1	5.095398E-1	5.066942E-1	4.878738E-1	4.825566E-1	5.163755E-1	4.824709E-1	5.355400E-1	4.809787E-1	4.650287E-1	5.384513E-1	5.095772E-1	5.021173E-1	5.137533E-1	5.029482E-1	5.485653E-1	5.485714E-1	4.980928E-1	4.770124E-1	5.596700E-1	4.714511E-1	5.084508E-1	4.804049E-1	4.858717E-1	4.844919E-1	4.905678E-1	4.792547E-1	5.545943E-1	5.069795E-1	5.034034E-1	5.333587E-1	6.009679E-1	5.497858E-1	5.138632E-1	5.567021E-1	5.256263E-1	4.920637E-1	5.267918E-1	5.378771E-1	5.130914E-1	4.830544E-1	5.183813E-1	5.141388E-1	5.331480E-1	5.062796E-1	5.261847E-1	4.937226E-1	5.661815E-1	4.997661E-1	4.990416E-1	4.791361E-1	5.476823E-1	4.935912E-1	5.419888E-1	4.819668E-1	5.460735E-1	5.235645E-1	5.250768E-1	4.854774E-1	5.792668E-1	5.326457E-1	5.041941E-1	5.406073E-1	5.871443E-1	5.024865E-1	4.882974E-1	5.174657E-1	5.666759E-1	5.337586E-1	5.513369E-1	5.456918E-1	5.277644E-1	5.214646E-1	4.948058E-1	5.065124E-1	5.602322E-1	5.181800E-1	5.198471E-1	5.121227E-1	6.033962E-1	4.829045E-1	4.839147E-1	5.263235E-1	5.486113E-1	5.223412E-1	5.075049E-1	5.339924E-1	5.703855E-1	5.150261E-1	5.069526E-1	5.631885E-1	5.756877E-1	5.196036E-1	4.801520E-1	5.112813E-1	5.899087E-1	5.322595E-1	4.693051E-1	4.982643E-1	5.633416E-1	4.914364E-1	5.407353E-1	5.116522E-1	5.441271E-1	5.115612E-1	5.476695E-1	5.178108E-1	5.572313E-1	5.063164E-1	5.863203E-1	5.428087E-1	5.706830E-1	5.289573E-1	5.785695E-1	5.240732E-1	5.191998E-1	5.160714E-1	5.827167E-1	4.923190E-1	5.168068E-1	5.085709E-1	5.037566E-1	5.188828E-1	5.454548E-1	5.609360E-1	5.460390E-1	5.658246E-1	6.387843E-1	5.405175E-1	5.568235E-1	5.389341E-1	5.678125E-1
5.375110E+2	4.938022E-1	5.791835E-1	4.821027E-1	5.540122E-1	5.772937E-1	5.744684E-1	6.395884E-1	6.527544E-1	5.715957E-1	5.923164E-1	6.547792E-1	6.755316E-1	5.664510E-1	6.347101E-1	6.189018E-1	6.101567E-1	5.916548E-1	5.962499E-1	6.111127E-1	5.934379E-1	5.482132E-1	5.618439E-1	6.228230E-1	6.332610E-1	4.945927E-1	5.718612E-1	6.273965E-1	6.087700E-1	5.742218E-1	5.628822E-1	6.176983E-1	5.980420E-1	5.707034E-1	6.172990E-1	5.988776E-1	5.802793E-1	5.891598E-1	5.530897E-1	6.181851E-1	5.458385E-1	5.867045E-1	5.498813E-1	5.471503E-1	5.622503E-1	6.593205E-1	5.737605E-1	5.584570E-1	5.636712E-1	5.001924E-1	5.919631E-1	5.819150E-1	5.608934E-1	5.891193E-1	5.910789E-1	6.332633E-1	5.874278E-1	5.524301E-1	5.374982E-1	6.060754E-1	5.677078E-1	5.620501E-1	5.479284E-1	5.850453E-1	5.738378E-1	5.809961E-1	5.476423E-1	6.037562E-1	5.915260E-1	5.540796E-1	5.695400E-1	6.191158E-1	5.891102E-1	5.669215E-1	5.981074E-1	6.073119E-1	5.448387E-1	5.756082E-1	6.359945E-1	5.479642E-1	5.420757E-1	6.116486E-1	5.906036E-1	6.229494E-1	5.498663E-1	5.953255E-1	5.976479E-1	6.428439E-1	5.914628E-1	5.662264E-1	5.657135E-1	6.020074E-1	5.921392E-1	5.564140E-1	5.299806E-1	5.586731E-1	6.027021E-1	5.802073E-1	5.625910E-1	6.430762E-1	5.843790E-1	5.731779E-1	5.570869E-1	7.052389E-1	5.700206E-1	5.246359E-1	5.779013E-1	6.189944E-1	5.544084E-1	5.864820E-1	5.613575E-1	5.851428E-1	6.121971E-1	5.781217E-1	5.329017E-1	6.139070E-1	5.803871E-1	5.626283E-1	5.921958E-1	6.407862E-1	5.659147E-1	5.505083E-1	5.996560E-1	6.537526E-1	5.661735E-1	5.646241E-1	5.792439E-1	6.782832E-1	5.842767E-1	6.154531E-1	5.850225E-1	6.704675E-1	6.075884E-1	5.833358E-1	5.372580E-1	7.131554E-1	5.924129E-1	5.759738E-1	5.731526E-1	6.152415E-1	6.081888E-1	5.690955E-1	5.859856E-1	5.614189E-1	6.279554E-1	6.139950E-1	5.897760E-1	6.350866E-1	6.074547E-1	6.264210E-1	5.900307E-1	6.725402E-1	5.394923E-1	6.157359E-1	5.716217E-1	5.627042E-1	5.782645E-1	6.386224E-1	5.938659E-1	5.725069E-1	6.139560E-1	5.667387E-1	5.894820E-1	6.377067E-1	5.709071E-1	5.444744E-1	6.334456E-1	6.789060E-1	6.202812E-1	5.711171E-1	6.270102E-1	6.720819E-1
5.377630E+2	6.307857E-1	7.359367E-1	6.089204E-1	6.258058E-1	6.450166E-1	6.595205E-1	7.657196E-1	7.677320E-1	6.656063E-1	6.637746E-1	7.598435E-1	7.264729E-1	6.316397E-1	7.367680E-1	7.282247E-1	6.595927E-1	6.533723E-1	6.673920E-1	7.384406E-1	7.196532E-1	6.502819E-1	6.787586E-1	7.749221E-1	8.078805E-1	6.016577E-1	6.933366E-1	7.302765E-1	7.360007E-1	6.602645E-1	6.767779E-1	6.616268E-1	7.126913E-1	6.867311E-1	6.595082E-1	7.059239E-1	7.174319E-1	6.848626E-1	6.876125E-1	6.967991E-1	7.895656E-1	6.964740E-1	6.586497E-1	6.313555E-1	7.593873E-1	7.407658E-1	7.104451E-1	6.940085E-1	6.784183E-1	5.769133E-1	6.848741E-1	6.595040E-1	6.970673E-1	6.949312E-1	6.819791E-1	7.446530E-1	7.340472E-1	6.772265E-1	6.408735E-1	7.430575E-1	6.751425E-1	6.553532E-1	6.710029E-1	6.648567E-1	6.883587E-1	6.834015E-1	6.274275E-1	7.297000E-1	7.227793E-1	6.170566E-1	7.059135E-1	7.482282E-1	6.859089E-1	6.415523E-1	7.436171E-1	6.867125E-1	6.588816E-1	6.515454E-1	7.049417E-1	6.654031E-1	6.518936E-1	7.143611E-1	7.155716E-1	7.340497E-1	6.405254E-1	6.810217E-1	6.686793E-1	7.564795E-1	6.536478E-1	6.872797E-1	6.918517E-1	7.071153E-1	6.530899E-1	7.120044E-1	6.775213E-1	6.876942E-1	7.035545E-1	6.473970E-1	6.954790E-1	7.413769E-1	6.811495E-1	6.735184E-1	6.802025E-1	7.930971E-1	6.890092E-1	6.506851E-1	6.719117E-1	7.885557E-1	6.546209E-1	6.437967E-1	7.080939E-1	7.132202E-1	7.203788E-1	6.894211E-1	6.488923E-1	7.468742E-1	6.866582E-1	6.811364E-1	6.614983E-1	7.995603E-1	6.520970E-1	6.483722E-1	6.600777E-1	7.569935E-1	6.790758E-1	6.520167E-1	6.672860E-1	7.419889E-1	6.730970E-1	6.918971E-1	6.804032E-1	7.872167E-1	6.832682E-1	6.622977E-1	6.681375E-1	8.160612E-1	6.818304E-1	6.163623E-1	6.450654E-1	6.835654E-1	6.665658E-1	6.531452E-1	6.740492E-1	7.003332E-1	7.079763E-1	6.732375E-1	6.635095E-1	7.359862E-1	6.897466E-1	7.232877E-1	6.893937E-1	8.055027E-1	6.543266E-1	6.809390E-1	6.542657E-1	7.336599E-1	6.762643E-1	7.197404E-1	6.763434E-1	6.905519E-1	6.979794E-1	6.982611E-1	6.841478E-1	7.897638E-1	6.729663E-1	6.566032E-1	7.388544E-1	7.743306E-1	6.858234E-1	6.899254E-1	7.264095E-1	7.264835E-1
5.380110E+2	7.260325E-1	8.629820E-1	6.814643E-1	7.855481E-1	7.908440E-1	8.140731E-1	9.197569E-1	9.212095E-1	8.385615E-1	8.556746E-1	8.940585E-1	9.142800E-1	7.768328E-1	8.989209E-1	8.942528E-1	8.505948E-1	7.436196E-1	8.157415E-1	8.669993E-1	8.302347E-1	7.950436E-1	7.979401E-1	9.089253E-1	9.472830E-1	7.233233E-1	8.256217E-1	8.666796E-1	9.107878E-1	8.333860E-1	7.535235E-1	8.182396E-1	8.543456E-1	8.442377E-1	7.866130E-1	8.562693E-1	9.254835E-1	8.511807E-1	7.955914E-1	8.740769E-1	9.281563E-1	8.469990E-1	8.020735E-1	7.720668E-1	9.013986E-1	8.731839E-1	7.972445E-1	8.017666E-1	8.191811E-1	6.925263E-1	8.171836E-1	8.409327E-1	7.890141E-1	8.376776E-1	8.185591E-1	8.724687E-1	8.987999E-1	7.859009E-1	7.876893E-1	8.034414E-1	8.838020E-1	8.518844E-1	7.945564E-1	8.273121E-1	8.700124E-1	7.594573E-1	7.625739E-1	8.418341E-1	8.717687E-1	8.030341E-1	8.654806E-1	9.141559E-1	9.389967E-1	7.744883E-1	8.246529E-1	8.586525E-1	9.039532E-1	8.295533E-1	8.741268E-1	7.961763E-1	7.921898E-1	8.046765E-1	8.747775E-1	8.278807E-1	8.572950E-1	8.490047E-1	8.245667E-1	9.212231E-1	8.876328E-1	7.599111E-1	7.778558E-1	8.311192E-1	8.325263E-1	8.068010E-1	7.600443E-1	7.738769E-1	8.401156E-1	8.403519E-1	7.866574E-1	8.764689E-1	7.882674E-1	7.671049E-1	8.086492E-1	9.288766E-1	7.769111E-1	7.778689E-1	8.715328E-1	8.969747E-1	8.258933E-1	8.335839E-1	8.595298E-1	7.916040E-1	8.609651E-1	7.994486E-1	7.863621E-1	8.700825E-1	8.097775E-1	8.021034E-1	8.146202E-1	9.550833E-1	7.588999E-1	7.630293E-1	7.979635E-1	8.748018E-1	7.939713E-1	8.033826E-1	8.138589E-1	8.906354E-1	8.572626E-1	8.071783E-1	8.045139E-1	9.755210E-1	7.903268E-1	8.100493E-1	8.150027E-1	9.656317E-1	8.227307E-1	7.535814E-1	7.893867E-1	8.753971E-1	8.027770E-1	7.949466E-1	8.317113E-1	8.317534E-1	8.534681E-1	8.696384E-1	7.915122E-1	8.879585E-1	8.379983E-1	8.951477E-1	8.182715E-1	9.360258E-1	7.886509E-1	8.348189E-1	7.635149E-1	8.225077E-1	8.220083E-1	8.562163E-1	8.079246E-1	8.326141E-1	7.839017E-1	8.050842E-1	8.467392E-1	8.890149E-1	7.908628E-1	8.052387E-1	8.407820E-1	9.142140E-1	8.354574E-1	8.480397E-1	8.622955E-1	9.622221E-1
5.382790E+2	8.870954E-1	1.086733E+0	8.813623E-1	9.309316E-1	9.870925E-1	1.012853E+0	1.074910E+0	1.182901E+0	9.747564E-1	9.824557E-1	1.112690E+0	1.112521E+0	1.007463E+0	1.114435E+0	1.120562E+0	1.008339E+0	9.345950E-1	1.002145E+0	1.096436E+0	9.998714E-1	9.702294E-1	9.887214E-1	1.096237E+0	1.180107E+0	8.666184E-1	9.831282E-1	1.047587E+0	1.088663E+0	1.043826E+0	9.617628E-1	1.018780E+0	1.028214E+0	9.989417E-1	9.861438E-1	9.921817E-1	1.035321E+0	9.873017E-1	1.007498E+0	1.053992E+0	1.171884E+0	1.026869E+0	9.327015E-1	9.155487E-1	1.110520E+0	1.084277E+0	1.031704E+0	9.865641E-1	9.998975E-1	8.848598E-1	1.048285E+0	1.028780E+0	1.033429E+0	1.011368E+0	9.772888E-1	1.092682E+0	1.155253E+0	9.960854E-1	9.740946E-1	1.005840E+0	1.035329E+0	9.556092E-1	9.904232E-1	9.855173E-1	1.020073E+0	9.858275E-1	9.047764E-1	1.053397E+0	1.086385E+0	9.722836E-1	1.015306E+0	1.074897E+0	1.171415E+0	1.028116E+0	1.052972E+0	1.003174E+0	1.051966E+0	9.838922E-1	1.062937E+0	9.879766E-1	1.000699E+0	9.693699E-1	1.029990E+0	9.896384E-1	1.008394E+0	1.017475E+0	9.718732E-1	1.129462E+0	1.172211E+0	1.012307E+0	9.515833E-1	1.033068E+0	1.131017E+0	1.020093E+0	1.006614E+0	9.860568E-1	9.983912E-1	1.003446E+0	9.462197E-1	1.028807E+0	1.050583E+0	1.014097E+0	9.642392E-1	1.106304E+0	1.147276E+0	9.362818E-1	1.023537E+0	1.073469E+0	1.044539E+0	9.963352E-1	1.048042E+0	9.847447E-1	1.035950E+0	9.832524E-1	9.741558E-1	1.081122E+0	1.041111E+0	9.422481E-1	1.006606E+0	1.117651E+0	1.023792E+0	9.234333E-1	9.704490E-1	1.131954E+0	1.021105E+0	1.011868E+0	9.604327E-1	1.115614E+0	1.024365E+0	9.452705E-1	9.791870E-1	1.157548E+0	1.019210E+0	9.432677E-1	9.563737E-1	1.164263E+0	1.016198E+0	9.622573E-1	9.406510E-1	1.071171E+0	9.633123E-1	9.558266E-1	9.590720E-1	9.747023E-1	1.046246E+0	1.048009E+0	9.478289E-1	1.104706E+0	1.039645E+0	1.092005E+0	9.943703E-1	1.100705E+0	9.888205E-1	1.023908E+0	9.797480E-1	1.022263E+0	9.620984E-1	1.054627E+0	1.024844E+0	1.010447E+0	1.014610E+0	9.668627E-1	9.986327E-1	1.112329E+0	1.003193E+0	9.512661E-1	1.078944E+0	1.208620E+0	9.770533E-1	9.972204E-1	1.076192E+0	1.186626E+0
5.385170E+2	1.065816E+0	1.308589E+0	1.071051E+0	1.182809E+0	1.226347E+0	1.196566E+0	1.409216E+0	1.410776E+0	1.261609E+0	1.231407E+0	1.352577E+0	1.386864E+0	1.232167E+0	1.368802E+0	1.301917E+0	1.224958E+0	1.195441E+0	1.284507E+0	1.312339E+0	1.298036E+0	1.213134E+0	1.198535E+0	1.390653E+0	1.427119E+0	1.082372E+0	1.228136E+0	1.297852E+0	1.351771E+0	1.261525E+0	1.191509E+0	1.234602E+0	1.289729E+0	1.265188E+0	1.192391E+0	1.224919E+0	1.277661E+0	1.218197E+0	1.188362E+0	1.263456E+0	1.391717E+0	1.225755E+0	1.197691E+0	1.162069E+0	1.378962E+0	1.349114E+0	1.239727E+0	1.211343E+0	1.189438E+0	1.099039E+0	1.287618E+0	1.225960E+0	1.208593E+0	1.261425E+0	1.251835E+0	1.369875E+0	1.413782E+0	1.203881E+0	1.223185E+0	1.241227E+0	1.325961E+0	1.211199E+0	1.241838E+0	1.207477E+0	1.281697E+0	1.200218E+0	1.150645E+0	1.340638E+0	1.341795E+0	1.168102E+0	1.219405E+0	1.272972E+0	1.440635E+0	1.171547E+0	1.293714E+0	1.268225E+0	1.352240E+0	1.210716E+0	1.288872E+0	1.163368E+0	1.255168E+0	1.244450E+0	1.293623E+0	1.310277E+0	1.284442E+0	1.220028E+0	1.211666E+0	1.296381E+0	1.382480E+0	1.197518E+0	1.196407E+0	1.277532E+0	1.369695E+0	1.222567E+0	1.185664E+0	1.216883E+0	1.270068E+0	1.238322E+0	1.171740E+0	1.262775E+0	1.294033E+0	1.178114E+0	1.217257E+0	1.396690E+0	1.428132E+0	1.160556E+0	1.210948E+0	1.297871E+0	1.293552E+0	1.259658E+0	1.277806E+0	1.222457E+0	1.239352E+0	1.259911E+0	1.242960E+0	1.327540E+0	1.330117E+0	1.214177E+0	1.198594E+0	1.422738E+0	1.398133E+0	1.138270E+0	1.177018E+0	1.378339E+0	1.361143E+0	1.200362E+0	1.235379E+0	1.366418E+0	1.275273E+0	1.200493E+0	1.205574E+0	1.406109E+0	1.304700E+0	1.175312E+0	1.203646E+0	1.397595E+0	1.353818E+0	1.157470E+0	1.150935E+0	1.272856E+0	1.295936E+0	1.209524E+0	1.189174E+0	1.253107E+0	1.288906E+0	1.265017E+0	1.222710E+0	1.356956E+0	1.334263E+0	1.287304E+0	1.216217E+0	1.328207E+0	1.354393E+0	1.248207E+0	1.215793E+0	1.268587E+0	1.311381E+0	1.259067E+0	1.197427E+0	1.248068E+0	1.200224E+0	1.233612E+0	1.258029E+0	1.393538E+0	1.218456E+0	1.203164E+0	1.318600E+0	1.437964E+0	1.192848E+0	1.291117E+0	1.301413E+0	1.488100E+0
5.387650E+2	1.363327E+0	1.591755E+0	1.295668E+0	1.441868E+0	1.455222E+0	1.494979E+0	1.632456E+0	1.660501E+0	1.430949E+0	1.529342E+0	1.626472E+0	1.607815E+0	1.484033E+0	1.591047E+0	1.634993E+0	1.467641E+0	1.415526E+0	1.438922E+0	1.598983E+0	1.535416E+0	1.409914E+0	1.483119E+0	1.649370E+0	1.695165E+0	1.272710E+0	1.483444E+0	1.593201E+0	1.593262E+0	1.461601E+0	1.376773E+0	1.518226E+0	1.507183E+0	1.452403E+0	1.431732E+0	1.475094E+0	1.593225E+0	1.432829E+0	1.435361E+0	1.556808E+0	1.696137E+0	1.483335E+0	1.418426E+0	1.328264E+0	1.525767E+0	1.603421E+0	1.466703E+0	1.415160E+0	1.459348E+0	1.299364E+0	1.516953E+0	1.443560E+0	1.507126E+0	1.463066E+0	1.382878E+0	1.538755E+0	1.643297E+0	1.433176E+0	1.382648E+0	1.567747E+0	1.578714E+0	1.427583E+0	1.458775E+0	1.427548E+0	1.556150E+0	1.451141E+0	1.373178E+0	1.549991E+0	1.565280E+0	1.364414E+0	1.480555E+0	1.582532E+0	1.685151E+0	1.411763E+0	1.523218E+0	1.508710E+0	1.523910E+0	1.406967E+0	1.509503E+0	1.422345E+0	1.487865E+0	1.445744E+0	1.512744E+0	1.558957E+0	1.534335E+0	1.425504E+0	1.424280E+0	1.600313E+0	1.626479E+0	1.379097E+0	1.417149E+0	1.537939E+0	1.584450E+0	1.418857E+0	1.418728E+0	1.492566E+0	1.466945E+0	1.477219E+0	1.432183E+0	1.526062E+0	1.573392E+0	1.414978E+0	1.453791E+0	1.714460E+0	1.624303E+0	1.372340E+0	1.522285E+0	1.589088E+0	1.533457E+0	1.445660E+0	1.488773E+0	1.476561E+0	1.521520E+0	1.380114E+0	1.397615E+0	1.550166E+0	1.540070E+0	1.443329E+0	1.406971E+0	1.627028E+0	1.656680E+0	1.381483E+0	1.393918E+0	1.580387E+0	1.622810E+0	1.384857E+0	1.410973E+0	1.605747E+0	1.489546E+0	1.419344E+0	1.462987E+0	1.701745E+0	1.616646E+0	1.386522E+0	1.420949E+0	1.641695E+0	1.640493E+0	1.326793E+0	1.356257E+0	1.508705E+0	1.539171E+0	1.447746E+0	1.415962E+0	1.515948E+0	1.446868E+0	1.500051E+0	1.425037E+0	1.542564E+0	1.576115E+0	1.578944E+0	1.511355E+0	1.655733E+0	1.689942E+0	1.520104E+0	1.429196E+0	1.404005E+0	1.596588E+0	1.462960E+0	1.408147E+0	1.447365E+0	1.486469E+0	1.454051E+0	1.459131E+0	1.583766E+0	1.495891E+0	1.397174E+0	1.499586E+0	1.629356E+0	1.578682E+0	1.429578E+0	1.498952E+0	1.594636E+0
5.390290E+2	1.456436E+0	1.785170E+0	1.445053E+0	1.668620E+0	1.649494E+0	1.653906E+0	1.903141E+0	1.900861E+0	1.626803E+0	1.718938E+0	1.888827E+0	1.871730E+0	1.637128E+0	1.842826E+0	1.822989E+0	1.728303E+0	1.621058E+0	1.681025E+0	1.810581E+0	1.778000E+0	1.594423E+0	1.651697E+0	1.787285E+0	1.930434E+0	1.452776E+0	1.581756E+0	1.687990E+0	1.861308E+0	1.719211E+0	1.624610E+0	1.671972E+0	1.713270E+0	1.667080E+0	1.594813E+0	1.724063E+0	1.732122E+0	1.661400E+0	1.601381E+0	1.768904E+0	1.975708E+0	1.726241E+0	1.599169E+0	1.510525E+0	1.804394E+0	1.772409E+0	1.689684E+0	1.668709E+0	1.665151E+0	1.499690E+0	1.687487E+0	1.623822E+0	1.709065E+0	1.619788E+0	1.616817E+0	1.801577E+0	1.950522E+0	1.586032E+0	1.614695E+0	1.783003E+0	1.778057E+0	1.638508E+0	1.614894E+0	1.654232E+0	1.679557E+0	1.590677E+0	1.534374E+0	1.843308E+0	1.815371E+0	1.575972E+0	1.667492E+0	1.802383E+0	1.905976E+0	1.575019E+0	1.822516E+0	1.726349E+0	1.827824E+0	1.640202E+0	1.768849E+0	1.681328E+0	1.663962E+0	1.736759E+0	1.763253E+0	1.745466E+0	1.684272E+0	1.719596E+0	1.580645E+0	1.815080E+0	1.932665E+0	1.630888E+0	1.558195E+0	1.696782E+0	1.825975E+0	1.659968E+0	1.599280E+0	1.715330E+0	1.669617E+0	1.659266E+0	1.593685E+0	1.778999E+0	1.806492E+0	1.648942E+0	1.602594E+0	1.883902E+0	1.954469E+0	1.598888E+0	1.685887E+0	1.800252E+0	1.781860E+0	1.664642E+0	1.725325E+0	1.703002E+0	1.725916E+0	1.591900E+0	1.677463E+0	1.800245E+0	1.770756E+0	1.610029E+0	1.637826E+0	1.876840E+0	1.883503E+0	1.511194E+0	1.582930E+0	1.854637E+0	1.868537E+0	1.629901E+0	1.620011E+0	1.800882E+0	1.672708E+0	1.625248E+0	1.625022E+0	1.902607E+0	1.747086E+0	1.600155E+0	1.584797E+0	1.881604E+0	1.930965E+0	1.607964E+0	1.578441E+0	1.741924E+0	1.703352E+0	1.587488E+0	1.594927E+0	1.694635E+0	1.741491E+0	1.606948E+0	1.599051E+0	1.811001E+0	1.809171E+0	1.724244E+0	1.643185E+0	1.788699E+0	1.874837E+0	1.693543E+0	1.601841E+0	1.695670E+0	1.814574E+0	1.692608E+0	1.592649E+0	1.661482E+0	1.629358E+0	1.660906E+0	1.660762E+0	1.753641E+0	1.696493E+0	1.579185E+0	1.744712E+0	1.848399E+0	1.857542E+0	1.666303E+0	1.657486E+0	1.941443E+0
5.392880E+2	1.628733E+0	2.023456E+0	1.670747E+0	1.806223E+0	1.863042E+0	1.828384E+0	2.071127E+0	2.136019E+0	1.856408E+0	1.930428E+0	2.119002E+0	2.009206E+0	1.840595E+0	2.018449E+0	2.032443E+0	1.920203E+0	1.818436E+0	1.917065E+0	2.003725E+0	1.980638E+0	1.865789E+0	1.832505E+0	2.073387E+0	2.145652E+0	1.602018E+0	1.857650E+0	2.039399E+0	2.054009E+0	1.909953E+0	1.710642E+0	1.979946E+0	1.923618E+0	1.825148E+0	1.825519E+0	1.824495E+0	2.009911E+0	1.837478E+0	1.821838E+0	2.005275E+0	2.150138E+0	1.942520E+0	1.768719E+0	1.749847E+0	2.008722E+0	2.055527E+0	1.833855E+0	1.821812E+0	1.848192E+0	1.616369E+0	1.885072E+0	1.885755E+0	1.856293E+0	1.860860E+0	1.800000E+0	2.015115E+0	2.146878E+0	1.828462E+0	1.775804E+0	1.986519E+0	2.044472E+0	1.781439E+0	1.802139E+0	1.844078E+0	1.973259E+0	1.846390E+0	1.697203E+0	1.933900E+0	2.045950E+0	1.749650E+0	1.850253E+0	1.995798E+0	2.182256E+0	1.760430E+0	1.873980E+0	1.901148E+0	1.931551E+0	1.793064E+0	1.950234E+0	1.789535E+0	1.818287E+0	1.825307E+0	1.941289E+0	1.853687E+0	1.927191E+0	1.908517E+0	1.816620E+0	2.026581E+0	2.191944E+0	1.733179E+0	1.780661E+0	1.909949E+0	1.998574E+0	1.862959E+0	1.788330E+0	1.845864E+0	1.892552E+0	1.873469E+0	1.789136E+0	1.973875E+0	1.993338E+0	1.811994E+0	1.826529E+0	2.062467E+0	2.123306E+0	1.721533E+0	1.911756E+0	1.983049E+0	2.024193E+0	1.834427E+0	1.912271E+0	1.889483E+0	1.898909E+0	1.880008E+0	1.804500E+0	1.982619E+0	1.942472E+0	1.819506E+0	1.752083E+0	2.044826E+0	2.095523E+0	1.786837E+0	1.823583E+0	2.050352E+0	2.041876E+0	1.851520E+0	1.802493E+0	1.997162E+0	1.870423E+0	1.798479E+0	1.861748E+0	2.099695E+0	1.929209E+0	1.807979E+0	1.821081E+0	2.126904E+0	2.144484E+0	1.752949E+0	1.727724E+0	1.958063E+0	1.897335E+0	1.832416E+0	1.742649E+0	1.884275E+0	1.872436E+0	1.832971E+0	1.843846E+0	1.962352E+0	1.984435E+0	2.013802E+0	1.804527E+0	2.127814E+0	2.099763E+0	1.967395E+0	1.777883E+0	1.847631E+0	2.043868E+0	1.889921E+0	1.718986E+0	1.788724E+0	1.887596E+0	1.879486E+0	1.841003E+0	1.983952E+0	1.839609E+0	1.705914E+0	1.886414E+0	2.131421E+0	2.035621E+0	1.933401E+0	1.826087E+0	2.261049E+0
5.395100E+2	1.725588E+0	2.136597E+0	1.814221E+0	1.854682E+0	1.982671E+0	1.930933E+0	2.254746E+0	2.277529E+0	2.064918E+0	2.056634E+0	2.233172E+0	2.214198E+0	2.119129E+0	2.202362E+0	2.115199E+0	2.037053E+0	1.989617E+0	2.061553E+0	2.199331E+0	2.086591E+0	2.008095E+0	1.931751E+0	2.168755E+0	2.352065E+0	1.780460E+0	1.971405E+0	2.079856E+0	2.207798E+0	2.060789E+0	1.936968E+0	2.039634E+0	2.112650E+0	2.001154E+0	1.974683E+0	2.063848E+0	2.115679E+0	1.971737E+0	1.944660E+0	2.157230E+0	2.285383E+0	2.057178E+0	1.905749E+0	1.856211E+0	2.174097E+0	2.177975E+0	2.038884E+0	1.936396E+0	1.975479E+0	1.775670E+0	2.042077E+0	2.007098E+0	2.065790E+0	2.032554E+0	1.966574E+0	2.187592E+0	2.304897E+0	1.910267E+0	1.919872E+0	2.070946E+0	2.192271E+0	1.936776E+0	1.970704E+0	1.954110E+0	2.063593E+0	1.967365E+0	1.913221E+0	2.086910E+0	2.157696E+0	1.880527E+0	2.025590E+0	2.112981E+0	2.315352E+0	1.893949E+0	2.084553E+0	2.002255E+0	2.063794E+0	2.004604E+0	2.053657E+0	1.965955E+0	1.979870E+0	2.015970E+0	2.023460E+0	2.028686E+0	2.040521E+0	1.931886E+0	1.904811E+0	2.179908E+0	2.320527E+0	1.888731E+0	1.878127E+0	1.984946E+0	2.150669E+0	1.972694E+0	1.914364E+0	1.950692E+0	2.012705E+0	1.955014E+0	1.913294E+0	2.037110E+0	2.074896E+0	2.002061E+0	1.915229E+0	2.258153E+0	2.269636E+0	1.880513E+0	2.008817E+0	2.114795E+0	2.093432E+0	1.977712E+0	2.085118E+0	1.965818E+0	2.104800E+0	1.975407E+0	1.948107E+0	2.086917E+0	2.031894E+0	1.912935E+0	1.961393E+0	2.219317E+0	2.289037E+0	1.858641E+0	1.869547E+0	2.133962E+0	2.217208E+0	1.980039E+0	1.924965E+0	2.110226E+0	1.998384E+0	1.943972E+0	1.961153E+0	2.313108E+0	2.111945E+0	1.821056E+0	1.911497E+0	2.354252E+0	2.218182E+0	1.822853E+0	1.871550E+0	2.094713E+0	2.047534E+0	1.848402E+0	1.923037E+0	1.987450E+0	1.987786E+0	1.959826E+0	1.991905E+0	2.105605E+0	2.101906E+0	2.104419E+0	1.908316E+0	2.271754E+0	2.269907E+0	2.031295E+0	1.872981E+0	1.919936E+0	2.172024E+0	1.977615E+0	1.928274E+0	1.947652E+0	1.995831E+0	1.928270E+0	1.993968E+0	2.130281E+0	1.944607E+0	1.880107E+0	2.073368E+0	2.165579E+0	2.125280E+0	1.868188E+0	2.046274E+0	2.163582E+0
5.397810E+2	1.834746E+0	2.213708E+0	1.808311E+0	1.962373E+0	2.053360E+0	1.995572E+0	2.253630E+0	2.352967E+0	2.210755E+0	2.091210E+0	2.315767E+0	2.260840E+0	2.403096E+0	2.188891E+0	2.181611E+0	2.095477E+0	2.197478E+0	2.009161E+0	2.189488E+0	2.126538E+0	2.057167E+0	2.066336E+0	2.278793E+0	2.287500E+0	1.897802E+0	2.004859E+0	2.159619E+0	2.227562E+0	2.287815E+0	1.928656E+0	2.060639E+0	2.112176E+0	2.155856E+0	2.042314E+0	2.091513E+0	2.176121E+0	1.957799E+0	2.069740E+0	2.178333E+0	2.304503E+0	2.134888E+0	1.944669E+0	1.867289E+0	2.171104E+0	2.254990E+0	2.037386E+0	2.048055E+0	2.012181E+0	1.839072E+0	2.017969E+0	2.091687E+0	2.066372E+0	2.059003E+0	1.977184E+0	2.190156E+0	2.359813E+0	2.195087E+0	1.951765E+0	2.124061E+0	2.226427E+0	2.226115E+0	1.958256E+0	1.985281E+0	2.162319E+0	2.132050E+0	1.871970E+0	2.149332E+0	2.158876E+0	1.956787E+0	2.086817E+0	2.249354E+0	2.293171E+0	2.024554E+0	2.092243E+0	1.988547E+0	2.044384E+0	2.048985E+0	2.111995E+0	1.960311E+0	2.037923E+0	2.062017E+0	2.115899E+0	2.111003E+0	2.099216E+0	2.050691E+0	1.974417E+0	2.157069E+0	2.312624E+0	1.915366E+0	1.963556E+0	2.131976E+0	2.207635E+0	1.995878E+0	1.905364E+0	2.042924E+0	2.045039E+0	2.038859E+0	1.955007E+0	2.148060E+0	2.169842E+0	1.993380E+0	2.004418E+0	2.336880E+0	2.338239E+0	1.929344E+0	2.066812E+0	2.179089E+0	2.129263E+0	2.009071E+0	2.085642E+0	2.084159E+0	2.043980E+0	1.949332E+0	1.978796E+0	2.104607E+0	2.149182E+0	1.998988E+0	1.945004E+0	2.263210E+0	2.226119E+0	1.865009E+0	1.924286E+0	2.260633E+0	2.235142E+0	1.966905E+0	2.023336E+0	2.227304E+0	2.038028E+0	2.024723E+0	1.985857E+0	2.220209E+0	2.149480E+0	1.891785E+0	1.995420E+0	2.299208E+0	2.245824E+0	1.929523E+0	1.853198E+0	2.143981E+0	2.037195E+0	1.926261E+0	1.950025E+0	2.031827E+0	2.023123E+0	1.986224E+0	1.992493E+0	2.148580E+0	2.161583E+0	2.130981E+0	1.969311E+0	2.210763E+0	2.323113E+0	2.065204E+0	1.904682E+0	2.005105E+0	2.147522E+0	2.025851E+0	1.923507E+0	1.927211E+0	1.955009E+0	1.941855E+0	1.982736E+0	2.172913E+0	2.042556E+0	1.875933E+0	2.121100E+0	2.288111E+0	2.183401E+0	2.007546E+0	2.037468E+0	2.240649E+0
5.400350E+2	1.783913E+0	2.115109E+0	1.742754E+0	1.853486E+0	1.861560E+0	1.941137E+0	2.211215E+0	2.218220E+0	2.093844E+0	2.066430E+0	2.154223E+0	2.162640E+0	2.227779E+0	2.152107E+0	2.134610E+0	1.989862E+0	2.079866E+0	2.031769E+0	2.027098E+0	2.024640E+0	1.898176E+0	1.916793E+0	2.159459E+0	2.270869E+0	1.840485E+0	1.906549E+0	2.025529E+0	2.126889E+0	2.143201E+0	1.855822E+0	2.030559E+0	2.048694E+0	2.107648E+0	1.913295E+0	1.991078E+0	2.073837E+0	1.912737E+0	1.955011E+0	2.193635E+0	2.296375E+0	2.038702E+0	1.887616E+0	1.801920E+0	2.092610E+0	2.211216E+0	2.021419E+0	1.923232E+0	1.912765E+0	1.753295E+0	1.941522E+0	1.958093E+0	1.937767E+0	1.965172E+0	1.954116E+0	2.158332E+0	2.242726E+0	2.126423E+0	1.923721E+0	2.052492E+0	2.096637E+0	2.196340E+0	1.866312E+0	1.933333E+0	2.021145E+0	2.101506E+0	1.811181E+0	2.023385E+0	2.148235E+0	1.889872E+0	1.931425E+0	2.158092E+0	2.213012E+0	2.075861E+0	1.977491E+0	2.009109E+0	2.014660E+0	2.178668E+0	2.091843E+0	1.866464E+0	1.926168E+0	2.113369E+0	2.012047E+0	1.981480E+0	2.057374E+0	1.966948E+0	1.889560E+0	2.134237E+0	2.242535E+0	2.003735E+0	1.917119E+0	1.978448E+0	2.142693E+0	2.115921E+0	1.883356E+0	1.981437E+0	1.996299E+0	2.046897E+0	1.842969E+0	2.092871E+0	2.042638E+0	1.907511E+0	1.904084E+0	2.209657E+0	2.226216E+0	1.820897E+0	1.923963E+0	2.133704E+0	2.074608E+0	1.910122E+0	1.998953E+0	1.921245E+0	2.059436E+0	1.946154E+0	1.905147E+0	2.046052E+0	2.076605E+0	1.861306E+0	1.864462E+0	2.165669E+0	2.144695E+0	1.793785E+0	1.853534E+0	2.064924E+0	2.162084E+0	1.926918E+0	1.847252E+0	2.120559E+0	1.995371E+0	1.930402E+0	1.924378E+0	2.161211E+0	2.097181E+0	1.867562E+0	1.885023E+0	2.249551E+0	2.202467E+0	1.839939E+0	1.876509E+0	2.017849E+0	1.992195E+0	1.862838E+0	1.873795E+0	1.998399E+0	2.031955E+0	1.979146E+0	1.948254E+0	2.007819E+0	2.066098E+0	2.056505E+0	1.886178E+0	2.166845E+0	2.201953E+0	1.928928E+0	1.805623E+0	1.926063E+0	2.116739E+0	1.882255E+0	1.829589E+0	1.951226E+0	1.927000E+0	1.897397E+0	1.897161E+0	2.094020E+0	1.942844E+0	1.879585E+0	1.990831E+0	2.146061E+0	2.075815E+0	1.920002E+0	1.992170E+0	2.202116E+0
5.402950E+2	1.662979E+0	2.043683E+0	1.628832E+0	1.813999E+0	1.891220E+0	1.857545E+0	2.035965E+0	2.128216E+0	1.999831E+0	1.884908E+0	2.078918E+0	2.068125E+0	2.169008E+0	2.033990E+0	2.009448E+0	1.933688E+0	2.013490E+0	1.882868E+0	2.011722E+0	1.963848E+0	1.850576E+0	1.841117E+0	2.045513E+0	2.185760E+0	1.749640E+0	1.860223E+0	1.993160E+0	2.083653E+0	2.093444E+0	1.773211E+0	1.959413E+0	1.960573E+0	1.943417E+0	1.837030E+0	1.887638E+0	1.961675E+0	1.842121E+0	1.841183E+0	1.990504E+0	2.160652E+0	1.916978E+0	1.767118E+0	1.752061E+0	1.970968E+0	2.139190E+0	1.805919E+0	1.853015E+0	1.840756E+0	1.680833E+0	1.896828E+0	1.896257E+0	1.885390E+0	1.886313E+0	1.822611E+0	2.058749E+0	2.062427E+0	2.078057E+0	1.769208E+0	1.927253E+0	2.010313E+0	2.196340E+0	1.812675E+0	1.790240E+0	1.953023E+0	2.042818E+0	1.712942E+0	1.968145E+0	2.025257E+0	1.837231E+0	1.847930E+0	2.070978E+0	2.129319E+0	2.019890E+0	1.933722E+0	1.946271E+0	1.960668E+0	2.126889E+0	1.927959E+0	1.770050E+0	1.846832E+0	2.005935E+0	1.973815E+0	1.926798E+0	1.978338E+0	1.939190E+0	1.851900E+0	2.023863E+0	2.132922E+0	1.980128E+0	1.742243E+0	1.930617E+0	2.037308E+0	2.103555E+0	1.808835E+0	1.833768E+0	1.892552E+0	1.943530E+0	1.718812E+0	2.002047E+0	1.967168E+0	1.804759E+0	1.891482E+0	2.097268E+0	2.105619E+0	1.915718E+0	1.803092E+0	1.949015E+0	2.015694E+0	2.091257E+0	1.897650E+0	1.867965E+0	1.930815E+0	2.022473E+0	1.800207E+0	1.972857E+0	1.935991E+0	1.845566E+0	1.789073E+0	2.061083E+0	2.078604E+0	1.858642E+0	1.756964E+0	2.056687E+0	2.051178E+0	2.002315E+0	1.780850E+0	1.959280E+0	1.847841E+0	1.922388E+0	1.791650E+0	2.195104E+0	1.927978E+0	1.795867E+0	1.774123E+0	2.158016E+0	2.126600E+0	1.752431E+0	1.761452E+0	1.916675E+0	1.935641E+0	1.809729E+0	1.768216E+0	1.841041E+0	1.855289E+0	1.943725E+0	1.834410E+0	1.959860E+0	2.005791E+0	1.962239E+0	1.818300E+0	2.080238E+0	2.111353E+0	1.936753E+0	1.748452E+0	1.828023E+0	2.065232E+0	1.835663E+0	1.787637E+0	1.772881E+0	1.845826E+0	1.822063E+0	1.835659E+0	1.985227E+0	1.861901E+0	1.785191E+0	1.891385E+0	2.060937E+0	2.067776E+0	1.829777E+0	1.836153E+0	2.029846E+0
5.405080E+2	1.530812E+0	1.946978E+0	1.558977E+0	1.694942E+0	1.744900E+0	1.721459E+0	2.015877E+0	2.035093E+0	1.896178E+0	1.737379E+0	1.946526E+0	1.953356E+0	2.024803E+0	1.904474E+0	1.901148E+0	1.745383E+0	1.842891E+0	1.776432E+0	1.830262E+0	1.877005E+0	1.730349E+0	1.758642E+0	1.920799E+0	2.082068E+0	1.608506E+0	1.680068E+0	1.902420E+0	1.957656E+0	2.003252E+0	1.676425E+0	1.805666E+0	1.869610E+0	1.901377E+0	1.730547E+0	1.870801E+0	1.914604E+0	1.766397E+0	1.708460E+0	1.930356E+0	2.109997E+0	1.767541E+0	1.656753E+0	1.601378E+0	1.931426E+0	2.087110E+0	1.785466E+0	1.719903E+0	1.791512E+0	1.595055E+0	1.789806E+0	1.811084E+0	1.816720E+0	1.749055E+0	1.737246E+0	1.887299E+0	2.017355E+0	1.917432E+0	1.719720E+0	1.821582E+0	1.922755E+0	2.012713E+0	1.753291E+0	1.634395E+0	1.775813E+0	1.861965E+0	1.682548E+0	1.843308E+0	1.861489E+0	1.665026E+0	1.736139E+0	1.900387E+0	1.995715E+0	1.811155E+0	1.787620E+0	1.886862E+0	1.854513E+0	1.946419E+0	1.872800E+0	1.731588E+0	1.784906E+0	1.979965E+0	1.810044E+0	1.826632E+0	1.860948E+0	1.793608E+0	1.716987E+0	1.951550E+0	2.026466E+0	1.879654E+0	1.642479E+0	1.815467E+0	1.920532E+0	2.012879E+0	1.634786E+0	1.733472E+0	1.789769E+0	1.847052E+0	1.668855E+0	1.830738E+0	1.913611E+0	1.764720E+0	1.716986E+0	2.032805E+0	1.982341E+0	1.837359E+0	1.774404E+0	1.848158E+0	1.887538E+0	1.993392E+0	1.748302E+0	1.774726E+0	1.784746E+0	1.843121E+0	1.773813E+0	1.876488E+0	1.812874E+0	1.737875E+0	1.697759E+0	1.947826E+0	1.969687E+0	1.852851E+0	1.658327E+0	1.944579E+0	1.958196E+0	1.961758E+0	1.664279E+0	1.895004E+0	1.750488E+0	1.780599E+0	1.737064E+0	2.006800E+0	1.875063E+0	1.663617E+0	1.664225E+0	2.071264E+0	1.934216E+0	1.779874E+0	1.655811E+0	1.874631E+0	1.812201E+0	1.980405E+0	1.654110E+0	1.828936E+0	1.844374E+0	1.952743E+0	1.719386E+0	1.865813E+0	1.878902E+0	1.926830E+0	1.745991E+0	1.939344E+0	1.976499E+0	1.880677E+0	1.653919E+0	1.799221E+0	1.856666E+0	1.969948E+0	1.646043E+0	1.700317E+0	1.736167E+0	1.809100E+0	1.761317E+0	1.889791E+0	1.792101E+0	1.678277E+0	1.823268E+0	1.985032E+0	1.994813E+0	1.819057E+0	1.842445E+0	1.918777E+0
5.407580E+2	1.477837E+0	1.866704E+0	1.512759E+0	1.700326E+0	1.709801E+0	1.709313E+0	1.936623E+0	1.938321E+0	1.837725E+0	1.771953E+0	1.918585E+0	1.949670E+0	1.973937E+0	1.898778E+0	1.841377E+0	1.752573E+0	1.782921E+0	1.802353E+0	1.847488E+0	1.727627E+0	1.712193E+0	1.691119E+0	1.901725E+0	2.006248E+0	1.619322E+0	1.674403E+0	1.890856E+0	1.901455E+0	1.935872E+0	1.637807E+0	1.678657E+0	1.770121E+0	1.881763E+0	1.705126E+0	1.777589E+0	1.844283E+0	1.742701E+0	1.680564E+0	1.897115E+0	2.004379E+0	1.872962E+0	1.635960E+0	1.642929E+0	1.887684E+0	1.951923E+0	1.732091E+0	1.714051E+0	1.667938E+0	1.593993E+0	1.738058E+0	1.706661E+0	1.738743E+0	1.734083E+0	1.684645E+0	1.830832E+0	1.900265E+0	1.852347E+0	1.694426E+0	1.730449E+0	1.847609E+0	1.993358E+0	1.591426E+0	1.671232E+0	1.739776E+0	1.869146E+0	1.573997E+0	1.822868E+0	1.947809E+0	1.637477E+0	1.703671E+0	1.961570E+0	1.938746E+0	1.784335E+0	1.772834E+0	1.760626E+0	1.781115E+0	1.987346E+0	1.760894E+0	1.643380E+0	1.726368E+0	1.889646E+0	1.718742E+0	1.711503E+0	1.821425E+0	1.720569E+0	1.634990E+0	1.809095E+0	1.899986E+0	1.787047E+0	1.600626E+0	1.793032E+0	1.812875E+0	1.909324E+0	1.622281E+0	1.669467E+0	1.741033E+0	1.859112E+0	1.626665E+0	1.793373E+0	1.844837E+0	1.708278E+0	1.679662E+0	1.944376E+0	1.916417E+0	1.778308E+0	1.688936E+0	1.891650E+0	1.830450E+0	1.910665E+0	1.750391E+0	1.684047E+0	1.738379E+0	1.867287E+0	1.651072E+0	1.762425E+0	1.853049E+0	1.639037E+0	1.606922E+0	1.901768E+0	1.938491E+0	1.771203E+0	1.620114E+0	1.833740E+0	1.913698E+0	1.927487E+0	1.686904E+0	1.834742E+0	1.720882E+0	1.775670E+0	1.712355E+0	1.908256E+0	1.832609E+0	1.631157E+0	1.642745E+0	1.985104E+0	1.949391E+0	1.752950E+0	1.587865E+0	1.746524E+0	1.738014E+0	1.890169E+0	1.620497E+0	1.708467E+0	1.757081E+0	1.890280E+0	1.719383E+0	1.802284E+0	1.892089E+0	1.847148E+0	1.667778E+0	1.924099E+0	1.945947E+0	1.885892E+0	1.620523E+0	1.701183E+0	1.872999E+0	1.922259E+0	1.699913E+0	1.701338E+0	1.733792E+0	1.773901E+0	1.665577E+0	1.872614E+0	1.706466E+0	1.616734E+0	1.815317E+0	1.940026E+0	1.828486E+0	1.755633E+0	1.807213E+0	1.816775E+0
5.410240E+2	1.458039E+0	1.744082E+0	1.413351E+0	1.589046E+0	1.641092E+0	1.628630E+0	1.859606E+0	1.896699E+0	1.718401E+0	1.710292E+0	1.844495E+0	1.827535E+0	1.842077E+0	1.736104E+0	1.784163E+0	1.686060E+0	1.741581E+0	1.642420E+0	1.720160E+0	1.691156E+0	1.655270E+0	1.572389E+0	1.732021E+0	1.909404E+0	1.505228E+0	1.584843E+0	1.742895E+0	1.793369E+0	1.828058E+0	1.560084E+0	1.647144E+0	1.712795E+0	1.716970E+0	1.564113E+0	1.676556E+0	1.719916E+0	1.620057E+0	1.589683E+0	1.736193E+0	1.824215E+0	1.724066E+0	1.537853E+0	1.470086E+0	1.771438E+0	1.936408E+0	1.617851E+0	1.590692E+0	1.607547E+0	1.499158E+0	1.676902E+0	1.641903E+0	1.610715E+0	1.643745E+0	1.578979E+0	1.793877E+0	1.879547E+0	1.792637E+0	1.553658E+0	1.657204E+0	1.768122E+0	1.854395E+0	1.585680E+0	1.586696E+0	1.723489E+0	1.736801E+0	1.505607E+0	1.741670E+0	1.773393E+0	1.606477E+0	1.644763E+0	1.737049E+0	1.894379E+0	1.735939E+0	1.728471E+0	1.684079E+0	1.708927E+0	1.885273E+0	1.754529E+0	1.586453E+0	1.587038E+0	1.819990E+0	1.687927E+0	1.645303E+0	1.659862E+0	1.631953E+0	1.521055E+0	1.785719E+0	1.849395E+0	1.686573E+0	1.550167E+0	1.657218E+0	1.769013E+0	1.840290E+0	1.569268E+0	1.630158E+0	1.658998E+0	1.786752E+0	1.573315E+0	1.759455E+0	1.765714E+0	1.581890E+0	1.593387E+0	1.821715E+0	1.808146E+0	1.677244E+0	1.707861E+0	1.815382E+0	1.773966E+0	1.840912E+0	1.710703E+0	1.624621E+0	1.649644E+0	1.686032E+0	1.593385E+0	1.722784E+0	1.733169E+0	1.591831E+0	1.559157E+0	1.822652E+0	1.767184E+0	1.752670E+0	1.566403E+0	1.816637E+0	1.791501E+0	1.865230E+0	1.627883E+0	1.702738E+0	1.667691E+0	1.730049E+0	1.579626E+0	1.907626E+0	1.712012E+0	1.525070E+0	1.539840E+0	1.856480E+0	1.866478E+0	1.669581E+0	1.509503E+0	1.787253E+0	1.684504E+0	1.803027E+0	1.543321E+0	1.727491E+0	1.697844E+0	1.814939E+0	1.614976E+0	1.700762E+0	1.789698E+0	1.766946E+0	1.628918E+0	1.799067E+0	1.881685E+0	1.795263E+0	1.566747E+0	1.661355E+0	1.786303E+0	1.841144E+0	1.556892E+0	1.602202E+0	1.678728E+0	1.731911E+0	1.645790E+0	1.821717E+0	1.630216E+0	1.584921E+0	1.687533E+0	1.866834E+0	1.768508E+0	1.685955E+0	1.717881E+0	1.900641E+0
5.412740E+2	1.395971E+0	1.676453E+0	1.374661E+0	1.485539E+0	1.527887E+0	1.546496E+0	1.718405E+0	1.794211E+0	1.691286E+0	1.635953E+0	1.659875E+0	1.729340E+0	1.761576E+0	1.681707E+0	1.653899E+0	1.576850E+0	1.598936E+0	1.529920E+0	1.636505E+0	1.618202E+0	1.580685E+0	1.499434E+0	1.681158E+0	1.793479E+0	1.424657E+0	1.499914E+0	1.629612E+0	1.706906E+0	1.748755E+0	1.496538E+0	1.583163E+0	1.615675E+0	1.655870E+0	1.472981E+0	1.555679E+0	1.650180E+0	1.538289E+0	1.486204E+0	1.630673E+0	1.745838E+0	1.633861E+0	1.467476E+0	1.415242E+0	1.710318E+0	1.797341E+0	1.544026E+0	1.504387E+0	1.501161E+0	1.333996E+0	1.581642E+0	1.529315E+0	1.519351E+0	1.502496E+0	1.516225E+0	1.673245E+0	1.813746E+0	1.733518E+0	1.462932E+0	1.566625E+0	1.763152E+0	1.818163E+0	1.506665E+0	1.521525E+0	1.580831E+0	1.606248E+0	1.420937E+0	1.615723E+0	1.616126E+0	1.575976E+0	1.555700E+0	1.703864E+0	1.776404E+0	1.623412E+0	1.600112E+0	1.542984E+0	1.644629E+0	1.719101E+0	1.586405E+0	1.485427E+0	1.551241E+0	1.667105E+0	1.610892E+0	1.629760E+0	1.640688E+0	1.582775E+0	1.485778E+0	1.655230E+0	1.764027E+0	1.639363E+0	1.476206E+0	1.547387E+0	1.664196E+0	1.790313E+0	1.517754E+0	1.544476E+0	1.535467E+0	1.632849E+0	1.472921E+0	1.644484E+0	1.669551E+0	1.524481E+0	1.514378E+0	1.736710E+0	1.778133E+0	1.600593E+0	1.584548E+0	1.673555E+0	1.649459E+0	1.747369E+0	1.590079E+0	1.493980E+0	1.577854E+0	1.619886E+0	1.584178E+0	1.661788E+0	1.640505E+0	1.490041E+0	1.484236E+0	1.760878E+0	1.720128E+0	1.632224E+0	1.418192E+0	1.648791E+0	1.682581E+0	1.750992E+0	1.518690E+0	1.658546E+0	1.628044E+0	1.612919E+0	1.513552E+0	1.778952E+0	1.621569E+0	1.471294E+0	1.514859E+0	1.770325E+0	1.760802E+0	1.558770E+0	1.374112E+0	1.580315E+0	1.595725E+0	1.772088E+0	1.472778E+0	1.581081E+0	1.580408E+0	1.664257E+0	1.498182E+0	1.689550E+0	1.663432E+0	1.676328E+0	1.526603E+0	1.747224E+0	1.780541E+0	1.717674E+0	1.428064E+0	1.554126E+0	1.706522E+0	1.749064E+0	1.446765E+0	1.521972E+0	1.593281E+0	1.587424E+0	1.546306E+0	1.710377E+0	1.561001E+0	1.459754E+0	1.622893E+0	1.764903E+0	1.688745E+0	1.643971E+0	1.619740E+0	1.803174E+0
5.415350E+2	1.271292E+0	1.463447E+0	1.260740E+0	1.299474E+0	1.390960E+0	1.402635E+0	1.534232E+0	1.624603E+0	1.505676E+0	1.434256E+0	1.555418E+0	1.594927E+0	1.592186E+0	1.540279E+0	1.516478E+0	1.439329E+0	1.505190E+0	1.447194E+0	1.527628E+0	1.525571E+0	1.380470E+0	1.364844E+0	1.539329E+0	1.608587E+0	1.280823E+0	1.448441E+0	1.473557E+0	1.505558E+0	1.598958E+0	1.498981E+0	1.417000E+0	1.473548E+0	1.439511E+0	1.408708E+0	1.469080E+0	1.523490E+0	1.397524E+0	1.397572E+0	1.479247E+0	1.620150E+0	1.475727E+0	1.345912E+0	1.257910E+0	1.533554E+0	1.593452E+0	1.350967E+0	1.372738E+0	1.331132E+0	1.287641E+0	1.435219E+0	1.375890E+0	1.343020E+0	1.398679E+0	1.387028E+0	1.512063E+0	1.581643E+0	1.507814E+0	1.328764E+0	1.379885E+0	1.486806E+0	1.628086E+0	1.327083E+0	1.354821E+0	1.494448E+0	1.564926E+0	1.300445E+0	1.473209E+0	1.535718E+0	1.377203E+0	1.387322E+0	1.527050E+0	1.628684E+0	1.506804E+0	1.480628E+0	1.419601E+0	1.488118E+0	1.584484E+0	1.485105E+0	1.371066E+0	1.320477E+0	1.488244E+0	1.409457E+0	1.427133E+0	1.468668E+0	1.398726E+0	1.302715E+0	1.579108E+0	1.609087E+0	1.419044E+0	1.348919E+0	1.473575E+0	1.477357E+0	1.616178E+0	1.320199E+0	1.351450E+0	1.365127E+0	1.472054E+0	1.305114E+0	1.445582E+0	1.471749E+0	1.368665E+0	1.332613E+0	1.541598E+0	1.623231E+0	1.381426E+0	1.438036E+0	1.502730E+0	1.434456E+0	1.640313E+0	1.462143E+0	1.396130E+0	1.398383E+0	1.455798E+0	1.434435E+0	1.478806E+0	1.483695E+0	1.331704E+0	1.344689E+0	1.577176E+0	1.614379E+0	1.431863E+0	1.323169E+0	1.549983E+0	1.517875E+0	1.578492E+0	1.336704E+0	1.473745E+0	1.424811E+0	1.546338E+0	1.350369E+0	1.618268E+0	1.486206E+0	1.334205E+0	1.356505E+0	1.606395E+0	1.594432E+0	1.393073E+0	1.305175E+0	1.418045E+0	1.473495E+0	1.554486E+0	1.364357E+0	1.466375E+0	1.454144E+0	1.529675E+0	1.397313E+0	1.465330E+0	1.544706E+0	1.533114E+0	1.410024E+0	1.595960E+0	1.613034E+0	1.558572E+0	1.329572E+0	1.379493E+0	1.520574E+0	1.578607E+0	1.372390E+0	1.385019E+0	1.403873E+0	1.474426E+0	1.393344E+0	1.564047E+0	1.377410E+0	1.365360E+0	1.409095E+0	1.639118E+0	1.513759E+0	1.510869E+0	1.429751E+0	1.626370E+0
5.417600E+2	1.072237E+0	1.272561E+0	1.047407E+0	1.201954E+0	1.212505E+0	1.172750E+0	1.317127E+0	1.414417E+0	1.297164E+0	1.301712E+0	1.356218E+0	1.309533E+0	1.344766E+0	1.355332E+0	1.304982E+0	1.213272E+0	1.297329E+0	1.229908E+0	1.309263E+0	1.244774E+0	1.187618E+0	1.163190E+0	1.341258E+0	1.351304E+0	1.093727E+0	1.279095E+0	1.258551E+0	1.275185E+0	1.358453E+0	1.379220E+0	1.200700E+0	1.243776E+0	1.284806E+0	1.269132E+0	1.206876E+0	1.240467E+0	1.206579E+0	1.248652E+0	1.311994E+0	1.436162E+0	1.256190E+0	1.239277E+0	1.083405E+0	1.320840E+0	1.395101E+0	1.391375E+0	1.127479E+0	1.190831E+0	1.059080E+0	1.329958E+0	1.174624E+0	1.139924E+0	1.126664E+0	1.202461E+0	1.328296E+0	1.402901E+0	1.384809E+0	1.235283E+0	1.274213E+0	1.309817E+0	1.420139E+0	1.277275E+0	1.189061E+0	1.299960E+0	1.292444E+0	1.195691E+0	1.238997E+0	1.279127E+0	1.198604E+0	1.196212E+0	1.297344E+0	1.337789E+0	1.274166E+0	1.262365E+0	1.238519E+0	1.293399E+0	1.331525E+0	1.263944E+0	1.132596E+0	1.202919E+0	1.325320E+0	1.257673E+0	1.245801E+0	1.259453E+0	1.184971E+0	1.132528E+0	1.312693E+0	1.366670E+0	1.301626E+0	1.110977E+0	1.237378E+0	1.276843E+0	1.388977E+0	1.167656E+0	1.203276E+0	1.198649E+0	1.287710E+0	1.161072E+0	1.240931E+0	1.302551E+0	1.209954E+0	1.177509E+0	1.354473E+0	1.371319E+0	1.213362E+0	1.246965E+0	1.324976E+0	1.314201E+0	1.389427E+0	1.274674E+0	1.180962E+0	1.316624E+0	1.268815E+0	1.223935E+0	1.323878E+0	1.245230E+0	1.171890E+0	1.161135E+0	1.389137E+0	1.393374E+0	1.277248E+0	1.183732E+0	1.335900E+0	1.282109E+0	1.366577E+0	1.185702E+0	1.300992E+0	1.197993E+0	1.231317E+0	1.202701E+0	1.408621E+0	1.326849E+0	1.149634E+0	1.152692E+0	1.504089E+0	1.360864E+0	1.176112E+0	1.159862E+0	1.297821E+0	1.274655E+0	1.363700E+0	1.182546E+0	1.246188E+0	1.230188E+0	1.308804E+0	1.200295E+0	1.270380E+0	1.341803E+0	1.281052E+0	1.168504E+0	1.370291E+0	1.420241E+0	1.386436E+0	1.167112E+0	1.219566E+0	1.355356E+0	1.385128E+0	1.189796E+0	1.168863E+0	1.241995E+0	1.253370E+0	1.198664E+0	1.347094E+0	1.203793E+0	1.201599E+0	1.240540E+0	1.404891E+0	1.394420E+0	1.319701E+0	1.269956E+0	1.356630E+0
5.420210E+2	9.545173E-1	1.172062E+0	9.055434E-1	1.048793E+0	1.066185E+0	1.023545E+0	1.159742E+0	1.228682E+0	1.090461E+0	1.098287E+0	1.185567E+0	1.209492E+0	1.241057E+0	1.178672E+0	1.142529E+0	1.055978E+0	1.084231E+0	1.090382E+0	1.129652E+0	1.104665E+0	1.003600E+0	1.058508E+0	1.167638E+0	1.205543E+0	9.607066E-1	1.122619E+0	1.101339E+0	1.160925E+0	1.190514E+0	1.122585E+0	1.059366E+0	1.071327E+0	1.171020E+0	1.157857E+0	1.033677E+0	1.170147E+0	1.011925E+0	1.112328E+0	1.107808E+0	1.256470E+0	1.104033E+0	1.078792E+0	9.942142E-1	1.114114E+0	1.182897E+0	1.210291E+0	1.035323E+0	1.084449E+0	9.786299E-1	1.169422E+0	1.085951E+0	1.105008E+0	1.082743E+0	1.081108E+0	1.184052E+0	1.178566E+0	1.145961E+0	1.149504E+0	1.122135E+0	1.146490E+0	1.203259E+0	1.256683E+0	1.035103E+0	1.089676E+0	1.169678E+0	1.064347E+0	1.104769E+0	1.126589E+0	1.075605E+0	1.078857E+0	1.156306E+0	1.218300E+0	1.137147E+0	1.163583E+0	1.082003E+0	1.135679E+0	1.202335E+0	1.230530E+0	1.004900E+0	1.048110E+0	1.162398E+0	1.125856E+0	1.103041E+0	1.119394E+0	1.107552E+0	1.033847E+0	1.193619E+0	1.200141E+0	1.164834E+0	1.123017E+0	1.131089E+0	1.112219E+0	1.259144E+0	1.213670E+0	1.026376E+0	1.049542E+0	1.173430E+0	1.132942E+0	1.161598E+0	1.151614E+0	1.087423E+0	1.102378E+0	1.208424E+0	1.315576E+0	1.069712E+0	1.098623E+0	1.108769E+0	1.082802E+0	1.161790E+0	1.123761E+0	1.097453E+0	1.111727E+0	1.126351E+0	1.093215E+0	1.155535E+0	1.123407E+0	1.044530E+0	1.020655E+0	1.188099E+0	1.180295E+0	1.120899E+0	1.005049E+0	1.166156E+0	1.182490E+0	1.174087E+0	1.028309E+0	1.133406E+0	1.075047E+0	1.116651E+0	1.001595E+0	1.235381E+0	1.125039E+0	1.078907E+0	1.023811E+0	1.242638E+0	1.218877E+0	1.074104E+0	1.011076E+0	1.089565E+0	1.140266E+0	1.221898E+0	9.808523E-1	1.070962E+0	1.071188E+0	1.156191E+0	1.030411E+0	1.138962E+0	1.170308E+0	1.160229E+0	1.002733E+0	1.170236E+0	1.215856E+0	1.232558E+0	9.848420E-1	1.031454E+0	1.210868E+0	1.228373E+0	1.036285E+0	1.013513E+0	1.085341E+0	1.118144E+0	1.080999E+0	1.142231E+0	1.119330E+0	1.032103E+0	1.100325E+0	1.209164E+0	1.216346E+0	1.141042E+0	1.056060E+0	1.236496E+0
5.422620E+2	8.528492E-1	9.969801E-1	8.797505E-1	8.872567E-1	9.396370E-1	9.034997E-1	1.046447E+0	1.107983E+0	9.729487E-1	1.003778E+0	1.087182E+0	1.060351E+0	1.057836E+0	1.055892E+0	1.020433E+0	9.710368E-1	1.042892E+0	1.015380E+0	1.017702E+0	9.848184E-1	9.304817E-1	9.406858E-1	1.095748E+0	1.080326E+0	9.277213E-1	1.052101E+0	1.033716E+0	1.015784E+0	1.071817E+0	1.088857E+0	9.815378E-1	9.836816E-1	1.020241E+0	1.027873E+0	9.657205E-1	9.812735E-1	9.459544E-1	9.553105E-1	9.785437E-1	1.117883E+0	9.931771E-1	9.774881E-1	8.812014E-1	1.040413E+0	1.046048E+0	1.065129E+0	9.582839E-1	9.618022E-1	8.715407E-1	1.072394E+0	9.745255E-1	9.571949E-1	9.365013E-1	9.574469E-1	1.031598E+0	1.103446E+0	1.040272E+0	1.037880E+0	9.873890E-1	1.062653E+0	1.133283E+0	1.069919E+0	9.345130E-1	9.889753E-1	1.033137E+0	9.997585E-1	9.942924E-1	1.108852E+0	9.644119E-1	1.002318E+0	1.062972E+0	1.084699E+0	9.954648E-1	1.030496E+0	9.837516E-1	1.017389E+0	1.086457E+0	1.102183E+0	8.823326E-1	9.300672E-1	1.035483E+0	1.036267E+0	1.001727E+0	1.017112E+0	1.012118E+0	9.756881E-1	1.082160E+0	1.093161E+0	1.037123E+0	9.899980E-1	9.958665E-1	1.026203E+0	1.114890E+0	1.099638E+0	9.079382E-1	9.660601E-1	1.046516E+0	1.010725E+0	1.002364E+0	1.028673E+0	8.915659E-1	9.695714E-1	1.081773E+0	1.116726E+0	9.624000E-1	1.006444E+0	1.031867E+0	1.034214E+0	1.078522E+0	1.112271E+0	9.586170E-1	9.920788E-1	1.012508E+0	1.036140E+0	1.027447E+0	1.050831E+0	9.653603E-1	9.705506E-1	1.082428E+0	1.097286E+0	1.038669E+0	9.931718E-1	1.033147E+0	1.072907E+0	1.100403E+0	1.111923E+0	1.038708E+0	1.001785E+0	1.033427E+0	1.060204E+0	1.161942E+0	1.037054E+0	9.456899E-1	9.763552E-1	1.122981E+0	1.121331E+0	1.025430E+0	9.381716E-1	9.726270E-1	1.013176E+0	1.092987E+0	9.638068E-1	9.770081E-1	1.007274E+0	1.102100E+0	1.001508E+0	1.056124E+0	1.042786E+0	1.032636E+0	9.835488E-1	1.057401E+0	1.098388E+0	1.061073E+0	9.208780E-1	9.738557E-1	1.041880E+0	1.097378E+0	9.085178E-1	9.368615E-1	9.391316E-1	1.029845E+0	9.954239E-1	1.073519E+0	1.014338E+0	9.361416E-1	9.491740E-1	1.091509E+0	1.093298E+0	1.053498E+0	9.944081E-1	1.143558E+0
5.425240E+2	8.132528E-1	1.032375E+0	7.937727E-1	9.267429E-1	8.738912E-1	9.350904E-1	1.021890E+0	1.052315E+0	9.633062E-1	9.801502E-1	1.043456E+0	9.934532E-1	1.072159E+0	1.029472E+0	9.969350E-1	9.328375E-1	1.002134E+0	9.530621E-1	9.469638E-1	9.657123E-1	9.177228E-1	8.804154E-1	9.685915E-1	1.043642E+0	8.260632E-1	9.512152E-1	9.990365E-1	1.041106E+0	1.010136E+0	1.026777E+0	9.228074E-1	9.718374E-1	1.020802E+0	9.933396E-1	9.158062E-1	9.446616E-1	9.329464E-1	9.247151E-1	9.943724E-1	1.045718E+0	9.975244E-1	9.215050E-1	8.607044E-1	9.715047E-1	1.042170E+0	1.045673E+0	8.856324E-1	8.814327E-1	8.449019E-1	1.010062E+0	9.482742E-1	9.374091E-1	9.270182E-1	8.859270E-1	9.751328E-1	1.071843E+0	1.034301E+0	9.966398E-1	9.756475E-1	1.017940E+0	1.078195E+0	1.067044E+0	8.901221E-1	9.914453E-1	9.852282E-1	9.563384E-1	1.003130E+0	1.017802E+0	8.807709E-1	9.438738E-1	1.017861E+0	1.047391E+0	9.657298E-1	9.991459E-1	9.271996E-1	1.001011E+0	1.047995E+0	1.077256E+0	9.192569E-1	8.807213E-1	1.018955E+0	1.016865E+0	9.309218E-1	9.496977E-1	9.288578E-1	8.917843E-1	9.995168E-1	1.087364E+0	1.016544E+0	9.349558E-1	9.114261E-1	1.010254E+0	1.096857E+0	1.026618E+0	9.200336E-1	8.965739E-1	9.672664E-1	9.840495E-1	9.856923E-1	9.897209E-1	9.113442E-1	9.249784E-1	1.057241E+0	1.062055E+0	9.550188E-1	9.099913E-1	9.732458E-1	9.953435E-1	1.019586E+0	1.054309E+0	9.012379E-1	9.357447E-1	9.698961E-1	9.741562E-1	1.004880E+0	9.555766E-1	9.117612E-1	9.209152E-1	1.033116E+0	1.019034E+0	1.000450E+0	9.869747E-1	9.983113E-1	1.058296E+0	1.094120E+0	1.088317E+0	1.016899E+0	9.837190E-1	1.019864E+0	1.036071E+0	1.016320E+0	1.040745E+0	8.909493E-1	9.134128E-1	1.114605E+0	1.054674E+0	9.286001E-1	9.441232E-1	1.029125E+0	9.633119E-1	1.011516E+0	9.945810E-1	9.176380E-1	9.922057E-1	1.077631E+0	1.006226E+0	9.876124E-1	1.099951E+0	1.009201E+0	8.900882E-1	1.031174E+0	1.070469E+0	1.097588E+0	9.457847E-1	9.266750E-1	1.080201E+0	1.028866E+0	1.032471E+0	9.670112E-1	9.595439E-1	9.724194E-1	1.012004E+0	9.927184E-1	9.832506E-1	9.163238E-1	1.016795E+0	1.106690E+0	1.030229E+0	1.041886E+0	1.020830E+0	9.871550E-1
5.427650E+2	9.769908E-1	1.003932E+0	8.270891E-1	9.177687E-1	9.885751E-1	9.107895E-1	1.062632E+0	1.083011E+0	9.934378E-1	1.014727E+0	1.056817E+0	1.062193E+0	1.106235E+0	1.105110E+0	1.002044E+0	9.921600E-1	1.028918E+0	9.696068E-1	1.024468E+0	9.813447E-1	9.506007E-1	9.642508E-1	1.050753E+0	1.119457E+0	8.790552E-1	9.970257E-1	1.001927E+0	1.020106E+0	1.070261E+0	1.113298E+0	9.743755E-1	1.011160E+0	9.922152E-1	1.029792E+0	9.344497E-1	1.003939E+0	1.010065E+0	9.413612E-1	1.028140E+0	1.122182E+0	9.953509E-1	9.924170E-1	8.884040E-1	1.048203E+0	1.083169E+0	1.123494E+0	9.421934E-1	9.469363E-1	8.454344E-1	1.068867E+0	9.430235E-1	9.729073E-1	9.879102E-1	9.754408E-1	1.035191E+0	1.088421E+0	1.052214E+0	9.806936E-1	9.845933E-1	1.031602E+0	1.075214E+0	1.121158E+0	9.312078E-1	1.051666E+0	9.942111E-1	9.595948E-1	1.017492E+0	1.063918E+0	9.589994E-1	9.559333E-1	1.032898E+0	1.061508E+0	9.814722E-1	1.073675E+0	1.006029E+0	9.809932E-1	1.060816E+0	1.077256E+0	9.331030E-1	8.942671E-1	1.032532E+0	1.029990E+0	9.700659E-1	9.990963E-1	9.838769E-1	9.165736E-1	1.079442E+0	1.086837E+0	9.778069E-1	9.963050E-1	1.005315E+0	1.029051E+0	1.143225E+0	1.116643E+0	9.684168E-1	1.005147E+0	1.000000E+0	1.042248E+0	1.033406E+0	1.007980E+0	9.417360E-1	1.018526E+0	1.060663E+0	1.086711E+0	9.629677E-1	9.862983E-1	1.019891E+0	1.005062E+0	1.062842E+0	1.109138E+0	9.698875E-1	1.008032E+0	1.006148E+0	9.944084E-1	9.823114E-1	9.795520E-1	9.314304E-1	9.429223E-1	1.125237E+0	1.073493E+0	1.006820E+0	1.008665E+0	1.109786E+0	1.115411E+0	1.088408E+0	1.103068E+0	1.030099E+0	9.942574E-1	9.841079E-1	1.074568E+0	1.144367E+0	1.035207E+0	9.214691E-1	9.673632E-1	1.122382E+0	1.083938E+0	9.648468E-1	1.012564E+0	9.910210E-1	9.949325E-1	1.108456E+0	1.120049E+0	9.418472E-1	9.760977E-1	1.070547E+0	1.088219E+0	1.038685E+0	1.062888E+0	1.050343E+0	1.009619E+0	1.106804E+0	1.069415E+0	1.074766E+0	1.013146E+0	9.119689E-1	1.065752E+0	1.080935E+0	1.081100E+0	9.475927E-1	9.657150E-1	1.018730E+0	1.056396E+0	1.028984E+0	9.533363E-1	9.371846E-1	1.061046E+0	1.049761E+0	1.085878E+0	1.045459E+0	1.034671E+0	1.064222E+0
5.430120E+2	1.250424E+0	1.188496E+0	9.549811E-1	1.045205E+0	1.117594E+0	1.073604E+0	1.195462E+0	1.262501E+0	1.214605E+0	1.167440E+0	1.185566E+0	1.215016E+0	1.222289E+0	1.225297E+0	1.172158E+0	1.068111E+0	1.162834E+0	1.138913E+0	1.111199E+0	1.146351E+0	1.125788E+0	1.080259E+0	1.196006E+0	1.298969E+0	9.569214E-1	1.137547E+0	1.144688E+0	1.181924E+0	1.208656E+0	1.238928E+0	1.120006E+0	1.124386E+0	1.154766E+0	1.190950E+0	1.150346E+0	1.162012E+0	1.089043E+0	1.055189E+0	1.167428E+0	1.266506E+0	1.160548E+0	1.175829E+0	1.007510E+0	1.223768E+0	1.283735E+0	1.231243E+0	1.058240E+0	1.080266E+0	9.882201E-1	1.191770E+0	1.115703E+0	1.132359E+0	1.074256E+0	1.102333E+0	1.199965E+0	1.246956E+0	1.194327E+0	1.184694E+0	1.160714E+0	1.219148E+0	1.276214E+0	1.263389E+0	1.079970E+0	1.137557E+0	1.205010E+0	1.139789E+0	1.137360E+0	1.156151E+0	1.069209E+0	1.086278E+0	1.187936E+0	1.206704E+0	1.154639E+0	1.161809E+0	1.117420E+0	1.141138E+0	1.242273E+0	1.274021E+0	1.094646E+0	1.085359E+0	1.224379E+0	1.219441E+0	1.107647E+0	1.156588E+0	1.105604E+0	1.097251E+0	1.202862E+0	1.247041E+0	1.246543E+0	1.143086E+0	1.117508E+0	1.238680E+0	1.230810E+0	1.249679E+0	1.113062E+0	1.146050E+0	1.168837E+0	1.153796E+0	1.198389E+0	1.242300E+0	1.111059E+0	1.147457E+0	1.187886E+0	1.230355E+0	1.127059E+0	1.216442E+0	1.169912E+0	1.159328E+0	1.253168E+0	1.223498E+0	1.132289E+0	1.144629E+0	1.128896E+0	1.159495E+0	1.165904E+0	1.157102E+0	1.070592E+0	1.168157E+0	1.226030E+0	1.271763E+0	1.141745E+0	1.142935E+0	1.242795E+0	1.180497E+0	1.227780E+0	1.259480E+0	1.161527E+0	1.140284E+0	1.188780E+0	1.211320E+0	1.279318E+0	1.157033E+0	1.072611E+0	1.108734E+0	1.231870E+0	1.279573E+0	1.098441E+0	1.130600E+0	1.182196E+0	1.158509E+0	1.209523E+0	1.255457E+0	1.088255E+0	1.115354E+0	1.188387E+0	1.189087E+0	1.217440E+0	1.236895E+0	1.156583E+0	1.081929E+0	1.215979E+0	1.240088E+0	1.197348E+0	1.132017E+0	1.089665E+0	1.184483E+0	1.258519E+0	1.271799E+0	1.144846E+0	1.107653E+0	1.186066E+0	1.176735E+0	1.147321E+0	1.151004E+0	1.069653E+0	1.167945E+0	1.244407E+0	1.212635E+0	1.139256E+0	1.195722E+0	1.318096E+0
5.432800E+2	1.332829E+0	1.270033E+0	1.087710E+0	1.156485E+0	1.252547E+0	1.221354E+0	1.347822E+0	1.369153E+0	1.274265E+0	1.300559E+0	1.399339E+0	1.381341E+0	1.354148E+0	1.382271E+0	1.345339E+0	1.213724E+0	1.311886E+0	1.282299E+0	1.315417E+0	1.291090E+0	1.220494E+0	1.230708E+0	1.310936E+0	1.413423E+0	1.113194E+0	1.288361E+0	1.308834E+0	1.314096E+0	1.351713E+0	1.376287E+0	1.204519E+0	1.289730E+0	1.308348E+0	1.278728E+0	1.276035E+0	1.286960E+0	1.242819E+0	1.241904E+0	1.333624E+0	1.377857E+0	1.224127E+0	1.247274E+0	1.107779E+0	1.313649E+0	1.415603E+0	1.345979E+0	1.203056E+0	1.244257E+0	1.068669E+0	1.369357E+0	1.209042E+0	1.214413E+0	1.251441E+0	1.256907E+0	1.276450E+0	1.376997E+0	1.342412E+0	1.280374E+0	1.242343E+0	1.324719E+0	1.389864E+0	1.394605E+0	1.155530E+0	1.246648E+0	1.327777E+0	1.252683E+0	1.279322E+0	1.287402E+0	1.173022E+0	1.250021E+0	1.357494E+0	1.336776E+0	1.304484E+0	1.319148E+0	1.252228E+0	1.304317E+0	1.391190E+0	1.416158E+0	1.178239E+0	1.221787E+0	1.268651E+0	1.346122E+0	1.234290E+0	1.246665E+0	1.267744E+0	1.212139E+0	1.357276E+0	1.450988E+0	1.300415E+0	1.291011E+0	1.242694E+0	1.306465E+0	1.443585E+0	1.396221E+0	1.234524E+0	1.230497E+0	1.294601E+0	1.276499E+0	1.299565E+0	1.295857E+0	1.211401E+0	1.221133E+0	1.336791E+0	1.395438E+0	1.248565E+0	1.341587E+0	1.240510E+0	1.287478E+0	1.392130E+0	1.371281E+0	1.243461E+0	1.222401E+0	1.312699E+0	1.292669E+0	1.309239E+0	1.317805E+0	1.186640E+0	1.224817E+0	1.440619E+0	1.411880E+0	1.278408E+0	1.280820E+0	1.340968E+0	1.341881E+0	1.381431E+0	1.387856E+0	1.318209E+0	1.247675E+0	1.297280E+0	1.281419E+0	1.361543E+0	1.322544E+0	1.198079E+0	1.233119E+0	1.378449E+0	1.355984E+0	1.229963E+0	1.294263E+0	1.324099E+0	1.250330E+0	1.389478E+0	1.390393E+0	1.268669E+0	1.265005E+0	1.376417E+0	1.321808E+0	1.242353E+0	1.356877E+0	1.294593E+0	1.212772E+0	1.387978E+0	1.425508E+0	1.362312E+0	1.288247E+0	1.195057E+0	1.367919E+0	1.419658E+0	1.392893E+0	1.221497E+0	1.247693E+0	1.297211E+0	1.304025E+0	1.322282E+0	1.294122E+0	1.188040E+0	1.340975E+0	1.406518E+0	1.365358E+0	1.300050E+0	1.364322E+0	1.261428E+0
5.435110E+2	1.513155E+0	1.457755E+0	1.205391E+0	1.304262E+0	1.384041E+0	1.317583E+0	1.511349E+0	1.593905E+0	1.462286E+0	1.432527E+0	1.523838E+0	1.513298E+0	1.582309E+0	1.504015E+0	1.551213E+0	1.384951E+0	1.381172E+0	1.398113E+0	1.487032E+0	1.402251E+0	1.350535E+0	1.322703E+0	1.487488E+0	1.557227E+0	1.300831E+0	1.443809E+0	1.480495E+0	1.495678E+0	1.560082E+0	1.498494E+0	1.570270E+0	1.372163E+0	1.421014E+0	1.460986E+0	1.523804E+0	1.447940E+0	1.396593E+0	1.362027E+0	1.466588E+0	1.561368E+0	1.414322E+0	1.458412E+0	1.334913E+0	1.512584E+0	1.575724E+0	1.517085E+0	1.387366E+0	1.386877E+0	1.208259E+0	1.493434E+0	1.482064E+0	1.357568E+0	1.413655E+0	1.392104E+0	1.539270E+0	1.529315E+0	1.486316E+0	1.440385E+0	1.436356E+0	1.532755E+0	1.563070E+0	1.537314E+0	1.307124E+0	1.454460E+0	1.466714E+0	1.390003E+0	1.461056E+0	1.509706E+0	1.317672E+0	1.420254E+0	1.507864E+0	1.541971E+0	1.493976E+0	1.466432E+0	1.339057E+0	1.444446E+0	1.531230E+0	1.541853E+0	1.311063E+0	1.332575E+0	1.433346E+0	1.471089E+0	1.417924E+0	1.394860E+0	1.387527E+0	1.323216E+0	1.442641E+0	1.551644E+0	1.451730E+0	1.425176E+0	1.385001E+0	1.490457E+0	1.594023E+0	1.571772E+0	1.318186E+0	1.368988E+0	1.501341E+0	1.393867E+0	1.454778E+0	1.485140E+0	1.330073E+0	1.349094E+0	1.582679E+0	1.570705E+0	1.421173E+0	1.439868E+0	1.529838E+0	1.437495E+0	1.553261E+0	1.545693E+0	1.360270E+0	1.383427E+0	1.392200E+0	1.454073E+0	1.445869E+0	1.364461E+0	1.277613E+0	1.409310E+0	1.509438E+0	1.527142E+0	1.468342E+0	1.437814E+0	1.514514E+0	1.492641E+0	1.580777E+0	1.557054E+0	1.509899E+0	1.378644E+0	1.399616E+0	1.529063E+0	1.575583E+0	1.443754E+0	1.334688E+0	1.372495E+0	1.560329E+0	1.545115E+0	1.368217E+0	1.412302E+0	1.425928E+0	1.412689E+0	1.564799E+0	1.531959E+0	1.354555E+0	1.378800E+0	1.509067E+0	1.459251E+0	1.437302E+0	1.501987E+0	1.489368E+0	1.393297E+0	1.544727E+0	1.581955E+0	1.507716E+0	1.411084E+0	1.345792E+0	1.518690E+0	1.601076E+0	1.595030E+0	1.366623E+0	1.384885E+0	1.446021E+0	1.513148E+0	1.482611E+0	1.409671E+0	1.338237E+0	1.469753E+0	1.533933E+0	1.451926E+0	1.407245E+0	1.560604E+0	1.490366E+0
5.437640E+2	1.538839E+0	1.575320E+0	1.209691E+0	1.376054E+0	1.455718E+0	1.422078E+0	1.603994E+0	1.654778E+0	1.517726E+0	1.527614E+0	1.628900E+0	1.553804E+0	1.613424E+0	1.595195E+0	1.694763E+0	1.432137E+0	1.467930E+0	1.458226E+0	1.557770E+0	1.517464E+0	1.404514E+0	1.431460E+0	1.582368E+0	1.648694E+0	1.326783E+0	1.517928E+0	1.599557E+0	1.575968E+0	1.665822E+0	1.631943E+0	1.673883E+0	1.520449E+0	1.535358E+0	1.504636E+0	1.632053E+0	1.563588E+0	1.393807E+0	1.386323E+0	1.633838E+0	1.647872E+0	1.457793E+0	1.475475E+0	1.440171E+0	1.507789E+0	1.635557E+0	1.611867E+0	1.619459E+0	1.393846E+0	1.319609E+0	1.559292E+0	1.616818E+0	1.468719E+0	1.441606E+0	1.440554E+0	1.644503E+0	1.605994E+0	1.574093E+0	1.538261E+0	1.607443E+0	1.561326E+0	1.608234E+0	1.651291E+0	1.640533E+0	1.464335E+0	1.561932E+0	1.484439E+0	1.674830E+0	1.609623E+0	1.431814E+0	1.472667E+0	1.596532E+0	1.691201E+0	1.481731E+0	1.565805E+0	1.535562E+0	1.483268E+0	1.625905E+0	1.601785E+0	1.456706E+0	1.431744E+0	1.530746E+0	1.554968E+0	1.553778E+0	1.458204E+0	1.418200E+0	1.382329E+0	1.599768E+0	1.602238E+0	1.511653E+0	1.464165E+0	1.468262E+0	1.554259E+0	1.659970E+0	1.625784E+0	1.439143E+0	1.398906E+0	1.539817E+0	1.511722E+0	1.517438E+0	1.513137E+0	1.395677E+0	1.420830E+0	1.590091E+0	1.657002E+0	1.448995E+0	1.532048E+0	1.550637E+0	1.439317E+0	1.565155E+0	1.555091E+0	1.445823E+0	1.547445E+0	1.520033E+0	1.517286E+0	1.570907E+0	1.442219E+0	1.407429E+0	1.386837E+0	1.582593E+0	1.609095E+0	1.459078E+0	1.509079E+0	1.637389E+0	1.638087E+0	1.625898E+0	1.674117E+0	1.572457E+0	1.449905E+0	1.509350E+0	1.598014E+0	1.701748E+0	1.524969E+0	1.403962E+0	1.415952E+0	1.686565E+0	1.695226E+0	1.369770E+0	1.467847E+0	1.454176E+0	1.496608E+0	1.564286E+0	1.578359E+0	1.453694E+0	1.432841E+0	1.585697E+0	1.539471E+0	1.465328E+0	1.596218E+0	1.544051E+0	1.448884E+0	1.616090E+0	1.620411E+0	1.578788E+0	1.479009E+0	1.404001E+0	1.594702E+0	1.638898E+0	1.599797E+0	1.396774E+0	1.452291E+0	1.473192E+0	1.594442E+0	1.547503E+0	1.397941E+0	1.384658E+0	1.548312E+0	1.641827E+0	1.564462E+0	1.526055E+0	1.622257E+0	1.633170E+0
5.440170E+2	1.581109E+0	1.691622E+0	1.271486E+0	1.462807E+0	1.543212E+0	1.459014E+0	1.598970E+0	1.701079E+0	1.632226E+0	1.580057E+0	1.709066E+0	1.735475E+0	1.661818E+0	1.684301E+0	1.752490E+0	1.488317E+0	1.591365E+0	1.500688E+0	1.653724E+0	1.598517E+0	1.442788E+0	1.404270E+0	1.648879E+0	1.730381E+0	1.418168E+0	1.564771E+0	1.697236E+0	1.674787E+0	1.695887E+0	1.698422E+0	1.713036E+0	1.589617E+0	1.593653E+0	1.587614E+0	1.726471E+0	1.596716E+0	1.488113E+0	1.518144E+0	1.618013E+0	1.774989E+0	1.549090E+0	1.525592E+0	1.487256E+0	1.654594E+0	1.773517E+0	1.687694E+0	1.691137E+0	1.494192E+0	1.357437E+0	1.633388E+0	1.717744E+0	1.489087E+0	1.446094E+0	1.497769E+0	1.684537E+0	1.698732E+0	1.674406E+0	1.599846E+0	1.675652E+0	1.556356E+0	1.756129E+0	1.705400E+0	1.699567E+0	1.617852E+0	1.598462E+0	1.500723E+0	1.731173E+0	1.614354E+0	1.471671E+0	1.487047E+0	1.620386E+0	1.689689E+0	1.630993E+0	1.582366E+0	1.722350E+0	1.553636E+0	1.685077E+0	1.744455E+0	1.720306E+0	1.456419E+0	1.602173E+0	1.616600E+0	1.757554E+0	1.551190E+0	1.515094E+0	1.459082E+0	1.653052E+0	1.767714E+0	1.564309E+0	1.609800E+0	1.667257E+0	1.558246E+0	1.663577E+0	1.716809E+0	1.711298E+0	1.520991E+0	1.612750E+0	1.572345E+0	1.695641E+0	1.597735E+0	1.466593E+0	1.529405E+0	1.715030E+0	1.749189E+0	1.493850E+0	1.620563E+0	1.562615E+0	1.601477E+0	1.705736E+0	1.730027E+0	1.567752E+0	1.535977E+0	1.556922E+0	1.613639E+0	1.587374E+0	1.611348E+0	1.448737E+0	1.445369E+0	1.723485E+0	1.621255E+0	1.620640E+0	1.615981E+0	1.582287E+0	1.632773E+0	1.596200E+0	1.709531E+0	1.657400E+0	1.579870E+0	1.596892E+0	1.589398E+0	1.733757E+0	1.625879E+0	1.497454E+0	1.463406E+0	1.804429E+0	1.696311E+0	1.516830E+0	1.554140E+0	1.586226E+0	1.578697E+0	1.735475E+0	1.672104E+0	1.509608E+0	1.534684E+0	1.657818E+0	1.611437E+0	1.558752E+0	1.635790E+0	1.588317E+0	1.526112E+0	1.694157E+0	1.709431E+0	1.679200E+0	1.572973E+0	1.479983E+0	1.629880E+0	1.633416E+0	1.613147E+0	1.465761E+0	1.529193E+0	1.607800E+0	1.672528E+0	1.658208E+0	1.524637E+0	1.416467E+0	1.524943E+0	1.697129E+0	1.639279E+0	1.588586E+0	1.666294E+0	1.735172E+0
5.442810E+2	1.584320E+0	1.656857E+0	1.307490E+0	1.461012E+0	1.597096E+0	1.519764E+0	1.676549E+0	1.752066E+0	1.641870E+0	1.638836E+0	1.750366E+0	1.684534E+0	1.700338E+0	1.707614E+0	1.795914E+0	1.525165E+0	1.597186E+0	1.500690E+0	1.627278E+0	1.555096E+0	1.531611E+0	1.492185E+0	1.678714E+0	1.743589E+0	1.361933E+0	1.652787E+0	1.675273E+0	1.653789E+0	1.732167E+0	1.712598E+0	1.746457E+0	1.570669E+0	1.609349E+0	1.626946E+0	1.717449E+0	1.648435E+0	1.493689E+0	1.495202E+0	1.775763E+0	1.715730E+0	1.610494E+0	1.517596E+0	1.533239E+0	1.645607E+0	1.743042E+0	1.679711E+0	1.709177E+0	1.498371E+0	1.401659E+0	1.614568E+0	1.755080E+0	1.498400E+0	1.559395E+0	1.503771E+0	1.666575E+0	1.737588E+0	1.680381E+0	1.634489E+0	1.684042E+0	1.633364E+0	1.755632E+0	1.685291E+0	1.757654E+0	1.547263E+0	1.629002E+0	1.532206E+0	1.772601E+0	1.608440E+0	1.392947E+0	1.525088E+0	1.671717E+0	1.695740E+0	1.654314E+0	1.584736E+0	1.737203E+0	1.604592E+0	1.654503E+0	1.702557E+0	1.714665E+0	1.464158E+0	1.667103E+0	1.684505E+0	1.745469E+0	1.507023E+0	1.525317E+0	1.481964E+0	1.718845E+0	1.658627E+0	1.567338E+0	1.581702E+0	1.702095E+0	1.560523E+0	1.746520E+0	1.708807E+0	1.730951E+0	1.516648E+0	1.646057E+0	1.611631E+0	1.680696E+0	1.619034E+0	1.472863E+0	1.552671E+0	1.705334E+0	1.765802E+0	1.487036E+0	1.649867E+0	1.697506E+0	1.611802E+0	1.697088E+0	1.745172E+0	1.735791E+0	1.506563E+0	1.623702E+0	1.541833E+0	1.699602E+0	1.644395E+0	1.514138E+0	1.451459E+0	1.716983E+0	1.729645E+0	1.580107E+0	1.547297E+0	1.703895E+0	1.671290E+0	1.659600E+0	1.715435E+0	1.726845E+0	1.491553E+0	1.550039E+0	1.663519E+0	1.760123E+0	1.601265E+0	1.484862E+0	1.482392E+0	1.779296E+0	1.675176E+0	1.482135E+0	1.531326E+0	1.662434E+0	1.576873E+0	1.652458E+0	1.708558E+0	1.579350E+0	1.520133E+0	1.704825E+0	1.571918E+0	1.650934E+0	1.592447E+0	1.616959E+0	1.520209E+0	1.673422E+0	1.733139E+0	1.679852E+0	1.619954E+0	1.537583E+0	1.621084E+0	1.687677E+0	1.697056E+0	1.534238E+0	1.520172E+0	1.534939E+0	1.620650E+0	1.656937E+0	1.545163E+0	1.460797E+0	1.599029E+0	1.747013E+0	1.623818E+0	1.623424E+0	1.719139E+0	1.578769E+0
5.445180E+2	1.624454E+0	1.562047E+0	1.322000E+0	1.487936E+0	1.453246E+0	1.406038E+0	1.668733E+0	1.689636E+0	1.510495E+0	1.586971E+0	1.684169E+0	1.620705E+0	1.676635E+0	1.677045E+0	1.726437E+0	1.486966E+0	1.558173E+0	1.546463E+0	1.647575E+0	1.551623E+0	1.488428E+0	1.471790E+0	1.601930E+0	1.689785E+0	1.540913E+0	1.631683E+0	1.729025E+0	1.579056E+0	1.677226E+0	1.691580E+0	1.733089E+0	1.519030E+0	1.592531E+0	1.543489E+0	1.726468E+0	1.583347E+0	1.493226E+0	1.521748E+0	1.597435E+0	1.654562E+0	1.594733E+0	1.587442E+0	1.519388E+0	1.637815E+0	1.674895E+0	1.642796E+0	1.683823E+0	1.478396E+0	1.343052E+0	1.564587E+0	1.616820E+0	1.482687E+0	1.464563E+0	1.502845E+0	1.698914E+0	1.650548E+0	1.662464E+0	1.556958E+0	1.724854E+0	1.714712E+0	1.740742E+0	1.661346E+0	1.747262E+0	1.477169E+0	1.596666E+0	1.499639E+0	1.711839E+0	1.597798E+0	1.434770E+0	1.522304E+0	1.711127E+0	1.691708E+0	1.572104E+0	1.641514E+0	1.651518E+0	1.517846E+0	1.671762E+0	1.714755E+0	1.710052E+0	1.466097E+0	1.585641E+0	1.661676E+0	1.727621E+0	1.515159E+0	1.509737E+0	1.455267E+0	1.696006E+0	1.761392E+0	1.589125E+0	1.518061E+0	1.679070E+0	1.606666E+0	1.656361E+0	1.654794E+0	1.761697E+0	1.479009E+0	1.580014E+0	1.579136E+0	1.705990E+0	1.595907E+0	1.486855E+0	1.467362E+0	1.661406E+0	1.699343E+0	1.519967E+0	1.581499E+0	1.725875E+0	1.571715E+0	1.617604E+0	1.692427E+0	1.706587E+0	1.577853E+0	1.582996E+0	1.537539E+0	1.710581E+0	1.554970E+0	1.444310E+0	1.480957E+0	1.690431E+0	1.651390E+0	1.588213E+0	1.547813E+0	1.710231E+0	1.612184E+0	1.717294E+0	1.701660E+0	1.786533E+0	1.553277E+0	1.553737E+0	1.559517E+0	1.748199E+0	1.615417E+0	1.422854E+0	1.449422E+0	1.660838E+0	1.684390E+0	1.512167E+0	1.532815E+0	1.730755E+0	1.559239E+0	1.645756E+0	1.641328E+0	1.730372E+0	1.521691E+0	1.644296E+0	1.628545E+0	1.665261E+0	1.599357E+0	1.590921E+0	1.467576E+0	1.683790E+0	1.658337E+0	1.673983E+0	1.531087E+0	1.729984E+0	1.629255E+0	1.716726E+0	1.671311E+0	1.705429E+0	1.427131E+0	1.604710E+0	1.612628E+0	1.812173E+0	1.471258E+0	1.359620E+0	1.596540E+0	1.762194E+0	1.615162E+0	1.568040E+0	1.685168E+0	1.594634E+0
5.447720E+2	1.560243E+0	1.521596E+0	1.232797E+0	1.389814E+0	1.380083E+0	1.400206E+0	1.633574E+0	1.622000E+0	1.522550E+0	1.563918E+0	1.608253E+0	1.587560E+0	1.536383E+0	1.589496E+0	1.673309E+0	1.412365E+0	1.474333E+0	1.474768E+0	1.573147E+0	1.458411E+0	1.396665E+0	1.383424E+0	1.561337E+0	1.573369E+0	1.549024E+0	1.511238E+0	1.614006E+0	1.564234E+0	1.549198E+0	1.573772E+0	1.606559E+0	1.501973E+0	1.564507E+0	1.489767E+0	1.582139E+0	1.579280E+0	1.425398E+0	1.397123E+0	1.523038E+0	1.625409E+0	1.450188E+0	1.406695E+0	1.440724E+0	1.540746E+0	1.581262E+0	1.580940E+0	1.586304E+0	1.372475E+0	1.267930E+0	1.539891E+0	1.619157E+0	1.389579E+0	1.438110E+0	1.366729E+0	1.594709E+0	1.633969E+0	1.526322E+0	1.527817E+0	1.595144E+0	1.527790E+0	1.656371E+0	1.589510E+0	1.593781E+0	1.445577E+0	1.565525E+0	1.442649E+0	1.593077E+0	1.572966E+0	1.360966E+0	1.466176E+0	1.566457E+0	1.635742E+0	1.529542E+0	1.551017E+0	1.609819E+0	1.487513E+0	1.558843E+0	1.662776E+0	1.622352E+0	1.413364E+0	1.486474E+0	1.534996E+0	1.606157E+0	1.468667E+0	1.407487E+0	1.370411E+0	1.559537E+0	1.615412E+0	1.493494E+0	1.429190E+0	1.601711E+0	1.502987E+0	1.672332E+0	1.552264E+0	1.678034E+0	1.419175E+0	1.568532E+0	1.476803E+0	1.584120E+0	1.533221E+0	1.389410E+0	1.438282E+0	1.643151E+0	1.668793E+0	1.431393E+0	1.507629E+0	1.573327E+0	1.548032E+0	1.593814E+0	1.592689E+0	1.666629E+0	1.463193E+0	1.500316E+0	1.472484E+0	1.575175E+0	1.475270E+0	1.412839E+0	1.368108E+0	1.664422E+0	1.602223E+0	1.473557E+0	1.448662E+0	1.641825E+0	1.602219E+0	1.608193E+0	1.598863E+0	1.616077E+0	1.467967E+0	1.484075E+0	1.564114E+0	1.658436E+0	1.489288E+0	1.357457E+0	1.392472E+0	1.556142E+0	1.572751E+0	1.426728E+0	1.413294E+0	1.654551E+0	1.433972E+0	1.570469E+0	1.634226E+0	1.642755E+0	1.423485E+0	1.583766E+0	1.504673E+0	1.613564E+0	1.504503E+0	1.499785E+0	1.427238E+0	1.556319E+0	1.578796E+0	1.601610E+0	1.475613E+0	1.606205E+0	1.583396E+0	1.616423E+0	1.561182E+0	1.596580E+0	1.414313E+0	1.471958E+0	1.476778E+0	1.642938E+0	1.404393E+0	1.333025E+0	1.515498E+0	1.633693E+0	1.523651E+0	1.449231E+0	1.524115E+0	1.603702E+0
5.450090E+2	1.402925E+0	1.443219E+0	1.160255E+0	1.280329E+0	1.339054E+0	1.306403E+0	1.457212E+0	1.515347E+0	1.412267E+0	1.355882E+0	1.506833E+0	1.448240E+0	1.455883E+0	1.524738E+0	1.525670E+0	1.368321E+0	1.387579E+0	1.324765E+0	1.509176E+0	1.386620E+0	1.304407E+0	1.269227E+0	1.448362E+0	1.494130E+0	1.460347E+0	1.388219E+0	1.482229E+0	1.436384E+0	1.503585E+0	1.433968E+0	1.493873E+0	1.366007E+0	1.354872E+0	1.380890E+0	1.450434E+0	1.417136E+0	1.333408E+0	1.308488E+0	1.406961E+0	1.540820E+0	1.368131E+0	1.374704E+0	1.278406E+0	1.420305E+0	1.431669E+0	1.502621E+0	1.460016E+0	1.321840E+0	1.197602E+0	1.445214E+0	1.489645E+0	1.276099E+0	1.279891E+0	1.276288E+0	1.469971E+0	1.481132E+0	1.476761E+0	1.355158E+0	1.520779E+0	1.407935E+0	1.520388E+0	1.520072E+0	1.545140E+0	1.369558E+0	1.358917E+0	1.362320E+0	1.485912E+0	1.416881E+0	1.275356E+0	1.292694E+0	1.506309E+0	1.507184E+0	1.377947E+0	1.370610E+0	1.465870E+0	1.344962E+0	1.502630E+0	1.524883E+0	1.546451E+0	1.330153E+0	1.436887E+0	1.416877E+0	1.538233E+0	1.333257E+0	1.343215E+0	1.263626E+0	1.461124E+0	1.489461E+0	1.336730E+0	1.352362E+0	1.523768E+0	1.366277E+0	1.518291E+0	1.524755E+0	1.507685E+0	1.286472E+0	1.355475E+0	1.340032E+0	1.513988E+0	1.413323E+0	1.309328E+0	1.313225E+0	1.457738E+0	1.502636E+0	1.309886E+0	1.379433E+0	1.505255E+0	1.333031E+0	1.457014E+0	1.506004E+0	1.571852E+0	1.336564E+0	1.405553E+0	1.361404E+0	1.506254E+0	1.400750E+0	1.277614E+0	1.320811E+0	1.522443E+0	1.498062E+0	1.358899E+0	1.363966E+0	1.475878E+0	1.470723E+0	1.511662E+0	1.506396E+0	1.550648E+0	1.332478E+0	1.326873E+0	1.418169E+0	1.504029E+0	1.386534E+0	1.287697E+0	1.323535E+0	1.525029E+0	1.513682E+0	1.328347E+0	1.334931E+0	1.497537E+0	1.436405E+0	1.497252E+0	1.453838E+0	1.488857E+0	1.346584E+0	1.465926E+0	1.445684E+0	1.530727E+0	1.439168E+0	1.361255E+0	1.321481E+0	1.504473E+0	1.515057E+0	1.503150E+0	1.419006E+0	1.479367E+0	1.469691E+0	1.474469E+0	1.500158E+0	1.452988E+0	1.276173E+0	1.342903E+0	1.408852E+0	1.565954E+0	1.324034E+0	1.316337E+0	1.384232E+0	1.526885E+0	1.390712E+0	1.422432E+0	1.420942E+0	1.549301E+0
5.452910E+2	1.369214E+0	1.304797E+0	1.114040E+0	1.201356E+0	1.247110E+0	1.209689E+0	1.416472E+0	1.417540E+0	1.342362E+0	1.335714E+0	1.416344E+0	1.432895E+0	1.423781E+0	1.332021E+0	1.401534E+0	1.358883E+0	1.309558E+0	1.265204E+0	1.365239E+0	1.381408E+0	1.253861E+0	1.216660E+0	1.366201E+0	1.457935E+0	1.361933E+0	1.318731E+0	1.384549E+0	1.420945E+0	1.415471E+0	1.405614E+0	1.458541E+0	1.330948E+0	1.370007E+0	1.336282E+0	1.364437E+0	1.329966E+0	1.236778E+0	1.271596E+0	1.341014E+0	1.384549E+0	1.314334E+0	1.345912E+0	1.239627E+0	1.346005E+0	1.448842E+0	1.385886E+0	1.403455E+0	1.211740E+0	1.080923E+0	1.322313E+0	1.427808E+0	1.191717E+0	1.287878E+0	1.206154E+0	1.400160E+0	1.368190E+0	1.368088E+0	1.324912E+0	1.419022E+0	1.316025E+0	1.411703E+0	1.393648E+0	1.416215E+0	1.276759E+0	1.314005E+0	1.236401E+0	1.454427E+0	1.331746E+0	1.198114E+0	1.241206E+0	1.404681E+0	1.451728E+0	1.262505E+0	1.329795E+0	1.399035E+0	1.321908E+0	1.374426E+0	1.456996E+0	1.387475E+0	1.248396E+0	1.389074E+0	1.386066E+0	1.422529E+0	1.267586E+0	1.261901E+0	1.133482E+0	1.418173E+0	1.444667E+0	1.292544E+0	1.316813E+0	1.417478E+0	1.329251E+0	1.402369E+0	1.448235E+0	1.411422E+0	1.242560E+0	1.294031E+0	1.262920E+0	1.402464E+0	1.339678E+0	1.238416E+0	1.232763E+0	1.452600E+0	1.411515E+0	1.313293E+0	1.323883E+0	1.363425E+0	1.272295E+0	1.380773E+0	1.424021E+0	1.457094E+0	1.275244E+0	1.295526E+0	1.318446E+0	1.413542E+0	1.333358E+0	1.259909E+0	1.217794E+0	1.414606E+0	1.380155E+0	1.298675E+0	1.283402E+0	1.438507E+0	1.362469E+0	1.368294E+0	1.381463E+0	1.414631E+0	1.280288E+0	1.292966E+0	1.335431E+0	1.424940E+0	1.331772E+0	1.186935E+0	1.251104E+0	1.461611E+0	1.372242E+0	1.219092E+0	1.243181E+0	1.509361E+0	1.325731E+0	1.429702E+0	1.393238E+0	1.392596E+0	1.326838E+0	1.279827E+0	1.334197E+0	1.416124E+0	1.335521E+0	1.324796E+0	1.249173E+0	1.408714E+0	1.371250E+0	1.407955E+0	1.310891E+0	1.402167E+0	1.374202E+0	1.373618E+0	1.379066E+0	1.485692E+0	1.256709E+0	1.330555E+0	1.332372E+0	1.461613E+0	1.246612E+0	1.237062E+0	1.286284E+0	1.495978E+0	1.328878E+0	1.310769E+0	1.433524E+0	1.483566E+0
5.455070E+2	1.283599E+0	1.301636E+0	1.099531E+0	1.158878E+0	1.246614E+0	1.201912E+0	1.336663E+0	1.383202E+0	1.333924E+0	1.233135E+0	1.377474E+0	1.441488E+0	1.346247E+0	1.314405E+0	1.364241E+0	1.418208E+0	1.214073E+0	1.235975E+0	1.325255E+0	1.418465E+0	1.235217E+0	1.201705E+0	1.263007E+0	1.387501E+0	1.317050E+0	1.215271E+0	1.393218E+0	1.333241E+0	1.411323E+0	1.333269E+0	1.396467E+0	1.417170E+0	1.235480E+0	1.250427E+0	1.359025E+0	1.393310E+0	1.185212E+0	1.184313E+0	1.355787E+0	1.439986E+0	1.300747E+0	1.220616E+0	1.180906E+0	1.372971E+0	1.336371E+0	1.317046E+0	1.311302E+0	1.366903E+0	1.058548E+0	1.314669E+0	1.351387E+0	1.329055E+0	1.194544E+0	1.189539E+0	1.376549E+0	1.399791E+0	1.291657E+0	1.281472E+0	1.294339E+0	1.345214E+0	1.386392E+0	1.359647E+0	1.385045E+0	1.279720E+0	1.321789E+0	1.273310E+0	1.382619E+0	1.299818E+0	1.169086E+0	1.205952E+0	1.349196E+0	1.338795E+0	1.250842E+0	1.281292E+0	1.396178E+0	1.237590E+0	1.330045E+0	1.410326E+0	1.392606E+0	1.137610E+0	1.304069E+0	1.323866E+0	1.358630E+0	1.242600E+0	1.177668E+0	1.151121E+0	1.413277E+0	1.329254E+0	1.249571E+0	1.269225E+0	1.386775E+0	1.329252E+0	1.403916E+0	1.384219E+0	1.396809E+0	1.198167E+0	1.276800E+0	1.245947E+0	1.382345E+0	1.261167E+0	1.191623E+0	1.237131E+0	1.355615E+0	1.424381E+0	1.213929E+0	1.280540E+0	1.359644E+0	1.267435E+0	1.353739E+0	1.363969E+0	1.364365E+0	1.191490E+0	1.244647E+0	1.247870E+0	1.401340E+0	1.217367E+0	1.195985E+0	1.179866E+0	1.385344E+0	1.396016E+0	1.288831E+0	1.231243E+0	1.411275E+0	1.300041E+0	1.352298E+0	1.389331E+0	1.415204E+0	1.192976E+0	1.265223E+0	1.296357E+0	1.421802E+0	1.278243E+0	1.162232E+0	1.165181E+0	1.398192E+0	1.347852E+0	1.200450E+0	1.227807E+0	1.379941E+0	1.251546E+0	1.313684E+0	1.333108E+0	1.387408E+0	1.230710E+0	1.339069E+0	1.275210E+0	1.325189E+0	1.312906E+0	1.310735E+0	1.204902E+0	1.359921E+0	1.403910E+0	1.346011E+0	1.255982E+0	1.427901E+0	1.342163E+0	1.348406E+0	1.362382E+0	1.390644E+0	1.217785E+0	1.264485E+0	1.282096E+0	1.427895E+0	1.260102E+0	1.183866E+0	1.254959E+0	1.434170E+0	1.349901E+0	1.308982E+0	1.194463E+0	1.327162E+0
5.457720E+2	1.256311E+0	1.215675E+0	1.039884E+0	1.063751E+0	1.130942E+0	1.079436E+0	1.244574E+0	1.359789E+0	1.226053E+0	1.187610E+0	1.266947E+0	1.272094E+0	1.250438E+0	1.236696E+0	1.291186E+0	1.334616E+0	1.151771E+0	1.141672E+0	1.253903E+0	1.366357E+0	1.106648E+0	1.108353E+0	1.230239E+0	1.347389E+0	1.219179E+0	1.187473E+0	1.259705E+0	1.267774E+0	1.245976E+0	1.281455E+0	1.323413E+0	1.270778E+0	1.201288E+0	1.225486E+0	1.270021E+0	1.279987E+0	1.107162E+0	1.114127E+0	1.281393E+0	1.273677E+0	1.209999E+0	1.151837E+0	1.159855E+0	1.284888E+0	1.331940E+0	1.235235E+0	1.263516E+0	1.313010E+0	1.075063E+0	1.188827E+0	1.303547E+0	1.229543E+0	1.145131E+0	1.112483E+0	1.274398E+0	1.274935E+0	1.212241E+0	1.214937E+0	1.334037E+0	1.298638E+0	1.337754E+0	1.264347E+0	1.266983E+0	1.313781E+0	1.223575E+0	1.175069E+0	1.288160E+0	1.315192E+0	1.123328E+0	1.115965E+0	1.320160E+0	1.262164E+0	1.191953E+0	1.226282E+0	1.252229E+0	1.291579E+0	1.239316E+0	1.277734E+0	1.283370E+0	1.331606E+0	1.194275E+0	1.188056E+0	1.341936E+0	1.301874E+0	1.169389E+0	1.112980E+0	1.290401E+0	1.392495E+0	1.192071E+0	1.202139E+0	1.330677E+0	1.250640E+0	1.285936E+0	1.352209E+0	1.313650E+0	1.190444E+0	1.221096E+0	1.187260E+0	1.315086E+0	1.265427E+0	1.096105E+0	1.126614E+0	1.267186E+0	1.350950E+0	1.155449E+0	1.232314E+0	1.300393E+0	1.235855E+0	1.295345E+0	1.278328E+0	1.303912E+0	1.146125E+0	1.221751E+0	1.204296E+0	1.336689E+0	1.181078E+0	1.089277E+0	1.123203E+0	1.371797E+0	1.242687E+0	1.149273E+0	1.164109E+0	1.328302E+0	1.220345E+0	1.227208E+0	1.266365E+0	1.362400E+0	1.163369E+0	1.183232E+0	1.195231E+0	1.303170E+0	1.244401E+0	1.081330E+0	1.120224E+0	1.328192E+0	1.277405E+0	1.133654E+0	1.176725E+0	1.328041E+0	1.149995E+0	1.278103E+0	1.286707E+0	1.276163E+0	1.114314E+0	1.297213E+0	1.238047E+0	1.246712E+0	1.302225E+0	1.238868E+0	1.145878E+0	1.271483E+0	1.301192E+0	1.261899E+0	1.167113E+0	1.291258E+0	1.247304E+0	1.332511E+0	1.295636E+0	1.336985E+0	1.184082E+0	1.194710E+0	1.222197E+0	1.301922E+0	1.156869E+0	1.096251E+0	1.210210E+0	1.331156E+0	1.221291E+0	1.215186E+0	1.234726E+0	1.277296E+0
5.460160E+2	1.201731E+0	1.170798E+0	9.829239E-1	1.066742E+0	1.161592E+0	1.101793E+0	1.237875E+0	1.269264E+0	1.145301E+0	1.142084E+0	1.283344E+0	1.261661E+0	1.218341E+0	1.233588E+0	1.276374E+0	1.272148E+0	1.150607E+0	1.128987E+0	1.186857E+0	1.310198E+0	1.095363E+0	1.092042E+0	1.200896E+0	1.265215E+0	1.158616E+0	1.176665E+0	1.246411E+0	1.277039E+0	1.274483E+0	1.228663E+0	1.249880E+0	1.293519E+0	1.154766E+0	1.164571E+0	1.315124E+0	1.260808E+0	1.129462E+0	1.099732E+0	1.237600E+0	1.281322E+0	1.177394E+0	1.177962E+0	1.136035E+0	1.256725E+0	1.254371E+0	1.219271E+0	1.213784E+0	1.263768E+0	1.165103E+0	1.197648E+0	1.218959E+0	1.265041E+0	1.136644E+0	1.135093E+0	1.244625E+0	1.295657E+0	1.199104E+0	1.179196E+0	1.242903E+0	1.261998E+0	1.303014E+0	1.219810E+0	1.246675E+0	1.286138E+0	1.191835E+0	1.096370E+0	1.237341E+0	1.287404E+0	1.097254E+0	1.078391E+0	1.235122E+0	1.270733E+0	1.163968E+0	1.191976E+0	1.269365E+0	1.270954E+0	1.270381E+0	1.255459E+0	1.271061E+0	1.317093E+0	1.216115E+0	1.179495E+0	1.234867E+0	1.243762E+0	1.104145E+0	1.083426E+0	1.226243E+0	1.296054E+0	1.179966E+0	1.107537E+0	1.255683E+0	1.303617E+0	1.253475E+0	1.247681E+0	1.288450E+0	1.323146E+0	1.199847E+0	1.171742E+0	1.242078E+0	1.314725E+0	1.095625E+0	1.073297E+0	1.244367E+0	1.314502E+0	1.161693E+0	1.104728E+0	1.227903E+0	1.303878E+0	1.238028E+0	1.260055E+0	1.297764E+0	1.294685E+0	1.207123E+0	1.122059E+0	1.275084E+0	1.273742E+0	1.084359E+0	1.114307E+0	1.269380E+0	1.249560E+0	1.133059E+0	1.173921E+0	1.233928E+0	1.259528E+0	1.231206E+0	1.265384E+0	1.239581E+0	1.216057E+0	1.143160E+0	1.154435E+0	1.266137E+0	1.216100E+0	1.043061E+0	1.115727E+0	1.291101E+0	1.245972E+0	1.125884E+0	1.169779E+0	1.255119E+0	1.212629E+0	1.264697E+0	1.287655E+0	1.262905E+0	1.189139E+0	1.279182E+0	1.224480E+0	1.237370E+0	1.213653E+0	1.212829E+0	1.100619E+0	1.276362E+0	1.264842E+0	1.211041E+0	1.154093E+0	1.286970E+0	1.193906E+0	1.281538E+0	1.213636E+0	1.247046E+0	1.077746E+0	1.125553E+0	1.227543E+0	1.264385E+0	1.115224E+0	1.058700E+0	1.130656E+0	1.288323E+0	1.244169E+0	1.121389E+0	1.219628E+0	1.256894E+0
5.467660E+2	1.268617E+0	1.245383E+0	9.968956E-1	1.093067E+0	1.181364E+0	1.108113E+0	1.351730E+0	1.317126E+0	1.248954E+0	1.218729E+0	1.280914E+0	1.335311E+0	1.288960E+0	1.338236E+0	1.342274E+0	1.329672E+0	1.204755E+0	1.149943E+0	1.300039E+0	1.392411E+0	1.160629E+0	1.106089E+0	1.230242E+0	1.388478E+0	1.274872E+0	1.203945E+0	1.325017E+0	1.325212E+0	1.362083E+0	1.282432E+0	1.364954E+0	1.342792E+0	1.183913E+0	1.203901E+0	1.347000E+0	1.395636E+0	1.155941E+0	1.164969E+0	1.281920E+0	1.393629E+0	1.164353E+0	1.166234E+0	1.142680E+0	1.377163E+0	1.307561E+0	1.239726E+0	1.292285E+0	1.381303E+0	1.265266E+0	1.283501E+0	1.295966E+0	1.308104E+0	1.154614E+0	1.113870E+0	1.288255E+0	1.338140E+0	1.304197E+0	1.289720E+0	1.372616E+0	1.322236E+0	1.324355E+0	1.266740E+0	1.356711E+0	1.338953E+0	1.237948E+0	1.193522E+0	1.319096E+0	1.285631E+0	1.151373E+0	1.209664E+0	1.318603E+0	1.312579E+0	1.203615E+0	1.239295E+0	1.322491E+0	1.358306E+0	1.329554E+0	1.354637E+0	1.306446E+0	1.342733E+0	1.320598E+0	1.279357E+0	1.352296E+0	1.375100E+0	1.220514E+0	1.130146E+0	1.299100E+0	1.361926E+0	1.253203E+0	1.215329E+0	1.355477E+0	1.350896E+0	1.295724E+0	1.309696E+0	1.358001E+0	1.344378E+0	1.248087E+0	1.213935E+0	1.276573E+0	1.358545E+0	1.138556E+0	1.153277E+0	1.284302E+0	1.360061E+0	1.196897E+0	1.290918E+0	1.330648E+0	1.316631E+0	1.320217E+0	1.320104E+0	1.395106E+0	1.388412E+0	1.236379E+0	1.214115E+0	1.428178E+0	1.372885E+0	1.142878E+0	1.176119E+0	1.336034E+0	1.361120E+0	1.226290E+0	1.148617E+0	1.370104E+0	1.354500E+0	1.335161E+0	1.358345E+0	1.393969E+0	1.351046E+0	1.187547E+0	1.314746E+0	1.338947E+0	1.359460E+0	1.161746E+0	1.164682E+0	1.351527E+0	1.315883E+0	1.221159E+0	1.170276E+0	1.325413E+0	1.264924E+0	1.295118E+0	1.257826E+0	1.345909E+0	1.306574E+0	1.313955E+0	1.267540E+0	1.300900E+0	1.325471E+0	1.246159E+0	1.138496E+0	1.367852E+0	1.318573E+0	1.296457E+0	1.186358E+0	1.362949E+0	1.367291E+0	1.284277E+0	1.319473E+0	1.329322E+0	1.375388E+0	1.232994E+0	1.251077E+0	1.347095E+0	1.379169E+0	1.116068E+0	1.277334E+0	1.335493E+0	1.284360E+0	1.233945E+0	1.329092E+0	1.365695E+0
5.475180E+2	1.351556E+0	1.289627E+0	1.102755E+0	1.404772E+0	1.251557E+0	1.206773E+0	1.378521E+0	1.437829E+0	1.322474E+0	1.276357E+0	1.399945E+0	1.434124E+0	1.336369E+0	1.384342E+0	1.441380E+0	1.422698E+0	1.335179E+0	1.227704E+0	1.415680E+0	1.385463E+0	1.190072E+0	1.174062E+0	1.341746E+0	1.416357E+0	1.319215E+0	1.280125E+0	1.372988E+0	1.440093E+0	1.422726E+0	1.358687E+0	1.427026E+0	1.458861E+0	1.332453E+0	1.291675E+0	1.401724E+0	1.426436E+0	1.231202E+0	1.232004E+0	1.365810E+0	1.408444E+0	1.280098E+0	1.267002E+0	1.241289E+0	1.453861E+0	1.416153E+0	1.418813E+0	1.383467E+0	1.492797E+0	1.355837E+0	1.357596E+0	1.382303E+0	1.400636E+0	1.284384E+0	1.224147E+0	1.365766E+0	1.436058E+0	1.375255E+0	1.301266E+0	1.340188E+0	1.424704E+0	1.387385E+0	1.370182E+0	1.411962E+0	1.416950E+0	1.292444E+0	1.236399E+0	1.396426E+0	1.468323E+0	1.214842E+0	1.215693E+0	1.372011E+0	1.460297E+0	1.328390E+0	1.304951E+0	1.433881E+0	1.468101E+0	1.328567E+0	1.400780E+0	1.430552E+0	1.412398E+0	1.348933E+0	1.332994E+0	1.397775E+0	1.389631E+0	1.232688E+0	1.223583E+0	1.412737E+0	1.422533E+0	1.304046E+0	1.288718E+0	1.395630E+0	1.452294E+0	1.416794E+0	1.403220E+0	1.428558E+0	1.393116E+0	1.288285E+0	1.280865E+0	1.410514E+0	1.381065E+0	1.186796E+0	1.249730E+0	1.398403E+0	1.391148E+0	1.209955E+0	1.273825E+0	1.390530E+0	1.461181E+0	1.367799E+0	1.421408E+0	1.412008E+0	1.460699E+0	1.320330E+0	1.316604E+0	1.443428E+0	1.441571E+0	1.190576E+0	1.212642E+0	1.440618E+0	1.439903E+0	1.292882E+0	1.312841E+0	1.396073E+0	1.433530E+0	1.384858E+0	1.409497E+0	1.406592E+0	1.424811E+0	1.318858E+0	1.343475E+0	1.445653E+0	1.384070E+0	1.180155E+0	1.274083E+0	1.425113E+0	1.455699E+0	1.261031E+0	1.336915E+0	1.403593E+0	1.350663E+0	1.440530E+0	1.384713E+0	1.423723E+0	1.422447E+0	1.377062E+0	1.377259E+0	1.431698E+0	1.403991E+0	1.302406E+0	1.198506E+0	1.437991E+0	1.436570E+0	1.342751E+0	1.316552E+0	1.413195E+0	1.374831E+0	1.438294E+0	1.390983E+0	1.438168E+0	1.408142E+0	1.294124E+0	1.337187E+0	1.457799E+0	1.392661E+0	1.200035E+0	1.274849E+0	1.405433E+0	1.394420E+0	1.246452E+0	1.379422E+0	1.445034E+0
5.482980E+2	1.422722E+0	1.399606E+0	1.121563E+0	1.499302E+0	1.304946E+0	1.296199E+0	1.457212E+0	1.525752E+0	1.393585E+0	1.312086E+0	1.426667E+0	1.577125E+0	1.454893E+0	1.504531E+0	1.493486E+0	1.536403E+0	1.350316E+0	1.336345E+0	1.411989E+0	1.562045E+0	1.302936E+0	1.253820E+0	1.459612E+0	1.536195E+0	1.361931E+0	1.366599E+0	1.464308E+0	1.481470E+0	1.476634E+0	1.414905E+0	1.528249E+0	1.527555E+0	1.358234E+0	1.317098E+0	1.547861E+0	1.486877E+0	1.273017E+0	1.304439E+0	1.398521E+0	1.555156E+0	1.326290E+0	1.286197E+0	1.296687E+0	1.516177E+0	1.486516E+0	1.481168E+0	1.463918E+0	1.475146E+0	1.356904E+0	1.378765E+0	1.510648E+0	1.462319E+0	1.314331E+0	1.303511E+0	1.455598E+0	1.544340E+0	1.445711E+0	1.351853E+0	1.508480E+0	1.468793E+0	1.482172E+0	1.453986E+0	1.496025E+0	1.556646E+0	1.367301E+0	1.334097E+0	1.495304E+0	1.552275E+0	1.247808E+0	1.289909E+0	1.481419E+0	1.480966E+0	1.391942E+0	1.386579E+0	1.435021E+0	1.508139E+0	1.418310E+0	1.477150E+0	1.464401E+0	1.479641E+0	1.387303E+0	1.397478E+0	1.533627E+0	1.464016E+0	1.286733E+0	1.281265E+0	1.450253E+0	1.476811E+0	1.385150E+0	1.376441E+0	1.516682E+0	1.508689E+0	1.494074E+0	1.522258E+0	1.524318E+0	1.483832E+0	1.378447E+0	1.396293E+0	1.493869E+0	1.502183E+0	1.277975E+0	1.339887E+0	1.476561E+0	1.476371E+0	1.346790E+0	1.380655E+0	1.427089E+0	1.428382E+0	1.431602E+0	1.427155E+0	1.526769E+0	1.491606E+0	1.357220E+0	1.343606E+0	1.505032E+0	1.544602E+0	1.308100E+0	1.290845E+0	1.491012E+0	1.483259E+0	1.362950E+0	1.367581E+0	1.487281E+0	1.548426E+0	1.510519E+0	1.464587E+0	1.467427E+0	1.547758E+0	1.345983E+0	1.429662E+0	1.507792E+0	1.485592E+0	1.217941E+0	1.280577E+0	1.518446E+0	1.526147E+0	1.314883E+0	1.372126E+0	1.523814E+0	1.494170E+0	1.465794E+0	1.466147E+0	1.508453E+0	1.502470E+0	1.454335E+0	1.389643E+0	1.419238E+0	1.501988E+0	1.415414E+0	1.276721E+0	1.485564E+0	1.498726E+0	1.470549E+0	1.366364E+0	1.445054E+0	1.489163E+0	1.505709E+0	1.438661E+0	1.502554E+0	1.554354E+0	1.349078E+0	1.417948E+0	1.544326E+0	1.483577E+0	1.236019E+0	1.426992E+0	1.487843E+0	1.459962E+0	1.346501E+0	1.404585E+0	1.508500E+0
5.490210E+2	1.428611E+0	1.388230E+0	1.144132E+0	1.447851E+0	1.392444E+0	1.276273E+0	1.394705E+0	1.494016E+0	1.399008E+0	1.365102E+0	1.511690E+0	1.478927E+0	1.448969E+0	1.456870E+0	1.507279E+0	1.514382E+0	1.295585E+0	1.311529E+0	1.467349E+0	1.482151E+0	1.289197E+0	1.256086E+0	1.386250E+0	1.481902E+0	1.419791E+0	1.344980E+0	1.512857E+0	1.496293E+0	1.399401E+0	1.422727E+0	1.453288E+0	1.428540E+0	1.352069E+0	1.345874E+0	1.470281E+0	1.445613E+0	1.265582E+0	1.293643E+0	1.424906E+0	1.533650E+0	1.341504E+0	1.332584E+0	1.276191E+0	1.477832E+0	1.471006E+0	1.451238E+0	1.430276E+0	1.485367E+0	1.350511E+0	1.377589E+0	1.459308E+0	1.459990E+0	1.321816E+0	1.283670E+0	1.443277E+0	1.532942E+0	1.374657E+0	1.343609E+0	1.501212E+0	1.431532E+0	1.395323E+0	1.453983E+0	1.445020E+0	1.481119E+0	1.382872E+0	1.303704E+0	1.452772E+0	1.513844E+0	1.240921E+0	1.297334E+0	1.432679E+0	1.472397E+0	1.369203E+0	1.399593E+0	1.455015E+0	1.540288E+0	1.429651E+0	1.423055E+0	1.459783E+0	1.509635E+0	1.388482E+0	1.416880E+0	1.476638E+0	1.507602E+0	1.283814E+0	1.193073E+0	1.457860E+0	1.531621E+0	1.396649E+0	1.302477E+0	1.494832E+0	1.481343E+0	1.515712E+0	1.491247E+0	1.488032E+0	1.509891E+0	1.327335E+0	1.326938E+0	1.447878E+0	1.490617E+0	1.270253E+0	1.267663E+0	1.419512E+0	1.543906E+0	1.370072E+0	1.381877E+0	1.464913E+0	1.462396E+0	1.467287E+0	1.418274E+0	1.503712E+0	1.459203E+0	1.316513E+0	1.352199E+0	1.456236E+0	1.490820E+0	1.232373E+0	1.284286E+0	1.438991E+0	1.445189E+0	1.322996E+0	1.339177E+0	1.446743E+0	1.515220E+0	1.476821E+0	1.453274E+0	1.456526E+0	1.440369E+0	1.370643E+0	1.382546E+0	1.495869E+0	1.440678E+0	1.279947E+0	1.248604E+0	1.530413E+0	1.476290E+0	1.236696E+0	1.274924E+0	1.510019E+0	1.440051E+0	1.496735E+0	1.464729E+0	1.488855E+0	1.479603E+0	1.391229E+0	1.380206E+0	1.454116E+0	1.470581E+0	1.340941E+0	1.272785E+0	1.490442E+0	1.465012E+0	1.392307E+0	1.349947E+0	1.454861E+0	1.504869E+0	1.438292E+0	1.400521E+0	1.511243E+0	1.492168E+0	1.350315E+0	1.373021E+0	1.476884E+0	1.439586E+0	1.238631E+0	1.382742E+0	1.494355E+0	1.518086E+0	1.362581E+0	1.496435E+0	1.433698E+0
5.497630E+2	1.383126E+0	1.311117E+0	1.109741E+0	1.411951E+0	1.458188E+0	1.213577E+0	1.352288E+0	1.464882E+0	1.482172E+0	1.296528E+0	1.398732E+0	1.446400E+0	1.428719E+0	1.352742E+0	1.432184E+0	1.446970E+0	1.497622E+0	1.271271E+0	1.381234E+0	1.456095E+0	1.459967E+0	1.216662E+0	1.393098E+0	1.406578E+0	1.466294E+0	1.331082E+0	1.345824E+0	1.426501E+0	1.390073E+0	1.394376E+0	1.430844E+0	1.484921E+0	1.356553E+0	1.323332E+0	1.447428E+0	1.438641E+0	1.316223E+0	1.217157E+0	1.367392E+0	1.430904E+0	1.354002E+0	1.278201E+0	1.223564E+0	1.398735E+0	1.383465E+0	1.372920E+0	1.386393E+0	1.371547E+0	1.284980E+0	1.364652E+0	1.373555E+0	1.409947E+0	1.232474E+0	1.267522E+0	1.421206E+0	1.411192E+0	1.323900E+0	1.279823E+0	1.366467E+0	1.427187E+0	1.438502E+0	1.401310E+0	1.449743E+0	1.424353E+0	1.304423E+0	1.306418E+0	1.427363E+0	1.405061E+0	1.191225E+0	1.223115E+0	1.366309E+0	1.418957E+0	1.352877E+0	1.341034E+0	1.353909E+0	1.479631E+0	1.295038E+0	1.416157E+0	1.420295E+0	1.436100E+0	1.325320E+0	1.312454E+0	1.459944E+0	1.396605E+0	1.292092E+0	1.185443E+0	1.455688E+0	1.453097E+0	1.305863E+0	1.253744E+0	1.452906E+0	1.467102E+0	1.391035E+0	1.398721E+0	1.439143E+0	1.436543E+0	1.300344E+0	1.317240E+0	1.432935E+0	1.421233E+0	1.189692E+0	1.241975E+0	1.420652E+0	1.472083E+0	1.230964E+0	1.330597E+0	1.389271E+0	1.409557E+0	1.342926E+0	1.398432E+0	1.398177E+0	1.382928E+0	1.317787E+0	1.242347E+0	1.382432E+0	1.422780E+0	1.211228E+0	1.230905E+0	1.336577E+0	1.419810E+0	1.262194E+0	1.278240E+0	1.389103E+0	1.507916E+0	1.370006E+0	1.390315E+0	1.395116E+0	1.425314E+0	1.312694E+0	1.304403E+0	1.433728E+0	1.401297E+0	1.243615E+0	1.205644E+0	1.369474E+0	1.419389E+0	1.207696E+0	1.216896E+0	1.436439E+0	1.356136E+0	1.411653E+0	1.383766E+0	1.392020E+0	1.410497E+0	1.374486E+0	1.353662E+0	1.393081E+0	1.414045E+0	1.291469E+0	1.222118E+0	1.448358E+0	1.445524E+0	1.424907E+0	1.287681E+0	1.415032E+0	1.464663E+0	1.367041E+0	1.401949E+0	1.439189E+0	1.388681E+0	1.246578E+0	1.293330E+0	1.466069E+0	1.365681E+0	1.123370E+0	1.295731E+0	1.417364E+0	1.407406E+0	1.298263E+0	1.332868E+0	1.472233E+0
5.505110E+2	1.382057E+0	1.311117E+0	1.050631E+0	1.361098E+0	1.399859E+0	1.208229E+0	1.317127E+0	1.426901E+0	1.373095E+0	1.289612E+0	1.369581E+0	1.404665E+0	1.365015E+0	1.339271E+0	1.409706E+0	1.445171E+0	1.421933E+0	1.219981E+0	1.378158E+0	1.417885E+0	1.427087E+0	1.181316E+0	1.305555E+0	1.400706E+0	1.410056E+0	1.249241E+0	1.423272E+0	1.344978E+0	1.375038E+0	1.359666E+0	1.352537E+0	1.373109E+0	1.377852E+0	1.317098E+0	1.366844E+0	1.387501E+0	1.406349E+0	1.211307E+0	1.324132E+0	1.384548E+0	1.365412E+0	1.249406E+0	1.221901E+0	1.410718E+0	1.398426E+0	1.346481E+0	1.352261E+0	1.396171E+0	1.377684E+0	1.321724E+0	1.378803E+0	1.350004E+0	1.447094E+0	1.222764E+0	1.331374E+0	1.433470E+0	1.394957E+0	1.306767E+0	1.310555E+0	1.384335E+0	1.393836E+0	1.367788E+0	1.359543E+0	1.407568E+0	1.398444E+0	1.220661E+0	1.384275E+0	1.369585E+0	1.326526E+0	1.229609E+0	1.336751E+0	1.382155E+0	1.362790E+0	1.286023E+0	1.368760E+0	1.406836E+0	1.363083E+0	1.378504E+0	1.404398E+0	1.340796E+0	1.332405E+0	1.306745E+0	1.394896E+0	1.368126E+0	1.235125E+0	1.194025E+0	1.355104E+0	1.413571E+0	1.331281E+0	1.253744E+0	1.364335E+0	1.418114E+0	1.350850E+0	1.388222E+0	1.428055E+0	1.347755E+0	1.301492E+0	1.264859E+0	1.377746E+0	1.404191E+0	1.175700E+0	1.170721E+0	1.374442E+0	1.348806E+0	1.307615E+0	1.317167E+0	1.349559E+0	1.426561E+0	1.334816E+0	1.338906E+0	1.353606E+0	1.438266E+0	1.245919E+0	1.263210E+0	1.372063E+0	1.387790E+0	1.193034E+0	1.182673E+0	1.303518E+0	1.352134E+0	1.273195E+0	1.208005E+0	1.328302E+0	1.347859E+0	1.360865E+0	1.329326E+0	1.415775E+0	1.418790E+0	1.279401E+0	1.336580E+0	1.392927E+0	1.344692E+0	1.181122E+0	1.179168E+0	1.392209E+0	1.439981E+0	1.228411E+0	1.248139E+0	1.354977E+0	1.378636E+0	1.325543E+0	1.333578E+0	1.371848E+0	1.401142E+0	1.324258E+0	1.261642E+0	1.367542E+0	1.436028E+0	1.300842E+0	1.197526E+0	1.370291E+0	1.411282E+0	1.377309E+0	1.255982E+0	1.325571E+0	1.393675E+0	1.369782E+0	1.313275E+0	1.392175E+0	1.440899E+0	1.236082E+0	1.313652E+0	1.356637E+0	1.385036E+0	1.140580E+0	1.261919E+0	1.420616E+0	1.374636E+0	1.268785E+0	1.224661E+0	1.361164E+0
5.512620E+2	1.439846E+0	1.259919E+0	1.010867E+0	1.342552E+0	1.348939E+0	1.165461E+0	1.273595E+0	1.398289E+0	1.359235E+0	1.270017E+0	1.406018E+0	1.402823E+0	1.327975E+0	1.333055E+0	1.359131E+0	1.368770E+0	1.393400E+0	1.235974E+0	1.355398E+0	1.337409E+0	1.414331E+0	1.172251E+0	1.307023E+0	1.387011E+0	1.373289E+0	1.238435E+0	1.393796E+0	1.348065E+0	1.374001E+0	1.356246E+0	1.364954E+0	1.357477E+0	1.347025E+0	1.310862E+0	1.353013E+0	1.344496E+0	1.370112E+0	1.217156E+0	1.277699E+0	1.407007E+0	1.398019E+0	1.224348E+0	1.255140E+0	1.436484E+0	1.328060E+0	1.317546E+0	1.333245E+0	1.392452E+0	1.404324E+0	1.271151E+0	1.336803E+0	1.354660E+0	1.406666E+0	1.206152E+0	1.327269E+0	1.411191E+0	1.365104E+0	1.284221E+0	1.299933E+0	1.298016E+0	1.368524E+0	1.343841E+0	1.367572E+0	1.373015E+0	1.352330E+0	1.207632E+0	1.401950E+0	1.377270E+0	1.386060E+0	1.192963E+0	1.342457E+0	1.344845E+0	1.420509E+0	1.300813E+0	1.337913E+0	1.425641E+0	1.399574E+0	1.375320E+0	1.363370E+0	1.366921E+0	1.386712E+0	1.292480E+0	1.385685E+0	1.395440E+0	1.376326E+0	1.161131E+0	1.345314E+0	1.393021E+0	1.388177E+0	1.235969E+0	1.341303E+0	1.393053E+0	1.336423E+0	1.272186E+0	1.401346E+0	1.334245E+0	1.342842E+0	1.223150E+0	1.349004E+0	1.385325E+0	1.299681E+0	1.208045E+0	1.343065E+0	1.409907E+0	1.346793E+0	1.245744E+0	1.323715E+0	1.426561E+0	1.366174E+0	1.358224E+0	1.396640E+0	1.345539E+0	1.267543E+0	1.246028E+0	1.394022E+0	1.411765E+0	1.231390E+0	1.189228E+0	1.363126E+0	1.309305E+0	1.264510E+0	1.234344E+0	1.352368E+0	1.410288E+0	1.322597E+0	1.348999E+0	1.367567E+0	1.354055E+0	1.263991E+0	1.285442E+0	1.388535E+0	1.337311E+0	1.133648E+0	1.168179E+0	1.344348E+0	1.384163E+0	1.225823E+0	1.224830E+0	1.441038E+0	1.327557E+0	1.320384E+0	1.286234E+0	1.340719E+0	1.365291E+0	1.300433E+0	1.262822E+0	1.313358E+0	1.393314E+0	1.268553E+0	1.168994E+0	1.356260E+0	1.361244E+0	1.317322E+0	1.253152E+0	1.347629E+0	1.445187E+0	1.344568E+0	1.311846E+0	1.380423E+0	1.431403E+0	1.262016E+0	1.263378E+0	1.431076E+0	1.346911E+0	1.149447E+0	1.311141E+0	1.361514E+0	1.364123E+0	1.241985E+0	1.340416E+0	1.324897E+0
5.520150E+2	1.399180E+0	1.255496E+0	1.067289E+0	1.276142E+0	1.384039E+0	1.149908E+0	1.304291E+0	1.391525E+0	1.329102E+0	1.285577E+0	1.352575E+0	1.367226E+0	1.387730E+0	1.286948E+0	1.327457E+0	1.392138E+0	1.369531E+0	1.256381E+0	1.256979E+0	1.401093E+0	1.387831E+0	1.130108E+0	1.317296E+0	1.348369E+0	1.362473E+0	1.263653E+0	1.323282E+0	1.384506E+0	1.348087E+0	1.336204E+0	1.361134E+0	1.377849E+0	1.353189E+0	1.257141E+0	1.334367E+0	1.424692E+0	1.435617E+0	1.169017E+0	1.303551E+0	1.369734E+0	1.387696E+0	1.254740E+0	1.206390E+0	1.381357E+0	1.378477E+0	1.304576E+0	1.331292E+0	1.353429E+0	1.393134E+0	1.228814E+0	1.322216E+0	1.315671E+0	1.440107E+0	1.139708E+0	1.326243E+0	1.393059E+0	1.375849E+0	1.289721E+0	1.346896E+0	1.361982E+0	1.339740E+0	1.320377E+0	1.335931E+0	1.318717E+0	1.358917E+0	1.241286E+0	1.338426E+0	1.404466E+0	1.373759E+0	1.165135E+0	1.297342E+0	1.362993E+0	1.389610E+0	1.265322E+0	1.340199E+0	1.404409E+0	1.351251E+0	1.356225E+0	1.345422E+0	1.396430E+0	1.358968E+0	1.311881E+0	1.401228E+0	1.358247E+0	1.368047E+0	1.148735E+0	1.317588E+0	1.359292E+0	1.340361E+0	1.230236E+0	1.356658E+0	1.352609E+0	1.356002E+0	1.348208E+0	1.368587E+0	1.307222E+0	1.358919E+0	1.229942E+0	1.362800E+0	1.395670E+0	1.407739E+0	1.209984E+0	1.358467E+0	1.334872E+0	1.342818E+0	1.287257E+0	1.370360E+0	1.337283E+0	1.358606E+0	1.287205E+0	1.353096E+0	1.374951E+0	1.382659E+0	1.244800E+0	1.345836E+0	1.401398E+0	1.309085E+0	1.168625E+0	1.390765E+0	1.356363E+0	1.387853E+0	1.240025E+0	1.414440E+0	1.404310E+0	1.338018E+0	1.308665E+0	1.365842E+0	1.330974E+0	1.370026E+0	1.322790E+0	1.422430E+0	1.326235E+0	1.309498E+0	1.188160E+0	1.426910E+0	1.361403E+0	1.292101E+0	1.228799E+0	1.318846E+0	1.351881E+0	1.395156E+0	1.339734E+0	1.356281E+0	1.375681E+0	1.367403E+0	1.253974E+0	1.310866E+0	1.321700E+0	1.266471E+0	1.208838E+0	1.323936E+0	1.379679E+0	1.325147E+0	1.223718E+0	1.349469E+0	1.383626E+0	1.327031E+0	1.303261E+0	1.370711E+0	1.388204E+0	1.276217E+0	1.270867E+0	1.322283E+0	1.363923E+0	1.171350E+0	1.292746E+0	1.389168E+0	1.307856E+0	1.241985E+0	1.295121E+0	1.372499E+0
5.527700E+2	1.298581E+0	1.202402E+0	1.045258E+0	1.236654E+0	1.346468E+0	1.141161E+0	1.232295E+0	1.260419E+0	1.352004E+0	1.139779E+0	1.289416E+0	1.331015E+0	1.289945E+0	1.275033E+0	1.312644E+0	1.272596E+0	1.385831E+0	1.145532E+0	1.261900E+0	1.336827E+0	1.292632E+0	1.087962E+0	1.213614E+0	1.343478E+0	1.319216E+0	1.210639E+0	1.190348E+0	1.238745E+0	1.294699E+0	1.281944E+0	1.328666E+0	1.311522E+0	1.278640E+0	1.188550E+0	1.295279E+0	1.313692E+0	1.323655E+0	1.092083E+0	1.190115E+0	1.307605E+0	1.288795E+0	1.166234E+0	1.144898E+0	1.295673E+0	1.319194E+0	1.273648E+0	1.244989E+0	1.289319E+0	1.280715E+0	1.201177E+0	1.273212E+0	1.206847E+0	1.315825E+0	1.137863E+0	1.256945E+0	1.333996E+0	1.305389E+0	1.163800E+0	1.250729E+0	1.300499E+0	1.281674E+0	1.292600E+0	1.263204E+0	1.335992E+0	1.278672E+0	1.121880E+0	1.255571E+0	1.340614E+0	1.291598E+0	1.115963E+0	1.259491E+0	1.293925E+0	1.310897E+0	1.253492E+0	1.261942E+0	1.315235E+0	1.275313E+0	1.298950E+0	1.282346E+0	1.256618E+0	1.273375E+0	1.202891E+0	1.241772E+0	1.291416E+0	1.273103E+0	1.076275E+0	1.295293E+0	1.321877E+0	1.314336E+0	1.119577E+0	1.311779E+0	1.256337E+0	1.279237E+0	1.283688E+0	1.251154E+0	1.275372E+0	1.258421E+0	1.126637E+0	1.275422E+0	1.314118E+0	1.311743E+0	1.142611E+0	1.297422E+0	1.257689E+0	1.309886E+0	1.209727E+0	1.307326E+0	1.278366E+0	1.283991E+0	1.277286E+0	1.291617E+0	1.348030E+0	1.237652E+0	1.159495E+0	1.276914E+0	1.295774E+0	1.343013E+0	1.079189E+0	1.279677E+0	1.306133E+0	1.307363E+0	1.189413E+0	1.229494E+0	1.310668E+0	1.319742E+0	1.236857E+0	1.310174E+0	1.311904E+0	1.249812E+0	1.199829E+0	1.320745E+0	1.269014E+0	1.339533E+0	1.086255E+0	1.249219E+0	1.326721E+0	1.262068E+0	1.196561E+0	1.266287E+0	1.244250E+0	1.298214E+0	1.223738E+0	1.288844E+0	1.329436E+0	1.277251E+0	1.268130E+0	1.227405E+0	1.346199E+0	1.281572E+0	1.128657E+0	1.238547E+0	1.277486E+0	1.259291E+0	1.152961E+0	1.292484E+0	1.272432E+0	1.284826E+0	1.243192E+0	1.328298E+0	1.309878E+0	1.315118E+0	1.252147E+0	1.323554E+0	1.255996E+0	1.312684E+0	1.222640E+0	1.301876E+0	1.241077E+0	1.238412E+0	1.222144E+0	1.281831E+0
5.534990E+2	1.176046E+0	1.186600E+0	1.232259E+0	1.219902E+0	1.176914E+0	1.051248E+0	1.211646E+0	1.240128E+0	1.165790E+0	1.075236E+0	1.254192E+0	1.233429E+0	1.209944E+0	1.191106E+0	1.216093E+0	1.222261E+0	1.250171E+0	1.075493E+0	1.172709E+0	1.244771E+0	1.244540E+0	1.038115E+0	1.186712E+0	1.219239E+0	1.186192E+0	1.117472E+0	1.186302E+0	1.216511E+0	1.215395E+0	1.157294E+0	1.235557E+0	1.226247E+0	1.202970E+0	1.137230E+0	1.194848E+0	1.266619E+0	1.221915E+0	1.037641E+0	1.148434E+0	1.219193E+0	1.278471E+0	1.102251E+0	1.062907E+0	1.198003E+0	1.261575E+0	1.169386E+0	1.114315E+0	1.163886E+0	1.198134E+0	1.135903E+0	1.169957E+0	1.162620E+0	1.301853E+0	1.052500E+0	1.197399E+0	1.288923E+0	1.280310E+0	1.098915E+0	1.206001E+0	1.224737E+0	1.260334E+0	1.249022E+0	1.237229E+0	1.241711E+0	1.172672E+0	1.068147E+0	1.206408E+0	1.231827E+0	1.217795E+0	1.050096E+0	1.162010E+0	1.229392E+0	1.275915E+0	1.140514E+0	1.228239E+0	1.204226E+0	1.212196E+0	1.175903E+0	1.227470E+0	1.180182E+0	1.229692E+0	1.164659E+0	1.200902E+0	1.207731E+0	1.231228E+0	1.014302E+0	1.170241E+0	1.264962E+0	1.227176E+0	1.031279E+0	1.214939E+0	1.203929E+0	1.219474E+0	1.254183E+0	1.208821E+0	1.202991E+0	1.206164E+0	1.079593E+0	1.179420E+0	1.236212E+0	1.236487E+0	1.027251E+0	1.202148E+0	1.222315E+0	1.286039E+0	1.127925E+0	1.208993E+0	1.241320E+0	1.225592E+0	1.238642E+0	1.208625E+0	1.193485E+0	1.231927E+0	1.163791E+0	1.197621E+0	1.186911E+0	1.231881E+0	1.079187E+0	1.222778E+0	1.203032E+0	1.209497E+0	1.036035E+0	1.242795E+0	1.207726E+0	1.216355E+0	1.190620E+0	1.240728E+0	1.261222E+0	1.243030E+0	1.121109E+0	1.179517E+0	1.206255E+0	1.207281E+0	1.071268E+0	1.198366E+0	1.248142E+0	1.177150E+0	1.051744E+0	1.210446E+0	1.203507E+0	1.262634E+0	1.179706E+0	1.209300E+0	1.234866E+0	1.216077E+0	1.081141E+0	1.186297E+0	1.230614E+0	1.180539E+0	1.077994E+0	1.201342E+0	1.215330E+0	1.235167E+0	1.115601E+0	1.207925E+0	1.244791E+0	1.185073E+0	1.188844E+0	1.240916E+0	1.214461E+0	1.191623E+0	1.129668E+0	1.268839E+0	1.202034E+0	1.233413E+0	1.145573E+0	1.249285E+0	1.156367E+0	1.165162E+0	1.168041E+0	1.279561E+0
5.542580E+2	1.140194E+0	1.089262E+0	1.151118E+0	1.109819E+0	1.160602E+0	1.019657E+0	1.121233E+0	1.153246E+0	1.192909E+0	1.053337E+0	1.164310E+0	1.141366E+0	1.141297E+0	1.125831E+0	1.206897E+0	1.175073E+0	1.142455E+0	1.049021E+0	1.072446E+0	1.163719E+0	1.169461E+0	9.660631E-1	1.121180E+0	1.154673E+0	1.165645E+0	1.004747E+0	1.085734E+0	1.101633E+0	1.129869E+0	1.130897E+0	1.152476E+0	1.124389E+0	1.064522E+0	1.025473E+0	1.146136E+0	1.146902E+0	1.150831E+0	1.010649E+0	1.096200E+0	1.153246E+0	1.153483E+0	1.011078E+0	9.454635E-1	1.106924E+0	1.131373E+0	1.076600E+0	1.124553E+0	1.184329E+0	1.193875E+0	1.060634E+0	1.089451E+0	1.143998E+0	1.186060E+0	9.348387E-1	1.072662E+0	1.133495E+0	1.189550E+0	1.020284E+0	1.153445E+0	1.130344E+0	1.126334E+0	1.106312E+0	1.127194E+0	1.138051E+0	1.106198E+0	9.541673E-1	1.182656E+0	1.152603E+0	1.188767E+0	9.693845E-1	1.068157E+0	1.143181E+0	1.180876E+0	1.093195E+0	1.104281E+0	1.132645E+0	1.140697E+0	1.148856E+0	1.124390E+0	1.125997E+0	1.148821E+0	1.075640E+0	1.147942E+0	1.114745E+0	1.174258E+0	9.566184E-1	1.081616E+0	1.166412E+0	1.161808E+0	1.070842E+0	1.167699E+0	1.153233E+0	1.131375E+0	1.106141E+0	1.145823E+0	1.132540E+0	1.140697E+0	1.059708E+0	1.111012E+0	1.125444E+0	1.138076E+0	1.002531E+0	1.131977E+0	1.093678E+0	1.142956E+0	1.042461E+0	1.115072E+0	1.152647E+0	1.099609E+0	1.139427E+0	1.155857E+0	1.163075E+0	1.153063E+0	1.083396E+0	1.176883E+0	1.117575E+0	1.150254E+0	9.602494E-1	1.109524E+0	1.164963E+0	1.161433E+0	9.988523E-1	1.152855E+0	1.148618E+0	1.191223E+0	1.147830E+0	1.143162E+0	1.143296E+0	1.136378E+0	1.059054E+0	1.172613E+0	1.134267E+0	1.137040E+0	9.638664E-1	1.139733E+0	1.146801E+0	1.144008E+0	1.034386E+0	1.125698E+0	1.135401E+0	1.141973E+0	1.079805E+0	1.146471E+0	1.110158E+0	1.102100E+0	1.094117E+0	1.115917E+0	1.123822E+0	1.114922E+0	1.018473E+0	1.131811E+0	1.154225E+0	1.138665E+0	1.009749E+0	1.126429E+0	1.144906E+0	1.111079E+0	1.097787E+0	1.159662E+0	1.142781E+0	1.178656E+0	1.070301E+0	1.188038E+0	1.112878E+0	1.185432E+0	1.032705E+0	1.123498E+0	1.126687E+0	1.127642E+0	1.088775E+0	1.048356E+0
5.550140E+2	1.033711E+0	9.679046E-1	1.004956E+0	1.028452E+0	1.089914E+0	8.777404E-1	1.031936E+0	1.024221E+0	1.081422E+0	9.242516E-1	1.010054E+0	1.048077E+0	1.080061E+0	1.056929E+0	1.047000E+0	1.042944E+0	1.066181E+0	9.387235E-1	1.039846E+0	1.047926E+0	1.065919E+0	8.772433E-1	1.003804E+0	9.893480E-1	1.061824E+0	9.959962E-1	1.015220E+0	1.054076E+0	9.951043E-1	1.022868E+0	1.003024E+0	1.034847E+0	1.029770E+0	9.161156E-1	1.006014E+0	1.017886E+0	1.055593E+0	9.080687E-1	1.021281E+0	1.061488E+0	1.044801E+0	9.156404E-1	8.850795E-1	1.011651E+0	1.045494E+0	9.967850E-1	1.037761E+0	1.046819E+0	1.041499E+0	1.013002E+0	1.031697E+0	9.839636E-1	1.072259E+0	8.683930E-1	1.001313E+0	1.054745E+0	1.044452E+0	9.312052E-1	1.053364E+0	1.004899E+0	1.066781E+0	1.071834E+0	1.007714E+0	1.050680E+0	1.093023E+0	9.297429E-1	1.015835E+0	1.039678E+0	1.029848E+0	9.095474E-1	1.038083E+0	1.065541E+0	1.024618E+0	9.831749E-1	1.011171E+0	1.025276E+0	1.030244E+0	1.053920E+0	1.034132E+0	1.009890E+0	1.099826E+0	9.660793E-1	9.959703E-1	1.016531E+0	1.055941E+0	9.051324E-1	1.016915E+0	1.089472E+0	1.038334E+0	9.573165E-1	1.015943E+0	1.011393E+0	1.038640E+0	1.011114E+0	1.014783E+0	1.064499E+0	1.002297E+0	9.437950E-1	1.028232E+0	1.038411E+0	1.020850E+0	9.094675E-1	1.086907E+0	1.042224E+0	1.020882E+0	9.850778E-1	1.055190E+0	1.051828E+0	1.081766E+0	1.058487E+0	1.081570E+0	1.003545E+0	1.059572E+0	9.772247E-1	1.062824E+0	1.082584E+0	1.042563E+0	8.637876E-1	1.007105E+0	1.046528E+0	1.064728E+0	9.348155E-1	1.073683E+0	1.047670E+0	1.040999E+0	9.953547E-1	1.041578E+0	1.027879E+0	1.008768E+0	9.906789E-1	1.008788E+0	1.080123E+0	1.046451E+0	8.969279E-1	1.078110E+0	1.012946E+0	1.045625E+0	9.287486E-1	1.050148E+0	1.016824E+0	1.053283E+0	9.898474E-1	1.027155E+0	1.042089E+0	1.062176E+0	9.602160E-1	1.036816E+0	1.055978E+0	1.015971E+0	9.009098E-1	1.059840E+0	1.019373E+0	1.018040E+0	9.106891E-1	1.035131E+0	9.878548E-1	1.039280E+0	1.046774E+0	1.031910E+0	1.012236E+0	1.018730E+0	9.954241E-1	1.034073E+0	1.087070E+0	9.929883E-1	9.869625E-1	1.005301E+0	9.863283E-1	1.032060E+0	9.881166E-1	1.064223E+0
5.557940E+2	9.336480E-1	9.969804E-1	9.818492E-1	9.769987E-1	1.012303E+0	9.647369E-1	9.772417E-1	9.820799E-1	9.994640E-1	9.380822E-1	9.778671E-1	9.817918E-1	1.012401E+0	9.191249E-1	9.765006E-1	1.001148E+0	9.904897E-1	9.161129E-1	9.887910E-1	9.813441E-1	9.618877E-1	8.536789E-1	9.265317E-1	1.009891E+0	9.893651E-1	9.306259E-1	9.510647E-1	9.916963E-1	9.494916E-1	9.583408E-1	9.882231E-1	9.547821E-1	9.630676E-1	8.897359E-1	9.356521E-1	9.423368E-1	9.636084E-1	8.432816E-1	9.389729E-1	9.764226E-1	9.790486E-1	8.697869E-1	8.402070E-1	9.780959E-1	9.834404E-1	9.518886E-1	9.997291E-1	9.557634E-1	9.802279E-1	9.665466E-1	9.132719E-1	9.246066E-1	9.934003E-1	8.268646E-1	9.397140E-1	9.728872E-1	1.023552E+0	8.740185E-1	9.443379E-1	1.002415E+0	9.511426E-1	9.501967E-1	1.001574E+0	9.815713E-1	9.882220E-1	8.369317E-1	9.517580E-1	1.010708E+0	9.609679E-1	8.626978E-1	9.779344E-1	9.889091E-1	9.803063E-1	8.891265E-1	9.454795E-1	9.797798E-1	9.543066E-1	9.404228E-1	9.484883E-1	9.866697E-1	9.977042E-1	9.695029E-1	9.481910E-1	1.032803E+0	9.819306E-1	8.150324E-1	9.761372E-1	9.830192E-1	9.596493E-1	8.747532E-1	1.016534E+0	9.521503E-1	1.024730E+0	9.641011E-1	9.855512E-1	9.810180E-1	9.580779E-1	8.812311E-1	9.506258E-1	9.799833E-1	9.832226E-1	8.493641E-1	9.642484E-1	1.002025E+0	9.652392E-1	9.209797E-1	9.568562E-1	1.005669E+0	9.736261E-1	9.535246E-1	9.796216E-1	9.576801E-1	9.711682E-1	9.213780E-1	9.792617E-1	9.659436E-1	9.879807E-1	8.651921E-1	1.011982E+0	9.386676E-1	9.963967E-1	8.573519E-1	9.780426E-1	1.021105E+0	1.027290E+0	9.579729E-1	9.727065E-1	9.771952E-1	9.582166E-1	9.314968E-1	1.007532E+0	9.933687E-1	9.733028E-1	8.454751E-1	1.009905E+0	9.912689E-1	9.425806E-1	8.890724E-1	9.844520E-1	9.438534E-1	9.779991E-1	9.174075E-1	9.816191E-1	9.994802E-1	9.932743E-1	9.720141E-1	9.421451E-1	9.925317E-1	9.748286E-1	8.728719E-1	9.970178E-1	9.719644E-1	1.022604E+0	9.050287E-1	9.934638E-1	1.030573E+0	9.318532E-1	8.985064E-1	9.731433E-1	9.690386E-1	9.779770E-1	9.066406E-1	9.920823E-1	9.773852E-1	1.042012E+0	9.054193E-1	9.993376E-1	9.671603E-1	1.020446E+0	9.692434E-1	1.052889E+0
5.560130E+2	9.796668E-1	9.938193E-1	1.004956E+0	1.015289E+0	1.043446E+0	1.034722E+0	1.007937E+0	1.030464E+0	1.010914E+0	1.011845E+0	9.851546E-1	9.713583E-1	9.891901E-1	9.828467E-1	1.050575E+0	1.000250E+0	1.038234E+0	1.027513E+0	9.604963E-1	1.054873E+0	9.795534E-1	1.001862E+0	9.412040E-1	1.006956E+0	1.023432E+0	1.018128E+0	9.597339E-1	1.037400E+0	1.011173E+0	1.002336E+0	9.810604E-1	9.723111E-1	9.944568E-1	1.039385E+0	9.897764E-1	9.981274E-1	1.067672E+0	1.035393E+0	9.368625E-1	1.013222E+0	9.698106E-1	1.006280E+0	8.590426E-1	9.475368E-1	1.037183E+0	1.021728E+0	9.826633E-1	1.014298E+0	9.908834E-1	9.236200E-1	9.506077E-1	9.467197E-1	1.045309E+0	8.988462E-1	9.427937E-1	9.858389E-1	1.019970E+0	9.707958E-1	1.002484E+0	9.750909E-1	9.531281E-1	1.006226E+0	1.010547E+0	9.647882E-1	9.960070E-1	8.884937E-1	1.023569E+0	9.882409E-1	9.673627E-1	8.784689E-1	1.000230E+0	9.894127E-1	9.715600E-1	9.299398E-1	1.010028E+0	1.042867E+0	1.015944E+0	1.005127E+0	9.756687E-1	1.046658E+0	9.670086E-1	9.461068E-1	1.000000E+0	1.017112E+0	9.838777E-1	8.069283E-1	9.663505E-1	9.993563E-1	9.378594E-1	9.234886E-1	1.008266E+0	1.047850E+0	9.829984E-1	9.991108E-1	1.024359E+0	1.000322E+0	9.770290E-1	9.006303E-1	9.776444E-1	1.000676E+0	1.019403E+0	8.711764E-1	9.996194E-1	1.015424E+0	9.834077E-1	9.484500E-1	1.036910E+0	1.013564E+0	1.017963E+0	9.973888E-1	9.837199E-1	9.831061E-1	9.762565E-1	9.440849E-1	1.035986E+0	1.006120E+0	1.007650E+0	9.040579E-1	9.702562E-1	9.867817E-1	1.018980E+0	8.687135E-1	1.004011E+0	1.059624E+0	9.610321E-1	9.801069E-1	1.036986E+0	9.892392E-1	9.908899E-1	9.498833E-1	9.824255E-1	9.989060E-1	1.005758E+0	8.614605E-1	1.003324E+0	1.006443E+0	9.995395E-1	9.312283E-1	1.011387E+0	9.602719E-1	9.563423E-1	9.884272E-1	1.017933E+0	9.688227E-1	9.977824E-1	9.584468E-1	9.707962E-1	1.022684E+0	1.001389E+0	8.866450E-1	9.738408E-1	1.039390E+0	1.020647E+0	9.689930E-1	9.983657E-1	1.019893E+0	9.537774E-1	9.633448E-1	1.043153E+0	1.020783E+0	1.017495E+0	9.515670E-1	1.028347E+0	1.034867E+0	1.052442E+0	9.113858E-1	1.015061E+0	9.875645E-1	1.005260E+0	9.163998E-1	1.052890E+0
5.565090E+2	9.866228E-1	9.735940E-1	8.974833E-1	9.674264E-1	1.001428E+0	9.968140E-1	9.610564E-1	9.836410E-1	9.982590E-1	9.668962E-1	9.894057E-1	1.000818E+0	1.002031E+0	9.906175E-1	9.187737E-1	9.980031E-1	9.759340E-1	9.795336E-1	9.648023E-1	1.049083E+0	9.721926E-1	1.009567E+0	8.976773E-1	9.888587E-1	9.720623E-1	9.872461E-1	9.510646E-1	9.404335E-1	9.795546E-1	9.324335E-1	9.753306E-1	9.988423E-1	9.507363E-1	9.957365E-1	9.416659E-1	1.000452E+0	9.575693E-1	9.926511E-1	9.252550E-1	9.816802E-1	9.888301E-1	1.000948E+0	8.512862E-1	9.565250E-1	1.013913E+0	9.713439E-1	9.397553E-1	9.841028E-1	9.605150E-1	9.971252E-1	9.243560E-1	9.810545E-1	1.051298E+0	1.001281E+0	9.864268E-1	9.998272E-1	1.054005E+0	9.779446E-1	9.644655E-1	9.813005E-1	1.021119E+0	9.937757E-1	9.713502E-1	9.825580E-1	1.040922E+0	9.411408E-1	9.561776E-1	1.000657E+0	9.855682E-1	9.823745E-1	9.437115E-1	1.020167E+0	1.004211E+0	1.000920E+0	9.603308E-1	9.828129E-1	9.695927E-1	9.828515E-1	9.366934E-1	9.948937E-1	9.900304E-1	9.700733E-1	1.002878E+0	9.990961E-1	9.502816E-1	9.098995E-1	1.006585E+0	9.946129E-1	1.001412E+0	9.211954E-1	1.016534E+0	1.009684E+0	1.026275E+0	9.961100E-1	9.860565E-1	9.549617E-1	9.712865E-1	8.788060E-1	9.678717E-1	9.836351E-1	9.774332E-1	8.474255E-1	1.020729E+0	1.010065E+0	9.976032E-1	9.173166E-1	9.871134E-1	1.022675E+0	1.002283E+0	9.070494E-1	1.014971E+0	1.006037E+0	9.775281E-1	9.078761E-1	9.853614E-1	9.789038E-1	9.810957E-1	8.183657E-1	9.556254E-1	9.762070E-1	1.024192E+0	8.790415E-1	9.881767E-1	9.945393E-1	9.718847E-1	1.025851E+0	9.824635E-1	9.812099E-1	9.791765E-1	9.297728E-1	9.667331E-1	9.472232E-1	9.834756E-1	8.319876E-1	1.009905E+0	1.004817E+0	9.824519E-1	8.365018E-1	1.037009E+0	9.639201E-1	9.769676E-1	9.567035E-1	9.268607E-1	1.000520E+0	9.578583E-1	8.965099E-1	9.371627E-1	9.278283E-1	9.696207E-1	8.295850E-1	9.500538E-1	1.003570E+0	9.769616E-1	8.789901E-1	9.879494E-1	1.009841E+0	9.400746E-1	9.938552E-1	1.022201E+0	1.035973E+0	1.020583E+0	8.954094E-1	1.012441E+0	9.703472E-1	1.040969E+0	8.979612E-1	9.890363E-1	9.807630E-1	9.865018E-1	9.893744E-1	9.622215E-1
5.570560E+2	9.909032E-1	9.824428E-1	9.668029E-1	9.853748E-1	9.757234E-1	9.720269E-1	9.705445E-1	9.664721E-1	1.002478E+0	9.991676E-1	9.954786E-1	9.664486E-1	9.812886E-1	9.947621E-1	1.012771E+0	1.040697E+0	9.811742E-1	9.657466E-1	9.518846E-1	9.842397E-1	9.810255E-1	1.022709E+0	9.069693E-1	1.002065E+0	1.016402E+0	9.934227E-1	9.504864E-1	1.000961E+0	9.676335E-1	9.769167E-1	9.657808E-1	1.038162E+0	9.641893E-1	9.784689E-1	9.675252E-1	9.603528E-1	1.008674E+0	9.710564E-1	9.463592E-1	9.477499E-1	1.000241E+0	9.513626E-1	8.584885E-1	9.810918E-1	9.718050E-1	9.623645E-1	9.295163E-1	9.822435E-1	9.450643E-1	1.024763E+0	9.914438E-1	9.897837E-1	9.943993E-1	1.019739E+0	9.843726E-1	1.003454E+0	1.007431E+0	9.944403E-1	9.778839E-1	9.775745E-1	1.005239E+0	9.942528E-1	1.000158E+0	9.904566E-1	1.000200E+0	9.959593E-1	9.832440E-1	1.003022E+0	1.020009E+0	9.740236E-1	9.748226E-1	9.969752E-1	9.733090E-1	1.016299E+0	9.666148E-1	1.012537E+0	1.007067E+0	9.345890E-1	1.021824E+0	9.421614E-1	1.019545E+0	1.025995E+0	9.470405E-1	1.010138E+0	9.872874E-1	9.785476E-1	9.821180E-1	9.593046E-1	1.018360E+0	9.699304E-1	1.017715E+0	1.026203E+0	9.989696E-1	9.601004E-1	9.674090E-1	9.993570E-1	9.856431E-1	9.685295E-1	1.009836E+0	9.964166E-1	1.005896E+0	9.569685E-1	1.015023E+0	9.875529E-1	9.885180E-1	1.051008E+0	9.795492E-1	1.043325E+0	9.947130E-1	9.999998E-1	1.013434E+0	9.741314E-1	1.006148E+0	9.606550E-1	9.945110E-1	9.847359E-1	9.727362E-1	9.195108E-1	9.935578E-1	9.656326E-1	1.006820E+0	9.528910E-1	9.660087E-1	9.892266E-1	1.027290E+0	9.535465E-1	1.018047E+0	9.741844E-1	9.902734E-1	9.372425E-1	1.025107E+0	9.742950E-1	9.776639E-1	8.729497E-1	9.805889E-1	9.961460E-1	1.027501E+0	8.965120E-1	1.015329E+0	1.019865E+0	9.723274E-1	9.841664E-1	9.793134E-1	9.927251E-1	1.015813E+0	9.006390E-1	9.851210E-1	1.023940E+0	9.961807E-1	8.728719E-1	1.021415E+0	9.930352E-1	9.847860E-1	8.976700E-1	9.652778E-1	9.595851E-1	1.014616E+0	9.466577E-1	1.018624E+0	1.007489E+0	9.600702E-1	9.488934E-1	9.844477E-1	9.662408E-1	9.752563E-1	9.143694E-1	9.928311E-1	1.019717E+0	9.909678E-1	8.924929E-1	1.032490E+0
5.575360E+2	1.005351E+0	1.046914E+0	1.021077E+0	1.029649E+0	9.648479E-1	1.006534E+0	1.030820E+0	1.037748E+0	1.038635E+0	1.053914E+0	1.024630E+0	9.946808E-1	1.030180E+0	1.004605E+0	1.019923E+0	1.025417E+0	1.020185E+0	1.013726E+0	9.771044E-1	1.042715E+0	1.027154E+0	1.023162E+0	9.627226E-1	1.027011E+0	1.021269E+0	1.025336E+0	9.632020E-1	1.013931E+0	1.004434E+0	1.012600E+0	9.691229E-1	1.013529E+0	1.029770E+0	1.041782E+0	1.001203E+0	1.031253E+0	1.032365E+0	1.043943E+0	1.004924E+0	1.008443E+0	1.031216E+0	1.042002E+0	9.199809E-1	1.006259E+0	1.014467E+0	1.032203E+0	1.036297E+0	1.011047E+0	1.020187E+0	1.003005E+0	1.013612E+0	9.909477E-1	1.034827E+0	1.039579E+0	9.966919E-1	1.002936E+0	1.022359E+0	1.048877E+0	1.007517E+0	1.035329E+0	1.028068E+0	9.846757E-1	1.032271E+0	1.035377E+0	1.045114E+0	1.028525E+0	9.771677E-1	9.705042E-1	9.963923E-1	1.053807E+0	9.608230E-1	1.003529E+0	9.989630E-1	1.035819E+0	1.038590E+0	1.063493E+0	9.907958E-1	1.030584E+0	9.787455E-1	1.029241E+0	9.935722E-1	9.900460E-1	9.890625E-1	9.927035E-1	1.010171E+0	1.030510E+0	9.995168E-1	9.940860E-1	9.832542E-1	1.043894E+0	1.012990E+0	9.897465E-1	1.012365E+0	1.049125E+0	1.052583E+0	1.017212E+0	9.902373E-1	1.054372E+0	1.008687E+0	1.040237E+0	1.021333E+0	1.021434E+0	1.006466E+0	1.017033E+0	1.017475E+0	1.020484E+0	9.921557E-1	9.880549E-1	9.995795E-1	9.796345E-1	1.027266E+0	1.032461E+0	1.013144E+0	1.030617E+0	1.009149E+0	1.022320E+0	1.024860E+0	1.010353E+0	1.004395E+0	1.033838E+0	1.035774E+0	1.024157E+0	1.040748E+0	1.033059E+0	1.026720E+0	1.046016E+0	1.030673E+0	1.024868E+0	9.982876E-1	1.018258E+0	1.013809E+0	1.017365E+0	1.073580E+0	9.998334E-1	1.020674E+0	1.021075E+0	1.031644E+0	1.040337E+0	1.010730E+0	9.511501E-1	1.017704E+0	1.010679E+0	9.908413E-1	1.021304E+0	9.964943E-1	9.932487E-1	9.888582E-1	9.837373E-1	1.022221E+0	9.461645E-1	1.057401E+0	1.007258E+0	1.022604E+0	1.010315E+0	1.058415E+0	9.633548E-1	1.002009E+0	9.886100E-1	1.037531E+0	1.012711E+0	1.027992E+0	9.515673E-1	1.025166E+0	1.013752E+0	9.966393E-1	9.248108E-1	1.031326E+0	1.025901E+0	1.019553E+0	1.044736E+0	1.109557E+0
5.580170E+2	9.957192E-1	1.010253E+0	1.046869E+0	1.024264E+0	1.019718E+0	1.042985E+0	1.055934E+0	1.051796E+0	9.862067E-1	1.042965E+0	1.028881E+0	1.047463E+0	1.042031E+0	9.978702E-1	1.028097E+0	1.053282E+0	1.035905E+0	1.062257E+0	9.721829E-1	1.034609E+0	1.030097E+0	9.955185E-1	9.905997E-1	1.046577E+0	1.046684E+0	1.044896E+0	1.044119E+0	1.020108E+0	1.039681E+0	9.998911E-1	9.929976E-1	1.063746E+0	1.041541E+0	1.038425E+0	9.627143E-1	9.795306E-1	1.042585E+0	1.024594E+0	9.706297E-1	1.013700E+0	1.041541E+0	1.031872E+0	9.266285E-1	1.000866E+0	1.099791E+0	9.972839E-1	9.987539E-1	1.083518E+0	1.067071E+0	1.044757E+0	1.024696E+0	1.075329E+0	1.064275E+0	1.027122E+0	9.818052E-1	1.053190E+0	1.013999E+0	1.052176E+0	9.829164E-1	1.020424E+0	1.052386E+0	1.051241E+0	1.014796E+0	1.054628E+0	1.034335E+0	1.010614E+0	9.821396E-1	1.039087E+0	1.008199E+0	1.046385E+0	1.032379E+0	1.042852E+0	1.011791E+0	1.038776E+0	9.711851E-1	1.013750E+0	1.047009E+0	1.001414E+0	1.038748E+0	1.040852E+0	1.001837E+0	1.027707E+0	1.032812E+0	1.038033E+0	1.035977E+0	9.957095E-1	1.038120E+0	1.010950E+0	1.013517E+0	1.021533E+0	1.048420E+0	1.051837E+0	1.011849E+0	1.037621E+0	1.028895E+0	1.059192E+0	1.072358E+0	9.903539E-1	1.009262E+0	1.006154E+0	1.058478E+0	1.016104E+0	9.956262E-1	1.034720E+0	1.037916E+0	9.954555E-1	9.839616E-1	1.007491E+0	9.930910E-1	1.063707E+0	1.000626E+0	1.045421E+0	1.087556E+0	1.014047E+0	1.035987E+0	1.002881E+0	1.005190E+0	1.053902E+0	1.050456E+0	1.026436E+0	1.010873E+0	1.096972E+0	1.036314E+0	1.039700E+0	9.930187E-1	1.057821E+0	1.056500E+0	1.048955E+0	1.000754E+0	9.981492E-1	1.060258E+0	1.048744E+0	1.046936E+0	1.100240E+0	1.084092E+0	1.032997E+0	1.027501E+0	1.038849E+0	1.037009E+0	1.092227E+0	1.072362E+0	1.032931E+0	1.041565E+0	1.030658E+0	1.104031E+0	1.049288E+0	1.064844E+0	1.030851E+0	9.873275E-1	1.045528E+0	1.034223E+0	1.007257E+0	1.053902E+0	1.074279E+0	1.026552E+0	1.050047E+0	1.038184E+0	1.028181E+0	9.976724E-1	1.040245E+0	1.013173E+0	1.048373E+0	1.011170E+0	1.074166E+0	1.055572E+0	9.983977E-1	1.007470E+0	1.028374E+0	1.035632E+0	1.071159E+0	9.576881E-1
5.585160E+2	1.029965E+0	9.963478E-1	9.877599E-1	1.072127E+0	1.001922E+0	1.013338E+0	9.984498E-1	9.904042E-1	9.964512E-1	1.037202E+0	1.030703E+0	1.043167E+0	1.031168E+0	1.021701E+0	1.012772E+0	1.020923E+0	1.024842E+0	1.020344E+0	1.004784E+0	1.046188E+0	9.986923E-1	1.007754E+0	9.377807E-1	1.026032E+0	1.025595E+0	1.028939E+0	9.915236E-1	1.026901E+0	9.987331E-1	1.044864E+0	9.901313E-1	9.879465E-1	9.871698E-1	1.048498E+0	1.021649E+0	1.048688E+0	1.050484E+0	1.010648E+0	9.642987E-1	1.032816E+0	1.002959E+0	1.031339E+0	8.994829E-1	1.053595E+0	1.007819E+0	1.024721E+0	1.000704E+0	1.040778E+0	9.962116E-1	9.947731E-1	1.019446E+0	1.027028E+0	9.664485E-1	1.014664E+0	9.915589E-1	9.941281E-1	1.016984E+0	1.016984E+0	9.717336E-1	9.732278E-1	1.020624E+0	9.904218E-1	9.949614E-1	1.027972E+0	1.029544E+0	1.042637E+0	1.009759E+0	1.029627E+0	1.007215E+0	1.030151E+0	9.753418E-1	1.051928E+0	1.006543E+0	1.047057E+0	1.006600E+0	9.937317E-1	1.023833E+0	1.016795E+0	1.022850E+0	1.057300E+0	1.024858E+0	1.023713E+0	1.043749E+0	9.979336E-1	9.926415E-1	1.012395E+0	9.777683E-1	1.033610E+0	1.003228E+0	1.027267E+0	9.521704E-1	9.971518E-1	1.058733E+0	1.025619E+0	1.008736E+0	1.000805E+0	9.753062E-1	9.966590E-1	9.787938E-1	1.052409E+0	1.027605E+0	9.986535E-1	9.876392E-1	1.020249E+0	1.048136E+0	1.058333E+0	1.070318E+0	1.036643E+0	1.050946E+0	9.859008E-1	1.001138E+0	9.995580E-1	1.027136E+0	1.023866E+0	1.034157E+0	1.003528E+0	1.045513E+0	1.035639E+0	1.003311E+0	1.017977E+0	9.697591E-1	9.993688E-1	9.881769E-1	9.938752E-1	9.827374E-1	1.026833E+0	9.692634E-1	9.781988E-1	1.013699E+0	1.033773E+0	1.013809E+0	1.028440E+0	9.941318E-1	9.903420E-1	1.015888E+0	9.923525E-1	9.829699E-1	1.031411E+0	1.029782E+0	1.025944E+0	1.006875E+0	1.074598E+0	1.020239E+0	9.683035E-1	1.017100E+0	1.019203E+0	9.869894E-1	9.630069E-1	1.032115E+0	1.040118E+0	9.842096E-1	1.005677E+0	1.021300E+0	1.041448E+0	1.046160E+0	1.031829E+0	1.059013E+0	1.030564E+0	1.051329E+0	1.031227E+0	1.018112E+0	1.013609E+0	1.070338E+0	9.762123E-1	1.042012E+0	1.055578E+0	1.018856E+0	9.962212E-1	1.025806E+0	1.054802E+0	1.009821E+0
5.590100E+2	1.015518E+0	9.900278E-1	9.888354E-1	1.013495E+0	1.045918E+0	1.001674E+0	9.487783E-1	1.058558E+0	9.735509E-1	1.012422E+0	9.596479E-1	9.615388E-1	1.002031E+0	1.002532E+0	1.007152E+0	1.025865E+0	1.003881E+0	9.828425E-1	9.641867E-1	1.016661E+0	1.027152E+0	9.923467E-1	9.734820E-1	1.013316E+0	9.834171E-1	1.039749E+0	9.267895E-1	1.013931E+0	1.046938E+0	1.000870E+0	1.067006E+0	1.023951E+0	1.040420E+0	9.981353E-1	9.975946E-1	1.022536E+0	1.035617E+0	1.009747E+0	9.716851E-1	1.019913E+0	1.021435E+0	1.023341E+0	8.762162E-1	9.655123E-1	1.026102E+0	1.024222E+0	1.002168E+0	1.012903E+0	1.010597E+0	1.011826E+0	1.003694E+0	9.641785E-1	1.000887E+0	9.948206E-1	9.982321E-1	9.936103E-1	9.871288E-1	9.592482E-1	9.650246E-1	1.015456E+0	9.685131E-1	1.052199E+0	1.006768E+0	1.022048E+0	1.015171E+0	1.046979E+0	1.017492E+0	1.007160E+0	1.036737E+0	9.925792E-1	9.634152E-1	1.015629E+0	1.019953E+0	9.938220E-1	9.591889E-1	1.036194E+0	9.681137E-1	1.044373E+0	9.643866E-1	1.021986E+0	1.018365E+0	9.866220E-1	1.001151E+0	9.886353E-1	1.020397E+0	1.045289E+0	9.543892E-1	1.014639E+0	1.016544E+0	1.028986E+0	1.010629E+0	1.009684E+0	9.793922E-1	1.009114E+0	9.966403E-1	9.858453E-1	1.041348E+0	1.032064E+0	9.718955E-1	1.029281E+0	9.962486E-1	1.019011E+0	9.608252E-1	9.988090E-1	1.012365E+0	1.054670E+0	9.978289E-1	1.007491E+0	1.018504E+0	9.926892E-1	1.023168E+0	1.021991E+0	1.025864E+0	9.882715E-1	1.031107E+0	1.026856E+0	1.021910E+0	1.016910E+0	1.011440E+0	9.804369E-1	9.998715E-1	1.005050E+0	9.970437E-1	1.022433E+0	9.964458E-1	9.653509E-1	1.007142E+0	1.036911E+0	1.026645E+0	1.021132E+0	1.006277E+0	1.002598E+0	1.003337E+0	1.003330E+0	1.022469E+0	1.003734E+0	1.000057E+0	1.019011E+0	1.040951E+0	1.023513E+0	1.000172E+0	1.013992E+0	1.026578E+0	1.037412E+0	9.984264E-1	1.014485E+0	1.040554E+0	1.040273E+0	1.017013E+0	1.026836E+0	9.762811E-1	1.025694E+0	1.027820E+0	1.009749E+0	1.002655E+0	1.033086E+0	1.002009E+0	1.036763E+0	1.005337E+0	1.033598E+0	1.029227E+0	1.007191E+0	1.014987E+0	9.826645E-1	1.035754E+0	1.039171E+0	1.028616E+0	9.554122E-1	1.016874E+0	9.730185E-1	1.030224E+0
5.595450E+2	1.021404E+0	1.005197E+0	1.025376E+0	9.704182E-1	1.034054E+0	1.027919E+0	9.337098E-1	9.935256E-1	1.046469E+0	9.761168E-1	9.979080E-1	9.824056E-1	9.807946E-1	1.019111E+0	1.001022E+0	9.719369E-1	1.012615E+0	1.039646E+0	9.500394E-1	9.749757E-1	9.839691E-1	1.014098E+0	9.495180E-1	1.010380E+0	9.828768E-1	9.743783E-1	9.903665E-1	1.033077E+0	1.027759E+0	9.974470E-1	1.014961E+0	9.964736E-1	9.966990E-1	1.013963E+0	9.765457E-1	9.783678E-1	9.487417E-1	1.021445E+0	9.421381E-1	1.013220E+0	9.823088E-1	9.433649E-1	1.058476E+0	1.035020E+0	9.967367E-1	9.848127E-1	1.009481E+0	9.938581E-1	1.062808E+0	1.045933E+0	9.383568E-1	1.000841E+0	1.012866E+0	9.865157E-1	9.545999E-1	1.001382E+0	1.019373E+0	9.927910E-1	1.007517E+0	1.032223E+0	9.476688E-1	9.774928E-1	1.018577E+0	9.776222E-1	1.010381E+0	9.764199E-1	9.909776E-1	1.026671E+0	1.015579E+0	1.032005E+0	9.805267E-1	1.007562E+0	9.878856E-1	1.008018E+0	9.928911E-1	1.007077E+0	1.021368E+0	9.902764E-1	1.001310E+0	9.750588E-1	1.066179E+0	1.014012E+0	1.000000E+0	9.874731E-1	1.019909E+0	1.010964E+0	9.929919E-1	1.032030E+0	9.802282E-1	9.963053E-1	9.320933E-1	9.806322E-1	9.881503E-1	1.021117E+0	9.986561E-1	9.993563E-1	9.867917E-1	1.019454E+0	1.002938E+0	1.034151E+0	9.697153E-1	1.042278E+0	1.003613E+0	1.011672E+0	1.006119E+0	9.368511E-1	9.883734E-1	1.035428E+0	1.020126E+0	9.984336E-1	1.018045E+0	1.018002E+0	1.029680E+0	9.987040E-1	9.847514E-1	1.002880E+0	1.033711E+0	1.009418E+0	1.017401E+0	1.031723E+0	1.002187E+0	9.921387E-1	1.020479E+0	9.759439E-1	9.850218E-1	1.002241E+0	1.004272E+0	9.726789E-1	1.051305E+0	1.027452E+0	1.023852E+0	1.040745E+0	9.805690E-1	1.041796E+0	9.734096E-1	1.013488E+0	1.011449E+0	9.887582E-1	9.660570E-1	9.651369E-1	9.996558E-1	1.013045E+0	9.868066E-1	1.009353E+0	9.874783E-1	1.046928E+0	1.020623E+0	9.862498E-1	1.003992E+0	1.010603E+0	9.860396E-1	1.032542E+0	9.737010E-1	9.854086E-1	9.885621E-1	9.935083E-1	9.652875E-1	1.010065E+0	9.900068E-1	1.015086E+0	1.000823E+0	9.927501E-1	1.006715E+0	1.032521E+0	9.507444E-1	1.042648E+0	9.912044E-1	1.026519E+0	1.005260E+0	1.038445E+0	1.102758E+0
5.600070E+2	9.705699E-1	9.710655E-1	9.893720E-1	9.686231E-1	9.856093E-1	9.739710E-1	1.030819E+0	9.654313E-1	9.807829E-1	9.680489E-1	1.014306E+0	9.504907E-1	9.778315E-1	1.013931E+0	9.575988E-1	9.804760E-1	9.369235E-1	9.425841E-1	1.048457E+0	9.535541E-1	9.741561E-1	9.932524E-1	1.087434E+0	9.394564E-1	9.542174E-1	9.640837E-1	1.064348E+0	1.012696E+0	9.707429E-1	9.744732E-1	9.657820E-1	9.751542E-1	9.810044E-1	9.065232E-1	9.789516E-1	9.708133E-1	9.408442E-1	9.328130E-1	9.832924E-1	9.515733E-1	9.828519E-1	1.002547E+0	1.127722E+0	9.810918E-1	9.258186E-1	9.868080E-1	9.948535E-1	9.320703E-1	9.237529E-1	9.765439E-1	9.447734E-1	9.577763E-1	9.549689E-1	9.735970E-1	9.648663E-1	9.759951E-1	9.596616E-1	9.894919E-1	9.728524E-1	9.924786E-1	9.640463E-1	9.401385E-1	9.822116E-1	9.504729E-1	9.415111E-1	9.568809E-1	9.860065E-1	9.663656E-1	9.501432E-1	9.406273E-1	9.110447E-1	9.102597E-1	9.803061E-1	9.139694E-1	9.163468E-1	9.621878E-1	9.646617E-1	9.998235E-1	9.438728E-1	9.537719E-1	9.546122E-1	9.883337E-1	9.717928E-1	9.944469E-1	9.678091E-1	9.575710E-1	9.369903E-1	9.925051E-1	9.923333E-1	9.825445E-1	9.633895E-1	1.000000E+0	9.938175E-1	9.676018E-1	9.608569E-1	9.940480E-1	1.020673E+0	1.002479E+0	9.885666E-1	9.203379E-1	9.783998E-1	9.526065E-1	9.853575E-1	9.784413E-1	9.669424E-1	9.637115E-1	9.398372E-1	9.576879E-1	9.682185E-1	1.006266E+0	9.186568E-1	9.596741E-1	9.266478E-1	1.023866E+0	9.499846E-1	1.000936E+0	9.889631E-1	9.654001E-1	9.247370E-1	9.772643E-1	9.859734E-1	9.849091E-1	9.457406E-1	9.785999E-1	9.678862E-1	9.805987E-1	9.927942E-1	9.897407E-1	9.643810E-1	1.003320E+0	9.397429E-1	9.484535E-1	9.752399E-1	9.738577E-1	9.351195E-1	9.489990E-1	9.601861E-1	1.010084E+0	9.437202E-1	9.590554E-1	9.862500E-1	9.448685E-1	1.003523E+0	9.745391E-1	9.572138E-1	9.643453E-1	9.583389E-1	9.667758E-1	9.930559E-1	1.028803E+0	9.768902E-1	9.609023E-1	9.352313E-1	9.582377E-1	9.861115E-1	9.658678E-1	9.444598E-1	9.938561E-1	9.619004E-1	9.310614E-1	9.606874E-1	9.991678E-1	9.405486E-1	1.003780E+0	9.830797E-1	9.765205E-1	9.722284E-1	9.572673E-1	9.704215E-1	9.063328E-1	9.372876E-1
5.605210E+2	9.620084E-1	1.013414E+0	9.780875E-1	9.668287E-1	9.717681E-1	9.691111E-1	1.002357E+0	9.472225E-1	9.621009E-1	9.570997E-1	9.608628E-1	9.909983E-1	9.773377E-1	9.263778E-1	9.734355E-1	9.004789E-1	9.555556E-1	9.933211E-1	1.050303E+0	9.657128E-1	9.815157E-1	9.474833E-1	1.081565E+0	9.516845E-1	9.715212E-1	9.507001E-1	1.009440E+0	9.243748E-1	9.489734E-1	9.930471E-1	9.638706E-1	9.429381E-1	9.653098E-1	9.770304E-1	1.037286E+0	9.748813E-1	9.468840E-1	9.485592E-1	1.070876E+0	9.840690E-1	9.611158E-1	9.529619E-1	1.146559E+0	9.906792E-1	9.856565E-1	9.673530E-1	9.963157E-1	9.627312E-1	9.978098E-1	9.624307E-1	1.008945E+0	9.990949E-1	9.794248E-1	9.583699E-1	1.024925E+0	9.666700E-1	9.518990E-1	9.372537E-1	1.047214E+0	9.577025E-1	9.789351E-1	9.870699E-1	9.595444E-1	9.356639E-1	9.463021E-1	9.780486E-1	1.019150E+0	9.675479E-1	9.314475E-1	9.675308E-1	1.041194E+0	9.596676E-1	9.628143E-1	9.269825E-1	1.040304E+0	9.324635E-1	9.483896E-1	9.584549E-1	9.859255E-1	9.649005E-1	9.333622E-1	9.637963E-1	9.735202E-1	9.967713E-1	9.882604E-1	9.623389E-1	9.810309E-1	9.540344E-1	1.009281E+0	9.383957E-1	9.740184E-1	9.806324E-1	9.819686E-1	9.250903E-1	9.527934E-1	9.457939E-1	9.511872E-1	9.733802E-1	9.874174E-1	9.653759E-1	9.615145E-1	9.792654E-1	9.140444E-1	9.468184E-1	9.516122E-1	9.325781E-1	9.896346E-1	9.631547E-1	9.265849E-1	1.005744E+0	9.647641E-1	9.716391E-1	9.101127E-1	9.342651E-1	9.420555E-1	9.782563E-1	9.093023E-1	9.855365E-1	9.615863E-1	9.381390E-1	9.784457E-1	9.544397E-1	1.002111E+0	9.799282E-1	9.844511E-1	9.756803E-1	9.537670E-1	9.621411E-1	9.532846E-1	9.665464E-1	9.259335E-1	9.306099E-1	9.892885E-1	1.004829E+0	9.590507E-1	9.907269E-1	9.544903E-1	9.505700E-1	9.614590E-1	9.523665E-1	9.707801E-1	9.372932E-1	9.654797E-1	9.646661E-1	9.192213E-1	9.950189E-1	9.726645E-1	9.881343E-1	9.607673E-1	1.000273E+0	9.720117E-1	9.451002E-1	9.847853E-1	1.032391E+0	9.530229E-1	9.734063E-1	9.883072E-1	9.647740E-1	9.511698E-1	9.538479E-1	9.816818E-1	1.021631E+0	9.704508E-1	9.539231E-1	9.799500E-1	9.790064E-1	9.624688E-1	9.560308E-1	9.748882E-1	9.705030E-1	9.146200E-1
5.610470E+2	1.008562E+0	9.843387E-1	9.958206E-1	9.692214E-1	1.000440E+0	9.924400E-1	1.028588E+0	9.888433E-1	1.013325E+0	9.530654E-1	9.875837E-1	1.062807E+0	9.773378E-1	1.019110E+0	9.872289E-1	9.809246E-1	1.028918E+0	9.795335E-1	1.081058E+0	9.813443E-1	9.962391E-1	1.003676E+0	1.109929E+0	9.834783E-1	9.980174E-1	9.784956E-1	1.059725E+0	9.540213E-1	9.951048E-1	9.998909E-1	1.070348E+0	9.580986E-1	9.938969E-1	9.971750E-1	1.056531E+0	1.033577E+0	9.938054E-1	1.037194E+0	1.145796E+0	1.028515E+0	9.763316E-1	1.021209E+0	1.186446E+0	9.858853E-1	9.718054E-1	1.020232E+0	1.031910E+0	9.808510E-1	9.764988E-1	9.359687E-1	1.055031E+0	9.950212E-1	9.919032E-1	9.855923E-1	1.102948E+0	1.008635E+0	1.021164E+0	1.008737E+0	1.067342E+0	9.955837E-1	1.034520E+0	1.022509E+0	9.907127E-1	1.005759E+0	9.774430E-1	9.639372E-1	1.034064E+0	9.900149E-1	1.034278E+0	9.628913E-1	1.160453E+0	1.011596E+0	1.058435E+0	1.019257E+0	1.108279E+0	9.785664E-1	1.028762E+0	1.023690E+0	1.042338E+0	1.014729E+0	9.876692E-1	9.797742E-1	1.040871E+0	9.938653E-1	9.775482E-1	1.006674E+0	1.137075E+0	1.008842E+0	9.832543E-1	9.911445E-1	1.088574E+0	9.641124E-1	9.747550E-1	1.004612E+0	1.033431E+0	9.983914E-1	9.764550E-1	9.627096E-1	1.042603E+0	9.556382E-1	9.808104E-1	1.013679E+0	1.131406E+0	1.004705E+0	9.709166E-1	9.869091E-1	1.058342E+0	9.607247E-1	1.028237E+0	9.676242E-1	1.032902E+0	9.771226E-1	9.737119E-1	1.025708E+0	1.018298E+0	9.776081E-1	9.978144E-1	1.003330E+0	1.033116E+0	1.028553E+0	1.010295E+0	9.900732E-1	1.003378E+0	9.872343E-1	1.036429E+0	9.919122E-1	9.675417E-1	1.012322E+0	1.001370E+0	9.941266E-1	9.912124E-1	1.008750E+0	9.592539E-1	1.012822E+0	1.008708E+0	1.000482E+0	1.004200E+0	1.024466E+0	9.949634E-1	1.010743E+0	9.738739E-1	9.884264E-1	9.856540E-1	1.001039E+0	1.004222E+0	1.016844E+0	9.820073E-1	1.017031E+0	9.873276E-1	1.028803E+0	9.915287E-1	1.022534E+0	9.958710E-1	9.905024E-1	9.732436E-1	1.029316E+0	9.861148E-1	1.000529E+0	9.864299E-1	9.747340E-1	1.008233E+0	1.016818E+0	9.761771E-1	9.967412E-1	9.809931E-1	1.069499E+0	9.950002E-1	1.034557E+0	9.605959E-1	1.048510E+0	9.055541E-1
