Photon Energy (eV)	#1	#2	#3	#4	#5	#6	#7	#8	#9	#10	#11	#12	#13	#14	#15	#16	#17	#18	#19	#20	#21	#22	#23	#24	#25	#26	#27	#28	#29	#30	#31	#32	#33	#34	#35	#36	#37	#38	#39	#40	#41	#42	#43	#44	#45	#46	#47	#48	#49	#50	#51	#52	#53	#54	#55	#56	#57	#58	#59	#60	#61	#62	#63	#64	#65	#66	#67	#68	#69	#70	#71	#72	#73	#74	#75	#76	#77	#78	#79	#80	#81	#82	#83	#84	#85	#86	#87	#88	#89	#90	#91	#92	#93	#94	#95	#96	#97	#98	#99	#100	#101	#102	#103	#104	#105	#106	#107	#108	#109	#110	#111	#112	#113	#114	#115	#116	#117	#118	#119	#120	#121	#122	#123	#124	#125	#126	#127	#128	#129	#130	#131	#132	#133	#134	#135	#136	#137	#138	#139	#140	#141	#142	#143	#144	#145	#146	#147	#148	#149	#150	#151	#152	#153	#154	#155	#156	#157	#158	#159	#160	#161	#162	#163	#164	#165	#166	#167	#168	#169	#170	#171	
5.300220E+2	-6.767342E-3	-3.880413E-3	-9.048943E-3	-6.357874E-3	-5.617077E-3	-1.937437E-3	-4.569803E-3	-1.149888E-2	-4.209470E-3	-1.561035E-3	-8.330013E-3	-8.971262E-3	-1.016187E-2	-1.296476E-2	3.303024E-4	-3.606347E-3	2.128166E-3	-4.385827E-3	-9.157473E-3	-2.379113E-3	-8.823722E-3	1.282827E-4	-5.996950E-3	-1.284195E-3	1.186056E-4	-1.163221E-2	-1.675907E-3	-1.629167E-3	4.237884E-4	-6.794602E-3	-6.740218E-3	-1.579011E-2	-6.625171E-3	-2.943558E-3	-8.910338E-3	-7.394322E-3	-1.530378E-2	-8.058272E-3	-1.963430E-3	-8.755786E-3	-3.230260E-3	-8.722041E-3	-1.313014E-2	2.741426E-4	-6.836163E-3	-8.697121E-3	1.146057E-3	-7.308967E-3	-6.989469E-3	6.005087E-4	4.704000E-3	-3.951157E-3	-1.422855E-3	-1.311487E-2	-8.656710E-3	-5.861679E-3	1.533103E-3	3.610868E-3	-3.372549E-4	-1.825959E-3	-7.198053E-3	-1.654604E-2	3.148331E-6	-8.792008E-3	-6.033813E-3	8.002650E-4	-4.400673E-4	-1.286568E-2	-1.952601E-3	1.632256E-3	-6.102091E-3	-8.660240E-3	-4.346347E-3	-1.208947E-2	-1.111432E-2	-7.964835E-3	-3.884656E-3	1.898599E-4	-7.548814E-3	-9.037401E-4	-4.553410E-3	-8.439625E-3	-4.959531E-3	-2.888019E-3	-7.323424E-3	-9.228669E-3	-1.741949E-3	-1.138560E-2	-1.079134E-2	-1.242922E-2	-4.701784E-3	-7.963910E-3	-1.155552E-2	-4.881625E-3	-6.724436E-3	-9.556917E-3	-7.405659E-3	-5.404660E-3	-5.073386E-3	-6.855090E-3	-7.398038E-3	-5.433489E-3	-9.603220E-3	-5.571221E-3	-9.232633E-3	1.807779E-3	8.462721E-4	-4.655888E-3	-2.119408E-3	-1.604438E-2	-7.925931E-3	-3.418158E-3	-9.274477E-3	-4.479908E-3	-7.266740E-3	-2.597390E-3	3.443955E-3	-5.658783E-3	-9.434322E-3	-4.313353E-3	-6.127794E-4	-2.448951E-3	-7.874447E-3	-3.644017E-3	-1.771224E-3	-1.003799E-2	-7.366618E-3	-3.417378E-3	-7.910606E-3	-6.692601E-3	-5.778965E-3	-9.686859E-3	-1.231350E-2	-1.114018E-2	-1.953131E-3	-8.557355E-4	3.661304E-4	-2.090981E-3	-6.679458E-3	-5.322147E-3	-1.517953E-2	-6.872610E-3	-4.007118E-3	-1.303218E-2	-2.685866E-3	-5.925664E-3	-5.931269E-3	-6.090111E-3	-5.892763E-3	-1.158705E-2	-2.608039E-3	-1.103434E-2	-1.448907E-2	-1.486822E-2	-2.472716E-3	-4.678847E-3	6.287446E-4	-7.446757E-3	-3.993092E-3	-3.581688E-3	-8.921124E-3	-6.587306E-3	-1.126949E-2	-4.668858E-3	-7.892599E-3	-1.112677E-2	6.998989E-4	-1.079428E-2	-1.083052E-2	7.653963E-5	6.006619E-4
5.305080E+2	-7.285992E-3	-5.710407E-3	-5.797415E-3	-9.315215E-3	-1.019173E-2	4.164202E-3	-9.256451E-3	2.127281E-3	4.973151E-3	1.466170E-3	1.523098E-3	-4.117343E-3	-6.880576E-4	-5.606809E-3	-4.441906E-3	-2.597214E-3	-1.409433E-2	1.719313E-3	-4.791133E-4	-2.321777E-3	9.798437E-4	-8.489534E-3	-8.809273E-3	-5.554916E-3	-3.783591E-4	-6.683849E-3	-6.675074E-3	-1.293093E-2	-1.206252E-3	-1.575522E-2	-2.589294E-3	-3.534906E-3	-1.835065E-3	-1.471898E-3	-4.792303E-3	-8.137880E-3	-4.721928E-3	-3.194789E-3	1.071641E-3	-9.100925E-3	-2.486597E-3	-8.630234E-3	8.245200E-3	-1.035687E-2	-3.220553E-3	1.270593E-3	-5.249634E-4	-1.200388E-2	-7.955871E-3	-1.584705E-3	-4.689774E-3	-3.153622E-3	-7.889662E-5	-3.292792E-3	-6.480831E-3	-4.265870E-3	-3.224540E-3	-5.366813E-3	-1.856413E-4	-1.239510E-3	-3.779657E-3	5.385287E-3	-6.091455E-3	2.620849E-3	-1.004386E-2	-4.408065E-3	-5.191948E-3	3.377238E-3	-1.284682E-3	-8.486242E-3	-7.641356E-4	-2.035521E-4	-4.243086E-3	-2.486049E-3	-6.952862E-4	-9.120349E-4	-4.211095E-3	-7.799205E-3	1.011914E-3	2.703580E-3	-5.079808E-3	3.555272E-3	-3.671777E-3	-8.251850E-4	-5.105468E-3	-5.012430E-3	-1.094902E-3	-2.506471E-3	-4.834773E-4	-5.176666E-3	-4.984371E-4	-3.307757E-3	-1.759688E-3	1.533318E-3	-1.082578E-2	-9.473673E-3	-1.021682E-2	6.843804E-3	1.145533E-3	-1.378109E-2	1.435816E-3	-1.215104E-2	-2.236602E-3	-6.471158E-3	-2.144528E-3	-3.869870E-3	-3.680554E-3	-1.952728E-3	-3.032459E-3	-8.574414E-3	7.548379E-4	-8.630770E-3	-6.062485E-3	1.365791E-2	-1.135946E-2	-9.791129E-3	-3.388020E-3	-1.925972E-3	-1.034143E-2	-7.217803E-3	-2.383619E-3	-6.198531E-3	-2.484184E-3	-1.036606E-2	-2.748778E-3	3.882374E-3	-9.217633E-3	-8.817319E-3	-4.019999E-3	-1.896006E-3	-5.648685E-3	8.793853E-3	-5.383421E-3	-7.161059E-3	-1.015888E-2	-4.342664E-3	-2.392869E-3	-9.577821E-3	-5.366022E-3	-1.099632E-3	-5.172452E-3	3.352449E-5	2.917786E-3	-9.530947E-4	-1.211831E-2	-1.556503E-3	-9.537422E-4	-7.205853E-3	-7.908983E-3	2.232361E-3	-7.697509E-3	-8.911243E-3	-1.292050E-5	-3.353298E-3	1.141934E-3	-1.351054E-3	-9.137888E-3	-3.180811E-3	8.570084E-4	1.911726E-3	2.521402E-3	3.013861E-3	-1.057903E-2	2.122915E-3	-6.615819E-3	-6.410387E-3	-1.330245E-2	-7.253336E-3	-1.387465E-3	1.445683E-3	-9.085370E-3
5.310300E+2	-8.275129E-4	1.426835E-3	-1.139716E-2	-1.910785E-3	3.380137E-4	-2.251207E-3	9.913221E-4	-5.783270E-3	-6.445992E-3	-3.664541E-3	-9.223073E-3	-6.316812E-3	-3.360786E-3	-8.683857E-3	-7.474714E-4	8.710064E-4	3.283293E-3	-1.495648E-2	-8.935723E-3	1.730408E-5	-3.720341E-3	-1.474489E-4	-5.253048E-3	4.764815E-3	-7.982226E-3	-6.235621E-4	5.343608E-3	2.547037E-3	-3.931273E-3	8.778172E-3	6.031829E-3	3.081079E-3	1.315809E-3	-9.745850E-3	2.656957E-3	1.329942E-3	2.821602E-5	-9.918043E-3	-6.430529E-3	-3.521878E-3	-2.387975E-3	5.894855E-3	-8.416324E-4	-1.482615E-4	-6.962079E-3	-5.184436E-3	-4.516769E-3	1.237722E-3	8.116873E-3	-7.453131E-3	-2.737959E-3	-4.915515E-3	-1.455877E-3	-2.653280E-3	2.827271E-3	-5.147519E-3	-1.294581E-2	2.687576E-3	-2.773013E-3	-3.271926E-3	1.864805E-4	-1.306521E-2	-5.083291E-3	-4.171856E-3	3.787004E-3	-3.607487E-3	-1.117821E-3	-5.006019E-3	1.747818E-3	-6.842511E-4	-1.216231E-2	-1.313543E-3	-6.464643E-3	-4.756035E-3	-1.034548E-2	7.045079E-4	-5.446329E-3	-1.925015E-3	-8.846535E-3	-6.937018E-3	6.358241E-4	-7.669801E-3	-5.889858E-3	-1.186058E-3	-8.184610E-4	-2.327032E-3	-6.475860E-3	-2.521388E-3	1.481783E-3	4.504386E-3	-7.974816E-3	2.629554E-3	-7.419838E-3	-7.302907E-4	5.790786E-3	2.881355E-3	-7.060381E-3	1.192338E-3	-2.304857E-3	5.112985E-3	-4.938558E-3	3.249084E-3	-4.692118E-3	-5.180344E-5	5.469851E-4	-7.835650E-3	4.591817E-3	-1.416777E-2	-8.407383E-4	4.964150E-3	-1.387631E-2	-3.683990E-3	-3.456439E-3	-4.867800E-3	1.640907E-4	6.282912E-3	-7.573132E-3	-3.360654E-3	2.725981E-3	1.531167E-3	-5.451371E-3	1.673145E-3	-8.241544E-3	-4.091705E-3	-7.036212E-3	-5.511114E-3	-4.652361E-3	-6.502792E-3	-4.537310E-3	7.616755E-3	-1.209195E-2	-5.532130E-3	3.870034E-3	-1.498509E-3	-1.155285E-3	-7.324029E-3	-3.995826E-3	-6.901587E-3	3.239742E-3	-6.899958E-3	-4.517432E-3	-4.339145E-3	9.673664E-4	-8.143897E-4	-3.082443E-3	-8.115946E-3	-5.152609E-3	-9.557077E-3	2.474590E-3	1.835436E-3	-7.828999E-4	-2.226687E-3	1.159292E-4	-8.111436E-4	-6.899615E-3	-3.814771E-3	-1.034432E-3	-6.719780E-3	-5.137906E-3	-6.522262E-3	2.782546E-4	-6.354166E-3	5.793339E-5	-7.486722E-3	-7.045186E-3	-6.272427E-3	-6.102582E-3	7.771177E-3	-6.420639E-3	1.574528E-3	-6.994008E-3
5.315340E+2	2.482534E-3	-2.313985E-3	-2.405595E-3	-3.639212E-3	-5.761585E-4	-1.581304E-3	1.112658E-3	2.390434E-3	3.453090E-4	-3.893859E-5	1.103703E-2	8.848183E-3	-1.359626E-3	5.527465E-4	-7.343903E-3	-8.615810E-3	7.907776E-3	1.397983E-2	3.257397E-4	6.820960E-3	-4.684298E-3	4.096310E-3	5.718907E-3	-3.937149E-3	1.773789E-3	1.197766E-2	4.888659E-3	2.680990E-3	-6.194451E-3	-2.124387E-3	3.637949E-4	1.985574E-4	-9.860139E-4	-1.029852E-2	-1.171331E-3	-2.407291E-3	5.322843E-3	1.273814E-3	-1.048435E-3	3.459358E-3	-1.268132E-4	1.968402E-3	-8.814025E-3	4.643422E-3	-1.899717E-3	4.361988E-3	-7.619937E-3	5.848495E-3	-1.006343E-2	5.224923E-4	-1.042140E-2	-5.892105E-3	-6.184342E-3	-1.450593E-3	2.471970E-3	-1.208440E-3	-4.171651E-4	-1.446275E-3	-2.633525E-3	-7.915626E-4	-2.476998E-3	-8.086035E-4	5.778849E-3	1.319644E-3	1.539689E-3	-7.670044E-3	-9.740349E-3	3.479671E-3	-1.976909E-3	-6.701308E-3	5.322553E-3	-6.925630E-4	3.265554E-3	-2.272149E-3	7.620282E-3	7.468254E-4	-7.114438E-4	-2.759330E-3	-9.273461E-3	-4.335350E-3	-5.438984E-3	-2.127166E-3	1.331212E-3	-7.540668E-3	2.466864E-3	1.918566E-3	-6.930877E-3	-5.055898E-3	4.758902E-3	-3.172267E-3	6.202568E-3	-9.269957E-4	2.512308E-3	2.819986E-3	2.654683E-3	3.228061E-3	-1.999966E-3	-8.348668E-3	3.928491E-3	3.257789E-3	-9.181057E-4	2.858367E-3	5.344217E-3	4.371097E-3	2.619075E-3	-1.943541E-3	-3.463185E-3	9.991748E-3	-2.676947E-3	4.209667E-3	6.079126E-4	1.001978E-3	2.676645E-3	-5.954783E-3	4.583735E-3	5.603236E-3	-3.591049E-4	3.513360E-3	-6.458827E-3	-3.050166E-3	-1.110499E-2	2.919222E-3	1.908910E-3	2.123692E-3	5.316222E-3	7.558396E-3	4.910102E-3	-3.830322E-3	3.383413E-3	-9.273810E-3	1.056130E-2	3.405207E-3	-3.339696E-3	-3.587544E-3	-2.055989E-3	-2.719331E-3	-3.248597E-3	9.601915E-3	-6.344818E-3	1.096931E-2	3.448905E-4	-4.190076E-3	-4.152679E-3	-2.246233E-3	-1.041169E-3	-3.736927E-3	-3.413898E-3	8.474562E-3	-7.115207E-3	-2.982499E-3	-6.578697E-4	3.477238E-3	-4.348440E-3	-1.275968E-3	-3.269984E-3	-5.643596E-3	1.108325E-3	4.512653E-3	4.961238E-3	7.356997E-5	2.203322E-3	-1.469503E-3	-6.837576E-3	4.220060E-3	-1.176829E-3	3.118617E-3	-3.438627E-3	3.933567E-3	-5.258131E-3	-9.572531E-3	-2.916595E-3
5.320120E+2	-2.520313E-3	6.787670E-3	1.616326E-2	5.643682E-3	1.107390E-2	-5.301113E-3	6.064123E-3	1.508552E-3	-7.703958E-4	3.013409E-3	7.905195E-3	4.342664E-3	1.115595E-3	1.166850E-2	3.555617E-3	4.142230E-3	-5.465674E-3	3.274221E-3	4.458685E-3	-8.109624E-3	8.326876E-3	-9.633509E-4	8.826900E-3	-5.615510E-4	-2.638060E-3	6.141460E-3	-5.846327E-3	-7.557908E-4	-1.310282E-3	4.258604E-3	4.994951E-4	9.033257E-3	1.563229E-3	8.070790E-4	-2.189825E-3	-2.850303E-3	7.008937E-3	4.046746E-3	1.954025E-3	2.690156E-3	2.167006E-3	3.816330E-3	1.699502E-3	1.270179E-3	5.661300E-3	2.636783E-3	-1.494186E-3	3.340818E-3	-1.123114E-3	1.229172E-3	3.495845E-3	4.169107E-3	5.357952E-3	7.373363E-3	8.746939E-3	5.575433E-3	4.663533E-3	-1.955668E-3	-1.975766E-3	-8.013029E-5	4.708776E-3	1.149148E-2	-4.391887E-3	-3.472344E-3	3.522096E-3	9.778333E-3	5.152284E-3	4.156826E-3	-1.361626E-3	5.266476E-3	5.485560E-3	2.186759E-3	5.213612E-3	3.234985E-3	-1.490027E-3	-1.588703E-3	3.582338E-3	2.198905E-3	7.430935E-3	-1.149075E-5	-2.215460E-3	6.719448E-3	9.193832E-3	-1.119675E-3	1.045548E-3	4.652917E-3	9.693776E-3	9.055627E-3	-2.073586E-3	5.958706E-3	-3.061631E-3	9.130199E-3	8.536937E-3	-6.771877E-3	7.555474E-3	4.769293E-3	1.295999E-2	-4.559052E-4	-9.889984E-4	2.830355E-3	-2.144038E-4	3.004994E-3	2.896699E-3	-1.571495E-3	1.471751E-3	3.497147E-3	-7.438117E-3	5.318404E-3	3.741298E-3	4.370846E-3	1.181019E-2	2.015455E-3	5.446309E-3	1.068234E-3	6.562520E-3	-1.252110E-4	3.595634E-3	1.147935E-2	8.268539E-3	9.180717E-4	1.099591E-2	-5.291195E-3	4.416200E-3	1.510334E-3	8.346042E-3	-4.282070E-4	6.085824E-3	1.486312E-3	4.541756E-3	1.501412E-3	3.085573E-3	6.840183E-3	7.350817E-3	8.258666E-3	1.284951E-2	3.539599E-3	3.974360E-3	3.117669E-3	6.586974E-3	-2.650474E-3	1.480147E-2	5.539222E-3	2.330283E-3	1.184693E-3	8.387153E-3	4.988607E-3	9.280440E-3	8.870460E-3	1.157538E-2	-8.507441E-5	3.165190E-3	1.350767E-3	1.159996E-2	1.098094E-2	9.721430E-4	1.085741E-2	-8.248407E-3	7.952127E-3	2.766691E-3	1.852223E-3	-7.017047E-3	9.339143E-3	1.684483E-2	2.507725E-3	1.235841E-2	4.830780E-3	7.915042E-3	2.843584E-3	-1.983678E-3	-8.211047E-3	1.902520E-2
5.325070E+2	1.491863E-2	3.690299E-3	1.248586E-2	1.557940E-2	4.973052E-3	6.906859E-3	5.658151E-3	1.125588E-2	6.107398E-3	7.849355E-4	-2.912242E-3	6.214569E-3	1.445474E-2	1.503418E-2	8.647360E-3	9.806135E-3	6.240768E-3	3.689485E-4	1.378789E-2	5.972249E-3	7.921642E-3	5.375741E-3	5.513465E-3	6.572997E-3	9.106251E-3	8.204987E-4	3.965042E-3	1.008786E-2	1.221847E-2	1.163743E-2	2.434393E-3	7.012120E-3	6.567212E-3	2.365275E-2	1.440684E-2	1.945985E-2	7.665710E-3	1.585054E-2	6.416727E-3	1.522908E-2	6.064640E-3	5.672689E-3	1.284110E-2	4.317386E-3	1.325721E-2	5.612193E-3	1.300980E-2	8.885815E-3	1.801501E-2	6.685664E-3	9.649287E-3	1.374329E-2	3.784019E-3	1.313817E-2	1.091360E-3	1.090807E-2	1.039088E-2	2.470312E-3	7.905200E-3	7.209088E-3	8.559453E-3	1.354308E-2	9.784635E-3	1.249572E-2	7.228890E-3	5.106998E-3	1.133790E-2	6.857964E-3	4.828001E-3	8.973069E-3	8.220426E-3	8.683140E-3	6.574909E-3	1.836872E-2	1.602483E-2	9.014240E-3	1.067119E-2	1.009479E-2	1.722596E-2	9.484019E-3	1.665184E-2	7.961872E-3	3.996122E-3	1.355960E-2	9.734940E-3	9.996648E-3	6.549811E-3	1.241373E-2	7.107723E-3	1.031506E-2	1.003410E-2	4.389108E-4	9.685805E-3	8.030489E-3	1.549276E-3	8.151881E-3	1.372284E-2	6.173091E-3	3.293219E-3	9.435054E-3	1.203329E-2	8.472089E-3	8.291024E-3	9.294581E-3	6.739350E-3	8.344135E-3	9.143767E-3	5.466233E-3	4.928255E-3	1.107413E-2	8.629302E-3	1.271548E-2	1.067045E-2	5.763451E-4	7.315855E-3	6.275821E-4	4.280669E-3	-4.047304E-3	1.524006E-2	1.213208E-2	8.556851E-3	9.346310E-3	1.227506E-2	1.446775E-2	-2.106050E-3	4.536542E-3	1.024069E-2	2.108150E-2	8.542747E-3	8.744249E-3	9.872732E-3	-3.820254E-3	9.815764E-3	1.512863E-2	2.473779E-3	1.170216E-2	5.296802E-3	5.850805E-3	8.563582E-3	5.002904E-3	9.723049E-3	9.829085E-3	1.944362E-3	1.586121E-2	1.054064E-2	1.434643E-2	6.171077E-3	5.508018E-3	6.866985E-3	1.058683E-2	8.581127E-3	1.734426E-2	7.134537E-3	9.327690E-3	1.052824E-2	4.630859E-3	1.668366E-2	4.882568E-3	5.460609E-4	6.266432E-3	1.093519E-2	2.057971E-3	1.178333E-2	3.304880E-3	1.037202E-2	1.586018E-2	1.422872E-2	3.499286E-3	2.588044E-2	1.468683E-2	-6.298874E-4
5.329970E+2	2.152326E-2	1.608944E-2	2.158941E-2	2.187077E-2	1.729779E-2	1.752003E-2	1.819395E-2	2.207516E-2	2.346241E-2	1.153254E-2	2.026328E-2	1.744235E-2	2.268687E-2	3.040301E-2	1.785466E-2	2.560230E-2	1.995848E-2	1.743675E-2	1.855222E-2	2.236885E-2	3.242268E-2	2.215965E-2	9.146230E-3	3.157822E-2	2.934871E-2	3.593966E-2	3.104706E-2	1.144366E-2	2.247442E-2	2.101030E-2	1.885817E-2	2.160714E-2	1.590294E-2	1.731029E-2	1.912237E-2	1.573790E-2	1.981939E-2	2.559560E-2	1.622112E-2	2.094704E-2	1.866672E-2	1.453990E-2	2.055587E-2	1.971573E-2	1.941642E-2	2.669052E-2	1.690413E-2	1.627314E-2	1.691150E-2	2.013041E-2	3.217843E-2	3.513650E-2	1.103868E-2	1.898318E-2	2.386137E-2	3.355047E-2	2.676420E-2	2.228502E-2	2.118793E-2	2.594050E-2	1.626382E-2	1.652599E-2	2.129226E-2	1.086224E-2	9.148336E-3	2.152084E-2	4.868074E-3	2.170943E-2	4.269451E-2	2.102680E-2	2.266010E-2	2.352002E-2	1.218422E-2	1.791136E-2	2.316280E-2	2.769735E-2	2.197479E-2	1.512017E-2	2.700745E-2	2.231426E-2	1.995740E-2	2.619749E-2	1.369019E-2	1.625119E-2	2.057607E-2	2.110696E-2	2.941286E-2	2.456626E-2	1.501437E-2	3.040671E-2	9.006820E-3	2.886199E-2	3.498406E-2	3.420390E-2	2.556494E-2	1.293683E-2	2.045459E-2	3.092771E-2	2.716116E-2	1.947691E-2	2.104156E-2	3.157077E-2	1.160935E-2	2.124608E-2	1.717930E-2	2.790198E-2	1.932328E-2	1.914480E-2	2.239560E-2	2.204122E-2	2.523368E-2	1.935872E-2	3.188711E-2	3.232863E-3	1.964675E-2	3.374405E-2	1.969355E-2	1.810242E-2	1.124222E-2	2.643933E-2	6.755577E-3	1.734737E-2	1.482119E-2	2.428243E-2	2.098429E-2	2.501310E-2	3.344103E-2	2.130247E-2	1.773425E-2	1.185285E-3	2.003226E-2	1.345212E-2	1.867404E-2	2.035610E-2	3.153237E-3	2.343095E-2	1.428105E-2	1.995358E-2	3.262710E-2	2.669594E-2	3.057422E-2	2.149207E-2	2.650689E-2	1.465296E-2	2.367154E-2	2.004916E-2	1.946916E-2	2.801516E-2	1.851004E-2	9.645931E-3	1.825232E-2	2.607045E-2	3.440346E-2	1.436146E-2	1.659372E-2	2.716173E-2	1.990735E-2	1.392810E-2	2.801567E-2	8.708532E-3	1.839009E-2	2.628831E-2	2.082450E-2	2.547149E-2	2.622560E-2	2.746625E-2	2.209966E-2	2.347310E-2	1.561946E-2	2.286248E-2	3.945083E-2
5.331520E+2	2.234913E-2	3.308466E-2	1.856668E-2	2.203449E-2	1.906073E-2	3.205221E-2	2.809459E-2	2.276902E-2	4.763179E-2	2.528779E-2	2.154747E-2	2.580711E-2	1.294598E-2	2.277409E-2	3.119715E-2	2.374602E-2	2.338495E-2	2.790913E-2	1.987483E-2	3.154401E-2	2.666860E-2	3.067075E-2	2.276071E-2	3.602698E-2	3.343458E-2	3.176904E-2	2.951830E-2	3.316537E-2	3.423610E-2	3.237811E-2	2.495074E-2	1.128375E-2	1.424742E-2	3.378857E-2	3.243490E-2	2.370371E-2	1.847096E-2	3.378372E-2	3.090691E-2	2.483971E-2	3.025166E-2	2.871001E-2	2.889755E-2	2.224960E-2	2.561569E-2	2.213395E-2	2.222124E-2	1.379913E-2	2.414101E-2	2.331135E-2	2.326541E-2	2.019272E-2	3.102290E-2	2.122385E-2	2.146278E-2	2.610898E-2	1.375050E-2	1.619965E-2	3.180508E-2	2.911491E-2	2.449068E-2	2.137222E-2	3.377018E-2	2.836453E-2	2.149176E-2	3.077392E-2	2.382434E-2	2.240045E-2	3.981872E-2	2.995336E-2	3.555930E-2	2.787705E-2	3.134657E-2	2.098588E-2	3.556084E-2	3.279968E-2	2.627761E-2	3.770896E-2	2.571234E-2	3.334559E-2	3.600081E-2	3.355511E-2	2.643524E-2	1.578709E-2	2.895108E-2	2.705635E-2	2.085008E-2	2.484758E-2	1.779058E-2	1.667166E-2	2.694330E-2	3.018919E-2	4.710034E-2	3.052442E-2	3.154511E-2	3.204685E-2	2.483494E-2	2.530076E-2	2.118886E-2	2.797863E-2	2.901278E-2	2.592050E-2	2.285916E-2	3.070843E-2	2.703517E-2	2.045022E-2	3.310825E-2	2.051157E-2	2.943318E-2	1.755249E-2	4.145414E-2	2.603891E-2	3.208958E-2	1.790584E-2	3.204835E-2	2.398543E-2	3.519485E-2	2.144673E-2	2.088770E-2	1.553232E-2	2.773614E-2	2.932809E-2	2.096277E-2	1.675845E-2	1.050989E-2	5.095040E-2	2.967170E-2	3.316981E-2	2.503444E-2	2.156531E-2	1.801055E-2	2.336932E-2	2.641770E-2	1.493812E-2	2.506314E-2	3.320810E-2	2.154391E-2	2.119753E-2	2.423321E-2	4.623199E-2	1.751730E-2	1.251445E-2	1.447313E-2	2.431211E-2	3.686898E-2	3.441943E-2	1.910364E-2	3.058017E-2	2.144414E-2	3.712277E-2	1.896239E-2	3.635215E-2	3.526709E-2	2.918581E-2	4.222401E-2	3.403923E-2	3.128127E-2	1.927624E-2	2.344026E-2	2.333748E-2	2.526953E-2	3.185481E-2	2.397721E-2	2.676863E-2	2.060472E-2	3.444267E-2	2.537878E-2	1.574333E-2	2.798560E-2	3.325371E-2	2.969506E-2
5.333080E+2	3.712374E-2	4.173407E-2	2.643692E-2	3.517389E-2	3.301688E-2	4.281980E-2	2.667000E-2	2.448527E-2	2.709712E-2	4.089816E-2	2.998892E-2	4.240564E-2	4.156346E-2	3.499163E-2	5.323441E-2	2.989717E-2	2.745561E-2	5.789425E-2	3.800253E-2	4.808927E-2	3.881023E-2	3.817450E-2	3.444596E-2	3.765203E-2	4.014134E-2	3.855158E-2	4.237494E-2	4.056754E-2	4.652158E-2	3.989685E-2	4.060612E-2	3.652167E-2	2.794314E-2	4.509857E-2	3.950826E-2	3.114868E-2	3.068552E-2	4.040039E-2	2.916900E-2	4.956719E-2	4.404373E-2	3.473525E-2	3.844132E-2	3.185096E-2	4.385409E-2	3.953507E-2	2.569175E-2	3.397944E-2	3.646802E-2	3.453482E-2	3.376985E-2	2.877850E-2	2.408185E-2	3.387043E-2	4.185280E-2	4.851956E-2	3.091134E-2	2.760403E-2	3.039244E-2	4.017954E-2	3.709078E-2	3.123451E-2	3.813325E-2	3.501451E-2	2.360643E-2	2.551844E-2	3.734849E-2	4.162133E-2	3.895009E-2	3.861891E-2	4.876171E-2	3.559037E-2	3.654447E-2	3.208681E-2	3.811402E-2	2.929508E-2	3.823482E-2	3.793396E-2	3.970059E-2	2.041206E-2	4.658234E-2	2.330657E-2	4.640787E-2	3.568454E-2	2.549369E-2	3.927711E-2	4.946281E-2	4.602474E-2	4.073662E-2	4.658409E-2	4.257482E-2	4.264836E-2	4.400845E-2	2.827579E-2	2.840209E-2	4.614692E-2	2.865166E-2	4.174678E-2	1.939357E-2	4.171932E-2	3.304077E-2	3.253398E-2	2.409680E-2	3.660562E-2	3.596779E-2	4.382396E-2	3.210933E-2	3.438367E-2	3.809682E-2	3.329006E-2	3.100611E-2	2.303633E-2	4.893600E-2	2.945449E-2	4.630585E-2	4.541926E-2	3.813791E-2	3.744449E-2	2.897647E-2	3.802193E-2	4.169648E-2	3.908275E-2	3.726776E-2	3.240938E-2	5.345096E-2	3.856548E-2	3.641948E-2	3.386148E-2	3.168694E-2	2.531026E-2	2.822154E-2	3.791161E-2	3.709074E-2	4.551248E-2	2.790869E-2	4.553468E-2	3.828814E-2	2.605519E-2	4.350672E-2	4.131131E-2	3.314539E-2	3.761250E-2	3.757305E-2	5.439162E-2	4.422565E-2	3.586456E-2	2.697472E-2	4.377473E-2	4.909899E-2	2.895866E-2	2.868658E-2	3.152879E-2	5.139676E-2	3.549306E-2	3.175377E-2	4.699345E-2	4.370767E-2	4.247601E-2	2.507819E-2	2.807975E-2	4.500588E-2	3.097000E-2	3.603866E-2	3.856722E-2	4.470833E-2	5.968527E-2	5.390330E-2	3.298404E-2	2.294442E-2	3.855204E-2	3.790819E-2
5.334630E+2	5.520302E-2	5.721464E-2	4.467033E-2	2.981877E-2	3.569072E-2	4.237476E-2	5.080671E-2	4.214286E-2	4.914238E-2	3.651669E-2	4.732454E-2	3.442301E-2	3.989281E-2	5.563656E-2	4.620611E-2	4.160511E-2	5.122662E-2	5.673436E-2	3.419614E-2	4.276409E-2	4.575101E-2	5.881980E-2	5.127396E-2	5.120042E-2	5.002588E-2	4.557251E-2	6.109458E-2	4.263425E-2	3.862417E-2	5.288399E-2	4.906884E-2	4.429109E-2	3.243551E-2	5.562892E-2	4.153150E-2	4.377061E-2	5.112303E-2	3.837554E-2	5.231401E-2	5.690880E-2	4.570667E-2	4.336061E-2	4.873311E-2	5.101762E-2	4.844334E-2	4.896313E-2	4.940055E-2	4.055667E-2	4.391419E-2	4.781669E-2	4.399831E-2	5.803459E-2	5.327974E-2	4.163236E-2	4.544482E-2	4.310037E-2	4.751915E-2	5.211892E-2	4.020378E-2	5.187900E-2	5.327715E-2	4.766926E-2	4.524364E-2	5.124922E-2	4.666515E-2	5.028596E-2	4.058776E-2	3.779073E-2	5.892378E-2	5.555023E-2	3.560273E-2	4.288132E-2	4.720649E-2	4.448159E-2	5.293593E-2	5.249067E-2	5.400601E-2	5.427081E-2	5.510521E-2	5.122158E-2	6.188597E-2	4.830315E-2	4.660065E-2	7.226212E-2	4.450088E-2	5.309051E-2	5.525415E-2	6.930889E-2	3.375417E-2	4.374238E-2	5.468344E-2	4.956839E-2	5.702143E-2	4.230357E-2	4.301222E-2	4.684364E-2	5.105559E-2	4.128316E-2	4.803319E-2	3.068638E-2	5.000510E-2	4.990644E-2	5.177725E-2	4.193604E-2	4.139300E-2	3.853948E-2	4.239610E-2	5.044481E-2	4.515740E-2	5.664898E-2	5.408366E-2	5.100744E-2	6.004377E-2	5.689184E-2	4.466156E-2	3.685116E-2	5.921897E-2	5.139947E-2	4.712095E-2	3.671223E-2	5.115561E-2	4.492900E-2	5.422781E-2	4.552913E-2	5.030197E-2	4.854583E-2	5.831721E-2	5.984008E-2	5.202898E-2	5.059607E-2	3.847683E-2	5.137264E-2	5.249077E-2	5.365736E-2	4.303693E-2	5.337334E-2	4.502450E-2	4.914468E-2	5.174417E-2	5.007947E-2	5.364507E-2	4.765360E-2	5.274791E-2	3.564933E-2	4.245769E-2	5.919823E-2	4.700773E-2	5.111118E-2	4.879758E-2	4.882656E-2	4.484875E-2	5.804080E-2	5.227325E-2	4.980960E-2	4.800326E-2	4.659684E-2	4.188306E-2	4.661857E-2	4.412173E-2	3.693389E-2	5.440922E-2	5.454236E-2	4.397397E-2	6.762981E-2	4.904268E-2	5.534750E-2	4.899637E-2	3.949214E-2	5.987508E-2	5.159479E-2	7.230176E-2
5.336130E+2	5.555086E-2	7.311776E-2	6.745126E-2	7.158357E-2	5.842781E-2	6.048058E-2	7.119483E-2	6.340632E-2	5.823136E-2	5.997453E-2	4.643333E-2	6.525159E-2	5.056095E-2	6.752644E-2	6.336010E-2	6.413826E-2	5.707636E-2	6.377452E-2	6.877167E-2	7.473371E-2	6.011577E-2	6.495567E-2	5.605274E-2	5.858004E-2	8.642327E-2	5.965037E-2	7.466108E-2	5.671812E-2	6.509403E-2	6.833397E-2	6.578710E-2	5.959468E-2	7.262602E-2	6.641086E-2	4.716782E-2	6.940511E-2	6.738834E-2	5.262626E-2	5.313265E-2	5.773669E-2	5.430356E-2	5.613460E-2	6.184781E-2	6.789376E-2	5.111824E-2	6.081861E-2	7.226642E-2	5.276098E-2	6.354819E-2	6.384812E-2	5.842044E-2	6.347204E-2	6.203716E-2	5.852464E-2	6.403970E-2	5.704482E-2	4.354941E-2	5.642240E-2	6.099470E-2	6.248513E-2	7.478755E-2	7.474515E-2	5.976389E-2	4.562488E-2	5.614901E-2	8.433920E-2	5.206666E-2	7.431291E-2	6.460991E-2	6.961390E-2	6.917427E-2	5.756380E-2	5.659296E-2	6.315765E-2	7.549785E-2	7.836073E-2	5.184257E-2	6.097919E-2	6.204746E-2	5.673358E-2	5.114840E-2	5.045176E-2	6.377972E-2	6.493548E-2	6.307436E-2	8.640549E-2	7.228926E-2	7.075958E-2	6.194207E-2	8.388630E-2	6.272954E-2	6.162067E-2	6.463105E-2	7.040063E-2	5.872710E-2	6.110759E-2	7.958369E-2	6.180201E-2	5.613327E-2	5.742426E-2	5.129270E-2	5.394857E-2	5.683453E-2	5.977602E-2	5.729827E-2	5.541333E-2	6.170783E-2	6.733163E-2	6.079119E-2	7.308874E-2	5.829181E-2	7.222673E-2	7.060344E-2	6.289060E-2	6.087268E-2	5.843069E-2	6.500233E-2	5.061500E-2	6.698741E-2	7.060800E-2	6.064541E-2	6.555607E-2	5.690187E-2	6.976555E-2	6.018507E-2	7.965634E-2	5.912627E-2	8.694462E-2	5.879447E-2	6.164327E-2	6.281466E-2	6.087415E-2	7.736079E-2	6.016826E-2	6.094232E-2	6.890383E-2	4.943962E-2	5.935737E-2	5.634035E-2	5.949504E-2	6.679481E-2	5.725026E-2	7.286728E-2	5.021946E-2	8.590618E-2	7.068716E-2	4.781003E-2	5.435218E-2	6.233655E-2	6.148103E-2	5.739638E-2	6.394236E-2	6.455619E-2	6.670079E-2	6.854816E-2	7.068412E-2	7.440750E-2	6.822601E-2	6.086890E-2	6.224656E-2	6.818916E-2	5.268064E-2	7.169869E-2	7.073541E-2	6.692616E-2	7.456649E-2	8.658198E-2	5.351026E-2	5.843703E-2	6.087967E-2	8.675446E-2
5.337580E+2	7.801290E-2	9.370335E-2	9.163469E-2	8.118507E-2	7.697625E-2	8.036687E-2	8.350885E-2	7.398271E-2	8.815604E-2	8.415873E-2	7.776702E-2	6.729548E-2	8.271429E-2	9.349346E-2	8.474338E-2	7.821873E-2	7.379328E-2	8.309993E-2	8.482211E-2	6.538177E-2	9.007779E-2	8.007520E-2	8.504468E-2	7.979746E-2	9.600277E-2	5.825195E-2	8.538423E-2	7.148528E-2	8.415500E-2	8.240132E-2	8.077451E-2	7.100973E-2	8.782698E-2	8.397469E-2	7.865342E-2	7.665443E-2	8.534720E-2	6.922989E-2	7.996326E-2	7.343432E-2	7.386759E-2	8.597906E-2	8.975034E-2	8.781785E-2	8.496687E-2	9.010742E-2	8.487592E-2	9.430855E-2	8.219221E-2	7.774564E-2	8.022289E-2	8.365812E-2	9.477330E-2	8.567992E-2	9.209463E-2	9.184353E-2	6.931460E-2	8.922917E-2	8.358903E-2	9.125385E-2	9.412437E-2	9.662843E-2	9.000441E-2	8.548164E-2	7.924992E-2	9.027167E-2	7.255192E-2	8.213728E-2	9.579725E-2	9.788897E-2	8.027771E-2	7.374902E-2	8.109415E-2	8.065029E-2	7.937296E-2	9.498612E-2	9.023448E-2	9.380746E-2	9.204750E-2	7.367465E-2	7.674744E-2	7.332813E-2	7.984977E-2	6.658255E-2	9.576858E-2	9.216438E-2	9.493856E-2	8.336480E-2	8.939857E-2	9.193726E-2	9.420085E-2	8.388705E-2	7.796441E-2	8.674513E-2	7.888431E-2	8.338960E-2	6.925602E-2	8.058031E-2	8.626752E-2	8.611229E-2	7.534144E-2	8.252299E-2	7.213779E-2	7.890624E-2	7.579285E-2	7.906649E-2	8.594041E-2	8.797133E-2	8.277184E-2	8.164677E-2	8.555446E-2	8.613537E-2	9.502139E-2	8.174646E-2	9.199960E-2	8.836096E-2	8.218111E-2	7.232975E-2	7.159829E-2	8.376630E-2	6.831918E-2	8.297299E-2	8.970800E-2	7.983421E-2	9.045411E-2	9.038550E-2	8.632410E-2	9.113924E-2	8.586389E-2	7.819421E-2	9.519075E-2	8.143691E-2	7.360288E-2	8.887341E-2	8.592693E-2	7.943091E-2	8.128586E-2	7.747876E-2	1.006736E-1	9.306701E-2	9.023274E-2	7.809538E-2	7.752855E-2	7.206190E-2	8.560128E-2	7.042080E-2	6.250591E-2	7.788581E-2	7.705918E-2	8.435865E-2	7.751832E-2	7.697684E-2	1.003331E-1	7.442228E-2	8.024749E-2	6.119703E-2	7.938655E-2	8.901829E-2	7.433431E-2	7.816236E-2	7.897911E-2	8.722734E-2	8.640799E-2	8.668761E-2	1.125618E-1	9.231590E-2	9.060520E-2	7.566067E-2	7.721355E-2	9.859353E-2	6.087824E-2
5.339290E+2	1.371515E-1	1.524408E-1	1.185099E-1	1.263594E-1	1.288264E-1	1.317951E-1	1.292405E-1	1.356527E-1	1.455411E-1	1.413800E-1	1.203649E-1	1.012843E-1	1.283693E-1	1.317341E-1	1.213888E-1	1.215817E-1	1.264906E-1	1.308534E-1	1.255188E-1	1.271628E-1	1.265129E-1	1.324127E-1	1.156656E-1	1.340113E-1	1.222965E-1	1.335457E-1	1.397935E-1	1.153737E-1	1.153348E-1	1.398546E-1	1.284569E-1	1.322963E-1	1.083908E-1	1.456424E-1	1.339641E-1	1.438020E-1	1.252195E-1	1.351018E-1	1.235186E-1	1.341817E-1	1.184137E-1	1.450175E-1	1.236697E-1	1.256558E-1	1.328247E-1	1.349914E-1	1.244938E-1	1.309650E-1	1.296537E-1	1.108209E-1	1.161744E-1	1.163818E-1	1.288651E-1	1.536581E-1	1.280990E-1	1.297386E-1	1.356196E-1	1.378363E-1	1.425141E-1	1.238763E-1	1.467486E-1	1.167663E-1	1.287251E-1	1.380443E-1	1.245270E-1	1.255302E-1	1.239222E-1	1.204652E-1	1.460883E-1	1.389605E-1	1.314431E-1	1.312266E-1	1.024502E-1	1.201941E-1	1.434262E-1	1.392590E-1	1.229985E-1	1.421132E-1	1.345579E-1	1.331503E-1	1.184200E-1	1.329325E-1	1.280735E-1	1.190582E-1	1.256117E-1	1.336032E-1	1.482889E-1	1.277828E-1	1.261011E-1	1.526550E-1	1.185827E-1	1.361091E-1	1.179237E-1	1.255856E-1	1.151772E-1	1.118650E-1	1.041990E-1	1.402924E-1	1.496275E-1	1.244324E-1	1.187593E-1	1.263285E-1	1.131144E-1	1.251802E-1	1.466010E-1	1.274005E-1	1.204546E-1	1.278105E-1	1.312464E-1	1.326918E-1	1.306397E-1	1.356303E-1	1.106455E-1	1.271752E-1	1.437045E-1	1.285880E-1	1.155528E-1	1.296549E-1	1.162647E-1	1.448469E-1	1.295488E-1	1.271001E-1	1.232977E-1	1.343659E-1	1.391355E-1	1.460196E-1	1.558997E-1	1.232438E-1	1.339868E-1	1.255047E-1	1.069440E-1	1.300882E-1	1.321910E-1	1.254094E-1	1.295126E-1	1.326270E-1	1.215292E-1	1.111471E-1	1.197795E-1	1.067857E-1	1.039049E-1	1.400012E-1	1.307462E-1	1.243102E-1	1.113912E-1	1.328934E-1	1.335075E-1	1.380543E-1	1.172501E-1	1.309035E-1	1.332306E-1	1.243236E-1	1.118565E-1	1.039682E-1	1.243437E-1	1.247584E-1	1.281408E-1	1.061417E-1	1.288326E-1	1.358448E-1	1.200468E-1	1.301697E-1	1.246288E-1	1.318277E-1	1.519497E-1	1.413190E-1	1.331907E-1	1.249506E-1	1.181142E-1	1.649591E-1	1.321080E-1
5.340690E+2	1.876053E-1	2.292113E-1	2.123590E-1	2.041986E-1	2.239174E-1	1.963918E-1	1.817506E-1	2.126160E-1	2.073628E-1	1.880817E-1	1.916149E-1	1.882276E-1	1.876584E-1	2.208088E-1	2.038386E-1	2.091504E-1	1.959186E-1	1.861922E-1	1.980528E-1	2.211925E-1	2.031980E-1	2.062914E-1	1.844000E-1	1.913671E-1	2.020202E-1	2.036023E-1	2.049334E-1	1.849471E-1	2.037037E-1	1.896721E-1	1.883506E-1	2.126399E-1	1.728065E-1	2.075841E-1	2.047393E-1	1.890668E-1	2.089593E-1	2.055277E-1	2.037084E-1	2.036784E-1	2.064703E-1	1.935756E-1	1.807948E-1	1.982467E-1	1.987521E-1	1.921917E-1	1.870534E-1	2.054935E-1	2.217447E-1	2.122651E-1	2.097854E-1	1.966253E-1	2.071970E-1	2.160186E-1	2.089914E-1	1.979125E-1	2.233508E-1	1.907335E-1	1.926731E-1	1.918696E-1	2.076549E-1	2.014663E-1	1.955563E-1	1.904960E-1	1.947230E-1	2.012789E-1	2.079165E-1	2.010455E-1	2.086929E-1	1.941552E-1	2.107420E-1	1.983206E-1	1.935994E-1	2.179256E-1	2.060562E-1	2.132390E-1	2.092810E-1	2.160968E-1	2.086984E-1	1.886968E-1	1.970791E-1	2.064203E-1	2.197807E-1	1.906100E-1	2.021719E-1	2.085285E-1	2.131011E-1	2.269483E-1	2.078475E-1	2.032412E-1	2.027513E-1	2.101522E-1	1.953923E-1	2.013140E-1	2.033925E-1	2.124590E-1	1.751387E-1	2.001630E-1	2.294623E-1	1.791094E-1	2.041675E-1	2.040895E-1	1.832997E-1	2.157140E-1	1.871310E-1	2.087043E-1	1.978189E-1	2.018450E-1	2.149350E-1	2.041900E-1	2.105573E-1	2.018918E-1	1.926794E-1	2.021608E-1	1.900989E-1	2.000648E-1	2.009085E-1	1.942244E-1	1.680717E-1	1.850796E-1	2.075436E-1	2.037161E-1	2.152124E-1	2.257635E-1	2.183957E-1	1.960306E-1	2.060158E-1	2.010832E-1	2.247088E-1	2.158713E-1	2.018477E-1	2.028152E-1	1.980102E-1	2.166998E-1	2.029530E-1	1.983392E-1	2.106075E-1	2.043969E-1	2.050850E-1	1.944760E-1	2.077649E-1	2.186437E-1	1.788499E-1	1.898614E-1	2.171305E-1	2.120171E-1	2.178291E-1	1.920443E-1	1.908846E-1	2.173883E-1	1.856816E-1	1.978031E-1	2.077752E-1	2.164254E-1	2.258298E-1	2.165314E-1	2.031154E-1	2.175725E-1	2.178774E-1	1.934491E-1	2.037999E-1	2.026314E-1	2.082469E-1	2.003040E-1	1.923309E-1	1.930273E-1	1.954725E-1	1.925921E-1	2.428858E-1	2.190801E-1	2.016623E-1
5.342150E+2	3.401312E-1	3.625011E-1	3.477124E-1	3.018300E-1	3.732730E-1	3.586183E-1	3.236437E-1	3.434032E-1	3.393690E-1	3.458118E-1	3.432147E-1	3.499666E-1	3.422865E-1	3.722719E-1	3.685562E-1	3.314296E-1	3.426371E-1	3.632970E-1	3.527018E-1	3.574998E-1	3.852174E-1	3.441122E-1	3.317242E-1	3.809146E-1	3.400315E-1	3.864955E-1	3.640344E-1	3.419890E-1	3.444464E-1	3.591866E-1	3.322816E-1	3.261473E-1	3.430646E-1	3.621077E-1	3.553256E-1	3.677982E-1	3.207763E-1	3.681213E-1	3.614209E-1	3.541832E-1	3.523271E-1	3.570822E-1	3.378891E-1	3.747886E-1	3.606486E-1	3.359819E-1	3.660911E-1	3.769584E-1	3.855281E-1	3.615175E-1	3.530587E-1	3.360297E-1	3.488431E-1	3.485813E-1	3.726064E-1	3.619842E-1	3.490774E-1	3.500664E-1	3.613378E-1	3.362002E-1	3.429795E-1	3.725469E-1	3.564665E-1	3.703660E-1	3.265618E-1	3.571925E-1	3.490580E-1	3.636317E-1	3.867998E-1	3.444924E-1	3.345829E-1	3.576953E-1	3.311072E-1	3.325607E-1	3.360716E-1	3.432556E-1	3.306942E-1	3.410037E-1	3.570754E-1	3.398711E-1	3.497940E-1	3.842628E-1	3.545249E-1	3.291304E-1	3.568987E-1	3.459471E-1	3.378979E-1	3.679485E-1	3.420282E-1	3.326241E-1	3.765632E-1	3.706685E-1	3.414223E-1	3.622335E-1	3.432701E-1	3.403914E-1	3.622881E-1	3.535883E-1	3.612083E-1	3.583288E-1	3.687114E-1	3.266428E-1	3.553441E-1	3.499765E-1	3.263602E-1	3.717741E-1	3.580371E-1	3.384288E-1	3.481147E-1	3.807973E-1	3.600327E-1	3.413871E-1	3.421510E-1	3.483071E-1	3.665488E-1	3.480681E-1	3.511034E-1	3.729569E-1	3.438947E-1	3.406113E-1	3.460089E-1	3.495939E-1	3.536791E-1	3.595102E-1	3.853461E-1	3.577409E-1	3.648511E-1	3.692391E-1	3.404149E-1	3.527652E-1	3.170251E-1	3.529656E-1	3.577810E-1	3.890649E-1	3.422184E-1	3.281132E-1	3.522897E-1	3.473328E-1	3.752390E-1	3.219802E-1	3.796474E-1	3.466532E-1	3.513720E-1	3.499169E-1	3.370247E-1	3.616522E-1	3.349207E-1	3.778224E-1	3.379640E-1	3.500038E-1	3.506394E-1	3.886019E-1	3.669705E-1	3.631938E-1	3.868581E-1	3.537242E-1	3.471370E-1	3.544532E-1	3.648119E-1	3.435458E-1	3.416431E-1	3.577083E-1	3.405390E-1	3.697889E-1	3.626694E-1	3.661862E-1	3.392787E-1	3.689095E-1	3.794022E-1	4.322182E-1	3.286211E-1
5.343600E+2	6.280458E-1	6.043472E-1	6.273775E-1	6.292563E-1	6.012609E-1	6.435208E-1	6.140636E-1	6.444493E-1	6.206751E-1	6.600862E-1	6.330391E-1	6.502211E-1	6.108751E-1	6.014552E-1	6.431986E-1	6.181483E-1	6.047328E-1	6.507949E-1	6.456933E-1	6.530873E-1	6.219834E-1	6.738961E-1	6.219426E-1	6.587239E-1	6.339075E-1	6.215155E-1	6.528899E-1	6.060504E-1	6.095151E-1	6.131880E-1	6.143557E-1	6.465004E-1	5.981315E-1	6.202197E-1	6.230295E-1	6.144334E-1	6.448251E-1	6.498505E-1	6.211899E-1	6.516298E-1	6.174191E-1	6.567380E-1	6.022720E-1	6.015125E-1	6.437533E-1	5.991123E-1	6.335760E-1	6.269141E-1	6.514298E-1	6.497466E-1	6.225973E-1	6.197707E-1	6.546454E-1	6.331990E-1	6.281480E-1	6.223161E-1	6.393014E-1	6.037247E-1	6.228015E-1	5.849606E-1	6.189957E-1	6.379886E-1	6.303905E-1	6.121798E-1	6.341682E-1	6.089630E-1	6.507708E-1	6.128386E-1	6.335204E-1	6.045515E-1	6.385797E-1	6.569316E-1	6.375062E-1	6.410823E-1	6.075697E-1	6.070311E-1	6.176812E-1	6.164010E-1	6.109944E-1	6.114042E-1	6.105080E-1	6.058638E-1	6.590772E-1	6.214348E-1	5.840876E-1	6.404399E-1	6.477797E-1	6.524156E-1	6.437718E-1	6.469397E-1	6.474084E-1	6.251963E-1	6.013861E-1	6.146396E-1	6.371937E-1	6.442433E-1	5.857461E-1	6.546508E-1	6.206875E-1	6.183791E-1	6.361346E-1	6.518388E-1	6.300440E-1	5.848225E-1	5.914905E-1	6.312212E-1	6.325458E-1	6.142739E-1	5.957245E-1	6.066781E-1	6.362843E-1	6.095552E-1	6.064855E-1	6.423263E-1	6.585345E-1	6.439662E-1	6.540804E-1	6.409096E-1	5.985684E-1	6.259259E-1	6.431197E-1	6.383637E-1	6.048240E-1	6.338267E-1	6.194242E-1	6.605112E-1	6.236699E-1	6.414959E-1	6.428962E-1	6.093147E-1	6.324357E-1	6.250990E-1	6.443966E-1	6.532997E-1	6.472748E-1	6.210486E-1	6.361294E-1	6.331541E-1	5.919926E-1	5.994336E-1	6.219835E-1	6.271134E-1	6.096348E-1	6.363688E-1	5.971519E-1	6.627182E-1	6.019232E-1	6.484142E-1	6.212033E-1	5.897839E-1	6.048334E-1	6.155164E-1	6.363830E-1	5.870403E-1	6.393132E-1	6.396207E-1	6.174914E-1	6.416668E-1	6.070738E-1	6.411887E-1	6.398430E-1	6.269849E-1	6.491021E-1	6.270571E-1	6.378217E-1	6.524050E-1	6.415807E-1	6.398037E-1	6.318656E-1	6.463045E-1	6.053566E-1
5.345050E+2	1.012722E+0	9.605496E-1	9.658434E-1	9.804203E-1	9.874209E-1	9.321052E-1	9.572248E-1	1.039098E+0	9.769833E-1	1.013818E+0	9.460392E-1	9.838744E-1	9.746639E-1	9.689107E-1	9.842350E-1	9.867155E-1	1.019213E+0	1.030995E+0	9.727006E-1	1.002590E+0	9.661323E-1	1.019452E+0	9.618021E-1	9.819696E-1	1.028065E+0	9.875370E-1	9.626339E-1	9.387801E-1	1.000329E+0	9.681231E-1	1.032868E+0	9.574345E-1	9.687374E-1	1.012798E+0	9.855927E-1	9.700778E-1	1.014991E+0	9.912415E-1	9.960997E-1	1.034229E+0	9.724375E-1	9.406927E-1	1.003275E+0	1.022521E+0	9.869914E-1	9.756605E-1	9.954105E-1	9.197170E-1	9.796856E-1	1.050088E+0	9.417079E-1	9.663435E-1	9.711407E-1	1.015869E+0	9.566822E-1	9.758761E-1	1.007757E+0	1.004776E+0	1.035194E+0	1.011331E+0	9.937155E-1	9.850710E-1	9.485376E-1	9.770021E-1	9.619483E-1	9.872003E-1	1.024456E+0	9.837493E-1	9.938621E-1	1.007485E+0	9.910805E-1	1.007439E+0	9.955592E-1	1.002113E+0	9.813788E-1	1.004626E+0	9.471949E-1	9.858878E-1	1.003711E+0	1.031833E+0	9.615580E-1	1.008744E+0	9.758238E-1	9.868860E-1	9.656030E-1	9.902600E-1	9.689823E-1	1.025807E+0	9.735391E-1	9.800185E-1	1.005901E+0	9.631125E-1	9.970769E-1	9.673214E-1	9.711067E-1	1.000203E+0	9.846535E-1	1.029123E+0	9.802290E-1	9.790747E-1	9.756452E-1	9.611249E-1	9.467949E-1	1.008583E+0	9.606536E-1	9.977599E-1	9.442323E-1	9.660493E-1	9.520347E-1	9.503389E-1	9.772153E-1	9.384501E-1	9.556172E-1	9.410826E-1	9.895031E-1	9.904896E-1	1.004806E+0	1.011284E+0	9.413867E-1	9.762270E-1	1.013767E+0	9.327636E-1	9.775489E-1	9.484622E-1	9.786341E-1	9.909822E-1	9.807003E-1	9.837781E-1	9.781914E-1	1.015069E+0	9.586054E-1	9.204041E-1	1.032812E+0	9.480176E-1	9.823019E-1	9.818853E-1	9.641400E-1	1.007036E+0	9.984564E-1	9.529589E-1	9.905266E-1	9.674954E-1	9.688771E-1	1.002690E+0	9.935922E-1	1.003939E+0	9.586409E-1	1.030882E+0	9.488658E-1	9.582669E-1	9.530457E-1	9.831764E-1	9.895917E-1	1.019020E+0	1.027053E+0	9.641779E-1	9.811509E-1	9.474274E-1	9.636838E-1	1.011569E+0	9.741325E-1	1.001473E+0	9.767827E-1	9.547460E-1	1.039576E+0	9.975115E-1	9.581236E-1	9.658467E-1	9.386035E-1	9.714379E-1	1.006351E+0
5.346620E+2	1.412841E+0	1.365911E+0	1.343330E+0	1.346549E+0	1.438531E+0	1.392777E+0	1.416387E+0	1.426539E+0	1.349203E+0	1.410814E+0	1.365471E+0	1.448704E+0	1.389699E+0	1.359730E+0	1.422535E+0	1.385488E+0	1.454503E+0	1.381776E+0	1.365903E+0	1.422327E+0	1.414243E+0	1.375639E+0	1.410359E+0	1.399075E+0	1.444933E+0	1.375264E+0	1.374241E+0	1.394012E+0	1.430995E+0	1.391852E+0	1.346253E+0	1.378350E+0	1.364291E+0	1.361588E+0	1.428116E+0	1.412874E+0	1.385427E+0	1.420152E+0	1.368266E+0	1.418332E+0	1.376339E+0	1.413096E+0	1.386138E+0	1.363082E+0	1.408973E+0	1.378411E+0	1.411688E+0	1.439367E+0	1.381637E+0	1.396152E+0	1.400910E+0	1.360878E+0	1.356897E+0	1.426327E+0	1.375271E+0	1.398724E+0	1.396514E+0	1.416405E+0	1.445236E+0	1.405424E+0	1.371390E+0	1.413237E+0	1.364000E+0	1.414207E+0	1.401463E+0	1.407315E+0	1.429979E+0	1.383145E+0	1.416730E+0	1.373681E+0	1.351442E+0	1.402250E+0	1.331510E+0	1.455775E+0	1.418032E+0	1.383803E+0	1.375069E+0	1.333605E+0	1.362214E+0	1.404253E+0	1.399480E+0	1.335761E+0	1.413104E+0	1.369440E+0	1.372763E+0	1.373452E+0	1.352798E+0	1.386145E+0	1.337611E+0	1.342359E+0	1.383278E+0	1.378260E+0	1.416237E+0	1.406333E+0	1.373774E+0	1.356567E+0	1.364263E+0	1.443212E+0	1.257489E+0	1.366712E+0	1.352967E+0	1.418655E+0	1.328611E+0	1.334870E+0	1.364895E+0	1.351647E+0	1.380210E+0	1.316605E+0	1.371709E+0	1.415009E+0	1.393665E+0	1.398134E+0	1.335341E+0	1.412269E+0	1.373785E+0	1.381469E+0	1.392467E+0	1.375956E+0	1.332026E+0	1.329893E+0	1.437716E+0	1.383074E+0	1.306355E+0	1.356265E+0	1.399952E+0	1.356141E+0	1.298944E+0	1.377489E+0	1.387626E+0	1.367594E+0	1.357945E+0	1.357261E+0	1.363900E+0	1.405630E+0	1.343670E+0	1.381516E+0	1.345511E+0	1.364751E+0	1.378560E+0	1.330446E+0	1.406268E+0	1.374460E+0	1.338217E+0	1.341207E+0	1.368655E+0	1.412170E+0	1.344808E+0	1.396090E+0	1.381579E+0	1.367855E+0	1.300209E+0	1.408017E+0	1.433191E+0	1.387566E+0	1.387445E+0	1.362527E+0	1.308570E+0	1.389686E+0	1.335027E+0	1.434776E+0	1.358458E+0	1.368896E+0	1.377777E+0	1.368797E+0	1.415038E+0	1.388567E+0	1.375344E+0	1.326801E+0	1.282778E+0	1.439565E+0	1.426123E+0
5.348020E+2	1.776968E+0	1.703738E+0	1.781359E+0	1.697459E+0	1.725015E+0	1.743241E+0	1.765883E+0	1.789246E+0	1.739729E+0	1.706110E+0	1.754006E+0	1.822111E+0	1.699909E+0	1.740734E+0	1.756629E+0	1.806828E+0	1.823777E+0	1.810577E+0	1.735539E+0	1.778878E+0	1.756059E+0	1.774765E+0	1.733196E+0	1.800973E+0	1.790371E+0	1.784148E+0	1.765284E+0	1.791057E+0	1.732789E+0	1.723392E+0	1.751573E+0	1.757412E+0	1.752439E+0	1.736909E+0	1.735997E+0	1.717216E+0	1.752970E+0	1.827918E+0	1.725707E+0	1.790481E+0	1.727894E+0	1.731418E+0	1.765340E+0	1.740294E+0	1.785519E+0	1.737815E+0	1.684699E+0	1.737572E+0	1.727216E+0	1.749382E+0	1.764807E+0	1.702593E+0	1.771155E+0	1.774618E+0	1.776665E+0	1.744154E+0	1.796137E+0	1.719978E+0	1.688455E+0	1.722323E+0	1.747526E+0	1.728121E+0	1.750679E+0	1.716420E+0	1.752450E+0	1.812279E+0	1.795867E+0	1.703820E+0	1.761781E+0	1.731911E+0	1.744318E+0	1.726004E+0	1.797523E+0	1.815331E+0	1.722612E+0	1.728230E+0	1.660974E+0	1.726140E+0	1.737258E+0	1.716266E+0	1.721225E+0	1.758085E+0	1.787671E+0	1.753999E+0	1.710315E+0	1.730901E+0	1.675034E+0	1.703024E+0	1.689790E+0	1.724637E+0	1.721658E+0	1.690098E+0	1.741265E+0	1.760507E+0	1.698823E+0	1.735438E+0	1.696350E+0	1.806932E+0	1.688277E+0	1.651872E+0	1.692820E+0	1.700210E+0	1.739509E+0	1.733633E+0	1.734942E+0	1.729736E+0	1.739976E+0	1.691358E+0	1.719696E+0	1.745825E+0	1.750571E+0	1.691003E+0	1.687640E+0	1.695795E+0	1.697235E+0	1.686877E+0	1.755532E+0	1.690030E+0	1.702304E+0	1.710521E+0	1.771643E+0	1.749222E+0	1.680952E+0	1.770056E+0	1.688361E+0	1.711366E+0	1.717116E+0	1.700171E+0	1.691844E+0	1.708791E+0	1.713926E+0	1.764313E+0	1.663837E+0	1.763956E+0	1.700978E+0	1.691338E+0	1.685985E+0	1.750236E+0	1.734287E+0	1.620812E+0	1.765956E+0	1.651308E+0	1.722563E+0	1.701712E+0	1.726105E+0	1.736297E+0	1.654738E+0	1.782262E+0	1.717475E+0	1.714368E+0	1.621343E+0	1.680803E+0	1.710012E+0	1.712275E+0	1.725257E+0	1.775590E+0	1.709305E+0	1.725516E+0	1.738835E+0	1.730855E+0	1.711308E+0	1.698988E+0	1.690005E+0	1.669819E+0	1.746503E+0	1.754480E+0	1.657128E+0	1.666055E+0	1.768217E+0	1.769722E+0	1.729006E+0
5.349630E+2	2.062590E+0	2.024728E+0	2.057586E+0	1.987789E+0	2.078687E+0	1.971307E+0	2.035531E+0	2.041501E+0	2.054313E+0	1.982744E+0	2.045931E+0	2.127872E+0	1.989319E+0	2.000484E+0	2.010753E+0	2.021669E+0	2.058667E+0	2.004356E+0	2.029645E+0	2.068019E+0	1.990466E+0	2.040442E+0	2.047695E+0	2.088431E+0	2.074151E+0	2.061280E+0	2.071348E+0	2.021259E+0	2.027378E+0	2.017619E+0	2.023847E+0	2.034769E+0	2.013378E+0	2.052750E+0	2.046586E+0	2.078685E+0	1.996460E+0	2.002958E+0	2.057976E+0	1.970679E+0	2.055586E+0	1.992174E+0	2.030281E+0	1.969233E+0	1.976962E+0	1.993135E+0	2.014308E+0	2.066602E+0	2.093107E+0	2.025782E+0	2.048035E+0	2.004369E+0	2.034334E+0	2.028468E+0	2.007262E+0	2.041990E+0	2.026254E+0	2.063219E+0	1.980372E+0	1.989742E+0	1.979498E+0	2.003263E+0	1.968077E+0	2.037109E+0	2.028809E+0	2.000525E+0	2.073055E+0	2.047081E+0	2.045188E+0	2.018326E+0	2.028152E+0	1.972269E+0	1.993809E+0	2.032768E+0	2.011092E+0	2.087449E+0	1.937440E+0	2.048420E+0	2.054125E+0	2.031791E+0	2.011945E+0	1.997553E+0	2.010232E+0	1.982203E+0	1.977945E+0	2.009434E+0	2.022024E+0	2.072662E+0	2.009407E+0	2.033101E+0	2.046433E+0	1.945344E+0	1.948768E+0	2.007931E+0	1.960237E+0	1.970252E+0	2.010180E+0	2.050091E+0	1.891753E+0	1.979246E+0	2.051085E+0	2.026000E+0	2.019914E+0	1.951150E+0	1.964758E+0	1.971345E+0	1.963258E+0	1.945692E+0	1.968988E+0	2.008363E+0	1.987552E+0	1.986084E+0	1.959544E+0	2.029945E+0	1.967072E+0	2.014708E+0	1.995962E+0	2.028619E+0	1.994802E+0	2.009328E+0	2.001269E+0	1.982027E+0	1.948691E+0	1.968352E+0	1.996520E+0	2.055291E+0	1.944180E+0	1.999004E+0	1.986873E+0	2.086027E+0	1.986487E+0	1.962887E+0	1.914200E+0	1.969167E+0	1.936193E+0	1.907655E+0	1.965058E+0	1.974267E+0	1.971443E+0	1.913530E+0	2.016739E+0	1.971847E+0	1.992123E+0	1.941613E+0	1.982083E+0	2.021363E+0	1.921416E+0	1.944931E+0	1.914549E+0	2.038602E+0	1.860027E+0	1.992586E+0	1.872389E+0	1.966681E+0	1.959383E+0	1.978721E+0	1.963366E+0	2.006206E+0	1.965666E+0	1.910434E+0	1.907587E+0	1.910050E+0	1.992658E+0	1.875360E+0	1.984105E+0	2.032561E+0	1.957536E+0	1.865716E+0	1.947524E+0	1.988434E+0	1.950970E+0
5.351350E+2	2.199338E+0	2.146194E+0	2.182178E+0	2.053092E+0	2.143624E+0	2.110227E+0	2.106005E+0	2.137417E+0	2.117662E+0	2.161389E+0	2.048879E+0	2.151780E+0	2.131690E+0	2.115906E+0	2.135851E+0	2.180328E+0	2.142045E+0	2.170804E+0	2.089589E+0	2.154897E+0	2.094822E+0	2.154732E+0	2.158684E+0	2.142047E+0	2.151302E+0	2.123469E+0	2.162387E+0	2.088016E+0	2.069454E+0	2.099162E+0	2.097425E+0	2.084791E+0	2.012043E+0	2.108363E+0	2.198195E+0	2.137935E+0	2.093371E+0	2.098463E+0	2.073880E+0	2.100353E+0	2.111112E+0	2.101145E+0	2.087720E+0	2.124431E+0	2.159655E+0	2.110240E+0	2.121284E+0	2.094378E+0	2.134258E+0	2.164039E+0	2.173429E+0	1.961198E+0	2.124476E+0	2.087949E+0	2.113327E+0	2.095728E+0	2.108776E+0	2.146259E+0	2.074115E+0	2.081197E+0	2.097386E+0	2.085417E+0	2.085357E+0	2.127964E+0	2.131553E+0	2.169368E+0	2.121084E+0	2.135964E+0	2.126683E+0	2.109248E+0	2.145513E+0	2.002431E+0	2.131401E+0	2.167389E+0	2.121290E+0	2.032819E+0	1.996987E+0	2.028823E+0	2.049347E+0	2.064834E+0	2.070751E+0	2.006079E+0	2.092075E+0	2.081030E+0	2.047064E+0	2.045084E+0	1.993086E+0	2.046116E+0	2.051966E+0	2.031650E+0	2.138107E+0	2.091408E+0	2.080585E+0	2.140619E+0	2.090049E+0	2.086738E+0	2.053698E+0	2.001078E+0	2.011952E+0	2.087755E+0	2.082091E+0	2.054679E+0	2.075027E+0	2.116751E+0	2.091431E+0	2.064044E+0	2.038407E+0	2.034475E+0	2.024523E+0	2.049337E+0	2.081674E+0	2.088049E+0	2.073595E+0	2.102694E+0	2.031589E+0	2.053119E+0	1.983938E+0	2.048050E+0	2.048991E+0	2.055177E+0	2.138307E+0	2.031015E+0	2.050695E+0	2.135556E+0	2.052182E+0	2.085179E+0	2.053717E+0	2.072303E+0	2.015941E+0	2.066233E+0	1.985193E+0	2.023211E+0	2.075470E+0	2.078918E+0	2.004464E+0	2.075741E+0	1.991964E+0	2.048332E+0	2.106393E+0	1.989286E+0	2.075582E+0	2.083120E+0	2.062503E+0	1.995149E+0	2.042348E+0	2.119333E+0	1.930502E+0	2.038592E+0	2.018245E+0	2.116317E+0	1.977412E+0	2.075095E+0	2.004448E+0	2.072353E+0	2.097853E+0	2.059935E+0	1.987873E+0	2.055363E+0	2.029815E+0	2.051698E+0	2.031896E+0	2.018597E+0	2.020261E+0	2.018605E+0	2.104899E+0	2.074428E+0	2.034287E+0	1.940258E+0	2.069503E+0	2.147486E+0	2.057981E+0
5.352600E+2	2.072598E+0	2.054496E+0	2.045585E+0	1.989273E+0	2.007931E+0	2.064535E+0	2.037567E+0	2.032195E+0	2.097479E+0	2.066000E+0	1.989482E+0	2.073604E+0	1.978147E+0	1.991484E+0	2.040383E+0	2.068984E+0	2.077662E+0	2.017252E+0	2.015837E+0	2.062551E+0	2.022284E+0	2.018492E+0	2.072622E+0	2.125575E+0	2.129935E+0	2.050247E+0	2.037557E+0	2.029887E+0	1.984179E+0	1.996437E+0	2.013358E+0	1.995962E+0	2.013017E+0	2.058187E+0	2.075015E+0	2.048531E+0	2.068339E+0	2.031236E+0	2.024712E+0	2.032789E+0	1.981797E+0	1.980806E+0	2.003584E+0	1.962800E+0	2.032631E+0	1.991390E+0	2.028546E+0	2.036436E+0	2.016386E+0	2.042779E+0	2.046064E+0	1.934175E+0	2.019061E+0	2.078494E+0	2.084490E+0	2.039241E+0	2.114211E+0	2.137183E+0	2.057537E+0	2.010158E+0	2.016267E+0	1.994690E+0	1.928083E+0	2.043773E+0	2.044360E+0	2.020959E+0	2.009947E+0	2.017590E+0	2.050063E+0	1.965957E+0	2.066658E+0	1.989650E+0	2.022277E+0	2.022440E+0	1.986460E+0	2.100680E+0	2.017107E+0	2.015011E+0	1.942732E+0	1.987684E+0	1.983442E+0	1.904981E+0	2.043856E+0	2.044559E+0	1.945256E+0	1.969859E+0	2.018992E+0	1.981686E+0	1.969942E+0	1.871757E+0	2.070816E+0	2.035230E+0	1.977172E+0	1.985737E+0	1.984076E+0	1.942243E+0	1.988986E+0	1.951978E+0	1.945426E+0	1.940808E+0	1.983904E+0	2.002783E+0	1.991657E+0	2.016895E+0	1.948010E+0	1.919581E+0	1.929648E+0	1.959753E+0	2.023915E+0	2.059379E+0	2.043370E+0	2.042711E+0	2.017440E+0	1.988505E+0	1.984668E+0	2.009567E+0	1.961919E+0	1.956712E+0	2.004077E+0	1.926431E+0	1.982707E+0	1.957684E+0	1.932425E+0	2.021142E+0	2.031646E+0	1.972710E+0	1.924775E+0	1.959050E+0	1.940342E+0	1.971511E+0	1.933694E+0	1.967297E+0	1.996757E+0	1.991858E+0	1.949111E+0	1.922145E+0	1.977560E+0	1.982330E+0	1.970332E+0	1.874206E+0	1.991597E+0	1.922429E+0	1.939022E+0	1.942541E+0	1.891602E+0	2.015824E+0	1.910298E+0	1.998014E+0	1.964008E+0	2.015501E+0	1.921588E+0	1.930681E+0	1.911042E+0	1.967059E+0	2.007664E+0	2.023270E+0	1.933049E+0	1.974985E+0	2.005928E+0	1.970810E+0	1.997937E+0	1.939848E+0	1.963746E+0	1.915851E+0	1.996311E+0	2.006131E+0	1.879514E+0	1.963048E+0	1.955492E+0	1.913351E+0	1.960226E+0
5.354060E+2	1.820993E+0	1.775565E+0	1.946293E+0	1.817549E+0	1.811986E+0	1.800422E+0	1.783730E+0	1.827248E+0	1.829405E+0	1.817993E+0	1.800861E+0	1.841884E+0	1.790051E+0	1.777443E+0	1.858257E+0	1.865911E+0	1.860928E+0	1.805832E+0	1.767888E+0	1.862626E+0	1.792570E+0	1.813953E+0	1.878340E+0	1.841510E+0	1.843329E+0	1.833318E+0	1.806906E+0	1.838291E+0	1.749464E+0	1.780656E+0	1.799707E+0	1.744595E+0	1.798743E+0	1.765897E+0	1.773843E+0	1.764247E+0	1.768374E+0	1.772697E+0	1.759275E+0	1.801032E+0	1.747318E+0	1.767221E+0	1.911012E+0	1.813958E+0	1.841635E+0	1.778540E+0	1.796257E+0	1.773854E+0	1.839367E+0	1.726011E+0	1.853179E+0	1.729094E+0	1.868847E+0	1.843162E+0	1.795678E+0	1.759242E+0	1.783855E+0	1.866095E+0	1.794154E+0	1.806365E+0	1.819478E+0	1.796680E+0	1.775783E+0	1.771495E+0	1.828234E+0	1.843457E+0	1.799917E+0	1.775150E+0	1.775156E+0	1.798412E+0	1.776173E+0	1.751108E+0	1.776637E+0	1.808727E+0	1.802567E+0	1.811080E+0	1.775034E+0	1.774258E+0	1.807124E+0	1.793114E+0	1.718549E+0	1.848574E+0	1.797663E+0	1.822804E+0	1.788167E+0	1.805699E+0	1.741172E+0	1.767760E+0	1.824328E+0	1.789970E+0	1.812435E+0	1.777533E+0	1.736896E+0	1.772666E+0	1.806113E+0	1.749178E+0	1.790717E+0	1.752204E+0	1.725667E+0	1.790840E+0	1.819864E+0	1.750653E+0	1.793794E+0	1.794577E+0	1.727858E+0	1.705700E+0	1.813027E+0	1.731047E+0	1.795396E+0	1.761805E+0	1.722042E+0	1.747846E+0	1.762602E+0	1.816801E+0	1.732774E+0	1.823961E+0	1.761998E+0	1.759234E+0	1.746549E+0	1.758591E+0	1.791018E+0	1.764372E+0	1.806381E+0	1.826919E+0	1.817501E+0	1.761385E+0	1.814387E+0	1.756865E+0	1.775924E+0	1.772256E+0	1.774315E+0	1.760664E+0	1.748670E+0	1.744069E+0	1.783795E+0	1.752243E+0	1.749564E+0	1.718496E+0	1.756875E+0	1.705187E+0	1.767301E+0	1.764855E+0	1.777541E+0	1.772838E+0	1.717915E+0	1.781214E+0	1.727319E+0	1.804669E+0	1.774856E+0	1.776051E+0	1.669879E+0	1.816822E+0	1.760384E+0	1.744191E+0	1.812049E+0	1.751877E+0	1.706001E+0	1.756844E+0	1.822524E+0	1.797509E+0	1.762522E+0	1.759083E+0	1.790936E+0	1.721289E+0	1.804008E+0	1.772847E+0	1.770365E+0	1.768084E+0	1.755865E+0	1.697409E+0	1.879810E+0
5.355630E+2	1.491270E+0	1.450479E+0	1.516709E+0	1.464803E+0	1.476374E+0	1.446873E+0	1.485640E+0	1.489047E+0	1.469528E+0	1.516722E+0	1.471484E+0	1.543884E+0	1.440690E+0	1.442094E+0	1.468287E+0	1.553717E+0	1.525338E+0	1.456645E+0	1.494647E+0	1.460984E+0	1.491792E+0	1.469676E+0	1.581359E+0	1.516746E+0	1.551172E+0	1.495368E+0	1.541455E+0	1.438671E+0	1.488630E+0	1.508737E+0	1.468340E+0	1.482576E+0	1.438503E+0	1.509146E+0	1.537332E+0	1.529188E+0	1.452516E+0	1.465721E+0	1.471726E+0	1.446413E+0	1.521254E+0	1.443631E+0	1.486444E+0	1.490542E+0	1.427556E+0	1.436445E+0	1.450354E+0	1.470204E+0	1.497323E+0	1.458126E+0	1.454925E+0	1.400345E+0	1.536056E+0	1.508316E+0	1.459677E+0	1.474619E+0	1.521392E+0	1.524274E+0	1.467036E+0	1.450848E+0	1.466197E+0	1.518273E+0	1.458283E+0	1.509421E+0	1.517200E+0	1.497362E+0	1.525258E+0	1.458836E+0	1.480582E+0	1.473478E+0	1.469781E+0	1.437164E+0	1.485053E+0	1.477123E+0	1.486156E+0	1.483395E+0	1.449555E+0	1.468798E+0	1.532289E+0	1.488704E+0	1.467300E+0	1.466871E+0	1.508732E+0	1.501146E+0	1.459527E+0	1.452817E+0	1.518896E+0	1.495862E+0	1.466247E+0	1.447833E+0	1.518642E+0	1.517283E+0	1.534134E+0	1.458393E+0	1.422634E+0	1.474898E+0	1.504919E+0	1.481083E+0	1.482525E+0	1.447097E+0	1.430860E+0	1.452297E+0	1.436434E+0	1.433132E+0	1.456444E+0	1.448813E+0	1.484038E+0	1.405726E+0	1.525625E+0	1.455537E+0	1.458071E+0	1.498054E+0	1.390392E+0	1.453253E+0	1.474779E+0	1.485206E+0	1.432848E+0	1.464576E+0	1.463851E+0	1.461861E+0	1.528659E+0	1.409309E+0	1.476921E+0	1.541538E+0	1.518527E+0	1.470198E+0	1.495447E+0	1.461021E+0	1.432664E+0	1.439217E+0	1.531067E+0	1.439665E+0	1.463300E+0	1.521444E+0	1.420734E+0	1.457769E+0	1.452940E+0	1.454425E+0	1.493714E+0	1.454737E+0	1.459016E+0	1.481892E+0	1.415271E+0	1.455211E+0	1.468552E+0	1.507604E+0	1.445283E+0	1.478490E+0	1.469974E+0	1.470574E+0	1.434340E+0	1.495677E+0	1.417718E+0	1.506780E+0	1.416845E+0	1.487840E+0	1.439197E+0	1.466626E+0	1.489575E+0	1.462171E+0	1.372043E+0	1.471485E+0	1.425159E+0	1.382387E+0	1.535980E+0	1.455644E+0	1.536580E+0	1.417401E+0	1.385035E+0	1.437878E+0	1.460962E+0
5.357190E+2	1.334492E+0	1.270085E+0	1.336866E+0	1.259356E+0	1.299458E+0	1.270071E+0	1.375407E+0	1.288689E+0	1.239213E+0	1.270043E+0	1.217075E+0	1.316837E+0	1.223981E+0	1.271990E+0	1.268911E+0	1.253497E+0	1.333514E+0	1.242771E+0	1.301371E+0	1.341602E+0	1.277299E+0	1.242307E+0	1.261934E+0	1.282343E+0	1.343784E+0	1.297069E+0	1.252173E+0	1.243305E+0	1.301922E+0	1.314340E+0	1.251542E+0	1.274645E+0	1.218759E+0	1.255735E+0	1.290685E+0	1.275466E+0	1.290386E+0	1.255127E+0	1.282498E+0	1.243062E+0	1.261389E+0	1.248757E+0	1.254469E+0	1.306565E+0	1.286803E+0	1.333752E+0	1.312220E+0	1.254195E+0	1.333867E+0	1.266573E+0	1.282743E+0	1.250334E+0	1.327837E+0	1.232297E+0	1.291582E+0	1.295854E+0	1.286749E+0	1.258654E+0	1.243457E+0	1.238441E+0	1.266532E+0	1.243775E+0	1.307820E+0	1.254622E+0	1.284595E+0	1.267289E+0	1.292948E+0	1.296338E+0	1.293275E+0	1.279667E+0	1.260975E+0	1.272548E+0	1.267358E+0	1.357270E+0	1.281313E+0	1.294199E+0	1.241395E+0	1.303081E+0	1.310381E+0	1.243311E+0	1.260851E+0	1.215536E+0	1.318931E+0	1.322314E+0	1.265132E+0	1.256691E+0	1.251702E+0	1.290166E+0	1.291128E+0	1.268439E+0	1.307060E+0	1.260714E+0	1.238850E+0	1.247030E+0	1.251399E+0	1.265545E+0	1.236361E+0	1.248740E+0	1.225464E+0	1.296970E+0	1.274572E+0	1.234856E+0	1.282004E+0	1.271816E+0	1.276221E+0	1.298062E+0	1.245723E+0	1.212359E+0	1.213047E+0	1.277235E+0	1.311849E+0	1.232869E+0	1.282423E+0	1.254183E+0	1.284325E+0	1.267566E+0	1.275827E+0	1.214633E+0	1.266452E+0	1.201492E+0	1.302898E+0	1.268382E+0	1.263470E+0	1.269263E+0	1.303497E+0	1.231023E+0	1.266209E+0	1.231741E+0	1.248877E+0	1.254602E+0	1.262852E+0	1.279887E+0	1.314738E+0	1.230183E+0	1.238123E+0	1.270452E+0	1.296974E+0	1.287323E+0	1.261274E+0	1.236764E+0	1.312162E+0	1.261602E+0	1.281122E+0	1.207543E+0	1.248897E+0	1.283802E+0	1.237936E+0	1.323914E+0	1.242182E+0	1.240055E+0	1.251910E+0	1.239197E+0	1.288735E+0	1.293762E+0	1.315418E+0	1.331917E+0	1.187783E+0	1.330318E+0	1.259419E+0	1.274280E+0	1.272525E+0	1.301169E+0	1.280866E+0	1.268786E+0	1.251466E+0	1.266768E+0	1.281677E+0	1.243006E+0	1.215622E+0	1.297435E+0	1.182740E+0
5.358600E+2	1.075693E+0	1.095920E+0	1.076631E+0	1.088300E+0	1.109779E+0	1.049360E+0	1.103240E+0	1.103527E+0	1.096897E+0	1.058300E+0	1.080672E+0	1.101455E+0	1.037662E+0	1.026101E+0	1.077810E+0	1.145088E+0	1.055818E+0	1.086963E+0	1.075386E+0	1.046395E+0	1.094603E+0	1.102832E+0	1.118683E+0	1.110710E+0	1.072932E+0	1.035663E+0	1.113163E+0	1.036824E+0	1.091502E+0	1.039232E+0	1.102504E+0	1.067978E+0	1.091780E+0	1.070111E+0	1.101307E+0	1.086462E+0	1.129481E+0	1.105476E+0	1.097636E+0	1.087981E+0	1.061750E+0	1.131261E+0	1.076717E+0	1.113821E+0	1.080818E+0	1.088280E+0	1.047075E+0	1.087016E+0	1.063232E+0	1.070320E+0	1.078232E+0	1.092784E+0	1.138432E+0	1.052814E+0	1.075435E+0	1.118846E+0	1.122913E+0	1.125224E+0	1.100682E+0	1.136768E+0	1.030524E+0	1.088124E+0	1.069369E+0	1.078704E+0	1.095816E+0	1.086972E+0	1.117396E+0	1.079912E+0	1.100880E+0	1.075064E+0	1.092663E+0	1.016114E+0	1.079809E+0	1.137382E+0	1.092312E+0	1.166106E+0	1.038652E+0	1.119845E+0	1.101882E+0	1.083812E+0	1.131534E+0	1.103364E+0	1.108430E+0	1.067370E+0	1.057676E+0	1.046942E+0	1.071135E+0	1.075985E+0	1.113995E+0	1.089227E+0	1.120361E+0	1.089524E+0	1.117221E+0	1.090794E+0	1.098411E+0	1.100681E+0	1.043937E+0	1.057448E+0	1.026958E+0	1.083881E+0	1.080098E+0	1.066562E+0	1.107196E+0	1.072200E+0	1.100073E+0	1.061491E+0	1.070473E+0	1.121821E+0	1.100527E+0	1.120032E+0	1.074649E+0	1.091134E+0	1.067029E+0	1.096622E+0	1.060218E+0	1.086144E+0	1.106880E+0	1.046654E+0	1.036371E+0	1.076191E+0	1.078764E+0	1.102462E+0	1.104995E+0	1.128692E+0	1.128495E+0	1.056187E+0	1.046431E+0	1.106376E+0	1.107578E+0	1.105046E+0	1.108794E+0	1.083931E+0	1.060876E+0	1.152628E+0	1.064815E+0	1.106116E+0	1.060526E+0	1.095407E+0	1.113823E+0	1.110898E+0	1.124060E+0	1.068244E+0	1.097543E+0	1.038615E+0	1.086119E+0	1.066708E+0	1.089968E+0	1.061855E+0	1.062660E+0	1.099438E+0	1.066390E+0	1.057101E+0	1.076057E+0	1.076276E+0	1.097740E+0	1.066901E+0	1.080335E+0	1.080818E+0	1.056976E+0	1.131984E+0	1.092193E+0	1.068531E+0	1.053522E+0	1.084715E+0	1.063278E+0	1.139181E+0	1.092843E+0	1.058863E+0	1.114240E+0	1.083407E+0	1.033592E+0
5.360070E+2	9.706462E-1	9.387325E-1	9.534038E-1	9.086190E-1	9.773258E-1	9.308068E-1	9.246334E-1	9.542809E-1	9.259311E-1	9.261636E-1	9.308157E-1	9.517122E-1	9.146327E-1	9.255632E-1	9.482657E-1	9.736971E-1	9.322924E-1	9.498071E-1	9.767729E-1	9.606456E-1	9.271996E-1	9.170264E-1	9.426137E-1	9.595378E-1	9.561879E-1	9.205640E-1	9.211244E-1	9.294410E-1	8.978647E-1	9.118391E-1	9.568843E-1	9.424695E-1	9.225662E-1	9.465538E-1	9.358478E-1	9.167198E-1	9.342807E-1	9.380169E-1	9.357458E-1	9.228781E-1	9.657278E-1	9.567422E-1	9.228190E-1	9.368483E-1	9.198800E-1	9.336050E-1	9.431083E-1	9.282732E-1	9.503058E-1	9.287003E-1	9.360770E-1	8.875108E-1	9.379822E-1	9.038034E-1	9.049217E-1	9.304885E-1	9.253725E-1	9.324699E-1	9.329682E-1	9.524537E-1	9.435987E-1	9.299106E-1	9.031035E-1	9.406689E-1	9.595182E-1	9.480910E-1	9.934931E-1	9.204375E-1	9.132658E-1	9.654621E-1	9.877062E-1	9.045726E-1	9.458372E-1	9.259196E-1	9.279547E-1	9.934918E-1	9.299189E-1	9.296366E-1	9.390878E-1	9.473090E-1	9.692529E-1	8.943209E-1	9.483249E-1	9.537839E-1	9.148573E-1	8.898621E-1	9.683776E-1	9.312655E-1	9.305727E-1	9.275964E-1	8.985028E-1	9.279861E-1	9.361064E-1	9.305964E-1	9.196403E-1	9.515165E-1	9.991799E-1	9.186551E-1	9.056593E-1	9.764909E-1	9.194322E-1	9.511724E-1	8.985984E-1	9.655288E-1	9.639940E-1	9.201591E-1	9.618019E-1	9.642435E-1	9.124003E-1	9.653495E-1	9.454873E-1	9.187853E-1	9.298972E-1	9.216512E-1	9.565748E-1	9.406480E-1	9.618676E-1	9.071783E-1	9.452193E-1	9.209711E-1	9.320816E-1	9.037245E-1	9.397059E-1	9.627539E-1	9.543864E-1	9.327058E-1	9.124261E-1	9.675645E-1	8.970766E-1	9.932161E-1	9.023729E-1	9.702572E-1	9.437878E-1	9.462005E-1	9.370718E-1	9.570266E-1	9.132791E-1	8.960247E-1	8.838181E-1	9.081652E-1	9.656426E-1	9.346193E-1	9.104029E-1	9.167971E-1	9.514101E-1	9.372575E-1	8.867818E-1	9.790426E-1	8.999077E-1	9.362725E-1	9.337728E-1	9.278837E-1	9.373690E-1	9.531984E-1	9.298549E-1	9.252406E-1	9.444508E-1	9.161949E-1	9.309870E-1	9.449591E-1	8.995475E-1	9.549414E-1	9.768915E-1	9.346524E-1	9.684553E-1	9.676116E-1	9.141807E-1	9.340691E-1	9.456376E-1	9.375995E-1	9.389366E-1
5.362630E+2	7.059679E-1	7.650215E-1	7.216768E-1	7.040888E-1	7.446984E-1	6.957845E-1	7.386224E-1	7.204307E-1	6.990487E-1	7.519011E-1	7.093003E-1	7.453122E-1	6.955735E-1	7.119479E-1	7.138655E-1	7.312998E-1	7.318647E-1	7.118060E-1	7.226997E-1	7.173888E-1	6.898023E-1	7.244516E-1	7.003742E-1	7.523512E-1	7.320394E-1	7.480083E-1	7.449481E-1	7.318008E-1	6.945294E-1	7.017011E-1	7.381637E-1	7.123623E-1	7.294762E-1	7.129486E-1	7.114377E-1	7.331916E-1	7.450742E-1	7.411552E-1	7.179432E-1	7.327289E-1	7.342140E-1	7.248793E-1	7.248222E-1	7.351467E-1	6.925152E-1	7.249709E-1	7.414459E-1	7.224856E-1	7.267045E-1	7.270818E-1	7.246951E-1	7.050511E-1	7.072858E-1	7.035187E-1	6.965770E-1	7.612437E-1	7.254167E-1	7.645907E-1	7.388722E-1	7.681198E-1	7.150645E-1	7.138219E-1	7.499517E-1	7.055513E-1	7.041601E-1	7.224460E-1	7.318175E-1	7.309340E-1	7.283252E-1	7.207302E-1	7.414048E-1	7.440963E-1	6.974065E-1	7.609977E-1	7.511463E-1	7.437975E-1	7.006472E-1	7.578414E-1	7.275113E-1	7.242282E-1	7.281777E-1	7.258497E-1	7.251881E-1	7.022325E-1	7.193173E-1	7.415226E-1	7.084540E-1	7.415730E-1	7.416556E-1	6.858423E-1	7.612895E-1	7.247029E-1	7.574841E-1	7.037932E-1	6.817901E-1	7.201054E-1	7.651035E-1	7.072169E-1	6.895456E-1	7.028350E-1	7.420273E-1	7.617153E-1	7.207438E-1	7.597703E-1	7.152332E-1	6.950205E-1	6.765841E-1	7.017423E-1	6.776136E-1	7.124738E-1	7.293630E-1	7.254730E-1	7.386398E-1	6.884530E-1	7.305016E-1	7.241426E-1	7.090600E-1	7.375488E-1	7.269207E-1	7.421981E-1	7.482564E-1	7.361753E-1	7.068552E-1	7.203192E-1	7.668918E-1	7.755286E-1	7.217226E-1	7.112495E-1	6.877489E-1	7.329969E-1	7.270502E-1	7.047342E-1	7.428159E-1	7.341927E-1	7.302685E-1	7.449342E-1	6.900196E-1	7.146746E-1	7.182607E-1	7.196756E-1	7.379129E-1	7.190294E-1	7.018979E-1	7.084128E-1	6.925051E-1	7.628289E-1	6.706564E-1	7.261907E-1	7.000945E-1	7.074756E-1	6.848540E-1	7.621173E-1	7.440965E-1	7.000115E-1	7.383263E-1	7.280835E-1	7.218087E-1	7.165729E-1	7.499984E-1	7.125226E-1	6.944839E-1	6.962793E-1	7.035236E-1	7.492890E-1	7.712241E-1	7.447102E-1	7.156738E-1	7.213909E-1	7.326941E-1	7.317935E-1	7.827654E-1
5.365190E+2	5.822607E-1	5.909422E-1	5.658442E-1	5.711257E-1	5.586100E-1	5.911565E-1	5.934799E-1	5.826507E-1	5.977628E-1	6.054427E-1	5.747247E-1	5.624457E-1	5.410153E-1	6.192554E-1	5.569468E-1	5.799171E-1	5.596770E-1	5.690024E-1	5.666122E-1	5.666700E-1	6.090642E-1	5.496087E-1	5.969824E-1	5.874352E-1	5.936440E-1	5.775790E-1	5.481345E-1	5.557166E-1	5.780734E-1	5.829390E-1	5.756736E-1	5.769663E-1	5.347973E-1	5.758924E-1	5.614287E-1	5.948645E-1	5.938562E-1	5.716952E-1	5.685825E-1	5.617664E-1	5.803614E-1	5.783783E-1	6.119050E-1	5.594727E-1	6.152704E-1	5.692889E-1	5.702550E-1	6.001496E-1	5.611523E-1	5.625905E-1	5.939084E-1	5.640310E-1	5.845700E-1	5.711513E-1	5.317185E-1	5.961485E-1	5.847062E-1	5.753588E-1	5.516925E-1	5.771216E-1	5.932098E-1	5.758611E-1	5.760348E-1	5.826553E-1	6.314542E-1	5.897885E-1	5.853402E-1	6.244474E-1	6.206151E-1	5.723577E-1	5.780499E-1	5.752214E-1	5.882387E-1	6.147448E-1	5.940648E-1	5.813644E-1	5.807473E-1	5.889592E-1	5.623730E-1	6.181489E-1	5.949200E-1	5.783965E-1	5.740652E-1	5.736334E-1	5.803476E-1	5.536952E-1	5.632145E-1	5.730878E-1	5.662765E-1	6.092805E-1	5.916531E-1	5.705229E-1	5.737268E-1	5.549104E-1	5.817298E-1	5.961828E-1	5.976712E-1	5.774116E-1	5.860374E-1	5.842700E-1	5.629315E-1	5.636369E-1	5.522310E-1	5.776520E-1	6.072281E-1	6.012823E-1	6.083146E-1	5.854923E-1	6.161423E-1	5.404071E-1	5.817759E-1	6.146020E-1	5.513593E-1	5.447105E-1	5.442374E-1	5.865425E-1	5.743605E-1	5.645112E-1	5.370899E-1	5.691483E-1	5.951704E-1	5.614386E-1	5.596830E-1	6.064859E-1	6.149525E-1	5.874155E-1	5.554294E-1	5.767649E-1	6.070909E-1	6.062084E-1	5.650360E-1	5.787880E-1	5.708924E-1	5.585018E-1	5.689570E-1	5.974179E-1	5.724988E-1	5.692170E-1	5.638777E-1	5.775807E-1	6.212550E-1	5.905900E-1	5.672864E-1	5.774449E-1	5.632844E-1	5.993630E-1	5.619243E-1	5.907490E-1	5.719147E-1	5.688779E-1	5.647900E-1	5.754751E-1	5.557130E-1	5.874744E-1	6.139463E-1	5.724951E-1	5.896199E-1	5.837224E-1	5.777070E-1	5.841286E-1	5.855162E-1	5.616570E-1	5.963051E-1	5.691571E-1	5.893675E-1	5.875574E-1	5.819065E-1	5.803345E-1	6.293376E-1	6.268413E-1	6.793648E-1
5.367600E+2	5.038344E-1	5.176157E-1	5.282393E-1	5.158745E-1	4.793931E-1	4.889068E-1	4.870484E-1	4.876511E-1	4.918838E-1	4.969513E-1	5.030226E-1	5.038407E-1	5.010488E-1	5.094164E-1	4.894467E-1	4.957582E-1	5.309780E-1	5.029972E-1	4.969063E-1	5.263178E-1	4.941766E-1	4.912736E-1	4.757576E-1	5.144040E-1	4.890785E-1	5.323291E-1	5.019776E-1	4.854437E-1	5.104858E-1	5.278039E-1	5.153698E-1	5.047171E-1	5.028023E-1	5.117509E-1	5.036051E-1	5.003615E-1	5.035053E-1	4.946258E-1	4.940145E-1	5.120865E-1	4.971710E-1	4.999338E-1	4.818488E-1	5.254041E-1	4.930116E-1	4.640881E-1	4.903759E-1	5.367882E-1	4.855054E-1	5.188359E-1	5.001705E-1	4.687680E-1	5.110518E-1	4.992325E-1	4.960810E-1	4.882055E-1	5.145850E-1	5.225738E-1	4.989218E-1	4.777529E-1	4.973385E-1	4.812236E-1	4.959790E-1	4.981557E-1	5.072435E-1	4.979388E-1	5.136104E-1	5.265784E-1	5.109169E-1	4.773881E-1	5.032244E-1	5.290409E-1	5.035334E-1	5.225557E-1	5.134870E-1	5.354726E-1	5.234402E-1	5.074256E-1	5.059778E-1	4.924632E-1	5.009508E-1	4.928114E-1	5.227619E-1	5.181387E-1	4.916367E-1	5.009323E-1	4.937215E-1	5.390749E-1	5.340365E-1	4.882427E-1	4.894364E-1	4.766943E-1	5.055998E-1	5.027874E-1	5.104536E-1	4.634877E-1	4.982228E-1	5.123135E-1	4.818141E-1	5.602099E-1	4.874829E-1	5.328456E-1	5.089817E-1	5.167089E-1	5.049049E-1	4.891231E-1	4.962941E-1	5.056865E-1	5.030862E-1	5.113306E-1	4.970174E-1	5.190418E-1	5.061700E-1	5.115580E-1	4.935410E-1	4.948956E-1	5.053029E-1	4.809622E-1	4.859313E-1	5.201813E-1	5.109088E-1	4.968594E-1	5.114660E-1	5.352235E-1	5.099460E-1	4.875316E-1	4.988144E-1	5.119770E-1	5.140797E-1	4.860274E-1	4.943546E-1	5.405409E-1	5.216019E-1	5.090530E-1	4.923564E-1	5.280687E-1	5.025273E-1	4.846263E-1	4.751929E-1	4.734238E-1	5.113786E-1	4.950733E-1	4.959464E-1	4.980507E-1	5.013382E-1	5.393504E-1	4.840459E-1	5.439252E-1	5.405678E-1	5.081172E-1	4.975247E-1	5.290300E-1	5.079711E-1	5.262110E-1	4.413008E-1	5.264189E-1	5.117918E-1	5.348825E-1	5.267677E-1	5.233329E-1	4.803771E-1	4.905775E-1	5.131503E-1	5.134346E-1	5.181934E-1	5.185293E-1	5.087267E-1	4.920338E-1	4.897582E-1	5.163914E-1	4.909522E-1
5.370120E+2	5.275417E-1	4.921242E-1	5.156492E-1	4.785814E-1	4.469328E-1	4.641085E-1	4.849403E-1	4.852032E-1	5.098190E-1	4.925314E-1	4.820336E-1	5.053088E-1	4.780016E-1	4.938835E-1	5.203884E-1	4.751135E-1	5.138889E-1	5.092838E-1	4.729431E-1	4.900227E-1	4.977956E-1	4.960741E-1	4.969294E-1	5.404278E-1	5.141695E-1	4.949287E-1	4.799710E-1	4.793644E-1	4.745204E-1	4.911390E-1	4.954393E-1	5.130934E-1	4.980722E-1	4.733719E-1	4.898888E-1	4.904026E-1	5.042184E-1	4.984962E-1	4.696275E-1	4.820910E-1	4.494689E-1	4.810876E-1	4.637585E-1	4.973845E-1	4.887854E-1	4.789734E-1	4.562436E-1	5.081809E-1	4.990392E-1	4.755953E-1	4.551925E-1	5.105395E-1	4.957484E-1	4.777208E-1	4.916221E-1	4.778386E-1	4.687263E-1	5.149749E-1	4.839802E-1	5.050232E-1	5.074037E-1	4.771450E-1	5.219093E-1	4.947692E-1	5.438839E-1	4.871073E-1	4.849764E-1	4.953813E-1	4.777950E-1	5.060764E-1	4.852570E-1	4.820057E-1	5.181211E-1	5.335339E-1	5.049842E-1	4.908706E-1	4.911738E-1	4.811136E-1	4.786260E-1	4.959341E-1	4.847942E-1	4.584639E-1	5.072266E-1	5.217062E-1	4.908356E-1	4.769668E-1	4.881426E-1	4.874774E-1	5.063595E-1	5.088771E-1	4.727240E-1	5.074058E-1	5.219735E-1	5.092106E-1	4.907449E-1	4.890135E-1	4.763125E-1	4.973640E-1	5.104038E-1	5.188641E-1	4.936565E-1	4.920290E-1	4.816756E-1	4.766491E-1	5.254632E-1	5.185143E-1	4.817328E-1	4.897449E-1	4.943698E-1	5.054334E-1	5.274308E-1	5.345285E-1	5.072478E-1	4.922482E-1	4.874249E-1	5.119034E-1	4.512672E-1	5.048388E-1	4.547185E-1	5.156499E-1	4.847552E-1	4.897561E-1	4.890274E-1	5.081977E-1	5.153493E-1	5.080631E-1	5.091413E-1	5.131072E-1	5.152841E-1	5.070501E-1	5.282560E-1	4.984167E-1	4.838781E-1	4.516566E-1	4.939016E-1	4.922164E-1	4.913715E-1	4.700244E-1	4.905477E-1	4.733513E-1	4.711649E-1	4.923569E-1	4.742832E-1	4.823412E-1	5.063270E-1	5.147997E-1	4.781549E-1	5.012939E-1	4.918562E-1	4.954485E-1	4.782254E-1	5.146574E-1	4.858956E-1	4.935651E-1	4.932817E-1	5.064549E-1	5.122424E-1	5.077872E-1	5.042796E-1	4.877826E-1	4.901622E-1	5.118026E-1	5.251906E-1	4.770892E-1	5.371157E-1	5.082354E-1	4.847575E-1	4.846966E-1	5.222060E-1	5.127898E-1	4.833010E-1
5.372690E+2	5.274795E-1	5.190964E-1	5.182780E-1	4.994641E-1	5.091995E-1	5.182823E-1	5.311460E-1	5.335752E-1	5.292089E-1	5.098591E-1	5.160530E-1	5.221897E-1	5.069360E-1	5.168220E-1	5.271110E-1	5.434686E-1	5.325109E-1	4.884387E-1	5.017346E-1	5.598075E-1	5.280787E-1	5.221931E-1	5.188974E-1	5.381596E-1	5.219484E-1	5.112245E-1	5.401614E-1	4.862245E-1	5.184233E-1	5.111492E-1	5.020628E-1	5.180913E-1	4.993838E-1	5.199603E-1	5.001692E-1	5.049033E-1	5.404588E-1	5.076913E-1	4.782856E-1	5.426300E-1	5.026634E-1	5.328823E-1	5.343308E-1	5.065668E-1	4.890585E-1	4.837627E-1	5.494191E-1	5.054328E-1	5.398849E-1	5.318454E-1	5.057690E-1	5.209413E-1	5.234312E-1	5.118714E-1	4.989812E-1	5.527046E-1	5.222513E-1	5.069723E-1	5.348945E-1	4.897164E-1	5.161168E-1	4.970207E-1	4.949258E-1	4.826906E-1	5.167007E-1	5.275433E-1	5.311879E-1	4.889591E-1	5.388545E-1	5.303956E-1	5.419358E-1	5.471572E-1	5.417528E-1	5.442877E-1	5.108418E-1	5.404423E-1	5.328852E-1	5.192134E-1	5.343391E-1	5.082516E-1	5.215793E-1	4.950639E-1	5.228699E-1	5.239146E-1	5.240412E-1	5.050879E-1	5.075735E-1	5.272896E-1	5.165979E-1	4.978893E-1	5.348312E-1	5.192395E-1	5.479298E-1	5.006852E-1	5.493578E-1	5.399410E-1	5.275152E-1	4.983043E-1	5.337385E-1	5.497462E-1	5.216842E-1	5.422015E-1	5.102227E-1	5.224271E-1	5.233988E-1	5.041554E-1	5.298751E-1	5.548150E-1	5.564868E-1	5.255662E-1	5.281172E-1	5.189774E-1	5.009626E-1	5.142679E-1	5.251281E-1	5.360753E-1	5.328516E-1	5.165692E-1	5.189469E-1	5.035684E-1	5.271714E-1	5.443483E-1	4.905263E-1	5.433264E-1	5.245122E-1	5.479153E-1	5.211605E-1	5.142547E-1	5.141999E-1	5.696585E-1	4.973522E-1	5.182953E-1	4.966158E-1	5.278480E-1	4.965380E-1	5.365859E-1	4.945342E-1	5.234960E-1	5.322019E-1	4.928865E-1	5.714622E-1	5.289695E-1	5.341239E-1	5.016587E-1	5.374610E-1	5.295873E-1	5.054560E-1	5.115116E-1	5.432026E-1	5.448857E-1	4.906759E-1	5.487311E-1	5.585487E-1	5.445374E-1	5.254704E-1	5.323563E-1	5.662089E-1	5.108794E-1	5.243203E-1	5.190441E-1	5.082211E-1	5.197486E-1	4.981924E-1	5.680768E-1	5.833519E-1	5.369826E-1	5.435242E-1	5.420854E-1	5.495152E-1	5.166415E-1	5.026940E-1
5.375110E+2	5.785332E-1	5.453228E-1	5.686422E-1	5.800355E-1	5.945047E-1	5.861339E-1	5.761914E-1	5.991083E-1	5.994715E-1	5.878563E-1	5.908810E-1	6.409842E-1	5.835367E-1	5.898606E-1	5.818858E-1	6.157711E-1	6.281899E-1	6.000120E-1	5.705360E-1	6.089942E-1	5.752627E-1	5.732522E-1	5.630405E-1	6.278850E-1	5.987397E-1	5.960021E-1	6.055943E-1	6.067737E-1	5.686065E-1	5.861036E-1	6.158379E-1	5.931920E-1	5.681336E-1	6.367340E-1	6.045699E-1	5.996722E-1	6.014558E-1	5.705996E-1	5.793381E-1	5.732011E-1	5.809546E-1	5.805170E-1	6.009296E-1	5.916928E-1	6.257948E-1	5.768390E-1	5.747835E-1	5.940104E-1	5.827001E-1	5.871577E-1	5.798990E-1	5.839184E-1	6.030739E-1	6.046780E-1	5.790639E-1	5.938962E-1	5.810617E-1	5.737600E-1	5.813590E-1	5.910530E-1	5.721427E-1	5.684490E-1	5.971828E-1	5.735451E-1	6.133336E-1	6.049977E-1	5.805932E-1	5.716505E-1	5.955743E-1	5.690270E-1	5.606623E-1	5.884826E-1	5.988148E-1	5.868468E-1	5.919679E-1	5.995512E-1	5.836084E-1	6.156219E-1	5.725909E-1	5.725786E-1	6.185127E-1	5.708154E-1	6.136202E-1	5.714472E-1	5.958073E-1	6.143781E-1	5.794807E-1	6.264315E-1	5.883583E-1	5.898816E-1	5.900085E-1	6.254347E-1	5.645283E-1	5.534518E-1	5.642075E-1	6.243885E-1	5.851292E-1	5.821609E-1	5.946150E-1	6.053663E-1	5.961302E-1	5.610469E-1	6.156885E-1	5.942261E-1	5.656525E-1	5.649625E-1	5.807594E-1	5.838721E-1	5.936926E-1	5.426430E-1	5.874762E-1	6.118034E-1	5.870390E-1	5.429075E-1	5.777295E-1	6.020785E-1	5.791566E-1	6.003042E-1	5.537128E-1	5.914967E-1	6.018494E-1	6.227398E-1	5.870199E-1	5.907796E-1	5.853660E-1	5.964955E-1	6.216149E-1	5.856848E-1	6.266060E-1	5.937942E-1	5.815014E-1	6.081313E-1	6.068847E-1	5.569970E-1	6.029619E-1	5.990555E-1	6.098764E-1	6.043518E-1	5.831474E-1	6.115708E-1	6.036022E-1	6.077249E-1	5.528555E-1	6.179358E-1	6.050687E-1	6.053580E-1	5.777575E-1	6.151674E-1	5.843333E-1	5.948702E-1	5.803354E-1	5.615651E-1	5.972624E-1	5.960275E-1	5.711553E-1	5.982960E-1	6.225950E-1	6.179252E-1	5.824657E-1	6.294752E-1	5.734819E-1	5.925043E-1	5.844714E-1	5.800639E-1	5.843171E-1	6.040145E-1	5.802699E-1	6.236642E-1	5.660521E-1	6.033375E-1	5.969230E-1
5.377630E+2	7.407530E-1	6.953812E-1	7.198310E-1	6.442454E-1	6.665449E-1	6.754296E-1	6.923159E-1	6.732285E-1	7.015093E-1	6.607900E-1	6.876938E-1	6.725523E-1	6.526369E-1	6.861956E-1	6.860939E-1	6.639557E-1	6.957142E-1	6.736802E-1	6.911130E-1	7.091467E-1	6.856356E-1	6.956444E-1	7.040214E-1	7.110790E-1	7.357842E-1	7.253125E-1	7.077854E-1	6.661879E-1	6.575506E-1	7.063025E-1	6.617517E-1	6.901650E-1	6.870699E-1	6.830545E-1	7.140083E-1	6.911331E-1	7.037497E-1	7.129904E-1	6.551600E-1	7.057043E-1	6.956172E-1	6.984982E-1	6.962570E-1	7.168329E-1	7.078417E-1	7.159110E-1	7.159210E-1	6.973282E-1	6.750064E-1	6.816364E-1	6.594579E-1	7.161335E-1	7.146420E-1	7.007662E-1	6.842334E-1	7.065319E-1	7.163825E-1	6.870869E-1	7.153788E-1	6.747981E-1	6.699127E-1	6.979567E-1	6.805510E-1	6.807915E-1	7.243318E-1	6.950778E-1	7.043586E-1	7.006158E-1	6.657500E-1	7.089689E-1	6.808198E-1	6.868975E-1	6.794248E-1	7.322906E-1	6.718623E-1	7.267395E-1	6.627327E-1	6.839869E-1	6.965531E-1	6.899568E-1	7.243231E-1	6.934693E-1	7.254978E-1	6.679574E-1	6.842382E-1	6.897215E-1	6.844423E-1	6.935830E-1	7.162696E-1	7.233262E-1	6.950257E-1	6.913680E-1	7.236202E-1	7.077201E-1	6.957178E-1	7.308431E-1	6.549254E-1	7.234587E-1	6.871994E-1	7.071110E-1	7.033056E-1	6.878776E-1	6.947526E-1	7.193720E-1	7.027022E-1	6.585067E-1	7.418504E-1	6.904784E-1	6.534808E-1	6.855928E-1	7.174701E-1	7.220111E-1	7.016377E-1	6.627234E-1	7.052562E-1	7.136811E-1	7.037941E-1	6.730709E-1	6.943812E-1	6.828302E-1	7.111223E-1	6.876478E-1	6.819973E-1	7.100607E-1	6.774685E-1	6.888970E-1	6.818252E-1	6.768060E-1	7.063613E-1	6.924710E-1	6.847737E-1	6.856832E-1	6.918959E-1	6.955202E-1	6.923250E-1	6.909484E-1	6.548085E-1	6.821246E-1	6.496467E-1	6.719586E-1	6.945915E-1	7.007639E-1	6.907646E-1	6.986942E-1	6.655583E-1	6.828895E-1	6.710725E-1	6.999117E-1	6.781863E-1	6.979707E-1	6.971038E-1	6.822175E-1	6.628513E-1	6.843571E-1	7.459036E-1	7.013904E-1	7.034997E-1	7.054971E-1	7.037722E-1	7.181872E-1	7.086329E-1	6.895615E-1	7.258751E-1	6.854395E-1	7.086367E-1	7.073255E-1	6.645917E-1	6.911522E-1	6.882339E-1	7.011134E-1	6.470676E-1
5.380110E+2	8.544721E-1	8.179242E-1	8.074836E-1	8.105187E-1	8.196544E-1	8.369519E-1	8.343213E-1	8.109588E-1	8.852772E-1	8.541985E-1	8.111034E-1	8.487578E-1	8.037347E-1	8.389301E-1	8.440477E-1	8.577401E-1	7.939165E-1	8.262332E-1	8.134461E-1	8.200716E-1	8.408024E-1	8.212532E-1	8.289609E-1	8.368193E-1	8.862511E-1	8.659829E-1	8.421708E-1	8.273001E-1	8.311026E-1	7.881462E-1	8.199703E-1	8.293890E-1	8.475281E-1	8.190526E-1	8.673968E-1	8.828692E-1	8.783643E-1	8.287190E-1	8.236609E-1	8.104413E-1	8.490764E-1	8.530809E-1	8.532032E-1	8.374250E-1	8.366281E-1	8.052298E-1	8.287786E-1	8.398958E-1	8.125705E-1	8.150783E-1	8.433661E-1	7.887160E-1	8.652424E-1	8.443586E-1	8.042552E-1	7.893395E-1	8.379800E-1	8.470607E-1	7.763899E-1	8.183015E-1	8.746017E-1	8.279491E-1	8.489237E-1	8.415195E-1	8.068293E-1	8.468942E-1	8.151078E-1	8.136527E-1	8.705518E-1	8.726907E-1	8.355243E-1	8.150186E-1	8.273872E-1	8.151804E-1	8.442344E-1	8.862803E-1	8.493218E-1	8.501126E-1	8.358083E-1	8.162882E-1	8.191938E-1	8.499697E-1	8.210022E-1	8.567486E-1	8.579673E-1	8.539163E-1	8.374543E-1	8.383171E-1	7.973816E-1	8.163124E-1	8.202512E-1	8.152905E-1	8.228177E-1	7.956224E-1	7.851262E-1	8.561992E-1	8.535908E-1	8.220491E-1	8.146138E-1	8.196447E-1	8.037852E-1	8.210033E-1	8.166874E-1	8.129295E-1	8.422831E-1	8.559157E-1	8.458515E-1	8.716912E-1	8.478200E-1	8.337860E-1	7.981360E-1	8.653115E-1	8.157098E-1	8.052835E-1	8.243157E-1	8.434961E-1	8.319328E-1	8.323450E-1	8.330148E-1	7.961415E-1	8.395206E-1	8.338971E-1	7.904866E-1	8.318578E-1	8.363695E-1	8.421819E-1	8.201972E-1	8.646384E-1	8.265302E-1	8.211664E-1	8.511284E-1	7.953521E-1	8.501165E-1	8.515988E-1	8.219606E-1	8.353059E-1	8.035047E-1	8.368672E-1	8.338146E-1	8.109735E-1	8.475450E-1	8.664938E-1	8.220424E-1	8.446744E-1	8.622898E-1	8.169568E-1	8.115022E-1	8.521698E-1	8.431362E-1	8.318809E-1	8.123441E-1	8.237252E-1	8.151763E-1	8.010059E-1	8.382875E-1	8.546110E-1	8.388777E-1	8.447074E-1	8.503263E-1	8.094559E-1	8.190398E-1	8.557292E-1	8.194358E-1	8.076677E-1	8.717722E-1	8.079479E-1	7.879260E-1	8.434914E-1	8.499113E-1	8.349400E-1	8.593040E-1
5.382790E+2	1.046366E+0	1.033243E+0	1.046773E+0	9.626135E-1	1.025892E+0	1.045132E+0	9.780583E-1	1.045552E+0	1.031103E+0	9.832858E-1	1.011832E+0	1.035573E+0	1.043803E+0	1.042125E+0	1.059638E+0	1.019063E+0	1.000512E+0	1.018189E+0	1.031210E+0	9.898322E-1	1.029005E+0	1.022632E+0	1.003648E+0	1.046320E+0	1.063935E+0	1.033999E+0	1.020575E+0	9.920684E-1	1.042657E+0	1.007794E+0	1.022959E+0	1.000546E+0	1.005932E+0	1.032306E+0	1.006861E+0	9.902480E-1	1.022185E+0	1.053932E+0	9.954744E-1	1.027640E+0	1.031947E+0	9.946035E-1	1.013665E+0	1.035016E+0	1.040732E+0	1.043909E+0	1.021479E+0	1.027645E+0	1.040771E+0	1.048489E+0	1.034561E+0	1.035318E+0	1.048024E+0	1.011535E+0	1.011333E+0	1.018503E+0	1.064411E+0	1.050230E+0	9.746494E-1	9.614261E-1	9.832429E-1	1.033703E+0	1.013451E+0	9.893486E-1	1.049828E+0	1.007400E+0	1.023084E+0	1.014896E+0	1.057276E+0	1.027589E+0	9.862927E-1	1.014150E+0	1.100506E+0	1.044388E+0	9.887905E-1	1.028458E+0	1.009189E+0	1.035709E+0	1.039198E+0	1.032364E+0	9.898467E-1	1.003339E+0	9.844579E-1	9.767657E-1	1.033130E+0	1.009960E+0	1.031008E+0	1.020411E+0	1.068536E+0	1.001881E+0	1.023187E+0	1.047281E+0	1.044033E+0	1.055372E+0	1.002610E+0	1.003348E+0	1.022868E+0	9.935050E-1	9.585850E-1	1.015778E+0	1.068011E+0	9.829522E-1	9.764378E-1	1.041066E+0	1.023831E+0	1.008395E+0	1.016425E+0	1.013068E+0	1.018775E+0	1.018780E+0	9.952549E-1	1.023195E+0	1.006495E+0	1.000073E+0	1.027758E+0	1.061528E+0	9.814159E-1	1.032712E+0	9.789006E-1	1.018747E+0	1.022085E+0	1.017566E+0	1.026466E+0	1.031698E+0	1.056781E+0	9.962220E-1	1.029673E+0	1.026137E+0	9.711268E-1	1.002244E+0	1.012963E+0	1.028063E+0	9.939423E-1	1.002833E+0	9.942893E-1	1.033713E+0	1.029659E+0	9.998176E-1	1.022388E+0	9.750590E-1	1.021524E+0	1.001480E+0	9.651106E-1	1.038112E+0	1.042014E+0	9.809830E-1	1.011851E+0	1.059322E+0	1.032884E+0	1.014991E+0	9.579018E-1	1.034504E+0	1.002791E+0	1.030858E+0	1.043693E+0	1.002489E+0	1.035502E+0	1.073697E+0	1.033838E+0	1.051511E+0	9.858055E-1	1.011958E+0	1.028027E+0	1.027045E+0	1.032966E+0	1.040990E+0	1.046147E+0	9.884849E-1	1.003274E+0	1.045252E+0	1.062389E+0
5.385170E+2	1.259841E+0	1.247600E+0	1.274820E+0	1.225612E+0	1.277981E+0	1.238720E+0	1.286326E+0	1.251288E+0	1.336867E+0	1.235679E+0	1.232897E+0	1.294290E+0	1.278867E+0	1.282742E+0	1.233837E+0	1.240631E+0	1.282954E+0	1.308993E+0	1.237103E+0	1.287872E+0	1.290186E+0	1.243918E+0	1.278045E+0	1.269727E+0	1.331291E+0	1.295003E+0	1.267531E+0	1.235571E+0	1.262427E+0	1.250952E+0	1.242364E+0	1.258021E+0	1.277925E+0	1.253782E+0	1.245015E+0	1.225259E+0	1.265450E+0	1.247521E+0	1.196068E+0	1.224928E+0	1.234917E+0	1.280406E+0	1.288720E+0	1.289043E+0	1.297238E+0	1.256986E+0	1.256426E+0	1.225487E+0	1.295750E+0	1.291166E+0	1.236070E+0	1.213295E+0	1.311203E+0	1.301388E+0	1.273514E+0	1.251571E+0	1.286733E+0	1.322165E+0	1.205787E+0	1.232721E+0	1.248179E+0	1.298444E+0	1.242625E+0	1.245021E+0	1.279623E+0	1.284203E+0	1.306072E+0	1.255879E+0	1.273963E+0	1.239195E+0	1.172166E+0	1.252047E+0	1.254743E+0	1.285792E+0	1.251892E+0	1.325113E+0	1.243164E+0	1.258591E+0	1.225429E+0	1.298636E+0	1.276047E+0	1.263414E+0	1.307665E+0	1.249268E+0	1.243280E+0	1.263561E+0	1.188593E+0	1.208424E+0	1.268270E+0	1.262909E+0	1.268872E+0	1.272661E+0	1.254246E+0	1.246502E+0	1.240229E+0	1.280323E+0	1.265864E+0	1.237931E+0	1.179548E+0	1.227131E+0	1.246061E+0	1.245727E+0	1.237229E+0	1.245294E+0	1.275937E+0	1.196487E+0	1.232567E+0	1.226059E+0	1.292367E+0	1.245001E+0	1.238381E+0	1.219838E+0	1.292964E+0	1.279356E+0	1.266062E+0	1.283696E+0	1.271570E+0	1.234540E+0	1.251851E+0	1.223861E+0	1.273716E+0	1.238988E+0	1.255330E+0	1.255229E+0	1.261028E+0	1.284612E+0	1.264918E+0	1.249736E+0	1.238241E+0	1.237371E+0	1.234313E+0	1.238702E+0	1.246290E+0	1.267132E+0	1.198079E+0	1.220424E+0	1.249788E+0	1.227579E+0	1.219314E+0	1.240176E+0	1.298525E+0	1.244542E+0	1.243418E+0	1.269619E+0	1.261642E+0	1.268901E+0	1.245954E+0	1.306763E+0	1.224119E+0	1.246718E+0	1.159739E+0	1.301939E+0	1.231987E+0	1.283708E+0	1.298856E+0	1.288743E+0	1.241881E+0	1.257776E+0	1.279935E+0	1.228168E+0	1.261863E+0	1.278385E+0	1.291829E+0	1.250093E+0	1.310860E+0	1.277155E+0	1.249414E+0	1.209356E+0	1.304517E+0	1.267661E+0	1.335492E+0
5.387650E+2	1.615968E+0	1.521999E+0	1.545806E+0	1.497500E+0	1.520903E+0	1.552836E+0	1.494389E+0	1.477735E+0	1.519597E+0	1.538658E+0	1.486195E+0	1.504441E+0	1.543612E+0	1.494744E+0	1.552988E+0	1.490106E+0	1.523270E+0	1.470477E+0	1.510964E+0	1.527018E+0	1.503692E+0	1.544592E+0	1.521096E+0	1.513375E+0	1.569717E+0	1.568265E+0	1.560085E+0	1.460708E+0	1.466019E+0	1.448868E+0	1.531431E+0	1.474056E+0	1.471227E+0	1.511779E+0	1.502185E+0	1.532090E+0	1.493210E+0	1.512430E+0	1.477343E+0	1.498533E+0	1.498201E+0	1.520538E+0	1.476337E+0	1.430377E+0	1.545230E+0	1.490648E+0	1.471128E+0	1.507479E+0	1.535772E+0	1.525141E+0	1.459344E+0	1.516406E+0	1.525445E+0	1.441659E+0	1.434679E+0	1.459531E+0	1.535424E+0	1.498665E+0	1.527170E+0	1.471834E+0	1.474481E+0	1.528977E+0	1.472283E+0	1.515860E+0	1.550148E+0	1.536296E+0	1.514123E+0	1.468914E+0	1.492155E+0	1.509483E+0	1.462538E+0	1.469325E+0	1.515476E+0	1.517939E+0	1.493306E+0	1.497372E+0	1.447454E+0	1.477764E+0	1.500531E+0	1.543461E+0	1.485654E+0	1.481211E+0	1.560406E+0	1.497588E+0	1.457696E+0	1.490022E+0	1.472185E+0	1.427091E+0	1.464234E+0	1.499684E+0	1.531563E+0	1.476840E+0	1.459232E+0	1.494641E+0	1.524691E+0	1.483236E+0	1.514181E+0	1.519938E+0	1.429088E+0	1.496533E+0	1.501814E+0	1.492808E+0	1.523522E+0	1.421495E+0	1.512870E+0	1.507352E+0	1.512761E+0	1.457837E+0	1.486744E+0	1.454174E+0	1.499438E+0	1.502078E+0	1.419966E+0	1.442232E+0	1.482846E+0	1.490521E+0	1.516435E+0	1.454189E+0	1.436638E+0	1.455569E+0	1.549588E+0	1.471702E+0	1.443482E+0	1.501377E+0	1.458239E+0	1.471213E+0	1.490280E+0	1.464410E+0	1.467857E+0	1.505724E+0	1.498111E+0	1.516940E+0	1.476354E+0	1.500920E+0	1.411881E+0	1.442255E+0	1.438977E+0	1.450735E+0	1.449204E+0	1.456577E+0	1.558984E+0	1.485569E+0	1.507664E+0	1.425844E+0	1.500083E+0	1.482892E+0	1.419985E+0	1.473371E+0	1.509661E+0	1.555470E+0	1.450355E+0	1.476772E+0	1.513448E+0	1.514445E+0	1.442647E+0	1.466044E+0	1.450546E+0	1.483180E+0	1.488566E+0	1.496851E+0	1.492313E+0	1.486863E+0	1.472596E+0	1.475919E+0	1.529343E+0	1.457871E+0	1.421270E+0	1.416292E+0	1.458746E+0	1.465904E+0	1.436946E+0
5.390290E+2	1.730806E+0	1.711639E+0	1.728466E+0	1.737149E+0	1.728989E+0	1.723238E+0	1.747304E+0	1.697028E+0	1.732440E+0	1.734095E+0	1.729929E+0	1.755591E+0	1.709639E+0	1.735556E+0	1.735834E+0	1.759217E+0	1.750735E+0	1.722820E+0	1.715094E+0	1.772609E+0	1.705585E+0	1.725581E+0	1.653413E+0	1.728793E+0	1.798259E+0	1.676470E+0	1.656841E+0	1.711189E+0	1.729841E+0	1.713519E+0	1.691013E+0	1.680041E+0	1.694118E+0	1.689736E+0	1.759227E+0	1.669990E+0	1.736793E+0	1.692710E+0	1.682783E+0	1.751559E+0	1.749335E+0	1.718500E+0	1.682470E+0	1.696397E+0	1.712332E+0	1.721349E+0	1.738575E+0	1.724707E+0	1.776783E+0	1.700704E+0	1.645593E+0	1.723505E+0	1.693697E+0	1.692622E+0	1.686957E+0	1.738891E+0	1.701159E+0	1.754736E+0	1.741384E+0	1.661340E+0	1.696282E+0	1.696846E+0	1.709652E+0	1.639206E+0	1.703305E+0	1.720750E+0	1.805782E+0	1.708072E+0	1.728023E+0	1.708364E+0	1.671739E+0	1.669248E+0	1.693783E+0	1.821196E+0	1.712891E+0	1.801171E+0	1.691388E+0	1.734378E+0	1.776201E+0	1.732228E+0	1.793377E+0	1.730951E+0	1.752017E+0	1.649062E+0	1.764560E+0	1.658909E+0	1.677762E+0	1.702262E+0	1.735765E+0	1.653158E+0	1.694342E+0	1.707319E+0	1.711557E+0	1.690339E+0	1.756870E+0	1.693248E+0	1.705507E+0	1.699570E+0	1.670437E+0	1.724226E+0	1.757442E+0	1.651003E+0	1.679380E+0	1.716837E+0	1.767433E+0	1.673715E+0	1.718546E+0	1.699714E+0	1.716095E+0	1.689702E+0	1.733905E+0	1.708867E+0	1.641962E+0	1.735583E+0	1.727206E+0	1.718728E+0	1.696955E+0	1.698607E+0	1.663085E+0	1.660777E+0	1.699000E+0	1.676223E+0	1.698831E+0	1.734067E+0	1.720217E+0	1.693726E+0	1.675864E+0	1.649767E+0	1.685247E+0	1.677161E+0	1.679832E+0	1.644212E+0	1.709722E+0	1.679214E+0	1.623162E+0	1.703546E+0	1.749133E+0	1.693062E+0	1.677241E+0	1.616368E+0	1.713990E+0	1.677821E+0	1.689486E+0	1.721055E+0	1.611124E+0	1.668369E+0	1.671233E+0	1.696163E+0	1.653990E+0	1.696627E+0	1.571168E+0	1.644095E+0	1.690387E+0	1.701928E+0	1.745962E+0	1.671435E+0	1.682351E+0	1.681961E+0	1.712936E+0	1.646214E+0	1.708529E+0	1.696831E+0	1.634941E+0	1.673592E+0	1.733597E+0	1.701904E+0	1.617875E+0	1.658177E+0	1.706470E+0	1.625515E+0	1.753925E+0
5.392880E+2	1.940262E+0	1.945317E+0	2.003481E+0	1.885143E+0	1.958656E+0	1.910981E+0	1.907226E+0	1.913216E+0	1.981855E+0	1.952659E+0	1.945866E+0	1.889584E+0	1.926887E+0	1.905946E+0	1.940419E+0	1.959867E+0	1.968947E+0	1.970470E+0	1.903216E+0	1.980058E+0	2.001835E+0	1.920787E+0	1.924790E+0	1.927928E+0	1.989022E+0	1.974353E+0	2.007197E+0	1.893550E+0	1.927613E+0	1.808965E+0	2.007644E+0	1.891637E+0	1.860566E+0	1.941373E+0	1.866522E+0	1.943387E+0	1.927232E+0	1.932587E+0	1.912988E+0	1.912559E+0	1.977276E+0	1.905928E+0	1.953451E+0	1.893698E+0	1.992675E+0	1.873111E+0	1.902921E+0	1.919801E+0	1.920893E+0	1.904998E+0	1.916504E+0	1.876901E+0	1.951994E+0	1.889003E+0	1.891690E+0	1.919151E+0	1.967588E+0	1.935568E+0	1.945306E+0	1.915772E+0	1.851060E+0	1.898600E+0	1.911394E+0	1.932736E+0	1.982393E+0	1.907863E+0	1.899594E+0	1.929991E+0	1.924172E+0	1.901072E+0	1.856875E+0	1.917283E+0	1.901423E+0	1.877167E+0	1.891907E+0	1.908334E+0	1.854541E+0	1.917016E+0	1.897013E+0	1.897894E+0	1.889366E+0	1.910703E+0	1.865793E+0	1.892776E+0	1.965850E+0	1.912313E+0	1.878727E+0	1.937258E+0	1.849694E+0	1.893918E+0	1.912201E+0	1.874237E+0	1.925764E+0	1.896379E+0	1.896099E+0	1.925000E+0	1.930754E+0	1.913845E+0	1.858759E+0	1.908048E+0	1.938474E+0	1.887690E+0	1.844132E+0	1.871388E+0	1.907998E+0	1.903007E+0	1.897962E+0	1.936347E+0	1.895886E+0	1.877771E+0	1.928795E+0	1.885835E+0	1.943727E+0	1.871739E+0	1.907673E+0	1.890497E+0	1.923633E+0	1.822925E+0	1.817982E+0	1.854067E+0	2.013578E+0	1.936879E+0	1.883479E+0	1.900446E+0	1.958778E+0	1.889759E+0	1.863379E+0	1.850458E+0	1.869604E+0	1.926623E+0	1.859114E+0	1.821082E+0	1.938179E+0	1.935666E+0	1.840345E+0	1.898276E+0	1.912373E+0	1.858436E+0	1.890018E+0	1.805423E+0	1.983558E+0	1.838278E+0	1.883087E+0	1.855746E+0	1.842367E+0	1.928816E+0	1.815600E+0	1.865718E+0	1.938199E+0	1.869175E+0	1.874163E+0	1.847762E+0	1.968764E+0	1.894020E+0	1.907077E+0	1.888386E+0	1.883134E+0	1.820496E+0	1.849034E+0	1.913465E+0	1.937882E+0	1.886154E+0	1.854671E+0	1.819765E+0	1.878066E+0	1.846057E+0	1.871871E+0	1.822980E+0	1.986090E+0	1.795753E+0	2.047936E+0
5.395100E+2	2.059585E+0	2.058369E+0	2.179470E+0	1.939323E+0	2.089239E+0	2.022935E+0	2.081418E+0	2.045345E+0	2.125681E+0	2.088556E+0	2.055773E+0	2.087961E+0	2.076797E+0	2.090303E+0	2.024973E+0	2.085082E+0	2.085035E+0	2.126565E+0	2.093456E+0	2.090940E+0	2.139741E+0	2.030817E+0	2.018996E+0	2.119512E+0	2.202204E+0	2.100512E+0	2.051985E+0	2.040616E+0	2.064462E+0	2.053417E+0	2.073211E+0	2.082557E+0	2.032582E+0	2.106375E+0	2.115518E+0	2.050414E+0	2.071194E+0	2.068985E+0	2.062905E+0	2.039105E+0	2.100141E+0	2.058410E+0	2.076578E+0	2.054331E+0	2.115950E+0	2.086928E+0	2.027164E+0	2.056934E+0	2.114495E+0	2.068448E+0	2.044597E+0	2.093169E+0	2.137936E+0	2.073044E+0	2.061412E+0	2.066839E+0	2.062077E+0	2.097218E+0	2.032715E+0	2.060661E+0	2.017303E+0	2.080974E+0	2.030690E+0	2.026769E+0	2.116887E+0	2.156139E+0	2.055402E+0	2.040328E+0	2.073678E+0	2.088822E+0	1.973107E+0	2.041423E+0	2.055588E+0	2.093151E+0	1.997527E+0	2.043655E+0	2.080077E+0	2.025250E+0	2.088860E+0	2.074811E+0	2.095633E+0	1.996645E+0	2.047035E+0	2.009314E+0	1.999076E+0	2.010554E+0	2.027891E+0	2.056877E+0	2.025251E+0	2.002242E+0	1.991816E+0	2.022238E+0	2.049947E+0	2.037067E+0	2.012861E+0	2.052965E+0	2.024914E+0	2.055064E+0	1.927081E+0	1.993212E+0	2.149723E+0	1.984657E+0	2.024375E+0	2.006225E+0	2.088924E+0	2.007923E+0	2.028640E+0	2.012262E+0	2.049498E+0	2.052592E+0	2.011883E+0	2.096076E+0	2.046722E+0	2.025241E+0	2.012841E+0	1.982001E+0	2.027607E+0	2.046613E+0	1.978640E+0	2.031234E+0	2.101312E+0	1.990364E+0	1.964985E+0	2.068951E+0	2.099453E+0	2.023168E+0	1.973730E+0	1.982365E+0	2.025340E+0	2.034251E+0	2.053081E+0	1.998478E+0	1.957215E+0	2.037183E+0	2.042343E+0	1.969110E+0	1.993625E+0	2.018014E+0	2.026423E+0	1.952960E+0	2.005802E+0	2.033498E+0	1.990628E+0	1.975006E+0	1.973977E+0	2.088328E+0	1.952461E+0	1.980930E+0	2.030924E+0	1.983056E+0	2.005650E+0	2.003405E+0	2.036787E+0	2.002576E+0	1.985444E+0	2.011702E+0	1.974894E+0	2.047663E+0	2.017630E+0	2.028743E+0	1.992072E+0	2.047825E+0	1.995827E+0	1.928146E+0	2.074778E+0	2.034918E+0	1.907078E+0	1.908538E+0	1.923108E+0	2.017235E+0	1.964167E+0
5.397810E+2	2.193899E+0	2.137175E+0	2.176615E+0	2.055968E+0	2.168821E+0	2.095644E+0	2.085414E+0	2.118743E+0	2.158590E+0	2.133487E+0	2.137321E+0	2.137883E+0	2.148455E+0	2.091913E+0	2.094916E+0	2.152006E+0	2.195721E+0	2.081654E+0	2.088966E+0	2.136780E+0	2.167469E+0	2.179218E+0	2.127662E+0	2.067460E+0	2.223083E+0	2.145923E+0	2.136836E+0	2.065187E+0	2.093616E+0	2.059043E+0	2.101284E+0	2.089371E+0	2.070400E+0	2.189785E+0	2.149398E+0	2.115159E+0	2.037299E+0	2.209610E+0	2.088850E+0	2.062921E+0	2.115758E+0	2.109223E+0	2.094974E+0	2.057615E+0	2.064514E+0	2.097131E+0	2.150597E+0	2.102157E+0	2.139092E+0	2.053355E+0	2.136299E+0	2.100733E+0	2.168411E+0	2.090948E+0	2.072008E+0	2.123310E+0	2.178289E+0	2.150529E+0	2.092051E+0	2.104060E+0	2.073827E+0	2.088262E+0	2.073971E+0	2.134526E+0	2.119344E+0	2.122726E+0	2.123294E+0	2.051173E+0	2.118391E+0	2.162883E+0	2.107987E+0	2.031367E+0	2.170356E+0	2.111719E+0	1.992718E+0	2.033830E+0	2.080573E+0	2.090336E+0	2.091578E+0	2.141822E+0	2.115262E+0	2.094113E+0	2.135061E+0	2.072114E+0	2.118859E+0	2.089495E+0	2.012318E+0	2.055286E+0	2.057268E+0	2.098372E+0	2.144255E+0	2.081087E+0	2.079347E+0	2.032305E+0	2.112828E+0	2.090938E+0	2.116393E+0	2.104880E+0	2.037091E+0	2.089379E+0	2.146737E+0	2.082722E+0	2.100206E+0	2.072566E+0	2.147862E+0	2.070849E+0	2.095154E+0	2.050497E+0	2.085685E+0	2.058402E+0	2.137972E+0	2.040933E+0	2.024082E+0	2.061966E+0	2.034651E+0	2.100833E+0	2.124301E+0	2.035205E+0	2.023231E+0	1.980652E+0	2.115168E+0	2.053384E+0	2.086376E+0	2.090641E+0	2.090286E+0	2.132056E+0	2.088233E+0	2.027176E+0	2.114401E+0	2.065175E+0	1.975696E+0	2.039080E+0	2.038811E+0	2.132522E+0	1.999704E+0	1.999279E+0	2.115646E+0	2.003428E+0	2.078813E+0	1.947943E+0	2.095665E+0	2.067720E+0	2.040071E+0	2.015686E+0	2.005411E+0	2.094152E+0	1.997176E+0	2.042284E+0	2.062156E+0	2.053766E+0	1.956670E+0	2.056499E+0	2.075342E+0	2.045563E+0	2.077590E+0	1.994069E+0	2.028187E+0	2.049774E+0	2.001806E+0	1.992990E+0	2.010849E+0	2.042210E+0	2.040849E+0	2.030373E+0	2.075283E+0	2.089202E+0	2.020922E+0	1.966453E+0	2.071894E+0	2.017172E+0	2.039013E+0
5.400350E+2	2.137592E+0	2.046389E+0	2.102509E+0	1.946178E+0	1.971256E+0	2.043661E+0	2.051272E+0	2.002789E+0	2.049227E+0	2.113240E+0	1.993196E+0	2.049914E+0	1.997402E+0	2.062113E+0	2.055272E+0	2.049475E+0	2.082825E+0	2.110218E+0	1.938650E+0	2.039403E+0	2.004922E+0	2.026763E+0	2.021590E+0	2.058223E+0	2.160789E+0	2.045736E+0	2.008988E+0	1.976449E+0	1.966630E+0	1.986305E+0	2.076119E+0	2.032167E+0	2.029005E+0	2.056171E+0	2.051154E+0	2.020715E+0	1.995800E+0	2.092662E+0	2.108802E+0	2.061710E+0	2.015517E+0	2.052690E+0	2.026424E+0	1.988148E+0	2.011266E+0	2.086894E+0	2.025053E+0	2.004051E+0	2.035905E+0	1.978946E+0	2.004527E+0	1.973601E+0	2.074439E+0	2.072136E+0	2.045771E+0	2.023903E+0	2.015918E+0	2.125772E+0	2.027286E+0	1.983648E+0	1.935957E+0	1.999441E+0	2.023487E+0	2.000729E+0	2.006790E+0	2.062807E+0	2.004462E+0	2.044003E+0	2.028360E+0	2.007034E+0	2.027824E+0	1.965025E+0	2.051054E+0	2.005576E+0	2.018409E+0	2.009083E+0	1.946641E+0	2.084950E+0	1.999683E+0	2.033537E+0	2.009559E+0	2.004243E+0	2.010251E+0	2.037744E+0	1.996282E+0	2.007579E+0	1.997381E+0	1.999952E+0	1.999783E+0	2.061569E+0	1.996829E+0	2.027484E+0	1.956158E+0	2.022215E+0	2.054920E+0	2.049579E+0	1.986965E+0	1.993330E+0	1.989798E+0	1.972497E+0	2.025582E+0	1.985941E+0	1.992091E+0	1.980017E+0	2.021489E+0	1.935955E+0	2.057668E+0	2.002349E+0	1.980545E+0	1.979205E+0	1.976999E+0	2.062538E+0	2.017919E+0	1.990775E+0	1.983333E+0	2.035323E+0	1.981755E+0	1.957296E+0	1.942107E+0	1.914390E+0	2.040329E+0	1.983989E+0	1.911130E+0	2.027671E+0	2.053419E+0	1.952780E+0	1.994067E+0	1.990582E+0	2.020936E+0	2.006919E+0	1.928834E+0	1.994844E+0	2.018770E+0	2.020808E+0	1.962387E+0	1.966850E+0	2.023119E+0	2.034741E+0	1.961517E+0	1.910122E+0	2.032326E+0	1.993203E+0	2.012094E+0	2.030458E+0	2.003394E+0	2.053492E+0	1.871820E+0	1.957590E+0	1.996226E+0	1.973087E+0	1.923238E+0	1.955441E+0	1.943294E+0	1.944477E+0	2.000854E+0	1.970900E+0	1.890147E+0	1.955967E+0	2.032618E+0	1.970807E+0	1.970160E+0	1.959973E+0	1.972271E+0	1.936597E+0	2.085306E+0	1.966903E+0	1.901213E+0	1.875391E+0	1.986483E+0	1.977740E+0	2.009399E+0
5.402950E+2	1.996829E+0	1.981411E+0	1.969442E+0	1.908772E+0	2.007414E+0	1.960252E+0	1.893036E+0	1.926519E+0	1.961527E+0	1.932030E+0	1.928136E+0	1.964995E+0	1.950180E+0	1.953959E+0	1.939937E+0	1.997086E+0	2.020706E+0	1.959865E+0	1.928174E+0	1.982630E+0	1.959426E+0	1.951550E+0	1.919972E+0	1.986389E+0	2.058698E+0	2.000830E+0	1.981543E+0	1.940938E+0	1.926050E+0	1.902726E+0	2.008712E+0	1.949933E+0	1.874910E+0	1.978634E+0	1.948971E+0	1.915963E+0	1.926939E+0	1.975884E+0	1.918547E+0	1.945358E+0	1.899847E+0	1.926148E+0	1.974911E+0	1.876945E+0	1.950790E+0	1.869398E+0	1.955968E+0	1.933671E+0	1.955972E+0	1.937713E+0	1.945544E+0	1.924679E+0	1.996223E+0	1.937604E+0	1.956506E+0	1.866652E+0	1.974222E+0	1.958994E+0	1.908013E+0	1.905049E+0	1.941421E+0	1.946273E+0	1.877738E+0	1.936470E+0	1.955363E+0	1.955489E+0	1.954656E+0	1.931631E+0	1.976870E+0	1.925774E+0	1.953033E+0	1.896039E+0	2.001813E+0	1.965432E+0	1.958460E+0	1.958269E+0	1.905534E+0	1.929056E+0	1.898322E+0	1.955550E+0	1.912379E+0	1.971464E+0	1.960101E+0	1.964573E+0	1.974948E+0	1.973433E+0	1.899616E+0	1.907987E+0	1.931543E+0	1.880858E+0	1.954113E+0	1.933478E+0	1.872077E+0	1.950746E+0	1.910522E+0	1.949814E+0	1.847218E+0	1.866814E+0	1.910423E+0	1.907519E+0	1.910511E+0	1.979006E+0	1.896316E+0	1.878540E+0	1.923147E+0	1.822790E+0	1.885900E+0	1.954788E+0	1.898008E+0	1.894866E+0	1.929165E+0	1.941493E+0	1.947525E+0	1.891979E+0	1.917788E+0	1.903342E+0	1.930183E+0	1.884935E+0	1.853698E+0	1.861326E+0	1.945944E+0	1.891679E+0	1.909694E+0	1.930239E+0	1.919977E+0	1.896083E+0	1.848835E+0	1.850081E+0	1.921275E+0	1.877187E+0	1.964277E+0	1.839061E+0	1.922695E+0	1.908234E+0	1.888018E+0	1.905101E+0	1.884006E+0	1.917735E+0	1.868704E+0	1.861414E+0	1.876149E+0	1.891028E+0	1.859559E+0	1.859912E+0	1.908986E+0	1.941222E+0	1.832062E+0	1.905720E+0	1.896361E+0	1.908491E+0	1.851635E+0	1.880979E+0	1.955683E+0	1.888329E+0	1.904315E+0	1.927943E+0	1.848464E+0	1.916722E+0	1.852400E+0	1.893114E+0	1.896398E+0	1.901857E+0	1.874820E+0	1.860865E+0	1.986011E+0	1.874554E+0	1.831320E+0	1.874041E+0	1.897808E+0	1.828063E+0	1.857362E+0
5.405080E+2	1.842155E+0	1.892104E+0	1.889238E+0	1.787688E+0	1.856850E+0	1.821192E+0	1.879162E+0	1.847144E+0	1.864150E+0	1.785104E+0	1.809751E+0	1.860417E+0	1.825548E+0	1.834583E+0	1.840466E+0	1.808087E+0	1.853685E+0	1.853474E+0	1.758651E+0	1.899727E+0	1.836725E+0	1.869115E+0	1.807815E+0	1.897590E+0	1.896913E+0	1.811654E+0	1.896047E+0	1.827883E+0	1.848251E+0	1.803719E+0	1.856589E+0	1.864750E+0	1.838848E+0	1.868263E+0	1.936127E+0	1.874576E+0	1.852722E+0	1.838291E+0	1.865589E+0	1.905461E+0	1.756370E+0	1.810345E+0	1.809716E+0	1.844006E+0	1.908670E+0	1.853156E+0	1.820660E+0	1.887242E+0	1.860475E+0	1.832760E+0	1.862631E+0	1.859112E+0	1.855796E+0	1.852017E+0	1.798466E+0	1.830997E+0	1.826105E+0	1.908950E+0	1.808144E+0	1.825716E+0	1.784372E+0	1.887850E+0	1.718936E+0	1.765031E+0	1.787142E+0	1.925919E+0	1.835801E+0	1.780098E+0	1.796651E+0	1.813877E+0	1.797294E+0	1.782031E+0	1.800211E+0	1.821415E+0	1.902888E+0	1.857070E+0	1.749079E+0	1.880046E+0	1.862985E+0	1.895400E+0	1.892557E+0	1.812717E+0	1.862876E+0	1.852537E+0	1.831650E+0	1.834748E+0	1.836434E+0	1.818039E+0	1.837083E+0	1.777579E+0	1.842326E+0	1.827504E+0	1.796733E+0	1.768365E+0	1.811410E+0	1.849284E+0	1.759983E+0	1.817472E+0	1.752297E+0	1.861111E+0	1.873469E+0	1.801392E+0	1.843197E+0	1.773740E+0	1.849219E+0	1.798157E+0	1.792883E+0	1.835758E+0	1.814435E+0	1.751072E+0	1.838247E+0	1.799985E+0	1.779225E+0	1.869076E+0	1.828866E+0	1.786819E+0	1.822696E+0	1.793801E+0	1.756938E+0	1.769117E+0	1.873456E+0	1.792957E+0	1.810809E+0	1.847926E+0	1.799971E+0	1.780823E+0	1.793720E+0	1.758336E+0	1.745280E+0	1.826338E+0	1.800887E+0	1.793572E+0	1.775857E+0	1.795403E+0	1.817358E+0	1.737904E+0	1.800497E+0	1.812817E+0	1.833281E+0	1.748423E+0	1.806276E+0	1.784915E+0	1.853987E+0	1.856460E+0	1.770809E+0	1.830880E+0	1.749149E+0	1.790882E+0	1.832440E+0	1.839187E+0	1.731229E+0	1.766450E+0	1.768763E+0	1.796508E+0	1.880257E+0	1.739003E+0	1.780940E+0	1.778704E+0	1.782979E+0	1.787457E+0	1.771768E+0	1.834464E+0	1.789613E+0	1.796455E+0	1.840381E+0	1.813711E+0	1.769423E+0	1.813936E+0	1.846928E+0	1.841612E+0	1.761391E+0
5.407580E+2	1.782219E+0	1.820482E+0	1.837701E+0	1.797729E+0	1.824368E+0	1.814277E+0	1.810179E+0	1.764377E+0	1.811340E+0	1.825593E+0	1.788448E+0	1.861570E+0	1.784757E+0	1.834684E+0	1.787649E+0	1.820715E+0	1.797672E+0	1.886911E+0	1.779745E+0	1.753166E+0	1.822476E+0	1.803035E+0	1.795114E+0	1.833943E+0	1.914226E+0	1.810591E+0	1.889471E+0	1.779749E+0	1.791026E+0	1.769447E+0	1.731000E+0	1.770713E+0	1.824640E+0	1.846122E+0	1.844298E+0	1.810550E+0	1.833094E+0	1.813466E+0	1.838507E+0	1.815458E+0	1.866030E+0	1.792025E+0	1.861154E+0	1.806938E+0	1.790216E+0	1.802957E+0	1.819486E+0	1.762563E+0	1.864034E+0	1.784225E+0	1.759865E+0	1.783943E+0	1.844972E+0	1.801056E+0	1.749567E+0	1.729764E+0	1.768604E+0	1.885624E+0	1.722380E+0	1.760305E+0	1.772841E+0	1.718872E+0	1.763844E+0	1.735347E+0	1.798462E+0	1.806057E+0	1.820036E+0	1.867659E+0	1.770984E+0	1.785740E+0	1.859624E+0	1.736995E+0	1.777196E+0	1.811238E+0	1.781206E+0	1.788252E+0	1.791453E+0	1.770768E+0	1.772258E+0	1.838487E+0	1.810791E+0	1.725787E+0	1.749860E+0	1.817872E+0	1.762002E+0	1.752041E+0	1.707358E+0	1.709520E+0	1.750917E+0	1.736700E+0	1.824358E+0	1.729718E+0	1.709376E+0	1.759699E+0	1.748595E+0	1.804150E+0	1.776050E+0	1.775490E+0	1.720172E+0	1.798241E+0	1.818869E+0	1.767352E+0	1.768107E+0	1.719930E+0	1.794510E+0	1.716355E+0	1.839850E+0	1.783355E+0	1.744087E+0	1.758157E+0	1.749506E+0	1.758419E+0	1.807312E+0	1.744242E+0	1.722318E+0	1.831242E+0	1.724000E+0	1.702987E+0	1.720554E+0	1.746556E+0	1.795346E+0	1.756599E+0	1.712194E+0	1.810689E+0	1.773756E+0	1.810099E+0	1.741595E+0	1.733609E+0	1.744970E+0	1.805181E+0	1.717318E+0	1.757727E+0	1.746271E+0	1.777341E+0	1.746883E+0	1.756931E+0	1.778460E+0	1.743478E+0	1.712585E+0	1.681320E+0	1.729233E+0	1.753865E+0	1.736817E+0	1.773843E+0	1.718747E+0	1.835630E+0	1.694105E+0	1.808321E+0	1.761742E+0	1.761790E+0	1.722370E+0	1.744542E+0	1.747572E+0	1.766126E+0	1.782892E+0	1.759386E+0	1.698454E+0	1.844238E+0	1.789348E+0	1.790876E+0	1.715529E+0	1.740731E+0	1.778128E+0	1.715424E+0	1.770419E+0	1.811445E+0	1.734487E+0	1.667861E+0	1.731632E+0	1.813723E+0	1.672823E+0
5.410240E+2	1.762251E+0	1.704806E+0	1.720945E+0	1.684081E+0	1.755700E+0	1.733218E+0	1.742788E+0	1.731707E+0	1.698180E+0	1.766997E+0	1.724185E+0	1.749717E+0	1.670329E+0	1.683280E+0	1.737059E+0	1.756877E+0	1.760106E+0	1.725095E+0	1.661227E+0	1.720710E+0	1.766598E+0	1.681607E+0	1.639564E+0	1.750743E+0	1.783781E+0	1.718687E+0	1.746412E+0	1.682847E+0	1.695982E+0	1.691680E+0	1.703509E+0	1.718146E+0	1.668539E+0	1.699812E+0	1.743918E+0	1.692807E+0	1.708724E+0	1.720848E+0	1.687457E+0	1.657227E+0	1.722399E+0	1.689061E+0	1.670008E+0	1.699836E+0	1.780817E+0	1.689652E+0	1.693517E+0	1.703562E+0	1.757220E+0	1.727812E+0	1.697299E+0	1.656885E+0	1.753614E+0	1.693587E+0	1.719046E+0	1.716054E+0	1.715897E+0	1.733585E+0	1.653696E+0	1.688159E+0	1.654048E+0	1.717357E+0	1.679106E+0	1.723758E+0	1.675300E+0	1.731765E+0	1.743503E+0	1.705394E+0	1.742568E+0	1.729333E+0	1.651998E+0	1.702262E+0	1.734883E+0	1.770175E+0	1.707169E+0	1.719915E+0	1.704406E+0	1.770529E+0	1.715300E+0	1.695288E+0	1.748662E+0	1.699403E+0	1.686660E+0	1.660626E+0	1.676055E+0	1.634625E+0	1.690216E+0	1.669084E+0	1.657855E+0	1.686220E+0	1.690603E+0	1.692510E+0	1.652842E+0	1.707137E+0	1.713281E+0	1.724372E+0	1.712010E+0	1.722404E+0	1.692860E+0	1.726935E+0	1.689061E+0	1.681337E+0	1.661335E+0	1.627636E+0	1.697031E+0	1.739897E+0	1.770346E+0	1.735280E+0	1.685542E+0	1.723523E+0	1.692813E+0	1.673733E+0	1.635949E+0	1.687700E+0	1.688107E+0	1.717156E+0	1.679172E+0	1.657277E+0	1.653879E+0	1.597007E+0	1.781073E+0	1.703315E+0	1.700888E+0	1.699497E+0	1.721603E+0	1.752032E+0	1.621244E+0	1.684962E+0	1.704572E+0	1.669756E+0	1.721414E+0	1.646365E+0	1.637192E+0	1.670657E+0	1.638514E+0	1.687218E+0	1.698600E+0	1.662272E+0	1.756985E+0	1.634016E+0	1.654584E+0	1.675489E+0	1.760683E+0	1.719004E+0	1.654422E+0	1.728639E+0	1.603080E+0	1.714983E+0	1.690124E+0	1.725749E+0	1.614956E+0	1.692083E+0	1.667864E+0	1.712064E+0	1.745524E+0	1.682251E+0	1.631661E+0	1.694424E+0	1.690116E+0	1.739248E+0	1.679361E+0	1.724824E+0	1.734380E+0	1.643166E+0	1.740426E+0	1.688971E+0	1.674057E+0	1.618081E+0	1.667028E+0	1.728633E+0	1.754489E+0
5.412740E+2	1.691214E+0	1.642812E+0	1.677956E+0	1.578378E+0	1.638998E+0	1.650187E+0	1.614652E+0	1.642761E+0	1.675534E+0	1.694603E+0	1.555896E+0	1.660021E+0	1.602161E+0	1.635144E+0	1.615058E+0	1.648205E+0	1.619664E+0	1.610934E+0	1.584234E+0	1.650788E+0	1.691300E+0	1.607979E+0	1.595931E+0	1.649278E+0	1.692527E+0	1.631177E+0	1.637304E+0	1.605996E+0	1.627166E+0	1.627490E+0	1.642048E+0	1.625576E+0	1.613022E+0	1.604510E+0	1.622274E+0	1.628329E+0	1.626862E+0	1.613225E+0	1.589211E+0	1.590846E+0	1.636700E+0	1.616032E+0	1.611984E+0	1.645702E+0	1.657701E+0	1.617654E+0	1.606943E+0	1.595366E+0	1.567080E+0	1.634709E+0	1.584717E+0	1.566677E+0	1.607038E+0	1.630985E+0	1.607804E+0	1.661534E+0	1.663560E+0	1.636676E+0	1.567608E+0	1.686922E+0	1.626508E+0	1.637107E+0	1.614209E+0	1.584287E+0	1.552741E+0	1.639485E+0	1.621337E+0	1.557923E+0	1.713298E+0	1.644526E+0	1.625389E+0	1.601389E+0	1.626591E+0	1.642909E+0	1.567617E+0	1.658833E+0	1.558552E+0	1.605748E+0	1.609170E+0	1.660911E+0	1.604537E+0	1.628277E+0	1.675552E+0	1.646109E+0	1.630622E+0	1.602542E+0	1.572183E+0	1.597252E+0	1.618716E+0	1.610424E+0	1.583207E+0	1.596852E+0	1.613373E+0	1.658766E+0	1.629192E+0	1.601250E+0	1.572373E+0	1.621489E+0	1.586775E+0	1.638666E+0	1.633047E+0	1.604045E+0	1.588724E+0	1.605798E+0	1.623993E+0	1.621039E+0	1.636540E+0	1.618751E+0	1.604850E+0	1.607260E+0	1.561872E+0	1.606008E+0	1.576060E+0	1.682535E+0	1.633014E+0	1.629847E+0	1.576557E+0	1.582519E+0	1.602745E+0	1.559485E+0	1.662694E+0	1.546682E+0	1.547975E+0	1.600477E+0	1.620976E+0	1.639703E+0	1.583842E+0	1.649945E+0	1.593423E+0	1.604339E+0	1.610123E+0	1.563611E+0	1.584078E+0	1.648340E+0	1.567125E+0	1.596546E+0	1.590282E+0	1.517808E+0	1.558025E+0	1.552074E+0	1.631427E+0	1.603956E+0	1.616245E+0	1.604900E+0	1.520855E+0	1.607922E+0	1.596725E+0	1.598175E+0	1.608107E+0	1.621872E+0	1.572849E+0	1.606069E+0	1.599891E+0	1.564730E+0	1.637450E+0	1.611430E+0	1.554666E+0	1.579623E+0	1.610202E+0	1.655556E+0	1.543254E+0	1.624997E+0	1.632617E+0	1.577384E+0	1.607322E+0	1.629045E+0	1.587241E+0	1.549728E+0	1.629640E+0	1.634060E+0	1.669037E+0
5.415350E+2	1.543575E+0	1.437100E+0	1.542585E+0	1.384048E+0	1.496099E+0	1.500516E+0	1.445253E+0	1.491488E+0	1.495131E+0	1.467251E+0	1.462819E+0	1.534815E+0	1.452223E+0	1.460048E+0	1.487034E+0	1.509430E+0	1.528486E+0	1.511429E+0	1.483205E+0	1.560306E+0	1.480952E+0	1.465842E+0	1.465466E+0	1.483537E+0	1.525391E+0	1.516367E+0	1.487305E+0	1.420404E+0	1.492526E+0	1.522191E+0	1.478806E+0	1.487693E+0	1.406285E+0	1.479264E+0	1.539458E+0	1.507563E+0	1.482471E+0	1.503310E+0	1.446646E+0	1.480868E+0	1.482635E+0	1.482682E+0	1.436987E+0	1.479753E+0	1.474174E+0	1.415397E+0	1.473275E+0	1.419171E+0	1.516402E+0	1.484478E+0	1.429719E+0	1.388661E+0	1.500174E+0	1.495377E+0	1.457124E+0	1.453433E+0	1.450474E+0	1.490502E+0	1.384814E+0	1.427060E+0	1.460798E+0	1.446870E+0	1.442557E+0	1.502890E+0	1.516880E+0	1.504154E+0	1.482446E+0	1.484532E+0	1.500499E+0	1.469347E+0	1.459084E+0	1.472791E+0	1.512800E+0	1.524273E+0	1.446413E+0	1.504854E+0	1.440963E+0	1.507756E+0	1.490674E+0	1.418968E+0	1.436078E+0	1.429009E+0	1.471040E+0	1.476903E+0	1.444734E+0	1.408983E+0	1.503861E+0	1.461250E+0	1.402930E+0	1.475325E+0	1.511712E+0	1.421232E+0	1.460821E+0	1.448600E+0	1.429171E+0	1.427685E+0	1.419274E+0	1.442781E+0	1.397561E+0	1.447264E+0	1.469687E+0	1.416108E+0	1.414104E+0	1.469845E+0	1.404537E+0	1.476073E+0	1.473344E+0	1.410323E+0	1.510888E+0	1.482467E+0	1.463825E+0	1.427514E+0	1.419771E+0	1.527356E+0	1.456906E+0	1.477606E+0	1.412813E+0	1.437609E+0	1.439372E+0	1.467767E+0	1.461795E+0	1.446903E+0	1.458886E+0	1.447169E+0	1.465255E+0	1.447763E+0	1.411695E+0	1.448087E+0	1.531417E+0	1.435209E+0	1.468689E+0	1.436622E+0	1.440194E+0	1.479951E+0	1.426029E+0	1.449746E+0	1.424700E+0	1.445814E+0	1.401773E+0	1.436883E+0	1.434893E+0	1.490629E+0	1.503170E+0	1.480951E+0	1.401094E+0	1.503464E+0	1.388837E+0	1.487932E+0	1.474555E+0	1.502058E+0	1.441097E+0	1.459051E+0	1.455031E+0	1.460499E+0	1.458355E+0	1.439140E+0	1.407207E+0	1.502929E+0	1.470108E+0	1.462825E+0	1.436977E+0	1.468346E+0	1.496786E+0	1.395463E+0	1.507318E+0	1.418320E+0	1.479130E+0	1.393250E+0	1.500946E+0	1.446085E+0	1.511454E+0
5.417600E+2	1.304518E+0	1.252186E+0	1.284678E+0	1.283137E+0	1.307468E+0	1.257350E+0	1.243700E+0	1.301684E+0	1.291057E+0	1.322679E+0	1.279263E+0	1.263200E+0	1.229706E+0	1.266869E+0	1.284572E+0	1.276736E+0	1.320258E+0	1.279088E+0	1.274814E+0	1.276704E+0	1.277272E+0	1.251375E+0	1.280077E+0	1.249602E+0	1.305481E+0	1.266238E+0	1.277162E+0	1.206315E+0	1.272226E+0	1.272304E+0	1.263009E+0	1.260585E+0	1.259132E+0	1.262116E+0	1.273022E+0	1.231127E+0	1.283797E+0	1.322951E+0	1.287949E+0	1.316431E+0	1.265752E+0	1.258969E+0	1.246499E+0	1.278566E+0	1.295465E+0	1.285109E+0	1.222190E+0	1.274722E+0	1.252333E+0	1.280297E+0	1.228210E+0	1.182429E+0	1.212290E+0	1.270111E+0	1.284899E+0	1.292377E+0	1.336010E+0	1.279540E+0	1.287369E+0	1.261232E+0	1.279024E+0	1.228605E+0	1.276543E+0	1.313794E+0	1.257593E+0	1.281401E+0	1.254970E+0	1.240684E+0	1.311136E+0	1.244549E+0	1.242347E+0	1.213296E+0	1.283601E+0	1.292435E+0	1.268051E+0	1.312221E+0	1.214938E+0	1.263287E+0	1.239189E+0	1.296893E+0	1.282357E+0	1.267346E+0	1.287929E+0	1.269060E+0	1.226958E+0	1.225423E+0	1.252653E+0	1.243874E+0	1.288370E+0	1.218355E+0	1.273248E+0	1.231579E+0	1.258533E+0	1.283431E+0	1.274374E+0	1.257224E+0	1.242633E+0	1.285623E+0	1.201672E+0	1.283727E+0	1.302461E+0	1.254614E+0	1.246102E+0	1.244996E+0	1.236257E+0	1.281771E+0	1.302910E+0	1.293547E+0	1.283007E+0	1.296597E+0	1.242515E+0	1.347812E+0	1.240334E+0	1.306786E+0	1.307579E+0	1.243261E+0	1.246538E+0	1.244723E+0	1.271194E+0	1.270123E+0	1.307187E+0	1.297826E+0	1.260535E+0	1.224945E+0	1.271803E+0	1.288326E+0	1.250230E+0	1.221048E+0	1.222306E+0	1.281787E+0	1.282322E+0	1.285804E+0	1.243957E+0	1.260960E+0	1.339029E+0	1.240692E+0	1.205367E+0	1.288646E+0	1.286302E+0	1.246091E+0	1.262252E+0	1.296626E+0	1.281815E+0	1.256964E+0	1.201676E+0	1.295280E+0	1.208051E+0	1.295979E+0	1.235276E+0	1.247909E+0	1.241365E+0	1.288214E+0	1.297299E+0	1.285476E+0	1.293703E+0	1.285827E+0	1.238373E+0	1.307685E+0	1.245471E+0	1.298011E+0	1.224956E+0	1.267207E+0	1.293075E+0	1.223004E+0	1.330314E+0	1.252184E+0	1.272565E+0	1.287323E+0	1.313620E+0	1.287792E+0	1.267278E+0
5.420210E+2	1.163733E+0	1.155793E+0	1.113296E+0	1.122364E+0	1.152721E+0	1.099985E+0	1.097923E+0	1.133692E+0	1.088027E+0	1.118844E+0	1.121427E+0	1.169663E+0	1.137896E+0	1.105143E+0	1.128200E+0	1.115035E+0	1.105446E+0	1.136420E+0	1.102894E+0	1.136023E+0	1.082056E+0	1.141751E+0	1.117275E+0	1.118081E+0	1.149495E+0	1.114163E+0	1.120534E+0	1.100878E+0	1.118199E+0	1.038081E+0	1.117989E+0	1.089349E+0	1.150098E+0	1.153689E+0	1.093743E+0	1.164375E+0	1.079426E+0	1.181402E+0	1.091124E+0	1.154918E+0	1.115503E+0	1.098495E+0	1.146961E+0	1.080980E+0	1.101950E+0	1.121011E+0	1.125783E+0	1.165558E+0	1.159930E+0	1.128246E+0	1.138356E+0	1.149261E+0	1.168179E+0	1.145037E+0	1.148454E+0	1.088830E+0	1.107870E+0	1.155370E+0	1.138572E+0	1.107702E+0	1.086906E+0	1.153490E+0	1.117637E+0	1.105368E+0	1.141727E+0	1.107447E+0	1.123868E+0	1.096285E+0	1.180111E+0	1.116352E+0	1.110773E+0	1.108076E+0	1.149096E+0	1.146360E+0	1.112835E+0	1.155761E+0	1.100649E+0	1.122269E+0	1.108650E+0	1.134381E+0	1.128316E+0	1.088034E+0	1.145820E+0	1.130601E+0	1.150325E+0	1.109279E+0	1.142422E+0	1.095196E+0	1.155895E+0	1.125216E+0	1.172018E+0	1.076380E+0	1.145025E+0	1.115317E+0	1.099519E+0	1.105408E+0	1.136930E+0	1.119260E+0	1.133921E+0	1.135903E+0	1.174501E+0	1.135064E+0	1.116534E+0	1.197990E+0	1.092781E+0	1.122179E+0	1.094210E+0	1.067716E+0	1.075880E+0	1.126587E+0	1.159167E+0	1.141803E+0	1.103915E+0	1.155186E+0	1.144803E+0	1.124400E+0	1.114133E+0	1.092794E+0	1.090456E+0	1.078968E+0	1.150180E+0	1.104924E+0	1.103797E+0	1.132698E+0	1.095697E+0	1.121173E+0	1.093001E+0	1.098982E+0	1.110913E+0	1.070416E+0	1.128029E+0	1.092844E+0	1.170451E+0	1.123123E+0	1.109808E+0	1.114648E+0	1.103710E+0	1.127158E+0	1.083484E+0	1.117741E+0	1.134162E+0	1.079794E+0	1.105344E+0	1.098029E+0	1.063861E+0	1.115169E+0	1.086462E+0	1.133428E+0	1.121798E+0	1.073816E+0	1.063697E+0	1.106022E+0	1.156073E+0	1.087944E+0	1.097837E+0	1.151573E+0	1.101505E+0	1.143113E+0	1.083985E+0	1.137608E+0	1.095916E+0	1.146314E+0	1.099950E+0	1.140349E+0	1.146023E+0	1.114073E+0	1.098518E+0	1.126470E+0	1.138041E+0	1.073983E+0	1.158482E+0
5.422620E+2	1.041947E+0	9.851478E-1	1.083952E+0	9.518819E-1	1.018482E+0	9.731513E-1	9.931101E-1	1.024836E+0	9.730255E-1	1.025059E+0	1.031041E+0	1.028045E+0	9.723864E-1	9.929382E-1	1.010800E+0	1.028543E+0	1.065654E+0	1.060564E+0	9.960906E-1	1.015349E+0	1.005672E+0	1.017053E+0	1.051163E+0	1.004624E+0	1.112565E+0	1.046769E+0	1.054268E+0	9.654029E-1	1.009548E+0	1.009692E+0	1.038952E+0	1.003247E+0	1.003858E+0	1.025533E+0	1.024482E+0	9.789677E-1	1.011589E+0	1.016778E+0	9.667145E-1	1.030269E+0	1.006070E+0	9.975725E-1	1.019396E+0	1.011885E+0	9.773380E-1	9.892625E-1	1.045104E+0	1.037420E+0	1.035372E+0	1.036858E+0	1.024022E+0	9.982678E-1	1.012958E+0	1.016576E+0	1.003110E+0	1.022332E+0	1.007875E+0	1.045327E+0	1.004533E+0	1.028023E+0	1.026502E+0	9.847876E-1	1.011735E+0	1.005098E+0	1.010873E+0	1.041999E+0	1.014273E+0	1.081534E+0	1.060784E+0	1.040636E+0	1.025376E+0	9.895176E-1	1.008229E+0	1.017736E+0	1.013289E+0	1.037594E+0	9.975882E-1	1.008099E+0	9.758085E-1	1.009964E+0	1.007454E+0	1.004294E+0	1.043417E+0	1.029744E+0	1.054110E+0	1.050011E+0	1.038521E+0	1.000394E+0	1.033152E+0	9.880858E-1	1.035252E+0	9.958448E-1	1.016897E+0	1.001557E+0	9.767863E-1	1.020791E+0	1.016639E+0	9.934945E-1	9.821797E-1	1.017380E+0	9.654539E-1	9.984500E-1	1.002598E+0	1.019688E+0	9.855208E-1	9.870009E-1	1.023278E+0	1.024163E+0	1.001896E+0	1.018996E+0	1.020615E+0	1.022694E+0	9.958256E-1	1.026721E+0	1.023396E+0	1.054755E+0	1.032991E+0	1.020785E+0	9.970555E-1	1.006016E+0	1.068685E+0	9.981931E-1	9.849715E-1	1.031056E+0	1.030649E+0	1.041350E+0	1.012710E+0	1.028032E+0	1.032486E+0	1.034235E+0	1.068183E+0	1.010114E+0	1.028914E+0	1.042618E+0	1.007003E+0	1.028527E+0	1.056859E+0	1.004885E+0	9.724617E-1	9.963791E-1	1.017791E+0	9.928887E-1	1.015404E+0	1.036042E+0	1.017324E+0	1.046149E+0	1.012027E+0	1.012633E+0	1.001168E+0	1.047523E+0	9.645813E-1	1.002128E+0	9.976429E-1	1.019835E+0	1.039920E+0	9.933923E-1	9.870426E-1	1.005940E+0	1.005462E+0	9.871431E-1	1.011857E+0	1.058576E+0	1.036691E+0	1.036143E+0	1.042263E+0	9.637764E-1	9.946867E-1	1.015762E+0	1.053215E+0	1.014174E+0	1.074889E+0
5.425240E+2	9.957506E-1	1.022567E+0	9.805738E-1	9.964773E-1	9.497217E-1	1.009857E+0	9.722566E-1	9.759048E-1	9.656929E-1	1.003330E+0	9.920853E-1	9.655589E-1	9.883734E-1	9.708140E-1	9.902678E-1	9.911291E-1	1.026375E+0	9.978163E-1	9.292637E-1	9.981892E-1	9.944408E-1	9.543353E-1	9.315136E-1	9.732671E-1	9.929582E-1	9.486513E-1	1.021462E+0	9.920380E-1	9.542006E-1	9.547706E-1	9.798042E-1	9.939858E-1	1.006982E+0	9.934799E-1	9.740703E-1	9.448437E-1	1.000397E+0	9.868669E-1	9.849037E-1	9.665487E-1	1.013042E+0	9.427296E-1	9.981637E-1	9.472548E-1	9.764137E-1	9.740981E-1	9.689713E-1	9.537491E-1	1.006094E+0	9.788841E-1	9.988291E-1	9.800355E-1	1.005339E+0	9.431730E-1	9.507939E-1	9.964330E-1	1.004629E+0	1.006336E+0	9.951787E-1	9.872388E-1	9.794641E-1	9.852210E-1	9.666370E-1	1.010295E+0	9.665013E-1	9.987175E-1	1.026181E+0	9.957252E-1	9.708448E-1	9.829633E-1	9.850694E-1	9.584859E-1	9.807304E-1	9.894609E-1	9.575490E-1	1.023635E+0	9.652789E-1	9.874184E-1	1.018107E+0	9.592184E-1	9.936831E-1	9.881872E-1	9.723228E-1	9.638281E-1	9.701056E-1	9.624971E-1	9.616055E-1	9.980771E-1	1.015452E+0	9.356069E-1	9.501350E-1	9.831481E-1	1.003586E+0	9.378822E-1	9.925427E-1	9.503724E-1	9.421261E-1	9.698771E-1	9.686456E-1	9.814317E-1	9.896751E-1	9.552844E-1	9.827626E-1	9.726583E-1	9.806317E-1	8.947234E-1	9.678227E-1	9.884973E-1	9.499794E-1	9.689880E-1	9.626546E-1	9.676478E-1	9.564877E-1	9.678912E-1	1.003658E+0	9.617308E-1	9.784561E-1	9.714453E-1	9.544261E-1	9.370568E-1	1.031875E+0	9.815680E-1	9.550109E-1	1.019735E+0	1.027917E+0	1.000282E+0	9.955016E-1	1.012595E+0	1.021892E+0	9.998069E-1	9.378720E-1	1.016529E+0	9.720310E-1	9.738108E-1	1.002532E+0	9.702445E-1	9.594667E-1	9.427649E-1	1.035598E+0	9.504878E-1	9.451533E-1	9.155903E-1	9.631321E-1	1.024282E+0	9.987656E-1	9.870250E-1	9.519899E-1	1.071220E+0	9.816737E-1	9.365777E-1	9.438316E-1	9.796921E-1	1.035062E+0	9.689315E-1	9.963261E-1	1.033523E+0	9.288649E-1	9.726833E-1	1.049254E+0	1.012750E+0	9.598643E-1	9.879188E-1	9.657742E-1	1.007333E+0	1.023746E+0	1.010107E+0	1.012690E+0	9.602865E-1	1.044849E+0	1.020247E+0	9.321231E-1
5.427650E+2	9.936422E-1	1.004519E+0	1.027474E+0	9.906042E-1	1.051069E+0	9.873158E-1	1.014317E+0	1.007345E+0	9.983532E-1	1.041110E+0	1.007356E+0	1.034658E+0	1.022813E+0	1.044725E+0	9.983801E-1	1.056991E+0	1.056519E+0	1.017785E+0	1.008281E+0	1.016815E+0	1.032740E+0	1.048198E+0	1.013874E+0	1.046943E+0	1.058909E+0	9.972879E-1	1.026937E+0	9.744686E-1	1.013618E+0	1.038621E+0	1.037189E+0	1.036917E+0	9.813352E-1	1.033420E+0	9.961738E-1	1.006532E+0	1.086082E+0	1.007670E+0	1.020805E+0	1.040419E+0	1.013485E+0	1.018141E+0	1.032657E+0	1.024686E+0	1.017562E+0	1.049921E+0	1.033171E+0	1.027271E+0	1.009169E+0	1.038643E+0	9.956975E-1	1.019328E+0	1.074271E+0	1.041564E+0	1.012256E+0	1.015191E+0	1.024743E+0	9.929236E-1	1.006892E+0	1.003258E+0	9.797727E-1	1.038586E+0	1.014378E+0	1.074342E+0	9.773750E-1	1.004180E+0	1.043158E+0	1.043349E+0	1.059498E+0	9.993673E-1	1.002046E+0	9.748072E-1	9.993904E-1	1.065950E+0	1.041744E+0	1.005713E+0	9.799316E-1	9.903372E-1	1.036237E+0	9.767589E-1	1.009610E+0	1.003597E+0	1.015825E+0	1.016791E+0	1.030700E+0	9.921585E-1	1.042233E+0	1.001064E+0	9.798564E-1	9.998432E-1	1.050486E+0	1.004146E+0	1.049363E+0	1.023666E+0	1.047223E+0	1.068256E+0	9.770759E-1	1.031255E+0	1.018000E+0	1.004141E+0	1.026155E+0	1.055376E+0	9.888744E-1	9.983617E-1	9.915177E-1	9.724726E-1	1.016621E+0	1.000980E+0	9.932002E-1	1.022526E+0	1.038377E+0	1.045304E+0	9.948733E-1	9.906943E-1	9.838298E-1	9.884163E-1	1.002541E+0	9.978095E-1	1.042742E+0	9.902576E-1	1.041256E+0	1.006317E+0	1.064318E+0	1.077608E+0	1.025531E+0	1.017270E+0	1.011228E+0	1.026462E+0	9.885769E-1	1.040073E+0	1.058600E+0	1.013843E+0	1.008400E+0	1.034420E+0	1.012413E+0	1.000171E+0	9.998691E-1	1.014330E+0	1.000044E+0	9.841828E-1	1.039244E+0	1.036994E+0	9.904969E-1	1.010525E+0	9.947932E-1	1.071079E+0	1.003529E+0	1.037854E+0	1.024749E+0	1.065908E+0	1.015510E+0	9.817548E-1	1.016003E+0	1.028490E+0	9.837108E-1	1.022413E+0	9.789352E-1	9.979721E-1	1.032538E+0	1.022536E+0	1.008454E+0	1.020637E+0	1.004272E+0	9.792597E-1	1.049974E+0	1.053167E+0	9.635256E-1	1.015217E+0	1.051245E+0	9.947561E-1	1.009080E+0
5.430120E+2	1.232284E+0	1.195053E+0	1.189916E+0	1.131586E+0	1.186272E+0	1.168460E+0	1.145048E+0	1.179006E+0	1.224785E+0	1.201830E+0	1.133628E+0	1.187441E+0	1.134659E+0	1.162083E+0	1.171892E+0	1.141702E+0	1.198333E+0	1.199545E+0	1.098494E+0	1.191076E+0	1.227322E+0	1.178686E+0	1.159327E+0	1.219612E+0	1.156419E+0	1.142314E+0	1.177182E+0	1.133277E+0	1.148744E+0	1.160476E+0	1.196806E+0	1.156791E+0	1.146533E+0	1.201478E+0	1.231124E+0	1.168608E+0	1.175248E+0	1.134271E+0	1.163542E+0	1.179033E+0	1.185470E+0	1.210939E+0	1.174537E+0	1.200364E+0	1.209769E+0	1.155087E+0	1.163663E+0	1.175564E+0	1.183184E+0	1.162177E+0	1.182268E+0	1.189607E+0	1.172320E+0	1.181697E+0	1.177972E+0	1.167732E+0	1.167443E+0	1.204648E+0	1.190599E+0	1.189709E+0	1.167753E+0	1.175311E+0	1.180552E+0	1.166186E+0	1.188808E+0	1.197468E+0	1.170076E+0	1.136818E+0	1.185458E+0	1.140731E+0	1.157664E+0	1.112499E+0	1.179395E+0	1.157197E+0	1.160500E+0	1.173567E+0	1.151944E+0	1.175372E+0	1.218027E+0	1.188532E+0	1.201967E+0	1.192170E+0	1.163959E+0	1.181740E+0	1.162795E+0	1.192234E+0	1.166404E+0	1.154143E+0	1.254082E+0	1.151414E+0	1.171398E+0	1.213181E+0	1.134423E+0	1.150707E+0	1.206962E+0	1.222294E+0	1.147450E+0	1.147782E+0	1.183935E+0	1.242497E+0	1.215741E+0	1.193848E+0	1.111556E+0	1.135030E+0	1.165299E+0	1.203493E+0	1.169531E+0	1.159414E+0	1.175803E+0	1.132441E+0	1.215585E+0	1.191155E+0	1.120104E+0	1.159357E+0	1.171592E+0	1.171375E+0	1.156773E+0	1.241495E+0	1.140716E+0	1.178161E+0	1.185259E+0	1.145213E+0	1.195886E+0	1.144554E+0	1.161488E+0	1.166828E+0	1.143514E+0	1.181531E+0	1.198510E+0	1.177158E+0	1.187296E+0	1.137204E+0	1.178777E+0	1.190385E+0	1.115126E+0	1.185457E+0	1.143096E+0	1.137269E+0	1.196141E+0	1.149690E+0	1.138954E+0	1.168178E+0	1.147124E+0	1.158369E+0	1.108458E+0	1.174861E+0	1.179335E+0	1.211786E+0	1.133036E+0	1.146731E+0	1.119294E+0	1.143284E+0	1.136099E+0	1.153605E+0	1.178066E+0	1.140484E+0	1.144235E+0	1.179546E+0	1.250234E+0	1.177390E+0	1.177857E+0	1.141333E+0	1.123236E+0	1.186082E+0	1.202450E+0	1.164096E+0	1.146770E+0	1.138047E+0	1.150096E+0	1.153870E+0	1.253054E+0
5.432800E+2	1.317730E+0	1.280498E+0	1.358723E+0	1.254975E+0	1.333567E+0	1.333298E+0	1.294675E+0	1.282730E+0	1.288423E+0	1.342457E+0	1.339083E+0	1.353679E+0	1.261337E+0	1.314476E+0	1.342705E+0	1.300798E+0	1.356137E+0	1.354597E+0	1.301031E+0	1.344817E+0	1.334489E+0	1.347092E+0	1.274783E+0	1.331432E+0	1.348960E+0	1.298093E+0	1.349632E+0	1.263884E+0	1.288501E+0	1.293771E+0	1.290726E+0	1.330350E+0	1.303427E+0	1.294994E+0	1.368715E+0	1.297571E+0	1.345570E+0	1.339997E+0	1.332583E+0	1.287251E+0	1.254213E+0	1.288694E+0	1.294664E+0	1.292448E+0	1.338092E+0	1.266928E+0	1.326118E+0	1.357583E+0	1.282894E+0	1.339590E+0	1.285069E+0	1.278920E+0	1.369805E+0	1.351992E+0	1.257309E+0	1.292139E+0	1.316735E+0	1.306592E+0	1.278171E+0	1.297398E+0	1.276484E+0	1.300821E+0	1.265726E+0	1.283052E+0	1.313692E+0	1.321898E+0	1.320080E+0	1.269474E+0	1.305353E+0	1.315165E+0	1.325635E+0	1.235335E+0	1.336161E+0	1.317691E+0	1.305263E+0	1.345308E+0	1.294244E+0	1.312161E+0	1.316511E+0	1.340264E+0	1.249097E+0	1.319174E+0	1.302075E+0	1.277317E+0	1.337272E+0	1.320524E+0	1.321211E+0	1.346151E+0	1.309099E+0	1.304088E+0	1.305785E+0	1.283123E+0	1.334609E+0	1.289815E+0	1.342343E+0	1.315795E+0	1.273138E+0	1.274294E+0	1.291413E+0	1.296132E+0	1.328968E+0	1.274211E+0	1.255321E+0	1.291170E+0	1.294543E+0	1.330174E+0	1.243377E+0	1.288159E+0	1.309844E+0	1.272963E+0	1.337888E+0	1.275628E+0	1.305716E+0	1.296021E+0	1.318991E+0	1.337259E+0	1.285908E+0	1.305696E+0	1.344569E+0	1.312083E+0	1.330579E+0	1.287651E+0	1.293620E+0	1.304552E+0	1.310760E+0	1.290304E+0	1.300499E+0	1.296431E+0	1.311407E+0	1.248990E+0	1.266791E+0	1.303519E+0	1.320899E+0	1.327937E+0	1.251170E+0	1.260007E+0	1.284111E+0	1.306066E+0	1.342561E+0	1.244007E+0	1.313132E+0	1.298228E+0	1.339551E+0	1.317021E+0	1.287817E+0	1.309730E+0	1.206468E+0	1.332707E+0	1.272301E+0	1.289515E+0	1.280547E+0	1.318598E+0	1.296347E+0	1.316868E+0	1.294589E+0	1.321084E+0	1.294650E+0	1.296483E+0	1.337139E+0	1.330408E+0	1.291394E+0	1.268603E+0	1.297363E+0	1.336886E+0	1.339037E+0	1.341003E+0	1.300195E+0	1.285253E+0	1.316909E+0	1.320522E+0	1.202683E+0
5.435110E+2	1.500424E+0	1.472880E+0	1.508503E+0	1.417788E+0	1.477030E+0	1.441828E+0	1.455065E+0	1.497230E+0	1.481667E+0	1.481907E+0	1.412897E+0	1.488338E+0	1.478018E+0	1.433660E+0	1.423458E+0	1.492515E+0	1.431995E+0	1.481561E+0	1.419505E+0	1.466109E+0	1.480245E+0	1.451893E+0	1.444005E+0	1.470851E+0	1.579717E+0	1.458567E+0	1.428974E+0	1.446597E+0	1.491300E+0	1.413520E+0	1.480305E+0	1.427360E+0	1.420760E+0	1.487019E+0	1.472746E+0	1.469629E+0	1.516630E+0	1.474829E+0	1.413109E+0	1.464938E+0	1.452554E+0	1.511602E+0	1.501209E+0	1.494545E+0	1.493567E+0	1.432616E+0	1.425481E+0	1.521460E+0	1.454741E+0	1.466020E+0	1.496032E+0	1.436435E+0	1.551633E+0	1.502019E+0	1.492653E+0	1.440135E+0	1.462064E+0	1.474635E+0	1.480148E+0	1.504840E+0	1.440247E+0	1.439505E+0	1.434060E+0	1.501482E+0	1.454974E+0	1.470273E+0	1.511118E+0	1.491957E+0	1.470143E+0	1.499017E+0	1.478211E+0	1.429401E+0	1.534421E+0	1.468925E+0	1.398792E+0	1.493722E+0	1.428816E+0	1.431529E+0	1.466349E+0	1.465866E+0	1.415335E+0	1.445185E+0	1.499408E+0	1.433376E+0	1.468072E+0	1.445523E+0	1.409689E+0	1.444151E+0	1.466457E+0	1.443636E+0	1.458839E+0	1.468087E+0	1.478206E+0	1.456857E+0	1.436910E+0	1.467828E+0	1.480533E+0	1.397263E+0	1.451495E+0	1.489436E+0	1.463920E+0	1.412070E+0	1.490492E+0	1.457952E+0	1.477859E+0	1.430942E+0	1.536583E+0	1.441616E+0	1.465646E+0	1.438826E+0	1.466787E+0	1.447336E+0	1.388270E+0	1.461873E+0	1.460400E+0	1.388188E+0	1.388491E+0	1.506985E+0	1.412865E+0	1.423444E+0	1.532954E+0	1.449851E+0	1.464352E+0	1.454854E+0	1.504188E+0	1.452427E+0	1.492593E+0	1.436349E+0	1.418596E+0	1.495062E+0	1.469508E+0	1.426943E+0	1.475996E+0	1.482461E+0	1.419765E+0	1.440015E+0	1.432660E+0	1.429293E+0	1.448853E+0	1.408804E+0	1.483649E+0	1.435195E+0	1.433363E+0	1.439196E+0	1.415949E+0	1.450127E+0	1.398572E+0	1.479084E+0	1.468429E+0	1.485948E+0	1.428452E+0	1.468594E+0	1.438536E+0	1.446409E+0	1.460452E+0	1.473236E+0	1.464003E+0	1.489654E+0	1.498951E+0	1.481672E+0	1.442906E+0	1.476300E+0	1.457891E+0	1.459967E+0	1.512184E+0	1.474081E+0	1.421962E+0	1.371866E+0	1.429537E+0	1.514525E+0	1.423514E+0
5.437640E+2	1.529520E+0	1.595071E+0	1.517061E+0	1.498989E+0	1.557459E+0	1.560196E+0	1.548175E+0	1.558661E+0	1.541532E+0	1.583997E+0	1.513849E+0	1.531736E+0	1.511178E+0	1.524348E+0	1.559196E+0	1.547197E+0	1.525768E+0	1.549015E+0	1.490533E+0	1.590006E+0	1.543352E+0	1.575621E+0	1.540459E+0	1.561736E+0	1.614913E+0	1.537608E+0	1.529436E+0	1.528877E+0	1.596713E+0	1.544031E+0	1.547852E+0	1.587081E+0	1.539470E+0	1.536449E+0	1.552518E+0	1.592123E+0	1.517887E+0	1.505597E+0	1.567305E+0	1.551067E+0	1.501009E+0	1.533349E+0	1.535472E+0	1.497236E+0	1.554928E+0	1.527304E+0	1.510138E+0	1.540651E+0	1.594162E+0	1.536415E+0	1.517336E+0	1.563604E+0	1.587035E+0	1.559698E+0	1.556948E+0	1.517989E+0	1.552930E+0	1.579888E+0	1.516725E+0	1.546737E+0	1.487504E+0	1.550965E+0	1.515793E+0	1.531155E+0	1.556186E+0	1.578306E+0	1.576392E+0	1.602664E+0	1.602705E+0	1.559632E+0	1.517382E+0	1.574293E+0	1.526437E+0	1.573828E+0	1.541946E+0	1.543141E+0	1.523093E+0	1.493949E+0	1.507376E+0	1.579709E+0	1.514002E+0	1.532585E+0	1.559742E+0	1.505028E+0	1.503871E+0	1.514476E+0	1.536857E+0	1.496654E+0	1.530070E+0	1.487412E+0	1.549435E+0	1.535487E+0	1.543965E+0	1.511560E+0	1.572098E+0	1.503880E+0	1.522309E+0	1.518949E+0	1.515110E+0	1.520589E+0	1.539654E+0	1.491261E+0	1.501410E+0	1.542808E+0	1.510895E+0	1.526092E+0	1.561416E+0	1.447020E+0	1.481034E+0	1.451708E+0	1.562525E+0	1.623094E+0	1.519273E+0	1.528974E+0	1.590409E+0	1.470939E+0	1.533852E+0	1.487167E+0	1.485713E+0	1.504504E+0	1.527607E+0	1.526191E+0	1.587084E+0	1.600769E+0	1.551393E+0	1.566631E+0	1.558179E+0	1.514791E+0	1.533537E+0	1.566845E+0	1.591156E+0	1.511361E+0	1.557212E+0	1.533818E+0	1.538927E+0	1.584738E+0	1.438309E+0	1.489962E+0	1.481065E+0	1.496196E+0	1.487515E+0	1.483491E+0	1.541696E+0	1.499715E+0	1.491978E+0	1.534396E+0	1.429575E+0	1.576264E+0	1.526999E+0	1.550052E+0	1.498359E+0	1.509005E+0	1.510304E+0	1.520268E+0	1.527105E+0	1.551141E+0	1.502989E+0	1.499127E+0	1.536191E+0	1.558675E+0	1.474038E+0	1.560481E+0	1.525837E+0	1.451905E+0	1.569060E+0	1.557822E+0	1.526576E+0	1.483033E+0	1.554782E+0	1.578802E+0	1.563656E+0
5.440170E+2	1.576041E+0	1.716110E+0	1.597264E+0	1.596064E+0	1.654637E+0	1.604169E+0	1.546730E+0	1.605979E+0	1.661184E+0	1.641950E+0	1.591656E+0	1.714252E+0	1.560417E+0	1.612908E+0	1.616163E+0	1.611349E+0	1.657668E+0	1.597330E+0	1.585499E+0	1.678224E+0	1.588843E+0	1.549303E+0	1.609231E+0	1.643249E+0	1.729580E+0	1.588811E+0	1.626608E+0	1.628149E+0	1.629291E+0	1.611063E+0	1.588131E+0	1.662881E+0	1.601317E+0	1.625726E+0	1.645913E+0	1.629113E+0	1.624454E+0	1.653146E+0	1.555784E+0	1.675156E+0	1.598311E+0	1.589002E+0	1.589017E+0	1.646314E+0	1.689785E+0	1.603042E+0	1.581199E+0	1.654973E+0	1.642961E+0	1.613024E+0	1.615977E+0	1.588611E+0	1.595647E+0	1.625650E+0	1.598890E+0	1.611199E+0	1.655581E+0	1.646943E+0	1.574884E+0	1.543953E+0	1.628578E+0	1.608361E+0	1.557846E+0	1.694802E+0	1.596496E+0	1.599568E+0	1.622703E+0	1.611563E+0	1.651301E+0	1.581423E+0	1.542997E+0	1.578750E+0	1.683924E+0	1.593775E+0	1.627060E+0	1.625293E+0	1.583194E+0	1.632085E+0	1.586168E+0	1.618570E+0	1.591351E+0	1.599060E+0	1.634867E+0	1.612310E+0	1.612259E+0	1.603815E+0	1.548972E+0	1.657711E+0	1.589951E+0	1.639940E+0	1.582067E+0	1.550838E+0	1.552633E+0	1.602311E+0	1.609423E+0	1.649811E+0	1.599883E+0	1.586837E+0	1.579469E+0	1.613139E+0	1.622286E+0	1.610246E+0	1.595129E+0	1.634095E+0	1.561674E+0	1.620522E+0	1.546850E+0	1.616924E+0	1.618838E+0	1.619691E+0	1.632226E+0	1.617935E+0	1.560044E+0	1.630442E+0	1.575417E+0	1.648629E+0	1.582786E+0	1.554269E+0	1.612001E+0	1.520510E+0	1.702844E+0	1.638832E+0	1.537029E+0	1.599824E+0	1.527453E+0	1.604462E+0	1.645981E+0	1.654760E+0	1.626198E+0	1.561920E+0	1.624682E+0	1.615246E+0	1.665355E+0	1.589260E+0	1.650542E+0	1.590249E+0	1.597314E+0	1.581847E+0	1.618807E+0	1.582134E+0	1.655252E+0	1.576359E+0	1.604245E+0	1.610111E+0	1.563534E+0	1.609920E+0	1.523928E+0	1.619386E+0	1.575114E+0	1.637103E+0	1.574533E+0	1.596567E+0	1.610239E+0	1.621045E+0	1.613055E+0	1.589267E+0	1.501807E+0	1.516105E+0	1.615483E+0	1.645714E+0	1.612207E+0	1.641335E+0	1.638625E+0	1.587415E+0	1.609145E+0	1.538632E+0	1.582398E+0	1.558155E+0	1.622506E+0	1.625689E+0	1.664899E+0
5.442810E+2	1.584436E+0	1.684335E+0	1.645689E+0	1.597345E+0	1.716456E+0	1.674794E+0	1.625419E+0	1.658296E+0	1.674573E+0	1.706872E+0	1.633763E+0	1.667734E+0	1.600874E+0	1.639225E+0	1.660462E+0	1.655202E+0	1.667471E+0	1.600783E+0	1.563529E+0	1.636355E+0	1.690518E+0	1.650347E+0	1.642537E+0	1.660145E+0	1.664548E+0	1.682315E+0	1.609291E+0	1.611258E+0	1.668206E+0	1.628827E+0	1.623616E+0	1.647165E+0	1.620668E+0	1.670544E+0	1.641025E+0	1.685589E+0	1.634686E+0	1.632335E+0	1.711446E+0	1.623600E+0	1.665396E+0	1.584376E+0	1.641858E+0	1.640958E+0	1.664883E+0	1.599526E+0	1.602485E+0	1.663549E+0	1.699931E+0	1.598053E+0	1.655112E+0	1.601935E+0	1.724580E+0	1.636330E+0	1.585925E+0	1.654046E+0	1.665515E+0	1.686677E+0	1.586688E+0	1.623272E+0	1.632501E+0	1.593946E+0	1.616985E+0	1.624541E+0	1.630515E+0	1.634076E+0	1.664888E+0	1.609211E+0	1.565837E+0	1.627456E+0	1.597516E+0	1.590527E+0	1.712124E+0	1.599993E+0	1.645521E+0	1.681830E+0	1.558782E+0	1.597733E+0	1.587336E+0	1.633766E+0	1.661753E+0	1.670728E+0	1.628207E+0	1.570572E+0	1.627991E+0	1.635865E+0	1.616677E+0	1.561452E+0	1.598761E+0	1.615574E+0	1.589634E+0	1.558629E+0	1.636110E+0	1.600152E+0	1.591639E+0	1.651825E+0	1.638877E+0	1.633731E+0	1.552563E+0	1.641978E+0	1.635300E+0	1.639675E+0	1.585529E+0	1.654689E+0	1.559356E+0	1.656442E+0	1.581541E+0	1.635571E+0	1.615891E+0	1.639465E+0	1.595163E+0	1.600548E+0	1.632577E+0	1.564033E+0	1.571475E+0	1.692513E+0	1.659085E+0	1.565957E+0	1.575770E+0	1.628144E+0	1.665320E+0	1.573625E+0	1.591447E+0	1.644815E+0	1.593278E+0	1.615594E+0	1.612974E+0	1.570874E+0	1.583093E+0	1.640066E+0	1.627705E+0	1.595867E+0	1.655795E+0	1.614298E+0	1.629838E+0	1.575025E+0	1.565040E+0	1.563246E+0	1.595876E+0	1.588746E+0	1.581279E+0	1.616628E+0	1.535742E+0	1.605121E+0	1.612791E+0	1.575586E+0	1.555544E+0	1.583183E+0	1.608149E+0	1.635509E+0	1.543581E+0	1.624196E+0	1.615123E+0	1.674198E+0	1.590196E+0	1.588636E+0	1.556666E+0	1.600798E+0	1.594458E+0	1.644720E+0	1.543591E+0	1.595457E+0	1.603186E+0	1.614504E+0	1.663865E+0	1.618268E+0	1.622746E+0	1.548595E+0	1.662617E+0	1.682020E+0	1.518958E+0
5.445180E+2	1.627315E+0	1.592715E+0	1.668800E+0	1.634231E+0	1.567217E+0	1.554765E+0	1.623401E+0	1.605826E+0	1.545642E+0	1.658366E+0	1.577200E+0	1.610174E+0	1.584507E+0	1.615678E+0	1.602213E+0	1.620305E+0	1.631964E+0	1.655020E+0	1.588091E+0	1.638782E+0	1.648551E+0	1.633669E+0	1.573369E+0	1.615405E+0	1.655410E+0	1.674989E+0	1.668161E+0	1.545428E+0	1.598079E+0	1.616291E+0	1.617545E+0	1.599365E+0	1.609344E+0	1.590099E+0	1.655420E+0	1.624752E+0	1.640375E+0	1.667871E+0	1.545668E+0	1.572443E+0	1.655110E+0	1.663457E+0	1.632951E+0	1.639109E+0	1.644466E+0	1.608297E+0	1.623015E+0	1.687128E+0	1.673441E+0	1.591291E+0	1.566665E+0	1.628831E+0	1.664810E+0	1.681205E+0	1.662213E+0	1.612898E+0	1.694017E+0	1.651308E+0	1.670481E+0	1.753481E+0	1.664032E+0	1.615952E+0	1.653392E+0	1.596129E+0	1.642473E+0	1.645956E+0	1.653581E+0	1.643450E+0	1.658242E+0	1.669084E+0	1.680238E+0	1.629082E+0	1.672569E+0	1.702639E+0	1.607432E+0	1.634996E+0	1.619022E+0	1.654233E+0	1.625821E+0	1.680282E+0	1.622964E+0	1.693273E+0	1.655795E+0	1.622129E+0	1.655780E+0	1.648600E+0	1.637639E+0	1.702559E+0	1.663937E+0	1.592889E+0	1.611318E+0	1.648753E+0	1.593872E+0	1.592851E+0	1.665132E+0	1.655304E+0	1.615342E+0	1.644653E+0	1.617938E+0	1.661726E+0	1.695391E+0	1.592337E+0	1.587263E+0	1.636596E+0	1.636858E+0	1.628274E+0	1.652083E+0	1.637289E+0	1.582668E+0	1.634384E+0	1.612324E+0	1.722677E+0	1.634922E+0	1.602449E+0	1.625244E+0	1.644074E+0	1.626328E+0	1.642171E+0	1.594691E+0	1.597895E+0	1.719634E+0	1.618099E+0	1.627627E+0	1.630979E+0	1.694119E+0	1.647775E+0	1.692877E+0	1.682012E+0	1.630405E+0	1.580102E+0	1.655758E+0	1.654583E+0	1.630483E+0	1.622281E+0	1.563385E+0	1.627881E+0	1.641364E+0	1.608643E+0	1.642344E+0	1.616766E+0	1.619523E+0	1.597495E+0	1.637096E+0	1.655192E+0	1.598646E+0	1.678388E+0	1.573417E+0	1.635453E+0	1.626395E+0	1.623131E+0	1.585714E+0	1.598082E+0	1.653726E+0	1.626270E+0	1.638875E+0	1.649114E+0	1.628964E+0	1.622470E+0	1.603536E+0	1.596378E+0	1.659429E+0	1.633565E+0	1.711043E+0	1.583348E+0	1.591706E+0	1.664246E+0	1.657175E+0	1.584515E+0	1.650515E+0	1.695303E+0	1.514235E+0
5.447720E+2	1.566457E+0	1.555082E+0	1.559935E+0	1.530404E+0	1.492075E+0	1.552179E+0	1.593187E+0	1.545773E+0	1.561541E+0	1.638497E+0	1.510115E+0	1.581527E+0	1.456169E+0	1.535762E+0	1.557226E+0	1.544436E+0	1.547695E+0	1.582101E+0	1.519994E+0	1.545310E+0	1.550780E+0	1.539523E+0	1.537507E+0	1.508669E+0	1.567522E+0	1.559381E+0	1.561748E+0	1.535673E+0	1.469481E+0	1.508443E+0	1.503685E+0	1.586519E+0	1.584941E+0	1.538370E+0	1.520608E+0	1.626909E+0	1.569978E+0	1.535136E+0	1.477674E+0	1.550278E+0	1.508968E+0	1.477648E+0	1.552216E+0	1.546174E+0	1.520382E+0	1.515639E+0	1.497370E+0	1.534452E+0	1.546387E+0	1.533043E+0	1.535845E+0	1.496236E+0	1.600434E+0	1.497128E+0	1.527800E+0	1.567575E+0	1.521597E+0	1.586181E+0	1.512371E+0	1.526164E+0	1.550489E+0	1.513983E+0	1.476127E+0	1.526611E+0	1.576195E+0	1.548058E+0	1.506166E+0	1.583443E+0	1.539600E+0	1.574989E+0	1.506364E+0	1.545561E+0	1.592338E+0	1.574743E+0	1.533409E+0	1.566661E+0	1.478461E+0	1.569095E+0	1.512138E+0	1.587543E+0	1.490458E+0	1.532308E+0	1.507725E+0	1.539855E+0	1.512179E+0	1.522256E+0	1.477345E+0	1.530420E+0	1.532260E+0	1.468659E+0	1.505559E+0	1.510712E+0	1.576866E+0	1.464153E+0	1.554314E+0	1.556270E+0	1.571677E+0	1.506421E+0	1.473092E+0	1.564272E+0	1.552368E+0	1.529041E+0	1.537706E+0	1.574627E+0	1.509761E+0	1.523835E+0	1.475153E+0	1.580611E+0	1.527760E+0	1.507262E+0	1.542915E+0	1.565246E+0	1.517454E+0	1.502880E+0	1.465671E+0	1.527377E+0	1.558442E+0	1.486041E+0	1.538073E+0	1.518641E+0	1.561942E+0	1.483387E+0	1.530331E+0	1.587329E+0	1.553933E+0	1.517142E+0	1.500523E+0	1.557230E+0	1.524880E+0	1.552058E+0	1.538395E+0	1.493666E+0	1.523348E+0	1.526429E+0	1.434700E+0	1.488925E+0	1.516554E+0	1.452849E+0	1.537575E+0	1.456259E+0	1.513923E+0	1.558614E+0	1.522335E+0	1.516743E+0	1.507601E+0	1.518620E+0	1.493051E+0	1.506497E+0	1.501541E+0	1.545971E+0	1.435528E+0	1.490297E+0	1.549129E+0	1.534793E+0	1.490211E+0	1.569340E+0	1.502360E+0	1.484777E+0	1.470639E+0	1.549316E+0	1.490431E+0	1.465148E+0	1.519147E+0	1.479920E+0	1.527971E+0	1.548684E+0	1.504499E+0	1.464035E+0	1.493010E+0	1.501616E+0	1.490893E+0
5.450090E+2	1.411249E+0	1.478576E+0	1.471718E+0	1.413553E+0	1.451523E+0	1.451977E+0	1.424774E+0	1.448014E+0	1.451873E+0	1.424255E+0	1.418575E+0	1.446564E+0	1.383930E+0	1.477332E+0	1.424268E+0	1.500767E+0	1.460104E+0	1.424602E+0	1.461846E+0	1.473123E+0	1.451999E+0	1.416135E+0	1.430202E+0	1.436810E+0	1.481240E+0	1.436278E+0	1.438051E+0	1.413965E+0	1.430325E+0	1.378477E+0	1.402506E+0	1.447551E+0	1.375533E+0	1.429135E+0	1.397643E+0	1.463787E+0	1.472462E+0	1.441585E+0	1.368927E+0	1.473962E+0	1.427373E+0	1.447856E+0	1.381159E+0	1.429268E+0	1.380839E+0	1.444890E+0	1.382287E+0	1.482586E+0	1.464193E+0	1.442333E+0	1.416303E+0	1.378527E+0	1.428206E+0	1.401893E+0	1.412160E+0	1.425556E+0	1.475877E+0	1.410440E+0	1.445819E+0	1.410372E+0	1.427544E+0	1.452269E+0	1.435458E+0	1.451473E+0	1.371745E+0	1.464567E+0	1.408443E+0	1.431969E+0	1.445758E+0	1.392652E+0	1.452810E+0	1.429213E+0	1.438020E+0	1.395408E+0	1.399670E+0	1.420331E+0	1.429510E+0	1.444082E+0	1.445443E+0	1.501189E+0	1.443701E+0	1.418279E+0	1.447467E+0	1.403339E+0	1.447259E+0	1.408699E+0	1.387799E+0	1.419429E+0	1.374715E+0	1.393250E+0	1.436061E+0	1.377349E+0	1.436475E+0	1.442571E+0	1.400792E+0	1.415369E+0	1.363553E+0	1.369976E+0	1.413569E+0	1.447072E+0	1.467189E+0	1.400009E+0	1.368192E+0	1.422127E+0	1.386951E+0	1.398447E+0	1.414967E+0	1.365293E+0	1.401096E+0	1.429608E+0	1.459681E+0	1.434244E+0	1.425121E+0	1.393069E+0	1.405330E+0	1.453895E+0	1.413208E+0	1.438796E+0	1.410833E+0	1.424058E+0	1.443610E+0	1.400527E+0	1.379289E+0	1.460772E+0	1.464778E+0	1.433849E+0	1.444010E+0	1.417750E+0	1.366778E+0	1.410935E+0	1.399120E+0	1.394130E+0	1.448925E+0	1.454784E+0	1.409956E+0	1.437103E+0	1.415713E+0	1.376284E+0	1.395305E+0	1.462320E+0	1.447561E+0	1.390959E+0	1.383696E+0	1.439006E+0	1.398716E+0	1.462866E+0	1.420174E+0	1.444668E+0	1.366459E+0	1.435307E+0	1.391442E+0	1.434285E+0	1.457279E+0	1.479735E+0	1.376181E+0	1.460333E+0	1.374431E+0	1.431242E+0	1.342486E+0	1.402030E+0	1.363251E+0	1.401638E+0	1.451726E+0	1.398747E+0	1.512603E+0	1.418492E+0	1.410056E+0	1.340262E+0	1.468905E+0	1.403545E+0	1.444159E+0
5.452910E+2	1.380483E+0	1.340107E+0	1.416634E+0	1.329982E+0	1.355526E+0	1.348135E+0	1.388787E+0	1.358403E+0	1.383833E+0	1.406727E+0	1.337107E+0	1.382579E+0	1.359141E+0	1.295200E+0	1.312689E+0	1.346489E+0	1.390440E+0	1.365352E+0	1.327744E+0	1.358212E+0	1.404331E+0	1.361762E+0	1.353736E+0	1.375670E+0	1.386474E+0	1.368383E+0	1.347278E+0	1.394070E+0	1.350997E+0	1.355438E+0	1.374029E+0	1.392841E+0	1.396155E+0	1.387216E+0	1.318917E+0	1.361666E+0	1.370463E+0	1.405318E+0	1.308910E+0	1.323809E+0	1.375698E+0	1.421601E+0	1.343256E+0	1.358278E+0	1.401688E+0	1.337147E+0	1.333217E+0	1.364016E+0	1.325584E+0	1.323385E+0	1.361569E+0	1.291278E+0	1.441412E+0	1.328941E+0	1.349074E+0	1.321280E+0	1.371156E+0	1.383061E+0	1.353212E+0	1.324968E+0	1.330086E+0	1.336107E+0	1.320457E+0	1.359346E+0	1.330244E+0	1.335950E+0	1.383067E+0	1.349922E+0	1.363612E+0	1.341091E+0	1.358533E+0	1.380910E+0	1.321505E+0	1.357656E+0	1.340365E+0	1.400872E+0	1.311935E+0	1.384592E+0	1.299290E+0	1.411812E+0	1.400039E+0	1.390848E+0	1.341913E+0	1.338007E+0	1.363389E+0	1.264783E+0	1.349960E+0	1.380854E+0	1.332539E+0	1.359966E+0	1.339306E+0	1.343583E+0	1.329796E+0	1.373900E+0	1.315026E+0	1.371688E+0	1.302084E+0	1.293985E+0	1.310300E+0	1.380486E+0	1.390661E+0	1.317664E+0	1.366840E+0	1.340314E+0	1.397501E+0	1.341410E+0	1.284954E+0	1.305949E+0	1.330834E+0	1.355635E+0	1.357077E+0	1.372243E+0	1.316821E+0	1.352346E+0	1.322125E+0	1.387467E+0	1.397467E+0	1.330243E+0	1.314503E+0	1.315660E+0	1.382882E+0	1.321213E+0	1.347811E+0	1.356452E+0	1.329381E+0	1.318821E+0	1.321266E+0	1.366062E+0	1.335153E+0	1.332102E+0	1.329237E+0	1.342535E+0	1.339095E+0	1.378857E+0	1.355037E+0	1.306627E+0	1.302639E+0	1.285410E+0	1.409988E+0	1.353262E+0	1.386340E+0	1.337143E+0	1.297935E+0	1.421813E+0	1.224045E+0	1.353516E+0	1.317427E+0	1.344203E+0	1.333472E+0	1.360591E+0	1.306497E+0	1.301857E+0	1.369282E+0	1.370508E+0	1.307878E+0	1.368675E+0	1.286438E+0	1.319637E+0	1.376913E+0	1.384576E+0	1.356039E+0	1.329088E+0	1.358646E+0	1.320307E+0	1.426036E+0	1.321848E+0	1.385485E+0	1.284540E+0	1.356841E+0	1.419839E+0	1.386689E+0
5.455070E+2	1.296414E+0	1.339530E+0	1.400987E+0	1.285783E+0	1.358168E+0	1.342486E+0	1.313675E+0	1.328736E+0	1.378069E+0	1.301659E+0	1.303361E+0	1.362552E+0	1.289459E+0	1.281364E+0	1.281230E+0	1.325716E+0	1.297010E+0	1.337517E+0	1.292911E+0	1.333117E+0	1.389667E+0	1.348638E+0	1.254994E+0	1.294903E+0	1.344631E+0	1.264079E+0	1.359033E+0	1.258825E+0	1.352414E+0	1.289351E+0	1.319660E+0	1.325346E+0	1.269947E+0	1.301896E+0	1.318555E+0	1.309367E+0	1.321365E+0	1.312507E+0	1.327510E+0	1.342279E+0	1.366750E+0	1.292441E+0	1.283117E+0	1.307493E+0	1.299763E+0	1.274833E+0	1.250056E+0	1.325740E+0	1.313881E+0	1.320812E+0	1.294037E+0	1.286620E+0	1.346798E+0	1.314744E+0	1.330861E+0	1.318054E+0	1.299590E+0	1.341311E+0	1.237945E+0	1.334475E+0	1.311160E+0	1.307843E+0	1.295605E+0	1.321115E+0	1.344411E+0	1.380231E+0	1.318862E+0	1.295122E+0	1.335447E+0	1.305887E+0	1.308214E+0	1.270205E+0	1.313388E+0	1.311777E+0	1.340953E+0	1.314459E+0	1.273909E+0	1.344733E+0	1.307295E+0	1.290459E+0	1.315097E+0	1.332071E+0	1.284821E+0	1.314836E+0	1.276023E+0	1.287605E+0	1.349268E+0	1.273857E+0	1.291502E+0	1.314394E+0	1.313984E+0	1.347301E+0	1.335532E+0	1.317151E+0	1.305364E+0	1.326502E+0	1.288129E+0	1.279845E+0	1.294465E+0	1.301428E+0	1.341959E+0	1.326165E+0	1.279269E+0	1.356608E+0	1.295138E+0	1.300688E+0	1.284863E+0	1.303700E+0	1.308594E+0	1.302206E+0	1.274520E+0	1.285887E+0	1.268184E+0	1.283154E+0	1.314359E+0	1.270117E+0	1.330418E+0	1.292540E+0	1.291126E+0	1.334627E+0	1.376519E+0	1.270796E+0	1.325653E+0	1.297474E+0	1.317378E+0	1.330301E+0	1.325460E+0	1.276559E+0	1.309777E+0	1.296519E+0	1.330025E+0	1.292029E+0	1.314933E+0	1.287770E+0	1.300014E+0	1.287064E+0	1.286215E+0	1.273038E+0	1.292340E+0	1.280681E+0	1.277376E+0	1.283443E+0	1.296840E+0	1.322858E+0	1.284186E+0	1.297281E+0	1.236557E+0	1.325006E+0	1.323277E+0	1.316213E+0	1.264742E+0	1.336755E+0	1.312810E+0	1.316446E+0	1.335386E+0	1.340017E+0	1.267936E+0	1.307613E+0	1.292840E+0	1.345588E+0	1.293389E+0	1.282527E+0	1.330897E+0	1.338018E+0	1.368889E+0	1.293414E+0	1.332037E+0	1.308496E+0	1.359362E+0	1.186153E+0	1.244098E+0
5.457720E+2	1.271500E+0	1.253745E+0	1.327975E+0	1.183009E+0	1.235333E+0	1.208615E+0	1.226241E+0	1.309610E+0	1.269564E+0	1.256603E+0	1.201817E+0	1.205336E+0	1.200932E+0	1.208968E+0	1.216027E+0	1.251212E+0	1.233188E+0	1.238251E+0	1.226284E+0	1.287389E+0	1.248240E+0	1.247050E+0	1.225714E+0	1.260954E+0	1.247340E+0	1.238250E+0	1.231759E+0	1.199813E+0	1.197331E+0	1.242556E+0	1.254180E+0	1.191948E+0	1.237683E+0	1.279079E+0	1.235283E+0	1.205782E+0	1.237610E+0	1.237807E+0	1.258101E+0	1.190491E+0	1.274603E+0	1.222533E+0	1.263216E+0	1.206563E+0	1.299634E+0	1.199109E+0	1.208111E+0	1.227548E+0	1.299364E+0	1.199143E+0	1.252152E+0	1.157459E+0	1.291585E+0	1.233106E+0	1.235629E+0	1.194823E+0	1.223021E+0	1.274654E+0	1.279393E+0	1.227717E+0	1.270930E+0	1.220112E+0	1.188906E+0	1.231792E+0	1.255204E+0	1.277794E+0	1.233278E+0	1.238392E+0	1.289936E+0	1.211412E+0	1.283963E+0	1.181224E+0	1.255988E+0	1.259213E+0	1.206350E+0	1.231015E+0	1.195754E+0	1.222822E+0	1.209986E+0	1.263862E+0	1.213495E+0	1.200465E+0	1.274634E+0	1.240132E+0	1.272676E+0	1.248614E+0	1.235362E+0	1.305597E+0	1.236490E+0	1.248356E+0	1.264633E+0	1.233231E+0	1.228470E+0	1.291019E+0	1.231875E+0	1.234359E+0	1.239279E+0	1.221415E+0	1.235742E+0	1.260195E+0	1.237786E+0	1.210967E+0	1.199474E+0	1.279703E+0	1.235340E+0	1.255218E+0	1.232512E+0	1.274326E+0	1.256090E+0	1.224378E+0	1.221840E+0	1.240530E+0	1.248031E+0	1.241351E+0	1.256669E+0	1.235134E+0	1.215123E+0	1.233942E+0	1.282046E+0	1.191564E+0	1.231046E+0	1.204823E+0	1.251130E+0	1.221105E+0	1.199044E+0	1.216317E+0	1.279569E+0	1.248313E+0	1.228014E+0	1.198560E+0	1.222454E+0	1.260994E+0	1.226860E+0	1.241588E+0	1.238477E+0	1.223452E+0	1.218055E+0	1.223659E+0	1.247014E+0	1.179932E+0	1.246539E+0	1.242672E+0	1.196391E+0	1.201444E+0	1.247288E+0	1.262817E+0	1.166730E+0	1.317851E+0	1.254512E+0	1.255391E+0	1.186100E+0	1.242737E+0	1.234110E+0	1.226532E+0	1.210856E+0	1.248432E+0	1.256579E+0	1.247502E+0	1.246938E+0	1.312223E+0	1.225457E+0	1.226221E+0	1.217203E+0	1.231991E+0	1.271452E+0	1.251126E+0	1.240136E+0	1.187650E+0	1.265022E+0	1.229455E+0	1.200718E+0
5.460160E+2	1.219564E+0	1.210777E+0	1.258790E+0	1.189496E+0	1.272702E+0	1.237445E+0	1.223354E+0	1.226299E+0	1.189437E+0	1.212027E+0	1.220977E+0	1.199128E+0	1.174093E+0	1.209828E+0	1.206140E+0	1.197106E+0	1.235457E+0	1.228094E+0	1.164201E+0	1.238323E+0	1.239273E+0	1.232686E+0	1.200418E+0	1.188176E+0	1.188741E+0	1.230907E+0	1.222530E+0	1.212260E+0	1.228787E+0	1.195463E+0	1.188764E+0	1.217686E+0	1.193194E+0	1.219000E+0	1.282876E+0	1.191417E+0	1.266611E+0	1.225832E+0	1.219186E+0	1.201969E+0	1.244018E+0	1.254066E+0	1.240976E+0	1.183783E+0	1.228149E+0	1.187735E+0	1.164727E+0	1.185931E+0	1.207972E+0	1.220190E+0	1.175704E+0	1.196245E+0	1.261837E+0	1.263578E+0	1.210668E+0	1.218681E+0	1.213435E+0	1.240746E+0	1.195853E+0	1.196221E+0	1.242421E+0	1.181436E+0	1.174343E+0	1.210240E+0	1.226330E+0	1.196077E+0	1.188803E+0	1.216069E+0	1.264043E+0	1.174688E+0	1.205653E+0	1.193503E+0	1.229950E+0	1.227595E+0	1.226503E+0	1.202905E+0	1.230331E+0	1.205504E+0	1.203252E+0	1.234927E+0	1.241294E+0	1.196028E+0	1.177045E+0	1.176793E+0	1.205763E+0	1.220093E+0	1.178876E+0	1.217579E+0	1.228665E+0	1.153983E+0	1.197671E+0	1.230704E+0	1.204287E+0	1.196270E+0	1.213434E+0	1.241608E+0	1.228536E+0	1.209985E+0	1.172736E+0	1.238750E+0	1.243240E+0	1.157878E+0	1.182622E+0	1.233180E+0	1.247700E+0	1.129854E+0	1.167988E+0	1.230574E+0	1.208926E+0	1.212136E+0	1.221776E+0	1.215527E+0	1.247567E+0	1.161609E+0	1.204425E+0	1.205544E+0	1.218297E+0	1.228866E+0	1.191321E+0	1.174343E+0	1.219629E+0	1.219397E+0	1.166563E+0	1.217447E+0	1.209066E+0	1.220481E+0	1.169274E+0	1.197252E+0	1.196261E+0	1.162311E+0	1.192844E+0	1.179262E+0	1.189802E+0	1.240971E+0	1.208399E+0	1.180679E+0	1.214695E+0	1.221113E+0	1.182773E+0	1.214822E+0	1.239515E+0	1.248860E+0	1.188602E+0	1.227310E+0	1.237018E+0	1.253741E+0	1.162245E+0	1.204782E+0	1.233647E+0	1.210228E+0	1.194840E+0	1.205277E+0	1.188843E+0	1.217053E+0	1.211165E+0	1.198874E+0	1.213204E+0	1.173349E+0	1.167760E+0	1.198938E+0	1.158707E+0	1.235983E+0	1.186223E+0	1.191476E+0	1.232409E+0	1.173438E+0	1.204613E+0	1.214450E+0	1.171155E+0	1.218738E+0	1.185702E+0
5.467660E+2	1.291379E+0	1.290771E+0	1.279563E+0	1.221541E+0	1.297892E+0	1.247810E+0	1.339194E+0	1.275944E+0	1.300157E+0	1.296323E+0	1.221589E+0	1.272246E+0	1.245515E+0	1.315553E+0	1.271707E+0	1.255072E+0	1.296719E+0	1.253924E+0	1.278094E+0	1.319632E+0	1.316382E+0	1.251880E+0	1.233190E+0	1.307729E+0	1.312016E+0	1.262705E+0	1.302855E+0	1.261146E+0	1.316621E+0	1.251288E+0	1.301992E+0	1.267814E+0	1.226366E+0	1.263949E+0	1.317258E+0	1.322377E+0	1.299770E+0	1.302234E+0	1.265963E+0	1.311173E+0	1.233250E+0	1.244624E+0	1.251202E+0	1.300807E+0	1.283445E+0	1.211065E+0	1.243653E+0	1.300472E+0	1.315749E+0	1.310917E+0	1.253293E+0	1.240176E+0	1.284949E+0	1.243199E+0	1.256570E+0	1.262037E+0	1.322988E+0	1.360714E+0	1.324241E+0	1.256540E+0	1.266417E+0	1.230512E+0	1.282014E+0	1.263659E+0	1.276444E+0	1.304015E+0	1.270022E+0	1.217389E+0	1.328473E+0	1.321834E+0	1.290609E+0	1.235976E+0	1.274872E+0	1.279166E+0	1.281300E+0	1.289191E+0	1.291283E+0	1.303314E+0	1.240504E+0	1.261962E+0	1.353530E+0	1.300495E+0	1.293007E+0	1.305385E+0	1.337217E+0	1.277181E+0	1.252655E+0	1.283664E+0	1.308577E+0	1.269891E+0	1.296801E+0	1.279281E+0	1.248894E+0	1.259985E+0	1.283204E+0	1.265939E+0	1.281638E+0	1.259018E+0	1.208915E+0	1.284094E+0	1.297272E+0	1.248088E+0	1.224260E+0	1.280037E+0	1.290372E+0	1.324139E+0	1.269106E+0	1.246427E+0	1.293080E+0	1.273696E+0	1.317700E+0	1.308078E+0	1.281112E+0	1.260247E+0	1.353333E+0	1.303321E+0	1.287851E+0	1.301074E+0	1.257909E+0	1.283331E+0	1.323754E+0	1.196651E+0	1.298868E+0	1.287212E+0	1.315919E+0	1.314659E+0	1.318405E+0	1.274224E+0	1.249357E+0	1.328146E+0	1.265440E+0	1.289590E+0	1.330541E+0	1.299317E+0	1.268716E+0	1.241024E+0	1.321871E+0	1.225382E+0	1.252483E+0	1.200395E+0	1.275823E+0	1.224360E+0	1.271003E+0	1.227467E+0	1.280954E+0	1.302321E+0	1.226348E+0	1.257121E+0	1.273730E+0	1.255631E+0	1.284245E+0	1.243997E+0	1.277082E+0	1.254756E+0	1.286624E+0	1.301174E+0	1.222146E+0	1.280332E+0	1.249458E+0	1.298601E+0	1.285397E+0	1.264890E+0	1.269645E+0	1.309064E+0	1.309518E+0	1.330067E+0	1.253417E+0	1.210488E+0	1.295211E+0	1.332163E+0	1.292138E+0
5.475180E+2	1.379656E+0	1.339812E+0	1.418094E+0	1.334630E+0	1.387969E+0	1.363592E+0	1.370791E+0	1.365203E+0	1.382405E+0	1.360630E+0	1.338569E+0	1.369830E+0	1.294976E+0	1.364421E+0	1.369043E+0	1.347091E+0	1.440923E+0	1.342203E+0	1.395243E+0	1.316439E+0	1.353976E+0	1.332426E+0	1.348801E+0	1.337898E+0	1.361461E+0	1.346282E+0	1.353435E+0	1.374001E+0	1.379031E+0	1.329517E+0	1.365407E+0	1.381455E+0	1.384797E+0	1.360980E+0	1.374154E+0	1.355322E+0	1.389201E+0	1.381194E+0	1.352186E+0	1.329041E+0	1.359683E+0	1.355641E+0	1.362334E+0	1.377001E+0	1.393444E+0	1.389961E+0	1.335308E+0	1.410127E+0	1.414536E+0	1.390210E+0	1.340696E+0	1.331506E+0	1.433501E+0	1.370115E+0	1.335913E+0	1.358318E+0	1.398863E+0	1.376672E+0	1.296561E+0	1.357517E+0	1.330829E+0	1.335096E+0	1.338422E+0	1.341456E+0	1.336309E+0	1.354807E+0	1.348700E+0	1.394002E+0	1.405781E+0	1.331947E+0	1.347096E+0	1.379335E+0	1.410528E+0	1.350508E+0	1.393106E+0	1.397585E+0	1.294119E+0	1.351570E+0	1.362403E+0	1.332073E+0	1.385115E+0	1.358360E+0	1.340202E+0	1.322542E+0	1.354196E+0	1.385909E+0	1.365896E+0	1.344411E+0	1.364744E+0	1.349899E+0	1.338884E+0	1.379148E+0	1.369438E+0	1.353918E+0	1.353830E+0	1.315912E+0	1.326068E+0	1.332423E+0	1.338934E+0	1.308576E+0	1.355556E+0	1.356208E+0	1.336630E+0	1.313030E+0	1.307317E+0	1.310182E+0	1.329521E+0	1.387073E+0	1.343324E+0	1.375064E+0	1.337663E+0	1.380536E+0	1.371260E+0	1.369889E+0	1.371444E+0	1.372188E+0	1.345150E+0	1.345301E+0	1.360228E+0	1.361632E+0	1.399260E+0	1.371673E+0	1.326936E+0	1.365963E+0	1.368778E+0	1.368339E+0	1.333941E+0	1.348128E+0	1.390783E+0	1.360819E+0	1.369603E+0	1.316472E+0	1.355379E+0	1.425304E+0	1.341083E+0	1.376856E+0	1.368728E+0	1.403667E+0	1.329645E+0	1.285154E+0	1.423449E+0	1.352127E+0	1.348098E+0	1.340328E+0	1.349716E+0	1.418127E+0	1.352628E+0	1.335041E+0	1.335488E+0	1.325460E+0	1.353401E+0	1.359278E+0	1.325920E+0	1.396041E+0	1.337668E+0	1.310158E+0	1.372362E+0	1.354000E+0	1.355825E+0	1.329396E+0	1.352520E+0	1.355644E+0	1.377547E+0	1.322091E+0	1.411604E+0	1.331308E+0	1.322877E+0	1.316963E+0	1.311799E+0	1.386126E+0	1.370514E+0
5.482980E+2	1.457316E+0	1.457475E+0	1.445767E+0	1.418302E+0	1.451258E+0	1.468354E+0	1.452590E+0	1.451114E+0	1.460191E+0	1.401870E+0	1.367562E+0	1.510291E+0	1.413927E+0	1.486508E+0	1.422520E+0	1.459332E+0	1.461121E+0	1.464634E+0	1.395006E+0	1.488207E+0	1.486162E+0	1.426490E+0	1.471229E+0	1.455232E+0	1.409513E+0	1.440936E+0	1.447319E+0	1.417294E+0	1.435350E+0	1.388650E+0	1.466691E+0	1.450755E+0	1.415699E+0	1.391825E+0	1.520878E+0	1.416290E+0	1.441218E+0	1.466401E+0	1.387956E+0	1.471806E+0	1.412618E+0	1.379650E+0	1.426669E+0	1.439946E+0	1.466629E+0	1.455183E+0	1.417073E+0	1.397777E+0	1.419688E+0	1.415467E+0	1.468996E+0	1.393474E+0	1.471817E+0	1.462699E+0	1.427638E+0	1.464601E+0	1.474874E+0	1.433914E+0	1.463336E+0	1.403060E+0	1.425953E+0	1.420911E+0	1.422400E+0	1.477802E+0	1.417480E+0	1.463398E+0	1.446223E+0	1.477254E+0	1.446677E+0	1.416526E+0	1.458409E+0	1.402292E+0	1.482902E+0	1.438516E+0	1.398008E+0	1.439691E+0	1.385545E+0	1.429191E+0	1.400167E+0	1.398196E+0	1.431031E+0	1.427887E+0	1.474721E+0	1.396832E+0	1.420450E+0	1.456859E+0	1.406636E+0	1.400765E+0	1.454208E+0	1.445604E+0	1.459254E+0	1.436835E+0	1.448723E+0	1.473475E+0	1.449214E+0	1.406507E+0	1.422825E+0	1.459726E+0	1.423190E+0	1.427941E+0	1.466333E+0	1.458549E+0	1.415408E+0	1.397848E+0	1.459835E+0	1.425865E+0	1.368044E+0	1.359944E+0	1.410112E+0	1.384867E+0	1.450966E+0	1.414428E+0	1.413145E+0	1.401677E+0	1.434204E+0	1.474558E+0	1.482025E+0	1.436332E+0	1.412110E+0	1.406891E+0	1.478803E+0	1.433089E+0	1.417400E+0	1.479641E+0	1.497197E+0	1.426409E+0	1.395497E+0	1.469336E+0	1.423027E+0	1.452224E+0	1.432251E+0	1.417099E+0	1.402739E+0	1.436644E+0	1.432720E+0	1.447768E+0	1.431195E+0	1.444904E+0	1.447194E+0	1.425728E+0	1.452819E+0	1.436278E+0	1.432241E+0	1.420207E+0	1.429381E+0	1.434651E+0	1.344443E+0	1.432153E+0	1.455502E+0	1.415886E+0	1.401750E+0	1.422315E+0	1.455860E+0	1.452735E+0	1.371641E+0	1.423142E+0	1.440741E+0	1.404825E+0	1.420850E+0	1.472835E+0	1.413236E+0	1.441375E+0	1.462913E+0	1.412370E+0	1.457555E+0	1.494300E+0	1.404358E+0	1.382830E+0	1.420896E+0	1.415123E+0	1.434204E+0
5.490210E+2	1.429227E+0	1.450309E+0	1.477861E+0	1.372619E+0	1.459742E+0	1.452905E+0	1.394110E+0	1.425024E+0	1.418788E+0	1.464010E+0	1.451980E+0	1.419764E+0	1.401424E+0	1.443172E+0	1.439077E+0	1.442215E+0	1.404497E+0	1.440463E+0	1.452547E+0	1.415464E+0	1.473800E+0	1.432420E+0	1.400901E+0	1.407332E+0	1.473296E+0	1.421414E+0	1.498752E+0	1.434674E+0	1.363594E+0	1.399948E+0	1.398292E+0	1.360388E+0	1.412392E+0	1.425983E+0	1.448215E+0	1.380102E+0	1.436314E+0	1.457822E+0	1.417328E+0	1.455242E+0	1.431892E+0	1.432704E+0	1.407296E+0	1.406442E+0	1.454979E+0	1.429254E+0	1.388283E+0	1.411324E+0	1.416404E+0	1.417609E+0	1.422201E+0	1.394653E+0	1.483716E+0	1.443887E+0	1.419122E+0	1.457380E+0	1.405586E+0	1.428364E+0	1.459756E+0	1.370773E+0	1.346030E+0	1.424814E+0	1.380296E+0	1.409941E+0	1.437978E+0	1.436230E+0	1.410401E+0	1.444226E+0	1.444843E+0	1.429898E+0	1.417232E+0	1.398324E+0	1.462151E+0	1.455387E+0	1.420931E+0	1.473812E+0	1.400553E+0	1.383941E+0	1.400464E+0	1.435358E+0	1.440224E+0	1.451002E+0	1.423587E+0	1.443015E+0	1.423389E+0	1.360993E+0	1.417293E+0	1.459316E+0	1.469941E+0	1.370962E+0	1.441443E+0	1.414135E+0	1.476733E+0	1.447408E+0	1.418318E+0	1.434905E+0	1.374371E+0	1.390657E+0	1.385123E+0	1.423477E+0	1.467066E+0	1.382960E+0	1.367182E+0	1.468600E+0	1.493865E+0	1.430635E+0	1.407294E+0	1.398975E+0	1.452023E+0	1.379544E+0	1.432585E+0	1.387303E+0	1.373426E+0	1.413616E+0	1.390647E+0	1.426127E+0	1.399489E+0	1.432574E+0	1.365985E+0	1.373964E+0	1.440715E+0	1.406266E+0	1.381581E+0	1.450900E+0	1.467686E+0	1.418962E+0	1.388382E+0	1.370680E+0	1.451973E+0	1.407430E+0	1.424025E+0	1.377288E+0	1.477495E+0	1.404007E+0	1.447147E+0	1.403834E+0	1.349060E+0	1.345725E+0	1.437262E+0	1.377035E+0	1.487088E+0	1.439094E+0	1.416825E+0	1.402053E+0	1.369939E+0	1.429509E+0	1.380024E+0	1.405056E+0	1.382126E+0	1.415415E+0	1.409207E+0	1.393749E+0	1.380946E+0	1.438528E+0	1.383869E+0	1.441154E+0	1.379483E+0	1.371167E+0	1.432661E+0	1.417465E+0	1.417169E+0	1.398911E+0	1.402030E+0	1.373456E+0	1.463685E+0	1.451401E+0	1.413817E+0	1.441265E+0	1.440886E+0	1.510655E+0	1.366181E+0
5.497630E+2	1.327606E+0	1.375601E+0	1.436821E+0	1.341977E+0	1.395053E+0	1.391191E+0	1.355828E+0	1.401787E+0	1.426163E+0	1.397207E+0	1.346836E+0	1.392362E+0	1.368905E+0	1.344189E+0	1.371077E+0	1.381988E+0	1.442269E+0	1.406950E+0	1.371896E+0	1.395487E+0	1.397410E+0	1.402440E+0	1.413023E+0	1.341342E+0	1.408675E+0	1.415069E+0	1.336752E+0	1.371721E+0	1.331788E+0	1.376787E+0	1.380613E+0	1.418437E+0	1.357088E+0	1.408483E+0	1.430176E+0	1.377924E+0	1.361886E+0	1.381270E+0	1.364908E+0	1.362703E+0	1.365624E+0	1.381497E+0	1.352801E+0	1.335020E+0	1.346385E+0	1.357227E+0	1.349970E+0	1.307492E+0	1.347758E+0	1.408670E+0	1.342376E+0	1.350736E+0	1.381884E+0	1.430199E+0	1.401346E+0	1.345494E+0	1.354842E+0	1.364164E+0	1.332271E+0	1.370198E+0	1.391334E+0	1.377740E+0	1.389525E+0	1.360653E+0	1.360245E+0	1.444255E+0	1.390616E+0	1.344101E+0	1.392183E+0	1.352393E+0	1.355473E+0	1.351552E+0	1.448182E+0	1.398202E+0	1.325870E+0	1.419502E+0	1.272683E+0	1.382601E+0	1.367341E+0	1.370932E+0	1.376551E+0	1.347794E+0	1.410930E+0	1.339747E+0	1.436163E+0	1.356421E+0	1.418828E+0	1.388141E+0	1.377643E+0	1.323015E+0	1.404703E+0	1.404319E+0	1.359607E+0	1.361321E+0	1.375485E+0	1.369041E+0	1.349540E+0	1.383721E+0	1.374302E+0	1.361412E+0	1.378221E+0	1.358572E+0	1.372155E+0	1.404701E+0	1.346304E+0	1.381606E+0	1.338193E+0	1.352744E+0	1.331739E+0	1.363898E+0	1.335649E+0	1.318447E+0	1.377561E+0	1.301749E+0	1.323114E+0	1.364341E+0	1.379085E+0	1.376849E+0	1.272313E+0	1.353639E+0	1.378926E+0	1.345862E+0	1.329799E+0	1.447465E+0	1.365129E+0	1.361495E+0	1.333325E+0	1.360190E+0	1.393717E+0	1.331138E+0	1.368473E+0	1.343054E+0	1.439409E+0	1.359451E+0	1.298757E+0	1.353478E+0	1.320851E+0	1.288212E+0	1.370581E+0	1.299918E+0	1.406294E+0	1.364601E+0	1.328175E+0	1.340393E+0	1.356554E+0	1.408373E+0	1.325288E+0	1.354462E+0	1.334761E+0	1.363778E+0	1.372915E+0	1.378986E+0	1.416656E+0	1.375858E+0	1.349369E+0	1.405935E+0	1.314636E+0	1.378646E+0	1.368257E+0	1.322753E+0	1.311493E+0	1.325432E+0	1.394629E+0	1.306183E+0	1.331035E+0	1.365480E+0	1.344436E+0	1.339986E+0	1.375850E+0	1.349244E+0	1.406150E+0
5.505110E+2	1.329745E+0	1.378695E+0	1.363468E+0	1.296743E+0	1.342830E+0	1.388474E+0	1.323944E+0	1.369127E+0	1.324415E+0	1.393085E+0	1.322044E+0	1.355469E+0	1.311524E+0	1.334325E+0	1.353248E+0	1.384432E+0	1.372597E+0	1.353389E+0	1.372082E+0	1.362448E+0	1.369759E+0	1.365311E+0	1.327851E+0	1.339631E+0	1.358015E+0	1.331578E+0	1.417304E+0	1.296546E+0	1.321046E+0	1.346280E+0	1.308931E+0	1.315629E+0	1.328348E+0	1.407880E+0	1.354566E+0	1.332950E+0	1.347519E+0	1.383988E+0	1.326378E+0	1.323499E+0	1.312144E+0	1.357376E+0	1.354753E+0	1.350733E+0	1.341692E+0	1.335881E+0	1.320849E+0	1.335401E+0	1.326173E+0	1.375192E+0	1.352348E+0	1.298199E+0	1.387980E+0	1.394394E+0	1.318834E+0	1.372834E+0	1.344846E+0	1.401775E+0	1.281895E+0	1.336518E+0	1.336595E+0	1.350495E+0	1.307610E+0	1.351681E+0	1.382645E+0	1.357261E+0	1.353267E+0	1.315939E+0	1.349941E+0	1.367660E+0	1.328040E+0	1.322286E+0	1.355457E+0	1.351107E+0	1.346679E+0	1.356426E+0	1.319024E+0	1.350234E+0	1.357881E+0	1.281784E+0	1.365216E+0	1.346278E+0	1.351604E+0	1.315987E+0	1.337192E+0	1.368819E+0	1.324224E+0	1.351740E+0	1.383066E+0	1.327234E+0	1.322295E+0	1.360928E+0	1.316196E+0	1.355140E+0	1.368701E+0	1.288172E+0	1.353742E+0	1.331713E+0	1.323866E+0	1.345261E+0	1.364493E+0	1.283857E+0	1.328290E+0	1.288418E+0	1.431314E+0	1.371162E+0	1.303201E+0	1.369614E+0	1.325705E+0	1.309783E+0	1.296839E+0	1.375204E+0	1.305653E+0	1.326919E+0	1.316373E+0	1.333988E+0	1.361777E+0	1.326496E+0	1.244094E+0	1.292598E+0	1.394612E+0	1.275336E+0	1.274895E+0	1.296770E+0	1.359725E+0	1.305732E+0	1.356595E+0	1.357930E+0	1.361637E+0	1.367454E+0	1.332940E+0	1.292045E+0	1.370598E+0	1.333218E+0	1.323782E+0	1.377163E+0	1.347293E+0	1.325160E+0	1.296253E+0	1.325091E+0	1.324352E+0	1.319208E+0	1.312412E+0	1.335361E+0	1.310173E+0	1.315961E+0	1.304308E+0	1.379191E+0	1.348251E+0	1.340230E+0	1.302778E+0	1.350568E+0	1.372981E+0	1.345828E+0	1.267593E+0	1.341374E+0	1.320981E+0	1.295745E+0	1.327496E+0	1.377161E+0	1.303744E+0	1.350001E+0	1.294131E+0	1.328619E+0	1.355143E+0	1.334022E+0	1.351682E+0	1.313001E+0	1.348280E+0	1.243373E+0	1.304100E+0
5.512620E+2	1.389824E+0	1.327788E+0	1.315244E+0	1.282151E+0	1.297355E+0	1.345208E+0	1.283278E+0	1.345135E+0	1.314126E+0	1.375589E+0	1.360185E+0	1.357020E+0	1.279347E+0	1.331513E+0	1.308308E+0	1.315105E+0	1.348369E+0	1.374258E+0	1.352704E+0	1.288399E+0	1.361342E+0	1.358355E+0	1.332866E+0	1.330343E+0	1.325867E+0	1.323277E+0	1.391299E+0	1.302573E+0	1.323546E+0	1.346503E+0	1.324606E+0	1.304385E+0	1.301616E+0	1.404909E+0	1.344013E+0	1.294880E+0	1.316585E+0	1.394213E+0	1.283353E+0	1.348822E+0	1.346932E+0	1.333279E+0	1.394608E+0	1.378963E+0	1.277687E+0	1.310740E+0	1.305773E+0	1.335743E+0	1.355610E+0	1.324719E+0	1.314296E+0	1.305948E+0	1.352835E+0	1.378814E+0	1.317423E+0	1.355088E+0	1.317859E+0	1.379928E+0	1.274470E+0	1.253937E+0	1.315736E+0	1.329860E+0	1.319548E+0	1.320854E+0	1.308068E+0	1.347349E+0	1.374339E+0	1.325846E+0	1.334059E+0	1.333533E+0	1.338345E+0	1.290667E+0	1.370547E+0	1.370560E+0	1.318620E+0	1.376595E+0	1.345708E+0	1.353005E+0	1.321652E+0	1.312841E+0	1.338255E+0	1.339449E+0	1.347271E+0	1.347301E+0	1.321090E+0	1.341296E+0	1.319763E+0	1.338002E+0	1.338835E+0	1.316795E+0	1.304117E+0	1.341619E+0	1.281822E+0	1.246924E+0	1.347650E+0	1.279887E+0	1.334665E+0	1.293969E+0	1.301305E+0	1.333033E+0	1.341652E+0	1.335769E+0	1.301839E+0	1.353276E+0	1.363964E+0	1.302876E+0	1.282248E+0	1.376267E+0	1.329925E+0	1.333866E+0	1.342397E+0	1.291024E+0	1.320845E+0	1.313133E+0	1.341503E+0	1.361177E+0	1.385953E+0	1.338904E+0	1.305089E+0	1.255614E+0	1.371842E+0	1.307517E+0	1.301508E+0	1.360710E+0	1.319833E+0	1.329771E+0	1.314512E+0	1.300215E+0	1.348658E+0	1.319178E+0	1.332621E+0	1.288598E+0	1.319285E+0	1.324776E+0	1.281964E+0	1.327696E+0	1.348157E+0	1.304435E+0	1.382259E+0	1.279419E+0	1.323309E+0	1.276889E+0	1.286552E+0	1.305377E+0	1.290097E+0	1.321122E+0	1.256258E+0	1.341998E+0	1.318649E+0	1.312176E+0	1.293039E+0	1.306696E+0	1.316654E+0	1.346682E+0	1.292393E+0	1.394867E+0	1.300677E+0	1.298719E+0	1.320517E+0	1.372671E+0	1.334515E+0	1.302171E+0	1.368712E+0	1.295718E+0	1.369416E+0	1.390301E+0	1.299349E+0	1.307211E+0	1.323424E+0	1.364811E+0	1.273106E+0
5.520150E+2	1.355570E+0	1.325800E+0	1.391183E+0	1.221381E+0	1.334759E+0	1.330337E+0	1.317200E+0	1.341898E+0	1.287798E+0	1.395381E+0	1.311421E+0	1.325471E+0	1.340215E+0	1.288723E+0	1.281069E+0	1.341227E+0	1.328256E+0	1.399853E+0	1.257449E+0	1.352974E+0	1.339256E+0	1.312684E+0	1.346580E+0	1.296661E+0	1.318508E+0	1.353229E+0	1.323842E+0	1.340600E+0	1.301742E+0	1.329936E+0	1.324478E+0	1.327532E+0	1.310670E+0	1.350242E+0	1.328420E+0	1.375303E+0	1.383634E+0	1.342173E+0	1.312222E+0	1.316511E+0	1.340153E+0	1.369273E+0	1.343272E+0	1.328994E+0	1.329209E+0	1.301085E+0	1.307257E+0	1.301820E+0	1.348084E+0	1.283291E+0	1.302849E+0	1.271176E+0	1.388768E+0	1.305924E+0	1.319539E+0	1.340936E+0	1.330999E+0	1.388923E+0	1.323506E+0	1.317396E+0	1.291406E+0	1.310085E+0	1.292374E+0	1.270687E+0	1.317437E+0	1.387728E+0	1.315203E+0	1.355363E+0	1.324006E+0	1.306373E+0	1.298270E+0	1.311639E+0	1.344041E+0	1.336300E+0	1.323063E+0	1.358595E+0	1.302910E+0	1.335775E+0	1.306503E+0	1.345131E+0	1.315344E+0	1.363008E+0	1.366177E+0	1.314878E+0	1.319064E+0	1.330856E+0	1.296162E+0	1.311555E+0	1.296084E+0	1.314169E+0	1.322768E+0	1.306384E+0	1.306506E+0	1.325585E+0	1.320277E+0	1.258022E+0	1.313524E+0	1.306763E+0	1.319013E+0	1.348782E+0	1.355054E+0	1.346525E+0	1.322050E+0	1.286956E+0	1.296660E+0	1.351650E+0	1.331055E+0	1.294692E+0	1.307004E+0	1.268719E+0	1.304544E+0	1.323468E+0	1.338541E+0	1.319498E+0	1.299230E+0	1.355790E+0	1.259615E+0	1.329030E+0	1.336750E+0	1.306332E+0	1.340508E+0	1.323199E+0	1.365127E+0	1.359556E+0	1.290816E+0	1.295452E+0	1.316558E+0	1.282174E+0	1.377983E+0	1.364330E+0	1.369310E+0	1.282242E+0	1.356187E+0	1.358536E+0	1.365157E+0	1.310864E+0	1.311745E+0	1.316779E+0	1.268583E+0	1.306892E+0	1.366415E+0	1.335386E+0	1.305108E+0	1.319653E+0	1.357975E+0	1.315658E+0	1.257358E+0	1.276590E+0	1.317832E+0	1.360865E+0	1.265685E+0	1.328125E+0	1.326403E+0	1.318561E+0	1.297499E+0	1.338627E+0	1.286984E+0	1.294449E+0	1.315187E+0	1.335374E+0	1.352828E+0	1.313822E+0	1.268244E+0	1.315706E+0	1.398954E+0	1.374824E+0	1.329356E+0	1.256791E+0	1.326514E+0	1.322236E+0	1.322028E+0
5.527700E+2	1.259671E+0	1.272896E+0	1.281509E+0	1.189384E+0	1.302516E+0	1.324221E+0	1.240565E+0	1.219120E+0	1.313275E+0	1.240579E+0	1.253481E+0	1.293524E+0	1.249343E+0	1.280186E+0	1.270362E+0	1.229877E+0	1.347684E+0	1.279678E+0	1.265444E+0	1.294377E+0	1.250753E+0	1.267135E+0	1.244037E+0	1.295677E+0	1.279866E+0	1.299846E+0	1.193819E+0	1.202491E+0	1.253690E+0	1.279606E+0	1.296619E+0	1.267504E+0	1.241531E+0	1.279506E+0	1.292964E+0	1.271532E+0	1.279151E+0	1.257279E+0	1.201662E+0	1.260546E+0	1.247978E+0	1.275848E+0	1.278144E+0	1.249588E+0	1.275702E+0	1.273856E+0	1.226131E+0	1.243973E+0	1.242094E+0	1.257613E+0	1.257775E+0	1.169112E+0	1.272292E+0	1.307331E+0	1.254089E+0	1.287815E+0	1.265886E+0	1.256360E+0	1.232323E+0	1.261170E+0	1.238993E+0	1.286360E+0	1.225681E+0	1.291095E+0	1.242369E+0	1.256596E+0	1.236708E+0	1.297016E+0	1.248111E+0	1.254780E+0	1.263560E+0	1.248720E+0	1.270845E+0	1.327016E+0	1.249075E+0	1.275485E+0	1.233127E+0	1.282966E+0	1.248459E+0	1.214227E+0	1.235404E+0	1.253591E+0	1.213896E+0	1.253237E+0	1.230795E+0	1.250688E+0	1.277843E+0	1.279323E+0	1.274366E+0	1.199268E+0	1.282586E+0	1.216819E+0	1.236389E+0	1.266116E+0	1.210923E+0	1.231368E+0	1.219796E+0	1.199989E+0	1.238407E+0	1.273431E+0	1.266297E+0	1.275343E+0	1.266139E+0	1.216537E+0	1.268629E+0	1.273955E+0	1.273362E+0	1.241190E+0	1.238940E+0	1.262830E+0	1.249245E+0	1.301748E+0	1.201234E+0	1.232567E+0	1.236195E+0	1.257009E+0	1.296707E+0	1.231013E+0	1.233676E+0	1.261816E+0	1.265954E+0	1.272910E+0	1.190145E+0	1.272326E+0	1.277026E+0	1.228325E+0	1.266884E+0	1.267805E+0	1.212746E+0	1.242969E+0	1.275608E+0	1.230691E+0	1.294127E+0	1.250364E+0	1.199798E+0	1.282110E+0	1.220190E+0	1.289032E+0	1.221696E+0	1.206770E+0	1.254055E+0	1.224647E+0	1.243992E+0	1.280435E+0	1.240873E+0	1.335419E+0	1.181133E+0	1.304409E+0	1.238973E+0	1.278788E+0	1.188330E+0	1.234295E+0	1.221356E+0	1.247487E+0	1.246138E+0	1.234601E+0	1.242926E+0	1.239046E+0	1.278554E+0	1.264026E+0	1.293438E+0	1.302154E+0	1.273715E+0	1.215881E+0	1.308229E+0	1.314147E+0	1.250924E+0	1.198060E+0	1.219008E+0	1.255858E+0	1.238562E+0
5.534990E+2	1.144107E+0	1.259101E+0	1.213648E+0	1.187902E+0	1.142502E+0	1.225862E+0	1.195192E+0	1.203724E+0	1.134324E+0	1.175214E+0	1.222004E+0	1.201208E+0	1.174951E+0	1.199894E+0	1.180424E+0	1.184759E+0	1.218314E+0	1.205047E+0	1.179012E+0	1.208370E+0	1.207392E+0	1.212192E+0	1.219522E+0	1.178954E+0	1.152824E+0	1.202912E+0	1.192373E+0	1.183758E+0	1.180061E+0	1.158661E+0	1.209324E+0	1.188743E+0	1.170927E+0	1.227048E+0	1.195936E+0	1.228972E+0	1.183779E+0	1.197558E+0	1.162452E+0	1.178721E+0	1.240961E+0	1.208600E+0	1.189629E+0	1.158194E+0	1.223491E+0	1.172931E+0	1.100820E+0	1.126337E+0	1.164523E+0	1.192141E+0	1.158365E+0	1.128917E+0	1.262187E+0	1.212140E+0	1.197752E+0	1.247649E+0	1.244594E+0	1.189148E+0	1.191206E+0	1.190648E+0	1.221714E+0	1.246598E+0	1.203953E+0	1.203318E+0	1.141745E+0	1.197950E+0	1.190768E+0	1.194841E+0	1.179281E+0	1.183848E+0	1.169560E+0	1.189725E+0	1.239958E+0	1.210152E+0	1.218981E+0	1.170585E+0	1.175423E+0	1.164687E+0	1.198381E+0	1.142270E+0	1.195578E+0	1.217033E+0	1.176999E+0	1.174344E+0	1.193328E+0	1.182118E+0	1.157722E+0	1.228479E+0	1.192765E+0	1.107738E+0	1.191040E+0	1.169311E+0	1.182244E+0	1.240787E+0	1.173542E+0	1.164958E+0	1.172213E+0	1.152938E+0	1.148929E+0	1.201388E+0	1.197266E+0	1.150084E+0	1.177676E+0	1.185877E+0	1.249043E+0	1.191604E+0	1.180723E+0	1.208297E+0	1.185853E+0	1.228209E+0	1.172437E+0	1.155987E+0	1.198732E+0	1.240212E+0	1.162592E+0	1.154340E+0	1.192811E+0	1.234401E+0	1.182252E+0	1.165734E+0	1.173881E+0	1.111661E+0	1.205970E+0	1.175386E+0	1.180176E+0	1.185918E+0	1.203366E+0	1.222423E+0	1.209365E+0	1.164652E+0	1.142802E+0	1.172889E+0	1.169187E+0	1.236509E+0	1.154189E+0	1.209582E+0	1.140935E+0	1.136307E+0	1.170670E+0	1.170164E+0	1.223424E+0	1.184266E+0	1.170363E+0	1.196685E+0	1.183549E+0	1.141524E+0	1.144679E+0	1.195921E+0	1.144309E+0	1.224688E+0	1.155655E+0	1.177606E+0	1.200748E+0	1.210097E+0	1.167693E+0	1.210723E+0	1.149876E+0	1.188455E+0	1.198101E+0	1.175264E+0	1.158981E+0	1.178820E+0	1.224249E+0	1.166770E+0	1.195144E+0	1.236430E+0	1.203943E+0	1.119856E+0	1.132499E+0	1.204173E+0	1.239451E+0
5.542580E+2	1.111621E+0	1.159021E+0	1.136487E+0	1.083401E+0	1.129894E+0	1.192716E+0	1.109039E+0	1.122486E+0	1.163587E+0	1.155099E+0	1.137512E+0	1.114459E+0	1.111558E+0	1.137967E+0	1.174921E+0	1.142665E+0	1.115885E+0	1.178642E+0	1.081407E+0	1.132812E+0	1.137568E+0	1.131731E+0	1.155583E+0	1.119736E+0	1.135622E+0	1.086370E+0	1.094108E+0	1.074652E+0	1.100260E+0	1.136645E+0	1.131462E+0	1.093480E+0	1.038419E+0	1.108976E+0	1.150304E+0	1.115729E+0	1.117928E+0	1.169839E+0	1.112823E+0	1.118257E+0	1.122589E+0	1.112258E+0	1.061293E+0	1.072881E+0	1.100737E+0	1.083475E+0	1.114223E+0	1.149720E+0	1.163683E+0	1.116132E+0	1.081422E+0	1.113757E+0	1.152907E+0	1.079986E+0	1.076022E+0	1.100581E+0	1.159146E+0	1.107565E+0	1.142392E+0	1.101746E+0	1.095129E+0	1.107916E+0	1.100290E+0	1.106176E+0	1.079650E+0	1.072407E+0	1.170194E+0	1.121602E+0	1.154533E+0	1.096304E+0	1.078573E+0	1.109875E+0	1.150726E+0	1.163493E+0	1.099006E+0	1.103988E+0	1.109816E+0	1.140920E+0	1.100893E+0	1.093104E+0	1.119689E+0	1.127275E+0	1.127577E+0	1.086305E+0	1.141233E+0	1.118219E+0	1.072973E+0	1.135476E+0	1.132003E+0	1.153091E+0	1.147786E+0	1.123016E+0	1.100306E+0	1.098821E+0	1.115867E+0	1.100104E+0	1.111584E+0	1.134601E+0	1.085261E+0	1.096637E+0	1.104757E+0	1.125669E+0	1.113225E+0	1.064230E+0	1.112323E+0	1.105972E+0	1.092031E+0	1.124784E+0	1.067507E+0	1.133613E+0	1.124804E+0	1.130086E+0	1.125067E+0	1.157828E+0	1.145641E+0	1.089839E+0	1.117040E+0	1.101718E+0	1.075951E+0	1.132208E+0	1.129959E+0	1.074807E+0	1.121826E+0	1.120755E+0	1.159114E+0	1.146904E+0	1.112317E+0	1.111360E+0	1.108408E+0	1.103305E+0	1.139276E+0	1.105802E+0	1.104273E+0	1.115869E+0	1.101012E+0	1.114663E+0	1.111959E+0	1.120831E+0	1.091809E+0	1.106957E+0	1.109728E+0	1.087564E+0	1.112858E+0	1.079134E+0	1.075398E+0	1.158366E+0	1.079922E+0	1.095175E+0	1.083734E+0	1.160379E+0	1.091918E+0	1.121732E+0	1.109735E+0	1.098296E+0	1.091961E+0	1.116425E+0	1.081273E+0	1.101020E+0	1.123194E+0	1.109190E+0	1.149364E+0	1.120081E+0	1.149513E+0	1.083095E+0	1.152000E+0	1.118027E+0	1.085933E+0	1.094400E+0	1.098798E+0	1.125544E+0	1.019176E+0
5.550140E+2	1.008415E+0	1.032739E+0	9.941036E-1	1.006571E+0	1.064089E+0	1.029912E+0	1.023679E+0	9.999179E-1	1.057545E+0	1.016780E+0	9.898711E-1	1.026147E+0	1.055043E+0	1.071677E+0	1.022782E+0	1.017700E+0	1.043912E+0	1.057836E+0	1.051483E+0	1.023053E+0	1.039645E+0	1.030816E+0	1.037736E+0	9.624682E-1	1.036650E+0	1.079881E+0	1.025714E+0	1.030959E+0	9.721366E-1	1.031159E+0	9.880466E-1	1.009749E+0	1.007276E+0	9.927210E-1	1.012914E+0	9.931482E-1	1.028256E+0	1.054405E+0	1.040064E+0	1.032511E+0	1.019594E+0	1.010376E+0	9.962136E-1	9.831262E-1	1.020444E+0	1.006399E+0	1.031499E+0	1.019496E+0	1.017085E+0	1.069008E+0	1.027007E+0	9.607222E-1	1.044998E+0	1.006684E+0	1.007489E+0	1.027296E+0	1.020001E+0	1.014686E+0	1.046206E+0	9.819734E-1	1.040411E+0	1.077265E+0	9.868718E-1	1.024488E+0	1.069882E+0	1.047219E+0	1.007997E+0	1.014649E+0	1.002503E+0	1.033654E+0	1.048897E+0	1.037527E+0	1.000909E+0	1.050669E+0	1.008924E+0	1.001660E+0	1.005395E+0	1.053890E+0	1.015592E+0	9.832536E-1	1.073333E+0	1.015989E+0	9.803812E-1	9.916897E-1	1.028303E+0	1.061448E+0	1.011574E+0	1.063310E+0	1.014118E+0	1.034327E+0	1.001437E+0	9.876918E-1	1.013376E+0	1.008437E+0	9.915750E-1	1.037311E+0	9.792347E-1	1.012726E+0	1.007995E+0	1.014572E+0	9.936598E-1	1.024317E+0	1.072231E+0	1.017304E+0	9.959633E-1	1.048139E+0	1.036287E+0	1.029197E+0	1.053466E+0	1.056740E+0	1.055936E+0	9.781758E-1	1.036545E+0	1.047396E+0	1.037478E+0	1.058609E+0	1.015325E+0	9.941619E-1	9.796734E-1	1.020362E+0	1.038179E+0	1.008896E+0	1.047834E+0	1.024927E+0	1.015960E+0	9.979102E-1	1.017023E+0	1.002212E+0	9.864112E-1	1.035075E+0	9.835994E-1	1.055939E+0	1.019037E+0	1.041502E+0	1.044710E+0	9.877330E-1	1.018922E+0	1.009595E+0	1.021375E+0	9.941344E-1	1.026576E+0	1.000349E+0	1.000256E+0	1.016137E+0	1.039230E+0	1.019571E+0	1.006572E+0	1.031949E+0	9.903505E-1	1.029532E+0	1.025722E+0	9.937655E-1	9.946063E-1	9.933311E-1	1.006314E+0	9.656978E-1	1.014517E+0	1.053304E+0	1.002807E+0	9.851924E-1	9.962475E-1	1.044945E+0	1.003568E+0	1.060926E+0	9.670637E-1	1.071710E+0	9.746910E-1	9.612362E-1	1.007856E+0	1.024335E+0	1.037282E+0
5.557940E+2	9.148111E-1	9.996013E-1	9.758880E-1	9.588947E-1	9.915179E-1	9.853210E-1	9.785627E-1	9.621765E-1	9.810947E-1	9.462190E-1	9.648455E-1	9.641060E-1	9.922411E-1	9.098169E-1	9.577844E-1	9.799827E-1	9.721963E-1	9.942961E-1	1.004516E+0	9.609963E-1	9.409176E-1	9.539907E-1	9.630027E-1	9.857298E-1	9.686063E-1	9.830607E-1	9.647465E-1	9.724308E-1	9.304539E-1	9.606642E-1	9.767425E-1	9.346725E-1	9.445146E-1	9.664540E-1	9.450787E-1	9.222224E-1	9.412639E-1	9.820600E-1	9.595157E-1	9.527465E-1	9.580685E-1	9.622644E-1	9.483464E-1	9.529747E-1	9.628258E-1	9.640296E-1	9.968886E-1	9.338596E-1	9.597611E-1	1.022993E+0	9.117362E-1	9.054580E-1	9.708890E-1	9.615310E-1	9.483770E-1	9.506163E-1	1.002196E+0	9.548525E-1	9.407308E-1	9.821827E-1	9.306330E-1	9.582799E-1	9.837606E-1	9.602836E-1	9.702674E-1	9.468853E-1	9.479118E-1	9.891135E-1	9.384009E-1	9.831974E-1	9.912894E-1	9.661648E-1	9.599522E-1	9.531532E-1	9.461490E-1	9.599386E-1	9.343463E-1	9.440305E-1	9.346115E-1	9.642330E-1	9.765584E-1	1.022260E+0	9.362637E-1	1.011676E+0	9.594066E-1	9.596863E-1	9.736636E-1	9.622095E-1	9.393249E-1	9.486582E-1	1.004739E+0	9.322656E-1	1.002250E+0	9.655549E-1	9.656962E-1	9.585988E-1	9.382434E-1	9.475580E-1	9.342390E-1	9.598414E-1	9.594453E-1	9.592612E-1	9.535908E-1	9.806133E-1	9.438540E-1	9.822565E-1	9.425013E-1	9.864628E-1	9.503296E-1	9.550727E-1	9.593346E-1	9.361179E-1	9.523669E-1	9.899989E-1	9.582818E-1	9.468208E-1	9.648166E-1	9.985534E-1	9.872370E-1	9.179344E-1	9.738932E-1	9.278181E-1	9.572394E-1	1.001415E+0	1.005333E+0	9.633168E-1	9.528140E-1	9.554960E-1	9.392641E-1	9.758409E-1	9.849606E-1	9.735875E-1	9.502371E-1	9.846045E-1	9.815176E-1	9.694319E-1	9.205869E-1	9.693115E-1	9.600226E-1	9.252656E-1	9.558017E-1	9.300437E-1	9.595425E-1	9.774217E-1	9.741799E-1	1.034609E+0	9.200214E-1	9.721931E-1	9.528554E-1	1.000257E+0	9.691833E-1	9.501540E-1	1.001543E+0	9.895551E-1	9.687858E-1	1.010007E+0	9.123939E-1	9.070883E-1	9.490948E-1	9.458598E-1	9.588368E-1	9.545172E-1	9.664523E-1	9.562046E-1	1.018187E+0	9.861317E-1	9.720636E-1	9.453041E-1	9.990684E-1	1.007299E+0	1.029039E+0
5.560130E+2	9.650272E-1	9.794182E-1	1.002941E+0	9.995769E-1	1.025689E+0	1.017128E+0	1.014463E+0	1.012998E+0	9.956432E-1	9.961973E-1	9.760832E-1	9.567512E-1	9.728622E-1	9.671275E-1	1.033612E+0	9.826279E-1	1.022526E+0	1.011421E+0	9.836479E-1	1.036976E+0	9.623739E-1	9.835615E-1	9.877104E-1	9.869943E-1	1.006803E+0	1.000791E+0	9.800871E-1	1.020487E+0	9.944982E-1	9.851839E-1	9.739089E-1	9.553378E-1	9.788741E-1	1.021476E+0	1.008633E+0	9.809223E-1	1.048524E+0	1.015867E+0	9.693667E-1	9.932589E-1	9.538854E-1	9.895358E-1	9.785141E-1	9.266324E-1	1.019441E+0	1.003220E+0	9.849533E-1	9.951238E-1	9.742441E-1	9.424144E-1	9.540526E-1	9.307800E-1	1.026338E+0	9.560394E-1	9.589812E-1	9.673458E-1	1.002927E+0	1.005108E+0	1.004754E+0	9.587704E-1	9.363848E-1	1.002726E+0	9.970916E-1	9.476956E-1	9.814973E-1	1.002544E+0	1.023776E+0	9.706499E-1	9.486909E-1	9.964516E-1	1.016920E+0	9.702567E-1	9.546488E-1	9.958654E-1	1.014537E+0	1.025418E+0	9.981477E-1	1.010768E+0	9.650288E-1	1.027631E+0	9.507431E-1	1.001044E+0	9.914958E-1	9.999346E-1	9.654518E-1	9.531490E-1	9.675211E-1	9.820450E-1	9.208959E-1	1.004724E+0	1.000167E+0	1.029646E+0	9.651891E-1	1.004807E+0	1.007567E+0	9.813069E-1	9.600898E-1	9.722802E-1	9.640537E-1	9.834224E-1	9.993184E-1	9.872929E-1	9.923799E-1	9.976631E-1	9.653771E-1	1.015255E+0	1.024680E+0	9.978653E-1	9.972614E-1	1.002320E+0	9.669812E-1	9.646241E-1	9.603495E-1	1.017417E+0	1.017095E+0	9.892995E-1	9.880328E-1	1.046953E+0	9.500184E-1	9.684021E-1	1.000199E+0	9.433782E-1	9.859423E-1	1.042518E+0	9.439015E-1	9.893316E-1	1.018887E+0	9.708632E-1	9.745757E-1	9.983299E-1	9.637938E-1	9.821570E-1	9.861809E-1	1.006707E+0	9.785931E-1	9.878825E-1	9.803927E-1	1.018862E+0	9.896062E-1	9.444644E-1	9.381828E-1	1.005742E+0	9.987867E-1	9.510216E-1	9.817388E-1	1.023643E+0	9.518678E-1	1.005000E+0	9.826885E-1	1.019687E+0	9.505506E-1	1.019770E+0	1.003020E+0	1.062990E+0	9.771167E-1	1.002899E+0	9.370517E-1	9.761324E-1	1.022615E+0	1.000562E+0	1.000872E+0	1.005042E+0	1.007967E+0	1.015697E+0	1.032490E+0	9.962473E-1	9.921180E-1	9.686480E-1	9.874259E-1	9.555300E-1	1.032838E+0
5.565090E+2	9.750791E-1	9.616708E-1	8.971575E-1	9.546441E-1	9.869842E-1	9.823331E-1	9.698181E-1	9.694360E-1	9.855458E-1	9.542119E-1	9.825372E-1	9.880536E-1	9.880299E-1	9.772977E-1	9.068891E-1	9.831564E-1	9.631551E-1	9.663786E-1	9.903350E-1	1.033816E+0	9.577383E-1	9.940928E-1	9.445241E-1	9.719161E-1	9.582893E-1	9.728518E-1	9.735954E-1	9.272294E-1	9.660450E-1	9.189040E-1	9.708759E-1	9.840629E-1	9.378892E-1	9.808102E-1	9.619737E-1	9.856421E-1	9.425711E-1	9.769633E-1	9.598324E-1	9.649782E-1	9.750012E-1	9.867284E-1	9.718983E-1	9.376577E-1	9.991533E-1	9.563477E-1	9.446060E-1	9.682074E-1	9.466138E-1	9.838037E-1	9.313397E-1	9.670961E-1	1.035356E+0	9.859528E-1	1.009891E+0	9.841108E-1	1.039814E+0	9.636573E-1	9.714400E-1	9.673828E-1	1.006087E+0	9.785359E-1	9.626354E-1	9.677630E-1	1.027461E+0	9.269308E-1	9.642779E-1	9.861103E-1	9.699586E-1	9.669794E-1	9.678763E-1	1.003528E+0	9.900406E-1	9.876827E-1	9.704526E-1	9.689644E-1	9.557368E-1	9.682717E-1	9.300463E-1	9.790112E-1	9.762903E-1	9.840963E-1	9.987765E-1	9.846653E-1	9.346187E-1	9.605274E-1	1.014327E+0	9.801618E-1	9.873751E-1	9.448440E-1	1.013948E+0	9.951302E-1	1.011227E+0	9.907001E-1	9.737080E-1	9.399775E-1	9.574294E-1	9.511080E-1	9.576443E-1	9.695985E-1	9.611249E-1	9.632794E-1	1.016276E+0	9.952202E-1	9.822756E-1	9.846208E-1	9.783859E-1	1.009711E+0	9.847994E-1	9.147585E-1	1.000896E+0	9.902855E-1	9.642645E-1	9.810999E-1	9.702845E-1	9.651858E-1	9.648747E-1	9.506258E-1	9.384977E-1	9.608763E-1	1.008332E+0	9.571670E-1	9.731811E-1	9.811143E-1	9.572813E-1	1.038717E+0	9.685266E-1	9.660236E-1	9.656284E-1	9.799331E-1	9.511685E-1	9.337819E-1	9.672688E-1	9.749815E-1	9.877720E-1	9.891908E-1	9.664030E-1	9.182589E-1	1.017385E+0	9.506547E-1	9.614334E-1	9.767593E-1	9.124055E-1	9.850759E-1	9.449216E-1	9.602306E-1	9.215751E-1	9.143460E-1	9.543718E-1	9.568301E-1	9.300981E-1	9.876037E-1	9.628167E-1	9.671035E-1	9.698140E-1	9.957802E-1	9.263486E-1	1.010202E+0	1.005161E+0	1.018705E+0	1.006500E+0	9.485218E-1	9.951156E-1	9.549092E-1	1.024448E+0	9.845530E-1	9.696450E-1	9.650305E-1	9.717075E-1	1.034379E+0	9.471296E-1
5.570560E+2	9.795012E-1	9.728217E-1	9.697044E-1	9.748322E-1	9.643131E-1	9.606060E-1	9.819829E-1	9.552129E-1	9.923662E-1	9.887743E-1	9.910874E-1	9.566916E-1	9.703650E-1	9.841234E-1	1.001957E+0	1.028297E+0	9.709624E-1	9.552675E-1	9.795828E-1	9.724902E-1	9.694468E-1	1.010331E+0	9.571221E-1	9.879522E-1	1.005314E+0	9.819632E-1	9.756296E-1	9.893548E-1	9.571614E-1	9.656185E-1	9.643451E-1	1.025813E+0	9.538955E-1	9.666060E-1	9.909048E-1	9.488040E-1	9.964344E-1	9.574512E-1	9.845403E-1	9.346350E-1	9.893035E-1	9.405345E-1	9.828465E-1	9.644849E-1	9.607390E-1	9.505283E-1	9.372499E-1	9.695954E-1	9.341948E-1	1.013983E+0	1.001891E+0	9.785467E-1	9.823482E-1	1.005818E+0	1.009038E+0	9.908153E-1	9.967772E-1	9.830387E-1	9.878833E-1	9.665701E-1	9.937010E-1	9.822390E-1	9.953402E-1	9.788041E-1	9.909889E-1	9.865542E-1	9.951153E-1	9.913074E-1	1.009180E+0	9.607462E-1	1.000716E+0	9.842682E-1	9.629531E-1	1.006656E+0	9.796149E-1	1.001204E+0	9.956989E-1	9.229794E-1	1.018371E+0	9.312641E-1	1.008441E+0	1.014904E+0	9.471084E-1	9.990949E-1	9.739227E-1	9.669498E-1	9.941476E-1	9.468400E-1	1.007221E+0	9.589110E-1	1.019305E+0	1.013976E+0	9.851399E-1	9.465581E-1	9.581024E-1	9.863833E-1	9.739963E-1	9.594257E-1	1.002284E+0	9.835091E-1	9.920310E-1	9.520941E-1	1.017476E+0	9.737003E-1	9.763177E-1	1.042712E+0	9.765775E-1	1.029753E+0	9.801362E-1	9.892354E-1	1.002940E+0	9.616614E-1	9.952032E-1	9.882615E-1	9.837327E-1	9.736595E-1	9.598253E-1	9.740328E-1	9.823883E-1	9.535083E-1	9.945860E-1	9.831641E-1	9.563732E-1	9.782585E-1	1.014862E+0	9.533387E-1	1.006831E+0	9.619577E-1	9.793226E-1	9.881138E-1	1.010983E+0	9.630124E-1	9.645037E-1	1.020574E+0	9.620207E-1	9.834834E-1	1.013895E+0	9.836748E-1	9.989000E-1	1.008324E+0	9.596316E-1	1.006680E+0	9.666585E-1	9.802664E-1	1.004741E+0	9.669996E-1	9.710261E-1	1.011566E+0	9.833677E-1	1.009431E+0	1.002075E+0	9.801120E-1	9.729155E-1	9.901113E-1	9.501115E-1	9.486847E-1	1.002243E+0	9.653599E-1	1.004814E+0	9.938965E-1	9.494163E-1	1.007770E+0	9.703604E-1	9.534100E-1	9.624404E-1	1.005459E+0	9.763067E-1	1.006318E+0	9.789521E-1	9.359150E-1	1.018679E+0
5.575360E+2	9.981960E-1	1.038957E+0	1.026988E+0	1.020939E+0	9.560111E-1	9.974848E-1	1.045160E+0	1.028008E+0	1.030450E+0	1.045394E+0	1.022113E+0	9.866965E-1	1.021103E+0	9.961757E-1	1.011384E+0	1.015948E+0	1.012022E+0	1.005306E+0	1.007500E+0	1.032613E+0	1.017838E+0	1.013558E+0	1.018179E+0	1.015074E+0	1.012521E+0	1.016047E+0	9.907785E-1	1.004317E+0	9.958145E-1	1.003345E+0	9.701392E-1	1.004126E+0	1.021358E+0	1.032696E+0	1.027467E+0	1.021081E+0	1.022688E+0	1.034168E+0	1.047400E+0	9.969275E-1	1.022229E+0	1.032867E+0	1.054986E+0	9.913519E-1	1.005000E+0	1.021862E+0	1.047187E+0	1.000660E+0	1.011516E+0	9.946238E-1	1.026558E+0	9.818735E-1	1.025095E+0	1.029891E+0	1.025806E+0	9.926504E-1	1.013708E+0	1.039582E+0	1.019972E+0	1.025822E+0	1.018721E+0	9.752921E-1	1.029854E+0	1.025630E+0	1.037611E+0	1.019745E+0	9.912974E-1	9.615372E-1	9.865395E-1	1.043547E+0	9.902096E-1	9.933327E-1	9.905738E-1	1.028178E+0	1.054896E+0	1.053955E+0	9.822759E-1	1.021303E+0	9.773921E-1	1.019533E+0	9.855986E-1	9.821058E-1	9.918784E-1	9.844360E-1	1.000590E+0	1.021098E+0	1.014781E+0	9.847264E-1	9.749601E-1	1.035067E+0	1.017292E+0	9.806179E-1	1.003211E+0	1.038214E+0	1.045423E+0	1.007152E+0	9.812572E-1	1.043435E+0	1.005119E+0	1.031249E+0	1.011412E+0	1.010327E+0	1.012214E+0	1.006937E+0	1.008645E+0	1.011252E+0	9.918702E-1	9.792997E-1	9.877753E-1	9.704979E-1	1.019601E+0	1.022307E+0	1.004754E+0	1.016896E+0	1.002674E+0	1.013823E+0	1.014924E+0	9.916942E-1	9.996839E-1	1.024098E+0	1.027077E+0	1.009286E+0	1.035391E+0	1.024434E+0	1.017454E+0	1.034187E+0	1.022546E+0	1.015050E+0	9.899982E-1	1.001313E+0	1.005769E+0	1.008805E+0	1.063758E+0	9.702823E-1	1.012972E+0	1.011991E+0	1.022467E+0	1.017626E+0	1.003357E+0	9.431856E-1	1.008237E+0	9.961315E-1	9.824558E-1	1.011431E+0	9.885928E-1	1.013127E+0	9.795420E-1	9.749627E-1	1.012683E+0	9.889890E-1	1.045356E+0	9.975658E-1	1.013876E+0	1.040200E+0	1.047580E+0	9.550573E-1	9.928831E-1	9.902196E-1	1.027378E+0	1.002228E+0	1.019530E+0	1.012582E+0	1.013262E+0	1.003200E+0	9.867091E-1	1.019763E+0	1.017041E+0	1.015283E+0	1.009929E+0	1.097675E+0	1.097070E+0
5.580170E+2	9.908097E-1	1.004869E+0	1.055951E+0	1.017962E+0	1.013237E+0	1.036632E+0	1.073169E+0	1.044598E+0	9.807123E-1	1.037095E+0	1.029010E+0	1.041379E+0	1.035674E+0	9.921196E-1	1.022200E+0	1.046495E+0	1.030180E+0	1.056287E+0	1.004666E+0	1.027062E+0	1.023544E+0	9.887766E-1	1.050321E+0	1.037099E+0	1.040564E+0	1.038275E+0	1.076454E+0	1.012823E+0	1.033325E+0	9.934652E-1	9.967252E-1	1.056591E+0	1.035647E+0	1.032179E+0	9.905108E-1	9.723376E-1	1.035822E+0	1.017975E+0	1.014417E+0	1.004999E+0	1.035162E+0	1.025494E+0	1.065094E+0	9.884629E-1	1.091844E+0	9.900274E-1	1.012086E+0	1.075471E+0	1.061106E+0	1.038623E+0	1.040318E+0	1.068006E+0	1.057430E+0	1.020967E+0	1.013340E+0	1.044998E+0	1.007912E+0	1.045602E+0	9.975993E-1	1.013483E+0	1.045586E+0	1.044131E+0	1.015336E+0	1.047517E+0	1.028939E+0	1.004062E+0	9.988782E-1	1.032028E+0	1.001129E+0	1.039835E+0	1.067745E+0	1.034943E+0	1.005887E+0	1.033359E+0	9.888988E-1	1.007066E+0	1.040519E+0	9.951727E-1	1.039756E+0	1.033495E+0	9.964220E-1	1.022165E+0	1.038585E+0	1.032283E+0	1.029774E+0	9.892659E-1	1.056648E+0	1.004196E+0	1.007696E+0	1.015477E+0	1.055544E+0	1.044888E+0	1.005921E+0	1.031001E+0	1.024968E+0	1.051976E+0	1.065681E+0	9.830450E-1	1.009404E+0	1.000240E+0	1.051892E+0	1.008074E+0	1.004039E+0	1.027779E+0	1.031674E+0	9.893686E-1	9.861288E-1	1.002138E+0	9.856672E-1	1.056345E+0	9.961802E-1	1.038247E+0	1.081447E+0	1.003145E+0	1.032063E+0	9.969963E-1	9.984074E-1	1.037928E+0	1.048285E+0	1.019710E+0	1.004826E+0	1.084457E+0	1.033541E+0	1.033613E+0	9.868424E-1	1.049068E+0	1.050884E+0	1.042000E+0	9.949466E-1	9.842213E-1	1.054225E+0	1.042640E+0	1.040315E+0	1.071617E+0	1.078358E+0	1.026642E+0	1.021263E+0	1.019202E+0	1.031956E+0	1.085727E+0	1.065562E+0	1.021203E+0	1.035343E+0	1.023659E+0	1.098074E+0	1.027329E+0	1.059139E+0	1.024558E+0	9.811863E-1	1.009024E+0	1.029966E+0	1.000862E+0	1.048520E+0	1.046210E+0	1.021480E+0	1.044036E+0	1.031811E+0	1.014784E+0	9.916223E-1	1.032866E+0	1.007623E+0	1.021007E+0	1.006659E+0	1.066622E+0	1.049324E+0	9.625223E-1	1.002794E+0	1.021491E+0	1.030131E+0	1.047236E+0	9.535257E-1
5.585160E+2	1.028044E+0	9.943458E-1	9.997160E-1	1.069197E+0	9.993072E-1	1.010694E+0	1.018995E+0	9.871690E-1	9.940132E-1	1.034676E+0	1.035550E+0	1.040384E+0	1.028654E+0	1.019221E+0	1.011098E+0	1.018466E+0	1.022629E+0	1.018035E+0	1.041715E+0	1.042148E+0	9.958843E-1	1.004777E+0	9.984763E-1	1.020636E+0	1.022913E+0	1.025973E+0	1.027660E+0	1.022880E+0	9.962475E-1	1.041927E+0	9.985385E-1	9.851307E-1	9.846725E-1	1.046180E+0	1.054577E+0	1.044357E+0	1.047642E+0	1.007997E+0	1.011574E+0	1.027871E+0	1.000278E+0	1.028501E+0	1.038592E+0	1.043905E+0	1.004509E+0	1.020937E+0	1.018158E+0	1.037016E+0	9.935510E-1	9.920140E-1	1.038389E+0	1.023359E+0	9.634271E-1	1.012419E+0	1.026985E+0	9.900884E-1	1.014185E+0	1.014105E+0	9.897362E-1	9.697447E-1	1.017756E+0	9.875152E-1	9.993044E-1	1.024731E+0	1.026096E+0	1.039389E+0	1.028955E+0	1.025406E+0	1.003899E+0	1.027227E+0	1.011731E+0	1.046959E+0	1.003472E+0	1.043550E+0	1.028476E+0	9.904525E-1	1.021016E+0	1.014624E+0	1.027808E+0	1.053100E+0	1.021972E+0	1.020760E+0	1.052473E+0	9.944852E-1	9.894544E-1	1.008759E+0	9.987245E-1	1.030190E+0	1.001022E+0	1.024869E+0	9.621544E-1	9.941406E-1	1.056256E+0	1.023342E+0	1.009017E+0	9.981794E-1	9.726829E-1	9.940288E-1	9.830665E-1	1.049959E+0	1.025234E+0	9.948820E-1	9.997081E-1	1.017611E+0	1.045578E+0	1.055293E+0	1.075913E+0	1.034975E+0	1.049466E+0	9.832370E-1	1.000656E+0	9.968009E-1	1.025207E+0	1.016600E+0	1.033988E+0	1.001225E+0	1.042955E+0	1.024257E+0	1.005138E+0	1.015231E+0	9.671057E-1	9.915501E-1	9.890928E-1	9.914590E-1	9.803311E-1	1.022513E+0	9.683292E-1	9.755910E-1	1.011439E+0	1.023259E+0	1.011928E+0	1.026103E+0	9.915583E-1	9.679725E-1	1.014482E+0	9.900391E-1	9.805368E-1	1.016033E+0	1.028210E+0	1.023504E+0	1.004390E+0	1.066820E+0	1.017899E+0	9.655247E-1	1.015009E+0	1.001514E+0	9.855083E-1	9.605136E-1	1.029783E+0	1.007968E+0	9.838365E-1	1.003103E+0	1.019409E+0	1.017946E+0	1.044582E+0	1.029416E+0	1.056274E+0	1.021403E+0	1.048809E+0	1.028128E+0	1.015883E+0	9.908755E-1	1.068853E+0	9.726836E-1	1.039800E+0	1.021959E+0	1.017786E+0	9.933494E-1	1.023922E+0	1.034925E+0	1.008503E+0
5.590100E+2	1.016641E+0	9.905976E-1	1.003793E+0	1.013512E+0	1.046541E+0	1.002145E+0	9.712997E-1	1.058108E+0	9.737657E-1	1.012807E+0	9.671214E-1	9.616527E-1	1.002606E+0	1.002946E+0	1.008495E+0	1.026548E+0	1.004441E+0	9.833609E-1	1.002639E+0	1.015714E+0	1.027566E+0	9.925156E-1	1.039519E+0	1.011035E+0	9.833182E-1	1.039780E+0	9.632353E-1	1.012495E+0	1.047109E+0	1.001044E+0	1.079057E+0	1.024033E+0	1.040950E+0	9.985138E-1	1.032840E+0	1.021316E+0	1.036091E+0	1.010332E+0	1.022471E+0	1.018148E+0	1.021477E+0	1.023220E+0	1.015303E+0	9.591094E-1	1.025454E+0	1.023426E+0	1.022920E+0	1.012433E+0	1.010993E+0	1.011842E+0	1.025262E+0	9.634699E-1	1.000978E+0	9.956724E-1	1.037272E+0	9.925047E-1	9.868240E-1	9.588143E-1	9.869525E-1	1.014246E+0	9.686929E-1	1.052178E+0	1.014836E+0	1.021881E+0	1.013671E+0	1.046687E+0	1.039028E+0	1.004310E+0	1.036432E+0	9.922590E-1	1.001236E+0	1.012691E+0	1.017658E+0	9.921989E-1	9.824036E-1	1.033998E+0	9.667282E-1	1.044955E+0	9.723247E-1	1.021686E+0	1.019029E+0	9.850399E-1	1.010719E+0	9.863904E-1	1.020438E+0	1.044936E+0	9.785539E-1	1.014098E+0	1.016209E+0	1.029120E+0	1.023825E+0	1.009640E+0	9.807122E-1	1.010825E+0	1.000670E+0	9.866892E-1	1.042359E+0	1.033381E+0	9.798248E-1	1.029954E+0	9.974735E-1	1.018813E+0	9.757795E-1	1.000160E+0	1.014010E+0	1.055009E+0	1.006220E+0	1.008800E+0	1.020379E+0	9.932382E-1	1.025961E+0	1.022634E+0	1.026905E+0	9.842248E-1	1.034021E+0	1.027502E+0	1.022888E+0	1.009244E+0	1.016501E+0	9.810557E-1	1.000263E+0	1.000508E+0	1.000815E+0	1.022927E+0	9.970667E-1	9.646291E-1	1.008905E+0	1.037565E+0	1.027373E+0	1.013890E+0	1.007462E+0	1.003296E+0	1.004271E+0	9.841178E-1	1.024032E+0	1.004485E+0	1.000898E+0	1.007084E+0	1.042158E+0	1.023970E+0	1.000882E+0	1.010174E+0	1.027255E+0	1.037621E+0	9.991396E-1	9.999833E-1	1.041655E+0	1.040513E+0	1.017910E+0	9.984353E-1	9.787133E-1	1.026205E+0	1.028709E+0	9.899221E-1	1.004062E+0	1.033551E+0	1.002629E+0	1.031009E+0	1.006249E+0	1.033941E+0	1.029824E+0	9.876775E-1	1.016648E+0	9.819192E-1	1.036828E+0	1.009375E+0	1.030529E+0	9.557158E-1	1.017815E+0	9.573665E-1	1.031543E+0
5.595450E+2	1.024750E+0	1.008103E+0	1.033412E+0	9.731742E-1	1.037488E+0	1.031473E+0	9.434209E-1	9.964826E-1	1.049467E+0	9.791270E-1	1.003387E+0	9.850957E-1	9.841170E-1	1.022009E+0	1.004617E+0	9.755497E-1	1.015686E+0	1.043077E+0	9.877182E-1	9.767235E-1	9.869939E-1	1.017428E+0	1.012145E+0	1.011239E+0	9.854648E-1	9.769784E-1	1.029076E+0	1.034204E+0	1.030706E+0	1.000361E+0	1.028738E+0	9.994521E-1	9.996111E-1	1.017473E+0	1.013710E+0	9.798203E-1	9.516966E-1	1.025328E+0	9.943220E-1	1.014414E+0	9.850016E-1	9.455604E-1	9.597791E-1	1.042782E+0	1.000620E+0	9.886433E-1	1.006774E+0	9.976106E-1	1.066323E+0	1.049093E+0	9.611064E-1	1.002535E+0	1.016190E+0	9.903112E-1	9.949905E-1	1.003121E+0	1.022031E+0	9.957147E-1	1.033128E+0	1.033904E+0	9.508000E-1	9.805523E-1	1.029758E+0	9.803330E-1	1.011782E+0	9.784934E-1	1.014782E+0	1.028027E+0	1.018297E+0	1.035488E+0	1.022430E+0	1.007901E+0	9.891665E-1	1.008995E+0	1.021070E+0	1.008580E+0	1.023327E+0	9.937260E-1	1.012756E+0	9.774401E-1	1.069572E+0	1.015763E+0	1.012971E+0	9.880333E-1	1.023033E+0	1.013354E+0	1.022768E+0	1.033734E+0	9.827460E-1	9.992176E-1	9.482182E-1	9.833285E-1	9.920348E-1	1.025641E+0	1.007688E+0	1.002941E+0	9.907183E-1	1.023624E+0	1.014069E+0	1.037550E+0	9.733576E-1	1.045188E+0	1.021551E+0	1.015896E+0	1.010335E+0	9.397548E-1	9.990471E-1	1.039368E+0	1.024809E+0	1.001807E+0	1.023688E+0	1.021740E+0	1.033232E+0	9.971708E-1	9.902102E-1	1.006000E+0	1.037797E+0	1.004789E+0	1.025213E+0	1.035039E+0	1.005011E+0	9.904557E-1	1.026729E+0	9.788410E-1	9.883769E-1	1.004436E+0	1.008921E+0	9.761019E-1	1.054683E+0	1.023017E+0	1.027490E+0	1.044161E+0	9.841768E-1	1.025065E+0	9.777008E-1	1.016858E+0	1.015201E+0	9.800393E-1	9.697873E-1	9.682710E-1	1.003274E+0	1.012441E+0	9.902239E-1	1.012685E+0	9.907028E-1	1.034673E+0	1.024308E+0	9.892414E-1	1.007537E+0	9.855717E-1	9.907240E-1	1.036042E+0	9.768213E-1	9.686172E-1	9.926056E-1	9.964326E-1	9.687298E-1	1.007540E+0	9.938121E-1	1.018535E+0	1.003745E+0	9.762669E-1	1.010795E+0	1.034742E+0	9.540933E-1	1.015806E+0	9.959055E-1	1.029446E+0	1.008871E+0	1.024609E+0	1.106417E+0
5.600070E+2	9.734976E-1	9.760314E-1	9.693861E-1	9.751165E-1	9.915240E-1	9.799372E-1	9.962375E-1	9.728208E-1	9.862981E-1	9.738495E-1	1.008289E+0	9.560360E-1	9.837644E-1	1.019558E+0	9.625728E-1	9.870087E-1	9.418532E-1	9.477863E-1	9.790571E-1	9.620865E-1	9.805521E-1	1.000156E+0	9.671730E-1	9.510195E-1	9.604128E-1	9.710355E-1	9.953345E-1	1.022080E+0	9.767001E-1	9.808916E-1	9.512669E-1	9.823011E-1	9.868106E-1	9.114746E-1	9.472574E-1	9.781457E-1	9.472522E-1	9.372576E-1	9.372185E-1	9.599047E-1	9.892922E-1	1.009000E+0	9.551056E-1	9.953301E-1	9.330088E-1	9.943093E-1	9.767937E-1	9.396516E-1	9.289502E-1	9.828361E-1	9.567368E-1	9.633277E-1	9.614287E-1	9.783919E-1	9.823837E-1	9.812346E-1	9.653426E-1	9.957229E-1	9.864902E-1	9.980995E-1	9.703971E-1	9.464460E-1	9.915604E-1	9.570274E-1	9.484834E-1	9.646626E-1	1.015266E+0	9.720945E-1	9.575601E-1	9.463166E-1	9.529029E-1	9.161033E-1	9.866810E-1	9.200661E-1	9.463464E-1	9.671726E-1	9.714034E-1	1.003809E+0	9.578646E-1	9.604573E-1	9.593842E-1	9.943334E-1	9.885979E-1	1.000357E+0	9.737819E-1	9.643253E-1	9.656180E-1	9.968381E-1	9.973841E-1	9.876004E-1	9.830759E-1	1.005017E+0	9.984189E-1	9.715110E-1	9.706785E-1	9.998163E-1	1.025835E+0	1.006118E+0	9.995937E-1	9.246160E-1	9.837469E-1	9.572401E-1	1.005047E+0	9.819966E-1	9.715992E-1	9.677396E-1	9.524048E-1	9.607128E-1	9.740820E-1	1.012011E+0	9.262768E-1	9.656289E-1	9.316818E-1	1.024368E+0	9.572116E-1	1.005956E+0	9.951867E-1	9.633501E-1	9.343131E-1	9.829908E-1	9.911709E-1	9.858788E-1	9.539826E-1	9.837732E-1	9.735811E-1	9.854153E-1	9.997444E-1	9.957088E-1	9.694694E-1	1.001280E+0	9.457021E-1	9.537214E-1	9.814828E-1	9.605443E-1	9.417746E-1	9.548203E-1	9.661143E-1	1.004080E+0	9.497017E-1	9.646501E-1	9.924487E-1	9.471027E-1	1.009339E+0	9.809896E-1	9.624753E-1	9.551450E-1	9.643734E-1	9.728878E-1	9.990855E-1	1.006398E+0	9.839844E-1	9.670854E-1	9.404666E-1	9.442960E-1	9.926134E-1	9.710350E-1	9.504206E-1	9.942598E-1	9.683089E-1	9.380382E-1	9.658986E-1	9.851908E-1	9.468206E-1	1.012277E+0	9.891833E-1	9.540299E-1	9.794804E-1	9.644830E-1	9.760049E-1	8.965694E-1	9.437885E-1
5.605210E+2	9.693275E-1	1.020803E+0	9.606559E-1	9.755058E-1	9.801120E-1	9.775182E-1	9.711030E-1	9.567145E-1	9.695749E-1	9.650777E-1	9.575096E-1	9.988394E-1	9.856910E-1	9.343553E-1	9.808140E-1	9.091482E-1	9.628774E-1	1.001345E+0	9.831238E-1	9.766165E-1	9.904374E-1	9.564389E-1	9.645398E-1	9.656970E-1	9.801032E-1	9.597698E-1	9.461519E-1	9.349846E-1	9.571816E-1	1.002032E+0	9.518859E-1	9.524827E-1	9.730303E-1	9.859295E-1	9.613219E-1	9.863323E-1	9.561149E-1	9.582757E-1	9.591695E-1	9.977948E-1	9.698939E-1	9.616653E-1	9.462185E-1	1.008758E+0	9.952389E-1	9.773005E-1	9.707791E-1	9.733954E-1	1.006361E+0	9.708018E-1	9.519109E-1	1.010392E+0	9.890111E-1	9.677579E-1	9.178763E-1	9.787200E-1	9.605077E-1	9.463037E-1	9.884446E-1	9.688914E-1	9.879576E-1	9.966524E-1	9.454383E-1	9.454418E-1	9.538648E-1	9.861871E-1	9.627798E-1	9.795776E-1	9.399571E-1	9.777693E-1	9.430848E-1	9.722052E-1	9.719974E-1	9.351438E-1	9.803413E-1	9.435672E-1	9.576118E-1	9.673016E-1	9.726197E-1	9.746492E-1	9.393744E-1	9.732460E-1	9.764059E-1	1.005765E+0	9.981289E-1	9.714340E-1	9.783842E-1	9.628610E-1	1.017888E+0	9.464037E-1	9.769925E-1	9.896517E-1	9.914184E-1	9.345480E-1	9.606477E-1	9.551464E-1	9.591418E-1	9.822569E-1	1.003530E+0	9.739118E-1	9.710095E-1	9.876468E-1	9.356573E-1	9.555961E-1	9.595334E-1	9.402869E-1	1.005406E+0	9.721024E-1	9.363283E-1	1.014553E+0	9.757932E-1	9.810802E-1	9.176696E-1	9.374520E-1	9.520374E-1	9.861956E-1	9.177542E-1	9.869111E-1	9.743791E-1	9.467386E-1	9.868777E-1	9.581542E-1	1.013386E+0	9.880105E-1	9.932110E-1	9.837049E-1	9.636984E-1	9.711562E-1	9.609426E-1	9.673846E-1	9.345535E-1	9.384820E-1	9.989241E-1	9.945835E-1	9.683465E-1	9.996894E-1	9.633177E-1	9.479240E-1	9.701066E-1	9.606473E-1	9.799588E-1	9.427515E-1	9.741354E-1	9.741942E-1	9.267006E-1	9.885587E-1	9.814394E-1	9.971081E-1	9.695251E-1	9.816021E-1	9.818302E-1	9.542162E-1	9.929924E-1	1.020958E+0	9.621777E-1	9.814902E-1	9.973908E-1	9.684213E-1	9.604384E-1	9.641886E-1	9.895524E-1	1.010409E+0	9.793280E-1	9.647335E-1	9.890109E-1	9.596189E-1	9.724948E-1	9.661329E-1	9.833074E-1	9.628652E-1	9.236921E-1
5.610470E+2	1.019233E+0	9.934716E-1	9.803943E-1	9.797601E-1	1.011466E+0	1.003510E+0	9.986318E-1	1.000886E+0	1.023353E+0	9.631992E-1	9.859335E-1	1.073225E+0	9.880257E-1	1.029493E+0	9.968629E-1	9.925391E-1	1.039349E+0	9.895341E-1	1.013999E+0	9.945462E-1	1.007738E+0	1.016018E+0	9.925239E-1	1.000249E+0	1.009389E+0	9.901772E-1	9.956800E-1	9.668618E-1	1.005755E+0	1.011315E+0	1.059305E+0	9.700696E-1	1.004024E+0	1.008948E+0	9.814108E-1	1.047805E+0	1.006260E+0	1.051216E+0	1.028888E+0	1.045306E+0	9.873636E-1	1.033157E+0	9.820753E-1	1.005815E+0	9.835867E-1	1.032966E+0	1.008052E+0	9.941676E-1	9.870051E-1	9.461832E-1	9.978288E-1	1.008490E+0	1.004092E+0	9.987721E-1	9.923074E-1	1.025867E+0	1.032713E+0	1.021117E+0	1.009794E+0	1.009240E+0	1.046389E+0	1.034994E+0	9.785734E-1	1.018634E+0	9.885630E-1	9.742199E-1	9.538979E-1	1.005712E+0	1.047007E+0	9.768125E-1	1.009945E+0	1.031596E+0	1.071610E+0	1.031854E+0	1.017952E+0	9.940050E-1	1.041419E+0	1.036129E+0	1.021108E+0	1.028376E+0	1.000207E+0	9.916828E-1	9.812608E-1	1.009155E+0	9.908771E-1	1.019876E+0	9.903754E-1	1.026516E+0	9.948739E-1	1.003334E+0	1.013594E+0	9.787404E-1	9.868875E-1	1.018360E+0	1.022806E+0	1.011717E+0	9.883295E-1	9.746859E-1	1.003109E+0	9.690109E-1	9.938426E-1	1.025735E+0	1.028527E+0	1.020326E+0	9.823068E-1	9.985838E-1	1.006433E+0	9.728504E-1	1.041358E+0	9.790747E-1	1.028904E+0	9.899016E-1	9.839016E-1	1.031882E+0	1.014062E+0	9.886417E-1	1.010262E+0	1.007793E+0	1.014099E+0	1.041629E+0	1.023083E+0	9.965462E-1	9.906891E-1	9.986840E-1	1.048275E+0	1.002708E+0	9.701410E-1	1.024870E+0	1.011825E+0	9.975213E-1	1.001888E+0	1.019780E+0	9.710095E-1	1.005244E+0	1.020314E+0	1.011992E+0	1.016307E+0	1.024337E+0	1.005824E+0	1.021721E+0	9.856157E-1	9.966950E-1	9.966901E-1	1.013629E+0	1.014566E+0	1.012670E+0	9.930090E-1	1.028650E+0	9.989228E-1	1.012581E+0	1.003514E+0	1.034808E+0	1.006290E+0	9.817395E-1	9.847889E-1	1.040297E+0	9.976181E-1	1.007003E+0	9.985688E-1	9.881782E-1	1.018527E+0	1.008222E+0	9.872725E-1	1.010413E+0	9.926106E-1	1.051466E+0	1.007663E+0	1.047780E+0	9.710676E-1	1.042839E+0	9.167816E-1
