Photon Energy (eV)	#1	#2	#3	#4	#5	#6	#7	#8	#9	#10	#11	#12	#13	#14	#15	#16	#17	#18	#19	#20	#21	#22	#23	#24	#25	#26	#27	#28	#29	#30	#31	#32	#33	#34	#35	#36	#37	#38	#39	#40	#41	#42	#43	#44	#45	#46	#47	#48	#49	#50	#51	#52	#53	#54	#55	#56	#57	#58	#59	#60	#61	#62	#63	#64	#65	#66	#67	#68	#69	#70	#71	#72	#73	#74	#75	#76	#77	#78	#79	#80	#81	#82	#83	#84	#85	#86	#87	#88	#89	#90	#91	#92	#93	#94	#95	#96	#97	#98	#99	#100	#101	#102	#103	#104	#105	#106	#107	#108	#109	#110	#111	#112	#113	#114	#115	#116	#117	#118	#119	#120	#121	#122	#123	#124	#125	#126	#127	#128	#129	#130	#131	#132	#133	#134	#135	#136	#137	#138	#139	#140	#141	#142	#143	#144	#145	#146	#147	#148	#149	#150	#151	#152	#153	#154	#155	#156	#157	#158	#159	#160	#161	#162	#163	#164	#165	#166	#167	#168	#169	#170	
5.300220E+2	-3.267703E-3	2.698933E-3	-5.951593E-3	2.213784E-5	-1.135964E-2	-8.337473E-3	-7.441174E-3	-1.496129E-2	-4.118898E-3	-1.275975E-2	-7.312608E-3	-1.663417E-3	-1.148080E-2	-8.799500E-3	-3.237515E-3	1.134115E-3	-1.350796E-3	-7.248004E-3	-5.563455E-3	-9.312610E-3	-5.912593E-3	-1.009374E-2	-8.737304E-3	-1.291838E-2	-1.097150E-2	-9.453320E-3	-1.721218E-4	-7.654609E-3	-4.682685E-3	-3.792459E-3	-1.196948E-2	-7.266020E-3	-4.378290E-3	-6.984594E-3	-2.367659E-3	-7.096029E-3	-1.247267E-3	-3.080635E-3	-7.227467E-3	-6.666965E-3	-5.312483E-3	-8.241000E-3	-9.501209E-3	-5.979083E-3	-2.993715E-3	-9.015096E-3	-2.279016E-3	-8.591722E-3	-9.858142E-3	-2.534690E-3	-1.255810E-2	2.906744E-3	-7.959172E-3	-1.398036E-2	-1.008138E-2	-1.086634E-2	-3.178238E-3	-5.573589E-3	-3.456467E-3	-1.151572E-2	-2.633022E-3	-1.652323E-3	-1.856198E-3	-4.614730E-3	-7.418580E-3	-1.692851E-3	-9.871148E-3	-1.314640E-3	-1.237059E-2	-7.352037E-3	-6.430634E-3	-1.230172E-2	-1.247284E-2	-6.355259E-3	-1.146247E-3	-5.354781E-3	-3.652458E-3	-3.155176E-3	-1.263833E-2	-9.715094E-3	-1.150335E-2	-3.406196E-3	-6.803597E-3	-2.980020E-3	-8.946961E-3	-2.575833E-3	-7.218784E-3	-1.579807E-2	-8.834098E-3	-8.273359E-3	-7.219351E-3	3.256218E-3	-2.665041E-3	-4.699647E-3	-9.400982E-3	-3.208096E-3	-8.964630E-3	-1.075844E-2	-8.017876E-3	-1.223889E-2	-7.482648E-3	-8.502525E-3	-4.990475E-3	-5.743387E-3	-5.195671E-3	4.164821E-3	-7.717887E-3	-3.036803E-3	-7.589000E-3	-1.690388E-3	-4.714263E-3	-2.741824E-3	-1.633255E-2	-2.641744E-3	-4.158137E-3	-5.875027E-3	-7.880585E-3	1.651576E-3	-8.834062E-3	-1.283169E-2	-3.734934E-3	-9.863590E-3	-1.439453E-2	-5.318749E-3	-4.455188E-3	-7.281200E-3	-2.688853E-3	-5.384019E-3	-8.583880E-3	-2.715367E-3	-7.558206E-3	-4.942920E-3	-1.055589E-2	-2.390436E-3	-4.224291E-3	-7.249230E-3	-1.058349E-2	-8.183047E-3	-5.367119E-3	-4.286848E-3	-8.225689E-3	-2.513360E-3	-1.233934E-2	-1.241175E-2	-4.428777E-3	-1.132435E-2	-9.040821E-3	-1.017133E-2	-7.202052E-3	-1.495535E-2	-6.179194E-3	-2.913106E-3	-2.324725E-3	-5.306386E-3	-1.205777E-2	-9.100054E-3	-8.881298E-3	-4.975571E-3	-8.411073E-4	-1.000785E-2	-5.510308E-3	-1.832844E-3	-1.800092E-3	-8.039989E-3	-6.039446E-3	-6.011896E-3	-9.027822E-3	-1.238083E-2	2.959474E-3	-1.374913E-2
5.305080E+2	-5.180869E-3	-4.012913E-3	5.806490E-3	-2.998283E-3	7.476968E-4	-4.824283E-3	-1.100334E-3	3.027136E-3	2.612333E-3	-4.623478E-3	-1.766887E-3	-2.924712E-3	-5.732547E-3	-4.569575E-3	-1.491804E-3	3.235347E-4	-3.050713E-3	-4.545376E-3	-5.645891E-3	2.885255E-3	-4.844103E-3	-5.149938E-3	-6.444331E-3	-5.627343E-3	-9.353559E-3	-3.425274E-3	-7.732761E-3	-5.083619E-3	-9.941387E-3	-6.483512E-3	-3.006068E-3	5.463165E-3	5.214530E-4	-7.672623E-3	-1.130835E-2	-1.152246E-2	-9.684349E-3	-2.569037E-3	-2.657176E-3	-4.889023E-3	-4.790562E-3	-6.776881E-4	-9.628463E-3	-5.848967E-3	-2.034795E-4	-4.116825E-3	-1.278198E-2	-4.941975E-3	-1.546794E-3	-5.957553E-3	-4.337802E-3	-5.280348E-3	-4.381073E-3	3.403689E-3	-3.359170E-3	-3.660627E-3	-7.329123E-3	-9.082444E-3	-2.447819E-3	7.474794E-4	-7.819269E-3	-6.883552E-3	2.593509E-3	-1.066179E-2	-7.585320E-4	-4.007499E-3	-3.830333E-3	-8.231687E-3	1.038056E-2	-1.567648E-3	-1.350638E-2	-3.534547E-3	-8.727271E-3	-1.312378E-2	-4.447220E-3	2.792048E-3	-4.940197E-3	-6.689475E-3	-5.936145E-3	-3.671686E-3	-5.901240E-3	-4.447327E-3	-5.808229E-3	-1.284182E-3	-9.056027E-3	-6.005951E-3	-2.088649E-3	-3.713753E-3	-6.339825E-4	-3.667958E-4	1.985967E-3	-3.052582E-3	2.002582E-3	-4.228631E-3	-6.699061E-3	-5.721255E-3	-4.682691E-3	-4.813954E-3	-3.708932E-3	6.814576E-3	-4.998678E-3	-3.040192E-3	-4.979567E-3	-7.715657E-3	-6.519531E-3	-8.674720E-3	-8.913864E-3	1.706416E-3	1.865377E-3	-1.166281E-2	-1.491368E-3	-4.242859E-3	-1.008752E-2	6.376893E-3	-5.356175E-3	7.033021E-3	7.325034E-3	-3.785260E-3	-2.942376E-3	-8.535365E-3	-9.229792E-3	-1.211963E-2	2.107226E-4	-5.506046E-3	-1.377802E-3	-6.791243E-3	-4.066944E-3	-7.050531E-4	-3.335165E-3	-6.639564E-3	1.029461E-3	-1.975279E-3	-3.668707E-3	-3.442125E-3	-3.236439E-3	-3.340289E-3	-2.973307E-3	-8.222275E-3	-6.600732E-3	-1.062350E-2	-2.385595E-3	-3.700662E-3	-1.986417E-3	-2.591110E-3	-7.626944E-3	1.029795E-4	1.376388E-3	2.311342E-3	-1.033213E-2	6.250629E-3	-4.763963E-3	-1.151061E-2	-4.953461E-3	-6.007362E-3	-7.811279E-3	-2.014174E-3	6.770753E-4	7.536479E-4	-9.223988E-3	-4.474334E-3	-9.008979E-3	-4.306299E-3	-6.685706E-3	-7.655025E-4	-9.777887E-3	-5.558194E-3	-1.283471E-3	6.284324E-3	-9.930760E-4	-1.484073E-3
5.310300E+2	-4.053121E-3	8.035760E-4	4.847654E-4	-4.778200E-3	-4.522343E-3	-6.336568E-5	-4.567951E-5	-5.467978E-3	-1.378668E-3	-5.713371E-3	-6.911794E-3	-1.778825E-3	1.122141E-3	-1.008949E-3	-1.620423E-5	-2.993879E-3	-1.893230E-3	-3.985290E-3	-6.774292E-3	-4.319683E-3	-5.302385E-3	1.546927E-3	-5.879779E-3	-1.955993E-3	-7.015210E-3	-3.857502E-3	-6.650010E-4	-7.336516E-3	7.066338E-3	-4.943307E-3	3.683794E-3	-6.040305E-3	-2.441200E-3	6.588971E-3	-2.819539E-3	-3.567375E-3	2.841506E-3	-5.495919E-3	-1.263363E-2	-3.469530E-3	-6.829832E-3	-5.624049E-3	-3.041082E-3	-1.073356E-2	-6.469118E-3	-1.739111E-3	7.777981E-4	-2.071236E-3	-8.552036E-3	-4.814692E-3	-9.441661E-4	-6.108895E-3	-2.666574E-3	3.145276E-3	-1.010758E-2	8.974445E-4	-1.028209E-2	5.473574E-3	5.978096E-3	1.372819E-3	5.355869E-4	-1.821592E-3	-1.973309E-3	-2.417846E-3	-3.643327E-3	-4.651199E-4	9.873201E-3	1.923862E-3	-9.096566E-3	-3.850746E-3	6.278485E-3	3.938670E-3	-1.879840E-3	-1.959860E-3	-1.593591E-3	-2.281049E-3	-2.073377E-3	-7.021221E-3	-2.401577E-3	-1.289442E-3	2.939380E-3	2.385802E-3	2.663428E-3	1.147833E-4	1.280115E-3	-6.906439E-3	1.037284E-4	1.705544E-3	-3.760436E-3	-9.761171E-3	-7.931546E-3	-5.184651E-3	-5.642322E-3	-3.631088E-3	6.251596E-3	-6.107249E-3	1.630857E-3	8.229381E-3	-4.598606E-3	-8.185944E-3	-3.394663E-3	3.178743E-3	-5.841791E-3	-6.792161E-4	-2.295705E-3	2.064474E-3	-3.913347E-3	-3.176576E-3	4.349134E-5	3.678859E-4	-4.068224E-3	2.013980E-3	-2.393308E-3	-6.259791E-3	-5.338458E-3	-9.877577E-3	-1.726888E-3	-4.212695E-3	-3.322116E-3	5.356648E-3	-8.093029E-3	2.514492E-3	-9.964586E-3	-4.932135E-3	-3.334187E-3	-2.466853E-3	-6.309553E-3	-3.270486E-3	-9.121350E-4	-1.224065E-2	-6.657769E-3	1.007426E-2	-5.191484E-3	-6.533935E-3	-4.146295E-3	2.896106E-4	-7.474900E-3	-1.672840E-3	3.061387E-3	-4.944628E-3	-3.758580E-3	-1.282335E-3	-5.906027E-3	-5.966003E-3	-3.377554E-3	-6.852143E-3	-4.314120E-3	-2.838688E-3	-2.479529E-3	1.794858E-3	3.960783E-3	1.120934E-3	5.580893E-4	-5.463966E-3	2.768551E-3	-1.949530E-4	-7.345077E-3	-6.097610E-3	-5.492919E-3	2.352854E-3	-1.583304E-3	-1.076852E-2	-3.908484E-3	-5.375819E-3	3.599947E-3	-3.016501E-3	3.719129E-3	3.182359E-3	-9.689088E-3	-5.652518E-3
5.315340E+2	8.754006E-3	-8.822068E-4	-3.592944E-3	-4.639464E-3	9.730221E-5	-1.992729E-3	5.974847E-4	2.922481E-3	-1.235552E-3	-3.884684E-3	9.431370E-3	-5.273898E-4	-9.753894E-4	3.510216E-3	-2.839636E-3	-4.028621E-3	5.190700E-5	5.953883E-3	-1.168402E-2	-3.662295E-3	3.808436E-5	3.247076E-3	4.095109E-4	-1.233332E-5	4.127105E-3	5.121985E-3	5.827114E-4	-2.106342E-3	-5.590652E-3	8.519657E-4	-1.323260E-3	4.835848E-4	-3.488557E-3	-8.561149E-5	-6.425337E-3	6.743374E-3	-8.947846E-3	1.242116E-3	5.512560E-3	-3.313955E-3	6.738899E-3	2.899487E-3	4.329445E-3	7.594494E-3	-2.958091E-4	4.356247E-3	-2.178641E-3	-3.180075E-3	3.137406E-3	1.130461E-3	3.235065E-3	-3.205268E-3	3.718963E-3	-2.536215E-3	7.757011E-3	2.461703E-3	-2.940588E-3	-7.765763E-3	-1.055542E-2	4.971966E-3	-2.417077E-3	3.777812E-3	2.152180E-3	-2.691585E-3	-1.155721E-3	-4.318747E-3	-8.712855E-3	4.101460E-3	3.253860E-3	-7.628986E-3	2.906908E-3	1.948860E-3	1.079086E-2	3.267275E-3	-1.430861E-3	-5.074099E-3	-5.289488E-4	6.373238E-3	3.637943E-3	9.481964E-3	-7.543981E-3	-3.153339E-3	2.275394E-3	-3.533945E-3	-3.536982E-3	-2.227490E-3	-6.093748E-3	9.693262E-3	6.090677E-4	-2.324788E-4	2.802708E-3	-9.493518E-4	-6.359568E-3	4.813276E-3	-3.626265E-3	-3.756889E-3	2.594259E-3	2.282728E-4	-5.441250E-3	-5.330047E-3	-1.627272E-3	-4.874672E-3	-1.193809E-3	3.612075E-3	2.757732E-3	-1.211008E-3	1.848127E-3	-7.243371E-3	-4.227944E-3	-5.208772E-3	-3.870599E-3	-2.502990E-3	8.425903E-3	-7.891766E-3	3.658569E-5	2.804058E-3	-8.730010E-3	4.869373E-4	1.399428E-2	-3.003655E-3	-8.543340E-3	-2.208247E-3	3.465064E-3	-6.505511E-3	-2.591542E-3	3.305489E-3	-2.388827E-3	-4.382050E-4	-3.685721E-3	-1.312392E-3	1.828150E-3	-5.434031E-3	5.454436E-3	-4.888427E-4	-3.463396E-3	-2.643094E-4	4.589033E-3	-2.489926E-3	-2.465120E-3	-5.963186E-3	1.920003E-3	-1.519263E-3	5.406729E-3	1.083180E-2	2.362482E-3	-8.120291E-4	8.126101E-3	4.327946E-3	-3.878391E-3	-1.231222E-4	3.613054E-3	-1.618886E-3	-2.429760E-3	5.110008E-3	2.959394E-3	-1.899402E-3	3.012816E-3	2.526383E-3	-7.766910E-4	-1.054152E-3	-4.316794E-3	1.122738E-2	-4.850830E-3	-2.908443E-3	-4.254006E-3	1.096680E-3	-3.492469E-3	-1.289076E-2	-3.207786E-3	1.762542E-3
5.320120E+2	-2.416964E-3	-7.951306E-3	1.594751E-3	4.595707E-4	2.945606E-3	8.357623E-3	3.903808E-4	6.218962E-3	-1.511270E-3	1.060964E-2	-4.397902E-3	7.023536E-3	1.628659E-3	3.260066E-4	3.100143E-3	-4.475202E-3	1.575018E-3	-5.865599E-3	1.168704E-2	5.055485E-3	3.517841E-3	-9.430147E-4	3.611673E-3	1.020722E-2	6.946219E-3	3.934059E-3	-7.339358E-3	5.057861E-3	3.517375E-3	6.899074E-3	4.723731E-3	4.234643E-4	3.365169E-3	-5.385789E-3	6.823107E-3	6.061049E-3	5.450656E-3	5.166154E-3	1.055176E-2	4.044656E-3	3.495184E-3	2.123008E-3	1.307947E-2	4.665478E-3	6.109066E-3	3.831928E-3	9.086886E-3	4.120614E-3	8.987773E-3	3.196966E-3	8.715653E-3	-1.294811E-3	3.037587E-3	2.227977E-3	5.167995E-3	4.653646E-3	3.399814E-3	-5.114183E-3	6.038892E-3	-3.899281E-3	4.325099E-3	2.331684E-3	-4.098215E-3	5.079041E-3	5.027922E-3	5.561527E-4	5.183329E-3	-1.506161E-3	-1.730602E-3	1.680701E-3	2.270214E-3	3.623834E-3	-3.078977E-3	8.759882E-3	6.788874E-3	-6.542746E-3	2.572320E-3	1.732768E-3	5.591965E-3	5.258371E-4	8.863763E-3	-1.242830E-3	3.789983E-3	-1.707663E-4	-3.723410E-3	1.185352E-3	5.983972E-3	1.228539E-3	6.558666E-3	7.788981E-3	-7.747982E-4	3.724042E-3	3.905569E-3	5.211012E-3	1.015010E-2	1.064748E-2	1.223190E-3	1.280713E-3	1.080478E-2	1.325157E-2	3.439302E-3	6.828072E-3	9.698404E-3	7.888354E-3	6.808317E-3	4.928272E-3	1.240450E-2	-6.041005E-4	-1.792309E-3	1.172716E-2	-2.443112E-4	-4.649948E-3	9.535456E-3	3.609253E-3	5.622883E-3	-3.871830E-5	5.717236E-3	-6.869195E-4	2.491778E-4	6.008698E-3	7.080732E-3	4.735787E-3	9.704254E-3	9.876403E-3	-4.814881E-3	4.211810E-3	6.960908E-3	7.533033E-3	7.588956E-3	3.675641E-3	9.578844E-3	-4.705166E-3	4.990790E-3	-1.044160E-4	3.093265E-3	4.502057E-3	-2.984064E-3	7.449213E-3	1.111461E-2	1.201946E-2	3.888555E-3	2.886662E-3	1.043126E-2	-3.401185E-3	1.111494E-3	4.334766E-3	-2.708873E-3	-2.763127E-3	1.558374E-2	3.465967E-3	3.456210E-3	6.283232E-3	1.684628E-3	-2.098429E-3	-5.791024E-4	6.319900E-3	5.933109E-3	3.836982E-3	5.117734E-3	-2.339411E-3	5.601948E-3	-5.178901E-3	7.157162E-3	4.938653E-4	4.861499E-3	-1.016291E-3	4.355635E-3	9.320634E-3	6.756470E-3	4.580272E-3
5.325070E+2	6.164652E-3	9.343917E-3	1.658531E-3	1.193424E-2	1.209138E-2	6.860226E-3	7.599323E-3	8.260691E-3	5.632055E-3	1.637164E-2	1.095782E-2	-1.291921E-4	1.543793E-2	1.054180E-2	4.485017E-3	1.004005E-2	4.667814E-3	1.569039E-2	1.798062E-2	9.353848E-3	1.250316E-2	1.139269E-2	1.704023E-2	1.030683E-2	1.626694E-2	7.680053E-3	1.532653E-2	1.712322E-2	9.631011E-3	7.468238E-3	7.891282E-3	6.936111E-3	6.421425E-3	1.353965E-2	1.609777E-2	9.381437E-3	1.158730E-2	4.737321E-3	6.453952E-3	1.429482E-2	6.698794E-3	9.520242E-3	4.761842E-3	1.030164E-2	3.853055E-3	6.682857E-3	7.374951E-3	1.466439E-2	7.831793E-3	8.979508E-3	5.889351E-3	1.298258E-2	8.250269E-3	7.739635E-3	1.062312E-2	6.514179E-3	2.033022E-2	2.206241E-2	4.442714E-3	8.322738E-3	8.008681E-3	4.247971E-3	3.182034E-3	1.530691E-2	7.948237E-3	9.928064E-3	7.357806E-3	5.027166E-3	9.563337E-3	1.871872E-2	8.481403E-3	6.324905E-3	1.536806E-2	9.411746E-3	1.829045E-3	1.646063E-2	8.622661E-3	8.759866E-3	1.174615E-2	4.668421E-3	1.314543E-2	9.863891E-3	3.883021E-3	7.854130E-3	2.398327E-2	1.653036E-2	9.313481E-3	6.884477E-3	6.060783E-3	1.084482E-2	1.113702E-2	2.206325E-3	8.758781E-3	2.535078E-3	3.324614E-3	8.146011E-3	8.199016E-3	5.834026E-3	1.096189E-2	5.688735E-3	1.406396E-2	6.410575E-3	7.307238E-3	2.637831E-3	4.444859E-3	-1.271841E-3	6.292475E-3	1.235443E-2	1.170038E-2	6.466926E-3	1.438877E-2	1.212364E-2	1.085202E-2	6.807155E-3	9.193300E-3	5.954243E-3	5.295213E-3	6.546361E-3	8.550950E-4	1.300536E-2	2.252036E-2	1.694119E-2	1.097908E-2	1.238604E-2	1.657360E-2	9.021996E-3	8.493269E-3	2.264731E-3	8.927945E-3	1.923233E-2	1.779519E-3	6.983134E-3	8.970857E-3	1.295975E-2	1.197716E-2	6.062161E-3	1.942673E-2	1.311888E-2	2.569707E-4	1.379870E-2	8.561306E-3	6.128958E-3	4.393795E-3	1.353825E-2	1.195930E-2	1.455078E-2	6.561325E-3	9.133860E-3	8.308370E-3	3.567017E-3	-8.689012E-5	8.638432E-3	7.465228E-3	1.376614E-2	1.472021E-2	6.888682E-3	6.603374E-3	3.956168E-3	1.121697E-2	1.552289E-2	1.481744E-2	1.085919E-2	1.008795E-2	1.659589E-2	1.160989E-2	1.450620E-2	5.728997E-3	6.484271E-3	4.174006E-3	1.454290E-2
5.329970E+2	1.501268E-2	2.379124E-2	2.268763E-2	2.000948E-2	1.386548E-2	2.815156E-2	2.007495E-2	1.823753E-2	3.524541E-2	2.568006E-2	1.280536E-2	1.459934E-2	1.747186E-2	2.217541E-2	2.451548E-2	2.294699E-2	2.436418E-2	2.176405E-2	2.723457E-2	1.016414E-2	2.008215E-2	1.720115E-2	1.153773E-2	2.260576E-2	1.596797E-2	2.099108E-2	1.449726E-2	2.479009E-2	1.907478E-2	1.805444E-2	1.464274E-2	9.265936E-3	2.824840E-2	2.950082E-2	1.796291E-2	2.253513E-2	2.137633E-2	2.028148E-2	3.221786E-2	2.240835E-2	2.050126E-2	2.833905E-2	1.679049E-2	1.335144E-2	3.396129E-2	1.931611E-2	1.935896E-2	1.830898E-2	2.525830E-2	2.373649E-2	2.294392E-2	6.700590E-3	2.820019E-2	2.135073E-2	1.478166E-2	1.035751E-2	1.400892E-2	1.580869E-2	2.043582E-2	1.267843E-2	2.682318E-2	1.625614E-2	2.831718E-2	1.111954E-2	1.689746E-2	2.295066E-2	2.125876E-2	1.573958E-2	1.409390E-2	1.543098E-2	1.537095E-2	1.890048E-2	2.136425E-2	1.990664E-2	2.063802E-2	1.793262E-2	1.750240E-2	1.220134E-2	1.247526E-2	2.098562E-2	2.003235E-2	2.162948E-2	1.386336E-2	2.465390E-2	2.570857E-2	1.726295E-2	2.027739E-2	1.309170E-2	2.733438E-2	2.419851E-2	2.602835E-2	2.669562E-2	2.457308E-2	2.962203E-2	1.605234E-2	1.975615E-2	1.425269E-2	2.764294E-2	2.309717E-2	1.867967E-2	2.586410E-2	2.531040E-2	1.155929E-2	2.717846E-2	1.214789E-2	2.879840E-2	1.842906E-2	1.543290E-2	2.581335E-2	1.521046E-2	1.693825E-2	1.975107E-2	2.632539E-3	1.764015E-2	1.066318E-2	1.511338E-2	1.968727E-2	2.157279E-2	2.547934E-2	8.828225E-3	1.607415E-2	1.336716E-2	2.054225E-2	2.112026E-2	2.053588E-2	1.860058E-2	2.105181E-2	8.340528E-3	2.992463E-2	1.606737E-2	2.255501E-2	1.775503E-2	1.864008E-2	3.044401E-2	1.017740E-2	2.128065E-2	2.769676E-2	1.436876E-2	1.037474E-2	8.031301E-3	2.396057E-2	1.435456E-2	1.641204E-2	1.555142E-2	2.297828E-2	3.084353E-2	2.136106E-2	2.774639E-2	1.544197E-2	1.714273E-2	1.521935E-2	1.947012E-2	2.553757E-2	1.931894E-2	2.397318E-2	1.530776E-2	2.448146E-2	1.495140E-2	1.966424E-2	1.783673E-2	2.687119E-2	1.878548E-2	2.752632E-2	1.737537E-2	1.892607E-2	1.127386E-2	1.668514E-2	1.311361E-2	1.978111E-2	1.708635E-2
5.331520E+2	3.655130E-2	2.469166E-2	2.847027E-2	2.868536E-2	3.568949E-2	1.949310E-2	2.033416E-2	1.949626E-2	3.322584E-2	3.166312E-2	2.676805E-2	2.931505E-2	2.507815E-2	3.349386E-2	3.479498E-2	2.129475E-2	2.283766E-2	2.494520E-2	2.471602E-2	3.150170E-2	2.299517E-2	7.277698E-3	2.465698E-2	2.471269E-2	3.964490E-2	4.013229E-2	2.854857E-2	2.338129E-2	2.494665E-2	2.545964E-2	1.449810E-2	2.965504E-2	3.994135E-2	2.417329E-2	3.823893E-2	2.875463E-2	2.727912E-2	3.385285E-2	2.509920E-2	3.021675E-2	2.392787E-2	2.414396E-2	3.441572E-2	1.972883E-2	3.759958E-2	2.191650E-2	2.104255E-2	2.649116E-2	2.806465E-2	3.270647E-2	2.493532E-2	1.348796E-2	1.818742E-2	3.009783E-2	2.643464E-2	1.790963E-2	2.682803E-2	4.655991E-2	2.228935E-2	3.201321E-2	2.669448E-2	2.877554E-2	2.376181E-2	2.767400E-2	3.052356E-2	1.917972E-2	2.732232E-2	2.499078E-2	1.724195E-2	2.912755E-2	3.254938E-2	2.051976E-2	2.238312E-2	1.894727E-2	1.923360E-2	2.403655E-2	3.190836E-2	2.725507E-2	3.618703E-2	2.489794E-2	3.302875E-2	2.404632E-2	3.179990E-2	5.186559E-2	2.716313E-2	3.384127E-2	2.499298E-2	1.294362E-2	2.889006E-2	2.864457E-2	2.239295E-2	3.027422E-2	2.634727E-2	2.393921E-2	1.822342E-2	2.229332E-2	3.806653E-2	2.543860E-2	2.542829E-2	2.132737E-2	3.726140E-2	2.822830E-2	2.138329E-2	2.801030E-2	2.713822E-2	2.742394E-2	1.985283E-2	1.291606E-2	2.563855E-2	1.821376E-2	3.647667E-2	2.228694E-2	3.176259E-2	2.849419E-2	2.135116E-2	4.314837E-2	2.575990E-2	3.822221E-2	2.225053E-2	2.533227E-2	2.492137E-2	1.860175E-2	1.621021E-2	4.191222E-2	3.736134E-2	2.034066E-2	3.181423E-2	2.796193E-2	3.150115E-2	3.067695E-2	3.443552E-2	3.628500E-2	2.116021E-2	2.323546E-2	2.852808E-2	3.129582E-2	3.774898E-2	2.729131E-2	2.156891E-2	2.814828E-2	2.073684E-2	2.270329E-2	3.923382E-2	2.404266E-2	1.507810E-2	2.761868E-2	2.436722E-2	1.636773E-2	2.420603E-2	2.011414E-2	3.622197E-2	3.282231E-2	3.721913E-2	3.830252E-2	2.992426E-2	3.237190E-2	2.775953E-2	3.730143E-2	2.366237E-2	2.593569E-2	2.598982E-2	1.908153E-2	2.229503E-2	3.604110E-2	1.485605E-2	1.998911E-2	2.135315E-2	1.797637E-2	2.671873E-2	5.072120E-3
5.333080E+2	4.161682E-2	3.013013E-2	3.139245E-2	3.156057E-2	3.205317E-2	3.207922E-2	3.299403E-2	3.650727E-2	3.093255E-2	3.325807E-2	3.824362E-2	4.640726E-2	3.498984E-2	3.956757E-2	3.469979E-2	3.281921E-2	4.573427E-2	3.179844E-2	3.925988E-2	2.876576E-2	3.807260E-2	3.470963E-2	3.170439E-2	3.540300E-2	4.443312E-2	3.477249E-2	3.669564E-2	3.752107E-2	3.642899E-2	4.048996E-2	2.712936E-2	2.743182E-2	4.041318E-2	1.966055E-2	3.271971E-2	2.649383E-2	3.926486E-2	3.271430E-2	4.502337E-2	4.689523E-2	2.487174E-2	3.528454E-2	3.038677E-2	3.737725E-2	3.750592E-2	4.578310E-2	3.051196E-2	3.648586E-2	3.406788E-2	5.298830E-2	4.792942E-2	3.305759E-2	3.941876E-2	3.098368E-2	2.338970E-2	3.018325E-2	3.160970E-2	3.714178E-2	4.011005E-2	3.539561E-2	3.074641E-2	2.979386E-2	3.442969E-2	3.377988E-2	4.038889E-2	3.706843E-2	3.511966E-2	3.839222E-2	3.590777E-2	3.465751E-2	4.186606E-2	4.625070E-2	3.559461E-2	3.253753E-2	3.094289E-2	4.625774E-2	3.510799E-2	3.592030E-2	2.918545E-2	3.832368E-2	3.855489E-2	3.287143E-2	2.427638E-2	3.093169E-2	3.369248E-2	3.777235E-2	3.936424E-2	3.979928E-2	4.052708E-2	3.742844E-2	2.510512E-2	2.262029E-2	4.391864E-2	4.288433E-2	3.112637E-2	4.244740E-2	4.314980E-2	2.343053E-2	2.992722E-2	3.904370E-2	4.025559E-2	3.382094E-2	3.933187E-2	4.205535E-2	3.532591E-2	2.342282E-2	1.918232E-2	2.689074E-2	3.226177E-2	3.072250E-2	2.981268E-2	3.274166E-2	3.040164E-2	3.145047E-2	3.626823E-2	2.944135E-2	2.356241E-2	2.791659E-2	2.113680E-2	4.391903E-2	3.589672E-2	3.718734E-2	3.818035E-2	4.236870E-2	3.725397E-2	2.963578E-2	4.073799E-2	3.597087E-2	4.327164E-2	4.312246E-2	3.012140E-2	3.892800E-2	4.042384E-2	4.687571E-2	3.719431E-2	3.797024E-2	3.419634E-2	3.324774E-2	2.606933E-2	2.472264E-2	4.846739E-2	2.396766E-2	4.627102E-2	2.895416E-2	3.006371E-2	5.067406E-2	3.395732E-2	3.573954E-2	3.891357E-2	3.440431E-2	3.247859E-2	3.368198E-2	4.150646E-2	2.766278E-2	3.317368E-2	3.918460E-2	3.943840E-2	2.866249E-2	3.229559E-2	3.662589E-2	3.293178E-2	3.693918E-2	3.271993E-2	2.594833E-2	4.789385E-2	3.431180E-2	4.183617E-2	4.537591E-2	1.602899E-2	5.652357E-2
5.334630E+2	4.758796E-2	3.897159E-2	4.846228E-2	4.896613E-2	4.780004E-2	3.934314E-2	5.139462E-2	3.609818E-2	4.695367E-2	4.305104E-2	4.245997E-2	3.421798E-2	4.821080E-2	5.325492E-2	4.855638E-2	4.883414E-2	6.466259E-2	3.909786E-2	5.397815E-2	5.205574E-2	3.196756E-2	5.358931E-2	3.844706E-2	3.505063E-2	5.488839E-2	5.276982E-2	3.396077E-2	4.667910E-2	6.080056E-2	5.522628E-2	4.338421E-2	5.017812E-2	4.948366E-2	5.148444E-2	4.522726E-2	4.489212E-2	5.144482E-2	4.695832E-2	4.418801E-2	4.878484E-2	5.245456E-2	3.040968E-2	5.567466E-2	3.686771E-2	3.795210E-2	4.911776E-2	3.604405E-2	3.998090E-2	4.220334E-2	5.557402E-2	5.630986E-2	4.485672E-2	5.013537E-2	4.069267E-2	4.939176E-2	4.763076E-2	3.527440E-2	3.959830E-2	5.087371E-2	4.465253E-2	3.505956E-2	4.035314E-2	3.983566E-2	4.170398E-2	4.053817E-2	6.055695E-2	4.113151E-2	5.912289E-2	3.657200E-2	5.316390E-2	4.494992E-2	6.326029E-2	4.022778E-2	4.853282E-2	3.934872E-2	4.506739E-2	4.848810E-2	4.835155E-2	4.553917E-2	5.078839E-2	3.784130E-2	4.438142E-2	4.870201E-2	3.882830E-2	5.428562E-2	4.128430E-2	5.219612E-2	4.921246E-2	3.987855E-2	5.104362E-2	4.814649E-2	4.363130E-2	4.853327E-2	4.937595E-2	6.032854E-2	4.860848E-2	5.344584E-2	5.371935E-2	3.277825E-2	5.225492E-2	4.500915E-2	5.712468E-2	4.131282E-2	4.104150E-2	4.395277E-2	4.391162E-2	4.683174E-2	4.966871E-2	3.585001E-2	4.600689E-2	5.042035E-2	3.889968E-2	6.414495E-2	4.626987E-2	5.646995E-2	3.885685E-2	4.345978E-2	5.138488E-2	3.892460E-2	4.933046E-2	5.435846E-2	4.762288E-2	3.931344E-2	5.618263E-2	4.256747E-2	5.030198E-2	4.406324E-2	4.004046E-2	3.697992E-2	3.053366E-2	3.433018E-2	3.727778E-2	5.536711E-2	3.716721E-2	6.197976E-2	5.493895E-2	3.476481E-2	5.598073E-2	5.770544E-2	4.069448E-2	4.138335E-2	3.656222E-2	3.552132E-2	4.850822E-2	4.072498E-2	4.906866E-2	4.363476E-2	4.519674E-2	5.056270E-2	3.499993E-2	5.526912E-2	4.963235E-2	4.337912E-2	4.692320E-2	4.329539E-2	5.015725E-2	4.042401E-2	4.724557E-2	4.241647E-2	4.830656E-2	4.292428E-2	5.354873E-2	4.767337E-2	4.222826E-2	5.332806E-2	3.886487E-2	4.621395E-2	5.839278E-2	3.718041E-2	5.653505E-2
5.336130E+2	6.217153E-2	7.095477E-2	6.363546E-2	4.892143E-2	5.500586E-2	6.314898E-2	6.718289E-2	5.955303E-2	6.147760E-2	5.777981E-2	5.507132E-2	5.417693E-2	5.229526E-2	6.867813E-2	5.115639E-2	6.732301E-2	5.499435E-2	5.309454E-2	4.888456E-2	6.893481E-2	4.936239E-2	5.826226E-2	5.701931E-2	6.520708E-2	7.836480E-2	6.168705E-2	4.825914E-2	6.545877E-2	6.429423E-2	6.374716E-2	6.444034E-2	5.491573E-2	6.477479E-2	6.146630E-2	5.464668E-2	4.658166E-2	4.790035E-2	5.721006E-2	6.291260E-2	6.787773E-2	7.507046E-2	6.442774E-2	6.567584E-2	6.631281E-2	7.053257E-2	6.624547E-2	6.929330E-2	6.362209E-2	6.895363E-2	6.531292E-2	6.392976E-2	6.028048E-2	7.242769E-2	5.805922E-2	6.635883E-2	6.557426E-2	5.721873E-2	6.344530E-2	6.247960E-2	5.858106E-2	5.727885E-2	5.551635E-2	7.252023E-2	6.459940E-2	5.166240E-2	7.352034E-2	6.438315E-2	5.869795E-2	4.154722E-2	5.233728E-2	6.662411E-2	6.196483E-2	5.545321E-2	7.718945E-2	4.440748E-2	6.035451E-2	6.483203E-2	6.778801E-2	7.147204E-2	7.056450E-2	5.348907E-2	5.459286E-2	6.582337E-2	5.840149E-2	7.079796E-2	6.245787E-2	6.074109E-2	5.628009E-2	6.371344E-2	5.537981E-2	6.335391E-2	6.091453E-2	5.647676E-2	6.618059E-2	5.295846E-2	5.616006E-2	6.602248E-2	7.521486E-2	6.214979E-2	6.838506E-2	6.130618E-2	5.714547E-2	6.288979E-2	7.854383E-2	6.365598E-2	4.909298E-2	6.999259E-2	7.424921E-2	5.440878E-2	5.370350E-2	5.748582E-2	6.441224E-2	5.368809E-2	6.483427E-2	6.859546E-2	5.653484E-2	6.022467E-2	6.314815E-2	6.792733E-2	6.361786E-2	5.806777E-2	6.193939E-2	6.837140E-2	5.978541E-2	7.982965E-2	4.988516E-2	8.160504E-2	7.022335E-2	7.267139E-2	6.654352E-2	7.430874E-2	5.439803E-2	5.703396E-2	7.875126E-2	5.271077E-2	6.079713E-2	7.651977E-2	7.117764E-2	6.634356E-2	4.345780E-2	5.911737E-2	5.851193E-2	6.520931E-2	6.401315E-2	5.517092E-2	4.848017E-2	6.034537E-2	6.857983E-2	6.699730E-2	5.584163E-2	7.757798E-2	4.822801E-2	6.046040E-2	5.512066E-2	4.838037E-2	6.868092E-2	4.879603E-2	5.543281E-2	5.347234E-2	4.621406E-2	7.471071E-2	5.514096E-2	5.655443E-2	6.430447E-2	6.204459E-2	5.832455E-2	5.436333E-2	5.157691E-2	5.835469E-2	8.357594E-2
5.337580E+2	7.319984E-2	7.495241E-2	7.920824E-2	8.830582E-2	7.082548E-2	7.256180E-2	7.626957E-2	8.898731E-2	8.940356E-2	8.207080E-2	8.079019E-2	7.902015E-2	7.597088E-2	7.846054E-2	6.502740E-2	8.161551E-2	7.770338E-2	7.909690E-2	7.520138E-2	7.992799E-2	7.498434E-2	7.154660E-2	6.265858E-2	8.834095E-2	9.335200E-2	8.579361E-2	1.028141E-1	1.088438E-1	8.320818E-2	7.755119E-2	8.128227E-2	8.255135E-2	9.816422E-2	8.223812E-2	1.009891E-1	9.536262E-2	7.818190E-2	7.405317E-2	7.802701E-2	6.833231E-2	7.995052E-2	7.212303E-2	8.735576E-2	8.123222E-2	8.993048E-2	8.950543E-2	7.716767E-2	7.517702E-2	7.110131E-2	8.623637E-2	8.463656E-2	8.826756E-2	7.943403E-2	7.403234E-2	9.080675E-2	9.455136E-2	8.880782E-2	8.099778E-2	7.347640E-2	8.676247E-2	7.592405E-2	6.833272E-2	8.570797E-2	7.838434E-2	7.927999E-2	8.687690E-2	7.698571E-2	7.825029E-2	7.367704E-2	8.252312E-2	8.934851E-2	8.301699E-2	8.609508E-2	7.714622E-2	8.085416E-2	7.838619E-2	9.021282E-2	8.970550E-2	8.602108E-2	9.188697E-2	9.073576E-2	6.848436E-2	9.547830E-2	9.624180E-2	7.183068E-2	7.523707E-2	8.902939E-2	7.033910E-2	8.120400E-2	8.223567E-2	8.695663E-2	7.327448E-2	8.379622E-2	8.170883E-2	7.626528E-2	8.503803E-2	9.849383E-2	9.481208E-2	7.612470E-2	6.995858E-2	9.007440E-2	8.957244E-2	8.313504E-2	8.413515E-2	1.074940E-1	9.049573E-2	8.181070E-2	9.390479E-2	8.550636E-2	7.689444E-2	7.397232E-2	8.532415E-2	8.876767E-2	6.960582E-2	7.830067E-2	7.761853E-2	7.667258E-2	8.636268E-2	7.865382E-2	9.432802E-2	7.861744E-2	9.452920E-2	8.400139E-2	8.490575E-2	6.264964E-2	9.150061E-2	7.834478E-2	7.758879E-2	8.370673E-2	8.077719E-2	9.173598E-2	6.469470E-2	7.913046E-2	8.199692E-2	8.269556E-2	8.858316E-2	9.189086E-2	8.797559E-2	6.899303E-2	7.973213E-2	7.785539E-2	6.981711E-2	7.131037E-2	9.065261E-2	8.450926E-2	8.590762E-2	8.351624E-2	7.962861E-2	1.031795E-1	7.772984E-2	8.537335E-2	8.797077E-2	9.952890E-2	8.183765E-2	9.230188E-2	1.028355E-1	8.427780E-2	7.769540E-2	8.306342E-2	7.101177E-2	7.628260E-2	7.105785E-2	8.145388E-2	9.114800E-2	8.870341E-2	8.079814E-2	6.592887E-2	8.866112E-2	9.792852E-2	6.733912E-2
5.339290E+2	1.210437E-1	1.276625E-1	9.584624E-2	1.190721E-1	1.170209E-1	1.279692E-1	1.285959E-1	1.268079E-1	1.203832E-1	1.157874E-1	1.242107E-1	1.170060E-1	1.079585E-1	1.134808E-1	1.137491E-1	1.130288E-1	1.291460E-1	1.189738E-1	1.325204E-1	1.197707E-1	1.296755E-1	1.256738E-1	1.182455E-1	1.163707E-1	1.695625E-1	1.516246E-1	1.719189E-1	1.488900E-1	1.379409E-1	1.379388E-1	1.196289E-1	1.428274E-1	1.316162E-1	1.273049E-1	1.388906E-1	1.507228E-1	1.125754E-1	1.344101E-1	1.277954E-1	1.297190E-1	1.478274E-1	1.346440E-1	1.233241E-1	1.253717E-1	1.423850E-1	1.201208E-1	1.256860E-1	1.260650E-1	1.402775E-1	1.402773E-1	1.446253E-1	1.224372E-1	1.029991E-1	1.228505E-1	1.302138E-1	1.316762E-1	1.359292E-1	1.409357E-1	1.302319E-1	1.263886E-1	1.167211E-1	1.281677E-1	1.347414E-1	1.270109E-1	1.218477E-1	1.155342E-1	1.378974E-1	1.069927E-1	1.497944E-1	1.319993E-1	1.375751E-1	1.264517E-1	1.287462E-1	1.288373E-1	1.255585E-1	1.062809E-1	1.286497E-1	1.282541E-1	1.271593E-1	1.212386E-1	1.239837E-1	1.099298E-1	1.201624E-1	1.515941E-1	1.338829E-1	1.231545E-1	1.375986E-1	1.226707E-1	1.392356E-1	1.290640E-1	1.368329E-1	1.232837E-1	1.140868E-1	1.331904E-1	1.276713E-1	1.262675E-1	1.312450E-1	1.186269E-1	1.127858E-1	1.125652E-1	1.377831E-1	1.120420E-1	1.316946E-1	1.249649E-1	1.317768E-1	1.513547E-1	1.182743E-1	1.238135E-1	1.336722E-1	1.277294E-1	1.235415E-1	1.163022E-1	1.449965E-1	1.198967E-1	1.232192E-1	1.092498E-1	1.429445E-1	1.357051E-1	1.223434E-1	1.316384E-1	1.410009E-1	1.321939E-1	1.180076E-1	1.244481E-1	1.446702E-1	1.379354E-1	1.333488E-1	1.328944E-1	1.292336E-1	1.245659E-1	1.379258E-1	1.071727E-1	1.287803E-1	1.193031E-1	1.255455E-1	1.249388E-1	1.325488E-1	1.341178E-1	1.270537E-1	1.409149E-1	1.368399E-1	1.205213E-1	1.383261E-1	1.232197E-1	1.467948E-1	1.443005E-1	1.362003E-1	1.184270E-1	1.233566E-1	1.399507E-1	1.245996E-1	1.230597E-1	1.368545E-1	1.208946E-1	1.206630E-1	1.227019E-1	1.326327E-1	1.236212E-1	1.339538E-1	1.249324E-1	1.314403E-1	1.239835E-1	1.317727E-1	1.493237E-1	1.352381E-1	1.219832E-1	1.176325E-1	1.335809E-1	1.067235E-1	1.286648E-1
5.340690E+2	2.166602E-1	1.891112E-1	2.019565E-1	1.775950E-1	1.852469E-1	2.020135E-1	2.138594E-1	1.839206E-1	2.069872E-1	2.099153E-1	2.031047E-1	1.977935E-1	1.973691E-1	1.998495E-1	2.003290E-1	1.933941E-1	1.731411E-1	1.888597E-1	1.918298E-1	1.742014E-1	1.888227E-1	1.990022E-1	2.028236E-1	1.813173E-1	2.500972E-1	2.384083E-1	2.519814E-1	2.257050E-1	2.273966E-1	2.101775E-1	2.056950E-1	2.250199E-1	2.012052E-1	2.187964E-1	2.241885E-1	2.198174E-1	1.930879E-1	2.188598E-1	2.127264E-1	2.107256E-1	2.312271E-1	2.146541E-1	2.035457E-1	1.989386E-1	2.100353E-1	2.039910E-1	2.298010E-1	2.205945E-1	2.071521E-1	1.957808E-1	2.231780E-1	1.939836E-1	1.997116E-1	2.039460E-1	2.032978E-1	1.947084E-1	2.111109E-1	1.901829E-1	2.219748E-1	2.280379E-1	2.100733E-1	2.202603E-1	1.992503E-1	1.982935E-1	2.113928E-1	2.186214E-1	1.910864E-1	2.045200E-1	2.064010E-1	2.157913E-1	1.829463E-1	2.069765E-1	2.141780E-1	1.948628E-1	1.807664E-1	2.123965E-1	2.103186E-1	1.914469E-1	2.239106E-1	1.957740E-1	2.112606E-1	1.852876E-1	2.141836E-1	1.999684E-1	1.792756E-1	2.012030E-1	2.110202E-1	1.970077E-1	2.062524E-1	2.182804E-1	2.259317E-1	2.032252E-1	2.002275E-1	2.110158E-1	2.011029E-1	1.951824E-1	1.878500E-1	2.094071E-1	2.040418E-1	2.162289E-1	2.099287E-1	2.111741E-1	1.951629E-1	1.911060E-1	2.040226E-1	2.108236E-1	2.029292E-1	2.109774E-1	2.046008E-1	1.958132E-1	2.171113E-1	1.920418E-1	2.039006E-1	1.863609E-1	2.052130E-1	2.005104E-1	2.108989E-1	1.932565E-1	2.175122E-1	2.023790E-1	2.168133E-1	2.033449E-1	1.909790E-1	1.908159E-1	2.105026E-1	2.204752E-1	2.175412E-1	1.995891E-1	2.117778E-1	1.985372E-1	2.021822E-1	1.742681E-1	1.886812E-1	2.119472E-1	2.117280E-1	2.010766E-1	2.001201E-1	2.103354E-1	1.800740E-1	1.651192E-1	1.930049E-1	1.986955E-1	1.998364E-1	1.979072E-1	1.877223E-1	2.267227E-1	1.878352E-1	2.189829E-1	2.141567E-1	1.962077E-1	2.095648E-1	2.147863E-1	2.084254E-1	2.034127E-1	2.199035E-1	2.007210E-1	1.831380E-1	2.074385E-1	2.131645E-1	2.104492E-1	1.909820E-1	1.948985E-1	1.959905E-1	1.827285E-1	2.004986E-1	2.094339E-1	2.023473E-1	2.356235E-1	2.221638E-1	1.854949E-1
5.342150E+2	3.237951E-1	3.171626E-1	3.346730E-1	3.299873E-1	3.329962E-1	3.386655E-1	3.179061E-1	3.367781E-1	3.409714E-1	3.118585E-1	3.398180E-1	3.233774E-1	3.243104E-1	3.228022E-1	3.422602E-1	3.502392E-1	3.358622E-1	3.394786E-1	3.273595E-1	3.369618E-1	3.181959E-1	3.493796E-1	3.474655E-1	3.344344E-1	4.644481E-1	4.273531E-1	4.139852E-1	4.072383E-1	3.599564E-1	3.668693E-1	3.865903E-1	3.792023E-1	3.795186E-1	3.765619E-1	3.495727E-1	4.044349E-1	3.626371E-1	3.715286E-1	3.758709E-1	3.635645E-1	4.021547E-1	3.735376E-1	3.441643E-1	3.358279E-1	3.519543E-1	3.625300E-1	3.764679E-1	3.983692E-1	4.051959E-1	3.645181E-1	3.598203E-1	3.511795E-1	3.725417E-1	3.787784E-1	3.374197E-1	3.423563E-1	3.510253E-1	3.678375E-1	3.587986E-1	3.800047E-1	3.492738E-1	3.485201E-1	3.602148E-1	3.626152E-1	3.622507E-1	3.859892E-1	3.428602E-1	3.514256E-1	3.550743E-1	3.625652E-1	3.699312E-1	3.634560E-1	3.462559E-1	3.314350E-1	3.296913E-1	3.531941E-1	3.484754E-1	3.397640E-1	3.500005E-1	3.549507E-1	3.447886E-1	3.405829E-1	3.893414E-1	3.103680E-1	3.702754E-1	3.613306E-1	3.521229E-1	3.522894E-1	3.567722E-1	3.585199E-1	3.653562E-1	3.769261E-1	3.468517E-1	3.543212E-1	3.371043E-1	3.467377E-1	3.273195E-1	3.507125E-1	3.625898E-1	3.532599E-1	3.745473E-1	3.604156E-1	3.503330E-1	3.675399E-1	3.574965E-1	3.636912E-1	3.382794E-1	3.480190E-1	3.631944E-1	3.388370E-1	3.578168E-1	3.458983E-1	3.695380E-1	3.671137E-1	3.531845E-1	3.442611E-1	3.488018E-1	3.697064E-1	3.562114E-1	3.385942E-1	3.643609E-1	3.648265E-1	3.562198E-1	3.460757E-1	3.486774E-1	3.635227E-1	3.407797E-1	3.525915E-1	3.534677E-1	3.203814E-1	3.273629E-1	3.645931E-1	3.594174E-1	3.781838E-1	3.336910E-1	3.314450E-1	3.687361E-1	3.410895E-1	3.221012E-1	3.527605E-1	3.374158E-1	3.396040E-1	3.397750E-1	3.506612E-1	3.313640E-1	3.663104E-1	3.609100E-1	3.536475E-1	3.472704E-1	3.423670E-1	3.556354E-1	3.334173E-1	3.604980E-1	3.660631E-1	3.531107E-1	3.582566E-1	3.499764E-1	3.686395E-1	3.398972E-1	3.572802E-1	3.460135E-1	3.422048E-1	3.599746E-1	3.418572E-1	3.679537E-1	3.531550E-1	3.535004E-1	3.703673E-1	4.190498E-1	4.029793E-1
5.343600E+2	5.707795E-1	5.907602E-1	5.834862E-1	5.936586E-1	5.908662E-1	5.770664E-1	5.824359E-1	6.174647E-1	5.636463E-1	5.957780E-1	5.936177E-1	6.421156E-1	6.139205E-1	5.892694E-1	6.075461E-1	6.049682E-1	5.727347E-1	5.966284E-1	5.906283E-1	5.835406E-1	5.918689E-1	5.765264E-1	6.103911E-1	5.999309E-1	7.406602E-1	7.657533E-1	7.285836E-1	6.826005E-1	6.969762E-1	6.724324E-1	6.642337E-1	6.484218E-1	6.502519E-1	6.652640E-1	6.577117E-1	6.935877E-1	6.378740E-1	6.734633E-1	6.722486E-1	6.489406E-1	6.179254E-1	6.599732E-1	6.391528E-1	6.283373E-1	6.332380E-1	6.483806E-1	6.465596E-1	6.716122E-1	6.540941E-1	6.113938E-1	6.306736E-1	6.155958E-1	6.308342E-1	6.728383E-1	6.405951E-1	6.394720E-1	6.648850E-1	6.612878E-1	6.777441E-1	6.517901E-1	6.170453E-1	6.530910E-1	6.449861E-1	6.325450E-1	6.339103E-1	6.748620E-1	6.500651E-1	6.296195E-1	6.368223E-1	6.372842E-1	6.443567E-1	6.406286E-1	6.125282E-1	5.855428E-1	6.542270E-1	6.546762E-1	6.119193E-1	6.050245E-1	6.333704E-1	6.409096E-1	6.079280E-1	6.244839E-1	5.858496E-1	6.208830E-1	6.245713E-1	6.166328E-1	6.379427E-1	6.344900E-1	6.271729E-1	6.262409E-1	6.082023E-1	6.444489E-1	6.298375E-1	6.240116E-1	6.182106E-1	6.002647E-1	6.548312E-1	6.496921E-1	5.855463E-1	6.092709E-1	6.404884E-1	6.440929E-1	6.326552E-1	5.853467E-1	6.315516E-1	6.048987E-1	6.210047E-1	6.099980E-1	6.184880E-1	6.191882E-1	6.489934E-1	6.248452E-1	6.224848E-1	6.121143E-1	6.315653E-1	5.622853E-1	6.211769E-1	6.383009E-1	6.129999E-1	6.517223E-1	6.305418E-1	6.374229E-1	6.147586E-1	6.082549E-1	6.229978E-1	5.900190E-1	6.255556E-1	6.209018E-1	6.253209E-1	6.049008E-1	5.730206E-1	6.415678E-1	5.967853E-1	6.575806E-1	5.876461E-1	5.996715E-1	6.451485E-1	6.595210E-1	6.242546E-1	6.111232E-1	6.313132E-1	6.234582E-1	6.036057E-1	6.147835E-1	6.356851E-1	6.613230E-1	5.938420E-1	6.276144E-1	5.990512E-1	6.430743E-1	5.977892E-1	6.283095E-1	6.262588E-1	6.717445E-1	6.292099E-1	6.369221E-1	6.328479E-1	5.843661E-1	6.313828E-1	6.257827E-1	6.143193E-1	6.357391E-1	5.967686E-1	5.897383E-1	6.172054E-1	6.524931E-1	6.323297E-1	6.349737E-1	6.141590E-1	6.635783E-1
5.345050E+2	8.813898E-1	9.262376E-1	9.479242E-1	9.526347E-1	9.517988E-1	9.536505E-1	9.510737E-1	9.380616E-1	9.759064E-1	9.460050E-1	9.129388E-1	9.235376E-1	9.174777E-1	9.361208E-1	9.289754E-1	9.644383E-1	9.209280E-1	9.475173E-1	9.781561E-1	9.272628E-1	9.679716E-1	1.008037E+0	9.560335E-1	9.259593E-1	1.165841E+0	1.041953E+0	1.064289E+0	9.862505E-1	1.025137E+0	1.050443E+0	1.040532E+0	1.037342E+0	9.770432E-1	1.008621E+0	9.885245E-1	1.044203E+0	9.998943E-1	9.954652E-1	9.730719E-1	1.007846E+0	9.796758E-1	1.010544E+0	9.824860E-1	9.740238E-1	9.787581E-1	9.922524E-1	1.022228E+0	1.036926E+0	1.010858E+0	9.590573E-1	9.714356E-1	9.702639E-1	9.990719E-1	1.011804E+0	9.910956E-1	9.903132E-1	9.444465E-1	9.651759E-1	9.400247E-1	9.914499E-1	9.961905E-1	9.635279E-1	9.825313E-1	9.862930E-1	9.791924E-1	1.015640E+0	9.788409E-1	9.989318E-1	9.673318E-1	9.885941E-1	9.812734E-1	9.186703E-1	9.672607E-1	9.840246E-1	9.634751E-1	9.977591E-1	9.884824E-1	9.223781E-1	9.871882E-1	9.581218E-1	9.619730E-1	9.692776E-1	9.791106E-1	9.415771E-1	9.477492E-1	9.636092E-1	9.628146E-1	9.782446E-1	9.605453E-1	9.900830E-1	9.757816E-1	9.770874E-1	1.003550E+0	9.552210E-1	9.962714E-1	9.722447E-1	1.013667E+0	9.900820E-1	9.613510E-1	9.645909E-1	9.181182E-1	9.521745E-1	1.000609E+0	9.731551E-1	9.490043E-1	9.566198E-1	9.760889E-1	9.109005E-1	9.797686E-1	9.832626E-1	9.974060E-1	9.577927E-1	9.789112E-1	9.562449E-1	9.731557E-1	9.479835E-1	9.774726E-1	9.862442E-1	1.003562E+0	9.403335E-1	9.446425E-1	9.646211E-1	9.448963E-1	9.620803E-1	9.631850E-1	9.829183E-1	9.864414E-1	9.367136E-1	9.727836E-1	1.003853E+0	1.010150E+0	9.681325E-1	9.271624E-1	1.061779E+0	9.776182E-1	9.780757E-1	9.579789E-1	1.039078E+0	9.228232E-1	9.649725E-1	9.927316E-1	9.668050E-1	9.275664E-1	9.589702E-1	9.801227E-1	1.018633E+0	9.657614E-1	9.065896E-1	9.391461E-1	1.029132E+0	9.637529E-1	9.628991E-1	9.885201E-1	9.920082E-1	9.850088E-1	9.479291E-1	8.974509E-1	9.544069E-1	9.596662E-1	1.010027E+0	9.868011E-1	9.407898E-1	9.512476E-1	9.572779E-1	9.662707E-1	9.773383E-1	9.570462E-1	1.022215E+0	1.015804E+0	9.429440E-1
5.346620E+2	1.321689E+0	1.316606E+0	1.361816E+0	1.311167E+0	1.340425E+0	1.302022E+0	1.276239E+0	1.389030E+0	1.265719E+0	1.330195E+0	1.327274E+0	1.374336E+0	1.344495E+0	1.348075E+0	1.341432E+0	1.331689E+0	1.285893E+0	1.331622E+0	1.344747E+0	1.292009E+0	1.365620E+0	1.370720E+0	1.377278E+0	1.308104E+0	1.478238E+0	1.429907E+0	1.415744E+0	1.374763E+0	1.422572E+0	1.410351E+0	1.398396E+0	1.421949E+0	1.385463E+0	1.392880E+0	1.420853E+0	1.375523E+0	1.393383E+0	1.416117E+0	1.336918E+0	1.396105E+0	1.355656E+0	1.381418E+0	1.331619E+0	1.407906E+0	1.347256E+0	1.363838E+0	1.348591E+0	1.351929E+0	1.408958E+0	1.343285E+0	1.324460E+0	1.319358E+0	1.369847E+0	1.355344E+0	1.360686E+0	1.346188E+0	1.353741E+0	1.433421E+0	1.348344E+0	1.323517E+0	1.307530E+0	1.346637E+0	1.354572E+0	1.378542E+0	1.386485E+0	1.367184E+0	1.410630E+0	1.311971E+0	1.376291E+0	1.331676E+0	1.323943E+0	1.340833E+0	1.336675E+0	1.352684E+0	1.392883E+0	1.366754E+0	1.357964E+0	1.370201E+0	1.373210E+0	1.315573E+0	1.333029E+0	1.338396E+0	1.391995E+0	1.353423E+0	1.312199E+0	1.372876E+0	1.354259E+0	1.306465E+0	1.302659E+0	1.360694E+0	1.352344E+0	1.348748E+0	1.329657E+0	1.333525E+0	1.347161E+0	1.320011E+0	1.319364E+0	1.383533E+0	1.330660E+0	1.339904E+0	1.334485E+0	1.362190E+0	1.339072E+0	1.327194E+0	1.303400E+0	1.329048E+0	1.352879E+0	1.330757E+0	1.332147E+0	1.339216E+0	1.359508E+0	1.342277E+0	1.324701E+0	1.354976E+0	1.285017E+0	1.315173E+0	1.346276E+0	1.326770E+0	1.334798E+0	1.316477E+0	1.345956E+0	1.377707E+0	1.312446E+0	1.287447E+0	1.365972E+0	1.374679E+0	1.317772E+0	1.333023E+0	1.394613E+0	1.368916E+0	1.336804E+0	1.283191E+0	1.332956E+0	1.412962E+0	1.311324E+0	1.385944E+0	1.329740E+0	1.376624E+0	1.272396E+0	1.303631E+0	1.362121E+0	1.295717E+0	1.271250E+0	1.333882E+0	1.374047E+0	1.380160E+0	1.308971E+0	1.366315E+0	1.381026E+0	1.352220E+0	1.328515E+0	1.330783E+0	1.318427E+0	1.327099E+0	1.289331E+0	1.358828E+0	1.302155E+0	1.312101E+0	1.280190E+0	1.356554E+0	1.288929E+0	1.309184E+0	1.263704E+0	1.329867E+0	1.345648E+0	1.301394E+0	1.367215E+0	1.410349E+0	1.333891E+0	1.401470E+0
5.348020E+2	1.618407E+0	1.664286E+0	1.710949E+0	1.610164E+0	1.655902E+0	1.637454E+0	1.661989E+0	1.688320E+0	1.695984E+0	1.677577E+0	1.675494E+0	1.730063E+0	1.682572E+0	1.646573E+0	1.656477E+0	1.697761E+0	1.653353E+0	1.656482E+0	1.674244E+0	1.659574E+0	1.712994E+0	1.732673E+0	1.641696E+0	1.684322E+0	1.765302E+0	1.696864E+0	1.733357E+0	1.754728E+0	1.709341E+0	1.679014E+0	1.731453E+0	1.697695E+0	1.691092E+0	1.767548E+0	1.678096E+0	1.711142E+0	1.703635E+0	1.703978E+0	1.715602E+0	1.696261E+0	1.713203E+0	1.740400E+0	1.688812E+0	1.715835E+0	1.655909E+0	1.750298E+0	1.750972E+0	1.671120E+0	1.641670E+0	1.675009E+0	1.708384E+0	1.679102E+0	1.688369E+0	1.688747E+0	1.697698E+0	1.647542E+0	1.740766E+0	1.688682E+0	1.690238E+0	1.688677E+0	1.710571E+0	1.724564E+0	1.720433E+0	1.670162E+0	1.678349E+0	1.686272E+0	1.680795E+0	1.688218E+0	1.641995E+0	1.723219E+0	1.642453E+0	1.631485E+0	1.682078E+0	1.694882E+0	1.648361E+0	1.683493E+0	1.681034E+0	1.705951E+0	1.723329E+0	1.669503E+0	1.662645E+0	1.603332E+0	1.704410E+0	1.653920E+0	1.662273E+0	1.713303E+0	1.656079E+0	1.675204E+0	1.678391E+0	1.736049E+0	1.732144E+0	1.638818E+0	1.649838E+0	1.628360E+0	1.673696E+0	1.659401E+0	1.638635E+0	1.724873E+0	1.621249E+0	1.659797E+0	1.686192E+0	1.692896E+0	1.662524E+0	1.677811E+0	1.626460E+0	1.663901E+0	1.664961E+0	1.625563E+0	1.678489E+0	1.602897E+0	1.666994E+0	1.680080E+0	1.669024E+0	1.746209E+0	1.675647E+0	1.725603E+0	1.650454E+0	1.666980E+0	1.620576E+0	1.642648E+0	1.566823E+0	1.680117E+0	1.680499E+0	1.602790E+0	1.665914E+0	1.727351E+0	1.670974E+0	1.721709E+0	1.670331E+0	1.654263E+0	1.634095E+0	1.636209E+0	1.650704E+0	1.671112E+0	1.679428E+0	1.657550E+0	1.641644E+0	1.676699E+0	1.649768E+0	1.657184E+0	1.673131E+0	1.660739E+0	1.619172E+0	1.673797E+0	1.644654E+0	1.732355E+0	1.611881E+0	1.600020E+0	1.705397E+0	1.727286E+0	1.629907E+0	1.684640E+0	1.632280E+0	1.674944E+0	1.703037E+0	1.652823E+0	1.601473E+0	1.687266E+0	1.684887E+0	1.645375E+0	1.704103E+0	1.696693E+0	1.620913E+0	1.586545E+0	1.626328E+0	1.622981E+0	1.647845E+0	1.621445E+0	1.620141E+0	1.681996E+0
5.349630E+2	1.972834E+0	1.941425E+0	2.030168E+0	1.903230E+0	1.881059E+0	1.915250E+0	1.974033E+0	1.975712E+0	1.932703E+0	1.951874E+0	1.977710E+0	1.932579E+0	1.959864E+0	1.980118E+0	2.006060E+0	1.940355E+0	1.910182E+0	1.979264E+0	1.952014E+0	1.929529E+0	1.962338E+0	1.951154E+0	1.950486E+0	1.937951E+0	1.939500E+0	1.906889E+0	1.940269E+0	1.924926E+0	1.919814E+0	1.934770E+0	1.998767E+0	1.940665E+0	1.950793E+0	1.963907E+0	1.949592E+0	2.010425E+0	1.988734E+0	1.923507E+0	1.995310E+0	2.005401E+0	1.972698E+0	1.925452E+0	1.879974E+0	1.844081E+0	1.900943E+0	1.899740E+0	1.901349E+0	1.960894E+0	1.938813E+0	1.914418E+0	1.902057E+0	1.961350E+0	1.942565E+0	1.899091E+0	1.964896E+0	1.850146E+0	1.986157E+0	1.983110E+0	1.924644E+0	1.909841E+0	1.938216E+0	1.976589E+0	1.947571E+0	1.939824E+0	1.930692E+0	1.961320E+0	1.958466E+0	1.877112E+0	1.970066E+0	1.927983E+0	1.971544E+0	1.867856E+0	1.883586E+0	1.921800E+0	1.883018E+0	1.936672E+0	1.948425E+0	1.916145E+0	1.976988E+0	1.906322E+0	1.959933E+0	1.872406E+0	1.949309E+0	1.981601E+0	1.866147E+0	1.989790E+0	1.915202E+0	1.929310E+0	1.889313E+0	1.941306E+0	1.886364E+0	1.879271E+0	1.933380E+0	1.934315E+0	1.916437E+0	1.951816E+0	1.905781E+0	1.946168E+0	1.841362E+0	1.856045E+0	1.959403E+0	1.943204E+0	1.823910E+0	1.867863E+0	1.870292E+0	1.863307E+0	1.880118E+0	1.900978E+0	1.932494E+0	1.918917E+0	1.928011E+0	1.926411E+0	1.938483E+0	1.939480E+0	1.865490E+0	1.832211E+0	1.911053E+0	1.909820E+0	1.873454E+0	1.927354E+0	1.899237E+0	1.882067E+0	1.927491E+0	1.865908E+0	1.916615E+0	1.924961E+0	1.913804E+0	1.914219E+0	1.842211E+0	1.888634E+0	1.885700E+0	1.932225E+0	1.888748E+0	1.938403E+0	1.858399E+0	1.924851E+0	1.870398E+0	1.935471E+0	1.815170E+0	1.865750E+0	1.907185E+0	1.916035E+0	1.944371E+0	1.869353E+0	1.939393E+0	1.919340E+0	1.860429E+0	1.909310E+0	1.907064E+0	1.949595E+0	1.899707E+0	1.928924E+0	1.899459E+0	1.916290E+0	1.877195E+0	1.914857E+0	1.849120E+0	1.934420E+0	1.900021E+0	1.898690E+0	1.892156E+0	1.848886E+0	1.877521E+0	1.799666E+0	1.878655E+0	1.846077E+0	1.881117E+0	1.897080E+0	1.934677E+0	2.017671E+0
5.351350E+2	2.092360E+0	2.005221E+0	2.140422E+0	2.032831E+0	2.050835E+0	2.053445E+0	2.045446E+0	2.048944E+0	2.020479E+0	2.061408E+0	2.063315E+0	2.115621E+0	2.012279E+0	1.959216E+0	2.073958E+0	2.066859E+0	2.047484E+0	2.043376E+0	2.097876E+0	2.010925E+0	2.090661E+0	2.052027E+0	2.030122E+0	2.117600E+0	2.008584E+0	1.970625E+0	2.004871E+0	1.928292E+0	1.990929E+0	2.015508E+0	2.016961E+0	2.029144E+0	2.031010E+0	2.012042E+0	1.960701E+0	2.055766E+0	2.033895E+0	2.073074E+0	1.948702E+0	2.031692E+0	2.013703E+0	1.905877E+0	2.007599E+0	2.005885E+0	2.000164E+0	1.997169E+0	2.034666E+0	2.015004E+0	2.038151E+0	2.011312E+0	2.107256E+0	1.923467E+0	2.025570E+0	1.999659E+0	2.053779E+0	1.973108E+0	2.047166E+0	2.041832E+0	1.952929E+0	1.948605E+0	2.007956E+0	2.034466E+0	2.019983E+0	1.986780E+0	1.991125E+0	2.074445E+0	2.023181E+0	1.949939E+0	2.020410E+0	1.975894E+0	2.033252E+0	1.996334E+0	1.990874E+0	1.958345E+0	2.008515E+0	2.063640E+0	1.998536E+0	1.969155E+0	2.032490E+0	1.987217E+0	1.957101E+0	1.916627E+0	2.052339E+0	2.025677E+0	1.946224E+0	1.928231E+0	2.016364E+0	2.013698E+0	1.993463E+0	1.962893E+0	1.946398E+0	1.987391E+0	1.992060E+0	1.978116E+0	2.039012E+0	2.007464E+0	2.000827E+0	1.984384E+0	1.997888E+0	1.972876E+0	2.072524E+0	2.006486E+0	2.031412E+0	2.068133E+0	1.947474E+0	2.007917E+0	1.976253E+0	1.930467E+0	2.024897E+0	1.983720E+0	2.010947E+0	1.928709E+0	2.000300E+0	2.065579E+0	1.897836E+0	2.009319E+0	2.016139E+0	1.952104E+0	2.012818E+0	2.068765E+0	1.946186E+0	1.962477E+0	2.005559E+0	1.982665E+0	1.936581E+0	1.975832E+0	1.989379E+0	2.027893E+0	2.007340E+0	1.948752E+0	1.916899E+0	1.980862E+0	1.959535E+0	2.015301E+0	1.994603E+0	1.981565E+0	1.968417E+0	1.969322E+0	1.897572E+0	1.959243E+0	1.992279E+0	1.982346E+0	2.031238E+0	1.978796E+0	2.015381E+0	2.071497E+0	1.985732E+0	2.016062E+0	1.962283E+0	1.977563E+0	1.989402E+0	1.954687E+0	1.869101E+0	2.017013E+0	1.897383E+0	1.995541E+0	1.918451E+0	2.018959E+0	1.981641E+0	1.983461E+0	1.971317E+0	1.960207E+0	1.932400E+0	1.857612E+0	1.970625E+0	1.931588E+0	1.998433E+0	2.027662E+0	1.941600E+0	1.984769E+0
5.352600E+2	1.997941E+0	1.940538E+0	1.989496E+0	1.952607E+0	1.957822E+0	1.945945E+0	1.966529E+0	2.027935E+0	1.900650E+0	1.951958E+0	1.957840E+0	2.052743E+0	1.944964E+0	1.993423E+0	1.972305E+0	1.928592E+0	1.907329E+0	1.918717E+0	1.921336E+0	1.974456E+0	1.982115E+0	1.986674E+0	1.927780E+0	1.965865E+0	1.895318E+0	1.910303E+0	1.907868E+0	1.924282E+0	1.863801E+0	1.907486E+0	1.951697E+0	1.953427E+0	1.934775E+0	1.968301E+0	1.939896E+0	1.994379E+0	1.916277E+0	1.937007E+0	1.895168E+0	1.969969E+0	1.954317E+0	1.954135E+0	1.937460E+0	1.877662E+0	1.938979E+0	1.974338E+0	1.937152E+0	1.961106E+0	1.926467E+0	1.902954E+0	1.962124E+0	1.877574E+0	1.948840E+0	1.910353E+0	1.933465E+0	1.922881E+0	2.005186E+0	1.982204E+0	1.910757E+0	2.012485E+0	1.838773E+0	1.957151E+0	2.000103E+0	1.993268E+0	1.901691E+0	2.030642E+0	1.955680E+0	1.922819E+0	1.957741E+0	1.887888E+0	2.020810E+0	1.943796E+0	1.889316E+0	1.889921E+0	1.937628E+0	1.913953E+0	1.868423E+0	1.943734E+0	1.994588E+0	1.909253E+0	1.888207E+0	1.893773E+0	1.902557E+0	1.980697E+0	1.868402E+0	1.955952E+0	1.849631E+0	1.905404E+0	1.821566E+0	1.949643E+0	1.892637E+0	1.917600E+0	1.882485E+0	1.900220E+0	1.864532E+0	1.913163E+0	1.888526E+0	1.896215E+0	1.887877E+0	1.932197E+0	1.874726E+0	1.925915E+0	1.915005E+0	1.896992E+0	1.851595E+0	1.889373E+0	1.886088E+0	1.947394E+0	1.895191E+0	1.897657E+0	1.943657E+0	1.946072E+0	2.001263E+0	1.932742E+0	1.936291E+0	1.888303E+0	1.881378E+0	1.871500E+0	1.917619E+0	1.882303E+0	1.873606E+0	1.911775E+0	1.932996E+0	1.862810E+0	1.901967E+0	1.902379E+0	1.823040E+0	1.861064E+0	1.894051E+0	1.883202E+0	1.854625E+0	1.935830E+0	1.880593E+0	1.925319E+0	1.936391E+0	1.933101E+0	1.936168E+0	1.909061E+0	1.919817E+0	1.884440E+0	1.877667E+0	1.888610E+0	1.857096E+0	1.854159E+0	1.862783E+0	1.960952E+0	1.856712E+0	1.900362E+0	1.899654E+0	1.942875E+0	1.839885E+0	1.934852E+0	1.951328E+0	1.909017E+0	1.897995E+0	1.874804E+0	1.853955E+0	1.881157E+0	1.864669E+0	1.905321E+0	1.848509E+0	1.850403E+0	1.942813E+0	1.861633E+0	1.836812E+0	1.929217E+0	1.850246E+0	1.959301E+0	1.953762E+0	1.793511E+0
5.354060E+2	1.746376E+0	1.727309E+0	1.822978E+0	1.745860E+0	1.768648E+0	1.767491E+0	1.807792E+0	1.751469E+0	1.750121E+0	1.780332E+0	1.749444E+0	1.713847E+0	1.737670E+0	1.713181E+0	1.767515E+0	1.760811E+0	1.746735E+0	1.726357E+0	1.792591E+0	1.718790E+0	1.736050E+0	1.739527E+0	1.755942E+0	1.728711E+0	1.669598E+0	1.683363E+0	1.691707E+0	1.674031E+0	1.739966E+0	1.697095E+0	1.737766E+0	1.744680E+0	1.708860E+0	1.682398E+0	1.678344E+0	1.709623E+0	1.759645E+0	1.714154E+0	1.733005E+0	1.737061E+0	1.649656E+0	1.780742E+0	1.739577E+0	1.684054E+0	1.703230E+0	1.708164E+0	1.738719E+0	1.729815E+0	1.699300E+0	1.688975E+0	1.789941E+0	1.714518E+0	1.749890E+0	1.735571E+0	1.782869E+0	1.683839E+0	1.739205E+0	1.672596E+0	1.702292E+0	1.727828E+0	1.706161E+0	1.722495E+0	1.719782E+0	1.795290E+0	1.744374E+0	1.721484E+0	1.695652E+0	1.695662E+0	1.764257E+0	1.669818E+0	1.689708E+0	1.734544E+0	1.708246E+0	1.723968E+0	1.709026E+0	1.745397E+0	1.695646E+0	1.677614E+0	1.758844E+0	1.701813E+0	1.717866E+0	1.707361E+0	1.775957E+0	1.684265E+0	1.653790E+0	1.714394E+0	1.729369E+0	1.716000E+0	1.660938E+0	1.734094E+0	1.737015E+0	1.749425E+0	1.696727E+0	1.700755E+0	1.698631E+0	1.683915E+0	1.674486E+0	1.754064E+0	1.636651E+0	1.700560E+0	1.731406E+0	1.707994E+0	1.681169E+0	1.704260E+0	1.668276E+0	1.764627E+0	1.662859E+0	1.659312E+0	1.713425E+0	1.698977E+0	1.808380E+0	1.688578E+0	1.719171E+0	1.774452E+0	1.696858E+0	1.688303E+0	1.719861E+0	1.738372E+0	1.764719E+0	1.752307E+0	1.689511E+0	1.759268E+0	1.723251E+0	1.742891E+0	1.796589E+0	1.700350E+0	1.645677E+0	1.702395E+0	1.704081E+0	1.685309E+0	1.691148E+0	1.729468E+0	1.712566E+0	1.718339E+0	1.737735E+0	1.724566E+0	1.685834E+0	1.693169E+0	1.654772E+0	1.684400E+0	1.689697E+0	1.664301E+0	1.697843E+0	1.668093E+0	1.648097E+0	1.733667E+0	1.657080E+0	1.624166E+0	1.695432E+0	1.658932E+0	1.716912E+0	1.694703E+0	1.618757E+0	1.703935E+0	1.653943E+0	1.701840E+0	1.683961E+0	1.686082E+0	1.709982E+0	1.695468E+0	1.687857E+0	1.691753E+0	1.674685E+0	1.679672E+0	1.686836E+0	1.622605E+0	1.720228E+0	1.696596E+0	1.718971E+0	1.611998E+0
5.355630E+2	1.436754E+0	1.471516E+0	1.461508E+0	1.464923E+0	1.382362E+0	1.437250E+0	1.439654E+0	1.375757E+0	1.412090E+0	1.470394E+0	1.410424E+0	1.398936E+0	1.414526E+0	1.452563E+0	1.393849E+0	1.438898E+0	1.461428E+0	1.405113E+0	1.463626E+0	1.395152E+0	1.459058E+0	1.422738E+0	1.450114E+0	1.436852E+0	1.424103E+0	1.417078E+0	1.370950E+0	1.398023E+0	1.429677E+0	1.375671E+0	1.426930E+0	1.428624E+0	1.449697E+0	1.406832E+0	1.380787E+0	1.415323E+0	1.406224E+0	1.410082E+0	1.373318E+0	1.389479E+0	1.419119E+0	1.377551E+0	1.449709E+0	1.422205E+0	1.434421E+0	1.386162E+0	1.461929E+0	1.449819E+0	1.438147E+0	1.379238E+0	1.455233E+0	1.380618E+0	1.450597E+0	1.402282E+0	1.413136E+0	1.427710E+0	1.469011E+0	1.438702E+0	1.419436E+0	1.378111E+0	1.407570E+0	1.389379E+0	1.451691E+0	1.409431E+0	1.431243E+0	1.463918E+0	1.462902E+0	1.448482E+0	1.388829E+0	1.425282E+0	1.431049E+0	1.431255E+0	1.444420E+0	1.420952E+0	1.426293E+0	1.419221E+0	1.376301E+0	1.411151E+0	1.457342E+0	1.429730E+0	1.409795E+0	1.336469E+0	1.409764E+0	1.440060E+0	1.389629E+0	1.418383E+0	1.427477E+0	1.372273E+0	1.421343E+0	1.434500E+0	1.395377E+0	1.434300E+0	1.406093E+0	1.371270E+0	1.466883E+0	1.385521E+0	1.397637E+0	1.385149E+0	1.379078E+0	1.414187E+0	1.359811E+0	1.453942E+0	1.402947E+0	1.378332E+0	1.458700E+0	1.435685E+0	1.396378E+0	1.440604E+0	1.471497E+0	1.404597E+0	1.425111E+0	1.378847E+0	1.454229E+0	1.431882E+0	1.391228E+0	1.399679E+0	1.416539E+0	1.455444E+0	1.410849E+0	1.421977E+0	1.380581E+0	1.405045E+0	1.453841E+0	1.400898E+0	1.413581E+0	1.418376E+0	1.418630E+0	1.410474E+0	1.451535E+0	1.374484E+0	1.403316E+0	1.450228E+0	1.395844E+0	1.434140E+0	1.445090E+0	1.431676E+0	1.425796E+0	1.417306E+0	1.404048E+0	1.408982E+0	1.440400E+0	1.389126E+0	1.429242E+0	1.341678E+0	1.403898E+0	1.452014E+0	1.401385E+0	1.362024E+0	1.383554E+0	1.417183E+0	1.374402E+0	1.414677E+0	1.350331E+0	1.363583E+0	1.447735E+0	1.407583E+0	1.415373E+0	1.403013E+0	1.434133E+0	1.451774E+0	1.408270E+0	1.385076E+0	1.391191E+0	1.378215E+0	1.347980E+0	1.406945E+0	1.471346E+0	1.436159E+0	1.522933E+0	1.475757E+0
5.357190E+2	1.254329E+0	1.234258E+0	1.261919E+0	1.234481E+0	1.241086E+0	1.252724E+0	1.249952E+0	1.242165E+0	1.263655E+0	1.252921E+0	1.220789E+0	1.273288E+0	1.200961E+0	1.175696E+0	1.223292E+0	1.241488E+0	1.248397E+0	1.219432E+0	1.219478E+0	1.224231E+0	1.228675E+0	1.228030E+0	1.286461E+0	1.249120E+0	1.230442E+0	1.200267E+0	1.229748E+0	1.200036E+0	1.184498E+0	1.183902E+0	1.186768E+0	1.223596E+0	1.221212E+0	1.233999E+0	1.191192E+0	1.238552E+0	1.192885E+0	1.165843E+0	1.195682E+0	1.193712E+0	1.154212E+0	1.202783E+0	1.252626E+0	1.205232E+0	1.211729E+0	1.239352E+0	1.250022E+0	1.264036E+0	1.191964E+0	1.190716E+0	1.205615E+0	1.169986E+0	1.225480E+0	1.205503E+0	1.218588E+0	1.221025E+0	1.219231E+0	1.223564E+0	1.236442E+0	1.244622E+0	1.214376E+0	1.226454E+0	1.202372E+0	1.264683E+0	1.168708E+0	1.218744E+0	1.229037E+0	1.215348E+0	1.211221E+0	1.211959E+0	1.234504E+0	1.211307E+0	1.196984E+0	1.170554E+0	1.220177E+0	1.261485E+0	1.244775E+0	1.187421E+0	1.260174E+0	1.214614E+0	1.194354E+0	1.212803E+0	1.227271E+0	1.250114E+0	1.201184E+0	1.153997E+0	1.161136E+0	1.199161E+0	1.216472E+0	1.206777E+0	1.224399E+0	1.228244E+0	1.165231E+0	1.208069E+0	1.227081E+0	1.191380E+0	1.229999E+0	1.212502E+0	1.223715E+0	1.232453E+0	1.210998E+0	1.256919E+0	1.178105E+0	1.201325E+0	1.171135E+0	1.218268E+0	1.229078E+0	1.177546E+0	1.220338E+0	1.182810E+0	1.238883E+0	1.241230E+0	1.222514E+0	1.244201E+0	1.216350E+0	1.191573E+0	1.205545E+0	1.198068E+0	1.237170E+0	1.227538E+0	1.210829E+0	1.204272E+0	1.195943E+0	1.242135E+0	1.229064E+0	1.220839E+0	1.217250E+0	1.203033E+0	1.214394E+0	1.188245E+0	1.175282E+0	1.216395E+0	1.188477E+0	1.225066E+0	1.237088E+0	1.203699E+0	1.231243E+0	1.239394E+0	1.203735E+0	1.192001E+0	1.214587E+0	1.209110E+0	1.220375E+0	1.194112E+0	1.248504E+0	1.244113E+0	1.179716E+0	1.219081E+0	1.222941E+0	1.200284E+0	1.223489E+0	1.212804E+0	1.219840E+0	1.210581E+0	1.197244E+0	1.188548E+0	1.155891E+0	1.189368E+0	1.233895E+0	1.220153E+0	1.226915E+0	1.190818E+0	1.194750E+0	1.188923E+0	1.212632E+0	1.180690E+0	1.223796E+0	1.189454E+0	1.228720E+0	1.102173E+0
5.358600E+2	1.084018E+0	1.054180E+0	1.098146E+0	9.942724E-1	1.041402E+0	1.013333E+0	1.055463E+0	1.039533E+0	1.049313E+0	1.086891E+0	9.679430E-1	1.063215E+0	1.057530E+0	1.005305E+0	1.035119E+0	1.051174E+0	1.047968E+0	1.082507E+0	1.110407E+0	1.076300E+0	1.090851E+0	1.078041E+0	1.073526E+0	1.068522E+0	1.030175E+0	9.989689E-1	1.003020E+0	1.034613E+0	9.956755E-1	1.028434E+0	1.060307E+0	1.058443E+0	1.037271E+0	1.083938E+0	1.050317E+0	1.040493E+0	1.062326E+0	1.044393E+0	1.036264E+0	1.043508E+0	1.005193E+0	1.067635E+0	1.047235E+0	1.027527E+0	1.050320E+0	1.074822E+0	1.055022E+0	1.041521E+0	1.087112E+0	1.020449E+0	1.071359E+0	1.046430E+0	1.093446E+0	1.006234E+0	1.031589E+0	1.035202E+0	1.083402E+0	1.031954E+0	1.039332E+0	1.065025E+0	1.034200E+0	9.892411E-1	1.037302E+0	1.072998E+0	1.057559E+0	1.032537E+0	1.035921E+0	1.047955E+0	1.033854E+0	1.066425E+0	1.013539E+0	1.022184E+0	1.071718E+0	1.035420E+0	1.001276E+0	1.045062E+0	1.039319E+0	1.072923E+0	1.094935E+0	1.065011E+0	1.077393E+0	1.016533E+0	1.076386E+0	1.039840E+0	1.079282E+0	1.053236E+0	1.033724E+0	1.001834E+0	1.054722E+0	1.056235E+0	1.019930E+0	1.096179E+0	1.035836E+0	1.020829E+0	1.057250E+0	1.049862E+0	1.009578E+0	1.066998E+0	1.051824E+0	1.022648E+0	1.006814E+0	1.060232E+0	1.052913E+0	1.011668E+0	1.049136E+0	1.027991E+0	1.028801E+0	1.011133E+0	1.048452E+0	1.039008E+0	1.031330E+0	1.046930E+0	1.077260E+0	1.000693E+0	1.046771E+0	1.022112E+0	1.033508E+0	1.044696E+0	1.040015E+0	1.035720E+0	1.024988E+0	1.070468E+0	1.027544E+0	1.055538E+0	1.056905E+0	1.033971E+0	1.048223E+0	1.022183E+0	1.069647E+0	1.058667E+0	1.042109E+0	1.028761E+0	1.011260E+0	1.037458E+0	1.052384E+0	1.041816E+0	1.008335E+0	1.051880E+0	1.084831E+0	1.042562E+0	1.044908E+0	9.977570E-1	1.017611E+0	1.066967E+0	1.039452E+0	1.095344E+0	1.055941E+0	1.056116E+0	9.744839E-1	1.000613E+0	1.079886E+0	1.113057E+0	1.077644E+0	1.051477E+0	1.024162E+0	1.041869E+0	1.039539E+0	1.042569E+0	1.037516E+0	1.059632E+0	1.050119E+0	1.052605E+0	1.036733E+0	9.824551E-1	1.009601E+0	1.028338E+0	1.096088E+0	1.097791E+0	1.044819E+0	1.159004E+0
5.360070E+2	9.018788E-1	8.653822E-1	9.405496E-1	9.140819E-1	9.126540E-1	9.163431E-1	9.104758E-1	8.762529E-1	8.995732E-1	8.843312E-1	8.744331E-1	9.232385E-1	9.281030E-1	8.933693E-1	8.559705E-1	9.245464E-1	9.164819E-1	8.749030E-1	9.039119E-1	9.429289E-1	9.321874E-1	8.981127E-1	9.089555E-1	9.404600E-1	9.366331E-1	9.155263E-1	9.313447E-1	8.705219E-1	8.936855E-1	8.900122E-1	9.012777E-1	9.007949E-1	9.034656E-1	8.822203E-1	8.826429E-1	9.019623E-1	9.145420E-1	9.210501E-1	8.969092E-1	9.315081E-1	8.717085E-1	8.980482E-1	8.911168E-1	8.705217E-1	8.820394E-1	8.826415E-1	9.207353E-1	9.052562E-1	8.266354E-1	9.347925E-1	8.919788E-1	8.931527E-1	8.868276E-1	9.069324E-1	8.980382E-1	9.164049E-1	9.616355E-1	9.143360E-1	9.085435E-1	8.932672E-1	9.263318E-1	9.304276E-1	9.450328E-1	9.331242E-1	8.908355E-1	9.167793E-1	9.141652E-1	8.612968E-1	8.730751E-1	9.082382E-1	9.187189E-1	8.485317E-1	8.921669E-1	8.659229E-1	9.348030E-1	9.272920E-1	9.014434E-1	8.935738E-1	9.146743E-1	8.959234E-1	9.239261E-1	9.046524E-1	9.075744E-1	9.306421E-1	9.002515E-1	8.803736E-1	8.891723E-1	9.112058E-1	8.597319E-1	9.155748E-1	9.076345E-1	8.807589E-1	8.859385E-1	9.201440E-1	8.847660E-1	8.879193E-1	9.142405E-1	8.908494E-1	8.608899E-1	8.718196E-1	9.180919E-1	8.744491E-1	9.030725E-1	8.790299E-1	8.983733E-1	9.109349E-1	8.921359E-1	8.696007E-1	8.877513E-1	8.985888E-1	9.079112E-1	8.900512E-1	8.970289E-1	9.011040E-1	9.039570E-1	8.829971E-1	9.117646E-1	9.127616E-1	8.754457E-1	9.452000E-1	8.683161E-1	9.512155E-1	8.992000E-1	9.069391E-1	9.102977E-1	9.035822E-1	8.852649E-1	8.986220E-1	9.067718E-1	9.064047E-1	8.910373E-1	8.641065E-1	8.569435E-1	9.026024E-1	9.236586E-1	8.539227E-1	8.648121E-1	9.000775E-1	9.059606E-1	8.855792E-1	9.461326E-1	9.329127E-1	8.811650E-1	9.479393E-1	8.924996E-1	9.078257E-1	9.001759E-1	8.709822E-1	9.286360E-1	8.960512E-1	9.363705E-1	8.949627E-1	9.033919E-1	8.878934E-1	8.820235E-1	9.664179E-1	8.762763E-1	9.152032E-1	9.119646E-1	9.151860E-1	8.921568E-1	8.996060E-1	9.163127E-1	9.065734E-1	9.259373E-1	8.891261E-1	9.172097E-1	8.991967E-1	8.492014E-1	8.694362E-1
5.362630E+2	7.075890E-1	7.067577E-1	6.995984E-1	7.154117E-1	6.938303E-1	6.893003E-1	6.615508E-1	6.993411E-1	6.949178E-1	6.996376E-1	6.871677E-1	6.854458E-1	7.017495E-1	6.736724E-1	7.001284E-1	6.890212E-1	6.926581E-1	6.643478E-1	7.084580E-1	6.889206E-1	6.901199E-1	7.185359E-1	6.860007E-1	7.300276E-1	7.137783E-1	6.975224E-1	6.734092E-1	6.614719E-1	6.807798E-1	7.315657E-1	6.645207E-1	6.825432E-1	7.225919E-1	7.086739E-1	6.853166E-1	6.760787E-1	7.194015E-1	6.941388E-1	6.764673E-1	6.897858E-1	6.731505E-1	6.860046E-1	7.026039E-1	6.753631E-1	6.531756E-1	7.018325E-1	7.075498E-1	7.162399E-1	7.032871E-1	7.006231E-1	6.543008E-1	6.676088E-1	6.517822E-1	6.928211E-1	7.029673E-1	6.530855E-1	7.067064E-1	6.878644E-1	7.086879E-1	7.073608E-1	6.910807E-1	6.872876E-1	7.240863E-1	7.175274E-1	7.091613E-1	6.975481E-1	7.055948E-1	6.847810E-1	7.138887E-1	6.916951E-1	6.627158E-1	6.566522E-1	6.929886E-1	6.532363E-1	6.961106E-1	6.608329E-1	6.948665E-1	6.950307E-1	7.443328E-1	6.849365E-1	7.318925E-1	6.652875E-1	7.219498E-1	6.899085E-1	6.643259E-1	6.993752E-1	7.053393E-1	7.060415E-1	6.883063E-1	6.992120E-1	7.046550E-1	6.827588E-1	6.716110E-1	6.963348E-1	6.973681E-1	7.273486E-1	6.810729E-1	6.762252E-1	6.726169E-1	6.902535E-1	7.153482E-1	6.731258E-1	7.056410E-1	6.925052E-1	7.109003E-1	6.937683E-1	6.496135E-1	6.756271E-1	6.918166E-1	6.754012E-1	6.964064E-1	6.748208E-1	7.279447E-1	6.626886E-1	7.056152E-1	6.829804E-1	7.328003E-1	6.990260E-1	7.303694E-1	6.962675E-1	6.839827E-1	7.004644E-1	6.851960E-1	6.957412E-1	6.905682E-1	7.128797E-1	6.815866E-1	7.138482E-1	6.921693E-1	6.660168E-1	7.091313E-1	7.219156E-1	6.902094E-1	6.889582E-1	6.809698E-1	7.010806E-1	7.015988E-1	7.017741E-1	6.860668E-1	6.927641E-1	7.038847E-1	6.573947E-1	7.108177E-1	6.815215E-1	6.898156E-1	6.858124E-1	7.020106E-1	7.115674E-1	7.077967E-1	7.054268E-1	6.872056E-1	7.065071E-1	7.080865E-1	6.884609E-1	6.826533E-1	6.765123E-1	6.791795E-1	6.951579E-1	6.834763E-1	7.144633E-1	6.888418E-1	6.691764E-1	6.766963E-1	7.101208E-1	6.880651E-1	7.074568E-1	7.453826E-1	6.769522E-1	7.210229E-1	7.839354E-1
5.365190E+2	5.626370E-1	5.574595E-1	5.291478E-1	5.392723E-1	5.434771E-1	5.336893E-1	5.574925E-1	5.398786E-1	5.474420E-1	5.695930E-1	5.296321E-1	5.308422E-1	5.534690E-1	5.243702E-1	5.297701E-1	5.814031E-1	5.679124E-1	5.448048E-1	5.647886E-1	5.734129E-1	5.656145E-1	5.452587E-1	5.286436E-1	5.382017E-1	5.385628E-1	5.678546E-1	5.152617E-1	5.936658E-1	5.558966E-1	5.813181E-1	5.868526E-1	5.410716E-1	5.544237E-1	5.636835E-1	5.510635E-1	5.467037E-1	5.423868E-1	5.315520E-1	5.426310E-1	5.620880E-1	5.255474E-1	5.498498E-1	5.675776E-1	5.483626E-1	5.493663E-1	5.645048E-1	5.299397E-1	5.270939E-1	5.565584E-1	5.295263E-1	5.746725E-1	5.668353E-1	5.397888E-1	5.406033E-1	5.559712E-1	5.684138E-1	5.586786E-1	5.494089E-1	5.361067E-1	5.228102E-1	5.450634E-1	5.519936E-1	5.466972E-1	5.577816E-1	5.383243E-1	5.507472E-1	5.655602E-1	5.362276E-1	5.300912E-1	5.393554E-1	5.366624E-1	5.186922E-1	5.468225E-1	5.658325E-1	5.435124E-1	5.821122E-1	5.296458E-1	5.766530E-1	5.771300E-1	5.619189E-1	5.247533E-1	5.671095E-1	5.509336E-1	5.427438E-1	5.556262E-1	5.447847E-1	5.668550E-1	5.128207E-1	5.483617E-1	5.753804E-1	5.275236E-1	5.478032E-1	5.362537E-1	5.619101E-1	5.629038E-1	5.883377E-1	5.758955E-1	5.914191E-1	5.554533E-1	5.380908E-1	5.394838E-1	5.260982E-1	5.745336E-1	5.860947E-1	5.534138E-1	5.588669E-1	5.449822E-1	5.261958E-1	5.649966E-1	5.696237E-1	5.277097E-1	5.276605E-1	5.759414E-1	5.666597E-1	5.568797E-1	5.208179E-1	6.203524E-1	5.486831E-1	5.442464E-1	5.600644E-1	5.829375E-1	5.859914E-1	5.835639E-1	5.623194E-1	5.604158E-1	5.459222E-1	5.363314E-1	5.671334E-1	5.441648E-1	5.591439E-1	5.520876E-1	5.373091E-1	5.757307E-1	5.695254E-1	5.602677E-1	5.541539E-1	5.569103E-1	5.745510E-1	5.428241E-1	5.482983E-1	5.678988E-1	5.523730E-1	5.551363E-1	5.529725E-1	5.802296E-1	5.577277E-1	5.515814E-1	5.623390E-1	5.415241E-1	5.218289E-1	5.457109E-1	5.691128E-1	5.870190E-1	5.553394E-1	5.639577E-1	5.502759E-1	5.197336E-1	5.290684E-1	5.590909E-1	5.686253E-1	5.809032E-1	5.507496E-1	5.348367E-1	5.691071E-1	5.164565E-1	5.394292E-1	5.795771E-1	5.409698E-1	5.783909E-1	6.070297E-1
5.367600E+2	4.933110E-1	5.002227E-1	4.960570E-1	4.990045E-1	4.812581E-1	5.034415E-1	4.782268E-1	4.888423E-1	4.468305E-1	4.982938E-1	4.687885E-1	4.896280E-1	5.004515E-1	4.663858E-1	4.834495E-1	4.993950E-1	5.061392E-1	5.172555E-1	4.924455E-1	4.881114E-1	4.633776E-1	4.856553E-1	4.655471E-1	4.792647E-1	5.138133E-1	4.793335E-1	4.980598E-1	4.900022E-1	4.941990E-1	4.857292E-1	4.989553E-1	4.865182E-1	5.022694E-1	4.943090E-1	4.776799E-1	4.719026E-1	4.847730E-1	4.857119E-1	5.017872E-1	4.990571E-1	5.004422E-1	5.001773E-1	4.906111E-1	4.703249E-1	4.797274E-1	4.690974E-1	4.879457E-1	4.783828E-1	5.057517E-1	4.854172E-1	4.756112E-1	4.738955E-1	4.862572E-1	4.806976E-1	4.925089E-1	4.943149E-1	4.815442E-1	4.707840E-1	4.787084E-1	4.758369E-1	4.608727E-1	4.738462E-1	4.969709E-1	4.913203E-1	4.874860E-1	4.956014E-1	4.817487E-1	4.984741E-1	4.964251E-1	4.751268E-1	5.096289E-1	4.729340E-1	4.955932E-1	4.834363E-1	4.733285E-1	5.328697E-1	4.711279E-1	4.707572E-1	5.122358E-1	4.913331E-1	4.931964E-1	4.794500E-1	4.872413E-1	4.944837E-1	4.783157E-1	4.977294E-1	4.844673E-1	4.881803E-1	4.866260E-1	5.043699E-1	5.011886E-1	5.199541E-1	4.978214E-1	4.919338E-1	5.131863E-1	4.821373E-1	4.579575E-1	5.005975E-1	5.049646E-1	4.877982E-1	4.965697E-1	4.691344E-1	4.798565E-1	4.781243E-1	4.854541E-1	4.731990E-1	4.563155E-1	5.137319E-1	4.835649E-1	5.059714E-1	4.943464E-1	4.982505E-1	4.839122E-1	5.012607E-1	4.593373E-1	4.863097E-1	4.971926E-1	4.488528E-1	4.792108E-1	4.862769E-1	5.136627E-1	4.652995E-1	4.875112E-1	4.811864E-1	4.879817E-1	4.940194E-1	4.996280E-1	4.805703E-1	4.965570E-1	4.691895E-1	4.905554E-1	5.006749E-1	4.953924E-1	4.828520E-1	4.531269E-1	4.724317E-1	4.754572E-1	4.878894E-1	4.795999E-1	5.039369E-1	5.097667E-1	5.079251E-1	5.026676E-1	4.765829E-1	4.788555E-1	4.991794E-1	5.032452E-1	4.890052E-1	5.205266E-1	4.966214E-1	5.034245E-1	4.923306E-1	5.151636E-1	4.944239E-1	5.065902E-1	5.023499E-1	4.679236E-1	5.138462E-1	5.112906E-1	5.356531E-1	5.008152E-1	4.932466E-1	4.882149E-1	5.219136E-1	4.965874E-1	4.846413E-1	5.083811E-1	5.106292E-1	4.918837E-1	5.084758E-1
5.370120E+2	4.537266E-1	4.458830E-1	4.462433E-1	4.476734E-1	4.808288E-1	4.727900E-1	4.683161E-1	4.713192E-1	4.519505E-1	5.091973E-1	4.476608E-1	4.684403E-1	4.668149E-1	4.840662E-1	4.941747E-1	4.426151E-1	4.691347E-1	4.481105E-1	4.709020E-1	4.632652E-1	4.936423E-1	4.658191E-1	4.731571E-1	4.645839E-1	5.231863E-1	4.880467E-1	4.806740E-1	4.967374E-1	4.419170E-1	4.745862E-1	4.718241E-1	4.998685E-1	4.824429E-1	4.355459E-1	4.441001E-1	5.064697E-1	4.670613E-1	4.811638E-1	4.450771E-1	5.127432E-1	4.597547E-1	4.981364E-1	4.713357E-1	4.858374E-1	4.609299E-1	4.778565E-1	4.707475E-1	4.558630E-1	5.000697E-1	4.565251E-1	4.622446E-1	4.700010E-1	4.732823E-1	4.816023E-1	4.571891E-1	4.661850E-1	4.857379E-1	4.902288E-1	4.734392E-1	4.651670E-1	4.887184E-1	4.643405E-1	4.919014E-1	4.622617E-1	4.755594E-1	4.734967E-1	4.543838E-1	4.796108E-1	4.785454E-1	4.891112E-1	4.456269E-1	4.739461E-1	5.140054E-1	5.153573E-1	4.853017E-1	4.755830E-1	4.729212E-1	4.790018E-1	4.913614E-1	4.740992E-1	4.701484E-1	4.633554E-1	4.889669E-1	4.761598E-1	4.743008E-1	4.758832E-1	4.687653E-1	4.859662E-1	4.666364E-1	5.124763E-1	4.837747E-1	4.712158E-1	4.755995E-1	4.536079E-1	4.834608E-1	4.778083E-1	4.723908E-1	4.753307E-1	4.650874E-1	4.660190E-1	4.464289E-1	4.879700E-1	4.431544E-1	4.781067E-1	5.182764E-1	4.909709E-1	4.683061E-1	4.752728E-1	4.775706E-1	4.283544E-1	5.026299E-1	4.621851E-1	4.431855E-1	4.845032E-1	4.434318E-1	4.540733E-1	4.765157E-1	4.705212E-1	4.751880E-1	5.022005E-1	4.545538E-1	5.008775E-1	4.728404E-1	4.802703E-1	5.190043E-1	4.993368E-1	4.658966E-1	4.744540E-1	4.769755E-1	4.949475E-1	4.672517E-1	4.686215E-1	5.045416E-1	4.839854E-1	4.830674E-1	4.679347E-1	5.131051E-1	4.990804E-1	4.723861E-1	4.796293E-1	4.821487E-1	4.537754E-1	4.722129E-1	4.897617E-1	4.701338E-1	5.074078E-1	5.103903E-1	4.634176E-1	4.901789E-1	4.684030E-1	4.714869E-1	4.880882E-1	5.076314E-1	4.762172E-1	4.580332E-1	4.910982E-1	4.670940E-1	4.825463E-1	4.893588E-1	4.886148E-1	4.826250E-1	4.578839E-1	4.451680E-1	4.998735E-1	4.973370E-1	4.840326E-1	4.727853E-1	4.570423E-1	5.116214E-1	4.884043E-1
5.372690E+2	4.780821E-1	4.906998E-1	5.079045E-1	5.035585E-1	4.742287E-1	4.934777E-1	4.902257E-1	4.906387E-1	5.148113E-1	4.981472E-1	4.990062E-1	4.979717E-1	5.094165E-1	5.185034E-1	5.113343E-1	5.017882E-1	4.987034E-1	5.271156E-1	5.167136E-1	5.081113E-1	5.052295E-1	4.918651E-1	4.515432E-1	5.104687E-1	5.023801E-1	4.984726E-1	5.371196E-1	5.143639E-1	4.967290E-1	5.539395E-1	5.070979E-1	5.257858E-1	5.076739E-1	5.146740E-1	5.256400E-1	4.926998E-1	4.693313E-1	5.054945E-1	5.122605E-1	5.048926E-1	4.904489E-1	4.875346E-1	5.312125E-1	4.845237E-1	4.983308E-1	5.145423E-1	5.329738E-1	4.827785E-1	4.954239E-1	5.105403E-1	4.951633E-1	4.782970E-1	5.201937E-1	4.991682E-1	4.930886E-1	5.043656E-1	5.132600E-1	4.835631E-1	4.839876E-1	5.297974E-1	5.163177E-1	5.185448E-1	5.072084E-1	5.237116E-1	5.088085E-1	5.373034E-1	4.990469E-1	5.102048E-1	4.940726E-1	5.228424E-1	5.011247E-1	4.990219E-1	5.061542E-1	5.016714E-1	4.986124E-1	5.197733E-1	5.003765E-1	4.975840E-1	4.948512E-1	5.121869E-1	4.865873E-1	4.969221E-1	4.741896E-1	5.172884E-1	4.972617E-1	4.926163E-1	4.767684E-1	5.101223E-1	5.144513E-1	5.078952E-1	4.978213E-1	5.076588E-1	4.864853E-1	4.995547E-1	5.107759E-1	4.964961E-1	5.158884E-1	4.975452E-1	4.974083E-1	5.280201E-1	5.114280E-1	5.119457E-1	5.127107E-1	5.319516E-1	4.736773E-1	5.067245E-1	5.039619E-1	4.927029E-1	5.044707E-1	4.687411E-1	5.233898E-1	5.066030E-1	5.174830E-1	5.269760E-1	5.181693E-1	5.072575E-1	5.084599E-1	5.276739E-1	5.052796E-1	5.281168E-1	4.990546E-1	5.007493E-1	5.192079E-1	4.984082E-1	5.437333E-1	5.077228E-1	5.038795E-1	5.013618E-1	5.182275E-1	5.115658E-1	4.930483E-1	5.179893E-1	5.129962E-1	5.241710E-1	5.237976E-1	5.218971E-1	4.920543E-1	5.328395E-1	5.209415E-1	5.140733E-1	5.400037E-1	5.197521E-1	5.185289E-1	4.944438E-1	5.073094E-1	5.162886E-1	5.453966E-1	5.177075E-1	5.135693E-1	5.041149E-1	4.941443E-1	5.285492E-1	5.235619E-1	5.010113E-1	4.914537E-1	5.392746E-1	5.273097E-1	5.062390E-1	4.895258E-1	5.201830E-1	4.867488E-1	5.025319E-1	4.825941E-1	5.181433E-1	5.280010E-1	5.026104E-1	5.011826E-1	5.336623E-1	5.704022E-1	5.291233E-1
5.375110E+2	5.632594E-1	5.561619E-1	5.645738E-1	5.262038E-1	5.495439E-1	5.827845E-1	5.715541E-1	5.745881E-1	5.604986E-1	5.763723E-1	5.527818E-1	5.911066E-1	5.767747E-1	5.649513E-1	5.635784E-1	5.602838E-1	5.449152E-1	5.452332E-1	5.508826E-1	5.474511E-1	5.750045E-1	5.782452E-1	5.545976E-1	5.622737E-1	6.536780E-1	5.567818E-1	5.831070E-1	5.755742E-1	6.026957E-1	6.029053E-1	5.819098E-1	5.951989E-1	6.009960E-1	5.749107E-1	5.983463E-1	5.654049E-1	5.812154E-1	5.711912E-1	5.728144E-1	5.513712E-1	5.428904E-1	5.356329E-1	5.341532E-1	5.510441E-1	5.528312E-1	5.791922E-1	5.766888E-1	5.499840E-1	5.844741E-1	5.578502E-1	5.887091E-1	5.923231E-1	5.477226E-1	5.718422E-1	5.668059E-1	5.880211E-1	6.014476E-1	5.900300E-1	5.591214E-1	5.676727E-1	5.756843E-1	5.704896E-1	5.328907E-1	5.774217E-1	5.711370E-1	5.559007E-1	5.716045E-1	5.708405E-1	5.773266E-1	5.595046E-1	5.781552E-1	6.010099E-1	5.752164E-1	5.626136E-1	5.844134E-1	6.127246E-1	5.708937E-1	5.567340E-1	5.742204E-1	5.990268E-1	5.904240E-1	5.403534E-1	5.925436E-1	5.637034E-1	5.398890E-1	6.091487E-1	5.758378E-1	5.622786E-1	5.926197E-1	5.777596E-1	5.772264E-1	5.509980E-1	5.589922E-1	5.521900E-1	5.767604E-1	5.852605E-1	5.728934E-1	5.696194E-1	6.001048E-1	5.463958E-1	5.800762E-1	5.855487E-1	5.857471E-1	5.410056E-1	5.712942E-1	5.800047E-1	5.616874E-1	5.878952E-1	5.524529E-1	5.538448E-1	5.691324E-1	5.933424E-1	5.913592E-1	5.455270E-1	5.478170E-1	5.967230E-1	6.042136E-1	5.589067E-1	5.636495E-1	6.071715E-1	6.013729E-1	6.058193E-1	5.360866E-1	6.072586E-1	5.685074E-1	5.860866E-1	5.715058E-1	5.744394E-1	5.866214E-1	5.863077E-1	5.757559E-1	5.941778E-1	5.495117E-1	5.669456E-1	5.906469E-1	5.902450E-1	6.018287E-1	5.845037E-1	5.426466E-1	5.591524E-1	5.687219E-1	5.711102E-1	5.701080E-1	5.741049E-1	5.748659E-1	5.994306E-1	5.559284E-1	5.781646E-1	5.845332E-1	5.750054E-1	5.766638E-1	5.923764E-1	5.849198E-1	5.718693E-1	5.846178E-1	5.703058E-1	5.516514E-1	6.016646E-1	5.626111E-1	5.749043E-1	5.681800E-1	5.987318E-1	5.831952E-1	5.754488E-1	5.652505E-1	5.826749E-1	5.787310E-1	6.116647E-1	6.376509E-1	6.401723E-1
5.377630E+2	6.247928E-1	6.654221E-1	6.750136E-1	6.483836E-1	6.516754E-1	6.727707E-1	6.744321E-1	6.636242E-1	6.274584E-1	6.482776E-1	6.382813E-1	7.048229E-1	6.639769E-1	6.655078E-1	6.664459E-1	6.892264E-1	6.554230E-1	7.061191E-1	6.670694E-1	6.543946E-1	6.446869E-1	6.516847E-1	6.642895E-1	6.683746E-1	7.421492E-1	6.951248E-1	7.315138E-1	6.744945E-1	6.712805E-1	6.507411E-1	6.637818E-1	6.544179E-1	7.094098E-1	6.829196E-1	6.621594E-1	6.891974E-1	6.876485E-1	7.001949E-1	6.472651E-1	6.656787E-1	6.473357E-1	6.729383E-1	6.829338E-1	6.555945E-1	6.478042E-1	6.941287E-1	6.854769E-1	6.988196E-1	6.574107E-1	6.506349E-1	6.614941E-1	6.585393E-1	7.007246E-1	6.533065E-1	6.797203E-1	6.459263E-1	7.205384E-1	6.960606E-1	6.719254E-1	6.682797E-1	6.441047E-1	6.853424E-1	6.993722E-1	6.710820E-1	6.194784E-1	6.863304E-1	6.897281E-1	6.446724E-1	6.305477E-1	6.670035E-1	6.684440E-1	6.754999E-1	6.342466E-1	6.828289E-1	6.848481E-1	6.733508E-1	6.540027E-1	6.776438E-1	7.123956E-1	6.828187E-1	6.714077E-1	6.554952E-1	6.628252E-1	6.818651E-1	6.403538E-1	6.741686E-1	6.240941E-1	6.338957E-1	6.775156E-1	6.688702E-1	6.672818E-1	6.692483E-1	6.452060E-1	6.801312E-1	6.512221E-1	6.471688E-1	6.641514E-1	6.579206E-1	6.321086E-1	6.774231E-1	6.690372E-1	6.827498E-1	6.504915E-1	6.929908E-1	6.604589E-1	6.418364E-1	7.089294E-1	6.555583E-1	6.800306E-1	6.708397E-1	6.883715E-1	6.730773E-1	6.821398E-1	6.832156E-1	6.645107E-1	6.698326E-1	6.782754E-1	6.836347E-1	6.575756E-1	7.185167E-1	6.975263E-1	6.642175E-1	6.684317E-1	6.625781E-1	6.701191E-1	6.696114E-1	6.994203E-1	6.730803E-1	6.733565E-1	6.836479E-1	6.766666E-1	6.824249E-1	6.566112E-1	6.485377E-1	7.156149E-1	6.614791E-1	6.792633E-1	6.726761E-1	6.980856E-1	6.175397E-1	6.720758E-1	6.649903E-1	6.725580E-1	6.599873E-1	6.843256E-1	6.873788E-1	6.594124E-1	6.669316E-1	6.632930E-1	6.712010E-1	6.522991E-1	6.759297E-1	6.359390E-1	6.465155E-1	6.592456E-1	6.629842E-1	6.638044E-1	6.880207E-1	6.483863E-1	6.604099E-1	6.882346E-1	6.515779E-1	6.436293E-1	6.374966E-1	6.793921E-1	6.328998E-1	6.582631E-1	7.088871E-1	6.835082E-1	7.777529E-1
5.380110E+2	8.139039E-1	7.802757E-1	8.123480E-1	7.819114E-1	7.708811E-1	7.906450E-1	7.710410E-1	7.643735E-1	7.891269E-1	8.044390E-1	7.642101E-1	8.160960E-1	7.762941E-1	8.148307E-1	8.229048E-1	7.753022E-1	8.074581E-1	8.368718E-1	7.821573E-1	7.980822E-1	8.239850E-1	8.173570E-1	8.065078E-1	8.025151E-1	8.637620E-1	8.479424E-1	8.337490E-1	8.082665E-1	8.080811E-1	7.856344E-1	8.022898E-1	8.327231E-1	8.521886E-1	8.349730E-1	7.919429E-1	8.346388E-1	8.562692E-1	7.938824E-1	8.254418E-1	8.268431E-1	8.094369E-1	8.137315E-1	8.444012E-1	7.919399E-1	8.034865E-1	8.008271E-1	8.317839E-1	8.278278E-1	8.159537E-1	8.329818E-1	7.895899E-1	8.143777E-1	7.955953E-1	8.021815E-1	8.129452E-1	7.896380E-1	8.091161E-1	8.038513E-1	8.116569E-1	7.929377E-1	8.194745E-1	8.253632E-1	7.891100E-1	8.329903E-1	8.355259E-1	8.329615E-1	8.249075E-1	7.919938E-1	7.975369E-1	8.081912E-1	8.144686E-1	8.022594E-1	7.843738E-1	8.155050E-1	8.041137E-1	8.384786E-1	7.917669E-1	7.443871E-1	8.397627E-1	7.889433E-1	8.117704E-1	8.251541E-1	8.101906E-1	7.783152E-1	7.807994E-1	8.291889E-1	7.727503E-1	8.319092E-1	8.115192E-1	8.259631E-1	8.088117E-1	8.129510E-1	8.329346E-1	7.718332E-1	7.884527E-1	7.939486E-1	8.161247E-1	7.965968E-1	7.925779E-1	7.885693E-1	7.810590E-1	8.360805E-1	7.881311E-1	7.829183E-1	7.938280E-1	7.967317E-1	7.910618E-1	8.322725E-1	8.173263E-1	7.966937E-1	8.176067E-1	8.279585E-1	8.147666E-1	8.084282E-1	7.832296E-1	8.217031E-1	8.153456E-1	8.236311E-1	8.247302E-1	8.312436E-1	8.398357E-1	8.272362E-1	7.992511E-1	7.649835E-1	8.297797E-1	7.904149E-1	7.995443E-1	8.359927E-1	8.190502E-1	7.852036E-1	7.829301E-1	8.248644E-1	8.522916E-1	8.822087E-1	8.146587E-1	8.216613E-1	8.317426E-1	8.117282E-1	8.249839E-1	8.295820E-1	8.536022E-1	8.034199E-1	7.976863E-1	7.867455E-1	7.664707E-1	8.087369E-1	7.959467E-1	8.058918E-1	7.879154E-1	7.728862E-1	7.893267E-1	8.520799E-1	7.976530E-1	8.592926E-1	7.890531E-1	8.452872E-1	8.035889E-1	8.071522E-1	8.179897E-1	8.450560E-1	8.009496E-1	8.050169E-1	7.720285E-1	7.618046E-1	7.864625E-1	8.145695E-1	8.152979E-1	8.037437E-1	8.468341E-1	8.251503E-1
5.382790E+2	9.310363E-1	9.438704E-1	9.895465E-1	9.617089E-1	9.476410E-1	9.247664E-1	9.056573E-1	9.636566E-1	1.018861E+0	9.901506E-1	9.894791E-1	1.008425E+0	9.992892E-1	9.373027E-1	9.786500E-1	9.672447E-1	9.620365E-1	9.681048E-1	9.592079E-1	9.782014E-1	9.904452E-1	1.001552E+0	9.771696E-1	9.957538E-1	1.080779E+0	9.896514E-1	9.827971E-1	1.002574E+0	1.031064E+0	1.015552E+0	1.066946E+0	1.024315E+0	9.946570E-1	1.020705E+0	9.551526E-1	9.492619E-1	9.752473E-1	9.939514E-1	1.002857E+0	9.730002E-1	9.925109E-1	9.664667E-1	9.703737E-1	1.009817E+0	9.728389E-1	1.019345E+0	1.006471E+0	9.822304E-1	9.956903E-1	9.784014E-1	1.020831E+0	9.614105E-1	1.011810E+0	9.755899E-1	1.017127E+0	9.719704E-1	1.051628E+0	9.793276E-1	9.755892E-1	9.962056E-1	9.909528E-1	1.002251E+0	1.040600E+0	1.019956E+0	9.663822E-1	9.714487E-1	9.735411E-1	9.520701E-1	9.756302E-1	9.524449E-1	9.773985E-1	9.819291E-1	1.021079E+0	9.965999E-1	9.412370E-1	1.014263E+0	9.890612E-1	9.483485E-1	1.014855E+0	9.642574E-1	1.002447E+0	9.680568E-1	9.444118E-1	9.743800E-1	9.592053E-1	1.030920E+0	9.599158E-1	9.792215E-1	9.590691E-1	1.013842E+0	1.027523E+0	9.694678E-1	9.770423E-1	9.745377E-1	9.660477E-1	9.683621E-1	1.024498E+0	9.774662E-1	9.491505E-1	9.548261E-1	1.023050E+0	9.826669E-1	9.692901E-1	1.002218E+0	1.004419E+0	9.721041E-1	9.728392E-1	9.892583E-1	9.993150E-1	9.819139E-1	1.039945E+0	1.004045E+0	9.701958E-1	9.914844E-1	9.150859E-1	9.389469E-1	9.608859E-1	9.609214E-1	9.865174E-1	9.613438E-1	9.948476E-1	1.007749E+0	1.002995E+0	1.040446E+0	9.234532E-1	9.903510E-1	1.005133E+0	1.016073E+0	9.798643E-1	1.015772E+0	9.704496E-1	1.028072E+0	9.562344E-1	9.990314E-1	1.009989E+0	1.028467E+0	1.009807E+0	1.029637E+0	9.808868E-1	9.487031E-1	9.858011E-1	1.018651E+0	9.287567E-1	1.014297E+0	9.991676E-1	9.942348E-1	1.006480E+0	9.543272E-1	9.774388E-1	9.579717E-1	9.883313E-1	1.006546E+0	9.743720E-1	9.517351E-1	9.995544E-1	9.621380E-1	9.460459E-1	9.812341E-1	9.840891E-1	9.769890E-1	1.000058E+0	9.927393E-1	9.766456E-1	9.309922E-1	9.857955E-1	9.692527E-1	9.872130E-1	9.984636E-1	1.023998E+0	1.030557E+0
5.385170E+2	1.138545E+0	1.209496E+0	1.245521E+0	1.214599E+0	1.202154E+0	1.180782E+0	1.223111E+0	1.173690E+0	1.227949E+0	1.239701E+0	1.242363E+0	1.200455E+0	1.237603E+0	1.196809E+0	1.193006E+0	1.195311E+0	1.241143E+0	1.190269E+0	1.197589E+0	1.206403E+0	1.244330E+0	1.206538E+0	1.206681E+0	1.196619E+0	1.313831E+0	1.244538E+0	1.256414E+0	1.223574E+0	1.260830E+0	1.186656E+0	1.215645E+0	1.254937E+0	1.244235E+0	1.293682E+0	1.247056E+0	1.232255E+0	1.303688E+0	1.243265E+0	1.197920E+0	1.230758E+0	1.262042E+0	1.244256E+0	1.232044E+0	1.186431E+0	1.231315E+0	1.227024E+0	1.217658E+0	1.206913E+0	1.258084E+0	1.249613E+0	1.224633E+0	1.249188E+0	1.259866E+0	1.207502E+0	1.214276E+0	1.197806E+0	1.258299E+0	1.255328E+0	1.187187E+0	1.199349E+0	1.233833E+0	1.178972E+0	1.235773E+0	1.225694E+0	1.226992E+0	1.242508E+0	1.223910E+0	1.176297E+0	1.190576E+0	1.218472E+0	1.188386E+0	1.232749E+0	1.238693E+0	1.204148E+0	1.198162E+0	1.204673E+0	1.250348E+0	1.184401E+0	1.224804E+0	1.225611E+0	1.194636E+0	1.215013E+0	1.184526E+0	1.179470E+0	1.199386E+0	1.220975E+0	1.189476E+0	1.209701E+0	1.244599E+0	1.246739E+0	1.194192E+0	1.236655E+0	1.227686E+0	1.216347E+0	1.242664E+0	1.156947E+0	1.244930E+0	1.196443E+0	1.201146E+0	1.172021E+0	1.234870E+0	1.235066E+0	1.208441E+0	1.189052E+0	1.199270E+0	1.194469E+0	1.186985E+0	1.209070E+0	1.216895E+0	1.218875E+0	1.260226E+0	1.257044E+0	1.196385E+0	1.207266E+0	1.246120E+0	1.128262E+0	1.264508E+0	1.223609E+0	1.161473E+0	1.208747E+0	1.262266E+0	1.204741E+0	1.230160E+0	1.140628E+0	1.241204E+0	1.254536E+0	1.243606E+0	1.227022E+0	1.215149E+0	1.265269E+0	1.149274E+0	1.211621E+0	1.222840E+0	1.242238E+0	1.240712E+0	1.185259E+0	1.218620E+0	1.205760E+0	1.209294E+0	1.199939E+0	1.266899E+0	1.221980E+0	1.196276E+0	1.192101E+0	1.236493E+0	1.233876E+0	1.159991E+0	1.220376E+0	1.232543E+0	1.173068E+0	1.191410E+0	1.205983E+0	1.220857E+0	1.211625E+0	1.223441E+0	1.205592E+0	1.170924E+0	1.242689E+0	1.147826E+0	1.231276E+0	1.220596E+0	1.217447E+0	1.193220E+0	1.193078E+0	1.234510E+0	1.193166E+0	1.243341E+0	1.270820E+0	1.270288E+0	1.171681E+0
5.387650E+2	1.429574E+0	1.412369E+0	1.423123E+0	1.407517E+0	1.412375E+0	1.452987E+0	1.313302E+0	1.441415E+0	1.428491E+0	1.443977E+0	1.438687E+0	1.496977E+0	1.517820E+0	1.414549E+0	1.415208E+0	1.420759E+0	1.473226E+0	1.462298E+0	1.416147E+0	1.411059E+0	1.448741E+0	1.442039E+0	1.409690E+0	1.440078E+0	1.524046E+0	1.469010E+0	1.491489E+0	1.463977E+0	1.451830E+0	1.447810E+0	1.480862E+0	1.481304E+0	1.451569E+0	1.475561E+0	1.448992E+0	1.479284E+0	1.446241E+0	1.473420E+0	1.436521E+0	1.398669E+0	1.446825E+0	1.388589E+0	1.427172E+0	1.409127E+0	1.470351E+0	1.458008E+0	1.428024E+0	1.448383E+0	1.432299E+0	1.457162E+0	1.393175E+0	1.431496E+0	1.431014E+0	1.426870E+0	1.450310E+0	1.383350E+0	1.473459E+0	1.400266E+0	1.445398E+0	1.420460E+0	1.408401E+0	1.459014E+0	1.469791E+0	1.418787E+0	1.417974E+0	1.470431E+0	1.444557E+0	1.355775E+0	1.397133E+0	1.385149E+0	1.384262E+0	1.430435E+0	1.418026E+0	1.433280E+0	1.424109E+0	1.426257E+0	1.420467E+0	1.369405E+0	1.417238E+0	1.402104E+0	1.437072E+0	1.340774E+0	1.459565E+0	1.424810E+0	1.363815E+0	1.428920E+0	1.379048E+0	1.313631E+0	1.427074E+0	1.503701E+0	1.447398E+0	1.412061E+0	1.423788E+0	1.411770E+0	1.463236E+0	1.390714E+0	1.384644E+0	1.457712E+0	1.380723E+0	1.404205E+0	1.449062E+0	1.451346E+0	1.388062E+0	1.419746E+0	1.468318E+0	1.397149E+0	1.406260E+0	1.396974E+0	1.429914E+0	1.451371E+0	1.452807E+0	1.417988E+0	1.427652E+0	1.422080E+0	1.414960E+0	1.425872E+0	1.408275E+0	1.393298E+0	1.437363E+0	1.424313E+0	1.412450E+0	1.470399E+0	1.401295E+0	1.419077E+0	1.394965E+0	1.445034E+0	1.376120E+0	1.443972E+0	1.447061E+0	1.429582E+0	1.316705E+0	1.428398E+0	1.408763E+0	1.447023E+0	1.399319E+0	1.368455E+0	1.459890E+0	1.419132E+0	1.423701E+0	1.368749E+0	1.413479E+0	1.449724E+0	1.475780E+0	1.410276E+0	1.378873E+0	1.421193E+0	1.370339E+0	1.385011E+0	1.414946E+0	1.381344E+0	1.355395E+0	1.391012E+0	1.432675E+0	1.464584E+0	1.425275E+0	1.418514E+0	1.374661E+0	1.432635E+0	1.408973E+0	1.402808E+0	1.474304E+0	1.423335E+0	1.395606E+0	1.413940E+0	1.399139E+0	1.386485E+0	1.435030E+0	1.407570E+0	1.468645E+0	1.331975E+0
5.390290E+2	1.725279E+0	1.621865E+0	1.678921E+0	1.662549E+0	1.683615E+0	1.687694E+0	1.587915E+0	1.663040E+0	1.656005E+0	1.682975E+0	1.646703E+0	1.687743E+0	1.672531E+0	1.629092E+0	1.674706E+0	1.637055E+0	1.681771E+0	1.706706E+0	1.674652E+0	1.672142E+0	1.686152E+0	1.640434E+0	1.659969E+0	1.677196E+0	1.755215E+0	1.651460E+0	1.795577E+0	1.656781E+0	1.652658E+0	1.676367E+0	1.655613E+0	1.704995E+0	1.709103E+0	1.735430E+0	1.667092E+0	1.664574E+0	1.653429E+0	1.655505E+0	1.605584E+0	1.636765E+0	1.649769E+0	1.661020E+0	1.599354E+0	1.615620E+0	1.636003E+0	1.623710E+0	1.640779E+0	1.619922E+0	1.649891E+0	1.602723E+0	1.627146E+0	1.665861E+0	1.712529E+0	1.589345E+0	1.639702E+0	1.664352E+0	1.665170E+0	1.707252E+0	1.642801E+0	1.646956E+0	1.661469E+0	1.675587E+0	1.665191E+0	1.618033E+0	1.679075E+0	1.694490E+0	1.722387E+0	1.667424E+0	1.622617E+0	1.610259E+0	1.663394E+0	1.624924E+0	1.675990E+0	1.608771E+0	1.597198E+0	1.637568E+0	1.669385E+0	1.658360E+0	1.689381E+0	1.627528E+0	1.693797E+0	1.619696E+0	1.708923E+0	1.541746E+0	1.699718E+0	1.694089E+0	1.654612E+0	1.603080E+0	1.627319E+0	1.629863E+0	1.630036E+0	1.640970E+0	1.641064E+0	1.642524E+0	1.631325E+0	1.644647E+0	1.617498E+0	1.642489E+0	1.632092E+0	1.622114E+0	1.669134E+0	1.651625E+0	1.655068E+0	1.656434E+0	1.602897E+0	1.619257E+0	1.602210E+0	1.552461E+0	1.699439E+0	1.629133E+0	1.706298E+0	1.633370E+0	1.640328E+0	1.694484E+0	1.640538E+0	1.607593E+0	1.673465E+0	1.658033E+0	1.618192E+0	1.600560E+0	1.711490E+0	1.664682E+0	1.635356E+0	1.560491E+0	1.632201E+0	1.672918E+0	1.575585E+0	1.661193E+0	1.657121E+0	1.633486E+0	1.618414E+0	1.645647E+0	1.615502E+0	1.631341E+0	1.632738E+0	1.605905E+0	1.646430E+0	1.652392E+0	1.562689E+0	1.661625E+0	1.664188E+0	1.644773E+0	1.616930E+0	1.669307E+0	1.648195E+0	1.698498E+0	1.659407E+0	1.635164E+0	1.655005E+0	1.628523E+0	1.634487E+0	1.605723E+0	1.625706E+0	1.603536E+0	1.626830E+0	1.657888E+0	1.617422E+0	1.585104E+0	1.567054E+0	1.637013E+0	1.661535E+0	1.624426E+0	1.577946E+0	1.566144E+0	1.611504E+0	1.622990E+0	1.634454E+0	1.655969E+0	1.733637E+0	1.520076E+0
5.392880E+2	1.882724E+0	1.850774E+0	1.912041E+0	1.856450E+0	1.874977E+0	1.843406E+0	1.895408E+0	1.852181E+0	1.841424E+0	1.884104E+0	1.835525E+0	1.894237E+0	1.835706E+0	1.852414E+0	1.806686E+0	1.924278E+0	1.846507E+0	1.849960E+0	1.814777E+0	1.841014E+0	1.932560E+0	1.877722E+0	1.830986E+0	1.845290E+0	1.832142E+0	1.920420E+0	1.851075E+0	1.814530E+0	1.861843E+0	1.894102E+0	1.836600E+0	1.902766E+0	1.881140E+0	1.860066E+0	1.827249E+0	1.825843E+0	1.865064E+0	1.845500E+0	1.875956E+0	1.862677E+0	1.881510E+0	1.874737E+0	1.798496E+0	1.846542E+0	1.872729E+0	1.873223E+0	1.864592E+0	1.853280E+0	1.898847E+0	1.868316E+0	1.773487E+0	1.858403E+0	1.836759E+0	1.787998E+0	1.789801E+0	1.807451E+0	1.888974E+0	1.832033E+0	1.888174E+0	1.856997E+0	1.792427E+0	1.844313E+0	1.904530E+0	1.848231E+0	1.821129E+0	1.841275E+0	1.844894E+0	1.813494E+0	1.885693E+0	1.856404E+0	1.845110E+0	1.800778E+0	1.834295E+0	1.848844E+0	1.883087E+0	1.856713E+0	1.829019E+0	1.837631E+0	1.858709E+0	1.797748E+0	1.836235E+0	1.871347E+0	1.852797E+0	1.779081E+0	1.800709E+0	1.767550E+0	1.833076E+0	1.804891E+0	1.832451E+0	1.862288E+0	1.781924E+0	1.892028E+0	1.811362E+0	1.788640E+0	1.849592E+0	1.839277E+0	1.847270E+0	1.862795E+0	1.761931E+0	1.737332E+0	1.879603E+0	1.866012E+0	1.745810E+0	1.800787E+0	1.868825E+0	1.837743E+0	1.772434E+0	1.816371E+0	1.921443E+0	1.772664E+0	1.879049E+0	1.830043E+0	1.831233E+0	1.779651E+0	1.770283E+0	1.775630E+0	1.799432E+0	1.832744E+0	1.850579E+0	1.827261E+0	1.828195E+0	1.875128E+0	1.794890E+0	1.766617E+0	1.781834E+0	1.830172E+0	1.784013E+0	1.741199E+0	1.787640E+0	1.824202E+0	1.820371E+0	1.838723E+0	1.782437E+0	1.829933E+0	1.800912E+0	1.807207E+0	1.862459E+0	1.891336E+0	1.799243E+0	1.771573E+0	1.801707E+0	1.834007E+0	1.710740E+0	1.776317E+0	1.814983E+0	1.813676E+0	1.772828E+0	1.762842E+0	1.760165E+0	1.818926E+0	1.782155E+0	1.804853E+0	1.838363E+0	1.791499E+0	1.752035E+0	1.749482E+0	1.849040E+0	1.800242E+0	1.772991E+0	1.779327E+0	1.780822E+0	1.789999E+0	1.742610E+0	1.814570E+0	1.822280E+0	1.765166E+0	1.805830E+0	1.795305E+0	1.811658E+0	1.755684E+0
5.395100E+2	1.978351E+0	2.002122E+0	2.090481E+0	1.952216E+0	2.007978E+0	1.985250E+0	1.966914E+0	1.976430E+0	1.995502E+0	2.044395E+0	1.963317E+0	2.026423E+0	1.931444E+0	1.994797E+0	2.019316E+0	1.955280E+0	2.037441E+0	1.954567E+0	2.004857E+0	1.959799E+0	2.017558E+0	2.029644E+0	1.938044E+0	1.963224E+0	2.029702E+0	1.971025E+0	1.987349E+0	1.948181E+0	2.012175E+0	2.019406E+0	1.960535E+0	2.039193E+0	1.983002E+0	1.994437E+0	1.896961E+0	2.035815E+0	1.984186E+0	1.934287E+0	1.919290E+0	1.932544E+0	2.006604E+0	2.000261E+0	1.933502E+0	1.937442E+0	1.992614E+0	2.009852E+0	2.022825E+0	1.989535E+0	1.964077E+0	1.903856E+0	1.902656E+0	1.950451E+0	1.980485E+0	1.973179E+0	1.932350E+0	1.933883E+0	2.024236E+0	2.025554E+0	1.999351E+0	1.877799E+0	1.918833E+0	2.003141E+0	1.955255E+0	1.925221E+0	2.004630E+0	2.040156E+0	1.909428E+0	1.929223E+0	1.956589E+0	1.955577E+0	1.924640E+0	1.953231E+0	1.928517E+0	1.970882E+0	1.953299E+0	1.964033E+0	1.951559E+0	1.976150E+0	2.005246E+0	2.006857E+0	1.952006E+0	1.907957E+0	1.903246E+0	1.954320E+0	1.954738E+0	1.970338E+0	1.926912E+0	1.973872E+0	1.990349E+0	2.005398E+0	1.940133E+0	1.963132E+0	1.973582E+0	1.923158E+0	2.016444E+0	1.905885E+0	1.952417E+0	1.990399E+0	1.900714E+0	1.898511E+0	1.937908E+0	1.984393E+0	1.922112E+0	1.915689E+0	1.971251E+0	2.000755E+0	1.953625E+0	1.925946E+0	1.974098E+0	1.924811E+0	1.933383E+0	1.950946E+0	1.969740E+0	1.999393E+0	1.883779E+0	1.876281E+0	1.959225E+0	1.951086E+0	1.949098E+0	1.939236E+0	1.961587E+0	1.976636E+0	1.965288E+0	1.916552E+0	1.920717E+0	1.963567E+0	1.892209E+0	1.937455E+0	1.987898E+0	1.967106E+0	1.959905E+0	1.962781E+0	1.936846E+0	1.955344E+0	2.021089E+0	1.961974E+0	1.961658E+0	1.920233E+0	1.859700E+0	1.934376E+0	1.970693E+0	1.967159E+0	1.984035E+0	1.908467E+0	1.957210E+0	1.976198E+0	1.884428E+0	1.929148E+0	1.893474E+0	1.949883E+0	1.924430E+0	1.937369E+0	1.896059E+0	1.963608E+0	1.869522E+0	1.952734E+0	1.888808E+0	2.020919E+0	1.915106E+0	1.942849E+0	1.878196E+0	1.940561E+0	1.895904E+0	1.838651E+0	1.956251E+0	1.847462E+0	1.947141E+0	1.900414E+0	1.938347E+0	1.924508E+0
5.397810E+2	2.120743E+0	2.052661E+0	2.130059E+0	1.994650E+0	2.056079E+0	2.067467E+0	1.969340E+0	2.015655E+0	2.033669E+0	2.072621E+0	1.959958E+0	2.036650E+0	2.014999E+0	2.046398E+0	2.012074E+0	2.025874E+0	2.049252E+0	2.043980E+0	2.028960E+0	2.051145E+0	2.067679E+0	2.082491E+0	1.979720E+0	2.016689E+0	2.092589E+0	1.937590E+0	2.019597E+0	2.001255E+0	1.948846E+0	1.996667E+0	2.070460E+0	2.084139E+0	2.025795E+0	2.032539E+0	2.024935E+0	2.013017E+0	2.056945E+0	2.055326E+0	1.986190E+0	1.996533E+0	2.001705E+0	2.020974E+0	1.935572E+0	2.040791E+0	1.969154E+0	2.008438E+0	2.039987E+0	2.040262E+0	2.066448E+0	1.977021E+0	1.989247E+0	2.016861E+0	2.037024E+0	1.967230E+0	1.984279E+0	1.949480E+0	2.013490E+0	2.040139E+0	1.940544E+0	1.981132E+0	2.022911E+0	2.042871E+0	2.004650E+0	2.019212E+0	1.936921E+0	2.098197E+0	2.035053E+0	1.976949E+0	2.027694E+0	2.003523E+0	2.015998E+0	1.966170E+0	2.037376E+0	1.960102E+0	2.006353E+0	2.043620E+0	2.008690E+0	1.961114E+0	2.019298E+0	2.022272E+0	2.041584E+0	2.025106E+0	1.945272E+0	2.002649E+0	1.979969E+0	2.041612E+0	2.037105E+0	1.927603E+0	2.006109E+0	2.009884E+0	1.966478E+0	1.954785E+0	2.004872E+0	1.997134E+0	2.026929E+0	2.004143E+0	1.949575E+0	2.009781E+0	1.925663E+0	1.914482E+0	2.047007E+0	2.017828E+0	1.946057E+0	1.991514E+0	1.982917E+0	2.026764E+0	2.031028E+0	1.894240E+0	2.081173E+0	1.981086E+0	1.979745E+0	1.995424E+0	2.021503E+0	2.006601E+0	1.982719E+0	1.965469E+0	1.990377E+0	2.014140E+0	1.914514E+0	1.992245E+0	2.023575E+0	1.990558E+0	1.949555E+0	1.934060E+0	2.000240E+0	1.984422E+0	1.978275E+0	2.002331E+0	2.002519E+0	1.978303E+0	1.939124E+0	2.004268E+0	1.969473E+0	2.044564E+0	2.014160E+0	1.968343E+0	1.959899E+0	1.976775E+0	1.945832E+0	1.975779E+0	1.964305E+0	2.029865E+0	1.969510E+0	1.922155E+0	1.959252E+0	2.050256E+0	1.937112E+0	1.957947E+0	1.978813E+0	1.944007E+0	1.953119E+0	1.975089E+0	1.956393E+0	1.995394E+0	1.983866E+0	1.966585E+0	1.935129E+0	1.990195E+0	1.975310E+0	1.998611E+0	1.994965E+0	1.956954E+0	1.946955E+0	1.930876E+0	1.996859E+0	1.928866E+0	1.978087E+0	1.967741E+0	1.980873E+0	2.032043E+0
5.400350E+2	2.010278E+0	2.026833E+0	2.020752E+0	1.931107E+0	1.946345E+0	1.943219E+0	1.931589E+0	1.980945E+0	1.906222E+0	2.088605E+0	1.919516E+0	1.987308E+0	1.902990E+0	1.950738E+0	1.966011E+0	1.933989E+0	1.987288E+0	1.926231E+0	1.966275E+0	1.913972E+0	1.970386E+0	1.980195E+0	1.985763E+0	1.962199E+0	2.000460E+0	1.951067E+0	1.957873E+0	1.955586E+0	1.950867E+0	1.984739E+0	1.909684E+0	1.942659E+0	1.898167E+0	2.025511E+0	1.949018E+0	1.962695E+0	1.999480E+0	1.956467E+0	1.853501E+0	1.956996E+0	1.990526E+0	2.006188E+0	1.899515E+0	1.963513E+0	1.932832E+0	1.909660E+0	1.959596E+0	1.913220E+0	1.969196E+0	1.906049E+0	1.938397E+0	1.904263E+0	1.974127E+0	1.957762E+0	1.865861E+0	1.894191E+0	2.007570E+0	2.000116E+0	1.888363E+0	1.982348E+0	1.957218E+0	1.942574E+0	1.948658E+0	1.882125E+0	1.832156E+0	1.927450E+0	1.870774E+0	1.954900E+0	1.917942E+0	1.929005E+0	1.966898E+0	1.942446E+0	1.957921E+0	1.940052E+0	1.954828E+0	1.878913E+0	1.889557E+0	1.946774E+0	1.934539E+0	1.945940E+0	1.983386E+0	1.954491E+0	1.939609E+0	1.967378E+0	1.918669E+0	1.935520E+0	1.934239E+0	1.905046E+0	1.928163E+0	2.008866E+0	1.900478E+0	1.864152E+0	1.910994E+0	1.952947E+0	1.957790E+0	1.938195E+0	1.920668E+0	1.963752E+0	1.898518E+0	1.844665E+0	1.973193E+0	1.920598E+0	1.889667E+0	1.927879E+0	1.875883E+0	1.978107E+0	1.891857E+0	1.850338E+0	1.925141E+0	1.937298E+0	1.979878E+0	1.890706E+0	1.928398E+0	1.930173E+0	1.866324E+0	1.913667E+0	1.866033E+0	1.937098E+0	1.904227E+0	1.925750E+0	1.990429E+0	2.003498E+0	1.900970E+0	1.915587E+0	1.946560E+0	1.977389E+0	1.929045E+0	1.937987E+0	1.937967E+0	1.874389E+0	1.833084E+0	1.898960E+0	1.919207E+0	1.934989E+0	1.910891E+0	1.908303E+0	2.003896E+0	1.907182E+0	1.936527E+0	1.846418E+0	1.981208E+0	1.937413E+0	1.934661E+0	1.903708E+0	1.883821E+0	1.845664E+0	1.835476E+0	1.840295E+0	1.896613E+0	1.844460E+0	1.813047E+0	1.909191E+0	1.837151E+0	1.906840E+0	1.898635E+0	1.887706E+0	1.889128E+0	1.860465E+0	1.923450E+0	1.921449E+0	1.955808E+0	1.804807E+0	1.849746E+0	1.864010E+0	1.903980E+0	1.859892E+0	1.837265E+0	1.911104E+0	1.996304E+0	1.812641E+0
5.402950E+2	1.908355E+0	1.910908E+0	1.874773E+0	1.910516E+0	1.873707E+0	1.829773E+0	1.805745E+0	1.865609E+0	1.883125E+0	1.923938E+0	1.816591E+0	1.875467E+0	1.871346E+0	1.858906E+0	1.897543E+0	1.832825E+0	1.839483E+0	1.900599E+0	1.917850E+0	1.866273E+0	1.934555E+0	1.911558E+0	1.874126E+0	1.901234E+0	1.938122E+0	1.819535E+0	1.872114E+0	1.848717E+0	1.841745E+0	1.841364E+0	1.911929E+0	1.966696E+0	1.907756E+0	1.898014E+0	1.789869E+0	1.892771E+0	1.880957E+0	1.883080E+0	1.890284E+0	1.864436E+0	1.855755E+0	1.859749E+0	1.819618E+0	1.821596E+0	1.817534E+0	1.890006E+0	1.884505E+0	1.927222E+0	1.839319E+0	1.837491E+0	1.889830E+0	1.853211E+0	1.916858E+0	1.896742E+0	1.827737E+0	1.848896E+0	1.827068E+0	1.928202E+0	1.793561E+0	1.945559E+0	1.831922E+0	1.868816E+0	1.874157E+0	1.872998E+0	1.851260E+0	1.890593E+0	1.841751E+0	1.869138E+0	1.864860E+0	1.897769E+0	1.796967E+0	1.831004E+0	1.914900E+0	1.835347E+0	1.838017E+0	1.854594E+0	1.858979E+0	1.849316E+0	1.962625E+0	1.840940E+0	1.847721E+0	1.846408E+0	1.836602E+0	1.841798E+0	1.804516E+0	1.815860E+0	1.878352E+0	1.869461E+0	1.851764E+0	1.907476E+0	1.913730E+0	1.908089E+0	1.830298E+0	1.835482E+0	1.913550E+0	1.791081E+0	1.824158E+0	1.852610E+0	1.857487E+0	1.821821E+0	1.856773E+0	1.795685E+0	1.827768E+0	1.831740E+0	1.806112E+0	1.899042E+0	1.849436E+0	1.869243E+0	1.826653E+0	1.811780E+0	1.818317E+0	1.874888E+0	1.781403E+0	1.872569E+0	1.703112E+0	1.864402E+0	1.915028E+0	1.856669E+0	1.822167E+0	1.859783E+0	1.842127E+0	1.914821E+0	1.806726E+0	1.796799E+0	1.846126E+0	1.792881E+0	1.850343E+0	1.855967E+0	1.851927E+0	1.806209E+0	1.819636E+0	1.850253E+0	1.788713E+0	1.837834E+0	1.884442E+0	1.754196E+0	1.864263E+0	1.831474E+0	1.769711E+0	1.734391E+0	1.885055E+0	1.786757E+0	1.853218E+0	1.747589E+0	1.871472E+0	1.793697E+0	1.764602E+0	1.822095E+0	1.837732E+0	1.872444E+0	1.841462E+0	1.814343E+0	1.845841E+0	1.899250E+0	1.834869E+0	1.880154E+0	1.806337E+0	1.857172E+0	1.790936E+0	1.795509E+0	1.869923E+0	1.835314E+0	1.810466E+0	1.789223E+0	1.793016E+0	1.766439E+0	1.822258E+0	1.759560E+0	1.791618E+0	1.814199E+0
5.405080E+2	1.846937E+0	1.688845E+0	1.812835E+0	1.740987E+0	1.765606E+0	1.764187E+0	1.741060E+0	1.765298E+0	1.719104E+0	1.852689E+0	1.745547E+0	1.806413E+0	1.734352E+0	1.755954E+0	1.786352E+0	1.798535E+0	1.792224E+0	1.710532E+0	1.793037E+0	1.757844E+0	1.784987E+0	1.783722E+0	1.743410E+0	1.775827E+0	1.772880E+0	1.755426E+0	1.744983E+0	1.725722E+0	1.720376E+0	1.809487E+0	1.767501E+0	1.810218E+0	1.774668E+0	1.779950E+0	1.734247E+0	1.757315E+0	1.804312E+0	1.736182E+0	1.708900E+0	1.747663E+0	1.777667E+0	1.816512E+0	1.756379E+0	1.665152E+0	1.724107E+0	1.768441E+0	1.754732E+0	1.811059E+0	1.766697E+0	1.719091E+0	1.669058E+0	1.760028E+0	1.788380E+0	1.774130E+0	1.719874E+0	1.736616E+0	1.835192E+0	1.729390E+0	1.743898E+0	1.710171E+0	1.725895E+0	1.747609E+0	1.775435E+0	1.732196E+0	1.698690E+0	1.738077E+0	1.738697E+0	1.665446E+0	1.750800E+0	1.712321E+0	1.725861E+0	1.730171E+0	1.786039E+0	1.765914E+0	1.688838E+0	1.790226E+0	1.770010E+0	1.663174E+0	1.775220E+0	1.739759E+0	1.780173E+0	1.678318E+0	1.761697E+0	1.825399E+0	1.673095E+0	1.741138E+0	1.707931E+0	1.721632E+0	1.747530E+0	1.764321E+0	1.735988E+0	1.769970E+0	1.737742E+0	1.751856E+0	1.779654E+0	1.736701E+0	1.726948E+0	1.810992E+0	1.693148E+0	1.744407E+0	1.745575E+0	1.762906E+0	1.710957E+0	1.683043E+0	1.707689E+0	1.744059E+0	1.729577E+0	1.685209E+0	1.740725E+0	1.731578E+0	1.785194E+0	1.768409E+0	1.720526E+0	1.802149E+0	1.692090E+0	1.703353E+0	1.752783E+0	1.813388E+0	1.697820E+0	1.770776E+0	1.765463E+0	1.745411E+0	1.697316E+0	1.709189E+0	1.729839E+0	1.744789E+0	1.706443E+0	1.757143E+0	1.762073E+0	1.685770E+0	1.670201E+0	1.749475E+0	1.710205E+0	1.724620E+0	1.675255E+0	1.695720E+0	1.724762E+0	1.762311E+0	1.718172E+0	1.716406E+0	1.717249E+0	1.759084E+0	1.729446E+0	1.724820E+0	1.703422E+0	1.760303E+0	1.672770E+0	1.702739E+0	1.700364E+0	1.708463E+0	1.728043E+0	1.702579E+0	1.819485E+0	1.752011E+0	1.663577E+0	1.693687E+0	1.665095E+0	1.742126E+0	1.722246E+0	1.744368E+0	1.669253E+0	1.707581E+0	1.679811E+0	1.636942E+0	1.720818E+0	1.682408E+0	1.736346E+0	1.807107E+0	1.697918E+0	1.684603E+0
5.407580E+2	1.826961E+0	1.688085E+0	1.790726E+0	1.734913E+0	1.759578E+0	1.691420E+0	1.736686E+0	1.764906E+0	1.817116E+0	1.779040E+0	1.722608E+0	1.722813E+0	1.711218E+0	1.791578E+0	1.681819E+0	1.741914E+0	1.754921E+0	1.777090E+0	1.779727E+0	1.684965E+0	1.762818E+0	1.756375E+0	1.742765E+0	1.758653E+0	1.809210E+0	1.764543E+0	1.665720E+0	1.657459E+0	1.698341E+0	1.729479E+0	1.759519E+0	1.770252E+0	1.749932E+0	1.803270E+0	1.780866E+0	1.712389E+0	1.778412E+0	1.775136E+0	1.655887E+0	1.749579E+0	1.699785E+0	1.701198E+0	1.688533E+0	1.742172E+0	1.691585E+0	1.779776E+0	1.717303E+0	1.786382E+0	1.792768E+0	1.703537E+0	1.697426E+0	1.685458E+0	1.757626E+0	1.781793E+0	1.683092E+0	1.678570E+0	1.741003E+0	1.737747E+0	1.715296E+0	1.719970E+0	1.725185E+0	1.757803E+0	1.733157E+0	1.713970E+0	1.759936E+0	1.765374E+0	1.736712E+0	1.717132E+0	1.743701E+0	1.699101E+0	1.699754E+0	1.681724E+0	1.728318E+0	1.708927E+0	1.697582E+0	1.678734E+0	1.697813E+0	1.696650E+0	1.793786E+0	1.729176E+0	1.646284E+0	1.681562E+0	1.724064E+0	1.719299E+0	1.660773E+0	1.746851E+0	1.706850E+0	1.693814E+0	1.621240E+0	1.720686E+0	1.704391E+0	1.763202E+0	1.697088E+0	1.692065E+0	1.740201E+0	1.675965E+0	1.720625E+0	1.729464E+0	1.676709E+0	1.664470E+0	1.761487E+0	1.687654E+0	1.614631E+0	1.720492E+0	1.693282E+0	1.735798E+0	1.749884E+0	1.711890E+0	1.711646E+0	1.720624E+0	1.717074E+0	1.679870E+0	1.685451E+0	1.707760E+0	1.727902E+0	1.646445E+0	1.747286E+0	1.710015E+0	1.711013E+0	1.712179E+0	1.683796E+0	1.751167E+0	1.752244E+0	1.725928E+0	1.709088E+0	1.699659E+0	1.660347E+0	1.685043E+0	1.747048E+0	1.763235E+0	1.656739E+0	1.737697E+0	1.693037E+0	1.726442E+0	1.793031E+0	1.713662E+0	1.764898E+0	1.740018E+0	1.624532E+0	1.651452E+0	1.676248E+0	1.705742E+0	1.734109E+0	1.714280E+0	1.702320E+0	1.756665E+0	1.687290E+0	1.721540E+0	1.687372E+0	1.767273E+0	1.675680E+0	1.690699E+0	1.688153E+0	1.739873E+0	1.730054E+0	1.689972E+0	1.675597E+0	1.689218E+0	1.706303E+0	1.686960E+0	1.622450E+0	1.629262E+0	1.650657E+0	1.689351E+0	1.689749E+0	1.664080E+0	1.660740E+0	1.685701E+0	1.669860E+0	1.719062E+0
5.410240E+2	1.735717E+0	1.681900E+0	1.677359E+0	1.687154E+0	1.609160E+0	1.644108E+0	1.608810E+0	1.723669E+0	1.631950E+0	1.745572E+0	1.637728E+0	1.709051E+0	1.615937E+0	1.664438E+0	1.651290E+0	1.698010E+0	1.660835E+0	1.644589E+0	1.667958E+0	1.602596E+0	1.639971E+0	1.695231E+0	1.637103E+0	1.680256E+0	1.712053E+0	1.695797E+0	1.677029E+0	1.612193E+0	1.630013E+0	1.622955E+0	1.641443E+0	1.649411E+0	1.644015E+0	1.702131E+0	1.698273E+0	1.645639E+0	1.646603E+0	1.677526E+0	1.651883E+0	1.705334E+0	1.618469E+0	1.647146E+0	1.623385E+0	1.634461E+0	1.596112E+0	1.617897E+0	1.612022E+0	1.691857E+0	1.684527E+0	1.644998E+0	1.691749E+0	1.650174E+0	1.709961E+0	1.636588E+0	1.651755E+0	1.620516E+0	1.629635E+0	1.722933E+0	1.678481E+0	1.580371E+0	1.578284E+0	1.703269E+0	1.687804E+0	1.631440E+0	1.623636E+0	1.725490E+0	1.696013E+0	1.641898E+0	1.649564E+0	1.679005E+0	1.642094E+0	1.657548E+0	1.646781E+0	1.623295E+0	1.686986E+0	1.662281E+0	1.628963E+0	1.590284E+0	1.663755E+0	1.692559E+0	1.612682E+0	1.644171E+0	1.646652E+0	1.684430E+0	1.603575E+0	1.599689E+0	1.663246E+0	1.611748E+0	1.619146E+0	1.627561E+0	1.642476E+0	1.660198E+0	1.621796E+0	1.642415E+0	1.654101E+0	1.605807E+0	1.631708E+0	1.679741E+0	1.600154E+0	1.662123E+0	1.623585E+0	1.652392E+0	1.576106E+0	1.561409E+0	1.634133E+0	1.657808E+0	1.637372E+0	1.627382E+0	1.641198E+0	1.690819E+0	1.592605E+0	1.611073E+0	1.662062E+0	1.634695E+0	1.601782E+0	1.627701E+0	1.628940E+0	1.642573E+0	1.619646E+0	1.668970E+0	1.608010E+0	1.621148E+0	1.618351E+0	1.593013E+0	1.637998E+0	1.655029E+0	1.560792E+0	1.680598E+0	1.572269E+0	1.630274E+0	1.607354E+0	1.676196E+0	1.635845E+0	1.566030E+0	1.649546E+0	1.652840E+0	1.602078E+0	1.674403E+0	1.613157E+0	1.542247E+0	1.672741E+0	1.651564E+0	1.637071E+0	1.581126E+0	1.619515E+0	1.654902E+0	1.560630E+0	1.667142E+0	1.628729E+0	1.639544E+0	1.606484E+0	1.640588E+0	1.635287E+0	1.650117E+0	1.667610E+0	1.588907E+0	1.550473E+0	1.707529E+0	1.589291E+0	1.704597E+0	1.630062E+0	1.624137E+0	1.582940E+0	1.579281E+0	1.608905E+0	1.593762E+0	1.639988E+0	1.617449E+0	1.658687E+0	1.736937E+0
5.412740E+2	1.712581E+0	1.593940E+0	1.573426E+0	1.586851E+0	1.610371E+0	1.607093E+0	1.559486E+0	1.564849E+0	1.596903E+0	1.588330E+0	1.511244E+0	1.562770E+0	1.570980E+0	1.621241E+0	1.555965E+0	1.593178E+0	1.600340E+0	1.566333E+0	1.580985E+0	1.555274E+0	1.607774E+0	1.592159E+0	1.545263E+0	1.612897E+0	1.611055E+0	1.555180E+0	1.571575E+0	1.594836E+0	1.556794E+0	1.633124E+0	1.600379E+0	1.563978E+0	1.599351E+0	1.588731E+0	1.553929E+0	1.617007E+0	1.602480E+0	1.584598E+0	1.563364E+0	1.558763E+0	1.537007E+0	1.611546E+0	1.574843E+0	1.578088E+0	1.553785E+0	1.589176E+0	1.573531E+0	1.593683E+0	1.560066E+0	1.590785E+0	1.591725E+0	1.594921E+0	1.537872E+0	1.557344E+0	1.543731E+0	1.562197E+0	1.592793E+0	1.605584E+0	1.584482E+0	1.592254E+0	1.510009E+0	1.622725E+0	1.589011E+0	1.547604E+0	1.587854E+0	1.632547E+0	1.555791E+0	1.569627E+0	1.567568E+0	1.590638E+0	1.577259E+0	1.607726E+0	1.513030E+0	1.574781E+0	1.554622E+0	1.570329E+0	1.566648E+0	1.537116E+0	1.561793E+0	1.569083E+0	1.557363E+0	1.539065E+0	1.570687E+0	1.501010E+0	1.549188E+0	1.550918E+0	1.553470E+0	1.558510E+0	1.549923E+0	1.643042E+0	1.538288E+0	1.606526E+0	1.503337E+0	1.585335E+0	1.551353E+0	1.568433E+0	1.552273E+0	1.583941E+0	1.517035E+0	1.492017E+0	1.577177E+0	1.609954E+0	1.540214E+0	1.555516E+0	1.509735E+0	1.614726E+0	1.509710E+0	1.504791E+0	1.554579E+0	1.530374E+0	1.567496E+0	1.545917E+0	1.585937E+0	1.615499E+0	1.594324E+0	1.518103E+0	1.559328E+0	1.542999E+0	1.520426E+0	1.551605E+0	1.532837E+0	1.532878E+0	1.564706E+0	1.571518E+0	1.552697E+0	1.615408E+0	1.538852E+0	1.584730E+0	1.621156E+0	1.506936E+0	1.545488E+0	1.595228E+0	1.553726E+0	1.565549E+0	1.582991E+0	1.571647E+0	1.542800E+0	1.566842E+0	1.563270E+0	1.547349E+0	1.585194E+0	1.566940E+0	1.538762E+0	1.513913E+0	1.540216E+0	1.561004E+0	1.528443E+0	1.543787E+0	1.556046E+0	1.589661E+0	1.588381E+0	1.572285E+0	1.604348E+0	1.590775E+0	1.496030E+0	1.558270E+0	1.519980E+0	1.571756E+0	1.528967E+0	1.560330E+0	1.526415E+0	1.544575E+0	1.509967E+0	1.499970E+0	1.586922E+0	1.520838E+0	1.541064E+0	1.537495E+0	1.608507E+0	1.558081E+0
5.415350E+2	1.458850E+0	1.378740E+0	1.477366E+0	1.429809E+0	1.445455E+0	1.440365E+0	1.428868E+0	1.451785E+0	1.410195E+0	1.423229E+0	1.410411E+0	1.412849E+0	1.451783E+0	1.437147E+0	1.447613E+0	1.432817E+0	1.424913E+0	1.395709E+0	1.473584E+0	1.443337E+0	1.420251E+0	1.424395E+0	1.417360E+0	1.406357E+0	1.425155E+0	1.398284E+0	1.387772E+0	1.420512E+0	1.385994E+0	1.432261E+0	1.460363E+0	1.431223E+0	1.452153E+0	1.470946E+0	1.465067E+0	1.418760E+0	1.427583E+0	1.430089E+0	1.433475E+0	1.389579E+0	1.424948E+0	1.438499E+0	1.402320E+0	1.363787E+0	1.400446E+0	1.447974E+0	1.452934E+0	1.392665E+0	1.442255E+0	1.460819E+0	1.328462E+0	1.381111E+0	1.427635E+0	1.427477E+0	1.381179E+0	1.398185E+0	1.443532E+0	1.446386E+0	1.387047E+0	1.398492E+0	1.394088E+0	1.447200E+0	1.481454E+0	1.416781E+0	1.419064E+0	1.472199E+0	1.427824E+0	1.380762E+0	1.398456E+0	1.437976E+0	1.412731E+0	1.393825E+0	1.400355E+0	1.368518E+0	1.448203E+0	1.437907E+0	1.387961E+0	1.404243E+0	1.433645E+0	1.419059E+0	1.429095E+0	1.433291E+0	1.456939E+0	1.410888E+0	1.362966E+0	1.399106E+0	1.395976E+0	1.409422E+0	1.394843E+0	1.429603E+0	1.482824E+0	1.375100E+0	1.433816E+0	1.432228E+0	1.408355E+0	1.418794E+0	1.411490E+0	1.478996E+0	1.349589E+0	1.382205E+0	1.446195E+0	1.399449E+0	1.371107E+0	1.362386E+0	1.403167E+0	1.443427E+0	1.387852E+0	1.379404E+0	1.443033E+0	1.408653E+0	1.458045E+0	1.351814E+0	1.468535E+0	1.444912E+0	1.399690E+0	1.346322E+0	1.436552E+0	1.445810E+0	1.445873E+0	1.385512E+0	1.407286E+0	1.413730E+0	1.424061E+0	1.394403E+0	1.339939E+0	1.443688E+0	1.402087E+0	1.393553E+0	1.440325E+0	1.437242E+0	1.418063E+0	1.434300E+0	1.376895E+0	1.424133E+0	1.427026E+0	1.407957E+0	1.430946E+0	1.402127E+0	1.408260E+0	1.371792E+0	1.413514E+0	1.420357E+0	1.455410E+0	1.427719E+0	1.391347E+0	1.447541E+0	1.411933E+0	1.365950E+0	1.424846E+0	1.402648E+0	1.362865E+0	1.398682E+0	1.428721E+0	1.450398E+0	1.403307E+0	1.394300E+0	1.375247E+0	1.418518E+0	1.380186E+0	1.413426E+0	1.339500E+0	1.361845E+0	1.364693E+0	1.439057E+0	1.396213E+0	1.415006E+0	1.405820E+0	1.441015E+0	1.412663E+0	1.402013E+0
5.417600E+2	1.268820E+0	1.240006E+0	1.231406E+0	1.277362E+0	1.223634E+0	1.212868E+0	1.223689E+0	1.249026E+0	1.216972E+0	1.250620E+0	1.259758E+0	1.234323E+0	1.190169E+0	1.246618E+0	1.243951E+0	1.222916E+0	1.263319E+0	1.235695E+0	1.209392E+0	1.238376E+0	1.278482E+0	1.220706E+0	1.243719E+0	1.249328E+0	1.282343E+0	1.259008E+0	1.287687E+0	1.175843E+0	1.249791E+0	1.183248E+0	1.304308E+0	1.259067E+0	1.262990E+0	1.234985E+0	1.241773E+0	1.243327E+0	1.249148E+0	1.270065E+0	1.226902E+0	1.268056E+0	1.259959E+0	1.227477E+0	1.214068E+0	1.213120E+0	1.265072E+0	1.261966E+0	1.280153E+0	1.293379E+0	1.238605E+0	1.221290E+0	1.232565E+0	1.227636E+0	1.243811E+0	1.205322E+0	1.220440E+0	1.218628E+0	1.229799E+0	1.209879E+0	1.215160E+0	1.167041E+0	1.208259E+0	1.239628E+0	1.246209E+0	1.241477E+0	1.241229E+0	1.222458E+0	1.215935E+0	1.221632E+0	1.265661E+0	1.236942E+0	1.186756E+0	1.190184E+0	1.217031E+0	1.266682E+0	1.251812E+0	1.244454E+0	1.234894E+0	1.219751E+0	1.270600E+0	1.232411E+0	1.236798E+0	1.239289E+0	1.178809E+0	1.205141E+0	1.215588E+0	1.242496E+0	1.213929E+0	1.226286E+0	1.245972E+0	1.235475E+0	1.255871E+0	1.237620E+0	1.211578E+0	1.216867E+0	1.249884E+0	1.227250E+0	1.234776E+0	1.269159E+0	1.204953E+0	1.172307E+0	1.246326E+0	1.232508E+0	1.240092E+0	1.189163E+0	1.195418E+0	1.281231E+0	1.244662E+0	1.210780E+0	1.225039E+0	1.295716E+0	1.278944E+0	1.225741E+0	1.208230E+0	1.257790E+0	1.172542E+0	1.251794E+0	1.253866E+0	1.238610E+0	1.183890E+0	1.265920E+0	1.275825E+0	1.290572E+0	1.214499E+0	1.210811E+0	1.205804E+0	1.196377E+0	1.212603E+0	1.244746E+0	1.204399E+0	1.259174E+0	1.208863E+0	1.196133E+0	1.220325E+0	1.252714E+0	1.210669E+0	1.233452E+0	1.191170E+0	1.278829E+0	1.211158E+0	1.175446E+0	1.217076E+0	1.241202E+0	1.215706E+0	1.256965E+0	1.205090E+0	1.203916E+0	1.162021E+0	1.221975E+0	1.283017E+0	1.248243E+0	1.255523E+0	1.226815E+0	1.234106E+0	1.245667E+0	1.231334E+0	1.215891E+0	1.176404E+0	1.231890E+0	1.160163E+0	1.257066E+0	1.226452E+0	1.252670E+0	1.175332E+0	1.224823E+0	1.275780E+0	1.236559E+0	1.179777E+0	1.249675E+0	1.272185E+0	1.182495E+0
5.420210E+2	1.141144E+0	1.064239E+0	1.126519E+0	1.076698E+0	1.114771E+0	1.084386E+0	1.089904E+0	1.076153E+0	1.116301E+0	1.092854E+0	1.089367E+0	1.070815E+0	1.124712E+0	1.053838E+0	1.100511E+0	1.079635E+0	1.101996E+0	1.086136E+0	1.142441E+0	1.108917E+0	1.091480E+0	1.124189E+0	1.092162E+0	1.078277E+0	1.108098E+0	1.057859E+0	1.075110E+0	1.067087E+0	1.082113E+0	1.046142E+0	1.107585E+0	1.123159E+0	1.129339E+0	1.120300E+0	1.071522E+0	1.117328E+0	1.073135E+0	1.104023E+0	1.091329E+0	1.091917E+0	1.057838E+0	1.044740E+0	1.109836E+0	1.035404E+0	1.068905E+0	1.071028E+0	1.123240E+0	1.131984E+0	1.085172E+0	1.034637E+0	1.103992E+0	1.059286E+0	1.064825E+0	1.120702E+0	1.065618E+0	1.076042E+0	1.097960E+0	1.103375E+0	1.106590E+0	1.070253E+0	1.057452E+0	1.104269E+0	1.123188E+0	1.084057E+0	1.091021E+0	1.086070E+0	1.109749E+0	1.065450E+0	1.105853E+0	1.053171E+0	1.098078E+0	1.093620E+0	1.067578E+0	1.103762E+0	1.110957E+0	1.088869E+0	1.074716E+0	1.092857E+0	1.129906E+0	1.047989E+0	1.018925E+0	1.027918E+0	1.093015E+0	1.070839E+0	1.042251E+0	1.091445E+0	1.077814E+0	1.057942E+0	1.085283E+0	1.080059E+0	1.095297E+0	1.082376E+0	1.088498E+0	1.075531E+0	1.093702E+0	1.086798E+0	1.085240E+0	1.053137E+0	1.032095E+0	1.127474E+0	1.110636E+0	1.046884E+0	1.055602E+0	1.041430E+0	1.083322E+0	1.092266E+0	1.160453E+0	1.035576E+0	1.041774E+0	1.064250E+0	1.107510E+0	1.075925E+0	1.060469E+0	1.119777E+0	1.087029E+0	1.029575E+0	1.107573E+0	1.084319E+0	1.103185E+0	1.017688E+0	1.090285E+0	1.101409E+0	1.090250E+0	1.081278E+0	1.063400E+0	1.064905E+0	1.100401E+0	1.061132E+0	1.075919E+0	1.084604E+0	1.070048E+0	1.020698E+0	1.047517E+0	1.112744E+0	1.009790E+0	1.045569E+0	1.095393E+0	1.105894E+0	1.099529E+0	1.032450E+0	1.073802E+0	1.097744E+0	1.120472E+0	1.066052E+0	1.056753E+0	1.125253E+0	1.044569E+0	1.089673E+0	1.125556E+0	1.104109E+0	1.072446E+0	1.050527E+0	1.134465E+0	1.078580E+0	1.076041E+0	1.095657E+0	1.085228E+0	1.074314E+0	1.067829E+0	1.079165E+0	1.065576E+0	1.073651E+0	1.037955E+0	1.048763E+0	1.091574E+0	1.080820E+0	1.057396E+0	1.049799E+0	1.117651E+0	1.062562E+0
5.422620E+2	9.975835E-1	9.827889E-1	9.868190E-1	9.744722E-1	9.590688E-1	9.836801E-1	1.005034E+0	9.441366E-1	9.732688E-1	9.889634E-1	9.949429E-1	1.050561E+0	9.874200E-1	9.695850E-1	9.891373E-1	9.800918E-1	9.530128E-1	9.845787E-1	9.729147E-1	9.970753E-1	9.887798E-1	9.922059E-1	9.753981E-1	1.019982E+0	1.046915E+0	9.955895E-1	1.046864E+0	9.904555E-1	9.739321E-1	1.028134E+0	1.006573E+0	1.031342E+0	9.707378E-1	1.023573E+0	9.958241E-1	1.020919E+0	1.001767E+0	1.001872E+0	1.000023E+0	9.616568E-1	1.038868E+0	1.034872E+0	9.660813E-1	1.024516E+0	1.004187E+0	9.795118E-1	1.016647E+0	1.023238E+0	1.022151E+0	9.881009E-1	9.184508E-1	9.790974E-1	9.951692E-1	9.796528E-1	9.789570E-1	9.792609E-1	1.002253E+0	9.739534E-1	1.039512E+0	1.001948E+0	9.530613E-1	9.756336E-1	9.986408E-1	1.001074E+0	9.884340E-1	1.003193E+0	1.036519E+0	1.005851E+0	1.005021E+0	9.490776E-1	1.002763E+0	9.602023E-1	9.457226E-1	1.041260E+0	9.787038E-1	1.037667E+0	9.792336E-1	9.924595E-1	1.004638E+0	9.936322E-1	9.766471E-1	9.771026E-1	1.009579E+0	9.785629E-1	9.863548E-1	9.847692E-1	1.001252E+0	9.943372E-1	9.694462E-1	9.689125E-1	9.780030E-1	1.026739E+0	9.621008E-1	9.754745E-1	1.012707E+0	9.911386E-1	9.645919E-1	1.022684E+0	9.781982E-1	9.488251E-1	1.029856E+0	1.001529E+0	9.826493E-1	9.990623E-1	9.828303E-1	9.887835E-1	9.844475E-1	9.769104E-1	9.911478E-1	1.001023E+0	9.763516E-1	1.008994E+0	9.670758E-1	9.841916E-1	9.893242E-1	1.011110E+0	9.785200E-1	1.015431E+0	9.524382E-1	1.014421E+0	9.837800E-1	1.024716E+0	1.006393E+0	9.637311E-1	9.643038E-1	9.811341E-1	1.013118E+0	9.685631E-1	9.589377E-1	9.645762E-1	1.028925E+0	1.011975E+0	9.452710E-1	9.869067E-1	1.016544E+0	9.780719E-1	9.577994E-1	9.673117E-1	1.006111E+0	9.363450E-1	9.830031E-1	9.614048E-1	1.019688E+0	9.413123E-1	9.603144E-1	9.922757E-1	9.802513E-1	1.030873E+0	9.755192E-1	9.421527E-1	1.009316E+0	9.932918E-1	9.722597E-1	9.990448E-1	9.816734E-1	1.032271E+0	9.919859E-1	1.030864E+0	9.773750E-1	9.913809E-1	9.814643E-1	9.885097E-1	9.557692E-1	9.752808E-1	9.705521E-1	9.502927E-1	9.746902E-1	1.007489E+0	1.009388E+0	1.042416E+0
5.425240E+2	9.296957E-1	9.204431E-1	9.634292E-1	9.349625E-1	8.943649E-1	9.413984E-1	9.365183E-1	9.358717E-1	9.117215E-1	9.613801E-1	9.247917E-1	9.335157E-1	9.560217E-1	9.350937E-1	9.567881E-1	9.378077E-1	9.562430E-1	9.014867E-1	9.232363E-1	9.692828E-1	9.584880E-1	9.202196E-1	9.328589E-1	9.650686E-1	9.735931E-1	9.561466E-1	9.806093E-1	9.598557E-1	9.329737E-1	9.550254E-1	9.836638E-1	1.004854E+0	9.509863E-1	1.008582E+0	9.261112E-1	9.648612E-1	9.820031E-1	9.425041E-1	9.654173E-1	9.209256E-1	9.357297E-1	9.417525E-1	9.513083E-1	9.471232E-1	9.233427E-1	9.585141E-1	9.680465E-1	9.743911E-1	9.913560E-1	9.911259E-1	9.772385E-1	9.629217E-1	9.561365E-1	9.826966E-1	9.511579E-1	9.551171E-1	9.402205E-1	9.802566E-1	9.489155E-1	1.002999E+0	9.384207E-1	9.032010E-1	1.003408E+0	9.529959E-1	9.709263E-1	9.630298E-1	9.448282E-1	9.904505E-1	9.524364E-1	9.389012E-1	9.420204E-1	9.703796E-1	9.553651E-1	8.829138E-1	9.597916E-1	9.809213E-1	9.410028E-1	9.307965E-1	9.656240E-1	9.259932E-1	9.823994E-1	9.312727E-1	9.773888E-1	9.723292E-1	9.381169E-1	9.675884E-1	9.206880E-1	9.341391E-1	9.662216E-1	9.430086E-1	9.792275E-1	9.715314E-1	9.884678E-1	9.514646E-1	9.815847E-1	9.474754E-1	9.051738E-1	9.869314E-1	9.461918E-1	9.281739E-1	9.426103E-1	9.128864E-1	9.288471E-1	9.478101E-1	8.827737E-1	9.534773E-1	9.755316E-1	9.593643E-1	9.951360E-1	9.438076E-1	9.705242E-1	9.197002E-1	9.776624E-1	9.175996E-1	9.163513E-1	9.567545E-1	9.576597E-1	9.472869E-1	9.153555E-1	9.557728E-1	9.626862E-1	9.363419E-1	1.008916E+0	9.567503E-1	9.470685E-1	9.601294E-1	9.520279E-1	9.366115E-1	9.907201E-1	9.220353E-1	9.537331E-1	9.438344E-1	9.651676E-1	9.309706E-1	9.724454E-1	9.451780E-1	9.495146E-1	9.513742E-1	9.793162E-1	9.207622E-1	9.455601E-1	9.541445E-1	9.278320E-1	9.312180E-1	9.647548E-1	9.209632E-1	9.243119E-1	9.237492E-1	9.403144E-1	9.518022E-1	9.600006E-1	9.554920E-1	9.696858E-1	9.502380E-1	9.350879E-1	9.664930E-1	9.055761E-1	9.326120E-1	9.903157E-1	9.648645E-1	9.515528E-1	9.542090E-1	9.695065E-1	9.250504E-1	9.269802E-1	9.359640E-1	9.690352E-1	9.482476E-1	9.478028E-1	9.915448E-1
5.427650E+2	1.014034E+0	9.522909E-1	1.009785E+0	9.599284E-1	9.672249E-1	9.689204E-1	9.902681E-1	9.698314E-1	9.938192E-1	9.839159E-1	9.608768E-1	9.896174E-1	9.708408E-1	9.956599E-1	1.008108E+0	9.564483E-1	9.577878E-1	9.895389E-1	9.576941E-1	1.008796E+0	9.667211E-1	9.714776E-1	9.921405E-1	1.001817E+0	1.001291E+0	9.967912E-1	1.007394E+0	9.801758E-1	1.005105E+0	9.884962E-1	1.034535E+0	1.054728E+0	1.021744E+0	1.026210E+0	1.010980E+0	1.012899E+0	9.907776E-1	1.004434E+0	9.877682E-1	1.016120E+0	9.840654E-1	9.883709E-1	9.871369E-1	1.007324E+0	9.471022E-1	1.002371E+0	9.989036E-1	9.974896E-1	1.068361E+0	9.560617E-1	1.043615E+0	1.030437E+0	9.805469E-1	1.017301E+0	9.778442E-1	1.012705E+0	1.006257E+0	9.641997E-1	9.611034E-1	9.803561E-1	9.712226E-1	1.020199E+0	1.057649E+0	9.816641E-1	9.806765E-1	1.054049E+0	1.016090E+0	9.802119E-1	1.009837E+0	9.913725E-1	1.007231E+0	9.517834E-1	1.015300E+0	9.851563E-1	9.799892E-1	9.973234E-1	9.549640E-1	9.952547E-1	1.010789E+0	1.006076E+0	9.532041E-1	1.011139E+0	1.038612E+0	1.008506E+0	9.995725E-1	1.028252E+0	9.887478E-1	9.830927E-1	9.807072E-1	9.941922E-1	1.027410E+0	9.626711E-1	9.994215E-1	9.808468E-1	1.004959E+0	1.006052E+0	9.631621E-1	9.594744E-1	9.960757E-1	9.749942E-1	1.005446E+0	9.915413E-1	9.897797E-1	9.864096E-1	1.006778E+0	9.688472E-1	9.908683E-1	9.924239E-1	9.598817E-1	9.633522E-1	1.026396E+0	1.029536E+0	9.785740E-1	1.012127E+0	9.866582E-1	9.499514E-1	1.031208E+0	1.033967E+0	9.858670E-1	9.690377E-1	1.013519E+0	9.877705E-1	9.618663E-1	9.902136E-1	9.869696E-1	1.006456E+0	1.005944E+0	1.017520E+0	1.011668E+0	9.866767E-1	9.710715E-1	9.741253E-1	1.029421E+0	9.911977E-1	1.022318E+0	1.014245E+0	1.010042E+0	1.010793E+0	9.944706E-1	9.643616E-1	1.001837E+0	9.990466E-1	1.017502E+0	1.003884E+0	9.698787E-1	1.010107E+0	9.877990E-1	1.000377E+0	9.753933E-1	9.999966E-1	9.849269E-1	1.015039E+0	9.812070E-1	9.479068E-1	1.033718E+0	1.036185E+0	9.665514E-1	1.009440E+0	1.037000E+0	9.517698E-1	9.877535E-1	1.014257E+0	9.572145E-1	1.000959E+0	9.414356E-1	9.734341E-1	1.008175E+0	1.000520E+0	1.012992E+0	1.043792E+0
5.430120E+2	1.149798E+0	1.100160E+0	1.218196E+0	1.130740E+0	1.129341E+0	1.120844E+0	1.122302E+0	1.116320E+0	1.086077E+0	1.146530E+0	1.096596E+0	1.166592E+0	1.137345E+0	1.095599E+0	1.114340E+0	1.137742E+0	1.133747E+0	1.124241E+0	1.136313E+0	1.107865E+0	1.160635E+0	1.161984E+0	1.106732E+0	1.138324E+0	1.176181E+0	1.155198E+0	1.206596E+0	1.137741E+0	1.156300E+0	1.165282E+0	1.179426E+0	1.140390E+0	1.135543E+0	1.204352E+0	1.174861E+0	1.196473E+0	1.156593E+0	1.173126E+0	1.114589E+0	1.142203E+0	1.147492E+0	1.116565E+0	1.133791E+0	1.056024E+0	1.135347E+0	1.141544E+0	1.167300E+0	1.128026E+0	1.127973E+0	1.137120E+0	1.145943E+0	1.100413E+0	1.119992E+0	1.118986E+0	1.179925E+0	1.115232E+0	1.129659E+0	1.160066E+0	1.148889E+0	1.094290E+0	1.089557E+0	1.121739E+0	1.169755E+0	1.115668E+0	1.094582E+0	1.132114E+0	1.150310E+0	1.099164E+0	1.159603E+0	1.175470E+0	1.179629E+0	1.147972E+0	1.084082E+0	1.141471E+0	1.141271E+0	1.098393E+0	1.140081E+0	1.104567E+0	1.178146E+0	1.148868E+0	1.122962E+0	1.160639E+0	1.150019E+0	1.096224E+0	1.128329E+0	1.168983E+0	1.121596E+0	1.116883E+0	1.102857E+0	1.112916E+0	1.109590E+0	1.102297E+0	1.117492E+0	1.103838E+0	1.160427E+0	1.120891E+0	1.145169E+0	1.153195E+0	1.105200E+0	1.121666E+0	1.145203E+0	1.105423E+0	1.123036E+0	1.050842E+0	1.196187E+0	1.120352E+0	1.152030E+0	1.132254E+0	1.169711E+0	1.127850E+0	1.178398E+0	1.131285E+0	1.119075E+0	1.167474E+0	1.156686E+0	1.189372E+0	1.149516E+0	1.116322E+0	1.109791E+0	1.136531E+0	1.118743E+0	1.175426E+0	1.179904E+0	1.113597E+0	1.175717E+0	1.134440E+0	1.107315E+0	1.171768E+0	1.165071E+0	1.113166E+0	1.089108E+0	1.121667E+0	1.136760E+0	1.116331E+0	1.136529E+0	1.124721E+0	1.101172E+0	1.140374E+0	1.150639E+0	1.121467E+0	1.114965E+0	1.122674E+0	1.135510E+0	1.153866E+0	1.075610E+0	1.161073E+0	1.095293E+0	1.156386E+0	1.119470E+0	1.133690E+0	1.135458E+0	1.113847E+0	1.155226E+0	1.174579E+0	1.142226E+0	1.136443E+0	1.081415E+0	1.128101E+0	1.153928E+0	1.129714E+0	1.185292E+0	1.110644E+0	1.106449E+0	1.077986E+0	1.096743E+0	1.140143E+0	1.119366E+0	1.150491E+0	1.138657E+0	1.118806E+0
5.432800E+2	1.188270E+0	1.289693E+0	1.280060E+0	1.258497E+0	1.250305E+0	1.263918E+0	1.250724E+0	1.280140E+0	1.367887E+0	1.271902E+0	1.259940E+0	1.305551E+0	1.251733E+0	1.277286E+0	1.296090E+0	1.233182E+0	1.241315E+0	1.291464E+0	1.323728E+0	1.234653E+0	1.305982E+0	1.325284E+0	1.243881E+0	1.271867E+0	1.312151E+0	1.259332E+0	1.272153E+0	1.249334E+0	1.307104E+0	1.271921E+0	1.321802E+0	1.291677E+0	1.264801E+0	1.298084E+0	1.295773E+0	1.271444E+0	1.251006E+0	1.258664E+0	1.300883E+0	1.239506E+0	1.299268E+0	1.303002E+0	1.284694E+0	1.228819E+0	1.235317E+0	1.295320E+0	1.279060E+0	1.252279E+0	1.310886E+0	1.234659E+0	1.234041E+0	1.314843E+0	1.353456E+0	1.311063E+0	1.277003E+0	1.259551E+0	1.247915E+0	1.250008E+0	1.289223E+0	1.278168E+0	1.329750E+0	1.278767E+0	1.315160E+0	1.261185E+0	1.231553E+0	1.309395E+0	1.309406E+0	1.219511E+0	1.273826E+0	1.320131E+0	1.235285E+0	1.276909E+0	1.262190E+0	1.206823E+0	1.264425E+0	1.273783E+0	1.240546E+0	1.254064E+0	1.320854E+0	1.314517E+0	1.242206E+0	1.248654E+0	1.258443E+0	1.277189E+0	1.289758E+0	1.275890E+0	1.283576E+0	1.266437E+0	1.232842E+0	1.240272E+0	1.272020E+0	1.275889E+0	1.164321E+0	1.287391E+0	1.253462E+0	1.279472E+0	1.294212E+0	1.315652E+0	1.205606E+0	1.265224E+0	1.269969E+0	1.281304E+0	1.253835E+0	1.274114E+0	1.217789E+0	1.295521E+0	1.272387E+0	1.238626E+0	1.250289E+0	1.266499E+0	1.281348E+0	1.242771E+0	1.244899E+0	1.260810E+0	1.249740E+0	1.274422E+0	1.320103E+0	1.250182E+0	1.224623E+0	1.275137E+0	1.311511E+0	1.325993E+0	1.294858E+0	1.243695E+0	1.244330E+0	1.312246E+0	1.230724E+0	1.233938E+0	1.263744E+0	1.287615E+0	1.272301E+0	1.203185E+0	1.245274E+0	1.269556E+0	1.289979E+0	1.300185E+0	1.241063E+0	1.287371E+0	1.253118E+0	1.209572E+0	1.304531E+0	1.243050E+0	1.263621E+0	1.296449E+0	1.256960E+0	1.274435E+0	1.280429E+0	1.229411E+0	1.240031E+0	1.282579E+0	1.288357E+0	1.300262E+0	1.298367E+0	1.260108E+0	1.281005E+0	1.257857E+0	1.253570E+0	1.229894E+0	1.262279E+0	1.277688E+0	1.302750E+0	1.241767E+0	1.219775E+0	1.225373E+0	1.261486E+0	1.265330E+0	1.293967E+0	1.289840E+0	1.274006E+0	1.255092E+0
5.435110E+2	1.366794E+0	1.359539E+0	1.434551E+0	1.397245E+0	1.406100E+0	1.400913E+0	1.396544E+0	1.394867E+0	1.441673E+0	1.415282E+0	1.376540E+0	1.424571E+0	1.370995E+0	1.376288E+0	1.377262E+0	1.437636E+0	1.402246E+0	1.455780E+0	1.392677E+0	1.367046E+0	1.358933E+0	1.444081E+0	1.401449E+0	1.434013E+0	1.479576E+0	1.428922E+0	1.409792E+0	1.377400E+0	1.433122E+0	1.392576E+0	1.445947E+0	1.418159E+0	1.400653E+0	1.408882E+0	1.416307E+0	1.449065E+0	1.503941E+0	1.476501E+0	1.391714E+0	1.392871E+0	1.398825E+0	1.464229E+0	1.374206E+0	1.446807E+0	1.402579E+0	1.419684E+0	1.404124E+0	1.464597E+0	1.444128E+0	1.385055E+0	1.446284E+0	1.386380E+0	1.466813E+0	1.405360E+0	1.401315E+0	1.417597E+0	1.377863E+0	1.403393E+0	1.409472E+0	1.387362E+0	1.408684E+0	1.400352E+0	1.517398E+0	1.413317E+0	1.392742E+0	1.417574E+0	1.402482E+0	1.402324E+0	1.393493E+0	1.376258E+0	1.398088E+0	1.437723E+0	1.411839E+0	1.389712E+0	1.460613E+0	1.432528E+0	1.375199E+0	1.365137E+0	1.435122E+0	1.407513E+0	1.380405E+0	1.327695E+0	1.448222E+0	1.412720E+0	1.365915E+0	1.417947E+0	1.405527E+0	1.384060E+0	1.401437E+0	1.423740E+0	1.434120E+0	1.415753E+0	1.346206E+0	1.367809E+0	1.447584E+0	1.405964E+0	1.419450E+0	1.419532E+0	1.407978E+0	1.348405E+0	1.434814E+0	1.387030E+0	1.394098E+0	1.386476E+0	1.396731E+0	1.420538E+0	1.417107E+0	1.430669E+0	1.405574E+0	1.425182E+0	1.432128E+0	1.450300E+0	1.359203E+0	1.428108E+0	1.355692E+0	1.409503E+0	1.443350E+0	1.446848E+0	1.389302E+0	1.392426E+0	1.356046E+0	1.384111E+0	1.454946E+0	1.410246E+0	1.426944E+0	1.390255E+0	1.418370E+0	1.442331E+0	1.375486E+0	1.404839E+0	1.378752E+0	1.404848E+0	1.456150E+0	1.416504E+0	1.451679E+0	1.440089E+0	1.451973E+0	1.409126E+0	1.350483E+0	1.373352E+0	1.390014E+0	1.406114E+0	1.377042E+0	1.373970E+0	1.406884E+0	1.360732E+0	1.406994E+0	1.368256E+0	1.409135E+0	1.395371E+0	1.355382E+0	1.393665E+0	1.360731E+0	1.432430E+0	1.358367E+0	1.372109E+0	1.407299E+0	1.397616E+0	1.418611E+0	1.416455E+0	1.417533E+0	1.385980E+0	1.316926E+0	1.400460E+0	1.421369E+0	1.366624E+0	1.426495E+0	1.423742E+0	1.467319E+0	1.415458E+0
5.437640E+2	1.487639E+0	1.500520E+0	1.489043E+0	1.497672E+0	1.465226E+0	1.495222E+0	1.442637E+0	1.488748E+0	1.510329E+0	1.535086E+0	1.466251E+0	1.515121E+0	1.440853E+0	1.463004E+0	1.520603E+0	1.486127E+0	1.466672E+0	1.457702E+0	1.497565E+0	1.489070E+0	1.565076E+0	1.500176E+0	1.451291E+0	1.503367E+0	1.541929E+0	1.487495E+0	1.505210E+0	1.459663E+0	1.527540E+0	1.469292E+0	1.483730E+0	1.522359E+0	1.545120E+0	1.510268E+0	1.471380E+0	1.510780E+0	1.478961E+0	1.475854E+0	1.416329E+0	1.497045E+0	1.523950E+0	1.476322E+0	1.506484E+0	1.493090E+0	1.468460E+0	1.434371E+0	1.464803E+0	1.535308E+0	1.484502E+0	1.440408E+0	1.499774E+0	1.512214E+0	1.565605E+0	1.530372E+0	1.464232E+0	1.482869E+0	1.537472E+0	1.503186E+0	1.493549E+0	1.485622E+0	1.452433E+0	1.521334E+0	1.465133E+0	1.528030E+0	1.522811E+0	1.514042E+0	1.454298E+0	1.479764E+0	1.479476E+0	1.466729E+0	1.433459E+0	1.510739E+0	1.491941E+0	1.422151E+0	1.493019E+0	1.501993E+0	1.453295E+0	1.456758E+0	1.534681E+0	1.471929E+0	1.451406E+0	1.423332E+0	1.484313E+0	1.451923E+0	1.431996E+0	1.487545E+0	1.448070E+0	1.419464E+0	1.488714E+0	1.481264E+0	1.559924E+0	1.488640E+0	1.410481E+0	1.413680E+0	1.528320E+0	1.448645E+0	1.503152E+0	1.480263E+0	1.452992E+0	1.467911E+0	1.480499E+0	1.494198E+0	1.502477E+0	1.429452E+0	1.491268E+0	1.515469E+0	1.470040E+0	1.500631E+0	1.494282E+0	1.458008E+0	1.494835E+0	1.475557E+0	1.444685E+0	1.503475E+0	1.488909E+0	1.485274E+0	1.471788E+0	1.448236E+0	1.462361E+0	1.481001E+0	1.494573E+0	1.509784E+0	1.471421E+0	1.452326E+0	1.489743E+0	1.478181E+0	1.469565E+0	1.466409E+0	1.484305E+0	1.504186E+0	1.393108E+0	1.476746E+0	1.484725E+0	1.487165E+0	1.417639E+0	1.452977E+0	1.466793E+0	1.490564E+0	1.478163E+0	1.460963E+0	1.443658E+0	1.420893E+0	1.499435E+0	1.444537E+0	1.411315E+0	1.525044E+0	1.435332E+0	1.450397E+0	1.429553E+0	1.495616E+0	1.462302E+0	1.491971E+0	1.450553E+0	1.478471E+0	1.455620E+0	1.474947E+0	1.477038E+0	1.482415E+0	1.463030E+0	1.460237E+0	1.489183E+0	1.457407E+0	1.450210E+0	1.449297E+0	1.531925E+0	1.469739E+0	1.420382E+0	1.471944E+0	1.489997E+0	1.581225E+0
5.440170E+2	1.574136E+0	1.463183E+0	1.555592E+0	1.529092E+0	1.555874E+0	1.501088E+0	1.520568E+0	1.538841E+0	1.552123E+0	1.588801E+0	1.554014E+0	1.622944E+0	1.555178E+0	1.539659E+0	1.565394E+0	1.493899E+0	1.523752E+0	1.566272E+0	1.572508E+0	1.514971E+0	1.563713E+0	1.548910E+0	1.552868E+0	1.566923E+0	1.604928E+0	1.567342E+0	1.561099E+0	1.545262E+0	1.511390E+0	1.498006E+0	1.552632E+0	1.543209E+0	1.561992E+0	1.552354E+0	1.578920E+0	1.582357E+0	1.622296E+0	1.609249E+0	1.554342E+0	1.544186E+0	1.589498E+0	1.518830E+0	1.542482E+0	1.573642E+0	1.541040E+0	1.574669E+0	1.573174E+0	1.540950E+0	1.564775E+0	1.549118E+0	1.527119E+0	1.529132E+0	1.526349E+0	1.534971E+0	1.489911E+0	1.568960E+0	1.543904E+0	1.530324E+0	1.514857E+0	1.491041E+0	1.516463E+0	1.585519E+0	1.523725E+0	1.597603E+0	1.512132E+0	1.532437E+0	1.572444E+0	1.507522E+0	1.552959E+0	1.523340E+0	1.564012E+0	1.558921E+0	1.574673E+0	1.521900E+0	1.547550E+0	1.509555E+0	1.532067E+0	1.587322E+0	1.532715E+0	1.528886E+0	1.579821E+0	1.489230E+0	1.500347E+0	1.474013E+0	1.564048E+0	1.547060E+0	1.526578E+0	1.522870E+0	1.516184E+0	1.532914E+0	1.495408E+0	1.548810E+0	1.547903E+0	1.492910E+0	1.555586E+0	1.493967E+0	1.553241E+0	1.572425E+0	1.516445E+0	1.570198E+0	1.540526E+0	1.538743E+0	1.472621E+0	1.470183E+0	1.471216E+0	1.540052E+0	1.537305E+0	1.543752E+0	1.522753E+0	1.473255E+0	1.569978E+0	1.534760E+0	1.473107E+0	1.571858E+0	1.507939E+0	1.517306E+0	1.527750E+0	1.528983E+0	1.542306E+0	1.500667E+0	1.574294E+0	1.545216E+0	1.480506E+0	1.534326E+0	1.545646E+0	1.504861E+0	1.529183E+0	1.543943E+0	1.578248E+0	1.528858E+0	1.548679E+0	1.553742E+0	1.539108E+0	1.568473E+0	1.524813E+0	1.557283E+0	1.452766E+0	1.530380E+0	1.501267E+0	1.459837E+0	1.533210E+0	1.539513E+0	1.552786E+0	1.537063E+0	1.554737E+0	1.508475E+0	1.529868E+0	1.496761E+0	1.562077E+0	1.533454E+0	1.566553E+0	1.530262E+0	1.520927E+0	1.554194E+0	1.576406E+0	1.516913E+0	1.454861E+0	1.552361E+0	1.506295E+0	1.584184E+0	1.491793E+0	1.495157E+0	1.492310E+0	1.553816E+0	1.532019E+0	1.501476E+0	1.512547E+0	1.507062E+0	1.534973E+0	1.564290E+0
5.442810E+2	1.594228E+0	1.572037E+0	1.596152E+0	1.531074E+0	1.602102E+0	1.581412E+0	1.553239E+0	1.521724E+0	1.539989E+0	1.611926E+0	1.608026E+0	1.573462E+0	1.537358E+0	1.565604E+0	1.554670E+0	1.561316E+0	1.548079E+0	1.595518E+0	1.562502E+0	1.526113E+0	1.583161E+0	1.604976E+0	1.578327E+0	1.576031E+0	1.604869E+0	1.534273E+0	1.578150E+0	1.510613E+0	1.561482E+0	1.578082E+0	1.548077E+0	1.539083E+0	1.521801E+0	1.561447E+0	1.563506E+0	1.610501E+0	1.584054E+0	1.515217E+0	1.536976E+0	1.551511E+0	1.595929E+0	1.530986E+0	1.527665E+0	1.498540E+0	1.537108E+0	1.521271E+0	1.574942E+0	1.576087E+0	1.616031E+0	1.607191E+0	1.534989E+0	1.487845E+0	1.579716E+0	1.613454E+0	1.554139E+0	1.539101E+0	1.602266E+0	1.520920E+0	1.554588E+0	1.551652E+0	1.512570E+0	1.531537E+0	1.511021E+0	1.497071E+0	1.574066E+0	1.574382E+0	1.586710E+0	1.618139E+0	1.554300E+0	1.586630E+0	1.535275E+0	1.540339E+0	1.504334E+0	1.587395E+0	1.542935E+0	1.584512E+0	1.471872E+0	1.532191E+0	1.589345E+0	1.600463E+0	1.540416E+0	1.572690E+0	1.578040E+0	1.623511E+0	1.561181E+0	1.560980E+0	1.519580E+0	1.496499E+0	1.507804E+0	1.582183E+0	1.567313E+0	1.597361E+0	1.579092E+0	1.510262E+0	1.597358E+0	1.599853E+0	1.622627E+0	1.570802E+0	1.537626E+0	1.583549E+0	1.605152E+0	1.555516E+0	1.489325E+0	1.518343E+0	1.502221E+0	1.591316E+0	1.491993E+0	1.567732E+0	1.603083E+0	1.537194E+0	1.587496E+0	1.585328E+0	1.616127E+0	1.533764E+0	1.525999E+0	1.575165E+0	1.480634E+0	1.538666E+0	1.582204E+0	1.529641E+0	1.602682E+0	1.549335E+0	1.530360E+0	1.571963E+0	1.532018E+0	1.549595E+0	1.579309E+0	1.580082E+0	1.563050E+0	1.561003E+0	1.539890E+0	1.612360E+0	1.534650E+0	1.598056E+0	1.541873E+0	1.559172E+0	1.580608E+0	1.557903E+0	1.506267E+0	1.489842E+0	1.563260E+0	1.557433E+0	1.553851E+0	1.594378E+0	1.479997E+0	1.512116E+0	1.573854E+0	1.521061E+0	1.543207E+0	1.492912E+0	1.562449E+0	1.546197E+0	1.591200E+0	1.521427E+0	1.512415E+0	1.545456E+0	1.528617E+0	1.528222E+0	1.553452E+0	1.582159E+0	1.567006E+0	1.537351E+0	1.491337E+0	1.483344E+0	1.482207E+0	1.544286E+0	1.588457E+0	1.563932E+0	1.572491E+0	1.590466E+0
5.445180E+2	1.527597E+0	1.573396E+0	1.505552E+0	1.539000E+0	1.574307E+0	1.512386E+0	1.559667E+0	1.587795E+0	1.529458E+0	1.540202E+0	1.564238E+0	1.596148E+0	1.544820E+0	1.489459E+0	1.493353E+0	1.567782E+0	1.550652E+0	1.541777E+0	1.551715E+0	1.597005E+0	1.539812E+0	1.607618E+0	1.559397E+0	1.602944E+0	1.505018E+0	1.581924E+0	1.537378E+0	1.500492E+0	1.497872E+0	1.547494E+0	1.540795E+0	1.595287E+0	1.544211E+0	1.552099E+0	1.500090E+0	1.539944E+0	1.572516E+0	1.568801E+0	1.500614E+0	1.507602E+0	1.488945E+0	1.577658E+0	1.523330E+0	1.486201E+0	1.559509E+0	1.564703E+0	1.564089E+0	1.620153E+0	1.609550E+0	1.555729E+0	1.550848E+0	1.614586E+0	1.632795E+0	1.572246E+0	1.633406E+0	1.587883E+0	1.617872E+0	1.652551E+0	1.537296E+0	1.654628E+0	1.617199E+0	1.600614E+0	1.550389E+0	1.554961E+0	1.560491E+0	1.564057E+0	1.567447E+0	1.607117E+0	1.595058E+0	1.651174E+0	1.586194E+0	1.568987E+0	1.605501E+0	1.528338E+0	1.559353E+0	1.632387E+0	1.607282E+0	1.573470E+0	1.605720E+0	1.545328E+0	1.548278E+0	1.593063E+0	1.552935E+0	1.539857E+0	1.584644E+0	1.597986E+0	1.598905E+0	1.554327E+0	1.551624E+0	1.579683E+0	1.662875E+0	1.591880E+0	1.575757E+0	1.516742E+0	1.570627E+0	1.569460E+0	1.517500E+0	1.572087E+0	1.592376E+0	1.614784E+0	1.640027E+0	1.516715E+0	1.509606E+0	1.597925E+0	1.534321E+0	1.579604E+0	1.544992E+0	1.532940E+0	1.586864E+0	1.584307E+0	1.550242E+0	1.575622E+0	1.515582E+0	1.569294E+0	1.520116E+0	1.613082E+0	1.557804E+0	1.545730E+0	1.548534E+0	1.583494E+0	1.565076E+0	1.588969E+0	1.585174E+0	1.513438E+0	1.567952E+0	1.586339E+0	1.589040E+0	1.612845E+0	1.586721E+0	1.526308E+0	1.556064E+0	1.574548E+0	1.522665E+0	1.547198E+0	1.613297E+0	1.592764E+0	1.563855E+0	1.583344E+0	1.568874E+0	1.550179E+0	1.593720E+0	1.593079E+0	1.533582E+0	1.596948E+0	1.588220E+0	1.579828E+0	1.552730E+0	1.563612E+0	1.579149E+0	1.600229E+0	1.568669E+0	1.586747E+0	1.508721E+0	1.572663E+0	1.542605E+0	1.596519E+0	1.549655E+0	1.557085E+0	1.528316E+0	1.574915E+0	1.532787E+0	1.534333E+0	1.530094E+0	1.583872E+0	1.553279E+0	1.539093E+0	1.535951E+0	1.596968E+0	1.518206E+0	1.659673E+0
5.447720E+2	1.453045E+0	1.489197E+0	1.512417E+0	1.499393E+0	1.427465E+0	1.489119E+0	1.425593E+0	1.478490E+0	1.517983E+0	1.446612E+0	1.431330E+0	1.491522E+0	1.421087E+0	1.499667E+0	1.457757E+0	1.445989E+0	1.398209E+0	1.449432E+0	1.501702E+0	1.443527E+0	1.475009E+0	1.533124E+0	1.447048E+0	1.502229E+0	1.466442E+0	1.492752E+0	1.422851E+0	1.461587E+0	1.474848E+0	1.490864E+0	1.431347E+0	1.472242E+0	1.500974E+0	1.478163E+0	1.471362E+0	1.500582E+0	1.476749E+0	1.428480E+0	1.439180E+0	1.478898E+0	1.491510E+0	1.443162E+0	1.462042E+0	1.468364E+0	1.452939E+0	1.470048E+0	1.453997E+0	1.516407E+0	1.432039E+0	1.443540E+0	1.413046E+0	1.492962E+0	1.498187E+0	1.493340E+0	1.449563E+0	1.448866E+0	1.440390E+0	1.481232E+0	1.513320E+0	1.485736E+0	1.429255E+0	1.468670E+0	1.473011E+0	1.543236E+0	1.459284E+0	1.453817E+0	1.410210E+0	1.491836E+0	1.429473E+0	1.494478E+0	1.429954E+0	1.401731E+0	1.469770E+0	1.455941E+0	1.434929E+0	1.505031E+0	1.445420E+0	1.474401E+0	1.470836E+0	1.479923E+0	1.423437E+0	1.459789E+0	1.470500E+0	1.465150E+0	1.434512E+0	1.477331E+0	1.467768E+0	1.447973E+0	1.449350E+0	1.475240E+0	1.477035E+0	1.435928E+0	1.436065E+0	1.456631E+0	1.505223E+0	1.450054E+0	1.435569E+0	1.475823E+0	1.457130E+0	1.435718E+0	1.490650E+0	1.452118E+0	1.456108E+0	1.434887E+0	1.472363E+0	1.467684E+0	1.418016E+0	1.418295E+0	1.503421E+0	1.462479E+0	1.394443E+0	1.436143E+0	1.505269E+0	1.491189E+0	1.435557E+0	1.493896E+0	1.450890E+0	1.484591E+0	1.457251E+0	1.408794E+0	1.457954E+0	1.468508E+0	1.457040E+0	1.482249E+0	1.473697E+0	1.480303E+0	1.398322E+0	1.478276E+0	1.472084E+0	1.431778E+0	1.436628E+0	1.458922E+0	1.456249E+0	1.461456E+0	1.447960E+0	1.431305E+0	1.479210E+0	1.460418E+0	1.406251E+0	1.470601E+0	1.426982E+0	1.453553E+0	1.432031E+0	1.484198E+0	1.408232E+0	1.419893E+0	1.407243E+0	1.432434E+0	1.478634E+0	1.469300E+0	1.442940E+0	1.473435E+0	1.489375E+0	1.440479E+0	1.422612E+0	1.466815E+0	1.369743E+0	1.402129E+0	1.418157E+0	1.500606E+0	1.422290E+0	1.462251E+0	1.407104E+0	1.437827E+0	1.408983E+0	1.454902E+0	1.440386E+0	1.492000E+0	1.412624E+0	1.443671E+0
5.450090E+2	1.369654E+0	1.438670E+0	1.375603E+0	1.322258E+0	1.388391E+0	1.373056E+0	1.395353E+0	1.359408E+0	1.358537E+0	1.383561E+0	1.369681E+0	1.404184E+0	1.364493E+0	1.376265E+0	1.375828E+0	1.364713E+0	1.375353E+0	1.353226E+0	1.419727E+0	1.371812E+0	1.388132E+0	1.411242E+0	1.359042E+0	1.364061E+0	1.341311E+0	1.389829E+0	1.308725E+0	1.356668E+0	1.333677E+0	1.361652E+0	1.408795E+0	1.384320E+0	1.367736E+0	1.387175E+0	1.333462E+0	1.380658E+0	1.411355E+0	1.384123E+0	1.330847E+0	1.344715E+0	1.423633E+0	1.343317E+0	1.363950E+0	1.354726E+0	1.367985E+0	1.340794E+0	1.350760E+0	1.385091E+0	1.440935E+0	1.409384E+0	1.376907E+0	1.310006E+0	1.408349E+0	1.371626E+0	1.380539E+0	1.350063E+0	1.422528E+0	1.354541E+0	1.325324E+0	1.369506E+0	1.321498E+0	1.338027E+0	1.374429E+0	1.382968E+0	1.338169E+0	1.393615E+0	1.348466E+0	1.376219E+0	1.362828E+0	1.396153E+0	1.394258E+0	1.342459E+0	1.341393E+0	1.393249E+0	1.333720E+0	1.365515E+0	1.376026E+0	1.356548E+0	1.357749E+0	1.377926E+0	1.360451E+0	1.382952E+0	1.311928E+0	1.400542E+0	1.337891E+0	1.380600E+0	1.346004E+0	1.322341E+0	1.408560E+0	1.410947E+0	1.360876E+0	1.361904E+0	1.334481E+0	1.394586E+0	1.357729E+0	1.381988E+0	1.393476E+0	1.405915E+0	1.312980E+0	1.358426E+0	1.430584E+0	1.344674E+0	1.348824E+0	1.347769E+0	1.355304E+0	1.378010E+0	1.329504E+0	1.362986E+0	1.356368E+0	1.391407E+0	1.371471E+0	1.341782E+0	1.320154E+0	1.384526E+0	1.339938E+0	1.289808E+0	1.404074E+0	1.410233E+0	1.307479E+0	1.376742E+0	1.405243E+0	1.374020E+0	1.375032E+0	1.368484E+0	1.343521E+0	1.316128E+0	1.360139E+0	1.370544E+0	1.377766E+0	1.371143E+0	1.341947E+0	1.342478E+0	1.310982E+0	1.410722E+0	1.382618E+0	1.329714E+0	1.335175E+0	1.311617E+0	1.301940E+0	1.322941E+0	1.352878E+0	1.381923E+0	1.364672E+0	1.355347E+0	1.376470E+0	1.392105E+0	1.382764E+0	1.327504E+0	1.343382E+0	1.352304E+0	1.345673E+0	1.393652E+0	1.397384E+0	1.339718E+0	1.304061E+0	1.342832E+0	1.383984E+0	1.358159E+0	1.305905E+0	1.395292E+0	1.346889E+0	1.362229E+0	1.327565E+0	1.296181E+0	1.357355E+0	1.364417E+0	1.359024E+0	1.358676E+0	1.424970E+0	1.261523E+0
5.452910E+2	1.287127E+0	1.281085E+0	1.356364E+0	1.269406E+0	1.270030E+0	1.285412E+0	1.280067E+0	1.296568E+0	1.351973E+0	1.339051E+0	1.291077E+0	1.313335E+0	1.299800E+0	1.313712E+0	1.283613E+0	1.316178E+0	1.313870E+0	1.296709E+0	1.321573E+0	1.278485E+0	1.288685E+0	1.311851E+0	1.276349E+0	1.291160E+0	1.313992E+0	1.271009E+0	1.291718E+0	1.231218E+0	1.307963E+0	1.300365E+0	1.285451E+0	1.388908E+0	1.302627E+0	1.289156E+0	1.261841E+0	1.269318E+0	1.348953E+0	1.311397E+0	1.319652E+0	1.312508E+0	1.270819E+0	1.317314E+0	1.260639E+0	1.248535E+0	1.262530E+0	1.341293E+0	1.289425E+0	1.273219E+0	1.335946E+0	1.321640E+0	1.266194E+0	1.284351E+0	1.307915E+0	1.306508E+0	1.281901E+0	1.206424E+0	1.329342E+0	1.291190E+0	1.276127E+0	1.319052E+0	1.253376E+0	1.305046E+0	1.292314E+0	1.313742E+0	1.284026E+0	1.317450E+0	1.284472E+0	1.269209E+0	1.336399E+0	1.263381E+0	1.261274E+0	1.301548E+0	1.314567E+0	1.293666E+0	1.329232E+0	1.296486E+0	1.336283E+0	1.258986E+0	1.302589E+0	1.273044E+0	1.321838E+0	1.255743E+0	1.306025E+0	1.271476E+0	1.260110E+0	1.259944E+0	1.268669E+0	1.292639E+0	1.256011E+0	1.320539E+0	1.305949E+0	1.349923E+0	1.260464E+0	1.265609E+0	1.286940E+0	1.265988E+0	1.268394E+0	1.282055E+0	1.284650E+0	1.312108E+0	1.335549E+0	1.319702E+0	1.299310E+0	1.279221E+0	1.259873E+0	1.295882E+0	1.269049E+0	1.283601E+0	1.238795E+0	1.296714E+0	1.280938E+0	1.329171E+0	1.244659E+0	1.293227E+0	1.282211E+0	1.289542E+0	1.321309E+0	1.287919E+0	1.304439E+0	1.288348E+0	1.282499E+0	1.216208E+0	1.287894E+0	1.298690E+0	1.276935E+0	1.310284E+0	1.279460E+0	1.300186E+0	1.302188E+0	1.300317E+0	1.269876E+0	1.306943E+0	1.333304E+0	1.289717E+0	1.332220E+0	1.285502E+0	1.309779E+0	1.312605E+0	1.318971E+0	1.316639E+0	1.219938E+0	1.330943E+0	1.271108E+0	1.289568E+0	1.292612E+0	1.312145E+0	1.289892E+0	1.224177E+0	1.283342E+0	1.253206E+0	1.266470E+0	1.285019E+0	1.314965E+0	1.232908E+0	1.309387E+0	1.323815E+0	1.275323E+0	1.303371E+0	1.265319E+0	1.264331E+0	1.241705E+0	1.246591E+0	1.251000E+0	1.337685E+0	1.319024E+0	1.308078E+0	1.296975E+0	1.315124E+0	1.269917E+0	1.368272E+0
5.455070E+2	1.255789E+0	1.249651E+0	1.288807E+0	1.204947E+0	1.252919E+0	1.231525E+0	1.237262E+0	1.255497E+0	1.295638E+0	1.275046E+0	1.260063E+0	1.264204E+0	1.249405E+0	1.235226E+0	1.253706E+0	1.248450E+0	1.253973E+0	1.242749E+0	1.233950E+0	1.256709E+0	1.337431E+0	1.313838E+0	1.239969E+0	1.239997E+0	1.255674E+0	1.279064E+0	1.270810E+0	1.216755E+0	1.228155E+0	1.253962E+0	1.229777E+0	1.322205E+0	1.316008E+0	1.310107E+0	1.224734E+0	1.255254E+0	1.260089E+0	1.225603E+0	1.233885E+0	1.267439E+0	1.272090E+0	1.263148E+0	1.244474E+0	1.241952E+0	1.202694E+0	1.236917E+0	1.247297E+0	1.257870E+0	1.329295E+0	1.260791E+0	1.226438E+0	1.260968E+0	1.273962E+0	1.200367E+0	1.238596E+0	1.217738E+0	1.304114E+0	1.281791E+0	1.239286E+0	1.241090E+0	1.230133E+0	1.307730E+0	1.248055E+0	1.297754E+0	1.268126E+0	1.289065E+0	1.261304E+0	1.274895E+0	1.281730E+0	1.222037E+0	1.215315E+0	1.251580E+0	1.287648E+0	1.276297E+0	1.241631E+0	1.273680E+0	1.262468E+0	1.268818E+0	1.276841E+0	1.268309E+0	1.274626E+0	1.231877E+0	1.288462E+0	1.249224E+0	1.242717E+0	1.266969E+0	1.235148E+0	1.246341E+0	1.258070E+0	1.289961E+0	1.248683E+0	1.254260E+0	1.214123E+0	1.238471E+0	1.252960E+0	1.279963E+0	1.239594E+0	1.272140E+0	1.218047E+0	1.272820E+0	1.305571E+0	1.252721E+0	1.193579E+0	1.228176E+0	1.270966E+0	1.235792E+0	1.217420E+0	1.209955E+0	1.249363E+0	1.207949E+0	1.301018E+0	1.267663E+0	1.246336E+0	1.242556E+0	1.259938E+0	1.316978E+0	1.270907E+0	1.280577E+0	1.225915E+0	1.297395E+0	1.225119E+0	1.273051E+0	1.261700E+0	1.283273E+0	1.293338E+0	1.300597E+0	1.256417E+0	1.250734E+0	1.238045E+0	1.284077E+0	1.199803E+0	1.201846E+0	1.271535E+0	1.246878E+0	1.258381E+0	1.268105E+0	1.275334E+0	1.244288E+0	1.243953E+0	1.184188E+0	1.287061E+0	1.268002E+0	1.263674E+0	1.277911E+0	1.243384E+0	1.280072E+0	1.226523E+0	1.247181E+0	1.267693E+0	1.280934E+0	1.271122E+0	1.266528E+0	1.256804E+0	1.241858E+0	1.241546E+0	1.258813E+0	1.229520E+0	1.218950E+0	1.192957E+0	1.282349E+0	1.294231E+0	1.247811E+0	1.243428E+0	1.247709E+0	1.250585E+0	1.227402E+0	1.194185E+0	1.248152E+0	1.324054E+0	1.371467E+0
5.457720E+2	1.151794E+0	1.195801E+0	1.268562E+0	1.160915E+0	1.170787E+0	1.235753E+0	1.184426E+0	1.165394E+0	1.246555E+0	1.211148E+0	1.153137E+0	1.165286E+0	1.222508E+0	1.205188E+0	1.182891E+0	1.189794E+0	1.163729E+0	1.225284E+0	1.230170E+0	1.157025E+0	1.181674E+0	1.183095E+0	1.164563E+0	1.174626E+0	1.217351E+0	1.260317E+0	1.221030E+0	1.166437E+0	1.208930E+0	1.183008E+0	1.133032E+0	1.230082E+0	1.249438E+0	1.216345E+0	1.195355E+0	1.170725E+0	1.245441E+0	1.203436E+0	1.202339E+0	1.177623E+0	1.231950E+0	1.191635E+0	1.161602E+0	1.168047E+0	1.142062E+0	1.193226E+0	1.197818E+0	1.208694E+0	1.237435E+0	1.177688E+0	1.166396E+0	1.180374E+0	1.229215E+0	1.186290E+0	1.163947E+0	1.167717E+0	1.220468E+0	1.225100E+0	1.173488E+0	1.180189E+0	1.141886E+0	1.217708E+0	1.207989E+0	1.202740E+0	1.219023E+0	1.239085E+0	1.189643E+0	1.170208E+0	1.191129E+0	1.157273E+0	1.162585E+0	1.187786E+0	1.201517E+0	1.159655E+0	1.177241E+0	1.198328E+0	1.179683E+0	1.166264E+0	1.205390E+0	1.165424E+0	1.215526E+0	1.207375E+0	1.198789E+0	1.195827E+0	1.167669E+0	1.193402E+0	1.131819E+0	1.172050E+0	1.163745E+0	1.159078E+0	1.178509E+0	1.235622E+0	1.167367E+0	1.184865E+0	1.197212E+0	1.211199E+0	1.212571E+0	1.181472E+0	1.156482E+0	1.145802E+0	1.221557E+0	1.195595E+0	1.169563E+0	1.166676E+0	1.127767E+0	1.161718E+0	1.118125E+0	1.212719E+0	1.205204E+0	1.183568E+0	1.166112E+0	1.188251E+0	1.165111E+0	1.170306E+0	1.161932E+0	1.137478E+0	1.223063E+0	1.240331E+0	1.160186E+0	1.229252E+0	1.204101E+0	1.178728E+0	1.191589E+0	1.191886E+0	1.199352E+0	1.245123E+0	1.206991E+0	1.173354E+0	1.185269E+0	1.195199E+0	1.232612E+0	1.208319E+0	1.134869E+0	1.146767E+0	1.181859E+0	1.198030E+0	1.234344E+0	1.173533E+0	1.148713E+0	1.202702E+0	1.187835E+0	1.188511E+0	1.146966E+0	1.183926E+0	1.179865E+0	1.171739E+0	1.209113E+0	1.208464E+0	1.232936E+0	1.185698E+0	1.163990E+0	1.209553E+0	1.210109E+0	1.187935E+0	1.174668E+0	1.219148E+0	1.186735E+0	1.168084E+0	1.135334E+0	1.236449E+0	1.176007E+0	1.147439E+0	1.163398E+0	1.144131E+0	1.172176E+0	1.186023E+0	1.141287E+0	1.193944E+0	1.283591E+0	1.262705E+0
5.460160E+2	1.129064E+0	1.206599E+0	1.148836E+0	1.127379E+0	1.155201E+0	1.162599E+0	1.152271E+0	1.152231E+0	1.190743E+0	1.182735E+0	1.140397E+0	1.149326E+0	1.145177E+0	1.138939E+0	1.184491E+0	1.184829E+0	1.179013E+0	1.140705E+0	1.188184E+0	1.191889E+0	1.199955E+0	1.256312E+0	1.128760E+0	1.179332E+0	1.165238E+0	1.184462E+0	1.185806E+0	1.169861E+0	1.187762E+0	1.142858E+0	1.193033E+0	1.158956E+0	1.182887E+0	1.182971E+0	1.159978E+0	1.151109E+0	1.192159E+0	1.175287E+0	1.170249E+0	1.192009E+0	1.179470E+0	1.218993E+0	1.186842E+0	1.131101E+0	1.145461E+0	1.174153E+0	1.174686E+0	1.124205E+0	1.166547E+0	1.151978E+0	1.205414E+0	1.172346E+0	1.186531E+0	1.162312E+0	1.168835E+0	1.156556E+0	1.182635E+0	1.188440E+0	1.164728E+0	1.185495E+0	1.150914E+0	1.197192E+0	1.214260E+0	1.156394E+0	1.190731E+0	1.174186E+0	1.153292E+0	1.139576E+0	1.232220E+0	1.142785E+0	1.121759E+0	1.151313E+0	1.163326E+0	1.155312E+0	1.178777E+0	1.195053E+0	1.173634E+0	1.120431E+0	1.162164E+0	1.133076E+0	1.159286E+0	1.156966E+0	1.159982E+0	1.122150E+0	1.175045E+0	1.238585E+0	1.113136E+0	1.159536E+0	1.175576E+0	1.161422E+0	1.128678E+0	1.150581E+0	1.164226E+0	1.149932E+0	1.152005E+0	1.173572E+0	1.242636E+0	1.159923E+0	1.139604E+0	1.138292E+0	1.179749E+0	1.175483E+0	1.157466E+0	1.144041E+0	1.123150E+0	1.161930E+0	1.123410E+0	1.157052E+0	1.168489E+0	1.164377E+0	1.198078E+0	1.165683E+0	1.177409E+0	1.244785E+0	1.140072E+0	1.165850E+0	1.190790E+0	1.201518E+0	1.185418E+0	1.186678E+0	1.149557E+0	1.171627E+0	1.179971E+0	1.160555E+0	1.216957E+0	1.206753E+0	1.149251E+0	1.171001E+0	1.197593E+0	1.174389E+0	1.163460E+0	1.177530E+0	1.137425E+0	1.151949E+0	1.174828E+0	1.196274E+0	1.166704E+0	1.185048E+0	1.111089E+0	1.207178E+0	1.186130E+0	1.128421E+0	1.170970E+0	1.157957E+0	1.192884E+0	1.204598E+0	1.136442E+0	1.160178E+0	1.169118E+0	1.138432E+0	1.148412E+0	1.116075E+0	1.169431E+0	1.097171E+0	1.167897E+0	1.188956E+0	1.133969E+0	1.186296E+0	1.184212E+0	1.195648E+0	1.178313E+0	1.155919E+0	1.174040E+0	1.168112E+0	1.128535E+0	1.109420E+0	1.158369E+0	1.131894E+0	1.179278E+0	1.165651E+0
5.467660E+2	1.224482E+0	1.266700E+0	1.241622E+0	1.239595E+0	1.230802E+0	1.241263E+0	1.237926E+0	1.258744E+0	1.219458E+0	1.235570E+0	1.218658E+0	1.239329E+0	1.265928E+0	1.262012E+0	1.260976E+0	1.232542E+0	1.280573E+0	1.295105E+0	1.201721E+0	1.229816E+0	1.291133E+0	1.284066E+0	1.256038E+0	1.203268E+0	1.242031E+0	1.263629E+0	1.309805E+0	1.279630E+0	1.226356E+0	1.283079E+0	1.262026E+0	1.290837E+0	1.266713E+0	1.229319E+0	1.232738E+0	1.255580E+0	1.297919E+0	1.300121E+0	1.276841E+0	1.230841E+0	1.255874E+0	1.313609E+0	1.207439E+0	1.223287E+0	1.247454E+0	1.333560E+0	1.209136E+0	1.225437E+0	1.275380E+0	1.205388E+0	1.191095E+0	1.207560E+0	1.244950E+0	1.277759E+0	1.235936E+0	1.240084E+0	1.261231E+0	1.264869E+0	1.246389E+0	1.270876E+0	1.237300E+0	1.263561E+0	1.263068E+0	1.261504E+0	1.250523E+0	1.305637E+0	1.282100E+0	1.234679E+0	1.275093E+0	1.272774E+0	1.247426E+0	1.238257E+0	1.272971E+0	1.259417E+0	1.229811E+0	1.206959E+0	1.241350E+0	1.232958E+0	1.305885E+0	1.272182E+0	1.268694E+0	1.253156E+0	1.245592E+0	1.237277E+0	1.248550E+0	1.269156E+0	1.256342E+0	1.213016E+0	1.281511E+0	1.256691E+0	1.241657E+0	1.224935E+0	1.204369E+0	1.278998E+0	1.254259E+0	1.194979E+0	1.288730E+0	1.221827E+0	1.271981E+0	1.231771E+0	1.273772E+0	1.268824E+0	1.206535E+0	1.221393E+0	1.290685E+0	1.252025E+0	1.254855E+0	1.211153E+0	1.268828E+0	1.237757E+0	1.274538E+0	1.258052E+0	1.312146E+0	1.230142E+0	1.228047E+0	1.199827E+0	1.236765E+0	1.305549E+0	1.214547E+0	1.264452E+0	1.286341E+0	1.224662E+0	1.220733E+0	1.295239E+0	1.253476E+0	1.278941E+0	1.234779E+0	1.301576E+0	1.243221E+0	1.260488E+0	1.226192E+0	1.267552E+0	1.298123E+0	1.196545E+0	1.281809E+0	1.233464E+0	1.262426E+0	1.247779E+0	1.221493E+0	1.215664E+0	1.252773E+0	1.281985E+0	1.240146E+0	1.229698E+0	1.275578E+0	1.276697E+0	1.178357E+0	1.197171E+0	1.258496E+0	1.232698E+0	1.212322E+0	1.279328E+0	1.280246E+0	1.268501E+0	1.217982E+0	1.203434E+0	1.206840E+0	1.246102E+0	1.236594E+0	1.237681E+0	1.236074E+0	1.214100E+0	1.244378E+0	1.250622E+0	1.229484E+0	1.226643E+0	1.270849E+0	1.250009E+0	1.286846E+0	1.275055E+0
5.475180E+2	1.286008E+0	1.301368E+0	1.427003E+0	1.349599E+0	1.355661E+0	1.337975E+0	1.301125E+0	1.392731E+0	1.324187E+0	1.409391E+0	1.267514E+0	1.304573E+0	1.305336E+0	1.369258E+0	1.326082E+0	1.288121E+0	1.300803E+0	1.405181E+0	1.335397E+0	1.301428E+0	1.357237E+0	1.359107E+0	1.330940E+0	1.304143E+0	1.318348E+0	1.379953E+0	1.343727E+0	1.330709E+0	1.311254E+0	1.374688E+0	1.335517E+0	1.358400E+0	1.329989E+0	1.331699E+0	1.284333E+0	1.336775E+0	1.355383E+0	1.319071E+0	1.309179E+0	1.302474E+0	1.386947E+0	1.347754E+0	1.365306E+0	1.290887E+0	1.366741E+0	1.336321E+0	1.375355E+0	1.349659E+0	1.308087E+0	1.308838E+0	1.322883E+0	1.295854E+0	1.364864E+0	1.353364E+0	1.301010E+0	1.331816E+0	1.354112E+0	1.363234E+0	1.286829E+0	1.289528E+0	1.303732E+0	1.371357E+0	1.352446E+0	1.351996E+0	1.294908E+0	1.377285E+0	1.365404E+0	1.379312E+0	1.333345E+0	1.374794E+0	1.360903E+0	1.322101E+0	1.354959E+0	1.334684E+0	1.340595E+0	1.282735E+0	1.335220E+0	1.347813E+0	1.357740E+0	1.343943E+0	1.391854E+0	1.323327E+0	1.311156E+0	1.303899E+0	1.340107E+0	1.364170E+0	1.274204E+0	1.315934E+0	1.329288E+0	1.349799E+0	1.322833E+0	1.351299E+0	1.305892E+0	1.283344E+0	1.372650E+0	1.298672E+0	1.371356E+0	1.375559E+0	1.272701E+0	1.330689E+0	1.380679E+0	1.338000E+0	1.357897E+0	1.262309E+0	1.347302E+0	1.325507E+0	1.333839E+0	1.297075E+0	1.367708E+0	1.351100E+0	1.305192E+0	1.343267E+0	1.387613E+0	1.375900E+0	1.316831E+0	1.290430E+0	1.341392E+0	1.372283E+0	1.327698E+0	1.355778E+0	1.307222E+0	1.368134E+0	1.333991E+0	1.319279E+0	1.308803E+0	1.348007E+0	1.324517E+0	1.325025E+0	1.345392E+0	1.358911E+0	1.313104E+0	1.386522E+0	1.332638E+0	1.346929E+0	1.275565E+0	1.284503E+0	1.271729E+0	1.433156E+0	1.312514E+0	1.279089E+0	1.391983E+0	1.364955E+0	1.319948E+0	1.337809E+0	1.361525E+0	1.354267E+0	1.323914E+0	1.306684E+0	1.329406E+0	1.334295E+0	1.351409E+0	1.310306E+0	1.362924E+0	1.339891E+0	1.359333E+0	1.330000E+0	1.332745E+0	1.323832E+0	1.278817E+0	1.296913E+0	1.396895E+0	1.321507E+0	1.301234E+0	1.240965E+0	1.331400E+0	1.268260E+0	1.316149E+0	1.348262E+0	1.471389E+0	1.319857E+0
5.482980E+2	1.456080E+0	1.433456E+0	1.441587E+0	1.449043E+0	1.418647E+0	1.427343E+0	1.388039E+0	1.388406E+0	1.423363E+0	1.405707E+0	1.426406E+0	1.406092E+0	1.400877E+0	1.400526E+0	1.433405E+0	1.429940E+0	1.441011E+0	1.382478E+0	1.416160E+0	1.432829E+0	1.467888E+0	1.429521E+0	1.391836E+0	1.412330E+0	1.428559E+0	1.427587E+0	1.428493E+0	1.327656E+0	1.364107E+0	1.421790E+0	1.399810E+0	1.410882E+0	1.400322E+0	1.409256E+0	1.400982E+0	1.399767E+0	1.437277E+0	1.417251E+0	1.397246E+0	1.405236E+0	1.369089E+0	1.426754E+0	1.423830E+0	1.353845E+0	1.400028E+0	1.355815E+0	1.414745E+0	1.428883E+0	1.406802E+0	1.425337E+0	1.392582E+0	1.391898E+0	1.449036E+0	1.408185E+0	1.396736E+0	1.389732E+0	1.423484E+0	1.428236E+0	1.411140E+0	1.375735E+0	1.434112E+0	1.430306E+0	1.424093E+0	1.402416E+0	1.461893E+0	1.395294E+0	1.363299E+0	1.409566E+0	1.408117E+0	1.391150E+0	1.404877E+0	1.400883E+0	1.396213E+0	1.360717E+0	1.418998E+0	1.435727E+0	1.425151E+0	1.358814E+0	1.452798E+0	1.392000E+0	1.401428E+0	1.387880E+0	1.392408E+0	1.373096E+0	1.410619E+0	1.384819E+0	1.366147E+0	1.411849E+0	1.418228E+0	1.440832E+0	1.416019E+0	1.379533E+0	1.383525E+0	1.409683E+0	1.443044E+0	1.395045E+0	1.426476E+0	1.405029E+0	1.338262E+0	1.359226E+0	1.417261E+0	1.467575E+0	1.354222E+0	1.428985E+0	1.369054E+0	1.414482E+0	1.428741E+0	1.375711E+0	1.430938E+0	1.420961E+0	1.392117E+0	1.439846E+0	1.432335E+0	1.441963E+0	1.414827E+0	1.431135E+0	1.437934E+0	1.366287E+0	1.423662E+0	1.367537E+0	1.391078E+0	1.435651E+0	1.350522E+0	1.361360E+0	1.375745E+0	1.445172E+0	1.380043E+0	1.356647E+0	1.373630E+0	1.317245E+0	1.405876E+0	1.305596E+0	1.375123E+0	1.408119E+0	1.366615E+0	1.440334E+0	1.395987E+0	1.423079E+0	1.362104E+0	1.416669E+0	1.391411E+0	1.403958E+0	1.359814E+0	1.366721E+0	1.383667E+0	1.422783E+0	1.365391E+0	1.363566E+0	1.458948E+0	1.405297E+0	1.387875E+0	1.362835E+0	1.347192E+0	1.377809E+0	1.361689E+0	1.367797E+0	1.411123E+0	1.387879E+0	1.386892E+0	1.428437E+0	1.427928E+0	1.394754E+0	1.346175E+0	1.327073E+0	1.405758E+0	1.421223E+0	1.375295E+0	1.332615E+0	1.408773E+0	1.390165E+0
5.490210E+2	1.408577E+0	1.387791E+0	1.428037E+0	1.377279E+0	1.420659E+0	1.377710E+0	1.393213E+0	1.442598E+0	1.402021E+0	1.424381E+0	1.393616E+0	1.411177E+0	1.399461E+0	1.422116E+0	1.364695E+0	1.332346E+0	1.360074E+0	1.349432E+0	1.399150E+0	1.332455E+0	1.399909E+0	1.428503E+0	1.371069E+0	1.402800E+0	1.398211E+0	1.369318E+0	1.389237E+0	1.392144E+0	1.346803E+0	1.353151E+0	1.456203E+0	1.398064E+0	1.440024E+0	1.427512E+0	1.391730E+0	1.405551E+0	1.397030E+0	1.358519E+0	1.406913E+0	1.354988E+0	1.437678E+0	1.404592E+0	1.376377E+0	1.342356E+0	1.434549E+0	1.365092E+0	1.397541E+0	1.394568E+0	1.387605E+0	1.341564E+0	1.386235E+0	1.330564E+0	1.363637E+0	1.353043E+0	1.410325E+0	1.381422E+0	1.377126E+0	1.356931E+0	1.330110E+0	1.400660E+0	1.336835E+0	1.384940E+0	1.404123E+0	1.394796E+0	1.406592E+0	1.355164E+0	1.420217E+0	1.374265E+0	1.378270E+0	1.416535E+0	1.343303E+0	1.350283E+0	1.447920E+0	1.361581E+0	1.332355E+0	1.396202E+0	1.411942E+0	1.372413E+0	1.397223E+0	1.371076E+0	1.378369E+0	1.384226E+0	1.385190E+0	1.375016E+0	1.388114E+0	1.362689E+0	1.335907E+0	1.362214E+0	1.402069E+0	1.382032E+0	1.379930E+0	1.380017E+0	1.430053E+0	1.389357E+0	1.397961E+0	1.415139E+0	1.419245E+0	1.404196E+0	1.396819E+0	1.341268E+0	1.430134E+0	1.396344E+0	1.319470E+0	1.394874E+0	1.351418E+0	1.426785E+0	1.400611E+0	1.354065E+0	1.400179E+0	1.351553E+0	1.374082E+0	1.427518E+0	1.360637E+0	1.419490E+0	1.359816E+0	1.297270E+0	1.406722E+0	1.413339E+0	1.332822E+0	1.369977E+0	1.398063E+0	1.392475E+0	1.419939E+0	1.329727E+0	1.446093E+0	1.363709E+0	1.347348E+0	1.360734E+0	1.388786E+0	1.323048E+0	1.368100E+0	1.357812E+0	1.391644E+0	1.404075E+0	1.417649E+0	1.351591E+0	1.406316E+0	1.339824E+0	1.368144E+0	1.348445E+0	1.382562E+0	1.372325E+0	1.378301E+0	1.418993E+0	1.417048E+0	1.382986E+0	1.322695E+0	1.312695E+0	1.351708E+0	1.353007E+0	1.387799E+0	1.428161E+0	1.356186E+0	1.375057E+0	1.395014E+0	1.401106E+0	1.360927E+0	1.340454E+0	1.318942E+0	1.357319E+0	1.421793E+0	1.337299E+0	1.385243E+0	1.342458E+0	1.419769E+0	1.336422E+0	1.362205E+0	1.390383E+0	1.338105E+0	1.304148E+0
5.497630E+2	1.331468E+0	1.376627E+0	1.319362E+0	1.312798E+0	1.315854E+0	1.327099E+0	1.315680E+0	1.391130E+0	1.371850E+0	1.364445E+0	1.278461E+0	1.296128E+0	1.324922E+0	1.341163E+0	1.338268E+0	1.323671E+0	1.340420E+0	1.353669E+0	1.389533E+0	1.286223E+0	1.357063E+0	1.394360E+0	1.298681E+0	1.326577E+0	1.310767E+0	1.362662E+0	1.293496E+0	1.310187E+0	1.370220E+0	1.292521E+0	1.325880E+0	1.321184E+0	1.377593E+0	1.334269E+0	1.359603E+0	1.328524E+0	1.330402E+0	1.356871E+0	1.296102E+0	1.363711E+0	1.357236E+0	1.351586E+0	1.352300E+0	1.255321E+0	1.354264E+0	1.355589E+0	1.339171E+0	1.318713E+0	1.324894E+0	1.289204E+0	1.316163E+0	1.320671E+0	1.349339E+0	1.337385E+0	1.349713E+0	1.334718E+0	1.363196E+0	1.353894E+0	1.303807E+0	1.389268E+0	1.311244E+0	1.336981E+0	1.375287E+0	1.352122E+0	1.327122E+0	1.360207E+0	1.338318E+0	1.320652E+0	1.316802E+0	1.322440E+0	1.298735E+0	1.311409E+0	1.316154E+0	1.307870E+0	1.301107E+0	1.323622E+0	1.316674E+0	1.291084E+0	1.330179E+0	1.350997E+0	1.317292E+0	1.326104E+0	1.318309E+0	1.337930E+0	1.325526E+0	1.393290E+0	1.317687E+0	1.322515E+0	1.321581E+0	1.332524E+0	1.320687E+0	1.361340E+0	1.341812E+0	1.336373E+0	1.293598E+0	1.326600E+0	1.292703E+0	1.313445E+0	1.340350E+0	1.289976E+0	1.413274E+0	1.321243E+0	1.299130E+0	1.379504E+0	1.400506E+0	1.358414E+0	1.325772E+0	1.318697E+0	1.396542E+0	1.273140E+0	1.386637E+0	1.361877E+0	1.314781E+0	1.308993E+0	1.302328E+0	1.351311E+0	1.343669E+0	1.286193E+0	1.286386E+0	1.298952E+0	1.350388E+0	1.339092E+0	1.330777E+0	1.313769E+0	1.365598E+0	1.313661E+0	1.307811E+0	1.321186E+0	1.327981E+0	1.311189E+0	1.318410E+0	1.287672E+0	1.343009E+0	1.303896E+0	1.335097E+0	1.293179E+0	1.354018E+0	1.341627E+0	1.281466E+0	1.334730E+0	1.327321E+0	1.381426E+0	1.274375E+0	1.293819E+0	1.324216E+0	1.352441E+0	1.321538E+0	1.334300E+0	1.326530E+0	1.331259E+0	1.330120E+0	1.326688E+0	1.283164E+0	1.332073E+0	1.300401E+0	1.328041E+0	1.289657E+0	1.318653E+0	1.300076E+0	1.300931E+0	1.333700E+0	1.281619E+0	1.281491E+0	1.298089E+0	1.336297E+0	1.251813E+0	1.309681E+0	1.391560E+0	1.312063E+0	1.414792E+0
5.505110E+2	1.278789E+0	1.294985E+0	1.349850E+0	1.255769E+0	1.293441E+0	1.339786E+0	1.239604E+0	1.319147E+0	1.269561E+0	1.332664E+0	1.264507E+0	1.303133E+0	1.301190E+0	1.316403E+0	1.320098E+0	1.296889E+0	1.289086E+0	1.302931E+0	1.322781E+0	1.308395E+0	1.297545E+0	1.337024E+0	1.286856E+0	1.297274E+0	1.268268E+0	1.347864E+0	1.302291E+0	1.267471E+0	1.292193E+0	1.318065E+0	1.285810E+0	1.331205E+0	1.281011E+0	1.348678E+0	1.396287E+0	1.349749E+0	1.265277E+0	1.293335E+0	1.349924E+0	1.324773E+0	1.317318E+0	1.350481E+0	1.277537E+0	1.287705E+0	1.311714E+0	1.351669E+0	1.305236E+0	1.324992E+0	1.254261E+0	1.298238E+0	1.329506E+0	1.326041E+0	1.338113E+0	1.310426E+0	1.286467E+0	1.262218E+0	1.318793E+0	1.329841E+0	1.328904E+0	1.298258E+0	1.270288E+0	1.312522E+0	1.328872E+0	1.306371E+0	1.326841E+0	1.287741E+0	1.276635E+0	1.251751E+0	1.319705E+0	1.277689E+0	1.267035E+0	1.303916E+0	1.339437E+0	1.261040E+0	1.314680E+0	1.299865E+0	1.290884E+0	1.274490E+0	1.315261E+0	1.236718E+0	1.284883E+0	1.338145E+0	1.259792E+0	1.291241E+0	1.343422E+0	1.353180E+0	1.298595E+0	1.268920E+0	1.324541E+0	1.285668E+0	1.319371E+0	1.319498E+0	1.301071E+0	1.249397E+0	1.328899E+0	1.283598E+0	1.293218E+0	1.328605E+0	1.244962E+0	1.274906E+0	1.366395E+0	1.299206E+0	1.304830E+0	1.315069E+0	1.326688E+0	1.259046E+0	1.322515E+0	1.324070E+0	1.314904E+0	1.301053E+0	1.317582E+0	1.297966E+0	1.334881E+0	1.313086E+0	1.305919E+0	1.246596E+0	1.295131E+0	1.280629E+0	1.358792E+0	1.310508E+0	1.353879E+0	1.358669E+0	1.300597E+0	1.232850E+0	1.279912E+0	1.311459E+0	1.294743E+0	1.301052E+0	1.317803E+0	1.318413E+0	1.256257E+0	1.298456E+0	1.299641E+0	1.289125E+0	1.285427E+0	1.307743E+0	1.323548E+0	1.261114E+0	1.231246E+0	1.269460E+0	1.309448E+0	1.323500E+0	1.281290E+0	1.296644E+0	1.327530E+0	1.335374E+0	1.255421E+0	1.264012E+0	1.291990E+0	1.275697E+0	1.294803E+0	1.272662E+0	1.352665E+0	1.318168E+0	1.252634E+0	1.281932E+0	1.245571E+0	1.276737E+0	1.279894E+0	1.302322E+0	1.346008E+0	1.299325E+0	1.258495E+0	1.290849E+0	1.319494E+0	1.235134E+0	1.312599E+0	1.256944E+0	1.285544E+0	1.314480E+0
5.512620E+2	1.283540E+0	1.325669E+0	1.357986E+0	1.259448E+0	1.259279E+0	1.315174E+0	1.260176E+0	1.387827E+0	1.300514E+0	1.312336E+0	1.249075E+0	1.371561E+0	1.327051E+0	1.268833E+0	1.269217E+0	1.305583E+0	1.250558E+0	1.336254E+0	1.348893E+0	1.294153E+0	1.303576E+0	1.286680E+0	1.309129E+0	1.347829E+0	1.365337E+0	1.326351E+0	1.309334E+0	1.291803E+0	1.338054E+0	1.272360E+0	1.275860E+0	1.326575E+0	1.298309E+0	1.315670E+0	1.313770E+0	1.317376E+0	1.336137E+0	1.358652E+0	1.309568E+0	1.307316E+0	1.297614E+0	1.268278E+0	1.317806E+0	1.248918E+0	1.350247E+0	1.366913E+0	1.285399E+0	1.271525E+0	1.312525E+0	1.324603E+0	1.285563E+0	1.306213E+0	1.357589E+0	1.326470E+0	1.281220E+0	1.311048E+0	1.275952E+0	1.321196E+0	1.342888E+0	1.275513E+0	1.279431E+0	1.296962E+0	1.318167E+0	1.326949E+0	1.263754E+0	1.311518E+0	1.336283E+0	1.249571E+0	1.350836E+0	1.327703E+0	1.293067E+0	1.292621E+0	1.309288E+0	1.280353E+0	1.287897E+0	1.312932E+0	1.296542E+0	1.286056E+0	1.322588E+0	1.308312E+0	1.268058E+0	1.325433E+0	1.344632E+0	1.319240E+0	1.294684E+0	1.309853E+0	1.293893E+0	1.322029E+0	1.292535E+0	1.325077E+0	1.273191E+0	1.278073E+0	1.263255E+0	1.268064E+0	1.278809E+0	1.296659E+0	1.241407E+0	1.319042E+0	1.264299E+0	1.356858E+0	1.295776E+0	1.312195E+0	1.305456E+0	1.272026E+0	1.318854E+0	1.361429E+0	1.260273E+0	1.311316E+0	1.348645E+0	1.296509E+0	1.309474E+0	1.336133E+0	1.307050E+0	1.299008E+0	1.294457E+0	1.292516E+0	1.322088E+0	1.336146E+0	1.261056E+0	1.301313E+0	1.251023E+0	1.325716E+0	1.256108E+0	1.270192E+0	1.314597E+0	1.278232E+0	1.274769E+0	1.293362E+0	1.293560E+0	1.293420E+0	1.285182E+0	1.278883E+0	1.314101E+0	1.328005E+0	1.300071E+0	1.292786E+0	1.321652E+0	1.327848E+0	1.287957E+0	1.271079E+0	1.334846E+0	1.294544E+0	1.274544E+0	1.319325E+0	1.253686E+0	1.326012E+0	1.295274E+0	1.331520E+0	1.284545E+0	1.261441E+0	1.353948E+0	1.250447E+0	1.299945E+0	1.319658E+0	1.276754E+0	1.327224E+0	1.279965E+0	1.307778E+0	1.262716E+0	1.306418E+0	1.305370E+0	1.291769E+0	1.244917E+0	1.216851E+0	1.323302E+0	1.323066E+0	1.267680E+0	1.335223E+0	1.363881E+0	1.281978E+0
5.520150E+2	1.330758E+0	1.295050E+0	1.331121E+0	1.278527E+0	1.310161E+0	1.319916E+0	1.262416E+0	1.298417E+0	1.301456E+0	1.353781E+0	1.303630E+0	1.306887E+0	1.296877E+0	1.325628E+0	1.280584E+0	1.284154E+0	1.266347E+0	1.302595E+0	1.371582E+0	1.304283E+0	1.266460E+0	1.301024E+0	1.313902E+0	1.291686E+0	1.292596E+0	1.337073E+0	1.369886E+0	1.262631E+0	1.304110E+0	1.327942E+0	1.306753E+0	1.331223E+0	1.349205E+0	1.312729E+0	1.298445E+0	1.310452E+0	1.322815E+0	1.319908E+0	1.321749E+0	1.310367E+0	1.280857E+0	1.289542E+0	1.304277E+0	1.311137E+0	1.286559E+0	1.284230E+0	1.292293E+0	1.302872E+0	1.361103E+0	1.266313E+0	1.302258E+0	1.278713E+0	1.357013E+0	1.297275E+0	1.336792E+0	1.300905E+0	1.338127E+0	1.347650E+0	1.336003E+0	1.275981E+0	1.272170E+0	1.297395E+0	1.324404E+0	1.302303E+0	1.328638E+0	1.313792E+0	1.276997E+0	1.259639E+0	1.288711E+0	1.341941E+0	1.305513E+0	1.285855E+0	1.264641E+0	1.308586E+0	1.258158E+0	1.350595E+0	1.290829E+0	1.319700E+0	1.332467E+0	1.298082E+0	1.324108E+0	1.325793E+0	1.254342E+0	1.275122E+0	1.278793E+0	1.318654E+0	1.303530E+0	1.266613E+0	1.274034E+0	1.312068E+0	1.274865E+0	1.309033E+0	1.321621E+0	1.247504E+0	1.333509E+0	1.300464E+0	1.309683E+0	1.314711E+0	1.331248E+0	1.288315E+0	1.302954E+0	1.354539E+0	1.299511E+0	1.290560E+0	1.237600E+0	1.371483E+0	1.252992E+0	1.255907E+0	1.298762E+0	1.270328E+0	1.289186E+0	1.317896E+0	1.301913E+0	1.348022E+0	1.280634E+0	1.265359E+0	1.332465E+0	1.346869E+0	1.315187E+0	1.302788E+0	1.308486E+0	1.305161E+0	1.301684E+0	1.255850E+0	1.281037E+0	1.326641E+0	1.300275E+0	1.300169E+0	1.332801E+0	1.315344E+0	1.277117E+0	1.303319E+0	1.260863E+0	1.341230E+0	1.305538E+0	1.293430E+0	1.261506E+0	1.333207E+0	1.265959E+0	1.272819E+0	1.307484E+0	1.330149E+0	1.291680E+0	1.273350E+0	1.357233E+0	1.257299E+0	1.269653E+0	1.280488E+0	1.295038E+0	1.351861E+0	1.283550E+0	1.303101E+0	1.282407E+0	1.319754E+0	1.302660E+0	1.289668E+0	1.298058E+0	1.338041E+0	1.276661E+0	1.322897E+0	1.252197E+0	1.318972E+0	1.260572E+0	1.284949E+0	1.234898E+0	1.349573E+0	1.366765E+0	1.273356E+0	1.314830E+0	1.313574E+0
5.527700E+2	1.197808E+0	1.179459E+0	1.243310E+0	1.217587E+0	1.259118E+0	1.292056E+0	1.214438E+0	1.229162E+0	1.209107E+0	1.263338E+0	1.215128E+0	1.284646E+0	1.229816E+0	1.226692E+0	1.259209E+0	1.170912E+0	1.224967E+0	1.209309E+0	1.234093E+0	1.164823E+0	1.245219E+0	1.244345E+0	1.239922E+0	1.272364E+0	1.212097E+0	1.187889E+0	1.238253E+0	1.247570E+0	1.230225E+0	1.243091E+0	1.210563E+0	1.213198E+0	1.271806E+0	1.236646E+0	1.199904E+0	1.262107E+0	1.227896E+0	1.315121E+0	1.260758E+0	1.165995E+0	1.235617E+0	1.255562E+0	1.287458E+0	1.160177E+0	1.221851E+0	1.182818E+0	1.209728E+0	1.188613E+0	1.219663E+0	1.242011E+0	1.218760E+0	1.193063E+0	1.229876E+0	1.252786E+0	1.258103E+0	1.216304E+0	1.220248E+0	1.232122E+0	1.226708E+0	1.194843E+0	1.224469E+0	1.248478E+0	1.287254E+0	1.232245E+0	1.252272E+0	1.258898E+0	1.211538E+0	1.235619E+0	1.244990E+0	1.215740E+0	1.227975E+0	1.213157E+0	1.249464E+0	1.214456E+0	1.250324E+0	1.196825E+0	1.184786E+0	1.226304E+0	1.276441E+0	1.190867E+0	1.261381E+0	1.212493E+0	1.244070E+0	1.181523E+0	1.205695E+0	1.245859E+0	1.191192E+0	1.221802E+0	1.213303E+0	1.256236E+0	1.187421E+0	1.227274E+0	1.229850E+0	1.204588E+0	1.204779E+0	1.222060E+0	1.176896E+0	1.279544E+0	1.257772E+0	1.197239E+0	1.237561E+0	1.278497E+0	1.210887E+0	1.230536E+0	1.253963E+0	1.240098E+0	1.201096E+0	1.230158E+0	1.247710E+0	1.258608E+0	1.242111E+0	1.211838E+0	1.272611E+0	1.253794E+0	1.157375E+0	1.179496E+0	1.197739E+0	1.259120E+0	1.213062E+0	1.248978E+0	1.198670E+0	1.219323E+0	1.230492E+0	1.247987E+0	1.205954E+0	1.198902E+0	1.230556E+0	1.202053E+0	1.213923E+0	1.253578E+0	1.216156E+0	1.227840E+0	1.249294E+0	1.223762E+0	1.187989E+0	1.186478E+0	1.237883E+0	1.236455E+0	1.173322E+0	1.208047E+0	1.269427E+0	1.208179E+0	1.229275E+0	1.232672E+0	1.216273E+0	1.204363E+0	1.197147E+0	1.222360E+0	1.245250E+0	1.258697E+0	1.172728E+0	1.250859E+0	1.229200E+0	1.271134E+0	1.154822E+0	1.210385E+0	1.215312E+0	1.246280E+0	1.255274E+0	1.190957E+0	1.238787E+0	1.180759E+0	1.211629E+0	1.171048E+0	1.209686E+0	1.213022E+0	1.211632E+0	1.238398E+0	1.232393E+0	1.259054E+0
5.534990E+2	1.131194E+0	1.219291E+0	1.169747E+0	1.156957E+0	1.196820E+0	1.208937E+0	1.182522E+0	1.164455E+0	1.174477E+0	1.193722E+0	1.170617E+0	1.139904E+0	1.155832E+0	1.216345E+0	1.175850E+0	1.177290E+0	1.149310E+0	1.210245E+0	1.171412E+0	1.166269E+0	1.177959E+0	1.196651E+0	1.162592E+0	1.174003E+0	1.163718E+0	1.210139E+0	1.143055E+0	1.149510E+0	1.162662E+0	1.177898E+0	1.172169E+0	1.193311E+0	1.149705E+0	1.176849E+0	1.154133E+0	1.199395E+0	1.143132E+0	1.209190E+0	1.145797E+0	1.183412E+0	1.170574E+0	1.149396E+0	1.133435E+0	1.146450E+0	1.155758E+0	1.155505E+0	1.153451E+0	1.127015E+0	1.154733E+0	1.193709E+0	1.151048E+0	1.149977E+0	1.171488E+0	1.196929E+0	1.142392E+0	1.123781E+0	1.181945E+0	1.129146E+0	1.134003E+0	1.132767E+0	1.121321E+0	1.123878E+0	1.167134E+0	1.220201E+0	1.148703E+0	1.200417E+0	1.139859E+0	1.188973E+0	1.146119E+0	1.186982E+0	1.191285E+0	1.205560E+0	1.183554E+0	1.169061E+0	1.139770E+0	1.178856E+0	1.186173E+0	1.180290E+0	1.215743E+0	1.101851E+0	1.164203E+0	1.211276E+0	1.137129E+0	1.184079E+0	1.116993E+0	1.240536E+0	1.155801E+0	1.181435E+0	1.140334E+0	1.232979E+0	1.149254E+0	1.167927E+0	1.182273E+0	1.152508E+0	1.165321E+0	1.125545E+0	1.226868E+0	1.150870E+0	1.102761E+0	1.186604E+0	1.182166E+0	1.171791E+0	1.190717E+0	1.212327E+0	1.163446E+0	1.184216E+0	1.102881E+0	1.155086E+0	1.131625E+0	1.146515E+0	1.160317E+0	1.198629E+0	1.129639E+0	1.226018E+0	1.134602E+0	1.174684E+0	1.157381E+0	1.215256E+0	1.177480E+0	1.175042E+0	1.112683E+0	1.204435E+0	1.218717E+0	1.162384E+0	1.169881E+0	1.116058E+0	1.104598E+0	1.218859E+0	1.214763E+0	1.210558E+0	1.184906E+0	1.175661E+0	1.154645E+0	1.223247E+0	1.180477E+0	1.133060E+0	1.199294E+0	1.171548E+0	1.192556E+0	1.171813E+0	1.192850E+0	1.137810E+0	1.198339E+0	1.093616E+0	1.147077E+0	1.210065E+0	1.181330E+0	1.193650E+0	1.148634E+0	1.136305E+0	1.195344E+0	1.173697E+0	1.131055E+0	1.170510E+0	1.175615E+0	1.128860E+0	1.161781E+0	1.179568E+0	1.154927E+0	1.155268E+0	1.157382E+0	1.117009E+0	1.204867E+0	1.186885E+0	1.131628E+0	1.182522E+0	1.173890E+0	1.169605E+0	1.129405E+0	1.259531E+0
5.542580E+2	1.097011E+0	1.141368E+0	1.131654E+0	1.115280E+0	1.124108E+0	1.149706E+0	1.073045E+0	1.082122E+0	1.122781E+0	1.147105E+0	1.097088E+0	1.067923E+0	1.088350E+0	1.086803E+0	1.093125E+0	1.112867E+0	1.082850E+0	1.132514E+0	1.090337E+0	1.059497E+0	1.094961E+0	1.139071E+0	1.087156E+0	1.114444E+0	1.101990E+0	1.103742E+0	1.089535E+0	1.080907E+0	1.105407E+0	1.086096E+0	1.150261E+0	1.107952E+0	1.098491E+0	1.135251E+0	1.087362E+0	1.082885E+0	1.146157E+0	1.083557E+0	1.082470E+0	1.089458E+0	1.065225E+0	1.101168E+0	1.063142E+0	1.048415E+0	1.058247E+0	1.118515E+0	1.085121E+0	1.091938E+0	1.041655E+0	1.065925E+0	1.099863E+0	1.080086E+0	1.032968E+0	1.094053E+0	1.088667E+0	1.078262E+0	1.123562E+0	1.123620E+0	1.060069E+0	1.094873E+0	1.065736E+0	1.060794E+0	1.080213E+0	1.120317E+0	1.105421E+0	1.139542E+0	1.102060E+0	1.151252E+0	1.104165E+0	1.115868E+0	1.072672E+0	1.091666E+0	1.119721E+0	1.105552E+0	1.088582E+0	1.093112E+0	1.084476E+0	1.098948E+0	1.091901E+0	1.095397E+0	1.149759E+0	1.096291E+0	1.078475E+0	1.095290E+0	1.089467E+0	1.124895E+0	1.094392E+0	1.109126E+0	1.078955E+0	1.052209E+0	1.082397E+0	1.104804E+0	1.102808E+0	1.109505E+0	1.111407E+0	1.045518E+0	1.058263E+0	1.118702E+0	1.086281E+0	1.030724E+0	1.076134E+0	1.061691E+0	1.066285E+0	1.070606E+0	1.076115E+0	1.101997E+0	1.099497E+0	1.081613E+0	1.091006E+0	1.122186E+0	1.116060E+0	1.095764E+0	1.122743E+0	1.119386E+0	1.057847E+0	1.090686E+0	1.087554E+0	1.125734E+0	1.059883E+0	1.092770E+0	1.116093E+0	1.097386E+0	1.057710E+0	1.094407E+0	1.063606E+0	1.105925E+0	1.062474E+0	1.062200E+0	1.083846E+0	1.106289E+0	1.081927E+0	1.113765E+0	1.095323E+0	1.138469E+0	1.097215E+0	1.089904E+0	1.065729E+0	1.101843E+0	1.073473E+0	1.065781E+0	1.045316E+0	1.102480E+0	1.064830E+0	1.136742E+0	1.125611E+0	1.103407E+0	1.056370E+0	1.070000E+0	1.096888E+0	1.087883E+0	1.129907E+0	1.096768E+0	1.097806E+0	1.121401E+0	1.075512E+0	1.089648E+0	1.149415E+0	1.059656E+0	1.107144E+0	1.064571E+0	1.074976E+0	1.099262E+0	1.086953E+0	1.055372E+0	1.101045E+0	1.125070E+0	1.086728E+0	1.069208E+0	1.052340E+0	1.043969E+0
5.550140E+2	9.569431E-1	1.043416E+0	1.018024E+0	1.010842E+0	1.012694E+0	1.019435E+0	1.009309E+0	1.025704E+0	9.649695E-1	1.013356E+0	9.642378E-1	9.952897E-1	1.029804E+0	1.008086E+0	9.991113E-1	9.968006E-1	1.061337E+0	1.072569E+0	1.019787E+0	9.983255E-1	9.880302E-1	1.029466E+0	1.014505E+0	9.933469E-1	1.007428E+0	1.011444E+0	1.022725E+0	1.008213E+0	1.019359E+0	9.884527E-1	9.789099E-1	1.059575E+0	1.028039E+0	1.023500E+0	9.908898E-1	1.035522E+0	1.014729E+0	1.015734E+0	1.002462E+0	9.980407E-1	1.048845E+0	1.026891E+0	1.021487E+0	1.026203E+0	1.000046E+0	9.969077E-1	1.008729E+0	1.018495E+0	9.892960E-1	9.761449E-1	9.874221E-1	9.645786E-1	1.031513E+0	1.047374E+0	1.035378E+0	1.039388E+0	1.009187E+0	1.026912E+0	9.938278E-1	9.723281E-1	9.798488E-1	9.928117E-1	1.002125E+0	1.031474E+0	1.038591E+0	9.356669E-1	1.008327E+0	1.024773E+0	1.006934E+0	1.005430E+0	1.011580E+0	9.761608E-1	9.670638E-1	1.010331E+0	1.010655E+0	9.839468E-1	1.034999E+0	9.589030E-1	1.054470E+0	9.810354E-1	1.025199E+0	1.015551E+0	9.906383E-1	1.044832E+0	9.506115E-1	1.019066E+0	9.993089E-1	1.039500E+0	9.795180E-1	1.053365E+0	1.037173E+0	1.008491E+0	9.841565E-1	1.014174E+0	1.032509E+0	9.504460E-1	1.014695E+0	9.984731E-1	9.618276E-1	9.789679E-1	1.036959E+0	1.016097E+0	1.001534E+0	1.023663E+0	1.020424E+0	9.932932E-1	1.038948E+0	1.005607E+0	1.012449E+0	1.006959E+0	1.002640E+0	9.868594E-1	1.010796E+0	1.042504E+0	1.018724E+0	1.001765E+0	9.882048E-1	1.019784E+0	1.004867E+0	1.016184E+0	9.929951E-1	1.052617E+0	1.018981E+0	9.613574E-1	1.018115E+0	9.946434E-1	1.011648E+0	9.542656E-1	9.858448E-1	9.983663E-1	9.826346E-1	1.037855E+0	1.008405E+0	1.034474E+0	1.004400E+0	1.042816E+0	1.016154E+0	1.022528E+0	9.710491E-1	9.793189E-1	9.986528E-1	1.010888E+0	1.023207E+0	1.010023E+0	1.010075E+0	1.002855E+0	9.960514E-1	9.294532E-1	1.035594E+0	9.901817E-1	9.883217E-1	1.010410E+0	1.057292E+0	1.036055E+0	9.687677E-1	1.033566E+0	9.909484E-1	1.014663E+0	9.917104E-1	9.907469E-1	1.030729E+0	1.026851E+0	9.543017E-1	9.987801E-1	1.009616E+0	9.988109E-1	9.942369E-1	1.035904E+0	1.109145E+0	1.021525E+0
5.557940E+2	9.055711E-1	9.729865E-1	9.979519E-1	1.009645E+0	9.587434E-1	9.566921E-1	9.666867E-1	9.676027E-1	9.097923E-1	9.591842E-1	9.499109E-1	9.361886E-1	9.681720E-1	9.741579E-1	9.791583E-1	9.568189E-1	9.786163E-1	9.326913E-1	9.540428E-1	9.751424E-1	9.749750E-1	9.948430E-1	9.771631E-1	9.797181E-1	9.479265E-1	9.415996E-1	9.371127E-1	9.881277E-1	9.453453E-1	9.811663E-1	9.346941E-1	9.390852E-1	9.773596E-1	9.623002E-1	8.968498E-1	1.020092E+0	9.381640E-1	9.869222E-1	9.443747E-1	9.252245E-1	9.418693E-1	9.767966E-1	9.907624E-1	9.629635E-1	9.419608E-1	9.976389E-1	9.752269E-1	9.646702E-1	9.639699E-1	9.346790E-1	9.502932E-1	9.307172E-1	9.489243E-1	9.968223E-1	9.487134E-1	9.431428E-1	9.613130E-1	9.918503E-1	9.320196E-1	9.258851E-1	9.476473E-1	9.637715E-1	9.971184E-1	9.580298E-1	9.471353E-1	9.516498E-1	9.599200E-1	9.193917E-1	9.497219E-1	9.775464E-1	9.260668E-1	9.468573E-1	9.623262E-1	9.639677E-1	9.619671E-1	9.728186E-1	9.888918E-1	9.513997E-1	9.789578E-1	9.479071E-1	9.603613E-1	9.120561E-1	9.469287E-1	9.119172E-1	9.396368E-1	9.904418E-1	9.245422E-1	9.408737E-1	9.235103E-1	9.347531E-1	9.640186E-1	9.331248E-1	9.609735E-1	9.515078E-1	9.652803E-1	9.818814E-1	9.553414E-1	9.188514E-1	9.683403E-1	9.182328E-1	9.998417E-1	9.779341E-1	9.407287E-1	9.465815E-1	9.169913E-1	9.618720E-1	9.380230E-1	9.288096E-1	9.915172E-1	9.684355E-1	9.658649E-1	9.459484E-1	9.178579E-1	9.441875E-1	9.699500E-1	8.986727E-1	9.772822E-1	9.375126E-1	9.404303E-1	9.520273E-1	9.637791E-1	9.991762E-1	9.960912E-1	9.439873E-1	9.429179E-1	9.787114E-1	9.698866E-1	9.426468E-1	8.992655E-1	9.764796E-1	9.416271E-1	9.925283E-1	9.816310E-1	9.309278E-1	9.646510E-1	9.342598E-1	9.318194E-1	9.414535E-1	9.386670E-1	9.388823E-1	9.621715E-1	9.505846E-1	1.008699E+0	9.896202E-1	9.789641E-1	9.727297E-1	9.326494E-1	8.954267E-1	9.284763E-1	9.373973E-1	9.952058E-1	9.319244E-1	9.376086E-1	9.676900E-1	9.534942E-1	9.334794E-1	9.431116E-1	9.624522E-1	9.700175E-1	9.782218E-1	1.017046E+0	9.832141E-1	9.433212E-1	9.365387E-1	9.172475E-1	9.239804E-1	9.694553E-1	9.969000E-1	9.806896E-1	9.901766E-1
5.560130E+2	9.675669E-1	9.513466E-1	9.714041E-1	9.846114E-1	9.444274E-1	9.280996E-1	9.356692E-1	9.948253E-1	9.531169E-1	9.587441E-1	9.580664E-1	9.491570E-1	9.637102E-1	9.868789E-1	9.971002E-1	9.837044E-1	9.444900E-1	9.387601E-1	9.847896E-1	9.922032E-1	9.387670E-1	9.883535E-1	9.322941E-1	9.683767E-1	9.490397E-1	9.799846E-1	9.348284E-1	9.319722E-1	9.515162E-1	9.499602E-1	9.816405E-1	9.659851E-1	9.915505E-1	9.890064E-1	9.988511E-1	9.709492E-1	9.431296E-1	9.866982E-1	9.622204E-1	9.838201E-1	9.756315E-1	9.383565E-1	9.366695E-1	9.480032E-1	9.412443E-1	9.698756E-1	9.345322E-1	9.866462E-1	9.438027E-1	9.397302E-1	9.761851E-1	9.554468E-1	9.974213E-1	9.796322E-1	9.431355E-1	1.001068E+0	9.859795E-1	9.972654E-1	9.291152E-1	9.572992E-1	9.482128E-1	9.626326E-1	9.813648E-1	9.727866E-1	9.889594E-1	9.860980E-1	9.882686E-1	9.427877E-1	9.461056E-1	9.880733E-1	9.529400E-1	9.656321E-1	9.218241E-1	9.762070E-1	9.617291E-1	9.718619E-1	9.355268E-1	9.542184E-1	9.525292E-1	9.418633E-1	9.705689E-1	9.653493E-1	9.497239E-1	9.491802E-1	9.876456E-1	9.725876E-1	9.574752E-1	9.467801E-1	9.586327E-1	9.667973E-1	1.027901E+0	9.832240E-1	9.575257E-1	9.542447E-1	9.980620E-1	9.711963E-1	9.203417E-1	9.862683E-1	9.732796E-1	9.355378E-1	9.908151E-1	1.005893E+0	9.253160E-1	9.694549E-1	9.261129E-1	9.639693E-1	9.691050E-1	9.619501E-1	1.003851E+0	9.714198E-1	1.006987E+0	9.509643E-1	9.806449E-1	1.007292E+0	9.397774E-1	9.709402E-1	9.936362E-1	1.016787E+0	9.533640E-1	9.716991E-1	9.427850E-1	9.933138E-1	9.680842E-1	9.777870E-1	9.543450E-1	9.677516E-1	9.793762E-1	9.328157E-1	9.614048E-1	9.339481E-1	1.002422E+0	9.352619E-1	9.454236E-1	1.023955E+0	9.608703E-1	9.759123E-1	9.701980E-1	9.798014E-1	9.284655E-1	9.186262E-1	1.002061E+0	9.799475E-1	9.943253E-1	9.739154E-1	9.750743E-1	9.745766E-1	9.755927E-1	9.705156E-1	9.824679E-1	9.950042E-1	1.018929E+0	9.716653E-1	9.542599E-1	9.645562E-1	9.383003E-1	9.076617E-1	9.868386E-1	9.574151E-1	9.366861E-1	9.694473E-1	9.236563E-1	9.404754E-1	9.821773E-1	9.358906E-1	9.725223E-1	1.002381E+0	9.457353E-1	9.396164E-1	9.649168E-1	9.155524E-1
5.565090E+2	9.347308E-1	9.354880E-1	9.194746E-1	9.592435E-1	9.852710E-1	9.496474E-1	9.137181E-1	9.630176E-1	9.950539E-1	9.669477E-1	9.731618E-1	9.359207E-1	9.234911E-1	9.665916E-1	9.379921E-1	9.316952E-1	9.985946E-1	9.591861E-1	9.463989E-1	9.412898E-1	9.389678E-1	9.789789E-1	9.378793E-1	9.850270E-1	9.452411E-1	9.860735E-1	9.701088E-1	9.897365E-1	1.004721E+0	9.111706E-1	9.381541E-1	9.872659E-1	9.854835E-1	9.714652E-1	9.798057E-1	9.537367E-1	9.390001E-1	9.439540E-1	9.807368E-1	9.478127E-1	9.628553E-1	9.464630E-1	9.692486E-1	9.434973E-1	9.257776E-1	9.642926E-1	9.888661E-1	9.462459E-1	9.766215E-1	9.187248E-1	1.019902E+0	9.672919E-1	9.368104E-1	9.493874E-1	9.034410E-1	9.454953E-1	9.905160E-1	9.406213E-1	9.653279E-1	9.190026E-1	9.357625E-1	9.738986E-1	9.615750E-1	9.862750E-1	9.548892E-1	9.702128E-1	1.025802E+0	9.273951E-1	9.456678E-1	9.336476E-1	9.645445E-1	9.463210E-1	9.131847E-1	9.652136E-1	9.648956E-1	9.746306E-1	9.570078E-1	9.829668E-1	9.862121E-1	9.698978E-1	9.421983E-1	9.238476E-1	9.698594E-1	9.130794E-1	9.599290E-1	9.673451E-1	9.554754E-1	9.538013E-1	9.693481E-1	9.762658E-1	9.800845E-1	9.530632E-1	9.554133E-1	9.336034E-1	9.507213E-1	9.530503E-1	9.439223E-1	9.764679E-1	9.561910E-1	9.054194E-1	9.740967E-1	1.002412E+0	9.708446E-1	9.534764E-1	9.454872E-1	9.318655E-1	9.887475E-1	9.588521E-1	1.001781E+0	9.401789E-1	9.749408E-1	1.019996E+0	9.805896E-1	9.387346E-1	9.465730E-1	9.366447E-1	9.655667E-1	1.009700E+0	9.995915E-1	9.706885E-1	9.563309E-1	9.607706E-1	9.493022E-1	9.542117E-1	9.338894E-1	9.630037E-1	9.538246E-1	9.542941E-1	9.637460E-1	9.290916E-1	9.552083E-1	9.939715E-1	9.435565E-1	9.476147E-1	9.525621E-1	9.458267E-1	9.800570E-1	9.865320E-1	9.799458E-1	9.595575E-1	9.700648E-1	9.719703E-1	9.334756E-1	9.450228E-1	9.740397E-1	9.868982E-1	9.460816E-1	9.160499E-1	1.015041E+0	9.860865E-1	9.009867E-1	9.693029E-1	1.008789E+0	9.418832E-1	9.286099E-1	9.704028E-1	9.241868E-1	9.449346E-1	9.059659E-1	1.000183E+0	9.491298E-1	9.427291E-1	9.686210E-1	9.464046E-1	9.469885E-1	9.490181E-1	9.450124E-1	9.622896E-1	1.021310E+0	1.007378E+0
5.570560E+2	9.807073E-1	9.916776E-1	1.032220E+0	9.901155E-1	9.529617E-1	9.971597E-1	9.614113E-1	9.715931E-1	9.719942E-1	9.818783E-1	9.662468E-1	9.644547E-1	9.871513E-1	9.650832E-1	9.453878E-1	9.831300E-1	9.711276E-1	9.987493E-1	9.779600E-1	9.530598E-1	9.773358E-1	9.564417E-1	9.526138E-1	9.802076E-1	9.458048E-1	9.748417E-1	9.791537E-1	1.009531E+0	9.998537E-1	9.532666E-1	9.850791E-1	9.581433E-1	9.859194E-1	9.561858E-1	9.776768E-1	9.717377E-1	9.491055E-1	9.841447E-1	9.539422E-1	9.680592E-1	9.159100E-1	9.550117E-1	9.919928E-1	9.861511E-1	9.724563E-1	9.553901E-1	9.303726E-1	9.626533E-1	9.685295E-1	9.493893E-1	9.034059E-1	9.568910E-1	9.999620E-1	9.744004E-1	9.510074E-1	9.746099E-1	9.578718E-1	1.016653E+0	1.017398E+0	9.564299E-1	9.390845E-1	9.786393E-1	9.592333E-1	9.545668E-1	9.672460E-1	9.960771E-1	9.546960E-1	9.844686E-1	9.946168E-1	9.830045E-1	9.705905E-1	9.651050E-1	9.662852E-1	1.014757E+0	9.785542E-1	9.213502E-1	9.632119E-1	9.717481E-1	1.028908E+0	9.612668E-1	9.815852E-1	9.886722E-1	9.936275E-1	9.579031E-1	9.683365E-1	9.841137E-1	9.902060E-1	1.001916E+0	9.746849E-1	9.559588E-1	9.645074E-1	9.756160E-1	9.709219E-1	9.896341E-1	9.384001E-1	9.656015E-1	9.652603E-1	9.603627E-1	9.453681E-1	9.307620E-1	9.647167E-1	9.733711E-1	9.378675E-1	9.313289E-1	9.731524E-1	9.997541E-1	1.013609E+0	9.322899E-1	9.787940E-1	9.522995E-1	9.861970E-1	9.672138E-1	9.368400E-1	9.731455E-1	9.655958E-1	1.018409E+0	9.546185E-1	9.651671E-1	9.493483E-1	9.678695E-1	9.890819E-1	9.912532E-1	9.913277E-1	9.535679E-1	9.498496E-1	9.441270E-1	9.866115E-1	9.922735E-1	9.707752E-1	9.808169E-1	9.674419E-1	9.435919E-1	9.259793E-1	9.696647E-1	9.669913E-1	9.558026E-1	9.345624E-1	9.416397E-1	9.505112E-1	9.471602E-1	9.367714E-1	9.457213E-1	9.613822E-1	9.435660E-1	9.963483E-1	1.009417E+0	9.493797E-1	9.443953E-1	9.833998E-1	9.792087E-1	9.607738E-1	9.351277E-1	9.684052E-1	9.694917E-1	9.728993E-1	8.945392E-1	9.576818E-1	9.533683E-1	9.830734E-1	9.846734E-1	9.517914E-1	9.714387E-1	9.587471E-1	9.427172E-1	1.003775E+0	9.774001E-1	9.375729E-1	9.568047E-1	9.476141E-1	9.824011E-1
5.575360E+2	1.030076E+0	1.011095E+0	1.006821E+0	9.728738E-1	9.959033E-1	1.023981E+0	1.014598E+0	9.865364E-1	9.831629E-1	1.010071E+0	9.880396E-1	9.672324E-1	1.030616E+0	1.027153E+0	9.792480E-1	9.856908E-1	9.933310E-1	9.677470E-1	9.791780E-1	9.872698E-1	1.033545E+0	9.681909E-1	1.017703E+0	9.596901E-1	1.069035E+0	9.560301E-1	1.031960E+0	1.001184E+0	1.001826E+0	1.018399E+0	1.034510E+0	9.806591E-1	1.025658E+0	9.894803E-1	1.012307E+0	9.719947E-1	9.676658E-1	1.007562E+0	1.030416E+0	1.007632E+0	1.026169E+0	1.011143E+0	9.957921E-1	9.547551E-1	1.012388E+0	1.021577E+0	9.943371E-1	1.018617E+0	1.003243E+0	1.012699E+0	1.008655E+0	1.017218E+0	9.872933E-1	9.636919E-1	1.014010E+0	9.989509E-1	1.046525E+0	1.015637E+0	1.014198E+0	9.584070E-1	9.939666E-1	1.014054E+0	1.019978E+0	1.001173E+0	1.057073E+0	9.832069E-1	1.038582E+0	9.832222E-1	9.919116E-1	1.013639E+0	1.044248E+0	1.067872E+0	9.896984E-1	9.838170E-1	9.845838E-1	1.006305E+0	9.658235E-1	9.943342E-1	1.002513E+0	1.003672E+0	9.842894E-1	9.947733E-1	9.991133E-1	9.986235E-1	1.019425E+0	1.006960E+0	1.032807E+0	1.030254E+0	1.014063E+0	1.021551E+0	9.934495E-1	9.764881E-1	1.013477E+0	1.002874E+0	1.039970E+0	9.995106E-1	1.000474E+0	1.024342E+0	1.034164E+0	9.685261E-1	1.012762E+0	9.902659E-1	1.000669E+0	9.991171E-1	1.002102E+0	1.035694E+0	9.999250E-1	1.007550E+0	9.758851E-1	1.004156E+0	1.015958E+0	1.016866E+0	1.028389E+0	9.525903E-1	9.961452E-1	9.613874E-1	9.744045E-1	1.011262E+0	9.852428E-1	9.797012E-1	1.010054E+0	9.885539E-1	9.685959E-1	1.012450E+0	1.016845E+0	1.005938E+0	1.023541E+0	9.864732E-1	1.013211E+0	9.961650E-1	1.000889E+0	1.013280E+0	9.683884E-1	1.001645E+0	9.762692E-1	9.782897E-1	9.981531E-1	1.026221E+0	1.036757E+0	1.007666E+0	1.009399E+0	1.009149E+0	1.015267E+0	1.018959E+0	9.354652E-1	9.908950E-1	1.096069E+0	9.842090E-1	1.040357E+0	1.000656E+0	1.025177E+0	1.002463E+0	1.035244E+0	1.015245E+0	1.013701E+0	1.018065E+0	1.023255E+0	9.852966E-1	9.785590E-1	9.985058E-1	9.813307E-1	9.878190E-1	9.615103E-1	1.019183E+0	9.780635E-1	1.006701E+0	1.015828E+0	9.852796E-1	1.057344E+0	1.034748E+0
5.580170E+2	1.002145E+0	1.033034E+0	1.013823E+0	1.023438E+0	1.016968E+0	1.028339E+0	1.048467E+0	1.068945E+0	1.031414E+0	9.909379E-1	1.010196E+0	1.057717E+0	1.061867E+0	1.029910E+0	1.031175E+0	9.934956E-1	1.001282E+0	1.055503E+0	1.036541E+0	1.043547E+0	1.016967E+0	1.033194E+0	9.678574E-1	1.010537E+0	9.743417E-1	1.015761E+0	1.037343E+0	9.835344E-1	1.007061E+0	1.013509E+0	9.741251E-1	1.046301E+0	1.029290E+0	1.023515E+0	1.039884E+0	9.996011E-1	1.064419E+0	9.881266E-1	9.741993E-1	1.005051E+0	9.876401E-1	1.007500E+0	1.036272E+0	1.005443E+0	1.002806E+0	1.000287E+0	1.036275E+0	1.017155E+0	1.022268E+0	1.027232E+0	1.014509E+0	1.016154E+0	1.005340E+0	9.990652E-1	1.011138E+0	1.051375E+0	1.008343E+0	1.003183E+0	9.490155E-1	1.015618E+0	1.062216E+0	9.867776E-1	1.005352E+0	1.042024E+0	9.805912E-1	1.009453E+0	1.029121E+0	1.002413E+0	1.039123E+0	1.020175E+0	1.036858E+0	1.000599E+0	1.037413E+0	1.025408E+0	1.095201E+0	1.048261E+0	1.024875E+0	1.006281E+0	1.057041E+0	1.008097E+0	1.017997E+0	1.008607E+0	9.914848E-1	1.046623E+0	1.041419E+0	1.016142E+0	1.013989E+0	9.754771E-1	1.030245E+0	1.016625E+0	9.953095E-1	1.000526E+0	1.055283E+0	1.023006E+0	9.840254E-1	1.037220E+0	1.010510E+0	9.891201E-1	1.047605E+0	1.067763E+0	1.016691E+0	1.047519E+0	1.001602E+0	9.909650E-1	1.026369E+0	9.978570E-1	9.997441E-1	1.022283E+0	1.020215E+0	1.041212E+0	1.062204E+0	9.878874E-1	1.017197E+0	1.011568E+0	1.046827E+0	1.021398E+0	1.027953E+0	1.024829E+0	1.042397E+0	1.043581E+0	1.012593E+0	1.029811E+0	9.910736E-1	9.829024E-1	9.841434E-1	9.887057E-1	1.007507E+0	1.058078E+0	9.615940E-1	1.020285E+0	1.057807E+0	1.017603E+0	1.010538E+0	9.970467E-1	1.044113E+0	1.021589E+0	1.050270E+0	1.033330E+0	1.013378E+0	1.033194E+0	9.947740E-1	1.025554E+0	1.040078E+0	1.034274E+0	1.030371E+0	1.008542E+0	1.024866E+0	9.954154E-1	1.031876E+0	9.988411E-1	9.745527E-1	9.959727E-1	9.995847E-1	1.010125E+0	1.015389E+0	1.001726E+0	1.034063E+0	1.048003E+0	1.052585E+0	1.010237E+0	1.049916E+0	1.014406E+0	1.049330E+0	1.021995E+0	1.020489E+0	1.021057E+0	1.013542E+0	1.011250E+0	1.003865E+0	9.733510E-1
5.585160E+2	1.008795E+0	9.766802E-1	1.016856E+0	1.023317E+0	1.029436E+0	9.758947E-1	1.028079E+0	9.958544E-1	9.944246E-1	9.787110E-1	9.687785E-1	9.916613E-1	9.889292E-1	1.008768E+0	1.045737E+0	1.005829E+0	9.753493E-1	1.001198E+0	1.042765E+0	1.045781E+0	9.747578E-1	9.965815E-1	1.001108E+0	1.021938E+0	1.037364E+0	1.058845E+0	9.890279E-1	9.778184E-1	9.596843E-1	9.913218E-1	1.028398E+0	1.016339E+0	9.666656E-1	1.000793E+0	9.592301E-1	1.030445E+0	1.016740E+0	1.016780E+0	1.017988E+0	1.034502E+0	9.967363E-1	1.018100E+0	9.956862E-1	1.011518E+0	9.832262E-1	1.008431E+0	9.684554E-1	1.000171E+0	9.947518E-1	1.004958E+0	9.734815E-1	1.012385E+0	1.008080E+0	1.016894E+0	1.000732E+0	1.000303E+0	1.022847E+0	1.009266E+0	1.016167E+0	1.020797E+0	9.930512E-1	1.007994E+0	9.980921E-1	1.015383E+0	9.660909E-1	1.011922E+0	9.841446E-1	1.013617E+0	1.003482E+0	9.779550E-1	9.828849E-1	1.000094E+0	9.762172E-1	1.009456E+0	9.747175E-1	9.943142E-1	9.926468E-1	1.057398E+0	9.960269E-1	1.023435E+0	1.006629E+0	1.027725E+0	9.685348E-1	9.947353E-1	9.702935E-1	1.018436E+0	9.914415E-1	1.023892E+0	9.846487E-1	9.664548E-1	1.037938E+0	9.915659E-1	9.841242E-1	1.008282E+0	9.856291E-1	1.013965E+0	1.002776E+0	9.937972E-1	1.008995E+0	1.057184E+0	1.005058E+0	9.970561E-1	9.944725E-1	1.036432E+0	1.001368E+0	9.910099E-1	1.000765E+0	9.792603E-1	9.774035E-1	9.927232E-1	9.901078E-1	9.963505E-1	1.025571E+0	1.012317E+0	9.815411E-1	1.008224E+0	1.038465E+0	1.032297E+0	1.050840E+0	1.007146E+0	9.979333E-1	1.002341E+0	9.712880E-1	9.999910E-1	9.977539E-1	1.027871E+0	1.003897E+0	1.003503E+0	9.751028E-1	1.019449E+0	1.004513E+0	1.034717E+0	1.046135E+0	9.963072E-1	9.977266E-1	1.003705E+0	9.947031E-1	1.026152E+0	1.013159E+0	1.021093E+0	9.872107E-1	1.009070E+0	9.500649E-1	9.891618E-1	9.667905E-1	1.005866E+0	9.841336E-1	9.813189E-1	9.541385E-1	1.006707E+0	1.023125E+0	1.049701E+0	9.487387E-1	1.013166E+0	1.009977E+0	1.025624E+0	9.914659E-1	9.956298E-1	1.034576E+0	9.927628E-1	9.964791E-1	1.015802E+0	1.008246E+0	1.015694E+0	9.917823E-1	1.008395E+0	1.005484E+0	9.839372E-1	1.015714E+0	9.960204E-1
5.590100E+2	1.011157E+0	1.013886E+0	9.998401E-1	9.812529E-1	9.871712E-1	1.004259E+0	9.788133E-1	1.010134E+0	1.000451E+0	1.010411E+0	9.730663E-1	9.932202E-1	9.689396E-1	9.517285E-1	1.015337E+0	1.024056E+0	9.981774E-1	9.784878E-1	9.939423E-1	1.016543E+0	9.740770E-1	1.032685E+0	1.077241E+0	1.014890E+0	1.037584E+0	1.001143E+0	1.035635E+0	1.033981E+0	1.011657E+0	1.018530E+0	9.798450E-1	1.007118E+0	9.865373E-1	1.021853E+0	1.060067E+0	1.038676E+0	1.023817E+0	1.004169E+0	1.043782E+0	1.019122E+0	1.029761E+0	1.017880E+0	1.049756E+0	9.587960E-1	1.027161E+0	1.016878E+0	1.035064E+0	1.020900E+0	9.998830E-1	1.023146E+0	1.049225E+0	9.935772E-1	9.969639E-1	9.938398E-1	1.045696E+0	9.994154E-1	9.998019E-1	9.955077E-1	9.817897E-1	1.067015E+0	9.770569E-1	1.006702E+0	1.029245E+0	1.001345E+0	1.006051E+0	9.995792E-1	1.045842E+0	9.746291E-1	9.759575E-1	1.033892E+0	1.022379E+0	9.800101E-1	9.885677E-1	9.912792E-1	1.020935E+0	9.736364E-1	1.025207E+0	9.760003E-1	9.858112E-1	9.827575E-1	9.891915E-1	9.919554E-1	9.984887E-1	1.019362E+0	9.939825E-1	9.994772E-1	9.997335E-1	1.008629E+0	1.023308E+0	1.027709E+0	9.848904E-1	1.057507E+0	1.006026E+0	1.015391E+0	1.019418E+0	9.705913E-1	9.704608E-1	1.002180E+0	1.003956E+0	1.028302E+0	1.022228E+0	1.002608E+0	9.985667E-1	9.972107E-1	1.009046E+0	9.762805E-1	1.017402E+0	9.907195E-1	1.008173E+0	1.007845E+0	9.695754E-1	9.874160E-1	9.953594E-1	1.024344E+0	1.037159E+0	1.034592E+0	1.039708E+0	1.020006E+0	1.006400E+0	1.020272E+0	9.807082E-1	9.607528E-1	1.074434E+0	9.952616E-1	9.805791E-1	1.025376E+0	9.934622E-1	9.899769E-1	1.007526E+0	9.998843E-1	1.029770E+0	1.017841E+0	1.014317E+0	1.006230E+0	1.013088E+0	9.949317E-1	1.021285E+0	9.878291E-1	1.013796E+0	1.021953E+0	1.034398E+0	9.927359E-1	1.019982E+0	1.020228E+0	1.017227E+0	9.981206E-1	9.771043E-1	9.945758E-1	1.013759E+0	1.011230E+0	1.002779E+0	9.886660E-1	1.044225E+0	9.722010E-1	1.005387E+0	9.861795E-1	1.033181E+0	1.007585E+0	9.928814E-1	1.033150E+0	1.048867E+0	1.020121E+0	1.051470E+0	9.707265E-1	9.797444E-1	1.013164E+0	9.682332E-1	1.050986E+0	1.051239E+0	1.008793E+0
5.595450E+2	9.973271E-1	1.017545E+0	1.012422E+0	9.889987E-1	1.012890E+0	1.010461E+0	9.904798E-1	1.008749E+0	1.021727E+0	1.016069E+0	1.037151E+0	1.005645E+0	1.025664E+0	1.016251E+0	1.032712E+0	1.004326E+0	1.030330E+0	9.732762E-1	1.011201E+0	1.016417E+0	1.017049E+0	9.938266E-1	9.841756E-1	1.009218E+0	1.025294E+0	1.059442E+0	9.776034E-1	1.021326E+0	1.038660E+0	9.795824E-1	9.998025E-1	9.872766E-1	9.942360E-1	1.011062E+0	9.960667E-1	9.794737E-1	1.001448E+0	1.001777E+0	1.025004E+0	1.024358E+0	1.030854E+0	1.017404E+0	1.014810E+0	1.064447E+0	1.012156E+0	1.014424E+0	1.018141E+0	1.016238E+0	1.002431E+0	1.027971E+0	1.010581E+0	1.008512E+0	1.005497E+0	1.003273E+0	9.715121E-1	9.731595E-1	1.004516E+0	9.943017E-1	1.002740E+0	1.002856E+0	1.037674E+0	1.001982E+0	1.000603E+0	1.012567E+0	1.030976E+0	1.000639E+0	1.022436E+0	9.956870E-1	1.024976E+0	9.948230E-1	1.007886E+0	1.010284E+0	1.016851E+0	1.009592E+0	9.638690E-1	9.814582E-1	1.008605E+0	9.420344E-1	1.014441E+0	1.046963E+0	9.693044E-1	1.018597E+0	1.042937E+0	1.014105E+0	1.032858E+0	1.039128E+0	1.031857E+0	9.914435E-1	1.021575E+0	1.045931E+0	9.854102E-1	9.999250E-1	1.011189E+0	1.043744E+0	1.013198E+0	1.013119E+0	1.036928E+0	1.055040E+0	1.003637E+0	1.011134E+0	9.997561E-1	1.010383E+0	1.038906E+0	1.008512E+0	1.022451E+0	9.917995E-1	9.769420E-1	1.004688E+0	1.039682E+0	9.951335E-1	9.986370E-1	1.006737E+0	9.800004E-1	1.019510E+0	1.004891E+0	9.623715E-1	1.035780E+0	1.014475E+0	9.706425E-1	1.016037E+0	1.023177E+0	1.032124E+0	1.003603E+0	9.971696E-1	9.708887E-1	1.018952E+0	9.839021E-1	1.015605E+0	1.071893E+0	1.010727E+0	1.021282E+0	1.003158E+0	1.008946E+0	1.018519E+0	1.040488E+0	1.020335E+0	9.924455E-1	9.762057E-1	1.009260E+0	1.002622E+0	1.003450E+0	1.024919E+0	9.938404E-1	1.008723E+0	1.043978E+0	9.772493E-1	1.037319E+0	1.057905E+0	1.004842E+0	1.008491E+0	9.977466E-1	1.027893E+0	1.009669E+0	9.888003E-1	1.005676E+0	9.918586E-1	1.025572E+0	1.056632E+0	1.023155E+0	9.830262E-1	9.860360E-1	1.020877E+0	1.023628E+0	1.045248E+0	1.014230E+0	1.016124E+0	9.875406E-1	1.063765E+0	1.072091E+0	1.016019E+0
5.600070E+2	9.819716E-1	9.622563E-1	9.586603E-1	1.012209E+0	9.695700E-1	9.765111E-1	9.838456E-1	9.836639E-1	1.014341E+0	1.048199E+0	9.548925E-1	1.008490E+0	1.010318E+0	9.987207E-1	9.950986E-1	9.796540E-1	1.015171E+0	9.964247E-1	9.833359E-1	9.580549E-1	1.005482E+0	9.820377E-1	9.758519E-1	9.993336E-1	9.476604E-1	9.687647E-1	1.008166E+0	9.814955E-1	9.763565E-1	1.007936E+0	1.022996E+0	9.636722E-1	1.028877E+0	9.909106E-1	9.873316E-1	1.023399E+0	9.927325E-1	9.784413E-1	9.188961E-1	9.588251E-1	9.807555E-1	9.778253E-1	9.324916E-1	9.832482E-1	1.018847E+0	1.011851E+0	1.007784E+0	9.804374E-1	9.986792E-1	9.831363E-1	9.963808E-1	9.905933E-1	9.828792E-1	9.941619E-1	9.861423E-1	9.934059E-1	9.592391E-1	9.739349E-1	1.039282E+0	1.000715E+0	9.924586E-1	9.870487E-1	9.455763E-1	9.582479E-1	9.498556E-1	9.948702E-1	9.795717E-1	1.035614E+0	1.020630E+0	9.797531E-1	9.701148E-1	9.941102E-1	9.743427E-1	9.933037E-1	9.748383E-1	1.029854E+0	9.840953E-1	9.839556E-1	9.589375E-1	9.863842E-1	1.032396E+0	9.765092E-1	9.601840E-1	9.688384E-1	9.808362E-1	9.914564E-1	9.970065E-1	9.635142E-1	9.826589E-1	9.988818E-1	9.997753E-1	1.027669E+0	9.520450E-1	9.619238E-1	9.610946E-1	9.791167E-1	9.809450E-1	9.541503E-1	9.642199E-1	9.422027E-1	9.672530E-1	9.938114E-1	9.936715E-1	1.004867E+0	9.844834E-1	9.918289E-1	9.483275E-1	9.967118E-1	9.786002E-1	9.883481E-1	9.966367E-1	1.008608E+0	9.905475E-1	1.030794E+0	9.700901E-1	1.008996E+0	9.188869E-1	9.855422E-1	9.590529E-1	9.493051E-1	1.006114E+0	9.782425E-1	9.887892E-1	1.047077E+0	1.013017E+0	1.021229E+0	1.034478E+0	9.671193E-1	1.009312E+0	9.898348E-1	9.664859E-1	9.303121E-1	9.774468E-1	1.024941E+0	9.709717E-1	9.949857E-1	1.004828E+0	9.901294E-1	9.544497E-1	9.693901E-1	1.017526E+0	1.000296E+0	1.011108E+0	9.955218E-1	9.844518E-1	9.896092E-1	9.744341E-1	1.000117E+0	1.004461E+0	9.971249E-1	9.921300E-1	9.794866E-1	9.933245E-1	9.727947E-1	1.019731E+0	1.046842E+0	9.841508E-1	9.671754E-1	9.927400E-1	9.927527E-1	9.877895E-1	1.021415E+0	9.510849E-1	9.571595E-1	9.987906E-1	9.982858E-1	9.974329E-1	9.920916E-1	9.418135E-1	1.009574E+0
5.605210E+2	9.815218E-1	9.600425E-1	9.662737E-1	9.808948E-1	1.009830E+0	9.941931E-1	9.861195E-1	9.768678E-1	9.620371E-1	9.260265E-1	1.019469E+0	9.778145E-1	9.093421E-1	9.562307E-1	9.560229E-1	9.842583E-1	1.008984E+0	9.742717E-1	9.506818E-1	9.759373E-1	9.479278E-1	1.031809E+0	9.810209E-1	9.845950E-1	9.846153E-1	9.431597E-1	9.715078E-1	9.744136E-1	9.591039E-1	9.869576E-1	9.888341E-1	9.979298E-1	9.729623E-1	9.859062E-1	9.749555E-1	9.895107E-1	9.528490E-1	9.823727E-1	1.025086E+0	9.836225E-1	1.000230E+0	9.952491E-1	9.765524E-1	1.010511E+0	9.622713E-1	1.000390E+0	9.824686E-1	9.747245E-1	9.696508E-1	9.295678E-1	9.987423E-1	1.001549E+0	9.844134E-1	1.024284E+0	1.013693E+0	1.013077E+0	9.528025E-1	9.872543E-1	9.898975E-1	9.802645E-1	9.938447E-1	9.653156E-1	1.013475E+0	9.550954E-1	1.009085E+0	9.719245E-1	9.568932E-1	9.894625E-1	9.774644E-1	9.931405E-1	9.732493E-1	9.809092E-1	1.001429E+0	9.806108E-1	9.686866E-1	1.028797E+0	1.021360E+0	9.979383E-1	9.803005E-1	9.902700E-1	9.808258E-1	9.622020E-1	1.016375E+0	1.019519E+0	9.823471E-1	9.361245E-1	9.838125E-1	9.894703E-1	9.532036E-1	9.471887E-1	1.011336E+0	9.745367E-1	9.945321E-1	9.533100E-1	1.008962E+0	9.893044E-1	9.925066E-1	9.969728E-1	9.897639E-1	1.000656E+0	1.001406E+0	9.448255E-1	1.014467E+0	9.714486E-1	9.459549E-1	9.930276E-1	1.027652E+0	1.035896E+0	9.831097E-1	1.006204E+0	9.878835E-1	9.972762E-1	9.955360E-1	9.596570E-1	1.019005E+0	9.791509E-1	9.738511E-1	9.531369E-1	9.974276E-1	9.930177E-1	9.658521E-1	1.013406E+0	9.917484E-1	1.007562E+0	1.040027E+0	9.713240E-1	9.833733E-1	9.843382E-1	9.609368E-1	9.741831E-1	9.606779E-1	9.994912E-1	9.808996E-1	9.610978E-1	9.715666E-1	9.889847E-1	9.809965E-1	9.833616E-1	9.656042E-1	9.962941E-1	9.910652E-1	9.876494E-1	9.619428E-1	9.812252E-1	1.030925E+0	9.752579E-1	9.618577E-1	1.047498E+0	9.592191E-1	9.817537E-1	1.002190E+0	9.932314E-1	9.802379E-1	1.011900E+0	9.736851E-1	1.019175E+0	9.722796E-1	9.595639E-1	9.611280E-1	9.867066E-1	9.843748E-1	9.567488E-1	1.018880E+0	9.907650E-1	1.030132E+0	9.733009E-1	1.038803E+0	9.706704E-1	9.447475E-1	9.640956E-1
5.610470E+2	1.006299E+0	1.033783E+0	9.930837E-1	1.026900E+0	1.025269E+0	9.892010E-1	1.008186E+0	9.976566E-1	1.020448E+0	1.037697E+0	1.082160E+0	1.033765E+0	1.017173E+0	1.046155E+0	9.992817E-1	1.039561E+0	1.006248E+0	1.054342E+0	1.024395E+0	1.003390E+0	1.052859E+0	1.005234E+0	1.042428E+0	1.019590E+0	9.783011E-1	1.022011E+0	9.696032E-1	1.016716E+0	1.045797E+0	1.030498E+0	9.864096E-1	1.042562E+0	1.009854E+0	1.020294E+0	9.924812E-1	9.951615E-1	1.031223E+0	1.036626E+0	1.010686E+0	9.988286E-1	1.031945E+0	9.998870E-1	1.006648E+0	1.025130E+0	1.008689E+0	9.707718E-1	1.027102E+0	1.009105E+0	1.040563E+0	1.041901E+0	1.045020E+0	1.003120E+0	1.029571E+0	1.030389E+0	1.006070E+0	9.957029E-1	1.048054E+0	1.004263E+0	9.895121E-1	9.978969E-1	1.010647E+0	1.051487E+0	1.028444E+0	1.059598E+0	1.033032E+0	1.032327E+0	9.887133E-1	1.020887E+0	9.718386E-1	1.003619E+0	9.917906E-1	1.001016E+0	1.049197E+0	9.917762E-1	1.038614E+0	1.016024E+0	1.014175E+0	1.070310E+0	9.760214E-1	9.971541E-1	1.037781E+0	1.030958E+0	1.029255E+0	9.802915E-1	1.010503E+0	1.008162E+0	9.591468E-1	1.015404E+0	1.015614E+0	1.019700E+0	1.027384E+0	9.961665E-1	1.012402E+0	1.001836E+0	1.049303E+0	1.031570E+0	1.040139E+0	1.024034E+0	1.002292E+0	9.934704E-1	1.010130E+0	1.040160E+0	1.019778E+0	1.060118E+0	1.035073E+0	1.022748E+0	1.015633E+0	1.030601E+0	1.038138E+0	1.012079E+0	9.928005E-1	1.031645E+0	1.030560E+0	1.016074E+0	9.787464E-1	1.005472E+0	1.036334E+0	9.932860E-1	1.038649E+0	1.023071E+0	1.014486E+0	1.003515E+0	1.019140E+0	1.004019E+0	1.046897E+0	9.964770E-1	9.832269E-1	1.002633E+0	1.029650E+0	1.008655E+0	9.911328E-1	1.040006E+0	1.067350E+0	1.024548E+0	1.018786E+0	1.041376E+0	1.022756E+0	1.035132E+0	1.043085E+0	1.000628E+0	1.025407E+0	1.004905E+0	1.046335E+0	1.008342E+0	9.944429E-1	1.045044E+0	9.948366E-1	9.945657E-1	1.007947E+0	1.015988E+0	1.021525E+0	1.027459E+0	1.020571E+0	1.046277E+0	9.835551E-1	1.015993E+0	9.783515E-1	1.026745E+0	9.813024E-1	1.018185E+0	1.013416E+0	9.913720E-1	9.771033E-1	1.036511E+0	9.829933E-1	9.855725E-1	1.035564E+0	9.852154E-1	9.655716E-1	1.014998E+0
