Photon Energy (eV)	#1	#2	#3	#4	#5	#6	#7	#8	#9	#10	#11	#12	#13	#14	#15	#16	#17	#18	#19	#20	#21	#22	#23	#24	#25	#26	#27	#28	#29	#30	#31	#32	#33	#34	#35	#36	#37	#38	#39	#40	#41	#42	#43	#44	#45	#46	#47	#48	#49	#50	#51	#52	#53	#54	#55	#56	#57	#58	#59	#60	#61	#62	#63	#64	#65	#66	#67	#68	#69	#70	#71	#72	#73	#74	#75	#76	#77	#78	#79	#80	#81	#82	#83	#84	#85	#86	#87	#88	#89	#90	#91	#92	#93	#94	#95	#96	#97	#98	#99	#100	#101	#102	#103	#104	#105	#106	#107	#108	#109	#110	#111	#112	#113	#114	#115	#116	#117	#118	#119	#120	#121	#122	#123	#124	#125	#126	#127	#128	#129	#130	#131	#132	#133	#134	#135	#136	#137	#138	#139	#140	#141	#142	#143	#144	#145	#146	#147	#148	#149	#150	#151	#152	#153	#154	#155	#156	#157	#158	#159	#160	#161	#162	#163	#164	#165	#166	#167	#168	#169	#170	#171	
5.300160E+2	-2.896333E-3	-5.222979E-3	-7.576737E-3	-1.771037E-3	-2.884294E-3	-1.525318E-2	-3.854430E-3	-1.023807E-2	6.015846E-4	-4.794540E-3	-7.501876E-3	-1.261018E-2	-7.505641E-3	-4.598059E-3	-6.571986E-3	-4.190626E-3	-5.045178E-3	-3.448583E-3	-3.918341E-3	4.177478E-3	-2.998860E-3	-7.516132E-4	-3.052491E-3	-4.747767E-3	-4.000445E-3	-1.421245E-3	9.929601E-4	-5.846483E-3	-3.638378E-3	-7.004804E-3	-7.422389E-3	-1.019925E-2	1.057437E-3	-2.654496E-3	-1.025016E-2	-6.077715E-3	-4.581078E-3	1.741898E-3	-7.972869E-3	-6.309095E-3	-8.166207E-3	-8.219055E-3	-1.268859E-2	-8.253616E-3	2.119009E-3	-9.462654E-3	-1.810604E-3	-1.066604E-2	-1.345288E-3	-2.831270E-3	8.754336E-3	-1.033158E-3	-6.742792E-3	-1.139149E-2	-3.070587E-3	-4.324928E-3	-4.007998E-3	3.550096E-3	-2.916112E-3	-1.582437E-3	-8.423369E-3	-2.980004E-3	-1.121975E-2	-4.659468E-4	-5.221274E-4	-6.917208E-3	-3.428335E-3	-6.090398E-3	-1.339603E-2	-1.011411E-2	-4.803243E-3	-7.159040E-3	-6.380617E-3	-1.435928E-3	-6.561501E-3	-6.022046E-3	-1.130455E-2	-1.294678E-3	-7.288838E-3	-4.711495E-3	-8.761057E-3	-8.741902E-3	-1.099004E-2	-4.278434E-3	-2.510333E-3	-7.916679E-3	-8.171541E-3	-1.642985E-3	-3.004283E-3	-8.144951E-3	-1.433599E-3	-1.216892E-2	-2.114318E-2	-4.982807E-3	-6.986378E-3	-5.610810E-3	-1.195720E-2	-2.958512E-3	-6.491189E-3	-9.827965E-3	-5.653585E-3	-9.963787E-3	-2.747590E-4	-8.057199E-3	-3.738144E-3	6.398987E-3	-2.708984E-3	-1.279034E-4	-1.735152E-3	-4.479367E-3	-1.253784E-3	-8.427352E-3	-8.120375E-3	-7.320571E-3	-5.954598E-3	-3.732681E-3	-4.303209E-3	-5.220728E-3	-1.626537E-2	-2.867278E-3	-5.417464E-3	-4.586613E-3	2.976329E-4	-3.867002E-3	-8.111881E-3	-9.889129E-3	-7.104643E-3	-9.076597E-3	-1.189034E-2	-4.219469E-3	-1.541038E-2	-4.015638E-3	-2.022313E-3	-1.313251E-3	-8.091499E-3	4.152853E-4	-6.904176E-3	-1.189169E-2	-7.589378E-3	-5.855888E-3	1.745673E-3	-8.397583E-4	-1.183290E-2	-3.597002E-3	-3.921959E-3	-1.337197E-3	-6.756691E-3	2.689249E-3	-8.250158E-3	-4.271504E-4	-1.045790E-2	3.419821E-3	-5.175934E-3	-7.433320E-3	-2.894300E-3	-5.233761E-3	-9.178394E-3	-1.028907E-2	-6.633540E-3	-9.677902E-3	-7.785773E-3	-7.325974E-3	-7.882979E-3	2.981174E-4	-4.085252E-3	-1.096991E-2	-4.951391E-3	-1.093518E-2	-1.454815E-2	-8.768674E-3	-5.229352E-3
5.305230E+2	-3.925500E-3	-6.086241E-4	2.527656E-3	-6.807806E-3	-6.362253E-3	-1.131604E-2	-1.782330E-3	-7.494962E-3	-9.685325E-3	-6.969179E-3	-8.838393E-4	1.894400E-3	-1.228025E-2	-8.469754E-3	-1.177694E-3	-5.517837E-3	-6.266107E-3	-4.135771E-3	-2.397057E-3	-6.617618E-3	-1.393417E-3	-5.581245E-3	-3.458889E-4	-4.844620E-3	1.002924E-4	-2.089952E-3	-3.385870E-3	-2.442535E-4	-8.481662E-3	-8.647597E-3	-1.219503E-2	-2.684105E-3	-4.478309E-3	-1.372800E-2	-3.220107E-3	-9.306673E-3	-6.098070E-3	-2.096623E-3	-1.521269E-3	7.713213E-4	-1.187046E-2	2.755594E-3	-8.287647E-3	-6.148166E-3	-5.790813E-3	-3.372585E-3	-2.386652E-3	-5.789184E-3	-2.498904E-3	3.880673E-3	-1.036079E-2	-3.256531E-3	-1.114078E-2	-6.008660E-3	-3.678847E-3	-4.884753E-3	-1.641289E-4	-6.990456E-3	-2.509373E-4	-2.867464E-3	-5.525958E-3	-2.163613E-3	1.756347E-3	1.078923E-2	-6.927767E-3	-7.028341E-3	-8.119966E-3	-5.033200E-3	3.370516E-4	1.521634E-3	2.941795E-3	-1.054714E-2	-1.484184E-3	-8.769415E-3	-7.743928E-3	9.992601E-4	-7.913633E-3	-4.760028E-3	-6.927432E-3	4.525236E-4	-9.414704E-3	-5.660122E-3	-3.049575E-3	2.385927E-3	-2.111680E-3	-1.225059E-2	-6.296807E-3	-1.275020E-2	-4.916711E-3	-1.575104E-3	-2.110383E-3	-8.181842E-3	-2.875620E-3	-5.083662E-3	7.818144E-3	-1.286593E-3	-1.668990E-3	-1.349665E-3	-6.186397E-4	5.796564E-4	2.912746E-4	5.437130E-3	-1.616411E-2	-6.173701E-3	-1.952448E-3	-6.055064E-3	-2.283800E-3	-1.245054E-2	-2.314486E-3	-1.017932E-2	-6.198339E-3	-3.486758E-3	-4.771289E-3	-7.405138E-3	-9.739749E-3	-6.048432E-3	1.305475E-3	-3.802937E-3	-9.254118E-3	-4.484726E-3	-7.798573E-3	-1.688000E-3	7.278635E-4	-3.395010E-3	-1.198453E-2	-1.272812E-4	-7.646882E-3	-1.003432E-2	-4.050876E-3	-3.206961E-3	5.096067E-3	-6.656699E-3	1.390547E-3	-1.427661E-3	-7.369306E-4	-1.196190E-3	-9.105290E-3	-1.081329E-2	-1.240664E-3	-8.694738E-3	-8.541409E-3	-5.265693E-3	3.490549E-3	-4.972108E-3	-3.526759E-3	7.151124E-4	-6.857425E-3	3.072920E-4	2.968029E-3	-5.990001E-3	-6.851253E-3	-1.006038E-2	-2.491371E-3	-1.948123E-3	-5.679401E-4	1.550008E-3	-2.525009E-3	-9.881918E-3	1.098418E-3	-1.833171E-3	-7.042704E-3	-1.932906E-3	-4.585509E-3	-5.943517E-3	-5.307183E-3	3.132852E-3	-2.455837E-3	1.030170E-3	-6.076914E-3	-6.496182E-3	-9.183054E-4
5.310050E+2	-8.623842E-3	-1.076176E-2	-5.265546E-3	-2.138257E-4	-7.121602E-4	1.123364E-3	-3.553473E-3	-1.481034E-3	-5.739603E-3	4.200040E-3	-6.616404E-3	-1.073511E-2	1.178899E-3	9.060013E-4	-4.941111E-3	7.101726E-3	3.576220E-3	-3.665703E-3	7.522194E-4	-7.729256E-3	-4.457723E-3	-3.054753E-3	-7.020592E-3	-7.986933E-3	3.633645E-3	-4.562792E-3	7.333104E-4	-6.555519E-3	-7.637011E-3	-7.195169E-3	4.037588E-3	-2.785651E-3	-1.058345E-2	7.426340E-3	-1.143889E-3	-4.204798E-3	-2.903551E-3	-1.127186E-3	-5.656203E-3	-8.289424E-3	-6.550937E-4	-2.549714E-3	6.182572E-3	-1.311462E-3	-2.007019E-4	-8.810845E-4	-3.437639E-3	2.767442E-3	3.577774E-3	-5.891104E-3	-4.740138E-3	-2.310173E-3	-4.344721E-3	8.473580E-4	-5.298265E-3	-7.294320E-3	-8.176597E-3	2.239064E-3	1.836320E-3	1.668063E-3	-9.624415E-3	-3.639926E-3	1.625088E-3	-1.392853E-2	-3.056141E-3	2.790324E-3	-8.813253E-3	-2.256468E-3	6.705180E-4	1.378335E-3	-1.237228E-2	-3.613952E-3	-6.623305E-3	-1.124080E-3	-3.544672E-3	-8.474613E-3	2.902400E-3	-2.973146E-3	2.027420E-3	-7.093957E-3	-2.893457E-3	-3.668601E-3	-7.451644E-3	-4.504389E-3	-8.283668E-3	2.897797E-3	-3.458683E-3	1.108986E-3	-7.417455E-3	1.877130E-3	-3.904428E-3	-1.890766E-3	-4.410954E-3	-1.224169E-2	-9.047284E-3	8.310343E-4	2.544899E-3	-9.301618E-4	-2.566946E-3	-9.537869E-3	3.405680E-3	-3.148001E-3	-3.158461E-3	3.596203E-3	-3.473945E-3	-7.307178E-3	-4.010968E-3	-1.471991E-3	-2.940189E-3	1.874238E-3	-6.306663E-3	-2.220347E-3	-2.589738E-3	-5.311132E-3	-4.806635E-3	1.670872E-4	-7.100206E-3	1.620608E-3	5.297662E-3	2.985382E-3	-2.318352E-3	1.795880E-3	2.735919E-3	-1.336525E-2	1.638988E-3	-3.682315E-3	3.423204E-3	4.978366E-4	6.570058E-3	5.594796E-4	-3.332933E-3	-3.698114E-3	-1.772728E-3	-1.027187E-3	-5.636339E-3	-4.814113E-3	-8.671358E-3	1.128751E-2	-5.870908E-3	-2.799169E-3	-3.221401E-4	-3.358996E-3	-1.951582E-3	-6.354146E-3	-3.139385E-3	-6.972443E-3	-4.339628E-3	-7.719199E-3	-5.805208E-3	-6.668262E-4	-4.327355E-3	3.669106E-3	2.389471E-3	-7.036076E-3	5.992824E-3	2.558104E-3	-4.707330E-3	-4.655619E-3	-2.427147E-3	-1.938163E-3	-8.830858E-3	-8.768494E-3	-3.014771E-3	-8.275576E-3	-4.472494E-3	-9.184987E-3	-5.072521E-4	3.314587E-3	-1.399829E-3	7.540998E-3	3.361089E-3
5.315130E+2	1.883473E-4	2.207184E-3	-1.312275E-2	-4.568304E-3	-1.113665E-3	6.340499E-3	-5.224087E-3	1.881075E-3	-7.285447E-3	-1.263676E-4	2.913676E-3	9.733487E-3	-2.037977E-3	-1.387586E-3	-6.748636E-3	-7.599353E-3	-3.091838E-3	-3.758024E-3	3.521578E-3	-8.816374E-3	7.301970E-4	2.245427E-3	-2.261350E-3	2.144642E-3	-6.375609E-3	-1.082683E-3	-4.606034E-3	3.281305E-3	4.777704E-3	-1.476712E-3	-2.891137E-3	-4.636694E-3	1.363767E-3	9.002395E-5	-5.588301E-3	4.940717E-4	-9.462834E-4	-9.172397E-3	-3.647219E-3	-3.748489E-3	1.952192E-3	-4.197691E-3	3.701029E-5	8.938754E-4	-2.290390E-3	-6.568666E-3	-5.476791E-4	8.907441E-4	-2.613805E-3	-2.550501E-3	-3.630968E-3	1.391245E-3	-4.255753E-3	1.950317E-3	-2.260238E-3	3.416750E-3	-4.325400E-3	-7.110485E-3	-2.106863E-3	-1.918285E-3	-1.603629E-3	-7.735580E-3	-6.708203E-3	-7.783606E-3	4.377323E-3	-3.289894E-3	1.473236E-3	2.992127E-3	-1.480142E-3	-1.590893E-3	2.456336E-3	4.519880E-3	1.196613E-3	-1.678967E-3	5.110433E-3	-1.963885E-4	4.035659E-3	-2.847713E-3	-5.170519E-3	-1.298080E-3	-1.810452E-3	1.150706E-3	7.083533E-3	-5.159802E-3	3.889779E-3	4.623818E-3	3.594646E-3	-6.387732E-3	-3.947047E-3	-3.696636E-3	1.076676E-3	2.820867E-3	-6.216780E-3	8.157432E-3	-3.279492E-3	-2.137790E-3	8.106446E-4	6.410526E-4	5.648443E-3	-5.693933E-3	-1.135539E-3	-3.752499E-3	4.185163E-4	-1.381743E-3	-3.507894E-3	-2.265345E-3	2.902878E-3	-3.892084E-4	-4.083082E-4	-3.666548E-3	-4.680194E-3	-1.620141E-3	6.641367E-3	1.013118E-2	-1.056765E-3	7.793910E-3	3.619532E-3	-4.362308E-3	3.989992E-3	-4.057898E-3	7.607259E-3	-4.272684E-3	-3.116445E-3	-5.655137E-4	5.624085E-3	-3.594294E-3	-3.959989E-3	-2.030077E-3	4.005513E-4	-1.826009E-5	4.650749E-3	-2.130040E-3	-1.168786E-3	-5.178280E-3	-2.402266E-3	3.821487E-3	4.605631E-3	-9.255238E-3	4.797461E-4	4.983541E-3	-4.845785E-3	7.510247E-3	-5.624512E-3	2.460705E-3	3.976551E-3	-6.444094E-3	-4.309961E-3	-6.680945E-3	-4.846391E-3	-5.028391E-3	5.866527E-3	-1.474386E-3	-4.873930E-3	9.145416E-3	-1.971046E-3	-7.225497E-3	-6.264424E-3	5.132280E-3	-4.844968E-3	-3.115387E-3	-4.313050E-4	1.516233E-2	2.153706E-3	1.756341E-3	3.621159E-3	-1.771578E-3	-6.193451E-3	-5.185987E-3	3.159316E-3	-2.473971E-3	4.026046E-3
5.320070E+2	3.140496E-3	8.997112E-3	5.487116E-3	5.654146E-3	5.915106E-3	1.133878E-2	5.994642E-3	-1.633126E-3	1.094109E-2	2.349375E-5	5.663275E-3	2.607417E-3	9.976840E-3	-4.364076E-3	5.467780E-3	7.064624E-3	-2.769372E-3	1.181038E-2	6.230042E-5	6.824078E-3	-7.475240E-4	4.766160E-4	7.098934E-3	6.283716E-3	-7.578670E-4	9.595293E-3	-3.702544E-3	3.548236E-3	4.995303E-3	4.556337E-3	2.999943E-3	7.610352E-3	4.710018E-3	-1.218534E-3	4.680686E-3	6.021832E-3	6.428353E-3	-1.895126E-4	-3.325939E-3	1.886962E-3	-2.437827E-3	1.031396E-2	-7.749527E-4	-1.024019E-3	-4.078990E-3	4.962750E-3	6.345854E-3	2.493499E-4	-4.919590E-3	7.678066E-5	8.836529E-3	1.696905E-3	9.834679E-3	9.688015E-3	2.559223E-3	2.699590E-3	4.505262E-3	9.187735E-3	4.350424E-3	-1.558314E-3	1.019339E-2	-1.912371E-3	1.042946E-2	4.389301E-3	6.406959E-3	4.245932E-3	-1.084686E-3	9.717475E-4	3.674044E-3	4.299735E-3	7.565952E-4	4.247044E-3	3.156336E-3	2.557425E-3	1.610617E-3	2.301172E-3	5.267244E-3	5.559452E-3	5.573883E-3	-3.718723E-3	4.068156E-3	5.146236E-3	1.422575E-3	8.486423E-4	2.620694E-3	4.875694E-3	1.126958E-2	3.937653E-3	1.774575E-3	1.262551E-3	-2.766888E-4	1.076245E-2	1.765001E-2	5.533386E-3	2.258797E-3	-6.235007E-4	1.697564E-3	2.760728E-3	-6.521802E-3	1.293553E-2	1.435277E-3	-2.407494E-3	1.265236E-3	2.880509E-3	9.044020E-3	1.409700E-3	-4.281519E-3	5.767095E-3	-2.639195E-3	9.284162E-3	5.854288E-3	5.000171E-3	2.302876E-3	-3.886021E-3	9.399188E-3	-4.966944E-5	3.347806E-3	7.041699E-3	1.334254E-2	1.307131E-3	6.430001E-3	-1.500315E-3	5.205764E-3	1.427101E-2	9.761028E-5	5.054761E-3	6.593774E-3	1.287911E-2	7.513968E-3	5.301774E-3	-5.426206E-4	6.856997E-3	2.115694E-3	-6.479025E-3	2.153842E-3	-1.488256E-3	4.332866E-3	1.050804E-2	6.678478E-3	-8.153644E-4	3.586314E-5	-5.882811E-4	2.211159E-3	2.205583E-3	1.913906E-4	1.461846E-3	6.224058E-3	2.751535E-3	-2.000690E-3	6.217486E-3	1.362313E-2	1.631719E-3	-3.434690E-3	-3.653036E-3	-9.904379E-4	1.753197E-3	9.649638E-3	6.324647E-3	8.608163E-4	7.715473E-3	1.276567E-2	-9.102274E-3	8.222446E-3	-3.550851E-3	3.358094E-3	4.228038E-4	-3.275590E-3	4.262621E-3	6.107052E-3	-1.561441E-3	3.725070E-3
5.325170E+2	1.211683E-2	5.389065E-3	1.795026E-2	7.706826E-3	5.157266E-3	7.766584E-3	8.419678E-3	1.896612E-2	1.116770E-2	7.666553E-3	6.425168E-3	9.109983E-3	1.066813E-2	1.791347E-2	1.397165E-2	3.141466E-3	1.359627E-2	3.197697E-3	1.979301E-3	1.216169E-2	8.867326E-3	6.665568E-3	5.581387E-3	9.150962E-3	7.399983E-3	-4.386222E-4	9.968177E-3	5.816715E-3	9.984043E-3	1.976795E-2	1.547103E-2	1.269535E-2	7.930534E-3	1.008466E-2	1.552177E-2	1.307328E-2	8.100629E-3	1.084382E-2	2.212350E-2	1.568872E-2	2.117740E-2	1.896901E-3	1.553161E-2	1.584339E-2	1.024189E-2	1.532224E-2	1.836722E-3	1.254769E-2	7.799814E-3	7.315422E-3	1.141028E-3	3.511713E-3	1.664937E-2	4.914458E-3	1.174871E-2	1.038766E-2	1.216886E-2	-8.759541E-4	-9.128313E-4	6.258437E-3	1.498399E-2	1.843149E-2	4.117058E-3	6.999544E-3	-2.782468E-4	1.019919E-2	1.997301E-2	9.416191E-3	1.019455E-2	4.505303E-3	1.102079E-2	1.255321E-2	1.013516E-2	1.045096E-2	1.112905E-2	1.139261E-2	7.012880E-3	6.316113E-3	1.178549E-2	1.636973E-2	1.881151E-2	1.177368E-2	1.298516E-2	1.070806E-2	6.395208E-3	7.769963E-3	3.062803E-3	1.573427E-2	1.751092E-2	1.027701E-2	6.648423E-3	8.658210E-3	1.699652E-2	8.617336E-3	9.236214E-3	8.827660E-3	8.573087E-3	1.836557E-3	1.055013E-2	1.154458E-2	1.656892E-3	1.383465E-2	1.791357E-2	9.135931E-3	3.628411E-3	7.818901E-3	1.038239E-2	8.672543E-3	1.003733E-2	7.166833E-3	1.258469E-2	1.075443E-2	6.537160E-3	1.379168E-2	1.215856E-2	1.869785E-3	3.130602E-3	4.723667E-3	2.889291E-3	7.117388E-3	1.497128E-3	1.025173E-2	-5.850734E-3	6.921770E-3	1.273573E-2	1.223826E-2	8.694535E-3	7.764044E-3	1.456643E-3	1.583437E-3	9.539115E-3	9.643494E-3	1.457585E-3	1.542540E-2	1.471319E-2	3.261787E-3	1.574233E-2	1.016467E-2	7.542727E-3	1.318162E-2	1.192780E-2	2.542482E-3	1.370728E-2	1.025697E-2	6.420161E-3	1.257678E-2	1.603965E-2	8.652067E-3	1.793442E-2	5.894883E-3	2.146857E-3	2.814124E-3	1.358645E-2	1.092514E-2	4.309002E-4	6.597948E-3	1.302552E-2	1.336968E-2	1.194642E-2	8.849151E-3	1.132497E-2	1.196732E-2	5.107106E-3	1.571549E-2	6.885675E-3	1.837082E-2	1.738352E-2	7.513791E-3	1.275853E-2	1.175927E-2	-4.964548E-3
5.330280E+2	1.870077E-2	1.786982E-2	2.029703E-2	2.236982E-2	1.633400E-2	3.288714E-2	1.832046E-2	2.429692E-2	2.301796E-2	2.466288E-2	1.417164E-2	2.657562E-2	1.780305E-2	2.038613E-2	2.850305E-2	2.414721E-2	3.609100E-2	2.854722E-2	2.515113E-2	2.762252E-2	2.493057E-2	2.005929E-2	1.947139E-2	2.162983E-2	2.439595E-2	2.861767E-2	1.905664E-2	3.517651E-2	2.542049E-2	2.761340E-2	2.029815E-2	1.942426E-2	3.271351E-2	1.563136E-2	2.659757E-2	2.732194E-2	1.671156E-2	2.120950E-2	3.097392E-2	3.597618E-2	2.644311E-2	2.300739E-2	2.176001E-2	1.737932E-2	1.908418E-2	2.096198E-2	3.158999E-2	2.156134E-2	2.510622E-2	2.805432E-2	2.737911E-2	3.085434E-2	2.033418E-2	1.559092E-2	2.315664E-2	1.697833E-2	3.390034E-2	2.696322E-2	2.030700E-2	3.449839E-2	1.547241E-2	3.324065E-2	2.123479E-2	2.192897E-2	2.149578E-2	2.792902E-2	2.482355E-2	2.467804E-2	2.799710E-2	1.631257E-2	1.279421E-2	2.514435E-2	2.486094E-2	2.979077E-2	2.661401E-2	1.634770E-2	1.305185E-2	2.633767E-2	2.487301E-2	3.176531E-2	3.631538E-2	1.575016E-2	2.733274E-2	1.451592E-2	3.107636E-2	2.999644E-2	2.873522E-2	1.833110E-2	1.926016E-2	3.474549E-2	4.022175E-2	8.425698E-3	3.113532E-2	2.454357E-2	2.633926E-2	2.849687E-2	1.339593E-2	2.321512E-2	1.704543E-2	9.734194E-3	1.676847E-2	2.638674E-2	3.088255E-2	2.933435E-2	3.655055E-2	1.922150E-2	3.201680E-2	3.239062E-2	1.907736E-2	1.646606E-2	2.460798E-2	1.361239E-2	2.735340E-2	2.471126E-2	1.573632E-2	2.145879E-2	2.419004E-2	2.003941E-2	1.822700E-2	2.197477E-2	2.235942E-2	1.860987E-2	2.802547E-2	1.318325E-2	2.780896E-2	2.081378E-2	1.769796E-2	2.456478E-2	3.010942E-2	2.724579E-2	3.005679E-2	3.300027E-2	2.070797E-2	1.541376E-2	2.937632E-2	3.237343E-2	3.892241E-2	2.191305E-2	2.803187E-2	2.645769E-2	3.102235E-2	1.879353E-2	2.032561E-2	2.716698E-2	2.157610E-2	2.132984E-2	2.735713E-2	3.499803E-2	2.522625E-2	3.296673E-2	2.418456E-2	1.930577E-2	1.913043E-2	2.778803E-2	2.242695E-2	2.104444E-2	2.357197E-2	2.819147E-2	1.839246E-2	2.559034E-2	2.887440E-2	2.608038E-2	2.288074E-2	2.696735E-2	2.262556E-2	2.699608E-2	1.739792E-2	2.136062E-2	3.249606E-2	1.280280E-2	9.397162E-3
5.331630E+2	3.053449E-2	2.648251E-2	3.121642E-2	2.840785E-2	3.516429E-2	3.922774E-2	3.044314E-2	3.505235E-2	3.257595E-2	3.397112E-2	3.970379E-2	2.681754E-2	3.659136E-2	2.535220E-2	3.468371E-2	3.135750E-2	3.746105E-2	3.696790E-2	2.272906E-2	3.253529E-2	4.234485E-2	1.569248E-2	1.876597E-2	2.622788E-2	3.057543E-2	3.908486E-2	2.915313E-2	3.173540E-2	3.571864E-2	2.630031E-2	3.049881E-2	2.929755E-2	2.820174E-2	3.916711E-2	2.417120E-2	2.868470E-2	1.846108E-2	4.158222E-2	2.657744E-2	2.513090E-2	3.196683E-2	3.019538E-2	2.556850E-2	3.234757E-2	3.420795E-2	1.922677E-2	2.219421E-2	3.470856E-2	3.328339E-2	4.970921E-2	2.599565E-2	3.169787E-2	2.710533E-2	2.737725E-2	2.089105E-2	2.661907E-2	4.336521E-2	2.722800E-2	3.034442E-2	2.185693E-2	2.899063E-2	2.319337E-2	2.430087E-2	2.074283E-2	2.772790E-2	2.612371E-2	2.637324E-2	1.977841E-2	4.535159E-2	3.103179E-2	1.968901E-2	4.251340E-2	1.616272E-2	3.973957E-2	2.970781E-2	4.961040E-2	2.351533E-2	2.934204E-2	2.091824E-2	1.852564E-2	2.533544E-2	2.892747E-2	2.985449E-2	2.588943E-2	2.773024E-2	3.457389E-2	1.791076E-2	3.540813E-2	3.300156E-2	2.721377E-2	4.050594E-2	1.549993E-2	2.839530E-2	3.872438E-2	2.802039E-2	3.926831E-2	3.545358E-2	2.584079E-2	2.943651E-2	3.270320E-2	4.022226E-2	3.512955E-2	3.177375E-2	3.474230E-2	2.966260E-2	2.390181E-2	3.856516E-2	2.888743E-2	2.698023E-2	3.339963E-2	2.281245E-2	3.474141E-2	3.763707E-2	3.711501E-2	3.223497E-2	2.188061E-2	3.236531E-2	2.840188E-2	2.894627E-2	2.949171E-2	3.213374E-2	2.445028E-2	3.321661E-2	3.071863E-2	2.606894E-2	3.097303E-2	2.698959E-2	2.294612E-2	2.755740E-2	4.216879E-2	3.135667E-2	3.789780E-2	2.180729E-2	3.235915E-2	2.396173E-2	3.822753E-2	3.540825E-2	2.576684E-2	3.370951E-2	2.760260E-2	2.977798E-2	2.208357E-2	2.958683E-2	2.293253E-2	2.789139E-2	2.222930E-2	2.929366E-2	2.900981E-2	2.717018E-2	3.117173E-2	2.458024E-2	2.928634E-2	4.779164E-2	3.167468E-2	2.421195E-2	2.087334E-2	3.597523E-2	3.638694E-2	3.214136E-2	2.751655E-2	3.259040E-2	1.535336E-2	2.844681E-2	3.185682E-2	1.527816E-2	4.007783E-2	2.882557E-2	4.447835E-2	1.390985E-2	2.050414E-2	4.017558E-2
5.333080E+2	3.336923E-2	2.959170E-2	3.814410E-2	4.085407E-2	3.273632E-2	3.064481E-2	4.594559E-2	4.328727E-2	2.832788E-2	3.085166E-2	3.844422E-2	3.788525E-2	4.432673E-2	3.772251E-2	3.989737E-2	4.286813E-2	4.075058E-2	3.030251E-2	3.758569E-2	3.138780E-2	3.249229E-2	3.462148E-2	3.555397E-2	3.383074E-2	3.906371E-2	4.008617E-2	4.974509E-2	4.908167E-2	3.040855E-2	4.026932E-2	3.482229E-2	3.233206E-2	4.632640E-2	3.787566E-2	3.290860E-2	3.974051E-2	3.721975E-2	3.130987E-2	3.733953E-2	4.628455E-2	3.133134E-2	4.255356E-2	2.360918E-2	3.613139E-2	3.624176E-2	3.350337E-2	4.144224E-2	4.255116E-2	5.022196E-2	4.349073E-2	3.401592E-2	4.513095E-2	5.021787E-2	3.787832E-2	5.137751E-2	3.275261E-2	3.404012E-2	3.799164E-2	3.125116E-2	5.195767E-2	4.326963E-2	3.623398E-2	3.865603E-2	4.687905E-2	2.806855E-2	3.218879E-2	1.965883E-2	5.471240E-2	3.001360E-2	3.074837E-2	3.325303E-2	4.271107E-2	3.187181E-2	3.459096E-2	3.675189E-2	3.114039E-2	2.904423E-2	2.222503E-2	2.878901E-2	2.928391E-2	5.069388E-2	2.586596E-2	3.690853E-2	4.703486E-2	4.319614E-2	4.307872E-2	2.902231E-2	4.209992E-2	4.742062E-2	3.806289E-2	3.987266E-2	1.939531E-2	3.957304E-2	5.033412E-2	3.439426E-2	4.121780E-2	3.994769E-2	2.684118E-2	2.731746E-2	2.257966E-2	3.525222E-2	4.800843E-2	3.815238E-2	3.229933E-2	3.398820E-2	2.174982E-2	4.199319E-2	3.385058E-2	4.530640E-2	3.580578E-2	3.857292E-2	3.529804E-2	4.334592E-2	3.996250E-2	2.468117E-2	3.976705E-2	3.966831E-2	4.147884E-2	3.673149E-2	4.756146E-2	3.123914E-2	3.533890E-2	4.672781E-2	4.477118E-2	3.623328E-2	2.889384E-2	4.223547E-2	4.521324E-2	3.197531E-2	3.879543E-2	3.597426E-2	4.365696E-2	2.947255E-2	2.558489E-2	4.334785E-2	4.549624E-2	3.267304E-2	3.382085E-2	2.853570E-2	3.706488E-2	3.030102E-2	4.393382E-2	3.916222E-2	3.275773E-2	4.159517E-2	3.229787E-2	3.596992E-2	4.274710E-2	3.707803E-2	3.652218E-2	2.280824E-2	3.816455E-2	3.764640E-2	3.338185E-2	3.418844E-2	3.765151E-2	3.971944E-2	3.727490E-2	3.720565E-2	3.075182E-2	5.080861E-2	4.265885E-2	4.343617E-2	5.053953E-2	3.000447E-2	3.503902E-2	3.362692E-2	3.573393E-2	4.741368E-2	4.278858E-2	3.904659E-2
5.334580E+2	3.386584E-2	5.066165E-2	5.161911E-2	4.774823E-2	4.907078E-2	5.297390E-2	3.974211E-2	4.291400E-2	4.342534E-2	6.914359E-2	3.932763E-2	5.272595E-2	6.661567E-2	4.340054E-2	4.925058E-2	5.569746E-2	4.540915E-2	4.898745E-2	5.776384E-2	6.097038E-2	5.110653E-2	5.168436E-2	4.516591E-2	5.151295E-2	5.036853E-2	5.880157E-2	4.383149E-2	5.069861E-2	5.167611E-2	5.068432E-2	4.818096E-2	4.573240E-2	5.619975E-2	4.846305E-2	5.154777E-2	5.149795E-2	5.695231E-2	4.780621E-2	5.592950E-2	5.667230E-2	5.087729E-2	5.640447E-2	3.823533E-2	5.982629E-2	6.171464E-2	5.564517E-2	4.818345E-2	5.548193E-2	4.652405E-2	5.453781E-2	5.298097E-2	6.406596E-2	5.049254E-2	5.498093E-2	5.750769E-2	5.484256E-2	5.149283E-2	5.091756E-2	4.001879E-2	4.913478E-2	5.900163E-2	5.334426E-2	3.723595E-2	6.269449E-2	5.678084E-2	5.813581E-2	5.847876E-2	4.942400E-2	5.819691E-2	5.235869E-2	3.838841E-2	5.319919E-2	4.963063E-2	5.876412E-2	5.014812E-2	6.089697E-2	5.499722E-2	5.083349E-2	4.182407E-2	5.696917E-2	6.307651E-2	4.913542E-2	6.213414E-2	4.543287E-2	4.582311E-2	5.624011E-2	5.547648E-2	4.062862E-2	5.718962E-2	4.495628E-2	5.082372E-2	6.070331E-2	4.527375E-2	4.265106E-2	5.397613E-2	5.359520E-2	4.841209E-2	5.953613E-2	5.145637E-2	6.061640E-2	4.611529E-2	5.182482E-2	4.427478E-2	5.464801E-2	6.603735E-2	5.334981E-2	6.171251E-2	4.854413E-2	5.429610E-2	5.069135E-2	5.233865E-2	6.038133E-2	4.410311E-2	5.482940E-2	6.334014E-2	5.745759E-2	5.390316E-2	4.389370E-2	6.877663E-2	5.272406E-2	5.650632E-2	5.729836E-2	5.490962E-2	5.138576E-2	5.554454E-2	5.100449E-2	4.746792E-2	5.235615E-2	4.832004E-2	5.361907E-2	5.505242E-2	5.202140E-2	4.648535E-2	4.693285E-2	4.832788E-2	5.779260E-2	6.028856E-2	5.395081E-2	5.259254E-2	3.946169E-2	5.020446E-2	5.509856E-2	5.509784E-2	5.241715E-2	4.409400E-2	4.343807E-2	4.311155E-2	6.251916E-2	5.079330E-2	6.362687E-2	5.235568E-2	4.598435E-2	5.367990E-2	5.490773E-2	5.315562E-2	4.890668E-2	6.247680E-2	5.979178E-2	5.124699E-2	5.900484E-2	3.780656E-2	4.453003E-2	4.297596E-2	5.682739E-2	5.195234E-2	4.596587E-2	6.183424E-2	4.585360E-2	5.210120E-2	3.199722E-2	6.726314E-2
5.336130E+2	6.888668E-2	6.385847E-2	6.206046E-2	7.917875E-2	7.268078E-2	6.560272E-2	6.733850E-2	6.935969E-2	6.822719E-2	8.180316E-2	6.504180E-2	6.332664E-2	5.479239E-2	6.100621E-2	6.191987E-2	6.213139E-2	7.129619E-2	6.362844E-2	5.720527E-2	8.018762E-2	5.813784E-2	7.349697E-2	7.215409E-2	5.914786E-2	6.585848E-2	7.229282E-2	6.232065E-2	8.228003E-2	7.488943E-2	5.119242E-2	5.921646E-2	6.875969E-2	6.405062E-2	7.619803E-2	7.333441E-2	6.795220E-2	5.991505E-2	6.950232E-2	7.876295E-2	6.592875E-2	5.714358E-2	6.632382E-2	4.517248E-2	5.698735E-2	6.755133E-2	7.571753E-2	6.657486E-2	7.886619E-2	6.391468E-2	6.554860E-2	6.998479E-2	7.489104E-2	7.263966E-2	6.330608E-2	6.426455E-2	7.610725E-2	5.716235E-2	6.378649E-2	7.400578E-2	7.098982E-2	7.992698E-2	6.177515E-2	7.396429E-2	6.954881E-2	8.290204E-2	7.243433E-2	4.966268E-2	8.556709E-2	6.694437E-2	6.089188E-2	7.017193E-2	6.190607E-2	7.286731E-2	8.137082E-2	5.618762E-2	6.034527E-2	6.926940E-2	5.708992E-2	7.016290E-2	8.394190E-2	6.248647E-2	4.913635E-2	7.475072E-2	7.865354E-2	7.363420E-2	6.326015E-2	6.161537E-2	5.944586E-2	5.045054E-2	6.706288E-2	6.439905E-2	5.766299E-2	6.403681E-2	5.592156E-2	7.300108E-2	7.380087E-2	6.550267E-2	6.523399E-2	5.986461E-2	6.614592E-2	6.511187E-2	6.625480E-2	6.201969E-2	7.385227E-2	6.661759E-2	7.044397E-2	7.085932E-2	8.149260E-2	7.145868E-2	6.245640E-2	7.593466E-2	6.474691E-2	5.687651E-2	7.519915E-2	6.983219E-2	5.508100E-2	6.481046E-2	5.897772E-2	6.114365E-2	5.792391E-2	6.896785E-2	6.574415E-2	7.065223E-2	5.843973E-2	6.146095E-2	5.608657E-2	7.799797E-2	7.603903E-2	6.733213E-2	7.468172E-2	7.922550E-2	7.444454E-2	6.676794E-2	6.251001E-2	6.910571E-2	7.427775E-2	7.058444E-2	8.792217E-2	8.075702E-2	6.417550E-2	8.014878E-2	7.090683E-2	7.483965E-2	7.559814E-2	5.374768E-2	6.260588E-2	7.067383E-2	8.042958E-2	7.358982E-2	7.488324E-2	6.980943E-2	6.213520E-2	7.524139E-2	7.520191E-2	6.366729E-2	8.104642E-2	7.314087E-2	6.853521E-2	8.880095E-2	7.177722E-2	6.164061E-2	6.665920E-2	7.131206E-2	6.532911E-2	6.778946E-2	7.439014E-2	5.977862E-2	6.849814E-2	5.995401E-2	6.718933E-2	5.885112E-2
5.337580E+2	1.106596E-1	1.056113E-1	9.976173E-2	9.385049E-2	9.772017E-2	9.021988E-2	7.975238E-2	1.220902E-1	1.055024E-1	9.682998E-2	9.178551E-2	9.825299E-2	9.778907E-2	1.039022E-1	9.262958E-2	9.166559E-2	1.141003E-1	1.031927E-1	1.005009E-1	1.227981E-1	1.082864E-1	9.343739E-2	9.769513E-2	9.659452E-2	1.043301E-1	1.076742E-1	1.073556E-1	9.098967E-2	1.107653E-1	1.051443E-1	1.051341E-1	9.888633E-2	1.107638E-1	1.154809E-1	9.660098E-2	1.142062E-1	1.087921E-1	1.049711E-1	8.787926E-2	9.529385E-2	9.162926E-2	9.844124E-2	1.019622E-1	1.119016E-1	9.756185E-2	9.617525E-2	1.027764E-1	1.100627E-1	1.029350E-1	1.164885E-1	8.248538E-2	1.066819E-1	1.113337E-1	1.084800E-1	1.056263E-1	1.182724E-1	1.052451E-1	1.169424E-1	1.004718E-1	1.021128E-1	1.017911E-1	9.619195E-2	9.933757E-2	1.171142E-1	1.171194E-1	9.630059E-2	1.038766E-1	9.592068E-2	1.012121E-1	1.031888E-1	8.676252E-2	1.062080E-1	1.079329E-1	1.214896E-1	8.803421E-2	1.208811E-1	8.432116E-2	9.670579E-2	1.004954E-1	9.343214E-2	1.000690E-1	1.056441E-1	1.047815E-1	9.903974E-2	9.982929E-2	9.643926E-2	9.667568E-2	9.657939E-2	1.051583E-1	9.698320E-2	9.957603E-2	1.105021E-1	1.132396E-1	1.278323E-1	8.905271E-2	1.075692E-1	1.006451E-1	1.026672E-1	1.316858E-1	9.107898E-2	1.075148E-1	1.116693E-1	1.081677E-1	1.060654E-1	1.005044E-1	9.983369E-2	1.011853E-1	1.028361E-1	1.027782E-1	1.112255E-1	1.038654E-1	9.379375E-2	1.063894E-1	1.022362E-1	1.056336E-1	1.171798E-1	8.870641E-2	9.201815E-2	1.240904E-1	1.081120E-1	1.062396E-1	1.257357E-1	9.874877E-2	1.133482E-1	8.856798E-2	1.043800E-1	1.129994E-1	1.071263E-1	1.029717E-1	1.099559E-1	8.616181E-2	1.072937E-1	1.142511E-1	1.032671E-1	1.156900E-1	1.030464E-1	1.050939E-1	8.767178E-2	9.895555E-2	9.440577E-2	9.397498E-2	9.117844E-2	1.116542E-1	1.132059E-1	1.132659E-1	9.587196E-2	1.145533E-1	1.167750E-1	1.220739E-1	1.088652E-1	1.063109E-1	1.027792E-1	1.172881E-1	1.100884E-1	1.196698E-1	9.836462E-2	1.091752E-1	1.090109E-1	1.129483E-1	8.079686E-2	1.024949E-1	1.103094E-1	9.834212E-2	9.862352E-2	1.022963E-1	1.014408E-1	1.075992E-1	1.032415E-1	8.243696E-2	1.119577E-1	8.962488E-2
5.339090E+2	1.674288E-1	1.674225E-1	1.652753E-1	1.651831E-1	1.404926E-1	1.597719E-1	1.615997E-1	1.680789E-1	1.575165E-1	1.566575E-1	1.653171E-1	1.680884E-1	1.698512E-1	1.699760E-1	1.578666E-1	1.755912E-1	1.751443E-1	1.741773E-1	1.558943E-1	1.495668E-1	1.580409E-1	1.670627E-1	1.699084E-1	1.360718E-1	1.737692E-1	1.922751E-1	1.520635E-1	1.731846E-1	1.611601E-1	1.639672E-1	1.593153E-1	1.578534E-1	1.871831E-1	1.676250E-1	1.626355E-1	1.525679E-1	1.592049E-1	1.713971E-1	1.867876E-1	1.645017E-1	1.506928E-1	1.647030E-1	1.608722E-1	1.455654E-1	1.666330E-1	1.737154E-1	1.664668E-1	1.641886E-1	1.676534E-1	1.536883E-1	1.929346E-1	1.545747E-1	1.727513E-1	1.427513E-1	1.911154E-1	1.583430E-1	1.681283E-1	1.645028E-1	1.536381E-1	1.659574E-1	1.791747E-1	1.616084E-1	1.501017E-1	1.691737E-1	1.583235E-1	1.489017E-1	1.938480E-1	1.584129E-1	1.718732E-1	1.378649E-1	1.829721E-1	1.602611E-1	1.613806E-1	1.719190E-1	1.517352E-1	1.458547E-1	1.620194E-1	1.600031E-1	1.730088E-1	1.670245E-1	1.812151E-1	1.700449E-1	1.724603E-1	1.659193E-1	1.593631E-1	1.570073E-1	1.739545E-1	1.761419E-1	1.595308E-1	1.631562E-1	1.832803E-1	1.478464E-1	1.605425E-1	1.615809E-1	1.722344E-1	1.717767E-1	1.400498E-1	1.712699E-1	1.894098E-1	1.584840E-1	1.595786E-1	1.787762E-1	1.776846E-1	1.871972E-1	1.724178E-1	1.595337E-1	1.632379E-1	1.762927E-1	1.724513E-1	1.633099E-1	1.693188E-1	1.557081E-1	1.535735E-1	1.468164E-1	1.612110E-1	1.632958E-1	1.731789E-1	1.706593E-1	1.881313E-1	1.494318E-1	1.633616E-1	1.931555E-1	1.630038E-1	1.671763E-1	1.601437E-1	1.684358E-1	1.656210E-1	1.770124E-1	1.911439E-1	1.754528E-1	1.720437E-1	1.610723E-1	1.843626E-1	1.678776E-1	1.727568E-1	1.644071E-1	1.657684E-1	1.857317E-1	1.432384E-1	1.713357E-1	1.765896E-1	1.614738E-1	1.520152E-1	1.741146E-1	1.564141E-1	1.836412E-1	1.660027E-1	1.763431E-1	1.771391E-1	1.491721E-1	1.509626E-1	1.683334E-1	1.753334E-1	1.745417E-1	1.802115E-1	1.451238E-1	1.863588E-1	1.712853E-1	1.636243E-1	1.542772E-1	1.612565E-1	1.702072E-1	1.586984E-1	1.596723E-1	1.656810E-1	1.706579E-1	1.791312E-1	1.648218E-1	1.727845E-1	1.622074E-1	1.746620E-1
5.340800E+2	2.614215E-1	2.927882E-1	2.556186E-1	3.145072E-1	2.805085E-1	2.767769E-1	2.891875E-1	2.860730E-1	3.028020E-1	3.026087E-1	2.996056E-1	2.654521E-1	2.776085E-1	2.696150E-1	2.777987E-1	2.870294E-1	2.795759E-1	2.853073E-1	2.804116E-1	3.058631E-1	2.815534E-1	2.762384E-1	2.569899E-1	2.619872E-1	2.919652E-1	3.054070E-1	2.764223E-1	2.665841E-1	2.725928E-1	2.747854E-1	2.752356E-1	2.880253E-1	3.129533E-1	2.854484E-1	2.891702E-1	2.928448E-1	2.770216E-1	2.793110E-1	2.763374E-1	2.922832E-1	2.604380E-1	2.701729E-1	2.563016E-1	2.653732E-1	2.662534E-1	2.767982E-1	2.968834E-1	2.872090E-1	2.559137E-1	2.981923E-1	3.059506E-1	2.923874E-1	3.107057E-1	2.584591E-1	2.977805E-1	2.892071E-1	2.854775E-1	2.906657E-1	2.943556E-1	2.789804E-1	2.736187E-1	2.911022E-1	2.695665E-1	2.977850E-1	2.944791E-1	2.835898E-1	2.783297E-1	2.926938E-1	2.777580E-1	2.782183E-1	2.796911E-1	2.789320E-1	2.640790E-1	2.596111E-1	2.811430E-1	2.882805E-1	2.666089E-1	3.157335E-1	2.823536E-1	2.481173E-1	2.807733E-1	2.692811E-1	2.939890E-1	3.022532E-1	3.100447E-1	2.801514E-1	3.027817E-1	2.676035E-1	2.858819E-1	2.738348E-1	2.884867E-1	2.734114E-1	3.023191E-1	2.606848E-1	2.682319E-1	2.841749E-1	2.630125E-1	2.730289E-1	2.940975E-1	2.856620E-1	3.164845E-1	3.025872E-1	2.871064E-1	2.910862E-1	2.889450E-1	2.747473E-1	3.033866E-1	2.721418E-1	2.622239E-1	2.983654E-1	2.708014E-1	2.771359E-1	3.002115E-1	2.873955E-1	2.920996E-1	2.662022E-1	2.725536E-1	2.718089E-1	2.944590E-1	2.932677E-1	2.959351E-1	2.892443E-1	2.827481E-1	2.622892E-1	2.689645E-1	2.888122E-1	2.750841E-1	3.009824E-1	2.903544E-1	2.963128E-1	2.812734E-1	2.891537E-1	2.765702E-1	2.761816E-1	3.006677E-1	2.855499E-1	2.860100E-1	2.995797E-1	2.857080E-1	2.665376E-1	2.821926E-1	2.866676E-1	2.726429E-1	2.810659E-1	2.956753E-1	2.973541E-1	2.869539E-1	2.905922E-1	2.817009E-1	2.839400E-1	2.855806E-1	3.055248E-1	2.875072E-1	3.195183E-1	3.045995E-1	3.063431E-1	2.935278E-1	2.850605E-1	2.831640E-1	2.861927E-1	2.823237E-1	2.932672E-1	2.760206E-1	2.661973E-1	2.914052E-1	2.788235E-1	2.904664E-1	2.782461E-1	2.924039E-1	2.761847E-1	3.163289E-1
5.342040E+2	4.148035E-1	4.196186E-1	4.306823E-1	4.344870E-1	4.457182E-1	4.271558E-1	4.421274E-1	4.706796E-1	4.154131E-1	4.441160E-1	4.714418E-1	4.360487E-1	4.193974E-1	4.545540E-1	4.428597E-1	4.259814E-1	4.478628E-1	4.416417E-1	4.423869E-1	4.639922E-1	4.382839E-1	4.554028E-1	4.672462E-1	4.624566E-1	4.404233E-1	4.555271E-1	4.374005E-1	4.754929E-1	4.367392E-1	4.207550E-1	4.690709E-1	3.993110E-1	4.463565E-1	4.441506E-1	4.476872E-1	4.649521E-1	4.367141E-1	4.223451E-1	4.386666E-1	4.409314E-1	4.318289E-1	4.475720E-1	4.182354E-1	4.377655E-1	4.301808E-1	4.467415E-1	4.488099E-1	4.724553E-1	4.626378E-1	4.245303E-1	4.403261E-1	4.187123E-1	4.266553E-1	4.178851E-1	4.450890E-1	4.481801E-1	4.777383E-1	4.623282E-1	4.027897E-1	4.445764E-1	4.440942E-1	4.426164E-1	4.399294E-1	4.407591E-1	4.384325E-1	4.015869E-1	4.255556E-1	4.848840E-1	4.119944E-1	4.274963E-1	4.123990E-1	4.496026E-1	4.401219E-1	4.042422E-1	4.426046E-1	4.512913E-1	4.253154E-1	4.301291E-1	4.314788E-1	4.349280E-1	4.423262E-1	4.663598E-1	4.454990E-1	4.613085E-1	4.761828E-1	4.420685E-1	4.692344E-1	4.435804E-1	3.993926E-1	4.724119E-1	4.481528E-1	4.204611E-1	4.263519E-1	4.356445E-1	4.553358E-1	4.260897E-1	4.533651E-1	4.479879E-1	4.722515E-1	4.164634E-1	4.398310E-1	4.315237E-1	4.371471E-1	4.320131E-1	4.426401E-1	4.372026E-1	4.344803E-1	4.412925E-1	4.859705E-1	4.137238E-1	4.654104E-1	4.391151E-1	4.556689E-1	4.601444E-1	4.707452E-1	4.432018E-1	4.460156E-1	4.163175E-1	4.339787E-1	4.220853E-1	4.299842E-1	4.354897E-1	4.564979E-1	4.271813E-1	4.697585E-1	4.396535E-1	4.731974E-1	4.364311E-1	4.333382E-1	4.451970E-1	4.478175E-1	4.121208E-1	4.432342E-1	4.619062E-1	4.380473E-1	4.559605E-1	4.644168E-1	4.478018E-1	4.138757E-1	4.392739E-1	4.445421E-1	4.265967E-1	4.745120E-1	4.414596E-1	4.314283E-1	4.620606E-1	4.442130E-1	4.671387E-1	4.062911E-1	4.389456E-1	4.367565E-1	4.446450E-1	4.537213E-1	4.259878E-1	4.398598E-1	4.407152E-1	4.843176E-1	4.450544E-1	4.324071E-1	4.577735E-1	4.483459E-1	4.491483E-1	4.401512E-1	4.439884E-1	4.423261E-1	4.528076E-1	4.546784E-1	4.310865E-1	4.309140E-1	4.102889E-1	4.845107E-1
5.343600E+2	7.548267E-1	7.963114E-1	7.775479E-1	7.876187E-1	8.044472E-1	8.187402E-1	7.757994E-1	8.059138E-1	7.739634E-1	8.313273E-1	7.469623E-1	7.634447E-1	8.110626E-1	8.045179E-1	7.976427E-1	7.825772E-1	8.037623E-1	7.843263E-1	8.166133E-1	8.297247E-1	8.187054E-1	8.329981E-1	8.195758E-1	7.889318E-1	8.057709E-1	7.996395E-1	7.917480E-1	7.986119E-1	7.633882E-1	7.880232E-1	8.090791E-1	7.877977E-1	8.089954E-1	8.150638E-1	7.983085E-1	8.179319E-1	8.028411E-1	7.972638E-1	7.836640E-1	8.135598E-1	8.083673E-1	7.823514E-1	7.756879E-1	8.175557E-1	7.901879E-1	8.092609E-1	8.096963E-1	8.178633E-1	7.952142E-1	8.243698E-1	7.856981E-1	8.028818E-1	7.578658E-1	7.666926E-1	8.005831E-1	8.046775E-1	7.970287E-1	7.450400E-1	7.879022E-1	7.757577E-1	7.497518E-1	7.918086E-1	7.929267E-1	7.797236E-1	7.688229E-1	7.882360E-1	7.962821E-1	8.243798E-1	8.063531E-1	8.063906E-1	7.807303E-1	8.194197E-1	7.625061E-1	7.739224E-1	7.514587E-1	7.713603E-1	7.854354E-1	7.691999E-1	8.106335E-1	7.432891E-1	7.820662E-1	7.722500E-1	8.121991E-1	7.726534E-1	7.543279E-1	7.757879E-1	8.354571E-1	7.898425E-1	7.832079E-1	7.953733E-1	7.656967E-1	7.885304E-1	8.367476E-1	7.327173E-1	7.739787E-1	7.747365E-1	7.893447E-1	7.708640E-1	8.183175E-1	8.003473E-1	7.843332E-1	7.632760E-1	7.916552E-1	7.957811E-1	7.776607E-1	7.947235E-1	8.086015E-1	7.875920E-1	7.517790E-1	7.809602E-1	7.509489E-1	8.041981E-1	7.727196E-1	7.669066E-1	8.114786E-1	7.904246E-1	7.726443E-1	7.891196E-1	8.327356E-1	7.745715E-1	7.827778E-1	7.753012E-1	7.794236E-1	8.149489E-1	7.824451E-1	7.925774E-1	7.930837E-1	7.655675E-1	7.996304E-1	7.950424E-1	7.982406E-1	8.013267E-1	7.811454E-1	7.517021E-1	8.057190E-1	7.918142E-1	7.796869E-1	8.504687E-1	7.474593E-1	8.126324E-1	7.908219E-1	7.795299E-1	8.059691E-1	8.229114E-1	7.667248E-1	7.920066E-1	7.926430E-1	7.977295E-1	7.654073E-1	7.970681E-1	7.581446E-1	8.351936E-1	7.745654E-1	8.173918E-1	7.957330E-1	7.777703E-1	8.069955E-1	7.982346E-1	7.906217E-1	7.850986E-1	7.732281E-1	7.961822E-1	8.067775E-1	7.843917E-1	8.225827E-1	7.492338E-1	7.955759E-1	7.925719E-1	7.962840E-1	8.404758E-1	7.432365E-1
5.345110E+2	1.126164E+0	1.137721E+0	1.136799E+0	1.155299E+0	1.168463E+0	1.151334E+0	1.158227E+0	1.148973E+0	1.111063E+0	1.187673E+0	1.176681E+0	1.096143E+0	1.145367E+0	1.257543E+0	1.177316E+0	1.142491E+0	1.160365E+0	1.181252E+0	1.154413E+0	1.129833E+0	1.161243E+0	1.136490E+0	1.141553E+0	1.146718E+0	1.150436E+0	1.210304E+0	1.152768E+0	1.126473E+0	1.164705E+0	1.133484E+0	1.136319E+0	1.178667E+0	1.149886E+0	1.123792E+0	1.138814E+0	1.183304E+0	1.132413E+0	1.174093E+0	1.121860E+0	1.194655E+0	1.140566E+0	1.128705E+0	1.123318E+0	1.141188E+0	1.128392E+0	1.174530E+0	1.081538E+0	1.151220E+0	1.103062E+0	1.153472E+0	1.164463E+0	1.143595E+0	1.130718E+0	1.118214E+0	1.160297E+0	1.187183E+0	1.201633E+0	1.148295E+0	1.098536E+0	1.117080E+0	1.114194E+0	1.170338E+0	1.138740E+0	1.139552E+0	1.127726E+0	1.106150E+0	1.154796E+0	1.179475E+0	1.094025E+0	1.124493E+0	1.123206E+0	1.160763E+0	1.162078E+0	1.152895E+0	1.173588E+0	1.119741E+0	1.146482E+0	1.201833E+0	1.116129E+0	1.135470E+0	1.172595E+0	1.154818E+0	1.131309E+0	1.156443E+0	1.083173E+0	1.120095E+0	1.163288E+0	1.223465E+0	1.091816E+0	1.146447E+0	1.149057E+0	1.150841E+0	1.159477E+0	1.137551E+0	1.189973E+0	1.155904E+0	1.175811E+0	1.123815E+0	1.141542E+0	1.104827E+0	1.127991E+0	1.100767E+0	1.165631E+0	1.193118E+0	1.141768E+0	1.201702E+0	1.153438E+0	1.110450E+0	1.158204E+0	1.145510E+0	1.157293E+0	1.149826E+0	1.137092E+0	1.182374E+0	1.152767E+0	1.137728E+0	1.152282E+0	1.119441E+0	1.173763E+0	1.187316E+0	1.127233E+0	1.192234E+0	1.154834E+0	1.098637E+0	1.151966E+0	1.119932E+0	1.129914E+0	1.113639E+0	1.167976E+0	1.167036E+0	1.117253E+0	1.081733E+0	1.178076E+0	1.133592E+0	1.150136E+0	1.227302E+0	1.169592E+0	1.196258E+0	1.136191E+0	1.170900E+0	1.134210E+0	1.156562E+0	1.150326E+0	1.148720E+0	1.148539E+0	1.126136E+0	1.156056E+0	1.213534E+0	1.122927E+0	1.120293E+0	1.147474E+0	1.175458E+0	1.113519E+0	1.166724E+0	1.154256E+0	1.167883E+0	1.154535E+0	1.124361E+0	1.130361E+0	1.119928E+0	1.118017E+0	1.129754E+0	1.119879E+0	1.155218E+0	1.185013E+0	1.131190E+0	1.157614E+0	1.161312E+0	1.115815E+0	1.116320E+0	1.126859E+0
5.346510E+2	1.604152E+0	1.543517E+0	1.580940E+0	1.657274E+0	1.604480E+0	1.636673E+0	1.602555E+0	1.607949E+0	1.568808E+0	1.612078E+0	1.627238E+0	1.592429E+0	1.574141E+0	1.630675E+0	1.622719E+0	1.638856E+0	1.600683E+0	1.602686E+0	1.570654E+0	1.602149E+0	1.610979E+0	1.613283E+0	1.623938E+0	1.635870E+0	1.585063E+0	1.675013E+0	1.613141E+0	1.657940E+0	1.623390E+0	1.558487E+0	1.642131E+0	1.637322E+0	1.634213E+0	1.579779E+0	1.566995E+0	1.594983E+0	1.562141E+0	1.605984E+0	1.602587E+0	1.581766E+0	1.590803E+0	1.577506E+0	1.599200E+0	1.605969E+0	1.552958E+0	1.611669E+0	1.605155E+0	1.604604E+0	1.583455E+0	1.643440E+0	1.589660E+0	1.627475E+0	1.536845E+0	1.568845E+0	1.646033E+0	1.617022E+0	1.667156E+0	1.590999E+0	1.570896E+0	1.579685E+0	1.574426E+0	1.608715E+0	1.663265E+0	1.599629E+0	1.637198E+0	1.549259E+0	1.597979E+0	1.587275E+0	1.594447E+0	1.564883E+0	1.565736E+0	1.650141E+0	1.621345E+0	1.605434E+0	1.557854E+0	1.612301E+0	1.609097E+0	1.634273E+0	1.538591E+0	1.564895E+0	1.621104E+0	1.606780E+0	1.607289E+0	1.580792E+0	1.638018E+0	1.576986E+0	1.563492E+0	1.604160E+0	1.567003E+0	1.626419E+0	1.618754E+0	1.618178E+0	1.634896E+0	1.553407E+0	1.578309E+0	1.592119E+0	1.599250E+0	1.561145E+0	1.598368E+0	1.618197E+0	1.571163E+0	1.570827E+0	1.536430E+0	1.619722E+0	1.571599E+0	1.604052E+0	1.577647E+0	1.594240E+0	1.596759E+0	1.628324E+0	1.619037E+0	1.546965E+0	1.604949E+0	1.543109E+0	1.641633E+0	1.618317E+0	1.559943E+0	1.537930E+0	1.549808E+0	1.570307E+0	1.575804E+0	1.582503E+0	1.543250E+0	1.623320E+0	1.563845E+0	1.585680E+0	1.556548E+0	1.596788E+0	1.610797E+0	1.571390E+0	1.578086E+0	1.569275E+0	1.484087E+0	1.598864E+0	1.540334E+0	1.560598E+0	1.559776E+0	1.509483E+0	1.561919E+0	1.635266E+0	1.557574E+0	1.492650E+0	1.613897E+0	1.569180E+0	1.573902E+0	1.589993E+0	1.553551E+0	1.649834E+0	1.563178E+0	1.581092E+0	1.526748E+0	1.589721E+0	1.555234E+0	1.625808E+0	1.583451E+0	1.587297E+0	1.556655E+0	1.536611E+0	1.608738E+0	1.500743E+0	1.535299E+0	1.669897E+0	1.529922E+0	1.520161E+0	1.566483E+0	1.570496E+0	1.624665E+0	1.702039E+0	1.486018E+0	1.586391E+0	1.666888E+0
5.348280E+2	1.862932E+0	1.828010E+0	1.845744E+0	1.928167E+0	1.811110E+0	1.909720E+0	1.898711E+0	1.871137E+0	1.844012E+0	1.905148E+0	1.849852E+0	1.944723E+0	1.860402E+0	1.877383E+0	1.884493E+0	1.939526E+0	1.981921E+0	1.847565E+0	1.842937E+0	1.886757E+0	1.856287E+0	1.907139E+0	1.900275E+0	1.902700E+0	1.859026E+0	1.889443E+0	1.880679E+0	1.918079E+0	1.887404E+0	1.871394E+0	1.903326E+0	1.928227E+0	1.928923E+0	1.886840E+0	1.903606E+0	1.938875E+0	1.818930E+0	1.846579E+0	1.857127E+0	1.919906E+0	1.888985E+0	1.844789E+0	1.847798E+0	1.907683E+0	1.815881E+0	1.862018E+0	1.831123E+0	1.961412E+0	1.818375E+0	1.917645E+0	1.925963E+0	1.895979E+0	1.802734E+0	1.900148E+0	1.903772E+0	1.939401E+0	1.917889E+0	1.879563E+0	1.862660E+0	1.884186E+0	1.833534E+0	1.851599E+0	1.881383E+0	1.905306E+0	1.818799E+0	1.814144E+0	1.807184E+0	1.901701E+0	1.798092E+0	1.894453E+0	1.833921E+0	1.931095E+0	1.919132E+0	1.826787E+0	1.816452E+0	1.890718E+0	1.924342E+0	1.858851E+0	1.806494E+0	1.880072E+0	1.881443E+0	1.851651E+0	1.903289E+0	1.904343E+0	1.824182E+0	1.874375E+0	1.867541E+0	1.898684E+0	1.818083E+0	1.851785E+0	1.871844E+0	1.898799E+0	1.877445E+0	1.863381E+0	1.916511E+0	1.874987E+0	1.918176E+0	1.802897E+0	1.859334E+0	1.822681E+0	1.889399E+0	1.809261E+0	1.780558E+0	1.862030E+0	1.835646E+0	1.878172E+0	1.790301E+0	1.882611E+0	1.796258E+0	1.816209E+0	1.846082E+0	1.852118E+0	1.878227E+0	1.837918E+0	1.845428E+0	1.837410E+0	1.831867E+0	1.764916E+0	1.846471E+0	1.852374E+0	1.833027E+0	1.921541E+0	1.816570E+0	1.873656E+0	1.814460E+0	1.800260E+0	1.881387E+0	1.812360E+0	1.941947E+0	1.817374E+0	1.842675E+0	1.856998E+0	1.764177E+0	1.823242E+0	1.829960E+0	1.831665E+0	1.837820E+0	1.863333E+0	1.843379E+0	1.858844E+0	1.842854E+0	1.801051E+0	1.806992E+0	1.824403E+0	1.854776E+0	1.826713E+0	1.758307E+0	1.885498E+0	1.802012E+0	1.851331E+0	1.805878E+0	1.865944E+0	1.844661E+0	1.829857E+0	1.841631E+0	1.830863E+0	1.834656E+0	1.794236E+0	1.808452E+0	1.805992E+0	1.831477E+0	1.913450E+0	1.907280E+0	1.855730E+0	1.837147E+0	1.788467E+0	1.826713E+0	1.864970E+0	1.769104E+0	1.805493E+0	1.868522E+0
5.349630E+2	2.072906E+0	2.022026E+0	2.053542E+0	1.992651E+0	2.028206E+0	2.046411E+0	2.023014E+0	2.008326E+0	2.047668E+0	2.002902E+0	2.063620E+0	2.020212E+0	2.060165E+0	2.049005E+0	2.014465E+0	2.070524E+0	2.074558E+0	2.028945E+0	1.993700E+0	2.043577E+0	2.027558E+0	2.085674E+0	1.978557E+0	1.993165E+0	2.026725E+0	2.045862E+0	1.940195E+0	2.024759E+0	2.042905E+0	1.971764E+0	2.012368E+0	2.054927E+0	2.065375E+0	2.120469E+0	1.994283E+0	2.012156E+0	1.946476E+0	1.991357E+0	2.011807E+0	1.962311E+0	2.026816E+0	2.050991E+0	2.020902E+0	2.079367E+0	1.974064E+0	2.008278E+0	1.960012E+0	2.028293E+0	2.029067E+0	2.040850E+0	1.939429E+0	2.134295E+0	2.015274E+0	1.950907E+0	1.965304E+0	1.963439E+0	2.038330E+0	1.983866E+0	1.990502E+0	1.964689E+0	2.005174E+0	1.977314E+0	1.970503E+0	2.005763E+0	2.051630E+0	1.939695E+0	2.047691E+0	1.974948E+0	1.998427E+0	1.972815E+0	2.036144E+0	2.006881E+0	2.064529E+0	1.957334E+0	1.983166E+0	2.037638E+0	2.053270E+0	1.986898E+0	1.953174E+0	1.997718E+0	2.044969E+0	1.991586E+0	1.992031E+0	2.055239E+0	1.971974E+0	1.969778E+0	2.014178E+0	2.025956E+0	2.011861E+0	1.989310E+0	1.997762E+0	2.009961E+0	1.950982E+0	1.943801E+0	1.969959E+0	1.968447E+0	1.988195E+0	1.929211E+0	2.036642E+0	2.049427E+0	1.990137E+0	1.997332E+0	1.985583E+0	2.024276E+0	1.951155E+0	1.979909E+0	1.977852E+0	2.013547E+0	1.945670E+0	1.948982E+0	2.024428E+0	1.951114E+0	2.003293E+0	2.010697E+0	1.936640E+0	1.999591E+0	1.936847E+0	1.920039E+0	1.976282E+0	2.050538E+0	2.023381E+0	1.980081E+0	1.986773E+0	1.910507E+0	1.971738E+0	2.003282E+0	1.917742E+0	1.958258E+0	1.923276E+0	1.917825E+0	2.012703E+0	1.988002E+0	1.961937E+0	1.923253E+0	1.991472E+0	1.954147E+0	1.912793E+0	1.993265E+0	1.928400E+0	1.953615E+0	1.923250E+0	1.964861E+0	1.979761E+0	2.020221E+0	1.941206E+0	1.933519E+0	1.943644E+0	2.020031E+0	1.915959E+0	2.036424E+0	1.992420E+0	2.023291E+0	1.946511E+0	1.950550E+0	1.961410E+0	1.925338E+0	1.966794E+0	1.879433E+0	2.015017E+0	1.897317E+0	1.967831E+0	1.994155E+0	1.998196E+0	1.954838E+0	1.940962E+0	1.909325E+0	1.881203E+0	2.011412E+0	1.938463E+0	1.927678E+0	2.034566E+0
5.351140E+2	1.862933E+0	1.847190E+0	1.830469E+0	1.837885E+0	1.834997E+0	1.886917E+0	1.824292E+0	1.859005E+0	1.901961E+0	1.823373E+0	1.847314E+0	1.820751E+0	1.788916E+0	1.910614E+0	1.786400E+0	1.843225E+0	1.837770E+0	1.815724E+0	1.807458E+0	1.822895E+0	1.859219E+0	1.817527E+0	1.834442E+0	1.840910E+0	1.851096E+0	1.925138E+0	1.813311E+0	1.865154E+0	1.837397E+0	1.855981E+0	1.852957E+0	1.814538E+0	1.901910E+0	1.833771E+0	1.881222E+0	1.842664E+0	1.767930E+0	1.842624E+0	1.802652E+0	1.855584E+0	1.768972E+0	1.782924E+0	1.810740E+0	1.836452E+0	1.788278E+0	1.805546E+0	1.845715E+0	1.841100E+0	1.818117E+0	1.832811E+0	1.886034E+0	1.901129E+0	1.792782E+0	1.790802E+0	1.870099E+0	1.803533E+0	1.825889E+0	1.774199E+0	1.804360E+0	1.824716E+0	1.799404E+0	1.821581E+0	1.776858E+0	1.888008E+0	1.786123E+0	1.772238E+0	1.795128E+0	1.890116E+0	1.767746E+0	1.793596E+0	1.773218E+0	1.845096E+0	1.846316E+0	1.798624E+0	1.719903E+0	1.822509E+0	1.793141E+0	1.790540E+0	1.799922E+0	1.802228E+0	1.843648E+0	1.886370E+0	1.812712E+0	1.787137E+0	1.838746E+0	1.812146E+0	1.825323E+0	1.785581E+0	1.856939E+0	1.729454E+0	1.803349E+0	1.851274E+0	1.854501E+0	1.795804E+0	1.779442E+0	1.789390E+0	1.815538E+0	1.814237E+0	1.812825E+0	1.753293E+0	1.749281E+0	1.703888E+0	1.781257E+0	1.820257E+0	1.750806E+0	1.778052E+0	1.802323E+0	1.805606E+0	1.830898E+0	1.794938E+0	1.805971E+0	1.797169E+0	1.830324E+0	1.765266E+0	1.811514E+0	1.849476E+0	1.753459E+0	1.795282E+0	1.783195E+0	1.845185E+0	1.809659E+0	1.847031E+0	1.750138E+0	1.794153E+0	1.731125E+0	1.758853E+0	1.855127E+0	1.866910E+0	1.873242E+0	1.793836E+0	1.809376E+0	1.778217E+0	1.801410E+0	1.751195E+0	1.818062E+0	1.789042E+0	1.727219E+0	1.832000E+0	1.804753E+0	1.791902E+0	1.785041E+0	1.785343E+0	1.764636E+0	1.775189E+0	1.782471E+0	1.742223E+0	1.794970E+0	1.764517E+0	1.768001E+0	1.781461E+0	1.765484E+0	1.789871E+0	1.765493E+0	1.797994E+0	1.820328E+0	1.769341E+0	1.795462E+0	1.721082E+0	1.690863E+0	1.753707E+0	1.763397E+0	1.776982E+0	1.796959E+0	1.750808E+0	1.780887E+0	1.776404E+0	1.790222E+0	1.782745E+0	1.788691E+0	1.749101E+0	1.945177E+0
5.352600E+2	1.752066E+0	1.707545E+0	1.755363E+0	1.715551E+0	1.752105E+0	1.802547E+0	1.724464E+0	1.812757E+0	1.765685E+0	1.751847E+0	1.785321E+0	1.709300E+0	1.750882E+0	1.760339E+0	1.741072E+0	1.747763E+0	1.823572E+0	1.730960E+0	1.720341E+0	1.743451E+0	1.762006E+0	1.756535E+0	1.737830E+0	1.731207E+0	1.743915E+0	1.788328E+0	1.700158E+0	1.754882E+0	1.753841E+0	1.735495E+0	1.738351E+0	1.738501E+0	1.843718E+0	1.761527E+0	1.748135E+0	1.710843E+0	1.778798E+0	1.720059E+0	1.756672E+0	1.722335E+0	1.699540E+0	1.729423E+0	1.746895E+0	1.738214E+0	1.724498E+0	1.742909E+0	1.739007E+0	1.743417E+0	1.743644E+0	1.760084E+0	1.722253E+0	1.733666E+0	1.719657E+0	1.715869E+0	1.742213E+0	1.755105E+0	1.730420E+0	1.736582E+0	1.706392E+0	1.715721E+0	1.757353E+0	1.723266E+0	1.777835E+0	1.819813E+0	1.716804E+0	1.765924E+0	1.685152E+0	1.672337E+0	1.753410E+0	1.732881E+0	1.701380E+0	1.715705E+0	1.772074E+0	1.694047E+0	1.674815E+0	1.756760E+0	1.723804E+0	1.697793E+0	1.709892E+0	1.723022E+0	1.748714E+0	1.682550E+0	1.697606E+0	1.781408E+0	1.701448E+0	1.692264E+0	1.721254E+0	1.726444E+0	1.752208E+0	1.688008E+0	1.772750E+0	1.729557E+0	1.727298E+0	1.721098E+0	1.670296E+0	1.742605E+0	1.718733E+0	1.783378E+0	1.730803E+0	1.739236E+0	1.695439E+0	1.671079E+0	1.692950E+0	1.732936E+0	1.676390E+0	1.758605E+0	1.715294E+0	1.763644E+0	1.687149E+0	1.734848E+0	1.718589E+0	1.717232E+0	1.707390E+0	1.759203E+0	1.780146E+0	1.707296E+0	1.645151E+0	1.664798E+0	1.694293E+0	1.679087E+0	1.749201E+0	1.765533E+0	1.669118E+0	1.739452E+0	1.716416E+0	1.719231E+0	1.733152E+0	1.698838E+0	1.778380E+0	1.709722E+0	1.718824E+0	1.715400E+0	1.705551E+0	1.696775E+0	1.724795E+0	1.715885E+0	1.685399E+0	1.721980E+0	1.722754E+0	1.760329E+0	1.718501E+0	1.680507E+0	1.660625E+0	1.704524E+0	1.752321E+0	1.726676E+0	1.656364E+0	1.792936E+0	1.666312E+0	1.724286E+0	1.623923E+0	1.715557E+0	1.772875E+0	1.677654E+0	1.754040E+0	1.715407E+0	1.715944E+0	1.700607E+0	1.704874E+0	1.741465E+0	1.655758E+0	1.744283E+0	1.689273E+0	1.739707E+0	1.728888E+0	1.680901E+0	1.660275E+0	1.652739E+0	1.644985E+0	1.669049E+0	1.749444E+0
5.354110E+2	1.404134E+0	1.382317E+0	1.347696E+0	1.434261E+0	1.424424E+0	1.419350E+0	1.454826E+0	1.428658E+0	1.395529E+0	1.402237E+0	1.427543E+0	1.353959E+0	1.395834E+0	1.408522E+0	1.412422E+0	1.416647E+0	1.520881E+0	1.399667E+0	1.454184E+0	1.383152E+0	1.390171E+0	1.386670E+0	1.433575E+0	1.415585E+0	1.378209E+0	1.414399E+0	1.407813E+0	1.389501E+0	1.382625E+0	1.383857E+0	1.427338E+0	1.373805E+0	1.419153E+0	1.461985E+0	1.380038E+0	1.418118E+0	1.419410E+0	1.403515E+0	1.377717E+0	1.367913E+0	1.371522E+0	1.384404E+0	1.438376E+0	1.415161E+0	1.443908E+0	1.389743E+0	1.411313E+0	1.400745E+0	1.400237E+0	1.364158E+0	1.436131E+0	1.339049E+0	1.406189E+0	1.398074E+0	1.406685E+0	1.378130E+0	1.503936E+0	1.377387E+0	1.381054E+0	1.374642E+0	1.421847E+0	1.400005E+0	1.328703E+0	1.421476E+0	1.366546E+0	1.400301E+0	1.423908E+0	1.440870E+0	1.393736E+0	1.420234E+0	1.410596E+0	1.351309E+0	1.490562E+0	1.344107E+0	1.429744E+0	1.396740E+0	1.409014E+0	1.388440E+0	1.432731E+0	1.386588E+0	1.437545E+0	1.386894E+0	1.324319E+0	1.404788E+0	1.400198E+0	1.414424E+0	1.400915E+0	1.382311E+0	1.394197E+0	1.361582E+0	1.383180E+0	1.355327E+0	1.413935E+0	1.385277E+0	1.355792E+0	1.398418E+0	1.419290E+0	1.355737E+0	1.381140E+0	1.442950E+0	1.389854E+0	1.415726E+0	1.407826E+0	1.396674E+0	1.301404E+0	1.391585E+0	1.327608E+0	1.372162E+0	1.361468E+0	1.393842E+0	1.365238E+0	1.354476E+0	1.355905E+0	1.403523E+0	1.398711E+0	1.395520E+0	1.363522E+0	1.386222E+0	1.365554E+0	1.431541E+0	1.451262E+0	1.362148E+0	1.375269E+0	1.380062E+0	1.414160E+0	1.361819E+0	1.353048E+0	1.382206E+0	1.412456E+0	1.394463E+0	1.356232E+0	1.378595E+0	1.352009E+0	1.341560E+0	1.413764E+0	1.375183E+0	1.330543E+0	1.330165E+0	1.360849E+0	1.299640E+0	1.396429E+0	1.369872E+0	1.361802E+0	1.397180E+0	1.383364E+0	1.328753E+0	1.380053E+0	1.409790E+0	1.358583E+0	1.324657E+0	1.394576E+0	1.370020E+0	1.361912E+0	1.352666E+0	1.484947E+0	1.391072E+0	1.392906E+0	1.369718E+0	1.409711E+0	1.334271E+0	1.390912E+0	1.419962E+0	1.392960E+0	1.340004E+0	1.393168E+0	1.354872E+0	1.331324E+0	1.359719E+0	1.409352E+0	1.228098E+0	1.359188E+0
5.355630E+2	1.273299E+0	1.224119E+0	1.261655E+0	1.225171E+0	1.255858E+0	1.255714E+0	1.305071E+0	1.257160E+0	1.293771E+0	1.250369E+0	1.246024E+0	1.250548E+0	1.288869E+0	1.285081E+0	1.288602E+0	1.294688E+0	1.286884E+0	1.270815E+0	1.247355E+0	1.293006E+0	1.310124E+0	1.252555E+0	1.249560E+0	1.277467E+0	1.258813E+0	1.298278E+0	1.210884E+0	1.304136E+0	1.219666E+0	1.210630E+0	1.293868E+0	1.306623E+0	1.274481E+0	1.375608E+0	1.259693E+0	1.269548E+0	1.216917E+0	1.290030E+0	1.239340E+0	1.278265E+0	1.307122E+0	1.242883E+0	1.270340E+0	1.281391E+0	1.282504E+0	1.292973E+0	1.290062E+0	1.274216E+0	1.291221E+0	1.261390E+0	1.277466E+0	1.255635E+0	1.261386E+0	1.246440E+0	1.257734E+0	1.265109E+0	1.299211E+0	1.260552E+0	1.200962E+0	1.253461E+0	1.312210E+0	1.217465E+0	1.307056E+0	1.283644E+0	1.328217E+0	1.260242E+0	1.239588E+0	1.279828E+0	1.247982E+0	1.208965E+0	1.315298E+0	1.279353E+0	1.318121E+0	1.238993E+0	1.219494E+0	1.250871E+0	1.279645E+0	1.287601E+0	1.303986E+0	1.247591E+0	1.267368E+0	1.258776E+0	1.263700E+0	1.312244E+0	1.293572E+0	1.292422E+0	1.231610E+0	1.312410E+0	1.290189E+0	1.281407E+0	1.301377E+0	1.271365E+0	1.236872E+0	1.210149E+0	1.254473E+0	1.222729E+0	1.280345E+0	1.226465E+0	1.271371E+0	1.332519E+0	1.253012E+0	1.231331E+0	1.226594E+0	1.243252E+0	1.272387E+0	1.244952E+0	1.267638E+0	1.272417E+0	1.225589E+0	1.225413E+0	1.226777E+0	1.264204E+0	1.252135E+0	1.263062E+0	1.254830E+0	1.238037E+0	1.254601E+0	1.279640E+0	1.270865E+0	1.289820E+0	1.280917E+0	1.315886E+0	1.227599E+0	1.259577E+0	1.266594E+0	1.246050E+0	1.298024E+0	1.209802E+0	1.289945E+0	1.276129E+0	1.250421E+0	1.212344E+0	1.252805E+0	1.269049E+0	1.297744E+0	1.229011E+0	1.318055E+0	1.196745E+0	1.265684E+0	1.251295E+0	1.285756E+0	1.236845E+0	1.255588E+0	1.278230E+0	1.284354E+0	1.219223E+0	1.237071E+0	1.273936E+0	1.233847E+0	1.302564E+0	1.280597E+0	1.295150E+0	1.261123E+0	1.265136E+0	1.277000E+0	1.255833E+0	1.286428E+0	1.234419E+0	1.231372E+0	1.222552E+0	1.254208E+0	1.231932E+0	1.247226E+0	1.257945E+0	1.289097E+0	1.268760E+0	1.249235E+0	1.295761E+0	1.250489E+0	1.323749E+0	1.300348E+0
5.357190E+2	9.941623E-1	1.044425E+0	1.019907E+0	9.962186E-1	9.621646E-1	1.021752E+0	9.956266E-1	1.012473E+0	1.013314E+0	1.043628E+0	1.016407E+0	9.895170E-1	1.030041E+0	9.719304E-1	1.035542E+0	9.620149E-1	1.058944E+0	9.840847E-1	9.846861E-1	1.007261E+0	1.026231E+0	1.014955E+0	9.973672E-1	9.898935E-1	9.457776E-1	1.007527E+0	1.019612E+0	1.021239E+0	9.628622E-1	1.027047E+0	1.006848E+0	9.892880E-1	1.000601E+0	1.046152E+0	1.042902E+0	1.065208E+0	9.577826E-1	1.082249E+0	9.872245E-1	9.824036E-1	1.014726E+0	1.027623E+0	1.035639E+0	9.676503E-1	1.000759E+0	9.944481E-1	9.820615E-1	1.028448E+0	1.024750E+0	1.017263E+0	1.025663E+0	1.055038E+0	9.754348E-1	9.606075E-1	1.005785E+0	1.027134E+0	1.065445E+0	9.401662E-1	1.031144E+0	1.025767E+0	1.072744E+0	9.686349E-1	9.994188E-1	1.012158E+0	1.023812E+0	1.040798E+0	1.036643E+0	1.020688E+0	9.854141E-1	9.954061E-1	1.021010E+0	1.026450E+0	1.076703E+0	9.483289E-1	1.006873E+0	1.023605E+0	9.944088E-1	1.035442E+0	1.009865E+0	9.927599E-1	1.031130E+0	1.002154E+0	1.009310E+0	1.053943E+0	1.022194E+0	1.015372E+0	9.714025E-1	1.013124E+0	1.018419E+0	1.047196E+0	1.027143E+0	1.053354E+0	1.032144E+0	9.939418E-1	9.891149E-1	1.009759E+0	1.056408E+0	9.717448E-1	1.060881E+0	9.998025E-1	1.025410E+0	9.833996E-1	9.941347E-1	1.006473E+0	1.037185E+0	1.013197E+0	9.915370E-1	1.030948E+0	9.841587E-1	1.030739E+0	9.969379E-1	9.849434E-1	1.011854E+0	1.044211E+0	1.005466E+0	1.005608E+0	9.619145E-1	9.997494E-1	1.031996E+0	1.015389E+0	9.986797E-1	1.036632E+0	1.011543E+0	9.742309E-1	9.832507E-1	1.048101E+0	9.815506E-1	9.430560E-1	1.063153E+0	1.028555E+0	9.924994E-1	9.864786E-1	1.000540E+0	1.022503E+0	1.008843E+0	1.028049E+0	9.997420E-1	9.935701E-1	1.007233E+0	1.007412E+0	1.009965E+0	1.001952E+0	1.074359E+0	1.010581E+0	9.995594E-1	1.000052E+0	1.006972E+0	1.039733E+0	1.006385E+0	1.033514E+0	1.004396E+0	1.020736E+0	1.006166E+0	1.046262E+0	1.032635E+0	9.757731E-1	1.024225E+0	9.982781E-1	1.034989E+0	9.823934E-1	9.947789E-1	1.126175E+0	1.035448E+0	1.012721E+0	1.061410E+0	9.776696E-1	9.977036E-1	1.065414E+0	9.564621E-1	1.029439E+0	1.066630E+0
5.358600E+2	8.926326E-1	8.636898E-1	8.697959E-1	8.884095E-1	8.705237E-1	9.291856E-1	8.915189E-1	9.050363E-1	8.994950E-1	9.327254E-1	9.084259E-1	8.927725E-1	9.376696E-1	8.925897E-1	8.786895E-1	9.387018E-1	8.843700E-1	8.957739E-1	9.446860E-1	9.150195E-1	9.029253E-1	9.248841E-1	9.018923E-1	9.108549E-1	8.782627E-1	9.364400E-1	8.830071E-1	8.912286E-1	8.951897E-1	8.798063E-1	8.986361E-1	8.946059E-1	9.054753E-1	9.477653E-1	9.322001E-1	8.429722E-1	9.435711E-1	8.655345E-1	9.068628E-1	9.088157E-1	8.781215E-1	9.008408E-1	9.256408E-1	9.091835E-1	9.495651E-1	9.049901E-1	9.001117E-1	9.220062E-1	8.888311E-1	9.126580E-1	9.204815E-1	9.052863E-1	8.918562E-1	9.022217E-1	9.091402E-1	9.080431E-1	9.113277E-1	8.940474E-1	8.996402E-1	8.814754E-1	8.673571E-1	8.941561E-1	8.732026E-1	9.068303E-1	9.113255E-1	8.918520E-1	9.666622E-1	9.298251E-1	9.015454E-1	8.725613E-1	8.506096E-1	9.177946E-1	9.627707E-1	9.282399E-1	9.165278E-1	9.309437E-1	9.075447E-1	9.118647E-1	8.728890E-1	8.819129E-1	9.332610E-1	8.952764E-1	8.795330E-1	9.159697E-1	8.723840E-1	9.155278E-1	9.089107E-1	8.873164E-1	9.170120E-1	9.150897E-1	9.352279E-1	9.342812E-1	9.070235E-1	9.009460E-1	8.963778E-1	9.151461E-1	9.336129E-1	8.837389E-1	8.910443E-1	9.236910E-1	9.047288E-1	8.773931E-1	9.123344E-1	9.392532E-1	9.088912E-1	9.364908E-1	9.181846E-1	9.269511E-1	9.069039E-1	9.094320E-1	8.779810E-1	8.997058E-1	8.850967E-1	8.898043E-1	9.379791E-1	8.899331E-1	9.211213E-1	9.026240E-1	9.065801E-1	9.019988E-1	8.786750E-1	9.405369E-1	8.620971E-1	9.047700E-1	9.292518E-1	8.860272E-1	9.327803E-1	8.701338E-1	9.245821E-1	8.868666E-1	9.209639E-1	8.536535E-1	9.200166E-1	8.658014E-1	9.200712E-1	8.979712E-1	8.774464E-1	9.146074E-1	9.009171E-1	8.800021E-1	9.427117E-1	8.741337E-1	9.134660E-1	8.856483E-1	9.024367E-1	8.976553E-1	8.449015E-1	9.238421E-1	8.951321E-1	9.177063E-1	8.962610E-1	8.742938E-1	8.668018E-1	9.226085E-1	9.211906E-1	8.558937E-1	8.982118E-1	9.002003E-1	9.435636E-1	8.693432E-1	9.145795E-1	9.225077E-1	8.819586E-1	9.276238E-1	8.845970E-1	8.929791E-1	8.839619E-1	9.262809E-1	8.595036E-1	9.081514E-1	8.922178E-1
5.360070E+2	7.499242E-1	6.860782E-1	7.152478E-1	6.884043E-1	7.030111E-1	7.153806E-1	6.911680E-1	7.055797E-1	7.141456E-1	6.793841E-1	7.715499E-1	7.234510E-1	7.356396E-1	7.253656E-1	6.959433E-1	7.085941E-1	7.299312E-1	7.177091E-1	7.247952E-1	7.249418E-1	7.219533E-1	6.956000E-1	6.812841E-1	7.049849E-1	7.056098E-1	6.897485E-1	6.967716E-1	7.397003E-1	7.107566E-1	7.371885E-1	7.337197E-1	7.114168E-1	7.342412E-1	7.216511E-1	6.951788E-1	7.044721E-1	7.005920E-1	6.909010E-1	7.099174E-1	7.247845E-1	6.883595E-1	7.111758E-1	6.919613E-1	7.105199E-1	7.322725E-1	6.949598E-1	7.297766E-1	7.073569E-1	7.143367E-1	7.033935E-1	7.252076E-1	7.667714E-1	6.969454E-1	7.130173E-1	6.932608E-1	6.961974E-1	7.523442E-1	7.195027E-1	7.491160E-1	6.959858E-1	7.416987E-1	7.374762E-1	7.045716E-1	7.024265E-1	7.269238E-1	7.176643E-1	7.044691E-1	7.460747E-1	7.152879E-1	7.286530E-1	7.542130E-1	7.349873E-1	7.182217E-1	6.943554E-1	6.846848E-1	7.428901E-1	7.286793E-1	7.030069E-1	6.938542E-1	7.049929E-1	7.406020E-1	7.125043E-1	7.090969E-1	7.123973E-1	7.097039E-1	7.375296E-1	7.184119E-1	6.957642E-1	7.098728E-1	7.018073E-1	7.071252E-1	7.538954E-1	6.836413E-1	7.041343E-1	7.424982E-1	7.278487E-1	7.440625E-1	6.869264E-1	7.331539E-1	7.278393E-1	7.162662E-1	7.028049E-1	7.220707E-1	7.149958E-1	7.128474E-1	7.242423E-1	7.174367E-1	6.984854E-1	7.067229E-1	7.059196E-1	7.356757E-1	7.082901E-1	7.183723E-1	7.213230E-1	7.556086E-1	6.959589E-1	7.031094E-1	6.837047E-1	7.408462E-1	7.246658E-1	7.131073E-1	7.191164E-1	7.252052E-1	7.304846E-1	7.289411E-1	7.413103E-1	6.919741E-1	7.473558E-1	7.148593E-1	7.570615E-1	7.245525E-1	7.233574E-1	7.117703E-1	7.178633E-1	7.464620E-1	7.134410E-1	7.186289E-1	6.916504E-1	7.422920E-1	7.230440E-1	7.261217E-1	7.349176E-1	7.262596E-1	7.391908E-1	7.001853E-1	6.879600E-1	7.091908E-1	7.363350E-1	6.726158E-1	7.179646E-1	7.180676E-1	6.882830E-1	7.067086E-1	7.231010E-1	7.497788E-1	7.110849E-1	7.349791E-1	7.009958E-1	6.604959E-1	6.979472E-1	6.928981E-1	7.442692E-1	7.077128E-1	7.245381E-1	7.299933E-1	7.376750E-1	7.333907E-1	7.217116E-1	7.439643E-1	6.970735E-1	7.825165E-1
5.362840E+2	5.820972E-1	5.942708E-1	5.922145E-1	6.035132E-1	5.842971E-1	5.849660E-1	5.856495E-1	5.853023E-1	5.926410E-1	5.813754E-1	5.883975E-1	5.748798E-1	6.272277E-1	5.683816E-1	6.241148E-1	5.875512E-1	6.026479E-1	6.311084E-1	5.758292E-1	5.972386E-1	5.985739E-1	5.605205E-1	6.181718E-1	6.024375E-1	6.132350E-1	6.146413E-1	5.881971E-1	5.407666E-1	5.783713E-1	5.528082E-1	5.870383E-1	6.113807E-1	5.961667E-1	6.126754E-1	5.762655E-1	6.116242E-1	5.967196E-1	5.903005E-1	5.783815E-1	5.933402E-1	5.745147E-1	5.747252E-1	6.234323E-1	5.706952E-1	5.647291E-1	5.814355E-1	6.088618E-1	6.164977E-1	5.874905E-1	5.859280E-1	5.868365E-1	5.949578E-1	5.742107E-1	5.879267E-1	5.916932E-1	5.789941E-1	6.254640E-1	6.033229E-1	5.911887E-1	5.902920E-1	5.918324E-1	6.107851E-1	5.924509E-1	5.685316E-1	6.130328E-1	5.676961E-1	5.935429E-1	5.933051E-1	6.188371E-1	5.757392E-1	5.607374E-1	5.998951E-1	5.762139E-1	5.906306E-1	5.844395E-1	5.890214E-1	5.798096E-1	5.949643E-1	5.837094E-1	5.871817E-1	6.367994E-1	5.991397E-1	5.911901E-1	5.723891E-1	6.206000E-1	6.154676E-1	5.981788E-1	5.842789E-1	5.477424E-1	5.860986E-1	6.008735E-1	5.984648E-1	5.854476E-1	5.996374E-1	6.203228E-1	5.798388E-1	6.001930E-1	6.261343E-1	6.159949E-1	6.015605E-1	6.205401E-1	5.776351E-1	5.794251E-1	6.040617E-1	5.780204E-1	5.828709E-1	5.810109E-1	6.063054E-1	5.860166E-1	5.954021E-1	5.869520E-1	6.056503E-1	5.839376E-1	5.670678E-1	5.977639E-1	6.120915E-1	5.850068E-1	5.762276E-1	6.034733E-1	5.980435E-1	6.078399E-1	6.171375E-1	5.729488E-1	5.727227E-1	5.808641E-1	5.790725E-1	6.057332E-1	5.787550E-1	5.916286E-1	6.119486E-1	6.456267E-1	5.867249E-1	5.978085E-1	5.828992E-1	6.093985E-1	5.847522E-1	6.252848E-1	6.085001E-1	6.163607E-1	6.016061E-1	6.195127E-1	5.842087E-1	6.054694E-1	5.812696E-1	6.150296E-1	5.856603E-1	5.860535E-1	6.249859E-1	6.057983E-1	6.097674E-1	6.031665E-1	6.020132E-1	5.784050E-1	5.926186E-1	5.979920E-1	6.231728E-1	5.460897E-1	5.703314E-1	6.189124E-1	6.006140E-1	6.155309E-1	6.113951E-1	6.071188E-1	6.083246E-1	5.790821E-1	6.010871E-1	5.888970E-1	5.916786E-1	6.366873E-1	5.814460E-1	5.904274E-1
5.365090E+2	4.307776E-1	4.564687E-1	4.576081E-1	4.776738E-1	4.458845E-1	4.686665E-1	4.143302E-1	4.594850E-1	4.782337E-1	4.634373E-1	4.730738E-1	4.676579E-1	4.519639E-1	4.666378E-1	4.410989E-1	4.379900E-1	5.108838E-1	4.757880E-1	4.879454E-1	4.640490E-1	4.678671E-1	4.390606E-1	4.449042E-1	4.692228E-1	4.466314E-1	4.695024E-1	4.428614E-1	4.785864E-1	4.860682E-1	4.732027E-1	4.535331E-1	4.461783E-1	4.606610E-1	4.662562E-1	4.385167E-1	4.510667E-1	4.482221E-1	4.914772E-1	4.357936E-1	4.615086E-1	4.670333E-1	4.482929E-1	4.328450E-1	4.462527E-1	4.648443E-1	4.642751E-1	4.687881E-1	4.591945E-1	4.702702E-1	4.486898E-1	4.834267E-1	4.745474E-1	4.816763E-1	4.438726E-1	4.513736E-1	4.146875E-1	4.747560E-1	4.545987E-1	4.330247E-1	4.667301E-1	4.696932E-1	4.470754E-1	4.528459E-1	4.582932E-1	4.725032E-1	4.562204E-1	4.456552E-1	4.744866E-1	4.560350E-1	4.613337E-1	4.489353E-1	4.907437E-1	4.926936E-1	4.648398E-1	4.458398E-1	4.567517E-1	4.573732E-1	4.513453E-1	4.458232E-1	4.779182E-1	4.626731E-1	4.579977E-1	4.969170E-1	4.665882E-1	4.326583E-1	4.331637E-1	4.768003E-1	4.399509E-1	4.829063E-1	4.760918E-1	4.635425E-1	4.619605E-1	4.708420E-1	4.762706E-1	4.524736E-1	4.539936E-1	4.850202E-1	4.349288E-1	4.676843E-1	4.753799E-1	4.679578E-1	4.457509E-1	4.628516E-1	4.684332E-1	4.546279E-1	4.662505E-1	4.704504E-1	4.844364E-1	4.445314E-1	4.773044E-1	4.473673E-1	4.606120E-1	4.774800E-1	4.824005E-1	4.496912E-1	4.602609E-1	4.274296E-1	4.729890E-1	4.668739E-1	4.797214E-1	4.794226E-1	4.760789E-1	4.762328E-1	5.030628E-1	4.566594E-1	4.784349E-1	4.268947E-1	4.705242E-1	4.698883E-1	4.949992E-1	4.591033E-1	4.620605E-1	4.589395E-1	4.540668E-1	4.951094E-1	4.638636E-1	4.847514E-1	4.935374E-1	4.623487E-1	4.579574E-1	4.781098E-1	4.730396E-1	4.476692E-1	4.498524E-1	4.438521E-1	4.524311E-1	4.563077E-1	4.237042E-1	4.643358E-1	4.879518E-1	4.652376E-1	4.761875E-1	4.271565E-1	4.520872E-1	4.728586E-1	4.837271E-1	4.908263E-1	4.953732E-1	4.885450E-1	4.722380E-1	4.663981E-1	4.772256E-1	4.428948E-1	4.790604E-1	4.557548E-1	4.615149E-1	4.790649E-1	4.576383E-1	4.715954E-1	4.970561E-1	4.546357E-1
5.367660E+2	4.796045E-1	4.713548E-1	4.734797E-1	4.793994E-1	4.910861E-1	4.967405E-1	4.868352E-1	4.506296E-1	4.454367E-1	4.714705E-1	4.786745E-1	4.806559E-1	4.644049E-1	4.687441E-1	4.966736E-1	4.743305E-1	4.602380E-1	4.900375E-1	4.654400E-1	4.810433E-1	4.497468E-1	4.527952E-1	4.612894E-1	4.627148E-1	4.521796E-1	4.652076E-1	4.483697E-1	5.121474E-1	4.397293E-1	4.814245E-1	4.546190E-1	4.604803E-1	4.803481E-1	4.827181E-1	4.728785E-1	4.698809E-1	4.569891E-1	4.528160E-1	4.435562E-1	4.478650E-1	4.930776E-1	4.671810E-1	4.735204E-1	4.578964E-1	4.725649E-1	4.415126E-1	4.574424E-1	4.665466E-1	4.449771E-1	4.818922E-1	4.790918E-1	5.160710E-1	5.112340E-1	4.813561E-1	4.745976E-1	4.723635E-1	4.940294E-1	4.654348E-1	4.584722E-1	4.646006E-1	4.703804E-1	4.817719E-1	4.683307E-1	4.493332E-1	4.797593E-1	5.022641E-1	4.534742E-1	4.897505E-1	4.734288E-1	4.662905E-1	4.527233E-1	4.594480E-1	4.769678E-1	4.733416E-1	4.667276E-1	4.829949E-1	4.788256E-1	5.119150E-1	4.743862E-1	4.659773E-1	5.106052E-1	4.611290E-1	4.729556E-1	4.681847E-1	4.875791E-1	4.550180E-1	4.653682E-1	4.679812E-1	4.742465E-1	4.862996E-1	4.872842E-1	4.683523E-1	4.544160E-1	5.019491E-1	4.748749E-1	4.838528E-1	4.909192E-1	4.905918E-1	5.016688E-1	4.567421E-1	4.677296E-1	4.809955E-1	4.621063E-1	4.955098E-1	4.753069E-1	4.684710E-1	4.719140E-1	5.210680E-1	4.689029E-1	5.010027E-1	4.759606E-1	4.818287E-1	4.653329E-1	4.841539E-1	4.952313E-1	4.855959E-1	4.781649E-1	4.935499E-1	4.593085E-1	4.680803E-1	4.836502E-1	5.360246E-1	4.740370E-1	4.697997E-1	4.478093E-1	5.210251E-1	4.984781E-1	4.770541E-1	4.838577E-1	4.644073E-1	4.494866E-1	4.644509E-1	4.679891E-1	4.776795E-1	5.083108E-1	4.911962E-1	4.638189E-1	4.674861E-1	4.824312E-1	4.421909E-1	4.659515E-1	4.842463E-1	5.013453E-1	4.631947E-1	4.800073E-1	4.702811E-1	5.054415E-1	4.626489E-1	4.714457E-1	4.767827E-1	4.686941E-1	4.655091E-1	4.603688E-1	5.544407E-1	4.778984E-1	4.973733E-1	5.033411E-1	4.942699E-1	4.716765E-1	4.713555E-1	4.881546E-1	5.005517E-1	4.816846E-1	4.703507E-1	4.642864E-1	4.757532E-1	4.708242E-1	4.600538E-1	4.688840E-1	4.876234E-1	4.759405E-1
5.370170E+2	4.879152E-1	4.738531E-1	5.070557E-1	4.990584E-1	4.803784E-1	5.111113E-1	5.120021E-1	4.765746E-1	4.807143E-1	4.811361E-1	4.740077E-1	4.792005E-1	4.614697E-1	5.125963E-1	4.687297E-1	4.936214E-1	5.079171E-1	4.915248E-1	5.202090E-1	4.736113E-1	4.916096E-1	5.031949E-1	4.695838E-1	5.083685E-1	4.777579E-1	5.186028E-1	4.846687E-1	5.062035E-1	4.838458E-1	5.018842E-1	4.886729E-1	4.731259E-1	4.814402E-1	5.236984E-1	4.999631E-1	5.337365E-1	4.690413E-1	5.163209E-1	5.243509E-1	4.943187E-1	4.647718E-1	4.825965E-1	5.116159E-1	4.952083E-1	4.895936E-1	4.866051E-1	5.011547E-1	4.990059E-1	5.223714E-1	5.014012E-1	4.665476E-1	5.130050E-1	4.712747E-1	4.810905E-1	4.840135E-1	4.543534E-1	4.817798E-1	5.147763E-1	4.742805E-1	4.723050E-1	4.830683E-1	5.083004E-1	4.911900E-1	4.865005E-1	4.625294E-1	4.875912E-1	4.781869E-1	4.530929E-1	4.842935E-1	4.946263E-1	4.912070E-1	4.782734E-1	5.141186E-1	4.958459E-1	4.727855E-1	5.035874E-1	4.989555E-1	4.895715E-1	4.713619E-1	4.832273E-1	5.259670E-1	5.047597E-1	5.060167E-1	5.115402E-1	4.802855E-1	4.968460E-1	5.028477E-1	4.827855E-1	4.850211E-1	5.133549E-1	5.108692E-1	5.035852E-1	4.789568E-1	5.039608E-1	5.150174E-1	4.802408E-1	4.823027E-1	5.156031E-1	4.919023E-1	5.118825E-1	5.044876E-1	4.724338E-1	5.004427E-1	4.949262E-1	4.840403E-1	4.971419E-1	4.683420E-1	4.647250E-1	4.474532E-1	5.016811E-1	4.972050E-1	4.858232E-1	5.069341E-1	5.237900E-1	4.987402E-1	5.133520E-1	4.805649E-1	4.688351E-1	4.830013E-1	4.717175E-1	5.128336E-1	4.725841E-1	5.172308E-1	4.734894E-1	5.066505E-1	5.205247E-1	4.783013E-1	5.182235E-1	5.241188E-1	4.918745E-1	4.916640E-1	5.138386E-1	5.039293E-1	4.855484E-1	5.034158E-1	4.993244E-1	4.901134E-1	4.939776E-1	5.009074E-1	4.812991E-1	5.013561E-1	4.985360E-1	4.951437E-1	4.995393E-1	4.611210E-1	5.223122E-1	4.940171E-1	4.885856E-1	4.809185E-1	5.028219E-1	4.897076E-1	4.962295E-1	4.760211E-1	4.887156E-1	5.206138E-1	4.848566E-1	4.950594E-1	4.983911E-1	5.062538E-1	5.005612E-1	5.050793E-1	5.104085E-1	4.571531E-1	4.761523E-1	4.938278E-1	4.783612E-1	4.697819E-1	4.903076E-1	4.784134E-1	4.809969E-1	5.106370E-1
5.372640E+2	5.408279E-1	5.236715E-1	5.207443E-1	5.720228E-1	5.445364E-1	5.189956E-1	5.118456E-1	5.315677E-1	5.277092E-1	5.238133E-1	5.232620E-1	4.840463E-1	5.069952E-1	5.184920E-1	5.425805E-1	5.572874E-1	5.324608E-1	5.389440E-1	5.250880E-1	5.270373E-1	4.979126E-1	5.590396E-1	5.259810E-1	5.269774E-1	5.100461E-1	5.248256E-1	5.109242E-1	5.162885E-1	5.466016E-1	4.867101E-1	5.328487E-1	5.159543E-1	5.128901E-1	5.524827E-1	5.452503E-1	5.205132E-1	5.176959E-1	5.472613E-1	5.291027E-1	5.188892E-1	5.254287E-1	5.280875E-1	5.194217E-1	5.300479E-1	5.381574E-1	5.223080E-1	5.353778E-1	5.312850E-1	5.177307E-1	5.127964E-1	5.466496E-1	5.424743E-1	5.377383E-1	5.482239E-1	5.232120E-1	5.340482E-1	5.362636E-1	5.161378E-1	5.242918E-1	5.611961E-1	5.463441E-1	5.548360E-1	5.058664E-1	5.330343E-1	5.277858E-1	4.948718E-1	5.135107E-1	5.195189E-1	5.080212E-1	5.068370E-1	5.273498E-1	5.724622E-1	5.521941E-1	5.424582E-1	5.129995E-1	5.223274E-1	5.455555E-1	5.244548E-1	5.389300E-1	5.303854E-1	5.412520E-1	5.152009E-1	5.051969E-1	5.145954E-1	5.593099E-1	5.348480E-1	5.247345E-1	5.164840E-1	5.148981E-1	5.623182E-1	5.271197E-1	4.970634E-1	5.387052E-1	5.567397E-1	5.245219E-1	5.407215E-1	5.249130E-1	5.399684E-1	5.162634E-1	5.328681E-1	5.295974E-1	5.258932E-1	5.251731E-1	5.476533E-1	4.965158E-1	5.476748E-1	5.127244E-1	5.470035E-1	5.150805E-1	5.162980E-1	5.649915E-1	5.438775E-1	5.126198E-1	5.212585E-1	5.191985E-1	5.417282E-1	5.226901E-1	5.215574E-1	5.261784E-1	5.624863E-1	5.237677E-1	5.237293E-1	5.595212E-1	5.362832E-1	5.038662E-1	5.345188E-1	5.384597E-1	5.316642E-1	5.479575E-1	5.080149E-1	5.296540E-1	5.643396E-1	5.205907E-1	5.405569E-1	5.413915E-1	5.142147E-1	5.349444E-1	5.404116E-1	5.104607E-1	5.413027E-1	5.183775E-1	5.407752E-1	5.429962E-1	5.351124E-1	5.597144E-1	5.183054E-1	5.521047E-1	5.288050E-1	5.354412E-1	5.636000E-1	5.183844E-1	5.660850E-1	5.753371E-1	5.257908E-1	5.669938E-1	5.322004E-1	5.773762E-1	5.109312E-1	5.386161E-1	5.391202E-1	5.258567E-1	5.514305E-1	5.493742E-1	5.130054E-1	5.517342E-1	5.373548E-1	5.402487E-1	5.366492E-1	5.467676E-1	5.642284E-1	5.228820E-1
5.375110E+2	6.420858E-1	6.392109E-1	6.650905E-1	6.464298E-1	6.688552E-1	6.615474E-1	6.523423E-1	6.421026E-1	6.896458E-1	6.418263E-1	6.585739E-1	6.426055E-1	6.263712E-1	6.579258E-1	6.536417E-1	6.725516E-1	6.944576E-1	6.623876E-1	6.330417E-1	6.808819E-1	6.703973E-1	6.353791E-1	6.648216E-1	6.455279E-1	6.498608E-1	7.029061E-1	6.294915E-1	6.676095E-1	6.373862E-1	6.036690E-1	6.400755E-1	6.632916E-1	6.293467E-1	6.918428E-1	6.499862E-1	6.521913E-1	6.698373E-1	6.684522E-1	6.624118E-1	6.577084E-1	6.248119E-1	6.444803E-1	6.567996E-1	6.328014E-1	6.415820E-1	6.627150E-1	6.783811E-1	6.611575E-1	6.763364E-1	6.460623E-1	6.828330E-1	6.608265E-1	6.471529E-1	6.526024E-1	6.528232E-1	6.230377E-1	6.808354E-1	6.174001E-1	6.538036E-1	6.653930E-1	6.912066E-1	6.684418E-1	6.316273E-1	6.835513E-1	6.579411E-1	6.536143E-1	6.605055E-1	6.559898E-1	6.449294E-1	6.511060E-1	6.520273E-1	6.697761E-1	6.519406E-1	6.608180E-1	6.496006E-1	6.325473E-1	6.603398E-1	6.457371E-1	6.628119E-1	6.594327E-1	6.954617E-1	6.352529E-1	6.451200E-1	6.910610E-1	6.979686E-1	6.228215E-1	6.736093E-1	6.758017E-1	6.731225E-1	6.439127E-1	6.750728E-1	6.688397E-1	6.630230E-1	6.924322E-1	6.584223E-1	6.547293E-1	6.630752E-1	6.747707E-1	6.700978E-1	6.872254E-1	6.653122E-1	6.431249E-1	6.773241E-1	6.711035E-1	6.435614E-1	6.436193E-1	6.749245E-1	6.543380E-1	6.398815E-1	6.815070E-1	6.920112E-1	6.341400E-1	6.305038E-1	6.609112E-1	6.879957E-1	6.740524E-1	6.415506E-1	6.643474E-1	6.233238E-1	6.777975E-1	6.910444E-1	6.870496E-1	6.622281E-1	6.748994E-1	6.717332E-1	6.838389E-1	6.653333E-1	6.484792E-1	6.847847E-1	6.521834E-1	6.679465E-1	6.731014E-1	6.438981E-1	6.697084E-1	6.727695E-1	6.758701E-1	6.732568E-1	6.632551E-1	6.270996E-1	6.785718E-1	6.579605E-1	6.766499E-1	6.696553E-1	6.633277E-1	6.423220E-1	6.630536E-1	6.467230E-1	7.079164E-1	6.641659E-1	6.916827E-1	6.513072E-1	6.703464E-1	6.636501E-1	6.848511E-1	6.863545E-1	6.696795E-1	6.751169E-1	6.449864E-1	6.274432E-1	6.757566E-1	6.590028E-1	7.014423E-1	6.658530E-1	6.527203E-1	6.835200E-1	6.353600E-1	6.385242E-1	6.765028E-1	6.567430E-1	6.347760E-1	6.233906E-1
5.377740E+2	7.825376E-1	8.013579E-1	7.541054E-1	7.954217E-1	8.027731E-1	8.390995E-1	7.758279E-1	7.844406E-1	7.587142E-1	7.582856E-1	8.104657E-1	8.309179E-1	7.754809E-1	8.203571E-1	8.149498E-1	8.082004E-1	7.814303E-1	7.524036E-1	7.921419E-1	7.692452E-1	7.623789E-1	8.035837E-1	7.964364E-1	7.985806E-1	7.641802E-1	8.082349E-1	7.598811E-1	7.937924E-1	7.834361E-1	7.371732E-1	8.062722E-1	7.759375E-1	8.107053E-1	8.480230E-1	8.097036E-1	7.818161E-1	7.785352E-1	8.098291E-1	7.512836E-1	8.265495E-1	7.709064E-1	7.652893E-1	8.041322E-1	7.347355E-1	7.918533E-1	8.276597E-1	8.276691E-1	8.173504E-1	7.609516E-1	8.115727E-1	7.853922E-1	8.199870E-1	7.547720E-1	7.742236E-1	8.022217E-1	7.845665E-1	8.177227E-1	7.752272E-1	8.061810E-1	7.881406E-1	7.649319E-1	7.559782E-1	7.958810E-1	7.650464E-1	7.933482E-1	7.887740E-1	8.241793E-1	7.983360E-1	7.715969E-1	8.130757E-1	8.005435E-1	7.623844E-1	8.388840E-1	8.107053E-1	7.740091E-1	7.556694E-1	7.897367E-1	7.875977E-1	7.941222E-1	7.680387E-1	8.168926E-1	7.860944E-1	8.003503E-1	8.164672E-1	8.185651E-1	7.977824E-1	8.262027E-1	7.639049E-1	7.675864E-1	8.109806E-1	8.087975E-1	7.563961E-1	8.015199E-1	7.912037E-1	7.863619E-1	7.809047E-1	7.638868E-1	8.360806E-1	7.887292E-1	8.125395E-1	7.784517E-1	7.519042E-1	7.872991E-1	7.941795E-1	7.729849E-1	7.932084E-1	7.916505E-1	7.907269E-1	7.657187E-1	7.960920E-1	8.320242E-1	7.617083E-1	7.625303E-1	8.155714E-1	7.888803E-1	7.875976E-1	7.834534E-1	7.839062E-1	7.773941E-1	7.848667E-1	7.924647E-1	7.853625E-1	7.701048E-1	7.812203E-1	7.930701E-1	8.377284E-1	7.733226E-1	8.045619E-1	7.936435E-1	7.869919E-1	7.814680E-1	7.901745E-1	7.737575E-1	8.093972E-1	8.089078E-1	7.641711E-1	7.818930E-1	8.119981E-1	7.938578E-1	8.102621E-1	7.814417E-1	7.921042E-1	7.845446E-1	8.256846E-1	7.654574E-1	7.931175E-1	7.367797E-1	7.517215E-1	7.359617E-1	8.250793E-1	8.060027E-1	8.001776E-1	8.536212E-1	8.478663E-1	8.361376E-1	8.281117E-1	8.246990E-1	7.671465E-1	8.176128E-1	7.994165E-1	7.827381E-1	7.685695E-1	7.989170E-1	7.557099E-1	7.765900E-1	7.795079E-1	7.873909E-1	8.093299E-1	7.901138E-1	7.644239E-1	8.216613E-1
5.380110E+2	8.647811E-1	8.871076E-1	8.382442E-1	8.327266E-1	8.661253E-1	8.924652E-1	8.613662E-1	8.554164E-1	8.105302E-1	8.446820E-1	8.736831E-1	8.574671E-1	8.064137E-1	8.656138E-1	8.628867E-1	8.428671E-1	8.702013E-1	8.145400E-1	8.395305E-1	8.709592E-1	8.793721E-1	8.706843E-1	8.662897E-1	8.573017E-1	8.322871E-1	8.642164E-1	8.516157E-1	8.909145E-1	8.449791E-1	8.574470E-1	8.716645E-1	8.084799E-1	8.345799E-1	8.379064E-1	8.470874E-1	8.396040E-1	8.254321E-1	8.699112E-1	8.221853E-1	8.302626E-1	8.473778E-1	8.579950E-1	8.382545E-1	8.706535E-1	8.543967E-1	9.026887E-1	8.605004E-1	8.628413E-1	8.158612E-1	8.186073E-1	8.273644E-1	8.483554E-1	8.353156E-1	8.202207E-1	8.998232E-1	8.896363E-1	8.675669E-1	8.450159E-1	8.333237E-1	8.316421E-1	8.466408E-1	8.386442E-1	8.826132E-1	8.073489E-1	8.707494E-1	8.394261E-1	8.452733E-1	8.670430E-1	8.254950E-1	8.391430E-1	8.680456E-1	7.928484E-1	8.799664E-1	8.407030E-1	8.450533E-1	8.346611E-1	8.451215E-1	8.490664E-1	8.199447E-1	8.409409E-1	8.785708E-1	8.614435E-1	8.457651E-1	8.897054E-1	8.760797E-1	8.363279E-1	8.380487E-1	8.196587E-1	8.563234E-1	8.696531E-1	8.582472E-1	8.404874E-1	8.281588E-1	8.317439E-1	8.584852E-1	8.249572E-1	8.390809E-1	8.136002E-1	8.472572E-1	8.369843E-1	8.560090E-1	8.300780E-1	8.397573E-1	8.234733E-1	7.967978E-1	8.529173E-1	7.954129E-1	8.460806E-1	8.262677E-1	8.235531E-1	8.917771E-1	8.410211E-1	8.680041E-1	8.785751E-1	8.331276E-1	8.200101E-1	9.100666E-1	8.207956E-1	8.845490E-1	8.356382E-1	8.598494E-1	9.010406E-1	8.125828E-1	8.378387E-1	8.733274E-1	9.053011E-1	8.539989E-1	8.450220E-1	8.309751E-1	8.300609E-1	8.481384E-1	8.610577E-1	8.605563E-1	8.447447E-1	9.069261E-1	8.362996E-1	8.334336E-1	8.711632E-1	8.442714E-1	8.242525E-1	8.845002E-1	8.526104E-1	8.297077E-1	8.333955E-1	8.670356E-1	8.833732E-1	7.941876E-1	8.873046E-1	8.370833E-1	8.479680E-1	8.235794E-1	8.508237E-1	8.527599E-1	8.569581E-1	8.954735E-1	8.662550E-1	8.635195E-1	8.548486E-1	9.053583E-1	8.281815E-1	8.480687E-1	8.691468E-1	8.234435E-1	8.591821E-1	8.270250E-1	8.826129E-1	7.956494E-1	8.563233E-1	8.875949E-1	8.306117E-1	1.035709E+0
5.382690E+2	1.067616E+0	1.060349E+0	1.077711E+0	1.021436E+0	1.073380E+0	1.109866E+0	1.050354E+0	1.054070E+0	1.078915E+0	1.078637E+0	1.046440E+0	1.052613E+0	1.069194E+0	1.059084E+0	1.066541E+0	1.094964E+0	1.099062E+0	1.111941E+0	1.095661E+0	1.094213E+0	1.084855E+0	1.017719E+0	1.084860E+0	1.021211E+0	1.087151E+0	1.093082E+0	1.050721E+0	1.054707E+0	1.044115E+0	1.080717E+0	1.076318E+0	1.079403E+0	1.059674E+0	1.079946E+0	1.087778E+0	1.097025E+0	9.730291E-1	1.071777E+0	1.073890E+0	1.087996E+0	1.056879E+0	1.113838E+0	1.088853E+0	1.030597E+0	1.038701E+0	1.030461E+0	1.080791E+0	1.077398E+0	1.049447E+0	1.030522E+0	1.056709E+0	1.053043E+0	1.018604E+0	1.056452E+0	1.046279E+0	1.035315E+0	1.112490E+0	1.073218E+0	1.069616E+0	1.060785E+0	1.009546E+0	1.071241E+0	1.039625E+0	1.059396E+0	1.070808E+0	1.053767E+0	1.028739E+0	1.010075E+0	1.091058E+0	9.877271E-1	1.081423E+0	1.061032E+0	1.096130E+0	1.012364E+0	1.011366E+0	1.071379E+0	1.033273E+0	1.066709E+0	1.040223E+0	1.083995E+0	1.068306E+0	1.057397E+0	1.095292E+0	1.039096E+0	1.067231E+0	1.044137E+0	1.073939E+0	1.075069E+0	1.039830E+0	1.106777E+0	1.055124E+0	1.045698E+0	1.061163E+0	1.086767E+0	1.045069E+0	1.044711E+0	1.086729E+0	1.012789E+0	1.085294E+0	1.051548E+0	1.022325E+0	1.091350E+0	1.022764E+0	1.074756E+0	9.718169E-1	1.047366E+0	1.056175E+0	1.085415E+0	1.038206E+0	1.041964E+0	1.070752E+0	1.034082E+0	1.006781E+0	1.066012E+0	1.020388E+0	1.037571E+0	1.058407E+0	1.057731E+0	1.022240E+0	1.006416E+0	1.007258E+0	1.022103E+0	1.067107E+0	1.054093E+0	1.048278E+0	1.052901E+0	1.073532E+0	1.061805E+0	1.090215E+0	1.003080E+0	1.047094E+0	1.064929E+0	1.008726E+0	1.057679E+0	1.075247E+0	1.030586E+0	1.068425E+0	1.032402E+0	1.050345E+0	1.067242E+0	1.100328E+0	1.033275E+0	1.050308E+0	1.097685E+0	1.076384E+0	1.043889E+0	1.011845E+0	1.043043E+0	1.006927E+0	1.059473E+0	1.070121E+0	1.086144E+0	1.034006E+0	1.068868E+0	1.096383E+0	1.061386E+0	1.086125E+0	1.049034E+0	1.058826E+0	1.037634E+0	1.046932E+0	1.025485E+0	1.002910E+0	1.083281E+0	1.015757E+0	1.038907E+0	1.036860E+0	1.093276E+0	1.029952E+0	1.005326E+0	1.119824E+0
5.385110E+2	1.298841E+0	1.273163E+0	1.327689E+0	1.331021E+0	1.243921E+0	1.325040E+0	1.298256E+0	1.297360E+0	1.293058E+0	1.288916E+0	1.337902E+0	1.302403E+0	1.273060E+0	1.277223E+0	1.344120E+0	1.260084E+0	1.284600E+0	1.251129E+0	1.310300E+0	1.246440E+0	1.280847E+0	1.290937E+0	1.277527E+0	1.320655E+0	1.248111E+0	1.351536E+0	1.259479E+0	1.300647E+0	1.269016E+0	1.305978E+0	1.276202E+0	1.276440E+0	1.275517E+0	1.294294E+0	1.301058E+0	1.302762E+0	1.241349E+0	1.289826E+0	1.302458E+0	1.285476E+0	1.300551E+0	1.242365E+0	1.288969E+0	1.250601E+0	1.212127E+0	1.248371E+0	1.333880E+0	1.276526E+0	1.303028E+0	1.309689E+0	1.250442E+0	1.272853E+0	1.244416E+0	1.298005E+0	1.292752E+0	1.223738E+0	1.315605E+0	1.303048E+0	1.275462E+0	1.283011E+0	1.272465E+0	1.260662E+0	1.276305E+0	1.286321E+0	1.267999E+0	1.297380E+0	1.297437E+0	1.286977E+0	1.271084E+0	1.281623E+0	1.297233E+0	1.287350E+0	1.307126E+0	1.291017E+0	1.256177E+0	1.261500E+0	1.284968E+0	1.263301E+0	1.252892E+0	1.279402E+0	1.300959E+0	1.284101E+0	1.257899E+0	1.318975E+0	1.268625E+0	1.309870E+0	1.265100E+0	1.283840E+0	1.276591E+0	1.292886E+0	1.315206E+0	1.284136E+0	1.286321E+0	1.319799E+0	1.281017E+0	1.289418E+0	1.310960E+0	1.269249E+0	1.277523E+0	1.328741E+0	1.257034E+0	1.270621E+0	1.283134E+0	1.286177E+0	1.265160E+0	1.262034E+0	1.260678E+0	1.274085E+0	1.222112E+0	1.282190E+0	1.304600E+0	1.297546E+0	1.278601E+0	1.284412E+0	1.262522E+0	1.292133E+0	1.289971E+0	1.247712E+0	1.255705E+0	1.268675E+0	1.283045E+0	1.337835E+0	1.255303E+0	1.245857E+0	1.295377E+0	1.279581E+0	1.245290E+0	1.299923E+0	1.242414E+0	1.209167E+0	1.242987E+0	1.261548E+0	1.265823E+0	1.270011E+0	1.309884E+0	1.286490E+0	1.339027E+0	1.272947E+0	1.269201E+0	1.308826E+0	1.284631E+0	1.303508E+0	1.296577E+0	1.299311E+0	1.202129E+0	1.315846E+0	1.300401E+0	1.314542E+0	1.265185E+0	1.279555E+0	1.286355E+0	1.323975E+0	1.233738E+0	1.251198E+0	1.305562E+0	1.305162E+0	1.310637E+0	1.292127E+0	1.256098E+0	1.283378E+0	1.264361E+0	1.320984E+0	1.285517E+0	1.249446E+0	1.292572E+0	1.240260E+0	1.290799E+0	1.258518E+0	1.257666E+0	1.218586E+0	1.380447E+0
5.387650E+2	1.474061E+0	1.431582E+0	1.451800E+0	1.435511E+0	1.492741E+0	1.444121E+0	1.440716E+0	1.416470E+0	1.469479E+0	1.427172E+0	1.508364E+0	1.457174E+0	1.443409E+0	1.476769E+0	1.455578E+0	1.398818E+0	1.459725E+0	1.455539E+0	1.447118E+0	1.436549E+0	1.422889E+0	1.407003E+0	1.432590E+0	1.432105E+0	1.423020E+0	1.435682E+0	1.444645E+0	1.484100E+0	1.464652E+0	1.412043E+0	1.440969E+0	1.455241E+0	1.472567E+0	1.444604E+0	1.457267E+0	1.435137E+0	1.392565E+0	1.425281E+0	1.428075E+0	1.421402E+0	1.403657E+0	1.429737E+0	1.398904E+0	1.436602E+0	1.430420E+0	1.385545E+0	1.422586E+0	1.475710E+0	1.403806E+0	1.482774E+0	1.441248E+0	1.446309E+0	1.383042E+0	1.434254E+0	1.449129E+0	1.447600E+0	1.458889E+0	1.403091E+0	1.409603E+0	1.399931E+0	1.428145E+0	1.418983E+0	1.391264E+0	1.463996E+0	1.488841E+0	1.442451E+0	1.399672E+0	1.387948E+0	1.427974E+0	1.390665E+0	1.400606E+0	1.465051E+0	1.406320E+0	1.432901E+0	1.390801E+0	1.444813E+0	1.431817E+0	1.409040E+0	1.411976E+0	1.430702E+0	1.473378E+0	1.493245E+0	1.437121E+0	1.402818E+0	1.452522E+0	1.438600E+0	1.403464E+0	1.482906E+0	1.437107E+0	1.418773E+0	1.418171E+0	1.401130E+0	1.440655E+0	1.453272E+0	1.432180E+0	1.447368E+0	1.404154E+0	1.434295E+0	1.415573E+0	1.408712E+0	1.471322E+0	1.397782E+0	1.464752E+0	1.427864E+0	1.427549E+0	1.390853E+0	1.344261E+0	1.424243E+0	1.403634E+0	1.404164E+0	1.494337E+0	1.443051E+0	1.404364E+0	1.414638E+0	1.413353E+0	1.404023E+0	1.380398E+0	1.380363E+0	1.386937E+0	1.414408E+0	1.424885E+0	1.438975E+0	1.413301E+0	1.458731E+0	1.443590E+0	1.389140E+0	1.469473E+0	1.405095E+0	1.440054E+0	1.391197E+0	1.470792E+0	1.410157E+0	1.457300E+0	1.439479E+0	1.428540E+0	1.439156E+0	1.421830E+0	1.470901E+0	1.426084E+0	1.430315E+0	1.374454E+0	1.465686E+0	1.434028E+0	1.436532E+0	1.425530E+0	1.393150E+0	1.398431E+0	1.463909E+0	1.379267E+0	1.460659E+0	1.432305E+0	1.410928E+0	1.414122E+0	1.408117E+0	1.490761E+0	1.393075E+0	1.432618E+0	1.450040E+0	1.424665E+0	1.409819E+0	1.418314E+0	1.461167E+0	1.440538E+0	1.450879E+0	1.421502E+0	1.413441E+0	1.398837E+0	1.410392E+0	1.453040E+0	1.444197E+0	1.509427E+0
5.390340E+2	1.780197E+0	1.747627E+0	1.707057E+0	1.683792E+0	1.732646E+0	1.745966E+0	1.694325E+0	1.661113E+0	1.749766E+0	1.688063E+0	1.767841E+0	1.726565E+0	1.724119E+0	1.739928E+0	1.767008E+0	1.719243E+0	1.685981E+0	1.673699E+0	1.717769E+0	1.673901E+0	1.702405E+0	1.714088E+0	1.721206E+0	1.721119E+0	1.732957E+0	1.827902E+0	1.656773E+0	1.699672E+0	1.672513E+0	1.695804E+0	1.689242E+0	1.748066E+0	1.704909E+0	1.728591E+0	1.713434E+0	1.715860E+0	1.669566E+0	1.720959E+0	1.726717E+0	1.659575E+0	1.719962E+0	1.675903E+0	1.722921E+0	1.723306E+0	1.657041E+0	1.727439E+0	1.743899E+0	1.735066E+0	1.703183E+0	1.721141E+0	1.713738E+0	1.753152E+0	1.726690E+0	1.716698E+0	1.692859E+0	1.694020E+0	1.761339E+0	1.644868E+0	1.680381E+0	1.657876E+0	1.743695E+0	1.737512E+0	1.711244E+0	1.748345E+0	1.707602E+0	1.661343E+0	1.735645E+0	1.728149E+0	1.699490E+0	1.728141E+0	1.668041E+0	1.744019E+0	1.775380E+0	1.663220E+0	1.628495E+0	1.721235E+0	1.701395E+0	1.658792E+0	1.635030E+0	1.697966E+0	1.689391E+0	1.724057E+0	1.723541E+0	1.710491E+0	1.721691E+0	1.703405E+0	1.730645E+0	1.681882E+0	1.652290E+0	1.687193E+0	1.784794E+0	1.686770E+0	1.746325E+0	1.658029E+0	1.693988E+0	1.673087E+0	1.709488E+0	1.728482E+0	1.725318E+0	1.733943E+0	1.635378E+0	1.633635E+0	1.647894E+0	1.727458E+0	1.628726E+0	1.677718E+0	1.620681E+0	1.696478E+0	1.647606E+0	1.702522E+0	1.611739E+0	1.690842E+0	1.725187E+0	1.674149E+0	1.730151E+0	1.728169E+0	1.660401E+0	1.617769E+0	1.670563E+0	1.710991E+0	1.705494E+0	1.602649E+0	1.725972E+0	1.732436E+0	1.677004E+0	1.671434E+0	1.665724E+0	1.666452E+0	1.688904E+0	1.699799E+0	1.695182E+0	1.710081E+0	1.689748E+0	1.715536E+0	1.753758E+0	1.726710E+0	1.649391E+0	1.702082E+0	1.680881E+0	1.642286E+0	1.652190E+0	1.657904E+0	1.689856E+0	1.718867E+0	1.732044E+0	1.620062E+0	1.699797E+0	1.684268E+0	1.642217E+0	1.663284E+0	1.658567E+0	1.732038E+0	1.693232E+0	1.711570E+0	1.751886E+0	1.725735E+0	1.705250E+0	1.615078E+0	1.694673E+0	1.652586E+0	1.600505E+0	1.687030E+0	1.674695E+0	1.668863E+0	1.680642E+0	1.657287E+0	1.624147E+0	1.622255E+0	1.662926E+0	1.630351E+0	1.605089E+0
5.392930E+2	1.892067E+0	1.917956E+0	1.898335E+0	1.855023E+0	1.889782E+0	1.937250E+0	1.866904E+0	1.888019E+0	1.900690E+0	1.907170E+0	1.885126E+0	1.939695E+0	1.855797E+0	1.979172E+0	1.891002E+0	1.907632E+0	1.917826E+0	1.886088E+0	1.869520E+0	1.907197E+0	1.928133E+0	1.873828E+0	1.907966E+0	1.881721E+0	1.854028E+0	1.930279E+0	1.899331E+0	1.901611E+0	1.862974E+0	1.857014E+0	1.896480E+0	1.895960E+0	1.950431E+0	1.902869E+0	1.892546E+0	1.926962E+0	1.851706E+0	1.870370E+0	1.867235E+0	1.890513E+0	1.836607E+0	1.857883E+0	1.832369E+0	1.853167E+0	1.865370E+0	1.883399E+0	1.927968E+0	1.928111E+0	1.874597E+0	1.800281E+0	1.914305E+0	1.859545E+0	1.885488E+0	1.824240E+0	1.907184E+0	1.876143E+0	1.962474E+0	1.907408E+0	1.856652E+0	1.791806E+0	1.880469E+0	1.903202E+0	1.881180E+0	1.852945E+0	1.873208E+0	1.878966E+0	1.920494E+0	1.870069E+0	1.898103E+0	1.854917E+0	1.867690E+0	1.824553E+0	1.914268E+0	1.796884E+0	1.842537E+0	1.843140E+0	1.866028E+0	1.832511E+0	1.891435E+0	1.880736E+0	1.878167E+0	1.900995E+0	1.818948E+0	1.886692E+0	1.906145E+0	1.835109E+0	1.863984E+0	1.882918E+0	1.873985E+0	1.877143E+0	1.916245E+0	1.824168E+0	1.837627E+0	1.824989E+0	1.852564E+0	1.860276E+0	1.816870E+0	1.841093E+0	1.910015E+0	1.855679E+0	1.861570E+0	1.850424E+0	1.886400E+0	1.866467E+0	1.870294E+0	1.802256E+0	1.784522E+0	1.954948E+0	1.779359E+0	1.878785E+0	1.818030E+0	1.771316E+0	1.883812E+0	1.797582E+0	1.837779E+0	1.888843E+0	1.841810E+0	1.844188E+0	1.877363E+0	1.858997E+0	1.868832E+0	1.819232E+0	1.826746E+0	1.859776E+0	1.839952E+0	1.902796E+0	1.842855E+0	1.885904E+0	1.808154E+0	1.796084E+0	1.824400E+0	1.807619E+0	1.827160E+0	1.847870E+0	1.887934E+0	1.815244E+0	1.898288E+0	1.861660E+0	1.857888E+0	1.860065E+0	1.819375E+0	1.820862E+0	1.874450E+0	1.831081E+0	1.795490E+0	1.780606E+0	1.868809E+0	1.824780E+0	1.815659E+0	1.868893E+0	1.825620E+0	1.829795E+0	1.809226E+0	1.901076E+0	1.902500E+0	1.858288E+0	1.800125E+0	1.819207E+0	1.828796E+0	1.841976E+0	1.785468E+0	1.779633E+0	1.861636E+0	1.835776E+0	1.859945E+0	1.789346E+0	1.814256E+0	1.789901E+0	1.783229E+0	1.964654E+0	1.830811E+0
5.395160E+2	1.985346E+0	1.861418E+0	1.941338E+0	1.977133E+0	2.007768E+0	1.972792E+0	1.982700E+0	1.977280E+0	1.923777E+0	1.924786E+0	1.928618E+0	1.918283E+0	1.961656E+0	1.984490E+0	1.980535E+0	1.961250E+0	1.948199E+0	1.930201E+0	1.955622E+0	1.917437E+0	1.973863E+0	1.970982E+0	2.003330E+0	1.964605E+0	1.973381E+0	1.938349E+0	1.881613E+0	1.971104E+0	1.947673E+0	1.925284E+0	1.881624E+0	1.909655E+0	1.977783E+0	1.978434E+0	2.015532E+0	1.972807E+0	1.890449E+0	1.989393E+0	1.978579E+0	1.885868E+0	1.912345E+0	1.882468E+0	1.881210E+0	1.930044E+0	1.890969E+0	1.884022E+0	2.000776E+0	1.944207E+0	1.882980E+0	1.919585E+0	1.957840E+0	1.937421E+0	1.935536E+0	1.927671E+0	1.927631E+0	1.969925E+0	1.925119E+0	1.949599E+0	1.942582E+0	1.866317E+0	1.924368E+0	1.936462E+0	1.889503E+0	1.932329E+0	1.959452E+0	1.923638E+0	1.991560E+0	1.927380E+0	1.842194E+0	1.910959E+0	1.926043E+0	1.905859E+0	1.952358E+0	1.884933E+0	1.858325E+0	1.930114E+0	1.938419E+0	1.870754E+0	1.945694E+0	1.932503E+0	1.916190E+0	1.910137E+0	1.943465E+0	1.952676E+0	1.926902E+0	1.902995E+0	1.910796E+0	1.877173E+0	1.909741E+0	1.870065E+0	1.915384E+0	1.968973E+0	1.920240E+0	1.862899E+0	1.906752E+0	1.892125E+0	1.953226E+0	1.859885E+0	1.917971E+0	2.013085E+0	1.898277E+0	1.820086E+0	1.910560E+0	1.906270E+0	1.848394E+0	1.890420E+0	1.957364E+0	1.904173E+0	1.835064E+0	1.939828E+0	1.962743E+0	1.855734E+0	1.856689E+0	1.854039E+0	1.939896E+0	1.865452E+0	1.872441E+0	1.885917E+0	1.883301E+0	1.880651E+0	1.941224E+0	1.897783E+0	1.870282E+0	1.856968E+0	1.863076E+0	1.887887E+0	1.872455E+0	1.840760E+0	1.879204E+0	1.813261E+0	1.880382E+0	1.916807E+0	1.900995E+0	1.889033E+0	1.901413E+0	1.920725E+0	1.955723E+0	1.909997E+0	1.893246E+0	1.815261E+0	1.857581E+0	1.798273E+0	1.898946E+0	1.855440E+0	1.854849E+0	1.885029E+0	1.827250E+0	1.987902E+0	1.880164E+0	1.897607E+0	1.857719E+0	1.926695E+0	1.895657E+0	1.932962E+0	1.945810E+0	1.808781E+0	1.868754E+0	1.832760E+0	1.882413E+0	1.910459E+0	1.831412E+0	1.868255E+0	1.897218E+0	1.870992E+0	1.852137E+0	1.890046E+0	1.926091E+0	1.835636E+0	1.865669E+0	1.873388E+0	1.859486E+0
5.397750E+2	2.031291E+0	1.961553E+0	2.081450E+0	2.021627E+0	2.005576E+0	2.025551E+0	2.027304E+0	2.018065E+0	2.003644E+0	2.039582E+0	2.027204E+0	1.985834E+0	1.994095E+0	1.996294E+0	2.028183E+0	2.051342E+0	2.003655E+0	2.030095E+0	2.098037E+0	2.023843E+0	2.030934E+0	2.028886E+0	2.055441E+0	2.016825E+0	1.983211E+0	2.101044E+0	1.963604E+0	2.050052E+0	1.941604E+0	1.964631E+0	2.078663E+0	2.029711E+0	1.985520E+0	2.042861E+0	2.118850E+0	2.017342E+0	1.966935E+0	2.066029E+0	2.046042E+0	1.974219E+0	1.938994E+0	1.984358E+0	2.018059E+0	1.980367E+0	1.973861E+0	1.971072E+0	2.048315E+0	1.995650E+0	1.978373E+0	1.928313E+0	1.961220E+0	1.970989E+0	2.026375E+0	1.994431E+0	2.050230E+0	1.994531E+0	2.041652E+0	1.951456E+0	1.977077E+0	1.958406E+0	1.997205E+0	1.998945E+0	1.958860E+0	1.971983E+0	1.929731E+0	1.939473E+0	1.960108E+0	2.032073E+0	1.959452E+0	1.970192E+0	1.942717E+0	2.025228E+0	2.010212E+0	1.921239E+0	1.965537E+0	2.007238E+0	1.949643E+0	1.966361E+0	2.005937E+0	1.972137E+0	2.045062E+0	2.038966E+0	1.991340E+0	2.006195E+0	1.919574E+0	1.930178E+0	1.972560E+0	2.002783E+0	2.004166E+0	2.000987E+0	1.967059E+0	1.962583E+0	1.938232E+0	1.932731E+0	1.953530E+0	1.957340E+0	1.983759E+0	1.927515E+0	1.971324E+0	1.973191E+0	2.006304E+0	1.989563E+0	1.952267E+0	2.039699E+0	1.902261E+0	1.909956E+0	1.979280E+0	1.915572E+0	1.909300E+0	1.927587E+0	2.005580E+0	1.880842E+0	1.995514E+0	1.965730E+0	2.004523E+0	1.989791E+0	1.929416E+0	1.911893E+0	1.953710E+0	1.930282E+0	1.947818E+0	1.885620E+0	1.965639E+0	1.932826E+0	1.959157E+0	2.013879E+0	1.931916E+0	1.942480E+0	2.019055E+0	1.943796E+0	1.946278E+0	1.941856E+0	1.930365E+0	1.942702E+0	1.979389E+0	1.942156E+0	2.060315E+0	1.934809E+0	1.978479E+0	1.947350E+0	1.929107E+0	1.958188E+0	1.947297E+0	1.988641E+0	2.000799E+0	1.943410E+0	1.924883E+0	1.997826E+0	1.897821E+0	1.975754E+0	1.985218E+0	1.949074E+0	1.895814E+0	1.983278E+0	2.019602E+0	1.974870E+0	1.935565E+0	1.930577E+0	1.896282E+0	1.874669E+0	1.895640E+0	1.960704E+0	1.949740E+0	1.928748E+0	1.902502E+0	1.916702E+0	1.994483E+0	1.904664E+0	2.008288E+0	1.882695E+0	1.999999E+0
5.400240E+2	1.995342E+0	1.940826E+0	2.001445E+0	2.005613E+0	1.952474E+0	1.973553E+0	1.967997E+0	1.944026E+0	1.890777E+0	1.983702E+0	1.941091E+0	2.020587E+0	1.951955E+0	2.013333E+0	1.985543E+0	2.016654E+0	2.030570E+0	1.899088E+0	1.943828E+0	1.941935E+0	1.911332E+0	1.956019E+0	1.992824E+0	1.966222E+0	1.917247E+0	2.046424E+0	1.944287E+0	1.999611E+0	1.907077E+0	1.948345E+0	1.916653E+0	1.930804E+0	1.894957E+0	1.991218E+0	1.963921E+0	1.885774E+0	1.908947E+0	1.940115E+0	1.999089E+0	1.984294E+0	1.843751E+0	1.983007E+0	1.915728E+0	1.927382E+0	1.966944E+0	1.948834E+0	1.979446E+0	1.946955E+0	1.928429E+0	1.980504E+0	2.017515E+0	1.915850E+0	1.938044E+0	1.900823E+0	1.966145E+0	1.880426E+0	1.945610E+0	1.887711E+0	1.961784E+0	1.916021E+0	1.954012E+0	1.891233E+0	1.930626E+0	1.992913E+0	1.955445E+0	1.883957E+0	1.938038E+0	1.939987E+0	1.942027E+0	1.941416E+0	1.967682E+0	1.920431E+0	1.961707E+0	1.891551E+0	1.955656E+0	1.905546E+0	1.963593E+0	1.950789E+0	1.935510E+0	1.930248E+0	1.947305E+0	1.959621E+0	1.909113E+0	1.981882E+0	1.858090E+0	1.920182E+0	1.889966E+0	1.967843E+0	1.916609E+0	1.907845E+0	1.932780E+0	1.926297E+0	1.887840E+0	1.890300E+0	1.890285E+0	1.866459E+0	1.918121E+0	1.873527E+0	1.928984E+0	1.945476E+0	1.963989E+0	1.825078E+0	1.865378E+0	1.904625E+0	1.856596E+0	1.903281E+0	1.906750E+0	1.905577E+0	1.853507E+0	1.887829E+0	1.910114E+0	1.873551E+0	1.968675E+0	1.934042E+0	1.936753E+0	1.886933E+0	1.899787E+0	1.915005E+0	1.932474E+0	1.900816E+0	1.923178E+0	1.883386E+0	1.892858E+0	1.934991E+0	1.883861E+0	1.903045E+0	1.935702E+0	1.810115E+0	1.866727E+0	1.885821E+0	1.932274E+0	1.920400E+0	1.864246E+0	1.909634E+0	1.943187E+0	1.958484E+0	1.879701E+0	1.990138E+0	1.896459E+0	1.944105E+0	1.884971E+0	1.845239E+0	1.966762E+0	1.900832E+0	1.885835E+0	1.899131E+0	1.828264E+0	1.954755E+0	1.835699E+0	1.834570E+0	1.909980E+0	1.888029E+0	1.906620E+0	1.971665E+0	1.957915E+0	1.875002E+0	1.888944E+0	1.849620E+0	1.869837E+0	1.835512E+0	1.862431E+0	1.910718E+0	1.909000E+0	1.912039E+0	1.912892E+0	1.845422E+0	1.895122E+0	1.868280E+0	1.903946E+0	1.896287E+0	1.927369E+0
5.402900E+2	1.821110E+0	1.779790E+0	1.757537E+0	1.784466E+0	1.828260E+0	1.824443E+0	1.807836E+0	1.806738E+0	1.754822E+0	1.781547E+0	1.790628E+0	1.739425E+0	1.847451E+0	1.808123E+0	1.771328E+0	1.825365E+0	1.778971E+0	1.771786E+0	1.831601E+0	1.777670E+0	1.791854E+0	1.833152E+0	1.797216E+0	1.803233E+0	1.780655E+0	1.870458E+0	1.704783E+0	1.859874E+0	1.761839E+0	1.803855E+0	1.792528E+0	1.788599E+0	1.765822E+0	1.798013E+0	1.832899E+0	1.757422E+0	1.713367E+0	1.810552E+0	1.776999E+0	1.797575E+0	1.720416E+0	1.729822E+0	1.777221E+0	1.810943E+0	1.753877E+0	1.749678E+0	1.788406E+0	1.836010E+0	1.754840E+0	1.740530E+0	1.797470E+0	1.862413E+0	1.791026E+0	1.688882E+0	1.734579E+0	1.747170E+0	1.817403E+0	1.736554E+0	1.705091E+0	1.812527E+0	1.812078E+0	1.803151E+0	1.716327E+0	1.776208E+0	1.788005E+0	1.756365E+0	1.728982E+0	1.809677E+0	1.773116E+0	1.715381E+0	1.733590E+0	1.742538E+0	1.760089E+0	1.685914E+0	1.737056E+0	1.791879E+0	1.819304E+0	1.743289E+0	1.759850E+0	1.737802E+0	1.751685E+0	1.753521E+0	1.783621E+0	1.737105E+0	1.715912E+0	1.794939E+0	1.763640E+0	1.759322E+0	1.678376E+0	1.748589E+0	1.746959E+0	1.788069E+0	1.782755E+0	1.733149E+0	1.737453E+0	1.688832E+0	1.761447E+0	1.706784E+0	1.741907E+0	1.783315E+0	1.756962E+0	1.735078E+0	1.745457E+0	1.731674E+0	1.691161E+0	1.737403E+0	1.741644E+0	1.742502E+0	1.707786E+0	1.805711E+0	1.765473E+0	1.741257E+0	1.732272E+0	1.759858E+0	1.759133E+0	1.685249E+0	1.797190E+0	1.705218E+0	1.813668E+0	1.793770E+0	1.719372E+0	1.718390E+0	1.780035E+0	1.731879E+0	1.749248E+0	1.795817E+0	1.713284E+0	1.712375E+0	1.769231E+0	1.664305E+0	1.738407E+0	1.773974E+0	1.715626E+0	1.800005E+0	1.810909E+0	1.689872E+0	1.741637E+0	1.720532E+0	1.729980E+0	1.700431E+0	1.727012E+0	1.728111E+0	1.733532E+0	1.762523E+0	1.737388E+0	1.723328E+0	1.744520E+0	1.755679E+0	1.716748E+0	1.789318E+0	1.790171E+0	1.751686E+0	1.701254E+0	1.803866E+0	1.801950E+0	1.730108E+0	1.759678E+0	1.708255E+0	1.724818E+0	1.677102E+0	1.709528E+0	1.753861E+0	1.763638E+0	1.730745E+0	1.705942E+0	1.756874E+0	1.823718E+0	1.755422E+0	1.719070E+0	1.698882E+0	1.909886E+0
5.405080E+2	1.788119E+0	1.725038E+0	1.760860E+0	1.746687E+0	1.724579E+0	1.766266E+0	1.779494E+0	1.751961E+0	1.754785E+0	1.701861E+0	1.711051E+0	1.784350E+0	1.761791E+0	1.727953E+0	1.721147E+0	1.773781E+0	1.812212E+0	1.812384E+0	1.674994E+0	1.738079E+0	1.719434E+0	1.788635E+0	1.760904E+0	1.737590E+0	1.717564E+0	1.752732E+0	1.687298E+0	1.761214E+0	1.742072E+0	1.756308E+0	1.744300E+0	1.741496E+0	1.724521E+0	1.835751E+0	1.831230E+0	1.714821E+0	1.692650E+0	1.749589E+0	1.749014E+0	1.680935E+0	1.759839E+0	1.735741E+0	1.680643E+0	1.648394E+0	1.697226E+0	1.722876E+0	1.761484E+0	1.724181E+0	1.699426E+0	1.728839E+0	1.722562E+0	1.734851E+0	1.677816E+0	1.702828E+0	1.714647E+0	1.756615E+0	1.788448E+0	1.712374E+0	1.693190E+0	1.671188E+0	1.682555E+0	1.692476E+0	1.741742E+0	1.732657E+0	1.763386E+0	1.661698E+0	1.827401E+0	1.715542E+0	1.729967E+0	1.708803E+0	1.684184E+0	1.701070E+0	1.824021E+0	1.662381E+0	1.674191E+0	1.726483E+0	1.722206E+0	1.749462E+0	1.744516E+0	1.777610E+0	1.706134E+0	1.719089E+0	1.730704E+0	1.729286E+0	1.758741E+0	1.668470E+0	1.751806E+0	1.725218E+0	1.703290E+0	1.670464E+0	1.719794E+0	1.683008E+0	1.723724E+0	1.732857E+0	1.612460E+0	1.706498E+0	1.677316E+0	1.724629E+0	1.740848E+0	1.777820E+0	1.692608E+0	1.668623E+0	1.712479E+0	1.779339E+0	1.727911E+0	1.687607E+0	1.682119E+0	1.787115E+0	1.723809E+0	1.745787E+0	1.659772E+0	1.678586E+0	1.692775E+0	1.680393E+0	1.756676E+0	1.718617E+0	1.662212E+0	1.669460E+0	1.716264E+0	1.667004E+0	1.745799E+0	1.679246E+0	1.705800E+0	1.732663E+0	1.683190E+0	1.641084E+0	1.730160E+0	1.682595E+0	1.699614E+0	1.656624E+0	1.741734E+0	1.667346E+0	1.714620E+0	1.624061E+0	1.672180E+0	1.673957E+0	1.681383E+0	1.696049E+0	1.736113E+0	1.689094E+0	1.665560E+0	1.691808E+0	1.686405E+0	1.717175E+0	1.736136E+0	1.683510E+0	1.685801E+0	1.714758E+0	1.662646E+0	1.658861E+0	1.664544E+0	1.727338E+0	1.709420E+0	1.752191E+0	1.745676E+0	1.675542E+0	1.643733E+0	1.662852E+0	1.716990E+0	1.618559E+0	1.663565E+0	1.736071E+0	1.676001E+0	1.652440E+0	1.683539E+0	1.633949E+0	1.632046E+0	1.669614E+0	1.702747E+0	1.648519E+0	1.875245E+0
5.407680E+2	1.669876E+0	1.674132E+0	1.631594E+0	1.615432E+0	1.661905E+0	1.682695E+0	1.689249E+0	1.655768E+0	1.677019E+0	1.642036E+0	1.620257E+0	1.639488E+0	1.678930E+0	1.671180E+0	1.656669E+0	1.670464E+0	1.733081E+0	1.635452E+0	1.675874E+0	1.678865E+0	1.661995E+0	1.697050E+0	1.642282E+0	1.651008E+0	1.608059E+0	1.636748E+0	1.644789E+0	1.643619E+0	1.659380E+0	1.629588E+0	1.673617E+0	1.698006E+0	1.629779E+0	1.658618E+0	1.719941E+0	1.688233E+0	1.652038E+0	1.629979E+0	1.727042E+0	1.649506E+0	1.677785E+0	1.587681E+0	1.583986E+0	1.659003E+0	1.621525E+0	1.631989E+0	1.666405E+0	1.642764E+0	1.630624E+0	1.632825E+0	1.617488E+0	1.648395E+0	1.673686E+0	1.670809E+0	1.644611E+0	1.639099E+0	1.692791E+0	1.597063E+0	1.651280E+0	1.635368E+0	1.630027E+0	1.650446E+0	1.573240E+0	1.684462E+0	1.610928E+0	1.613124E+0	1.704269E+0	1.709481E+0	1.604624E+0	1.623071E+0	1.609899E+0	1.693386E+0	1.651990E+0	1.618295E+0	1.596590E+0	1.659599E+0	1.675330E+0	1.611855E+0	1.610326E+0	1.609767E+0	1.652495E+0	1.637876E+0	1.639132E+0	1.663969E+0	1.622896E+0	1.626551E+0	1.709343E+0	1.711231E+0	1.620910E+0	1.640179E+0	1.669629E+0	1.680337E+0	1.630490E+0	1.605762E+0	1.615975E+0	1.653635E+0	1.636990E+0	1.550672E+0	1.692959E+0	1.673840E+0	1.652361E+0	1.625775E+0	1.598001E+0	1.624526E+0	1.616140E+0	1.600387E+0	1.593745E+0	1.672714E+0	1.607152E+0	1.638479E+0	1.655794E+0	1.616367E+0	1.609691E+0	1.605396E+0	1.665692E+0	1.654939E+0	1.626583E+0	1.582012E+0	1.572027E+0	1.612805E+0	1.640753E+0	1.604680E+0	1.643475E+0	1.672712E+0	1.624643E+0	1.701330E+0	1.554480E+0	1.591514E+0	1.583866E+0	1.614023E+0	1.620345E+0	1.619542E+0	1.594647E+0	1.640373E+0	1.655249E+0	1.671515E+0	1.604505E+0	1.607757E+0	1.572540E+0	1.629232E+0	1.592859E+0	1.589930E+0	1.636497E+0	1.644509E+0	1.642736E+0	1.577480E+0	1.634476E+0	1.608138E+0	1.570891E+0	1.620147E+0	1.608872E+0	1.675400E+0	1.606541E+0	1.671842E+0	1.621811E+0	1.629017E+0	1.596441E+0	1.635199E+0	1.584366E+0	1.583590E+0	1.517981E+0	1.630033E+0	1.602709E+0	1.595914E+0	1.592951E+0	1.579188E+0	1.601569E+0	1.601420E+0	1.612111E+0	1.600475E+0	1.573746E+0
5.410340E+2	1.622501E+0	1.594374E+0	1.569445E+0	1.603088E+0	1.569490E+0	1.613074E+0	1.577306E+0	1.589155E+0	1.625158E+0	1.569148E+0	1.552184E+0	1.570870E+0	1.588185E+0	1.660689E+0	1.639317E+0	1.601282E+0	1.612541E+0	1.545022E+0	1.564682E+0	1.602419E+0	1.590284E+0	1.619587E+0	1.584272E+0	1.613544E+0	1.553111E+0	1.595170E+0	1.540817E+0	1.645975E+0	1.634528E+0	1.575660E+0	1.611913E+0	1.606700E+0	1.616977E+0	1.607426E+0	1.638164E+0	1.589777E+0	1.541117E+0	1.657970E+0	1.656840E+0	1.585902E+0	1.571755E+0	1.575591E+0	1.559442E+0	1.589528E+0	1.563195E+0	1.555636E+0	1.580307E+0	1.563635E+0	1.536492E+0	1.568104E+0	1.568825E+0	1.675579E+0	1.537401E+0	1.551440E+0	1.615184E+0	1.579695E+0	1.619549E+0	1.536196E+0	1.561431E+0	1.569655E+0	1.564186E+0	1.603397E+0	1.614820E+0	1.600593E+0	1.555613E+0	1.509696E+0	1.587843E+0	1.599971E+0	1.616341E+0	1.585653E+0	1.546948E+0	1.594437E+0	1.591060E+0	1.556031E+0	1.515745E+0	1.606657E+0	1.595954E+0	1.569838E+0	1.587630E+0	1.650516E+0	1.618536E+0	1.608685E+0	1.544245E+0	1.607809E+0	1.572632E+0	1.531423E+0	1.603396E+0	1.591933E+0	1.575923E+0	1.535977E+0	1.592731E+0	1.586740E+0	1.542970E+0	1.545292E+0	1.518482E+0	1.580535E+0	1.532842E+0	1.552274E+0	1.546028E+0	1.576358E+0	1.646294E+0	1.558437E+0	1.580756E+0	1.625245E+0	1.558047E+0	1.588219E+0	1.563932E+0	1.600600E+0	1.555193E+0	1.624462E+0	1.609665E+0	1.572751E+0	1.525014E+0	1.586716E+0	1.656997E+0	1.601494E+0	1.558533E+0	1.600745E+0	1.555923E+0	1.576349E+0	1.519268E+0	1.568985E+0	1.561605E+0	1.609608E+0	1.605596E+0	1.594209E+0	1.558731E+0	1.572910E+0	1.587279E+0	1.558764E+0	1.580998E+0	1.495562E+0	1.605943E+0	1.551640E+0	1.593914E+0	1.531318E+0	1.616142E+0	1.579630E+0	1.534810E+0	1.616260E+0	1.544477E+0	1.532770E+0	1.589507E+0	1.601785E+0	1.602196E+0	1.546606E+0	1.506148E+0	1.579199E+0	1.542440E+0	1.553626E+0	1.524582E+0	1.576750E+0	1.565647E+0	1.634450E+0	1.578444E+0	1.617996E+0	1.563680E+0	1.482196E+0	1.547516E+0	1.597073E+0	1.542087E+0	1.573695E+0	1.567897E+0	1.562341E+0	1.600472E+0	1.526611E+0	1.547077E+0	1.517175E+0	1.586237E+0	1.540899E+0	1.603664E+0
5.412850E+2	1.562647E+0	1.486329E+0	1.497949E+0	1.482195E+0	1.475837E+0	1.502522E+0	1.487646E+0	1.519545E+0	1.481060E+0	1.534873E+0	1.533698E+0	1.494682E+0	1.518914E+0	1.531008E+0	1.539884E+0	1.493636E+0	1.574982E+0	1.529125E+0	1.493163E+0	1.514418E+0	1.543137E+0	1.482170E+0	1.543992E+0	1.485682E+0	1.486465E+0	1.553238E+0	1.488844E+0	1.549158E+0	1.458891E+0	1.496023E+0	1.498301E+0	1.550069E+0	1.522605E+0	1.522711E+0	1.489662E+0	1.485706E+0	1.504337E+0	1.544560E+0	1.450894E+0	1.498669E+0	1.510006E+0	1.492939E+0	1.497095E+0	1.510944E+0	1.472693E+0	1.462917E+0	1.505920E+0	1.516454E+0	1.503923E+0	1.467333E+0	1.568235E+0	1.520817E+0	1.506341E+0	1.486352E+0	1.507184E+0	1.487803E+0	1.481356E+0	1.447071E+0	1.486825E+0	1.465488E+0	1.547130E+0	1.486679E+0	1.436718E+0	1.537457E+0	1.483861E+0	1.498185E+0	1.469174E+0	1.534472E+0	1.499490E+0	1.435418E+0	1.431205E+0	1.503513E+0	1.563665E+0	1.461396E+0	1.420391E+0	1.554782E+0	1.501554E+0	1.526701E+0	1.465841E+0	1.472702E+0	1.532324E+0	1.489436E+0	1.529708E+0	1.489548E+0	1.499200E+0	1.471428E+0	1.524327E+0	1.484757E+0	1.519175E+0	1.494238E+0	1.513480E+0	1.499470E+0	1.489459E+0	1.528059E+0	1.479351E+0	1.513805E+0	1.531892E+0	1.505645E+0	1.529343E+0	1.521902E+0	1.458301E+0	1.480431E+0	1.557772E+0	1.519601E+0	1.501834E+0	1.519624E+0	1.428763E+0	1.490981E+0	1.441635E+0	1.468189E+0	1.463202E+0	1.509939E+0	1.478912E+0	1.475539E+0	1.518795E+0	1.441250E+0	1.461309E+0	1.483616E+0	1.476522E+0	1.435104E+0	1.480179E+0	1.494691E+0	1.495585E+0	1.478360E+0	1.458057E+0	1.494879E+0	1.479615E+0	1.465085E+0	1.496844E+0	1.424318E+0	1.503586E+0	1.505980E+0	1.458975E+0	1.502880E+0	1.542055E+0	1.467132E+0	1.474302E+0	1.518934E+0	1.444406E+0	1.466749E+0	1.453177E+0	1.432310E+0	1.498601E+0	1.458228E+0	1.514070E+0	1.432883E+0	1.478642E+0	1.474976E+0	1.461427E+0	1.451466E+0	1.473144E+0	1.508846E+0	1.477515E+0	1.473266E+0	1.477844E+0	1.554225E+0	1.504308E+0	1.498600E+0	1.473040E+0	1.471556E+0	1.435446E+0	1.491987E+0	1.507997E+0	1.480823E+0	1.428917E+0	1.481894E+0	1.508798E+0	1.468089E+0	1.564491E+0	1.456561E+0	1.585507E+0
5.415140E+2	1.337484E+0	1.341571E+0	1.291711E+0	1.303929E+0	1.337342E+0	1.298688E+0	1.337863E+0	1.337748E+0	1.330530E+0	1.369531E+0	1.281160E+0	1.284346E+0	1.309939E+0	1.342076E+0	1.304823E+0	1.294150E+0	1.380012E+0	1.286379E+0	1.351130E+0	1.322818E+0	1.332647E+0	1.308589E+0	1.311379E+0	1.361042E+0	1.335324E+0	1.394341E+0	1.288988E+0	1.364214E+0	1.341236E+0	1.328200E+0	1.342343E+0	1.340931E+0	1.333482E+0	1.347911E+0	1.329918E+0	1.339590E+0	1.316592E+0	1.330047E+0	1.344190E+0	1.336196E+0	1.290613E+0	1.293725E+0	1.309895E+0	1.312583E+0	1.298074E+0	1.321788E+0	1.357459E+0	1.298358E+0	1.308683E+0	1.313472E+0	1.339953E+0	1.328828E+0	1.320184E+0	1.323706E+0	1.293918E+0	1.399556E+0	1.344745E+0	1.331420E+0	1.306325E+0	1.272018E+0	1.272874E+0	1.250946E+0	1.314644E+0	1.361583E+0	1.325855E+0	1.313528E+0	1.310245E+0	1.313536E+0	1.292365E+0	1.308255E+0	1.362225E+0	1.357098E+0	1.321275E+0	1.227361E+0	1.290620E+0	1.310898E+0	1.325595E+0	1.342980E+0	1.311786E+0	1.336831E+0	1.354094E+0	1.326019E+0	1.346917E+0	1.357766E+0	1.308306E+0	1.308938E+0	1.351559E+0	1.312587E+0	1.299534E+0	1.341053E+0	1.320477E+0	1.359737E+0	1.335374E+0	1.280302E+0	1.262964E+0	1.323599E+0	1.347154E+0	1.283667E+0	1.324004E+0	1.375271E+0	1.369008E+0	1.274068E+0	1.307157E+0	1.379183E+0	1.306675E+0	1.311018E+0	1.304964E+0	1.261507E+0	1.283892E+0	1.295911E+0	1.289456E+0	1.392920E+0	1.305907E+0	1.287759E+0	1.333171E+0	1.356595E+0	1.357110E+0	1.301765E+0	1.312441E+0	1.316290E+0	1.311805E+0	1.295190E+0	1.348189E+0	1.332111E+0	1.283506E+0	1.314631E+0	1.338978E+0	1.316558E+0	1.335082E+0	1.275313E+0	1.319101E+0	1.289875E+0	1.329478E+0	1.323585E+0	1.347555E+0	1.332728E+0	1.267718E+0	1.297575E+0	1.357122E+0	1.326501E+0	1.361140E+0	1.274112E+0	1.319000E+0	1.325058E+0	1.303206E+0	1.309334E+0	1.282980E+0	1.323385E+0	1.333691E+0	1.259684E+0	1.292783E+0	1.334064E+0	1.306841E+0	1.332701E+0	1.275194E+0	1.330706E+0	1.344148E+0	1.309829E+0	1.321558E+0	1.294804E+0	1.308156E+0	1.314950E+0	1.269980E+0	1.300120E+0	1.362554E+0	1.245261E+0	1.298787E+0	1.306548E+0	1.322195E+0	1.271027E+0	1.415275E+0
5.417760E+2	1.198647E+0	1.159602E+0	1.144670E+0	1.151590E+0	1.128821E+0	1.156616E+0	1.158451E+0	1.125127E+0	1.164813E+0	1.100324E+0	1.123080E+0	1.124899E+0	1.146461E+0	1.164130E+0	1.136220E+0	1.141932E+0	1.187354E+0	1.114416E+0	1.185296E+0	1.157581E+0	1.163435E+0	1.122031E+0	1.172538E+0	1.125715E+0	1.163243E+0	1.145961E+0	1.136962E+0	1.135044E+0	1.140615E+0	1.115990E+0	1.145789E+0	1.172370E+0	1.126821E+0	1.148807E+0	1.184410E+0	1.124807E+0	1.125139E+0	1.136263E+0	1.127401E+0	1.158886E+0	1.146522E+0	1.161938E+0	1.131588E+0	1.166092E+0	1.138185E+0	1.140073E+0	1.131346E+0	1.160576E+0	1.165811E+0	1.124981E+0	1.108505E+0	1.170169E+0	1.105350E+0	1.133262E+0	1.167044E+0	1.135495E+0	1.198483E+0	1.089828E+0	1.214880E+0	1.130798E+0	1.166342E+0	1.125956E+0	1.118385E+0	1.171401E+0	1.127319E+0	1.131420E+0	1.170979E+0	1.155247E+0	1.122401E+0	1.134632E+0	1.135824E+0	1.139942E+0	1.141361E+0	1.109383E+0	1.117938E+0	1.187818E+0	1.128975E+0	1.178583E+0	1.156029E+0	1.105945E+0	1.145985E+0	1.211671E+0	1.150192E+0	1.186194E+0	1.134896E+0	1.181750E+0	1.119823E+0	1.117845E+0	1.117405E+0	1.148652E+0	1.135398E+0	1.205599E+0	1.133569E+0	1.143330E+0	1.138225E+0	1.176056E+0	1.144484E+0	1.129674E+0	1.105695E+0	1.160208E+0	1.180880E+0	1.120903E+0	1.101717E+0	1.125561E+0	1.116575E+0	1.119805E+0	1.086738E+0	1.140957E+0	1.126142E+0	1.212766E+0	1.113918E+0	1.116936E+0	1.118011E+0	1.132000E+0	1.165835E+0	1.149316E+0	1.164388E+0	1.126248E+0	1.158163E+0	1.148701E+0	1.140990E+0	1.097315E+0	1.106510E+0	1.117735E+0	1.146940E+0	1.149286E+0	1.100918E+0	1.139024E+0	1.143840E+0	1.110201E+0	1.158987E+0	1.123781E+0	1.100418E+0	1.095913E+0	1.179071E+0	1.112406E+0	1.155837E+0	1.173838E+0	1.170032E+0	1.164549E+0	1.117477E+0	1.100991E+0	1.178462E+0	1.159687E+0	1.167582E+0	1.100279E+0	1.163491E+0	1.161204E+0	1.151935E+0	1.163968E+0	1.171769E+0	1.164587E+0	1.119775E+0	1.150028E+0	1.102559E+0	1.203679E+0	1.116313E+0	1.075137E+0	1.101509E+0	1.104664E+0	1.131443E+0	1.158643E+0	1.145522E+0	1.135739E+0	1.191196E+0	1.158541E+0	1.102760E+0	1.097250E+0	1.138934E+0	1.146859E+0	1.145961E+0
5.420270E+2	1.037110E+0	1.029673E+0	1.031892E+0	9.978410E-1	1.011219E+0	1.027626E+0	1.021404E+0	1.027007E+0	1.088461E+0	1.005077E+0	9.740278E-1	1.004137E+0	9.777782E-1	1.012039E+0	1.011692E+0	9.903510E-1	9.597447E-1	9.801845E-1	9.867424E-1	1.020180E+0	9.793796E-1	1.031006E+0	9.952736E-1	9.810644E-1	1.011847E+0	9.826865E-1	1.008903E+0	1.011725E+0	9.987159E-1	1.041335E+0	9.926396E-1	9.953174E-1	9.550257E-1	1.002465E+0	9.847555E-1	1.019605E+0	9.865771E-1	1.017327E+0	9.933754E-1	1.006718E+0	1.010550E+0	9.838536E-1	1.030855E+0	1.000972E+0	9.912101E-1	9.882126E-1	1.026066E+0	9.923964E-1	1.021812E+0	1.063077E+0	1.027489E+0	1.025656E+0	1.006082E+0	1.001234E+0	1.016449E+0	1.000054E+0	1.000546E+0	1.029384E+0	9.911034E-1	9.693150E-1	9.741398E-1	9.972780E-1	1.026859E+0	1.035375E+0	9.859316E-1	9.730070E-1	1.012189E+0	1.019875E+0	9.977584E-1	1.000888E+0	1.013670E+0	1.014312E+0	1.051972E+0	9.572680E-1	9.469249E-1	1.031612E+0	1.019341E+0	1.017568E+0	9.993383E-1	9.888202E-1	1.002254E+0	1.025200E+0	9.867505E-1	1.070643E+0	9.946176E-1	1.041428E+0	1.018270E+0	1.026550E+0	9.802658E-1	9.741474E-1	1.007066E+0	9.876147E-1	9.705144E-1	9.807720E-1	1.019559E+0	1.046476E+0	9.970946E-1	9.649015E-1	1.016332E+0	1.025429E+0	1.002001E+0	9.741094E-1	9.935194E-1	9.574576E-1	9.949029E-1	1.030868E+0	1.023749E+0	9.910542E-1	9.823053E-1	9.987556E-1	9.942891E-1	1.034579E+0	9.883637E-1	9.914130E-1	1.035686E+0	1.014027E+0	9.588949E-1	9.828919E-1	1.017322E+0	9.912267E-1	9.853713E-1	1.014718E+0	1.002389E+0	9.785212E-1	9.986121E-1	9.972052E-1	9.887031E-1	1.036214E+0	9.928380E-1	9.871606E-1	1.041406E+0	9.782730E-1	9.628538E-1	1.018474E+0	1.023091E+0	1.021065E+0	1.017300E+0	9.684416E-1	1.031992E+0	1.037004E+0	1.049273E+0	9.791415E-1	1.060318E+0	1.018866E+0	1.015597E+0	9.614812E-1	9.903262E-1	1.036845E+0	1.008230E+0	1.015037E+0	1.046036E+0	9.891210E-1	1.019302E+0	1.008438E+0	1.025242E+0	1.069622E+0	9.937515E-1	9.859762E-1	1.006221E+0	9.545312E-1	9.952702E-1	1.001786E+0	9.968875E-1	1.010242E+0	1.015539E+0	1.011667E+0	1.006012E+0	1.030571E+0	1.045379E+0	9.916464E-1	1.050538E+0
5.422730E+2	9.153237E-1	9.503107E-1	9.046091E-1	9.427036E-1	9.492363E-1	9.251913E-1	9.249447E-1	9.185245E-1	8.910050E-1	9.383109E-1	8.851252E-1	9.331304E-1	9.475797E-1	9.597219E-1	9.234189E-1	9.142677E-1	9.564214E-1	9.187514E-1	9.584210E-1	9.026235E-1	9.148516E-1	9.834506E-1	9.569852E-1	9.507110E-1	9.763253E-1	9.637119E-1	9.222518E-1	9.411268E-1	8.656386E-1	8.928664E-1	9.076495E-1	9.361049E-1	9.007334E-1	9.532275E-1	9.724090E-1	9.152150E-1	9.073343E-1	9.060442E-1	9.190228E-1	9.002444E-1	9.280783E-1	9.373993E-1	9.075519E-1	9.227493E-1	9.325964E-1	9.113613E-1	9.127007E-1	9.038379E-1	9.134972E-1	9.665540E-1	9.397570E-1	9.119646E-1	9.255439E-1	9.148797E-1	9.263794E-1	9.176651E-1	9.687022E-1	9.167230E-1	9.108522E-1	9.293422E-1	9.468347E-1	9.353376E-1	9.611348E-1	8.953495E-1	9.553066E-1	9.284873E-1	9.020926E-1	9.419078E-1	9.264948E-1	9.345638E-1	9.309024E-1	9.204047E-1	9.087211E-1	9.157014E-1	8.954594E-1	9.379596E-1	9.378136E-1	9.096083E-1	9.072374E-1	9.105980E-1	9.433362E-1	9.298170E-1	9.382803E-1	9.590990E-1	9.104403E-1	9.181659E-1	9.292831E-1	8.778801E-1	9.329727E-1	9.292353E-1	9.303864E-1	9.795227E-1	9.400668E-1	9.008209E-1	9.213369E-1	9.154419E-1	9.316284E-1	9.202001E-1	9.516268E-1	9.367882E-1	9.196929E-1	8.966907E-1	8.846204E-1	9.025624E-1	9.174960E-1	9.363654E-1	9.404236E-1	8.968571E-1	9.397878E-1	9.410273E-1	9.125408E-1	9.144531E-1	9.027092E-1	9.267553E-1	9.357992E-1	9.408364E-1	9.415861E-1	9.030416E-1	9.252183E-1	9.444112E-1	8.861644E-1	9.153910E-1	9.350774E-1	8.854726E-1	9.031458E-1	8.908431E-1	9.426956E-1	9.229926E-1	9.045185E-1	8.748038E-1	9.315909E-1	9.575650E-1	8.885636E-1	9.535164E-1	9.385203E-1	9.698015E-1	9.383094E-1	9.284412E-1	9.199769E-1	9.600582E-1	9.674138E-1	9.305741E-1	9.433958E-1	9.144855E-1	8.992338E-1	9.380823E-1	9.416561E-1	9.346363E-1	9.143936E-1	9.800268E-1	9.523555E-1	9.534427E-1	9.654803E-1	9.179761E-1	9.203211E-1	9.499751E-1	9.484600E-1	9.297370E-1	9.678493E-1	9.644342E-1	9.150734E-1	9.344111E-1	8.763556E-1	9.429069E-1	9.823228E-1	9.031569E-1	9.140709E-1	9.345151E-1	9.559215E-1	8.604694E-1	9.802698E-1
5.425300E+2	9.558238E-1	9.043031E-1	9.003784E-1	9.430008E-1	8.946327E-1	9.196680E-1	8.989298E-1	8.986706E-1	9.092555E-1	9.327222E-1	8.906185E-1	8.790208E-1	9.308090E-1	9.118211E-1	9.306518E-1	9.604356E-1	9.405606E-1	9.632257E-1	9.193039E-1	9.073791E-1	9.159612E-1	9.708125E-1	9.153442E-1	9.075927E-1	9.128001E-1	8.868888E-1	9.241225E-1	9.078893E-1	9.345408E-1	9.190184E-1	9.153437E-1	9.284699E-1	9.200544E-1	8.965107E-1	9.586175E-1	8.972465E-1	9.199281E-1	9.479254E-1	9.110757E-1	8.937398E-1	8.990851E-1	9.473302E-1	8.946693E-1	9.259959E-1	9.121319E-1	9.114809E-1	9.258436E-1	9.340513E-1	8.984455E-1	9.786459E-1	9.421896E-1	8.920315E-1	8.858430E-1	8.748366E-1	9.302936E-1	8.873812E-1	9.756010E-1	8.976935E-1	8.701120E-1	9.151168E-1	9.242701E-1	9.147877E-1	9.133180E-1	9.059973E-1	9.291771E-1	9.052066E-1	9.378761E-1	9.203635E-1	9.541243E-1	9.038248E-1	9.729413E-1	9.143662E-1	9.513526E-1	9.231006E-1	9.077280E-1	9.409709E-1	9.281169E-1	8.885382E-1	9.110736E-1	9.551473E-1	9.513500E-1	9.000349E-1	8.926904E-1	8.926251E-1	8.979560E-1	8.613427E-1	9.160233E-1	9.304749E-1	9.018562E-1	9.138700E-1	9.168083E-1	9.075884E-1	9.222143E-1	8.824449E-1	9.002516E-1	9.561312E-1	9.269797E-1	8.836268E-1	8.779570E-1	8.975401E-1	9.049022E-1	9.054996E-1	8.803394E-1	9.998550E-1	8.914350E-1	9.362247E-1	9.076563E-1	9.275500E-1	9.017975E-1	9.262248E-1	8.775208E-1	8.836663E-1	9.461925E-1	8.889574E-1	9.345246E-1	8.968311E-1	9.550630E-1	8.777083E-1	9.645199E-1	8.980583E-1	9.329818E-1	9.092152E-1	9.156573E-1	9.360276E-1	9.192757E-1	9.100869E-1	9.154684E-1	9.082001E-1	9.066802E-1	9.386996E-1	9.550197E-1	9.550302E-1	9.055670E-1	9.427655E-1	9.091745E-1	9.310797E-1	9.683342E-1	9.163264E-1	9.109200E-1	9.072007E-1	8.900591E-1	9.144834E-1	9.236824E-1	9.262005E-1	9.376256E-1	9.209541E-1	8.880583E-1	9.462470E-1	8.739416E-1	9.270508E-1	9.047965E-1	9.262003E-1	9.263878E-1	9.503717E-1	9.496159E-1	9.584074E-1	9.262617E-1	9.523269E-1	9.349196E-1	9.143602E-1	9.043545E-1	9.209457E-1	9.141520E-1	9.280094E-1	9.124740E-1	8.907895E-1	8.945003E-1	9.161441E-1	9.240281E-1	8.873271E-1	9.918630E-1
5.427650E+2	9.845049E-1	9.813287E-1	9.740675E-1	9.672780E-1	9.996454E-1	1.007777E+0	1.010893E+0	9.679378E-1	9.656999E-1	9.800517E-1	9.701071E-1	9.804319E-1	9.492597E-1	1.028793E+0	9.656892E-1	9.831516E-1	1.053577E+0	1.017722E+0	1.007198E+0	9.935071E-1	1.009569E+0	9.371930E-1	9.947701E-1	1.030997E+0	9.951496E-1	9.740021E-1	9.705342E-1	1.016741E+0	9.675081E-1	1.032865E+0	9.965616E-1	9.783705E-1	9.732893E-1	1.012882E+0	9.932019E-1	9.447995E-1	9.020932E-1	9.729286E-1	9.900733E-1	9.485316E-1	9.606317E-1	9.523754E-1	9.627938E-1	9.835320E-1	9.559576E-1	9.907860E-1	9.691367E-1	9.830880E-1	1.015155E+0	9.946413E-1	9.794542E-1	9.764136E-1	9.750866E-1	9.880732E-1	1.018477E+0	9.560819E-1	9.816214E-1	9.546667E-1	9.879479E-1	9.197022E-1	9.614164E-1	9.750125E-1	9.910322E-1	9.743213E-1	9.945932E-1	9.815743E-1	9.903308E-1	9.848366E-1	9.887012E-1	9.914952E-1	9.808371E-1	9.926295E-1	9.905912E-1	9.679036E-1	9.470174E-1	9.759265E-1	1.000227E+0	9.905862E-1	9.692381E-1	9.849621E-1	9.646315E-1	9.818267E-1	9.597085E-1	9.731188E-1	9.658647E-1	9.931896E-1	1.004317E+0	9.587041E-1	9.888048E-1	1.001116E+0	1.000914E+0	9.954903E-1	9.824105E-1	9.547918E-1	9.929988E-1	9.894446E-1	9.683817E-1	9.770008E-1	9.394340E-1	1.031641E+0	9.631738E-1	9.886973E-1	9.839090E-1	1.033137E+0	9.671890E-1	9.930147E-1	9.692474E-1	1.011857E+0	9.788494E-1	9.584356E-1	1.013791E+0	9.966604E-1	1.002406E+0	9.773592E-1	1.060321E+0	9.516202E-1	9.742818E-1	9.574132E-1	1.003011E+0	9.836886E-1	9.878168E-1	1.001080E+0	9.665666E-1	9.837388E-1	9.494105E-1	9.999574E-1	1.009978E+0	9.616323E-1	1.009967E+0	9.544959E-1	9.985111E-1	9.570380E-1	9.750200E-1	9.523344E-1	1.018883E+0	9.571830E-1	9.890796E-1	9.835818E-1	9.795316E-1	9.984473E-1	1.017964E+0	9.637815E-1	9.755055E-1	9.774075E-1	9.765244E-1	9.860512E-1	9.490760E-1	9.874896E-1	9.832954E-1	9.718084E-1	1.001511E+0	1.012423E+0	1.000699E+0	9.894743E-1	9.412574E-1	1.004759E+0	9.836120E-1	9.737619E-1	9.827233E-1	9.724249E-1	1.046937E+0	1.012722E+0	9.946723E-1	9.533595E-1	9.561316E-1	1.019357E+0	9.572459E-1	9.494420E-1	1.005054E+0	9.188135E-1	1.030539E+0
5.430070E+2	1.116938E+0	1.071344E+0	1.051729E+0	1.110459E+0	1.100611E+0	1.125116E+0	1.153040E+0	1.112624E+0	1.102653E+0	1.082296E+0	1.046618E+0	1.119406E+0	1.133283E+0	1.095761E+0	1.122243E+0	1.117823E+0	1.149595E+0	1.094307E+0	1.127827E+0	1.092850E+0	1.121462E+0	1.104530E+0	1.143342E+0	1.121202E+0	1.073727E+0	1.132165E+0	1.082921E+0	1.104813E+0	1.124651E+0	1.081433E+0	1.125778E+0	1.125590E+0	1.115641E+0	1.102407E+0	1.136488E+0	1.080317E+0	1.115630E+0	1.109808E+0	1.073942E+0	1.099809E+0	1.132994E+0	1.105988E+0	1.099762E+0	1.124122E+0	1.082447E+0	1.078289E+0	1.105728E+0	1.103770E+0	1.068600E+0	1.128731E+0	1.130234E+0	1.141350E+0	1.106673E+0	1.082591E+0	1.114003E+0	1.095160E+0	1.203043E+0	1.093149E+0	1.110975E+0	1.063720E+0	1.084792E+0	1.108603E+0	1.059802E+0	1.096412E+0	1.119325E+0	1.088261E+0	1.102966E+0	1.073890E+0	1.083644E+0	1.097002E+0	1.096632E+0	1.119333E+0	1.106481E+0	1.091061E+0	1.078432E+0	1.114923E+0	1.102616E+0	1.087726E+0	1.069255E+0	1.074369E+0	1.089676E+0	1.117496E+0	1.094394E+0	1.101647E+0	1.147053E+0	1.113072E+0	1.138583E+0	1.114765E+0	1.128331E+0	1.081731E+0	1.034744E+0	1.093899E+0	1.094899E+0	1.090257E+0	1.114147E+0	1.099670E+0	1.074952E+0	1.028586E+0	1.102437E+0	1.106087E+0	1.140997E+0	1.072412E+0	1.056010E+0	1.097172E+0	1.088826E+0	1.113546E+0	1.049332E+0	1.041899E+0	1.043776E+0	1.121886E+0	1.054154E+0	1.093521E+0	1.086476E+0	1.079447E+0	1.116001E+0	1.109726E+0	1.122976E+0	1.104305E+0	1.100167E+0	1.121392E+0	1.065434E+0	1.090843E+0	1.105870E+0	1.084170E+0	1.073555E+0	1.146305E+0	1.105913E+0	1.077879E+0	1.155924E+0	1.094023E+0	1.048647E+0	1.133680E+0	1.122487E+0	1.120327E+0	1.109136E+0	1.128164E+0	1.152139E+0	1.123233E+0	1.158062E+0	1.057561E+0	1.092125E+0	1.075093E+0	1.120409E+0	1.098328E+0	1.089092E+0	1.054578E+0	1.104910E+0	1.105518E+0	1.062157E+0	1.078940E+0	1.073188E+0	1.093610E+0	1.131253E+0	1.107788E+0	1.110952E+0	1.100421E+0	1.118457E+0	1.140180E+0	1.119422E+0	1.118547E+0	1.118310E+0	1.134154E+0	1.082511E+0	1.092797E+0	1.104592E+0	1.096279E+0	1.079011E+0	1.106349E+0	1.097107E+0	1.003872E+0	1.210932E+0
5.433020E+2	1.315377E+0	1.290548E+0	1.275534E+0	1.256519E+0	1.236414E+0	1.265313E+0	1.271654E+0	1.264626E+0	1.272208E+0	1.294603E+0	1.233762E+0	1.309891E+0	1.280239E+0	1.267026E+0	1.318191E+0	1.278307E+0	1.336705E+0	1.325914E+0	1.262166E+0	1.263391E+0	1.296497E+0	1.310147E+0	1.258406E+0	1.299002E+0	1.281461E+0	1.324158E+0	1.244655E+0	1.284578E+0	1.285857E+0	1.285332E+0	1.322612E+0	1.276379E+0	1.296328E+0	1.295089E+0	1.288688E+0	1.281586E+0	1.245682E+0	1.268684E+0	1.267285E+0	1.224505E+0	1.273745E+0	1.275113E+0	1.307995E+0	1.304389E+0	1.276593E+0	1.260753E+0	1.323225E+0	1.260575E+0	1.258716E+0	1.274220E+0	1.307411E+0	1.304852E+0	1.257710E+0	1.263064E+0	1.300983E+0	1.255109E+0	1.285865E+0	1.295841E+0	1.275403E+0	1.277334E+0	1.243700E+0	1.253919E+0	1.211565E+0	1.282994E+0	1.320310E+0	1.257968E+0	1.270239E+0	1.301363E+0	1.267020E+0	1.331136E+0	1.288617E+0	1.274535E+0	1.255333E+0	1.260915E+0	1.275068E+0	1.302336E+0	1.220718E+0	1.268729E+0	1.253470E+0	1.242428E+0	1.315241E+0	1.316562E+0	1.217688E+0	1.353143E+0	1.290868E+0	1.308922E+0	1.283000E+0	1.254634E+0	1.283376E+0	1.293916E+0	1.293608E+0	1.290472E+0	1.283689E+0	1.258723E+0	1.234376E+0	1.239369E+0	1.280044E+0	1.224917E+0	1.257007E+0	1.281477E+0	1.262374E+0	1.249823E+0	1.301921E+0	1.226439E+0	1.287717E+0	1.245206E+0	1.243672E+0	1.273598E+0	1.265944E+0	1.261618E+0	1.274361E+0	1.246643E+0	1.284084E+0	1.304869E+0	1.352879E+0	1.254373E+0	1.243538E+0	1.292701E+0	1.289216E+0	1.264653E+0	1.241135E+0	1.273996E+0	1.226453E+0	1.253621E+0	1.202987E+0	1.244784E+0	1.293468E+0	1.234895E+0	1.322699E+0	1.274293E+0	1.284508E+0	1.314324E+0	1.216554E+0	1.263224E+0	1.235297E+0	1.289831E+0	1.255073E+0	1.259302E+0	1.231665E+0	1.213753E+0	1.297668E+0	1.229524E+0	1.219194E+0	1.307768E+0	1.277934E+0	1.258605E+0	1.240564E+0	1.227281E+0	1.252078E+0	1.250229E+0	1.254089E+0	1.276123E+0	1.334285E+0	1.288174E+0	1.234340E+0	1.296675E+0	1.270467E+0	1.279486E+0	1.234238E+0	1.218242E+0	1.231160E+0	1.287955E+0	1.300315E+0	1.261603E+0	1.307385E+0	1.282561E+0	1.281611E+0	1.266207E+0	1.246631E+0	1.193772E+0	1.290135E+0
5.435270E+2	1.448799E+0	1.463084E+0	1.345237E+0	1.405842E+0	1.372899E+0	1.461505E+0	1.385914E+0	1.368249E+0	1.369136E+0	1.424441E+0	1.399043E+0	1.403604E+0	1.417275E+0	1.429544E+0	1.370681E+0	1.407988E+0	1.472127E+0	1.361405E+0	1.433240E+0	1.429548E+0	1.422022E+0	1.433320E+0	1.392604E+0	1.403846E+0	1.396706E+0	1.435142E+0	1.413474E+0	1.402350E+0	1.366933E+0	1.389535E+0	1.421116E+0	1.414005E+0	1.387075E+0	1.420088E+0	1.457074E+0	1.440262E+0	1.377146E+0	1.400079E+0	1.384018E+0	1.373263E+0	1.412023E+0	1.410483E+0	1.416714E+0	1.349783E+0	1.373504E+0	1.414939E+0	1.425405E+0	1.400421E+0	1.406902E+0	1.454312E+0	1.416870E+0	1.425997E+0	1.427813E+0	1.462005E+0	1.467875E+0	1.397959E+0	1.418555E+0	1.435450E+0	1.409034E+0	1.385014E+0	1.445048E+0	1.425566E+0	1.363902E+0	1.405464E+0	1.432634E+0	1.438374E+0	1.410755E+0	1.397278E+0	1.376934E+0	1.419897E+0	1.375761E+0	1.426531E+0	1.414905E+0	1.408708E+0	1.324786E+0	1.443332E+0	1.433209E+0	1.377781E+0	1.410270E+0	1.399586E+0	1.417522E+0	1.369678E+0	1.394056E+0	1.401473E+0	1.454925E+0	1.456070E+0	1.370936E+0	1.384474E+0	1.388792E+0	1.381769E+0	1.397335E+0	1.390890E+0	1.441488E+0	1.397654E+0	1.374258E+0	1.433456E+0	1.430900E+0	1.409068E+0	1.330101E+0	1.445175E+0	1.359077E+0	1.362998E+0	1.407273E+0	1.431883E+0	1.415582E+0	1.390805E+0	1.379458E+0	1.424979E+0	1.376709E+0	1.366581E+0	1.377432E+0	1.337166E+0	1.414379E+0	1.376787E+0	1.454965E+0	1.413495E+0	1.339082E+0	1.378882E+0	1.408423E+0	1.394177E+0	1.417018E+0	1.406589E+0	1.459313E+0	1.378829E+0	1.366046E+0	1.383377E+0	1.390942E+0	1.347482E+0	1.357683E+0	1.368240E+0	1.429143E+0	1.371881E+0	1.366518E+0	1.390781E+0	1.407359E+0	1.369024E+0	1.374462E+0	1.380589E+0	1.370250E+0	1.369887E+0	1.381711E+0	1.378615E+0	1.397628E+0	1.361826E+0	1.409763E+0	1.381941E+0	1.417868E+0	1.395506E+0	1.382820E+0	1.386953E+0	1.391145E+0	1.424213E+0	1.352664E+0	1.421196E+0	1.365943E+0	1.385917E+0	1.404785E+0	1.387365E+0	1.368651E+0	1.357226E+0	1.370391E+0	1.417154E+0	1.420033E+0	1.324347E+0	1.402140E+0	1.381015E+0	1.425830E+0	1.439433E+0	1.325748E+0	1.378529E+0	1.425867E+0
5.437690E+2	1.526879E+0	1.526907E+0	1.554671E+0	1.520109E+0	1.460383E+0	1.564342E+0	1.545496E+0	1.516876E+0	1.469947E+0	1.586391E+0	1.475431E+0	1.515444E+0	1.563384E+0	1.594797E+0	1.517705E+0	1.529040E+0	1.519586E+0	1.594809E+0	1.501014E+0	1.520255E+0	1.467917E+0	1.546036E+0	1.475134E+0	1.523583E+0	1.486395E+0	1.550603E+0	1.483989E+0	1.513380E+0	1.510369E+0	1.574997E+0	1.526880E+0	1.505072E+0	1.553766E+0	1.503522E+0	1.499105E+0	1.575704E+0	1.467154E+0	1.506233E+0	1.538704E+0	1.493577E+0	1.429630E+0	1.474152E+0	1.511081E+0	1.518629E+0	1.529727E+0	1.529070E+0	1.518030E+0	1.502985E+0	1.518974E+0	1.477385E+0	1.542788E+0	1.523894E+0	1.459941E+0	1.500195E+0	1.501426E+0	1.480685E+0	1.470905E+0	1.495601E+0	1.501140E+0	1.531045E+0	1.474163E+0	1.482021E+0	1.456271E+0	1.545166E+0	1.524909E+0	1.470222E+0	1.503399E+0	1.518369E+0	1.458766E+0	1.489258E+0	1.528227E+0	1.534956E+0	1.558548E+0	1.521603E+0	1.418361E+0	1.549598E+0	1.508816E+0	1.520192E+0	1.434306E+0	1.542941E+0	1.497428E+0	1.530921E+0	1.514104E+0	1.503467E+0	1.539513E+0	1.506464E+0	1.536430E+0	1.530900E+0	1.496380E+0	1.526562E+0	1.524953E+0	1.511379E+0	1.527003E+0	1.515872E+0	1.513429E+0	1.440821E+0	1.517642E+0	1.478490E+0	1.488524E+0	1.535947E+0	1.518532E+0	1.478430E+0	1.496604E+0	1.488600E+0	1.467546E+0	1.508612E+0	1.474279E+0	1.453771E+0	1.523814E+0	1.538355E+0	1.549031E+0	1.490399E+0	1.499788E+0	1.456335E+0	1.587392E+0	1.477472E+0	1.497300E+0	1.469686E+0	1.537738E+0	1.490359E+0	1.474694E+0	1.430598E+0	1.542528E+0	1.490368E+0	1.463258E+0	1.465878E+0	1.466685E+0	1.438854E+0	1.490270E+0	1.576363E+0	1.478673E+0	1.451692E+0	1.460446E+0	1.514377E+0	1.498798E+0	1.530819E+0	1.527690E+0	1.475146E+0	1.539197E+0	1.494510E+0	1.491859E+0	1.449704E+0	1.527258E+0	1.502306E+0	1.483062E+0	1.485123E+0	1.526112E+0	1.475834E+0	1.460237E+0	1.447963E+0	1.529788E+0	1.525937E+0	1.498479E+0	1.473611E+0	1.486384E+0	1.554122E+0	1.528910E+0	1.478154E+0	1.510245E+0	1.482704E+0	1.426648E+0	1.480682E+0	1.440374E+0	1.509173E+0	1.546501E+0	1.460220E+0	1.507714E+0	1.482938E+0	1.493288E+0	1.418991E+0	1.488047E+0
5.440170E+2	1.656111E+0	1.530950E+0	1.572381E+0	1.622392E+0	1.560082E+0	1.585279E+0	1.498742E+0	1.616202E+0	1.613304E+0	1.537320E+0	1.586884E+0	1.624435E+0	1.539015E+0	1.588993E+0	1.581755E+0	1.576220E+0	1.582559E+0	1.578992E+0	1.573537E+0	1.561332E+0	1.521262E+0	1.572148E+0	1.602180E+0	1.550947E+0	1.562183E+0	1.633525E+0	1.557552E+0	1.598354E+0	1.618514E+0	1.571613E+0	1.580084E+0	1.541865E+0	1.555542E+0	1.574098E+0	1.634428E+0	1.530348E+0	1.564628E+0	1.594054E+0	1.589936E+0	1.518247E+0	1.530713E+0	1.621319E+0	1.548513E+0	1.575342E+0	1.615275E+0	1.537679E+0	1.557483E+0	1.515165E+0	1.567476E+0	1.570481E+0	1.587527E+0	1.595179E+0	1.536621E+0	1.557262E+0	1.604078E+0	1.602193E+0	1.522365E+0	1.559615E+0	1.581967E+0	1.498814E+0	1.540812E+0	1.590708E+0	1.580108E+0	1.543360E+0	1.576855E+0	1.569144E+0	1.601551E+0	1.525309E+0	1.529836E+0	1.529073E+0	1.585107E+0	1.576110E+0	1.571975E+0	1.594702E+0	1.551268E+0	1.606551E+0	1.528806E+0	1.577209E+0	1.534616E+0	1.527391E+0	1.576543E+0	1.563402E+0	1.517549E+0	1.611890E+0	1.499439E+0	1.578606E+0	1.555614E+0	1.595155E+0	1.471607E+0	1.503030E+0	1.518076E+0	1.584343E+0	1.524144E+0	1.512264E+0	1.549493E+0	1.536779E+0	1.549345E+0	1.520610E+0	1.572395E+0	1.508408E+0	1.596871E+0	1.531973E+0	1.601162E+0	1.539466E+0	1.483473E+0	1.557497E+0	1.520877E+0	1.535365E+0	1.523489E+0	1.525546E+0	1.569598E+0	1.539910E+0	1.595354E+0	1.556543E+0	1.564772E+0	1.532047E+0	1.514736E+0	1.553956E+0	1.590904E+0	1.561605E+0	1.592114E+0	1.497284E+0	1.530607E+0	1.545785E+0	1.519980E+0	1.539504E+0	1.511527E+0	1.478681E+0	1.551477E+0	1.562145E+0	1.563100E+0	1.548029E+0	1.532437E+0	1.547764E+0	1.530587E+0	1.598143E+0	1.567560E+0	1.551740E+0	1.540810E+0	1.542178E+0	1.524020E+0	1.564908E+0	1.537164E+0	1.542029E+0	1.552722E+0	1.508256E+0	1.491014E+0	1.556986E+0	1.512577E+0	1.538892E+0	1.561654E+0	1.504893E+0	1.504265E+0	1.515512E+0	1.578983E+0	1.612704E+0	1.474661E+0	1.516364E+0	1.539392E+0	1.558372E+0	1.510799E+0	1.505139E+0	1.495928E+0	1.533399E+0	1.546612E+0	1.466439E+0	1.544559E+0	1.527260E+0	1.581986E+0	1.514045E+0	1.492699E+0
5.442810E+2	1.527029E+0	1.564885E+0	1.540459E+0	1.615368E+0	1.587516E+0	1.577286E+0	1.579467E+0	1.556983E+0	1.603910E+0	1.622090E+0	1.501581E+0	1.557867E+0	1.544022E+0	1.584065E+0	1.542490E+0	1.557180E+0	1.604050E+0	1.532473E+0	1.533885E+0	1.551648E+0	1.565652E+0	1.571268E+0	1.593826E+0	1.557659E+0	1.548698E+0	1.590533E+0	1.561892E+0	1.572303E+0	1.547072E+0	1.595067E+0	1.542394E+0	1.560614E+0	1.595400E+0	1.605018E+0	1.646511E+0	1.534186E+0	1.537779E+0	1.566721E+0	1.543750E+0	1.538761E+0	1.492631E+0	1.534633E+0	1.562269E+0	1.547046E+0	1.556168E+0	1.535533E+0	1.596359E+0	1.582787E+0	1.557336E+0	1.551499E+0	1.581503E+0	1.534646E+0	1.553697E+0	1.545924E+0	1.608897E+0	1.558880E+0	1.545044E+0	1.493331E+0	1.486386E+0	1.540096E+0	1.537235E+0	1.525669E+0	1.559423E+0	1.554305E+0	1.563271E+0	1.548999E+0	1.590742E+0	1.537406E+0	1.544329E+0	1.555878E+0	1.550131E+0	1.584961E+0	1.547863E+0	1.573812E+0	1.540795E+0	1.587073E+0	1.529770E+0	1.563585E+0	1.492089E+0	1.516429E+0	1.555091E+0	1.591353E+0	1.525203E+0	1.574613E+0	1.485628E+0	1.547257E+0	1.562755E+0	1.579780E+0	1.535689E+0	1.558644E+0	1.535438E+0	1.571002E+0	1.543563E+0	1.542402E+0	1.563123E+0	1.521401E+0	1.516329E+0	1.534071E+0	1.588881E+0	1.505701E+0	1.568332E+0	1.512411E+0	1.533359E+0	1.581426E+0	1.492078E+0	1.588615E+0	1.589564E+0	1.514264E+0	1.512947E+0	1.509291E+0	1.500889E+0	1.493795E+0	1.529353E+0	1.558520E+0	1.526134E+0	1.526991E+0	1.577493E+0	1.496970E+0	1.497372E+0	1.559240E+0	1.510273E+0	1.552783E+0	1.568213E+0	1.555565E+0	1.571339E+0	1.513098E+0	1.535688E+0	1.528471E+0	1.570598E+0	1.499389E+0	1.573935E+0	1.558085E+0	1.533525E+0	1.509895E+0	1.531730E+0	1.554271E+0	1.493178E+0	1.553490E+0	1.519108E+0	1.564302E+0	1.526331E+0	1.544015E+0	1.578772E+0	1.520140E+0	1.527902E+0	1.505880E+0	1.507579E+0	1.549826E+0	1.522542E+0	1.566576E+0	1.529305E+0	1.512357E+0	1.585456E+0	1.588892E+0	1.534584E+0	1.536880E+0	1.520183E+0	1.524245E+0	1.486466E+0	1.489939E+0	1.549611E+0	1.586392E+0	1.534477E+0	1.505304E+0	1.548201E+0	1.472068E+0	1.515350E+0	1.538646E+0	1.559240E+0	1.528923E+0	1.527940E+0
5.445240E+2	1.515481E+0	1.541044E+0	1.472739E+0	1.493148E+0	1.514697E+0	1.557402E+0	1.537828E+0	1.516012E+0	1.542674E+0	1.469489E+0	1.477204E+0	1.504178E+0	1.459268E+0	1.575230E+0	1.542924E+0	1.496736E+0	1.498158E+0	1.467222E+0	1.522963E+0	1.534295E+0	1.465248E+0	1.509278E+0	1.522610E+0	1.529515E+0	1.515858E+0	1.522796E+0	1.471074E+0	1.491198E+0	1.456871E+0	1.501518E+0	1.487041E+0	1.483226E+0	1.507872E+0	1.523017E+0	1.578669E+0	1.535974E+0	1.522026E+0	1.516889E+0	1.525805E+0	1.498140E+0	1.527251E+0	1.474929E+0	1.510540E+0	1.521690E+0	1.469917E+0	1.523656E+0	1.483768E+0	1.500259E+0	1.538033E+0	1.516046E+0	1.457450E+0	1.511242E+0	1.516608E+0	1.548844E+0	1.533415E+0	1.453566E+0	1.555801E+0	1.535142E+0	1.457508E+0	1.498509E+0	1.498847E+0	1.497622E+0	1.465426E+0	1.514778E+0	1.523801E+0	1.520464E+0	1.565787E+0	1.523244E+0	1.493796E+0	1.471619E+0	1.483792E+0	1.495739E+0	1.474947E+0	1.498866E+0	1.431503E+0	1.531045E+0	1.533887E+0	1.496191E+0	1.459851E+0	1.507202E+0	1.549570E+0	1.467372E+0	1.488549E+0	1.505095E+0	1.460372E+0	1.544595E+0	1.509683E+0	1.492122E+0	1.451696E+0	1.499219E+0	1.492887E+0	1.530323E+0	1.522611E+0	1.489562E+0	1.541566E+0	1.538615E+0	1.482603E+0	1.457186E+0	1.541638E+0	1.454597E+0	1.448323E+0	1.509928E+0	1.462744E+0	1.555501E+0	1.499129E+0	1.499795E+0	1.467539E+0	1.472118E+0	1.524817E+0	1.479896E+0	1.479053E+0	1.445629E+0	1.451360E+0	1.522976E+0	1.493504E+0	1.510384E+0	1.448643E+0	1.504642E+0	1.522172E+0	1.439663E+0	1.470237E+0	1.515032E+0	1.497304E+0	1.493920E+0	1.522128E+0	1.454168E+0	1.498282E+0	1.472805E+0	1.484680E+0	1.502009E+0	1.501686E+0	1.457217E+0	1.470246E+0	1.542600E+0	1.541087E+0	1.494659E+0	1.488201E+0	1.459774E+0	1.471458E+0	1.500445E+0	1.491950E+0	1.462983E+0	1.455014E+0	1.470003E+0	1.444196E+0	1.474888E+0	1.500581E+0	1.504788E+0	1.459021E+0	1.520562E+0	1.423234E+0	1.491153E+0	1.450304E+0	1.537460E+0	1.504327E+0	1.490363E+0	1.500992E+0	1.474378E+0	1.474786E+0	1.501722E+0	1.431170E+0	1.485171E+0	1.470331E+0	1.452057E+0	1.508072E+0	1.544498E+0	1.468317E+0	1.501276E+0	1.478892E+0	1.512402E+0	1.481879E+0
5.447720E+2	1.431097E+0	1.479130E+0	1.434560E+0	1.443826E+0	1.432035E+0	1.496100E+0	1.420921E+0	1.427273E+0	1.455080E+0	1.449213E+0	1.424115E+0	1.402339E+0	1.356773E+0	1.411129E+0	1.402675E+0	1.446353E+0	1.506982E+0	1.419590E+0	1.440594E+0	1.439446E+0	1.462273E+0	1.431769E+0	1.424338E+0	1.429560E+0	1.420488E+0	1.423644E+0	1.421081E+0	1.412303E+0	1.417632E+0	1.380907E+0	1.369405E+0	1.417903E+0	1.463613E+0	1.454002E+0	1.436664E+0	1.459031E+0	1.444634E+0	1.441392E+0	1.385532E+0	1.463504E+0	1.425441E+0	1.412310E+0	1.423564E+0	1.404586E+0	1.430394E+0	1.433196E+0	1.405345E+0	1.452410E+0	1.454785E+0	1.439769E+0	1.479233E+0	1.421165E+0	1.380313E+0	1.388743E+0	1.447681E+0	1.455208E+0	1.408934E+0	1.369654E+0	1.429934E+0	1.377331E+0	1.422707E+0	1.389154E+0	1.421796E+0	1.401023E+0	1.389899E+0	1.433030E+0	1.472658E+0	1.447146E+0	1.419116E+0	1.463771E+0	1.424071E+0	1.488513E+0	1.404726E+0	1.389986E+0	1.353067E+0	1.395308E+0	1.402354E+0	1.422802E+0	1.406008E+0	1.385366E+0	1.436398E+0	1.409119E+0	1.451481E+0	1.436775E+0	1.429706E+0	1.388753E+0	1.419950E+0	1.397016E+0	1.432306E+0	1.390423E+0	1.409881E+0	1.411888E+0	1.403599E+0	1.383531E+0	1.414611E+0	1.413261E+0	1.400960E+0	1.400942E+0	1.411901E+0	1.413739E+0	1.412032E+0	1.371977E+0	1.437445E+0	1.422429E+0	1.404940E+0	1.419910E+0	1.380036E+0	1.445082E+0	1.399957E+0	1.440967E+0	1.407209E+0	1.397699E+0	1.405588E+0	1.376591E+0	1.470320E+0	1.450937E+0	1.377675E+0	1.372844E+0	1.412740E+0	1.434141E+0	1.422918E+0	1.436482E+0	1.441292E+0	1.435035E+0	1.435801E+0	1.399439E+0	1.407368E+0	1.391488E+0	1.394183E+0	1.411118E+0	1.358550E+0	1.431970E+0	1.399924E+0	1.413625E+0	1.432045E+0	1.425556E+0	1.394398E+0	1.394923E+0	1.400153E+0	1.375028E+0	1.427867E+0	1.412028E+0	1.401252E+0	1.412440E+0	1.404237E+0	1.416154E+0	1.395875E+0	1.366577E+0	1.371886E+0	1.498956E+0	1.440299E+0	1.422100E+0	1.373639E+0	1.433985E+0	1.394220E+0	1.502142E+0	1.384300E+0	1.335600E+0	1.437829E+0	1.334676E+0	1.361624E+0	1.457906E+0	1.356389E+0	1.331250E+0	1.431049E+0	1.434821E+0	1.427904E+0	1.471232E+0	1.405752E+0	1.476551E+0	1.465857E+0
5.450150E+2	1.346027E+0	1.347456E+0	1.338265E+0	1.368091E+0	1.328599E+0	1.339278E+0	1.318172E+0	1.350782E+0	1.334079E+0	1.357807E+0	1.317273E+0	1.338221E+0	1.306618E+0	1.314469E+0	1.370043E+0	1.326981E+0	1.349405E+0	1.353663E+0	1.349133E+0	1.358848E+0	1.423556E+0	1.361955E+0	1.402713E+0	1.350217E+0	1.310393E+0	1.395652E+0	1.365666E+0	1.346117E+0	1.334812E+0	1.317911E+0	1.362270E+0	1.371907E+0	1.334861E+0	1.371017E+0	1.321441E+0	1.344367E+0	1.291943E+0	1.404002E+0	1.412418E+0	1.345907E+0	1.277844E+0	1.372228E+0	1.311179E+0	1.341972E+0	1.331576E+0	1.327594E+0	1.398174E+0	1.375465E+0	1.366786E+0	1.403411E+0	1.379712E+0	1.356308E+0	1.379258E+0	1.324187E+0	1.343834E+0	1.350602E+0	1.361126E+0	1.372505E+0	1.349022E+0	1.286510E+0	1.336659E+0	1.323444E+0	1.321966E+0	1.326771E+0	1.343138E+0	1.328354E+0	1.354535E+0	1.355563E+0	1.304320E+0	1.349071E+0	1.343030E+0	1.369054E+0	1.320673E+0	1.340523E+0	1.340476E+0	1.375865E+0	1.370393E+0	1.298493E+0	1.375699E+0	1.395065E+0	1.389340E+0	1.383568E+0	1.364471E+0	1.356973E+0	1.310025E+0	1.326849E+0	1.369515E+0	1.306350E+0	1.330009E+0	1.346113E+0	1.316152E+0	1.409533E+0	1.340533E+0	1.318802E+0	1.373514E+0	1.323136E+0	1.359162E+0	1.302793E+0	1.377234E+0	1.386261E+0	1.320929E+0	1.323052E+0	1.405680E+0	1.313529E+0	1.320135E+0	1.337397E+0	1.316534E+0	1.302845E+0	1.377845E+0	1.350618E+0	1.337827E+0	1.340371E+0	1.269101E+0	1.293146E+0	1.281688E+0	1.311935E+0	1.301674E+0	1.327206E+0	1.322495E+0	1.331624E+0	1.347940E+0	1.360062E+0	1.319056E+0	1.351346E+0	1.321176E+0	1.359698E+0	1.304132E+0	1.326197E+0	1.337174E+0	1.343160E+0	1.383488E+0	1.314420E+0	1.307098E+0	1.335468E+0	1.367206E+0	1.349732E+0	1.341155E+0	1.349422E+0	1.342633E+0	1.311295E+0	1.312611E+0	1.300772E+0	1.347522E+0	1.321970E+0	1.341892E+0	1.307930E+0	1.302871E+0	1.348665E+0	1.295444E+0	1.341526E+0	1.354852E+0	1.346694E+0	1.342452E+0	1.324353E+0	1.287164E+0	1.340622E+0	1.318108E+0	1.277390E+0	1.315581E+0	1.302674E+0	1.291488E+0	1.364754E+0	1.325075E+0	1.359594E+0	1.318441E+0	1.330083E+0	1.362638E+0	1.356725E+0	1.355893E+0	1.364065E+0	1.373645E+0
5.452800E+2	1.286199E+0	1.271238E+0	1.272037E+0	1.247062E+0	1.248903E+0	1.325105E+0	1.282480E+0	1.237007E+0	1.293329E+0	1.248134E+0	1.266856E+0	1.312275E+0	1.290563E+0	1.266462E+0	1.222960E+0	1.236114E+0	1.325028E+0	1.261622E+0	1.277501E+0	1.217510E+0	1.271635E+0	1.290662E+0	1.300833E+0	1.252698E+0	1.239085E+0	1.274752E+0	1.275890E+0	1.308886E+0	1.252214E+0	1.272358E+0	1.216050E+0	1.273955E+0	1.283889E+0	1.227692E+0	1.277893E+0	1.312397E+0	1.268994E+0	1.296885E+0	1.289702E+0	1.300389E+0	1.287190E+0	1.266758E+0	1.279662E+0	1.229422E+0	1.248376E+0	1.255263E+0	1.284873E+0	1.283314E+0	1.239409E+0	1.254183E+0	1.281453E+0	1.320655E+0	1.288093E+0	1.297617E+0	1.271030E+0	1.233797E+0	1.270877E+0	1.266831E+0	1.217177E+0	1.292663E+0	1.261686E+0	1.270269E+0	1.176937E+0	1.233866E+0	1.348529E+0	1.289847E+0	1.263544E+0	1.285350E+0	1.257924E+0	1.272763E+0	1.281928E+0	1.293170E+0	1.255598E+0	1.256603E+0	1.275260E+0	1.323086E+0	1.294673E+0	1.278728E+0	1.226079E+0	1.250448E+0	1.276015E+0	1.273288E+0	1.285952E+0	1.319691E+0	1.263777E+0	1.265654E+0	1.229610E+0	1.261052E+0	1.258976E+0	1.297292E+0	1.261985E+0	1.273354E+0	1.214866E+0	1.247025E+0	1.289373E+0	1.259456E+0	1.250453E+0	1.204449E+0	1.242209E+0	1.331752E+0	1.228029E+0	1.239258E+0	1.324964E+0	1.310302E+0	1.220969E+0	1.225405E+0	1.282215E+0	1.256908E+0	1.206684E+0	1.297953E+0	1.210192E+0	1.266891E+0	1.294678E+0	1.269642E+0	1.269104E+0	1.304499E+0	1.234525E+0	1.285599E+0	1.228162E+0	1.285670E+0	1.254570E+0	1.248502E+0	1.258632E+0	1.243995E+0	1.232997E+0	1.256787E+0	1.235453E+0	1.245717E+0	1.290182E+0	1.219805E+0	1.313173E+0	1.307449E+0	1.282762E+0	1.284883E+0	1.275891E+0	1.322670E+0	1.249892E+0	1.230565E+0	1.221824E+0	1.256672E+0	1.252304E+0	1.247921E+0	1.207884E+0	1.282695E+0	1.240702E+0	1.256527E+0	1.196230E+0	1.234425E+0	1.256954E+0	1.277575E+0	1.305917E+0	1.303810E+0	1.205659E+0	1.278665E+0	1.286831E+0	1.270952E+0	1.249659E+0	1.265107E+0	1.236474E+0	1.214056E+0	1.241106E+0	1.217577E+0	1.287121E+0	1.265843E+0	1.253133E+0	1.265436E+0	1.293007E+0	1.261959E+0	1.278984E+0	1.250608E+0	1.211722E+0
5.455500E+2	1.226626E+0	1.192407E+0	1.252311E+0	1.233128E+0	1.232837E+0	1.238009E+0	1.249983E+0	1.222543E+0	1.220194E+0	1.189727E+0	1.185647E+0	1.250119E+0	1.199408E+0	1.233876E+0	1.220542E+0	1.251411E+0	1.224217E+0	1.216403E+0	1.253015E+0	1.217441E+0	1.206615E+0	1.224406E+0	1.258712E+0	1.232628E+0	1.213196E+0	1.247781E+0	1.198223E+0	1.231974E+0	1.244049E+0	1.206726E+0	1.248139E+0	1.178856E+0	1.244473E+0	1.241878E+0	1.246921E+0	1.227542E+0	1.251025E+0	1.293428E+0	1.238807E+0	1.234456E+0	1.203694E+0	1.256848E+0	1.213760E+0	1.286297E+0	1.258213E+0	1.220021E+0	1.209970E+0	1.240865E+0	1.269810E+0	1.257655E+0	1.241952E+0	1.269384E+0	1.215868E+0	1.211490E+0	1.214938E+0	1.232979E+0	1.203289E+0	1.226288E+0	1.179841E+0	1.197664E+0	1.228388E+0	1.197534E+0	1.232994E+0	1.194823E+0	1.208816E+0	1.235594E+0	1.246302E+0	1.235883E+0	1.238770E+0	1.243217E+0	1.234331E+0	1.240647E+0	1.227006E+0	1.223353E+0	1.131022E+0	1.258647E+0	1.250593E+0	1.236641E+0	1.194787E+0	1.213221E+0	1.191469E+0	1.210381E+0	1.216607E+0	1.192998E+0	1.222423E+0	1.240955E+0	1.227579E+0	1.245043E+0	1.188090E+0	1.223294E+0	1.224445E+0	1.231075E+0	1.201436E+0	1.243670E+0	1.194319E+0	1.198036E+0	1.235276E+0	1.189992E+0	1.211812E+0	1.254825E+0	1.193702E+0	1.202588E+0	1.233868E+0	1.226817E+0	1.181853E+0	1.237790E+0	1.244408E+0	1.232848E+0	1.230985E+0	1.273512E+0	1.228393E+0	1.238901E+0	1.249002E+0	1.255530E+0	1.202953E+0	1.179963E+0	1.185495E+0	1.249884E+0	1.252237E+0	1.156229E+0	1.182160E+0	1.172900E+0	1.198357E+0	1.225412E+0	1.207107E+0	1.231115E+0	1.235762E+0	1.213938E+0	1.211060E+0	1.194183E+0	1.165634E+0	1.192937E+0	1.199192E+0	1.223879E+0	1.297424E+0	1.212960E+0	1.186692E+0	1.201391E+0	1.198380E+0	1.223082E+0	1.220089E+0	1.221704E+0	1.202339E+0	1.181395E+0	1.190301E+0	1.197730E+0	1.187229E+0	1.252576E+0	1.202149E+0	1.251755E+0	1.203834E+0	1.243537E+0	1.193067E+0	1.234299E+0	1.241303E+0	1.219698E+0	1.209560E+0	1.159346E+0	1.204359E+0	1.190690E+0	1.139544E+0	1.221461E+0	1.178765E+0	1.179002E+0	1.219692E+0	1.193569E+0	1.228519E+0	1.186682E+0	1.209163E+0	1.225046E+0	1.307880E+0
5.457720E+2	1.171744E+0	1.189406E+0	1.223400E+0	1.169256E+0	1.170537E+0	1.221565E+0	1.203380E+0	1.188698E+0	1.216302E+0	1.135284E+0	1.142777E+0	1.144124E+0	1.175587E+0	1.160308E+0	1.155123E+0	1.184793E+0	1.211194E+0	1.184316E+0	1.206538E+0	1.158964E+0	1.215900E+0	1.155153E+0	1.236403E+0	1.134117E+0	1.168748E+0	1.162145E+0	1.161885E+0	1.155085E+0	1.174374E+0	1.215194E+0	1.201409E+0	1.212755E+0	1.205919E+0	1.183683E+0	1.158367E+0	1.212350E+0	1.156128E+0	1.165208E+0	1.194104E+0	1.210782E+0	1.213248E+0	1.207325E+0	1.152678E+0	1.167100E+0	1.172196E+0	1.160755E+0	1.234635E+0	1.171188E+0	1.154283E+0	1.186757E+0	1.252328E+0	1.202352E+0	1.187241E+0	1.196860E+0	1.208228E+0	1.191410E+0	1.155935E+0	1.161392E+0	1.141407E+0	1.165416E+0	1.209834E+0	1.197180E+0	1.184416E+0	1.160208E+0	1.155978E+0	1.146791E+0	1.238410E+0	1.140477E+0	1.166990E+0	1.145447E+0	1.208357E+0	1.130890E+0	1.154936E+0	1.180153E+0	1.171683E+0	1.198419E+0	1.145040E+0	1.169676E+0	1.165878E+0	1.176995E+0	1.154525E+0	1.209367E+0	1.159945E+0	1.201480E+0	1.172284E+0	1.165476E+0	1.189410E+0	1.200913E+0	1.153643E+0	1.191292E+0	1.175894E+0	1.199619E+0	1.146214E+0	1.194090E+0	1.197381E+0	1.208614E+0	1.180654E+0	1.168176E+0	1.238603E+0	1.231455E+0	1.141663E+0	1.129333E+0	1.169393E+0	1.225039E+0	1.157464E+0	1.150435E+0	1.110918E+0	1.170238E+0	1.179478E+0	1.161057E+0	1.187998E+0	1.165819E+0	1.157302E+0	1.175977E+0	1.150929E+0	1.146525E+0	1.192639E+0	1.134597E+0	1.238659E+0	1.166941E+0	1.165028E+0	1.161588E+0	1.142979E+0	1.173530E+0	1.160891E+0	1.171057E+0	1.168921E+0	1.154505E+0	1.174498E+0	1.145578E+0	1.203841E+0	1.156819E+0	1.156984E+0	1.225675E+0	1.161640E+0	1.209134E+0	1.218875E+0	1.201957E+0	1.173153E+0	1.171592E+0	1.168955E+0	1.189629E+0	1.159023E+0	1.185777E+0	1.166027E+0	1.155721E+0	1.205949E+0	1.153858E+0	1.151785E+0	1.163714E+0	1.153654E+0	1.181483E+0	1.132702E+0	1.151108E+0	1.120747E+0	1.200650E+0	1.211899E+0	1.166700E+0	1.173860E+0	1.165654E+0	1.173198E+0	1.209143E+0	1.211436E+0	1.161676E+0	1.180845E+0	1.175284E+0	1.182156E+0	1.139742E+0	1.138820E+0	1.198689E+0	1.199351E+0
5.460160E+2	1.087399E+0	1.102392E+0	1.173395E+0	1.176124E+0	1.088942E+0	1.140952E+0	1.218244E+0	1.183054E+0	1.204779E+0	1.131175E+0	1.177838E+0	1.158763E+0	1.163478E+0	1.159641E+0	1.165618E+0	1.133046E+0	1.147807E+0	1.190551E+0	1.153230E+0	1.142406E+0	1.172777E+0	1.203208E+0	1.183203E+0	1.157584E+0	1.121117E+0	1.171310E+0	1.127362E+0	1.142887E+0	1.146384E+0	1.155193E+0	1.160782E+0	1.119208E+0	1.157550E+0	1.142070E+0	1.168296E+0	1.115510E+0	1.106340E+0	1.116075E+0	1.195404E+0	1.157228E+0	1.134556E+0	1.181020E+0	1.193495E+0	1.156722E+0	1.136973E+0	1.170157E+0	1.139370E+0	1.135018E+0	1.131404E+0	1.154118E+0	1.159820E+0	1.148982E+0	1.160827E+0	1.141388E+0	1.198571E+0	1.176323E+0	1.192385E+0	1.167264E+0	1.122463E+0	1.171032E+0	1.155689E+0	1.124257E+0	1.146838E+0	1.174982E+0	1.144721E+0	1.136867E+0	1.170052E+0	1.118875E+0	1.104884E+0	1.097579E+0	1.157592E+0	1.153603E+0	1.123140E+0	1.143633E+0	1.162222E+0	1.160854E+0	1.113929E+0	1.152155E+0	1.131616E+0	1.152913E+0	1.204013E+0	1.146816E+0	1.157880E+0	1.188242E+0	1.127071E+0	1.143063E+0	1.156332E+0	1.122295E+0	1.140906E+0	1.123914E+0	1.172247E+0	1.161681E+0	1.137058E+0	1.196949E+0	1.110951E+0	1.167580E+0	1.130704E+0	1.095568E+0	1.128675E+0	1.126282E+0	1.127015E+0	1.138151E+0	1.175561E+0	1.151087E+0	1.104831E+0	1.117174E+0	1.140091E+0	1.119192E+0	1.119311E+0	1.168436E+0	1.177474E+0	1.133001E+0	1.130530E+0	1.157293E+0	1.160427E+0	1.154257E+0	1.135663E+0	1.171743E+0	1.149074E+0	1.177519E+0	1.146269E+0	1.133957E+0	1.103503E+0	1.145298E+0	1.115796E+0	1.194183E+0	1.145122E+0	1.164978E+0	1.166035E+0	1.113894E+0	1.118512E+0	1.189073E+0	1.150249E+0	1.156129E+0	1.168667E+0	1.160714E+0	1.111236E+0	1.148066E+0	1.137891E+0	1.145045E+0	1.165171E+0	1.129228E+0	1.156816E+0	1.152031E+0	1.149115E+0	1.098175E+0	1.159084E+0	1.154092E+0	1.109459E+0	1.152576E+0	1.162950E+0	1.199644E+0	1.156080E+0	1.156174E+0	1.135035E+0	1.186959E+0	1.146994E+0	1.106450E+0	1.187808E+0	1.117503E+0	1.141307E+0	1.190695E+0	1.158095E+0	1.148804E+0	1.148145E+0	1.098481E+0	1.133430E+0	1.150632E+0	1.111227E+0	1.174237E+0	1.141248E+0
5.467710E+2	1.225507E+0	1.169319E+0	1.216039E+0	1.218335E+0	1.216639E+0	1.254095E+0	1.250292E+0	1.234436E+0	1.253264E+0	1.178404E+0	1.218460E+0	1.213172E+0	1.185126E+0	1.205119E+0	1.200264E+0	1.249729E+0	1.260547E+0	1.230199E+0	1.214157E+0	1.222127E+0	1.236416E+0	1.187682E+0	1.185104E+0	1.201214E+0	1.149744E+0	1.167507E+0	1.210613E+0	1.222808E+0	1.213797E+0	1.170794E+0	1.258538E+0	1.249178E+0	1.181495E+0	1.229008E+0	1.211998E+0	1.220225E+0	1.129248E+0	1.181955E+0	1.236495E+0	1.228899E+0	1.207852E+0	1.190313E+0	1.175545E+0	1.199458E+0	1.224902E+0	1.250185E+0	1.200745E+0	1.261190E+0	1.219904E+0	1.204020E+0	1.186982E+0	1.205969E+0	1.166995E+0	1.239457E+0	1.250535E+0	1.207130E+0	1.248010E+0	1.102421E+0	1.203956E+0	1.185187E+0	1.189287E+0	1.185974E+0	1.213643E+0	1.180028E+0	1.247274E+0	1.177102E+0	1.224301E+0	1.190900E+0	1.180952E+0	1.222857E+0	1.205723E+0	1.217523E+0	1.171770E+0	1.250702E+0	1.177944E+0	1.159012E+0	1.225995E+0	1.177871E+0	1.151644E+0	1.198958E+0	1.240587E+0	1.166541E+0	1.185059E+0	1.165805E+0	1.226155E+0	1.218075E+0	1.216370E+0	1.217008E+0	1.200321E+0	1.250980E+0	1.187524E+0	1.232882E+0	1.236080E+0	1.188226E+0	1.219284E+0	1.216772E+0	1.216304E+0	1.171331E+0	1.191477E+0	1.179419E+0	1.175848E+0	1.182443E+0	1.217917E+0	1.222512E+0	1.198872E+0	1.209534E+0	1.213753E+0	1.252377E+0	1.144544E+0	1.212819E+0	1.211161E+0	1.227887E+0	1.165780E+0	1.188870E+0	1.211046E+0	1.182712E+0	1.233031E+0	1.244412E+0	1.259997E+0	1.176300E+0	1.205124E+0	1.171417E+0	1.247287E+0	1.175210E+0	1.185063E+0	1.145762E+0	1.200092E+0	1.155298E+0	1.204412E+0	1.159898E+0	1.225241E+0	1.201832E+0	1.202143E+0	1.194621E+0	1.261204E+0	1.183498E+0	1.242718E+0	1.175782E+0	1.141053E+0	1.176599E+0	1.206350E+0	1.170944E+0	1.213935E+0	1.151518E+0	1.237945E+0	1.196879E+0	1.180161E+0	1.227169E+0	1.125075E+0	1.203343E+0	1.202300E+0	1.220282E+0	1.240313E+0	1.192246E+0	1.210598E+0	1.242160E+0	1.171391E+0	1.234434E+0	1.150311E+0	1.132602E+0	1.170497E+0	1.184857E+0	1.234115E+0	1.184468E+0	1.179137E+0	1.162354E+0	1.240204E+0	1.147219E+0	1.167330E+0	1.147654E+0	1.300777E+0
5.475230E+2	1.310008E+0	1.370343E+0	1.317165E+0	1.287449E+0	1.284301E+0	1.361395E+0	1.307433E+0	1.276916E+0	1.321369E+0	1.271749E+0	1.335447E+0	1.319996E+0	1.308363E+0	1.322205E+0	1.289851E+0	1.276128E+0	1.297648E+0	1.332209E+0	1.295373E+0	1.315566E+0	1.350169E+0	1.312678E+0	1.364507E+0	1.327708E+0	1.313269E+0	1.336965E+0	1.343922E+0	1.304671E+0	1.301820E+0	1.284567E+0	1.367700E+0	1.345120E+0	1.314676E+0	1.295724E+0	1.292638E+0	1.342547E+0	1.312483E+0	1.366859E+0	1.375672E+0	1.347105E+0	1.303496E+0	1.320640E+0	1.345514E+0	1.311475E+0	1.338506E+0	1.342785E+0	1.307913E+0	1.370125E+0	1.316694E+0	1.306815E+0	1.325351E+0	1.343804E+0	1.378845E+0	1.337500E+0	1.356176E+0	1.298828E+0	1.268385E+0	1.320555E+0	1.316983E+0	1.289703E+0	1.332888E+0	1.318927E+0	1.275157E+0	1.363979E+0	1.358740E+0	1.306085E+0	1.338650E+0	1.313777E+0	1.311656E+0	1.321857E+0	1.368105E+0	1.358110E+0	1.321953E+0	1.304936E+0	1.311126E+0	1.356492E+0	1.341565E+0	1.333822E+0	1.330048E+0	1.333197E+0	1.338084E+0	1.298559E+0	1.335663E+0	1.310818E+0	1.340418E+0	1.307332E+0	1.325334E+0	1.314316E+0	1.311759E+0	1.317678E+0	1.332180E+0	1.316683E+0	1.334462E+0	1.305598E+0	1.371304E+0	1.332397E+0	1.286570E+0	1.290356E+0	1.300844E+0	1.380502E+0	1.272504E+0	1.287407E+0	1.325011E+0	1.330736E+0	1.275307E+0	1.293902E+0	1.265949E+0	1.303661E+0	1.287093E+0	1.331056E+0	1.261388E+0	1.354049E+0	1.314573E+0	1.343906E+0	1.349862E+0	1.296549E+0	1.336936E+0	1.288554E+0	1.295612E+0	1.298961E+0	1.291732E+0	1.299383E+0	1.312016E+0	1.298893E+0	1.283244E+0	1.332319E+0	1.322282E+0	1.307859E+0	1.313708E+0	1.310969E+0	1.308829E+0	1.349915E+0	1.328974E+0	1.251942E+0	1.326518E+0	1.308736E+0	1.297180E+0	1.357192E+0	1.298231E+0	1.251124E+0	1.306602E+0	1.288804E+0	1.355093E+0	1.311565E+0	1.310890E+0	1.291021E+0	1.297542E+0	1.355647E+0	1.279608E+0	1.256552E+0	1.318281E+0	1.324822E+0	1.278420E+0	1.320846E+0	1.337179E+0	1.321176E+0	1.300861E+0	1.284312E+0	1.290910E+0	1.326505E+0	1.316474E+0	1.316784E+0	1.278424E+0	1.322222E+0	1.311635E+0	1.288032E+0	1.300414E+0	1.327955E+0	1.305582E+0	1.314574E+0	1.349456E+0
5.482600E+2	1.405644E+0	1.422654E+0	1.463665E+0	1.479142E+0	1.455915E+0	1.451109E+0	1.430913E+0	1.389603E+0	1.456404E+0	1.414328E+0	1.459492E+0	1.494838E+0	1.421204E+0	1.523641E+0	1.407721E+0	1.414288E+0	1.487790E+0	1.415159E+0	1.496080E+0	1.439661E+0	1.435495E+0	1.365001E+0	1.478383E+0	1.482361E+0	1.441356E+0	1.383817E+0	1.438470E+0	1.421952E+0	1.373451E+0	1.476648E+0	1.409173E+0	1.434384E+0	1.401915E+0	1.430409E+0	1.465560E+0	1.494203E+0	1.387884E+0	1.467334E+0	1.430838E+0	1.473167E+0	1.404366E+0	1.405101E+0	1.434914E+0	1.444398E+0	1.461377E+0	1.391418E+0	1.452672E+0	1.440777E+0	1.415184E+0	1.454209E+0	1.488041E+0	1.478322E+0	1.414904E+0	1.392669E+0	1.463015E+0	1.421163E+0	1.452629E+0	1.426653E+0	1.427522E+0	1.396870E+0	1.432773E+0	1.400560E+0	1.387392E+0	1.435944E+0	1.446280E+0	1.401912E+0	1.415441E+0	1.437204E+0	1.475468E+0	1.405054E+0	1.408111E+0	1.436295E+0	1.393452E+0	1.361482E+0	1.426158E+0	1.420484E+0	1.460517E+0	1.400720E+0	1.413375E+0	1.390134E+0	1.382985E+0	1.447185E+0	1.469134E+0	1.463802E+0	1.408777E+0	1.425853E+0	1.451536E+0	1.427670E+0	1.420918E+0	1.440167E+0	1.415069E+0	1.440520E+0	1.428507E+0	1.432017E+0	1.481439E+0	1.435986E+0	1.414186E+0	1.341031E+0	1.402548E+0	1.463640E+0	1.422289E+0	1.373018E+0	1.451134E+0	1.420977E+0	1.366199E+0	1.439739E+0	1.424939E+0	1.416029E+0	1.431730E+0	1.417947E+0	1.492051E+0	1.408135E+0	1.410249E+0	1.459260E+0	1.436239E+0	1.438305E+0	1.371363E+0	1.405095E+0	1.449444E+0	1.474725E+0	1.405631E+0	1.466170E+0	1.417710E+0	1.393338E+0	1.418818E+0	1.404025E+0	1.429426E+0	1.356579E+0	1.398017E+0	1.345954E+0	1.434648E+0	1.433694E+0	1.367600E+0	1.419769E+0	1.430928E+0	1.432899E+0	1.368356E+0	1.394505E+0	1.416549E+0	1.435984E+0	1.388755E+0	1.413861E+0	1.462656E+0	1.438619E+0	1.437143E+0	1.369530E+0	1.373158E+0	1.450148E+0	1.369626E+0	1.430514E+0	1.460153E+0	1.490907E+0	1.395706E+0	1.488739E+0	1.421188E+0	1.442202E+0	1.425403E+0	1.404248E+0	1.423859E+0	1.365995E+0	1.386358E+0	1.402852E+0	1.414692E+0	1.370542E+0	1.448790E+0	1.388511E+0	1.436871E+0	1.440579E+0	1.362415E+0	1.379553E+0	1.477677E+0
5.490490E+2	1.418374E+0	1.437864E+0	1.425711E+0	1.414182E+0	1.400989E+0	1.449542E+0	1.432325E+0	1.415898E+0	1.383144E+0	1.363123E+0	1.452399E+0	1.445955E+0	1.417701E+0	1.466304E+0	1.409392E+0	1.461068E+0	1.467190E+0	1.392953E+0	1.437105E+0	1.454808E+0	1.440370E+0	1.382773E+0	1.363387E+0	1.417283E+0	1.411178E+0	1.456592E+0	1.390793E+0	1.430050E+0	1.382168E+0	1.335636E+0	1.465225E+0	1.431941E+0	1.411297E+0	1.403432E+0	1.428636E+0	1.375109E+0	1.414474E+0	1.420687E+0	1.432702E+0	1.430987E+0	1.409952E+0	1.386493E+0	1.393158E+0	1.379811E+0	1.406060E+0	1.388077E+0	1.478604E+0	1.387450E+0	1.470621E+0	1.425462E+0	1.493889E+0	1.432387E+0	1.405245E+0	1.432332E+0	1.425376E+0	1.428682E+0	1.471099E+0	1.419460E+0	1.402723E+0	1.398632E+0	1.432557E+0	1.384397E+0	1.391808E+0	1.396686E+0	1.394708E+0	1.413225E+0	1.418917E+0	1.393432E+0	1.399494E+0	1.379137E+0	1.414796E+0	1.459846E+0	1.375088E+0	1.397048E+0	1.365335E+0	1.397127E+0	1.436689E+0	1.330749E+0	1.365848E+0	1.358248E+0	1.443543E+0	1.390299E+0	1.409398E+0	1.385169E+0	1.411268E+0	1.401939E+0	1.438927E+0	1.439781E+0	1.378386E+0	1.459991E+0	1.403415E+0	1.412819E+0	1.364941E+0	1.414232E+0	1.386399E+0	1.372997E+0	1.371198E+0	1.396799E+0	1.461395E+0	1.412760E+0	1.367799E+0	1.342231E+0	1.413180E+0	1.466034E+0	1.398564E+0	1.373314E+0	1.334209E+0	1.374220E+0	1.341677E+0	1.390513E+0	1.393389E+0	1.427844E+0	1.355366E+0	1.395441E+0	1.376522E+0	1.423630E+0	1.393154E+0	1.413255E+0	1.378215E+0	1.396947E+0	1.392719E+0	1.384262E+0	1.333974E+0	1.377424E+0	1.424102E+0	1.392290E+0	1.391344E+0	1.364271E+0	1.387025E+0	1.405070E+0	1.399420E+0	1.415837E+0	1.355957E+0	1.394860E+0	1.476537E+0	1.349221E+0	1.408630E+0	1.450157E+0	1.399880E+0	1.430795E+0	1.383034E+0	1.374890E+0	1.448017E+0	1.415104E+0	1.346435E+0	1.397016E+0	1.424864E+0	1.427594E+0	1.354470E+0	1.442166E+0	1.405679E+0	1.393121E+0	1.347593E+0	1.375226E+0	1.395087E+0	1.390625E+0	1.381283E+0	1.421750E+0	1.361021E+0	1.426909E+0	1.396518E+0	1.413885E+0	1.399874E+0	1.454796E+0	1.436412E+0	1.352283E+0	1.435674E+0	1.393116E+0	1.399845E+0	1.316078E+0	1.396884E+0
5.497960E+2	1.379785E+0	1.319916E+0	1.362031E+0	1.396274E+0	1.320400E+0	1.336931E+0	1.371489E+0	1.425625E+0	1.325959E+0	1.375189E+0	1.349949E+0	1.315859E+0	1.330764E+0	1.368706E+0	1.344146E+0	1.370819E+0	1.443489E+0	1.366674E+0	1.396511E+0	1.409986E+0	1.361099E+0	1.406922E+0	1.355024E+0	1.425381E+0	1.347404E+0	1.322182E+0	1.290712E+0	1.344689E+0	1.347392E+0	1.350137E+0	1.368317E+0	1.377113E+0	1.363930E+0	1.343015E+0	1.390973E+0	1.433982E+0	1.298287E+0	1.361558E+0	1.375831E+0	1.369855E+0	1.364649E+0	1.353481E+0	1.329541E+0	1.367238E+0	1.342793E+0	1.343169E+0	1.327848E+0	1.341532E+0	1.278569E+0	1.423935E+0	1.380040E+0	1.412504E+0	1.315632E+0	1.351609E+0	1.336694E+0	1.411345E+0	1.345406E+0	1.357368E+0	1.309840E+0	1.399259E+0	1.343746E+0	1.333718E+0	1.326328E+0	1.345173E+0	1.379780E+0	1.323607E+0	1.413389E+0	1.392179E+0	1.388682E+0	1.338000E+0	1.388723E+0	1.431128E+0	1.330259E+0	1.299792E+0	1.329558E+0	1.363330E+0	1.348615E+0	1.329948E+0	1.373390E+0	1.342058E+0	1.405473E+0	1.372114E+0	1.365396E+0	1.314785E+0	1.319860E+0	1.406986E+0	1.382546E+0	1.353577E+0	1.351954E+0	1.347161E+0	1.328989E+0	1.376174E+0	1.408902E+0	1.329859E+0	1.388275E+0	1.388458E+0	1.326181E+0	1.302962E+0	1.418381E+0	1.340671E+0	1.367613E+0	1.318026E+0	1.357271E+0	1.375756E+0	1.332627E+0	1.363953E+0	1.327571E+0	1.359617E+0	1.343191E+0	1.349738E+0	1.351102E+0	1.351143E+0	1.333263E+0	1.321298E+0	1.322521E+0	1.388895E+0	1.342654E+0	1.322583E+0	1.342716E+0	1.333509E+0	1.321703E+0	1.349751E+0	1.367278E+0	1.384608E+0	1.365472E+0	1.378242E+0	1.349866E+0	1.351962E+0	1.316651E+0	1.358520E+0	1.304412E+0	1.329532E+0	1.344337E+0	1.300300E+0	1.401589E+0	1.365820E+0	1.389495E+0	1.359782E+0	1.373654E+0	1.345275E+0	1.408728E+0	1.301702E+0	1.401287E+0	1.382766E+0	1.338054E+0	1.314803E+0	1.333645E+0	1.402138E+0	1.306824E+0	1.383026E+0	1.381294E+0	1.420756E+0	1.338387E+0	1.390826E+0	1.325217E+0	1.396827E+0	1.351618E+0	1.335261E+0	1.342483E+0	1.378944E+0	1.293651E+0	1.314840E+0	1.342620E+0	1.337812E+0	1.356889E+0	1.325135E+0	1.311644E+0	1.332806E+0	1.339596E+0	1.442992E+0	1.351833E+0
5.505110E+2	1.310655E+0	1.291469E+0	1.329579E+0	1.296408E+0	1.300715E+0	1.212164E+0	1.286274E+0	1.290878E+0	1.284628E+0	1.309772E+0	1.316907E+0	1.281255E+0	1.276266E+0	1.324745E+0	1.303431E+0	1.260411E+0	1.305935E+0	1.270269E+0	1.349469E+0	1.263926E+0	1.338251E+0	1.262677E+0	1.259147E+0	1.310032E+0	1.270727E+0	1.307162E+0	1.285322E+0	1.302004E+0	1.288373E+0	1.273021E+0	1.293256E+0	1.263044E+0	1.297832E+0	1.314060E+0	1.283840E+0	1.348609E+0	1.288341E+0	1.308043E+0	1.255139E+0	1.278587E+0	1.260797E+0	1.290878E+0	1.310466E+0	1.302771E+0	1.298950E+0	1.285944E+0	1.304025E+0	1.323451E+0	1.293205E+0	1.282834E+0	1.304278E+0	1.322907E+0	1.288389E+0	1.287117E+0	1.314168E+0	1.328908E+0	1.309530E+0	1.312488E+0	1.255397E+0	1.360412E+0	1.280875E+0	1.309688E+0	1.310737E+0	1.281395E+0	1.283469E+0	1.277021E+0	1.335123E+0	1.285215E+0	1.292340E+0	1.292888E+0	1.292207E+0	1.297042E+0	1.283471E+0	1.309705E+0	1.258598E+0	1.293804E+0	1.270654E+0	1.302421E+0	1.287684E+0	1.247899E+0	1.313779E+0	1.270934E+0	1.347342E+0	1.313953E+0	1.286011E+0	1.302851E+0	1.335105E+0	1.370370E+0	1.269095E+0	1.282445E+0	1.344898E+0	1.300911E+0	1.315399E+0	1.316350E+0	1.320817E+0	1.276248E+0	1.278859E+0	1.270434E+0	1.317298E+0	1.269665E+0	1.286454E+0	1.275879E+0	1.279765E+0	1.321177E+0	1.276566E+0	1.297938E+0	1.256013E+0	1.348584E+0	1.261455E+0	1.312557E+0	1.289828E+0	1.273633E+0	1.314787E+0	1.270045E+0	1.259929E+0	1.255268E+0	1.328617E+0	1.261215E+0	1.297745E+0	1.302099E+0	1.294294E+0	1.329575E+0	1.277452E+0	1.270683E+0	1.240813E+0	1.324595E+0	1.315763E+0	1.264713E+0	1.267811E+0	1.270027E+0	1.278039E+0	1.297343E+0	1.257548E+0	1.278373E+0	1.318712E+0	1.301315E+0	1.297476E+0	1.301425E+0	1.305710E+0	1.300304E+0	1.283914E+0	1.290312E+0	1.281527E+0	1.286439E+0	1.337521E+0	1.270064E+0	1.224745E+0	1.282996E+0	1.260763E+0	1.310094E+0	1.343695E+0	1.318839E+0	1.247895E+0	1.297540E+0	1.319184E+0	1.371435E+0	1.295976E+0	1.244287E+0	1.279702E+0	1.286542E+0	1.246791E+0	1.275260E+0	1.310451E+0	1.256318E+0	1.286279E+0	1.270212E+0	1.314776E+0	1.248983E+0	1.233677E+0	1.303453E+0	1.313903E+0
5.512620E+2	1.280610E+0	1.255642E+0	1.343083E+0	1.337418E+0	1.301666E+0	1.299395E+0	1.286882E+0	1.322028E+0	1.297702E+0	1.292557E+0	1.295934E+0	1.295247E+0	1.303326E+0	1.298750E+0	1.320232E+0	1.294753E+0	1.380562E+0	1.262209E+0	1.283949E+0	1.284354E+0	1.290782E+0	1.283460E+0	1.321479E+0	1.289560E+0	1.294182E+0	1.316908E+0	1.289732E+0	1.301056E+0	1.254891E+0	1.254748E+0	1.318784E+0	1.308078E+0	1.310983E+0	1.309350E+0	1.270461E+0	1.300989E+0	1.243745E+0	1.321422E+0	1.294726E+0	1.292993E+0	1.264603E+0	1.288559E+0	1.286670E+0	1.255814E+0	1.349585E+0	1.276705E+0	1.294329E+0	1.249761E+0	1.288902E+0	1.305929E+0	1.259285E+0	1.318330E+0	1.271467E+0	1.315248E+0	1.357590E+0	1.332344E+0	1.290954E+0	1.300060E+0	1.290386E+0	1.271359E+0	1.307924E+0	1.280463E+0	1.257795E+0	1.274446E+0	1.304791E+0	1.237656E+0	1.307968E+0	1.275690E+0	1.274317E+0	1.314839E+0	1.290278E+0	1.310333E+0	1.300457E+0	1.226999E+0	1.271810E+0	1.313938E+0	1.287606E+0	1.269902E+0	1.320160E+0	1.310425E+0	1.319371E+0	1.267932E+0	1.268764E+0	1.251194E+0	1.277712E+0	1.285769E+0	1.310068E+0	1.286036E+0	1.239478E+0	1.297577E+0	1.259296E+0	1.309015E+0	1.283618E+0	1.259905E+0	1.252088E+0	1.347974E+0	1.296752E+0	1.253915E+0	1.270765E+0	1.219391E+0	1.276728E+0	1.247705E+0	1.280938E+0	1.306671E+0	1.251397E+0	1.295066E+0	1.249953E+0	1.245392E+0	1.244243E+0	1.280948E+0	1.301808E+0	1.321954E+0	1.294985E+0	1.281159E+0	1.260226E+0	1.275760E+0	1.254098E+0	1.280860E+0	1.318963E+0	1.284575E+0	1.277553E+0	1.274482E+0	1.337329E+0	1.271371E+0	1.293838E+0	1.308986E+0	1.242406E+0	1.274116E+0	1.286343E+0	1.274269E+0	1.302716E+0	1.277661E+0	1.263621E+0	1.291135E+0	1.294311E+0	1.251905E+0	1.288820E+0	1.292139E+0	1.274808E+0	1.273192E+0	1.262744E+0	1.270481E+0	1.266900E+0	1.270218E+0	1.287198E+0	1.192579E+0	1.277166E+0	1.282664E+0	1.248738E+0	1.229137E+0	1.284707E+0	1.321373E+0	1.267634E+0	1.261966E+0	1.257631E+0	1.320642E+0	1.234365E+0	1.287607E+0	1.252630E+0	1.245003E+0	1.260720E+0	1.306061E+0	1.322721E+0	1.289134E+0	1.285028E+0	1.257303E+0	1.244590E+0	1.279349E+0	1.267395E+0	1.213251E+0	1.347685E+0
5.520210E+2	1.272519E+0	1.226714E+0	1.269345E+0	1.247817E+0	1.232574E+0	1.290474E+0	1.296928E+0	1.251799E+0	1.264614E+0	1.272107E+0	1.255291E+0	1.283764E+0	1.272276E+0	1.307927E+0	1.297271E+0	1.307000E+0	1.302604E+0	1.223154E+0	1.287801E+0	1.241716E+0	1.284376E+0	1.294468E+0	1.248389E+0	1.261928E+0	1.263778E+0	1.300463E+0	1.250136E+0	1.247039E+0	1.252089E+0	1.286452E+0	1.287288E+0	1.287104E+0	1.288626E+0	1.280909E+0	1.237479E+0	1.288581E+0	1.257469E+0	1.308831E+0	1.305435E+0	1.312812E+0	1.301259E+0	1.238660E+0	1.280522E+0	1.269437E+0	1.300576E+0	1.251698E+0	1.285277E+0	1.307402E+0	1.232073E+0	1.284547E+0	1.293630E+0	1.286294E+0	1.226186E+0	1.278558E+0	1.265747E+0	1.279795E+0	1.280024E+0	1.298856E+0	1.294933E+0	1.246776E+0	1.276809E+0	1.278898E+0	1.277051E+0	1.231027E+0	1.270804E+0	1.263819E+0	1.268603E+0	1.261467E+0	1.248860E+0	1.271665E+0	1.271005E+0	1.302601E+0	1.282872E+0	1.273797E+0	1.224909E+0	1.293130E+0	1.207680E+0	1.284079E+0	1.236625E+0	1.317333E+0	1.311875E+0	1.229975E+0	1.263595E+0	1.226952E+0	1.255903E+0	1.232520E+0	1.305721E+0	1.273570E+0	1.241026E+0	1.288124E+0	1.274962E+0	1.248759E+0	1.281049E+0	1.268683E+0	1.222187E+0	1.266676E+0	1.246828E+0	1.252782E+0	1.272593E+0	1.302586E+0	1.245881E+0	1.253851E+0	1.216758E+0	1.287655E+0	1.231126E+0	1.254032E+0	1.254355E+0	1.239693E+0	1.259014E+0	1.206692E+0	1.295646E+0	1.223225E+0	1.247146E+0	1.271560E+0	1.278916E+0	1.237054E+0	1.226135E+0	1.311168E+0	1.261694E+0	1.279727E+0	1.275226E+0	1.251530E+0	1.255693E+0	1.231748E+0	1.239160E+0	1.270125E+0	1.278084E+0	1.234447E+0	1.247145E+0	1.285321E+0	1.174769E+0	1.223279E+0	1.265262E+0	1.270397E+0	1.280257E+0	1.257253E+0	1.237640E+0	1.208030E+0	1.222736E+0	1.266473E+0	1.277141E+0	1.254417E+0	1.244172E+0	1.256300E+0	1.308467E+0	1.248455E+0	1.251407E+0	1.290492E+0	1.255082E+0	1.220475E+0	1.311064E+0	1.263422E+0	1.232628E+0	1.296776E+0	1.241054E+0	1.279971E+0	1.295654E+0	1.275817E+0	1.227771E+0	1.279136E+0	1.217965E+0	1.229391E+0	1.290138E+0	1.292405E+0	1.250927E+0	1.232643E+0	1.297457E+0	1.266233E+0	1.262794E+0	1.262221E+0	1.264223E+0
5.527590E+2	1.277981E+0	1.250649E+0	1.219997E+0	1.262274E+0	1.267127E+0	1.265790E+0	1.267270E+0	1.263181E+0	1.205610E+0	1.175313E+0	1.242254E+0	1.283478E+0	1.241824E+0	1.267741E+0	1.261040E+0	1.256748E+0	1.290896E+0	1.262224E+0	1.237466E+0	1.249352E+0	1.273809E+0	1.213243E+0	1.283999E+0	1.297611E+0	1.245250E+0	1.255946E+0	1.227170E+0	1.263313E+0	1.233378E+0	1.257578E+0	1.298541E+0	1.238869E+0	1.250715E+0	1.258592E+0	1.248081E+0	1.233427E+0	1.232876E+0	1.274307E+0	1.221598E+0	1.272565E+0	1.241167E+0	1.221288E+0	1.279212E+0	1.281075E+0	1.216054E+0	1.265356E+0	1.247916E+0	1.237616E+0	1.203076E+0	1.215115E+0	1.246093E+0	1.214153E+0	1.296425E+0	1.213451E+0	1.279030E+0	1.225842E+0	1.233068E+0	1.283334E+0	1.199513E+0	1.251339E+0	1.261568E+0	1.260405E+0	1.223443E+0	1.253081E+0	1.262343E+0	1.233341E+0	1.230570E+0	1.253464E+0	1.258433E+0	1.232625E+0	1.235210E+0	1.269692E+0	1.263415E+0	1.223346E+0	1.231610E+0	1.288898E+0	1.257385E+0	1.211910E+0	1.268249E+0	1.265957E+0	1.320386E+0	1.224451E+0	1.255586E+0	1.252652E+0	1.271967E+0	1.251222E+0	1.287348E+0	1.286589E+0	1.242069E+0	1.244134E+0	1.262075E+0	1.277083E+0	1.260234E+0	1.238715E+0	1.198727E+0	1.237810E+0	1.267183E+0	1.202842E+0	1.306741E+0	1.258617E+0	1.222782E+0	1.227821E+0	1.216696E+0	1.312248E+0	1.189268E+0	1.257868E+0	1.214828E+0	1.228727E+0	1.234408E+0	1.248924E+0	1.223842E+0	1.188810E+0	1.294464E+0	1.326106E+0	1.253718E+0	1.298054E+0	1.261768E+0	1.260638E+0	1.268339E+0	1.251281E+0	1.187100E+0	1.271696E+0	1.237086E+0	1.316868E+0	1.253189E+0	1.245859E+0	1.256114E+0	1.251349E+0	1.262461E+0	1.225681E+0	1.238192E+0	1.251735E+0	1.257390E+0	1.232494E+0	1.248888E+0	1.281164E+0	1.225192E+0	1.238256E+0	1.220267E+0	1.267974E+0	1.242936E+0	1.202751E+0	1.268223E+0	1.250593E+0	1.212258E+0	1.222926E+0	1.207080E+0	1.282899E+0	1.211053E+0	1.234188E+0	1.227283E+0	1.284491E+0	1.261241E+0	1.239028E+0	1.282769E+0	1.284495E+0	1.235753E+0	1.256344E+0	1.236919E+0	1.247363E+0	1.190323E+0	1.211754E+0	1.224218E+0	1.291365E+0	1.254147E+0	1.210651E+0	1.249064E+0	1.225749E+0	1.236993E+0	1.279603E+0	1.329818E+0
5.535440E+2	1.223410E+0	1.195472E+0	1.194714E+0	1.178335E+0	1.202207E+0	1.204672E+0	1.218254E+0	1.192163E+0	1.174050E+0	1.211362E+0	1.135873E+0	1.142207E+0	1.161977E+0	1.199203E+0	1.236852E+0	1.201880E+0	1.201938E+0	1.162680E+0	1.210411E+0	1.241738E+0	1.175359E+0	1.198015E+0	1.228260E+0	1.219676E+0	1.166819E+0	1.175081E+0	1.187569E+0	1.259971E+0	1.191527E+0	1.149659E+0	1.208377E+0	1.221882E+0	1.217674E+0	1.187846E+0	1.213306E+0	1.204393E+0	1.166522E+0	1.241640E+0	1.195924E+0	1.215080E+0	1.179292E+0	1.174634E+0	1.129082E+0	1.159913E+0	1.226765E+0	1.207921E+0	1.202758E+0	1.227277E+0	1.181410E+0	1.188240E+0	1.176564E+0	1.240172E+0	1.159162E+0	1.172253E+0	1.214142E+0	1.150075E+0	1.168777E+0	1.219697E+0	1.183943E+0	1.129429E+0	1.214032E+0	1.202044E+0	1.169517E+0	1.191226E+0	1.201295E+0	1.157994E+0	1.229099E+0	1.184801E+0	1.148382E+0	1.177886E+0	1.160840E+0	1.182905E+0	1.215431E+0	1.149062E+0	1.154010E+0	1.170652E+0	1.193205E+0	1.221105E+0	1.163497E+0	1.150351E+0	1.209502E+0	1.176080E+0	1.201778E+0	1.164655E+0	1.198410E+0	1.185529E+0	1.202917E+0	1.220144E+0	1.143598E+0	1.190861E+0	1.172478E+0	1.266544E+0	1.130595E+0	1.181871E+0	1.179028E+0	1.217075E+0	1.159399E+0	1.189486E+0	1.190545E+0	1.181345E+0	1.266780E+0	1.165803E+0	1.174631E+0	1.204371E+0	1.170049E+0	1.166815E+0	1.172743E+0	1.170662E+0	1.154179E+0	1.183365E+0	1.212718E+0	1.166206E+0	1.201443E+0	1.177802E+0	1.169460E+0	1.187212E+0	1.162159E+0	1.207959E+0	1.182764E+0	1.191268E+0	1.168981E+0	1.181310E+0	1.190426E+0	1.180667E+0	1.216196E+0	1.242405E+0	1.185932E+0	1.158505E+0	1.190784E+0	1.191813E+0	1.199927E+0	1.227602E+0	1.229169E+0	1.197879E+0	1.204550E+0	1.199502E+0	1.154524E+0	1.190933E+0	1.191421E+0	1.197478E+0	1.207958E+0	1.207129E+0	1.265545E+0	1.214668E+0	1.180270E+0	1.138409E+0	1.143999E+0	1.211615E+0	1.177707E+0	1.188046E+0	1.189214E+0	1.159246E+0	1.229393E+0	1.201609E+0	1.159411E+0	1.215571E+0	1.205117E+0	1.187185E+0	1.181876E+0	1.223039E+0	1.163108E+0	1.175895E+0	1.213511E+0	1.158944E+0	1.205660E+0	1.157569E+0	1.165030E+0	1.211095E+0	1.168698E+0	1.216460E+0	1.166602E+0
5.542580E+2	1.124931E+0	1.076627E+0	1.093921E+0	1.132079E+0	1.104547E+0	1.146895E+0	1.121077E+0	1.106083E+0	1.094854E+0	1.125761E+0	1.140438E+0	1.108436E+0	1.126183E+0	1.101980E+0	1.100625E+0	1.053034E+0	1.160997E+0	1.094458E+0	1.111697E+0	1.098658E+0	1.154652E+0	1.110530E+0	1.088973E+0	1.103094E+0	1.104089E+0	1.111269E+0	1.086604E+0	1.101941E+0	1.105623E+0	1.121207E+0	1.092563E+0	1.089610E+0	1.079405E+0	1.060611E+0	1.087390E+0	1.080175E+0	1.060139E+0	1.136586E+0	1.114666E+0	1.075407E+0	1.106652E+0	1.109448E+0	1.112891E+0	1.117891E+0	1.130751E+0	1.083303E+0	1.129509E+0	1.073118E+0	1.123660E+0	1.121255E+0	1.109431E+0	1.121301E+0	1.136074E+0	1.127278E+0	1.065367E+0	1.091734E+0	1.123862E+0	1.117491E+0	1.027854E+0	1.094190E+0	1.110125E+0	1.097065E+0	1.076852E+0	1.111896E+0	1.143878E+0	1.092335E+0	1.072538E+0	1.122339E+0	1.114723E+0	1.053533E+0	1.131658E+0	1.121308E+0	1.114807E+0	1.085566E+0	1.045174E+0	1.117277E+0	1.100277E+0	1.122461E+0	1.150107E+0	1.108399E+0	1.118907E+0	1.107455E+0	1.122929E+0	1.108252E+0	1.112840E+0	1.095343E+0	1.112157E+0	1.127154E+0	1.070489E+0	1.149745E+0	1.096852E+0	1.133201E+0	1.091281E+0	1.094228E+0	1.108502E+0	1.068561E+0	1.125383E+0	1.071917E+0	1.105497E+0	1.116615E+0	1.133249E+0	1.129541E+0	1.063093E+0	1.087715E+0	1.098132E+0	1.096078E+0	1.106280E+0	1.087231E+0	1.107060E+0	1.165588E+0	1.115670E+0	1.072050E+0	1.077547E+0	1.064646E+0	1.107262E+0	1.110540E+0	1.049933E+0	1.068234E+0	1.117347E+0	1.102981E+0	1.094304E+0	1.053648E+0	1.103951E+0	1.057709E+0	1.093795E+0	1.083003E+0	1.102721E+0	1.112236E+0	1.081600E+0	1.129319E+0	1.116863E+0	1.098665E+0	1.075831E+0	1.086063E+0	1.074367E+0	1.112315E+0	1.104629E+0	1.107477E+0	1.122000E+0	1.137630E+0	1.119725E+0	1.080942E+0	1.155818E+0	1.107363E+0	1.072079E+0	1.060875E+0	1.064803E+0	1.133340E+0	1.092062E+0	1.113610E+0	1.095256E+0	1.096709E+0	1.055520E+0	1.072652E+0	1.100292E+0	1.119276E+0	1.105407E+0	1.103318E+0	1.086399E+0	1.069651E+0	1.080681E+0	1.109086E+0	1.091757E+0	1.138709E+0	1.089774E+0	1.045411E+0	1.108068E+0	1.114054E+0	1.062897E+0	1.051777E+0	1.173664E+0
5.550250E+2	1.008244E+0	9.716026E-1	1.004486E+0	1.015038E+0	1.063599E+0	9.965687E-1	1.036321E+0	1.028786E+0	1.017620E+0	1.004945E+0	9.855449E-1	9.988894E-1	9.896999E-1	1.027613E+0	9.992409E-1	9.920585E-1	1.051150E+0	1.025801E+0	1.009485E+0	9.936927E-1	9.944746E-1	1.009246E+0	1.019724E+0	1.003229E+0	1.014164E+0	1.030081E+0	9.811302E-1	1.009270E+0	1.007441E+0	9.987896E-1	1.032428E+0	9.763667E-1	1.003630E+0	1.040519E+0	9.945095E-1	1.002725E+0	9.400681E-1	9.688043E-1	1.004178E+0	1.020963E+0	1.013512E+0	1.033792E+0	9.452745E-1	9.962915E-1	1.030713E+0	1.050756E+0	1.023133E+0	1.007671E+0	1.031146E+0	1.073910E+0	1.008499E+0	1.012061E+0	9.669035E-1	1.031670E+0	1.009221E+0	1.011260E+0	9.958772E-1	9.902449E-1	9.561512E-1	9.991548E-1	1.059280E+0	9.703356E-1	9.909080E-1	9.855052E-1	1.036309E+0	9.866648E-1	1.011634E+0	1.007217E+0	9.547015E-1	9.984634E-1	1.031444E+0	9.922571E-1	1.039226E+0	9.966688E-1	9.541056E-1	9.718559E-1	9.798619E-1	1.002246E+0	9.858444E-1	1.032194E+0	1.038965E+0	1.025753E+0	9.844615E-1	1.022767E+0	1.021848E+0	1.020395E+0	1.004936E+0	1.023049E+0	1.011435E+0	9.975506E-1	1.037341E+0	1.066164E+0	9.995725E-1	9.580686E-1	1.057257E+0	9.936235E-1	1.040002E+0	9.748632E-1	1.008524E+0	1.014622E+0	1.001769E+0	1.013685E+0	9.921431E-1	1.034599E+0	9.881293E-1	9.948240E-1	9.736949E-1	1.033936E+0	9.639872E-1	9.873690E-1	1.009375E+0	9.835403E-1	1.037546E+0	1.037983E+0	9.840252E-1	1.021635E+0	1.007752E+0	1.000160E+0	1.006728E+0	9.834666E-1	1.036199E+0	9.651453E-1	1.013757E+0	1.036261E+0	1.002143E+0	1.015685E+0	1.028302E+0	9.971862E-1	9.778938E-1	9.994496E-1	1.007213E+0	1.044611E+0	9.724157E-1	1.017019E+0	1.068258E+0	1.049390E+0	9.827405E-1	9.911838E-1	9.885948E-1	9.646009E-1	1.012695E+0	9.922657E-1	9.508354E-1	9.463286E-1	1.021772E+0	1.021157E+0	1.014390E+0	1.058164E+0	1.007556E+0	9.806909E-1	1.029278E+0	9.932888E-1	9.794116E-1	1.020859E+0	9.886259E-1	1.039396E+0	9.977476E-1	1.026956E+0	9.861214E-1	9.876437E-1	1.012394E+0	1.002139E+0	1.054528E+0	1.027622E+0	1.021678E+0	9.836600E-1	1.022584E+0	1.013600E+0	9.732521E-1	9.945425E-1	9.548228E-1
5.557550E+2	9.597026E-1	9.456413E-1	9.310340E-1	9.770937E-1	9.264893E-1	9.418370E-1	1.016075E+0	9.621752E-1	9.875925E-1	9.276204E-1	9.636349E-1	9.701686E-1	9.411897E-1	9.441250E-1	9.872864E-1	9.651084E-1	9.260659E-1	9.454017E-1	9.941490E-1	9.325115E-1	9.485342E-1	9.691778E-1	9.190013E-1	9.787003E-1	9.498735E-1	9.723579E-1	9.601527E-1	9.657656E-1	9.441235E-1	9.853370E-1	9.837625E-1	9.515953E-1	9.527835E-1	9.599831E-1	9.499713E-1	9.611932E-1	9.464857E-1	9.560159E-1	9.930868E-1	9.503758E-1	9.932597E-1	9.588330E-1	9.089246E-1	9.324108E-1	9.535692E-1	9.555203E-1	9.943413E-1	9.697151E-1	9.082966E-1	9.742653E-1	9.870410E-1	9.392893E-1	9.661343E-1	9.529584E-1	9.692583E-1	1.006075E+0	9.358053E-1	9.217804E-1	9.751943E-1	9.153526E-1	9.414634E-1	9.650855E-1	9.404964E-1	9.576664E-1	9.772121E-1	9.294453E-1	9.942874E-1	9.335422E-1	9.362976E-1	9.264014E-1	1.006636E+0	9.298514E-1	9.420004E-1	9.555037E-1	9.026831E-1	9.279536E-1	9.455206E-1	9.744922E-1	9.295784E-1	1.013947E+0	9.823619E-1	9.638385E-1	9.221504E-1	9.537334E-1	9.729227E-1	9.704369E-1	9.710331E-1	9.242742E-1	9.795727E-1	9.692020E-1	9.833106E-1	9.583061E-1	9.717866E-1	9.484694E-1	9.324443E-1	9.615306E-1	9.656747E-1	9.702325E-1	9.876113E-1	9.250143E-1	9.631192E-1	9.155219E-1	1.006055E+0	9.718566E-1	9.237706E-1	9.397658E-1	9.526816E-1	9.509172E-1	9.389797E-1	9.844615E-1	9.291791E-1	9.202525E-1	9.266895E-1	9.190086E-1	9.466644E-1	9.529225E-1	9.646621E-1	9.523937E-1	9.391591E-1	9.315091E-1	9.667377E-1	9.490630E-1	9.371125E-1	9.292912E-1	9.803013E-1	9.831950E-1	9.428369E-1	9.598744E-1	9.108258E-1	9.679373E-1	9.452855E-1	9.948145E-1	9.465673E-1	9.184856E-1	9.622859E-1	9.634106E-1	9.543635E-1	9.492735E-1	9.544522E-1	9.703040E-1	9.512576E-1	9.608806E-1	9.180542E-1	9.670074E-1	9.433134E-1	9.563449E-1	9.146199E-1	9.881148E-1	9.209619E-1	1.001845E+0	9.071814E-1	9.507149E-1	9.489236E-1	9.950074E-1	9.647431E-1	9.650375E-1	9.781872E-1	9.767528E-1	9.341153E-1	9.256644E-1	9.438268E-1	9.169002E-1	9.096010E-1	9.993559E-1	9.939416E-1	9.501429E-1	9.155452E-1	9.386124E-1	9.521874E-1	9.227469E-1	1.026365E+0
5.560190E+2	9.416088E-1	9.623673E-1	9.756283E-1	9.776461E-1	9.206468E-1	9.596541E-1	9.291160E-1	9.423680E-1	9.851085E-1	9.818037E-1	9.370709E-1	9.467488E-1	9.301628E-1	9.290373E-1	9.407786E-1	9.853248E-1	9.375347E-1	9.865173E-1	9.897868E-1	9.658838E-1	9.362767E-1	9.841880E-1	9.876607E-1	9.752334E-1	9.532583E-1	9.512647E-1	9.519059E-1	9.055064E-1	9.522810E-1	9.538822E-1	9.552422E-1	9.170410E-1	9.708471E-1	9.535504E-1	9.298304E-1	9.649398E-1	9.554084E-1	9.678578E-1	9.487435E-1	9.804266E-1	9.788418E-1	9.308901E-1	9.601957E-1	9.348610E-1	9.644623E-1	9.113181E-1	9.281957E-1	1.004513E+0	9.355769E-1	9.695544E-1	9.768514E-1	9.531250E-1	9.771189E-1	9.781086E-1	9.455304E-1	9.342672E-1	9.299375E-1	9.162155E-1	9.732767E-1	9.458182E-1	9.897366E-1	9.555150E-1	9.847060E-1	9.309720E-1	9.901358E-1	9.004433E-1	9.844443E-1	9.446718E-1	9.879328E-1	9.476684E-1	9.777406E-1	9.476653E-1	9.606474E-1	9.432577E-1	9.427576E-1	9.246119E-1	9.475566E-1	9.758498E-1	9.143952E-1	9.433147E-1	9.652900E-1	9.478654E-1	9.664036E-1	9.640997E-1	9.553243E-1	9.571049E-1	9.121558E-1	9.430951E-1	9.961365E-1	9.152434E-1	9.577569E-1	9.876043E-1	9.775810E-1	9.670360E-1	9.654907E-1	9.514945E-1	9.545051E-1	9.802570E-1	9.877002E-1	9.518564E-1	9.611019E-1	9.832200E-1	9.250677E-1	9.395503E-1	1.000072E+0	9.084660E-1	9.090660E-1	9.116223E-1	9.595735E-1	9.777140E-1	9.521441E-1	9.807780E-1	9.657614E-1	9.636555E-1	9.057703E-1	8.786379E-1	9.636512E-1	9.397181E-1	9.272998E-1	9.395732E-1	9.592058E-1	9.420188E-1	9.326119E-1	9.566153E-1	1.006638E+0	9.281062E-1	9.500897E-1	9.528757E-1	9.645070E-1	9.768241E-1	9.344184E-1	9.903830E-1	9.346666E-1	9.311187E-1	9.693806E-1	9.698264E-1	9.769919E-1	9.602504E-1	9.581167E-1	9.799924E-1	9.715261E-1	9.787349E-1	9.494277E-1	9.636649E-1	9.462277E-1	9.751028E-1	9.383309E-1	9.956790E-1	9.860013E-1	9.676582E-1	9.443391E-1	9.510629E-1	9.532580E-1	9.452041E-1	9.810338E-1	9.823646E-1	9.213291E-1	9.740669E-1	9.232255E-1	9.442994E-1	9.854183E-1	9.662292E-1	9.647962E-1	9.384255E-1	9.615924E-1	9.783433E-1	9.489635E-1	9.500912E-1	9.296883E-1	9.799533E-1	9.124141E-1
5.565140E+2	9.301131E-1	9.684469E-1	9.956518E-1	9.242608E-1	1.001848E+0	9.331297E-1	1.008738E+0	9.412637E-1	9.534530E-1	9.358982E-1	9.945710E-1	9.513784E-1	9.580984E-1	9.443997E-1	9.540505E-1	9.475102E-1	9.769488E-1	9.910661E-1	9.467525E-1	9.836703E-1	9.895448E-1	9.731073E-1	9.647874E-1	9.654316E-1	9.844732E-1	9.922377E-1	1.005204E+0	9.859331E-1	1.011325E+0	9.489534E-1	9.413489E-1	1.012831E+0	9.769913E-1	9.647532E-1	9.800759E-1	9.635969E-1	9.835944E-1	9.705049E-1	9.905362E-1	9.714353E-1	9.843704E-1	1.013524E+0	9.780234E-1	9.916591E-1	9.832933E-1	9.840114E-1	9.971416E-1	9.870556E-1	9.293836E-1	9.759782E-1	9.631761E-1	9.820788E-1	9.666053E-1	9.871686E-1	9.683282E-1	9.820201E-1	9.487745E-1	9.833279E-1	9.626731E-1	9.516221E-1	9.757380E-1	1.003533E+0	1.004161E+0	9.647646E-1	9.757355E-1	9.628495E-1	9.869587E-1	9.846329E-1	9.586740E-1	9.405272E-1	9.421070E-1	9.735673E-1	9.583707E-1	9.844617E-1	9.484691E-1	9.859751E-1	9.796663E-1	9.619196E-1	9.539443E-1	9.646950E-1	1.017455E+0	9.842338E-1	9.885839E-1	9.909752E-1	9.855373E-1	9.525571E-1	9.662075E-1	9.743464E-1	9.567800E-1	9.379908E-1	9.766125E-1	9.481834E-1	9.271915E-1	9.696294E-1	9.219401E-1	9.115782E-1	9.378664E-1	9.581567E-1	9.667435E-1	9.880312E-1	9.876502E-1	9.685007E-1	9.886013E-1	9.785195E-1	9.471620E-1	1.033260E+0	9.684639E-1	9.583720E-1	1.013425E+0	9.943190E-1	9.676023E-1	9.623246E-1	9.289793E-1	9.782266E-1	9.801683E-1	9.506079E-1	9.636420E-1	9.452359E-1	9.578297E-1	1.020678E+0	9.873512E-1	9.710093E-1	1.001658E+0	9.646960E-1	1.003478E+0	1.001285E+0	9.911316E-1	9.538318E-1	9.667926E-1	9.556654E-1	9.842919E-1	9.446987E-1	9.708383E-1	9.585355E-1	1.018651E+0	9.546609E-1	9.772793E-1	9.919866E-1	9.573692E-1	9.819860E-1	9.841078E-1	9.581378E-1	9.427046E-1	9.683556E-1	9.825250E-1	9.776411E-1	9.802612E-1	9.511515E-1	9.887690E-1	9.933008E-1	9.982136E-1	9.754973E-1	9.879464E-1	9.533812E-1	9.641292E-1	9.547168E-1	9.613110E-1	9.983152E-1	1.015138E+0	9.521296E-1	9.490555E-1	9.981758E-1	9.749540E-1	9.941420E-1	9.827952E-1	9.524994E-1	1.019045E+0	1.027485E+0	9.514863E-1	1.017647E+0	9.823969E-1
5.570440E+2	9.785704E-1	9.863162E-1	1.016489E+0	1.031371E+0	9.998914E-1	9.830209E-1	9.862648E-1	1.005360E+0	1.025832E+0	9.798969E-1	9.681949E-1	1.041150E+0	1.003471E+0	9.877062E-1	1.018641E+0	9.999976E-1	1.009735E+0	1.017750E+0	9.889381E-1	1.006335E+0	9.842288E-1	9.920666E-1	1.024433E+0	1.012766E+0	9.789614E-1	9.973524E-1	1.005367E+0	1.008973E+0	1.010662E+0	9.660171E-1	9.769442E-1	9.997307E-1	1.014890E+0	1.038968E+0	1.004181E+0	9.936376E-1	9.745905E-1	9.921939E-1	9.885456E-1	1.000224E+0	9.779627E-1	9.900894E-1	9.703415E-1	1.017672E+0	1.008167E+0	9.758184E-1	9.862707E-1	9.757942E-1	9.848263E-1	9.892220E-1	1.021143E+0	1.016316E+0	9.710137E-1	1.005369E+0	9.783732E-1	9.885360E-1	1.019571E+0	1.041418E+0	1.014728E+0	9.601374E-1	1.028052E+0	9.906225E-1	9.475470E-1	1.004407E+0	9.909275E-1	1.014961E+0	1.008072E+0	9.457692E-1	1.012574E+0	9.849889E-1	1.012084E+0	1.002049E+0	1.012792E+0	1.031386E+0	9.916363E-1	1.002567E+0	1.046795E+0	1.015389E+0	1.000419E+0	9.390179E-1	9.943224E-1	9.631447E-1	9.939089E-1	9.897389E-1	9.641607E-1	1.001786E+0	1.016242E+0	9.846541E-1	1.064603E+0	9.841820E-1	9.863845E-1	1.000444E+0	9.882242E-1	9.727082E-1	1.016560E+0	1.034068E+0	9.623046E-1	9.734239E-1	1.004336E+0	1.007056E+0	9.994957E-1	9.834516E-1	9.756011E-1	9.946729E-1	1.043701E+0	9.725325E-1	9.792689E-1	9.832259E-1	1.010377E+0	9.866947E-1	1.004882E+0	9.920862E-1	1.045287E+0	9.966196E-1	9.777042E-1	1.008636E+0	1.053848E+0	9.762297E-1	9.838102E-1	9.662233E-1	9.881500E-1	1.002554E+0	9.693439E-1	9.948529E-1	9.526678E-1	9.808240E-1	1.002540E+0	1.027794E+0	9.670317E-1	9.810264E-1	1.027534E+0	9.896988E-1	9.837589E-1	9.959613E-1	9.571431E-1	9.588396E-1	1.021429E+0	1.015479E+0	9.828970E-1	9.722970E-1	9.504577E-1	1.011734E+0	1.001747E+0	9.893657E-1	1.003449E+0	1.008496E+0	9.961312E-1	1.016090E+0	9.197450E-1	1.044556E+0	9.823989E-1	1.024266E+0	1.014534E+0	1.008883E+0	9.987845E-1	9.884655E-1	1.025851E+0	9.975625E-1	9.908144E-1	9.983224E-1	1.035746E+0	9.572430E-1	9.733965E-1	1.004019E+0	9.774239E-1	1.012135E+0	9.998372E-1	9.691282E-1	1.012152E+0	1.004180E+0	1.011579E+0
5.575640E+2	9.585200E-1	9.765466E-1	9.774579E-1	1.000772E+0	9.952627E-1	9.792738E-1	1.002884E+0	1.004047E+0	9.773482E-1	9.793015E-1	9.757469E-1	9.909618E-1	1.026837E+0	1.025574E+0	9.871843E-1	9.850878E-1	9.760303E-1	9.745339E-1	9.986285E-1	9.958822E-1	9.560385E-1	9.454238E-1	9.634839E-1	9.668343E-1	9.769309E-1	9.799564E-1	9.900756E-1	9.836274E-1	1.005460E+0	1.001335E+0	9.558395E-1	9.617295E-1	9.832077E-1	9.507612E-1	9.836097E-1	1.008078E+0	1.024951E+0	1.000528E+0	9.899240E-1	9.727353E-1	9.853880E-1	9.661498E-1	1.017958E+0	9.998744E-1	1.004360E+0	1.004318E+0	1.008582E+0	9.740524E-1	9.799344E-1	9.782831E-1	9.946016E-1	9.850064E-1	9.797646E-1	9.461431E-1	1.045788E+0	1.007134E+0	9.968534E-1	1.022263E+0	9.897330E-1	1.022724E+0	9.660364E-1	9.740650E-1	9.929616E-1	9.568433E-1	1.005188E+0	9.874997E-1	9.775689E-1	9.779499E-1	9.839344E-1	9.836759E-1	9.814949E-1	1.002687E+0	9.946617E-1	9.675837E-1	9.710913E-1	1.006157E+0	1.000867E+0	9.792412E-1	1.004733E+0	9.959227E-1	9.723113E-1	9.631936E-1	9.955454E-1	9.900042E-1	1.030582E+0	1.040553E+0	1.007277E+0	9.896124E-1	1.010750E+0	1.011075E+0	1.036935E+0	9.463206E-1	1.013298E+0	1.018730E+0	1.010932E+0	9.986798E-1	9.774818E-1	9.992469E-1	9.709066E-1	9.714993E-1	1.000948E+0	9.967390E-1	1.021782E+0	1.001634E+0	1.014285E+0	1.002963E+0	9.890464E-1	1.030111E+0	9.951388E-1	9.904987E-1	1.029880E+0	1.055121E+0	9.807793E-1	9.683291E-1	1.021929E+0	1.004434E+0	9.460923E-1	9.706004E-1	1.024727E+0	1.001316E+0	9.531692E-1	1.019306E+0	1.002315E+0	9.963096E-1	1.002379E+0	9.973755E-1	9.667659E-1	1.025309E+0	9.616077E-1	1.018279E+0	9.465901E-1	9.962239E-1	9.926598E-1	1.026820E+0	1.008646E+0	1.003795E+0	1.026093E+0	9.736326E-1	1.025682E+0	9.982554E-1	1.041275E+0	9.919546E-1	1.008063E+0	9.876957E-1	1.053089E+0	1.057323E+0	1.017354E+0	1.007497E+0	1.033172E+0	9.845145E-1	1.016039E+0	9.950905E-1	9.890224E-1	1.012579E+0	9.802758E-1	1.015427E+0	9.836092E-1	1.029306E+0	9.893427E-1	1.005675E+0	9.709737E-1	1.000591E+0	9.764058E-1	1.034061E+0	1.016116E+0	1.010265E+0	9.741846E-1	9.761317E-1	1.061589E+0	1.012842E+0	1.020265E+0
5.580230E+2	1.016212E+0	1.048116E+0	9.991250E-1	9.959388E-1	1.023280E+0	1.000251E+0	9.924247E-1	9.787700E-1	9.881794E-1	9.477387E-1	9.852823E-1	9.901836E-1	9.934565E-1	1.001991E+0	9.853678E-1	9.874413E-1	9.995176E-1	9.870628E-1	1.001709E+0	9.939848E-1	9.802483E-1	1.001011E+0	9.873445E-1	1.000707E+0	1.019677E+0	1.008418E+0	9.681155E-1	9.907426E-1	1.000018E+0	9.868398E-1	1.000991E+0	1.000922E+0	1.014721E+0	1.002531E+0	9.881309E-1	1.004311E+0	9.913538E-1	9.833771E-1	9.797794E-1	1.011281E+0	9.846943E-1	1.026472E+0	9.512718E-1	9.973819E-1	1.031804E+0	9.741040E-1	9.779127E-1	9.977245E-1	1.069846E+0	1.023376E+0	9.760255E-1	1.023137E+0	1.002169E+0	1.039588E+0	9.819802E-1	1.004437E+0	1.042416E+0	9.854133E-1	9.604928E-1	1.039656E+0	1.000834E+0	9.907387E-1	9.835477E-1	9.751143E-1	9.891670E-1	9.970066E-1	9.862575E-1	1.016752E+0	9.622785E-1	1.018358E+0	1.009048E+0	9.732607E-1	1.004498E+0	9.697008E-1	9.820881E-1	9.983815E-1	1.013316E+0	1.001412E+0	1.040197E+0	9.874356E-1	1.015960E+0	9.807503E-1	9.725726E-1	9.887026E-1	9.823711E-1	9.793856E-1	1.014878E+0	1.003215E+0	9.932071E-1	1.028685E+0	9.985422E-1	1.049948E+0	1.011547E+0	1.005830E+0	9.823601E-1	9.971139E-1	1.041251E+0	9.869838E-1	1.013953E+0	1.020220E+0	1.009212E+0	1.019589E+0	9.997469E-1	9.991123E-1	9.980843E-1	9.907602E-1	1.002230E+0	1.014388E+0	9.585842E-1	1.048862E+0	1.020470E+0	9.752358E-1	1.010737E+0	1.001429E+0	1.007703E+0	9.752479E-1	1.039623E+0	1.002362E+0	1.040099E+0	9.942390E-1	1.009999E+0	9.214754E-1	9.806401E-1	9.819061E-1	9.961599E-1	9.882192E-1	1.001676E+0	1.004504E+0	1.009948E+0	1.029071E+0	9.975304E-1	9.507774E-1	9.967738E-1	1.005529E+0	9.791008E-1	9.796890E-1	9.891939E-1	1.011110E+0	9.803206E-1	1.015311E+0	1.014977E+0	9.836248E-1	9.768181E-1	9.471804E-1	1.033645E+0	1.043613E+0	1.006210E+0	9.857628E-1	9.869730E-1	9.834988E-1	9.855611E-1	1.027683E+0	9.905132E-1	9.798532E-1	9.551644E-1	9.760905E-1	9.547215E-1	9.796533E-1	9.589658E-1	9.920883E-1	1.023028E+0	1.008491E+0	9.893856E-1	9.952048E-1	1.021581E+0	9.805511E-1	9.949836E-1	1.006028E+0	1.003281E+0	9.281852E-1	1.023992E+0
5.585160E+2	1.007615E+0	1.010942E+0	1.009771E+0	9.766462E-1	9.948183E-1	1.032891E+0	1.003182E+0	1.004011E+0	1.008722E+0	1.027643E+0	9.792505E-1	1.014354E+0	9.933851E-1	1.017043E+0	1.025029E+0	1.016277E+0	9.923992E-1	1.057144E+0	1.023650E+0	9.957502E-1	1.001723E+0	9.721697E-1	1.013180E+0	1.013451E+0	1.022042E+0	1.024250E+0	1.059388E+0	1.024156E+0	1.004120E+0	1.043747E+0	9.872989E-1	1.016540E+0	1.012129E+0	1.000090E+0	1.003359E+0	1.005409E+0	1.022448E+0	1.001803E+0	1.009217E+0	1.008522E+0	1.014760E+0	9.913047E-1	1.046886E+0	1.002369E+0	1.024658E+0	9.916191E-1	1.020108E+0	9.963415E-1	1.000649E+0	1.026800E+0	1.017661E+0	1.004011E+0	1.051780E+0	1.031205E+0	9.975966E-1	1.017844E+0	9.942180E-1	9.865465E-1	9.733719E-1	9.887586E-1	1.029019E+0	9.726157E-1	1.010428E+0	1.022652E+0	9.912282E-1	1.012477E+0	1.010520E+0	1.014555E+0	9.970703E-1	1.028262E+0	9.773918E-1	9.934289E-1	1.018910E+0	9.732853E-1	1.000712E+0	1.029737E+0	9.767214E-1	1.004467E+0	9.931827E-1	1.001392E+0	1.000030E+0	1.016072E+0	1.010082E+0	1.027148E+0	1.031478E+0	1.006925E+0	1.011188E+0	1.026538E+0	1.042053E+0	9.985064E-1	1.021637E+0	9.534378E-1	1.007550E+0	9.749710E-1	9.966381E-1	1.004762E+0	1.001480E+0	9.971445E-1	9.652137E-1	1.068892E+0	9.488275E-1	1.014228E+0	9.911162E-1	9.935881E-1	9.754836E-1	1.026169E+0	9.851313E-1	9.472971E-1	9.924098E-1	9.855418E-1	1.013912E+0	1.010556E+0	1.009701E+0	9.927568E-1	1.059779E+0	1.024544E+0	1.023274E+0	1.007919E+0	1.001232E+0	9.896699E-1	9.799666E-1	9.752160E-1	9.902845E-1	1.050761E+0	1.005355E+0	1.035138E+0	1.031369E+0	9.789493E-1	9.941719E-1	1.004872E+0	9.972884E-1	1.011923E+0	1.005036E+0	1.020580E+0	1.026110E+0	1.009088E+0	9.649673E-1	9.613640E-1	1.007978E+0	1.011526E+0	9.646132E-1	1.004206E+0	1.004683E+0	1.022263E+0	9.803241E-1	9.652414E-1	1.009108E+0	9.759548E-1	9.858892E-1	1.003696E+0	1.029545E+0	1.039119E+0	1.023300E+0	9.956016E-1	9.925096E-1	1.001519E+0	1.020278E+0	9.847611E-1	1.013609E+0	9.865640E-1	9.852395E-1	1.012688E+0	1.030983E+0	1.017142E+0	1.032668E+0	9.786209E-1	9.672445E-1	1.033737E+0	9.754339E-1	9.979618E-1	9.944685E-1
5.590210E+2	1.033843E+0	1.038701E+0	1.046980E+0	1.041396E+0	1.032819E+0	1.019420E+0	9.776434E-1	1.033138E+0	1.008518E+0	1.010518E+0	1.007809E+0	1.019054E+0	1.028829E+0	1.026210E+0	9.935279E-1	1.010555E+0	1.000077E+0	9.589790E-1	1.023891E+0	1.016608E+0	1.017969E+0	1.018915E+0	1.023634E+0	1.028441E+0	1.026566E+0	1.034391E+0	1.033182E+0	1.025033E+0	1.038496E+0	9.980795E-1	9.976013E-1	9.948501E-1	1.007053E+0	9.912369E-1	1.040231E+0	1.034314E+0	1.023562E+0	1.024032E+0	1.013813E+0	1.008285E+0	1.021250E+0	9.976832E-1	1.043452E+0	1.030696E+0	1.032719E+0	1.050125E+0	9.800665E-1	1.056898E+0	1.009397E+0	1.036827E+0	1.012760E+0	1.002830E+0	1.008811E+0	1.030808E+0	1.071325E+0	1.030355E+0	1.019018E+0	1.027169E+0	1.060093E+0	1.017736E+0	9.863561E-1	1.019457E+0	1.005255E+0	1.060023E+0	9.764197E-1	1.038777E+0	1.013313E+0	1.062267E+0	1.015440E+0	1.032944E+0	1.083369E+0	1.036342E+0	9.995779E-1	1.028010E+0	9.841342E-1	1.025722E+0	1.047349E+0	1.017371E+0	1.035499E+0	1.057967E+0	1.030591E+0	1.015899E+0	9.952396E-1	1.027317E+0	1.005305E+0	1.014512E+0	9.941418E-1	1.017281E+0	9.932291E-1	1.048162E+0	1.026400E+0	1.000823E+0	1.026313E+0	1.036330E+0	9.876762E-1	1.023976E+0	1.006062E+0	1.004295E+0	1.024342E+0	1.000411E+0	1.035889E+0	9.944365E-1	9.960739E-1	1.038646E+0	1.028049E+0	1.019431E+0	1.032582E+0	1.031834E+0	1.036293E+0	9.935368E-1	9.972586E-1	9.859310E-1	1.015342E+0	1.040000E+0	1.005633E+0	9.787746E-1	1.014891E+0	1.039133E+0	1.000241E+0	1.003958E+0	9.983308E-1	1.022812E+0	1.017722E+0	1.023631E+0	9.913453E-1	1.026389E+0	9.943208E-1	1.028206E+0	1.013815E+0	9.827463E-1	1.002580E+0	1.015892E+0	1.056301E+0	1.020789E+0	1.030895E+0	1.030391E+0	1.014012E+0	1.011046E+0	1.014340E+0	9.968721E-1	1.016809E+0	1.039027E+0	1.004959E+0	9.975717E-1	1.024766E+0	9.809885E-1	1.022442E+0	1.006338E+0	1.040403E+0	1.017764E+0	1.043229E+0	9.917454E-1	1.028217E+0	1.020906E+0	1.041384E+0	1.020890E+0	1.058924E+0	9.812561E-1	1.025569E+0	1.006101E+0	1.028749E+0	1.002927E+0	1.014729E+0	9.838378E-1	1.037301E+0	1.021000E+0	1.029481E+0	9.789111E-1	9.771038E-1	1.062943E+0	1.055374E+0
5.595110E+2	1.022571E+0	9.996378E-1	9.902700E-1	1.041039E+0	9.916318E-1	1.052806E+0	1.027959E+0	1.051448E+0	1.035485E+0	1.068170E+0	1.068847E+0	1.061193E+0	1.075381E+0	1.032796E+0	1.041445E+0	9.890743E-1	1.003530E+0	1.044569E+0	1.038653E+0	1.028825E+0	1.029993E+0	1.063851E+0	1.054656E+0	1.001780E+0	9.973650E-1	1.031109E+0	1.017113E+0	1.034276E+0	1.002613E+0	1.052572E+0	1.026304E+0	1.012239E+0	9.873938E-1	1.029746E+0	1.048315E+0	1.026568E+0	1.035696E+0	1.035223E+0	1.035757E+0	1.032503E+0	1.067442E+0	1.001367E+0	1.024316E+0	1.030366E+0	9.859335E-1	1.045157E+0	1.006605E+0	1.016869E+0	1.014294E+0	1.017739E+0	1.043455E+0	1.043105E+0	1.019917E+0	1.036182E+0	1.043522E+0	1.019734E+0	9.876311E-1	1.021339E+0	1.012895E+0	1.013902E+0	1.008648E+0	1.040808E+0	1.052101E+0	1.012560E+0	1.056680E+0	1.016001E+0	1.000113E+0	1.037839E+0	1.016378E+0	1.066722E+0	1.006263E+0	1.046438E+0	1.044262E+0	1.021994E+0	1.054098E+0	1.019538E+0	9.851287E-1	1.035050E+0	1.011849E+0	9.812007E-1	1.028380E+0	1.058621E+0	1.027408E+0	1.035400E+0	9.898197E-1	1.040210E+0	1.010640E+0	1.028858E+0	1.006450E+0	1.011325E+0	1.026910E+0	1.055762E+0	1.025151E+0	1.044253E+0	1.050311E+0	1.032767E+0	1.028959E+0	1.066155E+0	1.054668E+0	1.014761E+0	1.013033E+0	9.989607E-1	1.055985E+0	1.031389E+0	9.982278E-1	1.044161E+0	1.085827E+0	1.057166E+0	1.023828E+0	1.035934E+0	1.015527E+0	1.019565E+0	1.019823E+0	9.984975E-1	1.018746E+0	1.031457E+0	9.999773E-1	1.014855E+0	1.033478E+0	1.032116E+0	1.038815E+0	1.063729E+0	1.015018E+0	1.048589E+0	1.048200E+0	1.029432E+0	1.034598E+0	1.022795E+0	1.037821E+0	1.026845E+0	1.046040E+0	1.022594E+0	9.974536E-1	1.026083E+0	1.004214E+0	1.058553E+0	1.003884E+0	1.001636E+0	9.961028E-1	1.010784E+0	1.031591E+0	1.059275E+0	1.029552E+0	1.026448E+0	1.002639E+0	9.610383E-1	1.024335E+0	1.038274E+0	1.061077E+0	1.042897E+0	1.030140E+0	1.029192E+0	9.858741E-1	1.006960E+0	9.985429E-1	1.026349E+0	1.038944E+0	1.033619E+0	1.047814E+0	1.038328E+0	1.029625E+0	1.060168E+0	1.008400E+0	1.049814E+0	1.035585E+0	1.049920E+0	1.015967E+0	1.012912E+0	1.015955E+0	1.061922E+0	1.022752E+0
5.600520E+2	1.060393E+0	1.008312E+0	1.029158E+0	9.845764E-1	1.018304E+0	1.020286E+0	1.074461E+0	1.000931E+0	1.035022E+0	1.044068E+0	1.041912E+0	1.029542E+0	1.010824E+0	1.004453E+0	1.019989E+0	1.014017E+0	1.051300E+0	1.004805E+0	1.012026E+0	9.905520E-1	1.034969E+0	1.053962E+0	9.955628E-1	1.005998E+0	9.960389E-1	9.851745E-1	9.968705E-1	1.037784E+0	1.004269E+0	1.007655E+0	1.113666E+0	1.020847E+0	1.023391E+0	1.029289E+0	1.003394E+0	1.013916E+0	1.017751E+0	1.013671E+0	1.060572E+0	1.000764E+0	9.631064E-1	1.076227E+0	1.018189E+0	9.978765E-1	9.912753E-1	1.042143E+0	1.050433E+0	9.954722E-1	1.022215E+0	9.887506E-1	1.012682E+0	1.014048E+0	9.976047E-1	9.752016E-1	9.671284E-1	1.001668E+0	1.040791E+0	1.037703E+0	1.026688E+0	1.033717E+0	1.000650E+0	1.043489E+0	1.001237E+0	1.030017E+0	1.011383E+0	1.001090E+0	1.019340E+0	1.030255E+0	1.041206E+0	1.015501E+0	1.032070E+0	1.003407E+0	1.002296E+0	1.013846E+0	1.072815E+0	9.782701E-1	1.018546E+0	9.898137E-1	1.060637E+0	1.037485E+0	9.952678E-1	1.011815E+0	1.044687E+0	1.027477E+0	1.030462E+0	1.013280E+0	1.030315E+0	1.047586E+0	1.017961E+0	1.045435E+0	1.010830E+0	1.064036E+0	1.030458E+0	1.052819E+0	1.006503E+0	1.058469E+0	1.044524E+0	1.027840E+0	1.016831E+0	9.963782E-1	1.027259E+0	1.046315E+0	9.898872E-1	1.054629E+0	1.004195E+0	1.030849E+0	1.033220E+0	1.059894E+0	1.032864E+0	1.011839E+0	9.905992E-1	1.016499E+0	1.018730E+0	1.039843E+0	1.028214E+0	1.089606E+0	9.983624E-1	1.050667E+0	9.949429E-1	1.037457E+0	1.042324E+0	1.030400E+0	1.039948E+0	1.009001E+0	1.032848E+0	9.833437E-1	1.017213E+0	1.021006E+0	1.054351E+0	1.034399E+0	1.049179E+0	1.031744E+0	1.015946E+0	1.052047E+0	9.803251E-1	9.902195E-1	1.007433E+0	1.020093E+0	1.041748E+0	1.053852E+0	1.035427E+0	1.016751E+0	1.023599E+0	1.075469E+0	1.032104E+0	1.017857E+0	1.061116E+0	1.001536E+0	1.016710E+0	9.753541E-1	9.930877E-1	9.921790E-1	1.018974E+0	9.898925E-1	1.029486E+0	1.045965E+0	1.072837E+0	1.011301E+0	1.012453E+0	1.049978E+0	1.030359E+0	1.005838E+0	1.045817E+0	1.002943E+0	9.971975E-1	1.016358E+0	1.008714E+0	1.039240E+0	1.013870E+0	9.710131E-1	1.038044E+0
5.605090E+2	1.015129E+0	1.006309E+0	9.731028E-1	9.945064E-1	1.031243E+0	1.019572E+0	9.924101E-1	9.983683E-1	1.017833E+0	9.998715E-1	9.927174E-1	9.633359E-1	9.923151E-1	1.021120E+0	1.019727E+0	1.017894E+0	1.032508E+0	9.759338E-1	1.009760E+0	1.016638E+0	1.038206E+0	1.003311E+0	1.014386E+0	1.001919E+0	1.024224E+0	1.007459E+0	9.968853E-1	9.927851E-1	9.856342E-1	1.026996E+0	1.044084E+0	1.013536E+0	1.000990E+0	1.025701E+0	9.667276E-1	1.023750E+0	9.787069E-1	1.013175E+0	9.990270E-1	9.749059E-1	1.031268E+0	9.923087E-1	1.011918E+0	1.037510E+0	9.811798E-1	9.967760E-1	1.005714E+0	1.023811E+0	1.055510E+0	1.008258E+0	9.973913E-1	9.713956E-1	1.021588E+0	9.865881E-1	1.014076E+0	1.001755E+0	1.010734E+0	9.969534E-1	1.024808E+0	9.979936E-1	1.020980E+0	1.019065E+0	1.008170E+0	9.825722E-1	9.931883E-1	1.013376E+0	9.561327E-1	1.022312E+0	1.007313E+0	1.003126E+0	9.941322E-1	1.013284E+0	1.031734E+0	1.040087E+0	1.022231E+0	9.998157E-1	1.000771E+0	1.022874E+0	9.747680E-1	1.042458E+0	9.900732E-1	1.017458E+0	1.015029E+0	9.894343E-1	1.032821E+0	9.936567E-1	1.015971E+0	9.975051E-1	9.385256E-1	9.880383E-1	9.832640E-1	9.788961E-1	1.025325E+0	9.643074E-1	1.042596E+0	9.610440E-1	1.025927E+0	9.806844E-1	9.975869E-1	9.777339E-1	1.004099E+0	1.005278E+0	1.032923E+0	9.746153E-1	9.905207E-1	9.884261E-1	1.015434E+0	1.010377E+0	9.945167E-1	1.001070E+0	1.023577E+0	1.003983E+0	9.993126E-1	1.043789E+0	9.683681E-1	1.060697E+0	1.007210E+0	1.044159E+0	1.007588E+0	1.004685E+0	1.035036E+0	1.024432E+0	1.015095E+0	9.612331E-1	9.951725E-1	1.024424E+0	1.009411E+0	9.886937E-1	1.028007E+0	9.504697E-1	9.972923E-1	1.003241E+0	1.054921E+0	9.698701E-1	1.032126E+0	1.028359E+0	1.037898E+0	1.027237E+0	1.077103E+0	9.877486E-1	1.001392E+0	9.646670E-1	1.036062E+0	1.025397E+0	9.989485E-1	1.004425E+0	9.733230E-1	9.875208E-1	9.873027E-1	9.884737E-1	9.834074E-1	9.990722E-1	1.011748E+0	1.046283E+0	1.046565E+0	1.022718E+0	9.721008E-1	9.895390E-1	9.965348E-1	1.027366E+0	9.768582E-1	9.873932E-1	1.005946E+0	9.695249E-1	9.886609E-1	1.002513E+0	1.017236E+0	1.007390E+0	9.960264E-1	1.014079E+0	9.208915E-1
5.610010E+2	1.035426E+0	9.943059E-1	9.863659E-1	1.031847E+0	9.902548E-1	9.996937E-1	1.004917E+0	1.040295E+0	9.644988E-1	1.025090E+0	1.048598E+0	9.920978E-1	9.872397E-1	1.009669E+0	1.014260E+0	1.046821E+0	1.020420E+0	1.001639E+0	9.662051E-1	1.005870E+0	1.030803E+0	9.919951E-1	9.708717E-1	1.027439E+0	1.020464E+0	9.883884E-1	9.758927E-1	1.011184E+0	9.851218E-1	1.013924E+0	1.000680E+0	1.049733E+0	1.008386E+0	1.013373E+0	1.052145E+0	9.614802E-1	9.919368E-1	9.976338E-1	9.840850E-1	1.038917E+0	9.909168E-1	1.013983E+0	9.774490E-1	9.597348E-1	9.921481E-1	1.024609E+0	1.038969E+0	9.714684E-1	9.983682E-1	9.852112E-1	9.842543E-1	1.004946E+0	1.003628E+0	9.836377E-1	9.863520E-1	1.012247E+0	1.010055E+0	9.816515E-1	1.001241E+0	1.027935E+0	9.939495E-1	9.900906E-1	1.009886E+0	1.060073E+0	1.019947E+0	1.055519E+0	1.057280E+0	9.629945E-1	1.017198E+0	9.782287E-1	9.842997E-1	1.007872E+0	9.722504E-1	1.026389E+0	1.029967E+0	1.029224E+0	9.832833E-1	9.966122E-1	1.010376E+0	1.049111E+0	9.903205E-1	1.040947E+0	9.905394E-1	9.697018E-1	9.921399E-1	1.000029E+0	1.020985E+0	9.873081E-1	9.803045E-1	1.031358E+0	9.747287E-1	1.014545E+0	9.673612E-1	9.933850E-1	1.018994E+0	1.026048E+0	1.019640E+0	1.025813E+0	9.977199E-1	1.003161E+0	1.012485E+0	9.892813E-1	1.023216E+0	9.936428E-1	1.000220E+0	9.829827E-1	9.997303E-1	9.957120E-1	9.829900E-1	9.739912E-1	9.841466E-1	9.979202E-1	1.005547E+0	9.768540E-1	1.025984E+0	9.973568E-1	9.894300E-1	1.009121E+0	1.028752E+0	1.010085E+0	1.007652E+0	1.027048E+0	1.035363E+0	1.012405E+0	9.657572E-1	1.005464E+0	1.000885E+0	9.960364E-1	1.001947E+0	1.039803E+0	1.017256E+0	1.042825E+0	9.916458E-1	9.926665E-1	9.934076E-1	1.016579E+0	9.808178E-1	1.026166E+0	9.583427E-1	9.913742E-1	9.878246E-1	9.918889E-1	1.022384E+0	9.965886E-1	9.422827E-1	1.008273E+0	9.713895E-1	1.034197E+0	9.939590E-1	9.982869E-1	9.940391E-1	9.750923E-1	9.966141E-1	1.040457E+0	1.012125E+0	9.654930E-1	9.900942E-1	1.020619E+0	1.026533E+0	9.991483E-1	9.849474E-1	1.000255E+0	1.015187E+0	1.010886E+0	9.490802E-1	9.977953E-1	1.024343E+0	9.989448E-1	1.063415E+0	9.492745E-1	1.017822E+0
