Photon Energy (eV)	#1	#2	#3	#4	#5	#6	#7	#8	#9	#10	#11	#12	#13	#14	#15	#16	#17	#18	#19	#20	#21	#22	#23	#24	#25	#26	#27	#28	#29	#30	#31	#32	#33	#34	#35	#36	#37	#38	#39	#40	#41	#42	#43	#44	#45	#46	#47	#48	#49	#50	#51	#52	#53	#54	#55	#56	#57	#58	#59	#60	#61	#62	#63	#64	#65	#66	#67	#68	#69	#70	#71	#72	#73	#74	#75	#76	#77	#78	#79	#80	#81	#82	#83	#84	#85	#86	#87	#88	#89	#90	#91	#92	#93	#94	#95	#96	#97	#98	#99	#100	#101	#102	#103	#104	#105	#106	#107	#108	#109	#110	#111	#112	#113	#114	#115	#116	#117	#118	#119	#120	#121	#122	#123	#124	#125	#126	#127	#128	#129	#130	#131	#132	#133	#134	#135	#136	#137	#138	#139	#140	#141	#142	#143	#144	#145	#146	#147	#148	#149	#150	#151	#152	#153	#154	#155	#156	#157	#158	#159	#160	#161	#162	#163	#164	#165	#166	#167	#168	#169	#170	
5.300160E+2	-1.421209E-2	-7.645116E-3	-7.789737E-3	-6.578299E-4	-5.089860E-3	-4.976698E-3	2.412994E-3	-1.090290E-2	5.193482E-4	-3.731678E-3	-3.224563E-3	-9.000905E-4	-7.019735E-3	-7.761627E-3	-4.290608E-3	-2.407608E-3	-2.077010E-3	-1.208109E-3	-9.532965E-3	-6.972354E-3	3.091380E-4	-3.122790E-3	-3.424652E-3	-5.435636E-3	-1.305691E-2	-5.795977E-3	-7.732849E-4	-8.034014E-3	-1.149436E-3	-4.950212E-3	-2.802400E-3	-2.361434E-3	-4.575246E-3	-6.220797E-3	-8.911049E-3	-3.577693E-3	-1.505253E-3	-1.015443E-2	-6.169430E-3	-4.724361E-3	-4.678829E-3	-1.166913E-3	-4.768713E-3	-8.373125E-3	-7.320145E-4	-5.713368E-3	-1.384718E-2	-3.907209E-3	-7.751784E-3	2.838141E-3	-9.163362E-3	-5.766403E-3	-8.315800E-3	-7.306158E-3	-6.315298E-3	-4.244330E-3	-1.030766E-2	-8.407344E-3	6.623044E-3	-4.149398E-3	-1.009953E-2	-1.032637E-2	-7.004566E-3	3.708773E-4	-2.806150E-3	-3.802630E-3	-4.795834E-3	-1.220772E-3	-8.456271E-3	-1.316419E-2	-1.196942E-3	-1.474202E-3	-1.148757E-2	-2.373769E-3	-1.159731E-2	-1.287512E-4	-1.545583E-3	-2.130473E-3	-7.228018E-3	-1.119399E-2	-7.586435E-3	-5.906970E-3	-7.589853E-3	-7.671678E-3	-6.734366E-3	-5.028921E-3	3.867607E-4	-2.771834E-3	2.431734E-4	-8.189056E-3	-5.302155E-3	-4.146156E-3	-7.270159E-3	-4.415356E-3	-8.869121E-3	-7.711067E-3	-1.199427E-3	6.783342E-3	-5.949435E-3	2.880910E-4	-6.274475E-3	-3.509578E-3	-7.111707E-3	3.583844E-3	-2.286572E-3	-1.719686E-3	-1.119166E-2	-2.111061E-3	-6.232466E-3	-8.221530E-3	-5.484234E-3	-1.604257E-2	-8.518732E-3	-1.863069E-2	-1.376472E-2	-1.774378E-3	-3.267943E-3	-6.275113E-3	-4.559991E-3	-8.055634E-3	6.594890E-4	-4.841981E-3	-1.152506E-2	-6.440193E-3	-4.147044E-3	-7.274696E-3	6.282324E-3	-5.088257E-3	-5.718414E-3	1.998309E-3	-7.021420E-3	-3.499146E-3	-1.085178E-2	-1.374621E-3	-9.306564E-3	-1.477577E-3	-1.210596E-3	-1.933811E-3	-6.532621E-3	-6.539473E-3	-1.103643E-2	-8.309913E-3	-3.908541E-3	-6.160208E-3	7.547141E-4	-5.092895E-3	-7.531882E-3	-9.760904E-3	-1.121071E-3	3.514598E-3	-7.250348E-3	-1.619671E-2	-5.922875E-3	-6.177631E-3	-6.236023E-4	-1.066135E-3	-1.436517E-2	-8.334535E-3	-9.334136E-3	6.838958E-3	-5.082356E-3	-6.652045E-3	1.590798E-3	-1.085977E-2	1.090873E-3	-9.108556E-3	-4.741002E-3	-7.266831E-3	-1.202572E-2	-8.193350E-3
5.305230E+2	-6.997756E-3	-8.379055E-3	2.661670E-4	-3.183867E-3	-4.819619E-3	-1.193111E-2	-1.206493E-2	-5.801078E-3	-5.198063E-3	-6.707777E-3	-3.397908E-3	-9.821703E-3	-9.595854E-3	-4.416819E-3	-1.053805E-3	-1.847698E-3	-2.817995E-3	-1.218412E-2	-1.075165E-3	-1.677952E-3	-1.028004E-2	-6.870085E-3	-4.165689E-3	-9.214306E-3	-3.442701E-3	-9.328562E-4	-7.545540E-3	-5.022385E-3	1.480876E-3	-2.780891E-3	-9.893579E-3	-6.770267E-3	-7.134081E-3	-4.761704E-3	1.981010E-3	-6.913042E-3	-9.514292E-3	-9.287042E-3	-6.360962E-3	-4.967342E-3	-7.976254E-3	-3.850756E-3	-2.281877E-4	2.865195E-3	-7.383174E-3	-5.909208E-3	-2.692058E-3	-1.143614E-3	-1.643055E-2	-8.374119E-3	-5.232129E-3	-8.627945E-3	-6.585051E-3	-2.173994E-3	-1.082391E-2	-3.131317E-3	4.835667E-4	-3.757057E-3	-4.511260E-3	-3.739354E-3	-5.038958E-3	-8.526439E-3	-6.643598E-3	-3.861345E-3	-7.685291E-3	-9.669590E-3	-1.296697E-2	-1.953199E-3	4.163754E-3	-4.240533E-3	-4.443177E-3	-6.866601E-3	2.103133E-3	-1.155637E-2	-1.858431E-3	-4.493921E-3	-1.442423E-2	4.222497E-3	-5.438546E-3	4.973353E-4	1.395809E-3	-3.915931E-3	-7.708822E-3	-1.204648E-3	-6.340817E-3	1.202278E-3	6.066063E-4	3.835008E-3	-1.127515E-2	-2.081173E-4	-9.412455E-3	-7.108409E-3	-7.044821E-3	-1.193566E-2	-1.017674E-2	-9.592727E-3	-8.698005E-3	-1.084554E-2	-3.215481E-3	-6.333618E-3	1.467744E-3	-8.767711E-3	-1.586599E-3	-7.569176E-3	-2.608267E-3	-5.990966E-3	-1.306470E-2	-1.562200E-2	-9.216842E-3	-2.271127E-3	-1.458479E-3	-5.970813E-3	-4.865583E-3	-2.210423E-3	-2.563909E-3	-6.061578E-3	-1.034045E-2	-3.047923E-3	-8.353465E-3	-7.779007E-3	-1.500955E-2	-8.214409E-3	-7.546038E-3	-3.064740E-3	4.669091E-3	-5.913227E-3	-1.235711E-2	-5.980133E-3	-1.704018E-3	-4.068252E-3	-1.433468E-3	-1.377549E-2	-2.371711E-3	-1.441816E-2	-3.726936E-3	-2.821602E-4	-1.343051E-2	-2.746003E-3	-3.914997E-4	-5.604589E-3	5.950278E-3	-5.225069E-3	-1.334834E-4	-1.173257E-3	-4.541730E-3	-2.526456E-3	-3.619508E-3	-3.710044E-3	-1.168168E-2	-5.998138E-3	-3.511103E-3	6.960654E-3	-8.343744E-3	-5.702130E-3	-1.836337E-3	-1.292948E-2	8.066386E-4	5.656095E-3	-2.987513E-3	-1.157304E-2	-4.631377E-3	-2.897216E-3	-8.482179E-3	-3.277651E-3	-8.223618E-4	-7.253163E-3	-1.628648E-2	-1.019014E-2	-1.764680E-3	-2.187279E-2
5.310050E+2	-1.118503E-2	-8.379070E-3	-4.578174E-3	-8.156896E-4	3.828622E-3	-8.828753E-3	-4.962585E-3	3.408501E-3	-9.533626E-3	-6.151478E-3	-1.665232E-3	2.425307E-3	-4.854575E-3	-3.001693E-4	4.556024E-4	-3.191484E-3	-3.828462E-3	-4.841655E-3	-1.426361E-2	3.808550E-3	3.428462E-4	-3.872221E-3	5.939774E-3	-3.051043E-3	-1.158119E-3	-1.139314E-2	1.546498E-4	-1.280102E-3	-5.736374E-3	2.693012E-3	-5.959236E-3	-5.003788E-3	-2.662330E-3	2.872886E-3	3.968904E-3	-3.777972E-3	-7.980664E-3	-8.276456E-3	8.129199E-3	-5.129129E-4	-8.466397E-4	-1.085215E-2	-1.410099E-3	-7.958187E-3	-1.143754E-2	-6.202725E-4	2.126891E-3	-5.518693E-3	8.911687E-3	-3.782095E-3	-2.383419E-3	-5.506247E-3	-3.603734E-3	-8.589220E-3	4.044993E-3	-1.362365E-3	-1.488967E-3	3.336682E-3	-5.649324E-3	-8.103609E-4	-3.676591E-4	-1.776811E-3	-9.712206E-4	-5.317928E-3	-4.740110E-3	5.635457E-3	-2.693590E-3	-2.531447E-3	-9.873123E-4	-7.539975E-4	-3.446891E-3	-1.751274E-3	-3.242419E-3	3.060899E-3	-9.982230E-3	-3.335034E-3	4.906747E-3	-4.498946E-3	-9.548463E-3	-8.209897E-3	-2.249767E-3	-3.915885E-3	-8.807265E-3	-9.827399E-3	-3.595247E-3	-7.628389E-4	-8.187279E-3	-3.910956E-3	2.114288E-3	-2.379812E-3	6.916240E-3	-4.807627E-3	-5.596147E-3	-6.551685E-4	2.150815E-4	-7.530697E-3	-6.282355E-3	-7.985368E-4	-2.056185E-3	1.644340E-3	3.064060E-3	4.190703E-3	-4.699318E-3	-4.357140E-3	-4.878995E-3	-7.142737E-3	-1.186913E-2	-3.558676E-3	2.109468E-3	-2.103628E-4	-1.545216E-2	2.188586E-3	-4.233900E-3	2.842003E-3	2.752969E-3	2.402732E-4	-1.606892E-3	-5.955283E-3	-8.001273E-4	1.705978E-3	-4.458037E-3	-2.061402E-4	-1.171795E-3	-5.482967E-3	-1.898809E-3	2.629583E-3	-8.726055E-3	-3.201722E-4	-4.670311E-3	-3.495068E-3	6.974652E-3	-5.156631E-4	-1.405328E-3	-6.434063E-4	1.447364E-3	-6.058819E-3	2.421158E-4	-9.707685E-3	-9.574983E-4	-1.071806E-3	-8.212364E-3	-2.534814E-3	4.385127E-4	-8.870220E-3	-6.737110E-3	-3.634266E-3	-3.619497E-3	-2.599834E-3	-3.105456E-3	-1.415723E-3	-2.408642E-3	-9.785254E-3	-8.343762E-3	-4.023655E-3	-8.042399E-4	-4.206453E-3	-3.543687E-3	-1.752402E-3	-1.369410E-3	-6.470418E-3	7.515347E-5	-3.453467E-3	-5.618525E-4	-7.424109E-3	-5.857091E-3	1.333727E-4	-1.027434E-2	-1.980025E-3	-1.157611E-2	1.446306E-2
5.315130E+2	4.517337E-3	2.018343E-3	-1.886877E-3	1.552444E-3	-2.116982E-3	9.953389E-4	2.139810E-3	3.847093E-3	1.847144E-3	-6.707756E-3	-3.975423E-3	-4.208498E-3	-2.483938E-3	-3.001505E-4	-5.078843E-3	-1.399773E-3	-2.818029E-3	2.416563E-4	4.658955E-3	-8.810367E-3	-5.221530E-3	-2.872948E-3	-5.681538E-3	-1.730366E-3	-1.729276E-3	2.370379E-3	-1.029987E-3	-5.557002E-3	1.962028E-3	-2.172674E-3	2.471421E-3	1.620530E-3	3.188133E-4	-9.851503E-3	-3.982697E-3	1.447021E-3	-8.236158E-4	3.344574E-3	-1.364367E-3	7.018944E-4	1.529903E-3	-1.201904E-2	-3.773937E-3	-2.005360E-3	8.255197E-3	5.843888E-3	5.205526E-4	-8.143779E-3	-3.156044E-3	3.106001E-3	2.174502E-3	3.858708E-3	-3.603744E-3	6.379532E-3	5.483906E-3	-4.458087E-3	-5.927080E-3	-7.303823E-3	8.576692E-3	5.633433E-3	-3.481844E-3	2.895992E-3	-3.549539E-3	-2.890267E-3	5.612141E-4	4.501752E-3	7.009032E-3	-4.844481E-3	-7.683645E-3	-3.244370E-3	4.025299E-3	-5.587776E-3	7.448718E-3	-1.998959E-3	-4.759794E-3	-2.755602E-3	-7.109805E-3	-5.524976E-3	-2.869815E-3	-1.201930E-2	2.003358E-3	-3.384909E-3	2.177011E-3	2.853119E-3	7.977467E-4	-3.710637E-3	1.583711E-3	-2.088357E-3	4.689156E-3	8.777380E-4	1.285675E-3	3.245010E-3	2.612970E-3	1.395805E-3	-3.044941E-4	7.934492E-3	3.380235E-3	-7.496530E-3	-3.795080E-3	-6.333595E-3	-1.130290E-2	1.698737E-3	3.082448E-3	-1.078127E-2	9.313410E-3	-3.687355E-3	7.259621E-3	-1.749212E-3	2.109442E-3	-1.755892E-3	3.408827E-3	-4.440913E-3	-5.497213E-3	4.105086E-3	-7.349059E-3	2.403047E-4	5.585496E-3	-2.466430E-3	7.105604E-4	1.705961E-3	-4.985622E-3	-3.409448E-3	2.305016E-3	-5.482960E-3	3.658639E-3	-4.311420E-3	-2.501424E-3	-4.436503E-3	-4.077068E-3	-4.068263E-3	1.194078E-3	-9.355538E-3	-3.338066E-3	8.871685E-4	9.299349E-4	-9.428534E-3	-9.442631E-3	2.475281E-3	-1.057965E-2	2.327760E-3	-2.142686E-3	-5.225063E-3	-4.709274E-3	3.156286E-3	-6.997761E-4	-1.028118E-2	5.117782E-3	7.309399E-4	-2.096436E-3	-3.961520E-3	-2.959852E-3	-1.877451E-3	6.762138E-3	3.249689E-3	-4.932779E-3	-2.461843E-3	-8.247833E-4	-6.311458E-3	-1.369413E-3	-2.898580E-3	7.518576E-5	-5.122319E-3	5.530679E-3	-9.201148E-3	-7.871034E-3	4.354235E-3	4.421852E-3	9.962071E-3	1.172600E-2	-4.987618E-4
5.320070E+2	9.751488E-3	1.180404E-2	4.033907E-3	-6.144038E-3	4.909691E-3	9.268258E-3	7.603230E-3	7.794066E-3	-3.030356E-3	1.220561E-2	-4.552944E-3	-2.677614E-3	1.126584E-2	-2.358510E-3	8.505768E-3	1.287798E-3	-2.919112E-4	-3.712018E-3	6.952633E-3	4.357164E-3	4.895550E-3	8.618854E-3	-3.155162E-3	6.634053E-3	4.553240E-3	3.471474E-3	-2.806984E-3	5.669869E-3	-2.368311E-3	1.476600E-3	3.033509E-3	6.919898E-3	3.299978E-3	4.908754E-3	6.453777E-3	-4.822996E-3	3.266091E-3	6.881423E-3	1.633624E-3	2.726625E-3	-8.570366E-3	1.598651E-2	6.863372E-3	5.029886E-3	1.464079E-4	2.318021E-3	2.126923E-3	1.110669E-2	3.481180E-3	-9.120351E-4	3.314025E-3	4.899291E-3	-2.609965E-3	-5.702475E-4	-3.629297E-3	-3.562122E-5	9.766378E-4	-3.757053E-3	-2.235025E-3	-2.567777E-3	1.708482E-3	8.087999E-3	1.088932E-2	-4.832423E-3	-1.205906E-3	-2.300469E-3	1.301647E-3	3.251064E-3	1.086011E-2	6.218949E-3	5.382563E-4	4.642837E-3	4.046947E-3	-8.745284E-4	5.684998E-3	1.300533E-3	2.816928E-3	2.170354E-3	8.432512E-3	1.736762E-2	-1.642237E-3	1.924735E-3	1.041525E-2	1.198308E-2	4.641610E-3	7.110317E-4	6.066093E-4	-7.214277E-4	-1.490585E-3	2.506490E-3	-4.035478E-4	2.094647E-3	-1.250147E-3	2.934058E-3	8.008868E-3	7.418986E-3	-8.094105E-3	4.783185E-3	1.185545E-2	-1.014976E-3	3.064040E-3	5.187537E-3	-1.067843E-3	5.814458E-3	-3.374665E-4	-1.383753E-3	1.204182E-2	1.332999E-2	-5.872776E-4	1.335207E-3	1.010143E-2	7.288189E-3	6.504397E-3	6.631250E-3	5.411378E-3	-3.769987E-3	9.618628E-4	-4.792325E-3	3.228360E-3	3.128738E-3	1.295202E-2	1.047153E-2	-2.910267E-3	1.771645E-3	-5.940553E-3	-6.981070E-3	6.316874E-3	2.252556E-3	6.008456E-3	-5.572805E-5	-7.214088E-3	8.876728E-3	6.809050E-3	3.438002E-3	1.964790E-3	1.078981E-2	7.648114E-3	-3.906305E-3	4.702539E-3	6.860529E-3	1.454901E-2	8.226204E-3	6.730292E-3	7.509777E-4	2.044414E-3	7.443945E-3	-8.279330E-3	7.392360E-3	1.202924E-2	2.148370E-3	1.450076E-3	3.239356E-3	2.695185E-3	6.606604E-3	2.279295E-4	8.587347E-3	3.525586E-3	3.376534E-3	6.721178E-3	4.755359E-3	5.370007E-3	3.221751E-3	2.484411E-3	1.153104E-2	6.880679E-4	-3.942541E-4	1.644604E-2	6.230212E-3	-5.382748E-4	3.776099E-3
5.325170E+2	1.812605E-2	1.058086E-2	9.954714E-3	9.248980E-3	3.288150E-3	1.547296E-2	4.871485E-3	1.654316E-3	1.539555E-2	1.109308E-2	1.681607E-2	1.518260E-2	1.268826E-2	1.513728E-2	1.461886E-3	7.558765E-3	1.183341E-2	2.170424E-2	1.326015E-2	9.294958E-3	9.954035E-3	8.119189E-3	1.048727E-2	1.279730E-2	1.483377E-2	1.228012E-2	1.200115E-2	1.422363E-2	5.811217E-3	5.734165E-3	1.315028E-2	5.595061E-3	1.075287E-2	1.305236E-2	4.900546E-4	1.764468E-2	1.655773E-2	1.749193E-2	4.131936E-3	6.776097E-3	2.054219E-2	1.190235E-2	3.317565E-3	1.044159E-2	1.115113E-2	4.080939E-3	1.176488E-2	7.606610E-3	1.494551E-2	7.124107E-3	1.129038E-2	1.114260E-2	2.471829E-2	1.226009E-2	1.123960E-2	1.323172E-2	1.626350E-2	1.988859E-2	-2.804126E-3	5.633458E-3	1.727951E-2	9.645627E-3	7.279601E-3	1.653109E-2	1.587624E-2	5.635481E-3	1.214572E-2	7.298836E-3	2.103363E-3	1.518414E-2	4.523455E-3	1.103702E-2	1.131195E-3	1.374273E-2	2.251276E-2	9.412775E-3	1.535594E-2	5.761543E-3	1.665233E-2	1.355824E-2	8.079272E-3	1.519896E-2	1.151368E-2	3.867527E-3	1.123107E-2	7.589087E-3	5.003592E-3	5.657567E-3	5.719120E-3	7.392758E-3	6.916243E-3	1.072253E-2	1.854831E-2	1.267632E-2	1.112641E-2	9.481012E-3	2.089366E-2	7.574078E-3	3.160734E-3	1.174976E-2	9.981529E-3	1.200311E-3	1.138302E-2	1.330929E-2	7.978907E-4	1.992450E-2	1.682405E-2	9.710959E-3	1.181767E-2	1.112370E-2	8.884614E-3	1.697752E-2	1.661103E-2	7.262774E-3	1.551334E-2	1.112537E-2	8.667930E-3	2.253707E-2	9.774662E-3	9.293964E-3	1.084170E-2	6.200453E-3	2.084815E-2	1.869921E-2	3.658676E-3	2.185083E-2	1.098539E-2	1.357251E-2	1.016136E-2	9.689003E-3	7.500246E-3	1.826911E-2	1.115784E-2	1.211102E-2	8.691411E-3	6.457285E-3	1.619351E-2	1.581852E-2	1.375873E-2	4.027578E-3	8.921910E-4	1.306866E-2	1.582494E-3	1.229642E-2	9.179488E-3	1.409086E-2	1.793244E-2	7.947483E-3	5.975411E-3	5.712413E-3	1.467987E-2	1.765940E-2	1.315306E-2	6.047123E-3	7.969029E-3	1.207657E-2	1.440142E-2	7.365766E-3	8.339295E-3	9.347723E-3	4.193387E-3	1.490330E-2	-5.618562E-4	1.923164E-2	1.277155E-2	1.226837E-2	1.043392E-2	3.244712E-3	1.417878E-2	1.232574E-2
5.330280E+2	2.440698E-2	2.525953E-2	2.287283E-2	2.582605E-2	1.896306E-2	2.012648E-2	1.852996E-2	1.612657E-2	2.623437E-2	1.609955E-2	2.374650E-2	1.824436E-2	2.501562E-2	2.594350E-2	3.265621E-2	2.234030E-2	1.031773E-2	3.074115E-2	1.899429E-2	3.288675E-2	2.614134E-2	3.110271E-2	2.514025E-2	2.116175E-2	1.426272E-2	2.439200E-2	2.740160E-2	3.079662E-2	2.553840E-2	1.972305E-2	9.778041E-3	2.281822E-2	2.218064E-2	2.374084E-2	1.937516E-2	1.816718E-2	2.933815E-2	2.911299E-2	1.862206E-2	2.297398E-2	2.173046E-2	2.123753E-2	1.572775E-2	2.559443E-2	2.041834E-2	3.463916E-2	1.551305E-2	2.248197E-2	3.485725E-2	3.582438E-2	2.553391E-2	2.102788E-2	3.167458E-2	3.524771E-2	2.706782E-2	2.561456E-2	1.872912E-2	3.289372E-2	3.418354E-2	1.969261E-2	3.129346E-2	1.016484E-2	2.790663E-2	2.478511E-2	2.588991E-2	2.094056E-2	2.983880E-2	3.389845E-2	3.043403E-2	3.062427E-2	2.494743E-2	2.169395E-2	2.202753E-2	3.285767E-2	2.889569E-2	1.636608E-2	3.050728E-2	2.012617E-2	3.720201E-2	2.988429E-2	2.873736E-2	4.015446E-2	3.018696E-2	1.604083E-2	2.715561E-2	4.001445E-2	2.649972E-2	2.206085E-2	2.065348E-2	3.616758E-2	2.437109E-2	2.165117E-2	2.337722E-2	3.164807E-2	1.892028E-2	3.783376E-2	2.814065E-2	2.376100E-2	1.997052E-2	2.876934E-2	3.499084E-2	1.116840E-2	2.020237E-2	1.277400E-2	2.918290E-2	3.259427E-2	1.204184E-2	2.901227E-2	2.260469E-2	1.988193E-2	2.531198E-2	2.972655E-2	1.282107E-2	3.189326E-2	1.391832E-2	1.570854E-2	3.075879E-2	2.311856E-2	2.186003E-2	1.830466E-2	2.772416E-2	1.901365E-2	2.722236E-2	1.023545E-2	2.033092E-2	1.704553E-2	2.758445E-2	2.334888E-2	2.499302E-2	2.401935E-2	2.274004E-2	1.771665E-2	2.178819E-2	2.333496E-2	2.059244E-2	2.138034E-2	2.416912E-2	2.510070E-2	2.904088E-2	1.422628E-2	2.314771E-2	1.791115E-2	2.160181E-2	2.287975E-2	3.003578E-2	3.403160E-2	2.958208E-2	2.515623E-2	2.665941E-2	1.691386E-2	2.570473E-2	1.719423E-2	2.419200E-2	1.611784E-2	1.312973E-2	1.382118E-2	2.527725E-2	1.591404E-2	2.883546E-2	8.327187E-3	3.949240E-2	1.212194E-2	2.990085E-2	1.745459E-2	3.291066E-2	2.176530E-2	2.179008E-2	3.309983E-2	3.012233E-2	2.087541E-2
5.331630E+2	3.644548E-2	3.993818E-2	2.502581E-2	3.293056E-2	3.788116E-2	3.615535E-2	3.273469E-2	2.358200E-2	3.382151E-2	3.167525E-2	4.222781E-2	2.436786E-2	2.501568E-2	1.719555E-2	3.466875E-2	2.995504E-2	1.284382E-2	3.130593E-2	2.186134E-2	3.892188E-2	2.765892E-2	3.460023E-2	4.231961E-2	3.260779E-2	3.425263E-2	2.108876E-2	3.391718E-2	2.063901E-2	2.698183E-2	3.857772E-2	3.900442E-2	4.048304E-2	3.013034E-2	3.901005E-2	3.130266E-2	3.175232E-2	3.036063E-2	4.326039E-2	2.861527E-2	2.864326E-2	3.717796E-2	3.232310E-2	2.281927E-2	3.425316E-2	3.953186E-2	4.051569E-2	3.800172E-2	2.904462E-2	3.847753E-2	3.812042E-2	2.667342E-2	3.091312E-2	3.962466E-2	4.968182E-2	2.658812E-2	2.915252E-2	2.563280E-2	2.461773E-2	3.076930E-2	2.672222E-2	3.129344E-2	2.833689E-2	4.028281E-2	2.478510E-2	2.942411E-2	4.758267E-2	3.212179E-2	2.233337E-2	2.116218E-2	4.706049E-2	3.391406E-2	2.766183E-2	3.417648E-2	3.060884E-2	2.425354E-2	2.621666E-2	4.095641E-2	3.449079E-2	2.795466E-2	3.804729E-2	2.387661E-2	3.325186E-2	4.117124E-2	2.263465E-2	2.935209E-2	3.903182E-2	2.845389E-2	2.843985E-2	2.631817E-2	3.508175E-2	3.732146E-2	2.510231E-2	3.062056E-2	2.190582E-2	2.619455E-2	3.680275E-2	4.867367E-2	2.990086E-2	2.055020E-2	3.993847E-2	3.871556E-2	4.356462E-2	3.161564E-2	3.739985E-2	3.315674E-2	4.180869E-2	3.953940E-2	2.177425E-2	2.044726E-2	3.688303E-2	3.869715E-2	2.615684E-2	2.608599E-2	2.241995E-2	2.348865E-2	1.398983E-2	3.949236E-2	2.602595E-2	2.991697E-2	1.925320E-2	3.722051E-2	2.488637E-2	4.112975E-2	2.414015E-2	3.195106E-2	2.505440E-2	3.121550E-2	3.518339E-2	3.507856E-2	3.892305E-2	4.533703E-2	2.821400E-2	3.966648E-2	3.251814E-2	2.266215E-2	3.534059E-2	3.271457E-2	4.192475E-2	5.224717E-2	2.725797E-2	3.225227E-2	4.104730E-2	3.075352E-2	2.672824E-2	3.058457E-2	3.624725E-2	3.365948E-2	3.015230E-2	2.716387E-2	1.640465E-2	3.507582E-2	3.394012E-2	3.000194E-2	3.290239E-2	2.087080E-2	3.650106E-2	2.255828E-2	2.446231E-2	4.663476E-2	2.567615E-2	2.654939E-2	2.992248E-2	3.294709E-2	2.397038E-2	2.988976E-2	3.284506E-2	1.978608E-2	3.608536E-2	3.257514E-2	3.583707E-2
5.333080E+2	3.382845E-2	3.565691E-2	2.556403E-2	2.701014E-2	4.652945E-2	3.667241E-2	3.929074E-2	2.928314E-2	5.007967E-2	4.947609E-2	4.049525E-2	4.324870E-2	3.023106E-2	3.829340E-2	3.970006E-2	3.667394E-2	3.406311E-2	3.751880E-2	3.504990E-2	4.111643E-2	4.182282E-2	3.959664E-2	4.029851E-2	3.745039E-2	4.167744E-2	4.255983E-2	4.280208E-2	3.079663E-2	4.334097E-2	4.465991E-2	5.024529E-2	2.635111E-2	3.013040E-2	4.053696E-2	2.583587E-2	4.899497E-2	2.729331E-2	2.759721E-2	4.310539E-2	4.038669E-2	3.301904E-2	5.216036E-2	3.582045E-2	3.641785E-2	4.126945E-2	3.757744E-2	3.693078E-2	4.085743E-2	3.847758E-2	4.673057E-2	2.724317E-2	2.727118E-2	2.919020E-2	5.770079E-2	4.193669E-2	3.313274E-2	3.746779E-2	5.358355E-2	5.296184E-2	3.140855E-2	3.181243E-2	4.547059E-2	4.853360E-2	4.129320E-2	5.651992E-2	4.078040E-2	3.897073E-2	3.621144E-2	3.713039E-2	5.552766E-2	4.836030E-2	3.107203E-2	3.077477E-2	3.229542E-2	3.527863E-2	5.287111E-2	3.886658E-2	3.141269E-2	3.874323E-2	4.838714E-2	3.542090E-2	5.236672E-2	3.512988E-2	2.364908E-2	3.374503E-2	5.033156E-2	2.747680E-2	4.210922E-2	2.734816E-2	4.213975E-2	4.069979E-2	4.580920E-2	2.192861E-2	2.805883E-2	4.593894E-2	3.783375E-2	3.055630E-2	4.050611E-2	2.634671E-2	4.047037E-2	3.605501E-2	5.004381E-2	3.939746E-2	2.990502E-2	4.053683E-2	4.814358E-2	3.475730E-2	4.891679E-2	2.907680E-2	4.718673E-2	4.478135E-2	4.502543E-2	3.556101E-2	5.020809E-2	3.093221E-2	3.919742E-2	3.486870E-2	5.102946E-2	3.344185E-2	3.348066E-2	5.515810E-2	4.143680E-2	2.722238E-2	3.441759E-2	4.003454E-2	3.840251E-2	4.781466E-2	3.878517E-2	3.863819E-2	3.491051E-2	3.219922E-2	2.987151E-2	4.353208E-2	5.190491E-2	4.077234E-2	4.304286E-2	3.841151E-2	4.134464E-2	4.205905E-2	4.198951E-2	3.832197E-2	3.028624E-2	3.761723E-2	4.019789E-2	3.497537E-2	4.621758E-2	3.132953E-2	3.292795E-2	2.514591E-2	4.186245E-2	3.121709E-2	4.045242E-2	5.266078E-2	4.073523E-2	3.067615E-2	3.824565E-2	3.234659E-2	4.554802E-2	4.933158E-2	3.894300E-2	4.008075E-2	3.771021E-2	2.015276E-2	2.870923E-2	4.197327E-2	3.126224E-2	2.646618E-2	3.907088E-2	3.870729E-2	5.721104E-2
5.334580E+2	5.947561E-2	5.217037E-2	5.785928E-2	4.417924E-2	5.733978E-2	5.838884E-2	4.803211E-2	5.164934E-2	5.333131E-2	4.613844E-2	4.800324E-2	5.090304E-2	5.346341E-2	5.270175E-2	5.831601E-2	4.921588E-2	3.456830E-2	6.237032E-2	4.651810E-2	5.483253E-2	5.598675E-2	7.107415E-2	5.545676E-2	5.549997E-2	6.280965E-2	5.577284E-2	4.635608E-2	6.180417E-2	5.777548E-2	6.959667E-2	7.160316E-2	5.064007E-2	4.652675E-2	5.071650E-2	4.819979E-2	6.153490E-2	4.620834E-2	6.397607E-2	3.960776E-2	4.524613E-2	3.420728E-2	4.749277E-2	4.704864E-2	5.373543E-2	5.343262E-2	5.990843E-2	6.745110E-2	4.742006E-2	5.778592E-2	6.280272E-2	3.863800E-2	3.455507E-2	6.248104E-2	7.373860E-2	5.104988E-2	5.745610E-2	4.190590E-2	8.668750E-2	3.987388E-2	5.132573E-2	5.932116E-2	6.416168E-2	7.586429E-2	4.663408E-2	5.593091E-2	7.252420E-2	4.410749E-2	5.529375E-2	5.824968E-2	5.801799E-2	5.732694E-2	4.854942E-2	4.195188E-2	5.197255E-2	6.023015E-2	5.924503E-2	5.036062E-2	6.065501E-2	5.621044E-2	5.219658E-2	6.944602E-2	6.086222E-2	5.819688E-2	3.835846E-2	5.241521E-2	6.015741E-2	5.678973E-2	5.304473E-2	4.794724E-2	5.299810E-2	6.322220E-2	4.523404E-2	5.138485E-2	5.626011E-2	5.685040E-2	5.845382E-2	5.773239E-2	6.004199E-2	3.562107E-2	6.121303E-2	6.691749E-2	5.602462E-2	5.963014E-2	4.703607E-2	7.346340E-2	6.542056E-2	5.448378E-2	5.494847E-2	4.094250E-2	6.573346E-2	7.520219E-2	5.063504E-2	6.082767E-2	5.715511E-2	4.794614E-2	6.440489E-2	6.415199E-2	6.091459E-2	5.660558E-2	5.577046E-2	5.463055E-2	4.997887E-2	4.692444E-2	4.832237E-2	5.973814E-2	7.043795E-2	6.493234E-2	5.679421E-2	4.219776E-2	6.070529E-2	6.267890E-2	4.257884E-2	5.464577E-2	7.690365E-2	5.267325E-2	4.881961E-2	5.094471E-2	4.714609E-2	6.696333E-2	5.898733E-2	5.754262E-2	5.934097E-2	7.250814E-2	4.933811E-2	6.186890E-2	8.111396E-2	5.113396E-2	6.123921E-2	6.550495E-2	6.986602E-2	6.925285E-2	5.487250E-2	5.266075E-2	6.255518E-2	4.512616E-2	5.394711E-2	5.736099E-2	6.663368E-2	7.144595E-2	5.884324E-2	7.126153E-2	4.827921E-2	5.975426E-2	5.595729E-2	5.153932E-2	5.922556E-2	5.318655E-2	5.026654E-2	3.993370E-2	6.148593E-2
5.336130E+2	8.093544E-2	8.458577E-2	8.477203E-2	4.595542E-2	7.031213E-2	8.372486E-2	6.169058E-2	5.735055E-2	7.229925E-2	5.948914E-2	5.608878E-2	7.080446E-2	6.436856E-2	8.460580E-2	8.699472E-2	5.683060E-2	6.589205E-2	7.874953E-2	7.346852E-2	7.348657E-2	7.622083E-2	7.057451E-2	7.112029E-2	7.002761E-2	7.823048E-2	6.348038E-2	7.893397E-2	6.554643E-2	5.777544E-2	8.480209E-2	8.790232E-2	7.846215E-2	5.447652E-2	4.613572E-2	8.000627E-2	6.571504E-2	6.972421E-2	7.913415E-2	6.559018E-2	6.873285E-2	7.104347E-2	9.358514E-2	7.482387E-2	6.726475E-2	1.003476E-1	7.636282E-2	6.209652E-2	6.535804E-2	6.442315E-2	6.452478E-2	6.256717E-2	6.369059E-2	8.334998E-2	1.058143E-1	7.551160E-2	7.735717E-2	5.423404E-2	7.841153E-2	6.718781E-2	5.542631E-2	5.984030E-2	6.364267E-2	8.463073E-2	7.916489E-2	7.536938E-2	8.216055E-2	6.922000E-2	6.107624E-2	8.451998E-2	8.889825E-2	7.326755E-2	6.517419E-2	5.361488E-2	7.333623E-2	6.371176E-2	5.634779E-2	6.916916E-2	8.117603E-2	8.549373E-2	6.525735E-2	8.342063E-2	9.325131E-2	8.455932E-2	5.002451E-2	7.383096E-2	9.159993E-2	8.414850E-2	6.671413E-2	5.927674E-2	7.688660E-2	6.885278E-2	6.824170E-2	6.152555E-2	6.959161E-2	6.464416E-2	7.443466E-2	7.524579E-2	7.678719E-2	5.474954E-2	6.972283E-2	9.192650E-2	8.243997E-2	6.274283E-2	6.844998E-2	8.538517E-2	8.557707E-2	7.062376E-2	7.364658E-2	7.060642E-2	8.479519E-2	6.790129E-2	8.582251E-2	6.967094E-2	7.483859E-2	5.485801E-2	4.664510E-2	8.932510E-2	8.475513E-2	6.617319E-2	4.628538E-2	7.837141E-2	6.599537E-2	7.821601E-2	5.739064E-2	8.146261E-2	5.602198E-2	6.856353E-2	7.943402E-2	7.067455E-2	6.529102E-2	6.057684E-2	6.302096E-2	6.914145E-2	8.659685E-2	6.819640E-2	6.566800E-2	5.151440E-2	7.093180E-2	8.224552E-2	8.505071E-2	8.182141E-2	8.140104E-2	7.651188E-2	7.194795E-2	7.394355E-2	9.717729E-2	7.326835E-2	7.234156E-2	6.600935E-2	8.463135E-2	8.027768E-2	6.882749E-2	8.693954E-2	6.367419E-2	6.164048E-2	7.779009E-2	7.258719E-2	8.430010E-2	6.767014E-2	7.568179E-2	8.126292E-2	5.272944E-2	8.168738E-2	7.550475E-2	7.016793E-2	6.925013E-2	6.788280E-2	6.967241E-2	7.672642E-2	4.011189E-2
5.337580E+2	1.186212E-1	1.053805E-1	1.224497E-1	9.627875E-2	1.113915E-1	1.033730E-1	1.053975E-1	9.287341E-2	1.080669E-1	1.240172E-1	9.709420E-2	9.325727E-2	1.018248E-1	1.036452E-1	1.131575E-1	1.101338E-1	8.862693E-2	1.013419E-1	1.101668E-1	1.212188E-1	1.192183E-1	1.160419E-1	1.085106E-1	9.468047E-2	1.073586E-1	1.262419E-1	9.907301E-2	1.141959E-1	1.184004E-1	1.115636E-1	1.261215E-1	1.120251E-1	9.969066E-2	9.652412E-2	9.789729E-2	8.557024E-2	1.106214E-1	1.139972E-1	1.110589E-1	9.586424E-2	1.203569E-1	1.099218E-1	1.185547E-1	1.121821E-1	1.304661E-1	1.169110E-1	1.242082E-1	1.056090E-1	9.821278E-2	1.242214E-1	1.052980E-1	9.490723E-2	1.057094E-1	1.336134E-1	1.018919E-1	1.038918E-1	8.776647E-2	1.369346E-1	1.024684E-1	9.994709E-2	1.060342E-1	1.197163E-1	1.150556E-1	9.761505E-2	1.048211E-1	1.144714E-1	9.718649E-2	8.883240E-2	1.185169E-1	1.217708E-1	1.046506E-1	9.757137E-2	9.540759E-2	1.155015E-1	1.112936E-1	1.084976E-1	8.223048E-2	1.186265E-1	1.265930E-1	1.240314E-1	1.374963E-1	1.240473E-1	1.054295E-1	9.821012E-2	1.155641E-1	1.028997E-1	9.391941E-2	8.448427E-2	9.120538E-2	1.186914E-1	9.250117E-2	1.062042E-1	1.030542E-1	9.881832E-2	1.166032E-1	1.079424E-1	9.698659E-2	1.158591E-1	8.315247E-2	9.046531E-2	1.148075E-1	1.168299E-1	9.542628E-2	1.187722E-1	1.137702E-1	1.155238E-1	1.106747E-1	1.194870E-1	1.207658E-1	1.151915E-1	1.293514E-1	1.174400E-1	1.050442E-1	1.209415E-1	9.207592E-2	9.075825E-2	1.263144E-1	1.242956E-1	9.588301E-2	8.375094E-2	1.200498E-1	8.307958E-2	1.147231E-1	1.015228E-1	1.132913E-1	1.046088E-1	1.142108E-1	1.041318E-1	1.270350E-1	1.254789E-1	1.094495E-1	1.039055E-1	9.426773E-2	1.223094E-1	1.126957E-1	1.041790E-1	1.198773E-1	1.225643E-1	1.150739E-1	1.009154E-1	1.045828E-1	1.196024E-1	1.211265E-1	1.099514E-1	1.227907E-1	1.160103E-1	1.006450E-1	1.123103E-1	1.184760E-1	1.238364E-1	1.122499E-1	1.088313E-1	1.130841E-1	1.045167E-1	9.363680E-2	8.767603E-2	1.150030E-1	1.304607E-1	1.183713E-1	1.103799E-1	1.089139E-1	9.278055E-2	1.066669E-1	1.092688E-1	1.049080E-1	1.009067E-1	1.173154E-1	1.181871E-1	1.196512E-1	1.149211E-1
5.339090E+2	1.814306E-1	1.622603E-1	1.622807E-1	1.483781E-1	1.816586E-1	1.721416E-1	1.960898E-1	1.240105E-1	1.530478E-1	1.713003E-1	1.814151E-1	1.463276E-1	1.440223E-1	1.468701E-1	1.760492E-1	1.464157E-1	1.396541E-1	1.691185E-1	1.755362E-1	1.673052E-1	1.581690E-1	1.844930E-1	1.721753E-1	1.774445E-1	1.987413E-1	1.713864E-1	2.039144E-1	1.831613E-1	1.694027E-1	1.815084E-1	1.991878E-1	1.778267E-1	1.473889E-1	1.647267E-1	1.386494E-1	1.487931E-1	1.765689E-1	1.897867E-1	1.970006E-1	1.335245E-1	1.762055E-1	1.986065E-1	1.711506E-1	1.495231E-1	1.964949E-1	1.915433E-1	1.873904E-1	1.659854E-1	1.615682E-1	2.068785E-1	1.822131E-1	1.516171E-1	1.936569E-1	2.143377E-1	1.652048E-1	1.622683E-1	1.360927E-1	1.936840E-1	1.872552E-1	1.626276E-1	1.600138E-1	1.669639E-1	1.887972E-1	1.709305E-1	1.678485E-1	1.756912E-1	1.685297E-1	1.663182E-1	1.947522E-1	1.999674E-1	1.743912E-1	1.491508E-1	1.318544E-1	1.824037E-1	1.559743E-1	1.815077E-1	1.820203E-1	1.781377E-1	1.584452E-1	1.958663E-1	1.867110E-1	1.792680E-1	1.707858E-1	1.418314E-1	1.737711E-1	1.800328E-1	1.569423E-1	1.469075E-1	1.457929E-1	2.109880E-1	1.595056E-1	1.677499E-1	1.856285E-1	1.823966E-1	1.623271E-1	1.625860E-1	1.785150E-1	1.789323E-1	1.463341E-1	1.633308E-1	1.930282E-1	1.836157E-1	1.628682E-1	1.664183E-1	1.898416E-1	1.863595E-1	1.871900E-1	1.828198E-1	1.887236E-1	1.950452E-1	1.853263E-1	1.735360E-1	2.117958E-1	1.916749E-1	1.452442E-1	1.554954E-1	2.038890E-1	1.801173E-1	1.346571E-1	1.629508E-1	1.933833E-1	1.583571E-1	1.935311E-1	1.486781E-1	1.698763E-1	1.905711E-1	1.842384E-1	1.890321E-1	1.839888E-1	1.931185E-1	1.746132E-1	1.867796E-1	1.783442E-1	1.651642E-1	1.732353E-1	1.763874E-1	1.711497E-1	1.660748E-1	1.654488E-1	1.570083E-1	1.885467E-1	1.847069E-1	2.012038E-1	1.753756E-1	1.820667E-1	1.758326E-1	1.891824E-1	1.661568E-1	1.921313E-1	1.951180E-1	1.850139E-1	1.753501E-1	1.915188E-1	1.621439E-1	1.395674E-1	1.731618E-1	1.742764E-1	1.977070E-1	1.793203E-1	1.797753E-1	1.706872E-1	1.395072E-1	1.645458E-1	1.566565E-1	1.567662E-1	1.969314E-1	1.714243E-1	1.801367E-1	1.883309E-1	1.854553E-1
5.340800E+2	3.117604E-1	3.029304E-1	3.033031E-1	2.869156E-1	3.205711E-1	3.153672E-1	3.244787E-1	2.533839E-1	2.657715E-1	3.070319E-1	3.003883E-1	2.453246E-1	2.748822E-1	2.940405E-1	3.003233E-1	3.040856E-1	2.538342E-1	2.945058E-1	2.867782E-1	3.110503E-1	3.023369E-1	2.984114E-1	3.000101E-1	2.782577E-1	3.152536E-1	3.084713E-1	3.283030E-1	2.938261E-1	2.872842E-1	3.232226E-1	3.588084E-1	3.350423E-1	2.755789E-1	2.685576E-1	2.778028E-1	2.710588E-1	3.074402E-1	2.999342E-1	3.269122E-1	2.667522E-1	3.009740E-1	3.246310E-1	3.165265E-1	2.815686E-1	3.430317E-1	3.126005E-1	3.217871E-1	2.959260E-1	3.299125E-1	3.090517E-1	3.468687E-1	3.040588E-1	3.342737E-1	3.442442E-1	3.465095E-1	2.776937E-1	2.416209E-1	3.438338E-1	3.192722E-1	2.897456E-1	2.752397E-1	2.957259E-1	3.362803E-1	2.860017E-1	3.080393E-1	3.128701E-1	3.249132E-1	3.045204E-1	3.137409E-1	3.598470E-1	3.407718E-1	2.706400E-1	2.504287E-1	3.178944E-1	3.207704E-1	2.985558E-1	2.849441E-1	3.115234E-1	3.202735E-1	3.596713E-1	2.912168E-1	3.045766E-1	2.619555E-1	2.559555E-1	2.835953E-1	3.460896E-1	3.039956E-1	2.485167E-1	2.493037E-1	3.141426E-1	2.963287E-1	2.942918E-1	3.044190E-1	3.013549E-1	2.755977E-1	3.053809E-1	3.246615E-1	3.028457E-1	2.906670E-1	2.755540E-1	3.132853E-1	3.226702E-1	2.666252E-1	3.259516E-1	3.215480E-1	3.314857E-1	2.918003E-1	3.372298E-1	3.009079E-1	3.382670E-1	3.051848E-1	3.040865E-1	2.863325E-1	3.224058E-1	2.420109E-1	2.672110E-1	3.318108E-1	3.481644E-1	2.741428E-1	2.663366E-1	3.178910E-1	2.608628E-1	3.117436E-1	2.605209E-1	2.810251E-1	3.016270E-1	3.206623E-1	3.145806E-1	3.091676E-1	2.745152E-1	3.017868E-1	2.795985E-1	2.996270E-1	3.457671E-1	2.829313E-1	2.976976E-1	3.067363E-1	2.913852E-1	3.301567E-1	2.941248E-1	2.978009E-1	3.192194E-1	3.218912E-1	3.211369E-1	3.242181E-1	3.026778E-1	2.951944E-1	2.777371E-1	3.182533E-1	3.432824E-1	2.930571E-1	2.995487E-1	2.850586E-1	2.779578E-1	2.231711E-1	2.749310E-1	3.031552E-1	3.413182E-1	2.963636E-1	3.134644E-1	2.989403E-1	2.607729E-1	3.205152E-1	3.011896E-1	3.214037E-1	3.256679E-1	3.003502E-1	2.726877E-1	3.207840E-1	3.115622E-1
5.342040E+2	4.651196E-1	4.362619E-1	5.256021E-1	4.982735E-1	4.675918E-1	4.916838E-1	5.014918E-1	3.753013E-1	4.321466E-1	4.533326E-1	4.626771E-1	4.142312E-1	4.479402E-1	4.926693E-1	4.598172E-1	4.474222E-1	3.801394E-1	4.470037E-1	4.456137E-1	4.580872E-1	5.244064E-1	4.927726E-1	5.147519E-1	4.407037E-1	5.065864E-1	4.692288E-1	5.225859E-1	4.798709E-1	4.710840E-1	5.318401E-1	5.617070E-1	5.143401E-1	3.774349E-1	4.355012E-1	4.383264E-1	4.366931E-1	4.490472E-1	5.010293E-1	4.992950E-1	4.088883E-1	5.006030E-1	5.130852E-1	4.808135E-1	4.266033E-1	4.826185E-1	5.112292E-1	5.231141E-1	4.547422E-1	5.127388E-1	4.904378E-1	4.705027E-1	4.200802E-1	4.937709E-1	5.554105E-1	4.918408E-1	4.395557E-1	4.004066E-1	5.140823E-1	4.973823E-1	4.543553E-1	4.740296E-1	4.665434E-1	4.760274E-1	4.306904E-1	4.388066E-1	5.061671E-1	4.830099E-1	4.323142E-1	5.182379E-1	4.813757E-1	5.335546E-1	3.789144E-1	3.986466E-1	4.741867E-1	5.087773E-1	4.729686E-1	4.437722E-1	4.500391E-1	5.011102E-1	5.115035E-1	4.674187E-1	4.925393E-1	4.964705E-1	3.913830E-1	4.637071E-1	4.983901E-1	5.316591E-1	3.997908E-1	3.564185E-1	4.889632E-1	4.894588E-1	4.231351E-1	4.092061E-1	4.936357E-1	4.829140E-1	4.971488E-1	4.889254E-1	4.825764E-1	4.089157E-1	4.186253E-1	4.819653E-1	4.831562E-1	4.658391E-1	4.426563E-1	4.822067E-1	5.117428E-1	5.004235E-1	4.831966E-1	4.400592E-1	4.923074E-1	4.944032E-1	4.978719E-1	4.606719E-1	4.948187E-1	4.137454E-1	4.110085E-1	5.239493E-1	5.127224E-1	4.549205E-1	4.218908E-1	5.152046E-1	3.996724E-1	5.105030E-1	4.551873E-1	4.568414E-1	4.682113E-1	4.959906E-1	5.049618E-1	4.408731E-1	4.539326E-1	4.788841E-1	4.702093E-1	4.846915E-1	5.141259E-1	4.122894E-1	4.151563E-1	4.428926E-1	4.787706E-1	5.033545E-1	4.731694E-1	4.434739E-1	5.096892E-1	4.728943E-1	4.967237E-1	4.438675E-1	4.854678E-1	4.775123E-1	4.065244E-1	4.771672E-1	4.873734E-1	4.606345E-1	4.121178E-1	4.750445E-1	4.424462E-1	3.604461E-1	4.557886E-1	4.673800E-1	5.151325E-1	5.083373E-1	5.073641E-1	4.495496E-1	4.159715E-1	4.502865E-1	4.392073E-1	4.769778E-1	5.034721E-1	5.134456E-1	4.383843E-1	5.035219E-1	4.611801E-1
5.343600E+2	8.639600E-1	8.643889E-1	8.776203E-1	8.647463E-1	8.378454E-1	8.577618E-1	8.702696E-1	7.164951E-1	8.223424E-1	8.099053E-1	8.727310E-1	7.607196E-1	7.755641E-1	8.364095E-1	8.522615E-1	8.460764E-1	7.226792E-1	8.050905E-1	8.097312E-1	8.201935E-1	9.204894E-1	8.435215E-1	9.381728E-1	7.880477E-1	8.812545E-1	8.402929E-1	9.520213E-1	8.279029E-1	8.165501E-1	9.509004E-1	9.320949E-1	8.853010E-1	6.616385E-1	7.363051E-1	7.519182E-1	8.066256E-1	8.610884E-1	9.087770E-1	8.320689E-1	7.142180E-1	9.063966E-1	9.827620E-1	8.365727E-1	7.875652E-1	8.845812E-1	9.008456E-1	8.936411E-1	8.126261E-1	8.789937E-1	8.658386E-1	9.012276E-1	7.556587E-1	8.838207E-1	9.713267E-1	8.587672E-1	7.442620E-1	7.041706E-1	9.166490E-1	8.314091E-1	7.783019E-1	8.119208E-1	8.450418E-1	8.204986E-1	7.710493E-1	8.057777E-1	8.797242E-1	8.922331E-1	7.278008E-1	9.061105E-1	8.748492E-1	8.827546E-1	7.186572E-1	6.950817E-1	8.536741E-1	8.331468E-1	8.467110E-1	7.995664E-1	8.614833E-1	8.586744E-1	9.174788E-1	9.285802E-1	8.440398E-1	8.485169E-1	6.967292E-1	8.228335E-1	8.246082E-1	9.049107E-1	7.064398E-1	6.875490E-1	8.923537E-1	8.222268E-1	7.515694E-1	8.394609E-1	8.540995E-1	8.263628E-1	9.518239E-1	8.615396E-1	8.699465E-1	8.285821E-1	7.515714E-1	8.714710E-1	8.858659E-1	8.829433E-1	8.206107E-1	9.420430E-1	8.843495E-1	9.236479E-1	9.216983E-1	8.240745E-1	8.658175E-1	8.685813E-1	9.175713E-1	8.554634E-1	8.781678E-1	7.348826E-1	7.278208E-1	8.722655E-1	9.389448E-1	8.673354E-1	7.325238E-1	8.776502E-1	7.381543E-1	9.022268E-1	8.221506E-1	8.145381E-1	8.456960E-1	8.419781E-1	8.944715E-1	8.585328E-1	8.723813E-1	8.782721E-1	8.039157E-1	8.799474E-1	8.998194E-1	9.038509E-1	7.290217E-1	8.342710E-1	8.343963E-1	8.967294E-1	8.063273E-1	8.147364E-1	8.734118E-1	8.629842E-1	8.483786E-1	8.664804E-1	8.815136E-1	7.897233E-1	7.795666E-1	8.570467E-1	8.845143E-1	8.514652E-1	7.795967E-1	7.864576E-1	8.408007E-1	7.108591E-1	7.802852E-1	8.404218E-1	9.169006E-1	8.556930E-1	8.676101E-1	8.078346E-1	7.013357E-1	8.012170E-1	8.502979E-1	8.324336E-1	8.970682E-1	9.048993E-1	7.600729E-1	8.089011E-1	8.224025E-1
5.345110E+2	1.255473E+0	1.241141E+0	1.299611E+0	1.195696E+0	1.211342E+0	1.240385E+0	1.280022E+0	1.014712E+0	1.179480E+0	1.261045E+0	1.211170E+0	1.073019E+0	1.140643E+0	1.250133E+0	1.201940E+0	1.185154E+0	1.037938E+0	1.206103E+0	1.169834E+0	1.183947E+0	1.292292E+0	1.187775E+0	1.238307E+0	1.109419E+0	1.258779E+0	1.149147E+0	1.287278E+0	1.139582E+0	1.127375E+0	1.343807E+0	1.349131E+0	1.195315E+0	1.000000E+0	1.035582E+0	1.108747E+0	1.130056E+0	1.199514E+0	1.233157E+0	1.263774E+0	1.034935E+0	1.265848E+0	1.389424E+0	1.221879E+0	1.111186E+0	1.239630E+0	1.259905E+0	1.240073E+0	1.189323E+0	1.316448E+0	1.231481E+0	1.275548E+0	1.112569E+0	1.253499E+0	1.372272E+0	1.248236E+0	1.056044E+0	9.517193E-1	1.339315E+0	1.266156E+0	1.134467E+0	1.167460E+0	1.265077E+0	1.288214E+0	1.149280E+0	1.140352E+0	1.278788E+0	1.219842E+0	1.099617E+0	1.308922E+0	1.268821E+0	1.281273E+0	1.016626E+0	9.560425E-1	1.186498E+0	1.271249E+0	1.211761E+0	1.192455E+0	1.245736E+0	1.263504E+0	1.366992E+0	1.206249E+0	1.206692E+0	1.210449E+0	9.721487E-1	1.209964E+0	1.219606E+0	1.277674E+0	1.003976E+0	9.919008E-1	1.228422E+0	1.228193E+0	1.110489E+0	1.138854E+0	1.188413E+0	1.250869E+0	1.266798E+0	1.251666E+0	1.165218E+0	1.215787E+0	1.081326E+0	1.257784E+0	1.258174E+0	1.270994E+0	1.175010E+0	1.369521E+0	1.290358E+0	1.303831E+0	1.234742E+0	1.187056E+0	1.242934E+0	1.281698E+0	1.239357E+0	1.192773E+0	1.338567E+0	9.810525E-1	1.101924E+0	1.271955E+0	1.318651E+0	1.260616E+0	1.048848E+0	1.232709E+0	9.618521E-1	1.281785E+0	1.143169E+0	1.132322E+0	1.187408E+0	1.193673E+0	1.221723E+0	1.143894E+0	1.227775E+0	1.239823E+0	1.203369E+0	1.244762E+0	1.297757E+0	1.244839E+0	1.021225E+0	1.137348E+0	1.174939E+0	1.311047E+0	1.166116E+0	1.187516E+0	1.207542E+0	1.228480E+0	1.264975E+0	1.177677E+0	1.212752E+0	1.264447E+0	1.107643E+0	1.251555E+0	1.212919E+0	1.220796E+0	1.091257E+0	1.157714E+0	1.163065E+0	9.554767E-1	1.119902E+0	1.187905E+0	1.293594E+0	1.230018E+0	1.238571E+0	1.153176E+0	1.028977E+0	1.242317E+0	1.147064E+0	1.184365E+0	1.170370E+0	1.307042E+0	1.051907E+0	1.223431E+0	1.258430E+0
5.346510E+2	1.751142E+0	1.663152E+0	1.824946E+0	1.679392E+0	1.704834E+0	1.711424E+0	1.776098E+0	1.442740E+0	1.602192E+0	1.647100E+0	1.669160E+0	1.512379E+0	1.487235E+0	1.778610E+0	1.733250E+0	1.686384E+0	1.411295E+0	1.633095E+0	1.615377E+0	1.645908E+0	1.797638E+0	1.712398E+0	1.709223E+0	1.545691E+0	1.699698E+0	1.563705E+0	1.709606E+0	1.647998E+0	1.527692E+0	1.816390E+0	1.855538E+0	1.730559E+0	1.313519E+0	1.456505E+0	1.479990E+0	1.549627E+0	1.642229E+0	1.700019E+0	1.716470E+0	1.442718E+0	1.767299E+0	1.829930E+0	1.655053E+0	1.529513E+0	1.686190E+0	1.777042E+0	1.792116E+0	1.603209E+0	1.776228E+0	1.706186E+0	1.699438E+0	1.548041E+0	1.747396E+0	1.886020E+0	1.701978E+0	1.416474E+0	1.344246E+0	1.783853E+0	1.640582E+0	1.491219E+0	1.572825E+0	1.696015E+0	1.698691E+0	1.509543E+0	1.556803E+0	1.670483E+0	1.642760E+0	1.481841E+0	1.710189E+0	1.752943E+0	1.765966E+0	1.412208E+0	1.359875E+0	1.687420E+0	1.712253E+0	1.619113E+0	1.583776E+0	1.709001E+0	1.716109E+0	1.886161E+0	1.655869E+0	1.617128E+0	1.647076E+0	1.323143E+0	1.669579E+0	1.633278E+0	1.737398E+0	1.365304E+0	1.330240E+0	1.662761E+0	1.711295E+0	1.437771E+0	1.559931E+0	1.666806E+0	1.621334E+0	1.812718E+0	1.693126E+0	1.639103E+0	1.662698E+0	1.495646E+0	1.760098E+0	1.749098E+0	1.710404E+0	1.633265E+0	1.796997E+0	1.728617E+0	1.779063E+0	1.749243E+0	1.599116E+0	1.718451E+0	1.749573E+0	1.699854E+0	1.624832E+0	1.726968E+0	1.428198E+0	1.426756E+0	1.745109E+0	1.769293E+0	1.666483E+0	1.409752E+0	1.682733E+0	1.432203E+0	1.734933E+0	1.560312E+0	1.574894E+0	1.695172E+0	1.694239E+0	1.719800E+0	1.575793E+0	1.619854E+0	1.696493E+0	1.602823E+0	1.607160E+0	1.764570E+0	1.697077E+0	1.494431E+0	1.593104E+0	1.590898E+0	1.784228E+0	1.546869E+0	1.586600E+0	1.573413E+0	1.747265E+0	1.632988E+0	1.650233E+0	1.695761E+0	1.613354E+0	1.483459E+0	1.658174E+0	1.660972E+0	1.714708E+0	1.472226E+0	1.509797E+0	1.564775E+0	1.384335E+0	1.571755E+0	1.605538E+0	1.770588E+0	1.677698E+0	1.664641E+0	1.561469E+0	1.446734E+0	1.732767E+0	1.613835E+0	1.601243E+0	1.625167E+0	1.708515E+0	1.410916E+0	1.644096E+0	1.692326E+0
5.348280E+2	2.107585E+0	2.038679E+0	2.052630E+0	1.992581E+0	1.960500E+0	1.966855E+0	2.119741E+0	1.711571E+0	1.974505E+0	1.992548E+0	1.976411E+0	1.758340E+0	1.853738E+0	2.031270E+0	1.993369E+0	1.950214E+0	1.661380E+0	1.918323E+0	1.887173E+0	1.919679E+0	2.077374E+0	2.038663E+0	2.028558E+0	1.804104E+0	1.882463E+0	1.821357E+0	1.974374E+0	1.885368E+0	1.821676E+0	2.070627E+0	2.170842E+0	1.978746E+0	1.524681E+0	1.600545E+0	1.702634E+0	1.768032E+0	1.898859E+0	1.889495E+0	1.956302E+0	1.575539E+0	1.978216E+0	2.077314E+0	1.994857E+0	1.699980E+0	1.963628E+0	2.127878E+0	2.108564E+0	1.895466E+0	2.071887E+0	1.923734E+0	2.026469E+0	1.727013E+0	1.981923E+0	2.253290E+0	1.945639E+0	1.696416E+0	1.605106E+0	2.075874E+0	1.967214E+0	1.704448E+0	1.832343E+0	2.049070E+0	1.973033E+0	1.829995E+0	1.897855E+0	2.008332E+0	1.930413E+0	1.772704E+0	2.031097E+0	2.049791E+0	2.007068E+0	1.641971E+0	1.604314E+0	1.947158E+0	2.017474E+0	1.901301E+0	1.911880E+0	1.944987E+0	2.012025E+0	2.200710E+0	1.975462E+0	1.869872E+0	1.974958E+0	1.596536E+0	1.899110E+0	1.958020E+0	2.010984E+0	1.644158E+0	1.582580E+0	1.929332E+0	1.950038E+0	1.835806E+0	1.849664E+0	1.902160E+0	2.005312E+0	2.025617E+0	1.919595E+0	1.932142E+0	1.836016E+0	1.762110E+0	2.004868E+0	1.964906E+0	1.955793E+0	1.905219E+0	2.139321E+0	2.023479E+0	2.135336E+0	2.047808E+0	1.875804E+0	1.984801E+0	2.063519E+0	1.939538E+0	1.912243E+0	2.001064E+0	1.625454E+0	1.758465E+0	2.010199E+0	2.162374E+0	2.015954E+0	1.631701E+0	1.952325E+0	1.611052E+0	2.057697E+0	1.799109E+0	1.906829E+0	1.901795E+0	1.970198E+0	1.983246E+0	1.845728E+0	1.929969E+0	1.900917E+0	1.800614E+0	1.893696E+0	2.016598E+0	1.953207E+0	1.686024E+0	1.864275E+0	1.923320E+0	2.037232E+0	1.810900E+0	1.899690E+0	1.936597E+0	1.999511E+0	1.899013E+0	1.921368E+0	1.914554E+0	1.946535E+0	1.723272E+0	1.917484E+0	1.944577E+0	1.926943E+0	1.726205E+0	1.780539E+0	1.698492E+0	1.643915E+0	1.811929E+0	1.805652E+0	2.034444E+0	1.902615E+0	1.977434E+0	1.870334E+0	1.605826E+0	1.981343E+0	1.774362E+0	1.792566E+0	1.882115E+0	1.997099E+0	1.737830E+0	1.956833E+0	1.797055E+0
5.349630E+2	2.245766E+0	2.121860E+0	2.301843E+0	2.291559E+0	2.167517E+0	2.102324E+0	2.227374E+0	2.162406E+0	1.988054E+0	2.186688E+0	2.146210E+0	2.159940E+0	1.931492E+0	2.163516E+0	2.167455E+0	2.174176E+0	1.831135E+0	2.021680E+0	2.089587E+0	2.214301E+0	2.287303E+0	2.100620E+0	2.173570E+0	2.163776E+0	2.058376E+0	1.887420E+0	2.173395E+0	2.061793E+0	1.988152E+0	2.238491E+0	2.287748E+0	2.160695E+0	1.665295E+0	1.802607E+0	1.787120E+0	1.893434E+0	2.025642E+0	2.100190E+0	2.151173E+0	1.787327E+0	2.206361E+0	2.185833E+0	2.084682E+0	1.896429E+0	2.123486E+0	2.208381E+0	2.168533E+0	2.053845E+0	2.128003E+0	2.117173E+0	2.172891E+0	1.921600E+0	2.151855E+0	2.397630E+0	2.128380E+0	1.793710E+0	1.705211E+0	2.156274E+0	2.110041E+0	1.873161E+0	1.996359E+0	2.144083E+0	2.144234E+0	1.878548E+0	1.941445E+0	2.155710E+0	2.113053E+0	1.890668E+0	2.142363E+0	2.186760E+0	2.190391E+0	1.757918E+0	1.699076E+0	2.117506E+0	2.091745E+0	2.025880E+0	1.981891E+0	2.064010E+0	2.143027E+0	2.274175E+0	2.136471E+0	2.003676E+0	2.097981E+0	1.721818E+0	2.069339E+0	2.093125E+0	2.205430E+0	1.691090E+0	1.654674E+0	2.133471E+0	2.120642E+0	1.871467E+0	1.907130E+0	2.013428E+0	2.062468E+0	2.221000E+0	2.110430E+0	1.976240E+0	1.998313E+0	1.827000E+0	2.152796E+0	2.120906E+0	2.121284E+0	2.026209E+0	2.205742E+0	2.203734E+0	2.227995E+0	2.170856E+0	1.962100E+0	2.160484E+0	2.166340E+0	2.033370E+0	2.087213E+0	2.208839E+0	1.790277E+0	1.853566E+0	2.175110E+0	2.319952E+0	2.106091E+0	1.694777E+0	2.102156E+0	1.699146E+0	2.111589E+0	1.962945E+0	1.970987E+0	1.999507E+0	2.086911E+0	2.114971E+0	1.945990E+0	1.987864E+0	2.155792E+0	2.056417E+0	2.043972E+0	2.085472E+0	2.061351E+0	1.793372E+0	2.035183E+0	1.969152E+0	2.146472E+0	1.899858E+0	2.032218E+0	2.077033E+0	2.095029E+0	2.037077E+0	2.036624E+0	2.084608E+0	2.092738E+0	1.814314E+0	2.143493E+0	2.089173E+0	2.045453E+0	1.796443E+0	1.909524E+0	1.909418E+0	1.665591E+0	1.924745E+0	1.981297E+0	2.192870E+0	2.057954E+0	2.109590E+0	1.929166E+0	1.702615E+0	2.080042E+0	1.963321E+0	1.992949E+0	2.021931E+0	2.193492E+0	1.843070E+0	2.074569E+0	2.015072E+0
5.351140E+2	2.000810E+0	1.986695E+0	2.048325E+0	2.045865E+0	1.929687E+0	1.916699E+0	2.037246E+0	1.953654E+0	1.801627E+0	1.995331E+0	1.889784E+0	1.920101E+0	1.774557E+0	1.870205E+0	1.915885E+0	1.968132E+0	1.662896E+0	1.901943E+0	1.801737E+0	1.979479E+0	2.036908E+0	1.902262E+0	1.951754E+0	2.004851E+0	1.830492E+0	1.677664E+0	1.931728E+0	1.876279E+0	1.771634E+0	2.044472E+0	2.080355E+0	1.929728E+0	1.498349E+0	1.519107E+0	1.629081E+0	1.749223E+0	1.828823E+0	1.882925E+0	1.965298E+0	1.825798E+0	1.975841E+0	2.051059E+0	1.879618E+0	1.835277E+0	1.935247E+0	1.959216E+0	1.940432E+0	1.940092E+0	1.995256E+0	1.915700E+0	1.968355E+0	1.796734E+0	1.948135E+0	2.103069E+0	1.896231E+0	1.864026E+0	1.475910E+0	1.955878E+0	1.922259E+0	1.876087E+0	1.777326E+0	1.880851E+0	1.953947E+0	1.781932E+0	1.750009E+0	1.957881E+0	1.877336E+0	1.790052E+0	1.944046E+0	1.945197E+0	2.006073E+0	1.601048E+0	1.491570E+0	1.874072E+0	1.923470E+0	1.871169E+0	1.752529E+0	1.802368E+0	1.993013E+0	2.048877E+0	1.895863E+0	1.838543E+0	1.888180E+0	1.548856E+0	1.817293E+0	1.849443E+0	1.977275E+0	1.564422E+0	1.505849E+0	1.884271E+0	1.867827E+0	1.740323E+0	1.790754E+0	1.841656E+0	1.923737E+0	1.978192E+0	1.885776E+0	1.775297E+0	1.798916E+0	1.690843E+0	1.909087E+0	1.939988E+0	1.959425E+0	1.859717E+0	2.045651E+0	1.973377E+0	2.015781E+0	1.916926E+0	1.808925E+0	1.923496E+0	1.923578E+0	1.848762E+0	1.807386E+0	2.032005E+0	1.596211E+0	1.625551E+0	1.919783E+0	2.034447E+0	1.897114E+0	1.550600E+0	1.874244E+0	1.573684E+0	1.933690E+0	1.782182E+0	1.768397E+0	1.872431E+0	1.838965E+0	1.955974E+0	1.810132E+0	1.841120E+0	1.876218E+0	1.781828E+0	1.876785E+0	1.895684E+0	1.820743E+0	1.613816E+0	1.802177E+0	1.804971E+0	2.025915E+0	1.780304E+0	1.792464E+0	1.867193E+0	1.941168E+0	1.819640E+0	1.842332E+0	1.871902E+0	1.866153E+0	1.659990E+0	1.921014E+0	1.887549E+0	1.898272E+0	1.647596E+0	1.763111E+0	1.706327E+0	1.483934E+0	1.776455E+0	1.738768E+0	1.957509E+0	1.852994E+0	1.930997E+0	1.763850E+0	1.576343E+0	1.869849E+0	1.754221E+0	1.796593E+0	1.874729E+0	1.926956E+0	1.738576E+0	1.830510E+0	1.985150E+0
5.352600E+2	1.828085E+0	1.865599E+0	1.909992E+0	1.941075E+0	1.817261E+0	1.783297E+0	1.954750E+0	1.847082E+0	1.757190E+0	1.861823E+0	1.831449E+0	1.832844E+0	1.670722E+0	1.793534E+0	1.906326E+0	1.854361E+0	1.561348E+0	1.776558E+0	1.793706E+0	1.874145E+0	1.901844E+0	1.787845E+0	1.866869E+0	1.896115E+0	1.744821E+0	1.641330E+0	1.826293E+0	1.838323E+0	1.653271E+0	1.876605E+0	1.978621E+0	1.856417E+0	1.563934E+0	1.533359E+0	1.520244E+0	1.698540E+0	1.757252E+0	1.837451E+0	1.755438E+0	1.728609E+0	1.835626E+0	1.969958E+0	1.776199E+0	1.821205E+0	1.799717E+0	1.960394E+0	1.860118E+0	1.747586E+0	1.899924E+0	1.786547E+0	1.801992E+0	1.692159E+0	1.859692E+0	1.991339E+0	1.768170E+0	1.861372E+0	1.387642E+0	1.850059E+0	1.835197E+0	1.887803E+0	1.751893E+0	1.869428E+0	1.860616E+0	1.704244E+0	1.742349E+0	1.789523E+0	1.760904E+0	1.745527E+0	1.827633E+0	1.837615E+0	1.845176E+0	1.820157E+0	1.472132E+0	1.735209E+0	1.805676E+0	1.907094E+0	1.722752E+0	1.773640E+0	1.818856E+0	2.011869E+0	1.802298E+0	1.755713E+0	1.764057E+0	1.586392E+0	1.718452E+0	1.746762E+0	1.863934E+0	1.667395E+0	1.396673E+0	1.824549E+0	1.786748E+0	1.723066E+0	1.619328E+0	1.742695E+0	1.756427E+0	1.885405E+0	1.809681E+0	1.724506E+0	1.746166E+0	1.566386E+0	1.853748E+0	1.801929E+0	1.817796E+0	1.701789E+0	1.849227E+0	1.817884E+0	1.878296E+0	1.856005E+0	1.771708E+0	1.831793E+0	1.940616E+0	1.791648E+0	1.727162E+0	1.876648E+0	1.596213E+0	1.612377E+0	1.901288E+0	1.890820E+0	1.769210E+0	1.473300E+0	1.848920E+0	1.463167E+0	1.841553E+0	1.635883E+0	1.745155E+0	1.751231E+0	1.810950E+0	1.849463E+0	1.712241E+0	1.791248E+0	1.842584E+0	1.749230E+0	1.753083E+0	1.851809E+0	1.755543E+0	1.531016E+0	1.773694E+0	1.767261E+0	1.841391E+0	1.636956E+0	1.721647E+0	1.802087E+0	1.763283E+0	1.817234E+0	1.763847E+0	1.828700E+0	1.801495E+0	1.558957E+0	1.820113E+0	1.800485E+0	1.818344E+0	1.560607E+0	1.691650E+0	1.644782E+0	1.396203E+0	1.570591E+0	1.697980E+0	1.865188E+0	1.765074E+0	1.832009E+0	1.702667E+0	1.477883E+0	1.729724E+0	1.686101E+0	1.725605E+0	1.805611E+0	1.854809E+0	1.626619E+0	1.821927E+0	1.822707E+0
5.354110E+2	1.493625E+0	1.443586E+0	1.582195E+0	1.568681E+0	1.483223E+0	1.439453E+0	1.571766E+0	1.493609E+0	1.365364E+0	1.441834E+0	1.483190E+0	1.454207E+0	1.365383E+0	1.440013E+0	1.443948E+0	1.486164E+0	1.242552E+0	1.377805E+0	1.386012E+0	1.491186E+0	1.556853E+0	1.458079E+0	1.505094E+0	1.538645E+0	1.370150E+0	1.336331E+0	1.492224E+0	1.486546E+0	1.320316E+0	1.577361E+0	1.640275E+0	1.459847E+0	1.397986E+0	1.194891E+0	1.265294E+0	1.315024E+0	1.408090E+0	1.417576E+0	1.446152E+0	1.375495E+0	1.475577E+0	1.517784E+0	1.424577E+0	1.377987E+0	1.420920E+0	1.493204E+0	1.492269E+0	1.436953E+0	1.531255E+0	1.507005E+0	1.468121E+0	1.403924E+0	1.449765E+0	1.617651E+0	1.416591E+0	1.478388E+0	1.183487E+0	1.500104E+0	1.459629E+0	1.415063E+0	1.357943E+0	1.435374E+0	1.438277E+0	1.391074E+0	1.340627E+0	1.505529E+0	1.418459E+0	1.419393E+0	1.423274E+0	1.448125E+0	1.485013E+0	1.446738E+0	1.170352E+0	1.383831E+0	1.431403E+0	1.559429E+0	1.403527E+0	1.452486E+0	1.469513E+0	1.656507E+0	1.504577E+0	1.427041E+0	1.466384E+0	1.273436E+0	1.438402E+0	1.431848E+0	1.515598E+0	1.416789E+0	1.164932E+0	1.399984E+0	1.425263E+0	1.442949E+0	1.336837E+0	1.371976E+0	1.428568E+0	1.503932E+0	1.426799E+0	1.427000E+0	1.397796E+0	1.319602E+0	1.452539E+0	1.488933E+0	1.489404E+0	1.499965E+0	1.536424E+0	1.453337E+0	1.528597E+0	1.461533E+0	1.373132E+0	1.408822E+0	1.517764E+0	1.384190E+0	1.381009E+0	1.502137E+0	1.195853E+0	1.328220E+0	1.465124E+0	1.568683E+0	1.499805E+0	1.329129E+0	1.487530E+0	1.197828E+0	1.492129E+0	1.383177E+0	1.377860E+0	1.402045E+0	1.459777E+0	1.521701E+0	1.350944E+0	1.393436E+0	1.465793E+0	1.445359E+0	1.405184E+0	1.487542E+0	1.439396E+0	1.289356E+0	1.351550E+0	1.382630E+0	1.470660E+0	1.359325E+0	1.412599E+0	1.380255E+0	1.433249E+0	1.433350E+0	1.435636E+0	1.498569E+0	1.431036E+0	1.293609E+0	1.449822E+0	1.421673E+0	1.469407E+0	1.266157E+0	1.316907E+0	1.325876E+0	1.175324E+0	1.342049E+0	1.336905E+0	1.516416E+0	1.424193E+0	1.488598E+0	1.307904E+0	1.207539E+0	1.439717E+0	1.375118E+0	1.356554E+0	1.424150E+0	1.541514E+0	1.282539E+0	1.369377E+0	1.470035E+0
5.355630E+2	1.391037E+0	1.379365E+0	1.409414E+0	1.424814E+0	1.303230E+0	1.336558E+0	1.413330E+0	1.291876E+0	1.274320E+0	1.288301E+0	1.344581E+0	1.312344E+0	1.198962E+0	1.324747E+0	1.336782E+0	1.342379E+0	1.154138E+0	1.202714E+0	1.285090E+0	1.406146E+0	1.412182E+0	1.360152E+0	1.332792E+0	1.391167E+0	1.298759E+0	1.174472E+0	1.294979E+0	1.320281E+0	1.171156E+0	1.398547E+0	1.442995E+0	1.317642E+0	1.258367E+0	1.054414E+0	1.111729E+0	1.214702E+0	1.295622E+0	1.281663E+0	1.323233E+0	1.243484E+0	1.334173E+0	1.388259E+0	1.279792E+0	1.309255E+0	1.301604E+0	1.358632E+0	1.336988E+0	1.264576E+0	1.336360E+0	1.321601E+0	1.322268E+0	1.250444E+0	1.355360E+0	1.395795E+0	1.321143E+0	1.350137E+0	1.017797E+0	1.401384E+0	1.309972E+0	1.277988E+0	1.203273E+0	1.324264E+0	1.342363E+0	1.298341E+0	1.225173E+0	1.346810E+0	1.302598E+0	1.213533E+0	1.364038E+0	1.332573E+0	1.357490E+0	1.258322E+0	1.053235E+0	1.351224E+0	1.327536E+0	1.382118E+0	1.231118E+0	1.277034E+0	1.334914E+0	1.506853E+0	1.374552E+0	1.315540E+0	1.347752E+0	1.154748E+0	1.280250E+0	1.338991E+0	1.383200E+0	1.314272E+0	9.733618E-1	1.312573E+0	1.305331E+0	1.296277E+0	1.182795E+0	1.304292E+0	1.289318E+0	1.394126E+0	1.304206E+0	1.265688E+0	1.239554E+0	1.175467E+0	1.338665E+0	1.339912E+0	1.291227E+0	1.370411E+0	1.420047E+0	1.341038E+0	1.450883E+0	1.327631E+0	1.216719E+0	1.324849E+0	1.360791E+0	1.336761E+0	1.280574E+0	1.404880E+0	1.122481E+0	1.220514E+0	1.415804E+0	1.397150E+0	1.332624E+0	1.307787E+0	1.276497E+0	1.063290E+0	1.365225E+0	1.346906E+0	1.209117E+0	1.256284E+0	1.337875E+0	1.336466E+0	1.289245E+0	1.339554E+0	1.323906E+0	1.309446E+0	1.281965E+0	1.339083E+0	1.312625E+0	1.329315E+0	1.279201E+0	1.237594E+0	1.378402E+0	1.340062E+0	1.247708E+0	1.311383E+0	1.365181E+0	1.327996E+0	1.315988E+0	1.347905E+0	1.293571E+0	1.265852E+0	1.365570E+0	1.396216E+0	1.327188E+0	1.313141E+0	1.241958E+0	1.164184E+0	1.062304E+0	1.355422E+0	1.249355E+0	1.405291E+0	1.310384E+0	1.399815E+0	1.223186E+0	1.128548E+0	1.365386E+0	1.248356E+0	1.233704E+0	1.248985E+0	1.383195E+0	1.238503E+0	1.255318E+0	1.401638E+0
5.357190E+2	1.106824E+0	1.055823E+0	1.126294E+0	1.160765E+0	1.043781E+0	1.018567E+0	1.121038E+0	1.075670E+0	9.773372E-1	1.020734E+0	1.059277E+0	1.057709E+0	9.509919E-1	1.057680E+0	1.038924E+0	1.098706E+0	8.798035E-1	1.011809E+0	9.611123E-1	1.068182E+0	1.075280E+0	1.034385E+0	1.057418E+0	1.107218E+0	1.002907E+0	9.206722E-1	1.079372E+0	1.044956E+0	9.464605E-1	1.067069E+0	1.093964E+0	1.023526E+0	1.036768E+0	8.345370E-1	9.025023E-1	9.696470E-1	1.071198E+0	1.044693E+0	1.104883E+0	1.006184E+0	1.063248E+0	1.122206E+0	1.065274E+0	1.017022E+0	1.053128E+0	1.095948E+0	1.109961E+0	1.011694E+0	1.067854E+0	1.091424E+0	1.105765E+0	9.913446E-1	1.061703E+0	1.180354E+0	1.068369E+0	1.050295E+0	8.417522E-1	1.049065E+0	1.061870E+0	1.041911E+0	9.671122E-1	1.057914E+0	1.063897E+0	9.982783E-1	9.813106E-1	1.032774E+0	1.045193E+0	9.544755E-1	1.078670E+0	1.112926E+0	1.115390E+0	9.893431E-1	8.379548E-1	1.015588E+0	1.045525E+0	1.119050E+0	9.526463E-1	1.051815E+0	1.089858E+0	1.227131E+0	1.002706E+0	9.974900E-1	1.061612E+0	8.904866E-1	1.019968E+0	1.028495E+0	1.080789E+0	1.007166E+0	9.316487E-1	1.097034E+0	1.059838E+0	1.058722E+0	9.679097E-1	1.031511E+0	1.051345E+0	1.133282E+0	1.007686E+0	9.771149E-1	1.037256E+0	9.409151E-1	1.073141E+0	1.047348E+0	1.081119E+0	1.102202E+0	1.085671E+0	1.104919E+0	1.091024E+0	1.091791E+0	1.027948E+0	1.053860E+0	1.088829E+0	1.065461E+0	1.026645E+0	1.106789E+0	9.050215E-1	1.027447E+0	1.084954E+0	1.120366E+0	1.087390E+0	1.094850E+0	1.051223E+0	8.476008E-1	1.125324E+0	1.064577E+0	9.736826E-1	1.024561E+0	1.062954E+0	1.102347E+0	1.009223E+0	9.990619E-1	1.062727E+0	1.086792E+0	1.008961E+0	1.110012E+0	1.062704E+0	1.092471E+0	1.055882E+0	1.064711E+0	1.099926E+0	1.085659E+0	1.051960E+0	1.027832E+0	1.089489E+0	1.075920E+0	1.028391E+0	1.071505E+0	1.033784E+0	9.938434E-1	1.051778E+0	1.016385E+0	1.066449E+0	1.087536E+0	9.816725E-1	9.627690E-1	8.362645E-1	1.134442E+0	9.937712E-1	1.126048E+0	1.059576E+0	1.098759E+0	1.016687E+0	9.099358E-1	1.097924E+0	1.100861E+0	1.027280E+0	1.013670E+0	1.101294E+0	1.087734E+0	1.021072E+0	1.068203E+0
5.358600E+2	9.832981E-1	9.536840E-1	9.529763E-1	9.908500E-1	8.881130E-1	9.596224E-1	9.811758E-1	9.506825E-1	9.155557E-1	9.500870E-1	9.223996E-1	9.398317E-1	8.732349E-1	9.316073E-1	8.960343E-1	9.396928E-1	7.822952E-1	9.310423E-1	8.544572E-1	9.727172E-1	1.015084E+0	8.854914E-1	9.826369E-1	9.764676E-1	8.521262E-1	8.700223E-1	9.147054E-1	9.738528E-1	8.916094E-1	9.776617E-1	1.042256E+0	9.232789E-1	8.966533E-1	7.765138E-1	7.951554E-1	8.630562E-1	9.525967E-1	8.905875E-1	9.075178E-1	8.745765E-1	9.788814E-1	9.780941E-1	9.376268E-1	9.423400E-1	9.089077E-1	9.807676E-1	9.916275E-1	9.101908E-1	9.495897E-1	9.450524E-1	9.650386E-1	9.143438E-1	9.325149E-1	1.048309E+0	9.379082E-1	9.521167E-1	7.584144E-1	9.745805E-1	8.985556E-1	9.487690E-1	8.653814E-1	9.608241E-1	9.690123E-1	8.725252E-1	8.905991E-1	9.636185E-1	9.538735E-1	8.926027E-1	9.545303E-1	9.415906E-1	9.858710E-1	8.985461E-1	7.582568E-1	9.363179E-1	9.259890E-1	1.003740E+0	9.004001E-1	9.102210E-1	9.434416E-1	1.070944E+0	9.297948E-1	8.700575E-1	9.407849E-1	8.189693E-1	9.052013E-1	9.135320E-1	9.923608E-1	9.155807E-1	9.203191E-1	9.135276E-1	9.432847E-1	9.845221E-1	8.732632E-1	9.279358E-1	9.474268E-1	9.889403E-1	9.255538E-1	9.006461E-1	8.894449E-1	8.350744E-1	9.480946E-1	9.700953E-1	9.996701E-1	9.780020E-1	9.959750E-1	9.718859E-1	9.965758E-1	9.916654E-1	9.438100E-1	9.554598E-1	9.519350E-1	9.532686E-1	9.407378E-1	1.007004E+0	8.130404E-1	8.973995E-1	9.534364E-1	1.040704E+0	9.620041E-1	9.132122E-1	8.992809E-1	7.707217E-1	9.520620E-1	9.394346E-1	8.812274E-1	9.241827E-1	9.711400E-1	9.881183E-1	9.107402E-1	8.987493E-1	9.098031E-1	9.873426E-1	9.171535E-1	9.697145E-1	9.545605E-1	1.003895E+0	9.214344E-1	8.790673E-1	9.923843E-1	9.525085E-1	9.042647E-1	9.401298E-1	9.093150E-1	9.729732E-1	9.043504E-1	9.391203E-1	9.469940E-1	8.961414E-1	9.418003E-1	9.715800E-1	9.512401E-1	9.698488E-1	8.794172E-1	8.469551E-1	7.794965E-1	9.506754E-1	8.948007E-1	9.288680E-1	9.490043E-1	9.844604E-1	9.002001E-1	8.209330E-1	9.681524E-1	9.350032E-1	9.099693E-1	9.007618E-1	9.890687E-1	1.003393E+0	9.389017E-1	9.976673E-1
5.360070E+2	8.168529E-1	7.139330E-1	7.683548E-1	7.528509E-1	7.135268E-1	7.486624E-1	7.391487E-1	7.542110E-1	7.258776E-1	7.264638E-1	7.375867E-1	7.454110E-1	6.608242E-1	7.226871E-1	7.305034E-1	7.363343E-1	6.216353E-1	6.966478E-1	7.351875E-1	7.543562E-1	7.839090E-1	7.445919E-1	7.663792E-1	7.356600E-1	6.899225E-1	7.048602E-1	7.150918E-1	7.300696E-1	6.649875E-1	7.708686E-1	8.078825E-1	7.400071E-1	7.212619E-1	5.978641E-1	6.555046E-1	6.958549E-1	7.153918E-1	7.273878E-1	7.526230E-1	6.891114E-1	7.465742E-1	7.645519E-1	7.148347E-1	7.356127E-1	7.067676E-1	7.909539E-1	7.549617E-1	6.914357E-1	7.516794E-1	6.959330E-1	7.576526E-1	6.901044E-1	7.417139E-1	8.350043E-1	7.546846E-1	7.597403E-1	5.833557E-1	7.789135E-1	7.471910E-1	7.771306E-1	6.806049E-1	7.401626E-1	7.245827E-1	6.938493E-1	6.897370E-1	7.289411E-1	7.016050E-1	6.821194E-1	7.763048E-1	7.976492E-1	7.841220E-1	7.105580E-1	6.192724E-1	7.142477E-1	7.374028E-1	7.644300E-1	6.955969E-1	7.245067E-1	7.538707E-1	8.407462E-1	7.475175E-1	7.495279E-1	7.315334E-1	6.226753E-1	7.294824E-1	7.184895E-1	7.808195E-1	7.155532E-1	7.555258E-1	7.104751E-1	7.315741E-1	7.360392E-1	6.873506E-1	7.428327E-1	7.458262E-1	8.038742E-1	7.172045E-1	7.175658E-1	7.080149E-1	6.467947E-1	7.698373E-1	7.901724E-1	7.900808E-1	7.777831E-1	7.444836E-1	7.668662E-1	7.879532E-1	8.052870E-1	7.021824E-1	7.658714E-1	7.712342E-1	7.370443E-1	7.480803E-1	7.733308E-1	6.237604E-1	7.146446E-1	7.633525E-1	7.778759E-1	7.696451E-1	7.562357E-1	7.257080E-1	6.084208E-1	8.054552E-1	7.296545E-1	7.008635E-1	7.495892E-1	7.371963E-1	7.401086E-1	6.959780E-1	7.244911E-1	7.489964E-1	7.923129E-1	7.403026E-1	7.692140E-1	7.237841E-1	7.410567E-1	7.060908E-1	7.230092E-1	7.495681E-1	7.360699E-1	7.171152E-1	7.329801E-1	7.428688E-1	7.492803E-1	7.418919E-1	7.214338E-1	7.681715E-1	6.907465E-1	7.395012E-1	7.765734E-1	7.390120E-1	7.809926E-1	7.417207E-1	6.768710E-1	6.117731E-1	7.640022E-1	7.349262E-1	7.767089E-1	7.715512E-1	7.242261E-1	7.307648E-1	6.368086E-1	7.469931E-1	7.093183E-1	7.090811E-1	7.382582E-1	7.946778E-1	7.264859E-1	7.635236E-1	7.860650E-1
5.362840E+2	6.263312E-1	6.032319E-1	6.768516E-1	6.658205E-1	6.016396E-1	5.832035E-1	6.293351E-1	6.235222E-1	6.201997E-1	6.124272E-1	6.301640E-1	5.734422E-1	5.854380E-1	6.105079E-1	6.017009E-1	6.261445E-1	5.569669E-1	5.418904E-1	5.803656E-1	6.029302E-1	6.761623E-1	6.196813E-1	6.329864E-1	6.370475E-1	6.288102E-1	5.738317E-1	6.564512E-1	6.247507E-1	5.600968E-1	6.419271E-1	6.561302E-1	6.013385E-1	6.144374E-1	5.026855E-1	5.262910E-1	5.720216E-1	5.865649E-1	6.258299E-1	6.292067E-1	5.619581E-1	5.950698E-1	6.426107E-1	5.806864E-1	5.840843E-1	5.839780E-1	6.740103E-1	6.505499E-1	6.096213E-1	6.346226E-1	6.155720E-1	6.505410E-1	6.073797E-1	6.403504E-1	6.863867E-1	6.088729E-1	6.451991E-1	4.852240E-1	6.707347E-1	6.345208E-1	6.166213E-1	5.908125E-1	6.030938E-1	5.992738E-1	5.943152E-1	5.554364E-1	6.246395E-1	6.159928E-1	5.849724E-1	6.243482E-1	6.387653E-1	6.620759E-1	5.877898E-1	5.352015E-1	6.203596E-1	6.590662E-1	6.479611E-1	5.785664E-1	6.285714E-1	6.310871E-1	6.948999E-1	5.816453E-1	5.790868E-1	6.244369E-1	5.308682E-1	5.773759E-1	6.261264E-1	6.440258E-1	5.706579E-1	6.175125E-1	6.176355E-1	6.088267E-1	6.094968E-1	5.946359E-1	6.238745E-1	6.039783E-1	6.353042E-1	6.550017E-1	5.668603E-1	5.764347E-1	5.345714E-1	6.240392E-1	6.366641E-1	6.614216E-1	6.482291E-1	6.627352E-1	6.499581E-1	6.516604E-1	6.267500E-1	5.657275E-1	6.113154E-1	6.611106E-1	6.365822E-1	5.958488E-1	6.476531E-1	5.238033E-1	6.086584E-1	6.395413E-1	6.679771E-1	6.462727E-1	6.172809E-1	6.470991E-1	5.112545E-1	6.269768E-1	6.002796E-1	5.775896E-1	6.155747E-1	6.293022E-1	6.392575E-1	5.808843E-1	6.310569E-1	6.086852E-1	6.436919E-1	6.185372E-1	6.273851E-1	6.528959E-1	6.404463E-1	5.950005E-1	6.011799E-1	6.403281E-1	6.425807E-1	5.653736E-1	5.855544E-1	6.650798E-1	6.434470E-1	6.118141E-1	6.372392E-1	6.202207E-1	6.052581E-1	5.503180E-1	6.146622E-1	6.717602E-1	6.470254E-1	5.703274E-1	5.465110E-1	4.904963E-1	6.372273E-1	5.815762E-1	6.285389E-1	6.243025E-1	6.231937E-1	5.736840E-1	5.277804E-1	6.592606E-1	6.044726E-1	6.013372E-1	6.200736E-1	6.223313E-1	6.794645E-1	5.856913E-1	6.043856E-1
5.365090E+2	4.734951E-1	4.851905E-1	5.094545E-1	5.166266E-1	4.881311E-1	4.678995E-1	4.807314E-1	5.059903E-1	4.890504E-1	4.744713E-1	4.805814E-1	4.667913E-1	4.816034E-1	4.808337E-1	4.980556E-1	4.756416E-1	4.266199E-1	4.430495E-1	4.605225E-1	4.756438E-1	4.900084E-1	4.657919E-1	4.788775E-1	5.190649E-1	5.202936E-1	4.345447E-1	4.775687E-1	4.830787E-1	5.350769E-1	5.087283E-1	5.515903E-1	4.790103E-1	5.021468E-1	3.672987E-1	4.179505E-1	4.440085E-1	4.689852E-1	4.873870E-1	5.182823E-1	4.680104E-1	4.685199E-1	5.154193E-1	4.778597E-1	4.325563E-1	5.034695E-1	4.830216E-1	4.834917E-1	4.674303E-1	4.807591E-1	4.680524E-1	4.739209E-1	4.721083E-1	4.704181E-1	5.260072E-1	4.726551E-1	5.116410E-1	3.718055E-1	5.259052E-1	4.774657E-1	4.895033E-1	4.750677E-1	4.618707E-1	4.971702E-1	4.447715E-1	4.947654E-1	4.732897E-1	4.744489E-1	4.380967E-1	4.842402E-1	5.122554E-1	5.355466E-1	4.620381E-1	3.962167E-1	4.646293E-1	4.716401E-1	4.938286E-1	4.751196E-1	4.659434E-1	4.512776E-1	5.735430E-1	4.728869E-1	4.543095E-1	4.788953E-1	4.289172E-1	4.604128E-1	4.929864E-1	4.940415E-1	4.667705E-1	4.609593E-1	4.922214E-1	4.703143E-1	4.967598E-1	4.454227E-1	4.679987E-1	4.532972E-1	5.157069E-1	5.070435E-1	4.725297E-1	4.674601E-1	4.170297E-1	4.942033E-1	4.956160E-1	4.648016E-1	4.742420E-1	5.168360E-1	5.031039E-1	5.261281E-1	4.880216E-1	4.637906E-1	4.876711E-1	5.071798E-1	4.927726E-1	4.853070E-1	5.352379E-1	4.153401E-1	4.448093E-1	4.920976E-1	5.266783E-1	4.811058E-1	5.025128E-1	5.046534E-1	3.671053E-1	4.687811E-1	5.108059E-1	4.765453E-1	4.436506E-1	4.799102E-1	5.126798E-1	4.764691E-1	4.585181E-1	4.694245E-1	5.088839E-1	4.803424E-1	4.891272E-1	4.966314E-1	4.839951E-1	4.696685E-1	4.921137E-1	5.118448E-1	5.054649E-1	5.102405E-1	4.854770E-1	4.688900E-1	4.938373E-1	4.488072E-1	5.142717E-1	5.177032E-1	4.503792E-1	4.751492E-1	5.016291E-1	5.014267E-1	5.135235E-1	4.378606E-1	4.480410E-1	3.723157E-1	5.215021E-1	4.559608E-1	5.157026E-1	4.765149E-1	5.145079E-1	4.489609E-1	3.953895E-1	5.179137E-1	4.711941E-1	4.659017E-1	4.660116E-1	5.308134E-1	5.286956E-1	4.716347E-1	4.868296E-1
5.367660E+2	4.844864E-1	4.986462E-1	5.331380E-1	5.059701E-1	4.881309E-1	4.911675E-1	5.293554E-1	5.016047E-1	4.847145E-1	4.939405E-1	5.054157E-1	4.724041E-1	4.986719E-1	5.003883E-1	4.744081E-1	4.980379E-1	4.544072E-1	4.571701E-1	4.886195E-1	5.222789E-1	5.502050E-1	5.037642E-1	5.041417E-1	5.344735E-1	5.214359E-1	4.571168E-1	5.113312E-1	5.082055E-1	5.321902E-1	5.148102E-1	5.212396E-1	4.874009E-1	5.394113E-1	3.912206E-1	4.065198E-1	4.711782E-1	4.812543E-1	4.808186E-1	4.708146E-1	4.574817E-1	5.000089E-1	5.375902E-1	4.689950E-1	4.796384E-1	5.393796E-1	5.059403E-1	5.107988E-1	4.722427E-1	5.018774E-1	5.088064E-1	5.024081E-1	4.934395E-1	5.106650E-1	5.655674E-1	4.884834E-1	4.957205E-1	4.078036E-1	4.904366E-1	4.820184E-1	4.854025E-1	5.378711E-1	5.189827E-1	4.775749E-1	4.807005E-1	5.159701E-1	4.919958E-1	4.841509E-1	4.762616E-1	5.156616E-1	4.828700E-1	5.280750E-1	4.935827E-1	4.175985E-1	4.966752E-1	5.029745E-1	5.170066E-1	4.845238E-1	4.854378E-1	5.180639E-1	5.321833E-1	5.093423E-1	4.803269E-1	5.091022E-1	4.238450E-1	4.757885E-1	4.924949E-1	5.262854E-1	5.023110E-1	5.294510E-1	4.943924E-1	5.333772E-1	4.933083E-1	5.448978E-1	4.818432E-1	4.683655E-1	5.038502E-1	5.360309E-1	4.608084E-1	4.854294E-1	4.457505E-1	5.266621E-1	5.150537E-1	4.679143E-1	5.111805E-1	5.429501E-1	5.192295E-1	5.566142E-1	5.447195E-1	4.907582E-1	5.098242E-1	4.956201E-1	4.932825E-1	4.872027E-1	5.080807E-1	3.983262E-1	4.597051E-1	5.085373E-1	5.191183E-1	5.349863E-1	4.949248E-1	5.146774E-1	4.082147E-1	5.319439E-1	5.114107E-1	4.917019E-1	4.943737E-1	5.333384E-1	4.859235E-1	4.735025E-1	4.711285E-1	5.151444E-1	4.851261E-1	4.740615E-1	5.151458E-1	5.240553E-1	5.099902E-1	4.656807E-1	4.677478E-1	5.288250E-1	4.935663E-1	4.758457E-1	4.811727E-1	4.820457E-1	5.053832E-1	5.069849E-1	4.982082E-1	4.955691E-1	5.003400E-1	5.084451E-1	5.011206E-1	5.350524E-1	5.502717E-1	4.878259E-1	4.581115E-1	4.115367E-1	4.947513E-1	4.793432E-1	4.940470E-1	5.234399E-1	5.430830E-1	4.401362E-1	4.782730E-1	5.331451E-1	5.120657E-1	4.835233E-1	5.198279E-1	5.401657E-1	5.637756E-1	4.777664E-1	4.953784E-1
5.370170E+2	5.357806E-1	4.656194E-1	5.654326E-1	5.278759E-1	5.027253E-1	5.009911E-1	5.517552E-1	5.327416E-1	5.156053E-1	5.195294E-1	5.083033E-1	5.423145E-1	5.294905E-1	5.178838E-1	4.759173E-1	4.993815E-1	4.432922E-1	4.916230E-1	5.063957E-1	5.025272E-1	5.304768E-1	4.947707E-1	5.021201E-1	5.463602E-1	5.431393E-1	4.549149E-1	5.148856E-1	5.092749E-1	5.336336E-1	4.923063E-1	5.246114E-1	5.443697E-1	5.771728E-1	4.176870E-1	4.547266E-1	4.837186E-1	5.170392E-1	4.899136E-1	4.833059E-1	4.890676E-1	5.267450E-1	5.609279E-1	4.920422E-1	5.066967E-1	5.185286E-1	5.106411E-1	5.033025E-1	4.866810E-1	5.507521E-1	5.352106E-1	5.006988E-1	5.064463E-1	5.384904E-1	5.687748E-1	5.009544E-1	4.966049E-1	4.009001E-1	5.188114E-1	4.842946E-1	4.977044E-1	5.280091E-1	5.034069E-1	5.038740E-1	4.850701E-1	4.929978E-1	5.254407E-1	5.012735E-1	4.733702E-1	5.120562E-1	5.097654E-1	5.460078E-1	4.778106E-1	3.957307E-1	4.876800E-1	5.076166E-1	5.824837E-1	5.320672E-1	4.926204E-1	5.298799E-1	5.724543E-1	5.312154E-1	4.920086E-1	4.948227E-1	4.299320E-1	4.950076E-1	5.062513E-1	5.629265E-1	5.036777E-1	5.263611E-1	5.340259E-1	5.040977E-1	5.042368E-1	5.400691E-1	5.028654E-1	5.265596E-1	5.193152E-1	5.613950E-1	4.954146E-1	5.057174E-1	4.574514E-1	5.229378E-1	5.160507E-1	5.083794E-1	5.106454E-1	5.940435E-1	5.255643E-1	5.667769E-1	5.242114E-1	5.781323E-1	5.072476E-1	5.552451E-1	5.121513E-1	5.585807E-1	5.055547E-1	4.153401E-1	4.723086E-1	5.316558E-1	5.377261E-1	5.319651E-1	5.124719E-1	5.484425E-1	4.146210E-1	5.354210E-1	5.065744E-1	5.775892E-1	5.258752E-1	5.198522E-1	5.471545E-1	5.441017E-1	4.820201E-1	4.904450E-1	5.232481E-1	4.846916E-1	5.080034E-1	4.961132E-1	5.210619E-1	4.856200E-1	4.694880E-1	5.441071E-1	4.884670E-1	5.734658E-1	5.317491E-1	5.335239E-1	5.140420E-1	5.437571E-1	5.391972E-1	5.316829E-1	4.914583E-1	4.973469E-1	5.133403E-1	4.832353E-1	5.060811E-1	4.924742E-1	4.620284E-1	4.094728E-1	5.104525E-1	5.261100E-1	5.339385E-1	4.991685E-1	5.344083E-1	5.377970E-1	4.921796E-1	5.477670E-1	5.031804E-1	4.830196E-1	5.008341E-1	5.181219E-1	5.092899E-1	5.194650E-1	5.317150E-1
5.372640E+2	5.493893E-1	5.359543E-1	5.950371E-1	5.776071E-1	5.086711E-1	5.408048E-1	5.424671E-1	5.511608E-1	5.188566E-1	5.445617E-1	5.752980E-1	5.412939E-1	5.792740E-1	5.209712E-1	5.357906E-1	5.226736E-1	4.917933E-1	5.435847E-1	5.006613E-1	5.716568E-1	5.891557E-1	5.397384E-1	5.587108E-1	5.679312E-1	5.996824E-1	4.736330E-1	5.190319E-1	5.670125E-1	6.091740E-1	5.786727E-1	5.622691E-1	5.439283E-1	6.263617E-1	4.416091E-1	4.492598E-1	5.396263E-1	5.584477E-1	5.389240E-1	5.482617E-1	5.121496E-1	5.707105E-1	5.626788E-1	5.623665E-1	5.478258E-1	5.694981E-1	5.882124E-1	5.686267E-1	5.190567E-1	5.543719E-1	5.926113E-1	5.365926E-1	5.173722E-1	5.911595E-1	5.890899E-1	5.541944E-1	5.479051E-1	4.536639E-1	5.897483E-1	5.446121E-1	5.392962E-1	5.965219E-1	5.688264E-1	5.936017E-1	5.142022E-1	5.872442E-1	6.019657E-1	5.212493E-1	5.248347E-1	6.027146E-1	5.421398E-1	5.644393E-1	5.396203E-1	4.472426E-1	5.961845E-1	5.639024E-1	6.160918E-1	5.513982E-1	5.305838E-1	5.591632E-1	6.388472E-1	5.597718E-1	5.504152E-1	5.261278E-1	4.623933E-1	5.339953E-1	5.593104E-1	5.590182E-1	5.674683E-1	5.747689E-1	5.313114E-1	5.384442E-1	5.485271E-1	6.168487E-1	5.459364E-1	5.426665E-1	6.074666E-1	5.952145E-1	5.478825E-1	5.254253E-1	4.696838E-1	5.889194E-1	5.778531E-1	5.861972E-1	5.748871E-1	6.105067E-1	5.555112E-1	6.056319E-1	5.797031E-1	5.894587E-1	5.582513E-1	5.753226E-1	5.315299E-1	5.585799E-1	5.933397E-1	4.578752E-1	5.381914E-1	5.933046E-1	5.685441E-1	5.551290E-1	5.689077E-1	5.758763E-1	4.744162E-1	5.875735E-1	5.966530E-1	6.180070E-1	5.472317E-1	5.582368E-1	5.842019E-1	5.791037E-1	5.267305E-1	5.697976E-1	5.436906E-1	5.460577E-1	5.447362E-1	5.799377E-1	5.489826E-1	5.739220E-1	5.327237E-1	5.780678E-1	5.757224E-1	5.820650E-1	5.161455E-1	5.249447E-1	5.664775E-1	5.832746E-1	5.785251E-1	5.800292E-1	5.164392E-1	5.593988E-1	5.693473E-1	5.560001E-1	5.977178E-1	5.616128E-1	4.939195E-1	4.301157E-1	5.831448E-1	5.978908E-1	6.017544E-1	5.671290E-1	5.782906E-1	5.442682E-1	6.023207E-1	5.587335E-1	5.855167E-1	5.011451E-1	5.694231E-1	5.889305E-1	5.697464E-1	5.771073E-1	5.253018E-1
5.375110E+2	6.786726E-1	6.601109E-1	7.199114E-1	7.404182E-1	6.562319E-1	6.199143E-1	7.233051E-1	6.941289E-1	6.711412E-1	6.630483E-1	6.861852E-1	6.392699E-1	6.821600E-1	6.413836E-1	6.862278E-1	6.731770E-1	5.989003E-1	6.322593E-1	6.463086E-1	7.137564E-1	7.242182E-1	6.541564E-1	7.037251E-1	7.167299E-1	7.104837E-1	6.112684E-1	6.795520E-1	6.947855E-1	7.381229E-1	7.295101E-1	7.314446E-1	6.848049E-1	7.391490E-1	5.444218E-1	5.928860E-1	6.378570E-1	6.898305E-1	6.591768E-1	7.056547E-1	6.518564E-1	6.877553E-1	7.038731E-1	6.604655E-1	6.690484E-1	7.420990E-1	7.186727E-1	7.046297E-1	6.489975E-1	7.124589E-1	6.546040E-1	7.234682E-1	6.599279E-1	6.766225E-1	7.633681E-1	6.789010E-1	7.031332E-1	5.927248E-1	7.274838E-1	6.601280E-1	6.494257E-1	7.460037E-1	6.731860E-1	6.884855E-1	7.016181E-1	6.973947E-1	6.773574E-1	6.639354E-1	6.323894E-1	6.671026E-1	6.840891E-1	6.755260E-1	6.653726E-1	5.687327E-1	6.675850E-1	7.066484E-1	7.215506E-1	6.694737E-1	6.634569E-1	7.055797E-1	7.993871E-1	6.733919E-1	6.741300E-1	6.991301E-1	5.678951E-1	6.586460E-1	6.590432E-1	6.865292E-1	6.485735E-1	7.055734E-1	7.186188E-1	6.983537E-1	6.911739E-1	7.395028E-1	6.587414E-1	6.611334E-1	7.208777E-1	7.178085E-1	6.561674E-1	6.396161E-1	5.946716E-1	7.198191E-1	7.004599E-1	6.443018E-1	6.873097E-1	7.427806E-1	7.040930E-1	7.120358E-1	7.497956E-1	7.550380E-1	6.643796E-1	6.976156E-1	6.717697E-1	7.373415E-1	7.152293E-1	5.971760E-1	6.659481E-1	7.083825E-1	7.203094E-1	6.795076E-1	6.974292E-1	7.394252E-1	5.411516E-1	6.652229E-1	7.030542E-1	7.382498E-1	6.887225E-1	6.516072E-1	7.004888E-1	6.858924E-1	6.895245E-1	6.748997E-1	7.044663E-1	6.712055E-1	7.258488E-1	6.684187E-1	6.832905E-1	7.545143E-1	6.626749E-1	7.116452E-1	7.100058E-1	7.580859E-1	6.888602E-1	7.228494E-1	7.069471E-1	7.298170E-1	6.333622E-1	6.650715E-1	6.690971E-1	6.643319E-1	6.976542E-1	7.263331E-1	6.954026E-1	6.737442E-1	6.584085E-1	5.472639E-1	6.924737E-1	7.501524E-1	7.772792E-1	6.750035E-1	7.104490E-1	6.978191E-1	6.879856E-1	7.098288E-1	6.654843E-1	6.688034E-1	6.839146E-1	7.038285E-1	6.690149E-1	7.058818E-1	6.706464E-1
5.377740E+2	8.262749E-1	8.117910E-1	8.560902E-1	8.836913E-1	8.054138E-1	7.895101E-1	8.937622E-1	8.169241E-1	8.109622E-1	7.820912E-1	7.866777E-1	7.979709E-1	8.722862E-1	8.101659E-1	7.818231E-1	7.963564E-1	7.024704E-1	7.932294E-1	7.902347E-1	8.569530E-1	8.865968E-1	8.105449E-1	8.234756E-1	8.919427E-1	9.058139E-1	7.400948E-1	8.051256E-1	8.220228E-1	8.420509E-1	8.712247E-1	8.843202E-1	7.921182E-1	8.390177E-1	6.675933E-1	6.848266E-1	7.737082E-1	8.288818E-1	8.137874E-1	8.005903E-1	8.049260E-1	8.654014E-1	8.503181E-1	8.093881E-1	7.789060E-1	8.741563E-1	8.838042E-1	8.261755E-1	7.911881E-1	8.946819E-1	7.619431E-1	8.385561E-1	7.884361E-1	8.271767E-1	9.397851E-1	8.227936E-1	8.415557E-1	6.878981E-1	8.516233E-1	7.961285E-1	8.005621E-1	8.887377E-1	8.408880E-1	8.210139E-1	8.016380E-1	8.652704E-1	8.281403E-1	8.066216E-1	7.382094E-1	8.860216E-1	8.439689E-1	8.548583E-1	8.013546E-1	6.411403E-1	7.699055E-1	7.826631E-1	9.011783E-1	8.424073E-1	8.086422E-1	8.165472E-1	8.799291E-1	8.088847E-1	7.920054E-1	7.815124E-1	7.063664E-1	7.898857E-1	7.779355E-1	8.565445E-1	7.907338E-1	8.430725E-1	8.109158E-1	8.087130E-1	8.482017E-1	9.384532E-1	7.915437E-1	8.175294E-1	8.322269E-1	9.291774E-1	7.767322E-1	8.053956E-1	6.946621E-1	8.299656E-1	8.380192E-1	7.942307E-1	8.329237E-1	8.977623E-1	8.377016E-1	8.853900E-1	8.306202E-1	9.341018E-1	8.220272E-1	8.436362E-1	7.875307E-1	8.952581E-1	8.787997E-1	7.199957E-1	7.782362E-1	8.876774E-1	8.953345E-1	8.215111E-1	8.164656E-1	8.475784E-1	6.852999E-1	8.778893E-1	8.191281E-1	9.216447E-1	7.987108E-1	7.786939E-1	8.672010E-1	8.353955E-1	7.886912E-1	8.351806E-1	8.762919E-1	8.108499E-1	8.192113E-1	8.117484E-1	7.766791E-1	8.559194E-1	7.821834E-1	8.701272E-1	8.573206E-1	8.744216E-1	8.524270E-1	8.160821E-1	8.320227E-1	8.714195E-1	7.856871E-1	8.124401E-1	7.956648E-1	8.540191E-1	8.366540E-1	8.150834E-1	8.382076E-1	8.555963E-1	7.641511E-1	6.613161E-1	8.186670E-1	8.735930E-1	8.564925E-1	8.076893E-1	8.589352E-1	8.184243E-1	8.637653E-1	7.896408E-1	8.378579E-1	7.594292E-1	8.173997E-1	8.401027E-1	8.563564E-1	9.205048E-1	8.288150E-1
5.380110E+2	9.047866E-1	8.747864E-1	9.239107E-1	9.008599E-1	8.621679E-1	8.825806E-1	8.839284E-1	8.436757E-1	8.646141E-1	8.616392E-1	8.265284E-1	9.030908E-1	9.097430E-1	8.719158E-1	8.849655E-1	8.716082E-1	7.807800E-1	8.271178E-1	7.902343E-1	8.953577E-1	9.472993E-1	8.869896E-1	8.886554E-1	8.615669E-1	9.417953E-1	8.182712E-1	8.507342E-1	9.006107E-1	9.685933E-1	9.302212E-1	9.601969E-1	8.808834E-1	9.224902E-1	6.889706E-1	7.166332E-1	7.930406E-1	9.234566E-1	8.825033E-1	8.725414E-1	8.178841E-1	8.891667E-1	8.829921E-1	8.613933E-1	8.503411E-1	9.309178E-1	9.466833E-1	8.947128E-1	8.629396E-1	9.622611E-1	8.423046E-1	8.533691E-1	8.534710E-1	9.022055E-1	9.558228E-1	9.038532E-1	8.641101E-1	7.485521E-1	8.989148E-1	9.070913E-1	8.321955E-1	9.380464E-1	8.808666E-1	8.586582E-1	8.225156E-1	8.664491E-1	8.955958E-1	8.511403E-1	8.243695E-1	8.741741E-1	8.977600E-1	9.255950E-1	8.623123E-1	7.048014E-1	8.289367E-1	9.201868E-1	8.948048E-1	9.265237E-1	8.666141E-1	9.100484E-1	9.691783E-1	8.666057E-1	8.493499E-1	9.149718E-1	7.489720E-1	8.360121E-1	8.442605E-1	8.878112E-1	8.472343E-1	9.079594E-1	8.641217E-1	8.582625E-1	8.890403E-1	9.563205E-1	7.930819E-1	8.492243E-1	9.384205E-1	9.285734E-1	7.962679E-1	8.274226E-1	7.584862E-1	8.783881E-1	8.803837E-1	8.694545E-1	8.629032E-1	9.494234E-1	8.924122E-1	9.362014E-1	8.981745E-1	9.794069E-1	8.756056E-1	9.002194E-1	8.890136E-1	9.691632E-1	9.147983E-1	7.401996E-1	8.504217E-1	8.994940E-1	9.342932E-1	8.985560E-1	8.705301E-1	9.230218E-1	7.146631E-1	8.981709E-1	8.632605E-1	9.570100E-1	8.569081E-1	8.611708E-1	9.093934E-1	9.160796E-1	8.695151E-1	8.714409E-1	9.116516E-1	8.818798E-1	8.559440E-1	8.562477E-1	8.941379E-1	8.946584E-1	8.430986E-1	8.588072E-1	9.071814E-1	9.199445E-1	8.691069E-1	8.704205E-1	8.777233E-1	9.070950E-1	8.432938E-1	8.514664E-1	8.572831E-1	8.736948E-1	9.155729E-1	8.801301E-1	8.991441E-1	8.968467E-1	8.374436E-1	7.247929E-1	9.128751E-1	9.491807E-1	9.362770E-1	8.713348E-1	9.303722E-1	8.813739E-1	9.421993E-1	8.530030E-1	8.591827E-1	8.586147E-1	8.954854E-1	9.129163E-1	8.750161E-1	9.474867E-1	9.442340E-1
5.382690E+2	1.106300E+0	1.118819E+0	1.154821E+0	1.147148E+0	1.047565E+0	1.058898E+0	1.147809E+0	1.077862E+0	1.103067E+0	1.156465E+0	1.102592E+0	1.029644E+0	1.079956E+0	1.242414E+0	1.071628E+0	1.089301E+0	9.267891E-1	1.124206E+0	1.025335E+0	1.160354E+0	1.165828E+0	1.046876E+0	1.044281E+0	1.153883E+0	1.210803E+0	9.916916E-1	1.103657E+0	1.125148E+0	1.209651E+0	1.166208E+0	1.151854E+0	1.087119E+0	1.163964E+0	9.144463E-1	9.189027E-1	1.012492E+0	1.081934E+0	1.061872E+0	1.110878E+0	1.041415E+0	1.155933E+0	1.138542E+0	1.039863E+0	1.060857E+0	1.129003E+0	1.225821E+0	1.096039E+0	1.026130E+0	1.136640E+0	1.114958E+0	1.072720E+0	1.053777E+0	1.133252E+0	1.201203E+0	1.107222E+0	1.100268E+0	9.098032E-1	1.181480E+0	1.114222E+0	1.059486E+0	1.126975E+0	1.123335E+0	1.084008E+0	1.014301E+0	1.073202E+0	1.162584E+0	1.057178E+0	1.044105E+0	1.088458E+0	1.094995E+0	1.115887E+0	1.046465E+0	8.617659E-1	1.041450E+0	1.057130E+0	1.135853E+0	1.096845E+0	1.085162E+0	1.078556E+0	1.167268E+0	1.146098E+0	1.035188E+0	1.114337E+0	9.391796E-1	1.023812E+0	1.090397E+0	1.084208E+0	1.049541E+0	1.075842E+0	1.096492E+0	1.059275E+0	1.073677E+0	1.177483E+0	1.065353E+0	1.088755E+0	1.147202E+0	1.206373E+0	1.042421E+0	1.014650E+0	9.355962E-1	1.126885E+0	1.071771E+0	1.118991E+0	1.082394E+0	1.170826E+0	1.118164E+0	1.122109E+0	1.176234E+0	1.189214E+0	1.118258E+0	1.135069E+0	1.107787E+0	1.110025E+0	1.099842E+0	9.544681E-1	1.049790E+0	1.107045E+0	1.141299E+0	1.091920E+0	1.068292E+0	1.136163E+0	9.463691E-1	1.117212E+0	1.092991E+0	1.218210E+0	1.031501E+0	1.126238E+0	1.088455E+0	1.132622E+0	1.078739E+0	1.044859E+0	1.099500E+0	1.022491E+0	1.125318E+0	1.101511E+0	1.094877E+0	1.059300E+0	9.753704E-1	1.155961E+0	1.082826E+0	1.189541E+0	1.065496E+0	1.066610E+0	1.055715E+0	1.086568E+0	1.089230E+0	1.090867E+0	1.018269E+0	1.047743E+0	1.071883E+0	1.105037E+0	1.110327E+0	1.065335E+0	9.996947E-1	8.780659E-1	1.078032E+0	1.194430E+0	1.156822E+0	1.055801E+0	1.103351E+0	1.085520E+0	1.099066E+0	1.126559E+0	1.067689E+0	1.070075E+0	1.108640E+0	1.107307E+0	1.134755E+0	1.078715E+0	1.136600E+0
5.385110E+2	1.339218E+0	1.388539E+0	1.409418E+0	1.399950E+0	1.317283E+0	1.291574E+0	1.344491E+0	1.313805E+0	1.314423E+0	1.365624E+0	1.303576E+0	1.312345E+0	1.383873E+0	1.464714E+0	1.315650E+0	1.345962E+0	1.185968E+0	1.334877E+0	1.278783E+0	1.323303E+0	1.423307E+0	1.291700E+0	1.310054E+0	1.366955E+0	1.446685E+0	1.264209E+0	1.333480E+0	1.263611E+0	1.485832E+0	1.509850E+0	1.440183E+0	1.313226E+0	1.380098E+0	1.117527E+0	1.157948E+0	1.237693E+0	1.303801E+0	1.316019E+0	1.312741E+0	1.273045E+0	1.328827E+0	1.452439E+0	1.353663E+0	1.334690E+0	1.405861E+0	1.505544E+0	1.349838E+0	1.290387E+0	1.321275E+0	1.380722E+0	1.374115E+0	1.275936E+0	1.324553E+0	1.446048E+0	1.339848E+0	1.383306E+0	1.097683E+0	1.510744E+0	1.281520E+0	1.364100E+0	1.403102E+0	1.556347E+0	1.347518E+0	1.202689E+0	1.315297E+0	1.352479E+0	1.320293E+0	1.287549E+0	1.297075E+0	1.423221E+0	1.356492E+0	1.334203E+0	1.112036E+0	1.447922E+0	1.347265E+0	1.415725E+0	1.302693E+0	1.462233E+0	1.355463E+0	1.463312E+0	1.328375E+0	1.391469E+0	1.251640E+0	1.169964E+0	1.229733E+0	1.321798E+0	1.342161E+0	1.223596E+0	1.322000E+0	1.425501E+0	1.276052E+0	1.289949E+0	1.445487E+0	1.397104E+0	1.310101E+0	1.388974E+0	1.448543E+0	1.350531E+0	1.243611E+0	1.164829E+0	1.400389E+0	1.354365E+0	1.308867E+0	1.391288E+0	1.469434E+0	1.311090E+0	1.405452E+0	1.394581E+0	1.437853E+0	1.326394E+0	1.392430E+0	1.243439E+0	1.375955E+0	1.377092E+0	1.086327E+0	1.299574E+0	1.380870E+0	1.429711E+0	1.305936E+0	1.288344E+0	1.426331E+0	1.162058E+0	1.350738E+0	1.340859E+0	1.415244E+0	1.281912E+0	1.266811E+0	1.399753E+0	1.425103E+0	1.291976E+0	1.375406E+0	1.356409E+0	1.265056E+0	1.345204E+0	1.300723E+0	1.337978E+0	1.296292E+0	1.285746E+0	1.363119E+0	1.321363E+0	1.473298E+0	1.287710E+0	1.297116E+0	1.352047E+0	1.350014E+0	1.362306E+0	1.291823E+0	1.220333E+0	1.344381E+0	1.304567E+0	1.316161E+0	1.324303E+0	1.328525E+0	1.258737E+0	1.003988E+0	1.290874E+0	1.389648E+0	1.419539E+0	1.334657E+0	1.371751E+0	1.261427E+0	1.352725E+0	1.316646E+0	1.319438E+0	1.276501E+0	1.341842E+0	1.310381E+0	1.421365E+0	1.371830E+0	1.314005E+0
5.387650E+2	1.583128E+0	1.536549E+0	1.572507E+0	1.575192E+0	1.509165E+0	1.492193E+0	1.523140E+0	1.508959E+0	1.513857E+0	1.611499E+0	1.436411E+0	1.467473E+0	1.537964E+0	1.677235E+0	1.462562E+0	1.468246E+0	1.324902E+0	1.467611E+0	1.416976E+0	1.536726E+0	1.587707E+0	1.438595E+0	1.488921E+0	1.613926E+0	1.676853E+0	1.419461E+0	1.485113E+0	1.551231E+0	1.564260E+0	1.674068E+0	1.653200E+0	1.518139E+0	1.564433E+0	1.200999E+0	1.251876E+0	1.398623E+0	1.497551E+0	1.426168E+0	1.442154E+0	1.361727E+0	1.489836E+0	1.628057E+0	1.445854E+0	1.434807E+0	1.549500E+0	1.678320E+0	1.496552E+0	1.426891E+0	1.543321E+0	1.535130E+0	1.538199E+0	1.401842E+0	1.490510E+0	1.686081E+0	1.528828E+0	1.446547E+0	1.278658E+0	1.663851E+0	1.469302E+0	1.457828E+0	1.551545E+0	1.703801E+0	1.466123E+0	1.414380E+0	1.467857E+0	1.593961E+0	1.419029E+0	1.424018E+0	1.514963E+0	1.541265E+0	1.526857E+0	1.463790E+0	1.203882E+0	1.614334E+0	1.448232E+0	1.569281E+0	1.466746E+0	1.717719E+0	1.499311E+0	1.622766E+0	1.513691E+0	1.519960E+0	1.408165E+0	1.286627E+0	1.403256E+0	1.447567E+0	1.471630E+0	1.420892E+0	1.556833E+0	1.580236E+0	1.429205E+0	1.442949E+0	1.558482E+0	1.707828E+0	1.438439E+0	1.583318E+0	1.559663E+0	1.488955E+0	1.431419E+0	1.321197E+0	1.522773E+0	1.525815E+0	1.453090E+0	1.587226E+0	1.642581E+0	1.647418E+0	1.562668E+0	1.555625E+0	1.654131E+0	1.624170E+0	1.502553E+0	1.495871E+0	1.542086E+0	1.582346E+0	1.248490E+0	1.404412E+0	1.479508E+0	1.630902E+0	1.481175E+0	1.467137E+0	1.607286E+0	1.590230E+0	1.504880E+0	1.560916E+0	1.596115E+0	1.528052E+0	1.468075E+0	1.525302E+0	1.553247E+0	1.475407E+0	1.448976E+0	1.468564E+0	1.420163E+0	1.472748E+0	1.439392E+0	1.531975E+0	1.497394E+0	1.395971E+0	1.488208E+0	1.483974E+0	1.536524E+0	1.473337E+0	1.485300E+0	1.470389E+0	1.520706E+0	1.496355E+0	1.453755E+0	1.385204E+0	1.455369E+0	1.490408E+0	1.430819E+0	1.547581E+0	1.506889E+0	1.326994E+0	1.184097E+0	1.466498E+0	1.621307E+0	1.515847E+0	1.440372E+0	1.514112E+0	1.440865E+0	1.517378E+0	1.477491E+0	1.502473E+0	1.432578E+0	1.453698E+0	1.470036E+0	1.476597E+0	1.511641E+0	1.450799E+0
5.390340E+2	1.845879E+0	1.763459E+0	1.787272E+0	1.859961E+0	1.718347E+0	1.751241E+0	1.771728E+0	1.720342E+0	1.707330E+0	1.806754E+0	1.725761E+0	1.751706E+0	1.820550E+0	1.977236E+0	1.788092E+0	1.736552E+0	1.560336E+0	1.744925E+0	1.637164E+0	1.788555E+0	1.898303E+0	1.720892E+0	1.813311E+0	1.809387E+0	1.864759E+0	1.633621E+0	1.746330E+0	1.746367E+0	1.826965E+0	1.951417E+0	1.897128E+0	1.738509E+0	1.881429E+0	1.447344E+0	1.452656E+0	1.634273E+0	1.760320E+0	1.688401E+0	1.743448E+0	1.614818E+0	1.775021E+0	1.905779E+0	1.729513E+0	1.696737E+0	1.865745E+0	1.925718E+0	1.810322E+0	1.697709E+0	1.831138E+0	1.825004E+0	1.759262E+0	1.600069E+0	1.761306E+0	1.998822E+0	1.736511E+0	1.710121E+0	1.449776E+0	2.016170E+0	1.710578E+0	1.662855E+0	1.816769E+0	2.043360E+0	1.732728E+0	1.680939E+0	1.717612E+0	1.795759E+0	1.706687E+0	1.574362E+0	1.791061E+0	1.817194E+0	1.769953E+0	1.710601E+0	1.400697E+0	1.849894E+0	1.765056E+0	1.879281E+0	1.705507E+0	1.935755E+0	1.765427E+0	1.879632E+0	1.764019E+0	1.851816E+0	1.686617E+0	1.485455E+0	1.624554E+0	1.731044E+0	1.818006E+0	1.703846E+0	1.837496E+0	1.924988E+0	1.698345E+0	1.686256E+0	1.886848E+0	1.918572E+0	1.748115E+0	1.849832E+0	1.810286E+0	1.771390E+0	1.635455E+0	1.545644E+0	1.787234E+0	1.797446E+0	1.749832E+0	1.828132E+0	1.929838E+0	1.903691E+0	1.820309E+0	1.737780E+0	1.896297E+0	2.020862E+0	1.742270E+0	1.680476E+0	1.761905E+0	1.943590E+0	1.433515E+0	1.648469E+0	1.728156E+0	1.893147E+0	1.718852E+0	1.709951E+0	1.816206E+0	1.966618E+0	1.817794E+0	1.711450E+0	1.854789E+0	1.969606E+0	1.719136E+0	1.769200E+0	1.719364E+0	1.816470E+0	1.709633E+0	1.764150E+0	1.769998E+0	1.814567E+0	1.730710E+0	1.732237E+0	1.727547E+0	1.804972E+0	1.838565E+0	1.741210E+0	1.756553E+0	1.983950E+0	1.677485E+0	1.690236E+0	1.761654E+0	1.817067E+0	1.749659E+0	1.630014E+0	1.709126E+0	1.763827E+0	1.657932E+0	1.748534E+0	1.710821E+0	1.583239E+0	1.375559E+0	1.718304E+0	1.847524E+0	1.884563E+0	1.700888E+0	1.781492E+0	1.732080E+0	1.763249E+0	1.756528E+0	1.733488E+0	1.674248E+0	1.700614E+0	1.755943E+0	1.752012E+0	1.722586E+0	1.784233E+0
5.392930E+2	2.015991E+0	1.945106E+0	2.010645E+0	2.038761E+0	1.896716E+0	1.832420E+0	1.994630E+0	1.921641E+0	1.945781E+0	1.982537E+0	1.892089E+0	1.851215E+0	1.968952E+0	2.135731E+0	1.893245E+0	1.921546E+0	1.777075E+0	2.003609E+0	1.857358E+0	1.966864E+0	2.063716E+0	1.943231E+0	1.965903E+0	1.984162E+0	2.032673E+0	1.746483E+0	1.931136E+0	1.937226E+0	2.038672E+0	2.105292E+0	1.989304E+0	1.885122E+0	2.014587E+0	1.587820E+0	1.570937E+0	1.748701E+0	1.920840E+0	1.844019E+0	1.940814E+0	1.791782E+0	1.971086E+0	2.121652E+0	1.857752E+0	1.856922E+0	2.036607E+0	2.141392E+0	1.929724E+0	1.836399E+0	1.976549E+0	2.002376E+0	1.927900E+0	1.789452E+0	1.893976E+0	2.123382E+0	1.858343E+0	1.899846E+0	1.620888E+0	2.122573E+0	1.892102E+0	1.932910E+0	2.025945E+0	2.200681E+0	1.900837E+0	1.792610E+0	1.902569E+0	2.009463E+0	1.844807E+0	1.758247E+0	1.938381E+0	1.929260E+0	1.943804E+0	1.858951E+0	1.527049E+0	2.029801E+0	1.918825E+0	2.036309E+0	1.877400E+0	2.161997E+0	1.878965E+0	2.173500E+0	1.915309E+0	1.989871E+0	1.908499E+0	1.618854E+0	1.852986E+0	1.887769E+0	1.982649E+0	1.838716E+0	1.958510E+0	2.073750E+0	1.849812E+0	1.859963E+0	2.071312E+0	2.136489E+0	1.854631E+0	1.952936E+0	2.015010E+0	1.879115E+0	1.782684E+0	1.635526E+0	1.954318E+0	1.968400E+0	1.821947E+0	1.926099E+0	2.093903E+0	2.027509E+0	2.012797E+0	1.949492E+0	2.108799E+0	2.146058E+0	1.976516E+0	1.865593E+0	1.968458E+0	2.062322E+0	1.624922E+0	1.781384E+0	1.984516E+0	2.039680E+0	1.905676E+0	1.832781E+0	1.935968E+0	2.068058E+0	1.912250E+0	1.935136E+0	2.006863E+0	2.153813E+0	1.868531E+0	1.912754E+0	1.931161E+0	1.909329E+0	1.838907E+0	1.911108E+0	1.861803E+0	1.916602E+0	1.862657E+0	1.919018E+0	1.823828E+0	1.966829E+0	1.912147E+0	1.884558E+0	1.984666E+0	2.144288E+0	1.867383E+0	1.904307E+0	1.943870E+0	1.920094E+0	1.858578E+0	1.747141E+0	1.865515E+0	1.856491E+0	1.869608E+0	1.869477E+0	1.873500E+0	1.715276E+0	1.488579E+0	1.907883E+0	1.967158E+0	2.076614E+0	1.849218E+0	1.892728E+0	1.798557E+0	1.870606E+0	1.864973E+0	1.892241E+0	1.788536E+0	1.857314E+0	1.928956E+0	1.899795E+0	1.863625E+0	1.953089E+0
5.395160E+2	2.024363E+0	1.984250E+0	2.050475E+0	2.064813E+0	1.938337E+0	1.933243E+0	2.007742E+0	1.964176E+0	2.014066E+0	1.986988E+0	1.946377E+0	1.895606E+0	2.056191E+0	2.130067E+0	1.954125E+0	1.954242E+0	1.752318E+0	1.957862E+0	1.899793E+0	1.953146E+0	2.073833E+0	1.942736E+0	1.924975E+0	2.092460E+0	2.105210E+0	1.764652E+0	1.995699E+0	1.985338E+0	2.104588E+0	2.142999E+0	2.090471E+0	1.936795E+0	2.030484E+0	1.611740E+0	1.650450E+0	1.802518E+0	1.954580E+0	1.903134E+0	1.885351E+0	1.827418E+0	2.022778E+0	2.112905E+0	1.860708E+0	1.861250E+0	2.111326E+0	2.173710E+0	1.974703E+0	1.836401E+0	2.118953E+0	1.955306E+0	1.977471E+0	1.826390E+0	1.961051E+0	2.193951E+0	1.900547E+0	1.936111E+0	1.632724E+0	2.234301E+0	1.923963E+0	1.965713E+0	2.009332E+0	2.211581E+0	1.933841E+0	1.792612E+0	1.957938E+0	2.053679E+0	1.925280E+0	1.818964E+0	2.009978E+0	1.995504E+0	1.980170E+0	1.860227E+0	1.571755E+0	2.086586E+0	1.963508E+0	2.034571E+0	1.830377E+0	2.131214E+0	1.986336E+0	2.136494E+0	2.023457E+0	2.029695E+0	1.892575E+0	1.672616E+0	1.855182E+0	1.926577E+0	1.919628E+0	1.879727E+0	1.957481E+0	2.126412E+0	1.836296E+0	1.926111E+0	2.091112E+0	2.165201E+0	1.853592E+0	2.071502E+0	2.043395E+0	1.999683E+0	1.834853E+0	1.700945E+0	1.990503E+0	2.006276E+0	1.901321E+0	2.026207E+0	2.071197E+0	2.085102E+0	1.984102E+0	1.989305E+0	2.162732E+0	2.236211E+0	1.973471E+0	1.877833E+0	1.947618E+0	2.179160E+0	1.586107E+0	1.791122E+0	1.934682E+0	2.063524E+0	1.925819E+0	1.849855E+0	2.038845E+0	2.210605E+0	2.028142E+0	1.939972E+0	2.101839E+0	2.214678E+0	1.887721E+0	1.977071E+0	1.929378E+0	1.997607E+0	1.940854E+0	1.940398E+0	1.848273E+0	1.939560E+0	1.925782E+0	1.902168E+0	1.902441E+0	2.058495E+0	1.947238E+0	1.995048E+0	2.027157E+0	2.146978E+0	1.889115E+0	1.944230E+0	1.953199E+0	2.008718E+0	1.941874E+0	1.823750E+0	1.865518E+0	1.914536E+0	1.912606E+0	1.942973E+0	1.867691E+0	1.757237E+0	1.516963E+0	1.880553E+0	2.054709E+0	2.069208E+0	1.867019E+0	1.948856E+0	1.898577E+0	1.951821E+0	1.916763E+0	1.872691E+0	1.789544E+0	1.891082E+0	2.010454E+0	1.940102E+0	1.918814E+0	1.931715E+0
5.397750E+2	2.082467E+0	2.059476E+0	2.125291E+0	2.113357E+0	1.984281E+0	1.988570E+0	2.071116E+0	1.971193E+0	2.030868E+0	2.111590E+0	2.031279E+0	1.997156E+0	2.120200E+0	2.222176E+0	1.972238E+0	2.046069E+0	1.745249E+0	1.979887E+0	1.935341E+0	2.073851E+0	2.083950E+0	2.012185E+0	2.038662E+0	2.073968E+0	2.184027E+0	1.840627E+0	2.021761E+0	1.995495E+0	2.090156E+0	2.229975E+0	2.130380E+0	1.921782E+0	2.020552E+0	1.675873E+0	1.716050E+0	1.824988E+0	2.037913E+0	1.991556E+0	1.961299E+0	1.868720E+0	2.009707E+0	2.159581E+0	1.905621E+0	1.966780E+0	2.135071E+0	2.298297E+0	2.029853E+0	1.933088E+0	2.085162E+0	2.045997E+0	1.960375E+0	1.908072E+0	2.036083E+0	2.236718E+0	1.930767E+0	1.952915E+0	1.651464E+0	2.273906E+0	1.929659E+0	1.959857E+0	2.045665E+0	2.237020E+0	1.963748E+0	1.859127E+0	2.003298E+0	2.111496E+0	1.936126E+0	1.888351E+0	2.053249E+0	2.049790E+0	1.987641E+0	1.938664E+0	1.615492E+0	2.175416E+0	2.011090E+0	2.107581E+0	2.018462E+0	2.235871E+0	1.999692E+0	2.199621E+0	2.017991E+0	2.050932E+0	2.021637E+0	1.753267E+0	1.922725E+0	1.921661E+0	2.041277E+0	2.015508E+0	2.036789E+0	2.149759E+0	1.943842E+0	1.946243E+0	2.074693E+0	2.213402E+0	1.939326E+0	2.085419E+0	2.108010E+0	2.049359E+0	1.899195E+0	1.723815E+0	1.989437E+0	2.033187E+0	1.946972E+0	2.073858E+0	2.193252E+0	2.126565E+0	2.009802E+0	1.979654E+0	2.134688E+0	2.230545E+0	2.020925E+0	1.895681E+0	1.949511E+0	2.214528E+0	1.612694E+0	1.768779E+0	2.008146E+0	2.118181E+0	1.953010E+0	1.917197E+0	2.107431E+0	2.224488E+0	2.009021E+0	1.979867E+0	2.095776E+0	2.220550E+0	1.876829E+0	2.015147E+0	2.039137E+0	2.042315E+0	1.963452E+0	1.982939E+0	1.884031E+0	1.983438E+0	1.934061E+0	1.938271E+0	1.987899E+0	2.060811E+0	2.005539E+0	2.017710E+0	2.096959E+0	2.235755E+0	1.955466E+0	1.912482E+0	2.016316E+0	2.087375E+0	1.944207E+0	1.857056E+0	1.950778E+0	1.928280E+0	1.916466E+0	2.034607E+0	1.885120E+0	1.811508E+0	1.608824E+0	1.967201E+0	2.085706E+0	2.184323E+0	1.921492E+0	1.989680E+0	1.943873E+0	1.969624E+0	1.996573E+0	1.892238E+0	1.847444E+0	1.911657E+0	1.992421E+0	2.025932E+0	1.948247E+0	1.923166E+0
5.400240E+2	2.029599E+0	1.937770E+0	2.016029E+0	2.041130E+0	1.910230E+0	1.887741E+0	2.012114E+0	1.930409E+0	1.998892E+0	2.035935E+0	2.050915E+0	1.965011E+0	2.076578E+0	2.237614E+0	2.120160E+0	1.952902E+0	1.809915E+0	2.038627E+0	2.004153E+0	2.049159E+0	2.125938E+0	1.948729E+0	1.967419E+0	2.036549E+0	2.086936E+0	1.755295E+0	1.948313E+0	2.006726E+0	2.054070E+0	2.183751E+0	2.060118E+0	1.869225E+0	2.042907E+0	1.943083E+0	1.650947E+0	1.765945E+0	1.943843E+0	1.943053E+0	1.969295E+0	1.797453E+0	2.032872E+0	2.122820E+0	1.932810E+0	1.865581E+0	2.065569E+0	2.231299E+0	1.988624E+0	1.865714E+0	2.042925E+0	2.037391E+0	1.978042E+0	1.878415E+0	1.946646E+0	2.180049E+0	1.898152E+0	2.005104E+0	1.606093E+0	2.244350E+0	1.950714E+0	1.982121E+0	2.051375E+0	2.316978E+0	1.899289E+0	1.798923E+0	1.919063E+0	2.034408E+0	1.874484E+0	1.847874E+0	1.947650E+0	1.948185E+0	1.974195E+0	1.883247E+0	1.537737E+0	2.134374E+0	1.968727E+0	2.048479E+0	2.017419E+0	2.163024E+0	1.988902E+0	2.123433E+0	1.995509E+0	2.013231E+0	1.912342E+0	1.620378E+0	1.879340E+0	1.885309E+0	1.977765E+0	1.868335E+0	1.949760E+0	2.134555E+0	1.887536E+0	1.932437E+0	2.081453E+0	2.124180E+0	1.893080E+0	2.024070E+0	2.079629E+0	1.990190E+0	1.842970E+0	1.727542E+0	1.897916E+0	2.032194E+0	1.929337E+0	1.994624E+0	2.116041E+0	2.092581E+0	2.066593E+0	1.913906E+0	2.066733E+0	2.177998E+0	1.980163E+0	1.829892E+0	1.989304E+0	2.210737E+0	1.618544E+0	1.867318E+0	1.981429E+0	2.110624E+0	1.955022E+0	1.867877E+0	2.052565E+0	2.151878E+0	1.969618E+0	1.941780E+0	2.100326E+0	2.181573E+0	1.916770E+0	1.979128E+0	1.974463E+0	2.057792E+0	1.854148E+0	1.906693E+0	1.856004E+0	1.974762E+0	1.922677E+0	1.913718E+0	1.876238E+0	2.088659E+0	1.979503E+0	1.886824E+0	2.010970E+0	2.162041E+0	1.934305E+0	1.924509E+0	1.966924E+0	2.019797E+0	1.875476E+0	1.849840E+0	1.886203E+0	1.940502E+0	1.915912E+0	1.939713E+0	1.921141E+0	1.792487E+0	1.503546E+0	1.962547E+0	2.044919E+0	2.141010E+0	1.892367E+0	1.927426E+0	1.960347E+0	1.879508E+0	1.962453E+0	1.815826E+0	1.829823E+0	1.887918E+0	1.975719E+0	1.999808E+0	1.978908E+0	2.092019E+0
5.402900E+2	1.873101E+0	1.776915E+0	1.887385E+0	1.867661E+0	1.758882E+0	1.750723E+0	1.880448E+0	1.770775E+0	1.804335E+0	1.845132E+0	1.985074E+0	1.770077E+0	1.858954E+0	2.007599E+0	2.063808E+0	1.793889E+0	1.628034E+0	1.763001E+0	1.768478E+0	1.808853E+0	1.946358E+0	1.769360E+0	1.925985E+0	1.840646E+0	1.909880E+0	1.633622E+0	1.834585E+0	1.857567E+0	1.917901E+0	2.046903E+0	1.952204E+0	1.784434E+0	1.892358E+0	1.838744E+0	1.520739E+0	1.630616E+0	1.794573E+0	1.729830E+0	1.811903E+0	1.652884E+0	1.779181E+0	1.891192E+0	1.850660E+0	1.701066E+0	1.914398E+0	1.939237E+0	1.971492E+0	1.713022E+0	1.885440E+0	1.827302E+0	1.864091E+0	1.702565E+0	1.830375E+0	1.961934E+0	1.757138E+0	1.809628E+0	1.458157E+0	2.007895E+0	1.831211E+0	1.788806E+0	1.885802E+0	2.102551E+0	1.908572E+0	1.690648E+0	1.797133E+0	1.861518E+0	1.780882E+0	1.690589E+0	1.792605E+0	1.877960E+0	1.788384E+0	1.735326E+0	1.447348E+0	1.880253E+0	1.825403E+0	1.878702E+0	1.780221E+0	1.955248E+0	1.863552E+0	2.006428E+0	1.784679E+0	1.798190E+0	1.737695E+0	1.543278E+0	1.683307E+0	1.725638E+0	1.755474E+0	1.707947E+0	1.822557E+0	1.952676E+0	1.706228E+0	1.679355E+0	1.924998E+0	1.977538E+0	1.694080E+0	1.849833E+0	1.879738E+0	1.809346E+0	1.710808E+0	1.534474E+0	1.809582E+0	1.804421E+0	1.733750E+0	1.816352E+0	1.866825E+0	1.906571E+0	1.856177E+0	1.796893E+0	1.910860E+0	1.994592E+0	1.842052E+0	1.707505E+0	1.844650E+0	2.049689E+0	1.477647E+0	1.692008E+0	1.741001E+0	1.850701E+0	1.693171E+0	1.714693E+0	1.878462E+0	2.003458E+0	1.769698E+0	1.725356E+0	1.883081E+0	2.043285E+0	1.740925E+0	1.798526E+0	1.795895E+0	1.848568E+0	1.819463E+0	1.786801E+0	1.732791E+0	1.749776E+0	1.697077E+0	1.709611E+0	1.762867E+0	1.870527E+0	1.826115E+0	1.732715E+0	1.845067E+0	1.946821E+0	1.724959E+0	1.671954E+0	1.749028E+0	1.845869E+0	1.771208E+0	1.712724E+0	1.773702E+0	1.733276E+0	1.717467E+0	1.737369E+0	1.753234E+0	1.654297E+0	1.415296E+0	1.686900E+0	1.873083E+0	1.945541E+0	1.719766E+0	1.754959E+0	1.695016E+0	1.797735E+0	1.806487E+0	1.768438E+0	1.671733E+0	1.740716E+0	1.783998E+0	1.807988E+0	1.765512E+0	2.004386E+0
5.405080E+2	1.788309E+0	1.749391E+0	1.814182E+0	1.849902E+0	1.781050E+0	1.703671E+0	1.813793E+0	1.712886E+0	1.739304E+0	1.793402E+0	1.942334E+0	1.690470E+0	1.792572E+0	1.940702E+0	2.003936E+0	1.756259E+0	1.573474E+0	1.735894E+0	1.777079E+0	1.756732E+0	1.804212E+0	1.694413E+0	1.766826E+0	1.846808E+0	1.857906E+0	1.597838E+0	1.830438E+0	1.778980E+0	1.879894E+0	1.905799E+0	2.000547E+0	1.744248E+0	1.834228E+0	1.750181E+0	1.457624E+0	1.620164E+0	1.656541E+0	1.784906E+0	1.676993E+0	1.647622E+0	1.739968E+0	1.891192E+0	1.824067E+0	1.661017E+0	1.806665E+0	1.909263E+0	1.954890E+0	1.682397E+0	1.776830E+0	1.808930E+0	1.809399E+0	1.589662E+0	1.751867E+0	1.852344E+0	1.736992E+0	1.745063E+0	1.436460E+0	1.921587E+0	1.914863E+0	1.713233E+0	1.838569E+0	1.944193E+0	1.898258E+0	1.616363E+0	1.803611E+0	1.823537E+0	1.799717E+0	1.606165E+0	1.805481E+0	1.823172E+0	1.811299E+0	1.664141E+0	1.390977E+0	1.863950E+0	1.918828E+0	1.806270E+0	1.749917E+0	1.956274E+0	1.922634E+0	1.919354E+0	1.756119E+0	1.783322E+0	1.790421E+0	1.415460E+0	1.637730E+0	1.739397E+0	1.762803E+0	1.635956E+0	1.757156E+0	1.915218E+0	1.831229E+0	1.712140E+0	1.826486E+0	1.925234E+0	1.882169E+0	1.804984E+0	1.827796E+0	1.784232E+0	1.699217E+0	1.498840E+0	1.756371E+0	1.792958E+0	1.708850E+0	1.775132E+0	1.862853E+0	1.836309E+0	1.761729E+0	1.776989E+0	1.862316E+0	1.971922E+0	1.774518E+0	1.693227E+0	1.821915E+0	1.895595E+0	1.488810E+0	1.646175E+0	1.750247E+0	1.848376E+0	1.757630E+0	1.673435E+0	1.811989E+0	1.914833E+0	1.697846E+0	1.732003E+0	1.874493E+0	1.890587E+0	1.697350E+0	1.710022E+0	1.698600E+0	1.799845E+0	1.760082E+0	1.784592E+0	1.621176E+0	1.707939E+0	1.684659E+0	1.697096E+0	1.755462E+0	1.817735E+0	1.764416E+0	1.669817E+0	1.798026E+0	1.901086E+0	1.646025E+0	1.629618E+0	1.721585E+0	1.835899E+0	1.680924E+0	1.607809E+0	1.738388E+0	1.708838E+0	1.633129E+0	1.698761E+0	1.721860E+0	1.567574E+0	1.577343E+0	1.708999E+0	1.753992E+0	1.935853E+0	1.676075E+0	1.751893E+0	1.712666E+0	1.699834E+0	1.609698E+0	1.724011E+0	1.574057E+0	1.664213E+0	1.761288E+0	1.729620E+0	1.744662E+0	1.942401E+0
5.407680E+2	1.733872E+0	1.658261E+0	1.680158E+0	1.751622E+0	1.669159E+0	1.685574E+0	1.767354E+0	1.605002E+0	1.667767E+0	1.748899E+0	1.848775E+0	1.623623E+0	1.731884E+0	1.850135E+0	1.932995E+0	1.591871E+0	1.503246E+0	1.663031E+0	1.673292E+0	1.683762E+0	1.780946E+0	1.671929E+0	1.716298E+0	1.671597E+0	1.759669E+0	1.567558E+0	1.709012E+0	1.652275E+0	1.819266E+0	1.838896E+0	1.865652E+0	1.641793E+0	1.764169E+0	1.776648E+0	1.413891E+0	1.520888E+0	1.667279E+0	1.610590E+0	1.678993E+0	1.567442E+0	1.678178E+0	1.786173E+0	1.708241E+0	1.623135E+0	1.712835E+0	1.834046E+0	1.814072E+0	1.539332E+0	1.778639E+0	1.680930E+0	1.746154E+0	1.635446E+0	1.689261E+0	1.813316E+0	1.604130E+0	1.597794E+0	1.318112E+0	1.875480E+0	1.833489E+0	1.614822E+0	1.749815E+0	1.889677E+0	1.810593E+0	1.532850E+0	1.684623E+0	1.749277E+0	1.698124E+0	1.558751E+0	1.708126E+0	1.689688E+0	1.679290E+0	1.550750E+0	1.327317E+0	1.747016E+0	1.756352E+0	1.757599E+0	1.652740E+0	1.856237E+0	1.857389E+0	1.823580E+0	1.658902E+0	1.665978E+0	1.745386E+0	1.390604E+0	1.563598E+0	1.591514E+0	1.730070E+0	1.579912E+0	1.675277E+0	1.759399E+0	1.808706E+0	1.565463E+0	1.749226E+0	1.840119E+0	1.806310E+0	1.684357E+0	1.749288E+0	1.670358E+0	1.709070E+0	1.412677E+0	1.712206E+0	1.638951E+0	1.654380E+0	1.660570E+0	1.828222E+0	1.804061E+0	1.744987E+0	1.725118E+0	1.806766E+0	1.894640E+0	1.790337E+0	1.573893E+0	1.679154E+0	1.841278E+0	1.408528E+0	1.512692E+0	1.637740E+0	1.799531E+0	1.618142E+0	1.539698E+0	1.697504E+0	1.821940E+0	1.735508E+0	1.661879E+0	1.723935E+0	1.849472E+0	1.865935E+0	1.663715E+0	1.663004E+0	1.719596E+0	1.736432E+0	1.607242E+0	1.579134E+0	1.651822E+0	1.631363E+0	1.597929E+0	1.618166E+0	1.707509E+0	1.689141E+0	1.631293E+0	1.729239E+0	1.803163E+0	1.694642E+0	1.623366E+0	1.663407E+0	1.706842E+0	1.652967E+0	1.542859E+0	1.647580E+0	1.655886E+0	1.634229E+0	1.652243E+0	1.603338E+0	1.567014E+0	1.642367E+0	1.649098E+0	1.749097E+0	1.817889E+0	1.686868E+0	1.596266E+0	1.647362E+0	1.664232E+0	1.654173E+0	1.552822E+0	1.567509E+0	1.614087E+0	1.673111E+0	1.567656E+0	1.618340E+0	1.720112E+0
5.410340E+2	1.688335E+0	1.645415E+0	1.676391E+0	1.727939E+0	1.607002E+0	1.584746E+0	1.656995E+0	1.559832E+0	1.562630E+0	1.689935E+0	1.744239E+0	1.595557E+0	1.615247E+0	1.824921E+0	1.807213E+0	1.590080E+0	1.406244E+0	1.574920E+0	1.555740E+0	1.605304E+0	1.662575E+0	1.615969E+0	1.622317E+0	1.543048E+0	1.675711E+0	1.425519E+0	1.610687E+0	1.508465E+0	1.613818E+0	1.733673E+0	1.768420E+0	1.522113E+0	1.650884E+0	1.589856E+0	1.341828E+0	1.495807E+0	1.562479E+0	1.584316E+0	1.569069E+0	1.484833E+0	1.592622E+0	1.729577E+0	1.704104E+0	1.504077E+0	1.594098E+0	1.713574E+0	1.819425E+0	1.498642E+0	1.626590E+0	1.585643E+0	1.659553E+0	1.481966E+0	1.558581E+0	1.771082E+0	1.585425E+0	1.555779E+0	1.298877E+0	1.821093E+0	1.695213E+0	1.581431E+0	1.684938E+0	1.803492E+0	1.778623E+0	1.465848E+0	1.606870E+0	1.648943E+0	1.685570E+0	1.546607E+0	1.592228E+0	1.623943E+0	1.609050E+0	1.474447E+0	1.313711E+0	1.734082E+0	1.714574E+0	1.613316E+0	1.579597E+0	1.746445E+0	1.806528E+0	1.735963E+0	1.593287E+0	1.639429E+0	1.636637E+0	1.355609E+0	1.544927E+0	1.530596E+0	1.632849E+0	1.505186E+0	1.641288E+0	1.770802E+0	1.689902E+0	1.520599E+0	1.694175E+0	1.729879E+0	1.733049E+0	1.669921E+0	1.637565E+0	1.556494E+0	1.662700E+0	1.370662E+0	1.598337E+0	1.616525E+0	1.594720E+0	1.633800E+0	1.716383E+0	1.680817E+0	1.725860E+0	1.594833E+0	1.705907E+0	1.751422E+0	1.703942E+0	1.529014E+0	1.655783E+0	1.769914E+0	1.375562E+0	1.516130E+0	1.581742E+0	1.676258E+0	1.560235E+0	1.520252E+0	1.602012E+0	1.765345E+0	1.699006E+0	1.643740E+0	1.679475E+0	1.760311E+0	1.813544E+0	1.590650E+0	1.590623E+0	1.643359E+0	1.616093E+0	1.570777E+0	1.533232E+0	1.580398E+0	1.543399E+0	1.575786E+0	1.590821E+0	1.688362E+0	1.648387E+0	1.508342E+0	1.662471E+0	1.774108E+0	1.686635E+0	1.550725E+0	1.555285E+0	1.607137E+0	1.624425E+0	1.517323E+0	1.557782E+0	1.616680E+0	1.564771E+0	1.601075E+0	1.552208E+0	1.483089E+0	1.691912E+0	1.568265E+0	1.677861E+0	1.693082E+0	1.738645E+0	1.592184E+0	1.549704E+0	1.592474E+0	1.621272E+0	1.536240E+0	1.494005E+0	1.554466E+0	1.627020E+0	1.511677E+0	1.544754E+0	1.641026E+0
5.412850E+2	1.622387E+0	1.474166E+0	1.575198E+0	1.600058E+0	1.431331E+0	1.490123E+0	1.535706E+0	1.488787E+0	1.494346E+0	1.536959E+0	1.698614E+0	1.491966E+0	1.556460E+0	1.665402E+0	1.685451E+0	1.476757E+0	1.336020E+0	1.468737E+0	1.553448E+0	1.524655E+0	1.635256E+0	1.478564E+0	1.553093E+0	1.540845E+0	1.620879E+0	1.377621E+0	1.559749E+0	1.474250E+0	1.521917E+0	1.701439E+0	1.733574E+0	1.435112E+0	1.547042E+0	1.495696E+0	1.271260E+0	1.405937E+0	1.465347E+0	1.459515E+0	1.492121E+0	1.400604E+0	1.495183E+0	1.619307E+0	1.552815E+0	1.508406E+0	1.544287E+0	1.678904E+0	1.608994E+0	1.447454E+0	1.565646E+0	1.538001E+0	1.571815E+0	1.414327E+0	1.518831E+0	1.648126E+0	1.499090E+0	1.483694E+0	1.227375E+0	1.689271E+0	1.584818E+0	1.430881E+0	1.571269E+0	1.756240E+0	1.674972E+0	1.349803E+0	1.466092E+0	1.580354E+0	1.533749E+0	1.413031E+0	1.545355E+0	1.540267E+0	1.590123E+0	1.476152E+0	1.191732E+0	1.609836E+0	1.649001E+0	1.540887E+0	1.548250E+0	1.756710E+0	1.671928E+0	1.664667E+0	1.479666E+0	1.521022E+0	1.611925E+0	1.295755E+0	1.447186E+0	1.481957E+0	1.493123E+0	1.433649E+0	1.529536E+0	1.645929E+0	1.572222E+0	1.443525E+0	1.591804E+0	1.612457E+0	1.649915E+0	1.537952E+0	1.626696E+0	1.506817E+0	1.550826E+0	1.325984E+0	1.575456E+0	1.493916E+0	1.484216E+0	1.535832E+0	1.636341E+0	1.608257E+0	1.586580E+0	1.487469E+0	1.644422E+0	1.645808E+0	1.602337E+0	1.444361E+0	1.533241E+0	1.649290E+0	1.258059E+0	1.414727E+0	1.450736E+0	1.518679E+0	1.494266E+0	1.466187E+0	1.585659E+0	1.643088E+0	1.592383E+0	1.480512E+0	1.588031E+0	1.710119E+0	1.671932E+0	1.544857E+0	1.498667E+0	1.525850E+0	1.577726E+0	1.487352E+0	1.439490E+0	1.502849E+0	1.447675E+0	1.514649E+0	1.527586E+0	1.546227E+0	1.564053E+0	1.443746E+0	1.570918E+0	1.634214E+0	1.610564E+0	1.481455E+0	1.531137E+0	1.609351E+0	1.529476E+0	1.365776E+0	1.432161E+0	1.506699E+0	1.500829E+0	1.457340E+0	1.468546E+0	1.387420E+0	1.616567E+0	1.463589E+0	1.553331E+0	1.649201E+0	1.736489E+0	1.541668E+0	1.470277E+0	1.470093E+0	1.570705E+0	1.485887E+0	1.410931E+0	1.465303E+0	1.525482E+0	1.536307E+0	1.530038E+0	1.598277E+0
5.415140E+2	1.344453E+0	1.295575E+0	1.342134E+0	1.382780E+0	1.272421E+0	1.294677E+0	1.379455E+0	1.283105E+0	1.320927E+0	1.351163E+0	1.520153E+0	1.321023E+0	1.315596E+0	1.466771E+0	1.554634E+0	1.289972E+0	1.174854E+0	1.371592E+0	1.352755E+0	1.323851E+0	1.420775E+0	1.363150E+0	1.338351E+0	1.351986E+0	1.411843E+0	1.160157E+0	1.329925E+0	1.338459E+0	1.417989E+0	1.433215E+0	1.496389E+0	1.312786E+0	1.363702E+0	1.368451E+0	1.125148E+0	1.222538E+0	1.306356E+0	1.264484E+0	1.332729E+0	1.219998E+0	1.326450E+0	1.410430E+0	1.373165E+0	1.294642E+0	1.361842E+0	1.465584E+0	1.479951E+0	1.266323E+0	1.395491E+0	1.333656E+0	1.343346E+0	1.256686E+0	1.326539E+0	1.437495E+0	1.297159E+0	1.303700E+0	1.112477E+0	1.512519E+0	1.427194E+0	1.287361E+0	1.343412E+0	1.505466E+0	1.494484E+0	1.221624E+0	1.304693E+0	1.431271E+0	1.347687E+0	1.256902E+0	1.327979E+0	1.356981E+0	1.373428E+0	1.280063E+0	1.055664E+0	1.428805E+0	1.465059E+0	1.376902E+0	1.334562E+0	1.491988E+0	1.556848E+0	1.464404E+0	1.402501E+0	1.349521E+0	1.384003E+0	1.115185E+0	1.320339E+0	1.316390E+0	1.356816E+0	1.222686E+0	1.362168E+0	1.390211E+0	1.408370E+0	1.297426E+0	1.443556E+0	1.516062E+0	1.461821E+0	1.390520E+0	1.407477E+0	1.339367E+0	1.335774E+0	1.176530E+0	1.328554E+0	1.398721E+0	1.301605E+0	1.336684E+0	1.452973E+0	1.401508E+0	1.379751E+0	1.363819E+0	1.387692E+0	1.472191E+0	1.436235E+0	1.297493E+0	1.372798E+0	1.490769E+0	1.132583E+0	1.223951E+0	1.340798E+0	1.385521E+0	1.307446E+0	1.298301E+0	1.377266E+0	1.438610E+0	1.384351E+0	1.345091E+0	1.455664E+0	1.479467E+0	1.504906E+0	1.313823E+0	1.301110E+0	1.324648E+0	1.427432E+0	1.283479E+0	1.237998E+0	1.289084E+0	1.325561E+0	1.284062E+0	1.325346E+0	1.382630E+0	1.381798E+0	1.294733E+0	1.433338E+0	1.488941E+0	1.422955E+0	1.256798E+0	1.333001E+0	1.346242E+0	1.373956E+0	1.200348E+0	1.254582E+0	1.321878E+0	1.372940E+0	1.302442E+0	1.298896E+0	1.142364E+0	1.448327E+0	1.318206E+0	1.369533E+0	1.428086E+0	1.460868E+0	1.368179E+0	1.304374E+0	1.339929E+0	1.364168E+0	1.227031E+0	1.270963E+0	1.263229E+0	1.355139E+0	1.357923E+0	1.309282E+0	1.418738E+0
5.417760E+2	1.141892E+0	1.134721E+0	1.204341E+0	1.195104E+0	1.126481E+0	1.094058E+0	1.153272E+0	1.126542E+0	1.091686E+0	1.128651E+0	1.276432E+0	1.150072E+0	1.148230E+0	1.294901E+0	1.260805E+0	1.188292E+0	1.023791E+0	1.105567E+0	1.107905E+0	1.165841E+0	1.192639E+0	1.066362E+0	1.134725E+0	1.173694E+0	1.203949E+0	1.262007E+0	1.207906E+0	1.135307E+0	1.152873E+0	1.267172E+0	1.250773E+0	1.106990E+0	1.145083E+0	1.190311E+0	9.840065E-1	1.041753E+0	1.064552E+0	1.081072E+0	1.125870E+0	1.058828E+0	1.119098E+0	1.163047E+0	1.209469E+0	1.059234E+0	1.192136E+0	1.271658E+0	1.271131E+0	1.106634E+0	1.149914E+0	1.139067E+0	1.202621E+0	1.077710E+0	1.108908E+0	1.243437E+0	1.152786E+0	1.079924E+0	9.176934E-1	1.271925E+0	1.243963E+0	1.135053E+0	1.190817E+0	1.287921E+0	1.290795E+0	1.046831E+0	1.151544E+0	1.163151E+0	1.147356E+0	1.097883E+0	1.138937E+0	1.153268E+0	1.159226E+0	1.096337E+0	9.103626E-1	1.169070E+0	1.247458E+0	1.182789E+0	1.120879E+0	1.236503E+0	1.299978E+0	1.246178E+0	1.169186E+0	1.118020E+0	1.143445E+0	9.620042E-1	1.087510E+0	1.090397E+0	1.138436E+0	1.078246E+0	1.174717E+0	1.196389E+0	1.173013E+0	1.117966E+0	1.238811E+0	1.215075E+0	1.288799E+0	1.163182E+0	1.162287E+0	1.149590E+0	1.176372E+0	9.994204E-1	1.120501E+0	1.153508E+0	1.144411E+0	1.185181E+0	1.263928E+0	1.183817E+0	1.190255E+0	1.191916E+0	1.283059E+0	1.257360E+0	1.229374E+0	1.080760E+0	1.175087E+0	1.267202E+0	1.020929E+0	1.068696E+0	1.169207E+0	1.243639E+0	1.082858E+0	1.059756E+0	1.222686E+0	1.251749E+0	1.216881E+0	1.116569E+0	1.191938E+0	1.265895E+0	1.282894E+0	1.205256E+0	1.171778E+0	1.140647E+0	1.166778E+0	1.128229E+0	1.087241E+0	1.142154E+0	1.133074E+0	1.166604E+0	1.136778E+0	1.230052E+0	1.163885E+0	1.155350E+0	1.236579E+0	1.279639E+0	1.242779E+0	1.112481E+0	1.195789E+0	1.182286E+0	1.181152E+0	1.057682E+0	1.085579E+0	1.103960E+0	1.137560E+0	1.134516E+0	1.150161E+0	1.050608E+0	1.230543E+0	1.104201E+0	1.214552E+0	1.233756E+0	1.308768E+0	1.139069E+0	1.137292E+0	1.126323E+0	1.170425E+0	1.068282E+0	1.041880E+0	1.117609E+0	1.110646E+0	1.191480E+0	1.151073E+0	1.288355E+0
5.420270E+2	1.004235E+0	1.020962E+0	1.012183E+0	1.039398E+0	9.989185E-1	9.890948E-1	9.642395E-1	1.001116E+0	1.004434E+0	9.706692E-1	1.121074E+0	1.049035E+0	1.033965E+0	1.093186E+0	1.114898E+0	1.126028E+0	8.590887E-1	1.005597E+0	1.044830E+0	1.160355E+0	1.079832E+0	9.964113E-1	1.048323E+0	1.050427E+0	1.104000E+0	1.104553E+0	1.016585E+0	1.104833E+0	1.060493E+0	1.103563E+0	1.116446E+0	1.159543E+0	1.082976E+0	1.015732E+0	8.736777E-1	1.065788E+0	1.024166E+0	9.966926E-1	9.974565E-1	1.006185E+0	1.032354E+0	1.102369E+0	1.003223E+0	9.883405E-1	1.011426E+0	1.142374E+0	1.111567E+0	1.016506E+0	1.006308E+0	1.064445E+0	1.035117E+0	9.866624E-1	1.016984E+0	1.094818E+0	9.590118E-1	9.897077E-1	8.244926E-1	1.143056E+0	1.071544E+0	1.002663E+0	1.086490E+0	1.100491E+0	1.126809E+0	8.997153E-1	1.044338E+0	1.048079E+0	1.026358E+0	9.538970E-1	1.016858E+0	1.025266E+0	1.026221E+0	9.748495E-1	8.175440E-1	1.039201E+0	1.064674E+0	1.077909E+0	1.010116E+0	1.156472E+0	1.118114E+0	1.116113E+0	9.923775E-1	1.009702E+0	1.033602E+0	8.636037E-1	9.782344E-1	9.523442E-1	1.024117E+0	9.319843E-1	1.049578E+0	1.072603E+0	1.081797E+0	9.747437E-1	1.081872E+0	1.081761E+0	1.115774E+0	9.616183E-1	1.051772E+0	9.910692E-1	9.850872E-1	8.723043E-1	1.034830E+0	1.034888E+0	9.867001E-1	1.010658E+0	1.088510E+0	1.083035E+0	1.060538E+0	9.802054E-1	1.061927E+0	1.112592E+0	1.117425E+0	9.945753E-1	1.053807E+0	1.116263E+0	8.991736E-1	9.478141E-1	1.026388E+0	1.091873E+0	9.801323E-1	9.905145E-1	1.050168E+0	1.111873E+0	1.100987E+0	9.926354E-1	1.080789E+0	1.156440E+0	1.143875E+0	9.876035E-1	9.955779E-1	1.083898E+0	1.062727E+0	1.046460E+0	9.215022E-1	1.006957E+0	9.762919E-1	9.971554E-1	9.573249E-1	1.033384E+0	1.071625E+0	9.984033E-1	1.050443E+0	1.131138E+0	1.078049E+0	9.628709E-1	1.045954E+0	1.048240E+0	9.999999E-1	9.127959E-1	9.977986E-1	9.863450E-1	1.027312E+0	1.019156E+0	1.035705E+0	9.409486E-1	1.094816E+0	9.919643E-1	1.016611E+0	1.048543E+0	1.131312E+0	9.875218E-1	9.531486E-1	1.051227E+0	1.038826E+0	1.030964E+0	9.361503E-1	9.677679E-1	9.777123E-1	1.019067E+0	1.072581E+0	1.136599E+0
5.422730E+2	9.539876E-1	8.906890E-1	9.675086E-1	9.458556E-1	9.227060E-1	8.991266E-1	9.281813E-1	9.081429E-1	9.312726E-1	9.717815E-1	9.951699E-1	9.627950E-1	9.576302E-1	1.018058E+0	9.604352E-1	1.049434E+0	8.363543E-1	8.768204E-1	9.553779E-1	9.974062E-1	9.508404E-1	9.134713E-1	9.376676E-1	9.403685E-1	9.914848E-1	9.713216E-1	9.413599E-1	9.856139E-1	9.531969E-1	9.898265E-1	1.081037E+0	1.047815E+0	9.383892E-1	9.383677E-1	7.807435E-1	9.722600E-1	9.306138E-1	9.527351E-1	9.240063E-1	9.000887E-1	8.992673E-1	1.006684E+0	9.181253E-1	9.493753E-1	9.575609E-1	9.790046E-1	1.040353E+0	1.034880E+0	9.785516E-1	9.616980E-1	9.223079E-1	9.632495E-1	9.151242E-1	1.006610E+0	9.321521E-1	9.348693E-1	7.278406E-1	1.065025E+0	1.003828E+0	9.534556E-1	9.759356E-1	1.048569E+0	1.045333E+0	1.048288E+0	9.371331E-1	9.874260E-1	9.293312E-1	9.585235E-1	9.442285E-1	9.555364E-1	9.654467E-1	8.849048E-1	7.295851E-1	9.548701E-1	9.724107E-1	9.515901E-1	9.275681E-1	9.989737E-1	1.059548E+0	1.021966E+0	9.698960E-1	9.725342E-1	9.742870E-1	7.712902E-1	8.920228E-1	8.987934E-1	9.410635E-1	8.959883E-1	9.455526E-1	9.515319E-1	1.016482E+0	9.189500E-1	9.997801E-1	9.976697E-1	1.041992E+0	9.714133E-1	9.666198E-1	9.603696E-1	9.445118E-1	8.292235E-1	9.060580E-1	9.860445E-1	8.969509E-1	9.715782E-1	9.477197E-1	9.885872E-1	1.017499E+0	9.488403E-1	1.024711E+0	1.033768E+0	1.029204E+0	9.313402E-1	9.009435E-1	1.048055E+0	8.135718E-1	8.429738E-1	9.482988E-1	1.019771E+0	9.237336E-1	8.871285E-1	9.472906E-1	1.006698E+0	9.839332E-1	8.983247E-1	1.002480E+0	1.042180E+0	9.970761E-1	9.093936E-1	9.688803E-1	1.001355E+0	9.707625E-1	9.243585E-1	8.862286E-1	9.513472E-1	8.867763E-1	9.475724E-1	9.333978E-1	9.568057E-1	9.403124E-1	9.168137E-1	9.927807E-1	1.068186E+0	9.916805E-1	8.993713E-1	9.153275E-1	9.972807E-1	9.091325E-1	8.706065E-1	9.014413E-1	9.140455E-1	8.889495E-1	9.177506E-1	9.694716E-1	8.553473E-1	1.005020E+0	9.181094E-1	9.867019E-1	1.038286E+0	1.055261E+0	9.375157E-1	8.954937E-1	9.299610E-1	9.395180E-1	9.042010E-1	8.868091E-1	8.764918E-1	9.717006E-1	9.265160E-1	9.119206E-1	9.527832E-1
5.425300E+2	9.377616E-1	9.206569E-1	9.174510E-1	9.642083E-1	9.021670E-1	8.784444E-1	9.347374E-1	8.989337E-1	8.992978E-1	9.417427E-1	9.582072E-1	9.617745E-1	9.604747E-1	9.892404E-1	1.035905E+0	1.070937E+0	7.838113E-1	8.717371E-1	8.785405E-1	1.023192E+0	9.988960E-1	8.869901E-1	9.124034E-1	9.716246E-1	9.572164E-1	9.834337E-1	9.567600E-1	9.861489E-1	9.690752E-1	9.983409E-1	1.078789E+0	1.041632E+0	9.761508E-1	9.566910E-1	7.906824E-1	9.571071E-1	8.748911E-1	9.249457E-1	8.860323E-1	8.652632E-1	8.873848E-1	9.734267E-1	9.234436E-1	9.509994E-1	9.923123E-1	1.012501E+0	1.037676E+0	1.001630E+0	9.622610E-1	9.272575E-1	9.069253E-1	9.538846E-1	9.250616E-1	9.873648E-1	8.712380E-1	9.216020E-1	7.574282E-1	1.052611E+0	9.520454E-1	9.499408E-1	9.915066E-1	1.023128E+0	1.044817E+0	1.045861E+0	8.911882E-1	1.004998E+0	9.333266E-1	9.515848E-1	9.365018E-1	9.356135E-1	9.669413E-1	8.751009E-1	7.125764E-1	9.751098E-1	9.822757E-1	9.568054E-1	8.805471E-1	1.041042E+0	9.999530E-1	1.014891E+0	9.686808E-1	9.624458E-1	9.166191E-1	7.819419E-1	9.095947E-1	8.771766E-1	9.454602E-1	8.640931E-1	9.331934E-1	9.786781E-1	9.939600E-1	8.993935E-1	9.794988E-1	1.035100E+0	1.002504E+0	1.003374E+0	9.986269E-1	9.112512E-1	9.369764E-1	8.106083E-1	9.284068E-1	9.646134E-1	8.969508E-1	9.105487E-1	9.477197E-1	9.857075E-1	9.959781E-1	9.729669E-1	1.027948E+0	1.048193E+0	1.009126E+0	1.020074E+0	9.508451E-1	1.019004E+0	8.018747E-1	9.426585E-1	9.169610E-1	9.633673E-1	9.207122E-1	9.279140E-1	9.963550E-1	1.023248E+0	9.914661E-1	9.956579E-1	9.383174E-1	1.040578E+0	1.021456E+0	1.051922E+0	9.386239E-1	9.778530E-1	9.644563E-1	9.547462E-1	8.862287E-1	9.095126E-1	8.702185E-1	9.162820E-1	9.504887E-1	9.666691E-1	9.771026E-1	9.394772E-1	9.472580E-1	1.026755E+0	1.017991E+0	9.700869E-1	9.312441E-1	9.374588E-1	9.761179E-1	8.722718E-1	8.691542E-1	9.165911E-1	9.341516E-1	9.186811E-1	9.014943E-1	8.648587E-1	9.823126E-1	9.471861E-1	1.034012E+0	1.046264E+0	1.100569E+0	9.446595E-1	9.496190E-1	9.294048E-1	9.547490E-1	8.893924E-1	8.837884E-1	8.854609E-1	9.436446E-1	9.026313E-1	9.413558E-1	1.038279E+0
5.427650E+2	9.749238E-1	9.500145E-1	9.712767E-1	9.884825E-1	9.351383E-1	9.503151E-1	9.680641E-1	9.090201E-1	9.589111E-1	1.002933E+0	1.041373E+0	1.052096E+0	9.453027E-1	1.058195E+0	1.102318E+0	1.048539E+0	8.540371E-1	9.547639E-1	9.743004E-1	1.088481E+0	9.953555E-1	9.234640E-1	9.912264E-1	9.795492E-1	1.040603E+0	1.028027E+0	9.828224E-1	1.046025E+0	1.024406E+0	1.068894E+0	1.059679E+0	1.066806E+0	1.023849E+0	9.928285E-1	8.026101E-1	9.837547E-1	9.469731E-1	9.340403E-1	9.829661E-1	9.320789E-1	9.806636E-1	1.010767E+0	9.813584E-1	1.024598E+0	1.002738E+0	1.060101E+0	1.101393E+0	1.069008E+0	9.809661E-1	9.295536E-1	9.787123E-1	1.028284E+0	9.568619E-1	1.013025E+0	9.935464E-1	9.680380E-1	7.717290E-1	1.117046E+0	1.014640E+0	1.003249E+0	1.006040E+0	1.099450E+0	1.075242E+0	1.074992E+0	9.830786E-1	9.987631E-1	1.003528E+0	1.034274E+0	1.015312E+0	1.008829E+0	9.719227E-1	9.147446E-1	8.491311E-1	1.043699E+0	1.069316E+0	1.013591E+0	9.719773E-1	1.080545E+0	1.136609E+0	1.076386E+0	1.005137E+0	9.990831E-1	9.605567E-1	8.696906E-1	9.590151E-1	9.371143E-1	9.938275E-1	9.401864E-1	9.424629E-1	1.012340E+0	9.804462E-1	9.804956E-1	1.033100E+0	1.041253E+0	1.102265E+0	1.099258E+0	1.065058E+0	9.737653E-1	9.700160E-1	8.302871E-1	9.587368E-1	1.011463E+0	9.436410E-1	9.849619E-1	1.048770E+0	1.043873E+0	1.069505E+0	1.018808E+0	1.057612E+0	1.116712E+0	1.040764E+0	1.085859E+0	1.048122E+0	1.034793E+0	8.449416E-1	9.523980E-1	9.760417E-1	1.038378E+0	9.176910E-1	9.402447E-1	9.963551E-1	1.092119E+0	1.053470E+0	1.056114E+0	1.045929E+0	1.075817E+0	1.052061E+0	1.068902E+0	9.700667E-1	9.870244E-1	1.008599E+0	1.011653E+0	9.108722E-1	9.860394E-1	1.002681E+0	1.010634E+0	9.829606E-1	1.056010E+0	1.000309E+0	1.048830E+0	1.041339E+0	1.040745E+0	1.072330E+0	1.042727E+0	9.751521E-1	1.023869E+0	9.912630E-1	1.010497E+0	9.539082E-1	9.563046E-1	9.556497E-1	9.796172E-1	9.067240E-1	9.101766E-1	1.065400E+0	9.989432E-1	9.774573E-1	1.061651E+0	1.070903E+0	1.085492E+0	9.478541E-1	9.605565E-1	1.049184E+0	1.016155E+0	8.837880E-1	9.809583E-1	9.990888E-1	1.002647E+0	9.474863E-1	9.228595E-1
5.430070E+2	1.112581E+0	1.121877E+0	1.180119E+0	1.158989E+0	1.089185E+0	1.043903E+0	1.115029E+0	1.104175E+0	1.132332E+0	1.118083E+0	1.177672E+0	1.142928E+0	1.107457E+0	1.194044E+0	1.233639E+0	1.260857E+0	9.960040E-1	1.108956E+0	1.098731E+0	1.198212E+0	1.128902E+0	1.060866E+0	1.071565E+0	1.109419E+0	1.171965E+0	1.148596E+0	1.111357E+0	1.193579E+0	1.143252E+0	1.202701E+0	1.203563E+0	1.293356E+0	1.188808E+0	1.117018E+0	9.522000E-1	1.129011E+0	1.093181E+0	1.059346E+0	1.076902E+0	1.123213E+0	1.106620E+0	1.174717E+0	1.107232E+0	1.132834E+0	1.160280E+0	1.208191E+0	1.235790E+0	1.269824E+0	1.165602E+0	1.056983E+0	1.124566E+0	1.203097E+0	1.086051E+0	1.211359E+0	1.070288E+0	1.114863E+0	8.757775E-1	1.202761E+0	1.188197E+0	1.143840E+0	1.137355E+0	1.218348E+0	1.232007E+0	1.255125E+0	1.093229E+0	1.146145E+0	1.106262E+0	1.128530E+0	1.125545E+0	1.117409E+0	1.127843E+0	1.032398E+0	1.120782E+0	1.147706E+0	1.168542E+0	1.156134E+0	1.089008E+0	1.201617E+0	1.241413E+0	1.179241E+0	1.101136E+0	1.116426E+0	1.139600E+0	9.503386E-1	1.069938E+0	1.097275E+0	1.143812E+0	1.056376E+0	1.081507E+0	1.181187E+0	1.153869E+0	1.057571E+0	1.177483E+0	1.183798E+0	1.212938E+0	1.252364E+0	1.146586E+0	1.172474E+0	1.112030E+0	9.387875E-1	1.055049E+0	1.087222E+0	1.089420E+0	1.169656E+0	1.155498E+0	1.189000E+0	1.173517E+0	1.217250E+0	1.129345E+0	1.225417E+0	1.187393E+0	1.225588E+0	1.163085E+0	1.178786E+0	9.954079E-1	1.080154E+0	1.111155E+0	1.191888E+0	1.105013E+0	1.030826E+0	1.155683E+0	1.202633E+0	1.226153E+0	1.172188E+0	1.226799E+0	1.270698E+0	1.212345E+0	1.223266E+0	1.107112E+0	1.111412E+0	1.128416E+0	1.171876E+0	1.051482E+0	1.090626E+0	1.063221E+0	1.116540E+0	1.080948E+0	1.177839E+0	1.161621E+0	1.143452E+0	1.176895E+0	1.204311E+0	1.197593E+0	1.223125E+0	1.103033E+0	1.139635E+0	1.145038E+0	1.102092E+0	1.064391E+0	1.083084E+0	1.087397E+0	1.086139E+0	1.072889E+0	1.012563E+0	1.142811E+0	1.168752E+0	1.166153E+0	1.180187E+0	1.164215E+0	1.263063E+0	1.059046E+0	1.100735E+0	1.077818E+0	1.108562E+0	1.058495E+0	1.135020E+0	1.088603E+0	1.174313E+0	1.132678E+0	1.113089E+0
5.433020E+2	1.266987E+0	1.269275E+0	1.288309E+0	1.312920E+0	1.194045E+0	1.216600E+0	1.308432E+0	1.222587E+0	1.222836E+0	1.300541E+0	1.372881E+0	1.280196E+0	1.229307E+0	1.381865E+0	1.427846E+0	1.419421E+0	1.128372E+0	1.247334E+0	1.191624E+0	1.384751E+0	1.315053E+0	1.212758E+0	1.280245E+0	1.292115E+0	1.410129E+0	1.346789E+0	1.232784E+0	1.349151E+0	1.302031E+0	1.411928E+0	1.422763E+0	1.465586E+0	1.305568E+0	1.310426E+0	1.086880E+0	1.288897E+0	1.231209E+0	1.187179E+0	1.248286E+0	1.202587E+0	1.276542E+0	1.328748E+0	1.330025E+0	1.296810E+0	1.262798E+0	1.357456E+0	1.398030E+0	1.380515E+0	1.268781E+0	1.275106E+0	1.295490E+0	1.359178E+0	1.208282E+0	1.262680E+0	1.232889E+0	1.243112E+0	9.980728E-1	1.389562E+0	1.405001E+0	1.302006E+0	1.310193E+0	1.435373E+0	1.352160E+0	1.424576E+0	1.228119E+0	1.314502E+0	1.272349E+0	1.369662E+0	1.239898E+0	1.253879E+0	1.265829E+0	1.195233E+0	1.250048E+0	1.333234E+0	1.309547E+0	1.296939E+0	1.332996E+0	1.364245E+0	1.408376E+0	1.417601E+0	1.192882E+0	1.288461E+0	1.332922E+0	1.079172E+0	1.190196E+0	1.221081E+0	1.266923E+0	1.186234E+0	1.259691E+0	1.334836E+0	1.295759E+0	1.253712E+0	1.349876E+0	1.398640E+0	1.339715E+0	1.356494E+0	1.354936E+0	1.312575E+0	1.302156E+0	1.076540E+0	1.263638E+0	1.302532E+0	1.258545E+0	1.261736E+0	1.399041E+0	1.307061E+0	1.304429E+0	1.363819E+0	1.344545E+0	1.390276E+0	1.391213E+0	1.345430E+0	1.261625E+0	1.372671E+0	1.061869E+0	1.221087E+0	1.206197E+0	1.348306E+0	1.241984E+0	1.228587E+0	1.292854E+0	1.379349E+0	1.341469E+0	1.362016E+0	1.313191E+0	1.463982E+0	1.395974E+0	1.429598E+0	1.253649E+0	1.316051E+0	1.300783E+0	1.304474E+0	1.139908E+0	1.245719E+0	1.252086E+0	1.260474E+0	1.236474E+0	1.343760E+0	1.283313E+0	1.298134E+0	1.289688E+0	1.329139E+0	1.384059E+0	1.375141E+0	1.236404E+0	1.286976E+0	1.295902E+0	1.307486E+0	1.234907E+0	1.192045E+0	1.219144E+0	1.215919E+0	1.228014E+0	1.117746E+0	1.302793E+0	1.330418E+0	1.256423E+0	1.348302E+0	1.375648E+0	1.397262E+0	1.220245E+0	1.288195E+0	1.314818E+0	1.283897E+0	1.192924E+0	1.215216E+0	1.258278E+0	1.248951E+0	1.276168E+0	1.337516E+0
5.435270E+2	1.465882E+0	1.379365E+0	1.444402E+0	1.421264E+0	1.482682E+0	1.391883E+0	1.402948E+0	1.337046E+0	1.448284E+0	1.426816E+0	1.503407E+0	1.496050E+0	1.465898E+0	1.575861E+0	1.540046E+0	1.528268E+0	1.213251E+0	1.385713E+0	1.381999E+0	1.521361E+0	1.434437E+0	1.347659E+0	1.395951E+0	1.418460E+0	1.479807E+0	1.512503E+0	1.446022E+0	1.536265E+0	1.424723E+0	1.522621E+0	1.539103E+0	1.642233E+0	1.423821E+0	1.429528E+0	1.189755E+0	1.420047E+0	1.384577E+0	1.373115E+0	1.407679E+0	1.297744E+0	1.390023E+0	1.495613E+0	1.382030E+0	1.389349E+0	1.419180E+0	1.540807E+0	1.529213E+0	1.534519E+0	1.420834E+0	1.443292E+0	1.441913E+0	1.450228E+0	1.321572E+0	1.536931E+0	1.350880E+0	1.385517E+0	1.311698E+0	1.556857E+0	1.456213E+0	1.484187E+0	1.434762E+0	1.570368E+0	1.592980E+0	1.504690E+0	1.379502E+0	1.453381E+0	1.448137E+0	1.433845E+0	1.406277E+0	1.382380E+0	1.415273E+0	1.315871E+0	1.389517E+0	1.441740E+0	1.499874E+0	1.431372E+0	1.405617E+0	1.581769E+0	1.513695E+0	1.542224E+0	1.364831E+0	1.411114E+0	1.453203E+0	1.148153E+0	1.296726E+0	1.333096E+0	1.365611E+0	1.308803E+0	1.379164E+0	1.466763E+0	1.488328E+0	1.433172E+0	1.479775E+0	1.475550E+0	1.511703E+0	1.504445E+0	1.472094E+0	1.390162E+0	1.350848E+0	1.200996E+0	1.410499E+0	1.375300E+0	1.383052E+0	1.392896E+0	1.467164E+0	1.456793E+0	1.487348E+0	1.544770E+0	1.485313E+0	1.546893E+0	1.488561E+0	1.560124E+0	1.420173E+0	1.519190E+0	1.214994E+0	1.361447E+0	1.378302E+0	1.483788E+0	1.393050E+0	1.341934E+0	1.507575E+0	1.527236E+0	1.505460E+0	1.456932E+0	1.451620E+0	1.585181E+0	1.504904E+0	1.577786E+0	1.426882E+0	1.420951E+0	1.394325E+0	1.472984E+0	1.410982E+0	1.407955E+0	1.312625E+0	1.364937E+0	1.372628E+0	1.482993E+0	1.481982E+0	1.519106E+0	1.422211E+0	1.522840E+0	1.489874E+0	1.551208E+0	1.364835E+0	1.428776E+0	1.433952E+0	1.376878E+0	1.331770E+0	1.364648E+0	1.365223E+0	1.411287E+0	1.398246E+0	1.258177E+0	1.463292E+0	1.450218E+0	1.426085E+0	1.526678E+0	1.487839E+0	1.530438E+0	1.354381E+0	1.396667E+0	1.445199E+0	1.425470E+0	1.356051E+0	1.340788E+0	1.446655E+0	1.358669E+0	1.424565E+0	1.444384E+0
5.437690E+2	1.671062E+0	1.483340E+0	1.553668E+0	1.552102E+0	1.688075E+0	1.452897E+0	1.506207E+0	1.447563E+0	1.585933E+0	1.519156E+0	1.657609E+0	1.571573E+0	1.553137E+0	1.629895E+0	1.679412E+0	1.681909E+0	1.335513E+0	1.493023E+0	1.507574E+0	1.636032E+0	1.602376E+0	1.444591E+0	1.584924E+0	1.548330E+0	1.604319E+0	1.685374E+0	1.523616E+0	1.552839E+0	1.549823E+0	1.647310E+0	1.663878E+0	1.737625E+0	1.576856E+0	1.500785E+0	1.323938E+0	1.534996E+0	1.695905E+0	1.478716E+0	1.444653E+0	1.388048E+0	1.675209E+0	1.581380E+0	1.526223E+0	1.516525E+0	1.544291E+0	1.644820E+0	1.703770E+0	1.678461E+0	1.594005E+0	1.531688E+0	1.531931E+0	1.569891E+0	1.593858E+0	1.638502E+0	1.463114E+0	1.524380E+0	1.593767E+0	1.653804E+0	1.608718E+0	1.641770E+0	1.592030E+0	1.657594E+0	1.655377E+0	1.612961E+0	1.518516E+0	1.566186E+0	1.480099E+0	1.554700E+0	1.515478E+0	1.510882E+0	1.517391E+0	1.426277E+0	1.531420E+0	1.601966E+0	1.603741E+0	1.532194E+0	1.517425E+0	1.650000E+0	1.671413E+0	1.621675E+0	1.512476E+0	1.567750E+0	1.553708E+0	1.279526E+0	1.384034E+0	1.476554E+0	1.501919E+0	1.384438E+0	1.489885E+0	1.600324E+0	1.506909E+0	1.465383E+0	1.510677E+0	1.621173E+0	1.667581E+0	1.620434E+0	1.518597E+0	1.557613E+0	1.528800E+0	1.333963E+0	1.500960E+0	1.522824E+0	1.494592E+0	1.535835E+0	1.643150E+0	1.514959E+0	1.559084E+0	1.593624E+0	1.653588E+0	1.650961E+0	1.668654E+0	1.699855E+0	1.506077E+0	1.632236E+0	1.300593E+0	1.508110E+0	1.483614E+0	1.596014E+0	1.471607E+0	1.480413E+0	1.493332E+0	1.693805E+0	1.579632E+0	1.571194E+0	1.578433E+0	1.641242E+0	1.619022E+0	1.626154E+0	1.471972E+0	1.540753E+0	1.526754E+0	1.490664E+0	1.434660E+0	1.511521E+0	1.429565E+0	1.512243E+0	1.501382E+0	1.581038E+0	1.514243E+0	1.546302E+0	1.514267E+0	1.671878E+0	1.620857E+0	1.612303E+0	1.482288E+0	1.490815E+0	1.541712E+0	1.575609E+0	1.434685E+0	1.451711E+0	1.462793E+0	1.467576E+0	1.448209E+0	1.393573E+0	1.603146E+0	1.550238E+0	1.522881E+0	1.628684E+0	1.634548E+0	1.650355E+0	1.430275E+0	1.499579E+0	1.548161E+0	1.587179E+0	1.428048E+0	1.405684E+0	1.531493E+0	1.481821E+0	1.473622E+0	1.630340E+0
5.440170E+2	1.751144E+0	1.531658E+0	1.616103E+0	1.633806E+0	1.739424E+0	1.507707E+0	1.579417E+0	1.507647E+0	1.615198E+0	1.524162E+0	1.720564E+0	1.619032E+0	1.607192E+0	1.795072E+0	1.738781E+0	1.754024E+0	1.340566E+0	1.557978E+0	1.550582E+0	1.695280E+0	1.741992E+0	1.553513E+0	1.556125E+0	1.583110E+0	1.734540E+0	1.698584E+0	1.551454E+0	1.679540E+0	1.630175E+0	1.751920E+0	1.691419E+0	1.745571E+0	1.634986E+0	1.551679E+0	1.328412E+0	1.622255E+0	1.760827E+0	1.512064E+0	1.489124E+0	1.490096E+0	1.679961E+0	1.707408E+0	1.619004E+0	1.586334E+0	1.678662E+0	1.755298E+0	1.715012E+0	1.681958E+0	1.698993E+0	1.610325E+0	1.633349E+0	1.617235E+0	1.793605E+0	1.644379E+0	1.569597E+0	1.477059E+0	1.674145E+0	1.696362E+0	1.676433E+0	1.633568E+0	1.692722E+0	1.665899E+0	1.730664E+0	1.705213E+0	1.693460E+0	1.654049E+0	1.587969E+0	1.589973E+0	1.758095E+0	1.534291E+0	1.534330E+0	1.525174E+0	1.670889E+0	1.636822E+0	1.664669E+0	1.672418E+0	1.621914E+0	1.701817E+0	1.764915E+0	1.715824E+0	1.667410E+0	1.588987E+0	1.642680E+0	1.269379E+0	1.700327E+0	1.493749E+0	1.544420E+0	1.448686E+0	1.661886E+0	1.659503E+0	1.584049E+0	1.568341E+0	1.706731E+0	1.681677E+0	1.777732E+0	1.668374E+0	1.630924E+0	1.550357E+0	1.579227E+0	1.328644E+0	1.538208E+0	1.556715E+0	1.510672E+0	1.561527E+0	1.618174E+0	1.621501E+0	1.613478E+0	1.688322E+0	1.648736E+0	1.688569E+0	1.721586E+0	1.768698E+0	1.549663E+0	1.727603E+0	1.512203E+0	1.552220E+0	1.532936E+0	1.705332E+0	1.530018E+0	1.495590E+0	1.550836E+0	1.656432E+0	1.699581E+0	1.666714E+0	1.618848E+0	1.685558E+0	1.746111E+0	1.723402E+0	1.557402E+0	1.537315E+0	1.613988E+0	1.608899E+0	1.478630E+0	1.551318E+0	1.482341E+0	1.502613E+0	1.537842E+0	1.596123E+0	1.527828E+0	1.597861E+0	1.610877E+0	1.750433E+0	1.714662E+0	1.714768E+0	1.561869E+0	1.569469E+0	1.525984E+0	1.530647E+0	1.492702E+0	1.527070E+0	1.500831E+0	1.554560E+0	1.528968E+0	1.375111E+0	1.631015E+0	1.582803E+0	1.561490E+0	1.689093E+0	1.662054E+0	1.740669E+0	1.515578E+0	1.490678E+0	1.584106E+0	1.515506E+0	1.445668E+0	1.511733E+0	1.560885E+0	1.474358E+0	1.620793E+0	1.570493E+0
5.442810E+2	1.747480E+0	1.557343E+0	1.629025E+0	1.543221E+0	1.725370E+0	1.501499E+0	1.582149E+0	1.539221E+0	1.584853E+0	1.550310E+0	1.668582E+0	1.623622E+0	1.566415E+0	1.699876E+0	1.705075E+0	1.732522E+0	1.351680E+0	1.512229E+0	1.546566E+0	1.672238E+0	1.673199E+0	1.484061E+0	1.549050E+0	1.589714E+0	1.622026E+0	1.642981E+0	1.564485E+0	1.654413E+0	1.558966E+0	1.792672E+0	1.679617E+0	1.704945E+0	1.653868E+0	1.548119E+0	1.284678E+0	1.601355E+0	1.665745E+0	1.518632E+0	1.522100E+0	1.471469E+0	1.665109E+0	1.615803E+0	1.530950E+0	1.589585E+0	1.612637E+0	1.674204E+0	1.683419E+0	1.679771E+0	1.733990E+0	1.527096E+0	1.610556E+0	1.597465E+0	1.716587E+0	1.679665E+0	1.560483E+0	1.548704E+0	1.680557E+0	1.730651E+0	1.624082E+0	1.584944E+0	1.603966E+0	1.731320E+0	1.717772E+0	1.728033E+0	1.653405E+0	1.630805E+0	1.532608E+0	1.615997E+0	1.763245E+0	1.548735E+0	1.538315E+0	1.436933E+0	1.614034E+0	1.583977E+0	1.691364E+0	1.627220E+0	1.623482E+0	1.719259E+0	1.694533E+0	1.719088E+0	1.699007E+0	1.530052E+0	1.602040E+0	1.265828E+0	1.662991E+0	1.520770E+0	1.500940E+0	1.408587E+0	1.670126E+0	1.714336E+0	1.591930E+0	1.532108E+0	1.603876E+0	1.656043E+0	1.663422E+0	1.616825E+0	1.675615E+0	1.515190E+0	1.528219E+0	1.358427E+0	1.688263E+0	1.495415E+0	1.562033E+0	1.607570E+0	1.722063E+0	1.630714E+0	1.577016E+0	1.642481E+0	1.653055E+0	1.719482E+0	1.632148E+0	1.726884E+0	1.657047E+0	1.688447E+0	1.598338E+0	1.515558E+0	1.688087E+0	1.602411E+0	1.518436E+0	1.503178E+0	1.681676E+0	1.680458E+0	1.585427E+0	1.599004E+0	1.630468E+0	1.627363E+0	1.673489E+0	1.724432E+0	1.687918E+0	1.577436E+0	1.512041E+0	1.635416E+0	1.615857E+0	1.525807E+0	1.529428E+0	1.475655E+0	1.601646E+0	1.581037E+0	1.566317E+0	1.558200E+0	1.573953E+0	1.718687E+0	1.645455E+0	1.680132E+0	1.525648E+0	1.550636E+0	1.565010E+0	1.525092E+0	1.463945E+0	1.512813E+0	1.507996E+0	1.521997E+0	1.475517E+0	1.389654E+0	1.678493E+0	1.579315E+0	1.476113E+0	1.656040E+0	1.721925E+0	1.658517E+0	1.533230E+0	1.527392E+0	1.576798E+0	1.544532E+0	1.425529E+0	1.461609E+0	1.535501E+0	1.531829E+0	1.557020E+0	1.534157E+0
5.445240E+2	1.668445E+0	1.438080E+0	1.520295E+0	1.514215E+0	1.660511E+0	1.443072E+0	1.536801E+0	1.426514E+0	1.471044E+0	1.541408E+0	1.623534E+0	1.469516E+0	1.506675E+0	1.595932E+0	1.681429E+0	1.667573E+0	1.334502E+0	1.390232E+0	1.435326E+0	1.633833E+0	1.652964E+0	1.497551E+0	1.476291E+0	1.498144E+0	1.566054E+0	1.570310E+0	1.474454E+0	1.623941E+0	1.583505E+0	1.608990E+0	1.623411E+0	1.721726E+0	1.598219E+0	1.515545E+0	1.229512E+0	1.513575E+0	1.682616E+0	1.444356E+0	1.395688E+0	1.377925E+0	1.599160E+0	1.589551E+0	1.494313E+0	1.487843E+0	1.508378E+0	1.683018E+0	1.606853E+0	1.615020E+0	1.616331E+0	1.486339E+0	1.551876E+0	1.540755E+0	1.651003E+0	1.654541E+0	1.438651E+0	1.481040E+0	1.646530E+0	1.618923E+0	1.554661E+0	1.536914E+0	1.524036E+0	1.653958E+0	1.601232E+0	1.597912E+0	1.613940E+0	1.546345E+0	1.532038E+0	1.526367E+0	1.642708E+0	1.483488E+0	1.444163E+0	1.416899E+0	1.568837E+0	1.541810E+0	1.640879E+0	1.521765E+0	1.511155E+0	1.610500E+0	1.624149E+0	1.652696E+0	1.562296E+0	1.541732E+0	1.466383E+0	1.218656E+0	1.659695E+0	1.380259E+0	1.479444E+0	1.384896E+0	1.619144E+0	1.575892E+0	1.549702E+0	1.415914E+0	1.613052E+0	1.628352E+0	1.681609E+0	1.594657E+0	1.578381E+0	1.525236E+0	1.473152E+0	1.250458E+0	1.661660E+0	1.415167E+0	1.414180E+0	1.490865E+0	1.676644E+0	1.546057E+0	1.530390E+0	1.624387E+0	1.589948E+0	1.650443E+0	1.615720E+0	1.634067E+0	1.649468E+0	1.635393E+0	1.541977E+0	1.465144E+0	1.682951E+0	1.588454E+0	1.433339E+0	1.391729E+0	1.619949E+0	1.588095E+0	1.574418E+0	1.552453E+0	1.555190E+0	1.607072E+0	1.599314E+0	1.619977E+0	1.653510E+0	1.537311E+0	1.524650E+0	1.576856E+0	1.634701E+0	1.463567E+0	1.415594E+0	1.453030E+0	1.618736E+0	1.560152E+0	1.581032E+0	1.519106E+0	1.544112E+0	1.578258E+0	1.593404E+0	1.569006E+0	1.624442E+0	1.528478E+0	1.527728E+0	1.462367E+0	1.697019E+0	1.444078E+0	1.455627E+0	1.434083E+0	1.564990E+0	1.342101E+0	1.561861E+0	1.529303E+0	1.593031E+0	1.621847E+0	1.588698E+0	1.619739E+0	1.534405E+0	1.422814E+0	1.508562E+0	1.522020E+0	1.475877E+0	1.418347E+0	1.476718E+0	1.448235E+0	1.462585E+0	1.557669E+0
5.447720E+2	1.542305E+0	1.357959E+0	1.468085E+0	1.424223E+0	1.544301E+0	1.356726E+0	1.451026E+0	1.354151E+0	1.426605E+0	1.422921E+0	1.564048E+0	1.445020E+0	1.413745E+0	1.468319E+0	1.571742E+0	1.564101E+0	1.249626E+0	1.387970E+0	1.466864E+0	1.552087E+0	1.551291E+0	1.369146E+0	1.375237E+0	1.421983E+0	1.469528E+0	1.461854E+0	1.430028E+0	1.491359E+0	1.460811E+0	1.487346E+0	1.504256E+0	1.575108E+0	1.506795E+0	1.424950E+0	1.441226E+0	1.462370E+0	1.588552E+0	1.335726E+0	1.402181E+0	1.331355E+0	1.515387E+0	1.536455E+0	1.442896E+0	1.423444E+0	1.451036E+0	1.484391E+0	1.544207E+0	1.513518E+0	1.498670E+0	1.346284E+0	1.452169E+0	1.426816E+0	1.535728E+0	1.469036E+0	1.343683E+0	1.394805E+0	1.544946E+0	1.548578E+0	1.522791E+0	1.447868E+0	1.527151E+0	1.537658E+0	1.542443E+0	1.513428E+0	1.434283E+0	1.485692E+0	1.384786E+0	1.433846E+0	1.581412E+0	1.402803E+0	1.373429E+0	1.320560E+0	1.455608E+0	1.492337E+0	1.472023E+0	1.451652E+0	1.390465E+0	1.509428E+0	1.544007E+0	1.552564E+0	1.501540E+0	1.421201E+0	1.429038E+0	1.200397E+0	1.573484E+0	1.350290E+0	1.360727E+0	1.328851E+0	1.471346E+0	1.435816E+0	1.495646E+0	1.394635E+0	1.469149E+0	1.452993E+0	1.526770E+0	1.546201E+0	1.516180E+0	1.404116E+0	1.425041E+0	1.190891E+0	1.532885E+0	1.420654E+0	1.380460E+0	1.436792E+0	1.557430E+0	1.470616E+0	1.480175E+0	1.496515E+0	1.465360E+0	1.520620E+0	1.518372E+0	1.543297E+0	1.465022E+0	1.494560E+0	1.439367E+0	1.398684E+0	1.603832E+0	1.430875E+0	1.332121E+0	1.324861E+0	1.516020E+0	1.561403E+0	1.449832E+0	1.498043E+0	1.480419E+0	1.544069E+0	1.548480E+0	1.554632E+0	1.515873E+0	1.426682E+0	1.397480E+0	1.439285E+0	1.527433E+0	1.414587E+0	1.385066E+0	1.396228E+0	1.487141E+0	1.490533E+0	1.439531E+0	1.418817E+0	1.453066E+0	1.546510E+0	1.530484E+0	1.500695E+0	1.523998E+0	1.404407E+0	1.454338E+0	1.348566E+0	1.563331E+0	1.392652E+0	1.337109E+0	1.411753E+0	1.431361E+0	1.205586E+0	1.488064E+0	1.361240E+0	1.444575E+0	1.469690E+0	1.566048E+0	1.499826E+0	1.503814E+0	1.395555E+0	1.415345E+0	1.452719E+0	1.529247E+0	1.305437E+0	1.391211E+0	1.433307E+0	1.533718E+0	1.386676E+0
5.450150E+2	1.454894E+0	1.318815E+0	1.327602E+0	1.343706E+0	1.493492E+0	1.225391E+0	1.324275E+0	1.238371E+0	1.325804E+0	1.361176E+0	1.457203E+0	1.388379E+0	1.376287E+0	1.462140E+0	1.425835E+0	1.450330E+0	1.167780E+0	1.343914E+0	1.318924E+0	1.490637E+0	1.438483E+0	1.262221E+0	1.317130E+0	1.392929E+0	1.394707E+0	1.440933E+0	1.355395E+0	1.434687E+0	1.354958E+0	1.490996E+0	1.430066E+0	1.478391E+0	1.396494E+0	1.323660E+0	1.377611E+0	1.355256E+0	1.470968E+0	1.278125E+0	1.270271E+0	1.213518E+0	1.398340E+0	1.394093E+0	1.308159E+0	1.380691E+0	1.364157E+0	1.411520E+0	1.482629E+0	1.436517E+0	1.412387E+0	1.316436E+0	1.346765E+0	1.327964E+0	1.461192E+0	1.429475E+0	1.261666E+0	1.293087E+0	1.504017E+0	1.449858E+0	1.360616E+0	1.417994E+0	1.374554E+0	1.417204E+0	1.438277E+0	1.465846E+0	1.358294E+0	1.360416E+0	1.331136E+0	1.313571E+0	1.465514E+0	1.316138E+0	1.330090E+0	1.258752E+0	1.401667E+0	1.378770E+0	1.383819E+0	1.328810E+0	1.365913E+0	1.439149E+0	1.491606E+0	1.442093E+0	1.405538E+0	1.293241E+0	1.366975E+0	1.115185E+0	1.541632E+0	1.249576E+0	1.260084E+0	1.195804E+0	1.411608E+0	1.386412E+0	1.352629E+0	1.239332E+0	1.389473E+0	1.368387E+0	1.391677E+0	1.439492E+0	1.409286E+0	1.338253E+0	1.292882E+0	1.152596E+0	1.510004E+0	1.296050E+0	1.263214E+0	1.335611E+0	1.510308E+0	1.346220E+0	1.378553E+0	1.441023E+0	1.394162E+0	1.504134E+0	1.449622E+0	1.513718E+0	1.485867E+0	1.440246E+0	1.386727E+0	1.303585E+0	1.492863E+0	1.382030E+0	1.293345E+0	1.258466E+0	1.444793E+0	1.455160E+0	1.393620E+0	1.392246E+0	1.418279E+0	1.489073E+0	1.486751E+0	1.529932E+0	1.428069E+0	1.365349E+0	1.369099E+0	1.389007E+0	1.462682E+0	1.305409E+0	1.220520E+0	1.292727E+0	1.402824E+0	1.364645E+0	1.343308E+0	1.371224E+0	1.416143E+0	1.457194E+0	1.405223E+0	1.438641E+0	1.379103E+0	1.336827E+0	1.369293E+0	1.350786E+0	1.515403E+0	1.313734E+0	1.282536E+0	1.329885E+0	1.371521E+0	1.215657E+0	1.349756E+0	1.287966E+0	1.391284E+0	1.425808E+0	1.464645E+0	1.448800E+0	1.440274E+0	1.277071E+0	1.274607E+0	1.338985E+0	1.456747E+0	1.257427E+0	1.313722E+0	1.310901E+0	1.435603E+0	1.348202E+0
5.452800E+2	1.351782E+0	1.341446E+0	1.271623E+0	1.244836E+0	1.347013E+0	1.343797E+0	1.290947E+0	1.153292E+0	1.307919E+0	1.352276E+0	1.361330E+0	1.304690E+0	1.310856E+0	1.372090E+0	1.361935E+0	1.375075E+0	1.097049E+0	1.281222E+0	1.208827E+0	1.391336E+0	1.327196E+0	1.223249E+0	1.231231E+0	1.296517E+0	1.278769E+0	1.341285E+0	1.290833E+0	1.344875E+0	1.258727E+0	1.348065E+0	1.377234E+0	1.444832E+0	1.366681E+0	1.249861E+0	1.272254E+0	1.272701E+0	1.384577E+0	1.229618E+0	1.213311E+0	1.152776E+0	1.326449E+0	1.311827E+0	1.252019E+0	1.269207E+0	1.251795E+0	1.359806E+0	1.349303E+0	1.360390E+0	1.366529E+0	1.236648E+0	1.259026E+0	1.267091E+0	1.369270E+0	1.359978E+0	1.206987E+0	1.216579E+0	1.324026E+0	1.383650E+0	1.331028E+0	1.267444E+0	1.302408E+0	1.358535E+0	1.337203E+0	1.354658E+0	1.381860E+0	1.325270E+0	1.238104E+0	1.355782E+0	1.415034E+0	1.186638E+0	1.266324E+0	1.161558E+0	1.328287E+0	1.316367E+0	1.337398E+0	1.267967E+0	1.289633E+0	1.375018E+0	1.369846E+0	1.405086E+0	1.383665E+0	1.253417E+0	1.282946E+0	1.030986E+0	1.367013E+0	1.221570E+0	1.229307E+0	1.150240E+0	1.289557E+0	1.298459E+0	1.285060E+0	1.242208E+0	1.312210E+0	1.306347E+0	1.370893E+0	1.353401E+0	1.333797E+0	1.233314E+0	1.256364E+0	1.079731E+0	1.408903E+0	1.220792E+0	1.185914E+0	1.234969E+0	1.376332E+0	1.293238E+0	1.305027E+0	1.345724E+0	1.290610E+0	1.360909E+0	1.370527E+0	1.389288E+0	1.333003E+0	1.378354E+0	1.258593E+0	1.227389E+0	1.355182E+0	1.334350E+0	1.224357E+0	1.198235E+0	1.386762E+0	1.357993E+0	1.276569E+0	1.321512E+0	1.331379E+0	1.393500E+0	1.406867E+0	1.341097E+0	1.347383E+0	1.257583E+0	1.241400E+0	1.281821E+0	1.393103E+0	1.246740E+0	1.198789E+0	1.228704E+0	1.319649E+0	1.288646E+0	1.296896E+0	1.293032E+0	1.262881E+0	1.369496E+0	1.332009E+0	1.354934E+0	1.281958E+0	1.236570E+0	1.271438E+0	1.238096E+0	1.453353E+0	1.211902E+0	1.207568E+0	1.245225E+0	1.354089E+0	1.308532E+0	1.335305E+0	1.297852E+0	1.310802E+0	1.373379E+0	1.328723E+0	1.331950E+0	1.301431E+0	1.248146E+0	1.189921E+0	1.302852E+0	1.352023E+0	1.221548E+0	1.296353E+0	1.210886E+0	1.342394E+0	1.230646E+0
5.455500E+2	1.309907E+0	1.316981E+0	1.175813E+0	1.192736E+0	1.345391E+0	1.367067E+0	1.211730E+0	1.140574E+0	1.218500E+0	1.308330E+0	1.318592E+0	1.257744E+0	1.243057E+0	1.304164E+0	1.349357E+0	1.381795E+0	1.059157E+0	1.319064E+0	1.200225E+0	1.288737E+0	1.277114E+0	1.308189E+0	1.153421E+0	1.232682E+0	1.294761E+0	1.345688E+0	1.225083E+0	1.289273E+0	1.188961E+0	1.349889E+0	1.275503E+0	1.325594E+0	1.267808E+0	1.258005E+0	1.224542E+0	1.224107E+0	1.334987E+0	1.282165E+0	1.210811E+0	1.144677E+0	1.267630E+0	1.336332E+0	1.201195E+0	1.211843E+0	1.272066E+0	1.287524E+0	1.329492E+0	1.347702E+0	1.287486E+0	1.266496E+0	1.235666E+0	1.237955E+0	1.308649E+0	1.305983E+0	1.124007E+0	1.172796E+0	1.267811E+0	1.293206E+0	1.250792E+0	1.252213E+0	1.250505E+0	1.348147E+0	1.291826E+0	1.310477E+0	1.293500E+0	1.252147E+0	1.210137E+0	1.245337E+0	1.310468E+0	1.236446E+0	1.200572E+0	1.147066E+0	1.268513E+0	1.232036E+0	1.314768E+0	1.221032E+0	1.243657E+0	1.344240E+0	1.279941E+0	1.347943E+0	1.283414E+0	1.199788E+0	1.252739E+0	1.010697E+0	1.357680E+0	1.137070E+0	1.133062E+0	1.105129E+0	1.277714E+0	1.238193E+0	1.248463E+0	1.125444E+0	1.263438E+0	1.266862E+0	1.353745E+0	1.312677E+0	1.318097E+0	1.210428E+0	1.189124E+0	1.023885E+0	1.307802E+0	1.243219E+0	1.207703E+0	1.213019E+0	1.303669E+0	1.272505E+0	1.220742E+0	1.315565E+0	1.305712E+0	1.309394E+0	1.327330E+0	1.273016E+0	1.264783E+0	1.300675E+0	1.259125E+0	1.143173E+0	1.333092E+0	1.230265E+0	1.160909E+0	1.159821E+0	1.330838E+0	1.299267E+0	1.264978E+0	1.293703E+0	1.284900E+0	1.328363E+0	1.283409E+0	1.304047E+0	1.300518E+0	1.200261E+0	1.226688E+0	1.246461E+0	1.309026E+0	1.161031E+0	1.147563E+0	1.192118E+0	1.312243E+0	1.267181E+0	1.237465E+0	1.244873E+0	1.265410E+0	1.241976E+0	1.283390E+0	1.317894E+0	1.268784E+0	1.214413E+0	1.232994E+0	1.211451E+0	1.346905E+0	1.172187E+0	1.123228E+0	1.212200E+0	1.302963E+0	1.278319E+0	1.262541E+0	1.230394E+0	1.256422E+0	1.302142E+0	1.305530E+0	1.300823E+0	1.270839E+0	1.186400E+0	1.222211E+0	1.223477E+0	1.301171E+0	1.136603E+0	1.182792E+0	1.213872E+0	1.277394E+0	1.198585E+0
5.457720E+2	1.328226E+0	1.319427E+0	1.221565E+0	1.223522E+0	1.309175E+0	1.324666E+0	1.186052E+0	1.075671E+0	1.182191E+0	1.262158E+0	1.237159E+0	1.229678E+0	1.201806E+0	1.275347E+0	1.305585E+0	1.273846E+0	1.004593E+0	1.259195E+0	1.164101E+0	1.247589E+0	1.296339E+0	1.319182E+0	1.121082E+0	1.214634E+0	1.190241E+0	1.356149E+0	1.218568E+0	1.234207E+0	1.237556E+0	1.332859E+0	1.195694E+0	1.264209E+0	1.250417E+0	1.271748E+0	1.178821E+0	1.174990E+0	1.311472E+0	1.305913E+0	1.102385E+0	1.084744E+0	1.221288E+0	1.307744E+0	1.202377E+0	1.155560E+0	1.169547E+0	1.277534E+0	1.242217E+0	1.268511E+0	1.197581E+0	1.162027E+0	1.158181E+0	1.228070E+0	1.245050E+0	1.278184E+0	1.178687E+0	1.132996E+0	1.266826E+0	1.300299E+0	1.256482E+0	1.220580E+0	1.291507E+0	1.265595E+0	1.275324E+0	1.262895E+0	1.227530E+0	1.298628E+0	1.169044E+0	1.229724E+0	1.317163E+0	1.331577E+0	1.154742E+0	1.119783E+0	1.232555E+0	1.241594E+0	1.216704E+0	1.222191E+0	1.186186E+0	1.320128E+0	1.276859E+0	1.300054E+0	1.276123E+0	1.250231E+0	1.192873E+0	1.162358E+0	1.274761E+0	1.257438E+0	1.179476E+0	1.114242E+0	1.301917E+0	1.336463E+0	1.188780E+0	1.120267E+0	1.207905E+0	1.245329E+0	1.238397E+0	1.279686E+0	1.263745E+0	1.218245E+0	1.189124E+0	1.003675E+0	1.257783E+0	1.193880E+0	1.169832E+0	1.162696E+0	1.307641E+0	1.194759E+0	1.257206E+0	1.263693E+0	1.280902E+0	1.275390E+0	1.309685E+0	1.307693E+0	1.277416E+0	1.328462E+0	1.185752E+0	1.161506E+0	1.277609E+0	1.211658E+0	1.134725E+0	1.102913E+0	1.277026E+0	1.292324E+0	1.195441E+0	1.238084E+0	1.207095E+0	1.266429E+0	1.275112E+0	1.293758E+0	1.222206E+0	1.175613E+0	1.197784E+0	1.244254E+0	1.262158E+0	1.139603E+0	1.176540E+0	1.136276E+0	1.275213E+0	1.197564E+0	1.215392E+0	1.253371E+0	1.185493E+0	1.299010E+0	1.251359E+0	1.243810E+0	1.239697E+0	1.172870E+0	1.149698E+0	1.145947E+0	1.290907E+0	1.114143E+0	1.160161E+0	1.177777E+0	1.257064E+0	1.235238E+0	1.212998E+0	1.180382E+0	1.204763E+0	1.232616E+0	1.278022E+0	1.259491E+0	1.252014E+0	1.128548E+0	1.196014E+0	1.154765E+0	1.301672E+0	1.145044E+0	1.213520E+0	1.133263E+0	1.251639E+0	1.209271E+0
5.460160E+2	1.236630E+0	1.206891E+0	1.138674E+0	1.131164E+0	1.211342E+0	1.221254E+0	1.157643E+0	1.070846E+0	1.139918E+0	1.206530E+0	1.211170E+0	1.135274E+0	1.095602E+0	1.216685E+0	1.293512E+0	1.263095E+0	1.002067E+0	1.163177E+0	1.136003E+0	1.219608E+0	1.193649E+0	1.247731E+0	1.122093E+0	1.101934E+0	1.182817E+0	1.278524E+0	1.120835E+0	1.213359E+0	1.127373E+0	1.320087E+0	1.203564E+0	1.258028E+0	1.228556E+0	1.154173E+0	1.187270E+0	1.133713E+0	1.233767E+0	1.223556E+0	1.089893E+0	1.055588E+0	1.182075E+0	1.226061E+0	1.130871E+0	1.124175E+0	1.156805E+0	1.239337E+0	1.203126E+0	1.216449E+0	1.240422E+0	1.105199E+0	1.162739E+0	1.142745E+0	1.209774E+0	1.237556E+0	1.088516E+0	1.103807E+0	1.222443E+0	1.230545E+0	1.154624E+0	1.195391E+0	1.146179E+0	1.201216E+0	1.203127E+0	1.193462E+0	1.245201E+0	1.273687E+0	1.095418E+0	1.120434E+0	1.234746E+0	1.296713E+0	1.108913E+0	1.049021E+0	1.205825E+0	1.198304E+0	1.159257E+0	1.109778E+0	1.133417E+0	1.209313E+0	1.201855E+0	1.217334E+0	1.155211E+0	1.292709E+0	1.148937E+0	1.204961E+0	1.274759E+0	1.260386E+0	1.165307E+0	1.083714E+0	1.208192E+0	1.251767E+0	1.147675E+0	1.092659E+0	1.161067E+0	1.224306E+0	1.175008E+0	1.196172E+0	1.173762E+0	1.277967E+0	1.091163E+0	9.419786E-1	1.227455E+0	1.261163E+0	1.103427E+0	1.046526E+0	1.214539E+0	1.229890E+0	1.176506E+0	1.184679E+0	1.187057E+0	1.225418E+0	1.202603E+0	1.250578E+0	1.281838E+0	1.205942E+0	1.153319E+0	1.118538E+0	1.253461E+0	1.276202E+0	1.090915E+0	1.057384E+0	1.194724E+0	1.244810E+0	1.147344E+0	1.148610E+0	1.176781E+0	1.248276E+0	1.220646E+0	1.255166E+0	1.258395E+0	1.226629E+0	1.178339E+0	1.180163E+0	1.219152E+0	1.256944E+0	1.046663E+0	1.092470E+0	1.222231E+0	1.267181E+0	1.156526E+0	1.144018E+0	1.163239E+0	1.258116E+0	1.183293E+0	1.220238E+0	1.179323E+0	1.220506E+0	1.119992E+0	1.083773E+0	1.211701E+0	1.177787E+0	1.090153E+0	1.120096E+0	1.222785E+0	1.252023E+0	1.224351E+0	1.115832E+0	1.152558E+0	1.244584E+0	1.256447E+0	1.218161E+0	1.189064E+0	1.082378E+0	1.146664E+0	1.114485E+0	1.318794E+0	1.131327E+0	1.054534E+0	1.101914E+0	1.198903E+0	1.179349E+0
5.467710E+2	1.328751E+0	1.280897E+0	1.201650E+0	1.193328E+0	1.262692E+0	1.323114E+0	1.216648E+0	1.133119E+0	1.233674E+0	1.276064E+0	1.223876E+0	1.181710E+0	1.186159E+0	1.274320E+0	1.313132E+0	1.308334E+0	1.019244E+0	1.261453E+0	1.153779E+0	1.272828E+0	1.255366E+0	1.317681E+0	1.193842E+0	1.164886E+0	1.217086E+0	1.324220E+0	1.149266E+0	1.310123E+0	1.198103E+0	1.287243E+0	1.262577E+0	1.310138E+0	1.267311E+0	1.281925E+0	1.225039E+0	1.229855E+0	1.280798E+0	1.306420E+0	1.184828E+0	1.101753E+0	1.220100E+0	1.316495E+0	1.208877E+0	1.117680E+0	1.224571E+0	1.300453E+0	1.259886E+0	1.307014E+0	1.273607E+0	1.160304E+0	1.194645E+0	1.234313E+0	1.266417E+0	1.319882E+0	1.122569E+0	1.199333E+0	1.250059E+0	1.299708E+0	1.221771E+0	1.235810E+0	1.238566E+0	1.274939E+0	1.235618E+0	1.232790E+0	1.279366E+0	1.302030E+0	1.138794E+0	1.176525E+0	1.279561E+0	1.306675E+0	1.127345E+0	1.181169E+0	1.215060E+0	1.259586E+0	1.237594E+0	1.226826E+0	1.203427E+0	1.269339E+0	1.232163E+0	1.259781E+0	1.272477E+0	1.254477E+0	1.219786E+0	1.187211E+0	1.261582E+0	1.320322E+0	1.144788E+0	1.134291E+0	1.271018E+0	1.277285E+0	1.211864E+0	1.146151E+0	1.229153E+0	1.274044E+0	1.273729E+0	1.246692E+0	1.246835E+0	1.267922E+0	1.155504E+0	1.042500E+0	1.330682E+0	1.264154E+0	1.174501E+0	1.160019E+0	1.303667E+0	1.270201E+0	1.211177E+0	1.273947E+0	1.242069E+0	1.293937E+0	1.245801E+0	1.309734E+0	1.265415E+0	1.301938E+0	1.200639E+0	1.145464E+0	1.278634E+0	1.286669E+0	1.138754E+0	1.102437E+0	1.267529E+0	1.305139E+0	1.213984E+0	1.149819E+0	1.237406E+0	1.224781E+0	1.280818E+0	1.253108E+0	1.250089E+0	1.311466E+0	1.228790E+0	1.176849E+0	1.302261E+0	1.303879E+0	1.108755E+0	1.113651E+0	1.247868E+0	1.257319E+0	1.242560E+0	1.170648E+0	1.205218E+0	1.228525E+0	1.230768E+0	1.306827E+0	1.214450E+0	1.342919E+0	1.178240E+0	1.204234E+0	1.306546E+0	1.274019E+0	1.130394E+0	1.192198E+0	1.165847E+0	1.259297E+0	1.240863E+0	1.193757E+0	1.189536E+0	1.287895E+0	1.274245E+0	1.262043E+0	1.243777E+0	1.309892E+0	1.163114E+0	1.166019E+0	1.235214E+0	1.246872E+0	1.124007E+0	1.139980E+0	1.249187E+0	1.185761E+0
5.475230E+2	1.395224E+0	1.406276E+0	1.282389E+0	1.322984E+0	1.412416E+0	1.402223E+0	1.254345E+0	1.188378E+0	1.297624E+0	1.378420E+0	1.372880E+0	1.312345E+0	1.288573E+0	1.432808E+0	1.417786E+0	1.432860E+0	1.130393E+0	1.419036E+0	1.264448E+0	1.365549E+0	1.391946E+0	1.464077E+0	1.271654E+0	1.307084E+0	1.368437E+0	1.440932E+0	1.272471E+0	1.405821E+0	1.285674E+0	1.408277E+0	1.385105E+0	1.435114E+0	1.356249E+0	1.443272E+0	1.283682E+0	1.281060E+0	1.399401E+0	1.428189E+0	1.253283E+0	1.163302E+0	1.338927E+0	1.427934E+0	1.347163E+0	1.312502E+0	1.327089E+0	1.419749E+0	1.428016E+0	1.400640E+0	1.349634E+0	1.325045E+0	1.323977E+0	1.294665E+0	1.371758E+0	1.451395E+0	1.225214E+0	1.291760E+0	1.379260E+0	1.380695E+0	1.307126E+0	1.289119E+0	1.311750E+0	1.386049E+0	1.439823E+0	1.373594E+0	1.368310E+0	1.389327E+0	1.256369E+0	1.250542E+0	1.437699E+0	1.404295E+0	1.269814E+0	1.191399E+0	1.380287E+0	1.413067E+0	1.335659E+0	1.296939E+0	1.229027E+0	1.370402E+0	1.387315E+0	1.374067E+0	1.340527E+0	1.365983E+0	1.323587E+0	1.265829E+0	1.388979E+0	1.404826E+0	1.231262E+0	1.180311E+0	1.338996E+0	1.413014E+0	1.326730E+0	1.261189E+0	1.324766E+0	1.366336E+0	1.422331E+0	1.370414E+0	1.351916E+0	1.426442E+0	1.261001E+0	1.120684E+0	1.403051E+0	1.395234E+0	1.223265E+0	1.228544E+0	1.376900E+0	1.419361E+0	1.326548E+0	1.392771E+0	1.331062E+0	1.453128E+0	1.359576E+0	1.334213E+0	1.393010E+0	1.405510E+0	1.269225E+0	1.292126E+0	1.415288E+0	1.390172E+0	1.270183E+0	1.225269E+0	1.417361E+0	1.395899E+0	1.314812E+0	1.316072E+0	1.350073E+0	1.380689E+0	1.347214E+0	1.440915E+0	1.353911E+0	1.368788E+0	1.286594E+0	1.322706E+0	1.395520E+0	1.403876E+0	1.229318E+0	1.227740E+0	1.333891E+0	1.369285E+0	1.304820E+0	1.293033E+0	1.329650E+0	1.392091E+0	1.299407E+0	1.406408E+0	1.357698E+0	1.382247E+0	1.227168E+0	1.276400E+0	1.394328E+0	1.422183E+0	1.212530E+0	1.202431E+0	1.325621E+0	1.375110E+0	1.359044E+0	1.273427E+0	1.328746E+0	1.386486E+0	1.385358E+0	1.356952E+0	1.313787E+0	1.389993E+0	1.310554E+0	1.314106E+0	1.387268E+0	1.351868E+0	1.238904E+0	1.217603E+0	1.371830E+0	1.437974E+0
5.482600E+2	1.515086E+0	1.536550E+0	1.427715E+0	1.427184E+0	1.488629E+0	1.455999E+0	1.405135E+0	1.323891E+0	1.439068E+0	1.504695E+0	1.490121E+0	1.429201E+0	1.368699E+0	1.509482E+0	1.518915E+0	1.522444E+0	1.230934E+0	1.490765E+0	1.367661E+0	1.465949E+0	1.518407E+0	1.520035E+0	1.379277E+0	1.347145E+0	1.422696E+0	1.549391E+0	1.360725E+0	1.459817E+0	1.382865E+0	1.494038E+0	1.469411E+0	1.457196E+0	1.505306E+0	1.543540E+0	1.460110E+0	1.399667E+0	1.476085E+0	1.490840E+0	1.314741E+0	1.247127E+0	1.470824E+0	1.560963E+0	1.379075E+0	1.434804E+0	1.428449E+0	1.496731E+0	1.448896E+0	1.489453E+0	1.466691E+0	1.412867E+0	1.352462E+0	1.402363E+0	1.413992E+0	1.546553E+0	1.275097E+0	1.339524E+0	1.432021E+0	1.453996E+0	1.437438E+0	1.466617E+0	1.502754E+0	1.458739E+0	1.488298E+0	1.532363E+0	1.477871E+0	1.525369E+0	1.361955E+0	1.397417E+0	1.510843E+0	1.487969E+0	1.368945E+0	1.278783E+0	1.444433E+0	1.539000E+0	1.384983E+0	1.353725E+0	1.400393E+0	1.513535E+0	1.513696E+0	1.455696E+0	1.456578E+0	1.521554E+0	1.436177E+0	1.425097E+0	1.452127E+0	1.521263E+0	1.342162E+0	1.304247E+0	1.451778E+0	1.528656E+0	1.421324E+0	1.333088E+0	1.472531E+0	1.446325E+0	1.470652E+0	1.452892E+0	1.457600E+0	1.487841E+0	1.380408E+0	1.173871E+0	1.505218E+0	1.488934E+0	1.355038E+0	1.327046E+0	1.512581E+0	1.479254E+0	1.454472E+0	1.526069E+0	1.461580E+0	1.493827E+0	1.485518E+0	1.479040E+0	1.493447E+0	1.469298E+0	1.365993E+0	1.361447E+0	1.557082E+0	1.526238E+0	1.343702E+0	1.297828E+0	1.514960E+0	1.491999E+0	1.391885E+0	1.457539E+0	1.442023E+0	1.506161E+0	1.489344E+0	1.504208E+0	1.459512E+0	1.525276E+0	1.414293E+0	1.372433E+0	1.513419E+0	1.505909E+0	1.293476E+0	1.338459E+0	1.421055E+0	1.470812E+0	1.397080E+0	1.426750E+0	1.429295E+0	1.468495E+0	1.524764E+0	1.509835E+0	1.440578E+0	1.482506E+0	1.357646E+0	1.349121E+0	1.518934E+0	1.517902E+0	1.297422E+0	1.356400E+0	1.431944E+0	1.462950E+0	1.361625E+0	1.406018E+0	1.378234E+0	1.507869E+0	1.473275E+0	1.444204E+0	1.450278E+0	1.464533E+0	1.347108E+0	1.373935E+0	1.464801E+0	1.529145E+0	1.371170E+0	1.333293E+0	1.455226E+0	1.390950E+0
5.490490E+2	1.543349E+0	1.497406E+0	1.445479E+0	1.395805E+0	1.499436E+0	1.558376E+0	1.493641E+0	1.276089E+0	1.376747E+0	1.405675E+0	1.525928E+0	1.456756E+0	1.382451E+0	1.497650E+0	1.519921E+0	1.487505E+0	1.219819E+0	1.546115E+0	1.444500E+0	1.445099E+0	1.480468E+0	1.487561E+0	1.445469E+0	1.390287E+0	1.441543E+0	1.524614E+0	1.398044E+0	1.477994E+0	1.414140E+0	1.512283E+0	1.464352E+0	1.466469E+0	1.440217E+0	1.481952E+0	1.451662E+0	1.413254E+0	1.521581E+0	1.496397E+0	1.401679E+0	1.295722E+0	1.432207E+0	1.490944E+0	1.426351E+0	1.453746E+0	1.467254E+0	1.514361E+0	1.455859E+0	1.452705E+0	1.428677E+0	1.345708E+0	1.385508E+0	1.410166E+0	1.475106E+0	1.454602E+0	1.309150E+0	1.332887E+0	1.500564E+0	1.587595E+0	1.390208E+0	1.437327E+0	1.419711E+0	1.514291E+0	1.527489E+0	1.536248E+0	1.464322E+0	1.555981E+0	1.328851E+0	1.396259E+0	1.517022E+0	1.466551E+0	1.290240E+0	1.262158E+0	1.457066E+0	1.467037E+0	1.438364E+0	1.359520E+0	1.401959E+0	1.404774E+0	1.440230E+0	1.436648E+0	1.465083E+0	1.571467E+0	1.386747E+0	1.349013E+0	1.493309E+0	1.460341E+0	1.357795E+0	1.283288E+0	1.442508E+0	1.513456E+0	1.468620E+0	1.346317E+0	1.387058E+0	1.442738E+0	1.484165E+0	1.476607E+0	1.439484E+0	1.486165E+0	1.378671E+0	1.165361E+0	1.504153E+0	1.515847E+0	1.316128E+0	1.342037E+0	1.521099E+0	1.476949E+0	1.401270E+0	1.472390E+0	1.417897E+0	1.458799E+0	1.439889E+0	1.475470E+0	1.511133E+0	1.488877E+0	1.361736E+0	1.353999E+0	1.454847E+0	1.473323E+0	1.331617E+0	1.260362E+0	1.496496E+0	1.509614E+0	1.442296E+0	1.438797E+0	1.410193E+0	1.515771E+0	1.401161E+0	1.502664E+0	1.490955E+0	1.479989E+0	1.328634E+0	1.423813E+0	1.522601E+0	1.544686E+0	1.273818E+0	1.285505E+0	1.446690E+0	1.510259E+0	1.404436E+0	1.473210E+0	1.393378E+0	1.513691E+0	1.428100E+0	1.467505E+0	1.429600E+0	1.470873E+0	1.368130E+0	1.364664E+0	1.465459E+0	1.521979E+0	1.294112E+0	1.346166E+0	1.404055E+0	1.500994E+0	1.394653E+0	1.394387E+0	1.409772E+0	1.475390E+0	1.412327E+0	1.504417E+0	1.422036E+0	1.450069E+0	1.319083E+0	1.386966E+0	1.471346E+0	1.450530E+0	1.371171E+0	1.346727E+0	1.441736E+0	1.356751E+0
5.497960E+2	1.447041E+0	1.373860E+0	1.472929E+0	1.345482E+0	1.407008E+0	1.475131E+0	1.445561E+0	1.262056E+0	1.372951E+0	1.429598E+0	1.480305E+0	1.353677E+0	1.310381E+0	1.417376E+0	1.471114E+0	1.431514E+0	1.202133E+0	1.410000E+0	1.449086E+0	1.391335E+0	1.459730E+0	1.457081E+0	1.459110E+0	1.364753E+0	1.374148E+0	1.462953E+0	1.390343E+0	1.398868E+0	1.359290E+0	1.404629E+0	1.421636E+0	1.432904E+0	1.424813E+0	1.446323E+0	1.493902E+0	1.297257E+0	1.434162E+0	1.427683E+0	1.460141E+0	1.192055E+0	1.410221E+0	1.473444E+0	1.404488E+0	1.312502E+0	1.378639E+0	1.447367E+0	1.420518E+0	1.424702E+0	1.415403E+0	1.300936E+0	1.431656E+0	1.270212E+0	1.378217E+0	1.402209E+0	1.425703E+0	1.289105E+0	1.417227E+0	1.448083E+0	1.413539E+0	1.374060E+0	1.378187E+0	1.394357E+0	1.468186E+0	1.390105E+0	1.388339E+0	1.434107E+0	1.315154E+0	1.362723E+0	1.467574E+0	1.367938E+0	1.371934E+0	1.238713E+0	1.346267E+0	1.433304E+0	1.398327E+0	1.317220E+0	1.345534E+0	1.401184E+0	1.392452E+0	1.468213E+0	1.387920E+0	1.364391E+0	1.358190E+0	1.278510E+0	1.414236E+0	1.368469E+0	1.263017E+0	1.195803E+0	1.381740E+0	1.475994E+0	1.375713E+0	1.240483E+0	1.327665E+0	1.437608E+0	1.446754E+0	1.365773E+0	1.450960E+0	1.357787E+0	1.347948E+0	1.126003E+0	1.377509E+0	1.467004E+0	1.289672E+0	1.246746E+0	1.439916E+0	1.408417E+0	1.317583E+0	1.396993E+0	1.340229E+0	1.426341E+0	1.408857E+0	1.415294E+0	1.417646E+0	1.388460E+0	1.367589E+0	1.285824E+0	1.421454E+0	1.465181E+0	1.245507E+0	1.227166E+0	1.406810E+0	1.427933E+0	1.353057E+0	1.369274E+0	1.325315E+0	1.445294E+0	1.413611E+0	1.455839E+0	1.463072E+0	1.450759E+0	1.324958E+0	1.335965E+0	1.430792E+0	1.437038E+0	1.256743E+0	1.247960E+0	1.352691E+0	1.383789E+0	1.315575E+0	1.304932E+0	1.360502E+0	1.374876E+0	1.394355E+0	1.435754E+0	1.380201E+0	1.420470E+0	1.315706E+0	1.311372E+0	1.460415E+0	1.465459E+0	1.290804E+0	1.270343E+0	1.329689E+0	1.415393E+0	1.350271E+0	1.341467E+0	1.303733E+0	1.443472E+0	1.392368E+0	1.391651E+0	1.313199E+0	1.440615E+0	1.292276E+0	1.314106E+0	1.397336E+0	1.414653E+0	1.277649E+0	1.252683E+0	1.371828E+0	1.410188E+0
5.505110E+2	1.363297E+0	1.379977E+0	1.348056E+0	1.265557E+0	1.433494E+0	1.431699E+0	1.383826E+0	1.176976E+0	1.242345E+0	1.336143E+0	1.362485E+0	1.239882E+0	1.219823E+0	1.364886E+0	1.396653E+0	1.371494E+0	1.117257E+0	1.337139E+0	1.341859E+0	1.304098E+0	1.348947E+0	1.372645E+0	1.361595E+0	1.300921E+0	1.327316E+0	1.388082E+0	1.297940E+0	1.287669E+0	1.306841E+0	1.397939E+0	1.364869E+0	1.394926E+0	1.349789E+0	1.356236E+0	1.390038E+0	1.265908E+0	1.338054E+0	1.331176E+0	1.410176E+0	1.185982E+0	1.283672E+0	1.402262E+0	1.350709E+0	1.263798E+0	1.257006E+0	1.390952E+0	1.414629E+0	1.382266E+0	1.322482E+0	1.251572E+0	1.362719E+0	1.246799E+0	1.342938E+0	1.358908E+0	1.340328E+0	1.277167E+0	1.350163E+0	1.394882E+0	1.358341E+0	1.309622E+0	1.343412E+0	1.391243E+0	1.353191E+0	1.347375E+0	1.330024E+0	1.357016E+0	1.368803E+0	1.238397E+0	1.313558E+0	1.311156E+0	1.333578E+0	1.125750E+0	1.296702E+0	1.335482E+0	1.360028E+0	1.236097E+0	1.266121E+0	1.362708E+0	1.362142E+0	1.390390E+0	1.306503E+0	1.349521E+0	1.352146E+0	1.268874E+0	1.331867E+0	1.358644E+0	1.362682E+0	1.147049E+0	1.311186E+0	1.408671E+0	1.386412E+0	1.232430E+0	1.260541E+0	1.279171E+0	1.377647E+0	1.311646E+0	1.359767E+0	1.392393E+0	1.262739E+0	1.103133E+0	1.351967E+0	1.372806E+0	1.309903E+0	1.203918E+0	1.382578E+0	1.345067E+0	1.347470E+0	1.334867E+0	1.322430E+0	1.335668E+0	1.371136E+0	1.365317E+0	1.369008E+0	1.397933E+0	1.289963E+0	1.243430E+0	1.340282E+0	1.420408E+0	1.215798E+0	1.173575E+0	1.307097E+0	1.325960E+0	1.354217E+0	1.287658E+0	1.327336E+0	1.376952E+0	1.312977E+0	1.360649E+0	1.343825E+0	1.380252E+0	1.259795E+0	1.236518E+0	1.316758E+0	1.376328E+0	1.159981E+0	1.197413E+0	1.325346E+0	1.390749E+0	1.226145E+0	1.302100E+0	1.285138E+0	1.359271E+0	1.334868E+0	1.339059E+0	1.289642E+0	1.349015E+0	1.228333E+0	1.220333E+0	1.383734E+0	1.331551E+0	1.199299E+0	1.209871E+0	1.318649E+0	1.319721E+0	1.243446E+0	1.296108E+0	1.285788E+0	1.398452E+0	1.348140E+0	1.380935E+0	1.279665E+0	1.404456E+0	1.227086E+0	1.233547E+0	1.341449E+0	1.381413E+0	1.223540E+0	1.228053E+0	1.314188E+0	1.350340E+0
5.512620E+2	1.327180E+0	1.383035E+0	1.351824E+0	1.225298E+0	1.340525E+0	1.407395E+0	1.405679E+0	1.194081E+0	1.251557E+0	1.321123E+0	1.363063E+0	1.250600E+0	1.257280E+0	1.342760E+0	1.409735E+0	1.398370E+0	1.072798E+0	1.328101E+0	1.308601E+0	1.361707E+0	1.309492E+0	1.329174E+0	1.383322E+0	1.305320E+0	1.354731E+0	1.370462E+0	1.300310E+0	1.356634E+0	1.327533E+0	1.343807E+0	1.378922E+0	1.409057E+0	1.357243E+0	1.317046E+0	1.390035E+0	1.291511E+0	1.338566E+0	1.395853E+0	1.387691E+0	1.109043E+0	1.292584E+0	1.324663E+0	1.421625E+0	1.256221E+0	1.326509E+0	1.352165E+0	1.355729E+0	1.344202E+0	1.316449E+0	1.245832E+0	1.374684E+0	1.272814E+0	1.340949E+0	1.334853E+0	1.347522E+0	1.183409E+0	1.303807E+0	1.390154E+0	1.420366E+0	1.251627E+0	1.276457E+0	1.337762E+0	1.348548E+0	1.341066E+0	1.354762E+0	1.423336E+0	1.354535E+0	1.316462E+0	1.378461E+0	1.337057E+0	1.350015E+0	1.193529E+0	1.287952E+0	1.393389E+0	1.378599E+0	1.263911E+0	1.247314E+0	1.369377E+0	1.400158E+0	1.340869E+0	1.326553E+0	1.318726E+0	1.353243E+0	1.247569E+0	1.338460E+0	1.321797E+0	1.323598E+0	1.184413E+0	1.303462E+0	1.429846E+0	1.331796E+0	1.281321E+0	1.275991E+0	1.308910E+0	1.427006E+0	1.305460E+0	1.331987E+0	1.371740E+0	1.331137E+0	1.068030E+0	1.401455E+0	1.331439E+0	1.357632E+0	1.252099E+0	1.329214E+0	1.338159E+0	1.339698E+0	1.342708E+0	1.304634E+0	1.320725E+0	1.354100E+0	1.368886E+0	1.396170E+0	1.383408E+0	1.384602E+0	1.218795E+0	1.338229E+0	1.328535E+0	1.324566E+0	1.204875E+0	1.368823E+0	1.374544E+0	1.360012E+0	1.281008E+0	1.311676E+0	1.316082E+0	1.379375E+0	1.322059E+0	1.335519E+0	1.371654E+0	1.361217E+0	1.297292E+0	1.349135E+0	1.391630E+0	1.343670E+0	1.216186E+0	1.271225E+0	1.354782E+0	1.332556E+0	1.262437E+0	1.254789E+0	1.358735E+0	1.349740E+0	1.329919E+0	1.359346E+0	1.414374E+0	1.249303E+0	1.259747E+0	1.393821E+0	1.343261E+0	1.258833E+0	1.186615E+0	1.358158E+0	1.392453E+0	1.376591E+0	1.228649E+0	1.260228E+0	1.338045E+0	1.310384E+0	1.361033E+0	1.292608E+0	1.388323E+0	1.256330E+0	1.250132E+0	1.359073E+0	1.377191E+0	1.233561E+0	1.232531E+0	1.337489E+0	1.384539E+0
5.520210E+2	1.315144E+0	1.367134E+0	1.300150E+0	1.220562E+0	1.290257E+0	1.379473E+0	1.394205E+0	1.160750E+0	1.240719E+0	1.321680E+0	1.405800E+0	1.243966E+0	1.263918E+0	1.332983E+0	1.367975E+0	1.362536E+0	1.088459E+0	1.291388E+0	1.308027E+0	1.370486E+0	1.350464E+0	1.324677E+0	1.312580E+0	1.260419E+0	1.316464E+0	1.359452E+0	1.261808E+0	1.298898E+0	1.208207E+0	1.357797E+0	1.308105E+0	1.355623E+0	1.319480E+0	1.340967E+0	1.358727E+0	1.223062E+0	1.323227E+0	1.335219E+0	1.381194E+0	1.119167E+0	1.264066E+0	1.344500E+0	1.270929E+0	1.229701E+0	1.263956E+0	1.382137E+0	1.329493E+0	1.335888E+0	1.386441E+0	1.173506E+0	1.284095E+0	1.242636E+0	1.317098E+0	1.366927E+0	1.364789E+0	1.224541E+0	1.325013E+0	1.307393E+0	1.394761E+0	1.214136E+0	1.260366E+0	1.319073E+0	1.336688E+0	1.286685E+0	1.268762E+0	1.345678E+0	1.355106E+0	1.178837E+0	1.349616E+0	1.331578E+0	1.348022E+0	1.122766E+0	1.324400E+0	1.325925E+0	1.331597E+0	1.223930E+0	1.231638E+0	1.332953E+0	1.344159E+0	1.329986E+0	1.293743E+0	1.341556E+0	1.380706E+0	1.257206E+0	1.340655E+0	1.387628E+0	1.355841E+0	1.154340E+0	1.289557E+0	1.340263E+0	1.327854E+0	1.197918E+0	1.272129E+0	1.297628E+0	1.331921E+0	1.281232E+0	1.306018E+0	1.279642E+0	1.354324E+0	1.169084E+0	1.332280E+0	1.313000E+0	1.346739E+0	1.227474E+0	1.324105E+0	1.332976E+0	1.293670E+0	1.343312E+0	1.244766E+0	1.345970E+0	1.326113E+0	1.329110E+0	1.311526E+0	1.317727E+0	1.356421E+0	1.209629E+0	1.353125E+0	1.345980E+0	1.327590E+0	1.128522E+0	1.332948E+0	1.345714E+0	1.314233E+0	1.307004E+0	1.265195E+0	1.339575E+0	1.294306E+0	1.324631E+0	1.253055E+0	1.325795E+0	1.300257E+0	1.228783E+0	1.281483E+0	1.362040E+0	1.314692E+0	1.187306E+0	1.315661E+0	1.390170E+0	1.338215E+0	1.269803E+0	1.257318E+0	1.295780E+0	1.310275E+0	1.286143E+0	1.296776E+0	1.321319E+0	1.313376E+0	1.218112E+0	1.282329E+0	1.354973E+0	1.324432E+0	1.200107E+0	1.250673E+0	1.369517E+0	1.339434E+0	1.249585E+0	1.293400E+0	1.282764E+0	1.402618E+0	1.270716E+0	1.252014E+0	1.350498E+0	1.341016E+0	1.196822E+0	1.290094E+0	1.297523E+0	1.391877E+0	1.148937E+0	1.295791E+0	1.309730E+0
5.527590E+2	1.308338E+0	1.317593E+0	1.253860E+0	1.234179E+0	1.349174E+0	1.341729E+0	1.293681E+0	1.108124E+0	1.267817E+0	1.350048E+0	1.286828E+0	1.239884E+0	1.242581E+0	1.324749E+0	1.329233E+0	1.325358E+0	1.077345E+0	1.301556E+0	1.333831E+0	1.305197E+0	1.296844E+0	1.283706E+0	1.328243E+0	1.157404E+0	1.244500E+0	1.314860E+0	1.254108E+0	1.280185E+0	1.226492E+0	1.350498E+0	1.319907E+0	1.356507E+0	1.305071E+0	1.264622E+0	1.282191E+0	1.222018E+0	1.284374E+0	1.303892E+0	1.341723E+0	1.118761E+0	1.274760E+0	1.341000E+0	1.296340E+0	1.186950E+0	1.273803E+0	1.328661E+0	1.331099E+0	1.273761E+0	1.315242E+0	1.242388E+0	1.303466E+0	1.219747E+0	1.317098E+0	1.270701E+0	1.301957E+0	1.178103E+0	1.259920E+0	1.327492E+0	1.327042E+0	1.256899E+0	1.259327E+0	1.262479E+0	1.352676E+0	1.281345E+0	1.308228E+0	1.298061E+0	1.277485E+0	1.237241E+0	1.286258E+0	1.282270E+0	1.373426E+0	1.116375E+0	1.205828E+0	1.279824E+0	1.307226E+0	1.238415E+0	1.253060E+0	1.295500E+0	1.283023E+0	1.279375E+0	1.287059E+0	1.281027E+0	1.332376E+0	1.231338E+0	1.293429E+0	1.332115E+0	1.259598E+0	1.128823E+0	1.261748E+0	1.294657E+0	1.328418E+0	1.154203E+0	1.218529E+0	1.290449E+0	1.267496E+0	1.255457E+0	1.269784E+0	1.323180E+0	1.341571E+0	1.225994E+0	1.293969E+0	1.318481E+0	1.351408E+0	1.201242E+0	1.325807E+0	1.288054E+0	1.314592E+0	1.245599E+0	1.204854E+0	1.322272E+0	1.296908E+0	1.316364E+0	1.307104E+0	1.267202E+0	1.341001E+0	1.174109E+0	1.286853E+0	1.328533E+0	1.305431E+0	1.103862E+0	1.298129E+0	1.345179E+0	1.277146E+0	1.280403E+0	1.255598E+0	1.242402E+0	1.305196E+0	1.318457E+0	1.264921E+0	1.283377E+0	1.333365E+0	1.239279E+0	1.284868E+0	1.353877E+0	1.319351E+0	1.169493E+0	1.295722E+0	1.390750E+0	1.335385E+0	1.212010E+0	1.297785E+0	1.308693E+0	1.295402E+0	1.280851E+0	1.312694E+0	1.315226E+0	1.279593E+0	1.181474E+0	1.329247E+0	1.302530E+0	1.268755E+0	1.175917E+0	1.232081E+0	1.301817E+0	1.333759E+0	1.246677E+0	1.227058E+0	1.290745E+0	1.304451E+0	1.347258E+0	1.214950E+0	1.317121E+0	1.292276E+0	1.136994E+0	1.323324E+0	1.333403E+0	1.300362E+0	1.137742E+0	1.376736E+0	1.194309E+0
5.535440E+2	1.230349E+0	1.282730E+0	1.246863E+0	1.160766E+0	1.272420E+0	1.270891E+0	1.317173E+0	1.118649E+0	1.137751E+0	1.260489E+0	1.222143E+0	1.142418E+0	1.124997E+0	1.262483E+0	1.279424E+0	1.216961E+0	1.013182E+0	1.238862E+0	1.231764E+0	1.239908E+0	1.219447E+0	1.234242E+0	1.251947E+0	1.137593E+0	1.175392E+0	1.255399E+0	1.233968E+0	1.202667E+0	1.175006E+0	1.288460E+0	1.226046E+0	1.238596E+0	1.226072E+0	1.256986E+0	1.274242E+0	1.145208E+0	1.193891E+0	1.260441E+0	1.251284E+0	1.036150E+0	1.172569E+0	1.245898E+0	1.253200E+0	1.125798E+0	1.190399E+0	1.260493E+0	1.215443E+0	1.225636E+0	1.246455E+0	1.117254E+0	1.274407E+0	1.147428E+0	1.255984E+0	1.231675E+0	1.251594E+0	1.128130E+0	1.226389E+0	1.217540E+0	1.254206E+0	1.218822E+0	1.214174E+0	1.254172E+0	1.214472E+0	1.221138E+0	1.212215E+0	1.227772E+0	1.275202E+0	1.151082E+0	1.300166E+0	1.264340E+0	1.252876E+0	1.046465E+0	1.202426E+0	1.226975E+0	1.245137E+0	1.141068E+0	1.127148E+0	1.290884E+0	1.285081E+0	1.240192E+0	1.245136E+0	1.232178E+0	1.284044E+0	1.118228E+0	1.298921E+0	1.223538E+0	1.249339E+0	1.059564E+0	1.236001E+0	1.239280E+0	1.234948E+0	1.134647E+0	1.205010E+0	1.250969E+0	1.253464E+0	1.192050E+0	1.216639E+0	1.228851E+0	1.252306E+0	1.175465E+0	1.231709E+0	1.257175E+0	1.265806E+0	1.182504E+0	1.245762E+0	1.222403E+0	1.194439E+0	1.235345E+0	1.142829E+0	1.218205E+0	1.245192E+0	1.234259E+0	1.255308E+0	1.303832E+0	1.232540E+0	1.151193E+0	1.236509E+0	1.226777E+0	1.257091E+0	1.078725E+0	1.220575E+0	1.215447E+0	1.250491E+0	1.140751E+0	1.164656E+0	1.231189E+0	1.235689E+0	1.250536E+0	1.279159E+0	1.235800E+0	1.220907E+0	1.165798E+0	1.223017E+0	1.285007E+0	1.206550E+0	1.167084E+0	1.165263E+0	1.254418E+0	1.255013E+0	1.179714E+0	1.215337E+0	1.247356E+0	1.201597E+0	1.225049E+0	1.235854E+0	1.222168E+0	1.267943E+0	1.186470E+0	1.255089E+0	1.272999E+0	1.189377E+0	1.121956E+0	1.173981E+0	1.260975E+0	1.215061E+0	1.095478E+0	1.169416E+0	1.218939E+0	1.244582E+0	1.277350E+0	1.196712E+0	1.237020E+0	1.228913E+0	1.155949E+0	1.196952E+0	1.228407E+0	1.226881E+0	1.025037E+0	1.159658E+0	1.057516E+0
5.542580E+2	1.122526E+0	1.053988E+0	1.160204E+0	1.138860E+0	1.171884E+0	1.122496E+0	1.204628E+0	1.163818E+0	1.076511E+0	1.129208E+0	1.141865E+0	1.159768E+0	1.054827E+0	1.157508E+0	1.152128E+0	1.187396E+0	8.949597E-1	1.113475E+0	1.158940E+0	1.116463E+0	1.104113E+0	1.153798E+0	1.155442E+0	1.098411E+0	1.143979E+0	1.167314E+0	1.062195E+0	1.139047E+0	1.037400E+0	1.139447E+0	1.122628E+0	1.182951E+0	1.106825E+0	1.085462E+0	1.147513E+0	1.069968E+0	1.185710E+0	1.138167E+0	1.168839E+0	9.843176E-1	1.094143E+0	1.163047E+0	1.145054E+0	1.099822E+0	1.073979E+0	1.145312E+0	1.172608E+0	1.110570E+0	1.129398E+0	1.069611E+0	1.145077E+0	1.069906E+0	1.123316E+0	1.233812E+0	1.122091E+0	1.018896E+0	1.101135E+0	1.148376E+0	1.151210E+0	1.021408E+0	1.044967E+0	1.141506E+0	1.105666E+0	1.141025E+0	1.127982E+0	1.141044E+0	1.156488E+0	1.058561E+0	1.152330E+0	1.126372E+0	1.114891E+0	9.782599E-1	1.071215E+0	1.095421E+0	1.144751E+0	1.086021E+0	1.012729E+0	1.142106E+0	1.125818E+0	1.113936E+0	1.105997E+0	1.132887E+0	1.122575E+0	1.062434E+0	1.095747E+0	1.141002E+0	1.159934E+0	9.575008E-1	1.106226E+0	1.144269E+0	1.162878E+0	1.032838E+0	1.073179E+0	1.096630E+0	1.148508E+0	1.079668E+0	1.095254E+0	1.164102E+0	1.161881E+0	1.090900E+0	1.113050E+0	1.075259E+0	1.111728E+0	1.088284E+0	1.137900E+0	1.079003E+0	1.115533E+0	1.086362E+0	1.096984E+0	1.144533E+0	1.139937E+0	1.150624E+0	1.077178E+0	1.147840E+0	1.135241E+0	9.890629E-1	1.115778E+0	1.124436E+0	1.134723E+0	9.819786E-1	1.116644E+0	1.156185E+0	1.167047E+0	1.099036E+0	1.059065E+0	1.104649E+0	1.140762E+0	1.154317E+0	1.113044E+0	1.108546E+0	1.121583E+0	1.010548E+0	1.116231E+0	1.191128E+0	1.129453E+0	9.976366E-1	1.099178E+0	1.146512E+0	1.103888E+0	1.120788E+0	1.119739E+0	1.179024E+0	1.081481E+0	1.106707E+0	1.075042E+0	1.145175E+0	1.099605E+0	1.000505E+0	1.124930E+0	1.147748E+0	1.112203E+0	1.028459E+0	1.072889E+0	1.147959E+0	1.125781E+0	1.076868E+0	1.042169E+0	1.139725E+0	1.157742E+0	1.131416E+0	1.101993E+0	1.134667E+0	1.175908E+0	1.041626E+0	1.125962E+0	1.127633E+0	1.121335E+0	1.048175E+0	1.095884E+0	1.164386E+0
5.550250E+2	1.037733E+0	1.037475E+0	1.015414E+0	1.104522E+0	1.052430E+0	1.040801E+0	1.071868E+0	1.040586E+0	9.784207E-1	1.047435E+0	1.038486E+0	1.092409E+0	9.870263E-1	1.035553E+0	1.051000E+0	1.036892E+0	8.080618E-1	1.087494E+0	1.047697E+0	1.042395E+0	1.006990E+0	1.055369E+0	1.009922E+0	1.060112E+0	9.446513E-1	1.052251E+0	9.733454E-1	1.054044E+0	9.912077E-1	1.062204E+0	1.014153E+0	1.027943E+0	1.054157E+0	1.029474E+0	1.073959E+0	1.079896E+0	1.060463E+0	1.050756E+0	1.040927E+0	1.014688E+0	1.003241E+0	1.024770E+0	1.014452E+0	1.061940E+0	9.766739E-1	1.064215E+0	1.025896E+0	1.016944E+0	9.809663E-1	9.771960E-1	1.086394E+0	1.061582E+0	1.037356E+0	9.959178E-1	1.026162E+0	1.034818E+0	1.005470E+0	1.069164E+0	1.040247E+0	1.075301E+0	1.001368E+0	1.029358E+0	1.049458E+0	1.032266E+0	9.983936E-1	1.057716E+0	9.858349E-1	9.949539E-1	1.054976E+0	1.032737E+0	1.036682E+0	9.577983E-1	9.920040E-1	1.011090E+0	1.088464E+0	9.904124E-1	9.526465E-1	1.043607E+0	9.881367E-1	9.920351E-1	1.031263E+0	1.075011E+0	1.024814E+0	9.193980E-1	1.055661E+0	1.050112E+0	1.061735E+0	9.105694E-1	1.037734E+0	1.035142E+0	1.041820E+0	9.252770E-1	9.877078E-1	1.025358E+0	1.028483E+0	9.904869E-1	9.575612E-1	1.026792E+0	1.072614E+0	9.919737E-1	1.006627E+0	1.064792E+0	1.054661E+0	9.747899E-1	1.061260E+0	1.056543E+0	1.031846E+0	1.029061E+0	1.006914E+0	1.005948E+0	1.014602E+0	1.010384E+0	1.041173E+0	1.036056E+0	1.088453E+0	8.928157E-1	1.039745E+0	1.015700E+0	1.021424E+0	8.880773E-1	1.029065E+0	9.917492E-1	1.019281E+0	9.962630E-1	9.959122E-1	1.050189E+0	1.010044E+0	1.040088E+0	1.062023E+0	1.038614E+0	1.034350E+0	9.448012E-1	1.050033E+0	1.075320E+0	1.050285E+0	8.801777E-1	9.915062E-1	1.049048E+0	1.037665E+0	9.751729E-1	9.700196E-1	1.036978E+0	1.043730E+0	1.023965E+0	9.943614E-1	1.063750E+0	1.051258E+0	9.277834E-1	1.056823E+0	1.047444E+0	1.012428E+0	8.930972E-1	9.839956E-1	1.056203E+0	1.009149E+0	9.593987E-1	1.010084E+0	1.045694E+0	1.070363E+0	1.033446E+0	1.022570E+0	1.014514E+0	1.068070E+0	1.009639E+0	1.048426E+0	1.014725E+0	1.039837E+0	9.280085E-1	9.732424E-1	9.613338E-1
5.557550E+2	9.592216E-1	9.316660E-1	9.588967E-1	9.872982E-1	9.383811E-1	9.627248E-1	9.915563E-1	1.012080E+0	9.025491E-1	9.845763E-1	9.512765E-1	9.428936E-1	8.959937E-1	9.532196E-1	9.981710E-1	1.045404E+0	9.353776E-1	9.327370E-1	9.450566E-1	9.831415E-1	9.265593E-1	9.494453E-1	1.003859E+0	9.711848E-1	9.880577E-1	9.415925E-1	9.401753E-1	9.481911E-1	9.012324E-1	9.752289E-1	1.000664E+0	9.749481E-1	9.214963E-1	9.612716E-1	1.003885E+0	9.879351E-1	9.423720E-1	9.512190E-1	9.989553E-1	9.527315E-1	9.349150E-1	9.728432E-1	1.011496E+0	9.888815E-1	8.909526E-1	1.011326E+0	9.766349E-1	9.780056E-1	9.381256E-1	8.979826E-1	9.844098E-1	9.492020E-1	9.573590E-1	9.360424E-1	9.254368E-1	9.543283E-1	9.635541E-1	9.686697E-1	9.856188E-1	9.739586E-1	9.333749E-1	1.008071E+0	9.937650E-1	9.579792E-1	9.530374E-1	1.001597E+0	9.487368E-1	9.689322E-1	9.792554E-1	9.201735E-1	9.554835E-1	9.748492E-1	9.351463E-1	9.200137E-1	9.416570E-1	9.689735E-1	8.899513E-1	9.979477E-1	9.706705E-1	9.985654E-1	9.601757E-1	9.921800E-1	9.523185E-1	1.000554E+0	9.754892E-1	9.665925E-1	9.806354E-1	1.013546E+0	9.646072E-1	9.770493E-1	9.573610E-1	1.012131E+0	8.964422E-1	9.545983E-1	1.005102E+0	1.007498E+0	9.690354E-1	9.642772E-1	9.862468E-1	9.526159E-1	9.193608E-1	9.581341E-1	9.944815E-1	9.528408E-1	9.619125E-1	9.908905E-1	9.774480E-1	9.693485E-1	9.465065E-1	9.240336E-1	9.561938E-1	9.726473E-1	9.704272E-1	9.905837E-1	1.010827E+0	8.767748E-1	9.631977E-1	9.883707E-1	9.660324E-1	8.899739E-1	9.530941E-1	9.869442E-1	9.607536E-1	9.485031E-1	9.893443E-1	9.818469E-1	9.586912E-1	9.572461E-1	9.587946E-1	9.841583E-1	9.471146E-1	9.099939E-1	9.379311E-1	9.860392E-1	1.000612E+0	8.763269E-1	9.613126E-1	9.881339E-1	9.454059E-1	9.202130E-1	9.452349E-1	1.002544E+0	9.356262E-1	9.450724E-1	9.427701E-1	9.790017E-1	9.965049E-1	8.422949E-1	9.740878E-1	9.542685E-1	9.600599E-1	8.870498E-1	9.700524E-1	9.566147E-1	9.885056E-1	8.919403E-1	9.399353E-1	9.841470E-1	9.641070E-1	9.543545E-1	1.004921E+0	9.867000E-1	9.748543E-1	9.379650E-1	9.703865E-1	1.014197E+0	9.730363E-1	8.421745E-1	9.229589E-1	9.271345E-1
5.560190E+2	9.267697E-1	9.475679E-1	1.008954E+0	9.760498E-1	9.929733E-1	9.529006E-1	9.839079E-1	9.704177E-1	9.291041E-1	9.662190E-1	9.570518E-1	9.587129E-1	8.855622E-1	9.794635E-1	9.206880E-1	9.961312E-1	9.586178E-1	1.003902E+0	1.015587E+0	1.005636E+0	9.751212E-1	9.999090E-1	1.006890E+0	9.672226E-1	9.389398E-1	9.663672E-1	9.158900E-1	9.465872E-1	9.291394E-1	9.648895E-1	9.821168E-1	9.484508E-1	9.562761E-1	9.526191E-1	9.919582E-1	9.837549E-1	9.689553E-1	9.734507E-1	9.864641E-1	9.810768E-1	9.313503E-1	1.009016E+0	9.648106E-1	1.005117E+0	9.013785E-1	1.017789E+0	9.696747E-1	9.920054E-1	9.797592E-1	8.359903E-1	1.015745E+0	9.663713E-1	1.006550E+0	9.852255E-1	9.719625E-1	9.583090E-1	9.388977E-1	9.710341E-1	9.856187E-1	9.651717E-1	9.312984E-1	9.987257E-1	9.592148E-1	9.774003E-1	9.477363E-1	9.783570E-1	9.692837E-1	9.822319E-1	9.545304E-1	9.899031E-1	1.000815E+0	9.714394E-1	9.822843E-1	9.992846E-1	9.828553E-1	9.602820E-1	9.333152E-1	9.820440E-1	9.855683E-1	9.827836E-1	1.000276E+0	1.001207E+0	9.495721E-1	9.863515E-1	9.727439E-1	9.970525E-1	9.821012E-1	9.748146E-1	9.440078E-1	9.699917E-1	1.006911E+0	9.764695E-1	9.336246E-1	9.422920E-1	9.588577E-1	1.006467E+0	9.346130E-1	9.960927E-1	9.833484E-1	9.722947E-1	9.704438E-1	1.000000E+0	1.007970E+0	9.769316E-1	9.437465E-1	9.954979E-1	9.852184E-1	9.952838E-1	9.993629E-1	9.379438E-1	9.860068E-1	9.986554E-1	1.024749E+0	9.634278E-1	9.736090E-1	1.019426E+0	1.013031E+0	9.662744E-1	9.615008E-1	9.999996E-1	9.552041E-1	9.773342E-1	9.526417E-1	9.890085E-1	9.721667E-1	9.919911E-1	9.794397E-1	9.526152E-1	9.896450E-1	9.698279E-1	1.007023E+0	9.630333E-1	9.968811E-1	9.661427E-1	1.001647E+0	9.523864E-1	9.294093E-1	9.875535E-1	9.442741E-1	9.927370E-1	9.755834E-1	9.460482E-1	9.773810E-1	1.006166E+0	9.784453E-1	9.640462E-1	9.813606E-1	9.183463E-1	9.645021E-1	1.009767E+0	9.771484E-1	9.382180E-1	9.694713E-1	9.683635E-1	1.010181E+0	9.419520E-1	9.372166E-1	1.005803E+0	9.743552E-1	1.001299E+0	9.807992E-1	9.789124E-1	9.809469E-1	9.302646E-1	9.854910E-1	1.006811E+0	9.556679E-1	8.697910E-1	9.634300E-1	1.031867E+0
5.565140E+2	1.039304E+0	1.002614E+0	1.011108E+0	1.016308E+0	9.913516E-1	9.865097E-1	1.016688E+0	1.015588E+0	9.274785E-1	9.912513E-1	1.024624E+0	1.026581E+0	9.173290E-1	9.866676E-1	1.003705E+0	1.005986E+0	9.783214E-1	1.023106E+0	1.077515E+0	9.666823E-1	1.015084E+0	1.016397E+0	9.649520E-1	9.940766E-1	9.846311E-1	1.008759E+0	9.348439E-1	1.010741E+0	9.098935E-1	9.673221E-1	9.899854E-1	1.012486E+0	9.473332E-1	1.018277E+0	1.005376E+0	1.008835E+0	1.007808E+0	9.820401E-1	9.939586E-1	9.867473E-1	9.741280E-1	1.000265E+0	1.068820E+0	1.042999E+0	9.210710E-1	1.015440E+0	9.503985E-1	9.898175E-1	1.021996E+0	9.020013E-1	1.016316E+0	1.017879E+0	9.911465E-1	9.697228E-1	9.724425E-1	1.040565E+0	9.891963E-1	1.017734E+0	9.907402E-1	1.032538E+0	9.634791E-1	1.004956E+0	1.036566E+0	1.009931E+0	9.606952E-1	1.020303E+0	1.030924E+0	1.049309E+0	1.015312E+0	1.017296E+0	9.714243E-1	1.021741E+0	9.511830E-1	1.009405E+0	1.035081E+0	9.521693E-1	9.265232E-1	9.774272E-1	1.023586E+0	1.014347E+0	9.540996E-1	1.027224E+0	1.002846E+0	1.010698E+0	9.963556E-1	9.837873E-1	1.011415E+0	1.004888E+0	1.015075E+0	1.000395E+0	9.686221E-1	1.000053E+0	9.703244E-1	1.023306E+0	9.853569E-1	1.031727E+0	9.871533E-1	9.933021E-1	1.031459E+0	1.040905E+0	9.997096E-1	1.004984E+0	1.003301E+0	1.018689E+0	1.027198E+0	9.851314E-1	9.864139E-1	9.892527E-1	9.670018E-1	1.019858E+0	9.829642E-1	1.003245E+0	1.020960E+0	9.394284E-1	9.693556E-1	1.063540E+0	1.016113E+0	1.003489E+0	9.876859E-1	1.009011E+0	9.683938E-1	1.036595E+0	9.920453E-1	9.938444E-1	9.913653E-1	1.012280E+0	9.903331E-1	9.942928E-1	9.819318E-1	1.013966E+0	9.817984E-1	9.967353E-1	9.654732E-1	1.024813E+0	1.004234E+0	9.803073E-1	9.624524E-1	1.002637E+0	9.952147E-1	1.033532E+0	9.558571E-1	9.858638E-1	1.086628E+0	9.729733E-1	9.943619E-1	1.032731E+0	9.982525E-1	1.002170E+0	1.036140E+0	1.002638E+0	1.015184E+0	1.009853E+0	1.001426E+0	9.672445E-1	9.874735E-1	1.077450E+0	9.769130E-1	1.013781E+0	9.948519E-1	9.910939E-1	9.778581E-1	1.055121E+0	1.019330E+0	9.841679E-1	1.013685E+0	9.814854E-1	1.029149E+0	1.001153E+0	1.038242E+0	9.805686E-1
5.570440E+2	1.038257E+0	1.001390E+0	1.015414E+0	1.010979E+0	1.004324E+0	1.037698E+0	1.004669E+0	1.053744E+0	9.453628E-1	1.050773E+0	1.030400E+0	1.042400E+0	9.291822E-1	1.047903E+0	1.029365E+0	1.043165E+0	9.803422E-1	9.999482E-1	9.479237E-1	9.952114E-1	9.452758E-1	1.029888E+0	9.821316E-1	9.848319E-1	9.435090E-1	1.048397E+0	9.561680E-1	1.048698E+0	9.430930E-1	1.022670E+0	9.933573E-1	9.979135E-1	9.826100E-1	1.046271E+0	9.944426E-1	1.002565E+0	1.012920E+0	1.028525E+0	1.063911E+0	1.015093E+0	9.438272E-1	9.751772E-1	9.919947E-1	1.027846E+0	9.564023E-1	9.760658E-1	1.055881E+0	1.076446E+0	1.007515E+0	9.352941E-1	1.008339E+0	1.057420E+0	1.010028E+0	1.017302E+0	1.039593E+0	9.905915E-1	9.458015E-1	9.875866E-1	1.031142E+0	1.044254E+0	9.546553E-1	9.857458E-1	9.726229E-1	1.035666E+0	1.000750E+0	9.942281E-1	1.018368E+0	1.011144E+0	9.596815E-1	1.037717E+0	1.069061E+0	1.005968E+0	9.536131E-1	1.025145E+0	1.004905E+0	1.013591E+0	9.291359E-1	1.025651E+0	9.886509E-1	1.010538E+0	1.033086E+0	1.017666E+0	9.759341E-1	9.878725E-1	1.020517E+0	1.015721E+0	1.010437E+0	9.798262E-1	9.774817E-1	1.029170E+0	1.002969E+0	1.039165E+0	9.611490E-1	1.022794E+0	1.008219E+0	1.009560E+0	9.786983E-1	1.019536E+0	9.897241E-1	1.028672E+0	9.986460E-1	1.014453E+0	9.898130E-1	1.026183E+0	9.800790E-1	1.008167E+0	1.006739E+0	9.910615E-1	9.492031E-1	1.000796E+0	1.021903E+0	9.527591E-1	1.010222E+0	1.001952E+0	1.010296E+0	9.970839E-1	9.888843E-1	1.012793E+0	9.942323E-1	1.052642E+0	9.879134E-1	1.028053E+0	1.003056E+0	1.024072E+0	9.853026E-1	9.983982E-1	1.039612E+0	1.034942E+0	1.014562E+0	1.010526E+0	1.001242E+0	1.008890E+0	1.018625E+0	9.891009E-1	9.814664E-1	1.049146E+0	9.880884E-1	1.017721E+0	1.014459E+0	1.007469E+0	9.690075E-1	1.035903E+0	1.013416E+0	1.013382E+0	9.949106E-1	1.010021E+0	1.018639E+0	1.019934E+0	1.004861E+0	1.006712E+0	1.015184E+0	1.023807E+0	1.024666E+0	1.023194E+0	9.916023E-1	1.005921E+0	9.045895E-1	9.983939E-1	1.020741E+0	1.029363E+0	9.778580E-1	9.816939E-1	1.009582E+0	1.009047E+0	1.006637E+0	1.003646E+0	9.623484E-1	1.057132E+0	9.818256E-1	1.042553E+0
5.575640E+2	9.932430E-1	1.005060E+0	1.037482E+0	9.920344E-1	1.022161E+0	1.004090E+0	9.926494E-1	9.980462E-1	9.242273E-1	1.008496E+0	1.057544E+0	9.786145E-1	9.661642E-1	1.006736E+0	1.023830E+0	9.988193E-1	9.828685E-1	1.002773E+0	1.015587E+0	1.035812E+0	1.008508E+0	9.779253E-1	9.907214E-1	1.000239E+0	9.366556E-1	9.751757E-1	9.816377E-1	9.984451E-1	9.430925E-1	1.001990E+0	9.956064E-1	1.002770E+0	9.970187E-1	9.918106E-1	1.050104E+0	9.905475E-1	9.623096E-1	9.598086E-1	9.899612E-1	1.019548E+0	9.456095E-1	1.026521E+0	9.577197E-1	1.038669E+0	9.587187E-1	1.061864E+0	1.026432E+0	1.019569E+0	9.809659E-1	9.307021E-1	1.006630E+0	9.981084E-1	9.836935E-1	9.948486E-1	1.004578E+0	9.888237E-1	1.016811E+0	1.011823E+0	9.975685E-1	9.927040E-1	9.769737E-1	1.014821E+0	1.042754E+0	1.002163E+0	9.418459E-1	1.001598E+0	1.010377E+0	1.035431E+0	1.048794E+0	1.010324E+0	1.012771E+0	1.002982E+0	9.463236E-1	1.002658E+0	9.741517E-1	9.944688E-1	9.265232E-1	9.866613E-1	1.012797E+0	1.007273E+0	9.492388E-1	1.023507E+0	1.035250E+0	1.013741E+0	9.952575E-1	1.013756E+0	9.835669E-1	9.971428E-1	9.326779E-1	1.011253E+0	1.011415E+0	9.914244E-1	9.244496E-1	1.041253E+0	9.645733E-1	9.806917E-1	9.793025E-1	1.016187E+0	9.688569E-1	9.930373E-1	9.816179E-1	9.960129E-1	9.955195E-1	1.036890E+0	9.630478E-1	1.018533E+0	1.040812E+0	9.922690E-1	9.961264E-1	1.031192E+0	1.012169E+0	1.013444E+0	1.010222E+0	1.060055E+0	1.036348E+0	1.005677E+0	1.000700E+0	9.947667E-1	1.017899E+0	9.990514E-1	9.636453E-1	9.970877E-1	9.908870E-1	1.027700E+0	9.600417E-1	1.007475E+0	1.006413E+0	1.006642E+0	9.872718E-1	1.026004E+0	1.007023E+0	1.011653E+0	1.006545E+0	9.967534E-1	9.928497E-1	1.012078E+0	9.681492E-1	1.046727E+0	1.030874E+0	9.865046E-1	9.538336E-1	9.971630E-1	1.011127E+0	9.825945E-1	9.905196E-1	1.019437E+0	1.042521E+0	9.949538E-1	9.619802E-1	9.771808E-1	1.014633E+0	1.019156E+0	9.590132E-1	9.778743E-1	1.004504E+0	9.966168E-1	9.823514E-1	1.029168E+0	9.873005E-1	1.008953E+0	9.790344E-1	9.994941E-1	1.014456E+0	9.782445E-1	1.022748E+0	9.777927E-1	1.019129E+0	1.013095E+0	1.011261E+0	1.068202E+0
5.580230E+2	1.024124E+0	1.079676E+0	9.922685E-1	1.039989E+0	9.783794E-1	1.012362E+0	1.051108E+0	1.012519E+0	1.008228E+0	1.003490E+0	9.472338E-1	9.893300E-1	9.443545E-1	9.887262E-1	9.966612E-1	9.880689E-1	9.565964E-1	9.536342E-1	1.039096E+0	9.716200E-1	1.003449E+0	1.002408E+0	9.922371E-1	1.020491E+0	9.783479E-1	1.028027E+0	9.786761E-1	1.010740E+0	8.964209E-1	1.012330E+0	1.011905E+0	1.027059E+0	9.910565E-1	9.729781E-1	9.944430E-1	1.047500E+0	9.929825E-1	9.992191E-1	9.729734E-1	9.871531E-1	9.705634E-1	1.027687E+0	9.890403E-1	1.033258E+0	9.239673E-1	9.819429E-1	9.937694E-1	1.003818E+0	9.616572E-1	9.479217E-1	1.019733E+0	9.918647E-1	1.005556E+0	1.043496E+0	9.901886E-1	1.030837E+0	9.788404E-1	1.052020E+0	1.010088E+0	1.017894E+0	9.645169E-1	1.028839E+0	1.039144E+0	9.740017E-1	1.017832E+0	1.041277E+0	9.966789E-1	1.000736E+0	1.020464E+0	1.020783E+0	1.012771E+0	9.876379E-1	9.516690E-1	9.953492E-1	1.037981E+0	1.028077E+0	9.030129E-1	1.010773E+0	9.716971E-1	1.000742E+0	9.765799E-1	1.029348E+0	1.024815E+0	1.011205E+0	1.022165E+0	1.020143E+0	9.830780E-1	1.022202E+0	9.522475E-1	1.013968E+0	1.012541E+0	9.942999E-1	9.418338E-1	9.910032E-1	1.002504E+0	9.729595E-1	9.986277E-1	9.871621E-1	1.007114E+0	1.007398E+0	1.008224E+0	1.007974E+0	9.955192E-1	1.001022E+0	9.988131E-1	1.030628E+0	1.004945E+0	1.018205E+0	9.411131E-1	9.837950E-1	1.026162E+0	1.006815E+0	9.489496E-1	1.031635E+0	1.002320E+0	9.701574E-1	9.904254E-1	1.018026E+0	1.008331E+0	9.791331E-1	9.910788E-1	9.896138E-1	1.017542E+0	1.013190E+0	9.514532E-1	1.006941E+0	1.043761E+0	1.041117E+0	9.754066E-1	1.002501E+0	1.034349E+0	9.901051E-1	1.050517E+0	9.865499E-1	1.047698E+0	9.889718E-1	9.749855E-1	9.782711E-1	1.039363E+0	1.030133E+0	9.497869E-1	9.896303E-1	9.596491E-1	1.016749E+0	9.636259E-1	1.032731E+0	9.685460E-1	1.019378E+0	1.012933E+0	1.014858E+0	9.810074E-1	9.703141E-1	9.613374E-1	1.046692E+0	9.637341E-1	1.021041E+0	9.736509E-1	1.006373E+0	9.862218E-1	1.001299E+0	9.919775E-1	1.030089E+0	9.973970E-1	1.030371E+0	1.054970E+0	1.005756E+0	1.033826E+0	1.045190E+0	9.904117E-1	9.570576E-1
5.585160E+2	1.059193E+0	9.922165E-1	1.008955E+0	9.890741E-1	1.001621E+0	1.015982E+0	9.527666E-1	1.001116E+0	1.022318E+0	9.995954E-1	1.015384E+0	9.980055E-1	1.064784E+0	9.768903E-1	1.001692E+0	1.025696E+0	1.029854E+0	9.959953E-1	9.679934E-1	9.952115E-1	1.035823E+0	9.934136E-1	1.042765E+0	1.025333E+0	1.036034E+0	9.911411E-1	9.875613E-1	1.021967E+0	1.059532E+0	1.020845E+0	1.017526E+0	9.868721E-1	1.026831E+0	1.053396E+0	9.914608E-1	9.983848E-1	1.034390E+0	9.865872E-1	9.869634E-1	1.010638E+0	1.017500E+0	9.670087E-1	1.064092E+0	9.850929E-1	1.007950E+0	9.907582E-1	1.016793E+0	1.012130E+0	9.815696E-1	9.094637E-1	1.003781E+0	1.003311E+0	1.012016E+0	1.003936E+0	9.983437E-1	1.017569E+0	1.030618E+0	9.828568E-1	1.018054E+0	1.053627E+0	9.681500E-1	9.857450E-1	9.963434E-1	1.005562E+0	9.742425E-1	1.002164E+0	9.926845E-1	9.695105E-1	9.952235E-1	1.016300E+0	1.022236E+0	1.006394E+0	1.010470E+0	9.829802E-1	9.996834E-1	9.840387E-1	9.547361E-1	9.943566E-1	1.028723E+0	1.013803E+0	9.668586E-1	9.815608E-1	9.935096E-1	9.934521E-1	9.903157E-1	9.985262E-1	9.962694E-1	1.008078E+0	9.656370E-1	1.012339E+0	9.962116E-1	9.753195E-1	9.664608E-1	1.060738E+0	9.978272E-1	9.461532E-1	9.768868E-1	1.006140E+0	1.021605E+0	9.781454E-1	1.036958E+0	1.013457E+0	1.010046E+0	1.021901E+0	1.000516E+0	1.042145E+0	9.702744E-1	1.039316E+0	9.950481E-1	1.021403E+0	1.010343E+0	1.016505E+0	1.016538E+0	1.047424E+0	1.024651E+0	9.770316E-1	1.051561E+0	1.020933E+0	1.017899E+0	9.924116E-1	9.847478E-1	1.000291E+0	1.039562E+0	1.010167E+0	9.923757E-1	9.973306E-1	9.597279E-1	1.008701E+0	9.961704E-1	9.761337E-1	1.026467E+0	1.025465E+0	1.026839E+0	1.031445E+0	1.034762E+0	1.053959E+0	9.977732E-1	1.048468E+0	1.017289E+0	1.015967E+0	9.578804E-1	1.040207E+0	1.039727E+0	9.951023E-1	9.833848E-1	1.019437E+0	1.015145E+0	1.024930E+0	1.018482E+0	1.026059E+0	1.019043E+0	1.007062E+0	1.015951E+0	1.013123E+0	9.817967E-1	1.017551E+0	9.633183E-1	1.006372E+0	1.004021E+0	1.017627E+0	9.702099E-1	9.994941E-1	9.931320E-1	1.055842E+0	1.008147E+0	1.023167E+0	9.830566E-1	1.005632E+0	1.040695E+0	1.091714E+0
5.590210E+2	9.932436E-1	9.836525E-1	9.750444E-1	1.006243E+0	1.007568E+0	9.968507E-1	1.010132E+0	9.958535E-1	1.086267E+0	1.035197E+0	9.905497E-1	1.009742E+0	1.069525E+0	1.003649E+0	1.031378E+0	9.858275E-1	1.033391E+0	9.976895E-1	1.000678E+0	1.058306E+0	1.028742E+0	1.031887E+0	1.024069E+0	1.002882E+0	1.016615E+0	1.009860E+0	9.763071E-1	9.952372E-1	1.042210E+0	1.005032E+0	1.022584E+0	1.006744E+0	1.065585E+0	1.003007E+0	1.014819E+0	1.028168E+0	1.045638E+0	1.044188E+0	1.015444E+0	9.737897E-1	1.078696E+0	9.518388E-1	9.902225E-1	9.932103E-1	1.063554E+0	1.038946E+0	1.010369E+0	9.775684E-1	1.037684E+0	1.051817E+0	9.878284E-1	9.944664E-1	1.044312E+0	1.009282E+0	1.037194E+0	1.032164E+0	1.026180E+0	9.994088E-1	9.918783E-1	9.880179E-1	1.061576E+0	1.003398E+0	9.906710E-1	1.028868E+0	1.041393E+0	1.026539E+0	1.025787E+0	1.014036E+0	9.936782E-1	9.854203E-1	9.988224E-1	1.007246E+0	1.054693E+0	9.812934E-1	1.011289E+0	1.047199E+0	1.107815E+0	1.021034E+0	1.010741E+0	9.762530E-1	1.046453E+0	1.015543E+0	9.764834E-1	9.833078E-1	1.004593E+0	9.965605E-1	1.057338E+0	1.019468E+0	1.004775E+0	9.917081E-1	1.019298E+0	1.031688E+0	1.107949E+0	1.035100E+0	1.012376E+0	1.019870E+0	1.077136E+0	1.035165E+0	1.003057E+0	1.004738E+0	1.019398E+0	1.014454E+0	1.016271E+0	1.010123E+0	9.783759E-1	9.690064E-1	9.481568E-1	1.012173E+0	1.011768E+0	9.843100E-1	1.032855E+0	1.028743E+0	1.033593E+0	1.006373E+0	1.002320E+0	1.012552E+0	1.000187E+0	1.044774E+0	1.008835E+0	9.981040E-1	9.942449E-1	1.022180E+0	9.619122E-1	1.006540E+0	9.610518E-1	1.004806E+0	1.009526E+0	9.937789E-1	1.028801E+0	9.921831E-1	1.001242E+0	9.967355E-1	9.920490E-1	1.005937E+0	1.027000E+0	1.013523E+0	9.687188E-1	1.017140E+0	9.969125E-1	1.004636E+0	9.361303E-1	1.012767E+0	9.659412E-1	9.975073E-1	9.817386E-1	9.967271E-1	9.563136E-1	1.017713E+0	1.011420E+0	9.501955E-1	1.046054E+0	1.045205E+0	9.421644E-1	1.021515E+0	1.016889E+0	1.012318E+0	9.758262E-1	9.926948E-1	1.033146E+0	1.015076E+0	9.837412E-1	9.994942E-1	9.967876E-1	1.003716E+0	9.467229E-1	1.031608E+0	1.011782E+0	9.996604E-1	1.011261E+0	9.805684E-1
5.595110E+2	1.030406E+0	1.005060E+0	1.006802E+0	1.021636E+0	1.032431E+0	1.021669E+0	1.051654E+0	1.018220E+0	1.058628E+0	9.901384E-1	1.008453E+0	1.060771E+0	1.071421E+0	1.023202E+0	9.931391E-1	1.007330E+0	1.044001E+0	9.858284E-1	9.829015E-1	9.787526E-1	9.908026E-1	9.869187E-1	1.039228E+0	9.936363E-1	1.094861E+0	1.006557E+0	1.007700E+0	1.018760E+0	1.085033E+0	1.011722E+0	1.005161E+0	9.970290E-1	1.074032E+0	1.018785E+0	1.029231E+0	1.011970E+0	1.007296E+0	1.009324E+0	9.989552E-1	1.037365E+0	1.053148E+0	1.024770E+0	9.896314E-1	1.005116E+0	1.099464E+0	9.719525E-1	1.013045E+0	1.022195E+0	1.043718E+0	1.147676E+0	1.014037E+0	1.020480E+0	1.005556E+0	9.825531E-1	9.993018E-1	1.003858E+0	1.038508E+0	9.822658E-1	1.007242E+0	9.903608E-1	1.095313E+0	9.982066E-1	1.015423E+0	1.031780E+0	1.066133E+0	1.000463E+0	1.005240E+0	1.000158E+0	1.030251E+0	1.009327E+0	9.898559E-1	1.038366E+0	1.061982E+0	1.079680E+0	1.047266E+0	1.030974E+0	1.114086E+0	1.030269E+0	1.031805E+0	1.016524E+0	1.055567E+0	9.810302E-1	1.037447E+0	1.044174E+0	1.036991E+0	9.916480E-1	1.011903E+0	1.040427E+0	1.108286E+0	1.032970E+0	9.917076E-1	1.038591E+0	1.063522E+0	9.925418E-1	1.082521E+0	1.055956E+0	1.047544E+0	9.994419E-1	1.025662E+0	1.003143E+0	1.019398E+0	1.029904E+0	1.004338E+0	1.003163E+0	1.039119E+0	9.667023E-1	1.102981E+0	1.013379E+0	1.034420E+0	1.026041E+0	1.023120E+0	1.020584E+0	9.476864E-1	1.005741E+0	1.020929E+0	1.033176E+0	1.041800E+0	9.662744E-1	1.051638E+0	1.015650E+0	1.084988E+0	1.030189E+0	1.045357E+0	9.914265E-1	1.086852E+0	1.020823E+0	1.031312E+0	9.891476E-1	1.048378E+0	1.027149E+0	1.000716E+0	1.009995E+0	1.018142E+0	1.026854E+0	9.933673E-1	1.001969E+0	1.066706E+0	1.004377E+0	9.963465E-1	9.870716E-1	1.034257E+0	1.032674E+0	1.012844E+0	1.028776E+0	1.018511E+0	9.812175E-1	1.010484E+0	1.040473E+0	9.846820E-1	1.000093E+0	1.032823E+0	1.038228E+0	9.688903E-1	1.042216E+0	1.058692E+0	1.018134E+0	1.015523E+0	1.022329E+0	1.004560E+0	9.936453E-1	1.017864E+0	1.059571E+0	1.018720E+0	1.023263E+0	1.024258E+0	1.001534E+0	1.037833E+0	1.022798E+0	9.671094E-1	1.012630E+0
5.600520E+2	9.712597E-1	1.014846E+0	9.879626E-1	9.872979E-1	1.006486E+0	1.005641E+0	1.026522E+0	1.004625E+0	1.029905E+0	1.001821E+0	1.025202E+0	9.893303E-1	1.069998E+0	1.002105E+0	9.860950E-1	9.965792E-1	1.028844E+0	1.010680E+0	9.857683E-1	1.007282E+0	1.059093E+0	9.929142E-1	9.927425E-1	1.032378E+0	1.084581E+0	1.032432E+0	1.014808E+0	1.005930E+0	1.109572E+0	1.001991E+0	1.007409E+0	1.030592E+0	9.950312E-1	9.938464E-1	1.002395E+0	9.994301E-1	1.002696E+0	1.025493E+0	1.024438E+0	1.038176E+0	1.037701E+0	1.042274E+0	1.039272E+0	9.596584E-1	1.051391E+0	1.030131E+0	9.964466E-1	9.819414E-1	1.031046E+0	1.143084E+0	9.741543E-1	1.013196E+0	1.021953E+0	9.788108E-1	1.028560E+0	9.989957E-1	1.019770E+0	1.034877E+0	1.023745E+0	9.581418E-1	1.035624E+0	9.841880E-1	1.004079E+0	9.652616E-1	1.046106E+0	1.005566E+0	1.001245E+0	9.804969E-1	9.911028E-1	9.958796E-1	9.739154E-1	1.014919E+0	1.039142E+0	9.981601E-1	9.805345E-1	1.002581E+0	1.104160E+0	9.856351E-1	1.007659E+0	9.936675E-1	9.881244E-1	9.645698E-1	1.016576E+0	9.736710E-1	1.022714E+0	1.017195E+0	9.952923E-1	9.980543E-1	1.062967E+0	9.835644E-1	9.872028E-1	1.020184E+0	1.070282E+0	9.694680E-1	1.032640E+0	9.708974E-1	1.027615E+0	9.676265E-1	1.004216E+0	9.919736E-1	1.016737E+0	9.860447E-1	1.025090E+0	9.865678E-1	1.064098E+0	1.021989E+0	1.012716E+0	9.946813E-1	1.041431E+0	9.961599E-1	9.793136E-1	9.884564E-1	1.010853E+0	1.013320E+0	1.002320E+0	1.005104E+0	9.919673E-1	9.976741E-1	1.017396E+0	1.009960E+0	1.011127E+0	9.853427E-1	1.019281E+0	9.841720E-1	1.054013E+0	9.818466E-1	9.939639E-1	1.027739E+0	1.010409E+0	1.011673E+0	1.005972E+0	1.019388E+0	9.649903E-1	9.972633E-1	1.007856E+0	9.692347E-1	1.046766E+0	9.718898E-1	1.000875E+0	1.025033E+0	1.140476E+0	1.002544E+0	9.545017E-1	1.009534E+0	1.033879E+0	1.008359E+0	1.047764E+0	1.002170E+0	1.006879E+0	1.020459E+0	9.479328E-1	9.903164E-1	1.061850E+0	9.985756E-1	1.000376E+0	9.902196E-1	1.096004E+0	9.932649E-1	1.025056E+0	1.011504E+0	1.054339E+0	9.733495E-1	1.017503E+0	1.033926E+0	9.739108E-1	1.009449E+0	1.025142E+0	1.015335E+0	1.043148E+0	1.008356E+0
5.605090E+2	9.566042E-1	1.004448E+0	9.971130E-1	9.736811E-1	9.589206E-1	9.906461E-1	9.860932E-1	9.721720E-1	1.025028E+0	9.511996E-1	9.605170E-1	1.024030E+0	1.036335E+0	9.439574E-1	1.022321E+0	9.889647E-1	1.005098E+0	1.014069E+0	9.932231E-1	1.025387E+0	9.781564E-1	9.819215E-1	9.947633E-1	9.887939E-1	1.002907E+0	9.685692E-1	1.162297E+0	9.685066E-1	1.082626E+0	1.025103E+0	9.911101E-1	1.006744E+0	9.701886E-1	9.806127E-1	9.427575E-1	9.952496E-1	1.002696E+0	1.014377E+0	1.002453E+0	9.960613E-1	1.047801E+0	9.570900E-1	9.795854E-1	9.780579E-1	1.075138E+0	9.601994E-1	1.009297E+0	9.692547E-1	9.797594E-1	1.083387E+0	1.002642E+0	9.439992E-1	9.682900E-1	1.018905E+0	1.009376E+0	9.861703E-1	1.021249E+0	9.846300E-1	9.730997E-1	9.722013E-1	1.039777E+0	1.014302E+0	9.715909E-1	9.599211E-1	1.004284E+0	9.624843E-1	9.738495E-1	9.706669E-1	9.751343E-1	9.336211E-1	1.006793E+0	9.663249E-1	1.078504E+0	9.891648E-1	9.439778E-1	9.817211E-1	1.058183E+0	1.015391E+0	9.665602E-1	1.020878E+0	1.031871E+0	9.799678E-1	1.007240E+0	1.015262E+0	9.667030E-1	9.847697E-1	1.005063E+0	9.743594E-1	1.066059E+0	9.933367E-1	1.012541E+0	9.684165E-1	1.013302E+0	9.556244E-1	9.708084E-1	1.008014E+0	1.001043E+0	1.016745E+0	9.700162E-1	9.882504E-1	9.629939E-1	9.725878E-1	1.001745E+0	9.453460E-1	1.027198E+0	9.839791E-1	9.714695E-1	9.789987E-1	1.040892E+0	1.026040E+0	9.841812E-1	1.001205E+0	9.906402E-1	9.836369E-1	9.805211E-1	1.005677E+0	9.796374E-1	9.988365E-1	9.886930E-1	9.606371E-1	1.058081E+0	9.826732E-1	9.816148E-1	9.956578E-1	1.037846E+0	9.887873E-1	9.929268E-1	9.937790E-1	9.665074E-1	1.002501E+0	1.004395E+0	1.008890E+0	1.013793E+0	9.850194E-1	9.819836E-1	9.856022E-1	1.050184E+0	9.765304E-1	9.923845E-1	9.615748E-1	1.099506E+0	1.009000E+0	9.945404E-1	9.542115E-1	1.046503E+0	9.701390E-1	1.009320E+0	9.888472E-1	9.932588E-1	9.781990E-1	9.909294E-1	1.013574E+0	1.042677E+0	9.784344E-1	1.002956E+0	9.844040E-1	1.120475E+0	9.750287E-1	9.721973E-1	9.773165E-1	1.031983E+0	9.816938E-1	9.961783E-1	9.752827E-1	9.643448E-1	1.010504E+0	9.803848E-1	1.008617E+0	9.536195E-1	9.677453E-1
5.610010E+2	9.675962E-1	9.634700E-1	9.588971E-1	9.867061E-1	1.003784E+0	9.756510E-1	9.238103E-1	9.576994E-1	1.043454E+0	1.001820E+0	9.830412E-1	9.224818E-1	1.045344E+0	1.040699E+0	9.911263E-1	9.634329E-1	1.002067E+0	1.012375E+0	9.737275E-1	9.600985E-1	9.599456E-1	9.864187E-1	9.694999E-1	9.901152E-1	9.829182E-1	9.647154E-1	1.084110E+0	9.743875E-1	9.993875E-1	9.661060E-1	9.832406E-1	9.833384E-1	9.940374E-1	9.683974E-1	9.830123E-1	9.335948E-1	9.623091E-1	9.769874E-1	9.644786E-1	9.543523E-1	9.996765E-1	1.018352E+0	9.648110E-1	9.309760E-1	1.040965E+0	9.549110E-1	9.578947E-1	9.552549E-1	9.743288E-1	1.112662E+0	9.507948E-1	9.929052E-1	9.508991E-1	9.959172E-1	9.484600E-1	9.521162E-1	9.941268E-1	9.757631E-1	9.708239E-1	9.850887E-1	1.008635E+0	9.810727E-1	9.715907E-1	1.009446E+0	9.989823E-1	9.670199E-1	9.755615E-1	9.862795E-1	1.015828E+0	9.834278E-1	9.415360E-1	9.769810E-1	9.701356E-1	9.368801E-1	9.822755E-1	1.004899E+0	1.042509E+0	9.707576E-1	9.722116E-1	9.631920E-1	9.978457E-1	9.783753E-1	9.803283E-1	9.802646E-1	9.716453E-1	9.808398E-1	9.635365E-1	9.807386E-1	9.707865E-1	9.613047E-1	9.905814E-1	9.643904E-1	1.047103E+0	9.658791E-1	9.843179E-1	9.977037E-1	9.913803E-1	9.626024E-1	9.949416E-1	9.914421E-1	9.858747E-1	9.601277E-1	9.503857E-1	9.731839E-1	9.778085E-1	9.782207E-1	9.702740E-1	9.753797E-1	1.023633E+0	9.724609E-1	9.409825E-1	9.695873E-1	9.855865E-1	9.470069E-1	9.773312E-1	9.105761E-1	9.256942E-1	9.761593E-1	9.458904E-1	9.834011E-1	1.000576E+0	9.506400E-1	9.961019E-1	9.642215E-1	1.007533E+0	9.893220E-1	9.529846E-1	9.572461E-1	1.000917E+0	9.675350E-1	9.297725E-1	9.691105E-1	9.461456E-1	9.901214E-1	9.271360E-1	9.928226E-1	1.046767E+0	9.486845E-1	9.720087E-1	9.553419E-1	1.027681E+0	9.482005E-1	9.842444E-1	1.023003E+0	1.014121E+0	9.651539E-1	9.516539E-1	9.710836E-1	1.004862E+0	1.013839E+0	9.600603E-1	9.442651E-1	1.052554E+0	9.627684E-1	9.817966E-1	9.343923E-1	1.054132E+0	9.567925E-1	9.975486E-1	9.528237E-1	1.034336E+0	9.410865E-1	9.559675E-1	9.758752E-1	9.990843E-1	9.482466E-1	9.616803E-1	9.615952E-1	9.989970E-1	8.587380E-1
