Photon Energy (eV)	#1	#2	#3	#4	#5	#6	#7	#8	#9	#10	#11	#12	#13	#14	#15	#16	#17	#18	#19	#20	#21	#22	#23	#24	#25	#26	#27	#28	#29	#30	#31	#32	#33	#34	#35	#36	#37	#38	#39	#40	#41	#42	#43	#44	#45	#46	#47	#48	#49	#50	#51	#52	#53	#54	#55	#56	#57	#58	#59	#60	#61	#62	#63	#64	#65	#66	#67	#68	#69	#70	#71	#72	#73	#74	#75	#76	#77	#78	#79	#80	#81	#82	#83	#84	#85	#86	#87	#88	#89	#90	#91	#92	#93	#94	#95	#96	#97	#98	#99	#100	#101	#102	#103	#104	#105	#106	#107	#108	#109	#110	#111	#112	#113	#114	#115	#116	#117	#118	#119	#120	#121	#122	#123	#124	#125	#126	#127	#128	#129	#130	#131	#132	#133	#134	#135	#136	#137	#138	#139	#140	#141	#142	#143	#144	#145	#146	#147	#148	#149	#150	#151	#152	#153	#154	#155	#156	#157	#158	#159	#160	#161	#162	#163	#164	#165	#166	#167	#168	#169	#170	#171	
5.300160E+2	-2.519814E-3	-6.452173E-3	-5.753524E-3	-1.010716E-3	-2.435906E-3	-1.707933E-2	-2.978929E-3	-8.825526E-3	1.473140E-3	-5.746175E-3	-7.028914E-3	-1.166649E-2	-6.993248E-3	-4.630894E-3	-6.497777E-3	-3.801655E-3	-4.017546E-3	-4.001855E-3	-3.355342E-3	5.360592E-3	-2.760010E-3	-2.029748E-3	-2.415317E-3	-4.114375E-3	-3.564579E-3	-1.525759E-3	1.951651E-3	-5.338661E-3	-2.988617E-3	-7.614966E-3	-8.138258E-3	-1.038409E-2	1.506737E-3	-2.298084E-3	-8.667897E-3	-5.508409E-3	-4.157198E-3	8.260926E-4	-7.094957E-3	-5.115655E-3	-8.586682E-3	-9.157141E-3	-1.248631E-2	-7.382541E-3	3.139601E-3	-1.034285E-2	-1.267243E-3	-1.076200E-2	-7.438064E-4	-2.916336E-3	9.660929E-3	-3.605537E-4	-7.002489E-3	-1.290127E-2	-2.219938E-3	-3.460622E-3	-2.920194E-3	4.125729E-3	-2.284289E-3	-9.363466E-4	-8.054171E-3	-2.660614E-3	-1.163023E-2	2.845517E-4	1.893507E-4	-6.695321E-3	-2.722335E-3	-5.336381E-3	-1.459171E-2	-9.915238E-3	-4.104453E-3	-5.929857E-3	-4.990496E-3	-1.067614E-3	-6.204823E-3	-5.621420E-3	-1.136685E-2	-6.081847E-4	-7.439223E-3	-4.897810E-3	-9.002278E-3	-8.111388E-3	-1.064851E-2	-3.257889E-3	-1.977752E-3	-6.795890E-3	-7.465785E-3	-8.461940E-4	-1.984899E-3	-7.872905E-3	-7.675309E-4	-1.166317E-2	-2.107203E-2	-4.701201E-3	-6.811274E-3	-5.793611E-3	-1.252594E-2	-2.243285E-3	-5.678435E-3	-8.997012E-3	-5.771226E-3	-9.144974E-3	3.997649E-4	-7.979940E-3	-3.680718E-3	7.575685E-3	-2.295259E-3	6.812931E-4	-1.077071E-3	-4.130030E-3	-5.324976E-4	-8.594121E-3	-8.155997E-3	-7.726204E-3	-4.308406E-3	-2.863673E-3	-4.105829E-3	-5.103904E-3	-1.563832E-2	-2.013114E-3	-5.300033E-3	-3.408373E-3	1.105356E-3	-3.164674E-3	-7.910281E-3	-1.011221E-2	-7.162128E-3	-9.592440E-3	-1.175805E-2	-3.615915E-3	-1.589485E-2	-3.559897E-3	-1.352953E-3	-4.812283E-4	-7.227711E-3	1.125685E-3	-6.708205E-3	-1.116406E-2	-6.068050E-3	-5.293895E-3	2.880375E-3	3.713819E-5	-1.225967E-2	-3.150575E-3	-3.500272E-3	-5.685259E-4	-6.558197E-3	3.369054E-3	-8.538815E-3	3.111221E-4	-1.031733E-2	4.137458E-3	-4.751596E-3	-6.120920E-3	-1.857529E-3	-4.714952E-3	-9.081430E-3	-1.148792E-2	-6.571787E-3	-1.029823E-2	-7.669092E-3	-5.990093E-3	-7.661676E-3	1.105104E-3	-4.251393E-3	-1.096890E-2	-4.611458E-3	-1.015006E-2	-1.621107E-2	-9.119518E-3	-4.945027E-3
5.305230E+2	-4.497232E-3	-2.357894E-3	2.223907E-3	-6.542566E-3	-7.091224E-3	-1.399600E-2	-1.570738E-3	-6.770606E-3	-1.035445E-2	-8.664215E-3	-7.945940E-4	1.926545E-3	-1.245512E-2	-9.630481E-3	-1.215703E-3	-5.926667E-3	-5.703647E-3	-5.283690E-3	-2.412954E-3	-7.145901E-3	-1.560995E-3	-7.275332E-3	-2.246965E-4	-4.853496E-3	1.500897E-4	-2.740356E-3	-3.696615E-3	-1.977610E-4	-8.548612E-3	-1.024730E-2	-1.461440E-2	-2.814360E-3	-3.669716E-3	-1.222069E-2	-2.805265E-3	-9.354811E-3	-6.437061E-3	-3.520458E-3	-1.339620E-3	7.781507E-4	-1.343049E-2	2.292903E-3	-8.499130E-3	-5.888273E-3	-6.379852E-3	-4.044056E-3	-2.661931E-3	-6.116412E-3	-2.860065E-3	3.215150E-3	-1.034607E-2	-3.146813E-3	-1.281864E-2	-7.693245E-3	-3.430791E-3	-4.599882E-3	-1.037520E-4	-8.044324E-3	-2.099277E-4	-2.808997E-3	-5.650893E-3	-2.503607E-3	2.017994E-3	1.116271E-2	-7.150599E-3	-7.435945E-3	-8.180032E-3	-4.905675E-3	4.880837E-4	1.069105E-3	3.117163E-3	-9.628397E-3	-1.256819E-3	-9.169071E-3	-8.033305E-3	1.124281E-3	-8.362337E-3	-5.195777E-3	-7.703062E-3	6.565624E-4	-1.036413E-2	-5.618111E-3	-3.051404E-3	2.168148E-3	-2.243505E-3	-1.149631E-2	-6.228358E-3	-1.156127E-2	-4.196654E-3	-1.568580E-3	-2.102118E-3	-8.216095E-3	-2.824348E-3	-5.517034E-3	8.539022E-3	-1.416202E-3	-1.818003E-3	-1.309351E-3	-5.967550E-4	6.048414E-4	3.977417E-4	5.325130E-3	-1.580770E-2	-6.611998E-3	-2.289343E-3	-6.293656E-3	-2.491959E-3	-1.418655E-2	-2.458714E-3	-1.117189E-2	-7.067172E-3	-3.785958E-3	-5.137320E-3	-8.534283E-3	-8.168287E-3	-5.920413E-3	1.639483E-3	-4.253531E-3	-9.135260E-3	-4.144628E-3	-8.716561E-3	-1.447606E-3	8.245833E-4	-3.402018E-3	-1.273259E-2	-3.919395E-5	-8.424496E-3	-1.136725E-2	-4.165066E-3	-3.187566E-3	5.600450E-3	-7.115201E-3	1.634366E-3	-1.309745E-3	-6.402140E-4	-1.093538E-3	-9.734018E-3	-1.067005E-2	-1.038467E-3	-8.968744E-3	-9.427346E-3	-5.681607E-3	3.977877E-3	-5.490276E-3	-3.841808E-3	7.686868E-4	-7.379005E-3	3.276319E-4	3.475544E-3	-5.560223E-3	-7.151904E-3	-9.764431E-3	-2.582755E-3	-1.710137E-3	-4.546739E-4	1.664001E-3	-2.612925E-3	-1.163181E-2	1.314398E-3	-1.989377E-3	-7.258793E-3	-1.695736E-3	-4.813952E-3	-6.233023E-3	-5.599347E-3	3.448178E-3	-2.614774E-3	1.081706E-3	-6.788341E-3	-7.306841E-3	-9.619552E-4
5.310050E+2	-9.817658E-3	-1.269494E-2	-4.215273E-3	-3.449311E-5	-5.954300E-4	-2.595352E-3	-3.195644E-3	-1.166374E-3	-5.980558E-3	3.045020E-3	-6.584978E-3	-1.027668E-2	1.398646E-3	8.216702E-4	-5.240181E-3	7.893086E-3	3.447073E-3	-4.709742E-3	1.013741E-3	-8.250202E-3	-5.082592E-3	-4.781443E-3	-7.302164E-3	-7.957754E-3	4.089941E-3	-4.915719E-3	1.026659E-3	-6.525063E-3	-7.585827E-3	-8.445693E-3	5.124196E-3	-2.814395E-3	-8.623235E-3	5.820374E-3	-8.318529E-4	-4.073751E-3	-2.903761E-3	-2.503714E-3	-5.280488E-3	-7.388781E-3	-5.137020E-4	-3.475432E-3	6.708643E-3	-1.085166E-3	-5.272730E-5	-1.105282E-3	-3.741696E-3	3.219329E-3	4.361080E-3	-6.511354E-3	-4.583132E-3	-2.108414E-3	-4.807858E-3	-2.021088E-4	-4.883816E-3	-6.804891E-3	-6.981253E-3	2.015165E-3	2.012690E-3	1.800630E-3	-9.800406E-3	-4.073842E-3	2.018019E-3	-1.420346E-2	-3.001497E-3	2.689048E-3	-8.761627E-3	-2.034068E-3	9.943140E-4	1.069117E-3	-1.235771E-2	-3.139788E-3	-5.668613E-3	-1.256065E-3	-3.509210E-3	-8.804455E-3	3.336955E-3	-3.110517E-3	2.509041E-3	-8.496052E-3	-2.991660E-3	-3.488583E-3	-7.460840E-3	-3.898231E-3	-8.841168E-3	2.953650E-3	-3.258532E-3	1.169494E-3	-6.238271E-3	2.224900E-3	-3.793773E-3	-1.697233E-3	-4.270662E-3	-1.332823E-2	-9.662901E-3	1.158703E-3	2.985518E-3	-7.599783E-4	-2.329091E-3	-9.168967E-3	4.180200E-3	-2.929618E-3	-2.958223E-3	4.047755E-3	-3.970256E-3	-7.459124E-3	-4.262627E-3	-1.468587E-3	-2.993516E-3	2.274022E-3	-7.067169E-3	-2.256826E-3	-2.630485E-3	-5.982522E-3	-3.918884E-3	3.449152E-4	-8.078149E-3	2.052707E-3	5.560006E-3	2.960449E-3	-2.409101E-3	1.746327E-3	3.148252E-3	-1.348946E-2	1.988162E-3	-3.836930E-3	4.026353E-3	8.028992E-4	7.091018E-3	7.231755E-4	-3.348574E-3	-3.807981E-3	-1.775137E-3	-8.075834E-4	-5.333169E-3	-4.470564E-3	-9.163105E-3	1.141588E-2	-4.979546E-3	-2.701513E-3	-1.643758E-4	-3.540392E-3	-1.891105E-3	-6.947499E-3	-3.287935E-3	-6.872655E-3	-4.482123E-3	-7.461325E-3	-6.345498E-3	-4.694765E-4	-4.342324E-3	3.734099E-3	2.716857E-3	-6.224377E-3	5.225423E-3	2.865722E-3	-4.827546E-3	-5.300255E-3	-2.466672E-3	-1.989334E-3	-9.017304E-3	-7.817232E-3	-2.983305E-3	-8.590638E-3	-4.575595E-3	-9.618700E-3	-3.327888E-4	3.452504E-3	-1.317147E-3	8.806204E-3	3.915380E-3
5.315130E+2	-2.408983E-4	7.431364E-5	-1.119098E-2	-4.767669E-3	-1.678089E-3	1.550325E-3	-5.362139E-3	1.420232E-3	-8.167540E-3	-1.973218E-3	2.679668E-3	9.045069E-3	-2.423085E-3	-2.314003E-3	-7.755398E-3	-8.601452E-3	-3.161839E-3	-5.283708E-3	3.298215E-3	-9.906728E-3	4.513935E-4	-2.923664E-4	-2.752358E-3	1.798504E-3	-7.166777E-3	-2.196505E-3	-5.467829E-3	2.965922E-3	4.448807E-3	-2.440489E-3	-3.899136E-3	-5.434656E-3	7.884244E-4	-8.805526E-4	-5.272019E-3	1.511165E-4	-1.389464E-3	-1.063759E-2	-3.802638E-3	-3.713670E-3	1.834744E-3	-5.782727E-3	-3.103643E-4	5.158711E-4	-2.928703E-3	-8.158378E-3	-1.042268E-3	5.520060E-4	-3.461776E-3	-3.650628E-3	-4.006820E-3	1.006660E-3	-5.308549E-3	3.329621E-4	-2.462071E-3	2.897126E-3	-4.033728E-3	-8.636012E-3	-2.432475E-3	-2.232789E-3	-2.019996E-3	-9.307783E-3	-7.736869E-3	-8.349677E-3	4.111174E-3	-4.060935E-3	1.126072E-3	2.560512E-3	-2.043568E-3	-2.485174E-3	2.118789E-3	3.781419E-3	7.039814E-4	-2.386461E-3	4.973294E-3	-6.278386E-4	3.868727E-3	-3.631865E-3	-6.171234E-3	-2.035397E-3	-2.377292E-3	7.704909E-4	6.869856E-3	-4.909268E-3	3.804315E-3	3.950195E-3	3.176040E-3	-6.105222E-3	-3.686270E-3	-4.278175E-3	7.173857E-4	2.451153E-3	-6.681185E-3	8.543163E-3	-3.942306E-3	-2.961169E-3	5.837626E-4	3.387906E-4	5.177954E-3	-5.911051E-3	-1.763618E-3	-3.900774E-3	1.256046E-4	-1.815094E-3	-4.530483E-3	-2.797170E-3	2.819854E-3	-8.630100E-4	-8.542594E-4	-4.448963E-3	-5.830311E-3	-2.256848E-3	6.770292E-3	1.124201E-2	-1.263018E-3	7.179820E-3	3.685324E-3	-5.400111E-3	3.533058E-3	-4.144642E-3	8.103353E-3	-4.109248E-3	-3.822732E-3	-1.028499E-3	5.541392E-3	-4.379446E-3	-4.793010E-3	-2.746735E-3	-1.811482E-5	-3.941865E-4	4.547669E-3	-2.705549E-3	-1.775087E-3	-5.326848E-3	-2.725956E-3	3.248364E-3	4.538729E-3	-9.507597E-3	8.755103E-5	4.705165E-3	-5.825095E-3	7.700862E-3	-6.586298E-3	2.281639E-3	3.912622E-3	-6.872705E-3	-5.061523E-3	-6.905011E-3	-5.854450E-3	-5.051138E-3	5.772053E-3	-1.851525E-3	-5.526908E-3	7.882766E-3	-2.003810E-3	-7.949565E-3	-7.042174E-3	5.636039E-3	-5.707605E-3	-4.013849E-3	-8.108617E-4	1.332968E-2	1.898430E-3	1.429299E-3	3.614365E-3	-2.301223E-3	-7.178714E-3	-5.438013E-3	3.242235E-3	-3.278486E-3	3.915454E-3
5.320070E+2	3.483384E-3	1.284353E-2	4.370270E-3	5.290257E-3	6.441641E-3	1.813301E-2	5.470479E-3	-1.597473E-3	1.151470E-2	2.487450E-3	5.574898E-3	2.434982E-3	9.997538E-3	-4.404441E-3	5.827033E-3	7.447353E-3	-2.653429E-3	1.308334E-2	-1.284986E-4	7.210312E-3	-1.057900E-3	2.201584E-3	7.358345E-3	6.233157E-3	-9.756106E-4	9.767954E-3	-4.287055E-3	3.493224E-3	4.930221E-3	5.366349E-3	3.432312E-3	8.103464E-3	3.760509E-3	-1.396023E-3	4.101670E-3	5.960237E-3	6.686576E-3	-9.786353E-4	-3.310060E-3	1.594793E-3	-2.862230E-3	1.094537E-2	-8.952132E-4	-1.085140E-3	-4.654293E-3	5.360000E-3	7.055968E-3	1.074540E-4	-5.868849E-3	-7.898920E-4	8.671590E-3	1.525777E-3	1.121371E-2	8.894129E-3	2.381387E-3	2.456132E-3	3.826299E-3	9.115959E-3	4.235227E-3	-1.656587E-3	1.042861E-2	-2.503591E-3	1.125945E-2	4.333407E-3	6.482166E-3	3.814077E-3	-1.200369E-3	8.375490E-4	4.032227E-3	3.607835E-3	6.212005E-4	3.781411E-3	2.664779E-3	2.135280E-3	1.580224E-3	2.292392E-3	5.464067E-3	5.751885E-3	6.083292E-3	-4.727369E-3	4.380845E-3	5.029538E-3	1.358042E-3	6.515901E-4	2.704756E-3	4.448495E-3	1.109558E-2	3.442873E-3	1.417794E-3	1.141054E-3	-4.104015E-4	1.074789E-2	1.790625E-2	5.939421E-3	2.298371E-3	-9.012219E-4	1.784664E-3	2.536298E-3	-6.371422E-3	1.255057E-2	1.478460E-3	-2.444064E-3	1.153624E-3	2.981732E-3	1.059708E-2	1.282045E-3	-4.852814E-3	6.404374E-3	-2.993568E-3	1.003129E-2	6.538048E-3	5.388663E-3	2.383278E-3	-4.706653E-3	7.766955E-3	-2.246788E-4	3.685280E-3	7.785666E-3	1.316095E-2	1.065763E-3	7.052086E-3	-1.447628E-3	5.471870E-3	1.439929E-2	-4.229678E-5	5.386102E-3	7.139093E-3	1.449430E-2	7.683451E-3	5.192606E-3	-7.165207E-4	7.216261E-3	2.121493E-3	-6.331116E-3	1.966977E-3	-1.575923E-3	4.538705E-3	1.025349E-2	5.717753E-3	-9.923139E-4	-1.643695E-4	-8.639123E-4	2.217157E-3	2.281651E-3	3.540654E-5	1.314493E-3	6.526005E-3	2.553044E-3	-2.417079E-3	5.639422E-3	1.420076E-2	1.406763E-3	-3.760435E-3	-3.402972E-3	-9.710830E-4	1.664023E-3	1.012107E-2	7.362805E-3	7.741850E-4	8.639260E-3	1.325727E-2	-8.373779E-3	8.610882E-3	-3.875389E-3	3.614428E-3	3.121535E-4	-3.755743E-3	4.045171E-3	6.889637E-3	-1.935788E-3	3.915380E-3
5.325170E+2	1.359222E-2	8.587159E-3	1.456559E-2	7.065186E-3	5.359008E-3	1.398734E-2	7.636971E-3	1.693975E-2	1.151471E-2	1.085114E-2	6.153920E-3	8.536579E-3	1.047527E-2	2.015815E-2	1.488203E-2	2.989335E-3	1.208939E-2	6.195659E-3	1.584839E-3	1.273193E-2	1.001011E-2	1.217731E-2	5.336191E-3	8.893964E-3	7.466936E-3	1.610385E-3	1.047319E-2	5.602339E-3	9.744028E-3	2.338210E-2	1.809529E-2	1.334404E-2	6.237280E-3	1.097498E-2	1.347536E-2	1.282562E-2	8.200908E-3	1.681430E-2	2.082776E-2	1.384516E-2	2.355836E-2	5.177024E-3	1.548237E-2	1.492525E-2	1.087597E-2	1.829056E-2	1.657169E-3	1.299962E-2	8.573416E-3	1.065306E-2	6.035062E-4	3.083343E-3	1.872383E-2	1.156953E-2	1.061523E-2	9.512137E-3	1.021263E-2	1.423484E-3	-1.321227E-3	5.834090E-3	1.509685E-2	2.104944E-2	4.071641E-3	6.772476E-3	-6.305954E-4	1.168908E-2	1.973829E-2	8.878063E-3	1.112065E-2	6.654354E-3	1.060501E-2	1.113521E-2	8.547168E-3	1.174393E-2	1.119382E-2	1.163704E-2	7.059439E-3	6.794458E-3	1.272119E-2	1.950007E-2	2.035452E-2	1.141805E-2	1.293285E-2	9.245650E-3	6.553354E-3	6.939859E-3	2.681060E-3	1.390032E-2	1.468830E-2	1.035371E-2	6.356438E-3	8.377453E-3	1.694198E-2	9.063885E-3	9.579088E-3	9.913501E-3	8.990002E-3	1.437526E-3	9.797749E-3	1.092162E-2	1.478443E-3	1.309430E-2	1.708693E-2	9.377544E-3	3.873720E-3	7.692220E-3	1.108281E-2	9.432480E-3	1.037713E-2	7.445572E-3	1.395910E-2	1.150509E-2	6.770231E-3	1.570765E-2	9.891639E-3	1.484030E-3	3.173892E-3	4.919172E-3	2.519571E-3	6.276171E-3	1.270256E-3	8.666528E-3	-6.727329E-3	6.685357E-3	1.315561E-2	1.298168E-2	9.214188E-3	8.409231E-3	1.166763E-3	1.281885E-3	9.811823E-3	9.972367E-3	1.147318E-3	1.425652E-2	1.396007E-2	2.765976E-3	1.652789E-2	9.672328E-3	6.280759E-3	1.325130E-2	1.270081E-2	2.347912E-3	1.454204E-2	1.102506E-2	6.681987E-3	1.223071E-2	1.695484E-2	8.116606E-3	1.968030E-2	5.130294E-3	1.838747E-3	2.337635E-3	1.390484E-2	9.575640E-3	6.167227E-5	6.470770E-3	1.344301E-2	1.542115E-2	1.265748E-2	9.651526E-3	1.149878E-2	1.054716E-2	4.949622E-3	1.616465E-2	7.197542E-3	1.912849E-2	1.849348E-2	7.008688E-3	1.418469E-2	1.283443E-2	-5.839230E-3
5.330280E+2	1.997671E-2	2.135642E-2	1.563879E-2	2.008124E-2	1.672661E-2	3.989784E-2	1.630299E-2	2.081963E-2	2.299606E-2	2.869377E-2	1.310241E-2	2.429901E-2	1.668559E-2	2.172599E-2	2.947064E-2	2.438768E-2	3.140765E-2	3.202439E-2	2.442950E-2	2.819257E-2	2.761825E-2	2.564449E-2	1.898569E-2	2.042406E-2	2.435197E-2	2.880228E-2	1.932934E-2	3.407532E-2	2.418568E-2	3.118892E-2	2.260695E-2	1.945805E-2	2.555593E-2	1.509863E-2	2.235570E-2	2.602828E-2	1.627696E-2	2.698171E-2	2.821689E-2	3.099569E-2	2.825534E-2	2.882712E-2	2.074657E-2	1.545890E-2	1.950387E-2	2.358038E-2	3.405011E-2	2.144624E-2	2.722794E-2	3.353896E-2	2.538407E-2	2.852311E-2	2.172790E-2	2.601651E-2	2.030212E-2	1.480415E-2	2.789778E-2	3.337705E-2	1.868195E-2	3.233957E-2	1.457817E-2	3.675146E-2	2.152772E-2	2.091894E-2	2.070754E-2	3.475147E-2	2.322811E-2	2.266178E-2	2.985430E-2	2.594887E-2	1.110424E-2	2.151696E-2	2.031196E-2	3.604827E-2	2.589685E-2	1.572538E-2	1.237731E-2	2.868988E-2	2.599688E-2	3.672849E-2	3.817133E-2	1.833899E-2	2.616130E-2	1.177331E-2	3.184439E-2	3.783286E-2	2.643964E-2	1.526438E-2	1.519867E-2	3.961744E-2	3.849871E-2	7.192156E-3	2.995888E-2	2.624857E-2	2.674091E-2	3.154299E-2	1.319317E-2	2.176440E-2	1.499497E-2	8.206665E-3	1.768904E-2	2.571918E-2	2.839444E-2	2.963094E-2	4.141242E-2	1.934713E-2	3.351060E-2	3.486831E-2	1.893433E-2	1.675427E-2	2.632746E-2	1.354393E-2	2.807858E-2	2.719066E-2	1.201632E-2	1.971045E-2	2.618935E-2	2.097137E-2	1.670811E-2	1.906534E-2	2.334638E-2	1.505446E-2	2.870848E-2	1.202582E-2	2.787636E-2	2.111968E-2	1.803350E-2	2.615734E-2	2.960328E-2	2.586380E-2	3.034201E-2	3.367451E-2	2.111726E-2	1.325223E-2	2.699604E-2	2.929977E-2	3.993526E-2	2.013405E-2	3.386843E-2	2.521603E-2	3.225592E-2	1.894212E-2	2.158486E-2	2.851185E-2	2.219080E-2	1.987208E-2	2.796302E-2	3.259630E-2	2.655505E-2	2.905682E-2	2.375328E-2	1.723259E-2	1.861552E-2	2.368279E-2	1.761846E-2	2.029028E-2	2.340870E-2	3.153774E-2	1.859908E-2	2.736587E-2	2.849780E-2	2.223364E-2	2.264600E-2	2.677405E-2	2.306562E-2	2.696853E-2	1.735245E-2	1.945543E-2	3.515769E-2	1.283448E-2	8.792789E-3
5.331630E+2	3.434189E-2	3.169342E-2	2.529752E-2	2.658934E-2	3.837916E-2	4.767097E-2	2.876048E-2	3.116601E-2	3.393055E-2	3.984533E-2	3.973835E-2	2.531597E-2	3.627197E-2	2.799723E-2	3.701644E-2	3.285789E-2	3.344119E-2	4.178188E-2	2.271612E-2	3.426631E-2	4.874799E-2	2.165423E-2	1.898566E-2	2.574569E-2	3.166882E-2	3.967909E-2	3.113757E-2	3.143889E-2	3.525755E-2	3.058842E-2	3.557801E-2	3.081263E-2	2.258383E-2	3.674791E-2	2.087564E-2	2.814077E-2	1.880075E-2	4.985830E-2	2.476867E-2	2.201210E-2	3.530086E-2	3.805641E-2	2.542592E-2	3.040192E-2	3.675969E-2	2.240488E-2	2.433222E-2	3.611669E-2	3.745786E-2	5.814131E-2	2.480779E-2	3.008062E-2	3.023936E-2	4.153376E-2	1.884908E-2	2.450619E-2	3.674033E-2	3.456050E-2	2.923925E-2	2.081547E-2	2.910157E-2	2.628345E-2	2.563501E-2	2.043115E-2	2.782027E-2	3.362649E-2	2.555463E-2	1.864151E-2	5.010691E-2	4.372017E-2	1.859204E-2	3.795471E-2	1.344919E-2	4.791785E-2	2.985537E-2	5.135213E-2	2.407658E-2	3.286042E-2	2.242269E-2	2.165361E-2	2.711257E-2	3.377804E-2	2.946836E-2	2.238955E-2	2.909537E-2	4.580521E-2	1.654024E-2	3.117785E-2	2.744840E-2	3.311438E-2	3.962654E-2	1.489628E-2	2.803040E-2	4.291255E-2	2.934116E-2	4.493265E-2	3.781148E-2	3.165307E-2	2.712177E-2	3.101214E-2	4.524694E-2	4.659888E-2	2.942239E-2	3.602670E-2	3.412881E-2	3.216750E-2	4.118322E-2	3.184023E-2	2.802637E-2	3.795752E-2	2.509064E-2	3.749982E-2	3.998613E-2	4.313928E-2	2.635805E-2	2.084957E-2	3.641844E-2	3.473035E-2	2.785621E-2	2.664411E-2	3.491004E-2	2.144231E-2	3.509853E-2	3.042050E-2	2.686116E-2	3.305540E-2	2.892805E-2	2.514316E-2	2.782601E-2	4.430029E-2	3.244768E-2	3.973791E-2	2.306555E-2	3.635064E-2	2.230309E-2	3.557142E-2	3.708064E-2	2.710855E-2	4.738070E-2	2.692523E-2	3.174129E-2	2.375987E-2	3.332287E-2	2.462588E-2	2.994520E-2	2.260115E-2	3.085987E-2	2.758912E-2	2.950132E-2	3.058407E-2	2.487705E-2	2.747282E-2	4.923533E-2	2.932563E-2	1.968397E-2	2.089118E-2	3.724999E-2	4.247404E-2	3.426345E-2	3.040263E-2	3.318715E-2	1.332965E-2	2.935849E-2	3.266814E-2	1.589934E-2	4.160351E-2	3.047383E-2	4.257078E-2	1.509655E-2	2.223371E-2	4.293410E-2
5.333080E+2	3.647005E-2	3.412562E-2	3.495623E-2	3.723881E-2	3.458998E-2	3.730681E-2	4.338447E-2	3.763243E-2	2.846333E-2	3.538474E-2	3.742217E-2	3.497686E-2	4.295998E-2	4.053981E-2	4.154393E-2	4.400280E-2	3.547470E-2	3.374628E-2	3.699405E-2	3.205772E-2	3.617078E-2	4.110686E-2	3.566833E-2	3.239766E-2	3.954851E-2	3.967910E-2	5.239236E-2	4.778452E-2	2.899951E-2	4.560158E-2	3.952572E-2	3.299619E-2	3.645363E-2	3.468608E-2	2.778256E-2	3.817474E-2	3.747671E-2	3.765746E-2	3.412822E-2	3.997930E-2	3.353949E-2	5.132347E-2	2.250135E-2	3.307029E-2	3.791007E-2	3.768647E-2	4.484784E-2	4.322965E-2	5.551061E-2	5.013122E-2	3.172328E-2	4.202168E-2	5.527302E-2	5.330540E-2	4.645673E-2	2.935721E-2	2.789779E-2	4.580345E-2	2.923918E-2	4.904957E-2	4.258758E-2	3.989186E-2	4.001057E-2	4.579732E-2	2.722758E-2	3.925149E-2	1.799343E-2	5.137782E-2	3.187957E-2	4.219694E-2	3.107183E-2	3.708967E-2	2.619438E-2	4.113520E-2	3.607587E-2	3.091059E-2	2.886268E-2	2.399803E-2	3.008174E-2	3.349809E-2	5.353066E-2	2.951902E-2	3.553135E-2	4.008321E-2	4.448991E-2	5.377752E-2	2.643965E-2	3.617923E-2	3.867727E-2	4.395282E-2	3.793482E-2	1.785942E-2	3.815462E-2	5.436908E-2	3.506183E-2	4.596266E-2	4.141417E-2	3.165313E-2	2.423446E-2	2.015241E-2	3.822234E-2	5.970922E-2	3.456212E-2	3.229585E-2	3.805074E-2	2.867108E-2	4.354405E-2	3.607957E-2	4.621047E-2	3.950892E-2	4.178794E-2	3.699001E-2	4.499988E-2	4.569108E-2	1.945275E-2	3.736727E-2	4.357881E-2	5.078261E-2	3.444374E-2	4.227533E-2	3.280759E-2	3.049187E-2	4.845971E-2	4.347482E-2	3.650579E-2	2.980021E-2	4.449157E-2	4.897642E-2	3.138057E-2	4.318294E-2	3.613260E-2	4.469871E-2	3.037164E-2	3.584849E-2	3.951056E-2	4.136061E-2	3.308424E-2	3.757034E-2	4.062459E-2	3.547143E-2	3.122671E-2	4.731302E-2	4.271329E-2	3.434079E-2	4.379234E-2	3.842966E-2	3.665367E-2	3.982899E-2	3.932241E-2	4.840160E-2	2.150561E-2	3.492026E-2	3.745849E-2	3.778994E-2	2.691324E-2	3.711405E-2	4.001825E-2	4.477641E-2	3.858463E-2	3.293327E-2	5.077232E-2	3.725901E-2	4.400379E-2	5.093991E-2	3.074368E-2	3.742207E-2	3.446727E-2	3.308756E-2	5.157134E-2	4.640323E-2	4.049541E-2
5.334580E+2	3.806619E-2	5.844798E-2	6.929843E-2	4.374688E-2	5.353604E-2	6.218089E-2	4.067632E-2	3.806353E-2	4.541191E-2	7.887605E-2	3.915934E-2	5.023087E-2	6.636812E-2	4.785635E-2	5.261112E-2	5.871418E-2	4.055840E-2	5.440926E-2	5.869644E-2	6.463526E-2	5.880982E-2	6.055954E-2	4.679009E-2	5.102320E-2	5.249367E-2	5.871347E-2	4.707863E-2	5.042093E-2	5.114331E-2	5.881307E-2	5.644443E-2	4.828104E-2	4.536993E-2	4.499524E-2	4.504991E-2	5.084930E-2	5.918126E-2	5.646712E-2	5.284736E-2	5.018785E-2	5.643736E-2	6.862837E-2	3.829403E-2	5.655225E-2	6.666985E-2	6.413538E-2	5.348596E-2	5.790009E-2	5.250185E-2	6.329062E-2	5.131726E-2	6.123128E-2	5.677512E-2	7.577859E-2	5.323759E-2	5.096614E-2	4.361790E-2	6.178025E-2	3.868519E-2	4.732095E-2	5.970449E-2	6.030453E-2	3.949718E-2	6.287060E-2	5.745663E-2	6.906381E-2	5.754442E-2	4.735759E-2	6.428377E-2	6.809228E-2	3.706212E-2	4.747136E-2	4.237105E-2	6.883084E-2	5.077894E-2	6.303305E-2	5.704734E-2	5.631981E-2	4.539996E-2	6.795470E-2	6.827558E-2	5.507328E-2	6.198810E-2	3.957769E-2	4.833850E-2	6.922401E-2	5.316801E-2	3.572458E-2	4.786455E-2	5.262350E-2	4.977672E-2	5.993576E-2	4.490416E-2	4.707851E-2	5.690412E-2	6.141233E-2	5.162169E-2	6.681302E-2	4.791076E-2	5.761861E-2	5.173110E-2	6.505063E-2	4.124389E-2	5.681308E-2	7.671011E-2	6.538394E-2	6.597195E-2	5.364244E-2	5.690696E-2	5.709213E-2	5.848525E-2	6.553335E-2	4.688005E-2	6.419150E-2	5.238556E-2	5.559361E-2	6.096812E-2	5.479567E-2	6.687473E-2	4.795943E-2	6.171676E-2	5.072009E-2	5.833528E-2	5.118869E-2	5.782551E-2	5.475685E-2	5.123584E-2	5.810408E-2	4.915335E-2	5.994335E-2	5.718918E-2	5.462053E-2	4.985442E-2	6.045337E-2	4.524638E-2	5.390388E-2	6.334260E-2	5.965628E-2	6.764926E-2	3.888992E-2	5.386943E-2	6.069549E-2	6.149407E-2	5.668486E-2	4.766952E-2	5.152914E-2	4.534433E-2	5.985781E-2	5.552722E-2	7.945501E-2	5.297276E-2	4.329867E-2	5.512376E-2	6.036132E-2	4.343728E-2	4.973187E-2	6.493259E-2	7.298045E-2	5.478918E-2	6.583127E-2	3.846276E-2	4.004154E-2	4.461402E-2	5.860225E-2	5.531363E-2	5.153432E-2	6.584435E-2	4.375621E-2	5.795450E-2	3.566130E-2	7.219807E-2
5.336130E+2	7.743741E-2	7.243336E-2	8.003034E-2	7.273727E-2	7.897768E-2	7.513607E-2	6.775780E-2	6.134292E-2	7.110810E-2	9.225802E-2	6.463709E-2	5.989170E-2	5.394747E-2	6.667021E-2	6.569053E-2	6.495547E-2	6.343529E-2	6.933235E-2	5.755420E-2	8.451304E-2	6.635621E-2	8.350363E-2	7.459443E-2	5.811869E-2	6.825307E-2	7.122174E-2	6.656219E-2	8.153038E-2	7.376839E-2	5.881313E-2	6.885149E-2	7.230055E-2	5.131418E-2	6.922183E-2	6.379724E-2	6.669245E-2	6.170489E-2	7.934366E-2	7.402953E-2	5.794651E-2	6.289583E-2	7.958804E-2	4.472807E-2	5.335020E-2	7.242169E-2	8.647006E-2	7.346163E-2	8.190605E-2	7.175814E-2	7.473359E-2	6.745344E-2	7.109574E-2	8.130804E-2	8.540989E-2	5.904962E-2	7.037011E-2	4.803919E-2	7.598165E-2	7.146805E-2	6.806441E-2	8.045223E-2	6.920239E-2	7.851659E-2	6.921209E-2	8.353662E-2	8.425152E-2	4.823829E-2	8.181694E-2	7.339733E-2	7.723159E-2	6.801178E-2	5.482522E-2	6.197896E-2	9.313526E-2	5.643393E-2	6.186497E-2	7.140551E-2	6.257556E-2	7.603611E-2	9.971979E-2	6.704685E-2	5.454083E-2	7.411408E-2	6.839320E-2	7.747816E-2	7.619979E-2	5.861274E-2	5.209271E-2	4.173971E-2	7.646804E-2	6.274643E-2	5.638002E-2	6.322415E-2	6.113883E-2	7.666603E-2	8.407150E-2	6.963519E-2	7.230677E-2	5.541780E-2	6.250564E-2	7.280472E-2	8.058883E-2	5.769118E-2	7.653334E-2	7.670993E-2	8.403172E-2	7.541519E-2	8.997951E-2	7.455612E-2	6.950374E-2	8.445871E-2	6.961113E-2	6.004100E-2	8.715758E-2	5.716609E-2	5.274574E-2	7.273156E-2	7.199432E-2	5.876696E-2	5.222250E-2	7.485727E-2	5.764028E-2	7.460075E-2	5.771588E-2	6.340920E-2	5.963969E-2	8.391917E-2	8.396554E-2	6.811107E-2	8.173177E-2	8.193078E-2	7.777157E-2	7.128565E-2	7.702391E-2	6.453959E-2	6.885919E-2	7.361900E-2	9.452884E-2	9.748907E-2	6.338901E-2	8.577494E-2	7.728984E-2	8.262243E-2	8.145808E-2	5.763946E-2	7.172410E-2	7.431306E-2	7.654854E-2	8.007977E-2	9.116390E-2	7.039196E-2	5.819344E-2	7.691071E-2	8.011138E-2	5.169927E-2	8.217762E-2	7.545192E-2	8.276563E-2	9.476011E-2	7.949660E-2	6.249580E-2	5.951900E-2	7.390469E-2	6.685403E-2	7.169340E-2	8.184943E-2	6.299194E-2	6.509333E-2	6.616130E-2	7.460094E-2	6.244343E-2
5.337580E+2	1.231929E-1	1.168215E-1	1.197385E-1	8.516160E-2	1.049610E-1	1.000103E-1	7.967358E-2	1.070392E-1	1.088324E-1	1.073127E-1	9.069380E-2	9.192497E-2	9.550877E-2	1.121368E-1	9.738283E-2	9.482375E-2	1.005465E-1	1.095103E-1	1.003877E-1	1.281340E-1	1.227024E-1	1.034550E-1	9.987151E-2	9.403913E-2	1.070885E-1	1.038519E-1	1.137949E-1	8.891228E-2	1.079468E-1	1.194662E-1	1.212997E-1	1.028705E-1	8.796990E-2	1.027264E-1	8.303807E-2	1.110531E-1	1.111710E-1	1.159464E-1	8.141874E-2	8.285570E-2	9.988464E-2	1.153515E-1	1.008797E-1	1.040497E-1	1.034820E-1	1.082168E-1	1.123331E-1	1.130252E-1	1.144828E-1	1.285156E-1	7.840287E-2	1.001698E-1	1.233646E-1	1.394525E-1	9.634407E-2	1.082964E-1	8.783080E-2	1.351550E-1	9.591650E-2	9.687483E-2	1.011998E-1	1.063638E-1	1.041871E-1	1.155540E-1	1.167292E-1	1.090015E-1	1.005852E-1	9.043155E-2	1.098519E-1	1.239449E-1	8.298767E-2	9.332438E-2	9.090077E-2	1.355264E-1	8.753660E-2	1.231897E-1	8.576359E-2	1.042810E-1	1.076935E-1	1.094105E-1	1.063667E-1	1.125704E-1	1.027755E-1	8.507570E-2	1.038689E-1	1.105806E-1	9.128057E-2	8.391998E-2	8.665508E-2	1.078994E-1	9.601622E-2	1.073459E-1	1.109526E-1	1.382092E-1	9.226769E-2	1.211505E-1	1.062623E-1	1.102135E-1	1.218268E-1	8.531095E-2	1.192751E-1	1.296319E-1	1.003514E-1	1.090453E-1	1.148090E-1	1.154998E-1	1.066959E-1	1.123874E-1	1.061111E-1	1.217359E-1	1.141430E-1	9.968327E-2	1.114319E-1	1.165029E-1	8.531835E-2	1.114121E-1	9.830426E-2	1.092583E-1	1.185611E-1	9.674786E-2	1.142788E-1	1.087436E-1	1.030658E-1	1.111196E-1	9.031273E-2	1.100953E-1	1.202342E-1	1.169262E-1	1.030645E-1	1.174875E-1	8.772140E-2	1.108441E-1	1.209672E-1	1.202077E-1	1.072972E-1	9.442823E-2	1.084445E-1	9.278510E-2	1.155054E-1	9.244613E-2	9.915484E-2	9.763111E-2	1.213578E-1	1.208029E-1	1.207823E-1	1.061102E-1	1.195043E-1	1.099299E-1	1.316406E-1	1.267992E-1	1.063545E-1	9.543066E-2	1.187186E-1	1.134042E-1	9.662392E-2	9.840062E-2	1.114394E-1	1.293889E-1	1.190665E-1	8.810095E-2	1.029417E-1	9.736089E-2	1.007545E-1	9.986109E-2	1.070127E-1	1.095515E-1	1.126247E-1	9.709925E-2	8.986998E-2	1.229400E-1	9.414617E-2
5.339090E+2	1.865061E-1	1.837081E-1	2.023742E-1	1.502423E-1	1.509722E-1	1.730778E-1	1.885412E-1	1.462693E-1	1.624118E-1	1.719923E-1	1.792879E-1	1.570089E-1	1.662107E-1	1.832115E-1	1.698230E-1	1.822006E-1	1.544344E-1	1.829788E-1	1.574997E-1	1.557424E-1	1.790483E-1	1.812657E-1	1.832849E-1	1.321774E-1	1.785688E-1	1.837965E-1	1.639802E-1	1.695856E-1	1.570483E-1	1.861245E-1	1.844634E-1	1.644472E-1	1.488983E-1	1.480871E-1	1.437202E-1	1.480210E-1	1.626562E-1	1.861013E-1	1.883150E-1	1.428824E-1	1.644682E-1	1.909164E-1	1.646355E-1	1.350031E-1	1.771068E-1	1.952046E-1	1.835975E-1	1.685953E-1	1.866943E-1	1.679940E-1	1.930853E-1	1.448188E-1	1.914564E-1	1.806535E-1	1.854636E-1	1.444586E-1	1.403950E-1	1.884113E-1	1.520366E-1	1.573765E-1	1.784852E-1	1.785932E-1	1.591225E-1	1.667741E-1	1.576272E-1	1.658137E-1	1.884116E-1	1.495867E-1	1.868121E-1	1.625337E-1	1.763362E-1	1.409078E-1	1.359995E-1	1.897874E-1	1.514382E-1	1.483034E-1	1.655312E-1	1.720525E-1	1.858164E-1	1.960905E-1	1.929936E-1	1.791179E-1	1.694688E-1	1.427067E-1	1.659964E-1	1.748581E-1	1.650312E-1	1.534843E-1	1.315707E-1	1.794333E-1	1.772180E-1	1.434960E-1	1.572347E-1	1.741413E-1	1.791172E-1	1.937641E-1	1.476935E-1	1.805335E-1	1.749537E-1	1.488406E-1	1.770931E-1	2.029533E-1	1.651125E-1	1.927237E-1	1.971702E-1	1.813500E-1	1.722092E-1	1.929342E-1	1.783127E-1	1.781055E-1	1.864978E-1	1.659443E-1	1.609421E-1	1.675390E-1	1.304682E-1	1.552690E-1	1.929239E-1	2.004120E-1	1.798763E-1	1.336944E-1	1.757769E-1	1.667670E-1	1.704523E-1	1.639307E-1	1.639162E-1	1.779118E-1	1.762630E-1	1.934970E-1	1.919284E-1	1.856465E-1	1.761589E-1	1.665165E-1	1.954893E-1	1.900048E-1	1.604841E-1	1.508730E-1	1.712448E-1	1.933342E-1	1.622356E-1	1.687919E-1	1.871530E-1	1.731085E-1	1.647882E-1	1.858930E-1	1.667550E-1	1.994440E-1	1.733868E-1	1.655657E-1	1.910574E-1	1.700703E-1	1.513075E-1	1.564068E-1	1.776026E-1	1.766041E-1	1.456800E-1	1.452664E-1	1.906114E-1	2.024886E-1	1.725415E-1	1.690810E-1	1.621454E-1	1.502283E-1	1.629970E-1	1.617496E-1	1.735564E-1	1.832484E-1	1.879299E-1	1.551844E-1	1.892639E-1	1.779929E-1	1.843769E-1
5.340800E+2	2.923829E-1	3.205216E-1	3.048642E-1	2.975606E-1	3.030821E-1	2.969301E-1	3.320727E-1	2.514571E-1	3.138556E-1	3.314605E-1	3.234690E-1	2.490410E-1	2.727418E-1	2.913912E-1	2.996112E-1	2.990003E-1	2.474667E-1	2.989206E-1	2.854295E-1	3.202872E-1	3.204169E-1	2.974826E-1	2.823693E-1	2.559044E-1	3.012667E-1	2.914770E-1	3.009550E-1	2.618595E-1	2.668046E-1	3.128355E-1	3.203777E-1	3.015749E-1	2.499497E-1	2.516943E-1	2.621247E-1	2.853284E-1	2.843023E-1	3.009928E-1	2.986593E-1	2.543610E-1	2.854158E-1	3.120506E-1	2.705050E-1	2.470756E-1	2.840926E-1	3.115800E-1	3.309860E-1	2.961835E-1	2.859846E-1	3.236180E-1	3.394636E-1	2.740946E-1	3.456643E-1	3.219131E-1	3.307671E-1	2.635289E-1	2.391372E-1	3.310188E-1	3.159518E-1	2.645508E-1	2.734056E-1	3.225287E-1	2.936364E-1	2.945810E-1	2.945473E-1	3.126265E-1	2.977584E-1	2.765116E-1	3.027582E-1	3.209524E-1	3.136134E-1	2.447257E-1	2.232550E-1	2.847435E-1	3.063859E-1	2.937311E-1	2.734841E-1	3.399162E-1	3.109146E-1	2.919238E-1	2.998943E-1	2.823992E-1	3.017524E-1	2.604963E-1	3.243402E-1	3.064027E-1	3.105524E-1	2.330517E-1	2.367140E-1	2.997394E-1	2.922540E-1	2.661691E-1	2.975275E-1	2.814151E-1	2.831283E-1	3.214810E-1	2.779900E-1	2.849147E-1	2.725465E-1	2.688411E-1	3.527073E-1	3.394000E-1	2.679086E-1	2.998534E-1	3.316372E-1	3.095541E-1	3.215308E-1	2.983113E-1	2.719070E-1	3.260112E-1	2.996688E-1	2.969376E-1	3.163679E-1	3.295770E-1	2.382968E-1	2.543751E-1	3.049323E-1	3.185104E-1	2.827430E-1	2.639545E-1	3.197973E-1	2.503421E-1	2.970917E-1	2.582779E-1	2.766066E-1	3.064929E-1	2.940274E-1	3.304114E-1	2.926411E-1	3.124669E-1	2.893385E-1	3.004615E-1	2.943646E-1	3.080076E-1	2.809365E-1	2.632800E-1	2.968452E-1	3.107383E-1	3.142492E-1	2.639398E-1	3.003666E-1	3.090742E-1	2.962537E-1	3.015002E-1	3.168576E-1	3.211601E-1	3.014290E-1	2.740555E-1	3.049822E-1	3.166838E-1	2.884143E-1	2.853410E-1	2.924268E-1	3.199332E-1	2.474059E-1	3.086972E-1	3.013415E-1	3.371780E-1	3.000166E-1	3.153510E-1	2.852416E-1	2.598583E-1	2.850418E-1	2.707901E-1	3.066435E-1	2.992824E-1	3.060218E-1	2.630561E-1	3.214849E-1	3.042117E-1	3.355742E-1
5.342040E+2	4.615727E-1	4.555106E-1	4.996488E-1	4.649948E-1	4.768439E-1	4.523931E-1	4.999778E-1	4.208785E-1	4.275755E-1	4.825647E-1	5.041299E-1	4.071743E-1	4.098465E-1	4.884146E-1	4.746737E-1	4.412105E-1	3.943871E-1	4.584847E-1	4.476271E-1	4.831750E-1	4.959953E-1	4.845273E-1	5.088497E-1	4.496990E-1	4.521065E-1	4.312430E-1	4.733547E-1	4.648611E-1	4.251804E-1	4.761785E-1	5.431417E-1	4.155574E-1	3.544684E-1	3.882908E-1	4.027303E-1	4.506259E-1	4.458243E-1	4.499446E-1	4.681166E-1	3.817645E-1	4.709471E-1	5.122113E-1	4.377905E-1	4.055785E-1	4.566511E-1	4.996612E-1	4.972704E-1	4.846761E-1	5.146533E-1	4.563558E-1	4.829606E-1	3.903903E-1	4.718342E-1	5.129355E-1	4.876947E-1	4.064128E-1	3.983032E-1	5.215572E-1	4.281917E-1	4.195502E-1	4.414622E-1	4.873999E-1	4.758984E-1	4.336073E-1	4.362087E-1	4.380634E-1	4.577073E-1	4.556999E-1	4.465517E-1	4.859710E-1	4.678632E-1	3.922333E-1	3.703154E-1	4.384829E-1	4.845189E-1	4.572632E-1	4.340835E-1	4.598198E-1	4.737982E-1	5.094320E-1	4.700756E-1	4.841716E-1	4.786822E-1	3.944625E-1	4.953292E-1	4.758159E-1	5.248740E-1	3.826388E-1	3.285867E-1	5.116308E-1	4.777772E-1	4.060289E-1	4.170897E-1	4.673223E-1	4.869894E-1	4.790670E-1	4.773384E-1	4.623625E-1	4.740832E-1	3.888420E-1	4.872547E-1	4.777880E-1	4.632202E-1	4.400280E-1	5.047634E-1	4.861252E-1	4.873792E-1	4.812076E-1	5.018823E-1	4.485754E-1	5.210627E-1	4.676871E-1	4.774333E-1	5.241502E-1	3.976488E-1	4.206907E-1	4.962164E-1	4.830456E-1	4.393230E-1	3.766887E-1	4.617149E-1	3.743733E-1	4.928600E-1	4.178962E-1	4.806665E-1	4.638277E-1	5.077668E-1	4.759457E-1	4.342315E-1	4.649870E-1	4.583181E-1	4.255865E-1	4.692236E-1	5.063522E-1	4.071248E-1	4.181414E-1	4.795366E-1	4.601099E-1	4.476836E-1	4.331541E-1	4.707020E-1	4.568172E-1	5.122331E-1	4.710249E-1	4.586527E-1	4.936359E-1	4.642339E-1	4.381807E-1	4.370751E-1	4.816240E-1	4.390068E-1	4.128783E-1	4.590689E-1	4.220682E-1	3.553283E-1	4.414845E-1	4.945663E-1	5.225191E-1	4.555797E-1	5.016053E-1	4.505423E-1	3.956434E-1	4.522427E-1	4.493822E-1	4.627653E-1	4.822188E-1	4.765987E-1	4.053042E-1	4.710323E-1	4.492280E-1	5.111575E-1
5.343600E+2	8.403868E-1	8.623020E-1	8.886810E-1	8.377289E-1	8.611777E-1	8.622974E-1	8.709939E-1	7.200608E-1	7.971636E-1	9.013081E-1	7.965459E-1	7.132707E-1	7.929749E-1	8.641699E-1	8.544797E-1	8.107781E-1	7.080543E-1	8.120505E-1	8.262765E-1	8.641674E-1	9.266403E-1	8.820603E-1	8.905284E-1	7.672205E-1	8.275171E-1	7.553710E-1	8.565304E-1	7.807001E-1	7.433773E-1	8.917416E-1	9.367853E-1	8.203913E-1	6.427624E-1	7.109680E-1	7.169955E-1	7.928382E-1	8.198479E-1	8.449471E-1	8.316617E-1	7.047661E-1	8.819347E-1	8.929191E-1	8.103813E-1	7.578069E-1	8.391553E-1	9.046238E-1	8.967836E-1	8.389892E-1	8.847354E-1	8.826058E-1	8.569741E-1	7.491426E-1	8.383284E-1	9.345749E-1	8.708118E-1	7.301076E-1	6.645629E-1	8.381344E-1	8.338121E-1	7.324304E-1	7.454164E-1	8.715769E-1	8.568510E-1	7.672698E-1	7.651731E-1	8.554376E-1	8.526359E-1	7.750231E-1	8.743877E-1	9.094353E-1	8.791967E-1	7.153664E-1	6.418863E-1	8.358302E-1	8.198621E-1	7.819920E-1	8.020791E-1	8.216143E-1	8.894311E-1	8.706894E-1	8.313268E-1	7.993407E-1	8.694699E-1	6.608789E-1	7.845267E-1	8.285935E-1	9.282747E-1	6.818126E-1	6.450374E-1	8.590021E-1	8.132978E-1	7.621962E-1	8.191660E-1	7.854995E-1	8.271055E-1	8.709727E-1	8.310013E-1	7.919870E-1	8.373111E-1	7.477571E-1	8.692842E-1	8.390542E-1	8.625811E-1	8.099189E-1	8.868746E-1	8.788950E-1	9.200004E-1	8.579004E-1	7.762479E-1	8.457478E-1	8.438778E-1	8.565885E-1	8.095928E-1	8.731071E-1	7.280387E-1	7.487656E-1	8.593498E-1	9.124425E-1	9.156519E-1	6.888398E-1	8.401633E-1	6.655551E-1	8.826551E-1	7.958778E-1	8.004623E-1	8.360068E-1	8.626165E-1	8.344582E-1	8.015367E-1	8.275703E-1	8.647110E-1	8.257667E-1	8.267343E-1	8.176778E-1	8.560833E-1	7.220746E-1	8.043851E-1	8.698620E-1	8.451710E-1	8.000708E-1	8.376179E-1	8.342033E-1	8.831536E-1	8.780781E-1	8.153547E-1	8.424092E-1	8.489406E-1	7.475145E-1	8.235338E-1	8.664835E-1	8.093073E-1	7.740799E-1	7.835205E-1	8.046540E-1	6.610230E-1	7.785601E-1	8.239889E-1	9.357954E-1	8.385450E-1	8.599416E-1	7.770405E-1	7.011608E-1	8.519379E-1	7.930093E-1	8.604913E-1	7.963464E-1	8.616813E-1	7.443300E-1	8.704316E-1	9.205331E-1	7.940442E-1
5.345110E+2	1.250591E+0	1.227746E+0	1.287909E+0	1.222296E+0	1.247676E+0	1.206907E+0	1.292923E+0	1.023121E+0	1.141603E+0	1.283249E+0	1.249935E+0	1.020893E+0	1.116866E+0	1.347059E+0	1.257428E+0	1.179900E+0	1.019688E+0	1.218422E+0	1.164949E+0	1.173378E+0	1.310498E+0	1.198291E+0	1.235811E+0	1.112238E+0	1.178726E+0	1.139322E+0	1.243840E+0	1.098122E+0	1.131373E+0	1.279081E+0	1.311818E+0	1.223918E+0	9.112424E-1	9.769451E-1	1.019420E+0	1.144029E+0	1.153492E+0	1.238425E+0	1.184862E+0	1.032259E+0	1.241254E+0	1.283432E+0	1.169519E+0	1.055066E+0	1.195200E+0	1.308998E+0	1.194259E+0	1.177297E+0	1.224127E+0	1.229899E+0	1.263837E+0	1.064284E+0	1.247380E+0	1.355681E+0	1.254900E+0	1.074530E+0	9.995981E-1	1.286668E+0	1.157753E+0	1.052225E+0	1.104870E+0	1.284540E+0	1.226510E+0	1.118493E+0	1.119623E+0	1.195187E+0	1.231277E+0	1.106407E+0	1.182733E+0	1.261305E+0	1.258083E+0	1.009085E+0	9.762027E-1	1.239961E+0	1.275090E+0	1.132419E+0	1.167947E+0	1.279853E+0	1.220813E+0	1.326704E+0	1.243571E+0	1.190641E+0	1.206243E+0	9.869479E-1	1.123756E+0	1.189345E+0	1.285641E+0	1.053734E+0	8.971768E-1	1.233470E+0	1.215360E+0	1.110067E+0	1.132053E+0	1.216157E+0	1.267593E+0	1.295837E+0	1.236903E+0	1.150728E+0	1.164736E+0	1.030111E+0	1.246988E+0	1.203234E+0	1.264513E+0	1.212855E+0	1.298678E+0	1.322946E+0	1.307176E+0	1.206735E+0	1.192878E+0	1.236196E+0	1.296560E+0	1.221025E+0	1.188129E+0	1.340083E+0	1.028152E+0	1.074563E+0	1.277719E+0	1.289096E+0	1.283539E+0	1.053094E+0	1.206523E+0	1.020615E+0	1.302075E+0	1.070018E+0	1.175079E+0	1.177804E+0	1.224730E+0	1.210210E+0	1.167657E+0	1.209709E+0	1.206884E+0	1.111295E+0	1.243182E+0	1.224913E+0	1.219005E+0	1.116224E+0	1.203452E+0	1.218587E+0	1.275314E+0	1.149895E+0	1.197846E+0	1.231930E+0	1.256424E+0	1.221987E+0	1.218028E+0	1.192274E+0	1.249870E+0	1.133627E+0	1.204590E+0	1.210109E+0	1.258274E+0	1.085011E+0	1.123282E+0	1.142662E+0	9.698155E-1	1.165506E+0	1.175558E+0	1.313383E+0	1.199364E+0	1.222833E+0	1.120538E+0	9.922089E-1	1.220512E+0	1.163160E+0	1.235694E+0	1.197760E+0	1.303242E+0	1.085727E+0	1.216030E+0	1.218624E+0	1.220809E+0
5.346510E+2	1.770399E+0	1.653995E+0	1.772992E+0	1.739393E+0	1.702380E+0	1.702315E+0	1.774433E+0	1.421888E+0	1.601949E+0	1.729873E+0	1.716643E+0	1.472918E+0	1.525313E+0	1.735354E+0	1.721746E+0	1.680979E+0	1.397917E+0	1.641439E+0	1.575012E+0	1.653208E+0	1.806039E+0	1.688097E+0	1.745893E+0	1.575658E+0	1.613796E+0	1.566236E+0	1.729747E+0	1.603781E+0	1.567031E+0	1.747490E+0	1.883671E+0	1.688142E+0	1.287211E+0	1.364055E+0	1.393381E+0	1.532186E+0	1.581021E+0	1.681215E+0	1.679442E+0	1.357301E+0	1.720349E+0	1.781238E+0	1.653829E+0	1.473470E+0	1.634647E+0	1.784489E+0	1.761137E+0	1.629416E+0	1.746453E+0	1.739686E+0	1.712192E+0	1.505070E+0	1.684466E+0	1.886476E+0	1.765397E+0	1.454229E+0	1.378356E+0	1.770116E+0	1.643386E+0	1.478619E+0	1.551468E+0	1.754032E+0	1.779458E+0	1.559962E+0	1.615738E+0	1.661500E+0	1.691348E+0	1.479715E+0	1.712848E+0	1.740623E+0	1.739303E+0	1.425652E+0	1.353656E+0	1.714178E+0	1.680554E+0	1.620678E+0	1.629008E+0	1.728710E+0	1.671678E+0	1.816634E+0	1.708651E+0	1.644761E+0	1.701202E+0	1.340822E+0	1.688954E+0	1.660214E+0	1.713791E+0	1.372914E+0	1.279981E+0	1.737457E+0	1.699747E+0	1.551574E+0	1.586195E+0	1.649941E+0	1.670117E+0	1.773232E+0	1.672830E+0	1.586932E+0	1.619204E+0	1.500338E+0	1.725742E+0	1.702889E+0	1.654106E+0	1.636047E+0	1.776601E+0	1.753012E+0	1.775800E+0	1.720906E+0	1.634645E+0	1.745592E+0	1.801809E+0	1.631844E+0	1.666315E+0	1.736885E+0	1.453089E+0	1.518830E+0	1.718084E+0	1.758050E+0	1.680820E+0	1.383719E+0	1.676426E+0	1.345865E+0	1.727304E+0	1.571422E+0	1.584724E+0	1.656862E+0	1.675555E+0	1.723895E+0	1.600129E+0	1.616983E+0	1.692237E+0	1.601875E+0	1.555394E+0	1.712491E+0	1.619471E+0	1.410025E+0	1.594527E+0	1.526630E+0	1.736421E+0	1.596005E+0	1.634231E+0	1.577732E+0	1.750593E+0	1.658184E+0	1.658365E+0	1.670406E+0	1.668181E+0	1.531422E+0	1.665689E+0	1.692712E+0	1.661728E+0	1.457847E+0	1.559026E+0	1.579984E+0	1.321466E+0	1.574084E+0	1.574738E+0	1.782491E+0	1.695762E+0	1.627733E+0	1.529101E+0	1.457443E+0	1.655601E+0	1.520931E+0	1.622670E+0	1.651444E+0	1.815545E+0	1.581224E+0	1.609046E+0	1.720813E+0	1.793897E+0
5.348280E+2	2.046530E+0	1.949511E+0	2.057388E+0	2.013316E+0	1.912410E+0	1.975931E+0	2.090743E+0	1.646492E+0	1.874217E+0	2.034314E+0	1.941889E+0	1.790716E+0	1.794268E+0	1.988296E+0	1.989873E+0	1.979665E+0	1.723279E+0	1.883080E+0	1.839435E+0	1.937573E+0	2.070666E+0	1.984874E+0	2.032532E+0	1.823559E+0	1.883957E+0	1.758211E+0	2.007239E+0	1.846854E+0	1.813502E+0	2.088589E+0	2.172988E+0	1.978120E+0	1.512595E+0	1.621270E+0	1.684459E+0	1.853802E+0	1.831886E+0	1.922689E+0	1.935601E+0	1.639061E+0	2.033285E+0	2.072540E+0	1.901833E+0	1.741379E+0	1.902689E+0	2.051919E+0	1.999225E+0	1.981504E+0	1.996186E+0	2.019462E+0	2.063157E+0	1.744928E+0	1.965849E+0	2.271728E+0	2.030335E+0	1.735151E+0	1.578298E+0	2.080772E+0	1.938987E+0	1.753467E+0	1.798360E+0	2.008928E+0	2.002789E+0	1.848257E+0	1.786438E+0	1.935438E+0	1.903064E+0	1.764578E+0	1.921950E+0	2.095033E+0	2.025837E+0	1.660109E+0	1.594836E+0	1.940831E+0	1.949734E+0	1.889925E+0	1.939037E+0	1.956521E+0	1.953019E+0	2.170893E+0	1.974063E+0	1.885930E+0	2.004351E+0	1.607743E+0	1.872042E+0	1.962168E+0	2.035522E+0	1.617527E+0	1.478528E+0	1.968314E+0	1.955761E+0	1.811736E+0	1.812788E+0	1.969679E+0	2.018030E+0	2.075014E+0	1.997670E+0	1.823711E+0	1.874444E+0	1.682242E+0	2.065624E+0	1.949074E+0	1.905442E+0	1.873755E+0	2.066825E+0	2.042635E+0	2.004798E+0	2.023105E+0	1.829855E+0	1.937454E+0	2.044228E+0	1.943780E+0	1.940811E+0	2.057772E+0	1.623068E+0	1.715905E+0	2.006542E+0	2.006857E+0	1.990939E+0	1.624345E+0	1.940812E+0	1.626402E+0	2.022410E+0	1.805214E+0	1.829391E+0	1.871703E+0	2.014838E+0	1.946505E+0	1.920044E+0	1.860573E+0	1.965447E+0	1.886298E+0	1.839357E+0	1.941462E+0	1.913037E+0	1.646899E+0	1.869708E+0	1.874769E+0	2.036508E+0	1.805671E+0	1.923957E+0	1.894095E+0	1.950136E+0	1.918056E+0	1.944727E+0	1.908924E+0	1.878496E+0	1.741726E+0	1.910232E+0	1.970158E+0	1.955044E+0	1.702682E+0	1.840490E+0	1.769019E+0	1.529564E+0	1.807211E+0	1.847137E+0	2.070865E+0	1.896696E+0	1.949121E+0	1.815739E+0	1.661676E+0	2.053464E+0	1.848053E+0	1.893452E+0	1.870966E+0	2.030623E+0	1.724067E+0	1.906317E+0	1.949081E+0	2.001184E+0
5.349630E+2	2.282757E+0	2.161724E+0	2.292415E+0	2.208560E+0	2.141926E+0	2.121033E+0	2.231025E+0	2.107331E+0	2.066670E+0	2.140254E+0	2.166560E+0	2.113078E+0	1.980578E+0	2.173822E+0	2.129723E+0	2.185625E+0	1.805127E+0	2.072489E+0	1.994210E+0	2.187149E+0	2.262847E+0	2.173917E+0	2.118982E+0	2.095399E+0	2.047180E+0	1.906134E+0	2.072778E+0	2.065149E+0	1.962732E+0	2.205088E+0	2.301567E+0	2.136648E+0	1.622073E+0	1.825906E+0	1.767836E+0	1.941467E+0	1.963119E+0	2.076216E+0	2.099635E+0	1.726856E+0	2.182414E+0	2.307882E+0	2.083742E+0	1.939371E+0	2.071220E+0	2.217664E+0	2.143915E+0	2.059304E+0	2.231474E+0	2.152773E+0	2.081021E+0	1.968173E+0	2.200664E+0	2.335403E+0	2.098627E+0	1.759404E+0	1.680474E+0	2.200306E+0	2.076233E+0	1.832412E+0	1.970568E+0	2.149200E+0	2.101364E+0	1.949236E+0	2.018792E+0	2.072686E+0	2.159562E+0	1.835793E+0	2.139162E+0	2.184399E+0	2.251968E+0	1.728023E+0	1.718859E+0	2.083265E+0	2.132391E+0	2.040611E+0	2.072516E+0	2.094672E+0	2.114885E+0	2.309794E+0	2.149156E+0	2.031266E+0	2.100809E+0	1.738171E+0	2.027084E+0	2.064814E+0	2.197872E+0	1.728920E+0	1.639306E+0	2.117885E+0	2.090533E+0	1.920183E+0	1.886547E+0	2.057687E+0	2.075240E+0	2.180582E+0	2.069121E+0	1.950067E+0	2.051734E+0	1.891291E+0	2.178016E+0	2.151559E+0	2.124401E+0	2.037383E+0	2.198489E+0	2.156274E+0	2.217272E+0	2.164820E+0	1.984421E+0	2.082258E+0	2.247071E+0	2.052348E+0	2.075558E+0	2.256175E+0	1.706994E+0	1.871967E+0	2.126226E+0	2.188020E+0	2.134854E+0	1.802446E+0	2.144231E+0	1.680166E+0	2.216436E+0	1.844971E+0	1.991828E+0	2.087634E+0	2.057896E+0	2.107759E+0	1.905820E+0	1.967838E+0	2.151268E+0	2.024102E+0	2.049775E+0	2.051430E+0	2.085636E+0	1.760753E+0	1.950204E+0	2.009615E+0	2.133908E+0	1.901957E+0	2.011953E+0	2.070746E+0	2.141463E+0	2.128383E+0	2.037780E+0	2.024638E+0	2.081274E+0	1.870799E+0	2.028577E+0	2.171240E+0	2.161270E+0	1.850237E+0	1.941768E+0	1.890340E+0	1.632842E+0	1.905153E+0	1.983334E+0	2.173898E+0	2.118154E+0	2.051866E+0	1.954074E+0	1.734579E+0	2.155983E+0	1.951206E+0	2.000946E+0	2.001635E+0	2.095089E+0	1.863350E+0	2.091426E+0	2.086041E+0	2.184081E+0
5.351140E+2	2.043334E+0	1.967144E+0	2.036464E+0	2.029294E+0	1.929733E+0	1.947945E+0	2.004083E+0	1.942654E+0	1.911944E+0	1.940642E+0	1.932049E+0	1.896980E+0	1.712580E+0	2.018613E+0	1.880711E+0	1.937316E+0	1.592626E+0	1.847495E+0	1.800603E+0	1.991686E+0	2.064125E+0	1.886615E+0	1.956198E+0	2.038638E+0	1.855814E+0	1.785947E+0	1.928123E+0	1.962859E+0	1.755254E+0	2.066972E+0	2.109822E+0	1.892523E+0	1.487334E+0	1.572816E+0	1.660776E+0	1.834791E+0	1.772830E+0	1.913032E+0	1.873037E+0	1.875904E+0	1.881218E+0	1.995818E+0	1.856211E+0	1.880665E+0	1.860125E+0	1.984916E+0	2.008946E+0	1.893481E+0	1.989566E+0	1.925632E+0	2.015321E+0	1.857586E+0	1.944315E+0	2.133679E+0	1.987225E+0	1.834814E+0	1.487411E+0	1.957693E+0	1.871756E+0	1.866981E+0	1.754272E+0	1.970723E+0	1.885733E+0	1.874109E+0	1.747912E+0	1.885937E+0	1.885035E+0	1.769747E+0	1.882462E+0	1.977236E+0	1.952453E+0	1.635021E+0	1.527679E+0	1.905786E+0	1.841160E+0	1.856051E+0	1.800240E+0	1.879369E+0	1.940257E+0	2.084755E+0	1.928594E+0	1.915740E+0	1.903486E+0	1.505122E+0	1.881388E+0	1.891415E+0	1.983054E+0	1.517042E+0	1.506602E+0	1.833374E+0	1.879632E+0	1.761361E+0	1.785303E+0	1.892609E+0	1.867216E+0	1.972016E+0	1.881180E+0	1.826458E+0	1.819008E+0	1.611652E+0	1.905679E+0	1.827680E+0	1.897733E+0	1.824185E+0	1.963731E+0	1.928419E+0	2.013064E+0	1.933474E+0	1.859805E+0	1.909010E+0	1.995994E+0	1.881594E+0	1.888173E+0	1.971651E+0	1.590135E+0	1.724448E+0	1.915508E+0	2.037242E+0	1.917970E+0	1.614872E+0	1.908227E+0	1.560926E+0	1.943986E+0	1.725109E+0	1.740559E+0	1.824505E+0	1.981639E+0	2.000257E+0	1.848355E+0	1.833197E+0	1.925438E+0	1.802516E+0	1.873455E+0	1.860115E+0	1.895831E+0	1.604930E+0	1.753240E+0	1.839319E+0	1.988652E+0	1.736735E+0	1.858599E+0	1.872148E+0	1.900247E+0	1.861223E+0	1.862752E+0	1.816681E+0	1.913834E+0	1.627116E+0	1.863091E+0	1.891759E+0	1.906724E+0	1.629140E+0	1.753340E+0	1.735161E+0	1.508915E+0	1.742920E+0	1.802289E+0	1.981650E+0	1.769220E+0	1.887880E+0	1.742471E+0	1.539245E+0	1.930807E+0	1.740191E+0	1.825374E+0	1.854243E+0	1.984980E+0	1.644053E+0	1.919995E+0	1.884628E+0	2.079221E+0
5.352600E+2	1.919900E+0	1.816953E+0	1.951141E+0	1.892627E+0	1.840416E+0	1.858816E+0	1.892504E+0	1.891788E+0	1.773072E+0	1.862578E+0	1.865457E+0	1.779018E+0	1.674360E+0	1.857647E+0	1.830910E+0	1.834334E+0	1.578900E+0	1.759675E+0	1.712081E+0	1.902788E+0	1.953447E+0	1.821272E+0	1.851048E+0	1.914468E+0	1.746626E+0	1.657602E+0	1.805910E+0	1.844745E+0	1.673415E+0	1.930651E+0	1.976727E+0	1.810421E+0	1.628014E+0	1.501167E+0	1.540399E+0	1.700127E+0	1.805131E+0	1.782887E+0	1.823284E+0	1.738699E+0	1.805481E+0	1.934095E+0	1.788944E+0	1.778201E+0	1.791674E+0	1.913797E+0	1.890171E+0	1.789901E+0	1.905923E+0	1.847246E+0	1.838400E+0	1.732983E+0	1.860706E+0	2.041645E+0	1.848709E+0	1.872301E+0	1.403900E+0	1.913314E+0	1.767294E+0	1.819158E+0	1.708627E+0	1.861326E+0	1.883678E+0	1.822404E+0	1.677380E+0	1.876935E+0	1.767541E+0	1.653161E+0	1.861194E+0	1.907168E+0	1.870087E+0	1.788582E+0	1.450228E+0	1.790479E+0	1.787434E+0	1.988045E+0	1.719940E+0	1.778752E+0	1.839158E+0	2.043296E+0	1.824768E+0	1.706516E+0	1.780021E+0	1.569325E+0	1.735139E+0	1.763355E+0	1.866243E+0	1.663446E+0	1.409112E+0	1.785147E+0	1.842980E+0	1.778547E+0	1.655139E+0	1.810852E+0	1.748645E+0	1.952446E+0	1.776703E+0	1.792946E+0	1.734121E+0	1.595363E+0	1.842995E+0	1.787863E+0	1.801107E+0	1.733580E+0	1.876889E+0	1.904525E+0	1.912728E+0	1.885030E+0	1.711123E+0	1.842818E+0	1.897662E+0	1.795458E+0	1.759066E+0	1.962080E+0	1.560388E+0	1.589457E+0	1.794288E+0	1.886469E+0	1.819666E+0	1.467558E+0	1.840946E+0	1.490658E+0	1.852203E+0	1.671111E+0	1.723300E+0	1.781104E+0	1.848827E+0	1.817199E+0	1.752382E+0	1.744925E+0	1.826472E+0	1.736370E+0	1.770684E+0	1.799862E+0	1.796235E+0	1.537385E+0	1.708709E+0	1.727146E+0	1.896316E+0	1.704259E+0	1.786556E+0	1.759736E+0	1.785804E+0	1.783993E+0	1.828409E+0	1.798128E+0	1.763777E+0	1.651595E+0	1.753098E+0	1.828633E+0	1.751635E+0	1.559319E+0	1.758642E+0	1.617226E+0	1.452111E+0	1.687641E+0	1.719800E+0	1.955171E+0	1.781105E+0	1.871683E+0	1.634027E+0	1.510309E+0	1.813038E+0	1.727230E+0	1.769578E+0	1.752322E+0	1.838366E+0	1.521956E+0	1.763153E+0	1.796008E+0	1.867057E+0
5.354110E+2	1.530449E+0	1.463672E+0	1.493425E+0	1.575505E+0	1.488020E+0	1.456685E+0	1.589197E+0	1.483965E+0	1.393645E+0	1.483421E+0	1.484445E+0	1.402751E+0	1.327540E+0	1.478233E+0	1.477264E+0	1.478585E+0	1.309969E+0	1.415870E+0	1.439654E+0	1.501916E+0	1.532359E+0	1.430724E+0	1.518911E+0	1.557478E+0	1.372904E+0	1.304648E+0	1.487680E+0	1.453506E+0	1.311895E+0	1.531298E+0	1.614100E+0	1.422181E+0	1.437801E+0	1.230552E+0	1.208374E+0	1.400160E+0	1.456849E+0	1.446349E+0	1.423288E+0	1.374042E+0	1.449099E+0	1.540701E+0	1.465486E+0	1.440914E+0	1.491997E+0	1.517651E+0	1.525208E+0	1.429365E+0	1.521998E+0	1.424430E+0	1.525476E+0	1.331659E+0	1.512735E+0	1.655322E+0	1.485446E+0	1.463049E+0	1.213785E+0	1.509754E+0	1.423350E+0	1.450386E+0	1.374592E+0	1.503322E+0	1.399527E+0	1.415573E+0	1.327670E+0	1.480934E+0	1.486035E+0	1.417113E+0	1.470827E+0	1.555296E+0	1.542621E+0	1.401862E+0	1.212971E+0	1.413480E+0	1.517690E+0	1.572789E+0	1.397680E+0	1.446154E+0	1.532284E+0	1.634660E+0	1.491780E+0	1.399332E+0	1.381519E+0	1.259430E+0	1.418450E+0	1.466384E+0	1.510857E+0	1.409287E+0	1.110525E+0	1.431271E+0	1.429643E+0	1.441345E+0	1.344662E+0	1.448932E+0	1.410088E+0	1.572384E+0	1.458468E+0	1.356195E+0	1.376668E+0	1.332013E+0	1.499874E+0	1.508659E+0	1.490148E+0	1.482542E+0	1.443791E+0	1.498351E+0	1.470664E+0	1.493190E+0	1.370438E+0	1.472535E+0	1.499402E+0	1.413693E+0	1.389304E+0	1.557620E+0	1.220968E+0	1.361629E+0	1.476165E+0	1.561984E+0	1.458870E+0	1.401718E+0	1.509805E+0	1.143051E+0	1.517015E+0	1.412396E+0	1.408582E+0	1.402958E+0	1.434834E+0	1.491139E+0	1.383302E+0	1.415863E+0	1.433239E+0	1.412808E+0	1.394175E+0	1.416229E+0	1.464603E+0	1.281215E+0	1.338757E+0	1.327272E+0	1.492074E+0	1.282646E+0	1.442284E+0	1.427849E+0	1.456555E+0	1.460486E+0	1.434599E+0	1.376758E+0	1.461342E+0	1.291632E+0	1.420656E+0	1.398468E+0	1.496528E+0	1.238150E+0	1.343511E+0	1.297839E+0	1.223356E+0	1.361381E+0	1.388160E+0	1.566072E+0	1.464577E+0	1.425284E+0	1.364972E+0	1.223157E+0	1.487178E+0	1.322890E+0	1.417409E+0	1.404741E+0	1.466402E+0	1.245163E+0	1.502358E+0	1.313959E+0	1.442728E+0
5.355630E+2	1.382539E+0	1.291592E+0	1.393620E+0	1.341807E+0	1.306681E+0	1.284120E+0	1.420749E+0	1.301182E+0	1.287031E+0	1.317821E+0	1.291048E+0	1.290888E+0	1.221008E+0	1.343401E+0	1.342442E+0	1.345735E+0	1.104078E+0	1.280984E+0	1.230056E+0	1.398661E+0	1.438282E+0	1.287573E+0	1.318719E+0	1.400047E+0	1.249079E+0	1.193161E+0	1.274541E+0	1.359126E+0	1.152555E+0	1.334328E+0	1.457320E+0	1.347070E+0	1.287215E+0	1.153747E+0	1.098850E+0	1.248595E+0	1.243843E+0	1.324340E+0	1.275503E+0	1.278900E+0	1.375705E+0	1.378033E+0	1.289426E+0	1.300027E+0	1.320015E+0	1.406567E+0	1.388619E+0	1.294663E+0	1.398038E+0	1.312289E+0	1.352009E+0	1.243920E+0	1.351020E+0	1.470185E+0	1.323189E+0	1.337805E+0	1.044303E+0	1.376612E+0	1.233320E+0	1.317858E+0	1.263590E+0	1.301813E+0	1.371291E+0	1.273131E+0	1.285586E+0	1.327936E+0	1.288858E+0	1.254007E+0	1.311336E+0	1.319191E+0	1.432799E+0	1.321838E+0	1.068361E+0	1.298177E+0	1.289797E+0	1.403415E+0	1.264200E+0	1.335636E+0	1.388801E+0	1.464528E+0	1.309924E+0	1.265174E+0	1.313172E+0	1.171972E+0	1.305191E+0	1.334839E+0	1.323259E+0	1.331538E+0	1.023757E+0	1.341853E+0	1.339981E+0	1.347116E+0	1.171103E+0	1.260423E+0	1.299316E+0	1.368966E+0	1.310158E+0	1.222146E+0	1.262329E+0	1.227758E+0	1.346956E+0	1.305690E+0	1.293295E+0	1.329044E+0	1.405132E+0	1.335185E+0	1.398657E+0	1.383574E+0	1.228175E+0	1.288948E+0	1.341705E+0	1.314810E+0	1.277749E+0	1.396224E+0	1.090831E+0	1.239740E+0	1.350857E+0	1.435858E+0	1.351948E+0	1.343929E+0	1.322159E+0	1.099399E+0	1.347968E+0	1.335853E+0	1.254269E+0	1.278170E+0	1.370508E+0	1.310613E+0	1.257706E+0	1.290718E+0	1.315851E+0	1.314140E+0	1.283121E+0	1.333878E+0	1.338414E+0	1.315470E+0	1.311355E+0	1.188364E+0	1.381162E+0	1.335635E+0	1.318261E+0	1.285996E+0	1.336826E+0	1.352164E+0	1.325485E+0	1.258317E+0	1.304329E+0	1.236555E+0	1.281687E+0	1.368939E+0	1.367847E+0	1.332638E+0	1.229862E+0	1.208120E+0	1.046239E+0	1.322930E+0	1.273002E+0	1.405480E+0	1.273362E+0	1.320009E+0	1.224878E+0	1.056763E+0	1.326080E+0	1.258055E+0	1.304797E+0	1.309614E+0	1.369991E+0	1.235087E+0	1.324544E+0	1.410638E+0	1.374447E+0
5.357190E+2	1.080871E+0	1.104918E+0	1.131759E+0	1.095092E+0	1.002460E+0	1.047816E+0	1.087646E+0	1.051142E+0	1.009841E+0	1.102595E+0	1.055957E+0	1.024452E+0	9.773732E-1	1.017817E+0	1.080855E+0	1.001581E+0	9.103873E-1	9.945730E-1	9.730536E-1	1.092211E+0	1.128381E+0	1.046161E+0	1.054827E+0	1.087846E+0	9.400838E-1	9.283118E-1	1.075573E+0	1.067012E+0	9.113812E-1	1.134354E+0	1.135863E+0	1.021280E+0	1.014770E+0	8.795234E-1	9.118696E-1	1.050026E+0	9.808655E-1	1.113875E+0	1.018854E+0	9.857075E-1	1.069814E+0	1.142111E+0	1.053706E+0	9.846207E-1	1.031845E+0	1.083888E+0	1.058749E+0	1.046597E+0	1.111599E+0	1.061116E+0	1.088644E+0	1.047670E+0	1.046108E+0	1.136297E+0	1.061161E+0	1.089083E+0	8.581168E-1	1.029264E+0	1.061626E+0	1.081612E+0	1.034847E+0	1.037493E+0	1.050408E+0	1.005809E+0	9.927803E-1	1.099562E+0	1.080636E+0	1.002454E+0	1.036915E+0	1.089180E+0	1.115314E+0	1.063590E+0	8.742412E-1	9.963519E-1	1.067552E+0	1.151693E+0	9.839500E-1	1.076017E+0	1.077335E+0	1.167339E+0	1.067860E+0	1.009631E+0	1.051360E+0	9.434722E-1	1.033039E+0	1.051821E+0	1.046572E+0	1.031000E+0	9.558733E-1	1.092027E+0	1.059158E+0	1.117770E+0	9.965815E-1	1.035979E+0	1.026285E+0	1.132070E+0	1.083189E+0	9.716322E-1	1.056172E+0	9.231426E-1	1.103797E+0	1.045909E+0	1.050698E+0	1.078009E+0	1.146844E+0	1.089266E+0	1.095881E+0	1.123766E+0	9.875043E-1	1.086222E+0	1.092482E+0	1.025809E+0	1.034583E+0	1.156355E+0	8.762362E-1	1.009061E+0	1.036825E+0	1.123987E+0	1.100608E+0	1.061148E+0	1.032015E+0	8.678380E-1	1.113278E+0	1.036196E+0	9.750807E-1	1.076892E+0	1.037965E+0	1.023096E+0	1.038508E+0	1.042663E+0	1.046325E+0	1.071608E+0	1.025948E+0	1.077786E+0	1.043280E+0	1.103195E+0	9.962117E-1	9.890100E-1	1.103594E+0	1.078107E+0	1.036771E+0	1.042970E+0	1.146085E+0	1.070435E+0	1.033032E+0	1.034535E+0	1.063890E+0	1.033482E+0	1.045980E+0	1.089458E+0	1.075092E+0	1.101301E+0	9.801937E-1	1.001590E+0	8.474339E-1	1.058556E+0	1.013892E+0	1.138404E+0	1.071889E+0	1.067959E+0	9.728224E-1	9.682797E-1	1.103350E+0	1.067086E+0	1.073943E+0	1.010644E+0	1.096154E+0	1.154480E+0	1.008123E+0	1.097777E+0	1.128141E+0
5.358600E+2	9.696736E-1	9.133791E-1	9.664873E-1	9.767648E-1	9.061066E-1	9.524655E-1	9.739033E-1	9.394901E-1	8.950281E-1	9.849456E-1	9.436223E-1	9.242849E-1	8.875628E-1	9.341988E-1	9.163555E-1	9.766154E-1	7.588919E-1	9.050337E-1	9.330755E-1	9.917176E-1	9.915391E-1	9.528874E-1	9.532150E-1	1.000483E+0	8.719805E-1	8.625074E-1	9.309221E-1	9.309749E-1	8.459129E-1	9.710110E-1	1.012920E+0	9.225836E-1	9.181770E-1	7.965342E-1	8.146789E-1	8.303338E-1	9.657223E-1	8.907007E-1	9.356023E-1	9.113883E-1	9.247947E-1	1.000787E+0	9.414021E-1	9.248482E-1	9.777768E-1	9.857337E-1	9.696684E-1	9.372377E-1	9.629645E-1	9.518355E-1	9.768433E-1	8.986657E-1	9.554855E-1	1.066738E+0	9.589627E-1	9.625161E-1	7.333387E-1	9.783753E-1	9.260489E-1	9.294937E-1	8.356688E-1	9.568906E-1	9.169205E-1	9.004421E-1	8.831251E-1	9.420623E-1	1.007350E+0	9.128598E-1	9.478032E-1	9.546252E-1	9.291152E-1	9.506874E-1	7.811034E-1	9.748734E-1	9.714164E-1	1.047149E+0	8.972686E-1	9.467308E-1	9.302792E-1	1.035974E+0	9.658745E-1	9.015580E-1	9.157691E-1	8.196165E-1	8.807426E-1	9.481794E-1	9.787616E-1	9.027832E-1	9.523002E-1	9.495026E-1	9.632948E-1	9.903565E-1	8.856969E-1	9.375575E-1	9.295558E-1	1.024954E+0	9.564949E-1	8.831829E-1	8.869733E-1	8.525537E-1	9.730314E-1	9.327699E-1	9.638345E-1	1.004991E+0	1.003973E+0	1.006517E+0	1.014434E+0	1.009910E+0	9.094204E-1	9.574527E-1	9.613772E-1	9.361018E-1	9.042268E-1	9.841097E-1	8.172756E-1	8.917290E-1	9.918170E-1	1.013915E+0	9.663255E-1	9.422547E-1	9.069169E-1	7.869252E-1	9.482986E-1	9.620233E-1	9.207665E-1	9.092490E-1	9.855682E-1	9.429749E-1	9.022494E-1	8.985234E-1	9.699941E-1	9.266387E-1	9.421713E-1	9.125821E-1	9.509847E-1	9.632915E-1	8.734653E-1	9.099658E-1	9.876136E-1	9.413681E-1	9.667841E-1	9.091446E-1	9.735361E-1	9.368533E-1	9.316712E-1	9.281015E-1	8.918143E-1	9.177603E-1	9.291096E-1	9.672801E-1	9.587760E-1	9.430447E-1	8.435822E-1	8.830897E-1	7.555195E-1	9.281714E-1	8.882124E-1	1.025588E+0	9.762826E-1	9.439578E-1	8.936894E-1	7.924258E-1	9.391999E-1	9.769066E-1	8.937632E-1	9.223114E-1	9.706459E-1	1.003341E+0	9.050828E-1	9.675301E-1	9.428033E-1
5.360070E+2	8.084646E-1	7.206240E-1	7.915565E-1	7.531244E-1	7.258487E-1	7.285993E-1	7.507525E-1	7.282518E-1	7.047668E-1	7.122882E-1	7.959671E-1	7.442875E-1	6.907437E-1	7.533765E-1	7.201645E-1	7.314259E-1	6.216303E-1	7.202155E-1	7.103399E-1	7.802387E-1	7.862781E-1	7.119736E-1	7.146029E-1	7.694380E-1	6.946880E-1	6.308323E-1	7.290021E-1	7.675186E-1	6.658740E-1	8.076681E-1	8.206094E-1	7.278080E-1	7.408418E-1	6.022059E-1	6.030309E-1	6.888018E-1	7.113257E-1	7.061625E-1	7.277218E-1	7.223250E-1	7.187139E-1	7.844749E-1	6.986628E-1	7.183148E-1	7.471244E-1	7.512201E-1	7.801693E-1	7.131794E-1	7.673928E-1	7.286979E-1	7.647675E-1	7.558918E-1	7.401955E-1	8.377260E-1	7.269613E-1	7.336355E-1	6.006997E-1	7.819197E-1	7.660236E-1	7.295499E-1	7.085888E-1	7.831218E-1	7.341455E-1	6.921464E-1	6.987868E-1	7.530624E-1	7.293294E-1	7.273539E-1	7.457840E-1	7.921449E-1	8.182948E-1	7.568939E-1	5.776700E-1	7.244828E-1	7.208994E-1	8.304680E-1	7.138028E-1	7.241281E-1	7.336961E-1	8.216962E-1	7.600598E-1	7.125629E-1	7.333276E-1	6.330745E-1	7.108529E-1	7.593339E-1	7.688941E-1	7.036367E-1	7.338474E-1	7.229802E-1	7.236376E-1	7.941974E-1	6.619997E-1	7.271756E-1	7.646984E-1	8.086588E-1	7.565461E-1	6.826615E-1	7.252820E-1	6.668519E-1	7.644554E-1	7.424253E-1	7.582432E-1	7.598185E-1	7.809816E-1	7.734186E-1	7.877941E-1	7.549458E-1	7.035118E-1	7.371465E-1	7.993509E-1	7.306923E-1	7.281199E-1	7.914499E-1	6.536744E-1	6.923779E-1	7.504100E-1	7.622394E-1	7.844085E-1	7.523115E-1	7.303080E-1	5.968852E-1	7.920319E-1	7.715497E-1	7.161986E-1	7.546267E-1	7.251380E-1	8.035257E-1	6.919374E-1	7.616465E-1	7.573227E-1	7.794650E-1	7.225015E-1	7.518977E-1	7.663954E-1	7.606690E-1	7.096139E-1	6.832943E-1	8.097010E-1	7.681651E-1	7.382979E-1	7.576555E-1	7.681216E-1	7.755861E-1	7.167632E-1	7.065023E-1	7.429148E-1	7.263733E-1	6.919314E-1	7.524510E-1	7.626685E-1	7.377732E-1	6.822401E-1	6.878470E-1	6.104178E-1	7.659423E-1	7.210098E-1	7.924722E-1	6.775807E-1	7.516302E-1	6.715298E-1	6.343811E-1	7.481998E-1	7.576444E-1	7.314993E-1	7.561011E-1	7.994979E-1	7.769286E-1	7.774212E-1	7.365767E-1	8.208679E-1
5.362840E+2	6.265056E-1	6.239427E-1	6.574073E-1	6.608279E-1	6.024290E-1	5.959374E-1	6.364683E-1	6.045267E-1	6.085423E-1	6.080207E-1	6.066196E-1	5.912391E-1	6.491824E-1	5.866647E-1	6.447064E-1	6.052646E-1	5.397821E-1	6.318237E-1	5.635631E-1	6.421981E-1	6.589963E-1	5.733111E-1	6.478719E-1	6.572409E-1	6.181423E-1	5.612208E-1	6.144624E-1	5.608255E-1	5.609319E-1	6.034897E-1	6.553694E-1	6.243071E-1	6.140321E-1	5.104549E-1	4.994270E-1	5.974393E-1	6.088601E-1	6.029635E-1	5.927466E-1	5.912461E-1	5.989406E-1	6.333453E-1	6.290576E-1	5.768897E-1	5.751410E-1	6.277918E-1	6.500571E-1	6.207108E-1	6.301911E-1	6.068305E-1	6.189658E-1	5.861207E-1	6.085182E-1	6.905803E-1	6.204057E-1	6.101554E-1	4.985195E-1	6.552883E-1	6.043308E-1	6.189181E-1	5.643926E-1	6.475608E-1	6.165736E-1	5.594622E-1	5.885397E-1	5.955635E-1	6.141663E-1	5.780306E-1	6.440147E-1	6.261106E-1	6.086349E-1	6.180374E-1	4.624733E-1	6.159609E-1	6.151502E-1	6.587583E-1	5.664981E-1	6.120448E-1	6.162571E-1	6.833306E-1	6.525440E-1	5.986333E-1	6.109653E-1	5.082078E-1	6.206846E-1	6.337689E-1	6.402025E-1	5.908785E-1	5.674558E-1	6.032147E-1	6.148045E-1	6.306332E-1	5.655783E-1	6.183391E-1	6.383252E-1	6.423177E-1	6.088361E-1	6.222307E-1	6.092108E-1	5.506520E-1	6.612477E-1	6.103493E-1	6.086761E-1	6.414959E-1	6.319472E-1	6.224872E-1	6.378820E-1	6.532024E-1	5.826411E-1	6.207869E-1	6.367072E-1	6.236557E-1	5.908691E-1	6.211184E-1	5.171626E-1	6.086505E-1	6.230577E-1	6.418478E-1	6.389754E-1	6.211041E-1	6.215043E-1	5.117135E-1	6.253097E-1	6.048109E-1	5.694988E-1	5.880687E-1	6.338321E-1	6.209735E-1	5.716745E-1	6.152719E-1	6.741487E-1	6.317404E-1	6.056041E-1	6.107970E-1	6.256078E-1	6.236584E-1	6.165555E-1	6.007623E-1	6.734522E-1	6.388325E-1	6.286870E-1	6.008128E-1	6.395903E-1	6.084903E-1	6.286951E-1	6.011608E-1	6.131338E-1	6.162148E-1	6.222023E-1	6.389272E-1	6.401714E-1	6.451457E-1	5.574058E-1	5.625757E-1	4.864874E-1	6.710082E-1	5.344295E-1	6.433936E-1	6.343685E-1	6.458503E-1	5.959138E-1	5.202989E-1	6.414118E-1	6.356364E-1	5.789607E-1	6.149787E-1	6.414715E-1	6.370510E-1	6.643485E-1	6.130439E-1	6.184584E-1
5.365090E+2	4.663609E-1	4.828732E-1	5.146733E-1	5.283008E-1	4.622285E-1	4.814130E-1	4.550226E-1	4.790768E-1	5.084913E-1	4.875828E-1	4.913907E-1	4.849695E-1	5.030010E-1	4.831883E-1	4.580732E-1	4.536928E-1	4.772520E-1	4.791473E-1	4.807512E-1	5.025010E-1	5.226589E-1	4.526052E-1	4.694177E-1	5.162190E-1	5.038865E-1	4.296115E-1	4.650892E-1	4.996613E-1	5.522666E-1	5.158128E-1	5.087401E-1	4.574823E-1	5.199156E-1	3.893218E-1	3.825029E-1	4.432321E-1	4.735852E-1	5.053572E-1	4.503826E-1	4.638420E-1	4.979551E-1	4.972132E-1	4.395457E-1	4.546768E-1	5.032418E-1	5.031880E-1	5.032089E-1	4.646711E-1	5.194675E-1	4.677985E-1	5.140802E-1	4.708631E-1	5.153930E-1	5.257770E-1	4.775238E-1	4.412523E-1	3.909348E-1	4.967043E-1	4.459720E-1	4.933047E-1	4.871075E-1	4.748386E-1	4.738451E-1	4.536073E-1	4.794783E-1	4.813757E-1	4.646870E-1	4.654634E-1	4.814877E-1	5.057738E-1	4.913253E-1	5.098938E-1	3.997270E-1	4.882219E-1	4.726435E-1	5.150838E-1	4.564184E-1	4.665971E-1	4.732877E-1	5.595018E-1	4.792913E-1	4.607469E-1	5.172646E-1	4.172112E-1	4.348511E-1	4.504037E-1	5.144798E-1	4.494756E-1	5.046761E-1	4.932055E-1	4.777772E-1	4.907742E-1	4.575868E-1	4.938803E-1	4.677474E-1	5.063616E-1	4.947509E-1	4.354432E-1	4.659984E-1	4.371676E-1	5.007636E-1	4.753602E-1	4.904610E-1	5.007881E-1	4.997210E-1	5.018593E-1	5.198403E-1	5.248112E-1	4.441214E-1	5.008075E-1	4.882862E-1	4.768616E-1	4.862076E-1	5.318058E-1	3.923368E-1	4.611307E-1	4.573461E-1	5.306292E-1	4.986106E-1	5.026861E-1	4.927265E-1	3.972639E-1	5.236489E-1	5.353852E-1	4.502094E-1	4.887846E-1	4.491441E-1	5.078926E-1	4.567436E-1	5.013008E-1	4.825331E-1	5.011025E-1	4.672756E-1	4.802409E-1	5.124551E-1	4.991899E-1	4.806785E-1	4.909136E-1	5.113039E-1	4.901286E-1	4.876838E-1	4.894704E-1	4.758458E-1	4.734534E-1	4.558829E-1	4.679828E-1	4.804566E-1	4.209335E-1	4.793056E-1	5.157312E-1	4.974454E-1	5.148155E-1	4.137281E-1	4.322260E-1	3.873435E-1	5.250023E-1	4.834932E-1	5.622349E-1	5.036522E-1	5.107151E-1	4.540597E-1	4.084427E-1	4.711596E-1	5.041971E-1	4.581581E-1	4.743791E-1	5.256616E-1	4.971733E-1	4.947404E-1	5.257652E-1	4.794557E-1
5.367660E+2	5.190333E-1	4.980744E-1	5.313078E-1	5.294835E-1	5.087815E-1	5.093965E-1	5.330174E-1	4.691617E-1	4.729538E-1	4.953893E-1	4.966021E-1	4.976812E-1	5.158993E-1	4.847563E-1	5.154214E-1	4.906940E-1	4.294652E-1	4.929228E-1	4.579066E-1	5.201702E-1	5.015290E-1	4.660726E-1	4.861006E-1	5.082363E-1	5.095153E-1	4.252611E-1	4.704025E-1	5.339343E-1	4.993138E-1	5.242201E-1	5.093041E-1	4.714570E-1	5.407200E-1	4.027242E-1	4.121039E-1	4.611879E-1	4.821666E-1	4.651963E-1	4.577721E-1	4.495499E-1	5.290725E-1	5.174026E-1	4.804893E-1	4.658841E-1	5.233733E-1	4.773264E-1	4.902517E-1	4.713391E-1	4.959986E-1	5.015553E-1	5.088938E-1	5.113591E-1	5.474362E-1	5.691181E-1	5.012567E-1	5.012283E-1	4.189357E-1	5.073555E-1	4.715322E-1	4.904240E-1	5.291215E-1	5.093826E-1	4.892473E-1	4.438511E-1	5.132632E-1	5.280632E-1	4.722484E-1	4.798215E-1	5.047778E-1	5.103437E-1	4.948198E-1	4.770178E-1	3.962960E-1	4.961350E-1	4.941331E-1	5.437018E-1	5.181055E-1	5.270696E-1	5.029025E-1	5.444269E-1	5.444145E-1	4.628768E-1	4.919105E-1	4.182226E-1	4.909309E-1	4.723276E-1	5.016108E-1	4.767558E-1	5.235613E-1	5.018755E-1	5.014610E-1	4.966999E-1	5.217070E-1	5.157515E-1	4.906297E-1	5.377754E-1	5.487917E-1	4.898311E-1	5.006465E-1	4.203346E-1	5.094093E-1	5.122642E-1	4.889190E-1	5.301023E-1	5.327772E-1	5.030253E-1	5.210207E-1	5.641767E-1	4.959990E-1	5.235624E-1	5.185888E-1	4.977594E-1	4.862075E-1	5.324438E-1	4.311128E-1	4.856230E-1	5.130950E-1	5.524143E-1	4.894898E-1	4.894230E-1	4.964060E-1	4.467696E-1	5.201631E-1	4.991888E-1	4.405649E-1	5.316448E-1	5.238490E-1	5.139781E-1	4.697774E-1	4.694563E-1	4.714786E-1	5.027566E-1	4.755559E-1	5.038415E-1	5.249697E-1	5.271715E-1	4.589839E-1	4.641779E-1	5.321352E-1	4.724668E-1	4.743044E-1	4.996411E-1	5.321880E-1	4.865685E-1	4.924391E-1	4.854492E-1	5.314419E-1	4.587659E-1	4.856894E-1	5.030050E-1	5.002556E-1	5.022476E-1	4.455253E-1	5.287182E-1	3.909583E-1	5.388221E-1	4.951199E-1	5.599323E-1	4.852876E-1	5.086908E-1	4.745753E-1	5.125081E-1	5.077727E-1	4.935877E-1	4.653243E-1	4.963309E-1	5.153930E-1	4.989514E-1	4.910933E-1	5.150225E-1	5.014030E-1
5.370170E+2	5.232894E-1	4.962502E-1	5.629671E-1	5.460497E-1	4.930834E-1	5.192427E-1	5.552243E-1	4.911474E-1	5.057576E-1	5.009648E-1	4.873374E-1	4.915796E-1	5.077784E-1	5.255198E-1	4.817166E-1	5.058510E-1	4.696269E-1	4.900528E-1	5.075938E-1	5.074702E-1	5.432857E-1	5.129584E-1	4.901446E-1	5.525831E-1	5.331540E-1	4.698557E-1	5.040558E-1	5.228620E-1	5.436022E-1	5.416352E-1	5.425776E-1	4.797542E-1	5.367573E-1	4.331356E-1	4.318379E-1	5.192794E-1	4.902427E-1	5.251832E-1	5.356038E-1	4.907927E-1	4.938450E-1	5.295157E-1	5.144142E-1	4.989728E-1	5.371781E-1	5.214080E-1	5.323631E-1	4.993466E-1	5.772361E-1	5.170036E-1	4.910285E-1	5.035713E-1	4.993709E-1	5.632321E-1	5.061000E-1	4.774139E-1	4.046895E-1	5.558774E-1	4.832009E-1	4.938806E-1	5.379390E-1	5.324123E-1	5.082434E-1	4.760464E-1	4.901470E-1	5.078135E-1	4.931870E-1	4.396189E-1	5.113598E-1	5.357310E-1	5.312604E-1	4.912932E-1	4.232572E-1	5.147870E-1	4.958290E-1	5.612236E-1	5.345909E-1	4.989187E-1	4.947327E-1	5.589634E-1	5.554731E-1	5.017404E-1	5.211227E-1	4.525991E-1	4.788352E-1	5.101967E-1	5.362585E-1	4.867588E-1	5.312170E-1	5.246367E-1	5.206332E-1	5.287016E-1	5.477406E-1	5.126275E-1	5.265140E-1	5.290209E-1	5.349813E-1	5.085095E-1	4.850550E-1	4.659460E-1	5.445321E-1	4.976965E-1	5.238696E-1	5.231737E-1	5.602313E-1	5.275004E-1	5.115776E-1	4.975589E-1	5.270193E-1	5.168394E-1	5.365228E-1	4.967400E-1	5.563996E-1	5.713580E-1	4.311125E-1	5.084049E-1	5.151404E-1	5.197364E-1	5.097589E-1	4.884756E-1	5.678904E-1	3.882139E-1	5.619897E-1	4.980022E-1	5.872649E-1	5.218792E-1	4.973909E-1	5.525160E-1	5.621959E-1	4.906862E-1	5.109593E-1	5.507118E-1	5.179311E-1	5.068545E-1	5.150619E-1	5.305482E-1	5.137913E-1	4.845204E-1	5.467740E-1	5.089308E-1	5.607588E-1	5.087410E-1	5.204495E-1	5.195991E-1	4.941010E-1	5.329345E-1	5.146399E-1	4.799074E-1	4.960011E-1	5.248949E-1	5.176743E-1	5.297102E-1	4.785009E-1	4.610044E-1	4.219409E-1	5.201952E-1	5.205878E-1	5.576305E-1	5.160761E-1	5.350096E-1	5.085739E-1	5.481239E-1	4.760411E-1	4.947673E-1	4.950132E-1	4.968538E-1	5.091174E-1	5.262155E-1	4.983888E-1	5.029382E-1	5.331057E-1
5.372640E+2	5.802182E-1	5.473273E-1	5.774550E-1	6.247380E-1	5.591241E-1	5.264975E-1	5.546827E-1	5.467591E-1	5.549629E-1	5.450141E-1	5.377141E-1	4.961559E-1	5.569831E-1	5.312684E-1	5.576774E-1	5.709381E-1	4.919951E-1	5.371185E-1	5.121629E-1	5.643432E-1	5.498257E-1	5.693207E-1	5.487870E-1	5.720956E-1	5.686131E-1	4.752943E-1	5.312146E-1	5.328799E-1	6.129212E-1	5.248206E-1	5.916422E-1	5.229892E-1	5.704412E-1	4.568468E-1	4.708130E-1	5.060772E-1	5.407184E-1	5.561937E-1	5.400378E-1	5.144771E-1	5.584288E-1	5.791232E-1	5.220181E-1	5.336612E-1	5.900959E-1	5.596116E-1	5.685349E-1	5.313552E-1	5.718205E-1	5.284460E-1	5.745907E-1	5.321262E-1	5.699663E-1	6.408184E-1	5.463010E-1	5.598813E-1	4.503762E-1	5.570607E-1	5.337641E-1	5.860741E-1	6.074444E-1	5.810888E-1	5.231328E-1	5.214129E-1	5.589037E-1	5.151259E-1	5.292483E-1	5.039434E-1	5.361695E-1	5.484247E-1	5.696984E-1	5.864595E-1	4.546300E-1	5.628303E-1	5.376765E-1	5.816647E-1	5.840471E-1	5.343682E-1	5.657068E-1	6.133404E-1	5.714467E-1	5.118555E-1	5.200200E-1	4.551267E-1	5.580072E-1	5.485638E-1	5.590270E-1	5.199498E-1	5.628624E-1	5.744930E-1	5.369863E-1	5.215898E-1	6.147535E-1	5.662641E-1	5.363947E-1	5.944241E-1	5.824165E-1	5.326820E-1	5.093086E-1	4.854938E-1	5.715501E-1	5.530517E-1	5.485404E-1	5.791368E-1	5.742383E-1	5.805299E-1	5.599744E-1	5.859789E-1	6.045686E-1	5.313198E-1	6.094964E-1	5.558650E-1	5.620396E-1	5.662545E-1	4.470481E-1	5.351756E-1	5.591257E-1	5.776388E-1	5.543512E-1	5.808417E-1	5.789291E-1	4.302673E-1	6.073010E-1	5.632740E-1	5.832041E-1	5.354430E-1	5.596456E-1	5.662081E-1	5.870779E-1	5.063289E-1	5.499145E-1	6.041792E-1	5.344916E-1	5.630937E-1	5.531269E-1	5.455033E-1	5.691699E-1	5.292733E-1	5.563452E-1	5.716024E-1	5.931788E-1	5.504945E-1	5.703356E-1	5.560297E-1	6.070936E-1	5.280221E-1	5.748952E-1	5.188525E-1	5.534542E-1	5.870019E-1	5.474556E-1	6.027880E-1	6.080460E-1	4.942971E-1	4.591195E-1	5.700664E-1	6.567858E-1	5.691418E-1	5.484848E-1	5.754990E-1	5.548809E-1	5.898610E-1	5.718457E-1	5.324892E-1	5.589976E-1	5.574839E-1	5.849928E-1	5.748170E-1	5.996053E-1	5.888738E-1	5.452993E-1
5.375110E+2	6.866267E-1	6.646831E-1	7.309215E-1	7.022431E-1	6.847086E-1	6.674504E-1	7.025474E-1	6.562582E-1	7.222618E-1	6.648934E-1	6.737886E-1	6.547977E-1	6.840554E-1	6.718498E-1	6.693558E-1	6.864001E-1	6.389155E-1	6.565043E-1	6.155353E-1	7.255749E-1	7.379815E-1	6.436400E-1	6.908419E-1	6.967097E-1	7.205782E-1	6.340946E-1	6.522486E-1	6.857906E-1	7.106428E-1	6.485290E-1	7.083818E-1	6.701620E-1	6.937839E-1	5.692170E-1	5.591225E-1	6.317660E-1	6.966880E-1	6.756601E-1	6.725498E-1	6.480059E-1	6.617628E-1	7.037189E-1	6.577187E-1	6.339930E-1	7.005330E-1	7.077258E-1	7.180827E-1	6.589430E-1	7.445259E-1	6.623290E-1	7.140538E-1	6.453067E-1	6.836194E-1	7.585349E-1	6.775580E-1	6.494044E-1	5.697505E-1	6.635730E-1	6.626737E-1	6.915200E-1	7.640895E-1	6.978076E-1	6.509722E-1	6.662930E-1	6.934524E-1	6.771255E-1	6.775641E-1	6.337399E-1	6.784438E-1	7.002426E-1	7.004860E-1	6.820582E-1	5.350228E-1	6.826564E-1	6.779205E-1	7.008102E-1	7.036983E-1	6.558351E-1	6.933586E-1	7.597815E-1	7.317982E-1	6.284468E-1	6.611233E-1	6.088088E-1	6.943588E-1	6.352636E-1	7.134577E-1	6.759020E-1	7.292536E-1	6.552393E-1	6.847285E-1	6.981920E-1	7.516713E-1	7.021794E-1	6.710892E-1	7.169910E-1	7.331291E-1	6.634333E-1	6.588729E-1	6.250412E-1	7.158236E-1	6.734738E-1	7.042762E-1	7.075864E-1	7.417614E-1	6.790136E-1	7.340849E-1	6.986230E-1	7.452284E-1	6.988767E-1	7.436936E-1	6.455722E-1	6.880101E-1	7.142581E-1	5.878093E-1	6.616209E-1	6.828975E-1	7.324283E-1	6.526579E-1	6.954710E-1	7.597430E-1	5.628163E-1	7.153514E-1	7.050912E-1	7.720358E-1	6.830118E-1	6.888230E-1	6.879094E-1	7.298530E-1	6.471170E-1	6.904672E-1	7.171780E-1	6.586949E-1	6.931477E-1	6.834870E-1	7.119433E-1	7.130395E-1	6.466774E-1	6.779562E-1	7.128994E-1	7.485907E-1	6.848546E-1	7.006276E-1	6.866950E-1	6.935000E-1	6.721159E-1	6.693334E-1	6.913229E-1	6.840742E-1	7.157980E-1	6.845626E-1	7.093798E-1	6.981385E-1	6.404476E-1	5.536168E-1	7.136685E-1	7.636410E-1	7.159187E-1	6.365291E-1	7.187324E-1	6.920454E-1	7.445675E-1	6.902288E-1	6.745377E-1	6.900374E-1	6.562702E-1	6.882513E-1	7.200288E-1	7.172367E-1	6.600403E-1	6.477229E-1
5.377740E+2	8.403872E-1	8.367634E-1	8.296555E-1	8.655364E-1	8.254508E-1	8.488241E-1	8.374124E-1	8.028315E-1	7.971640E-1	7.881194E-1	8.318672E-1	8.485235E-1	8.483899E-1	8.411747E-1	8.378793E-1	8.277189E-1	7.212721E-1	7.483397E-1	7.737340E-1	8.227557E-1	8.421215E-1	8.162201E-1	8.303700E-1	8.634529E-1	8.494676E-1	7.314420E-1	7.904043E-1	8.176104E-1	8.747957E-1	7.950570E-1	8.961803E-1	7.867644E-1	8.924186E-1	7.001436E-1	6.992347E-1	7.600959E-1	8.122772E-1	8.205454E-1	7.646672E-1	8.154274E-1	8.196994E-1	8.381201E-1	8.080422E-1	7.380605E-1	8.673397E-1	8.869907E-1	8.795077E-1	8.176505E-1	8.408072E-1	8.334006E-1	8.235497E-1	8.031373E-1	8.002763E-1	9.013999E-1	8.340016E-1	8.187488E-1	6.866693E-1	8.357676E-1	8.193655E-1	8.211666E-1	8.475986E-1	7.914959E-1	8.234789E-1	7.482449E-1	8.386705E-1	8.183132E-1	8.479825E-1	7.738744E-1	8.146422E-1	8.754160E-1	8.617244E-1	7.776573E-1	6.913968E-1	8.397869E-1	8.102482E-1	8.392284E-1	8.440902E-1	8.028475E-1	8.337751E-1	8.879177E-1	8.626595E-1	7.796429E-1	8.226198E-1	7.215428E-1	8.175148E-1	8.146420E-1	8.767975E-1	7.654723E-1	8.323555E-1	8.281123E-1	8.228840E-1	7.918273E-1	9.098021E-1	8.052878E-1	8.042232E-1	8.580979E-1	8.466130E-1	8.238505E-1	7.772544E-1	7.417840E-1	8.406457E-1	7.885550E-1	8.199211E-1	8.397658E-1	8.935978E-1	8.392685E-1	8.639309E-1	8.476050E-1	8.933753E-1	8.193735E-1	8.976797E-1	7.786047E-1	8.346610E-1	8.858659E-1	6.765148E-1	7.755360E-1	8.373571E-1	8.671520E-1	8.158254E-1	8.067840E-1	8.743282E-1	6.458590E-1	8.344382E-1	8.184267E-1	9.131521E-1	8.403471E-1	8.034751E-1	8.567704E-1	8.483383E-1	7.834350E-1	8.104906E-1	8.445081E-1	7.945879E-1	8.392701E-1	8.237540E-1	8.065002E-1	8.306469E-1	7.943049E-1	8.581205E-1	8.536271E-1	8.911368E-1	8.052968E-1	8.238766E-1	8.581629E-1	8.292019E-1	8.063861E-1	7.655100E-1	7.363884E-1	7.606789E-1	8.552843E-1	8.497650E-1	8.480884E-1	9.007003E-1	7.950611E-1	6.770305E-1	8.849101E-1	9.347197E-1	8.546363E-1	8.331430E-1	8.533614E-1	8.245207E-1	8.174685E-1	8.311904E-1	7.835789E-1	7.867816E-1	8.078456E-1	8.514129E-1	8.628701E-1	8.658723E-1	7.983444E-1	8.574493E-1
5.380110E+2	9.164699E-1	9.139871E-1	9.085349E-1	8.939349E-1	8.790404E-1	8.907990E-1	9.170323E-1	8.631857E-1	8.403552E-1	8.717564E-1	8.845607E-1	8.637773E-1	8.698868E-1	8.902998E-1	8.746022E-1	8.513459E-1	7.924445E-1	8.057366E-1	8.091430E-1	9.193839E-1	9.588381E-1	8.740797E-1	8.910345E-1	9.140078E-1	9.125047E-1	7.716859E-1	8.742429E-1	9.051379E-1	9.301554E-1	9.127599E-1	9.559596E-1	8.086002E-1	9.057935E-1	6.826180E-1	7.219286E-1	8.055129E-1	8.496285E-1	8.693493E-1	8.252581E-1	8.076692E-1	8.889799E-1	9.269519E-1	8.308538E-1	8.624078E-1	9.231332E-1	9.545824E-1	9.021830E-1	8.514370E-1	8.895496E-1	8.293956E-1	8.558222E-1	8.197509E-1	8.738757E-1	9.415309E-1	9.221524E-1	9.148869E-1	7.186008E-1	8.984909E-1	8.354790E-1	8.545867E-1	9.248840E-1	8.663423E-1	9.010050E-1	7.789773E-1	9.080200E-1	8.588127E-1	8.578700E-1	8.290089E-1	8.597050E-1	8.906488E-1	9.211277E-1	7.971232E-1	7.154164E-1	8.590042E-1	8.724532E-1	9.139858E-1	8.908874E-1	8.534151E-1	8.490933E-1	9.589846E-1	9.154959E-1	8.419314E-1	8.573444E-1	7.756349E-1	8.631488E-1	8.415491E-1	8.767981E-1	8.095755E-1	9.145309E-1	8.758012E-1	8.612289E-1	8.676829E-1	9.266760E-1	8.344495E-1	8.661094E-1	8.941466E-1	9.162650E-1	7.892402E-1	8.222970E-1	7.531875E-1	9.119712E-1	8.570206E-1	8.610393E-1	8.573543E-1	9.081651E-1	8.899671E-1	8.562579E-1	8.948431E-1	9.495321E-1	8.364388E-1	9.496272E-1	8.484334E-1	9.374419E-1	9.426428E-1	7.051984E-1	7.966103E-1	9.601064E-1	8.958167E-1	9.156516E-1	8.470464E-1	9.358263E-1	7.315632E-1	8.687127E-1	8.658969E-1	9.913242E-1	8.962284E-1	8.755860E-1	8.877029E-1	8.761826E-1	8.152800E-1	8.678693E-1	9.078976E-1	8.720327E-1	8.638746E-1	9.108339E-1	8.701816E-1	8.734657E-1	8.408010E-1	8.997833E-1	8.564759E-1	9.945734E-1	8.550802E-1	8.596777E-1	8.542770E-1	9.266853E-1	8.860742E-1	8.147570E-1	8.576736E-1	8.539786E-1	8.669929E-1	8.565079E-1	8.890493E-1	8.877456E-1	7.928044E-1	7.152428E-1	9.131497E-1	9.651699E-1	9.398246E-1	9.103846E-1	8.720880E-1	8.813799E-1	9.109604E-1	8.452254E-1	8.790634E-1	8.267077E-1	9.024496E-1	8.485602E-1	9.002104E-1	9.597951E-1	8.560825E-1	1.067174E+0
5.382690E+2	1.129819E+0	1.090325E+0	1.161808E+0	1.092726E+0	1.087988E+0	1.104819E+0	1.114727E+0	1.059766E+0	1.116453E+0	1.163371E+0	1.054799E+0	1.056994E+0	1.148873E+0	1.224768E+0	1.073310E+0	1.103223E+0	9.973195E-1	1.164469E+0	1.051868E+0	1.152397E+0	1.180197E+0	1.033193E+0	1.112964E+0	1.085186E+0	1.188293E+0	9.903095E-1	1.076163E+0	1.068594E+0	1.144853E+0	1.210620E+0	1.175905E+0	1.077616E+0	1.143066E+0	8.960182E-1	9.246965E-1	1.050554E+0	9.990367E-1	1.070663E+0	1.074518E+0	1.054310E+0	1.106804E+0	1.225173E+0	1.075933E+0	1.017708E+0	1.119275E+0	1.153832E+0	1.128396E+0	1.060823E+0	1.141687E+0	1.065693E+0	1.088644E+0	1.014962E+0	1.063631E+0	1.212278E+0	1.068425E+0	1.060857E+0	9.195238E-1	1.191990E+0	1.067182E+0	1.086221E+0	1.098645E+0	1.172531E+0	1.056056E+0	1.019956E+0	1.113103E+0	1.107437E+0	1.039921E+0	9.634003E-1	1.134127E+0	1.051606E+0	1.143268E+0	1.061859E+0	8.894376E-1	1.037613E+0	1.040973E+0	1.169214E+0	1.086052E+0	1.079146E+0	1.074780E+0	1.233564E+0	1.110867E+0	1.035185E+0	1.107030E+0	9.035348E-1	1.049533E+0	1.047834E+0	1.119332E+0	1.057372E+0	1.104911E+0	1.112079E+0	1.055774E+0	1.076287E+0	1.182191E+0	1.088575E+0	1.051249E+0	1.130012E+0	1.182263E+0	9.782245E-1	1.049820E+0	9.432330E-1	1.086506E+0	1.121657E+0	1.045043E+0	1.115851E+0	1.104823E+0	1.089848E+0	1.133654E+0	1.145568E+0	1.188065E+0	1.056745E+0	1.138245E+0	1.041609E+0	1.084720E+0	1.141682E+0	8.624260E-1	1.005644E+0	1.114567E+0	1.152077E+0	1.055004E+0	1.016620E+0	1.092987E+0	8.284463E-1	1.138258E+0	1.086633E+0	1.185741E+0	1.040542E+0	1.098662E+0	1.113359E+0	1.146329E+0	9.828839E-1	1.068961E+0	1.120116E+0	1.020103E+0	1.077787E+0	1.076652E+0	1.068463E+0	1.117244E+0	9.942410E-1	1.114292E+0	1.106024E+0	1.233350E+0	1.034940E+0	1.086220E+0	1.123380E+0	1.147686E+0	1.044359E+0	1.037238E+0	1.005665E+0	1.025357E+0	1.079277E+0	1.109369E+0	1.130626E+0	1.073820E+0	9.863543E-1	8.717043E-1	1.116236E+0	1.209885E+0	1.151067E+0	1.061626E+0	1.090734E+0	1.085368E+0	1.070675E+0	1.027072E+0	1.105987E+0	1.013541E+0	1.059775E+0	1.103000E+0	1.144997E+0	1.111165E+0	1.034668E+0	1.150090E+0
5.385110E+2	1.389989E+0	1.323211E+0	1.442986E+0	1.437062E+0	1.274742E+0	1.332314E+0	1.390957E+0	1.316270E+0	1.352094E+0	1.404246E+0	1.362849E+0	1.320886E+0	1.381044E+0	1.491298E+0	1.367597E+0	1.282880E+0	1.177793E+0	1.323457E+0	1.271747E+0	1.326328E+0	1.408100E+0	1.323486E+0	1.324280E+0	1.416454E+0	1.377969E+0	1.241563E+0	1.304060E+0	1.331180E+0	1.404321E+0	1.494668E+0	1.408819E+0	1.287675E+0	1.386779E+0	1.089831E+0	1.117597E+0	1.260739E+0	1.287760E+0	1.301971E+0	1.315895E+0	1.257258E+0	1.376879E+0	1.398800E+0	1.286502E+0	1.247192E+0	1.319443E+0	1.465929E+0	1.405354E+0	1.269767E+0	1.432341E+0	1.388383E+0	1.300145E+0	1.239247E+0	1.313466E+0	1.506572E+0	1.332391E+0	1.265482E+0	1.098832E+0	1.568924E+0	1.281104E+0	1.325923E+0	1.396894E+0	1.525306E+0	1.304547E+0	1.250690E+0	1.330041E+0	1.442125E+0	1.322012E+0	1.240224E+0	1.334628E+0	1.391797E+0	1.383878E+0	1.299777E+0	1.071791E+0	1.497135E+0	1.298840E+0	1.388814E+0	1.362580E+0	1.519658E+0	1.297916E+0	1.469377E+0	1.364600E+0	1.380703E+0	1.278997E+0	1.158325E+0	1.260106E+0	1.355269E+0	1.329695E+0	1.273795E+0	1.366747E+0	1.394421E+0	1.324758E+0	1.333486E+0	1.444458E+0	1.467158E+0	1.296195E+0	1.409134E+0	1.438653E+0	1.307849E+0	1.244428E+0	1.203867E+0	1.347495E+0	1.338221E+0	1.323106E+0	1.348233E+0	1.452758E+0	1.325278E+0	1.363834E+0	1.355716E+0	1.411088E+0	1.314804E+0	1.402308E+0	1.321945E+0	1.392435E+0	1.391756E+0	1.079145E+0	1.268219E+0	1.375919E+0	1.373369E+0	1.308369E+0	1.293247E+0	1.405733E+0	1.218640E+0	1.347388E+0	1.296688E+0	1.478126E+0	1.290651E+0	1.287502E+0	1.378057E+0	1.319911E+0	1.197418E+0	1.282159E+0	1.340598E+0	1.294322E+0	1.306260E+0	1.324336E+0	1.345859E+0	1.414690E+0	1.238931E+0	1.358075E+0	1.370387E+0	1.454118E+0	1.322931E+0	1.355607E+0	1.343906E+0	1.295019E+0	1.329818E+0	1.347784E+0	1.280505E+0	1.302310E+0	1.315486E+0	1.347057E+0	1.390824E+0	1.294635E+0	1.166362E+0	1.049337E+0	1.386617E+0	1.473977E+0	1.433110E+0	1.272824E+0	1.363535E+0	1.323939E+0	1.390662E+0	1.330352E+0	1.288705E+0	1.303776E+0	1.278253E+0	1.387105E+0	1.330513E+0	1.371049E+0	1.268307E+0	1.432974E+0
5.387650E+2	1.573542E+0	1.483739E+0	1.571767E+0	1.544741E+0	1.525911E+0	1.447357E+0	1.538282E+0	1.431802E+0	1.531967E+0	1.549776E+0	1.531929E+0	1.472919E+0	1.560187E+0	1.718107E+0	1.476758E+0	1.419740E+0	1.334371E+0	1.534680E+0	1.400819E+0	1.524003E+0	1.559527E+0	1.437706E+0	1.480486E+0	1.530424E+0	1.565954E+0	1.314981E+0	1.491810E+0	1.514143E+0	1.614686E+0	1.611172E+0	1.586468E+0	1.463671E+0	1.593834E+0	1.213026E+0	1.248336E+0	1.384846E+0	1.440194E+0	1.434146E+0	1.438065E+0	1.385069E+0	1.481975E+0	1.604727E+0	1.392372E+0	1.428107E+0	1.552394E+0	1.621684E+0	1.494436E+0	1.463595E+0	1.538848E+0	1.566894E+0	1.493778E+0	1.403826E+0	1.455661E+0	1.659067E+0	1.488353E+0	1.491277E+0	1.215259E+0	1.683719E+0	1.411683E+0	1.442319E+0	1.562354E+0	1.710587E+0	1.418010E+0	1.419474E+0	1.557054E+0	1.597938E+0	1.422052E+0	1.333838E+0	1.495129E+0	1.505025E+0	1.489207E+0	1.473668E+0	1.150224E+0	1.655961E+0	1.433999E+0	1.585639E+0	1.513607E+0	1.688566E+0	1.458756E+0	1.638431E+0	1.541540E+0	1.600043E+0	1.457030E+0	1.228593E+0	1.439344E+0	1.483327E+0	1.470266E+0	1.466122E+0	1.532629E+0	1.596554E+0	1.421182E+0	1.450232E+0	1.611266E+0	1.725454E+0	1.441288E+0	1.575472E+0	1.537126E+0	1.538586E+0	1.372626E+0	1.274456E+0	1.575525E+0	1.486327E+0	1.503512E+0	1.492670E+0	1.634289E+0	1.541475E+0	1.449416E+0	1.513783E+0	1.614319E+0	1.613201E+0	1.591549E+0	1.464150E+0	1.522169E+0	1.632902E+0	1.200252E+0	1.373019E+0	1.463892E+0	1.538477E+0	1.438599E+0	1.435821E+0	1.556061E+0	1.610431E+0	1.497845E+0	1.510304E+0	1.638024E+0	1.499529E+0	1.510059E+0	1.484549E+0	1.523707E+0	1.415304E+0	1.510622E+0	1.493287E+0	1.485260E+0	1.483514E+0	1.438530E+0	1.499275E+0	1.496328E+0	1.427243E+0	1.519099E+0	1.492314E+0	1.549835E+0	1.482984E+0	1.494703E+0	1.480886E+0	1.530977E+0	1.403502E+0	1.444540E+0	1.421266E+0	1.414761E+0	1.495699E+0	1.494278E+0	1.476004E+0	1.478940E+0	1.307996E+0	1.194437E+0	1.474943E+0	1.605193E+0	1.603482E+0	1.439190E+0	1.493102E+0	1.480450E+0	1.532012E+0	1.485958E+0	1.491463E+0	1.429181E+0	1.451781E+0	1.497779E+0	1.485206E+0	1.578955E+0	1.499260E+0	1.562222E+0
5.390340E+2	1.889577E+0	1.800539E+0	1.833626E+0	1.799739E+0	1.760843E+0	1.738592E+0	1.796637E+0	1.667184E+0	1.812984E+0	1.821316E+0	1.784392E+0	1.733764E+0	1.850640E+0	2.010249E+0	1.782115E+0	1.734029E+0	1.531622E+0	1.753362E+0	1.653253E+0	1.764747E+0	1.854339E+0	1.739971E+0	1.767633E+0	1.826216E+0	1.894651E+0	1.664126E+0	1.700818E+0	1.722944E+0	1.830830E+0	1.922841E+0	1.848710E+0	1.747097E+0	1.831110E+0	1.442919E+0	1.458999E+0	1.645730E+0	1.715790E+0	1.720358E+0	1.727226E+0	1.605576E+0	1.805484E+0	1.868915E+0	1.704716E+0	1.701884E+0	1.787073E+0	2.008426E+0	1.821064E+0	1.709878E+0	1.855973E+0	1.807196E+0	1.764635E+0	1.690935E+0	1.806630E+0	1.972086E+0	1.726647E+0	1.732502E+0	1.458429E+0	1.960063E+0	1.672277E+0	1.696998E+0	1.894321E+0	2.079590E+0	1.733762E+0	1.684843E+0	1.774587E+0	1.827998E+0	1.752418E+0	1.650862E+0	1.768542E+0	1.856900E+0	1.761265E+0	1.741432E+0	1.443855E+0	1.908612E+0	1.668681E+0	1.876495E+0	1.786949E+0	1.973202E+0	1.678826E+0	1.932387E+0	1.757186E+0	1.834819E+0	1.736478E+0	1.488943E+0	1.696104E+0	1.743923E+0	1.800411E+0	1.651173E+0	1.749042E+0	1.885403E+0	1.777565E+0	1.734694E+0	1.938618E+0	1.954578E+0	1.694557E+0	1.809795E+0	1.861369E+0	1.843489E+0	1.663669E+0	1.561694E+0	1.740331E+0	1.726195E+0	1.681349E+0	1.795403E+0	1.853360E+0	1.878883E+0	1.735073E+0	1.792365E+0	1.881198E+0	2.011407E+0	1.702243E+0	1.704223E+0	1.856833E+0	1.959527E+0	1.457872E+0	1.677742E+0	1.748769E+0	1.799903E+0	1.719836E+0	1.723816E+0	1.850407E+0	1.885109E+0	1.812118E+0	1.780884E+0	1.887768E+0	1.995946E+0	1.692151E+0	1.748235E+0	1.773121E+0	1.829285E+0	1.725399E+0	1.798659E+0	1.710284E+0	1.778270E+0	1.752957E+0	1.785358E+0	1.724125E+0	1.885816E+0	1.766825E+0	1.700270E+0	1.847793E+0	1.958329E+0	1.736509E+0	1.759218E+0	1.845580E+0	1.756644E+0	1.738864E+0	1.624333E+0	1.673054E+0	1.725292E+0	1.717359E+0	1.798102E+0	1.758642E+0	1.621740E+0	1.393244E+0	1.814422E+0	1.896415E+0	1.857325E+0	1.697922E+0	1.738573E+0	1.659231E+0	1.769078E+0	1.716010E+0	1.704831E+0	1.678978E+0	1.692213E+0	1.727120E+0	1.695615E+0	1.795069E+0	1.740954E+0	1.647577E+0
5.392930E+2	1.989067E+0	1.956809E+0	2.014459E+0	1.962438E+0	1.901581E+0	1.909598E+0	1.957500E+0	1.874974E+0	1.949665E+0	2.037098E+0	1.883407E+0	1.928000E+0	1.971503E+0	2.263191E+0	1.887755E+0	1.904771E+0	1.724802E+0	1.955977E+0	1.780611E+0	1.990581E+0	2.079220E+0	1.882624E+0	1.939514E+0	1.975665E+0	2.006657E+0	1.740265E+0	1.931074E+0	1.908022E+0	2.018087E+0	2.084984E+0	2.050605E+0	1.875930E+0	2.071850E+0	1.572814E+0	1.595161E+0	1.830036E+0	1.883874E+0	1.851007E+0	1.848899E+0	1.809750E+0	1.909405E+0	2.051198E+0	1.795377E+0	1.811824E+0	1.991843E+0	2.167706E+0	1.993288E+0	1.881033E+0	2.022660E+0	1.871276E+0	1.951353E+0	1.775559E+0	1.953328E+0	2.074285E+0	1.925232E+0	1.898759E+0	1.609247E+0	2.249418E+0	1.829525E+0	1.815702E+0	2.021921E+0	2.253878E+0	1.887272E+0	1.767769E+0	1.927508E+0	2.046248E+0	1.919930E+0	1.769173E+0	1.955878E+0	1.972669E+0	1.951958E+0	1.802857E+0	1.541896E+0	2.040872E+0	1.869432E+0	1.989209E+0	1.940104E+0	2.156707E+0	1.923407E+0	2.119211E+0	1.934743E+0	2.002521E+0	1.814750E+0	1.626448E+0	1.859945E+0	1.859523E+0	1.919204E+0	1.829404E+0	1.962390E+0	2.076153E+0	1.889786E+0	1.857367E+0	2.018648E+0	2.129029E+0	1.835491E+0	1.992617E+0	1.960443E+0	1.944026E+0	1.827671E+0	1.656177E+0	1.961874E+0	1.936451E+0	1.908529E+0	1.923854E+0	2.110527E+0	1.997764E+0	1.892072E+0	2.046119E+0	2.011694E+0	2.198617E+0	1.900755E+0	1.766915E+0	2.006618E+0	2.081377E+0	1.532769E+0	1.812727E+0	1.919598E+0	2.030366E+0	1.910873E+0	1.852654E+0	2.008094E+0	2.114545E+0	1.898095E+0	1.891849E+0	2.048681E+0	2.247139E+0	1.852977E+0	1.958171E+0	1.878572E+0	1.912529E+0	1.837528E+0	1.881340E+0	1.830107E+0	1.894765E+0	1.867154E+0	1.856756E+0	1.963908E+0	2.040419E+0	1.931789E+0	1.905948E+0	2.012984E+0	2.127487E+0	1.906709E+0	1.854424E+0	1.893217E+0	1.910017E+0	1.892398E+0	1.741725E+0	1.830681E+0	1.917722E+0	1.870760E+0	1.879095E+0	1.859924E+0	1.804004E+0	1.497033E+0	1.933388E+0	1.980568E+0	2.113460E+0	1.811891E+0	1.917741E+0	1.831567E+0	1.852558E+0	1.888096E+0	1.856308E+0	1.839195E+0	1.808772E+0	1.909678E+0	1.850906E+0	1.905405E+0	2.161236E+0	1.857302E+0
5.395160E+2	2.079513E+0	1.892351E+0	2.052020E+0	2.083724E+0	2.013098E+0	1.937066E+0	2.070702E+0	1.955157E+0	1.965519E+0	2.047697E+0	1.919306E+0	1.899016E+0	2.075168E+0	2.260054E+0	1.968242E+0	1.950241E+0	1.745648E+0	1.994430E+0	1.853714E+0	1.993893E+0	2.119971E+0	1.972405E+0	2.027476E+0	2.053711E+0	2.127103E+0	1.740808E+0	1.905688E+0	1.969713E+0	2.100888E+0	2.153443E+0	2.024663E+0	1.881607E+0	2.092154E+0	1.629518E+0	1.689885E+0	1.866477E+0	1.915674E+0	1.960818E+0	1.949884E+0	1.797498E+0	1.980444E+0	2.070231E+0	1.835733E+0	1.879602E+0	2.011399E+0	2.159482E+0	2.060235E+0	1.888592E+0	2.023863E+0	1.987422E+0	1.987086E+0	1.842532E+0	1.996889E+0	2.182371E+0	1.937338E+0	1.984757E+0	1.572401E+0	2.289655E+0	1.906758E+0	1.883691E+0	2.060305E+0	2.283191E+0	1.887270E+0	1.836062E+0	2.008119E+0	2.086186E+0	1.982165E+0	1.816269E+0	1.890055E+0	2.023439E+0	2.003873E+0	1.874667E+0	1.566403E+0	2.131870E+0	1.877915E+0	2.074484E+0	2.007105E+0	2.191637E+0	1.970382E+0	2.168199E+0	1.966072E+0	2.003584E+0	1.931048E+0	1.676498E+0	1.872588E+0	1.919815E+0	1.958801E+0	1.815765E+0	1.990972E+0	2.059355E+0	1.881324E+0	1.996636E+0	2.099640E+0	2.163398E+0	1.881257E+0	2.017848E+0	2.098546E+0	1.955560E+0	1.825941E+0	1.789752E+0	1.992137E+0	1.896147E+0	1.922918E+0	1.954768E+0	2.074106E+0	2.085757E+0	2.067359E+0	1.984953E+0	2.064109E+0	2.258087E+0	2.044849E+0	1.843882E+0	1.970272E+0	2.138791E+0	1.612441E+0	1.784822E+0	1.944147E+0	2.068200E+0	1.910368E+0	1.866394E+0	2.075901E+0	2.195454E+0	1.935856E+0	1.881759E+0	2.065432E+0	2.220010E+0	1.875288E+0	1.903407E+0	1.944921E+0	1.923144E+0	1.886482E+0	1.987171E+0	1.896346E+0	1.928912E+0	1.872889E+0	1.956136E+0	2.015287E+0	2.084592E+0	1.960503E+0	1.852392E+0	2.046431E+0	2.092157E+0	1.924313E+0	1.871423E+0	1.948050E+0	2.013721E+0	1.843148E+0	1.890274E+0	1.888133E+0	1.939101E+0	1.896045E+0	1.969862E+0	1.941181E+0	1.827139E+0	1.525436E+0	1.874507E+0	2.047559E+0	2.120369E+0	1.857806E+0	1.981010E+0	1.871425E+0	1.936585E+0	1.916776E+0	1.884597E+0	1.823837E+0	1.902852E+0	2.019214E+0	1.890023E+0	1.985650E+0	2.052473E+0	1.879248E+0
5.397750E+2	2.103459E+0	1.972009E+0	2.174366E+0	2.106797E+0	1.988197E+0	1.966602E+0	2.093450E+0	1.972403E+0	2.024022E+0	2.145271E+0	1.994583E+0	1.943250E+0	2.084720E+0	2.246990E+0	1.992389E+0	2.016220E+0	1.775132E+0	2.074213E+0	1.966797E+0	2.081134E+0	2.156191E+0	2.007318E+0	2.056294E+0	2.083429E+0	2.113032E+0	1.865349E+0	1.965911E+0	2.025075E+0	2.069600E+0	2.172065E+0	2.211331E+0	1.976811E+0	2.075810E+0	1.673844E+0	1.755994E+0	1.887073E+0	1.970185E+0	2.013687E+0	1.992740E+0	1.859159E+0	1.984554E+0	2.156758E+0	1.946290E+0	1.906285E+0	2.075249E+0	2.232947E+0	2.084526E+0	1.915710E+0	2.102096E+0	1.973688E+0	1.966912E+0	1.852920E+0	2.065980E+0	2.231062E+0	2.035662E+0	1.985195E+0	1.648053E+0	2.264807E+0	1.917872E+0	1.953414E+0	2.112687E+0	2.328723E+0	1.931939E+0	1.851674E+0	1.954776E+0	2.078873E+0	1.925745E+0	1.892650E+0	1.986763E+0	2.061015E+0	1.995886E+0	1.967669E+0	1.593859E+0	2.147133E+0	1.962745E+0	2.131719E+0	1.994873E+0	2.275571E+0	2.006125E+0	2.185968E+0	2.074203E+0	2.113254E+0	1.952546E+0	1.702279E+0	1.843451E+0	1.923798E+0	1.996419E+0	1.913517E+0	2.063960E+0	2.176956E+0	1.908955E+0	1.966407E+0	2.093370E+0	2.217036E+0	1.902581E+0	2.063684E+0	2.101549E+0	1.999511E+0	1.850192E+0	1.729482E+0	2.078595E+0	2.043763E+0	1.937826E+0	2.063498E+0	2.107722E+0	2.081680E+0	2.063227E+0	1.971021E+0	2.121335E+0	2.215680E+0	2.066492E+0	1.847957E+0	2.094358E+0	2.245329E+0	1.648562E+0	1.887346E+0	1.981993E+0	2.073361E+0	1.959521E+0	1.893866E+0	2.058029E+0	2.156068E+0	2.011952E+0	1.936942E+0	2.146648E+0	2.340454E+0	1.913158E+0	1.986056E+0	2.066368E+0	2.038234E+0	1.930702E+0	1.990478E+0	1.903655E+0	1.961049E+0	1.927641E+0	1.955176E+0	2.099214E+0	2.087496E+0	2.025246E+0	1.964634E+0	2.100468E+0	2.251680E+0	1.951314E+0	1.983148E+0	2.077663E+0	2.052472E+0	1.920208E+0	1.878588E+0	1.884207E+0	1.995610E+0	2.003372E+0	1.969395E+0	1.919396E+0	1.853662E+0	1.565712E+0	2.023520E+0	2.096281E+0	2.207857E+0	1.850243E+0	1.921286E+0	1.915388E+0	2.008930E+0	1.947895E+0	1.921144E+0	1.851989E+0	1.907554E+0	2.067132E+0	1.938029E+0	2.113312E+0	2.039045E+0	1.998743E+0
5.400240E+2	2.086964E+0	1.970796E+0	2.111585E+0	2.110939E+0	1.954629E+0	1.934993E+0	2.052287E+0	1.918515E+0	1.928891E+0	2.107359E+0	2.048437E+0	1.992063E+0	2.059879E+0	2.287231E+0	2.122178E+0	1.995272E+0	1.815803E+0	1.958273E+0	1.907400E+0	2.013772E+0	2.048530E+0	1.953949E+0	2.028996E+0	2.050165E+0	2.062938E+0	1.834889E+0	1.966501E+0	1.994493E+0	2.052269E+0	2.175064E+0	2.058500E+0	1.898202E+0	2.000518E+0	2.084153E+0	1.625747E+0	1.778285E+0	1.927282E+0	1.948619E+0	1.964170E+0	1.886925E+0	1.905296E+0	2.176364E+0	1.866151E+0	1.873195E+0	2.088476E+0	2.228835E+0	2.033779E+0	1.886370E+0	2.068396E+0	2.046927E+0	2.042985E+0	1.818650E+0	1.994887E+0	2.147057E+0	1.971242E+0	1.889499E+0	1.586157E+0	2.212138E+0	1.921205E+0	1.929788E+0	2.086237E+0	2.224046E+0	1.922186E+0	1.889235E+0	2.000416E+0	2.038933E+0	1.922841E+0	1.824882E+0	1.988279E+0	2.050858E+0	2.040814E+0	1.883753E+0	1.570816E+0	2.134133E+0	1.971788E+0	2.042943E+0	2.028378E+0	2.278696E+0	1.953534E+0	2.160129E+0	1.994337E+0	2.050968E+0	1.889710E+0	1.698233E+0	1.802214E+0	1.932272E+0	1.931083E+0	1.898060E+0	1.993012E+0	2.095667E+0	1.893731E+0	1.949222E+0	2.058179E+0	2.188912E+0	1.857335E+0	1.985919E+0	2.051712E+0	1.963251E+0	1.827096E+0	1.724051E+0	2.056438E+0	1.892750E+0	1.868438E+0	1.945174E+0	2.076910E+0	2.095084E+0	2.008934E+0	1.980714E+0	2.079620E+0	2.190339E+0	1.987335E+0	1.858661E+0	2.086213E+0	2.228103E+0	1.607666E+0	1.804189E+0	1.968697E+0	2.096292E+0	1.956482E+0	1.882496E+0	2.051720E+0	2.173632E+0	1.956189E+0	1.958307E+0	2.083707E+0	2.232488E+0	1.935464E+0	1.867906E+0	1.928925E+0	1.996333E+0	1.934912E+0	1.987172E+0	1.855430E+0	1.945986E+0	1.910429E+0	1.989907E+0	1.933650E+0	2.167701E+0	1.960504E+0	1.980585E+0	2.071648E+0	2.141939E+0	1.990050E+0	1.913198E+0	1.976856E+0	2.024636E+0	1.841416E+0	1.855774E+0	1.839523E+0	1.870888E+0	1.946057E+0	1.924244E+0	1.949429E+0	1.860998E+0	1.532664E+0	1.936996E+0	2.065829E+0	2.135334E+0	1.842139E+0	1.898002E+0	1.900146E+0	1.976656E+0	1.925928E+0	1.922912E+0	1.880145E+0	1.854241E+0	1.983273E+0	1.919065E+0	2.023034E+0	2.073957E+0	1.945095E+0
5.402900E+2	1.898090E+0	1.801145E+0	1.849187E+0	1.872506E+0	1.823635E+0	1.782639E+0	1.878965E+0	1.776682E+0	1.784007E+0	1.885997E+0	2.009061E+0	1.704274E+0	1.941884E+0	2.045785E+0	2.041689E+0	1.792874E+0	1.584490E+0	1.819370E+0	1.863427E+0	1.833765E+0	1.913202E+0	1.824267E+0	1.839419E+0	1.872780E+0	1.909288E+0	1.671196E+0	1.785837E+0	1.845801E+0	1.888595E+0	2.005715E+0	2.042708E+0	1.747097E+0	1.857360E+0	1.874873E+0	1.541879E+0	1.649953E+0	1.723361E+0	1.811864E+0	1.744961E+0	1.702763E+0	1.771428E+0	1.891410E+0	1.840419E+0	1.748848E+0	1.854374E+0	1.992558E+0	1.994905E+0	1.765449E+0	1.874029E+0	1.791176E+0	1.876435E+0	1.758945E+0	1.836172E+0	1.900386E+0	1.745056E+0	1.748377E+0	1.476113E+0	2.027518E+0	1.774519E+0	1.813393E+0	1.926480E+0	2.110993E+0	1.858008E+0	1.670207E+0	1.821414E+0	1.892687E+0	1.769873E+0	1.693364E+0	1.808033E+0	1.805109E+0	1.803699E+0	1.702069E+0	1.403661E+0	1.895047E+0	1.788567E+0	1.911533E+0	1.871501E+0	2.027944E+0	1.833541E+0	1.933466E+0	1.786677E+0	1.827896E+0	1.793250E+0	1.481361E+0	1.657616E+0	1.799232E+0	1.802392E+0	1.689820E+0	1.739343E+0	1.913040E+0	1.705387E+0	1.802251E+0	1.935722E+0	1.998842E+0	1.698716E+0	1.792284E+0	1.876982E+0	1.780859E+0	1.643458E+0	1.572557E+0	1.831111E+0	1.792236E+0	1.741483E+0	1.761296E+0	1.884173E+0	1.905689E+0	1.826559E+0	1.803873E+0	1.909010E+0	2.086915E+0	1.830255E+0	1.720532E+0	1.829258E+0	2.022047E+0	1.455214E+0	1.607114E+0	1.856174E+0	1.859523E+0	1.829293E+0	1.769764E+0	1.826754E+0	1.976669E+0	1.833035E+0	1.746469E+0	1.927363E+0	2.098485E+0	1.706161E+0	1.759895E+0	1.821695E+0	1.755538E+0	1.733824E+0	1.828423E+0	1.700540E+0	1.827479E+0	1.773816E+0	1.710580E+0	1.785215E+0	1.867799E+0	1.782589E+0	1.725911E+0	1.890506E+0	1.997943E+0	1.747068E+0	1.766502E+0	1.814013E+0	1.830328E+0	1.750450E+0	1.660495E+0	1.713322E+0	1.817946E+0	1.817379E+0	1.776692E+0	1.733323E+0	1.696790E+0	1.405637E+0	1.777771E+0	1.917453E+0	1.964380E+0	1.692520E+0	1.725919E+0	1.737775E+0	1.808031E+0	1.772763E+0	1.733710E+0	1.669764E+0	1.758594E+0	1.901690E+0	1.795190E+0	1.819689E+0	1.851060E+0	1.920708E+0
5.405080E+2	1.857655E+0	1.740341E+0	1.846506E+0	1.826951E+0	1.714286E+0	1.719936E+0	1.843217E+0	1.716760E+0	1.777994E+0	1.795670E+0	1.913517E+0	1.742405E+0	1.845383E+0	1.948061E+0	1.976794E+0	1.735814E+0	1.608893E+0	1.854956E+0	1.698373E+0	1.786831E+0	1.829181E+0	1.773890E+0	1.795941E+0	1.797834E+0	1.835553E+0	1.560799E+0	1.761632E+0	1.741927E+0	1.860676E+0	1.946263E+0	1.980676E+0	1.694696E+0	1.807828E+0	1.907349E+0	1.535468E+0	1.604536E+0	1.696609E+0	1.744762E+0	1.711461E+0	1.586383E+0	1.806071E+0	1.891413E+0	1.757941E+0	1.585545E+0	1.788224E+0	1.954939E+0	1.992748E+0	1.650309E+0	1.808436E+0	1.772865E+0	1.804976E+0	1.632267E+0	1.713505E+0	1.908947E+0	1.721320E+0	1.751025E+0	1.447623E+0	1.992014E+0	1.828970E+0	1.663004E+0	1.781765E+0	1.973334E+0	1.983792E+0	1.618986E+0	1.789405E+0	1.783564E+0	1.906554E+0	1.598023E+0	1.757400E+0	1.791401E+0	1.753777E+0	1.654920E+0	1.449735E+0	1.861702E+0	1.847376E+0	1.829184E+0	1.764082E+0	2.025859E+0	2.007653E+0	1.960923E+0	1.732608E+0	1.783713E+0	1.836244E+0	1.465185E+0	1.692804E+0	1.665695E+0	1.806351E+0	1.649809E+0	1.758231E+0	1.820368E+0	1.836211E+0	1.681948E+0	1.862927E+0	1.989469E+0	1.808449E+0	1.795891E+0	1.778508E+0	1.789099E+0	1.766460E+0	1.555182E+0	1.754920E+0	1.716001E+0	1.731204E+0	1.801801E+0	1.917787E+0	1.843337E+0	1.759864E+0	1.839604E+0	1.918637E+0	2.009858E+0	1.725745E+0	1.652230E+0	1.781627E+0	1.926993E+0	1.454154E+0	1.633885E+0	1.712456E+0	1.814235E+0	1.725918E+0	1.638554E+0	1.847254E+0	1.924503E+0	1.750544E+0	1.741127E+0	1.847665E+0	1.910765E+0	1.717056E+0	1.722878E+0	1.744089E+0	1.741571E+0	1.731192E+0	1.712113E+0	1.693235E+0	1.643194E+0	1.631983E+0	1.687909E+0	1.717273E+0	1.834668E+0	1.782588E+0	1.708246E+0	1.816404E+0	1.948698E+0	1.693662E+0	1.714529E+0	1.806257E+0	1.781747E+0	1.685562E+0	1.615987E+0	1.652919E+0	1.679474E+0	1.683640E+0	1.745044E+0	1.735676E+0	1.642618E+0	1.608057E+0	1.703866E+0	1.782914E+0	1.902793E+0	1.706023E+0	1.658102E+0	1.685609E+0	1.782988E+0	1.678788E+0	1.649424E+0	1.641612E+0	1.629492E+0	1.695173E+0	1.700951E+0	1.795981E+0	1.789292E+0	1.879249E+0
5.407680E+2	1.735284E+0	1.689870E+0	1.712356E+0	1.690872E+0	1.652579E+0	1.639097E+0	1.750597E+0	1.622779E+0	1.699813E+0	1.733220E+0	1.812762E+0	1.601562E+0	1.758918E+0	1.884298E+0	1.902846E+0	1.634615E+0	1.539247E+0	1.674727E+0	1.700084E+0	1.726647E+0	1.768307E+0	1.683608E+0	1.675122E+0	1.708257E+0	1.719044E+0	1.458011E+0	1.717934E+0	1.625928E+0	1.772580E+0	1.806341E+0	1.900593E+0	1.652333E+0	1.709252E+0	1.724359E+0	1.442718E+0	1.580242E+0	1.656228E+0	1.625800E+0	1.690280E+0	1.556575E+0	1.722110E+0	1.730476E+0	1.657336E+0	1.596216E+0	1.708845E+0	1.852083E+0	1.885311E+0	1.572067E+0	1.735625E+0	1.675029E+0	1.695480E+0	1.551274E+0	1.709502E+0	1.873096E+0	1.651091E+0	1.633719E+0	1.370497E+0	1.858281E+0	1.783963E+0	1.627858E+0	1.726267E+0	1.924132E+0	1.791776E+0	1.574111E+0	1.635296E+0	1.731812E+0	1.778597E+0	1.592856E+0	1.629809E+0	1.701527E+0	1.676404E+0	1.647130E+0	1.312972E+0	1.812525E+0	1.761987E+0	1.758515E+0	1.716222E+0	1.866335E+0	1.852945E+0	1.775178E+0	1.678545E+0	1.699595E+0	1.739236E+0	1.410080E+0	1.561951E+0	1.623839E+0	1.762297E+0	1.636167E+0	1.673501E+0	1.787314E+0	1.811968E+0	1.677209E+0	1.761682E+0	1.844701E+0	1.854735E+0	1.737180E+0	1.735875E+0	1.608910E+0	1.741630E+0	1.463414E+0	1.711691E+0	1.671811E+0	1.620700E+0	1.644571E+0	1.793408E+0	1.747184E+0	1.725631E+0	1.719692E+0	1.787605E+0	1.885739E+0	1.875401E+0	1.585970E+0	1.693887E+0	1.840236E+0	1.436624E+0	1.571800E+0	1.676657E+0	1.719067E+0	1.591633E+0	1.585029E+0	1.735299E+0	1.839334E+0	1.788303E+0	1.677043E+0	1.782691E+0	1.979668E+0	1.755447E+0	1.620450E+0	1.624421E+0	1.695204E+0	1.719086E+0	1.658651E+0	1.574390E+0	1.659262E+0	1.643454E+0	1.684528E+0	1.639054E+0	1.739352E+0	1.644089E+0	1.646711E+0	1.736638E+0	1.830928E+0	1.742961E+0	1.638266E+0	1.708769E+0	1.669311E+0	1.681507E+0	1.514173E+0	1.561584E+0	1.640277E+0	1.635881E+0	1.691976E+0	1.631453E+0	1.567567E+0	1.668469E+0	1.647986E+0	1.730318E+0	1.869406E+0	1.635263E+0	1.619636E+0	1.538481E+0	1.674478E+0	1.623256E+0	1.592842E+0	1.553056E+0	1.575134E+0	1.667217E+0	1.631011E+0	1.700234E+0	1.736926E+0	1.576856E+0
5.410340E+2	1.668246E+0	1.592583E+0	1.630258E+0	1.658927E+0	1.543776E+0	1.554625E+0	1.617358E+0	1.540440E+0	1.629830E+0	1.638987E+0	1.718382E+0	1.518174E+0	1.646173E+0	1.852419E+0	1.862604E+0	1.549914E+0	1.417236E+0	1.565675E+0	1.570443E+0	1.630572E+0	1.673730E+0	1.589834E+0	1.598784E+0	1.651491E+0	1.643064E+0	1.406347E+0	1.592184E+0	1.611163E+0	1.727332E+0	1.728275E+0	1.810924E+0	1.546212E+0	1.678046E+0	1.653743E+0	1.359834E+0	1.472509E+0	1.528523E+0	1.636476E+0	1.604564E+0	1.480622E+0	1.596468E+0	1.699328E+0	1.614638E+0	1.513494E+0	1.630045E+0	1.746873E+0	1.768694E+0	1.480042E+0	1.618282E+0	1.592067E+0	1.627477E+0	1.560620E+0	1.553288E+0	1.721135E+0	1.604594E+0	1.557866E+0	1.297790E+0	1.768929E+0	1.669502E+0	1.546608E+0	1.639128E+0	1.849289E+0	1.819501E+0	1.479959E+0	1.562981E+0	1.604125E+0	1.640168E+0	1.475696E+0	1.624745E+0	1.645167E+0	1.594038E+0	1.534660E+0	1.251697E+0	1.724917E+0	1.655674E+0	1.684926E+0	1.617837E+0	1.798564E+0	1.807500E+0	1.801559E+0	1.627555E+0	1.652213E+0	1.621832E+0	1.348911E+0	1.498171E+0	1.513221E+0	1.636081E+0	1.506586E+0	1.610721E+0	1.656712E+0	1.711028E+0	1.569351E+0	1.649838E+0	1.754614E+0	1.727319E+0	1.642936E+0	1.612180E+0	1.598465E+0	1.578779E+0	1.367306E+0	1.691701E+0	1.588782E+0	1.589346E+0	1.630715E+0	1.711046E+0	1.716880E+0	1.679595E+0	1.632482E+0	1.712193E+0	1.848506E+0	1.802428E+0	1.525317E+0	1.586720E+0	1.794299E+0	1.409004E+0	1.502882E+0	1.584080E+0	1.719640E+0	1.557175E+0	1.531504E+0	1.589701E+0	1.778112E+0	1.694773E+0	1.595160E+0	1.741576E+0	1.833728E+0	1.772567E+0	1.581909E+0	1.609609E+0	1.618663E+0	1.674341E+0	1.513680E+0	1.567572E+0	1.551804E+0	1.568889E+0	1.525810E+0	1.632777E+0	1.689947E+0	1.617629E+0	1.614238E+0	1.664594E+0	1.744745E+0	1.782869E+0	1.573663E+0	1.647288E+0	1.617462E+0	1.580693E+0	1.468554E+0	1.515917E+0	1.555260E+0	1.541480E+0	1.574215E+0	1.572568E+0	1.515655E+0	1.728890E+0	1.612534E+0	1.674952E+0	1.674280E+0	1.756800E+0	1.607996E+0	1.544928E+0	1.597679E+0	1.637293E+0	1.539796E+0	1.543329E+0	1.505618E+0	1.606745E+0	1.527879E+0	1.654640E+0	1.653676E+0	1.742685E+0
5.412850E+2	1.610252E+0	1.488604E+0	1.560497E+0	1.536454E+0	1.455002E+0	1.451503E+0	1.529073E+0	1.475345E+0	1.488229E+0	1.606647E+0	1.701586E+0	1.447496E+0	1.577384E+0	1.711319E+0	1.753437E+0	1.446934E+0	1.387752E+0	1.553622E+0	1.502480E+0	1.542226E+0	1.627443E+0	1.458157E+0	1.561375E+0	1.522442E+0	1.576084E+0	1.372628E+0	1.541994E+0	1.519416E+0	1.544886E+0	1.644799E+0	1.686850E+0	1.493806E+0	1.583929E+0	1.570239E+0	1.239454E+0	1.377980E+0	1.495209E+0	1.527688E+0	1.408015E+0	1.401404E+0	1.537165E+0	1.613959E+0	1.553809E+0	1.441982E+0	1.539164E+0	1.646372E+0	1.688796E+0	1.437812E+0	1.587590E+0	1.493089E+0	1.630360E+0	1.418884E+0	1.524752E+0	1.652109E+0	1.500461E+0	1.469669E+0	1.189714E+0	1.670113E+0	1.593377E+0	1.447503E+0	1.624599E+0	1.717915E+0	1.621836E+0	1.424352E+0	1.494228E+0	1.595127E+0	1.520932E+0	1.418263E+0	1.509815E+0	1.492334E+0	1.477726E+0	1.449877E+0	1.233068E+0	1.623741E+0	1.555015E+0	1.634116E+0	1.525306E+0	1.752167E+0	1.671678E+0	1.609893E+0	1.544002E+0	1.532961E+0	1.609708E+0	1.252353E+0	1.431097E+0	1.456919E+0	1.558374E+0	1.407922E+0	1.556109E+0	1.614982E+0	1.629260E+0	1.486383E+0	1.595356E+0	1.737950E+0	1.685194E+0	1.576505E+0	1.614588E+0	1.553421E+0	1.564922E+0	1.323325E+0	1.500956E+0	1.512061E+0	1.569299E+0	1.526782E+0	1.651096E+0	1.646953E+0	1.537354E+0	1.523473E+0	1.590252E+0	1.673189E+0	1.641639E+0	1.467212E+0	1.542222E+0	1.673091E+0	1.294801E+0	1.355934E+0	1.487931E+0	1.596953E+0	1.480659E+0	1.396981E+0	1.552381E+0	1.697199E+0	1.626224E+0	1.468174E+0	1.584214E+0	1.722509E+0	1.685410E+0	1.475927E+0	1.521338E+0	1.482344E+0	1.595378E+0	1.527461E+0	1.426322E+0	1.506108E+0	1.520917E+0	1.464542E+0	1.492334E+0	1.628340E+0	1.525856E+0	1.467817E+0	1.568876E+0	1.633407E+0	1.684270E+0	1.434743E+0	1.559775E+0	1.501749E+0	1.555204E+0	1.374530E+0	1.438824E+0	1.455992E+0	1.492593E+0	1.509050E+0	1.487185E+0	1.369506E+0	1.621999E+0	1.552452E+0	1.614604E+0	1.696153E+0	1.675236E+0	1.483991E+0	1.441177E+0	1.518100E+0	1.578102E+0	1.462578E+0	1.380044E+0	1.464328E+0	1.570234E+0	1.481059E+0	1.635491E+0	1.566397E+0	1.750000E+0
5.415140E+2	1.373495E+0	1.339629E+0	1.343176E+0	1.348316E+0	1.314259E+0	1.250955E+0	1.371459E+0	1.295146E+0	1.332957E+0	1.429337E+0	1.417856E+0	1.240042E+0	1.356202E+0	1.495477E+0	1.481285E+0	1.248999E+0	1.212362E+0	1.303368E+0	1.355699E+0	1.342895E+0	1.400552E+0	1.283582E+0	1.321751E+0	1.390290E+0	1.411739E+0	1.228510E+0	1.330631E+0	1.333817E+0	1.415873E+0	1.455636E+0	1.506384E+0	1.286802E+0	1.384303E+0	1.386733E+0	1.103290E+0	1.238033E+0	1.304414E+0	1.311629E+0	1.300626E+0	1.245418E+0	1.309360E+0	1.394183E+0	1.355523E+0	1.248790E+0	1.352227E+0	1.482975E+0	1.517648E+0	1.225756E+0	1.376976E+0	1.332887E+0	1.389468E+0	1.234575E+0	1.331490E+0	1.466975E+0	1.284442E+0	1.377498E+0	1.076725E+0	1.532236E+0	1.396122E+0	1.252745E+0	1.332579E+0	1.441037E+0	1.479623E+0	1.256544E+0	1.331227E+0	1.394874E+0	1.352838E+0	1.208635E+0	1.296655E+0	1.356259E+0	1.402349E+0	1.304102E+0	1.038459E+0	1.360351E+0	1.409116E+0	1.373631E+0	1.342375E+0	1.536861E+0	1.491436E+0	1.456456E+0	1.360300E+0	1.361001E+0	1.413486E+0	1.138102E+0	1.244711E+0	1.292488E+0	1.377708E+0	1.241059E+0	1.328467E+0	1.445359E+0	1.417801E+0	1.344155E+0	1.426137E+0	1.452056E+0	1.434531E+0	1.373084E+0	1.417037E+0	1.321583E+0	1.351835E+0	1.192464E+0	1.404773E+0	1.298408E+0	1.314368E+0	1.383409E+0	1.433708E+0	1.416771E+0	1.400427E+0	1.284860E+0	1.412156E+0	1.473569E+0	1.441888E+0	1.348449E+0	1.357341E+0	1.453639E+0	1.132793E+0	1.271066E+0	1.376430E+0	1.396300E+0	1.311412E+0	1.277143E+0	1.372093E+0	1.467236E+0	1.461247E+0	1.318645E+0	1.389799E+0	1.509836E+0	1.519919E+0	1.321265E+0	1.352493E+0	1.323120E+0	1.394815E+0	1.303666E+0	1.294810E+0	1.322325E+0	1.324855E+0	1.326078E+0	1.278812E+0	1.387140E+0	1.429581E+0	1.323097E+0	1.464409E+0	1.448192E+0	1.477684E+0	1.298733E+0	1.337668E+0	1.368025E+0	1.344886E+0	1.229319E+0	1.308204E+0	1.259998E+0	1.305475E+0	1.329846E+0	1.311123E+0	1.235205E+0	1.396342E+0	1.324732E+0	1.437989E+0	1.477430E+0	1.498065E+0	1.300778E+0	1.309286E+0	1.334454E+0	1.324860E+0	1.279863E+0	1.311453E+0	1.225985E+0	1.347171E+0	1.313918E+0	1.377432E+0	1.362298E+0	1.557346E+0
5.417760E+2	1.220266E+0	1.148090E+0	1.181662E+0	1.181472E+0	1.099356E+0	1.104820E+0	1.178098E+0	1.080459E+0	1.156911E+0	1.138837E+0	1.233144E+0	1.132756E+0	1.174670E+0	1.285911E+0	1.278555E+0	1.194165E+0	1.028839E+0	1.119125E+0	1.178084E+0	1.235775E+0	1.208875E+0	1.091051E+0	1.171100E+0	1.154367E+0	1.218687E+0	1.207300E+0	1.153507E+0	1.107612E+0	1.192031E+0	1.234642E+0	1.272903E+0	1.129147E+0	1.160403E+0	1.172820E+0	9.740324E-1	1.039992E+0	1.104531E+0	1.110826E+0	1.081416E+0	1.073502E+0	1.152012E+0	1.241323E+0	1.160745E+0	1.099895E+0	1.175068E+0	1.267856E+0	1.253647E+0	1.085277E+0	1.215703E+0	1.132062E+0	1.139934E+0	1.077784E+0	1.103686E+0	1.244918E+0	1.148344E+0	1.107605E+0	9.509637E-1	1.243472E+0	1.287216E+0	1.104084E+0	1.210164E+0	1.285588E+0	1.247557E+0	1.070688E+0	1.121993E+0	1.191250E+0	1.198707E+0	1.052994E+0	1.115394E+0	1.165852E+0	1.158742E+0	1.085649E+0	8.884572E-1	1.219048E+0	1.210059E+0	1.233459E+0	1.132848E+0	1.336678E+0	1.302511E+0	1.192644E+0	1.140356E+0	1.232698E+0	1.196322E+0	9.849260E-1	1.069325E+0	1.156458E+0	1.131213E+0	1.047367E+0	1.132983E+0	1.226966E+0	1.208592E+0	1.181181E+0	1.199548E+0	1.285417E+0	1.281114E+0	1.207259E+0	1.189468E+0	1.150729E+0	1.116806E+0	9.931880E-1	1.198358E+0	1.129911E+0	1.095412E+0	1.115318E+0	1.211276E+0	1.199987E+0	1.154902E+0	1.149202E+0	1.227642E+0	1.366003E+0	1.235337E+0	1.071173E+0	1.152406E+0	1.270548E+0	9.840644E-1	1.069436E+0	1.171849E+0	1.197943E+0	1.148242E+0	1.105672E+0	1.181817E+0	1.234610E+0	1.189379E+0	1.097314E+0	1.231424E+0	1.309095E+0	1.239254E+0	1.132627E+0	1.149292E+0	1.142667E+0	1.215305E+0	1.126177E+0	1.061505E+0	1.086323E+0	1.149652E+0	1.097888E+0	1.156066E+0	1.244741E+0	1.223517E+0	1.151604E+0	1.191668E+0	1.241030E+0	1.309242E+0	1.126294E+0	1.188120E+0	1.140422E+0	1.209313E+0	1.069646E+0	1.119640E+0	1.154619E+0	1.173428E+0	1.151107E+0	1.112683E+0	1.057454E+0	1.198572E+0	1.188338E+0	1.182201E+0	1.202295E+0	1.238254E+0	1.099338E+0	1.121711E+0	1.166949E+0	1.185119E+0	1.108345E+0	1.135881E+0	1.130860E+0	1.130383E+0	1.094616E+0	1.175908E+0	1.218624E+0	1.250074E+0
5.420270E+2	1.056928E+0	1.021006E+0	1.067904E+0	1.025871E+0	9.856799E-1	9.830403E-1	1.040523E+0	9.877729E-1	1.082556E+0	1.041819E+0	1.071591E+0	1.052925E+0	1.001738E+0	1.119203E+0	1.139710E+0	1.108127E+0	8.290478E-1	9.853895E-1	9.810493E-1	1.140801E+0	1.016190E+0	1.003763E+0	9.946686E-1	1.017335E+0	1.061093E+0	1.045782E+0	1.024207E+0	1.097067E+0	1.040876E+0	1.153571E+0	1.102590E+0	1.132644E+0	9.776186E-1	1.024368E+0	8.087588E-1	1.069038E+0	9.642085E-1	9.954240E-1	9.533367E-1	9.681481E-1	1.014037E+0	1.052124E+0	1.058385E+0	9.787503E-1	1.022642E+0	1.099758E+0	1.137572E+0	1.016369E+0	1.060449E+0	1.070270E+0	1.056948E+0	1.005617E+0	1.002549E+0	1.100983E+0	1.001101E+0	9.889748E-1	7.937623E-1	1.176014E+0	1.051625E+0	9.479319E-1	1.011506E+0	1.139558E+0	1.146416E+0	9.467839E-1	9.821103E-1	1.025875E+0	1.037595E+0	9.306641E-1	9.918530E-1	1.029773E+0	1.035443E+0	9.671247E-1	8.193390E-1	1.053439E+0	1.026270E+0	1.072263E+0	1.023302E+0	1.155257E+0	1.126862E+0	1.066662E+0	9.978219E-1	1.044236E+0	1.027659E+0	8.898857E-1	9.373725E-1	1.020429E+0	1.029744E+0	9.627993E-1	9.956851E-1	1.041629E+0	1.073256E+0	9.684293E-1	1.027919E+0	1.104718E+0	1.147978E+0	1.073877E+0	1.036955E+0	9.837187E-1	1.027299E+0	8.769882E-1	1.016259E+0	9.827839E-1	9.890197E-1	9.490277E-1	1.079610E+0	1.106166E+0	1.088209E+0	9.977982E-1	1.072007E+0	1.126560E+0	1.104232E+0	9.931879E-1	1.020168E+0	1.114888E+0	8.772984E-1	9.446995E-1	9.662443E-1	1.046593E+0	1.009904E+0	9.555191E-1	1.020977E+0	1.144114E+0	1.079005E+0	9.620237E-1	1.073558E+0	1.137657E+0	1.114229E+0	1.031209E+0	9.988153E-1	1.017522E+0	1.093175E+0	9.812090E-1	9.290203E-1	1.011000E+0	9.989571E-1	1.009123E+0	1.018477E+0	1.029114E+0	1.081637E+0	1.026830E+0	1.120138E+0	1.105065E+0	1.179538E+0	9.897990E-1	1.034140E+0	9.979656E-1	1.030286E+0	9.561493E-1	9.801791E-1	1.008515E+0	1.048682E+0	9.788841E-1	1.013169E+0	9.287973E-1	1.116467E+0	1.057353E+0	1.052093E+0	1.103868E+0	1.132386E+0	9.500311E-1	9.868912E-1	1.011130E+0	1.032564E+0	9.869254E-1	9.684968E-1	9.881686E-1	1.032259E+0	1.029420E+0	1.078337E+0	1.054808E+0	1.147650E+0
5.422730E+2	9.313665E-1	9.413500E-1	9.364379E-1	9.684815E-1	9.239700E-1	8.840623E-1	9.414060E-1	8.825846E-1	8.846399E-1	9.715634E-1	9.731536E-1	9.776736E-1	9.697301E-1	1.060148E+0	1.039101E+0	1.021643E+0	8.254892E-1	9.228272E-1	9.519225E-1	1.008283E+0	9.477702E-1	9.563790E-1	9.552377E-1	9.845198E-1	1.022820E+0	1.024572E+0	9.350550E-1	1.019557E+0	9.012721E-1	9.878259E-1	1.006716E+0	1.063640E+0	9.216443E-1	9.733363E-1	7.979049E-1	9.586632E-1	8.854662E-1	8.856166E-1	8.809229E-1	8.648366E-1	9.300788E-1	1.001363E+0	9.308738E-1	9.355217E-1	9.593702E-1	1.012770E+0	1.010159E+0	1.016369E+0	9.407000E-1	9.712884E-1	9.647408E-1	9.542182E-1	9.179351E-1	1.004670E+0	9.110127E-1	9.192975E-1	7.672350E-1	1.046424E+0	9.654999E-1	9.750140E-1	9.793468E-1	1.066805E+0	1.070944E+0	9.960529E-1	9.400269E-1	9.763755E-1	9.218495E-1	9.645489E-1	9.153991E-1	9.602107E-1	9.490827E-1	8.953189E-1	7.056125E-1	1.006525E+0	9.691544E-1	9.747267E-1	9.398113E-1	1.031184E+0	1.021167E+0	9.939799E-1	9.369992E-1	9.457450E-1	9.758485E-1	7.973729E-1	8.565511E-1	8.988502E-1	9.386690E-1	8.227607E-1	9.466863E-1	9.923148E-1	9.903625E-1	9.648734E-1	9.936883E-1	1.013066E+0	1.035647E+0	9.523404E-1	9.667027E-1	9.370216E-1	9.608899E-1	8.063999E-1	9.308840E-1	9.036360E-1	8.795424E-1	8.946631E-1	9.938879E-1	1.003602E+0	9.984978E-1	9.015044E-1	1.023873E+0	1.059848E+0	1.012088E+0	8.759577E-1	9.305486E-1	1.040887E+0	7.917795E-1	8.752115E-1	9.468087E-1	9.600254E-1	9.171724E-1	9.090977E-1	9.163780E-1	1.031794E+0	1.005228E+0	8.694568E-1	9.694968E-1	1.015043E+0	1.060792E+0	9.166071E-1	9.087659E-1	9.007576E-1	9.763112E-1	9.591600E-1	8.554719E-1	9.452212E-1	9.150056E-1	9.570193E-1	9.379785E-1	9.855225E-1	9.639667E-1	9.493445E-1	1.031110E+0	1.048858E+0	1.048073E+0	8.863358E-1	9.139463E-1	9.723125E-1	9.781415E-1	8.604554E-1	8.868789E-1	9.723711E-1	9.531568E-1	9.421129E-1	9.584066E-1	8.447188E-1	1.001831E+0	9.377848E-1	1.002819E+0	1.039402E+0	1.087553E+0	9.586356E-1	9.059991E-1	9.421241E-1	9.062477E-1	9.197330E-1	9.352249E-1	8.804977E-1	9.364163E-1	9.322160E-1	9.844156E-1	9.138201E-1	1.069612E+0
5.425300E+2	9.728657E-1	8.957455E-1	9.321453E-1	9.690728E-1	8.703796E-1	8.788803E-1	9.148659E-1	8.631856E-1	9.026821E-1	9.654300E-1	9.789447E-1	9.207255E-1	9.520542E-1	1.006841E+0	1.046647E+0	1.072463E+0	8.117624E-1	9.675966E-1	9.130864E-1	1.013252E+0	9.487761E-1	9.439094E-1	9.132776E-1	9.392857E-1	9.558430E-1	9.429954E-1	9.368262E-1	9.831751E-1	9.725175E-1	1.016651E+0	1.015175E+0	1.054034E+0	9.409632E-1	9.156058E-1	7.865577E-1	9.396517E-1	8.975808E-1	9.262864E-1	8.730412E-1	8.578966E-1	9.007227E-1	1.011746E+0	9.174208E-1	9.387238E-1	9.380885E-1	1.012771E+0	1.024197E+0	1.049266E+0	9.250533E-1	9.833041E-1	9.670463E-1	9.329316E-1	8.778811E-1	9.602584E-1	9.144031E-1	8.884264E-1	7.726389E-1	1.024530E+0	9.221594E-1	9.646415E-1	9.554868E-1	1.042728E+0	1.017036E+0	1.019956E+0	9.133543E-1	9.516253E-1	9.579107E-1	9.496162E-1	9.422341E-1	9.282222E-1	9.915138E-1	8.901260E-1	7.389461E-1	1.014439E+0	9.821609E-1	9.782312E-1	9.297076E-1	1.006682E+0	1.024742E+0	1.061816E+0	9.437569E-1	9.148674E-1	9.278955E-1	7.432807E-1	8.444558E-1	8.430437E-1	9.248099E-1	8.718650E-1	9.150408E-1	9.755147E-1	9.757013E-1	9.133151E-1	9.734400E-1	9.901534E-1	1.009125E+0	1.054308E+0	9.582960E-1	8.991150E-1	8.858187E-1	7.944544E-1	9.135928E-1	9.118901E-1	8.749164E-1	9.975289E-1	9.647532E-1	1.002437E+0	9.624947E-1	1.022022E+0	9.778780E-1	1.041748E+0	9.718899E-1	1.006439E+0	9.662710E-1	9.943169E-1	7.864677E-1	9.014124E-1	9.555035E-1	9.325075E-1	9.541634E-1	8.754668E-1	9.621070E-1	1.024342E+0	9.837342E-1	9.893187E-1	9.832026E-1	1.035659E+0	1.028628E+0	1.009405E+0	9.052115E-1	9.655648E-1	9.994735E-1	1.000501E+0	8.700846E-1	9.341740E-1	8.858051E-1	9.285558E-1	9.670946E-1	9.721553E-1	9.538327E-1	9.345311E-1	9.462000E-1	1.029587E+0	1.025183E+0	9.761987E-1	9.488409E-1	9.537547E-1	9.213626E-1	9.188728E-1	8.451399E-1	9.194273E-1	9.048320E-1	9.262873E-1	9.183658E-1	8.740619E-1	1.032297E+0	9.492012E-1	9.784577E-1	1.064153E+0	1.049743E+0	9.135904E-1	8.948622E-1	9.282120E-1	9.453019E-1	9.079443E-1	8.676575E-1	8.679535E-1	9.158787E-1	9.138428E-1	9.506760E-1	9.420185E-1	1.081805E+0
5.427650E+2	9.888272E-1	9.595917E-1	9.943903E-1	9.809061E-1	9.596969E-1	9.503935E-1	1.015067E+0	9.170727E-1	9.458741E-1	1.001116E+0	1.051903E+0	1.012758E+0	9.577873E-1	1.120770E+0	1.071298E+0	1.082716E+0	8.976783E-1	1.008923E+0	9.873315E-1	1.094420E+0	1.032288E+0	8.990185E-1	9.795031E-1	1.052370E+0	1.028448E+0	1.021309E+0	9.710699E-1	1.085994E+0	9.932165E-1	1.127748E+0	1.090748E+0	1.095083E+0	9.815817E-1	1.019728E+0	8.043187E-1	9.760912E-1	8.683049E-1	9.379786E-1	9.360949E-1	8.979135E-1	9.500412E-1	1.003671E+0	9.741573E-1	9.835528E-1	9.702991E-1	1.086240E+0	1.057670E+0	1.088832E+0	1.032167E+0	9.861642E-1	9.918271E-1	1.007174E+0	9.539835E-1	1.069949E+0	9.875394E-1	9.439937E-1	7.672347E-1	1.074827E+0	1.032733E+0	9.565753E-1	9.803847E-1	1.096117E+0	1.088400E+0	1.081420E+0	9.649212E-1	1.018000E+0	9.980434E-1	1.002454E+0	9.634992E-1	1.004385E+0	9.860232E-1	9.528511E-1	8.119859E-1	1.046656E+0	1.010436E+0	1.000425E+0	9.967129E-1	1.106256E+0	1.075291E+0	1.080121E+0	9.443714E-1	9.846093E-1	9.841158E-1	7.999004E-1	8.966869E-1	9.586430E-1	1.000045E+0	8.859601E-1	9.890497E-1	1.054094E+0	1.050699E+0	9.891713E-1	1.022615E+0	1.056809E+0	1.098574E+0	1.077484E+0	9.877179E-1	9.804223E-1	9.349032E-1	9.014226E-1	9.595224E-1	9.818128E-1	9.643488E-1	1.016716E+0	1.033107E+0	1.049057E+0	1.014433E+0	1.100147E+0	1.047405E+0	1.062953E+0	1.107943E+0	1.119085E+0	1.010141E+0	1.078526E+0	8.804859E-1	9.435605E-1	9.611291E-1	1.003596E+0	9.779803E-1	9.455707E-1	1.005208E+0	1.111111E+0	1.024398E+0	1.036789E+0	1.000969E+0	1.121922E+0	1.118897E+0	1.071270E+0	9.940765E-1	9.683580E-1	1.030532E+0	9.955404E-1	9.241489E-1	9.306594E-1	9.791426E-1	9.430290E-1	9.745166E-1	1.029113E+0	1.011260E+0	1.053608E+0	1.066104E+0	1.069735E+0	1.067440E+0	1.094234E+0	9.709965E-1	1.006699E+0	9.706101E-1	9.928684E-1	9.369670E-1	9.504809E-1	9.879952E-1	1.010535E+0	9.784271E-1	8.977609E-1	1.009060E+0	1.050144E+0	1.022196E+0	1.072787E+0	1.087554E+0	1.083649E+0	1.015613E+0	1.005565E+0	1.013647E+0	9.833899E-1	8.947869E-1	9.803281E-1	9.666526E-1	9.458484E-1	1.019978E+0	9.621594E-1	1.108631E+0
5.430070E+2	1.131947E+0	1.056881E+0	1.081856E+0	1.135325E+0	1.065253E+0	1.070100E+0	1.167266E+0	1.062354E+0	1.089117E+0	1.114862E+0	1.143971E+0	1.165298E+0	1.152696E+0	1.203342E+0	1.254910E+0	1.240530E+0	9.871518E-1	1.093870E+0	1.115262E+0	1.213687E+0	1.155547E+0	1.068606E+0	1.135713E+0	1.153481E+0	1.118502E+0	1.195881E+0	1.093285E+0	1.189341E+0	1.163629E+0	1.190803E+0	1.243015E+0	1.269335E+0	1.132663E+0	1.118181E+0	9.286433E-1	1.125016E+0	1.083331E+0	1.078797E+0	1.023780E+0	1.049001E+0	1.130875E+0	1.175566E+0	1.122141E+0	1.132983E+0	1.108346E+0	1.192035E+0	1.216936E+0	1.231534E+0	1.095953E+0	1.128629E+0	1.153767E+0	1.186291E+0	1.092669E+0	1.181782E+0	1.088767E+0	1.089523E+0	9.489986E-1	1.240513E+0	1.170532E+0	1.115032E+0	1.115245E+0	1.256277E+0	1.173114E+0	1.225812E+0	1.095321E+0	1.137812E+0	1.120768E+0	1.101812E+0	1.065269E+0	1.120151E+0	1.111320E+0	1.082622E+0	1.120813E+0	1.178351E+0	1.158033E+0	1.150524E+0	1.139230E+0	1.222506E+0	1.195796E+0	1.187799E+0	1.076462E+0	1.129948E+0	1.131282E+0	9.136460E-1	1.074823E+0	1.082713E+0	1.142596E+0	1.037820E+0	1.136558E+0	1.147846E+0	1.094684E+0	1.095251E+0	1.148445E+0	1.216157E+0	1.241587E+0	1.207259E+0	1.106006E+0	1.040304E+0	1.105835E+0	9.747268E-1	1.147025E+0	1.073102E+0	1.042987E+0	1.088669E+0	1.172617E+0	1.185419E+0	1.106505E+0	1.141328E+0	1.125490E+0	1.253781E+0	1.161744E+0	1.237335E+0	1.104149E+0	1.201012E+0	9.341343E-1	1.109306E+0	1.118148E+0	1.167558E+0	1.082368E+0	1.086253E+0	1.092987E+0	1.219173E+0	1.181826E+0	1.151905E+0	1.141072E+0	1.296076E+0	1.234585E+0	1.210212E+0	1.147514E+0	1.118644E+0	1.091071E+0	1.189017E+0	1.073680E+0	1.103397E+0	1.074566E+0	1.120081E+0	1.145219E+0	1.184296E+0	1.203811E+0	1.124826E+0	1.153073E+0	1.202488E+0	1.235880E+0	1.238986E+0	1.092297E+0	1.085295E+0	1.139788E+0	1.120274E+0	1.020937E+0	1.063496E+0	1.067787E+0	1.099907E+0	1.115627E+0	1.013440E+0	1.198054E+0	1.159498E+0	1.171683E+0	1.266760E+0	1.248518E+0	1.256238E+0	1.094161E+0	1.134673E+0	1.112503E+0	1.136637E+0	1.043230E+0	1.063434E+0	1.099006E+0	1.110620E+0	1.123020E+0	1.060180E+0	1.313478E+0
5.433020E+2	1.317631E+0	1.258149E+0	1.293811E+0	1.268443E+0	1.182718E+0	1.188770E+0	1.271259E+0	1.192111E+0	1.241655E+0	1.317265E+0	1.331002E+0	1.345805E+0	1.285499E+0	1.373711E+0	1.455128E+0	1.400125E+0	1.133564E+0	1.309107E+0	1.232912E+0	1.385407E+0	1.319554E+0	1.252159E+0	1.234798E+0	1.319334E+0	1.318310E+0	1.380240E+0	1.241476E+0	1.364923E+0	1.313339E+0	1.397984E+0	1.442658E+0	1.420436E+0	1.297614E+0	1.296011E+0	1.040635E+0	1.317775E+0	1.193869E+0	1.218093E+0	1.193238E+0	1.152720E+0	1.255933E+0	1.338810E+0	1.318088E+0	1.297887E+0	1.291258E+0	1.376592E+0	1.438288E+0	1.388018E+0	1.275881E+0	1.258507E+0	1.318009E+0	1.338928E+0	1.226852E+0	1.361564E+0	1.255384E+0	1.232405E+0	1.002055E+0	1.451762E+0	1.326670E+0	1.321889E+0	1.262553E+0	1.402831E+0	1.324056E+0	1.415572E+0	1.275510E+0	1.298689E+0	1.274900E+0	1.318331E+0	1.229820E+0	1.342037E+0	1.289532E+0	1.216720E+0	1.254148E+0	1.344525E+0	1.351997E+0	1.327489E+0	1.245588E+0	1.407578E+0	1.384208E+0	1.357393E+0	1.284120E+0	1.314686E+0	1.243173E+0	1.109287E+0	1.194681E+0	1.257110E+0	1.271288E+0	1.153307E+0	1.275386E+0	1.355942E+0	1.351258E+0	1.277187E+0	1.329235E+0	1.386444E+0	1.357561E+0	1.344246E+0	1.301752E+0	1.223795E+0	1.246160E+0	1.118075E+0	1.256175E+0	1.235283E+0	1.270165E+0	1.202728E+0	1.370956E+0	1.309543E+0	1.297734E+0	1.380547E+0	1.348514E+0	1.391345E+0	1.386850E+0	1.391775E+0	1.289030E+0	1.433224E+0	1.116859E+0	1.237459E+0	1.222483E+0	1.349863E+0	1.250095E+0	1.208933E+0	1.258558E+0	1.403356E+0	1.293944E+0	1.314490E+0	1.261881E+0	1.388848E+0	1.424980E+0	1.368422E+0	1.296806E+0	1.286248E+0	1.319534E+0	1.360994E+0	1.149175E+0	1.227925E+0	1.181459E+0	1.263848E+0	1.231998E+0	1.310417E+0	1.263490E+0	1.274100E+0	1.352742E+0	1.357190E+0	1.327436E+0	1.455630E+0	1.266217E+0	1.278512E+0	1.263774E+0	1.227652E+0	1.189369E+0	1.216216E+0	1.232427E+0	1.266544E+0	1.299934E+0	1.163541E+0	1.312690E+0	1.348765E+0	1.313971E+0	1.403753E+0	1.358708E+0	1.350376E+0	1.189706E+0	1.271572E+0	1.319977E+0	1.295777E+0	1.220337E+0	1.229122E+0	1.289551E+0	1.254648E+0	1.260712E+0	1.245480E+0	1.381762E+0
5.435270E+2	1.524060E+0	1.432054E+0	1.371079E+0	1.426411E+0	1.416023E+0	1.376877E+0	1.392582E+0	1.296010E+0	1.381071E+0	1.456101E+0	1.517452E+0	1.449528E+0	1.438368E+0	1.558195E+0	1.521024E+0	1.549913E+0	1.257607E+0	1.351583E+0	1.408244E+0	1.575908E+0	1.461926E+0	1.377355E+0	1.374326E+0	1.433305E+0	1.447198E+0	1.503694E+0	1.418601E+0	1.497798E+0	1.403837E+0	1.519890E+0	1.558833E+0	1.581147E+0	1.395202E+0	1.427973E+0	1.183705E+0	1.488882E+0	1.327634E+0	1.351792E+0	1.310476E+0	1.299318E+0	1.400952E+0	1.489363E+0	1.435654E+0	1.350191E+0	1.397092E+0	1.553505E+0	1.557604E+0	1.549395E+0	1.434741E+0	1.444456E+0	1.436148E+0	1.470800E+0	1.401588E+0	1.584692E+0	1.423935E+0	1.379700E+0	1.376390E+0	1.602061E+0	1.471137E+0	1.438285E+0	1.499593E+0	1.601722E+0	1.498615E+0	1.558012E+0	1.391682E+0	1.493311E+0	1.423798E+0	1.423431E+0	1.343740E+0	1.439022E+0	1.383876E+0	1.368122E+0	1.419836E+0	1.509567E+0	1.411944E+0	1.479342E+0	1.470535E+0	1.536342E+0	1.565472E+0	1.538287E+0	1.391634E+0	1.374845E+0	1.431124E+0	1.155291E+0	1.353575E+0	1.405595E+0	1.365334E+0	1.279252E+0	1.386144E+0	1.455658E+0	1.467423E+0	1.383859E+0	1.500381E+0	1.547354E+0	1.520339E+0	1.563629E+0	1.463272E+0	1.416076E+0	1.326426E+0	1.269028E+0	1.359925E+0	1.354248E+0	1.380158E+0	1.412190E+0	1.515506E+0	1.470382E+0	1.448234E+0	1.553754E+0	1.474196E+0	1.514944E+0	1.507443E+0	1.500341E+0	1.428159E+0	1.520621E+0	1.208751E+0	1.402069E+0	1.324262E+0	1.447898E+0	1.373739E+0	1.339666E+0	1.445679E+0	1.556131E+0	1.548385E+0	1.453344E+0	1.440561E+0	1.551067E+0	1.540151E+0	1.500773E+0	1.338276E+0	1.388489E+0	1.475879E+0	1.428241E+0	1.298708E+0	1.358981E+0	1.353534E+0	1.348270E+0	1.357027E+0	1.444098E+0	1.412128E+0	1.445594E+0	1.447943E+0	1.528487E+0	1.529916E+0	1.523144E+0	1.405242E+0	1.409506E+0	1.453232E+0	1.403460E+0	1.321462E+0	1.355705E+0	1.375151E+0	1.420611E+0	1.325255E+0	1.290503E+0	1.458822E+0	1.449108E+0	1.460688E+0	1.530380E+0	1.514271E+0	1.512336E+0	1.332147E+0	1.406245E+0	1.449957E+0	1.367684E+0	1.316571E+0	1.331043E+0	1.443013E+0	1.433640E+0	1.348251E+0	1.446892E+0	1.535400E+0
5.437690E+2	1.697509E+0	1.497118E+0	1.588940E+0	1.547698E+0	1.638505E+0	1.474305E+0	1.558323E+0	1.441290E+0	1.538526E+0	1.626163E+0	1.606626E+0	1.570543E+0	1.603180E+0	1.744761E+0	1.690555E+0	1.689005E+0	1.328779E+0	1.588633E+0	1.480774E+0	1.681922E+0	1.603298E+0	1.487585E+0	1.461276E+0	1.560581E+0	1.576086E+0	1.629322E+0	1.495945E+0	1.622236E+0	1.562214E+0	1.730074E+0	1.681775E+0	1.688577E+0	1.661700E+0	1.513023E+0	1.222187E+0	1.634114E+0	1.614838E+0	1.451432E+0	1.461711E+0	1.416921E+0	1.523075E+0	1.558582E+0	1.537430E+0	1.524169E+0	1.585760E+0	1.684575E+0	1.665038E+0	1.668091E+0	1.611660E+0	1.470774E+0	1.569272E+0	1.576711E+0	1.556297E+0	1.626428E+0	1.461226E+0	1.465698E+0	1.585169E+0	1.667150E+0	1.572265E+0	1.594435E+0	1.561836E+0	1.669764E+0	1.605922E+0	1.718013E+0	1.526827E+0	1.530437E+0	1.522676E+0	1.552080E+0	1.476396E+0	1.512643E+0	1.542620E+0	1.476695E+0	1.593365E+0	1.635048E+0	1.517129E+0	1.594399E+0	1.559873E+0	1.700557E+0	1.597640E+0	1.702496E+0	1.476418E+0	1.542014E+0	1.560100E+0	1.244267E+0	1.438244E+0	1.459409E+0	1.535600E+0	1.419743E+0	1.498432E+0	1.613896E+0	1.607268E+0	1.510090E+0	1.594875E+0	1.683789E+0	1.681036E+0	1.577534E+0	1.558142E+0	1.489692E+0	1.488121E+0	1.353733E+0	1.526891E+0	1.473212E+0	1.473187E+0	1.473485E+0	1.577139E+0	1.600918E+0	1.553882E+0	1.591905E+0	1.637855E+0	1.711459E+0	1.702241E+0	1.678228E+0	1.520915E+0	1.614398E+0	1.324547E+0	1.470985E+0	1.486906E+0	1.549370E+0	1.504474E+0	1.437244E+0	1.509805E+0	1.588076E+0	1.643077E+0	1.576763E+0	1.548683E+0	1.649265E+0	1.629899E+0	1.608279E+0	1.475129E+0	1.605814E+0	1.532733E+0	1.516987E+0	1.393684E+0	1.485020E+0	1.446873E+0	1.512784E+0	1.514599E+0	1.548715E+0	1.591164E+0	1.582900E+0	1.569391E+0	1.609848E+0	1.678403E+0	1.685869E+0	1.484447E+0	1.518122E+0	1.570844E+0	1.489693E+0	1.401012E+0	1.419846E+0	1.518440E+0	1.527201E+0	1.474231E+0	1.342983E+0	1.592050E+0	1.631164E+0	1.595777E+0	1.636292E+0	1.676857E+0	1.658100E+0	1.392522E+0	1.473024E+0	1.476805E+0	1.564551E+0	1.458360E+0	1.412583E+0	1.532011E+0	1.482244E+0	1.525155E+0	1.495231E+0	1.608559E+0
5.440170E+2	1.836370E+0	1.497115E+0	1.602353E+0	1.647093E+0	1.745145E+0	1.489851E+0	1.506868E+0	1.530955E+0	1.683958E+0	1.571521E+0	1.723010E+0	1.678340E+0	1.573565E+0	1.733264E+0	1.756458E+0	1.735364E+0	1.380125E+0	1.568546E+0	1.548169E+0	1.722230E+0	1.656626E+0	1.508535E+0	1.583115E+0	1.583641E+0	1.652071E+0	1.711438E+0	1.566204E+0	1.708181E+0	1.669083E+0	1.721669E+0	1.735352E+0	1.723953E+0	1.673092E+0	1.578487E+0	1.329247E+0	1.582360E+0	1.748601E+0	1.530738E+0	1.506044E+0	1.435703E+0	1.642846E+0	1.709130E+0	1.571354E+0	1.576470E+0	1.673761E+0	1.689277E+0	1.703372E+0	1.676094E+0	1.700722E+0	1.557739E+0	1.610186E+0	1.645247E+0	1.723521E+0	1.679401E+0	1.556159E+0	1.580358E+0	1.675069E+0	1.731652E+0	1.652276E+0	1.556406E+0	1.640682E+0	1.786484E+0	1.737357E+0	1.710695E+0	1.715908E+0	1.623247E+0	1.616900E+0	1.553805E+0	1.716388E+0	1.541076E+0	1.594533E+0	1.510440E+0	1.688465E+0	1.704571E+0	1.654543E+0	1.648131E+0	1.597628E+0	1.758420E+0	1.704358E+0	1.680421E+0	1.682848E+0	1.565439E+0	1.558449E+0	1.329698E+0	1.642773E+0	1.514717E+0	1.548968E+0	1.473397E+0	1.571421E+0	1.579757E+0	1.595430E+0	1.578239E+0	1.609338E+0	1.673893E+0	1.714319E+0	1.674866E+0	1.599574E+0	1.531445E+0	1.571274E+0	1.327669E+0	1.624156E+0	1.524201E+0	1.573929E+0	1.523052E+0	1.597867E+0	1.648117E+0	1.599919E+0	1.677297E+0	1.634645E+0	1.692328E+0	1.718939E+0	1.727666E+0	1.613041E+0	1.719022E+0	1.483369E+0	1.513138E+0	1.498160E+0	1.631353E+0	1.566297E+0	1.500240E+0	1.625966E+0	1.655681E+0	1.625066E+0	1.630166E+0	1.602995E+0	1.725765E+0	1.673482E+0	1.646817E+0	1.530818E+0	1.585700E+0	1.614853E+0	1.612350E+0	1.457981E+0	1.512638E+0	1.472947E+0	1.574051E+0	1.549424E+0	1.623691E+0	1.587787E+0	1.627913E+0	1.597697E+0	1.728688E+0	1.683683E+0	1.723761E+0	1.549251E+0	1.536681E+0	1.529709E+0	1.566474E+0	1.446677E+0	1.503843E+0	1.545414E+0	1.500672E+0	1.475411E+0	1.372888E+0	1.684479E+0	1.687043E+0	1.533768E+0	1.673131E+0	1.703324E+0	1.736551E+0	1.470486E+0	1.492502E+0	1.529285E+0	1.584588E+0	1.453753E+0	1.414149E+0	1.564530E+0	1.521362E+0	1.610871E+0	1.590566E+0	1.608556E+0
5.442810E+2	1.686866E+0	1.525087E+0	1.564255E+0	1.634078E+0	1.768963E+0	1.476893E+0	1.582153E+0	1.469309E+0	1.668103E+0	1.652370E+0	1.624576E+0	1.603597E+0	1.572609E+0	1.721244E+0	1.706153E+0	1.707281E+0	1.393851E+0	1.516884E+0	1.503620E+0	1.705113E+0	1.698381E+0	1.502053E+0	1.568958E+0	1.584087E+0	1.631806E+0	1.660323E+0	1.565024E+0	1.673908E+0	1.589171E+0	1.740883E+0	1.687419E+0	1.737489E+0	1.708758E+0	1.603229E+0	1.334180E+0	1.580245E+0	1.711752E+0	1.498709E+0	1.456782E+0	1.449182E+0	1.595877E+0	1.611649E+0	1.579544E+0	1.542312E+0	1.606463E+0	1.680460E+0	1.739003E+0	1.743223E+0	1.683272E+0	1.533140E+0	1.598087E+0	1.576715E+0	1.735536E+0	1.660673E+0	1.554705E+0	1.531406E+0	1.692759E+0	1.651765E+0	1.546704E+0	1.593283E+0	1.630308E+0	1.706400E+0	1.707576E+0	1.715575E+0	1.694570E+0	1.596249E+0	1.600035E+0	1.560122E+0	1.725505E+0	1.561894E+0	1.553103E+0	1.512602E+0	1.655624E+0	1.675742E+0	1.637012E+0	1.621848E+0	1.592309E+0	1.736004E+0	1.650232E+0	1.661580E+0	1.677933E+0	1.586200E+0	1.560100E+0	1.293808E+0	1.666963E+0	1.476848E+0	1.549462E+0	1.452935E+0	1.652574E+0	1.630696E+0	1.607269E+0	1.558683E+0	1.627174E+0	1.699933E+0	1.722121E+0	1.652210E+0	1.629597E+0	1.535841E+0	1.581091E+0	1.319522E+0	1.757085E+0	1.490208E+0	1.498374E+0	1.555030E+0	1.653336E+0	1.671428E+0	1.665430E+0	1.647019E+0	1.628226E+0	1.665431E+0	1.637307E+0	1.668543E+0	1.662549E+0	1.710729E+0	1.555607E+0	1.500603E+0	1.753372E+0	1.555677E+0	1.480153E+0	1.490293E+0	1.632799E+0	1.705716E+0	1.658756E+0	1.633729E+0	1.679646E+0	1.688329E+0	1.693192E+0	1.694988E+0	1.635675E+0	1.512514E+0	1.619068E+0	1.615658E+0	1.597280E+0	1.463928E+0	1.467731E+0	1.523878E+0	1.547712E+0	1.616138E+0	1.559634E+0	1.644433E+0	1.612103E+0	1.698176E+0	1.722421E+0	1.691700E+0	1.522113E+0	1.527949E+0	1.540717E+0	1.553122E+0	1.456502E+0	1.524718E+0	1.507763E+0	1.502068E+0	1.553727E+0	1.437218E+0	1.630779E+0	1.601722E+0	1.575849E+0	1.674857E+0	1.637966E+0	1.653038E+0	1.502723E+0	1.566513E+0	1.562848E+0	1.549812E+0	1.449659E+0	1.414149E+0	1.529161E+0	1.526698E+0	1.581691E+0	1.599965E+0	1.640261E+0
5.445240E+2	1.659733E+0	1.489210E+0	1.483230E+0	1.498002E+0	1.673150E+0	1.445802E+0	1.527448E+0	1.418008E+0	1.590467E+0	1.483980E+0	1.584620E+0	1.534951E+0	1.473242E+0	1.696685E+0	1.691565E+0	1.626144E+0	1.290650E+0	1.439973E+0	1.480203E+0	1.671430E+0	1.575124E+0	1.430226E+0	1.485546E+0	1.541510E+0	1.583403E+0	1.576026E+0	1.461111E+0	1.573728E+0	1.483268E+0	1.624381E+0	1.612410E+0	1.636172E+0	1.601265E+0	1.508383E+0	1.268068E+0	1.568098E+0	1.678940E+0	1.438214E+0	1.427228E+0	1.398136E+0	1.618776E+0	1.535512E+0	1.514033E+0	1.503891E+0	1.504081E+0	1.652833E+0	1.601873E+0	1.636972E+0	1.647767E+0	1.485076E+0	1.459776E+0	1.538812E+0	1.678461E+0	1.648898E+0	1.468493E+0	1.414981E+0	1.688830E+0	1.683132E+0	1.503364E+0	1.536814E+0	1.575326E+0	1.659820E+0	1.590005E+0	1.656548E+0	1.637076E+0	1.552936E+0	1.561064E+0	1.531981E+0	1.653607E+0	1.463900E+0	1.473231E+0	1.414407E+0	1.563464E+0	1.581918E+0	1.507513E+0	1.550596E+0	1.582209E+0	1.645817E+0	1.599683E+0	1.636276E+0	1.657046E+0	1.449377E+0	1.508840E+0	1.225560E+0	1.623531E+0	1.460903E+0	1.483139E+0	1.359727E+0	1.548451E+0	1.554286E+0	1.548623E+0	1.504756E+0	1.590053E+0	1.626507E+0	1.683636E+0	1.657361E+0	1.576155E+0	1.442994E+0	1.517572E+0	1.261425E+0	1.607403E+0	1.472728E+0	1.415625E+0	1.513990E+0	1.646052E+0	1.563621E+0	1.523191E+0	1.586457E+0	1.626085E+0	1.618372E+0	1.599584E+0	1.600243E+0	1.575439E+0	1.659056E+0	1.509397E+0	1.471557E+0	1.613232E+0	1.549372E+0	1.491807E+0	1.363824E+0	1.583919E+0	1.649292E+0	1.569877E+0	1.555400E+0	1.615180E+0	1.608032E+0	1.637165E+0	1.618419E+0	1.607831E+0	1.499104E+0	1.530628E+0	1.497143E+0	1.637226E+0	1.476985E+0	1.463040E+0	1.451513E+0	1.595668E+0	1.502797E+0	1.497706E+0	1.562962E+0	1.577109E+0	1.597006E+0	1.573345E+0	1.620780E+0	1.558116E+0	1.477734E+0	1.519279E+0	1.493589E+0	1.625422E+0	1.455992E+0	1.389201E+0	1.465761E+0	1.564914E+0	1.372891E+0	1.584303E+0	1.538631E+0	1.583597E+0	1.604062E+0	1.610417E+0	1.650506E+0	1.465794E+0	1.450208E+0	1.483516E+0	1.480854E+0	1.552543E+0	1.463801E+0	1.467545E+0	1.475130E+0	1.568924E+0	1.565054E+0	1.576856E+0
5.447720E+2	1.560241E+0	1.422932E+0	1.438693E+0	1.442384E+0	1.574628E+0	1.382581E+0	1.405041E+0	1.328773E+0	1.493148E+0	1.456660E+0	1.520927E+0	1.424614E+0	1.363369E+0	1.512722E+0	1.530586E+0	1.563735E+0	1.292684E+0	1.387168E+0	1.393968E+0	1.560999E+0	1.564559E+0	1.350420E+0	1.382920E+0	1.433750E+0	1.477030E+0	1.466713E+0	1.405022E+0	1.483562E+0	1.436574E+0	1.486862E+0	1.477621E+0	1.556255E+0	1.547273E+0	1.433640E+0	1.419532E+0	1.469870E+0	1.584049E+0	1.357890E+0	1.311462E+0	1.358118E+0	1.504285E+0	1.463406E+0	1.420447E+0	1.382213E+0	1.456913E+0	1.547630E+0	1.509552E+0	1.576512E+0	1.550883E+0	1.403259E+0	1.474760E+0	1.440169E+0	1.519746E+0	1.471257E+0	1.379858E+0	1.409690E+0	1.522783E+0	1.494958E+0	1.468357E+0	1.406014E+0	1.488184E+0	1.531584E+0	1.535069E+0	1.524351E+0	1.485928E+0	1.456748E+0	1.461022E+0	1.448702E+0	1.562978E+0	1.449173E+0	1.407339E+0	1.400566E+0	1.482091E+0	1.460397E+0	1.418163E+0	1.406336E+0	1.439158E+0	1.557193E+0	1.532793E+0	1.495758E+0	1.528642E+0	1.384960E+0	1.464198E+0	1.164392E+0	1.581743E+0	1.307436E+0	1.388103E+0	1.266973E+0	1.520379E+0	1.434522E+0	1.455581E+0	1.381490E+0	1.458438E+0	1.503089E+0	1.536980E+0	1.514707E+0	1.480686E+0	1.379816E+0	1.382440E+0	1.219074E+0	1.559315E+0	1.331427E+0	1.384270E+0	1.377013E+0	1.534557E+0	1.473297E+0	1.424038E+0	1.548906E+0	1.485429E+0	1.568209E+0	1.514860E+0	1.539587E+0	1.519033E+0	1.492555E+0	1.479118E+0	1.407196E+0	1.526287E+0	1.406622E+0	1.377792E+0	1.351980E+0	1.525050E+0	1.556668E+0	1.504232E+0	1.487163E+0	1.516194E+0	1.540219E+0	1.530294E+0	1.521565E+0	1.502969E+0	1.401892E+0	1.377967E+0	1.464069E+0	1.551010E+0	1.346934E+0	1.353012E+0	1.377700E+0	1.487765E+0	1.429565E+0	1.418882E+0	1.425654E+0	1.501978E+0	1.534375E+0	1.508204E+0	1.549379E+0	1.507711E+0	1.412237E+0	1.406301E+0	1.350050E+0	1.520337E+0	1.428503E+0	1.399316E+0	1.390824E+0	1.475408E+0	1.274704E+0	1.461922E+0	1.543438E+0	1.453493E+0	1.445774E+0	1.562342E+0	1.459191E+0	1.455831E+0	1.414035E+0	1.361474E+0	1.350594E+0	1.581720E+0	1.347769E+0	1.419622E+0	1.437788E+0	1.546128E+0	1.518058E+0	1.552470E+0
5.450150E+2	1.465006E+0	1.294024E+0	1.340494E+0	1.364881E+0	1.458248E+0	1.235409E+0	1.301588E+0	1.255483E+0	1.366856E+0	1.362428E+0	1.405119E+0	1.357498E+0	1.310820E+0	1.406639E+0	1.492353E+0	1.431776E+0	1.155425E+0	1.320590E+0	1.303158E+0	1.470996E+0	1.520288E+0	1.282088E+0	1.359666E+0	1.351708E+0	1.360521E+0	1.435171E+0	1.348342E+0	1.411850E+0	1.350408E+0	1.416600E+0	1.467472E+0	1.502538E+0	1.409564E+0	1.349622E+0	1.335657E+0	1.350517E+0	1.413944E+0	1.319765E+0	1.337571E+0	1.246640E+0	1.346349E+0	1.418411E+0	1.306388E+0	1.318703E+0	1.353954E+0	1.430664E+0	1.499296E+0	1.489823E+0	1.454602E+0	1.365498E+0	1.373334E+0	1.372158E+0	1.515739E+0	1.399556E+0	1.278631E+0	1.306056E+0	1.468745E+0	1.493775E+0	1.383344E+0	1.311517E+0	1.395856E+0	1.455692E+0	1.424687E+0	1.440937E+0	1.433770E+0	1.348187E+0	1.341787E+0	1.355087E+0	1.433866E+0	1.332899E+0	1.324972E+0	1.285935E+0	1.391405E+0	1.405004E+0	1.402894E+0	1.384726E+0	1.404060E+0	1.418002E+0	1.497051E+0	1.503829E+0	1.476420E+0	1.357807E+0	1.374350E+0	1.098167E+0	1.447039E+0	1.247143E+0	1.336623E+0	1.182862E+0	1.410133E+0	1.386292E+0	1.356897E+0	1.377342E+0	1.390463E+0	1.430187E+0	1.489134E+0	1.415314E+0	1.435052E+0	1.282028E+0	1.347796E+0	1.195180E+0	1.456106E+0	1.281898E+0	1.351889E+0	1.269349E+0	1.439309E+0	1.385885E+0	1.357343E+0	1.394476E+0	1.459757E+0	1.466847E+0	1.437560E+0	1.473325E+0	1.369250E+0	1.398773E+0	1.287897E+0	1.269925E+0	1.438830E+0	1.357318E+0	1.287089E+0	1.252987E+0	1.442527E+0	1.471495E+0	1.374111E+0	1.398156E+0	1.392338E+0	1.493557E+0	1.415124E+0	1.447025E+0	1.438988E+0	1.332059E+0	1.400604E+0	1.341150E+0	1.444830E+0	1.270107E+0	1.289398E+0	1.301959E+0	1.428390E+0	1.380746E+0	1.358640E+0	1.357282E+0	1.377957E+0	1.409114E+0	1.447752E+0	1.446884E+0	1.437923E+0	1.301984E+0	1.310123E+0	1.330021E+0	1.432438E+0	1.276289E+0	1.313906E+0	1.314487E+0	1.439491E+0	1.175390E+0	1.347801E+0	1.375200E+0	1.381516E+0	1.380153E+0	1.426769E+0	1.421232E+0	1.378456E+0	1.321656E+0	1.327911E+0	1.377118E+0	1.454264E+0	1.246893E+0	1.352306E+0	1.323400E+0	1.488680E+0	1.399895E+0	1.452483E+0
5.452800E+2	1.395842E+0	1.320171E+0	1.266982E+0	1.240044E+0	1.365682E+0	1.363924E+0	1.256094E+0	1.145555E+0	1.319838E+0	1.316705E+0	1.344318E+0	1.326989E+0	1.290276E+0	1.366920E+0	1.327352E+0	1.329242E+0	1.131024E+0	1.254580E+0	1.228913E+0	1.313630E+0	1.352758E+0	1.246674E+0	1.255019E+0	1.249711E+0	1.282288E+0	1.321506E+0	1.255057E+0	1.368615E+0	1.262792E+0	1.367357E+0	1.305051E+0	1.390303E+0	1.351609E+0	1.205293E+0	1.287311E+0	1.314078E+0	1.384167E+0	1.215039E+0	1.217376E+0	1.200497E+0	1.352222E+0	1.305354E+0	1.271292E+0	1.204498E+0	1.265372E+0	1.348378E+0	1.372960E+0	1.384907E+0	1.314392E+0	1.216168E+0	1.271330E+0	1.331661E+0	1.410599E+0	1.366915E+0	1.205493E+0	1.189188E+0	1.367549E+0	1.374246E+0	1.244433E+0	1.313823E+0	1.313384E+0	1.392363E+0	1.263989E+0	1.335569E+0	1.434953E+0	1.304875E+0	1.247563E+0	1.281000E+0	1.378169E+0	1.253181E+0	1.260576E+0	1.210666E+0	1.318852E+0	1.312309E+0	1.330511E+0	1.327489E+0	1.322165E+0	1.391414E+0	1.329573E+0	1.342854E+0	1.351701E+0	1.245476E+0	1.291125E+0	1.064800E+0	1.391509E+0	1.185359E+0	1.196054E+0	1.138304E+0	1.331022E+0	1.330473E+0	1.297121E+0	1.240444E+0	1.255954E+0	1.347387E+0	1.395007E+0	1.342701E+0	1.317365E+0	1.183142E+0	1.213244E+0	1.145225E+0	1.349116E+0	1.197407E+0	1.270166E+0	1.262954E+0	1.326693E+0	1.265836E+0	1.318389E+0	1.341786E+0	1.274172E+0	1.404787E+0	1.295941E+0	1.387695E+0	1.392438E+0	1.368153E+0	1.270901E+0	1.258535E+0	1.359554E+0	1.310306E+0	1.190810E+0	1.205617E+0	1.337927E+0	1.346930E+0	1.306725E+0	1.283041E+0	1.294877E+0	1.375826E+0	1.335748E+0	1.354225E+0	1.383895E+0	1.205797E+0	1.324798E+0	1.329576E+0	1.412681E+0	1.217881E+0	1.199189E+0	1.271565E+0	1.326769E+0	1.255204E+0	1.233087E+0	1.296319E+0	1.310026E+0	1.346486E+0	1.291635E+0	1.398794E+0	1.324929E+0	1.246857E+0	1.195988E+0	1.213744E+0	1.384805E+0	1.211636E+0	1.261085E+0	1.268401E+0	1.288747E+0	1.319848E+0	1.335410E+0	1.298292E+0	1.304006E+0	1.375550E+0	1.335480E+0	1.320008E+0	1.320424E+0	1.175854E+0	1.285196E+0	1.278095E+0	1.377483E+0	1.182081E+0	1.278713E+0	1.226789E+0	1.399317E+0	1.279049E+0	1.276900E+0
5.455500E+2	1.327740E+0	1.288551E+0	1.242297E+0	1.222887E+0	1.344031E+0	1.345788E+0	1.217636E+0	1.128741E+0	1.241106E+0	1.287710E+0	1.253410E+0	1.260889E+0	1.195691E+0	1.336608E+0	1.320810E+0	1.341725E+0	1.042057E+0	1.327476E+0	1.196931E+0	1.309210E+0	1.278803E+0	1.335458E+0	1.203963E+0	1.225320E+0	1.250770E+0	1.354139E+0	1.172400E+0	1.284779E+0	1.250760E+0	1.310308E+0	1.335506E+0	1.282433E+0	1.306532E+0	1.325913E+0	1.247844E+0	1.224831E+0	1.359429E+0	1.373651E+0	1.159247E+0	1.135570E+0	1.259457E+0	1.354962E+0	1.199933E+0	1.256797E+0	1.271702E+0	1.325455E+0	1.288200E+0	1.334671E+0	1.342675E+0	1.226466E+0	1.228105E+0	1.276108E+0	1.326988E+0	1.288260E+0	1.148340E+0	1.184778E+0	1.291404E+0	1.329273E+0	1.202760E+0	1.214139E+0	1.275002E+0	1.308618E+0	1.319949E+0	1.289228E+0	1.282623E+0	1.263813E+0	1.226042E+0	1.228162E+0	1.352855E+0	1.245059E+0	1.209161E+0	1.157890E+0	1.285030E+0	1.284611E+0	1.176128E+0	1.259157E+0	1.273240E+0	1.343455E+0	1.291279E+0	1.298707E+0	1.258316E+0	1.180526E+0	1.217816E+0	9.596491E-1	1.342031E+0	1.158949E+0	1.190609E+0	1.120570E+0	1.252928E+0	1.250810E+0	1.254831E+0	1.195405E+0	1.238116E+0	1.339574E+0	1.288913E+0	1.272660E+0	1.297549E+0	1.165561E+0	1.180328E+0	1.075722E+0	1.306968E+0	1.159049E+0	1.179706E+0	1.179276E+0	1.280193E+0	1.275161E+0	1.275306E+0	1.312111E+0	1.296098E+0	1.374279E+0	1.312021E+0	1.353038E+0	1.339794E+0	1.349654E+0	1.201846E+0	1.135507E+0	1.301246E+0	1.270178E+0	1.210064E+0	1.081042E+0	1.256457E+0	1.262291E+0	1.240498E+0	1.260492E+0	1.263914E+0	1.343820E+0	1.332116E+0	1.315687E+0	1.295622E+0	1.177306E+0	1.172138E+0	1.209411E+0	1.316242E+0	1.156622E+0	1.215875E+0	1.162536E+0	1.255976E+0	1.222075E+0	1.206063E+0	1.258147E+0	1.272460E+0	1.314366E+0	1.281072E+0	1.284160E+0	1.267325E+0	1.185179E+0	1.182083E+0	1.228208E+0	1.319986E+0	1.183638E+0	1.158256E+0	1.206032E+0	1.271670E+0	1.274705E+0	1.284286E+0	1.242415E+0	1.258604E+0	1.256976E+0	1.294971E+0	1.290654E+0	1.209050E+0	1.176410E+0	1.170474E+0	1.187326E+0	1.336534E+0	1.111521E+0	1.210252E+0	1.150331E+0	1.319072E+0	1.249508E+0	1.374446E+0
5.457720E+2	1.275599E+0	1.292808E+0	1.220834E+0	1.166682E+0	1.283403E+0	1.335422E+0	1.179181E+0	1.103738E+0	1.244388E+0	1.235856E+0	1.215193E+0	1.160721E+0	1.178492E+0	1.263964E+0	1.256924E+0	1.277082E+0	1.036973E+0	1.299927E+0	1.159237E+0	1.253444E+0	1.295908E+0	1.267122E+0	1.189300E+0	1.133522E+0	1.211933E+0	1.268754E+0	1.143471E+0	1.211486E+0	1.187215E+0	1.327123E+0	1.292643E+0	1.326107E+0	1.273343E+0	1.293952E+0	1.164958E+0	1.216379E+0	1.263024E+0	1.277062E+0	1.122301E+0	1.119647E+0	1.276482E+0	1.322082E+0	1.145537E+0	1.146859E+0	1.191174E+0	1.271970E+0	1.321673E+0	1.266211E+0	1.227137E+0	1.177833E+0	1.244818E+0	1.215364E+0	1.302452E+0	1.303244E+0	1.147374E+0	1.150823E+0	1.247188E+0	1.269509E+0	1.169976E+0	1.188210E+0	1.262553E+0	1.315421E+0	1.274771E+0	1.258496E+0	1.233426E+0	1.254814E+0	1.221390E+0	1.139143E+0	1.280455E+0	1.258262E+0	1.185199E+0	1.060560E+0	1.215422E+0	1.293090E+0	1.223065E+0	1.205424E+0	1.171669E+0	1.286631E+0	1.266257E+0	1.266405E+0	1.225754E+0	1.323737E+0	1.161045E+0	1.162875E+0	1.283198E+0	1.277541E+0	1.149526E+0	1.107384E+0	1.220262E+0	1.307171E+0	1.207464E+0	1.169922E+0	1.187014E+0	1.313015E+0	1.296197E+0	1.289142E+0	1.245310E+0	1.188636E+0	1.208624E+0	1.058346E+0	1.253474E+0	1.140111E+0	1.121627E+0	1.182474E+0	1.260021E+0	1.213390E+0	1.141328E+0	1.249734E+0	1.247966E+0	1.265158E+0	1.275534E+0	1.280149E+0	1.248294E+0	1.274375E+0	1.156696E+0	1.109876E+0	1.316590E+0	1.159532E+0	1.204994E+0	1.097619E+0	1.244367E+0	1.257500E+0	1.189960E+0	1.214209E+0	1.222287E+0	1.285226E+0	1.266748E+0	1.257877E+0	1.263629E+0	1.135962E+0	1.217410E+0	1.179645E+0	1.276791E+0	1.165158E+0	1.094902E+0	1.165432E+0	1.297652E+0	1.229631E+0	1.187484E+0	1.211997E+0	1.225634E+0	1.289742E+0	1.241750E+0	1.295820E+0	1.248493E+0	1.150248E+0	1.208154E+0	1.138078E+0	1.271371E+0	1.106768E+0	1.116111E+0	1.152039E+0	1.213964E+0	1.195705E+0	1.166553E+0	1.229796E+0	1.268017E+0	1.271942E+0	1.269043E+0	1.270408E+0	1.251840E+0	1.171402E+0	1.210138E+0	1.176716E+0	1.300701E+0	1.100544E+0	1.170888E+0	1.110620E+0	1.248858E+0	1.229366E+0	1.267143E+0
5.460160E+2	1.171318E+0	1.185789E+0	1.159126E+0	1.161357E+0	1.181094E+0	1.234373E+0	1.181346E+0	1.086924E+0	1.219784E+0	1.218572E+0	1.239513E+0	1.163264E+0	1.154128E+0	1.249854E+0	1.254913E+0	1.207986E+0	9.724089E-1	1.293039E+0	1.096415E+0	1.222523E+0	1.236545E+0	1.305530E+0	1.126107E+0	1.144609E+0	1.150584E+0	1.265493E+0	1.098008E+0	1.186177E+0	1.146780E+0	1.248455E+0	1.235682E+0	1.210377E+0	1.209937E+0	1.235703E+0	1.162492E+0	1.107589E+0	1.195890E+0	1.210464E+0	1.111957E+0	1.058804E+0	1.181368E+0	1.279971E+0	1.174197E+0	1.124978E+0	1.143432E+0	1.269032E+0	1.206679E+0	1.213752E+0	1.190429E+0	1.133778E+0	1.141087E+0	1.149430E+0	1.259895E+0	1.229937E+0	1.126546E+0	1.124362E+0	1.272735E+0	1.262999E+0	1.138860E+0	1.181872E+0	1.193568E+0	1.222257E+0	1.221372E+0	1.260936E+0	1.209125E+0	1.231186E+0	1.142288E+0	1.106406E+0	1.199442E+0	1.193270E+0	1.123801E+0	1.070511E+0	1.169831E+0	1.240525E+0	1.201010E+0	1.155781E+0	1.128064E+0	1.254310E+0	1.216217E+0	1.227639E+0	1.265689E+0	1.245475E+0	1.147266E+0	1.199273E+0	1.218322E+0	1.243658E+0	1.105474E+0	1.031000E+0	1.194233E+0	1.222631E+0	1.191675E+0	1.123104E+0	1.165319E+0	1.303123E+0	1.190105E+0	1.230947E+0	1.182863E+0	1.187536E+0	1.088510E+0	9.600655E-1	1.225919E+0	1.240138E+0	1.110833E+0	1.099861E+0	1.189425E+0	1.212808E+0	1.160214E+0	1.185539E+0	1.171487E+0	1.270327E+0	1.249560E+0	1.229689E+0	1.205676E+0	1.254599E+0	1.152447E+0	1.104750E+0	1.238849E+0	1.272471E+0	1.102130E+0	1.094777E+0	1.210725E+0	1.232479E+0	1.135352E+0	1.172079E+0	1.161374E+0	1.298789E+0	1.226802E+0	1.254835E+0	1.240526E+0	1.207475E+0	1.113706E+0	1.198386E+0	1.253899E+0	1.259058E+0	1.081866E+0	1.105608E+0	1.168627E+0	1.247069E+0	1.136250E+0	1.171545E+0	1.207620E+0	1.230323E+0	1.224729E+0	1.244328E+0	1.216367E+0	1.160071E+0	1.144423E+0	1.125281E+0	1.209992E+0	1.205525E+0	1.107121E+0	1.156227E+0	1.224563E+0	1.237462E+0	1.166555E+0	1.202759E+0	1.186632E+0	1.202295E+0	1.269581E+0	1.204108E+0	1.204361E+0	1.188096E+0	1.141793E+0	1.150782E+0	1.250026E+0	1.072842E+0	1.107564E+0	1.108842E+0	1.205088E+0	1.217282E+0	1.191546E+0
5.467710E+2	1.308053E+0	1.245987E+0	1.189712E+0	1.192121E+0	1.307221E+0	1.343195E+0	1.200846E+0	1.123138E+0	1.256965E+0	1.257045E+0	1.269623E+0	1.205975E+0	1.164159E+0	1.286436E+0	1.279563E+0	1.319436E+0	1.058324E+0	1.323459E+0	1.143817E+0	1.295406E+0	1.291379E+0	1.276100E+0	1.117008E+0	1.176095E+0	1.168594E+0	1.249175E+0	1.168268E+0	1.256830E+0	1.202621E+0	1.253259E+0	1.327609E+0	1.337462E+0	1.222820E+0	1.316116E+0	1.194067E+0	1.200009E+0	1.208509E+0	1.268927E+0	1.139050E+0	1.113111E+0	1.245952E+0	1.277664E+0	1.145537E+0	1.155398E+0	1.220508E+0	1.343088E+0	1.259588E+0	1.335116E+0	1.271669E+0	1.171540E+0	1.156646E+0	1.194596E+0	1.253887E+0	1.322504E+0	1.163840E+0	1.142441E+0	1.318421E+0	1.181340E+0	1.209983E+0	1.184753E+0	1.216391E+0	1.276688E+0	1.279904E+0	1.253618E+0	1.304554E+0	1.262125E+0	1.183585E+0	1.166136E+0	1.269315E+0	1.315636E+0	1.159240E+0	1.118525E+0	1.208068E+0	1.343396E+0	1.205534E+0	1.142932E+0	1.229633E+0	1.269426E+0	1.225409E+0	1.264248E+0	1.291492E+0	1.253992E+0	1.162699E+0	1.164896E+0	1.312341E+0	1.311421E+0	1.151507E+0	1.106932E+0	1.243742E+0	1.347273E+0	1.195622E+0	1.180589E+0	1.254024E+0	1.280730E+0	1.293076E+0	1.271118E+0	1.259719E+0	1.256756E+0	1.137595E+0	9.959027E-1	1.266442E+0	1.275100E+0	1.139616E+0	1.156357E+0	1.278509E+0	1.298471E+0	1.223366E+0	1.313930E+0	1.186461E+0	1.304978E+0	1.273060E+0	1.319397E+0	1.231371E+0	1.276926E+0	1.190692E+0	1.121267E+0	1.331936E+0	1.338401E+0	1.196887E+0	1.082936E+0	1.260659E+0	1.260162E+0	1.271288E+0	1.191068E+0	1.221275E+0	1.233685E+0	1.272975E+0	1.232017E+0	1.268962E+0	1.244906E+0	1.208462E+0	1.199490E+0	1.297247E+0	1.287680E+0	1.156431E+0	1.116223E+0	1.294225E+0	1.264503E+0	1.128367E+0	1.192056E+0	1.237982E+0	1.263514E+0	1.272855E+0	1.231214E+0	1.297789E+0	1.286154E+0	1.152535E+0	1.184812E+0	1.214413E+0	1.296651E+0	1.131284E+0	1.164139E+0	1.300523E+0	1.283730E+0	1.230585E+0	1.246619E+0	1.199919E+0	1.332956E+0	1.217190E+0	1.208154E+0	1.223120E+0	1.272683E+0	1.200375E+0	1.174358E+0	1.269993E+0	1.253164E+0	1.194279E+0	1.094023E+0	1.252506E+0	1.233394E+0	1.342743E+0
5.475230E+2	1.389456E+0	1.450904E+0	1.279858E+0	1.251878E+0	1.371098E+0	1.448395E+0	1.246883E+0	1.154177E+0	1.317104E+0	1.347930E+0	1.380798E+0	1.303601E+0	1.276903E+0	1.402454E+0	1.365582E+0	1.338158E+0	1.082727E+0	1.423903E+0	1.212924E+0	1.385410E+0	1.401560E+0	1.400798E+0	1.277771E+0	1.291397E+0	1.326751E+0	1.420485E+0	1.287530E+0	1.332233E+0	1.281566E+0	1.366757E+0	1.433072E+0	1.430482E+0	1.350620E+0	1.377973E+0	1.264618E+0	1.311965E+0	1.395271E+0	1.457023E+0	1.259247E+0	1.211929E+0	1.336369E+0	1.408606E+0	1.302880E+0	1.255196E+0	1.325768E+0	1.433603E+0	1.363244E+0	1.440475E+0	1.364338E+0	1.263657E+0	1.283430E+0	1.322316E+0	1.472181E+0	1.417748E+0	1.253930E+0	1.220941E+0	1.330703E+0	1.406199E+0	1.315000E+0	1.280978E+0	1.354363E+0	1.410678E+0	1.335866E+0	1.438985E+0	1.411839E+0	1.390937E+0	1.285951E+0	1.278130E+0	1.400449E+0	1.412110E+0	1.307002E+0	1.239212E+0	1.352678E+0	1.392569E+0	1.333339E+0	1.329826E+0	1.337055E+0	1.427906E+0	1.406165E+0	1.397234E+0	1.384262E+0	1.386026E+0	1.302149E+0	1.300381E+0	1.425050E+0	1.397122E+0	1.246538E+0	1.187407E+0	1.349397E+0	1.409593E+0	1.332649E+0	1.252890E+0	1.344661E+0	1.397898E+0	1.444932E+0	1.383385E+0	1.323367E+0	1.374323E+0	1.233454E+0	1.158800E+0	1.361547E+0	1.378041E+0	1.231618E+0	1.251229E+0	1.351348E+0	1.378890E+0	1.268222E+0	1.359352E+0	1.325514E+0	1.422372E+0	1.317587E+0	1.445293E+0	1.379903E+0	1.435139E+0	1.317641E+0	1.221513E+0	1.434741E+0	1.376808E+0	1.222733E+0	1.188090E+0	1.342657E+0	1.387387E+0	1.328798E+0	1.307962E+0	1.313660E+0	1.425201E+0	1.393333E+0	1.385663E+0	1.375006E+0	1.397426E+0	1.282684E+0	1.338946E+0	1.424374E+0	1.339905E+0	1.208576E+0	1.226217E+0	1.342182E+0	1.449326E+0	1.274751E+0	1.259287E+0	1.332157E+0	1.381814E+0	1.411952E+0	1.392966E+0	1.365363E+0	1.377849E+0	1.259720E+0	1.300535E+0	1.372040E+0	1.344504E+0	1.232988E+0	1.255369E+0	1.331733E+0	1.411827E+0	1.349352E+0	1.317522E+0	1.323936E+0	1.377850E+0	1.357087E+0	1.406049E+0	1.366733E+0	1.404019E+0	1.235768E+0	1.302850E+0	1.403077E+0	1.379128E+0	1.244481E+0	1.258203E+0	1.392022E+0	1.403925E+0	1.384200E+0
5.482600E+2	1.486286E+0	1.501373E+0	1.416690E+0	1.433510E+0	1.549185E+0	1.538042E+0	1.360086E+0	1.251606E+0	1.447224E+0	1.494017E+0	1.504135E+0	1.471394E+0	1.382475E+0	1.610976E+0	1.485311E+0	1.477695E+0	1.237780E+0	1.507126E+0	1.396823E+0	1.510752E+0	1.485069E+0	1.451173E+0	1.379888E+0	1.436855E+0	1.451701E+0	1.465080E+0	1.373729E+0	1.447179E+0	1.347519E+0	1.566732E+0	1.471418E+0	1.519571E+0	1.434331E+0	1.514569E+0	1.427916E+0	1.455081E+0	1.469974E+0	1.558189E+0	1.305058E+0	1.320551E+0	1.435593E+0	1.493977E+0	1.384184E+0	1.377944E+0	1.443106E+0	1.480622E+0	1.509015E+0	1.508939E+0	1.461822E+0	1.401544E+0	1.436149E+0	1.449516E+0	1.505224E+0	1.471256E+0	1.347406E+0	1.331192E+0	1.517379E+0	1.514484E+0	1.418906E+0	1.382969E+0	1.450838E+0	1.492855E+0	1.447787E+0	1.509230E+0	1.497785E+0	1.487687E+0	1.355167E+0	1.393565E+0	1.570067E+0	1.495382E+0	1.340448E+0	1.305833E+0	1.420326E+0	1.447960E+0	1.444743E+0	1.388231E+0	1.450856E+0	1.494112E+0	1.488882E+0	1.452145E+0	1.426039E+0	1.538818E+0	1.427818E+0	1.446480E+0	1.492674E+0	1.517707E+0	1.360386E+0	1.284708E+0	1.456069E+0	1.535320E+0	1.409904E+0	1.366673E+0	1.434331E+0	1.528085E+0	1.554661E+0	1.485352E+0	1.451863E+0	1.423766E+0	1.327006E+0	1.225587E+0	1.517164E+0	1.464957E+0	1.345207E+0	1.333309E+0	1.443791E+0	1.529238E+0	1.423447E+0	1.471997E+0	1.469918E+0	1.510288E+0	1.553822E+0	1.497282E+0	1.475165E+0	1.552519E+0	1.396255E+0	1.349665E+0	1.465934E+0	1.496055E+0	1.363096E+0	1.343929E+0	1.456715E+0	1.558264E+0	1.431039E+0	1.398156E+0	1.447161E+0	1.496273E+0	1.500723E+0	1.431811E+0	1.457946E+0	1.429272E+0	1.401131E+0	1.417219E+0	1.459928E+0	1.512636E+0	1.299306E+0	1.337659E+0	1.410693E+0	1.483618E+0	1.385663E+0	1.440467E+0	1.410889E+0	1.508145E+0	1.518767E+0	1.522175E+0	1.491650E+0	1.455904E+0	1.328665E+0	1.386212E+0	1.462886E+0	1.523698E+0	1.361668E+0	1.407579E+0	1.448911E+0	1.584499E+0	1.428356E+0	1.433482E+0	1.445739E+0	1.501602E+0	1.491587E+0	1.442490E+0	1.434142E+0	1.489717E+0	1.363306E+0	1.345878E+0	1.543843E+0	1.481051E+0	1.371133E+0	1.360146E+0	1.447645E+0	1.468376E+0	1.511011E+0
5.490490E+2	1.504910E+0	1.522654E+0	1.490743E+0	1.370206E+0	1.494514E+0	1.540118E+0	1.499284E+0	1.274453E+0	1.377792E+0	1.443277E+0	1.537140E+0	1.426650E+0	1.383433E+0	1.555056E+0	1.499396E+0	1.530745E+0	1.224563E+0	1.488187E+0	1.450504E+0	1.526765E+0	1.493621E+0	1.473123E+0	1.376853E+0	1.373438E+0	1.425246E+0	1.545568E+0	1.378454E+0	1.458252E+0	1.360035E+0	1.420803E+0	1.547551E+0	1.520445E+0	1.447707E+0	1.489829E+0	1.420517E+0	1.341540E+0	1.501773E+0	1.512434E+0	1.353334E+0	1.284617E+0	1.445573E+0	1.478401E+0	1.374825E+0	1.319238E+0	1.392492E+0	1.481208E+0	1.547347E+0	1.456037E+0	1.523201E+0	1.377513E+0	1.445947E+0	1.407980E+0	1.498716E+0	1.517271E+0	1.316411E+0	1.341773E+0	1.540466E+0	1.511527E+0	1.398347E+0	1.388732E+0	1.454472E+0	1.479246E+0	1.456005E+0	1.471181E+0	1.447992E+0	1.503436E+0	1.362146E+0	1.354512E+0	1.492600E+0	1.471517E+0	1.350432E+0	1.330487E+0	1.405131E+0	1.489786E+0	1.386497E+0	1.368957E+0	1.430648E+0	1.422695E+0	1.441906E+0	1.421996E+0	1.492392E+0	1.481851E+0	1.373253E+0	1.372166E+0	1.498725E+0	1.495783E+0	1.351473E+0	1.296982E+0	1.416257E+0	1.560251E+0	1.400882E+0	1.342969E+0	1.373588E+0	1.512463E+0	1.457411E+0	1.425102E+0	1.408031E+0	1.483649E+0	1.383019E+0	1.183234E+0	1.460970E+0	1.434852E+0	1.313339E+0	1.377546E+0	1.481329E+0	1.462219E+0	1.333733E+0	1.430209E+0	1.380602E+0	1.485462E+0	1.456113E+0	1.523276E+0	1.423147E+0	1.493190E+0	1.343137E+0	1.341693E+0	1.494063E+0	1.509814E+0	1.300262E+0	1.277140E+0	1.446731E+0	1.476286E+0	1.350873E+0	1.386884E+0	1.457313E+0	1.488677E+0	1.465447E+0	1.444486E+0	1.451430E+0	1.496871E+0	1.371121E+0	1.403989E+0	1.451649E+0	1.490542E+0	1.345192E+0	1.263364E+0	1.456938E+0	1.547554E+0	1.373840E+0	1.439896E+0	1.409345E+0	1.474420E+0	1.508788E+0	1.499832E+0	1.401919E+0	1.489744E+0	1.383707E+0	1.366741E+0	1.451099E+0	1.540496E+0	1.315028E+0	1.318672E+0	1.403569E+0	1.468822E+0	1.406668E+0	1.386619E+0	1.405324E+0	1.525201E+0	1.430008E+0	1.509806E+0	1.449381E+0	1.505858E+0	1.353541E+0	1.431342E+0	1.535143E+0	1.446557E+0	1.374553E+0	1.318656E+0	1.492328E+0	1.405267E+0	1.432975E+0
5.497960E+2	1.456493E+0	1.390705E+0	1.432789E+0	1.345357E+0	1.400866E+0	1.413154E+0	1.447829E+0	1.275744E+0	1.313824E+0	1.448296E+0	1.426542E+0	1.291397E+0	1.291712E+0	1.443740E+0	1.423434E+0	1.428211E+0	1.198635E+0	1.452601E+0	1.476206E+0	1.468788E+0	1.403067E+0	1.490080E+0	1.433981E+0	1.370776E+0	1.353203E+0	1.395470E+0	1.303471E+0	1.362815E+0	1.318637E+0	1.428612E+0	1.445478E+0	1.453627E+0	1.391733E+0	1.418178E+0	1.470839E+0	1.386957E+0	1.370031E+0	1.440754E+0	1.456782E+0	1.216831E+0	1.390386E+0	1.433988E+0	1.405824E+0	1.296287E+0	1.322319E+0	1.424786E+0	1.406975E+0	1.398688E+0	1.316198E+0	1.368359E+0	1.436150E+0	1.376311E+0	1.394076E+0	1.422565E+0	1.379377E+0	1.311347E+0	1.400461E+0	1.435786E+0	1.367227E+0	1.378357E+0	1.356437E+0	1.416438E+0	1.400040E+0	1.407764E+0	1.424286E+0	1.399938E+0	1.406930E+0	1.343028E+0	1.471840E+0	1.418709E+0	1.379386E+0	1.294154E+0	1.351207E+0	1.377874E+0	1.368397E+0	1.326906E+0	1.334929E+0	1.413312E+0	1.447524E+0	1.396156E+0	1.444472E+0	1.453636E+0	1.330810E+0	1.294311E+0	1.393160E+0	1.493791E+0	1.302471E+0	1.211505E+0	1.381040E+0	1.431271E+0	1.324753E+0	1.297336E+0	1.408780E+0	1.411959E+0	1.452731E+0	1.431792E+0	1.353992E+0	1.375424E+0	1.335089E+0	1.115360E+0	1.450164E+0	1.402320E+0	1.256801E+0	1.284806E+0	1.402330E+0	1.442992E+0	1.318981E+0	1.405379E+0	1.372577E+0	1.434266E+0	1.404784E+0	1.433572E+0	1.393066E+0	1.407705E+0	1.284179E+0	1.302394E+0	1.432181E+0	1.405476E+0	1.260230E+0	1.212723E+0	1.363685E+0	1.432102E+0	1.377595E+0	1.386884E+0	1.389801E+0	1.465891E+0	1.414087E+0	1.423697E+0	1.370859E+0	1.439886E+0	1.271104E+0	1.311387E+0	1.431192E+0	1.382084E+0	1.270106E+0	1.272048E+0	1.429531E+0	1.443517E+0	1.341185E+0	1.346459E+0	1.427873E+0	1.388774E+0	1.452446E+0	1.457087E+0	1.385857E+0	1.394769E+0	1.288110E+0	1.335027E+0	1.392170E+0	1.469228E+0	1.285246E+0	1.337292E+0	1.386492E+0	1.477285E+0	1.329214E+0	1.385417E+0	1.367675E+0	1.424473E+0	1.403000E+0	1.449578E+0	1.335665E+0	1.393444E+0	1.291297E+0	1.307566E+0	1.441981E+0	1.409445E+0	1.248477E+0	1.254053E+0	1.420290E+0	1.532828E+0	1.379323E+0
5.505110E+2	1.383603E+0	1.360910E+0	1.398984E+0	1.249511E+0	1.379755E+0	1.281530E+0	1.357919E+0	1.155038E+0	1.272818E+0	1.379155E+0	1.391800E+0	1.257330E+0	1.238684E+0	1.397229E+0	1.380173E+0	1.312749E+0	1.084251E+0	1.350434E+0	1.426519E+0	1.316389E+0	1.379422E+0	1.337451E+0	1.332367E+0	1.259466E+0	1.276097E+0	1.379699E+0	1.298156E+0	1.319581E+0	1.260869E+0	1.346940E+0	1.365958E+0	1.332657E+0	1.324861E+0	1.387765E+0	1.357858E+0	1.304574E+0	1.359434E+0	1.384324E+0	1.329197E+0	1.135571E+0	1.284704E+0	1.367649E+0	1.385938E+0	1.235450E+0	1.279177E+0	1.364247E+0	1.381600E+0	1.379574E+0	1.331846E+0	1.232761E+0	1.383131E+0	1.288049E+0	1.365039E+0	1.354609E+0	1.393421E+0	1.233289E+0	1.363127E+0	1.388448E+0	1.327226E+0	1.339751E+0	1.293156E+0	1.390791E+0	1.388744E+0	1.340935E+0	1.325301E+0	1.350999E+0	1.410422E+0	1.236777E+0	1.369060E+0	1.370474E+0	1.369899E+0	1.169570E+0	1.303656E+0	1.388050E+0	1.332209E+0	1.257989E+0	1.257820E+0	1.384118E+0	1.365824E+0	1.297630E+0	1.350471E+0	1.346626E+0	1.425061E+0	1.289259E+0	1.356874E+0	1.381180E+0	1.416809E+0	1.220143E+0	1.296314E+0	1.361361E+0	1.422876E+0	1.225036E+0	1.315736E+0	1.398940E+0	1.399687E+0	1.312831E+0	1.305354E+0	1.340813E+0	1.322386E+0	1.052374E+0	1.364788E+0	1.353277E+0	1.278904E+0	1.228844E+0	1.342942E+0	1.373062E+0	1.292420E+0	1.392055E+0	1.290217E+0	1.393413E+0	1.354073E+0	1.349468E+0	1.373009E+0	1.347739E+0	1.242215E+0	1.172529E+0	1.415302E+0	1.338972E+0	1.245535E+0	1.182410E+0	1.333723E+0	1.410276E+0	1.298591E+0	1.271174E+0	1.261881E+0	1.407835E+0	1.380884E+0	1.330393E+0	1.319319E+0	1.345467E+0	1.244784E+0	1.278863E+0	1.337672E+0	1.357980E+0	1.194495E+0	1.211260E+0	1.334189E+0	1.381327E+0	1.274752E+0	1.300878E+0	1.300250E+0	1.372180E+0	1.327436E+0	1.354108E+0	1.384747E+0	1.346739E+0	1.182083E+0	1.220975E+0	1.342083E+0	1.391337E+0	1.249845E+0	1.240477E+0	1.292279E+0	1.377970E+0	1.322503E+0	1.359580E+0	1.310650E+0	1.326625E+0	1.336560E+0	1.351388E+0	1.287010E+0	1.351150E+0	1.260177E+0	1.227406E+0	1.366222E+0	1.350384E+0	1.251327E+0	1.174631E+0	1.307218E+0	1.383782E+0	1.340305E+0
5.512620E+2	1.361258E+0	1.332332E+0	1.422596E+0	1.298026E+0	1.390041E+0	1.382581E+0	1.367667E+0	1.190819E+0	1.294686E+0	1.370232E+0	1.379062E+0	1.279702E+0	1.273557E+0	1.378939E+0	1.407337E+0	1.357328E+0	1.154408E+0	1.351010E+0	1.366551E+0	1.346761E+0	1.339173E+0	1.368376E+0	1.407692E+0	1.247937E+0	1.308742E+0	1.399274E+0	1.311736E+0	1.327488E+0	1.236318E+0	1.336730E+0	1.402617E+0	1.388993E+0	1.347151E+0	1.391889E+0	1.352433E+0	1.267078E+0	1.321073E+0	1.407712E+0	1.379936E+0	1.155987E+0	1.297617E+0	1.374573E+0	1.370147E+0	1.199160E+0	1.338424E+0	1.363659E+0	1.380519E+0	1.311109E+0	1.336657E+0	1.263656E+0	1.344518E+0	1.292203E+0	1.356027E+0	1.393670E+0	1.448635E+0	1.244753E+0	1.352810E+0	1.384896E+0	1.373341E+0	1.260811E+0	1.329464E+0	1.368808E+0	1.341511E+0	1.342400E+0	1.356716E+0	1.318375E+0	1.391228E+0	1.236203E+0	1.358929E+0	1.402970E+0	1.376890E+0	1.189467E+0	1.329638E+0	1.309481E+0	1.355392E+0	1.286608E+0	1.283345E+0	1.358574E+0	1.409736E+0	1.372467E+0	1.365832E+0	1.352485E+0	1.351205E+0	1.236178E+0	1.357424E+0	1.372212E+0	1.399488E+0	1.152852E+0	1.274876E+0	1.386835E+0	1.341671E+0	1.242814E+0	1.292595E+0	1.347906E+0	1.336760E+0	1.396259E+0	1.332977E+0	1.334768E+0	1.349528E+0	1.015993E+0	1.364786E+0	1.331427E+0	1.365252E+0	1.220314E+0	1.325012E+0	1.378891E+0	1.331962E+0	1.295153E+0	1.281124E+0	1.368070E+0	1.386850E+0	1.409104E+0	1.361102E+0	1.367515E+0	1.344200E+0	1.197592E+0	1.342674E+0	1.367636E+0	1.410225E+0	1.168669E+0	1.324260E+0	1.359705E+0	1.426973E+0	1.278296E+0	1.324318E+0	1.399701E+0	1.327446E+0	1.348140E+0	1.347164E+0	1.358318E+0	1.371122E+0	1.263431E+0	1.351797E+0	1.379069E+0	1.345713E+0	1.166396E+0	1.333047E+0	1.379003E+0	1.338934E+0	1.278659E+0	1.286870E+0	1.358796E+0	1.346216E+0	1.344394E+0	1.340992E+0	1.272509E+0	1.289846E+0	1.226539E+0	1.337175E+0	1.313451E+0	1.270075E+0	1.248391E+0	1.321134E+0	1.348627E+0	1.298230E+0	1.316319E+0	1.256390E+0	1.381882E+0	1.324681E+0	1.315454E+0	1.309874E+0	1.392330E+0	1.286416E+0	1.267485E+0	1.373390E+0	1.345158E+0	1.198272E+0	1.210787E+0	1.351899E+0	1.296504E+0	1.386640E+0
5.520210E+2	1.345830E+0	1.295240E+0	1.338348E+0	1.205138E+0	1.309386E+0	1.365996E+0	1.371458E+0	1.121413E+0	1.255323E+0	1.341798E+0	1.329264E+0	1.261395E+0	1.236775E+0	1.381552E+0	1.375646E+0	1.362679E+0	1.083743E+0	1.302795E+0	1.363697E+0	1.295407E+0	1.325590E+0	1.372866E+0	1.322761E+0	1.214677E+0	1.271593E+0	1.374804E+0	1.265094E+0	1.265796E+0	1.227171E+0	1.363753E+0	1.362010E+0	1.359295E+0	1.317431E+0	1.354776E+0	1.310498E+0	1.248593E+0	1.328641E+0	1.386870E+0	1.383879E+0	1.167422E+0	1.328736E+0	1.314582E+0	1.356693E+0	1.206096E+0	1.283205E+0	1.330158E+0	1.363784E+0	1.364014E+0	1.271066E+0	1.236765E+0	1.373910E+0	1.254304E+0	1.300453E+0	1.347653E+0	1.343531E+0	1.189189E+0	1.334143E+0	1.376613E+0	1.371119E+0	1.230274E+0	1.291081E+0	1.359911E+0	1.354860E+0	1.289716E+0	1.314629E+0	1.339189E+0	1.342371E+0	1.216102E+0	1.324502E+0	1.349656E+0	1.348935E+0	1.176060E+0	1.304636E+0	1.352441E+0	1.298841E+0	1.259740E+0	1.197197E+0	1.366393E+0	1.313233E+0	1.372465E+0	1.351085E+0	1.305102E+0	1.338527E+0	1.205843E+0	1.327184E+0	1.308430E+0	1.387110E+0	1.135573E+0	1.269772E+0	1.369493E+0	1.351259E+0	1.179404E+0	1.282951E+0	1.349991E+0	1.297758E+0	1.304591E+0	1.275332E+0	1.325980E+0	1.344327E+0	1.212557E+0	1.318855E+0	1.329967E+0	1.290725E+0	1.218718E+0	1.295319E+0	1.328189E+0	1.329605E+0	1.281831E+0	1.289682E+0	1.281704E+0	1.373244E+0	1.296459E+0	1.304071E+0	1.350291E+0	1.356416E+0	1.155442E+0	1.306363E+0	1.392864E+0	1.341814E+0	1.158249E+0	1.314801E+0	1.328300E+0	1.332864E+0	1.232011E+0	1.261372E+0	1.350871E+0	1.358056E+0	1.298953E+0	1.299178E+0	1.362786E+0	1.247943E+0	1.202244E+0	1.345954E+0	1.349442E+0	1.359273E+0	1.163982E+0	1.273102E+0	1.282523E+0	1.295581E+0	1.264414E+0	1.294591E+0	1.334172E+0	1.320393E+0	1.322049E+0	1.355946E+0	1.324907E+0	1.327508E+0	1.224871E+0	1.336190E+0	1.296650E+0	1.392011E+0	1.183688E+0	1.277561E+0	1.377404E+0	1.316823E+0	1.267051E+0	1.311755E+0	1.361735E+0	1.303075E+0	1.343797E+0	1.258876E+0	1.303849E+0	1.366967E+0	1.259234E+0	1.328854E+0	1.310661E+0	1.377406E+0	1.187078E+0	1.339134E+0	1.340815E+0	1.340305E+0
5.527590E+2	1.338911E+0	1.308010E+0	1.274493E+0	1.207504E+0	1.333204E+0	1.327130E+0	1.327587E+0	1.120120E+0	1.185342E+0	1.228049E+0	1.303207E+0	1.248179E+0	1.195689E+0	1.326153E+0	1.324332E+0	1.297147E+0	1.063916E+0	1.331493E+0	1.298018E+0	1.290991E+0	1.301945E+0	1.274604E+0	1.347535E+0	1.235962E+0	1.241201E+0	1.315527E+0	1.230259E+0	1.268431E+0	1.197325E+0	1.320516E+0	1.360884E+0	1.294664E+0	1.266904E+0	1.318696E+0	1.309017E+0	1.183636E+0	1.290281E+0	1.337554E+0	1.282891E+0	1.120462E+0	1.255346E+0	1.284010E+0	1.342654E+0	1.205031E+0	1.188298E+0	1.331919E+0	1.311414E+0	1.278215E+0	1.229545E+0	1.158953E+0	1.311094E+0	1.172794E+0	1.362033E+0	1.266859E+0	1.344501E+0	1.127890E+0	1.273227E+0	1.347618E+0	1.258324E+0	1.222784E+0	1.263589E+0	1.327460E+0	1.285553E+0	1.299960E+0	1.293883E+0	1.294749E+0	1.290025E+0	1.197149E+0	1.321969E+0	1.295835E+0	1.298517E+0	1.135398E+0	1.272773E+0	1.286873E+0	1.293755E+0	1.243973E+0	1.234952E+0	1.277246E+0	1.334169E+0	1.306245E+0	1.347400E+0	1.287002E+0	1.317582E+0	1.219495E+0	1.331581E+0	1.315406E+0	1.354442E+0	1.136485E+0	1.259052E+0	1.310422E+0	1.325318E+0	1.195405E+0	1.250167E+0	1.305729E+0	1.260832E+0	1.262879E+0	1.286140E+0	1.263352E+0	1.370317E+0	1.254364E+0	1.278331E+0	1.290637E+0	1.277362E+0	1.247498E+0	1.238729E+0	1.320032E+0	1.275895E+0	1.260030E+0	1.252778E+0	1.313769E+0	1.284192E+0	1.247020E+0	1.340421E+0	1.392393E+0	1.315516E+0	1.198161E+0	1.327843E+0	1.325786E+0	1.335227E+0	1.121304E+0	1.212304E+0	1.336285E+0	1.300333E+0	1.302028E+0	1.262899E+0	1.311811E+0	1.321223E+0	1.303517E+0	1.302137E+0	1.286806E+0	1.302163E+0	1.218230E+0	1.324036E+0	1.296216E+0	1.312864E+0	1.174596E+0	1.247982E+0	1.301701E+0	1.280382E+0	1.253589E+0	1.247247E+0	1.266190E+0	1.332720E+0	1.302617E+0	1.243509E+0	1.285063E+0	1.267831E+0	1.205955E+0	1.276285E+0	1.298180E+0	1.290304E+0	1.191603E+0	1.294636E+0	1.303483E+0	1.347287E+0	1.259238E+0	1.238674E+0	1.327773E+0	1.299833E+0	1.297235E+0	1.218429E+0	1.272684E+0	1.284584E+0	1.246267E+0	1.319130E+0	1.274594E+0	1.312942E+0	1.137884E+0	1.299011E+0	1.346185E+0	1.396395E+0
5.535440E+2	1.282515E+0	1.251460E+0	1.249274E+0	1.130592E+0	1.265539E+0	1.263910E+0	1.277216E+0	1.061921E+0	1.154723E+0	1.266524E+0	1.192611E+0	1.113435E+0	1.119256E+0	1.255079E+0	1.299683E+0	1.241420E+0	9.912189E-1	1.227605E+0	1.270605E+0	1.283809E+0	1.201328E+0	1.259143E+0	1.289399E+0	1.161907E+0	1.163530E+0	1.231774E+0	1.191291E+0	1.265794E+0	1.157370E+0	1.207618E+0	1.266700E+0	1.277196E+0	1.234212E+0	1.245497E+0	1.273005E+0	1.156177E+0	1.221130E+0	1.303495E+0	1.256290E+0	1.069826E+0	1.193111E+0	1.235556E+0	1.185896E+0	1.091356E+0	1.199801E+0	1.271970E+0	1.264444E+0	1.267545E+0	1.207881E+0	1.133778E+0	1.238482E+0	1.198233E+0	1.217339E+0	1.224049E+0	1.276694E+0	1.057773E+0	1.207400E+0	1.281343E+0	1.242766E+0	1.103508E+0	1.216389E+0	1.266221E+0	1.229074E+0	1.235567E+0	1.231648E+0	1.215999E+0	1.288859E+0	1.131676E+0	1.206024E+0	1.238458E+0	1.220643E+0	1.057100E+0	1.224737E+0	1.209438E+0	1.212886E+0	1.128331E+0	1.172202E+0	1.287151E+0	1.223880E+0	1.185647E+0	1.234355E+0	1.236427E+0	1.261359E+0	1.134059E+0	1.254612E+0	1.246646E+0	1.265845E+0	1.077376E+0	1.160034E+0	1.254605E+0	1.231712E+0	1.184737E+0	1.121446E+0	1.245842E+0	1.239509E+0	1.241248E+0	1.175057E+0	1.247418E+0	1.246161E+0	1.176174E+0	1.323719E+0	1.224112E+0	1.233673E+0	1.144633E+0	1.219120E+0	1.225045E+0	1.230449E+0	1.198256E+0	1.171485E+0	1.244990E+0	1.273678E+0	1.224084E+0	1.245160E+0	1.239288E+0	1.229468E+0	1.099054E+0	1.225550E+0	1.271323E+0	1.246043E+0	1.068253E+0	1.194432E+0	1.242594E+0	1.252118E+0	1.170300E+0	1.226350E+0	1.309097E+0	1.248073E+0	1.207169E+0	1.229269E+0	1.252168E+0	1.262681E+0	1.195630E+0	1.294811E+0	1.260562E+0	1.266975E+0	1.100302E+0	1.176619E+0	1.252881E+0	1.251104E+0	1.184648E+0	1.212768E+0	1.271542E+0	1.330956E+0	1.265702E+0	1.211383E+0	1.197186E+0	1.202361E+0	1.139747E+0	1.241419E+0	1.250325E+0	1.250971E+0	1.075702E+0	1.262837E+0	1.265111E+0	1.219226E+0	1.192544E+0	1.208777E+0	1.255251E+0	1.242578E+0	1.272432E+0	1.191465E+0	1.235954E+0	1.274211E+0	1.118954E+0	1.268455E+0	1.219190E+0	1.225084E+0	1.124844E+0	1.227885E+0	1.280391E+0	1.225687E+0
5.542580E+2	1.162805E+0	1.111606E+0	1.129076E+0	1.168456E+0	1.142661E+0	1.186179E+0	1.158599E+0	1.145985E+0	1.051939E+0	1.159468E+0	1.178713E+0	1.146484E+0	1.066228E+0	1.136972E+0	1.139711E+0	1.092077E+0	9.434316E-1	1.139788E+0	1.150671E+0	1.130864E+0	1.163092E+0	1.150906E+0	1.126615E+0	1.099375E+0	1.081917E+0	1.148567E+0	1.073802E+0	1.121321E+0	1.057722E+0	1.161377E+0	1.128533E+0	1.127838E+0	1.079661E+0	1.097562E+0	1.125491E+0	1.056892E+0	1.092417E+0	1.176405E+0	1.154321E+0	9.995905E-1	1.099171E+0	1.150185E+0	1.151972E+0	1.080683E+0	1.088214E+0	1.124443E+0	1.170504E+0	1.099946E+0	1.132059E+0	1.054822E+0	1.151460E+0	1.068437E+0	1.175785E+0	1.160376E+0	1.104750E+0	9.898559E-1	1.145008E+0	1.157670E+0	1.064404E+0	1.054530E+0	1.096571E+0	1.139035E+0	1.115612E+0	1.137033E+0	1.156372E+0	1.131062E+0	1.109136E+0	1.057015E+0	1.153875E+0	1.092226E+0	1.173220E+0	9.878895E-1	1.108067E+0	1.126917E+0	1.083386E+0	1.061749E+0	1.065313E+0	1.166205E+0	1.192730E+0	1.125885E+0	1.125611E+0	1.148050E+0	1.162148E+0	1.064295E+0	1.148497E+0	1.136030E+0	1.153980E+0	9.809875E-1	1.071226E+0	1.194451E+0	1.136412E+0	1.044285E+0	1.066969E+0	1.137004E+0	1.148497E+0	1.073363E+0	1.125221E+0	1.109525E+0	1.142215E+0	1.096356E+0	1.167017E+0	1.170216E+0	1.101066E+0	1.018848E+0	1.127794E+0	1.134720E+0	1.144869E+0	1.097724E+0	1.107840E+0	1.208788E+0	1.154942E+0	1.108890E+0	1.101015E+0	1.103405E+0	1.148198E+0	1.013618E+0	1.090527E+0	1.107935E+0	1.160404E+0	9.749384E-1	1.101923E+0	1.093545E+0	1.144648E+0	1.033822E+0	1.086756E+0	1.124636E+0	1.143797E+0	1.142262E+0	1.100713E+0	1.170042E+0	1.158453E+0	1.054520E+0	1.116542E+0	1.126995E+0	1.114195E+0	1.005745E+0	1.109823E+0	1.148842E+0	1.162148E+0	1.109443E+0	1.107786E+0	1.122194E+0	1.198319E+0	1.136981E+0	1.082881E+0	1.100032E+0	1.103287E+0	1.051286E+0	1.130931E+0	1.156148E+0	1.135779E+0	1.003089E+0	1.067342E+0	1.114447E+0	1.141251E+0	1.082589E+0	1.092510E+0	1.149916E+0	1.125904E+0	1.096301E+0	1.091230E+0	1.149698E+0	1.130199E+0	1.084178E+0	1.128713E+0	1.085386E+0	1.148639E+0	1.019936E+0	1.100223E+0	1.091064E+0	1.215933E+0
5.550250E+2	1.042564E+0	1.003980E+0	1.038391E+0	1.048945E+0	1.100979E+0	1.031752E+0	1.071938E+0	1.066663E+0	9.781309E-1	1.035685E+0	1.019477E+0	1.034114E+0	9.372454E-1	1.060670E+0	1.035077E+0	1.029221E+0	8.544661E-1	1.069190E+0	1.045585E+0	1.029817E+0	1.001098E+0	1.046659E+0	1.055333E+0	1.040397E+0	9.918647E-1	1.065360E+0	9.692993E-1	1.046448E+0	9.633710E-1	1.034666E+0	1.066495E+0	1.013856E+0	1.004863E+0	1.077460E+0	1.030274E+0	1.037880E+0	9.667321E-1	1.003050E+0	1.040035E+0	1.059619E+0	9.993594E-1	1.071159E+0	9.776670E-1	1.031584E+0	9.887055E-1	1.090942E+0	1.059829E+0	1.045709E+0	1.038184E+0	1.010767E+0	1.047151E+0	1.037287E+0	9.970417E-1	1.061388E+0	1.046145E+0	1.031311E+0	1.009914E+0	1.025122E+0	9.893925E-1	1.023991E+0	1.044183E+0	1.007137E+0	1.026277E+0	1.019956E+0	1.047310E+0	1.021937E+0	1.046319E+0	9.944135E-1	9.857771E-1	1.034850E+0	1.068888E+0	9.502544E-1	1.029144E+0	1.034221E+0	9.883817E-1	9.636301E-1	9.467244E-1	1.041089E+0	1.021678E+0	1.058586E+0	1.044514E+0	1.063402E+0	1.018840E+0	9.859369E-1	1.053931E+0	1.058298E+0	1.042613E+0	8.977817E-1	1.012018E+0	1.036210E+0	1.074948E+0	9.873930E-1	9.768138E-1	9.948399E-1	1.093894E+0	9.981744E-1	1.038756E+0	1.007891E+0	1.041158E+0	9.948167E-1	1.029228E+0	1.050277E+0	1.029110E+0	9.687480E-1	1.014058E+0	1.029826E+0	1.006171E+0	1.042613E+0	9.634371E-1	1.024165E+0	1.045482E+0	1.017654E+0	1.060904E+0	1.077888E+0	1.022309E+0	9.333077E-1	1.048077E+0	1.037993E+0	1.046389E+0	8.697827E-1	1.043053E+0	1.003048E+0	1.051701E+0	1.013648E+0	9.958929E-1	1.055191E+0	1.067017E+0	1.024110E+0	9.958531E-1	1.036517E+0	1.045272E+0	1.003258E+0	1.009388E+0	1.056194E+0	1.108458E+0	9.493012E-1	9.876474E-1	1.029113E+0	1.025336E+0	9.407984E-1	1.001778E+0	1.030658E+0	9.858611E-1	9.713412E-1	1.032477E+0	1.059643E+0	1.051723E+0	9.822974E-1	1.043525E+0	1.019206E+0	1.067787E+0	9.085995E-1	9.907930E-1	1.061404E+0	1.026617E+0	1.005681E+0	9.862091E-1	1.070484E+0	1.022195E+0	1.012283E+0	1.022648E+0	1.040068E+0	1.092366E+0	9.786742E-1	1.057561E+0	1.021620E+0	1.060213E+0	9.280676E-1	1.007212E+0	1.031982E+0	9.891369E-1
5.557550E+2	9.824424E-1	9.674958E-1	9.536089E-1	9.998386E-1	9.488701E-1	9.654217E-1	1.040524E+0	9.877728E-1	9.398599E-1	9.464723E-1	9.870507E-1	9.944533E-1	8.823079E-1	9.645100E-1	1.012439E+0	9.908806E-1	8.966612E-1	9.681701E-1	1.018171E+0	9.552743E-1	9.618564E-1	9.942866E-1	9.415876E-1	1.004475E+0	9.198213E-1	9.962918E-1	9.391878E-1	9.916117E-1	8.935701E-1	1.010646E+0	1.005589E+0	9.776094E-1	9.449260E-1	9.846770E-1	9.745248E-1	9.850693E-1	9.637035E-1	9.801735E-1	1.018361E+0	9.767235E-1	9.700033E-1	9.834814E-1	9.308734E-1	9.558015E-1	9.053027E-1	9.816194E-1	1.019338E+0	9.959196E-1	9.045934E-1	9.077803E-1	1.014878E+0	9.635630E-1	9.860265E-1	9.704246E-1	9.948041E-1	1.033075E+0	9.391741E-1	9.446462E-1	9.988384E-1	9.375602E-1	9.181414E-1	9.914353E-1	9.641542E-1	9.828819E-1	9.779619E-1	9.533123E-1	1.018401E+0	9.565084E-1	9.553981E-1	9.505633E-1	1.032448E+0	9.558789E-1	9.203203E-1	9.810912E-1	9.250451E-1	9.507811E-1	9.025864E-1	1.001990E+0	9.532563E-1	1.040281E+0	9.775475E-1	9.894005E-1	9.449818E-1	9.783543E-1	9.901538E-1	9.960139E-1	9.965822E-1	9.496150E-1	9.625086E-1	9.955660E-1	1.007279E+0	9.820593E-1	9.363180E-1	9.750515E-1	9.555592E-1	9.863294E-1	9.534926E-1	9.936074E-1	1.009397E+0	9.133686E-1	9.789756E-1	9.385969E-1	1.032194E+0	9.277080E-1	9.367393E-1	9.628102E-1	9.754794E-1	9.566159E-1	9.292085E-1	1.010719E+0	9.521006E-1	9.427279E-1	9.374421E-1	9.432814E-1	9.734412E-1	8.689461E-1	9.918165E-1	9.777978E-1	9.658185E-1	8.247840E-1	9.621071E-1	9.764326E-1	9.622401E-1	9.032795E-1	9.639135E-1	1.010703E+0	9.679298E-1	9.759360E-1	9.176527E-1	9.934989E-1	9.705207E-1	9.453796E-1	9.718824E-1	9.442170E-1	9.885285E-1	8.624625E-1	9.493966E-1	9.756422E-1	9.802945E-1	9.368098E-1	9.307611E-1	9.872990E-1	9.418436E-1	9.820277E-1	9.427486E-1	9.821373E-1	9.381645E-1	9.077459E-1	9.433502E-1	1.030406E+0	9.312422E-1	8.606567E-1	9.501627E-1	1.024162E+0	9.915030E-1	9.239655E-1	9.568654E-1	1.004291E+0	9.584579E-1	9.383906E-1	9.435139E-1	9.421242E-1	9.324871E-1	9.421305E-1	1.018148E+0	9.766696E-1	9.392687E-1	8.504233E-1	9.752963E-1	9.473891E-1	1.052542E+0
5.560190E+2	9.691418E-1	9.899943E-1	1.004049E+0	1.005756E+0	9.477882E-1	9.887405E-1	9.565709E-1	9.722528E-1	9.425932E-1	1.007249E+0	9.650467E-1	9.756401E-1	8.765752E-1	9.540582E-1	9.696798E-1	1.016737E+0	9.408903E-1	1.014088E+0	1.018743E+0	9.944785E-1	9.573285E-1	1.014736E+0	1.017418E+0	1.005806E+0	9.282642E-1	9.799766E-1	9.362358E-1	9.346655E-1	9.060858E-1	9.836221E-1	9.813380E-1	9.466011E-1	9.677117E-1	9.831301E-1	9.587380E-1	9.940469E-1	9.778364E-1	9.974577E-1	9.779669E-1	1.012250E+0	9.611964E-1	9.598318E-1	9.887805E-1	9.632728E-1	9.208326E-1	9.410641E-1	9.561712E-1	1.036818E+0	9.370889E-1	9.083522E-1	1.009692E+0	9.827729E-1	1.002549E+0	1.001459E+0	9.754303E-1	9.642793E-1	9.381910E-1	9.440543E-1	1.002172E+0	9.738610E-1	9.705288E-1	9.867251E-1	1.014982E+0	9.604430E-1	9.963361E-1	9.285632E-1	1.013748E+0	9.731633E-1	1.013625E+0	9.774744E-1	1.007987E+0	9.788051E-1	9.433596E-1	9.737430E-1	9.714161E-1	9.525330E-1	9.094995E-1	1.008768E+0	9.425338E-1	9.724445E-1	9.658744E-1	9.782211E-1	9.956907E-1	9.940255E-1	9.775076E-1	9.875427E-1	9.411436E-1	9.737107E-1	9.839453E-1	9.451676E-1	9.864155E-1	1.017618E+0	9.469245E-1	9.995263E-1	9.956032E-1	9.811796E-1	9.486891E-1	1.011187E+0	1.016904E+0	9.812426E-1	9.822173E-1	1.013374E+0	9.530415E-1	9.676820E-1	1.016859E+0	9.354216E-1	9.359360E-1	9.384477E-1	9.538106E-1	1.008650E+0	9.805479E-1	1.011539E+0	9.819394E-1	9.924026E-1	9.357281E-1	9.065382E-1	9.913051E-1	9.686254E-1	9.572038E-1	9.702017E-1	9.521206E-1	9.732384E-1	9.610787E-1	9.863524E-1	9.928469E-1	9.586197E-1	9.798616E-1	9.830354E-1	9.763025E-1	1.007466E+0	9.636772E-1	9.993987E-1	9.621409E-1	9.612901E-1	1.000000E+0	9.637736E-1	9.722328E-1	9.913350E-1	9.881771E-1	9.932149E-1	9.539191E-1	1.010852E+0	9.788184E-1	9.917422E-1	9.499490E-1	1.006153E+0	9.671338E-1	9.550364E-1	1.013571E+0	9.998612E-1	9.739477E-1	9.039444E-1	9.572289E-1	9.778904E-1	1.012675E+0	9.678271E-1	9.048223E-1	1.006017E+0	9.519760E-1	9.662273E-1	9.898222E-1	9.972178E-1	9.941197E-1	8.890832E-1	9.894832E-1	1.010644E+0	9.786326E-1	8.652414E-1	9.570590E-1	1.011840E+0	9.403622E-1
5.565140E+2	9.590330E-1	9.985076E-1	1.026586E+0	9.530993E-1	1.033857E+0	9.633486E-1	1.040524E+0	9.726842E-1	9.141638E-1	9.620844E-1	1.026425E+0	9.822500E-1	9.047608E-1	9.718265E-1	9.852741E-1	9.792906E-1	9.820685E-1	1.020976E+0	9.764802E-1	1.014908E+0	1.014178E+0	1.005260E+0	9.956800E-1	9.973794E-1	9.609086E-1	1.024027E+0	9.911441E-1	1.019557E+0	9.643336E-1	9.806191E-1	9.689311E-1	1.047483E+0	9.756376E-1	9.965323E-1	1.012020E+0	9.945747E-1	1.008627E+0	1.002034E+0	1.022794E+0	1.004492E+0	9.688292E-1	1.047510E+0	1.009252E+0	1.023579E+0	9.409643E-1	1.018648E+0	1.029595E+0	1.020368E+0	9.328764E-1	9.163624E-1	9.975900E-1	1.014443E+0	9.935366E-1	1.012696E+0	1.000617E+0	1.014995E+0	9.583325E-1	1.015654E+0	9.932818E-1	9.819282E-1	9.585992E-1	1.038542E+0	1.037059E+0	9.970283E-1	9.838884E-1	9.949374E-1	1.018401E+0	1.016238E+0	9.852706E-1	9.718889E-1	9.730438E-1	1.006921E+0	9.428697E-1	1.018396E+0	9.793332E-1	1.017946E+0	9.424700E-1	9.962563E-1	9.854249E-1	9.966714E-1	1.020554E+0	1.017617E+0	1.020494E+0	1.023347E+0	1.010496E+0	9.845534E-1	9.985599E-1	1.007357E+0	9.471964E-1	9.706377E-1	1.007843E+0	9.790964E-1	8.996782E-1	1.004213E+0	9.524389E-1	9.415261E-1	9.348787E-1	9.903111E-1	9.972703E-1	1.020337E+0	1.011397E+0	1.000751E+0	1.021400E+0	1.010854E+0	9.647536E-1	1.066539E+0	9.996783E-1	9.893191E-1	1.009967E+0	1.028302E+0	9.984820E-1	9.942081E-1	9.462166E-1	1.009627E+0	1.012748E+0	9.822912E-1	9.928391E-1	9.760781E-1	9.901420E-1	1.054991E+0	9.826064E-1	1.004646E+0	1.034274E+0	9.964393E-1	9.913242E-1	1.036201E+0	1.023958E+0	9.855711E-1	9.804499E-1	9.873535E-1	1.016845E+0	9.779017E-1	1.000133E+0	9.909158E-1	1.052144E+0	9.907897E-1	9.722329E-1	1.025626E+0	9.887396E-1	1.016005E+0	9.672989E-1	9.910463E-1	9.735362E-1	1.001943E+0	9.881665E-1	1.010520E+0	1.012325E+0	9.895303E-1	1.015044E+0	1.027351E+0	1.030701E+0	1.016588E+0	9.890265E-1	9.874827E-1	9.961506E-1	9.900587E-1	9.441315E-1	1.033070E+0	1.048663E+0	9.849542E-1	9.546518E-1	1.031721E+0	1.006324E+0	1.027006E+0	1.009958E+0	9.850325E-1	1.052226E+0	1.063796E+0	9.752964E-1	1.052123E+0	1.013523E+0
5.570440E+2	9.941473E-1	1.002156E+0	1.032488E+0	1.047762E+0	1.016535E+0	9.996233E-1	1.002610E+0	1.023122E+0	9.688362E-1	9.927512E-1	9.847347E-1	1.059028E+0	9.324684E-1	1.001615E+0	1.036586E+0	1.018075E+0	9.993534E-1	1.033029E+0	1.005037E+0	1.023191E+0	9.935513E-1	1.009749E+0	1.041684E+0	1.030639E+0	9.412095E-1	1.014239E+0	9.769740E-1	1.027994E+0	9.489294E-1	9.836220E-1	9.909251E-1	1.018224E+0	9.979287E-1	1.056841E+0	1.021393E+0	1.010418E+0	9.843983E-1	1.009150E+0	1.005553E+0	1.018375E+0	9.482796E-1	1.008285E+0	9.864409E-1	1.034786E+0	9.507423E-1	9.951375E-1	1.003142E+0	9.932514E-1	9.743975E-1	9.152185E-1	1.041965E+0	1.034172E+0	9.830224E-1	1.015906E+0	9.957727E-1	1.006174E+0	1.012862E+0	1.060034E+0	1.031621E+0	9.761664E-1	9.949078E-1	1.009754E+0	9.636411E-1	1.022395E+0	9.844812E-1	1.033187E+0	1.024798E+0	9.616770E-1	1.025270E+0	1.002354E+0	1.029452E+0	1.020330E+0	9.811051E-1	1.051178E+0	1.008740E+0	1.019698E+0	9.924581E-1	1.035876E+0	1.018104E+0	9.552161E-1	9.824623E-1	9.808829E-1	1.010572E+0	1.006664E+0	9.736597E-1	1.019433E+0	1.034198E+0	1.002356E+0	1.037537E+0	1.003153E+0	1.002769E+0	1.017617E+0	9.445136E-1	9.922361E-1	1.034608E+0	1.052762E+0	9.444859E-1	9.908602E-1	1.020370E+0	1.024138E+0	1.008155E+0	1.000266E+0	9.921037E-1	1.010853E+0	1.047675E+0	9.884511E-1	9.955466E-1	9.996142E-1	9.917835E-1	1.004513E+0	1.021982E+0	1.009499E+0	1.049624E+0	1.014093E+0	9.957506E-1	1.026718E+0	1.070069E+0	9.932770E-1	1.001797E+0	9.839380E-1	9.684149E-1	1.021680E+0	9.860579E-1	1.012461E+0	9.268578E-1	9.998522E-1	1.020327E+0	1.046421E+0	9.662315E-1	9.985269E-1	1.045799E+0	1.009321E+0	9.981843E-1	1.014014E+0	9.739281E-1	9.801766E-1	1.001349E+0	1.034344E+0	9.999999E-1	9.909357E-1	9.199547E-1	1.031194E+0	1.019314E+0	1.008258E+0	9.942597E-1	1.026894E+0	1.013484E+0	1.041272E+0	9.296011E-1	1.064005E+0	9.992339E-1	1.051032E+0	1.000803E+0	1.029241E+0	1.016289E+0	1.009887E+0	9.928527E-1	1.016954E+0	1.008151E+0	1.017346E+0	1.026750E+0	9.749574E-1	9.898482E-1	1.029953E+0	9.889714E-1	1.031028E+0	1.016856E+0	9.997846E-1	1.021802E+0	1.022583E+0	1.028155E+0
5.575640E+2	9.654170E-1	9.839141E-1	9.847314E-1	1.008122E+0	1.003002E+0	9.871858E-1	1.010734E+0	1.012777E+0	9.147105E-1	9.838301E-1	9.841557E-1	9.995378E-1	9.458443E-1	1.031404E+0	9.958386E-1	9.940036E-1	9.576664E-1	9.807982E-1	1.006179E+0	1.003865E+0	9.563229E-1	9.538853E-1	9.709084E-1	9.752070E-1	9.305157E-1	9.881345E-1	9.539480E-1	9.937207E-1	9.349692E-1	1.011247E+0	9.610354E-1	9.706199E-1	9.583004E-1	9.594194E-1	9.917928E-1	1.016227E+0	1.026293E+0	1.008643E+0	9.981650E-1	9.816232E-1	9.465185E-1	9.754062E-1	1.026215E+0	1.008102E+0	9.375129E-1	1.015709E+0	1.017178E+0	9.825816E-1	9.605573E-1	8.974813E-1	1.006234E+0	9.936755E-1	9.830224E-1	9.474164E-1	1.054862E+0	1.015875E+0	9.814214E-1	1.031631E+0	9.977269E-1	1.030906E+0	9.259210E-1	9.841078E-1	1.001120E+0	9.653211E-1	9.898159E-1	9.966250E-1	9.852475E-1	9.857986E-1	9.872960E-1	9.921992E-1	9.895170E-1	1.011679E+0	9.551256E-1	9.776995E-1	9.793338E-1	1.014442E+0	9.403433E-1	9.900000E-1	1.013508E+0	1.004747E+0	9.523576E-1	9.723643E-1	1.003407E+0	9.980687E-1	1.031939E+0	1.049329E+0	1.015884E+0	9.982647E-1	9.767997E-1	1.021578E+0	1.045061E+0	9.542062E-1	9.599412E-1	1.030250E+0	1.019525E+0	1.007444E+0	9.504905E-1	1.007891E+0	9.776360E-1	9.790704E-1	1.000049E+0	1.004150E+0	1.030137E+0	1.008722E+0	1.009016E+0	1.010596E+0	9.967273E-1	1.038374E+0	9.682507E-1	9.993420E-1	1.038679E+0	1.064547E+0	9.762989E-1	9.770922E-1	1.031870E+0	1.013618E+0	9.514122E-1	9.789445E-1	1.034228E+0	1.010464E+0	9.258390E-1	1.029665E+0	1.011038E+0	1.005341E+0	9.669592E-1	1.007990E+0	9.751925E-1	1.034759E+0	9.526055E-1	1.027579E+0	9.547284E-1	1.007116E+0	9.981840E-1	1.036108E+0	1.017207E+0	1.016843E+0	9.973532E-1	9.831978E-1	1.034344E+0	1.008598E+0	9.997191E-1	1.002287E+0	1.016967E+0	9.975710E-1	1.034693E+0	1.067284E+0	1.026230E+0	1.023468E+0	1.035669E+0	9.942612E-1	1.024520E+0	1.011934E+0	9.672386E-1	1.024162E+0	9.889216E-1	1.028513E+0	9.435779E-1	1.040553E+0	9.978887E-1	1.015828E+0	9.540655E-1	1.010017E+0	9.843559E-1	1.051761E+0	1.019172E+0	1.020052E+0	9.820553E-1	9.980064E-1	1.062836E+0	1.022583E+0	1.028156E+0
5.580230E+2	1.022878E+0	1.055057E+0	1.005122E+0	1.002205E+0	1.030068E+0	1.006878E+0	9.988187E-1	9.856180E-1	9.595419E-1	9.492599E-1	9.922621E-1	9.969951E-1	9.573094E-1	1.004229E+0	9.923171E-1	9.944477E-1	9.927437E-1	9.917033E-1	1.007892E+0	1.000552E+0	9.829865E-1	1.007255E+0	9.936580E-1	1.007579E+0	9.704773E-1	1.015326E+0	9.315125E-1	9.995207E-1	9.287112E-1	9.956324E-1	1.005589E+0	1.008615E+0	9.875261E-1	1.009935E+0	9.947526E-1	1.010946E+0	9.909605E-1	9.898329E-1	9.863413E-1	1.018375E+0	9.447570E-1	1.035397E+0	9.577798E-1	1.004367E+0	9.622464E-1	9.839702E-1	9.847850E-1	1.004809E+0	1.048415E+0	9.381040E-1	9.860642E-1	1.030536E+0	1.004051E+0	1.039985E+0	9.889919E-1	1.011466E+0	1.024160E+0	9.931685E-1	9.671664E-1	1.047039E+0	9.575616E-1	9.998093E-1	9.903388E-1	9.823944E-1	9.726268E-1	1.005062E+0	9.928088E-1	1.023704E+0	9.640056E-1	1.025710E+0	1.015974E+0	9.805336E-1	9.624779E-1	9.788300E-1	9.895127E-1	1.005681E+0	9.499156E-1	1.011374E+0	1.048229E+0	9.950565E-1	9.941352E-1	9.888681E-1	9.791554E-1	9.955424E-1	9.824566E-1	9.865464E-1	1.022319E+0	1.010541E+0	9.584254E-1	1.038378E+0	1.005588E+0	1.057916E+0	9.560843E-1	1.016191E+0	9.898823E-1	1.004869E+0	1.014138E+0	9.958049E-1	1.021524E+0	1.027396E+0	1.008154E+0	1.027943E+0	1.007009E+0	1.007122E+0	9.933280E-1	9.989402E-1	1.009712E+0	1.022023E+0	9.324172E-1	1.058298E+0	1.027548E+0	9.824847E-1	1.004501E+0	1.007075E+0	1.013279E+0	9.822912E-1	1.043985E+0	1.009329E+0	1.047402E+0	1.000990E+0	9.820810E-1	9.295878E-1	9.872197E-1	9.887257E-1	9.588374E-1	9.965967E-1	1.008395E+0	1.011433E+0	9.988152E-1	1.036518E+0	1.004211E+0	9.591602E-1	1.000133E+0	1.012508E+0	9.853995E-1	9.903074E-1	9.596727E-1	1.019233E+0	9.870502E-1	1.023981E+0	9.724455E-1	9.905105E-1	9.835132E-1	9.543405E-1	1.013646E+0	1.051455E+0	1.012904E+0	9.995452E-1	9.870537E-1	9.906977E-1	9.919289E-1	1.042655E+0	9.672390E-1	9.886118E-1	9.620700E-1	9.870541E-1	9.142344E-1	9.881738E-1	9.654797E-1	1.000138E+0	1.003890E+0	1.016139E+0	9.959503E-1	1.010502E+0	1.022755E+0	9.881681E-1	1.001452E+0	1.026456E+0	1.002653E+0	9.353036E-1	1.030593E+0
5.585160E+2	1.012237E+0	1.015533E+0	1.013708E+0	9.809055E-1	9.992129E-1	1.037452E+0	1.007484E+0	1.008465E+0	1.067248E+0	1.023419E+0	9.835762E-1	1.018351E+0	1.062408E+0	1.012067E+0	1.029544E+0	1.020303E+0	1.016638E+0	1.058285E+0	1.027881E+0	1.000000E+0	1.011662E+0	9.753328E-1	1.017418E+0	1.017780E+0	1.063344E+0	1.025116E+0	1.017122E+0	1.030103E+0	1.061575E+0	1.043675E+0	9.886693E-1	1.020842E+0	1.038548E+0	1.002718E+0	1.007579E+0	1.009362E+0	1.031342E+0	1.005592E+0	1.013435E+0	1.012660E+0	1.018147E+0	9.955949E-1	1.051366E+0	1.006501E+0	1.028394E+0	9.963136E-1	1.024737E+0	1.000363E+0	1.004486E+0	9.381041E-1	1.025829E+0	1.008731E+0	1.057121E+0	1.028748E+0	1.002070E+0	1.022049E+0	9.814217E-1	9.913933E-1	9.777237E-1	9.934524E-1	9.969822E-1	9.783501E-1	1.014982E+0	1.027761E+0	9.791466E-1	1.018000E+0	1.014911E+0	1.019109E+0	9.979288E-1	1.032819E+0	9.815302E-1	9.978373E-1	9.737524E-1	9.799602E-1	1.005912E+0	1.034884E+0	9.132222E-1	1.011896E+0	9.981897E-1	1.006901E+0	9.763191E-1	1.021876E+0	1.014431E+0	1.031435E+0	1.029190E+0	1.011462E+0	1.015884E+0	1.031001E+0	1.002831E+0	1.005321E+0	1.026452E+0	9.583549E-1	9.498168E-1	9.823421E-1	1.001844E+0	1.010019E+0	9.727072E-1	1.003496E+0	9.701289E-1	1.073550E+0	9.449331E-1	1.019689E+0	9.962151E-1	9.991279E-1	9.681153E-1	1.032157E+0	9.902346E-1	9.517708E-1	9.629022E-1	9.910672E-1	1.018890E+0	1.015106E+0	1.001367E+0	9.962299E-1	1.063741E+0	1.029566E+0	1.025062E+0	1.012768E+0	1.005851E+0	9.938841E-1	9.500181E-1	9.812230E-1	9.947717E-1	1.055777E+0	9.654362E-1	1.041627E+0	1.035890E+0	9.830358E-1	9.810420E-1	1.009700E+0	1.001579E+0	1.018691E+0	1.005977E+0	1.025061E+0	1.030243E+0	1.017322E+0	9.339817E-1	9.669238E-1	1.012386E+0	1.017714E+0	9.214991E-1	1.009246E+0	1.009337E+0	1.027687E+0	9.588114E-1	9.701289E-1	1.013484E+0	9.873048E-1	9.836169E-1	1.006988E+0	1.034072E+0	1.051497E+0	9.972700E-1	9.998970E-1	9.971836E-1	1.010488E+0	9.751361E-1	9.904766E-1	1.018414E+0	9.920399E-1	9.646162E-1	1.017808E+0	1.035615E+0	1.030542E+0	1.031457E+0	9.824191E-1	9.712159E-1	1.051942E+0	9.725609E-1	1.001099E+0	9.988913E-1
5.590210E+2	1.026602E+0	1.031342E+0	1.038391E+0	1.033562E+0	1.025196E+0	1.011542E+0	9.701116E-1	1.024846E+0	1.054126E+0	9.944242E-1	1.000368E+0	1.010724E+0	1.086772E+0	1.008932E+0	9.857769E-1	1.002026E+0	1.012062E+0	9.486559E-1	1.015887E+0	1.008834E+0	1.015687E+0	1.009749E+0	1.015397E+0	1.019995E+0	1.066721E+0	1.022396E+0	9.799260E-1	1.018502E+0	1.101047E+0	9.848229E-1	9.869774E-1	9.863435E-1	1.027649E+0	9.815837E-1	1.031754E+0	1.025733E+0	1.021245E+0	1.015251E+0	1.005553E+0	9.995910E-1	1.060421E+0	9.880965E-1	1.034988E+0	1.021978E+0	1.102019E+0	1.039219E+0	9.718279E-1	1.047486E+0	1.028556E+0	1.068554E+0	1.002777E+0	9.941947E-1	1.005553E+0	1.025002E+0	1.062130E+0	1.021610E+0	1.037916E+0	1.017429E+0	1.051624E+0	1.009586E+0	1.034327E+0	1.008707E+0	9.964994E-1	1.051177E+0	9.939657E-1	1.029813E+0	1.005023E+0	1.053569E+0	1.012612E+0	1.024187E+0	1.074379E+0	1.027252E+0	1.049243E+0	1.016700E+0	9.759406E-1	1.016777E+0	1.125936E+0	1.005119E+0	1.026784E+0	1.049434E+0	1.056802E+0	1.006437E+0	9.868716E-1	1.018291E+0	1.004998E+0	1.005481E+0	9.856906E-1	1.008267E+0	1.022226E+0	1.037836E+0	1.017429E+0	9.921340E-1	1.072273E+0	1.025044E+0	9.789610E-1	1.015169E+0	1.025546E+0	9.936072E-1	1.014594E+0	9.915589E-1	1.034632E+0	9.842407E-1	9.879921E-1	1.028442E+0	1.010696E+0	1.010595E+0	1.024467E+0	1.023839E+0	1.003015E+0	9.853786E-1	9.898241E-1	9.778972E-1	9.994870E-1	1.034507E+0	9.989377E-1	9.720390E-1	1.005115E+0	1.031688E+0	9.926752E-1	9.957800E-1	9.542231E-1	1.016357E+0	1.010456E+0	1.016614E+0	9.405631E-1	1.020468E+0	9.866061E-1	1.020560E+0	9.887440E-1	9.756213E-1	9.947358E-1	1.010423E+0	1.044457E+0	1.012508E+0	1.022422E+0	1.026008E+0	9.699497E-1	1.004702E+0	1.006756E+0	9.909359E-1	9.600943E-1	1.032799E+0	9.975988E-1	9.902850E-1	9.903827E-1	9.739499E-1	1.014642E+0	1.005665E+0	1.025356E+0	1.008516E+0	1.035196E+0	9.909870E-1	9.902038E-1	1.012876E+0	1.033330E+0	1.017698E+0	1.000050E+0	9.749359E-1	1.017874E+0	9.991260E-1	9.950974E-1	9.955475E-1	1.006934E+0	9.845679E-1	1.023267E+0	1.012212E+0	1.021420E+0	9.837811E-1	9.625301E-1	1.053466E+0	1.047665E+0
5.595110E+2	1.011705E+0	9.887787E-1	9.788290E-1	1.029421E+0	9.802664E-1	1.040561E+0	1.016151E+0	1.038643E+0	1.078182E+0	1.047394E+0	1.057114E+0	1.048351E+0	1.131199E+0	1.011545E+0	1.029542E+0	9.766155E-1	1.011554E+0	1.029585E+0	1.026738E+0	1.017117E+0	1.023737E+0	1.050150E+0	1.042189E+0	9.893969E-1	1.032388E+0	1.015326E+0	9.610329E-1	1.023776E+0	1.058685E+0	1.035267E+0	1.011792E+0	9.994444E-1	1.003873E+0	1.015604E+0	1.035700E+0	1.014115E+0	1.029321E+0	1.022368E+0	1.023287E+0	1.019193E+0	1.104455E+0	9.880961E-1	1.012177E+0	1.017708E+0	1.047950E+0	1.030403E+0	9.945030E-1	1.003475E+0	1.029760E+0	1.135495E+0	1.025252E+0	1.029499E+0	1.012062E+0	1.033028E+0	1.030161E+0	1.007056E+0	1.002055E+0	1.007961E+0	1.001061E+0	1.002095E+0	1.053521E+0	1.025980E+0	1.039113E+0	9.999557E-1	1.071612E+0	1.003375E+0	9.881555E-1	1.025427E+0	1.009574E+0	1.053637E+0	9.940099E-1	1.032876E+0	1.091399E+0	1.007091E+0	1.041539E+0	1.006849E+0	1.054677E+0	1.018672E+0	9.992108E-1	9.686760E-1	1.050658E+0	1.044768E+0	1.014982E+0	1.022335E+0	9.857548E-1	1.026907E+0	9.980652E-1	1.015541E+0	1.049277E+0	9.966500E-1	1.014046E+0	1.042507E+0	1.092521E+0	1.027647E+0	1.037208E+0	1.019804E+0	1.061573E+0	1.051841E+0	1.042313E+0	1.001876E+0	1.011397E+0	9.856962E-1	1.041958E+0	1.018315E+0	1.005653E+0	1.029826E+0	1.073454E+0	1.045036E+0	1.069868E+0	1.020028E+0	1.003429E+0	1.006440E+0	1.030196E+0	9.879371E-1	1.007436E+0	1.019884E+0	9.923282E-1	1.003023E+0	1.021053E+0	1.018991E+0	1.084053E+0	1.048297E+0	1.002904E+0	1.036196E+0	1.109599E+0	1.013958E+0	1.021883E+0	1.009911E+0	1.055096E+0	1.013612E+0	1.033690E+0	1.012628E+0	9.903911E-1	1.013010E+0	9.916565E-1	1.049164E+0	1.022473E+0	9.884287E-1	9.842355E-1	1.000052E+0	1.061472E+0	1.046182E+0	1.017554E+0	1.014087E+0	1.013092E+0	9.482966E-1	1.012325E+0	1.032926E+0	1.053837E+0	1.028369E+0	1.017777E+0	1.023568E+0	9.613504E-1	9.942546E-1	9.868558E-1	1.018900E+0	1.004479E+0	1.022134E+0	1.035699E+0	1.026963E+0	1.006235E+0	1.047302E+0	9.965607E-1	1.046456E+0	1.020196E+0	1.036254E+0	1.003734E+0	1.013417E+0	9.971817E-1	1.048095E+0	1.011085E+0
5.600520E+2	1.039371E+0	9.875623E-1	1.007268E+0	9.643397E-1	9.970471E-1	9.985866E-1	1.051898E+0	9.791516E-1	1.067248E+0	1.013940E+0	1.020635E+0	1.007165E+0	1.052852E+0	9.739170E-1	9.983536E-1	9.913280E-1	1.049173E+0	9.807979E-1	9.907579E-1	9.696310E-1	1.018706E+0	1.030199E+0	9.739416E-1	9.836307E-1	1.021132E+0	9.609425E-1	9.946861E-1	1.014811E+0	1.049539E+0	9.806194E-1	1.092438E+0	9.976976E-1	1.030127E+0	1.005295E+0	9.819253E-1	9.919347E-1	1.001560E+0	9.913576E-1	1.037572E+0	9.779501E-1	9.864424E-1	1.052125E+0	9.963840E-1	9.760812E-1	1.043349E+0	1.017472E+0	1.027976E+0	9.723579E-1	1.027955E+0	1.092584E+0	9.854879E-1	9.910801E-1	9.800187E-1	9.623989E-1	9.454010E-1	9.792719E-1	1.045285E+0	1.014471E+0	1.004950E+0	1.011890E+0	1.034845E+0	1.018652E+0	9.790431E-1	1.007273E+0	1.015897E+0	9.791876E-1	9.974622E-1	1.008197E+0	1.024257E+0	9.932148E-1	1.009484E+0	9.805337E-1	1.037477E+0	9.895692E-1	1.050021E+0	9.566218E-1	1.079671E+0	9.644555E-1	1.037505E+0	1.014977E+0	1.007037E+0	9.888688E-1	1.022148E+0	1.004642E+0	1.016544E+0	9.905325E-1	1.007470E+0	1.023724E+0	1.050809E+0	1.020495E+0	9.886705E-1	1.040729E+0	1.087218E+0	1.026085E+0	9.841618E-1	1.035252E+0	1.067577E+0	1.004595E+0	9.955375E-1	9.741834E-1	1.015719E+0	1.023085E+0	9.684603E-1	1.032173E+0	1.002852E+0	1.007681E+0	1.011482E+0	1.037768E+0	1.069333E+0	9.869302E-1	9.687981E-1	9.936981E-1	1.018915E+0	1.017920E+0	1.005843E+0	1.066588E+0	9.805647E-1	1.028248E+0	9.729127E-1	1.013779E+0	1.084577E+0	1.005178E+0	1.017428E+0	9.869457E-1	1.090309E+0	9.580765E-1	9.943876E-1	9.977414E-1	1.064575E+0	1.010819E+0	1.026321E+0	1.011525E+0	9.991596E-1	1.028074E+0	9.582846E-1	9.714926E-1	1.059582E+0	9.948221E-1	1.018580E+0	1.031958E+0	1.114991E+0	9.921164E-1	1.001120E+0	1.051489E+0	1.065157E+0	9.930533E-1	1.038396E+0	9.861920E-1	1.007187E+0	9.520079E-1	9.711388E-1	9.765572E-1	1.070875E+0	9.643473E-1	1.006478E+0	1.027311E+0	1.178326E+0	9.835701E-1	9.897863E-1	1.026962E+0	1.073059E+0	9.810795E-1	1.023410E+0	9.892829E-1	9.874356E-1	9.923503E-1	9.866188E-1	1.028234E+0	1.004476E+0	9.473888E-1	1.015963E+0
5.605090E+2	9.957439E-1	9.863466E-1	9.536088E-1	9.749895E-1	1.010580E+0	9.985870E-1	9.722785E-1	9.769939E-1	1.050299E+0	9.715636E-1	9.731535E-1	9.430979E-1	1.034222E+0	9.901182E-1	9.988566E-1	9.957857E-1	1.031380E+0	9.520993E-1	9.896159E-1	9.961351E-1	1.022731E+0	9.808204E-1	9.931523E-1	9.800851E-1	1.050962E+0	9.832398E-1	1.148193E+0	9.657747E-1	1.029802E+0	9.986352E-1	1.034350E+0	9.907107E-1	1.008826E+0	1.001687E+0	9.468974E-1	1.002497E+0	9.637035E-1	9.913581E-1	9.779670E-1	9.530398E-1	1.057485E+0	9.702145E-1	9.911198E-1	1.015574E+0	1.033571E+0	9.733905E-1	9.847848E-1	1.000809E+0	1.062857E+0	1.114326E+0	9.716566E-1	9.500647E-1	1.004553E+0	9.741707E-1	9.918984E-1	9.797148E-1	1.015809E+0	9.754162E-1	1.003839E+0	9.778945E-1	1.056632E+0	9.950989E-1	9.867448E-1	9.614186E-1	9.987062E-1	9.915628E-1	9.363907E-1	1.001305E+0	9.913469E-1	9.815363E-1	9.730437E-1	9.904839E-1	1.068360E+0	1.016134E+0	1.001388E+0	9.788149E-1	1.061590E+0	9.978200E-1	9.537670E-1	1.020899E+0	1.002737E+0	9.952570E-1	9.940368E-1	9.682434E-1	1.019843E+0	9.720969E-1	9.941054E-1	9.755298E-1	9.701646E-1	9.652180E-1	9.627314E-1	9.583544E-1	1.082397E+0	9.401615E-1	1.020566E+0	9.399806E-1	1.049565E+0	9.595459E-1	9.776359E-1	9.568078E-1	9.935651E-1	9.842406E-1	1.011635E+0	9.548902E-1	9.916467E-1	9.680549E-1	9.949563E-1	9.899248E-1	1.031360E+0	9.781383E-1	1.002193E+0	9.829942E-1	1.000114E+0	1.020472E+0	9.468825E-1	1.038679E+0	9.897709E-1	1.022515E+0	9.855811E-1	9.820431E-1	1.079322E+0	9.998547E-1	9.936101E-1	9.406624E-1	1.050715E+0	9.987669E-1	9.871244E-1	9.663015E-1	1.038508E+0	9.292503E-1	9.757845E-1	9.839645E-1	1.038124E+0	9.482341E-1	1.009386E+0	1.009123E+0	1.092124E+0	1.002378E+0	1.053487E+0	9.675761E-1	1.078456E+0	9.412631E-1	1.014032E+0	1.002429E+0	1.031370E+0	9.805000E-1	9.526494E-1	9.728398E-1	9.782148E-1	9.652439E-1	9.621475E-1	9.835405E-1	1.063809E+0	1.019647E+0	1.023518E+0	1.005080E+0	1.068150E+0	9.628482E-1	9.746615E-1	1.005201E+0	1.017958E+0	9.638275E-1	9.849664E-1	9.568657E-1	9.792458E-1	9.792830E-1	9.957477E-1	9.950425E-1	9.944463E-1	9.903567E-1	9.013466E-1
5.610010E+2	1.003724E+0	9.608084E-1	9.552185E-1	9.998382E-1	9.564489E-1	9.674939E-1	9.728201E-1	1.005448E+0	9.830515E-1	1.054085E+0	1.012528E+0	9.588606E-1	1.015590E+0	1.040288E+0	9.782315E-1	1.011389E+0	1.006470E+0	9.899815E-1	9.347892E-1	9.712877E-1	1.003110E+0	9.628635E-1	9.385545E-1	9.925022E-1	1.034077E+0	9.712751E-1	1.109226E+0	9.715745E-1	1.016323E+0	1.002238E+0	9.779549E-1	1.013419E+0	1.003872E+0	9.872543E-1	1.017447E+0	9.301462E-1	9.647130E-1	9.669557E-1	9.513656E-1	1.002451E+0	1.003470E+0	9.794437E-1	9.454967E-1	9.280499E-1	1.032420E+0	9.886722E-1	1.005301E+0	9.376810E-1	9.930523E-1	1.075420E+0	9.474530E-1	9.708317E-1	9.745113E-1	9.591886E-1	9.526662E-1	9.775080E-1	1.002546E+0	9.487882E-1	9.688336E-1	9.951806E-1	1.016174E+0	9.542735E-1	9.764765E-1	1.024834E+0	1.013525E+0	1.019687E+0	1.023054E+0	9.318124E-1	9.888149E-1	9.449785E-1	9.515789E-1	9.727475E-1	9.948308E-1	9.906999E-1	9.968641E-1	9.957523E-1	1.030217E+0	9.597640E-1	9.767441E-1	1.014977E+0	9.910639E-1	1.004840E+0	9.582106E-1	9.374058E-1	9.676115E-1	9.661173E-1	9.866807E-1	9.537069E-1	1.000789E+0	9.955661E-1	9.429949E-1	9.814673E-1	1.008633E+0	9.563045E-1	9.852024E-1	9.919945E-1	1.030350E+0	9.908599E-1	9.660870E-1	9.698393E-1	9.897825E-1	9.565630E-1	9.900478E-1	9.618190E-1	9.894050E-1	9.517384E-1	9.678069E-1	9.638832E-1	1.007293E+0	9.393521E-1	9.496268E-1	9.615871E-1	9.913405E-1	9.426434E-1	9.877830E-1	9.617864E-1	9.575490E-1	9.755053E-1	9.911553E-1	9.749381E-1	1.036745E+0	9.902730E-1	1.001162E+0	9.744851E-1	1.006553E+0	9.678428E-1	9.663734E-1	9.612307E-1	9.976306E-1	1.003555E+0	9.826284E-1	1.009872E+0	9.631151E-1	9.582769E-1	9.593280E-1	9.850004E-1	1.019048E+0	9.890095E-1	9.262454E-1	9.590299E-1	1.050151E+0	9.525042E-1	9.882087E-1	9.601691E-1	9.604725E-1	9.717666E-1	9.364259E-1	1.006221E+0	9.708494E-1	9.626988E-1	9.593375E-1	9.476980E-1	1.034956E+0	1.001591E+0	9.765285E-1	9.371843E-1	1.074240E+0	9.812664E-1	9.914071E-1	9.652150E-1	1.013855E+0	9.643842E-1	9.819153E-1	9.839784E-1	9.280587E-1	9.625577E-1	9.900426E-1	9.742981E-1	1.049158E+0	9.151625E-1	9.842596E-1
