Photon Energy (eV)	#1	#2	#3	#4	#5	#6	#7	#8	#9	#10	#11	#12	#13	#14	#15	#16	#17	#18	#19	#20	#21	#22	#23	#24	#25	#26	#27	#28	#29	#30	#31	#32	#33	#34	#35	#36	#37	#38	#39	#40	#41	#42	#43	#44	#45	#46	#47	#48	#49	#50	#51	#52	#53	#54	#55	#56	#57	#58	#59	#60	#61	#62	#63	#64	#65	#66	#67	#68	#69	#70	#71	#72	#73	#74	#75	#76	#77	#78	#79	#80	#81	#82	#83	#84	#85	#86	#87	#88	#89	#90	#91	#92	#93	#94	#95	#96	#97	#98	#99	#100	#101	#102	#103	#104	#105	#106	#107	#108	#109	#110	#111	#112	#113	#114	#115	#116	#117	#118	#119	#120	#121	#122	#123	#124	#125	#126	#127	#128	#129	#130	#131	#132	#133	#134	#135	#136	#137	#138	#139	#140	#141	#142	#143	#144	#145	#146	#147	#148	#149	#150	#151	#152	#153	#154	#155	#156	#157	#158	#159	#160	#161	#162	#163	#164	#165	
5.300320E+2	-8.023619E-3	-6.131279E-3	3.418742E-4	2.942427E-3	-1.008545E-2	-3.324083E-3	-8.506147E-3	-8.777610E-3	8.068903E-4	-6.761850E-3	-2.113477E-3	-7.253665E-3	-1.015108E-2	-1.834208E-3	-8.217951E-3	-2.499562E-2	-1.910234E-3	-1.171009E-2	1.029912E-4	-6.335641E-3	-1.015149E-2	-1.787114E-2	4.741756E-3	-4.605029E-3	-7.254496E-3	5.911075E-4	-3.501772E-3	-1.072656E-2	1.579330E-3	-1.327232E-2	-8.841744E-3	-1.609549E-2	-5.806077E-3	-8.820180E-3	-3.190293E-3	-8.164617E-3	-8.169339E-3	-9.816856E-3	-1.016259E-2	-1.066248E-2	-7.491792E-3	-9.832961E-3	4.811837E-3	1.775028E-3	-4.467185E-3	-4.413814E-3	-1.363552E-2	-7.260565E-4	-1.166462E-2	-1.274838E-2	-2.025761E-3	-7.511920E-3	-8.848135E-3	-1.747786E-3	4.659699E-4	3.926501E-3	-1.777074E-3	-4.643253E-3	-9.601562E-3	8.211729E-4	-3.471017E-3	-8.882966E-3	-1.310152E-2	-5.516539E-3	-1.059495E-2	-8.726196E-3	-9.135028E-3	-1.905575E-3	-1.099571E-2	-1.482295E-3	-1.246801E-2	-1.882907E-3	-1.085420E-2	-9.448157E-3	-1.087233E-2	-9.756198E-3	-9.482981E-3	-1.586634E-3	-4.857909E-3	-4.750360E-3	-3.674994E-3	-1.122581E-3	-7.549415E-3	-3.050539E-3	1.837469E-4	-2.634268E-3	-5.247279E-3	-4.207791E-3	-7.243071E-3	-3.833454E-3	-9.992597E-3	-4.414688E-3	-3.580430E-3	-1.064972E-2	-4.552417E-3	-1.234127E-2	-2.858413E-3	-9.416413E-3	-1.608493E-2	-5.421652E-3	-8.275974E-3	-8.590182E-3	-5.608562E-3	-1.819283E-3	-6.878453E-3	-1.420453E-2	-5.096790E-3	-7.892163E-3	-1.287253E-2	-6.860279E-3	-7.883896E-3	-6.331477E-3	-7.660769E-3	-5.414008E-4	-2.013429E-3	-4.272222E-3	-3.283451E-3	-6.221951E-3	-1.594367E-2	-1.067214E-2	-6.324345E-3	-3.672822E-3	-3.240910E-3	-7.372680E-3	-1.834392E-2	-5.020801E-3	-5.554311E-3	-7.300338E-3	2.248848E-3	-4.705887E-3	-4.344581E-3	-1.452934E-2	-1.164891E-2	-6.363929E-3	-9.430448E-3	-1.125073E-2	-1.300837E-2	-1.542965E-2	-6.950323E-3	-1.021391E-2	-4.406028E-3	-1.600396E-2	-1.089507E-2	-8.913898E-3	-3.588835E-3	-9.632738E-3	-2.490460E-2	-6.829865E-3	-8.235289E-3	-2.123951E-2	-5.255463E-3	-7.532879E-3	-5.337068E-3	-8.557830E-3	7.425446E-4	3.827033E-3	-5.897369E-3	-9.576671E-3	-6.141672E-3	-9.331679E-3	-7.777161E-3	-3.941867E-3	-1.469212E-2	-1.089137E-2	5.456477E-3
5.305030E+2	-8.743663E-3	-7.720907E-3	-2.358869E-2	-2.194547E-2	2.819621E-3	-2.573452E-3	-7.829466E-3	-6.556744E-3	-4.841076E-3	-1.878286E-2	-9.510649E-3	-1.104291E-2	3.582716E-3	-7.916211E-3	-5.573071E-3	2.809592E-3	-8.914354E-3	-5.063845E-3	-1.359130E-2	-3.959776E-3	-7.722076E-3	-8.107412E-3	-1.440768E-2	-6.501255E-3	-1.846600E-2	-3.546410E-3	1.029678E-4	-1.550477E-2	-5.053935E-3	-4.706511E-3	3.963530E-3	-1.005970E-2	-3.225596E-3	-1.720481E-2	-4.543752E-3	-1.045065E-2	3.621450E-3	-5.100913E-3	-1.519893E-2	-2.621867E-4	-6.164107E-3	-9.100705E-3	-7.117513E-3	-8.579272E-3	-8.520671E-3	-1.180219E-2	-5.275047E-3	6.262248E-3	-4.803088E-3	-2.070258E-3	-7.427952E-3	-1.749366E-3	-9.412934E-4	-6.255214E-3	-1.453814E-2	-1.073242E-2	-4.541334E-3	-7.738749E-3	-1.111190E-2	-5.645527E-3	-8.804507E-3	-4.151815E-3	-9.084990E-3	-1.009809E-2	-9.246539E-3	-1.336544E-2	-9.887375E-3	-3.387651E-3	-9.163122E-3	-1.120982E-2	-7.839741E-3	-6.675732E-3	-4.907973E-3	-5.479913E-3	-6.395468E-3	2.916794E-3	-2.658784E-3	-7.510135E-3	1.518093E-3	-5.402371E-3	-1.044464E-2	-1.908358E-3	-1.334077E-2	-3.050576E-3	-1.074951E-2	-1.398194E-2	-1.049457E-2	-1.573349E-2	-1.009948E-2	-2.070076E-2	-4.223659E-3	1.076734E-4	-7.339846E-3	-7.862884E-3	-9.976534E-3	-1.303241E-2	-6.998202E-3	2.846819E-3	-2.010627E-3	-1.053048E-2	-5.057567E-3	-5.357345E-3	-6.297340E-3	-3.638578E-3	-1.315881E-2	-1.204301E-2	-5.872372E-3	-5.682364E-3	-1.411544E-2	-7.556236E-3	-3.795943E-3	-4.376151E-3	-4.132774E-3	-1.039523E-2	-1.610747E-2	-5.846194E-3	-1.510375E-2	-8.944015E-3	-6.643200E-3	-7.980099E-3	-1.116645E-2	-2.843448E-3	5.266511E-3	-8.806226E-3	-3.041490E-3	-7.172811E-4	-1.131433E-2	-5.359742E-3	-1.921742E-2	-7.116255E-3	-5.166575E-3	-1.081743E-2	-7.082564E-3	-1.390277E-2	-1.086552E-2	-8.244798E-3	-7.180603E-3	-1.622380E-2	-2.138525E-4	-6.709125E-3	-6.374668E-3	-5.950190E-3	-3.337223E-3	-5.594928E-3	-7.177727E-3	2.912209E-3	1.740040E-3	6.403104E-4	-4.540034E-3	-3.706879E-3	-7.262113E-3	-8.175939E-3	-1.674363E-3	1.825705E-3	-7.426060E-3	-7.654057E-3	-5.173153E-3	-7.342163E-3	-1.515601E-2	1.698165E-8	-4.621212E-3	5.086392E-4	-9.549879E-3	-1.501234E-2	-4.197207E-4
5.310100E+2	-5.863421E-3	-1.362486E-3	-8.432682E-3	-7.355992E-3	-1.919489E-2	-1.233124E-2	-1.053596E-2	-2.115087E-3	8.068124E-4	-5.259195E-3	-3.458395E-3	-2.706590E-3	-4.776965E-3	-5.888890E-3	-9.540333E-3	-1.007574E-2	-4.457149E-3	-4.325337E-3	4.427461E-3	-7.919469E-4	1.735463E-4	-6.886934E-3	-9.301135E-3	-2.076818E-3	-7.914007E-3	-1.044224E-2	-1.575810E-2	1.950150E-4	-7.265036E-3	-3.388680E-3	-1.524440E-2	-6.035838E-3	-1.161217E-2	3.266814E-4	-1.198789E-2	-9.688656E-3	-8.169318E-3	-6.448341E-3	-3.867189E-3	1.573131E-3	-9.483279E-3	2.615133E-3	-1.202957E-2	-2.958571E-4	-3.888106E-3	-5.085510E-3	-1.293881E-2	-9.620259E-3	-4.803059E-3	-1.122298E-2	2.701079E-3	-1.749336E-3	-1.214267E-2	-4.323472E-3	-7.362284E-3	-7.678495E-3	-7.996655E-3	-6.964844E-3	-4.315323E-3	-2.771453E-3	-5.248883E-3	-3.475935E-3	-8.415592E-3	4.301043E-3	-1.396610E-2	-6.406602E-3	4.406288E-3	-1.153926E-2	-1.832650E-3	-1.482280E-3	-1.889069E-3	6.504572E-3	-4.907952E-3	-8.125405E-3	-1.918623E-3	-3.419705E-3	-3.279146E-3	-5.288883E-3	-9.817044E-3	-1.061848E-2	-3.674957E-3	-4.265830E-3	1.137563E-3	-7.468646E-3	-1.267892E-2	-6.889634E-3	1.967722E-3	-7.409362E-3	-1.081357E-2	-6.900246E-3	-4.223642E-3	-8.183300E-3	-6.713287E-3	-8.559595E-3	-8.620527E-3	3.554335E-3	-1.182792E-2	-9.416388E-3	-1.111753E-2	-3.232105E-3	-9.563379E-3	-9.236748E-3	-6.297363E-3	-4.244991E-3	-1.036756E-2	-9.160896E-3	-6.647990E-3	-1.083858E-2	-4.438806E-4	-5.965616E-4	-1.265316E-2	-1.415270E-2	-5.543983E-3	-1.342718E-2	-7.205946E-3	-5.059166E-3	-5.910142E-3	-9.624563E-3	-1.262207E-2	-5.288034E-3	-7.707806E-3	-1.528364E-2	-1.823000E-3	-2.048116E-4	-1.169069E-2	-5.738044E-3	-8.434274E-3	-7.300371E-3	-9.915363E-3	1.721648E-3	-1.420805E-2	-8.590374E-3	-7.082567E-3	7.343017E-3	-5.842767E-3	-5.238882E-3	-5.723708E-3	-3.517036E-3	-1.144128E-2	-9.512947E-3	-7.030899E-3	-6.668311E-3	-4.024323E-3	-6.922526E-3	-5.742165E-3	-4.144308E-3	-5.111418E-3	-9.817951E-3	-1.055867E-4	-9.017007E-4	-5.733229E-4	-6.889835E-3	-1.412756E-2	-1.015534E-2	-8.168718E-3	-6.888619E-3	-3.000455E-3	8.512570E-4	-3.367985E-3	-1.435658E-3	2.479712E-3	-3.051761E-3	4.591343E-3	-4.709766E-3	-6.295878E-3
5.315130E+2	-5.863411E-3	-1.725841E-2	1.139550E-3	-1.336346E-2	-2.494242E-3	-1.822907E-3	1.043931E-2	-2.855357E-3	-6.959090E-3	3.005255E-3	-8.838190E-3	-1.948755E-3	-7.165469E-3	-2.510015E-3	2.361487E-3	-5.328527E-3	-1.273481E-2	-2.109937E-3	-6.383783E-3	2.375824E-3	-8.936782E-3	4.358909E-4	-8.662828E-3	-1.218980E-2	-6.594922E-4	-1.389014E-2	-7.106605E-3	-4.875595E-4	-7.265033E-3	-4.047571E-3	-1.016271E-3	-4.694518E-3	-6.451213E-4	-4.355892E-4	-5.897271E-3	-4.354428E-3	-1.052745E-2	-5.100904E-3	-4.496721E-3	-9.438892E-3	-8.819407E-3	-3.975002E-3	7.618781E-3	-9.269584E-3	-1.315331E-2	-2.398795E-3	2.985781E-4	-6.443787E-3	-4.116935E-3	7.082435E-3	-6.077417E-3	-7.511910E-3	3.012129E-3	-8.830945E-3	-4.100486E-3	-1.570616E-3	2.369384E-3	-3.869345E-3	-8.091223E-3	-6.364069E-3	-1.100521E-3	-7.531171E-3	-3.825428E-4	-6.825569E-3	-6.549599E-3	3.645175E-3	-3.116652E-3	-5.610818E-3	-1.832614E-3	-4.076295E-3	-1.889072E-3	-4.279309E-3	-2.925909E-3	7.086125E-3	5.542740E-3	-6.235887E-3	-2.658755E-3	4.336812E-3	2.226556E-3	-1.863090E-4	-5.705903E-3	-5.051650E-3	-1.034156E-3	-1.115040E-2	-6.247615E-3	1.621101E-3	5.903175E-3	1.436135E-2	3.468512E-3	-1.303380E-2	-4.944768E-3	3.876296E-3	-7.339826E-3	-1.990744E-4	1.549754E-3	-1.974596E-3	-1.478477E-3	-2.518322E-3	-5.322267E-3	6.985563E-3	1.379298E-3	-7.943627E-3	6.789312E-3	-5.457846E-3	-1.106537E-2	1.646919E-3	-1.218808E-3	-1.304836E-2	-6.658235E-3	-4.076437E-3	-1.070660E-3	-1.089388E-2	-1.310361E-3	4.006470E-3	-3.497033E-3	-5.059177E-3	-2.626749E-3	-4.180361E-3	-2.657305E-3	-6.634023E-3	-9.881799E-5	4.739258E-4	-4.658845E-3	-8.806249E-3	-6.368085E-3	-2.151770E-3	-1.234277E-3	-7.300344E-3	-6.133314E-4	-1.032996E-2	1.209444E-2	6.257158E-3	-2.516166E-3	-2.937197E-3	5.637778E-3	-1.030609E-3	-3.538269E-3	1.077803E-2	4.277105E-3	-2.503389E-3	1.874830E-4	-2.051746E-4	-1.275991E-3	-1.156912E-2	-2.871114E-3	-2.576218E-3	9.788327E-4	-8.536979E-4	-3.061841E-3	-4.408189E-3	-1.911069E-3	-8.818986E-3	-8.999760E-3	1.825635E-3	-7.425900E-4	5.029796E-9	-3.000385E-3	-1.255613E-2	9.905424E-5	-1.435648E-3	-4.621201E-3	-1.284288E-2	-1.083543E-2	-1.913343E-2	-1.804827E-2
5.320170E+2	6.171612E-4	1.373861E-2	4.330302E-3	-4.903592E-4	4.337821E-3	4.932490E-3	-7.152848E-3	-7.297018E-3	-1.331305E-2	9.015777E-3	-3.458401E-3	-2.706586E-3	1.791383E-3	-3.185772E-3	1.039041E-3	2.809583E-3	1.841088E-8	-5.063831E-3	-1.070830E-2	-1.583870E-3	-2.863235E-3	-7.845850E-4	1.550179E-3	-8.126481E-4	7.254479E-3	3.349381E-3	-5.664644E-3	4.290628E-3	-2.842836E-3	1.223674E-3	-3.150489E-3	8.047741E-3	9.676791E-3	-1.960032E-3	-4.833887E-4	-5.443293E-4	8.423590E-5	-1.058669E-3	8.094117E-3	-7.603543E-3	-1.517324E-3	-3.138015E-4	-8.520970E-3	-4.437577E-3	-1.571798E-3	2.302882E-3	-1.791494E-3	-4.537834E-3	-6.861258E-4	-1.503664E-2	-6.077392E-3	-1.029040E-3	4.329975E-3	-4.323454E-3	-3.448132E-3	-4.013736E-3	-3.948697E-4	-3.869352E-3	-5.394197E-4	-2.771486E-3	-1.693179E-3	-2.124224E-3	2.295165E-3	-2.244020E-3	9.631824E-3	-2.540532E-3	-3.116662E-3	1.513868E-2	3.665291E-3	-4.076298E-3	-4.533787E-3	-6.847102E-4	-9.438327E-4	-1.511729E-3	-4.157078E-3	1.005699E-4	9.128447E-3	6.558162E-3	2.226530E-3	-2.142327E-3	-9.090742E-3	4.490122E-4	2.585418E-3	-1.052197E-4	4.685680E-3	7.294909E-3	-1.180636E-2	2.835709E-3	-8.161030E-4	6.133536E-3	-2.781462E-3	-1.399731E-3	-4.833564E-3	-1.990647E-4	-3.874390E-3	7.009834E-3	1.971318E-3	-1.751893E-3	-2.010638E-3	-1.271997E-2	9.193148E-5	7.574160E-3	-2.853468E-3	3.638559E-3	9.869106E-3	-2.676201E-3	-1.994397E-3	1.494248E-2	-1.686738E-3	-6.860257E-3	1.654661E-3	2.141525E-3	1.512007E-3	-8.121232E-3	9.537403E-4	-1.124241E-3	1.247699E-2	-1.458253E-3	4.650257E-3	2.115215E-3	-1.482286E-3	6.279307E-3	-1.316631E-2	1.945593E-3	6.273074E-3	5.020794E-3	-3.394319E-3	1.145878E-2	1.022323E-4	1.147780E-4	-1.878736E-3	4.030016E-3	1.640171E-2	1.174881E-3	-7.277871E-3	1.374157E-3	6.660243E-3	-3.517047E-3	1.283111E-3	-4.606258E-3	4.124796E-3	5.129299E-4	9.030137E-3	5.025913E-3	4.306620E-3	-3.360221E-3	2.501303E-3	-1.600766E-3	4.328840E-3	5.008997E-4	-1.242202E-3	7.257264E-3	7.116104E-3	-5.705110E-4	1.485223E-3	-3.827030E-3	-9.518603E-3	5.320386E-3	7.924786E-4	-8.613909E-3	-6.763282E-4	-1.271592E-3	1.487574E-2	1.589551E-2	-3.357833E-3
5.325120E+2	1.429850E-2	8.969851E-3	1.150946E-2	2.010644E-2	1.192901E-2	4.181887E-3	2.319883E-3	1.343075E-2	1.280873E-2	3.756555E-3	7.301099E-3	1.169248E-2	1.015109E-2	1.544589E-3	1.095724E-2	1.094767E-2	1.018781E-2	4.536345E-3	-1.338547E-3	2.375831E-3	1.292796E-2	1.656339E-3	3.465164E-3	8.036243E-3	9.892515E-3	1.645143E-2	9.475436E-3	7.021004E-3	4.896029E-3	1.308405E-2	8.231960E-3	1.005969E-2	3.225609E-3	4.137901E-3	1.305131E-2	1.393424E-2	9.516826E-3	2.049991E-2	4.316878E-3	9.526319E-3	1.109540E-2	3.347362E-3	-2.205435E-3	-4.437520E-3	6.535288E-3	-3.742156E-3	1.910963E-2	1.179806E-3	1.029231E-2	8.607914E-3	4.726862E-3	7.614825E-3	1.035425E-3	7.267110E-3	9.598894E-3	1.003437E-2	5.133666E-3	4.643198E-3	8.522702E-3	5.132338E-3	6.010766E-3	5.986349E-3	1.625714E-3	1.084606E-2	1.030600E-2	5.191488E-3	1.042473E-2	5.504952E-3	1.832606E-3	1.278476E-2	1.530163E-2	4.707247E-3	9.627170E-3	7.086107E-3	1.812028E-3	5.028967E-3	-4.519928E-3	-6.769673E-3	-1.315685E-3	9.593888E-3	1.460317E-2	6.735523E-3	8.376759E-3	4.312888E-3	9.187616E-3	7.294931E-3	3.935476E-3	2.835680E-3	4.182631E-3	1.226710E-2	1.019862E-2	4.630045E-3	8.324478E-3	9.554919E-3	1.036399E-2	1.480935E-3	7.491018E-3	3.613286E-3	1.537535E-2	-6.151447E-3	7.172565E-3	4.987866E-3	4.034230E-3	-1.212825E-3	1.684725E-2	1.893940E-2	8.863998E-3	9.470697E-4	1.633484E-2	8.451084E-3	1.051184E-2	1.648045E-2	4.334391E-3	1.689224E-2	2.320745E-2	5.958612E-3	1.313371E-3	6.027520E-3	9.964817E-3	6.826358E-3	1.304398E-2	3.791299E-3	1.306501E-2	1.228781E-3	1.492226E-2	7.172674E-4	8.125729E-3	4.990109E-3	5.111033E-3	-3.098969E-3	9.628574E-3	1.802929E-3	9.878305E-3	4.601603E-3	9.225413E-3	1.640370E-2	8.845713E-3	1.633727E-2	-3.207811E-3	5.207112E-3	8.436933E-4	1.128485E-2	5.594771E-3	1.232776E-2	1.004882E-2	5.600387E-4	5.546423E-3	6.616419E-3	-8.446561E-4	1.172181E-2	2.771071E-3	7.900358E-3	7.116091E-3	2.624439E-3	1.485240E-3	5.357803E-3	4.966211E-3	1.351378E-2	7.033196E-3	9.331726E-3	9.580541E-3	1.297004E-2	7.346111E-4	2.207702E-2	-6.295973E-3
5.330230E+2	1.357846E-2	9.764627E-3	1.470018E-2	2.010642E-2	1.268812E-2	1.093731E-2	2.126523E-2	1.417107E-2	1.069078E-2	1.502631E-2	2.007801E-2	1.396602E-2	6.568327E-3	1.979051E-2	8.973584E-3	2.383304E-2	1.782871E-2	2.373669E-2	2.749148E-2	7.919579E-3	1.657207E-2	3.155784E-2	2.261454E-2	1.814931E-2	1.714700E-2	7.486870E-3	2.245272E-2	1.521224E-2	1.595148E-2	1.110735E-2	1.605741E-2	1.877811E-2	8.386568E-3	2.395603E-2	1.305128E-2	1.926844E-2	1.364360E-2	7.025772E-3	2.131443E-2	1.686765E-2	2.238051E-2	1.725998E-2	1.744287E-2	2.524478E-2	2.506578E-2	2.513959E-2	1.423266E-2	1.388588E-2	1.578153E-2	2.538792E-2	1.418058E-2	1.193675E-2	1.355457E-2	1.821376E-2	1.938418E-2	1.003439E-2	7.206883E-3	2.244234E-2	2.513672E-2	1.159902E-2	1.430734E-2	2.017976E-2	2.706376E-2	9.537114E-3	2.041937E-2	2.220211E-2	1.042470E-2	1.799678E-3	1.832620E-2	9.542225E-3	1.331805E-2	2.310839E-3	1.491269E-2	1.039297E-2	1.598873E-2	1.136546E-2	1.347115E-2	1.026035E-2	1.001946E-2	1.350595E-2	1.798806E-2	5.163883E-3	9.824597E-3	2.051249E-2	1.561900E-2	7.294899E-3	1.574183E-2	7.317907E-3	2.132108E-2	2.606762E-2	1.596751E-2	5.383704E-3	2.148248E-2	1.791542E-2	1.511012E-2	1.530317E-2	1.370067E-2	1.664291E-2	2.117064E-2	3.107009E-2	1.425312E-2	1.856588E-2	1.023319E-2	1.273496E-2	1.475383E-2	1.749833E-2	1.196636E-2	2.157192E-2	1.944198E-2	1.749869E-2	1.323716E-2	1.713223E-2	1.280149E-2	1.158633E-2	4.662688E-3	1.540239E-2	1.313373E-2	2.440162E-2	2.325117E-2	2.163272E-2	1.373572E-2	1.125538E-2	4.557541E-3	2.201559E-2	1.824885E-2	7.889835E-3	2.180578E-2	1.081190E-2	2.228400E-2	2.341465E-2	3.874928E-3	2.184704E-2	2.050196E-3	1.008440E-2	1.855341E-2	7.987167E-3	1.394500E-2	1.157223E-2	1.625305E-2	2.833851E-2	1.265562E-2	1.702986E-2	4.907698E-3	1.564680E-2	5.024405E-3	1.624124E-2	1.924942E-2	1.184555E-2	1.245857E-2	1.803357E-2	1.347310E-2	1.626002E-2	1.590655E-2	1.300790E-2	1.262436E-2	9.184865E-3	2.162376E-2	9.789541E-3	1.674094E-2	1.148515E-2	5.635650E-3	7.629420E-3	1.487573E-2	1.177438E-2	2.896120E-2
5.331580E+2	9.978145E-3	9.764612E-3	2.427232E-2	2.084216E-3	2.179760E-2	1.168789E-2	9.086094E-3	1.787246E-2	2.622259E-2	9.015802E-3	1.604323E-2	1.623952E-2	1.612228E-2	2.722400E-2	1.227964E-2	1.569495E-2	1.591850E-2	2.816755E-2	5.868980E-3	2.375864E-2	1.535736E-2	1.325079E-2	7.933328E-3	1.751725E-2	8.573505E-3	9.555641E-3	1.884788E-2	1.589483E-2	2.424309E-2	9.789487E-3	3.241969E-2	2.078999E-2	2.128898E-2	2.929165E-2	2.387905E-2	3.527109E-2	1.835991E-2	1.578396E-2	1.942582E-2	3.093863E-2	2.769112E-2	1.213426E-2	1.884636E-2	3.007683E-2	3.027744E-2	3.319962E-2	2.189645E-2	1.325055E-2	9.606135E-3	1.394701E-2	7.427919E-3	2.130085E-2	2.212037E-2	1.756986E-2	5.684798E-3	1.675305E-2	1.273545E-2	1.392980E-2	1.380903E-2	1.662872E-2	4.825578E-3	2.085564E-2	1.769184E-2	1.673663E-2	2.041937E-2	2.297535E-2	1.493854E-2	9.951309E-3	2.443491E-2	1.797280E-2	1.794639E-2	1.009914E-2	1.755548E-2	1.899074E-2	9.273493E-3	2.122224E-2	2.215646E-2	1.396250E-2	2.206297E-2	2.459018E-2	2.340375E-2	2.088010E-2	1.633987E-2	2.787596E-2	2.140722E-2	1.438717E-2	1.902137E-2	1.692262E-2	1.846470E-2	4.063482E-2	1.596753E-2	2.121197E-2	1.772304E-2	1.721875E-2	1.307606E-2	1.944989E-2	2.267014E-2	1.740945E-2	2.282642E-2	7.715408E-3	2.197743E-2	2.697137E-2	1.298828E-2	1.212856E-2	1.894072E-2	2.254198E-2	2.747829E-2	5.366674E-3	7.634737E-3	1.819465E-2	2.686372E-2	3.342640E-2	2.479662E-2	2.447213E-2	2.246578E-2	1.855037E-2	1.444705E-2	1.555483E-2	2.391554E-2	2.634391E-2	2.687854E-2	1.954880E-2	1.377394E-2	9.113451E-3	3.022469E-2	1.434512E-2	2.252578E-2	1.210566E-2	2.586168E-2	1.538015E-2	2.195790E-2	1.071143E-2	2.879615E-2	2.310601E-2	2.429373E-2	1.640373E-2	2.195813E-2	2.904403E-2	1.924702E-2	1.922615E-2	2.053023E-2	1.128484E-2	1.246553E-2	2.693140E-2	3.301750E-2	3.584270E-2	2.838466E-2	8.857482E-3	2.206642E-2	7.513976E-3	2.149961E-2	2.719189E-2	3.055737E-2	2.339141E-2	1.113918E-2	2.449288E-2	2.307221E-2	1.649324E-2	2.367510E-2	2.297037E-2	8.002639E-3	2.454129E-2	8.447933E-3	2.825855E-2	3.483724E-2
5.333130E+2	1.861892E-2	1.612298E-2	3.384456E-2	2.525558E-2	4.337807E-3	2.219625E-2	1.043935E-2	2.675576E-2	1.704467E-2	1.953417E-2	2.142294E-2	3.594359E-2	1.373378E-2	2.519670E-2	2.748757E-2	3.671841E-2	1.273480E-2	2.225971E-2	1.956325E-2	2.851033E-2	3.054122E-2	1.813265E-2	2.006127E-2	1.941342E-2	1.780651E-2	9.555634E-3	1.956881E-2	2.272086E-2	2.977081E-2	2.626224E-2	1.819159E-2	4.090940E-2	2.064383E-2	1.862031E-2	1.711172E-2	3.374699E-2	2.366574E-2	1.780507E-2	1.250090E-2	3.460936E-2	2.569963E-2	2.531460E-2	2.656537E-2	3.214767E-2	1.348422E-2	2.379627E-2	2.328987E-2	9.438766E-3	2.813224E-2	2.691333E-2	2.430955E-2	4.733564E-3	1.421350E-2	3.044829E-2	1.873181E-2	2.408254E-2	3.968725E-2	3.559825E-2	9.277948E-3	1.591017E-2	1.430739E-2	4.045610E-2	2.706370E-2	1.411859E-2	1.502553E-2	3.766628E-2	2.095691E-2	2.551342E-2	2.015886E-2	1.343326E-2	2.852531E-2	2.867141E-2	1.557339E-2	2.295890E-2	2.195788E-2	2.051816E-2	2.898061E-2	2.358816E-2	3.552342E-2	2.719823E-2	1.392626E-2	2.323760E-2	1.633991E-2	1.094000E-2	2.462286E-2	1.367794E-2	3.213958E-2	1.756298E-2	2.417753E-2	2.453422E-2	1.452532E-2	1.895085E-2	2.148251E-2	2.697268E-2	2.528041E-2	2.843434E-2	3.370954E-2	1.664297E-2	4.766355E-2	1.282423E-2	2.583952E-2	2.761794E-2	3.365147E-2	1.819282E-2	2.033630E-2	2.470353E-2	2.515153E-2	2.599151E-2	2.317056E-2	1.053895E-2	2.822629E-2	1.387340E-2	1.915189E-2	2.750410E-2	1.727316E-2	9.106557E-3	2.823744E-2	3.120683E-2	2.325118E-2	3.913126E-2	1.373573E-2	2.120749E-2	2.086347E-2	2.273239E-2	4.086990E-2	1.793139E-2	2.684577E-2	2.439609E-2	2.299956E-2	1.939745E-2	2.195790E-2	2.778601E-2	2.096808E-2	3.818359E-2	2.931646E-2	3.203453E-2	2.924281E-2	1.951399E-2	2.373803E-2	2.343188E-2	3.102965E-2	2.780172E-2	4.200987E-2	1.232777E-2	3.301753E-2	2.408179E-2	1.620427E-2	3.649709E-2	2.206638E-2	2.925440E-2	3.220162E-2	2.397665E-2	3.128993E-2	3.377493E-2	2.005051E-2	3.444319E-2	2.596916E-2	3.436972E-2	5.834580E-2	2.943080E-2	2.536037E-2	3.878279E-2	4.187258E-2	2.001654E-2	5.456450E-3
5.334580E+2	3.158016E-2	1.850741E-2	3.304691E-2	3.212119E-2	2.711140E-2	3.120337E-2	3.344450E-2	2.157383E-2	1.704470E-2	3.380913E-2	2.680269E-2	3.139649E-2	3.045320E-2	3.938793E-2	2.881002E-2	4.010939E-2	1.973898E-2	3.333683E-2	4.839320E-2	3.009421E-2	3.236326E-2	3.643968E-2	2.899763E-2	2.067756E-2	2.308252E-2	3.920754E-2	4.047668E-2	3.637288E-2	4.027352E-2	2.033209E-2	4.024517E-2	3.956810E-2	1.741821E-2	2.929169E-2	3.267656E-2	3.831921E-2	1.835991E-2	2.723692E-2	2.823942E-2	3.032684E-2	1.507838E-2	3.190473E-2	2.796882E-2	3.145742E-2	2.101224E-2	3.118468E-2	3.025691E-2	4.755680E-2	2.813230E-2	3.759155E-2	2.836109E-2	3.282601E-2	2.014365E-2	2.851648E-2	2.656007E-2	3.507670E-2	3.139435E-2	3.559823E-2	1.834017E-2	1.303610E-2	3.741924E-2	2.558678E-2	3.308853E-2	2.655421E-2	2.513894E-2	2.684136E-2	5.180124E-2	3.218291E-2	2.748927E-2	3.288834E-2	1.926874E-2	1.788754E-2	3.341194E-2	2.758854E-2	2.792701E-2	2.333438E-2	3.332329E-2	2.432858E-2	4.402475E-2	2.785024E-2	2.678865E-2	3.738217E-2	4.674449E-2	4.113019E-2	3.619929E-2	2.360714E-2	3.673092E-2	3.229022E-2	2.703391E-2	2.990109E-2	3.615872E-2	3.025668E-2	2.774819E-2	2.975955E-2	2.867052E-2	1.875876E-2	2.542998E-2	2.737327E-2	4.600774E-2	2.012261E-2	1.940262E-2	3.020423E-2	3.502905E-2	4.184354E-2	2.033634E-2	2.254200E-2	6.005341E-2	3.409419E-2	2.379200E-2	2.863419E-2	2.754499E-2	1.061451E-2	3.820293E-2	1.840825E-2	3.804341E-2	2.405930E-2	1.510372E-2	3.188741E-2	3.321600E-2	3.240106E-2	2.895371E-2	1.623144E-2	1.377392E-2	2.774993E-2	3.621259E-2	2.582124E-2	3.116580E-2	3.215853E-2	2.800829E-2	3.626971E-2	2.442377E-2	3.224024E-2	3.662426E-2	3.407154E-2	2.931651E-2	2.962976E-2	3.288515E-2	2.586734E-2	3.945638E-2	3.324521E-2	2.446749E-2	3.139232E-2	5.162887E-2	2.759521E-2	3.660640E-2	3.270644E-2	3.752002E-2	3.201502E-2	4.423839E-2	3.837133E-2	2.952614E-2	2.204748E-2	4.227800E-2	3.776862E-2	4.158621E-2	3.444318E-2	4.045398E-2	3.958374E-2	4.170383E-2	3.014859E-2	3.088329E-2	2.454131E-2	2.644580E-2	3.237966E-2	1.720876E-2
5.336080E+2	3.158015E-2	3.281371E-2	4.979826E-2	3.984505E-2	3.318438E-2	1.919385E-2	2.803152E-2	4.230164E-2	3.540055E-2	3.831707E-2	3.016502E-2	2.988082E-2	5.075535E-2	5.155185E-2	3.938941E-2	4.078742E-2	3.247374E-2	2.669056E-2	4.478949E-2	5.543684E-2	3.600744E-2	4.254205E-2	6.027505E-2	3.837540E-2	3.231550E-2	3.575965E-2	4.119765E-2	3.022944E-2	3.308745E-2	4.141721E-2	5.091620E-2	5.163972E-2	3.096574E-2	4.072521E-2	4.485782E-2	2.993691E-2	3.781465E-2	3.599509E-2	3.705302E-2	3.889183E-2	2.370815E-2	3.703042E-2	4.200333E-2	2.593510E-2	3.085653E-2	4.125981E-2	3.234701E-2	5.454512E-2	4.048304E-2	5.284607E-2	3.916538E-2	4.435114E-2	4.386419E-2	4.912196E-2	4.025946E-2	3.996304E-2	2.379259E-2	5.494506E-2	3.797478E-2	4.393256E-2	2.675220E-2	5.397365E-2	4.312982E-2	4.357137E-2	2.985849E-2	2.761458E-2	4.352594E-2	3.366503E-2	3.604153E-2	3.548234E-2	4.571606E-2	4.364902E-2	2.680508E-2	3.023403E-2	3.688069E-2	2.263035E-2	4.759210E-2	4.357991E-2	4.544165E-2	3.958645E-2	3.220444E-2	4.916927E-2	3.371389E-2	3.155769E-2	3.298359E-2	2.644402E-2	4.984913E-2	2.716765E-2	3.917370E-2	4.983513E-2	3.760098E-2	4.683863E-2	3.025450E-2	4.648057E-2	4.223090E-2	3.119878E-2	3.370956E-2	4.346869E-2	4.021240E-2	2.888063E-2	4.064438E-2	4.572199E-2	5.431482E-2	4.669495E-2	4.057298E-2	3.623187E-2	4.454148E-2	3.335753E-2	3.249206E-2	3.211406E-2	5.343536E-2	2.690874E-2	4.314213E-2	3.735787E-2	3.285081E-2	3.822503E-2	4.071444E-2	3.392896E-2	4.384508E-2	3.778515E-2	2.826199E-2	4.028236E-2	3.362468E-2	3.205058E-2	4.020456E-2	3.729738E-2	3.260579E-2	5.868001E-2	4.088810E-2	3.948351E-2	2.442374E-2	4.040641E-2	4.249528E-2	4.298103E-2	3.218668E-2	4.105228E-2	2.195808E-2	5.684013E-2	5.143228E-2	4.586237E-2	3.365453E-2	3.713732E-2	4.750640E-2	4.219893E-2	3.588863E-2	5.152386E-2	3.523618E-2	4.620835E-2	3.167428E-2	2.294266E-2	3.822151E-2	3.490853E-2	4.447559E-2	4.974951E-2	3.118966E-2	3.673934E-2	2.596916E-2	4.181836E-2	4.239721E-2	2.225254E-2	3.482829E-2	2.899177E-2	5.987038E-2	2.619803E-2	4.071357E-2
5.337630E+2	5.606250E-2	3.917203E-2	6.096586E-2	4.413603E-2	4.305302E-2	3.870939E-2	4.765357E-2	5.044468E-2	4.528446E-2	4.733283E-2	5.571887E-2	5.867896E-2	5.493525E-2	5.357915E-2	5.525852E-2	6.181098E-2	4.711875E-2	4.441396E-2	6.352901E-2	7.206779E-2	4.511777E-2	4.010113E-2	5.006203E-2	6.302595E-2	4.748400E-2	4.886168E-2	4.624431E-2	4.456406E-2	5.851520E-2	6.250237E-2	5.731883E-2	6.639407E-2	5.483518E-2	7.350141E-2	5.568554E-2	5.965604E-2	4.606825E-2	4.879550E-2	4.145982E-2	5.479823E-2	3.698469E-2	5.460425E-2	6.094995E-2	5.354657E-2	5.923138E-2	4.797638E-2	4.837121E-2	6.534529E-2	4.185536E-2	5.818514E-2	4.794382E-2	6.596076E-2	5.177110E-2	6.071253E-2	4.547828E-2	5.706507E-2	3.070331E-2	5.494507E-2	4.854738E-2	4.321408E-2	4.512327E-2	5.127017E-2	5.919593E-2	5.927949E-2	4.064611E-2	5.003761E-2	5.029661E-2	6.627146E-2	5.558955E-2	4.391285E-2	4.968316E-2	4.544636E-2	3.142995E-2	4.280005E-2	5.702652E-2	4.868036E-2	4.635131E-2	5.690773E-2	4.473323E-2	6.501509E-2	3.220439E-2	5.545576E-2	4.529662E-2	7.058414E-2	5.935204E-2	4.984848E-2	4.197825E-2	5.790286E-2	3.488905E-2	5.596872E-2	5.779214E-2	4.834618E-2	5.845024E-2	5.275099E-2	4.155289E-2	4.778544E-2	4.405891E-2	4.730099E-2	7.664013E-2	3.690882E-2	2.519587E-2	5.606726E-2	5.706991E-2	4.002422E-2	3.638613E-2	4.631919E-2	6.238023E-2	4.146020E-2	4.057070E-2	4.464150E-2	5.616066E-2	4.059587E-2	4.384773E-2	4.038985E-2	5.065389E-2	4.845580E-2	4.071448E-2	4.209528E-2	3.853054E-2	3.778520E-2	4.832206E-2	4.940520E-2	4.071421E-2	5.212069E-2	6.349081E-2	5.451157E-2	5.996586E-2	5.027076E-2	3.516376E-2	4.430412E-2	5.976777E-2	5.154201E-2	3.923359E-2	5.120520E-2	4.510231E-2	5.067119E-2	5.473922E-2	4.969256E-2	5.143229E-2	4.656336E-2	3.759186E-2	5.437236E-2	5.369010E-2	3.755226E-2	4.019525E-2	7.818188E-2	7.025479E-2	4.994342E-2	3.536961E-2	4.748834E-2	4.959244E-2	4.326813E-2	5.033592E-2	4.895080E-2	4.826972E-2	5.510909E-2	5.059329E-2	5.671529E-2	5.695893E-2	3.158421E-2	4.271820E-2	4.234323E-2	5.987035E-2	3.856122E-2	4.952774E-2
5.339090E+2	7.334408E-2	5.824715E-2	5.458437E-2	6.730744E-2	5.595802E-2	5.372135E-2	7.336529E-2	6.821146E-2	6.011034E-2	5.785123E-2	6.715095E-2	5.716328E-2	4.179850E-2	7.452815E-2	8.369057E-2	7.333989E-2	8.532317E-2	7.173756E-2	6.424993E-2	9.503465E-2	8.034411E-2	7.488458E-2	7.687113E-2	5.164873E-2	6.199303E-2	7.023870E-2	5.777967E-2	4.797704E-2	5.906796E-2	9.808364E-2	7.296987E-2	8.584281E-2	5.677054E-2	5.901902E-2	7.531083E-2	8.327898E-2	5.726958E-2	6.631186E-2	7.986184E-2	6.886902E-2	4.893365E-2	5.680093E-2	5.112578E-2	6.390093E-2	6.328493E-2	7.417163E-2	7.832965E-2	7.551011E-2	6.861533E-2	7.877887E-2	4.524278E-2	7.316400E-2	8.405738E-2	7.745459E-2	5.787303E-2	6.378386E-2	6.111047E-2	7.506580E-2	5.307842E-2	6.979939E-2	5.104939E-2	8.100876E-2	7.660091E-2	8.415083E-2	5.210801E-2	7.478019E-2	8.339782E-2	8.109254E-2	7.574843E-2	6.661049E-2	6.158422E-2	7.420335E-2	5.389335E-2	5.933427E-2	7.194933E-2	6.839395E-2	5.007354E-2	7.838032E-2	7.732172E-2	8.913956E-2	3.423533E-2	7.274357E-2	8.004486E-2	8.089290E-2	6.514030E-2	6.545150E-2	7.608552E-2	7.775281E-2	5.774038E-2	6.286894E-2	5.923434E-2	8.301739E-2	5.469090E-2	9.037364E-2	5.782532E-2	8.234130E-2	5.095857E-2	6.186356E-2	5.842630E-2	5.369514E-2	3.742594E-2	6.835198E-2	5.913620E-2	6.246215E-2	4.685335E-2	5.496539E-2	6.082900E-2	8.418295E-2	7.288527E-2	6.830447E-2	6.774319E-2	6.405953E-2	6.360436E-2	8.738529E-2	7.735851E-2	6.340855E-2	5.122149E-2	6.999673E-2	6.776062E-2	7.480124E-2	6.769042E-2	5.272260E-2	6.410972E-2	8.365928E-2	7.480122E-2	6.455324E-2	7.796578E-2	6.838318E-2	6.020772E-2	5.876613E-2	6.716535E-2	7.455567E-2	5.358507E-2	7.587776E-2	6.734606E-2	7.531983E-2	7.076555E-2	6.875267E-2	7.388727E-2	7.319968E-2	5.334109E-2	7.088928E-2	6.605765E-2	5.281974E-2	6.675283E-2	8.680650E-2	5.883569E-2	5.741361E-2	7.675740E-2	6.081311E-2	8.102980E-2	6.127363E-2	6.425414E-2	6.013307E-2	8.020202E-2	7.424407E-2	8.028721E-2	7.831638E-2	6.944047E-2	7.824275E-2	6.559889E-2	6.637590E-2	6.244145E-2	8.801360E-2	7.009444E-2
5.340640E+2	9.638637E-2	8.685990E-2	9.048037E-2	1.145084E-1	8.328630E-2	7.173570E-2	9.231058E-2	1.067058E-1	9.117410E-2	1.126972E-1	9.808467E-2	1.011181E-1	7.643146E-2	1.089924E-1	1.108005E-1	1.167431E-1	1.343520E-1	1.145690E-1	1.233510E-1	1.187934E-1	1.052457E-1	1.011246E-1	9.729713E-2	1.211759E-1	9.694656E-2	1.060968E-1	1.104095E-1	1.216977E-1	8.560104E-2	1.013782E-1	1.099626E-1	1.274223E-1	8.838150E-2	1.009420E-1	1.165916E-1	1.290006E-1	9.323109E-2	8.719668E-2	1.107094E-1	1.080232E-1	7.482303E-2	1.131834E-1	1.184917E-1	1.191237E-1	1.078736E-1	1.117851E-1	1.215250E-1	1.187108E-1	1.008646E-1	1.123386E-1	8.035665E-2	1.322303E-1	9.921205E-2	1.173776E-1	8.722903E-2	8.760462E-2	1.115587E-1	1.238200E-1	1.142483E-1	9.494766E-2	9.312488E-2	1.148027E-1	1.094023E-1	1.358565E-1	9.256158E-2	1.072551E-1	9.543480E-2	1.085115E-1	9.957258E-2	8.671385E-2	1.124955E-1	8.918095E-2	8.560646E-2	9.570986E-2	1.032872E-1	1.064130E-1	1.003245E-1	1.198445E-1	1.120356E-1	1.426043E-1	1.127639E-1	1.167491E-1	1.299948E-1	1.361190E-1	9.922653E-2	1.009128E-1	1.056015E-1	1.193732E-1	8.701854E-2	1.104040E-1	1.075493E-1	1.056291E-1	9.792440E-2	1.314795E-1	9.376046E-2	1.265725E-1	1.089154E-1	1.024856E-1	1.304536E-1	1.215697E-1	8.699016E-2	9.680135E-2	1.032176E-1	1.285629E-1	9.779389E-2	1.054018E-1	1.174477E-1	1.055447E-1	9.587841E-2	1.086706E-1	1.229304E-1	1.220671E-1	1.094679E-1	1.139144E-1	9.664492E-2	1.200716E-1	1.129499E-1	1.196747E-1	9.566185E-2	1.030681E-1	9.743470E-2	1.074593E-1	1.151543E-1	8.222571E-2	1.200434E-1	1.083060E-1	1.362858E-1	1.052544E-1	9.741574E-2	1.230415E-1	1.271680E-1	8.494894E-2	8.359279E-2	1.217962E-1	1.118331E-1	1.101885E-1	7.076554E-2	8.860690E-2	1.120603E-1	1.019387E-1	1.038698E-1	1.111041E-1	1.038469E-1	1.045964E-1	9.618162E-2	1.126804E-1	1.212602E-1	1.194160E-1	1.063198E-1	9.167030E-2	1.164802E-1	8.699578E-2	8.110257E-2	9.607579E-2	1.047083E-1	1.148106E-1	1.230173E-1	1.230074E-1	1.228331E-1	1.083914E-1	9.400266E-2	8.239765E-2	1.292905E-1	1.086190E-1	9.066097E-2
5.342090E+2	1.698332E-1	1.417007E-1	1.359485E-1	1.282397E-1	1.417387E-1	1.265293E-1	1.498236E-1	1.637071E-1	1.398876E-1	1.637863E-1	1.155690E-1	1.329477E-1	9.971910E-2	1.556210E-1	1.656811E-1	1.472611E-1	1.649156E-1	1.817704E-1	1.781284E-1	1.781897E-1	1.544415E-1	1.365182E-1	1.464471E-1	1.426664E-1	1.365166E-1	1.681593E-1	1.486202E-1	1.298890E-1	1.397730E-1	1.731993E-1	1.697207E-1	1.716852E-1	1.399909E-1	1.459135E-1	1.423076E-1	1.526232E-1	1.374467E-1	1.282926E-1	1.705158E-1	1.740954E-1	1.392143E-1	1.497950E-1	1.444553E-1	1.529478E-1	1.350903E-1	1.755936E-1	1.800484E-1	1.949466E-1	1.482094E-1	1.413224E-1	1.100681E-1	1.617633E-1	1.361107E-1	1.785502E-1	1.420266E-1	1.450188E-1	1.191606E-1	1.772172E-1	1.489863E-1	1.359034E-1	1.417191E-1	1.546796E-1	1.488979E-1	1.489466E-1	1.444769E-1	1.551938E-1	1.811966E-1	1.915097E-1	1.191203E-1	1.379455E-1	1.217516E-1	1.640691E-1	1.219442E-1	1.129054E-1	1.480557E-1	1.380955E-1	1.406489E-1	1.590876E-1	1.701281E-1	1.810732E-1	1.235955E-1	1.489673E-1	1.307186E-1	1.611545E-1	1.526067E-1	1.555234E-1	1.692245E-1	1.449861E-1	1.320070E-1	1.196043E-1	1.378359E-1	1.621589E-1	1.511829E-1	1.746758E-1	1.500355E-1	1.576723E-1	1.482434E-1	1.653348E-1	1.875789E-1	1.573318E-1	1.249677E-1	1.465876E-1	1.507428E-1	1.376590E-1	1.326849E-1	1.587205E-1	1.632080E-1	1.364817E-1	1.331640E-1	1.420775E-1	1.604036E-1	1.422715E-1	1.553318E-1	1.518137E-1	1.418943E-1	1.971961E-1	1.365908E-1	1.564232E-1	1.348571E-1	1.723891E-1	1.403217E-1	1.787828E-1	1.435123E-1	1.596388E-1	1.306887E-1	1.714243E-1	1.542862E-1	1.699410E-1	1.367707E-1	1.616072E-1	1.674438E-1	1.710645E-1	1.351277E-1	1.636023E-1	1.591905E-1	1.348369E-1	1.370563E-1	1.481698E-1	1.502338E-1	1.475007E-1	1.248690E-1	1.434200E-1	1.670576E-1	1.577007E-1	1.299167E-1	1.707005E-1	1.722660E-1	1.492967E-1	1.550985E-1	1.379563E-1	1.539374E-1	1.268647E-1	1.111367E-1	1.575785E-1	1.477799E-1	1.347109E-1	1.519867E-1	1.423738E-1	1.568102E-1	1.636640E-1	1.563327E-1	1.349137E-1	1.588584E-1	1.972212E-1	1.082894E-1
5.343600E+2	2.389598E-1	1.893879E-1	2.332657E-1	2.672680E-1	2.328332E-1	2.120974E-1	2.269581E-1	2.192280E-1	2.196650E-1	2.479338E-1	2.352678E-1	2.830015E-1	2.143667E-1	2.867213E-1	2.615571E-1	2.564476E-1	3.018147E-1	3.479268E-1	3.244408E-1	3.405398E-1	2.753051E-1	2.683288E-1	2.932595E-1	2.507493E-1	2.611621E-1	2.798714E-1	2.733463E-1	2.752829E-1	2.342974E-1	3.181598E-1	2.942160E-1	2.944139E-1	2.528873E-1	2.815920E-1	2.620896E-1	3.134118E-1	2.471010E-1	2.320431E-1	2.504675E-1	2.468971E-1	2.653416E-1	2.479156E-1	2.707659E-1	2.461371E-1	2.775432E-1	2.347005E-1	2.831609E-1	2.965948E-1	2.566213E-1	3.106477E-1	2.079814E-1	2.698115E-1	2.382411E-1	2.925245E-1	2.483596E-1	2.488526E-1	2.366425E-1	2.770467E-1	2.433837E-1	2.350599E-1	2.264629E-1	2.905307E-1	2.620304E-1	2.628307E-1	2.287548E-1	3.044227E-1	2.669590E-1	3.026675E-1	2.431277E-1	2.449489E-1	2.414258E-1	2.569301E-1	2.078339E-1	2.193857E-1	2.793768E-1	2.634174E-1	2.442523E-1	2.842210E-1	2.707270E-1	3.225598E-1	2.237870E-1	2.801973E-1	3.022878E-1	2.819154E-1	2.323555E-1	2.285736E-1	2.584286E-1	2.474363E-1	2.591179E-1	2.675768E-1	2.431184E-1	2.526057E-1	2.163465E-1	3.042638E-1	2.727571E-1	3.214657E-1	2.400080E-1	2.749368E-1	2.927227E-1	2.660776E-1	2.183026E-1	2.474532E-1	2.623243E-1	2.516680E-1	2.394506E-1	2.812088E-1	2.927329E-1	2.447621E-1	2.332149E-1	2.854471E-1	3.075692E-1	3.084729E-1	2.343587E-1	2.579322E-1	2.858018E-1	2.916346E-1	2.291832E-1	2.530574E-1	2.511129E-1	2.585355E-1	2.357799E-1	2.467894E-1	2.548183E-1	2.929608E-1	2.298216E-1	2.854680E-1	2.918063E-1	3.019016E-1	2.283598E-1	3.054233E-1	2.825171E-1	2.831632E-1	2.642909E-1	2.478997E-1	2.352497E-1	2.695023E-1	2.099029E-1	2.236163E-1	2.902019E-1	2.610552E-1	2.567684E-1	2.583202E-1	2.831738E-1	2.911248E-1	2.354293E-1	2.922304E-1	2.521995E-1	2.635900E-1	2.622630E-1	2.389441E-1	2.515935E-1	2.271806E-1	2.034364E-1	2.542248E-1	2.413487E-1	2.234979E-1	2.598987E-1	2.555917E-1	2.975730E-1	2.648768E-1	2.778372E-1	2.194729E-1	3.028409E-1	2.384316E-1	2.316893E-1
5.345160E+2	4.456194E-1	3.857033E-1	4.247100E-1	4.560725E-1	3.998396E-1	4.050009E-1	3.629597E-1	4.272465E-1	3.898096E-1	3.996997E-1	4.262493E-1	4.338130E-1	3.397627E-1	4.799922E-1	4.400847E-1	4.578658E-1	5.087548E-1	5.369765E-1	5.125561E-1	5.662470E-1	4.374688E-1	4.605529E-1	4.758170E-1	4.530103E-1	4.174638E-1	4.605414E-1	4.189794E-1	4.472985E-1	4.211349E-1	5.105614E-1	4.919870E-1	4.828650E-1	4.057802E-1	4.843469E-1	4.799976E-1	4.902026E-1	4.098132E-1	4.402185E-1	4.160370E-1	4.720325E-1	3.881497E-1	4.631942E-1	4.405836E-1	4.145672E-1	4.182590E-1	4.503064E-1	4.587299E-1	5.189498E-1	4.652122E-1	4.937021E-1	3.869268E-1	4.707809E-1	4.023079E-1	4.696025E-1	4.329754E-1	4.186519E-1	3.776214E-1	4.929578E-1	4.510592E-1	3.974459E-1	3.935793E-1	4.824805E-1	4.682121E-1	4.820901E-1	4.175378E-1	4.590646E-1	4.339699E-1	5.109043E-1	4.245570E-1	4.187471E-1	4.695336E-1	4.091028E-1	3.360076E-1	3.364482E-1	4.017440E-1	4.274621E-1	3.875605E-1	4.471174E-1	4.719252E-1	5.096871E-1	3.882904E-1	4.774360E-1	4.644453E-1	4.888286E-1	4.458756E-1	4.229018E-1	4.309327E-1	4.894756E-1	4.162200E-1	4.546495E-1	4.385402E-1	4.681711E-1	4.105840E-1	4.617207E-1	4.714166E-1	5.115221E-1	4.028388E-1	4.757471E-1	5.096337E-1	4.864876E-1	4.313644E-1	4.317263E-1	4.965069E-1	4.160094E-1	3.727333E-1	4.743079E-1	4.757738E-1	4.023948E-1	3.978943E-1	4.629199E-1	4.826701E-1	4.968346E-1	4.432144E-1	4.542503E-1	4.912792E-1	4.868065E-1	4.301288E-1	4.408825E-1	4.145357E-1	4.604409E-1	4.031778E-1	4.591015E-1	4.107884E-1	4.800427E-1	4.374026E-1	4.654999E-1	4.530866E-1	5.069585E-1	4.387290E-1	4.572743E-1	5.052665E-1	5.014211E-1	4.241141E-1	4.391116E-1	4.074582E-1	4.588744E-1	3.687093E-1	4.443965E-1	4.690925E-1	4.496115E-1	4.385408E-1	4.536500E-1	5.325821E-1	4.929206E-1	3.875969E-1	4.811877E-1	4.508925E-1	4.876954E-1	4.817661E-1	4.149718E-1	4.663031E-1	3.860145E-1	4.100127E-1	4.371342E-1	4.500218E-1	4.225032E-1	4.416835E-1	5.006490E-1	5.035169E-1	5.089367E-1	4.679839E-1	3.271746E-1	4.185412E-1	5.083591E-1	3.962223E-1
5.346620E+2	7.523685E-1	5.939391E-1	7.198532E-1	7.255474E-1	6.890641E-1	6.444417E-1	6.593208E-1	6.870840E-1	6.580873E-1	6.791883E-1	7.033064E-1	7.066377E-1	5.839854E-1	7.834144E-1	7.806093E-1	7.705049E-1	7.589939E-1	8.685518E-1	7.626570E-1	8.545184E-1	7.296061E-1	7.461426E-1	7.088014E-1	7.608262E-1	6.997295E-1	7.460274E-1	6.915021E-1	7.681210E-1	6.698830E-1	8.149779E-1	7.957560E-1	8.061159E-1	6.747952E-1	7.557032E-1	7.378331E-1	7.957765E-1	6.509346E-1	7.278904E-1	7.012198E-1	6.934975E-1	6.589917E-1	7.084948E-1	7.142574E-1	6.934430E-1	6.962161E-1	7.942007E-1	7.785172E-1	8.493069E-1	6.868394E-1	7.942165E-1	6.448781E-1	7.545871E-1	6.981560E-1	7.439127E-1	6.789121E-1	7.026685E-1	6.194965E-1	7.305373E-1	7.501103E-1	7.416190E-1	6.264764E-1	7.785147E-1	7.855175E-1	7.785811E-1	6.575610E-1	7.691199E-1	7.341372E-1	7.554525E-1	7.098348E-1	6.684209E-1	7.062371E-1	7.110515E-1	5.976403E-1	5.745409E-1	6.972160E-1	7.069719E-1	6.388148E-1	7.692067E-1	7.666384E-1	8.193926E-1	6.482469E-1	7.784015E-1	8.046873E-1	7.789492E-1	6.812628E-1	7.200680E-1	6.913289E-1	7.263929E-1	6.397347E-1	7.030588E-1	6.966997E-1	7.093635E-1	6.862758E-1	7.836014E-1	7.819491E-1	7.914223E-1	6.974523E-1	7.830942E-1	8.648039E-1	7.813412E-1	6.547250E-1	6.806571E-1	7.871686E-1	7.004243E-1	6.386015E-1	7.185644E-1	7.805835E-1	7.125045E-1	6.458457E-1	7.768021E-1	7.899478E-1	7.875234E-1	6.647718E-1	7.187877E-1	8.117329E-1	8.440981E-1	6.632520E-1	7.403125E-1	6.696339E-1	7.700294E-1	6.591168E-1	6.664378E-1	7.078401E-1	7.115651E-1	6.842377E-1	7.452301E-1	7.360477E-1	7.967548E-1	7.614389E-1	7.609756E-1	8.143211E-1	7.686762E-1	6.870074E-1	6.591085E-1	7.655089E-1	7.125744E-1	6.455272E-1	6.755009E-1	7.595085E-1	7.103657E-1	6.931527E-1	7.768066E-1	7.847389E-1	7.976065E-1	6.416879E-1	7.673697E-1	8.170654E-1	7.573688E-1	7.219629E-1	6.828699E-1	7.164632E-1	6.631701E-1	6.803201E-1	6.903323E-1	7.440966E-1	7.317262E-1	7.371734E-1	8.030607E-1	7.760276E-1	8.089873E-1	7.299283E-1	6.111163E-1	8.196358E-1	7.844697E-1	6.900312E-1
5.348070E+2	1.111683E+0	9.627245E-1	1.065251E+0	1.146066E+0	1.015486E+0	9.702012E-1	9.137303E-1	1.013546E+0	9.849624E-1	1.092412E+0	1.057698E+0	1.094655E+0	8.909058E-1	1.147656E+0	1.126425E+0	1.184191E+0	1.091372E+0	1.236311E+0	1.217450E+0	1.183971E+0	1.051504E+0	1.137302E+0	1.094980E+0	1.059160E+0	9.780389E-1	1.097024E+0	1.127682E+0	1.047304E+0	9.750142E-1	1.199783E+0	1.243228E+0	1.216551E+0	1.030901E+0	1.081941E+0	1.099886E+0	1.182887E+0	9.893297E-1	1.078890E+0	1.046837E+0	1.071579E+0	9.212036E-1	1.074615E+0	1.092488E+0	1.094501E+0	9.695405E-1	1.228099E+0	1.106665E+0	1.196818E+0	1.010704E+0	1.164139E+0	9.440206E-1	1.094578E+0	9.518337E-1	1.126402E+0	1.087937E+0	1.058149E+0	9.083636E-1	1.136048E+0	1.112598E+0	9.866353E-1	9.447091E-1	1.171200E+0	1.126253E+0	1.192227E+0	1.055354E+0	1.130208E+0	1.086213E+0	1.168960E+0	9.993892E-1	1.007588E+0	1.057324E+0	1.026780E+0	8.064179E-1	8.820779E-1	1.005372E+0	1.083642E+0	9.738187E-1	1.099440E+0	1.137863E+0	1.170175E+0	9.948549E-1	1.080938E+0	1.147824E+0	1.164794E+0	1.068430E+0	1.005177E+0	1.080939E+0	1.059997E+0	9.653659E-1	1.035805E+0	1.013268E+0	1.097532E+0	1.024625E+0	1.167488E+0	1.070107E+0	1.148036E+0	9.741266E-1	1.055951E+0	1.225769E+0	1.185670E+0	9.179940E-1	1.086704E+0	1.189412E+0	1.010309E+0	9.756460E-1	1.028388E+0	1.158299E+0	1.012301E+0	1.044184E+0	1.124091E+0	1.221908E+0	1.144693E+0	1.033799E+0	1.138712E+0	1.199691E+0	1.165188E+0	9.692669E-1	1.055394E+0	1.019730E+0	1.072215E+0	9.427246E-1	1.054571E+0	1.047429E+0	1.093613E+0	1.054823E+0	1.162674E+0	1.180289E+0	1.148003E+0	1.001861E+0	1.112884E+0	1.194886E+0	1.174012E+0	9.759939E-1	9.736825E-1	1.087683E+0	1.025190E+0	9.267157E-1	1.014613E+0	1.089595E+0	1.074160E+0	9.838572E-1	1.182547E+0	1.207293E+0	1.166681E+0	9.661213E-1	1.141366E+0	1.172581E+0	1.059910E+0	1.101843E+0	1.019496E+0	1.051571E+0	1.009132E+0	9.491619E-1	1.058547E+0	1.030744E+0	1.010333E+0	1.081912E+0	1.173254E+0	1.176127E+0	1.186562E+0	1.058149E+0	9.173099E-1	1.141026E+0	1.087365E+0	9.456462E-1
5.349630E+2	1.561005E+0	1.341046E+0	1.478449E+0	1.527963E+0	1.356332E+0	1.336494E+0	1.304820E+0	1.462897E+0	1.337252E+0	1.452293E+0	1.474628E+0	1.508440E+0	1.298143E+0	1.653811E+0	1.630269E+0	1.591101E+0	1.388092E+0	1.592995E+0	1.583590E+0	1.602123E+0	1.421989E+0	1.483916E+0	1.482436E+0	1.466843E+0	1.287345E+0	1.470088E+0	1.479511E+0	1.458915E+0	1.334319E+0	1.611599E+0	1.591817E+0	1.609552E+0	1.400555E+0	1.474491E+0	1.486979E+0	1.586763E+0	1.338925E+0	1.446059E+0	1.340205E+0	1.460671E+0	1.228554E+0	1.469293E+0	1.451773E+0	1.496251E+0	1.289191E+0	1.582066E+0	1.590877E+0	1.604681E+0	1.401811E+0	1.701098E+0	1.258019E+0	1.536136E+0	1.343880E+0	1.536579E+0	1.412157E+0	1.414238E+0	1.353412E+0	1.509054E+0	1.516619E+0	1.418467E+0	1.311537E+0	1.677430E+0	1.586146E+0	1.585586E+0	1.410671E+0	1.471965E+0	1.481923E+0	1.530596E+0	1.369576E+0	1.383721E+0	1.480481E+0	1.443757E+0	1.149316E+0	1.188954E+0	1.376204E+0	1.494106E+0	1.298277E+0	1.475582E+0	1.536718E+0	1.659836E+0	1.346204E+0	1.544567E+0	1.512678E+0	1.530024E+0	1.348835E+0	1.461918E+0	1.484322E+0	1.468518E+0	1.391688E+0	1.468219E+0	1.434398E+0	1.460074E+0	1.348562E+0	1.533960E+0	1.570485E+0	1.579980E+0	1.345323E+0	1.506625E+0	1.681942E+0	1.525046E+0	1.364070E+0	1.384131E+0	1.528980E+0	1.406305E+0	1.351073E+0	1.422511E+0	1.537567E+0	1.446897E+0	1.410208E+0	1.595960E+0	1.733583E+0	1.484265E+0	1.324502E+0	1.543476E+0	1.575036E+0	1.662564E+0	1.371160E+0	1.460307E+0	1.401049E+0	1.483430E+0	1.339777E+0	1.514029E+0	1.408995E+0	1.466343E+0	1.465326E+0	1.610240E+0	1.613010E+0	1.584639E+0	1.358200E+0	1.484075E+0	1.646958E+0	1.579351E+0	1.408497E+0	1.309505E+0	1.496677E+0	1.425577E+0	1.352872E+0	1.447438E+0	1.465338E+0	1.461788E+0	1.390055E+0	1.582545E+0	1.572816E+0	1.589526E+0	1.253948E+0	1.481648E+0	1.497645E+0	1.549205E+0	1.479508E+0	1.422749E+0	1.456910E+0	1.371168E+0	1.332280E+0	1.399606E+0	1.427299E+0	1.399159E+0	1.475174E+0	1.529294E+0	1.597029E+0	1.501688E+0	1.448698E+0	1.272459E+0	1.558833E+0	1.606617E+0	1.271772E+0
5.351090E+2	1.868474E+0	1.534183E+0	1.738497E+0	1.811170E+0	1.672127E+0	1.656998E+0	1.593057E+0	1.663513E+0	1.599882E+0	1.740045E+0	1.675026E+0	1.816125E+0	1.573417E+0	1.890332E+0	1.859050E+0	1.867115E+0	1.611592E+0	1.770232E+0	1.801257E+0	1.884847E+0	1.610271E+0	1.745097E+0	1.677762E+0	1.658359E+0	1.563014E+0	1.748676E+0	1.754194E+0	1.693727E+0	1.597439E+0	1.881097E+0	1.842946E+0	1.894576E+0	1.641184E+0	1.825884E+0	1.745489E+0	1.890815E+0	1.577099E+0	1.681185E+0	1.765775E+0	1.764728E+0	1.535244E+0	1.697751E+0	1.733164E+0	1.665368E+0	1.568884E+0	1.900441E+0	1.861195E+0	1.870236E+0	1.589133E+0	1.984072E+0	1.463977E+0	1.825704E+0	1.551439E+0	1.772899E+0	1.692669E+0	1.681152E+0	1.515815E+0	1.832535E+0	1.776402E+0	1.635463E+0	1.552139E+0	1.911286E+0	1.892070E+0	1.850660E+0	1.596081E+0	1.754185E+0	1.793377E+0	1.815899E+0	1.646301E+0	1.608748E+0	1.652389E+0	1.634871E+0	1.287401E+0	1.365539E+0	1.659740E+0	1.731372E+0	1.546431E+0	1.746584E+0	1.873938E+0	1.882824E+0	1.526275E+0	1.795240E+0	1.797177E+0	1.875369E+0	1.632459E+0	1.678231E+0	1.641085E+0	1.652288E+0	1.570924E+0	1.734264E+0	1.708423E+0	1.607054E+0	1.601072E+0	1.799410E+0	1.836267E+0	1.904801E+0	1.612340E+0	1.788677E+0	1.987441E+0	1.789973E+0	1.566189E+0	1.691254E+0	1.787955E+0	1.712554E+0	1.478771E+0	1.655960E+0	1.820661E+0	1.677453E+0	1.652565E+0	1.842334E+0	1.946839E+0	1.855774E+0	1.610976E+0	1.654900E+0	1.912553E+0	2.012769E+0	1.531389E+0	1.676033E+0	1.712618E+0	1.791671E+0	1.570814E+0	1.731316E+0	1.637282E+0	1.753774E+0	1.686881E+0	1.845501E+0	1.857089E+0	1.886727E+0	1.670890E+0	1.802240E+0	1.899298E+0	1.796124E+0	1.636815E+0	1.551432E+0	1.721984E+0	1.670859E+0	1.540088E+0	1.707134E+0	1.829108E+0	1.704318E+0	1.632199E+0	1.800854E+0	1.751455E+0	1.863672E+0	1.548231E+0	1.765479E+0	1.840220E+0	1.781530E+0	1.755919E+0	1.652772E+0	1.621454E+0	1.614243E+0	1.560102E+0	1.608874E+0	1.719146E+0	1.629546E+0	1.684481E+0	1.827238E+0	1.880635E+0	1.835474E+0	1.677507E+0	1.409534E+0	1.785091E+0	1.884787E+0	1.518572E+0
5.352550E+2	2.261631E+0	1.810772E+0	2.027255E+0	2.160458E+0	2.305993E+0	1.924209E+0	1.751391E+0	1.984790E+0	2.074310E+0	2.054847E+0	1.980998E+0	2.026808E+0	1.846300E+0	2.245788E+0	2.170477E+0	2.095661E+0	1.805157E+0	2.065619E+0	1.954777E+0	2.117683E+0	1.899978E+0	1.948913E+0	1.940745E+0	1.892857E+0	1.844622E+0	1.974170E+0	1.943084E+0	1.835024E+0	1.795886E+0	2.099195E+0	2.055653E+0	2.153443E+0	1.844397E+0	2.005010E+0	1.972198E+0	2.054651E+0	1.798176E+0	1.916979E+0	1.973522E+0	1.918896E+0	1.670665E+0	1.919621E+0	1.984383E+0	1.870383E+0	1.782564E+0	2.171125E+0	2.105738E+0	2.131976E+0	1.878687E+0	2.245686E+0	1.715852E+0	2.109512E+0	1.741862E+0	2.025315E+0	1.862280E+0	1.898593E+0	1.672689E+0	2.091784E+0	1.979549E+0	1.867544E+0	1.679548E+0	2.197860E+0	2.108962E+0	2.173330E+0	1.832734E+0	2.041821E+0	1.955874E+0	2.112325E+0	1.739157E+0	1.885013E+0	1.936697E+0	1.829581E+0	1.493534E+0	1.485910E+0	1.839559E+0	1.889080E+0	1.690980E+0	1.937612E+0	2.074430E+0	2.172315E+0	1.802481E+0	2.026272E+0	1.946305E+0	2.035890E+0	1.871060E+0	1.867598E+0	1.923787E+0	1.931469E+0	1.825860E+0	2.016406E+0	1.815869E+0	1.834675E+0	1.819119E+0	2.115714E+0	2.100698E+0	2.079656E+0	1.806217E+0	2.044675E+0	2.256511E+0	2.052718E+0	1.755436E+0	1.916258E+0	2.049001E+0	1.915101E+0	1.697186E+0	1.810875E+0	2.063425E+0	1.824774E+0	1.839617E+0	2.026069E+0	2.162136E+0	1.975047E+0	1.824064E+0	1.933838E+0	2.077971E+0	2.152858E+0	1.732333E+0	1.952327E+0	1.880026E+0	1.965983E+0	1.834360E+0	1.985926E+0	1.859890E+0	1.940853E+0	1.881821E+0	2.147470E+0	2.107649E+0	2.095661E+0	1.849778E+0	2.030419E+0	2.162325E+0	2.016609E+0	1.826646E+0	1.873545E+0	1.998237E+0	1.871053E+0	1.733863E+0	1.843731E+0	1.939888E+0	1.915303E+0	1.897309E+0	2.113951E+0	2.119038E+0	2.123883E+0	1.710453E+0	2.003045E+0	2.064793E+0	2.031034E+0	2.007201E+0	1.896828E+0	1.917767E+0	1.738995E+0	1.702211E+0	1.906004E+0	1.846875E+0	1.835437E+0	1.950276E+0	2.033561E+0	2.090737E+0	2.092453E+0	1.894477E+0	1.557292E+0	2.074345E+0	1.971330E+0	1.656662E+0
5.354110E+2	2.459652E+0	1.946682E+0	2.185995E+0	2.275456E+0	2.453262E+0	2.003775E+0	1.947610E+0	1.995892E+0	2.176679E+0	2.181821E+0	2.054297E+0	2.177618E+0	1.999166E+0	2.335668E+0	2.303387E+0	2.359471E+0	2.094237E+0	2.174173E+0	2.087394E+0	2.244397E+0	2.373715E+0	2.070353E+0	1.972663E+0	2.028750E+0	2.237683E+0	2.107257E+0	2.108186E+0	1.944242E+0	2.030261E+0	2.249427E+0	2.163074E+0	2.306351E+0	1.972777E+0	2.108673E+0	2.080475E+0	2.194100E+0	1.887783E+0	2.034205E+0	1.964709E+0	2.030242E+0	1.757626E+0	2.033118E+0	2.058767E+0	2.002230E+0	1.934862E+0	2.242993E+0	2.230449E+0	2.219016E+0	1.912306E+0	2.339501E+0	1.722603E+0	2.156330E+0	1.861781E+0	2.107741E+0	1.957521E+0	2.033575E+0	1.828181E+0	2.258162E+0	2.116988E+0	2.003344E+0	1.812295E+0	2.259363E+0	2.094235E+0	2.219803E+0	1.917686E+0	2.157800E+0	2.194350E+0	2.193094E+0	1.940744E+0	1.920680E+0	1.967773E+0	2.070421E+0	1.866162E+0	1.619506E+0	2.050717E+0	1.968639E+0	1.911213E+0	2.105695E+0	2.203360E+0	2.202961E+0	1.922300E+0	2.072632E+0	2.178681E+0	2.189054E+0	1.856910E+0	2.054126E+0	2.011672E+0	2.076179E+0	1.900842E+0	2.044006E+0	1.957929E+0	2.067575E+0	1.859847E+0	2.216040E+0	2.144089E+0	2.291825E+0	1.881423E+0	2.146613E+0	2.340954E+0	2.143215E+0	1.868081E+0	1.946650E+0	2.090331E+0	2.042448E+0	1.830469E+0	1.947771E+0	2.255769E+0	1.994190E+0	1.918541E+0	2.168045E+0	2.222091E+0	2.229237E+0	1.887566E+0	2.088472E+0	2.146218E+0	2.216602E+0	1.871551E+0	1.957767E+0	1.941143E+0	2.120107E+0	1.882089E+0	2.063053E+0	2.033586E+0	1.994616E+0	1.981618E+0	2.241429E+0	2.221410E+0	2.177168E+0	1.975711E+0	2.109957E+0	2.371099E+0	2.193295E+0	1.881442E+0	1.872170E+0	2.083623E+0	2.020148E+0	1.814715E+0	1.915998E+0	2.105301E+0	2.025353E+0	1.889437E+0	2.137652E+0	2.205613E+0	2.210176E+0	1.754951E+0	2.150445E+0	2.233033E+0	2.143086E+0	2.163886E+0	1.955036E+0	1.972615E+0	1.904260E+0	1.819416E+0	2.009836E+0	2.022129E+0	1.931879E+0	2.008939E+0	2.145290E+0	2.235660E+0	2.226690E+0	1.982056E+0	1.624937E+0	2.187471E+0	2.152655E+0	1.744806E+0
5.355630E+2	2.030490E+0	1.629556E+0	1.845386E+0	1.982810E+0	2.061556E+0	1.735062E+0	1.629599E+0	1.781956E+0	1.893579E+0	1.851991E+0	1.775895E+0	1.827492E+0	1.703588E+0	2.008590E+0	1.980714E+0	1.939005E+0	1.730660E+0	1.810107E+0	1.754410E+0	1.940287E+0	1.944921E+0	1.768896E+0	1.717336E+0	1.713983E+0	1.824176E+0	1.725920E+0	1.723916E+0	1.781101E+0	1.707994E+0	1.863961E+0	1.882069E+0	1.886524E+0	1.681181E+0	1.860184E+0	1.785418E+0	1.844328E+0	1.955582E+0	1.813904E+0	1.667566E+0	1.775738E+0	1.814716E+0	1.700684E+0	1.672111E+0	1.693672E+0	1.784300E+0	1.906486E+0	1.871646E+0	1.893741E+0	1.710580E+0	2.019157E+0	1.541632E+0	1.891255E+0	1.672674E+0	1.877210E+0	1.661355E+0	1.734901E+0	1.628459E+0	1.865038E+0	1.780930E+0	1.646241E+0	1.601326E+0	1.938998E+0	1.880023E+0	1.974364E+0	1.605522E+0	1.822227E+0	1.828733E+0	1.918166E+0	1.607821E+0	1.638581E+0	1.710574E+0	1.737318E+0	1.653424E+0	1.466066E+0	1.657501E+0	1.758128E+0	1.607849E+0	1.821360E+0	1.858352E+0	1.982583E+0	1.604804E+0	1.800742E+0	1.844958E+0	1.860639E+0	1.687126E+0	1.722915E+0	1.722418E+0	1.720805E+0	1.673757E+0	1.749598E+0	1.677416E+0	1.848246E+0	1.648690E+0	1.921332E+0	1.869493E+0	1.934519E+0	1.597851E+0	1.874522E+0	1.969226E+0	1.815516E+0	1.624122E+0	1.764314E+0	1.800352E+0	1.680412E+0	1.629499E+0	1.734500E+0	1.860213E+0	1.674507E+0	1.632680E+0	1.918194E+0	2.013607E+0	1.928772E+0	1.604624E+0	1.695074E+0	1.919231E+0	1.958467E+0	1.625951E+0	1.758375E+0	1.720587E+0	1.802439E+0	1.639986E+0	1.755368E+0	1.677687E+0	1.788898E+0	1.647624E+0	1.865588E+0	1.864288E+0	1.901603E+0	1.710960E+0	1.854463E+0	1.930532E+0	1.914162E+0	1.698786E+0	1.634358E+0	1.757146E+0	1.658839E+0	1.561214E+0	1.604686E+0	1.822374E+0	1.694504E+0	1.680761E+0	1.905699E+0	1.932842E+0	1.858362E+0	1.582688E+0	1.814871E+0	1.917872E+0	1.824858E+0	1.841651E+0	1.710984E+0	1.767940E+0	1.609741E+0	1.608447E+0	1.679960E+0	1.765932E+0	1.702260E+0	1.860469E+0	1.809360E+0	1.943043E+0	1.895773E+0	1.751672E+0	1.514566E+0	1.841656E+0	1.827092E+0	1.647848E+0
5.357250E+2	1.757585E+0	1.480136E+0	1.692232E+0	1.715911E+0	1.831538E+0	1.555668E+0	1.522689E+0	1.562094E+0	1.722019E+0	1.656649E+0	1.609797E+0	1.654706E+0	1.502957E+0	1.809235E+0	1.761189E+0	1.833885E+0	1.541549E+0	1.649858E+0	1.664317E+0	1.751805E+0	1.754212E+0	1.578501E+0	1.621588E+0	1.535737E+0	1.668534E+0	1.610760E+0	1.610003E+0	1.509424E+0	1.527786E+0	1.778304E+0	1.711332E+0	1.752396E+0	1.564414E+0	1.677247E+0	1.609466E+0	1.682779E+0	1.809964E+0	1.608424E+0	1.548583E+0	1.571404E+0	1.530597E+0	1.628191E+0	1.642642E+0	1.647421E+0	1.553251E+0	1.753344E+0	1.728126E+0	1.759692E+0	1.631673E+0	1.794150E+0	1.366738E+0	1.625454E+0	1.739882E+0	1.598397E+0	1.517837E+0	1.580982E+0	1.631224E+0	1.683176E+0	1.660857E+0	1.521219E+0	1.440725E+0	1.751101E+0	1.701958E+0	1.728923E+0	1.577203E+0	1.632793E+0	1.629371E+0	1.709931E+0	1.633475E+0	1.519258E+0	1.567753E+0	1.579156E+0	1.608493E+0	1.299402E+0	1.550801E+0	1.578593E+0	1.499900E+0	1.631072E+0	1.781132E+0	1.814363E+0	1.458578E+0	1.651437E+0	1.669768E+0	1.615439E+0	1.534703E+0	1.527171E+0	1.540077E+0	1.586340E+0	1.463811E+0	1.528023E+0	1.543286E+0	1.625140E+0	1.473879E+0	1.703260E+0	1.649812E+0	1.722352E+0	1.438472E+0	1.686739E+0	1.906304E+0	1.668095E+0	1.400119E+0	1.589092E+0	1.683951E+0	1.518496E+0	1.434110E+0	1.571663E+0	1.754734E+0	1.519085E+0	1.496587E+0	1.733762E+0	1.844641E+0	1.731940E+0	1.486788E+0	1.567731E+0	1.704851E+0	1.776675E+0	1.466375E+0	1.535844E+0	1.612302E+0	1.591110E+0	1.460136E+0	1.580375E+0	1.523846E+0	1.621885E+0	1.508573E+0	1.786684E+0	1.755573E+0	1.738593E+0	1.587888E+0	1.688952E+0	1.836006E+0	1.711490E+0	1.521352E+0	1.515792E+0	1.600721E+0	1.567458E+0	1.424259E+0	1.514148E+0	1.716085E+0	1.555715E+0	1.560015E+0	1.817371E+0	1.756954E+0	1.745518E+0	1.371661E+0	1.661981E+0	1.678829E+0	1.661260E+0	1.619191E+0	1.512513E+0	1.539182E+0	1.492703E+0	1.412858E+0	1.529799E+0	1.579534E+0	1.557595E+0	1.630886E+0	1.656665E+0	1.718378E+0	1.689038E+0	1.548902E+0	1.307173E+0	1.648822E+0	1.666372E+0	1.439243E+0
5.358550E+2	1.664695E+0	1.377606E+0	1.541468E+0	1.588039E+0	1.767016E+0	1.464095E+0	1.387365E+0	1.469558E+0	1.615415E+0	1.612319E+0	1.473957E+0	1.619840E+0	1.402642E+0	1.712603E+0	1.656720E+0	1.700962E+0	1.474689E+0	1.549427E+0	1.494940E+0	1.622714E+0	1.658858E+0	1.538226E+0	1.492652E+0	1.475693E+0	1.578183E+0	1.547321E+0	1.450671E+0	1.461642E+0	1.445427E+0	1.601061E+0	1.601775E+0	1.610893E+0	1.469582E+0	1.623129E+0	1.551944E+0	1.611908E+0	1.587120E+0	1.491875E+0	1.462965E+0	1.506555E+0	1.514003E+0	1.415838E+0	1.521944E+0	1.501771E+0	1.404427E+0	1.624384E+0	1.654971E+0	1.690446E+0	1.536981E+0	1.771269E+0	1.299886E+0	1.586556E+0	1.635777E+0	1.542375E+0	1.450646E+0	1.506467E+0	1.553133E+0	1.608110E+0	1.576279E+0	1.406973E+0	1.438356E+0	1.676755E+0	1.671162E+0	1.603910E+0	1.474049E+0	1.581760E+0	1.584235E+0	1.568388E+0	1.648135E+0	1.437543E+0	1.490400E+0	1.480302E+0	1.546391E+0	1.217394E+0	1.407542E+0	1.422292E+0	1.477569E+0	1.571099E+0	1.622437E+0	1.711347E+0	1.468060E+0	1.557139E+0	1.566972E+0	1.629428E+0	1.582294E+0	1.515113E+0	1.513839E+0	1.443547E+0	1.572354E+0	1.501956E+0	1.406277E+0	1.503791E+0	1.427511E+0	1.641950E+0	1.614557E+0	1.602790E+0	1.346706E+0	1.620057E+0	1.754797E+0	1.619924E+0	1.382096E+0	1.505041E+0	1.595788E+0	1.470589E+0	1.332930E+0	1.452054E+0	1.608143E+0	1.477096E+0	1.463649E+0	1.680171E+0	1.704283E+0	1.656983E+0	1.429635E+0	1.557878E+0	1.622513E+0	1.663351E+0	1.367218E+0	1.470517E+0	1.462169E+0	1.507658E+0	1.420709E+0	1.522320E+0	1.487691E+0	1.481395E+0	1.469982E+0	1.633197E+0	1.649729E+0	1.679727E+0	1.516336E+0	1.588523E+0	1.658467E+0	1.623148E+0	1.488079E+0	1.393802E+0	1.635163E+0	1.502526E+0	1.313533E+0	1.443465E+0	1.571626E+0	1.489829E+0	1.481273E+0	1.629940E+0	1.659386E+0	1.647273E+0	1.318547E+0	1.610232E+0	1.607269E+0	1.557424E+0	1.526068E+0	1.481654E+0	1.506407E+0	1.434830E+0	1.370372E+0	1.456314E+0	1.438439E+0	1.500959E+0	1.488210E+0	1.621659E+0	1.684401E+0	1.553369E+0	1.410037E+0	1.236855E+0	1.553690E+0	1.610739E+0	1.362854E+0
5.360120E+2	1.406191E+0	1.110556E+0	1.275042E+0	1.305691E+0	1.435277E+0	1.201385E+0	1.107245E+0	1.194915E+0	1.289244E+0	1.251690E+0	1.250696E+0	1.316704E+0	1.225295E+0	1.403775E+0	1.349252E+0	1.381539E+0	1.198343E+0	1.224497E+0	1.283039E+0	1.389877E+0	1.404985E+0	1.216024E+0	1.195835E+0	1.218441E+0	1.334828E+0	1.243904E+0	1.178149E+0	1.176999E+0	1.203862E+0	1.325632E+0	1.334998E+0	1.315806E+0	1.230243E+0	1.242773E+0	1.224405E+0	1.331482E+0	1.389036E+0	1.204200E+0	1.184705E+0	1.253277E+0	1.170804E+0	1.207882E+0	1.214588E+0	1.191141E+0	1.229544E+0	1.362434E+0	1.286414E+0	1.309899E+0	1.201455E+0	1.460074E+0	1.035857E+0	1.223517E+0	1.313572E+0	1.287383E+0	1.216450E+0	1.194964E+0	1.239388E+0	1.273797E+0	1.284779E+0	1.177044E+0	1.141456E+0	1.372610E+0	1.334442E+0	1.266843E+0	1.234698E+0	1.279437E+0	1.255481E+0	1.341626E+0	1.325597E+0	1.159986E+0	1.184273E+0	1.249647E+0	1.325057E+0	9.594581E-1	1.173254E+0	1.205443E+0	1.249268E+0	1.272702E+0	1.326310E+0	1.333179E+0	1.213517E+0	1.270319E+0	1.338215E+0	1.348144E+0	1.342407E+0	1.195961E+0	1.221958E+0	1.284107E+0	1.343127E+0	1.210611E+0	1.174798E+0	1.246770E+0	1.180642E+0	1.382078E+0	1.291819E+0	1.384398E+0	1.217684E+0	1.349500E+0	1.404596E+0	1.308282E+0	1.343474E+0	1.181749E+0	1.327169E+0	1.156458E+0	1.331530E+0	1.142951E+0	1.342893E+0	1.194978E+0	1.238692E+0	1.278598E+0	1.351360E+0	1.258752E+0	1.260295E+0	1.242556E+0	1.349532E+0	1.402072E+0	1.118992E+0	1.274522E+0	1.230982E+0	1.250564E+0	1.127416E+0	1.269371E+0	1.216869E+0	1.247720E+0	1.209177E+0	1.380003E+0	1.337247E+0	1.360177E+0	1.197204E+0	1.290445E+0	1.326398E+0	1.258642E+0	1.106462E+0	1.142963E+0	1.267785E+0	1.164664E+0	1.116118E+0	1.162329E+0	1.265491E+0	1.206641E+0	1.178096E+0	1.318272E+0	1.379062E+0	1.402331E+0	1.186477E+0	1.310723E+0	1.303520E+0	1.289245E+0	1.264438E+0	1.185004E+0	1.210764E+0	1.127453E+0	1.100797E+0	1.144011E+0	1.241645E+0	1.154994E+0	1.234002E+0	1.261145E+0	1.407724E+0	1.360995E+0	1.163873E+0	1.017001E+0	1.368570E+0	1.322264E+0	1.118994E+0
5.362680E+2	1.018794E+0	8.705273E-1	9.615517E-1	1.001030E+0	1.064829E+0	8.771271E-1	8.183266E-1	9.047258E-1	9.701367E-1	9.233657E-1	9.023579E-1	1.023417E+0	8.926971E-1	1.011826E+0	1.016001E+0	1.048557E+0	9.290032E-1	9.453530E-1	9.327538E-1	9.946940E-1	1.028423E+0	8.236423E-1	8.824225E-1	8.638530E-1	9.813359E-1	9.239396E-1	9.250926E-1	8.889412E-1	8.335040E-1	1.028464E+0	1.022694E+0	1.032124E+0	9.392943E-1	9.881856E-1	9.259655E-1	1.032005E+0	1.003478E+0	8.734109E-1	8.617524E-1	9.167977E-1	9.610335E-1	9.303639E-1	9.395111E-1	9.205480E-1	8.722557E-1	9.567447E-1	1.009823E+0	1.055145E+0	9.681625E-1	1.051255E+0	7.711528E-1	9.778863E-1	1.009818E+0	9.641334E-1	9.091929E-1	8.474255E-1	9.408441E-1	1.016097E+0	1.003852E+0	8.903530E-1	9.085601E-1	1.017776E+0	1.016468E+0	1.019439E+0	9.265769E-1	9.446389E-1	9.395150E-1	9.785097E-1	1.059255E+0	8.992878E-1	9.290552E-1	9.201392E-1	9.894288E-1	8.311523E-1	8.718131E-1	9.625444E-1	8.844855E-1	9.639408E-1	9.642944E-1	9.960883E-1	9.102338E-1	9.261342E-1	9.878382E-1	9.394726E-1	1.018909E+0	9.143963E-1	8.690806E-1	9.133651E-1	9.303749E-1	8.740317E-1	8.502965E-1	9.528169E-1	9.312655E-1	9.905244E-1	9.806086E-1	1.034694E+0	9.686066E-1	1.021461E+0	1.089993E+0	9.893449E-1	1.013260E+0	9.114839E-1	9.614285E-1	9.041841E-1	1.009839E+0	8.691536E-1	9.737071E-1	8.973916E-1	9.111976E-1	9.765459E-1	1.031818E+0	9.876165E-1	9.455988E-1	9.461832E-1	1.040947E+0	9.944120E-1	1.040846E+0	8.702921E-1	9.114461E-1	9.611669E-1	1.027116E+0	9.301696E-1	9.261978E-1	9.430870E-1	9.976045E-1	9.876628E-1	1.018288E+0	1.028333E+0	8.866584E-1	9.449646E-1	1.066660E+0	1.032219E+0	9.009750E-1	8.866441E-1	9.936858E-1	9.037506E-1	8.669815E-1	8.756325E-1	9.466326E-1	9.052310E-1	8.959237E-1	9.750091E-1	1.024529E+0	1.090344E+0	8.548661E-1	1.019837E+0	1.051538E+0	9.807271E-1	1.025719E+0	9.128980E-1	9.164573E-1	8.766629E-1	8.356181E-1	9.171717E-1	9.223229E-1	8.763877E-1	9.435821E-1	1.010876E+0	1.027737E+0	9.999285E-1	9.169195E-1	7.900258E-1	1.033039E+0	1.112092E+0	9.456452E-1
5.365250E+2	8.294157E-1	6.591124E-1	7.637254E-1	8.250990E-1	8.036913E-1	6.789694E-1	6.545838E-1	6.796810E-1	8.155237E-1	7.828693E-1	7.039791E-1	7.756017E-1	6.848986E-1	8.090937E-1	7.918504E-1	8.111959E-1	6.946834E-1	7.747658E-1	7.597739E-1	7.713631E-1	7.611888E-1	7.223435E-1	7.253978E-1	7.014119E-1	7.729341E-1	7.018945E-1	7.830639E-1	7.360383E-1	7.422965E-1	7.905985E-1	7.886420E-1	7.752664E-1	7.122121E-1	7.267384E-1	7.270053E-1	7.866317E-1	7.375962E-1	7.097007E-1	6.628173E-1	7.289808E-1	7.227188E-1	7.246038E-1	7.353088E-1	7.024170E-1	7.344351E-1	7.827825E-1	7.610998E-1	8.308831E-1	7.883898E-1	8.285392E-1	6.550072E-1	7.747561E-1	7.969915E-1	7.574345E-1	7.082682E-1	7.136629E-1	7.908818E-1	7.986384E-1	7.727658E-1	6.927592E-1	6.590699E-1	8.035225E-1	8.230051E-1	8.152330E-1	7.007120E-1	7.165423E-1	7.386506E-1	8.102895E-1	8.448381E-1	6.846331E-1	7.161549E-1	6.978715E-1	7.932043E-1	7.405450E-1	7.203462E-1	7.280940E-1	7.281495E-1	7.573598E-1	7.475104E-1	8.265647E-1	7.084970E-1	7.839025E-1	7.634235E-1	8.120843E-1	8.060306E-1	6.881528E-1	7.300274E-1	7.488039E-1	8.139758E-1	7.229929E-1	6.815561E-1	7.696615E-1	6.963007E-1	8.233139E-1	7.351658E-1	8.418737E-1	7.464394E-1	7.823278E-1	8.747387E-1	7.842603E-1	8.201530E-1	7.194519E-1	8.043881E-1	6.731354E-1	7.984009E-1	7.336958E-1	7.960956E-1	7.161875E-1	7.595681E-1	7.594030E-1	8.226515E-1	8.122907E-1	7.882509E-1	7.718460E-1	8.243436E-1	8.409508E-1	8.917781E-1	7.661723E-1	7.347376E-1	7.451278E-1	8.119883E-1	7.427372E-1	7.454146E-1	7.395196E-1	7.840361E-1	8.313010E-1	8.109279E-1	8.523852E-1	8.494501E-1	7.842759E-1	8.110330E-1	8.080217E-1	8.872758E-1	7.139361E-1	8.150191E-1	6.963422E-1	7.926779E-1	6.905900E-1	7.654964E-1	7.461145E-1	7.174326E-1	7.566991E-1	8.548209E-1	7.597701E-1	6.797301E-1	7.673697E-1	8.140206E-1	8.343117E-1	7.692631E-1	7.298576E-1	7.759931E-1	7.088261E-1	6.378327E-1	7.326642E-1	6.980543E-1	6.995787E-1	7.632460E-1	7.918877E-1	8.231799E-1	7.616106E-1	7.251946E-1	6.351487E-1	7.219339E-1	8.091944E-1	7.047218E-1
5.367810E+2	6.299572E-1	4.961790E-1	6.201427E-1	6.131233E-1	7.186706E-1	5.491162E-1	5.591801E-1	5.975102E-1	6.058433E-1	6.003002E-1	5.506564E-1	6.035708E-1	5.171077E-1	6.266354E-1	6.563017E-1	6.423295E-1	5.978989E-1	6.012242E-1	5.976049E-1	6.652415E-1	6.318222E-1	5.764972E-1	5.798623E-1	5.509802E-1	6.674141E-1	6.088009E-1	5.682179E-1	5.558320E-1	5.560118E-1	6.093978E-1	6.271529E-1	6.156527E-1	5.735111E-1	6.101157E-1	5.909818E-1	5.839321E-1	6.833589E-1	5.709170E-1	5.482408E-1	5.766476E-1	5.653916E-1	5.569209E-1	6.005774E-1	6.119893E-1	5.444979E-1	6.511353E-1	6.113085E-1	6.117042E-1	6.141077E-1	6.470099E-1	4.787629E-1	6.796736E-1	6.355601E-1	5.958108E-1	5.588795E-1	5.780677E-1	6.098215E-1	6.430893E-1	5.733977E-1	5.440251E-1	5.464733E-1	6.379318E-1	6.389144E-1	5.645577E-1	5.827227E-1	5.881898E-1	5.987236E-1	6.146518E-1	6.731823E-1	5.490965E-1	5.753227E-1	5.576810E-1	6.524776E-1	5.685888E-1	5.166497E-1	5.844669E-1	5.649891E-1	6.462945E-1	6.214072E-1	6.563898E-1	5.839346E-1	5.630893E-1	6.041618E-1	6.147438E-1	6.433176E-1	5.682932E-1	6.152432E-1	5.957685E-1	6.390203E-1	5.987887E-1	5.344485E-1	5.932896E-1	5.810114E-1	6.233579E-1	6.124448E-1	6.545815E-1	5.746391E-1	6.336363E-1	6.396138E-1	6.171283E-1	6.173903E-1	5.940166E-1	6.301288E-1	5.324440E-1	6.044082E-1	5.514040E-1	6.277905E-1	5.379295E-1	5.930242E-1	6.668389E-1	6.891114E-1	6.271881E-1	6.217304E-1	6.081210E-1	6.426043E-1	6.756831E-1	6.291044E-1	5.484048E-1	6.038665E-1	5.869683E-1	6.418236E-1	5.818447E-1	5.603777E-1	5.932949E-1	6.190354E-1	6.534209E-1	6.129270E-1	6.770844E-1	6.755735E-1	6.348348E-1	6.828086E-1	6.343060E-1	6.752646E-1	5.713840E-1	5.911473E-1	5.869270E-1	6.462556E-1	5.396970E-1	6.060673E-1	5.631660E-1	6.491863E-1	6.439534E-1	6.349568E-1	6.489145E-1	5.376113E-1	6.293751E-1	6.541529E-1	6.079657E-1	6.147981E-1	5.657522E-1	5.953963E-1	5.770007E-1	5.404046E-1	5.809057E-1	6.022581E-1	6.084963E-1	6.292616E-1	6.704762E-1	6.574539E-1	5.979471E-1	6.502406E-1	4.927327E-1	6.563702E-1	6.628992E-1	7.370424E-1
5.370120E+2	5.903534E-1	4.580294E-1	5.906286E-1	5.530493E-1	6.108749E-1	5.100847E-1	4.996380E-1	5.294047E-1	5.550121E-1	5.244178E-1	5.109804E-1	5.626468E-1	5.111362E-1	5.746003E-1	5.610868E-1	5.514536E-1	5.495067E-1	5.709463E-1	5.687753E-1	5.907976E-1	5.844486E-1	5.386630E-1	5.256057E-1	5.396035E-1	5.539797E-1	5.288102E-1	5.098207E-1	5.264803E-1	5.211868E-1	5.553675E-1	5.311135E-1	6.263828E-1	5.302881E-1	5.773403E-1	5.524083E-1	5.618331E-1	6.185097E-1	5.244317E-1	5.098390E-1	5.374934E-1	5.222432E-1	5.261669E-1	5.325102E-1	5.567661E-1	5.051206E-1	6.094917E-1	5.472121E-1	5.634213E-1	5.139288E-1	6.111618E-1	4.591802E-1	5.673038E-1	5.696698E-1	5.385016E-1	5.014724E-1	5.023297E-1	5.351853E-1	5.602850E-1	5.552737E-1	4.980392E-1	4.913607E-1	5.994068E-1	5.833528E-1	5.652119E-1	5.240649E-1	5.309725E-1	5.994754E-1	5.420283E-1	6.029318E-1	4.634938E-1	5.640830E-1	5.199374E-1	5.936764E-1	5.771865E-1	5.188880E-1	5.485600E-1	5.283868E-1	5.944631E-1	6.015705E-1	5.859730E-1	5.277460E-1	5.976650E-1	5.657937E-1	5.624630E-1	5.815770E-1	5.271584E-1	5.686737E-1	5.342983E-1	5.904615E-1	5.228857E-1	5.495920E-1	5.201788E-1	5.152213E-1	5.961862E-1	5.988838E-1	6.172618E-1	5.491109E-1	5.861161E-1	6.122930E-1	5.901241E-1	5.903556E-1	5.403509E-1	5.750272E-1	5.288053E-1	6.120845E-1	5.038497E-1	5.502309E-1	5.276172E-1	5.737601E-1	5.721868E-1	5.923630E-1	5.457172E-1	5.539933E-1	5.368706E-1	6.077406E-1	5.922631E-1	6.527450E-1	5.327524E-1	5.666643E-1	5.640855E-1	5.484408E-1	5.652573E-1	5.426535E-1	5.560221E-1	6.017372E-1	5.924540E-1	6.028468E-1	5.878165E-1	6.011574E-1	5.898420E-1	5.923931E-1	5.660080E-1	6.217736E-1	5.172416E-1	5.545532E-1	5.009577E-1	5.828787E-1	5.539917E-1	5.596602E-1	5.281177E-1	5.560037E-1	5.671144E-1	5.834256E-1	6.017847E-1	4.672692E-1	5.815477E-1	5.627994E-1	5.743491E-1	6.125808E-1	5.117519E-1	4.957337E-1	5.036930E-1	5.213586E-1	5.233973E-1	5.554733E-1	5.105246E-1	5.742191E-1	5.945012E-1	5.874195E-1	5.871794E-1	6.297271E-1	4.446679E-1	6.062328E-1	5.866593E-1	6.488981E-1
5.372740E+2	5.737917E-1	4.540557E-1	4.996923E-1	5.170045E-1	5.577361E-1	4.853150E-1	4.624233E-1	4.731437E-1	5.175943E-1	5.056348E-1	4.739944E-1	4.876201E-1	4.484386E-1	5.516245E-1	5.273649E-1	5.467067E-1	5.329514E-1	5.487920E-1	5.284129E-1	5.686226E-1	5.674426E-1	5.319501E-1	4.885836E-1	4.561706E-1	5.520013E-1	5.281203E-1	5.271234E-1	4.684588E-1	4.769654E-1	5.145150E-1	5.723749E-1	5.727315E-1	5.031931E-1	5.125492E-1	5.199249E-1	5.222078E-1	5.377428E-1	5.170212E-1	4.966184E-1	5.062925E-1	5.142772E-1	4.858937E-1	5.198789E-1	5.146590E-1	5.248097E-1	5.248613E-1	5.548757E-1	5.488092E-1	4.974611E-1	5.943821E-1	4.281180E-1	5.478548E-1	5.960260E-1	5.404339E-1	4.623312E-1	5.114920E-1	5.089248E-1	5.061137E-1	5.295974E-1	4.836691E-1	4.403958E-1	5.798068E-1	5.933938E-1	5.855020E-1	5.085577E-1	4.907662E-1	5.280072E-1	5.294302E-1	5.833841E-1	4.596029E-1	4.920139E-1	5.031619E-1	5.672488E-1	5.143562E-1	4.771042E-1	5.161732E-1	5.041918E-1	5.322668E-1	5.618977E-1	5.735842E-1	5.223303E-1	5.324427E-1	5.064326E-1	5.366911E-1	5.635695E-1	4.526892E-1	4.709434E-1	5.086852E-1	5.483293E-1	5.098520E-1	5.207479E-1	4.960592E-1	4.450451E-1	5.028264E-1	5.493885E-1	5.550623E-1	4.939138E-1	5.225005E-1	6.131212E-1	5.740677E-1	5.395040E-1	5.119019E-1	5.653844E-1	4.802912E-1	5.311374E-1	4.483698E-1	5.261872E-1	5.025731E-1	4.985663E-1	5.199895E-1	6.032643E-1	5.652700E-1	5.257692E-1	5.421762E-1	5.847446E-1	6.009192E-1	5.818231E-1	4.973656E-1	4.995681E-1	5.189933E-1	5.463649E-1	5.436944E-1	5.171315E-1	5.502876E-1	5.571609E-1	5.659161E-1	5.675670E-1	5.910510E-1	5.331806E-1	5.528838E-1	5.899276E-1	5.348282E-1	6.093787E-1	4.610430E-1	5.358972E-1	4.895350E-1	5.566543E-1	4.960182E-1	5.364571E-1	5.337259E-1	4.720074E-1	5.326442E-1	5.689972E-1	5.599655E-1	4.464543E-1	5.352884E-1	5.597549E-1	5.698675E-1	5.623247E-1	5.075441E-1	5.351975E-1	4.799001E-1	5.015803E-1	4.682846E-1	4.752708E-1	5.112895E-1	5.380069E-1	5.639619E-1	5.402674E-1	5.247289E-1	5.918555E-1	4.393267E-1	5.483830E-1	5.310255E-1	5.725075E-1
5.375110E+2	5.759518E-1	5.907600E-1	5.643045E-1	6.182730E-1	6.746407E-1	5.596239E-1	5.321152E-1	5.841855E-1	5.881938E-1	5.559731E-1	5.526734E-1	5.906870E-1	5.087480E-1	6.313656E-1	6.080327E-1	5.907883E-1	6.125441E-1	5.702081E-1	5.622883E-1	5.765416E-1	6.044913E-1	5.478162E-1	5.364570E-1	5.661496E-1	5.928909E-1	5.998363E-1	5.855209E-1	6.022486E-1	5.593288E-1	6.001728E-1	6.207502E-1	6.444902E-1	5.257728E-1	5.979200E-1	5.842148E-1	5.824076E-1	6.297113E-1	5.426219E-1	5.262069E-1	5.668587E-1	5.487962E-1	5.466696E-1	6.146121E-1	6.071574E-1	5.705561E-1	6.175517E-1	5.890138E-1	6.021751E-1	5.914644E-1	5.867545E-1	5.091499E-1	5.917949E-1	6.493971E-1	6.016060E-1	5.503988E-1	5.389773E-1	5.959999E-1	6.082654E-1	6.526922E-1	5.447435E-1	5.162503E-1	6.034624E-1	6.134767E-1	6.326261E-1	5.854195E-1	6.067467E-1	6.227970E-1	6.235442E-1	6.261454E-1	5.263991E-1	5.574713E-1	5.325184E-1	6.088721E-1	5.923982E-1	5.502262E-1	5.774256E-1	5.836008E-1	5.781742E-1	6.136143E-1	6.642138E-1	5.453469E-1	5.772340E-1	6.092290E-1	6.169530E-1	6.047296E-1	5.484350E-1	5.949098E-1	5.554286E-1	5.883193E-1	5.397531E-1	5.705041E-1	5.729390E-1	5.384046E-1	6.073336E-1	5.663391E-1	5.875443E-1	5.560099E-1	5.838170E-1	6.156044E-1	6.003416E-1	6.637360E-1	5.319455E-1	5.509198E-1	5.366887E-1	5.918474E-1	5.492424E-1	5.812549E-1	5.423494E-1	5.824598E-1	6.069854E-1	6.966060E-1	6.239294E-1	6.379591E-1	5.421765E-1	6.121904E-1	6.221683E-1	6.855791E-1	5.286693E-1	5.513855E-1	5.876416E-1	6.058539E-1	5.926260E-1	5.894449E-1	6.198161E-1	6.263539E-1	6.412275E-1	6.122071E-1	6.253347E-1	6.025885E-1	6.195699E-1	6.244493E-1	6.216852E-1	6.791793E-1	5.316341E-1	5.904298E-1	5.412369E-1	5.828788E-1	5.809947E-1	5.970855E-1	5.785868E-1	5.966893E-1	6.216917E-1	6.418273E-1	6.336476E-1	4.830607E-1	6.129103E-1	6.259857E-1	6.019893E-1	6.281017E-1	5.419080E-1	5.873696E-1	5.789299E-1	5.352771E-1	5.473588E-1	5.502749E-1	6.000762E-1	5.756675E-1	6.026942E-1	6.082221E-1	6.424521E-1	6.092137E-1	4.669198E-1	6.383722E-1	5.372071E-1	6.577118E-1
5.377840E+2	7.451676E-1	7.568718E-1	7.190557E-1	6.937942E-1	7.505530E-1	6.196718E-1	5.930112E-1	6.404467E-1	6.884450E-1	6.709242E-1	6.555613E-1	6.740499E-1	6.001078E-1	7.158372E-1	6.728319E-1	7.271017E-1	6.558421E-1	6.772865E-1	6.977891E-1	7.151343E-1	7.332503E-1	6.442338E-1	6.328422E-1	6.243000E-1	6.957725E-1	6.301783E-1	6.561753E-1	6.029310E-1	6.472194E-1	7.055989E-1	7.331524E-1	7.001542E-1	6.489906E-1	6.901508E-1	6.275258E-1	6.715657E-1	6.585989E-1	6.072967E-1	6.313401E-1	6.647440E-1	6.304469E-1	6.491840E-1	6.714517E-1	6.237244E-1	6.302014E-1	6.988235E-1	7.102406E-1	7.076344E-1	6.491009E-1	7.202317E-1	5.976093E-1	7.171309E-1	7.363726E-1	6.634223E-1	6.417281E-1	6.489189E-1	6.803108E-1	7.111901E-1	6.881859E-1	6.295293E-1	6.572920E-1	7.399896E-1	7.406668E-1	7.419286E-1	6.420543E-1	6.299431E-1	7.017888E-1	6.887571E-1	7.831400E-1	6.165410E-1	6.718556E-1	6.751055E-1	7.059935E-1	6.611807E-1	6.502091E-1	6.598002E-1	6.766579E-1	6.759114E-1	7.609707E-1	7.483235E-1	6.374151E-1	6.825325E-1	6.439769E-1	7.112050E-1	7.494351E-1	6.434712E-1	6.237703E-1	6.546777E-1	7.018617E-1	6.332903E-1	6.058394E-1	6.814757E-1	6.643456E-1	7.139302E-1	7.019430E-1	6.946665E-1	6.484649E-1	7.041497E-1	7.323394E-1	7.141963E-1	7.338985E-1	6.386300E-1	7.182918E-1	6.252274E-1	7.028004E-1	6.054430E-1	7.270669E-1	6.506301E-1	6.707033E-1	6.835422E-1	7.368039E-1	6.682498E-1	6.690050E-1	6.626963E-1	6.707924E-1	7.291981E-1	7.190700E-1	6.096519E-1	6.357536E-1	6.906136E-1	7.345152E-1	6.548270E-1	5.936983E-1	6.642571E-1	6.735921E-1	7.265816E-1	7.475680E-1	7.107217E-1	6.898846E-1	6.693834E-1	7.156867E-1	7.330418E-1	7.587648E-1	6.604790E-1	6.822746E-1	6.722949E-1	6.746657E-1	6.310274E-1	6.629529E-1	6.052230E-1	7.010277E-1	7.049938E-1	7.249635E-1	6.801140E-1	6.043643E-1	6.936683E-1	6.990675E-1	6.998486E-1	7.293536E-1	6.485063E-1	6.743236E-1	6.149409E-1	6.143915E-1	6.152511E-1	6.705775E-1	6.146192E-1	6.712674E-1	7.062293E-1	7.663202E-1	7.113632E-1	7.512317E-1	5.772926E-1	6.987930E-1	7.679855E-1	7.164742E-1
5.380160E+2	8.279758E-1	7.878693E-1	7.134717E-1	7.839053E-1	8.021729E-1	7.037392E-1	7.026241E-1	7.048506E-1	7.675158E-1	7.610818E-1	7.315504E-1	7.558972E-1	6.425031E-1	8.219336E-1	8.077190E-1	7.521945E-1	7.360710E-1	7.755039E-1	7.806754E-1	7.642354E-1	8.024884E-1	7.076982E-1	7.062481E-1	6.805540E-1	7.458942E-1	7.294779E-1	6.864554E-1	7.674382E-1	7.290301E-1	8.097070E-1	8.035817E-1	7.638654E-1	7.238242E-1	7.450321E-1	7.242985E-1	8.087307E-1	7.965503E-1	6.915104E-1	6.879992E-1	7.614056E-1	7.419703E-1	7.033693E-1	6.875913E-1	7.107003E-1	6.962159E-1	7.653189E-1	8.168365E-1	7.940353E-1	7.767259E-1	9.009981E-1	6.273214E-1	7.927642E-1	7.732710E-1	7.812601E-1	7.076159E-1	7.222137E-1	7.286851E-1	7.792913E-1	6.972481E-1	6.834189E-1	7.005530E-1	7.663489E-1	8.082777E-1	7.864347E-1	7.040830E-1	7.497901E-1	7.642288E-1	7.739786E-1	7.935246E-1	7.047368E-1	7.009476E-1	7.290248E-1	7.760266E-1	7.643538E-1	7.046773E-1	7.020442E-1	7.207046E-1	7.647637E-1	8.041859E-1	7.894005E-1	7.572385E-1	7.571849E-1	7.322955E-1	7.406590E-1	7.680860E-1	6.846068E-1	6.782104E-1	7.417609E-1	7.632747E-1	7.291268E-1	6.829980E-1	7.071020E-1	6.887819E-1	7.487657E-1	7.758471E-1	7.845109E-1	7.216006E-1	7.631664E-1	8.465898E-1	7.791517E-1	8.047046E-1	7.407886E-1	7.465313E-1	7.465130E-1	8.004944E-1	7.156829E-1	8.015243E-1	7.088215E-1	7.539753E-1	7.795865E-1	8.321894E-1	7.881749E-1	7.303924E-1	7.551705E-1	7.917049E-1	8.393766E-1	7.847387E-1	7.124113E-1	7.008572E-1	7.794514E-1	7.538831E-1	7.128807E-1	7.042955E-1	7.603065E-1	7.667374E-1	8.061970E-1	7.893274E-1	8.556194E-1	7.864822E-1	7.722239E-1	8.406238E-1	8.206428E-1	7.959483E-1	6.968025E-1	7.095414E-1	7.450382E-1	7.846644E-1	6.834426E-1	7.475330E-1	7.608350E-1	7.194016E-1	8.076865E-1	8.603174E-1	7.929601E-1	6.840370E-1	7.658014E-1	8.155430E-1	7.932252E-1	8.343011E-1	7.011038E-1	6.877013E-1	6.959652E-1	7.059589E-1	6.727602E-1	7.418685E-1	7.386147E-1	7.596245E-1	7.628382E-1	7.857357E-1	7.852991E-1	7.827912E-1	6.253575E-1	7.823542E-1	8.071352E-1	7.223512E-1
5.382850E+2	9.698289E-1	9.094731E-1	8.219569E-1	9.092025E-1	9.980260E-1	8.666187E-1	7.601370E-1	8.721535E-1	9.306006E-1	8.880541E-1	8.539397E-1	8.385032E-1	7.780500E-1	9.287059E-1	9.465745E-1	9.454744E-1	8.914360E-1	9.298449E-1	8.808597E-1	9.242100E-1	9.597938E-1	8.700201E-1	8.505071E-1	8.847104E-1	8.949416E-1	8.536025E-1	8.522757E-1	8.165855E-1	8.307405E-1	9.171090E-1	9.081576E-1	9.389042E-1	8.283340E-1	8.776607E-1	8.853615E-1	9.001742E-1	9.586733E-1	8.168200E-1	8.434960E-1	8.250304E-1	8.800463E-1	8.835002E-1	8.609182E-1	8.328812E-1	8.369318E-1	9.224898E-1	8.851132E-1	9.414253E-1	9.016058E-1	9.566776E-1	7.333383E-1	9.584378E-1	9.010983E-1	9.139077E-1	8.237346E-1	8.065030E-1	9.180389E-1	9.247794E-1	9.275785E-1	8.156270E-1	8.415947E-1	9.691120E-1	9.388153E-1	9.382801E-1	8.119591E-1	8.673175E-1	9.124322E-1	8.695747E-1	8.875994E-1	7.994182E-1	8.556641E-1	8.458500E-1	9.616798E-1	8.714959E-1	8.345060E-1	8.189168E-1	8.646332E-1	8.795313E-1	9.423324E-1	9.902199E-1	8.770627E-1	9.277058E-1	9.154467E-1	9.188551E-1	9.295124E-1	8.555302E-1	8.487473E-1	8.179579E-1	9.160929E-1	8.494972E-1	8.322685E-1	8.028258E-1	8.491845E-1	9.306074E-1	9.541659E-1	8.861050E-1	8.382043E-1	9.317856E-1	9.244123E-1	8.849779E-1	9.122005E-1	8.701037E-1	9.152810E-1	8.380835E-1	8.842327E-1	7.956603E-1	9.318251E-1	8.369900E-1	8.596189E-1	8.944218E-1	9.527843E-1	8.839854E-1	8.708058E-1	8.400649E-1	9.274525E-1	9.676550E-1	9.613867E-1	8.430715E-1	8.828803E-1	9.335730E-1	8.977630E-1	8.596751E-1	8.531751E-1	8.527723E-1	9.104470E-1	9.474966E-1	9.520483E-1	9.015470E-1	9.167114E-1	9.698707E-1	9.614507E-1	9.282866E-1	9.675134E-1	7.872681E-1	8.767272E-1	8.430314E-1	9.121474E-1	8.120984E-1	8.785193E-1	8.498559E-1	8.558945E-1	9.441301E-1	9.462016E-1	9.210737E-1	8.010338E-1	8.841942E-1	8.977609E-1	9.045316E-1	9.924621E-1	8.729239E-1	8.569273E-1	7.892081E-1	7.989911E-1	8.309091E-1	8.049899E-1	8.067360E-1	8.986790E-1	9.036155E-1	9.195644E-1	9.252748E-1	8.940387E-1	7.401805E-1	8.672019E-1	9.328265E-1	9.397677E-1
5.385170E+2	1.125364E+0	1.176524E+0	1.080407E+0	1.143492E+0	1.184010E+0	1.193128E+0	1.007104E+0	1.000962E+0	1.044265E+0	1.132231E+0	1.047611E+0	1.140125E+0	9.571869E-1	1.176039E+0	1.145599E+0	1.140789E+0	1.070996E+0	1.152126E+0	1.096365E+0	1.175259E+0	1.170544E+0	1.087263E+0	1.019660E+0	1.012388E+0	1.127745E+0	1.119091E+0	1.057028E+0	1.032287E+0	1.041902E+0	1.131915E+0	1.081029E+0	1.139426E+0	1.029611E+0	1.113192E+0	1.120188E+0	1.144024E+0	1.167369E+0	1.016910E+0	9.618497E-1	1.036095E+0	1.023433E+0	1.012375E+0	1.063717E+0	1.010975E+0	9.938616E-1	1.104512E+0	1.092035E+0	1.133921E+0	1.029230E+0	1.196936E+0	8.954020E-1	1.066486E+0	1.096134E+0	1.097425E+0	9.718183E-1	9.665293E-1	1.061782E+0	1.119022E+0	1.039345E+0	1.036213E+0	9.778944E-1	1.123213E+0	1.110187E+0	1.116304E+0	1.031756E+0	1.079949E+0	1.111792E+0	1.151175E+0	1.123396E+0	9.654348E-1	1.048729E+0	1.023784E+0	1.097782E+0	9.872355E-1	1.000149E+0	1.025909E+0	1.016006E+0	1.049831E+0	1.108817E+0	1.179302E+0	1.033442E+0	1.097441E+0	1.067469E+0	1.095577E+0	1.116022E+0	9.867372E-1	1.039617E+0	1.040147E+0	1.167458E+0	1.048838E+0	1.001730E+0	1.056831E+0	1.012720E+0	1.120113E+0	1.124348E+0	1.140435E+0	1.081071E+0	1.049819E+0	1.214179E+0	1.090062E+0	1.116894E+0	9.793743E-1	1.111581E+0	9.581566E-1	1.067758E+0	9.628209E-1	1.092373E+0	9.496899E-1	1.036105E+0	1.097644E+0	1.173534E+0	1.089944E+0	1.090951E+0	1.059881E+0	1.157408E+0	1.181715E+0	1.170869E+0	1.045187E+0	1.035674E+0	1.058081E+0	1.197281E+0	9.990051E-1	1.007727E+0	1.064941E+0	1.097402E+0	1.139004E+0	1.104688E+0	1.164821E+0	1.122787E+0	1.063071E+0	1.205570E+0	1.211874E+0	1.212140E+0	9.551783E-1	1.081225E+0	9.680768E-1	1.084065E+0	1.032878E+0	1.034954E+0	1.034207E+0	1.047510E+0	1.116480E+0	1.153012E+0	1.120878E+0	9.072643E-1	1.148422E+0	1.136040E+0	1.091285E+0	1.124754E+0	9.970543E-1	1.044882E+0	9.776223E-1	9.689405E-1	1.025000E+0	1.074558E+0	1.023345E+0	1.086257E+0	1.157611E+0	1.117880E+0	1.087503E+0	1.137837E+0	8.647943E-1	1.088317E+0	1.068822E+0	1.236515E+0
5.387600E+2	1.393229E+0	1.497622E+0	1.301365E+0	1.308266E+0	1.412506E+0	1.460342E+0	1.159344E+0	1.231188E+0	1.274420E+0	1.386174E+0	1.234558E+0	1.284874E+0	1.163790E+0	1.427428E+0	1.385618E+0	1.342207E+0	1.269660E+0	1.490346E+0	1.282317E+0	1.384335E+0	1.355789E+0	1.561417E+0	1.248176E+0	1.214017E+0	1.396160E+0	1.496981E+0	1.262501E+0	1.220002E+0	1.231503E+0	1.460709E+0	1.346382E+0	1.389575E+0	1.224436E+0	1.351009E+0	1.243354E+0	1.431309E+0	1.377245E+0	1.399575E+0	1.240106E+0	1.251440E+0	1.238512E+0	1.356527E+0	1.215288E+0	1.211849E+0	1.172217E+0	1.400718E+0	1.357478E+0	1.351829E+0	1.277617E+0	1.415076E+0	1.113512E+0	1.277538E+0	1.345198E+0	1.284806E+0	1.183834E+0	1.180917E+0	1.238006E+0	1.334158E+0	1.337643E+0	1.178481E+0	1.197755E+0	1.405054E+0	1.361219E+0	1.327056E+0	1.246160E+0	1.304180E+0	1.280307E+0	1.366822E+0	1.403174E+0	1.126263E+0	1.262292E+0	1.238860E+0	1.347523E+0	1.227975E+0	1.269507E+0	1.238532E+0	1.208321E+0	1.322312E+0	1.371648E+0	1.414682E+0	1.233149E+0	1.271105E+0	1.287541E+0	1.337099E+0	1.391285E+0	1.217945E+0	1.248852E+0	1.278986E+0	1.340269E+0	1.272713E+0	1.220228E+0	1.285963E+0	1.231393E+0	1.398799E+0	1.316225E+0	1.368502E+0	1.242521E+0	1.301215E+0	1.477452E+0	1.300253E+0	1.382095E+0	1.143605E+0	1.349209E+0	1.197091E+0	1.305714E+0	1.186903E+0	1.314195E+0	1.170671E+0	1.248636E+0	1.308524E+0	1.438570E+0	1.327839E+0	1.296277E+0	1.290310E+0	1.396266E+0	1.431976E+0	1.390860E+0	1.241179E+0	1.250912E+0	1.286236E+0	1.352919E+0	1.262736E+0	1.200563E+0	1.244138E+0	1.329600E+0	1.446707E+0	1.386207E+0	1.316835E+0	1.338164E+0	1.307318E+0	1.394620E+0	1.366286E+0	1.445025E+0	1.158726E+0	1.312988E+0	1.241616E+0	1.314262E+0	1.160740E+0	1.294683E+0	1.217156E+0	1.210254E+0	1.390086E+0	1.312413E+0	1.382419E+0	1.074505E+0	1.269951E+0	1.323314E+0	1.282522E+0	1.375300E+0	1.180095E+0	1.200730E+0	1.219409E+0	1.166726E+0	1.266217E+0	1.239418E+0	1.279755E+0	1.365089E+0	1.349784E+0	1.391085E+0	1.323665E+0	1.317728E+0	1.005430E+0	1.419992E+0	1.287236E+0	1.356978E+0
5.390340E+2	1.685577E+0	1.678833E+0	1.421017E+0	1.503936E+0	1.634929E+0	1.601453E+0	1.320384E+0	1.394052E+0	1.558934E+0	1.604807E+0	1.414106E+0	1.482674E+0	1.344719E+0	1.661919E+0	1.575388E+0	1.516499E+0	1.440307E+0	1.609980E+0	1.446649E+0	1.523719E+0	1.616951E+0	1.679802E+0	1.368816E+0	1.409956E+0	1.464752E+0	1.635589E+0	1.403809E+0	1.371539E+0	1.349245E+0	1.690009E+0	1.579010E+0	1.590101E+0	1.447003E+0	1.589592E+0	1.410504E+0	1.503702E+0	1.496333E+0	1.656256E+0	1.360352E+0	1.434365E+0	1.380573E+0	1.683109E+0	1.470720E+0	1.416863E+0	1.386475E+0	1.652594E+0	1.512148E+0	1.572280E+0	1.483460E+0	1.643893E+0	1.209398E+0	1.446094E+0	1.515858E+0	1.577149E+0	1.397151E+0	1.369650E+0	1.463986E+0	1.612753E+0	1.432039E+0	1.325058E+0	1.338204E+0	1.672027E+0	1.522552E+0	1.555476E+0	1.367517E+0	1.505987E+0	1.445060E+0	1.509102E+0	1.532067E+0	1.383069E+0	1.430892E+0	1.416197E+0	1.558943E+0	1.472681E+0	1.395604E+0	1.363857E+0	1.350391E+0	1.491130E+0	1.489960E+0	1.599853E+0	1.413221E+0	1.391335E+0	1.472142E+0	1.521187E+0	1.611233E+0	1.425749E+0	1.384628E+0	1.437784E+0	1.488093E+0	1.452888E+0	1.381038E+0	1.467610E+0	1.425004E+0	1.526992E+0	1.546754E+0	1.539895E+0	1.424669E+0	1.506625E+0	1.619022E+0	1.494392E+0	1.549455E+0	1.362793E+0	1.477321E+0	1.326258E+0	1.480166E+0	1.356946E+0	1.555407E+0	1.413749E+0	1.420149E+0	1.516620E+0	1.593230E+0	1.537060E+0	1.480442E+0	1.447212E+0	1.545368E+0	1.629510E+0	1.552404E+0	1.422198E+0	1.334619E+0	1.397280E+0	1.536227E+0	1.401237E+0	1.434516E+0	1.445555E+0	1.497929E+0	1.510545E+0	1.558290E+0	1.525126E+0	1.477695E+0	1.476846E+0	1.623945E+0	1.551140E+0	1.614635E+0	1.347195E+0	1.454344E+0	1.317366E+0	1.557571E+0	1.345783E+0	1.432406E+0	1.396600E+0	1.407773E+0	1.534431E+0	1.588619E+0	1.518497E+0	1.220931E+0	1.519280E+0	1.463387E+0	1.446120E+0	1.531244E+0	1.310539E+0	1.376647E+0	1.383387E+0	1.311770E+0	1.408391E+0	1.410960E+0	1.389974E+0	1.451275E+0	1.531529E+0	1.516592E+0	1.536144E+0	1.512608E+0	1.166537E+0	1.509981E+0	1.513893E+0	1.574396E+0
5.392670E+2	1.787826E+0	1.926015E+0	1.676275E+0	1.715056E+0	1.793582E+0	1.822131E+0	1.468559E+0	1.585781E+0	1.652833E+0	1.862507E+0	1.560034E+0	1.702448E+0	1.480265E+0	1.870732E+0	1.766480E+0	1.764033E+0	1.648518E+0	1.840385E+0	1.637650E+0	1.764474E+0	1.780935E+0	1.848838E+0	1.603716E+0	1.533210E+0	1.672491E+0	1.825911E+0	1.577562E+0	1.598845E+0	1.546031E+0	1.825747E+0	1.723424E+0	1.777209E+0	1.598607E+0	1.806827E+0	1.651422E+0	1.736880E+0	1.689702E+0	1.898118E+0	1.553620E+0	1.597709E+0	1.569099E+0	1.915227E+0	1.566855E+0	1.566659E+0	1.533563E+0	1.910515E+0	1.665420E+0	1.753974E+0	1.699604E+0	1.842201E+0	1.376865E+0	1.643461E+0	1.733296E+0	1.879142E+0	1.579812E+0	1.571208E+0	1.590451E+0	1.854202E+0	1.592894E+0	1.550676E+0	1.514212E+0	1.891008E+0	1.734756E+0	1.779976E+0	1.513829E+0	1.796716E+0	1.701596E+0	1.730676E+0	1.741603E+0	1.813028E+0	1.625941E+0	1.619896E+0	1.720152E+0	1.833787E+0	1.561245E+0	1.613793E+0	1.574969E+0	1.802853E+0	1.672739E+0	1.764162E+0	1.566218E+0	1.786596E+0	1.643710E+0	1.751660E+0	1.826684E+0	1.795257E+0	1.567627E+0	1.526788E+0	1.611628E+0	1.729663E+0	1.529587E+0	1.573135E+0	1.559091E+0	1.800798E+0	1.746093E+0	1.696089E+0	1.610960E+0	1.734261E+0	1.859115E+0	1.740345E+0	1.723251E+0	1.539307E+0	1.655022E+0	1.561553E+0	1.637874E+0	1.529148E+0	1.807476E+0	1.553704E+0	1.609687E+0	1.608485E+0	1.824878E+0	1.706520E+0	1.723868E+0	1.565458E+0	1.776803E+0	1.757001E+0	1.727080E+0	1.541969E+0	1.548526E+0	1.537944E+0	1.772106E+0	1.596134E+0	1.532354E+0	1.623318E+0	1.692204E+0	1.705638E+0	1.686452E+0	1.664847E+0	1.702376E+0	1.676098E+0	1.794914E+0	1.709265E+0	1.786854E+0	1.477414E+0	1.630859E+0	1.539801E+0	1.660284E+0	1.501440E+0	1.564141E+0	1.480714E+0	1.594139E+0	1.713963E+0	1.759014E+0	1.730248E+0	1.453490E+0	1.683934E+0	1.729071E+0	1.630632E+0	1.764048E+0	1.518824E+0	1.574631E+0	1.476629E+0	1.415056E+0	1.536988E+0	1.600328E+0	1.520091E+0	1.631610E+0	1.618677E+0	1.666369E+0	1.628740E+0	1.705120E+0	1.320525E+0	1.800518E+0	1.719946E+0	1.747743E+0
5.395320E+2	2.046333E+0	2.078617E+0	1.819059E+0	1.897850E+0	2.028912E+0	1.938474E+0	1.651925E+0	1.719033E+0	1.853336E+0	2.058604E+0	1.782621E+0	1.910096E+0	1.684481E+0	2.030893E+0	1.954926E+0	1.875932E+0	1.738937E+0	2.020571E+0	1.847384E+0	1.929197E+0	1.879932E+0	2.050213E+0	1.705206E+0	1.703867E+0	1.928375E+0	1.994167E+0	1.680656E+0	1.799528E+0	1.651611E+0	2.010903E+0	1.968862E+0	1.926766E+0	1.737952E+0	1.940981E+0	1.784741E+0	1.853472E+0	1.919031E+0	2.012645E+0	1.692118E+0	1.803880E+0	1.754307E+0	2.047030E+0	1.739479E+0	1.762009E+0	1.666747E+0	2.009918E+0	1.923204E+0	1.917246E+0	1.768216E+0	2.068732E+0	1.538926E+0	1.849474E+0	1.871009E+0	2.083914E+0	1.665267E+0	1.777657E+0	1.821958E+0	2.045350E+0	1.771117E+0	1.651988E+0	1.626807E+0	2.091071E+0	1.928220E+0	1.842807E+0	1.712049E+0	1.998518E+0	1.803908E+0	1.855175E+0	1.920585E+0	1.992664E+0	1.698668E+0	1.719345E+0	1.797452E+0	2.101642E+0	1.685108E+0	1.739821E+0	1.751159E+0	1.932428E+0	1.997207E+0	1.936287E+0	1.813308E+0	2.012911E+0	1.823967E+0	1.896723E+0	1.844692E+0	1.986747E+0	1.710614E+0	1.754101E+0	1.901553E+0	1.990341E+0	1.659385E+0	1.751766E+0	1.649943E+0	2.004239E+0	1.857286E+0	1.957328E+0	1.775172E+0	1.911309E+0	2.024695E+0	1.862957E+0	1.937600E+0	1.946649E+0	1.747318E+0	1.665856E+0	1.818608E+0	1.931922E+0	1.898996E+0	1.668612E+0	1.806059E+0	1.966910E+0	2.029959E+0	1.856426E+0	1.798662E+0	1.741313E+0	1.889559E+0	1.917545E+0	1.924087E+0	1.694405E+0	1.672092E+0	1.773502E+0	1.885549E+0	1.815909E+0	1.712429E+0	1.753774E+0	1.811297E+0	1.884952E+0	1.903169E+0	1.974054E+0	1.887703E+0	1.823129E+0	1.942040E+0	1.937915E+0	1.993644E+0	1.597348E+0	1.781541E+0	1.673265E+0	1.767371E+0	1.657893E+0	1.759500E+0	1.736561E+0	1.701101E+0	1.809471E+0	1.960326E+0	1.867656E+0	1.611398E+0	1.800759E+0	1.817379E+0	1.781529E+0	1.930339E+0	1.693451E+0	1.697039E+0	1.647038E+0	1.664851E+0	1.702322E+0	1.751079E+0	1.657865E+0	1.734452E+0	1.931519E+0	1.885487E+0	1.790972E+0	1.819524E+0	1.500324E+0	1.863510E+0	1.853879E+0	1.847638E+0
5.397750E+2	2.174504E+0	2.348052E+0	2.008911E+0	2.066914E+0	2.169348E+0	2.174911E+0	1.795371E+0	1.904102E+0	2.043951E+0	2.141249E+0	1.955444E+0	2.001037E+0	1.785990E+0	2.240382E+0	2.106340E+0	2.183146E+0	1.891117E+0	2.175652E+0	2.025410E+0	2.112139E+0	2.099193E+0	2.227795E+0	1.842449E+0	1.873893E+0	2.090617E+0	2.172078E+0	1.813315E+0	1.842534E+0	1.799755E+0	2.210552E+0	2.064900E+0	2.011937E+0	1.862460E+0	2.193280E+0	1.946480E+0	1.986831E+0	2.027503E+0	2.272021E+0	1.867762E+0	1.848538E+0	1.810732E+0	2.207392E+0	1.863685E+0	1.824136E+0	1.813254E+0	2.287992E+0	2.054182E+0	2.079884E+0	1.958281E+0	2.312804E+0	1.707072E+0	2.005783E+0	2.036391E+0	2.228793E+0	1.897507E+0	1.858280E+0	1.949116E+0	2.220245E+0	2.008998E+0	1.899879E+0	1.840145E+0	2.174879E+0	2.034655E+0	2.029993E+0	1.813856E+0	2.257544E+0	1.964901E+0	2.089350E+0	2.070860E+0	2.139873E+0	1.836859E+0	1.848750E+0	2.091460E+0	2.168445E+0	1.892536E+0	1.924283E+0	1.849175E+0	2.125686E+0	2.094266E+0	2.105164E+0	1.814667E+0	2.289518E+0	1.927488E+0	2.056507E+0	2.127030E+0	2.195967E+0	1.874590E+0	1.851428E+0	2.072943E+0	2.198882E+0	1.819473E+0	1.915324E+0	1.856712E+0	2.175630E+0	2.033572E+0	2.004324E+0	1.931792E+0	2.077629E+0	2.230015E+0	1.943967E+0	2.095947E+0	2.156785E+0	1.972546E+0	1.815644E+0	2.052378E+0	2.130783E+0	2.051011E+0	1.868969E+0	1.852050E+0	2.204934E+0	2.176441E+0	2.032404E+0	1.984939E+0	2.102871E+0	1.997117E+0	2.107210E+0	2.105989E+0	2.155120E+0	1.824884E+0	1.933678E+0	2.068163E+0	2.138525E+0	1.853512E+0	1.920785E+0	1.959661E+0	2.217043E+0	2.012613E+0	2.036795E+0	2.057283E+0	1.987834E+0	2.098208E+0	1.937174E+0	2.167168E+0	1.838593E+0	1.886297E+0	1.806126E+0	1.925446E+0	1.800844E+0	1.875512E+0	1.854324E+0	1.812659E+0	1.968893E+0	2.092930E+0	1.973864E+0	1.721936E+0	1.874460E+0	2.018354E+0	1.932426E+0	2.099583E+0	1.780410E+0	1.941176E+0	1.704272E+0	1.768140E+0	1.835713E+0	1.845389E+0	1.751242E+0	1.932894E+0	1.997806E+0	1.998515E+0	2.022826E+0	2.005727E+0	1.823429E+0	1.947073E+0	1.934240E+0	2.006295E+0
5.400190E+2	2.292593E+0	2.321820E+0	2.049588E+0	2.096093E+0	2.282458E+0	2.200430E+0	1.827168E+0	1.964066E+0	2.178798E+0	2.383922E+0	2.046230E+0	2.119266E+0	1.908997E+0	2.324177E+0	2.123535E+0	2.168902E+0	1.903852E+0	2.255407E+0	2.104694E+0	2.082045E+0	2.212158E+0	2.297358E+0	1.961812E+0	1.972496E+0	2.022026E+0	2.346542E+0	2.000760E+0	1.977689E+0	1.951765E+0	2.316636E+0	2.131772E+0	2.213133E+0	1.985035E+0	2.315242E+0	2.005357E+0	2.132376E+0	2.134213E+0	2.399355E+0	1.957155E+0	1.968451E+0	1.976027E+0	2.346520E+0	1.999818E+0	2.020866E+0	1.952233E+0	2.296050E+0	2.115494E+0	2.158662E+0	1.995335E+0	2.253313E+0	1.745559E+0	2.172896E+0	2.199797E+0	2.316365E+0	1.981657E+0	1.934019E+0	1.982980E+0	2.352576E+0	1.997672E+0	1.875445E+0	1.882815E+0	2.207322E+0	2.123019E+0	2.106574E+0	2.006009E+0	2.320948E+0	2.134917E+0	2.175311E+0	2.139278E+0	2.259197E+0	1.904299E+0	1.981752E+0	2.057764E+0	2.298731E+0	1.905963E+0	1.962301E+0	1.934170E+0	2.302646E+0	2.104892E+0	2.198399E+0	1.911471E+0	2.283226E+0	2.069372E+0	2.127196E+0	2.243433E+0	2.224339E+0	1.852291E+0	1.994220E+0	2.118645E+0	2.282453E+0	1.924755E+0	1.999743E+0	1.956964E+0	2.226492E+0	2.146121E+0	2.163971E+0	1.951801E+0	2.247781E+0	2.330193E+0	2.058552E+0	2.112681E+0	2.300969E+0	2.165403E+0	1.921167E+0	2.164727E+0	2.297944E+0	2.142531E+0	1.886645E+0	1.981305E+0	2.200757E+0	2.190068E+0	2.076071E+0	2.028686E+0	2.132432E+0	2.126193E+0	2.176464E+0	2.310877E+0	2.257199E+0	1.938483E+0	1.972714E+0	2.125577E+0	2.223118E+0	1.884705E+0	1.980278E+0	2.051478E+0	2.195527E+0	2.099732E+0	2.089196E+0	2.095924E+0	2.240921E+0	2.186161E+0	2.126480E+0	2.188042E+0	2.191547E+0	2.075013E+0	1.929371E+0	1.995382E+0	2.311496E+0	2.033448E+0	1.852916E+0	1.897312E+0	2.253988E+0	2.172633E+0	2.108616E+0	1.712607E+0	2.133986E+0	2.105142E+0	2.087808E+0	2.152058E+0	1.992907E+0	1.921781E+0	1.844455E+0	1.826745E+0	2.076131E+0	1.881031E+0	1.836206E+0	2.014733E+0	2.087933E+0	2.140665E+0	2.076663E+0	2.109873E+0	1.972967E+0	2.220896E+0	2.169140E+0	2.156138E+0
5.402530E+2	2.273873E+0	2.290030E+0	2.032044E+0	2.181055E+0	2.274868E+0	2.275488E+0	1.852208E+0	1.924091E+0	2.042542E+0	2.256947E+0	1.939977E+0	2.136697E+0	1.852872E+0	2.284981E+0	2.188333E+0	2.180435E+0	1.886026E+0	2.210359E+0	2.049918E+0	2.059872E+0	2.124697E+0	2.306510E+0	1.919682E+0	1.867571E+0	2.004220E+0	2.269310E+0	1.981298E+0	1.933321E+0	1.836789E+0	2.245471E+0	2.150980E+0	2.070285E+0	1.896650E+0	2.195569E+0	1.961368E+0	2.053123E+0	2.092944E+0	2.307054E+0	1.874682E+0	1.984356E+0	1.898361E+0	2.261577E+0	2.001924E+0	1.934580E+0	1.909383E+0	2.284634E+0	2.084840E+0	2.154215E+0	1.962397E+0	2.191533E+0	1.682760E+0	2.069173E+0	2.135883E+0	2.245536E+0	1.853147E+0	1.877213E+0	1.991964E+0	2.237270E+0	2.104902E+0	1.912091E+0	1.808145E+0	2.232330E+0	2.083526E+0	2.091519E+0	1.911621E+0	2.232804E+0	1.972424E+0	2.059706E+0	2.078800E+0	2.194995E+0	1.926777E+0	1.861932E+0	2.049836E+0	2.280872E+0	1.873137E+0	1.896824E+0	1.885158E+0	2.178254E+0	1.986577E+0	2.186661E+0	1.897255E+0	2.225082E+0	2.050549E+0	2.060929E+0	2.141179E+0	2.298100E+0	1.938869E+0	1.919303E+0	2.035094E+0	2.271715E+0	1.875720E+0	1.889696E+0	1.880522E+0	2.238334E+0	2.088494E+0	2.159825E+0	1.940071E+0	2.110586E+0	2.237467E+0	2.036658E+0	2.052819E+0	2.251184E+0	2.037981E+0	1.832624E+0	2.022369E+0	2.197793E+0	2.113061E+0	1.838772E+0	1.938425E+0	2.218156E+0	2.152596E+0	2.047392E+0	1.984940E+0	2.150622E+0	2.126190E+0	2.130819E+0	2.063962E+0	2.221812E+0	1.897962E+0	1.982812E+0	2.146331E+0	2.195752E+0	1.927238E+0	1.879927E+0	2.014219E+0	2.196961E+0	2.019813E+0	2.052969E+0	2.034386E+0	2.214407E+0	2.145887E+0	2.124252E+0	2.177604E+0	2.110673E+0	1.991780E+0	1.874061E+0	1.921803E+0	2.187610E+0	1.981051E+0	1.953156E+0	1.928810E+0	2.164224E+0	2.077817E+0	2.058832E+0	1.830322E+0	2.147315E+0	2.012269E+0	1.960816E+0	2.109191E+0	2.199089E+0	1.909072E+0	1.816160E+0	1.812823E+0	2.291785E+0	1.871379E+0	1.855339E+0	1.958964E+0	2.177315E+0	2.117780E+0	2.007035E+0	2.109870E+0	2.067314E+0	2.058915E+0	2.055810E+0	1.968100E+0
5.405080E+2	2.170182E+0	2.288441E+0	1.957860E+0	2.100386E+0	2.270311E+0	2.261982E+0	1.761539E+0	1.909282E+0	2.034069E+0	2.259957E+0	1.966872E+0	1.962386E+0	1.812264E+0	2.187671E+0	2.124857E+0	2.073284E+0	1.861190E+0	2.219222E+0	1.958385E+0	2.093923E+0	2.121055E+0	2.122833E+0	1.877554E+0	1.815111E+0	1.960695E+0	2.177597E+0	1.872431E+0	1.828200E+0	1.855030E+0	2.198030E+0	2.015105E+0	2.035410E+0	1.948261E+0	2.248922E+0	1.904520E+0	2.090464E+0	2.055215E+0	2.256527E+0	1.794734E+0	1.851599E+0	1.864504E+0	2.200069E+0	1.900175E+0	1.837253E+0	1.856685E+0	2.200004E+0	2.075781E+0	2.082425E+0	1.889669E+0	2.256364E+0	1.679385E+0	1.958243E+0	2.051545E+0	2.197885E+0	1.802258E+0	1.863778E+0	1.894521E+0	2.165300E+0	2.044487E+0	1.814373E+0	1.799255E+0	2.241791E+0	2.066122E+0	2.012325E+0	1.960836E+0	2.220431E+0	1.939320E+0	1.996718E+0	2.058035E+0	2.196942E+0	1.850741E+0	1.876311E+0	2.065031E+0	2.237888E+0	1.847018E+0	1.904572E+0	1.900667E+0	2.198247E+0	2.073718E+0	2.040613E+0	1.890489E+0	2.111134E+0	1.951373E+0	2.063871E+0	2.073008E+0	2.159089E+0	1.825399E+0	1.903933E+0	1.939401E+0	2.188912E+0	1.782700E+0	1.891204E+0	1.817239E+0	2.145670E+0	2.046456E+0	2.067215E+0	1.940761E+0	2.084528E+0	2.115760E+0	2.039578E+0	2.045093E+0	2.160666E+0	1.930531E+0	1.840508E+0	1.996552E+0	2.101966E+0	2.021539E+0	1.764369E+0	1.896172E+0	2.177095E+0	2.175761E+0	1.995904E+0	1.903798E+0	2.126371E+0	2.049783E+0	2.099340E+0	2.092198E+0	2.170774E+0	1.834186E+0	1.987520E+0	2.034959E+0	2.150133E+0	1.788995E+0	1.905015E+0	1.960992E+0	2.147466E+0	2.068772E+0	2.039389E+0	2.063009E+0	2.129239E+0	2.111365E+0	1.983201E+0	2.077142E+0	2.095598E+0	1.854009E+0	1.736994E+0	1.920346E+0	2.191575E+0	1.896470E+0	1.844508E+0	1.898620E+0	2.118984E+0	2.105300E+0	2.043564E+0	1.701835E+0	2.071260E+0	1.982576E+0	1.865198E+0	2.066327E+0	2.151399E+0	1.821447E+0	1.735778E+0	1.671446E+0	2.083317E+0	1.803801E+0	1.790277E+0	1.956069E+0	2.139328E+0	2.064386E+0	1.971142E+0	2.034130E+0	2.068203E+0	2.058915E+0	2.070234E+0	1.932845E+0
5.407630E+2	1.975765E+0	2.063516E+0	1.803907E+0	1.897852E+0	2.034227E+0	1.969999E+0	1.593057E+0	1.781215E+0	1.789091E+0	2.001501E+0	1.701924E+0	1.772929E+0	1.642084E+0	2.038998E+0	1.875581E+0	1.841346E+0	1.689907E+0	1.983651E+0	1.841620E+0	1.876927E+0	1.884187E+0	1.982477E+0	1.706487E+0	1.699442E+0	1.837368E+0	1.994169E+0	1.745541E+0	1.720346E+0	1.673722E+0	1.983227E+0	1.791012E+0	1.828180E+0	1.687631E+0	1.997388E+0	1.748874E+0	1.890049E+0	1.881891E+0	2.013316E+0	1.702821E+0	1.754323E+0	1.660706E+0	1.968681E+0	1.733865E+0	1.677103E+0	1.675437E+0	1.981714E+0	1.806851E+0	1.885485E+0	1.728420E+0	2.003898E+0	1.551086E+0	1.819941E+0	1.828180E+0	1.986679E+0	1.643088E+0	1.673822E+0	1.764601E+0	2.007427E+0	1.802078E+0	1.584447E+0	1.617918E+0	1.983607E+0	1.831151E+0	1.803535E+0	1.697217E+0	1.976873E+0	1.811431E+0	1.879629E+0	1.910200E+0	1.942078E+0	1.689412E+0	1.699575E+0	1.887966E+0	1.925058E+0	1.638103E+0	1.720811E+0	1.663062E+0	1.967972E+0	1.940532E+0	1.923902E+0	1.684010E+0	1.983050E+0	1.764602E+0	1.864323E+0	1.795814E+0	1.971147E+0	1.677818E+0	1.694550E+0	1.847284E+0	1.955072E+0	1.640638E+0	1.680916E+0	1.728892E+0	1.932481E+0	1.776602E+0	1.898584E+0	1.766891E+0	1.964960E+0	2.058639E+0	1.826469E+0	1.902840E+0	2.039109E+0	1.771425E+0	1.657974E+0	1.780226E+0	1.950654E+0	1.829193E+0	1.678190E+0	1.692960E+0	1.926543E+0	1.979539E+0	1.808846E+0	1.791609E+0	1.884569E+0	1.890301E+0	1.900231E+0	1.838718E+0	1.987711E+0	1.648177E+0	1.655049E+0	1.859266E+0	1.932848E+0	1.652168E+0	1.716501E+0	1.748755E+0	1.949507E+0	1.822531E+0	1.895132E+0	1.802553E+0	1.903474E+0	1.952724E+0	1.855513E+0	1.957764E+0	1.965379E+0	1.726290E+0	1.674468E+0	1.782667E+0	1.906471E+0	1.706356E+0	1.683992E+0	1.734568E+0	1.866921E+0	1.899176E+0	1.885580E+0	1.528140E+0	1.945023E+0	1.854683E+0	1.712802E+0	1.857170E+0	2.016048E+0	1.686334E+0	1.555724E+0	1.582072E+0	1.986674E+0	1.670874E+0	1.671642E+0	1.754006E+0	1.937475E+0	1.850122E+0	1.831168E+0	1.870808E+0	1.910660E+0	1.830085E+0	1.761156E+0	1.885834E+0
5.410190E+2	1.831030E+0	1.939528E+0	1.721746E+0	1.800873E+0	2.037262E+0	1.858911E+0	1.510513E+0	1.657587E+0	1.762260E+0	1.907586E+0	1.650142E+0	1.701689E+0	1.536994E+0	1.944393E+0	1.829952E+0	1.835920E+0	1.625597E+0	1.876572E+0	1.654945E+0	1.731213E+0	1.753606E+0	1.901314E+0	1.626059E+0	1.545219E+0	1.761524E+0	1.907970E+0	1.582606E+0	1.658918E+0	1.611811E+0	1.926560E+0	1.727694E+0	1.773861E+0	1.622474E+0	1.873903E+0	1.656837E+0	1.778792E+0	1.738041E+0	1.928431E+0	1.588242E+0	1.634417E+0	1.637476E+0	1.934266E+0	1.573870E+0	1.599102E+0	1.582205E+0	1.932681E+0	1.728126E+0	1.789552E+0	1.649511E+0	1.874997E+0	1.428860E+0	1.743589E+0	1.768215E+0	1.892023E+0	1.574592E+0	1.615798E+0	1.640210E+0	1.952484E+0	1.641225E+0	1.518341E+0	1.553321E+0	1.897766E+0	1.763543E+0	1.775392E+0	1.583946E+0	1.849291E+0	1.697081E+0	1.793669E+0	1.770924E+0	1.872040E+0	1.644454E+0	1.548600E+0	1.706940E+0	1.831143E+0	1.605271E+0	1.559582E+0	1.609710E+0	1.821363E+0	1.766962E+0	1.826753E+0	1.652870E+0	1.867533E+0	1.738544E+0	1.760501E+0	1.717998E+0	1.891001E+0	1.635840E+0	1.624760E+0	1.743736E+0	1.935902E+0	1.595929E+0	1.677901E+0	1.654328E+0	1.854444E+0	1.718970E+0	1.786625E+0	1.644770E+0	1.815503E+0	1.830964E+0	1.713345E+0	1.746424E+0	1.904619E+0	1.662601E+0	1.560948E+0	1.761387E+0	1.808711E+0	1.704318E+0	1.541919E+0	1.617145E+0	1.873653E+0	1.848046E+0	1.709778E+0	1.739393E+0	1.820897E+0	1.684824E+0	1.823895E+0	1.764514E+0	1.884952E+0	1.582409E+0	1.662453E+0	1.722993E+0	1.842450E+0	1.619556E+0	1.675642E+0	1.632320E+0	1.846936E+0	1.720291E+0	1.774817E+0	1.768209E+0	1.843214E+0	1.862310E+0	1.755293E+0	1.831211E+0	1.831052E+0	1.638036E+0	1.586697E+0	1.666838E+0	1.750016E+0	1.647970E+0	1.592866E+0	1.622357E+0	1.861895E+0	1.884746E+0	1.737552E+0	1.476456E+0	1.794488E+0	1.747343E+0	1.712804E+0	1.751482E+0	1.807762E+0	1.556571E+0	1.526144E+0	1.505893E+0	1.866064E+0	1.614437E+0	1.608114E+0	1.697517E+0	1.838410E+0	1.728082E+0	1.719187E+0	1.802954E+0	1.799397E+0	1.706672E+0	1.773519E+0	1.750680E+0
5.412690E+2	1.897276E+0	2.026955E+0	1.715364E+0	1.769119E+0	1.930227E+0	2.007527E+0	1.556524E+0	1.645746E+0	1.764381E+0	1.938394E+0	1.660232E+0	1.741096E+0	1.619394E+0	1.948448E+0	1.879548E+0	1.840670E+0	1.645974E+0	1.920878E+0	1.729187E+0	1.815158E+0	1.832562E+0	1.931218E+0	1.583929E+0	1.614116E+0	1.769440E+0	1.906593E+0	1.661190E+0	1.628882E+0	1.593567E+0	1.954234E+0	1.845788E+0	1.828849E+0	1.559901E+0	1.936409E+0	1.641271E+0	1.837469E+0	1.781081E+0	1.980309E+0	1.611537E+0	1.666842E+0	1.652744E+0	1.873492E+0	1.635621E+0	1.608764E+0	1.598419E+0	1.920591E+0	1.800585E+0	1.837835E+0	1.667351E+0	1.923050E+0	1.456545E+0	1.733500E+0	1.863096E+0	1.906188E+0	1.625475E+0	1.629845E+0	1.692734E+0	1.889801E+0	1.662369E+0	1.578697E+0	1.553916E+0	1.941025E+0	1.781615E+0	1.768194E+0	1.603499E+0	1.979963E+0	1.694073E+0	1.841096E+0	1.761148E+0	1.892794E+0	1.614040E+0	1.655239E+0	1.789526E+0	1.915797E+0	1.604524E+0	1.610978E+0	1.610330E+0	1.870234E+0	1.741456E+0	1.798061E+0	1.605484E+0	1.853391E+0	1.700901E+0	1.735464E+0	1.839546E+0	1.859795E+0	1.581397E+0	1.631157E+0	1.785157E+0	1.851571E+0	1.607465E+0	1.689962E+0	1.636786E+0	1.859324E+0	1.764398E+0	1.749995E+0	1.639939E+0	1.841568E+0	1.949360E+0	1.684878E+0	1.793414E+0	1.932427E+0	1.767291E+0	1.604004E+0	1.712539E+0	1.908146E+0	1.802821E+0	1.583166E+0	1.637652E+0	1.975262E+0	1.869163E+0	1.739757E+0	1.724575E+0	1.858038E+0	1.724883E+0	1.871116E+0	1.799314E+0	1.895158E+0	1.623599E+0	1.702163E+0	1.776947E+0	1.906310E+0	1.564258E+0	1.674209E+0	1.700187E+0	1.857693E+0	1.785811E+0	1.791639E+0	1.769637E+0	1.794205E+0	1.825325E+0	1.761975E+0	1.844911E+0	1.934538E+0	1.671757E+0	1.575274E+0	1.661742E+0	1.888996E+0	1.646475E+0	1.577448E+0	1.660417E+0	1.838194E+0	1.794740E+0	1.744190E+0	1.487941E+0	1.856429E+0	1.777792E+0	1.737455E+0	1.784004E+0	1.868777E+0	1.665598E+0	1.521644E+0	1.524938E+0	1.894820E+0	1.626320E+0	1.621127E+0	1.738796E+0	1.827979E+0	1.769688E+0	1.734979E+0	1.765083E+0	1.773585E+0	1.701530E+0	1.864182E+0	1.827071E+0
5.415090E+2	1.885034E+0	1.859254E+0	1.643573E+0	1.701321E+0	1.869495E+0	1.864166E+0	1.464501E+0	1.606507E+0	1.760142E+0	1.819683E+0	1.615846E+0	1.708509E+0	1.502358E+0	1.776126E+0	1.777720E+0	1.785055E+0	1.594398E+0	1.861061E+0	1.592963E+0	1.675775E+0	1.790045E+0	1.853722E+0	1.606907E+0	1.559756E+0	1.659300E+0	1.862459E+0	1.555211E+0	1.594069E+0	1.532211E+0	1.890320E+0	1.808082E+0	1.725570E+0	1.599250E+0	1.883816E+0	1.617586E+0	1.673636E+0	1.702669E+0	1.797060E+0	1.563062E+0	1.552435E+0	1.612910E+0	1.844198E+0	1.573871E+0	1.523857E+0	1.545142E+0	1.876929E+0	1.758780E+0	1.757153E+0	1.595307E+0	1.905508E+0	1.395774E+0	1.742146E+0	1.757017E+0	1.855319E+0	1.561546E+0	1.559604E+0	1.581467E+0	1.912241E+0	1.632161E+0	1.533431E+0	1.567546E+0	1.866001E+0	1.675848E+0	1.684417E+0	1.592711E+0	1.879446E+0	1.706105E+0	1.693627E+0	1.691510E+0	1.835724E+0	1.579659E+0	1.586942E+0	1.675225E+0	1.882069E+0	1.506034E+0	1.644070E+0	1.562561E+0	1.830250E+0	1.757045E+0	1.747206E+0	1.542523E+0	1.833745E+0	1.630680E+0	1.701591E+0	1.674904E+0	1.859796E+0	1.580742E+0	1.583776E+0	1.639480E+0	1.798664E+0	1.518769E+0	1.640967E+0	1.547813E+0	1.824487E+0	1.750838E+0	1.774184E+0	1.575774E+0	1.798642E+0	1.827653E+0	1.695824E+0	1.696216E+0	1.806344E+0	1.721144E+0	1.550636E+0	1.719517E+0	1.837535E+0	1.712073E+0	1.538237E+0	1.599745E+0	1.818673E+0	1.741758E+0	1.707171E+0	1.692824E+0	1.759502E+0	1.661087E+0	1.761724E+0	1.801286E+0	1.782195E+0	1.539891E+0	1.659762E+0	1.682872E+0	1.829178E+0	1.596869E+0	1.663459E+0	1.659604E+0	1.891407E+0	1.741170E+0	1.704955E+0	1.696653E+0	1.745196E+0	1.804773E+0	1.622406E+0	1.754238E+0	1.787190E+0	1.584938E+0	1.497720E+0	1.698167E+0	1.878675E+0	1.618784E+0	1.542397E+0	1.571172E+0	1.833885E+0	1.728094E+0	1.679801E+0	1.434107E+0	1.865835E+0	1.703949E+0	1.685911E+0	1.724878E+0	1.766383E+0	1.533830E+0	1.452195E+0	1.448021E+0	1.817342E+0	1.705035E+0	1.523919E+0	1.693171E+0	1.825747E+0	1.735018E+0	1.663914E+0	1.735892E+0	1.775366E+0	1.642394E+0	1.722007E+0	1.853514E+0
5.417650E+2	1.589807E+0	1.637506E+0	1.494404E+0	1.585465E+0	1.663016E+0	1.697533E+0	1.369097E+0	1.431806E+0	1.551169E+0	1.620585E+0	1.426211E+0	1.453873E+0	1.345913E+0	1.656512E+0	1.574066E+0	1.580925E+0	1.382361E+0	1.654289E+0	1.409889E+0	1.543516E+0	1.531920E+0	1.666374E+0	1.368178E+0	1.407429E+0	1.506958E+0	1.596279E+0	1.421835E+0	1.411131E+0	1.347031E+0	1.592491E+0	1.479415E+0	1.551874E+0	1.367008E+0	1.610169E+0	1.412537E+0	1.573045E+0	1.498691E+0	1.660297E+0	1.361610E+0	1.391538E+0	1.375928E+0	1.582789E+0	1.390722E+0	1.408583E+0	1.407322E+0	1.658637E+0	1.551162E+0	1.563385E+0	1.432004E+0	1.658383E+0	1.263422E+0	1.494357E+0	1.500041E+0	1.627372E+0	1.329959E+0	1.350104E+0	1.456382E+0	1.670796E+0	1.479614E+0	1.330808E+0	1.371391E+0	1.647697E+0	1.565393E+0	1.495264E+0	1.425502E+0	1.652122E+0	1.454840E+0	1.549863E+0	1.648746E+0	1.563354E+0	1.420975E+0	1.394630E+0	1.500139E+0	1.598339E+0	1.400081E+0	1.404691E+0	1.395059E+0	1.650324E+0	1.591975E+0	1.556816E+0	1.422021E+0	1.670298E+0	1.478654E+0	1.485840E+0	1.600302E+0	1.648449E+0	1.393807E+0	1.415373E+0	1.501658E+0	1.636896E+0	1.407719E+0	1.458567E+0	1.425003E+0	1.628713E+0	1.480310E+0	1.621445E+0	1.395004E+0	1.617758E+0	1.652138E+0	1.462279E+0	1.496027E+0	1.621424E+0	1.511761E+0	1.399028E+0	1.501101E+0	1.644433E+0	1.540667E+0	1.351875E+0	1.404615E+0	1.634240E+0	1.582328E+0	1.548789E+0	1.516424E+0	1.584409E+0	1.544625E+0	1.628721E+0	1.576044E+0	1.654253E+0	1.391751E+0	1.447088E+0	1.529307E+0	1.642575E+0	1.364331E+0	1.453440E+0	1.477965E+0	1.602353E+0	1.523728E+0	1.523833E+0	1.513471E+0	1.548352E+0	1.587779E+0	1.522186E+0	1.626379E+0	1.659032E+0	1.434971E+0	1.351633E+0	1.471609E+0	1.637246E+0	1.448122E+0	1.443565E+0	1.413681E+0	1.581109E+0	1.585869E+0	1.566954E+0	1.291989E+0	1.627481E+0	1.552459E+0	1.415493E+0	1.503157E+0	1.634538E+0	1.468949E+0	1.293360E+0	1.308838E+0	1.681559E+0	1.429526E+0	1.331801E+0	1.443310E+0	1.670074E+0	1.507579E+0	1.536143E+0	1.561525E+0	1.615147E+0	1.485556E+0	1.610737E+0	1.568519E+0
5.420160E+2	1.371626E+0	1.430065E+0	1.308545E+0	1.339161E+0	1.393527E+0	1.467848E+0	1.198589E+0	1.191214E+0	1.257476E+0	1.405710E+0	1.331394E+0	1.243951E+0	1.118408E+0	1.421344E+0	1.350575E+0	1.285243E+0	1.218086E+0	1.385484E+0	1.239794E+0	1.313853E+0	1.350323E+0	1.438759E+0	1.176687E+0	1.179253E+0	1.261624E+0	1.365270E+0	1.204826E+0	1.245942E+0	1.163510E+0	1.423809E+0	1.267417E+0	1.297698E+0	1.165084E+0	1.412753E+0	1.210193E+0	1.300239E+0	1.277025E+0	1.360500E+0	1.135602E+0	1.228195E+0	1.187398E+0	1.394604E+0	1.197045E+0	1.201495E+0	1.184380E+0	1.398701E+0	1.319159E+0	1.318159E+0	1.269383E+0	1.427279E+0	1.022351E+0	1.268175E+0	1.332682E+0	1.357571E+0	1.137517E+0	1.187636E+0	1.222801E+0	1.425475E+0	1.271187E+0	1.138244E+0	1.130195E+0	1.372612E+0	1.275535E+0	1.315276E+0	1.225931E+0	1.424024E+0	1.242692E+0	1.283083E+0	1.315823E+0	1.313680E+0	1.191546E+0	1.198123E+0	1.317132E+0	1.413818E+0	1.203100E+0	1.118140E+0	1.210808E+0	1.412646E+0	1.331978E+0	1.348175E+0	1.195238E+0	1.359901E+0	1.226007E+0	1.328262E+0	1.319250E+0	1.429295E+0	1.158337E+0	1.240567E+0	1.270287E+0	1.412253E+0	1.161818E+0	1.260337E+0	1.156202E+0	1.340969E+0	1.312159E+0	1.345696E+0	1.227342E+0	1.344138E+0	1.403768E+0	1.355724E+0	1.313219E+0	1.397061E+0	1.323724E+0	1.175259E+0	1.295944E+0	1.410987E+0	1.353749E+0	1.197189E+0	1.264792E+0	1.356546E+0	1.418811E+0	1.230072E+0	1.239126E+0	1.304712E+0	1.298348E+0	1.345408E+0	1.356711E+0	1.381365E+0	1.210391E+0	1.195379E+0	1.283746E+0	1.397090E+0	1.213324E+0	1.250589E+0	1.239115E+0	1.355614E+0	1.331490E+0	1.331710E+0	1.309543E+0	1.367576E+0	1.366674E+0	1.312095E+0	1.373921E+0	1.460277E+0	1.213971E+0	1.163461E+0	1.279295E+0	1.307663E+0	1.231809E+0	1.259212E+0	1.234532E+0	1.425992E+0	1.426469E+0	1.333294E+0	1.110393E+0	1.398538E+0	1.344627E+0	1.245918E+0	1.311739E+0	1.417837E+0	1.181333E+0	1.086941E+0	1.165261E+0	1.343694E+0	1.197831E+0	1.159587E+0	1.260798E+0	1.360212E+0	1.264882E+0	1.294237E+0	1.306680E+0	1.294712E+0	1.328718E+0	1.371718E+0	1.289403E+0
5.422780E+2	1.212492E+0	1.242492E+0	1.239944E+0	1.245617E+0	1.245499E+0	1.250925E+0	1.238511E+0	1.051301E+0	1.128279E+0	1.290758E+0	1.261456E+0	1.137853E+0	1.016899E+0	1.251725E+0	1.271891E+0	1.164525E+0	1.071633E+0	1.317545E+0	1.187178E+0	1.121407E+0	1.225814E+0	1.275216E+0	1.204770E+0	1.029454E+0	1.115215E+0	1.257005E+0	1.173102E+0	1.043891E+0	1.048533E+0	1.295981E+0	1.228288E+0	1.168267E+0	1.082511E+0	1.258017E+0	1.105977E+0	1.156978E+0	1.141429E+0	1.258094E+0	1.049986E+0	1.038542E+0	1.141594E+0	1.245961E+0	1.095295E+0	1.092429E+0	1.078987E+0	1.240859E+0	1.200024E+0	1.199357E+0	1.113627E+0	1.269395E+0	9.278145E-1	1.157966E+0	1.243729E+0	1.266132E+0	1.036401E+0	1.016003E+0	1.150930E+0	1.265286E+0	1.124680E+0	1.000288E+0	1.010489E+0	1.214457E+0	1.165080E+0	1.144449E+0	1.066816E+0	1.273252E+0	1.124581E+0	1.211942E+0	1.186317E+0	1.266340E+0	1.079144E+0	1.091483E+0	1.192259E+0	1.224666E+0	1.065063E+0	1.055480E+0	1.037099E+0	1.234940E+0	1.164784E+0	1.199517E+0	1.143111E+0	1.294679E+0	1.153615E+0	1.170685E+0	1.225998E+0	1.156243E+0	1.115704E+0	1.142599E+0	1.184597E+0	1.256614E+0	1.024806E+0	1.122405E+0	1.043422E+0	1.271994E+0	1.194186E+0	1.137670E+0	1.066581E+0	1.209241E+0	1.244811E+0	1.126553E+0	1.223746E+0	1.259989E+0	1.154974E+0	1.066707E+0	1.084505E+0	1.238060E+0	1.181567E+0	1.109533E+0	1.072771E+0	1.284861E+0	1.219862E+0	1.162291E+0	1.124820E+0	1.227396E+0	1.193756E+0	1.241526E+0	1.260837E+0	1.263634E+0	1.011094E+0	1.138843E+0	1.203506E+0	1.246149E+0	1.024743E+0	1.148088E+0	1.136659E+0	1.243722E+0	1.183168E+0	1.216571E+0	1.166435E+0	1.234203E+0	1.222832E+0	1.195541E+0	1.267591E+0	1.269067E+0	1.160154E+0	1.109956E+0	1.121945E+0	1.352932E+0	1.099325E+0	1.090984E+0	1.097383E+0	1.261542E+0	1.164694E+0	1.190578E+0	9.732989E-1	1.266031E+0	1.163446E+0	1.204085E+0	1.132145E+0	1.290201E+0	1.143875E+0	1.028423E+0	9.982421E-1	1.220690E+0	1.054508E+0	1.059319E+0	1.123193E+0	1.208261E+0	1.222585E+0	1.132725E+0	1.171763E+0	1.193241E+0	1.198876E+0	1.227482E+0	1.274713E+0
5.425080E+2	1.023114E+0	1.147116E+0	1.082001E+0	1.013044E+0	1.127077E+0	1.102306E+0	1.054468E+0	9.195322E-1	9.800204E-1	1.097670E+0	1.114185E+0	1.038575E+0	9.261358E-1	1.082782E+0	1.147582E+0	1.057374E+0	9.793058E-1	1.114464E+0	1.145375E+0	9.796473E-1	1.027818E+0	1.084823E+0	1.121791E+0	9.618230E-1	1.014311E+0	1.148053E+0	1.076494E+0	9.729007E-1	9.258177E-1	1.111487E+0	1.088143E+0	1.058950E+0	9.392942E-1	1.072031E+0	1.047101E+0	1.075441E+0	1.034134E+0	1.099776E+0	1.024804E+0	9.596227E-1	9.411188E-1	1.104637E+0	1.069331E+0	9.543718E-1	9.000514E-1	1.080332E+0	1.089944E+0	1.071026E+0	9.585567E-1	1.094731E+0	9.521240E-1	1.026868E+0	9.926859E-1	1.134129E+0	9.737754E-1	9.323247E-1	9.816172E-1	1.115153E+0	9.638271E-1	8.666416E-1	9.381913E-1	1.089419E+0	1.015799E+0	1.004385E+0	9.697271E-1	1.134847E+0	9.876624E-1	9.844380E-1	1.035430E+0	1.121075E+0	9.330218E-1	9.728600E-1	1.024445E+0	1.094378E+0	9.546347E-1	9.731057E-1	9.638938E-1	1.032060E+0	9.968828E-1	1.049554E+0	9.413740E-1	1.067580E+0	1.003765E+0	1.030043E+0	1.028557E+0	1.144186E+0	9.071234E-1	9.505038E-1	1.028921E+0	1.163843E+0	9.216869E-1	9.445260E-1	9.475564E-1	1.115236E+0	1.010441E+0	1.016033E+0	9.713663E-1	1.085842E+0	1.094133E+0	1.003941E+0	1.026778E+0	1.134553E+0	1.037883E+0	9.005456E-1	1.054499E+0	1.157362E+0	9.977506E-1	8.767666E-1	9.602913E-1	1.110868E+0	1.084280E+0	1.071694E+0	9.470099E-1	1.057607E+0	1.021660E+0	1.066029E+0	1.013922E+0	1.093504E+0	9.745563E-1	9.948180E-1	1.071386E+0	1.141652E+0	9.446304E-1	9.767762E-1	9.882899E-1	1.110314E+0	1.065088E+0	1.101429E+0	1.021896E+0	1.063874E+0	1.029673E+0	1.016629E+0	1.076454E+0	1.138166E+0	9.233670E-1	9.584581E-1	1.036715E+0	1.137710E+0	1.005764E+0	9.802332E-1	9.674517E-1	1.040359E+0	1.021780E+0	1.041886E+0	8.886016E-1	1.099811E+0	1.030984E+0	1.028536E+0	1.030893E+0	1.107861E+0	9.746495E-1	9.030280E-1	8.707801E-1	1.124842E+0	9.200956E-1	9.054728E-1	9.841388E-1	1.035455E+0	1.068648E+0	9.984921E-1	1.036057E+0	1.076638E+0	9.906146E-1	1.048216E+0	1.139558E+0
5.427710E+2	1.000072E+0	1.097839E+0	1.078811E+0	9.778585E-1	1.109617E+0	1.003978E+0	1.063264E+0	8.795565E-1	1.020968E+0	1.055597E+0	1.028110E+0	9.195928E-1	8.598554E-1	1.100352E+0	1.112539E+0	1.047201E+0	9.576569E-1	1.072370E+0	1.059606E+0	1.063594E+0	1.053933E+0	1.067126E+0	1.080938E+0	9.163144E-1	9.991424E-1	1.067372E+0	1.020980E+0	9.285318E-1	9.330039E-1	1.124667E+0	1.064666E+0	1.061633E+0	8.547834E-1	1.023248E+0	1.082967E+0	9.695194E-1	1.002889E+0	1.096407E+0	1.077686E+0	9.431042E-1	9.271777E-1	1.042396E+0	1.076347E+0	9.233087E-1	9.041049E-1	1.095108E+0	1.041175E+0	1.043709E+0	9.379719E-1	1.066509E+0	1.025052E+0	1.047757E+0	1.012453E+0	1.083902E+0	1.057929E+0	8.749110E-1	9.408444E-1	1.089615E+0	1.006872E+0	9.083166E-1	9.269305E-1	1.117806E+0	1.028517E+0	1.069181E+0	9.002823E-1	1.088455E+0	9.771301E-1	1.025937E+0	1.013440E+0	1.057522E+0	9.032690E-1	9.297248E-1	1.033695E+0	1.106944E+0	9.546350E-1	8.956588E-1	9.310137E-1	1.037244E+0	1.006093E+0	9.889160E-1	9.190342E-1	1.085653E+0	9.646731E-1	1.002798E+0	1.022767E+0	1.071845E+0	9.176177E-1	9.741951E-1	1.010354E+0	1.072605E+0	8.596712E-1	9.882421E-1	9.394105E-1	1.091548E+0	9.555222E-1	1.037458E+0	1.021044E+0	1.015329E+0	1.120626E+0	9.922636E-1	1.036433E+0	1.081533E+0	9.559185E-1	8.987264E-1	9.791351E-1	1.063694E+0	9.993021E-1	8.539317E-1	1.013734E+0	1.087901E+0	1.027730E+0	1.014991E+0	9.674725E-1	1.046238E+0	1.008308E+0	9.928383E-1	1.027712E+0	1.082615E+0	9.247326E-1	9.167475E-1	1.016740E+0	1.106820E+0	9.141460E-1	9.968464E-1	1.066133E+0	1.087362E+0	9.808478E-1	1.023805E+0	1.028336E+0	1.055036E+0	1.078990E+0	1.048551E+0	1.055580E+0	1.078541E+0	9.908157E-1	9.115659E-1	9.784375E-1	1.040026E+0	9.428900E-1	9.739243E-1	9.313594E-1	1.064057E+0	1.014222E+0	1.005377E+0	8.196957E-1	1.063744E+0	1.037836E+0	9.949205E-1	1.059717E+0	1.064379E+0	9.117752E-1	8.972400E-1	8.524666E-1	1.095288E+0	9.163821E-1	8.710296E-1	9.421336E-1	1.070463E+0	1.079743E+0	1.013567E+0	1.018699E+0	1.041034E+0	1.042037E+0	1.070881E+0	1.024975E+0
5.430170E+2	1.068479E+0	1.078764E+0	1.063656E+0	1.024201E+0	1.042815E+0	1.068530E+0	1.098448E+0	9.484022E-1	1.002612E+0	1.112697E+0	1.094011E+0	9.703690E-1	9.070279E-1	1.091567E+0	1.090719E+0	1.039063E+0	9.500160E-1	1.075325E+0	1.122311E+0	1.016077E+0	1.056970E+0	1.090314E+0	1.082853E+0	9.163143E-1	9.688057E-1	1.098403E+0	1.124077E+0	9.196580E-1	9.285814E-1	1.014628E+0	1.042613E+0	1.030783E+0	9.689700E-1	1.117765E+0	1.097856E+0	9.961901E-1	1.024702E+0	1.081586E+0	1.096571E+0	9.345394E-1	9.610339E-1	1.128801E+0	1.052489E+0	8.729181E-1	9.481147E-1	1.113915E+0	1.062773E+0	1.038626E+0	1.000412E+0	1.151172E+0	1.106084E+0	9.922927E-1	1.057918E+0	1.078752E+0	1.115988E+0	9.097260E-1	9.422265E-1	1.125987E+0	1.102025E+0	9.004127E-1	9.067822E-1	1.073873E+0	1.011782E+0	1.029911E+0	9.488264E-1	1.106239E+0	1.076434E+0	1.025196E+0	1.006109E+0	1.070490E+0	1.063275E+0	9.512927E-1	1.045588E+0	1.040806E+0	1.029249E+0	9.681769E-1	9.130230E-1	1.069083E+0	1.108109E+0	1.023473E+0	9.481441E-1	1.102156E+0	9.791516E-1	1.022679E+0	1.069716E+0	1.093830E+0	9.622199E-1	9.741956E-1	1.021780E+0	1.142375E+0	9.555788E-1	9.528168E-1	9.130946E-1	1.083187E+0	9.751843E-1	1.033311E+0	9.761965E-1	1.098872E+0	1.057705E+0	1.024377E+0	1.038364E+0	1.084119E+0	1.007576E+0	8.562764E-1	9.896025E-1	1.083869E+0	1.062901E+0	8.377269E-1	9.379194E-1	1.110172E+0	1.025686E+0	9.556794E-1	9.829953E-1	1.066702E+0	9.816036E-1	1.059732E+0	1.054637E+0	1.115962E+0	8.948379E-1	9.456881E-1	1.023657E+0	1.107649E+0	9.736979E-1	9.502545E-1	1.008915E+0	1.088796E+0	1.073009E+0	1.039329E+0	1.002576E+0	1.104046E+0	1.061729E+0	1.057460E+0	1.118204E+0	1.108696E+0	9.549385E-1	9.079590E-1	9.784374E-1	1.111502E+0	9.788178E-1	9.430827E-1	9.576084E-1	1.100681E+0	1.057508E+0	1.014670E+0	8.821422E-1	1.116276E+0	1.018803E+0	1.014343E+0	1.061195E+0	1.075601E+0	9.385301E-1	8.631589E-1	8.627223E-1	1.146407E+0	8.859354E-1	9.115961E-1	9.363392E-1	1.081636E+0	1.055473E+0	9.956213E-1	1.019488E+0	9.618144E-1	9.944726E-1	1.075003E+0	9.985298E-1
5.432860E+2	1.198811E+0	1.288590E+0	1.140233E+0	1.140058E+0	1.233353E+0	1.240416E+0	1.201295E+0	1.076471E+0	1.127573E+0	1.247932E+0	1.253387E+0	1.055247E+0	1.025856E+0	1.237535E+0	1.259989E+0	1.204538E+0	1.100288E+0	1.306467E+0	1.236190E+0	1.128534E+0	1.166295E+0	1.228227E+0	1.262218E+0	1.028190E+0	1.135659E+0	1.237700E+0	1.194010E+0	1.116929E+0	1.045218E+0	1.207029E+0	1.251765E+0	1.151499E+0	1.056061E+0	1.219143E+0	1.215606E+0	1.166122E+0	1.138482E+0	1.273593E+0	1.227516E+0	1.089319E+0	1.081850E+0	1.289163E+0	1.244762E+0	1.060677E+0	1.045399E+0	1.258322E+0	1.233466E+0	1.185382E+0	1.099218E+0	1.254140E+0	1.241138E+0	1.152925E+0	1.119855E+0	1.239086E+0	1.211882E+0	1.053261E+0	1.110848E+0	1.241294E+0	1.268920E+0	1.036932E+0	9.808593E-1	1.244871E+0	1.169765E+0	1.188300E+0	1.063445E+0	1.224539E+0	1.220123E+0	1.191192E+0	1.181430E+0	1.198246E+0	1.192205E+0	1.044154E+0	1.173100E+0	1.247156E+0	1.285923E+0	1.054071E+0	1.044543E+0	1.251230E+0	1.229961E+0	1.176694E+0	1.067290E+0	1.242815E+0	1.218768E+0	1.177312E+0	1.182265E+0	1.306600E+0	1.284928E+0	1.099698E+0	1.161744E+0	1.252012E+0	1.237535E+0	1.100547E+0	1.065978E+0	1.301955E+0	1.227408E+0	1.188120E+0	1.048642E+0	1.220739E+0	1.221630E+0	1.159396E+0	1.144572E+0	1.230246E+0	1.170815E+0	1.043662E+0	1.132654E+0	1.221488E+0	1.081515E+0	1.062390E+0	1.121864E+0	1.246582E+0	1.236214E+0	1.132961E+0	1.141049E+0	1.219816E+0	1.127737E+0	1.208472E+0	1.166929E+0	1.147945E+0	1.050953E+0	1.122019E+0	1.141943E+0	1.218781E+0	1.038213E+0	1.093613E+0	1.109379E+0	1.228661E+0	1.126288E+0	1.195870E+0	1.136382E+0	1.207690E+0	1.245024E+0	1.165846E+0	1.205616E+0	1.253989E+0	1.117102E+0	1.069677E+0	1.123402E+0	1.238569E+0	1.134505E+0	1.013178E+0	1.103945E+0	1.234251E+0	1.139958E+0	1.130836E+0	9.259262E-1	1.226828E+0	1.094170E+0	1.133865E+0	1.174272E+0	1.238304E+0	1.089697E+0	9.930552E-1	9.762656E-1	1.226280E+0	1.114659E+0	1.030999E+0	1.124642E+0	1.165060E+0	1.173353E+0	1.132725E+0	1.170974E+0	1.208372E+0	1.147454E+0	1.107971E+0	1.118992E+0
5.435330E+2	1.355785E+0	1.405425E+0	1.381133E+0	1.300542E+0	1.359368E+0	1.401044E+0	1.386688E+0	1.214902E+0	1.313954E+0	1.357626E+0	1.359639E+0	1.294728E+0	1.178718E+0	1.380798E+0	1.437192E+0	1.355091E+0	1.249919E+0	1.395084E+0	1.385386E+0	1.303556E+0	1.377653E+0	1.391770E+0	1.397543E+0	1.163451E+0	1.255027E+0	1.408715E+0	1.415344E+0	1.202256E+0	1.160192E+0	1.411294E+0	1.335002E+0	1.279591E+0	1.177343E+0	1.388360E+0	1.356367E+0	1.307098E+0	1.360737E+0	1.427872E+0	1.413862E+0	1.146216E+0	1.230547E+0	1.416571E+0	1.371776E+0	1.167670E+0	1.176852E+0	1.381238E+0	1.424362E+0	1.376608E+0	1.226157E+0	1.399057E+0	1.331622E+0	1.253050E+0	1.302373E+0	1.402001E+0	1.408892E+0	1.155262E+0	1.220037E+0	1.372079E+0	1.419200E+0	1.184229E+0	1.166345E+0	1.328679E+0	1.419459E+0	1.329675E+0	1.149071E+0	1.386139E+0	1.387886E+0	1.254182E+0	1.361028E+0	1.348051E+0	1.395850E+0	1.198722E+0	1.276829E+0	1.384718E+0	1.400827E+0	1.154751E+0	1.173583E+0	1.412645E+0	1.394321E+0	1.372299E+0	1.171544E+0	1.353614E+0	1.379481E+0	1.293654E+0	1.329541E+0	1.419368E+0	1.386592E+0	1.211753E+0	1.248151E+0	1.353217E+0	1.394019E+0	1.237725E+0	1.213847E+0	1.392528E+0	1.363691E+0	1.251011E+0	1.228033E+0	1.419250E+0	1.319322E+0	1.292226E+0	1.297129E+0	1.437151E+0	1.415330E+0	1.157065E+0	1.220581E+0	1.392250E+0	1.377792E+0	1.201608E+0	1.142369E+0	1.418487E+0	1.341137E+0	1.310242E+0	1.328030E+0	1.323660E+0	1.351757E+0	1.361149E+0	1.362621E+0	1.367755E+0	1.391751E+0	1.249893E+0	1.297580E+0	1.351476E+0	1.325338E+0	1.240553E+0	1.248432E+0	1.298235E+0	1.377569E+0	1.350471E+0	1.297380E+0	1.349095E+0	1.389688E+0	1.235630E+0	1.354349E+0	1.328007E+0	1.270655E+0	1.158050E+0	1.307705E+0	1.400583E+0	1.260252E+0	1.180005E+0	1.181380E+0	1.348436E+0	1.254013E+0	1.306743E+0	1.107523E+0	1.367959E+0	1.274591E+0	1.240689E+0	1.354606E+0	1.410823E+0	1.218791E+0	1.134527E+0	1.128635E+0	1.413982E+0	1.222338E+0	1.144278E+0	1.256452E+0	1.401924E+0	1.359882E+0	1.307157E+0	1.332717E+0	1.445138E+0	1.353143E+0	1.270751E+0	1.406926E+0
5.437640E+2	1.548044E+0	1.654197E+0	1.585341E+0	1.485056E+0	1.546871E+0	1.549662E+0	1.505776E+0	1.348892E+0	1.468571E+0	1.597294E+0	1.588278E+0	1.385668E+0	1.239029E+0	1.572717E+0	1.610433E+0	1.445291E+0	1.393825E+0	1.624010E+0	1.560530E+0	1.544312E+0	1.546497E+0	1.544328E+0	1.580738E+0	1.278487E+0	1.485196E+0	1.570077E+0	1.588374E+0	1.289628E+0	1.341505E+0	1.559546E+0	1.524947E+0	1.496210E+0	1.350234E+0	1.613219E+0	1.533674E+0	1.458742E+0	1.450349E+0	1.556547E+0	1.609648E+0	1.378691E+0	1.314191E+0	1.571806E+0	1.538784E+0	1.276047E+0	1.300194E+0	1.563931E+0	1.478706E+0	1.537336E+0	1.417594E+0	1.620249E+0	1.550408E+0	1.428807E+0	1.422951E+0	1.582941E+0	1.578506E+0	1.320787E+0	1.414230E+0	1.553939E+0	1.538520E+0	1.325060E+0	1.280126E+0	1.486835E+0	1.459626E+0	1.420651E+0	1.376285E+0	1.506760E+0	1.552639E+0	1.456488E+0	1.501529E+0	1.535467E+0	1.530070E+0	1.282000E+0	1.457858E+0	1.547416E+0	1.611238E+0	1.317390E+0	1.295798E+0	1.544440E+0	1.533881E+0	1.544428E+0	1.301522E+0	1.596429E+0	1.610407E+0	1.459333E+0	1.507048E+0	1.535681E+0	1.644365E+0	1.361588E+0	1.445244E+0	1.580156E+0	1.559152E+0	1.361337E+0	1.311597E+0	1.492159E+0	1.542010E+0	1.432775E+0	1.330838E+0	1.528851E+0	1.575143E+0	1.450601E+0	1.477362E+0	1.536720E+0	1.535176E+0	1.353546E+0	1.416665E+0	1.560854E+0	1.571691E+0	1.312836E+0	1.402130E+0	1.579257E+0	1.618440E+0	1.419739E+0	1.406352E+0	1.518462E+0	1.629186E+0	1.509102E+0	1.514972E+0	1.567827E+0	1.610310E+0	1.390555E+0	1.420016E+0	1.606916E+0	1.557165E+0	1.417600E+0	1.379500E+0	1.598769E+0	1.587087E+0	1.442326E+0	1.466965E+0	1.537101E+0	1.548324E+0	1.426420E+0	1.537659E+0	1.548002E+0	1.535426E+0	1.298729E+0	1.502206E+0	1.515734E+0	1.532704E+0	1.306878E+0	1.371679E+0	1.540892E+0	1.499299E+0	1.440167E+0	1.200116E+0	1.549858E+0	1.496123E+0	1.403537E+0	1.512765E+0	1.591059E+0	1.513766E+0	1.292718E+0	1.269281E+0	1.604081E+0	1.484478E+0	1.308840E+0	1.347708E+0	1.519607E+0	1.506192E+0	1.447851E+0	1.548111E+0	1.513675E+0	1.437990E+0	1.425290E+0	1.412801E+0
5.440220E+2	1.589087E+0	1.794876E+0	1.689042E+0	1.626659E+0	1.657701E+0	1.603706E+0	1.644483E+0	1.487325E+0	1.528577E+0	1.679189E+0	1.702596E+0	1.497827E+0	1.368603E+0	1.698412E+0	1.657378E+0	1.542268E+0	1.456224E+0	1.708197E+0	1.692424E+0	1.576780E+0	1.567148E+0	1.688955E+0	1.647122E+0	1.414383E+0	1.522126E+0	1.693512E+0	1.721752E+0	1.400209E+0	1.421658E+0	1.675517E+0	1.722001E+0	1.608881E+0	1.389587E+0	1.656667E+0	1.700148E+0	1.590571E+0	1.582406E+0	1.699374E+0	1.677639E+0	1.423962E+0	1.458240E+0	1.675786E+0	1.630009E+0	1.500391E+0	1.402111E+0	1.705657E+0	1.657759E+0	1.608492E+0	1.547276E+0	1.727792E+0	1.682760E+0	1.592318E+0	1.538260E+0	1.674381E+0	1.619603E+0	1.438059E+0	1.459839E+0	1.683948E+0	1.613283E+0	1.363142E+0	1.387393E+0	1.678106E+0	1.574097E+0	1.578387E+0	1.392467E+0	1.674548E+0	1.648934E+0	1.534299E+0	1.551010E+0	1.670357E+0	1.611396E+0	1.463528E+0	1.566211E+0	1.671753E+0	1.704505E+0	1.478615E+0	1.470126E+0	1.665131E+0	1.657154E+0	1.592679E+0	1.383435E+0	1.632578E+0	1.656738E+0	1.562418E+0	1.521840E+0	1.639225E+0	1.759151E+0	1.487728E+0	1.538791E+0	1.635360E+0	1.677416E+0	1.469119E+0	1.433152E+0	1.633589E+0	1.608454E+0	1.568232E+0	1.430882E+0	1.574073E+0	1.735757E+0	1.471767E+0	1.562971E+0	1.700951E+0	1.679818E+0	1.342632E+0	1.588326E+0	1.631465E+0	1.644600E+0	1.427009E+0	1.461789E+0	1.618230E+0	1.671581E+0	1.529889E+0	1.512192E+0	1.543477E+0	1.672210E+0	1.622428E+0	1.587211E+0	1.619550E+0	1.684715E+0	1.488141E+0	1.626843E+0	1.647555E+0	1.660672E+0	1.456308E+0	1.503251E+0	1.654712E+0	1.652607E+0	1.568465E+0	1.597905E+0	1.703417E+0	1.617367E+0	1.588258E+0	1.654428E+0	1.632988E+0	1.680369E+0	1.395520E+0	1.483995E+0	1.626126E+0	1.615788E+0	1.409919E+0	1.479958E+0	1.604087E+0	1.679311E+0	1.570276E+0	1.274762E+0	1.635323E+0	1.664365E+0	1.514844E+0	1.537893E+0	1.613504E+0	1.657576E+0	1.381459E+0	1.351324E+0	1.624046E+0	1.618893E+0	1.430539E+0	1.557739E+0	1.638045E+0	1.657351E+0	1.497379E+0	1.553635E+0	1.573313E+0	1.682246E+0	1.682856E+0	1.612592E+0
5.442750E+2	1.710780E+0	1.736856E+0	1.689836E+0	1.605205E+0	1.729062E+0	1.685519E+0	1.616065E+0	1.441426E+0	1.562465E+0	1.699473E+0	1.724116E+0	1.584981E+0	1.384128E+0	1.655835E+0	1.693085E+0	1.657561E+0	1.464502E+0	1.657981E+0	1.686660E+0	1.590244E+0	1.610269E+0	1.684683E+0	1.643291E+0	1.366345E+0	1.528063E+0	1.658342E+0	1.678495E+0	1.413861E+0	1.411706E+0	1.696600E+0	1.641615E+0	1.602171E+0	1.445714E+0	1.703163E+0	1.676460E+0	1.502177E+0	1.544085E+0	1.750575E+0	1.671970E+0	1.464340E+0	1.476165E+0	1.664068E+0	1.723339E+0	1.479681E+0	1.388213E+0	1.685505E+0	1.728824E+0	1.609762E+0	1.486209E+0	1.759067E+0	1.678712E+0	1.508041E+0	1.587675E+0	1.742635E+0	1.713542E+0	1.427064E+0	1.470204E+0	1.694010E+0	1.620834E+0	1.398350E+0	1.395096E+0	1.762594E+0	1.606896E+0	1.583621E+0	1.447752E+0	1.647482E+0	1.664730E+0	1.585434E+0	1.578498E+0	1.701485E+0	1.645117E+0	1.425183E+0	1.574139E+0	1.691597E+0	1.683616E+0	1.477207E+0	1.377065E+0	1.696970E+0	1.654320E+0	1.614197E+0	1.491750E+0	1.653794E+0	1.623438E+0	1.483632E+0	1.635676E+0	1.701641E+0	1.686344E+0	1.473004E+0	1.544504E+0	1.724296E+0	1.639918E+0	1.478163E+0	1.431897E+0	1.745065E+0	1.651848E+0	1.546808E+0	1.495735E+0	1.588636E+0	1.742382E+0	1.524314E+0	1.635708E+0	1.719055E+0	1.632983E+0	1.451184E+0	1.467605E+0	1.617054E+0	1.727588E+0	1.365135E+0	1.495967E+0	1.632151E+0	1.706329E+0	1.544878E+0	1.429637E+0	1.579100E+0	1.620285E+0	1.675942E+0	1.611505E+0	1.645409E+0	1.749154E+0	1.502275E+0	1.613008E+0	1.694823E+0	1.712428E+0	1.463475E+0	1.547826E+0	1.653279E+0	1.698691E+0	1.620218E+0	1.568570E+0	1.578881E+0	1.651071E+0	1.565986E+0	1.652471E+0	1.667941E+0	1.639467E+0	1.421372E+0	1.503661E+0	1.691249E+0	1.653213E+0	1.408515E+0	1.514082E+0	1.675184E+0	1.656638E+0	1.590849E+0	1.309217E+0	1.690207E+0	1.659794E+0	1.509614E+0	1.575585E+0	1.577735E+0	1.680982E+0	1.363452E+0	1.343269E+0	1.620851E+0	1.613693E+0	1.429774E+0	1.449826E+0	1.655919E+0	1.661516E+0	1.449287E+0	1.571781E+0	1.632058E+0	1.646252E+0	1.542741E+0	1.592024E+0
5.445130E+2	1.612130E+0	1.689962E+0	1.681065E+0	1.521100E+0	1.634170E+0	1.633730E+0	1.670870E+0	1.538403E+0	1.527869E+0	1.686701E+0	1.659560E+0	1.551636E+0	1.338149E+0	1.665299E+0	1.636221E+0	1.626363E+0	1.485512E+0	1.650598E+0	1.612421E+0	1.519759E+0	1.541030E+0	1.634032E+0	1.649038E+0	1.408691E+0	1.536636E+0	1.698339E+0	1.681378E+0	1.351062E+0	1.401203E+0	1.646519E+0	1.540596E+0	1.574678E+0	1.423136E+0	1.648283E+0	1.624355E+0	1.554757E+0	1.536420E+0	1.658278E+0	1.655602E+0	1.439870E+0	1.460895E+0	1.664067E+0	1.674217E+0	1.364402E+0	1.348256E+0	1.648561E+0	1.598538E+0	1.634538E+0	1.469053E+0	1.634741E+0	1.722599E+0	1.512364E+0	1.563296E+0	1.661498E+0	1.671792E+0	1.366597E+0	1.501304E+0	1.605790E+0	1.617056E+0	1.360267E+0	1.366649E+0	1.668644E+0	1.610245E+0	1.581659E+0	1.435616E+0	1.634340E+0	1.580476E+0	1.588399E+0	1.598655E+0	1.624960E+0	1.632554E+0	1.420391E+0	1.493535E+0	1.690932E+0	1.609000E+0	1.451863E+0	1.418011E+0	1.614043E+0	1.665655E+0	1.577030E+0	1.406451E+0	1.638865E+0	1.657466E+0	1.597768E+0	1.563001E+0	1.607311E+0	1.679130E+0	1.419213E+0	1.551645E+0	1.603157E+0	1.696164E+0	1.414851E+0	1.405581E+0	1.618958E+0	1.638286E+0	1.565469E+0	1.429500E+0	1.575604E+0	1.655452E+0	1.507526E+0	1.586146E+0	1.679615E+0	1.620584E+0	1.339601E+0	1.552741E+0	1.614172E+0	1.651579E+0	1.375447E+0	1.398401E+0	1.550721E+0	1.670899E+0	1.528583E+0	1.560173E+0	1.544232E+0	1.583940E+0	1.592520E+0	1.631208E+0	1.663104E+0	1.666775E+0	1.488814E+0	1.527234E+0	1.657505E+0	1.650748E+0	1.434805E+0	1.555145E+0	1.628173E+0	1.717408E+0	1.540651E+0	1.487713E+0	1.576472E+0	1.634633E+0	1.508081E+0	1.682475E+0	1.613111E+0	1.664585E+0	1.376282E+0	1.460685E+0	1.612622E+0	1.647972E+0	1.423235E+0	1.435334E+0	1.625632E+0	1.596864E+0	1.566952E+0	1.278352E+0	1.633756E+0	1.636200E+0	1.437900E+0	1.556371E+0	1.628228E+0	1.605404E+0	1.359596E+0	1.373303E+0	1.619256E+0	1.578047E+0	1.329507E+0	1.482415E+0	1.617188E+0	1.628925E+0	1.457183E+0	1.556003E+0	1.599128E+0	1.539549E+0	1.503591E+0	1.571458E+0
5.447660E+2	1.647414E+0	1.763083E+0	1.643572E+0	1.587179E+0	1.618986E+0	1.648743E+0	1.647864E+0	1.428102E+0	1.474922E+0	1.659654E+0	1.642748E+0	1.586498E+0	1.296352E+0	1.686249E+0	1.655395E+0	1.540915E+0	1.411654E+0	1.557545E+0	1.633324E+0	1.499960E+0	1.567755E+0	1.643186E+0	1.700741E+0	1.396051E+0	1.501684E+0	1.659721E+0	1.609282E+0	1.346282E+0	1.434371E+0	1.590516E+0	1.655130E+0	1.538464E+0	1.362493E+0	1.638374E+0	1.587134E+0	1.553995E+0	1.496333E+0	1.643457E+0	1.663787E+0	1.442316E+0	1.483465E+0	1.584257E+0	1.596325E+0	1.345765E+0	1.402690E+0	1.572664E+0	1.653579E+0	1.571010E+0	1.410046E+0	1.624827E+0	1.726656E+0	1.462662E+0	1.552095E+0	1.657636E+0	1.620908E+0	1.398967E+0	1.432196E+0	1.732704E+0	1.584585E+0	1.341586E+0	1.290795E+0	1.664591E+0	1.571419E+0	1.528643E+0	1.386400E+0	1.591811E+0	1.585738E+0	1.599512E+0	1.509470E+0	1.605506E+0	1.685448E+0	1.384445E+0	1.506087E+0	1.651911E+0	1.641830E+0	1.386385E+0	1.364041E+0	1.640699E+0	1.616063E+0	1.537912E+0	1.405776E+0	1.627076E+0	1.532952E+0	1.480687E+0	1.589370E+0	1.631425E+0	1.649616E+0	1.442905E+0	1.505943E+0	1.638426E+0	1.662992E+0	1.451027E+0	1.378638E+0	1.645434E+0	1.567095E+0	1.511561E+0	1.438469E+0	1.590167E+0	1.630613E+0	1.509717E+0	1.565545E+0	1.631768E+0	1.597854E+0	1.330503E+0	1.459930E+0	1.649477E+0	1.641497E+0	1.346718E+0	1.405858E+0	1.640500E+0	1.632064E+0	1.527282E+0	1.458566E+0	1.525284E+0	1.625480E+0	1.499656E+0	1.485421E+0	1.714142E+0	1.641532E+0	1.428245E+0	1.485039E+0	1.622673E+0	1.591195E+0	1.447706E+0	1.454019E+0	1.575812E+0	1.615172E+0	1.534182E+0	1.527071E+0	1.589324E+0	1.591069E+0	1.519960E+0	1.568971E+0	1.617222E+0	1.582064E+0	1.396121E+0	1.478895E+0	1.674571E+0	1.657702E+0	1.348232E+0	1.384149E+0	1.618447E+0	1.604419E+0	1.523146E+0	1.335057E+0	1.569461E+0	1.578342E+0	1.521569E+0	1.559323E+0	1.586851E+0	1.644192E+0	1.339659E+0	1.289794E+0	1.576124E+0	1.562453E+0	1.386146E+0	1.501246E+0	1.613462E+0	1.608813E+0	1.475844E+0	1.543378E+0	1.563523E+0	1.536978E+0	1.546863E+0	1.445120E+0
5.450090E+2	1.585490E+0	1.789310E+0	1.711374E+0	1.590613E+0	1.661499E+0	1.688524E+0	1.654635E+0	1.391089E+0	1.517989E+0	1.722762E+0	1.629297E+0	1.550878E+0	1.396666E+0	1.621376E+0	1.695069E+0	1.624330E+0	1.439668E+0	1.608503E+0	1.627559E+0	1.571238E+0	1.573222E+0	1.582776E+0	1.660527E+0	1.367610E+0	1.476619E+0	1.635585E+0	1.648934E+0	1.404307E+0	1.416680E+0	1.612263E+0	1.591104E+0	1.554557E+0	1.424425E+0	1.661243E+0	1.606083E+0	1.571522E+0	1.539368E+0	1.686573E+0	1.697156E+0	1.401328E+0	1.421065E+0	1.655281E+0	1.675624E+0	1.456211E+0	1.381267E+0	1.650581E+0	1.611079E+0	1.527171E+0	1.444354E+0	1.688133E+0	1.646973E+0	1.552699E+0	1.578454E+0	1.661499E+0	1.635262E+0	1.425231E+0	1.435652E+0	1.676212E+0	1.636693E+0	1.412720E+0	1.316278E+0	1.630795E+0	1.607565E+0	1.549588E+0	1.475396E+0	1.598772E+0	1.635393E+0	1.572832E+0	1.555895E+0	1.667114E+0	1.647100E+0	1.342506E+0	1.566868E+0	1.618844E+0	1.641086E+0	1.417362E+0	1.443448E+0	1.648844E+0	1.669908E+0	1.576378E+0	1.400360E+0	1.656938E+0	1.704519E+0	1.511613E+0	1.566860E+0	1.709438E+0	1.678474E+0	1.401284E+0	1.487375E+0	1.672928E+0	1.626936E+0	1.445750E+0	1.413100E+0	1.521418E+0	1.675577E+0	1.559247E+0	1.401904E+0	1.679076E+0	1.679460E+0	1.562265E+0	1.529501E+0	1.707417E+0	1.646069E+0	1.367495E+0	1.538089E+0	1.658843E+0	1.600388E+0	1.381337E+0	1.450601E+0	1.656511E+0	1.698835E+0	1.445809E+0	1.529833E+0	1.562425E+0	1.598032E+0	1.642891E+0	1.587863E+0	1.648812E+0	1.638214E+0	1.457182E+0	1.503024E+0	1.622674E+0	1.628060E+0	1.465627E+0	1.553150E+0	1.656147E+0	1.661970E+0	1.543238E+0	1.512758E+0	1.583701E+0	1.628876E+0	1.609787E+0	1.619855E+0	1.604887E+0	1.589958E+0	1.465254E+0	1.438101E+0	1.700779E+0	1.685398E+0	1.450572E+0	1.430743E+0	1.668000E+0	1.558384E+0	1.558989E+0	1.263998E+0	1.596119E+0	1.668170E+0	1.465539E+0	1.623625E+0	1.624723E+0	1.563261E+0	1.358308E+0	1.331549E+0	1.569736E+0	1.551312E+0	1.392268E+0	1.495454E+0	1.561320E+0	1.599109E+0	1.546909E+0	1.550477E+0	1.614258E+0	1.615397E+0	1.602495E+0	1.589086E+0
5.452580E+2	1.462356E+0	1.510339E+0	1.511956E+0	1.442145E+0	1.490696E+0	1.442326E+0	1.494951E+0	1.240072E+0	1.362668E+0	1.456799E+0	1.475302E+0	1.376573E+0	1.207379E+0	1.481488E+0	1.508607E+0	1.422913E+0	1.254377E+0	1.478533E+0	1.492057E+0	1.396215E+0	1.429279E+0	1.510156E+0	1.514992E+0	1.330948E+0	1.339446E+0	1.502497E+0	1.491766E+0	1.269833E+0	1.234817E+0	1.564817E+0	1.476570E+0	1.408356E+0	1.283788E+0	1.487452E+0	1.480211E+0	1.418354E+0	1.453297E+0	1.557225E+0	1.505771E+0	1.257560E+0	1.296268E+0	1.485400E+0	1.502296E+0	1.291923E+0	1.246919E+0	1.469229E+0	1.501697E+0	1.398206E+0	1.297516E+0	1.412787E+0	1.524749E+0	1.352455E+0	1.363649E+0	1.476052E+0	1.433684E+0	1.261541E+0	1.318861E+0	1.525306E+0	1.510577E+0	1.281947E+0	1.225015E+0	1.518601E+0	1.412764E+0	1.361089E+0	1.283242E+0	1.514493E+0	1.508254E+0	1.326062E+0	1.383018E+0	1.517961E+0	1.506926E+0	1.291586E+0	1.395752E+0	1.454160E+0	1.497825E+0	1.239237E+0	1.274084E+0	1.546663E+0	1.500586E+0	1.391208E+0	1.289336E+0	1.449484E+0	1.441012E+0	1.379808E+0	1.451095E+0	1.473976E+0	1.506625E+0	1.279625E+0	1.398824E+0	1.484323E+0	1.431516E+0	1.291991E+0	1.236406E+0	1.451050E+0	1.462680E+0	1.421026E+0	1.299099E+0	1.440710E+0	1.485730E+0	1.334555E+0	1.364715E+0	1.485643E+0	1.429794E+0	1.226196E+0	1.423646E+0	1.450614E+0	1.533688E+0	1.329776E+0	1.274117E+0	1.497133E+0	1.436524E+0	1.417783E+0	1.336498E+0	1.422199E+0	1.462287E+0	1.458734E+0	1.480824E+0	1.488889E+0	1.498704E+0	1.319886E+0	1.385432E+0	1.521494E+0	1.489818E+0	1.347356E+0	1.366193E+0	1.473245E+0	1.448130E+0	1.405455E+0	1.403995E+0	1.449526E+0	1.524489E+0	1.402662E+0	1.486121E+0	1.512365E+0	1.518205E+0	1.230795E+0	1.321545E+0	1.472056E+0	1.505756E+0	1.224866E+0	1.398585E+0	1.441791E+0	1.469756E+0	1.413617E+0	1.183606E+0	1.446364E+0	1.493080E+0	1.376645E+0	1.425554E+0	1.433968E+0	1.419454E+0	1.226482E+0	1.231189E+0	1.420372E+0	1.374573E+0	1.227707E+0	1.362918E+0	1.458533E+0	1.451411E+0	1.351663E+0	1.440808E+0	1.412205E+0	1.468844E+0	1.425290E+0	1.471562E+0
5.455130E+2	1.478197E+0	1.572332E+0	1.495200E+0	1.493638E+0	1.577237E+0	1.506127E+0	1.494951E+0	1.448089E+0	1.372552E+0	1.499624E+0	1.477321E+0	1.447056E+0	1.278437E+0	1.562580E+0	1.527119E+0	1.479879E+0	1.300223E+0	1.508809E+0	1.484129E+0	1.419180E+0	1.434743E+0	1.533342E+0	1.474139E+0	1.315779E+0	1.370443E+0	1.448021E+0	1.509069E+0	1.301232E+0	1.293963E+0	1.522649E+0	1.493644E+0	1.390248E+0	1.282497E+0	1.482875E+0	1.519460E+0	1.457215E+0	1.426767E+0	1.505346E+0	1.496960E+0	1.330972E+0	1.282989E+0	1.555697E+0	1.493872E+0	1.305728E+0	1.242288E+0	1.555873E+0	1.546983E+0	1.457290E+0	1.359957E+0	1.541687E+0	1.528126E+0	1.363978E+0	1.409113E+0	1.541086E+0	1.507402E+0	1.314068E+0	1.373455E+0	1.487386E+0	1.443366E+0	1.233808E+0	1.268275E+0	1.538203E+0	1.510499E+0	1.412141E+0	1.304142E+0	1.503666E+0	1.441297E+0	1.360892E+0	1.397068E+0	1.481642E+0	1.495025E+0	1.295776E+0	1.383199E+0	1.471359E+0	1.508270E+0	1.280777E+0	1.344189E+0	1.465956E+0	1.565768E+0	1.455757E+0	1.275797E+0	1.457341E+0	1.532223E+0	1.379071E+0	1.468461E+0	1.505890E+0	1.565004E+0	1.286028E+0	1.400969E+0	1.501957E+0	1.564202E+0	1.285963E+0	1.248937E+0	1.498427E+0	1.527771E+0	1.442450E+0	1.368096E+0	1.439176E+0	1.583424E+0	1.335287E+0	1.373727E+0	1.527023E+0	1.504871E+0	1.235902E+0	1.410384E+0	1.486640E+0	1.501887E+0	1.263482E+0	1.336256E+0	1.469989E+0	1.535318E+0	1.354562E+0	1.346375E+0	1.448725E+0	1.513469E+0	1.484704E+0	1.416471E+0	1.536525E+0	1.489402E+0	1.373057E+0	1.400649E+0	1.528129E+0	1.479183E+0	1.339469E+0	1.379502E+0	1.480420E+0	1.546769E+0	1.419040E+0	1.373943E+0	1.474435E+0	1.492432E+0	1.399694E+0	1.496562E+0	1.510309E+0	1.484482E+0	1.265664E+0	1.366711E+0	1.405348E+0	1.491538E+0	1.266925E+0	1.277841E+0	1.469078E+0	1.519224E+0	1.402998E+0	1.205139E+0	1.489489E+0	1.523528E+0	1.383369E+0	1.472118E+0	1.512513E+0	1.494365E+0	1.254777E+0	1.169656E+0	1.526601E+0	1.384227E+0	1.261385E+0	1.406374E+0	1.528549E+0	1.509657E+0	1.434928E+0	1.421084E+0	1.478962E+0	1.491983E+0	1.485046E+0	1.477439E+0
5.457670E+2	1.409792E+0	1.473777E+0	1.465688E+0	1.446436E+0	1.464884E+0	1.353006E+0	1.397517E+0	1.431062E+0	1.261005E+0	1.460557E+0	1.421502E+0	1.463727E+0	1.144086E+0	1.437563E+0	1.461661E+0	1.424269E+0	1.253106E+0	1.419453E+0	1.412773E+0	1.407301E+0	1.324205E+0	1.423505E+0	1.422438E+0	1.373299E+0	1.336148E+0	1.437675E+0	1.427602E+0	1.434339E+0	1.195570E+0	1.398116E+0	1.454515E+0	1.419088E+0	1.193470E+0	1.394459E+0	1.409153E+0	1.352057E+0	1.334801E+0	1.465596E+0	1.456041E+0	1.260007E+0	1.253118E+0	1.388013E+0	1.453877E+0	1.309868E+0	1.189588E+0	1.422884E+0	1.372806E+0	1.403290E+0	1.270070E+0	1.434907E+0	1.359310E+0	1.318597E+0	1.364309E+0	1.416164E+0	1.407589E+0	1.125944E+0	1.266338E+0	1.445597E+0	1.396546E+0	1.178481E+0	1.140864E+0	1.405729E+0	1.368583E+0	1.325092E+0	1.200985E+0	1.358305E+0	1.450328E+0	1.365339E+0	1.356747E+0	1.369453E+0	1.370726E+0	1.154988E+0	1.363380E+0	1.407204E+0	1.417241E+0	1.214595E+0	1.265397E+0	1.417089E+0	1.349690E+0	1.355346E+0	1.233824E+0	1.451839E+0	1.391784E+0	1.334155E+0	1.361054E+0	1.377520E+0	1.432508E+0	1.205349E+0	1.326703E+0	1.383116E+0	1.416372E+0	1.276919E+0	1.179388E+0	1.449658E+0	1.384029E+0	1.302846E+0	1.199055E+0	1.417714E+0	1.456755E+0	1.275441E+0	1.359566E+0	1.403527E+0	1.387092E+0	1.179502E+0	1.284779E+0	1.480155E+0	1.391753E+0	1.184666E+0	1.180900E+0	1.421967E+0	1.434480E+0	1.321325E+0	1.332970E+0	1.400976E+0	1.437066E+0	1.407580E+0	1.374444E+0	1.380005E+0	1.458182E+0	1.282870E+0	1.314181E+0	1.418653E+0	1.369295E+0	1.163141E+0	1.259741E+0	1.511261E+0	1.405647E+0	1.383465E+0	1.343889E+0	1.409354E+0	1.436539E+0	1.348471E+0	1.341303E+0	1.467132E+0	1.419185E+0	1.211556E+0	1.255255E+0	1.414081E+0	1.395732E+0	1.207342E+0	1.187940E+0	1.394395E+0	1.358447E+0	1.383746E+0	1.307780E+0	1.378936E+0	1.505255E+0	1.310909E+0	1.438119E+0	1.417136E+0	1.480320E+0	1.134526E+0	1.172586E+0	1.353280E+0	1.398339E+0	1.176426E+0	1.235451E+0	1.322225E+0	1.389004E+0	1.295670E+0	1.366643E+0	1.373040E+0	1.414850E+0	1.316083E+0	1.356979E+0
5.460060E+2	1.338504E+0	1.418141E+0	1.301366E+0	1.394944E+0	1.332039E+0	1.395039E+0	1.312938E+0	1.358515E+0	1.244767E+0	1.365889E+0	1.354931E+0	1.349291E+0	1.078403E+0	1.358497E+0	1.365782E+0	1.350347E+0	1.179878E+0	1.352991E+0	1.382504E+0	1.308306E+0	1.243429E+0	1.346001E+0	1.349669E+0	1.329054E+0	1.245795E+0	1.323205E+0	1.287014E+0	1.361981E+0	1.178436E+0	1.350014E+0	1.335000E+0	1.326538E+0	1.124443E+0	1.340338E+0	1.334037E+0	1.427496E+0	1.285866E+0	1.351069E+0	1.390569E+0	1.319350E+0	1.182753E+0	1.352867E+0	1.395635E+0	1.409960E+0	1.091725E+0	1.340268E+0	1.363054E+0	1.386770E+0	1.108824E+0	1.364735E+0	1.316767E+0	1.283301E+0	1.310937E+0	1.349199E+0	1.331917E+0	1.311015E+0	1.199306E+0	1.405355E+0	1.332354E+0	1.230216E+0	1.092862E+0	1.330032E+0	1.294947E+0	1.289096E+0	1.221887E+0	1.376861E+0	1.360804E+0	1.245287E+0	1.310325E+0	1.319517E+0	1.355516E+0	1.122037E+0	1.274845E+0	1.327840E+0	1.273982E+0	1.151231E+0	1.179164E+0	1.314166E+0	1.293011E+0	1.327962E+0	1.129572E+0	1.322181E+0	1.351970E+0	1.286292E+0	1.236287E+0	1.338515E+0	1.366913E+0	1.166929E+0	1.213874E+0	1.340951E+0	1.357241E+0	1.162353E+0	1.161217E+0	1.267119E+0	1.297921E+0	1.226823E+0	1.184566E+0	1.268258E+0	1.313527E+0	1.232380E+0	1.246921E+0	1.364733E+0	1.346453E+0	1.132810E+0	1.275707E+0	1.359108E+0	1.328155E+0	1.108060E+0	1.179658E+0	1.339842E+0	1.365666E+0	1.211173E+0	1.244067E+0	1.374446E+0	1.299833E+0	1.317865E+0	1.290387E+0	1.353465E+0	1.335945E+0	1.245181E+0	1.245702E+0	1.358940E+0	1.306196E+0	1.209732E+0	1.209842E+0	1.359921E+0	1.433731E+0	1.295489E+0	1.254447E+0	1.287231E+0	1.356809E+0	1.249735E+0	1.307381E+0	1.337602E+0	1.345279E+0	1.150236E+0	1.199163E+0	1.311634E+0	1.346329E+0	1.189818E+0	1.187940E+0	1.308218E+0	1.315851E+0	1.314046E+0	1.263279E+0	1.321699E+0	1.364423E+0	1.262353E+0	1.328000E+0	1.293004E+0	1.387347E+0	1.088227E+0	1.097867E+0	1.351682E+0	1.283974E+0	1.108305E+0	1.205757E+0	1.360956E+0	1.357800E+0	1.270546E+0	1.211213E+0	1.245756E+0	1.247727E+0	1.250148E+0	1.210074E+0
5.467600E+2	1.292419E+0	1.313229E+0	1.338856E+0	1.320281E+0	1.287251E+0	1.347000E+0	1.316322E+0	1.311879E+0	1.198878E+0	1.319310E+0	1.337446E+0	1.306852E+0	1.078998E+0	1.374716E+0	1.302306E+0	1.330679E+0	1.151225E+0	1.355945E+0	1.293849E+0	1.267126E+0	1.254359E+0	1.341731E+0	1.327965E+0	1.305036E+0	1.173909E+0	1.297005E+0	1.255291E+0	1.294405E+0	1.066221E+0	1.286758E+0	1.298720E+0	1.365435E+0	1.129603E+0	1.315184E+0	1.315763E+0	1.345963E+0	1.213945E+0	1.297845E+0	1.262770E+0	1.268571E+0	1.102429E+0	1.308934E+0	1.338793E+0	1.255335E+0	1.068564E+0	1.295267E+0	1.287809E+0	1.342934E+0	1.198710E+0	1.351007E+0	1.353907E+0	1.274659E+0	1.178498E+0	1.285449E+0	1.313651E+0	1.276197E+0	1.130197E+0	1.319455E+0	1.270430E+0	1.244586E+0	1.017008E+0	1.302996E+0	1.237378E+0	1.323781E+0	1.130867E+0	1.297221E+0	1.264510E+0	1.272708E+0	1.251679E+0	1.252074E+0	1.297995E+0	1.275408E+0	1.253043E+0	1.315274E+0	1.298606E+0	1.255432E+0	1.066257E+0	1.291213E+0	1.277428E+0	1.332526E+0	1.108585E+0	1.246745E+0	1.312155E+0	1.185412E+0	1.256868E+0	1.330712E+0	1.333464E+0	1.111862E+0	1.193164E+0	1.302613E+0	1.264936E+0	1.171397E+0	1.070991E+0	1.304042E+0	1.285040E+0	1.303537E+0	1.148687E+0	1.311179E+0	1.291174E+0	1.286386E+0	1.203791E+0	1.300075E+0	1.328548E+0	1.101880E+0	1.197551E+0	1.240222E+0	1.259902E+0	1.145626E+0	1.164121E+0	1.316178E+0	1.330237E+0	1.226814E+0	1.171389E+0	1.271357E+0	1.309478E+0	1.251757E+0	1.268717E+0	1.354145E+0	1.311367E+0	1.115961E+0	1.231867E+0	1.310009E+0	1.231047E+0	1.137336E+0	1.191215E+0	1.271698E+0	1.298369E+0	1.279317E+0	1.246575E+0	1.242238E+0	1.283656E+0	1.231175E+0	1.281290E+0	1.282090E+0	1.284289E+0	1.091923E+0	1.210090E+0	1.278279E+0	1.287197E+0	1.100096E+0	1.143974E+0	1.289547E+0	1.246456E+0	1.209164E+0	1.219496E+0	1.335812E+0	1.265457E+0	1.221266E+0	1.220833E+0	1.271965E+0	1.311765E+0	1.114591E+0	1.108855E+0	1.235067E+0	1.281747E+0	1.125144E+0	1.130435E+0	1.278278E+0	1.318969E+0	1.205944E+0	1.248296E+0	1.321415E+0	1.342858E+0	1.258388E+0	1.245331E+0
5.475280E+2	1.342823E+0	1.385556E+0	1.385920E+0	1.348601E+0	1.353295E+0	1.332738E+0	1.382633E+0	1.333348E+0	1.261004E+0	1.459053E+0	1.418143E+0	1.367480E+0	1.126770E+0	1.332145E+0	1.408100E+0	1.374083E+0	1.158866E+0	1.441606E+0	1.335652E+0	1.432645E+0	1.293836E+0	1.378957E+0	1.353497E+0	1.328421E+0	1.233925E+0	1.362512E+0	1.320897E+0	1.389968E+0	1.169593E+0	1.394817E+0	1.323619E+0	1.408358E+0	1.180567E+0	1.397507E+0	1.404414E+0	1.363489E+0	1.306503E+0	1.385429E+0	1.334539E+0	1.361562E+0	1.162174E+0	1.393872E+0	1.418088E+0	1.337481E+0	1.168745E+0	1.379224E+0	1.342153E+0	1.403290E+0	1.159599E+0	1.363972E+0	1.376192E+0	1.379103E+0	1.224622E+0	1.372381E+0	1.374318E+0	1.364764E+0	1.213816E+0	1.333385E+0	1.285533E+0	1.372482E+0	1.121901E+0	1.367204E+0	1.365236E+0	1.362399E+0	1.131542E+0	1.396965E+0	1.250215E+0	1.347555E+0	1.235797E+0	1.325354E+0	1.397172E+0	1.392833E+0	1.259652E+0	1.337761E+0	1.434405E+0	1.348366E+0	1.154350E+0	1.371181E+0	1.368817E+0	1.359912E+0	1.206069E+0	1.392905E+0	1.370790E+0	1.349617E+0	1.277450E+0	1.381778E+0	1.431853E+0	1.353904E+0	1.257435E+0	1.327148E+0	1.329837E+0	1.392992E+0	1.130515E+0	1.372323E+0	1.371827E+0	1.339475E+0	1.196984E+0	1.323441E+0	1.412875E+0	1.277629E+0	1.267520E+0	1.386071E+0	1.323722E+0	1.226198E+0	1.229651E+0	1.335329E+0	1.363831E+0	1.245804E+0	1.229370E+0	1.365592E+0	1.467185E+0	1.366946E+0	1.249005E+0	1.291824E+0	1.380687E+0	1.300550E+0	1.266089E+0	1.331688E+0	1.367834E+0	1.200088E+0	1.293432E+0	1.348159E+0	1.351571E+0	1.202565E+0	1.170590E+0	1.339837E+0	1.275329E+0	1.248914E+0	1.286646E+0	1.320172E+0	1.404482E+0	1.293535E+0	1.378488E+0	1.424640E+0	1.391201E+0	1.139414E+0	1.238502E+0	1.406140E+0	1.350819E+0	1.147761E+0	1.245689E+0	1.369259E+0	1.350890E+0	1.253640E+0	1.276199E+0	1.388345E+0	1.334733E+0	1.231725E+0	1.302872E+0	1.272666E+0	1.394035E+0	1.086941E+0	1.132297E+0	1.320531E+0	1.331503E+0	1.135094E+0	1.223863E+0	1.296899E+0	1.309955E+0	1.250447E+0	1.266442E+0	1.329425E+0	1.372427E+0	1.311962E+0	1.248269E+0
5.482600E+2	1.468835E+0	1.526235E+0	1.450533E+0	1.436138E+0	1.513470E+0	1.425814E+0	1.484124E+0	1.501392E+0	1.392322E+0	1.459804E+0	1.509600E+0	1.485705E+0	1.142293E+0	1.538252E+0	1.468270E+0	1.445971E+0	1.260747E+0	1.458594E+0	1.446648E+0	1.519761E+0	1.415917E+0	1.460118E+0	1.424991E+0	1.441561E+0	1.404076E+0	1.517668E+0	1.431206E+0	1.479392E+0	1.212156E+0	1.412608E+0	1.430328E+0	1.411037E+0	1.269599E+0	1.488211E+0	1.472763E+0	1.471694E+0	1.361916E+0	1.536336E+0	1.475557E+0	1.566508E+0	1.266393E+0	1.462704E+0	1.491772E+0	1.450687E+0	1.260815E+0	1.453108E+0	1.466861E+0	1.499855E+0	1.338683E+0	1.561517E+0	1.421432E+0	1.474186E+0	1.372871E+0	1.483778E+0	1.530234E+0	1.499747E+0	1.338901E+0	1.454882E+0	1.425998E+0	1.467328E+0	1.196569E+0	1.443578E+0	1.440879E+0	1.450105E+0	1.281221E+0	1.440265E+0	1.494713E+0	1.472793E+0	1.410507E+0	1.466078E+0	1.466596E+0	1.458137E+0	1.291363E+0	1.461436E+0	1.491111E+0	1.461015E+0	1.271602E+0	1.454110E+0	1.453121E+0	1.442067E+0	1.214194E+0	1.439268E+0	1.469968E+0	1.431352E+0	1.438231E+0	1.495252E+0	1.493506E+0	1.497334E+0	1.340984E+0	1.508088E+0	1.454590E+0	1.392992E+0	1.252070E+0	1.455233E+0	1.419286E+0	1.394071E+0	1.279089E+0	1.372497E+0	1.442680E+0	1.525771E+0	1.366003E+0	1.459132E+0	1.447701E+0	1.466949E+0	1.302224E+0	1.451334E+0	1.483275E+0	1.498460E+0	1.310158E+0	1.473470E+0	1.461052E+0	1.532494E+0	1.289930E+0	1.455548E+0	1.511986E+0	1.482342E+0	1.406618E+0	1.490249E+0	1.476118E+0	1.397957E+0	1.380588E+0	1.465098E+0	1.486979E+0	1.356672E+0	1.374176E+0	1.387894E+0	1.479809E+0	1.480494E+0	1.414013E+0	1.431851E+0	1.426675E+0	1.325457E+0	1.401321E+0	1.464391E+0	1.466544E+0	1.203142E+0	1.350685E+0	1.459350E+0	1.442139E+0	1.253605E+0	1.329026E+0	1.441790E+0	1.403108E+0	1.341262E+0	1.292706E+0	1.434605E+0	1.426087E+0	1.363200E+0	1.407078E+0	1.494281E+0	1.457580E+0	1.198832E+0	1.124971E+0	1.445932E+0	1.439924E+0	1.201684E+0	1.280352E+0	1.451826E+0	1.419516E+0	1.277727E+0	1.381636E+0	1.367700E+0	1.467558E+0	1.367596E+0	1.383421E+0
5.490100E+2	1.362987E+0	1.490467E+0	1.364383E+0	1.404384E+0	1.404916E+0	1.404797E+0	1.381274E+0	1.365918E+0	1.321016E+0	1.444777E+0	1.463197E+0	1.392489E+0	1.123185E+0	1.429454E+0	1.330738E+0	1.430370E+0	1.245463E+0	1.423884E+0	1.359439E+0	1.400965E+0	1.309629E+0	1.393599E+0	1.411584E+0	1.356230E+0	1.288663E+0	1.383200E+0	1.429760E+0	1.426146E+0	1.164062E+0	1.431719E+0	1.414677E+0	1.437865E+0	1.253468E+0	1.443243E+0	1.381408E+0	1.441217E+0	1.315345E+0	1.413050E+0	1.411973E+0	1.403164E+0	1.178769E+0	1.375566E+0	1.394230E+0	1.424457E+0	1.183222E+0	1.378552E+0	1.388133E+0	1.401385E+0	1.228900E+0	1.414314E+0	1.402526E+0	1.441772E+0	1.352448E+0	1.461239E+0	1.381495E+0	1.428286E+0	1.195850E+0	1.398390E+0	1.422223E+0	1.353802E+0	1.155087E+0	1.391537E+0	1.382641E+0	1.399052E+0	1.188851E+0	1.393098E+0	1.466126E+0	1.382383E+0	1.315822E+0	1.388908E+0	1.418989E+0	1.422190E+0	1.309863E+0	1.389348E+0	1.342628E+0	1.342734E+0	1.158073E+0	1.382288E+0	1.388654E+0	1.435546E+0	1.220286E+0	1.410194E+0	1.367171E+0	1.353299E+0	1.318609E+0	1.413694E+0	1.428571E+0	1.387201E+0	1.324560E+0	1.385416E+0	1.347865E+0	1.433696E+0	1.253323E+0	1.367445E+0	1.375213E+0	1.400985E+0	1.185253E+0	1.396254E+0	1.422809E+0	1.436005E+0	1.360850E+0	1.378312E+0	1.420149E+0	1.364464E+0	1.281289E+0	1.349021E+0	1.429758E+0	1.421115E+0	1.208862E+0	1.421968E+0	1.435843E+0	1.374768E+0	1.289223E+0	1.280455E+0	1.389588E+0	1.402071E+0	1.343579E+0	1.417434E+0	1.435592E+0	1.391224E+0	1.266453E+0	1.445192E+0	1.316123E+0	1.386780E+0	1.296999E+0	1.365656E+0	1.353087E+0	1.378287E+0	1.285930E+0	1.379627E+0	1.450512E+0	1.327684E+0	1.362180E+0	1.403395E+0	1.395508E+0	1.326982E+0	1.203534E+0	1.366431E+0	1.369532E+0	1.417628E+0	1.233877E+0	1.368542E+0	1.383870E+0	1.428882E+0	1.247488E+0	1.364038E+0	1.378124E+0	1.210061E+0	1.353125E+0	1.364537E+0	1.357245E+0	1.107518E+0	1.123507E+0	1.384428E+0	1.334472E+0	1.157290E+0	1.283975E+0	1.364681E+0	1.394552E+0	1.325821E+0	1.302736E+0	1.340997E+0	1.414850E+0	1.324327E+0	1.254144E+0
5.497520E+2	1.339945E+0	1.386350E+0	1.357203E+0	1.263640E+0	1.278142E+0	1.321481E+0	1.319704E+0	1.345191E+0	1.225002E+0	1.350114E+0	1.348875E+0	1.345503E+0	1.071236E+0	1.369311E+0	1.353222E+0	1.332712E+0	1.128939E+0	1.335267E+0	1.373131E+0	1.329690E+0	1.304165E+0	1.320373E+0	1.311369E+0	1.307560E+0	1.226670E+0	1.281829E+0	1.319456E+0	1.337410E+0	1.058484E+0	1.342107E+0	1.315791E+0	1.307087E+0	1.146377E+0	1.320520E+0	1.305614E+0	1.301763E+0	1.238704E+0	1.366564E+0	1.333278E+0	1.368903E+0	1.137610E+0	1.320647E+0	1.331076E+0	1.358878E+0	1.111412E+0	1.351687E+0	1.338667E+0	1.281314E+0	1.175380E+0	1.309058E+0	1.313390E+0	1.338768E+0	1.208148E+0	1.266132E+0	1.354751E+0	1.336668E+0	1.157841E+0	1.349638E+0	1.332357E+0	1.335119E+0	1.090490E+0	1.318542E+0	1.274195E+0	1.332290E+0	1.155814E+0	1.348253E+0	1.265260E+0	1.287528E+0	1.232131E+0	1.342864E+0	1.324441E+0	1.316146E+0	1.218026E+0	1.316595E+0	1.262791E+0	1.375825E+0	1.140703E+0	1.269740E+0	1.329852E+0	1.288843E+0	1.202008E+0	1.336327E+0	1.320115E+0	1.358453E+0	1.301244E+0	1.357665E+0	1.348550E+0	1.375672E+0	1.229583E+0	1.382350E+0	1.339935E+0	1.298022E+0	1.122370E+0	1.328431E+0	1.340637E+0	1.351915E+0	1.152136E+0	1.388589E+0	1.392178E+0	1.303174E+0	1.259150E+0	1.339516E+0	1.331300E+0	1.347483E+0	1.216394E+0	1.321640E+0	1.313418E+0	1.321673E+0	1.190842E+0	1.305043E+0	1.309115E+0	1.330447E+0	1.258883E+0	1.273634E+0	1.359917E+0	1.313928E+0	1.288417E+0	1.339171E+0	1.332624E+0	1.334020E+0	1.220799E+0	1.369722E+0	1.334555E+0	1.302915E+0	1.221154E+0	1.277435E+0	1.294050E+0	1.292255E+0	1.212230E+0	1.284017E+0	1.283656E+0	1.283883E+0	1.270200E+0	1.335545E+0	1.305814E+0	1.334800E+0	1.279295E+0	1.387874E+0	1.231809E+0	1.306878E+0	1.132818E+0	1.316836E+0	1.351577E+0	1.291474E+0	1.251077E+0	1.276224E+0	1.308849E+0	1.266087E+0	1.305087E+0	1.290200E+0	1.268288E+0	1.291430E+0	1.052450E+0	1.314141E+0	1.298827E+0	1.292767E+0	1.220241E+0	1.259658E+0	1.294008E+0	1.322949E+0	1.316939E+0	1.243086E+0	1.286295E+0	1.338749E+0	1.257083E+0
5.505110E+2	1.386029E+0	1.438807E+0	1.347631E+0	1.303117E+0	1.363163E+0	1.321483E+0	1.344062E+0	1.319282E+0	1.253946E+0	1.345604E+0	1.322650E+0	1.323525E+0	1.098703E+0	1.329441E+0	1.394213E+0	1.362550E+0	1.196435E+0	1.365543E+0	1.317634E+0	1.366912E+0	1.264685E+0	1.328915E+0	1.343285E+0	1.337272E+0	1.218756E+0	1.324585E+0	1.316574E+0	1.372906E+0	1.122606E+0	1.363192E+0	1.319350E+0	1.372141E+0	1.095413E+0	1.358632E+0	1.292078E+0	1.363487E+0	1.242243E+0	1.429890E+0	1.310616E+0	1.371351E+0	1.140267E+0	1.294286E+0	1.373882E+0	1.363712E+0	1.164108E+0	1.285189E+0	1.382561E+0	1.270512E+0	1.200082E+0	1.360924E+0	1.291781E+0	1.366859E+0	1.262179E+0	1.298327E+0	1.316912E+0	1.399576E+0	1.155768E+0	1.355828E+0	1.333864E+0	1.332966E+0	1.124272E+0	1.272582E+0	1.298294E+0	1.355199E+0	1.145025E+0	1.310366E+0	1.359298E+0	1.315688E+0	1.311544E+0	1.318221E+0	1.387255E+0	1.322738E+0	1.264275E+0	1.370171E+0	1.322482E+0	1.366673E+0	1.143185E+0	1.306022E+0	1.325600E+0	1.303188E+0	1.160035E+0	1.373259E+0	1.247726E+0	1.404106E+0	1.232427E+0	1.388872E+0	1.389873E+0	1.335974E+0	1.290282E+0	1.353215E+0	1.383922E+0	1.351538E+0	1.153074E+0	1.319374E+0	1.301313E+0	1.291096E+0	1.141787E+0	1.337239E+0	1.351610E+0	1.327260E+0	1.252069E+0	1.387362E+0	1.308572E+0	1.292298E+0	1.226860E+0	1.292820E+0	1.365382E+0	1.357769E+0	1.152936E+0	1.343322E+0	1.362262E+0	1.337616E+0	1.275112E+0	1.282729E+0	1.352499E+0	1.355639E+0	1.306804E+0	1.318756E+0	1.363846E+0	1.339404E+0	1.269912E+0	1.317473E+0	1.299815E+0	1.378176E+0	1.259742E+0	1.349159E+0	1.368931E+0	1.404161E+0	1.288078E+0	1.350703E+0	1.382290E+0	1.390785E+0	1.285855E+0	1.366387E+0	1.340972E+0	1.342612E+0	1.302605E+0	1.312427E+0	1.365790E+0	1.402909E+0	1.147910E+0	1.295293E+0	1.306229E+0	1.304088E+0	1.232415E+0	1.306802E+0	1.406293E+0	1.347513E+0	1.313955E+0	1.316849E+0	1.335845E+0	1.331942E+0	1.097867E+0	1.400404E+0	1.371602E+0	1.359357E+0	1.189824E+0	1.369896E+0	1.318275E+0	1.314335E+0	1.227781E+0	1.300052E+0	1.240013E+0	1.367597E+0	1.242393E+0
5.512570E+2	1.357947E+0	1.335483E+0	1.342048E+0	1.366623E+0	1.326724E+0	1.387534E+0	1.320382E+0	1.330386E+0	1.202408E+0	1.375656E+0	1.377791E+0	1.384909E+0	1.123784E+0	1.376742E+0	1.349914E+0	1.365265E+0	1.154411E+0	1.369976E+0	1.318356E+0	1.359784E+0	1.265290E+0	1.358818E+0	1.312646E+0	1.362551E+0	1.215458E+0	1.374235E+0	1.364156E+0	1.357203E+0	1.106575E+0	1.297301E+0	1.359187E+0	1.391590E+0	1.160570E+0	1.387596E+0	1.366521E+0	1.322341E+0	1.226322E+0	1.309975E+0	1.355943E+0	1.397046E+0	1.182752E+0	1.350669E+0	1.339495E+0	1.324367E+0	1.127050E+0	1.397360E+0	1.347725E+0	1.306087E+0	1.207629E+0	1.419654E+0	1.367412E+0	1.347412E+0	1.223962E+0	1.374311E+0	1.320827E+0	1.375149E+0	1.182721E+0	1.396068E+0	1.348215E+0	1.297037E+0	1.145012E+0	1.380722E+0	1.310343E+0	1.364365E+0	1.105246E+0	1.355984E+0	1.342746E+0	1.345331E+0	1.321932E+0	1.307845E+0	1.331715E+0	1.401820E+0	1.251063E+0	1.321887E+0	1.397842E+0	1.356112E+0	1.164897E+0	1.324533E+0	1.335519E+0	1.358607E+0	1.205391E+0	1.377190E+0	1.273786E+0	1.334889E+0	1.270373E+0	1.388161E+0	1.466614E+0	1.325088E+0	1.253863E+0	1.356283E+0	1.359404E+0	1.288225E+0	1.121118E+0	1.347242E+0	1.316906E+0	1.325653E+0	1.224581E+0	1.293551E+0	1.368168E+0	1.401703E+0	1.294553E+0	1.378309E+0	1.391223E+0	1.338387E+0	1.240119E+0	1.322360E+0	1.408818E+0	1.377654E+0	1.211972E+0	1.353064E+0	1.352043E+0	1.344135E+0	1.296982E+0	1.330482E+0	1.378463E+0	1.351705E+0	1.314683E+0	1.320798E+0	1.376468E+0	1.367670E+0	1.250543E+0	1.329914E+0	1.326046E+0	1.358824E+0	1.239116E+0	1.349160E+0	1.327889E+0	1.365350E+0	1.253731E+0	1.341062E+0	1.373249E+0	1.343274E+0	1.372617E+0	1.328007E+0	1.310120E+0	1.344419E+0	1.219561E+0	1.262395E+0	1.320879E+0	1.315989E+0	1.168256E+0	1.329046E+0	1.366007E+0	1.335286E+0	1.187195E+0	1.313859E+0	1.413903E+0	1.298208E+0	1.327999E+0	1.322461E+0	1.293703E+0	1.261850E+0	1.102263E+0	1.390819E+0	1.324818E+0	1.366247E+0	1.199963E+0	1.385539E+0	1.340467E+0	1.345203E+0	1.242773E+0	1.276019E+0	1.277296E+0	1.445897E+0	1.304093E+0
5.520150E+2	1.290259E+0	1.347405E+0	1.292590E+0	1.236177E+0	1.234872E+0	1.244920E+0	1.225652E+0	1.302997E+0	1.186170E+0	1.296767E+0	1.251370E+0	1.307609E+0	1.032424E+0	1.273349E+0	1.271231E+0	1.292024E+0	1.124482E+0	1.264374E+0	1.284480E+0	1.309099E+0	1.253752E+0	1.341732E+0	1.304349E+0	1.279120E+0	1.108620E+0	1.305277E+0	1.294223E+0	1.334679E+0	1.101046E+0	1.254470E+0	1.246075E+0	1.240695E+0	1.069609E+0	1.302227E+0	1.231848E+0	1.337579E+0	1.203330E+0	1.264834E+0	1.310616E+0	1.274076E+0	1.116369E+0	1.273785E+0	1.258094E+0	1.283639E+0	1.048296E+0	1.266386E+0	1.308710E+0	1.313076E+0	1.167148E+0	1.319734E+0	1.242488E+0	1.298430E+0	1.184428E+0	1.261626E+0	1.265376E+0	1.309791E+0	1.130198E+0	1.299333E+0	1.284778E+0	1.292726E+0	1.091676E+0	1.311782E+0	1.300972E+0	1.265535E+0	1.082997E+0	1.282530E+0	1.242691E+0	1.275672E+0	1.229077E+0	1.222890E+0	1.296011E+0	1.296377E+0	1.194243E+0	1.272948E+0	1.301592E+0	1.307531E+0	1.055710E+0	1.272701E+0	1.215082E+0	1.315575E+0	1.098431E+0	1.333184E+0	1.253517E+0	1.242111E+0	1.236931E+0	1.276101E+0	1.305262E+0	1.290511E+0	1.174598E+0	1.304915E+0	1.288011E+0	1.233957E+0	1.088537E+0	1.300559E+0	1.343348E+0	1.268980E+0	1.174905E+0	1.282055E+0	1.317666E+0	1.238948E+0	1.236622E+0	1.210849E+0	1.316835E+0	1.234687E+0	1.188480E+0	1.270485E+0	1.300233E+0	1.270848E+0	1.164742E+0	1.243103E+0	1.293448E+0	1.291991E+0	1.146693E+0	1.280455E+0	1.299833E+0	1.249396E+0	1.229316E+0	1.267037E+0	1.299409E+0	1.318539E+0	1.256769E+0	1.304203E+0	1.253734E+0	1.268507E+0	1.121353E+0	1.269545E+0	1.245809E+0	1.287726E+0	1.172159E+0	1.264734E+0	1.289410E+0	1.317291E+0	1.253890E+0	1.242338E+0	1.287877E+0	1.295123E+0	1.178766E+0	1.306074E+0	1.304413E+0	1.307577E+0	1.132819E+0	1.243588E+0	1.274626E+0	1.239699E+0	1.189348E+0	1.238589E+0	1.275353E+0	1.298956E+0	1.271827E+0	1.317551E+0	1.262266E+0	1.240629E+0	1.237782E+0	1.271010E+0	1.243131E+0	1.330273E+0	1.192721E+0	1.183682E+0	1.239921E+0	1.307873E+0	1.187543E+0	1.223503E+0	1.272153E+0	1.293419E+0	1.142497E+0
5.527700E+2	1.327704E+0	1.334688E+0	1.355608E+0	1.331437E+0	1.382898E+0	1.321480E+0	1.305494E+0	1.345192E+0	1.210880E+0	1.388431E+0	1.373757E+0	1.350807E+0	1.092135E+0	1.315927E+0	1.319499E+0	1.365943E+0	1.161414E+0	1.285051E+0	1.412774E+0	1.380376E+0	1.310846E+0	1.322813E+0	1.313286E+0	1.371401E+0	1.243158E+0	1.398370E+0	1.408136E+0	1.340139E+0	1.172907E+0	1.297301E+0	1.286623E+0	1.348668E+0	1.159279E+0	1.389882E+0	1.351629E+0	1.366537E+0	1.220429E+0	1.384080E+0	1.386158E+0	1.376858E+0	1.148896E+0	1.361652E+0	1.399143E+0	1.340934E+0	1.152529E+0	1.395344E+0	1.366539E+0	1.302277E+0	1.136955E+0	1.391432E+0	1.386321E+0	1.348851E+0	1.245704E+0	1.398138E+0	1.335177E+0	1.356821E+0	1.186866E+0	1.391424E+0	1.362563E+0	1.313565E+0	1.143235E+0	1.381399E+0	1.361887E+0	1.304150E+0	1.167950E+0	1.344387E+0	1.394659E+0	1.372010E+0	1.262064E+0	1.387611E+0	1.335683E+0	1.343706E+0	1.244454E+0	1.330485E+0	1.379935E+0	1.331469E+0	1.162417E+0	1.338603E+0	1.317098E+0	1.362517E+0	1.170190E+0	1.385048E+0	1.380202E+0	1.337100E+0	1.262657E+0	1.429293E+0	1.382003E+0	1.375035E+0	1.238867E+0	1.332516E+0	1.358680E+0	1.361337E+0	1.154325E+0	1.295684E+0	1.344703E+0	1.327035E+0	1.159036E+0	1.382460E+0	1.364029E+0	1.310471E+0	1.270736E+0	1.375722E+0	1.304437E+0	1.306854E+0	1.201738E+0	1.315878E+0	1.325052E+0	1.365869E+0	1.154799E+0	1.362809E+0	1.343864E+0	1.337616E+0	1.257472E+0	1.284244E+0	1.383654E+0	1.352490E+0	1.298922E+0	1.401102E+0	1.316680E+0	1.437663E+0	1.310725E+0	1.364746E+0	1.364333E+0	1.337321E+0	1.243775E+0	1.431646E+0	1.304848E+0	1.323305E+0	1.280922E+0	1.342668E+0	1.326398E+0	1.335850E+0	1.315211E+0	1.385578E+0	1.294332E+0	1.317967E+0	1.229030E+0	1.355313E+0	1.400968E+0	1.360149E+0	1.187286E+0	1.338381E+0	1.328903E+0	1.333296E+0	1.236721E+0	1.349926E+0	1.403247E+0	1.374405E+0	1.297696E+0	1.277577E+0	1.335843E+0	1.216838E+0	1.321290E+0	1.355676E+0	1.260211E+0	1.348641E+0	1.293390E+0	1.360213E+0	1.361961E+0	1.314336E+0	1.284589E+0	1.314294E+0	1.287580E+0	1.414989E+0	1.242391E+0
5.535330E+2	1.266497E+0	1.331509E+0	1.369168E+0	1.342594E+0	1.342667E+0	1.272692E+0	1.282489E+0	1.309658E+0	1.157225E+0	1.302030E+0	1.384516E+0	1.298516E+0	1.067056E+0	1.345658E+0	1.271891E+0	1.272355E+0	1.124483E+0	1.285791E+0	1.308986E+0	1.279797E+0	1.241607E+0	1.273384E+0	1.339454E+0	1.284178E+0	1.151486E+0	1.285278E+0	1.267547E+0	1.288945E+0	1.085570E+0	1.278850E+0	1.340693E+0	1.281603E+0	1.123153E+0	1.315948E+0	1.304936E+0	1.275855E+0	1.163831E+0	1.253382E+0	1.269067E+0	1.355444E+0	1.055960E+0	1.319183E+0	1.278446E+0	1.291924E+0	1.088830E+0	1.344298E+0	1.218834E+0	1.281313E+0	1.165090E+0	1.316684E+0	1.276927E+0	1.284022E+0	1.223961E+0	1.323442E+0	1.331265E+0	1.281084E+0	1.145402E+0	1.347316E+0	1.262879E+0	1.278356E+0	1.007526E+0	1.346927E+0	1.351178E+0	1.248514E+0	1.111315E+0	1.284076E+0	1.260748E+0	1.326064E+0	1.212585E+0	1.293578E+0	1.309897E+0	1.284997E+0	1.182350E+0	1.266334E+0	1.294875E+0	1.261064E+0	1.099756E+0	1.277144E+0	1.259009E+0	1.284280E+0	1.134986E+0	1.253031E+0	1.284646E+0	1.317953E+0	1.234358E+0	1.335677E+0	1.355764E+0	1.300757E+0	1.151747E+0	1.302615E+0	1.277918E+0	1.264105E+0	1.117357E+0	1.293593E+0	1.264699E+0	1.272436E+0	1.129368E+0	1.306581E+0	1.329257E+0	1.305363E+0	1.170964E+0	1.269039E+0	1.307193E+0	1.251060E+0	1.192666E+0	1.296421E+0	1.318848E+0	1.322410E+0	1.166607E+0	1.316178E+0	1.260061E+0	1.321322E+0	1.126231E+0	1.251651E+0	1.285739E+0	1.343834E+0	1.259521E+0	1.253426E+0	1.265529E+0	1.272776E+0	1.258151E+0	1.331572E+0	1.253027E+0	1.355240E+0	1.133331E+0	1.225793E+0	1.277488E+0	1.275438E+0	1.200065E+0	1.310530E+0	1.277081E+0	1.279430E+0	1.288466E+0	1.245765E+0	1.262763E+0	1.291513E+0	1.237772E+0	1.252864E+0	1.306660E+0	1.298465E+0	1.135443E+0	1.264414E+0	1.274623E+0	1.299442E+0	1.164226E+0	1.281712E+0	1.273069E+0	1.236207E+0	1.308782E+0	1.273369E+0	1.319119E+0	1.230341E+0	1.256095E+0	1.298965E+0	1.277291E+0	1.233066E+0	1.232555E+0	1.265615E+0	1.284993E+0	1.297107E+0	1.217525E+0	1.298272E+0	1.330003E+0	1.328447E+0	1.227703E+0
5.542700E+2	1.213932E+0	1.325150E+0	1.251111E+0	1.215580E+0	1.230317E+0	1.162354E+0	1.217534E+0	1.204539E+0	1.181935E+0	1.195342E+0	1.227160E+0	1.205300E+0	1.117217E+0	1.193611E+0	1.246766E+0	1.153674E+0	1.147405E+0	1.192742E+0	1.267903E+0	1.252079E+0	1.181477E+0	1.241651E+0	1.230940E+0	1.222865E+0	1.131702E+0	1.225286E+0	1.166613E+0	1.222732E+0	1.032503E+0	1.194511E+0	1.248208E+0	1.233988E+0	1.036062E+0	1.225241E+0	1.257565E+0	1.271282E+0	1.187415E+0	1.239904E+0	1.226258E+0	1.259394E+0	1.064591E+0	1.227653E+0	1.211780E+0	1.240842E+0	1.031501E+0	1.230113E+0	1.267603E+0	1.246368E+0	1.097159E+0	1.254141E+0	1.275576E+0	1.228558E+0	1.096134E+0	1.208179E+0	1.216452E+0	1.210843E+0	1.095645E+0	1.252902E+0	1.192647E+0	1.166266E+0	1.046046E+0	1.240139E+0	1.240055E+0	1.200081E+0	1.029059E+0	1.225312E+0	1.159186E+0	1.253440E+0	1.136223E+0	1.228726E+0	1.237166E+0	1.242457E+0	1.164512E+0	1.197550E+0	1.229961E+0	1.244870E+0	1.043304E+0	1.183109E+0	1.165493E+0	1.227553E+0	1.045627E+0	1.227885E+0	1.189812E+0	1.227382E+0	1.181620E+0	1.276811E+0	1.209497E+0	1.223278E+0	1.144606E+0	1.204478E+0	1.205086E+0	1.167628E+0	1.000815E+0	1.184907E+0	1.222662E+0	1.271055E+0	1.058302E+0	1.233001E+0	1.265508E+0	1.211214E+0	1.175469E+0	1.250935E+0	1.211453E+0	1.217709E+0	1.123583E+0	1.186903E+0	1.196303E+0	1.256116E+0	1.039835E+0	1.212480E+0	1.204874E+0	1.181193E+0	1.112824E+0	1.172821E+0	1.189305E+0	1.192733E+0	1.205674E+0	1.226208E+0	1.270844E+0	1.288927E+0	1.171687E+0	1.205512E+0	1.245936E+0	1.228369E+0	1.120688E+0	1.166260E+0	1.221329E+0	1.203635E+0	1.109192E+0	1.210101E+0	1.262286E+0	1.235630E+0	1.229101E+0	1.243025E+0	1.218275E+0	1.228392E+0	1.107376E+0	1.264778E+0	1.237049E+0	1.211547E+0	1.092789E+0	1.232817E+0	1.267068E+0	1.245010E+0	1.179299E+0	1.208011E+0	1.208361E+0	1.197362E+0	1.214921E+0	1.168874E+0	1.167285E+0	1.162822E+0	1.173319E+0	1.148005E+0	1.194118E+0	1.237658E+0	1.137678E+0	1.146438E+0	1.180288E+0	1.269828E+0	1.111011E+0	1.219943E+0	1.195019E+0	1.246026E+0	1.127808E+0
5.550310E+2	1.065598E+0	1.178909E+0	1.175331E+0	1.138342E+0	1.094434E+0	1.121822E+0	1.109275E+0	1.102380E+0	1.035794E+0	1.135988E+0	1.133687E+0	1.101476E+0	1.104078E+0	1.136168E+0	1.129069E+0	1.120444E+0	1.104107E+0	1.033970E+0	1.115104E+0	1.053298E+0	1.101914E+0	1.123876E+0	1.086683E+0	1.082547E+0	1.047945E+0	1.133572E+0	1.065679E+0	1.083482E+0	9.877283E-1	1.085790E+0	1.080318E+0	1.101200E+0	1.004451E+0	1.092612E+0	1.076200E+0	1.166122E+0	1.055356E+0	1.101797E+0	1.113568E+0	1.122358E+0	9.836033E-1	1.081937E+0	1.077751E+0	1.091739E+0	9.046836E-1	1.068913E+0	1.122690E+0	1.130745E+0	9.434611E-1	1.124477E+0	1.172937E+0	1.126993E+0	1.050670E+0	1.154733E+0	1.099027E+0	1.152820E+0	1.000968E+0	1.150751E+0	1.154132E+0	1.075014E+0	9.150787E-1	1.111724E+0	1.099476E+0	1.050855E+0	9.636593E-1	1.166550E+0	1.092232E+0	1.050391E+0	1.037263E+0	1.070493E+0	1.076499E+0	1.119642E+0	1.003964E+0	1.069244E+0	1.135201E+0	1.117436E+0	9.105411E-1	1.152011E+0	1.153449E+0	1.112797E+0	9.332511E-1	1.121015E+0	1.123935E+0	1.121350E+0	1.060712E+0	1.133547E+0	1.141282E+0	1.091374E+0	1.023208E+0	1.176110E+0	1.140185E+0	1.102055E+0	9.719925E-1	1.107572E+0	1.092482E+0	1.142507E+0	9.437685E-1	1.077412E+0	1.133044E+0	1.070356E+0	1.080204E+0	1.137784E+0	1.060612E+0	1.087327E+0	1.021702E+0	1.071620E+0	1.089271E+0	1.087434E+0	9.497262E-1	1.151930E+0	1.091774E+0	1.080820E+0	1.030976E+0	1.034109E+0	1.108450E+0	1.147875E+0	1.089440E+0	1.128891E+0	1.116719E+0	1.131441E+0	1.058243E+0	1.080281E+0	1.070116E+0	1.100063E+0	1.024218E+0	1.082341E+0	1.148609E+0	1.146710E+0	1.043362E+0	1.067891E+0	1.111046E+0	1.099775E+0	1.076455E+0	1.114179E+0	1.109209E+0	1.137612E+0	1.029430E+0	1.127385E+0	1.149474E+0	1.123228E+0	9.845135E-1	1.106426E+0	1.095298E+0	1.083706E+0	1.005599E+0	1.066096E+0	1.152027E+0	1.087550E+0	1.060456E+0	1.125393E+0	1.129829E+0	1.009131E+0	1.125704E+0	1.159986E+0	1.114659E+0	1.137390E+0	1.039905E+0	1.133776E+0	1.097078E+0	1.153542E+0	1.079451E+0	1.061506E+0	1.062607E+0	1.081185E+0	1.054355E+0
5.557600E+2	9.885504E-1	1.071611E+0	1.083597E+0	1.019910E+0	1.034464E+0	1.016738E+0	1.029432E+0	1.006144E+0	1.011790E+0	1.040570E+0	1.011971E+0	1.039333E+0	1.062877E+0	1.040884E+0	1.034516E+0	1.001085E+0	1.069086E+0	1.057601E+0	1.045191E+0	1.050923E+0	1.066080E+0	1.031733E+0	1.052853E+0	1.007964E+0	1.109279E+0	1.081853E+0	1.020980E+0	1.039113E+0	9.794356E-1	1.029124E+0	1.036210E+0	1.012675E+0	1.045739E+0	1.078129E+0	1.046424E+0	1.067821E+0	1.021165E+0	1.054638E+0	1.107273E+0	1.006118E+0	9.597052E-1	1.063631E+0	1.033543E+0	9.971697E-1	9.116327E-1	1.016523E+0	9.819550E-1	1.061497E+0	9.324826E-1	1.063458E+0	1.068945E+0	1.087375E+0	9.636945E-1	1.063297E+0	1.050753E+0	1.041656E+0	9.214942E-1	1.057112E+0	1.054449E+0	1.049147E+0	8.356687E-1	1.038052E+0	1.005757E+0	1.063945E+0	8.861238E-1	1.037424E+0	1.079443E+0	1.050391E+0	9.645690E-1	1.017963E+0	1.013025E+0	1.059730E+0	9.894292E-1	1.035516E+0	1.051633E+0	1.074489E+0	8.193453E-1	9.987411E-1	1.056392E+0	1.053467E+0	9.420513E-1	1.014144E+0	1.021138E+0	1.048452E+0	9.951123E-1	1.085320E+0	1.088810E+0	1.068962E+0	9.767913E-1	1.057273E+0	1.052209E+0	1.044018E+0	9.293860E-1	9.981887E-1	1.013154E+0	1.045752E+0	9.113400E-1	1.008431E+0	1.071780E+0	1.018538E+0	1.008111E+0	1.076361E+0	1.047525E+0	1.030320E+0	9.449425E-1	1.072340E+0	1.031877E+0	1.029980E+0	8.745333E-1	1.041967E+0	1.089731E+0	1.035847E+0	9.201974E-1	1.017434E+0	1.069877E+0	1.056584E+0	9.791178E-1	1.045187E+0	9.818641E-1	1.048659E+0	9.683187E-1	1.053741E+0	1.050265E+0	1.018349E+0	9.157702E-1	1.009181E+0	1.076608E+0	1.030920E+0	9.725233E-1	9.642467E-1	1.061729E+0	1.057460E+0	1.031443E+0	1.009321E+0	1.048218E+0	1.036011E+0	9.820796E-1	1.051144E+0	1.111301E+0	1.049627E+0	9.202040E-1	1.038922E+0	1.052012E+0	1.069766E+0	9.216189E-1	9.986670E-1	1.053061E+0	1.068128E+0	9.968956E-1	1.029315E+0	1.030835E+0	9.949840E-1	1.037799E+0	1.080113E+0	1.024803E+0	1.053196E+0	9.189575E-1	1.036945E+0	1.058940E+0	1.031512E+0	1.021067E+0	9.894079E-1	1.074177E+0	1.058519E+0	8.956980E-1
5.560130E+2	9.532676E-1	9.810038E-1	9.950539E-1	9.752834E-1	9.676618E-1	9.987240E-1	9.942481E-1	1.013547E+0	9.390724E-1	9.714497E-1	9.971762E-1	9.643056E-1	1.001970E+0	1.021962E+0	9.869083E-1	1.012614E+0	9.493791E-1	9.615989E-1	9.896934E-1	1.006573E+0	1.030854E+0	9.823030E-1	1.008809E+0	9.801528E-1	9.958449E-1	1.001172E+0	9.315811E-1	1.026144E+0	9.960197E-1	1.004086E+0	1.005620E+0	9.824965E-1	1.004451E+0	1.005717E+0	9.618325E-1	1.022861E+0	9.952246E-1	1.050595E+0	9.624794E-1	9.620694E-1	9.451014E-1	9.391505E-1	9.577562E-1	9.771514E-1	9.614332E-1	1.023912E+0	9.673246E-1	1.004320E+0	1.007959E+0	1.023034E+0	9.555002E-1	1.001656E+0	9.979571E-1	1.005989E+0	1.022049E+0	1.017835E+0	9.208038E-1	9.688904E-1	1.002341E+0	9.578947E-1	9.370052E-1	9.900648E-1	1.015798E+0	9.867134E-1	9.596136E-1	9.887111E-1	9.334963E-1	9.822143E-1	1.014050E+0	9.628409E-1	9.607920E-1	9.500942E-1	9.015569E-1	9.766535E-1	1.008357E+0	9.400142E-1	8.379566E-1	1.011329E+0	9.947571E-1	9.739198E-1	8.425366E-1	9.834979E-1	1.013900E+0	9.578812E-1	9.134345E-1	1.005177E+0	1.016660E+0	9.998078E-1	9.160933E-1	1.030438E+0	1.024085E+0	1.000301E+0	8.109635E-1	1.038598E+0	9.731507E-1	9.911535E-1	8.540730E-1	1.000000E+0	1.082542E+0	9.842353E-1	9.270058E-1	9.948919E-1	1.003444E+0	9.824135E-1	9.023756E-1	9.851571E-1	9.969752E-1	9.879938E-1	8.795047E-1	9.939452E-1	1.000477E+0	1.014991E+0	8.919740E-1	9.916620E-1	1.027595E+0	1.004643E+0	9.475966E-1	9.866621E-1	1.015080E+0	1.012989E+0	9.330407E-1	9.550495E-1	9.949665E-1	9.524056E-1	8.718583E-1	9.747522E-1	9.664479E-1	9.959896E-1	8.923824E-1	9.337156E-1	9.885749E-1	1.013659E+0	9.342442E-1	9.647735E-1	9.893806E-1	1.008958E+0	8.706237E-1	1.015407E+0	9.907932E-1	1.013879E+0	8.729568E-1	9.707002E-1	1.007352E+0	9.575831E-1	8.914733E-1	9.437831E-1	9.792171E-1	9.687749E-1	9.592035E-1	9.121969E-1	1.042874E+0	9.525428E-1	1.015823E+0	9.946483E-1	9.468294E-1	9.858403E-1	9.341662E-1	9.862941E-1	1.030510E+0	9.913142E-1	9.863504E-1	9.707156E-1	9.379067E-1	9.740373E-1	9.250794E-1
5.565030E+2	9.287855E-1	9.746461E-1	9.160837E-1	8.928963E-1	9.380555E-1	9.664483E-1	9.171138E-1	9.646888E-1	9.899045E-1	8.888051E-1	9.635521E-1	9.620319E-1	9.840574E-1	9.983107E-1	9.644267E-1	9.570036E-1	9.837632E-1	9.822766E-1	9.305913E-1	9.543045E-1	9.367139E-1	9.420279E-1	9.571051E-1	9.422289E-1	9.628698E-1	9.004940E-1	9.524889E-1	9.701702E-1	9.506930E-1	9.012954E-1	1.037633E+0	9.932267E-1	9.025221E-1	1.011052E+0	9.787503E-1	9.497060E-1	9.787170E-1	9.037278E-1	9.454816E-1	9.278095E-1	9.537316E-1	9.677083E-1	9.409146E-1	9.723193E-1	9.376910E-1	9.681626E-1	9.603573E-1	9.731904E-1	9.462059E-1	9.620161E-1	9.244376E-1	9.764455E-1	1.015748E+0	9.641334E-1	9.326775E-1	9.616426E-1	9.373889E-1	1.008358E+0	8.988813E-1	1.011784E+0	9.375977E-1	9.535671E-1	9.488565E-1	9.395890E-1	9.279258E-1	9.887111E-1	1.010231E+0	9.814733E-1	9.181427E-1	9.148516E-1	9.217819E-1	9.590806E-1	9.154318E-1	9.673948E-1	9.553807E-1	9.604320E-1	9.688568E-1	9.713451E-1	9.706705E-1	9.634873E-1	9.562674E-1	9.473509E-1	9.552617E-1	9.240089E-1	9.674573E-1	9.583682E-1	9.628757E-1	9.172072E-1	8.868150E-1	9.806024E-1	9.079859E-1	9.302052E-1	8.303872E-1	9.960984E-1	9.643362E-1	9.662735E-1	8.299249E-1	9.517137E-1	9.360029E-1	9.003045E-1	8.928899E-1	9.412263E-1	9.676274E-1	9.466344E-1	8.967933E-1	9.188690E-1	8.945964E-1	9.717885E-1	8.378685E-1	9.883771E-1	9.398392E-1	9.687152E-1	8.898567E-1	9.219276E-1	9.875376E-1	9.503414E-1	9.180456E-1	9.444693E-1	9.214110E-1	9.571289E-1	8.742443E-1	9.334871E-1	9.417950E-1	9.280342E-1	8.625441E-1	9.295651E-1	9.578079E-1	9.720555E-1	9.238667E-1	9.473744E-1	9.515869E-1	9.817379E-1	9.238068E-1	9.394152E-1	1.017364E+0	9.476367E-1	8.735378E-1	9.502845E-1	9.391474E-1	9.556997E-1	8.440828E-1	9.154044E-1	1.005978E+0	9.960838E-1	8.842954E-1	9.673052E-1	9.213602E-1	8.970606E-1	8.949046E-1	9.500672E-1	9.773249E-1	9.679762E-1	1.002637E+0	9.579067E-1	9.423737E-1	9.368541E-1	9.443061E-1	1.000447E+0	9.528481E-1	9.762403E-1	9.003505E-1	9.502432E-1	9.301947E-1	1.000824E+0	9.544604E-1
5.570100E+2	9.640685E-1	9.635192E-1	9.798986E-1	1.037074E+0	9.775302E-1	9.566901E-1	9.522982E-1	9.765327E-1	9.171870E-1	9.594288E-1	9.662422E-1	9.726420E-1	9.876388E-1	9.935803E-1	9.802959E-1	9.651418E-1	9.773959E-1	9.401836E-1	9.961801E-1	9.487606E-1	1.002308E+0	9.481301E-1	9.347644E-1	9.523418E-1	9.958451E-1	1.028066E+0	9.899787E-1	9.974744E-1	9.567728E-1	9.744345E-1	9.686266E-1	9.918851E-1	9.747755E-1	1.004955E+0	9.760440E-1	9.474198E-1	9.857921E-1	9.919829E-1	9.731808E-1	9.957173E-1	1.016795E+0	1.018233E+0	9.893337E-1	9.488494E-1	9.394285E-1	9.755512E-1	9.269156E-1	9.833553E-1	9.551255E-1	9.139646E-1	9.676549E-1	9.541150E-1	1.008500E+0	9.976175E-1	1.004436E+0	9.659182E-1	9.726335E-1	1.016097E+0	9.751542E-1	9.234055E-1	1.022343E+0	9.596501E-1	9.575588E-1	9.598787E-1	1.000742E+0	9.817522E-1	9.327444E-1	9.703576E-1	9.486863E-1	9.297674E-1	1.006413E+0	9.962255E-1	9.927325E-1	9.495376E-1	9.456811E-1	9.562078E-1	1.004839E+0	9.269193E-1	9.657108E-1	9.784839E-1	9.406977E-1	1.017288E+0	9.805993E-1	1.009426E+0	9.661710E-1	9.385100E-1	9.681228E-1	1.005571E+0	1.013211E+0	9.928702E-1	9.923561E-1	1.001809E+0	1.003948E+0	9.814676E-1	9.792524E-1	9.787142E-1	9.692968E-1	9.931019E-1	1.001407E+0	9.937237E-1	1.025490E+0	9.548045E-1	9.331889E-1	9.896911E-1	8.800455E-1	9.945241E-1	9.341520E-1	1.060917E+0	8.621047E-1	9.821131E-1	9.991141E-1	9.615458E-1	9.131412E-1	8.984303E-1	9.600914E-1	9.416843E-1	9.633570E-1	9.676067E-1	9.891716E-1	9.591471E-1	9.192062E-1	9.550497E-1	1.005601E+0	9.932628E-1	8.844998E-1	9.209586E-1	9.930884E-1	1.017983E+0	9.124174E-1	9.682642E-1	9.918632E-1	9.743139E-1	9.388104E-1	9.976697E-1	9.764648E-1	1.008956E+0	9.077761E-1	9.828460E-1	9.788173E-1	9.592044E-1	8.434265E-1	9.735732E-1	1.016284E+0	9.502807E-1	9.086992E-1	1.014349E+0	9.952044E-1	9.284355E-1	9.000785E-1	9.472623E-1	9.907024E-1	9.692623E-1	9.330460E-1	1.027397E+0	9.639089E-1	9.950250E-1	9.225785E-1	9.445826E-1	9.396731E-1	9.661904E-1	9.398000E-1	9.938586E-1	9.739032E-1	1.002885E+0	1.051418E+0
5.575080E+2	1.019514E+0	9.889523E-1	1.022973E+0	9.950222E-1	1.037500E+0	1.000976E+0	1.009811E+0	1.011326E+0	1.050620E+0	9.691961E-1	9.803635E-1	1.077225E+0	9.954018E-1	1.009799E+0	1.008728E+0	9.943033E-1	1.021968E+0	9.940924E-1	1.020685E+0	1.021620E+0	1.014455E+0	1.023189E+0	1.021575E+0	9.845774E-1	1.013652E+0	1.024618E+0	9.193245E-1	1.010444E+0	1.021449E+0	1.017263E+0	1.014869E+0	1.032794E+0	1.009612E+0	9.889477E-1	9.807808E-1	1.022099E+0	1.013501E+0	1.000067E+0	1.007807E+0	1.013460E+0	1.044012E+0	1.013107E+0	1.023016E+0	1.037897E+0	1.032080E+0	9.970446E-1	1.014003E+0	9.986022E-1	9.935504E-1	1.026848E+0	9.933149E-1	9.908520E-1	9.986164E-1	9.898907E-1	1.044882E+0	1.019056E+0	1.059018E+0	9.913323E-1	1.026507E+0	1.045555E+0	9.820434E-1	1.033321E+0	1.022493E+0	1.045619E+0	1.020294E+0	1.011908E+0	9.718639E-1	9.807327E-1	1.020770E+0	9.926717E-1	9.865784E-1	1.012401E+0	1.048891E+0	1.004431E+0	9.829880E-1	1.070969E+0	9.936721E-1	1.014291E+0	1.002550E+0	9.895680E-1	9.847005E-1	9.772114E-1	1.008832E+0	1.017525E+0	1.027912E+0	1.044894E+0	1.023875E+0	1.027341E+0	1.025351E+0	9.936364E-1	1.009663E+0	1.026682E+0	1.044048E+0	9.960986E-1	1.045699E+0	1.025019E+0	9.996552E-1	9.977011E-1	1.017965E+0	9.645296E-1	9.765694E-1	1.013643E+0	1.077143E+0	9.842329E-1	9.972782E-1	9.779521E-1	1.052043E+0	9.813643E-1	1.043562E+0	9.758498E-1	9.970703E-1	9.687151E-1	1.038031E+0	1.025013E+0	1.039463E+0	9.589982E-1	1.001445E+0	1.024771E+0	9.752207E-1	1.008952E+0	9.807697E-1	1.035496E+0	9.673171E-1	1.006881E+0	9.610118E-1	1.027829E+0	9.909280E-1	9.940488E-1	9.510574E-1	9.779055E-1	1.021453E+0	1.017371E+0	9.779507E-1	1.013433E+0	9.714424E-1	1.013768E+0	9.747952E-1	1.004288E+0	1.013997E+0	9.942523E-1	8.545821E-1	9.821905E-1	9.606305E-1	9.887818E-1	9.287972E-1	1.004939E+0	1.040881E+0	1.009114E+0	9.628989E-1	1.016691E+0	1.054246E+0	1.020063E+0	9.755334E-1	9.866609E-1	9.490566E-1	1.005740E+0	9.739993E-1	1.001192E+0	1.013175E+0	9.776757E-1	1.004497E+0	9.956386E-1	1.021469E+0	9.884614E-1	9.515224E-1
5.580400E+2	1.067038E+0	9.984895E-1	1.068441E+0	1.028493E+0	1.001062E+0	1.021242E+0	1.068677E+0	1.020950E+0	1.019556E+0	1.061608E+0	9.978480E-1	1.043121E+0	1.010927E+0	1.048318E+0	1.065593E+0	1.022787E+0	1.023878E+0	1.033970E+0	1.053120E+0	1.043003E+0	1.013240E+0	1.106181E+0	1.029235E+0	1.023133E+0	1.026182E+0	1.004620E+0	1.018097E+0	1.012492E+0	1.029186E+0	1.052844E+0	1.034788E+0	9.979209E-1	1.072189E+0	9.996189E-1	1.050484E+0	1.026671E+0	1.018218E+0	1.030384E+0	1.045579E+0	1.050166E+0	1.009493E+0	1.002123E+0	1.034244E+0	1.034446E+0	1.021080E+0	1.058838E+0	1.020971E+0	1.019567E+0	1.012763E+0	1.032950E+0	1.035857E+0	9.980550E-1	9.933450E-1	1.052351E+0	1.023354E+0	1.047763E+0	9.816181E-1	9.967501E-1	1.029528E+0	1.018969E+0	1.028860E+0	9.670847E-1	9.890215E-1	1.024020E+0	1.012203E+0	1.071444E+0	1.065149E+0	1.020009E+0	1.041541E+0	1.058819E+0	1.034844E+0	1.047150E+0	1.027749E+0	1.026918E+0	1.035218E+0	1.003379E+0	1.069979E+0	1.023176E+0	1.091815E+0	1.038469E+0	1.032766E+0	1.063651E+0	1.015347E+0	1.072751E+0	1.027912E+0	9.973756E-1	1.002886E+0	1.029262E+0	1.072481E+0	1.051138E+0	9.966829E-1	9.784433E-1	9.845242E-1	1.043475E+0	1.016544E+0	1.031238E+0	1.001725E+0	1.022227E+0	1.041147E+0	1.044082E+0	1.024203E+0	1.012350E+0	1.011709E+0	1.010309E+0	1.044730E+0	1.048563E+0	1.059023E+0	1.043239E+0	1.046671E+0	1.081638E+0	1.014103E+0	1.067132E+0	1.024625E+0	1.030319E+0	1.004599E+0	1.050289E+0	1.055950E+0	1.049270E+0	1.020395E+0	1.042602E+0	1.043717E+0	1.019738E+0	1.021907E+0	9.796434E-1	1.050831E+0	1.035720E+0	1.055728E+0	1.017983E+0	1.099174E+0	1.049411E+0	1.014055E+0	9.765410E-1	1.062103E+0	1.073743E+0	1.033868E+0	9.975351E-1	1.087708E+0	1.076558E+0	1.035703E+0	1.034907E+0	1.055384E+0	1.063339E+0	1.025215E+0	1.043877E+0	1.091731E+0	1.113923E+0	1.015759E+0	1.046465E+0	1.022763E+0	1.060873E+0	9.933781E-1	1.011060E+0	1.025346E+0	1.002636E+0	1.053765E+0	1.074627E+0	1.006591E+0	1.063015E+0	1.056166E+0	1.012131E+0	9.476899E-1	1.025012E+0	1.081890E+0	1.017309E+0	1.022035E+0
5.585390E+2	1.055517E+0	1.058894E+0	1.013401E+0	1.017335E+0	1.064829E+0	1.059523E+0	1.063264E+0	1.034275E+0	1.086625E+0	1.050338E+0	1.045594E+0	1.029480E+0	1.079000E+0	1.015881E+0	1.072204E+0	1.068225E+0	1.071633E+0	1.078278E+0	1.037263E+0	1.043795E+0	1.088552E+0	1.018917E+0	1.057321E+0	1.064219E+0	1.055200E+0	1.056339E+0	1.057027E+0	1.024778E+0	1.077831E+0	1.050209E+0	1.068935E+0	1.053584E+0	1.078640E+0	1.072031E+0	1.058605E+0	1.062487E+0	1.054178E+0	1.053964E+0	1.049985E+0	1.088709E+0	1.054633E+0	1.021894E+0	1.092488E+0	1.069650E+0	1.039029E+0	1.058838E+0	1.032118E+0	1.041167E+0	1.060793E+0	1.056594E+0	1.031130E+0	1.024707E+0	1.003887E+0	1.029813E+0	1.017483E+0	1.009284E+0	1.079750E+0	1.075685E+0	1.118639E+0	1.059925E+0	1.018193E+0	1.059680E+0	9.983929E-1	1.013548E+0	1.037824E+0	1.052888E+0	1.030543E+0	1.065954E+0	1.037264E+0	1.076329E+0	9.951738E-1	9.932301E-1	1.087872E+0	1.034193E+0	1.079986E+0	1.049847E+0	1.044543E+0	1.086113E+0	1.042223E+0	1.077588E+0	1.040212E+0	1.021217E+0	1.015347E+0	9.983801E-1	1.067787E+0	9.959572E-1	1.048143E+0	1.042069E+0	1.017495E+0	1.022004E+0	1.044997E+0	1.028943E+0	1.077256E+0	1.002369E+0	1.026714E+0	1.002211E+0	1.010694E+0	1.043687E+0	1.035351E+0	1.063788E+0	1.033215E+0	1.042738E+0	1.021352E+0	9.927233E-1	1.000070E+0	1.062253E+0	1.035755E+0	1.049132E+0	1.034240E+0	1.027352E+0	1.031137E+0	1.054748E+0	1.064844E+0	1.123551E+0	1.031303E+0	1.065241E+0	1.076307E+0	1.032257E+0	1.041653E+0	1.043275E+0	1.068619E+0	1.015591E+0	1.050265E+0	1.068525E+0	1.074117E+0	1.067279E+0	1.055728E+0	1.043858E+0	1.078424E+0	1.071908E+0	1.037892E+0	1.054490E+0	1.032095E+0	1.067575E+0	1.048218E+0	1.078095E+0	1.102277E+0	1.058292E+0	1.021482E+0	1.050328E+0	1.137411E+0	1.064057E+0	1.067814E+0	1.037903E+0	1.059432E+0	1.009643E+0	1.068286E+0	1.061405E+0	1.059717E+0	1.066484E+0	1.046220E+0	1.070221E+0	1.031939E+0	1.040975E+0	9.995542E-1	1.081516E+0	1.066702E+0	1.080891E+0	1.028430E+0	1.039409E+0	1.010809E+0	1.056165E+0	1.056179E+0	9.760978E-1	9.779633E-1
5.590160E+2	1.049757E+0	1.006438E+0	9.934588E-1	1.026776E+0	1.049647E+0	1.055019E+0	1.047026E+0	1.013547E+0	9.948464E-1	1.006011E+0	1.080562E+0	9.840093E-1	9.983879E-1	9.868219E-1	9.955034E-1	1.024143E+0	1.059535E+0	1.007385E+0	1.036542E+0	1.012117E+0	1.026602E+0	1.030512E+0	1.013915E+0	1.037039E+0	9.839743E-1	1.063234E+0	1.070726E+0	1.019318E+0	1.044664E+0	9.981550E-1	9.743189E-1	1.020052E+0	1.041868E+0	1.027822E+0	1.025445E+0	9.779016E-1	1.034135E+0	1.020279E+0	1.020398E+0	1.017129E+0	9.875865E-1	1.050451E+0	9.900354E-1	1.028233E+0	1.026870E+0	1.062868E+0	1.038389E+0	1.001779E+0	1.031975E+0	1.003203E+0	1.059491E+0	1.057121E+0	1.035515E+0	1.019511E+0	1.021397E+0	1.050207E+0	1.008569E+0	1.011453E+0	9.766643E-1	1.015377E+0	1.036565E+0	1.028590E+0	1.041236E+0	1.016821E+0	1.031756E+0	1.046702E+0	1.007975E+0	1.028901E+0	1.030542E+0	9.933201E-1	1.042778E+0	1.013002E+0	9.649835E-1	1.021627E+0	1.030741E+0	1.021685E+0	1.007321E+0	1.002443E+0	9.975915E-1	1.043685E+0	1.076091E+0	1.040862E+0	1.034169E+0	1.058760E+0	1.036916E+0	1.015816E+0	1.016660E+0	1.046551E+0	1.022494E+0	9.813695E-1	1.059420E+0	1.016884E+0	1.009587E+0	9.940079E-1	1.030782E+0	1.044369E+0	1.060370E+0	1.039089E+0	1.041147E+0	1.005401E+0	1.107239E+0	1.029807E+0	1.035816E+0	1.020013E+0	1.064269E+0	1.062253E+0	1.036530E+0	9.614755E-1	1.080849E+0	9.974249E-1	1.065203E+0	9.980446E-1	1.042265E+0	1.044721E+0	1.047623E+0	1.036910E+0	1.019175E+0	1.018646E+0	1.074205E+0	1.002221E+0	1.078995E+0	9.600255E-1	1.053100E+0	9.982800E-1	1.075449E+0	1.047913E+0	9.758078E-1	1.027039E+0	9.875495E-1	9.425541E-1	9.935064E-1	1.022569E+0	1.047751E+0	1.038105E+0	1.027410E+0	1.036612E+0	1.027973E+0	9.963471E-1	1.005015E+0	1.025795E+0	1.088852E+0	1.023842E+0	9.805553E-1	1.002058E+0	1.085989E+0	1.004940E+0	1.008145E+0	1.044971E+0	1.059716E+0	1.017392E+0	1.030167E+0	1.020706E+0	1.014358E+0	9.914538E-1	1.041884E+0	9.735940E-1	1.051494E+0	1.001937E+0	1.021496E+0	1.027205E+0	1.092864E+0	1.053495E+0	1.022755E+0	1.048215E+0	9.779634E-1
5.595000E+2	1.018074E+0	1.063663E+0	1.054083E+0	9.975973E-1	1.010931E+0	1.051266E+0	9.976320E-1	1.052782E+0	1.022380E+0	1.048836E+0	1.023402E+0	1.044637E+0	1.026453E+0	1.041560E+0	1.021291E+0	1.038385E+0	1.000955E+0	1.058340E+0	1.056723E+0	1.023996E+0	1.018707E+0	1.015256E+0	1.078385E+0	1.095823E+0	1.063774E+0	1.057718E+0	1.067121E+0	1.042526E+0	1.054060E+0	1.069317E+0	1.080317E+0	1.024746E+0	1.081866E+0	1.010290E+0	1.025445E+0	1.055628E+0	1.029417E+0	1.051269E+0	1.036765E+0	1.026918E+0	1.012812E+0	1.009446E+0	1.016701E+0	1.020640E+0	1.073773E+0	9.809248E-1	1.087854E+0	1.074203E+0	1.028544E+0	1.068798E+0	1.047336E+0	1.088816E+0	1.019042E+0	1.052995E+0	1.050101E+0	1.031883E+0	1.058327E+0	1.030800E+0	1.035569E+0	1.027591E+0	1.014044E+0	1.071170E+0	1.035211E+0	1.044965E+0	1.043218E+0	1.018093E+0	1.022268E+0	1.020749E+0	1.037263E+0	1.031582E+0	1.046746E+0	1.010604E+0	1.003304E+0	1.030886E+0	1.092671E+0	1.082938E+0	1.061914E+0	1.054274E+0	1.059226E+0	1.074330E+0	1.005009E+0	1.069937E+0	1.083395E+0	1.084533E+0	1.017621E+0	1.079646E+0	1.016660E+0	1.008132E+0	1.015353E+0	1.086407E+0	1.069515E+0	1.077181E+0	1.089160E+0	1.072040E+0	1.002305E+0	1.045751E+0	1.119708E+0	1.041388E+0	9.889887E-1	1.060138E+0	1.052525E+0	1.060843E+0	1.060612E+0	1.089751E+0	1.117302E+0	1.087472E+0	1.074535E+0	1.052077E+0	1.111298E+0	1.012737E+0	1.098588E+0	1.042365E+0	1.026742E+0	1.021224E+0	1.055041E+0	1.002282E+0	1.054637E+0	1.022049E+0	1.029695E+0	1.041929E+0	1.045100E+0	1.076134E+0	1.024034E+0	1.077126E+0	1.068794E+0	1.015636E+0	1.039168E+0	1.021864E+0	1.039784E+0	1.047002E+0	1.005014E+0	1.036673E+0	1.054927E+0	1.008635E+0	1.063286E+0	1.025189E+0	1.052013E+0	1.054322E+0	1.056661E+0	1.018786E+0	1.110507E+0	1.071238E+0	1.042393E+0	1.043214E+0	1.049383E+0	1.016701E+0	1.081228E+0	1.090538E+0	1.053065E+0	1.001262E+0	1.018796E+0	1.031638E+0	1.129366E+0	1.048962E+0	1.073073E+0	1.000383E+0	1.039906E+0	1.039924E+0	1.055473E+0	1.071711E+0	1.107856E+0	1.037473E+0	1.039467E+0	1.037913E+0	1.069045E+0
5.600470E+2	9.460668E-1	1.015180E+0	9.623492E-1	9.589783E-1	9.653845E-1	9.326714E-1	9.489146E-1	9.713513E-1	9.553105E-1	9.932386E-1	9.998654E-1	9.612740E-1	9.918195E-1	9.530336E-1	9.247542E-1	9.970159E-1	9.563832E-1	9.025213E-1	9.767196E-1	9.661838E-1	9.597930E-1	9.487403E-1	9.762552E-1	9.782564E-1	9.463833E-1	9.653140E-1	9.676287E-1	9.667573E-1	9.501394E-1	9.461010E-1	9.024666E-1	9.905441E-1	9.386495E-1	9.470247E-1	9.104002E-1	9.954276E-1	9.433457E-1	9.791821E-1	9.775885E-1	9.663520E-1	9.550593E-1	9.406153E-1	9.430197E-1	9.578235E-1	9.817019E-1	9.876418E-1	9.276123E-1	9.573075E-1	9.983528E-1	9.772709E-1	9.993923E-1	9.548360E-1	9.880741E-1	9.654216E-1	9.646429E-1	9.451516E-1	9.346244E-1	9.665685E-1	9.774201E-1	9.492720E-1	9.950819E-1	9.515391E-1	1.002410E+0	9.886771E-1	9.562429E-1	9.701540E-1	9.447813E-1	9.503490E-1	9.816737E-1	9.732172E-1	9.502131E-1	9.962254E-1	9.306274E-1	9.561515E-1	9.658266E-1	9.456463E-1	9.707183E-1	9.602388E-1	9.593353E-1	9.471869E-1	1.005010E+0	9.607097E-1	9.320964E-1	9.541994E-1	9.642419E-1	9.569498E-1	9.648435E-1	9.505033E-1	9.382299E-1	9.637353E-1	9.447627E-1	9.678916E-1	1.007081E+0	1.015606E+0	9.046708E-1	9.172049E-1	9.962055E-1	9.624435E-1	9.285522E-1	9.696385E-1	9.450291E-1	9.806672E-1	9.786479E-1	9.921160E-1	9.868113E-1	9.340004E-1	9.861163E-1	9.555829E-1	9.739622E-1	9.285237E-1	9.439270E-1	9.641526E-1	9.646495E-1	9.855986E-1	9.393210E-1	9.841817E-1	9.627002E-1	9.689678E-1	9.393478E-1	1.008951E+0	9.814621E-1	9.907110E-1	9.729888E-1	1.004731E+0	9.876246E-1	1.004877E+0	1.017568E+0	9.151314E-1	1.009731E+0	1.026915E+0	9.466553E-1	9.676322E-1	9.851266E-1	9.606613E-1	9.319775E-1	9.404227E-1	9.500268E-1	9.494906E-1	1.004266E+0	9.655128E-1	1.016012E+0	9.513115E-1	9.386443E-1	9.808162E-1	1.049383E+0	9.273178E-1	9.525724E-1	9.426291E-1	1.041240E+0	9.837295E-1	9.606030E-1	9.274637E-1	9.330458E-1	9.658944E-1	9.928709E-1	9.881362E-1	9.826911E-1	9.766115E-1	9.320453E-1	9.647546E-1	9.634700E-1	9.751663E-1	9.301941E-1	9.925815E-1	9.573976E-1
5.605040E+2	9.827902E-1	9.905421E-1	1.014199E+0	1.069686E+0	1.004859E+0	9.964726E-1	9.895125E-1	1.003184E+0	1.033676E+0	1.030804E+0	9.837262E-1	1.002198E+0	1.002567E+0	9.983104E-1	9.968258E-1	9.963378E-1	9.812162E-1	1.025847E+0	9.579803E-1	1.017660E+0	9.755843E-1	1.043937E+0	9.788080E-1	9.687752E-1	1.005078E+0	9.908283E-1	1.013770E+0	1.011809E+0	9.744624E-1	9.717987E-1	9.864121E-1	1.003957E+0	9.973550E-1	9.836117E-1	1.043041E+0	9.923797E-1	9.527778E-1	1.012194E+0	9.933264E-1	9.535046E-1	1.026088E+0	1.005053E+0	9.970528E-1	9.847447E-1	9.880711E-1	9.822680E-1	1.032815E+0	1.002414E+0	1.024427E+0	9.940508E-1	9.946651E-1	9.951738E-1	9.920271E-1	1.007276E+0	1.006393E+0	9.909604E-1	9.747064E-1	9.472222E-1	9.879931E-1	1.003161E+0	1.042490E+0	1.000879E+0	1.025840E+0	1.010276E+0	1.010855E+0	9.338133E-1	9.989466E-1	1.020009E+0	1.007331E+0	1.043904E+0	1.034183E+0	9.998214E-1	9.960361E-1	1.011044E+0	9.732877E-1	9.878903E-1	9.117818E-1	9.972601E-1	9.664196E-1	9.687034E-1	9.989165E-1	9.457792E-1	1.014623E+0	9.571447E-1	9.758184E-1	9.831914E-1	9.937031E-1	1.019017E+0	1.037491E+0	1.002070E+0	1.009663E+0	1.031204E+0	9.770039E-1	9.710168E-1	1.002305E+0	9.918449E-1	9.962056E-1	9.701085E-1	1.035351E+0	9.937234E-1	9.598336E-1	9.877798E-1	9.634949E-1	9.799878E-1	1.037752E+0	1.003170E+0	9.713805E-1	9.975689E-1	1.042941E+0	1.042663E+0	9.834440E-1	9.850091E-1	1.055671E+0	1.012886E+0	1.001632E+0	1.027466E+0	9.883108E-1	1.026813E+0	1.025044E+0	9.867414E-1	1.045792E+0	1.010615E+0	1.009145E+0	9.925457E-1	1.025548E+0	1.014201E+0	9.218079E-1	9.888741E-1	1.016887E+0	9.939740E-1	1.068304E+0	9.832223E-1	9.753419E-1	1.007265E+0	9.735947E-1	1.002947E+0	1.025788E+0	9.820518E-1	1.016243E+0	1.005468E+0	1.021262E+0	1.029586E+0	9.716238E-1	9.867904E-1	1.004163E+0	1.007292E+0	9.502886E-1	1.029283E+0	1.005765E+0	1.015288E+0	9.733116E-1	1.034853E+0	9.623471E-1	1.013818E+0	1.017377E+0	9.774202E-1	1.022524E+0	9.684181E-1	1.031203E+0	9.841362E-1	1.040791E+0	9.600350E-1	9.803310E-1	1.013187E+0	9.985310E-1
5.610180E+2	9.683890E-1	9.396751E-1	9.751118E-1	9.761421E-1	9.502018E-1	9.596927E-1	1.005751E+0	9.513636E-1	9.298950E-1	9.917357E-1	9.588450E-1	9.233817E-1	9.237472E-1	9.543851E-1	9.703776E-1	9.366583E-1	9.232727E-1	9.771070E-1	9.341955E-1	9.685595E-1	9.640447E-1	9.231105E-1	9.526370E-1	9.536062E-1	9.470417E-1	9.087688E-1	9.438374E-1	9.442314E-1	9.407426E-1	1.018581E+0	9.316342E-1	8.912885E-1	9.025221E-1	9.546469E-1	9.510043E-1	9.702807E-1	9.899190E-1	9.569500E-1	9.498882E-1	9.602340E-1	9.397902E-1	9.713692E-1	9.731941E-1	9.453983E-1	9.602755E-1	9.278628E-1	9.589643E-1	9.484137E-1	9.482643E-1	9.643042E-1	9.467217E-1	9.598785E-1	9.452455E-1	9.209909E-1	9.346342E-1	9.781340E-1	9.933659E-1	9.557342E-1	9.736440E-1	9.449605E-1	9.227826E-1	9.745197E-1	9.789803E-1	9.566065E-1	9.589397E-1	9.245350E-1	1.015497E+0	9.614654E-1	9.767862E-1	9.855385E-1	9.812882E-1	9.722604E-1	1.032374E+0	9.978176E-1	9.382196E-1	9.210053E-1	9.663753E-1	9.639409E-1	9.444583E-1	9.184986E-1	9.603299E-1	9.559944E-1	9.603291E-1	9.232731E-1	9.481635E-1	1.029292E+0	1.002230E+0	9.543457E-1	9.710787E-1	9.261672E-1	9.649541E-1	9.407574E-1	9.770051E-1	9.278206E-1	1.027392E+0	9.973741E-1	1.016214E+0	9.785396E-1	9.740868E-1	1.004671E+0	9.830066E-1	9.761410E-1	9.504086E-1	9.945415E-1	9.749483E-1	9.109435E-1	9.558684E-1	9.268553E-1	9.665052E-1	9.633224E-1	9.275750E-1	9.895718E-1	9.801728E-1	9.363288E-1	9.333871E-1	9.826073E-1	9.600735E-1	9.451501E-1	9.838571E-1	9.490530E-1	9.620933E-1	1.003152E+0	9.538471E-1	9.509715E-1	1.009580E+0	9.360210E-1	9.923681E-1	1.001164E+0	9.811094E-1	9.746918E-1	9.696700E-1	9.854491E-1	1.002087E+0	8.934970E-1	9.563736E-1	9.488392E-1	9.981056E-1	9.455195E-1	9.286688E-1	9.900465E-1	1.028480E+0	9.254582E-1	9.908622E-1	9.701952E-1	9.381277E-1	9.335901E-1	9.662756E-1	9.500991E-1	9.998522E-1	9.409503E-1	9.552521E-1	9.467555E-1	9.923813E-1	9.642965E-1	9.661370E-1	9.667049E-1	9.892090E-1	9.229824E-1	9.694902E-1	9.805468E-1	9.918735E-1	9.529138E-1	9.636180E-1	9.225252E-1	1.039664E+0
