Photon Energy (eV)	#1	#2	#3	#4	#5	#6	#7	#8	#9	#10	#11	#12	#13	#14	#15	#16	#17	#18	#19	#20	#21	#22	#23	#24	#25	#26	#27	#28	#29	#30	#31	#32	#33	#34	#35	#36	#37	#38	#39	#40	#41	#42	#43	#44	#45	#46	#47	#48	#49	#50	#51	#52	#53	#54	#55	#56	#57	#58	#59	#60	#61	#62	#63	#64	#65	#66	#67	#68	#69	#70	#71	#72	#73	#74	#75	#76	#77	#78	#79	#80	#81	#82	#83	#84	#85	#86	#87	#88	#89	#90	#91	#92	#93	#94	#95	#96	#97	#98	#99	#100	#101	#102	#103	#104	#105	#106	#107	#108	#109	#110	#111	#112	#113	#114	#115	#116	#117	#118	#119	#120	#121	#122	#123	#124	#125	#126	#127	#128	#129	#130	#131	#132	#133	#134	#135	#136	#137	#138	#139	#140	#141	#142	#143	#144	#145	#146	#147	#148	#149	#150	#151	#152	#153	#154	#155	#156	#157	#158	#159	#160	#161	#162	#163	#164	#165	
5.300320E+2	-9.025223E-3	-7.111137E-3	1.839062E-5	4.163732E-3	-1.091532E-2	-3.671203E-3	-9.398013E-3	-8.615250E-3	4.731092E-4	-6.639622E-3	-2.453440E-3	-7.148851E-3	-1.147259E-2	-1.947077E-3	-7.547645E-3	-2.383922E-2	-2.531997E-3	-1.106037E-2	-2.909267E-4	-6.524337E-3	-1.118399E-2	-1.770588E-2	4.302590E-3	-5.092736E-3	-8.373982E-3	1.787433E-4	-3.837298E-3	-1.152444E-2	1.324889E-3	-1.200580E-2	-8.142605E-3	-1.646227E-2	-6.390967E-3	-8.648399E-3	-3.323950E-3	-8.626836E-3	-9.066591E-3	-1.013972E-2	-1.070125E-2	-1.124769E-2	-8.835425E-3	-1.017587E-2	4.412921E-3	1.513133E-3	-5.098733E-3	-4.283632E-3	-1.249718E-2	-1.084567E-3	-1.258500E-2	-1.118274E-2	-2.631684E-3	-8.925470E-3	-9.828189E-3	-1.922066E-3	1.444752E-4	3.963478E-3	-2.234206E-3	-4.603320E-3	-9.396298E-3	5.590383E-4	-4.150994E-3	-7.865555E-3	-1.169894E-2	-6.209990E-3	-1.141609E-2	-8.469812E-3	-8.712455E-3	-2.457352E-3	-1.177172E-2	-1.813509E-3	-1.268545E-2	-2.372724E-3	-1.445782E-2	-1.201733E-2	-1.108402E-2	-1.054930E-2	-1.099174E-2	-1.792923E-3	-4.613496E-3	-5.273789E-3	-4.270123E-3	-1.341670E-3	-7.244412E-3	-3.659720E-3	-1.412807E-4	-2.983932E-3	-5.605588E-3	-4.755159E-3	-7.982686E-3	-4.092326E-3	-1.042941E-2	-4.815335E-3	-4.043005E-3	-9.587115E-3	-4.406984E-3	-1.300352E-2	-3.364142E-3	-8.742609E-3	-1.387975E-2	-6.168619E-3	-9.167766E-3	-8.774591E-3	-5.358342E-3	-2.271675E-3	-7.886864E-3	-1.456621E-2	-4.861139E-3	-8.740613E-3	-1.346859E-2	-6.462500E-3	-7.046382E-3	-7.243254E-3	-8.112780E-3	-8.241917E-4	-2.147862E-3	-4.883002E-3	-3.762844E-3	-6.445943E-3	-1.624217E-2	-1.139449E-2	-6.861298E-3	-3.915931E-3	-3.496815E-3	-8.054496E-3	-1.819469E-2	-4.688703E-3	-5.287162E-3	-7.973277E-3	1.890383E-3	-4.507309E-3	-4.017643E-3	-1.568707E-2	-1.215241E-2	-6.930040E-3	-9.059540E-3	-1.216885E-2	-1.437348E-2	-1.597447E-2	-3.451590E-3	-1.097930E-2	-4.781747E-3	-1.446282E-2	-3.075869E-3	-9.556865E-3	-4.295018E-3	-8.994492E-3	-1.863763E-2	-7.702132E-3	-8.133592E-3	-2.144332E-2	-3.308305E-3	-8.515449E-3	-6.094206E-3	-8.849477E-3	3.004911E-3	3.520206E-3	-5.748296E-3	-8.853143E-3	7.947101E-4	-9.955765E-3	-7.830209E-3	-4.881422E-3	-8.484929E-3	-1.142727E-2	5.201596E-3
5.305030E+2	-9.736070E-3	-8.827997E-3	-2.235158E-2	-2.010865E-2	2.655700E-3	-2.818207E-3	-8.596873E-3	-6.777731E-3	-5.378573E-3	-1.786697E-2	-9.619165E-3	-1.067140E-2	3.644575E-3	-7.074128E-3	-5.158394E-3	2.363407E-3	-1.025729E-2	-4.965131E-3	-1.306286E-2	-4.117933E-3	-8.562451E-3	-8.151777E-3	-1.451067E-2	-6.958695E-3	-2.072685E-2	-3.679725E-3	-1.987189E-4	-1.642225E-2	-5.487693E-3	-4.408938E-3	3.304556E-3	-1.037794E-2	-3.615335E-3	-1.645948E-2	-4.529248E-3	-1.085721E-2	3.729473E-3	-5.327666E-3	-1.571142E-2	-5.235990E-4	-7.235136E-3	-9.362190E-3	-7.182262E-3	-8.969773E-3	-9.323509E-3	-1.075945E-2	-4.952130E-3	6.450105E-3	-5.283037E-3	-1.995559E-3	-8.758957E-3	-2.217061E-3	-1.216393E-3	-5.979920E-3	-1.497965E-2	-1.201065E-2	-5.197723E-3	-7.394855E-3	-1.073841E-2	-6.308045E-3	-9.877160E-3	-3.754723E-3	-8.130327E-3	-1.102406E-2	-9.921276E-3	-1.268199E-2	-9.328804E-3	-4.017296E-3	-9.787660E-3	-1.161901E-2	-8.010468E-3	-7.480570E-3	-6.624831E-3	-7.014752E-3	-6.495549E-3	2.805282E-3	-3.212674E-3	-7.237111E-3	1.126989E-3	-5.871338E-3	-1.146756E-2	-1.990293E-3	-1.248060E-2	-3.573187E-3	-1.131958E-2	-1.434097E-2	-1.080615E-2	-1.683245E-2	-1.091606E-2	-2.055612E-2	-4.502309E-3	-8.900496E-5	-7.836411E-3	-7.079663E-3	-9.161817E-3	-1.364150E-2	-7.693304E-3	2.333161E-3	-1.941189E-3	-1.158860E-2	-5.641871E-3	-5.510314E-3	-5.878695E-3	-4.131092E-3	-1.469898E-2	-1.232680E-2	-5.460403E-3	-6.300919E-3	-1.464984E-2	-6.987343E-3	-3.490478E-3	-5.030410E-3	-4.434371E-3	-9.733461E-3	-1.459382E-2	-6.476680E-3	-1.595238E-2	-9.024099E-3	-6.900202E-3	-8.525145E-3	-1.176981E-2	-3.013109E-3	4.925218E-3	-9.484682E-3	-3.234440E-3	-8.649913E-4	-1.031288E-2	-5.856979E-3	-1.936225E-2	-6.572501E-3	-4.617525E-3	-1.169338E-2	-7.439994E-3	-1.469923E-2	-1.030356E-2	-8.929857E-3	-8.006702E-3	-1.671191E-2	-9.857197E-4	-7.137166E-3	-6.646764E-3	-5.505258E-3	-4.214549E-3	-5.797324E-3	-8.057027E-3	2.420186E-3	6.364719E-4	5.167671E-4	-4.526144E-3	-3.948918E-3	-7.578566E-3	-9.008974E-3	-2.025490E-3	1.609529E-3	-5.889589E-3	-8.167152E-3	-4.987964E-3	-6.768109E-3	-1.015017E-2	-4.754476E-4	-4.696451E-3	2.901076E-4	-5.116700E-3	-1.536837E-2	-6.591966E-4
5.310100E+2	-6.525019E-3	-1.637680E-3	-8.058844E-3	-7.045056E-3	-2.016623E-2	-1.264930E-2	-1.136935E-2	-2.293395E-3	7.448971E-4	-5.069247E-3	-3.543124E-3	-2.690366E-3	-5.388928E-3	-5.249356E-3	-8.517722E-3	-9.674690E-3	-5.158129E-3	-4.102230E-3	4.041497E-3	-9.004879E-4	4.029931E-5	-6.860944E-3	-9.371952E-3	-2.321041E-3	-8.923952E-3	-1.037382E-2	-1.568573E-2	1.433936E-5	-7.757390E-3	-3.134063E-3	-1.370023E-2	-6.212289E-3	-1.231241E-2	1.865807E-4	-1.155663E-2	-1.006522E-2	-8.914461E-3	-6.599803E-3	-4.130891E-3	1.452664E-3	-1.094243E-2	2.512272E-3	-1.201148E-2	-4.241171E-4	-4.296442E-3	-4.676658E-3	-1.171898E-2	-1.037459E-2	-5.195414E-3	-9.728252E-3	2.985913E-3	-2.130515E-3	-1.322915E-2	-4.112770E-3	-7.613691E-3	-8.579070E-3	-8.954242E-3	-6.601490E-3	-4.219301E-3	-3.114890E-3	-5.900668E-3	-3.087690E-3	-7.462845E-3	4.484195E-3	-1.478388E-2	-6.156295E-3	3.964554E-3	-1.302437E-2	-2.041892E-3	-1.625614E-3	-2.007658E-3	6.957177E-3	-6.548555E-3	-1.023296E-2	-2.040487E-3	-3.754168E-3	-3.827003E-3	-5.070608E-3	-8.828431E-3	-1.125754E-2	-4.090885E-3	-4.122034E-3	9.256049E-4	-8.363593E-3	-1.323235E-2	-7.090086E-3	1.867019E-3	-7.959112E-3	-1.159095E-2	-6.924804E-3	-4.414470E-3	-8.523811E-3	-7.096080E-3	-7.598162E-3	-7.855368E-3	3.536886E-3	-1.277146E-2	-8.571463E-3	-9.525619E-3	-3.618189E-3	-1.036712E-2	-9.236520E-3	-5.783203E-3	-4.683182E-3	-1.154762E-2	-9.350326E-3	-6.056341E-3	-1.172225E-2	-6.134870E-4	-6.686619E-4	-1.085407E-2	-1.559792E-2	-5.788652E-3	-1.241859E-2	-6.565938E-3	-5.534292E-3	-6.292558E-3	-9.596258E-3	-1.276047E-2	-5.629725E-3	-8.109034E-3	-1.511088E-2	-1.899134E-3	-3.379546E-4	-1.155365E-2	-5.104210E-3	-7.652072E-3	-7.795356E-3	-1.001626E-2	1.421469E-3	-1.217036E-2	-9.246276E-3	-7.335855E-3	7.543465E-3	-5.550885E-3	-5.663185E-3	-6.331581E-3	-3.707901E-3	-1.145427E-2	-9.932359E-3	-7.203944E-3	-6.025718E-3	-4.690781E-3	-7.009706E-3	-6.396377E-3	-3.831073E-3	-5.389146E-3	-1.040173E-2	-2.192916E-4	-1.039465E-3	-1.017157E-3	-7.525479E-3	-1.549705E-2	-1.025452E-2	-8.618313E-3	-7.185910E-3	-2.871706E-3	6.366411E-4	-4.950288E-3	-1.455057E-3	2.294005E-3	-3.558848E-3	2.274533E-3	-4.756721E-3	-6.512488E-3
5.315130E+2	-6.416259E-3	-1.922787E-2	1.037058E-3	-1.227461E-2	-2.609797E-3	-1.865907E-3	1.110978E-2	-2.871905E-3	-7.335758E-3	2.804389E-3	-8.727392E-3	-1.853527E-3	-7.877401E-3	-2.208005E-3	2.077963E-3	-5.102492E-3	-1.429191E-2	-1.933722E-3	-6.007882E-3	2.345519E-3	-9.578260E-3	3.876857E-4	-8.608272E-3	-1.275482E-2	-7.699539E-4	-1.364709E-2	-7.032381E-3	-5.289266E-4	-7.688131E-3	-3.587291E-3	-9.503333E-4	-4.751827E-3	-6.989675E-4	-4.266472E-4	-5.662003E-3	-4.601246E-3	-1.142744E-2	-5.159513E-3	-4.687107E-3	-9.756350E-3	-1.010678E-2	-4.033693E-3	7.497968E-3	-9.530936E-3	-1.410616E-2	-2.175935E-3	2.237298E-4	-6.909784E-3	-4.383519E-3	6.003749E-3	-7.129069E-3	-8.780959E-3	3.227621E-3	-8.191036E-3	-4.205428E-3	-1.766809E-3	2.599766E-3	-3.703289E-3	-7.713911E-3	-6.900351E-3	-1.250301E-3	-6.459485E-3	-3.725862E-4	-7.359352E-3	-6.920512E-3	3.312690E-3	-2.908093E-3	-6.328628E-3	-1.954126E-3	-4.180797E-3	-1.911264E-3	-4.686494E-3	-3.871516E-3	8.815169E-3	5.406810E-3	-6.631455E-3	-3.034625E-3	4.062193E-3	1.967649E-3	-2.192683E-4	-6.193445E-3	-4.774090E-3	-9.755600E-4	-1.235950E-2	-6.494047E-3	1.624127E-3	5.957005E-3	1.520174E-2	3.653571E-3	-1.287700E-2	-5.058897E-3	3.984687E-3	-7.654942E-3	-2.038956E-4	1.369574E-3	-2.069400E-3	-1.604722E-3	-2.280739E-3	-4.532685E-3	7.539404E-3	1.453588E-3	-7.869550E-3	6.098101E-3	-5.894847E-3	-1.223159E-2	1.619147E-3	-1.106960E-3	-1.400890E-2	-6.845053E-3	-3.663383E-3	-9.261424E-4	-1.194621E-2	-1.357287E-3	3.661634E-3	-3.144180E-3	-5.436525E-3	-2.760471E-3	-4.143769E-3	-2.695550E-3	-6.923351E-3	-1.396917E-4	4.605615E-4	-4.573624E-3	-9.313641E-3	-6.256921E-3	-1.874570E-3	-1.122821E-3	-7.701394E-3	-6.325479E-4	-9.253896E-3	1.027072E-2	6.625985E-3	-2.579800E-3	-3.081100E-3	5.217239E-3	-1.113627E-3	-3.859863E-3	1.096001E-2	3.467467E-3	-2.595309E-3	1.838651E-4	-2.001755E-4	-2.208627E-3	-1.156545E-2	-3.150198E-3	-2.323134E-3	1.949626E-4	-8.653211E-4	-2.900673E-3	-4.405722E-3	-2.205570E-3	-9.504082E-3	-9.833246E-3	1.827173E-3	-1.496979E-3	4.216672E-5	-2.765651E-3	-1.118342E-2	-1.863633E-3	-1.343540E-3	-4.440081E-3	-1.461297E-2	-1.088008E-2	-1.912364E-2	-1.842336E-2
5.320170E+2	7.200443E-4	1.540711E-2	4.119696E-3	-6.556808E-4	4.632780E-3	5.118002E-3	-7.536131E-3	-7.153657E-3	-1.398333E-2	8.569477E-3	-3.327892E-3	-2.475218E-3	2.077447E-3	-2.694649E-3	1.010216E-3	2.701862E-3	1.153897E-4	-4.555327E-3	-1.000876E-2	-1.486441E-3	-2.961421E-3	-7.217559E-4	1.646862E-3	-8.123252E-4	8.136253E-3	3.364589E-3	-5.512709E-3	4.577758E-3	-2.961052E-3	1.190389E-3	-2.773507E-3	8.194333E-3	1.028522E-2	-1.768343E-3	-3.955311E-4	-5.317372E-4	9.077590E-5	-9.966092E-4	8.325477E-3	-7.745915E-3	-1.675804E-3	-2.444987E-4	-8.405345E-3	-4.480341E-3	-1.619747E-3	2.148135E-3	-1.552815E-3	-4.780681E-3	-6.589297E-4	-1.280987E-2	-7.069438E-3	-1.204209E-3	4.744917E-3	-3.925778E-3	-3.442816E-3	-4.361774E-3	-3.582837E-4	-3.596586E-3	-4.399894E-4	-2.917681E-3	-1.776585E-3	-1.741772E-3	2.073451E-3	-2.342344E-3	1.019374E-2	-2.364006E-3	-2.820250E-3	1.696976E-2	3.912946E-3	-4.090627E-3	-4.455731E-3	-6.639201E-4	-1.151050E-3	-1.819009E-3	-4.114368E-3	1.311192E-4	1.043872E-2	6.262216E-3	2.076324E-3	-2.183970E-3	-9.765635E-3	5.118691E-4	2.468563E-3	-4.497265E-5	4.937757E-3	7.489975E-3	-1.188842E-2	3.093836E-3	-7.943099E-4	6.112369E-3	-2.763556E-3	-1.358667E-3	-4.952320E-3	-9.859127E-5	-3.401176E-3	7.326187E-3	2.192923E-3	-1.492993E-3	-1.628266E-3	-1.371305E-2	1.812686E-4	7.570805E-3	-2.478353E-3	4.021427E-3	1.096524E-2	-2.639112E-3	-1.696729E-3	1.610830E-2	-1.652584E-3	-6.055623E-3	1.513170E-3	2.427673E-3	1.631181E-3	-7.380086E-3	9.470845E-4	-1.119733E-3	1.313434E-2	-1.359123E-3	4.737036E-3	2.284587E-3	-1.465713E-3	6.275001E-3	-1.285388E-2	2.131089E-3	6.217089E-3	4.484811E-3	-2.949068E-3	1.216879E-2	1.847418E-4	1.912862E-4	-1.494087E-3	4.357022E-3	1.683260E-2	1.313981E-3	-6.687409E-3	1.535093E-3	7.316504E-3	-3.518022E-3	7.361585E-4	-4.676926E-3	4.271313E-3	5.484792E-4	6.795853E-3	5.187155E-3	4.837395E-3	-2.948669E-3	1.671280E-3	-1.574007E-3	4.215535E-3	5.938806E-4	-1.463587E-3	7.931930E-3	7.852559E-3	-4.818399E-4	7.140937E-4	-3.843128E-3	-8.685344E-3	4.847977E-3	-1.131516E-3	-8.497126E-3	-5.402192E-4	-1.324989E-3	1.136583E-2	1.610567E-2	-3.334570E-3
5.325120E+2	1.582605E-2	1.020571E-2	1.102102E-2	1.789671E-2	1.269247E-2	4.435720E-3	2.664405E-3	1.343425E-2	1.380475E-2	3.719201E-3	7.433547E-3	1.128667E-2	1.140346E-2	1.554407E-3	9.880871E-3	1.054425E-2	1.166158E-2	4.385013E-3	-1.055790E-3	2.564697E-3	1.409515E-2	1.823959E-3	3.660874E-3	8.631363E-3	1.121130E-2	1.646224E-2	9.617528E-3	7.592149E-3	5.401700E-3	1.177086E-2	7.583344E-3	1.030846E-2	3.601465E-3	4.094037E-3	1.268078E-2	1.454151E-2	1.051596E-2	2.085750E-2	4.636704E-3	1.005473E-2	1.286326E-2	3.547426E-3	-1.966662E-3	-4.392258E-3	7.206932E-3	-3.170687E-3	1.741062E-2	1.462058E-3	1.108030E-2	7.582698E-3	5.729664E-3	9.044731E-3	1.272119E-3	6.920927E-3	9.977340E-3	1.130248E-2	5.871467E-3	4.532744E-3	8.277306E-3	5.765754E-3	6.833585E-3	5.304125E-3	1.589389E-3	1.185697E-2	1.101894E-2	5.084920E-3	9.854031E-3	6.285814E-3	2.077311E-3	1.327384E-2	1.547021E-2	5.336328E-3	1.282239E-2	9.017607E-3	2.041313E-3	5.546704E-3	-4.970011E-3	-6.193327E-3	-9.808619E-4	1.028100E-2	1.599369E-2	6.553145E-3	7.925198E-3	4.944792E-3	9.718438E-3	7.596062E-3	4.178863E-3	3.187185E-3	4.618843E-3	1.227968E-2	1.058012E-2	4.961447E-3	8.860366E-3	8.555014E-3	9.524622E-3	1.699238E-3	8.222009E-3	3.434775E-3	1.322556E-2	-6.511932E-3	7.900405E-3	5.114740E-3	3.839040E-3	-1.125721E-3	1.879536E-2	1.929655E-2	8.140415E-3	1.178322E-3	1.694645E-2	7.787479E-3	9.171961E-3	1.826969E-2	4.619349E-3	1.573245E-2	2.101868E-2	6.584036E-3	1.564130E-3	6.134737E-3	1.018361E-2	7.299000E-3	1.375886E-2	3.911139E-3	1.309120E-2	1.458887E-3	1.481105E-2	8.326078E-4	7.463339E-3	5.446791E-3	5.295446E-3	-2.609701E-3	8.414206E-3	2.069210E-3	1.028647E-2	4.996681E-3	8.779457E-3	1.757878E-2	9.789829E-3	1.685382E-2	-3.432859E-3	5.585678E-3	1.042652E-3	1.020678E-2	3.939169E-3	1.263749E-2	1.125638E-2	6.784473E-4	4.513603E-3	7.195403E-3	-6.009390E-4	1.190056E-2	2.524639E-3	8.727924E-3	7.931755E-3	2.805226E-3	7.986215E-4	5.776504E-3	4.770834E-3	1.226760E-2	4.376440E-3	9.719489E-3	9.464382E-3	1.504589E-2	-7.427410E-4	2.241032E-2	-6.271103E-3
5.330230E+2	1.515648E-2	1.119187E-2	1.421426E-2	1.802356E-2	1.371040E-2	1.145090E-2	2.312618E-2	1.427769E-2	1.167490E-2	1.448277E-2	2.023747E-2	1.355269E-2	7.613432E-3	1.761881E-2	8.254711E-3	2.300689E-2	2.046237E-2	2.223177E-2	2.638472E-2	8.118983E-3	1.815067E-2	3.122871E-2	2.288057E-2	1.930826E-2	1.944719E-2	7.695054E-3	2.264931E-2	1.629137E-2	1.716768E-2	1.017484E-2	1.467877E-2	1.930153E-2	9.130993E-3	2.302225E-2	1.278658E-2	2.014074E-2	1.507228E-2	7.365812E-3	2.226848E-2	1.776616E-2	2.593232E-2	1.775655E-2	1.765486E-2	2.628429E-2	2.723766E-2	2.291823E-2	1.308675E-2	1.523746E-2	1.702559E-2	2.212997E-2	1.687357E-2	1.421348E-2	1.502907E-2	1.721064E-2	2.011977E-2	1.145235E-2	8.273221E-3	2.136680E-2	2.423060E-2	1.291617E-2	1.612212E-2	1.760510E-2	2.400186E-2	1.059458E-2	2.182907E-2	2.127449E-2	9.951016E-3	2.572070E-3	1.956514E-2	1.005572E-2	1.360036E-2	2.910203E-3	1.983138E-2	1.325128E-2	1.628630E-2	1.245182E-2	1.559733E-2	9.969561E-3	9.251827E-3	1.452491E-2	1.979396E-2	5.163074E-3	9.381202E-3	2.305618E-2	1.653106E-2	7.704822E-3	1.629727E-2	8.063957E-3	2.301159E-2	2.605821E-2	1.658852E-2	5.840684E-3	2.272239E-2	1.601241E-2	1.393115E-2	1.615210E-2	1.501869E-2	1.531987E-2	1.828195E-2	3.406099E-2	1.564149E-2	1.870543E-2	9.561452E-3	1.408509E-2	1.660445E-2	1.796674E-2	1.104116E-2	2.348606E-2	2.028311E-2	1.605003E-2	1.163194E-2	1.912042E-2	1.344256E-2	1.096224E-2	4.486039E-3	1.686620E-2	1.406979E-2	2.443445E-2	2.367774E-2	2.288912E-2	1.458669E-2	1.139322E-2	4.807035E-3	2.360080E-2	1.821155E-2	7.215056E-3	1.986066E-2	1.171142E-2	2.264048E-2	2.133065E-2	3.614688E-3	2.357451E-2	2.388990E-3	1.085625E-2	1.760470E-2	8.761645E-3	1.546530E-2	1.209848E-2	1.512082E-2	2.973538E-2	1.313463E-2	1.543871E-2	3.454804E-3	1.610470E-2	5.804846E-3	1.499873E-2	1.701045E-2	1.283102E-2	1.216511E-2	1.834299E-2	1.304855E-2	1.789413E-2	1.766568E-2	1.334391E-2	1.148725E-2	9.857313E-3	2.028813E-2	9.052454E-3	1.292446E-2	1.200745E-2	5.748572E-3	9.042229E-3	1.158408E-2	1.216001E-2	2.999913E-2
5.331580E+2	1.148605E-2	1.143584E-2	2.347843E-2	2.004322E-3	2.346809E-2	1.249298E-2	1.019782E-2	1.810286E-2	2.835394E-2	8.965814E-3	1.634057E-2	1.591305E-2	1.831128E-2	2.430139E-2	1.129192E-2	1.537784E-2	1.847920E-2	2.652777E-2	6.022280E-3	2.417610E-2	1.700451E-2	1.352217E-2	8.395219E-3	1.887580E-2	9.922402E-3	9.893021E-3	1.917572E-2	1.721769E-2	2.615093E-2	9.130965E-3	2.951691E-2	2.147608E-2	2.288168E-2	2.821979E-2	2.332693E-2	3.675050E-2	2.024726E-2	1.633616E-2	2.030511E-2	3.246809E-2	3.215899E-2	1.267766E-2	1.911142E-2	3.141038E-2	3.298526E-2	3.033005E-2	2.012620E-2	1.467178E-2	1.058787E-2	1.234605E-2	9.055710E-3	2.522991E-2	2.438593E-2	1.674109E-2	6.199879E-3	1.902810E-2	1.452421E-2	1.348348E-2	1.356074E-2	1.852922E-2	5.745476E-3	1.831931E-2	1.590995E-2	1.850818E-2	2.196766E-2	2.205087E-2	1.426906E-2	1.184336E-2	2.614459E-2	1.884690E-2	1.837342E-2	1.160280E-2	2.343804E-2	2.416734E-2	9.662738E-3	2.306519E-2	2.563824E-2	1.358973E-2	2.016170E-2	2.641122E-2	2.583056E-2	2.019887E-2	1.554765E-2	3.167759E-2	2.269904E-2	1.505393E-2	1.976892E-2	1.851717E-2	2.008949E-2	4.064492E-2	1.671082E-2	2.240786E-2	1.893480E-2	1.553527E-2	1.222587E-2	2.060060E-2	2.481978E-2	1.614081E-2	1.982867E-2	8.796781E-3	2.411948E-2	2.720744E-2	1.218809E-2	1.357605E-2	2.138583E-2	2.321311E-2	2.513869E-2	6.157068E-3	8.273113E-3	1.683108E-2	2.344312E-2	3.722895E-2	2.594683E-2	2.299901E-2	2.065362E-2	2.040710E-2	1.559672E-2	1.582217E-2	2.451804E-2	2.798678E-2	2.842619E-2	1.972754E-2	1.406112E-2	1.003577E-2	3.016192E-2	1.301271E-2	2.067069E-2	1.322103E-2	2.639778E-2	1.423514E-2	1.921987E-2	1.180343E-2	2.996326E-2	2.469096E-2	2.312777E-2	1.785924E-2	2.435661E-2	3.015518E-2	1.810587E-2	2.041570E-2	2.128652E-2	1.047340E-2	1.014830E-2	2.765258E-2	3.691033E-2	3.296077E-2	2.543821E-2	9.773342E-3	2.147161E-2	7.955738E-3	2.102136E-2	2.990681E-2	3.389244E-2	2.393679E-2	1.020736E-2	2.595276E-2	2.178859E-2	1.520130E-2	1.911667E-2	2.379798E-2	8.162881E-3	2.857976E-2	6.146002E-3	2.891596E-2	3.620849E-2
5.333130E+2	1.973281E-2	1.880449E-2	3.274059E-2	2.310746E-2	4.994242E-3	2.349696E-2	1.178450E-2	2.710294E-2	1.873007E-2	1.908895E-2	2.182886E-2	3.440053E-2	1.579017E-2	2.265564E-2	2.496974E-2	3.056992E-2	1.521995E-2	2.125442E-2	1.924066E-2	2.374597E-2	3.382366E-2	1.842771E-2	2.070166E-2	1.885862E-2	2.036451E-2	1.001322E-2	2.002625E-2	2.358275E-2	3.221440E-2	2.392842E-2	1.687121E-2	3.831165E-2	2.237870E-2	1.820913E-2	1.695275E-2	3.178117E-2	2.618172E-2	1.851669E-2	1.331174E-2	3.512457E-2	3.007671E-2	2.620838E-2	2.695850E-2	3.365472E-2	1.501451E-2	2.200501E-2	2.153262E-2	1.068504E-2	3.041375E-2	2.364727E-2	2.885972E-2	6.047232E-3	1.586712E-2	2.888636E-2	1.970950E-2	2.731472E-2	4.468241E-2	3.395441E-2	9.352834E-3	1.788543E-2	1.635039E-2	3.536355E-2	2.429293E-2	1.580235E-2	1.639097E-2	3.604112E-2	2.000121E-2	2.954457E-2	2.175459E-2	1.429636E-2	2.914168E-2	3.221089E-2	2.095851E-2	2.929797E-2	2.242637E-2	2.237509E-2	3.358394E-2	2.283449E-2	3.238443E-2	2.932468E-2	1.564477E-2	2.256754E-2	1.567319E-2	1.288673E-2	2.620984E-2	1.446546E-2	3.331288E-2	1.934259E-2	2.634767E-2	2.482360E-2	1.535395E-2	2.018590E-2	2.302466E-2	2.426909E-2	2.341669E-2	3.011994E-2	3.690648E-2	1.557128E-2	4.118411E-2	1.458195E-2	2.845599E-2	2.800861E-2	3.110200E-2	2.035370E-2	2.306940E-2	2.554518E-2	2.318474E-2	2.858480E-2	2.443771E-2	1.005202E-2	2.478168E-2	1.581853E-2	2.025757E-2	2.595117E-2	1.611692E-2	1.032747E-2	3.026494E-2	3.151845E-2	2.400810E-2	4.156695E-2	1.485180E-2	2.150204E-2	2.122703E-2	2.464760E-2	4.083429E-2	1.629978E-2	2.471711E-2	2.640835E-2	2.366830E-2	1.799279E-2	1.937314E-2	3.023039E-2	2.208166E-2	4.073379E-2	2.799108E-2	3.468525E-2	3.248113E-2	2.051222E-2	2.251823E-2	2.494660E-2	3.213783E-2	2.536744E-2	3.599326E-2	1.304366E-2	3.706851E-2	2.239700E-2	1.453373E-2	3.929383E-2	2.161854E-2	2.992367E-2	3.162925E-2	2.657020E-2	3.485519E-2	3.456587E-2	1.883874E-2	3.649226E-2	2.470062E-2	3.139734E-2	4.951643E-2	3.050312E-2	2.524446E-2	4.508579E-2	3.528717E-2	2.071731E-2	6.114660E-3
5.334580E+2	2.001030E-2	2.239586E-2	3.222445E-2	2.964519E-2	2.660130E-2	3.308261E-2	3.668929E-2	2.207300E-2	1.882587E-2	3.289894E-2	2.731329E-2	3.007654E-2	3.451100E-2	3.527942E-2	2.630516E-2	3.205474E-2	2.341349E-2	3.171051E-2	4.689045E-2	2.360011E-2	3.603732E-2	3.653892E-2	2.982687E-2	1.951598E-2	2.644856E-2	3.954503E-2	4.108544E-2	3.606424E-2	4.367001E-2	1.879252E-2	3.686557E-2	3.113341E-2	1.919946E-2	2.856742E-2	3.217837E-2	3.033001E-2	2.061423E-2	2.825070E-2	2.969698E-2	2.872100E-2	1.806748E-2	3.308273E-2	2.848744E-2	3.150313E-2	2.334882E-2	2.885312E-2	2.798134E-2	4.111765E-2	3.076430E-2	3.307814E-2	3.369879E-2	2.751955E-2	2.273518E-2	2.725807E-2	2.798330E-2	3.538331E-2	3.565042E-2	3.402198E-2	1.816444E-2	1.475483E-2	4.210459E-2	2.268207E-2	2.976478E-2	2.943088E-2	2.725619E-2	2.582937E-2	4.901023E-2	3.705237E-2	2.966464E-2	3.451956E-2	1.996991E-2	2.045757E-2	4.468926E-2	3.528216E-2	2.840709E-2	2.535138E-2	3.873429E-2	2.367719E-2	4.019418E-2	3.017098E-2	2.982754E-2	3.620272E-2	4.416496E-2	4.670229E-2	3.850444E-2	2.476764E-2	3.817680E-2	3.529244E-2	2.957331E-2	3.031951E-2	3.772322E-2	3.210089E-2	2.977045E-2	2.689079E-2	2.665404E-2	2.017389E-2	2.812104E-2	2.546845E-2	3.996264E-2	2.271805E-2	2.164880E-2	3.076636E-2	3.253507E-2	4.632762E-2	2.323181E-2	2.349925E-2	5.488827E-2	3.752259E-2	2.525471E-2	2.657575E-2	2.437600E-2	1.236288E-2	4.014753E-2	1.767457E-2	3.507305E-2	2.665826E-2	1.659008E-2	3.238060E-2	3.427262E-2	3.469148E-2	3.095053E-2	1.671286E-2	1.433684E-2	3.015378E-2	3.643655E-2	2.340236E-2	2.879725E-2	3.483856E-2	2.889748E-2	3.340356E-2	2.165906E-2	3.518798E-2	3.839027E-2	3.657688E-2	2.817218E-2	3.229957E-2	3.665748E-2	2.719533E-2	3.769646E-2	3.536560E-2	2.561497E-2	2.893510E-2	4.456527E-2	2.867588E-2	4.123325E-2	3.045759E-2	3.408051E-2	3.468924E-2	4.302733E-2	3.929513E-2	2.918590E-2	2.464226E-2	4.714878E-2	3.878523E-2	3.959616E-2	3.666672E-2	3.841166E-2	3.628164E-2	3.521104E-2	3.141512E-2	3.083167E-2	2.889186E-2	2.205396E-2	3.338695E-2	1.838965E-2
5.336080E+2	1.995716E-2	3.852809E-2	4.819538E-2	3.650142E-2	3.294179E-2	2.056438E-2	3.097549E-2	4.284958E-2	3.856849E-2	3.713858E-2	3.083121E-2	2.867222E-2	5.724138E-2	4.609076E-2	3.590913E-2	3.290113E-2	3.806083E-2	2.561370E-2	4.359776E-2	4.668551E-2	4.013630E-2	4.282716E-2	6.149065E-2	3.763182E-2	3.710340E-2	3.617515E-2	4.198316E-2	2.980415E-2	3.605394E-2	3.781873E-2	4.672677E-2	4.238931E-2	3.398960E-2	3.966617E-2	4.414993E-2	2.287387E-2	4.221786E-2	3.733864E-2	3.909057E-2	3.747162E-2	2.820692E-2	3.847866E-2	4.287577E-2	2.495784E-2	3.426748E-2	3.819515E-2	3.007083E-2	4.048181E-2	4.457189E-2	4.652877E-2	4.671308E-2	3.129595E-2	4.932606E-2	4.677950E-2	4.235328E-2	3.744962E-2	2.738197E-2	5.262271E-2	3.722528E-2	4.509786E-2	3.064688E-2	4.744396E-2	3.884074E-2	3.628468E-2	3.292454E-2	2.677796E-2	4.153893E-2	2.629552E-2	3.934418E-2	3.741469E-2	4.690969E-2	4.309858E-2	3.642415E-2	3.880715E-2	3.772197E-2	2.475253E-2	5.529854E-2	4.214029E-2	4.167546E-2	4.282388E-2	3.591148E-2	4.763077E-2	3.217905E-2	3.613250E-2	3.530932E-2	2.782836E-2	5.180405E-2	2.994107E-2	4.278272E-2	5.035357E-2	3.938028E-2	4.954581E-2	3.259077E-2	4.186592E-2	3.915938E-2	3.332640E-2	3.725976E-2	4.027021E-2	3.516972E-2	3.246196E-2	4.487972E-2	4.646051E-2	5.029410E-2	5.181467E-2	4.595479E-2	3.759909E-2	4.102816E-2	3.688262E-2	3.444381E-2	2.987814E-2	4.681647E-2	3.052545E-2	4.543160E-2	3.539792E-2	3.052211E-2	4.214766E-2	4.380527E-2	3.456773E-2	4.520883E-2	4.051097E-2	3.039582E-2	4.073925E-2	3.421578E-2	3.487614E-2	4.055285E-2	3.365949E-2	3.024114E-2	6.326880E-2	4.205463E-2	3.644684E-2	2.179306E-2	4.410484E-2	4.461156E-2	4.614856E-2	3.101775E-2	4.468966E-2	2.478422E-2	5.924633E-2	4.928962E-2	4.872328E-2	3.513953E-2	3.424089E-2	4.114961E-2	4.364904E-2	4.056644E-2	4.780140E-2	3.215434E-2	4.996728E-2	3.114046E-2	2.389983E-2	3.786918E-2	3.880189E-2	4.971580E-2	5.104727E-2	2.978475E-2	3.919672E-2	2.502602E-2	3.844228E-2	3.597784E-2	2.348735E-2	3.481153E-2	3.413418E-2	5.131348E-2	2.723492E-2	4.282759E-2
5.337630E+2	4.267065E-2	4.584618E-2	5.888529E-2	4.052654E-2	4.310930E-2	4.080670E-2	5.227429E-2	5.113382E-2	4.928492E-2	4.588476E-2	5.650615E-2	5.621778E-2	6.203638E-2	4.799225E-2	5.029177E-2	5.164558E-2	5.488749E-2	4.228116E-2	6.170664E-2	6.200903E-2	5.022991E-2	4.056220E-2	5.127049E-2	6.284785E-2	5.444433E-2	4.943790E-2	4.722278E-2	4.467578E-2	6.348898E-2	5.683817E-2	5.269337E-2	5.607808E-2	5.977780E-2	7.127461E-2	5.484603E-2	5.074166E-2	5.153464E-2	5.058168E-2	4.394658E-2	5.360898E-2	4.376960E-2	5.662331E-2	6.223242E-2	5.287008E-2	6.531403E-2	4.449724E-2	4.487698E-2	5.041488E-2	4.630352E-2	5.136195E-2	5.744110E-2	5.187551E-2	5.825255E-2	5.787304E-2	4.794885E-2	5.527368E-2	3.535286E-2	5.291610E-2	4.757679E-2	4.290570E-2	5.139822E-2	4.530726E-2	5.327365E-2	4.584881E-2	4.493252E-2	4.828134E-2	4.814019E-2	5.141607E-2	6.070554E-2	4.635690E-2	5.117134E-2	4.236204E-2	4.291839E-2	5.488351E-2	5.837493E-2	4.673482E-2	5.432076E-2	5.506401E-2	4.126404E-2	5.340352E-2	3.676988E-2	5.394817E-2	4.332173E-2	6.075140E-2	6.389723E-2	5.211233E-2	4.401888E-2	5.516585E-2	3.867999E-2	5.670926E-2	6.046469E-2	5.109293E-2	6.252968E-2	4.761621E-2	3.873822E-2	5.088419E-2	4.868271E-2	4.396402E-2	6.664153E-2	4.144024E-2	2.825840E-2	5.702392E-2	5.301996E-2	4.469980E-2	4.148092E-2	4.807864E-2	5.741096E-2	4.585721E-2	4.303510E-2	4.143733E-2	4.938401E-2	4.587552E-2	4.635393E-2	3.838769E-2	4.684851E-2	5.343730E-2	4.400543E-2	4.290398E-2	3.999691E-2	4.069375E-2	5.167663E-2	5.001102E-2	4.145657E-2	5.652235E-2	6.387030E-2	4.905203E-2	5.521666E-2	5.450146E-2	3.643774E-2	4.098294E-2	5.242633E-2	5.627863E-2	4.143323E-2	5.505139E-2	4.335618E-2	5.520973E-2	6.100244E-2	5.206351E-2	4.947308E-2	4.964241E-2	3.934593E-2	4.992951E-2	4.675737E-2	3.911006E-2	4.553495E-2	7.242118E-2	6.430721E-2	5.414163E-2	3.486613E-2	4.885028E-2	4.923865E-2	4.812263E-2	5.638124E-2	5.042100E-2	4.634116E-2	5.866853E-2	4.821928E-2	5.208127E-2	4.895201E-2	3.316890E-2	4.270034E-2	4.972105E-2	5.153142E-2	3.993867E-2	5.214431E-2
5.339090E+2	5.883464E-2	6.774134E-2	5.301396E-2	6.172538E-2	5.658274E-2	5.660660E-2	8.027902E-2	6.909223E-2	6.537939E-2	5.609893E-2	6.816014E-2	5.494357E-2	4.759871E-2	6.674828E-2	7.597427E-2	6.211131E-2	9.879234E-2	6.798451E-2	6.259394E-2	8.325246E-2	8.890281E-2	7.533457E-2	7.859651E-2	5.146573E-2	7.099905E-2	7.093991E-2	5.898220E-2	4.843441E-2	6.421125E-2	8.905957E-2	6.713598E-2	7.418642E-2	6.200704E-2	5.755084E-2	7.412482E-2	7.293250E-2	6.402535E-2	6.865292E-2	8.399318E-2	6.793009E-2	5.780223E-2	5.904335E-2	5.248656E-2	6.346863E-2	6.994185E-2	6.853381E-2	7.234455E-2	5.978636E-2	7.533745E-2	6.946344E-2	5.429713E-2	5.888018E-2	9.411770E-2	7.383608E-2	6.097036E-2	6.240560E-2	6.971299E-2	7.219283E-2	5.212019E-2	7.085158E-2	5.820109E-2	7.135247E-2	6.892802E-2	6.879454E-2	5.743246E-2	7.201242E-2	7.951916E-2	6.532681E-2	8.256263E-2	7.011154E-2	6.343241E-2	7.179833E-2	7.307615E-2	7.599835E-2	7.361375E-2	6.507827E-2	5.886691E-2	7.576361E-2	7.095624E-2	7.146645E-2	3.934906E-2	7.074833E-2	7.618446E-2	6.638483E-2	7.042157E-2	6.839618E-2	7.938050E-2	7.305780E-2	6.366943E-2	6.381211E-2	6.216509E-2	8.023117E-2	5.898711E-2	8.130128E-2	5.383421E-2	6.876772E-2	5.713209E-2	5.755280E-2	5.131942E-2	4.372443E-2	4.234009E-2	6.964235E-2	5.522503E-2	6.117259E-2	5.379423E-2	5.713717E-2	5.627036E-2	9.171931E-2	7.689724E-2	6.318475E-2	5.963544E-2	6.989636E-2	6.721947E-2	8.242254E-2	7.137959E-2	6.739664E-2	5.543905E-2	7.105089E-2	6.996091E-2	7.889868E-2	7.236149E-2	5.350267E-2	6.503549E-2	9.049662E-2	7.538514E-2	5.817146E-2	7.180994E-2	7.410552E-2	6.206326E-2	5.431993E-2	5.903605E-2	8.131754E-2	5.652041E-2	8.147509E-2	6.456527E-2	8.195727E-2	7.890565E-2	7.198779E-2	7.122833E-2	7.785178E-2	5.573083E-2	6.504791E-2	5.782818E-2	5.486964E-2	7.538984E-2	8.057033E-2	5.409485E-2	6.233863E-2	7.491873E-2	6.256231E-2	8.045331E-2	6.805643E-2	7.201751E-2	6.198940E-2	7.724719E-2	7.902505E-2	7.627914E-2	7.186755E-2	6.016327E-2	8.112055E-2	6.534917E-2	7.773518E-2	5.400564E-2	9.043872E-2	7.373586E-2
5.340640E+2	8.037818E-2	1.006173E-1	8.782821E-2	1.048954E-1	8.495940E-2	7.566759E-2	1.011072E-1	1.079444E-1	9.898230E-2	1.088498E-1	9.942104E-2	9.714632E-2	8.653760E-2	9.751110E-2	1.005762E-1	1.009968E-1	1.553471E-1	1.083255E-1	1.195875E-1	1.053935E-1	1.164513E-1	1.018095E-1	9.963865E-2	1.226309E-1	1.107804E-1	1.071257E-1	1.121973E-1	1.247184E-1	9.302837E-2	9.231317E-2	1.009943E-1	1.126679E-1	9.606470E-2	9.805501E-2	1.145688E-1	1.157473E-1	1.038134E-1	9.023921E-2	1.161756E-1	1.075363E-1	8.809924E-2	1.170672E-1	1.205461E-1	1.193727E-1	1.188044E-1	1.030709E-1	1.120332E-1	9.905903E-2	1.103870E-1	9.894053E-2	9.584002E-2	1.150108E-1	1.111475E-1	1.117292E-1	9.165479E-2	8.726587E-2	1.267616E-1	1.186913E-1	1.114018E-1	9.739166E-2	1.055439E-1	1.010325E-1	9.833291E-2	1.164295E-1	1.012250E-1	1.031908E-1	9.110805E-2	9.097499E-2	1.084428E-1	9.125128E-2	1.153915E-1	8.730723E-2	1.156919E-1	1.223559E-1	1.052997E-1	1.031690E-1	1.172175E-1	1.156591E-1	1.026806E-1	1.194120E-1	1.266736E-1	1.132709E-1	1.234408E-1	1.180754E-1	1.068749E-1	1.052282E-1	1.101075E-1	1.144575E-1	9.564305E-2	1.116737E-1	1.124387E-1	1.018662E-1	1.051247E-1	1.182096E-1	8.698073E-2	1.066422E-1	1.211403E-1	9.502170E-2	1.137136E-1	1.054689E-1	9.711670E-2	9.854891E-2	9.597054E-2	1.275144E-1	1.114511E-1	1.090830E-1	1.080941E-1	1.091061E-1	1.013597E-1	1.003084E-1	1.077212E-1	1.043622E-1	1.167429E-1	1.076915E-1	8.943968E-2	9.697352E-2	1.226581E-1	1.212950E-1	9.888675E-2	9.616750E-2	1.047206E-1	1.084678E-1	1.165081E-1	8.616089E-2	1.209091E-1	9.728242E-2	1.252621E-1	1.072688E-1	1.004758E-1	1.131968E-1	1.113358E-1	8.741328E-2	8.814759E-2	1.306839E-1	1.069832E-1	1.174317E-1	7.928883E-2	9.283897E-2	1.082425E-1	1.083103E-1	1.080391E-1	1.016844E-1	9.133936E-2	1.080292E-1	1.086353E-1	1.046824E-1	1.115752E-1	1.291367E-1	1.037623E-1	9.412526E-2	1.157792E-1	9.656426E-2	9.100789E-2	9.885731E-2	1.011541E-1	1.220986E-1	1.167668E-1	1.127289E-1	1.075443E-1	1.123731E-1	9.356178E-2	9.659467E-2	1.128955E-1	1.117500E-1	9.542745E-2
5.342090E+2	1.488569E-1	1.638695E-1	1.317465E-1	1.178853E-1	1.454554E-1	1.329720E-1	1.638377E-1	1.654603E-1	1.517231E-1	1.581307E-1	1.172783E-1	1.278555E-1	1.128813E-1	1.391330E-1	1.502859E-1	1.284281E-1	1.907843E-1	1.716099E-1	1.726279E-1	1.605181E-1	1.707027E-1	1.373194E-1	1.497784E-1	1.449247E-1	1.559479E-1	1.695547E-1	1.510475E-1	1.335586E-1	1.518664E-1	1.573585E-1	1.555476E-1	1.535047E-1	1.516720E-1	1.416646E-1	1.399611E-1	1.378785E-1	1.527526E-1	1.326590E-1	1.788407E-1	1.744316E-1	1.636607E-1	1.549813E-1	1.468776E-1	1.538496E-1	1.489566E-1	1.616886E-1	1.659309E-1	1.684211E-1	1.618130E-1	1.245297E-1	1.312433E-1	1.433808E-1	1.523673E-1	1.698767E-1	1.489295E-1	1.470553E-1	1.356481E-1	1.696664E-1	1.452716E-1	1.405991E-1	1.601818E-1	1.361511E-1	1.338357E-1	1.288044E-1	1.575632E-1	1.492785E-1	1.725187E-1	1.684050E-1	1.298270E-1	1.449437E-1	1.251303E-1	1.640727E-1	1.646639E-1	1.445042E-1	1.507281E-1	1.350797E-1	1.642858E-1	1.535727E-1	1.557885E-1	1.541773E-1	1.390458E-1	1.445975E-1	1.244536E-1	1.417747E-1	1.640224E-1	1.619853E-1	1.762380E-1	1.401746E-1	1.447987E-1	1.212100E-1	1.442021E-1	1.580056E-1	1.620820E-1	1.571256E-1	1.389397E-1	1.349701E-1	1.647715E-1	1.530323E-1	1.634416E-1	1.392487E-1	1.392467E-1	1.490882E-1	1.400312E-1	1.371469E-1	1.511357E-1	1.641806E-1	1.501857E-1	1.418479E-1	1.407012E-1	1.311845E-1	1.406042E-1	1.234993E-1	1.654713E-1	1.435234E-1	1.311432E-1	1.661773E-1	1.483941E-1	1.586225E-1	1.393181E-1	1.638992E-1	1.505885E-1	1.802109E-1	1.453186E-1	1.528556E-1	1.324443E-1	1.538475E-1	1.421753E-1	1.439976E-1	1.424715E-1	1.489616E-1	1.469363E-1	1.487689E-1	1.432443E-1	1.757902E-1	1.524588E-1	1.339914E-1	1.535828E-1	1.550515E-1	1.454724E-1	1.560252E-1	1.300685E-1	1.313059E-1	1.474214E-1	1.618574E-1	1.468221E-1	1.585466E-1	1.588131E-1	1.606318E-1	1.513208E-1	1.414850E-1	1.532353E-1	1.403062E-1	1.247637E-1	1.619538E-1	1.430896E-1	1.434508E-1	1.444433E-1	1.307069E-1	1.378155E-1	1.695531E-1	1.553184E-1	1.579246E-1	1.392274E-1	2.028720E-1	1.141410E-1
5.343600E+2	2.134527E-1	2.182926E-1	2.254760E-1	2.449157E-1	2.398635E-1	2.221312E-1	2.481759E-1	2.216951E-1	2.380493E-1	2.393707E-1	2.381204E-1	2.720130E-1	2.417888E-1	2.557734E-1	2.370684E-1	2.266631E-1	3.487442E-1	3.279888E-1	3.140162E-1	3.099068E-1	3.037961E-1	2.692548E-1	2.991235E-1	2.560399E-1	2.980151E-1	2.817293E-1	2.775657E-1	2.839109E-1	2.538458E-1	2.886694E-1	2.695431E-1	2.670705E-1	2.741690E-1	2.730234E-1	2.575108E-1	2.890571E-1	2.747887E-1	2.396724E-1	2.632827E-1	2.484462E-1	3.117571E-1	2.563652E-1	2.754329E-1	2.485965E-1	3.055716E-1	2.162699E-1	2.609038E-1	2.611807E-1	2.802931E-1	2.730860E-1	2.479117E-1	2.464735E-1	2.662806E-1	2.782950E-1	2.601882E-1	2.553363E-1	2.689852E-1	2.656361E-1	2.371892E-1	2.450894E-1	2.563956E-1	2.554187E-1	2.352682E-1	2.340159E-1	2.491196E-1	2.925616E-1	2.542431E-1	2.723845E-1	2.642013E-1	2.571349E-1	2.476029E-1	2.595545E-1	2.803460E-1	2.803847E-1	2.847051E-1	2.608188E-1	2.850524E-1	2.741295E-1	2.478452E-1	2.813861E-1	2.510188E-1	2.715937E-1	2.869596E-1	2.551591E-1	2.495043E-1	2.380780E-1	2.691612E-1	2.422796E-1	2.835609E-1	2.704281E-1	2.540869E-1	2.479293E-1	2.319450E-1	2.735083E-1	2.522361E-1	2.831203E-1	2.663955E-1	2.542861E-1	2.549702E-1	2.415953E-1	2.426575E-1	2.514653E-1	2.433493E-1	2.537891E-1	2.721923E-1	2.906489E-1	2.690457E-1	2.559137E-1	2.459888E-1	2.629252E-1	2.690137E-1	2.786889E-1	2.494044E-1	2.435371E-1	2.634214E-1	2.510911E-1	2.483843E-1	2.563916E-1	2.588720E-1	2.482240E-1	2.525159E-1	2.488772E-1	2.576107E-1	2.842169E-1	2.323470E-1	2.559303E-1	2.683940E-1	2.626749E-1	2.372260E-1	2.810258E-1	2.474990E-1	2.517716E-1	2.792109E-1	2.663024E-1	2.251852E-1	2.707061E-1	2.349457E-1	2.338862E-1	2.810527E-1	2.636081E-1	2.672570E-1	2.359866E-1	2.504607E-1	2.565765E-1	2.680240E-1	2.715058E-1	2.331020E-1	2.396054E-1	2.573549E-1	2.448311E-1	2.508177E-1	2.315178E-1	2.289236E-1	2.612413E-1	2.340967E-1	2.356642E-1	2.467120E-1	2.342226E-1	2.629767E-1	2.610725E-1	2.762718E-1	2.567981E-1	2.665152E-1	2.354170E-1	2.438177E-1
5.345160E+2	4.069321E-1	4.438191E-1	4.105368E-1	4.182812E-1	4.135247E-1	4.237158E-1	3.971680E-1	4.321914E-1	4.230647E-1	3.862323E-1	4.316891E-1	4.176319E-1	3.840976E-1	4.284066E-1	3.993815E-1	4.084758E-1	5.882617E-1	5.070806E-1	4.967678E-1	5.189245E-1	4.833875E-1	4.622938E-1	4.858932E-1	4.645500E-1	4.771733E-1	4.642203E-1	4.260078E-1	4.629304E-1	4.567875E-1	4.641104E-1	4.507850E-1	4.422196E-1	4.407951E-1	4.701645E-1	4.721090E-1	4.563552E-1	4.563956E-1	4.550237E-1	4.384624E-1	4.774353E-1	4.573815E-1	4.793785E-1	4.492923E-1	4.204286E-1	4.613391E-1	4.151547E-1	4.235856E-1	4.646556E-1	5.084669E-1	4.346568E-1	4.621997E-1	4.390402E-1	4.499878E-1	4.475189E-1	4.540876E-1	4.331733E-1	4.302215E-1	4.735641E-1	4.398437E-1	4.168420E-1	4.460493E-1	4.248266E-1	4.208346E-1	4.373436E-1	4.547080E-1	4.420570E-1	4.138730E-1	4.677894E-1	4.617698E-1	4.401313E-1	4.819000E-1	4.167417E-1	4.536690E-1	4.305797E-1	4.105156E-1	4.262104E-1	4.529454E-1	4.318612E-1	4.325181E-1	4.506319E-1	4.355477E-1	4.633070E-1	4.416019E-1	4.501858E-1	4.787715E-1	4.407486E-1	4.494382E-1	4.841609E-1	4.559589E-1	4.600227E-1	4.587152E-1	4.627220E-1	4.403534E-1	4.157689E-1	4.364883E-1	4.561118E-1	4.473618E-1	4.404788E-1	4.442865E-1	4.496876E-1	4.793362E-1	4.392052E-1	4.609031E-1	4.227777E-1	4.240945E-1	4.908613E-1	4.378509E-1	4.227105E-1	4.200277E-1	4.269738E-1	4.227895E-1	4.557520E-1	4.716549E-1	4.291704E-1	4.532704E-1	4.270815E-1	4.660259E-1	4.471127E-1	4.277810E-1	4.463658E-1	4.318374E-1	4.632625E-1	4.157577E-1	4.694625E-1	4.422373E-1	4.178394E-1	4.173375E-1	4.480254E-1	4.554450E-1	4.213198E-1	4.428589E-1	4.530540E-1	4.483702E-1	4.721550E-1	3.902743E-1	4.639764E-1	4.127659E-1	4.648978E-1	4.552515E-1	4.561114E-1	4.568247E-1	4.146029E-1	4.723767E-1	4.399101E-1	4.414599E-1	4.475676E-1	4.175238E-1	4.496054E-1	4.726922E-1	4.253948E-1	4.654912E-1	3.963640E-1	4.613221E-1	4.495311E-1	4.373403E-1	4.422399E-1	4.197007E-1	4.589093E-1	4.469993E-1	4.701329E-1	4.672853E-1	3.834725E-1	3.698100E-1	4.756822E-1	4.182447E-1
5.346620E+2	6.950174E-1	6.839663E-1	6.956678E-1	6.662825E-1	7.140902E-1	6.748355E-1	7.204765E-1	6.959719E-1	7.134959E-1	6.570869E-1	7.118723E-1	6.813715E-1	6.606087E-1	6.998080E-1	7.094379E-1	6.900929E-1	8.771785E-1	8.210378E-1	7.395523E-1	7.866459E-1	8.068010E-1	7.502196E-1	7.244302E-1	7.827857E-1	8.031044E-1	7.519050E-1	7.025293E-1	7.987076E-1	7.290835E-1	7.416927E-1	7.303945E-1	7.424424E-1	7.343573E-1	7.345223E-1	7.272255E-1	7.456444E-1	7.267254E-1	7.538781E-1	7.404154E-1	7.041305E-1	7.793089E-1	7.346212E-1	7.296210E-1	7.056183E-1	7.713002E-1	7.334803E-1	7.215844E-1	7.681637E-1	7.521790E-1	7.011471E-1	7.719725E-1	7.128544E-1	7.819789E-1	7.104275E-1	7.134327E-1	7.314871E-1	7.088333E-1	7.031392E-1	7.326112E-1	7.814238E-1	7.114241E-1	6.869487E-1	7.074561E-1	7.134737E-1	7.171453E-1	7.439602E-1	7.017117E-1	6.984071E-1	7.733336E-1	7.038612E-1	7.263440E-1	7.291187E-1	8.078562E-1	7.362914E-1	7.134051E-1	7.105790E-1	7.479067E-1	7.442417E-1	7.040278E-1	7.315027E-1	7.279284E-1	7.566339E-1	7.664348E-1	7.246429E-1	7.327242E-1	7.516169E-1	7.223583E-1	7.223816E-1	7.019055E-1	7.126985E-1	7.301394E-1	7.041823E-1	7.372688E-1	7.068830E-1	7.253025E-1	7.116402E-1	7.753504E-1	7.262072E-1	7.551147E-1	7.291403E-1	7.286935E-1	6.937208E-1	7.320965E-1	7.159060E-1	7.273947E-1	7.450076E-1	7.195624E-1	7.513296E-1	6.828277E-1	7.176114E-1	6.930779E-1	7.296958E-1	7.084020E-1	6.801166E-1	7.499896E-1	7.497868E-1	7.194935E-1	7.518281E-1	6.920320E-1	7.510357E-1	7.066193E-1	6.739418E-1	7.173054E-1	6.994907E-1	6.927890E-1	6.699633E-1	6.789852E-1	7.108389E-1	7.910138E-1	7.020173E-1	7.146886E-1	7.004133E-1	7.270900E-1	7.098213E-1	7.338867E-1	7.237650E-1	7.231363E-1	7.076094E-1	7.384867E-1	7.230610E-1	7.230756E-1	7.107023E-1	6.978818E-1	7.174223E-1	7.314137E-1	7.147142E-1	7.579284E-1	7.032040E-1	7.091994E-1	7.007612E-1	7.165355E-1	6.844328E-1	7.662011E-1	7.107464E-1	7.245347E-1	7.672663E-1	7.012099E-1	7.370810E-1	6.910736E-1	7.516488E-1	7.294885E-1	7.166043E-1	7.262001E-1	7.374914E-1	7.289951E-1
5.348070E+2	1.033174E+0	1.109699E+0	1.032558E+0	1.053930E+0	1.056312E+0	1.017271E+0	1.001808E+0	1.028213E+0	1.071957E+0	1.058539E+0	1.075382E+0	1.057398E+0	1.011143E+0	1.029346E+0	1.026386E+0	1.065943E+0	1.265645E+0	1.170813E+0	1.183105E+0	1.093533E+0	1.166310E+0	1.145730E+0	1.125262E+0	1.093779E+0	1.126429E+0	1.110836E+0	1.148982E+0	1.092448E+0	1.063089E+0	1.096321E+0	1.143670E+0	1.125944E+0	1.125228E+0	1.053492E+0	1.085932E+0	1.112770E+0	1.110575E+0	1.119256E+0	1.108142E+0	1.092050E+0	1.095205E+0	1.115933E+0	1.117611E+0	1.116183E+0	1.076664E+0	1.137719E+0	1.027610E+0	1.088525E+0	1.112461E+0	1.032178E+0	1.131743E+0	1.042764E+0	1.071539E+0	1.077648E+0	1.144897E+0	1.105638E+0	1.042439E+0	1.095002E+0	1.088281E+0	1.042270E+0	1.077510E+0	1.035391E+0	1.016303E+0	1.099613E+0	1.152482E+0	1.095639E+0	1.042897E+0	1.088378E+0	1.090776E+0	1.062692E+0	1.089167E+0	1.057021E+0	1.092798E+0	1.131792E+0	1.030230E+0	1.093108E+0	1.143243E+0	1.065567E+0	1.046964E+0	1.050813E+0	1.118665E+0	1.052515E+0	1.095213E+0	1.090425E+0	1.150740E+0	1.050887E+0	1.131330E+0	1.058186E+0	1.060687E+0	1.051628E+0	1.067439E+0	1.094841E+0	1.102694E+0	1.055222E+0	9.946022E-1	1.037993E+0	1.084719E+0	9.809930E-1	1.072160E+0	1.113078E+0	1.023431E+0	1.109395E+0	1.108151E+0	1.036556E+0	1.112779E+0	1.068137E+0	1.069551E+0	1.070306E+0	1.105752E+0	1.040414E+0	1.074086E+0	1.067408E+0	1.103084E+0	1.078967E+0	1.110464E+0	1.041217E+0	1.052974E+0	1.073901E+0	1.055676E+0	1.049733E+0	1.013236E+0	1.070730E+0	1.063103E+0	1.079462E+0	1.069957E+0	1.046916E+0	1.090526E+0	1.030449E+0	1.042450E+0	1.028254E+0	1.050353E+0	1.076362E+0	1.034634E+0	1.050411E+0	1.044636E+0	1.044933E+0	1.039608E+0	1.064333E+0	1.061465E+0	1.096294E+0	1.028098E+0	1.083605E+0	1.076203E+0	1.054826E+0	1.102606E+0	1.064739E+0	1.089873E+0	9.887372E-1	1.083864E+0	1.047775E+0	1.053726E+0	1.045153E+0	1.070540E+0	1.091352E+0	1.005581E+0	1.061427E+0	1.030747E+0	1.078646E+0	1.050299E+0	1.107008E+0	1.058963E+0	1.077073E+0	1.013329E+0	1.025620E+0	1.000674E+0
5.349630E+2	1.458237E+0	1.549664E+0	1.437300E+0	1.408989E+0	1.415750E+0	1.406047E+0	1.434020E+0	1.486774E+0	1.459078E+0	1.410198E+0	1.502366E+0	1.460390E+0	1.477647E+0	1.486136E+0	1.486702E+0	1.437219E+0	1.614714E+0	1.511728E+0	1.542248E+0	1.485070E+0	1.581191E+0	1.498492E+0	1.525470E+0	1.517315E+0	1.486496E+0	1.491322E+0	1.511566E+0	1.525429E+0	1.458220E+0	1.474928E+0	1.467064E+0	1.494684E+0	1.529978E+0	1.438457E+0	1.470245E+0	1.496759E+0	1.505080E+0	1.502162E+0	1.419528E+0	1.490026E+0	1.461393E+0	1.527792E+0	1.487348E+0	1.528673E+0	1.433794E+0	1.465677E+0	1.479262E+0	1.464908E+0	1.544757E+0	1.508963E+0	1.510377E+0	1.469759E+0	1.517237E+0	1.472307E+0	1.488288E+0	1.481373E+0	1.557129E+0	1.456726E+0	1.485536E+0	1.501658E+0	1.497080E+0	1.485313E+0	1.433330E+0	1.467717E+0	1.543963E+0	1.427943E+0	1.423476E+0	1.430442E+0	1.499783E+0	1.461446E+0	1.527016E+0	1.490281E+0	1.566530E+0	1.527782E+0	1.411958E+0	1.510687E+0	1.529527E+0	1.431918E+0	1.415969E+0	1.496700E+0	1.515622E+0	1.505899E+0	1.445518E+0	1.437601E+0	1.454877E+0	1.530337E+0	1.555880E+0	1.470059E+0	1.530891E+0	1.492554E+0	1.510973E+0	1.457455E+0	1.453587E+0	1.388736E+0	1.461859E+0	1.434048E+0	1.499941E+0	1.401549E+0	1.473301E+0	1.436575E+0	1.522524E+0	1.415390E+0	1.426874E+0	1.446813E+0	1.543019E+0	1.479653E+0	1.422021E+0	1.533045E+0	1.495828E+0	1.479610E+0	1.526520E+0	1.389671E+0	1.415515E+0	1.464718E+0	1.460429E+0	1.492815E+0	1.491658E+0	1.488266E+0	1.452759E+0	1.456810E+0	1.441601E+0	1.537529E+0	1.432469E+0	1.451583E+0	1.488738E+0	1.452462E+0	1.493007E+0	1.428608E+0	1.415287E+0	1.373448E+0	1.450032E+0	1.453556E+0	1.495334E+0	1.415044E+0	1.439747E+0	1.457084E+0	1.519892E+0	1.520718E+0	1.430113E+0	1.495391E+0	1.454962E+0	1.452592E+0	1.404993E+0	1.442361E+0	1.433267E+0	1.384542E+0	1.394716E+0	1.450775E+0	1.457646E+0	1.464504E+0	1.462514E+0	1.423926E+0	1.504807E+0	1.445249E+0	1.394984E+0	1.472544E+0	1.407684E+0	1.408367E+0	1.429550E+0	1.405171E+0	1.452036E+0	1.496313E+0	1.387340E+0	1.519920E+0	1.347937E+0
5.351090E+2	1.753582E+0	1.779459E+0	1.694682E+0	1.676693E+0	1.750915E+0	1.748593E+0	1.755195E+0	1.694901E+0	1.749973E+0	1.693797E+0	1.710055E+0	1.762180E+0	1.795525E+0	1.702771E+0	1.700230E+0	1.691728E+0	1.879489E+0	1.684799E+0	1.758588E+0	1.754487E+0	1.795476E+0	1.768654E+0	1.729164E+0	1.721919E+0	1.808583E+0	1.776812E+0	1.796247E+0	1.777221E+0	1.750949E+0	1.725302E+0	1.704466E+0	1.766776E+0	1.796317E+0	1.785222E+0	1.729992E+0	1.788649E+0	1.777133E+0	1.750415E+0	1.874438E+0	1.805068E+0	1.828606E+0	1.769210E+0	1.779961E+0	1.705952E+0	1.749243E+0	1.765009E+0	1.735046E+0	1.713533E+0	1.755756E+0	1.762313E+0	1.761515E+0	1.753589E+0	1.755268E+0	1.703028E+0	1.788183E+0	1.766273E+0	1.747604E+0	1.773088E+0	1.744274E+0	1.736060E+0	1.776065E+0	1.696927E+0	1.714366E+0	1.719269E+0	1.751319E+0	1.706292E+0	1.726866E+0	1.703279E+0	1.807416E+0	1.703351E+0	1.708768E+0	1.692825E+0	1.758857E+0	1.758753E+0	1.707027E+0	1.755649E+0	1.827048E+0	1.699131E+0	1.731108E+0	1.703838E+0	1.723480E+0	1.754666E+0	1.721694E+0	1.768519E+0	1.767854E+0	1.761087E+0	1.724736E+0	1.658987E+0	1.734944E+0	1.767010E+0	1.803876E+0	1.608997E+0	1.731175E+0	1.633259E+0	1.713839E+0	1.735070E+0	1.802581E+0	1.668080E+0	1.745042E+0	1.691955E+0	1.754372E+0	1.733810E+0	1.672793E+0	1.767294E+0	1.694855E+0	1.726395E+0	1.687759E+0	1.781782E+0	1.758061E+0	1.712531E+0	1.719232E+0	1.744856E+0	1.725644E+0	1.574439E+0	1.777905E+0	1.814231E+0	1.670199E+0	1.712410E+0	1.780269E+0	1.765144E+0	1.693775E+0	1.764109E+0	1.668576E+0	1.741347E+0	1.718226E+0	1.669044E+0	1.723404E+0	1.707592E+0	1.745080E+0	1.671839E+0	1.676371E+0	1.658724E+0	1.742097E+0	1.680463E+0	1.660724E+0	1.713062E+0	1.734202E+0	1.797630E+0	1.789613E+0	1.748145E+0	1.712736E+0	1.657153E+0	1.569070E+0	1.697115E+0	1.773456E+0	1.653558E+0	1.718031E+0	1.673458E+0	1.734046E+0	1.705297E+0	1.631955E+0	1.681108E+0	1.765952E+0	1.665071E+0	1.684239E+0	1.718889E+0	1.611308E+0	1.686823E+0	1.688192E+0	1.722926E+0	1.685023E+0	1.661272E+0	1.592820E+0	1.787893E+0	1.613176E+0
5.352550E+2	2.022033E+0	2.110265E+0	1.979929E+0	2.003949E+0	2.026534E+0	2.053555E+0	1.935428E+0	2.030126E+0	1.972757E+0	2.019686E+0	2.026332E+0	1.974310E+0	1.991618E+0	2.030201E+0	1.989617E+0	1.902989E+0	2.017845E+0	1.973666E+0	1.913111E+0	1.978545E+0	1.970963E+0	1.983652E+0	2.003011E+0	1.971562E+0	1.995667E+0	2.011748E+0	1.993568E+0	1.929481E+0	1.928396E+0	1.929762E+0	1.905659E+0	2.014219E+0	2.019423E+0	1.964173E+0	1.958276E+0	1.947793E+0	2.029491E+0	1.999038E+0	2.097952E+0	1.966225E+0	1.990693E+0	2.003808E+0	2.041429E+0	1.919356E+0	1.991062E+0	2.020391E+0	1.966848E+0	1.958646E+0	2.076014E+0	1.996466E+0	2.068190E+0	2.029062E+0	1.971937E+0	1.949159E+0	1.970727E+0	1.998722E+0	1.929174E+0	2.027600E+0	1.947310E+0	1.986164E+0	1.923416E+0	1.955448E+0	1.914753E+0	2.024479E+0	2.014390E+0	1.987745E+0	1.884227E+0	1.986563E+0	1.912884E+0	1.999450E+0	2.006277E+0	1.898771E+0	2.043328E+0	1.917342E+0	1.895520E+0	1.919655E+0	1.998400E+0	1.888542E+0	1.920111E+0	1.971281E+0	2.038806E+0	1.983939E+0	1.868023E+0	1.924616E+0	2.030047E+0	1.963507E+0	2.025710E+0	1.944107E+0	2.020121E+0	2.058276E+0	1.918807E+0	1.840112E+0	1.970772E+0	1.924203E+0	1.964344E+0	1.899003E+0	2.023217E+0	1.910456E+0	1.985038E+0	1.945637E+0	1.971133E+0	1.968615E+0	1.921009E+0	1.981292E+0	1.949622E+0	1.891614E+0	1.916354E+0	1.942082E+0	1.961233E+0	1.887001E+0	1.913293E+0	1.861729E+0	1.957442E+0	1.843150E+0	1.935606E+0	1.945413E+0	1.893046E+0	1.998622E+0	1.958353E+0	1.941498E+0	1.982031E+0	2.024590E+0	1.898962E+0	1.931439E+0	1.920528E+0	1.946307E+0	1.959806E+0	1.902022E+0	1.935634E+0	1.887318E+0	1.912237E+0	1.867392E+0	1.948019E+0	2.033233E+0	1.930942E+0	1.922901E+0	1.955926E+0	1.945082E+0	1.901885E+0	1.968804E+0	1.994784E+0	1.950612E+0	1.902715E+0	1.939167E+0	1.962527E+0	1.885028E+0	1.931070E+0	1.912504E+0	1.985671E+0	1.964976E+0	1.933474E+0	1.814882E+0	1.930045E+0	1.977942E+0	1.812890E+0	1.939745E+0	1.869144E+0	1.882373E+0	1.881219E+0	1.968866E+0	1.906296E+0	1.841197E+0	1.854484E+0	1.873604E+0	1.763059E+0
5.354110E+2	2.201476E+0	2.271190E+0	2.137419E+0	2.113523E+0	2.160192E+0	2.141455E+0	2.155670E+0	2.043377E+0	2.073545E+0	2.146491E+0	2.104950E+0	2.122811E+0	2.160961E+0	2.115333E+0	2.114180E+0	2.148310E+0	2.178938E+0	2.087359E+0	2.047363E+0	2.101809E+0	2.182122E+0	2.120752E+0	2.041731E+0	2.120227E+0	2.163892E+0	2.158990E+0	2.167881E+0	2.048896E+0	2.094564E+0	2.074613E+0	2.009859E+0	2.162802E+0	2.146948E+0	2.070286E+0	2.069876E+0	2.084687E+0	2.083166E+0	2.127379E+0	2.092763E+0	2.085159E+0	2.053516E+0	2.128093E+0	2.121709E+0	2.059243E+0	2.148781E+0	2.092376E+0	2.086551E+0	2.043670E+0	2.115437E+0	2.083802E+0	2.080324E+0	2.077157E+0	2.111884E+0	2.032864E+0	2.075567E+0	2.145377E+0	2.112552E+0	2.193215E+0	2.086491E+0	2.134653E+0	2.079907E+0	2.014740E+0	1.905629E+0	2.072563E+0	2.111802E+0	2.105304E+0	2.117456E+0	2.067125E+0	2.138737E+0	2.041440E+0	2.042699E+0	2.153723E+0	2.146212E+0	2.111649E+0	2.119644E+0	2.006281E+0	2.200661E+0	2.058975E+0	2.043342E+0	2.003966E+0	2.178107E+0	2.033094E+0	2.094962E+0	2.074083E+0	2.019061E+0	2.163954E+0	2.122835E+0	2.094942E+0	2.107347E+0	2.090952E+0	2.071722E+0	2.078237E+0	2.019060E+0	2.019480E+0	2.009211E+0	2.097771E+0	2.111386E+0	2.009769E+0	2.063460E+0	2.036438E+0	2.101834E+0	2.004461E+0	1.964187E+0	2.118025E+0	2.106841E+0	2.038532E+0	2.099010E+0	2.126539E+0	2.049510E+0	2.023450E+0	1.970509E+0	2.107135E+0	2.029442E+0	1.994501E+0	2.003446E+0	2.007568E+0	2.049203E+0	2.008538E+0	2.026141E+0	2.098529E+0	2.037886E+0	2.107226E+0	2.080044E+0	1.989051E+0	2.026451E+0	2.035754E+0	2.070064E+0	1.980976E+0	2.071408E+0	1.965234E+0	2.100902E+0	2.035950E+0	2.010572E+0	2.035629E+0	2.017458E+0	2.080742E+0	2.050750E+0	2.025090E+0	2.068025E+0	2.086268E+0	1.990619E+0	1.977157E+0	1.984904E+0	2.022986E+0	2.017534E+0	2.027818E+0	2.092698E+0	2.022340E+0	2.144760E+0	2.029259E+0	1.992718E+0	1.991821E+0	2.066520E+0	2.089578E+0	1.989186E+0	2.045677E+0	1.929231E+0	1.992003E+0	2.016063E+0	2.099809E+0	1.997656E+0	1.929673E+0	1.958891E+0	2.049762E+0	1.860066E+0
5.355630E+2	1.818878E+0	1.902832E+0	1.807661E+0	1.842560E+0	1.814842E+0	1.856582E+0	1.807157E+0	1.827970E+0	1.806568E+0	1.825163E+0	1.823007E+0	1.784760E+0	1.844974E+0	1.822881E+0	1.821854E+0	1.768387E+0	1.803540E+0	1.741630E+0	1.724596E+0	1.818393E+0	1.790143E+0	1.814723E+0	1.781069E+0	1.793240E+0	1.765995E+0	1.772334E+0	1.776335E+0	1.880864E+0	1.765087E+0	1.723010E+0	1.752416E+0	1.772082E+0	1.744551E+0	1.834458E+0	1.780597E+0	1.755864E+0	1.832806E+0	1.916420E+0	1.779701E+0	1.830155E+0	1.830337E+0	1.796507E+0	1.725978E+0	1.747189E+0	1.876492E+0	1.786239E+0	1.753790E+0	1.747476E+0	1.842053E+0	1.803997E+0	1.865756E+0	1.823941E+0	1.766341E+0	1.819002E+0	1.765867E+0	1.834602E+0	1.780014E+0	1.816599E+0	1.759363E+0	1.757970E+0	1.801430E+0	1.734361E+0	1.714449E+0	1.846944E+0	1.770322E+0	1.779013E+0	1.767079E+0	1.810619E+0	1.775749E+0	1.745318E+0	1.779437E+0	1.810390E+0	1.852021E+0	1.918356E+0	1.717117E+0	1.794972E+0	1.846416E+0	1.785274E+0	1.727277E+0	1.806803E+0	1.822252E+0	1.770237E+0	1.777908E+0	1.765292E+0	1.838228E+0	1.818920E+0	1.821531E+0	1.739362E+0	1.859320E+0	1.793400E+0	1.777809E+0	1.860905E+0	1.793764E+0	1.755134E+0	1.755794E+0	1.773440E+0	1.796823E+0	1.758836E+0	1.739475E+0	1.727559E+0	1.831108E+0	1.820782E+0	1.695517E+0	1.746080E+0	1.879304E+0	1.819287E+0	1.734808E+0	1.789005E+0	1.748211E+0	1.794432E+0	1.789826E+0	1.826048E+0	1.728885E+0	1.622221E+0	1.795383E+0	1.776324E+0	1.784278E+0	1.807886E+0	1.800031E+0	1.787670E+0	1.780048E+0	1.793576E+0	1.719895E+0	1.787262E+0	1.688902E+0	1.698386E+0	1.741221E+0	1.733190E+0	1.797680E+0	1.730806E+0	1.714221E+0	1.779838E+0	1.819435E+0	1.781028E+0	1.705173E+0	1.712446E+0	1.767997E+0	1.699695E+0	1.793935E+0	1.749146E+0	1.774620E+0	1.766784E+0	1.743417E+0	1.704161E+0	1.823157E+0	1.715120E+0	1.801314E+0	1.724939E+0	1.829658E+0	1.779954E+0	1.790043E+0	1.687138E+0	1.830665E+0	1.750504E+0	1.740829E+0	1.806109E+0	1.790608E+0	1.684284E+0	1.756162E+0	1.791084E+0	1.769306E+0	1.802473E+0	1.652938E+0	1.742873E+0	1.760440E+0
5.357250E+2	1.576428E+0	1.733746E+0	1.660996E+0	1.600647E+0	1.617033E+0	1.669236E+0	1.691505E+0	1.605670E+0	1.646025E+0	1.637469E+0	1.655870E+0	1.620147E+0	1.630286E+0	1.645782E+0	1.623798E+0	1.675466E+0	1.609546E+0	1.590743E+0	1.639017E+0	1.646341E+0	1.617435E+0	1.621096E+0	1.684995E+0	1.611201E+0	1.617674E+0	1.655926E+0	1.662164E+0	1.594914E+0	1.581933E+0	1.647149E+0	1.595817E+0	1.649123E+0	1.626479E+0	1.657260E+0	1.608380E+0	1.604671E+0	1.697815E+0	1.702760E+0	1.654245E+0	1.622819E+0	1.545691E+0	1.723161E+0	1.696486E+0	1.702710E+0	1.636858E+0	1.646252E+0	1.620583E+0	1.626801E+0	1.670579E+0	1.609722E+0	1.657074E+0	1.569585E+0	1.606459E+0	1.561060E+0	1.617952E+0	1.676794E+0	1.599930E+0	1.646724E+0	1.644906E+0	1.628923E+0	1.553961E+0	1.572437E+0	1.555725E+0	1.620356E+0	1.690809E+0	1.598252E+0	1.577635E+0	1.616966E+0	1.624904E+0	1.629792E+0	1.635543E+0	1.650395E+0	1.647499E+0	1.709786E+0	1.606791E+0	1.612350E+0	1.642537E+0	1.605792E+0	1.659333E+0	1.657347E+0	1.657112E+0	1.627092E+0	1.612706E+0	1.535025E+0	1.675857E+0	1.615857E+0	1.632378E+0	1.606715E+0	1.629355E+0	1.569718E+0	1.639051E+0	1.639295E+0	1.607176E+0	1.559818E+0	1.553294E+0	1.581915E+0	1.621120E+0	1.586422E+0	1.687603E+0	1.590166E+0	1.582281E+0	1.643978E+0	1.589594E+0	1.581143E+0	1.657594E+0	1.652240E+0	1.640024E+0	1.626143E+0	1.606454E+0	1.626115E+0	1.643929E+0	1.642969E+0	1.605593E+0	1.504056E+0	1.598755E+0	1.614305E+0	1.613022E+0	1.583097E+0	1.690731E+0	1.581611E+0	1.588813E+0	1.617768E+0	1.566020E+0	1.623931E+0	1.550357E+0	1.630708E+0	1.643697E+0	1.588152E+0	1.672344E+0	1.580108E+0	1.634186E+0	1.594483E+0	1.633625E+0	1.655759E+0	1.557327E+0	1.622221E+0	1.616874E+0	1.607620E+0	1.693365E+0	1.609804E+0	1.651293E+0	1.689151E+0	1.588873E+0	1.604494E+0	1.583956E+0	1.574426E+0	1.580682E+0	1.573722E+0	1.612901E+0	1.577721E+0	1.562547E+0	1.568388E+0	1.612124E+0	1.597963E+0	1.560918E+0	1.656601E+0	1.573661E+0	1.546185E+0	1.557108E+0	1.599480E+0	1.568383E+0	1.559616E+0	1.483460E+0	1.593249E+0	1.541685E+0
5.358550E+2	1.494152E+0	1.612691E+0	1.515189E+0	1.480584E+0	1.560419E+0	1.571932E+0	1.544121E+0	1.512759E+0	1.546308E+0	1.593868E+0	1.518959E+0	1.587343E+0	1.525824E+0	1.560924E+0	1.530177E+0	1.557125E+0	1.542382E+0	1.496361E+0	1.475281E+0	1.525094E+0	1.532334E+0	1.585366E+0	1.554278E+0	1.549557E+0	1.533179E+0	1.595201E+0	1.500578E+0	1.549168E+0	1.500405E+0	1.486368E+0	1.497349E+0	1.518809E+0	1.530916E+0	1.606680E+0	1.553965E+0	1.539806E+0	1.492668E+0	1.582639E+0	1.566842E+0	1.559075E+0	1.532086E+0	1.501423E+0	1.577289E+0	1.555113E+0	1.483427E+0	1.528521E+0	1.557852E+0	1.566061E+0	1.576316E+0	1.592342E+0	1.579917E+0	1.535712E+0	1.513229E+0	1.509572E+0	1.549504E+0	1.601083E+0	1.526106E+0	1.577245E+0	1.564198E+0	1.509225E+0	1.556450E+0	1.508956E+0	1.530838E+0	1.506000E+0	1.544460E+0	1.553139E+0	1.537220E+0	1.485720E+0	1.506923E+0	1.552230E+0	1.559021E+0	1.551452E+0	1.471980E+0	1.609478E+0	1.461618E+0	1.457355E+0	1.554510E+0	1.552706E+0	1.514940E+0	1.566627E+0	1.565471E+0	1.541584E+0	1.517081E+0	1.552384E+0	1.537510E+0	1.615586E+0	1.609046E+0	1.466353E+0	1.575856E+0	1.553354E+0	1.497132E+0	1.520860E+0	1.497903E+0	1.509248E+0	1.523402E+0	1.475290E+0	1.518222E+0	1.526902E+0	1.556771E+0	1.547365E+0	1.564991E+0	1.560185E+0	1.509621E+0	1.534408E+0	1.543390E+0	1.529609E+0	1.505997E+0	1.584052E+0	1.574120E+0	1.579243E+0	1.522290E+0	1.574819E+0	1.546672E+0	1.497647E+0	1.524612E+0	1.513624E+0	1.506832E+0	1.518889E+0	1.536466E+0	1.501275E+0	1.548989E+0	1.561036E+0	1.531643E+0	1.485709E+0	1.513693E+0	1.493947E+0	1.547816E+0	1.537379E+0	1.600004E+0	1.489040E+0	1.479103E+0	1.514642E+0	1.600746E+0	1.525401E+0	1.593601E+0	1.558041E+0	1.493803E+0	1.535409E+0	1.553803E+0	1.544463E+0	1.571057E+0	1.518347E+0	1.503757E+0	1.517012E+0	1.525240E+0	1.528171E+0	1.516091E+0	1.477752E+0	1.522927E+0	1.548402E+0	1.532100E+0	1.510489E+0	1.566331E+0	1.523985E+0	1.424229E+0	1.599337E+0	1.438884E+0	1.516391E+0	1.529363E+0	1.473523E+0	1.430495E+0	1.478239E+0	1.400472E+0	1.542611E+0	1.462610E+0
5.360120E+2	1.262841E+0	1.304110E+0	1.256133E+0	1.220556E+0	1.269652E+0	1.294070E+0	1.234816E+0	1.232408E+0	1.235770E+0	1.240709E+0	1.291753E+0	1.293302E+0	1.334551E+0	1.282455E+0	1.249324E+0	1.267240E+0	1.255205E+0	1.185241E+0	1.268697E+0	1.310026E+0	1.299585E+0	1.255879E+0	1.247962E+0	1.283337E+0	1.298253E+0	1.284677E+0	1.221164E+0	1.250473E+0	1.253199E+0	1.233404E+0	1.250201E+0	1.242360E+0	1.283892E+0	1.232848E+0	1.228665E+0	1.273548E+0	1.307577E+0	1.280330E+0	1.271197E+0	1.299518E+0	1.185558E+0	1.283449E+0	1.261658E+0	1.235744E+0	1.300893E+0	1.284937E+0	1.213705E+0	1.214409E+0	1.234484E+0	1.315455E+0	1.261650E+0	1.183731E+0	1.216050E+0	1.262902E+0	1.302166E+0	1.272033E+0	1.218994E+0	1.251656E+0	1.277721E+0	1.264819E+0	1.237068E+0	1.238178E+0	1.225337E+0	1.190492E+0	1.296119E+0	1.258939E+0	1.220902E+0	1.272092E+0	1.213509E+0	1.255483E+0	1.241658E+0	1.312082E+0	1.261785E+0	1.271118E+0	1.220031E+0	1.236527E+0	1.316439E+0	1.260714E+0	1.241394E+0	1.221706E+0	1.258705E+0	1.262172E+0	1.298793E+0	1.285916E+0	1.239557E+0	1.281913E+0	1.302257E+0	1.307408E+0	1.285429E+0	1.257770E+0	1.253650E+0	1.263599E+0	1.218241E+0	1.274369E+0	1.222075E+0	1.276395E+0	1.251898E+0	1.279971E+0	1.249841E+0	1.251935E+0	1.257729E+0	1.238853E+0	1.260054E+0	1.210800E+0	1.285840E+0	1.216862E+0	1.261511E+0	1.285858E+0	1.243602E+0	1.208681E+0	1.210726E+0	1.198044E+0	1.362742E+0	1.197656E+0	1.271357E+0	1.277497E+0	1.236562E+0	1.319617E+0	1.296957E+0	1.247794E+0	1.232355E+0	1.304514E+0	1.256024E+0	1.253653E+0	1.248190E+0	1.265791E+0	1.258011E+0	1.246767E+0	1.266534E+0	1.212998E+0	1.186222E+0	1.175715E+0	1.193738E+0	1.254220E+0	1.238964E+0	1.210225E+0	1.272292E+0	1.239539E+0	1.254202E+0	1.253527E+0	1.252832E+0	1.231623E+0	1.253076E+0	1.293994E+0	1.375712E+0	1.247391E+0	1.232734E+0	1.225229E+0	1.265218E+0	1.241901E+0	1.234665E+0	1.189309E+0	1.261341E+0	1.200299E+0	1.232370E+0	1.233574E+0	1.196361E+0	1.182711E+0	1.281405E+0	1.293691E+0	1.183848E+0	1.218576E+0	1.236482E+0	1.268702E+0	1.204043E+0
5.362680E+2	9.145848E-1	1.025409E+0	9.495615E-1	9.396322E-1	9.417440E-1	9.473073E-1	9.153384E-1	9.361797E-1	9.306523E-1	9.190420E-1	9.342930E-1	1.009114E+0	9.741316E-1	9.270151E-1	9.434805E-1	9.630835E-1	9.744162E-1	9.179046E-1	9.250559E-1	9.384740E-1	9.515489E-1	8.520117E-1	9.232003E-1	9.114689E-1	9.542648E-1	9.564220E-1	9.609876E-1	9.448348E-1	8.681013E-1	9.593437E-1	9.600849E-1	9.757782E-1	9.817257E-1	9.824954E-1	9.314714E-1	9.881805E-1	9.446299E-1	9.311464E-1	9.270933E-1	9.525887E-1	9.738419E-1	9.907845E-1	9.765839E-1	9.569346E-1	9.245118E-1	9.050018E-1	9.536176E-1	9.789822E-1	9.960820E-1	9.496758E-1	9.397690E-1	9.462297E-1	9.350518E-1	9.484838E-1	9.757809E-1	9.033859E-1	9.257765E-1	1.000673E+0	1.000762E+0	9.584141E-1	9.863699E-1	9.206980E-1	9.358870E-1	9.587385E-1	9.745099E-1	9.317812E-1	9.159087E-1	9.273698E-1	9.706674E-1	9.758695E-1	9.765028E-1	9.676262E-1	9.404968E-1	9.750615E-1	9.119994E-1	9.896521E-1	9.337237E-1	9.415087E-1	9.057281E-1	9.130812E-1	9.455912E-1	9.225840E-1	9.612588E-1	8.956051E-1	9.416094E-1	9.828434E-1	9.288511E-1	9.314047E-1	8.907988E-1	9.106554E-1	9.098663E-1	9.672926E-1	9.629103E-1	9.160659E-1	9.302975E-1	9.546567E-1	9.915720E-1	9.716726E-1	9.725899E-1	9.472270E-1	9.383874E-1	9.588426E-1	9.157607E-1	9.486278E-1	9.650067E-1	9.284743E-1	9.173624E-1	9.677097E-1	9.125131E-1	9.260821E-1	9.274416E-1	9.406935E-1	9.172385E-1	9.194334E-1	9.842770E-1	9.065516E-1	9.389529E-1	9.131107E-1	9.645007E-1	9.625148E-1	9.348020E-1	9.672872E-1	9.595852E-1	9.504012E-1	9.681290E-1	9.114337E-1	9.611349E-1	9.438892E-1	9.386775E-1	8.910614E-1	9.568632E-1	9.656118E-1	9.750027E-1	9.757013E-1	9.740975E-1	9.414278E-1	9.909374E-1	9.364963E-1	9.408691E-1	9.427656E-1	9.556162E-1	9.141321E-1	9.339295E-1	1.007869E+0	9.942360E-1	9.737062E-1	9.973792E-1	9.332174E-1	1.029425E+0	9.599335E-1	9.373874E-1	9.266797E-1	9.602025E-1	9.651212E-1	9.181443E-1	9.384978E-1	9.177962E-1	9.511734E-1	9.381716E-1	9.522315E-1	9.358062E-1	9.497065E-1	9.358747E-1	1.070625E+0	1.020396E+0
5.365250E+2	7.440905E-1	7.779847E-1	7.566328E-1	7.743213E-1	7.098676E-1	7.355919E-1	7.343248E-1	7.051564E-1	7.837810E-1	7.800264E-1	7.313609E-1	7.658782E-1	7.494002E-1	7.439964E-1	7.377876E-1	7.471033E-1	7.299164E-1	7.544797E-1	7.559508E-1	7.284194E-1	7.046456E-1	7.509355E-1	7.616304E-1	7.419276E-1	7.524687E-1	7.293369E-1	8.159937E-1	7.854548E-1	7.758884E-1	7.403860E-1	7.433423E-1	7.343996E-1	7.464878E-1	7.251825E-1	7.338793E-1	7.544947E-1	6.951277E-1	7.593506E-1	7.159728E-1	7.598434E-1	7.330097E-1	7.744883E-1	7.681383E-1	7.323515E-1	7.808077E-1	7.432813E-1	7.227441E-1	7.719544E-1	8.130633E-1	7.511901E-1	8.022396E-1	7.500529E-1	7.387833E-1	7.480256E-1	7.629746E-1	7.628655E-1	7.796371E-1	7.891729E-1	7.730608E-1	7.476603E-1	7.176559E-1	7.297056E-1	7.605689E-1	7.677370E-1	7.391275E-1	7.093308E-1	7.226819E-1	7.687715E-1	7.756125E-1	7.457937E-1	7.555761E-1	7.357206E-1	7.535259E-1	7.788239E-1	7.586106E-1	7.507449E-1	7.710150E-1	7.298924E-1	7.052933E-1	7.588811E-1	7.377406E-1	7.833306E-1	7.456047E-1	7.754061E-1	7.460590E-1	7.425508E-1	7.829011E-1	7.655810E-1	7.810697E-1	7.558006E-1	7.317828E-1	7.833552E-1	7.220705E-1	7.640245E-1	7.001730E-1	7.780396E-1	7.656991E-1	7.468920E-1	7.833228E-1	7.517312E-1	7.607233E-1	7.596419E-1	7.689213E-1	7.080293E-1	7.636472E-1	7.863423E-1	7.525672E-1	7.744448E-1	7.627876E-1	7.228501E-1	7.423971E-1	7.747141E-1	7.663149E-1	7.525324E-1	7.822719E-1	7.675203E-1	8.059382E-1	8.064512E-1	7.803169E-1	7.477779E-1	7.397999E-1	7.748773E-1	7.748982E-1	7.467421E-1	7.628511E-1	7.698317E-1	7.681234E-1	7.837554E-1	8.048936E-1	7.460422E-1	7.308918E-1	7.572733E-1	7.899400E-1	7.965825E-1	8.026615E-1	7.285627E-1	7.611461E-1	7.474967E-1	7.637542E-1	7.802267E-1	7.199997E-1	7.142055E-1	7.821316E-1	7.036043E-1	7.894965E-1	7.354946E-1	7.748048E-1	7.955982E-1	7.604068E-1	7.708565E-1	7.964507E-1	7.512860E-1	7.262919E-1	7.739629E-1	6.973356E-1	7.515861E-1	7.416969E-1	7.481928E-1	7.540608E-1	7.268038E-1	7.424319E-1	7.663034E-1	6.563243E-1	7.795721E-1	7.631488E-1
5.367810E+2	5.636587E-1	5.866129E-1	6.154651E-1	5.768890E-1	6.343552E-1	5.952788E-1	6.287903E-1	6.212361E-1	5.822038E-1	5.996905E-1	5.738945E-1	5.974142E-1	5.678523E-1	5.780629E-1	6.133604E-1	5.922054E-1	6.287393E-1	5.872687E-1	5.961553E-1	6.280084E-1	5.849449E-1	6.012480E-1	6.107091E-1	5.832527E-1	6.504017E-1	6.356509E-1	5.940100E-1	5.954642E-1	5.819977E-1	5.726964E-1	5.929526E-1	5.838171E-1	6.025522E-1	6.104413E-1	5.982738E-1	5.604085E-1	6.462254E-1	6.127722E-1	5.950172E-1	6.025573E-1	5.734909E-1	5.971802E-1	6.297748E-1	6.394977E-1	5.804800E-1	6.202271E-1	5.827526E-1	5.679745E-1	6.345886E-1	5.885226E-1	5.882809E-1	6.594148E-1	5.890436E-1	5.904222E-1	6.040009E-1	6.190374E-1	6.012222E-1	6.374423E-1	5.755277E-1	5.882800E-1	5.964453E-1	5.812512E-1	5.924044E-1	5.309526E-1	6.160431E-1	5.839705E-1	5.875023E-1	5.824849E-1	6.184034E-1	6.000450E-1	6.088853E-1	5.889212E-1	6.187130E-1	5.974109E-1	5.460219E-1	6.038383E-1	5.988831E-1	6.243745E-1	5.880944E-1	6.027910E-1	6.090057E-1	5.646609E-1	5.918932E-1	5.865316E-1	5.957753E-1	6.150107E-1	6.616883E-1	6.100833E-1	6.134126E-1	6.277172E-1	5.755445E-1	6.049144E-1	6.038469E-1	5.804493E-1	5.850529E-1	6.050914E-1	5.902557E-1	6.067749E-1	5.748015E-1	5.914587E-1	5.722560E-1	6.291233E-1	6.043056E-1	5.610171E-1	5.776147E-1	5.929224E-1	5.953031E-1	5.829264E-1	5.966866E-1	6.364593E-1	6.238717E-1	5.979366E-1	6.051734E-1	5.947329E-1	6.117851E-1	6.163451E-1	5.677676E-1	5.793674E-1	6.431857E-1	5.899326E-1	5.846948E-1	6.089386E-1	5.845104E-1	5.998256E-1	6.035515E-1	6.070640E-1	5.825481E-1	6.226946E-1	6.409363E-1	6.056269E-1	6.170530E-1	5.943914E-1	6.010013E-1	6.393719E-1	5.841859E-1	6.153463E-1	6.206498E-1	5.859445E-1	6.063139E-1	5.901846E-1	6.528156E-1	6.095446E-1	5.827488E-1	6.016862E-1	6.225659E-1	6.049964E-1	6.243647E-1	5.797012E-1	5.785497E-1	6.009646E-1	6.130971E-1	6.129133E-1	5.962005E-1	6.163185E-1	6.031231E-1	6.553490E-1	6.058148E-1	6.355080E-1	6.037602E-1	5.712758E-1	5.908483E-1	6.000733E-1	5.985271E-1	6.402756E-1	6.456701E-1
5.370120E+2	5.285219E-1	5.433128E-1	5.867968E-1	5.216589E-1	5.393615E-1	5.543733E-1	5.631654E-1	5.517164E-1	5.336183E-1	5.255723E-1	5.337204E-1	5.580109E-1	5.619530E-1	5.317773E-1	5.259597E-1	5.091643E-1	5.785556E-1	5.589201E-1	5.685949E-1	5.589566E-1	5.418082E-1	5.626929E-1	5.550451E-1	5.727327E-1	5.399407E-1	5.536586E-1	5.342922E-1	5.646515E-1	5.467072E-1	5.233495E-1	5.035575E-1	5.953381E-1	5.583839E-1	5.789205E-1	5.606111E-1	5.401972E-1	5.856055E-1	5.643418E-1	5.547140E-1	5.629653E-1	5.307602E-1	5.654801E-1	5.598799E-1	5.830882E-1	5.400326E-1	5.821150E-1	5.230057E-1	5.239102E-1	5.320857E-1	5.572756E-1	5.654509E-1	5.503674E-1	5.284453E-1	5.351673E-1	5.434213E-1	5.389448E-1	5.281363E-1	5.569345E-1	5.585356E-1	5.396271E-1	5.375440E-1	5.476333E-1	5.423737E-1	5.328167E-1	5.552875E-1	5.284869E-1	5.894845E-1	5.138571E-1	5.546671E-1	5.080946E-1	5.983342E-1	5.502652E-1	5.629917E-1	6.078885E-1	5.494900E-1	5.681425E-1	5.611712E-1	5.756565E-1	5.707271E-1	5.387756E-1	5.514547E-1	6.003645E-1	5.556943E-1	5.372056E-1	5.394265E-1	5.719586E-1	6.131579E-1	5.482097E-1	5.677029E-1	5.496893E-1	5.930085E-1	5.314050E-1	5.366934E-1	5.565445E-1	5.734904E-1	5.716324E-1	5.651657E-1	5.626908E-1	5.515576E-1	5.665860E-1	5.482361E-1	5.738743E-1	5.529855E-1	5.584895E-1	5.863492E-1	5.431817E-1	5.232596E-1	5.729306E-1	5.786935E-1	5.478577E-1	5.380967E-1	5.206130E-1	5.401872E-1	5.265400E-1	5.800267E-1	5.404082E-1	5.908696E-1	5.641819E-1	6.051567E-1	5.681885E-1	5.001424E-1	5.929166E-1	5.673238E-1	5.632838E-1	5.880594E-1	5.519757E-1	5.742740E-1	5.410817E-1	5.713258E-1	5.640393E-1	5.369213E-1	5.309361E-1	5.542739E-1	5.803004E-1	5.494057E-1	5.264117E-1	5.604613E-1	6.025597E-1	5.612481E-1	5.547172E-1	5.603579E-1	5.384725E-1	5.368751E-1	5.590563E-1	5.425080E-1	5.603872E-1	5.386809E-1	5.485771E-1	5.777571E-1	5.450980E-1	5.120513E-1	5.361234E-1	5.763370E-1	5.566882E-1	5.576023E-1	5.512270E-1	5.541982E-1	5.650810E-1	5.408642E-1	5.622114E-1	5.733794E-1	5.429573E-1	5.541357E-1	5.675546E-1	5.690882E-1
5.372740E+2	5.143704E-1	5.181949E-1	4.991844E-1	4.890306E-1	4.933669E-1	5.261517E-1	5.225724E-1	4.942335E-1	4.985508E-1	5.083148E-1	4.962949E-1	4.848115E-1	4.941477E-1	5.132544E-1	4.954949E-1	5.061867E-1	5.624511E-1	5.385656E-1	5.294715E-1	5.386837E-1	5.269279E-1	5.580018E-1	5.172645E-1	4.853438E-1	5.393177E-1	5.552559E-1	5.534266E-1	5.040649E-1	5.012407E-1	4.873808E-1	5.436617E-1	5.453244E-1	5.309556E-1	5.154625E-1	5.288460E-1	5.028696E-1	5.097126E-1	5.575607E-1	5.415557E-1	5.315013E-1	5.232905E-1	5.234506E-1	5.476128E-1	5.401361E-1	5.620091E-1	5.028342E-1	5.312794E-1	5.113025E-1	5.161079E-1	5.431712E-1	5.283907E-1	5.324995E-1	5.544860E-1	5.382461E-1	5.023012E-1	5.500389E-1	5.030225E-1	5.044963E-1	5.339257E-1	5.250873E-1	4.829574E-1	5.309822E-1	5.528654E-1	5.534044E-1	5.400026E-1	4.896791E-1	5.206062E-1	5.028026E-1	5.377966E-1	5.049189E-1	5.233767E-1	5.336578E-1	5.384993E-1	5.420033E-1	5.064378E-1	5.356859E-1	5.365235E-1	5.166623E-1	5.344594E-1	5.285055E-1	5.469321E-1	5.362579E-1	4.987808E-1	5.133704E-1	5.238001E-1	4.926522E-1	5.093914E-1	5.229829E-1	5.279415E-1	5.370899E-1	5.631211E-1	5.077416E-1	4.646749E-1	4.709506E-1	5.275355E-1	5.146466E-1	5.092923E-1	5.030019E-1	5.534926E-1	5.521722E-1	5.016281E-1	5.449774E-1	5.449242E-1	5.082673E-1	5.090339E-1	4.846952E-1	5.015817E-1	5.468651E-1	5.039270E-1	4.993019E-1	5.492488E-1	5.407962E-1	5.136881E-1	5.328110E-1	5.594329E-1	5.496339E-1	5.271799E-1	5.280662E-1	5.350513E-1	5.238060E-1	4.993976E-1	5.715446E-1	5.419498E-1	5.585981E-1	5.457447E-1	5.285620E-1	5.420689E-1	5.453972E-1	5.075866E-1	5.299654E-1	5.358340E-1	5.024606E-1	5.444640E-1	5.186739E-1	5.321887E-1	5.155712E-1	5.361518E-1	5.408981E-1	5.391859E-1	5.617969E-1	4.767491E-1	5.070320E-1	5.250598E-1	5.211125E-1	5.194171E-1	5.170893E-1	5.369546E-1	5.453814E-1	5.315127E-1	5.417721E-1	5.537648E-1	5.118633E-1	5.555532E-1	4.993384E-1	4.783901E-1	5.530883E-1	5.204711E-1	5.373573E-1	4.986786E-1	5.032155E-1	5.398596E-1	5.374595E-1	5.024251E-1	5.144915E-1	5.025125E-1
5.375110E+2	5.177808E-1	5.540429E-1	5.695061E-1	5.875015E-1	6.009773E-1	5.868016E-1	6.030002E-1	6.111676E-1	5.684296E-1	5.601930E-1	5.790317E-1	5.886242E-1	5.610774E-1	5.882541E-1	5.720940E-1	5.481928E-1	6.484175E-1	5.605950E-1	5.645172E-1	5.487388E-1	5.630990E-1	5.756830E-1	5.686420E-1	6.043004E-1	5.807389E-1	6.323024E-1	6.156293E-1	6.474257E-1	5.898256E-1	5.699834E-1	5.893871E-1	6.152184E-1	5.557654E-1	6.020724E-1	5.950621E-1	5.621599E-1	5.979426E-1	5.862848E-1	5.736087E-1	5.960661E-1	5.599563E-1	5.901312E-1	6.465273E-1	6.382077E-1	6.120968E-1	5.928930E-1	5.636060E-1	5.627882E-1	6.151290E-1	5.374594E-1	6.287423E-1	5.758713E-1	6.060146E-1	6.000091E-1	5.984893E-1	5.808878E-1	5.911127E-1	6.067012E-1	6.585914E-1	5.924582E-1	5.672524E-1	5.536422E-1	5.726513E-1	5.996707E-1	6.227137E-1	6.057810E-1	6.146264E-1	5.947830E-1	5.790058E-1	5.789228E-1	5.938383E-1	5.660976E-1	5.803929E-1	6.267316E-1	5.846016E-1	6.003423E-1	6.227436E-1	5.621873E-1	5.845555E-1	6.142815E-1	5.723461E-1	5.822163E-1	6.006357E-1	5.924400E-1	5.637687E-1	5.973087E-1	6.439445E-1	5.724175E-1	5.680512E-1	5.693923E-1	6.178132E-1	5.875379E-1	5.633176E-1	5.693640E-1	5.448974E-1	5.462906E-1	5.747608E-1	5.628453E-1	5.569076E-1	5.790143E-1	6.202611E-1	5.674086E-1	5.323081E-1	5.693362E-1	5.692507E-1	5.940880E-1	5.548369E-1	5.912534E-1	5.901994E-1	5.835978E-1	6.351667E-1	5.990574E-1	6.252029E-1	5.339705E-1	5.868016E-1	5.705984E-1	6.239493E-1	5.622885E-1	5.914911E-1	5.945806E-1	5.556512E-1	6.238590E-1	6.186865E-1	6.307680E-1	6.149619E-1	5.998461E-1	5.857496E-1	5.788389E-1	5.752869E-1	5.947287E-1	5.682071E-1	5.862845E-1	6.091052E-1	5.987600E-1	5.872727E-1	5.714020E-1	5.629572E-1	6.342077E-1	6.011013E-1	6.104127E-1	6.040936E-1	5.923975E-1	5.948579E-1	5.913623E-1	5.628642E-1	5.927664E-1	6.017028E-1	5.775481E-1	5.950071E-1	5.794186E-1	6.088143E-1	6.189680E-1	5.940708E-1	5.842505E-1	5.547035E-1	6.500472E-1	5.579442E-1	5.752727E-1	5.625227E-1	6.180115E-1	5.569892E-1	5.720776E-1	5.859027E-1	5.215613E-1	5.797441E-1
5.377840E+2	6.740880E-1	7.140193E-1	7.263854E-1	6.608277E-1	6.710895E-1	6.511527E-1	6.729827E-1	6.709796E-1	6.675873E-1	6.765819E-1	6.876579E-1	6.726973E-1	6.631818E-1	6.678358E-1	6.337865E-1	6.761383E-1	6.960297E-1	6.665480E-1	7.011163E-1	6.824257E-1	6.862088E-1	6.778664E-1	6.715442E-1	6.671404E-1	6.838926E-1	6.652868E-1	6.908809E-1	6.490618E-1	6.840578E-1	6.707352E-1	6.965470E-1	6.699926E-1	6.873210E-1	6.957885E-1	6.403174E-1	6.499715E-1	6.268728E-1	6.575361E-1	6.889768E-1	7.002431E-1	6.452696E-1	7.023314E-1	7.072988E-1	6.568816E-1	6.773618E-1	6.724304E-1	6.800051E-1	6.638608E-1	6.762364E-1	6.606999E-1	7.375776E-1	7.007811E-1	6.896140E-1	6.628732E-1	6.987055E-1	7.010840E-1	6.768108E-1	7.112960E-1	6.954687E-1	6.859249E-1	7.238184E-1	6.801540E-1	6.921114E-1	7.058089E-1	6.842372E-1	6.308882E-1	6.935494E-1	6.591063E-1	7.271819E-1	6.788403E-1	7.164665E-1	7.195689E-1	6.767789E-1	7.018117E-1	6.915588E-1	6.872626E-1	7.240571E-1	6.582779E-1	7.256389E-1	6.943719E-1	6.705867E-1	6.891413E-1	6.360222E-1	6.853837E-1	7.014706E-1	7.015657E-1	6.764100E-1	6.763816E-1	6.799904E-1	6.687644E-1	6.571703E-1	7.002592E-1	6.965269E-1	6.701312E-1	6.760220E-1	6.482544E-1	6.720429E-1	6.794693E-1	6.631934E-1	6.913831E-1	6.880933E-1	6.818460E-1	6.944278E-1	6.648479E-1	6.786710E-1	6.557993E-1	6.946230E-1	7.105184E-1	6.812240E-1	6.581664E-1	6.731036E-1	6.435699E-1	6.570911E-1	6.531548E-1	6.440250E-1	6.715724E-1	6.563108E-1	6.491525E-1	6.828565E-1	7.005643E-1	6.761312E-1	6.903057E-1	6.244269E-1	6.775638E-1	6.628183E-1	6.806484E-1	7.160615E-1	6.601919E-1	6.603890E-1	6.435804E-1	6.520416E-1	6.937726E-1	6.828336E-1	7.444822E-1	6.794964E-1	7.113387E-1	6.539044E-1	6.898214E-1	6.684863E-1	6.397930E-1	7.112228E-1	6.726564E-1	6.730121E-1	6.364243E-1	7.048391E-1	6.717835E-1	6.730429E-1	6.734857E-1	6.923990E-1	6.939954E-1	6.999596E-1	6.588653E-1	6.830561E-1	6.575472E-1	6.767201E-1	6.670203E-1	6.514908E-1	6.748507E-1	7.098671E-1	6.859478E-1	6.888382E-1	7.076338E-1	6.425111E-1	7.476912E-1	6.335607E-1
5.380160E+2	7.526998E-1	7.468008E-1	7.222005E-1	7.477703E-1	7.194291E-1	7.409181E-1	7.999035E-1	7.412571E-1	7.462716E-1	7.700720E-1	7.671915E-1	7.567435E-1	7.114098E-1	7.668756E-1	7.615007E-1	6.996992E-1	7.833307E-1	7.658853E-1	7.872080E-1	7.307165E-1	7.527602E-1	7.438267E-1	7.502936E-1	7.270224E-1	7.334852E-1	7.707704E-1	7.238262E-1	8.271162E-1	7.714587E-1	7.691364E-1	7.644534E-1	7.321484E-1	7.666997E-1	7.523078E-1	7.400866E-1	7.845200E-1	7.611209E-1	7.496142E-1	7.518631E-1	8.035063E-1	7.618110E-1	7.620929E-1	7.254689E-1	7.497527E-1	7.498215E-1	7.373569E-1	7.832403E-1	7.473282E-1	8.108832E-1	8.272969E-1	7.746569E-1	7.770832E-1	7.260574E-1	7.819735E-1	7.715914E-1	7.819442E-1	7.266378E-1	7.815244E-1	7.051514E-1	7.460646E-1	7.716638E-1	7.064023E-1	7.565140E-1	7.501108E-1	7.517871E-1	7.516352E-1	7.564345E-1	7.430705E-1	7.386009E-1	7.771794E-1	7.488934E-1	7.787822E-1	7.469076E-1	8.158668E-1	7.505287E-1	7.326328E-1	7.729667E-1	7.469917E-1	7.681459E-1	7.344218E-1	7.984753E-1	7.660471E-1	7.241470E-1	7.154931E-1	7.206880E-1	7.475931E-1	7.366778E-1	7.681386E-1	7.414934E-1	7.708715E-1	7.418486E-1	7.279865E-1	7.237019E-1	7.041812E-1	7.484361E-1	7.343006E-1	7.495841E-1	7.376001E-1	7.676443E-1	7.563388E-1	7.568875E-1	7.919978E-1	7.231764E-1	7.957201E-1	7.756995E-1	7.760606E-1	7.669307E-1	7.755229E-1	7.676353E-1	7.518100E-1	7.615555E-1	7.620460E-1	7.191884E-1	7.453402E-1	7.611459E-1	7.759509E-1	7.187014E-1	7.595487E-1	7.540700E-1	7.926838E-1	6.956908E-1	7.526582E-1	7.416598E-1	7.774979E-1	7.561774E-1	7.565341E-1	7.576040E-1	7.979810E-1	7.549255E-1	7.434714E-1	7.668732E-1	7.791465E-1	7.184459E-1	7.869486E-1	7.080825E-1	7.901917E-1	7.631579E-1	7.482917E-1	7.550680E-1	8.057878E-1	7.316128E-1	7.717594E-1	8.000428E-1	7.444337E-1	7.990288E-1	7.428766E-1	7.864308E-1	7.655588E-1	7.938592E-1	7.515634E-1	7.154076E-1	7.473896E-1	7.863326E-1	7.201350E-1	7.499561E-1	8.027216E-1	7.385368E-1	7.302670E-1	7.295562E-1	7.592319E-1	7.195752E-1	7.677477E-1	7.207245E-1	7.875582E-1	6.403385E-1
5.382850E+2	8.847401E-1	8.643660E-1	8.330505E-1	8.682843E-1	8.985734E-1	9.135798E-1	8.657945E-1	9.179295E-1	9.074673E-1	8.996056E-1	8.965036E-1	8.406119E-1	8.631912E-1	8.681412E-1	8.940397E-1	8.823245E-1	9.511336E-1	9.181855E-1	8.882858E-1	8.857797E-1	9.045161E-1	9.166804E-1	9.048585E-1	9.471571E-1	8.839139E-1	9.030390E-1	8.996100E-1	8.818723E-1	8.816276E-1	8.736722E-1	8.653447E-1	9.030906E-1	8.805185E-1	8.874999E-1	9.058962E-1	8.757338E-1	9.195483E-1	8.866712E-1	9.229712E-1	8.724866E-1	9.065746E-1	9.581712E-1	9.093610E-1	8.802089E-1	9.033983E-1	8.901915E-1	8.503397E-1	8.893154E-1	9.433800E-1	8.802002E-1	9.080677E-1	9.433643E-1	8.492515E-1	9.162039E-1	8.995771E-1	8.752632E-1	9.187270E-1	9.303655E-1	9.399799E-1	8.921022E-1	9.304544E-1	8.944572E-1	8.801441E-1	8.981665E-1	8.687426E-1	8.722171E-1	9.044184E-1	8.376918E-1	8.287721E-1	8.831242E-1	9.154662E-1	9.058135E-1	9.310431E-1	9.361761E-1	8.899706E-1	8.565275E-1	9.298722E-1	8.612403E-1	9.014543E-1	9.248450E-1	9.269404E-1	9.398857E-1	9.064316E-1	8.911428E-1	8.751892E-1	9.358208E-1	9.230868E-1	8.490077E-1	8.927011E-1	9.010425E-1	9.050137E-1	8.281318E-1	8.939742E-1	8.772546E-1	9.214651E-1	8.316930E-1	8.726713E-1	9.019694E-1	8.394627E-1	8.615518E-1	8.608509E-1	9.314262E-1	8.876539E-1	8.952875E-1	8.593119E-1	8.639972E-1	8.927734E-1	9.172545E-1	8.771215E-1	8.637271E-1	8.731532E-1	8.572360E-1	8.594120E-1	8.302127E-1	8.926724E-1	8.974337E-1	8.839305E-1	8.997261E-1	9.506735E-1	9.515176E-1	8.316910E-1	9.084144E-1	8.992550E-1	8.738251E-1	8.996402E-1	8.901324E-1	9.147211E-1	8.428787E-1	8.819441E-1	9.343603E-1	8.780830E-1	8.836863E-1	8.765045E-1	8.900349E-1	8.756075E-1	8.958640E-1	8.896432E-1	8.897532E-1	8.883680E-1	9.014588E-1	8.719564E-1	9.030253E-1	8.813145E-1	8.669764E-1	9.365518E-1	8.586528E-1	8.669574E-1	8.750793E-1	9.459795E-1	9.362408E-1	8.922458E-1	8.490174E-1	8.910863E-1	8.898890E-1	8.148224E-1	8.778740E-1	8.746725E-1	8.657934E-1	8.551215E-1	8.964332E-1	8.235586E-1	9.092661E-1	8.000269E-1	9.117361E-1	8.367307E-1
5.385170E+2	1.030177E+0	1.075863E+0	1.098536E+0	1.093707E+0	1.070417E+0	1.103311E+0	1.156884E+0	1.056410E+0	1.022168E+0	1.035757E+0	1.105876E+0	1.144898E+0	1.064398E+0	1.055202E+0	1.085290E+0	1.066193E+0	1.146302E+0	1.110708E+0	1.109914E+0	1.128959E+0	1.106377E+0	1.095454E+0	1.088128E+0	1.085105E+0	1.116738E+0	1.134033E+0	1.117808E+0	1.116125E+0	1.107704E+0	1.060202E+0	1.032010E+0	1.097813E+0	1.096098E+0	1.125935E+0	1.147117E+0	1.114815E+0	1.123361E+0	1.104804E+0	1.053889E+0	1.097341E+0	1.057048E+0	1.099139E+0	1.124361E+0	1.070052E+0	1.074422E+0	1.066856E+0	1.049970E+0	1.074617E+0	1.078939E+0	1.102383E+0	1.109404E+0	1.052146E+0	1.036581E+0	1.101468E+0	1.062664E+0	1.051172E+0	1.065194E+0	1.125911E+0	1.053509E+0	1.135436E+0	1.082807E+0	1.038255E+0	1.042361E+0	1.071910E+0	1.105758E+0	1.086369E+0	1.103439E+0	1.113494E+0	1.052595E+0	1.067755E+0	1.123399E+0	1.098873E+0	1.067109E+0	1.063353E+0	1.067971E+0	1.074771E+0	1.095461E+0	1.029613E+0	1.062310E+0	1.104907E+0	1.094609E+0	1.113188E+0	1.058437E+0	1.065881E+0	1.054088E+0	1.081065E+0	1.132197E+0	1.082236E+0	1.141301E+0	1.114468E+0	1.090639E+0	1.092217E+0	1.068297E+0	1.057789E+0	1.087430E+0	1.073981E+0	1.128222E+0	1.017905E+0	1.103575E+0	1.064701E+0	1.057964E+0	1.050089E+0	1.079581E+0	1.025880E+0	1.041405E+0	1.046762E+0	1.048143E+0	1.042724E+0	1.059610E+0	1.061291E+0	1.076905E+0	1.060779E+0	1.079507E+0	1.048430E+0	1.115402E+0	1.099963E+0	1.080551E+0	1.116755E+0	1.116914E+0	1.080925E+0	1.113297E+0	1.056995E+0	1.063665E+0	1.093869E+0	1.086664E+0	1.071583E+0	1.063138E+0	1.093205E+0	1.083040E+0	1.025949E+0	1.102457E+0	1.157907E+0	1.102281E+0	1.081298E+0	1.081296E+0	1.031079E+0	1.060575E+0	1.132791E+0	1.048173E+0	1.099084E+0	1.069418E+0	1.069406E+0	1.076463E+0	1.058274E+0	1.062430E+0	1.116378E+0	1.100740E+0	1.058537E+0	1.074310E+0	1.070829E+0	1.091177E+0	1.053786E+0	1.082464E+0	1.098962E+0	1.089764E+0	1.114982E+0	1.058930E+0	1.110320E+0	1.041780E+0	1.056260E+0	1.051033E+0	1.063542E+0	1.006338E+0	1.046881E+0	1.105436E+0
5.387600E+2	1.280065E+0	1.367109E+0	1.326857E+0	1.253627E+0	1.281593E+0	1.325902E+0	1.337119E+0	1.301394E+0	1.254114E+0	1.249923E+0	1.309228E+0	1.292650E+0	1.300177E+0	1.274635E+0	1.316703E+0	1.261129E+0	1.364622E+0	1.339444E+0	1.306121E+0	1.333602E+0	1.290375E+0	1.386789E+0	1.342655E+0	1.304888E+0	1.391158E+0	1.342099E+0	1.343067E+0	1.322446E+0	1.313238E+0	1.301387E+0	1.290118E+0	1.343692E+0	1.308196E+0	1.269140E+0	1.278169E+0	1.400348E+0	1.330690E+0	1.346903E+0	1.367840E+0	1.328968E+0	1.284482E+0	1.306849E+0	1.290952E+0	1.285938E+0	1.271840E+0	1.286251E+0	1.310659E+0	1.285736E+0	1.344279E+0	1.303982E+0	1.381509E+0	1.265743E+0	1.276932E+0	1.291959E+0	1.296564E+0	1.287508E+0	1.245607E+0	1.343505E+0	1.358097E+0	1.294219E+0	1.330224E+0	1.301058E+0	1.280692E+0	1.278754E+0	1.338523E+0	1.315830E+0	1.273388E+0	1.326564E+0	1.319672E+0	1.247669E+0	1.354715E+0	1.333319E+0	1.316310E+0	1.328290E+0	1.357807E+0	1.301517E+0	1.306628E+0	1.299463E+0	1.316873E+0	1.330257E+0	1.309615E+0	1.291734E+0	1.279095E+0	1.305387E+0	1.318835E+0	1.336423E+0	1.362833E+0	1.334458E+0	1.314385E+0	1.354716E+0	1.331290E+0	1.332325E+0	1.302377E+0	1.323689E+0	1.275900E+0	1.293202E+0	1.300243E+0	1.263781E+0	1.345449E+0	1.274161E+0	1.314608E+0	1.228760E+0	1.313220E+0	1.285417E+0	1.278674E+0	1.292843E+0	1.263606E+0	1.288354E+0	1.280826E+0	1.267921E+0	1.323019E+0	1.297334E+0	1.286499E+0	1.278735E+0	1.348357E+0	1.338032E+0	1.288755E+0	1.329291E+0	1.351923E+0	1.317918E+0	1.267316E+0	1.337323E+0	1.269826E+0	1.281564E+0	1.320337E+0	1.363756E+0	1.336868E+0	1.240328E+0	1.294848E+0	1.263987E+0	1.278244E+0	1.309716E+0	1.319522E+0	1.314445E+0	1.315879E+0	1.326275E+0	1.290734E+0	1.275724E+0	1.314092E+0	1.296774E+0	1.239122E+0	1.334063E+0	1.228786E+0	1.309954E+0	1.260989E+0	1.237422E+0	1.285920E+0	1.248296E+0	1.317450E+0	1.270134E+0	1.257369E+0	1.318078E+0	1.306644E+0	1.360156E+0	1.260039E+0	1.397364E+0	1.333695E+0	1.297564E+0	1.301292E+0	1.289706E+0	1.221031E+0	1.238811E+0	1.319237E+0	1.264894E+0	1.217530E+0
5.390340E+2	1.553262E+0	1.536678E+0	1.450103E+0	1.443195E+0	1.487437E+0	1.457501E+0	1.524943E+0	1.475764E+0	1.536731E+0	1.450233E+0	1.501361E+0	1.493873E+0	1.503739E+0	1.486805E+0	1.499508E+0	1.427495E+0	1.550302E+0	1.449913E+0	1.475791E+0	1.470743E+0	1.542761E+0	1.495660E+0	1.474932E+0	1.518815E+0	1.461848E+0	1.469937E+0	1.495172E+0	1.488928E+0	1.442393E+0	1.508937E+0	1.515423E+0	1.541041E+0	1.548254E+0	1.430780E+0	1.453759E+0	1.474623E+0	1.449869E+0	1.486336E+0	1.508204E+0	1.526674E+0	1.436125E+0	1.513305E+0	1.567717E+0	1.506689E+0	1.507489E+0	1.471550E+0	1.464403E+0	1.499791E+0	1.563783E+0	1.487854E+0	1.503694E+0	1.436418E+0	1.443189E+0	1.456596E+0	1.538935E+0	1.497389E+0	1.478020E+0	1.500297E+0	1.460310E+0	1.458436E+0	1.489803E+0	1.504840E+0	1.436839E+0	1.503089E+0	1.472099E+0	1.486641E+0	1.440948E+0	1.468687E+0	1.444928E+0	1.472317E+0	1.541075E+0	1.527907E+0	1.528882E+0	1.540021E+0	1.497853E+0	1.436005E+0	1.463871E+0	1.442112E+0	1.434158E+0	1.508489E+0	1.504376E+0	1.415218E+0	1.465263E+0	1.489171E+0	1.531648E+0	1.566827E+0	1.513889E+0	1.503571E+0	1.462902E+0	1.548694E+0	1.509275E+0	1.523380E+0	1.510191E+0	1.447601E+0	1.502036E+0	1.458963E+0	1.494096E+0	1.465499E+0	1.477204E+0	1.468279E+0	1.478090E+0	1.466549E+0	1.440807E+0	1.427324E+0	1.453507E+0	1.480460E+0	1.497935E+0	1.558702E+0	1.459914E+0	1.472058E+0	1.468092E+0	1.506005E+0	1.472605E+0	1.436465E+0	1.495158E+0	1.526820E+0	1.442523E+0	1.525570E+0	1.445169E+0	1.434895E+0	1.443304E+0	1.486246E+0	1.519703E+0	1.492384E+0	1.490766E+0	1.426849E+0	1.505582E+0	1.440720E+0	1.433075E+0	1.430230E+0	1.490753E+0	1.490680E+0	1.478435E+0	1.530567E+0	1.460275E+0	1.410355E+0	1.534052E+0	1.481325E+0	1.456674E+0	1.490908E+0	1.444521E+0	1.475333E+0	1.490121E+0	1.442502E+0	1.435146E+0	1.482672E+0	1.424698E+0	1.410868E+0	1.469900E+0	1.412906E+0	1.444178E+0	1.498604E+0	1.471996E+0	1.515437E+0	1.437162E+0	1.520472E+0	1.420783E+0	1.474846E+0	1.421776E+0	1.500343E+0	1.404944E+0	1.439403E+0	1.405762E+0	1.490716E+0	1.416957E+0
5.392670E+2	1.651218E+0	1.765045E+0	1.712022E+0	1.648455E+0	1.635793E+0	1.662812E+0	1.695737E+0	1.681940E+0	1.630987E+0	1.686813E+0	1.656817E+0	1.719001E+0	1.658735E+0	1.681078E+0	1.687307E+0	1.664432E+0	1.777545E+0	1.657755E+0	1.672372E+0	1.707580E+0	1.702027E+0	1.652007E+0	1.732098E+0	1.658672E+0	1.676401E+0	1.646558E+0	1.684820E+0	1.740923E+0	1.660303E+0	1.635798E+0	1.658384E+0	1.727307E+0	1.715700E+0	1.631030E+0	1.710654E+0	1.707874E+0	1.645093E+0	1.709455E+0	1.726673E+0	1.705133E+0	1.637646E+0	1.732492E+0	1.674347E+0	1.670056E+0	1.673332E+0	1.706566E+0	1.617763E+0	1.678813E+0	1.796738E+0	1.658770E+0	1.720755E+0	1.638906E+0	1.656084E+0	1.682727E+0	1.747414E+0	1.723097E+0	1.611073E+0	1.676025E+0	1.629341E+0	1.711113E+0	1.691596E+0	1.685986E+0	1.641996E+0	1.725880E+0	1.634028E+0	1.619857E+0	1.707398E+0	1.691038E+0	1.649264E+0	1.628609E+0	1.770005E+0	1.754390E+0	1.695693E+0	1.649241E+0	1.693604E+0	1.704941E+0	1.714448E+0	1.616044E+0	1.619078E+0	1.669055E+0	1.672930E+0	1.688997E+0	1.644831E+0	1.721211E+0	1.743351E+0	1.747315E+0	1.726992E+0	1.602232E+0	1.590667E+0	1.666175E+0	1.683176E+0	1.637707E+0	1.657849E+0	1.649318E+0	1.702559E+0	1.612118E+0	1.694904E+0	1.688331E+0	1.700594E+0	1.715666E+0	1.649771E+0	1.660343E+0	1.618175E+0	1.685327E+0	1.613321E+0	1.671739E+0	1.744686E+0	1.717204E+0	1.659320E+0	1.564914E+0	1.686066E+0	1.677551E+0	1.719565E+0	1.557344E+0	1.723350E+0	1.651187E+0	1.610212E+0	1.657838E+0	1.680629E+0	1.583546E+0	1.670445E+0	1.696017E+0	1.627331E+0	1.680234E+0	1.688393E+0	1.614924E+0	1.633497E+0	1.577762E+0	1.655384E+0	1.626592E+0	1.651488E+0	1.647289E+0	1.641597E+0	1.681863E+0	1.641228E+0	1.652786E+0	1.639738E+0	1.655995E+0	1.594426E+0	1.584611E+0	1.639960E+0	1.651836E+0	1.654310E+0	1.648613E+0	1.711827E+0	1.646888E+0	1.686972E+0	1.595279E+0	1.697669E+0	1.640840E+0	1.655737E+0	1.603798E+0	1.591893E+0	1.657431E+0	1.633923E+0	1.666490E+0	1.601131E+0	1.562554E+0	1.566313E+0	1.594836E+0	1.587936E+0	1.632444E+0	1.679837E+0	1.696532E+0	1.578146E+0
5.395320E+2	1.893623E+0	1.909179E+0	1.860419E+0	1.826281E+0	1.854696E+0	1.772310E+0	1.910838E+0	1.825274E+0	1.832275E+0	1.867442E+0	1.895264E+0	1.931384E+0	1.890845E+0	1.828415E+0	1.869810E+0	1.773265E+0	1.878580E+0	1.822550E+0	1.889312E+0	1.870240E+0	1.800392E+0	1.836433E+0	1.844757E+0	1.846929E+0	1.937925E+0	1.803828E+0	1.798068E+0	1.962194E+0	1.777204E+0	1.806532E+0	1.898445E+0	1.876391E+0	1.868915E+0	1.755529E+0	1.851386E+0	1.825803E+0	1.873289E+0	1.816738E+0	1.883711E+0	1.928746E+0	1.835034E+0	1.855850E+0	1.861773E+0	1.881461E+0	1.822273E+0	1.799223E+0	1.871056E+0	1.839477E+0	1.873156E+0	1.865998E+0	1.926043E+0	1.849494E+0	1.791973E+0	1.870380E+0	1.845119E+0	1.953412E+0	1.849801E+0	1.852584E+0	1.814735E+0	1.826085E+0	1.821129E+0	1.868151E+0	1.828360E+0	1.790723E+0	1.851287E+0	1.805555E+0	1.813133E+0	1.816634E+0	1.823286E+0	1.794644E+0	1.852486E+0	1.865892E+0	1.776291E+0	1.896617E+0	1.830848E+0	1.841468E+0	1.910416E+0	1.735942E+0	1.936183E+0	1.836324E+0	1.940689E+0	1.818532E+0	1.832035E+0	1.868445E+0	1.764978E+0	1.791873E+0	1.894680E+0	1.845420E+0	1.882541E+0	1.797607E+0	1.834942E+0	1.827403E+0	1.758818E+0	1.794140E+0	1.816448E+0	1.865094E+0	1.871983E+0	1.755169E+0	1.860115E+0	1.841445E+0	1.860843E+0	1.817980E+0	1.723253E+0	1.803315E+0	1.798264E+0	1.815493E+0	1.849055E+0	1.848961E+0	1.867662E+0	1.795138E+0	1.883986E+0	1.829838E+0	1.798986E+0	1.731528E+0	1.836453E+0	1.806431E+0	1.798977E+0	1.824997E+0	1.818083E+0	1.830267E+0	1.781655E+0	1.931959E+0	1.821811E+0	1.819031E+0	1.811050E+0	1.787804E+0	1.846991E+0	1.876089E+0	1.839883E+0	1.772232E+0	1.790587E+0	1.872384E+0	1.836591E+0	1.821847E+0	1.796494E+0	1.800095E+0	1.749321E+0	1.831229E+0	1.796961E+0	1.861904E+0	1.753615E+0	1.747389E+0	1.847539E+0	1.783913E+0	1.901028E+0	1.764441E+0	1.776926E+0	1.746851E+0	1.861680E+0	1.832609E+0	1.788184E+0	1.792510E+0	1.876104E+0	1.838874E+0	1.791241E+0	1.820727E+0	1.705368E+0	1.867509E+0	1.775950E+0	1.757637E+0	1.698219E+0	1.857564E+0	1.742236E+0	1.834068E+0	1.672641E+0
5.397750E+2	2.016811E+0	2.162767E+0	2.058840E+0	1.993054E+0	1.988062E+0	1.994084E+0	2.078990E+0	2.025625E+0	2.025837E+0	1.946372E+0	2.085262E+0	2.027075E+0	2.012823E+0	2.021878E+0	2.018792E+0	2.069370E+0	2.048346E+0	1.967894E+0	2.074073E+0	2.052763E+0	2.016622E+0	2.001949E+0	1.998187E+0	2.037275E+0	2.107374E+0	1.972279E+0	1.946433E+0	2.016404E+0	1.942083E+0	1.993426E+0	1.996861E+0	1.964611E+0	2.008365E+0	1.989251E+0	2.024396E+0	1.962155E+0	1.987259E+0	2.057587E+0	2.084173E+0	1.981979E+0	1.900006E+0	2.007104E+0	2.000328E+0	1.952650E+0	1.989909E+0	2.054109E+0	2.003848E+0	2.001666E+0	2.081396E+0	2.091617E+0	2.142411E+0	2.013924E+0	1.956484E+0	2.006573E+0	2.107388E+0	2.047683E+0	1.984569E+0	2.016872E+0	2.063533E+0	2.105082E+0	2.065684E+0	1.948435E+0	1.934244E+0	1.978569E+0	1.966545E+0	2.045301E+0	1.979525E+0	2.052151E+0	1.972222E+0	1.933498E+0	2.007921E+0	2.012025E+0	2.074918E+0	1.963455E+0	2.060603E+0	2.042306E+0	2.023029E+0	1.915034E+0	2.035526E+0	2.002640E+0	1.947217E+0	2.074323E+0	1.940825E+0	2.031656E+0	2.041728E+0	1.986963E+0	2.081361E+0	1.953053E+0	2.058146E+0	1.991964E+0	2.016517E+0	2.003027E+0	1.984509E+0	1.953042E+0	1.993956E+0	1.915341E+0	2.042718E+0	1.879693E+0	2.055341E+0	1.926866E+0	2.019589E+0	1.939639E+0	1.953913E+0	1.971304E+0	2.036475E+0	1.924293E+0	2.006038E+0	2.076335E+0	1.921326E+0	1.979528E+0	2.027052E+0	2.009658E+0	1.991140E+0	1.905480E+0	1.953556E+0	1.992207E+0	1.976775E+0	1.943630E+0	2.005947E+0	2.003318E+0	1.963610E+0	1.946301E+0	1.989623E+0	1.998824E+0	1.966771E+0	1.992888E+0	1.963173E+0	1.941925E+0	2.011766E+0	1.916565E+0	1.940438E+0	1.876982E+0	2.003485E+0	2.038588E+0	1.909509E+0	1.949035E+0	1.911984E+0	1.943000E+0	1.922261E+0	1.993592E+0	1.874043E+0	1.888539E+0	1.979131E+0	1.891295E+0	2.036612E+0	1.840650E+0	1.978958E+0	1.900505E+0	2.030587E+0	1.931734E+0	2.050841E+0	1.859982E+0	1.997348E+0	1.987390E+0	1.892752E+0	1.928100E+0	1.905083E+0	1.936836E+0	1.888104E+0	1.991119E+0	1.877421E+0	1.870555E+0	1.840345E+0	1.922930E+0	1.824667E+0
5.400190E+2	2.129298E+0	2.142888E+0	2.103120E+0	2.023712E+0	2.095751E+0	2.020977E+0	2.120269E+0	2.092578E+0	2.162996E+0	2.170842E+0	2.187066E+0	2.150090E+0	2.152253E+0	2.100735E+0	2.039292E+0	2.059229E+0	2.065554E+0	2.043708E+0	2.159024E+0	2.026748E+0	2.129490E+0	2.068848E+0	2.130832E+0	2.148099E+0	2.041808E+0	2.134607E+0	2.149331E+0	2.166177E+0	2.110108E+0	2.092108E+0	2.066514E+0	2.165310E+0	2.143906E+0	2.103808E+0	2.088335E+0	2.109519E+0	2.095769E+0	2.177532E+0	2.187609E+0	2.114170E+0	2.079512E+0	2.137199E+0	2.151024E+0	2.166712E+0	2.145016E+0	2.065409E+0	2.067235E+0	2.081786E+0	2.123443E+0	2.042646E+0	2.192648E+0	2.184569E+0	2.118122E+0	2.089834E+0	2.204476E+0	2.135148E+0	2.022751E+0	2.141069E+0	2.055012E+0	2.081481E+0	2.117601E+0	1.981522E+0	2.021827E+0	2.057376E+0	2.178590E+0	2.106548E+0	2.154274E+0	2.140698E+0	2.041819E+0	2.046063E+0	2.085308E+0	2.160848E+0	2.045393E+0	2.086735E+0	2.078644E+0	2.086275E+0	2.120138E+0	2.078516E+0	2.049569E+0	2.095767E+0	2.054836E+0	2.072480E+0	2.087147E+0	2.105560E+0	2.158121E+0	2.016777E+0	2.060464E+0	2.107614E+0	2.107553E+0	2.071783E+0	2.136441E+0	2.094969E+0	2.095563E+0	2.002680E+0	2.108182E+0	2.072267E+0	2.067696E+0	2.037384E+0	2.151267E+0	2.044677E+0	2.040009E+0	2.074096E+0	2.148529E+0	2.090032E+0	2.152508E+0	2.079896E+0	2.099186E+0	2.099596E+0	2.059528E+0	1.979874E+0	2.043926E+0	2.057185E+0	2.038836E+0	1.935988E+0	2.083407E+0	2.061683E+0	2.174223E+0	2.040337E+0	2.134564E+0	2.047699E+0	2.021147E+0	2.027384E+0	2.026837E+0	2.064736E+0	2.063022E+0	1.977673E+0	2.051920E+0	1.996201E+0	2.053683E+0	2.038146E+0	2.030628E+0	2.065678E+0	2.028127E+0	1.984780E+0	2.124780E+0	2.088927E+0	1.989233E+0	2.100401E+0	2.103803E+0	1.997417E+0	1.967930E+0	2.027401E+0	2.064222E+0	2.025385E+0	2.030601E+0	2.050866E+0	2.069895E+0	2.058111E+0	2.086490E+0	2.067527E+0	2.038711E+0	2.017905E+0	2.068669E+0	2.148013E+0	1.936959E+0	2.025898E+0	1.990139E+0	1.991451E+0	2.028321E+0	2.048566E+0	1.981130E+0	1.993885E+0	2.106514E+0	2.162881E+0	1.965725E+0
5.402530E+2	2.117514E+0	2.118888E+0	2.089610E+0	2.110088E+0	2.093482E+0	2.094579E+0	2.155143E+0	2.055133E+0	2.032223E+0	2.060127E+0	2.074830E+0	2.172333E+0	2.092673E+0	2.070867E+0	2.106176E+0	2.074420E+0	2.050833E+0	2.007888E+0	2.108453E+0	2.008694E+0	2.050010E+0	2.081645E+0	2.089107E+0	2.034416E+0	2.027234E+0	2.066423E+0	2.130782E+0	2.120443E+0	1.990028E+0	2.030181E+0	2.086836E+0	2.029497E+0	2.051947E+0	1.998813E+0	2.046880E+0	2.034813E+0	2.057975E+0	2.098040E+0	2.099569E+0	2.135533E+0	1.998954E+0	2.064522E+0	2.155111E+0	2.078291E+0	2.101628E+0	2.059529E+0	2.040794E+0	2.081887E+0	2.091793E+0	1.989339E+0	2.117701E+0	2.082853E+0	2.060709E+0	2.030508E+0	2.065877E+0	2.076663E+0	2.035897E+0	2.039634E+0	2.168979E+0	2.126007E+0	2.037361E+0	2.008269E+0	1.988564E+0	2.046980E+0	2.080301E+0	2.030579E+0	1.994437E+0	2.030523E+0	1.988556E+0	1.992298E+0	2.113988E+0	2.034664E+0	2.041867E+0	2.075168E+0	2.046643E+0	2.020077E+0	2.070757E+0	1.970304E+0	1.938655E+0	2.089259E+0	2.043661E+0	2.023784E+0	2.072328E+0	2.043899E+0	2.064181E+0	2.088677E+0	2.160908E+0	2.032798E+0	2.028445E+0	2.066457E+0	2.086137E+0	1.983584E+0	2.018161E+0	2.017824E+0	2.056148E+0	2.072919E+0	2.059559E+0	1.916931E+0	2.070071E+0	2.027076E+0	1.986653E+0	2.034086E+0	2.026723E+0	1.998025E+0	2.014879E+0	1.993534E+0	2.074605E+0	2.050345E+0	2.019636E+0	2.000270E+0	2.013711E+0	2.033408E+0	1.999231E+0	1.956731E+0	2.087866E+0	2.022662E+0	1.946058E+0	2.013202E+0	2.094519E+0	2.062824E+0	2.046057E+0	2.006637E+0	2.076773E+0	1.964250E+0	2.030286E+0	1.983546E+0	1.978426E+0	1.966123E+0	1.997826E+0	2.018415E+0	1.997485E+0	2.068145E+0	2.023414E+0	1.916323E+0	2.044131E+0	2.033763E+0	1.919850E+0	1.991898E+0	2.053950E+0	2.109862E+0	2.005033E+0	1.951159E+0	1.978886E+0	1.982164E+0	2.174178E+0	1.940973E+0	1.988823E+0	1.937786E+0	2.050628E+0	1.990848E+0	2.042992E+0	1.993229E+0	2.060071E+0	2.067412E+0	1.943573E+0	2.052959E+0	1.941618E+0	1.966627E+0	2.016064E+0	1.984861E+0	1.988079E+0	1.996279E+0	1.963618E+0	2.056505E+0	1.799911E+0
5.405080E+2	2.021817E+0	2.119174E+0	2.017730E+0	2.034833E+0	2.092665E+0	2.085478E+0	2.050341E+0	2.041797E+0	2.027742E+0	2.063816E+0	2.109271E+0	1.999060E+0	2.054228E+0	1.986209E+0	2.046950E+0	1.975977E+0	2.027899E+0	2.019106E+0	2.014852E+0	2.045901E+0	2.050874E+0	1.920066E+0	2.047566E+0	1.984685E+0	1.987121E+0	1.988333E+0	2.019121E+0	2.009852E+0	2.014079E+0	1.994851E+0	1.960371E+0	1.999455E+0	2.112892E+0	2.051572E+0	1.991915E+0	2.075835E+0	2.027777E+0	2.056583E+0	2.014390E+0	1.997026E+0	1.968386E+0	2.012348E+0	2.050636E+0	1.977612E+0	2.050144E+0	1.987716E+0	2.036590E+0	2.016761E+0	2.019609E+0	2.052674E+0	2.119334E+0	1.978963E+0	1.983465E+0	1.992005E+0	2.013324E+0	2.066224E+0	1.940013E+0	1.978570E+0	2.111550E+0	2.021027E+0	2.032131E+0	2.021197E+0	1.976193E+0	1.973604E+0	2.138099E+0	2.023551E+0	1.964896E+0	1.972221E+0	1.973176E+0	1.998705E+0	2.034856E+0	2.054801E+0	2.061617E+0	2.040435E+0	2.021999E+0	2.033239E+0	2.092221E+0	1.992611E+0	2.027692E+0	1.953624E+0	2.040482E+0	1.924015E+0	1.976247E+0	2.051038E+0	2.002744E+0	1.966262E+0	2.038792E+0	2.020650E+0	1.936863E+0	1.995184E+0	1.986664E+0	1.988997E+0	1.954363E+0	1.938439E+0	2.018974E+0	1.987942E+0	2.064419E+0	1.897152E+0	1.961540E+0	2.034050E+0	1.983471E+0	1.956633E+0	1.923908E+0	2.010647E+0	1.993161E+0	1.910373E+0	1.988689E+0	1.971105E+0	1.979818E+0	1.967414E+0	2.039646E+0	1.986234E+0	1.921155E+0	1.938441E+0	2.016956E+0	1.996525E+0	1.976971E+0	1.971086E+0	2.028167E+0	2.071767E+0	1.943832E+0	1.968900E+0	1.931816E+0	1.994139E+0	1.980622E+0	1.942926E+0	2.030123E+0	1.957183E+0	2.029866E+0	1.944372E+0	1.969032E+0	1.934186E+0	1.933924E+0	1.907192E+0	1.906562E+0	1.888876E+0	1.922034E+0	1.999189E+0	1.969869E+0	1.996225E+0	1.977427E+0	1.914191E+0	2.008934E+0	1.971471E+0	2.025251E+0	1.875800E+0	1.963217E+0	1.846526E+0	2.012732E+0	1.951609E+0	1.953028E+0	1.908495E+0	1.902695E+0	1.882369E+0	1.876752E+0	1.984353E+0	1.942157E+0	1.936026E+0	1.969143E+0	1.952965E+0	1.917349E+0	1.885571E+0	1.970469E+0	2.075202E+0	1.772009E+0
5.407630E+2	1.840915E+0	1.912816E+0	1.862334E+0	1.841147E+0	1.877545E+0	1.818341E+0	1.858166E+0	1.905200E+0	1.785833E+0	1.830444E+0	1.834796E+0	1.806134E+0	1.865065E+0	1.854734E+0	1.814425E+0	1.757720E+0	1.843542E+0	1.807450E+0	1.898530E+0	1.836956E+0	1.824119E+0	1.796899E+0	1.865176E+0	1.862291E+0	1.866156E+0	1.827101E+0	1.890292E+0	1.899107E+0	1.820187E+0	1.804387E+0	1.749504E+0	1.799317E+0	1.834999E+0	1.825403E+0	1.833000E+0	1.880159E+0	1.860924E+0	1.838401E+0	1.915435E+0	1.896100E+0	1.758804E+0	1.803714E+0	1.878633E+0	1.808772E+0	1.856349E+0	1.796619E+0	1.776756E+0	1.829536E+0	1.854941E+0	1.830956E+0	1.961112E+0	1.842885E+0	1.770714E+0	1.804429E+0	1.839581E+0	1.859411E+0	1.811652E+0	1.837594E+0	1.869142E+0	1.768316E+0	1.831132E+0	1.792552E+0	1.755560E+0	1.772002E+0	1.854505E+0	1.805677E+0	1.839080E+0	1.859923E+0	1.835219E+0	1.770076E+0	1.861394E+0	1.865005E+0	1.887604E+0	1.757130E+0	1.797080E+0	1.840374E+0	1.834180E+0	1.787178E+0	1.901466E+0	1.845494E+0	1.821014E+0	1.810758E+0	1.791026E+0	1.855624E+0	1.738090E+0	1.798391E+0	1.877902E+0	1.801837E+0	1.848253E+0	1.785125E+0	1.831944E+0	1.771221E+0	1.863023E+0	1.749495E+0	1.756732E+0	1.828976E+0	1.882825E+0	1.791659E+0	1.912266E+0	1.824496E+0	1.848892E+0	1.850218E+0	1.769013E+0	1.814748E+0	1.780043E+0	1.775955E+0	1.803215E+0	1.878108E+0	1.771248E+0	1.744496E+0	1.859811E+0	1.803050E+0	1.811068E+0	1.720973E+0	1.863612E+0	1.809664E+0	1.740352E+0	1.808173E+0	1.826262E+0	1.728404E+0	1.778746E+0	1.772847E+0	1.787438E+0	1.799842E+0	1.769696E+0	1.767321E+0	1.792212E+0	1.821891E+0	1.776481E+0	1.741135E+0	1.824497E+0	1.812476E+0	1.826099E+0	1.791699E+0	1.778522E+0	1.824137E+0	1.787004E+0	1.741478E+0	1.775764E+0	1.825728E+0	1.809844E+0	1.689825E+0	1.816007E+0	1.822246E+0	1.821626E+0	1.764360E+0	1.839873E+0	1.698076E+0	1.812209E+0	1.831939E+0	1.811526E+0	1.713439E+0	1.803799E+0	1.797798E+0	1.741408E+0	1.855855E+0	1.744777E+0	1.756534E+0	1.768285E+0	1.817165E+0	1.766182E+0	1.744285E+0	1.754531E+0	1.765364E+0	1.731990E+0
5.410190E+2	1.713075E+0	1.804139E+0	1.781612E+0	1.751445E+0	1.884315E+0	1.719365E+0	1.768998E+0	1.780545E+0	1.762701E+0	1.752137E+0	1.785211E+0	1.740062E+0	1.745649E+0	1.770818E+0	1.776580E+0	1.755031E+0	1.777363E+0	1.715480E+0	1.713256E+0	1.697314E+0	1.701560E+0	1.726489E+0	1.781693E+0	1.693481E+0	1.791791E+0	1.747371E+0	1.717879E+0	1.830382E+0	1.756301E+0	1.753923E+0	1.691077E+0	1.748757E+0	1.766252E+0	1.715475E+0	1.740631E+0	1.771986E+0	1.721107E+0	1.764167E+0	1.789993E+0	1.769899E+0	1.734313E+0	1.774353E+0	1.704922E+0	1.727723E+0	1.752864E+0	1.753405E+0	1.702650E+0	1.739655E+0	1.769206E+0	1.713259E+0	1.807826E+0	1.765364E+0	1.715775E+0	1.722162E+0	1.766351E+0	1.798265E+0	1.685478E+0	1.790744E+0	1.702062E+0	1.697668E+0	1.761573E+0	1.718544E+0	1.694285E+0	1.747712E+0	1.734173E+0	1.691689E+0	1.726454E+0	1.777837E+0	1.704858E+0	1.709894E+0	1.815417E+0	1.702778E+0	1.708919E+0	1.674258E+0	1.764294E+0	1.671293E+0	1.778920E+0	1.657314E+0	1.735361E+0	1.755945E+0	1.790835E+0	1.708606E+0	1.768065E+0	1.755421E+0	1.666320E+0	1.728824E+0	1.834811E+0	1.731235E+0	1.747992E+0	1.771273E+0	1.785518E+0	1.771418E+0	1.786534E+0	1.682647E+0	1.703636E+0	1.724744E+0	1.756369E+0	1.658963E+0	1.704767E+0	1.714763E+0	1.700375E+0	1.732185E+0	1.664325E+0	1.712404E+0	1.765071E+0	1.650120E+0	1.684055E+0	1.729344E+0	1.695904E+0	1.700869E+0	1.740869E+0	1.708134E+0	1.762281E+0	1.666709E+0	1.665449E+0	1.740621E+0	1.674149E+0	1.718826E+0	1.757713E+0	1.740252E+0	1.651843E+0	1.693523E+0	1.756314E+0	1.761008E+0	1.656001E+0	1.678554E+0	1.695938E+0	1.710256E+0	1.746803E+0	1.689951E+0	1.744245E+0	1.718372E+0	1.712250E+0	1.673062E+0	1.691883E+0	1.732939E+0	1.674672E+0	1.601904E+0	1.719015E+0	1.731066E+0	1.696988E+0	1.689494E+0	1.806593E+0	1.683325E+0	1.763966E+0	1.631673E+0	1.737698E+0	1.702051E+0	1.713430E+0	1.646323E+0	1.676483E+0	1.684872E+0	1.720915E+0	1.692419E+0	1.686655E+0	1.789382E+0	1.692748E+0	1.670831E+0	1.656039E+0	1.710108E+0	1.706265E+0	1.646423E+0	1.640946E+0	1.784388E+0	1.611279E+0
5.412690E+2	1.778491E+0	1.887160E+0	1.777657E+0	1.723662E+0	1.788329E+0	1.860722E+0	1.823020E+0	1.770571E+0	1.767704E+0	1.780986E+0	1.798679E+0	1.782829E+0	1.843412E+0	1.779522E+0	1.828014E+0	1.762628E+0	1.802612E+0	1.757167E+0	1.790137E+0	1.782951E+0	1.781687E+0	1.757648E+0	1.740147E+0	1.772165E+0	1.803994E+0	1.751030E+0	1.810280E+0	1.800843E+0	1.740845E+0	1.784010E+0	1.813861E+0	1.806653E+0	1.701113E+0	1.775955E+0	1.728739E+0	1.834214E+0	1.768278E+0	1.815864E+0	1.820344E+0	1.808945E+0	1.753797E+0	1.723089E+0	1.779661E+0	1.741510E+0	1.775278E+0	1.746094E+0	1.780400E+0	1.790401E+0	1.792865E+0	1.761448E+0	1.848831E+0	1.761096E+0	1.811999E+0	1.738898E+0	1.826905E+0	1.817593E+0	1.743014E+0	1.736600E+0	1.727289E+0	1.768216E+0	1.765723E+0	1.761462E+0	1.715035E+0	1.744223E+0	1.758995E+0	1.814815E+0	1.726763E+0	1.828661E+0	1.699311E+0	1.732804E+0	1.785272E+0	1.823802E+0	1.795911E+0	1.756151E+0	1.766478E+0	1.729285E+0	1.783205E+0	1.705266E+0	1.713856E+0	1.731994E+0	1.742827E+0	1.699102E+0	1.733157E+0	1.733774E+0	1.788249E+0	1.703761E+0	1.777221E+0	1.741320E+0	1.793065E+0	1.697238E+0	1.801448E+0	1.787348E+0	1.771186E+0	1.690602E+0	1.751939E+0	1.692702E+0	1.754582E+0	1.686014E+0	1.818055E+0	1.689449E+0	1.749838E+0	1.761390E+0	1.771945E+0	1.762889E+0	1.719174E+0	1.744665E+0	1.783968E+0	1.778438E+0	1.722230E+0	1.796498E+0	1.764132E+0	1.741552E+0	1.750771E+0	1.703652E+0	1.707880E+0	1.788879E+0	1.710623E+0	1.731530E+0	1.806419E+0	1.784946E+0	1.706586E+0	1.755647E+0	1.699263E+0	1.762452E+0	1.727851E+0	1.691469E+0	1.763379E+0	1.729781E+0	1.751273E+0	1.647752E+0	1.712438E+0	1.727850E+0	1.728495E+0	1.771673E+0	1.729377E+0	1.723587E+0	1.672288E+0	1.732483E+0	1.720201E+0	1.717061E+0	1.739664E+0	1.671026E+0	1.723550E+0	1.692699E+0	1.780064E+0	1.690754E+0	1.770776E+0	1.729287E+0	1.748088E+0	1.705311E+0	1.796504E+0	1.682692E+0	1.745018E+0	1.721442E+0	1.701495E+0	1.806421E+0	1.736487E+0	1.664086E+0	1.698696E+0	1.728495E+0	1.673012E+0	1.625510E+0	1.637814E+0	1.874307E+0	1.685277E+0
5.415090E+2	1.766939E+0	1.732363E+0	1.706355E+0	1.659376E+0	1.734981E+0	1.729637E+0	1.718111E+0	1.727854E+0	1.766489E+0	1.673389E+0	1.756022E+0	1.749315E+0	1.716365E+0	1.625420E+0	1.733511E+0	1.713841E+0	1.749299E+0	1.704940E+0	1.652106E+0	1.649034E+0	1.743716E+0	1.690144E+0	1.769060E+0	1.718124E+0	1.694929E+0	1.715535E+0	1.698414E+0	1.765871E+0	1.675157E+0	1.730897E+0	1.781147E+0	1.708127E+0	1.749145E+0	1.731215E+0	1.707176E+0	1.673851E+0	1.694571E+0	1.651050E+0	1.770183E+0	1.688691E+0	1.718693E+0	1.699274E+0	1.726037E+0	1.652979E+0	1.722499E+0	1.712491E+0	1.747455E+0	1.715159E+0	1.721826E+0	1.751870E+0	1.775852E+0	1.773996E+0	1.712188E+0	1.696211E+0	1.759322E+0	1.743054E+0	1.634411E+0	1.761215E+0	1.704323E+0	1.720717E+0	1.785296E+0	1.696986E+0	1.618074E+0	1.664690E+0	1.750369E+0	1.729138E+0	1.743602E+0	1.684870E+0	1.635609E+0	1.684110E+0	1.750875E+0	1.752199E+0	1.683919E+0	1.728803E+0	1.661322E+0	1.770942E+0	1.733668E+0	1.672043E+0	1.732383E+0	1.686338E+0	1.677594E+0	1.684282E+0	1.665042E+0	1.702993E+0	1.631372E+0	1.707294E+0	1.779891E+0	1.694051E+0	1.649670E+0	1.651846E+0	1.705304E+0	1.738634E+0	1.678293E+0	1.662246E+0	1.741838E+0	1.719379E+0	1.689041E+0	1.649867E+0	1.708014E+0	1.703667E+0	1.658161E+0	1.649707E+0	1.729060E+0	1.707552E+0	1.729389E+0	1.683164E+0	1.697387E+0	1.730796E+0	1.685648E+0	1.657354E+0	1.647408E+0	1.711977E+0	1.721554E+0	1.616101E+0	1.647709E+0	1.686792E+0	1.715801E+0	1.631292E+0	1.716501E+0	1.743500E+0	1.618725E+0	1.687487E+0	1.737413E+0	1.753950E+0	1.689680E+0	1.725145E+0	1.722392E+0	1.649011E+0	1.681794E+0	1.605332E+0	1.695852E+0	1.593222E+0	1.646425E+0	1.639191E+0	1.642361E+0	1.641594E+0	1.711703E+0	1.725881E+0	1.693802E+0	1.681566E+0	1.649020E+0	1.670096E+0	1.662555E+0	1.633072E+0	1.718254E+0	1.701958E+0	1.699857E+0	1.680467E+0	1.692822E+0	1.614469E+0	1.657275E+0	1.608380E+0	1.659413E+0	1.653455E+0	1.786208E+0	1.700567E+0	1.693568E+0	1.664720E+0	1.668231E+0	1.660218E+0	1.647751E+0	1.629930E+0	1.583334E+0	1.732250E+0	1.712635E+0
5.417650E+2	1.495445E+0	1.530706E+0	1.557655E+0	1.551673E+0	1.547325E+0	1.579756E+0	1.612659E+0	1.547671E+0	1.562109E+0	1.497227E+0	1.554070E+0	1.496029E+0	1.540841E+0	1.519348E+0	1.539391E+0	1.520617E+0	1.521476E+0	1.521667E+0	1.468628E+0	1.522543E+0	1.497496E+0	1.523806E+0	1.510727E+0	1.551364E+0	1.542244E+0	1.471431E+0	1.556936E+0	1.566488E+0	1.477821E+0	1.460965E+0	1.461737E+0	1.539462E+0	1.497912E+0	1.483460E+0	1.495372E+0	1.576734E+0	1.494362E+0	1.529274E+0	1.546745E+0	1.517836E+0	1.465957E+0	1.460966E+0	1.527526E+0	1.531922E+0	1.571422E+0	1.515516E+0	1.545896E+0	1.529741E+0	1.547319E+0	1.526897E+0	1.612090E+0	1.523215E+0	1.465086E+0	1.492088E+0	1.503758E+0	1.513071E+0	1.505954E+0	1.542092E+0	1.552258E+0	1.497640E+0	1.565939E+0	1.503010E+0	1.517296E+0	1.481327E+0	1.571098E+0	1.521333E+0	1.491491E+0	1.545422E+0	1.598948E+0	1.437763E+0	1.580394E+0	1.544493E+0	1.510848E+0	1.470317E+0	1.551726E+0	1.514508E+0	1.552071E+0	1.511659E+0	1.576474E+0	1.506519E+0	1.550617E+0	1.538164E+0	1.515041E+0	1.490382E+0	1.563188E+0	1.517162E+0	1.574938E+0	1.518291E+0	1.514880E+0	1.507166E+0	1.586172E+0	1.549528E+0	1.549742E+0	1.488434E+0	1.478417E+0	1.575525E+0	1.499337E+0	1.488119E+0	1.548898E+0	1.472474E+0	1.466324E+0	1.485379E+0	1.523884E+0	1.545220E+0	1.513531E+0	1.510395E+0	1.532191E+0	1.525416E+0	1.484743E+0	1.494198E+0	1.501979E+0	1.557671E+0	1.546683E+0	1.459733E+0	1.537193E+0	1.563545E+0	1.505659E+0	1.518963E+0	1.556627E+0	1.524902E+0	1.474880E+0	1.519419E+0	1.489491E+0	1.536994E+0	1.509704E+0	1.466584E+0	1.512564E+0	1.478197E+0	1.504749E+0	1.428687E+0	1.497198E+0	1.499226E+0	1.531340E+0	1.526403E+0	1.492024E+0	1.486339E+0	1.487369E+0	1.508037E+0	1.520203E+0	1.578684E+0	1.488609E+0	1.444593E+0	1.530879E+0	1.528202E+0	1.552673E+0	1.489101E+0	1.553890E+0	1.414649E+0	1.480075E+0	1.498587E+0	1.592138E+0	1.436969E+0	1.504233E+0	1.534246E+0	1.502646E+0	1.490813E+0	1.448617E+0	1.527668E+0	1.454678E+0	1.537476E+0	1.486704E+0	1.486839E+0	1.436755E+0	1.625974E+0	1.453399E+0
5.420160E+2	1.291104E+0	1.339600E+0	1.287780E+0	1.318932E+0	1.299943E+0	1.369692E+0	1.235402E+0	1.296985E+0	1.272349E+0	1.302934E+0	1.327214E+0	1.286481E+0	1.285005E+0	1.307186E+0	1.282620E+0	1.241125E+0	1.346733E+0	1.279583E+0	1.295196E+0	1.298055E+0	1.324108E+0	1.317632E+0	1.302051E+0	1.301662E+0	1.289823E+0	1.259436E+0	1.322008E+0	1.381973E+0	1.276732E+0	1.306365E+0	1.254057E+0	1.288170E+0	1.278809E+0	1.303824E+0	1.284180E+0	1.303627E+0	1.272696E+0	1.254500E+0	1.292972E+0	1.342267E+0	1.266242E+0	1.286779E+0	1.315910E+0	1.309397E+0	1.323424E+0	1.280437E+0	1.317611E+0	1.291609E+0	1.372344E+0	1.315490E+0	1.307914E+0	1.291660E+0	1.303459E+0	1.247032E+0	1.289123E+0	1.333437E+0	1.266021E+0	1.317292E+0	1.336839E+0	1.283560E+0	1.292990E+0	1.255076E+0	1.239757E+0	1.305013E+0	1.353905E+0	1.313240E+0	1.276962E+0	1.280677E+0	1.277913E+0	1.209774E+0	1.328622E+0	1.329571E+0	1.327647E+0	1.301765E+0	1.336718E+0	1.207610E+0	1.349743E+0	1.296304E+0	1.322668E+0	1.306816E+0	1.305921E+0	1.254438E+0	1.259438E+0	1.334395E+0	1.290788E+0	1.317558E+0	1.313442E+0	1.333614E+0	1.283541E+0	1.302432E+0	1.314469E+0	1.341570E+0	1.260377E+0	1.228441E+0	1.314876E+0	1.309643E+0	1.321577E+0	1.238992E+0	1.319796E+0	1.367482E+0	1.289397E+0	1.282323E+0	1.337969E+0	1.301199E+0	1.308754E+0	1.298300E+0	1.349734E+0	1.353904E+0	1.340012E+0	1.243356E+0	1.350471E+0	1.238988E+0	1.266490E+0	1.204725E+0	1.295818E+0	1.293344E+0	1.298561E+0	1.270877E+0	1.357698E+0	1.262608E+0	1.240318E+0	1.294513E+0	1.328102E+0	1.325334E+0	1.268934E+0	1.244076E+0	1.325397E+0	1.294481E+0	1.304974E+0	1.264924E+0	1.292406E+0	1.294758E+0	1.296256E+0	1.346212E+0	1.266051E+0	1.282748E+0	1.295455E+0	1.206140E+0	1.296684E+0	1.380386E+0	1.303380E+0	1.306120E+0	1.380669E+0	1.304132E+0	1.337885E+0	1.282553E+0	1.349401E+0	1.250260E+0	1.294551E+0	1.302338E+0	1.284165E+0	1.212303E+0	1.341949E+0	1.227704E+0	1.262409E+0	1.301943E+0	1.268680E+0	1.247413E+0	1.224000E+0	1.298349E+0	1.246798E+0	1.192599E+0	1.288359E+0	1.389175E+0	1.196850E+0
5.422780E+2	1.142687E+0	1.164696E+0	1.162556E+0	1.231310E+0	1.162800E+0	1.168939E+0	1.151777E+0	1.152398E+0	1.141790E+0	1.199978E+0	1.170346E+0	1.184085E+0	1.168559E+0	1.153244E+0	1.179641E+0	1.126033E+0	1.184532E+0	1.219419E+0	1.150057E+0	1.114459E+0	1.203998E+0	1.171032E+0	1.186290E+0	1.145371E+0	1.142633E+0	1.163130E+0	1.153722E+0	1.166317E+0	1.154061E+0	1.193263E+0	1.166683E+0	1.163466E+0	1.191004E+0	1.163922E+0	1.174656E+0	1.163205E+0	1.140591E+0	1.162580E+0	1.198528E+0	1.138010E+0	1.219871E+0	1.151911E+0	1.206699E+0	1.193383E+0	1.208460E+0	1.138819E+0	1.202088E+0	1.177809E+0	1.206644E+0	1.172965E+0	1.121634E+0	1.183183E+0	1.219302E+0	1.166110E+0	1.167040E+0	1.143923E+0	1.193874E+0	1.171859E+0	1.185845E+0	1.130662E+0	1.158994E+0	1.113262E+0	1.135526E+0	1.137741E+0	1.181164E+0	1.176762E+0	1.158471E+0	1.212024E+0	1.154537E+0	1.168673E+0	1.206350E+0	1.214067E+0	1.203371E+0	1.128423E+0	1.186417E+0	1.142696E+0	1.158624E+0	1.135745E+0	1.159932E+0	1.165052E+0	1.251633E+0	1.196698E+0	1.187942E+0	1.177989E+0	1.202065E+0	1.067277E+0	1.268022E+0	1.231133E+0	1.199401E+0	1.161185E+0	1.162690E+0	1.197573E+0	1.140326E+0	1.168046E+0	1.199786E+0	1.109124E+0	1.150817E+0	1.117167E+0	1.173433E+0	1.138091E+0	1.203968E+0	1.159013E+0	1.170788E+0	1.183740E+0	1.096871E+0	1.141277E+0	1.181298E+0	1.257534E+0	1.139386E+0	1.180261E+0	1.164506E+0	1.172884E+0	1.151793E+0	1.135532E+0	1.194276E+0	1.195370E+0	1.209063E+0	1.164879E+0	1.137445E+0	1.205433E+0	1.165249E+0	1.156570E+0	1.124796E+0	1.219146E+0	1.166544E+0	1.144000E+0	1.180711E+0	1.184847E+0	1.164662E+0	1.143965E+0	1.159196E+0	1.181773E+0	1.198299E+0	1.171690E+0	1.212550E+0	1.226335E+0	1.137693E+0	1.250515E+0	1.159786E+0	1.198685E+0	1.161076E+0	1.158051E+0	1.130490E+0	1.167662E+0	1.175337E+0	1.163301E+0	1.170390E+0	1.212748E+0	1.119543E+0	1.187178E+0	1.245816E+0	1.150654E+0	1.151768E+0	1.116961E+0	1.113914E+0	1.192272E+0	1.132880E+0	1.110339E+0	1.185454E+0	1.139671E+0	1.120012E+0	1.100494E+0	1.164866E+0	1.245840E+0	1.185361E+0
5.425080E+2	9.640734E-1	1.074681E+0	1.016462E+0	1.003768E+0	1.053630E+0	1.031403E+0	9.815395E-1	1.011500E+0	9.929842E-1	1.022251E+0	1.035697E+0	1.084996E+0	1.066038E+0	1.000981E+0	1.065105E+0	1.024716E+0	1.084480E+0	1.031971E+0	1.066859E+0	9.775692E-1	1.010306E+0	9.983341E-1	1.042652E+0	1.075797E+0	1.040883E+0	1.064940E+0	1.002675E+0	1.091296E+0	1.021553E+0	1.026181E+0	1.013122E+0	1.057115E+0	1.035793E+0	9.939746E-1	1.034392E+0	1.085734E+0	1.035122E+0	1.018552E+0	1.043216E+0	1.059250E+0	1.007847E+0	1.023795E+0	1.073709E+0	1.048020E+0	1.010883E+0	9.944899E-1	1.048931E+0	1.055234E+0	1.041238E+0	1.014575E+0	9.686891E-1	1.055772E+0	9.752806E-1	1.048083E+0	1.067905E+0	1.053219E+0	1.019649E+0	1.034935E+0	1.018962E+0	9.818522E-1	1.078419E+0	1.001239E+0	9.929767E-1	1.000309E+0	1.076324E+0	1.051245E+0	1.020043E+0	9.856838E-1	1.009583E+0	1.036463E+0	1.045770E+0	1.084532E+0	1.034552E+0	1.009119E+0	1.066100E+0	1.055698E+0	1.079212E+0	9.511593E-1	9.957045E-1	1.021495E+0	1.033071E+0	9.886057E-1	1.036525E+0	1.038046E+0	1.010327E+0	1.058344E+0	1.034132E+0	1.026621E+0	1.043638E+0	1.077573E+0	1.048462E+0	1.010284E+0	1.038277E+0	1.026759E+0	1.018423E+0	9.925217E-1	1.050237E+0	1.005459E+0	1.034178E+0	1.016008E+0	1.011725E+0	1.045708E+0	1.055007E+0	1.001829E+0	1.068891E+0	1.069109E+0	1.000635E+0	9.965429E-1	1.022416E+0	1.022895E+0	1.038151E+0	1.083551E+0	9.714418E-1	9.805681E-1	1.025045E+0	1.027714E+0	9.737232E-1	1.010097E+0	1.098909E+0	1.055499E+0	1.039566E+0	1.061529E+0	1.039537E+0	1.039367E+0	1.016802E+0	1.023825E+0	1.065685E+0	1.074772E+0	1.022370E+0	9.884512E-1	9.790330E-1	1.006561E+0	1.019505E+0	1.052827E+0	9.685098E-1	1.061662E+0	1.053254E+0	1.053057E+0	1.063580E+0	1.079579E+0	1.026001E+0	9.574850E-1	9.946782E-1	1.024046E+0	1.075624E+0	1.012917E+0	1.039968E+0	1.038013E+0	1.021947E+0	1.021273E+0	1.064642E+0	1.012836E+0	1.006970E+0	1.031066E+0	9.745545E-1	1.021752E+0	9.952995E-1	9.538625E-1	1.038963E+0	1.007572E+0	9.923372E-1	9.943188E-1	9.653879E-1	1.067431E+0	1.061613E+0
5.427710E+2	9.433952E-1	1.029481E+0	1.014750E+0	9.708021E-1	1.038812E+0	9.408452E-1	9.915297E-1	9.708829E-1	1.036531E+0	9.841613E-1	9.572153E-1	9.631495E-1	9.923431E-1	1.020082E+0	1.034942E+0	1.016970E+0	1.062229E+0	9.946075E-1	9.889361E-1	1.063213E+0	1.038379E+0	9.842519E-1	1.006702E+0	1.027059E+0	1.027458E+0	9.919744E-1	9.526595E-1	1.043671E+0	1.032339E+0	1.041234E+0	9.934147E-1	1.062987E+0	9.451537E-1	9.506086E-1	1.008047E+0	9.822312E-1	1.006573E+0	1.018072E+0	1.000636E+0	1.047721E+0	9.953907E-1	9.689009E-1	1.001715E+0	1.018558E+0	1.018095E+0	1.010701E+0	9.680641E-1	1.031771E+0	1.021127E+0	9.907845E-1	9.859202E-1	1.082338E+0	9.972059E-1	1.004369E+0	1.046620E+0	9.948705E-1	9.796276E-1	1.014053E+0	9.840064E-1	1.032544E+0	1.067678E+0	1.029881E+0	9.758559E-1	1.068732E+0	1.001551E+0	1.010613E+0	1.010018E+0	1.029574E+0	9.902741E-1	9.795809E-1	1.014572E+0	1.038653E+0	1.046170E+0	1.023141E+0	1.067868E+0	9.734809E-1	1.044498E+0	9.579088E-1	1.006776E+0	9.644398E-1	1.010683E+0	1.007369E+0	9.983224E-1	1.012646E+0	1.006871E+0	9.932336E-1	1.048077E+0	1.054401E+0	1.026858E+0	9.947728E-1	9.801106E-1	1.058960E+0	1.031497E+0	1.007038E+0	9.653404E-1	1.015744E+0	1.106099E+0	9.420813E-1	1.061092E+0	1.006218E+0	1.023493E+0	9.989504E-1	9.741872E-1	1.001999E+0	9.941901E-1	9.843487E-1	1.004091E+0	9.726425E-1	1.081509E+0	1.003869E+0	9.864357E-1	1.028141E+0	9.943433E-1	9.718937E-1	1.013717E+0	9.585795E-1	9.891007E-1	1.002163E+0	1.045129E+0	9.747733E-1	9.885842E-1	1.031132E+0	1.008147E+0	1.062842E+0	1.098971E+0	1.004857E+0	9.838355E-1	1.000904E+0	1.030793E+0	9.820880E-1	1.027469E+0	1.040251E+0	1.001788E+0	9.995841E-1	1.040816E+0	1.011949E+0	9.957981E-1	9.641961E-1	9.992337E-1	1.074660E+0	9.898009E-1	9.813716E-1	9.893969E-1	9.902228E-1	9.942899E-1	9.816188E-1	1.048852E+0	1.005905E+0	1.052495E+0	9.832052E-1	9.982740E-1	1.008413E+0	9.876001E-1	1.005941E+0	9.725432E-1	9.849664E-1	9.548998E-1	9.880976E-1	1.051835E+0	1.024890E+0	9.775931E-1	9.632029E-1	1.017207E+0	1.092617E+0	9.564981E-1
5.430170E+2	1.008598E+0	1.012925E+0	1.002221E+0	1.017995E+0	9.777094E-1	1.003252E+0	1.026627E+0	1.048918E+0	1.019292E+0	1.037900E+0	1.020657E+0	1.017800E+0	1.048065E+0	1.014455E+0	1.016024E+0	1.012220E+0	1.055697E+0	9.984619E-1	1.049061E+0	1.017444E+0	1.043123E+0	1.007931E+0	1.010769E+0	1.029045E+0	9.984290E-1	1.023004E+0	1.051136E+0	1.035671E+0	1.029811E+0	9.429058E-1	9.751224E-1	1.035232E+0	1.073004E+0	1.040516E+0	1.023983E+0	1.011662E+0	1.031119E+0	1.006366E+0	1.020485E+0	1.040279E+0	1.033819E+0	1.052819E+0	9.815217E-1	9.646723E-1	1.069627E+0	1.030286E+0	9.900688E-1	1.028923E+0	1.090970E+0	1.071235E+0	1.029779E+0	1.028517E+0	1.044609E+0	1.002002E+0	1.038983E+0	1.039556E+0	9.833658E-1	1.050893E+0	1.027403E+0	1.026575E+0	1.047262E+0	9.919186E-1	9.428458E-1	1.032282E+0	1.057464E+0	1.029336E+0	1.016235E+0	1.034975E+0	9.857044E-1	9.945357E-1	1.004989E+0	1.072769E+0	1.061566E+0	9.645280E-1	9.756542E-1	1.059274E+0	1.026929E+0	9.904919E-1	1.039257E+0	1.002860E+0	1.044960E+0	1.025294E+0	1.006449E+0	1.035237E+0	1.055557E+0	1.016071E+0	1.086221E+0	1.057157E+0	1.040741E+0	1.062021E+0	1.076590E+0	1.023644E+0	1.004825E+0	1.001559E+0	9.819433E-1	1.014072E+0	1.059696E+0	1.021683E+0	1.003540E+0	1.041201E+0	1.027770E+0	1.003624E+0	1.028532E+0	9.569225E-1	1.006947E+0	1.005207E+0	1.069536E+0	9.562406E-1	1.002979E+0	1.026539E+0	9.866271E-1	9.700378E-1	1.012401E+0	9.928534E-1	9.890144E-1	1.025747E+0	1.017397E+0	1.035439E+0	1.013570E+0	1.007623E+0	9.975893E-1	1.033735E+0	1.075489E+0	1.015284E+0	1.042365E+0	1.008287E+0	1.077877E+0	1.018420E+0	1.007052E+0	1.029599E+0	1.013122E+0	1.051279E+0	1.063809E+0	1.029986E+0	1.005281E+0	1.010154E+0	9.978187E-1	1.033009E+0	1.039219E+0	1.043008E+0	1.019797E+0	1.017385E+0	1.033614E+0	1.001674E+0	1.071571E+0	1.032173E+0	1.031808E+0	1.027583E+0	1.056138E+0	9.958434E-1	1.029537E+0	9.721968E-1	1.001374E+0	1.055439E+0	9.423433E-1	1.032595E+0	9.509944E-1	1.000585E+0	1.030541E+0	1.008903E+0	9.802660E-1	8.911591E-1	9.729588E-1	1.098925E+0	9.336209E-1
5.432860E+2	1.134040E+0	1.213838E+0	1.075949E+0	1.133447E+0	1.159080E+0	1.166672E+0	1.125303E+0	1.190182E+0	1.148289E+0	1.165703E+0	1.172208E+0	1.106558E+0	1.187077E+0	1.151665E+0	1.176200E+0	1.176222E+0	1.224625E+0	1.215021E+0	1.157690E+0	1.131954E+0	1.153713E+0	1.138069E+0	1.181221E+0	1.156350E+0	1.174886E+0	1.155814E+0	1.120055E+0	1.259233E+0	1.162585E+0	1.123676E+0	1.172641E+0	1.159455E+0	1.171607E+0	1.137016E+0	1.138397E+0	1.186604E+0	1.149495E+0	1.188176E+0	1.145470E+0	1.214201E+0	1.166394E+0	1.206146E+0	1.164001E+0	1.176673E+0	1.181603E+0	1.166241E+0	1.152955E+0	1.177225E+0	1.201867E+0	1.169487E+0	1.159300E+0	1.198043E+0	1.108222E+0	1.153329E+0	1.131068E+0	1.205600E+0	1.162055E+0	1.160674E+0	1.185596E+0	1.184596E+0	1.134857E+0	1.151639E+0	1.091823E+0	1.193970E+0	1.187013E+0	1.141597E+0	1.144302E+0	1.206032E+0	1.160442E+0	1.116099E+0	1.112313E+0	1.180442E+0	1.194942E+0	1.160981E+0	1.204047E+0	1.155549E+0	1.177205E+0	1.161724E+0	1.148400E+0	1.156083E+0	1.178303E+0	1.158528E+0	1.140325E+0	1.199903E+0	1.169889E+0	1.217899E+0	1.196281E+0	1.206329E+0	1.187333E+0	1.168453E+0	1.156461E+0	1.194791E+0	1.175571E+0	1.207088E+0	1.144300E+0	1.172528E+0	1.140736E+0	1.137717E+0	1.155407E+0	1.181216E+0	1.135708E+0	1.141936E+0	1.183147E+0	1.168680E+0	1.155481E+0	1.135782E+0	1.080177E+0	1.214364E+0	1.201582E+0	1.154814E+0	1.184870E+0	1.153327E+0	1.177335E+0	1.137550E+0	1.137146E+0	1.173039E+0	1.128603E+0	1.067451E+0	1.191315E+0	1.197658E+0	1.115523E+0	1.139653E+0	1.148230E+0	1.170540E+0	1.148055E+0	1.139511E+0	1.133184E+0	1.174893E+0	1.143574E+0	1.128044E+0	1.189072E+0	1.161773E+0	1.149666E+0	1.168067E+0	1.176964E+0	1.192026E+0	1.148177E+0	1.153663E+0	1.205715E+0	1.122331E+0	1.177431E+0	1.142719E+0	1.115946E+0	1.118715E+0	1.126383E+0	1.136399E+0	1.109696E+0	1.151069E+0	1.170523E+0	1.149441E+0	1.196511E+0	1.120298E+0	1.134611E+0	1.131442E+0	1.186273E+0	1.169371E+0	1.143363E+0	1.079674E+0	1.147345E+0	1.149908E+0	1.127963E+0	1.124537E+0	1.123819E+0	1.134504E+0	1.048979E+0
5.435330E+2	1.288512E+0	1.327771E+0	1.306612E+0	1.295670E+0	1.281554E+0	1.322075E+0	1.303436E+0	1.347094E+0	1.341730E+0	1.273657E+0	1.276983E+0	1.361482E+0	1.367208E+0	1.287970E+0	1.344522E+0	1.326129E+0	1.394823E+0	1.300540E+0	1.300574E+0	1.310116E+0	1.367107E+0	1.293681E+0	1.311500E+0	1.310799E+0	1.302500E+0	1.320964E+0	1.332302E+0	1.357862E+0	1.293479E+0	1.316748E+0	1.253282E+0	1.291156E+0	1.308931E+0	1.297854E+0	1.273509E+0	1.332983E+0	1.379030E+0	1.336014E+0	1.323676E+0	1.280441E+0	1.330168E+0	1.328753E+0	1.287491E+0	1.297488E+0	1.333041E+0	1.284013E+0	1.334887E+0	1.371119E+0	1.345566E+0	1.309338E+0	1.247880E+0	1.305717E+0	1.292818E+0	1.308488E+0	1.319227E+0	1.325369E+0	1.279516E+0	1.285998E+0	1.329607E+0	1.357413E+0	1.352276E+0	1.232112E+0	1.327559E+0	1.339796E+0	1.285403E+0	1.295860E+0	1.304831E+0	1.273014E+0	1.340912E+0	1.259586E+0	1.306390E+0	1.358351E+0	1.304952E+0	1.294119E+0	1.315153E+0	1.268664E+0	1.326092E+0	1.315046E+0	1.305058E+0	1.352433E+0	1.296493E+0	1.264991E+0	1.293960E+0	1.322106E+0	1.319380E+0	1.326843E+0	1.294913E+0	1.332377E+0	1.279012E+0	1.266332E+0	1.306786E+0	1.346567E+0	1.341744E+0	1.294403E+0	1.274708E+0	1.237998E+0	1.339135E+0	1.325727E+0	1.240141E+0	1.320617E+0	1.291287E+0	1.338407E+0	1.323365E+0	1.303487E+0	1.249485E+0	1.299520E+0	1.291682E+0	1.380866E+0	1.227181E+0	1.318136E+0	1.249803E+0	1.339916E+0	1.374042E+0	1.237997E+0	1.266046E+0	1.330129E+0	1.322988E+0	1.277111E+0	1.298698E+0	1.349918E+0	1.273500E+0	1.269383E+0	1.240038E+0	1.341970E+0	1.296359E+0	1.208690E+0	1.287985E+0	1.334993E+0	1.309601E+0	1.264179E+0	1.321653E+0	1.235341E+0	1.296108E+0	1.241500E+0	1.307476E+0	1.295525E+0	1.341348E+0	1.309316E+0	1.305363E+0	1.311795E+0	1.263612E+0	1.252153E+0	1.217547E+0	1.297590E+0	1.350014E+0	1.270851E+0	1.294902E+0	1.263736E+0	1.354000E+0	1.314366E+0	1.341457E+0	1.283524E+0	1.314752E+0	1.308918E+0	1.303756E+0	1.300974E+0	1.280344E+0	1.302438E+0	1.333021E+0	1.331096E+0	1.287602E+0	1.351236E+0	1.328334E+0	1.308012E+0	1.323965E+0
5.437640E+2	1.473846E+0	1.567221E+0	1.501728E+0	1.480803E+0	1.461096E+0	1.465089E+0	1.418201E+0	1.497598E+0	1.502239E+0	1.500616E+0	1.494588E+0	1.459036E+0	1.440859E+0	1.469034E+0	1.511095E+0	1.416744E+0	1.557780E+0	1.516824E+0	1.467773E+0	1.554419E+0	1.538266E+0	1.439612E+0	1.486843E+0	1.442543E+0	1.545224E+0	1.475443E+0	1.498828E+0	1.458977E+0	1.498348E+0	1.457986E+0	1.434105E+0	1.512772E+0	1.505268E+0	1.510833E+0	1.443410E+0	1.492180E+0	1.473627E+0	1.459622E+0	1.510835E+0	1.542103E+0	1.423310E+0	1.477779E+0	1.447884E+0	1.420753E+0	1.476892E+0	1.457468E+0	1.389348E+0	1.534663E+0	1.558020E+0	1.519314E+0	1.459435E+0	1.492344E+0	1.415642E+0	1.480365E+0	1.481615E+0	1.517742E+0	1.486238E+0	1.459465E+0	1.445648E+0	1.521544E+0	1.487102E+0	1.381042E+0	1.367724E+0	1.434555E+0	1.541575E+0	1.412865E+0	1.462443E+0	1.481810E+0	1.482742E+0	1.438314E+0	1.435312E+0	1.455373E+0	1.494520E+0	1.450760E+0	1.516092E+0	1.449505E+0	1.466988E+0	1.440513E+0	1.438304E+0	1.525437E+0	1.442780E+0	1.494650E+0	1.513382E+0	1.494602E+0	1.498871E+0	1.438866E+0	1.539683E+0	1.499686E+0	1.483941E+0	1.481966E+0	1.464945E+0	1.483307E+0	1.452248E+0	1.389495E+0	1.443959E+0	1.420908E+0	1.453779E+0	1.430594E+0	1.482093E+0	1.485553E+0	1.474267E+0	1.434390E+0	1.438163E+0	1.527317E+0	1.453535E+0	1.460219E+0	1.475782E+0	1.510816E+0	1.508455E+0	1.470235E+0	1.510100E+0	1.455007E+0	1.457656E+0	1.422551E+0	1.528290E+0	1.477832E+0	1.474282E+0	1.467289E+0	1.506435E+0	1.504338E+0	1.397454E+0	1.512504E+0	1.460243E+0	1.536041E+0	1.434979E+0	1.490449E+0	1.486449E+0	1.428840E+0	1.483334E+0	1.442469E+0	1.455921E+0	1.429832E+0	1.475069E+0	1.451084E+0	1.440766E+0	1.460995E+0	1.545065E+0	1.420948E+0	1.437853E+0	1.461871E+0	1.470119E+0	1.434262E+0	1.401360E+0	1.435452E+0	1.465080E+0	1.442776E+0	1.433292E+0	1.436265E+0	1.515199E+0	1.486639E+0	1.477532E+0	1.473504E+0	1.482279E+0	1.490010E+0	1.439920E+0	1.497414E+0	1.376076E+0	1.415285E+0	1.427221E+0	1.479501E+0	1.499130E+0	1.419221E+0	1.410051E+0	1.470922E+0	1.332657E+0
5.440220E+2	1.517836E+0	1.707741E+0	1.604615E+0	1.627008E+0	1.570658E+0	1.520924E+0	1.554406E+0	1.654622E+0	1.568181E+0	1.582593E+0	1.606163E+0	1.580519E+0	1.594971E+0	1.591210E+0	1.559772E+0	1.516428E+0	1.632528E+0	1.601477E+0	1.597346E+0	1.590859E+0	1.563781E+0	1.579046E+0	1.553904E+0	1.599521E+0	1.588016E+0	1.594867E+0	1.629002E+0	1.587687E+0	1.591406E+0	1.570082E+0	1.623123E+0	1.631035E+0	1.552876E+0	1.555582E+0	1.604492E+0	1.630399E+0	1.612688E+0	1.598524E+0	1.579643E+0	1.596903E+0	1.583709E+0	1.580068E+0	1.536845E+0	1.673028E+0	1.596030E+0	1.593160E+0	1.560880E+0	1.610429E+0	1.705271E+0	1.624272E+0	1.588884E+0	1.668089E+0	1.535097E+0	1.570656E+0	1.525053E+0	1.656905E+0	1.538313E+0	1.585435E+0	1.519798E+0	1.568984E+0	1.615689E+0	1.562716E+0	1.479011E+0	1.598796E+0	1.564023E+0	1.573555E+0	1.557423E+0	1.565504E+0	1.536418E+0	1.569796E+0	1.516408E+0	1.665937E+0	1.611128E+0	1.573105E+0	1.608456E+0	1.630879E+0	1.668985E+0	1.557590E+0	1.558243E+0	1.577909E+0	1.537703E+0	1.532839E+0	1.561496E+0	1.604827E+0	1.518179E+0	1.540847E+0	1.652729E+0	1.642984E+0	1.584544E+0	1.538170E+0	1.581065E+0	1.604673E+0	1.591110E+0	1.525439E+0	1.510746E+0	1.559904E+0	1.567357E+0	1.476939E+0	1.637053E+0	1.511435E+0	1.564726E+0	1.593118E+0	1.578345E+0	1.519518E+0	1.634900E+0	1.531112E+0	1.548737E+0	1.646322E+0	1.577419E+0	1.511269E+0	1.564460E+0	1.573069E+0	1.571900E+0	1.450259E+0	1.573364E+0	1.593769E+0	1.549718E+0	1.520727E+0	1.581610E+0	1.614672E+0	1.606003E+0	1.555435E+0	1.562533E+0	1.582442E+0	1.568241E+0	1.547314E+0	1.552563E+0	1.558993E+0	1.620578E+0	1.602923E+0	1.525038E+0	1.597144E+0	1.592544E+0	1.536096E+0	1.581710E+0	1.574559E+0	1.530833E+0	1.529440E+0	1.520614E+0	1.581376E+0	1.590747E+0	1.497649E+0	1.574287E+0	1.570154E+0	1.560015E+0	1.526798E+0	1.565716E+0	1.556396E+0	1.545214E+0	1.512860E+0	1.556545E+0	1.582703E+0	1.582749E+0	1.513775E+0	1.522750E+0	1.643644E+0	1.594641E+0	1.530592E+0	1.554970E+0	1.535704E+0	1.508749E+0	1.480611E+0	1.582984E+0	1.745951E+0	1.526391E+0
5.442750E+2	1.638714E+0	1.654695E+0	1.607880E+0	1.608395E+0	1.641619E+0	1.601655E+0	1.530193E+0	1.607875E+0	1.605920E+0	1.605113E+0	1.630092E+0	1.678010E+0	1.614369E+0	1.554067E+0	1.594915E+0	1.635259E+0	1.644481E+0	1.556344E+0	1.594449E+0	1.608359E+0	1.609594E+0	1.578531E+0	1.553678E+0	1.548399E+0	1.597585E+0	1.565138E+0	1.590263E+0	1.605820E+0	1.584324E+0	1.593590E+0	1.550706E+0	1.627445E+0	1.617096E+0	1.602341E+0	1.585693E+0	1.541567E+0	1.577402E+0	1.650364E+0	1.577949E+0	1.645448E+0	1.606389E+0	1.572200E+0	1.628965E+0	1.654026E+0	1.582869E+0	1.578121E+0	1.631621E+0	1.615216E+0	1.641282E+0	1.657317E+0	1.589574E+0	1.582812E+0	1.587931E+0	1.638356E+0	1.617408E+0	1.647629E+0	1.552387E+0	1.598166E+0	1.528905E+0	1.611810E+0	1.628136E+0	1.644700E+0	1.513019E+0	1.607494E+0	1.629212E+0	1.552989E+0	1.575694E+0	1.621059E+0	1.567236E+0	1.602767E+0	1.551677E+0	1.625782E+0	1.622718E+0	1.595418E+0	1.591995E+0	1.632432E+0	1.566609E+0	1.590597E+0	1.558916E+0	1.602779E+0	1.661291E+0	1.555895E+0	1.533300E+0	1.526713E+0	1.635449E+0	1.603134E+0	1.587765E+0	1.630053E+0	1.593640E+0	1.625242E+0	1.548937E+0	1.617585E+0	1.592992E+0	1.632710E+0	1.554854E+0	1.541737E+0	1.641649E+0	1.493553E+0	1.646472E+0	1.568635E+0	1.641232E+0	1.613731E+0	1.537722E+0	1.645495E+0	1.513331E+0	1.520763E+0	1.630022E+0	1.578041E+0	1.617589E+0	1.527541E+0	1.600369E+0	1.591832E+0	1.488984E+0	1.486571E+0	1.527723E+0	1.649601E+0	1.576920E+0	1.548427E+0	1.645930E+0	1.633319E+0	1.595455E+0	1.603290E+0	1.614716E+0	1.593264E+0	1.617947E+0	1.549153E+0	1.599109E+0	1.613963E+0	1.593949E+0	1.488662E+0	1.559595E+0	1.577741E+0	1.594039E+0	1.572443E+0	1.546449E+0	1.606788E+0	1.554114E+0	1.593989E+0	1.559004E+0	1.582741E+0	1.630462E+0	1.567109E+0	1.556274E+0	1.593900E+0	1.604757E+0	1.580994E+0	1.564484E+0	1.553853E+0	1.586032E+0	1.482253E+0	1.581902E+0	1.565025E+0	1.576002E+0	1.513640E+0	1.520936E+0	1.645460E+0	1.487240E+0	1.550190E+0	1.562062E+0	1.489133E+0	1.529228E+0	1.539386E+0	1.552042E+0	1.601406E+0	1.510713E+0
5.445130E+2	1.545879E+0	1.613105E+0	1.603568E+0	1.528190E+0	1.555357E+0	1.556181E+0	1.586585E+0	1.720532E+0	1.574386E+0	1.597069E+0	1.572264E+0	1.646973E+0	1.565019E+0	1.567193E+0	1.545998E+0	1.610536E+0	1.672433E+0	1.552090E+0	1.527342E+0	1.541255E+0	1.544803E+0	1.535372E+0	1.563742E+0	1.602067E+0	1.610113E+0	1.607152E+0	1.598307E+0	1.548280E+0	1.574527E+0	1.551023E+0	1.459538E+0	1.606692E+0	1.598167E+0	1.554650E+0	1.540547E+0	1.606180E+0	1.574258E+0	1.567606E+0	1.567148E+0	1.622453E+0	1.594124E+0	1.576452E+0	1.586802E+0	1.529598E+0	1.543241E+0	1.548647E+0	1.513155E+0	1.644883E+0	1.627417E+0	1.544599E+0	1.635809E+0	1.591518E+0	1.567957E+0	1.566727E+0	1.582750E+0	1.582307E+0	1.589507E+0	1.519304E+0	1.531554E+0	1.573870E+0	1.599651E+0	1.561714E+0	1.520550E+0	1.610021E+0	1.619828E+0	1.545524E+0	1.500046E+0	1.628373E+0	1.592093E+0	1.535086E+0	1.544480E+0	1.624884E+0	1.543384E+0	1.599563E+0	1.525599E+0	1.608591E+0	1.617639E+0	1.517124E+0	1.574058E+0	1.570343E+0	1.570491E+0	1.545992E+0	1.569889E+0	1.648776E+0	1.567241E+0	1.518444E+0	1.585931E+0	1.574857E+0	1.605241E+0	1.514995E+0	1.606655E+0	1.552297E+0	1.568022E+0	1.519191E+0	1.546566E+0	1.564680E+0	1.573255E+0	1.485298E+0	1.568747E+0	1.555509E+0	1.596014E+0	1.581420E+0	1.530378E+0	1.523307E+0	1.605558E+0	1.522254E+0	1.562619E+0	1.593838E+0	1.516526E+0	1.455557E+0	1.571819E+0	1.579446E+0	1.629131E+0	1.457630E+0	1.497683E+0	1.571314E+0	1.600920E+0	1.569674E+0	1.573034E+0	1.622869E+0	1.514187E+0	1.572211E+0	1.560939E+0	1.565991E+0	1.629691E+0	1.529911E+0	1.621182E+0	1.538930E+0	1.515714E+0	1.490206E+0	1.548039E+0	1.523297E+0	1.627822E+0	1.524979E+0	1.574502E+0	1.560199E+0	1.513489E+0	1.523629E+0	1.558243E+0	1.603204E+0	1.549932E+0	1.524953E+0	1.504464E+0	1.574241E+0	1.570577E+0	1.532088E+0	1.546345E+0	1.483630E+0	1.570724E+0	1.534094E+0	1.515116E+0	1.564462E+0	1.614883E+0	1.516085E+0	1.491285E+0	1.533980E+0	1.524287E+0	1.517899E+0	1.535571E+0	1.501009E+0	1.517524E+0	1.512241E+0	1.455317E+0	1.561537E+0	1.495265E+0
5.447660E+2	1.583333E+0	1.687175E+0	1.570928E+0	1.597460E+0	1.543977E+0	1.573745E+0	1.568315E+0	1.600237E+0	1.522978E+0	1.574921E+0	1.560542E+0	1.686146E+0	1.519214E+0	1.590180E+0	1.568668E+0	1.529438E+0	1.592705E+0	1.468729E+0	1.550915E+0	1.524169E+0	1.575318E+0	1.547281E+0	1.616326E+0	1.591115E+0	1.576572E+0	1.574736E+0	1.534482E+0	1.546049E+0	1.615932E+0	1.501542E+0	1.571068E+0	1.572894E+0	1.536685E+0	1.548482E+0	1.508478E+0	1.608327E+0	1.536552E+0	1.556870E+0	1.578364E+0	1.629692E+0	1.622276E+0	1.503730E+0	1.517102E+0	1.514888E+0	1.607090E+0	1.480798E+0	1.568078E+0	1.587022E+0	1.562816E+0	1.537825E+0	1.644437E+0	1.543329E+0	1.559825E+0	1.566557E+0	1.537849E+0	1.623106E+0	1.519267E+0	1.642570E+0	1.505441E+0	1.555699E+0	1.513943E+0	1.561277E+0	1.487041E+0	1.559387E+0	1.567554E+0	1.508247E+0	1.508095E+0	1.643099E+0	1.506420E+0	1.520036E+0	1.598148E+0	1.587091E+0	1.559763E+0	1.565792E+0	1.560029E+0	1.539023E+0	1.559265E+0	1.545190E+0	1.530556E+0	1.534586E+0	1.572778E+0	1.537899E+0	1.455071E+0	1.530748E+0	1.597163E+0	1.544566E+0	1.561597E+0	1.604330E+0	1.560993E+0	1.551551E+0	1.578457E+0	1.594867E+0	1.541139E+0	1.547251E+0	1.482678E+0	1.513850E+0	1.586233E+0	1.501944E+0	1.548275E+0	1.560863E+0	1.578646E+0	1.539854E+0	1.512161E+0	1.516041E+0	1.512458E+0	1.558820E+0	1.556165E+0	1.563503E+0	1.527780E+0	1.542982E+0	1.538823E+0	1.581505E+0	1.526114E+0	1.442629E+0	1.540116E+0	1.482229E+0	1.460732E+0	1.621428E+0	1.552746E+0	1.560149E+0	1.475091E+0	1.542171E+0	1.507743E+0	1.583083E+0	1.526873E+0	1.483985E+0	1.528029E+0	1.535745E+0	1.558888E+0	1.505158E+0	1.509900E+0	1.538330E+0	1.521095E+0	1.532170E+0	1.499655E+0	1.585857E+0	1.535437E+0	1.585365E+0	1.570695E+0	1.521893E+0	1.497668E+0	1.521422E+0	1.514780E+0	1.533397E+0	1.642775E+0	1.474679E+0	1.494800E+0	1.572770E+0	1.576823E+0	1.498143E+0	1.555092E+0	1.544498E+0	1.519438E+0	1.478410E+0	1.479515E+0	1.601815E+0	1.546585E+0	1.517419E+0	1.519906E+0	1.523093E+0	1.508040E+0	1.481354E+0	1.455623E+0	1.608867E+0	1.377623E+0
5.450090E+2	1.526531E+0	1.718874E+0	1.641044E+0	1.605022E+0	1.589485E+0	1.616604E+0	1.580525E+0	1.561448E+0	1.573731E+0	1.637751E+0	1.550855E+0	1.652646E+0	1.640599E+0	1.531135E+0	1.609156E+0	1.614637E+0	1.629964E+0	1.522369E+0	1.551828E+0	1.598910E+0	1.586586E+0	1.492331E+0	1.580616E+0	1.560848E+0	1.549301E+0	1.551466E+0	1.570103E+0	1.614149E+0	1.596134E+0	1.522572E+0	1.512181E+0	1.591927E+0	1.604193E+0	1.572668E+0	1.527060E+0	1.627894E+0	1.580760E+0	1.600550E+0	1.613009E+0	1.586226E+0	1.556231E+0	1.571998E+0	1.592982E+0	1.641546E+0	1.584299E+0	1.554219E+0	1.528470E+0	1.545242E+0	1.600493E+0	1.598005E+0	1.568329E+0	1.641056E+0	1.589289E+0	1.573156E+0	1.554309E+0	1.658052E+0	1.525481E+0	1.591095E+0	1.553058E+0	1.643855E+0	1.544212E+0	1.532194E+0	1.523602E+0	1.585930E+0	1.670393E+0	1.514150E+0	1.557772E+0	1.619454E+0	1.555657E+0	1.581457E+0	1.564695E+0	1.542146E+0	1.626107E+0	1.537053E+0	1.561989E+0	1.577123E+0	1.652976E+0	1.555619E+0	1.584338E+0	1.576477E+0	1.569359E+0	1.568909E+0	1.620761E+0	1.565604E+0	1.577508E+0	1.621846E+0	1.592412E+0	1.560992E+0	1.544473E+0	1.587316E+0	1.547224E+0	1.591882E+0	1.582593E+0	1.433772E+0	1.588475E+0	1.564761E+0	1.548814E+0	1.588739E+0	1.597362E+0	1.618215E+0	1.545338E+0	1.614891E+0	1.561049E+0	1.561276E+0	1.596832E+0	1.570956E+0	1.520376E+0	1.606533E+0	1.579598E+0	1.561554E+0	1.605236E+0	1.500283E+0	1.604020E+0	1.480889E+0	1.517495E+0	1.627626E+0	1.565313E+0	1.563207E+0	1.553364E+0	1.595173E+0	1.495926E+0	1.545352E+0	1.546290E+0	1.606069E+0	1.634310E+0	1.562975E+0	1.575953E+0	1.548478E+0	1.547832E+0	1.503104E+0	1.548898E+0	1.633039E+0	1.574400E+0	1.524154E+0	1.510756E+0	1.668062E+0	1.496329E+0	1.613884E+0	1.600624E+0	1.640666E+0	1.551567E+0	1.571389E+0	1.474828E+0	1.573146E+0	1.558829E+0	1.503014E+0	1.583368E+0	1.518218E+0	1.645418E+0	1.537680E+0	1.482093E+0	1.569442E+0	1.571853E+0	1.475725E+0	1.472357E+0	1.612103E+0	1.543961E+0	1.471812E+0	1.514410E+0	1.600030E+0	1.518417E+0	1.533532E+0	1.533301E+0	1.673659E+0	1.518635E+0
5.452580E+2	1.410662E+0	1.453335E+0	1.455036E+0	1.459107E+0	1.430668E+0	1.383450E+0	1.432688E+0	1.396200E+0	1.417431E+0	1.388773E+0	1.409497E+0	1.471413E+0	1.421603E+0	1.402333E+0	1.436920E+0	1.418521E+0	1.424606E+0	1.403846E+0	1.427096E+0	1.424799E+0	1.445571E+0	1.428053E+0	1.446167E+0	1.523207E+0	1.408755E+0	1.428944E+0	1.424159E+0	1.463586E+0	1.395531E+0	1.480391E+0	1.407300E+0	1.446337E+0	1.449978E+0	1.412169E+0	1.409816E+0	1.472404E+0	1.495912E+0	1.482102E+0	1.435059E+0	1.428084E+0	1.423135E+0	1.412763E+0	1.431467E+0	1.460768E+0	1.434856E+0	1.387596E+0	1.427494E+0	1.418803E+0	1.442210E+0	1.340433E+0	1.455536E+0	1.433079E+0	1.376571E+0	1.402147E+0	1.366609E+0	1.472320E+0	1.405067E+0	1.451793E+0	1.437496E+0	1.496080E+0	1.439755E+0	1.431551E+0	1.343597E+0	1.396830E+0	1.457571E+0	1.437690E+0	1.441000E+0	1.368589E+0	1.387162E+0	1.444235E+0	1.435687E+0	1.489574E+0	1.451684E+0	1.383656E+0	1.429471E+0	1.389557E+0	1.463239E+0	1.463428E+0	1.428153E+0	1.396753E+0	1.449020E+0	1.376374E+0	1.374424E+0	1.433377E+0	1.465405E+0	1.402156E+0	1.433591E+0	1.430737E+0	1.456746E+0	1.412055E+0	1.364833E+0	1.429692E+0	1.389157E+0	1.371522E+0	1.391093E+0	1.432066E+0	1.439072E+0	1.367165E+0	1.417508E+0	1.386750E+0	1.382561E+0	1.409252E+0	1.360253E+0	1.404196E+0	1.481997E+0	1.377409E+0	1.461239E+0	1.550776E+0	1.391873E+0	1.415812E+0	1.362470E+0	1.475515E+0	1.405240E+0	1.351832E+0	1.392847E+0	1.448594E+0	1.464056E+0	1.415680E+0	1.425410E+0	1.449282E+0	1.382292E+0	1.453028E+0	1.419080E+0	1.480517E+0	1.442145E+0	1.394947E+0	1.377644E+0	1.414189E+0	1.440612E+0	1.379679E+0	1.454031E+0	1.426557E+0	1.448673E+0	1.440377E+0	1.446759E+0	1.405804E+0	1.378652E+0	1.400082E+0	1.434011E+0	1.389725E+0	1.520928E+0	1.362722E+0	1.395203E+0	1.430587E+0	1.463511E+0	1.365816E+0	1.421327E+0	1.429717E+0	1.449108E+0	1.360743E+0	1.349746E+0	1.421133E+0	1.457140E+0	1.338518E+0	1.308049E+0	1.425665E+0	1.411275E+0	1.378842E+0	1.378745E+0	1.402069E+0	1.414827E+0	1.344227E+0	1.398151E+0	1.490938E+0	1.410419E+0
5.455130E+2	1.428565E+0	1.516225E+0	1.440459E+0	1.457792E+0	1.517844E+0	1.448096E+0	1.434814E+0	1.444506E+0	1.434436E+0	1.433307E+0	1.414170E+0	1.428928E+0	1.511907E+0	1.482433E+0	1.457704E+0	1.430506E+0	1.481388E+0	1.435399E+0	1.422378E+0	1.433243E+0	1.454008E+0	1.453104E+0	1.410225E+0	1.457908E+0	1.446212E+0	1.380042E+0	1.443549E+0	1.449553E+0	1.466082E+0	1.443391E+0	1.426481E+0	1.411685E+0	1.452039E+0	1.410596E+0	1.451870E+0	1.514864E+0	1.471906E+0	1.435563E+0	1.429749E+0	1.514080E+0	1.411284E+0	1.483586E+0	1.426284E+0	1.478911E+0	1.432428E+0	1.472241E+0	1.474480E+0	1.481884E+0	1.514343E+0	1.465596E+0	1.461927E+0	1.448074E+0	1.425603E+0	1.466929E+0	1.440072E+0	1.536494E+0	1.466079E+0	1.418402E+0	1.376086E+0	1.442739E+0	1.494553E+0	1.453066E+0	1.439139E+0	1.452272E+0	1.484173E+0	1.430578E+0	1.379731E+0	1.407343E+0	1.404292E+0	1.412571E+0	1.427277E+0	1.497381E+0	1.441546E+0	1.403149E+0	1.442368E+0	1.438957E+0	1.547067E+0	1.389864E+0	1.493179E+0	1.464798E+0	1.436629E+0	1.386544E+0	1.464253E+0	1.435426E+0	1.486117E+0	1.435525E+0	1.492528E+0	1.441093E+0	1.461994E+0	1.431765E+0	1.494787E+0	1.426813E+0	1.406082E+0	1.419128E+0	1.455947E+0	1.457253E+0	1.518281E+0	1.368354E+0	1.513162E+0	1.390559E+0	1.394650E+0	1.451720E+0	1.434619E+0	1.418288E+0	1.471142E+0	1.414554E+0	1.433950E+0	1.476450E+0	1.462665E+0	1.393027E+0	1.458754E+0	1.412461E+0	1.418311E+0	1.379592E+0	1.444399E+0	1.477229E+0	1.403245E+0	1.464016E+0	1.419674E+0	1.510430E+0	1.400442E+0	1.462129E+0	1.411813E+0	1.474595E+0	1.459005E+0	1.404441E+0	1.474191E+0	1.430755E+0	1.412666E+0	1.405849E+0	1.426231E+0	1.426184E+0	1.462025E+0	1.441416E+0	1.417515E+0	1.448289E+0	1.428551E+0	1.338989E+0	1.423222E+0	1.439883E+0	1.392599E+0	1.391200E+0	1.444961E+0	1.422679E+0	1.493521E+0	1.409148E+0	1.453075E+0	1.439173E+0	1.501724E+0	1.438062E+0	1.423949E+0	1.456468E+0	1.388768E+0	1.441236E+0	1.319713E+0	1.466957E+0	1.459463E+0	1.447453E+0	1.436786E+0	1.490971E+0	1.398191E+0	1.410964E+0	1.422675E+0	1.555186E+0	1.419492E+0
5.457670E+2	1.365558E+0	1.423555E+0	1.413036E+0	1.395335E+0	1.411870E+0	1.303175E+0	1.342283E+0	1.374719E+0	1.322691E+0	1.399965E+0	1.362713E+0	1.409284E+0	1.355284E+0	1.368123E+0	1.399710E+0	1.364498E+0	1.429428E+0	1.352962E+0	1.355153E+0	1.355417E+0	1.346680E+0	1.353466E+0	1.365376E+0	1.317616E+0	1.423194E+0	1.375416E+0	1.371542E+0	1.376687E+0	1.364069E+0	1.330307E+0	1.394940E+0	1.361472E+0	1.358671E+0	1.330355E+0	1.352918E+0	1.347121E+0	1.383858E+0	1.402002E+0	1.395337E+0	1.305330E+0	1.388556E+0	1.328067E+0	1.393325E+0	1.354068E+0	1.378923E+0	1.351041E+0	1.314687E+0	1.383840E+0	1.420594E+0	1.369301E+0	1.303839E+0	1.401324E+0	1.384327E+0	1.352154E+0	1.348647E+0	1.320565E+0	1.355268E+0	1.382568E+0	1.335259E+0	1.381560E+0	1.349254E+0	1.332104E+0	1.307995E+0	1.366318E+0	1.370946E+0	1.296830E+0	1.392181E+0	1.415643E+0	1.368091E+0	1.309208E+0	1.312374E+0	1.338705E+0	1.424976E+0	1.345366E+0	1.358759E+0	1.368205E+0	1.460509E+0	1.347255E+0	1.291067E+0	1.367425E+0	1.393256E+0	1.385051E+0	1.333900E+0	1.392224E+0	1.381419E+0	1.316537E+0	1.369940E+0	1.354473E+0	1.388202E+0	1.321756E+0	1.356969E+0	1.420295E+0	1.331762E+0	1.376920E+0	1.322923E+0	1.319719E+0	1.334413E+0	1.351499E+0	1.396152E+0	1.331693E+0	1.384220E+0	1.338031E+0	1.326274E+0	1.357293E+0	1.343390E+0	1.412120E+0	1.332629E+0	1.388028E+0	1.296642E+0	1.351166E+0	1.367204E+0	1.381341E+0	1.407650E+0	1.337336E+0	1.375101E+0	1.403619E+0	1.365124E+0	1.318244E+0	1.393793E+0	1.414864E+0	1.317592E+0	1.360540E+0	1.310451E+0	1.283803E+0	1.336178E+0	1.437366E+0	1.343589E+0	1.398532E+0	1.385158E+0	1.347019E+0	1.376222E+0	1.377097E+0	1.313691E+0	1.403685E+0	1.358678E+0	1.390040E+0	1.315036E+0	1.350605E+0	1.335180E+0	1.375614E+0	1.298155E+0	1.324183E+0	1.295971E+0	1.406662E+0	1.388573E+0	1.316258E+0	1.440763E+0	1.368678E+0	1.433593E+0	1.352280E+0	1.414255E+0	1.320684E+0	1.395887E+0	1.280113E+0	1.336558E+0	1.371404E+0	1.286254E+0	1.255755E+0	1.325823E+0	1.349930E+0	1.348885E+0	1.312864E+0	1.352478E+0	1.380442E+0	1.309681E+0
5.460060E+2	1.298178E+0	1.371284E+0	1.256836E+0	1.347938E+0	1.285680E+0	1.345847E+0	1.263324E+0	1.307652E+0	1.308533E+0	1.311475E+0	1.301506E+0	1.301084E+0	1.280166E+0	1.296189E+0	1.310418E+0	1.296325E+0	1.348541E+0	1.291756E+0	1.328997E+0	1.262106E+0	1.266842E+0	1.282222E+0	1.297876E+0	1.277529E+0	1.329097E+0	1.268130E+0	1.238751E+0	1.309445E+0	1.347295E+0	1.287323E+0	1.283284E+0	1.274973E+0	1.282829E+0	1.281079E+0	1.283193E+0	1.372496E+0	1.336257E+0	1.294931E+0	1.335434E+0	1.265459E+0	1.318186E+0	1.296211E+0	1.340848E+0	1.353186E+0	1.270496E+0	1.275564E+0	1.308112E+0	1.331182E+0	1.244245E+0	1.303827E+0	1.265374E+0	1.267666E+0	1.336358E+0	1.291244E+0	1.279257E+0	1.321822E+0	1.295526E+0	1.347081E+0	1.278118E+0	1.241557E+0	1.300497E+0	1.263628E+0	1.241351E+0	1.260941E+0	1.400717E+0	1.315787E+0	1.309363E+0	1.290161E+0	1.323989E+0	1.263856E+0	1.300592E+0	1.303107E+0	1.334262E+0	1.271447E+0	1.223564E+0	1.299236E+0	1.363621E+0	1.251783E+0	1.239365E+0	1.342140E+0	1.278287E+0	1.263706E+0	1.298377E+0	1.344487E+0	1.257500E+0	1.281840E+0	1.309872E+0	1.313858E+0	1.272637E+0	1.283893E+0	1.302619E+0	1.295481E+0	1.313943E+0	1.206489E+0	1.243207E+0	1.245135E+0	1.320981E+0	1.211660E+0	1.261871E+0	1.289195E+0	1.272095E+0	1.303725E+0	1.290102E+0	1.306258E+0	1.336587E+0	1.299001E+0	1.274300E+0	1.300981E+0	1.298075E+0	1.275952E+0	1.304642E+0	1.268619E+0	1.316521E+0	1.314604E+0	1.246628E+0	1.316380E+0	1.284193E+0	1.295519E+0	1.279477E+0	1.376029E+0	1.251626E+0	1.305562E+0	1.252738E+0	1.337662E+0	1.286220E+0	1.296599E+0	1.373205E+0	1.312281E+0	1.295734E+0	1.232966E+0	1.302697E+0	1.278559E+0	1.283108E+0	1.282045E+0	1.290688E+0	1.322689E+0	1.258605E+0	1.255012E+0	1.290668E+0	1.358481E+0	1.300828E+0	1.245175E+0	1.258316E+0	1.338719E+0	1.343991E+0	1.264200E+0	1.308887E+0	1.320461E+0	1.326806E+0	1.236171E+0	1.328350E+0	1.269503E+0	1.309853E+0	1.281261E+0	1.229850E+0	1.294802E+0	1.258165E+0	1.295082E+0	1.298920E+0	1.326442E+0	1.198115E+0	1.192831E+0	1.195617E+0	1.313811E+0	1.170176E+0
5.467600E+2	1.252837E+0	1.268838E+0	1.294470E+0	1.277918E+0	1.243824E+0	1.301229E+0	1.268498E+0	1.264606E+0	1.261451E+0	1.267573E+0	1.287749E+0	1.259110E+0	1.284476E+0	1.314491E+0	1.251494E+0	1.279501E+0	1.317341E+0	1.294256E+0	1.244450E+0	1.224701E+0	1.279730E+0	1.281969E+0	1.279847E+0	1.257240E+0	1.254749E+0	1.245667E+0	1.211887E+0	1.247050E+0	1.225254E+0	1.233070E+0	1.251318E+0	1.315172E+0	1.291542E+0	1.259540E+0	1.268182E+0	1.299639E+0	1.264800E+0	1.246508E+0	1.215178E+0	1.219378E+0	1.231095E+0	1.259706E+0	1.290509E+0	1.209458E+0	1.246298E+0	1.235606E+0	1.239898E+0	1.291880E+0	1.348212E+0	1.296667E+0	1.306584E+0	1.230154E+0	1.204767E+0	1.233194E+0	1.264656E+0	1.226380E+0	1.226538E+0	1.268912E+0	1.222102E+0	1.197656E+0	1.215619E+0	1.240896E+0	1.189325E+0	1.273446E+0	1.300329E+0	1.242323E+0	1.219486E+0	1.241225E+0	1.270163E+0	1.202107E+0	1.248614E+0	1.256516E+0	1.324454E+0	1.263343E+0	1.251826E+0	1.235837E+0	1.242416E+0	1.232920E+0	1.228042E+0	1.290808E+0	1.259618E+0	1.194095E+0	1.263247E+0	1.236018E+0	1.281312E+0	1.277093E+0	1.280749E+0	1.248225E+0	1.253647E+0	1.249698E+0	1.216425E+0	1.301619E+0	1.214791E+0	1.243961E+0	1.233242E+0	1.323204E+0	1.283670E+0	1.255046E+0	1.243032E+0	1.348146E+0	1.230908E+0	1.244677E+0	1.275626E+0	1.273128E+0	1.257060E+0	1.187453E+0	1.211042E+0	1.347057E+0	1.283642E+0	1.255812E+0	1.273372E+0	1.287394E+0	1.242105E+0	1.218426E+0	1.258181E+0	1.252388E+0	1.265221E+0	1.298689E+0	1.258428E+0	1.235672E+0	1.240288E+0	1.260613E+0	1.182704E+0	1.259897E+0	1.268796E+0	1.215198E+0	1.246165E+0	1.298391E+0	1.289975E+0	1.191999E+0	1.234937E+0	1.261626E+0	1.259966E+0	1.230863E+0	1.234433E+0	1.258007E+0	1.272138E+0	1.225157E+0	1.236269E+0	1.258553E+0	1.255267E+0	1.229845E+0	1.194618E+0	1.234291E+0	1.299750E+0	1.279830E+0	1.216211E+0	1.279591E+0	1.222047E+0	1.218142E+0	1.258371E+0	1.302356E+0	1.324942E+0	1.172566E+0	1.230083E+0	1.316642E+0	1.182076E+0	1.218950E+0	1.264391E+0	1.261233E+0	1.236840E+0	1.268085E+0	1.288589E+0	1.324291E+0	1.206539E+0
5.475280E+2	1.304323E+0	1.341581E+0	1.342027E+0	1.307213E+0	1.310063E+0	1.289629E+0	1.335374E+0	1.286410E+0	1.329557E+0	1.405020E+0	1.367377E+0	1.320649E+0	1.342925E+0	1.276040E+0	1.354370E+0	1.323554E+0	1.328333E+0	1.378739E+0	1.287368E+0	1.386959E+0	1.323084E+0	1.319913E+0	1.306897E+0	1.282265E+0	1.321190E+0	1.310898E+0	1.276337E+0	1.341826E+0	1.344823E+0	1.337799E+0	1.277364E+0	1.359052E+0	1.351815E+0	1.340479E+0	1.355994E+0	1.316825E+0	1.363919E+0	1.333195E+0	1.286900E+0	1.311567E+0	1.300034E+0	1.341188E+0	1.368496E+0	1.288730E+0	1.365087E+0	1.317812E+0	1.293500E+0	1.352708E+0	1.306306E+0	1.310272E+0	1.329864E+0	1.334028E+0	1.254274E+0	1.318945E+0	1.325761E+0	1.314681E+0	1.319578E+0	1.284014E+0	1.238513E+0	1.323879E+0	1.342829E+0	1.304156E+0	1.314135E+0	1.313291E+0	1.303324E+0	1.340553E+0	1.207820E+0	1.303517E+0	1.256908E+0	1.275129E+0	1.346923E+0	1.340048E+0	1.335793E+0	1.287801E+0	1.385755E+0	1.300819E+0	1.348728E+0	1.311724E+0	1.318272E+0	1.310181E+0	1.373071E+0	1.336331E+0	1.322147E+0	1.304464E+0	1.308704E+0	1.329455E+0	1.378976E+0	1.303930E+0	1.333852E+0	1.276794E+0	1.283121E+0	1.345362E+0	1.291654E+0	1.312059E+0	1.320190E+0	1.291551E+0	1.343249E+0	1.269392E+0	1.362670E+0	1.302855E+0	1.300304E+0	1.330137E+0	1.274105E+0	1.331656E+0	1.297276E+0	1.281816E+0	1.313913E+0	1.369657E+0	1.361533E+0	1.305832E+0	1.407294E+0	1.395971E+0	1.328963E+0	1.240694E+0	1.329552E+0	1.302656E+0	1.265594E+0	1.280038E+0	1.315734E+0	1.331349E+0	1.305390E+0	1.299732E+0	1.301420E+0	1.334477E+0	1.249610E+0	1.282801E+0	1.226673E+0	1.270258E+0	1.334448E+0	1.269247E+0	1.353227E+0	1.328401E+0	1.359020E+0	1.371294E+0	1.339958E+0	1.315423E+0	1.304942E+0	1.350795E+0	1.300074E+0	1.315565E+0	1.369482E+0	1.308474E+0	1.297130E+0	1.282526E+0	1.363319E+0	1.332834E+0	1.285418E+0	1.293254E+0	1.306936E+0	1.221551E+0	1.340433E+0	1.272760E+0	1.355692E+0	1.256472E+0	1.280719E+0	1.330878E+0	1.282074E+0	1.239350E+0	1.258633E+0	1.310623E+0	1.257510E+0	1.278660E+0	1.319697E+0	1.383669E+0	1.212185E+0
5.482600E+2	1.428501E+0	1.481443E+0	1.406875E+0	1.392593E+0	1.468059E+0	1.382041E+0	1.436174E+0	1.452321E+0	1.469906E+0	1.405963E+0	1.459558E+0	1.436636E+0	1.364740E+0	1.475754E+0	1.416501E+0	1.396015E+0	1.447754E+0	1.397097E+0	1.396240E+0	1.473957E+0	1.450412E+0	1.401215E+0	1.378858E+0	1.394752E+0	1.506485E+0	1.463193E+0	1.387343E+0	1.431330E+0	1.397226E+0	1.358120E+0	1.382866E+0	1.364263E+0	1.456862E+0	1.430047E+0	1.424739E+0	1.425971E+0	1.425695E+0	1.481618E+0	1.426240E+0	1.512668E+0	1.419380E+0	1.412217E+0	1.443762E+0	1.402979E+0	1.475187E+0	1.391560E+0	1.417013E+0	1.449207E+0	1.510143E+0	1.502654E+0	1.377849E+0	1.429448E+0	1.409123E+0	1.428798E+0	1.479531E+0	1.448548E+0	1.458246E+0	1.404006E+0	1.377644E+0	1.418558E+0	1.434704E+0	1.379489E+0	1.389441E+0	1.401041E+0	1.477665E+0	1.385621E+0	1.446299E+0	1.428002E+0	1.437712E+0	1.413612E+0	1.416837E+0	1.406209E+0	1.372304E+0	1.410851E+0	1.443275E+0	1.412706E+0	1.488368E+0	1.393625E+0	1.401943E+0	1.392429E+0	1.384791E+0	1.383363E+0	1.420369E+0	1.386478E+0	1.476320E+0	1.441605E+0	1.441485E+0	1.445610E+0	1.425069E+0	1.453753E+0	1.406438E+0	1.347920E+0	1.432626E+0	1.393719E+0	1.368377E+0	1.346925E+0	1.437720E+0	1.318742E+0	1.393792E+0	1.476900E+0	1.407389E+0	1.403657E+0	1.396425E+0	1.413745E+0	1.385245E+0	1.397192E+0	1.433021E+0	1.449216E+0	1.461095E+0	1.412066E+0	1.405453E+0	1.479151E+0	1.378978E+0	1.400518E+0	1.459062E+0	1.462986E+0	1.409993E+0	1.435575E+0	1.423289E+0	1.456133E+0	1.399822E+0	1.415607E+0	1.435505E+0	1.414451E+0	1.472684E+0	1.331504E+0	1.426095E+0	1.472141E+0	1.470958E+0	1.378896E+0	1.377372E+0	1.362408E+0	1.384551E+0	1.412627E+0	1.415273E+0	1.391341E+0	1.425941E+0	1.404715E+0	1.390577E+0	1.438754E+0	1.463708E+0	1.380252E+0	1.349701E+0	1.374742E+0	1.383725E+0	1.379720E+0	1.375808E+0	1.433918E+0	1.414184E+0	1.437632E+0	1.404545E+0	1.405912E+0	1.349390E+0	1.378648E+0	1.387520E+0	1.410947E+0	1.343445E+0	1.389628E+0	1.366216E+0	1.341633E+0	1.374385E+0	1.318372E+0	1.413451E+0	1.444430E+0	1.346493E+0
5.490100E+2	1.330285E+0	1.449645E+0	1.325500E+0	1.365465E+0	1.364878E+0	1.364110E+0	1.338579E+0	1.326748E+0	1.397050E+0	1.396618E+0	1.418754E+0	1.350950E+0	1.345179E+0	1.373992E+0	1.287628E+0	1.383272E+0	1.432500E+0	1.367263E+0	1.315204E+0	1.360661E+0	1.343723E+0	1.341383E+0	1.367962E+0	1.314099E+0	1.384505E+0	1.336055E+0	1.389760E+0	1.383351E+0	1.344254E+0	1.378718E+0	1.369996E+0	1.392452E+0	1.441292E+0	1.388924E+0	1.338585E+0	1.399363E+0	1.381182E+0	1.364689E+0	1.366929E+0	1.356983E+0	1.322878E+0	1.330723E+0	1.353002E+0	1.380459E+0	1.387574E+0	1.324155E+0	1.343353E+0	1.356041E+0	1.389273E+0	1.364201E+0	1.362850E+0	1.400095E+0	1.390380E+0	1.409543E+0	1.337724E+0	1.381781E+0	1.304247E+0	1.351475E+0	1.378780E+0	1.310693E+0	1.387358E+0	1.332218E+0	1.335737E+0	1.353956E+0	1.373633E+0	1.345014E+0	1.420933E+0	1.342030E+0	1.343548E+0	1.341407E+0	1.373134E+0	1.374097E+0	1.394391E+0	1.343077E+0	1.301560E+0	1.300182E+0	1.357864E+0	1.327002E+0	1.342277E+0	1.388646E+0	1.393874E+0	1.357573E+0	1.323421E+0	1.312726E+0	1.355856E+0	1.365163E+0	1.381320E+0	1.341513E+0	1.409940E+0	1.337632E+0	1.305412E+0	1.389857E+0	1.436486E+0	1.312246E+0	1.328405E+0	1.356011E+0	1.334657E+0	1.343709E+0	1.376925E+0	1.392055E+0	1.404652E+0	1.328441E+0	1.372489E+0	1.317377E+0	1.365339E+0	1.300872E+0	1.383849E+0	1.376720E+0	1.350953E+0	1.365436E+0	1.384014E+0	1.328860E+0	1.380627E+0	1.234590E+0	1.343777E+0	1.360272E+0	1.350218E+0	1.368268E+0	1.387158E+0	1.344954E+0	1.290877E+0	1.399240E+0	1.273670E+0	1.342950E+0	1.397367E+0	1.313243E+0	1.307475E+0	1.331735E+0	1.342469E+0	1.331312E+0	1.403254E+0	1.306811E+0	1.350899E+0	1.356754E+0	1.349995E+0	1.340151E+0	1.282351E+0	1.319092E+0	1.325033E+0	1.431170E+0	1.369755E+0	1.313694E+0	1.335229E+0	1.401860E+0	1.340981E+0	1.314825E+0	1.332850E+0	1.272973E+0	1.362944E+0	1.315520E+0	1.310862E+0	1.301817E+0	1.350275E+0	1.322676E+0	1.288610E+0	1.361448E+0	1.349962E+0	1.309192E+0	1.345064E+0	1.394664E+0	1.299036E+0	1.295277E+0	1.365885E+0	1.405812E+0	1.223430E+0
5.497520E+2	1.308624E+0	1.350594E+0	1.320900E+0	1.230962E+0	1.243673E+0	1.285687E+0	1.281488E+0	1.308261E+0	1.298719E+0	1.307013E+0	1.309921E+0	1.307593E+0	1.286028E+0	1.319022E+0	1.312359E+0	1.292315E+0	1.301104E+0	1.284809E+0	1.331530E+0	1.293670E+0	1.341297E+0	1.273403E+0	1.273448E+0	1.269403E+0	1.320252E+0	1.241396E+0	1.284412E+0	1.300365E+0	1.224972E+0	1.295221E+0	1.277795E+0	1.268126E+0	1.321461E+0	1.273250E+0	1.267677E+0	1.266023E+0	1.303203E+0	1.322410E+0	1.293327E+0	1.326694E+0	1.278906E+0	1.279914E+0	1.294000E+0	1.319415E+0	1.307373E+0	1.301135E+0	1.298106E+0	1.242078E+0	1.331846E+0	1.265409E+0	1.278159E+0	1.301964E+0	1.244173E+0	1.224197E+0	1.314544E+0	1.295527E+0	1.265152E+0	1.307027E+0	1.293921E+0	1.295939E+0	1.312640E+0	1.265192E+0	1.233859E+0	1.291758E+0	1.338051E+0	1.304254E+0	1.228944E+0	1.251868E+0	1.260561E+0	1.299542E+0	1.284315E+0	1.274112E+0	1.298512E+0	1.274761E+0	1.226470E+0	1.335035E+0	1.340149E+0	1.221485E+0	1.288172E+0	1.248893E+0	1.375657E+0	1.288854E+0	1.280493E+0	1.320346E+0	1.340725E+0	1.313604E+0	1.306588E+0	1.333176E+0	1.311389E+0	1.337168E+0	1.300329E+0	1.260471E+0	1.289446E+0	1.277485E+0	1.297684E+0	1.311057E+0	1.299791E+0	1.338829E+0	1.349910E+0	1.265280E+0	1.302211E+0	1.293658E+0	1.289521E+0	1.303838E+0	1.298534E+0	1.276935E+0	1.274012E+0	1.282653E+0	1.333539E+0	1.255985E+0	1.265110E+0	1.288626E+0	1.350732E+0	1.230363E+0	1.317763E+0	1.276855E+0	1.297411E+0	1.295397E+0	1.290272E+0	1.292231E+0	1.247285E+0	1.328636E+0	1.294149E+0	1.264015E+0	1.318543E+0	1.231120E+0	1.253135E+0	1.250965E+0	1.268062E+0	1.241611E+0	1.245000E+0	1.246571E+0	1.262962E+0	1.293744E+0	1.266048E+0	1.290975E+0	1.369344E+0	1.342842E+0	1.194807E+0	1.266037E+0	1.263012E+0	1.267051E+0	1.307273E+0	1.249405E+0	1.348474E+0	1.232787E+0	1.268649E+0	1.235027E+0	1.321494E+0	1.246953E+0	1.228261E+0	1.264620E+0	1.281046E+0	1.259521E+0	1.258775E+0	1.266659E+0	1.296072E+0	1.212174E+0	1.252578E+0	1.287803E+0	1.321424E+0	1.202996E+0	1.246100E+0	1.416647E+0	1.229296E+0
5.505110E+2	1.357501E+0	1.405568E+0	1.313899E+0	1.271454E+0	1.329182E+0	1.288061E+0	1.307774E+0	1.286372E+0	1.331374E+0	1.305461E+0	1.286075E+0	1.289715E+0	1.320385E+0	1.283271E+0	1.355088E+0	1.322393E+0	1.381463E+0	1.317367E+0	1.279754E+0	1.332215E+0	1.303369E+0	1.283628E+0	1.306984E+0	1.300911E+0	1.314102E+0	1.284195E+0	1.283415E+0	1.335831E+0	1.301100E+0	1.317722E+0	1.282385E+0	1.333868E+0	1.263950E+0	1.312413E+0	1.257004E+0	1.328392E+0	1.308765E+0	1.386512E+0	1.273959E+0	1.331795E+0	1.284285E+0	1.256460E+0	1.337436E+0	1.326416E+0	1.370467E+0	1.238908E+0	1.343081E+0	1.234072E+0	1.361649E+0	1.317721E+0	1.259346E+0	1.332182E+0	1.302447E+0	1.257820E+0	1.280396E+0	1.359770E+0	1.265186E+0	1.315216E+0	1.297292E+0	1.295423E+0	1.355760E+0	1.223719E+0	1.259579E+0	1.316694E+0	1.328122E+0	1.268783E+0	1.322530E+0	1.281910E+0	1.344690E+0	1.278260E+0	1.348036E+0	1.283412E+0	1.350806E+0	1.329841E+0	1.287049E+0	1.328723E+0	1.345633E+0	1.258715E+0	1.286589E+0	1.265562E+0	1.330193E+0	1.326989E+0	1.212799E+0	1.367618E+0	1.272345E+0	1.346612E+0	1.349592E+0	1.297424E+0	1.378793E+0	1.311581E+0	1.345868E+0	1.315196E+0	1.327211E+0	1.271428E+0	1.262390E+0	1.254484E+0	1.290613E+0	1.291994E+0	1.313287E+0	1.291335E+0	1.297567E+0	1.342807E+0	1.270255E+0	1.253125E+0	1.312406E+0	1.251677E+0	1.326941E+0	1.320614E+0	1.293929E+0	1.295538E+0	1.319113E+0	1.298522E+0	1.370858E+0	1.241683E+0	1.313340E+0	1.320284E+0	1.318837E+0	1.278408E+0	1.323572E+0	1.300450E+0	1.298555E+0	1.280454E+0	1.263170E+0	1.340153E+0	1.362906E+0	1.302751E+0	1.328294E+0	1.362783E+0	1.350045E+0	1.308504E+0	1.342810E+0	1.353660E+0	1.281438E+0	1.326610E+0	1.302884E+0	1.301794E+0	1.397114E+0	1.272341E+0	1.327431E+0	1.362307E+0	1.282422E+0	1.249044E+0	1.266319E+0	1.264529E+0	1.331131E+0	1.264888E+0	1.365799E+0	1.311267E+0	1.333565E+0	1.275638E+0	1.296733E+0	1.293147E+0	1.339508E+0	1.345254E+0	1.332197E+0	1.320570E+0	1.267193E+0	1.320707E+0	1.278889E+0	1.275882E+0	1.235645E+0	1.261416E+0	1.204240E+0	1.332769E+0	1.221381E+0
5.512570E+2	1.332403E+0	1.307373E+0	1.311177E+0	1.335249E+0	1.296415E+0	1.355247E+0	1.287927E+0	1.299130E+0	1.281729E+0	1.337252E+0	1.340974E+0	1.351873E+0	1.358370E+0	1.328403E+0	1.313272E+0	1.327611E+0	1.337628E+0	1.324660E+0	1.284835E+0	1.327318E+0	1.308173E+0	1.312490E+0	1.279558E+0	1.328072E+0	1.312993E+0	1.334131E+0	1.330351E+0	1.322206E+0	1.284703E+0	1.255621E+0	1.323227E+0	1.355251E+0	1.341190E+0	1.342623E+0	1.331867E+0	1.290796E+0	1.293654E+0	1.272474E+0	1.320688E+0	1.359665E+0	1.334428E+0	1.313746E+0	1.304185E+0	1.290822E+0	1.328729E+0	1.347800E+0	1.311802E+0	1.271283E+0	1.372473E+0	1.376175E+0	1.335396E+0	1.315485E+0	1.265332E+0	1.334041E+0	1.286778E+0	1.338775E+0	1.297030E+0	1.356190E+0	1.312179E+0	1.262570E+0	1.383224E+0	1.329706E+0	1.273735E+0	1.328350E+0	1.284543E+0	1.315173E+0	1.308872E+0	1.313485E+0	1.358082E+0	1.270843E+0	1.296632E+0	1.363496E+0	1.339098E+0	1.285068E+0	1.362778E+0	1.320969E+0	1.373746E+0	1.279040E+0	1.298707E+0	1.322322E+0	1.384610E+0	1.333263E+0	1.240540E+0	1.302470E+0	1.314207E+0	1.348590E+0	1.427260E+0	1.289538E+0	1.342279E+0	1.316948E+0	1.324553E+0	1.255773E+0	1.293041E+0	1.300741E+0	1.280098E+0	1.290687E+0	1.386539E+0	1.252240E+0	1.331758E+0	1.366795E+0	1.344359E+0	1.336970E+0	1.353010E+0	1.301012E+0	1.329152E+0	1.282850E+0	1.371591E+0	1.342777E+0	1.362635E+0	1.307672E+0	1.312072E+0	1.307767E+0	1.397017E+0	1.290316E+0	1.341226E+0	1.319011E+0	1.329656E+0	1.283156E+0	1.338821E+0	1.330982E+0	1.281195E+0	1.295065E+0	1.291404E+0	1.324074E+0	1.343431E+0	1.305416E+0	1.291243E+0	1.327960E+0	1.316756E+0	1.301719E+0	1.336596E+0	1.309989E+0	1.371023E+0	1.291986E+0	1.275661E+0	1.306717E+0	1.310600E+0	1.226153E+0	1.286481E+0	1.280527E+0	1.307699E+0	1.284043E+0	1.326883E+0	1.297632E+0	1.284786E+0	1.274096E+0	1.375943E+0	1.265667E+0	1.350502E+0	1.283779E+0	1.258462E+0	1.227855E+0	1.347371E+0	1.338704E+0	1.289439E+0	1.330002E+0	1.280401E+0	1.338474E+0	1.303135E+0	1.308666E+0	1.253377E+0	1.240470E+0	1.242463E+0	1.412020E+0	1.284867E+0
5.520150E+2	1.267950E+0	1.320739E+0	1.264659E+0	1.209963E+0	1.208137E+0	1.217790E+0	1.196505E+0	1.275050E+0	1.264755E+0	1.263028E+0	1.220673E+0	1.278665E+0	1.252262E+0	1.232965E+0	1.240616E+0	1.258636E+0	1.304725E+0	1.223133E+0	1.251784E+0	1.280272E+0	1.297333E+0	1.299779E+0	1.274285E+0	1.249222E+0	1.200707E+0	1.269810E+0	1.266599E+0	1.303537E+0	1.283916E+0	1.215908E+0	1.216342E+0	1.210505E+0	1.243228E+0	1.262587E+0	1.203015E+0	1.308036E+0	1.274597E+0	1.231041E+0	1.279228E+0	1.242468E+0	1.262126E+0	1.241228E+0	1.229784E+0	1.253509E+0	1.240411E+0	1.225482E+0	1.276373E+0	1.280810E+0	1.330456E+0	1.282442E+0	1.216208E+0	1.269994E+0	1.227089E+0	1.227416E+0	1.235310E+0	1.277743E+0	1.241737E+0	1.265519E+0	1.254793E+0	1.261869E+0	1.321651E+0	1.266218E+0	1.267237E+0	1.234318E+0	1.261144E+0	1.247504E+0	1.213894E+0	1.247599E+0	1.265355E+0	1.190625E+0	1.264485E+0	1.263396E+0	1.280430E+0	1.239659E+0	1.271462E+0	1.276102E+0	1.247543E+0	1.231424E+0	1.184358E+0	1.282971E+0	1.264408E+0	1.293132E+0	1.223279E+0	1.213856E+0	1.282224E+0	1.242066E+0	1.272703E+0	1.258499E+0	1.259771E+0	1.269507E+0	1.257363E+0	1.205097E+0	1.257994E+0	1.258267E+0	1.308261E+0	1.237855E+0	1.332816E+0	1.243474E+0	1.285239E+0	1.209817E+0	1.286687E+0	1.176823E+0	1.283368E+0	1.202400E+0	1.276070E+0	1.234778E+0	1.268482E+0	1.240679E+0	1.312200E+0	1.204021E+0	1.257928E+0	1.259270E+0	1.237558E+0	1.244091E+0	1.267316E+0	1.220913E+0	1.245547E+0	1.233213E+0	1.266257E+0	1.285543E+0	1.292372E+0	1.272306E+0	1.223223E+0	1.238069E+0	1.218451E+0	1.230911E+0	1.213890E+0	1.254649E+0	1.233256E+0	1.229890E+0	1.257549E+0	1.286814E+0	1.254637E+0	1.210631E+0	1.256197E+0	1.261163E+0	1.268744E+0	1.270712E+0	1.272552E+0	1.274610E+0	1.270254E+0	1.203967E+0	1.240672E+0	1.206883E+0	1.289177E+0	1.203250E+0	1.243533E+0	1.268455E+0	1.295662E+0	1.281205E+0	1.230194E+0	1.209341E+0	1.251893E+0	1.235134E+0	1.213518E+0	1.298992E+0	1.238123E+0	1.147547E+0	1.207642E+0	1.274770E+0	1.197877E+0	1.191016E+0	1.238728E+0	1.262451E+0	1.127489E+0
5.527700E+2	1.306988E+0	1.311081E+0	1.328936E+0	1.305809E+0	1.356403E+0	1.295397E+0	1.278074E+0	1.318681E+0	1.294376E+0	1.354478E+0	1.342571E+0	1.323287E+0	1.327073E+0	1.275793E+0	1.289963E+0	1.333839E+0	1.350395E+0	1.245892E+0	1.379886E+0	1.352402E+0	1.360093E+0	1.284769E+0	1.285518E+0	1.342164E+0	1.349242E+0	1.362973E+0	1.380475E+0	1.311615E+0	1.370646E+0	1.260295E+0	1.258280E+0	1.318538E+0	1.349414E+0	1.350012E+0	1.322580E+0	1.338856E+0	1.294908E+0	1.350083E+0	1.355848E+0	1.345615E+0	1.302037E+0	1.329449E+0	1.370110E+0	1.311907E+0	1.371259E+0	1.351413E+0	1.335054E+0	1.272721E+0	1.303461E+0	1.352842E+0	1.360213E+0	1.321984E+0	1.293944E+0	1.362528E+0	1.306199E+0	1.326577E+0	1.306728E+0	1.357117E+0	1.333230E+0	1.285305E+0	1.388041E+0	1.335637E+0	1.328865E+0	1.274654E+0	1.362625E+0	1.308915E+0	1.364410E+0	1.344787E+0	1.302099E+0	1.354023E+0	1.305841E+0	1.312581E+0	1.337222E+0	1.298749E+0	1.350504E+0	1.302101E+0	1.375978E+0	1.297510E+0	1.285821E+0	1.331499E+0	1.349102E+0	1.345670E+0	1.349140E+0	1.309612E+0	1.311436E+0	1.394050E+0	1.350446E+0	1.343994E+0	1.331119E+0	1.298690E+0	1.329021E+0	1.332221E+0	1.336113E+0	1.255937E+0	1.312163E+0	1.297082E+0	1.317225E+0	1.342963E+0	1.332571E+0	1.282422E+0	1.324846E+0	1.339917E+0	1.273823E+0	1.275734E+0	1.292703E+0	1.281429E+0	1.294934E+0	1.336426E+0	1.303465E+0	1.322187E+0	1.309311E+0	1.306703E+0	1.359321E+0	1.250127E+0	1.351349E+0	1.324562E+0	1.318857E+0	1.366517E+0	1.285853E+0	1.404959E+0	1.350410E+0	1.333747E+0	1.333730E+0	1.307948E+0	1.353370E+0	1.390029E+0	1.273633E+0	1.292075E+0	1.349945E+0	1.307744E+0	1.295705E+0	1.307441E+0	1.318723E+0	1.353265E+0	1.264930E+0	1.286246E+0	1.325120E+0	1.321020E+0	1.369260E+0	1.328654E+0	1.333487E+0	1.297795E+0	1.295809E+0	1.300739E+0	1.342933E+0	1.313367E+0	1.370365E+0	1.344784E+0	1.324305E+0	1.244715E+0	1.304505E+0	1.188541E+0	1.308613E+0	1.321281E+0	1.232659E+0	1.319614E+0	1.339390E+0	1.320578E+0	1.328552E+0	1.283519E+0	1.297802E+0	1.282384E+0	1.255929E+0	1.382195E+0	1.228564E+0
5.535330E+2	1.247885E+0	1.309801E+0	1.348314E+0	1.320057E+0	1.322739E+0	1.252099E+0	1.260355E+0	1.282199E+0	1.241977E+0	1.272197E+0	1.357817E+0	1.274016E+0	1.299234E+0	1.307665E+0	1.243564E+0	1.245615E+0	1.312844E+0	1.250632E+0	1.283414E+0	1.255767E+0	1.293394E+0	1.237142E+0	1.313240E+0	1.258483E+0	1.251368E+0	1.254413E+0	1.241570E+0	1.262230E+0	1.269678E+0	1.242330E+0	1.311545E+0	1.255048E+0	1.306454E+0	1.280270E+0	1.279166E+0	1.247797E+0	1.234624E+0	1.224366E+0	1.243268E+0	1.327050E+0	1.198551E+0	1.286459E+0	1.251112E+0	1.262536E+0	1.296966E+0	1.304140E+0	1.192402E+0	1.254359E+0	1.338010E+0	1.280117E+0	1.251641E+0	1.260155E+0	1.273423E+0	1.292342E+0	1.304728E+0	1.254564E+0	1.264105E+0	1.314155E+0	1.234283E+0	1.251111E+0	1.228722E+0	1.304714E+0	1.320709E+0	1.222215E+0	1.300652E+0	1.249274E+0	1.235660E+0	1.301606E+0	1.253863E+0	1.264457E+0	1.283032E+0	1.257607E+0	1.272483E+0	1.238018E+0	1.269480E+0	1.235315E+0	1.305055E+0	1.240248E+0	1.231528E+0	1.257370E+0	1.311430E+0	1.219701E+0	1.258185E+0	1.293160E+0	1.284739E+0	1.305152E+0	1.327563E+0	1.273838E+0	1.239872E+0	1.271870E+0	1.252438E+0	1.239255E+0	1.296047E+0	1.256466E+0	1.236940E+0	1.246154E+0	1.286053E+0	1.271805E+0	1.301200E+0	1.279929E+0	1.223326E+0	1.238765E+0	1.279290E+0	1.223967E+0	1.285540E+0	1.265162E+0	1.291561E+0	1.296491E+0	1.319585E+0	1.280067E+0	1.231099E+0	1.293847E+0	1.220393E+0	1.221137E+0	1.258960E+0	1.318965E+0	1.281900E+0	1.225375E+0	1.238858E+0	1.246532E+0	1.295328E+0	1.304049E+0	1.227732E+0	1.328645E+0	1.236605E+0	1.193764E+0	1.250001E+0	1.248309E+0	1.267898E+0	1.279519E+0	1.250642E+0	1.255130E+0	1.295218E+0	1.219468E+0	1.237193E+0	1.263753E+0	1.337799E+0	1.223865E+0	1.280224E+0	1.271456E+0	1.278581E+0	1.229236E+0	1.246091E+0	1.270876E+0	1.267196E+0	1.250082E+0	1.246568E+0	1.212129E+0	1.338785E+0	1.243717E+0	1.291437E+0	1.204913E+0	1.246913E+0	1.268985E+0	1.252408E+0	1.209269E+0	1.279740E+0	1.232039E+0	1.256895E+0	1.269886E+0	1.236660E+0	1.269858E+0	1.303805E+0	1.304497E+0	1.217105E+0
5.542700E+2	1.197855E+0	1.305732E+0	1.234570E+0	1.198076E+0	1.214207E+0	1.146365E+0	1.198653E+0	1.181635E+0	1.228490E+0	1.170783E+0	1.206047E+0	1.185211E+0	1.253534E+0	1.166102E+0	1.221953E+0	1.133720E+0	1.257266E+0	1.164658E+0	1.245975E+0	1.231414E+0	1.205064E+0	1.209840E+0	1.209325E+0	1.200868E+0	1.231122E+0	1.198192E+0	1.144732E+0	1.199670E+0	1.210419E+0	1.162863E+0	1.223933E+0	1.210830E+0	1.207430E+0	1.194359E+0	1.234225E+0	1.245849E+0	1.261681E+0	1.213715E+0	1.203832E+0	1.235590E+0	1.210613E+0	1.199573E+0	1.188191E+0	1.214970E+0	1.231747E+0	1.196254E+0	1.241198E+0	1.222607E+0	1.261878E+0	1.222036E+0	1.252553E+0	1.207839E+0	1.142628E+0	1.182595E+0	1.194681E+0	1.188154E+0	1.211521E+0	1.223183E+0	1.168183E+0	1.143126E+0	1.276653E+0	1.204291E+0	1.215155E+0	1.177071E+0	1.207224E+0	1.194493E+0	1.138688E+0	1.232381E+0	1.177461E+0	1.203587E+0	1.214332E+0	1.218554E+0	1.255965E+0	1.172790E+0	1.208190E+0	1.221877E+0	1.241658E+0	1.151387E+0	1.142805E+0	1.204270E+0	1.211419E+0	1.197599E+0	1.167916E+0	1.206361E+0	1.232641E+0	1.250294E+0	1.186729E+0	1.200419E+0	1.235090E+0	1.178594E+0	1.183257E+0	1.146704E+0	1.165631E+0	1.153689E+0	1.198424E+0	1.247277E+0	1.209249E+0	1.202614E+0	1.241511E+0	1.189514E+0	1.231194E+0	1.223656E+0	1.188354E+0	1.193927E+0	1.213443E+0	1.160523E+0	1.174259E+0	1.233809E+0	1.179217E+0	1.182011E+0	1.180012E+0	1.158538E+0	1.208170E+0	1.146644E+0	1.167163E+0	1.172406E+0	1.229581E+0	1.201291E+0	1.246815E+0	1.265196E+0	1.208663E+0	1.182804E+0	1.223290E+0	1.206442E+0	1.225297E+0	1.138378E+0	1.197636E+0	1.180353E+0	1.174371E+0	1.183994E+0	1.238563E+0	1.214373E+0	1.238092E+0	1.219347E+0	1.196105E+0	1.204572E+0	1.199110E+0	1.237933E+0	1.214480E+0	1.188598E+0	1.233161E+0	1.201014E+0	1.241280E+0	1.220152E+0	1.285899E+0	1.180543E+0	1.185734E+0	1.176179E+0	1.245420E+0	1.144340E+0	1.145195E+0	1.140891E+0	1.166659E+0	1.124926E+0	1.172996E+0	1.215987E+0	1.183784E+0	1.119710E+0	1.156978E+0	1.245463E+0	1.128376E+0	1.195493E+0	1.171527E+0	1.225648E+0	1.120106E+0
5.550310E+2	1.052638E+0	1.162987E+0	1.161561E+0	1.123471E+0	1.081406E+0	1.106302E+0	1.093933E+0	1.083810E+0	1.019731E+0	1.115857E+0	1.116599E+0	1.085867E+0	1.086551E+0	1.116831E+0	1.109939E+0	1.103512E+0	1.087922E+0	1.015855E+0	1.098838E+0	1.038810E+0	1.083686E+0	1.098996E+0	1.069734E+0	1.065332E+0	1.086677E+0	1.112827E+0	1.047957E+0	1.065296E+0	1.062324E+0	1.063650E+0	1.061832E+0	1.083568E+0	1.077118E+0	1.071486E+0	1.057338E+0	1.145863E+0	1.080845E+0	1.082369E+0	1.095407E+0	1.103563E+0	1.118989E+0	1.058946E+0	1.058833E+0	1.071234E+0	1.082760E+0	1.042283E+0	1.101674E+0	1.111021E+0	1.087513E+0	1.098431E+0	1.153440E+0	1.109390E+0	1.097225E+0	1.132900E+0	1.081394E+0	1.133450E+0	1.108888E+0	1.126034E+0	1.132924E+0	1.055317E+0	1.119961E+0	1.082530E+0	1.080217E+0	1.032221E+0	1.132956E+0	1.139517E+0	1.075088E+0	1.033683E+0	1.077092E+0	1.050578E+0	1.058804E+0	1.100046E+0	1.083679E+0	1.048179E+0	1.117253E+0	1.098671E+0	1.086065E+0	1.123419E+0	1.133255E+0	1.093615E+0	1.083731E+0	1.095708E+0	1.105660E+0	1.103851E+0	1.108964E+0	1.112130E+0	1.122126E+0	1.072867E+0	1.106351E+0	1.153109E+0	1.121724E+0	1.084361E+0	1.134463E+0	1.080989E+0	1.073552E+0	1.123315E+0	1.080936E+0	1.053581E+0	1.114564E+0	1.052819E+0	1.133690E+0	1.115336E+0	1.043065E+0	1.067956E+0	1.105356E+0	1.049750E+0	1.071700E+0	1.069718E+0	1.079758E+0	1.125481E+0	1.072307E+0	1.061920E+0	1.121682E+0	1.013419E+0	1.090341E+0	1.130353E+0	1.113159E+0	1.108176E+0	1.097748E+0	1.112538E+0	1.094258E+0	1.061846E+0	1.052731E+0	1.082211E+0	1.122553E+0	1.059087E+0	1.128883E+0	1.126809E+0	1.106985E+0	1.047467E+0	1.093156E+0	1.082523E+0	1.086494E+0	1.094965E+0	1.091389E+0	1.117765E+0	1.116758E+0	1.105401E+0	1.130803E+0	1.104085E+0	1.113714E+0	1.080645E+0	1.075984E+0	1.064134E+0	1.098562E+0	1.044275E+0	1.132921E+0	1.069976E+0	1.089705E+0	1.104920E+0	1.110774E+0	9.915512E-1	1.121179E+0	1.141684E+0	1.096944E+0	1.119326E+0	1.084506E+0	1.111452E+0	1.077646E+0	1.133482E+0	1.098132E+0	1.041886E+0	1.043940E+0	1.064608E+0	1.049091E+0
5.557600E+2	9.779671E-1	1.058473E+0	1.070136E+0	1.008038E+0	1.021328E+0	1.003486E+0	1.015192E+0	9.921761E-1	9.974199E-1	1.026556E+0	9.971197E-1	1.026771E+0	1.046599E+0	1.024239E+0	1.019873E+0	9.864465E-1	1.054282E+0	1.041727E+0	1.031722E+0	1.038541E+0	1.050908E+0	1.014609E+0	1.038601E+0	9.940178E-1	1.095055E+0	1.067083E+0	1.006588E+0	1.024255E+0	9.636636E-1	1.015046E+0	1.022477E+0	9.994045E-1	1.030232E+0	1.064271E+0	1.031048E+0	1.052823E+0	1.005137E+0	1.040211E+0	1.091880E+0	9.916810E-1	1.054404E+0	1.044905E+0	1.017979E+0	9.818860E-1	1.040570E+0	9.956570E-1	9.678885E-1	1.045529E+0	1.035734E+0	1.042948E+0	1.053666E+0	1.072691E+0	9.940398E-1	1.046275E+0	1.036147E+0	1.026142E+0	1.022296E+0	1.038183E+0	1.038209E+0	1.032250E+0	1.026799E+0	1.013502E+0	9.907968E-1	1.047386E+0	1.044198E+0	1.015660E+0	1.064691E+0	1.035671E+0	1.003746E+0	1.001128E+0	9.985263E-1	1.043367E+0	1.070120E+0	1.017142E+0	1.037120E+0	1.058606E+0	9.795850E-1	9.762867E-1	1.040526E+0	1.037251E+0	1.095963E+0	9.933623E-1	1.006874E+0	1.033717E+0	1.042527E+0	1.066999E+0	1.072818E+0	1.052999E+0	1.058292E+0	1.038681E+0	1.037151E+0	1.029152E+0	1.087184E+0	9.768314E-1	9.979308E-1	1.030044E+0	1.045879E+0	9.883387E-1	1.056807E+0	1.003638E+0	1.060212E+0	1.057378E+0	1.032232E+0	1.013985E+0	1.024147E+0	1.052544E+0	1.017371E+0	1.014963E+0	9.967255E-1	1.020436E+0	1.072407E+0	1.019598E+0	1.003259E+0	9.989735E-1	1.054494E+0	1.041977E+0	1.002258E+0	1.027961E+0	9.669328E-1	1.032877E+0	1.004675E+0	1.037519E+0	1.035047E+0	1.003469E+0	1.006162E+0	9.897606E-1	1.060394E+0	1.014774E+0	1.033828E+0	9.479185E-1	1.046749E+0	1.042553E+0	1.043009E+0	9.934629E-1	1.033271E+0	1.019669E+0	1.067048E+0	1.032170E+0	1.095132E+0	1.033469E+0	1.043122E+0	1.016925E+0	1.035668E+0	1.052430E+0	1.008484E+0	9.802215E-1	1.037675E+0	1.052681E+0	1.026447E+0	1.012455E+0	1.015370E+0	9.794447E-1	1.035086E+0	1.064800E+0	1.010294E+0	1.038100E+0	9.607526E-1	1.018718E+0	1.042186E+0	1.015227E+0	1.040058E+0	9.722441E-1	1.056857E+0	1.041646E+0	8.925498E-1
5.560130E+2	9.447715E-1	9.702878E-1	9.845973E-1	9.662277E-1	9.570128E-1	9.879877E-1	9.825112E-1	1.002671E+0	9.276203E-1	9.615272E-1	9.842405E-1	9.549133E-1	9.888810E-1	1.008146E+0	9.755912E-1	1.000232E+0	9.378851E-1	9.503470E-1	9.792373E-1	9.970083E-1	1.018265E+0	9.695475E-1	9.978374E-1	9.692326E-1	9.850913E-1	9.901099E-1	9.208947E-1	1.014192E+0	9.830306E-1	9.932113E-1	9.951269E-1	9.721875E-1	9.931792E-1	9.953503E-1	9.511404E-1	1.011907E+0	9.823401E-1	1.038964E+0	9.514839E-1	9.509526E-1	9.343970E-1	9.291753E-1	9.462981E-1	9.660941E-1	9.494199E-1	1.012470E+0	9.554846E-1	9.930211E-1	9.961884E-1	1.011308E+0	9.431828E-1	9.908645E-1	9.869666E-1	9.943426E-1	1.010714E+0	1.005796E+0	9.346361E-1	9.568067E-1	9.894670E-1	9.456092E-1	9.705854E-1	9.768076E-1	1.004308E+0	9.751196E-1	9.866140E-1	9.764682E-1	9.239511E-1	9.715848E-1	1.014720E+0	9.511567E-1	9.497854E-1	9.381141E-1	9.752019E-1	9.615222E-1	9.971396E-1	9.283921E-1	1.004385E+0	9.911974E-1	9.827445E-1	9.613238E-1	9.828511E-1	9.658429E-1	1.002413E+0	9.462906E-1	9.595543E-1	9.910995E-1	1.004625E+0	9.875895E-1	9.950923E-1	1.015342E+0	1.012184E+0	9.885170E-1	9.519341E-1	1.018958E+0	9.613506E-1	9.786659E-1	9.829021E-1	9.827953E-1	1.070004E+0	9.721694E-1	9.776907E-1	9.803711E-1	9.918300E-1	9.695133E-1	9.805676E-1	9.696285E-1	9.856253E-1	9.760302E-1	1.005006E+0	9.763586E-1	9.879910E-1	1.001803E+0	9.751176E-1	9.763239E-1	1.015813E+0	9.930751E-1	9.727747E-1	9.732286E-1	1.002570E+0	1.000496E+0	9.698441E-1	9.426353E-1	9.831904E-1	9.407898E-1	9.607351E-1	9.588868E-1	9.550716E-1	9.832960E-1	9.515023E-1	9.205278E-1	9.777802E-1	1.001975E+0	9.474381E-1	9.521124E-1	9.780847E-1	9.959641E-1	9.483220E-1	9.995969E-1	9.790942E-1	1.001055E+0	9.925903E-1	9.532309E-1	9.948063E-1	9.449271E-1	9.781439E-1	9.290329E-1	9.678103E-1	9.570433E-1	9.904392E-1	8.996824E-1	1.030137E+0	9.402531E-1	1.015831E+0	9.830369E-1	9.361371E-1	9.743175E-1	9.792557E-1	9.719902E-1	1.017168E+0	9.784042E-1	1.007164E+0	9.565844E-1	9.257104E-1	9.612414E-1	9.244316E-1
5.565030E+2	9.218598E-1	9.652677E-1	9.081153E-1	8.863513E-1	9.291556E-1	9.575865E-1	9.071515E-1	9.566019E-1	9.795808E-1	8.815479E-1	9.527917E-1	9.543552E-1	9.730653E-1	9.876803E-1	9.554544E-1	9.472466E-1	9.739845E-1	9.724708E-1	9.225693E-1	9.469645E-1	9.264607E-1	9.318255E-1	9.486154E-1	9.335390E-1	9.541939E-1	8.923183E-1	9.434629E-1	9.606032E-1	9.402908E-1	8.939066E-1	1.028673E+0	9.848113E-1	8.940574E-1	1.002476E+0	9.697359E-1	9.405908E-1	9.681338E-1	8.954590E-1	9.366456E-1	9.189773E-1	9.449888E-1	9.593524E-1	9.315386E-1	9.637211E-1	9.280212E-1	9.596425E-1	9.506007E-1	9.641603E-1	9.369665E-1	9.532628E-1	9.141812E-1	9.676558E-1	1.006743E+0	9.551528E-1	9.241250E-1	9.521157E-1	9.288249E-1	9.983305E-1	8.895447E-1	1.001215E+0	9.276875E-1	9.451800E-1	9.407090E-1	9.306195E-1	9.189874E-1	9.801879E-1	1.001660E+0	9.730333E-1	9.089705E-1	9.060324E-1	9.132303E-1	9.493065E-1	9.146300E-1	9.575898E-1	9.471693E-1	9.513476E-1	9.781798E-1	9.619341E-1	9.620411E-1	9.542985E-1	9.634904E-1	9.386035E-1	9.470135E-1	9.154924E-1	9.646542E-1	9.492060E-1	9.536842E-1	9.081298E-1	9.634777E-1	9.682501E-1	8.991119E-1	9.211331E-1	9.765321E-1	9.795165E-1	9.547359E-1	9.560234E-1	9.568386E-1	9.373434E-1	9.281498E-1	8.907071E-1	9.435865E-1	9.296488E-1	9.586642E-1	9.362833E-1	9.763618E-1	9.063894E-1	8.868465E-1	9.619596E-1	9.596798E-1	9.730156E-1	9.306704E-1	9.578701E-1	9.746751E-1	9.098272E-1	9.783958E-1	9.409304E-1	9.444068E-1	9.337035E-1	9.120431E-1	9.472442E-1	9.103539E-1	9.231957E-1	9.326175E-1	9.185504E-1	9.525037E-1	9.167234E-1	9.485447E-1	9.617027E-1	9.868920E-1	9.357627E-1	9.433739E-1	9.722168E-1	9.389409E-1	9.290238E-1	1.007703E+0	9.373550E-1	9.533135E-1	9.371795E-1	9.299912E-1	9.455404E-1	9.618895E-1	9.012228E-1	9.956009E-1	9.851917E-1	9.722415E-1	9.541151E-1	9.128570E-1	8.878556E-1	9.262863E-1	9.390679E-1	9.674762E-1	9.576528E-1	1.004636E+0	9.485411E-1	9.335590E-1	9.277087E-1	9.918625E-1	9.879334E-1	9.429838E-1	9.656650E-1	9.217212E-1	9.383252E-1	9.199636E-1	9.901787E-1	9.558525E-1
5.570100E+2	9.587290E-1	9.561111E-1	9.728706E-1	1.030150E+0	9.702895E-1	9.494111E-1	9.443484E-1	9.694221E-1	9.094303E-1	9.525833E-1	9.575965E-1	9.666340E-1	9.786721E-1	9.843016E-1	9.730274E-1	9.571782E-1	9.696939E-1	9.326147E-1	9.893434E-1	9.429712E-1	9.939479E-1	9.394191E-1	9.281890E-1	9.454010E-1	9.888533E-1	1.020503E+0	9.821951E-1	9.895485E-1	9.482743E-1	9.677399E-1	9.621123E-1	9.852802E-1	9.674753E-1	9.981774E-1	9.683510E-1	9.401955E-1	9.771419E-1	9.847982E-1	9.660342E-1	9.883794E-1	1.009861E+0	1.010953E+0	9.812627E-1	9.417420E-1	9.316963E-1	9.687120E-1	9.190763E-1	9.761762E-1	9.472353E-1	9.075896E-1	9.590951E-1	9.471100E-1	1.001410E+0	9.900982E-1	9.973000E-1	9.583791E-1	9.657463E-1	1.007812E+0	9.667211E-1	9.151365E-1	1.014232E+0	9.529826E-1	9.510636E-1	9.526499E-1	9.933443E-1	9.750127E-1	9.267450E-1	9.636963E-1	9.412496E-1	9.226470E-1	9.990904E-1	9.884143E-1	9.843843E-1	9.420093E-1	9.394032E-1	9.490778E-1	9.948321E-1	9.208414E-1	9.591161E-1	9.712792E-1	9.317645E-1	1.010497E+0	9.739451E-1	1.002653E+0	9.583327E-1	9.316300E-1	9.608521E-1	9.980448E-1	9.965559E-1	9.866750E-1	9.854307E-1	9.949222E-1	9.789548E-1	9.755039E-1	9.724968E-1	9.718475E-1	9.475494E-1	9.873153E-1	9.949734E-1	9.868052E-1	1.010929E+0	9.478856E-1	9.268791E-1	9.817382E-1	9.413692E-1	9.838243E-1	9.277245E-1	1.053062E+0	9.623783E-1	9.700204E-1	9.910983E-1	9.531061E-1	9.833489E-1	8.892376E-1	9.533691E-1	9.343191E-1	9.861605E-1	9.590611E-1	9.813609E-1	9.514821E-1	9.587715E-1	9.464456E-1	9.979921E-1	9.854715E-1	9.785116E-1	9.103437E-1	9.853538E-1	1.009422E+0	9.766615E-1	9.583658E-1	9.849234E-1	9.667668E-1	9.563185E-1	9.891636E-1	9.694245E-1	1.000423E+0	9.925167E-1	9.715857E-1	9.711847E-1	9.511180E-1	9.632063E-1	9.602656E-1	1.007896E+0	9.419201E-1	1.001243E+0	1.002450E+0	9.877673E-1	9.208860E-1	9.336770E-1	9.384575E-1	9.830054E-1	9.611542E-1	9.367041E-1	1.019565E+0	9.569265E-1	9.875979E-1	9.712537E-1	9.351987E-1	9.320637E-1	9.579173E-1	9.646787E-1	9.839757E-1	9.658067E-1	9.953713E-1	1.055439E+0
5.575080E+2	1.015630E+0	9.831872E-1	1.017761E+0	9.902873E-1	1.032080E+0	9.952386E-1	1.003545E+0	1.006374E+0	1.044197E+0	9.642091E-1	9.737357E-1	1.072019E+0	9.886111E-1	1.002338E+0	1.002982E+0	9.877275E-1	1.016271E+0	9.883967E-1	1.014893E+0	1.017011E+0	1.008098E+0	1.015636E+0	1.016243E+0	9.792988E-1	1.008471E+0	1.018805E+0	9.136342E-1	1.004355E+0	1.014747E+0	1.011706E+0	1.009790E+0	1.027730E+0	1.004024E+0	9.838693E-1	9.752495E-1	1.016727E+0	1.006859E+0	9.945897E-1	1.002345E+0	1.007938E+0	1.038979E+0	1.007598E+0	1.016748E+0	1.032570E+0	1.026080E+0	9.917106E-1	1.006742E+0	9.932637E-1	9.874522E-1	1.020425E+0	9.870831E-1	9.856151E-1	9.934191E-1	9.843342E-1	1.039424E+0	1.013408E+0	1.053904E+0	9.851483E-1	1.019297E+0	1.038724E+0	9.761027E-1	1.027410E+0	1.016912E+0	1.040043E+0	1.014736E+0	1.006540E+0	9.670730E-1	9.757548E-1	1.014941E+0	9.870080E-1	9.812206E-1	1.006565E+0	1.042831E+0	9.989900E-1	9.781857E-1	1.065274E+0	9.857404E-1	1.009098E+0	9.973172E-1	9.841498E-1	9.774465E-1	9.724011E-1	1.003663E+0	1.012512E+0	1.021678E+0	1.039323E+0	1.018223E+0	1.021730E+0	1.010447E+0	9.891360E-1	1.004436E+0	1.021492E+0	1.020323E+0	9.917623E-1	1.040080E+0	1.019805E+0	9.792807E-1	9.935791E-1	1.012992E+0	9.594013E-1	9.644286E-1	1.008258E+0	1.071082E+0	9.783604E-1	9.726890E-1	9.731756E-1	1.046672E+0	9.764302E-1	1.007314E+0	9.704111E-1	9.918891E-1	9.633935E-1	1.010991E+0	1.020783E+0	1.034025E+0	9.541364E-1	9.876659E-1	1.019418E+0	9.696775E-1	1.003433E+0	9.960795E-1	1.029296E+0	9.620989E-1	1.001384E+0	1.005669E+0	1.019725E+0	9.855339E-1	9.881547E-1	9.803700E-1	9.715711E-1	1.016136E+0	1.011913E+0	9.847737E-1	1.007567E+0	9.665375E-1	1.007615E+0	1.067481E+0	9.949383E-1	1.008110E+0	9.880416E-1	9.777458E-1	9.707450E-1	9.550430E-1	9.821453E-1	1.025258E+0	9.952309E-1	1.034954E+0	1.003056E+0	1.000461E+0	1.009559E+0	1.048290E+0	1.014013E+0	9.815356E-1	9.811715E-1	9.440878E-1	1.000381E+0	1.027166E+0	9.931302E-1	1.006799E+0	9.713402E-1	1.034163E+0	9.880025E-1	1.015949E+0	9.835647E-1	9.572613E-1
5.580400E+2	1.064928E+0	9.950345E-1	1.064666E+0	1.025145E+0	9.979746E-1	1.017598E+0	1.066901E+0	1.018331E+0	1.017456E+0	1.058138E+0	9.971521E-1	1.040320E+0	1.008760E+0	1.044422E+0	1.064252E+0	1.020940E+0	1.020537E+0	1.030599E+0	1.050543E+0	1.040332E+0	1.010930E+0	1.101073E+0	1.026268E+0	1.020150E+0	1.023407E+0	1.001060E+0	1.017057E+0	1.011293E+0	1.027193E+0	1.049155E+0	1.032192E+0	9.951370E-1	1.069387E+0	9.965560E-1	1.047848E+0	1.024374E+0	1.016196E+0	1.027089E+0	1.042474E+0	1.047045E+0	1.006580E+0	9.992737E-1	1.032706E+0	1.031708E+0	1.017643E+0	1.055120E+0	1.018685E+0	1.016568E+0	1.009799E+0	1.028653E+0	1.034491E+0	9.950940E-1	9.904420E-1	1.048667E+0	1.020311E+0	1.044688E+0	9.786564E-1	9.945584E-1	1.027440E+0	1.017504E+0	1.025665E+0	9.642737E-1	9.861120E-1	1.020991E+0	1.009191E+0	1.067916E+0	1.061940E+0	1.017218E+0	1.038291E+0	1.055279E+0	1.031635E+0	1.043986E+0	1.023966E+0	1.024044E+0	1.032320E+0	1.000165E+0	1.064724E+0	1.020219E+0	1.088135E+0	1.035494E+0	1.027869E+0	1.060441E+0	1.012326E+0	1.070158E+0	1.024122E+0	9.942162E-1	9.997604E-1	1.026142E+0	1.059600E+0	1.048606E+0	9.938098E-1	9.756631E-1	9.645284E-1	1.041055E+0	1.013530E+0	1.028356E+0	9.837178E-1	1.019934E+0	1.038043E+0	1.041263E+0	1.014351E+0	1.009458E+0	1.008688E+0	1.007077E+0	1.021747E+0	1.046011E+0	1.055910E+0	1.040645E+0	1.013078E+0	1.079635E+0	1.011098E+0	1.064386E+0	1.000193E+0	1.028247E+0	1.001778E+0	1.047642E+0	1.044200E+0	1.046470E+0	1.017169E+0	1.039462E+0	1.025006E+0	1.017452E+0	1.018970E+0	9.767932E-1	1.011309E+0	1.034094E+0	1.052631E+0	1.015219E+0	1.068971E+0	1.047616E+0	1.011312E+0	9.738463E-1	1.049582E+0	1.071258E+0	1.030905E+0	9.943945E-1	1.049792E+0	1.075482E+0	1.032964E+0	1.032170E+0	1.006720E+0	1.062283E+0	1.022490E+0	1.041185E+0	1.051443E+0	1.112550E+0	1.013094E+0	1.043904E+0	1.005351E+0	1.058531E+0	9.906510E-1	1.008229E+0	1.031404E+0	9.996709E-1	1.050727E+0	1.071713E+0	1.057485E+0	1.057825E+0	1.053247E+0	1.010009E+0	9.754910E-1	1.022391E+0	1.079171E+0	1.014771E+0	1.031995E+0
5.585390E+2	1.055160E+0	1.057579E+0	1.011324E+0	1.015688E+0	1.063121E+0	1.057731E+0	1.062925E+0	1.033597E+0	1.086251E+0	1.048926E+0	1.046494E+0	1.028635E+0	1.079022E+0	1.014470E+0	1.072526E+0	1.067990E+0	1.070679E+0	1.076526E+0	1.036719E+0	1.042929E+0	1.088469E+0	1.016799E+0	1.056478E+0	1.063480E+0	1.054708E+0	1.054926E+0	1.057975E+0	1.025685E+0	1.078360E+0	1.048647E+0	1.068241E+0	1.052781E+0	1.078222E+0	1.070519E+0	1.058002E+0	1.062096E+0	1.054427E+0	1.052781E+0	1.049138E+0	1.087928E+0	1.054129E+0	1.021204E+0	1.093034E+0	1.068926E+0	1.038199E+0	1.057320E+0	1.031798E+0	1.040394E+0	1.060358E+0	1.053988E+0	1.032051E+0	1.023906E+0	1.003137E+0	1.028493E+0	1.016625E+0	1.008413E+0	1.079185E+0	1.075275E+0	1.118225E+0	1.060528E+0	1.017362E+0	1.058050E+0	9.974573E-1	1.012681E+0	1.036989E+0	1.051465E+0	1.029534E+0	1.065455E+0	1.036299E+0	1.075012E+0	9.942109E-1	9.922830E-1	1.086922E+0	1.033529E+0	1.079009E+0	1.048931E+0	1.041720E+0	1.084897E+0	1.041173E+0	1.076922E+0	1.037543E+0	1.020263E+0	1.014395E+0	9.975513E-1	1.066244E+0	9.948264E-1	1.047177E+0	1.041205E+0	1.007166E+0	1.021511E+0	1.044153E+0	1.028206E+0	1.058155E+0	1.002429E+0	1.025778E+0	1.001475E+0	9.946959E-1	1.043314E+0	1.034263E+0	1.063136E+0	1.025594E+0	1.041954E+0	1.020321E+0	9.917444E-1	9.798866E-1	1.061810E+0	1.034840E+0	1.048708E+0	1.003376E+0	1.027919E+0	1.030107E+0	1.054317E+0	1.041778E+0	1.123053E+0	1.030347E+0	1.064643E+0	1.066744E+0	1.031722E+0	1.040690E+0	1.042460E+0	1.051215E+0	1.015311E+0	1.049394E+0	1.067852E+0	1.036099E+0	1.067558E+0	1.054743E+0	1.043300E+0	1.050988E+0	1.071924E+0	1.036811E+0	1.054007E+0	1.022192E+0	1.067376E+0	1.047284E+0	1.077447E+0	1.058259E+0	1.059640E+0	1.020902E+0	1.049820E+0	1.076359E+0	1.065687E+0	1.066906E+0	1.037552E+0	1.014063E+0	1.011119E+0	1.067402E+0	1.060978E+0	1.040128E+0	1.066510E+0	1.045559E+0	1.069886E+0	1.024149E+0	1.040726E+0	9.988483E-1	1.081283E+0	1.026871E+0	1.082658E+0	1.028556E+0	1.039905E+0	9.893076E-1	1.058095E+0	1.055688E+0	9.757211E-1	9.704378E-1
5.590160E+2	1.051038E+0	1.008101E+0	9.934404E-1	1.026960E+0	1.049676E+0	1.056317E+0	1.047562E+0	1.014742E+0	9.952967E-1	1.007214E+0	1.082543E+0	9.851075E-1	1.000448E+0	9.875761E-1	9.983411E-1	1.026148E+0	1.060619E+0	1.008315E+0	1.037127E+0	1.013077E+0	1.027529E+0	1.031718E+0	1.015209E+0	1.038402E+0	9.851911E-1	1.065688E+0	1.073662E+0	1.022264E+0	1.047460E+0	9.989870E-1	9.772382E-1	1.021274E+0	1.043958E+0	1.028356E+0	1.026895E+0	9.792444E-1	1.037060E+0	1.021208E+0	1.021682E+0	1.018463E+0	9.887474E-1	1.052626E+0	9.925682E-1	1.029535E+0	1.029311E+0	1.063481E+0	1.039968E+0	1.003051E+0	1.034645E+0	1.003010E+0	1.062769E+0	1.059440E+0	1.037012E+0	1.020411E+0	1.022695E+0	1.051865E+0	1.009772E+0	1.013809E+0	9.785392E-1	1.017945E+0	1.038174E+0	1.029275E+0	1.042048E+0	1.018049E+0	1.033084E+0	1.047241E+0	1.009042E+0	1.030198E+0	1.031850E+0	9.940966E-1	1.044000E+0	1.014373E+0	9.647540E-1	1.022953E+0	1.031841E+0	1.024032E+0	1.006618E+0	1.003480E+0	9.988094E-1	1.045116E+0	1.075640E+0	1.041718E+0	1.035182E+0	1.060282E+0	1.037561E+0	1.016737E+0	1.017838E+0	1.047930E+0	1.014118E+0	9.828308E-1	1.060586E+0	1.018062E+0	9.936599E-1	9.960482E-1	1.031867E+0	1.045751E+0	1.045886E+0	1.040677E+0	1.041849E+0	1.006554E+0	1.101643E+0	1.031184E+0	1.036722E+0	1.021296E+0	1.045265E+0	1.063841E+0	1.037443E+0	9.626439E-1	1.051045E+0	1.000078E+0	1.065955E+0	9.994031E-1	1.021635E+0	1.046447E+0	1.048530E+0	1.038144E+0	1.012034E+0	1.020139E+0	1.075306E+0	1.003381E+0	1.063759E+0	9.616671E-1	1.054242E+0	9.994412E-1	1.039540E+0	1.050336E+0	9.772177E-1	1.028602E+0	9.641470E-1	9.449535E-1	9.945840E-1	1.023858E+0	1.039795E+0	1.039825E+0	1.028477E+0	1.038096E+0	9.883683E-1	9.993272E-1	1.006316E+0	1.027264E+0	1.032410E+0	1.027550E+0	9.821900E-1	1.003676E+0	1.041623E+0	1.008141E+0	1.009344E+0	1.046421E+0	1.042050E+0	1.019333E+0	1.031487E+0	1.022206E+0	1.008495E+0	9.929201E-1	1.042894E+0	9.745531E-1	1.014140E+0	1.004488E+0	1.022403E+0	1.028545E+0	1.071390E+0	1.055885E+0	1.024413E+0	1.049983E+0	9.710470E-1
5.595000E+2	1.020622E+0	1.068244E+0	1.057269E+0	9.996097E-1	1.013996E+0	1.054440E+0	1.001479E+0	1.055788E+0	1.026561E+0	1.051686E+0	1.027575E+0	1.047435E+0	1.030783E+0	1.045814E+0	1.024159E+0	1.042079E+0	1.004264E+0	1.062600E+0	1.060018E+0	1.026561E+0	1.022730E+0	1.020739E+0	1.081562E+0	1.099308E+0	1.067358E+0	1.062329E+0	1.070682E+0	1.047353E+0	1.058938E+0	1.071907E+0	1.083027E+0	1.027872E+0	1.085481E+0	1.013037E+0	1.028771E+0	1.058909E+0	1.033917E+0	1.054338E+0	1.040097E+0	1.030279E+0	1.016039E+0	1.012272E+0	1.021409E+0	1.023831E+0	1.077549E+0	9.837862E-1	1.091292E+0	1.077834E+0	1.032071E+0	1.069877E+0	1.052558E+0	1.092553E+0	1.022367E+0	1.055832E+0	1.053480E+0	1.035508E+0	1.061823E+0	1.033904E+0	1.039257E+0	1.031593E+0	1.017638E+0	1.073614E+0	1.037974E+0	1.048374E+0	1.046672E+0	1.020479E+0	1.025090E+0	1.023920E+0	1.040738E+0	1.034493E+0	1.050016E+0	1.014118E+0	1.005557E+0	1.034320E+0	1.095769E+0	1.087100E+0	1.063741E+0	1.057135E+0	1.062127E+0	1.078005E+0	1.006357E+0	1.072650E+0	1.086334E+0	1.088264E+0	1.020305E+0	1.082766E+0	1.019968E+0	1.011444E+0	1.009003E+0	1.089917E+0	1.072839E+0	1.080550E+0	1.074550E+0	1.075763E+0	1.005474E+0	1.049238E+0	1.106975E+0	1.044936E+0	9.919743E-1	1.063688E+0	1.049299E+0	1.064516E+0	1.063540E+0	1.093810E+0	1.099937E+0	1.091326E+0	1.077322E+0	1.055855E+0	1.083197E+0	1.017473E+0	1.101368E+0	1.046302E+0	1.008486E+0	1.025051E+0	1.058063E+0	1.005335E+0	1.049677E+0	1.025787E+0	1.033068E+0	1.045538E+0	1.032112E+0	1.079888E+0	1.027352E+0	1.080877E+0	1.035467E+0	1.020287E+0	1.042469E+0	1.025671E+0	1.017379E+0	1.051001E+0	1.007960E+0	1.040118E+0	1.049278E+0	1.012409E+0	1.066465E+0	1.029057E+0	1.013820E+0	1.059686E+0	1.060069E+0	1.022479E+0	1.055534E+0	1.077053E+0	1.045835E+0	1.047213E+0	1.008508E+0	1.021905E+0	1.084348E+0	1.094332E+0	1.037710E+0	1.005259E+0	1.022360E+0	1.035547E+0	1.125595E+0	1.052617E+0	1.076269E+0	1.003536E+0	1.005156E+0	1.044427E+0	1.058642E+0	1.075407E+0	1.088735E+0	1.042360E+0	1.043337E+0	1.041483E+0	1.065008E+0
5.600470E+2	9.492855E-1	1.020849E+0	9.681073E-1	9.642976E-1	9.714348E-1	9.383212E-1	9.540339E-1	9.758964E-1	9.607639E-1	9.979330E-1	1.004591E+0	9.657465E-1	9.975006E-1	9.605802E-1	9.288965E-1	1.002344E+0	9.623449E-1	9.082870E-1	9.816775E-1	9.702793E-1	9.651769E-1	9.553722E-1	9.809115E-1	9.828775E-1	9.506369E-1	9.698396E-1	9.709524E-1	9.699389E-1	9.543713E-1	9.512635E-1	9.070133E-1	9.952607E-1	9.430060E-1	9.523968E-1	9.150146E-1	1.000187E+0	9.474181E-1	9.842900E-1	9.824732E-1	9.712599E-1	9.594118E-1	9.451610E-1	9.464111E-1	9.624620E-1	9.867153E-1	9.927603E-1	9.328749E-1	9.619722E-1	1.003116E+0	9.823938E-1	1.003468E+0	9.589259E-1	9.929064E-1	9.708564E-1	9.694346E-1	9.498541E-1	9.387811E-1	9.704495E-1	9.827455E-1	9.531235E-1	1.000612E+0	9.564352E-1	1.007160E+0	9.936951E-1	9.610939E-1	9.743696E-1	9.494078E-1	9.544891E-1	9.868412E-1	9.777473E-1	9.549883E-1	1.001706E+0	9.336166E-1	9.604731E-1	9.703585E-1	9.498973E-1	9.740578E-1	9.649666E-1	9.644390E-1	9.521062E-1	1.008392E+0	9.652318E-1	9.368815E-1	9.586420E-1	9.685795E-1	9.615742E-1	9.699380E-1	9.554687E-1	9.339653E-1	9.687953E-1	9.494381E-1	9.726819E-1	9.955452E-1	1.021528E+0	9.099382E-1	9.219276E-1	9.864143E-1	9.679191E-1	9.336037E-1	9.743637E-1	9.437181E-1	9.861508E-1	9.839664E-1	9.977054E-1	9.727108E-1	9.405601E-1	9.909892E-1	9.605622E-1	9.511265E-1	9.355568E-1	9.497109E-1	9.694875E-1	9.493597E-1	9.913937E-1	9.445877E-1	9.891297E-1	9.600811E-1	9.746033E-1	9.445799E-1	1.014629E+0	9.704783E-1	9.962431E-1	9.782141E-1	1.010204E+0	9.588832E-1	1.011683E+0	1.022999E+0	9.203125E-1	9.900677E-1	1.032972E+0	9.519389E-1	9.726937E-1	9.819867E-1	9.662572E-1	9.372482E-1	9.459932E-1	9.166307E-1	9.560650E-1	1.009685E+0	9.709623E-1	9.677295E-1	9.591950E-1	9.444895E-1	9.867440E-1	1.010673E+0	9.344111E-1	9.579124E-1	9.475259E-1	1.028229E+0	9.897575E-1	9.661032E-1	9.326320E-1	9.311575E-1	9.711014E-1	9.979370E-1	9.940214E-1	9.519906E-1	9.849709E-1	9.388417E-1	9.711530E-1	9.485967E-1	9.819959E-1	9.358090E-1	9.979666E-1	9.555094E-1
5.605040E+2	9.879059E-1	9.977620E-1	1.022036E+0	1.076051E+0	1.013081E+0	1.004036E+0	9.969171E-1	1.009843E+0	1.041824E+0	1.037572E+0	9.903463E-1	1.008598E+0	1.010513E+0	1.007249E+0	1.002348E+0	1.003025E+0	9.889294E-1	1.033638E+0	9.646690E-1	1.023774E+0	9.831791E-1	1.053813E+0	9.854943E-1	9.754584E-1	1.012035E+0	9.977020E-1	1.019600E+0	1.017517E+0	9.813136E-1	9.789758E-1	9.922495E-1	1.010804E+0	1.004013E+0	9.909921E-1	1.050427E+0	9.990968E-1	9.596287E-1	1.019572E+0	1.000464E+0	9.604397E-1	1.033388E+0	1.011697E+0	1.003206E+0	9.916218E-1	9.953690E-1	9.900490E-1	1.040554E+0	1.009595E+0	1.031797E+0	1.004343E+0	1.000394E+0	1.001781E+0	9.989128E-1	1.015441E+0	1.013474E+0	9.982845E-1	9.812283E-1	9.552726E-1	9.953843E-1	1.010392E+0	1.050847E+0	1.008431E+0	1.032708E+0	1.017562E+0	1.018166E+0	9.415217E-1	1.005487E+0	1.026795E+0	1.014774E+0	1.052119E+0	1.041419E+0	1.007482E+0	1.002129E+0	1.018700E+0	9.796297E-1	9.949320E-1	9.165511E-1	1.003918E+0	9.734366E-1	9.757315E-1	1.004306E+0	9.520414E-1	1.021464E+0	9.635147E-1	9.822796E-1	9.899165E-1	1.001009E+0	1.026662E+0	1.035129E+0	1.009190E+0	1.016698E+0	1.038377E+0	9.678461E-1	9.789068E-1	1.009510E+0	9.990355E-1	9.883591E-1	9.773295E-1	1.041743E+0	1.000572E+0	9.605881E-1	9.953126E-1	9.706970E-1	9.875662E-1	1.025261E+0	1.012197E+0	9.780260E-1	1.004895E+0	1.020861E+0	1.051740E+0	9.909873E-1	9.925698E-1	1.041119E+0	1.020520E+0	1.008737E+0	1.034646E+0	9.876735E-1	1.034699E+0	1.032812E+0	9.942356E-1	1.036877E+0	1.018088E+0	1.016433E+0	9.997933E-1	9.977585E-1	1.022870E+0	9.290002E-1	9.965865E-1	9.989577E-1	1.001704E+0	1.074803E+0	9.902352E-1	9.741844E-1	1.015126E+0	9.807183E-1	1.011139E+0	9.924599E-1	9.906590E-1	1.023522E+0	1.013137E+0	9.747201E-1	1.039328E+0	9.792203E-1	9.946075E-1	9.686569E-1	1.016237E+0	9.572905E-1	1.036610E+0	9.950834E-1	1.023314E+0	9.806975E-1	1.042944E+0	9.621919E-1	1.020917E+0	1.024233E+0	9.841700E-1	9.922267E-1	9.767124E-1	1.038302E+0	9.911974E-1	1.026124E+0	9.679332E-1	9.874786E-1	1.020441E+0	9.976547E-1
5.610180E+2	9.748420E-1	9.478630E-1	9.844098E-1	9.854602E-1	9.591926E-1	9.693217E-1	1.015137E+0	9.594050E-1	9.386392E-1	1.000191E+0	9.671738E-1	9.311498E-1	9.326248E-1	9.655683E-1	9.780137E-1	9.453224E-1	9.326770E-1	9.865521E-1	9.424403E-1	9.761014E-1	9.734789E-1	9.336047E-1	9.610294E-1	9.620852E-1	9.551453E-1	9.168290E-1	9.507793E-1	9.514436E-1	9.490522E-1	1.027712E+0	9.394633E-1	8.990502E-1	9.103753E-1	9.636212E-1	9.597058E-1	9.785793E-1	9.992190E-1	9.658750E-1	9.586475E-1	9.692900E-1	9.478768E-1	9.798634E-1	9.811158E-1	9.538828E-1	9.694160E-1	9.374187E-1	9.684094E-1	9.569852E-1	9.565597E-1	9.764584E-1	9.539108E-1	9.679185E-1	9.536516E-1	9.307137E-1	9.431316E-1	9.874857E-1	1.002079E+0	9.654413E-1	9.828460E-1	9.538383E-1	9.316804E-1	9.843489E-1	9.878551E-1	9.653362E-1	9.677352E-1	9.352668E-1	1.024022E+0	9.694401E-1	9.860461E-1	9.955665E-1	9.901890E-1	9.817674E-1	1.041210E+0	1.007392E+0	9.463151E-1	9.292429E-1	9.738354E-1	9.735107E-1	9.534063E-1	9.268983E-1	9.671919E-1	9.661533E-1	9.687967E-1	9.309305E-1	9.562432E-1	1.039804E+0	1.011550E+0	9.632420E-1	9.705386E-1	9.350888E-1	9.734982E-1	9.489124E-1	9.699051E-1	9.374880E-1	1.036590E+0	1.006541E+0	1.010283E+0	9.876533E-1	9.824087E-1	1.013510E+0	9.858631E-1	9.856324E-1	9.594398E-1	1.004419E+0	9.647731E-1	9.208660E-1	9.642273E-1	9.352377E-1	9.479443E-1	9.741503E-1	9.371149E-1	9.991649E-1	9.684147E-1	9.454399E-1	9.421675E-1	9.910742E-1	9.613559E-1	9.543960E-1	9.932938E-1	9.581359E-1	9.553475E-1	1.012414E+0	9.626864E-1	9.596332E-1	9.842601E-1	9.463790E-1	1.001508E+0	1.011030E+0	9.655667E-1	9.841303E-1	9.781575E-1	9.943452E-1	1.002948E+0	9.019947E-1	9.652371E-1	9.584814E-1	9.673577E-1	9.554370E-1	9.372566E-1	9.994676E-1	9.836861E-1	9.366699E-1	1.000329E+0	9.797653E-1	9.062914E-1	9.438401E-1	9.750307E-1	9.584327E-1	9.910247E-1	9.502120E-1	9.643706E-1	9.557364E-1	9.941323E-1	9.727702E-1	9.745189E-1	9.750364E-1	9.618479E-1	9.326557E-1	9.781615E-1	9.888609E-1	9.797938E-1	9.610366E-1	9.723848E-1	9.305198E-1	1.039796E+0
