Photon Energy (eV)	#1	#2	#3	#4	#5	#6	#7	#8	#9	#10	#11	#12	#13	#14	#15	#16	#17	#18	#19	#20	#21	#22	#23	#24	#25	#26	#27	#28	#29	#30	#31	#32	#33	#34	#35	#36	#37	#38	#39	#40	#41	#42	#43	#44	#45	#46	#47	#48	#49	#50	#51	#52	#53	#54	#55	#56	#57	#58	#59	#60	#61	#62	#63	#64	#65	#66	#67	#68	#69	#70	#71	#72	#73	#74	#75	#76	#77	#78	#79	#80	#81	#82	#83	#84	#85	#86	#87	#88	#89	#90	#91	#92	#93	#94	#95	#96	#97	#98	#99	#100	#101	#102	#103	#104	#105	#106	#107	#108	#109	#110	#111	#112	#113	#114	#115	#116	#117	#118	#119	#120	#121	#122	#123	#124	#125	#126	#127	#128	#129	#130	#131	#132	#133	#134	#135	#136	#137	#138	#139	#140	#141	#142	#143	#144	#145	#146	#147	#148	#149	#150	#151	#152	#153	#154	#155	#156	#157	#158	#159	#160	#161	#162	#163	#164	#165	#166	#167	#168	#169	#170	
5.290170E+2	-2.834931E-2	-3.098238E-3	-5.043073E-3	-2.657322E-2	-1.372360E-2	-3.878517E-3	-2.301136E-2	-2.420077E-2	-9.106277E-4	1.690177E-2	1.088027E-2	-1.795856E-2	1.046215E-2	-8.305730E-3	-1.861878E-2	-5.271139E-3	-5.616905E-3	-2.028628E-2	-1.533493E-2	-4.177619E-2	-1.996202E-2	-1.207654E-2	-1.033896E-2	-3.619939E-2	-3.328228E-3	-4.224400E-3	-2.196801E-3	1.043151E-3	-1.457614E-2	1.073975E-2	-2.172060E-2	-6.598035E-3	-5.525667E-3	2.516979E-3	-6.301568E-3	-2.234589E-3	-1.341720E-2	-1.340413E-2	-1.192176E-2	-1.111620E-2	4.447757E-3	1.425220E-3	-2.034468E-2	-1.317470E-2	5.211815E-3	-7.002554E-3	-1.302292E-2	-8.554650E-3	-2.039352E-2	-5.284629E-4	-1.093962E-3	-2.097601E-2	-1.803228E-3	-1.091749E-2	-8.767470E-3	-4.188183E-3	-1.322555E-2	7.344539E-3	-1.582716E-2	-1.787719E-2	-2.019261E-3	-2.393427E-2	-2.898208E-3	1.639453E-3	-6.700776E-3	-1.927010E-2	5.914557E-3	3.128829E-3	-1.222667E-2	-1.292304E-2	-3.248216E-4	-1.259103E-2	-4.325225E-4	1.238194E-2	-1.071618E-2	3.327013E-3	2.541089E-3	-1.022152E-2	-2.034126E-2	-1.654113E-2	-2.304239E-2	-5.870323E-4	4.711279E-3	-1.590584E-3	-1.348598E-2	-8.529052E-3	-2.695818E-2	-1.393762E-2	6.970645E-3	-3.972653E-3	-2.541094E-2	-2.943268E-3	-1.058858E-2	-1.121221E-2	-8.346860E-3	1.494698E-2	-4.290190E-3	-1.045207E-2	-1.633071E-2	8.130755E-3	6.689731E-3	-2.339077E-2	-4.375824E-3	-1.369375E-2	-4.994844E-3	-1.781824E-2	2.288174E-3	-1.682330E-2	4.846136E-3	1.232802E-2	-1.227972E-2	2.008551E-2	-6.897647E-3	-4.797542E-3	-2.197303E-2	-3.937057E-3	-5.778240E-3	2.418428E-3	-1.824434E-2	-2.483727E-2	-1.206946E-2	2.729569E-3	-2.064445E-2	2.042614E-2	-1.905850E-2	-1.495944E-2	5.877666E-3	-8.570257E-3	-1.103541E-2	-8.061352E-3	-1.975505E-2	-1.732478E-2	1.969865E-2	2.450409E-2	-2.617406E-4	1.666595E-2	-2.138492E-3	3.478259E-3	-1.491892E-2	-3.326974E-2	1.977576E-3	-2.277795E-2	-1.455542E-2	-1.599510E-3	-8.633111E-3	-1.392644E-2	1.494677E-2	-7.043203E-3	-3.006257E-3	2.332911E-3	-5.786316E-3	-2.191447E-2	1.048156E-2	-1.933935E-2	-2.039565E-3	-1.056448E-2	-7.589091E-3	5.742646E-3	-1.328368E-2	-3.317200E-2	-2.364118E-2	1.902684E-2	-2.930350E-3	-2.144929E-3	-1.327160E-2	8.561899E-3	-1.847441E-2	7.718593E-3	2.804011E-2	-1.369090E-2
5.295060E+2	4.834545E-3	6.696523E-3	-3.249820E-3	1.690377E-2	-5.870933E-3	-8.887393E-3	2.518375E-3	1.292808E-2	-1.881171E-2	-1.521312E-2	-9.544484E-3	-2.686416E-2	-1.566740E-2	-9.638710E-3	1.170398E-2	1.683795E-2	5.652259E-4	1.387811E-2	-7.164709E-3	-1.486326E-2	1.854073E-3	3.972965E-3	9.015082E-3	1.720622E-2	2.300411E-2	-1.392620E-2	1.027831E-2	-6.121562E-3	-2.228403E-2	-5.967930E-3	-6.569010E-3	-1.273351E-2	8.309237E-3	2.415942E-2	7.344925E-3	-2.266820E-2	8.959759E-3	-9.629822E-3	-1.014452E-2	6.210483E-3	-6.683774E-4	-4.366250E-3	-1.088991E-3	-3.186568E-3	-7.350220E-3	-3.606339E-3	-1.983785E-2	1.374221E-2	1.383306E-3	-1.078385E-2	-8.718761E-3	-2.279759E-2	1.928649E-2	-4.657387E-3	-1.377020E-2	-2.042479E-2	2.079684E-3	7.022581E-3	2.523156E-3	-1.493325E-3	-1.057595E-3	1.017613E-2	-2.685436E-3	-4.665842E-3	-1.036741E-2	-8.601433E-3	-2.098364E-2	-1.197803E-2	-5.123041E-3	6.624171E-3	-1.350659E-2	5.430114E-3	3.248498E-3	8.553253E-3	-5.451861E-3	-5.074771E-3	3.146586E-3	9.835010E-3	-3.952807E-3	-8.450441E-3	-3.670803E-2	2.684194E-3	1.795492E-2	6.233673E-4	-6.280541E-3	1.661723E-2	3.049252E-2	2.229369E-3	-1.109731E-2	-2.934038E-2	-5.657555E-3	1.610219E-2	-3.624552E-4	-1.876915E-2	-7.686804E-3	-2.523002E-2	-3.380199E-3	-1.269298E-3	2.585336E-2	-3.643353E-3	-5.796527E-3	8.058486E-3	-1.940745E-2	-2.046144E-3	-2.751106E-2	-6.189244E-3	6.634911E-3	9.081584E-3	-1.050738E-2	5.862396E-3	8.918363E-3	-1.443569E-2	-9.775824E-3	-6.605966E-3	4.961937E-3	-5.267101E-3	-1.328094E-2	8.467630E-3	2.005162E-2	-1.435046E-3	7.882447E-3	7.022430E-3	7.574508E-4	-1.875536E-3	2.654754E-3	3.110902E-3	1.412445E-2	1.659990E-3	2.099486E-2	2.203486E-2	-8.078359E-4	9.504037E-3	-7.153632E-3	-1.002317E-2	8.742716E-3	-4.674048E-3	1.476842E-2	-1.702229E-2	7.382078E-3	-1.603759E-2	9.791522E-3	-2.161151E-2	-5.789216E-3	-2.660700E-2	-1.706399E-2	-2.242482E-2	-1.620423E-3	5.657869E-3	-1.573242E-2	-7.510406E-3	6.808420E-5	3.308041E-3	5.003150E-3	1.119693E-2	-4.765032E-2	-2.893628E-2	2.593940E-3	-2.040892E-3	2.437770E-3	1.245549E-2	-9.003783E-3	9.364656E-3	9.507056E-3	1.392332E-2	2.317280E-3	-4.348016E-3	-1.595576E-2	-2.891696E-2	-3.549403E-2	1.789623E-2
5.300220E+2	-1.162980E-2	-1.886245E-2	9.831061E-3	-1.074084E-2	-4.650964E-3	-2.462659E-4	6.114178E-3	-1.147937E-2	1.954848E-2	6.016887E-3	4.130940E-3	-2.172076E-2	-2.341395E-2	1.219408E-2	3.900106E-4	-1.005061E-2	-1.435179E-3	-1.190196E-2	3.141283E-5	1.085735E-3	-1.983680E-2	-9.982799E-3	2.519934E-3	-2.770833E-2	2.148858E-3	-5.868229E-3	-9.420840E-3	-2.017064E-2	8.444724E-3	-2.244265E-2	2.178468E-2	-7.186517E-4	-1.380366E-2	-6.925687E-3	-1.077824E-2	2.915263E-3	-2.161918E-2	-2.600217E-3	-1.836872E-3	-9.727935E-3	-6.734253E-3	-2.033386E-2	1.370565E-2	-2.120439E-3	-1.081880E-2	6.957382E-3	-7.296321E-3	-5.576472E-3	9.043106E-3	-1.026770E-2	-4.394346E-3	1.350192E-2	-3.243580E-2	-6.221551E-4	-9.607267E-4	-1.925714E-2	2.729814E-3	-2.167141E-2	1.190587E-2	-7.956101E-4	-2.076530E-2	-1.519950E-2	2.358464E-3	9.374105E-3	-2.449416E-2	-3.020281E-3	-8.791280E-3	-3.445310E-3	-6.213617E-3	-1.683443E-2	-7.309173E-3	9.592521E-3	-4.414418E-2	-3.585930E-2	1.953310E-2	-1.588035E-2	-2.085042E-2	-2.347938E-2	-4.503173E-3	1.507115E-2	3.663691E-5	-7.029942E-3	1.623159E-3	-1.664481E-3	-1.260623E-2	-9.588849E-3	-1.885344E-2	-1.773416E-3	-1.431128E-2	-8.987616E-3	-1.273980E-2	-1.374906E-3	-2.408359E-2	-1.502899E-2	-1.058925E-3	-9.331942E-4	-7.640086E-3	-3.759628E-3	3.122487E-3	-3.254020E-2	-1.202907E-2	2.492323E-3	-3.974117E-6	-3.205863E-2	-2.294493E-2	8.136108E-3	-1.892903E-3	1.403454E-2	-1.035614E-2	-7.545485E-3	-8.908291E-3	-2.173368E-2	-1.108510E-2	-1.327759E-2	-2.159018E-2	-1.154917E-2	1.737492E-2	-1.487390E-2	-6.869991E-3	-1.341328E-2	-1.164027E-2	-5.895338E-3	-1.373678E-2	-2.897533E-2	-1.101315E-2	-2.725698E-2	8.651445E-3	3.929170E-3	-2.466848E-2	-4.647057E-3	-8.374898E-4	1.226005E-3	-2.598476E-2	-1.470015E-2	2.654209E-3	-2.489333E-2	1.104572E-2	-5.420467E-3	-1.172703E-2	-3.125233E-2	-1.703475E-2	1.313212E-2	-1.219549E-2	-1.106340E-2	-3.184250E-3	-8.217690E-3	3.192439E-3	-2.137157E-2	-1.848065E-2	7.174852E-3	-2.008982E-2	-4.108775E-3	-1.498096E-2	-9.132800E-3	1.216191E-2	1.308303E-2	5.847175E-3	-1.198164E-2	-5.418826E-3	-5.688987E-3	-3.282247E-4	-2.022917E-2	1.098739E-2	-5.295155E-3	-1.413273E-2	-1.955544E-2	6.166820E-3	-3.384701E-2	4.767768E-2	-3.635291E-2
5.305180E+2	8.778811E-3	-3.804310E-4	-2.157492E-3	-1.354502E-2	-7.086676E-4	9.131870E-3	1.815099E-2	1.693500E-3	-3.414063E-3	-1.200780E-2	-4.340654E-3	2.271017E-2	1.485451E-2	3.404816E-3	1.832707E-2	-7.593164E-3	1.430659E-2	1.190164E-2	5.792567E-3	-5.699948E-3	1.533469E-2	4.040486E-3	-1.224227E-2	2.969213E-2	-4.033762E-2	-7.568031E-3	3.470357E-2	2.858416E-2	6.235699E-3	4.246748E-3	1.118117E-2	5.816044E-4	-1.862256E-3	4.699735E-3	-1.374779E-2	-1.024301E-2	1.808705E-2	9.506498E-3	4.744205E-3	-1.355795E-2	2.422220E-2	1.564422E-2	-2.706017E-3	1.458469E-2	3.290311E-3	-5.663071E-3	3.610210E-2	2.009208E-2	-2.965652E-3	4.346216E-2	-8.106128E-3	2.099711E-2	-3.020680E-3	-1.193787E-3	1.048002E-3	2.688939E-2	3.775809E-4	-2.870524E-3	3.807052E-3	-2.223592E-3	1.915003E-2	-1.265049E-2	1.115999E-2	7.786837E-4	6.687386E-3	2.389492E-2	-1.119436E-3	-5.891381E-3	1.420507E-2	7.662424E-3	1.487216E-2	1.605889E-2	3.860452E-2	-2.242962E-2	1.516006E-2	9.825763E-3	8.394043E-3	-7.291139E-4	-1.338913E-2	2.217855E-2	3.404680E-2	9.542548E-3	1.717531E-2	1.559326E-2	-1.496270E-2	-1.372272E-2	1.860458E-2	6.703404E-3	1.238754E-3	-1.130036E-3	1.219748E-2	4.334057E-3	1.326811E-2	-1.995017E-2	2.693652E-2	8.529470E-3	1.649583E-3	-7.663640E-3	4.617692E-3	9.665236E-3	1.746236E-2	1.933458E-2	3.622746E-2	1.641957E-2	1.648315E-2	4.613404E-3	-4.130617E-3	4.944417E-3	-5.285362E-3	5.541612E-3	2.668714E-2	3.161783E-2	3.218210E-3	7.406178E-3	3.937417E-2	1.695651E-3	4.761277E-4	-2.615617E-3	-1.119676E-2	7.138992E-3	8.617319E-3	4.128074E-3	-5.894168E-3	-1.245019E-2	8.136880E-3	2.182680E-2	-1.667200E-4	4.735287E-3	1.700483E-2	-2.715675E-2	1.550070E-2	4.204754E-3	3.100916E-2	-1.015668E-2	1.434847E-2	1.875389E-2	2.951713E-2	1.688781E-2	2.266369E-3	1.163402E-2	1.113880E-3	-2.950803E-2	1.140704E-2	4.923170E-4	2.315082E-2	1.380892E-2	2.225302E-2	3.437120E-2	6.495899E-4	-4.346001E-3	-5.935502E-3	-3.312411E-3	-2.220517E-3	-2.721923E-3	1.350367E-2	1.064891E-2	-1.666813E-3	1.129169E-2	1.368966E-2	3.173424E-3	1.531178E-2	-1.532919E-2	1.276624E-2	-1.441541E-2	2.717951E-2	2.205719E-2	4.400227E-3	1.804285E-2	6.303994E-3	-3.245602E-2
5.310000E+2	-3.682346E-3	1.336628E-2	-9.998175E-3	-6.541658E-3	3.776825E-2	3.150003E-2	2.910386E-2	1.440793E-2	-9.120011E-3	2.321743E-2	-2.007339E-2	5.967108E-2	2.068172E-2	1.001409E-2	2.307724E-2	1.525056E-2	-4.739211E-3	3.189674E-2	2.507096E-2	2.592290E-2	3.433622E-3	3.477089E-3	-1.569306E-3	1.002905E-2	9.870287E-3	2.843066E-3	-1.426429E-2	1.385745E-2	4.125461E-2	2.608315E-3	1.490039E-2	1.573587E-2	2.565162E-2	-4.380729E-3	1.389949E-2	2.710046E-2	1.414020E-2	1.197941E-2	2.426111E-2	2.810961E-2	-5.064888E-3	2.453922E-2	5.115256E-4	3.810964E-2	-2.738821E-3	3.395834E-3	1.915785E-2	-7.540797E-3	6.235533E-3	-4.432142E-4	1.901068E-2	2.813522E-2	2.746049E-2	2.435544E-2	1.116394E-2	1.388231E-2	5.539626E-3	1.235818E-2	1.083370E-2	3.937651E-2	-7.377611E-3	2.814885E-2	1.691124E-2	-9.205196E-4	3.309965E-2	1.858753E-2	-1.959946E-3	3.337307E-2	2.782766E-2	2.437440E-2	2.118831E-3	-3.574368E-3	1.329840E-2	3.265442E-2	1.668122E-2	9.888030E-3	3.055399E-2	4.423875E-2	1.566072E-2	-3.336716E-3	-8.183664E-3	8.245202E-3	-5.935491E-3	1.178849E-2	2.816523E-2	4.421828E-3	-3.593526E-3	1.882647E-2	2.188945E-2	1.125862E-2	1.047311E-2	1.393610E-4	8.114756E-3	4.678628E-2	-7.394149E-3	1.159682E-3	2.099255E-2	3.393502E-2	3.060354E-2	1.196084E-2	3.175321E-2	-5.367212E-3	-3.138480E-4	-1.249981E-2	2.754848E-2	2.727730E-2	1.044184E-2	2.256711E-2	1.899638E-2	1.539775E-4	1.068248E-2	5.458831E-3	2.623305E-2	1.245667E-2	1.708913E-2	2.368168E-2	2.102576E-2	-8.534165E-3	1.941513E-2	7.291518E-3	1.875099E-2	3.327424E-3	2.919055E-2	1.403584E-2	1.215603E-2	1.833951E-2	-2.607091E-3	1.448185E-2	-1.454501E-2	1.237602E-2	3.115853E-3	1.841074E-3	-1.820597E-2	1.721720E-2	1.578736E-2	6.782503E-3	6.253081E-3	3.280202E-2	4.499620E-2	2.672643E-2	1.871195E-2	3.285275E-2	6.589913E-3	2.072120E-2	1.389592E-2	2.331326E-2	2.135229E-3	1.320024E-2	1.125198E-2	1.031927E-2	4.797968E-2	1.949549E-2	-8.024010E-4	9.557640E-3	-1.510557E-2	1.137120E-2	-2.506128E-4	2.152432E-2	2.413846E-2	1.251969E-2	2.342017E-2	1.613715E-2	-7.135469E-3	2.176826E-2	2.934654E-2	4.657240E-4	1.561685E-2	4.620740E-2	-1.423184E-2	5.990773E-2
5.315080E+2	-1.055006E-3	3.744397E-3	-1.022267E-2	1.311805E-3	-2.758513E-2	-9.703538E-3	-2.462253E-2	-3.369603E-3	-2.427087E-2	-3.497572E-2	-1.358175E-2	-3.231876E-2	-4.402991E-3	-7.234491E-3	-6.160471E-3	-9.244548E-3	-3.107325E-2	-2.325361E-2	1.129740E-2	-1.328562E-2	-1.371194E-2	-7.935081E-3	-1.582339E-2	-7.183100E-3	5.574552E-3	-2.275752E-4	-1.067888E-2	-3.171775E-2	-1.183127E-2	-1.267219E-2	-1.345085E-2	-1.101139E-2	-1.730108E-2	-1.869008E-2	-1.203702E-2	-1.279156E-2	-3.499419E-2	-1.148142E-2	9.903484E-4	-2.183294E-2	-1.670693E-2	-3.501568E-2	-1.252563E-3	-5.233798E-3	-7.036057E-3	-7.738360E-3	-1.070369E-2	-3.670876E-2	-1.548045E-3	-1.345868E-2	-1.960296E-4	-1.434038E-2	-3.290256E-3	-3.816826E-2	-2.799121E-3	-3.065433E-2	-1.729000E-2	-2.812646E-2	-1.234671E-2	-1.021960E-2	-2.943533E-3	-1.783662E-3	-1.279801E-2	-1.170594E-2	-1.469178E-2	-1.028737E-2	-1.810552E-2	-4.150777E-3	-1.925421E-2	-9.077597E-3	-1.078497E-2	4.534177E-3	-1.216145E-2	-2.571303E-2	-1.818197E-2	-1.663572E-2	-3.214679E-2	-2.622233E-2	6.708292E-3	-2.606516E-3	1.325425E-2	-2.876341E-2	-6.810025E-3	-3.293926E-2	-2.933836E-3	-2.396300E-2	-1.784435E-2	1.121819E-2	-8.336941E-3	6.112510E-3	8.787138E-3	-3.491069E-2	-7.329365E-4	5.807868E-4	-2.297570E-2	2.499081E-3	3.085722E-3	-3.774583E-2	6.776902E-3	-2.828067E-3	-1.750268E-2	-7.567050E-3	-1.314006E-2	4.055945E-3	-1.227579E-2	-1.950369E-2	2.364301E-3	-3.527136E-2	3.716484E-3	-6.380332E-3	-9.310130E-3	-2.585635E-2	-8.986857E-3	3.947704E-3	-8.501774E-3	-1.197998E-2	-1.635101E-2	7.839741E-4	-1.222690E-2	1.261243E-2	-6.106720E-2	-2.007535E-2	-3.022034E-3	-4.901459E-3	-1.569148E-2	-1.640122E-2	-1.156336E-2	-2.631924E-2	3.827148E-3	-2.010795E-3	3.422422E-2	-2.281734E-2	1.406436E-2	-2.767322E-2	-2.070613E-2	-1.168374E-2	-2.096655E-2	-1.551586E-2	-3.402862E-2	2.271544E-2	-2.269954E-2	-2.781815E-3	2.131053E-2	-2.130006E-3	-8.757932E-3	-7.549361E-3	-2.402879E-2	-3.611176E-2	-1.114460E-2	-1.840254E-2	-8.919964E-3	-2.260780E-2	-1.209141E-2	-1.092292E-2	3.743159E-3	-1.729762E-2	-7.281695E-3	-3.289389E-2	-2.433573E-2	6.087168E-3	-4.283178E-3	-7.379347E-3	2.030581E-3	-1.226929E-2	-1.546851E-2	-7.687457E-3	5.223788E-3	-8.783826E-3	-2.861807E-3	1.589800E-2
5.320070E+2	1.862926E-2	2.458197E-2	1.778575E-2	3.319292E-2	2.567961E-2	5.251356E-3	3.662337E-3	9.471113E-3	3.402138E-2	1.572117E-2	2.020025E-2	2.645376E-2	4.312623E-3	7.962289E-3	-1.486449E-2	1.809136E-2	1.657481E-2	-7.880281E-3	-5.110775E-3	4.223806E-2	2.126013E-2	1.775543E-3	1.388832E-2	5.334811E-3	2.292247E-2	1.181840E-2	-7.911850E-3	2.099725E-2	4.969284E-3	3.049691E-2	1.414029E-2	-5.415940E-3	-2.493830E-3	-6.944150E-3	2.461236E-2	1.013045E-2	1.700505E-2	1.344245E-3	4.823596E-3	1.820003E-2	-6.542809E-3	2.829445E-2	2.302711E-3	-9.537442E-3	2.881895E-3	1.596796E-2	8.501734E-3	2.862326E-2	1.966789E-3	1.246007E-2	-3.326863E-3	1.806758E-2	6.798314E-3	1.694249E-2	6.599632E-3	1.556921E-2	2.363977E-2	1.106319E-2	3.547131E-3	4.944938E-3	5.272706E-3	2.563803E-2	-1.324626E-2	3.224683E-2	8.975941E-3	-7.508391E-3	2.787488E-2	-1.242982E-2	6.428667E-3	1.016015E-2	1.422391E-2	-7.783651E-3	3.910656E-3	1.294104E-2	2.673411E-3	1.408851E-2	2.896860E-3	4.360656E-4	2.442454E-2	1.205648E-2	2.865950E-3	6.137860E-3	-1.151266E-2	1.099307E-2	2.758397E-2	3.287288E-2	3.341336E-2	-1.438154E-2	3.035263E-2	2.626627E-2	1.861399E-2	2.222372E-2	-1.087992E-3	-8.506225E-4	3.931025E-3	2.465701E-2	2.112579E-2	2.557150E-2	-1.946292E-2	1.173347E-2	-3.225582E-3	1.481833E-2	2.079247E-2	2.134758E-2	3.306949E-2	1.032794E-2	-1.453795E-2	2.883999E-3	-4.465559E-4	1.876345E-2	-5.954052E-3	8.384230E-3	9.081713E-3	3.302041E-3	-2.206580E-3	1.089289E-2	8.130595E-3	8.936464E-3	2.367587E-2	3.344669E-2	3.273867E-2	1.158711E-2	7.043908E-3	8.792965E-3	1.003993E-2	1.700458E-2	1.604830E-2	3.361379E-3	-1.240289E-2	2.331832E-2	-3.799097E-4	2.869338E-2	-1.094578E-2	-1.838323E-4	-1.483938E-2	-5.069874E-3	-2.344838E-2	4.759105E-3	4.478497E-3	1.140503E-2	1.430131E-2	2.281892E-2	6.833362E-4	2.229066E-2	6.513239E-3	1.332365E-3	-1.663268E-2	1.106208E-2	4.056515E-2	9.060555E-3	2.761931E-3	1.485631E-2	3.899569E-2	4.590143E-2	2.417497E-2	1.120812E-2	2.629467E-2	2.317147E-3	-1.331831E-3	2.095063E-4	1.838114E-2	-1.089009E-2	-6.676082E-3	9.316238E-3	1.300052E-2	1.832382E-2	3.111959E-2	-4.596377E-3	2.099806E-3	2.789163E-2
5.325120E+2	1.247385E-2	-2.604805E-2	3.054419E-3	5.992246E-3	-1.090857E-2	-2.316754E-2	-1.191585E-2	5.491228E-4	2.957415E-3	3.393921E-4	1.232881E-2	-9.972776E-3	-6.826650E-3	-8.396345E-3	-1.385456E-2	-1.802042E-2	1.141792E-2	5.645642E-3	-1.458192E-2	6.378328E-3	1.162824E-2	1.672834E-2	1.455059E-2	8.828601E-3	-1.985443E-2	1.715297E-2	-5.092246E-4	-6.472072E-3	-1.221288E-2	-7.008950E-3	-2.026607E-2	2.016005E-2	7.025640E-3	5.564517E-3	-2.992158E-3	7.791174E-3	1.183852E-2	1.428544E-2	-1.091610E-2	3.714896E-3	7.047307E-3	-1.018732E-2	8.872360E-3	-1.944138E-2	1.655988E-2	-2.310849E-3	-1.290091E-2	-4.076869E-3	6.278480E-3	-2.044032E-2	6.825409E-3	-2.258785E-2	-1.299532E-2	1.426114E-2	7.485948E-3	1.818354E-2	-3.850929E-3	1.487989E-2	-4.443041E-3	-1.171214E-2	9.740564E-3	-1.039509E-2	1.198223E-3	-2.674677E-2	7.491147E-3	6.205130E-3	1.717038E-2	1.393419E-3	-5.643857E-3	-9.986084E-3	7.106458E-4	-1.166665E-2	-2.323922E-3	1.747130E-2	-1.969778E-2	4.615264E-4	5.464641E-3	6.142527E-3	-4.607196E-3	-1.837138E-2	1.773044E-2	9.770583E-3	-1.720649E-2	-2.803871E-3	-5.479909E-3	1.891687E-3	-1.526097E-2	-8.884863E-3	-2.670595E-2	-2.067124E-4	-6.263413E-3	-3.570462E-3	1.547269E-2	1.844408E-2	1.659490E-2	-2.562901E-2	-3.154317E-2	1.383947E-3	-3.518036E-2	-2.478677E-3	-1.735144E-2	-8.378682E-3	-1.977877E-2	1.847525E-2	-9.374494E-3	-6.843571E-3	-1.167762E-3	-1.416990E-3	-9.635642E-4	-2.872365E-2	-9.835789E-3	-3.520684E-3	-1.787543E-3	-2.431497E-3	-7.153662E-3	-3.536914E-3	-1.159722E-2	5.417189E-3	-1.460463E-2	-2.080403E-2	1.678750E-2	-2.823919E-3	6.305527E-3	4.947563E-3	1.277555E-2	-1.664151E-3	-3.036469E-2	6.721817E-3	2.082496E-2	-1.585324E-2	-3.106049E-2	-5.327131E-3	-2.482028E-3	2.101576E-2	-5.725502E-3	4.118647E-3	-1.503093E-2	-1.996857E-2	1.551437E-3	8.078739E-3	-6.161951E-3	7.875518E-3	-7.450700E-3	-2.104264E-3	-5.920699E-3	1.366376E-2	-2.455739E-4	2.351370E-4	-4.102799E-3	1.371362E-3	-1.007809E-2	1.428362E-2	-2.438511E-2	-2.453901E-2	1.121175E-2	1.048712E-2	-1.794757E-2	6.040617E-3	4.104177E-3	4.415711E-3	-1.985672E-2	9.299156E-3	-1.854936E-2	-1.088303E-2	-2.897100E-2	-1.781773E-2	-2.809709E-2	4.175339E-3	-3.153391E-2	-3.909376E-2
5.330130E+2	3.391427E-2	1.746100E-2	2.616324E-2	1.909864E-2	2.673590E-2	1.837040E-2	6.366229E-2	2.756499E-2	1.876454E-2	3.032437E-2	4.285439E-2	5.781466E-2	2.300793E-2	3.328851E-2	2.362712E-2	4.900105E-2	7.685953E-3	2.547049E-2	3.520621E-3	3.754314E-2	6.801251E-2	2.680677E-2	1.987990E-2	3.638964E-2	5.873632E-2	3.032101E-2	2.352542E-2	4.179689E-2	5.731410E-2	2.863683E-2	5.723571E-2	1.557706E-2	1.870699E-2	3.076148E-2	2.828768E-2	1.905475E-2	3.675183E-2	4.772683E-2	1.006684E-2	4.252433E-2	3.893010E-2	3.034536E-2	5.781190E-2	5.293083E-2	6.272604E-2	3.497720E-2	1.367580E-2	3.421637E-2	5.585526E-2	2.767780E-2	6.219466E-2	5.165456E-2	4.095380E-2	2.987318E-2	3.729796E-2	2.862269E-2	6.016749E-2	1.637456E-2	1.633720E-2	5.427754E-2	4.098243E-2	4.436609E-2	4.887278E-2	2.932436E-2	4.769906E-2	2.866924E-2	4.870046E-2	2.249833E-2	4.446601E-2	2.464932E-2	5.053009E-2	3.498665E-2	2.119700E-2	6.711174E-3	3.555875E-2	2.312332E-2	4.929494E-2	5.280789E-2	2.472386E-2	4.321038E-2	2.368965E-2	5.989245E-3	5.498682E-2	6.196279E-3	4.643874E-2	1.707467E-2	3.350782E-2	5.639222E-2	3.258744E-2	5.267420E-2	5.665912E-2	3.435816E-2	5.767809E-2	2.858423E-2	3.319563E-2	4.202931E-2	2.549981E-2	1.431478E-2	1.515337E-2	3.458415E-2	2.285225E-2	2.852573E-2	1.178385E-2	4.751082E-2	2.652559E-2	6.174133E-2	1.288252E-2	3.838935E-2	1.792171E-2	2.091399E-2	2.358716E-2	3.028091E-2	3.010880E-2	5.250104E-2	5.781879E-2	4.494128E-2	3.744508E-2	4.010833E-2	-1.687243E-3	5.004187E-2	4.059576E-2	5.945072E-2	5.548319E-2	3.170994E-2	3.286363E-2	4.264601E-2	3.544137E-2	4.049442E-2	2.008302E-2	3.357480E-2	2.665591E-2	4.881111E-2	3.783468E-2	4.877794E-2	3.586698E-2	5.825883E-2	1.768268E-2	2.368125E-2	2.494650E-2	4.917691E-2	2.917601E-2	3.531981E-2	2.061435E-2	4.083368E-2	3.026845E-2	2.468141E-2	5.754177E-3	7.066423E-2	2.692895E-2	4.731572E-2	4.116236E-2	1.460400E-2	4.659608E-2	2.465226E-2	2.407418E-2	7.068162E-2	3.100224E-2	3.506648E-2	2.794886E-2	5.247859E-2	2.197834E-2	5.760463E-2	3.655853E-2	8.993621E-3	3.329351E-2	3.883676E-2	3.007704E-2	9.619465E-3	3.475915E-3	3.318427E-2
5.332040E+2	2.919358E-2	2.180350E-2	1.296036E-2	5.629880E-2	3.134959E-2	-4.270224E-3	2.170239E-2	1.722926E-2	3.316338E-2	6.251185E-2	2.965785E-2	2.006411E-2	2.258719E-2	4.485220E-2	4.036465E-2	4.373074E-2	1.432243E-2	3.235411E-3	1.738009E-2	2.384418E-2	3.021975E-2	1.328568E-2	1.751095E-2	1.634433E-2	4.046237E-2	3.322967E-2	9.635678E-3	1.207738E-2	2.152019E-2	4.625536E-2	4.480864E-2	3.450984E-2	1.191535E-2	4.805821E-2	2.568270E-2	6.781414E-3	4.121690E-2	1.992347E-2	4.422884E-2	1.886854E-2	2.998764E-2	1.915454E-2	1.249254E-2	2.518978E-2	1.402496E-2	4.074494E-2	3.192818E-2	3.274240E-2	5.047244E-2	3.826034E-2	3.068026E-2	3.174161E-2	2.245278E-2	1.807000E-2	2.228932E-2	4.271794E-2	2.207340E-2	3.596984E-2	3.750481E-2	2.877554E-2	2.526922E-2	4.907161E-2	5.908918E-2	4.818617E-2	2.352813E-2	2.140095E-2	1.580694E-2	5.045105E-2	5.067307E-2	4.060353E-2	2.211985E-2	1.812841E-2	5.093543E-2	2.600292E-2	4.859460E-2	4.950271E-2	2.247885E-2	4.694968E-2	2.508302E-2	3.795772E-2	2.751582E-2	1.970191E-2	3.099828E-2	5.050003E-2	2.785621E-2	2.046689E-2	4.848196E-2	4.903535E-2	1.666213E-2	3.285825E-2	3.775550E-2	3.379728E-2	3.607346E-2	2.485146E-2	5.627472E-3	3.340753E-2	1.467695E-2	4.903014E-2	4.058956E-2	4.203753E-2	3.343299E-2	1.249051E-2	2.310479E-2	3.245173E-2	1.282887E-2	3.674712E-2	4.844254E-2	4.780960E-2	2.063546E-2	4.058145E-2	4.738344E-2	3.881221E-2	3.742726E-2	1.133499E-2	1.510230E-2	1.139311E-2	3.576676E-2	4.591613E-2	1.003634E-2	4.313409E-2	3.750226E-2	5.261731E-2	1.932084E-2	2.486148E-2	3.888695E-2	3.725400E-2	2.181042E-2	3.556287E-2	2.529271E-2	1.830981E-2	1.166419E-2	4.574951E-2	5.885614E-2	2.208013E-2	4.519766E-2	1.819675E-2	1.760167E-2	3.541882E-2	4.406096E-2	1.111544E-2	4.014455E-2	1.829083E-2	3.229066E-2	5.462790E-2	1.922701E-2	5.149197E-2	2.310203E-2	2.988304E-2	1.790969E-2	3.731677E-2	2.515999E-2	2.521922E-2	8.720992E-3	5.392909E-3	3.398591E-2	4.341118E-2	5.545724E-3	2.833387E-2	3.011505E-2	3.531621E-2	4.047624E-2	4.444890E-2	4.902135E-2	1.054054E-2	2.506352E-2	2.152205E-2	4.751576E-2	6.713883E-2	1.496641E-2	1.130353E-2
5.334110E+2	-2.639402E-3	2.327199E-2	1.347679E-2	-1.341248E-2	7.383725E-4	3.677357E-2	2.695172E-2	4.504211E-2	3.310075E-2	2.464100E-2	3.186493E-2	1.678381E-2	1.188486E-2	1.331075E-3	9.123134E-3	4.135996E-2	1.900026E-2	3.158023E-2	9.282098E-3	1.805991E-3	-1.311599E-3	1.593361E-2	2.672558E-2	3.981405E-2	2.216092E-2	4.921321E-2	2.900494E-3	2.053352E-2	3.501165E-2	-9.163279E-3	3.255853E-2	2.982184E-2	3.301211E-2	1.636007E-2	1.983328E-2	1.458534E-2	3.361481E-2	1.339490E-2	2.719093E-2	-1.752009E-3	8.521981E-3	2.826633E-2	3.250057E-2	7.876917E-3	1.607226E-2	3.294294E-2	2.948020E-2	1.122025E-2	-4.949819E-3	1.796991E-2	1.053853E-2	1.756507E-2	1.583998E-2	6.574585E-3	9.587310E-3	3.069262E-2	2.961199E-2	2.452969E-2	6.704688E-3	3.370829E-3	2.129065E-2	3.228615E-3	6.819871E-3	1.714193E-2	5.543477E-3	1.888325E-2	1.218348E-2	2.785410E-2	1.409096E-2	3.032877E-2	3.537017E-2	3.248094E-2	1.871657E-2	7.575425E-3	3.760307E-2	2.751979E-2	2.643524E-2	2.047392E-2	1.463918E-2	-8.037426E-5	2.549870E-2	9.180860E-3	1.743954E-2	3.310020E-2	1.821058E-2	2.282103E-2	3.048043E-2	1.447801E-2	3.102703E-2	2.515110E-2	1.328567E-2	1.080355E-2	2.100461E-2	1.291616E-2	-1.386707E-3	2.982581E-2	9.700992E-3	3.914198E-2	2.975991E-2	2.091358E-2	1.996687E-2	2.975638E-2	7.269597E-4	1.951682E-2	-2.560635E-3	2.536104E-2	2.953974E-3	6.223886E-2	1.702857E-2	1.163202E-2	4.095872E-2	1.350501E-2	3.914280E-3	-5.366708E-3	1.493527E-2	3.049053E-2	2.982451E-3	2.749445E-3	-3.445259E-3	2.047023E-2	3.045929E-2	1.505662E-2	6.938995E-3	2.182919E-2	-2.900656E-3	-2.488999E-3	2.135038E-3	2.800423E-2	2.232858E-2	3.509518E-2	1.151048E-2	3.738038E-3	3.623928E-2	4.478600E-2	4.276624E-2	3.279882E-2	2.538969E-2	1.787180E-2	3.971309E-2	3.213518E-2	1.073140E-2	-6.426583E-3	2.294584E-2	1.785889E-2	2.208527E-2	2.842205E-2	2.460488E-2	1.905456E-2	1.812255E-2	3.268385E-3	1.621651E-2	4.220802E-2	7.912738E-3	3.233230E-3	1.866640E-2	2.761419E-2	1.863173E-2	1.976889E-2	3.913721E-2	3.146798E-2	2.129364E-2	1.645210E-2	5.919491E-2	4.822101E-2	5.005971E-2	4.120872E-3	2.124022E-2	5.568022E-3	4.916730E-3	4.240352E-2
5.336080E+2	4.952296E-2	2.569801E-2	-5.726738E-3	4.799225E-2	4.264573E-2	5.802619E-2	5.009400E-2	3.403190E-2	1.840216E-2	4.849440E-2	4.717868E-2	4.571438E-2	3.957614E-2	6.708924E-2	4.254140E-2	5.783420E-2	2.634006E-2	4.849846E-2	5.033409E-2	7.275232E-2	3.994110E-2	5.761611E-2	6.212119E-2	7.599778E-2	3.886934E-2	3.831515E-2	6.362199E-2	4.324884E-2	7.650626E-2	5.143843E-2	6.135390E-2	3.484746E-2	5.687311E-2	5.543449E-2	5.345406E-2	2.588992E-2	6.401737E-2	4.038996E-2	5.352367E-2	8.695059E-3	5.600962E-2	3.971288E-2	5.835197E-2	4.451120E-2	3.811394E-2	5.185174E-2	3.862517E-2	3.799835E-2	3.824168E-2	5.169163E-2	3.689737E-2	4.595648E-2	3.968245E-2	3.372863E-2	3.623022E-2	2.497201E-2	6.189210E-2	3.646535E-2	6.478343E-2	7.004602E-2	4.217852E-2	5.342483E-2	5.517084E-2	3.693180E-2	6.731587E-2	4.459822E-2	4.009373E-2	5.828336E-2	6.096210E-2	4.994617E-2	4.258633E-2	6.186127E-2	5.068242E-2	4.679421E-2	5.816780E-2	5.259876E-2	5.229922E-2	4.825484E-2	5.000671E-2	6.249424E-2	6.858278E-2	3.007807E-2	4.879222E-2	4.153535E-2	7.330888E-2	2.815857E-2	2.458427E-2	6.049678E-2	3.367516E-2	3.527219E-2	7.282961E-2	5.996447E-2	3.911569E-2	3.611031E-2	4.151811E-2	4.698501E-2	4.561594E-2	4.022127E-2	3.422978E-2	5.580306E-2	5.748340E-2	5.451585E-2	2.974034E-2	5.754022E-2	2.725468E-2	4.858368E-2	5.359376E-2	5.740769E-2	3.874400E-2	4.989596E-2	6.373667E-2	3.988662E-2	4.882740E-2	4.092021E-2	3.257464E-2	3.038028E-2	5.720716E-2	5.853513E-2	1.727407E-2	4.937885E-2	5.072498E-2	5.672116E-2	4.548457E-2	3.298549E-2	2.514723E-2	6.264513E-2	5.840694E-2	3.413605E-2	5.239706E-2	7.347260E-2	6.676965E-2	6.464962E-2	6.592404E-2	4.644731E-2	4.405702E-2	2.756490E-2	6.163912E-2	4.439025E-2	4.027046E-2	5.166930E-2	1.919125E-2	3.874703E-2	6.221167E-2	4.268016E-2	7.897545E-2	5.191057E-2	5.264069E-2	6.249023E-2	6.440115E-2	6.804155E-2	9.339912E-2	5.576161E-2	6.349742E-2	5.216260E-2	2.628724E-2	3.679536E-2	6.013647E-2	6.392897E-2	7.631346E-2	5.320653E-2	3.910698E-2	4.043900E-2	5.523094E-2	5.140833E-2	8.497167E-2	4.753348E-2	6.157015E-2	4.936288E-2	8.573668E-2	9.643478E-2
5.338150E+2	4.742530E-2	5.032182E-2	2.144693E-2	2.331627E-2	7.869652E-2	6.078849E-2	6.006811E-2	3.856700E-2	5.993252E-2	5.339894E-2	3.309717E-2	5.897423E-2	6.394126E-2	4.726482E-2	4.619663E-2	3.955056E-2	3.439115E-2	5.123822E-2	5.361589E-2	7.344398E-2	3.714090E-2	2.768725E-2	4.559036E-2	6.595707E-2	6.296832E-2	2.427702E-2	2.508663E-2	6.176198E-2	3.809885E-2	6.796699E-2	6.257057E-2	2.943571E-2	4.724941E-2	6.209933E-2	3.104232E-2	2.882437E-2	4.115087E-2	4.235003E-2	3.592810E-2	6.234421E-2	5.795683E-2	2.399366E-2	5.852913E-2	6.845890E-2	5.981980E-2	3.495431E-2	4.355727E-2	2.711399E-2	5.182237E-2	7.485138E-2	4.372909E-2	7.584570E-2	6.263560E-2	3.667348E-2	5.105931E-2	2.131804E-2	5.391137E-2	5.955798E-2	5.891131E-2	6.116641E-2	5.533349E-2	6.284335E-2	5.061551E-2	7.047157E-2	2.855825E-2	5.949063E-2	6.137761E-2	7.809581E-2	5.188830E-2	3.906930E-2	6.366963E-2	5.116973E-2	8.141936E-2	4.993504E-2	1.748337E-2	7.915465E-2	4.312859E-2	7.370241E-2	6.406182E-2	5.401504E-2	5.056027E-2	5.771321E-2	6.249010E-2	5.194268E-2	7.881489E-2	3.859998E-2	4.397567E-2	6.021001E-2	3.918921E-2	4.043393E-2	2.337869E-2	3.804038E-2	3.512931E-2	4.763080E-2	2.606768E-2	4.527352E-2	6.183464E-2	1.918886E-2	3.579452E-2	4.325783E-2	4.663944E-2	6.280249E-2	3.857416E-2	7.964589E-2	6.608866E-2	7.614674E-2	4.128634E-2	6.480219E-2	4.404532E-2	7.097230E-2	5.777471E-2	5.122220E-2	4.304496E-2	4.324939E-2	2.604068E-2	4.182793E-2	4.122657E-2	3.886280E-2	4.401327E-2	6.483756E-2	3.946691E-2	4.984783E-2	5.885533E-2	3.445153E-2	6.576741E-2	7.456887E-2	5.269709E-2	2.594283E-2	7.895299E-2	5.852343E-2	4.508336E-2	5.780124E-2	3.936720E-2	2.420814E-2	5.176679E-2	5.296529E-2	4.908021E-2	4.094408E-2	6.550582E-2	3.274827E-2	6.965182E-2	5.559528E-2	5.139198E-2	7.010122E-2	6.049029E-2	6.487599E-2	5.819661E-2	5.604949E-2	4.930871E-2	5.947888E-2	4.895268E-2	4.909268E-2	5.077902E-2	6.271343E-2	4.196888E-2	6.445344E-2	3.882557E-2	6.137002E-2	5.540208E-2	4.819074E-2	5.861264E-2	6.323489E-2	1.069423E-1	7.306148E-2	3.806904E-2	5.901762E-2	4.942610E-2	6.443654E-2	6.713542E-2	9.722475E-3
5.340070E+2	1.272362E-1	1.233479E-1	9.033584E-2	1.040719E-1	1.042680E-1	1.174834E-1	9.281178E-2	1.279233E-1	1.214801E-1	1.121238E-1	6.096685E-2	1.340235E-1	1.150648E-1	8.300641E-2	7.070285E-2	1.075917E-1	1.173214E-1	1.003151E-1	1.045479E-1	1.144767E-1	1.219161E-1	1.062901E-1	1.230982E-1	1.196465E-1	9.756398E-2	1.128988E-1	1.309789E-1	1.341862E-1	1.308470E-1	1.059936E-1	1.265293E-1	9.986900E-2	1.228339E-1	1.095199E-1	1.210261E-1	1.049243E-1	1.131428E-1	1.350980E-1	1.117391E-1	9.653431E-2	7.983227E-2	1.153746E-1	1.097740E-1	1.348995E-1	1.169864E-1	1.499935E-1	1.134319E-1	1.124068E-1	1.293332E-1	9.123729E-2	9.155765E-2	1.174817E-1	1.072637E-1	1.127980E-1	9.934424E-2	9.600598E-2	1.301144E-1	1.019354E-1	1.433323E-1	1.178292E-1	8.769490E-2	9.181570E-2	8.159670E-2	1.126667E-1	1.095874E-1	1.128790E-1	1.068646E-1	1.028566E-1	1.243671E-1	1.364813E-1	1.222999E-1	1.234076E-1	1.009001E-1	1.342488E-1	9.040709E-2	1.225431E-1	9.991023E-2	1.017600E-1	8.780864E-2	9.397980E-2	8.096979E-2	1.064435E-1	9.409940E-2	9.773588E-2	1.352992E-1	9.800328E-2	9.286999E-2	1.330072E-1	8.996995E-2	7.762591E-2	9.762460E-2	1.031000E-1	1.230887E-1	1.216652E-1	1.097736E-1	9.058679E-2	1.125654E-1	1.140726E-1	1.077182E-1	9.534137E-2	1.151697E-1	1.065664E-1	1.126176E-1	1.130913E-1	9.934945E-2	1.494837E-1	1.040780E-1	1.408334E-1	9.636617E-2	1.285925E-1	1.066928E-1	1.091817E-1	1.041998E-1	1.019954E-1	1.083693E-1	1.279996E-1	1.119848E-1	1.423081E-1	9.932956E-2	1.206395E-1	1.159185E-1	9.840859E-2	1.123014E-1	1.068170E-1	1.228411E-1	1.312371E-1	9.441684E-2	1.310994E-1	1.219652E-1	1.080681E-1	9.456917E-2	1.605953E-1	9.548585E-2	1.232818E-1	1.176222E-1	1.154087E-1	1.180024E-1	1.089490E-1	1.114302E-1	9.191588E-2	1.210050E-1	9.887697E-2	1.068525E-1	1.104818E-1	1.178834E-1	1.073740E-1	9.092098E-2	8.383693E-2	1.104272E-1	1.057882E-1	1.156252E-1	9.035700E-2	1.168205E-1	1.447993E-1	1.097389E-1	1.175376E-1	1.234867E-1	1.001043E-1	1.223317E-1	1.334700E-1	1.225409E-1	1.313022E-1	1.252909E-1	1.638117E-1	1.214828E-1	7.225305E-2	8.886267E-2	1.279930E-1	1.030717E-1	5.284075E-2
5.342090E+2	1.872867E-1	2.305709E-1	1.723720E-1	1.850931E-1	2.139367E-1	1.675060E-1	1.711193E-1	2.111105E-1	2.046376E-1	1.846254E-1	2.010645E-1	2.281667E-1	1.914002E-1	1.927968E-1	1.723680E-1	2.199702E-1	1.547895E-1	1.960533E-1	1.818186E-1	1.772319E-1	1.994792E-1	2.075855E-1	1.897368E-1	2.031390E-1	1.972269E-1	2.228002E-1	1.584866E-1	1.719247E-1	2.423189E-1	2.113812E-1	2.029746E-1	2.052631E-1	1.650649E-1	1.872541E-1	2.121883E-1	2.018728E-1	1.727118E-1	2.160444E-1	1.744412E-1	1.902345E-1	1.946088E-1	2.064925E-1	1.973045E-1	2.031134E-1	1.968116E-1	1.831091E-1	1.631110E-1	1.963904E-1	1.766722E-1	2.450769E-1	1.961305E-1	2.232730E-1	2.194514E-1	2.410432E-1	2.220112E-1	1.898985E-1	1.729291E-1	1.884760E-1	2.153785E-1	1.910947E-1	1.907717E-1	2.058531E-1	1.974849E-1	2.149031E-1	2.044588E-1	1.679981E-1	2.180125E-1	1.595188E-1	1.948225E-1	1.887304E-1	1.796570E-1	2.408028E-1	2.014068E-1	1.935135E-1	1.822519E-1	1.878950E-1	1.688545E-1	1.717315E-1	2.116185E-1	1.740643E-1	1.839831E-1	1.940809E-1	1.907784E-1	1.977148E-1	1.970317E-1	1.929470E-1	2.116774E-1	2.322324E-1	2.361700E-1	1.939123E-1	1.530622E-1	1.730592E-1	2.085748E-1	1.720022E-1	1.569690E-1	1.847640E-1	1.754612E-1	1.875576E-1	1.538656E-1	2.024119E-1	1.512416E-1	2.028008E-1	2.122561E-1	1.981959E-1	1.662270E-1	2.392991E-1	1.913416E-1	2.072086E-1	2.179795E-1	1.645833E-1	2.069234E-1	2.033016E-1	2.041881E-1	2.074154E-1	1.980705E-1	2.105734E-1	1.851583E-1	1.974928E-1	1.888225E-1	1.973555E-1	1.798489E-1	2.245623E-1	1.839253E-1	2.053465E-1	2.012442E-1	1.915209E-1	2.100441E-1	1.845603E-1	1.931605E-1	2.001613E-1	2.093193E-1	2.440840E-1	1.737381E-1	1.772575E-1	1.863079E-1	1.702685E-1	2.031402E-1	2.084465E-1	2.022049E-1	2.276203E-1	1.995094E-1	2.119574E-1	2.048081E-1	1.923139E-1	1.910584E-1	1.756655E-1	1.753920E-1	1.987283E-1	1.863131E-1	2.038699E-1	1.711318E-1	2.335104E-1	2.192289E-1	2.141564E-1	2.116407E-1	2.161184E-1	1.892805E-1	2.149813E-1	1.796016E-1	2.137852E-1	1.924308E-1	2.057193E-1	2.002096E-1	1.712724E-1	2.136941E-1	1.871656E-1	1.924452E-1	2.268000E-1	1.672880E-1	1.111938E-1
5.344070E+2	3.350773E-1	3.063798E-1	3.174389E-1	3.542084E-1	3.295446E-1	3.302515E-1	2.937645E-1	3.383230E-1	2.933806E-1	3.129617E-1	3.215960E-1	3.089291E-1	2.781159E-1	3.608267E-1	2.931850E-1	3.408028E-1	2.920706E-1	3.100824E-1	3.328216E-1	3.149702E-1	3.387598E-1	3.527687E-1	3.688598E-1	3.324494E-1	3.476496E-1	3.587979E-1	3.299938E-1	3.371093E-1	3.308034E-1	3.259402E-1	3.361081E-1	3.131809E-1	3.648738E-1	3.584667E-1	3.612612E-1	3.336040E-1	3.647609E-1	3.425854E-1	3.847951E-1	3.663766E-1	3.077108E-1	3.390366E-1	3.685753E-1	3.246995E-1	3.018334E-1	3.263330E-1	3.460836E-1	3.418786E-1	3.404796E-1	3.092966E-1	3.489644E-1	3.570388E-1	3.170999E-1	3.304314E-1	3.517729E-1	3.591748E-1	3.181504E-1	3.410501E-1	3.502986E-1	3.339284E-1	3.315982E-1	3.240507E-1	3.441829E-1	3.310737E-1	3.867016E-1	3.448982E-1	3.509301E-1	3.259269E-1	3.014388E-1	3.631487E-1	3.545615E-1	3.483649E-1	3.390020E-1	3.782626E-1	3.527797E-1	3.158819E-1	3.421449E-1	3.371039E-1	3.624820E-1	3.427578E-1	3.592800E-1	3.550905E-1	3.477893E-1	3.428713E-1	3.574254E-1	3.478940E-1	3.486009E-1	3.647775E-1	3.029213E-1	3.422672E-1	3.249104E-1	3.538208E-1	3.050891E-1	3.359039E-1	3.072396E-1	3.021155E-1	3.729078E-1	3.332783E-1	3.001732E-1	3.560580E-1	3.507671E-1	3.241900E-1	3.253171E-1	3.264647E-1	3.231619E-1	3.135050E-1	3.293351E-1	3.531511E-1	3.024533E-1	3.287758E-1	3.316408E-1	3.383659E-1	3.446329E-1	3.310674E-1	3.351218E-1	3.442471E-1	3.617953E-1	3.630777E-1	3.056002E-1	3.469733E-1	3.492605E-1	3.482620E-1	3.108397E-1	3.364585E-1	3.417943E-1	3.171861E-1	3.252128E-1	3.373008E-1	3.463954E-1	3.357459E-1	3.275285E-1	3.367384E-1	3.397605E-1	3.519054E-1	3.158286E-1	3.311878E-1	3.564215E-1	3.470977E-1	3.117346E-1	3.301860E-1	3.521489E-1	3.274516E-1	3.383504E-1	3.241505E-1	3.745916E-1	3.221263E-1	3.031419E-1	3.440654E-1	3.161245E-1	3.660801E-1	3.660573E-1	3.215127E-1	3.822083E-1	3.289900E-1	3.227347E-1	3.885791E-1	3.551761E-1	3.461468E-1	3.467270E-1	3.479206E-1	3.812803E-1	3.090594E-1	2.874297E-1	3.159457E-1	3.746500E-1	3.359467E-1	3.619767E-1	3.615476E-1	3.695963E-1	2.928611E-1
5.346150E+2	6.563585E-1	6.731223E-1	7.102156E-1	6.693842E-1	6.434663E-1	6.523824E-1	6.774644E-1	6.885156E-1	6.769304E-1	6.800072E-1	6.562826E-1	7.313925E-1	6.611862E-1	6.487109E-1	6.371884E-1	7.055633E-1	6.807191E-1	6.840160E-1	6.266526E-1	6.807740E-1	6.648712E-1	7.058270E-1	7.019407E-1	7.364757E-1	6.685162E-1	7.427885E-1	7.233002E-1	6.944763E-1	6.716122E-1	7.023222E-1	7.069075E-1	7.158533E-1	6.829312E-1	6.563218E-1	6.898173E-1	6.927627E-1	6.959988E-1	6.805373E-1	6.639599E-1	6.961481E-1	6.937292E-1	6.798871E-1	7.204648E-1	7.160603E-1	7.015362E-1	6.730864E-1	7.021204E-1	7.391759E-1	6.717410E-1	7.107068E-1	7.020336E-1	7.052995E-1	7.368450E-1	7.091878E-1	7.070319E-1	7.118530E-1	7.298281E-1	6.897553E-1	6.971808E-1	7.246083E-1	6.964842E-1	6.774829E-1	6.721241E-1	6.984012E-1	6.091353E-1	7.194892E-1	6.931313E-1	6.925386E-1	6.941035E-1	6.860706E-1	6.933591E-1	6.255781E-1	6.954806E-1	7.195349E-1	7.577924E-1	7.018001E-1	6.992432E-1	6.720329E-1	6.856251E-1	6.448406E-1	6.714534E-1	6.791233E-1	6.280271E-1	6.894495E-1	6.361113E-1	6.241234E-1	6.971004E-1	6.461930E-1	7.036246E-1	7.216239E-1	7.179134E-1	7.066558E-1	6.748805E-1	7.278298E-1	6.936461E-1	7.372514E-1	6.968988E-1	6.798243E-1	6.455248E-1	7.043176E-1	6.457900E-1	6.978568E-1	6.448474E-1	7.382759E-1	6.753121E-1	6.998501E-1	6.604414E-1	7.140259E-1	6.716902E-1	6.910904E-1	7.034861E-1	7.161148E-1	6.734200E-1	6.806187E-1	7.055566E-1	7.144889E-1	6.875234E-1	6.873295E-1	6.191729E-1	6.934496E-1	6.911930E-1	6.931459E-1	7.186844E-1	7.441083E-1	7.385850E-1	6.973155E-1	6.846336E-1	7.285303E-1	6.671729E-1	7.064587E-1	6.557135E-1	7.053320E-1	7.091220E-1	6.580234E-1	6.903823E-1	6.884097E-1	6.349014E-1	6.441733E-1	6.867672E-1	7.115422E-1	6.824174E-1	6.765052E-1	6.673320E-1	6.282824E-1	7.226415E-1	6.678785E-1	7.005590E-1	7.809912E-1	7.234858E-1	6.935709E-1	6.795195E-1	6.483616E-1	7.128051E-1	6.619065E-1	6.640173E-1	6.472010E-1	6.801652E-1	6.690221E-1	6.751153E-1	6.984239E-1	6.884918E-1	6.785478E-1	6.403710E-1	6.897326E-1	7.197340E-1	6.913812E-1	7.020141E-1	6.663027E-1	7.482853E-1	6.218738E-1
5.348120E+2	1.025174E+0	9.759329E-1	9.925273E-1	9.749874E-1	1.020794E+0	9.353248E-1	9.771085E-1	1.053476E+0	1.017691E+0	1.003555E+0	1.009227E+0	1.054997E+0	1.020020E+0	1.053577E+0	1.036331E+0	1.025332E+0	9.905165E-1	1.026159E+0	1.010106E+0	1.039250E+0	1.047072E+0	1.075602E+0	1.039341E+0	1.088113E+0	1.107422E+0	9.914162E-1	1.086061E+0	1.007309E+0	9.727644E-1	1.022826E+0	1.058968E+0	1.020378E+0	1.032891E+0	1.088337E+0	1.077628E+0	1.053054E+0	1.077205E+0	1.023878E+0	1.047556E+0	1.043981E+0	1.097354E+0	1.050246E+0	9.810401E-1	1.041502E+0	1.029741E+0	1.030291E+0	1.032950E+0	1.041601E+0	1.055651E+0	9.888078E-1	1.051474E+0	1.006426E+0	1.054858E+0	1.006359E+0	1.048063E+0	1.091444E+0	1.038825E+0	1.025721E+0	1.021010E+0	1.043577E+0	1.022384E+0	9.911521E-1	9.632535E-1	1.024363E+0	1.057139E+0	1.014557E+0	1.014391E+0	1.066012E+0	1.027102E+0	1.001345E+0	1.092688E+0	1.000164E+0	1.037516E+0	1.049750E+0	1.041040E+0	9.792418E-1	1.078968E+0	1.093448E+0	1.021581E+0	1.020322E+0	1.029488E+0	1.039919E+0	1.005152E+0	1.069047E+0	1.043005E+0	1.045643E+0	1.064487E+0	9.429977E-1	1.002716E+0	1.019586E+0	1.046938E+0	1.005747E+0	1.021006E+0	9.961864E-1	9.847933E-1	1.008721E+0	1.028302E+0	1.020202E+0	1.002217E+0	9.719919E-1	1.024781E+0	1.058083E+0	1.008124E+0	1.022033E+0	1.091947E+0	1.037405E+0	9.994973E-1	1.011679E+0	9.785813E-1	9.607497E-1	9.936069E-1	1.052084E+0	1.006695E+0	1.024494E+0	1.056622E+0	1.010803E+0	9.827358E-1	1.023125E+0	9.504972E-1	1.020488E+0	1.048196E+0	1.049042E+0	9.948119E-1	1.023267E+0	1.036256E+0	1.053792E+0	1.030865E+0	1.045254E+0	1.080035E+0	9.977634E-1	9.993195E-1	1.012671E+0	1.024151E+0	9.680334E-1	1.020630E+0	1.080010E+0	1.030066E+0	1.016059E+0	1.055450E+0	1.024339E+0	1.013562E+0	1.007693E+0	1.015745E+0	1.002211E+0	9.478169E-1	9.869514E-1	9.803705E-1	1.024733E+0	1.019935E+0	1.033970E+0	1.008089E+0	1.008629E+0	1.032055E+0	1.036116E+0	9.583570E-1	1.019687E+0	1.006206E+0	1.005583E+0	9.913021E-1	1.011635E+0	1.017418E+0	1.034161E+0	9.661906E-1	1.013610E+0	9.824954E-1	9.875523E-1	1.008932E+0	9.997503E-1	1.024193E+0	8.720713E-1
5.350100E+2	1.668229E+0	1.667785E+0	1.686381E+0	1.643201E+0	1.643846E+0	1.699614E+0	1.739686E+0	1.711579E+0	1.623481E+0	1.684929E+0	1.726518E+0	1.737056E+0	1.616236E+0	1.646192E+0	1.645598E+0	1.709910E+0	1.678828E+0	1.660517E+0	1.682548E+0	1.648480E+0	1.666843E+0	1.673528E+0	1.681248E+0	1.668200E+0	1.695815E+0	1.630103E+0	1.668223E+0	1.711453E+0	1.631221E+0	1.594054E+0	1.629302E+0	1.634798E+0	1.648706E+0	1.672489E+0	1.703448E+0	1.689241E+0	1.689955E+0	1.657765E+0	1.660289E+0	1.642371E+0	1.718876E+0	1.647994E+0	1.666118E+0	1.667952E+0	1.671671E+0	1.628427E+0	1.628339E+0	1.698378E+0	1.742452E+0	1.653100E+0	1.665739E+0	1.652176E+0	1.659939E+0	1.649619E+0	1.676355E+0	1.642988E+0	1.703347E+0	1.674366E+0	1.677152E+0	1.656656E+0	1.690224E+0	1.681396E+0	1.658757E+0	1.612213E+0	1.670295E+0	1.628093E+0	1.672160E+0	1.626541E+0	1.713849E+0	1.641352E+0	1.648150E+0	1.649827E+0	1.630016E+0	1.711049E+0	1.685963E+0	1.668955E+0	1.642840E+0	1.670426E+0	1.698001E+0	1.637210E+0	1.696751E+0	1.673376E+0	1.606541E+0	1.641049E+0	1.642767E+0	1.714027E+0	1.647957E+0	1.629211E+0	1.709315E+0	1.672211E+0	1.673930E+0	1.608638E+0	1.643896E+0	1.738338E+0	1.664070E+0	1.631819E+0	1.647839E+0	1.699847E+0	1.585757E+0	1.730566E+0	1.601056E+0	1.610137E+0	1.607224E+0	1.683180E+0	1.750149E+0	1.676652E+0	1.608456E+0	1.632209E+0	1.643452E+0	1.582531E+0	1.639600E+0	1.694606E+0	1.564701E+0	1.615981E+0	1.618240E+0	1.682543E+0	1.684862E+0	1.617599E+0	1.642791E+0	1.631936E+0	1.644045E+0	1.636160E+0	1.609977E+0	1.704914E+0	1.701335E+0	1.689185E+0	1.561685E+0	1.735571E+0	1.645224E+0	1.641523E+0	1.711538E+0	1.678740E+0	1.603096E+0	1.579728E+0	1.600313E+0	1.656666E+0	1.642514E+0	1.660841E+0	1.645916E+0	1.621519E+0	1.695674E+0	1.607753E+0	1.661955E+0	1.614928E+0	1.655956E+0	1.656405E+0	1.615967E+0	1.681878E+0	1.655019E+0	1.587466E+0	1.630478E+0	1.629507E+0	1.607784E+0	1.648166E+0	1.590813E+0	1.620760E+0	1.602462E+0	1.637841E+0	1.614115E+0	1.656727E+0	1.644271E+0	1.531741E+0	1.656366E+0	1.655218E+0	1.718081E+0	1.683444E+0	1.676573E+0	1.620423E+0	1.569643E+0	1.558507E+0
5.352390E+2	2.008117E+0	1.886912E+0	1.970252E+0	1.953283E+0	1.894291E+0	1.916595E+0	1.903474E+0	1.951230E+0	1.933548E+0	1.921012E+0	2.014289E+0	1.976195E+0	1.884419E+0	1.937562E+0	1.928815E+0	1.957259E+0	1.918942E+0	2.006684E+0	2.036635E+0	1.931707E+0	1.860754E+0	2.000861E+0	1.960233E+0	1.952783E+0	1.953132E+0	2.000707E+0	2.002389E+0	1.927030E+0	1.830920E+0	1.897774E+0	1.902628E+0	1.938746E+0	1.968814E+0	1.958929E+0	1.854425E+0	1.849342E+0	1.988086E+0	1.888377E+0	1.901773E+0	1.885421E+0	1.950027E+0	1.951010E+0	1.981753E+0	1.953491E+0	1.860136E+0	1.912267E+0	1.939876E+0	1.927096E+0	1.906562E+0	1.917291E+0	2.039848E+0	1.837476E+0	1.878828E+0	1.913201E+0	1.951573E+0	1.957933E+0	1.989031E+0	1.859702E+0	1.879346E+0	1.924905E+0	1.978239E+0	1.927035E+0	1.858078E+0	1.929681E+0	1.971752E+0	1.969583E+0	1.918403E+0	1.921486E+0	1.913748E+0	1.901106E+0	1.897790E+0	1.822123E+0	1.990269E+0	1.954725E+0	1.943313E+0	1.889795E+0	1.843314E+0	1.937432E+0	1.939149E+0	1.813778E+0	1.964737E+0	1.907853E+0	1.838154E+0	1.875126E+0	1.874532E+0	1.941970E+0	1.851695E+0	1.924044E+0	1.968723E+0	1.907976E+0	1.782138E+0	1.888944E+0	1.848368E+0	1.886411E+0	1.831420E+0	1.866642E+0	1.956415E+0	1.941519E+0	1.821618E+0	1.827816E+0	1.897877E+0	1.944286E+0	1.913435E+0	1.882988E+0	2.026257E+0	1.852269E+0	1.924043E+0	1.888405E+0	1.841693E+0	1.812769E+0	1.934271E+0	1.918810E+0	1.823187E+0	1.906784E+0	1.946385E+0	1.972645E+0	1.888342E+0	1.826534E+0	1.803354E+0	1.902587E+0	1.946344E+0	1.842417E+0	1.891272E+0	1.911387E+0	1.863772E+0	1.927356E+0	1.869323E+0	1.902810E+0	1.951991E+0	1.854692E+0	1.868562E+0	1.907139E+0	1.901039E+0	1.874006E+0	1.868316E+0	1.990545E+0	1.880515E+0	1.874305E+0	1.791349E+0	1.843020E+0	1.888022E+0	1.845985E+0	1.834194E+0	1.823668E+0	1.878423E+0	1.875527E+0	1.784850E+0	1.917867E+0	1.819511E+0	1.939432E+0	1.850050E+0	1.876262E+0	1.914751E+0	1.946027E+0	1.788341E+0	2.026492E+0	1.878461E+0	1.782480E+0	1.885697E+0	1.893027E+0	1.921555E+0	1.818465E+0	1.741111E+0	1.915985E+0	1.947332E+0	1.871118E+0	1.740994E+0	1.923780E+0	2.063824E+0	1.621747E+0
5.354110E+2	2.608727E+0	2.312907E+0	2.377491E+0	2.520641E+0	2.416957E+0	2.426078E+0	2.373044E+0	2.368808E+0	2.473411E+0	2.441118E+0	2.410329E+0	2.442118E+0	2.349983E+0	2.507420E+0	2.475309E+0	2.381769E+0	2.385645E+0	2.496248E+0	2.368478E+0	2.361899E+0	2.450502E+0	2.484032E+0	2.380090E+0	2.387049E+0	2.445708E+0	2.487773E+0	2.350464E+0	2.555786E+0	2.313723E+0	2.430680E+0	2.359183E+0	2.420237E+0	2.376528E+0	2.387771E+0	2.382281E+0	2.404359E+0	2.510381E+0	2.375045E+0	2.409928E+0	2.405067E+0	2.538474E+0	2.433831E+0	2.393254E+0	2.446231E+0	2.351129E+0	2.344712E+0	2.429452E+0	2.413666E+0	2.378433E+0	2.328740E+0	2.375985E+0	2.317203E+0	2.330706E+0	2.350600E+0	2.422165E+0	2.404315E+0	2.453014E+0	2.368949E+0	2.386897E+0	2.456878E+0	2.350658E+0	2.328400E+0	2.331814E+0	2.369215E+0	2.387476E+0	2.462317E+0	2.377288E+0	2.332713E+0	2.417736E+0	2.359128E+0	2.289264E+0	2.394806E+0	2.401076E+0	2.422125E+0	2.363983E+0	2.359593E+0	2.372084E+0	2.348187E+0	2.429747E+0	2.200899E+0	2.299788E+0	2.461407E+0	2.326657E+0	2.321019E+0	2.321842E+0	2.404860E+0	2.456874E+0	2.265512E+0	2.481534E+0	2.435364E+0	2.428140E+0	2.324889E+0	2.356019E+0	2.412660E+0	2.385453E+0	2.302150E+0	2.442038E+0	2.366237E+0	2.373607E+0	2.335757E+0	2.347996E+0	2.342698E+0	2.355509E+0	2.190314E+0	2.334592E+0	2.406216E+0	2.359400E+0	2.345052E+0	2.302607E+0	2.301117E+0	2.360247E+0	2.264749E+0	2.389318E+0	2.294507E+0	2.270497E+0	2.355802E+0	2.343886E+0	2.303690E+0	2.329348E+0	2.291034E+0	2.349878E+0	2.354105E+0	2.332200E+0	2.361962E+0	2.410740E+0	2.362845E+0	2.320119E+0	2.427412E+0	2.445507E+0	2.353054E+0	2.361889E+0	2.419889E+0	2.382723E+0	2.321235E+0	2.350532E+0	2.429689E+0	2.370038E+0	2.231778E+0	2.266797E+0	2.356898E+0	2.370441E+0	2.369372E+0	2.343168E+0	2.327758E+0	2.269123E+0	2.327129E+0	2.237165E+0	2.351586E+0	2.372404E+0	2.381215E+0	2.207102E+0	2.337722E+0	2.418781E+0	2.308698E+0	2.331005E+0	2.419020E+0	2.323914E+0	2.267481E+0	2.261650E+0	2.331537E+0	2.321208E+0	2.297831E+0	2.279644E+0	2.390100E+0	2.311260E+0	2.359971E+0	2.231836E+0	2.366664E+0	2.376437E+0	2.106498E+0
5.356310E+2	2.440989E+0	2.280312E+0	2.309205E+0	2.352789E+0	2.259151E+0	2.288988E+0	2.334719E+0	2.268606E+0	2.337393E+0	2.235695E+0	2.321666E+0	2.357991E+0	2.316454E+0	2.217692E+0	2.288585E+0	2.303600E+0	2.318274E+0	2.342626E+0	2.368503E+0	2.256210E+0	2.301114E+0	2.303718E+0	2.365123E+0	2.287245E+0	2.310839E+0	2.291747E+0	2.266383E+0	2.282015E+0	2.193429E+0	2.206143E+0	2.231775E+0	2.315236E+0	2.264570E+0	2.222678E+0	2.283780E+0	2.267903E+0	2.341238E+0	2.285427E+0	2.228233E+0	2.315703E+0	2.367072E+0	2.332757E+0	2.299589E+0	2.392515E+0	2.279734E+0	2.194355E+0	2.271447E+0	2.297239E+0	2.321278E+0	2.229775E+0	2.327825E+0	2.263799E+0	2.370803E+0	2.326429E+0	2.328199E+0	2.367626E+0	2.327322E+0	2.242471E+0	2.308034E+0	2.233471E+0	2.234852E+0	2.236752E+0	2.269144E+0	2.177003E+0	2.344380E+0	2.350433E+0	2.290822E+0	2.186560E+0	2.332582E+0	2.281359E+0	2.269023E+0	2.184189E+0	2.326875E+0	2.308691E+0	2.313875E+0	2.179686E+0	2.259860E+0	2.257674E+0	2.345248E+0	2.153238E+0	2.309443E+0	2.305765E+0	2.193144E+0	2.191976E+0	2.272198E+0	2.389741E+0	2.268493E+0	2.161557E+0	2.288133E+0	2.254639E+0	2.223695E+0	2.232254E+0	2.280624E+0	2.323242E+0	2.222768E+0	2.183967E+0	2.254682E+0	2.250888E+0	2.305830E+0	2.249010E+0	2.304947E+0	2.331465E+0	2.246407E+0	2.211812E+0	2.343709E+0	2.184809E+0	2.190461E+0	2.120890E+0	2.217271E+0	2.175444E+0	2.222910E+0	2.212278E+0	2.173692E+0	2.227820E+0	2.287313E+0	2.239476E+0	2.336317E+0	2.253491E+0	2.243983E+0	2.218649E+0	2.294915E+0	2.272853E+0	2.231766E+0	2.333935E+0	2.248158E+0	2.209250E+0	2.272490E+0	2.262112E+0	2.219402E+0	2.249039E+0	2.275705E+0	2.292461E+0	2.250093E+0	2.253818E+0	2.256403E+0	2.186998E+0	2.270733E+0	2.234529E+0	2.222676E+0	2.284614E+0	2.251280E+0	2.240895E+0	2.285355E+0	2.151225E+0	2.208478E+0	2.163108E+0	2.157152E+0	2.224622E+0	2.200107E+0	2.237491E+0	2.195064E+0	2.218164E+0	2.256988E+0	2.238631E+0	2.152927E+0	2.294328E+0	2.201999E+0	2.209709E+0	2.240060E+0	2.328965E+0	2.247548E+0	2.234429E+0	2.195141E+0	2.260485E+0	2.377707E+0	2.211336E+0	2.169758E+0	2.274204E+0	2.374347E+0	2.120409E+0
5.358080E+2	2.604611E+0	2.400201E+0	2.413000E+0	2.372602E+0	2.453926E+0	2.358333E+0	2.417706E+0	2.390475E+0	2.466718E+0	2.409105E+0	2.471475E+0	2.490781E+0	2.396487E+0	2.399445E+0	2.302157E+0	2.384886E+0	2.399891E+0	2.409987E+0	2.477106E+0	2.350456E+0	2.429761E+0	2.469455E+0	2.422516E+0	2.386675E+0	2.466332E+0	2.327782E+0	2.350021E+0	2.317700E+0	2.258269E+0	2.388376E+0	2.340268E+0	2.372047E+0	2.338845E+0	2.325378E+0	2.392485E+0	2.433572E+0	2.384842E+0	2.224682E+0	2.370987E+0	2.384151E+0	2.453116E+0	2.403298E+0	2.389680E+0	2.462281E+0	2.316341E+0	2.386171E+0	2.433641E+0	2.414436E+0	2.394185E+0	2.287282E+0	2.458234E+0	2.331046E+0	2.469429E+0	2.419336E+0	2.445997E+0	2.358270E+0	2.460306E+0	2.374228E+0	2.345359E+0	2.379864E+0	2.373596E+0	2.305197E+0	2.339160E+0	2.271413E+0	2.400521E+0	2.432603E+0	2.299948E+0	2.389339E+0	2.382693E+0	2.417337E+0	2.326627E+0	2.344519E+0	2.429926E+0	2.419259E+0	2.331448E+0	2.314051E+0	2.363481E+0	2.333830E+0	2.363573E+0	2.282318E+0	2.404266E+0	2.460286E+0	2.252450E+0	2.340949E+0	2.294194E+0	2.400290E+0	2.335936E+0	2.305706E+0	2.447059E+0	2.429608E+0	2.274302E+0	2.389868E+0	2.290886E+0	2.370763E+0	2.251637E+0	2.284775E+0	2.388932E+0	2.352149E+0	2.255069E+0	2.294071E+0	2.326009E+0	2.372054E+0	2.397764E+0	2.369367E+0	2.299756E+0	2.374460E+0	2.367330E+0	2.315412E+0	2.335706E+0	2.240525E+0	2.290133E+0	2.337281E+0	2.308774E+0	2.341623E+0	2.363818E+0	2.309000E+0	2.364304E+0	2.216542E+0	2.283309E+0	2.350486E+0	2.388761E+0	2.382386E+0	2.309110E+0	2.264753E+0	2.318964E+0	2.398233E+0	2.360871E+0	2.247252E+0	2.436261E+0	2.345541E+0	2.315052E+0	2.285946E+0	2.399360E+0	2.385067E+0	2.341558E+0	2.250343E+0	2.401535E+0	2.445255E+0	2.402187E+0	2.399588E+0	2.387248E+0	2.323009E+0	2.293076E+0	2.231911E+0	2.424628E+0	2.322733E+0	2.252216E+0	2.389175E+0	2.373058E+0	2.349045E+0	2.280452E+0	2.261134E+0	2.279295E+0	2.300756E+0	2.254016E+0	2.414560E+0	2.240676E+0	2.273059E+0	2.304358E+0	2.346348E+0	2.302639E+0	2.281587E+0	2.265314E+0	2.257399E+0	2.333571E+0	2.314255E+0	2.349040E+0	2.284309E+0	2.352785E+0	2.245677E+0
5.360070E+2	2.360672E+0	2.245731E+0	2.144444E+0	2.240148E+0	2.203382E+0	2.247204E+0	2.121227E+0	2.253942E+0	2.152272E+0	2.188894E+0	2.225141E+0	2.224002E+0	2.173244E+0	2.198451E+0	2.114408E+0	2.150501E+0	2.176086E+0	2.262162E+0	2.145247E+0	2.182735E+0	2.228168E+0	2.226459E+0	2.241023E+0	2.206930E+0	2.215164E+0	2.127304E+0	2.139797E+0	2.214878E+0	2.226006E+0	2.162932E+0	2.205577E+0	2.168968E+0	2.253666E+0	2.041197E+0	2.227463E+0	2.143003E+0	2.250353E+0	2.138566E+0	2.120377E+0	2.154312E+0	2.240490E+0	2.179847E+0	2.250828E+0	2.139526E+0	2.145650E+0	2.171894E+0	2.253073E+0	2.180099E+0	2.191059E+0	2.199001E+0	2.245553E+0	2.187629E+0	2.157152E+0	2.148415E+0	2.188984E+0	2.108824E+0	2.195646E+0	2.186822E+0	2.209271E+0	2.223570E+0	2.114068E+0	2.290132E+0	2.169651E+0	2.092991E+0	2.229925E+0	2.263233E+0	2.235296E+0	2.146147E+0	2.176406E+0	2.228503E+0	2.133383E+0	2.113147E+0	2.267328E+0	2.232087E+0	2.157890E+0	2.105985E+0	2.229340E+0	2.229185E+0	2.113961E+0	2.187923E+0	2.213123E+0	2.294452E+0	2.148083E+0	2.074301E+0	2.202015E+0	2.230238E+0	2.230548E+0	2.063587E+0	2.207523E+0	2.239047E+0	2.117640E+0	2.148314E+0	2.171433E+0	2.144006E+0	2.168985E+0	2.078830E+0	2.271489E+0	2.226189E+0	2.150336E+0	2.165950E+0	2.229664E+0	2.148957E+0	2.121883E+0	2.136460E+0	2.192221E+0	2.154098E+0	2.171521E+0	2.135825E+0	2.055401E+0	2.109570E+0	2.076723E+0	2.147080E+0	2.155758E+0	2.223460E+0	2.107763E+0	2.111218E+0	2.153761E+0	2.162459E+0	2.049192E+0	2.211582E+0	2.186672E+0	2.138819E+0	2.166345E+0	2.219986E+0	2.157633E+0	2.187618E+0	2.112749E+0	2.154913E+0	2.186086E+0	2.169984E+0	2.107426E+0	1.986557E+0	2.149141E+0	2.140458E+0	2.152732E+0	2.149811E+0	2.171313E+0	2.158314E+0	2.126641E+0	2.137076E+0	2.076728E+0	2.090794E+0	2.048378E+0	1.969303E+0	2.134368E+0	2.092055E+0	2.064375E+0	2.166982E+0	2.177594E+0	2.180367E+0	2.165565E+0	2.160297E+0	2.128288E+0	2.079641E+0	2.091230E+0	2.297122E+0	2.150404E+0	2.139368E+0	2.084691E+0	2.122321E+0	2.201214E+0	2.136878E+0	1.986566E+0	2.128319E+0	2.295462E+0	2.110362E+0	2.103692E+0	2.194502E+0	2.109117E+0	2.141910E+0
5.362110E+2	1.984572E+0	1.829483E+0	1.890231E+0	1.844681E+0	1.832522E+0	1.813707E+0	1.818328E+0	1.827217E+0	1.809424E+0	1.837149E+0	1.916041E+0	1.864559E+0	1.869470E+0	1.775374E+0	1.826814E+0	1.818699E+0	1.839309E+0	1.796923E+0	1.819150E+0	1.756409E+0	1.854877E+0	1.853777E+0	1.853646E+0	1.890415E+0	1.888146E+0	1.846520E+0	1.827851E+0	1.867259E+0	1.742383E+0	1.826461E+0	1.756831E+0	1.781471E+0	1.820060E+0	1.801992E+0	1.890156E+0	1.767678E+0	1.849518E+0	1.749624E+0	1.802008E+0	1.769669E+0	1.836949E+0	1.764711E+0	1.871988E+0	1.828182E+0	1.798656E+0	1.741485E+0	1.860397E+0	1.810734E+0	1.818585E+0	1.745334E+0	1.871665E+0	1.775175E+0	1.822385E+0	1.838521E+0	1.832548E+0	1.765966E+0	1.812548E+0	1.783855E+0	1.881145E+0	1.917577E+0	1.777698E+0	1.804073E+0	1.822063E+0	1.734889E+0	1.916863E+0	1.836546E+0	1.796119E+0	1.741581E+0	1.812163E+0	1.828233E+0	1.777138E+0	1.727870E+0	1.862126E+0	1.938298E+0	1.788844E+0	1.802893E+0	1.826901E+0	1.907428E+0	1.814601E+0	1.734335E+0	1.850934E+0	1.844009E+0	1.807475E+0	1.762631E+0	1.823695E+0	1.799287E+0	1.773001E+0	1.711518E+0	1.828011E+0	1.820228E+0	1.799563E+0	1.739616E+0	1.767520E+0	1.829243E+0	1.702166E+0	1.775266E+0	1.829127E+0	1.757258E+0	1.695880E+0	1.728909E+0	1.842785E+0	1.744408E+0	1.825765E+0	1.789419E+0	1.818236E+0	1.753490E+0	1.762994E+0	1.777225E+0	1.842667E+0	1.738177E+0	1.811760E+0	1.779431E+0	1.870020E+0	1.827803E+0	1.783094E+0	1.778247E+0	1.832746E+0	1.788252E+0	1.748198E+0	1.764434E+0	1.814186E+0	1.720380E+0	1.821821E+0	1.799239E+0	1.852471E+0	1.793694E+0	1.781722E+0	1.760895E+0	1.855743E+0	1.803761E+0	1.800380E+0	1.733457E+0	1.820001E+0	1.741677E+0	1.811309E+0	1.814262E+0	1.864276E+0	1.786049E+0	1.868200E+0	1.813736E+0	1.779563E+0	1.806048E+0	1.745860E+0	1.751222E+0	1.804447E+0	1.768161E+0	1.669144E+0	1.802822E+0	1.717603E+0	1.786007E+0	1.777694E+0	1.695811E+0	1.727900E+0	1.745878E+0	1.789052E+0	1.833633E+0	1.758304E+0	1.828109E+0	1.715866E+0	1.803522E+0	1.821970E+0	1.749422E+0	1.679816E+0	1.816657E+0	1.852792E+0	1.735854E+0	1.758346E+0	1.784099E+0	1.868603E+0	1.832440E+0
5.364150E+2	1.690824E+0	1.662781E+0	1.793837E+0	1.668985E+0	1.754122E+0	1.678713E+0	1.746081E+0	1.693214E+0	1.806290E+0	1.662228E+0	1.730510E+0	1.775706E+0	1.667851E+0	1.729824E+0	1.730130E+0	1.700137E+0	1.724410E+0	1.780717E+0	1.735110E+0	1.740840E+0	1.700507E+0	1.753928E+0	1.734922E+0	1.719841E+0	1.789623E+0	1.733991E+0	1.701016E+0	1.771704E+0	1.729653E+0	1.774911E+0	1.801519E+0	1.713870E+0	1.716117E+0	1.659354E+0	1.685363E+0	1.781458E+0	1.767422E+0	1.716662E+0	1.663015E+0	1.733550E+0	1.730051E+0	1.697409E+0	1.719257E+0	1.697305E+0	1.725231E+0	1.693787E+0	1.730824E+0	1.707318E+0	1.757699E+0	1.695196E+0	1.804024E+0	1.682713E+0	1.720505E+0	1.694774E+0	1.708047E+0	1.670629E+0	1.756535E+0	1.698986E+0	1.729688E+0	1.637848E+0	1.728883E+0	1.677801E+0	1.712955E+0	1.657296E+0	1.762752E+0	1.765445E+0	1.690881E+0	1.639115E+0	1.688637E+0	1.735238E+0	1.643774E+0	1.611176E+0	1.785202E+0	1.731606E+0	1.667594E+0	1.665700E+0	1.740721E+0	1.777367E+0	1.741937E+0	1.666230E+0	1.747225E+0	1.779575E+0	1.667685E+0	1.700885E+0	1.768720E+0	1.710002E+0	1.694279E+0	1.613856E+0	1.747626E+0	1.708141E+0	1.713469E+0	1.728687E+0	1.703111E+0	1.756329E+0	1.718792E+0	1.726536E+0	1.758886E+0	1.717673E+0	1.597244E+0	1.688251E+0	1.709388E+0	1.760726E+0	1.725425E+0	1.708279E+0	1.739013E+0	1.703824E+0	1.688761E+0	1.737853E+0	1.701442E+0	1.613205E+0	1.749629E+0	1.690748E+0	1.750481E+0	1.738348E+0	1.746034E+0	1.787960E+0	1.730368E+0	1.677857E+0	1.706687E+0	1.685959E+0	1.811802E+0	1.713444E+0	1.671177E+0	1.642319E+0	1.758124E+0	1.732434E+0	1.722453E+0	1.680062E+0	1.684140E+0	1.674636E+0	1.722106E+0	1.727092E+0	1.699185E+0	1.793712E+0	1.663698E+0	1.684319E+0	1.812537E+0	1.728701E+0	1.715288E+0	1.647493E+0	1.707308E+0	1.662706E+0	1.682563E+0	1.626795E+0	1.726338E+0	1.709101E+0	1.603423E+0	1.684238E+0	1.764809E+0	1.752656E+0	1.703500E+0	1.714852E+0	1.732689E+0	1.705162E+0	1.653868E+0	1.713973E+0	1.699427E+0	1.682940E+0	1.662860E+0	1.688100E+0	1.718704E+0	1.658284E+0	1.630411E+0	1.654443E+0	1.722607E+0	1.645483E+0	1.680146E+0	1.728777E+0	1.794454E+0	1.671667E+0
5.366240E+2	1.555165E+0	1.379585E+0	1.437919E+0	1.451411E+0	1.402718E+0	1.378078E+0	1.506482E+0	1.426210E+0	1.442940E+0	1.384236E+0	1.411795E+0	1.487217E+0	1.456220E+0	1.390590E+0	1.547155E+0	1.399217E+0	1.395089E+0	1.475274E+0	1.384449E+0	1.355246E+0	1.438708E+0	1.427226E+0	1.450878E+0	1.467736E+0	1.464650E+0	1.460715E+0	1.439147E+0	1.406263E+0	1.322435E+0	1.395985E+0	1.398797E+0	1.487489E+0	1.403802E+0	1.388127E+0	1.490103E+0	1.429483E+0	1.443350E+0	1.440757E+0	1.409784E+0	1.419761E+0	1.398328E+0	1.413770E+0	1.464740E+0	1.453137E+0	1.365617E+0	1.421811E+0	1.443753E+0	1.524615E+0	1.489891E+0	1.370487E+0	1.418255E+0	1.463235E+0	1.468448E+0	1.439835E+0	1.502396E+0	1.369009E+0	1.474844E+0	1.398994E+0	1.489877E+0	1.506655E+0	1.533507E+0	1.417758E+0	1.400018E+0	1.412189E+0	1.462394E+0	1.498003E+0	1.435712E+0	1.398585E+0	1.412148E+0	1.492153E+0	1.388316E+0	1.359392E+0	1.551217E+0	1.432209E+0	1.473856E+0	1.363584E+0	1.433944E+0	1.487286E+0	1.458054E+0	1.437669E+0	1.484858E+0	1.406700E+0	1.354095E+0	1.408285E+0	1.365765E+0	1.438382E+0	1.445406E+0	1.383575E+0	1.438273E+0	1.486222E+0	1.354210E+0	1.418291E+0	1.448669E+0	1.426932E+0	1.440633E+0	1.379734E+0	1.479625E+0	1.395691E+0	1.443557E+0	1.401140E+0	1.429085E+0	1.473738E+0	1.456838E+0	1.375571E+0	1.450553E+0	1.412120E+0	1.449408E+0	1.399172E+0	1.403234E+0	1.350460E+0	1.369124E+0	1.361956E+0	1.345895E+0	1.457510E+0	1.488633E+0	1.431680E+0	1.486627E+0	1.409282E+0	1.384093E+0	1.442232E+0	1.485722E+0	1.368307E+0	1.424532E+0	1.411696E+0	1.502182E+0	1.440517E+0	1.385974E+0	1.405544E+0	1.475355E+0	1.436048E+0	1.410527E+0	1.366646E+0	1.437135E+0	1.407869E+0	1.390054E+0	1.393445E+0	1.418823E+0	1.407561E+0	1.399851E+0	1.444453E+0	1.452975E+0	1.423658E+0	1.379153E+0	1.407822E+0	1.436072E+0	1.435953E+0	1.374220E+0	1.444964E+0	1.427782E+0	1.435991E+0	1.455833E+0	1.500136E+0	1.431016E+0	1.454920E+0	1.386900E+0	1.387439E+0	1.401428E+0	1.444914E+0	1.429906E+0	1.322036E+0	1.448119E+0	1.371453E+0	1.344119E+0	1.355932E+0	1.454252E+0	1.400115E+0	1.342246E+0	1.458114E+0	1.418281E+0	1.474274E+0
5.368340E+2	1.519708E+0	1.360175E+0	1.370777E+0	1.416200E+0	1.403799E+0	1.378186E+0	1.403336E+0	1.398235E+0	1.407457E+0	1.373235E+0	1.460104E+0	1.520567E+0	1.348103E+0	1.414994E+0	1.411504E+0	1.411374E+0	1.376868E+0	1.388136E+0	1.388547E+0	1.397810E+0	1.355523E+0	1.460515E+0	1.447170E+0	1.419513E+0	1.427877E+0	1.485660E+0	1.380711E+0	1.444642E+0	1.388730E+0	1.380332E+0	1.371461E+0	1.404973E+0	1.489445E+0	1.488359E+0	1.476282E+0	1.358636E+0	1.384089E+0	1.416575E+0	1.393249E+0	1.407773E+0	1.402273E+0	1.392876E+0	1.413965E+0	1.390004E+0	1.389548E+0	1.405567E+0	1.395798E+0	1.380836E+0	1.434569E+0	1.407968E+0	1.376710E+0	1.401056E+0	1.437602E+0	1.433589E+0	1.407952E+0	1.446790E+0	1.410707E+0	1.409842E+0	1.457184E+0	1.446544E+0	1.387671E+0	1.463338E+0	1.398812E+0	1.382843E+0	1.463726E+0	1.523061E+0	1.305073E+0	1.351612E+0	1.335580E+0	1.389509E+0	1.418347E+0	1.362978E+0	1.464173E+0	1.412251E+0	1.368777E+0	1.381665E+0	1.473881E+0	1.454594E+0	1.387442E+0	1.395232E+0	1.435974E+0	1.384599E+0	1.371961E+0	1.354314E+0	1.375382E+0	1.444176E+0	1.441690E+0	1.432433E+0	1.450102E+0	1.459843E+0	1.354417E+0	1.351721E+0	1.391496E+0	1.385079E+0	1.351020E+0	1.405033E+0	1.463695E+0	1.394323E+0	1.352210E+0	1.402108E+0	1.381426E+0	1.391216E+0	1.405029E+0	1.400698E+0	1.433221E+0	1.401448E+0	1.353565E+0	1.403578E+0	1.448559E+0	1.396570E+0	1.402196E+0	1.416378E+0	1.411427E+0	1.377997E+0	1.390425E+0	1.356416E+0	1.477104E+0	1.432837E+0	1.386427E+0	1.462221E+0	1.430902E+0	1.395757E+0	1.352295E+0	1.439112E+0	1.417235E+0	1.451490E+0	1.380108E+0	1.378835E+0	1.396419E+0	1.430652E+0	1.390843E+0	1.295089E+0	1.399073E+0	1.433019E+0	1.389289E+0	1.428393E+0	1.419854E+0	1.394366E+0	1.388398E+0	1.416989E+0	1.418582E+0	1.395649E+0	1.390131E+0	1.390138E+0	1.397823E+0	1.429114E+0	1.377318E+0	1.360869E+0	1.395112E+0	1.456638E+0	1.363171E+0	1.409971E+0	1.456746E+0	1.339775E+0	1.341592E+0	1.463770E+0	1.393766E+0	1.409826E+0	1.374671E+0	1.360325E+0	1.464230E+0	1.400109E+0	1.322983E+0	1.357812E+0	1.471334E+0	1.410488E+0	1.380755E+0	1.475216E+0	1.347310E+0	1.337313E+0
5.370070E+2	1.425094E+0	1.310087E+0	1.357215E+0	1.353837E+0	1.355760E+0	1.357227E+0	1.328090E+0	1.351810E+0	1.319747E+0	1.369409E+0	1.364428E+0	1.423841E+0	1.353419E+0	1.366782E+0	1.343321E+0	1.338543E+0	1.389797E+0	1.369322E+0	1.351556E+0	1.294792E+0	1.392113E+0	1.448441E+0	1.401879E+0	1.383689E+0	1.359863E+0	1.384474E+0	1.445029E+0	1.384782E+0	1.367889E+0	1.427335E+0	1.405169E+0	1.377590E+0	1.311625E+0	1.352610E+0	1.400436E+0	1.345650E+0	1.358665E+0	1.343129E+0	1.354513E+0	1.351939E+0	1.402995E+0	1.363038E+0	1.415684E+0	1.437410E+0	1.386559E+0	1.396945E+0	1.395915E+0	1.346476E+0	1.412874E+0	1.330694E+0	1.384044E+0	1.383271E+0	1.418833E+0	1.421640E+0	1.398960E+0	1.415237E+0	1.458598E+0	1.367878E+0	1.368822E+0	1.380335E+0	1.341057E+0	1.366308E+0	1.366115E+0	1.377305E+0	1.377313E+0	1.494890E+0	1.336571E+0	1.356596E+0	1.352739E+0	1.346635E+0	1.345321E+0	1.315767E+0	1.421168E+0	1.411781E+0	1.366458E+0	1.299902E+0	1.380125E+0	1.359083E+0	1.356425E+0	1.359743E+0	1.391916E+0	1.368724E+0	1.327570E+0	1.331428E+0	1.364447E+0	1.477745E+0	1.331813E+0	1.370513E+0	1.450273E+0	1.376431E+0	1.350265E+0	1.350734E+0	1.370774E+0	1.323951E+0	1.342636E+0	1.320339E+0	1.411898E+0	1.365955E+0	1.342028E+0	1.341595E+0	1.378964E+0	1.371692E+0	1.375304E+0	1.335632E+0	1.390530E+0	1.346041E+0	1.356184E+0	1.427959E+0	1.350154E+0	1.295385E+0	1.335634E+0	1.324330E+0	1.367002E+0	1.438772E+0	1.353904E+0	1.327764E+0	1.448237E+0	1.387863E+0	1.389206E+0	1.327744E+0	1.387358E+0	1.318082E+0	1.392164E+0	1.346570E+0	1.376805E+0	1.410242E+0	1.338123E+0	1.327330E+0	1.419425E+0	1.364840E+0	1.297990E+0	1.352800E+0	1.354274E+0	1.349842E+0	1.388300E+0	1.274937E+0	1.309496E+0	1.340223E+0	1.389843E+0	1.304826E+0	1.351449E+0	1.322602E+0	1.362256E+0	1.365718E+0	1.380707E+0	1.313811E+0	1.298189E+0	1.384041E+0	1.331324E+0	1.448655E+0	1.320968E+0	1.343169E+0	1.389959E+0	1.365210E+0	1.361573E+0	1.488260E+0	1.360772E+0	1.314549E+0	1.311599E+0	1.333405E+0	1.383586E+0	1.398603E+0	1.323725E+0	1.329188E+0	1.441240E+0	1.369609E+0	1.326456E+0	1.356718E+0	1.417344E+0	1.278581E+0
5.372170E+2	1.300411E+0	1.239771E+0	1.236953E+0	1.262677E+0	1.202164E+0	1.220347E+0	1.257894E+0	1.163111E+0	1.227217E+0	1.226333E+0	1.253711E+0	1.331775E+0	1.191106E+0	1.254895E+0	1.211816E+0	1.267469E+0	1.320408E+0	1.258720E+0	1.245203E+0	1.215286E+0	1.258687E+0	1.292904E+0	1.243843E+0	1.292322E+0	1.300094E+0	1.324389E+0	1.248740E+0	1.214815E+0	1.237474E+0	1.285027E+0	1.233359E+0	1.248238E+0	1.246841E+0	1.264002E+0	1.287302E+0	1.183654E+0	1.280344E+0	1.201058E+0	1.206001E+0	1.262325E+0	1.242224E+0	1.242474E+0	1.217726E+0	1.283943E+0	1.251394E+0	1.222452E+0	1.240553E+0	1.243878E+0	1.276179E+0	1.204123E+0	1.243044E+0	1.230541E+0	1.256786E+0	1.284430E+0	1.295203E+0	1.292683E+0	1.274137E+0	1.262500E+0	1.285234E+0	1.275926E+0	1.248788E+0	1.275490E+0	1.223481E+0	1.213888E+0	1.321002E+0	1.336708E+0	1.243884E+0	1.184921E+0	1.197985E+0	1.283982E+0	1.193944E+0	1.249322E+0	1.246289E+0	1.266856E+0	1.328292E+0	1.252278E+0	1.284368E+0	1.288653E+0	1.248035E+0	1.204460E+0	1.248423E+0	1.202777E+0	1.240872E+0	1.214569E+0	1.278838E+0	1.233026E+0	1.235991E+0	1.165946E+0	1.284404E+0	1.253481E+0	1.278886E+0	1.246591E+0	1.261653E+0	1.283864E+0	1.224749E+0	1.253606E+0	1.257915E+0	1.250550E+0	1.191761E+0	1.229467E+0	1.228253E+0	1.220046E+0	1.204881E+0	1.230595E+0	1.311142E+0	1.257920E+0	1.221184E+0	1.187922E+0	1.247454E+0	1.250534E+0	1.235173E+0	1.211704E+0	1.281017E+0	1.212093E+0	1.251359E+0	1.206028E+0	1.271845E+0	1.260031E+0	1.248518E+0	1.273719E+0	1.256497E+0	1.253547E+0	1.269816E+0	1.164156E+0	1.236036E+0	1.237055E+0	1.243359E+0	1.275811E+0	1.230693E+0	1.289687E+0	1.265123E+0	1.239733E+0	1.282085E+0	1.279939E+0	1.269009E+0	1.211632E+0	1.247394E+0	1.262354E+0	1.247625E+0	1.183276E+0	1.245057E+0	1.282146E+0	1.236533E+0	1.179304E+0	1.203980E+0	1.294688E+0	1.171867E+0	1.250975E+0	1.231336E+0	1.286593E+0	1.262986E+0	1.215413E+0	1.241628E+0	1.180034E+0	1.235081E+0	1.295713E+0	1.251776E+0	1.299584E+0	1.205378E+0	1.272178E+0	1.281145E+0	1.238304E+0	1.180804E+0	1.190845E+0	1.368276E+0	1.277405E+0	1.250032E+0	1.257903E+0	1.437280E+0	1.326403E+0
5.374110E+2	1.546257E+0	1.401102E+0	1.454078E+0	1.471349E+0	1.447815E+0	1.549575E+0	1.461441E+0	1.423016E+0	1.524587E+0	1.534115E+0	1.581556E+0	1.496501E+0	1.469392E+0	1.472397E+0	1.454197E+0	1.478910E+0	1.470970E+0	1.401186E+0	1.437564E+0	1.426320E+0	1.488420E+0	1.569898E+0	1.512111E+0	1.492334E+0	1.493751E+0	1.521305E+0	1.460937E+0	1.480819E+0	1.443240E+0	1.542449E+0	1.460398E+0	1.487414E+0	1.504936E+0	1.502308E+0	1.486426E+0	1.511129E+0	1.484318E+0	1.477591E+0	1.482333E+0	1.437964E+0	1.486574E+0	1.534886E+0	1.510452E+0	1.550906E+0	1.512904E+0	1.500819E+0	1.492048E+0	1.508815E+0	1.503957E+0	1.508851E+0	1.469625E+0	1.518783E+0	1.494561E+0	1.479091E+0	1.509770E+0	1.508690E+0	1.550788E+0	1.565317E+0	1.484199E+0	1.521011E+0	1.487038E+0	1.485535E+0	1.550163E+0	1.408731E+0	1.522540E+0	1.521168E+0	1.535256E+0	1.471401E+0	1.443206E+0	1.573975E+0	1.477472E+0	1.417190E+0	1.473547E+0	1.481365E+0	1.514107E+0	1.476589E+0	1.474637E+0	1.474719E+0	1.489191E+0	1.454435E+0	1.464364E+0	1.478050E+0	1.488608E+0	1.499850E+0	1.456983E+0	1.627957E+0	1.433079E+0	1.493673E+0	1.519559E+0	1.543797E+0	1.464753E+0	1.464795E+0	1.470567E+0	1.469957E+0	1.433557E+0	1.390111E+0	1.515496E+0	1.479330E+0	1.463258E+0	1.481740E+0	1.468840E+0	1.518668E+0	1.540465E+0	1.440819E+0	1.472437E+0	1.513022E+0	1.511563E+0	1.531723E+0	1.432654E+0	1.464560E+0	1.505710E+0	1.465833E+0	1.506203E+0	1.501065E+0	1.530053E+0	1.490554E+0	1.526967E+0	1.455821E+0	1.478974E+0	1.466866E+0	1.557567E+0	1.536321E+0	1.505657E+0	1.482290E+0	1.464259E+0	1.470742E+0	1.482580E+0	1.507530E+0	1.504439E+0	1.447236E+0	1.531690E+0	1.410735E+0	1.456092E+0	1.478771E+0	1.469184E+0	1.453409E+0	1.559432E+0	1.551835E+0	1.448104E+0	1.498751E+0	1.495880E+0	1.476876E+0	1.465317E+0	1.427376E+0	1.522322E+0	1.530340E+0	1.451634E+0	1.527179E+0	1.513222E+0	1.465278E+0	1.510478E+0	1.485408E+0	1.481617E+0	1.445846E+0	1.374307E+0	1.487788E+0	1.468049E+0	1.457117E+0	1.459771E+0	1.493825E+0	1.481158E+0	1.449047E+0	1.383086E+0	1.448252E+0	1.490038E+0	1.460880E+0	1.448864E+0	1.528226E+0	1.610855E+0	1.659316E+0
5.376110E+2	1.522554E+0	1.535816E+0	1.437082E+0	1.495965E+0	1.506583E+0	1.521853E+0	1.569799E+0	1.553265E+0	1.488840E+0	1.553875E+0	1.541815E+0	1.592752E+0	1.529783E+0	1.534009E+0	1.472686E+0	1.509844E+0	1.418047E+0	1.519419E+0	1.461857E+0	1.439689E+0	1.503506E+0	1.527462E+0	1.503278E+0	1.555922E+0	1.496753E+0	1.620924E+0	1.465713E+0	1.535889E+0	1.458042E+0	1.483411E+0	1.500953E+0	1.525938E+0	1.470361E+0	1.531824E+0	1.479175E+0	1.498572E+0	1.542253E+0	1.575734E+0	1.519926E+0	1.463431E+0	1.508067E+0	1.519311E+0	1.578735E+0	1.590015E+0	1.503310E+0	1.537763E+0	1.560853E+0	1.515461E+0	1.544909E+0	1.479946E+0	1.545749E+0	1.504584E+0	1.478355E+0	1.564901E+0	1.572821E+0	1.490511E+0	1.551543E+0	1.454543E+0	1.497921E+0	1.546897E+0	1.482368E+0	1.478272E+0	1.472383E+0	1.492023E+0	1.517191E+0	1.590535E+0	1.490900E+0	1.513363E+0	1.523673E+0	1.478247E+0	1.465887E+0	1.478259E+0	1.469100E+0	1.577718E+0	1.560935E+0	1.412585E+0	1.554239E+0	1.531954E+0	1.512869E+0	1.439212E+0	1.474704E+0	1.529176E+0	1.509429E+0	1.475126E+0	1.474217E+0	1.558255E+0	1.496707E+0	1.469691E+0	1.478415E+0	1.525894E+0	1.437060E+0	1.477142E+0	1.468912E+0	1.596185E+0	1.515967E+0	1.410378E+0	1.515470E+0	1.499390E+0	1.461190E+0	1.475328E+0	1.490365E+0	1.528557E+0	1.528270E+0	1.497239E+0	1.542880E+0	1.474521E+0	1.491138E+0	1.465073E+0	1.488991E+0	1.440249E+0	1.501754E+0	1.483018E+0	1.490151E+0	1.473826E+0	1.508590E+0	1.490240E+0	1.478591E+0	1.408337E+0	1.455829E+0	1.505061E+0	1.441239E+0	1.513425E+0	1.499323E+0	1.513096E+0	1.510742E+0	1.536002E+0	1.504227E+0	1.473509E+0	1.567763E+0	1.504362E+0	1.498708E+0	1.495536E+0	1.498305E+0	1.511232E+0	1.480625E+0	1.492143E+0	1.516025E+0	1.486305E+0	1.464347E+0	1.499596E+0	1.459607E+0	1.494495E+0	1.448374E+0	1.435700E+0	1.515524E+0	1.539532E+0	1.423016E+0	1.492376E+0	1.468639E+0	1.522279E+0	1.496031E+0	1.398917E+0	1.560306E+0	1.472954E+0	1.493522E+0	1.509119E+0	1.449729E+0	1.422935E+0	1.471863E+0	1.464579E+0	1.546967E+0	1.509339E+0	1.418181E+0	1.456001E+0	1.477497E+0	1.448661E+0	1.498498E+0	1.441600E+0	1.468664E+0	1.403423E+0
5.378160E+2	2.026147E+0	1.879206E+0	1.855399E+0	1.930138E+0	1.968984E+0	1.877572E+0	1.975065E+0	1.925432E+0	1.821164E+0	1.941266E+0	1.967528E+0	2.049409E+0	1.886386E+0	1.951352E+0	1.937404E+0	1.911663E+0	1.876926E+0	1.975240E+0	1.974181E+0	1.900600E+0	2.005623E+0	2.014603E+0	1.966247E+0	1.958253E+0	1.923860E+0	1.919458E+0	1.907665E+0	1.940574E+0	1.912651E+0	1.971639E+0	1.957148E+0	1.883660E+0	1.932550E+0	1.894667E+0	1.921259E+0	1.909555E+0	1.931651E+0	1.846368E+0	1.878899E+0	1.909250E+0	1.938203E+0	1.881682E+0	1.955938E+0	1.973944E+0	1.924342E+0	1.824944E+0	1.977895E+0	1.904149E+0	1.886519E+0	1.915382E+0	1.877886E+0	1.921892E+0	1.869768E+0	1.994382E+0	1.937509E+0	1.891088E+0	1.923974E+0	1.897254E+0	1.997772E+0	1.949127E+0	1.949357E+0	1.906779E+0	1.911350E+0	1.851402E+0	1.835361E+0	1.979980E+0	1.957074E+0	1.829701E+0	1.858249E+0	1.959606E+0	1.811925E+0	1.870148E+0	1.818263E+0	1.930930E+0	1.980266E+0	1.918235E+0	1.923312E+0	1.942793E+0	1.913243E+0	1.861426E+0	1.873891E+0	1.977706E+0	1.879615E+0	1.791144E+0	1.902935E+0	1.964722E+0	1.893286E+0	1.942045E+0	1.939485E+0	1.964877E+0	1.865511E+0	1.968584E+0	1.835015E+0	1.988254E+0	1.869362E+0	1.788360E+0	1.950109E+0	1.920592E+0	1.894257E+0	1.919840E+0	1.853834E+0	1.968924E+0	1.963652E+0	1.902354E+0	1.930466E+0	1.924697E+0	1.800790E+0	1.862574E+0	1.877780E+0	1.823160E+0	1.893753E+0	1.884745E+0	1.907299E+0	1.956805E+0	1.880407E+0	1.915061E+0	1.894883E+0	1.897276E+0	1.889965E+0	1.893831E+0	1.854902E+0	1.935182E+0	1.867578E+0	1.913796E+0	1.895286E+0	1.940604E+0	1.862779E+0	1.899790E+0	1.897883E+0	1.923731E+0	1.853184E+0	1.825299E+0	1.908464E+0	1.896030E+0	1.893587E+0	1.873312E+0	1.818923E+0	1.975379E+0	1.883442E+0	1.945755E+0	1.881150E+0	1.907660E+0	1.923222E+0	1.842472E+0	1.876241E+0	1.883333E+0	1.885521E+0	1.922022E+0	1.833447E+0	1.952122E+0	1.814341E+0	1.823821E+0	1.858644E+0	1.901986E+0	1.849130E+0	1.977035E+0	1.883571E+0	1.881703E+0	1.849063E+0	1.953163E+0	1.998413E+0	1.917312E+0	1.811874E+0	1.845683E+0	1.920390E+0	1.872768E+0	1.814244E+0	1.862222E+0	1.933586E+0	1.857982E+0
5.380160E+2	2.232667E+0	2.070450E+0	2.005377E+0	2.065234E+0	2.000697E+0	1.974537E+0	2.027077E+0	1.959572E+0	2.054711E+0	2.034205E+0	2.039104E+0	2.063820E+0	2.055014E+0	2.082664E+0	2.046203E+0	2.085789E+0	2.059271E+0	2.068678E+0	2.057510E+0	2.053474E+0	2.075554E+0	2.064271E+0	2.003798E+0	2.114248E+0	2.079628E+0	2.093123E+0	2.014186E+0	2.066522E+0	1.939403E+0	2.055527E+0	2.004700E+0	2.147951E+0	2.005173E+0	2.094554E+0	2.088596E+0	1.964794E+0	2.060459E+0	1.963380E+0	2.004595E+0	1.984071E+0	2.046207E+0	2.089195E+0	2.055222E+0	2.040831E+0	1.996986E+0	2.014049E+0	2.020524E+0	2.016117E+0	2.021908E+0	1.980052E+0	1.998951E+0	2.040720E+0	2.057531E+0	2.039486E+0	2.019231E+0	2.048274E+0	2.047398E+0	2.035948E+0	2.032146E+0	2.008252E+0	2.036046E+0	2.007045E+0	1.992205E+0	1.974146E+0	2.079740E+0	2.014198E+0	2.051846E+0	1.907118E+0	2.075819E+0	2.040571E+0	1.955604E+0	1.955852E+0	2.029946E+0	2.106261E+0	2.043106E+0	2.050270E+0	1.960051E+0	1.988550E+0	1.983846E+0	2.042085E+0	2.087246E+0	2.023789E+0	1.982234E+0	1.990740E+0	2.015232E+0	2.047765E+0	2.079207E+0	1.934548E+0	2.030040E+0	2.020416E+0	1.933865E+0	2.008899E+0	2.041088E+0	1.989305E+0	1.997504E+0	1.969505E+0	2.022847E+0	1.973323E+0	2.006931E+0	2.017496E+0	2.026830E+0	2.018003E+0	2.035093E+0	1.972044E+0	1.989999E+0	2.076548E+0	2.006931E+0	2.034571E+0	1.957045E+0	1.917945E+0	2.072587E+0	2.028880E+0	1.955923E+0	1.970228E+0	2.047943E+0	2.006385E+0	2.029743E+0	2.007341E+0	2.033654E+0	2.066415E+0	2.049624E+0	2.051146E+0	1.972177E+0	2.035272E+0	2.078160E+0	2.124772E+0	2.054107E+0	2.110795E+0	2.059522E+0	2.005768E+0	2.023336E+0	2.011510E+0	1.938729E+0	2.047398E+0	2.017337E+0	2.019971E+0	2.021368E+0	2.110528E+0	2.016991E+0	2.020153E+0	2.018414E+0	1.981040E+0	2.001402E+0	1.935874E+0	2.004705E+0	2.014341E+0	1.964844E+0	2.030025E+0	2.008195E+0	2.064332E+0	2.045436E+0	1.914059E+0	1.966573E+0	1.978519E+0	1.917609E+0	2.014630E+0	1.958370E+0	1.956009E+0	2.041013E+0	1.967188E+0	2.054711E+0	1.976037E+0	1.901241E+0	1.926697E+0	2.027629E+0	2.025872E+0	1.905891E+0	2.069032E+0	2.027656E+0	1.989535E+0
5.382210E+2	2.041455E+0	2.070965E+0	2.044718E+0	2.131352E+0	2.064134E+0	2.046513E+0	1.997908E+0	2.008825E+0	2.057800E+0	2.068936E+0	2.107423E+0	2.070905E+0	1.997818E+0	2.023978E+0	2.038874E+0	2.057474E+0	2.030326E+0	2.104098E+0	2.076403E+0	2.118257E+0	2.089127E+0	2.075450E+0	2.057673E+0	2.056232E+0	2.030601E+0	2.014670E+0	2.004875E+0	2.002252E+0	1.971836E+0	1.957900E+0	1.998173E+0	1.992096E+0	1.959627E+0	2.014217E+0	1.990551E+0	1.963884E+0	2.035569E+0	1.953419E+0	2.035765E+0	1.979601E+0	2.011146E+0	2.082183E+0	2.048514E+0	2.053664E+0	2.008938E+0	1.888840E+0	2.058381E+0	2.025069E+0	2.032141E+0	1.946255E+0	2.047051E+0	1.965783E+0	1.990557E+0	2.028280E+0	2.157281E+0	1.970389E+0	2.061284E+0	2.066956E+0	2.057581E+0	2.001593E+0	2.053438E+0	1.982721E+0	2.044368E+0	1.964294E+0	2.039978E+0	2.039812E+0	2.032295E+0	1.955713E+0	2.003219E+0	2.132314E+0	1.961758E+0	1.989944E+0	2.063312E+0	2.112218E+0	1.993944E+0	1.905182E+0	1.943285E+0	2.010570E+0	1.970187E+0	1.955656E+0	2.004839E+0	2.000550E+0	1.949428E+0	1.922786E+0	1.935451E+0	2.047173E+0	1.983067E+0	1.909141E+0	2.091649E+0	2.103834E+0	1.928482E+0	1.985222E+0	2.002762E+0	2.001852E+0	1.943665E+0	1.936867E+0	2.104652E+0	2.085266E+0	1.943515E+0	1.970594E+0	2.058825E+0	1.950838E+0	1.899266E+0	1.949102E+0	2.042138E+0	1.986771E+0	2.051039E+0	1.992626E+0	1.913246E+0	1.930366E+0	1.998875E+0	1.998515E+0	1.964825E+0	2.044572E+0	2.038371E+0	1.985665E+0	1.993987E+0	1.950753E+0	2.020288E+0	2.059896E+0	1.981018E+0	2.015148E+0	2.041255E+0	2.070948E+0	2.002052E+0	2.032209E+0	1.992572E+0	1.979506E+0	2.081139E+0	2.063257E+0	1.933884E+0	1.953818E+0	1.990912E+0	2.017570E+0	1.936111E+0	2.054131E+0	1.916267E+0	1.965613E+0	1.999265E+0	1.971089E+0	1.972076E+0	1.963014E+0	1.995617E+0	1.929336E+0	2.004808E+0	1.958533E+0	1.904107E+0	1.903852E+0	1.988795E+0	2.040896E+0	1.995554E+0	1.931097E+0	1.954713E+0	2.035699E+0	1.901738E+0	1.997347E+0	1.927005E+0	1.980025E+0	1.922644E+0	2.029076E+0	2.007233E+0	1.954202E+0	1.879437E+0	1.904954E+0	1.995327E+0	1.958975E+0	2.000528E+0	2.109960E+0	1.883337E+0	1.888599E+0
5.384110E+2	2.177632E+0	2.041593E+0	2.207154E+0	2.250184E+0	2.103555E+0	2.159765E+0	2.176243E+0	2.175992E+0	2.103210E+0	2.085905E+0	2.223227E+0	2.241972E+0	2.095473E+0	2.210286E+0	2.162640E+0	2.108194E+0	2.224962E+0	2.245766E+0	2.123439E+0	2.121766E+0	2.188622E+0	2.137959E+0	2.196894E+0	2.199484E+0	2.098700E+0	2.160894E+0	2.092272E+0	2.125466E+0	2.053558E+0	2.149250E+0	2.056229E+0	2.073284E+0	2.091829E+0	2.115434E+0	2.094258E+0	2.059316E+0	2.099879E+0	2.140367E+0	2.160678E+0	2.061637E+0	2.095259E+0	2.110946E+0	2.182298E+0	2.155114E+0	2.066880E+0	2.142596E+0	2.135378E+0	2.118147E+0	2.152557E+0	2.082687E+0	2.160177E+0	2.060702E+0	2.088272E+0	2.165026E+0	2.219124E+0	2.138836E+0	2.174072E+0	2.157858E+0	2.085686E+0	2.127723E+0	2.066037E+0	2.109371E+0	2.133873E+0	2.065095E+0	2.210083E+0	2.196740E+0	2.079417E+0	2.088274E+0	2.122130E+0	2.118305E+0	2.077448E+0	2.155283E+0	2.146563E+0	2.260378E+0	2.162198E+0	2.071120E+0	2.161753E+0	2.091576E+0	2.120726E+0	2.076616E+0	2.203799E+0	2.095126E+0	2.033834E+0	2.071927E+0	2.105934E+0	2.132749E+0	2.100346E+0	2.022637E+0	2.081313E+0	2.211157E+0	2.076690E+0	2.011731E+0	2.129141E+0	2.158885E+0	2.102336E+0	2.075365E+0	2.124960E+0	2.092990E+0	2.003596E+0	2.195864E+0	2.069540E+0	2.093679E+0	2.101885E+0	2.017292E+0	2.065216E+0	2.178308E+0	2.144612E+0	2.062872E+0	2.067224E+0	2.016511E+0	2.101226E+0	2.072288E+0	2.082391E+0	2.091039E+0	2.153873E+0	2.033931E+0	2.103686E+0	2.088229E+0	2.125501E+0	2.096497E+0	2.026144E+0	2.134202E+0	2.085806E+0	2.144430E+0	2.144791E+0	2.161068E+0	2.120770E+0	2.078089E+0	2.170841E+0	2.076087E+0	2.107341E+0	2.071553E+0	2.089988E+0	2.164177E+0	2.078398E+0	2.169017E+0	2.047091E+0	2.162323E+0	2.040494E+0	2.138468E+0	2.097102E+0	2.018236E+0	2.015219E+0	2.080193E+0	2.034515E+0	2.110735E+0	2.083197E+0	2.032293E+0	2.039161E+0	2.106300E+0	2.082010E+0	2.059979E+0	2.112057E+0	2.041815E+0	2.012130E+0	2.127902E+0	2.058503E+0	2.083388E+0	2.105167E+0	2.116114E+0	2.087958E+0	2.047240E+0	2.052079E+0	2.070661E+0	2.080100E+0	2.069922E+0	2.078566E+0	2.046493E+0	2.127165E+0	1.881105E+0
5.386060E+2	1.881138E+0	1.878848E+0	1.878234E+0	1.949413E+0	1.908646E+0	1.928343E+0	1.874599E+0	1.876506E+0	1.854747E+0	1.931802E+0	1.962525E+0	1.941029E+0	1.835757E+0	1.835516E+0	1.918016E+0	1.870158E+0	1.903582E+0	1.912813E+0	1.890615E+0	1.894736E+0	1.908817E+0	1.925072E+0	1.875097E+0	1.861548E+0	1.962063E+0	1.939479E+0	1.910704E+0	1.877876E+0	1.804808E+0	1.846099E+0	1.876194E+0	1.894718E+0	1.895267E+0	1.873015E+0	1.891501E+0	1.833131E+0	1.892367E+0	1.857545E+0	1.882396E+0	1.886312E+0	1.899361E+0	1.948239E+0	1.933869E+0	1.910601E+0	1.862996E+0	1.841307E+0	1.945098E+0	1.922446E+0	1.958399E+0	1.835976E+0	1.941417E+0	1.876623E+0	1.842839E+0	1.869701E+0	1.926970E+0	1.859796E+0	1.878702E+0	1.965987E+0	1.906313E+0	1.853329E+0	1.876015E+0	1.833896E+0	1.813930E+0	1.882743E+0	1.860214E+0	2.050924E+0	1.783889E+0	1.856647E+0	1.859340E+0	1.899374E+0	1.803653E+0	1.788183E+0	1.865907E+0	1.930683E+0	1.892154E+0	1.870902E+0	1.825515E+0	1.883678E+0	1.846505E+0	1.869255E+0	1.923476E+0	1.949225E+0	1.872321E+0	1.836951E+0	1.814855E+0	1.881924E+0	1.881809E+0	1.784248E+0	1.829840E+0	1.934345E+0	1.912176E+0	1.930989E+0	1.881808E+0	1.851644E+0	1.822121E+0	1.846740E+0	1.841453E+0	1.872833E+0	1.805652E+0	1.834004E+0	1.834019E+0	1.899637E+0	1.872576E+0	1.818277E+0	1.866216E+0	1.856226E+0	1.845013E+0	1.858133E+0	1.856668E+0	1.853950E+0	1.848933E+0	1.907021E+0	1.844642E+0	1.919498E+0	1.868402E+0	1.858339E+0	1.859515E+0	1.848901E+0	1.910757E+0	1.869672E+0	1.825781E+0	1.837454E+0	1.874926E+0	1.903095E+0	1.892564E+0	1.908383E+0	1.869706E+0	1.906949E+0	1.842116E+0	1.872636E+0	1.926610E+0	1.882805E+0	1.859713E+0	1.819676E+0	1.814936E+0	1.847153E+0	1.824540E+0	1.832831E+0	1.849690E+0	1.870207E+0	1.920426E+0	1.876552E+0	1.832021E+0	1.870922E+0	1.841633E+0	1.906099E+0	1.790401E+0	1.798765E+0	1.913774E+0	1.867186E+0	1.824496E+0	1.832571E+0	1.891923E+0	1.855130E+0	1.834543E+0	1.942297E+0	1.815573E+0	1.887118E+0	1.796271E+0	1.786513E+0	1.849507E+0	1.886703E+0	1.756356E+0	1.853255E+0	1.900341E+0	1.715220E+0	1.780035E+0	1.935141E+0	1.829621E+0	1.919115E+0
5.388440E+2	1.980965E+0	1.879137E+0	1.907165E+0	1.871817E+0	1.894984E+0	1.853708E+0	1.859319E+0	1.886756E+0	1.868437E+0	1.854127E+0	1.924099E+0	1.933345E+0	1.974209E+0	1.896459E+0	1.835997E+0	1.814402E+0	1.885641E+0	1.965354E+0	1.892042E+0	1.830634E+0	1.854121E+0	1.920103E+0	1.930328E+0	1.851253E+0	1.900764E+0	1.878338E+0	1.918752E+0	1.809980E+0	1.786291E+0	1.811094E+0	1.826690E+0	1.903705E+0	1.870007E+0	1.863676E+0	1.869950E+0	1.772490E+0	1.830262E+0	1.799260E+0	1.852017E+0	1.845324E+0	1.899310E+0	1.865706E+0	1.836748E+0	1.829084E+0	1.778083E+0	1.830248E+0	1.924184E+0	1.911316E+0	1.960827E+0	1.826520E+0	1.880018E+0	1.867173E+0	1.865660E+0	1.866853E+0	1.944475E+0	1.859847E+0	1.885470E+0	1.845028E+0	1.861960E+0	1.864708E+0	1.904184E+0	1.889454E+0	1.794515E+0	1.775950E+0	1.932022E+0	1.938212E+0	1.881412E+0	1.792755E+0	1.791919E+0	1.863412E+0	1.832524E+0	1.769558E+0	1.875296E+0	1.908238E+0	1.926899E+0	1.837384E+0	1.821862E+0	1.863978E+0	1.860816E+0	1.746220E+0	1.910102E+0	1.889276E+0	1.811194E+0	1.793846E+0	1.858929E+0	1.871689E+0	1.892068E+0	1.762553E+0	1.865491E+0	1.881924E+0	1.827122E+0	1.799176E+0	1.815205E+0	1.810887E+0	1.830293E+0	1.792625E+0	1.829355E+0	1.851747E+0	1.759201E+0	1.832149E+0	1.777492E+0	1.852600E+0	1.846825E+0	1.782977E+0	1.839272E+0	1.827889E+0	1.815542E+0	1.755541E+0	1.796992E+0	1.835858E+0	1.804574E+0	1.844069E+0	1.783094E+0	1.879298E+0	1.874343E+0	1.803853E+0	1.820309E+0	1.855650E+0	1.763580E+0	1.874966E+0	1.782070E+0	1.923379E+0	1.800168E+0	1.805095E+0	1.838031E+0	1.870794E+0	1.821975E+0	1.822333E+0	1.882475E+0	1.782378E+0	1.802978E+0	1.830999E+0	1.886884E+0	1.874229E+0	1.837599E+0	1.889645E+0	1.839573E+0	1.807079E+0	1.752116E+0	1.864186E+0	1.806283E+0	1.836298E+0	1.890379E+0	1.790013E+0	1.796602E+0	1.816734E+0	1.724663E+0	1.859629E+0	1.771271E+0	1.802607E+0	1.830236E+0	1.810170E+0	1.748600E+0	1.822014E+0	1.807821E+0	1.877260E+0	1.773856E+0	1.814516E+0	1.755213E+0	1.849736E+0	1.785321E+0	1.728187E+0	1.827319E+0	1.796982E+0	1.870975E+0	1.826068E+0	1.800097E+0	1.794910E+0	1.871517E+0	1.858245E+0
5.390180E+2	1.662883E+0	1.664417E+0	1.668367E+0	1.749635E+0	1.635979E+0	1.701681E+0	1.657068E+0	1.649382E+0	1.689677E+0	1.616164E+0	1.725483E+0	1.637975E+0	1.596509E+0	1.640315E+0	1.656171E+0	1.631519E+0	1.647963E+0	1.678631E+0	1.689447E+0	1.637861E+0	1.661596E+0	1.627190E+0	1.725038E+0	1.653520E+0	1.588803E+0	1.690400E+0	1.687544E+0	1.690238E+0	1.631058E+0	1.591575E+0	1.631126E+0	1.632210E+0	1.615973E+0	1.598697E+0	1.685079E+0	1.607440E+0	1.684079E+0	1.575450E+0	1.671362E+0	1.613531E+0	1.679656E+0	1.664518E+0	1.654150E+0	1.696974E+0	1.606248E+0	1.616426E+0	1.710344E+0	1.663623E+0	1.708571E+0	1.651903E+0	1.689808E+0	1.626895E+0	1.654945E+0	1.662296E+0	1.741028E+0	1.647537E+0	1.660934E+0	1.660362E+0	1.711416E+0	1.667045E+0	1.595008E+0	1.694122E+0	1.650662E+0	1.648283E+0	1.727536E+0	1.671823E+0	1.652830E+0	1.569860E+0	1.569723E+0	1.642315E+0	1.648151E+0	1.583673E+0	1.716352E+0	1.701314E+0	1.659991E+0	1.687421E+0	1.677018E+0	1.734005E+0	1.690085E+0	1.605953E+0	1.662500E+0	1.649723E+0	1.573276E+0	1.644988E+0	1.654079E+0	1.669712E+0	1.706881E+0	1.571751E+0	1.663966E+0	1.679272E+0	1.569129E+0	1.656176E+0	1.641262E+0	1.677890E+0	1.646911E+0	1.617256E+0	1.632947E+0	1.678457E+0	1.603510E+0	1.642590E+0	1.667759E+0	1.637177E+0	1.642756E+0	1.622949E+0	1.608096E+0	1.643864E+0	1.603046E+0	1.655954E+0	1.613613E+0	1.583041E+0	1.657798E+0	1.655372E+0	1.542303E+0	1.698455E+0	1.752742E+0	1.607840E+0	1.613018E+0	1.646041E+0	1.598915E+0	1.666091E+0	1.579231E+0	1.706283E+0	1.634851E+0	1.666761E+0	1.666919E+0	1.733925E+0	1.648334E+0	1.667700E+0	1.668473E+0	1.675791E+0	1.603667E+0	1.571471E+0	1.584584E+0	1.568163E+0	1.645589E+0	1.603022E+0	1.594694E+0	1.603382E+0	1.642109E+0	1.612257E+0	1.660218E+0	1.531948E+0	1.726128E+0	1.599437E+0	1.569992E+0	1.683154E+0	1.625353E+0	1.634770E+0	1.565728E+0	1.699469E+0	1.697190E+0	1.683880E+0	1.604564E+0	1.682378E+0	1.632073E+0	1.623156E+0	1.563422E+0	1.644016E+0	1.607598E+0	1.612556E+0	1.622753E+0	1.607767E+0	1.626798E+0	1.627511E+0	1.648373E+0	1.615971E+0	1.648260E+0	1.663885E+0	1.685025E+0	1.624293E+0
5.392140E+2	1.369014E+0	1.346863E+0	1.416068E+0	1.429846E+0	1.368954E+0	1.374906E+0	1.379153E+0	1.380151E+0	1.398014E+0	1.395307E+0	1.482694E+0	1.424274E+0	1.365052E+0	1.377629E+0	1.473764E+0	1.453807E+0	1.398725E+0	1.488464E+0	1.402065E+0	1.439329E+0	1.380280E+0	1.444959E+0	1.382304E+0	1.457822E+0	1.406808E+0	1.378699E+0	1.394032E+0	1.387732E+0	1.330108E+0	1.405895E+0	1.378985E+0	1.489942E+0	1.410447E+0	1.436702E+0	1.380012E+0	1.370632E+0	1.438696E+0	1.316252E+0	1.374622E+0	1.365908E+0	1.426237E+0	1.360411E+0	1.402618E+0	1.442959E+0	1.333343E+0	1.328675E+0	1.401204E+0	1.435560E+0	1.415848E+0	1.343414E+0	1.432752E+0	1.386249E+0	1.363950E+0	1.406321E+0	1.405081E+0	1.404859E+0	1.452337E+0	1.345594E+0	1.442118E+0	1.445961E+0	1.346255E+0	1.434684E+0	1.385030E+0	1.342828E+0	1.440614E+0	1.475890E+0	1.341332E+0	1.301571E+0	1.394895E+0	1.385094E+0	1.385295E+0	1.417696E+0	1.350808E+0	1.401089E+0	1.437754E+0	1.407941E+0	1.370330E+0	1.398033E+0	1.367152E+0	1.327371E+0	1.412479E+0	1.436609E+0	1.396083E+0	1.355462E+0	1.383721E+0	1.441858E+0	1.405059E+0	1.376769E+0	1.381367E+0	1.479007E+0	1.374194E+0	1.321880E+0	1.327226E+0	1.365519E+0	1.384817E+0	1.354737E+0	1.458438E+0	1.445150E+0	1.327407E+0	1.371756E+0	1.405104E+0	1.416938E+0	1.469764E+0	1.366169E+0	1.348245E+0	1.413735E+0	1.344741E+0	1.433036E+0	1.304991E+0	1.331589E+0	1.449495E+0	1.328883E+0	1.354392E+0	1.480073E+0	1.475920E+0	1.409238E+0	1.435823E+0	1.396584E+0	1.398123E+0	1.367458E+0	1.351965E+0	1.428932E+0	1.371693E+0	1.458470E+0	1.384572E+0	1.442269E+0	1.387874E+0	1.316483E+0	1.372359E+0	1.353949E+0	1.397433E+0	1.367795E+0	1.359490E+0	1.384285E+0	1.305144E+0	1.390127E+0	1.362210E+0	1.387972E+0	1.384035E+0	1.406204E+0	1.390560E+0	1.344289E+0	1.401074E+0	1.311759E+0	1.356743E+0	1.329145E+0	1.361331E+0	1.360729E+0	1.401410E+0	1.479296E+0	1.421986E+0	1.391648E+0	1.443203E+0	1.401280E+0	1.294468E+0	1.425581E+0	1.390884E+0	1.332706E+0	1.369462E+0	1.374613E+0	1.425644E+0	1.336994E+0	1.345658E+0	1.394354E+0	1.399825E+0	1.357394E+0	1.391363E+0	1.395362E+0	1.526432E+0	1.405737E+0
5.394040E+2	1.310904E+0	1.263197E+0	1.270330E+0	1.280383E+0	1.213766E+0	1.310469E+0	1.255598E+0	1.279975E+0	1.261818E+0	1.293532E+0	1.252065E+0	1.283464E+0	1.248315E+0	1.275106E+0	1.317825E+0	1.267384E+0	1.225613E+0	1.269306E+0	1.271829E+0	1.245665E+0	1.283294E+0	1.308588E+0	1.374045E+0	1.333447E+0	1.306023E+0	1.237560E+0	1.283678E+0	1.352243E+0	1.263486E+0	1.270487E+0	1.272449E+0	1.296215E+0	1.217491E+0	1.286886E+0	1.308701E+0	1.274057E+0	1.248665E+0	1.255894E+0	1.274823E+0	1.273717E+0	1.301095E+0	1.313573E+0	1.266535E+0	1.348908E+0	1.259748E+0	1.262245E+0	1.320461E+0	1.300962E+0	1.268510E+0	1.205120E+0	1.292019E+0	1.256748E+0	1.303928E+0	1.227238E+0	1.309685E+0	1.248053E+0	1.371040E+0	1.278274E+0	1.322308E+0	1.337157E+0	1.241456E+0	1.270774E+0	1.283717E+0	1.250717E+0	1.269942E+0	1.287415E+0	1.339245E+0	1.290120E+0	1.269022E+0	1.226037E+0	1.256749E+0	1.248337E+0	1.316272E+0	1.272044E+0	1.283799E+0	1.303210E+0	1.324983E+0	1.262781E+0	1.287047E+0	1.277829E+0	1.374435E+0	1.307203E+0	1.259932E+0	1.263214E+0	1.227651E+0	1.286300E+0	1.296989E+0	1.251252E+0	1.292436E+0	1.277021E+0	1.279761E+0	1.273859E+0	1.271756E+0	1.291066E+0	1.238548E+0	1.259781E+0	1.278175E+0	1.302675E+0	1.300808E+0	1.290600E+0	1.270791E+0	1.277168E+0	1.267372E+0	1.311747E+0	1.300711E+0	1.222879E+0	1.259157E+0	1.271800E+0	1.256174E+0	1.255030E+0	1.332744E+0	1.267820E+0	1.319356E+0	1.297593E+0	1.308059E+0	1.252003E+0	1.370722E+0	1.286031E+0	1.313809E+0	1.240067E+0	1.266841E+0	1.253447E+0	1.232516E+0	1.298023E+0	1.285637E+0	1.301242E+0	1.308641E+0	1.299505E+0	1.228672E+0	1.312182E+0	1.311275E+0	1.295661E+0	1.329923E+0	1.303208E+0	1.229748E+0	1.402628E+0	1.282816E+0	1.308153E+0	1.335535E+0	1.257266E+0	1.252993E+0	1.269042E+0	1.283717E+0	1.264754E+0	1.264492E+0	1.301221E+0	1.177477E+0	1.310232E+0	1.273845E+0	1.338173E+0	1.280190E+0	1.291711E+0	1.311841E+0	1.296214E+0	1.199267E+0	1.329204E+0	1.252529E+0	1.270775E+0	1.239910E+0	1.282735E+0	1.356649E+0	1.281732E+0	1.216881E+0	1.304902E+0	1.312616E+0	1.253629E+0	1.238103E+0	1.298173E+0	1.249634E+0	1.294393E+0
5.396160E+2	1.083316E+0	9.770703E-1	1.038857E+0	9.948507E-1	9.785206E-1	1.001177E+0	1.002304E+0	1.075159E+0	1.055008E+0	1.004935E+0	1.052633E+0	1.068176E+0	1.076731E+0	9.636980E-1	1.036135E+0	9.938459E-1	9.905808E-1	1.050715E+0	1.041057E+0	1.018380E+0	1.009316E+0	1.035962E+0	1.067049E+0	1.021643E+0	1.018380E+0	1.003052E+0	1.020210E+0	9.468157E-1	9.989030E-1	9.406800E-1	1.020623E+0	1.060191E+0	1.089631E+0	1.022552E+0	1.025198E+0	9.607727E-1	1.048216E+0	9.871121E-1	1.006011E+0	9.986477E-1	1.035321E+0	1.001749E+0	1.065429E+0	1.080857E+0	9.783372E-1	9.351705E-1	1.051320E+0	1.023821E+0	1.053261E+0	1.002300E+0	1.031208E+0	9.697218E-1	1.010704E+0	1.061297E+0	1.037456E+0	1.061914E+0	1.023640E+0	1.024921E+0	1.084522E+0	1.065654E+0	1.058820E+0	1.031601E+0	1.011305E+0	1.013758E+0	1.018333E+0	1.061427E+0	9.867847E-1	9.837150E-1	9.653491E-1	1.010438E+0	1.015506E+0	1.015835E+0	1.018797E+0	1.034236E+0	1.065948E+0	9.653636E-1	1.034558E+0	1.021079E+0	1.001960E+0	1.042529E+0	1.087283E+0	9.990911E-1	1.027576E+0	9.953608E-1	1.105493E+0	9.913857E-1	1.023978E+0	1.024452E+0	9.873588E-1	9.912532E-1	1.004329E+0	1.000531E+0	1.007963E+0	1.050987E+0	1.009260E+0	9.606983E-1	9.977116E-1	1.016090E+0	9.651466E-1	1.010033E+0	1.009352E+0	1.041130E+0	9.973658E-1	1.042252E+0	9.527652E-1	9.857200E-1	9.591829E-1	1.035974E+0	1.001524E+0	9.977374E-1	1.048968E+0	1.025544E+0	1.013683E+0	1.023033E+0	1.046536E+0	9.579843E-1	1.030346E+0	9.877595E-1	1.064171E+0	1.074131E+0	1.013030E+0	1.023675E+0	9.862582E-1	9.812912E-1	1.029729E+0	9.959635E-1	1.058136E+0	1.058537E+0	1.068578E+0	1.048044E+0	9.821944E-1	1.095523E+0	9.362510E-1	1.013829E+0	9.966283E-1	1.008844E+0	1.039523E+0	1.022265E+0	1.051960E+0	1.013216E+0	1.050642E+0	1.043612E+0	9.826290E-1	1.053520E+0	1.004394E+0	1.021300E+0	1.003251E+0	1.057173E+0	1.053184E+0	1.044119E+0	1.042061E+0	9.546969E-1	1.006176E+0	9.605048E-1	9.876311E-1	1.063248E+0	1.047331E+0	1.015538E+0	1.030436E+0	1.045708E+0	1.038716E+0	1.053171E+0	9.723623E-1	1.059464E+0	1.038851E+0	1.005854E+0	1.000052E+0	1.054665E+0	1.083534E+0	1.067570E+0
5.398120E+2	1.014813E+0	9.031754E-1	9.519084E-1	9.305410E-1	9.532963E-1	9.466031E-1	9.319265E-1	9.458664E-1	8.933782E-1	9.186024E-1	9.781806E-1	9.768900E-1	9.521777E-1	9.680863E-1	9.637685E-1	1.001071E+0	1.008125E+0	1.000809E+0	9.383548E-1	9.277138E-1	9.429116E-1	9.854332E-1	9.710563E-1	9.609519E-1	9.404085E-1	9.506365E-1	1.004382E+0	9.604703E-1	9.293672E-1	9.220198E-1	9.777771E-1	9.392906E-1	9.776526E-1	9.576648E-1	9.035772E-1	9.329677E-1	9.629970E-1	9.382277E-1	9.353460E-1	9.335103E-1	1.012515E+0	9.318357E-1	9.708388E-1	1.020324E+0	9.912468E-1	9.290439E-1	9.397967E-1	9.776408E-1	8.985196E-1	9.381908E-1	9.355245E-1	9.366146E-1	9.213609E-1	9.137631E-1	1.029976E+0	9.126278E-1	9.343228E-1	9.243091E-1	9.463592E-1	9.520052E-1	9.282091E-1	9.526462E-1	9.552485E-1	9.463676E-1	1.044112E+0	1.023366E+0	9.246799E-1	9.089494E-1	9.441441E-1	8.852095E-1	9.304039E-1	9.022193E-1	9.536633E-1	9.297424E-1	9.608856E-1	9.229499E-1	9.531388E-1	9.821511E-1	9.677805E-1	9.123211E-1	9.204497E-1	9.397206E-1	9.387891E-1	9.042446E-1	9.418137E-1	9.638154E-1	9.309478E-1	8.986634E-1	9.166662E-1	9.265624E-1	9.720582E-1	8.891901E-1	9.302796E-1	9.604899E-1	9.847848E-1	9.423400E-1	9.791675E-1	1.031104E+0	9.416183E-1	9.522485E-1	9.782833E-1	9.358840E-1	9.591550E-1	9.102829E-1	9.145247E-1	9.631553E-1	9.401648E-1	9.805275E-1	9.480183E-1	9.161094E-1	9.321732E-1	9.817914E-1	9.767096E-1	9.621827E-1	9.212643E-1	9.393789E-1	9.472008E-1	9.397285E-1	9.166573E-1	1.006755E+0	1.020678E+0	1.037816E+0	9.640438E-1	9.891920E-1	9.031884E-1	9.451324E-1	9.549455E-1	9.614650E-1	9.760359E-1	9.241063E-1	9.425567E-1	9.802972E-1	9.855203E-1	9.332822E-1	9.756064E-1	9.465035E-1	9.142229E-1	9.336779E-1	9.759246E-1	8.962734E-1	9.573656E-1	9.460816E-1	9.658792E-1	8.441771E-1	1.020684E+0	1.026213E+0	9.463052E-1	9.296463E-1	9.216650E-1	9.488074E-1	9.487534E-1	9.397201E-1	9.204050E-1	8.947417E-1	9.253309E-1	1.052876E+0	9.365395E-1	9.465573E-1	9.234036E-1	9.165141E-1	9.585668E-1	9.442187E-1	9.487775E-1	9.384797E-1	9.390699E-1	9.208085E-1	9.780017E-1	1.015087E+0	9.756733E-1	8.665564E-1
5.400090E+2	8.124854E-1	7.825395E-1	8.022497E-1	7.711188E-1	7.875168E-1	7.540424E-1	7.539594E-1	7.892170E-1	7.852511E-1	7.667163E-1	8.383301E-1	8.292855E-1	7.897573E-1	7.572746E-1	8.104699E-1	7.311694E-1	8.242660E-1	7.284539E-1	7.612968E-1	7.980675E-1	7.838510E-1	7.799279E-1	8.034354E-1	8.171941E-1	8.024169E-1	7.693509E-1	8.182294E-1	7.893097E-1	7.593612E-1	7.667164E-1	7.212826E-1	7.520468E-1	8.006899E-1	8.419701E-1	8.005502E-1	7.551639E-1	7.842139E-1	7.927533E-1	7.877296E-1	8.060095E-1	7.557686E-1	7.649830E-1	8.082464E-1	8.190211E-1	7.585451E-1	7.709280E-1	7.749095E-1	7.863213E-1	7.645534E-1	7.724109E-1	8.320604E-1	7.971814E-1	7.716858E-1	7.980813E-1	7.743029E-1	8.022322E-1	7.782729E-1	8.158709E-1	8.056125E-1	7.813967E-1	8.063588E-1	7.988936E-1	7.392853E-1	7.526450E-1	7.896875E-1	7.645140E-1	7.899649E-1	8.366995E-1	7.892260E-1	7.582410E-1	7.855559E-1	7.578578E-1	7.530211E-1	7.373782E-1	8.040895E-1	7.760164E-1	7.785947E-1	7.626292E-1	7.875426E-1	7.897131E-1	8.318019E-1	7.914863E-1	7.879186E-1	7.675985E-1	7.750701E-1	7.837822E-1	7.792554E-1	8.255201E-1	8.340411E-1	8.146345E-1	8.070721E-1	8.083845E-1	7.560457E-1	7.863448E-1	7.991407E-1	7.677615E-1	7.683938E-1	8.208310E-1	7.569911E-1	7.338804E-1	7.743807E-1	8.188359E-1	7.729570E-1	8.018324E-1	7.853840E-1	8.173745E-1	7.845189E-1	8.084476E-1	8.098173E-1	7.322564E-1	8.362373E-1	7.483884E-1	8.042520E-1	7.482636E-1	8.067012E-1	7.541063E-1	7.894254E-1	7.685609E-1	7.906114E-1	7.744417E-1	7.686604E-1	7.435268E-1	8.006941E-1	7.982713E-1	7.901739E-1	8.200066E-1	8.564087E-1	8.085958E-1	8.396982E-1	8.094968E-1	7.649449E-1	7.526517E-1	7.630245E-1	7.911716E-1	7.790919E-1	7.994234E-1	8.116093E-1	8.232312E-1	8.280912E-1	7.800316E-1	7.239597E-1	8.014578E-1	7.625960E-1	7.768515E-1	8.225415E-1	8.217192E-1	7.605885E-1	7.851146E-1	7.979556E-1	7.967653E-1	7.838119E-1	7.483652E-1	7.795197E-1	7.435255E-1	8.073952E-1	8.400460E-1	8.325011E-1	8.154642E-1	7.882173E-1	8.168377E-1	7.794536E-1	7.887081E-1	7.436092E-1	7.809400E-1	7.632823E-1	7.738563E-1	7.637990E-1	8.040319E-1	8.210527E-1	8.076587E-1
5.402050E+2	6.928460E-1	6.398896E-1	6.700707E-1	6.325556E-1	6.282648E-1	6.382697E-1	6.560720E-1	6.863614E-1	6.315651E-1	6.252365E-1	6.767321E-1	6.932077E-1	6.396129E-1	6.436538E-1	6.728248E-1	6.420448E-1	6.190453E-1	6.503507E-1	6.667653E-1	5.868135E-1	6.790317E-1	6.845648E-1	6.376271E-1	6.929981E-1	6.555548E-1	6.211144E-1	6.406135E-1	6.588594E-1	6.501214E-1	6.538852E-1	6.689202E-1	6.066744E-1	6.852555E-1	6.697088E-1	6.529809E-1	6.196986E-1	6.978023E-1	6.458376E-1	6.148902E-1	6.661406E-1	6.324395E-1	6.459972E-1	6.739447E-1	6.772450E-1	6.328624E-1	6.589835E-1	6.720599E-1	6.667419E-1	6.716148E-1	6.625064E-1	6.601439E-1	6.745232E-1	6.529139E-1	6.879477E-1	6.617792E-1	6.624755E-1	6.559800E-1	6.635312E-1	6.633322E-1	6.737896E-1	7.494753E-1	6.960825E-1	6.692714E-1	6.167166E-1	6.276316E-1	6.203980E-1	6.443051E-1	6.579134E-1	6.465502E-1	6.440746E-1	6.345303E-1	6.406929E-1	6.173523E-1	6.394846E-1	6.610762E-1	5.953409E-1	6.664259E-1	6.752774E-1	6.787565E-1	6.518429E-1	6.474879E-1	6.511296E-1	6.472136E-1	6.713078E-1	6.261952E-1	6.657007E-1	6.545385E-1	6.278251E-1	6.366749E-1	6.789477E-1	6.173659E-1	6.590823E-1	6.350446E-1	6.544244E-1	6.259171E-1	6.511376E-1	6.253380E-1	6.535158E-1	6.182293E-1	6.361018E-1	6.862382E-1	6.514605E-1	6.358124E-1	6.456178E-1	6.887364E-1	6.259443E-1	6.463476E-1	6.428096E-1	6.658064E-1	6.317494E-1	6.591127E-1	6.520756E-1	6.757759E-1	5.886777E-1	6.547146E-1	6.505524E-1	6.674430E-1	6.638682E-1	6.291502E-1	6.594136E-1	6.595052E-1	6.814835E-1	6.588805E-1	6.682595E-1	6.738628E-1	6.703538E-1	6.698338E-1	6.655140E-1	6.755271E-1	6.882163E-1	6.777471E-1	6.826798E-1	5.925897E-1	6.500856E-1	6.396962E-1	6.450814E-1	6.385984E-1	6.455562E-1	5.800456E-1	6.587551E-1	6.554956E-1	6.540419E-1	6.398412E-1	6.576161E-1	6.312321E-1	6.340500E-1	6.568247E-1	6.216491E-1	6.678494E-1	6.866639E-1	6.325483E-1	6.071381E-1	6.282976E-1	6.476937E-1	6.496163E-1	6.694382E-1	6.274831E-1	6.752892E-1	6.561590E-1	6.619853E-1	6.328558E-1	6.448157E-1	6.187558E-1	6.883376E-1	6.588147E-1	6.368038E-1	6.939807E-1	6.384294E-1	7.106147E-1	7.519117E-1
5.404170E+2	6.300549E-1	5.384849E-1	5.892013E-1	5.643288E-1	5.654805E-1	6.034544E-1	5.315518E-1	5.620537E-1	5.865256E-1	5.760798E-1	5.850082E-1	5.794079E-1	5.728982E-1	5.650220E-1	5.941420E-1	5.587671E-1	5.698960E-1	5.653414E-1	6.109692E-1	5.828442E-1	6.113866E-1	6.092193E-1	6.067548E-1	5.909648E-1	5.633564E-1	5.622344E-1	5.856912E-1	5.863023E-1	5.626768E-1	5.820207E-1	6.109699E-1	6.247316E-1	5.941716E-1	5.827950E-1	6.096400E-1	5.861449E-1	5.849478E-1	5.424585E-1	5.694393E-1	5.617463E-1	5.922024E-1	5.802205E-1	6.144607E-1	5.713040E-1	5.342771E-1	5.907871E-1	5.424442E-1	5.673120E-1	5.984674E-1	5.326348E-1	5.710010E-1	5.388641E-1	5.712150E-1	5.880233E-1	5.751444E-1	5.414407E-1	6.232073E-1	5.441962E-1	5.636532E-1	5.677136E-1	5.527323E-1	6.118518E-1	5.743713E-1	5.773983E-1	5.862006E-1	6.145595E-1	5.505616E-1	5.545788E-1	5.614538E-1	5.950142E-1	5.663598E-1	5.864626E-1	5.917405E-1	5.756758E-1	5.693092E-1	5.447533E-1	5.866861E-1	5.920961E-1	6.396341E-1	5.802604E-1	5.488506E-1	5.988833E-1	5.893146E-1	5.314686E-1	5.816308E-1	5.528764E-1	5.783062E-1	5.689320E-1	5.688306E-1	5.685481E-1	5.723806E-1	5.739075E-1	5.502510E-1	5.682093E-1	5.668066E-1	5.837833E-1	5.628432E-1	5.831930E-1	5.613217E-1	6.041324E-1	5.937072E-1	6.329301E-1	5.776829E-1	5.443408E-1	6.263219E-1	5.912175E-1	6.253974E-1	5.917559E-1	6.214456E-1	5.713600E-1	5.921729E-1	5.286000E-1	5.678862E-1	6.050904E-1	5.857390E-1	5.661053E-1	5.408397E-1	5.559606E-1	6.079348E-1	5.934745E-1	6.008203E-1	5.905263E-1	6.002607E-1	5.438673E-1	5.834954E-1	5.758918E-1	6.051046E-1	5.548872E-1	6.139268E-1	5.941325E-1	5.644700E-1	5.448079E-1	5.843867E-1	6.199468E-1	6.048943E-1	5.510435E-1	5.589617E-1	6.197940E-1	5.582385E-1	5.672369E-1	5.659633E-1	5.719004E-1	5.708642E-1	5.806586E-1	5.864137E-1	5.773431E-1	5.843842E-1	5.661191E-1	5.650110E-1	5.871090E-1	5.537590E-1	5.697260E-1	5.587524E-1	5.948976E-1	6.280291E-1	5.681556E-1	5.741365E-1	5.666747E-1	6.026288E-1	6.160604E-1	6.248124E-1	5.421288E-1	5.666516E-1	5.857935E-1	6.146803E-1	5.911961E-1	6.551279E-1	6.305482E-1	5.914488E-1	5.809661E-1
5.406090E+2	4.457601E-1	4.613192E-1	5.115622E-1	4.526306E-1	4.578310E-1	4.741798E-1	4.751921E-1	4.692040E-1	4.264180E-1	4.135803E-1	4.731576E-1	4.864581E-1	4.240276E-1	4.772913E-1	4.549592E-1	4.695326E-1	4.496656E-1	4.923237E-1	4.790552E-1	4.457011E-1	4.561875E-1	4.995630E-1	4.825817E-1	4.578782E-1	5.074419E-1	4.458576E-1	4.275392E-1	4.676148E-1	4.138227E-1	4.338142E-1	4.901430E-1	4.791642E-1	4.627314E-1	4.769462E-1	4.913203E-1	4.848006E-1	5.041761E-1	4.636072E-1	4.819967E-1	4.476237E-1	4.496825E-1	4.422829E-1	4.956322E-1	5.106571E-1	4.565608E-1	4.585761E-1	4.599579E-1	4.277790E-1	4.376139E-1	4.552603E-1	4.678275E-1	4.474481E-1	4.722243E-1	4.768384E-1	4.987636E-1	4.358639E-1	4.873592E-1	4.452886E-1	4.562432E-1	5.021798E-1	4.402402E-1	4.555201E-1	4.649461E-1	4.959714E-1	4.837708E-1	4.870001E-1	4.545486E-1	4.677247E-1	5.211519E-1	4.516874E-1	4.449781E-1	4.377949E-1	4.862036E-1	4.915631E-1	4.557574E-1	4.625766E-1	5.029195E-1	4.766705E-1	4.472495E-1	4.631055E-1	4.790355E-1	4.611294E-1	4.603564E-1	4.889701E-1	4.651650E-1	4.438710E-1	4.650500E-1	4.583925E-1	4.727318E-1	4.715470E-1	4.765640E-1	4.887604E-1	4.730169E-1	4.840233E-1	4.456501E-1	4.777576E-1	4.605532E-1	4.615505E-1	4.842290E-1	4.577420E-1	4.503754E-1	4.907880E-1	4.682204E-1	4.149266E-1	4.530583E-1	4.701896E-1	4.661470E-1	4.676089E-1	4.980758E-1	4.421516E-1	4.769956E-1	4.864547E-1	4.586211E-1	4.448991E-1	4.976266E-1	4.915515E-1	4.896058E-1	4.664920E-1	4.311213E-1	4.717357E-1	4.537903E-1	4.639735E-1	4.893508E-1	4.802898E-1	4.510712E-1	5.317750E-1	4.374920E-1	4.784570E-1	5.000355E-1	4.569362E-1	4.598709E-1	4.282079E-1	4.954188E-1	5.043101E-1	4.752155E-1	4.525135E-1	4.669000E-1	4.853172E-1	4.310099E-1	4.769837E-1	4.976500E-1	4.537926E-1	4.565353E-1	4.658765E-1	4.949067E-1	4.604982E-1	4.547157E-1	4.656900E-1	4.708678E-1	4.789717E-1	4.890448E-1	4.674181E-1	4.724614E-1	4.397704E-1	4.479751E-1	4.849327E-1	4.638818E-1	5.002567E-1	4.557659E-1	4.839691E-1	4.868158E-1	4.638686E-1	4.598531E-1	4.599368E-1	5.320801E-1	4.357702E-1	5.205973E-1	5.044804E-1	4.301764E-1	4.923701E-1
5.408160E+2	5.247676E-1	4.478807E-1	5.039049E-1	4.721255E-1	5.015203E-1	5.059375E-1	5.174536E-1	5.119257E-1	4.815017E-1	4.924525E-1	4.901408E-1	4.942447E-1	4.968265E-1	4.885316E-1	4.936471E-1	5.119975E-1	4.758099E-1	4.797429E-1	5.210377E-1	4.630047E-1	5.008733E-1	5.346341E-1	4.798571E-1	5.314486E-1	5.047350E-1	4.880274E-1	4.841930E-1	4.842298E-1	4.915172E-1	5.022790E-1	4.853511E-1	5.345481E-1	5.387395E-1	4.732944E-1	5.174461E-1	4.947221E-1	5.645526E-1	4.627185E-1	5.219905E-1	4.759306E-1	4.852902E-1	5.270994E-1	5.150713E-1	5.057404E-1	4.801088E-1	5.432957E-1	5.136490E-1	4.630591E-1	5.373184E-1	5.031692E-1	4.950812E-1	4.552945E-1	4.903503E-1	4.832741E-1	5.250446E-1	5.052485E-1	4.587825E-1	5.023430E-1	5.102915E-1	4.919723E-1	5.040877E-1	5.237025E-1	4.772333E-1	4.403865E-1	4.924293E-1	5.417923E-1	5.553977E-1	4.658896E-1	4.818524E-1	5.227569E-1	4.285998E-1	4.752128E-1	4.990197E-1	5.108441E-1	5.519186E-1	4.782817E-1	5.042624E-1	4.966480E-1	5.354221E-1	5.227632E-1	5.315495E-1	4.871997E-1	4.922821E-1	4.555644E-1	4.478719E-1	4.955946E-1	4.700491E-1	4.980052E-1	5.199311E-1	4.886776E-1	5.228140E-1	5.330010E-1	5.012019E-1	4.586900E-1	5.359944E-1	4.933787E-1	5.194213E-1	5.142918E-1	4.963778E-1	5.286981E-1	4.941240E-1	5.028145E-1	4.869875E-1	5.159145E-1	4.870420E-1	5.242072E-1	4.624336E-1	5.138565E-1	4.934233E-1	4.778151E-1	5.155096E-1	4.539332E-1	5.486687E-1	4.716140E-1	5.236232E-1	5.081888E-1	4.929458E-1	4.626483E-1	5.146138E-1	5.094712E-1	4.967818E-1	4.652459E-1	4.988005E-1	4.935478E-1	4.954347E-1	5.177818E-1	5.161072E-1	4.978077E-1	5.378930E-1	4.876758E-1	5.329238E-1	4.478628E-1	5.014733E-1	4.926710E-1	4.785819E-1	4.675467E-1	5.017354E-1	4.824735E-1	4.590491E-1	4.876451E-1	5.301764E-1	4.933295E-1	5.224101E-1	5.087097E-1	5.201174E-1	4.855358E-1	5.022649E-1	5.326351E-1	4.597281E-1	5.396975E-1	4.841784E-1	5.352671E-1	5.060199E-1	4.877833E-1	4.981847E-1	5.728170E-1	4.883222E-1	4.762931E-1	4.980755E-1	5.030180E-1	5.601097E-1	4.998502E-1	5.247965E-1	5.138463E-1	5.197443E-1	4.863964E-1	5.156994E-1	5.580200E-1	4.575524E-1	5.259567E-1
5.410130E+2	4.727675E-1	4.876918E-1	4.372735E-1	3.981205E-1	4.495738E-1	4.691495E-1	4.652941E-1	4.383976E-1	4.433236E-1	4.476365E-1	4.743595E-1	4.641469E-1	4.785195E-1	4.669635E-1	4.487024E-1	4.373574E-1	4.552912E-1	4.675704E-1	4.325331E-1	4.839298E-1	4.550666E-1	4.783377E-1	4.349209E-1	4.446268E-1	4.791343E-1	4.231788E-1	4.555969E-1	4.229872E-1	4.448050E-1	4.529968E-1	4.403332E-1	4.631301E-1	4.225127E-1	4.339160E-1	4.347967E-1	4.622111E-1	4.678240E-1	4.348576E-1	4.444701E-1	4.692893E-1	4.333770E-1	4.439645E-1	4.377794E-1	4.370276E-1	4.237143E-1	4.225545E-1	4.689741E-1	4.591159E-1	4.368040E-1	4.078401E-1	4.746795E-1	4.496630E-1	4.680768E-1	4.857487E-1	4.390844E-1	4.692065E-1	4.364494E-1	4.500908E-1	5.113919E-1	4.455875E-1	4.563820E-1	4.650262E-1	4.448911E-1	4.549792E-1	4.520883E-1	4.570968E-1	4.262310E-1	4.770027E-1	4.444142E-1	4.304859E-1	4.387433E-1	4.588101E-1	4.800138E-1	4.651859E-1	4.402174E-1	4.816428E-1	4.322372E-1	4.791668E-1	4.782258E-1	4.316039E-1	4.685187E-1	4.554052E-1	4.541902E-1	4.457655E-1	4.651875E-1	4.322398E-1	4.367830E-1	4.496445E-1	4.414711E-1	4.421977E-1	4.489639E-1	4.264903E-1	4.149222E-1	4.876481E-1	4.833735E-1	4.558386E-1	4.603096E-1	4.092097E-1	4.550419E-1	4.185689E-1	4.137735E-1	4.307851E-1	4.086319E-1	4.353347E-1	4.417744E-1	4.546694E-1	4.357423E-1	4.804457E-1	3.863063E-1	3.944387E-1	4.266154E-1	4.555437E-1	4.252411E-1	4.257355E-1	4.857529E-1	4.689226E-1	4.591970E-1	4.240535E-1	4.488941E-1	4.620096E-1	4.748547E-1	4.601713E-1	4.712847E-1	4.533545E-1	4.334377E-1	4.552055E-1	4.294981E-1	4.580785E-1	4.500408E-1	4.545369E-1	4.380695E-1	4.691229E-1	4.324636E-1	4.543293E-1	3.849711E-1	4.587852E-1	4.385161E-1	4.662160E-1	4.532282E-1	4.825041E-1	4.855122E-1	4.281600E-1	4.333859E-1	4.467104E-1	4.884099E-1	4.420044E-1	4.263115E-1	4.792060E-1	4.365700E-1	4.384194E-1	4.580110E-1	4.627083E-1	4.454355E-1	4.560792E-1	4.605084E-1	4.411555E-1	4.663438E-1	4.738708E-1	4.592473E-1	4.221695E-1	4.758844E-1	4.342091E-1	4.294289E-1	4.229351E-1	4.597754E-1	4.197506E-1	4.762877E-1	4.958138E-1	3.983684E-1	5.668065E-1
5.415090E+2	5.785647E-1	4.892953E-1	5.488947E-1	5.489348E-1	5.478356E-1	4.997222E-1	5.101958E-1	5.302437E-1	5.377453E-1	5.279676E-1	5.415152E-1	5.343940E-1	5.176211E-1	5.649418E-1	5.097551E-1	5.387404E-1	5.799224E-1	5.728960E-1	5.671337E-1	5.454844E-1	5.109650E-1	5.438858E-1	5.548347E-1	5.355394E-1	5.562139E-1	5.760155E-1	5.353170E-1	5.728607E-1	5.302412E-1	5.026132E-1	5.511364E-1	5.584714E-1	5.591111E-1	5.165484E-1	5.390761E-1	5.238904E-1	5.681168E-1	5.128124E-1	5.364225E-1	5.756794E-1	5.236967E-1	5.988409E-1	5.413793E-1	5.426829E-1	5.296798E-1	5.260467E-1	5.217670E-1	5.526692E-1	5.171214E-1	5.522219E-1	5.321762E-1	5.936828E-1	5.679728E-1	5.449087E-1	5.469691E-1	5.420158E-1	5.614448E-1	5.565671E-1	5.026898E-1	6.183603E-1	5.320298E-1	5.585152E-1	5.378286E-1	5.319950E-1	5.614395E-1	5.996722E-1	5.761642E-1	5.030249E-1	5.393104E-1	5.679960E-1	5.403810E-1	5.131094E-1	5.134632E-1	5.895006E-1	5.415072E-1	5.078174E-1	5.671843E-1	5.704666E-1	5.600913E-1	5.212481E-1	5.423110E-1	5.781166E-1	5.346648E-1	5.780344E-1	5.896838E-1	5.575862E-1	5.557553E-1	5.579154E-1	5.151350E-1	5.316610E-1	5.640236E-1	5.288551E-1	5.245949E-1	5.608400E-1	4.945136E-1	5.545345E-1	5.968008E-1	5.649605E-1	5.442067E-1	5.615903E-1	5.792210E-1	5.582597E-1	5.376376E-1	5.719733E-1	5.561960E-1	5.717213E-1	5.661229E-1	5.579596E-1	5.572664E-1	5.123512E-1	5.323344E-1	5.405904E-1	5.066717E-1	5.524925E-1	5.553429E-1	5.393456E-1	5.401179E-1	5.482818E-1	5.568054E-1	5.625962E-1	5.204288E-1	5.843769E-1	5.308306E-1	5.783447E-1	5.649424E-1	5.611776E-1	5.406890E-1	5.255691E-1	5.677853E-1	6.280290E-1	5.216620E-1	5.292843E-1	5.481769E-1	5.488400E-1	5.626766E-1	4.895443E-1	5.223216E-1	5.392841E-1	5.116546E-1	5.453474E-1	5.433969E-1	5.861435E-1	5.423761E-1	5.738419E-1	5.642970E-1	5.550671E-1	5.609835E-1	5.376485E-1	5.230516E-1	5.797359E-1	5.648832E-1	5.745532E-1	5.161559E-1	5.759282E-1	5.708218E-1	5.685959E-1	4.947853E-1	5.737254E-1	5.151920E-1	5.207728E-1	5.802429E-1	5.428118E-1	5.342164E-1	5.506759E-1	6.157730E-1	5.226538E-1	5.886498E-1	6.326041E-1	5.607083E-1	6.114662E-1
5.420160E+2	7.680032E-1	6.954726E-1	7.007237E-1	7.108294E-1	7.234305E-1	6.692034E-1	7.016296E-1	7.300412E-1	7.174763E-1	7.241038E-1	7.247393E-1	7.530372E-1	7.292296E-1	7.382899E-1	7.452561E-1	6.982387E-1	7.221942E-1	7.563182E-1	7.067945E-1	6.937177E-1	6.939928E-1	7.411903E-1	7.256119E-1	7.220983E-1	7.722258E-1	7.173098E-1	7.072579E-1	7.416241E-1	6.978229E-1	7.049430E-1	7.512983E-1	7.217768E-1	7.542105E-1	7.230853E-1	7.371257E-1	6.803244E-1	6.959361E-1	7.137166E-1	7.212841E-1	7.144416E-1	7.559727E-1	6.990982E-1	7.434015E-1	7.472097E-1	6.809818E-1	7.094445E-1	7.016896E-1	7.289451E-1	7.044285E-1	7.343968E-1	7.497187E-1	7.197474E-1	7.217957E-1	7.204259E-1	7.253732E-1	7.817466E-1	7.179936E-1	7.159169E-1	7.463567E-1	7.088770E-1	7.173902E-1	7.250201E-1	7.221302E-1	7.051134E-1	7.914048E-1	7.142628E-1	7.107661E-1	7.137604E-1	6.866673E-1	7.298295E-1	7.277862E-1	7.325016E-1	7.265411E-1	6.926506E-1	7.242978E-1	7.142352E-1	7.148427E-1	7.120941E-1	7.182488E-1	7.823983E-1	7.292705E-1	7.091563E-1	7.467929E-1	6.863558E-1	7.436600E-1	7.301577E-1	7.575201E-1	7.246086E-1	7.420303E-1	7.457123E-1	7.090973E-1	6.718558E-1	7.244986E-1	7.382613E-1	7.091060E-1	7.360120E-1	7.307402E-1	7.243011E-1	7.386200E-1	7.130448E-1	7.369988E-1	7.174848E-1	7.312016E-1	7.084138E-1	7.418218E-1	7.429288E-1	7.448018E-1	7.078306E-1	7.240487E-1	7.262179E-1	7.443321E-1	7.337496E-1	6.925100E-1	6.996341E-1	7.511415E-1	7.037924E-1	7.729625E-1	7.681542E-1	7.619737E-1	7.486707E-1	7.076341E-1	7.818477E-1	7.250681E-1	7.731146E-1	7.441482E-1	7.923202E-1	7.563308E-1	7.507956E-1	7.371580E-1	7.446828E-1	7.186011E-1	7.074049E-1	6.994679E-1	6.961166E-1	6.833638E-1	7.805127E-1	7.113020E-1	6.831416E-1	7.200678E-1	7.261158E-1	7.279162E-1	7.189155E-1	7.355458E-1	7.302619E-1	7.371032E-1	7.384031E-1	7.139142E-1	7.113693E-1	7.320686E-1	7.309030E-1	7.097613E-1	7.458313E-1	7.405212E-1	6.593534E-1	6.782905E-1	7.018913E-1	7.434017E-1	7.251826E-1	7.051683E-1	7.832646E-1	7.291921E-1	6.861175E-1	7.154288E-1	7.439475E-1	7.366369E-1	7.102356E-1	7.442057E-1	7.328543E-1	7.495047E-1	6.772151E-1
5.424810E+2	8.940399E-1	8.316790E-1	8.413382E-1	8.081691E-1	8.901412E-1	8.667335E-1	8.883904E-1	8.869365E-1	8.871465E-1	8.593152E-1	8.451196E-1	8.797680E-1	8.582611E-1	9.312813E-1	8.351652E-1	9.102327E-1	9.429263E-1	8.503563E-1	8.719569E-1	8.631112E-1	8.968659E-1	8.420293E-1	8.866340E-1	8.976357E-1	9.241164E-1	8.773730E-1	8.337354E-1	9.155263E-1	8.491364E-1	8.362312E-1	8.927809E-1	8.382148E-1	8.852100E-1	8.590577E-1	8.619179E-1	8.959756E-1	8.846806E-1	8.765618E-1	8.731903E-1	8.740842E-1	8.492282E-1	8.374146E-1	8.994117E-1	8.199601E-1	8.698091E-1	8.375339E-1	8.746071E-1	8.877710E-1	9.090630E-1	7.810798E-1	8.716753E-1	8.875119E-1	8.828609E-1	8.117869E-1	8.459805E-1	8.800357E-1	8.879787E-1	8.484641E-1	8.560692E-1	8.608974E-1	8.594538E-1	8.071459E-1	8.471901E-1	8.622129E-1	8.666677E-1	9.372784E-1	8.826735E-1	8.398313E-1	8.728157E-1	8.379586E-1	8.379104E-1	8.232870E-1	8.785904E-1	8.740254E-1	8.726168E-1	8.990462E-1	8.339186E-1	8.622052E-1	8.663426E-1	8.361801E-1	8.558712E-1	8.669358E-1	8.173057E-1	8.470699E-1	8.330283E-1	9.125277E-1	8.411408E-1	8.963790E-1	8.783716E-1	8.861620E-1	7.968522E-1	8.398161E-1	8.604331E-1	8.406875E-1	8.310520E-1	8.841940E-1	9.322141E-1	8.128261E-1	8.051030E-1	8.637734E-1	8.225416E-1	8.607340E-1	8.274335E-1	8.911426E-1	8.515460E-1	8.611252E-1	8.059334E-1	8.599255E-1	8.565602E-1	8.530808E-1	8.493897E-1	8.591165E-1	8.533518E-1	8.812309E-1	8.497159E-1	8.554238E-1	8.661591E-1	8.809399E-1	8.984656E-1	9.001184E-1	8.955587E-1	8.871194E-1	8.484411E-1	9.283846E-1	8.764999E-1	8.642298E-1	8.002340E-1	8.682424E-1	8.719638E-1	8.603699E-1	8.549809E-1	8.356134E-1	8.627871E-1	8.801182E-1	8.493033E-1	8.617874E-1	8.731247E-1	8.637746E-1	8.046672E-1	8.207738E-1	8.779667E-1	8.148471E-1	8.538132E-1	8.458434E-1	8.219687E-1	8.513990E-1	8.087570E-1	8.905050E-1	8.494586E-1	8.570186E-1	8.516787E-1	8.251663E-1	8.160072E-1	8.597695E-1	8.177960E-1	8.859656E-1	8.343432E-1	8.698658E-1	8.665967E-1	8.253534E-1	9.229116E-1	8.136120E-1	8.217109E-1	8.737983E-1	9.017085E-1	8.375066E-1	8.606204E-1	8.471907E-1	8.523464E-1	8.072402E-1
5.430070E+2	1.280341E+0	1.109252E+0	1.178476E+0	1.172594E+0	1.162812E+0	1.128985E+0	1.132430E+0	1.216795E+0	1.186769E+0	1.194339E+0	1.184348E+0	1.270568E+0	1.207692E+0	1.178893E+0	1.136798E+0	1.147302E+0	1.170762E+0	1.202993E+0	1.157503E+0	1.125658E+0	1.152923E+0	1.191019E+0	1.148885E+0	1.138229E+0	1.148628E+0	1.221277E+0	1.171369E+0	1.206683E+0	1.143264E+0	1.187372E+0	1.145433E+0	1.260641E+0	1.178443E+0	1.161812E+0	1.167876E+0	1.195490E+0	1.160782E+0	1.143364E+0	1.125075E+0	1.162137E+0	1.179048E+0	1.134947E+0	1.143556E+0	1.144871E+0	1.163536E+0	1.132857E+0	1.153353E+0	1.179299E+0	1.151725E+0	1.174965E+0	1.172614E+0	1.136667E+0	1.184755E+0	1.226912E+0	1.161826E+0	1.142308E+0	1.149151E+0	1.173472E+0	1.188646E+0	1.175458E+0	1.183848E+0	1.120659E+0	1.133894E+0	1.163215E+0	1.186470E+0	1.254697E+0	1.187442E+0	1.119893E+0	1.180544E+0	1.170900E+0	1.150371E+0	1.132060E+0	1.224321E+0	1.152161E+0	1.180991E+0	1.099157E+0	1.209834E+0	1.206389E+0	1.185834E+0	1.172667E+0	1.189038E+0	1.175451E+0	1.156066E+0	1.196334E+0	1.157315E+0	1.171580E+0	1.204043E+0	1.119075E+0	1.187443E+0	1.119804E+0	1.171047E+0	1.160381E+0	1.149552E+0	1.174658E+0	1.179192E+0	1.121314E+0	1.223196E+0	1.163910E+0	1.144988E+0	1.202884E+0	1.236536E+0	1.198393E+0	1.176254E+0	1.183966E+0	1.151399E+0	1.150493E+0	1.161732E+0	1.182183E+0	1.188479E+0	1.156143E+0	1.143222E+0	1.174794E+0	1.111445E+0	1.166565E+0	1.191618E+0	1.180934E+0	1.187664E+0	1.130126E+0	1.147331E+0	1.129203E+0	1.119426E+0	1.229878E+0	1.159084E+0	1.241063E+0	1.224368E+0	1.217238E+0	1.182391E+0	1.189536E+0	1.276260E+0	1.166965E+0	1.178505E+0	1.198238E+0	1.169102E+0	1.184667E+0	1.178641E+0	1.249077E+0	1.167924E+0	1.143413E+0	1.131115E+0	1.157704E+0	1.163770E+0	1.132147E+0	1.148462E+0	1.160845E+0	1.168637E+0	1.136735E+0	1.198359E+0	1.156038E+0	1.180401E+0	1.204208E+0	1.195657E+0	1.144360E+0	1.196398E+0	1.168223E+0	1.127302E+0	1.260357E+0	1.220137E+0	1.113087E+0	1.176704E+0	1.169460E+0	1.199705E+0	1.164860E+0	1.142214E+0	1.129958E+0	1.186471E+0	1.120066E+0	1.162078E+0	1.197316E+0	1.215691E+0	1.267903E+0
5.435060E+2	1.263307E+0	1.122446E+0	1.176439E+0	1.192629E+0	1.151168E+0	1.165986E+0	1.165883E+0	1.184773E+0	1.197490E+0	1.191355E+0	1.159543E+0	1.182870E+0	1.152413E+0	1.217828E+0	1.156928E+0	1.254800E+0	1.196493E+0	1.222056E+0	1.217430E+0	1.138896E+0	1.157331E+0	1.172976E+0	1.160544E+0	1.155799E+0	1.173293E+0	1.224046E+0	1.178202E+0	1.202472E+0	1.114549E+0	1.139042E+0	1.129467E+0	1.235188E+0	1.180280E+0	1.171463E+0	1.181925E+0	1.168910E+0	1.179765E+0	1.179204E+0	1.128539E+0	1.137937E+0	1.220984E+0	1.139647E+0	1.169643E+0	1.205746E+0	1.116340E+0	1.166285E+0	1.183239E+0	1.140222E+0	1.184012E+0	1.191505E+0	1.142476E+0	1.166528E+0	1.162743E+0	1.129174E+0	1.229962E+0	1.142789E+0	1.175829E+0	1.166786E+0	1.100885E+0	1.191361E+0	1.151042E+0	1.194118E+0	1.124205E+0	1.209150E+0	1.206788E+0	1.214500E+0	1.162937E+0	1.105477E+0	1.202734E+0	1.191452E+0	1.145258E+0	1.132219E+0	1.128963E+0	1.179600E+0	1.200221E+0	1.107949E+0	1.186117E+0	1.141089E+0	1.178541E+0	1.201859E+0	1.196199E+0	1.153756E+0	1.175407E+0	1.171213E+0	1.139798E+0	1.172481E+0	1.177522E+0	1.158071E+0	1.236408E+0	1.150632E+0	1.163941E+0	1.141152E+0	1.134671E+0	1.210630E+0	1.171499E+0	1.135448E+0	1.171353E+0	1.174594E+0	1.109086E+0	1.108202E+0	1.154616E+0	1.191999E+0	1.110060E+0	1.114433E+0	1.200472E+0	1.168330E+0	1.116552E+0	1.158929E+0	1.149069E+0	1.135814E+0	1.217377E+0	1.142954E+0	1.082156E+0	1.201152E+0	1.228005E+0	1.199800E+0	1.214463E+0	1.138544E+0	1.175641E+0	1.179653E+0	1.192690E+0	1.182020E+0	1.106179E+0	1.215024E+0	1.272270E+0	1.152249E+0	1.168773E+0	1.192247E+0	1.239423E+0	1.090756E+0	1.141282E+0	1.185352E+0	1.181071E+0	1.128880E+0	1.142322E+0	1.167581E+0	1.125926E+0	1.174406E+0	1.129629E+0	1.222848E+0	1.169061E+0	1.177344E+0	1.113804E+0	1.220939E+0	1.204195E+0	1.120658E+0	1.180260E+0	1.192271E+0	1.142629E+0	1.166324E+0	1.155290E+0	1.155321E+0	1.162607E+0	1.116933E+0	1.094851E+0	1.267429E+0	1.126364E+0	1.157341E+0	1.086688E+0	1.138868E+0	1.142696E+0	1.206744E+0	1.117735E+0	1.180688E+0	1.180737E+0	1.067450E+0	1.100277E+0	1.254022E+0	1.221324E+0	1.147600E+0
5.440060E+2	1.312988E+0	1.278231E+0	1.284848E+0	1.305427E+0	1.296394E+0	1.252353E+0	1.275228E+0	1.289030E+0	1.266473E+0	1.296792E+0	1.325537E+0	1.309915E+0	1.293236E+0	1.292412E+0	1.289992E+0	1.270069E+0	1.276352E+0	1.247096E+0	1.228029E+0	1.300997E+0	1.217764E+0	1.356383E+0	1.301142E+0	1.338571E+0	1.250334E+0	1.271395E+0	1.272546E+0	1.256540E+0	1.201698E+0	1.245771E+0	1.285949E+0	1.320972E+0	1.313721E+0	1.278467E+0	1.293531E+0	1.288052E+0	1.277962E+0	1.255540E+0	1.276645E+0	1.226870E+0	1.317441E+0	1.280921E+0	1.287415E+0	1.260256E+0	1.239008E+0	1.255115E+0	1.282864E+0	1.316620E+0	1.359389E+0	1.222018E+0	1.224131E+0	1.270179E+0	1.262453E+0	1.281286E+0	1.317815E+0	1.276385E+0	1.307911E+0	1.276434E+0	1.303572E+0	1.338684E+0	1.220065E+0	1.288503E+0	1.257955E+0	1.279578E+0	1.241190E+0	1.298985E+0	1.272396E+0	1.235983E+0	1.298270E+0	1.324913E+0	1.200181E+0	1.220034E+0	1.247132E+0	1.283888E+0	1.267819E+0	1.317391E+0	1.280841E+0	1.353506E+0	1.297389E+0	1.284379E+0	1.285073E+0	1.295061E+0	1.333930E+0	1.313445E+0	1.294618E+0	1.289088E+0	1.331079E+0	1.274657E+0	1.212168E+0	1.301044E+0	1.220462E+0	1.290352E+0	1.214616E+0	1.273856E+0	1.275412E+0	1.216873E+0	1.269788E+0	1.302510E+0	1.267158E+0	1.240552E+0	1.302171E+0	1.261695E+0	1.277729E+0	1.281104E+0	1.326899E+0	1.274174E+0	1.255934E+0	1.280839E+0	1.271430E+0	1.277426E+0	1.272479E+0	1.273076E+0	1.329578E+0	1.314472E+0	1.234183E+0	1.226150E+0	1.281970E+0	1.335139E+0	1.266687E+0	1.275789E+0	1.254960E+0	1.285985E+0	1.269572E+0	1.286127E+0	1.353813E+0	1.245104E+0	1.294496E+0	1.296088E+0	1.404490E+0	1.249628E+0	1.268627E+0	1.288102E+0	1.272189E+0	1.315139E+0	1.251784E+0	1.288550E+0	1.207168E+0	1.294985E+0	1.218592E+0	1.287388E+0	1.297794E+0	1.245896E+0	1.255235E+0	1.242738E+0	1.324594E+0	1.253701E+0	1.218680E+0	1.272443E+0	1.267594E+0	1.258894E+0	1.302273E+0	1.295576E+0	1.178148E+0	1.261442E+0	1.280329E+0	1.392618E+0	1.278918E+0	1.224448E+0	1.269512E+0	1.275273E+0	1.268027E+0	1.242873E+0	1.252950E+0	1.266020E+0	1.280593E+0	1.258253E+0	1.275622E+0	1.295928E+0	1.251168E+0	1.165637E+0
5.445130E+2	1.275833E+0	1.217473E+0	1.186324E+0	1.291123E+0	1.252888E+0	1.223806E+0	1.252718E+0	1.171583E+0	1.200518E+0	1.199018E+0	1.269958E+0	1.288221E+0	1.191102E+0	1.249679E+0	1.208456E+0	1.254615E+0	1.194532E+0	1.169164E+0	1.188237E+0	1.274895E+0	1.164442E+0	1.222888E+0	1.200412E+0	1.239710E+0	1.180609E+0	1.243794E+0	1.257831E+0	1.265692E+0	1.166817E+0	1.199294E+0	1.247778E+0	1.220148E+0	1.225966E+0	1.183454E+0	1.243941E+0	1.230392E+0	1.215509E+0	1.159417E+0	1.202366E+0	1.258695E+0	1.227994E+0	1.165005E+0	1.240560E+0	1.255819E+0	1.190005E+0	1.206928E+0	1.264785E+0	1.240409E+0	1.183004E+0	1.240166E+0	1.180223E+0	1.247966E+0	1.245642E+0	1.254159E+0	1.209116E+0	1.237658E+0	1.206481E+0	1.295900E+0	1.232347E+0	1.321194E+0	1.204908E+0	1.245300E+0	1.151499E+0	1.189284E+0	1.255914E+0	1.256085E+0	1.237087E+0	1.168110E+0	1.202277E+0	1.216508E+0	1.236298E+0	1.255341E+0	1.263826E+0	1.232076E+0	1.172341E+0	1.183214E+0	1.220289E+0	1.213712E+0	1.244819E+0	1.245621E+0	1.267874E+0	1.201511E+0	1.175016E+0	1.271602E+0	1.291352E+0	1.191383E+0	1.230554E+0	1.273506E+0	1.211081E+0	1.229001E+0	1.251413E+0	1.263870E+0	1.186315E+0	1.228955E+0	1.194988E+0	1.230875E+0	1.246152E+0	1.213770E+0	1.177255E+0	1.221227E+0	1.208426E+0	1.181036E+0	1.210341E+0	1.175859E+0	1.265842E+0	1.212854E+0	1.217018E+0	1.286085E+0	1.230475E+0	1.178617E+0	1.194409E+0	1.129224E+0	1.303514E+0	1.180656E+0	1.222864E+0	1.235755E+0	1.217700E+0	1.185272E+0	1.181357E+0	1.204222E+0	1.245446E+0	1.167601E+0	1.241498E+0	1.311451E+0	1.230414E+0	1.234315E+0	1.237961E+0	1.234874E+0	1.246539E+0	1.195551E+0	1.248101E+0	1.186141E+0	1.266735E+0	1.192413E+0	1.203991E+0	1.180761E+0	1.176340E+0	1.241857E+0	1.216461E+0	1.240241E+0	1.260434E+0	1.242461E+0	1.190307E+0	1.231653E+0	1.208976E+0	1.216047E+0	1.160738E+0	1.235397E+0	1.199985E+0	1.182020E+0	1.205434E+0	1.189453E+0	1.208523E+0	1.182155E+0	1.170295E+0	1.315462E+0	1.242475E+0	1.241885E+0	1.285513E+0	1.251888E+0	1.288952E+0	1.234923E+0	1.204834E+0	1.187047E+0	1.213880E+0	1.193159E+0	1.251640E+0	1.261894E+0	1.214409E+0	1.119122E+0
5.450040E+2	1.255929E+0	1.165648E+0	1.192104E+0	1.121738E+0	1.178909E+0	1.200116E+0	1.103633E+0	1.190493E+0	1.170680E+0	1.135463E+0	1.250913E+0	1.150149E+0	1.179922E+0	1.139944E+0	1.144739E+0	1.167503E+0	1.142842E+0	1.213426E+0	1.123012E+0	1.069273E+0	1.191573E+0	1.208346E+0	1.165184E+0	1.163033E+0	1.144363E+0	1.127729E+0	1.129083E+0	1.185041E+0	1.128506E+0	1.121166E+0	1.119319E+0	1.138668E+0	1.195446E+0	1.149196E+0	1.151402E+0	1.113128E+0	1.201693E+0	1.138728E+0	1.106575E+0	1.168324E+0	1.223950E+0	1.165830E+0	1.157482E+0	1.202214E+0	1.100791E+0	1.171083E+0	1.148504E+0	1.187446E+0	1.194874E+0	1.142028E+0	1.168601E+0	1.102188E+0	1.124732E+0	1.177626E+0	1.100282E+0	1.100727E+0	1.207228E+0	1.144557E+0	1.140853E+0	1.253879E+0	1.120475E+0	1.091828E+0	1.196283E+0	1.178657E+0	1.072250E+0	1.152120E+0	1.176348E+0	1.169867E+0	1.173220E+0	1.174269E+0	1.120669E+0	1.131359E+0	1.158061E+0	1.128105E+0	1.193670E+0	1.193904E+0	1.165535E+0	1.148096E+0	1.179664E+0	1.145170E+0	1.111663E+0	1.148198E+0	1.141846E+0	1.175437E+0	1.182213E+0	1.173106E+0	1.138758E+0	1.096478E+0	1.182989E+0	1.144548E+0	1.139098E+0	1.183832E+0	1.152460E+0	1.170917E+0	1.175602E+0	1.131480E+0	1.184573E+0	1.208472E+0	1.146362E+0	1.150866E+0	1.127491E+0	1.128988E+0	1.144764E+0	1.179418E+0	1.146952E+0	1.157664E+0	1.109968E+0	1.176266E+0	1.162106E+0	1.135803E+0	1.115862E+0	1.141867E+0	1.161005E+0	1.185493E+0	1.163578E+0	1.169517E+0	1.132898E+0	1.164635E+0	1.141333E+0	1.130298E+0	1.127138E+0	1.106259E+0	1.137709E+0	1.168223E+0	1.145196E+0	1.140208E+0	1.175342E+0	1.171496E+0	1.234032E+0	1.171722E+0	1.133632E+0	1.098307E+0	1.149052E+0	1.166607E+0	1.141758E+0	1.154895E+0	1.153291E+0	1.158261E+0	1.122343E+0	1.128813E+0	1.122846E+0	1.183166E+0	1.194013E+0	1.156524E+0	1.181914E+0	1.153287E+0	1.121236E+0	1.239472E+0	1.146653E+0	1.088487E+0	1.156247E+0	1.133678E+0	1.160096E+0	1.134085E+0	1.114386E+0	1.170538E+0	1.166544E+0	1.139512E+0	1.182941E+0	1.090658E+0	1.180050E+0	1.141342E+0	1.097663E+0	1.142258E+0	1.215649E+0	1.090015E+0	1.129200E+0	1.194937E+0	1.175176E+0	1.054715E+0
5.455230E+2	1.284565E+0	1.127104E+0	1.199673E+0	1.153414E+0	1.137647E+0	1.165602E+0	1.104749E+0	1.213874E+0	1.198651E+0	1.188280E+0	1.229313E+0	1.199810E+0	1.170296E+0	1.179995E+0	1.176671E+0	1.182699E+0	1.148986E+0	1.154267E+0	1.152878E+0	1.166378E+0	1.205707E+0	1.234050E+0	1.165404E+0	1.149560E+0	1.176767E+0	1.154893E+0	1.161132E+0	1.131015E+0	1.097392E+0	1.143051E+0	1.142980E+0	1.204150E+0	1.153103E+0	1.142920E+0	1.148635E+0	1.180741E+0	1.175447E+0	1.098602E+0	1.113619E+0	1.124425E+0	1.154215E+0	1.171799E+0	1.181590E+0	1.127012E+0	1.156138E+0	1.087585E+0	1.125304E+0	1.142843E+0	1.184119E+0	1.182220E+0	1.164786E+0	1.183501E+0	1.116977E+0	1.190918E+0	1.163254E+0	1.198582E+0	1.119971E+0	1.153457E+0	1.228715E+0	1.247504E+0	1.172202E+0	1.180404E+0	1.211260E+0	1.103948E+0	1.167458E+0	1.097094E+0	1.187179E+0	1.188496E+0	1.164068E+0	1.156480E+0	1.134497E+0	1.091178E+0	1.201962E+0	1.159304E+0	1.208707E+0	1.140608E+0	1.156499E+0	1.100223E+0	1.158309E+0	1.154861E+0	1.230065E+0	1.141285E+0	1.181484E+0	1.143471E+0	1.183451E+0	1.169277E+0	1.131516E+0	1.139287E+0	1.156282E+0	1.179663E+0	1.111051E+0	1.155549E+0	1.173566E+0	1.124976E+0	1.144059E+0	1.132808E+0	1.196226E+0	1.173868E+0	1.154134E+0	1.140502E+0	1.246135E+0	1.141981E+0	1.138915E+0	1.212259E+0	1.159642E+0	1.206930E+0	1.168500E+0	1.140212E+0	1.192968E+0	1.116304E+0	1.176442E+0	1.137007E+0	1.141969E+0	1.231249E+0	1.106478E+0	1.171154E+0	1.181921E+0	1.107214E+0	1.171643E+0	1.142321E+0	1.198124E+0	1.092653E+0	1.082946E+0	1.193766E+0	1.163315E+0	1.179520E+0	1.187735E+0	1.194195E+0	1.164156E+0	1.177802E+0	1.200556E+0	1.179756E+0	1.141651E+0	1.158325E+0	1.139017E+0	1.159093E+0	1.168682E+0	1.195621E+0	1.154167E+0	1.157703E+0	1.140424E+0	1.173139E+0	1.141921E+0	1.132619E+0	1.176882E+0	1.118652E+0	1.125967E+0	1.211600E+0	1.091321E+0	1.230639E+0	1.172283E+0	1.160362E+0	1.131108E+0	1.178470E+0	1.120568E+0	1.227647E+0	1.186909E+0	1.117530E+0	1.103845E+0	1.197020E+0	1.219232E+0	1.141402E+0	1.149729E+0	1.114575E+0	1.155881E+0	1.179586E+0	1.155120E+0	1.174334E+0	1.211988E+0	1.119401E+0
5.460160E+2	1.023364E+0	1.042399E+0	9.668178E-1	1.030953E+0	1.015714E+0	1.052441E+0	1.015238E+0	1.020286E+0	1.053885E+0	9.662822E-1	9.755270E-1	1.079940E+0	1.019710E+0	1.003614E+0	1.040842E+0	1.030625E+0	1.031842E+0	1.040866E+0	1.037204E+0	9.993508E-1	1.025331E+0	1.058463E+0	9.776475E-1	1.017442E+0	1.078930E+0	9.568117E-1	1.005267E+0	9.986251E-1	1.019620E+0	9.943155E-1	9.842538E-1	1.013918E+0	1.017192E+0	1.035133E+0	9.705181E-1	1.004372E+0	9.952237E-1	1.028013E+0	1.017846E+0	1.002606E+0	1.060378E+0	1.028985E+0	1.040715E+0	1.019290E+0	1.031455E+0	9.908085E-1	9.930610E-1	1.039125E+0	1.064358E+0	9.676998E-1	1.069993E+0	1.050557E+0	1.020891E+0	1.025708E+0	1.037086E+0	1.025988E+0	1.082748E+0	1.053608E+0	1.009292E+0	1.030456E+0	1.000533E+0	1.057035E+0	1.037311E+0	9.772437E-1	1.028377E+0	1.090475E+0	9.927832E-1	1.022519E+0	1.037019E+0	1.017788E+0	9.838461E-1	9.698696E-1	1.007590E+0	1.127283E+0	9.641411E-1	9.709533E-1	1.017315E+0	9.970817E-1	1.033197E+0	9.822819E-1	1.032154E+0	9.957900E-1	9.606637E-1	1.022209E+0	1.006197E+0	1.065928E+0	1.006974E+0	1.015620E+0	1.031232E+0	1.022217E+0	9.990348E-1	1.038632E+0	9.647552E-1	1.062605E+0	1.016171E+0	1.034001E+0	1.100648E+0	9.801898E-1	9.289461E-1	9.872219E-1	1.042030E+0	1.000603E+0	9.700334E-1	1.035774E+0	1.031182E+0	1.028391E+0	9.822845E-1	1.014982E+0	9.770833E-1	1.044266E+0	1.011314E+0	1.046666E+0	1.020354E+0	9.655197E-1	9.573648E-1	1.049034E+0	1.046658E+0	9.782148E-1	1.011976E+0	1.004819E+0	1.049983E+0	1.031486E+0	1.058099E+0	1.027469E+0	1.042903E+0	1.030026E+0	1.018305E+0	1.105137E+0	1.058149E+0	1.022040E+0	1.044532E+0	9.709870E-1	1.030294E+0	1.057843E+0	9.666498E-1	1.064897E+0	1.087693E+0	1.018091E+0	1.036904E+0	1.102660E+0	1.038208E+0	9.783789E-1	1.001134E+0	1.059873E+0	1.033212E+0	1.062804E+0	1.010947E+0	9.795923E-1	1.035796E+0	1.044310E+0	1.007899E+0	1.038003E+0	1.045807E+0	1.034364E+0	9.889960E-1	1.059535E+0	9.942194E-1	1.028749E+0	9.990007E-1	9.885396E-1	1.012778E+0	1.041868E+0	9.942079E-1	9.656118E-1	1.064125E+0	1.013123E+0	1.051589E+0	1.054204E+0	1.069404E+0	9.251561E-1
5.465100E+2	1.174369E+0	1.096215E+0	1.053305E+0	1.083210E+0	1.090710E+0	1.098535E+0	1.136309E+0	1.128565E+0	1.098132E+0	1.120768E+0	1.118016E+0	1.125907E+0	1.148966E+0	1.106094E+0	1.107288E+0	1.048766E+0	1.141247E+0	1.097462E+0	1.111756E+0	1.082838E+0	1.150938E+0	1.092788E+0	1.125874E+0	1.108903E+0	1.217417E+0	1.084936E+0	1.048998E+0	1.089653E+0	1.064229E+0	1.121756E+0	1.099932E+0	1.113383E+0	1.078745E+0	1.169597E+0	1.143936E+0	1.062072E+0	1.119475E+0	1.049347E+0	1.080455E+0	1.123695E+0	1.133594E+0	1.173718E+0	1.135514E+0	1.130165E+0	1.103551E+0	1.124721E+0	1.136334E+0	1.134883E+0	1.170790E+0	1.110498E+0	1.154198E+0	1.091184E+0	1.142654E+0	1.106349E+0	1.107494E+0	1.110558E+0	1.100954E+0	1.107068E+0	1.066070E+0	1.083604E+0	1.097743E+0	1.101709E+0	1.090111E+0	1.034409E+0	1.183227E+0	1.172814E+0	1.136680E+0	1.024254E+0	1.137552E+0	1.126322E+0	1.055870E+0	1.086898E+0	1.082932E+0	1.155453E+0	1.091615E+0	1.084245E+0	1.148526E+0	1.128938E+0	1.121151E+0	1.093445E+0	1.115527E+0	1.079748E+0	1.039272E+0	1.093598E+0	1.068773E+0	1.165567E+0	1.081893E+0	1.155227E+0	1.170128E+0	1.107551E+0	1.002196E+0	1.145374E+0	1.105439E+0	1.095002E+0	1.126343E+0	1.101279E+0	1.116362E+0	1.079375E+0	1.105851E+0	1.113387E+0	1.126703E+0	1.120342E+0	1.111638E+0	1.119511E+0	1.111672E+0	1.015669E+0	1.099517E+0	1.078623E+0	1.080038E+0	1.011666E+0	1.157683E+0	1.101346E+0	1.124496E+0	1.116702E+0	1.114026E+0	1.084035E+0	1.126019E+0	1.101986E+0	1.142551E+0	1.125447E+0	1.084029E+0	1.116074E+0	1.028308E+0	1.116980E+0	1.131913E+0	1.127782E+0	1.103047E+0	1.102396E+0	1.181093E+0	1.104419E+0	1.095164E+0	1.100680E+0	1.090546E+0	1.123102E+0	1.094634E+0	1.114553E+0	1.055068E+0	1.145834E+0	1.109988E+0	1.133404E+0	1.148461E+0	1.080503E+0	1.056733E+0	1.085204E+0	1.099229E+0	1.128934E+0	1.074604E+0	1.119438E+0	1.107160E+0	1.142205E+0	1.073558E+0	1.129329E+0	1.079932E+0	1.078570E+0	1.061519E+0	1.080784E+0	1.137114E+0	1.117476E+0	1.106981E+0	1.111584E+0	1.106681E+0	1.043692E+0	1.056952E+0	1.087817E+0	1.154323E+0	1.100841E+0	1.047870E+0	1.165542E+0	1.018039E+0	1.029328E+0
5.470160E+2	1.177699E+0	1.112459E+0	1.182725E+0	1.211594E+0	1.176771E+0	1.098379E+0	1.094936E+0	1.114867E+0	1.211250E+0	1.118453E+0	1.159472E+0	1.111544E+0	1.155518E+0	1.182274E+0	1.190351E+0	1.181333E+0	1.148642E+0	1.181609E+0	1.158804E+0	1.159746E+0	1.173357E+0	1.114470E+0	1.152704E+0	1.073597E+0	1.142111E+0	1.146388E+0	1.111826E+0	1.140962E+0	1.123284E+0	1.134422E+0	1.186326E+0	1.097596E+0	1.133635E+0	1.162357E+0	1.178648E+0	1.160935E+0	1.217175E+0	1.117556E+0	1.177259E+0	1.113910E+0	1.147626E+0	1.112317E+0	1.194267E+0	1.140734E+0	1.157096E+0	1.155391E+0	1.171229E+0	1.153361E+0	1.250752E+0	1.123757E+0	1.142168E+0	1.108146E+0	1.116831E+0	1.176506E+0	1.142267E+0	1.120812E+0	1.169151E+0	1.144805E+0	1.150764E+0	1.186941E+0	1.137084E+0	1.201659E+0	1.154111E+0	1.137322E+0	1.171817E+0	1.165151E+0	1.199437E+0	1.124671E+0	1.133283E+0	1.159909E+0	1.126034E+0	1.127192E+0	1.124983E+0	1.193226E+0	1.100212E+0	1.178584E+0	1.207356E+0	1.177835E+0	1.175110E+0	1.168034E+0	1.213062E+0	1.195460E+0	1.097206E+0	1.110502E+0	1.080524E+0	1.167350E+0	1.152619E+0	1.106557E+0	1.131566E+0	1.166402E+0	1.145180E+0	1.117760E+0	1.123421E+0	1.196162E+0	1.111841E+0	1.149368E+0	1.176800E+0	1.190194E+0	1.163397E+0	1.151486E+0	1.179363E+0	1.110074E+0	1.123141E+0	1.170538E+0	1.153997E+0	1.249331E+0	1.159086E+0	1.168972E+0	1.198529E+0	1.093400E+0	1.158859E+0	1.147337E+0	1.111034E+0	1.184416E+0	1.228220E+0	1.214906E+0	1.154558E+0	1.137542E+0	1.099700E+0	1.162252E+0	1.175124E+0	1.179828E+0	1.115268E+0	1.182829E+0	1.182214E+0	1.157368E+0	1.102717E+0	1.163852E+0	1.203281E+0	1.135491E+0	1.104191E+0	1.102671E+0	1.157333E+0	1.164368E+0	1.101117E+0	1.173695E+0	1.184436E+0	1.216548E+0	1.129924E+0	1.141036E+0	1.194929E+0	1.186050E+0	1.152907E+0	1.107541E+0	1.218994E+0	1.159451E+0	1.105133E+0	1.176559E+0	1.175655E+0	1.221099E+0	1.230313E+0	1.175127E+0	1.147871E+0	1.096637E+0	1.103427E+0	1.237748E+0	1.160266E+0	1.152377E+0	1.124692E+0	1.105892E+0	1.261738E+0	1.157508E+0	1.140190E+0	1.112392E+0	1.190903E+0	1.133853E+0	1.159219E+0	1.173731E+0	1.137310E+0	1.214385E+0
5.475120E+2	1.283779E+0	1.196448E+0	1.218317E+0	1.299891E+0	1.281402E+0	1.242311E+0	1.236937E+0	1.206855E+0	1.267753E+0	1.270002E+0	1.330129E+0	1.330710E+0	1.303637E+0	1.297642E+0	1.274543E+0	1.245719E+0	1.270443E+0	1.223632E+0	1.298177E+0	1.200718E+0	1.225466E+0	1.225349E+0	1.249776E+0	1.337299E+0	1.298308E+0	1.268207E+0	1.282395E+0	1.277699E+0	1.175074E+0	1.252793E+0	1.264661E+0	1.278154E+0	1.264570E+0	1.209227E+0	1.220890E+0	1.222114E+0	1.329410E+0	1.314577E+0	1.188530E+0	1.286634E+0	1.219422E+0	1.224100E+0	1.264811E+0	1.288819E+0	1.232003E+0	1.237596E+0	1.264447E+0	1.265047E+0	1.267600E+0	1.174281E+0	1.289928E+0	1.270297E+0	1.266400E+0	1.287880E+0	1.258291E+0	1.218642E+0	1.269626E+0	1.270509E+0	1.312925E+0	1.279940E+0	1.254183E+0	1.265580E+0	1.210907E+0	1.188177E+0	1.287407E+0	1.371451E+0	1.231497E+0	1.201769E+0	1.259719E+0	1.242637E+0	1.256557E+0	1.222331E+0	1.262728E+0	1.275745E+0	1.243582E+0	1.178307E+0	1.251303E+0	1.308537E+0	1.284234E+0	1.217221E+0	1.258568E+0	1.260880E+0	1.177643E+0	1.208555E+0	1.191910E+0	1.242010E+0	1.270047E+0	1.191971E+0	1.268555E+0	1.289745E+0	1.265683E+0	1.202879E+0	1.215504E+0	1.243640E+0	1.266803E+0	1.196080E+0	1.291128E+0	1.253455E+0	1.215193E+0	1.279124E+0	1.287252E+0	1.289239E+0	1.215205E+0	1.297904E+0	1.345792E+0	1.191965E+0	1.256436E+0	1.269394E+0	1.260865E+0	1.317017E+0	1.228913E+0	1.225968E+0	1.298951E+0	1.196457E+0	1.320592E+0	1.237675E+0	1.229931E+0	1.253414E+0	1.239572E+0	1.264744E+0	1.235196E+0	1.261728E+0	1.206159E+0	1.277058E+0	1.273358E+0	1.303389E+0	1.223303E+0	1.247275E+0	1.322461E+0	1.219253E+0	1.154738E+0	1.290298E+0	1.259895E+0	1.299725E+0	1.176097E+0	1.273801E+0	1.261646E+0	1.276665E+0	1.226931E+0	1.271396E+0	1.257140E+0	1.184104E+0	1.235090E+0	1.237093E+0	1.208366E+0	1.264647E+0	1.247161E+0	1.255727E+0	1.262430E+0	1.302546E+0	1.267325E+0	1.247357E+0	1.269615E+0	1.229496E+0	1.173631E+0	1.282865E+0	1.262802E+0	1.209279E+0	1.261427E+0	1.227750E+0	1.273137E+0	1.242382E+0	1.225354E+0	1.268805E+0	1.223216E+0	1.256057E+0	1.244889E+0	1.268428E+0	1.180022E+0	1.175395E+0
5.480420E+2	1.479046E+0	1.437187E+0	1.340177E+0	1.504342E+0	1.467455E+0	1.467080E+0	1.467526E+0	1.421201E+0	1.487127E+0	1.449293E+0	1.464109E+0	1.486196E+0	1.412690E+0	1.427671E+0	1.407951E+0	1.414749E+0	1.421261E+0	1.482732E+0	1.447535E+0	1.410006E+0	1.464151E+0	1.489484E+0	1.464855E+0	1.387100E+0	1.473628E+0	1.472277E+0	1.411089E+0	1.432138E+0	1.419844E+0	1.419343E+0	1.422526E+0	1.513954E+0	1.536665E+0	1.438851E+0	1.486762E+0	1.484249E+0	1.455559E+0	1.410993E+0	1.442134E+0	1.483113E+0	1.514227E+0	1.454119E+0	1.439039E+0	1.480601E+0	1.490405E+0	1.371096E+0	1.481167E+0	1.439251E+0	1.432393E+0	1.417170E+0	1.437323E+0	1.449218E+0	1.407865E+0	1.430589E+0	1.458091E+0	1.394481E+0	1.518380E+0	1.465790E+0	1.514983E+0	1.480461E+0	1.454632E+0	1.495411E+0	1.426488E+0	1.377952E+0	1.483925E+0	1.534198E+0	1.443244E+0	1.404034E+0	1.449573E+0	1.426189E+0	1.373666E+0	1.420176E+0	1.465388E+0	1.486818E+0	1.432352E+0	1.386380E+0	1.544241E+0	1.397238E+0	1.425495E+0	1.354929E+0	1.456528E+0	1.487685E+0	1.430809E+0	1.375146E+0	1.428311E+0	1.393610E+0	1.464370E+0	1.476909E+0	1.515673E+0	1.456776E+0	1.401654E+0	1.413646E+0	1.406622E+0	1.441327E+0	1.464937E+0	1.377572E+0	1.472546E+0	1.410879E+0	1.386979E+0	1.461318E+0	1.366497E+0	1.480541E+0	1.434699E+0	1.408177E+0	1.527312E+0	1.439468E+0	1.394806E+0	1.357128E+0	1.456194E+0	1.407336E+0	1.392119E+0	1.432453E+0	1.492248E+0	1.488434E+0	1.454580E+0	1.455038E+0	1.464545E+0	1.412313E+0	1.419225E+0	1.442150E+0	1.404557E+0	1.419945E+0	1.424347E+0	1.440380E+0	1.471030E+0	1.445518E+0	1.406913E+0	1.463526E+0	1.558775E+0	1.363342E+0	1.374387E+0	1.393872E+0	1.417677E+0	1.459472E+0	1.421949E+0	1.412377E+0	1.437789E+0	1.441154E+0	1.424792E+0	1.487003E+0	1.503983E+0	1.384866E+0	1.482782E+0	1.397839E+0	1.439466E+0	1.474382E+0	1.379671E+0	1.418200E+0	1.446355E+0	1.473215E+0	1.419241E+0	1.448281E+0	1.475016E+0	1.397836E+0	1.370495E+0	1.390751E+0	1.465875E+0	1.432492E+0	1.414555E+0	1.465743E+0	1.538943E+0	1.487670E+0	1.387778E+0	1.440135E+0	1.416542E+0	1.378932E+0	1.419431E+0	1.404924E+0	1.497899E+0	1.499270E+0
5.485060E+2	1.503499E+0	1.347350E+0	1.419753E+0	1.441078E+0	1.359635E+0	1.379937E+0	1.335920E+0	1.328471E+0	1.367511E+0	1.384023E+0	1.385177E+0	1.386271E+0	1.404238E+0	1.381333E+0	1.402267E+0	1.358945E+0	1.407301E+0	1.388628E+0	1.406997E+0	1.292228E+0	1.440595E+0	1.430293E+0	1.471243E+0	1.392501E+0	1.421373E+0	1.370607E+0	1.396454E+0	1.312867E+0	1.379010E+0	1.420117E+0	1.355737E+0	1.373486E+0	1.362549E+0	1.414485E+0	1.403399E+0	1.407411E+0	1.420251E+0	1.414911E+0	1.357232E+0	1.379260E+0	1.447213E+0	1.382649E+0	1.352271E+0	1.354550E+0	1.373433E+0	1.349334E+0	1.403694E+0	1.395259E+0	1.402840E+0	1.348769E+0	1.423999E+0	1.307239E+0	1.418269E+0	1.404437E+0	1.366816E+0	1.365903E+0	1.421831E+0	1.417144E+0	1.410991E+0	1.431341E+0	1.424399E+0	1.335435E+0	1.386852E+0	1.363855E+0	1.435477E+0	1.461231E+0	1.428135E+0	1.277702E+0	1.379216E+0	1.426919E+0	1.340597E+0	1.339421E+0	1.386540E+0	1.432760E+0	1.393996E+0	1.396804E+0	1.383309E+0	1.353958E+0	1.385905E+0	1.374799E+0	1.378544E+0	1.357896E+0	1.382090E+0	1.383606E+0	1.392568E+0	1.491762E+0	1.351012E+0	1.344755E+0	1.408509E+0	1.347692E+0	1.374713E+0	1.370414E+0	1.344521E+0	1.403328E+0	1.371193E+0	1.323624E+0	1.381166E+0	1.397907E+0	1.293269E+0	1.410798E+0	1.332867E+0	1.381613E+0	1.430504E+0	1.396783E+0	1.418311E+0	1.352582E+0	1.341665E+0	1.351093E+0	1.400152E+0	1.405485E+0	1.344398E+0	1.328388E+0	1.440175E+0	1.411521E+0	1.360128E+0	1.327554E+0	1.479235E+0	1.358106E+0	1.349722E+0	1.325096E+0	1.419861E+0	1.414144E+0	1.390868E+0	1.427288E+0	1.409585E+0	1.363749E+0	1.349247E+0	1.377913E+0	1.384643E+0	1.369600E+0	1.335619E+0	1.369521E+0	1.365100E+0	1.360203E+0	1.326803E+0	1.437614E+0	1.404651E+0	1.413109E+0	1.364821E+0	1.349937E+0	1.424325E+0	1.332875E+0	1.407721E+0	1.326935E+0	1.343447E+0	1.376287E+0	1.265835E+0	1.368782E+0	1.433035E+0	1.420709E+0	1.364613E+0	1.355357E+0	1.347675E+0	1.311631E+0	1.294005E+0	1.379516E+0	1.416836E+0	1.399589E+0	1.384072E+0	1.373273E+0	1.383036E+0	1.397522E+0	1.352989E+0	1.393658E+0	1.373840E+0	1.373557E+0	1.350525E+0	1.437598E+0	1.448398E+0	1.441805E+0
5.490320E+2	1.674936E+0	1.574207E+0	1.635706E+0	1.726470E+0	1.652214E+0	1.600525E+0	1.657717E+0	1.654873E+0	1.632673E+0	1.604784E+0	1.690014E+0	1.657862E+0	1.719887E+0	1.678917E+0	1.658859E+0	1.590848E+0	1.652338E+0	1.701454E+0	1.599024E+0	1.644481E+0	1.608262E+0	1.706741E+0	1.650780E+0	1.709844E+0	1.639999E+0	1.680847E+0	1.659990E+0	1.641143E+0	1.585518E+0	1.659218E+0	1.637472E+0	1.680876E+0	1.654287E+0	1.704197E+0	1.620471E+0	1.629542E+0	1.681806E+0	1.619939E+0	1.664516E+0	1.630088E+0	1.661729E+0	1.674608E+0	1.641623E+0	1.630355E+0	1.699091E+0	1.643300E+0	1.683028E+0	1.654628E+0	1.678192E+0	1.624424E+0	1.684369E+0	1.615773E+0	1.696332E+0	1.658700E+0	1.664934E+0	1.598239E+0	1.668010E+0	1.634864E+0	1.663058E+0	1.696780E+0	1.698924E+0	1.603376E+0	1.605527E+0	1.574534E+0	1.684684E+0	1.628091E+0	1.714254E+0	1.581666E+0	1.667410E+0	1.651060E+0	1.609892E+0	1.658305E+0	1.645202E+0	1.629537E+0	1.648951E+0	1.594252E+0	1.692930E+0	1.663638E+0	1.662117E+0	1.672247E+0	1.762729E+0	1.643614E+0	1.652667E+0	1.663715E+0	1.675508E+0	1.662055E+0	1.661564E+0	1.601153E+0	1.728050E+0	1.763110E+0	1.616783E+0	1.660019E+0	1.674473E+0	1.695046E+0	1.490579E+0	1.642905E+0	1.693631E+0	1.760834E+0	1.591891E+0	1.658076E+0	1.646700E+0	1.621183E+0	1.635929E+0	1.662228E+0	1.651486E+0	1.684972E+0	1.648984E+0	1.623400E+0	1.622957E+0	1.624958E+0	1.626618E+0	1.664825E+0	1.645853E+0	1.597561E+0	1.638070E+0	1.612987E+0	1.682234E+0	1.661024E+0	1.612161E+0	1.692578E+0	1.603059E+0	1.628772E+0	1.570161E+0	1.671407E+0	1.675570E+0	1.661371E+0	1.639777E+0	1.624557E+0	1.716182E+0	1.682667E+0	1.678103E+0	1.633697E+0	1.587109E+0	1.658864E+0	1.640565E+0	1.686276E+0	1.545204E+0	1.619475E+0	1.600679E+0	1.681130E+0	1.677501E+0	1.580390E+0	1.579465E+0	1.581305E+0	1.672274E+0	1.607356E+0	1.549794E+0	1.602124E+0	1.579616E+0	1.659287E+0	1.665068E+0	1.590727E+0	1.617742E+0	1.580395E+0	1.582217E+0	1.651769E+0	1.657676E+0	1.623534E+0	1.607226E+0	1.581496E+0	1.650241E+0	1.615520E+0	1.633189E+0	1.604983E+0	1.692819E+0	1.620012E+0	1.564508E+0	1.670650E+0	1.643903E+0	1.585214E+0
5.495100E+2	1.703109E+0	1.624630E+0	1.678963E+0	1.717949E+0	1.614342E+0	1.558560E+0	1.619432E+0	1.587698E+0	1.629839E+0	1.596761E+0	1.723865E+0	1.624541E+0	1.595738E+0	1.651829E+0	1.596777E+0	1.643753E+0	1.619351E+0	1.651430E+0	1.716578E+0	1.643627E+0	1.617780E+0	1.661193E+0	1.698651E+0	1.674871E+0	1.682339E+0	1.611924E+0	1.687144E+0	1.642414E+0	1.567441E+0	1.626677E+0	1.658426E+0	1.669080E+0	1.654041E+0	1.543960E+0	1.604916E+0	1.647456E+0	1.610401E+0	1.600158E+0	1.595313E+0	1.557035E+0	1.629602E+0	1.588230E+0	1.706647E+0	1.632323E+0	1.644193E+0	1.671350E+0	1.625247E+0	1.572775E+0	1.645189E+0	1.648589E+0	1.655111E+0	1.644246E+0	1.658332E+0	1.621760E+0	1.545898E+0	1.598647E+0	1.633473E+0	1.625886E+0	1.650148E+0	1.627572E+0	1.610397E+0	1.660999E+0	1.631622E+0	1.558219E+0	1.648608E+0	1.684912E+0	1.612065E+0	1.600794E+0	1.649257E+0	1.644049E+0	1.510744E+0	1.631454E+0	1.672662E+0	1.584320E+0	1.562679E+0	1.612777E+0	1.673477E+0	1.580918E+0	1.543101E+0	1.563025E+0	1.669994E+0	1.600736E+0	1.645215E+0	1.587662E+0	1.611276E+0	1.567012E+0	1.565879E+0	1.551466E+0	1.598911E+0	1.653270E+0	1.548962E+0	1.640090E+0	1.614848E+0	1.562299E+0	1.640148E+0	1.566865E+0	1.681115E+0	1.656490E+0	1.540020E+0	1.637310E+0	1.635449E+0	1.612842E+0	1.596828E+0	1.556108E+0	1.643047E+0	1.631633E+0	1.595557E+0	1.577022E+0	1.668683E+0	1.439215E+0	1.609132E+0	1.614786E+0	1.587180E+0	1.616114E+0	1.643319E+0	1.592132E+0	1.655437E+0	1.637187E+0	1.533277E+0	1.599275E+0	1.600035E+0	1.640607E+0	1.515048E+0	1.651297E+0	1.556979E+0	1.623942E+0	1.612910E+0	1.554375E+0	1.641731E+0	1.603548E+0	1.551150E+0	1.617083E+0	1.642941E+0	1.637536E+0	1.534113E+0	1.629645E+0	1.652302E+0	1.613134E+0	1.582626E+0	1.605037E+0	1.654754E+0	1.645563E+0	1.560490E+0	1.676872E+0	1.600649E+0	1.608869E+0	1.590145E+0	1.587056E+0	1.554473E+0	1.674622E+0	1.542227E+0	1.606349E+0	1.523232E+0	1.541557E+0	1.519062E+0	1.593893E+0	1.597667E+0	1.576786E+0	1.579153E+0	1.583659E+0	1.623931E+0	1.596304E+0	1.615272E+0	1.550379E+0	1.618210E+0	1.629875E+0	1.563605E+0	1.574202E+0	1.594194E+0	1.574250E+0
5.499880E+2	1.753019E+0	1.704008E+0	1.708827E+0	1.757970E+0	1.779258E+0	1.698904E+0	1.767277E+0	1.737321E+0	1.803297E+0	1.668509E+0	1.784573E+0	1.709945E+0	1.697137E+0	1.715285E+0	1.726879E+0	1.752619E+0	1.710952E+0	1.767918E+0	1.689452E+0	1.675018E+0	1.692006E+0	1.806393E+0	1.713578E+0	1.715138E+0	1.752373E+0	1.689788E+0	1.724571E+0	1.734593E+0	1.640743E+0	1.766975E+0	1.723837E+0	1.685180E+0	1.694543E+0	1.773643E+0	1.754034E+0	1.724411E+0	1.687040E+0	1.709997E+0	1.657087E+0	1.734753E+0	1.755103E+0	1.757504E+0	1.731868E+0	1.735994E+0	1.686419E+0	1.710683E+0	1.809138E+0	1.759493E+0	1.730326E+0	1.750849E+0	1.659673E+0	1.705116E+0	1.683623E+0	1.706187E+0	1.759564E+0	1.757356E+0	1.729082E+0	1.673814E+0	1.743447E+0	1.719373E+0	1.776219E+0	1.771703E+0	1.647785E+0	1.703364E+0	1.755343E+0	1.768111E+0	1.708451E+0	1.670930E+0	1.719384E+0	1.761920E+0	1.669181E+0	1.701311E+0	1.689642E+0	1.706654E+0	1.737859E+0	1.633340E+0	1.760846E+0	1.767232E+0	1.715922E+0	1.733212E+0	1.708378E+0	1.706687E+0	1.783757E+0	1.689190E+0	1.662989E+0	1.722192E+0	1.699182E+0	1.668433E+0	1.725719E+0	1.651469E+0	1.651288E+0	1.698512E+0	1.745737E+0	1.703398E+0	1.721070E+0	1.683202E+0	1.771076E+0	1.733839E+0	1.676792E+0	1.742037E+0	1.688455E+0	1.761090E+0	1.755270E+0	1.649298E+0	1.766400E+0	1.767845E+0	1.734658E+0	1.688196E+0	1.724303E+0	1.735497E+0	1.701792E+0	1.689542E+0	1.672567E+0	1.689376E+0	1.716677E+0	1.732925E+0	1.712332E+0	1.702804E+0	1.754963E+0	1.700518E+0	1.700675E+0	1.671366E+0	1.681497E+0	1.677960E+0	1.726643E+0	1.723011E+0	1.743525E+0	1.672170E+0	1.737512E+0	1.703630E+0	1.692660E+0	1.648724E+0	1.696609E+0	1.707156E+0	1.626872E+0	1.685969E+0	1.698716E+0	1.761465E+0	1.710617E+0	1.731052E+0	1.715952E+0	1.717079E+0	1.714226E+0	1.624361E+0	1.734850E+0	1.667185E+0	1.618805E+0	1.650828E+0	1.641172E+0	1.798220E+0	1.650832E+0	1.711243E+0	1.681996E+0	1.642269E+0	1.659689E+0	1.788291E+0	1.700850E+0	1.757329E+0	1.692456E+0	1.625766E+0	1.814851E+0	1.657439E+0	1.633341E+0	1.711513E+0	1.734833E+0	1.737778E+0	1.710304E+0	1.718682E+0	1.732416E+0	1.606602E+0
5.505170E+2	1.737395E+0	1.722962E+0	1.734496E+0	1.741061E+0	1.699434E+0	1.707082E+0	1.741605E+0	1.632801E+0	1.761790E+0	1.692942E+0	1.753595E+0	1.791490E+0	1.681497E+0	1.738077E+0	1.762805E+0	1.746943E+0	1.740963E+0	1.750655E+0	1.764605E+0	1.714103E+0	1.710570E+0	1.712012E+0	1.777024E+0	1.782712E+0	1.769505E+0	1.734360E+0	1.686346E+0	1.812348E+0	1.666728E+0	1.705824E+0	1.707100E+0	1.782768E+0	1.739671E+0	1.782153E+0	1.746021E+0	1.742764E+0	1.757802E+0	1.726901E+0	1.672390E+0	1.747053E+0	1.654976E+0	1.745366E+0	1.754907E+0	1.784059E+0	1.718155E+0	1.643874E+0	1.766365E+0	1.724021E+0	1.712408E+0	1.740900E+0	1.745486E+0	1.748941E+0	1.715631E+0	1.756338E+0	1.807646E+0	1.704827E+0	1.754120E+0	1.665632E+0	1.741090E+0	1.652967E+0	1.676577E+0	1.717004E+0	1.712572E+0	1.624700E+0	1.672706E+0	1.776085E+0	1.729800E+0	1.696439E+0	1.749132E+0	1.756611E+0	1.678423E+0	1.657432E+0	1.747954E+0	1.752778E+0	1.725191E+0	1.679284E+0	1.650209E+0	1.704726E+0	1.754674E+0	1.749766E+0	1.693938E+0	1.743539E+0	1.680309E+0	1.687270E+0	1.695181E+0	1.747594E+0	1.759450E+0	1.712647E+0	1.706624E+0	1.771233E+0	1.664592E+0	1.692056E+0	1.710117E+0	1.693597E+0	1.712218E+0	1.663737E+0	1.685594E+0	1.704865E+0	1.679633E+0	1.733512E+0	1.704034E+0	1.660804E+0	1.754125E+0	1.676271E+0	1.685891E+0	1.751726E+0	1.706053E+0	1.656819E+0	1.781081E+0	1.622931E+0	1.733164E+0	1.712875E+0	1.739110E+0	1.752863E+0	1.702159E+0	1.736238E+0	1.723147E+0	1.669926E+0	1.737563E+0	1.733544E+0	1.644535E+0	1.694639E+0	1.642465E+0	1.723149E+0	1.753677E+0	1.751818E+0	1.716829E+0	1.692042E+0	1.747548E+0	1.663043E+0	1.701742E+0	1.690734E+0	1.750029E+0	1.633488E+0	1.769601E+0	1.703929E+0	1.718181E+0	1.756201E+0	1.651777E+0	1.756784E+0	1.718938E+0	1.716516E+0	1.654165E+0	1.620372E+0	1.739363E+0	1.664202E+0	1.698471E+0	1.690135E+0	1.705720E+0	1.663958E+0	1.735602E+0	1.653132E+0	1.674099E+0	1.663468E+0	1.656319E+0	1.688368E+0	1.671928E+0	1.599243E+0	1.608255E+0	1.672640E+0	1.792206E+0	1.723914E+0	1.641703E+0	1.715858E+0	1.754351E+0	1.650784E+0	1.686307E+0	1.650477E+0	1.838470E+0	1.626749E+0
5.510630E+2	1.514656E+0	1.515359E+0	1.498202E+0	1.488684E+0	1.488248E+0	1.485983E+0	1.463268E+0	1.480446E+0	1.495735E+0	1.464553E+0	1.509993E+0	1.497762E+0	1.435989E+0	1.460583E+0	1.524274E+0	1.473643E+0	1.458139E+0	1.582970E+0	1.499972E+0	1.486469E+0	1.422499E+0	1.503170E+0	1.498428E+0	1.439427E+0	1.539425E+0	1.557119E+0	1.485677E+0	1.501798E+0	1.411056E+0	1.507231E+0	1.485295E+0	1.510542E+0	1.428388E+0	1.468680E+0	1.427145E+0	1.416853E+0	1.503369E+0	1.433147E+0	1.471048E+0	1.467552E+0	1.544415E+0	1.464720E+0	1.482159E+0	1.465594E+0	1.412519E+0	1.428966E+0	1.484702E+0	1.443572E+0	1.476150E+0	1.472391E+0	1.469743E+0	1.480060E+0	1.472318E+0	1.515029E+0	1.554059E+0	1.446760E+0	1.486366E+0	1.449537E+0	1.488360E+0	1.407526E+0	1.468574E+0	1.560774E+0	1.488909E+0	1.469564E+0	1.486363E+0	1.580228E+0	1.476143E+0	1.457203E+0	1.467779E+0	1.495515E+0	1.426850E+0	1.452057E+0	1.415284E+0	1.558879E+0	1.480174E+0	1.438618E+0	1.515089E+0	1.470401E+0	1.513325E+0	1.398396E+0	1.473303E+0	1.434098E+0	1.497175E+0	1.511682E+0	1.475741E+0	1.494631E+0	1.461548E+0	1.434520E+0	1.528926E+0	1.490783E+0	1.411793E+0	1.428642E+0	1.437136E+0	1.495354E+0	1.398902E+0	1.406360E+0	1.472404E+0	1.476051E+0	1.463759E+0	1.464474E+0	1.462218E+0	1.502387E+0	1.499909E+0	1.485347E+0	1.470738E+0	1.519625E+0	1.437683E+0	1.444031E+0	1.489220E+0	1.506981E+0	1.492314E+0	1.465604E+0	1.434078E+0	1.512014E+0	1.526677E+0	1.468677E+0	1.475667E+0	1.470197E+0	1.440950E+0	1.398244E+0	1.448314E+0	1.441962E+0	1.397637E+0	1.523796E+0	1.497812E+0	1.513128E+0	1.455358E+0	1.478159E+0	1.520322E+0	1.465317E+0	1.519918E+0	1.426301E+0	1.448614E+0	1.529100E+0	1.469719E+0	1.446252E+0	1.512295E+0	1.456316E+0	1.473406E+0	1.477210E+0	1.467299E+0	1.512277E+0	1.506425E+0	1.439509E+0	1.503296E+0	1.435893E+0	1.467232E+0	1.476244E+0	1.458730E+0	1.497286E+0	1.460821E+0	1.487787E+0	1.429211E+0	1.425394E+0	1.450986E+0	1.456666E+0	1.476998E+0	1.490702E+0	1.460207E+0	1.505449E+0	1.557738E+0	1.472344E+0	1.478590E+0	1.486823E+0	1.474862E+0	1.417646E+0	1.490182E+0	1.465511E+0	1.386153E+0	1.387525E+0
5.515170E+2	1.598525E+0	1.477075E+0	1.474569E+0	1.540935E+0	1.501146E+0	1.534948E+0	1.466238E+0	1.466765E+0	1.483479E+0	1.586696E+0	1.530921E+0	1.468339E+0	1.563260E+0	1.478621E+0	1.484301E+0	1.533309E+0	1.497070E+0	1.506517E+0	1.504844E+0	1.418351E+0	1.500782E+0	1.489165E+0	1.556362E+0	1.540756E+0	1.522333E+0	1.522087E+0	1.457787E+0	1.462996E+0	1.425108E+0	1.485757E+0	1.522821E+0	1.543416E+0	1.447240E+0	1.469471E+0	1.515868E+0	1.507660E+0	1.486391E+0	1.415571E+0	1.463297E+0	1.518254E+0	1.515051E+0	1.472429E+0	1.492338E+0	1.448776E+0	1.472497E+0	1.449455E+0	1.482383E+0	1.477638E+0	1.517921E+0	1.521942E+0	1.451142E+0	1.531128E+0	1.509619E+0	1.529487E+0	1.525004E+0	1.498350E+0	1.525201E+0	1.497393E+0	1.553845E+0	1.517346E+0	1.474292E+0	1.567735E+0	1.484143E+0	1.497187E+0	1.496586E+0	1.571691E+0	1.559357E+0	1.452513E+0	1.474835E+0	1.509657E+0	1.425907E+0	1.444095E+0	1.462140E+0	1.499184E+0	1.543882E+0	1.477858E+0	1.492756E+0	1.559608E+0	1.461248E+0	1.400160E+0	1.483053E+0	1.401273E+0	1.443877E+0	1.406501E+0	1.430224E+0	1.523127E+0	1.530950E+0	1.458391E+0	1.498428E+0	1.467218E+0	1.532183E+0	1.521667E+0	1.433229E+0	1.506808E+0	1.455632E+0	1.471044E+0	1.507727E+0	1.472618E+0	1.404733E+0	1.440872E+0	1.456066E+0	1.498127E+0	1.493413E+0	1.480497E+0	1.501383E+0	1.473203E+0	1.477504E+0	1.502647E+0	1.446886E+0	1.421169E+0	1.531212E+0	1.501877E+0	1.533365E+0	1.564043E+0	1.541159E+0	1.521623E+0	1.484638E+0	1.496101E+0	1.409282E+0	1.500950E+0	1.548196E+0	1.487825E+0	1.435901E+0	1.543272E+0	1.518340E+0	1.528779E+0	1.491598E+0	1.503522E+0	1.438808E+0	1.518802E+0	1.515811E+0	1.461220E+0	1.499748E+0	1.477645E+0	1.455206E+0	1.531227E+0	1.464554E+0	1.484732E+0	1.494468E+0	1.508993E+0	1.475469E+0	1.539405E+0	1.495053E+0	1.457699E+0	1.495355E+0	1.497470E+0	1.422399E+0	1.607417E+0	1.478900E+0	1.477430E+0	1.538506E+0	1.440572E+0	1.489912E+0	1.393519E+0	1.490094E+0	1.468888E+0	1.501026E+0	1.467268E+0	1.502661E+0	1.449727E+0	1.429690E+0	1.485071E+0	1.438030E+0	1.424632E+0	1.459147E+0	1.480943E+0	1.477486E+0	1.466094E+0	1.453830E+0	1.501029E+0
5.520040E+2	1.331604E+0	1.237925E+0	1.303377E+0	1.279686E+0	1.241176E+0	1.291527E+0	1.295127E+0	1.269063E+0	1.311860E+0	1.256622E+0	1.308312E+0	1.293504E+0	1.239576E+0	1.300743E+0	1.300389E+0	1.323424E+0	1.321397E+0	1.242655E+0	1.228248E+0	1.239054E+0	1.275699E+0	1.347472E+0	1.317451E+0	1.276981E+0	1.338086E+0	1.330862E+0	1.338082E+0	1.303629E+0	1.208804E+0	1.307559E+0	1.214833E+0	1.292749E+0	1.254735E+0	1.307784E+0	1.265680E+0	1.233427E+0	1.322682E+0	1.324499E+0	1.268232E+0	1.267870E+0	1.270257E+0	1.252606E+0	1.264934E+0	1.269503E+0	1.309602E+0	1.347929E+0	1.260623E+0	1.287673E+0	1.246663E+0	1.358938E+0	1.347201E+0	1.237323E+0	1.269583E+0	1.305827E+0	1.299184E+0	1.309984E+0	1.423785E+0	1.288161E+0	1.308994E+0	1.309055E+0	1.216991E+0	1.319089E+0	1.293008E+0	1.217773E+0	1.324168E+0	1.322770E+0	1.287438E+0	1.278542E+0	1.266407E+0	1.321807E+0	1.281982E+0	1.237013E+0	1.202273E+0	1.314291E+0	1.257341E+0	1.264885E+0	1.277366E+0	1.299763E+0	1.288849E+0	1.268376E+0	1.283508E+0	1.323968E+0	1.301897E+0	1.251059E+0	1.297576E+0	1.308328E+0	1.314697E+0	1.243453E+0	1.257536E+0	1.283732E+0	1.255307E+0	1.263372E+0	1.237121E+0	1.295392E+0	1.266159E+0	1.248927E+0	1.251700E+0	1.250893E+0	1.288226E+0	1.294598E+0	1.267667E+0	1.292062E+0	1.265502E+0	1.284120E+0	1.270904E+0	1.325588E+0	1.272653E+0	1.243554E+0	1.284909E+0	1.280812E+0	1.296780E+0	1.294829E+0	1.228429E+0	1.314168E+0	1.280134E+0	1.248048E+0	1.207573E+0	1.231980E+0	1.298011E+0	1.270948E+0	1.244833E+0	1.320231E+0	1.276844E+0	1.300299E+0	1.302939E+0	1.291464E+0	1.243183E+0	1.265334E+0	1.314415E+0	1.284461E+0	1.289833E+0	1.245304E+0	1.238999E+0	1.255823E+0	1.261769E+0	1.287326E+0	1.225878E+0	1.313705E+0	1.264718E+0	1.304508E+0	1.267473E+0	1.233900E+0	1.235900E+0	1.328967E+0	1.323047E+0	1.261082E+0	1.278093E+0	1.253052E+0	1.301897E+0	1.307806E+0	1.293821E+0	1.244621E+0	1.253124E+0	1.226800E+0	1.240049E+0	1.317475E+0	1.298328E+0	1.266831E+0	1.276403E+0	1.217457E+0	1.412095E+0	1.283099E+0	1.241528E+0	1.329250E+0	1.313332E+0	1.268730E+0	1.259772E+0	1.321979E+0	1.365198E+0	1.261489E+0
5.525040E+2	1.345544E+0	1.214492E+0	1.261400E+0	1.175340E+0	1.293681E+0	1.226462E+0	1.232567E+0	1.249713E+0	1.314117E+0	1.267631E+0	1.304380E+0	1.317623E+0	1.281039E+0	1.292522E+0	1.210002E+0	1.275831E+0	1.245599E+0	1.299962E+0	1.303492E+0	1.264314E+0	1.279161E+0	1.274246E+0	1.302546E+0	1.286973E+0	1.274782E+0	1.291667E+0	1.233982E+0	1.272463E+0	1.244916E+0	1.236042E+0	1.283143E+0	1.285555E+0	1.261009E+0	1.217969E+0	1.235964E+0	1.177173E+0	1.316812E+0	1.283028E+0	1.262048E+0	1.230065E+0	1.306849E+0	1.179309E+0	1.274216E+0	1.210925E+0	1.218498E+0	1.204337E+0	1.272035E+0	1.225285E+0	1.233439E+0	1.236087E+0	1.237586E+0	1.240812E+0	1.273956E+0	1.257893E+0	1.302880E+0	1.258796E+0	1.274489E+0	1.240941E+0	1.262296E+0	1.225787E+0	1.271033E+0	1.282730E+0	1.238191E+0	1.201168E+0	1.272630E+0	1.267610E+0	1.251273E+0	1.269001E+0	1.310235E+0	1.258574E+0	1.228498E+0	1.229076E+0	1.230131E+0	1.278231E+0	1.287205E+0	1.207610E+0	1.271574E+0	1.296470E+0	1.260482E+0	1.296587E+0	1.323612E+0	1.189007E+0	1.228298E+0	1.267709E+0	1.246244E+0	1.292064E+0	1.278599E+0	1.230441E+0	1.315301E+0	1.220874E+0	1.244784E+0	1.242367E+0	1.225646E+0	1.301881E+0	1.302504E+0	1.248095E+0	1.213622E+0	1.289736E+0	1.201068E+0	1.236783E+0	1.272169E+0	1.225034E+0	1.236453E+0	1.195063E+0	1.223539E+0	1.308352E+0	1.219421E+0	1.259995E+0	1.252664E+0	1.215123E+0	1.260510E+0	1.249090E+0	1.221585E+0	1.278359E+0	1.219389E+0	1.226784E+0	1.195519E+0	1.230978E+0	1.236159E+0	1.266444E+0	1.317383E+0	1.345384E+0	1.212914E+0	1.275519E+0	1.252215E+0	1.319450E+0	1.279132E+0	1.246401E+0	1.258442E+0	1.276765E+0	1.291398E+0	1.258081E+0	1.240602E+0	1.251052E+0	1.298970E+0	1.240858E+0	1.287214E+0	1.232411E+0	1.197908E+0	1.269122E+0	1.198458E+0	1.280233E+0	1.248330E+0	1.221148E+0	1.230496E+0	1.240134E+0	1.203943E+0	1.283226E+0	1.233561E+0	1.255163E+0	1.207106E+0	1.215488E+0	1.322396E+0	1.181940E+0	1.210234E+0	1.259354E+0	1.285271E+0	1.245666E+0	1.259120E+0	1.221000E+0	1.248919E+0	1.306485E+0	1.223370E+0	1.237820E+0	1.300117E+0	1.217936E+0	1.242969E+0	1.302374E+0	1.286373E+0	1.134261E+0
5.530150E+2	1.233337E+0	1.084901E+0	1.157446E+0	1.181428E+0	1.175558E+0	1.144022E+0	1.105766E+0	1.110364E+0	1.176580E+0	1.172304E+0	1.201431E+0	1.189694E+0	1.159848E+0	1.187414E+0	1.208285E+0	1.182238E+0	1.198293E+0	1.178747E+0	1.199612E+0	1.178732E+0	1.167018E+0	1.266608E+0	1.217413E+0	1.184939E+0	1.155066E+0	1.116944E+0	1.173885E+0	1.157828E+0	1.165849E+0	1.178396E+0	1.184631E+0	1.199843E+0	1.172629E+0	1.154952E+0	1.163979E+0	1.135499E+0	1.181951E+0	1.140414E+0	1.122759E+0	1.146066E+0	1.210986E+0	1.140447E+0	1.150832E+0	1.231605E+0	1.175204E+0	1.141349E+0	1.187822E+0	1.230909E+0	1.171661E+0	1.133994E+0	1.216544E+0	1.126902E+0	1.221498E+0	1.151610E+0	1.174008E+0	1.221061E+0	1.130648E+0	1.132483E+0	1.194026E+0	1.182596E+0	1.183758E+0	1.191635E+0	1.202737E+0	1.179739E+0	1.202579E+0	1.151433E+0	1.160685E+0	1.159042E+0	1.134679E+0	1.199701E+0	1.136602E+0	1.146290E+0	1.217796E+0	1.145550E+0	1.172386E+0	1.182775E+0	1.162795E+0	1.200966E+0	1.181642E+0	1.162964E+0	1.156198E+0	1.203099E+0	1.147498E+0	1.251420E+0	1.158617E+0	1.213620E+0	1.231860E+0	1.144615E+0	1.221653E+0	1.227026E+0	1.105124E+0	1.138553E+0	1.190734E+0	1.230840E+0	1.102872E+0	1.130042E+0	1.136935E+0	1.226299E+0	1.076395E+0	1.164897E+0	1.191818E+0	1.164892E+0	1.161068E+0	1.157490E+0	1.093509E+0	1.262593E+0	1.127002E+0	1.226991E+0	1.167354E+0	1.075719E+0	1.158273E+0	1.197065E+0	1.146927E+0	1.183927E+0	1.175742E+0	1.225405E+0	1.211625E+0	1.131349E+0	1.147508E+0	1.167796E+0	1.149156E+0	1.219298E+0	1.107555E+0	1.188822E+0	1.219854E+0	1.133565E+0	1.153232E+0	1.135540E+0	1.157158E+0	1.265070E+0	1.169744E+0	1.159356E+0	1.146517E+0	1.145552E+0	1.161578E+0	1.183190E+0	1.171874E+0	1.203134E+0	1.149964E+0	1.168543E+0	1.176722E+0	1.158108E+0	1.191475E+0	1.157471E+0	1.117268E+0	1.195163E+0	1.115101E+0	1.217063E+0	1.152896E+0	1.150519E+0	1.137177E+0	1.141567E+0	1.161827E+0	1.123246E+0	1.091303E+0	1.161506E+0	1.169972E+0	1.209716E+0	1.166801E+0	1.156699E+0	1.174755E+0	1.155447E+0	1.163250E+0	1.257272E+0	1.163775E+0	1.131347E+0	1.167379E+0	1.191916E+0	1.239860E+0	1.032915E+0
5.535050E+2	1.072819E+0	1.041876E+0	1.060197E+0	1.074925E+0	1.017934E+0	1.034799E+0	1.021085E+0	1.010466E+0	1.009673E+0	1.012747E+0	1.036748E+0	1.054156E+0	9.988987E-1	9.960894E-1	1.066786E+0	1.051925E+0	1.018550E+0	1.058604E+0	1.061737E+0	1.046829E+0	1.050907E+0	1.087135E+0	9.842721E-1	1.011203E+0	1.023250E+0	1.064988E+0	1.044386E+0	1.013338E+0	1.017780E+0	1.049849E+0	9.801894E-1	1.024519E+0	1.080423E+0	1.038399E+0	1.063834E+0	1.072135E+0	1.015792E+0	1.051763E+0	1.046094E+0	9.965529E-1	1.005401E+0	1.045134E+0	1.094406E+0	1.066394E+0	1.036702E+0	1.019807E+0	9.771582E-1	1.079265E+0	1.031790E+0	1.073044E+0	1.057302E+0	1.055949E+0	9.857834E-1	1.056344E+0	1.010500E+0	1.033465E+0	1.059738E+0	1.046342E+0	9.766284E-1	1.059003E+0	1.006807E+0	1.019111E+0	9.707241E-1	9.969832E-1	9.830918E-1	1.078835E+0	1.066404E+0	1.056032E+0	1.046475E+0	1.026356E+0	9.959661E-1	1.015932E+0	1.026506E+0	1.079255E+0	9.751748E-1	1.039808E+0	1.003602E+0	1.035663E+0	1.055581E+0	1.010207E+0	1.096391E+0	1.067744E+0	1.004600E+0	9.892338E-1	1.033203E+0	1.065445E+0	1.014942E+0	9.727462E-1	1.078857E+0	1.073491E+0	1.032088E+0	9.878070E-1	1.031362E+0	1.073094E+0	1.045108E+0	1.003403E+0	1.053352E+0	1.032274E+0	1.011009E+0	1.021929E+0	1.040215E+0	1.044466E+0	1.021836E+0	9.825962E-1	9.765471E-1	1.027694E+0	1.050453E+0	1.080666E+0	1.031802E+0	1.003536E+0	1.004815E+0	1.004852E+0	9.973981E-1	1.102649E+0	1.049143E+0	1.005759E+0	1.027298E+0	1.052944E+0	9.752944E-1	1.024481E+0	9.898473E-1	1.110286E+0	1.019590E+0	1.038575E+0	1.024000E+0	1.051313E+0	1.035732E+0	1.063974E+0	1.033228E+0	1.052140E+0	1.041921E+0	1.010133E+0	1.008421E+0	1.020071E+0	9.925394E-1	1.016838E+0	9.992028E-1	1.050505E+0	9.731871E-1	9.453054E-1	1.028674E+0	1.081584E+0	1.075070E+0	9.880237E-1	9.713551E-1	1.051698E+0	9.877279E-1	1.073486E+0	1.001083E+0	1.035734E+0	1.092699E+0	1.042737E+0	1.012265E+0	9.764025E-1	9.623972E-1	1.074162E+0	1.001725E+0	1.079519E+0	9.911742E-1	1.034549E+0	1.030683E+0	1.044816E+0	1.027999E+0	1.030827E+0	1.032050E+0	1.003122E+0	1.051860E+0	1.077198E+0	1.016409E+0	1.077372E+0
5.540130E+2	9.974075E-1	1.075376E+0	1.004212E+0	1.085313E+0	1.060805E+0	1.073685E+0	1.021444E+0	1.002779E+0	1.064226E+0	1.081417E+0	1.129369E+0	1.106782E+0	1.081645E+0	1.046081E+0	1.073910E+0	1.033316E+0	1.081248E+0	1.056480E+0	1.016205E+0	1.012277E+0	1.063386E+0	1.071073E+0	1.008213E+0	1.050181E+0	1.139595E+0	1.047309E+0	1.046415E+0	1.019406E+0	1.035838E+0	1.003985E+0	1.010228E+0	1.056849E+0	1.070190E+0	1.023881E+0	1.107162E+0	1.045761E+0	1.048882E+0	1.041109E+0	1.022496E+0	1.049426E+0	1.086518E+0	1.119474E+0	1.112241E+0	1.014035E+0	1.030936E+0	1.014828E+0	1.105484E+0	1.015051E+0	1.091961E+0	1.040726E+0	1.082822E+0	1.095074E+0	1.097027E+0	1.090821E+0	1.032954E+0	1.051581E+0	1.041076E+0	1.068459E+0	1.125544E+0	1.056087E+0	1.044835E+0	1.040172E+0	1.010526E+0	1.026517E+0	1.069738E+0	1.055524E+0	1.081727E+0	1.056362E+0	9.895169E-1	1.122360E+0	1.072437E+0	1.068494E+0	1.078409E+0	1.155586E+0	1.024171E+0	1.066048E+0	1.015714E+0	1.044547E+0	1.052089E+0	1.040058E+0	1.068146E+0	1.065492E+0	1.065492E+0	1.031709E+0	1.032902E+0	1.077876E+0	1.059076E+0	1.056305E+0	1.032724E+0	1.020796E+0	1.012391E+0	1.089006E+0	1.051712E+0	1.123101E+0	1.042399E+0	1.030141E+0	1.016366E+0	1.046000E+0	1.027625E+0	1.040859E+0	1.031264E+0	1.062771E+0	1.084694E+0	1.017565E+0	1.023017E+0	1.110528E+0	1.102833E+0	1.077408E+0	1.078476E+0	1.060017E+0	1.060842E+0	1.035154E+0	1.034662E+0	1.101921E+0	9.917530E-1	1.082639E+0	1.012764E+0	1.074715E+0	1.052056E+0	1.078901E+0	1.088529E+0	1.071087E+0	9.529224E-1	1.099774E+0	1.103019E+0	1.158073E+0	1.082422E+0	1.047324E+0	1.044771E+0	1.082504E+0	1.058603E+0	1.086528E+0	1.010743E+0	1.016603E+0	1.083225E+0	1.116184E+0	1.014582E+0	1.004229E+0	1.057755E+0	1.076988E+0	1.076512E+0	1.081324E+0	1.017351E+0	1.023704E+0	1.030660E+0	1.062864E+0	1.052184E+0	1.091865E+0	1.029708E+0	9.871470E-1	1.064424E+0	1.053719E+0	1.046464E+0	9.852257E-1	9.906749E-1	1.079657E+0	1.028061E+0	1.045248E+0	1.071029E+0	1.062876E+0	1.115608E+0	1.026165E+0	9.915688E-1	1.020722E+0	1.073081E+0	1.020291E+0	1.022104E+0	1.077682E+0	1.151498E+0	1.057905E+0
5.550190E+2	1.077592E+0	1.009586E+0	9.900808E-1	9.531040E-1	1.011506E+0	1.045512E+0	1.063819E+0	9.973551E-1	1.005346E+0	1.018558E+0	1.068244E+0	1.063277E+0	1.044042E+0	1.026748E+0	1.038212E+0	1.055626E+0	9.714167E-1	1.023163E+0	1.103209E+0	9.895504E-1	1.094068E+0	1.100985E+0	1.021975E+0	1.061438E+0	1.046074E+0	1.060516E+0	1.009690E+0	1.130299E+0	9.522371E-1	9.916048E-1	1.053124E+0	1.052290E+0	9.655220E-1	9.800703E-1	1.012506E+0	1.073202E+0	1.061887E+0	1.047324E+0	1.025130E+0	1.059000E+0	1.078303E+0	1.011526E+0	1.046828E+0	1.042938E+0	9.899663E-1	1.066524E+0	1.126950E+0	1.081134E+0	1.009980E+0	1.059502E+0	1.047132E+0	1.065075E+0	1.024027E+0	1.050837E+0	1.066224E+0	1.080212E+0	9.810992E-1	1.056734E+0	1.072261E+0	1.074693E+0	1.029513E+0	1.032547E+0	1.093091E+0	1.035359E+0	1.110972E+0	1.077175E+0	9.800720E-1	9.961263E-1	1.032413E+0	1.034223E+0	1.009658E+0	1.027092E+0	1.062857E+0	1.047255E+0	1.055261E+0	1.116953E+0	1.084537E+0	9.806939E-1	1.049818E+0	1.044959E+0	1.040174E+0	1.088672E+0	1.046428E+0	1.013642E+0	1.051612E+0	1.054008E+0	1.070015E+0	1.026273E+0	1.123269E+0	1.030790E+0	9.782627E-1	1.047170E+0	1.014808E+0	1.058054E+0	1.037724E+0	1.032450E+0	1.092084E+0	1.041357E+0	9.797987E-1	1.071151E+0	9.758472E-1	1.071580E+0	1.035241E+0	1.025543E+0	1.024817E+0	1.005095E+0	1.081152E+0	1.095442E+0	1.042660E+0	1.017415E+0	1.068518E+0	1.061397E+0	1.036615E+0	1.070750E+0	1.018646E+0	1.038354E+0	1.013894E+0	1.037540E+0	1.061600E+0	1.065520E+0	1.054334E+0	1.075884E+0	9.883944E-1	1.043187E+0	1.011623E+0	1.029627E+0	1.059607E+0	1.071572E+0	1.070178E+0	1.063476E+0	1.061315E+0	1.044600E+0	1.089038E+0	9.947415E-1	1.027589E+0	1.009488E+0	1.096217E+0	1.041801E+0	1.075429E+0	9.732867E-1	1.047046E+0	1.030306E+0	1.067588E+0	1.043670E+0	1.035024E+0	1.074106E+0	9.886003E-1	1.029360E+0	1.039341E+0	1.104664E+0	1.060763E+0	1.052434E+0	1.017977E+0	1.081586E+0	1.005035E+0	1.038691E+0	1.077411E+0	1.101985E+0	1.059300E+0	1.055609E+0	1.046371E+0	1.036664E+0	9.638613E-1	1.024208E+0	1.028751E+0	9.913324E-1	1.036563E+0	9.887902E-1	1.016764E+0	1.125591E+0
5.560300E+2	1.222370E+0	1.160685E+0	1.154271E+0	1.146366E+0	1.150216E+0	1.125689E+0	1.195147E+0	1.154890E+0	1.217789E+0	1.193604E+0	1.245467E+0	1.212439E+0	1.175521E+0	1.196600E+0	1.179791E+0	1.123010E+0	1.197918E+0	1.185357E+0	1.219708E+0	1.144980E+0	1.193867E+0	1.203110E+0	1.197222E+0	1.212015E+0	1.226339E+0	1.196923E+0	1.178049E+0	1.253064E+0	1.099609E+0	1.220987E+0	1.193135E+0	1.204119E+0	1.218261E+0	1.191887E+0	1.242840E+0	1.193274E+0	1.187502E+0	1.159290E+0	1.194546E+0	1.190369E+0	1.236763E+0	1.178631E+0	1.229161E+0	1.209315E+0	1.155709E+0	1.136854E+0	1.187293E+0	1.239833E+0	1.167879E+0	1.145687E+0	1.226804E+0	1.137711E+0	1.186548E+0	1.224485E+0	1.288133E+0	1.140825E+0	1.232590E+0	1.167236E+0	1.227432E+0	1.188745E+0	1.154630E+0	1.182713E+0	1.155507E+0	1.159577E+0	1.209601E+0	1.180588E+0	1.188478E+0	1.195630E+0	1.199493E+0	1.142161E+0	1.153829E+0	1.204311E+0	1.204000E+0	1.224287E+0	1.201185E+0	1.222619E+0	1.159273E+0	1.173313E+0	1.156296E+0	1.140637E+0	1.154109E+0	1.197008E+0	1.159240E+0	1.192635E+0	1.164194E+0	1.134472E+0	1.154312E+0	1.174960E+0	1.200892E+0	1.205014E+0	1.128788E+0	1.155331E+0	1.156078E+0	1.168497E+0	1.194855E+0	1.131397E+0	1.158829E+0	1.114013E+0	1.102554E+0	1.189874E+0	1.186164E+0	1.230730E+0	1.230692E+0	1.190121E+0	1.194996E+0	1.298707E+0	1.169168E+0	1.251830E+0	1.210767E+0	1.134335E+0	1.200014E+0	1.197853E+0	1.141918E+0	1.139951E+0	1.155519E+0	1.212216E+0	1.199136E+0	1.193076E+0	1.211228E+0	1.183855E+0	1.187923E+0	1.188334E+0	1.196412E+0	1.174157E+0	1.245451E+0	1.247555E+0	1.178082E+0	1.189286E+0	1.158959E+0	1.221203E+0	1.192597E+0	1.187421E+0	1.182394E+0	1.179954E+0	1.159951E+0	1.262162E+0	1.232682E+0	1.209456E+0	1.175246E+0	1.260453E+0	1.167166E+0	1.248216E+0	1.196885E+0	1.141454E+0	1.204098E+0	1.162872E+0	1.178003E+0	1.285976E+0	1.203242E+0	1.220824E+0	1.122094E+0	1.178848E+0	1.148029E+0	1.201343E+0	1.118886E+0	1.218093E+0	1.154782E+0	1.198976E+0	1.169659E+0	1.137020E+0	1.215556E+0	1.238373E+0	1.189589E+0	1.124907E+0	1.232048E+0	1.189834E+0	1.139562E+0	1.228840E+0	1.298131E+0	1.087758E+0
5.570160E+2	1.266220E+0	1.237552E+0	1.186551E+0	1.178915E+0	1.240585E+0	1.255332E+0	1.181984E+0	1.217493E+0	1.261011E+0	1.222669E+0	1.300033E+0	1.306770E+0	1.227212E+0	1.187807E+0	1.250816E+0	1.221978E+0	1.190499E+0	1.209153E+0	1.240314E+0	1.246867E+0	1.198393E+0	1.285997E+0	1.210673E+0	1.279014E+0	1.280594E+0	1.220410E+0	1.246243E+0	1.221486E+0	1.146511E+0	1.199304E+0	1.220605E+0	1.162278E+0	1.198016E+0	1.197485E+0	1.234352E+0	1.127009E+0	1.268786E+0	1.255259E+0	1.237109E+0	1.204192E+0	1.258722E+0	1.204370E+0	1.209400E+0	1.214426E+0	1.198606E+0	1.163915E+0	1.164708E+0	1.170158E+0	1.212438E+0	1.220917E+0	1.182396E+0	1.266253E+0	1.300503E+0	1.197784E+0	1.283173E+0	1.252489E+0	1.266250E+0	1.209491E+0	1.261525E+0	1.234996E+0	1.207484E+0	1.235836E+0	1.248218E+0	1.198717E+0	1.276665E+0	1.229507E+0	1.285529E+0	1.176211E+0	1.221798E+0	1.243543E+0	1.235353E+0	1.194380E+0	1.254831E+0	1.206878E+0	1.242023E+0	1.243969E+0	1.270637E+0	1.165514E+0	1.261362E+0	1.225842E+0	1.216459E+0	1.220726E+0	1.231560E+0	1.159646E+0	1.207247E+0	1.186112E+0	1.233442E+0	1.250052E+0	1.219605E+0	1.192326E+0	1.272259E+0	1.236428E+0	1.219891E+0	1.165230E+0	1.216462E+0	1.215483E+0	1.241239E+0	1.216174E+0	1.225172E+0	1.272850E+0	1.178171E+0	1.228782E+0	1.191445E+0	1.215002E+0	1.249026E+0	1.201231E+0	1.249285E+0	1.243162E+0	1.237289E+0	1.227037E+0	1.199569E+0	1.175774E+0	1.211314E+0	1.214201E+0	1.259345E+0	1.201955E+0	1.223019E+0	1.162542E+0	1.146004E+0	1.242058E+0	1.248419E+0	1.249724E+0	1.165878E+0	1.199854E+0	1.259967E+0	1.294206E+0	1.170232E+0	1.229928E+0	1.191287E+0	1.195401E+0	1.208931E+0	1.219759E+0	1.213021E+0	1.231655E+0	1.248101E+0	1.197685E+0	1.210823E+0	1.253377E+0	1.191477E+0	1.251221E+0	1.234682E+0	1.146380E+0	1.269256E+0	1.208691E+0	1.231276E+0	1.210353E+0	1.254294E+0	1.207302E+0	1.225900E+0	1.226444E+0	1.199234E+0	1.235847E+0	1.216866E+0	1.217540E+0	1.175002E+0	1.243778E+0	1.167271E+0	1.213877E+0	1.196387E+0	1.242491E+0	1.293431E+0	1.189707E+0	1.253202E+0	1.181694E+0	1.235803E+0	1.253362E+0	1.227558E+0	1.225709E+0	1.210173E+0	1.140895E+0
5.580280E+2	1.134836E+0	1.113657E+0	1.116695E+0	1.152112E+0	1.157407E+0	1.130104E+0	1.100663E+0	1.134256E+0	1.112771E+0	1.109875E+0	1.187591E+0	1.184854E+0	1.119886E+0	1.146913E+0	1.161634E+0	1.139762E+0	1.115404E+0	1.113109E+0	1.178939E+0	1.090546E+0	1.178938E+0	1.166694E+0	1.198164E+0	1.132555E+0	1.189588E+0	1.095032E+0	1.085168E+0	1.117624E+0	1.143128E+0	1.111791E+0	1.113578E+0	1.133051E+0	1.091682E+0	1.085981E+0	1.155649E+0	1.076167E+0	1.152088E+0	1.053482E+0	1.119293E+0	1.119164E+0	1.110843E+0	1.109847E+0	1.110788E+0	1.085462E+0	1.112600E+0	1.144631E+0	1.170093E+0	1.149194E+0	1.139502E+0	1.115924E+0	1.148610E+0	1.110882E+0	1.118843E+0	1.136830E+0	1.139552E+0	1.102041E+0	1.131313E+0	1.101234E+0	1.175090E+0	1.147755E+0	1.124669E+0	1.143130E+0	1.129462E+0	1.072849E+0	1.142798E+0	1.180535E+0	1.128505E+0	1.109226E+0	1.143890E+0	1.126291E+0	1.120059E+0	1.108458E+0	1.077262E+0	1.182196E+0	1.137857E+0	1.166724E+0	1.141465E+0	1.071890E+0	1.147388E+0	1.094534E+0	1.101851E+0	1.113412E+0	1.125751E+0	1.084540E+0	1.138290E+0	1.147081E+0	1.138429E+0	1.145524E+0	1.093545E+0	1.094699E+0	1.139162E+0	1.133258E+0	1.097120E+0	1.132496E+0	1.123049E+0	1.117993E+0	1.075064E+0	1.149151E+0	1.079875E+0	1.141384E+0	1.146685E+0	1.092869E+0	1.136317E+0	1.126527E+0	1.099604E+0	1.170576E+0	1.086245E+0	1.137577E+0	1.110924E+0	1.055570E+0	1.123045E+0	1.063977E+0	1.109249E+0	1.100412E+0	1.119557E+0	1.090111E+0	1.171146E+0	1.142845E+0	1.121541E+0	1.149606E+0	1.152198E+0	1.202966E+0	1.079404E+0	1.134748E+0	1.130336E+0	1.188182E+0	1.183171E+0	1.200800E+0	1.151289E+0	1.094009E+0	1.204644E+0	1.173010E+0	1.133179E+0	1.128471E+0	1.115347E+0	1.173025E+0	1.139973E+0	1.158999E+0	1.082484E+0	1.157459E+0	1.138074E+0	1.107365E+0	1.089592E+0	1.058905E+0	1.125286E+0	1.118856E+0	1.092009E+0	1.100811E+0	1.117683E+0	1.126585E+0	1.104283E+0	1.089410E+0	1.172356E+0	1.124911E+0	1.024222E+0	1.180742E+0	1.126637E+0	1.091922E+0	1.166565E+0	1.107434E+0	1.128360E+0	1.144677E+0	1.142107E+0	1.127578E+0	1.181046E+0	1.096132E+0	1.113233E+0	1.135513E+0	1.138889E+0	1.090170E+0
5.590210E+2	1.161784E+0	1.192238E+0	1.130315E+0	1.124107E+0	1.185482E+0	1.167994E+0	1.101050E+0	1.103498E+0	1.198668E+0	1.183069E+0	1.237304E+0	1.163854E+0	1.167976E+0	1.184517E+0	1.259988E+0	1.163066E+0	1.188139E+0	1.153195E+0	1.178364E+0	1.107856E+0	1.156839E+0	1.198060E+0	1.185739E+0	1.181067E+0	1.163697E+0	1.201162E+0	1.141751E+0	1.105624E+0	1.122136E+0	1.097580E+0	1.174369E+0	1.184916E+0	1.169967E+0	1.160618E+0	1.144258E+0	1.097472E+0	1.159831E+0	1.165637E+0	1.118911E+0	1.160591E+0	1.165177E+0	1.141687E+0	1.198723E+0	1.168663E+0	1.148771E+0	1.144673E+0	1.176807E+0	1.174870E+0	1.151539E+0	1.160371E+0	1.158962E+0	1.163903E+0	1.165235E+0	1.205286E+0	1.215470E+0	1.130202E+0	1.133484E+0	1.156805E+0	1.192789E+0	1.177191E+0	1.149331E+0	1.143108E+0	1.091283E+0	1.125389E+0	1.150547E+0	1.139115E+0	1.098048E+0	1.142266E+0	1.174435E+0	1.132185E+0	1.130530E+0	1.186485E+0	1.143320E+0	1.178659E+0	1.161805E+0	1.153629E+0	1.172676E+0	1.177652E+0	1.158354E+0	1.149119E+0	1.171895E+0	1.148475E+0	1.102971E+0	1.152753E+0	1.122740E+0	1.132222E+0	1.137976E+0	1.134028E+0	1.136345E+0	1.132085E+0	1.131514E+0	1.184441E+0	1.165156E+0	1.137889E+0	1.171387E+0	1.109758E+0	1.150389E+0	1.170540E+0	1.142421E+0	1.132356E+0	1.171497E+0	1.167898E+0	1.140768E+0	1.143813E+0	1.180930E+0	1.161374E+0	1.197582E+0	1.188279E+0	1.123783E+0	1.124593E+0	1.155432E+0	1.147005E+0	1.197322E+0	1.236447E+0	1.163043E+0	1.146113E+0	1.131340E+0	1.157935E+0	1.145377E+0	1.133231E+0	1.137888E+0	1.163092E+0	1.131184E+0	1.187992E+0	1.146381E+0	1.156920E+0	1.160460E+0	1.124657E+0	1.214104E+0	1.110741E+0	1.146346E+0	1.160276E+0	1.178151E+0	1.157203E+0	1.123468E+0	1.136075E+0	1.183981E+0	1.167530E+0	1.195635E+0	1.180661E+0	1.143151E+0	1.080945E+0	1.180579E+0	1.126381E+0	1.186193E+0	1.095963E+0	1.099678E+0	1.176390E+0	1.169575E+0	1.172000E+0	1.133577E+0	1.166584E+0	1.147169E+0	1.149495E+0	1.167510E+0	1.177950E+0	1.167707E+0	1.190306E+0	1.169221E+0	1.116841E+0	1.165351E+0	1.158911E+0	1.163665E+0	1.091297E+0	1.168330E+0	1.098853E+0	1.109252E+0	1.216447E+0	1.350254E+0	1.077544E+0
5.600070E+2	9.926710E-1	9.739333E-1	9.512826E-1	1.054334E+0	1.036006E+0	1.046400E+0	1.074677E+0	1.008104E+0	1.027494E+0	1.000583E+0	1.028328E+0	1.013676E+0	9.815442E-1	1.070178E+0	1.006246E+0	1.031936E+0	9.538689E-1	1.012693E+0	1.053603E+0	1.061637E+0	1.036238E+0	1.032164E+0	1.015221E+0	1.063380E+0	1.057149E+0	1.003617E+0	9.744087E-1	1.000861E+0	1.036673E+0	1.029858E+0	1.045721E+0	9.955866E-1	1.003724E+0	1.066218E+0	1.055446E+0	1.019077E+0	9.902413E-1	1.050346E+0	1.023799E+0	1.018331E+0	9.961319E-1	9.876082E-1	1.039463E+0	1.005030E+0	1.002615E+0	1.012730E+0	1.069674E+0	9.939748E-1	1.001304E+0	1.006803E+0	1.046632E+0	9.981641E-1	1.028022E+0	1.035542E+0	1.055167E+0	1.077981E+0	9.787072E-1	9.445535E-1	1.048936E+0	9.780929E-1	1.014388E+0	1.002045E+0	1.037588E+0	1.005282E+0	1.039521E+0	1.026496E+0	1.004277E+0	1.009043E+0	1.020312E+0	1.039895E+0	1.010186E+0	1.018185E+0	1.019392E+0	1.031803E+0	1.084949E+0	9.862727E-1	1.007829E+0	1.017024E+0	1.003978E+0	1.010821E+0	1.031652E+0	1.024862E+0	1.027570E+0	1.036091E+0	9.785068E-1	1.070948E+0	1.019451E+0	9.843787E-1	9.643553E-1	1.004672E+0	1.000396E+0	1.017612E+0	1.008434E+0	1.056804E+0	1.038071E+0	9.971986E-1	9.577093E-1	9.791984E-1	9.981899E-1	1.065811E+0	1.024000E+0	1.035009E+0	1.018802E+0	1.034698E+0	1.011429E+0	9.921119E-1	1.032363E+0	9.886872E-1	1.035936E+0	1.023176E+0	1.006037E+0	9.989920E-1	9.925100E-1	1.063061E+0	9.985361E-1	1.028300E+0	1.035225E+0	1.037978E+0	1.019357E+0	9.995174E-1	1.012447E+0	1.057362E+0	1.005060E+0	1.039529E+0	1.002687E+0	1.025186E+0	9.999674E-1	1.018254E+0	1.043381E+0	1.019965E+0	9.579891E-1	1.027609E+0	1.014984E+0	1.008502E+0	1.039147E+0	9.931819E-1	1.012325E+0	1.044364E+0	1.060032E+0	1.083700E+0	1.053434E+0	1.048251E+0	1.048896E+0	1.071237E+0	1.066378E+0	9.840410E-1	1.067385E+0	9.992390E-1	1.012046E+0	1.022551E+0	1.031366E+0	1.018122E+0	9.964999E-1	9.588296E-1	1.055030E+0	1.041224E+0	1.038503E+0	1.041303E+0	1.010471E+0	1.020809E+0	9.500274E-1	1.037203E+0	1.060438E+0	1.018266E+0	9.538020E-1	1.051582E+0	9.838935E-1	1.018801E+0	1.028121E+0	1.077410E+0
5.609950E+2	1.020739E+0	1.060357E+0	9.671743E-1	1.057351E+0	1.050299E+0	1.034702E+0	1.061505E+0	1.076577E+0	1.066046E+0	1.024923E+0	1.067386E+0	1.107784E+0	1.014855E+0	1.008792E+0	1.070501E+0	1.045841E+0	1.087790E+0	1.040282E+0	1.075720E+0	1.024519E+0	1.029933E+0	1.027615E+0	1.077743E+0	9.952133E-1	1.043038E+0	1.087640E+0	1.012551E+0	1.050000E+0	1.056754E+0	1.040146E+0	1.083110E+0	1.056790E+0	1.039505E+0	1.040089E+0	1.069005E+0	1.093230E+0	1.015530E+0	1.077389E+0	1.117545E+0	1.026878E+0	1.031186E+0	1.077107E+0	1.023599E+0	1.045867E+0	1.090123E+0	1.024832E+0	1.072594E+0	1.037673E+0	1.072465E+0	1.063620E+0	1.061080E+0	1.036875E+0	1.060489E+0	1.100561E+0	1.052588E+0	1.048606E+0	1.073183E+0	1.142097E+0	1.098707E+0	1.033676E+0	1.026265E+0	1.035559E+0	1.067634E+0	1.040026E+0	1.046928E+0	1.045986E+0	1.068231E+0	1.063053E+0	1.059414E+0	1.052877E+0	1.096554E+0	1.042491E+0	1.057142E+0	9.928411E-1	1.063359E+0	1.024509E+0	1.027679E+0	1.059126E+0	1.092287E+0	1.029294E+0	1.058444E+0	1.042707E+0	1.026558E+0	9.894058E-1	1.060891E+0	1.011320E+0	1.062355E+0	1.113106E+0	1.093911E+0	1.052507E+0	1.040805E+0	1.064023E+0	1.057442E+0	1.027997E+0	1.041527E+0	1.035525E+0	1.081684E+0	1.117874E+0	1.088824E+0	1.079340E+0	1.072952E+0	1.053074E+0	1.056418E+0	1.013112E+0	1.063171E+0	1.037278E+0	1.108450E+0	1.036501E+0	1.052231E+0	1.098616E+0	1.104220E+0	1.078089E+0	1.087292E+0	1.012335E+0	1.049959E+0	1.058848E+0	1.021379E+0	9.757167E-1	1.088278E+0	1.058168E+0	1.029217E+0	1.029100E+0	1.041111E+0	1.060164E+0	1.026016E+0	1.072565E+0	1.049559E+0	1.061814E+0	1.042287E+0	1.073392E+0	1.021532E+0	1.010879E+0	1.042952E+0	1.039787E+0	1.078739E+0	1.083099E+0	1.056467E+0	1.060975E+0	1.014519E+0	1.054283E+0	1.086104E+0	1.051566E+0	1.070145E+0	1.045149E+0	1.026852E+0	1.074902E+0	1.101361E+0	1.113468E+0	1.034630E+0	9.962423E-1	1.069348E+0	1.036420E+0	1.053034E+0	1.069093E+0	1.023742E+0	1.069458E+0	1.032240E+0	1.049388E+0	1.028982E+0	1.033922E+0	1.075080E+0	1.082643E+0	1.019473E+0	1.056786E+0	1.029856E+0	9.986653E-1	1.061324E+0	1.087720E+0	9.672162E-1	1.176826E+0
5.620340E+2	9.898017E-1	9.613995E-1	1.004408E+0	9.762292E-1	9.705099E-1	1.028616E+0	9.404262E-1	9.789721E-1	9.167553E-1	1.016563E+0	1.016128E+0	9.485997E-1	9.661472E-1	9.839539E-1	9.807068E-1	9.974403E-1	9.976774E-1	9.933603E-1	9.818502E-1	9.263191E-1	9.794894E-1	9.646529E-1	9.968760E-1	9.847550E-1	1.010109E+0	9.300298E-1	1.008030E+0	9.912900E-1	9.776353E-1	9.881598E-1	9.908342E-1	1.001065E+0	1.006395E+0	9.982078E-1	1.029564E+0	9.665707E-1	1.013157E+0	9.732206E-1	9.583178E-1	9.862888E-1	9.764234E-1	1.019797E+0	9.973436E-1	9.913104E-1	9.542067E-1	9.654564E-1	9.708413E-1	9.877414E-1	1.010551E+0	9.935361E-1	9.941744E-1	9.636777E-1	9.839487E-1	9.470441E-1	1.016752E+0	9.891809E-1	1.024162E+0	9.780389E-1	9.534804E-1	1.022307E+0	1.004870E+0	9.908278E-1	9.605220E-1	9.800733E-1	9.890352E-1	1.007194E+0	1.009598E+0	1.016927E+0	9.930584E-1	9.810728E-1	9.650778E-1	9.410158E-1	9.688641E-1	9.783715E-1	1.029549E+0	9.710096E-1	9.969696E-1	1.018822E+0	9.759797E-1	9.692139E-1	1.019512E+0	1.042110E+0	1.013458E+0	1.016743E+0	1.014823E+0	9.879150E-1	9.573668E-1	9.452308E-1	1.035084E+0	9.461117E-1	1.012424E+0	1.025678E+0	1.008146E+0	9.843942E-1	1.009557E+0	9.841183E-1	9.835447E-1	9.730561E-1	1.029044E+0	9.536668E-1	9.394416E-1	9.907633E-1	9.915476E-1	1.027355E+0	9.685634E-1	9.856554E-1	9.652354E-1	1.000293E+0	1.011187E+0	9.981137E-1	9.535126E-1	9.411560E-1	9.816482E-1	1.017312E+0	1.024539E+0	1.005912E+0	1.049221E+0	9.636250E-1	1.009542E+0	1.007241E+0	9.940120E-1	1.005124E+0	9.687549E-1	9.836552E-1	1.000294E+0	9.677032E-1	9.970499E-1	9.792286E-1	9.546047E-1	9.587315E-1	9.922061E-1	1.092068E+0	9.598822E-1	9.713835E-1	9.641166E-1	9.694594E-1	9.949627E-1	9.888867E-1	9.715784E-1	9.464254E-1	9.743047E-1	9.208273E-1	9.805173E-1	9.888096E-1	9.719711E-1	9.501070E-1	9.588004E-1	9.464347E-1	9.838959E-1	9.752512E-1	9.948922E-1	9.783851E-1	9.957922E-1	9.554120E-1	9.915098E-1	9.880782E-1	9.868856E-1	9.822240E-1	9.812146E-1	1.035174E+0	9.503019E-1	9.695363E-1	1.012365E+0	9.898453E-1	1.052831E+0	1.006200E+0	1.004804E+0	1.015994E+0	9.765620E-1	1.058511E+0
5.630300E+2	9.214603E-1	9.024175E-1	8.857692E-1	8.691021E-1	9.185288E-1	8.798671E-1	8.853173E-1	8.913636E-1	9.364134E-1	9.121811E-1	8.771088E-1	8.655188E-1	8.859298E-1	8.624620E-1	8.583372E-1	9.193520E-1	8.863483E-1	8.599859E-1	8.732593E-1	8.998288E-1	8.969314E-1	9.269810E-1	8.686417E-1	8.893402E-1	8.759268E-1	9.267730E-1	9.238541E-1	9.468900E-1	9.039779E-1	8.720688E-1	8.835798E-1	8.866999E-1	8.723126E-1	8.599782E-1	8.930062E-1	8.656086E-1	9.368121E-1	8.567678E-1	9.023535E-1	9.137340E-1	9.047555E-1	8.945301E-1	9.002259E-1	8.779412E-1	8.774861E-1	9.048937E-1	8.907061E-1	8.907200E-1	9.214774E-1	9.481187E-1	8.721317E-1	9.071322E-1	8.490739E-1	8.865079E-1	9.309008E-1	8.415774E-1	8.814156E-1	8.749326E-1	8.901896E-1	8.717685E-1	8.993108E-1	8.855287E-1	8.843176E-1	8.723869E-1	8.604933E-1	8.906157E-1	8.949647E-1	8.490949E-1	8.708409E-1	9.545111E-1	8.889241E-1	8.946633E-1	8.907712E-1	9.539941E-1	9.124446E-1	8.883086E-1	8.305849E-1	8.823331E-1	8.960114E-1	8.624947E-1	8.732594E-1	8.923573E-1	8.938166E-1	8.961587E-1	9.173286E-1	8.993591E-1	8.758139E-1	9.213561E-1	9.019485E-1	9.341321E-1	8.797154E-1	8.800100E-1	8.926507E-1	9.149160E-1	8.726320E-1	9.235777E-1	8.686146E-1	8.544297E-1	9.146255E-1	8.940083E-1	8.943996E-1	8.663095E-1	8.598011E-1	8.992400E-1	8.927919E-1	9.085216E-1	8.449294E-1	9.022213E-1	9.126433E-1	8.900718E-1	9.123119E-1	8.710898E-1	8.263681E-1	8.888825E-1	9.627334E-1	8.693457E-1	8.566488E-1	9.082746E-1	8.614214E-1	8.835295E-1	8.906759E-1	8.546657E-1	9.188823E-1	8.848266E-1	8.812678E-1	8.960539E-1	9.030128E-1	8.972794E-1	8.723011E-1	8.864505E-1	9.098502E-1	8.647300E-1	9.227770E-1	8.831502E-1	8.817082E-1	8.504465E-1	9.005834E-1	9.191602E-1	8.905785E-1	8.463199E-1	8.946105E-1	9.189807E-1	8.980972E-1	9.106996E-1	8.468212E-1	8.939042E-1	9.079542E-1	8.695608E-1	8.785814E-1	8.886971E-1	8.692344E-1	9.310772E-1	9.344348E-1	9.289378E-1	9.568768E-1	8.459650E-1	9.067735E-1	9.000387E-1	9.078248E-1	8.780673E-1	9.535614E-1	8.746866E-1	9.447061E-1	8.961370E-1	8.935231E-1	8.645034E-1	9.383534E-1	8.756301E-1	9.612092E-1	8.581265E-1
5.640290E+2	1.015867E+0	9.727171E-1	9.695782E-1	9.615504E-1	9.699932E-1	9.313776E-1	9.870401E-1	9.654594E-1	9.877445E-1	9.572581E-1	9.355357E-1	9.494552E-1	9.886441E-1	9.348186E-1	9.668312E-1	9.935609E-1	9.790753E-1	9.870836E-1	9.360171E-1	9.273293E-1	1.007159E+0	9.980556E-1	9.626664E-1	9.958401E-1	1.026606E+0	9.280392E-1	1.019217E+0	9.930615E-1	9.556891E-1	1.004389E+0	9.540007E-1	9.525904E-1	9.991926E-1	9.862240E-1	9.684686E-1	9.402953E-1	9.812014E-1	9.973798E-1	9.550522E-1	9.416587E-1	9.526989E-1	9.036203E-1	9.929640E-1	9.758278E-1	9.384031E-1	9.956040E-1	9.461897E-1	1.004431E+0	9.383059E-1	9.674008E-1	1.016334E+0	9.733334E-1	1.008437E+0	9.541633E-1	9.493536E-1	9.269490E-1	9.793600E-1	1.024288E+0	9.355303E-1	1.007881E+0	9.973366E-1	1.009869E+0	1.003263E+0	9.644742E-1	9.839622E-1	9.850148E-1	9.078438E-1	9.958715E-1	9.636808E-1	9.424185E-1	9.860781E-1	1.008774E+0	9.800324E-1	9.588355E-1	9.777484E-1	1.030334E+0	9.900006E-1	9.566496E-1	9.632012E-1	9.910558E-1	9.989768E-1	9.884010E-1	9.503567E-1	9.781175E-1	9.743871E-1	9.874192E-1	1.004386E+0	9.775444E-1	9.674686E-1	9.802028E-1	9.997299E-1	9.680970E-1	9.809320E-1	1.004058E+0	9.995096E-1	9.395149E-1	9.437987E-1	9.725468E-1	9.819478E-1	9.580844E-1	1.009671E+0	9.643392E-1	1.028144E+0	9.318565E-1	9.356400E-1	1.001499E+0	9.880355E-1	9.862032E-1	9.463313E-1	9.903432E-1	1.017503E+0	9.737534E-1	9.199812E-1	9.983660E-1	9.728884E-1	9.682815E-1	1.000895E+0	9.881113E-1	9.847278E-1	9.778137E-1	9.993338E-1	9.750704E-1	1.045218E+0	9.934254E-1	1.006186E+0	9.873558E-1	9.900560E-1	9.672051E-1	9.361116E-1	9.816302E-1	1.025034E+0	9.598419E-1	9.633397E-1	9.598295E-1	9.471088E-1	1.013822E+0	9.638780E-1	9.356272E-1	9.948602E-1	9.482197E-1	9.794649E-1	9.741488E-1	9.802560E-1	1.008745E+0	1.018550E+0	9.451891E-1	9.328618E-1	9.699509E-1	9.785017E-1	9.678251E-1	9.609235E-1	9.679967E-1	9.523792E-1	9.642352E-1	9.458015E-1	1.024409E+0	9.833854E-1	1.000539E+0	9.602897E-1	9.808690E-1	9.605863E-1	1.002234E+0	9.440012E-1	9.760952E-1	9.892055E-1	1.000265E+0	9.660135E-1	9.632098E-1	9.436141E-1	9.764226E-1
5.650210E+2	9.210959E-1	9.219770E-1	9.378573E-1	8.923079E-1	9.170931E-1	9.374231E-1	9.610021E-1	9.224598E-1	9.313955E-1	9.893414E-1	9.127867E-1	9.775243E-1	9.565361E-1	9.740373E-1	9.322646E-1	9.363015E-1	9.906373E-1	9.314147E-1	9.371734E-1	9.578296E-1	9.213244E-1	9.405503E-1	9.402371E-1	9.558484E-1	9.406652E-1	9.625724E-1	9.490111E-1	9.147078E-1	9.533011E-1	9.475637E-1	9.422873E-1	9.567865E-1	9.341915E-1	9.278134E-1	9.217779E-1	9.317337E-1	9.448513E-1	9.633411E-1	9.213126E-1	1.022212E+0	9.493433E-1	9.449786E-1	9.338619E-1	9.829051E-1	9.613024E-1	9.306700E-1	8.874395E-1	9.240772E-1	9.632719E-1	9.423943E-1	9.286645E-1	9.375509E-1	1.009045E+0	9.628020E-1	9.058754E-1	9.150479E-1	9.465472E-1	9.388640E-1	9.118534E-1	9.864418E-1	9.322065E-1	9.219037E-1	8.979602E-1	9.531351E-1	9.270932E-1	9.346227E-1	9.856491E-1	8.941774E-1	9.417003E-1	9.266277E-1	9.409122E-1	9.615165E-1	9.242144E-1	9.151701E-1	8.677624E-1	9.739915E-1	9.871286E-1	9.518714E-1	9.578204E-1	9.581333E-1	9.261871E-1	9.403785E-1	9.559829E-1	9.120073E-1	9.271140E-1	9.258542E-1	9.205890E-1	9.235170E-1	9.201619E-1	9.197575E-1	9.228472E-1	9.022506E-1	9.795604E-1	9.570095E-1	9.211026E-1	9.453727E-1	9.400472E-1	9.386864E-1	9.451079E-1	9.067101E-1	9.195966E-1	9.532118E-1	9.531286E-1	9.486397E-1	9.864961E-1	9.288356E-1	9.636383E-1	9.447215E-1	9.193094E-1	9.450031E-1	9.103432E-1	9.976366E-1	9.784934E-1	9.185020E-1	9.071763E-1	9.671045E-1	9.297902E-1	9.769770E-1	9.060214E-1	9.361405E-1	9.456658E-1	9.460549E-1	9.413515E-1	9.035102E-1	9.854504E-1	9.402645E-1	9.161907E-1	9.080149E-1	9.898114E-1	9.195625E-1	9.237708E-1	8.924057E-1	9.466402E-1	9.791098E-1	9.399140E-1	9.315120E-1	9.294564E-1	9.038398E-1	9.485336E-1	9.556121E-1	9.551915E-1	9.811233E-1	9.269198E-1	9.147877E-1	9.249387E-1	1.006671E+0	9.630348E-1	9.121769E-1	9.899266E-1	9.848472E-1	9.636558E-1	9.241155E-1	9.155735E-1	9.639000E-1	9.169919E-1	9.332908E-1	9.426367E-1	8.982402E-1	9.718876E-1	9.516861E-1	9.571135E-1	9.262886E-1	9.030774E-1	9.283236E-1	9.677562E-1	9.175257E-1	9.079853E-1	8.665552E-1	9.634023E-1	9.573108E-1
5.660150E+2	1.089794E+0	1.081722E+0	1.109095E+0	1.133431E+0	1.085089E+0	1.081115E+0	1.077524E+0	1.101912E+0	1.081135E+0	1.086759E+0	1.111978E+0	1.079959E+0	1.125851E+0	1.076153E+0	1.082257E+0	1.059606E+0	1.064430E+0	1.074323E+0	1.059748E+0	1.115505E+0	1.092794E+0	1.035221E+0	1.050602E+0	1.020532E+0	1.005447E+0	1.092964E+0	1.048776E+0	1.101580E+0	1.086731E+0	1.089072E+0	1.074166E+0	1.061854E+0	1.103055E+0	1.065589E+0	1.033325E+0	1.100417E+0	1.084518E+0	1.014787E+0	1.077484E+0	1.084089E+0	1.094518E+0	1.070950E+0	1.065802E+0	1.072143E+0	1.050557E+0	1.056094E+0	1.109323E+0	1.105069E+0	1.100515E+0	1.013396E+0	1.058763E+0	1.103010E+0	1.031234E+0	1.066878E+0	1.070946E+0	1.113382E+0	1.040922E+0	1.033102E+0	1.100574E+0	1.084965E+0	1.064245E+0	1.047054E+0	1.094960E+0	1.112837E+0	1.073411E+0	1.095677E+0	1.037456E+0	1.060693E+0	1.110881E+0	1.024616E+0	1.099084E+0	1.087673E+0	1.119486E+0	1.124341E+0	1.029773E+0	1.090966E+0	1.083271E+0	1.080121E+0	1.059777E+0	1.087462E+0	1.034200E+0	1.044878E+0	1.068441E+0	1.108228E+0	1.083649E+0	1.056817E+0	1.102284E+0	1.079104E+0	1.101038E+0	1.065625E+0	1.084396E+0	1.072767E+0	1.056473E+0	1.017610E+0	1.013969E+0	1.110238E+0	1.120780E+0	1.072393E+0	1.024214E+0	1.073176E+0	1.053477E+0	1.057981E+0	1.016986E+0	1.093609E+0	1.078781E+0	1.059664E+0	1.037550E+0	1.079228E+0	1.045988E+0	1.049408E+0	1.039065E+0	1.061174E+0	1.126545E+0	1.019648E+0	1.014663E+0	1.081093E+0	1.059587E+0	1.073819E+0	1.078697E+0	1.069331E+0	1.046779E+0	1.032383E+0	1.069241E+0	1.101282E+0	1.049086E+0	1.041947E+0	1.107142E+0	1.075428E+0	1.053565E+0	1.079193E+0	1.103419E+0	1.110936E+0	1.070439E+0	1.078958E+0	1.100401E+0	1.077019E+0	1.045436E+0	1.056092E+0	1.074884E+0	1.085260E+0	1.048354E+0	1.066310E+0	1.070682E+0	1.022045E+0	1.082618E+0	1.077435E+0	1.061319E+0	1.091035E+0	1.072758E+0	1.109248E+0	1.050807E+0	1.092438E+0	1.082919E+0	1.106376E+0	1.071883E+0	1.061605E+0	1.053398E+0	1.058067E+0	1.024614E+0	1.034697E+0	1.024681E+0	1.071131E+0	1.061200E+0	1.064328E+0	1.071892E+0	1.072949E+0	1.065795E+0	1.090399E+0	1.058775E+0	9.529022E-1
5.670200E+2	1.048570E+0	1.125477E+0	1.174835E+0	1.055693E+0	1.052481E+0	1.060500E+0	1.012508E+0	1.055152E+0	1.053016E+0	1.012392E+0	1.050749E+0	1.057483E+0	1.080493E+0	1.089605E+0	1.102857E+0	1.015962E+0	1.040173E+0	1.100858E+0	1.082629E+0	1.087033E+0	1.036132E+0	1.074760E+0	1.088012E+0	1.095091E+0	1.041059E+0	1.068365E+0	1.064152E+0	1.001610E+0	1.029239E+0	1.028743E+0	1.026302E+0	1.088627E+0	1.041624E+0	1.055881E+0	1.029407E+0	1.083068E+0	1.033689E+0	1.066768E+0	1.044136E+0	1.006808E+0	1.094943E+0	1.101409E+0	1.046742E+0	1.048975E+0	1.125307E+0	1.109720E+0	1.053232E+0	1.056314E+0	9.921085E-1	1.064731E+0	1.022220E+0	1.080258E+0	1.029752E+0	1.046501E+0	1.018417E+0	1.087276E+0	1.075703E+0	1.064124E+0	1.060730E+0	1.014868E+0	1.061379E+0	1.107213E+0	1.053756E+0	1.071785E+0	1.079556E+0	1.014393E+0	1.091980E+0	1.111140E+0	1.040113E+0	1.077982E+0	1.013184E+0	1.045682E+0	1.040097E+0	1.044644E+0	1.034415E+0	1.034609E+0	1.076537E+0	1.034052E+0	1.050945E+0	1.091525E+0	1.057768E+0	1.024306E+0	1.063817E+0	1.063249E+0	1.043300E+0	1.060368E+0	1.057754E+0	1.055763E+0	1.016033E+0	1.096992E+0	1.059686E+0	1.069562E+0	1.016362E+0	1.037211E+0	1.103632E+0	1.064455E+0	1.103821E+0	1.091816E+0	1.018047E+0	1.069204E+0	1.086462E+0	1.079313E+0	1.075172E+0	1.051489E+0	1.063128E+0	1.086435E+0	1.059798E+0	1.062145E+0	1.076374E+0	1.005269E+0	1.057007E+0	1.078110E+0	1.087162E+0	1.081893E+0	1.069504E+0	1.021115E+0	1.047254E+0	1.075498E+0	1.051956E+0	1.068259E+0	1.081870E+0	1.100241E+0	1.010381E+0	1.033608E+0	1.049013E+0	1.068924E+0	1.037022E+0	1.092776E+0	1.107937E+0	1.081076E+0	1.066198E+0	1.041531E+0	1.078985E+0	1.079281E+0	1.048865E+0	1.081460E+0	1.096891E+0	1.091054E+0	1.045015E+0	1.080180E+0	1.008537E+0	1.038793E+0	1.024488E+0	1.038527E+0	1.061871E+0	1.067751E+0	1.007284E+0	1.098134E+0	1.049660E+0	1.055339E+0	1.059772E+0	1.051445E+0	1.069367E+0	1.053217E+0	1.038165E+0	1.035970E+0	1.056178E+0	1.070199E+0	1.114716E+0	1.064776E+0	1.128648E+0	1.036277E+0	1.054740E+0	1.070219E+0	1.041134E+0	1.088310E+0	1.071831E+0	1.081690E+0	1.101100E+0	9.424909E-1
