Photon Energy (eV)	#1	#2	#3	#4	#5	#6	#7	#8	#9	#10	#11	#12	#13	#14	#15	#16	#17	#18	#19	#20	#21	#22	#23	#24	#25	#26	#27	#28	#29	#30	#31	#32	#33	#34	#35	#36	#37	#38	#39	#40	#41	#42	#43	#44	#45	#46	#47	#48	#49	#50	#51	#52	#53	#54	#55	#56	#57	#58	#59	#60	#61	#62	#63	#64	#65	#66	#67	#68	#69	#70	#71	#72	#73	#74	#75	#76	#77	#78	#79	#80	#81	#82	#83	#84	#85	#86	#87	#88	#89	#90	#91	#92	#93	#94	#95	#96	#97	#98	#99	#100	#101	#102	#103	#104	#105	#106	#107	#108	#109	#110	#111	#112	#113	#114	#115	#116	#117	#118	#119	#120	#121	#122	#123	#124	#125	#126	#127	#128	#129	#130	#131	#132	#133	#134	#135	#136	#137	#138	#139	#140	#141	#142	#143	#144	#145	#146	#147	#148	#149	#150	#151	#152	#153	#154	#155	#156	#157	#158	#159	#160	#161	#162	#163	#164	#165	#166	
5.290120E+2	3.892291E-2	3.995657E-2	2.145493E-2	1.939489E-2	1.146662E-3	2.139154E-2	5.336625E-2	2.067114E-2	5.345366E-2	5.519599E-2	4.638195E-2	3.069571E-2	2.998773E-2	1.569071E-2	2.259403E-2	2.804413E-2	2.681983E-2	1.738699E-2	2.519902E-2	1.819693E-2	2.093110E-2	4.103009E-2	2.719408E-2	3.726323E-2	3.350540E-2	4.334782E-2	2.718473E-2	3.026060E-2	2.237565E-2	3.707793E-2	4.289468E-2	1.493883E-2	2.003118E-2	4.295260E-2	1.622112E-3	1.861724E-2	3.340453E-2	2.685140E-2	4.901149E-2	1.911244E-2	3.080858E-2	4.145762E-2	3.611310E-2	5.634258E-2	1.058851E-2	4.747167E-2	4.137129E-2	4.474798E-2	5.386077E-2	1.606379E-2	3.282103E-2	5.844364E-2	4.497068E-2	4.483622E-2	1.969554E-2	2.725707E-2	3.255139E-2	1.464923E-2	2.878798E-2	2.224767E-2	-3.299705E-3	5.183667E-3	3.850821E-2	2.565700E-2	2.122144E-2	5.129547E-2	1.903216E-2	5.751417E-2	5.234462E-2	4.916494E-2	1.390667E-2	3.036231E-2	9.886021E-3	5.350529E-2	4.094976E-2	7.822135E-3	4.429022E-2	3.487614E-2	3.295065E-2	1.626419E-2	2.164175E-2	3.908891E-2	2.552170E-2	-2.535341E-3	3.565663E-2	1.220268E-2	6.810309E-4	3.042064E-2	6.238623E-2	1.270142E-2	1.770856E-2	4.288473E-2	3.142802E-2	2.093333E-2	3.592624E-2	3.486683E-2	1.028490E-2	3.230483E-2	3.325354E-2	1.327435E-2	2.761611E-2	5.343394E-4	5.076991E-2	3.481495E-2	1.087442E-2	4.286599E-2	2.046863E-2	6.738829E-3	1.913587E-2	3.948257E-2	1.557443E-2	2.811147E-2	3.155134E-2	2.597639E-2	4.337464E-2	1.150644E-2	8.846533E-3	4.638700E-2	4.346560E-2	2.127856E-2	4.274859E-2	4.433292E-2	1.320542E-2	2.936774E-2	4.881006E-2	2.092198E-2	1.621369E-2	-2.975663E-3	1.184703E-2	-5.667234E-3	4.943281E-2	8.745261E-3	1.517287E-2	1.249574E-2	2.390006E-2	3.181949E-2	6.733136E-2	-3.779265E-3	2.125455E-2	6.712742E-3	3.010665E-2	1.298122E-2	2.826651E-2	-8.077929E-4	3.942549E-2	-2.027536E-3	2.900274E-2	2.711953E-2	-2.334144E-4	2.282618E-2	4.776397E-2	3.406327E-2	4.926212E-2	2.713426E-2	3.345715E-2	5.452710E-2	1.713426E-2	1.556831E-2	2.852138E-2	2.752102E-2	5.071345E-2	5.875703E-2	3.458200E-2	6.323826E-2	-8.829217E-3	8.853739E-2
5.294960E+2	-2.358104E-2	-5.117214E-3	-3.428741E-3	-3.604237E-3	-2.535494E-4	2.259843E-4	-9.773748E-3	1.168728E-2	-1.778616E-2	-3.853226E-2	1.754925E-2	1.484671E-2	-1.112297E-2	-2.743864E-3	-1.456056E-2	-1.951791E-2	5.238546E-3	-9.329650E-4	7.977714E-3	-1.472598E-2	-8.593345E-3	-9.057761E-3	-8.088446E-3	3.592658E-3	-1.570692E-2	-1.073470E-2	-1.122058E-2	-3.839020E-2	-2.023481E-2	-1.739907E-2	-2.771894E-2	-2.611684E-2	-3.707975E-3	-2.965162E-2	4.975851E-3	-1.132178E-2	-2.613862E-2	-1.923797E-2	9.057691E-3	-1.657160E-2	-1.036516E-3	-1.340556E-2	-2.890328E-4	-3.879410E-2	-1.128336E-2	8.137981E-3	-1.501873E-2	-1.032489E-2	-9.121049E-3	-3.185474E-2	-2.780510E-2	-2.891434E-2	-4.557166E-3	-2.476020E-2	4.134917E-3	-2.285802E-2	-2.294364E-2	-1.123237E-2	-2.372062E-2	-2.158685E-2	-1.273718E-3	1.716991E-3	-3.251772E-2	-5.752820E-3	-1.630067E-2	-2.743602E-2	-3.586724E-2	-2.725105E-2	-8.976190E-3	-3.593738E-2	-9.834462E-3	-1.129732E-2	-6.383383E-3	-2.553280E-2	-2.615778E-2	-5.977849E-3	-6.004891E-3	-2.541959E-2	-1.177640E-2	-8.324712E-3	2.139432E-2	-2.707041E-3	-2.177921E-2	-1.350349E-2	-4.088966E-3	-3.861865E-2	-1.441711E-2	-1.199594E-2	-1.644777E-2	-1.514990E-2	-6.278237E-3	-1.729479E-2	2.285146E-2	-2.259027E-2	-1.424478E-2	-1.362773E-2	-2.138504E-2	-1.351912E-2	-3.361421E-2	-2.944504E-2	-2.150129E-2	-1.334003E-2	1.331727E-2	-5.251648E-2	-1.366644E-2	-3.879855E-2	-2.674441E-2	-1.008303E-2	-2.069316E-2	-1.665437E-2	-1.477659E-2	1.119786E-2	-2.274755E-2	-3.363147E-2	-3.324255E-3	-1.472355E-2	-5.080775E-3	-4.752083E-2	-1.238376E-2	-5.784890E-3	-1.249019E-3	-2.717465E-2	-1.330879E-2	5.594637E-3	3.988620E-3	1.835095E-2	-2.873298E-2	1.581057E-3	-4.155171E-2	-2.975568E-2	-6.843441E-3	-3.972663E-3	-1.417502E-2	-3.144450E-2	1.094861E-2	-4.416831E-2	-4.322377E-2	7.702924E-3	-2.922638E-2	-3.348515E-3	-4.141395E-2	-1.673779E-2	-8.484952E-4	-4.838301E-2	-1.835304E-2	6.230867E-3	-1.374690E-2	-1.055951E-3	-2.424498E-2	-4.576895E-3	-7.401486E-4	-3.127281E-2	6.061465E-3	-6.631601E-3	-1.617830E-2	-5.311373E-2	-1.183658E-3	1.638288E-2	-1.652152E-2	-1.105003E-2	-3.669644E-2	-2.212183E-2	-1.437916E-2	-5.284204E-3	-1.334572E-2	3.761630E-2
5.300060E+2	-3.918734E-2	-6.186092E-2	-5.528989E-2	-4.467254E-2	-4.511762E-2	-3.501675E-2	-3.718444E-2	-4.720895E-2	-3.349199E-2	-3.892048E-2	-5.536008E-2	-4.350677E-2	-5.980714E-2	-5.730787E-2	-6.690153E-2	-7.546046E-2	-3.272203E-2	-4.306815E-2	-2.211758E-2	-4.549989E-2	-3.846130E-2	-2.757194E-2	-3.930936E-2	-3.099966E-2	-4.463658E-2	-3.279251E-2	-5.067299E-2	-3.743582E-2	-4.125294E-2	-6.620952E-2	-5.037621E-2	-2.225334E-2	-4.428280E-2	-7.133768E-2	-5.346383E-2	-4.402420E-2	-3.674402E-2	-5.380137E-2	-3.194993E-2	-4.419604E-2	-4.489773E-2	-3.314001E-2	-5.205682E-2	-4.391634E-2	-6.865076E-2	-5.702231E-2	-4.359739E-2	-3.293048E-2	-4.445862E-2	-2.543678E-2	-3.402170E-2	-4.271111E-2	-2.852025E-2	-3.495391E-2	-5.468496E-2	-3.995949E-2	-5.557306E-2	-3.879316E-2	-4.515709E-2	-5.845544E-2	-1.962955E-2	-5.962958E-2	-4.047244E-2	-6.178970E-2	-6.167836E-2	-5.386631E-2	-1.255581E-2	-4.805918E-2	-4.537976E-2	-4.873194E-2	-4.283559E-2	-6.269913E-2	-2.538905E-2	-6.097489E-2	-3.869246E-2	-3.971009E-2	-4.885287E-2	-4.744806E-2	-4.941949E-2	-3.981130E-2	-3.413468E-2	-5.278760E-2	-5.725113E-2	-3.029774E-2	-6.273478E-2	-4.236203E-2	-6.793340E-3	-4.949594E-2	-5.325312E-2	-5.323758E-2	-4.714992E-2	-5.019685E-2	-2.858367E-2	-4.694420E-2	-5.239640E-2	-3.536824E-2	-5.234022E-2	-2.624213E-2	-3.412056E-2	-4.961863E-2	-5.414732E-2	-4.727575E-2	-4.438127E-2	-1.958337E-2	-4.442642E-2	-4.971335E-2	-2.130782E-2	-2.878776E-2	-4.266582E-2	-5.586752E-2	-4.660448E-2	-3.185185E-2	-1.982318E-2	-3.174831E-2	-5.388277E-2	-3.235749E-2	-5.079407E-2	-2.486240E-2	-5.635741E-2	-5.029752E-2	-4.410624E-2	-3.925745E-2	-4.030382E-2	-4.072847E-2	-3.522268E-2	-4.727421E-2	-6.563504E-2	-3.907501E-2	-2.471763E-2	-3.137593E-2	-4.597924E-2	-3.725360E-2	-5.559667E-2	-2.245483E-2	-5.292342E-2	-4.120761E-2	-5.605203E-2	-3.302110E-2	-3.798495E-2	-5.967675E-2	-1.926905E-2	-3.351009E-2	-2.199249E-2	-4.769885E-2	-1.886459E-2	-2.436195E-2	-2.641856E-2	-4.637392E-2	-5.505240E-2	-3.731313E-2	-3.367025E-2	-2.139317E-2	-6.133120E-2	-4.163668E-2	-4.490031E-2	-5.615145E-2	-3.054373E-2	-3.907819E-2	-5.466339E-2	-6.088654E-2	-2.773640E-2	-4.222659E-2	-3.485027E-2	-2.010236E-2	1.317968E-2	-7.440353E-2
5.305080E+2	-3.747666E-2	-3.732114E-2	-2.758400E-2	-2.075693E-2	-3.743826E-2	-1.056322E-2	-4.204453E-2	-3.615649E-2	-2.492396E-2	-1.672454E-2	-3.099666E-2	-3.086392E-2	-6.943672E-3	-2.406746E-2	-2.884703E-2	-5.938599E-3	-4.540144E-2	-1.969897E-2	-2.250953E-2	-2.155091E-2	-1.785539E-2	-1.247157E-2	-3.655528E-2	-5.127167E-2	-2.890734E-2	-3.479194E-2	-1.845316E-2	-2.389776E-2	-1.944454E-2	-3.391550E-2	-2.591408E-2	-5.806158E-2	-5.199019E-2	-2.086868E-2	-5.618816E-2	-2.007014E-2	-3.779591E-2	-2.554621E-2	-5.394999E-2	-2.846471E-2	-3.295090E-2	-2.360441E-2	-3.463031E-2	-2.892361E-2	-1.413297E-2	-3.280723E-2	-4.681794E-2	-5.741384E-3	-2.001049E-2	-4.031082E-2	-2.712161E-2	-3.368368E-2	-3.509568E-2	-4.352947E-2	-2.914205E-2	-3.452484E-2	-5.914374E-3	2.648358E-2	-2.958783E-2	-2.438822E-2	-3.236727E-2	-2.358208E-2	-3.835780E-2	-2.477016E-2	-2.372153E-2	-4.177293E-2	-5.341704E-2	-3.433279E-2	-3.973604E-2	-2.868864E-2	-2.243705E-2	-3.434844E-3	-3.429728E-2	-1.458448E-2	-2.486324E-2	-2.936909E-2	-5.513567E-3	-1.922800E-2	-2.524082E-2	-2.535615E-2	-3.381088E-2	-1.887902E-2	-2.571736E-2	-2.043463E-2	-2.996477E-2	-3.684486E-2	-4.221566E-2	-3.633984E-2	-4.369653E-2	-1.239612E-2	-2.305958E-2	-8.299977E-3	-3.069779E-2	-3.373706E-2	-3.268087E-2	-1.973046E-2	4.984857E-3	-2.061464E-2	-2.309854E-2	-4.509678E-2	-5.597079E-2	-3.574998E-2	-5.968053E-2	-2.065369E-2	-1.640002E-2	-2.313425E-2	-5.698530E-2	-3.473832E-2	-6.600335E-3	-2.391363E-2	-1.892246E-2	-5.283201E-2	-2.085305E-2	-4.093918E-3	-7.694421E-2	-1.258143E-2	-2.651174E-2	-2.473660E-2	-2.261214E-2	-3.892692E-2	-2.506705E-2	-2.408359E-2	-2.119010E-2	-1.308840E-2	-1.864176E-2	-9.099513E-3	-1.832229E-2	-3.875340E-2	-3.153915E-2	-2.791272E-2	-6.523562E-2	-1.814957E-2	-1.995472E-2	-3.070078E-2	-3.534500E-2	-2.094843E-2	-2.777681E-2	-2.973680E-2	-2.142009E-2	-2.346529E-2	-1.587291E-2	-2.046516E-2	-3.567740E-2	-4.093712E-2	-2.000792E-2	-3.609752E-2	-3.830973E-2	-7.289063E-3	-2.143360E-2	-4.057193E-2	-3.233472E-2	-4.611758E-2	-3.947425E-2	-4.806555E-2	-2.131878E-2	-6.098844E-3	-4.108349E-2	-3.303578E-2	-2.173715E-2	-4.930290E-2	-2.878339E-2	-2.365643E-2	-2.823370E-2	-5.536674E-2	-4.688470E-2	-6.030079E-2
5.310100E+2	1.770172E-2	2.349449E-2	1.362154E-2	-1.711156E-2	-1.378982E-2	-1.651646E-2	7.262842E-3	3.005491E-3	1.849768E-2	4.515714E-3	-3.169768E-3	3.978881E-3	1.853326E-2	6.301350E-3	3.328450E-2	2.608482E-2	1.207117E-2	1.924667E-2	-7.415926E-3	6.497523E-3	1.064276E-3	-1.017053E-2	1.457998E-2	3.889281E-3	-1.573991E-2	-8.529105E-3	1.705901E-3	6.812318E-3	3.366253E-3	3.012577E-2	2.139661E-2	1.012491E-2	4.413700E-3	1.788533E-2	9.635004E-3	-1.301883E-2	1.460898E-2	1.283770E-2	-5.734064E-3	3.074154E-2	-3.968922E-3	2.363387E-3	1.000187E-2	-2.675283E-3	2.831505E-2	-1.877681E-2	3.881708E-2	2.040927E-3	-5.092848E-3	1.305414E-2	1.535401E-3	2.520677E-2	1.980065E-2	6.442537E-3	1.143148E-2	6.751583E-3	1.986341E-2	8.258309E-3	7.916606E-3	1.677097E-2	6.962262E-3	-3.240400E-3	1.993393E-2	2.241155E-2	4.999416E-4	2.853191E-2	-1.865980E-2	1.456799E-2	1.692278E-2	2.865597E-2	2.036387E-2	4.106272E-3	8.124850E-3	1.580568E-2	3.786279E-4	-8.647266E-3	-1.936698E-2	8.284214E-3	-1.194837E-2	1.080202E-2	-1.385045E-2	2.050402E-2	3.780691E-3	1.891752E-2	3.510962E-3	2.262197E-2	7.055331E-3	1.224029E-2	4.226906E-3	4.465801E-3	1.132975E-2	-9.215300E-3	2.210070E-3	8.475866E-3	-1.155960E-2	2.449146E-2	1.770184E-3	-2.523349E-2	2.432370E-3	2.538513E-2	8.530788E-3	2.238264E-2	2.934650E-2	1.659957E-2	-2.015782E-2	4.695809E-2	1.558264E-2	9.825406E-3	1.562401E-3	1.607518E-2	4.046776E-2	-1.293671E-2	1.589001E-2	1.925315E-2	3.204940E-3	2.511067E-2	1.908173E-2	-1.050959E-2	1.456404E-3	3.406228E-3	-1.488259E-2	1.604837E-2	7.340360E-3	1.278337E-2	-3.196507E-2	2.311702E-3	3.132505E-2	7.068932E-3	2.636661E-2	1.553820E-2	2.457518E-3	1.554113E-2	1.255739E-2	3.781944E-3	1.172221E-2	1.215914E-2	2.981434E-2	2.577978E-2	1.703515E-2	3.085385E-2	2.622307E-2	2.029478E-2	8.039265E-3	-1.212172E-2	-6.888314E-3	6.865454E-3	-1.002580E-3	-8.535411E-3	3.089375E-2	6.199272E-3	-9.094430E-3	2.941775E-2	1.564970E-3	2.555468E-2	4.448996E-3	-9.676152E-3	2.488424E-2	1.732458E-3	7.769081E-3	1.719653E-2	1.525910E-2	2.386354E-2	3.855939E-2	-5.746612E-4	1.767258E-2	7.602882E-3
5.315030E+2	5.298831E-2	2.386093E-2	3.917924E-2	5.743408E-2	5.348065E-2	2.591794E-2	2.400405E-2	5.548947E-2	3.338328E-2	2.934161E-2	2.432589E-2	1.612950E-2	1.646801E-2	4.010119E-2	6.983771E-2	5.516527E-2	4.481075E-2	2.845093E-2	5.611308E-2	4.203469E-2	3.867675E-2	1.053148E-2	5.655354E-2	6.262121E-2	4.059150E-2	3.713075E-2	3.778583E-2	5.943407E-2	7.674093E-2	5.018663E-2	3.301140E-2	4.210944E-2	7.776975E-2	3.572733E-2	5.864630E-2	3.394091E-2	2.098638E-2	4.439512E-2	3.632958E-2	3.405794E-2	5.976342E-2	2.823265E-2	3.482803E-2	5.205738E-2	6.732187E-2	6.345783E-2	3.014576E-2	2.239354E-2	5.225732E-2	6.359918E-2	4.383500E-2	5.436837E-2	1.558685E-2	6.320066E-2	5.738017E-2	6.564502E-2	3.234437E-2	2.739408E-2	2.018834E-2	8.400127E-3	4.121339E-2	2.308533E-2	4.829881E-2	4.477661E-2	4.910386E-2	3.453284E-2	5.778876E-2	2.976285E-2	3.906836E-2	4.794786E-2	6.863475E-2	3.351473E-2	3.858888E-2	2.430962E-2	5.939936E-2	6.767101E-2	3.609413E-2	4.727574E-2	3.622222E-2	4.361059E-2	4.558800E-2	1.296982E-2	3.685914E-2	5.982140E-2	4.121830E-2	5.971679E-2	4.946594E-2	5.130034E-2	1.873134E-2	3.485789E-2	4.476884E-2	4.485977E-2	1.578930E-2	6.115027E-2	7.682177E-2	4.539135E-2	5.643604E-2	2.551304E-2	5.342132E-2	7.331823E-2	5.066265E-2	4.803233E-2	4.501808E-2	5.205067E-2	4.108860E-2	1.412145E-3	5.324919E-2	6.850381E-2	1.339533E-2	4.175768E-2	2.862233E-2	4.873837E-2	1.404007E-2	3.915678E-2	6.213223E-2	5.364389E-2	5.757653E-2	3.986570E-2	3.762772E-2	5.010655E-2	3.961303E-2	2.878631E-2	4.223065E-2	5.361617E-2	3.210999E-2	4.462399E-2	5.778380E-2	4.482106E-2	4.767535E-2	6.406517E-2	7.095733E-2	4.655421E-2	5.736697E-2	3.667658E-2	2.404347E-2	5.817604E-2	3.394670E-2	1.338687E-2	5.261574E-2	4.044024E-2	2.551102E-2	3.933290E-2	4.801202E-2	9.824161E-2	1.866210E-3	3.156010E-2	7.105983E-2	3.830679E-2	5.299397E-2	3.694938E-2	2.509582E-2	1.947857E-2	5.266117E-2	3.823277E-2	5.435736E-2	4.102746E-2	5.303241E-2	5.618467E-2	2.942223E-2	8.640485E-2	3.482882E-2	1.401407E-2	1.836520E-2	1.215140E-2	5.252739E-2	-2.547311E-2
5.320070E+2	1.862762E-2	1.660317E-2	1.438085E-2	1.354515E-2	4.306745E-2	2.610548E-2	2.137778E-2	-7.042035E-3	-2.673654E-2	3.052836E-2	2.493354E-2	2.110304E-2	1.649188E-2	2.179270E-2	1.336468E-2	-3.114019E-3	5.556167E-3	8.579729E-3	-4.209996E-3	3.515757E-2	3.437060E-2	1.472010E-2	1.178645E-2	2.247103E-2	3.242220E-2	1.603130E-2	6.543510E-3	1.534382E-2	-8.831949E-3	9.153897E-3	1.383562E-2	3.234031E-2	9.730491E-3	4.190677E-2	2.165572E-2	1.641751E-2	8.888515E-3	2.589857E-2	2.833061E-3	2.681992E-2	-8.810036E-3	1.903889E-2	2.550478E-2	1.619433E-2	9.479863E-3	1.833349E-2	-5.434206E-4	-2.541528E-3	-1.224747E-2	1.955480E-2	9.966431E-3	7.082104E-3	1.813042E-2	1.348165E-2	1.091583E-2	6.340339E-3	8.334733E-3	-2.013041E-2	2.363009E-2	5.935657E-2	-1.921792E-3	3.343970E-2	2.721834E-2	1.551302E-2	2.154998E-2	3.038093E-2	4.588837E-2	1.315392E-2	-9.580043E-3	1.349836E-2	-8.134029E-3	2.937969E-2	7.892874E-3	1.896145E-2	2.249316E-2	1.179141E-2	1.019232E-2	6.722536E-3	2.166457E-2	1.051377E-2	3.931334E-3	2.121837E-2	3.935470E-2	-1.928534E-3	1.715639E-2	2.314178E-2	-2.138894E-2	4.142158E-3	5.276512E-2	1.625995E-2	1.996109E-2	1.749737E-2	7.978366E-3	1.687037E-2	7.401040E-3	-1.270495E-2	2.958284E-2	3.021564E-2	1.475837E-2	-3.861568E-3	5.265837E-2	2.597725E-2	1.308514E-3	-2.514410E-3	5.056973E-2	2.935530E-2	9.726997E-3	3.029503E-3	2.607283E-2	1.799579E-2	2.759383E-2	3.462148E-2	7.580269E-3	-1.137286E-2	2.472881E-2	8.564327E-3	3.932342E-3	1.918005E-2	1.843436E-2	4.325918E-3	2.741535E-2	2.849770E-2	1.922774E-2	-2.271870E-2	1.344437E-2	-2.292344E-3	2.707808E-2	1.927251E-2	2.816220E-2	-7.524413E-3	-1.026086E-2	1.096216E-2	1.117958E-2	2.956464E-2	2.563945E-2	3.597773E-3	2.579480E-3	1.802424E-2	3.794650E-3	8.836725E-4	3.290411E-3	2.569960E-3	-1.837863E-2	5.916885E-2	4.797499E-2	1.882968E-2	2.819602E-2	-2.023393E-3	1.418307E-2	3.162877E-2	3.291832E-2	3.665858E-2	4.152099E-3	1.297495E-2	8.048861E-4	1.068538E-2	6.585215E-3	-1.275701E-2	2.551203E-2	7.074570E-3	-2.867930E-3	4.456896E-3	2.894676E-3	-9.696104E-3	2.467252E-2	6.912200E-2
5.325120E+2	-2.799552E-2	3.841280E-4	-2.333939E-3	-4.228856E-3	-1.095506E-3	-1.154451E-2	-1.700820E-2	-4.459057E-4	-2.395964E-3	-2.540438E-2	-2.366411E-2	-1.238315E-2	-3.607092E-3	2.332406E-4	-2.877179E-2	-5.263242E-3	-1.637300E-2	-9.964228E-3	-3.303677E-2	-2.010992E-2	-3.013269E-2	-7.009873E-3	-2.616097E-2	-4.756608E-2	-1.528364E-3	-9.661602E-3	7.126754E-3	-1.212703E-2	-1.271860E-2	-9.020134E-3	-7.129088E-3	6.918270E-3	-1.196415E-2	-1.661405E-2	1.311700E-2	1.945930E-2	2.279014E-2	-1.139724E-2	-5.597837E-3	-2.149950E-2	1.092108E-3	-2.094257E-2	-1.947162E-2	-1.028495E-2	-2.163820E-2	-2.879462E-2	-4.356651E-3	-1.764415E-2	-1.518761E-2	-1.466957E-2	7.905573E-4	-3.979175E-2	-3.031550E-2	-2.471748E-2	-1.973094E-2	-8.651664E-3	-8.662835E-3	-6.629248E-3	1.794253E-2	-2.344815E-3	1.031638E-2	2.302638E-2	-2.261133E-2	-1.604549E-2	9.325346E-3	-2.166590E-2	-2.209396E-3	-5.355921E-3	-4.663736E-3	-2.590918E-2	-1.966416E-2	-1.993171E-2	1.577090E-3	-1.148986E-2	-3.350742E-2	-3.580267E-3	-1.083836E-2	-5.062985E-3	7.547631E-3	-7.698407E-3	-1.075940E-2	-1.940745E-2	-7.685360E-4	-1.003919E-2	-7.537677E-4	1.423095E-4	2.761275E-2	-2.717025E-4	-2.471218E-2	1.249855E-2	-1.728051E-2	-2.023496E-2	-2.097576E-2	-4.158293E-3	-9.267403E-3	-2.331825E-2	-2.933355E-2	-2.424137E-3	-1.303229E-2	1.604431E-2	-7.848519E-3	-5.608082E-4	-3.569846E-2	-8.197237E-3	-7.882053E-3	-8.945378E-3	6.010076E-3	-1.448845E-2	9.792886E-3	-1.887569E-2	-3.195481E-2	-2.504861E-2	-5.637902E-3	-3.539770E-3	7.106145E-4	-3.916286E-2	-7.050548E-3	2.196665E-3	-9.630781E-3	1.589208E-2	-2.447207E-2	-2.714961E-2	-7.201465E-3	-2.482635E-2	-1.252354E-2	-2.754256E-2	-1.971031E-2	8.060524E-3	-1.624272E-2	2.263260E-2	5.471510E-3	-2.242693E-2	-6.550399E-3	2.081205E-3	-7.985389E-3	5.719018E-4	-6.619265E-3	1.643354E-3	-6.068662E-3	7.600033E-3	-8.575236E-3	-4.465819E-3	-7.420776E-3	-7.461969E-3	-2.515281E-2	-9.990974E-4	-4.878082E-2	-1.485874E-4	2.893611E-3	-1.514165E-2	-2.993857E-2	-2.083461E-2	-1.289637E-2	-7.562828E-3	-1.067101E-2	1.880024E-2	-2.882525E-2	-4.997335E-3	1.697337E-3	-1.695752E-2	-4.717221E-3	-1.308669E-2	-1.693814E-2	1.563440E-2	-3.899253E-2	-4.270115E-2
5.330080E+2	-1.467773E-2	-5.933969E-2	-4.415863E-2	-2.162781E-2	-3.855431E-2	4.404763E-3	-4.228153E-2	-4.859012E-2	-3.966466E-2	-3.223141E-2	-8.534967E-3	-4.270198E-2	-4.978363E-2	-4.007491E-2	-1.929115E-2	-2.321110E-2	-3.308862E-2	-4.962598E-2	-1.952136E-2	-3.544621E-2	-1.772405E-2	-1.831441E-2	-5.547443E-2	-2.485698E-2	-4.479621E-2	-2.951640E-2	-4.891214E-2	-1.785149E-2	-1.030800E-3	-3.080894E-2	-3.938174E-2	-1.094173E-2	-7.427973E-3	-2.746781E-2	-2.072488E-2	-6.500773E-2	-3.048831E-2	-1.752106E-2	-2.823736E-2	-3.002766E-2	-4.702671E-2	-3.515150E-2	-3.550489E-2	-3.410122E-2	-4.119009E-2	-3.443661E-2	5.199684E-3	-1.037009E-2	-3.282959E-2	-3.356307E-2	-3.687226E-2	-2.221380E-2	-3.619085E-2	-5.632411E-2	-5.633177E-2	-5.673529E-2	-6.811783E-3	-2.923133E-2	-7.004035E-2	-3.253585E-2	-5.011210E-2	-5.713972E-2	-2.534095E-2	-2.560034E-2	-5.257218E-3	-1.383371E-2	-3.116113E-2	-3.148537E-2	-2.995811E-2	-1.510184E-2	-1.184659E-2	-2.552508E-2	-1.368430E-2	-1.669279E-2	-4.857987E-2	-3.581463E-2	-1.000831E-2	-1.893629E-2	-1.592168E-2	-4.563161E-2	-3.527249E-2	-1.433259E-2	-5.586611E-2	-2.767900E-2	-1.959430E-2	-3.670590E-2	-2.217925E-2	-2.462249E-2	-6.699188E-2	-1.320689E-2	-2.730488E-2	-1.404669E-3	-3.307348E-2	-3.686397E-2	-6.040231E-2	-3.255245E-2	-2.174383E-2	-4.262278E-2	-3.266119E-2	-3.207842E-2	-3.716110E-2	-5.003303E-2	-4.710106E-2	-1.475399E-2	-2.553894E-2	-2.368237E-3	-1.171088E-2	-3.928824E-2	-3.789344E-2	-3.731802E-2	-4.811833E-2	-4.306185E-2	-4.489243E-2	-5.092479E-2	-1.971149E-2	-2.380858E-2	-2.411924E-2	-1.016509E-2	-2.569595E-2	-2.751099E-3	-4.710185E-2	-4.713734E-2	-4.573640E-2	-4.082632E-2	-3.493758E-2	-3.676896E-2	-4.817603E-2	-2.884678E-2	-9.597322E-3	-4.816336E-2	-4.967961E-2	-4.154097E-2	-4.551282E-2	-1.686946E-2	-2.584669E-2	-1.276240E-2	-3.010509E-2	-5.801004E-2	-4.281112E-2	-3.361990E-2	-3.141596E-2	-6.681690E-2	-3.461249E-2	-5.962140E-2	-4.532048E-2	2.287304E-3	-3.193974E-2	-1.380591E-2	-1.683675E-2	-4.343394E-2	-4.628872E-2	-4.968436E-2	-2.950852E-2	-2.452215E-2	-6.682016E-3	-5.725666E-2	-4.347509E-2	-5.780717E-2	-4.305008E-2	-2.510722E-2	-4.422479E-2	-2.498678E-2	-3.733979E-2	-6.710499E-2	-5.849658E-2	-5.902057E-2
5.332090E+2	-8.817457E-3	-3.809000E-2	2.274757E-2	6.083657E-4	-1.641249E-2	-2.934866E-2	2.241783E-2	-1.783470E-2	9.507921E-3	-2.136637E-2	1.385693E-2	-7.182330E-3	-1.731620E-2	1.886077E-2	-4.471465E-4	-1.813832E-2	-2.844511E-2	-2.364449E-2	-1.567451E-2	-8.266915E-3	-3.467384E-2	1.979109E-2	-8.679510E-3	-7.178621E-3	-5.289005E-2	1.615083E-2	-9.457831E-3	-2.249173E-2	-2.374770E-3	-3.324650E-2	-3.308115E-2	-9.578043E-3	-1.254609E-2	-1.594626E-2	-3.585372E-2	-2.018595E-2	-2.346728E-2	-1.272643E-2	-3.844811E-2	-1.017336E-2	-5.617852E-4	-5.359299E-3	-3.332170E-2	-1.167295E-2	-3.341405E-2	-8.012600E-3	-4.643548E-4	-5.711728E-4	-4.450122E-2	3.380071E-3	-4.118189E-2	-9.717895E-3	-3.518714E-2	-1.434069E-2	-3.978493E-3	-3.492038E-2	-1.685449E-2	-1.293615E-2	2.474344E-3	-5.141125E-3	8.851791E-3	-2.548458E-2	-2.837708E-2	-2.068589E-2	-2.872367E-2	-1.738897E-2	-3.245936E-4	-5.654380E-3	-2.247141E-2	1.034065E-2	-2.910000E-2	2.043506E-3	-5.789325E-3	-4.300750E-2	-7.885715E-3	3.547066E-3	-1.579521E-2	-3.598584E-2	1.028513E-2	-2.457002E-2	-3.290078E-2	-3.089532E-2	1.619719E-2	1.885232E-2	-3.129679E-2	-2.179490E-2	-1.048836E-2	4.456843E-3	-1.585814E-2	-2.326666E-2	4.985295E-3	-1.350589E-3	-2.003510E-4	-1.756421E-2	-3.400049E-2	-4.034498E-2	9.487075E-3	-2.836102E-2	-1.804783E-2	-1.665429E-2	-1.966934E-2	-4.130545E-3	-1.471471E-2	-7.506504E-3	-3.714968E-3	-2.426256E-2	5.546008E-3	8.117639E-3	-2.903404E-2	-2.046321E-2	-2.672457E-2	-3.145370E-2	-3.933809E-2	-2.339927E-2	5.830261E-3	-3.445663E-2	1.356035E-2	-2.642309E-3	2.869809E-3	-1.885617E-2	-8.269878E-3	-2.638003E-2	4.725158E-3	1.638893E-2	-4.284813E-2	-2.686747E-2	-4.403532E-3	1.102860E-2	-1.443279E-2	-4.267177E-2	-7.882896E-3	-1.041172E-2	-3.752872E-3	2.764703E-2	-8.379216E-3	-7.089902E-3	-1.328470E-2	-1.470344E-2	1.839617E-3	3.422914E-2	1.008262E-2	-3.432126E-2	-2.546288E-2	-3.666997E-2	-1.277932E-2	-2.759778E-3	-1.623715E-2	-3.167358E-3	-1.043363E-2	-2.532374E-2	2.983550E-3	-1.451625E-2	1.056035E-2	1.912468E-3	-3.015925E-2	-2.335370E-2	-5.578806E-4	-3.778765E-2	-1.219072E-2	-2.086394E-2	2.197509E-2	3.156078E-3	1.938520E-2	-4.953643E-2	-2.016722E-2	-4.317991E-2
5.334110E+2	6.122494E-2	3.747697E-2	3.468862E-2	1.989282E-2	4.557485E-2	5.370389E-2	4.177643E-2	4.153521E-2	4.834603E-2	1.727798E-2	7.564523E-2	7.567882E-2	6.285881E-2	6.719133E-2	4.538146E-2	6.822481E-2	7.085832E-2	7.116545E-2	2.717027E-2	7.070506E-2	5.318433E-2	5.224991E-2	4.604975E-2	7.913550E-2	3.548724E-2	4.359938E-2	4.345774E-2	3.619579E-2	7.075717E-2	7.887532E-2	4.701873E-2	6.745620E-2	5.838612E-2	3.417288E-2	3.224394E-2	7.587082E-2	7.677053E-2	4.384564E-2	5.508368E-2	4.679892E-2	7.125126E-2	6.325861E-2	3.811255E-2	5.655362E-2	3.844999E-2	5.163407E-2	3.497733E-2	4.111495E-2	2.283209E-2	7.072911E-2	3.882579E-2	8.379008E-3	5.534705E-2	6.681632E-2	3.147632E-2	4.059269E-2	4.447753E-2	1.171041E-1	3.707406E-2	2.848524E-2	4.547470E-2	3.821742E-2	3.421173E-2	3.825259E-2	3.562993E-2	7.048787E-2	4.232665E-2	5.251320E-2	5.266388E-2	6.389856E-2	3.869459E-2	2.359533E-2	6.489738E-2	3.895818E-2	6.885497E-3	1.441172E-2	6.412628E-2	3.175634E-2	4.942880E-2	6.205778E-2	2.315044E-2	6.305136E-2	5.006481E-2	3.627679E-2	4.166244E-2	2.874374E-2	4.661529E-2	2.122917E-2	-1.747758E-3	7.396462E-2	5.926068E-2	4.643239E-2	5.906055E-2	7.225003E-2	2.952143E-2	3.541964E-2	5.792624E-2	5.146702E-2	6.171303E-2	6.317314E-2	6.148176E-2	6.312055E-2	4.851289E-2	4.216917E-2	7.976326E-2	5.580391E-2	3.501162E-2	7.368741E-2	3.413075E-2	6.025398E-2	3.847622E-3	3.698904E-2	6.384618E-2	4.051472E-2	4.613842E-2	5.784807E-2	4.949422E-2	4.025666E-2	2.382151E-2	7.268090E-2	5.105931E-2	6.459127E-2	5.436648E-2	8.559663E-2	7.916518E-2	4.156272E-2	7.701582E-2	4.521598E-2	8.143166E-2	3.685512E-2	2.473363E-2	8.243386E-2	6.957075E-2	3.814861E-2	5.614448E-2	7.708255E-2	2.564799E-2	4.266247E-2	2.799690E-2	7.636473E-2	8.816178E-2	6.279217E-2	2.548260E-2	4.622746E-2	7.514964E-2	8.124640E-2	8.067590E-2	3.432573E-2	2.980167E-2	3.515113E-2	3.643869E-2	2.433232E-2	7.117207E-2	4.866921E-2	7.695084E-2	4.127537E-2	4.509518E-2	6.126744E-2	2.453620E-2	3.872402E-2	4.171610E-3	4.041099E-2	5.408815E-2	4.068059E-2	4.467055E-4	3.027536E-2
5.336080E+2	1.085332E-1	4.648417E-2	2.170441E-2	8.942967E-2	9.605091E-2	5.663916E-2	7.570889E-2	4.747227E-2	5.980678E-2	8.628919E-2	5.180479E-2	9.411426E-2	6.232297E-2	5.981028E-2	8.930251E-2	7.920808E-2	8.451961E-2	6.609472E-2	5.405076E-2	6.917267E-2	6.395618E-2	7.836773E-2	6.099144E-2	6.859115E-2	6.177398E-2	3.216939E-2	6.045782E-2	1.000459E-1	1.231194E-1	2.856792E-2	5.526995E-2	5.323458E-2	9.225842E-2	7.862321E-2	1.672673E-2	7.179728E-2	9.093357E-2	6.417078E-2	5.592398E-2	6.054556E-2	6.497812E-2	4.900284E-2	7.249496E-2	3.967983E-2	7.396764E-2	6.951083E-2	5.344313E-2	3.882309E-2	5.021655E-2	7.964380E-2	7.292175E-2	8.197798E-2	6.288867E-2	5.680797E-2	7.079357E-2	9.202969E-2	5.424097E-2	5.456184E-2	6.629272E-2	7.760061E-2	8.178444E-2	6.727072E-2	6.542801E-2	5.127400E-2	8.118613E-2	8.302560E-2	7.619911E-2	3.589483E-2	6.998204E-2	7.145118E-2	7.198712E-2	5.502625E-2	1.010056E-1	6.067051E-2	3.620777E-2	8.022474E-2	6.275863E-2	8.024203E-2	1.043691E-1	6.472260E-2	5.103179E-2	6.022405E-2	4.150117E-2	5.961767E-2	4.277611E-2	5.437036E-2	7.343109E-2	8.749860E-2	7.530532E-2	8.605768E-2	5.591551E-2	5.362911E-2	5.620176E-2	6.769028E-2	5.369244E-2	5.472453E-2	5.353044E-2	9.687480E-2	4.089474E-2	6.225535E-2	6.688332E-2	7.982420E-2	8.727158E-2	8.686545E-2	8.388561E-2	7.394232E-2	5.014440E-2	6.086592E-2	5.284316E-2	6.686351E-2	1.086509E-1	6.811278E-2	4.646287E-2	7.041545E-2	8.410240E-2	7.890291E-2	5.686729E-2	6.647235E-2	6.947352E-2	5.335055E-2	6.505429E-2	8.971698E-2	8.131811E-2	3.672475E-2	5.739569E-2	6.834674E-2	7.572585E-2	6.895690E-2	6.898433E-2	6.851213E-2	7.132456E-2	9.073228E-2	6.289153E-2	6.087068E-2	1.165176E-1	1.077367E-1	7.680016E-2	1.032220E-1	8.960690E-2	7.347705E-2	3.577121E-2	4.499583E-2	5.546703E-2	6.873781E-2	9.613257E-2	6.761723E-2	7.925964E-2	9.356091E-2	8.391944E-2	1.208992E-2	5.243204E-2	4.232783E-2	7.960187E-2	8.524973E-2	7.464686E-2	7.026444E-2	7.482225E-2	5.852467E-2	1.057708E-1	8.473040E-2	7.178095E-2	1.099731E-1	5.484556E-2	5.491569E-2	-1.182595E-2	7.146621E-2
5.338100E+2	4.138764E-2	9.473896E-3	1.515165E-2	2.121712E-2	3.705266E-2	9.826147E-3	3.173545E-2	5.062549E-2	4.857134E-2	-1.031535E-2	3.341418E-2	5.012051E-2	1.514150E-2	6.752553E-2	-7.784275E-3	3.986127E-2	3.315987E-2	2.929087E-2	1.177827E-2	3.501303E-2	9.023841E-3	2.428204E-2	-3.942244E-3	-7.002883E-3	2.691678E-2	1.594436E-3	3.068900E-2	2.206075E-2	2.370069E-2	3.460911E-2	4.453228E-3	6.890752E-3	4.344034E-2	4.880388E-2	-1.048751E-3	1.748214E-2	4.444925E-2	4.220649E-3	1.618827E-2	7.942837E-3	2.006560E-2	-5.006004E-3	2.628108E-2	4.037259E-2	3.373057E-2	1.480307E-2	1.212186E-2	2.586980E-2	4.287921E-2	2.451347E-2	2.000713E-2	5.283322E-2	2.118122E-2	2.508315E-2	5.023680E-2	4.577797E-2	3.287327E-2	-4.358732E-3	1.644912E-2	1.997430E-2	4.533944E-2	-2.517336E-3	1.424199E-2	3.229592E-2	2.819610E-2	5.363998E-2	5.397503E-2	7.285942E-2	1.948925E-2	-1.496334E-2	6.867782E-2	5.875029E-2	4.497548E-2	-1.485479E-2	6.420096E-3	4.169003E-2	3.541820E-3	-8.605678E-3	2.937801E-2	1.668870E-2	-1.593270E-2	2.002574E-2	1.774760E-2	1.545424E-2	2.031950E-2	3.278001E-3	2.230347E-2	2.116659E-2	1.253433E-2	3.249301E-2	1.099885E-2	-1.557976E-2	2.225894E-3	4.675606E-2	9.236515E-3	1.061975E-2	8.003680E-3	4.302613E-2	1.202404E-2	4.467400E-2	2.909744E-2	-5.732229E-3	1.440801E-2	-6.355778E-3	3.585917E-2	2.648350E-2	3.129232E-2	2.752710E-2	-2.349689E-2	2.316430E-2	3.411358E-2	5.141780E-4	4.504625E-2	3.852103E-2	-1.185176E-2	6.838564E-3	-1.465394E-3	2.199893E-2	2.244277E-2	5.100111E-2	2.848963E-2	2.342956E-2	4.260552E-2	4.779740E-2	2.766119E-2	2.696559E-3	5.172811E-2	1.057814E-3	1.336253E-2	2.023680E-2	3.704688E-2	2.093143E-2	3.817834E-2	5.754059E-2	2.861841E-2	3.243889E-2	3.353286E-2	2.838184E-2	2.343548E-2	1.954008E-2	2.869710E-2	1.746943E-2	2.934667E-2	4.744237E-2	5.794725E-2	4.206941E-2	8.146177E-3	3.410122E-2	5.581802E-3	2.707748E-2	3.604523E-2	2.701751E-2	5.379848E-2	2.023721E-2	3.516354E-2	4.941092E-2	4.424660E-2	3.315267E-2	4.976636E-2	8.662457E-3	1.702402E-2	4.350925E-2	5.462731E-2	2.612166E-2	8.846271E-2	1.466827E-2
5.340070E+2	1.930371E-2	-8.554702E-3	-2.309709E-3	2.924821E-2	1.068968E-2	2.460356E-2	1.880961E-2	1.571561E-2	1.331471E-2	4.265369E-2	3.418494E-2	3.902630E-3	1.269928E-2	2.599189E-2	1.963522E-2	8.559949E-3	2.590473E-2	-3.131993E-3	-2.135022E-3	2.006039E-2	4.169344E-2	4.532350E-2	-6.910674E-3	1.408845E-2	2.359313E-2	1.012988E-2	2.333596E-2	4.805550E-3	3.882083E-2	1.451689E-2	-8.179832E-3	3.865107E-2	1.886235E-2	-7.851803E-4	1.726588E-2	-1.688624E-2	1.971775E-2	1.870568E-2	3.824614E-3	1.090062E-2	4.912896E-2	5.513902E-3	5.966284E-2	-9.544815E-3	-8.726854E-3	2.852793E-3	-3.635529E-3	1.053815E-2	3.105839E-2	2.772923E-2	6.515246E-3	3.628368E-2	-3.510994E-3	6.391191E-3	3.175947E-2	9.422763E-3	2.590421E-2	-2.069236E-3	1.839948E-2	2.862692E-3	1.750494E-2	2.215668E-2	2.596402E-2	3.117780E-2	1.854934E-2	2.289905E-2	7.624585E-3	2.880092E-2	7.303208E-3	2.057115E-2	1.364865E-2	3.469061E-3	2.734188E-2	4.087212E-2	-8.448836E-3	5.364055E-3	3.433335E-2	8.181969E-3	4.090439E-2	1.435434E-2	4.009165E-2	2.548392E-2	-1.525852E-2	2.675003E-2	2.239818E-2	-8.807683E-3	2.857138E-2	3.938790E-2	-3.013039E-3	1.562789E-2	2.708904E-2	4.021343E-2	1.390084E-2	1.999427E-3	-2.894882E-4	3.284194E-2	2.473320E-2	9.394279E-3	-4.190312E-2	2.342421E-2	6.542791E-2	1.721925E-2	1.422377E-2	1.050092E-2	4.076264E-3	5.838651E-2	6.984058E-3	4.715956E-2	2.443123E-3	-4.454037E-3	7.632422E-3	3.238383E-2	2.172929E-2	1.038148E-2	7.073570E-3	1.910428E-2	1.846153E-2	1.294774E-2	2.226084E-2	2.521324E-2	1.804825E-2	9.388603E-3	2.538836E-2	7.166685E-3	1.846745E-2	3.515036E-2	3.331997E-2	2.043291E-2	6.889180E-2	-6.253869E-3	4.851770E-2	3.028154E-2	1.519802E-2	3.535533E-2	1.902643E-2	-1.222495E-3	-1.199314E-3	1.536807E-2	7.490374E-3	-1.848704E-2	1.477771E-2	1.614380E-2	-1.360781E-2	-1.358790E-2	5.751016E-3	3.576586E-2	2.507029E-2	2.172669E-2	1.631729E-2	3.984881E-2	5.308615E-2	1.064933E-2	3.594986E-2	4.795137E-2	4.117447E-3	2.151591E-2	4.293813E-2	-6.667153E-3	4.282199E-2	4.477163E-3	1.204988E-2	6.656929E-2	4.761040E-2	2.919583E-2	3.655109E-2	4.672186E-2
5.342090E+2	2.372071E-2	8.968675E-2	6.015307E-2	5.524848E-2	5.163073E-2	6.762021E-2	5.563053E-2	9.103780E-2	6.158507E-2	8.680709E-2	7.702907E-2	4.593019E-2	8.551907E-2	6.801224E-2	8.235597E-2	8.642986E-2	7.968906E-2	4.479393E-2	3.907290E-2	8.249172E-2	9.146260E-2	9.392104E-2	6.770355E-2	7.679339E-2	8.441684E-2	6.967637E-2	7.377147E-2	3.385106E-2	6.753448E-2	4.917941E-2	3.753296E-2	6.632195E-2	4.808332E-2	3.427871E-2	8.261784E-2	5.476195E-2	4.472991E-2	6.716354E-2	3.583497E-2	5.118922E-2	6.941561E-2	3.358031E-2	7.006056E-2	5.293783E-2	5.099169E-2	3.402488E-2	4.525292E-2	6.285707E-2	6.505953E-2	7.925330E-2	7.321692E-2	4.181669E-2	3.730712E-2	7.966179E-2	6.475006E-2	7.063063E-2	7.024147E-2	6.611453E-2	3.710102E-2	1.012954E-1	5.809869E-2	5.967023E-2	2.386274E-2	5.163904E-2	6.450975E-2	5.318940E-2	7.282885E-2	5.864397E-2	6.282725E-2	1.724519E-2	6.589043E-2	4.919801E-2	3.778926E-2	8.091151E-2	3.517953E-2	8.078303E-2	5.604347E-2	5.037425E-2	6.571704E-2	2.828678E-2	7.511400E-2	7.657805E-2	5.987231E-2	8.477096E-2	4.701373E-2	4.430512E-2	4.389159E-2	6.120742E-2	6.322188E-2	6.587388E-2	5.453855E-2	3.288326E-2	3.898460E-2	6.415675E-2	5.687190E-2	6.972021E-2	3.845964E-2	7.428653E-2	4.284948E-2	2.926503E-2	3.964847E-2	5.661379E-2	5.040579E-2	4.020309E-2	7.668296E-2	3.300547E-2	6.647629E-2	8.375860E-2	4.579350E-2	6.432146E-2	5.934556E-2	4.402608E-2	2.616394E-2	5.781484E-2	8.054369E-2	4.528932E-2	9.428164E-2	4.064403E-2	7.374042E-2	4.877399E-2	6.227601E-2	7.687083E-2	6.417624E-2	6.283186E-2	4.888835E-2	4.312697E-2	8.942241E-2	7.638770E-2	4.571537E-2	4.179924E-2	5.450059E-2	4.947855E-2	6.314301E-2	5.341938E-2	6.751004E-2	6.720388E-2	6.789472E-2	6.050603E-2	8.782806E-2	4.842560E-2	7.086941E-2	5.916603E-2	3.989715E-2	3.840178E-2	5.772083E-2	7.204445E-2	1.697005E-2	7.357954E-2	4.695305E-2	3.039678E-2	6.573348E-2	7.669124E-2	8.423346E-2	6.062988E-2	6.303408E-2	3.841887E-2	5.262015E-2	2.815616E-2	3.624656E-2	8.158197E-2	5.873149E-2	6.390821E-2	2.956325E-2	4.480054E-2	4.867323E-2	8.183400E-2
5.344170E+2	2.452041E-1	2.171035E-1	2.240759E-1	2.355759E-1	1.615354E-1	2.121495E-1	2.645690E-1	2.076164E-1	2.477311E-1	2.418710E-1	2.456568E-1	1.907431E-1	2.386922E-1	2.441962E-1	2.069838E-1	2.098147E-1	2.445831E-1	1.910918E-1	2.082288E-1	1.971788E-1	1.998068E-1	2.297879E-1	2.021427E-1	2.504791E-1	2.313197E-1	2.119923E-1	2.177070E-1	2.091519E-1	2.253814E-1	2.379710E-1	2.334144E-1	2.271148E-1	2.047540E-1	2.138908E-1	2.320338E-1	2.677897E-1	2.102876E-1	2.513954E-1	2.543859E-1	2.236087E-1	2.174645E-1	2.106813E-1	2.358956E-1	2.296366E-1	2.224874E-1	2.855525E-1	2.632248E-1	2.842451E-1	2.508198E-1	2.360007E-1	2.067924E-1	2.116712E-1	1.971676E-1	2.745158E-1	2.131335E-1	2.019029E-1	2.394861E-1	2.567998E-1	2.437001E-1	2.476435E-1	2.263687E-1	2.383997E-1	2.148081E-1	2.279182E-1	2.259134E-1	2.238338E-1	2.089588E-1	1.987620E-1	2.337513E-1	2.214535E-1	2.584671E-1	2.538400E-1	1.751959E-1	2.041125E-1	2.091848E-1	2.098883E-1	2.427310E-1	2.436640E-1	2.375042E-1	2.058049E-1	2.424204E-1	2.536075E-1	1.882248E-1	2.016357E-1	2.049285E-1	2.469573E-1	2.018117E-1	2.003514E-1	2.114300E-1	2.066863E-1	2.233658E-1	1.717439E-1	2.227866E-1	2.382422E-1	2.252695E-1	1.773791E-1	2.082974E-1	2.088869E-1	1.994451E-1	1.855274E-1	1.924231E-1	2.307466E-1	2.309025E-1	2.214869E-1	2.130021E-1	2.252258E-1	1.899773E-1	2.180432E-1	2.314804E-1	2.264994E-1	2.457354E-1	1.965015E-1	1.664900E-1	2.029602E-1	1.880460E-1	1.965064E-1	2.662699E-1	2.345821E-1	2.406669E-1	2.583505E-1	1.917949E-1	2.025323E-1	2.490615E-1	2.862106E-1	2.088938E-1	2.123621E-1	2.208455E-1	2.014281E-1	2.154800E-1	2.051618E-1	2.590710E-1	1.992976E-1	2.159544E-1	2.317197E-1	2.423013E-1	2.283258E-1	2.102702E-1	2.348330E-1	2.412804E-1	2.109970E-1	2.004712E-1	2.580143E-1	1.860738E-1	2.392798E-1	2.275988E-1	2.151673E-1	2.129640E-1	1.974249E-1	2.578200E-1	2.208648E-1	2.101390E-1	2.149565E-1	2.258191E-1	2.449918E-1	2.002769E-1	1.976987E-1	2.767519E-1	2.656603E-1	2.468375E-1	2.239299E-1	2.321201E-1	2.156519E-1	1.883915E-1	2.217709E-1	1.899743E-1	2.952788E-1
5.346150E+2	3.996131E-1	3.840912E-1	3.724517E-1	4.556202E-1	3.600892E-1	4.259264E-1	3.546939E-1	3.973365E-1	3.762077E-1	4.326711E-1	4.502130E-1	4.524185E-1	3.955792E-1	4.060571E-1	4.147461E-1	4.066547E-1	4.343337E-1	3.803816E-1	4.354980E-1	4.289798E-1	4.495997E-1	4.347249E-1	3.729717E-1	4.003618E-1	4.070810E-1	3.916289E-1	4.568052E-1	3.768942E-1	4.425852E-1	4.502488E-1	4.195306E-1	4.773473E-1	4.087315E-1	4.021087E-1	4.596522E-1	4.213454E-1	4.324766E-1	4.192528E-1	3.972482E-1	4.089372E-1	3.934061E-1	3.985833E-1	3.703605E-1	3.760826E-1	4.046042E-1	3.779593E-1	4.319828E-1	4.409559E-1	4.249097E-1	4.322931E-1	4.207831E-1	4.277100E-1	4.026170E-1	4.391779E-1	4.158370E-1	3.983333E-1	4.170387E-1	4.151563E-1	4.193505E-1	3.761282E-1	3.721911E-1	4.416409E-1	4.161751E-1	4.327781E-1	4.234489E-1	4.415074E-1	3.701473E-1	3.627226E-1	4.462738E-1	4.320849E-1	4.397060E-1	3.859573E-1	4.291160E-1	4.154235E-1	3.730033E-1	4.129847E-1	3.774395E-1	4.411802E-1	4.565509E-1	4.439575E-1	4.177735E-1	4.296808E-1	3.941864E-1	4.035204E-1	4.723970E-1	4.221464E-1	3.765751E-1	4.314417E-1	4.067889E-1	4.069615E-1	3.695505E-1	4.068216E-1	4.350637E-1	3.849293E-1	4.422120E-1	4.290973E-1	4.283663E-1	3.783275E-1	4.395912E-1	4.176298E-1	3.786606E-1	4.250505E-1	3.991617E-1	4.446542E-1	4.290563E-1	3.638759E-1	4.177189E-1	4.389736E-1	4.161208E-1	4.702936E-1	4.243440E-1	4.235217E-1	4.427868E-1	3.372336E-1	4.559035E-1	4.129573E-1	3.886743E-1	4.247536E-1	3.744382E-1	4.076136E-1	4.103127E-1	4.186504E-1	4.079474E-1	4.305290E-1	4.064612E-1	4.161135E-1	3.938432E-1	4.495686E-1	3.833508E-1	3.586964E-1	3.988471E-1	4.258417E-1	4.028976E-1	3.754394E-1	4.308075E-1	4.222141E-1	4.338255E-1	4.222729E-1	4.233662E-1	3.885084E-1	4.303917E-1	3.863502E-1	4.187143E-1	4.306805E-1	4.572492E-1	4.462955E-1	3.851642E-1	4.575836E-1	4.029152E-1	4.310397E-1	4.079772E-1	4.404810E-1	4.563138E-1	4.269891E-1	4.536167E-1	3.552155E-1	4.146800E-1	4.183434E-1	4.136813E-1	4.597709E-1	3.831597E-1	3.538201E-1	4.342730E-1	3.561014E-1	4.099884E-1	3.583533E-1
5.348280E+2	5.503404E-1	5.589748E-1	5.970141E-1	5.440078E-1	5.476967E-1	5.603184E-1	5.986852E-1	5.901731E-1	6.090750E-1	5.910720E-1	6.369420E-1	5.800412E-1	5.748032E-1	5.842814E-1	5.918558E-1	5.783722E-1	5.839223E-1	5.803363E-1	6.341722E-1	5.948939E-1	5.387518E-1	6.328903E-1	6.204475E-1	5.437748E-1	5.928742E-1	5.870321E-1	6.225382E-1	6.086844E-1	5.932549E-1	5.220313E-1	5.638363E-1	6.145857E-1	5.830303E-1	6.033319E-1	5.876302E-1	5.878507E-1	6.130763E-1	6.008131E-1	5.557560E-1	5.938755E-1	5.189260E-1	6.093470E-1	6.044380E-1	6.042488E-1	5.843357E-1	5.919135E-1	6.008801E-1	6.219758E-1	5.693909E-1	6.207981E-1	6.297874E-1	5.800895E-1	6.166269E-1	5.535152E-1	5.370203E-1	6.254187E-1	6.227215E-1	6.153002E-1	6.378101E-1	5.859257E-1	6.136925E-1	5.706766E-1	5.331283E-1	6.060450E-1	6.059451E-1	6.129031E-1	6.345520E-1	5.926613E-1	6.149745E-1	5.846530E-1	5.909973E-1	5.424789E-1	6.360959E-1	5.941765E-1	5.791679E-1	6.133180E-1	5.801476E-1	6.287486E-1	5.882457E-1	5.997771E-1	6.209179E-1	5.651814E-1	6.219526E-1	6.383486E-1	6.014053E-1	6.225444E-1	6.102154E-1	5.232775E-1	6.310108E-1	5.891145E-1	6.310566E-1	5.581471E-1	6.618150E-1	5.695501E-1	5.910759E-1	6.805429E-1	6.365745E-1	6.093668E-1	5.873002E-1	5.650250E-1	6.528390E-1	5.546252E-1	5.273203E-1	4.912893E-1	5.619541E-1	6.446358E-1	5.636324E-1	6.112935E-1	6.071556E-1	5.809713E-1	6.228305E-1	5.974117E-1	6.039416E-1	5.875463E-1	5.750820E-1	6.084890E-1	6.049359E-1	6.461462E-1	5.923182E-1	5.984248E-1	5.669987E-1	6.011122E-1	6.390155E-1	5.491829E-1	5.510577E-1	6.382047E-1	5.851576E-1	5.632267E-1	6.163183E-1	5.286920E-1	5.988053E-1	5.296628E-1	6.071706E-1	5.654667E-1	6.136563E-1	5.620139E-1	5.859297E-1	5.399371E-1	5.559416E-1	5.693364E-1	6.026082E-1	6.143337E-1	5.848680E-1	5.597614E-1	5.630353E-1	5.829513E-1	6.255167E-1	5.913988E-1	5.933163E-1	5.312174E-1	5.487441E-1	5.816554E-1	6.639388E-1	6.131769E-1	5.828299E-1	6.228337E-1	5.620825E-1	6.342955E-1	5.591511E-1	5.712523E-1	5.310742E-1	5.741287E-1	6.320866E-1	5.220509E-1	5.363558E-1	6.343171E-1
5.350100E+2	9.044282E-1	8.364466E-1	9.283328E-1	8.924576E-1	8.866161E-1	9.941136E-1	9.307235E-1	8.846594E-1	9.336672E-1	8.927247E-1	9.060986E-1	9.075267E-1	9.088924E-1	9.032355E-1	9.133960E-1	9.117886E-1	8.595876E-1	9.370024E-1	9.255970E-1	8.796625E-1	1.005587E+0	9.575926E-1	9.101269E-1	7.998870E-1	9.334039E-1	9.267977E-1	8.988354E-1	9.220947E-1	9.234856E-1	9.522461E-1	8.898057E-1	9.025916E-1	8.772761E-1	9.753801E-1	9.724886E-1	9.597382E-1	8.882323E-1	8.873253E-1	8.935299E-1	9.517992E-1	9.205801E-1	9.871463E-1	9.447986E-1	9.104329E-1	9.232773E-1	9.736889E-1	9.495601E-1	9.402865E-1	8.776742E-1	9.518999E-1	9.518946E-1	8.911774E-1	9.125186E-1	8.739225E-1	9.216052E-1	9.198110E-1	9.106664E-1	9.009745E-1	8.880969E-1	9.514640E-1	9.684415E-1	9.430839E-1	8.851208E-1	1.011905E+0	8.749214E-1	9.387683E-1	8.769362E-1	9.375696E-1	8.952046E-1	9.337021E-1	8.944556E-1	8.937960E-1	8.664589E-1	8.826386E-1	9.041553E-1	9.310642E-1	8.773270E-1	1.004710E+0	9.120370E-1	8.685019E-1	9.211942E-1	8.868062E-1	9.345633E-1	8.562938E-1	8.462804E-1	9.350999E-1	9.528634E-1	8.879908E-1	8.920488E-1	9.097110E-1	8.797737E-1	9.204769E-1	9.436032E-1	9.053056E-1	8.447342E-1	9.317933E-1	9.178988E-1	9.263019E-1	9.879157E-1	9.243896E-1	8.982085E-1	9.576905E-1	9.252859E-1	9.377153E-1	8.881557E-1	8.493533E-1	9.351312E-1	8.882100E-1	9.278774E-1	8.929231E-1	9.499213E-1	8.981674E-1	8.687875E-1	9.653479E-1	8.903473E-1	9.099476E-1	8.618064E-1	8.972528E-1	9.297059E-1	9.722165E-1	8.629077E-1	9.155306E-1	9.048058E-1	8.328643E-1	9.752565E-1	9.142222E-1	8.664020E-1	8.674891E-1	8.762340E-1	8.920548E-1	9.276354E-1	9.111452E-1	9.049238E-1	8.746408E-1	9.659642E-1	9.503631E-1	9.752219E-1	8.890044E-1	8.450182E-1	8.769381E-1	8.931171E-1	8.333816E-1	9.900853E-1	9.071980E-1	8.472419E-1	9.561118E-1	8.918684E-1	8.819945E-1	8.480588E-1	8.641394E-1	8.976541E-1	1.010472E+0	8.940848E-1	9.015870E-1	8.404553E-1	9.206141E-1	9.569642E-1	9.701788E-1	9.181553E-1	9.113436E-1	8.815533E-1	9.128641E-1	1.013758E+0	8.702624E-1	8.833728E-1	8.665017E-1
5.352080E+2	1.361673E+0	1.425144E+0	1.370837E+0	1.385037E+0	1.446272E+0	1.436917E+0	1.478071E+0	1.477991E+0	1.428898E+0	1.451853E+0	1.363715E+0	1.436705E+0	1.347972E+0	1.448238E+0	1.485332E+0	1.406034E+0	1.493045E+0	1.351707E+0	1.454051E+0	1.443574E+0	1.415225E+0	1.416058E+0	1.387877E+0	1.410511E+0	1.294543E+0	1.518665E+0	1.488367E+0	1.410488E+0	1.411953E+0	1.436439E+0	1.360380E+0	1.431297E+0	1.338410E+0	1.395427E+0	1.483662E+0	1.417000E+0	1.379219E+0	1.412536E+0	1.455580E+0	1.464100E+0	1.456059E+0	1.401298E+0	1.513143E+0	1.373596E+0	1.391545E+0	1.411594E+0	1.451648E+0	1.413105E+0	1.363196E+0	1.470875E+0	1.456252E+0	1.354843E+0	1.378119E+0	1.420148E+0	1.307868E+0	1.354955E+0	1.424470E+0	1.473913E+0	1.417582E+0	1.390523E+0	1.327726E+0	1.441773E+0	1.388144E+0	1.445174E+0	1.382748E+0	1.379871E+0	1.391872E+0	1.394331E+0	1.325655E+0	1.399938E+0	1.333632E+0	1.448916E+0	1.325336E+0	1.527243E+0	1.349567E+0	1.345121E+0	1.340090E+0	1.361546E+0	1.398270E+0	1.408456E+0	1.405548E+0	1.404094E+0	1.429618E+0	1.424105E+0	1.421960E+0	1.419848E+0	1.382754E+0	1.361225E+0	1.338760E+0	1.379773E+0	1.366314E+0	1.341449E+0	1.471811E+0	1.432210E+0	1.380668E+0	1.320671E+0	1.306769E+0	1.395043E+0	1.386866E+0	1.388264E+0	1.376045E+0	1.428069E+0	1.406253E+0	1.452963E+0	1.388740E+0	1.404059E+0	1.411904E+0	1.441241E+0	1.395458E+0	1.332531E+0	1.457433E+0	1.412839E+0	1.348046E+0	1.316590E+0	1.406209E+0	1.443321E+0	1.442683E+0	1.483205E+0	1.418768E+0	1.430414E+0	1.423579E+0	1.391917E+0	1.415039E+0	1.428910E+0	1.399607E+0	1.350650E+0	1.328167E+0	1.408088E+0	1.331565E+0	1.412177E+0	1.446461E+0	1.293357E+0	1.321220E+0	1.403917E+0	1.406110E+0	1.371387E+0	1.427901E+0	1.421104E+0	1.394982E+0	1.370557E+0	1.429973E+0	1.319707E+0	1.420270E+0	1.424169E+0	1.310810E+0	1.312103E+0	1.364310E+0	1.420507E+0	1.384628E+0	1.452575E+0	1.341318E+0	1.375914E+0	1.454961E+0	1.394624E+0	1.341782E+0	1.467607E+0	1.376755E+0	1.433716E+0	1.437622E+0	1.409540E+0	1.417936E+0	1.342504E+0	1.433334E+0	1.345139E+0	1.150403E+0	1.616107E+0
5.354110E+2	2.289725E+0	2.288975E+0	2.129374E+0	2.180723E+0	2.332183E+0	2.274207E+0	2.260693E+0	2.362325E+0	2.225886E+0	2.280310E+0	2.299841E+0	2.189621E+0	2.278167E+0	2.253135E+0	2.360490E+0	2.228150E+0	2.325933E+0	2.312402E+0	2.269781E+0	2.414302E+0	2.301529E+0	2.230544E+0	2.296645E+0	2.328301E+0	2.204910E+0	2.327635E+0	2.293779E+0	2.198385E+0	2.334138E+0	2.309958E+0	2.337004E+0	2.241655E+0	2.262559E+0	2.347201E+0	2.354545E+0	2.314024E+0	2.292548E+0	2.280017E+0	2.280412E+0	2.252107E+0	2.295944E+0	2.327279E+0	2.300534E+0	2.259984E+0	2.280909E+0	2.292020E+0	2.193866E+0	2.289031E+0	2.195174E+0	2.307126E+0	2.242839E+0	2.322959E+0	2.164518E+0	2.310216E+0	2.257575E+0	2.194466E+0	2.267116E+0	2.389262E+0	2.317965E+0	2.202684E+0	2.374753E+0	2.251209E+0	2.213762E+0	2.413634E+0	2.175826E+0	2.230462E+0	2.277899E+0	2.245534E+0	2.123781E+0	2.322205E+0	2.164057E+0	2.178095E+0	2.201580E+0	2.300360E+0	2.300677E+0	2.096993E+0	2.297575E+0	2.345397E+0	2.166066E+0	2.249478E+0	2.234240E+0	2.297303E+0	2.355463E+0	2.242948E+0	2.173848E+0	2.314851E+0	2.221991E+0	2.174459E+0	2.276576E+0	2.173538E+0	2.274921E+0	2.106596E+0	2.255699E+0	2.197972E+0	2.288538E+0	2.219011E+0	2.156317E+0	2.264175E+0	2.269335E+0	2.220459E+0	2.251518E+0	2.218841E+0	2.166972E+0	2.249677E+0	2.296476E+0	2.290165E+0	2.173993E+0	2.163816E+0	2.289535E+0	2.331461E+0	2.273899E+0	2.262149E+0	2.171692E+0	2.213110E+0	2.241109E+0	2.228865E+0	2.245153E+0	2.262484E+0	2.215675E+0	2.286901E+0	2.240895E+0	2.329518E+0	2.250134E+0	2.191759E+0	2.264540E+0	2.249702E+0	2.164542E+0	2.258365E+0	2.173378E+0	2.186222E+0	2.271638E+0	2.307921E+0	2.172790E+0	2.153654E+0	2.223202E+0	2.181411E+0	2.254996E+0	2.174555E+0	2.076705E+0	2.260574E+0	2.285163E+0	2.234047E+0	2.192192E+0	2.314383E+0	2.221367E+0	2.283385E+0	2.359334E+0	2.341633E+0	2.161699E+0	2.105303E+0	2.136746E+0	2.264546E+0	2.334837E+0	2.221916E+0	2.226394E+0	2.091426E+0	2.255733E+0	2.395928E+0	2.231651E+0	2.317468E+0	2.234685E+0	2.245924E+0	2.244269E+0	2.117792E+0	2.229372E+0	2.393680E+0
5.356100E+2	2.694154E+0	2.702228E+0	2.637275E+0	2.613962E+0	2.731736E+0	2.561963E+0	2.672933E+0	2.625083E+0	2.573094E+0	2.558127E+0	2.660437E+0	2.566701E+0	2.652947E+0	2.598458E+0	2.708705E+0	2.678161E+0	2.646481E+0	2.506944E+0	2.676414E+0	2.623882E+0	2.542287E+0	2.673940E+0	2.528880E+0	2.712769E+0	2.598898E+0	2.678303E+0	2.627149E+0	2.635261E+0	2.634474E+0	2.589625E+0	2.573137E+0	2.647614E+0	2.754898E+0	2.619145E+0	2.672579E+0	2.697803E+0	2.559270E+0	2.668508E+0	2.584909E+0	2.653715E+0	2.604994E+0	2.591124E+0	2.772340E+0	2.681072E+0	2.742453E+0	2.597079E+0	2.607320E+0	2.593564E+0	2.584749E+0	2.544006E+0	2.555036E+0	2.585447E+0	2.597905E+0	2.622795E+0	2.487180E+0	2.533253E+0	2.606735E+0	2.686628E+0	2.523473E+0	2.576403E+0	2.607320E+0	2.626904E+0	2.472627E+0	2.611087E+0	2.543963E+0	2.646539E+0	2.630041E+0	2.570522E+0	2.591371E+0	2.614045E+0	2.463471E+0	2.525205E+0	2.552033E+0	2.606461E+0	2.694494E+0	2.612833E+0	2.611050E+0	2.662363E+0	2.506597E+0	2.643718E+0	2.638767E+0	2.598752E+0	2.529464E+0	2.497937E+0	2.593010E+0	2.559392E+0	2.597780E+0	2.389751E+0	2.646675E+0	2.643866E+0	2.581397E+0	2.632419E+0	2.578014E+0	2.542530E+0	2.628853E+0	2.719882E+0	2.565666E+0	2.593800E+0	2.650396E+0	2.577169E+0	2.628208E+0	2.600333E+0	2.547185E+0	2.556376E+0	2.641896E+0	2.640728E+0	2.621178E+0	2.545032E+0	2.599936E+0	2.656730E+0	2.629775E+0	2.609773E+0	2.538358E+0	2.518063E+0	2.545545E+0	2.721025E+0	2.544603E+0	2.603759E+0	2.594031E+0	2.730848E+0	2.686146E+0	2.575788E+0	2.641277E+0	2.529349E+0	2.682292E+0	2.620892E+0	2.693570E+0	2.533610E+0	2.603354E+0	2.649908E+0	2.650320E+0	2.720536E+0	2.576047E+0	2.615867E+0	2.609256E+0	2.654830E+0	2.662211E+0	2.558824E+0	2.496961E+0	2.477541E+0	2.599331E+0	2.609923E+0	2.607973E+0	2.572924E+0	2.552267E+0	2.730515E+0	2.658151E+0	2.616934E+0	2.438308E+0	2.579476E+0	2.480439E+0	2.596171E+0	2.620774E+0	2.487492E+0	2.459248E+0	2.676612E+0	2.486575E+0	2.555256E+0	2.507230E+0	2.601803E+0	2.529881E+0	2.619333E+0	2.585079E+0	2.512356E+0	2.551974E+0	2.706265E+0
5.358180E+2	2.262409E+0	2.426374E+0	2.251207E+0	2.277347E+0	2.287237E+0	2.249844E+0	2.391852E+0	2.216634E+0	2.295227E+0	2.307622E+0	2.256394E+0	2.278537E+0	2.339579E+0	2.233916E+0	2.467655E+0	2.331609E+0	2.364491E+0	2.339695E+0	2.334892E+0	2.277229E+0	2.334495E+0	2.231110E+0	2.279951E+0	2.255820E+0	2.134653E+0	2.320601E+0	2.341543E+0	2.341579E+0	2.314131E+0	2.077075E+0	2.216246E+0	2.326214E+0	2.165312E+0	2.210786E+0	2.325623E+0	2.439886E+0	2.420584E+0	2.205170E+0	2.300370E+0	2.258484E+0	2.300552E+0	2.329793E+0	2.283866E+0	2.260884E+0	2.237407E+0	2.258545E+0	2.312727E+0	2.196456E+0	2.147173E+0	2.295278E+0	2.303811E+0	2.229870E+0	2.295127E+0	2.306609E+0	2.218893E+0	2.246711E+0	2.289221E+0	2.284007E+0	2.276912E+0	2.292577E+0	2.279545E+0	2.213881E+0	2.190905E+0	2.278127E+0	2.230604E+0	2.336994E+0	2.144105E+0	2.316703E+0	2.165961E+0	2.216569E+0	2.199711E+0	2.291634E+0	2.218820E+0	2.348809E+0	2.297847E+0	2.284942E+0	2.283532E+0	2.322035E+0	2.271160E+0	2.260268E+0	2.368992E+0	2.190744E+0	2.315594E+0	2.262732E+0	2.152621E+0	2.251630E+0	2.165979E+0	2.114609E+0	2.242180E+0	2.240791E+0	2.178098E+0	2.233734E+0	2.295353E+0	2.184224E+0	2.252802E+0	2.306925E+0	2.117972E+0	2.279108E+0	2.338636E+0	2.293269E+0	2.186269E+0	2.193053E+0	2.213177E+0	2.265706E+0	2.183457E+0	2.162100E+0	2.237316E+0	2.349853E+0	2.186761E+0	2.262951E+0	2.338578E+0	2.199080E+0	2.208829E+0	2.273824E+0	2.258555E+0	2.355958E+0	2.235583E+0	2.290190E+0	2.216350E+0	2.228415E+0	2.196052E+0	2.256913E+0	2.184235E+0	2.288261E+0	2.201610E+0	2.246985E+0	2.180754E+0	2.100886E+0	2.273547E+0	2.256715E+0	2.227948E+0	2.196826E+0	2.162920E+0	2.228539E+0	2.170031E+0	2.268247E+0	2.222992E+0	2.229497E+0	2.149554E+0	2.212798E+0	2.275746E+0	2.205998E+0	2.188453E+0	2.211810E+0	2.189222E+0	2.255265E+0	2.205646E+0	2.193007E+0	2.191372E+0	2.186846E+0	2.240642E+0	2.238040E+0	2.223808E+0	2.319313E+0	2.242985E+0	2.279134E+0	2.162648E+0	2.322938E+0	2.222904E+0	2.317445E+0	2.288692E+0	2.162010E+0	2.316601E+0	2.307401E+0	2.178231E+0	2.061432E+0
5.360120E+2	2.012239E+0	1.984268E+0	1.881062E+0	1.913907E+0	2.057629E+0	1.948929E+0	1.969502E+0	1.869437E+0	1.963275E+0	1.967197E+0	2.046508E+0	1.958584E+0	1.925041E+0	1.917402E+0	2.022978E+0	1.859103E+0	1.957353E+0	1.913027E+0	1.999300E+0	2.036498E+0	1.984252E+0	1.908433E+0	1.958405E+0	2.006607E+0	1.927862E+0	1.938196E+0	1.999345E+0	1.955321E+0	2.047661E+0	1.943038E+0	2.114422E+0	2.073076E+0	1.952421E+0	2.054789E+0	1.986827E+0	1.977849E+0	1.936608E+0	1.904708E+0	2.116319E+0	1.888577E+0	1.928883E+0	1.946815E+0	1.932339E+0	1.962767E+0	1.989143E+0	1.957244E+0	1.957592E+0	1.901468E+0	1.869606E+0	1.893165E+0	1.996939E+0	1.919758E+0	1.866713E+0	2.039375E+0	1.894613E+0	1.918487E+0	1.863048E+0	1.926813E+0	1.963822E+0	1.888700E+0	1.876298E+0	1.871331E+0	2.003989E+0	1.966159E+0	1.971541E+0	1.914870E+0	1.967458E+0	1.904334E+0	1.898547E+0	1.948714E+0	1.974973E+0	1.927760E+0	1.886014E+0	1.966015E+0	1.983809E+0	1.928539E+0	1.860083E+0	1.952079E+0	1.967054E+0	1.935297E+0	1.967498E+0	1.857327E+0	1.895879E+0	1.892435E+0	1.964485E+0	1.946180E+0	1.890846E+0	1.873594E+0	1.974475E+0	1.937588E+0	1.865510E+0	1.862166E+0	1.998365E+0	1.892355E+0	2.051804E+0	1.997867E+0	1.919274E+0	1.921006E+0	1.993091E+0	1.866654E+0	1.941193E+0	1.990833E+0	1.921292E+0	1.948478E+0	1.883043E+0	2.005550E+0	1.943059E+0	1.884129E+0	1.907217E+0	1.928956E+0	1.927691E+0	1.816210E+0	1.868127E+0	1.953444E+0	1.827039E+0	1.950817E+0	1.946926E+0	1.974513E+0	1.869358E+0	1.873236E+0	1.922311E+0	1.982392E+0	1.927101E+0	2.033613E+0	1.990134E+0	1.919793E+0	1.922007E+0	1.949855E+0	1.855215E+0	1.877415E+0	1.943653E+0	1.866742E+0	1.808625E+0	1.926995E+0	1.959674E+0	1.970986E+0	1.909269E+0	1.914567E+0	1.955995E+0	1.888801E+0	1.939250E+0	1.923923E+0	1.907479E+0	1.977087E+0	1.929624E+0	1.977321E+0	1.952023E+0	1.945533E+0	1.886496E+0	1.966353E+0	1.870557E+0	1.993325E+0	2.039226E+0	1.939179E+0	2.007666E+0	1.922774E+0	1.950500E+0	2.034390E+0	1.945955E+0	2.009030E+0	1.880456E+0	1.909188E+0	1.897847E+0	1.813551E+0	1.785075E+0	2.201805E+0
5.362000E+2	1.800202E+0	1.932106E+0	1.836549E+0	1.832749E+0	1.928571E+0	1.875870E+0	1.968738E+0	1.836968E+0	1.942921E+0	1.903389E+0	1.946249E+0	1.806667E+0	1.921805E+0	1.926174E+0	1.969887E+0	2.018278E+0	1.900868E+0	1.818128E+0	1.887770E+0	1.913209E+0	1.920943E+0	1.861042E+0	1.810538E+0	1.879539E+0	1.927222E+0	1.883781E+0	1.882457E+0	1.862433E+0	1.918887E+0	1.921291E+0	1.921165E+0	1.942906E+0	1.851738E+0	1.839728E+0	1.967559E+0	2.017003E+0	1.942695E+0	1.851334E+0	1.916047E+0	1.894331E+0	1.967283E+0	1.903958E+0	1.923716E+0	1.786142E+0	1.919979E+0	1.929921E+0	1.926543E+0	1.902054E+0	1.825838E+0	1.867317E+0	1.990194E+0	1.923948E+0	1.909292E+0	1.923608E+0	1.785735E+0	1.813215E+0	1.781462E+0	1.835882E+0	1.986631E+0	1.872852E+0	1.963463E+0	1.847950E+0	1.859809E+0	1.933661E+0	1.820535E+0	1.877053E+0	1.894295E+0	1.971642E+0	1.868076E+0	1.939169E+0	1.938509E+0	1.894817E+0	1.803574E+0	1.837518E+0	1.903920E+0	1.797253E+0	1.809119E+0	1.912439E+0	1.981654E+0	1.852810E+0	1.943911E+0	1.810776E+0	1.803049E+0	1.879798E+0	1.947084E+0	1.808531E+0	1.943059E+0	1.830099E+0	2.029242E+0	1.869795E+0	1.909922E+0	1.818869E+0	1.863200E+0	1.861495E+0	1.935410E+0	1.877526E+0	1.876048E+0	1.922026E+0	1.980997E+0	1.839238E+0	1.868947E+0	1.894477E+0	1.904084E+0	1.919777E+0	1.835703E+0	1.781855E+0	1.886580E+0	1.958538E+0	1.914271E+0	1.824106E+0	1.902225E+0	1.890285E+0	1.801503E+0	1.872273E+0	1.818977E+0	2.002729E+0	1.781536E+0	1.894999E+0	1.821724E+0	1.911536E+0	1.930863E+0	1.878798E+0	2.029101E+0	1.896884E+0	1.914624E+0	1.831062E+0	1.883679E+0	1.840019E+0	1.813102E+0	1.948233E+0	1.979852E+0	1.963298E+0	1.900757E+0	1.822237E+0	1.851329E+0	1.795629E+0	1.842715E+0	1.794800E+0	1.929856E+0	1.933894E+0	1.913893E+0	1.911243E+0	1.930347E+0	1.891942E+0	1.840443E+0	1.913572E+0	1.907346E+0	1.963661E+0	1.900694E+0	1.891833E+0	1.824095E+0	1.860486E+0	1.952044E+0	1.856101E+0	1.803353E+0	1.842591E+0	1.881986E+0	1.945208E+0	1.888549E+0	1.942295E+0	1.820216E+0	1.784750E+0	1.937071E+0	1.823135E+0	1.760702E+0	2.186475E+0
5.364090E+2	2.074492E+0	2.157626E+0	1.999072E+0	1.977518E+0	2.094575E+0	2.107107E+0	2.137795E+0	2.008569E+0	2.046525E+0	2.107398E+0	2.144833E+0	2.070392E+0	2.117395E+0	2.070901E+0	2.184770E+0	2.065793E+0	2.152074E+0	2.054470E+0	2.106705E+0	2.205032E+0	2.059963E+0	2.068668E+0	2.066112E+0	2.128224E+0	2.004664E+0	2.116968E+0	2.208094E+0	2.018931E+0	2.143744E+0	2.040122E+0	2.105872E+0	2.132866E+0	2.086624E+0	2.097458E+0	2.110926E+0	2.116038E+0	2.138961E+0	2.042607E+0	2.176200E+0	2.001707E+0	2.058400E+0	2.100813E+0	2.150307E+0	2.071141E+0	2.070992E+0	2.117120E+0	2.124396E+0	2.105434E+0	2.111159E+0	2.053086E+0	2.036255E+0	2.027402E+0	2.053245E+0	2.083186E+0	2.129596E+0	2.090013E+0	2.083128E+0	2.141239E+0	2.151729E+0	2.028237E+0	2.037390E+0	2.042194E+0	1.933429E+0	2.112001E+0	2.000609E+0	2.166395E+0	2.016442E+0	2.092533E+0	1.996888E+0	2.123349E+0	2.056839E+0	2.012840E+0	2.006907E+0	2.051481E+0	2.107517E+0	2.037379E+0	2.007648E+0	2.002549E+0	2.074031E+0	2.020569E+0	2.124400E+0	2.038147E+0	2.195318E+0	2.073750E+0	2.060947E+0	2.071330E+0	2.112521E+0	2.014511E+0	2.133724E+0	2.168233E+0	2.037643E+0	2.068593E+0	2.076479E+0	1.987721E+0	2.146916E+0	2.095823E+0	2.120295E+0	2.038455E+0	2.193705E+0	2.076669E+0	2.077788E+0	2.083741E+0	2.072246E+0	2.053569E+0	2.129703E+0	1.988907E+0	2.073208E+0	2.181213E+0	2.055472E+0	2.116922E+0	2.093808E+0	2.070092E+0	2.023838E+0	1.948057E+0	2.092140E+0	2.036954E+0	2.073093E+0	2.040279E+0	2.066671E+0	2.064294E+0	2.083951E+0	2.026402E+0	2.038136E+0	2.191469E+0	2.004768E+0	2.046301E+0	2.206066E+0	1.994021E+0	2.167863E+0	2.009759E+0	2.133881E+0	2.067390E+0	2.051876E+0	2.043502E+0	2.032603E+0	2.045830E+0	2.038535E+0	2.059553E+0	1.982327E+0	2.014653E+0	2.090780E+0	2.076973E+0	1.950314E+0	2.066590E+0	1.982351E+0	2.039274E+0	1.992888E+0	2.080822E+0	1.980196E+0	2.103701E+0	2.036038E+0	2.064957E+0	2.119894E+0	2.101260E+0	2.111009E+0	2.042010E+0	2.111520E+0	2.125014E+0	2.118612E+0	2.025784E+0	1.951040E+0	2.115495E+0	2.125981E+0	1.972274E+0	2.022024E+0	1.950137E+0
5.366140E+2	1.689478E+0	1.673281E+0	1.701152E+0	1.749187E+0	1.713723E+0	1.827109E+0	1.787387E+0	1.700783E+0	1.776247E+0	1.732179E+0	1.816862E+0	1.689845E+0	1.722449E+0	1.702710E+0	1.830149E+0	1.681920E+0	1.791004E+0	1.714613E+0	1.745768E+0	1.778471E+0	1.780291E+0	1.719007E+0	1.703842E+0	1.769990E+0	1.756501E+0	1.749660E+0	1.814922E+0	1.717269E+0	1.908705E+0	1.798935E+0	1.715687E+0	1.742109E+0	1.825143E+0	1.766823E+0	1.713842E+0	1.724518E+0	1.752826E+0	1.708756E+0	1.704758E+0	1.787994E+0	1.791336E+0	1.733510E+0	1.898016E+0	1.677786E+0	1.714567E+0	1.705876E+0	1.896092E+0	1.745409E+0	1.689749E+0	1.726264E+0	1.783533E+0	1.790212E+0	1.738626E+0	1.722186E+0	1.724452E+0	1.713911E+0	1.814132E+0	1.801733E+0	1.744790E+0	1.731192E+0	1.832438E+0	1.649366E+0	1.720646E+0	1.795532E+0	1.709253E+0	1.748576E+0	1.751980E+0	1.750736E+0	1.729451E+0	1.753171E+0	1.756506E+0	1.705754E+0	1.702112E+0	1.757853E+0	1.727709E+0	1.694722E+0	1.663981E+0	1.736155E+0	1.692120E+0	1.745122E+0	1.778481E+0	1.697038E+0	1.879590E+0	1.643258E+0	1.699062E+0	1.771420E+0	1.835599E+0	1.688506E+0	1.726984E+0	1.722210E+0	1.726396E+0	1.860515E+0	1.743860E+0	1.673757E+0	1.804581E+0	1.707129E+0	1.714801E+0	1.718593E+0	1.846639E+0	1.661629E+0	1.786652E+0	1.777347E+0	1.745456E+0	1.690147E+0	1.697523E+0	1.717001E+0	1.646386E+0	1.771763E+0	1.724338E+0	1.744633E+0	1.822440E+0	1.799492E+0	1.669930E+0	1.736068E+0	1.727030E+0	1.772231E+0	1.799229E+0	1.766113E+0	1.687560E+0	1.770576E+0	1.677610E+0	1.734294E+0	1.716122E+0	1.674539E+0	1.725197E+0	1.763456E+0	1.856925E+0	1.658637E+0	1.707378E+0	1.745319E+0	1.758959E+0	1.777448E+0	1.688585E+0	1.609974E+0	1.790015E+0	1.750904E+0	1.756437E+0	1.771932E+0	1.654165E+0	1.763820E+0	1.783504E+0	1.770969E+0	1.638577E+0	1.740520E+0	1.669255E+0	1.763082E+0	1.704565E+0	1.752153E+0	1.659228E+0	1.718487E+0	1.696842E+0	1.759961E+0	1.750911E+0	1.734740E+0	1.594053E+0	1.715453E+0	1.726354E+0	1.729337E+0	1.766679E+0	1.746564E+0	1.751608E+0	1.668156E+0	1.735683E+0	1.760259E+0	1.641998E+0	1.757271E+0
5.368230E+2	1.299422E+0	1.340526E+0	1.214346E+0	1.328662E+0	1.335217E+0	1.406798E+0	1.457058E+0	1.329161E+0	1.391942E+0	1.284133E+0	1.368937E+0	1.338547E+0	1.440152E+0	1.357147E+0	1.349462E+0	1.311891E+0	1.367122E+0	1.226425E+0	1.341923E+0	1.321090E+0	1.381268E+0	1.362023E+0	1.293632E+0	1.374414E+0	1.376405E+0	1.366467E+0	1.449257E+0	1.371440E+0	1.365493E+0	1.340528E+0	1.406887E+0	1.396650E+0	1.349557E+0	1.427654E+0	1.399961E+0	1.415931E+0	1.330454E+0	1.388048E+0	1.368483E+0	1.380179E+0	1.403234E+0	1.376860E+0	1.453686E+0	1.372550E+0	1.377182E+0	1.295583E+0	1.323355E+0	1.317101E+0	1.294876E+0	1.282402E+0	1.408627E+0	1.344264E+0	1.409047E+0	1.427751E+0	1.407705E+0	1.333099E+0	1.318960E+0	1.366725E+0	1.379731E+0	1.319722E+0	1.417707E+0	1.405017E+0	1.282745E+0	1.406660E+0	1.308568E+0	1.433357E+0	1.393630E+0	1.365602E+0	1.249657E+0	1.311947E+0	1.356257E+0	1.382608E+0	1.339730E+0	1.482106E+0	1.438765E+0	1.374268E+0	1.318071E+0	1.403350E+0	1.393131E+0	1.353062E+0	1.445263E+0	1.264859E+0	1.363929E+0	1.300114E+0	1.321722E+0	1.241050E+0	1.360141E+0	1.295276E+0	1.377725E+0	1.397044E+0	1.293596E+0	1.408769E+0	1.361421E+0	1.298284E+0	1.440247E+0	1.460917E+0	1.344239E+0	1.370772E+0	1.378601E+0	1.433140E+0	1.371103E+0	1.427472E+0	1.335861E+0	1.419655E+0	1.257150E+0	1.326356E+0	1.344133E+0	1.373867E+0	1.329456E+0	1.330407E+0	1.415381E+0	1.364111E+0	1.317764E+0	1.396790E+0	1.345881E+0	1.376994E+0	1.294097E+0	1.355476E+0	1.342411E+0	1.518989E+0	1.268812E+0	1.303721E+0	1.345580E+0	1.388874E+0	1.334089E+0	1.322288E+0	1.309568E+0	1.311372E+0	1.313549E+0	1.302897E+0	1.298068E+0	1.329030E+0	1.270505E+0	1.382181E+0	1.328598E+0	1.362066E+0	1.313785E+0	1.353426E+0	1.335993E+0	1.373316E+0	1.365165E+0	1.311540E+0	1.364094E+0	1.339988E+0	1.318197E+0	1.325099E+0	1.335791E+0	1.302230E+0	1.364611E+0	1.286335E+0	1.351996E+0	1.365971E+0	1.445239E+0	1.336081E+0	1.320717E+0	1.374494E+0	1.280434E+0	1.377072E+0	1.405998E+0	1.327880E+0	1.370256E+0	1.313568E+0	1.364658E+0	1.362233E+0	1.249922E+0	1.506963E+0
5.370120E+2	1.036264E+0	1.049803E+0	1.046533E+0	9.792323E-1	1.084900E+0	1.110687E+0	1.033011E+0	1.059878E+0	1.071731E+0	1.089550E+0	1.081547E+0	1.030686E+0	1.076777E+0	1.034668E+0	1.065578E+0	1.012968E+0	1.049019E+0	1.042806E+0	1.079795E+0	1.123832E+0	1.005549E+0	1.020913E+0	1.058972E+0	1.076715E+0	1.051240E+0	1.127018E+0	1.037805E+0	1.090722E+0	1.061709E+0	1.065732E+0	1.081308E+0	1.061767E+0	1.092970E+0	1.132414E+0	1.025580E+0	1.011428E+0	1.114050E+0	1.070073E+0	1.008030E+0	1.093123E+0	1.114764E+0	1.021162E+0	1.036603E+0	1.014884E+0	1.059495E+0	1.077210E+0	1.089532E+0	1.074768E+0	1.066667E+0	1.115156E+0	1.078088E+0	1.119710E+0	1.049556E+0	1.082242E+0	1.060971E+0	1.088015E+0	9.859902E-1	1.069892E+0	1.052874E+0	1.074504E+0	1.000145E+0	1.012396E+0	1.009820E+0	1.089625E+0	9.757249E-1	1.023904E+0	9.756799E-1	1.078573E+0	9.977168E-1	1.060252E+0	1.040974E+0	1.056200E+0	1.075164E+0	1.043635E+0	1.078216E+0	1.020332E+0	1.022419E+0	1.083038E+0	1.090504E+0	1.105483E+0	1.045307E+0	1.048907E+0	1.101125E+0	1.037585E+0	9.772985E-1	1.087269E+0	1.042304E+0	1.039265E+0	1.041670E+0	1.043013E+0	9.902874E-1	1.043947E+0	1.055003E+0	1.072446E+0	1.084943E+0	1.084333E+0	1.046643E+0	1.048548E+0	1.103369E+0	1.035232E+0	1.114095E+0	1.083232E+0	9.792307E-1	1.125261E+0	1.069805E+0	9.977259E-1	1.043420E+0	1.000304E+0	1.022022E+0	1.029541E+0	9.970306E-1	1.013665E+0	1.060673E+0	1.017343E+0	1.036886E+0	1.072845E+0	9.910084E-1	1.088945E+0	1.008976E+0	1.096553E+0	1.022103E+0	1.030805E+0	1.077375E+0	1.107995E+0	1.019422E+0	1.014706E+0	1.051722E+0	1.076833E+0	1.018091E+0	1.031352E+0	1.089377E+0	1.068104E+0	1.088128E+0	1.057171E+0	1.036743E+0	1.007296E+0	1.041187E+0	1.124572E+0	1.011416E+0	1.072643E+0	9.796768E-1	1.041101E+0	1.030224E+0	1.048019E+0	9.936680E-1	1.140117E+0	1.091068E+0	1.073095E+0	1.057477E+0	1.006131E+0	1.001808E+0	1.072815E+0	1.056367E+0	9.748380E-1	1.038146E+0	1.090258E+0	1.031376E+0	1.105047E+0	1.035416E+0	1.030207E+0	9.670341E-1	1.046396E+0	9.974550E-1	1.003853E+0	1.090069E+0	8.543077E-1
5.372010E+2	1.145179E+0	1.185871E+0	1.170192E+0	1.173098E+0	1.214022E+0	1.147946E+0	1.175279E+0	1.205968E+0	1.160888E+0	1.166584E+0	1.247482E+0	1.186499E+0	1.172899E+0	1.185634E+0	1.202377E+0	1.154806E+0	1.158405E+0	1.153540E+0	1.181309E+0	1.184509E+0	1.248900E+0	1.192079E+0	1.186976E+0	1.153182E+0	1.219736E+0	1.189204E+0	1.208968E+0	1.175908E+0	1.232909E+0	1.211750E+0	1.140033E+0	1.148189E+0	1.164463E+0	1.167835E+0	1.147306E+0	1.218246E+0	1.142556E+0	1.124630E+0	1.180102E+0	1.192511E+0	1.148155E+0	1.124309E+0	1.225962E+0	1.179972E+0	1.134470E+0	1.206672E+0	1.181612E+0	1.198873E+0	1.193398E+0	1.188118E+0	1.130171E+0	1.181655E+0	1.220985E+0	1.219301E+0	1.191629E+0	1.176547E+0	1.187216E+0	1.129410E+0	1.199130E+0	1.171498E+0	1.197417E+0	1.180937E+0	1.101938E+0	1.166490E+0	1.101694E+0	1.245011E+0	1.173637E+0	1.179065E+0	1.161964E+0	1.162138E+0	1.166533E+0	1.140114E+0	1.063947E+0	1.226501E+0	1.191381E+0	1.118897E+0	1.137862E+0	1.148677E+0	1.196565E+0	1.154692E+0	1.184784E+0	1.111376E+0	1.172202E+0	1.185382E+0	1.063819E+0	1.151035E+0	1.092617E+0	1.051925E+0	1.213974E+0	1.195603E+0	1.157530E+0	1.176856E+0	1.086337E+0	1.184452E+0	1.127738E+0	1.159837E+0	1.132455E+0	1.184608E+0	1.262052E+0	1.162760E+0	1.230320E+0	1.181489E+0	1.098590E+0	1.160984E+0	1.148584E+0	1.131528E+0	1.124474E+0	1.189241E+0	1.118633E+0	1.175470E+0	1.249106E+0	1.128371E+0	1.180322E+0	1.132300E+0	1.138465E+0	1.162430E+0	1.146796E+0	1.153015E+0	1.097559E+0	1.188141E+0	1.161940E+0	1.196572E+0	1.221059E+0	1.186014E+0	1.123916E+0	1.152234E+0	1.149110E+0	1.199010E+0	1.216856E+0	1.207412E+0	1.208578E+0	1.220442E+0	1.135176E+0	1.133150E+0	1.138293E+0	1.162684E+0	1.181542E+0	1.142060E+0	1.200098E+0	1.227206E+0	1.201145E+0	1.169024E+0	1.162809E+0	1.191266E+0	1.162312E+0	1.223600E+0	1.150743E+0	1.204504E+0	1.182781E+0	1.143376E+0	1.140315E+0	1.199644E+0	1.237378E+0	1.155517E+0	1.136995E+0	1.172180E+0	1.223300E+0	1.187236E+0	1.115808E+0	1.187556E+0	1.138472E+0	1.121202E+0	1.217447E+0	1.146596E+0	1.204379E+0	1.235403E+0
5.374060E+2	1.413198E+0	1.525381E+0	1.302476E+0	1.370856E+0	1.430195E+0	1.473375E+0	1.473238E+0	1.426059E+0	1.366757E+0	1.459837E+0	1.421865E+0	1.410527E+0	1.463065E+0	1.386472E+0	1.544912E+0	1.406388E+0	1.454263E+0	1.453031E+0	1.444824E+0	1.525472E+0	1.453146E+0	1.414687E+0	1.440022E+0	1.375715E+0	1.419220E+0	1.427064E+0	1.532491E+0	1.414139E+0	1.454037E+0	1.473924E+0	1.491482E+0	1.494777E+0	1.426834E+0	1.426848E+0	1.514981E+0	1.449245E+0	1.434680E+0	1.431662E+0	1.467590E+0	1.418603E+0	1.442553E+0	1.367009E+0	1.502103E+0	1.492439E+0	1.514083E+0	1.471572E+0	1.479657E+0	1.423293E+0	1.449514E+0	1.388070E+0	1.476983E+0	1.418861E+0	1.447946E+0	1.469682E+0	1.480387E+0	1.474949E+0	1.465802E+0	1.507058E+0	1.463577E+0	1.395115E+0	1.412415E+0	1.386587E+0	1.424296E+0	1.445469E+0	1.423066E+0	1.419476E+0	1.433350E+0	1.408685E+0	1.355521E+0	1.462661E+0	1.402287E+0	1.483495E+0	1.468129E+0	1.484246E+0	1.495576E+0	1.514312E+0	1.381277E+0	1.426860E+0	1.418025E+0	1.435707E+0	1.423690E+0	1.447422E+0	1.422085E+0	1.386467E+0	1.475483E+0	1.461126E+0	1.413941E+0	1.454578E+0	1.412862E+0	1.360828E+0	1.386266E+0	1.451293E+0	1.492996E+0	1.382214E+0	1.436020E+0	1.548414E+0	1.423237E+0	1.448989E+0	1.508238E+0	1.405220E+0	1.415023E+0	1.409538E+0	1.434008E+0	1.434713E+0	1.486035E+0	1.404596E+0	1.469214E+0	1.473965E+0	1.367812E+0	1.470598E+0	1.439851E+0	1.518360E+0	1.444098E+0	1.380044E+0	1.422144E+0	1.428364E+0	1.430236E+0	1.476519E+0	1.388880E+0	1.403550E+0	1.428191E+0	1.412437E+0	1.420022E+0	1.549153E+0	1.449706E+0	1.375141E+0	1.464348E+0	1.375266E+0	1.360839E+0	1.453369E+0	1.484595E+0	1.500616E+0	1.457396E+0	1.400077E+0	1.373808E+0	1.342701E+0	1.472833E+0	1.452737E+0	1.429847E+0	1.389228E+0	1.472298E+0	1.453428E+0	1.383841E+0	1.394111E+0	1.368874E+0	1.510058E+0	1.472812E+0	1.488962E+0	1.489903E+0	1.444206E+0	1.399053E+0	1.449326E+0	1.423824E+0	1.318427E+0	1.448320E+0	1.402010E+0	1.416749E+0	1.424145E+0	1.361739E+0	1.459262E+0	1.388706E+0	1.334719E+0	1.416849E+0	1.393353E+0	1.453838E+0	1.609402E+0
5.376110E+2	1.483478E+0	1.590804E+0	1.543969E+0	1.462658E+0	1.554336E+0	1.590077E+0	1.439032E+0	1.518775E+0	1.507051E+0	1.468536E+0	1.572860E+0	1.467132E+0	1.505435E+0	1.556438E+0	1.606360E+0	1.471728E+0	1.514946E+0	1.571107E+0	1.529451E+0	1.537541E+0	1.557238E+0	1.476488E+0	1.436701E+0	1.557139E+0	1.475099E+0	1.602351E+0	1.534814E+0	1.548328E+0	1.584758E+0	1.509087E+0	1.447376E+0	1.511914E+0	1.501071E+0	1.548673E+0	1.536289E+0	1.540127E+0	1.538357E+0	1.483940E+0	1.618443E+0	1.505430E+0	1.590139E+0	1.538478E+0	1.576124E+0	1.505183E+0	1.525804E+0	1.516202E+0	1.590019E+0	1.517644E+0	1.438633E+0	1.559738E+0	1.499968E+0	1.635509E+0	1.518494E+0	1.610292E+0	1.468767E+0	1.494722E+0	1.558312E+0	1.513534E+0	1.492345E+0	1.484946E+0	1.536615E+0	1.509436E+0	1.556977E+0	1.559105E+0	1.488521E+0	1.508187E+0	1.405583E+0	1.561509E+0	1.427550E+0	1.588601E+0	1.536288E+0	1.582291E+0	1.493375E+0	1.457829E+0	1.506525E+0	1.525088E+0	1.523047E+0	1.538350E+0	1.494241E+0	1.551068E+0	1.537064E+0	1.509831E+0	1.550114E+0	1.535555E+0	1.536222E+0	1.433928E+0	1.423607E+0	1.566194E+0	1.535318E+0	1.516536E+0	1.507899E+0	1.560105E+0	1.602331E+0	1.434705E+0	1.450350E+0	1.524718E+0	1.456576E+0	1.476751E+0	1.525991E+0	1.464257E+0	1.505975E+0	1.622900E+0	1.531195E+0	1.520707E+0	1.533029E+0	1.464882E+0	1.500135E+0	1.531005E+0	1.475719E+0	1.507421E+0	1.467560E+0	1.475604E+0	1.481063E+0	1.482915E+0	1.506061E+0	1.399081E+0	1.514023E+0	1.525724E+0	1.460875E+0	1.579489E+0	1.487905E+0	1.581068E+0	1.551042E+0	1.570380E+0	1.578171E+0	1.493830E+0	1.534788E+0	1.506962E+0	1.552272E+0	1.457802E+0	1.524763E+0	1.528291E+0	1.522470E+0	1.511112E+0	1.531700E+0	1.503647E+0	1.568776E+0	1.591735E+0	1.366394E+0	1.536097E+0	1.543163E+0	1.560814E+0	1.502369E+0	1.547815E+0	1.416620E+0	1.633822E+0	1.506093E+0	1.550288E+0	1.447118E+0	1.496877E+0	1.460345E+0	1.512063E+0	1.632916E+0	1.449369E+0	1.508849E+0	1.488457E+0	1.438984E+0	1.581225E+0	1.487050E+0	1.576586E+0	1.518672E+0	1.488610E+0	1.518032E+0	1.474514E+0	1.515026E+0	1.577014E+0
5.378110E+2	1.465503E+0	1.408745E+0	1.484132E+0	1.487433E+0	1.438487E+0	1.446028E+0	1.489510E+0	1.426773E+0	1.452659E+0	1.454087E+0	1.523995E+0	1.398478E+0	1.502357E+0	1.559444E+0	1.532616E+0	1.418377E+0	1.505645E+0	1.417382E+0	1.465434E+0	1.474670E+0	1.433948E+0	1.420342E+0	1.489102E+0	1.495609E+0	1.450260E+0	1.540949E+0	1.420459E+0	1.464360E+0	1.566344E+0	1.477275E+0	1.499243E+0	1.419753E+0	1.469375E+0	1.449274E+0	1.438549E+0	1.511029E+0	1.464558E+0	1.475699E+0	1.488046E+0	1.462987E+0	1.484118E+0	1.423239E+0	1.478841E+0	1.462719E+0	1.514498E+0	1.483831E+0	1.431715E+0	1.404872E+0	1.447239E+0	1.508869E+0	1.471593E+0	1.413403E+0	1.494771E+0	1.534145E+0	1.333089E+0	1.455943E+0	1.333474E+0	1.471466E+0	1.513967E+0	1.478387E+0	1.438310E+0	1.443653E+0	1.396190E+0	1.520657E+0	1.380850E+0	1.460296E+0	1.390044E+0	1.462350E+0	1.443990E+0	1.427579E+0	1.501829E+0	1.434683E+0	1.397955E+0	1.574448E+0	1.518695E+0	1.431428E+0	1.461296E+0	1.556067E+0	1.397090E+0	1.469528E+0	1.408493E+0	1.402369E+0	1.389931E+0	1.423877E+0	1.450623E+0	1.413099E+0	1.433454E+0	1.433758E+0	1.499971E+0	1.405335E+0	1.390624E+0	1.367698E+0	1.486748E+0	1.391073E+0	1.534987E+0	1.484359E+0	1.428053E+0	1.438759E+0	1.468793E+0	1.431901E+0	1.428340E+0	1.464968E+0	1.493966E+0	1.506544E+0	1.436613E+0	1.419665E+0	1.478232E+0	1.353110E+0	1.329694E+0	1.455970E+0	1.437615E+0	1.446194E+0	1.370431E+0	1.380417E+0	1.464848E+0	1.505598E+0	1.455279E+0	1.526302E+0	1.444537E+0	1.453771E+0	1.406586E+0	1.435655E+0	1.527831E+0	1.418965E+0	1.521114E+0	1.508243E+0	1.388122E+0	1.452074E+0	1.355056E+0	1.400171E+0	1.491698E+0	1.487528E+0	1.455931E+0	1.355196E+0	1.467105E+0	1.536728E+0	1.508252E+0	1.427288E+0	1.410141E+0	1.496411E+0	1.485136E+0	1.331621E+0	1.451407E+0	1.372504E+0	1.392674E+0	1.563803E+0	1.508947E+0	1.491231E+0	1.371375E+0	1.460025E+0	1.433871E+0	1.443902E+0	1.513251E+0	1.391901E+0	1.469030E+0	1.429958E+0	1.526922E+0	1.536258E+0	1.498419E+0	1.527081E+0	1.480075E+0	1.415960E+0	1.453414E+0	1.375973E+0	1.373652E+0	1.369623E+0
5.380050E+2	1.427114E+0	1.453807E+0	1.424446E+0	1.527302E+0	1.560136E+0	1.462232E+0	1.496116E+0	1.552770E+0	1.493995E+0	1.492478E+0	1.510164E+0	1.438315E+0	1.463937E+0	1.455165E+0	1.567197E+0	1.473996E+0	1.458351E+0	1.456500E+0	1.445963E+0	1.547126E+0	1.473342E+0	1.463838E+0	1.459222E+0	1.515418E+0	1.513177E+0	1.518553E+0	1.547990E+0	1.507219E+0	1.519255E+0	1.424164E+0	1.581929E+0	1.492271E+0	1.631492E+0	1.388409E+0	1.495484E+0	1.498127E+0	1.509147E+0	1.454865E+0	1.496303E+0	1.431512E+0	1.499748E+0	1.459233E+0	1.509400E+0	1.382871E+0	1.499326E+0	1.469331E+0	1.536756E+0	1.567890E+0	1.472925E+0	1.529492E+0	1.478801E+0	1.415844E+0	1.519314E+0	1.573370E+0	1.517860E+0	1.388976E+0	1.487097E+0	1.534846E+0	1.484553E+0	1.513280E+0	1.486748E+0	1.455881E+0	1.423840E+0	1.557355E+0	1.419703E+0	1.457720E+0	1.516543E+0	1.518730E+0	1.373393E+0	1.519933E+0	1.509612E+0	1.470387E+0	1.492881E+0	1.520276E+0	1.504749E+0	1.417922E+0	1.540200E+0	1.435009E+0	1.533924E+0	1.513161E+0	1.528505E+0	1.421175E+0	1.449279E+0	1.483471E+0	1.511911E+0	1.428148E+0	1.532603E+0	1.466069E+0	1.456269E+0	1.525428E+0	1.401364E+0	1.353663E+0	1.597676E+0	1.524951E+0	1.495635E+0	1.553223E+0	1.463102E+0	1.490677E+0	1.452841E+0	1.470126E+0	1.508061E+0	1.439201E+0	1.426441E+0	1.522214E+0	1.454779E+0	1.448479E+0	1.551628E+0	1.432516E+0	1.439794E+0	1.459553E+0	1.462470E+0	1.537940E+0	1.482907E+0	1.500543E+0	1.488751E+0	1.467368E+0	1.507916E+0	1.458767E+0	1.486147E+0	1.535784E+0	1.456258E+0	1.455270E+0	1.522723E+0	1.584538E+0	1.456392E+0	1.484046E+0	1.494668E+0	1.405621E+0	1.405442E+0	1.449642E+0	1.529243E+0	1.492261E+0	1.482934E+0	1.426090E+0	1.484523E+0	1.566031E+0	1.481217E+0	1.490705E+0	1.419725E+0	1.489429E+0	1.538843E+0	1.465458E+0	1.412032E+0	1.421439E+0	1.398244E+0	1.497533E+0	1.444046E+0	1.521737E+0	1.426395E+0	1.449486E+0	1.442405E+0	1.474897E+0	1.500809E+0	1.509526E+0	1.445809E+0	1.560316E+0	1.474725E+0	1.547631E+0	1.467364E+0	1.574719E+0	1.517241E+0	1.431294E+0	1.558201E+0	1.432704E+0	1.509509E+0	1.468512E+0
5.382110E+2	1.726329E+0	1.683807E+0	1.663041E+0	1.748236E+0	1.741379E+0	1.788812E+0	1.797532E+0	1.721627E+0	1.712510E+0	1.722963E+0	1.734876E+0	1.675169E+0	1.731834E+0	1.710057E+0	1.755091E+0	1.635233E+0	1.752093E+0	1.730682E+0	1.796004E+0	1.723013E+0	1.687836E+0	1.636097E+0	1.684310E+0	1.766711E+0	1.680367E+0	1.697139E+0	1.752122E+0	1.758221E+0	1.815805E+0	1.714481E+0	1.741205E+0	1.723660E+0	1.820084E+0	1.838380E+0	1.900083E+0	1.792144E+0	1.690245E+0	1.643310E+0	1.764775E+0	1.641051E+0	1.819774E+0	1.750638E+0	1.785835E+0	1.704950E+0	1.775840E+0	1.776880E+0	1.715887E+0	1.772711E+0	1.721147E+0	1.762097E+0	1.693633E+0	1.696273E+0	1.707938E+0	1.781963E+0	1.750799E+0	1.755719E+0	1.664357E+0	1.689537E+0	1.764464E+0	1.711154E+0	1.709855E+0	1.627103E+0	1.707724E+0	1.723626E+0	1.687202E+0	1.706471E+0	1.740749E+0	1.643086E+0	1.695350E+0	1.731553E+0	1.726526E+0	1.747210E+0	1.640552E+0	1.704802E+0	1.749649E+0	1.727646E+0	1.726995E+0	1.759467E+0	1.667555E+0	1.644665E+0	1.772058E+0	1.654786E+0	1.821341E+0	1.673279E+0	1.708079E+0	1.718685E+0	1.710266E+0	1.663413E+0	1.738180E+0	1.703155E+0	1.681486E+0	1.708353E+0	1.724670E+0	1.649419E+0	1.734030E+0	1.796849E+0	1.716580E+0	1.711571E+0	1.752985E+0	1.658717E+0	1.728679E+0	1.708361E+0	1.711354E+0	1.694338E+0	1.714334E+0	1.719412E+0	1.758187E+0	1.637777E+0	1.721388E+0	1.729078E+0	1.763642E+0	1.646820E+0	1.554014E+0	1.629012E+0	1.675783E+0	1.810967E+0	1.711667E+0	1.780833E+0	1.691221E+0	1.783966E+0	1.716760E+0	1.799096E+0	1.693381E+0	1.733292E+0	1.804198E+0	1.660165E+0	1.687271E+0	1.684020E+0	1.762910E+0	1.662633E+0	1.753704E+0	1.669127E+0	1.745151E+0	1.680424E+0	1.642811E+0	1.699609E+0	1.683855E+0	1.755611E+0	1.718917E+0	1.763410E+0	1.788376E+0	1.775836E+0	1.694117E+0	1.763491E+0	1.725980E+0	1.718404E+0	1.732651E+0	1.699890E+0	1.739027E+0	1.685081E+0	1.655814E+0	1.799346E+0	1.726344E+0	1.792271E+0	1.671409E+0	1.669924E+0	1.787633E+0	1.794222E+0	1.663559E+0	1.754717E+0	1.667146E+0	1.738571E+0	1.731296E+0	1.701016E+0	1.824107E+0	1.715215E+0
5.384110E+2	2.203393E+0	2.154100E+0	2.099687E+0	2.075291E+0	2.232109E+0	2.195203E+0	2.206480E+0	2.222023E+0	2.143330E+0	2.236309E+0	2.243335E+0	2.136432E+0	2.174659E+0	2.109849E+0	2.285105E+0	2.145500E+0	2.233040E+0	2.125700E+0	2.091980E+0	2.125650E+0	2.180927E+0	2.083681E+0	2.092299E+0	2.139439E+0	2.165965E+0	2.178147E+0	2.234965E+0	2.110457E+0	2.163329E+0	2.151006E+0	2.183744E+0	2.124568E+0	2.108832E+0	2.232166E+0	2.225349E+0	2.178854E+0	2.194804E+0	2.053466E+0	2.272858E+0	2.180801E+0	2.201913E+0	2.189015E+0	2.051170E+0	2.181856E+0	2.096099E+0	2.069123E+0	2.119323E+0	2.189428E+0	2.170125E+0	2.082488E+0	2.088225E+0	2.169436E+0	2.177067E+0	2.168941E+0	2.155327E+0	2.079296E+0	2.035422E+0	2.248432E+0	2.151668E+0	2.071281E+0	2.138302E+0	2.140574E+0	2.129999E+0	2.274936E+0	2.073994E+0	2.186754E+0	2.118892E+0	2.120581E+0	2.149933E+0	2.141355E+0	2.154458E+0	2.114493E+0	2.053739E+0	2.204715E+0	2.135376E+0	2.187527E+0	2.182936E+0	2.119667E+0	2.057910E+0	2.059394E+0	2.153116E+0	2.117486E+0	2.242306E+0	2.114049E+0	2.189528E+0	2.159465E+0	2.192325E+0	2.125968E+0	2.148180E+0	2.110863E+0	2.107287E+0	2.053350E+0	2.142057E+0	2.100572E+0	2.190205E+0	2.156383E+0	2.086725E+0	2.166054E+0	2.140441E+0	2.177250E+0	2.133223E+0	2.077076E+0	2.143841E+0	2.188826E+0	2.019447E+0	2.053869E+0	2.161463E+0	2.180961E+0	2.175832E+0	2.124503E+0	2.086664E+0	2.143896E+0	2.090447E+0	2.160920E+0	2.081068E+0	2.195102E+0	2.053710E+0	2.053256E+0	2.115032E+0	2.118055E+0	2.152339E+0	2.120909E+0	2.248412E+0	2.146814E+0	2.178047E+0	2.129053E+0	2.068847E+0	2.030008E+0	2.109627E+0	2.147378E+0	2.193328E+0	2.137319E+0	2.089295E+0	2.139591E+0	2.008661E+0	2.090379E+0	2.177717E+0	2.162450E+0	1.986761E+0	2.139797E+0	2.088258E+0	2.100090E+0	2.042828E+0	2.131714E+0	2.072384E+0	2.075693E+0	2.084191E+0	2.154989E+0	2.114822E+0	2.141928E+0	2.142979E+0	2.115942E+0	2.176420E+0	2.068632E+0	2.070406E+0	2.132318E+0	2.180188E+0	2.070839E+0	2.086188E+0	2.262790E+0	2.128241E+0	2.024502E+0	2.075919E+0	2.036912E+0	2.097644E+0	2.059979E+0
5.386170E+2	2.427328E+0	2.342933E+0	2.326271E+0	2.297376E+0	2.461750E+0	2.276359E+0	2.369693E+0	2.383079E+0	2.365522E+0	2.283750E+0	2.480001E+0	2.335100E+0	2.374282E+0	2.356714E+0	2.396484E+0	2.275105E+0	2.344993E+0	2.393979E+0	2.331896E+0	2.371945E+0	2.399783E+0	2.339097E+0	2.369778E+0	2.359113E+0	2.382822E+0	2.425886E+0	2.396443E+0	2.303472E+0	2.416888E+0	2.325709E+0	2.325380E+0	2.341491E+0	2.334975E+0	2.364270E+0	2.469643E+0	2.394058E+0	2.319946E+0	2.312633E+0	2.380211E+0	2.354873E+0	2.396724E+0	2.419117E+0	2.321273E+0	2.305418E+0	2.360219E+0	2.453696E+0	2.290569E+0	2.342976E+0	2.396236E+0	2.312282E+0	2.330946E+0	2.328741E+0	2.332543E+0	2.314315E+0	2.277011E+0	2.357280E+0	2.275627E+0	2.398235E+0	2.413615E+0	2.350354E+0	2.327755E+0	2.332770E+0	2.241498E+0	2.386289E+0	2.280429E+0	2.315249E+0	2.391238E+0	2.376006E+0	2.244210E+0	2.432084E+0	2.300059E+0	2.302735E+0	2.249267E+0	2.283591E+0	2.309990E+0	2.210225E+0	2.327904E+0	2.446815E+0	2.231666E+0	2.321230E+0	2.303692E+0	2.241746E+0	2.389443E+0	2.411698E+0	2.332736E+0	2.258837E+0	2.360775E+0	2.281931E+0	2.303394E+0	2.325956E+0	2.283712E+0	2.306320E+0	2.340097E+0	2.267696E+0	2.304864E+0	2.316870E+0	2.328593E+0	2.374400E+0	2.349701E+0	2.341565E+0	2.341582E+0	2.367429E+0	2.390838E+0	2.241541E+0	2.362745E+0	2.228998E+0	2.359673E+0	2.348905E+0	2.230518E+0	2.368895E+0	2.290271E+0	2.367523E+0	2.334983E+0	2.304726E+0	2.362541E+0	2.295950E+0	2.303859E+0	2.291615E+0	2.247356E+0	2.387633E+0	2.352216E+0	2.391358E+0	2.307308E+0	2.431821E+0	2.264584E+0	2.317488E+0	2.301055E+0	2.291604E+0	2.317247E+0	2.235319E+0	2.342853E+0	2.348447E+0	2.330371E+0	2.184749E+0	2.212187E+0	2.303900E+0	2.390280E+0	2.255524E+0	2.294809E+0	2.210011E+0	2.369619E+0	2.323272E+0	2.196518E+0	2.268623E+0	2.187895E+0	2.337059E+0	2.353923E+0	2.267632E+0	2.237009E+0	2.338732E+0	2.320370E+0	2.315116E+0	2.345128E+0	2.370277E+0	2.215380E+0	2.367053E+0	2.321672E+0	2.397337E+0	2.388892E+0	2.358719E+0	2.281453E+0	2.285816E+0	2.244994E+0	2.285171E+0	2.049344E+0	2.401856E+0
5.388230E+2	1.861980E+0	1.972085E+0	1.858291E+0	1.944113E+0	1.854738E+0	1.914384E+0	1.959468E+0	1.857298E+0	1.935686E+0	1.831241E+0	1.913043E+0	1.830328E+0	1.929081E+0	1.874793E+0	1.920493E+0	1.878798E+0	1.847959E+0	1.794862E+0	1.866777E+0	1.833058E+0	1.968778E+0	1.861253E+0	1.809066E+0	1.887542E+0	1.972415E+0	1.859495E+0	1.885262E+0	1.861933E+0	1.950139E+0	1.849230E+0	1.941986E+0	1.868868E+0	1.895176E+0	1.831007E+0	1.850912E+0	1.947693E+0	1.940912E+0	1.819630E+0	1.826277E+0	1.902030E+0	1.864605E+0	1.847769E+0	1.916049E+0	1.866686E+0	1.937349E+0	1.830450E+0	1.944671E+0	1.856245E+0	1.809138E+0	1.958884E+0	1.826155E+0	1.917008E+0	1.914184E+0	1.889576E+0	1.828123E+0	1.815639E+0	1.862916E+0	1.976236E+0	1.812877E+0	1.831090E+0	1.875724E+0	1.868788E+0	1.806455E+0	1.954834E+0	1.834769E+0	1.912085E+0	1.899574E+0	1.846344E+0	1.876563E+0	1.854851E+0	1.819704E+0	1.841417E+0	1.852891E+0	1.873004E+0	1.886826E+0	1.823278E+0	1.901119E+0	1.800396E+0	1.910758E+0	1.808428E+0	1.924859E+0	1.805378E+0	1.895715E+0	1.844072E+0	1.866263E+0	1.862736E+0	1.895274E+0	1.758835E+0	1.857063E+0	1.933543E+0	1.753528E+0	1.857001E+0	1.870879E+0	1.781227E+0	1.857943E+0	1.898713E+0	1.870164E+0	1.820448E+0	1.882696E+0	1.750185E+0	1.934584E+0	1.846049E+0	1.883592E+0	1.849916E+0	1.906379E+0	1.809850E+0	1.894341E+0	1.905100E+0	1.888835E+0	1.807296E+0	1.842009E+0	1.863134E+0	1.757149E+0	1.867897E+0	1.863140E+0	1.890568E+0	1.931628E+0	1.862010E+0	1.815471E+0	1.888257E+0	1.873158E+0	1.851916E+0	1.906071E+0	1.884633E+0	1.856485E+0	1.886152E+0	1.855695E+0	1.756683E+0	1.892022E+0	1.929381E+0	1.842109E+0	1.841115E+0	1.771751E+0	1.895373E+0	1.805011E+0	1.818838E+0	1.815535E+0	1.842480E+0	1.852020E+0	1.915884E+0	1.857497E+0	1.882770E+0	1.837243E+0	1.758652E+0	1.841492E+0	1.879742E+0	1.820496E+0	1.915597E+0	1.827297E+0	1.815021E+0	1.834175E+0	1.795946E+0	1.859418E+0	1.877708E+0	1.848038E+0	1.927464E+0	1.813944E+0	1.906577E+0	1.824366E+0	1.845284E+0	1.891712E+0	1.811250E+0	1.796906E+0	1.783711E+0	1.795232E+0	2.006835E+0
5.390130E+2	1.522851E+0	1.504788E+0	1.449791E+0	1.519794E+0	1.461408E+0	1.519918E+0	1.436139E+0	1.411464E+0	1.492847E+0	1.572954E+0	1.559985E+0	1.420056E+0	1.377492E+0	1.466753E+0	1.512849E+0	1.448368E+0	1.547153E+0	1.522207E+0	1.481649E+0	1.576794E+0	1.421485E+0	1.592521E+0	1.493440E+0	1.540986E+0	1.488099E+0	1.495962E+0	1.517852E+0	1.563932E+0	1.567543E+0	1.520690E+0	1.519396E+0	1.585936E+0	1.537238E+0	1.496198E+0	1.563436E+0	1.447847E+0	1.486893E+0	1.474962E+0	1.531269E+0	1.532958E+0	1.481182E+0	1.466678E+0	1.587812E+0	1.543306E+0	1.515310E+0	1.614298E+0	1.563899E+0	1.493967E+0	1.508842E+0	1.467790E+0	1.546018E+0	1.488053E+0	1.547762E+0	1.521380E+0	1.415020E+0	1.447482E+0	1.536906E+0	1.470412E+0	1.536334E+0	1.462215E+0	1.544243E+0	1.489708E+0	1.486355E+0	1.535095E+0	1.416382E+0	1.495080E+0	1.449028E+0	1.500380E+0	1.458666E+0	1.454530E+0	1.531019E+0	1.529039E+0	1.424326E+0	1.527787E+0	1.530712E+0	1.419639E+0	1.500685E+0	1.499759E+0	1.443880E+0	1.518005E+0	1.533777E+0	1.441301E+0	1.478438E+0	1.374980E+0	1.501375E+0	1.431952E+0	1.498286E+0	1.412522E+0	1.521437E+0	1.473340E+0	1.481561E+0	1.442604E+0	1.503243E+0	1.479799E+0	1.587913E+0	1.548817E+0	1.532855E+0	1.505842E+0	1.524893E+0	1.544032E+0	1.562545E+0	1.584546E+0	1.423174E+0	1.559936E+0	1.541093E+0	1.493088E+0	1.478247E+0	1.538262E+0	1.456741E+0	1.409050E+0	1.513707E+0	1.505778E+0	1.446918E+0	1.559369E+0	1.484950E+0	1.498165E+0	1.545693E+0	1.542289E+0	1.483708E+0	1.537528E+0	1.480242E+0	1.528012E+0	1.453389E+0	1.491111E+0	1.514415E+0	1.470656E+0	1.511308E+0	1.537554E+0	1.432925E+0	1.388599E+0	1.530533E+0	1.389439E+0	1.502448E+0	1.497179E+0	1.472403E+0	1.524011E+0	1.449635E+0	1.435789E+0	1.374166E+0	1.409277E+0	1.467680E+0	1.427076E+0	1.456726E+0	1.484071E+0	1.478112E+0	1.442902E+0	1.506963E+0	1.575857E+0	1.507078E+0	1.514082E+0	1.459788E+0	1.532518E+0	1.556194E+0	1.479608E+0	1.424424E+0	1.510532E+0	1.461193E+0	1.471745E+0	1.505979E+0	1.432029E+0	1.481657E+0	1.504029E+0	1.556012E+0	1.542338E+0	1.390531E+0	1.599660E+0
5.392090E+2	1.193409E+0	1.168080E+0	1.196830E+0	1.064480E+0	1.158018E+0	1.208086E+0	1.220362E+0	1.202674E+0	1.205863E+0	1.198540E+0	1.215857E+0	1.218504E+0	1.210758E+0	1.142844E+0	1.239526E+0	1.152644E+0	1.200542E+0	1.245439E+0	1.192657E+0	1.237676E+0	1.212450E+0	1.209032E+0	1.049638E+0	1.230415E+0	1.225356E+0	1.276203E+0	1.220701E+0	1.100591E+0	1.232670E+0	1.188220E+0	1.174987E+0	1.205551E+0	1.178781E+0	1.180955E+0	1.195816E+0	1.215122E+0	1.161583E+0	1.188075E+0	1.152006E+0	1.200251E+0	1.207201E+0	1.187463E+0	1.257216E+0	1.122678E+0	1.187935E+0	1.225164E+0	1.192770E+0	1.153237E+0	1.275788E+0	1.236373E+0	1.210731E+0	1.200066E+0	1.214372E+0	1.262511E+0	1.199116E+0	1.157260E+0	1.195900E+0	1.231530E+0	1.169183E+0	1.204473E+0	1.203277E+0	1.111706E+0	1.182859E+0	1.176613E+0	1.142378E+0	1.270148E+0	1.206320E+0	1.166372E+0	1.199910E+0	1.165621E+0	1.124725E+0	1.141449E+0	1.149089E+0	1.221003E+0	1.223127E+0	1.262943E+0	1.157077E+0	1.223686E+0	1.142081E+0	1.167890E+0	1.291126E+0	1.199460E+0	1.183534E+0	1.155876E+0	1.241391E+0	1.180196E+0	1.159385E+0	1.182735E+0	1.269270E+0	1.251774E+0	1.205381E+0	1.163400E+0	1.174925E+0	1.177034E+0	1.201302E+0	1.211004E+0	1.213337E+0	1.191204E+0	1.218212E+0	1.233711E+0	1.270288E+0	1.148804E+0	1.154810E+0	1.221214E+0	1.211070E+0	1.154714E+0	1.207614E+0	1.238511E+0	1.246678E+0	1.222401E+0	1.170765E+0	1.134735E+0	1.176498E+0	1.208641E+0	1.158733E+0	1.147573E+0	1.209036E+0	1.175914E+0	1.172539E+0	1.264965E+0	1.147587E+0	1.169429E+0	1.262354E+0	1.278085E+0	1.206213E+0	1.142023E+0	1.243986E+0	1.190036E+0	1.193148E+0	1.171515E+0	1.232433E+0	1.200666E+0	1.245574E+0	1.273413E+0	1.156446E+0	1.156796E+0	1.157974E+0	1.177017E+0	1.175555E+0	1.156270E+0	1.169184E+0	1.140596E+0	1.190167E+0	1.188221E+0	1.146066E+0	1.268675E+0	1.203851E+0	1.187045E+0	1.248344E+0	1.205104E+0	1.210748E+0	1.290895E+0	1.307377E+0	1.119700E+0	1.155761E+0	1.157180E+0	1.177276E+0	1.254508E+0	1.184573E+0	1.206760E+0	1.204637E+0	1.268034E+0	1.147503E+0	1.143779E+0	1.230270E+0	1.451170E+0
5.394100E+2	1.111178E+0	1.198959E+0	1.170695E+0	1.133468E+0	1.197937E+0	1.242102E+0	1.196249E+0	1.175856E+0	1.204057E+0	1.139324E+0	1.190219E+0	1.274081E+0	1.131146E+0	1.174076E+0	1.224850E+0	1.184989E+0	1.169860E+0	1.157655E+0	1.148233E+0	1.217296E+0	1.121595E+0	1.178065E+0	1.161048E+0	1.184952E+0	1.082627E+0	1.191120E+0	1.219710E+0	1.145287E+0	1.248338E+0	1.183210E+0	1.156298E+0	1.211695E+0	1.176443E+0	1.176810E+0	1.223681E+0	1.206456E+0	1.223442E+0	1.243173E+0	1.141618E+0	1.194794E+0	1.175360E+0	1.161693E+0	1.193876E+0	1.183672E+0	1.143585E+0	1.137197E+0	1.202683E+0	1.174325E+0	1.244249E+0	1.202070E+0	1.078432E+0	1.187862E+0	1.177878E+0	1.248210E+0	1.259131E+0	1.183279E+0	1.101983E+0	1.292375E+0	1.144109E+0	1.170868E+0	1.194585E+0	1.170693E+0	1.203668E+0	1.143187E+0	1.181085E+0	1.159969E+0	1.187021E+0	1.155876E+0	1.211752E+0	1.233568E+0	1.061845E+0	1.175528E+0	1.119276E+0	1.185949E+0	1.122995E+0	1.213430E+0	1.170614E+0	1.159436E+0	1.188604E+0	1.145689E+0	1.212462E+0	1.193643E+0	1.204455E+0	1.175055E+0	1.179760E+0	1.168252E+0	1.143799E+0	1.230035E+0	1.246913E+0	1.250913E+0	1.186730E+0	1.201877E+0	1.276427E+0	1.168353E+0	1.208123E+0	1.197238E+0	1.320112E+0	1.140468E+0	1.191490E+0	1.203048E+0	1.202137E+0	1.178934E+0	1.182484E+0	1.223322E+0	1.166506E+0	1.185019E+0	1.100948E+0	1.261649E+0	1.163712E+0	1.258032E+0	1.197301E+0	1.211926E+0	1.119208E+0	1.122685E+0	1.178063E+0	1.186415E+0	1.177971E+0	1.215771E+0	1.146876E+0	1.182377E+0	1.095679E+0	1.254630E+0	1.172890E+0	1.194316E+0	1.144221E+0	1.258844E+0	1.182509E+0	1.225851E+0	1.133130E+0	1.099294E+0	1.176235E+0	1.252229E+0	1.202991E+0	1.177429E+0	1.151771E+0	1.174662E+0	1.257578E+0	1.246833E+0	1.158508E+0	1.162791E+0	1.182975E+0	1.175970E+0	1.196658E+0	1.064061E+0	1.215330E+0	1.198765E+0	1.234359E+0	1.201707E+0	1.140900E+0	1.174472E+0	1.130806E+0	1.142489E+0	1.172166E+0	1.147564E+0	1.086289E+0	1.202381E+0	1.185661E+0	1.223080E+0	1.184693E+0	1.241807E+0	1.164263E+0	1.177990E+0	1.172854E+0	1.129836E+0	1.274083E+0	1.369537E+0
5.396160E+2	1.139960E+0	1.169967E+0	1.217958E+0	1.226042E+0	1.250073E+0	1.175092E+0	1.248406E+0	1.217550E+0	1.224176E+0	1.303921E+0	1.194616E+0	1.250843E+0	1.238930E+0	1.237800E+0	1.298801E+0	1.197568E+0	1.248182E+0	1.260590E+0	1.165098E+0	1.275764E+0	1.236886E+0	1.249601E+0	1.180710E+0	1.265644E+0	1.206316E+0	1.238698E+0	1.255449E+0	1.234212E+0	1.252939E+0	1.217434E+0	1.292172E+0	1.219672E+0	1.280549E+0	1.243215E+0	1.260262E+0	1.244940E+0	1.271666E+0	1.188456E+0	1.262274E+0	1.212871E+0	1.238146E+0	1.233465E+0	1.203662E+0	1.236107E+0	1.239308E+0	1.268625E+0	1.242356E+0	1.205933E+0	1.188961E+0	1.218343E+0	1.235017E+0	1.153439E+0	1.253644E+0	1.320837E+0	1.224764E+0	1.227896E+0	1.206960E+0	1.254427E+0	1.294992E+0	1.224517E+0	1.208640E+0	1.222730E+0	1.234320E+0	1.255007E+0	1.275513E+0	1.271168E+0	1.240062E+0	1.240863E+0	1.159254E+0	1.282698E+0	1.201458E+0	1.227333E+0	1.182570E+0	1.268468E+0	1.240510E+0	1.237649E+0	1.147237E+0	1.206199E+0	1.229218E+0	1.266393E+0	1.303893E+0	1.194565E+0	1.215370E+0	1.222229E+0	1.157376E+0	1.215831E+0	1.248368E+0	1.227813E+0	1.282857E+0	1.296669E+0	1.176348E+0	1.229341E+0	1.252113E+0	1.209235E+0	1.239999E+0	1.230335E+0	1.272457E+0	1.243977E+0	1.211222E+0	1.186616E+0	1.211726E+0	1.195073E+0	1.220262E+0	1.180554E+0	1.225899E+0	1.250544E+0	1.202322E+0	1.246613E+0	1.213050E+0	1.245943E+0	1.162684E+0	1.189524E+0	1.164148E+0	1.195622E+0	1.185538E+0	1.200208E+0	1.254571E+0	1.305552E+0	1.199876E+0	1.300883E+0	1.119030E+0	1.205233E+0	1.224469E+0	1.223441E+0	1.283705E+0	1.270044E+0	1.297979E+0	1.229457E+0	1.222539E+0	1.134773E+0	1.320818E+0	1.226516E+0	1.160852E+0	1.167089E+0	1.188142E+0	1.268775E+0	1.266809E+0	1.188923E+0	1.186702E+0	1.282669E+0	1.230319E+0	1.250149E+0	1.214430E+0	1.200205E+0	1.197731E+0	1.170984E+0	1.262093E+0	1.223218E+0	1.189725E+0	1.218391E+0	1.233754E+0	1.279506E+0	1.258905E+0	1.205055E+0	1.210615E+0	1.176232E+0	1.179682E+0	1.238857E+0	1.193578E+0	1.209958E+0	1.261787E+0	1.227702E+0	1.304535E+0	1.110240E+0	1.362891E+0	1.420080E+0
5.398180E+2	1.167190E+0	1.078594E+0	1.096096E+0	1.157174E+0	1.197073E+0	1.116008E+0	1.070617E+0	1.164023E+0	1.179016E+0	1.089571E+0	1.182780E+0	1.120933E+0	1.097836E+0	1.103398E+0	1.122015E+0	1.099685E+0	1.104051E+0	1.109166E+0	1.145531E+0	1.139253E+0	1.184957E+0	1.070427E+0	1.099398E+0	1.099202E+0	1.124583E+0	1.176064E+0	1.197074E+0	1.168170E+0	1.159886E+0	1.136569E+0	1.181325E+0	1.189111E+0	1.097228E+0	1.095648E+0	1.131914E+0	1.157771E+0	1.101177E+0	1.120835E+0	1.159214E+0	1.080496E+0	1.196037E+0	1.146864E+0	1.252341E+0	1.042796E+0	1.131769E+0	1.148472E+0	1.170668E+0	1.169587E+0	1.073132E+0	1.183734E+0	1.139581E+0	1.185613E+0	1.091230E+0	1.186921E+0	1.078592E+0	1.166439E+0	1.151405E+0	1.143656E+0	1.075907E+0	1.123123E+0	1.050142E+0	1.127730E+0	1.148199E+0	1.135005E+0	1.107431E+0	1.157977E+0	1.199882E+0	1.125839E+0	1.084656E+0	1.111361E+0	1.087477E+0	1.140817E+0	1.084693E+0	1.124298E+0	1.204939E+0	1.097108E+0	1.125512E+0	1.168737E+0	1.147297E+0	1.173183E+0	1.133566E+0	1.052128E+0	1.155190E+0	1.148136E+0	1.103651E+0	1.134518E+0	1.187420E+0	1.039472E+0	1.102725E+0	1.139521E+0	1.065498E+0	1.064697E+0	1.146956E+0	1.014628E+0	1.172785E+0	1.132077E+0	1.145124E+0	1.137210E+0	1.161044E+0	1.161668E+0	1.118106E+0	1.148839E+0	1.100640E+0	1.155862E+0	1.104587E+0	1.062988E+0	1.128566E+0	1.058455E+0	1.187906E+0	1.152201E+0	1.081559E+0	1.208013E+0	1.096810E+0	1.183079E+0	1.120684E+0	1.123810E+0	1.083636E+0	1.112538E+0	1.080363E+0	1.226570E+0	1.150565E+0	1.130469E+0	1.126592E+0	1.186835E+0	1.177453E+0	1.140673E+0	1.105060E+0	1.101815E+0	1.121559E+0	1.076661E+0	1.116311E+0	1.134824E+0	1.023217E+0	1.203119E+0	1.125640E+0	1.054482E+0	1.125610E+0	1.088384E+0	1.126038E+0	1.083719E+0	1.169793E+0	1.121963E+0	1.191296E+0	1.064925E+0	1.078883E+0	1.125181E+0	1.164964E+0	1.098296E+0	1.080766E+0	1.201332E+0	1.086365E+0	1.132886E+0	1.149568E+0	1.119478E+0	1.156496E+0	1.198437E+0	1.103841E+0	1.193644E+0	1.121037E+0	1.122212E+0	1.077880E+0	1.130175E+0	1.145541E+0	1.086557E+0	1.081425E+0	1.286251E+0
5.400030E+2	7.636008E-1	7.808864E-1	6.672954E-1	7.796738E-1	7.759098E-1	8.119222E-1	7.580010E-1	7.881528E-1	7.517175E-1	8.118000E-1	8.010278E-1	7.240139E-1	7.700048E-1	7.622148E-1	8.069685E-1	7.376591E-1	7.373603E-1	7.510075E-1	7.838460E-1	8.020421E-1	8.095969E-1	7.679388E-1	6.328931E-1	7.219226E-1	7.394866E-1	8.248849E-1	7.641375E-1	7.311216E-1	7.608346E-1	7.303582E-1	7.542653E-1	8.039338E-1	8.344927E-1	7.916221E-1	7.470907E-1	7.907122E-1	7.527233E-1	6.820271E-1	7.691329E-1	8.012176E-1	7.425325E-1	7.499477E-1	7.747087E-1	7.935741E-1	7.533211E-1	7.342576E-1	7.654052E-1	6.803176E-1	7.194435E-1	7.456584E-1	7.534502E-1	7.414478E-1	7.279936E-1	7.858349E-1	7.520353E-1	7.981072E-1	7.730131E-1	8.238606E-1	7.553565E-1	7.299784E-1	7.129826E-1	7.905400E-1	6.932564E-1	7.605858E-1	7.511734E-1	7.979044E-1	7.610382E-1	7.149962E-1	7.661205E-1	7.064753E-1	7.335466E-1	7.383857E-1	7.761223E-1	7.688754E-1	7.054007E-1	7.481751E-1	7.211830E-1	7.623107E-1	7.256856E-1	7.673079E-1	7.540928E-1	7.297568E-1	7.127160E-1	7.330980E-1	7.391687E-1	7.739530E-1	7.530492E-1	7.618923E-1	7.356624E-1	7.247405E-1	7.364038E-1	7.559306E-1	7.525065E-1	7.195216E-1	7.898953E-1	8.091347E-1	7.725276E-1	7.403370E-1	7.193773E-1	7.466832E-1	7.378767E-1	7.422412E-1	7.025792E-1	8.128127E-1	7.048348E-1	7.144048E-1	7.362608E-1	7.529601E-1	7.650095E-1	8.123110E-1	7.285545E-1	7.662965E-1	7.052189E-1	7.265315E-1	7.637549E-1	7.829867E-1	8.091438E-1	8.177546E-1	7.919137E-1	7.482679E-1	7.696610E-1	8.023363E-1	7.369554E-1	7.454784E-1	7.855743E-1	7.223507E-1	7.857234E-1	7.345597E-1	7.042672E-1	7.492706E-1	7.795269E-1	7.624784E-1	7.589603E-1	7.356813E-1	7.648032E-1	8.003315E-1	7.358187E-1	7.479291E-1	7.457810E-1	8.322223E-1	8.436306E-1	7.525178E-1	7.830798E-1	7.280239E-1	7.521251E-1	7.905574E-1	6.773620E-1	7.749071E-1	7.629735E-1	7.615214E-1	7.996628E-1	7.786375E-1	8.152378E-1	7.985655E-1	7.611175E-1	7.670516E-1	7.840958E-1	7.525077E-1	7.706398E-1	7.903295E-1	7.500616E-1	7.518520E-1	7.975135E-1	7.545389E-1	7.250388E-1	8.906390E-1
5.402050E+2	5.330355E-1	5.596994E-1	5.005838E-1	4.936651E-1	5.955362E-1	5.894531E-1	5.905732E-1	5.766541E-1	5.301397E-1	5.090024E-1	5.668168E-1	5.611101E-1	5.385101E-1	5.602034E-1	5.598640E-1	5.382840E-1	5.465385E-1	5.255944E-1	5.623885E-1	5.663646E-1	5.178683E-1	5.559823E-1	4.829826E-1	5.461916E-1	5.254344E-1	5.507684E-1	5.543327E-1	5.386993E-1	5.639174E-1	4.963000E-1	5.394247E-1	5.820132E-1	5.508495E-1	5.381489E-1	6.236052E-1	5.516603E-1	5.174249E-1	5.275778E-1	5.279507E-1	5.229954E-1	5.884097E-1	5.041255E-1	5.929950E-1	5.704989E-1	5.083164E-1	5.185901E-1	5.263751E-1	5.459897E-1	5.725687E-1	5.302176E-1	4.999905E-1	5.546126E-1	5.639534E-1	5.592256E-1	5.604616E-1	5.408017E-1	5.534045E-1	5.470723E-1	5.921434E-1	5.274989E-1	5.209184E-1	5.466231E-1	5.123027E-1	5.606676E-1	5.508482E-1	4.946579E-1	4.927212E-1	5.695455E-1	4.986889E-1	4.817024E-1	5.948665E-1	5.747722E-1	5.092740E-1	5.381077E-1	5.815837E-1	5.649316E-1	5.375042E-1	5.585420E-1	4.899441E-1	5.692692E-1	5.269929E-1	4.964593E-1	5.386004E-1	5.147550E-1	6.277082E-1	5.669626E-1	5.333555E-1	5.571560E-1	5.182505E-1	5.408382E-1	5.042204E-1	4.980290E-1	5.171663E-1	5.341205E-1	4.673624E-1	5.135590E-1	5.317789E-1	5.773365E-1	5.705761E-1	6.293524E-1	5.495127E-1	5.763366E-1	5.444564E-1	5.937211E-1	5.458655E-1	5.546646E-1	5.356881E-1	5.103154E-1	5.042617E-1	5.593577E-1	5.493907E-1	5.322950E-1	5.194039E-1	5.410345E-1	5.470397E-1	5.638743E-1	5.583958E-1	5.700576E-1	5.657841E-1	5.593532E-1	5.753460E-1	5.402352E-1	6.203603E-1	5.894765E-1	5.515409E-1	4.995051E-1	4.936120E-1	6.103264E-1	5.322275E-1	5.304677E-1	5.947522E-1	5.803485E-1	5.913109E-1	4.968485E-1	5.464734E-1	5.732567E-1	5.596061E-1	4.990014E-1	5.530987E-1	5.413828E-1	5.419693E-1	5.098199E-1	5.619521E-1	5.597952E-1	5.224589E-1	5.510058E-1	5.544232E-1	5.412444E-1	5.889302E-1	5.241633E-1	5.666341E-1	5.524980E-1	5.177700E-1	5.502332E-1	5.128524E-1	5.145090E-1	5.157820E-1	5.294245E-1	5.351598E-1	4.930165E-1	5.538623E-1	5.464187E-1	5.203815E-1	5.054254E-1	4.966405E-1	4.451343E-1
5.404120E+2	4.980420E-1	5.328899E-1	4.668812E-1	4.636610E-1	4.977374E-1	5.428227E-1	5.011703E-1	4.903330E-1	5.114394E-1	4.944854E-1	5.422395E-1	4.730122E-1	5.160614E-1	4.992118E-1	4.995113E-1	4.591938E-1	5.378852E-1	5.060576E-1	4.862067E-1	4.956105E-1	5.058751E-1	4.939992E-1	4.888256E-1	4.915507E-1	4.976488E-1	4.558006E-1	5.476739E-1	5.208850E-1	5.161473E-1	4.950335E-1	4.886129E-1	5.044995E-1	5.169225E-1	4.508559E-1	4.459246E-1	5.046563E-1	5.093673E-1	4.790394E-1	5.092287E-1	5.146613E-1	5.118181E-1	4.896786E-1	4.622580E-1	5.001141E-1	5.467262E-1	5.198337E-1	4.718130E-1	4.779818E-1	4.617857E-1	5.071214E-1	4.933674E-1	5.109224E-1	5.191952E-1	4.996588E-1	5.379759E-1	5.012455E-1	5.043822E-1	5.239996E-1	5.146163E-1	4.796108E-1	5.031361E-1	4.941228E-1	4.888042E-1	4.988599E-1	4.566494E-1	5.031595E-1	4.613908E-1	4.436445E-1	4.995425E-1	4.824371E-1	4.735987E-1	4.924114E-1	4.685537E-1	4.919076E-1	4.967913E-1	4.752393E-1	4.607210E-1	4.755546E-1	4.757390E-1	4.783908E-1	5.106090E-1	4.850415E-1	4.977326E-1	4.957802E-1	4.839406E-1	5.101815E-1	4.979158E-1	5.079279E-1	4.199714E-1	5.256579E-1	5.066775E-1	4.733882E-1	4.588112E-1	5.219120E-1	4.732450E-1	4.703869E-1	4.975292E-1	5.009269E-1	4.871352E-1	5.132920E-1	4.928004E-1	5.458534E-1	4.656614E-1	5.652391E-1	4.902908E-1	5.134420E-1	4.980878E-1	4.963959E-1	4.988352E-1	4.986089E-1	5.504742E-1	5.005383E-1	5.592807E-1	4.902303E-1	5.118665E-1	5.006746E-1	5.010950E-1	5.009287E-1	4.982918E-1	5.074413E-1	5.086789E-1	5.469267E-1	4.979726E-1	5.355881E-1	4.773946E-1	4.355113E-1	4.615945E-1	4.517912E-1	4.826959E-1	4.475131E-1	5.404559E-1	5.506565E-1	4.535033E-1	5.371980E-1	5.157015E-1	4.433537E-1	5.102780E-1	4.620581E-1	4.596577E-1	5.037094E-1	5.677967E-1	4.856943E-1	4.930165E-1	4.280371E-1	4.684767E-1	4.718794E-1	4.621579E-1	4.944635E-1	4.890579E-1	4.967690E-1	5.146675E-1	4.816297E-1	5.249554E-1	5.395178E-1	4.953908E-1	5.177282E-1	4.746903E-1	5.494185E-1	4.727935E-1	5.210705E-1	4.588175E-1	5.213688E-1	5.067808E-1	4.835585E-1	4.960531E-1	4.629640E-1
5.406090E+2	5.357576E-1	5.278918E-1	4.872098E-1	5.308695E-1	5.329478E-1	5.278152E-1	5.616911E-1	5.122985E-1	5.003088E-1	5.309606E-1	4.844428E-1	5.359837E-1	4.954745E-1	5.384545E-1	6.047440E-1	5.047909E-1	4.999013E-1	5.658289E-1	5.615926E-1	5.473165E-1	5.386800E-1	5.287220E-1	5.099552E-1	5.184660E-1	5.164118E-1	5.785112E-1	5.564749E-1	4.916968E-1	5.386885E-1	5.562458E-1	5.618481E-1	5.482009E-1	5.716491E-1	5.364557E-1	5.836415E-1	5.496992E-1	5.900687E-1	5.016896E-1	5.042766E-1	4.961094E-1	5.541742E-1	5.119848E-1	5.473908E-1	4.880754E-1	5.421779E-1	5.383813E-1	5.891355E-1	5.071376E-1	5.525997E-1	5.165893E-1	5.267815E-1	5.516697E-1	5.475086E-1	5.369326E-1	5.314197E-1	5.456837E-1	5.169878E-1	4.961228E-1	5.837333E-1	5.250164E-1	5.453954E-1	5.274661E-1	5.345856E-1	6.287187E-1	5.529805E-1	5.501013E-1	5.782048E-1	5.031583E-1	5.524206E-1	5.098533E-1	5.858359E-1	5.244210E-1	5.594864E-1	5.642356E-1	4.852050E-1	5.227639E-1	5.403718E-1	5.887811E-1	4.993750E-1	4.801299E-1	5.864654E-1	5.197977E-1	5.163917E-1	5.726498E-1	5.146540E-1	5.071987E-1	5.239174E-1	5.506595E-1	5.355604E-1	5.237563E-1	5.507179E-1	5.688422E-1	4.932240E-1	5.568479E-1	5.354083E-1	5.129495E-1	5.536940E-1	5.421507E-1	5.805703E-1	5.353897E-1	4.913894E-1	5.420084E-1	5.921827E-1	4.849313E-1	5.380450E-1	5.456844E-1	5.455161E-1	4.848281E-1	5.683618E-1	5.392017E-1	5.222755E-1	5.622126E-1	5.243136E-1	4.861384E-1	5.672868E-1	5.050675E-1	5.254466E-1	5.149713E-1	5.599876E-1	5.840708E-1	5.645919E-1	5.404376E-1	5.490503E-1	4.900112E-1	5.042606E-1	5.298641E-1	5.466820E-1	5.885860E-1	5.152334E-1	5.017673E-1	5.512222E-1	5.913927E-1	5.812433E-1	5.196111E-1	5.102640E-1	5.819953E-1	5.674076E-1	5.791591E-1	5.230793E-1	5.407866E-1	5.806260E-1	5.154428E-1	5.342409E-1	5.384398E-1	5.485926E-1	5.464083E-1	5.298867E-1	6.094571E-1	5.590470E-1	5.151224E-1	5.623498E-1	5.876164E-1	6.045975E-1	5.777893E-1	5.578454E-1	5.533954E-1	5.499496E-1	5.426694E-1	5.782410E-1	5.590342E-1	5.021062E-1	5.432525E-1	5.356305E-1	4.900656E-1	5.505477E-1	4.384990E-1
5.408110E+2	4.918501E-1	5.038619E-1	4.977250E-1	5.353860E-1	5.510605E-1	5.244210E-1	5.497487E-1	5.164462E-1	5.261862E-1	4.939657E-1	5.717618E-1	5.703793E-1	4.951678E-1	5.692446E-1	5.603777E-1	5.176004E-1	5.216602E-1	5.645765E-1	5.450226E-1	5.010775E-1	5.046361E-1	5.020302E-1	5.386672E-1	5.544900E-1	4.972211E-1	5.219710E-1	5.666141E-1	5.248569E-1	5.332401E-1	4.711890E-1	4.935948E-1	5.358463E-1	5.505515E-1	5.677173E-1	4.994942E-1	5.032587E-1	4.928492E-1	5.098342E-1	4.999438E-1	5.577486E-1	5.281161E-1	5.079859E-1	5.293887E-1	5.279688E-1	5.076178E-1	4.961605E-1	5.492726E-1	5.263441E-1	4.194568E-1	4.971610E-1	5.388197E-1	5.008731E-1	5.693399E-1	5.372028E-1	5.078456E-1	5.406802E-1	4.786214E-1	5.052957E-1	5.417220E-1	4.564955E-1	6.052059E-1	5.173121E-1	4.755098E-1	5.342119E-1	5.075776E-1	5.237233E-1	5.128951E-1	5.813057E-1	4.836301E-1	5.143513E-1	5.348158E-1	5.555230E-1	5.139402E-1	5.035773E-1	5.354618E-1	5.282876E-1	5.391970E-1	4.747202E-1	5.037157E-1	5.523082E-1	5.023914E-1	5.312165E-1	5.418687E-1	5.530606E-1	5.654614E-1	5.126099E-1	5.351128E-1	5.616706E-1	4.859228E-1	5.345639E-1	4.936948E-1	5.324462E-1	5.468533E-1	5.684991E-1	5.028074E-1	5.422337E-1	5.431486E-1	5.157123E-1	5.414672E-1	4.463566E-1	5.154646E-1	5.442603E-1	5.181305E-1	5.455443E-1	5.358871E-1	5.327431E-1	4.713291E-1	5.477831E-1	5.006787E-1	5.103834E-1	5.164011E-1	5.349461E-1	5.096450E-1	4.793578E-1	5.638927E-1	5.824030E-1	4.979083E-1	5.665012E-1	5.484074E-1	5.294764E-1	4.787306E-1	5.943078E-1	5.171445E-1	5.489841E-1	5.822807E-1	5.476657E-1	6.031865E-1	5.115209E-1	5.051780E-1	5.290592E-1	5.195210E-1	5.936518E-1	5.233905E-1	5.662463E-1	5.701191E-1	5.601944E-1	5.316482E-1	5.170875E-1	4.840804E-1	5.061876E-1	5.451602E-1	5.113467E-1	4.828308E-1	4.953895E-1	5.579783E-1	4.900152E-1	4.828965E-1	5.600793E-1	5.226410E-1	5.213265E-1	5.348677E-1	5.252285E-1	5.542064E-1	5.652252E-1	4.919960E-1	5.613376E-1	5.152552E-1	5.459565E-1	5.172259E-1	5.547303E-1	5.805438E-1	4.985592E-1	4.868611E-1	5.348496E-1	5.349667E-1	5.488165E-1
5.410190E+2	4.005771E-1	3.549377E-1	4.045423E-1	3.869988E-1	3.759208E-1	4.028436E-1	4.085950E-1	3.966227E-1	3.906296E-1	3.371425E-1	4.579834E-1	3.326335E-1	3.916005E-1	3.813103E-1	4.137938E-1	3.910557E-1	3.916235E-1	3.642370E-1	4.283824E-1	4.108141E-1	4.097675E-1	3.527321E-1	4.331625E-1	3.807435E-1	3.921428E-1	4.095330E-1	4.013389E-1	3.503732E-1	3.849329E-1	3.733861E-1	3.342776E-1	3.764803E-1	3.617623E-1	3.618672E-1	4.197823E-1	4.568456E-1	3.363502E-1	3.641717E-1	3.800810E-1	3.567002E-1	3.747941E-1	3.908573E-1	4.108637E-1	4.410958E-1	4.268485E-1	4.167514E-1	3.945233E-1	4.218550E-1	3.764084E-1	3.939682E-1	3.643841E-1	3.900232E-1	4.006039E-1	4.219146E-1	4.058475E-1	3.937756E-1	4.042041E-1	4.286913E-1	3.617156E-1	3.536915E-1	3.826261E-1	3.916096E-1	3.670766E-1	4.260393E-1	4.239196E-1	4.309814E-1	3.601491E-1	4.051746E-1	3.675379E-1	3.911389E-1	3.697530E-1	3.966091E-1	3.605576E-1	4.001950E-1	3.848628E-1	3.847339E-1	3.662226E-1	3.829592E-1	4.118964E-1	3.865318E-1	4.364826E-1	3.765058E-1	3.935066E-1	3.829694E-1	4.347794E-1	3.632242E-1	3.759718E-1	3.563217E-1	3.591120E-1	3.993084E-1	3.483869E-1	4.180802E-1	3.739970E-1	3.886056E-1	4.110822E-1	4.329832E-1	3.676958E-1	4.111417E-1	3.759560E-1	3.780855E-1	3.973418E-1	4.144119E-1	4.138349E-1	4.064069E-1	3.971852E-1	3.937217E-1	3.565511E-1	3.923475E-1	3.556603E-1	3.813364E-1	3.873183E-1	3.830838E-1	3.634193E-1	4.019863E-1	3.673937E-1	4.537052E-1	4.018422E-1	3.961669E-1	4.034234E-1	4.368838E-1	3.679475E-1	3.980936E-1	4.493875E-1	4.153273E-1	3.528235E-1	3.909989E-1	3.781647E-1	4.287649E-1	3.745934E-1	3.679345E-1	4.027253E-1	4.121217E-1	3.708964E-1	3.797851E-1	3.842390E-1	3.882764E-1	3.451912E-1	3.689276E-1	3.944528E-1	4.006298E-1	4.200959E-1	3.635115E-1	3.891885E-1	3.667981E-1	3.776240E-1	3.686701E-1	4.176871E-1	4.323886E-1	3.951742E-1	3.618603E-1	3.654516E-1	4.122426E-1	4.601694E-1	4.286500E-1	3.685229E-1	4.302619E-1	3.711716E-1	4.068142E-1	3.993708E-1	3.666906E-1	3.743188E-1	3.901532E-1	3.764172E-1	3.491407E-1	3.838603E-1	4.570366E-1
5.415090E+2	3.635652E-1	3.380529E-1	3.103483E-1	3.454827E-1	3.567814E-1	3.557811E-1	3.451167E-1	3.012140E-1	3.694673E-1	3.388746E-1	3.792881E-1	3.159618E-1	3.207604E-1	3.528026E-1	3.254338E-1	3.482830E-1	3.385495E-1	3.179760E-1	3.708024E-1	3.141798E-1	3.302793E-1	3.336778E-1	3.406165E-1	3.629945E-1	3.390903E-1	3.611460E-1	3.346857E-1	3.381703E-1	3.230069E-1	3.257171E-1	3.571527E-1	3.207495E-1	3.735444E-1	3.495490E-1	3.561334E-1	3.368819E-1	3.450436E-1	3.327403E-1	3.743690E-1	3.619843E-1	3.306149E-1	3.020722E-1	3.465425E-1	3.548239E-1	3.545436E-1	3.468722E-1	3.824661E-1	3.229357E-1	3.477851E-1	3.845008E-1	3.524414E-1	3.652634E-1	3.345929E-1	3.512279E-1	3.832873E-1	3.513291E-1	3.256146E-1	3.303206E-1	3.700798E-1	2.966182E-1	3.157155E-1	3.398772E-1	3.195054E-1	3.405393E-1	3.610866E-1	3.312449E-1	3.693398E-1	3.617786E-1	3.340827E-1	3.112190E-1	3.276176E-1	3.367094E-1	3.686132E-1	3.019241E-1	3.839250E-1	3.117235E-1	3.564102E-1	3.088100E-1	3.257035E-1	3.526893E-1	3.064019E-1	3.513277E-1	2.936128E-1	3.487093E-1	3.393707E-1	3.180436E-1	2.706713E-1	3.084869E-1	3.839315E-1	3.305281E-1	3.801704E-1	3.518348E-1	3.877439E-1	3.356506E-1	3.632205E-1	3.407595E-1	3.625938E-1	3.685525E-1	3.529140E-1	3.338228E-1	3.196661E-1	3.514405E-1	3.570430E-1	3.320739E-1	3.428652E-1	3.154647E-1	3.649278E-1	3.471832E-1	3.769108E-1	3.482366E-1	3.275829E-1	3.077260E-1	3.170001E-1	3.019836E-1	3.548756E-1	3.533944E-1	3.593516E-1	3.246225E-1	3.633478E-1	3.534505E-1	3.462836E-1	3.043002E-1	3.070807E-1	3.230968E-1	3.231583E-1	3.610251E-1	3.613359E-1	3.097820E-1	3.625897E-1	3.363500E-1	2.824480E-1	3.218559E-1	3.389632E-1	3.435142E-1	3.108909E-1	3.034015E-1	3.443186E-1	3.241480E-1	3.768562E-1	3.672545E-1	3.576855E-1	3.840406E-1	3.355587E-1	3.127045E-1	3.274367E-1	3.519389E-1	2.998268E-1	3.328060E-1	3.903595E-1	3.183587E-1	3.303252E-1	3.338691E-1	3.782979E-1	3.932051E-1	3.159015E-1	3.086986E-1	3.119873E-1	3.327446E-1	3.689864E-1	3.480261E-1	3.285174E-1	3.608959E-1	3.640790E-1	3.620605E-1	2.467396E-1	5.344523E-1
5.420110E+2	4.617612E-1	4.694621E-1	5.038345E-1	5.785835E-1	4.917570E-1	4.918130E-1	5.110225E-1	5.033645E-1	4.854071E-1	5.093410E-1	5.465343E-1	5.536070E-1	4.631013E-1	4.810461E-1	5.379283E-1	5.855991E-1	5.295157E-1	5.198797E-1	5.012891E-1	4.757474E-1	4.346012E-1	4.796951E-1	4.905915E-1	4.984325E-1	4.528872E-1	5.317569E-1	5.329914E-1	4.972404E-1	5.515006E-1	4.911618E-1	4.522711E-1	5.840342E-1	5.510690E-1	4.993619E-1	5.384011E-1	5.574795E-1	5.192425E-1	5.025673E-1	4.604440E-1	5.401409E-1	5.114471E-1	5.314535E-1	5.513915E-1	5.465494E-1	4.946388E-1	4.680962E-1	4.707479E-1	5.310075E-1	5.169571E-1	4.776207E-1	5.679430E-1	5.146953E-1	4.934885E-1	4.907171E-1	5.094253E-1	5.098380E-1	4.917738E-1	4.875555E-1	5.480920E-1	5.352671E-1	5.165357E-1	5.565132E-1	5.188513E-1	5.615056E-1	5.243438E-1	5.434982E-1	6.234624E-1	4.778612E-1	5.091664E-1	4.815926E-1	4.878993E-1	5.410460E-1	5.061000E-1	5.001570E-1	4.746712E-1	4.884107E-1	5.292692E-1	5.178429E-1	5.815381E-1	5.847599E-1	5.029641E-1	5.384008E-1	5.242380E-1	5.608070E-1	5.103765E-1	4.842650E-1	5.533184E-1	5.243946E-1	5.156901E-1	5.045698E-1	5.334320E-1	4.693780E-1	5.007484E-1	4.828728E-1	4.898565E-1	5.197793E-1	5.208517E-1	5.349890E-1	5.196224E-1	5.512523E-1	5.402198E-1	4.961419E-1	5.508246E-1	5.379361E-1	4.970197E-1	5.308215E-1	5.183851E-1	4.984921E-1	4.809003E-1	5.290302E-1	5.348852E-1	5.350325E-1	5.103688E-1	5.109384E-1	4.868033E-1	5.128723E-1	5.269482E-1	4.966942E-1	5.478473E-1	5.203646E-1	5.224302E-1	5.281186E-1	4.883189E-1	5.038990E-1	4.778470E-1	4.971617E-1	5.102534E-1	4.834298E-1	5.296544E-1	5.294270E-1	5.498179E-1	4.691634E-1	5.354425E-1	5.236123E-1	5.005187E-1	5.524043E-1	5.039499E-1	5.425429E-1	4.905272E-1	4.920747E-1	5.306563E-1	5.299111E-1	5.033888E-1	5.327128E-1	5.352408E-1	4.988539E-1	4.682248E-1	5.555459E-1	4.980279E-1	4.836592E-1	5.064092E-1	5.276190E-1	5.502521E-1	4.901079E-1	4.895728E-1	5.267379E-1	4.906345E-1	4.744659E-1	4.730540E-1	4.484637E-1	5.486132E-1	4.699791E-1	5.164073E-1	4.440825E-1	4.833179E-1	5.389780E-1
5.425140E+2	8.228926E-1	7.664065E-1	7.943999E-1	8.559287E-1	8.266377E-1	7.965810E-1	8.149009E-1	7.778215E-1	7.108672E-1	7.649302E-1	8.381337E-1	8.222424E-1	7.692090E-1	7.523208E-1	8.309314E-1	7.904480E-1	8.532483E-1	8.083152E-1	8.104188E-1	8.157305E-1	7.720329E-1	7.834298E-1	7.715529E-1	8.847405E-1	7.994569E-1	8.139338E-1	7.887172E-1	7.990391E-1	8.305416E-1	7.479407E-1	8.063165E-1	8.289048E-1	8.605787E-1	7.698300E-1	7.659298E-1	7.930651E-1	7.430961E-1	7.893443E-1	8.273931E-1	8.297869E-1	8.591931E-1	8.274694E-1	8.617670E-1	7.732781E-1	8.494160E-1	7.900391E-1	7.792878E-1	7.858944E-1	8.033860E-1	8.456487E-1	7.879627E-1	7.499027E-1	8.220958E-1	7.446371E-1	7.805943E-1	7.936627E-1	7.742855E-1	7.775741E-1	7.704442E-1	7.611083E-1	7.792246E-1	7.745044E-1	7.932738E-1	7.842578E-1	7.286501E-1	8.274232E-1	8.549325E-1	7.995090E-1	7.294649E-1	7.685848E-1	8.117832E-1	8.116787E-1	7.239516E-1	8.204076E-1	7.342246E-1	7.929865E-1	7.105016E-1	8.275831E-1	8.582628E-1	9.204779E-1	7.688625E-1	7.662343E-1	8.514212E-1	8.029137E-1	7.828168E-1	7.135478E-1	7.904084E-1	7.722668E-1	7.430398E-1	8.056650E-1	8.034363E-1	7.777107E-1	8.044137E-1	8.146187E-1	7.723774E-1	7.909122E-1	7.708822E-1	7.848662E-1	8.137675E-1	7.957674E-1	8.386712E-1	8.098211E-1	7.887490E-1	7.999907E-1	7.904791E-1	7.510183E-1	7.967200E-1	8.133113E-1	7.240616E-1	7.922467E-1	8.074754E-1	7.634225E-1	7.390497E-1	8.028949E-1	7.884688E-1	7.718283E-1	7.484083E-1	8.723584E-1	8.553177E-1	8.240183E-1	7.882482E-1	8.776991E-1	7.650491E-1	8.296090E-1	8.359410E-1	7.656815E-1	7.321235E-1	7.504335E-1	8.017613E-1	8.442676E-1	7.851240E-1	8.290152E-1	7.362604E-1	7.790703E-1	8.367294E-1	7.304911E-1	8.199278E-1	8.078478E-1	8.387356E-1	7.456289E-1	8.765234E-1	7.486259E-1	8.327325E-1	7.734492E-1	8.390135E-1	7.928474E-1	7.778848E-1	7.795770E-1	7.800016E-1	7.684146E-1	8.186983E-1	8.643011E-1	8.473159E-1	8.016505E-1	7.607380E-1	7.578716E-1	7.956009E-1	7.827234E-1	7.665889E-1	8.227539E-1	7.688147E-1	8.007958E-1	7.867961E-1	7.662351E-1	7.593738E-1	7.993854E-1
5.430120E+2	1.147202E+0	1.145010E+0	1.159706E+0	1.023200E+0	1.129562E+0	1.129486E+0	1.179849E+0	1.140411E+0	1.151081E+0	1.182711E+0	1.152779E+0	1.111186E+0	1.165516E+0	1.138085E+0	1.211501E+0	1.196542E+0	1.183227E+0	1.172788E+0	1.153396E+0	1.159680E+0	1.114028E+0	1.119222E+0	1.110012E+0	1.185984E+0	1.188115E+0	1.213676E+0	1.110020E+0	1.166380E+0	1.160862E+0	1.164594E+0	1.166128E+0	1.153582E+0	1.180754E+0	1.118684E+0	1.167002E+0	1.199094E+0	1.221656E+0	1.172176E+0	1.088751E+0	1.164707E+0	1.163010E+0	1.178976E+0	1.235040E+0	1.148902E+0	1.252469E+0	1.169044E+0	1.118886E+0	1.208657E+0	1.090176E+0	1.155856E+0	1.084590E+0	1.170442E+0	1.199937E+0	1.143339E+0	1.125090E+0	1.101499E+0	1.142033E+0	1.129386E+0	1.142758E+0	1.142427E+0	1.128870E+0	1.157336E+0	1.090609E+0	1.291163E+0	1.106047E+0	1.132832E+0	1.135953E+0	1.134422E+0	1.199174E+0	1.145571E+0	1.135769E+0	1.182448E+0	1.215542E+0	1.147247E+0	1.099785E+0	1.097562E+0	1.137687E+0	1.184647E+0	1.125058E+0	1.115930E+0	1.204467E+0	1.087062E+0	1.181257E+0	1.163613E+0	1.152053E+0	1.172792E+0	1.129573E+0	1.102133E+0	1.135671E+0	1.132682E+0	1.118084E+0	1.114320E+0	1.287013E+0	1.110378E+0	1.207047E+0	1.159144E+0	1.182027E+0	1.166598E+0	1.190588E+0	1.071645E+0	1.120057E+0	1.135409E+0	1.142186E+0	1.245836E+0	1.149819E+0	1.103189E+0	1.137982E+0	1.186565E+0	1.118868E+0	1.206553E+0	1.186609E+0	1.147629E+0	1.060934E+0	1.088399E+0	1.162123E+0	1.125230E+0	1.075051E+0	1.182425E+0	1.135214E+0	1.168948E+0	1.087794E+0	1.122040E+0	1.226255E+0	1.167872E+0	1.133265E+0	1.142975E+0	1.190571E+0	1.184767E+0	1.154937E+0	1.087915E+0	1.133563E+0	1.198483E+0	1.154822E+0	1.154601E+0	1.148697E+0	1.068940E+0	1.179945E+0	1.166035E+0	1.108816E+0	1.185963E+0	1.142035E+0	1.109913E+0	1.171379E+0	1.166614E+0	1.042731E+0	1.191992E+0	1.159092E+0	1.191919E+0	1.153394E+0	1.151990E+0	1.179244E+0	1.146868E+0	1.195342E+0	1.123048E+0	1.172478E+0	1.067849E+0	1.248555E+0	1.162818E+0	1.195266E+0	1.173364E+0	1.108048E+0	1.200997E+0	1.191138E+0	1.080033E+0	1.142313E+0	1.163444E+0
5.435330E+2	1.201781E+0	1.178930E+0	1.208127E+0	1.224368E+0	1.223673E+0	1.231895E+0	1.230091E+0	1.141662E+0	1.259241E+0	1.218181E+0	1.187798E+0	1.156286E+0	1.188925E+0	1.238246E+0	1.214195E+0	1.201417E+0	1.271878E+0	1.192027E+0	1.219937E+0	1.255776E+0	1.214487E+0	1.208629E+0	1.228896E+0	1.224405E+0	1.258833E+0	1.230567E+0	1.255736E+0	1.231859E+0	1.278271E+0	1.275936E+0	1.186856E+0	1.180512E+0	1.240222E+0	1.237484E+0	1.228218E+0	1.221026E+0	1.162912E+0	1.096287E+0	1.251820E+0	1.210727E+0	1.233069E+0	1.174822E+0	1.261387E+0	1.218942E+0	1.237670E+0	1.213242E+0	1.131818E+0	1.219406E+0	1.151503E+0	1.215084E+0	1.246606E+0	1.155167E+0	1.226953E+0	1.192363E+0	1.227581E+0	1.181446E+0	1.187051E+0	1.192889E+0	1.161430E+0	1.153645E+0	1.235417E+0	1.206473E+0	1.127859E+0	1.213142E+0	1.163377E+0	1.188253E+0	1.204999E+0	1.125141E+0	1.194495E+0	1.193117E+0	1.243134E+0	1.147434E+0	1.163235E+0	1.188006E+0	1.180916E+0	1.302890E+0	1.233011E+0	1.206015E+0	1.227720E+0	1.202160E+0	1.218106E+0	1.191481E+0	1.133830E+0	1.195586E+0	1.207997E+0	1.116114E+0	1.262540E+0	1.188638E+0	1.246481E+0	1.154784E+0	1.231843E+0	1.149426E+0	1.196057E+0	1.214057E+0	1.209491E+0	1.190176E+0	1.266181E+0	1.155248E+0	1.219933E+0	1.169293E+0	1.152528E+0	1.147016E+0	1.130153E+0	1.197911E+0	1.149132E+0	1.182251E+0	1.226318E+0	1.160006E+0	1.181051E+0	1.229553E+0	1.168919E+0	1.142221E+0	1.119262E+0	1.113941E+0	1.116738E+0	1.205209E+0	1.233071E+0	1.270605E+0	1.153427E+0	1.230215E+0	1.211201E+0	1.263839E+0	1.234020E+0	1.243791E+0	1.180128E+0	1.160062E+0	1.184391E+0	1.182718E+0	1.151795E+0	1.141123E+0	1.198394E+0	1.249404E+0	1.156113E+0	1.192617E+0	1.141614E+0	1.264060E+0	1.235978E+0	1.144650E+0	1.142038E+0	1.252137E+0	1.221494E+0	1.216846E+0	1.138954E+0	1.149514E+0	1.148529E+0	1.211544E+0	1.220238E+0	1.210994E+0	1.186278E+0	1.192375E+0	1.152021E+0	1.160549E+0	1.269444E+0	1.225429E+0	1.163227E+0	1.185484E+0	1.180350E+0	1.245901E+0	1.132429E+0	1.223094E+0	1.120972E+0	1.228711E+0	1.189151E+0	1.160134E+0	1.164924E+0	1.213869E+0
5.440170E+2	9.775457E-1	1.036146E+0	1.017972E+0	1.118846E+0	1.049986E+0	1.127617E+0	1.063734E+0	1.042493E+0	1.030415E+0	1.099710E+0	1.150334E+0	1.056618E+0	1.042451E+0	1.049768E+0	1.066775E+0	1.075381E+0	1.124494E+0	1.004771E+0	1.079134E+0	1.171829E+0	1.054921E+0	1.009265E+0	1.080941E+0	1.063012E+0	1.071996E+0	1.084455E+0	1.073894E+0	1.087221E+0	1.103534E+0	1.045534E+0	1.061437E+0	1.121319E+0	1.163503E+0	1.108815E+0	1.045032E+0	1.082836E+0	1.074028E+0	1.077944E+0	1.018627E+0	1.059873E+0	1.059867E+0	1.122309E+0	1.073090E+0	1.059616E+0	1.016291E+0	1.107855E+0	1.080482E+0	1.081031E+0	1.089995E+0	1.024941E+0	1.042811E+0	1.109137E+0	1.172524E+0	1.087078E+0	1.075228E+0	1.052625E+0	1.025232E+0	1.101422E+0	1.132117E+0	1.040699E+0	1.084352E+0	1.091033E+0	1.021727E+0	1.033132E+0	1.021517E+0	1.033991E+0	1.001543E+0	1.058940E+0	1.017384E+0	1.110593E+0	1.019557E+0	1.044680E+0	1.094437E+0	1.061950E+0	9.637936E-1	1.096165E+0	1.042082E+0	1.074654E+0	1.133509E+0	1.084997E+0	1.061923E+0	1.024111E+0	1.038507E+0	1.035314E+0	1.121705E+0	1.037484E+0	1.016488E+0	1.114416E+0	1.127951E+0	1.093920E+0	1.011093E+0	1.130369E+0	1.074964E+0	1.028350E+0	1.129683E+0	1.082587E+0	1.026101E+0	1.036716E+0	1.034562E+0	1.086609E+0	1.071293E+0	1.093648E+0	1.040559E+0	1.042661E+0	1.068336E+0	1.026651E+0	1.083987E+0	1.096293E+0	1.009651E+0	1.097391E+0	1.116858E+0	1.091141E+0	1.025468E+0	1.082688E+0	1.057210E+0	1.138553E+0	1.035305E+0	1.081944E+0	1.022579E+0	1.167649E+0	1.031658E+0	1.023338E+0	1.108782E+0	1.045161E+0	1.072040E+0	1.076717E+0	9.832926E-1	1.066931E+0	1.051651E+0	9.896282E-1	1.107489E+0	1.062292E+0	1.097495E+0	1.093457E+0	1.137871E+0	1.068190E+0	1.030880E+0	9.900310E-1	1.018880E+0	1.111755E+0	1.023491E+0	1.018129E+0	1.105339E+0	1.039196E+0	9.751333E-1	1.103263E+0	1.126016E+0	1.096708E+0	1.008065E+0	1.035512E+0	1.025263E+0	1.038211E+0	1.088845E+0	1.103325E+0	1.036478E+0	1.044267E+0	1.007330E+0	1.122490E+0	1.030305E+0	1.067771E+0	1.084573E+0	1.055933E+0	1.055782E+0	9.742183E-1	1.067039E+0	1.042905E+0
5.445070E+2	8.835702E-1	9.001769E-1	8.844766E-1	8.453992E-1	9.452623E-1	8.762979E-1	8.363122E-1	9.322508E-1	9.086703E-1	9.489515E-1	9.201481E-1	9.306960E-1	8.837273E-1	9.806714E-1	9.219352E-1	9.268158E-1	9.599051E-1	8.783913E-1	8.986048E-1	9.047113E-1	9.327296E-1	8.732042E-1	8.816645E-1	9.707998E-1	8.891375E-1	8.975418E-1	9.549922E-1	9.303680E-1	9.251149E-1	8.911559E-1	9.072633E-1	9.085855E-1	8.973933E-1	9.527432E-1	9.016848E-1	9.336115E-1	9.070865E-1	8.424690E-1	9.008281E-1	8.967671E-1	9.173683E-1	9.193388E-1	9.461637E-1	9.089933E-1	8.769041E-1	8.722160E-1	9.109137E-1	9.909573E-1	8.690692E-1	8.988130E-1	8.668225E-1	9.968386E-1	9.365350E-1	9.624280E-1	9.227699E-1	9.185720E-1	9.135521E-1	9.134481E-1	8.462858E-1	8.807766E-1	8.886153E-1	9.008446E-1	8.512176E-1	9.668968E-1	9.270506E-1	9.296885E-1	8.944076E-1	8.919333E-1	8.578173E-1	9.085055E-1	8.843966E-1	8.897244E-1	8.467394E-1	9.234514E-1	8.819323E-1	8.946358E-1	8.342701E-1	9.131433E-1	9.521029E-1	8.845603E-1	9.641153E-1	9.440083E-1	9.775802E-1	8.519894E-1	9.150462E-1	8.959125E-1	9.132260E-1	9.433703E-1	9.016501E-1	9.491955E-1	8.477629E-1	8.484575E-1	9.590554E-1	9.188261E-1	9.243799E-1	9.202146E-1	8.575163E-1	9.134428E-1	9.512832E-1	9.303918E-1	9.089513E-1	9.306675E-1	9.213702E-1	9.392774E-1	9.649035E-1	9.275431E-1	9.092518E-1	9.060505E-1	8.898465E-1	8.736803E-1	8.833870E-1	8.986087E-1	9.010394E-1	9.005916E-1	8.836653E-1	9.488057E-1	9.668989E-1	9.550295E-1	9.070484E-1	9.365606E-1	9.039984E-1	8.688404E-1	9.970259E-1	9.295284E-1	9.680863E-1	9.537588E-1	8.709037E-1	9.694306E-1	8.684692E-1	9.128596E-1	9.341682E-1	8.870687E-1	8.408460E-1	9.106930E-1	9.323462E-1	9.171187E-1	9.986686E-1	8.431239E-1	8.768703E-1	9.745530E-1	9.532385E-1	9.085831E-1	9.172187E-1	8.814702E-1	9.787825E-1	9.400860E-1	9.521040E-1	8.720469E-1	9.242178E-1	8.984668E-1	8.835744E-1	9.221683E-1	9.888957E-1	8.818676E-1	9.319270E-1	8.899819E-1	8.564965E-1	8.810476E-1	9.389115E-1	9.725931E-1	8.847716E-1	8.821012E-1	9.465176E-1	9.614159E-1	8.761864E-1	9.352062E-1
5.450090E+2	8.595941E-1	9.608856E-1	9.460036E-1	8.818663E-1	8.734251E-1	9.082174E-1	9.276554E-1	8.799271E-1	9.011085E-1	8.911924E-1	9.484627E-1	8.826534E-1	9.225049E-1	9.191136E-1	9.905981E-1	9.115932E-1	9.506976E-1	8.803615E-1	8.349387E-1	8.969430E-1	9.047441E-1	8.302581E-1	8.392618E-1	9.001698E-1	9.139351E-1	8.456340E-1	9.199954E-1	8.931256E-1	9.292506E-1	9.237980E-1	9.793085E-1	8.334225E-1	9.933472E-1	9.160183E-1	9.656510E-1	8.523459E-1	8.474850E-1	8.607766E-1	9.322780E-1	8.885628E-1	9.353188E-1	8.826641E-1	9.240247E-1	8.498459E-1	8.954956E-1	9.369957E-1	9.541567E-1	8.914093E-1	8.354823E-1	9.385011E-1	9.295036E-1	9.038814E-1	9.643394E-1	9.082983E-1	9.229279E-1	8.705956E-1	8.577551E-1	9.982669E-1	9.753673E-1	9.269059E-1	9.086191E-1	8.855819E-1	8.693043E-1	9.549634E-1	8.731099E-1	8.583437E-1	8.787033E-1	8.951773E-1	8.513991E-1	9.229106E-1	9.038903E-1	9.448632E-1	9.111515E-1	9.224400E-1	9.041702E-1	9.030589E-1	9.322488E-1	9.253612E-1	8.886342E-1	9.358092E-1	9.532381E-1	8.732067E-1	9.278097E-1	8.489566E-1	8.672671E-1	9.154251E-1	8.726880E-1	9.149566E-1	9.344031E-1	8.987055E-1	9.047951E-1	9.519430E-1	9.776298E-1	8.924344E-1	8.272106E-1	9.885805E-1	8.500682E-1	9.267753E-1	9.705175E-1	8.742412E-1	8.564595E-1	9.130856E-1	8.710080E-1	9.220594E-1	8.869939E-1	8.949850E-1	9.163442E-1	8.646633E-1	8.213858E-1	8.674523E-1	9.062734E-1	9.274840E-1	9.159121E-1	9.214252E-1	9.073644E-1	1.002170E+0	9.429336E-1	8.919646E-1	9.182819E-1	9.090486E-1	8.899211E-1	8.833397E-1	9.457180E-1	9.796714E-1	9.454860E-1	8.700311E-1	8.996333E-1	8.553460E-1	8.709408E-1	9.056003E-1	9.627192E-1	9.275934E-1	9.285350E-1	8.551507E-1	9.237758E-1	9.126533E-1	9.211569E-1	9.256233E-1	9.678586E-1	9.117778E-1	8.897198E-1	8.945809E-1	8.795570E-1	8.928282E-1	8.977056E-1	9.382666E-1	9.299540E-1	9.803288E-1	8.882584E-1	8.799570E-1	8.750323E-1	9.216824E-1	9.377423E-1	9.239436E-1	8.975092E-1	9.231571E-1	9.027154E-1	8.869980E-1	8.985509E-1	8.886628E-1	9.014772E-1	8.408862E-1	9.409925E-1	8.620442E-1	8.684447E-1	1.018783E+0
5.455070E+2	1.053424E+0	1.022648E+0	1.004269E+0	1.025953E+0	1.055917E+0	1.088535E+0	1.111517E+0	1.102314E+0	1.092102E+0	1.035683E+0	1.110704E+0	1.014232E+0	1.110604E+0	1.012323E+0	1.102046E+0	1.017277E+0	1.104194E+0	1.018151E+0	1.080953E+0	1.015042E+0	1.065605E+0	1.015163E+0	1.029648E+0	1.042321E+0	1.025798E+0	1.058879E+0	1.057267E+0	1.017342E+0	1.147016E+0	1.043979E+0	1.034126E+0	1.075317E+0	1.002931E+0	1.094274E+0	1.122591E+0	1.111099E+0	1.029278E+0	1.058620E+0	1.034290E+0	1.020710E+0	1.157011E+0	1.078414E+0	1.058859E+0	1.046816E+0	1.054392E+0	1.089026E+0	1.049792E+0	1.107282E+0	1.037687E+0	1.031302E+0	1.031122E+0	1.023451E+0	1.011716E+0	1.052984E+0	9.984177E-1	1.012104E+0	1.055766E+0	1.100132E+0	1.059387E+0	1.086910E+0	1.031035E+0	1.047230E+0	1.029797E+0	1.061780E+0	1.008470E+0	1.013545E+0	1.056081E+0	9.692886E-1	9.884353E-1	1.042554E+0	9.873080E-1	1.034238E+0	1.041785E+0	1.092681E+0	1.010943E+0	1.092503E+0	1.050426E+0	1.008344E+0	1.102063E+0	1.002850E+0	1.002927E+0	1.035767E+0	9.996701E-1	1.054413E+0	1.029011E+0	9.852218E-1	1.022628E+0	1.009227E+0	1.030285E+0	9.929480E-1	9.881972E-1	1.074227E+0	1.135523E+0	9.959163E-1	1.029047E+0	1.047869E+0	1.043499E+0	1.103111E+0	1.055935E+0	1.082715E+0	1.025519E+0	1.019732E+0	9.925067E-1	1.101992E+0	1.081410E+0	1.077718E+0	1.030909E+0	1.133207E+0	1.043692E+0	1.113572E+0	1.080570E+0	1.135308E+0	1.047700E+0	1.092512E+0	9.908606E-1	1.102650E+0	1.007209E+0	1.077803E+0	9.940314E-1	1.133876E+0	1.021445E+0	1.017151E+0	9.933501E-1	1.118829E+0	1.086558E+0	9.913590E-1	1.085694E+0	1.052464E+0	1.072960E+0	1.074370E+0	1.026781E+0	1.057858E+0	1.014121E+0	1.043635E+0	1.098746E+0	1.049157E+0	1.049010E+0	1.037812E+0	9.785439E-1	1.021473E+0	1.036625E+0	1.015094E+0	1.003008E+0	1.093964E+0	1.079808E+0	1.047276E+0	9.842025E-1	1.073005E+0	1.083527E+0	9.629199E-1	1.040924E+0	1.075818E+0	1.074592E+0	9.906148E-1	9.867924E-1	1.034130E+0	1.123282E+0	1.096466E+0	9.870241E-1	1.118949E+0	9.673606E-1	1.080199E+0	1.083552E+0	9.910860E-1	1.140727E+0	1.045368E+0
5.460000E+2	1.175626E+0	1.209887E+0	1.135904E+0	1.130806E+0	1.205821E+0	1.186013E+0	1.230751E+0	1.114316E+0	1.184059E+0	1.130289E+0	1.211739E+0	1.142785E+0	1.167668E+0	1.183504E+0	1.183136E+0	1.101886E+0	1.135391E+0	1.115576E+0	1.167672E+0	1.157833E+0	1.178441E+0	1.219676E+0	1.234296E+0	1.173040E+0	1.122208E+0	1.170293E+0	1.245047E+0	1.128058E+0	1.187201E+0	1.204193E+0	1.178599E+0	1.173458E+0	1.167751E+0	1.211031E+0	1.177758E+0	1.217623E+0	1.198144E+0	1.113561E+0	1.130056E+0	1.131151E+0	1.187386E+0	1.148122E+0	1.142609E+0	1.121145E+0	1.156087E+0	1.173062E+0	1.139466E+0	1.169548E+0	1.132303E+0	1.227840E+0	1.209135E+0	1.146097E+0	1.130655E+0	1.266278E+0	1.149785E+0	1.144661E+0	1.143755E+0	1.221421E+0	1.161825E+0	1.185093E+0	1.142297E+0	1.136719E+0	1.140332E+0	1.183472E+0	1.230426E+0	1.154808E+0	1.149589E+0	1.111741E+0	1.092702E+0	1.173485E+0	1.129670E+0	1.186061E+0	1.159412E+0	1.130104E+0	1.126119E+0	1.117030E+0	1.162552E+0	1.152933E+0	1.122681E+0	1.169196E+0	1.222089E+0	1.108069E+0	1.079805E+0	1.124016E+0	1.127838E+0	1.107910E+0	1.077222E+0	1.117729E+0	1.251573E+0	1.197100E+0	1.082383E+0	1.180450E+0	1.197111E+0	1.150641E+0	1.144350E+0	1.188722E+0	1.164729E+0	1.133758E+0	1.159211E+0	1.229352E+0	1.100922E+0	1.196499E+0	1.126997E+0	1.155795E+0	1.097063E+0	1.168914E+0	1.137849E+0	1.167516E+0	1.099897E+0	1.189776E+0	1.177829E+0	1.153732E+0	1.185253E+0	1.131667E+0	1.163858E+0	1.174292E+0	1.107440E+0	1.223563E+0	1.128600E+0	1.172753E+0	1.122488E+0	1.152056E+0	1.168793E+0	1.181644E+0	1.162026E+0	1.152843E+0	1.103412E+0	1.132534E+0	1.100669E+0	1.038516E+0	1.207430E+0	1.154464E+0	1.202066E+0	1.137717E+0	1.146094E+0	1.134991E+0	1.127250E+0	1.153461E+0	1.178746E+0	1.152094E+0	1.137757E+0	1.115101E+0	1.117261E+0	1.133434E+0	1.130856E+0	1.072662E+0	1.163276E+0	1.207584E+0	1.081637E+0	1.165600E+0	1.141670E+0	1.140314E+0	1.169643E+0	1.137826E+0	1.091211E+0	1.135041E+0	1.103894E+0	1.198690E+0	1.142042E+0	1.166152E+0	1.153769E+0	1.151670E+0	1.196530E+0	1.214463E+0	1.064842E+0	1.184765E+0
5.465100E+2	1.040274E+0	1.031567E+0	1.024305E+0	9.951031E-1	1.039456E+0	1.031829E+0	1.030644E+0	9.977985E-1	1.067970E+0	1.022235E+0	1.055107E+0	1.051565E+0	1.099130E+0	9.916305E-1	1.031898E+0	1.066282E+0	1.150512E+0	9.903028E-1	1.024953E+0	1.074965E+0	1.067084E+0	1.016129E+0	9.810044E-1	1.012112E+0	1.011131E+0	1.007485E+0	1.147947E+0	9.774893E-1	1.061406E+0	1.045541E+0	1.032307E+0	1.061773E+0	9.979479E-1	1.032601E+0	1.012032E+0	1.040063E+0	1.039169E+0	9.980430E-1	1.051823E+0	1.042819E+0	1.041969E+0	1.086285E+0	9.948390E-1	1.047788E+0	1.060628E+0	1.078715E+0	1.029281E+0	1.060746E+0	1.017059E+0	1.086498E+0	1.064664E+0	1.035169E+0	1.075800E+0	1.040938E+0	1.069495E+0	1.012039E+0	1.023552E+0	1.052861E+0	1.039742E+0	9.511095E-1	1.121405E+0	1.047652E+0	9.851231E-1	1.113467E+0	1.098774E+0	1.032617E+0	1.091091E+0	1.063495E+0	1.001962E+0	1.101748E+0	1.055003E+0	1.047842E+0	1.024236E+0	1.008262E+0	9.797585E-1	9.663098E-1	1.105334E+0	9.882861E-1	1.006718E+0	1.061868E+0	1.051430E+0	1.044975E+0	1.005744E+0	9.852340E-1	1.075752E+0	1.063703E+0	9.867198E-1	9.983029E-1	1.080446E+0	1.053735E+0	9.939826E-1	1.023645E+0	1.084727E+0	9.986909E-1	1.092756E+0	1.091048E+0	1.019810E+0	1.009795E+0	1.024846E+0	1.041506E+0	9.932308E-1	9.910600E-1	1.044700E+0	1.062839E+0	1.118592E+0	1.005354E+0	1.054139E+0	1.068534E+0	1.065387E+0	1.099881E+0	1.096948E+0	9.733295E-1	1.031115E+0	9.886956E-1	1.012851E+0	1.043458E+0	1.009550E+0	1.075750E+0	1.024646E+0	1.056094E+0	1.054134E+0	1.045654E+0	1.082197E+0	1.014335E+0	1.131080E+0	1.019891E+0	1.077678E+0	1.044426E+0	1.028051E+0	1.061843E+0	1.084691E+0	1.003068E+0	1.061782E+0	1.033569E+0	1.022255E+0	9.810989E-1	1.087851E+0	1.009495E+0	1.031647E+0	1.061734E+0	1.006086E+0	1.018483E+0	1.084212E+0	1.036778E+0	1.028142E+0	1.065044E+0	1.071498E+0	1.062716E+0	1.008510E+0	1.070360E+0	1.013085E+0	1.017308E+0	1.097211E+0	1.055755E+0	1.063382E+0	9.994492E-1	9.965289E-1	1.059749E+0	1.035428E+0	1.058991E+0	9.654520E-1	9.795889E-1	1.101777E+0	1.009525E+0	9.971300E-1	1.267628E+0
5.470050E+2	9.186039E-1	9.046957E-1	9.193852E-1	9.686969E-1	9.388371E-1	8.967310E-1	9.871782E-1	9.227444E-1	9.450893E-1	8.801602E-1	1.003649E+0	8.921874E-1	9.427450E-1	8.932090E-1	9.746361E-1	9.087861E-1	9.266465E-1	9.452368E-1	9.649223E-1	9.719868E-1	8.983856E-1	9.118350E-1	9.345565E-1	9.853892E-1	9.043319E-1	9.561626E-1	9.349778E-1	9.204686E-1	9.834730E-1	9.515312E-1	9.590331E-1	9.713816E-1	9.715539E-1	9.308346E-1	9.568535E-1	9.537256E-1	9.408035E-1	9.172197E-1	9.518249E-1	9.446613E-1	9.405830E-1	8.640956E-1	1.006287E+0	9.854205E-1	9.825231E-1	9.379158E-1	9.929509E-1	9.108430E-1	8.846285E-1	8.817798E-1	9.517302E-1	8.965303E-1	9.564036E-1	9.557933E-1	9.452807E-1	8.798783E-1	9.779169E-1	9.409380E-1	9.391642E-1	9.346296E-1	9.260647E-1	9.328876E-1	9.724612E-1	8.788438E-1	9.183252E-1	1.014372E+0	9.334489E-1	9.181121E-1	8.691715E-1	1.004610E+0	9.026214E-1	9.089141E-1	9.296557E-1	9.846792E-1	9.336340E-1	9.272212E-1	9.844834E-1	9.243084E-1	9.601397E-1	9.399047E-1	8.866767E-1	9.611088E-1	1.030890E+0	9.290219E-1	9.706403E-1	9.199239E-1	9.001647E-1	9.319275E-1	9.597660E-1	9.167071E-1	9.104935E-1	9.290580E-1	9.441831E-1	9.322349E-1	9.352415E-1	9.415032E-1	9.756447E-1	9.123358E-1	9.605825E-1	9.134041E-1	9.363090E-1	9.494035E-1	9.406427E-1	9.688911E-1	9.887903E-1	1.020174E+0	9.657158E-1	9.274800E-1	9.120214E-1	9.526893E-1	9.768231E-1	8.640287E-1	9.665071E-1	9.078022E-1	9.588724E-1	9.302301E-1	9.675419E-1	9.637876E-1	9.436245E-1	9.852773E-1	9.798835E-1	9.662184E-1	9.671209E-1	9.035689E-1	9.126387E-1	9.372261E-1	9.128364E-1	8.952634E-1	9.552953E-1	9.528987E-1	9.742501E-1	9.229185E-1	8.746305E-1	9.587869E-1	9.249546E-1	9.641631E-1	9.637019E-1	8.836420E-1	9.375359E-1	9.684500E-1	9.443919E-1	9.248352E-1	9.097642E-1	9.330832E-1	9.390708E-1	9.281833E-1	9.823892E-1	9.961294E-1	9.019901E-1	9.135909E-1	9.168461E-1	1.005896E+0	1.031299E+0	9.933375E-1	9.067587E-1	9.332491E-1	9.385337E-1	9.847925E-1	9.589779E-1	1.005500E+0	8.883651E-1	9.341320E-1	9.241309E-1	8.276419E-1	9.856687E-1	9.922162E-1
5.475070E+2	8.584541E-1	9.109770E-1	9.049666E-1	8.975074E-1	8.241109E-1	9.363392E-1	9.001114E-1	8.549834E-1	9.132592E-1	8.477138E-1	9.048233E-1	8.844970E-1	9.232968E-1	8.939471E-1	8.875592E-1	8.387290E-1	9.060091E-1	8.969952E-1	8.917193E-1	9.154032E-1	9.476962E-1	8.629976E-1	9.160046E-1	9.185027E-1	8.809312E-1	9.241928E-1	9.260154E-1	8.816249E-1	9.222840E-1	8.637717E-1	9.066853E-1	9.528933E-1	9.118735E-1	9.110035E-1	8.845992E-1	8.450709E-1	8.849244E-1	8.917189E-1	9.385236E-1	9.212744E-1	9.388268E-1	9.560402E-1	9.402660E-1	9.045904E-1	9.303463E-1	9.343193E-1	9.745908E-1	8.725738E-1	8.450479E-1	8.557270E-1	9.187855E-1	8.881674E-1	9.060035E-1	9.281618E-1	9.096959E-1	8.705980E-1	8.967805E-1	9.266280E-1	8.900286E-1	9.438123E-1	9.001680E-1	8.771069E-1	8.369284E-1	9.068983E-1	8.982441E-1	8.723579E-1	9.428206E-1	9.215839E-1	8.667958E-1	9.145217E-1	9.032484E-1	8.697579E-1	8.251040E-1	9.221178E-1	8.751989E-1	8.852442E-1	8.481775E-1	9.484261E-1	8.320418E-1	8.374349E-1	9.080599E-1	9.019213E-1	9.573557E-1	8.846892E-1	9.423635E-1	8.747296E-1	8.659865E-1	8.997926E-1	9.049428E-1	8.626366E-1	9.000735E-1	8.782460E-1	8.710312E-1	8.135905E-1	8.841377E-1	9.283240E-1	8.813585E-1	8.453678E-1	9.503714E-1	9.015171E-1	9.280372E-1	9.589092E-1	8.825957E-1	8.759223E-1	9.007495E-1	8.956842E-1	9.034748E-1	9.376764E-1	9.152171E-1	8.956128E-1	9.069686E-1	8.791874E-1	8.870279E-1	8.467379E-1	9.418491E-1	8.383696E-1	9.153182E-1	8.938496E-1	8.444793E-1	9.279413E-1	9.399684E-1	8.879147E-1	9.220133E-1	9.249407E-1	9.147191E-1	8.849070E-1	8.789721E-1	8.980350E-1	9.495456E-1	9.147849E-1	8.625059E-1	9.052027E-1	8.746264E-1	9.618144E-1	9.495415E-1	8.980197E-1	8.570754E-1	9.483005E-1	8.424097E-1	9.430447E-1	1.002674E+0	8.776424E-1	8.928235E-1	8.490075E-1	9.042347E-1	9.870426E-1	8.888024E-1	9.279686E-1	9.129283E-1	8.713629E-1	9.015242E-1	8.758622E-1	9.775506E-1	8.888433E-1	9.326770E-1	8.631387E-1	9.102754E-1	9.399762E-1	8.890667E-1	9.448899E-1	9.499089E-1	8.662474E-1	8.521170E-1	8.609052E-1	8.637800E-1	9.566462E-1
5.480030E+2	9.785063E-1	1.084515E+0	1.065225E+0	1.051051E+0	1.071444E+0	1.101834E+0	1.034557E+0	1.040486E+0	1.039442E+0	1.049321E+0	1.122804E+0	1.048815E+0	1.014780E+0	1.040267E+0	1.052716E+0	9.840393E-1	1.041598E+0	9.901609E-1	1.101202E+0	1.154747E+0	1.107269E+0	1.063225E+0	1.031346E+0	1.032018E+0	1.096580E+0	1.079571E+0	1.075568E+0	1.065221E+0	1.063560E+0	1.098007E+0	1.072804E+0	1.004407E+0	1.132341E+0	1.101925E+0	1.089092E+0	1.075685E+0	1.076073E+0	1.040429E+0	1.062216E+0	1.088794E+0	1.121616E+0	1.024621E+0	1.122755E+0	1.094126E+0	1.079085E+0	1.085137E+0	1.070168E+0	1.029396E+0	1.098829E+0	1.082400E+0	1.095417E+0	1.072700E+0	1.034598E+0	1.053045E+0	9.813990E-1	9.933424E-1	1.021118E+0	1.094022E+0	1.113346E+0	1.092547E+0	1.097480E+0	1.046190E+0	1.072028E+0	1.110911E+0	1.083962E+0	1.097799E+0	1.098218E+0	1.063062E+0	1.005944E+0	1.019348E+0	9.512210E-1	1.072004E+0	1.055290E+0	1.097411E+0	9.911616E-1	1.034115E+0	1.083107E+0	1.118279E+0	1.009863E+0	1.074274E+0	1.140086E+0	1.091754E+0	1.036978E+0	1.038272E+0	1.084372E+0	1.043295E+0	1.037735E+0	1.077761E+0	1.097062E+0	1.053395E+0	1.096503E+0	1.088270E+0	1.074784E+0	1.037817E+0	1.034974E+0	1.110654E+0	9.995962E-1	1.102273E+0	1.138917E+0	1.025958E+0	1.046595E+0	1.054572E+0	1.018066E+0	1.041903E+0	1.057187E+0	1.078780E+0	1.076108E+0	1.101893E+0	1.116817E+0	1.090592E+0	1.090848E+0	1.039291E+0	1.102030E+0	1.119374E+0	1.052010E+0	1.126772E+0	9.775182E-1	1.070794E+0	1.077028E+0	1.127375E+0	1.045709E+0	1.079267E+0	1.078972E+0	1.151816E+0	1.054560E+0	1.061784E+0	1.033943E+0	1.036481E+0	1.091689E+0	1.062345E+0	1.121761E+0	1.033034E+0	1.092234E+0	1.106670E+0	1.010067E+0	1.019019E+0	1.035806E+0	1.135518E+0	1.018574E+0	1.072380E+0	1.105441E+0	1.046341E+0	1.085174E+0	1.035151E+0	1.124094E+0	1.045821E+0	1.087589E+0	1.075564E+0	1.124784E+0	1.053307E+0	1.055323E+0	1.072077E+0	1.063591E+0	1.108311E+0	1.058022E+0	1.044522E+0	1.083113E+0	1.094481E+0	1.060456E+0	1.038573E+0	1.079092E+0	1.023885E+0	1.022092E+0	9.157473E-1	1.096437E+0	1.177779E+0
5.485390E+2	1.442888E+0	1.538612E+0	1.395756E+0	1.505828E+0	1.529066E+0	1.463633E+0	1.474025E+0	1.528138E+0	1.454901E+0	1.371942E+0	1.473368E+0	1.483830E+0	1.526809E+0	1.576132E+0	1.532626E+0	1.516131E+0	1.548426E+0	1.402234E+0	1.407811E+0	1.470466E+0	1.406610E+0	1.434499E+0	1.499529E+0	1.487821E+0	1.471270E+0	1.465397E+0	1.476877E+0	1.446109E+0	1.541206E+0	1.404436E+0	1.532152E+0	1.502604E+0	1.500272E+0	1.571770E+0	1.556562E+0	1.562810E+0	1.492543E+0	1.441390E+0	1.474311E+0	1.415398E+0	1.501776E+0	1.488371E+0	1.530350E+0	1.537531E+0	1.495898E+0	1.540726E+0	1.568211E+0	1.475964E+0	1.405914E+0	1.571751E+0	1.507065E+0	1.513585E+0	1.520095E+0	1.463024E+0	1.458539E+0	1.401181E+0	1.439533E+0	1.488152E+0	1.527589E+0	1.477771E+0	1.536916E+0	1.475630E+0	1.430660E+0	1.539778E+0	1.426082E+0	1.492580E+0	1.509750E+0	1.572170E+0	1.476028E+0	1.517900E+0	1.471839E+0	1.540346E+0	1.457584E+0	1.527223E+0	1.460042E+0	1.430170E+0	1.408099E+0	1.514586E+0	1.484475E+0	1.488678E+0	1.478902E+0	1.528806E+0	1.485366E+0	1.493517E+0	1.429795E+0	1.580353E+0	1.538815E+0	1.487326E+0	1.568919E+0	1.548087E+0	1.436245E+0	1.489139E+0	1.551897E+0	1.524011E+0	1.561038E+0	1.499037E+0	1.419523E+0	1.475402E+0	1.462690E+0	1.463508E+0	1.478908E+0	1.553063E+0	1.424022E+0	1.572769E+0	1.475274E+0	1.430708E+0	1.529051E+0	1.424809E+0	1.570741E+0	1.477513E+0	1.489129E+0	1.522040E+0	1.517342E+0	1.504198E+0	1.540704E+0	1.445051E+0	1.583767E+0	1.510573E+0	1.526853E+0	1.509115E+0	1.445895E+0	1.436633E+0	1.524930E+0	1.432051E+0	1.422411E+0	1.475567E+0	1.460038E+0	1.478224E+0	1.433502E+0	1.508250E+0	1.490875E+0	1.584963E+0	1.502041E+0	1.555237E+0	1.451319E+0	1.465536E+0	1.471378E+0	1.457942E+0	1.460269E+0	1.458324E+0	1.569756E+0	1.553960E+0	1.537241E+0	1.498437E+0	1.500759E+0	1.549294E+0	1.489318E+0	1.551035E+0	1.387264E+0	1.448535E+0	1.488099E+0	1.491862E+0	1.605083E+0	1.458051E+0	1.435927E+0	1.377154E+0	1.478603E+0	1.459141E+0	1.530160E+0	1.515872E+0	1.460983E+0	1.508116E+0	1.505740E+0	1.336223E+0	1.489190E+0	1.777583E+0
5.490320E+2	1.607839E+0	1.568265E+0	1.509974E+0	1.600832E+0	1.675745E+0	1.658196E+0	1.658119E+0	1.631363E+0	1.675136E+0	1.658256E+0	1.678189E+0	1.586851E+0	1.607738E+0	1.659790E+0	1.728620E+0	1.643571E+0	1.632079E+0	1.523535E+0	1.600555E+0	1.723536E+0	1.542773E+0	1.590858E+0	1.583884E+0	1.646037E+0	1.539152E+0	1.675903E+0	1.609875E+0	1.609438E+0	1.624151E+0	1.669601E+0	1.666390E+0	1.608940E+0	1.681570E+0	1.643419E+0	1.649241E+0	1.682020E+0	1.622988E+0	1.584688E+0	1.604809E+0	1.621976E+0	1.706634E+0	1.674930E+0	1.699640E+0	1.595631E+0	1.615161E+0	1.647868E+0	1.671890E+0	1.658461E+0	1.629090E+0	1.591111E+0	1.610972E+0	1.664200E+0	1.669401E+0	1.702422E+0	1.701357E+0	1.570433E+0	1.631550E+0	1.659780E+0	1.615794E+0	1.601612E+0	1.687264E+0	1.640966E+0	1.540062E+0	1.678454E+0	1.641020E+0	1.576523E+0	1.659934E+0	1.650697E+0	1.556954E+0	1.605891E+0	1.666335E+0	1.546875E+0	1.555488E+0	1.609485E+0	1.629049E+0	1.632082E+0	1.561904E+0	1.599405E+0	1.593979E+0	1.613173E+0	1.706539E+0	1.595961E+0	1.665100E+0	1.521714E+0	1.637559E+0	1.637185E+0	1.602727E+0	1.668413E+0	1.633507E+0	1.693026E+0	1.554658E+0	1.625676E+0	1.547755E+0	1.588599E+0	1.592769E+0	1.612076E+0	1.599301E+0	1.597350E+0	1.656464E+0	1.623705E+0	1.608418E+0	1.667481E+0	1.558520E+0	1.583776E+0	1.700561E+0	1.642362E+0	1.653043E+0	1.576857E+0	1.626415E+0	1.664853E+0	1.660947E+0	1.575830E+0	1.568894E+0	1.579063E+0	1.595441E+0	1.567581E+0	1.565600E+0	1.697726E+0	1.569046E+0	1.717897E+0	1.566571E+0	1.648971E+0	1.574255E+0	1.645393E+0	1.684604E+0	1.608856E+0	1.611802E+0	1.580710E+0	1.564492E+0	1.556769E+0	1.560487E+0	1.607647E+0	1.566165E+0	1.608004E+0	1.596020E+0	1.641942E+0	1.617143E+0	1.576252E+0	1.550882E+0	1.574103E+0	1.608074E+0	1.654406E+0	1.625065E+0	1.606352E+0	1.598375E+0	1.635394E+0	1.578681E+0	1.519282E+0	1.553608E+0	1.576004E+0	1.535964E+0	1.634746E+0	1.573315E+0	1.586424E+0	1.624497E+0	1.648830E+0	1.617082E+0	1.695612E+0	1.596746E+0	1.589078E+0	1.663175E+0	1.615066E+0	1.687331E+0	1.488442E+0	1.681607E+0	1.787692E+0
5.495320E+2	1.315716E+0	1.325567E+0	1.430471E+0	1.284547E+0	1.402982E+0	1.360138E+0	1.431036E+0	1.329903E+0	1.395244E+0	1.343109E+0	1.459035E+0	1.387492E+0	1.401295E+0	1.360032E+0	1.489770E+0	1.344821E+0	1.389382E+0	1.372542E+0	1.385880E+0	1.377807E+0	1.342773E+0	1.334718E+0	1.291907E+0	1.375840E+0	1.443049E+0	1.432224E+0	1.513906E+0	1.368067E+0	1.401550E+0	1.339331E+0	1.310621E+0	1.393464E+0	1.496635E+0	1.354661E+0	1.421128E+0	1.391241E+0	1.401635E+0	1.339493E+0	1.373263E+0	1.412201E+0	1.404924E+0	1.360924E+0	1.433669E+0	1.364469E+0	1.467952E+0	1.375279E+0	1.421043E+0	1.443017E+0	1.355434E+0	1.334573E+0	1.363895E+0	1.476459E+0	1.345398E+0	1.412865E+0	1.377946E+0	1.332271E+0	1.347666E+0	1.390538E+0	1.366032E+0	1.369485E+0	1.315547E+0	1.329848E+0	1.464349E+0	1.356551E+0	1.368437E+0	1.388931E+0	1.448309E+0	1.383064E+0	1.306411E+0	1.329898E+0	1.350507E+0	1.339585E+0	1.325691E+0	1.415304E+0	1.309969E+0	1.392177E+0	1.346731E+0	1.408315E+0	1.382560E+0	1.406647E+0	1.393587E+0	1.302633E+0	1.365563E+0	1.335118E+0	1.336943E+0	1.317990E+0	1.449195E+0	1.299666E+0	1.379175E+0	1.355220E+0	1.228665E+0	1.350990E+0	1.386204E+0	1.395931E+0	1.393879E+0	1.427631E+0	1.441208E+0	1.407473E+0	1.400017E+0	1.436383E+0	1.419368E+0	1.328398E+0	1.306790E+0	1.392061E+0	1.359384E+0	1.373121E+0	1.296819E+0	1.405982E+0	1.392415E+0	1.376251E+0	1.422895E+0	1.401804E+0	1.356808E+0	1.368614E+0	1.369626E+0	1.388484E+0	1.333729E+0	1.332392E+0	1.351361E+0	1.401989E+0	1.331188E+0	1.400275E+0	1.357347E+0	1.425686E+0	1.384361E+0	1.385919E+0	1.364044E+0	1.281335E+0	1.268187E+0	1.341667E+0	1.459406E+0	1.362219E+0	1.409206E+0	1.345037E+0	1.370946E+0	1.377692E+0	1.409896E+0	1.448043E+0	1.321512E+0	1.422931E+0	1.409769E+0	1.274443E+0	1.381831E+0	1.374321E+0	1.325966E+0	1.399342E+0	1.466931E+0	1.373908E+0	1.309282E+0	1.368225E+0	1.337150E+0	1.393724E+0	1.436375E+0	1.376434E+0	1.268671E+0	1.343686E+0	1.361262E+0	1.415234E+0	1.319116E+0	1.269093E+0	1.291223E+0	1.444207E+0	1.333261E+0	1.306620E+0	1.373365E+0	1.319789E+0
5.500160E+2	1.161922E+0	1.247129E+0	1.215545E+0	1.170151E+0	1.258303E+0	1.191473E+0	1.290751E+0	1.198089E+0	1.219656E+0	1.211265E+0	1.294589E+0	1.228518E+0	1.256500E+0	1.244417E+0	1.259021E+0	1.288503E+0	1.332007E+0	1.249015E+0	1.176599E+0	1.182130E+0	1.227588E+0	1.145825E+0	1.093898E+0	1.240337E+0	1.206119E+0	1.246355E+0	1.278793E+0	1.206998E+0	1.205932E+0	1.230260E+0	1.226490E+0	1.183040E+0	1.233771E+0	1.316838E+0	1.240265E+0	1.268949E+0	1.228687E+0	1.162113E+0	1.181618E+0	1.304891E+0	1.204979E+0	1.252663E+0	1.276348E+0	1.188383E+0	1.253979E+0	1.178551E+0	1.215871E+0	1.256785E+0	1.204789E+0	1.297823E+0	1.261142E+0	1.179148E+0	1.244721E+0	1.257844E+0	1.202987E+0	1.240448E+0	1.190848E+0	1.344662E+0	1.230703E+0	1.166584E+0	1.222259E+0	1.273517E+0	1.211636E+0	1.210664E+0	1.213055E+0	1.241700E+0	1.231150E+0	1.254265E+0	1.177823E+0	1.280043E+0	1.240035E+0	1.204407E+0	1.116985E+0	1.284035E+0	1.195535E+0	1.225567E+0	1.181388E+0	1.279982E+0	1.266545E+0	1.236164E+0	1.218736E+0	1.187974E+0	1.262299E+0	1.081895E+0	1.167016E+0	1.172814E+0	1.254501E+0	1.219871E+0	1.201169E+0	1.265827E+0	1.250376E+0	1.292933E+0	1.214161E+0	1.229011E+0	1.287940E+0	1.292071E+0	1.174429E+0	1.259808E+0	1.302634E+0	1.239522E+0	1.258679E+0	1.237307E+0	1.222551E+0	1.176621E+0	1.186172E+0	1.229289E+0	1.217005E+0	1.239020E+0	1.249729E+0	1.294055E+0	1.315287E+0	1.167321E+0	1.209470E+0	1.230811E+0	1.292880E+0	1.225141E+0	1.213431E+0	1.228365E+0	1.193847E+0	1.256130E+0	1.207042E+0	1.255094E+0	1.278278E+0	1.275188E+0	1.232643E+0	1.261880E+0	1.194824E+0	1.211001E+0	1.261988E+0	1.209553E+0	1.247195E+0	1.279445E+0	1.188648E+0	1.234470E+0	1.263903E+0	1.181164E+0	1.262498E+0	1.127758E+0	1.239499E+0	1.163710E+0	1.217443E+0	1.274858E+0	1.195392E+0	1.191007E+0	1.216861E+0	1.226464E+0	1.199994E+0	1.217391E+0	1.287574E+0	1.217934E+0	1.227072E+0	1.252393E+0	1.143633E+0	1.310450E+0	1.228919E+0	1.253373E+0	1.282617E+0	1.322849E+0	1.205634E+0	1.241538E+0	1.233497E+0	1.176642E+0	1.236326E+0	1.189116E+0	1.180955E+0	1.158742E+0
5.504950E+2	1.550598E+0	1.465169E+0	1.505767E+0	1.513881E+0	1.554262E+0	1.494015E+0	1.572146E+0	1.501923E+0	1.482733E+0	1.478915E+0	1.566011E+0	1.494099E+0	1.517242E+0	1.458775E+0	1.519731E+0	1.423039E+0	1.582367E+0	1.394339E+0	1.528433E+0	1.645993E+0	1.419429E+0	1.493874E+0	1.529982E+0	1.550091E+0	1.504072E+0	1.632724E+0	1.612937E+0	1.562272E+0	1.523421E+0	1.538333E+0	1.572366E+0	1.621516E+0	1.435617E+0	1.568109E+0	1.499255E+0	1.483968E+0	1.551615E+0	1.455167E+0	1.477723E+0	1.594306E+0	1.526459E+0	1.573680E+0	1.550454E+0	1.520661E+0	1.547784E+0	1.536233E+0	1.523430E+0	1.466345E+0	1.439286E+0	1.532668E+0	1.522065E+0	1.442643E+0	1.384912E+0	1.479886E+0	1.467020E+0	1.439231E+0	1.464042E+0	1.499507E+0	1.478024E+0	1.485621E+0	1.584857E+0	1.474921E+0	1.476530E+0	1.567614E+0	1.461185E+0	1.582571E+0	1.456345E+0	1.479438E+0	1.459126E+0	1.428800E+0	1.579342E+0	1.540658E+0	1.531061E+0	1.560170E+0	1.509252E+0	1.494386E+0	1.359480E+0	1.505547E+0	1.603742E+0	1.450401E+0	1.569380E+0	1.551673E+0	1.612497E+0	1.529755E+0	1.539771E+0	1.494735E+0	1.448242E+0	1.468822E+0	1.459287E+0	1.480047E+0	1.406187E+0	1.499122E+0	1.466098E+0	1.507948E+0	1.521785E+0	1.557496E+0	1.491121E+0	1.582083E+0	1.506840E+0	1.465007E+0	1.526747E+0	1.552654E+0	1.524057E+0	1.405755E+0	1.528330E+0	1.453562E+0	1.484190E+0	1.462420E+0	1.503312E+0	1.528169E+0	1.555325E+0	1.468888E+0	1.529318E+0	1.520823E+0	1.545993E+0	1.610286E+0	1.492879E+0	1.565898E+0	1.503885E+0	1.443326E+0	1.496285E+0	1.541709E+0	1.486780E+0	1.572490E+0	1.475039E+0	1.494575E+0	1.570774E+0	1.389934E+0	1.444895E+0	1.491246E+0	1.527946E+0	1.473726E+0	1.505155E+0	1.481459E+0	1.585345E+0	1.533971E+0	1.441857E+0	1.523136E+0	1.437918E+0	1.422759E+0	1.501471E+0	1.505457E+0	1.550868E+0	1.481033E+0	1.478135E+0	1.546154E+0	1.586060E+0	1.614463E+0	1.534081E+0	1.467521E+0	1.468033E+0	1.587247E+0	1.514357E+0	1.566600E+0	1.454971E+0	1.444447E+0	1.444684E+0	1.557000E+0	1.468904E+0	1.481449E+0	1.422123E+0	1.530556E+0	1.496450E+0	1.363610E+0	1.386674E+0	1.485015E+0
5.510140E+2	1.709679E+0	1.804609E+0	1.734906E+0	1.698483E+0	1.896685E+0	1.630242E+0	1.812506E+0	1.725667E+0	1.817322E+0	1.796005E+0	1.850470E+0	1.726978E+0	1.766968E+0	1.785918E+0	1.777362E+0	1.674672E+0	1.793127E+0	1.664829E+0	1.816300E+0	1.785569E+0	1.742520E+0	1.757045E+0	1.756903E+0	1.774355E+0	1.769244E+0	1.761417E+0	1.716188E+0	1.734315E+0	1.730130E+0	1.852326E+0	1.793005E+0	1.802780E+0	1.776669E+0	1.770250E+0	1.827190E+0	1.758905E+0	1.760480E+0	1.768561E+0	1.800420E+0	1.816406E+0	1.706655E+0	1.762779E+0	1.783939E+0	1.776288E+0	1.790514E+0	1.788642E+0	1.880685E+0	1.806870E+0	1.655691E+0	1.764913E+0	1.758933E+0	1.671083E+0	1.738321E+0	1.806255E+0	1.686646E+0	1.731026E+0	1.724191E+0	1.767618E+0	1.835000E+0	1.759402E+0	1.810997E+0	1.747933E+0	1.739367E+0	1.800514E+0	1.602862E+0	1.810453E+0	1.724293E+0	1.788558E+0	1.660257E+0	1.728707E+0	1.726374E+0	1.760778E+0	1.682344E+0	1.777706E+0	1.816270E+0	1.733072E+0	1.702934E+0	1.759562E+0	1.734300E+0	1.783926E+0	1.677870E+0	1.719130E+0	1.803157E+0	1.678684E+0	1.760738E+0	1.693131E+0	1.742546E+0	1.679846E+0	1.840452E+0	1.808387E+0	1.717572E+0	1.764294E+0	1.726286E+0	1.710461E+0	1.806388E+0	1.795999E+0	1.699759E+0	1.673508E+0	1.769347E+0	1.712845E+0	1.760169E+0	1.892603E+0	1.714812E+0	1.803445E+0	1.771732E+0	1.795075E+0	1.687100E+0	1.655769E+0	1.755125E+0	1.718843E+0	1.806686E+0	1.696261E+0	1.724634E+0	1.784005E+0	1.727860E+0	1.796376E+0	1.739600E+0	1.803816E+0	1.778948E+0	1.769008E+0	1.743491E+0	1.828138E+0	1.806971E+0	1.732948E+0	1.732036E+0	1.734942E+0	1.825577E+0	1.730788E+0	1.717102E+0	1.739462E+0	1.688272E+0	1.799059E+0	1.619086E+0	1.691023E+0	1.750179E+0	1.722615E+0	1.817587E+0	1.653825E+0	1.681168E+0	1.701953E+0	1.672691E+0	1.831975E+0	1.675413E+0	1.740979E+0	1.689433E+0	1.802680E+0	1.813035E+0	1.777084E+0	1.766480E+0	1.720954E+0	1.730379E+0	1.781629E+0	1.842239E+0	1.719369E+0	1.685781E+0	1.769127E+0	1.768168E+0	1.784739E+0	1.700697E+0	1.762978E+0	1.647416E+0	1.754343E+0	1.695113E+0	1.652684E+0	1.579220E+0	1.865935E+0
5.514950E+2	1.487852E+0	1.421579E+0	1.472141E+0	1.484061E+0	1.484742E+0	1.417763E+0	1.529059E+0	1.576891E+0	1.531327E+0	1.368360E+0	1.559461E+0	1.421578E+0	1.540102E+0	1.527898E+0	1.493120E+0	1.438673E+0	1.464985E+0	1.452828E+0	1.421443E+0	1.524189E+0	1.454037E+0	1.493249E+0	1.555285E+0	1.511188E+0	1.460926E+0	1.490484E+0	1.531911E+0	1.491505E+0	1.565698E+0	1.493309E+0	1.463926E+0	1.591894E+0	1.509563E+0	1.531100E+0	1.571238E+0	1.467994E+0	1.398549E+0	1.480655E+0	1.512343E+0	1.472567E+0	1.510116E+0	1.514633E+0	1.441785E+0	1.403667E+0	1.521036E+0	1.549237E+0	1.505796E+0	1.512222E+0	1.529607E+0	1.473332E+0	1.453526E+0	1.478592E+0	1.488463E+0	1.430519E+0	1.499195E+0	1.431468E+0	1.583789E+0	1.549999E+0	1.632051E+0	1.457043E+0	1.533861E+0	1.466445E+0	1.467933E+0	1.570044E+0	1.467495E+0	1.553279E+0	1.467675E+0	1.423586E+0	1.429358E+0	1.496355E+0	1.423015E+0	1.581449E+0	1.425627E+0	1.474368E+0	1.442002E+0	1.376753E+0	1.470612E+0	1.447072E+0	1.458376E+0	1.464280E+0	1.605515E+0	1.368070E+0	1.430809E+0	1.457782E+0	1.561864E+0	1.474164E+0	1.503843E+0	1.466847E+0	1.527553E+0	1.508982E+0	1.451680E+0	1.427733E+0	1.469992E+0	1.460668E+0	1.586211E+0	1.550336E+0	1.457071E+0	1.489013E+0	1.591846E+0	1.520172E+0	1.472142E+0	1.543931E+0	1.505348E+0	1.437383E+0	1.585037E+0	1.559254E+0	1.519213E+0	1.503144E+0	1.395578E+0	1.461257E+0	1.597705E+0	1.482053E+0	1.492267E+0	1.501914E+0	1.603555E+0	1.534179E+0	1.475874E+0	1.492182E+0	1.486782E+0	1.521173E+0	1.505777E+0	1.474055E+0	1.516086E+0	1.542668E+0	1.466109E+0	1.501728E+0	1.505710E+0	1.421362E+0	1.464531E+0	1.540705E+0	1.455463E+0	1.524564E+0	1.478428E+0	1.510301E+0	1.512573E+0	1.474203E+0	1.577615E+0	1.492372E+0	1.445490E+0	1.492326E+0	1.477090E+0	1.451870E+0	1.433502E+0	1.507338E+0	1.464742E+0	1.579237E+0	1.487386E+0	1.469780E+0	1.461544E+0	1.455864E+0	1.468920E+0	1.536808E+0	1.549165E+0	1.446897E+0	1.500810E+0	1.458363E+0	1.536393E+0	1.527723E+0	1.501928E+0	1.574992E+0	1.469090E+0	1.494789E+0	1.479277E+0	1.391030E+0	1.596006E+0	1.427100E+0
5.520100E+2	1.070432E+0	1.063331E+0	1.078742E+0	1.139183E+0	1.060912E+0	1.221359E+0	1.212185E+0	1.070303E+0	1.088719E+0	1.165140E+0	1.148041E+0	1.144211E+0	1.100456E+0	1.154667E+0	1.185511E+0	1.148239E+0	1.120077E+0	1.224543E+0	1.102925E+0	1.147012E+0	1.110143E+0	1.143471E+0	9.792483E-1	1.136246E+0	1.071195E+0	1.115290E+0	1.189298E+0	1.178678E+0	1.187619E+0	1.057398E+0	1.092172E+0	1.132752E+0	1.051065E+0	1.140814E+0	1.134768E+0	1.082837E+0	1.118561E+0	1.095333E+0	1.122796E+0	1.078764E+0	1.155714E+0	1.084792E+0	1.174146E+0	1.116999E+0	1.054729E+0	1.100850E+0	1.140138E+0	1.153477E+0	1.043797E+0	1.051609E+0	1.134416E+0	1.168731E+0	1.089042E+0	1.141479E+0	1.100263E+0	1.127862E+0	1.126354E+0	1.199246E+0	1.097710E+0	1.101666E+0	1.131310E+0	1.087137E+0	1.165965E+0	1.111328E+0	1.125256E+0	1.099926E+0	1.130411E+0	1.090644E+0	1.125219E+0	1.083940E+0	1.053813E+0	1.163890E+0	1.070385E+0	1.109052E+0	1.167723E+0	1.101592E+0	1.067703E+0	1.093034E+0	1.105454E+0	1.195154E+0	1.135036E+0	1.098508E+0	1.131697E+0	1.093934E+0	1.058155E+0	1.177104E+0	1.143608E+0	1.058864E+0	1.115981E+0	1.090567E+0	1.092013E+0	1.099646E+0	1.107667E+0	1.028185E+0	1.117624E+0	1.124519E+0	1.129878E+0	1.069445E+0	1.192854E+0	1.038498E+0	1.110456E+0	1.147300E+0	1.083479E+0	1.093626E+0	1.121163E+0	1.063000E+0	1.143949E+0	1.062051E+0	1.120189E+0	1.036685E+0	1.166191E+0	1.164399E+0	1.123431E+0	9.948809E-1	1.112075E+0	1.121196E+0	1.134393E+0	1.173859E+0	1.152842E+0	1.197001E+0	1.128437E+0	1.131863E+0	1.223393E+0	1.140177E+0	1.173747E+0	1.067996E+0	1.160199E+0	1.134535E+0	1.102683E+0	1.102221E+0	1.136015E+0	1.155408E+0	1.046248E+0	1.030028E+0	1.172770E+0	1.051609E+0	1.087568E+0	1.170283E+0	1.126684E+0	1.089070E+0	1.069037E+0	1.100142E+0	1.182058E+0	1.101760E+0	1.134273E+0	1.115929E+0	1.109585E+0	1.085145E+0	1.081026E+0	1.138646E+0	1.116029E+0	1.201998E+0	1.168161E+0	1.077658E+0	1.144384E+0	1.063399E+0	1.126636E+0	1.187983E+0	1.123086E+0	1.226177E+0	1.166116E+0	1.060866E+0	1.114292E+0	1.133609E+0	9.966177E-1	1.146189E+0
5.525090E+2	8.524768E-1	9.349459E-1	8.686544E-1	8.567794E-1	9.279114E-1	8.675497E-1	8.789561E-1	8.958439E-1	9.117765E-1	9.466337E-1	9.002180E-1	9.060153E-1	9.137505E-1	8.954433E-1	9.167358E-1	8.904882E-1	9.097899E-1	8.778390E-1	9.457380E-1	9.431761E-1	8.419553E-1	8.219717E-1	9.184904E-1	8.989736E-1	8.730206E-1	9.029243E-1	8.823626E-1	8.339404E-1	9.277430E-1	8.519269E-1	8.874354E-1	9.373203E-1	8.861305E-1	8.990435E-1	9.246646E-1	9.040079E-1	8.695217E-1	9.219494E-1	8.858810E-1	9.393185E-1	8.817296E-1	8.740943E-1	8.847354E-1	9.048420E-1	8.643551E-1	9.256648E-1	9.573520E-1	9.134661E-1	8.141828E-1	8.686830E-1	8.537051E-1	9.132053E-1	8.856697E-1	9.025292E-1	9.516067E-1	8.796229E-1	8.409687E-1	9.032118E-1	8.733854E-1	9.061704E-1	8.484527E-1	8.944184E-1	8.925081E-1	9.172292E-1	8.899425E-1	8.643184E-1	8.649905E-1	8.568715E-1	9.121213E-1	8.667203E-1	8.565707E-1	8.299901E-1	8.557938E-1	9.280792E-1	8.460125E-1	9.146991E-1	8.437550E-1	8.770777E-1	8.750089E-1	9.228487E-1	9.010868E-1	8.044409E-1	9.456346E-1	9.585524E-1	8.759887E-1	8.320852E-1	9.117880E-1	8.752626E-1	8.563580E-1	9.385096E-1	8.688166E-1	8.468733E-1	9.087228E-1	9.401992E-1	8.696671E-1	8.604372E-1	9.172322E-1	8.872807E-1	9.521837E-1	9.414908E-1	8.857183E-1	9.140128E-1	8.760735E-1	8.659043E-1	9.323646E-1	8.652897E-1	9.210651E-1	8.751211E-1	8.812094E-1	8.705733E-1	9.125714E-1	9.319930E-1	8.993443E-1	8.841272E-1	8.914803E-1	8.909010E-1	8.903709E-1	9.321531E-1	9.252270E-1	9.725876E-1	8.816726E-1	9.255243E-1	8.966002E-1	8.963456E-1	9.014135E-1	9.020933E-1	9.596155E-1	8.960708E-1	8.721027E-1	9.140261E-1	8.994704E-1	9.161331E-1	9.104115E-1	8.696302E-1	9.324896E-1	8.779036E-1	9.284047E-1	8.574003E-1	8.380780E-1	8.900109E-1	9.237975E-1	8.749302E-1	9.038858E-1	8.820484E-1	8.811300E-1	9.074737E-1	9.037252E-1	9.488974E-1	9.036935E-1	9.192938E-1	8.886509E-1	9.199899E-1	9.211252E-1	8.933940E-1	8.293419E-1	7.783204E-1	9.287885E-1	9.014158E-1	8.922075E-1	8.799769E-1	8.843908E-1	8.939861E-1	8.907637E-1	9.430415E-1	7.590220E-1	9.573474E-1
5.530090E+2	9.035938E-1	8.569395E-1	8.462145E-1	8.826837E-1	8.617573E-1	9.431427E-1	8.756393E-1	8.370608E-1	8.776647E-1	8.635657E-1	8.952645E-1	8.511305E-1	8.492708E-1	8.402851E-1	9.183194E-1	8.477228E-1	8.757726E-1	8.570655E-1	8.649541E-1	9.115700E-1	8.768390E-1	8.555156E-1	8.771086E-1	8.534126E-1	8.076558E-1	9.022413E-1	8.941642E-1	8.690508E-1	9.538803E-1	8.850297E-1	9.352775E-1	9.377978E-1	9.427836E-1	8.932920E-1	8.976283E-1	8.771630E-1	8.572843E-1	8.734315E-1	8.810994E-1	9.893589E-1	8.888546E-1	8.894462E-1	8.880490E-1	8.862647E-1	8.478904E-1	9.210667E-1	9.446416E-1	8.802478E-1	8.482533E-1	8.561293E-1	9.462252E-1	8.658465E-1	8.665545E-1	9.004939E-1	8.811930E-1	8.712381E-1	9.395585E-1	8.682608E-1	8.905174E-1	8.752692E-1	9.145059E-1	8.758206E-1	8.941514E-1	9.297559E-1	7.964695E-1	9.409973E-1	8.986713E-1	8.753630E-1	8.404990E-1	9.026176E-1	8.444480E-1	8.595837E-1	8.670967E-1	8.663507E-1	8.193611E-1	8.196857E-1	8.389178E-1	8.856819E-1	8.836878E-1	8.501598E-1	8.496430E-1	8.849817E-1	8.557429E-1	8.548791E-1	9.094920E-1	8.997246E-1	8.626622E-1	8.362748E-1	8.625139E-1	8.589473E-1	8.063492E-1	8.874555E-1	8.535953E-1	8.746790E-1	8.501280E-1	8.631385E-1	8.459350E-1	9.151381E-1	8.976027E-1	8.940717E-1	8.604375E-1	8.976645E-1	8.520076E-1	8.686212E-1	8.431290E-1	8.396113E-1	8.521753E-1	7.871473E-1	8.202902E-1	8.752931E-1	8.804557E-1	9.034952E-1	8.810936E-1	8.486046E-1	9.276106E-1	8.874152E-1	9.316139E-1	8.998737E-1	8.475430E-1	8.703982E-1	8.503989E-1	8.227421E-1	9.412618E-1	9.038577E-1	8.955321E-1	8.912889E-1	8.334824E-1	8.704316E-1	7.723646E-1	8.542180E-1	8.407001E-1	9.116660E-1	8.751333E-1	8.826661E-1	9.071697E-1	8.443448E-1	8.066082E-1	8.914217E-1	8.808462E-1	8.937852E-1	9.176424E-1	9.230467E-1	8.093008E-1	8.652000E-1	8.770736E-1	8.870194E-1	9.378607E-1	8.974951E-1	8.227928E-1	9.238104E-1	8.537268E-1	8.613261E-1	8.898750E-1	8.591723E-1	8.663816E-1	8.217542E-1	8.309983E-1	9.226088E-1	9.399349E-1	9.085649E-1	8.504820E-1	8.531359E-1	9.138169E-1	9.398343E-1	7.520970E-1	8.273788E-1
5.534880E+2	9.630398E-1	9.464808E-1	9.825984E-1	1.026013E+0	1.090137E+0	1.021718E+0	1.042354E+0	9.975827E-1	1.008646E+0	1.035731E+0	9.910323E-1	9.732847E-1	9.498150E-1	1.033875E+0	1.083936E+0	9.444210E-1	1.015628E+0	9.855737E-1	9.643061E-1	1.034613E+0	9.609787E-1	1.001816E+0	1.024992E+0	1.024808E+0	9.943476E-1	1.079289E+0	1.079399E+0	1.065673E+0	1.062632E+0	9.887239E-1	1.015526E+0	1.018484E+0	1.011873E+0	1.043308E+0	1.099190E+0	1.041869E+0	1.052046E+0	9.952273E-1	9.869185E-1	9.892436E-1	9.751566E-1	1.005570E+0	1.093630E+0	9.544147E-1	9.825741E-1	9.372748E-1	9.264624E-1	1.039882E+0	1.030103E+0	1.002287E+0	1.084595E+0	1.014816E+0	1.010478E+0	1.096692E+0	9.841913E-1	1.016661E+0	9.958594E-1	1.028560E+0	1.007568E+0	1.032895E+0	1.176860E+0	9.975066E-1	1.006703E+0	1.052159E+0	1.006991E+0	1.010811E+0	1.048937E+0	9.691761E-1	9.562692E-1	1.027431E+0	1.052777E+0	1.007436E+0	9.477693E-1	1.053421E+0	1.085637E+0	9.942249E-1	1.007169E+0	1.020633E+0	1.002241E+0	9.331228E-1	1.023110E+0	9.584340E-1	9.563956E-1	1.007210E+0	1.027357E+0	9.778589E-1	1.000491E+0	9.980460E-1	9.739379E-1	9.868715E-1	9.499899E-1	9.779778E-1	1.102041E+0	1.052430E+0	1.089626E+0	9.829648E-1	9.751087E-1	9.756263E-1	1.010028E+0	1.073097E+0	1.060164E+0	9.635140E-1	9.705943E-1	1.049905E+0	9.983923E-1	1.131789E+0	1.027999E+0	1.003866E+0	1.021127E+0	1.078253E+0	1.108337E+0	1.038757E+0	9.911831E-1	1.008541E+0	1.122285E+0	9.772902E-1	9.964705E-1	1.067207E+0	9.731537E-1	1.038955E+0	1.063287E+0	1.068849E+0	1.014404E+0	1.007864E+0	9.550852E-1	9.546840E-1	1.055954E+0	1.026151E+0	9.157399E-1	9.536129E-1	1.014497E+0	9.688685E-1	9.957282E-1	1.085996E+0	1.009523E+0	1.011482E+0	1.038426E+0	1.009785E+0	9.813026E-1	1.050191E+0	1.046418E+0	1.038144E+0	1.027265E+0	9.970518E-1	9.960820E-1	9.809061E-1	9.601575E-1	9.722745E-1	1.031975E+0	1.033245E+0	1.007150E+0	9.093801E-1	1.070266E+0	9.633542E-1	1.001224E+0	1.026959E+0	1.016617E+0	1.019487E+0	1.052501E+0	1.006604E+0	9.942678E-1	9.508990E-1	1.005756E+0	9.549342E-1	1.151264E+0	1.018332E+0
5.540180E+2	1.063285E+0	1.134766E+0	1.044664E+0	1.187331E+0	1.149889E+0	1.194341E+0	1.138646E+0	1.123195E+0	1.195408E+0	1.143828E+0	1.274060E+0	1.190483E+0	1.153406E+0	1.060555E+0	1.197816E+0	1.073675E+0	1.233347E+0	1.132742E+0	1.174756E+0	1.254072E+0	1.106702E+0	1.105238E+0	1.134123E+0	1.140712E+0	1.184368E+0	1.200846E+0	1.226926E+0	1.140683E+0	1.195566E+0	1.112972E+0	1.107011E+0	1.207575E+0	1.125109E+0	1.172103E+0	1.142155E+0	1.157692E+0	1.159010E+0	1.065001E+0	1.123582E+0	1.082488E+0	1.209064E+0	1.117606E+0	1.140023E+0	1.137426E+0	1.187252E+0	1.166607E+0	1.111860E+0	1.146854E+0	1.076433E+0	1.194627E+0	1.145477E+0	1.159398E+0	1.119151E+0	1.140624E+0	1.168391E+0	1.141234E+0	1.147954E+0	1.224299E+0	1.144940E+0	1.107945E+0	1.152897E+0	1.142992E+0	1.164297E+0	1.158140E+0	1.173977E+0	1.218260E+0	1.172505E+0	1.148627E+0	1.129634E+0	1.118592E+0	1.175590E+0	1.165028E+0	1.084487E+0	1.190734E+0	1.136890E+0	1.193418E+0	1.146028E+0	1.138017E+0	1.153605E+0	1.139860E+0	1.241112E+0	1.121757E+0	1.116530E+0	1.093201E+0	1.106551E+0	1.131226E+0	1.098019E+0	1.089659E+0	1.130158E+0	1.140710E+0	1.207514E+0	1.128618E+0	1.147647E+0	1.145006E+0	1.109569E+0	1.149524E+0	1.148038E+0	1.124986E+0	1.255831E+0	1.099337E+0	1.180260E+0	1.122609E+0	1.191357E+0	1.145559E+0	1.140923E+0	1.157972E+0	1.165068E+0	1.165493E+0	1.119991E+0	1.205126E+0	1.086272E+0	1.179816E+0	1.093729E+0	1.048045E+0	1.139980E+0	1.262950E+0	1.218489E+0	1.166322E+0	1.118447E+0	1.175193E+0	1.201533E+0	1.108408E+0	1.168620E+0	1.143037E+0	1.150800E+0	1.154186E+0	1.083584E+0	1.167977E+0	1.117391E+0	1.134463E+0	1.070368E+0	1.075263E+0	1.155522E+0	1.155658E+0	1.103143E+0	1.113039E+0	1.125444E+0	1.181880E+0	1.185937E+0	1.104671E+0	1.156375E+0	1.117541E+0	1.127304E+0	1.194536E+0	1.124407E+0	1.175035E+0	1.142594E+0	1.235890E+0	1.166763E+0	1.113200E+0	1.093520E+0	1.161094E+0	1.163977E+0	1.133185E+0	1.149944E+0	1.112183E+0	1.129972E+0	1.182214E+0	1.146499E+0	1.137380E+0	1.092003E+0	1.124869E+0	1.145391E+0	1.198799E+0	1.119746E+0	1.049142E+0
5.550080E+2	1.034997E+0	9.421784E-1	1.009706E+0	1.018020E+0	1.122955E+0	1.071985E+0	1.109654E+0	1.013913E+0	1.058490E+0	1.035342E+0	1.058596E+0	1.102710E+0	1.057392E+0	1.070660E+0	1.038354E+0	1.029966E+0	9.956979E-1	9.702587E-1	1.042872E+0	1.061087E+0	1.067435E+0	1.062395E+0	9.915432E-1	1.085146E+0	1.044224E+0	1.098389E+0	1.021343E+0	1.044016E+0	1.073475E+0	1.013947E+0	1.008113E+0	1.105848E+0	1.006632E+0	1.068146E+0	1.082230E+0	1.013675E+0	1.072180E+0	1.063674E+0	1.026281E+0	1.063874E+0	1.009793E+0	9.457197E-1	1.013102E+0	1.067467E+0	1.071853E+0	1.006441E+0	9.718301E-1	1.007417E+0	1.045466E+0	1.071654E+0	1.085843E+0	1.003578E+0	1.039274E+0	1.110586E+0	1.015148E+0	1.003481E+0	1.072408E+0	1.091151E+0	1.117524E+0	1.061244E+0	1.037901E+0	1.051770E+0	1.030892E+0	1.046897E+0	1.003339E+0	1.084780E+0	1.043872E+0	9.829381E-1	1.006249E+0	1.094609E+0	9.614734E-1	1.009899E+0	1.010368E+0	1.072604E+0	1.067713E+0	1.059204E+0	9.828926E-1	1.054508E+0	9.776184E-1	1.041446E+0	1.051955E+0	1.005988E+0	1.019356E+0	1.022964E+0	9.963406E-1	1.043936E+0	1.014332E+0	1.068616E+0	1.016363E+0	1.060064E+0	9.873567E-1	1.005500E+0	1.132477E+0	1.019072E+0	1.101237E+0	1.090717E+0	1.030819E+0	1.059050E+0	1.026160E+0	9.920988E-1	9.901799E-1	1.049210E+0	1.097798E+0	1.003792E+0	1.048322E+0	1.066080E+0	1.013944E+0	1.038107E+0	1.080013E+0	1.073613E+0	1.114965E+0	1.038200E+0	1.020759E+0	1.012978E+0	1.010601E+0	1.107004E+0	1.092724E+0	1.071903E+0	1.025295E+0	1.108814E+0	1.091954E+0	1.027558E+0	1.076916E+0	1.034636E+0	1.018981E+0	1.024353E+0	1.047377E+0	9.660610E-1	1.014424E+0	9.534115E-1	1.061598E+0	1.046982E+0	1.081880E+0	1.063198E+0	1.057051E+0	9.618958E-1	1.001841E+0	9.962960E-1	1.051320E+0	9.846694E-1	1.055319E+0	1.038794E+0	9.898642E-1	1.129838E+0	1.027217E+0	1.027667E+0	1.108166E+0	1.046532E+0	1.037508E+0	9.882830E-1	1.095966E+0	1.048950E+0	1.103963E+0	1.026647E+0	1.027927E+0	9.899437E-1	1.018703E+0	1.073920E+0	1.031686E+0	1.055804E+0	1.024249E+0	1.042620E+0	1.051428E+0	9.845705E-1	9.817111E-1	9.003646E-1
5.560410E+2	8.852368E-1	8.880569E-1	9.573118E-1	9.262064E-1	9.245473E-1	9.790316E-1	9.146846E-1	9.240876E-1	9.509895E-1	9.286525E-1	9.150959E-1	9.228953E-1	9.014735E-1	9.374723E-1	9.437751E-1	9.709694E-1	1.001367E+0	9.247688E-1	9.349051E-1	9.514951E-1	8.807451E-1	9.727139E-1	8.830373E-1	8.987829E-1	9.089622E-1	8.869658E-1	9.369293E-1	8.860954E-1	9.008419E-1	8.897896E-1	9.283593E-1	9.082601E-1	8.901985E-1	8.259816E-1	9.067935E-1	9.403414E-1	9.606338E-1	9.110107E-1	9.386210E-1	9.352853E-1	9.698631E-1	8.434483E-1	8.898370E-1	9.231759E-1	9.045266E-1	9.697061E-1	8.871943E-1	8.936625E-1	8.649234E-1	9.228646E-1	9.100891E-1	8.906742E-1	9.278966E-1	8.786596E-1	8.928813E-1	9.431347E-1	8.866309E-1	9.377183E-1	9.612763E-1	8.696552E-1	9.450099E-1	8.954861E-1	8.164265E-1	9.501425E-1	8.541596E-1	9.884128E-1	9.165993E-1	9.701916E-1	8.312540E-1	9.148512E-1	8.919932E-1	8.732464E-1	8.390767E-1	9.652841E-1	9.827312E-1	9.328379E-1	9.049595E-1	8.884483E-1	8.662206E-1	9.142209E-1	9.280670E-1	8.567495E-1	9.096585E-1	8.866356E-1	8.867746E-1	9.107175E-1	9.504059E-1	8.578104E-1	9.043165E-1	8.793429E-1	8.509146E-1	8.770241E-1	9.534042E-1	9.023269E-1	8.455549E-1	9.770040E-1	9.173442E-1	8.827996E-1	9.135250E-1	8.796378E-1	8.910536E-1	9.459236E-1	9.110304E-1	9.075551E-1	8.942645E-1	8.787269E-1	9.196361E-1	8.869712E-1	8.830333E-1	9.389757E-1	9.223939E-1	9.042605E-1	8.921753E-1	8.423091E-1	9.010797E-1	9.225205E-1	9.680893E-1	8.519406E-1	9.210195E-1	9.007965E-1	9.902004E-1	9.414454E-1	9.667838E-1	9.392407E-1	9.461795E-1	8.623955E-1	9.243195E-1	9.388550E-1	8.865800E-1	9.045285E-1	8.480783E-1	9.336344E-1	9.212358E-1	9.035495E-1	8.729930E-1	8.983751E-1	9.593181E-1	9.081762E-1	8.597247E-1	8.949322E-1	9.586077E-1	8.814963E-1	9.324902E-1	9.412435E-1	8.849085E-1	9.335440E-1	9.342480E-1	9.164979E-1	8.786620E-1	8.925634E-1	8.760107E-1	8.912251E-1	1.019212E+0	9.363467E-1	9.726452E-1	9.672953E-1	9.605026E-1	9.389120E-1	9.113954E-1	9.563204E-1	8.644918E-1	8.960679E-1	8.308736E-1	8.771765E-1	9.188202E-1	8.640965E-1
5.570100E+2	8.630127E-1	9.031662E-1	8.415282E-1	8.748384E-1	8.531232E-1	8.845479E-1	8.890331E-1	8.744372E-1	8.591008E-1	8.617062E-1	8.540968E-1	8.077301E-1	8.980361E-1	8.212699E-1	9.146814E-1	8.658099E-1	9.046404E-1	8.405105E-1	8.545416E-1	8.787889E-1	8.617756E-1	8.414165E-1	8.535460E-1	8.408111E-1	8.414017E-1	8.998048E-1	8.999715E-1	8.669257E-1	8.461064E-1	8.323200E-1	9.555670E-1	8.668296E-1	8.432258E-1	9.091165E-1	9.269566E-1	8.434455E-1	8.983742E-1	8.436355E-1	8.543988E-1	8.579598E-1	9.175994E-1	8.429600E-1	8.849085E-1	8.640728E-1	8.604555E-1	8.284926E-1	8.433710E-1	8.904372E-1	8.333542E-1	8.450389E-1	8.569068E-1	9.093166E-1	8.893140E-1	9.033909E-1	8.489125E-1	8.500033E-1	8.562400E-1	8.447873E-1	8.698360E-1	7.919297E-1	9.001741E-1	8.705349E-1	9.234012E-1	8.430758E-1	8.317903E-1	8.113655E-1	8.330936E-1	8.739521E-1	8.626716E-1	8.313744E-1	8.371819E-1	9.048849E-1	8.986137E-1	8.810165E-1	8.809801E-1	8.652774E-1	8.889241E-1	8.756965E-1	8.207439E-1	8.711957E-1	8.170454E-1	8.392399E-1	8.625082E-1	9.013115E-1	8.458902E-1	8.927301E-1	8.148072E-1	8.482573E-1	8.259499E-1	8.675273E-1	7.994956E-1	8.015937E-1	8.436396E-1	8.364142E-1	9.060433E-1	9.004333E-1	8.616623E-1	8.949969E-1	8.618544E-1	8.816945E-1	8.547309E-1	9.173762E-1	7.675232E-1	8.922820E-1	8.535699E-1	8.465131E-1	8.349179E-1	8.210310E-1	8.788465E-1	8.381900E-1	8.878397E-1	9.066464E-1	8.484934E-1	8.323307E-1	9.079129E-1	8.921808E-1	8.798171E-1	8.358541E-1	9.182023E-1	9.445621E-1	8.524960E-1	8.663389E-1	8.431196E-1	8.971853E-1	8.641693E-1	8.228223E-1	8.485269E-1	8.622380E-1	8.316546E-1	8.189479E-1	8.700373E-1	9.196031E-1	8.698886E-1	9.155195E-1	9.000917E-1	8.702745E-1	8.130156E-1	9.009200E-1	8.389217E-1	8.560113E-1	8.449301E-1	8.702719E-1	8.639536E-1	8.282064E-1	8.475813E-1	8.314778E-1	8.784971E-1	8.698825E-1	8.630109E-1	8.153418E-1	8.590260E-1	8.753959E-1	8.446359E-1	8.239530E-1	8.312757E-1	8.338607E-1	8.195601E-1	9.061427E-1	8.647720E-1	8.960190E-1	8.784143E-1	8.675141E-1	8.076068E-1	9.262573E-1	7.618533E-1	8.758429E-1
5.580400E+2	9.408470E-1	9.688164E-1	8.332032E-1	8.982657E-1	9.003626E-1	9.247599E-1	9.098683E-1	8.550504E-1	9.028290E-1	9.042667E-1	8.924648E-1	9.773823E-1	8.812824E-1	8.628703E-1	8.511789E-1	9.790343E-1	9.401132E-1	9.248223E-1	8.592267E-1	8.761083E-1	9.751709E-1	8.248063E-1	9.313437E-1	8.779312E-1	8.531260E-1	8.931776E-1	8.716933E-1	9.195913E-1	8.927462E-1	9.194072E-1	9.327864E-1	9.159197E-1	8.951083E-1	9.055427E-1	9.417807E-1	8.972868E-1	8.729795E-1	8.995835E-1	8.052778E-1	8.682975E-1	8.793467E-1	8.981609E-1	9.107837E-1	8.832939E-1	9.313795E-1	9.298453E-1	8.826943E-1	8.817059E-1	9.124355E-1	8.884425E-1	9.362497E-1	9.221997E-1	8.943549E-1	9.081304E-1	8.869445E-1	9.284287E-1	9.169725E-1	9.079838E-1	8.886544E-1	8.658047E-1	8.799886E-1	9.140442E-1	8.440452E-1	9.599389E-1	9.049168E-1	8.955903E-1	8.983749E-1	8.999858E-1	9.030190E-1	9.095338E-1	8.656024E-1	8.629250E-1	9.645650E-1	9.024024E-1	8.748179E-1	8.905797E-1	9.528249E-1	8.715525E-1	8.945019E-1	8.180470E-1	9.048418E-1	9.117513E-1	8.366628E-1	9.092452E-1	8.638733E-1	8.262867E-1	9.705115E-1	9.092206E-1	8.819578E-1	9.036225E-1	9.035128E-1	8.734290E-1	9.657457E-1	9.467026E-1	9.525059E-1	8.320221E-1	9.185754E-1	8.715600E-1	8.635600E-1	9.669418E-1	9.700284E-1	9.237462E-1	8.990466E-1	9.344533E-1	8.807968E-1	8.460863E-1	8.949206E-1	1.000225E+0	9.570048E-1	9.569979E-1	8.654519E-1	8.963520E-1	8.932691E-1	9.131907E-1	9.284954E-1	9.072357E-1	8.633285E-1	9.243006E-1	8.942909E-1	9.400769E-1	8.894569E-1	9.613397E-1	8.573939E-1	8.916376E-1	9.164560E-1	9.268341E-1	8.981400E-1	8.664555E-1	9.079893E-1	9.150989E-1	9.186813E-1	9.048166E-1	8.700305E-1	9.269849E-1	9.053939E-1	8.801693E-1	8.487234E-1	9.544947E-1	8.779484E-1	9.010601E-1	9.012763E-1	8.718762E-1	8.950940E-1	8.855464E-1	9.212609E-1	8.910152E-1	9.195888E-1	8.857206E-1	8.523096E-1	8.749179E-1	8.973835E-1	9.288992E-1	8.614937E-1	9.316725E-1	9.301054E-1	9.255083E-1	8.899551E-1	9.458437E-1	9.150218E-1	8.837174E-1	9.407563E-1	8.319701E-1	8.716911E-1	8.908590E-1	8.984267E-1	8.793017E-1
5.590160E+2	1.104369E+0	1.053366E+0	1.138547E+0	1.078200E+0	1.072816E+0	1.066522E+0	1.120854E+0	1.133219E+0	1.125437E+0	1.052906E+0	1.052286E+0	1.064500E+0	1.125259E+0	1.094291E+0	1.095703E+0	1.088046E+0	1.085047E+0	1.088606E+0	1.148208E+0	1.091761E+0	1.075517E+0	1.117526E+0	1.044716E+0	1.114157E+0	1.161479E+0	1.095624E+0	1.090726E+0	1.046967E+0	1.086585E+0	1.066539E+0	1.152189E+0	1.126081E+0	1.119872E+0	1.097209E+0	1.147692E+0	1.093494E+0	1.102364E+0	1.145300E+0	1.067714E+0	1.077588E+0	1.103707E+0	1.117054E+0	1.155000E+0	1.172381E+0	1.056591E+0	1.060062E+0	1.121265E+0	1.087932E+0	1.094474E+0	1.055529E+0	1.086827E+0	1.088147E+0	1.090575E+0	1.093388E+0	1.111489E+0	1.070352E+0	1.133954E+0	1.096683E+0	1.098014E+0	1.100376E+0	1.095468E+0	1.079268E+0	1.108005E+0	1.058377E+0	1.042006E+0	1.132069E+0	1.095548E+0	1.132661E+0	1.103964E+0	1.068450E+0	1.057938E+0	1.167517E+0	1.083444E+0	1.028556E+0	1.096218E+0	1.085573E+0	1.092204E+0	1.078169E+0	1.045552E+0	1.175219E+0	1.098082E+0	1.089147E+0	1.104990E+0	1.126750E+0	1.085863E+0	1.080622E+0	1.119933E+0	1.126787E+0	1.096165E+0	1.126217E+0	1.056835E+0	1.171153E+0	1.134279E+0	1.044015E+0	1.068684E+0	1.103648E+0	1.159619E+0	1.141611E+0	1.075207E+0	1.062645E+0	1.052046E+0	1.113351E+0	1.100103E+0	1.093833E+0	1.149994E+0	1.115148E+0	1.066477E+0	1.096737E+0	1.156385E+0	1.075930E+0	1.158893E+0	1.055518E+0	1.103049E+0	1.110614E+0	1.094873E+0	1.118889E+0	1.120160E+0	1.101683E+0	1.089424E+0	1.067391E+0	1.018153E+0	1.054686E+0	1.094684E+0	1.092710E+0	1.074367E+0	1.123440E+0	1.060347E+0	1.096061E+0	1.121917E+0	1.062124E+0	1.105398E+0	1.150594E+0	1.159059E+0	1.084041E+0	1.055376E+0	1.061874E+0	1.088175E+0	1.075055E+0	1.143028E+0	1.136175E+0	1.014408E+0	1.094694E+0	1.140417E+0	1.086813E+0	1.101182E+0	1.062991E+0	1.139599E+0	1.153507E+0	1.061074E+0	1.082614E+0	1.110494E+0	1.089374E+0	1.111478E+0	1.015730E+0	1.132598E+0	1.082952E+0	1.104563E+0	1.132285E+0	1.159083E+0	1.140734E+0	1.068808E+0	1.115966E+0	1.117163E+0	1.149075E+0	1.152217E+0	1.107571E+0
5.600240E+2	1.232578E+0	1.312249E+0	1.263479E+0	1.242080E+0	1.171104E+0	1.248610E+0	1.300931E+0	1.280314E+0	1.226743E+0	1.204576E+0	1.261202E+0	1.309915E+0	1.298457E+0	1.311436E+0	1.266015E+0	1.210510E+0	1.246794E+0	1.334112E+0	1.317323E+0	1.332574E+0	1.280340E+0	1.249065E+0	1.256692E+0	1.315460E+0	1.277984E+0	1.256913E+0	1.288839E+0	1.327465E+0	1.245648E+0	1.255392E+0	1.240225E+0	1.253143E+0	1.282769E+0	1.231075E+0	1.286883E+0	1.323529E+0	1.263702E+0	1.221773E+0	1.288157E+0	1.288578E+0	1.294877E+0	1.233741E+0	1.288928E+0	1.306014E+0	1.277599E+0	1.270547E+0	1.272695E+0	1.263673E+0	1.241149E+0	1.278575E+0	1.257279E+0	1.303318E+0	1.244777E+0	1.219594E+0	1.314130E+0	1.243862E+0	1.248828E+0	1.285419E+0	1.229665E+0	1.272874E+0	1.252887E+0	1.177387E+0	1.248293E+0	1.295998E+0	1.277385E+0	1.228614E+0	1.288431E+0	1.237056E+0	1.246863E+0	1.239073E+0	1.308496E+0	1.250059E+0	1.251203E+0	1.318744E+0	1.304212E+0	1.236354E+0	1.337298E+0	1.330464E+0	1.280687E+0	1.296842E+0	1.268446E+0	1.215023E+0	1.247566E+0	1.237640E+0	1.251675E+0	1.196087E+0	1.227260E+0	1.241973E+0	1.246746E+0	1.260417E+0	1.320672E+0	1.326358E+0	1.200126E+0	1.259525E+0	1.245725E+0	1.263006E+0	1.195999E+0	1.233997E+0	1.282691E+0	1.284749E+0	1.216177E+0	1.264367E+0	1.247802E+0	1.314550E+0	1.243025E+0	1.223173E+0	1.258899E+0	1.256722E+0	1.232740E+0	1.285550E+0	1.252164E+0	1.240763E+0	1.210166E+0	1.292461E+0	1.306643E+0	1.265854E+0	1.326005E+0	1.278326E+0	1.273534E+0	1.221567E+0	1.273994E+0	1.207333E+0	1.283136E+0	1.302711E+0	1.231583E+0	1.226883E+0	1.303161E+0	1.321542E+0	1.229367E+0	1.244138E+0	1.237723E+0	1.250620E+0	1.197568E+0	1.226651E+0	1.258605E+0	1.332372E+0	1.266343E+0	1.203390E+0	1.299775E+0	1.241036E+0	1.252971E+0	1.264768E+0	1.253411E+0	1.219997E+0	1.255969E+0	1.313583E+0	1.243307E+0	1.318697E+0	1.229844E+0	1.213027E+0	1.361441E+0	1.256315E+0	1.239473E+0	1.254335E+0	1.298564E+0	1.295566E+0	1.243411E+0	1.217112E+0	1.289814E+0	1.330775E+0	1.198226E+0	1.284593E+0	1.259665E+0	1.263787E+0	1.184020E+0	1.266911E+0
5.610700E+2	1.000407E+0	9.952547E-1	1.055990E+0	1.071799E+0	1.040203E+0	1.000183E+0	1.067273E+0	1.035999E+0	1.110073E+0	1.069233E+0	9.958659E-1	1.024135E+0	9.902371E-1	1.049953E+0	1.030609E+0	9.975899E-1	1.008646E+0	1.025129E+0	1.052603E+0	1.011096E+0	1.063150E+0	1.013508E+0	1.100338E+0	9.583924E-1	9.806169E-1	1.070398E+0	1.026022E+0	1.036615E+0	9.998144E-1	1.083497E+0	1.058716E+0	1.050423E+0	1.042021E+0	9.890787E-1	9.486850E-1	1.022173E+0	1.045722E+0	1.043138E+0	1.032146E+0	1.053691E+0	1.013060E+0	1.045506E+0	1.079292E+0	1.067580E+0	1.063108E+0	1.043164E+0	1.088425E+0	9.737649E-1	1.030351E+0	1.061069E+0	1.018061E+0	1.031526E+0	1.003197E+0	1.063264E+0	1.036488E+0	1.045511E+0	1.044801E+0	1.004312E+0	1.054094E+0	1.018712E+0	1.064635E+0	1.058250E+0	1.039395E+0	1.104114E+0	1.064994E+0	9.578449E-1	9.535281E-1	1.003056E+0	1.060204E+0	1.026264E+0	1.040791E+0	1.023740E+0	1.044455E+0	1.064810E+0	1.072340E+0	1.016185E+0	1.038209E+0	1.004843E+0	9.928369E-1	1.022206E+0	1.077211E+0	1.076242E+0	1.031214E+0	1.028742E+0	1.035691E+0	1.072348E+0	1.000889E+0	1.080646E+0	9.338737E-1	1.027849E+0	1.089339E+0	1.048145E+0	9.897798E-1	1.045348E+0	1.045245E+0	1.032023E+0	1.079337E+0	1.013721E+0	9.589225E-1	9.861590E-1	1.059448E+0	1.049955E+0	1.011428E+0	1.033011E+0	1.135006E+0	1.051029E+0	9.819981E-1	1.070994E+0	1.041339E+0	1.046000E+0	1.007267E+0	1.065625E+0	1.038953E+0	1.047016E+0	1.033524E+0	1.011138E+0	1.080922E+0	1.036719E+0	1.088906E+0	9.921132E-1	1.022956E+0	1.021624E+0	1.082132E+0	1.015226E+0	1.058966E+0	1.009097E+0	1.022174E+0	1.086985E+0	1.010387E+0	1.023265E+0	1.014068E+0	1.097940E+0	1.027383E+0	1.042977E+0	1.008404E+0	1.035184E+0	1.047650E+0	1.041422E+0	1.052625E+0	1.059515E+0	1.031957E+0	1.057574E+0	1.022925E+0	9.888706E-1	1.038658E+0	1.032755E+0	1.036536E+0	1.011048E+0	1.027369E+0	1.073408E+0	9.573630E-1	1.009247E+0	1.027388E+0	1.053099E+0	9.764762E-1	1.046388E+0	1.065700E+0	1.021597E+0	1.024194E+0	1.026789E+0	1.006610E+0	9.799028E-1	1.081625E+0	1.058896E+0	1.049777E+0	1.211659E+0
5.620390E+2	8.782631E-1	8.674441E-1	8.316996E-1	8.460471E-1	8.441832E-1	8.285465E-1	7.613944E-1	8.474283E-1	8.104462E-1	8.988710E-1	8.811712E-1	8.603608E-1	8.282429E-1	8.248681E-1	8.787193E-1	8.208152E-1	8.382292E-1	8.496665E-1	8.007259E-1	8.683419E-1	7.942215E-1	8.937566E-1	8.178488E-1	8.476603E-1	8.365832E-1	8.715032E-1	8.354132E-1	8.312099E-1	8.729888E-1	8.601275E-1	8.145834E-1	7.706909E-1	8.025099E-1	8.186403E-1	8.561985E-1	7.986245E-1	8.405970E-1	8.347613E-1	7.960849E-1	8.799518E-1	8.955342E-1	7.638633E-1	8.286635E-1	8.247481E-1	8.177580E-1	8.333121E-1	8.192957E-1	8.401522E-1	8.036283E-1	8.454057E-1	8.737912E-1	8.242512E-1	8.056082E-1	8.261922E-1	8.069836E-1	8.222618E-1	8.791238E-1	8.136075E-1	8.608767E-1	8.156667E-1	8.330751E-1	8.708385E-1	8.594257E-1	8.562344E-1	8.442588E-1	8.639497E-1	7.976575E-1	8.339749E-1	8.241044E-1	8.421087E-1	8.683697E-1	8.377272E-1	8.701133E-1	8.466584E-1	7.731093E-1	8.853602E-1	8.316319E-1	8.285213E-1	9.490607E-1	7.863551E-1	8.096908E-1	8.225384E-1	8.852886E-1	8.206440E-1	9.122718E-1	8.539027E-1	8.493261E-1	8.379842E-1	7.970504E-1	8.405742E-1	8.076930E-1	8.287745E-1	8.404548E-1	8.374956E-1	8.767157E-1	8.401925E-1	8.020700E-1	8.348094E-1	8.477111E-1	8.831974E-1	8.614783E-1	8.180892E-1	9.179678E-1	8.449525E-1	8.209563E-1	8.446514E-1	8.489196E-1	7.926224E-1	8.219172E-1	8.610448E-1	9.164339E-1	8.074989E-1	8.798561E-1	8.611886E-1	8.395984E-1	8.723766E-1	7.916805E-1	8.129751E-1	8.193625E-1	7.987964E-1	8.590146E-1	9.121967E-1	8.301967E-1	8.376728E-1	8.378434E-1	8.611260E-1	8.718490E-1	8.581966E-1	8.288178E-1	8.762291E-1	7.903479E-1	7.987367E-1	8.429770E-1	9.012449E-1	8.941924E-1	8.294494E-1	8.096868E-1	8.520075E-1	8.350503E-1	8.430607E-1	8.631350E-1	8.477567E-1	8.690213E-1	8.953174E-1	8.258209E-1	8.711193E-1	8.097037E-1	8.720807E-1	8.272714E-1	8.044589E-1	8.184874E-1	8.121585E-1	8.385482E-1	8.831196E-1	8.081163E-1	8.728498E-1	8.328021E-1	8.978506E-1	8.136587E-1	8.907318E-1	8.290546E-1	8.124525E-1	8.858578E-1	8.233045E-1	8.314680E-1	8.977664E-1
5.630470E+2	6.856714E-1	6.821092E-1	6.775756E-1	6.630939E-1	6.610869E-1	7.338867E-1	6.971964E-1	6.992949E-1	7.223541E-1	6.743150E-1	7.019893E-1	6.499763E-1	7.401637E-1	7.113724E-1	6.610900E-1	7.292319E-1	6.986093E-1	7.694485E-1	7.358885E-1	6.763917E-1	6.379082E-1	6.998340E-1	7.350556E-1	6.952674E-1	7.025105E-1	7.087698E-1	7.249270E-1	6.132161E-1	7.644936E-1	6.530456E-1	6.343655E-1	6.867245E-1	7.447570E-1	7.887407E-1	6.776767E-1	6.644981E-1	7.302883E-1	6.788025E-1	6.826232E-1	6.742490E-1	6.660204E-1	7.183133E-1	6.713121E-1	6.743481E-1	7.751510E-1	6.467626E-1	6.831840E-1	7.151220E-1	6.974970E-1	7.531231E-1	6.789187E-1	7.136911E-1	6.684961E-1	7.007300E-1	6.762936E-1	6.803386E-1	6.715353E-1	6.663734E-1	7.400674E-1	7.297921E-1	7.171892E-1	6.123585E-1	7.245020E-1	6.618194E-1	7.354745E-1	7.143024E-1	7.432179E-1	6.754944E-1	6.535817E-1	6.296105E-1	6.886952E-1	6.925107E-1	7.602494E-1	6.986466E-1	6.983769E-1	6.726368E-1	7.055016E-1	7.260004E-1	7.055647E-1	6.765590E-1	6.655473E-1	6.675931E-1	6.970019E-1	7.224762E-1	6.993333E-1	7.411319E-1	6.687919E-1	7.286402E-1	7.715128E-1	6.921171E-1	6.963612E-1	6.997594E-1	7.167925E-1	6.977188E-1	6.355165E-1	7.759224E-1	6.533470E-1	7.291264E-1	6.744978E-1	7.318564E-1	6.822984E-1	7.021988E-1	7.027383E-1	7.272989E-1	7.077669E-1	7.470344E-1	6.841160E-1	6.835888E-1	6.798809E-1	7.199348E-1	7.373599E-1	6.948561E-1	7.004484E-1	6.708025E-1	6.612301E-1	6.354277E-1	6.708116E-1	6.462826E-1	6.844778E-1	6.615944E-1	7.408028E-1	6.981968E-1	7.169534E-1	6.949391E-1	7.223441E-1	7.265500E-1	6.667638E-1	6.757769E-1	7.346776E-1	7.084823E-1	7.225435E-1	6.304050E-1	7.049153E-1	6.953529E-1	6.706748E-1	7.147225E-1	7.186260E-1	6.883638E-1	6.817179E-1	7.475702E-1	7.326796E-1	7.075093E-1	6.700110E-1	7.028830E-1	7.176072E-1	6.684920E-1	7.844996E-1	7.025856E-1	7.063244E-1	7.293587E-1	6.944144E-1	7.111146E-1	7.615297E-1	6.969137E-1	7.285347E-1	7.112162E-1	6.588405E-1	6.609009E-1	6.473043E-1	5.898774E-1	7.759398E-1	7.205603E-1	6.175802E-1	6.889022E-1	7.311707E-1	6.327199E-1
5.640120E+2	7.327471E-1	7.141495E-1	7.636412E-1	7.396504E-1	8.176343E-1	7.761973E-1	7.623706E-1	7.511938E-1	7.304946E-1	7.901609E-1	7.986740E-1	7.223549E-1	7.403501E-1	7.558579E-1	8.689096E-1	7.401487E-1	7.905047E-1	7.153371E-1	7.395486E-1	7.436629E-1	7.774041E-1	7.950425E-1	7.847312E-1	7.513735E-1	7.856606E-1	7.069146E-1	7.316793E-1	7.470366E-1	7.239548E-1	7.265480E-1	7.567478E-1	7.766122E-1	7.678957E-1	7.549519E-1	7.473633E-1	7.502079E-1	7.325833E-1	7.949836E-1	8.134442E-1	7.457801E-1	7.743432E-1	7.127416E-1	7.263393E-1	7.529388E-1	8.092635E-1	7.714458E-1	7.786940E-1	7.978749E-1	7.823106E-1	7.666892E-1	7.355602E-1	7.310043E-1	7.627821E-1	7.711606E-1	7.522563E-1	7.379200E-1	7.568733E-1	7.829500E-1	7.279446E-1	8.229686E-1	7.789793E-1	8.079076E-1	7.294591E-1	7.361368E-1	8.107901E-1	7.502966E-1	7.974860E-1	7.629733E-1	8.041529E-1	7.734024E-1	7.142667E-1	7.525127E-1	7.230625E-1	7.431334E-1	7.723647E-1	7.734395E-1	7.513918E-1	7.533171E-1	7.730080E-1	7.441675E-1	7.919395E-1	7.392336E-1	7.271382E-1	7.606619E-1	7.315393E-1	8.090178E-1	8.429869E-1	7.348076E-1	7.862439E-1	7.258788E-1	7.512064E-1	7.571663E-1	7.332064E-1	7.760897E-1	7.617653E-1	7.770664E-1	7.735703E-1	7.543570E-1	7.630437E-1	7.969989E-1	7.237013E-1	6.700561E-1	7.439208E-1	7.458686E-1	7.129764E-1	7.374201E-1	7.470812E-1	7.543118E-1	7.180459E-1	7.359125E-1	7.210487E-1	7.939025E-1	7.618760E-1	8.099362E-1	7.739430E-1	7.910875E-1	7.554155E-1	7.558637E-1	7.690975E-1	8.027887E-1	7.561767E-1	7.487694E-1	8.007696E-1	7.236999E-1	7.968860E-1	8.249366E-1	7.948360E-1	7.404900E-1	7.239031E-1	7.314750E-1	7.606309E-1	8.091893E-1	7.446351E-1	7.245201E-1	7.841050E-1	8.218915E-1	7.290900E-1	7.607404E-1	7.692772E-1	7.191581E-1	8.184688E-1	7.682151E-1	7.649302E-1	7.654269E-1	7.060814E-1	7.500164E-1	7.590706E-1	7.703951E-1	7.712688E-1	7.933803E-1	7.819649E-1	7.556388E-1	7.550909E-1	7.537746E-1	7.613009E-1	8.080134E-1	7.571427E-1	7.667717E-1	7.415499E-1	7.205587E-1	7.877523E-1	7.899895E-1	7.509039E-1	8.012350E-1	7.253069E-1	9.124627E-1
5.650150E+2	1.053665E+0	9.361721E-1	9.943384E-1	1.020152E+0	1.017646E+0	9.592199E-1	9.915142E-1	9.892308E-1	9.620661E-1	1.051096E+0	9.734879E-1	1.054121E+0	9.810965E-1	9.610012E-1	1.006731E+0	9.839332E-1	1.007415E+0	9.695031E-1	1.019826E+0	1.023154E+0	9.889960E-1	1.005202E+0	9.415715E-1	1.008816E+0	1.031118E+0	9.937745E-1	9.775198E-1	1.029101E+0	1.025243E+0	9.992379E-1	1.019293E+0	9.930359E-1	9.656452E-1	1.016062E+0	1.020429E+0	9.763516E-1	1.000515E+0	1.011845E+0	1.016254E+0	9.723053E-1	9.828728E-1	1.082340E+0	9.797199E-1	9.949136E-1	9.245042E-1	9.438052E-1	9.807014E-1	1.032474E+0	1.041970E+0	1.040834E+0	1.020047E+0	9.660731E-1	9.853203E-1	1.001708E+0	9.995382E-1	1.003594E+0	1.028306E+0	9.785315E-1	1.036701E+0	1.011126E+0	1.002973E+0	9.733238E-1	1.015209E+0	9.872452E-1	9.971120E-1	1.071219E+0	1.029154E+0	9.927462E-1	1.010007E+0	1.044384E+0	9.716914E-1	9.714629E-1	9.660669E-1	1.012549E+0	9.957569E-1	9.902767E-1	1.027744E+0	1.000869E+0	9.561266E-1	1.022502E+0	1.010203E+0	1.048408E+0	1.050323E+0	9.809617E-1	9.835974E-1	9.968680E-1	9.794024E-1	9.640504E-1	1.065078E+0	9.776572E-1	1.055394E+0	9.239696E-1	9.917770E-1	1.002082E+0	1.000958E+0	9.898472E-1	1.008526E+0	1.033790E+0	1.028289E+0	9.780391E-1	1.030922E+0	9.652472E-1	1.013054E+0	9.709750E-1	1.011673E+0	9.874699E-1	1.053910E+0	9.568812E-1	1.016960E+0	9.796295E-1	1.000228E+0	1.000786E+0	1.008557E+0	9.597326E-1	9.994553E-1	1.038106E+0	1.014499E+0	1.020346E+0	1.019572E+0	1.077862E+0	1.036908E+0	1.050064E+0	9.503956E-1	9.903344E-1	9.652833E-1	9.991997E-1	1.017139E+0	9.812245E-1	1.025269E+0	9.785518E-1	9.583222E-1	1.013699E+0	1.046050E+0	9.385220E-1	1.016331E+0	9.799284E-1	9.918670E-1	1.032878E+0	1.044223E+0	9.901380E-1	9.744339E-1	1.051085E+0	1.014167E+0	9.612559E-1	9.556548E-1	9.894966E-1	1.005111E+0	1.006672E+0	1.069840E+0	1.043476E+0	9.900329E-1	1.027091E+0	9.653451E-1	9.971648E-1	9.837763E-1	9.275676E-1	1.037161E+0	9.830168E-1	1.001200E+0	1.035942E+0	9.538858E-1	1.022362E+0	1.006091E+0	9.694420E-1	1.019208E+0	8.492525E-1
5.660450E+2	1.219534E+0	1.260079E+0	1.333031E+0	1.237783E+0	1.334818E+0	1.303380E+0	1.250784E+0	1.264018E+0	1.255163E+0	1.274059E+0	1.263383E+0	1.263890E+0	1.299997E+0	1.309681E+0	1.250030E+0	1.257685E+0	1.274895E+0	1.240216E+0	1.252459E+0	1.273011E+0	1.363610E+0	1.258062E+0	1.234189E+0	1.277345E+0	1.274777E+0	1.269870E+0	1.330067E+0	1.311803E+0	1.297347E+0	1.277120E+0	1.251720E+0	1.306049E+0	1.307052E+0	1.239560E+0	1.245734E+0	1.327673E+0	1.316361E+0	1.245311E+0	1.341127E+0	1.287809E+0	1.264498E+0	1.286282E+0	1.255628E+0	1.220121E+0	1.248931E+0	1.358073E+0	1.279580E+0	1.233436E+0	1.233005E+0	1.208620E+0	1.279471E+0	1.341452E+0	1.328150E+0	1.292356E+0	1.263531E+0	1.314699E+0	1.178033E+0	1.289777E+0	1.208990E+0	1.263603E+0	1.255611E+0	1.279974E+0	1.270516E+0	1.223233E+0	1.220464E+0	1.253024E+0	1.281990E+0	1.263089E+0	1.246126E+0	1.313921E+0	1.303115E+0	1.304646E+0	1.231461E+0	1.273104E+0	1.289304E+0	1.325649E+0	1.169053E+0	1.228468E+0	1.294965E+0	1.313597E+0	1.260395E+0	1.316869E+0	1.248793E+0	1.246534E+0	1.248599E+0	1.324047E+0	1.228564E+0	1.231809E+0	1.266549E+0	1.282094E+0	1.219019E+0	1.233155E+0	1.271205E+0	1.266123E+0	1.254571E+0	1.248610E+0	1.304470E+0	1.244583E+0	1.351880E+0	1.239668E+0	1.317389E+0	1.315010E+0	1.270870E+0	1.257720E+0	1.263851E+0	1.301806E+0	1.368002E+0	1.245966E+0	1.226967E+0	1.191755E+0	1.227069E+0	1.274739E+0	1.240757E+0	1.264990E+0	1.253887E+0	1.245724E+0	1.268409E+0	1.258826E+0	1.180453E+0	1.329070E+0	1.257234E+0	1.245897E+0	1.275147E+0	1.344806E+0	1.237626E+0	1.235603E+0	1.222489E+0	1.239819E+0	1.256337E+0	1.293097E+0	1.333467E+0	1.252929E+0	1.246387E+0	1.293153E+0	1.239486E+0	1.253487E+0	1.323071E+0	1.247043E+0	1.194016E+0	1.260920E+0	1.273099E+0	1.266537E+0	1.276126E+0	1.291791E+0	1.327539E+0	1.287020E+0	1.252246E+0	1.203200E+0	1.241387E+0	1.277986E+0	1.288931E+0	1.287112E+0	1.301268E+0	1.274178E+0	1.227126E+0	1.279260E+0	1.273291E+0	1.302326E+0	1.277285E+0	1.236869E+0	1.348981E+0	1.290883E+0	1.299612E+0	1.278240E+0	1.316278E+0	1.179681E+0
5.670200E+2	1.151919E+0	1.210361E+0	1.108495E+0	1.202929E+0	1.140147E+0	1.158695E+0	1.137814E+0	1.144252E+0	1.154394E+0	1.080517E+0	1.179476E+0	1.073365E+0	1.114915E+0	1.118669E+0	1.091014E+0	1.193005E+0	1.109747E+0	1.083160E+0	1.074191E+0	1.103900E+0	1.043682E+0	1.143197E+0	1.153515E+0	1.153598E+0	1.096144E+0	1.133056E+0	1.123112E+0	1.136996E+0	1.091180E+0	1.159086E+0	1.139373E+0	1.121322E+0	1.072370E+0	1.159139E+0	1.127558E+0	1.146162E+0	1.094888E+0	1.124503E+0	1.157172E+0	1.151751E+0	1.125741E+0	1.141998E+0	1.104334E+0	1.103661E+0	1.095714E+0	1.142982E+0	1.093465E+0	1.173865E+0	1.163179E+0	1.101712E+0	1.113796E+0	1.078338E+0	1.216740E+0	1.123477E+0	1.152345E+0	1.153033E+0	1.141572E+0	1.174364E+0	1.154993E+0	1.099077E+0	1.119192E+0	1.226649E+0	1.161151E+0	1.116903E+0	1.102599E+0	1.133089E+0	1.114614E+0	1.198963E+0	1.147977E+0	1.153254E+0	1.181035E+0	1.136899E+0	1.105380E+0	1.111397E+0	1.123501E+0	1.123946E+0	1.094142E+0	1.177797E+0	1.107697E+0	1.144506E+0	1.113643E+0	1.113195E+0	1.171023E+0	1.166345E+0	1.187557E+0	1.099689E+0	1.112334E+0	1.144081E+0	1.154824E+0	1.163573E+0	1.099969E+0	1.138089E+0	1.156634E+0	1.124899E+0	1.158313E+0	1.137664E+0	1.104487E+0	1.142444E+0	1.154197E+0	1.069746E+0	1.086512E+0	1.177979E+0	1.093070E+0	1.077337E+0	1.073956E+0	1.146181E+0	1.095677E+0	1.141952E+0	1.148760E+0	1.147246E+0	1.114084E+0	1.169959E+0	1.163068E+0	1.070069E+0	1.108351E+0	1.114161E+0	1.108768E+0	1.164678E+0	1.180882E+0	1.108741E+0	1.145304E+0	1.099893E+0	1.109192E+0	1.106263E+0	1.158645E+0	1.066331E+0	1.143102E+0	1.133450E+0	1.161335E+0	1.167539E+0	1.158818E+0	1.091070E+0	1.160996E+0	1.166553E+0	1.167433E+0	1.090921E+0	1.176767E+0	1.144604E+0	1.102339E+0	1.101367E+0	1.137572E+0	1.069985E+0	1.093897E+0	1.202099E+0	1.150227E+0	1.133511E+0	1.050337E+0	1.076093E+0	1.213311E+0	1.107374E+0	1.099488E+0	1.123050E+0	1.138385E+0	1.140012E+0	1.153402E+0	1.050679E+0	1.137133E+0	1.072297E+0	1.130889E+0	1.144007E+0	1.089986E+0	1.151321E+0	1.109812E+0	1.076259E+0	1.092128E+0	1.062675E+0
