Photon Energy (eV)	#1	#2	#3	#4	#5	#6	#7	#8	#9	#10	#11	#12	#13	#14	#15	#16	#17	#18	#19	#20	#21	#22	#23	#24	#25	#26	#27	#28	#29	#30	#31	#32	#33	#34	#35	#36	#37	#38	#39	#40	#41	#42	#43	#44	#45	#46	#47	#48	#49	#50	#51	#52	#53	#54	#55	#56	#57	#58	#59	#60	#61	#62	#63	#64	#65	#66	#67	#68	#69	#70	#71	#72	#73	#74	#75	#76	#77	#78	#79	#80	#81	#82	#83	#84	#85	#86	#87	#88	#89	#90	#91	#92	#93	#94	#95	#96	#97	#98	#99	#100	#101	#102	#103	#104	#105	#106	#107	#108	#109	#110	#111	#112	#113	#114	#115	#116	#117	#118	#119	#120	#121	#122	#123	#124	#125	#126	#127	#128	#129	#130	#131	#132	#133	#134	#135	#136	#137	#138	#139	#140	#141	#142	#143	#144	#145	#146	#147	#148	#149	#150	#151	#152	#153	#154	#155	#156	#157	#158	#159	#160	#161	#162	#163	#164	#165	#166	#167	#168	#169	#170	#171	
2.790030E+2	5.500750E-3	-3.425091E-4	-4.836457E-3	-6.415191E-3	1.628657E-3	-8.700280E-3	-7.209626E-3	-8.136305E-3	7.562190E-4	1.185480E-3	-3.805415E-3	5.599932E-3	-1.235866E-3	-5.335409E-3	-1.037328E-2	-4.672300E-3	-2.407980E-3	2.872913E-3	-6.473382E-3	-1.086004E-2	-1.364336E-3	-3.016957E-4	-9.285968E-3	-6.736984E-3	6.329562E-3	-2.312708E-3	-2.973633E-3	-2.372342E-3	-1.426181E-2	3.136069E-3	-8.148502E-3	-4.358754E-3	-1.693483E-3	-1.465790E-3	-1.200343E-2	-8.639977E-3	-2.957353E-3	4.775982E-4	-7.442018E-3	-2.937439E-3	-8.315226E-4	-6.116129E-3	-6.263065E-3	6.144536E-4	3.331660E-3	9.234260E-4	-6.508471E-3	5.793889E-4	-8.750778E-3	-9.492582E-3	-7.262761E-3	-1.194370E-2	-2.199746E-3	4.101624E-4	-1.373286E-2	1.880057E-3	-2.517821E-3	-4.845132E-3	-9.687814E-3	-2.020832E-3	9.032818E-3	-2.915467E-3	-5.964205E-3	1.844526E-8	-5.424863E-4	-1.276040E-3	-3.308476E-4	4.672170E-4	2.708262E-4	-3.129978E-3	-5.950540E-3	-1.863899E-3	1.381300E-3	-4.673236E-4	-2.117154E-3	-1.414054E-2	-1.071842E-3	-2.873460E-3	-5.782828E-3	-6.630623E-3	-4.188298E-3	-9.403321E-4	-5.896698E-3	2.476446E-3	-2.382395E-3	5.767088E-3	-9.859849E-3	-7.439350E-3	-5.408983E-3	-1.045567E-2	-6.974278E-4	-6.383707E-3	-3.556242E-3	-1.656275E-3	-9.301696E-3	-2.577480E-3	2.250815E-4	-1.172791E-2	-1.101760E-2	-8.084303E-3	-5.088360E-3	-5.248876E-3	-7.786593E-3	-9.371989E-4	-6.610667E-3	-4.905118E-3	-6.006697E-3	-2.195428E-3	4.213645E-3	-5.270223E-3	-5.210619E-3	-8.218153E-3	7.130247E-3	3.839396E-3	-3.648462E-4	-7.568972E-3	-6.382340E-3	-6.779906E-3	-5.515889E-4	-9.460666E-3	-7.444750E-3	-6.818693E-3	1.168815E-3	-4.899713E-3	-2.728072E-3	-1.584378E-3	3.171072E-3	-1.283905E-2	-5.747834E-3	6.793096E-3	-5.952834E-3	-5.396685E-3	7.971991E-3	-3.133895E-3	-1.602505E-2	-2.106442E-3	-3.916323E-3	-7.566041E-3	-7.854782E-4	1.263618E-8	-1.124088E-2	-1.242317E-2	-4.511834E-3	-3.501018E-3	-2.075777E-3	-2.836883E-3	-1.865031E-3	-6.486488E-3	-4.093885E-3	3.875184E-3	1.008072E-2	-1.311023E-2	7.998789E-3	1.174357E-3	-9.877861E-3	-3.971890E-3	3.355030E-3	-2.249639E-3	3.339133E-3	-6.120595E-4	-5.052492E-3	-3.258299E-4	-1.622091E-8	-3.744736E-3	-7.348619E-3	2.415648E-3	-9.768236E-3	-2.072453E-3	1.493269E-3	-1.190004E-2	2.400016E-3
2.795020E+2	-5.734784E-3	2.397719E-3	-1.574967E-2	-2.309474E-3	3.257377E-3	3.300126E-3	-5.378617E-3	-8.021863E-4	-9.723012E-4	2.909805E-3	1.131335E-3	-6.943943E-3	-6.559547E-3	3.019768E-4	-2.571189E-3	4.672292E-3	8.480195E-3	-1.546970E-3	-1.618362E-3	3.772488E-3	-1.364381E-3	4.525509E-3	-5.112522E-3	2.245690E-3	-4.287780E-3	2.733208E-3	-2.153333E-3	-3.371185E-3	-3.816509E-3	-1.045360E-3	1.164082E-3	3.962635E-4	2.540217E-3	-4.816073E-3	-2.572179E-3	1.920008E-3	-2.957383E-3	-1.174896E-2	-6.566475E-3	-1.196731E-3	2.494487E-3	-3.346535E-3	4.818033E-4	3.563959E-3	9.086224E-4	-1.539007E-3	9.297412E-4	5.794595E-4	7.562436E-4	-3.430704E-4	3.045622E-3	-8.159561E-3	-4.495183E-3	4.101574E-4	-3.745378E-3	-6.475854E-3	-4.196404E-3	-2.202361E-3	6.458567E-4	-2.020788E-3	9.134553E-4	-8.513131E-3	9.619779E-4	7.559236E-4	-5.424333E-4	2.807274E-3	4.080440E-3	-7.942681E-3	-4.784970E-3	1.878013E-3	-2.609888E-3	-9.319857E-4	-5.418815E-3	-3.271016E-3	-2.117142E-3	3.502681E-3	-5.359061E-3	9.809489E-3	-3.212696E-3	7.242692E-3	1.825679E-3	5.746555E-3	-9.747689E-3	-3.467038E-3	-2.382349E-3	-3.136500E-3	-9.859871E-3	3.773646E-3	-2.759658E-3	-6.325060E-3	-1.278577E-2	-1.741009E-3	2.301110E-3	-1.452381E-8	-3.639786E-3	-8.129022E-3	1.125345E-3	4.690666E-4	-4.590646E-3	3.499178E-3	-2.127835E-3	-7.929093E-3	9.516914E-3	-5.935654E-3	-3.361350E-4	-3.422133E-4	-3.337066E-3	2.426517E-3	-4.008077E-3	-5.270212E-3	2.962915E-3	-7.471087E-4	-1.150034E-3	2.879505E-3	-9.121506E-3	-4.639053E-3	-3.240282E-3	-7.654736E-3	-5.847088E-3	-3.638693E-3	1.181437E-4	-4.179184E-3	-3.931575E-3	1.256047E-4	9.093566E-4	-4.753110E-3	-3.544143E-3	-2.027249E-3	-8.560113E-4	-1.191581E-2	-3.095489E-3	1.951994E-3	-2.813556E-4	-4.924662E-3	-4.531220E-3	-7.161874E-3	-1.230793E-3	5.470801E-3	5.498430E-3	-1.841332E-3	-6.832710E-3	-2.003763E-3	6.239787E-3	-1.945038E-3	6.919446E-4	7.564988E-3	-2.693924E-3	1.853304E-3	3.275082E-3	-2.700884E-3	-7.274642E-4	-5.938833E-3	6.196259E-3	-2.583589E-3	-5.629348E-3	-1.203160E-4	-3.470536E-4	-7.157937E-3	-8.872633E-3	-5.508356E-3	-3.332508E-3	-1.194616E-3	-1.849899E-3	9.362383E-4	-4.371920E-3	4.172443E-3	1.264134E-3	1.480315E-3	2.986564E-3	4.760001E-3	-2.400001E-3
2.800030E+2	4.564397E-3	1.484278E-3	-7.812805E-3	-4.362286E-3	-5.339984E-8	-7.000598E-4	-6.294116E-3	1.145932E-4	2.484755E-3	-4.849664E-3	3.599717E-3	-9.631902E-3	4.848324E-3	-1.308679E-3	9.752845E-4	-1.557433E-3	-7.328736E-4	5.524888E-3	4.045875E-3	3.772410E-3	-6.366950E-4	5.028098E-4	4.069100E-3	-2.041910E-4	-2.041789E-4	-6.517623E-3	5.229521E-3	1.623202E-3	7.432197E-3	-1.881673E-3	-5.283098E-3	-2.773729E-3	1.693510E-3	3.559669E-3	-5.144320E-3	1.919967E-3	-8.698012E-4	-2.579042E-3	-1.313336E-3	-3.807802E-3	-3.325952E-3	-2.423320E-3	1.445282E-3	-3.318165E-3	-2.322032E-3	1.744215E-3	6.715109E-3	4.442118E-3	-7.022231E-3	-1.132250E-2	-7.262733E-3	2.246852E-3	3.921312E-3	4.101624E-4	-2.837352E-3	2.715671E-3	-5.035675E-3	2.202299E-3	4.951572E-3	-7.409630E-3	-8.017860E-3	-5.714265E-3	-5.194640E-3	-7.559531E-3	6.400765E-3	-2.552068E-4	-4.742135E-3	5.139373E-3	3.159911E-3	-2.295380E-3	-1.430209E-2	-1.304754E-2	3.081309E-3	8.878564E-3	7.057159E-4	9.729743E-3	6.431042E-4	-4.458861E-3	3.641064E-3	-4.998493E-3	2.684820E-3	-9.403423E-4	1.805136E-3	2.476434E-3	-4.669497E-3	-3.136465E-3	-8.046576E-3	1.185993E-3	7.727426E-4	-4.259744E-3	-5.346776E-3	-3.598114E-3	1.464309E-3	-3.312636E-3	2.022123E-3	-5.749777E-3	8.327773E-3	-1.407360E-3	1.836236E-3	-1.194547E-2	8.326215E-4	3.685383E-3	-4.325890E-3	-2.603340E-3	-1.232458E-3	-5.817743E-3	1.112419E-3	-3.466421E-4	-7.296749E-3	-1.963421E-3	-9.297408E-3	2.988443E-3	-2.070066E-3	-8.638598E-3	2.554036E-3	6.104047E-3	-4.025776E-3	-6.779906E-3	-6.729660E-3	2.183239E-3	2.008928E-3	2.199689E-4	-2.231458E-3	-3.894587E-3	3.637455E-3	9.506213E-3	-1.305725E-3	4.923206E-3	-4.769447E-3	-2.115882E-3	-1.190546E-3	2.870598E-3	-2.813831E-4	5.820055E-3	-4.531198E-3	-5.476731E-3	-5.706628E-3	-9.428444E-3	-3.478586E-3	1.841352E-3	-3.306165E-3	7.614229E-3	-4.511853E-3	1.167001E-3	-1.153233E-3	-2.836883E-3	6.423998E-3	-2.779939E-3	6.243178E-9	1.174031E-4	-7.274439E-4	1.736822E-2	-1.013924E-3	2.348720E-4	-1.380717E-3	-3.971890E-3	5.784715E-4	4.294742E-3	-6.582927E-3	-6.120445E-4	-3.332498E-3	-2.063503E-3	8.324345E-3	-4.680935E-3	8.371943E-4	-2.195732E-4	-3.332692E-3	7.401562E-3	-5.973130E-3	1.904013E-2	-1.680002E-2
2.805050E+2	-6.671092E-3	-3.082777E-3	1.240233E-4	-2.309492E-3	-1.302933E-2	3.300111E-3	-8.010894E-4	1.031384E-3	-7.886503E-3	3.232836E-4	-2.159816E-3	4.703938E-3	-1.996415E-3	2.718032E-3	-4.432817E-4	-6.229698E-3	-1.570376E-3	3.756916E-3	-1.618342E-3	2.857894E-3	-5.002556E-3	-3.519860E-3	4.903834E-3	2.245661E-3	-1.020897E-3	-7.358620E-3	-6.254925E-3	-4.370077E-3	-3.013064E-3	-6.063122E-3	-2.686396E-4	-3.566258E-3	5.080451E-3	-2.303300E-3	4.576307E-8	2.879988E-3	-1.739619E-4	3.534211E-3	-3.064309E-3	-2.937476E-3	-1.247228E-2	-3.346541E-3	4.335947E-3	-3.318165E-3	1.009761E-4	-1.539007E-3	-7.231584E-4	-3.283335E-3	-2.700845E-3	-3.087952E-3	-2.577127E-3	-2.483340E-3	-6.025450E-3	-8.613624E-3	2.610393E-3	-6.475849E-3	8.392940E-4	-4.404561E-4	-1.937591E-3	-1.122682E-3	5.785020E-3	5.481053E-3	2.501127E-3	4.535721E-3	2.929169E-3	-4.338590E-3	-1.091791E-2	1.401648E-3	-1.895938E-3	-4.799307E-3	-7.620811E-3	9.319771E-4	5.312367E-4	5.140192E-3	2.587633E-3	3.891756E-4	4.072902E-3	-1.159295E-2	-6.425230E-4	3.162269E-3	2.684746E-3	-6.791362E-3	-8.784969E-3	4.457680E-3	-1.620033E-3	-8.802422E-3	2.833295E-3	1.185956E-3	4.305122E-3	1.226286E-2	3.022102E-3	-6.383735E-3	-3.556212E-3	1.656276E-3	-4.044454E-4	6.146287E-3	2.250486E-4	3.283844E-3	-8.263225E-3	-3.619820E-4	5.273368E-3	-7.929125E-3	-3.460716E-3	1.562013E-3	-5.714283E-3	-6.730261E-3	-1.557250E-3	-6.817378E-3	-4.008087E-3	2.996823E-3	5.108512E-4	-4.482642E-3	3.450111E-3	-9.598465E-3	-2.310736E-3	-2.685792E-3	6.971492E-3	-2.405744E-3	7.391605E-3	3.153514E-3	1.181437E-4	-5.938865E-3	-9.882037E-3	1.256477E-4	5.456166E-3	1.872524E-8	-6.528603E-3	-1.254938E-3	-8.560889E-4	4.120452E-3	1.666758E-3	1.951983E-3	-1.031640E-3	6.715441E-3	7.735779E-4	-2.949013E-3	8.615827E-3	8.147891E-4	7.293819E-3	-9.828142E-9	1.983692E-3	2.805221E-3	-1.439960E-3	3.889996E-4	8.072538E-3	-1.229315E-2	-4.351722E-3	-4.633177E-3	-7.368991E-3	-8.337544E-3	-1.153565E-2	-3.249525E-3	-1.013957E-3	-3.523069E-3	3.717444E-3	-4.934829E-3	-1.052795E-2	5.930891E-3	7.155352E-3	1.020079E-3	3.547506E-3	7.493743E-3	-5.549553E-3	-6.553286E-3	1.581328E-3	-7.246891E-3	5.860926E-3	2.664576E-3	2.986555E-3	-7.140040E-3	-2.399972E-3
2.810070E+2	-1.053339E-3	-5.823061E-3	1.500560E-2	-1.283046E-3	4.071677E-3	-3.900128E-3	8.353993E-3	-4.469226E-3	4.213365E-3	8.082736E-3	-1.337067E-3	6.495964E-3	2.852247E-4	3.523382E-3	2.393838E-3	3.114842E-3	1.046897E-4	1.988981E-3	3.236722E-3	-2.629252E-3	4.456843E-3	-5.933430E-3	8.242643E-3	-1.000341E-2	3.062664E-3	-1.471757E-3	2.768583E-3	-6.367825E-3	1.807869E-3	-2.090770E-4	4.745806E-3	2.773741E-3	2.540237E-3	2.722163E-3	6.859093E-3	-9.599851E-4	-5.740808E-3	9.647514E-3	5.690905E-3	-3.807780E-3	1.662968E-3	-1.500173E-3	-3.372400E-3	-5.284534E-3	2.523969E-3	1.025918E-4	-1.146733E-2	-9.656481E-4	-1.080009E-4	5.718584E-4	5.857108E-3	-1.537307E-3	-6.694742E-4	-7.793301E-3	-1.135018E-4	1.044503E-3	2.517816E-3	1.321406E-3	6.458987E-4	-2.020777E-3	-3.146241E-3	5.481065E-3	5.579419E-3	-1.511912E-3	-4.881937E-3	2.807349E-3	-3.859860E-3	2.336108E-3	-1.895916E-3	-7.303321E-3	9.917494E-3	-1.863939E-3	5.312574E-4	-7.009354E-3	5.410468E-3	6.616212E-3	6.431094E-4	5.053315E-3	-4.069398E-3	3.162314E-3	9.665283E-4	1.567212E-3	5.656045E-3	4.457620E-3	3.716529E-3	-7.082582E-4	-7.139898E-3	-2.264197E-3	-1.104303E-4	-9.422993E-3	-1.627280E-3	1.973179E-3	5.648127E-3	1.656362E-3	-1.213242E-3	3.767105E-3	1.125416E-3	-1.078969E-2	7.345082E-3	-1.327263E-3	8.233910E-3	1.083269E-2	-4.325853E-3	-8.434846E-3	1.456572E-3	1.060877E-2	2.224247E-4	-5.893000E-3	-7.296779E-3	-6.923659E-3	-6.845360E-3	7.471110E-4	-9.430355E-3	-6.718934E-3	9.364676E-3	6.103999E-3	6.873278E-4	2.186715E-4	-4.081921E-3	-1.698060E-3	2.008893E-3	1.979602E-3	-6.481750E-3	2.135789E-3	-2.728100E-3	-5.545306E-3	-8.020903E-3	7.240060E-3	1.100614E-3	-3.897708E-3	4.524196E-3	1.033401E-3	-8.534734E-3	-3.133851E-3	-1.104957E-4	7.161866E-3	-3.916273E-3	-1.978836E-3	-8.864759E-3	-6.444704E-3	3.746972E-3	2.805231E-3	-1.439950E-3	-3.501042E-3	-9.456444E-3	-1.891265E-3	-3.522848E-3	-1.837066E-8	-2.456334E-3	-2.700867E-3	4.260918E-3	6.611180E-3	-1.915211E-3	-2.583572E-3	-8.178429E-3	-2.046088E-3	-1.272601E-3	-6.135453E-4	-4.293169E-3	-6.119947E-4	6.987480E-3	-2.932342E-3	-5.549581E-3	4.680912E-3	5.302143E-3	6.588053E-4	-4.252060E-3	-8.881993E-4	7.466420E-3	4.760001E-3	-1.200004E-2
2.815020E+2	1.755549E-3	4.224563E-3	-1.860205E-3	1.796244E-3	4.071677E-3	-2.300104E-3	-1.716599E-3	3.781689E-3	-4.429384E-3	3.233414E-4	3.599732E-3	8.287946E-3	2.566814E-3	1.107307E-3	6.649506E-3	2.336162E-3	-1.570411E-3	-5.966848E-3	-4.045872E-3	-3.543796E-3	2.273883E-3	5.028981E-4	2.399739E-3	1.429103E-3	-5.104469E-3	3.574185E-3	1.127934E-3	9.614131E-3	9.039167E-3	6.272413E-4	-1.701365E-3	6.736224E-3	-5.927213E-3	-4.816104E-3	5.144317E-3	-2.880010E-3	8.176232E-3	-2.864908E-4	-5.690884E-3	-1.196720E-3	1.080931E-2	-2.423377E-3	1.300790E-2	1.597698E-3	-7.067293E-4	2.565080E-3	9.297815E-4	2.124492E-3	1.620520E-3	-2.172978E-3	-1.639984E-3	3.192840E-3	6.981841E-3	4.511914E-3	-1.134575E-4	2.715687E-3	9.232040E-3	-1.321360E-3	-7.104418E-3	-2.020838E-3	9.133958E-4	2.682227E-3	1.731533E-3	-3.779775E-3	-1.410293E-3	7.656265E-4	5.514270E-4	-5.139393E-3	-1.895920E-3	3.547291E-3	2.401102E-3	3.727870E-3	-4.568783E-3	-8.878514E-3	-2.352367E-4	-4.799982E-3	1.500530E-3	2.675292E-3	-5.782822E-3	7.140946E-4	-7.517734E-4	2.403078E-3	8.423989E-4	-4.952594E-4	1.429450E-3	1.143298E-2	1.280653E-2	-5.714266E-3	-3.642809E-3	6.066862E-3	1.232083E-2	5.687327E-3	-1.045969E-3	-2.484511E-3	4.448618E-3	2.974057E-3	-8.777851E-3	8.913233E-3	9.181217E-4	1.568592E-3	-2.868002E-3	1.005107E-3	7.786628E-3	6.560423E-3	-5.714300E-3	-3.079992E-3	1.112333E-3	-4.044214E-3	2.569287E-3	2.996767E-3	4.597581E-3	4.482658E-3	-2.070082E-3	-2.879535E-3	-1.301334E-2	2.197423E-3	3.829405E-3	5.467674E-3	3.861262E-3	3.153555E-3	-2.717905E-3	1.099753E-3	7.969390E-3	-4.899719E-3	-1.818747E-3	-7.921919E-4	3.917186E-3	2.606466E-3	4.035680E-3	8.574890E-3	-8.810225E-3	-5.396713E-3	-1.031636E-3	1.343086E-3	3.426052E-3	2.948985E-3	-3.356625E-4	-1.163587E-4	-1.683197E-3	-2.762015E-3	1.983665E-3	2.003737E-3	-2.207905E-3	4.279060E-3	-8.533867E-3	2.836885E-3	1.450590E-3	2.779937E-3	3.275102E-3	-1.761476E-3	-4.053078E-3	4.818268E-3	-1.002666E-2	2.113894E-3	1.306426E-2	2.768284E-3	5.206137E-3	2.658688E-3	-4.293225E-3	-4.692264E-3	1.827517E-3	1.411885E-3	-2.774785E-3	9.361470E-4	2.325539E-3	-2.196268E-4	4.022241E-3	-8.881993E-4	-1.493292E-3	-9.520042E-3	1.199999E-2
2.820040E+2	-1.170427E-4	-3.425369E-4	4.092401E-3	5.901937E-3	-2.442965E-3	5.700199E-3	5.607547E-3	-3.552447E-3	5.077599E-3	-8.298318E-3	2.776903E-3	-8.735930E-3	2.566809E-3	-2.919330E-3	5.230944E-3	7.787447E-4	-7.328430E-4	-8.618801E-3	3.236697E-3	1.028812E-3	8.185964E-4	3.720940E-3	-4.277793E-3	6.124660E-4	7.146270E-3	-2.312683E-3	-3.793957E-3	2.622051E-3	-1.406104E-3	3.972403E-3	1.880464E-3	-1.188728E-3	-5.080460E-3	-3.978501E-3	8.573999E-4	2.880017E-3	3.305340E-3	4.298379E-3	8.317502E-3	7.506806E-3	7.483367E-3	6.808474E-3	-5.299522E-3	4.547126E-3	-1.514390E-3	-3.180695E-3	5.062169E-3	5.794171E-4	5.941837E-3	1.795583E-2	3.982828E-3	1.300824E-3	8.607786E-4	9.433993E-3	4.426272E-3	1.880093E-3	8.393043E-4	-3.083238E-3	9.257250E-3	6.062439E-3	-7.104707E-4	-8.513131E-3	-2.116338E-3	2.267886E-3	-1.410325E-3	-2.552628E-4	5.844903E-3	-4.672142E-4	6.771189E-3	6.885995E-3	1.565903E-3	5.591805E-3	5.631282E-3	7.943935E-3	4.469538E-3	-2.724305E-3	-2.143951E-4	2.972413E-4	4.497787E-3	-9.180897E-4	1.074404E-4	7.313705E-4	7.581531E-3	-5.448217E-3	-3.144763E-3	-6.374141E-3	8.273236E-3	7.223741E-3	3.421976E-3	9.035557E-4	-4.416901E-3	9.401487E-3	-3.556227E-3	-1.656285E-3	5.257469E-3	-2.577475E-3	3.826194E-3	9.851452E-3	1.009948E-2	3.499167E-3	-4.348219E-3	1.898527E-3	-8.576062E-9	1.239197E-2	5.938370E-3	4.220681E-3	2.002213E-3	7.972897E-3	2.569287E-3	7.957010E-3	9.501788E-3	2.988397E-3	-1.150023E-3	1.055829E-2	1.325658E-2	3.174099E-3	6.872942E-4	1.159143E-2	5.626423E-3	4.123901E-3	5.790369E-3	3.739332E-3	8.819472E-3	7.161107E-3	2.728124E-3	7.921811E-4	5.409399E-3	-1.254943E-3	7.949122E-3	5.568217E-4	7.143391E-4	2.870604E-3	1.219223E-3	1.029696E-2	9.615026E-3	-1.263871E-3	9.510996E-3	9.195659E-3	3.702986E-3	7.365368E-3	-6.612153E-4	-4.007452E-4	-1.439960E-3	1.166992E-3	2.537094E-3	4.728173E-3	1.450585E-3	9.266394E-3	4.912668E-3	8.572413E-3	-7.274997E-4	-3.249547E-3	-1.126589E-4	2.348663E-4	-5.310576E-4	1.239710E-2	1.503991E-3	-7.157942E-3	5.628886E-3	5.916371E-3	-5.052498E-3	5.430039E-4	-1.849843E-3	5.617110E-3	3.069668E-3	2.415632E-3	-1.493963E-3	1.480337E-3	-5.973139E-3	2.379999E-3	2.160000E-2
2.825030E+2	1.755561E-3	1.484323E-3	1.103712E-2	8.981308E-3	2.442957E-3	3.300136E-3	7.438506E-3	1.203250E-2	7.562507E-4	3.233362E-4	-3.805390E-3	2.239964E-4	-4.753436E-4	1.912721E-3	-1.861826E-3	1.557391E-3	-1.570401E-3	1.988921E-3	3.236663E-3	5.601487E-3	8.186452E-4	5.028294E-4	-9.390345E-4	1.041167E-2	-5.921172E-3	1.366600E-2	6.049810E-3	2.622045E-3	4.218254E-3	1.463519E-3	7.611253E-3	1.981240E-3	8.467410E-4	1.109794E-2	6.859077E-3	2.879993E-3	1.217734E-3	-3.343210E-3	1.006861E-2	8.377142E-3	-5.820372E-3	1.234760E-2	-4.335949E-3	1.597626E-3	-2.322076E-3	9.233960E-4	5.062154E-3	-4.055892E-3	1.026325E-2	7.891395E-3	5.857045E-3	1.738339E-2	1.625921E-3	1.230535E-3	1.350589E-2	2.715692E-3	-1.678555E-3	8.368843E-3	3.229247E-3	1.055311E-2	-4.770117E-3	1.201165E-2	2.501127E-3	5.291668E-3	-5.424598E-4	-2.551507E-4	9.373985E-3	4.204942E-3	2.708174E-4	5.216686E-3	1.659883E-2	7.455710E-3	-1.168787E-3	-2.336484E-3	-8.703822E-3	1.427017E-3	-2.143480E-4	1.089935E-3	1.135142E-2	-1.734164E-3	-3.329142E-3	-1.776178E-3	8.544245E-3	-4.457667E-3	9.053058E-3	4.957718E-3	1.099314E-2	2.048477E-3	3.422040E-3	1.123019E-2	9.531224E-3	1.044573E-3	2.301104E-3	5.797083E-3	2.830960E-3	6.146306E-3	-6.077007E-3	1.407366E-3	3.672553E-3	1.315208E-2	9.251752E-5	3.685383E-3	2.595519E-3	-2.603366E-3	1.221290E-2	6.045879E-3	6.451622E-3	8.897248E-3	1.325747E-2	5.476914E-3	3.780253E-3	2.241294E-3	5.290202E-3	1.055834E-2	-3.648640E-4	-2.685751E-3	1.472879E-3	6.342515E-3	3.309673E-4	2.183210E-3	1.181783E-4	9.898086E-3	4.569144E-3	4.145870E-3	-5.456182E-3	2.376573E-3	6.901718E-3	2.606452E-3	-8.560352E-4	-2.115860E-3	1.214380E-2	1.148186E-4	1.969535E-3	-1.298314E-2	1.138331E-2	8.847080E-3	-3.021142E-3	3.608431E-3	-1.683214E-3	1.841329E-3	1.432664E-2	-4.007452E-4	9.311675E-3	1.945046E-3	9.917745E-3	4.728133E-3	3.108352E-3	-1.271815E-8	2.456352E-3	2.935770E-3	3.429496E-3	-3.249525E-3	-1.126369E-4	4.932240E-3	8.815704E-3	-1.203747E-4	1.503980E-3	4.294742E-3	7.918583E-3	5.100269E-3	4.407493E-3	-2.932342E-3	9.249332E-3	2.808549E-3	-1.395334E-3	-1.976437E-3	7.699649E-3	-9.177939E-3	-1.493247E-3	-2.380006E-3	-2.399972E-3
2.830040E+2	1.111854E-2	1.484278E-3	7.068774E-3	-3.335883E-3	8.143066E-4	7.300282E-3	1.659350E-2	9.282176E-3	-9.722959E-4	6.358433E-3	1.100483E-2	-6.720356E-4	4.848380E-3	1.318747E-2	1.303307E-2	4.672335E-3	6.805079E-3	2.872913E-3	8.900866E-3	7.430558E-3	2.273923E-3	-3.016711E-4	1.658958E-2	7.961881E-3	1.041311E-2	2.733208E-3	6.870169E-3	5.618648E-3	1.064612E-2	1.463575E-3	5.462206E-3	9.906240E-3	1.693510E-3	1.046968E-3	1.543296E-2	4.800006E-3	-2.957374E-3	-1.174895E-2	-6.566486E-3	1.708072E-2	1.164079E-2	4.038953E-3	6.263017E-3	8.479786E-3	8.985351E-3	1.159413E-2	1.993868E-2	9.077384E-3	-5.293679E-3	5.146519E-3	4.920045E-3	1.454532E-2	3.921335E-3	1.107466E-2	1.702417E-3	5.222500E-3	5.874956E-3	5.726012E-3	6.458462E-4	9.654903E-3	-2.334342E-3	8.279857E-3	9.620248E-4	2.267868E-3	3.797018E-3	5.869824E-3	-3.308099E-4	5.139418E-3	1.616061E-2	1.878008E-3	4.906525E-3	8.387709E-3	-1.168735E-3	1.915890E-2	-2.352310E-4	6.616200E-3	8.360132E-3	2.090695E-2	1.306491E-2	6.426578E-3	-2.470038E-3	1.912029E-2	1.335796E-2	1.040121E-2	6.765984E-3	-2.327061E-3	1.019989E-3	1.185961E-3	2.538851E-3	5.034220E-3	8.601269E-3	1.160624E-4	1.150549E-2	8.281518E-3	1.658132E-2	5.353229E-3	6.527148E-3	3.283844E-3	9.181276E-3	-3.257843E-3	2.312866E-3	1.116652E-4	8.651739E-3	1.655734E-2	3.249328E-3	4.220664E-3	1.090104E-2	5.777198E-4	1.027793E-4	6.303630E-3	2.145532E-3	2.241299E-3	4.370170E-3	-1.919691E-3	1.228358E-2	1.098719E-2	1.482664E-2	8.966978E-3	5.626444E-3	4.123883E-3	5.790340E-3	6.378776E-3	5.419174E-3	1.319153E-2	7.274895E-3	4.753094E-3	9.140068E-3	8.784653E-3	9.905849E-3	9.465838E-3	2.619247E-3	7.463576E-3	3.470168E-3	1.387850E-2	7.846798E-3	-1.263835E-3	7.720750E-3	7.333272E-3	1.716849E-2	5.524029E-3	-5.069414E-3	-2.003777E-3	1.631947E-3	6.613046E-3	9.917711E-3	6.619427E-3	1.450615E-3	8.339705E-3	2.456347E-3	3.875213E-3	1.091216E-2	2.129015E-3	4.393723E-3	2.113865E-3	2.867770E-3	2.768290E-3	7.057204E-3	1.411140E-2	1.173478E-2	8.364496E-3	-7.524904E-4	1.270678E-2	1.202409E-2	1.778752E-2	9.022971E-3	-2.854821E-3	1.264167E-3	1.095426E-2	5.973089E-3	1.428004E-2	-2.160001E-2
2.835040E+2	2.329024E-2	1.061848E-2	1.897401E-2	2.129844E-2	1.384364E-2	2.010071E-2	9.269464E-3	8.365503E-3	1.458462E-2	1.411792E-2	9.359266E-3	2.083173E-2	1.045723E-3	1.479816E-2	1.090525E-2	7.787164E-3	5.967510E-3	1.348061E-2	6.473395E-3	1.840491E-2	6.639784E-3	7.743609E-3	9.077306E-3	8.778504E-3	-1.020842E-3	9.461042E-3	1.507331E-2	1.560743E-2	9.039177E-3	-4.390562E-3	-1.701326E-3	1.624619E-2	7.620628E-3	8.585173E-3	1.286081E-2	1.247999E-2	8.872152E-3	-1.050766E-3	8.317491E-3	1.011788E-2	1.829268E-2	2.157942E-2	1.493494E-2	1.929454E-2	3.331650E-3	1.487736E-2	1.497984E-2	1.294016E-2	8.534645E-3	9.721359E-3	9.605606E-3	1.832946E-2	9.277320E-3	9.433923E-3	1.441379E-2	4.386885E-3	9.232096E-3	5.725964E-3	1.184068E-2	5.164261E-3	2.202371E-2	3.615192E-3	6.349026E-3	6.803626E-3	1.074027E-2	8.932355E-3	-1.213063E-3	7.008264E-3	1.543832E-2	1.857130E-2	2.160974E-2	9.319633E-3	1.498145E-2	7.009347E-3	8.233383E-3	-1.686501E-3	5.787802E-3	9.016777E-3	3.641028E-3	2.029992E-2	1.041705E-2	1.744851E-2	4.693319E-3	8.420045E-3	1.362726E-2	1.548008E-2	2.912616E-2	1.584904E-2	1.843466E-2	1.329545E-2	1.139095E-2	1.033001E-2	7.321661E-3	1.159421E-2	1.900786E-2	1.566321E-2	7.427471E-3	1.266615E-2	1.652638E-2	4.464507E-3	1.563506E-2	4.578781E-3	2.335979E-2	9.892691E-3	1.759107E-2	1.334647E-2	1.357066E-2	8.897281E-3	9.968820E-3	7.956965E-3	2.962920E-3	1.419496E-2	1.357051E-2	-2.927531E-9	1.033764E-2	-7.325072E-4	1.404116E-2	1.246626E-2	2.151284E-2	4.123936E-3	7.681107E-3	1.099769E-3	2.072041E-2	5.150965E-3	6.365525E-3	1.822021E-2	1.287071E-2	5.695522E-3	1.871098E-2	1.837484E-2	2.547816E-2	1.951999E-3	7.221674E-3	3.536791E-2	1.491991E-2	2.949041E-3	1.040620E-2	4.539630E-3	1.896392E-2	9.206634E-3	2.137978E-2	1.242316E-2	4.703854E-3	1.128115E-2	1.545326E-2	9.456282E-3	9.739558E-3	1.389958E-2	1.310042E-2	1.045133E-2	1.590049E-2	1.019688E-2	1.250514E-2	2.113854E-3	1.646303E-2	2.395181E-2	1.631246E-2	7.566960E-3	1.326123E-2	2.652133E-3	1.128751E-2	1.791988E-2	1.294890E-2	9.361698E-4	1.199962E-2	4.172459E-3	9.538418E-3	-8.881704E-4	8.959687E-3	4.760001E-3	2.399957E-3
2.840020E+2	1.299104E-2	2.249287E-2	3.980819E-2	1.719271E-2	1.058633E-2	1.850062E-2	2.025558E-2	2.395050E-2	2.149876E-2	2.273950E-2	2.005556E-2	6.495915E-3	2.918532E-2	2.687831E-2	1.516091E-2	2.336146E-2	2.188103E-2	1.104973E-3	2.670261E-2	2.572115E-2	1.755451E-2	1.015725E-2	1.575488E-2	1.612793E-2	1.122981E-2	1.787092E-2	1.589366E-2	1.061301E-2	2.269838E-2	1.818945E-2	1.907291E-2	1.466120E-2	2.794241E-2	6.072462E-3	1.629040E-2	1.056008E-2	6.784524E-3	1.041169E-2	5.690970E-3	2.665463E-2	9.977781E-3	1.880983E-2	1.878924E-2	6.513471E-3	1.140837E-2	5.027527E-3	1.745922E-2	5.794407E-4	2.668447E-2	1.338115E-2	1.522848E-2	1.549129E-2	1.386810E-2	9.434023E-3	1.532176E-2	2.527676E-2	1.594627E-2	1.453533E-2	6.673865E-3	1.684008E-2	9.844716E-3	1.481042E-2	1.943177E-2	1.209524E-2	2.028717E-2	2.628672E-2	1.643204E-2	7.008281E-3	1.832740E-2	9.390003E-3	1.743393E-2	2.423115E-2	9.031376E-3	1.822433E-2	2.893444E-2	5.578421E-3	1.436225E-2	1.694359E-2	3.105594E-2	3.335712E-2	8.698792E-3	1.661268E-2	2.491074E-2	2.823179E-2	9.053076E-3	1.062360E-2	2.005969E-2	1.929917E-2	1.225295E-2	1.639347E-2	1.232082E-2	1.218705E-2	3.075097E-2	1.076606E-2	1.334591E-2	6.146321E-3	2.183210E-2	2.580146E-2	2.846217E-2	1.894378E-2	1.489498E-2	2.244722E-2	3.374190E-2	2.405498E-2	1.938381E-2	2.794784E-2	1.624030E-2	1.536801E-2	1.736840E-2	1.622405E-2	1.440590E-2	1.793051E-2	2.001074E-2	1.919689E-2	1.617545E-2	1.684708E-2	2.189640E-2	1.596559E-2	2.680835E-2	1.091619E-2	1.335337E-2	2.045606E-2	1.051960E-2	1.319150E-2	1.545921E-2	2.059675E-2	7.647800E-3	2.036878E-2	3.240799E-2	2.728383E-2	3.786017E-2	7.463564E-3	1.772594E-2	2.910014E-2	2.906610E-2	1.221741E-2	2.830930E-2	1.571409E-2	3.332709E-2	8.286024E-3	1.697158E-2	1.162167E-2	1.622350E-2	6.613060E-3	1.360812E-2	7.565022E-3	3.046210E-2	2.131272E-2	1.146286E-2	3.017966E-2	1.922609E-2	1.467902E-2	2.512295E-2	1.620605E-2	2.496015E-2	8.545612E-3	1.353590E-2	2.065576E-2	1.707740E-2	1.489284E-2	1.988747E-2	1.444448E-2	2.497302E-2	9.361864E-3	1.348794E-2	2.525440E-2	2.792567E-2	-5.625185E-3	2.239921E-2	7.140003E-3	2.640004E-2
2.841030E+2	2.984435E-2	3.345387E-2	2.889504E-2	3.464201E-2	2.035825E-2	1.850065E-2	3.490366E-2	3.128462E-2	2.582012E-2	1.756654E-2	2.252393E-2	2.799973E-2	2.158002E-2	2.607293E-2	1.799803E-2	2.024665E-2	2.523116E-2	1.966855E-2	2.022924E-2	2.755023E-2	3.792861E-2	2.624789E-2	3.328348E-2	2.184423E-2	3.573129E-2	3.469061E-2	2.983901E-2	3.258835E-2	1.466357E-2	2.404355E-2	2.623645E-2	3.130360E-2	2.286199E-2	2.114894E-2	2.486423E-2	2.880006E-2	2.070164E-2	2.110994E-2	2.407710E-2	1.969176E-2	1.995562E-2	6.808491E-3	2.746113E-2	1.339558E-2	3.644620E-2	2.144397E-2	2.407107E-2	1.912060E-2	3.532717E-2	3.716975E-2	3.115972E-2	1.359928E-2	2.534514E-2	3.732569E-2	1.168995E-2	1.524961E-2	2.937476E-2	2.774930E-2	2.131323E-2	2.402511E-2	2.121180E-2	1.947519E-2	1.866223E-2	1.965478E-2	3.070188E-2	3.445338E-2	3.231262E-2	2.663143E-2	1.254926E-2	2.524862E-2	3.246685E-2	2.795900E-2	1.668147E-2	2.570101E-2	4.116673E-2	2.737293E-2	3.837087E-2	3.121181E-2	2.591563E-2	2.111599E-2	2.674061E-2	4.085261E-2	1.143246E-2	2.526001E-2	2.430032E-2	2.357425E-2	2.912626E-2	2.016172E-2	3.521360E-2	1.329552E-2	2.347931E-2	2.611516E-2	3.326128E-2	1.573501E-2	3.518466E-2	2.121470E-2	7.427400E-3	3.143085E-2	1.836265E-2	9.290896E-3	2.303636E-2	3.316833E-2	4.239365E-2	3.655113E-2	2.924369E-2	3.707360E-2	2.246939E-2	2.646077E-2	2.147927E-2	2.118424E-2	2.993567E-2	2.166609E-2	3.197117E-2	2.783561E-2	3.076982E-2	3.052010E-2	2.425294E-2	3.346213E-2	2.416059E-2	1.576783E-2	3.320599E-2	2.133586E-2	3.687170E-2	3.329283E-2	1.818732E-2	2.931081E-2	2.107813E-2	2.886378E-2	2.458113E-2	3.084751E-2	2.547815E-2	2.399819E-2	2.222776E-2	3.089086E-2	3.613925E-2	2.317092E-2	3.457542E-2	2.130143E-2	3.422484E-2	2.117535E-2	1.432664E-2	2.604867E-2	1.622351E-2	1.983926E-2	2.375646E-2	2.458624E-2	2.631762E-2	2.038611E-2	1.637559E-2	3.111913E-2	3.335988E-2	1.736824E-2	2.151790E-2	2.278242E-2	2.411043E-2	4.224673E-2	2.464233E-2	2.392804E-2	2.242012E-2	2.305337E-2	1.128750E-2	1.965750E-2	2.867275E-2	1.497900E-2	2.018543E-2	2.261919E-2	3.528060E-2	1.569137E-2	1.493276E-2	2.380008E-2	2.639999E-2
2.842040E+2	2.703546E-2	4.350142E-2	4.576082E-2	5.106488E-2	2.524431E-2	3.290108E-2	4.588981E-2	3.678519E-2	4.483414E-2	4.170712E-2	3.157459E-2	4.502348E-2	3.298795E-2	4.620655E-2	2.438164E-2	2.959121E-2	3.025648E-2	4.353593E-2	2.913015E-2	3.303736E-2	2.337574E-2	2.866143E-2	1.909366E-2	3.246002E-2	4.063158E-2	3.384966E-2	4.132339E-2	4.057940E-2	2.591229E-2	1.735310E-2	3.698176E-2	3.685116E-2	3.471635E-2	3.455013E-2	4.458411E-2	3.360001E-2	2.278919E-2	3.104407E-2	2.582810E-2	3.274702E-2	5.404653E-2	5.666044E-2	3.613303E-2	2.322719E-2	3.563861E-2	2.062317E-2	3.150938E-2	3.148135E-2	3.791999E-2	2.802033E-2	5.271379E-2	3.441206E-2	3.758729E-2	5.127158E-2	2.984905E-2	3.279709E-2	3.524969E-2	1.893992E-2	4.198069E-2	2.671960E-2	3.420275E-2	3.253642E-2	4.021037E-2	4.157740E-2	4.198457E-2	5.589108E-2	2.878358E-2	3.223795E-2	2.843901E-2	4.611537E-2	4.332396E-2	5.032619E-2	3.113161E-2	4.626167E-2	4.304871E-2	2.737300E-2	2.636656E-2	2.328507E-2	3.876634E-2	3.417321E-2	3.275460E-2	6.007737E-2	5.475552E-2	5.695893E-2	4.183478E-2	3.571545E-2	4.091269E-2	3.309976E-2	3.697981E-2	5.253641E-2	4.765598E-2	4.004335E-2	4.330243E-2	3.478267E-2	3.194931E-2	3.152474E-2	4.343912E-2	2.861609E-2	3.488906E-2	2.280492E-2	3.487830E-2	3.048808E-2	5.018024E-2	2.905338E-2	3.551824E-2	5.441266E-2	3.047828E-2	2.276319E-2	3.463400E-2	4.763874E-2	2.993569E-2	2.764287E-2	2.001073E-2	4.127335E-2	4.147238E-2	4.028644E-2	2.189635E-2	4.483490E-2	4.622518E-2	3.711486E-2	2.280695E-2	3.805267E-2	4.027205E-2	3.429792E-2	2.728095E-2	4.594662E-2	3.823908E-2	3.504200E-2	3.632147E-2	3.084745E-2	4.452732E-2	2.583535E-2	4.098537E-2	2.730934E-2	5.205382E-2	4.592056E-2	3.099475E-2	4.178788E-2	3.512254E-2	2.577866E-2	2.226139E-2	2.204115E-2	2.927905E-2	3.773340E-2	4.220802E-2	4.349886E-2	4.123780E-2	3.891891E-2	2.865723E-2	4.333188E-2	4.416813E-2	3.619320E-2	3.413569E-2	3.405615E-2	3.515658E-2	2.876629E-2	5.333384E-2	5.010565E-2	2.470982E-2	3.121383E-2	2.590752E-2	4.572279E-2	5.457065E-2	2.527697E-2	2.390622E-2	2.701119E-2	3.987749E-2	4.292906E-2	1.791937E-2	4.998019E-2	2.160003E-2
2.843030E+2	4.482495E-2	5.172217E-2	2.790291E-2	4.182703E-2	3.745928E-2	4.330139E-2	4.405873E-2	4.686964E-2	4.915549E-2	2.877466E-2	3.980253E-2	4.233555E-2	3.983268E-2	5.748133E-2	3.998576E-2	3.893573E-2	3.276913E-2	3.027615E-2	5.340527E-2	4.949899E-2	5.248155E-2	4.957932E-2	5.331620E-2	2.592723E-2	3.164772E-2	4.730535E-2	3.476091E-2	7.653891E-2	3.635751E-2	3.324272E-2	5.417422E-2	4.794610E-2	3.471633E-2	5.130176E-2	4.887110E-2	4.704003E-2	3.322703E-2	3.027985E-2	5.472059E-2	3.970980E-2	5.404659E-2	5.112134E-2	6.118513E-2	3.010938E-2	3.160025E-2	5.509769E-2	3.977406E-2	3.843430E-2	5.347685E-2	4.906407E-2	4.990244E-2	3.725024E-2	4.829916E-2	4.634951E-2	3.620476E-2	3.864633E-2	4.783885E-2	4.272501E-2	3.423033E-2	3.300652E-2	5.287732E-2	4.186584E-2	4.713651E-2	4.233335E-2	5.066359E-2	5.691193E-2	4.289970E-2	4.905772E-2	4.143974E-2	4.110730E-2	5.752174E-2	3.727863E-2	3.198158E-2	4.532713E-2	5.904499E-2	4.605411E-2	5.037516E-2	3.913866E-2	5.161708E-2	3.662141E-2	3.962770E-2	5.171882E-2	5.283001E-2	5.101535E-2	3.268635E-2	6.485440E-2	4.363263E-2	4.690022E-2	3.609670E-2	3.394862E-2	5.602486E-2	5.025729E-2	4.664948E-2	3.892334E-2	3.599353E-2	3.866234E-2	5.064150E-2	5.676310E-2	7.253250E-2	5.465948E-2	4.153948E-2	5.461046E-2	6.142749E-2	4.154958E-2	4.179273E-2	6.171334E-2	4.471638E-2	5.419250E-2	2.887876E-2	4.763872E-2	4.383068E-2	3.361965E-2	3.657133E-2	4.703247E-2	3.855355E-2	6.079593E-2	3.682125E-2	5.445801E-2	4.710771E-2	5.166982E-2	2.658843E-2	3.365350E-2	5.132297E-2	4.133344E-2	3.364650E-2	4.198573E-2	4.346198E-2	3.118064E-2	5.393176E-2	6.737444E-2	4.357486E-2	4.236995E-2	3.573322E-2	6.312492E-2	4.763304E-2	4.844821E-2	4.531724E-2	4.085669E-2	5.128106E-2	4.879540E-2	5.840862E-2	5.329951E-2	4.310264E-2	4.551347E-2	4.128548E-2	5.484635E-2	4.621124E-2	4.447878E-2	3.684503E-2	4.802920E-2	4.749364E-2	4.695033E-2	4.314844E-2	3.687457E-2	6.149761E-2	4.802402E-2	4.130199E-2	5.092367E-2	4.760691E-2	4.345458E-2	3.278746E-2	5.354238E-2	5.272087E-2	4.587301E-2	2.911535E-2	5.951245E-2	7.849066E-2	3.937628E-2	6.869093E-2	6.188022E-2	5.040001E-2
2.844030E+2	5.044277E-2	6.450994E-2	4.278453E-2	9.212207E-2	5.537461E-2	4.010131E-2	7.701691E-2	5.145340E-2	4.829130E-2	4.774221E-2	7.106860E-2	5.577545E-2	5.504325E-2	5.103857E-2	4.636939E-2	4.127185E-2	5.789568E-2	4.795578E-2	5.016856E-2	6.961855E-2	3.792863E-2	5.440645E-2	6.082842E-2	5.042530E-2	4.879875E-2	5.823813E-2	5.937039E-2	5.456355E-2	5.323063E-2	4.160571E-2	5.417423E-2	5.666358E-2	5.419135E-2	3.873808E-2	6.944842E-2	5.568005E-2	4.296895E-2	4.479893E-2	5.647161E-2	6.407978E-2	6.319283E-2	4.281256E-2	4.673196E-2	4.092425E-2	4.936899E-2	5.181431E-2	6.043596E-2	4.229702E-2	6.471241E-2	7.376763E-2	4.990237E-2	7.036148E-2	4.906432E-2	6.767845E-2	6.435139E-2	6.538538E-2	4.951741E-2	6.739097E-2	4.800866E-2	6.803382E-2	4.475795E-2	4.186590E-2	5.637146E-2	5.140482E-2	5.066354E-2	6.201614E-2	6.319159E-2	6.681211E-2	4.216197E-2	4.694999E-2	7.506000E-2	6.337373E-2	4.728173E-2	5.000008E-2	5.810397E-2	5.954596E-2	4.008574E-2	3.913861E-2	6.789467E-2	4.315004E-2	2.588152E-2	5.171877E-2	5.956917E-2	5.993057E-2	4.412188E-2	5.837909E-2	6.992563E-2	5.897577E-2	4.051219E-2	4.943848E-2	5.509494E-2	6.232823E-2	4.162892E-2	5.383028E-2	4.246429E-2	5.293765E-2	4.704034E-2	6.614542E-2	6.518742E-2	7.203477E-2	4.301972E-2	5.193020E-2	7.700070E-2	4.904712E-2	4.179275E-2	5.988818E-2	5.005567E-2	5.234373E-2	6.094346E-2	6.582623E-2	5.772565E-2	3.810236E-2	4.945175E-2	6.718919E-2	4.633720E-2	5.298293E-2	5.096059E-2	5.095866E-2	6.211155E-2	6.622461E-2	3.982352E-2	3.981231E-2	4.622243E-2	4.535358E-2	3.819338E-2	5.466069E-2	4.793884E-2	4.199247E-2	5.197500E-2	4.955645E-2	5.500426E-2	4.328853E-2	4.398667E-2	5.148483E-2	6.001101E-2	5.097600E-2	5.516397E-2	5.296241E-2	6.654197E-2	4.327146E-2	3.989422E-2	5.329946E-2	5.692615E-2	4.940353E-2	4.774357E-2	6.903079E-2	4.455341E-2	6.486491E-2	4.257639E-2	5.836302E-2	6.911008E-2	4.784668E-2	3.683955E-2	7.069603E-2	5.300050E-2	4.128388E-2	5.333384E-2	5.992232E-2	6.439817E-2	3.611015E-2	4.482750E-2	5.614887E-2	7.214432E-2	4.961768E-2	5.813774E-2	6.917507E-2	7.757127E-2	4.174488E-2	6.271781E-2	7.616025E-2	2.640004E-2
2.845010E+2	7.853158E-2	7.638432E-2	7.651608E-2	9.006930E-2	8.550488E-2	7.210238E-2	1.026512E-1	8.812411E-2	9.323341E-2	7.446925E-2	7.353699E-2	8.892702E-2	6.493016E-2	8.647366E-2	6.764784E-2	8.332257E-2	8.050950E-2	7.712706E-2	9.710048E-2	7.602025E-2	6.194098E-2	7.291072E-2	9.338155E-2	8.880574E-2	9.126803E-2	8.767255E-2	1.012065E-1	9.152212E-2	7.653165E-2	8.258410E-2	7.996300E-2	8.757104E-2	8.552071E-2	8.648005E-2	6.516143E-2	9.408004E-2	7.984917E-2	7.536536E-2	7.135562E-2	8.583863E-2	7.649667E-2	7.327778E-2	1.112896E-1	5.370524E-2	6.633015E-2	6.248503E-2	8.192433E-2	7.628921E-2	6.816951E-2	6.461822E-2	1.061305E-1	7.036149E-2	8.043484E-2	9.967187E-2	8.614228E-2	7.624809E-2	8.057071E-2	7.620031E-2	7.384286E-2	8.330219E-2	8.616665E-2	7.918359E-2	7.484127E-2	5.518458E-2	7.930432E-2	9.162051E-2	9.230596E-2	8.082848E-2	8.044181E-2	7.449402E-2	1.026204E-1	9.040079E-2	7.618208E-2	7.523363E-2	9.197841E-2	7.511352E-2	7.695604E-2	7.877275E-2	7.817517E-2	7.008057E-2	8.000718E-2	8.682479E-2	1.125195E-1	7.677060E-2	7.690352E-2	7.780511E-2	1.061917E-1	1.107278E-1	7.053754E-2	8.764681E-2	8.206120E-2	6.418533E-2	4.832298E-2	7.867491E-2	8.371530E-2	6.483377E-2	7.404909E-2	8.115708E-2	7.712313E-2	7.975698E-2	7.558514E-2	8.230647E-2	8.305693E-2	8.486929E-2	8.481791E-2	9.912923E-2	7.942154E-2	7.915105E-2	8.231992E-2	8.401364E-2	8.306380E-2	6.275680E-2	5.957219E-2	8.350667E-2	7.747188E-2	8.228213E-2	7.688270E-2	1.043231E-1	8.152832E-2	8.466079E-2	8.614639E-2	6.972644E-2	8.107526E-2	7.550568E-2	8.820854E-2	8.634802E-2	8.673749E-2	5.125974E-2	6.175853E-2	7.271987E-2	9.786484E-2	7.911353E-2	8.000121E-2	9.804506E-2	9.095600E-2	7.793855E-2	7.127676E-2	7.158655E-2	7.013273E-2	7.825682E-2	6.105360E-2	7.734434E-2	7.612551E-2	7.896781E-2	7.818859E-2	8.132387E-2	6.859152E-2	5.837843E-2	9.006553E-2	9.688020E-2	9.072640E-2	6.667160E-2	8.190320E-2	8.384875E-2	9.548584E-2	7.305912E-2	8.480197E-2	7.546529E-2	6.439818E-2	6.222376E-2	6.288745E-2	8.482058E-2	9.156774E-2	6.740529E-2	7.376515E-2	8.498639E-2	1.189427E-1	6.542973E-2	6.122457E-2	4.998031E-2	8.400014E-2
2.846040E+2	1.262825E-1	1.686393E-1	1.479476E-1	1.608930E-1	1.327361E-1	1.449048E-1	1.429334E-1	1.697161E-1	1.338542E-1	1.503394E-1	1.500566E-1	1.399985E-1	1.166461E-1	1.573437E-1	1.094955E-1	1.245944E-1	1.156866E-1	1.195580E-1	1.731624E-1	1.555843E-1	1.121487E-1	1.356643E-1	2.110733E-1	1.737327E-1	1.337371E-1	1.574742E-1	1.676521E-1	1.814209E-1	1.424171E-1	1.536693E-1	1.616273E-1	1.438384E-1	1.507197E-1	1.375724E-1	1.268934E-1	1.516800E-1	1.348216E-1	1.563662E-1	1.878010E-1	1.911510E-1	1.546563E-1	1.665193E-1	1.517586E-1	1.372742E-1	1.406360E-1	1.314340E-1	1.381245E-1	1.195519E-1	1.450898E-1	1.551981E-1	1.726669E-1	1.640190E-1	1.186917E-1	1.292042E-1	1.596868E-1	1.715061E-1	1.292489E-1	1.396270E-1	1.461786E-1	1.497642E-1	1.259515E-1	1.444898E-1	1.417943E-1	1.466550E-1	1.192277E-1	1.314334E-1	1.496526E-1	1.490423E-1	1.331669E-1	1.746539E-1	1.819606E-1	1.183598E-1	1.254826E-1	1.257009E-1	1.484357E-1	1.612541E-1	1.112540E-1	1.413943E-1	1.595631E-1	1.296542E-1	1.435833E-1	1.436631E-1	1.365878E-1	1.738484E-1	1.249325E-1	1.336549E-1	1.460844E-1	1.547168E-1	1.199911E-1	1.392798E-1	1.369237E-1	1.273263E-1	1.161007E-1	1.349897E-1	1.346724E-1	1.322451E-1	1.199640E-1	1.449569E-1	1.349656E-1	1.502231E-1	1.251734E-1	1.564606E-1	1.643833E-1	1.340206E-1	1.215687E-1	1.383703E-1	1.417130E-1	1.373879E-1	1.184954E-1	1.559368E-1	1.419133E-1	1.195368E-1	1.230544E-1	1.583747E-1	1.504438E-1	1.613901E-1	1.247995E-1	1.498141E-1	1.680212E-1	1.554945E-1	1.504314E-1	1.568295E-1	1.516311E-1	1.257590E-1	1.291300E-1	1.378400E-1	1.367282E-1	1.230814E-1	1.243733E-1	1.341921E-1	1.312009E-1	1.232059E-1	1.227686E-1	1.580361E-1	1.466569E-1	1.562983E-1	1.464697E-1	1.479455E-1	1.356649E-1	1.620378E-1	1.174785E-1	1.398609E-1	1.229720E-1	1.427645E-1	1.353887E-1	1.352246E-1	1.274435E-1	1.232432E-1	1.179039E-1	1.786119E-1	1.389476E-1	1.500392E-1	1.053362E-1	1.082752E-1	1.541157E-1	1.423871E-1	1.486637E-1	1.196401E-1	1.391954E-1	1.209792E-1	1.196474E-1	1.543280E-1	1.341144E-1	1.235763E-1	1.362747E-1	1.227581E-1	1.483624E-1	1.092470E-1	1.045296E-1	1.261405E-1	1.560002E-1
2.847000E+2	2.348925E-1	2.499332E-1	3.027159E-1	2.522450E-1	2.271987E-1	2.401076E-1	2.592025E-1	2.714768E-1	2.237384E-1	2.658691E-1	2.923998E-1	2.412453E-1	2.322465E-1	2.378776E-1	2.449685E-1	2.343935E-1	2.287557E-1	2.724863E-1	2.273768E-1	2.598409E-1	2.453081E-1	2.450801E-1	3.596493E-1	3.337871E-1	3.044302E-1	2.625975E-1	3.366375E-1	3.372457E-1	3.119518E-1	2.832950E-1	2.705137E-1	3.110552E-1	2.921254E-1	2.916872E-1	2.992279E-1	2.966399E-1	2.489415E-1	3.038494E-1	2.919889E-1	3.042974E-1	2.951776E-1	2.736080E-1	3.020716E-1	2.758997E-1	2.504798E-1	2.578401E-1	2.546573E-1	2.493400E-1	2.643594E-1	2.960998E-1	3.038650E-1	2.699748E-1	2.495295E-1	2.703034E-1	3.294746E-1	2.968456E-1	2.652114E-1	2.374101E-1	2.589882E-1	2.790960E-1	2.461174E-1	2.704374E-1	2.572308E-1	2.638274E-1	2.381297E-1	2.763931E-1	3.022824E-1	2.574365E-1	2.566733E-1	3.015232E-1	3.097399E-1	2.842497E-1	2.818837E-1	2.929906E-1	3.008704E-1	2.837192E-1	2.192925E-1	2.515766E-1	2.820730E-1	2.569621E-1	2.243423E-1	2.790723E-1	2.704082E-1	2.976718E-1	2.301387E-1	2.866350E-1	2.893353E-1	2.668460E-1	2.471577E-1	2.714600E-1	2.578072E-1	2.368940E-1	2.424519E-1	2.534159E-1	2.462925E-1	2.512063E-1	2.595095E-1	2.772478E-1	2.846208E-1	2.757106E-1	2.509943E-1	3.244237E-1	3.105984E-1	2.623136E-1	2.246497E-1	2.515301E-1	2.511681E-1	3.102492E-1	2.064677E-1	2.344736E-1	2.301878E-1	2.226374E-1	2.500189E-1	2.860336E-1	2.817933E-1	2.610072E-1	2.308446E-1	2.626669E-1	2.827566E-1	2.893994E-1	2.430774E-1	2.861647E-1	2.808416E-1	2.282758E-1	2.318883E-1	2.479534E-1	2.508860E-1	2.458734E-1	2.251435E-1	2.464459E-1	2.597821E-1	2.564012E-1	2.420668E-1	3.030884E-1	2.890036E-1	2.944810E-1	2.467270E-1	2.783142E-1	2.739100E-1	2.605494E-1	2.373817E-1	2.592838E-1	2.489198E-1	2.439056E-1	2.377950E-1	2.713950E-1	2.484629E-1	2.520462E-1	2.358082E-1	2.706773E-1	2.902623E-1	2.710564E-1	2.450337E-1	2.726844E-1	2.620287E-1	2.492676E-1	2.347382E-1	2.497102E-1	2.330738E-1	2.180892E-1	2.099474E-1	2.229662E-1	2.543546E-1	2.911536E-1	2.025053E-1	2.896564E-1	2.908639E-1	2.714892E-1	2.299653E-1	2.118208E-1	2.808003E-1
2.848000E+2	5.466780E-1	5.294387E-1	5.963785E-1	6.474214E-1	5.317589E-1	4.969170E-1	5.997715E-1	6.060961E-1	5.426550E-1	5.176213E-1	5.573385E-1	5.709699E-1	4.740944E-1	5.133051E-1	4.847062E-1	4.999351E-1	4.917469E-1	5.465193E-1	5.283883E-1	5.543192E-1	4.897979E-1	5.250577E-1	6.768337E-1	6.538958E-1	5.159599E-1	5.493731E-1	5.843722E-1	5.989511E-1	5.321059E-1	4.982226E-1	5.635015E-1	5.400869E-1	5.173582E-1	5.278847E-1	5.847384E-1	6.105599E-1	5.161490E-1	5.690139E-1	6.351971E-1	6.211054E-1	5.695673E-1	5.856445E-1	6.267864E-1	5.855961E-1	4.935884E-1	5.385613E-1	5.662388E-1	5.073710E-1	4.916623E-1	6.419497E-1	5.896914E-1	5.377035E-1	5.043197E-1	5.902383E-1	6.254680E-1	6.076874E-1	5.052458E-1	5.078551E-1	5.578037E-1	6.167951E-1	5.400390E-1	5.811081E-1	5.296609E-1	5.117805E-1	5.158575E-1	5.693747E-1	5.669595E-1	5.228157E-1	4.784076E-1	6.145242E-1	6.162438E-1	5.740917E-1	5.147865E-1	5.574768E-1	6.142088E-1	5.556319E-1	4.851010E-1	5.123687E-1	5.682160E-1	5.254518E-1	4.812245E-1	5.540702E-1	6.054394E-1	5.235263E-1	5.228869E-1	5.642643E-1	6.121042E-1	6.282484E-1	5.076718E-1	6.081056E-1	5.832615E-1	5.340270E-1	4.683776E-1	5.035200E-1	5.423294E-1	5.200584E-1	4.926851E-1	5.324479E-1	5.903599E-1	5.749508E-1	4.752525E-1	5.995976E-1	6.359048E-1	6.163701E-1	5.168631E-1	5.809725E-1	5.368182E-1	5.487425E-1	4.522965E-1	5.618482E-1	5.178965E-1	5.319390E-1	4.708268E-1	5.893454E-1	5.376815E-1	5.383733E-1	5.159886E-1	6.388427E-1	5.837168E-1	5.921402E-1	5.427584E-1	5.773878E-1	5.503131E-1	4.966288E-1	5.301601E-1	5.165032E-1	5.008392E-1	4.999518E-1	5.548495E-1	5.778610E-1	5.921899E-1	5.439197E-1	4.814145E-1	5.887183E-1	6.046420E-1	6.264571E-1	5.045312E-1	5.632636E-1	5.512994E-1	5.505598E-1	5.133347E-1	5.333955E-1	4.532009E-1	4.858660E-1	5.090333E-1	5.862886E-1	5.692477E-1	5.207724E-1	5.493992E-1	6.220296E-1	6.178330E-1	5.740490E-1	5.064031E-1	5.789560E-1	5.798195E-1	5.747239E-1	5.253556E-1	5.319383E-1	5.444746E-1	4.694325E-1	4.739675E-1	4.992583E-1	6.012029E-1	5.551567E-1	4.904963E-1	5.461532E-1	5.786250E-1	6.066322E-1	4.868086E-1	5.783413E-1	6.071998E-1
2.849020E+2	8.472280E-1	9.304279E-1	1.007111E+0	1.061073E+0	8.648203E-1	8.881297E-1	1.008087E+0	9.581346E-1	9.263927E-1	9.021449E-1	9.399367E-1	9.598302E-1	8.794562E-1	9.014797E-1	8.712651E-1	8.752756E-1	8.468673E-1	9.195571E-1	8.739046E-1	8.753191E-1	8.347026E-1	9.273239E-1	1.019893E+0	8.849953E-1	8.540804E-1	8.504454E-1	9.067571E-1	9.545512E-1	8.020760E-1	8.285589E-1	8.486107E-1	9.165236E-1	8.552068E-1	8.645916E-1	9.268358E-1	9.359999E-1	8.223246E-1	8.678003E-1	9.425068E-1	9.648957E-1	8.464519E-1	9.438399E-1	9.119959E-1	9.945917E-1	7.843513E-1	8.816647E-1	8.331894E-1	8.751046E-1	8.555223E-1	9.859710E-1	1.012339E+0	9.539602E-1	8.295020E-1	8.995072E-1	1.049483E+0	9.745143E-1	8.510286E-1	7.932755E-1	8.962315E-1	9.095871E-1	9.005373E-1	8.367343E-1	8.043988E-1	8.693457E-1	8.196218E-1	8.970643E-1	9.295667E-1	8.779006E-1	8.070361E-1	9.525636E-1	1.055538E+0	9.785650E-1	7.927390E-1	9.294391E-1	1.032933E+0	9.624647E-1	7.826372E-1	8.009051E-1	9.862924E-1	8.510667E-1	8.283150E-1	8.892488E-1	9.905325E-1	9.683003E-1	8.522282E-1	9.503555E-1	1.004685E+0	1.000862E+0	8.317695E-1	9.633401E-1	9.765980E-1	9.806547E-1	7.788152E-1	8.587997E-1	9.087361E-1	8.872519E-1	8.284949E-1	9.105545E-1	9.787301E-1	9.398309E-1	8.208900E-1	1.018613E+0	1.086662E+0	9.762576E-1	7.821853E-1	8.693492E-1	8.936594E-1	9.138768E-1	7.639001E-1	9.007947E-1	8.374826E-1	8.599180E-1	7.817986E-1	9.732848E-1	8.908658E-1	9.231712E-1	8.466926E-1	1.043012E+0	1.012651E+0	9.783294E-1	9.209042E-1	8.967659E-1	9.166940E-1	9.368486E-1	8.702638E-1	8.626883E-1	8.686811E-1	8.289409E-1	8.943381E-1	9.725311E-1	9.684105E-1	8.672639E-1	8.055463E-1	9.638858E-1	1.045828E+0	9.601184E-1	8.769166E-1	8.882548E-1	8.915281E-1	9.786714E-1	8.130926E-1	8.395675E-1	8.233658E-1	8.110735E-1	9.002073E-1	8.832148E-1	9.115837E-1	9.044014E-1	9.153931E-1	1.018476E+0	9.936255E-1	9.155872E-1	8.245521E-1	9.923276E-1	9.834304E-1	9.483253E-1	8.548452E-1	9.041509E-1	9.024330E-1	8.317577E-1	7.508863E-1	9.102207E-1	9.351006E-1	8.734596E-1	8.261139E-1	9.853599E-1	9.813058E-1	1.021120E+0	8.183178E-1	8.710822E-1	9.624002E-1
2.850010E+2	1.080364E+0	1.178878E+0	1.199578E+0	1.215037E+0	1.037459E+0	1.116937E+0	1.242458E+0	1.277168E+0	1.116532E+0	1.160793E+0	1.184306E+0	1.119317E+0	1.036886E+0	1.099594E+0	1.060644E+0	1.048930E+0	1.011027E+0	1.107845E+0	1.069724E+0	1.081088E+0	9.984237E-1	1.083403E+0	1.185163E+0	1.116910E+0	9.912883E-1	9.648190E-1	1.083946E+0	1.146335E+0	1.023837E+0	9.924727E-1	1.011223E+0	9.997360E-1	9.678240E-1	1.039645E+0	1.147184E+0	1.122239E+0	9.294869E-1	1.055784E+0	1.239311E+0	1.139837E+0	1.049335E+0	1.089703E+0	1.167336E+0	1.094874E+0	9.313476E-1	9.826247E-1	1.045593E+0	9.747634E-1	9.583714E-1	1.150661E+0	1.196954E+0	1.052348E+0	9.779387E-1	1.110335E+0	1.203836E+0	1.148318E+0	1.035669E+0	1.039935E+0	1.056405E+0	1.100890E+0	1.032071E+0	9.449568E-1	9.890977E-1	1.022049E+0	9.654283E-1	1.173713E+0	1.145719E+0	1.008721E+0	9.290986E-1	1.127843E+0	1.239274E+0	1.154707E+0	1.064742E+0	1.078973E+0	1.223947E+0	1.206357E+0	9.275456E-1	1.062489E+0	1.077961E+0	1.068142E+0	1.003580E+0	1.111587E+0	1.254322E+0	1.205051E+0	9.597211E-1	1.155947E+0	1.195987E+0	1.221671E+0	9.783642E-1	1.145089E+0	1.184890E+0	1.184005E+0	9.804763E-1	9.300214E-1	1.076975E+0	1.047453E+0	1.005852E+0	1.021267E+0	1.142158E+0	1.176326E+0	9.474510E-1	1.232142E+0	1.270945E+0	1.216182E+0	9.515966E-1	1.125785E+0	1.097441E+0	1.214305E+0	9.472444E-1	1.126486E+0	9.453736E-1	1.039223E+0	9.096823E-1	1.198847E+0	1.141890E+0	1.099943E+0	1.021864E+0	1.223227E+0	1.175044E+0	1.131641E+0	1.059873E+0	1.034900E+0	1.088407E+0	9.991628E-1	9.793875E-1	9.941903E-1	1.033576E+0	9.779904E-1	1.101749E+0	1.178329E+0	1.163663E+0	1.084051E+0	1.043393E+0	1.228921E+0	1.208510E+0	1.223002E+0	1.056843E+0	1.129438E+0	1.069273E+0	1.149916E+0	1.001763E+0	1.004675E+0	1.018431E+0	1.059258E+0	1.136388E+0	1.083688E+0	1.083996E+0	1.117529E+0	1.009553E+0	1.186636E+0	1.198982E+0	1.199754E+0	9.624473E-1	1.206529E+0	1.245990E+0	1.122608E+0	1.083452E+0	1.058764E+0	1.077978E+0	9.965993E-1	9.865266E-1	1.143070E+0	1.226454E+0	1.091590E+0	9.526221E-1	1.161921E+0	1.211148E+0	1.254417E+0	1.064707E+0	1.092423E+0	1.000800E+0
2.851000E+2	1.053212E+0	1.081141E+0	1.219420E+0	1.216063E+0	1.007328E+0	1.027334E+0	1.193019E+0	1.148821E+0	1.057762E+0	1.115962E+0	1.125064E+0	1.085269E+0	1.067307E+0	1.074629E+0	9.840408E-1	9.990923E-1	1.007677E+0	1.130828E+0	1.038165E+0	1.030789E+0	9.896913E-1	9.860554E-1	1.076653E+0	1.052399E+0	9.333013E-1	9.446358E-1	1.014218E+0	1.109377E+0	9.643797E-1	9.046623E-1	9.431698E-1	9.902262E-1	9.297206E-1	1.007817E+0	1.071735E+0	1.019520E+0	9.357497E-1	9.732547E-1	1.126368E+0	1.066727E+0	1.028547E+0	1.002923E+0	1.091216E+0	1.057515E+0	8.723877E-1	9.998633E-1	1.071215E+0	9.268650E-1	9.445428E-1	1.084785E+0	1.170714E+0	1.039103E+0	9.297352E-1	1.051271E+0	1.165702E+0	1.084813E+0	9.374744E-1	9.130815E-1	1.029710E+0	1.041614E+0	9.200242E-1	9.794750E-1	9.590849E-1	9.691323E-1	9.654290E-1	1.088984E+0	1.046024E+0	1.031147E+0	9.175426E-1	1.040204E+0	1.156593E+0	1.069898E+0	9.329909E-1	1.019159E+0	1.127971E+0	1.126444E+0	9.061098E-1	9.229777E-1	1.060827E+0	1.002041E+0	9.546094E-1	9.945667E-1	1.079105E+0	1.145617E+0	9.330390E-1	1.078243E+0	1.177855E+0	1.189757E+0	9.916102E-1	1.087260E+0	1.155134E+0	1.066081E+0	9.662505E-1	9.664597E-1	1.017930E+0	9.467317E-1	9.329288E-1	1.042846E+0	1.084315E+0	1.087519E+0	9.104456E-1	1.206231E+0	1.133380E+0	1.060397E+0	8.754067E-1	1.098407E+0	1.079645E+0	1.089512E+0	8.946253E-1	1.075229E+0	9.494601E-1	9.719837E-1	9.060035E-1	1.174852E+0	1.025134E+0	1.065761E+0	9.260303E-1	1.188235E+0	1.201522E+0	1.047223E+0	1.005987E+0	9.777109E-1	1.033152E+0	9.720257E-1	9.675663E-1	9.735942E-1	9.776162E-1	9.231592E-1	9.941301E-1	1.072311E+0	1.108421E+0	1.020668E+0	9.008348E-1	1.177883E+0	1.118328E+0	1.105041E+0	9.771734E-1	1.141543E+0	1.066579E+0	1.079024E+0	9.091915E-1	9.870421E-1	8.824992E-1	1.007132E+0	1.004460E+0	1.096927E+0	1.039234E+0	9.905796E-1	9.997271E-1	1.181939E+0	1.146603E+0	1.073357E+0	9.200867E-1	1.089094E+0	1.092192E+0	1.056168E+0	9.807186E-1	9.867744E-1	9.657817E-1	9.843594E-1	9.289067E-1	1.050103E+0	1.113612E+0	1.045718E+0	9.221108E-1	1.069687E+0	1.124727E+0	1.177440E+0	9.467397E-1	1.059104E+0	9.960007E-1
2.852010E+2	8.547191E-1	8.637484E-1	8.989706E-1	9.697201E-1	7.996739E-1	8.297277E-1	9.128740E-1	8.847929E-1	9.237999E-1	7.857531E-1	8.584800E-1	8.245359E-1	9.144404E-1	7.992017E-1	7.528151E-1	7.584691E-1	8.661314E-1	8.417679E-1	7.614290E-1	8.625158E-1	7.946823E-1	7.479130E-1	9.698114E-1	8.449811E-1	8.973662E-1	7.915760E-1	8.755858E-1	8.346861E-1	9.209915E-1	7.014422E-1	7.547681E-1	7.960637E-1	8.298051E-1	7.816701E-1	8.188051E-1	8.524799E-1	7.687450E-1	8.357057E-1	9.136149E-1	9.318227E-1	8.339803E-1	7.813592E-1	8.512920E-1	8.569489E-1	8.190809E-1	7.979407E-1	8.356696E-1	7.514966E-1	8.002088E-1	8.560477E-1	8.370946E-1	7.893496E-1	7.239141E-1	8.429036E-1	8.678924E-1	8.500102E-1	7.326898E-1	6.946120E-1	7.937570E-1	8.215704E-1	7.373381E-1	7.760937E-1	7.605335E-1	7.929952E-1	6.668720E-1	8.684822E-1	8.307538E-1	8.218344E-1	7.254208E-1	8.482303E-1	8.809903E-1	9.282384E-1	7.527893E-1	7.705610E-1	9.030812E-1	8.981189E-1	7.414799E-1	7.747471E-1	8.363677E-1	7.841482E-1	8.102740E-1	7.981405E-1	9.067748E-1	8.662695E-1	7.546457E-1	8.742704E-1	9.203658E-1	9.560114E-1	7.116681E-1	8.167038E-1	8.808216E-1	8.144460E-1	7.604067E-1	7.536233E-1	8.181451E-1	7.571874E-1	7.492684E-1	7.782638E-1	8.501914E-1	8.954270E-1	7.535387E-1	9.533930E-1	9.638070E-1	9.012813E-1	6.952384E-1	8.036428E-1	8.126807E-1	8.334552E-1	6.775724E-1	7.627367E-1	7.581989E-1	7.837127E-1	7.081960E-1	9.588870E-1	8.597310E-1	8.450401E-1	7.398617E-1	9.012907E-1	8.935016E-1	8.434544E-1	8.084063E-1	8.307795E-1	8.095842E-1	7.931234E-1	7.729614E-1	8.056514E-1	7.351238E-1	7.548025E-1	8.258535E-1	8.789857E-1	8.131601E-1	7.974501E-1	7.477728E-1	8.421128E-1	9.096703E-1	8.522680E-1	7.865052E-1	8.612494E-1	8.654942E-1	8.212365E-1	7.566679E-1	7.938819E-1	7.473357E-1	7.877334E-1	8.494657E-1	8.661945E-1	8.485871E-1	8.200769E-1	7.573689E-1	8.935295E-1	9.038346E-1	8.842115E-1	7.425366E-1	9.387774E-1	8.619217E-1	8.780334E-1	7.974630E-1	8.068032E-1	8.283986E-1	7.868752E-1	7.035866E-1	7.685989E-1	8.638821E-1	8.818845E-1	7.226753E-1	9.150873E-1	9.868224E-1	8.612451E-1	7.556002E-1	8.068228E-1	9.576000E-1
2.853000E+2	5.195249E-1	6.070784E-1	6.092768E-1	6.351039E-1	5.586317E-1	5.489184E-1	6.720969E-1	6.409334E-1	6.092041E-1	6.184934E-1	5.935403E-1	6.121861E-1	6.102285E-1	6.010875E-1	5.414482E-1	5.256329E-1	5.587508E-1	5.836465E-1	5.356709E-1	5.515753E-1	5.290908E-1	5.668925E-1	6.359342E-1	5.689692E-1	5.821140E-1	5.401220E-1	6.073413E-1	5.759770E-1	5.931703E-1	5.007319E-1	5.384294E-1	5.377094E-1	5.834038E-1	5.823268E-1	5.787368E-1	5.423999E-1	5.349375E-1	5.407394E-1	6.737204E-1	5.932552E-1	5.546008E-1	5.708735E-1	6.267865E-1	5.600345E-1	5.977792E-1	5.590821E-1	5.563212E-1	5.220500E-1	5.979689E-1	5.989479E-1	6.065596E-1	5.755451E-1	4.920775E-1	5.574237E-1	6.318245E-1	5.851265E-1	5.791019E-1	5.228303E-1	5.500538E-1	5.925452E-1	6.610167E-1	5.167346E-1	5.088828E-1	5.034648E-1	5.488379E-1	6.408334E-1	5.784289E-1	5.555212E-1	5.072979E-1	5.419068E-1	6.580019E-1	5.703633E-1	5.368871E-1	5.556081E-1	6.292644E-1	6.604544E-1	5.348345E-1	5.258449E-1	5.870639E-1	4.993369E-1	5.379270E-1	5.264870E-1	6.478001E-1	6.037647E-1	5.175502E-1	5.707395E-1	6.728498E-1	6.679251E-1	5.368140E-1	5.647346E-1	6.018598E-1	5.999533E-1	5.202565E-1	5.126298E-1	5.722563E-1	5.708144E-1	5.458025E-1	5.333851E-1	5.995412E-1	5.672277E-1	5.041171E-1	5.969182E-1	6.488824E-1	6.072068E-1	5.114849E-1	5.791470E-1	5.839821E-1	6.134501E-1	4.572305E-1	5.420074E-1	5.383303E-1	5.558465E-1	4.818674E-1	6.670935E-1	5.892485E-1	5.862293E-1	5.434817E-1	6.598386E-1	6.101937E-1	5.717638E-1	5.758459E-1	5.721091E-1	5.724152E-1	5.820600E-1	5.419830E-1	5.553208E-1	5.135238E-1	4.906848E-1	5.616977E-1	6.170606E-1	5.959998E-1	5.558616E-1	4.956699E-1	6.227427E-1	6.426600E-1	5.885413E-1	5.627167E-1	5.995814E-1	5.432204E-1	5.800212E-1	4.815962E-1	5.494255E-1	5.092631E-1	5.123187E-1	5.597753E-1	5.938530E-1	5.957734E-1	5.365247E-1	5.420307E-1	6.220300E-1	5.937225E-1	6.475558E-1	5.145143E-1	5.958660E-1	6.308020E-1	6.228688E-1	5.725579E-1	5.425729E-1	5.589762E-1	5.681742E-1	4.860068E-1	5.531262E-1	6.252502E-1	5.935406E-1	5.314253E-1	5.900734E-1	6.438992E-1	6.338698E-1	5.510203E-1	6.592626E-1	6.551998E-1
2.854010E+2	4.493042E-1	4.837676E-1	4.723659E-1	4.647164E-1	4.283387E-1	4.457142E-1	5.045583E-1	4.905842E-1	4.510427E-1	4.417497E-1	4.042987E-1	4.625550E-1	4.870236E-1	4.319651E-1	3.790225E-1	4.259577E-1	4.306055E-1	4.271817E-1	4.434259E-1	4.445759E-1	3.893827E-1	4.220778E-1	4.915310E-1	4.595439E-1	4.293885E-1	4.291118E-1	4.752703E-1	5.370207E-1	4.911282E-1	3.987033E-1	4.016059E-1	4.204199E-1	4.597801E-1	4.131355E-1	4.629890E-1	4.406404E-1	4.194255E-1	4.062469E-1	5.082442E-1	4.714060E-1	4.689578E-1	4.203945E-1	4.263685E-1	4.980952E-1	4.871277E-1	4.080506E-1	4.711943E-1	4.100303E-1	4.700569E-1	4.909845E-1	5.109724E-1	4.449920E-1	4.079123E-1	4.343721E-1	4.574963E-1	4.840190E-1	4.414602E-1	4.444280E-1	3.993535E-1	4.668065E-1	4.970057E-1	4.430322E-1	4.357731E-1	4.172865E-1	4.568406E-1	4.438115E-1	4.884385E-1	4.415196E-1	3.975146E-1	4.751340E-1	5.085081E-1	4.641193E-1	4.289358E-1	4.621493E-1	5.012940E-1	4.912866E-1	4.722403E-1	4.259669E-1	4.499897E-1	4.087529E-1	4.666195E-1	4.345418E-1	4.687315E-1	4.621101E-1	4.306408E-1	4.452792E-1	4.643192E-1	5.376819E-1	4.326086E-1	4.242933E-1	4.660984E-1	4.393161E-1	4.700506E-1	4.099381E-1	4.363707E-1	4.463024E-1	4.314657E-1	4.555117E-1	4.856926E-1	4.388443E-1	3.938389E-1	4.602243E-1	5.069932E-1	4.847444E-1	4.370870E-1	4.422602E-1	4.442721E-1	4.433619E-1	3.963888E-1	4.568558E-1	4.165442E-1	4.049310E-1	4.064249E-1	4.741642E-1	4.870875E-1	4.514524E-1	3.761659E-1	4.743750E-1	5.166399E-1	4.310664E-1	4.349864E-1	4.198988E-1	4.542557E-1	4.162234E-1	4.101244E-1	4.285712E-1	4.553257E-1	4.065066E-1	4.169006E-1	4.664985E-1	4.512262E-1	4.401198E-1	3.748712E-1	4.973879E-1	4.950081E-1	4.731080E-1	3.792102E-1	4.822491E-1	4.480645E-1	4.603349E-1	4.234078E-1	4.099655E-1	3.863878E-1	3.995073E-1	4.398396E-1	4.208038E-1	4.449124E-1	4.179146E-1	4.143012E-1	5.130545E-1	5.089205E-1	4.763380E-1	4.045592E-1	4.850077E-1	4.693574E-1	4.351057E-1	3.920786E-1	4.321363E-1	4.315155E-1	4.025160E-1	3.742072E-1	4.271446E-1	4.411894E-1	4.212827E-1	3.930115E-1	5.118951E-1	5.243827E-1	5.024180E-1	4.121445E-1	4.926617E-1	4.776002E-1
2.855000E+2	3.004329E-1	3.266603E-1	3.562895E-1	4.062100E-1	3.265476E-1	3.257107E-1	3.956134E-1	3.741548E-1	3.430081E-1	3.443263E-1	3.318939E-1	3.442846E-1	3.546915E-1	3.425723E-1	2.655376E-1	2.927968E-1	3.535510E-1	3.317129E-1	3.463249E-1	3.339178E-1	3.013368E-1	3.134660E-1	3.821866E-1	3.321541E-1	3.346489E-1	3.004414E-1	3.555044E-1	3.841932E-1	4.067630E-1	3.150742E-1	3.228071E-1	3.276978E-1	3.344620E-1	3.285402E-1	3.575307E-1	3.753600E-1	2.913888E-1	3.359442E-1	3.725378E-1	3.599997E-1	3.500548E-1	3.345392E-1	3.300146E-1	3.516038E-1	3.667848E-1	3.136558E-1	3.339993E-1	3.451366E-1	3.507872E-1	3.811901E-1	3.460360E-1	3.248447E-1	3.222178E-1	3.408526E-1	3.721485E-1	3.962815E-1	3.550150E-1	2.946700E-1	3.459633E-1	3.311880E-1	3.687198E-1	3.236152E-1	3.311101E-1	3.144760E-1	3.405418E-1	3.458106E-1	3.278685E-1	2.836006E-1	3.043428E-1	3.657929E-1	3.489928E-1	3.699909E-1	3.396848E-1	3.257013E-1	3.902616E-1	3.677839E-1	3.822079E-1	2.991378E-1	3.694579E-1	3.287773E-1	3.360301E-1	3.760316E-1	3.849732E-1	3.818729E-1	3.650774E-1	4.007618E-1	3.845342E-1	4.108899E-1	3.372335E-1	3.613011E-1	3.954281E-1	3.464625E-1	3.428630E-1	3.221529E-1	3.579136E-1	3.011699E-1	3.477384E-1	3.429243E-1	3.782711E-1	3.259059E-1	3.020632E-1	4.039388E-1	3.979807E-1	3.664477E-1	3.402804E-1	3.610405E-1	3.481643E-1	3.786542E-1	3.593914E-1	3.427717E-1	3.446174E-1	3.182665E-1	3.365025E-1	3.944966E-1	3.460089E-1	3.401155E-1	3.486729E-1	3.851425E-1	3.692489E-1	3.835211E-1	3.640841E-1	2.984821E-1	3.284455E-1	3.217470E-1	3.464682E-1	3.192499E-1	3.195298E-1	2.883487E-1	3.122175E-1	3.551357E-1	3.159775E-1	3.298884E-1	3.013411E-1	4.033730E-1	3.650394E-1	3.551473E-1	3.201300E-1	3.472238E-1	3.564986E-1	3.295994E-1	3.352432E-1	3.274115E-1	3.226459E-1	3.333766E-1	3.162146E-1	3.650118E-1	3.305242E-1	3.308110E-1	3.438868E-1	3.871682E-1	3.700770E-1	3.938671E-1	3.108258E-1	3.609959E-1	3.537968E-1	3.484452E-1	2.819404E-1	3.274252E-1	2.948961E-1	3.298882E-1	2.813272E-1	3.515547E-1	3.514722E-1	3.482604E-1	2.732011E-1	3.660783E-1	3.653323E-1	3.733343E-1	3.046291E-1	3.831814E-1	3.768004E-1
2.856010E+2	2.217845E-1	2.170505E-1	2.590634E-1	2.450603E-1	2.043976E-1	2.161070E-1	2.802591E-1	2.568090E-1	2.781879E-1	2.253472E-1	2.422090E-1	2.618530E-1	2.466967E-1	2.257979E-1	2.130507E-1	2.141470E-1	2.547197E-1	2.380111E-1	2.589338E-1	2.278323E-1	1.878243E-1	2.378399E-1	2.695024E-1	2.194624E-1	2.374598E-1	2.281166E-1	2.570668E-1	2.523410E-1	2.782055E-1	2.122097E-1	2.354115E-1	2.207108E-1	2.675696E-1	2.246809E-1	2.452128E-1	2.313596E-1	2.287618E-1	2.404241E-1	2.420837E-1	2.546872E-1	2.494455E-1	2.320651E-1	2.105346E-1	2.336240E-1	2.844017E-1	2.356782E-1	2.373014E-1	2.230729E-1	2.271961E-1	2.521825E-1	2.457636E-1	2.463243E-1	2.112732E-1	2.858901E-1	2.813528E-1	2.492167E-1	2.316405E-1	2.488621E-1	2.288482E-1	2.189209E-1	2.542372E-1	2.060640E-1	2.249084E-1	2.192264E-1	2.294505E-1	2.131005E-1	2.634636E-1	2.256654E-1	2.183934E-1	2.380884E-1	2.704872E-1	2.516308E-1	2.181332E-1	2.537378E-1	2.557048E-1	2.816436E-1	2.304394E-1	1.913332E-1	2.383804E-1	2.194229E-1	2.372289E-1	1.812769E-1	2.145693E-1	2.511142E-1	2.270892E-1	2.445447E-1	2.793621E-1	2.530458E-1	2.621698E-1	2.466760E-1	2.261913E-1	2.183233E-1	2.382675E-1	2.086959E-1	2.365869E-1	1.933119E-1	2.198960E-1	2.284596E-1	2.561592E-1	2.554397E-1	2.310116E-1	2.315076E-1	2.630138E-1	2.748100E-1	2.156860E-1	2.424045E-1	2.547273E-1	3.000812E-1	2.516871E-1	2.468744E-1	2.514388E-1	2.293611E-1	2.546193E-1	2.812348E-1	2.749823E-1	2.453812E-1	2.064933E-1	2.626667E-1	2.571618E-1	2.234171E-1	2.478039E-1	2.324950E-1	2.646899E-1	2.433519E-1	2.555319E-1	2.321098E-1	1.941802E-1	2.281109E-1	2.388409E-1	2.339730E-1	2.350188E-1	2.288438E-1	2.165565E-1	2.636921E-1	2.890037E-1	2.498247E-1	2.565736E-1	2.485158E-1	2.415928E-1	2.200401E-1	2.638309E-1	2.144003E-1	2.074494E-1	2.439059E-1	2.442531E-1	2.184396E-1	2.061886E-1	2.177604E-1	2.390830E-1	2.387365E-1	2.428723E-1	2.459563E-1	1.909570E-1	2.454398E-1	2.637282E-1	2.338611E-1	2.310361E-1	2.178064E-1	2.323100E-1	2.050322E-1	2.133868E-1	2.359992E-1	2.340064E-1	2.443439E-1	1.920869E-1	2.457359E-1	2.430569E-1	2.939898E-1	2.434046E-1	2.118206E-1	2.663997E-1
2.858030E+2	1.862052E-1	1.521979E-1	1.806870E-1	1.968180E-1	1.563519E-1	1.849059E-1	1.932866E-1	1.963022E-1	1.744751E-1	1.762043E-1	1.887275E-1	1.758381E-1	2.018255E-1	1.678131E-1	1.577266E-1	1.650876E-1	1.935783E-1	1.902760E-1	2.087661E-1	2.022252E-1	1.725435E-1	1.686503E-1	2.035611E-1	2.072131E-1	1.917238E-1	2.003642E-1	1.815974E-1	2.273693E-1	2.227649E-1	1.528327E-1	1.766707E-1	1.739532E-1	2.040642E-1	2.045786E-1	2.006289E-1	1.891200E-1	1.647432E-1	1.792913E-1	2.053115E-1	2.076882E-1	1.862527E-1	1.683656E-1	1.845188E-1	1.952807E-1	2.407873E-1	1.815039E-1	1.811011E-1	1.628146E-1	2.176888E-1	1.863065E-1	2.129634E-1	1.886161E-1	1.944400E-1	1.718621E-1	1.723981E-1	1.773553E-1	1.921947E-1	1.634121E-1	1.677071E-1	1.820972E-1	1.990251E-1	1.827403E-1	1.718079E-1	1.602619E-1	1.782445E-1	2.141214E-1	2.061166E-1	2.004360E-1	1.707243E-1	1.938512E-1	2.195425E-1	2.022365E-1	1.679828E-1	1.742991E-1	2.218302E-1	1.903135E-1	2.107181E-1	1.723090E-1	1.938316E-1	1.696421E-1	1.959909E-1	1.670672E-1	2.280478E-1	1.837543E-1	1.470412E-1	1.660315E-1	2.285898E-1	2.168192E-1	1.835745E-1	1.712921E-1	1.945760E-1	1.728246E-1	2.073077E-1	1.623189E-1	1.937179E-1	2.075869E-1	1.802836E-1	1.815481E-1	2.185154E-1	1.859390E-1	1.399761E-1	2.127460E-1	1.920691E-1	2.064978E-1	1.896919E-1	1.721358E-1	1.879866E-1	1.974734E-1	1.883799E-1	1.749507E-1	1.958588E-1	1.680983E-1	1.966568E-1	2.294030E-1	2.127132E-1	1.985025E-1	1.782147E-1	1.944301E-1	2.033245E-1	1.981890E-1	1.967541E-1	1.841044E-1	1.873341E-1	1.559111E-1	2.091542E-1	1.552679E-1	1.553814E-1	1.408436E-1	1.879664E-1	1.689371E-1	1.864434E-1	1.902628E-1	1.722888E-1	2.037009E-1	2.041260E-1	2.017974E-1	1.921229E-1	1.693633E-1	1.922200E-1	1.620377E-1	2.364998E-1	1.695164E-1	1.582991E-1	1.715508E-1	1.852080E-1	1.872340E-1	1.771776E-1	1.695752E-1	1.621177E-1	2.030375E-1	1.830118E-1	1.858963E-1	1.837471E-1	2.172549E-1	1.753585E-1	1.760884E-1	2.106745E-1	1.670868E-1	1.689618E-1	1.829989E-1	1.686674E-1	1.795243E-1	1.868350E-1	1.685130E-1	1.712507E-1	2.000585E-1	2.301860E-1	2.004343E-1	2.120458E-1	1.689807E-1	1.512000E-1
2.860050E+2	3.463106E-1	3.723308E-1	4.019259E-1	4.164740E-1	3.143325E-1	3.161109E-1	4.267401E-1	4.227431E-1	3.758506E-1	3.494990E-1	3.549319E-1	3.532443E-1	3.881548E-1	3.828395E-1	3.350473E-1	3.332904E-1	3.803521E-1	3.785635E-1	3.269051E-1	3.394048E-1	3.435406E-1	3.802422E-1	4.331027E-1	4.080979E-1	3.673178E-1	3.609921E-1	4.014429E-1	3.791984E-1	4.003350E-1	3.301275E-1	3.629229E-1	3.419634E-1	3.911938E-1	3.813081E-1	4.244075E-1	3.667203E-1	3.519281E-1	3.397651E-1	3.734131E-1	4.130918E-1	3.949549E-1	3.483862E-1	3.964991E-1	4.066613E-1	4.071684E-1	3.670095E-1	3.216022E-1	3.513163E-1	3.767156E-1	3.821046E-1	4.022647E-1	3.532262E-1	3.444066E-1	3.958161E-1	4.066510E-1	3.854187E-1	3.457826E-1	3.237409E-1	3.795476E-1	3.742980E-1	4.401706E-1	3.338776E-1	3.249537E-1	3.711733E-1	3.613712E-1	3.631644E-1	3.772748E-1	3.555522E-1	3.382892E-1	3.833211E-1	4.024429E-1	4.026098E-1	3.813347E-1	3.584111E-1	4.100209E-1	3.885402E-1	4.096467E-1	3.356013E-1	3.660317E-1	3.940632E-1	3.540720E-1	3.785394E-1	4.090414E-1	3.580979E-1	3.551669E-1	4.209974E-1	4.099200E-1	4.255524E-1	3.840374E-1	3.809215E-1	3.991473E-1	3.724603E-1	3.905588E-1	3.229813E-1	3.692371E-1	3.368579E-1	3.261316E-1	3.616888E-1	4.104057E-1	4.011982E-1	3.309281E-1	4.003648E-1	3.806776E-1	3.939395E-1	3.313168E-1	3.427885E-1	3.819798E-1	4.036124E-1	3.635029E-1	3.386386E-1	3.446176E-1	3.302205E-1	3.650229E-1	3.820186E-1	3.479547E-1	3.703913E-1	3.557422E-1	4.078881E-1	4.566245E-1	3.922537E-1	3.584116E-1	3.468727E-1	3.454465E-1	3.589339E-1	4.073958E-1	3.319251E-1	2.993845E-1	2.952985E-1	4.051610E-1	3.667175E-1	3.778875E-1	3.381556E-1	3.253508E-1	3.684526E-1	3.774178E-1	4.115993E-1	3.899519E-1	3.965777E-1	3.349540E-1	3.848394E-1	4.040111E-1	3.266095E-1	3.218775E-1	3.318211E-1	3.835623E-1	3.451539E-1	3.321824E-1	3.521232E-1	3.479805E-1	4.031397E-1	4.058267E-1	3.598029E-1	3.450753E-1	4.154856E-1	4.005305E-1	3.879238E-1	4.031852E-1	3.241532E-1	3.437432E-1	3.372326E-1	3.054075E-1	3.558992E-1	3.551719E-1	3.894524E-1	2.828752E-1	4.020933E-1	4.361231E-1	4.112301E-1	3.882524E-1	4.093615E-1	2.903997E-1
2.862030E+2	7.301911E-1	7.861081E-1	8.582948E-1	8.137028E-1	7.337136E-1	7.889265E-1	8.414657E-1	8.041172E-1	8.615720E-1	7.573014E-1	7.753777E-1	7.869032E-1	8.323034E-1	7.492707E-1	7.123859E-1	7.148601E-1	7.907521E-1	8.002216E-1	7.476734E-1	7.902678E-1	7.852226E-1	7.398673E-1	8.646406E-1	8.049677E-1	7.405561E-1	7.057957E-1	7.919125E-1	8.087147E-1	8.719785E-1	6.537735E-1	7.425904E-1	7.120590E-1	7.840809E-1	7.196903E-1	7.819381E-1	7.651207E-1	7.374311E-1	7.906204E-1	8.444477E-1	8.735085E-1	7.857545E-1	7.850520E-1	8.638194E-1	7.999267E-1	8.352349E-1	7.043675E-1	7.480625E-1	6.850574E-1	7.690950E-1	8.002364E-1	8.595865E-1	7.524539E-1	7.109065E-1	7.608691E-1	8.388380E-1	7.982039E-1	8.073854E-1	7.228011E-1	7.007533E-1	8.179771E-1	8.810518E-1	7.229153E-1	7.228241E-1	7.483938E-1	7.675483E-1	8.378567E-1	8.404586E-1	7.573582E-1	7.037527E-1	7.831260E-1	8.893411E-1	7.977640E-1	7.850896E-1	7.369159E-1	8.974361E-1	7.663131E-1	8.760983E-1	7.327344E-1	7.901047E-1	7.686424E-1	8.317528E-1	8.215446E-1	8.518992E-1	8.474497E-1	7.218642E-1	8.070892E-1	8.695936E-1	8.093800E-1	7.779002E-1	8.105064E-1	8.333980E-1	7.345913E-1	7.871832E-1	6.716354E-1	7.194663E-1	7.524293E-1	7.456675E-1	7.219700E-1	8.345829E-1	8.008286E-1	6.928482E-1	8.658384E-1	8.556599E-1	8.004787E-1	7.015128E-1	7.780907E-1	7.592881E-1	8.473210E-1	7.310124E-1	6.949472E-1	7.091576E-1	7.037729E-1	8.066387E-1	8.398656E-1	7.916243E-1	8.040211E-1	7.296504E-1	8.627988E-1	8.299558E-1	8.337513E-1	7.734271E-1	7.172813E-1	7.653809E-1	7.519161E-1	8.157025E-1	7.264323E-1	6.776721E-1	7.347228E-1	8.121556E-1	8.032590E-1	7.741094E-1	7.432542E-1	6.960018E-1	8.725567E-1	8.946403E-1	8.244631E-1	7.775544E-1	8.202773E-1	7.487932E-1	7.862510E-1	8.360149E-1	7.481961E-1	6.766817E-1	7.239362E-1	8.125617E-1	7.035463E-1	7.648686E-1	7.477993E-1	7.491818E-1	8.099180E-1	8.788929E-1	8.053260E-1	7.091893E-1	7.969156E-1	8.287835E-1	7.730798E-1	8.705797E-1	7.266342E-1	7.589443E-1	7.077186E-1	6.734879E-1	7.590419E-1	8.333592E-1	7.695427E-1	6.973743E-1	8.052854E-1	7.864013E-1	8.434824E-1	7.526124E-1	8.377628E-1	8.088002E-1
2.864210E+2	8.743796E-1	8.674019E-1	9.952052E-1	1.017963E+0	8.493490E-1	8.337282E-1	9.266075E-1	9.755534E-1	9.142930E-1	9.349066E-1	9.078470E-1	9.580377E-1	9.684376E-1	1.003759E+0	8.464398E-1	8.285529E-1	9.021458E-1	8.930389E-1	8.213081E-1	8.396525E-1	8.216054E-1	8.710063E-1	9.072091E-1	9.323574E-1	8.287618E-1	8.933352E-1	9.133200E-1	8.706453E-1	9.458987E-1	9.222246E-1	7.920190E-1	8.261788E-1	8.670617E-1	9.039574E-1	8.779648E-1	8.208000E-1	8.265003E-1	8.639793E-1	9.705238E-1	8.830830E-1	8.680707E-1	8.893718E-1	9.264492E-1	8.972591E-1	9.442711E-1	9.144974E-1	8.778194E-1	8.202538E-1	8.408300E-1	9.356481E-1	9.130025E-1	8.754387E-1	8.157295E-1	8.642325E-1	9.986382E-1	9.034884E-1	8.300461E-1	7.782998E-1	8.454247E-1	8.224686E-1	9.598092E-1	8.376675E-1	8.259480E-1	9.010965E-1	9.020713E-1	9.327942E-1	9.295665E-1	8.451953E-1	7.629784E-1	8.807816E-1	9.494724E-1	8.946872E-1	8.598900E-1	8.771029E-1	9.482475E-1	9.541617E-1	9.232589E-1	8.429179E-1	8.817742E-1	8.755488E-1	9.168069E-1	8.148577E-1	9.886068E-1	9.286768E-1	7.775171E-1	9.017903E-1	1.007404E+0	9.637736E-1	9.085995E-1	9.385568E-1	8.659428E-1	9.035866E-1	9.754544E-1	8.091096E-1	8.553522E-1	8.475978E-1	8.293945E-1	8.186076E-1	9.291504E-1	9.089413E-1	8.060875E-1	8.774524E-1	1.005335E+0	8.962825E-1	7.794954E-1	8.638732E-1	8.981087E-1	9.083303E-1	9.209346E-1	8.230857E-1	7.720936E-1	7.523350E-1	9.299241E-1	9.828824E-1	8.889197E-1	8.245307E-1	7.854215E-1	9.266605E-1	9.932335E-1	9.433982E-1	9.095601E-1	8.694919E-1	8.741900E-1	8.906156E-1	9.457408E-1	8.880379E-1	7.709384E-1	7.941884E-1	8.972731E-1	9.235315E-1	8.855468E-1	9.343211E-1	8.100476E-1	9.611996E-1	9.503408E-1	9.525346E-1	9.234640E-1	8.901178E-1	8.960162E-1	8.958108E-1	9.938280E-1	8.652146E-1	7.611596E-1	8.180762E-1	9.629421E-1	9.229317E-1	8.552189E-1	8.589956E-1	7.917575E-1	9.536538E-1	9.478989E-1	9.102084E-1	8.146386E-1	9.312612E-1	9.222515E-1	9.329186E-1	9.649841E-1	7.609926E-1	8.535859E-1	8.562400E-1	7.491671E-1	8.459249E-1	8.851547E-1	8.678433E-1	8.075099E-1	9.221147E-1	9.472898E-1	9.263795E-1	8.825287E-1	9.305834E-1	9.239999E-1
2.866160E+2	7.002296E-1	7.020734E-1	8.156337E-1	7.623817E-1	7.011395E-1	7.105237E-1	8.066753E-1	8.142023E-1	7.630448E-1	7.400579E-1	7.515172E-1	7.098489E-1	8.391484E-1	7.967848E-1	6.719571E-1	6.494490E-1	7.580874E-1	7.595579E-1	7.306810E-1	7.317381E-1	6.709815E-1	7.141224E-1	8.404345E-1	7.322899E-1	7.568910E-1	7.957810E-1	7.410537E-1	7.877392E-1	7.876130E-1	8.553208E-1	6.616420E-1	6.938315E-1	7.349703E-1	7.766455E-1	7.390686E-1	7.142397E-1	6.664542E-1	7.516473E-1	7.866629E-1	7.708075E-1	7.383593E-1	7.785900E-1	7.674644E-1	7.743645E-1	7.552752E-1	8.028654E-1	6.802921E-1	7.244573E-1	7.535382E-1	8.276845E-1	8.117924E-1	7.146122E-1	6.428098E-1	7.239542E-1	8.115994E-1	7.906829E-1	7.645825E-1	6.285420E-1	6.921414E-1	7.551082E-1	7.852430E-1	7.732939E-1	6.404800E-1	6.569238E-1	7.415109E-1	8.062099E-1	7.469394E-1	7.068991E-1	6.474167E-1	7.681018E-1	8.325504E-1	7.716685E-1	7.102890E-1	7.855141E-1	8.221593E-1	7.445182E-1	7.706318E-1	8.540144E-1	7.147141E-1	7.033561E-1	7.046001E-1	7.989767E-1	7.854707E-1	8.078255E-1	6.730730E-1	7.787601E-1	8.487406E-1	7.964421E-1	7.469918E-1	8.001806E-1	7.738867E-1	6.909503E-1	7.737953E-1	7.511389E-1	6.604208E-1	6.532947E-1	7.033535E-1	7.332289E-1	7.905129E-1	7.168480E-1	6.425206E-1	7.729220E-1	8.262434E-1	7.454963E-1	7.140613E-1	7.516261E-1	7.210230E-1	7.373184E-1	7.417012E-1	7.486827E-1	6.789155E-1	6.283149E-1	7.716786E-1	7.458007E-1	7.264365E-1	7.337023E-1	6.738787E-1	8.033103E-1	7.708231E-1	7.396293E-1	7.223770E-1	7.366376E-1	7.169273E-1	7.730222E-1	7.966050E-1	6.789013E-1	6.925946E-1	6.914756E-1	7.779134E-1	7.435685E-1	7.369631E-1	7.175330E-1	6.674898E-1	8.045063E-1	8.203723E-1	8.101390E-1	7.462233E-1	7.727859E-1	7.200676E-1	7.632347E-1	8.175008E-1	7.169375E-1	6.290676E-1	6.912606E-1	7.618205E-1	8.160754E-1	7.317127E-1	6.718143E-1	6.542032E-1	7.901903E-1	8.007415E-1	7.712620E-1	6.605210E-1	7.490017E-1	7.684547E-1	7.634502E-1	8.048668E-1	6.693715E-1	6.604866E-1	6.669156E-1	6.666076E-1	7.043042E-1	7.288426E-1	7.405206E-1	6.259338E-1	7.622431E-1	8.250141E-1	7.913746E-1	7.630668E-1	7.854016E-1	8.184001E-1
2.868020E+2	8.828075E-1	9.505231E-1	1.000166E+0	1.049782E+0	9.250814E-1	8.601286E-1	1.005341E+0	1.033309E+0	9.886201E-1	9.271469E-1	9.243025E-1	9.553496E-1	9.882117E-1	1.095568E+0	8.393474E-1	8.885140E-1	9.540744E-1	9.823199E-1	9.240722E-1	9.045842E-1	8.878214E-1	9.587006E-1	9.931840E-1	9.478735E-1	9.725043E-1	9.261336E-1	9.379297E-1	9.665375E-1	1.006964E+0	9.891284E-1	8.335674E-1	8.174608E-1	9.314140E-1	9.106573E-1	8.994006E-1	9.427205E-1	8.362426E-1	9.174707E-1	1.003794E+0	1.022339E+0	9.462308E-1	9.613805E-1	1.036294E+0	9.316693E-1	9.959620E-1	1.008072E+0	8.612896E-1	8.125285E-1	9.566419E-1	1.026229E+0	9.823506E-1	9.038199E-1	8.861223E-1	9.429868E-1	1.064919E+0	9.928968E-1	9.408315E-1	8.364412E-1	9.177613E-1	9.383280E-1	1.049123E+0	9.981335E-1	8.467264E-1	8.602745E-1	9.732399E-1	1.008337E+0	9.886782E-1	8.517362E-1	8.330380E-1	9.258537E-1	1.060550E+0	1.023299E+0	8.921904E-1	1.018224E+0	9.962362E-1	9.718056E-1	9.412652E-1	1.070417E+0	9.323193E-1	8.771802E-1	9.365668E-1	1.007941E+0	1.015564E+0	9.900936E-1	8.430799E-1	9.875888E-1	1.025538E+0	1.014663E+0	9.333260E-1	1.044920E+0	9.700892E-1	8.850162E-1	9.880067E-1	1.026915E+0	8.901323E-1	8.483907E-1	9.446320E-1	9.537136E-1	9.869933E-1	9.253504E-1	7.972055E-1	9.453521E-1	1.063302E+0	9.529308E-1	8.852659E-1	1.049128E+0	8.998884E-1	9.323652E-1	9.069573E-1	1.019014E+0	8.194997E-1	8.651469E-1	9.593658E-1	1.017436E+0	9.823245E-1	9.290319E-1	8.490495E-1	9.887735E-1	9.808769E-1	9.598936E-1	9.227947E-1	9.460365E-1	9.336948E-1	9.438838E-1	9.948475E-1	9.728019E-1	8.142137E-1	8.335743E-1	9.823898E-1	1.038458E+0	8.826888E-1	9.122741E-1	8.655707E-1	1.005970E+0	1.064395E+0	9.407385E-1	9.145127E-1	9.804447E-1	9.202545E-1	9.381618E-1	9.779586E-1	8.828488E-1	8.717476E-1	8.608662E-1	9.122006E-1	9.673762E-1	8.800861E-1	8.682625E-1	8.981986E-1	9.808980E-1	9.670208E-1	9.451686E-1	7.830933E-1	9.472319E-1	9.282000E-1	9.839523E-1	9.677602E-1	8.599771E-1	8.879311E-1	8.562393E-1	7.723865E-1	8.745972E-1	9.304768E-1	9.380560E-1	8.186721E-1	9.906301E-1	1.013484E+0	9.678282E-1	9.721252E-1	1.097184E+0	9.240002E-1
2.870100E+2	8.856153E-1	9.952805E-1	1.102352E+0	1.070311E+0	9.169384E-1	9.369314E-1	1.054779E+0	1.061729E+0	9.938058E-1	1.011639E+0	1.004114E+0	9.741661E-1	1.084799E+0	1.102011E+0	8.847411E-1	8.713824E-1	9.582620E-1	9.655246E-1	9.726232E-1	9.411649E-1	9.161988E-1	9.184739E-1	1.008208E+0	9.152093E-1	8.916492E-1	9.471589E-1	9.010149E-1	9.575482E-1	9.804490E-1	1.018398E+0	8.049129E-1	9.228627E-1	9.237931E-1	9.785016E-1	9.242639E-1	9.667201E-1	8.077124E-1	9.006593E-1	9.967895E-1	1.010154E+0	8.447889E-1	9.281459E-1	1.036294E+0	9.356028E-1	1.033923E+0	1.003967E+0	8.844315E-1	8.009399E-1	8.918223E-1	1.004270E+0	1.000157E+0	8.839526E-1	8.493963E-1	9.454467E-1	1.028602E+0	9.594731E-1	9.827945E-1	8.170605E-1	9.125941E-1	9.482073E-1	1.028012E+0	9.673476E-1	8.113256E-1	8.587634E-1	9.524106E-1	9.736278E-1	9.745612E-1	8.919167E-1	8.243705E-1	9.609102E-1	1.073912E+0	9.739055E-1	9.270412E-1	1.020093E+0	1.010351E+0	1.013318E+0	9.892817E-1	1.018099E+0	9.194687E-1	8.331126E-1	9.709325E-1	9.928956E-1	9.732039E-1	9.950471E-1	8.606143E-1	9.835419E-1	1.045484E+0	1.024151E+0	9.721826E-1	1.024267E+0	9.756688E-1	9.295846E-1	9.629037E-1	1.047619E+0	8.715288E-1	8.475984E-1	8.528015E-1	9.978109E-1	9.061973E-1	9.987126E-1	8.334721E-1	9.784093E-1	1.078010E+0	9.412683E-1	8.852665E-1	9.852468E-1	9.185757E-1	9.499290E-1	9.464216E-1	1.042162E+0	8.758982E-1	8.203211E-1	9.225640E-1	1.011677E+0	9.725944E-1	8.801983E-1	8.804697E-1	1.004520E+0	1.046189E+0	1.026846E+0	9.435934E-1	1.082411E+0	9.515458E-1	9.257927E-1	1.047591E+0	1.103512E+0	8.291368E-1	8.289406E-1	9.853245E-1	1.031331E+0	9.207872E-1	8.810428E-1	8.760748E-1	1.053425E+0	1.076773E+0	9.710723E-1	9.682223E-1	1.013036E+0	9.929683E-1	9.252727E-1	1.007935E+0	1.043147E+0	8.310451E-1	8.538642E-1	9.906203E-1	1.008984E+0	9.405952E-1	9.173740E-1	8.711791E-1	1.054174E+0	9.986147E-1	9.281364E-1	8.597017E-1	9.801136E-1	9.409448E-1	9.560281E-1	1.045505E+0	9.630516E-1	8.909842E-1	8.652157E-1	8.343066E-1	9.180392E-1	9.480499E-1	8.809488E-1	8.648103E-1	1.020496E+0	1.073243E+0	9.903286E-1	9.721251E-1	9.401026E-1	1.020000E+0
2.872160E+2	6.365620E-1	6.719310E-1	7.332903E-1	7.141391E-1	5.993483E-1	6.217206E-1	7.169559E-1	7.353593E-1	6.671108E-1	6.797073E-1	6.610096E-1	6.766966E-1	7.585320E-1	6.977286E-1	5.946449E-1	6.416615E-1	6.718192E-1	6.667404E-1	6.012135E-1	6.649776E-1	6.098593E-1	6.650458E-1	6.851808E-1	6.718612E-1	6.425505E-1	6.519732E-1	6.401543E-1	7.268074E-1	7.128889E-1	7.047877E-1	5.871415E-1	6.161672E-1	6.375947E-1	6.861872E-1	6.747639E-1	6.201598E-1	6.003478E-1	6.706468E-1	6.886032E-1	6.872528E-1	6.934589E-1	6.668844E-1	6.470218E-1	6.445858E-1	6.777389E-1	7.248881E-1	6.472328E-1	6.078029E-1	6.740247E-1	7.023368E-1	7.171423E-1	6.114944E-1	5.815988E-1	6.714519E-1	7.580297E-1	6.795489E-1	6.428874E-1	5.624724E-1	6.292789E-1	6.823595E-1	7.194759E-1	7.145189E-1	6.058484E-1	6.289528E-1	6.512497E-1	7.051464E-1	6.790058E-1	6.657842E-1	5.874689E-1	6.620998E-1	6.972539E-1	6.561039E-1	6.065883E-1	6.761683E-1	7.120672E-1	7.248004E-1	6.874601E-1	7.414545E-1	6.693082E-1	6.241970E-1	6.057993E-1	7.036891E-1	6.959363E-1	6.998511E-1	6.059842E-1	6.832488E-1	7.725815E-1	6.920756E-1	6.162934E-1	7.134372E-1	7.087951E-1	6.603080E-1	7.168959E-1	6.915117E-1	6.078457E-1	6.120541E-1	6.286291E-1	6.975759E-1	6.628920E-1	6.753407E-1	6.069944E-1	7.282512E-1	7.743329E-1	6.996772E-1	5.921567E-1	7.224229E-1	6.489431E-1	6.910987E-1	6.882604E-1	6.957738E-1	6.135275E-1	6.178554E-1	6.732346E-1	7.054861E-1	6.554104E-1	6.047855E-1	6.432425E-1	6.965806E-1	7.187509E-1	7.017878E-1	7.044154E-1	7.225601E-1	6.633723E-1	6.845766E-1	7.238555E-1	7.478210E-1	5.985825E-1	5.972586E-1	7.035585E-1	7.177332E-1	6.674332E-1	6.137324E-1	6.014628E-1	7.409341E-1	7.416830E-1	6.660589E-1	6.898297E-1	7.262256E-1	6.832609E-1	6.509130E-1	7.214014E-1	7.185418E-1	5.875965E-1	5.955653E-1	7.332204E-1	7.111114E-1	6.645715E-1	6.347490E-1	5.813317E-1	7.582501E-1	7.383858E-1	6.502454E-1	6.235688E-1	7.104835E-1	7.259689E-1	7.037513E-1	6.688137E-1	7.331791E-1	6.139292E-1	5.861274E-1	6.115673E-1	7.069111E-1	6.622477E-1	6.581377E-1	5.626798E-1	7.508227E-1	7.220457E-1	7.440047E-1	7.152818E-1	7.330421E-1	6.696000E-1
2.874030E+2	4.071697E-1	4.380971E-1	5.021294E-1	4.975617E-1	4.079800E-1	4.201135E-1	4.990657E-1	4.951675E-1	5.098129E-1	4.598557E-1	4.413248E-1	4.500114E-1	4.687708E-1	4.496835E-1	3.939179E-1	3.932515E-1	4.448437E-1	4.952491E-1	4.409975E-1	4.400031E-1	4.425004E-1	4.429957E-1	4.798453E-1	4.432120E-1	4.416382E-1	4.577055E-1	4.449188E-1	4.541143E-1	5.063946E-1	4.656074E-1	3.879952E-1	4.006076E-1	4.623193E-1	4.642280E-1	4.955700E-1	4.550398E-1	3.902000E-1	4.582098E-1	4.679698E-1	4.853311E-1	4.456762E-1	4.693239E-1	4.620205E-1	4.548360E-1	4.572442E-1	4.786413E-1	4.554909E-1	3.675402E-1	4.380782E-1	4.909841E-1	4.847319E-1	4.147186E-1	4.278063E-1	4.589828E-1	4.929071E-1	4.656362E-1	4.632813E-1	4.135957E-1	4.424106E-1	4.515383E-1	4.978176E-1	4.747521E-1	4.096068E-1	4.324054E-1	4.342747E-1	5.183329E-1	4.575595E-1	4.489954E-1	4.206265E-1	4.283923E-1	5.243764E-1	4.846231E-1	4.595360E-1	5.023366E-1	4.937661E-1	4.975134E-1	4.619509E-1	5.282220E-1	4.422789E-1	3.965118E-1	4.459994E-1	4.796779E-1	4.889487E-1	5.126296E-1	4.268291E-1	4.663244E-1	5.069321E-1	5.221564E-1	4.034662E-1	5.275593E-1	5.153819E-1	4.736720E-1	4.683773E-1	5.010348E-1	4.226205E-1	4.225096E-1	4.665767E-1	4.677095E-1	4.452944E-1	4.919358E-1	3.812563E-1	4.763058E-1	5.251620E-1	5.072374E-1	4.433616E-1	4.888022E-1	4.335934E-1	4.267223E-1	4.572304E-1	4.428031E-1	4.018319E-1	4.064256E-1	4.689869E-1	5.077581E-1	4.656826E-1	4.827049E-1	4.130852E-1	4.682516E-1	4.831023E-1	4.349481E-1	4.349865E-1	5.193195E-1	4.508555E-1	4.503958E-1	5.147014E-1	5.133349E-1	4.023504E-1	3.980110E-1	4.433169E-1	4.914439E-1	4.674186E-1	4.208292E-1	3.996306E-1	4.884347E-1	5.082708E-1	4.731079E-1	4.517174E-1	4.636252E-1	4.310080E-1	4.400797E-1	5.300854E-1	5.293881E-1	3.940668E-1	4.212915E-1	4.675174E-1	5.068562E-1	4.391104E-1	4.651739E-1	4.388646E-1	4.933257E-1	4.972810E-1	4.709593E-1	3.883361E-1	4.671572E-1	4.583116E-1	4.456970E-1	4.966641E-1	4.934893E-1	4.208302E-1	3.861953E-1	4.129076E-1	4.844872E-1	5.105594E-1	4.531125E-1	4.160796E-1	4.881779E-1	4.949630E-1	4.893916E-1	4.390237E-1	5.640620E-1	4.584002E-1
2.876200E+2	4.015521E-1	4.289632E-1	4.237534E-1	4.462405E-1	3.859936E-1	3.593122E-1	4.551213E-1	4.566632E-1	4.017788E-1	4.512333E-1	3.993622E-1	3.980434E-1	4.147736E-1	4.376029E-1	3.655467E-1	4.158338E-1	3.904029E-1	4.501657E-1	3.867829E-1	4.244560E-1	3.879269E-1	3.858733E-1	4.422840E-1	4.252468E-1	4.195871E-1	4.131333E-1	4.129267E-1	4.451246E-1	4.380983E-1	4.405183E-1	3.364179E-1	3.800026E-1	4.309910E-1	3.695826E-1	4.021146E-1	3.945602E-1	3.679327E-1	3.840860E-1	4.478329E-1	4.200550E-1	3.999449E-1	4.536295E-1	3.993892E-1	4.597514E-1	4.136293E-1	4.261095E-1	3.901995E-1	3.799007E-1	3.940004E-1	4.928141E-1	4.135104E-1	3.551188E-1	3.551187E-1	3.859724E-1	4.820114E-1	4.104863E-1	4.070505E-1	3.836440E-1	4.157153E-1	4.434545E-1	4.572209E-1	4.467629E-1	3.757457E-1	3.681497E-1	4.377465E-1	3.794979E-1	4.231514E-1	3.695684E-1	3.592341E-1	4.367392E-1	4.433660E-1	4.147246E-1	3.991854E-1	4.182245E-1	4.278987E-1	3.978813E-1	4.156486E-1	4.687713E-1	3.600344E-1	3.712132E-1	4.236622E-1	4.621257E-1	4.292592E-1	4.244673E-1	3.696517E-1	4.031905E-1	4.534394E-1	4.324534E-1	4.184790E-1	4.501098E-1	3.917086E-1	4.188880E-1	4.215187E-1	4.447204E-1	3.854138E-1	3.765119E-1	4.017555E-1	4.292419E-1	4.710021E-1	4.272612E-1	3.250071E-1	4.423560E-1	4.568134E-1	4.197646E-1	3.635850E-1	4.367846E-1	3.979974E-1	4.221011E-1	4.251647E-1	4.370160E-1	3.552426E-1	3.899888E-1	3.963044E-1	4.280914E-1	4.471961E-1	4.250837E-1	3.903051E-1	4.481304E-1	4.142609E-1	4.174824E-1	4.274234E-1	4.427744E-1	3.879498E-1	4.091875E-1	4.546833E-1	4.784788E-1	3.419138E-1	3.686649E-1	4.257062E-1	4.540260E-1	3.988415E-1	3.895970E-1	3.831246E-1	4.544097E-1	4.180880E-1	3.854800E-1	3.997984E-1	4.757304E-1	3.798390E-1	3.903641E-1	4.613185E-1	4.556504E-1	3.287895E-1	3.629407E-1	4.444527E-1	4.368792E-1	3.852314E-1	3.938229E-1	3.447051E-1	4.961444E-1	4.349255E-1	4.189664E-1	3.603969E-1	4.370943E-1	3.979816E-1	4.196987E-1	4.688983E-1	4.435884E-1	3.773253E-1	3.560013E-1	3.527073E-1	4.618985E-1	4.152919E-1	4.053672E-1	3.513377E-1	4.706093E-1	4.664622E-1	4.526791E-1	3.987063E-1	5.045617E-1	4.296002E-1
2.878020E+2	3.875082E-1	3.878591E-1	4.336739E-1	4.154475E-1	3.933228E-1	3.809124E-1	4.294869E-1	4.089922E-1	4.199284E-1	4.279554E-1	3.927804E-1	4.141721E-1	4.543207E-1	4.496826E-1	3.768951E-1	3.807918E-1	3.929156E-1	4.015470E-1	4.175315E-1	3.951912E-1	3.741016E-1	4.092046E-1	4.823497E-1	4.464789E-1	4.138701E-1	4.476142E-1	4.186692E-1	4.431266E-1	4.581853E-1	4.405182E-1	3.743841E-1	3.792104E-1	4.462321E-1	4.206743E-1	4.252643E-1	4.723198E-1	3.359233E-1	3.863790E-1	4.382025E-1	4.252765E-1	4.099224E-1	4.240877E-1	4.215519E-1	4.332067E-1	4.418980E-1	4.367795E-1	3.951582E-1	3.428189E-1	4.069644E-1	4.324270E-1	4.509954E-1	4.062041E-1	4.063825E-1	3.826905E-1	4.302577E-1	4.138291E-1	4.179608E-1	3.625019E-1	3.847151E-1	3.931596E-1	4.434183E-1	4.738191E-1	3.849801E-1	3.794887E-1	4.403502E-1	4.438114E-1	4.487364E-1	3.826507E-1	3.736799E-1	4.075258E-1	4.592336E-1	4.361604E-1	4.042857E-1	4.387849E-1	4.758880E-1	4.456216E-1	4.327972E-1	4.917592E-1	3.951598E-1	4.014081E-1	3.661002E-1	4.378853E-1	4.408123E-1	4.323929E-1	3.627904E-1	4.250449E-1	4.425598E-1	4.471159E-1	4.184785E-1	4.459789E-1	4.633083E-1	4.207449E-1	4.700508E-1	4.621124E-1	3.878408E-1	3.836497E-1	3.927529E-1	4.423764E-1	4.370310E-1	3.963721E-1	3.353683E-1	4.441425E-1	4.507569E-1	4.081013E-1	3.743420E-1	4.230960E-1	3.944378E-1	4.026882E-1	4.194105E-1	5.014984E-1	3.617818E-1	3.623455E-1	4.137854E-1	4.568865E-1	4.248187E-1	4.133640E-1	3.785226E-1	4.288840E-1	4.230871E-1	4.038975E-1	3.811003E-1	4.471729E-1	3.956010E-1	4.212490E-1	4.446804E-1	4.959073E-1	3.493750E-1	3.547637E-1	4.354903E-1	4.540259E-1	4.493214E-1	4.290967E-1	3.756217E-1	4.821666E-1	4.490330E-1	4.377200E-1	4.382904E-1	4.515190E-1	3.924072E-1	3.829982E-1	4.339875E-1	4.476358E-1	3.787070E-1	3.761671E-1	4.444535E-1	4.605201E-1	3.752850E-1	4.105016E-1	3.962884E-1	4.313227E-1	4.515535E-1	4.404810E-1	3.441740E-1	4.727946E-1	4.413169E-1	3.956267E-1	4.513137E-1	5.082145E-1	3.895368E-1	3.861950E-1	3.329274E-1	4.540786E-1	4.125170E-1	4.147290E-1	3.587798E-1	4.565548E-1	4.683011E-1	4.491268E-1	4.091583E-1	4.379217E-1	4.728002E-1
2.880020E+2	4.165323E-1	4.207416E-1	4.862555E-1	4.370032E-1	3.786644E-1	4.257141E-1	4.835024E-1	4.676645E-1	4.804270E-1	4.512345E-1	4.865784E-1	4.455311E-1	4.604049E-1	4.617633E-1	4.456958E-1	3.948084E-1	4.507061E-1	4.059672E-1	4.369514E-1	4.372596E-1	4.374071E-1	3.923102E-1	4.781758E-1	4.350462E-1	4.293881E-1	4.745253E-1	4.588641E-1	4.611068E-1	4.501502E-1	4.572445E-1	4.116345E-1	4.212127E-1	4.267567E-1	4.139736E-1	4.304090E-1	4.272001E-1	4.222092E-1	4.215302E-1	4.846056E-1	4.461648E-1	4.049334E-1	4.683998E-1	4.109526E-1	4.548360E-1	4.435133E-1	4.376001E-1	4.158200E-1	4.046224E-1	4.415358E-1	4.333428E-1	4.322527E-1	4.033661E-1	3.834284E-1	4.762100E-1	4.729313E-1	4.464176E-1	4.104070E-1	3.810011E-1	4.536063E-1	4.560289E-1	4.953818E-1	4.840813E-1	3.618934E-1	4.067026E-1	4.160489E-1	4.815818E-1	4.478548E-1	3.910609E-1	3.845134E-1	4.492592E-1	4.675853E-1	4.445479E-1	3.957851E-1	4.387853E-1	4.363680E-1	5.099675E-1	4.825292E-1	4.671857E-1	4.319983E-1	4.136492E-1	4.666192E-1	4.863649E-1	4.619918E-1	4.561673E-1	3.955719E-1	4.396136E-1	4.516266E-1	4.997309E-1	4.096476E-1	4.604364E-1	4.688880E-1	4.105308E-1	4.859491E-1	4.463775E-1	4.347536E-1	4.026835E-1	4.125587E-1	4.498834E-1	5.205819E-1	4.378792E-1	4.004996E-1	4.754125E-1	4.888244E-1	4.789127E-1	4.191593E-1	4.833260E-1	4.273634E-1	4.757149E-1	4.111882E-1	4.626436E-1	3.961109E-1	3.870002E-1	4.358657E-1	4.866425E-1	3.956295E-1	3.996907E-1	4.154420E-1	4.560038E-1	4.822195E-1	4.757016E-1	4.170247E-1	4.621313E-1	4.185524E-1	4.182337E-1	4.501364E-1	4.705575E-1	3.545981E-1	4.188630E-1	4.482089E-1	4.540259E-1	4.883720E-1	4.143987E-1	3.936292E-1	5.260415E-1	4.746733E-1	4.596264E-1	4.087503E-1	4.710736E-1	4.193381E-1	4.373177E-1	4.666078E-1	4.845047E-1	3.717964E-1	3.738332E-1	4.389173E-1	4.567372E-1	4.465700E-1	4.003087E-1	4.020196E-1	5.045993E-1	4.465652E-1	4.557205E-1	4.045587E-1	4.455489E-1	4.438663E-1	4.274024E-1	4.328019E-1	5.065783E-1	4.269362E-1	3.649782E-1	3.423872E-1	4.375701E-1	4.707880E-1	4.053672E-1	3.773837E-1	4.600686E-1	4.728980E-1	4.834698E-1	4.255853E-1	4.998016E-1	4.776002E-1
2.882020E+2	4.052974E-1	4.481439E-1	4.564919E-1	4.318705E-1	4.332245E-1	4.489151E-1	4.935728E-1	4.704149E-1	4.380785E-1	4.365776E-1	4.882241E-1	4.320916E-1	4.444339E-1	4.569311E-1	4.776128E-1	3.924728E-1	4.540566E-1	4.103861E-1	4.498991E-1	4.070800E-1	4.374070E-1	4.003556E-1	5.215806E-1	4.505616E-1	4.628730E-1	4.745253E-1	4.760908E-1	4.411284E-1	4.983593E-1	4.840065E-1	4.825537E-1	4.053624E-1	4.521593E-1	4.901930E-1	4.578453E-1	4.848006E-1	3.846331E-1	4.444550E-1	4.881071E-1	4.862019E-1	4.373612E-1	4.600911E-1	4.938175E-1	4.351725E-1	4.354368E-1	4.769999E-1	4.505324E-1	4.092579E-1	4.017790E-1	4.983038E-1	5.109727E-1	3.853913E-1	4.392838E-1	4.573423E-1	4.938150E-1	4.255276E-1	4.297107E-1	3.616210E-1	4.682456E-1	4.712966E-1	4.961941E-1	4.430318E-1	4.411598E-1	3.794886E-1	4.351428E-1	4.907699E-1	4.602061E-1	4.060119E-1	3.780134E-1	4.592756E-1	4.918051E-1	4.594596E-1	4.255354E-1	4.425234E-1	4.909432E-1	4.871357E-1	4.756701E-1	4.973077E-1	4.499896E-1	4.373150E-1	4.236622E-1	4.696481E-1	4.639175E-1	4.908373E-1	4.092947E-1	4.922261E-1	4.398402E-1	5.023176E-1	4.352583E-1	5.027757E-1	4.651685E-1	4.588152E-1	4.650304E-1	4.737058E-1	4.137236E-1	3.987183E-1	4.116595E-1	4.658330E-1	4.902835E-1	4.234001E-1	3.886576E-1	4.709449E-1	5.043979E-1	4.697491E-1	3.895796E-1	4.815012E-1	4.113459E-1	4.553790E-1	4.358534E-1	4.932315E-1	4.010143E-1	3.787821E-1	4.110249E-1	4.607267E-1	4.355210E-1	4.133640E-1	4.091580E-1	4.874974E-1	4.380909E-1	4.766718E-1	4.255329E-1	5.061219E-1	4.219531E-1	4.373303E-1	4.510458E-1	4.919457E-1	4.045883E-1	3.640312E-1	4.169015E-1	4.736257E-1	4.369391E-1	4.382825E-1	3.703695E-1	4.750039E-1	4.640634E-1	4.469882E-1	4.794674E-1	5.008727E-1	4.435756E-1	3.903632E-1	5.433104E-1	5.053438E-1	3.687241E-1	4.033975E-1	5.081112E-1	4.898342E-1	4.258476E-1	4.410813E-1	3.930134E-1	4.839313E-1	4.490592E-1	4.368957E-1	4.162757E-1	4.399127E-1	4.821030E-1	4.254765E-1	4.837069E-1	4.599495E-1	3.903005E-1	3.878269E-1	3.466871E-1	4.714553E-1	4.402661E-1	4.503042E-1	4.011969E-1	4.697315E-1	5.087536E-1	4.574165E-1	4.464898E-1	4.331615E-1	4.679999E-1
2.884210E+2	4.858190E-1	4.965553E-1	5.636388E-1	5.324610E-1	4.356680E-1	4.993163E-1	5.384321E-1	5.795094E-1	5.184560E-1	5.107232E-1	5.515783E-1	4.742028E-1	5.265708E-1	5.374651E-1	5.180422E-1	4.874760E-1	4.775080E-1	5.093925E-1	5.680379E-1	5.406010E-1	4.548708E-1	4.864400E-1	5.724968E-1	5.395711E-1	5.028932E-1	5.552594E-1	5.417163E-1	5.759772E-1	5.907597E-1	6.010873E-1	5.627851E-1	4.909523E-1	5.215920E-1	5.169958E-1	5.521579E-1	5.107193E-1	4.904025E-1	5.025312E-1	5.196264E-1	5.532183E-1	5.005539E-1	5.588719E-1	6.123337E-1	4.990777E-1	5.767798E-1	5.385613E-1	5.637590E-1	4.270263E-1	5.296908E-1	5.129431E-1	5.297150E-1	4.932401E-1	4.698888E-1	5.041017E-1	5.528314E-1	5.182785E-1	5.169953E-1	4.453088E-1	5.698595E-1	4.883615E-1	5.790114E-1	5.577843E-1	5.612133E-1	4.565956E-1	5.184611E-1	5.601870E-1	6.040141E-1	4.938487E-1	4.545733E-1	5.352297E-1	5.527711E-1	4.939424E-1	4.748360E-1	5.294395E-1	5.615154E-1	5.421409E-1	5.288321E-1	5.694413E-1	5.733555E-1	4.781187E-1	5.052806E-1	5.632635E-1	5.621164E-1	5.235265E-1	4.565612E-1	5.132709E-1	5.622381E-1	5.695962E-1	5.138538E-1	5.378863E-1	5.376987E-1	5.368128E-1	5.420119E-1	5.482406E-1	5.382857E-1	4.463024E-1	5.151929E-1	5.249415E-1	5.031369E-1	5.054499E-1	4.537888E-1	5.352718E-1	5.839936E-1	5.222322E-1	5.016248E-1	5.253049E-1	5.279201E-1	5.367256E-1	5.073834E-1	5.428338E-1	5.195314E-1	4.482630E-1	4.754272E-1	5.106383E-1	5.016819E-1	5.032147E-1	4.814259E-1	5.364883E-1	5.501783E-1	5.523566E-1	5.276316E-1	6.011432E-1	4.865584E-1	5.217555E-1	5.556230E-1	5.481912E-1	4.381644E-1	4.667437E-1	4.844075E-1	5.912252E-1	5.007544E-1	5.025830E-1	4.348950E-1	5.851367E-1	5.533618E-1	5.607364E-1	5.018464E-1	4.990099E-1	5.270618E-1	4.980814E-1	5.741675E-1	5.862944E-1	4.286263E-1	4.718618E-1	5.145688E-1	5.560283E-1	5.319466E-1	4.651739E-1	4.544210E-1	5.590870E-1	5.338621E-1	5.453622E-1	4.406093E-1	5.235263E-1	5.058942E-1	4.861385E-1	5.410895E-1	5.613882E-1	4.719669E-1	4.531107E-1	4.516066E-1	5.496507E-1	5.420070E-1	4.606019E-1	4.250100E-1	5.602075E-1	4.940444E-1	5.592613E-1	4.808357E-1	5.712016E-1	5.400003E-1
2.886030E+2	6.496700E-1	7.029873E-1	7.521395E-1	7.551959E-1	6.197067E-1	6.473216E-1	7.508296E-1	7.106076E-1	7.060029E-1	7.340231E-1	7.465802E-1	6.820733E-1	7.144215E-1	7.444378E-1	7.556519E-1	6.587931E-1	6.651199E-1	7.188947E-1	7.468643E-1	7.097891E-1	6.462416E-1	7.020546E-1	7.653117E-1	6.604286E-1	7.176892E-1	7.436395E-1	7.746858E-1	7.597709E-1	7.924337E-1	7.273674E-1	7.296956E-1	6.621315E-1	6.994076E-1	6.836742E-1	7.424975E-1	6.816002E-1	6.420990E-1	6.668259E-1	8.269373E-1	6.959570E-1	6.876383E-1	7.213525E-1	8.011882E-1	7.782966E-1	7.181226E-1	7.133962E-1	8.150074E-1	5.923513E-1	6.697034E-1	6.922722E-1	7.461927E-1	6.900149E-1	5.991964E-1	7.116489E-1	7.462266E-1	7.539168E-1	6.512798E-1	6.074001E-1	7.506996E-1	7.209788E-1	7.957981E-1	7.341115E-1	7.620734E-1	6.387804E-1	7.041910E-1	6.918758E-1	7.398811E-1	6.312101E-1	5.946916E-1	6.754544E-1	7.857814E-1	7.222746E-1	6.745883E-1	7.574769E-1	7.553519E-1	6.988538E-1	7.449098E-1	7.152955E-1	7.926748E-1	6.274608E-1	6.917134E-1	7.421380E-1	7.835445E-1	7.335314E-1	6.463896E-1	7.123877E-1	7.272482E-1	7.136388E-1	7.107848E-1	7.185999E-1	7.125147E-1	6.779508E-1	7.344678E-1	7.113869E-1	8.011590E-1	6.596398E-1	6.934504E-1	7.219707E-1	7.390973E-1	7.139520E-1	5.714683E-1	7.523737E-1	7.665465E-1	7.021764E-1	6.656584E-1	7.835658E-1	7.210234E-1	6.883252E-1	7.326576E-1	7.462023E-1	7.688243E-1	6.275680E-1	7.091165E-1	7.323625E-1	7.254627E-1	6.438513E-1	6.746642E-1	7.884384E-1	7.514066E-1	7.173122E-1	6.921255E-1	7.929465E-1	7.645309E-1	7.247791E-1	7.238562E-1	7.470291E-1	7.821303E-1	6.497732E-1	6.947538E-1	7.524778E-1	7.731563E-1	6.468019E-1	6.344763E-1	7.821218E-1	7.832383E-1	7.578998E-1	6.486516E-1	7.960655E-1	7.039085E-1	7.043119E-1	7.875245E-1	7.618222E-1	6.720742E-1	6.445804E-1	7.147692E-1	7.583925E-1	7.085031E-1	6.931277E-1	6.501095E-1	7.610676E-1	7.616656E-1	7.219585E-1	5.821098E-1	7.133015E-1	6.741372E-1	7.008633E-1	7.058350E-1	7.642650E-1	6.719352E-1	6.465149E-1	6.003870E-1	7.877137E-1	7.066443E-1	6.909033E-1	5.820283E-1	7.534586E-1	7.569811E-1	7.534787E-1	6.988563E-1	8.068226E-1	7.751999E-1
2.888080E+2	7.592164E-1	8.272120E-1	8.225796E-1	8.455222E-1	6.555372E-1	7.249240E-1	8.625214E-1	8.389551E-1	7.423023E-1	8.254122E-1	8.387327E-1	7.223930E-1	8.353449E-1	8.596023E-1	7.932437E-1	7.460091E-1	8.192285E-1	7.984531E-1	8.374909E-1	7.829518E-1	6.913554E-1	7.720491E-1	8.521194E-1	7.804695E-1	7.291231E-1	8.142829E-1	8.312885E-1	7.657638E-1	7.755613E-1	8.218686E-1	7.956009E-1	7.358338E-1	7.578327E-1	8.026103E-1	8.068012E-1	7.363192E-1	7.311686E-1	7.646378E-1	8.015469E-1	8.108436E-1	8.215075E-1	8.339812E-1	8.599649E-1	7.684648E-1	8.336199E-1	7.749580E-1	8.687286E-1	6.603358E-1	7.846524E-1	8.359194E-1	8.436541E-1	7.515075E-1	7.170279E-1	8.182932E-1	8.388374E-1	8.174223E-1	7.419221E-1	7.069443E-1	8.152850E-1	8.009129E-1	8.096013E-1	8.106124E-1	8.120956E-1	7.037922E-1	7.623412E-1	8.041678E-1	8.228136E-1	7.396042E-1	6.820856E-1	7.622591E-1	8.751432E-1	7.763281E-1	7.706392E-1	8.500007E-1	8.663845E-1	8.016000E-1	8.212221E-1	8.318199E-1	8.346545E-1	7.417122E-1	7.552894E-1	8.466204E-1	8.759676E-1	8.098066E-1	6.852704E-1	8.370375E-1	8.650595E-1	8.507814E-1	7.531731E-1	8.321923E-1	8.389774E-1	7.819477E-1	8.072661E-1	8.173919E-1	8.796174E-1	7.167408E-1	7.258611E-1	7.670055E-1	8.703897E-1	7.998630E-1	6.610225E-1	8.104458E-1	8.643108E-1	7.704881E-1	7.284033E-1	8.036422E-1	8.189093E-1	8.029506E-1	7.844544E-1	7.825774E-1	8.767151E-1	6.836013E-1	7.762790E-1	9.003362E-1	8.178942E-1	7.053800E-1	7.178672E-1	8.488018E-1	8.052440E-1	7.755324E-1	7.942256E-1	8.606934E-1	8.325365E-1	7.931238E-1	8.120653E-1	8.848693E-1	8.492819E-1	6.922482E-1	8.209616E-1	8.246413E-1	8.579252E-1	6.964059E-1	6.487318E-1	8.027163E-1	8.681158E-1	7.730661E-1	7.981424E-1	8.416946E-1	8.116330E-1	7.844102E-1	8.316072E-1	8.876570E-1	8.026304E-1	7.254930E-1	7.784270E-1	8.425526E-1	8.328382E-1	7.487257E-1	7.409932E-1	9.038638E-1	8.739046E-1	8.035338E-1	7.154978E-1	7.865812E-1	7.998938E-1	7.567101E-1	8.104198E-1	8.665215E-1	7.986328E-1	7.077189E-1	6.545673E-1	8.641709E-1	8.074613E-1	7.920116E-1	6.891875E-1	7.965008E-1	8.194983E-1	8.659824E-1	7.899455E-1	8.615617E-1	8.615997E-1
2.890020E+2	5.757033E-1	6.564037E-1	7.094790E-1	7.326145E-1	6.131923E-1	5.873197E-1	7.004775E-1	6.840206E-1	6.627899E-1	6.728093E-1	7.070865E-1	6.310008E-1	6.771552E-1	7.170565E-1	6.414574E-1	5.692408E-1	6.483681E-1	6.331494E-1	6.813214E-1	6.110199E-1	5.742043E-1	5.998790E-1	6.484541E-1	6.457298E-1	6.229500E-1	6.662699E-1	6.541000E-1	6.239231E-1	6.590558E-1	6.838800E-1	6.508972E-1	5.694100E-1	6.189666E-1	6.292315E-1	6.696195E-1	6.153601E-1	5.613806E-1	6.813453E-1	6.614622E-1	6.176242E-1	5.911859E-1	6.271878E-1	6.682198E-1	6.662159E-1	6.632002E-1	7.084717E-1	7.274008E-1	5.776732E-1	6.264898E-1	6.593341E-1	6.965248E-1	6.228472E-1	5.785374E-1	6.493029E-1	6.336398E-1	6.494674E-1	6.009237E-1	5.651146E-1	6.731963E-1	6.482302E-1	6.528978E-1	6.501458E-1	6.912717E-1	5.616730E-1	6.330242E-1	6.765628E-1	6.710651E-1	6.442920E-1	5.556891E-1	6.838004E-1	6.822212E-1	6.980429E-1	6.176372E-1	6.920568E-1	6.791350E-1	6.760225E-1	6.780282E-1	7.010268E-1	7.061468E-1	5.931855E-1	5.997854E-1	6.970020E-1	6.853465E-1	6.394254E-1	5.991229E-1	6.516813E-1	7.027697E-1	7.188143E-1	6.224750E-1	6.566414E-1	6.474239E-1	6.055252E-1	6.240144E-1	6.467909E-1	7.299813E-1	5.501950E-1	5.791132E-1	6.300229E-1	6.876814E-1	6.125973E-1	5.248405E-1	6.585643E-1	7.215570E-1	6.330312E-1	5.589919E-1	6.576301E-1	6.978862E-1	6.162229E-1	6.890819E-1	7.271889E-1	7.107919E-1	5.304447E-1	6.483933E-1	7.093275E-1	6.768156E-1	6.038089E-1	5.709749E-1	6.773349E-1	7.116911E-1	6.707371E-1	6.770003E-1	6.970449E-1	6.786733E-1	6.624647E-1	6.674750E-1	7.169263E-1	6.873713E-1	5.277534E-1	6.340948E-1	7.034785E-1	6.693386E-1	5.971991E-1	5.692003E-1	7.078042E-1	6.992449E-1	6.770117E-1	6.522325E-1	7.355378E-1	6.805680E-1	6.269752E-1	6.852548E-1	7.393805E-1	6.828257E-1	5.551087E-1	6.649498E-1	7.101656E-1	7.018718E-1	5.633975E-1	5.747818E-1	6.953060E-1	7.142758E-1	6.457626E-1	5.523678E-1	6.522350E-1	6.868824E-1	6.363487E-1	6.891751E-1	7.029106E-1	6.955958E-1	5.836792E-1	5.419072E-1	7.199440E-1	7.158936E-1	6.422220E-1	5.202631E-1	7.069022E-1	7.137705E-1	6.788711E-1	6.256842E-1	7.616008E-1	7.368000E-1
2.892050E+2	5.195254E-1	5.358328E-1	5.874505E-1	5.735178E-1	4.649832E-1	4.697156E-1	6.144195E-1	5.905111E-1	5.245052E-1	5.124476E-1	6.190476E-1	5.306507E-1	5.265715E-1	5.761212E-1	5.598904E-1	4.757950E-1	5.294365E-1	5.297238E-1	5.356709E-1	5.305409E-1	5.210860E-1	4.824178E-1	5.766703E-1	4.979248E-1	5.249438E-1	5.249849E-1	6.130841E-1	5.210387E-1	5.321058E-1	5.701448E-1	5.448765E-1	4.655923E-1	5.249791E-1	5.463107E-1	5.298661E-1	5.222399E-1	4.799650E-1	4.933615E-1	5.388882E-1	5.453853E-1	5.038803E-1	5.422548E-1	5.680104E-1	5.177578E-1	5.678951E-1	5.287115E-1	6.017767E-1	4.525206E-1	5.028989E-1	5.047081E-1	5.690752E-1	4.894553E-1	4.461694E-1	5.032813E-1	5.573711E-1	4.639655E-1	5.270670E-1	4.417848E-1	5.138863E-1	5.458422E-1	5.708917E-1	5.988343E-1	5.412046E-1	4.293817E-1	5.514417E-1	5.550831E-1	5.828395E-1	4.648805E-1	4.343494E-1	5.051819E-1	5.627937E-1	5.684993E-1	4.578362E-1	5.799066E-1	5.633969E-1	5.110061E-1	5.536975E-1	5.535880E-1	5.562215E-1	4.985208E-1	5.284767E-1	5.315018E-1	5.650050E-1	5.156019E-1	4.748581E-1	5.367440E-1	5.223451E-1	5.790838E-1	5.173862E-1	5.698980E-1	5.851215E-1	5.089564E-1	4.926439E-1	5.233950E-1	5.722569E-1	4.764389E-1	4.962866E-1	5.390150E-1	5.361897E-1	5.228247E-1	4.434271E-1	5.683283E-1	5.139146E-1	5.205663E-1	5.186554E-1	5.107038E-1	5.377082E-1	5.311794E-1	5.345136E-1	5.593679E-1	5.800160E-1	4.572280E-1	5.269495E-1	5.749476E-1	5.581134E-1	5.022385E-1	4.774978E-1	5.942260E-1	5.281144E-1	5.290689E-1	6.032611E-1	5.474741E-1	5.579644E-1	5.026594E-1	5.410734E-1	5.466068E-1	5.985823E-1	4.891405E-1	4.941906E-1	5.814250E-1	5.388529E-1	4.906418E-1	4.671588E-1	5.717058E-1	5.790010E-1	5.194498E-1	5.179591E-1	5.381213E-1	5.611747E-1	4.925574E-1	5.688780E-1	5.903016E-1	5.945089E-1	4.773080E-1	5.588528E-1	5.825058E-1	5.667613E-1	4.725871E-1	4.937223E-1	5.440555E-1	5.679500E-1	4.924739E-1	4.739570E-1	5.573480E-1	5.815187E-1	5.092474E-1	5.466434E-1	5.630237E-1	5.688980E-1	4.498469E-1	4.249478E-1	5.809292E-1	5.586558E-1	4.905605E-1	4.376606E-1	5.145298E-1	5.896578E-1	5.414981E-1	4.763552E-1	5.712028E-1	6.359999E-1
2.894040E+2	4.652204E-1	4.929015E-1	5.328840E-1	5.519630E-1	4.315962E-1	4.617152E-1	5.759682E-1	5.474227E-1	5.184557E-1	4.917562E-1	5.672119E-1	4.849549E-1	5.235291E-1	5.422971E-1	5.059844E-1	4.493182E-1	4.682954E-1	4.713810E-1	5.429534E-1	5.095070E-1	4.512323E-1	4.920721E-1	5.324315E-1	4.897580E-1	5.355610E-1	5.476912E-1	5.548418E-1	4.880761E-1	5.521931E-1	5.090948E-1	5.384293E-1	4.885746E-1	4.961896E-1	5.270471E-1	5.032863E-1	4.876800E-1	4.625692E-1	4.925972E-1	5.502700E-1	5.210156E-1	5.047116E-1	5.210218E-1	5.699368E-1	5.177581E-1	4.960123E-1	4.884912E-1	5.769821E-1	4.455673E-1	4.925280E-1	5.166024E-1	5.559552E-1	5.074303E-1	4.431092E-1	4.794910E-1	5.355805E-1	5.408400E-1	5.052454E-1	4.928797E-1	4.992465E-1	5.027311E-1	5.424738E-1	5.344609E-1	5.288916E-1	4.460121E-1	4.872168E-1	5.244572E-1	5.599012E-1	5.013235E-1	4.329050E-1	4.751341E-1	6.187497E-1	5.517249E-1	4.977862E-1	5.051403E-1	5.201133E-1	5.089299E-1	5.639875E-1	5.480397E-1	5.296632E-1	4.650616E-1	4.949700E-1	4.696481E-1	5.245696E-1	5.225355E-1	4.497002E-1	5.124609E-1	5.577051E-1	5.463073E-1	5.553597E-1	5.781589E-1	5.163115E-1	5.005996E-1	5.277875E-1	5.706008E-1	5.293878E-1	4.526470E-1	4.962863E-1	5.221265E-1	5.306814E-1	4.822827E-1	4.804331E-1	5.585005E-1	5.260273E-1	5.005724E-1	4.469470E-1	5.572461E-1	5.670743E-1	5.284060E-1	4.892950E-1	5.858225E-1	5.930928E-1	4.415397E-1	4.919881E-1	5.413530E-1	5.765997E-1	4.827055E-1	4.594313E-1	5.557340E-1	5.342919E-1	5.193659E-1	5.115609E-1	4.946837E-1	5.333120E-1	5.076845E-1	5.019699E-1	5.616583E-1	5.635140E-1	4.613381E-1	5.049522E-1	5.466804E-1	6.093341E-1	4.640028E-1	4.776627E-1	5.645428E-1	5.763489E-1	5.539951E-1	5.170639E-1	5.427774E-1	5.414246E-1	4.695411E-1	5.538907E-1	5.430137E-1	5.207834E-1	3.963950E-1	4.859690E-1	5.418445E-1	5.617880E-1	4.948261E-1	4.552402E-1	5.346619E-1	5.696128E-1	5.148842E-1	4.198808E-1	5.376186E-1	5.517791E-1	4.957677E-1	5.272065E-1	5.671147E-1	5.215777E-1	4.922814E-1	4.584876E-1	5.496509E-1	5.475570E-1	5.158366E-1	4.592415E-1	5.812898E-1	5.905765E-1	5.521562E-1	4.927825E-1	5.807224E-1	5.015999E-1
2.896060E+2	4.764563E-1	4.947293E-1	5.507428E-1	5.458040E-1	4.828986E-1	4.689149E-1	6.034329E-1	5.492572E-1	5.357405E-1	5.607285E-1	5.820219E-1	4.948112E-1	5.577526E-1	5.374646E-1	5.598905E-1	5.427648E-1	5.068226E-1	5.633150E-1	4.960209E-1	5.378573E-1	4.752451E-1	5.113800E-1	5.883558E-1	5.085403E-1	5.151435E-1	5.317119E-1	6.114437E-1	5.579970E-1	5.650481E-1	5.525820E-1	5.735305E-1	5.083877E-1	5.122779E-1	5.672509E-1	5.675902E-1	5.270398E-1	4.667439E-1	5.239279E-1	5.485187E-1	5.009974E-1	5.412969E-1	5.533335E-1	5.776459E-1	5.354548E-1	5.533568E-1	5.196827E-1	5.943380E-1	4.749241E-1	5.201841E-1	5.577755E-1	5.803202E-1	5.301350E-1	4.637677E-1	5.401973E-1	5.428441E-1	5.124293E-1	4.565675E-1	4.576425E-1	5.138858E-1	5.341664E-1	5.432863E-1	5.689797E-1	5.565961E-1	4.777623E-1	4.724627E-1	5.162908E-1	5.651949E-1	5.050608E-1	4.321831E-1	5.043477E-1	6.070580E-1	4.892823E-1	5.122366E-1	5.528041E-1	5.728072E-1	5.815783E-1	5.056811E-1	6.185887E-1	5.622188E-1	4.764873E-1	4.984072E-1	5.590848E-1	5.313091E-1	5.522533E-1	5.297479E-1	5.691207E-1	5.667715E-1	5.868461E-1	5.112049E-1	5.523431E-1	5.562960E-1	5.145280E-1	5.428489E-1	5.383026E-1	5.916686E-1	4.518544E-1	4.755793E-1	5.455821E-1	5.453711E-1	5.344089E-1	4.722918E-1	5.477795E-1	6.047584E-1	5.172338E-1	4.980396E-1	5.837108E-1	5.813125E-1	5.468930E-1	5.312250E-1	5.593677E-1	5.399650E-1	4.587223E-1	5.416700E-1	5.691889E-1	5.882751E-1	4.934481E-1	4.672863E-1	5.671065E-1	5.713604E-1	5.154842E-1	5.673379E-1	5.800275E-1	5.877167E-1	5.448724E-1	5.765385E-1	5.347239E-1	5.582913E-1	4.852789E-1	5.254980E-1	5.555883E-1	6.207635E-1	5.163623E-1	4.236403E-1	5.529021E-1	5.400993E-1	5.346156E-1	5.233301E-1	5.912003E-1	5.800258E-1	5.063676E-1	5.785761E-1	5.638524E-1	5.499665E-1	4.485221E-1	5.394787E-1	5.626478E-1	5.427231E-1	4.901931E-1	4.495083E-1	5.280857E-1	5.346939E-1	5.059203E-1	4.640426E-1	5.582873E-1	5.781192E-1	5.381344E-1	5.568240E-1	5.613881E-1	5.788195E-1	4.710639E-1	3.974278E-1	6.122074E-1	5.697553E-1	5.345605E-1	4.220330E-1	5.470315E-1	5.786248E-1	5.817627E-1	5.047287E-1	5.735825E-1	5.400001E-1
2.898030E+2	4.296414E-1	4.408368E-1	5.596712E-1	5.601745E-1	4.902279E-1	4.505151E-1	5.155447E-1	5.474230E-1	4.994417E-1	5.107241E-1	5.672118E-1	5.127300E-1	5.318946E-1	5.390757E-1	5.017291E-1	5.334202E-1	4.825332E-1	4.925963E-1	4.992582E-1	5.250541E-1	4.563258E-1	4.808085E-1	5.591424E-1	5.420210E-1	4.849244E-1	4.930266E-1	5.187474E-1	5.300289E-1	5.240707E-1	4.873510E-1	5.677996E-1	4.861972E-1	4.530063E-1	5.228588E-1	5.161474E-1	5.443203E-1	4.444769E-1	4.681438E-1	5.467682E-1	5.105711E-1	5.271618E-1	4.730161E-1	4.967081E-1	5.423374E-1	5.202424E-1	5.270701E-1	5.505349E-1	4.880577E-1	4.579572E-1	5.037936E-1	5.672008E-1	5.027001E-1	4.867220E-1	4.557014E-1	4.974461E-1	5.191145E-1	5.111208E-1	4.655706E-1	5.173308E-1	4.730930E-1	5.400390E-1	5.083381E-1	5.804533E-1	4.717149E-1	4.750655E-1	4.907697E-1	5.590193E-1	4.807662E-1	4.155706E-1	5.118591E-1	5.469257E-1	5.107180E-1	4.374357E-1	5.434578E-1	5.681018E-1	5.369514E-1	5.305461E-1	5.678567E-1	4.988216E-1	4.634298E-1	4.932520E-1	4.754997E-1	4.947243E-1	5.235265E-1	4.657097E-1	5.132706E-1	5.450110E-1	5.540702E-1	4.511540E-1	5.368538E-1	5.246809E-1	4.746004E-1	4.892965E-1	5.565218E-1	5.423301E-1	4.407508E-1	4.782809E-1	4.855362E-1	4.664119E-1	4.948316E-1	4.404664E-1	5.558213E-1	5.320834E-1	5.172339E-1	4.917646E-1	5.161792E-1	5.296997E-1	5.237842E-1	4.892949E-1	5.238198E-1	5.448699E-1	4.348149E-1	4.505859E-1	5.461532E-1	4.997364E-1	4.700091E-1	4.225118E-1	5.268645E-1	5.634174E-1	5.174254E-1	4.633471E-1	5.078818E-1	5.171605E-1	4.745176E-1	5.337987E-1	5.220490E-1	4.986008E-1	4.389422E-1	4.667978E-1	5.199524E-1	5.788559E-1	4.603281E-1	4.288934E-1	5.063423E-1	5.321420E-1	5.017555E-1	4.749916E-1	5.418460E-1	5.423230E-1	4.759855E-1	5.247959E-1	5.245792E-1	5.991170E-1	4.563021E-1	4.675172E-1	5.598106E-1	5.220005E-1	4.874129E-1	4.036568E-1	5.600267E-1	5.513217E-1	4.978526E-1	3.775212E-1	5.507716E-1	5.500790E-1	5.053963E-1	5.049941E-1	5.532076E-1	5.551599E-1	4.726964E-1	4.335473E-1	5.253236E-1	5.142594E-1	4.821345E-1	4.064060E-1	5.435179E-1	5.069148E-1	5.367615E-1	4.897952E-1	5.069418E-1	5.400001E-1
2.900030E+2	3.875084E-1	4.682394E-1	4.931997E-1	4.482943E-1	4.315961E-1	4.089132E-1	5.155447E-1	4.685815E-1	5.227772E-1	4.986527E-1	4.627176E-1	4.634510E-1	4.535605E-1	5.157209E-1	4.974735E-1	4.921483E-1	4.138547E-1	4.148065E-1	4.790292E-1	4.738408E-1	4.213991E-1	4.220778E-1	5.207455E-1	4.701603E-1	4.351056E-1	4.434089E-1	5.138255E-1	4.461236E-1	4.774696E-1	4.881874E-1	4.596307E-1	4.600450E-1	4.428450E-1	4.709289E-1	5.032862E-1	4.953598E-1	4.124669E-1	4.643231E-1	5.187509E-1	5.009975E-1	4.756094E-1	4.480899E-1	5.015253E-1	4.853137E-1	4.677434E-1	4.696122E-1	4.778058E-1	4.841952E-1	4.173358E-1	4.836642E-1	5.156579E-1	5.178364E-1	3.834283E-1	4.138635E-1	4.720238E-1	4.739921E-1	4.330679E-1	4.030249E-1	4.484394E-1	5.144078E-1	4.888872E-1	4.710203E-1	5.165780E-1	4.452560E-1	4.186527E-1	4.621867E-1	5.104953E-1	5.116022E-1	4.004034E-1	4.601095E-1	4.583985E-1	5.498603E-1	4.085353E-1	4.752338E-1	4.900021E-1	5.037412E-1	4.782422E-1	5.044425E-1	4.953952E-1	4.593493E-1	4.631819E-1	4.420650E-1	4.735448E-1	4.383357E-1	4.016712E-1	4.525645E-1	4.770127E-1	4.695420E-1	4.502702E-1	4.573384E-1	4.846958E-1	4.848140E-1	4.876231E-1	4.869567E-1	4.881367E-1	4.240960E-1	3.909522E-1	4.742763E-1	4.324406E-1	4.253306E-1	3.842173E-1	4.718386E-1	4.896901E-1	4.689159E-1	4.191602E-1	4.942779E-1	4.834258E-1	5.062207E-1	4.531193E-1	4.527228E-1	4.655854E-1	3.974601E-1	4.625469E-1	5.135181E-1	4.929252E-1	4.162939E-1	4.091581E-1	4.848732E-1	4.910458E-1	4.252446E-1	4.992706E-1	5.017227E-1	4.738066E-1	4.644666E-1	4.637765E-1	4.848165E-1	5.015855E-1	3.933780E-1	4.707101E-1	4.780800E-1	4.817052E-1	4.024572E-1	4.033827E-1	4.624679E-1	4.720203E-1	4.992278E-1	4.373948E-1	5.045978E-1	4.776885E-1	4.400799E-1	4.939390E-1	4.893139E-1	5.184797E-1	4.010635E-1	4.546010E-1	4.699766E-1	4.929891E-1	4.401549E-1	4.183955E-1	4.660818E-1	4.939549E-1	4.198629E-1	3.955461E-1	4.859466E-1	4.744558E-1	4.774727E-1	4.587169E-1	4.877633E-1	4.574655E-1	3.747703E-1	3.544273E-1	4.784056E-1	4.837367E-1	4.699645E-1	3.773834E-1	5.312198E-1	4.857689E-1	5.130763E-1	4.166248E-1	5.069420E-1	5.255997E-1
2.905220E+2	4.745830E-1	4.691529E-1	4.753428E-1	5.406720E-1	4.429965E-1	4.593149E-1	5.228685E-1	4.841666E-1	4.830195E-1	5.072746E-1	5.277183E-1	4.670356E-1	5.151630E-1	4.762593E-1	4.811594E-1	4.773527E-1	4.498694E-1	4.740326E-1	5.146324E-1	4.866442E-1	4.366793E-1	4.582820E-1	5.107290E-1	5.020074E-1	4.604237E-1	5.165747E-1	4.974190E-1	5.050567E-1	4.686308E-1	4.714616E-1	4.904344E-1	4.941222E-1	4.470786E-1	4.751173E-1	4.827088E-1	5.049603E-1	4.180340E-1	4.528612E-1	5.301323E-1	4.574796E-1	4.722838E-1	4.619376E-1	5.053798E-1	4.843307E-1	4.814741E-1	4.950582E-1	5.191301E-1	4.532930E-1	4.769706E-1	5.056232E-1	4.997268E-1	5.244592E-1	3.972007E-1	4.688269E-1	5.010786E-1	4.798412E-1	4.439783E-1	3.880489E-1	4.406893E-1	5.090191E-1	4.945699E-1	5.027408E-1	5.150389E-1	5.261430E-1	4.559720E-1	4.621862E-1	5.007905E-1	5.293563E-1	4.307383E-1	4.500940E-1	5.460905E-1	5.069895E-1	4.229855E-1	4.771038E-1	5.069395E-1	4.663786E-1	5.022507E-1	5.401131E-1	5.082460E-1	4.838314E-1	4.700557E-1	4.788421E-1	5.062777E-1	4.908370E-1	4.298783E-1	4.428518E-1	4.761061E-1	5.204317E-1	4.900104E-1	5.100034E-1	4.939947E-1	4.727429E-1	4.918069E-1	4.910973E-1	5.156373E-1	5.248166E-1	4.251632E-1	4.902271E-1	4.765112E-1	5.228247E-1	4.005000E-1	5.227639E-1	5.372747E-1	4.897426E-1	3.994395E-1	4.878896E-1	5.190208E-1	5.154650E-1	4.810735E-1	4.717374E-1	4.909238E-1	4.691821E-1	4.947481E-1	4.703252E-1	4.977908E-1	4.905186E-1	4.115139E-1	5.058683E-1	4.857498E-1	4.989894E-1	4.586202E-1	4.709290E-1	5.554135E-1	4.905988E-1	5.065167E-1	5.172960E-1	5.262082E-1	4.142292E-1	4.452738E-1	4.914442E-1	5.293279E-1	4.823749E-1	4.461505E-1	5.502165E-1	5.011970E-1	4.722651E-1	4.732011E-1	5.241531E-1	5.252661E-1	4.419207E-1	5.318490E-1	5.333960E-1	5.215512E-1	4.119558E-1	4.712072E-1	4.803781E-1	5.045939E-1	4.336683E-1	4.691599E-1	4.848712E-1	5.263794E-1	4.951637E-1	4.406103E-1	4.812489E-1	5.381840E-1	4.957677E-1	4.763028E-1	4.934894E-1	5.246307E-1	3.861953E-1	3.785070E-1	4.818815E-1	5.225832E-1	4.596660E-1	3.699423E-1	4.978409E-1	5.179468E-1	4.917598E-1	4.808357E-1	5.450215E-1	4.727996E-1
2.910030E+2	5.157798E-1	5.760226E-1	5.844740E-1	6.156010E-1	4.796409E-1	5.129167E-1	6.583638E-1	5.382557E-1	5.815480E-1	5.641769E-1	6.248065E-1	5.924736E-1	5.836104E-1	6.365227E-1	6.059940E-1	5.910447E-1	5.386492E-1	5.191164E-1	5.453811E-1	5.909005E-1	5.239973E-1	5.347121E-1	5.933642E-1	6.351142E-1	5.600629E-1	6.015140E-1	6.442562E-1	6.189286E-1	5.811182E-1	5.985781E-1	5.771125E-1	6.217145E-1	5.588487E-1	5.404483E-1	6.087455E-1	5.836798E-1	5.328500E-1	5.269842E-1	5.546475E-1	6.454761E-1	5.479485E-1	5.957992E-1	6.373859E-1	6.032936E-1	5.848567E-1	6.452686E-1	6.439270E-1	5.877167E-1	5.556195E-1	6.007776E-1	6.384223E-1	6.190626E-1	4.913126E-1	6.058241E-1	5.873335E-1	5.725921E-1	5.799415E-1	5.316405E-1	5.707216E-1	5.602127E-1	6.058049E-1	6.445476E-1	6.535627E-1	6.145903E-1	5.366869E-1	5.509996E-1	6.313637E-1	6.265372E-1	4.971858E-1	5.552616E-1	6.229256E-1	5.852752E-1	5.113866E-1	6.070098E-1	5.746885E-1	6.293194E-1	5.905681E-1	6.122471E-1	6.161918E-1	6.062423E-1	5.499556E-1	5.933557E-1	6.044771E-1	5.760272E-1	4.748580E-1	5.326965E-1	5.731176E-1	5.790837E-1	5.341649E-1	5.791927E-1	6.185974E-1	6.268809E-1	5.746467E-1	6.028985E-1	5.827716E-1	6.295020E-1	5.413009E-1	5.418295E-1	5.885236E-1	6.290075E-1	5.033769E-1	6.210399E-1	6.281179E-1	5.472245E-1	5.688515E-1	6.202133E-1	5.866520E-1	6.088278E-1	5.114936E-1	5.982230E-1	5.873720E-1	5.752713E-1	5.269493E-1	6.574952E-1	6.262213E-1	6.116219E-1	5.120612E-1	6.405923E-1	5.960730E-1	6.241610E-1	5.389768E-1	6.275385E-1	5.928163E-1	6.212568E-1	6.174593E-1	5.885924E-1	6.164894E-1	6.003476E-1	5.440865E-1	6.304245E-1	5.950470E-1	5.962796E-1	5.099258E-1	6.308012E-1	6.055256E-1	5.927539E-1	5.824103E-1	6.209987E-1	6.195247E-1	6.260546E-1	6.014990E-1	6.023241E-1	6.137082E-1	6.321314E-1	5.957559E-1	6.354610E-1	6.090348E-1	6.088025E-1	5.305682E-1	5.910279E-1	6.170024E-1	6.305230E-1	5.145143E-1	6.090190E-1	5.568775E-1	5.833903E-1	5.799624E-1	6.121072E-1	6.177451E-1	5.216595E-1	4.989072E-1	6.043880E-1	6.557734E-1	5.139651E-1	4.696600E-1	6.050063E-1	5.721890E-1	6.528178E-1	5.540068E-1	5.878621E-1	5.832001E-1
2.914980E+2	6.047283E-1	6.472693E-1	6.787232E-1	7.172181E-1	5.830619E-1	5.985198E-1	7.215338E-1	7.041905E-1	6.697041E-1	6.184937E-1	7.029721E-1	6.256254E-1	7.022533E-1	6.824270E-1	6.669924E-1	7.179752E-1	5.570751E-1	6.623204E-1	6.481454E-1	6.796100E-1	5.982175E-1	6.409102E-1	6.876847E-1	6.881938E-1	6.384669E-1	6.519727E-1	6.844515E-1	6.928456E-1	6.542346E-1	6.479193E-1	6.630750E-1	6.581695E-1	6.409825E-1	6.510089E-1	6.841960E-1	7.084795E-1	5.836475E-1	6.064572E-1	6.956084E-1	6.550497E-1	6.019958E-1	6.705774E-1	7.106153E-1	6.288557E-1	6.333164E-1	6.099726E-1	6.794649E-1	6.726966E-1	6.463680E-1	6.547593E-1	6.955874E-1	6.937997E-1	5.800683E-1	5.861361E-1	6.663259E-1	6.762057E-1	6.168700E-1	5.598300E-1	6.310009E-1	6.805629E-1	7.081093E-1	6.781343E-1	6.735717E-1	7.105964E-1	6.095909E-1	6.500219E-1	7.134137E-1	6.863412E-1	5.549670E-1	6.153584E-1	7.181331E-1	7.269339E-1	6.048877E-1	6.920569E-1	6.819569E-1	7.123467E-1	6.445873E-1	6.574297E-1	7.001496E-1	6.756101E-1	6.195454E-1	6.326399E-1	6.940110E-1	6.513121E-1	5.686289E-1	6.670595E-1	6.510902E-1	6.808628E-1	5.871508E-1	7.155028E-1	6.344052E-1	6.751654E-1	6.148104E-1	7.130434E-1	6.660819E-1	7.119828E-1	5.521049E-1	6.609846E-1	6.840097E-1	7.265012E-1	5.736889E-1	6.978746E-1	6.981977E-1	7.030093E-1	5.437537E-1	6.402903E-1	6.987763E-1	6.458038E-1	6.430411E-1	6.627052E-1	6.919935E-1	6.544639E-1	6.069924E-1	7.150849E-1	6.943276E-1	6.565476E-1	5.874709E-1	7.298246E-1	6.675611E-1	6.435674E-1	6.732185E-1	6.671304E-1	6.667721E-1	6.624648E-1	6.447403E-1	6.987060E-1	7.075175E-1	6.706246E-1	6.429009E-1	7.016965E-1	6.912455E-1	6.835462E-1	5.339359E-1	7.060138E-1	7.089703E-1	7.056592E-1	6.862487E-1	7.606792E-1	7.254535E-1	6.711674E-1	6.711480E-1	6.832754E-1	6.590188E-1	7.169350E-1	6.806337E-1	6.893624E-1	6.587696E-1	6.681085E-1	5.453056E-1	7.291266E-1	7.209271E-1	6.887910E-1	5.577754E-1	6.447199E-1	7.064259E-1	6.970111E-1	6.789946E-1	6.840957E-1	6.528545E-1	6.856853E-1	5.728672E-1	6.904025E-1	7.103439E-1	7.012015E-1	5.210076E-1	7.007542E-1	7.137717E-1	6.847923E-1	5.928327E-1	6.640215E-1	6.408003E-1
2.920010E+2	4.502403E-1	4.435774E-1	4.624448E-1	4.780596E-1	4.226391E-1	4.353147E-1	4.972347E-1	4.520799E-1	4.648707E-1	4.641666E-1	4.767046E-1	4.849545E-1	5.007127E-1	4.810911E-1	4.485326E-1	5.170668E-1	4.490314E-1	4.793371E-1	4.855023E-1	4.848147E-1	4.104840E-1	4.373631E-1	5.107298E-1	4.668936E-1	4.816577E-1	4.694795E-1	4.777316E-1	5.250343E-1	4.782723E-1	4.597530E-1	4.710920E-1	5.139354E-1	4.479254E-1	4.759541E-1	5.204350E-1	4.752000E-1	4.062041E-1	4.589737E-1	5.205015E-1	4.818495E-1	4.448452E-1	4.840940E-1	4.928538E-1	4.686000E-1	4.782434E-1	4.458087E-1	4.868969E-1	5.050534E-1	4.493146E-1	4.772591E-1	5.081607E-1	4.487763E-1	4.117381E-1	4.606232E-1	4.956307E-1	4.881975E-1	4.330680E-1	4.100720E-1	5.233584E-1	5.126111E-1	4.685885E-1	4.402328E-1	4.796387E-1	5.011969E-1	4.464251E-1	4.815821E-1	4.460907E-1	4.957172E-1	4.119593E-1	4.459206E-1	5.101786E-1	5.088540E-1	4.076852E-1	4.836449E-1	5.182309E-1	4.912866E-1	4.550915E-1	4.537108E-1	5.142434E-1	4.503724E-1	4.219443E-1	4.897088E-1	4.639172E-1	4.561659E-1	4.001460E-1	5.108424E-1	5.096519E-1	4.583286E-1	4.555689E-1	4.779908E-1	4.707482E-1	4.690293E-1	4.750717E-1	4.538305E-1	4.881371E-1	4.867494E-1	4.503715E-1	4.414389E-1	4.976284E-1	4.938668E-1	3.953187E-1	5.040020E-1	5.364098E-1	4.614180E-1	4.003361E-1	4.732882E-1	5.101220E-1	5.237840E-1	4.629853E-1	4.824837E-1	5.350610E-1	4.579756E-1	4.441457E-1	5.039191E-1	5.133580E-1	4.758685E-1	4.342946E-1	5.093681E-1	4.530940E-1	4.844344E-1	4.633477E-1	4.374949E-1	5.231111E-1	4.534114E-1	5.028799E-1	5.085818E-1	5.015853E-1	5.169425E-1	4.511437E-1	4.673892E-1	4.978964E-1	4.805375E-1	3.853755E-1	5.797640E-1	4.852828E-1	5.101813E-1	4.517172E-1	4.701432E-1	4.965398E-1	4.888745E-1	4.868854E-1	4.861074E-1	5.123357E-1	4.773083E-1	4.748979E-1	5.125297E-1	4.855288E-1	5.142853E-1	4.085702E-1	4.792343E-1	4.764958E-1	5.112987E-1	3.847308E-1	4.558832E-1	5.041957E-1	4.678432E-1	4.559407E-1	5.114873E-1	4.681508E-1	4.849376E-1	4.516067E-1	4.992574E-1	5.059356E-1	4.952413E-1	3.959879E-1	4.776369E-1	4.903661E-1	4.834696E-1	4.300645E-1	4.522015E-1	5.543998E-1
2.925000E+2	5.326334E-1	5.257850E-1	5.894344E-1	6.258650E-1	5.016279E-1	5.209169E-1	6.180820E-1	6.079298E-1	5.582121E-1	5.581425E-1	5.927181E-1	6.139779E-1	5.767658E-1	6.139733E-1	6.180511E-1	5.863723E-1	5.118476E-1	5.703865E-1	5.518538E-1	5.854133E-1	5.058059E-1	5.218394E-1	6.008764E-1	5.224229E-1	5.551624E-1	5.661923E-1	5.843730E-1	6.149328E-1	5.835289E-1	5.601079E-1	5.921558E-1	5.709943E-1	5.546151E-1	6.066169E-1	6.224633E-1	5.913595E-1	4.904032E-1	5.422676E-1	6.264410E-1	6.271986E-1	5.712304E-1	5.699501E-1	6.296771E-1	6.003444E-1	5.662797E-1	5.902728E-1	5.703707E-1	5.506337E-1	5.521619E-1	6.263962E-1	5.896920E-1	6.436591E-1	4.828965E-1	5.295323E-1	5.818864E-1	5.951536E-1	5.396557E-1	4.523564E-1	5.888050E-1	5.880547E-1	6.139246E-1	5.344608E-1	5.881487E-1	6.040068E-1	5.358189E-1	5.867292E-1	5.740171E-1	5.957017E-1	4.459062E-1	5.552617E-1	6.262658E-1	5.955265E-1	5.224370E-1	5.957947E-1	5.897440E-1	5.545944E-1	5.879951E-1	5.987718E-1	6.213320E-1	5.719675E-1	5.267578E-1	5.983708E-1	5.515264E-1	5.859335E-1	4.725712E-1	5.569798E-1	5.577045E-1	5.764960E-1	5.482948E-1	6.039758E-1	6.018597E-1	6.064532E-1	5.587476E-1	5.639755E-1	6.078457E-1	6.271230E-1	5.295972E-1	5.549654E-1	5.912777E-1	5.981176E-1	4.907949E-1	5.808358E-1	6.064890E-1	6.255335E-1	5.043134E-1	5.444697E-1	5.937705E-1	5.773987E-1	5.419139E-1	5.808622E-1	6.543948E-1	6.133726E-1	5.232695E-1	5.778277E-1	6.164910E-1	5.881830E-1	5.442670E-1	5.513597E-1	5.731254E-1	6.193089E-1	5.446483E-1	5.545125E-1	5.800654E-1	6.222623E-1	6.138225E-1	6.028514E-1	5.970893E-1	6.026645E-1	5.675677E-1	5.778618E-1	6.417175E-1	6.054653E-1	5.024235E-1	5.887182E-1	5.834222E-1	5.531527E-1	5.340719E-1	6.107555E-1	5.961844E-1	5.965932E-1	5.953269E-1	5.983169E-1	6.282995E-1	5.924534E-1	5.496269E-1	5.976359E-1	5.949434E-1	6.514284E-1	5.076416E-1	5.976047E-1	6.111820E-1	5.686708E-1	5.118107E-1	5.751974E-1	6.044610E-1	5.496891E-1	5.808877E-1	5.998364E-1	6.246148E-1	5.673578E-1	5.247069E-1	6.226339E-1	5.947280E-1	6.478390E-1	4.919848E-1	5.891950E-1	5.933338E-1	6.374223E-1	5.375808E-1	6.188022E-1	6.552004E-1
2.930010E+2	6.487340E-1	6.472693E-1	6.688029E-1	7.469847E-1	5.952772E-1	6.105203E-1	7.261114E-1	6.556010E-1	6.688395E-1	6.547043E-1	7.383520E-1	7.062647E-1	6.847608E-1	7.323575E-1	7.116768E-1	7.156390E-1	6.676322E-1	7.047509E-1	6.610920E-1	6.722928E-1	5.589242E-1	6.175788E-1	7.302543E-1	7.053423E-1	6.499016E-1	6.763610E-1	7.632022E-1	7.048320E-1	7.112826E-1	6.688271E-1	7.024739E-1	6.938315E-1	6.799316E-1	6.602214E-1	7.364957E-1	7.296005E-1	5.773844E-1	6.286177E-1	7.104914E-1	6.837720E-1	6.518845E-1	6.918106E-1	7.424124E-1	6.947274E-1	6.850078E-1	6.904131E-1	7.323597E-1	7.120972E-1	6.705674E-1	6.684834E-1	6.759077E-1	7.316410E-1	5.724172E-1	6.689912E-1	7.108161E-1	7.146440E-1	6.924048E-1	5.695197E-1	7.050595E-1	7.452287E-1	7.097333E-1	6.781342E-1	6.897332E-1	7.181554E-1	6.191377E-1	7.112718E-1	7.284127E-1	6.984896E-1	5.853018E-1	6.512489E-1	7.632321E-1	6.887234E-1	5.844876E-1	7.023367E-1	7.666430E-1	6.967787E-1	7.277599E-1	6.812097E-1	7.301352E-1	6.927477E-1	6.667983E-1	6.802843E-1	6.863092E-1	6.939084E-1	6.067469E-1	6.808200E-1	6.982360E-1	7.248520E-1	6.772273E-1	7.237643E-1	6.623015E-1	7.345927E-1	6.365665E-1	7.047620E-1	7.243189E-1	7.246718E-1	6.043214E-1	6.853790E-1	6.885998E-1	7.255347E-1	5.596263E-1	6.898342E-1	7.371307E-1	6.646878E-1	6.557983E-1	7.288105E-1	7.192437E-1	7.077377E-1	6.570178E-1	7.304957E-1	7.353124E-1	7.411279E-1	6.106725E-1	7.016483E-1	6.943280E-1	7.004967E-1	6.283176E-1	7.306996E-1	6.984520E-1	7.153712E-1	6.760538E-1	7.181610E-1	7.211775E-1	7.549306E-1	6.929368E-1	7.398993E-1	6.993095E-1	7.030601E-1	6.546410E-1	6.776421E-1	7.207714E-1	7.028365E-1	5.361868E-1	7.194441E-1	6.506170E-1	7.140856E-1	6.790870E-1	6.964263E-1	7.559752E-1	7.070733E-1	7.020060E-1	7.273576E-1	7.166162E-1	7.146007E-1	6.898597E-1	7.177304E-1	7.416594E-1	7.339000E-1	5.977082E-1	6.924886E-1	7.018054E-1	7.040302E-1	6.127530E-1	7.443043E-1	7.132235E-1	7.384156E-1	6.965792E-1	7.503574E-1	7.375733E-1	7.101664E-1	6.330672E-1	7.129925E-1	7.306919E-1	7.349045E-1	6.192365E-1	7.376476E-1	6.889491E-1	7.380839E-1	6.749625E-1	6.830621E-1	7.319999E-1
2.935110E+2	7.685791E-1	7.650994E-1	8.384527E-1	7.808569E-1	7.337136E-1	7.073235E-1	8.249861E-1	8.187868E-1	8.278652E-1	7.917882E-1	8.247453E-1	7.985513E-1	7.912349E-1	8.201404E-1	8.017554E-1	7.794934E-1	7.580877E-1	7.843094E-1	7.808494E-1	7.984990E-1	6.586120E-1	7.382589E-1	7.619732E-1	7.943517E-1	7.234055E-1	7.352299E-1	8.411325E-1	7.957302E-1	8.028790E-1	8.001250E-1	8.120769E-1	7.976484E-1	6.960196E-1	7.850219E-1	8.085165E-1	7.987207E-1	6.497537E-1	7.432423E-1	8.260621E-1	7.951780E-1	7.317068E-1	7.702812E-1	8.098598E-1	7.547001E-1	7.237759E-1	8.045065E-1	8.290571E-1	8.024848E-1	6.524179E-1	7.947469E-1	8.127298E-1	8.054325E-1	6.726499E-1	7.625102E-1	7.825452E-1	8.099014E-1	7.100294E-1	6.620169E-1	7.791173E-1	8.269597E-1	8.242160E-1	7.583672E-1	7.520677E-1	7.763640E-1	7.649442E-1	7.470010E-1	8.263424E-1	8.255718E-1	6.936410E-1	7.071711E-1	8.049904E-1	8.238586E-1	7.102884E-1	7.714948E-1	8.541519E-1	8.016000E-1	7.672027E-1	8.595637E-1	8.475048E-1	7.621135E-1	7.312331E-1	8.014838E-1	7.825826E-1	8.573549E-1	6.646866E-1	8.095174E-1	8.043139E-1	8.300808E-1	7.628873E-1	8.476832E-1	7.831855E-1	7.856616E-1	7.319575E-1	7.834373E-1	8.205720E-1	7.984271E-1	7.231597E-1	7.688818E-1	7.629683E-1	8.346133E-1	6.351184E-1	8.006176E-1	8.020182E-1	8.213058E-1	6.782070E-1	8.009045E-1	7.735260E-1	7.826137E-1	7.252577E-1	7.999382E-1	8.145965E-1	7.799784E-1	7.679983E-1	7.669177E-1	8.276236E-1	8.352724E-1	6.652372E-1	7.980609E-1	7.814144E-1	8.211369E-1	7.649186E-1	8.017445E-1	8.639890E-1	8.132247E-1	7.629584E-1	8.111958E-1	8.298820E-1	8.204460E-1	7.397582E-1	7.569320E-1	8.131593E-1	7.864277E-1	6.742426E-1	7.874944E-1	8.575060E-1	7.932872E-1	7.238440E-1	7.848910E-1	8.322801E-1	8.166331E-1	8.368966E-1	8.291476E-1	7.496395E-1	7.939570E-1	7.655105E-1	7.829788E-1	8.311800E-1	7.264863E-1	7.025108E-1	7.620077E-1	8.639281E-1	7.999477E-1	7.866993E-1	7.940975E-1	8.729694E-1	7.634505E-1	8.372608E-1	8.133477E-1	8.184767E-1	7.844274E-1	7.259475E-1	8.068282E-1	7.926629E-1	7.489475E-1	6.906761E-1	8.114341E-1	8.461599E-1	8.197964E-1	7.391739E-1	8.591831E-1	7.655998E-1
2.940050E+2	8.041576E-1	7.057285E-1	7.928159E-1	7.510915E-1	7.630292E-1	6.289213E-1	7.187870E-1	7.280261E-1	7.440312E-1	6.926387E-1	7.975935E-1	7.878004E-1	7.775446E-1	7.613505E-1	7.506873E-1	7.390003E-1	7.379861E-1	7.454140E-1	7.161157E-1	7.719772E-1	7.968656E-1	6.650461E-1	7.586342E-1	7.249410E-1	7.258554E-1	7.074779E-1	7.689444E-1	7.657634E-1	7.112826E-1	7.039519E-1	7.705276E-1	7.635715E-1	7.510584E-1	7.305789E-1	7.673617E-1	7.507201E-1	7.158593E-1	6.500143E-1	7.840364E-1	7.742881E-1	7.749442E-1	7.481251E-1	7.799907E-1	7.625656E-1	7.302379E-1	7.486916E-1	8.042629E-1	7.700380E-1	7.206958E-1	7.371049E-1	7.958612E-1	8.054318E-1	6.091434E-1	6.689905E-1	8.088749E-1	7.346975E-1	6.831726E-1	6.347085E-1	7.412272E-1	7.739696E-1	7.982339E-1	7.359771E-1	7.466812E-1	7.499061E-1	7.007201E-1	7.725220E-1	8.316352E-1	7.751124E-1	5.802466E-1	7.080055E-1	7.974740E-1	7.735325E-1	6.550382E-1	7.528047E-1	7.233591E-1	7.372538E-1	7.157552E-1	7.660274E-1	7.618330E-1	7.629300E-1	6.238408E-1	7.329430E-1	7.537006E-1	7.612684E-1	6.387659E-1	6.864860E-1	7.390350E-1	7.628034E-1	6.816421E-1	6.958814E-1	7.432010E-1	7.355204E-1	7.152221E-1	6.981368E-1	7.582905E-1	7.841522E-1	6.862479E-1	7.594991E-1	7.822491E-1	8.056549E-1	6.262373E-1	7.559470E-1	7.457819E-1	6.913464E-1	6.262189E-1	7.744396E-1	7.664069E-1	7.881597E-1	7.384123E-1	8.032449E-1	7.320435E-1	7.620469E-1	6.897949E-1	7.496402E-1	8.334614E-1	7.717915E-1	6.416715E-1	7.167018E-1	7.814145E-1	8.027011E-1	7.800447E-1	7.551133E-1	7.670813E-1	8.272952E-1	7.775083E-1	7.494059E-1	7.672075E-1	7.710203E-1	7.250823E-1	7.818775E-1	8.274465E-1	7.891837E-1	6.794946E-1	7.704822E-1	7.496407E-1	7.444179E-1	6.898297E-1	8.174832E-1	7.487934E-1	8.488569E-1	7.302183E-1	7.786534E-1	7.388883E-1	7.620588E-1	7.313749E-1	7.527194E-1	8.121161E-1	7.477994E-1	6.632097E-1	7.093987E-1	7.741371E-1	6.959625E-1	7.767843E-1	7.452443E-1	7.268196E-1	7.875225E-1	7.271218E-1	7.928969E-1	7.528382E-1	7.224073E-1	6.459675E-1	8.476627E-1	7.639902E-1	7.124361E-1	6.088182E-1	8.360292E-1	7.505457E-1	7.890059E-1	6.660036E-1	7.663631E-1	8.136001E-1
2.945010E+2	7.021026E-1	6.289999E-1	7.442023E-1	7.397996E-1	6.946253E-1	6.401208E-1	7.352663E-1	6.996063E-1	7.146451E-1	6.676369E-1	7.605677E-1	6.838648E-1	7.288714E-1	7.033659E-1	7.336645E-1	6.813757E-1	7.170477E-1	7.224307E-1	7.258253E-1	6.814393E-1	6.884453E-1	6.183837E-1	7.519561E-1	6.881937E-1	7.430067E-1	6.872940E-1	7.271076E-1	7.477839E-1	7.530629E-1	6.947519E-1	7.447390E-1	7.263240E-1	7.705331E-1	6.794867E-1	7.296371E-1	7.180799E-1	6.845467E-1	6.576556E-1	7.533927E-1	7.098824E-1	7.441793E-1	6.871948E-1	7.308497E-1	6.996436E-1	6.963149E-1	7.265290E-1	7.348391E-1	7.399081E-1	6.930389E-1	7.096562E-1	7.415077E-1	7.552922E-1	6.856568E-1	6.944217E-1	7.026443E-1	6.795482E-1	7.704575E-1	6.118042E-1	7.498387E-1	7.110992E-1	6.894342E-1	7.154522E-1	7.197460E-1	7.476370E-1	6.833620E-1	6.949379E-1	7.513513E-1	7.003580E-1	6.799185E-1	7.013283E-1	7.089463E-1	7.446409E-1	6.516387E-1	7.126172E-1	7.130083E-1	7.632004E-1	6.737409E-1	7.446251E-1	7.061465E-1	6.943793E-1	6.831211E-1	6.961658E-1	7.161538E-1	7.295694E-1	5.732024E-1	6.573467E-1	7.508223E-1	7.438283E-1	6.374870E-1	7.124049E-1	6.948468E-1	7.345917E-1	7.177321E-1	7.494830E-1	7.057154E-1	7.230856E-1	6.142248E-1	7.275993E-1	7.253252E-1	7.245699E-1	6.047741E-1	7.166362E-1	7.812540E-1	7.146727E-1	6.056022E-1	6.850070E-1	7.325919E-1	7.160572E-1	6.455077E-1	7.462023E-1	7.590164E-1	7.239451E-1	6.235527E-1	7.285233E-1	7.478411E-1	7.385856E-1	6.047523E-1	7.490706E-1	7.364024E-1	7.095499E-1	6.977980E-1	7.164015E-1	7.356288E-1	6.644744E-1	6.947560E-1	7.478214E-1	7.507924E-1	7.339510E-1	6.683383E-1	7.106051E-1	7.617261E-1	7.432537E-1	5.789539E-1	7.427255E-1	7.549454E-1	7.553717E-1	6.531270E-1	6.982890E-1	7.452021E-1	7.245667E-1	7.125853E-1	7.361743E-1	7.173849E-1	7.138227E-1	6.686404E-1	7.659583E-1	7.134763E-1	7.626250E-1	6.271839E-1	7.253691E-1	7.225899E-1	6.932725E-1	7.245105E-1	6.879358E-1	7.693038E-1	7.201209E-1	7.160157E-1	7.184538E-1	7.207824E-1	7.044545E-1	6.201675E-1	7.043042E-1	6.835207E-1	7.021376E-1	5.924470E-1	7.402817E-1	7.229650E-1	7.262406E-1	6.794432E-1	7.021022E-1	7.992001E-1
2.950050E+2	7.741975E-1	7.212559E-1	7.610674E-1	8.075449E-1	7.573292E-1	6.953231E-1	8.204080E-1	7.656137E-1	7.630451E-1	7.391963E-1	7.827831E-1	7.456879E-1	7.980795E-1	7.524922E-1	7.776399E-1	7.654775E-1	8.024776E-1	6.959122E-1	7.784218E-1	7.756356E-1	8.259711E-1	7.173411E-1	8.237404E-1	7.861863E-1	7.969098E-1	7.226155E-1	7.943733E-1	7.637652E-1	8.551053E-1	7.716909E-1	8.321346E-1	7.754590E-1	7.883151E-1	7.816706E-1	7.956556E-1	8.544004E-1	7.805742E-1	6.989198E-1	8.243100E-1	7.786398E-1	8.123617E-1	8.173638E-1	7.963706E-1	7.694485E-1	7.213530E-1	8.151788E-1	8.117012E-1	7.932143E-1	7.803303E-1	8.057259E-1	7.818040E-1	8.205688E-1	7.866554E-1	7.288757E-1	7.988881E-1	7.865048E-1	8.208137E-1	7.131116E-1	7.377823E-1	8.080981E-1	8.372070E-1	8.040811E-1	7.882381E-1	8.126497E-1	7.692836E-1	7.827311E-1	7.672313E-1	7.620302E-1	7.355324E-1	7.155173E-1	7.824403E-1	7.511647E-1	7.935899E-1	7.742995E-1	7.807577E-1	8.150924E-1	8.006435E-1	7.985267E-1	8.363678E-1	7.874122E-1	8.532314E-1	7.797515E-1	8.008749E-1	7.761268E-1	7.683680E-1	7.018651E-1	7.934350E-1	7.757414E-1	7.690696E-1	7.320254E-1	7.487790E-1	7.624475E-1	7.604075E-1	7.817806E-1	7.995418E-1	8.039786E-1	6.916497E-1	7.519938E-1	7.804130E-1	8.307523E-1	6.832269E-1	8.274207E-1	8.599850E-1	7.521612E-1	6.782068E-1	7.224226E-1	7.770856E-1	7.530337E-1	7.417006E-1	7.346281E-1	8.154137E-1	7.388868E-1	6.861147E-1	7.659578E-1	7.848137E-1	7.815583E-1	7.045132E-1	7.779403E-1	7.761196E-1	7.241045E-1	7.365579E-1	7.815092E-1	7.721809E-1	8.192559E-1	7.147622E-1	8.183258E-1	7.791457E-1	7.972774E-1	6.947542E-1	7.827691E-1	8.188741E-1	8.084741E-1	6.209715E-1	8.340543E-1	7.876585E-1	7.857042E-1	6.871431E-1	8.118959E-1	7.882925E-1	7.604725E-1	7.698921E-1	7.642264E-1	7.895744E-1	7.620592E-1	7.507494E-1	7.508275E-1	7.955379E-1	8.015444E-1	6.525652E-1	7.385214E-1	7.683163E-1	7.891899E-1	8.218486E-1	7.452440E-1	7.956447E-1	8.019654E-1	7.965367E-1	7.593567E-1	7.742096E-1	7.876914E-1	6.545662E-1	7.425333E-1	7.649155E-1	8.182242E-1	6.452826E-1	8.298810E-1	8.020298E-1	7.901902E-1	7.212537E-1	7.568429E-1	8.520001E-1
2.955070E+2	7.629610E-1	7.258226E-1	8.186097E-1	8.629716E-1	7.939744E-1	6.889227E-1	8.240705E-1	8.453717E-1	8.702147E-1	8.340339E-1	8.370873E-1	7.877996E-1	8.231770E-1	7.951749E-1	7.818957E-1	8.122003E-1	7.765139E-1	7.374592E-1	7.646659E-1	7.893531E-1	8.274264E-1	7.495222E-1	8.546238E-1	8.008845E-1	8.197783E-1	8.008269E-1	8.427728E-1	8.736427E-1	8.342149E-1	7.758725E-1	8.457453E-1	7.928939E-1	8.044031E-1	7.163394E-1	8.290939E-1	8.380798E-1	8.063207E-1	7.715154E-1	8.138047E-1	8.334723E-1	8.655763E-1	7.896677E-1	7.982981E-1	8.392528E-1	8.360422E-1	8.455487E-1	8.546786E-1	8.272070E-1	8.373728E-1	8.423241E-1	8.399055E-1	8.877371E-1	8.631682E-1	7.690729E-1	8.569970E-1	8.157509E-1	7.905998E-1	7.677292E-1	8.161465E-1	8.027098E-1	8.323353E-1	8.572591E-1	7.605343E-1	8.368402E-1	8.005278E-1	7.949811E-1	7.884052E-1	8.293101E-1	8.070358E-1	7.898031E-1	8.559347E-1	8.648645E-1	8.641398E-1	7.425240E-1	8.372137E-1	7.912222E-1	8.152196E-1	8.223071E-1	8.594984E-1	8.200549E-1	8.807239E-1	8.558151E-1	8.153153E-1	8.296184E-1	7.973379E-1	7.617621E-1	7.988746E-1	7.869550E-1	8.264708E-1	8.043119E-1	7.841152E-1	7.763765E-1	8.725334E-1	7.917182E-1	8.496902E-1	8.579072E-1	7.672744E-1	8.064110E-1	8.667176E-1	8.490921E-1	8.371729E-1	7.898960E-1	8.262439E-1	8.038114E-1	8.332768E-1	7.972545E-1	8.705226E-1	8.279092E-1	8.082973E-1	8.396202E-1	8.031538E-1	8.516995E-1	8.001993E-1	8.744199E-1	8.003802E-1	8.128102E-1	7.704972E-1	8.470516E-1	8.370171E-1	8.007600E-1	8.292039E-1	8.606928E-1	8.775905E-1	8.383516E-1	8.084271E-1	8.436757E-1	8.298826E-1	8.366637E-1	7.378013E-1	8.451321E-1	8.712603E-1	8.240901E-1	6.479818E-1	8.465904E-1	8.787252E-1	8.135093E-1	6.952001E-1	7.942032E-1	8.628014E-1	8.286024E-1	8.236717E-1	8.620093E-1	8.149179E-1	8.126294E-1	7.701242E-1	7.839247E-1	8.577056E-1	8.015443E-1	6.959605E-1	8.503153E-1	8.431428E-1	7.873977E-1	7.776861E-1	8.091289E-1	8.032928E-1	8.529992E-1	8.168983E-1	8.133482E-1	8.688505E-1	8.015638E-1	6.803678E-1	8.398433E-1	8.444582E-1	8.837571E-1	6.772811E-1	8.474486E-1	8.057079E-1	8.351912E-1	7.093087E-1	8.234822E-1	7.896000E-1
2.960030E+2	8.378645E-1	8.372597E-1	8.255553E-1	9.019753E-1	8.298048E-1	7.233243E-1	8.643535E-1	8.142021E-1	8.650290E-1	8.029962E-1	8.461379E-1	8.325988E-1	8.824985E-1	8.579915E-1	8.180687E-1	8.620381E-1	8.435181E-1	8.072925E-1	8.488200E-1	8.378233E-1	8.485281E-1	7.696355E-1	9.080440E-1	8.392655E-1	8.197777E-1	7.764386E-1	8.583585E-1	8.296914E-1	8.816207E-1	8.009611E-1	8.435958E-1	8.150840E-1	8.399661E-1	7.423049E-1	8.505287E-1	8.784001E-1	8.000583E-1	8.074314E-1	9.048590E-1	7.847329E-1	8.639130E-1	8.441355E-1	8.484022E-1	7.497853E-1	8.021206E-1	7.979412E-1	7.976515E-1	8.503831E-1	8.356444E-1	8.286001E-1	8.427174E-1	8.631402E-1	8.631683E-1	7.690725E-1	8.097833E-1	8.332987E-1	8.132602E-1	7.686093E-1	8.617862E-1	8.889302E-1	8.282749E-1	8.255392E-1	8.097865E-1	8.769053E-1	8.100753E-1	7.725224E-1	8.307531E-1	8.405229E-1	8.265375E-1	7.146835E-1	8.534290E-1	8.471575E-1	7.969901E-1	8.350468E-1	8.569753E-1	8.140531E-1	8.186499E-1	8.643201E-1	8.603556E-1	8.021019E-1	8.223016E-1	8.533068E-1	8.316820E-1	8.860818E-1	8.453665E-1	7.884726E-1	8.442069E-1	8.249057E-1	9.041840E-1	8.394217E-1	8.008526E-1	8.534456E-1	8.265111E-1	8.132508E-1	9.160153E-1	8.333226E-1	7.978845E-1	7.670052E-1	8.492728E-1	8.346135E-1	8.268107E-1	8.586898E-1	9.023794E-1	7.813185E-1	8.377596E-1	8.757372E-1	8.126809E-1	8.639599E-1	8.247410E-1	8.263926E-1	8.366650E-1	8.591709E-1	8.876028E-1	8.533036E-1	8.247054E-1	8.215999E-1	7.846367E-1	8.068092E-1	8.467256E-1	8.570395E-1	8.518926E-1	8.378179E-1	8.486883E-1	9.197630E-1	8.302516E-1	8.571428E-1	8.246595E-1	7.972782E-1	8.620515E-1	8.148409E-1	8.293516E-1	8.002067E-1	8.610682E-1	8.824059E-1	8.592741E-1	8.379441E-1	7.954574E-1	8.835990E-1	9.184588E-1	8.414920E-1	9.003743E-1	8.820458E-1	8.202938E-1	8.359702E-1	8.430074E-1	8.643029E-1	8.328378E-1	8.775281E-1	8.073149E-1	8.559518E-1	8.938575E-1	8.116009E-1	8.506894E-1	8.777115E-1	8.449277E-1	8.597386E-1	8.705800E-1	8.477063E-1	7.894733E-1	8.823525E-1	7.852874E-1	8.285489E-1	8.814554E-1	8.275865E-1	7.338382E-1	8.483276E-1	8.516758E-1	8.422966E-1	8.437039E-1	8.163435E-1	7.944002E-1
2.964980E+2	7.741973E-1	7.130348E-1	7.521392E-1	7.685397E-1	7.149841E-1	6.913235E-1	7.709704E-1	7.637794E-1	7.518094E-1	7.435074E-1	8.189857E-1	7.170160E-1	7.402799E-1	7.549072E-1	7.521059E-1	7.724859E-1	7.580877E-1	6.799998E-1	6.886040E-1	7.043019E-1	7.495675E-1	6.465420E-1	7.661459E-1	7.706711E-1	7.201384E-1	7.184106E-1	8.001165E-1	7.318018E-1	7.619013E-1	7.558020E-1	7.139355E-1	7.572316E-1	7.070281E-1	7.138274E-1	7.545015E-1	8.313600E-1	7.499560E-1	6.614772E-1	7.139939E-1	7.673259E-1	7.574835E-1	7.195065E-1	7.395216E-1	7.291377E-1	7.286220E-1	7.610034E-1	8.059153E-1	7.414533E-1	7.163746E-1	7.316152E-1	7.536895E-1	7.325867E-1	7.246791E-1	6.730928E-1	7.262521E-1	7.564232E-1	7.268149E-1	7.166347E-1	7.377832E-1	7.434323E-1	7.966105E-1	8.162097E-1	7.135897E-1	7.015246E-1	7.996599E-1	7.327095E-1	7.363522E-1	7.685716E-1	7.376993E-1	7.196913E-1	7.223090E-1	7.530290E-1	6.618387E-1	7.686918E-1	7.732300E-1	7.652755E-1	7.646298E-1	7.620643E-1	7.335614E-1	7.474243E-1	7.432622E-1	7.112111E-1	7.633278E-1	7.464091E-1	7.897142E-1	7.204813E-1	7.753015E-1	7.550404E-1	7.558233E-1	7.506133E-1	7.246031E-1	7.773045E-1	7.528765E-1	7.345756E-1	7.388785E-1	7.540150E-1	7.141576E-1	7.557470E-1	7.032903E-1	7.844181E-1	6.995097E-1	6.880467E-1	7.726029E-1	7.438297E-1	7.167503E-1	7.680516E-1	7.468299E-1	7.909331E-1	7.318346E-1	7.313216E-1	7.451217E-1	7.814720E-1	7.679978E-1	7.362018E-1	7.468676E-1	7.600716E-1	7.469312E-1	7.814395E-1	7.399332E-1	7.328377E-1	7.261587E-1	7.815083E-1	7.254276E-1	7.579469E-1	7.047587E-1	7.359386E-1	7.575078E-1	7.864660E-1	7.651954E-1	7.792054E-1	7.883959E-1	6.954881E-1	7.500235E-1	7.078054E-1	7.814696E-1	7.334647E-1	7.569648E-1	7.923409E-1	7.389192E-1	7.715208E-1	7.707746E-1	7.754483E-1	7.726795E-1	7.519442E-1	8.097943E-1	7.744680E-1	7.665259E-1	7.533590E-1	7.237995E-1	7.704628E-1	7.949219E-1	7.488520E-1	7.317209E-1	7.565178E-1	8.202863E-1	7.750051E-1	7.289728E-1	7.110915E-1	7.543652E-1	7.623939E-1	7.027268E-1	7.164681E-1	7.020197E-1	7.386490E-1	7.792317E-1	7.341336E-1	7.634167E-1	7.676903E-1	7.227484E-1	7.830216E-1	7.415999E-1
2.970020E+2	8.359923E-1	8.107704E-1	8.176191E-1	8.434700E-1	8.387619E-1	7.417245E-1	8.533663E-1	8.545397E-1	7.786017E-1	7.607506E-1	8.593024E-1	7.886955E-1	8.726117E-1	8.346361E-1	8.450214E-1	8.145362E-1	7.957776E-1	7.878455E-1	8.480105E-1	8.295934E-1	8.630810E-1	7.615903E-1	8.596322E-1	8.245660E-1	8.597967E-1	8.193291E-1	8.239048E-1	8.516668E-1	8.430541E-1	7.900889E-1	7.934515E-1	8.491606E-1	8.670620E-1	8.168493E-1	8.290941E-1	7.833601E-1	8.745140E-1	7.279587E-1	8.304394E-1	8.447876E-1	7.815962E-1	7.518181E-1	8.696000E-1	8.402360E-1	8.101971E-1	8.381612E-1	8.183125E-1	7.947587E-1	7.950230E-1	8.542178E-1	8.108547E-1	8.309753E-1	9.060165E-1	7.936834E-1	8.197707E-1	8.207645E-1	8.334038E-1	8.020848E-1	7.997844E-1	8.368380E-1	8.493861E-1	8.908450E-1	8.082475E-1	8.428878E-1	8.083393E-1	8.041685E-1	8.307541E-1	8.339817E-1	8.915412E-1	7.697712E-1	8.567697E-1	9.179878E-1	7.850890E-1	8.481314E-1	8.720303E-1	8.700965E-1	8.006438E-1	8.223077E-1	8.278004E-1	8.420899E-1	8.085557E-1	8.299026E-1	8.557500E-1	8.098067E-1	8.568023E-1	7.504296E-1	8.704995E-1	8.274934E-1	8.918203E-1	8.404542E-1	8.073618E-1	8.200171E-1	8.382252E-1	8.198754E-1	8.416017E-1	8.539422E-1	8.483007E-1	7.829556E-1	7.978573E-1	8.490933E-1	7.986867E-1	8.560106E-1	8.608507E-1	7.621574E-1	8.745096E-1	8.027301E-1	8.153497E-1	8.473216E-1	8.617385E-1	8.652471E-1	8.399350E-1	8.352634E-1	7.845586E-1	8.110704E-1	8.217857E-1	8.753160E-1	8.961800E-1	8.453015E-1	8.087741E-1	8.318116E-1	9.076692E-1	8.457361E-1	8.291356E-1	8.654894E-1	8.675359E-1	8.452603E-1	8.425670E-1	8.837727E-1	8.229179E-1	8.504769E-1	8.503053E-1	8.296017E-1	8.333072E-1	8.188328E-1	8.707676E-1	8.151946E-1	8.026179E-1	8.370385E-1	8.951188E-1	8.589844E-1	8.677542E-1	8.419718E-1	8.272058E-1	7.776195E-1	8.596139E-1	8.160755E-1	8.461001E-1	8.376836E-1	8.826423E-1	8.221317E-1	8.148754E-1	8.546301E-1	8.362697E-1	8.457680E-1	8.661704E-1	8.337413E-1	8.233775E-1	8.125300E-1	8.261094E-1	8.415506E-1	8.523666E-1	7.842378E-1	8.999536E-1	8.303947E-1	7.807201E-1	8.825852E-1	8.617890E-1	8.505866E-1	8.347435E-1	8.044425E-1	9.335998E-1
2.975020E+2	9.567743E-1	8.884104E-1	8.900420E-1	8.711832E-1	9.511398E-1	8.217277E-1	9.623123E-1	9.324651E-1	9.358998E-1	8.943846E-1	9.078482E-1	9.732697E-1	9.159614E-1	9.771822E-1	9.379380E-1	9.375732E-1	9.607744E-1	9.045308E-1	9.580581E-1	9.228743E-1	1.014432E+0	8.573301E-1	9.614645E-1	1.006669E+0	9.896554E-1	8.487633E-1	9.518752E-1	8.906233E-1	9.683963E-1	9.339330E-1	9.768378E-1	9.846782E-1	8.856895E-1	9.223839E-1	9.722771E-1	9.254400E-1	9.461874E-1	8.922532E-1	9.407556E-1	9.091931E-1	9.445673E-1	8.598302E-1	9.543921E-1	9.287201E-1	9.903082E-1	9.448681E-1	9.480700E-1	9.454061E-1	8.918218E-1	8.953917E-1	9.476763E-1	9.634199E-1	9.480982E-1	8.396224E-1	9.650435E-1	9.486109E-1	9.651701E-1	9.148435E-1	9.220669E-1	9.607814E-1	9.460065E-1	9.440232E-1	9.598536E-1	9.411610E-1	9.628251E-1	9.215645E-1	9.498583E-1	9.171466E-1	9.059854E-1	8.590807E-1	9.519787E-1	9.534021E-1	9.975917E-1	9.275699E-1	8.964947E-1	9.551993E-1	9.678453E-1	9.229780E-1	9.383162E-1	9.800061E-1	9.709325E-1	9.109806E-1	9.337318E-1	9.405642E-1	9.429498E-1	8.791271E-1	9.004189E-1	9.146090E-1	9.704161E-1	9.633406E-1	9.468421E-1	9.462995E-1	9.302703E-1	8.844723E-1	9.726337E-1	9.475244E-1	9.410311E-1	8.880377E-1	9.879113E-1	9.224555E-1	8.689980E-1	9.346312E-1	9.516942E-1	9.404351E-1	9.829690E-1	9.012889E-1	9.719685E-1	9.443819E-1	9.423110E-1	9.239433E-1	9.658074E-1	9.742250E-1	9.455645E-1	9.099350E-1	9.151907E-1	9.387973E-1	9.684479E-1	9.389081E-1	9.129189E-1	9.501904E-1	9.417022E-1	9.618738E-1	9.736476E-1	9.217721E-1	9.311913E-1	9.236861E-1	9.276253E-1	9.841683E-1	9.412992E-1	9.413493E-1	9.150727E-1	9.618786E-1	9.443522E-1	9.370241E-1	9.388475E-1	9.457939E-1	9.333114E-1	9.255032E-1	9.417986E-1	9.676232E-1	9.268240E-1	9.173122E-1	9.270427E-1	9.184387E-1	9.361886E-1	9.068560E-1	9.165579E-1	9.284944E-1	9.841711E-1	9.217132E-1	9.636955E-1	9.478575E-1	9.507306E-1	9.368980E-1	9.290491E-1	9.126980E-1	9.844204E-1	9.753218E-1	1.000127E+0	9.313161E-1	9.607267E-1	9.649568E-1	9.683989E-1	9.315031E-1	8.990413E-1	9.265063E-1	9.693546E-1	9.619072E-1	8.840223E-1	9.805636E-1	8.664005E-1
2.980020E+2	9.989080E-1	9.450426E-1	1.094415E+0	1.068257E+0	1.033388E+0	9.169308E-1	1.040130E+0	1.091065E+0	1.001585E+0	9.780149E-1	1.005760E+0	1.038677E+0	1.050575E+0	1.023892E+0	9.982266E-1	1.008436E+0	1.018566E+0	9.832041E-1	1.037357E+0	1.039020E+0	9.867813E-1	9.426095E-1	9.764891E-1	1.005036E+0	1.010890E+0	9.631370E-1	1.043751E+0	1.011487E+0	1.016606E+0	1.040142E+0	9.947467E-1	1.056796E+0	1.016088E+0	9.031198E-1	9.971419E-1	1.079041E+0	1.063787E+0	9.075365E-1	1.013425E+0	9.779511E-1	1.033537E+0	9.466092E-1	1.010277E+0	9.601815E-1	9.652698E-1	9.834470E-1	1.040635E+0	1.041202E+0	1.025784E+0	9.896307E-1	1.018899E+0	1.024912E+0	1.029203E+0	1.011895E+0	1.035865E+0	1.008773E+0	9.895093E-1	1.002936E+0	1.013348E+0	1.001198E+0	1.002842E+0	1.007464E+0	9.898669E-1	1.035656E+0	1.026182E+0	9.338157E-1	9.833838E-1	9.956396E-1	9.868786E-1	9.283578E-1	1.027978E+0	9.608573E-1	1.025643E+0	9.462617E-1	1.051753E+0	1.005017E+0	9.849946E-1	1.052184E+0	1.012851E+0	9.897991E-1	1.029354E+0	1.038867E+0	1.051185E+0	1.016840E+0	1.010800E+0	9.722099E-1	1.030070E+0	1.043989E+0	1.031350E+0	9.881245E-1	1.021232E+0	9.964409E-1	1.057457E+0	1.058386E+0	1.034106E+0	1.023660E+0	1.040063E+0	1.025958E+0	1.019128E+0	9.958176E-1	1.061430E+0	9.784091E-1	1.045999E+0	1.027908E+0	1.030477E+0	9.843342E-1	1.005785E+0	1.037746E+0	1.033572E+0	1.015707E+0	9.772499E-1	9.899139E-1	1.021007E+0	1.019356E+0	1.020271E+0	1.034508E+0	1.010866E+0	1.028141E+0	1.002942E+0	1.015202E+0	1.064600E+0	1.009385E+0	1.018702E+0	1.014238E+0	1.029402E+0	1.077370E+0	9.940313E-1	1.040544E+0	9.784754E-1	1.017967E+0	1.026510E+0	1.035366E+0	1.025385E+0	9.988071E-1	1.082078E+0	1.062070E+0	1.012085E+0	1.058666E+0	9.920705E-1	1.045880E+0	1.030857E+0	1.008683E+0	9.800323E-1	1.004798E+0	1.064428E+0	9.910164E-1	1.025144E+0	9.998455E-1	9.776202E-1	1.015658E+0	1.031038E+0	1.034811E+0	1.025536E+0	9.866905E-1	1.023367E+0	1.025356E+0	1.025143E+0	1.023587E+0	1.002417E+0	9.917035E-1	9.615871E-1	1.015350E+0	1.044242E+0	1.058823E+0	1.026294E+0	1.016982E+0	9.813064E-1	1.015197E+0	1.021403E+0	8.901223E-1	9.863998E-1
2.985010E+2	9.904810E-1	1.038211E+0	9.654416E-1	9.871693E-1	9.894137E-1	1.089736E+0	9.522406E-1	9.792204E-1	1.029242E+0	1.008191E+0	1.020570E+0	1.001941E+0	9.722410E-1	9.957047E-1	9.691462E-1	9.679422E-1	9.364864E-1	9.920440E-1	9.799059E-1	9.750033E-1	9.554920E-1	9.578962E-1	9.923488E-1	9.862536E-1	1.025590E+0	9.530452E-1	9.420308E-1	9.865149E-1	1.006161E+0	9.598579E-1	9.560636E-1	9.482235E-1	1.000847E+0	9.207087E-1	1.008288E+0	9.782399E-1	9.566252E-1	9.167070E-1	9.784038E-1	1.011895E+0	9.861423E-1	9.216832E-1	1.001606E+0	1.018189E+0	9.903076E-1	9.571806E-1	9.513751E-1	9.585400E-1	9.963994E-1	9.603518E-1	9.898475E-1	9.596358E-1	9.840595E-1	8.970468E-1	9.641360E-1	9.335700E-1	9.450279E-1	9.447955E-1	9.720128E-1	9.859293E-1	9.890392E-1	9.832073E-1	9.390750E-1	9.676198E-1	9.480709E-1	9.511696E-1	9.948536E-1	9.797535E-1	9.695447E-1	9.408774E-1	1.009605E+0	9.981363E-1	9.882415E-1	9.546730E-1	9.576572E-1	9.915238E-1	9.918543E-1	9.475512E-1	1.030842E+0	9.702135E-1	9.571860E-1	9.218471E-1	9.914961E-1	1.017831E+0	9.467617E-1	9.260731E-1	9.756714E-1	9.723988E-1	9.677665E-1	9.292631E-1	9.924063E-1	1.026154E+0	9.545360E-1	9.821944E-1	9.669725E-1	9.435593E-1	9.149222E-1	9.921809E-1	9.521039E-1	9.794066E-1	1.008882E+0	9.185499E-1	9.214132E-1	1.021243E+0	9.901396E-1	9.606064E-1	9.853169E-1	9.203483E-1	9.472434E-1	9.735454E-1	1.009127E+0	9.906611E-1	9.409643E-1	1.017438E+0	9.959456E-1	1.022789E+0	9.684480E-1	9.590286E-1	1.010885E+0	9.598932E-1	9.350851E-1	9.398780E-1	9.557965E-1	9.509192E-1	1.004850E+0	9.933982E-1	9.813467E-1	9.540496E-1	9.618441E-1	9.823302E-1	9.855544E-1	9.830058E-1	9.938726E-1	9.943287E-1	9.600661E-1	9.559053E-1	9.735926E-1	9.748573E-1	9.812982E-1	9.722259E-1	9.832484E-1	9.814319E-1	9.639052E-1	9.744558E-1	9.610978E-1	9.550827E-1	1.025143E+0	9.618532E-1	1.002183E+0	9.808979E-1	9.927948E-1	9.630972E-1	9.300008E-1	9.594453E-1	9.987256E-1	9.974327E-1	1.002006E+0	9.663239E-1	9.528066E-1	9.525327E-1	9.865270E-1	9.849399E-1	9.221516E-1	9.324388E-1	9.995035E-1	9.396828E-1	1.003371E+0	9.619071E-1	1.019910E+0	9.924641E-1	9.623999E-1
2.990010E+2	9.708188E-1	1.093016E+0	9.981809E-1	9.994870E-1	1.016286E+0	1.006533E+0	1.029143E+0	9.865533E-1	1.016278E+0	1.029745E+0	1.002468E+0	9.911897E-1	9.851692E-1	9.659072E-1	1.032982E+0	1.051266E+0	1.013540E+0	1.067182E+0	9.394467E-1	9.466522E-1	1.004972E+0	1.035936E+0	1.020729E+0	9.388906E-1	9.578033E-1	1.079192E+0	9.961714E-1	1.053440E+0	9.933042E-1	1.015889E+0	1.010507E+0	1.000528E+0	1.043184E+0	1.049697E+0	1.031438E+0	1.018560E+0	1.006031E+0	1.045085E+0	1.058077E+0	1.007543E+0	9.861414E-1	1.060161E+0	1.035330E+0	1.020156E+0	1.005654E+0	9.957588E-1	1.022453E+0	1.006438E+0	1.012819E+0	9.978651E-1	9.879734E-1	1.040049E+0	1.020786E+0	1.015176E+0	1.007718E+0	1.009609E+0	1.031472E+0	9.976511E-1	9.961247E-1	1.005688E+0	9.914746E-1	1.016793E+0	1.029116E+0	9.540131E-1	1.011427E+0	9.409618E-1	1.051318E+0	1.001246E+0	1.008547E+0	9.750994E-1	1.002922E+0	1.063374E+0	1.002691E+0	9.836448E-1	1.017878E+0	1.029925E+0	1.036442E+0	9.927342E-1	9.880058E-1	1.007752E+0	1.013890E+0	9.786862E-1	9.597251E-1	9.881134E-1	1.039008E+0	9.900173E-1	1.005591E+0	1.012075E+0	9.677668E-1	9.850265E-1	9.831074E-1	1.020583E+0	9.930265E-1	1.062525E+0	9.758698E-1	9.483181E-1	1.038262E+0	9.415170E-1	9.796486E-1	9.987125E-1	1.007401E+0	9.864500E-1	1.004470E+0	9.870880E-1	9.578713E-1	1.005324E+0	9.933258E-1	1.044217E+0	9.825981E-1	1.012401E+0	1.028744E+0	9.906614E-1	1.053209E+0	9.761635E-1	1.007622E+0	9.866520E-1	1.011653E+0	9.747756E-1	1.015298E+0	1.051104E+0	9.691181E-1	1.014664E+0	9.974496E-1	1.039365E+0	1.030313E+0	9.403222E-1	1.008954E+0	9.872574E-1	1.045983E+0	9.965848E-1	1.046511E+0	9.912742E-1	9.953739E-1	1.050738E+0	1.000737E+0	1.001404E+0	1.013875E+0	9.813761E-1	1.049523E+0	9.887989E-1	1.000882E+0	1.002271E+0	1.026111E+0	1.017246E+0	9.841620E-1	1.050591E+0	9.812115E-1	1.016525E+0	9.849892E-1	9.639879E-1	9.745042E-1	1.003436E+0	9.957946E-1	1.054334E+0	1.045460E+0	9.887660E-1	9.714630E-1	9.794122E-1	1.008523E+0	9.998637E-1	1.042426E+0	1.026644E+0	9.730229E-1	1.031674E+0	1.002481E+0	1.039821E+0	9.675156E-1	9.879598E-1	1.021404E+0	1.090043E+0	1.010401E+0
2.995040E+2	1.060703E+0	1.033645E+0	1.017031E+0	1.060046E+0	9.837133E-1	1.104936E+0	1.035552E+0	1.036977E+0	1.043069E+0	1.069404E+0	1.024684E+0	1.012693E+0	1.075672E+0	1.023892E+0	1.040075E+0	1.038027E+0	1.062956E+0	1.064531E+0	1.052731E+0	1.060968E+0	1.063184E+0	1.097884E+0	1.080826E+0	1.011568E+0	9.970052E-1	1.101058E+0	1.022422E+0	1.066425E+0	9.764309E-1	1.061049E+0	1.056353E+0	1.015586E+0	1.060118E+0	1.147693E+0	9.774225E-1	1.035840E+0	1.022731E+0	1.134492E+0	1.016051E+0	1.064115E+0	1.041851E+0	1.125706E+0	1.029549E+0	1.041785E+0	1.056537E+0	1.067170E+0	1.037329E+0	1.031932E+0	1.056898E+0	1.095765E+0	1.000157E+0	1.005045E+0	1.010839E+0	1.117720E+0	1.033140E+0	1.067266E+0	1.042384E+0	1.069006E+0	1.036599E+0	1.023651E+0	1.054806E+0	1.041049E+0	1.076830E+0	1.083281E+0	1.033124E+0	1.152275E+0	1.003676E+0	1.067591E+0	1.079329E+0	1.181262E+0	1.033824E+0	1.006523E+0	9.805916E-1	1.091121E+0	1.078099E+0	1.007092E+0	1.007288E+0	1.055355E+0	9.648747E-1	1.050189E+0	1.024199E+0	1.095706E+0	1.024229E+0	1.054483E+0	1.032146E+0	1.103336E+0	1.033698E+0	1.050028E+0	1.051662E+0	1.075901E+0	1.051918E+0	1.017797E+0	1.031518E+0	1.058385E+0	1.058371E+0	1.094244E+0	1.036462E+0	1.008132E+0	1.052180E+0	1.081728E+0	1.063651E+0	1.013252E+0	1.015717E+0	1.017911E+0	1.046611E+0	9.779458E-1	1.040489E+0	1.074722E+0	1.054126E+0	1.039682E+0	1.042638E+0	1.075084E+0	1.040328E+0	1.058711E+0	9.803783E-1	1.074550E+0	9.982983E-1	1.028140E+0	1.060309E+0	1.048192E+0	1.080671E+0	1.053377E+0	1.022102E+0	1.049416E+0	1.004850E+0	1.033008E+0	1.067898E+0	1.049039E+0	1.104684E+0	1.025094E+0	1.023653E+0	1.032610E+0	1.011879E+0	9.791076E-1	1.057322E+0	1.035107E+0	1.037149E+0	1.066116E+0	1.031569E+0	1.004451E+0	1.028213E+0	1.081619E+0	1.035327E+0	1.095825E+0	1.049665E+0	1.058156E+0	1.069075E+0	1.046178E+0	1.036571E+0	1.072024E+0	1.043510E+0	1.042880E+0	1.053475E+0	1.012996E+0	1.004673E+0	1.063872E+0	1.048282E+0	9.965918E-1	1.041342E+0	1.065964E+0	1.002866E+0	1.011874E+0	1.073840E+0	1.052270E+0	1.038945E+0	1.062660E+0	1.058533E+0	1.085069E+0	1.019910E+0	1.023404E+0	1.039200E+0
3.000060E+2	1.022315E+0	1.001675E+0	1.034889E+0	1.013857E+0	1.026059E+0	1.060135E+0	9.806221E-1	9.737199E-1	9.739276E-1	1.020261E+0	1.038671E+0	9.822299E-1	1.000381E+0	1.013423E+0	1.021633E+0	9.967559E-1	1.007678E+0	9.885084E-1	1.032501E+0	1.055482E+0	9.751389E-1	1.108344E+0	9.681428E-1	1.051583E+0	1.019057E+0	1.054804E+0	1.043750E+0	9.915099E-1	1.039103E+0	9.891284E-1	1.005492E+0	9.941885E-1	9.940730E-1	1.056397E+0	1.013433E+0	9.628795E-1	1.004639E+0	1.103926E+0	9.932875E-1	1.029302E+0	1.007761E+0	1.086010E+0	9.688458E-1	1.030969E+0	9.919232E-1	1.051575E+0	1.000138E+0	1.016481E+0	1.016277E+0	1.060996E+0	1.055448E+0	1.006938E+0	1.007014E+0	1.118540E+0	9.940981E-1	1.032171E+0	1.026437E+0	1.070768E+0	1.059849E+0	1.022753E+0	1.015832E+0	1.007464E+0	1.005259E+0	1.018269E+0	1.018371E+0	1.100213E+0	1.016910E+0	1.038623E+0	1.049715E+0	1.115323E+0	9.736925E-1	1.017707E+0	1.005241E+0	1.096729E+0	9.981186E-1	1.011243E+0	1.011576E+0	1.029197E+0	1.065111E+0	1.002040E+0	1.004439E+0	1.053913E+0	1.039633E+0	9.821687E-1	1.028334E+0	1.129237E+0	1.054551E+0	1.006900E+0	1.011039E+0	1.058345E+0	1.004494E+0	9.927264E-1	1.033192E+0	9.540371E-1	9.920465E-1	1.042694E+0	1.029260E+0	1.144175E+0	1.009028E+0	1.021880E+0	9.896386E-1	1.168708E+0	1.060706E+0	1.005415E+0	9.919327E-1	1.170501E+0	1.003115E+0	9.785846E-1	1.040150E+0	1.034722E+0	9.764335E-1	9.794543E-1	9.989271E-1	1.018397E+0	1.080593E+0	9.427034E-1	1.042287E+0	1.071007E+0	9.976464E-1	9.754183E-1	1.008824E+0	1.020823E+0	1.032302E+0	1.024289E+0	9.993936E-1	1.032216E+0	1.020146E+0	9.849408E-1	9.677142E-1	1.036675E+0	1.002698E+0	9.958657E-1	1.029137E+0	1.039994E+0	9.609501E-1	9.997194E-1	1.029988E+0	9.934818E-1	1.003740E+0	1.021022E+0	1.029976E+0	1.008683E+0	1.067582E+0	9.892376E-1	1.004459E+0	1.038298E+0	9.828695E-1	1.047104E+0	1.014465E+0	1.045719E+0	9.944573E-1	1.007918E+0	1.044463E+0	1.049636E+0	9.987255E-1	1.011876E+0	9.686858E-1	1.058763E+0	9.947841E-1	1.058620E+0	1.045866E+0	9.962350E-1	1.018345E+0	9.932911E-1	1.033735E+0	1.014347E+0	1.019919E+0	9.879601E-1	1.033351E+0	1.023403E+0	1.135199E+0
