Photon Energy (eV)	#1	#2	#3	#4	#5	#6	#7	#8	#9	#10	#11	#12	#13	#14	#15	#16	#17	#18	#19	#20	#21	#22	#23	#24	#25	#26	#27	#28	#29	#30	#31	#32	#33	#34	#35	#36	#37	#38	#39	#40	#41	#42	#43	#44	#45	#46	#47	#48	#49	#50	#51	#52	#53	#54	#55	#56	#57	#58	#59	#60	#61	#62	#63	#64	#65	#66	#67	#68	#69	#70	#71	#72	#73	#74	#75	#76	#77	#78	#79	#80	#81	#82	#83	#84	#85	#86	#87	#88	#89	#90	#91	#92	#93	#94	#95	#96	#97	#98	#99	#100	#101	#102	#103	#104	#105	#106	#107	#108	#109	#110	#111	#112	#113	#114	#115	#116	#117	#118	#119	#120	#121	#122	#123	#124	#125	#126	#127	#128	#129	#130	#131	#132	#133	#134	#135	#136	#137	#138	#139	#140	#141	#142	#143	#144	#145	#146	#147	#148	#149	#150	#151	#152	#153	#154	#155	#156	#157	#158	#159	#160	#161	#162	#163	#164	#165	#166	#167	#168	#169	#170	#171	#172	
2.790030E+2	-3.718400E-3	-6.269944E-3	-4.178797E-3	-7.619365E-3	-4.546534E-3	-1.904884E-3	-1.093451E-2	4.645183E-3	-3.674091E-3	-1.731093E-3	-5.514158E-3	-5.232424E-3	-7.193329E-3	-1.178128E-2	-3.465362E-3	-5.453845E-3	3.659516E-3	-8.378898E-3	-6.599738E-3	1.735761E-3	-3.572265E-4	-3.548460E-3	3.040959E-4	-6.575516E-3	-1.178680E-2	-6.626172E-3	-5.557983E-3	-6.403032E-3	-7.618673E-3	-2.772054E-3	6.373593E-4	3.922340E-3	1.184814E-3	-3.032090E-3	-5.786669E-3	8.171876E-4	-3.473004E-3	3.980060E-3	-2.498306E-3	-9.355419E-3	-4.854052E-3	-5.985240E-3	6.207241E-3	-3.889782E-3	-6.032901E-3	-5.100998E-3	1.833377E-3	4.146706E-3	3.570531E-3	-9.369416E-3	-5.697800E-3	-3.388758E-3	-5.341466E-3	-2.564928E-3	-6.281637E-3	-3.472587E-3	7.600277E-3	-6.773464E-3	-4.408626E-4	-2.249740E-4	1.076442E-3	4.070202E-3	-2.335243E-3	-2.239395E-3	-5.383643E-3	-2.810160E-3	-1.588925E-2	-5.173775E-3	-3.092232E-3	-2.258674E-3	-2.420009E-3	-6.529838E-3	-1.536068E-3	-1.109569E-2	2.300945E-3	-8.695674E-3	-1.076437E-3	-5.287565E-3	-1.397711E-2	-6.020305E-3	-9.661186E-3	-2.793085E-3	-1.189924E-4	-4.838123E-3	2.599061E-3	-3.497313E-3	-1.304647E-2	5.562029E-4	3.770751E-3	5.014279E-4	-2.203934E-3	-1.992728E-3	-1.169798E-2	-4.983213E-3	-1.007056E-4	2.504099E-3	-4.748625E-3	-5.765396E-3	-5.960978E-3	-1.221228E-2	-4.358990E-3	-8.738005E-3	2.545959E-3	5.403890E-3	2.787388E-3	-1.058444E-2	-2.292832E-3	2.151504E-3	-6.902728E-3	4.481231E-3	4.072576E-4	-4.141543E-3	-2.961501E-3	-1.789224E-3	-7.320633E-3	-1.674921E-3	8.749486E-4	-1.571245E-2	-1.051217E-2	-9.320140E-3	-2.559542E-3	-3.360359E-4	-3.808193E-3	-1.495493E-3	3.493493E-3	-6.925716E-3	-4.651161E-3	1.257000E-3	1.966582E-3	-7.169489E-3	-9.842229E-3	-3.221836E-3	-9.361100E-5	-4.850522E-3	-1.037290E-2	-5.339264E-4	-6.527443E-3	-1.189090E-2	-1.819800E-3	-3.901192E-3	2.180339E-4	3.935748E-4	-7.196994E-3	-8.709267E-3	-7.266105E-3	-1.028244E-2	2.094666E-3	-6.228377E-3	-8.243983E-4	-8.751089E-3	-6.645423E-3	-2.745156E-3	-1.299097E-2	-7.509838E-3	5.198539E-4	-4.772795E-4	-1.409102E-2	-2.574347E-3	-8.662167E-3	-5.416258E-3	-7.068747E-3	-9.898754E-3	-2.023549E-3	9.481492E-4	-8.303084E-3	7.118719E-3	-1.321406E-3	-4.180417E-3	2.896982E-3	9.361261E-3	2.531170E-3	-2.137093E-2
2.795020E+2	-1.799174E-3	-2.749999E-3	-1.313308E-3	-5.079598E-4	3.536166E-3	-7.519319E-3	-8.229067E-3	-8.044112E-3	6.483270E-4	-1.298327E-2	-1.112856E-2	1.137457E-3	-1.822318E-3	3.524304E-3	-1.332852E-3	-7.791010E-4	-1.219841E-3	-7.460707E-3	-1.649967E-3	2.661540E-3	3.572232E-4	-8.279669E-3	1.114967E-3	-3.235581E-3	-4.276633E-3	2.484809E-3	1.717917E-3	-5.398609E-3	-5.274476E-3	3.198567E-3	-8.194518E-4	-9.051694E-4	-5.708565E-3	-5.227742E-4	1.201017E-3	-3.852589E-3	6.946336E-4	-5.685654E-4	-7.603231E-4	1.210726E-3	-7.386552E-3	-9.668517E-3	1.098199E-2	-5.834689E-3	-2.760810E-3	-4.284840E-3	-1.425944E-3	-3.568069E-3	-1.622987E-3	-3.123144E-3	6.837001E-4	5.024717E-3	-2.289214E-3	-7.489483E-3	6.510085E-3	-3.472572E-3	-1.013370E-2	-5.913323E-3	-2.204294E-3	-2.024722E-3	2.935784E-4	-1.511784E-3	-4.670487E-3	-7.464314E-4	-1.867828E-3	-4.853970E-3	-5.369472E-3	3.448820E-4	5.457235E-4	-5.377792E-4	-4.839968E-3	-1.212686E-2	1.974994E-3	1.849291E-3	-5.062122E-3	7.672601E-3	-1.937571E-3	-1.370818E-3	2.964834E-3	2.283581E-3	-2.940362E-3	1.503985E-3	-9.634845E-3	4.093779E-3	4.909367E-3	-4.296644E-3	-4.806623E-3	7.676059E-3	-1.552695E-3	-3.509965E-3	-3.183389E-3	7.384841E-3	4.466512E-3	3.498861E-3	-1.712044E-3	-1.502449E-3	5.200886E-3	-4.824106E-3	-3.155821E-3	-4.697068E-3	-2.133097E-3	-2.543973E-3	-5.940571E-3	-7.066651E-3	3.679347E-3	-3.221340E-3	2.074467E-3	-5.095703E-3	-6.078521E-3	-6.925567E-3	7.738223E-3	1.882537E-3	5.239567E-3	-1.789247E-3	-9.272812E-3	-4.767046E-3	8.749628E-4	-7.043504E-3	2.013021E-3	-4.478545E-3	-3.490266E-3	-8.400843E-3	-4.231480E-4	-2.492481E-3	-5.521960E-3	-2.968160E-3	2.046472E-3	-8.025290E-3	-2.949830E-3	5.377132E-3	5.155447E-3	-7.824468E-3	4.399530E-3	-5.752950E-3	-4.126843E-3	-2.242559E-3	-7.443587E-3	3.963626E-3	-2.729782E-3	6.884534E-4	-1.526301E-3	-1.967984E-3	-2.590940E-3	5.382114E-3	7.936842E-3	9.573295E-3	-1.256808E-3	2.998848E-3	-3.297604E-3	-3.500531E-4	2.492094E-3	-1.098062E-2	-3.874526E-3	1.191991E-4	-6.134141E-3	2.386254E-3	3.465050E-3	3.192274E-3	3.657375E-3	-9.428288E-3	5.275002E-4	3.447899E-3	-8.318964E-3	2.844518E-3	-9.225609E-4	-8.413041E-3	-9.249774E-3	-4.180412E-3	6.897258E-4	7.832950E-3	-8.718470E-3	-2.374532E-3
2.800030E+2	1.079500E-3	-2.749961E-3	-1.313302E-3	2.539786E-3	-2.929967E-3	1.303371E-3	-1.916358E-3	-2.605816E-3	-1.080614E-3	-1.211771E-2	8.922891E-3	-9.782365E-3	1.246840E-3	-3.725708E-3	8.884955E-5	-8.570306E-3	2.846255E-3	-1.033043E-3	4.124846E-3	8.100044E-4	-6.072833E-3	-2.759831E-3	-2.128552E-3	-7.306440E-4	1.074372E-2	-1.656539E-3	-7.174864E-3	-5.398609E-3	4.883784E-3	-9.595577E-3	-6.646607E-3	-4.928060E-3	2.046473E-3	-5.227589E-4	-5.786658E-3	-1.984672E-3	-2.083788E-3	-5.875282E-3	-1.629304E-3	5.613259E-3	3.587751E-3	2.302019E-3	-2.387440E-3	-1.944917E-3	1.329244E-3	-1.020203E-3	-5.500092E-3	-3.568139E-3	-7.573853E-4	-1.115404E-2	-2.278880E-4	-1.519083E-3	4.578371E-3	-3.385662E-3	-5.367945E-3	8.313155E-3	-8.444552E-4	-8.493709E-3	-3.085969E-3	-8.323962E-3	-2.055020E-3	-4.302811E-3	-7.783992E-4	-4.478739E-3	3.406003E-3	-2.810235E-3	4.273686E-3	-6.093582E-3	-2.364621E-3	3.764434E-3	-4.840012E-3	-2.798510E-3	-1.645820E-2	7.397144E-3	-7.823257E-3	-3.580566E-3	1.507005E-3	4.112516E-3	2.117711E-3	-5.189955E-3	4.200525E-4	-2.148648E-4	-2.973742E-3	-6.822959E-3	-1.251383E-3	5.295915E-3	5.264345E-3	-1.223708E-3	5.545308E-3	-7.521345E-3	-2.203868E-3	-8.557029E-3	5.317272E-3	-8.376040E-3	-2.517679E-3	-3.906379E-3	-2.035138E-3	-3.882810E-3	-3.155804E-3	9.394065E-4	-6.584857E-3	1.880331E-3	-7.637899E-3	-5.403904E-3	1.003459E-3	4.141776E-3	-1.419345E-3	-3.283881E-3	-4.430098E-3	4.481251E-3	4.072824E-4	-7.906630E-3	-5.695203E-3	2.982003E-3	-1.464112E-3	3.865430E-4	-3.791420E-3	7.585462E-4	-3.354996E-3	4.236433E-3	2.094112E-3	-4.816467E-3	-7.193202E-3	-6.480585E-3	-1.915778E-3	4.946913E-3	-3.162793E-3	-1.063553E-3	-6.883015E-3	-8.961916E-3	3.280779E-3	-7.824474E-3	-3.837868E-3	1.466428E-3	-5.911419E-3	-8.222691E-3	-4.695211E-3	2.098439E-3	-5.459528E-3	-2.294947E-4	-2.398434E-3	3.935652E-4	-3.358586E-3	4.599294E-3	-6.371814E-3	-1.217350E-2	3.770441E-3	3.921556E-3	2.473177E-3	-3.150427E-3	-2.492051E-3	-8.235484E-3	-3.874482E-3	-8.463465E-3	4.678584E-3	-1.431727E-3	3.465028E-3	-5.045835E-3	2.117417E-3	-1.404169E-3	5.591720E-3	-9.009021E-3	-4.721587E-3	-6.637148E-3	-2.398672E-3	-5.824392E-3	-1.321396E-3	1.980200E-3	-9.242666E-3	-4.394067E-3	-6.468548E-3	9.023286E-3
2.805050E+2	-1.043539E-2	7.699997E-4	-2.268442E-3	-5.079598E-4	-4.546500E-3	-4.311073E-3	-4.621806E-3	6.457902E-3	-1.080577E-3	1.038658E-2	7.318788E-3	5.687425E-3	-4.891448E-3	-6.947948E-3	2.221377E-3	-3.116463E-3	-2.846309E-3	8.149363E-3	8.249687E-4	-9.373198E-3	-3.215104E-3	-1.971375E-3	-5.068050E-4	5.949329E-3	-3.442136E-3	4.969632E-3	-3.132715E-3	1.632169E-3	-5.860487E-4	4.051442E-3	-3.733060E-3	-5.732674E-3	3.769775E-3	-6.377850E-3	-4.913192E-3	-1.984677E-3	-4.167632E-3	1.894979E-4	-3.367266E-3	-8.474886E-3	-2.321496E-3	-1.381252E-3	6.207293E-3	1.944868E-3	-7.668990E-3	4.692954E-3	2.037013E-4	2.892646E-4	-4.219738E-3	-2.230782E-3	6.837668E-4	3.505576E-4	-2.289209E-3	9.746601E-3	1.141878E-4	-5.998114E-3	-1.688959E-3	3.548016E-3	-1.322543E-3	6.749001E-4	-1.272133E-3	3.488649E-4	3.113646E-3	5.971632E-3	-9.888065E-4	-9.963389E-3	-6.246145E-3	3.449381E-4	-8.185289E-3	-6.560787E-3	-5.646659E-3	7.462668E-3	-3.291647E-3	-7.397119E-3	-4.141749E-3	9.718662E-3	-3.659822E-3	-9.204255E-3	-5.506136E-3	5.605167E-3	-4.620559E-3	6.660478E-3	-4.876867E-3	-6.822953E-3	4.139232E-3	2.897750E-3	-2.975500E-3	-3.003674E-3	-4.214410E-3	2.507136E-3	-2.203946E-3	8.205227E-4	-6.380828E-4	-4.135029E-3	-1.712030E-3	-1.502488E-3	-2.939597E-3	2.706201E-3	3.389538E-3	3.757664E-3	-5.100934E-3	2.765160E-3	-2.545986E-3	-2.078400E-3	2.787388E-3	-5.062125E-3	-2.292864E-3	-3.283914E-3	1.339305E-3	-2.851710E-3	-5.294571E-3	3.388562E-3	-1.139050E-3	-1.133153E-2	-4.392352E-3	-1.713550E-2	-5.346887E-3	-1.083630E-4	-3.354957E-3	-3.510167E-3	1.163439E-3	5.600252E-4	-4.231429E-4	-1.495487E-3	-1.915789E-3	-5.342687E-3	-9.301778E-4	-4.157672E-3	3.933127E-3	8.961389E-4	-7.967487E-3	5.062869E-3	-2.340165E-3	2.368845E-3	-2.342294E-3	-5.339473E-4	-1.030640E-3	3.031027E-3	5.459468E-3	-7.572862E-3	2.180392E-4	3.936036E-4	8.156609E-3	-8.709267E-3	7.936815E-3	3.900220E-3	-1.256782E-3	4.844293E-3	-2.473219E-3	5.834143E-4	-5.814761E-3	8.235479E-3	-1.139594E-3	-3.695311E-3	-6.965843E-3	-4.295265E-3	-6.699021E-3	4.839841E-3	-2.502413E-3	-3.009052E-3	3.059569E-3	-9.898824E-3	3.372531E-3	-2.844514E-3	-1.660661E-3	-3.235775E-3	4.404554E-4	-6.600792E-4	-5.931867E-3	-1.050756E-2	-6.468534E-3	-1.377237E-2
2.810070E+2	5.877411E-3	-6.269949E-3	2.507244E-3	-5.079907E-4	7.577546E-3	-6.717223E-3	6.199954E-3	-8.044084E-3	-4.538553E-3	8.655632E-4	-1.503861E-3	1.137485E-3	4.795450E-4	1.077436E-2	-1.332800E-3	7.791178E-3	7.725677E-3	2.639929E-3	-7.424689E-3	-1.041446E-3	-1.786130E-3	1.064527E-2	3.040909E-4	-2.400576E-3	-5.111114E-3	3.313068E-3	-2.324218E-3	6.277104E-4	1.953758E-4	2.345594E-3	1.374852E-2	-8.146426E-3	6.354764E-3	3.136441E-4	1.201007E-3	3.619098E-3	1.389207E-3	1.895210E-4	1.846561E-3	-4.952849E-3	-2.321455E-3	4.143691E-3	-4.297310E-3	5.834765E-3	-1.942808E-3	3.060588E-3	4.277899E-3	-2.796599E-3	6.167261E-3	-1.338507E-3	-4.786123E-3	-5.842799E-4	-4.578424E-3	-2.564878E-3	-3.540584E-3	-4.314470E-3	-3.377901E-3	-1.612706E-3	7.494452E-3	-2.924624E-3	-3.620751E-3	-4.302811E-3	-5.448892E-3	-4.478707E-3	-3.625728E-3	9.452439E-3	1.643700E-3	5.863617E-3	-2.364657E-3	5.485213E-3	8.066682E-3	-3.731320E-3	1.097215E-3	-6.472508E-3	-5.982523E-3	7.672651E-3	-1.076437E-3	4.112507E-3	-2.964846E-3	2.283545E-3	2.940369E-3	-1.052784E-2	2.735821E-3	3.101319E-3	-1.251420E-3	2.098398E-3	4.348867E-3	9.455981E-3	-8.650656E-3	2.507118E-3	-1.003999E-2	4.571608E-3	-3.190383E-3	-3.286804E-3	-1.007056E-4	8.914576E-3	-3.844105E-3	-4.824089E-3	4.324628E-3	9.393893E-4	3.802533E-3	1.106420E-4	1.697315E-3	1.247063E-3	4.571268E-3	5.982466E-3	-4.913210E-3	9.398727E-3	3.811941E-3	2.851676E-3	-4.480054E-3	1.129527E-3	8.884514E-3	9.661616E-3	-4.392405E-3	4.509384E-3	9.723865E-5	5.092960E-3	-5.144267E-3	3.268149E-3	6.747794E-3	5.936638E-3	3.808178E-3	3.489514E-3	-2.817325E-3	-3.759595E-3	-3.906964E-3	2.030509E-3	3.933097E-3	7.169526E-3	-1.406057E-3	5.983456E-3	-9.361557E-5	1.466444E-3	9.257561E-3	-1.388261E-3	-2.862906E-3	-3.497342E-3	-2.081437E-9	3.442220E-3	-1.526280E-3	-9.052729E-3	2.015170E-3	1.467871E-3	1.676767E-3	4.845790E-3	1.256776E-3	-4.382932E-3	-3.297609E-3	4.317221E-3	-2.492021E-3	-1.830089E-3	-2.279166E-4	-2.741718E-3	2.183294E-3	4.771966E-4	-3.927013E-3	-4.222019E-3	3.657342E-3	3.410242E-3	-2.004548E-3	1.668384E-3	-2.248303E-4	-2.844508E-3	9.410188E-3	2.804321E-3	3.964206E-3	1.100114E-3	-5.931860E-3	1.910330E-4	2.812472E-4	2.422039E-2
2.815020E+2	1.079529E-3	-1.099946E-4	-6.089047E-3	1.523929E-3	3.030849E-4	4.511558E-3	9.807243E-3	1.019678E-3	3.241857E-3	4.327758E-3	-7.018097E-4	7.507350E-3	-2.877410E-4	3.524304E-3	-2.754470E-3	-7.791010E-4	2.033108E-3	6.312891E-3	-3.145194E-9	4.513041E-3	3.215066E-3	-6.702583E-3	1.114962E-3	-9.915462E-3	8.240330E-3	-1.242406E-2	-7.073916E-4	5.649693E-3	-3.711666E-3	-1.066180E-3	-8.103427E-3	3.117751E-3	-5.708528E-3	1.986557E-3	1.080900E-2	3.619121E-3	4.167625E-3	4.738137E-3	6.191407E-3	4.732721E-3	-3.165704E-3	2.302013E-3	-1.289194E-2	2.917312E-3	1.032756E-2	-2.040644E-4	2.036964E-4	3.375218E-3	2.704962E-3	1.204639E-2	5.241957E-3	4.089891E-3	8.393698E-3	-4.206405E-3	1.016488E-2	4.945857E-3	3.377911E-3	9.568815E-3	-1.102130E-2	3.374567E-3	1.859286E-3	-5.814453E-4	7.005705E-3	4.478754E-3	6.921796E-3	7.408667E-3	2.520362E-3	7.703226E-3	-4.547382E-3	2.043555E-3	-1.613337E-3	3.731335E-3	1.974978E-3	-3.698562E-3	9.664090E-3	-7.672596E-3	-1.937597E-3	3.329263E-3	7.200367E-3	-4.359555E-3	7.140882E-3	-2.793095E-3	-1.070531E-3	1.116501E-3	-9.722411E-3	3.697135E-3	5.264373E-3	-2.113688E-3	-1.552679E-3	-4.512785E-3	1.640686E-2	4.571528E-3	2.764977E-3	6.043442E-3	2.316288E-3	-1.502479E-3	2.487355E-3	-1.176362E-4	-2.220753E-3	2.818241E-3	9.274294E-5	-3.428856E-3	6.789218E-3	-3.741167E-3	-6.132228E-3	1.380574E-3	2.074520E-3	-1.472053E-3	2.163568E-3	2.851736E-3	2.036405E-3	-6.400633E-3	-7.517638E-3	2.982032E-3	5.368492E-3	4.509377E-3	1.652658E-3	3.359252E-3	2.907619E-3	9.078058E-3	2.327150E-4	-4.816506E-3	-2.115678E-3	-4.486548E-3	4.395057E-3	2.572410E-3	3.534876E-3	1.256934E-3	-1.966609E-3	-1.792329E-3	4.686856E-4	6.903936E-3	-9.362927E-5	2.368884E-3	3.345940E-4	-1.388235E-3	1.271138E-2	-8.160433E-3	-3.639647E-3	3.442175E-3	-6.541257E-4	2.755206E-3	-1.823215E-3	-3.229278E-3	-2.794644E-3	1.181818E-4	3.770436E-3	-1.614762E-3	3.297618E-3	-3.150398E-3	2.492023E-3	2.745178E-3	-2.051205E-3	1.442369E-2	5.198590E-4	-2.386208E-3	6.929920E-4	-5.045810E-3	-7.122224E-3	-1.404262E-3	-7.068747E-3	4.337648E-3	3.372586E-3	9.481723E-4	5.535455E-4	-6.687265E-3	-8.368811E-3	3.740382E-3	5.104163E-3	-2.865700E-3	1.603075E-2	-6.173797E-3
2.820040E+2	5.877417E-3	7.809911E-3	9.193291E-3	1.523848E-3	-6.163062E-3	5.313634E-3	6.199999E-3	9.177081E-3	1.512837E-3	1.731128E-3	1.002613E-4	-2.502448E-3	7.385157E-3	1.913206E-3	6.486398E-3	5.453821E-3	-5.285962E-3	8.034629E-4	2.474897E-3	1.735767E-3	6.787345E-3	8.279671E-3	3.040415E-4	3.444316E-3	2.399089E-3	8.282716E-3	7.376966E-3	3.640953E-3	6.446557E-3	1.492652E-3	-9.106402E-5	8.749889E-3	1.184798E-3	-5.227895E-4	-2.292810E-3	1.751186E-3	-6.946029E-4	-1.326684E-3	-2.498285E-3	9.135253E-3	6.964484E-3	4.143646E-3	-7.162199E-3	2.917318E-3	1.329264E-3	6.121385E-4	-3.870462E-3	2.603767E-3	-5.950835E-3	-2.230804E-3	2.507015E-3	5.959531E-3	-2.289139E-3	4.822016E-3	1.941560E-3	1.578426E-3	-1.688954E-3	9.676602E-4	1.322574E-3	-2.249466E-4	1.076465E-3	8.721958E-3	-7.783897E-4	-8.211001E-3	1.648056E-3	4.343037E-3	7.780264E-3	-4.254018E-3	4.183572E-3	-4.839934E-3	3.226645E-3	3.731369E-3	1.338599E-2	8.321727E-3	5.982458E-3	-5.626591E-3	5.812710E-3	-6.070914E-3	2.964828E-3	6.228160E-4	1.260136E-3	4.082190E-3	5.590612E-3	6.078652E-3	1.058867E-3	-1.099167E-3	-3.891061E-3	-1.012348E-2	-3.327145E-3	5.515635E-3	1.714134E-3	-1.172257E-4	1.063458E-3	9.542686E-4	3.121923E-3	-1.502445E-3	-3.844138E-3	1.306035E-2	2.454567E-3	2.818218E-3	1.576648E-3	9.844107E-3	-2.545939E-3	2.909759E-3	-6.132245E-3	3.221364E-3	6.441734E-3	-2.377994E-3	3.811961E-3	-4.481235E-3	-1.221855E-3	6.400592E-3	1.594658E-3	1.192960E-4	1.122495E-2	6.570741E-3	-3.013739E-3	-1.083841E-4	6.486211E-3	-2.541866E-3	2.094214E-3	1.456163E-3	3.808193E-3	8.474564E-3	5.296560E-3	7.321406E-3	-1.860573E-4	4.351043E-3	3.933187E-3	2.688577E-3	3.280722E-3	4.142371E-3	7.394944E-3	-1.240814E-3	3.011482E-3	2.883281E-3	-5.611350E-3	2.331561E-4	3.469062E-9	-7.572856E-3	1.962396E-3	-3.542384E-3	5.085857E-3	6.849986E-4	-3.688924E-3	1.181991E-4	-3.770411E-3	-3.460206E-3	2.473213E-3	6.184139E-3	4.153358E-3	2.745139E-3	9.800257E-3	2.026495E-3	3.846821E-3	2.386248E-3	8.084988E-3	7.311288E-3	4.427335E-3	1.303914E-2	3.059625E-3	1.323544E-2	-1.124192E-3	8.533533E-3	2.767689E-3	9.707331E-3	5.726030E-3	1.980173E-3	8.414916E-3	-2.865700E-3	-4.218625E-3	5.223951E-3
2.825030E+2	2.039110E-3	9.569937E-3	3.462361E-3	3.555712E-3	6.769267E-3	9.323936E-3	3.494545E-3	-2.605832E-3	4.970813E-3	9.521045E-3	2.506445E-3	2.047520E-3	5.083294E-3	2.718768E-3	8.885822E-5	5.453816E-3	-6.912445E-3	-1.032998E-3	8.249685E-3	-1.041469E-3	1.071660E-3	4.336977E-3	-5.068001E-4	1.346413E-2	3.233536E-3	1.656544E-3	9.802289E-3	5.649724E-3	5.665147E-3	2.345557E-3	5.007730E-3	3.922350E-3	-3.123530E-3	8.678061E-3	5.568310E-3	-1.984655E-3	4.167562E-3	-1.326684E-3	2.715515E-3	2.091194E-3	9.497024E-3	4.143640E-3	3.342363E-3	-1.944875E-3	5.419438E-3	2.244425E-3	4.277825E-3	-4.821484E-4	1.081896E-4	1.740030E-2	1.595372E-3	-9.932575E-3	3.815384E-3	5.642739E-3	-3.540545E-3	2.420305E-3	6.755778E-3	8.708711E-3	9.257943E-3	9.673763E-3	2.642134E-3	-2.442174E-3	3.892060E-3	9.703889E-3	-1.098489E-4	-7.663887E-4	1.128685E-2	1.264711E-3	1.582488E-2	2.903973E-3	8.066658E-3	1.026116E-2	2.852735E-3	1.109571E-2	5.062159E-3	5.115131E-4	2.368149E-3	1.037927E-2	7.200347E-3	4.774706E-3	5.460669E-3	4.082231E-3	1.034854E-2	4.093785E-3	-4.813137E-4	-5.096074E-3	9.842067E-3	-1.223697E-3	9.981527E-3	4.512778E-3	1.714128E-3	-6.681516E-3	1.914223E-3	1.028452E-2	7.049540E-4	-1.502435E-3	9.723362E-3	3.647486E-3	4.324622E-3	5.636429E-3	1.270595E-2	1.105934E-4	7.637903E-3	8.729409E-3	-2.564376E-3	4.141726E-3	3.275292E-4	3.963315E-3	6.284572E-3	-4.073831E-4	4.073122E-4	5.647587E-3	1.594653E-3	-8.349436E-4	1.024887E-2	7.601420E-3	8.652238E-3	1.376195E-2	1.095954E-2	3.268078E-3	-6.282466E-3	1.041703E-2	6.346994E-3	4.486515E-3	-1.014258E-3	4.155430E-3	7.255805E-3	4.351029E-3	-1.966537E-3	1.792361E-3	7.030138E-3	-3.221853E-3	-5.335585E-3	4.173685E-3	1.014982E-2	1.142634E-2	1.545976E-2	1.422243E-2	8.189287E-3	1.170356E-2	3.706672E-3	1.062715E-2	-2.878994E-4	8.513533E-3	2.571063E-3	3.900260E-3	-4.608317E-3	3.921579E-3	1.648822E-3	4.317193E-3	8.306781E-3	1.006556E-2	1.435844E-2	5.840946E-3	1.351572E-3	3.340782E-3	9.008998E-3	1.544607E-3	4.427335E-3	4.212648E-3	3.903628E-3	6.117228E-3	9.668006E-3	-9.482027E-4	5.535545E-4	4.530102E-3	1.013070E-2	2.200389E-4	4.000606E-3	3.247785E-3	7.031015E-3	5.223998E-3
2.830040E+2	4.917824E-3	8.689873E-3	1.552116E-3	9.651297E-3	1.081064E-2	1.012596E-2	4.396390E-3	1.098986E-2	-1.945124E-3	1.990769E-2	4.110533E-3	7.507361E-3	5.083303E-3	9.968785E-3	2.932195E-3	-1.188157E-8	-6.099213E-3	9.067616E-3	6.919427E-9	1.006749E-2	3.929468E-3	1.064527E-2	1.327834E-2	-1.565592E-3	3.233541E-3	8.282898E-4	1.465289E-2	-1.381055E-3	1.582346E-2	1.428672E-2	6.373148E-4	8.749859E-3	1.184787E-3	7.841618E-3	1.779664E-2	2.685145E-3	-4.167637E-3	8.528685E-3	1.748795E-2	1.001577E-2	5.276130E-3	9.668532E-3	2.387373E-3	8.752039E-3	1.329289E-3	8.773729E-3	1.018559E-3	9.547044E-3	7.032873E-3	4.015457E-3	1.527007E-2	-5.842228E-4	1.373524E-2	7.284276E-3	1.107848E-2	-4.314419E-3	8.444781E-3	1.386949E-2	3.085952E-3	7.874020E-3	4.207803E-3	3.139847E-3	1.323303E-2	-2.239400E-3	6.042870E-3	4.342994E-3	4.273670E-3	9.542778E-3	2.728418E-3	3.764381E-3	4.839973E-3	-9.958022E-9	8.119349E-3	7.397099E-3	8.743650E-3	4.603574E-3	1.506974E-3	3.329192E-3	9.741672E-3	1.224830E-2	1.218147E-2	6.660441E-3	-2.022140E-3	5.086234E-3	1.184025E-2	4.496559E-3	3.433245E-3	1.446237E-3	1.175599E-2	1.454116E-2	1.934535E-2	1.676240E-2	4.466517E-3	-4.135029E-3	1.762399E-2	8.113250E-3	6.105367E-3	6.471346E-3	9.934891E-3	-9.394222E-4	-6.491960E-4	6.304593E-3	1.442718E-2	7.066682E-3	9.031122E-3	1.334560E-2	8.188645E-3	1.211637E-2	2.163558E-3	2.036984E-3	1.262558E-2	7.153653E-3	7.062051E-3	5.844687E-3	-1.122499E-2	-2.705606E-3	4.763584E-3	2.416469E-2	9.170168E-3	2.299783E-3	1.140154E-2	1.400141E-2	1.142456E-2	7.477552E-3	-9.128110E-3	-3.759677E-3	1.469766E-2	-2.610622E-3	8.849521E-3	8.961942E-3	1.171691E-2	9.665523E-3	-8.424853E-4	5.076169E-3	6.580656E-3	1.142629E-2	3.550007E-3	6.761508E-3	9.098911E-4	2.524260E-3	7.195343E-3	1.771187E-2	2.015160E-3	3.816422E-3	3.465371E-3	2.281058E-2	6.284054E-3	5.766996E-3	-3.297584E-3	8.984535E-3	1.661357E-2	6.405317E-3	1.891664E-2	1.537726E-2	1.299599E-2	-2.386255E-3	5.312997E-3	8.958900E-3	9.817148E-3	1.303913E-2	5.591715E-3	1.234567E-2	2.225891E-2	3.792625E-3	8.672151E-3	1.941464E-3	5.725982E-3	1.100109E-3	4.000552E-3	1.394634E-2	1.153089E-2	-2.374532E-3
2.835040E+2	6.836981E-3	1.748984E-2	8.238192E-3	1.777850E-2	1.889333E-2	8.521870E-3	4.396390E-3	2.095999E-2	2.053171E-2	1.038661E-2	1.533938E-2	8.417340E-3	1.352342E-2	1.721883E-2	7.908078E-3	1.012854E-2	4.472747E-3	1.274054E-2	1.072459E-2	1.562198E-2	1.678971E-2	7.491148E-3	2.138733E-2	5.949268E-3	8.240319E-3	1.325238E-2	1.465286E-2	1.368485E-2	1.660487E-2	-1.066139E-3	1.010651E-2	1.518655E-2	1.497151E-2	1.620597E-2	6.441739E-3	1.482667E-2	-1.389232E-3	9.286725E-3	2.009485E-2	7.374210E-3	6.120359E-3	9.668470E-3	1.002703E-2	8.752028E-3	7.055456E-3	2.264843E-2	1.731515E-2	6.461181E-3	2.088219E-2	1.204641E-2	2.712140E-2	8.764112E-3	1.449824E-2	4.001208E-3	5.596337E-3	9.996850E-3	2.111194E-2	2.591117E-2	6.612777E-3	1.777275E-2	-4.892799E-4	7.791574E-3	-7.784467E-4	5.971632E-3	1.043762E-2	7.408686E-3	1.391675E-2	1.598126E-2	7.093966E-3	1.925217E-2	8.873353E-3	1.305970E-2	5.486061E-3	5.547804E-3	5.982515E-3	-5.115021E-4	4.951550E-3	1.037927E-2	1.397712E-2	6.435592E-3	1.218148E-2	1.095753E-2	2.176757E-2	1.302563E-2	1.030004E-2	9.292875E-3	1.899754E-2	1.212594E-2	8.206980E-3	2.356679E-2	6.611675E-3	1.113586E-2	-1.488817E-3	1.028453E-2	6.344635E-3	1.372241E-2	5.200875E-3	1.023646E-2	9.934988E-3	5.636435E-3	-2.875054E-3	4.534914E-3	1.697309E-2	8.729409E-3	1.616679E-2	1.610674E-2	9.062074E-3	7.586860E-3	1.040560E-2	2.851736E-3	1.506928E-2	1.468373E-2	1.435185E-2	1.824975E-2	1.220106E-2	1.996996E-2	1.176317E-2	7.693682E-3	2.706329E-2	-4.478521E-3	1.791668E-2	9.521008E-3	1.565586E-2	2.043865E-2	-5.521933E-3	1.286195E-2	1.544184E-2	1.053920E-2	4.916342E-3	7.169510E-3	1.359162E-2	1.518872E-2	5.148340E-3	1.590532E-2	1.907277E-2	1.313495E-2	8.130756E-3	1.795297E-2	5.459479E-3	1.262143E-2	6.323151E-3	9.839936E-3	1.660106E-2	2.250748E-3	2.571042E-3	1.619197E-2	1.382489E-2	5.767001E-3	6.595229E-3	5.834541E-4	1.329083E-2	5.490273E-3	1.344679E-2	7.748265E-3	9.669037E-3	1.384029E-2	-1.154983E-3	1.060658E-2	1.520693E-2	4.212672E-3	8.967822E-3	6.117217E-3	1.596344E-2	5.688994E-3	1.236241E-2	2.092469E-2	1.101164E-2	1.870188E-2	8.415017E-3	1.547477E-2	7.031029E-3	1.424733E-3
2.840020E+2	2.602853E-2	2.276976E-2	1.492415E-2	2.692177E-2	2.050990E-2	1.012599E-2	1.792354E-2	8.270716E-3	9.293278E-3	2.250433E-2	1.614141E-2	1.205733E-2	1.505799E-2	2.527441E-2	1.359475E-2	3.116479E-2	1.504475E-2	2.559588E-2	9.074596E-3	1.654776E-2	1.536076E-2	5.125515E-3	2.057643E-2	1.095919E-2	1.741946E-2	1.490893E-2	2.031195E-2	2.272440E-2	1.894904E-2	1.599262E-2	1.229172E-2	2.242779E-2	1.152475E-2	1.955179E-2	3.351894E-2	1.015679E-2	1.458672E-2	2.065832E-2	2.791556E-2	1.970137E-2	1.456211E-2	6.906120E-3	1.671180E-2	3.403563E-2	2.341592E-2	1.856766E-2	1.731516E-2	1.649042E-2	2.001659E-2	1.204640E-2	1.982832E-2	8.764124E-3	1.449829E-2	2.616196E-2	1.290592E-2	2.683357E-2	1.266717E-2	2.505106E-2	1.895668E-2	2.047246E-2	1.986498E-2	1.430399E-2	2.413081E-2	2.164717E-2	2.625893E-2	7.408692E-3	3.407968E-2	1.046258E-2	1.800762E-2	2.785647E-2	4.436674E-2	1.305969E-2	2.128593E-2	2.126671E-2	1.242526E-2	3.120204E-2	1.872979E-2	1.899600E-2	1.651844E-2	3.051696E-2	2.058243E-2	2.212991E-2	2.176758E-2	1.798787E-2	1.954114E-2	2.048429E-2	2.632182E-2	2.725561E-2	-6.654463E-4	1.754973E-2	2.228393E-2	2.989097E-2	2.148171E-2	1.028451E-2	1.359565E-2	2.173550E-2	1.243687E-2	1.117775E-2	2.209060E-2	2.724280E-2	1.048012E-2	2.842603E-2	2.291368E-2	2.452548E-2	2.062658E-2	2.162909E-2	7.315248E-3	3.114028E-2	1.287820E-2	2.159158E-2	2.158559E-2	2.070780E-2	2.346416E-2	1.347855E-2	2.000980E-2	2.203140E-2	1.020769E-2	1.809646E-2	1.632746E-2	1.972970E-2	1.419373E-2	1.668970E-2	2.919601E-2	1.944171E-2	1.160740E-2	1.919396E-2	2.139539E-2	1.595386E-2	2.163227E-2	8.961942E-3	3.515079E-2	2.531452E-2	1.413464E-2	8.685893E-3	1.996504E-2	1.228065E-2	2.278882E-2	1.888552E-2	2.729822E-3	1.078552E-2	2.289412E-2	1.692469E-2	1.429801E-2	1.790785E-2	2.045684E-2	1.808298E-2	3.058230E-2	1.038064E-2	1.896128E-2	1.925249E-2	2.824309E-2	-9.150892E-4	-2.279333E-4	2.872809E-2	2.297693E-2	2.338526E-2	6.236968E-3	2.708267E-2	4.427344E-3	2.186553E-2	2.922452E-2	3.103103E-2	1.956081E-2	3.887482E-2	2.048098E-2	2.523903E-2	3.391568E-2	2.662266E-2	1.614023E-2	3.228683E-2	3.853018E-2	1.282255E-2
2.841030E+2	2.027114E-2	1.836980E-2	2.543080E-2	2.489001E-2	3.344220E-2	3.498980E-2	2.874542E-2	2.367912E-2	2.226066E-2	2.163878E-2	1.854759E-2	3.753699E-2	2.196367E-2	3.333004E-2	2.283565E-2	3.194390E-2	2.155059E-2	2.743236E-2	2.309914E-2	3.321123E-2	3.608002E-2	2.641607E-2	2.949622E-2	2.515396E-2	1.658494E-2	1.656548E-2	3.243840E-2	2.272437E-2	3.223290E-2	2.963964E-2	2.321770E-2	1.438198E-2	2.100313E-2	2.624330E-2	2.041707E-2	3.537377E-2	2.083813E-2	3.127173E-2	2.965354E-2	2.850648E-2	2.638055E-2	4.558006E-2	3.581095E-2	2.431119E-2	1.768980E-2	3.407470E-2	1.650032E-2	1.880481E-2	2.694123E-2	3.256990E-2	4.717773E-2	6.894392E-3	2.518123E-2	1.959583E-2	3.026608E-2	3.188466E-2	3.377903E-2	2.075049E-2	2.953707E-2	1.957257E-2	2.143061E-2	1.895571E-2	2.335237E-2	1.866137E-2	1.746930E-2	3.397764E-2	2.618987E-2	2.150001E-2	2.382829E-2	2.957731E-2	2.662006E-2	1.679100E-2	5.486055E-3	1.941744E-2	2.899219E-2	2.711003E-2	2.131323E-2	2.761275E-2	1.567130E-2	3.466886E-2	2.478298E-2	2.900520E-2	1.225167E-2	1.699540E-2	2.262154E-2	3.247518E-2	2.723736E-2	2.547557E-2	2.240300E-2	3.058662E-2	4.089468E-2	3.082875E-2	2.573554E-2	2.215937E-2	2.729198E-2	1.692764E-2	9.723340E-3	2.153199E-2	2.396070E-2	2.066696E-2	1.122205E-2	3.373516E-2	4.752474E-2	8.729383E-3	2.062659E-2	2.070871E-2	2.565779E-2	1.936357E-2	2.194443E-2	2.322106E-2	3.054575E-2	2.748493E-2	1.890803E-2	3.065487E-2	2.489019E-2	2.306207E-2	1.176323E-2	3.630128E-2	3.690457E-2	2.553962E-2	1.233233E-2	1.848188E-2	2.834980E-2	1.545365E-2	2.603211E-2	2.156848E-2	2.958138E-2	2.214204E-2	2.654873E-2	2.867814E-2	3.140134E-2	2.255293E-2	1.563230E-2	1.410047E-2	1.818046E-2	3.107533E-2	1.820824E-2	4.593149E-2	1.728845E-2	2.363649E-2	1.504472E-2	1.849911E-2	2.658096E-2	2.886781E-2	2.313966E-2	3.037472E-2	1.717636E-2	3.068051E-2	4.616653E-2	2.298623E-2	3.322717E-2	2.928169E-2	3.714954E-2	1.823821E-2	2.963094E-2	1.193121E-2	2.748900E-2	3.037791E-2	2.290666E-2	2.668006E-2	1.572007E-2	2.302306E-2	4.204452E-2	1.611882E-2	2.048093E-2	2.610197E-2	3.479666E-2	9.020924E-3	1.945091E-2	2.617336E-2	3.403013E-2	3.561821E-2
2.842040E+2	3.850304E-2	4.564952E-2	3.784771E-2	3.098548E-2	4.475801E-2	3.097952E-2	2.513805E-2	5.721514E-2	3.090552E-2	2.942879E-2	3.859908E-2	5.482679E-2	2.349824E-2	4.138557E-2	2.923316E-2	5.687570E-2	3.456217E-2	4.120595E-2	3.134884E-2	3.783996E-2	4.751126E-2	4.297542E-2	3.192899E-2	5.103852E-2	3.410875E-2	3.561567E-2	3.324689E-2	4.180797E-2	2.832583E-2	2.025735E-2	3.487206E-2	3.127827E-2	3.134312E-2	3.711704E-2	4.312695E-2	2.790209E-2	3.820332E-2	2.520691E-2	4.095013E-2	2.850640E-2	3.482238E-2	3.821365E-2	3.199107E-2	2.625605E-2	3.323219E-2	3.733931E-2	1.813000E-2	2.883409E-2	2.867241E-2	5.309342E-2	4.170783E-2	2.091696E-2	3.967952E-2	4.996405E-2	3.117974E-2	3.356834E-2	2.786773E-2	3.537260E-2	3.482732E-2	4.116983E-2	2.612784E-2	2.360738E-2	4.748313E-2	2.388654E-2	2.713793E-2	3.499955E-2	4.372281E-2	3.621659E-2	4.201783E-2	2.957731E-2	6.372679E-2	3.358215E-2	3.269700E-2	3.606101E-2	3.359412E-2	2.813305E-2	3.250801E-2	4.092957E-2	3.261334E-2	3.217777E-2	4.326517E-2	4.791238E-2	3.604144E-2	3.585163E-2	3.340289E-2	5.645669E-2	5.195696E-2	3.882528E-2	2.151575E-2	3.760652E-2	3.305851E-2	2.520217E-2	2.998939E-2	4.081998E-2	3.454302E-2	4.016555E-2	2.600439E-2	4.506411E-2	4.640198E-2	3.757629E-2	3.644849E-2	3.992920E-2	4.158420E-2	3.200773E-2	3.043825E-2	4.095716E-2	2.915164E-2	2.208124E-2	3.101068E-2	3.870177E-2	4.683678E-2	2.447289E-2	2.984279E-2	3.542597E-2	5.612499E-2	3.233847E-2	3.120644E-2	3.630124E-2	4.316704E-2	2.941301E-2	3.653146E-2	3.729981E-2	4.950630E-2	4.636088E-2	3.955526E-2	2.631752E-2	3.627902E-2	2.291551E-2	4.031460E-2	2.688576E-2	3.983750E-2	3.728142E-2	2.386968E-2	4.207561E-2	2.978028E-2	4.132701E-2	2.736954E-2	3.194224E-2	3.548677E-2	1.721106E-2	3.161568E-2	4.290209E-2	3.886383E-2	4.530772E-2	2.492825E-2	3.321121E-2	2.723083E-2	3.437145E-2	2.308330E-2	4.165538E-2	5.482489E-2	3.751718E-2	2.803315E-2	3.349629E-2	4.044358E-2	3.483933E-2	2.748900E-2	1.884457E-2	4.985562E-2	3.711133E-2	3.766481E-2	3.725946E-2	4.114517E-2	3.223768E-2	4.409867E-2	3.041631E-2	5.241524E-2	3.278324E-2	3.159059E-2	4.757054E-2	6.102933E-2	1.662179E-2
2.843030E+2	3.658391E-2	5.004952E-2	4.166832E-2	5.231973E-2	4.314148E-2	4.621866E-2	5.489796E-2	5.177690E-2	3.436351E-2	5.366416E-2	3.940113E-2	4.572683E-2	4.421495E-2	4.783005E-2	4.131739E-2	4.363072E-2	5.895904E-2	6.140717E-2	3.052384E-2	4.987463E-2	4.751127E-2	5.243789E-2	4.733586E-2	6.356333E-2	3.911545E-2	3.975701E-2	5.345781E-2	5.486503E-2	3.301431E-2	3.731608E-2	5.745238E-2	4.173794E-2	3.306644E-2	3.878999E-2	4.836773E-2	4.658129E-2	3.264644E-2	3.885276E-2	4.355695E-2	6.372674E-2	5.255014E-2	4.189689E-2	4.154065E-2	4.764990E-2	3.405018E-2	4.060397E-2	4.338977E-2	4.812108E-2	3.126922E-2	6.023200E-2	4.444279E-2	3.867877E-2	4.425791E-2	4.503958E-2	5.402220E-2	3.020102E-2	3.884589E-2	5.343510E-2	3.747240E-2	4.656921E-2	4.256780E-2	5.337835E-2	4.514786E-2	3.657631E-2	6.317519E-2	3.704337E-2	3.670971E-2	3.897601E-2	3.328682E-2	5.280895E-2	4.840008E-2	3.358205E-2	3.620802E-2	5.732779E-2	5.384260E-2	5.370846E-2	3.336918E-2	3.544616E-2	4.786105E-2	4.629434E-2	3.990474E-2	3.759935E-2	5.316992E-2	4.974564E-2	3.956359E-2	4.686408E-2	5.836574E-2	5.573482E-2	4.103514E-2	5.465489E-2	7.125942E-2	5.052159E-2	5.551222E-2	4.336449E-2	4.501663E-2	4.898000E-2	3.957188E-2	3.470999E-2	4.827211E-2	4.978860E-2	3.422266E-2	4.169888E-2	6.874113E-2	4.863514E-2	3.668189E-2	4.924074E-2	4.138006E-2	5.288188E-2	4.419792E-2	5.010865E-2	4.357859E-2	3.652108E-2	4.715623E-2	2.970069E-2	4.441190E-2	3.130775E-2	4.831648E-2	5.277227E-2	6.374405E-2	3.909626E-2	3.466991E-2	4.267637E-2	4.358254E-2	3.339976E-2	4.766916E-2	4.689663E-2	4.669763E-2	3.993298E-2	4.424776E-2	3.047047E-2	5.858460E-2	3.820200E-2	5.157722E-2	5.831926E-2	5.208761E-2	4.730721E-2	5.668590E-2	4.872932E-2	5.550504E-2	4.658450E-2	4.818664E-2	3.109420E-2	5.344984E-2	4.452489E-2	3.118820E-2	4.077539E-2	6.074572E-2	4.267591E-2	2.720524E-2	6.405814E-2	4.236467E-2	4.392249E-2	2.712151E-2	4.970797E-2	4.293884E-2	4.247538E-2	3.395699E-2	4.603028E-2	4.446586E-2	4.914741E-2	4.272900E-2	4.081861E-2	5.193738E-2	3.697846E-2	3.893225E-2	3.645643E-2	4.977242E-2	6.886688E-2	4.262652E-2	4.451371E-2	7.002904E-2	5.461460E-2
2.844030E+2	5.385633E-2	6.852935E-2	5.217498E-2	7.873351E-2	5.445725E-2	5.584335E-2	5.129075E-2	5.358965E-2	6.029822E-2	5.279861E-2	4.581757E-2	6.119657E-2	6.032798E-2	5.749675E-2	6.761838E-2	4.752633E-2	3.862839E-2	5.957072E-2	4.949808E-2	5.728064E-2	4.608237E-2	5.243789E-2	8.220427E-2	6.189334E-2	5.246688E-2	3.727226E-2	6.800958E-2	5.285618E-2	3.770269E-2	3.816902E-2	5.016847E-2	4.334710E-2	4.685312E-2	3.711709E-2	5.448195E-2	5.778883E-2	5.765225E-2	4.946619E-2	6.615013E-2	7.605387E-2	6.690121E-2	4.926336E-2	6.063978E-2	6.612645E-2	3.650430E-2	5.284637E-2	5.398246E-2	4.426364E-2	5.031199E-2	6.380132E-2	4.808927E-2	4.241813E-2	5.723009E-2	4.175649E-2	7.229603E-2	6.555827E-2	4.053485E-2	3.967312E-2	4.099930E-2	5.916758E-2	4.726485E-2	6.826370E-2	3.969898E-2	4.030855E-2	5.965941E-2	5.237156E-2	4.021623E-2	5.921127E-2	3.619717E-2	4.936725E-2	5.808006E-2	5.597013E-2	5.200786E-2	6.010176E-2	4.647946E-2	4.859335E-2	6.092575E-2	3.544615E-2	6.056751E-2	5.875028E-2	4.914587E-2	4.361527E-2	4.555736E-2	6.760955E-2	4.187387E-2	5.645672E-2	6.569006E-2	5.662479E-2	5.256929E-2	4.964068E-2	5.558737E-2	6.083692E-2	4.700455E-2	5.099839E-2	5.790729E-2	4.657609E-2	4.590333E-2	6.294860E-2	6.510304E-2	4.133394E-2	5.054562E-2	4.789286E-2	6.110327E-2	4.198423E-2	4.203368E-2	7.961336E-2	6.234307E-2	4.835237E-2	4.337372E-2	5.581210E-2	5.090958E-2	5.233432E-2	4.988985E-2	5.641922E-2	5.514894E-2	5.192180E-2	4.909420E-2	5.623985E-2	8.700511E-2	6.136771E-2	3.653144E-2	5.701381E-2	5.796896E-2	5.932209E-2	4.947223E-2	5.560318E-2	4.744186E-2	6.777966E-2	3.834807E-2	6.362951E-2	5.858466E-2	4.924824E-2	4.633534E-2	5.651430E-2	5.208758E-2	4.218132E-2	6.401505E-2	4.033574E-2	4.913555E-2	5.851751E-2	4.731448E-2	3.975331E-2	4.730832E-2	4.765629E-2	5.622834E-2	6.252215E-2	6.074573E-2	4.083047E-2	6.512778E-2	6.125786E-2	7.143847E-2	5.215800E-2	6.085248E-2	5.638341E-2	5.957372E-2	5.583840E-2	5.336106E-2	4.685412E-2	5.601539E-2	4.994981E-2	5.538947E-2	4.170835E-2	5.913213E-2	6.257894E-2	5.074112E-2	5.889114E-2	7.003372E-2	3.806384E-2	5.145530E-2	5.826922E-2	5.202951E-2	3.181892E-2
2.845010E+2	6.345209E-2	7.908919E-2	7.414332E-2	8.076538E-2	8.436330E-2	6.947833E-2	8.646150E-2	8.350014E-2	8.018151E-2	7.963065E-2	7.870199E-2	8.394631E-2	7.030276E-2	7.683013E-2	6.548593E-2	9.816909E-2	7.847656E-2	6.875312E-2	6.269757E-2	8.227576E-2	6.251494E-2	6.426600E-2	7.977159E-2	7.942804E-2	8.417648E-2	6.791832E-2	7.447699E-2	7.997489E-2	6.974019E-2	6.716899E-2	7.129202E-2	7.553043E-2	6.839475E-2	7.308405E-2	7.282449E-2	9.794913E-2	7.571198E-2	6.614438E-2	8.613635E-2	8.926147E-2	6.521281E-2	7.504606E-2	7.782910E-2	9.238253E-2	5.695490E-2	7.325041E-2	7.027909E-2	7.049409E-2	9.012883E-2	7.629385E-2	7.361544E-2	7.887666E-2	6.180844E-2	7.869090E-2	9.879311E-2	1.000736E-1	6.671356E-2	7.063758E-2	7.626743E-2	9.786272E-2	6.527059E-2	6.082103E-2	7.005708E-2	6.792736E-2	8.075441E-2	7.689682E-2	7.528219E-2	8.864444E-2	8.276236E-2	8.636572E-2	7.582678E-2	8.675375E-2	5.990778E-2	7.489601E-2	7.409109E-2	7.723789E-2	7.470396E-2	6.677983E-2	8.259205E-2	7.452764E-2	6.510780E-2	7.197596E-2	9.503974E-2	6.760949E-2	7.960856E-2	8.043835E-2	9.590297E-2	1.046835E-1	6.499078E-2	8.173157E-2	9.084968E-2	1.049114E-1	6.316905E-2	7.050711E-2	7.966024E-2	8.664150E-2	7.213388E-2	9.212851E-2	9.221954E-2	8.172850E-2	6.390086E-2	9.390546E-2	8.316837E-2	8.272137E-2	8.127999E-2	6.580761E-2	8.330596E-2	8.911785E-2	5.903366E-2	8.514393E-2	7.371705E-2	6.137047E-2	6.629208E-2	7.645809E-2	8.345531E-2	8.181233E-2	7.087066E-2	9.438325E-2	1.057929E-1	8.751266E-2	5.142324E-2	8.927302E-2	8.335684E-2	6.729805E-2	7.020771E-2	8.172282E-2	6.604649E-2	7.087375E-2	8.947883E-2	7.976094E-2	9.795346E-2	7.410245E-2	5.532152E-2	9.351376E-2	9.848686E-2	8.660518E-2	6.951180E-2	8.883191E-2	8.735210E-2	6.494293E-2	7.958430E-2	7.675155E-2	7.724790E-2	6.722777E-2	7.500835E-2	8.143245E-2	7.917895E-2	8.696658E-2	7.914259E-2	7.339274E-2	1.021735E-1	7.137404E-2	6.905721E-2	7.068788E-2	8.618957E-2	7.206492E-2	8.477706E-2	7.651121E-2	7.372475E-2	6.038120E-2	6.889387E-2	8.352793E-2	9.060929E-2	6.542358E-2	7.509683E-2	7.873731E-2	7.179560E-2	7.150722E-2	9.891018E-2	1.041203E-1	9.927798E-2	6.981164E-2
2.846040E+2	1.181480E-1	1.538884E-1	1.496000E-1	1.579750E-1	1.417505E-1	1.480800E-1	1.378649E-1	1.777630E-1	1.424249E-1	1.367571E-1	1.332420E-1	1.358156E-1	1.470315E-1	1.340248E-1	1.060036E-1	1.238801E-1	1.134455E-1	1.449669E-1	1.369449E-1	1.470782E-1	1.346750E-1	1.249836E-1	1.576174E-1	1.512369E-1	1.175551E-1	1.457759E-1	1.367267E-1	1.392341E-1	1.150615E-1	1.209041E-1	1.200947E-1	1.278286E-1	1.442215E-1	1.366535E-1	1.470685E-1	1.399774E-1	1.319749E-1	1.040495E-1	1.487021E-1	1.350478E-1	1.234611E-1	1.348987E-1	1.408563E-1	1.439221E-1	1.371212E-1	1.401756E-1	1.330211E-1	1.244978E-1	1.334079E-1	1.574955E-1	1.429005E-1	1.256184E-1	1.304844E-1	1.172669E-1	1.289450E-1	1.564767E-1	1.325826E-1	1.256855E-1	1.335782E-1	1.311585E-1	1.255505E-1	1.389696E-1	1.408927E-1	1.351082E-1	1.370078E-1	1.269692E-1	1.270044E-1	1.272756E-1	1.155037E-1	1.371314E-1	1.661736E-1	1.511194E-1	1.327627E-1	1.285251E-1	1.550851E-1	1.549873E-1	1.280945E-1	1.333637E-1	1.342651E-1	1.550758E-1	1.020722E-1	1.338538E-1	1.416676E-1	1.549436E-1	1.335152E-1	1.387936E-1	1.554131E-1	1.616420E-1	1.297597E-1	1.429049E-1	1.241531E-1	1.583637E-1	1.116625E-1	1.256405E-1	1.183323E-1	1.291109E-1	1.472074E-1	1.617838E-1	1.651537E-1	1.211837E-1	1.188055E-1	1.372634E-1	1.536068E-1	1.467369E-1	1.169584E-1	1.477221E-1	1.444481E-1	1.606840E-1	1.051891E-1	1.381043E-1	1.071138E-1	1.148343E-1	1.182322E-1	1.566140E-1	1.351880E-1	1.415934E-1	1.136459E-1	1.767385E-1	1.487364E-1	1.795037E-1	1.249515E-1	1.502072E-1	1.485190E-1	1.121634E-1	1.116788E-1	1.133830E-1	1.278139E-1	1.196055E-1	1.445428E-1	1.469753E-1	1.157631E-1	1.339368E-1	1.287091E-1	1.106599E-1	1.457784E-1	1.703271E-1	1.308929E-1	1.363954E-1	1.255685E-1	1.383768E-1	1.205756E-1	1.200473E-1	1.332884E-1	1.376847E-1	1.563887E-1	1.400545E-1	1.520738E-1	1.331027E-1	1.475681E-1	1.303333E-1	1.835802E-1	1.555587E-1	1.392539E-1	1.593753E-1	1.360943E-1	1.541520E-1	1.245092E-1	1.185254E-1	1.461020E-1	1.277833E-1	1.161597E-1	1.253476E-1	1.490669E-1	1.242098E-1	1.326650E-1	1.434528E-1	1.537219E-1	1.260726E-1	1.353290E-1	1.362160E-1	1.240273E-1	1.419979E-1
2.847000E+2	2.265805E-1	2.198874E-1	2.603968E-1	2.849644E-1	2.419761E-1	2.683891E-1	2.686276E-1	2.711204E-1	2.599957E-1	2.484133E-1	2.455303E-1	2.704934E-1	2.298987E-1	2.613032E-1	2.304002E-1	2.368520E-1	2.305503E-1	2.551553E-1	2.268668E-1	2.387270E-1	2.396996E-1	2.393219E-1	2.589790E-1	2.714745E-1	2.343799E-1	2.344006E-1	2.296969E-1	2.577526E-1	2.189879E-1	2.198449E-1	2.490211E-1	2.420799E-1	2.321119E-1	2.504091E-1	2.440224E-1	2.697981E-1	2.194951E-1	2.693159E-1	2.764402E-1	2.398285E-1	2.137884E-1	2.251380E-1	2.735956E-1	2.479743E-1	2.131976E-1	2.315852E-1	2.397638E-1	2.394481E-1	1.905361E-1	2.502976E-1	2.796472E-1	2.443425E-1	2.144220E-1	2.370987E-1	2.733087E-1	2.920134E-1	2.406758E-1	1.944952E-1	2.358556E-1	2.319456E-1	2.312359E-1	2.506107E-1	2.350801E-1	2.269224E-1	2.020508E-1	2.403986E-1	2.304493E-1	2.532864E-1	2.304616E-1	2.885674E-1	2.436135E-1	2.649251E-1	2.231728E-1	2.404070E-1	2.811780E-1	2.746805E-1	2.064583E-1	2.492981E-1	2.325283E-1	2.480794E-1	2.087647E-1	2.378429E-1	2.748898E-1	2.522018E-1	2.189958E-1	2.523064E-1	2.863352E-1	2.719988E-1	2.397782E-1	2.321575E-1	2.916495E-1	2.783962E-1	2.443813E-1	2.316663E-1	2.262915E-1	2.156518E-1	2.141398E-1	2.201434E-1	2.586586E-1	2.630343E-1	2.078397E-1	2.983076E-1	2.605373E-1	2.523208E-1	1.936671E-1	2.388401E-1	2.178185E-1	2.675804E-1	1.942033E-1	2.342479E-1	2.227803E-1	2.277861E-1	2.257573E-1	2.720764E-1	2.454855E-1	2.817696E-1	2.264168E-1	2.642947E-1	2.900919E-1	2.850511E-1	2.375705E-1	2.389201E-1	2.585330E-1	2.258222E-1	2.189626E-1	2.336917E-1	2.193486E-1	2.193894E-1	2.458203E-1	2.213592E-1	2.723009E-1	2.167842E-1	2.088362E-1	2.857307E-1	2.903296E-1	2.634468E-1	2.426609E-1	2.501745E-1	2.529573E-1	2.365948E-1	2.269790E-1	2.255310E-1	2.246427E-1	2.386733E-1	2.413459E-1	2.733720E-1	2.526175E-1	2.530561E-1	2.530913E-1	2.992877E-1	2.874150E-1	2.763457E-1	2.103624E-1	2.375725E-1	2.508750E-1	2.467384E-1	2.243012E-1	2.412726E-1	2.331087E-1	2.377132E-1	2.419202E-1	2.552550E-1	2.515927E-1	2.218708E-1	2.227072E-1	2.271522E-1	2.779327E-1	2.642462E-1	2.225134E-1	2.615424E-1	2.410236E-1	2.939691E-1
2.848000E+2	5.336453E-1	5.252449E-1	5.669996E-1	5.633253E-1	5.095142E-1	5.138186E-1	5.869685E-1	6.128254E-1	5.184782E-1	5.314481E-1	5.583334E-1	5.698789E-1	4.984493E-1	5.384144E-1	4.955429E-1	4.791584E-1	4.997290E-1	6.086776E-1	5.246804E-1	5.821794E-1	4.847584E-1	4.924430E-1	5.719838E-1	5.687294E-1	4.872222E-1	4.787412E-1	5.409443E-1	5.881987E-1	4.690370E-1	4.646386E-1	4.981332E-1	4.794328E-1	4.587297E-1	5.097059E-1	5.348836E-1	5.425151E-1	4.591343E-1	5.012957E-1	5.553785E-1	5.691384E-1	5.058739E-1	5.474210E-1	5.581725E-1	5.290114E-1	4.700572E-1	5.041825E-1	5.445102E-1	4.647208E-1	4.597324E-1	5.563650E-1	5.330851E-1	4.976820E-1	4.792061E-1	5.145178E-1	5.775694E-1	5.874987E-1	4.788176E-1	4.774756E-1	5.056581E-1	5.289091E-1	4.488699E-1	5.232004E-1	4.771668E-1	5.105751E-1	5.000187E-1	6.174738E-1	5.399054E-1	4.979492E-1	4.742015E-1	5.983224E-1	5.445015E-1	5.699627E-1	4.944040E-1	4.946830E-1	5.618959E-1	5.662409E-1	4.432725E-1	4.921343E-1	5.442611E-1	5.561550E-1	4.885186E-1	5.266056E-1	5.774945E-1	5.578714E-1	4.631153E-1	5.752589E-1	6.205077E-1	5.879408E-1	4.926432E-1	5.320072E-1	6.011752E-1	5.456570E-1	4.885502E-1	4.963070E-1	5.066638E-1	5.433869E-1	5.090069E-1	5.750084E-1	5.849924E-1	5.692820E-1	4.615881E-1	5.593401E-1	6.144274E-1	5.798807E-1	4.951501E-1	4.956282E-1	4.920842E-1	5.801148E-1	4.736085E-1	4.860128E-1	4.720332E-1	4.845632E-1	4.644999E-1	5.802954E-1	5.500246E-1	5.549063E-1	4.791790E-1	6.006506E-1	5.414895E-1	6.016936E-1	5.223765E-1	5.579288E-1	5.581098E-1	5.638087E-1	4.876231E-1	5.281318E-1	5.095815E-1	4.777457E-1	4.867253E-1	5.753548E-1	5.188257E-1	4.828167E-1	4.963957E-1	5.690917E-1	5.740792E-1	5.897913E-1	5.083403E-1	5.290273E-1	5.232030E-1	5.321658E-1	5.034519E-1	5.112834E-1	4.818160E-1	5.338096E-1	5.346722E-1	5.645903E-1	5.550904E-1	4.901962E-1	5.622428E-1	5.895918E-1	5.997505E-1	5.645874E-1	4.774749E-1	5.541785E-1	5.677699E-1	5.684063E-1	5.255260E-1	4.702917E-1	4.802695E-1	4.952852E-1	4.216990E-1	5.070626E-1	5.366862E-1	5.641593E-1	4.168153E-1	5.559069E-1	5.695203E-1	5.898789E-1	4.708242E-1	6.191820E-1	5.380134E-1	5.485205E-1
2.849020E+2	8.656598E-1	9.379598E-1	9.949056E-1	1.032678E+0	8.700032E-1	8.779537E-1	1.035170E+0	9.753763E-1	8.841586E-1	9.105596E-1	8.743438E-1	9.548040E-1	9.097162E-1	8.775552E-1	8.331903E-1	8.913135E-1	8.355919E-1	9.530168E-1	9.569637E-1	9.497013E-1	8.419864E-1	8.859245E-1	1.029327E+0	9.436392E-1	7.926358E-1	7.943117E-1	9.071648E-1	9.859385E-1	8.409849E-1	8.151966E-1	8.790858E-1	8.785073E-1	8.619902E-1	8.919599E-1	9.454086E-1	8.964856E-1	8.376943E-1	8.689753E-1	9.351177E-1	1.007631E+0	8.790010E-1	9.175872E-1	9.898140E-1	8.936786E-1	8.054467E-1	8.143235E-1	8.663672E-1	8.682051E-1	8.345295E-1	8.981261E-1	1.001671E+0	8.688125E-1	8.233498E-1	9.692214E-1	1.044466E+0	9.511736E-1	8.225186E-1	8.206640E-1	8.997796E-1	9.545556E-1	8.199438E-1	8.571930E-1	8.212251E-1	8.621542E-1	8.630283E-1	1.014988E+0	9.650802E-1	9.155329E-1	8.212571E-1	9.485177E-1	9.550949E-1	9.542907E-1	8.569223E-1	9.135462E-1	9.622638E-1	1.023530E+0	8.325076E-1	8.258375E-1	9.576449E-1	9.024294E-1	8.153181E-1	9.305311E-1	1.007612E+0	9.349963E-1	8.227503E-1	9.565665E-1	1.016022E+0	1.047169E+0	8.005179E-1	9.712521E-1	9.871035E-1	9.123193E-1	8.075859E-1	8.847858E-1	8.619626E-1	8.542956E-1	8.427683E-1	9.270500E-1	9.646241E-1	9.084076E-1	8.206945E-1	9.504480E-1	1.007355E+0	9.456839E-1	7.850374E-1	9.042802E-1	9.384210E-1	9.071452E-1	7.464196E-1	9.064360E-1	8.328813E-1	8.106170E-1	7.724964E-1	1.026877E+0	9.716941E-1	9.702821E-1	8.104927E-1	9.803504E-1	1.034444E+0	9.822471E-1	9.011864E-1	9.038199E-1	9.050780E-1	8.409763E-1	8.536500E-1	8.700613E-1	8.519068E-1	8.026234E-1	8.584064E-1	9.580289E-1	8.975159E-1	8.998153E-1	8.206500E-1	9.914268E-1	9.729337E-1	1.012673E+0	8.940328E-1	9.281886E-1	9.608733E-1	8.681251E-1	8.331277E-1	8.466286E-1	8.034734E-1	8.211178E-1	8.753963E-1	9.238860E-1	9.329702E-1	9.035751E-1	8.804620E-1	9.685738E-1	9.918312E-1	1.012049E+0	7.701133E-1	1.006199E+0	9.487094E-1	9.206169E-1	9.265420E-1	8.797235E-1	8.259876E-1	8.427286E-1	7.145777E-1	9.136920E-1	8.793379E-1	9.254113E-1	8.175778E-1	9.899328E-1	1.027603E+0	9.867988E-1	8.901910E-1	9.707061E-1	1.048749E+0	1.065223E+0
2.850010E+2	1.109391E+0	1.117479E+0	1.188801E+0	1.191161E+0	1.118142E+0	1.042375E+0	1.207417E+0	1.265418E+0	1.153879E+0	1.164166E+0	1.109347E+0	1.174110E+0	1.022507E+0	1.058806E+0	1.015875E+0	1.078302E+0	1.031580E+0	1.153193E+0	1.049361E+0	1.182990E+0	1.014885E+0	1.082271E+0	1.150151E+0	1.097276E+0	1.022948E+0	1.012976E+0	1.101998E+0	1.209919E+0	1.026958E+0	1.001138E+0	1.050259E+0	1.059539E+0	1.002442E+0	1.132855E+0	1.139316E+0	1.103826E+0	1.014818E+0	1.082002E+0	1.212318E+0	1.205746E+0	1.089201E+0	1.122007E+0	1.121598E+0	1.207780E+0	9.477825E-1	1.036319E+0	1.064371E+0	1.000129E+0	9.963931E-1	1.098900E+0	1.202233E+0	1.077280E+0	1.059900E+0	1.112035E+0	1.222636E+0	1.190255E+0	1.037016E+0	9.883884E-1	1.069067E+0	1.178628E+0	9.859085E-1	1.015351E+0	1.049299E+0	1.051755E+0	9.834462E-1	1.231628E+0	1.197392E+0	1.060859E+0	9.500393E-1	1.193740E+0	1.279376E+0	1.147388E+0	9.903445E-1	1.153953E+0	1.233778E+0	1.224041E+0	1.002153E+0	1.022456E+0	1.052520E+0	1.131617E+0	9.782975E-1	1.116164E+0	1.253122E+0	1.204937E+0	1.012194E+0	1.155615E+0	1.328222E+0	1.280343E+0	9.877265E-1	1.203912E+0	1.257448E+0	1.150510E+0	9.930522E-1	1.039158E+0	1.044044E+0	1.004942E+0	9.983420E-1	1.084246E+0	1.132933E+0	1.095350E+0	9.772470E-1	1.199978E+0	1.271287E+0	1.205072E+0	9.420222E-1	1.131615E+0	1.062452E+0	1.160797E+0	9.409323E-1	1.076725E+0	1.016970E+0	1.053840E+0	9.529198E-1	1.229175E+0	1.147389E+0	1.163023E+0	1.040701E+0	1.257757E+0	1.335943E+0	1.159452E+0	1.026836E+0	1.063323E+0	1.106488E+0	1.055333E+0	1.024943E+0	1.094848E+0	1.050605E+0	9.735717E-1	1.115044E+0	1.130993E+0	1.117795E+0	1.029610E+0	9.636809E-1	1.189059E+0	1.217422E+0	1.206600E+0	1.124899E+0	1.228492E+0	1.204731E+0	1.146256E+0	1.036340E+0	1.004855E+0	1.024565E+0	1.027008E+0	1.031002E+0	1.053422E+0	1.124005E+0	1.084429E+0	1.075845E+0	1.248610E+0	1.231068E+0	1.183163E+0	9.879967E-1	1.198832E+0	1.110068E+0	1.166878E+0	1.084546E+0	1.052724E+0	1.112416E+0	1.058576E+0	9.255849E-1	1.058726E+0	1.130255E+0	1.144438E+0	9.489518E-1	1.153879E+0	1.293643E+0	1.167217E+0	1.060146E+0	1.232057E+0	1.102746E+0	1.000634E+0
2.851000E+2	1.009596E+0	1.112199E+0	1.117166E+0	1.168812E+0	1.012258E+0	9.886376E-1	1.158719E+0	1.122210E+0	1.129674E+0	1.088863E+0	1.047588E+0	1.080382E+0	1.065475E+0	1.029805E+0	9.369720E-1	1.004285E+0	1.021008E+0	1.167885E+0	1.023787E+0	1.033018E+0	9.905930E-1	1.068866E+0	1.095010E+0	1.135685E+0	9.445085E-1	9.558253E-1	1.015495E+0	1.167733E+0	9.636649E-1	9.474023E-1	1.004371E+0	1.009655E+0	9.464330E-1	9.889865E-1	1.095643E+0	9.712031E-1	9.960636E-1	1.047128E+0	1.112386E+0	1.128261E+0	1.015758E+0	1.026243E+0	1.125418E+0	1.115397E+0	8.905208E-1	9.783722E-1	9.779994E-1	9.615550E-1	9.193566E-1	1.032867E+0	1.060016E+0	9.828609E-1	9.492562E-1	1.121063E+0	1.155023E+0	1.088393E+0	9.779031E-1	9.385012E-1	1.015282E+0	1.058942E+0	9.381547E-1	9.269682E-1	1.038401E+0	9.420249E-1	9.825670E-1	1.085497E+0	1.139533E+0	9.891157E-1	8.758266E-1	1.086186E+0	1.148696E+0	1.157649E+0	9.174895E-1	9.782711E-1	1.173953E+0	1.131969E+0	8.858981E-1	9.809383E-1	1.036425E+0	1.079302E+0	8.674035E-1	1.057724E+0	1.148448E+0	1.211884E+0	9.898600E-1	1.070080E+0	1.160677E+0	1.257203E+0	9.495751E-1	1.073542E+0	1.177129E+0	1.079241E+0	9.139311E-1	9.840247E-1	1.001343E+0	9.961263E-1	9.386442E-1	1.017414E+0	1.086181E+0	1.068107E+0	9.601824E-1	1.113261E+0	1.143140E+0	1.175142E+0	9.393468E-1	1.133456E+0	1.100011E+0	1.046654E+0	8.354339E-1	9.512501E-1	9.216667E-1	1.022967E+0	8.727314E-1	1.121347E+0	1.025378E+0	1.075414E+0	9.357071E-1	1.152863E+0	1.188325E+0	1.125559E+0	9.672694E-1	1.048090E+0	1.020169E+0	9.715857E-1	9.465079E-1	9.721646E-1	9.598135E-1	9.171044E-1	9.695176E-1	1.056610E+0	1.052179E+0	1.015803E+0	9.442102E-1	1.172814E+0	1.187976E+0	1.206600E+0	1.065351E+0	1.109116E+0	1.065514E+0	1.108621E+0	9.630783E-1	9.702178E-1	8.940606E-1	1.046579E+0	9.961247E-1	1.078005E+0	1.069543E+0	1.017070E+0	9.835126E-1	1.116060E+0	1.113110E+0	1.092573E+0	9.387684E-1	1.117774E+0	1.071808E+0	1.094337E+0	9.782865E-1	9.340949E-1	9.876808E-1	9.767299E-1	8.361177E-1	1.052497E+0	1.059207E+0	1.098925E+0	9.371426E-1	1.060688E+0	1.184407E+0	1.065127E+0	9.266107E-1	1.147997E+0	1.125246E+0	1.141207E+0
2.852010E+2	8.656592E-1	8.578811E-1	8.239342E-1	9.067046E-1	8.215066E-1	8.210072E-1	9.440874E-1	9.019598E-1	8.564944E-1	8.361222E-1	8.799584E-1	8.528847E-1	9.488478E-1	8.517769E-1	7.322509E-1	8.110633E-1	8.103822E-1	9.126142E-1	8.158941E-1	8.811954E-1	8.119783E-1	7.881455E-1	8.703927E-1	8.918695E-1	9.178057E-1	7.446163E-1	8.408731E-1	9.507850E-1	9.003710E-1	7.665791E-1	7.370487E-1	8.463239E-1	8.370021E-1	8.191892E-1	8.108963E-1	7.928160E-1	7.876823E-1	8.128753E-1	8.577794E-1	8.940447E-1	8.232851E-1	8.061690E-1	9.000471E-1	8.363044E-1	8.332588E-1	8.086111E-1	8.019964E-1	7.964576E-1	7.938476E-1	8.588639E-1	8.931852E-1	8.043080E-1	7.302557E-1	8.050681E-1	9.019303E-1	8.711984E-1	7.532713E-1	7.019672E-1	8.080817E-1	8.933635E-1	7.322635E-1	7.874172E-1	7.807471E-1	8.076636E-1	7.891960E-1	8.504636E-1	8.668957E-1	8.106773E-1	7.572308E-1	8.564519E-1	9.091156E-1	9.048503E-1	8.042576E-1	8.432735E-1	9.392546E-1	8.884912E-1	6.878366E-1	7.451526E-1	8.000844E-1	7.961384E-1	7.481092E-1	8.359947E-1	9.191152E-1	8.873588E-1	7.480507E-1	8.542451E-1	9.436933E-1	9.190120E-1	7.259888E-1	8.709681E-1	9.322504E-1	8.372996E-1	7.539877E-1	7.363497E-1	7.717278E-1	7.990056E-1	6.917168E-1	8.724553E-1	8.898196E-1	8.520435E-1	7.227566E-1	9.000111E-1	9.428567E-1	9.091036E-1	7.529266E-1	8.315687E-1	8.039089E-1	8.772508E-1	6.796589E-1	7.972565E-1	7.823785E-1	7.601654E-1	7.296678E-1	8.875590E-1	8.282094E-1	8.878252E-1	7.614956E-1	8.841260E-1	9.074028E-1	9.144640E-1	7.522687E-1	8.195866E-1	8.526091E-1	7.432697E-1	7.211219E-1	7.647911E-1	7.938606E-1	7.569857E-1	8.613563E-1	9.194913E-1	7.765978E-1	7.617370E-1	7.435177E-1	8.714037E-1	9.577641E-1	9.750827E-1	7.831813E-1	8.526458E-1	8.189256E-1	8.415053E-1	7.642271E-1	7.655468E-1	7.458975E-1	7.514434E-1	7.966988E-1	7.811129E-1	8.483452E-1	8.629755E-1	7.666934E-1	8.826961E-1	9.154087E-1	8.519137E-1	7.801412E-1	9.032063E-1	8.447415E-1	8.394841E-1	8.202815E-1	7.545060E-1	7.813286E-1	7.929792E-1	7.559339E-1	8.514067E-1	7.912013E-1	8.647278E-1	7.452490E-1	8.932913E-1	9.025106E-1	9.199120E-1	7.864540E-1	8.912310E-1	8.372554E-1	8.410641E-1
2.853000E+2	5.451592E-1	5.560440E-1	6.386354E-1	6.486619E-1	5.264871E-1	5.715668E-1	6.897755E-1	6.082930E-1	5.945539E-1	5.790539E-1	6.048524E-1	6.053688E-1	6.020328E-1	5.327763E-1	5.040722E-1	5.633029E-1	5.550280E-1	6.426518E-1	5.956283E-1	5.470011E-1	5.569183E-1	5.539498E-1	6.182043E-1	6.204992E-1	5.890273E-1	5.035891E-1	5.684312E-1	6.575015E-1	6.089084E-1	5.047266E-1	5.520348E-1	5.429947E-1	6.129676E-1	5.849853E-1	6.021399E-1	5.182320E-1	5.424869E-1	5.498136E-1	6.579171E-1	6.149247E-1	5.953576E-1	5.649172E-1	6.336150E-1	5.611017E-1	6.508402E-1	5.523367E-1	5.551024E-1	5.434120E-1	5.263824E-1	6.072282E-1	6.470409E-1	6.248199E-1	5.082033E-1	5.809995E-1	6.259941E-1	6.077036E-1	5.531318E-1	5.179013E-1	5.691405E-1	5.721032E-1	6.273611E-1	5.436681E-1	5.184220E-1	5.225179E-1	6.248308E-1	6.236057E-1	5.889985E-1	5.770510E-1	5.171283E-1	6.249956E-1	6.098419E-1	6.138065E-1	5.786698E-1	5.695789E-1	6.152785E-1	6.265988E-1	5.500534E-1	5.352177E-1	5.518844E-1	5.727624E-1	5.196021E-1	5.627006E-1	6.012839E-1	6.253577E-1	5.432050E-1	5.752589E-1	6.571297E-1	6.386694E-1	5.361184E-1	6.322917E-1	6.383968E-1	5.775413E-1	5.481038E-1	5.268428E-1	5.364736E-1	5.738372E-1	4.882040E-1	5.703028E-1	5.962131E-1	5.542509E-1	5.380099E-1	6.168563E-1	6.254594E-1	5.757245E-1	5.147733E-1	5.600550E-1	5.436181E-1	5.946101E-1	4.653662E-1	5.658610E-1	5.257942E-1	5.207076E-1	4.672340E-1	6.194184E-1	5.744269E-1	5.590296E-1	4.776235E-1	6.283906E-1	6.407961E-1	5.726446E-1	4.935234E-1	5.355258E-1	5.758809E-1	5.109671E-1	5.534350E-1	5.993670E-1	4.961857E-1	4.878010E-1	5.663713E-1	5.556389E-1	5.797534E-1	5.665849E-1	5.308438E-1	6.232372E-1	6.499241E-1	6.436127E-1	5.486510E-1	6.138959E-1	5.659690E-1	5.413450E-1	5.165343E-1	4.994753E-1	5.125230E-1	5.447695E-1	5.275179E-1	5.343342E-1	5.525765E-1	5.317187E-1	5.276174E-1	6.708024E-1	6.180256E-1	6.323016E-1	5.513181E-1	6.199786E-1	5.677693E-1	5.760417E-1	5.624861E-1	5.716196E-1	5.495671E-1	5.129391E-1	4.934414E-1	6.173951E-1	5.726595E-1	5.945006E-1	5.393326E-1	6.119935E-1	6.338276E-1	6.312429E-1	5.381430E-1	6.176528E-1	5.852618E-1	5.523195E-1
2.854010E+2	3.964257E-1	4.381252E-1	4.848568E-1	4.668131E-1	4.286869E-1	4.103528E-1	4.823583E-1	4.668984E-1	4.622869E-1	4.431621E-1	4.227851E-1	4.652309E-1	5.007510E-1	4.409427E-1	3.867841E-1	4.144916E-1	3.997014E-1	4.957350E-1	4.405336E-1	4.285054E-1	4.154562E-1	4.403998E-1	4.795422E-1	4.793864E-1	4.555132E-1	4.017118E-1	4.423150E-1	5.078465E-1	4.948229E-1	3.989621E-1	3.633799E-1	3.901243E-1	4.397731E-1	3.967872E-1	4.632593E-1	3.940146E-1	3.959249E-1	4.444370E-1	4.806478E-1	4.678798E-1	4.704186E-1	4.507366E-1	4.483534E-1	4.366281E-1	4.725111E-1	3.940019E-1	4.377668E-1	4.076311E-1	4.848340E-1	4.724867E-1	4.729167E-1	4.032642E-1	4.128191E-1	4.324409E-1	5.081280E-1	4.469117E-1	4.332156E-1	4.103859E-1	4.457018E-1	4.632176E-1	4.480867E-1	4.329572E-1	4.133368E-1	4.150287E-1	4.446438E-1	4.519287E-1	4.513646E-1	4.206874E-1	4.152669E-1	4.357010E-1	4.444746E-1	4.776121E-1	4.496382E-1	4.096155E-1	4.707774E-1	4.578009E-1	4.622178E-1	3.926494E-1	4.256666E-1	4.548473E-1	4.414730E-1	4.595724E-1	4.861427E-1	4.784768E-1	3.976575E-1	4.425607E-1	4.969102E-1	4.962729E-1	4.323108E-1	4.327264E-1	4.552284E-1	4.621969E-1	4.647284E-1	4.242086E-1	4.164293E-1	4.608527E-1	4.266977E-1	4.413457E-1	4.774613E-1	4.744018E-1	3.955544E-1	5.292554E-1	4.743993E-1	4.742970E-1	3.551123E-1	5.029908E-1	4.361829E-1	4.695957E-1	3.936603E-1	4.542370E-1	4.321197E-1	4.265813E-1	4.171161E-1	5.125444E-1	4.260617E-1	4.312219E-1	3.578537E-1	4.636803E-1	4.922833E-1	4.874322E-1	4.283720E-1	4.593585E-1	4.464028E-1	3.923230E-1	3.532928E-1	4.284022E-1	3.949764E-1	4.050345E-1	4.228125E-1	4.588499E-1	4.250892E-1	4.266645E-1	4.237577E-1	5.194582E-1	5.018036E-1	4.778769E-1	4.029852E-1	4.413619E-1	4.322110E-1	4.348659E-1	4.179815E-1	3.995011E-1	3.843203E-1	4.320388E-1	4.014237E-1	4.747668E-1	4.696273E-1	4.182242E-1	4.237428E-1	5.027818E-1	5.166824E-1	4.666772E-1	3.917795E-1	4.778880E-1	4.804366E-1	4.500481E-1	4.155696E-1	4.208627E-1	4.263717E-1	4.206622E-1	3.524883E-1	4.510061E-1	4.458520E-1	4.570167E-1	4.050063E-1	4.635796E-1	5.228306E-1	4.596263E-1	3.946752E-1	4.495320E-1	4.705163E-1	4.763343E-1
2.855000E+2	3.234975E-1	3.316466E-1	3.511360E-1	3.784285E-1	3.082541E-1	3.125019E-1	4.192314E-1	3.517880E-1	3.559542E-1	3.470858E-1	3.682451E-1	3.551226E-1	3.848912E-1	3.386363E-1	3.235198E-1	3.459294E-1	3.069936E-1	3.791179E-1	3.283377E-1	3.192671E-1	2.839965E-1	3.339470E-1	3.733147E-1	3.800230E-1	3.311782E-1	3.188847E-1	3.671302E-1	3.672321E-1	3.619851E-1	2.855214E-1	3.123925E-1	3.354117E-1	3.320647E-1	3.056146E-1	3.095314E-1	3.575901E-1	3.278538E-1	3.519492E-1	3.407441E-1	3.525328E-1	3.530773E-1	3.199814E-1	3.184783E-1	3.374388E-1	3.866184E-1	3.344219E-1	3.440617E-1	3.127391E-1	3.324919E-1	3.422075E-1	3.717240E-1	3.200635E-1	2.930181E-1	3.372324E-1	3.573684E-1	3.585183E-1	3.529909E-1	3.174921E-1	3.381341E-1	3.525312E-1	3.517959E-1	3.185253E-1	3.370521E-1	3.262002E-1	3.488371E-1	3.507616E-1	3.523026E-1	3.250297E-1	3.170437E-1	3.797730E-1	4.049477E-1	3.544780E-1	3.258720E-1	3.190019E-1	3.833413E-1	3.636826E-1	4.079652E-1	3.127487E-1	3.401099E-1	3.518791E-1	3.667039E-1	3.383943E-1	3.738549E-1	3.712945E-1	3.306598E-1	3.186557E-1	3.696501E-1	3.850263E-1	3.497962E-1	3.424709E-1	3.484614E-1	3.280979E-1	3.779508E-1	3.342996E-1	3.157208E-1	3.142134E-1	3.561467E-1	3.443935E-1	3.802160E-1	3.240952E-1	3.354561E-1	3.797147E-1	3.920793E-1	3.595680E-1	2.873228E-1	3.336404E-1	3.523311E-1	3.155931E-1	3.392629E-1	3.507601E-1	3.050501E-1	3.000747E-1	3.460398E-1	3.675005E-1	3.518787E-1	3.291817E-1	3.197445E-1	3.865268E-1	3.920828E-1	3.344365E-1	3.101683E-1	3.437629E-1	3.203105E-1	3.225323E-1	3.424737E-1	3.144256E-1	2.967441E-1	2.913264E-1	3.264497E-1	3.199403E-1	3.388536E-1	3.723534E-1	2.889643E-1	4.129717E-1	3.866975E-1	3.659630E-1	2.838870E-1	3.387731E-1	3.148315E-1	3.834620E-1	3.412317E-1	3.310152E-1	2.937338E-1	3.193074E-1	3.146776E-1	3.594142E-1	3.514871E-1	3.268740E-1	3.140973E-1	3.674299E-1	3.613459E-1	3.742564E-1	2.978805E-1	3.634522E-1	3.265640E-1	3.794147E-1	3.296368E-1	2.948206E-1	2.947066E-1	3.283850E-1	2.697727E-1	3.317765E-1	3.406277E-1	3.100505E-1	3.097976E-1	3.669370E-1	3.977389E-1	3.804180E-1	3.328734E-1	3.517162E-1	3.152712E-1	3.813519E-1
2.856010E+2	2.380953E-1	2.278076E-1	2.336528E-1	2.809010E-1	1.821639E-1	2.162548E-1	2.758425E-1	2.520868E-1	2.651823E-1	2.579342E-1	2.190624E-1	2.522937E-1	2.483132E-1	2.186083E-1	2.232917E-1	2.119207E-1	2.354297E-1	2.542371E-1	2.062417E-1	2.229891E-1	1.996903E-1	2.267051E-1	2.614115E-1	2.480955E-1	2.468970E-1	2.112091E-1	2.410148E-1	2.376645E-1	2.330530E-1	2.266687E-1	2.162432E-1	2.259878E-1	2.484829E-1	2.386992E-1	2.265532E-1	2.090906E-1	2.299141E-1	2.344433E-1	2.495022E-1	2.653632E-1	2.585300E-1	2.205343E-1	2.382616E-1	2.470012E-1	2.655508E-1	2.005714E-1	2.275414E-1	1.862163E-1	2.173697E-1	2.440508E-1	2.687072E-1	2.406025E-1	2.167110E-1	2.329944E-1	2.413296E-1	2.499213E-1	2.372978E-1	2.108373E-1	2.243933E-1	2.094484E-1	2.695960E-1	2.161879E-1	2.296318E-1	2.097532E-1	2.626992E-1	2.444856E-1	2.646380E-1	2.229337E-1	2.202748E-1	2.541499E-1	2.637803E-1	2.500001E-1	2.468728E-1	2.237631E-1	2.397605E-1	2.460359E-1	2.581268E-1	1.811475E-1	2.215160E-1	2.347939E-1	2.364884E-1	2.387018E-1	2.568096E-1	2.581563E-1	2.205358E-1	2.642971E-1	2.735178E-1	2.800087E-1	2.229207E-1	2.201235E-1	2.554077E-1	2.202558E-1	2.401273E-1	1.918008E-1	2.351537E-1	2.140494E-1	2.078086E-1	2.323804E-1	2.549184E-1	2.620944E-1	2.160017E-1	2.761861E-1	2.427157E-1	2.456699E-1	2.231017E-1	2.480443E-1	2.545035E-1	2.639566E-1	2.378858E-1	1.967684E-1	2.219660E-1	2.210090E-1	2.649401E-1	2.501291E-1	2.318205E-1	2.632165E-1	2.303059E-1	2.712300E-1	2.632519E-1	2.560018E-1	2.412932E-1	2.308554E-1	2.128350E-1	2.288137E-1	2.613351E-1	2.241939E-1	2.089302E-1	2.209362E-1	2.409042E-1	2.491409E-1	2.441803E-1	2.536050E-1	2.155763E-1	2.442190E-1	2.269769E-1	2.600296E-1	2.472421E-1	2.464446E-1	2.092808E-1	2.485276E-1	2.705864E-1	2.302545E-1	2.115916E-1	2.324099E-1	2.395573E-1	2.535165E-1	2.492667E-1	2.207611E-1	2.234129E-1	2.432810E-1	2.624942E-1	2.571297E-1	2.203903E-1	2.375731E-1	2.542020E-1	2.295578E-1	2.732733E-1	2.182063E-1	2.153992E-1	2.104314E-1	2.106912E-1	2.000888E-1	2.524919E-1	2.607455E-1	1.990898E-1	2.608038E-1	2.840997E-1	2.484053E-1	2.445852E-1	2.676559E-1	2.387737E-1	2.369800E-1
2.858030E+2	1.546120E-1	1.838081E-1	1.715685E-1	1.945479E-1	1.821639E-1	1.681313E-1	2.073045E-1	2.285207E-1	1.813273E-1	1.869589E-1	1.621162E-1	1.849547E-1	1.899996E-1	2.057195E-1	1.543406E-1	1.784183E-1	1.719978E-1	2.000609E-1	1.583940E-1	1.480039E-1	1.539649E-1	1.857010E-1	1.730243E-1	1.979961E-1	1.818085E-1	1.598563E-1	1.658300E-1	1.844320E-1	2.142993E-1	1.814629E-1	1.557862E-1	1.632305E-1	1.855816E-1	1.742932E-1	1.767661E-1	1.801377E-1	1.597593E-1	1.760694E-1	2.173505E-1	1.905196E-1	1.648259E-1	1.873846E-1	2.029282E-1	1.954619E-1	2.058352E-1	1.564987E-1	1.574656E-1	1.630719E-1	1.922677E-1	1.914036E-1	1.738964E-1	1.835778E-1	1.625334E-1	1.706166E-1	1.947308E-1	2.019361E-1	1.646728E-1	1.583701E-1	1.811903E-1	1.878516E-1	1.897444E-1	2.031629E-1	1.751428E-1	1.716843E-1	1.783188E-1	1.954356E-1	1.927531E-1	1.475109E-1	1.707997E-1	1.990820E-1	2.186068E-1	1.921640E-1	1.959621E-1	1.775311E-1	1.863780E-1	2.225061E-1	2.142089E-1	1.607808E-1	1.495129E-1	1.791571E-1	1.877622E-1	1.802621E-1	1.911500E-1	1.718147E-1	1.558481E-1	1.651734E-1	2.149235E-1	1.785515E-1	1.909793E-1	2.020724E-1	2.191660E-1	2.043134E-1	2.060969E-1	1.629616E-1	1.707006E-1	1.876065E-1	1.652974E-1	1.843748E-1	1.978804E-1	1.972755E-1	1.544191E-1	1.947795E-1	2.189531E-1	1.858110E-1	1.740440E-1	1.891394E-1	1.549296E-1	1.905786E-1	2.106868E-1	1.804725E-1	1.836817E-1	1.743225E-1	1.847519E-1	2.110054E-1	1.927773E-1	1.745759E-1	1.875304E-1	1.880079E-1	2.113619E-1	1.795038E-1	1.910341E-1	2.003883E-1	1.654442E-1	1.729810E-1	2.045373E-1	1.521667E-1	1.672556E-1	1.513198E-1	1.828908E-1	1.944736E-1	2.019996E-1	1.946914E-1	1.803801E-1	2.180482E-1	2.135923E-1	1.805789E-1	1.931898E-1	1.820939E-1	1.637853E-1	1.980416E-1	2.182573E-1	1.617686E-1	1.647634E-1	1.689989E-1	1.850056E-1	1.788204E-1	1.864266E-1	1.580162E-1	1.549877E-1	1.994089E-1	2.010245E-1	2.232725E-1	1.729851E-1	1.994279E-1	1.635419E-1	1.942411E-1	1.947333E-1	1.901966E-1	1.869105E-1	1.831497E-1	1.524530E-1	1.920808E-1	1.904369E-1	1.820482E-1	1.703054E-1	1.943623E-1	2.004109E-1	2.070407E-1	1.927164E-1	1.912375E-1	2.005248E-1	1.571950E-1
2.860050E+2	3.484466E-1	3.721259E-1	3.826563E-1	3.977310E-1	3.446267E-1	3.806770E-1	3.660240E-1	3.907623E-1	3.879403E-1	3.773804E-1	3.586204E-1	3.796928E-1	4.002362E-1	3.217196E-1	3.185435E-1	3.350216E-1	3.200052E-1	4.241113E-1	3.662861E-1	3.794403E-1	3.390098E-1	3.441975E-1	3.554757E-1	3.449539E-1	3.603844E-1	3.511870E-1	3.735974E-1	3.923417E-1	3.588593E-1	3.230509E-1	3.233177E-1	3.313885E-1	3.475749E-1	3.256891E-1	3.942574E-1	3.202321E-1	3.111830E-1	3.496745E-1	3.867988E-1	3.692625E-1	3.876888E-1	3.549725E-1	3.795957E-1	3.656405E-1	3.890724E-1	3.540093E-1	3.481359E-1	3.142817E-1	3.835610E-1	3.761149E-1	3.708122E-1	3.770886E-1	3.365130E-1	3.511849E-1	4.249817E-1	3.787227E-1	3.479239E-1	3.209327E-1	3.504778E-1	3.750285E-1	3.878069E-1	3.538786E-1	3.105864E-1	3.187364E-1	3.804792E-1	3.640467E-1	3.724663E-1	3.139920E-1	3.214083E-1	3.711690E-1	3.791342E-1	3.992542E-1	4.180381E-1	3.439670E-1	4.201566E-1	4.066497E-1	4.329387E-1	3.252824E-1	3.595937E-1	3.468959E-1	3.423409E-1	3.435509E-1	4.366598E-1	3.732789E-1	3.013958E-1	3.642213E-1	4.135952E-1	4.197355E-1	3.249535E-1	3.535019E-1	4.140881E-1	3.431020E-1	4.026226E-1	3.181836E-1	3.592268E-1	3.350475E-1	3.244895E-1	4.084012E-1	3.839562E-1	3.550958E-1	3.161656E-1	3.788297E-1	3.920788E-1	3.737011E-1	3.328124E-1	3.612514E-1	3.435965E-1	3.563588E-1	4.159140E-1	3.548340E-1	3.270433E-1	3.068529E-1	3.606196E-1	3.589117E-1	3.548073E-1	4.095773E-1	3.368545E-1	4.203359E-1	3.858199E-1	3.654230E-1	3.446055E-1	3.876712E-1	3.440060E-1	3.285142E-1	3.884531E-1	3.342126E-1	3.332092E-1	3.400590E-1	3.362827E-1	3.513066E-1	3.604126E-1	3.686711E-1	3.316481E-1	3.831922E-1	4.277425E-1	3.950095E-1	3.919916E-1	4.124505E-1	3.703366E-1	3.696937E-1	3.796066E-1	3.782471E-1	3.305827E-1	3.357476E-1	3.549201E-1	3.868336E-1	3.732724E-1	3.600923E-1	3.198680E-1	3.935668E-1	4.352759E-1	3.870668E-1	3.161131E-1	3.844319E-1	3.881132E-1	3.727325E-1	3.989370E-1	3.689632E-1	3.493743E-1	3.291873E-1	2.858095E-1	3.513513E-1	3.658099E-1	3.527178E-1	3.437481E-1	3.936864E-1	3.959770E-1	4.033001E-1	3.483240E-1	3.945108E-1	3.490203E-1	3.433593E-1
2.862030E+2	7.514687E-1	7.575624E-1	8.525889E-1	8.650519E-1	6.986500E-1	7.672694E-1	8.692368E-1	8.285431E-1	8.469848E-1	7.833227E-1	7.957421E-1	8.519747E-1	8.713512E-1	7.261103E-1	7.109265E-1	6.973127E-1	7.266195E-1	8.143626E-1	7.985695E-1	7.765872E-1	7.448200E-1	7.029834E-1	8.120085E-1	8.133808E-1	7.909676E-1	6.899504E-1	7.770062E-1	8.021350E-1	7.815982E-1	7.341672E-1	7.130112E-1	7.208085E-1	8.171832E-1	7.656573E-1	7.916802E-1	7.255712E-1	7.022462E-1	7.802772E-1	8.369238E-1	8.174408E-1	8.570534E-1	7.582873E-1	7.692182E-1	7.789309E-1	8.095366E-1	7.155682E-1	7.384389E-1	7.208530E-1	7.973102E-1	7.776622E-1	8.102248E-1	7.818720E-1	7.004960E-1	7.755209E-1	8.854834E-1	8.535197E-1	7.752282E-1	6.993868E-1	7.172672E-1	7.601796E-1	8.293379E-1	6.841499E-1	7.566160E-1	7.367505E-1	8.331445E-1	7.830198E-1	7.783537E-1	7.269768E-1	7.339476E-1	8.194531E-1	8.244157E-1	8.097017E-1	7.647571E-1	7.341648E-1	8.416929E-1	7.718666E-1	7.825619E-1	6.793521E-1	7.424817E-1	7.388413E-1	7.615513E-1	7.466158E-1	8.506007E-1	7.851382E-1	6.995349E-1	8.118779E-1	9.217208E-1	9.118923E-1	7.685773E-1	8.238343E-1	8.215658E-1	8.016649E-1	8.339587E-1	7.176882E-1	7.660880E-1	7.268872E-1	7.568400E-1	7.595008E-1	8.112754E-1	8.257398E-1	7.101437E-1	8.256832E-1	8.418661E-1	7.744212E-1	7.448990E-1	8.002758E-1	7.043348E-1	7.612958E-1	8.271919E-1	7.638505E-1	6.952214E-1	7.225145E-1	7.533598E-1	8.264875E-1	7.579312E-1	7.569248E-1	7.241644E-1	8.459817E-1	8.966676E-1	7.963284E-1	7.867064E-1	7.792626E-1	8.043719E-1	7.582255E-1	8.428306E-1	7.133437E-1	7.216743E-1	7.159892E-1	7.748276E-1	7.994026E-1	7.822216E-1	7.608157E-1	6.821123E-1	8.804289E-1	8.373053E-1	9.033211E-1	7.840978E-1	7.780370E-1	8.353044E-1	7.974455E-1	8.767358E-1	7.435058E-1	7.251709E-1	6.762896E-1	8.601931E-1	8.009697E-1	7.880186E-1	7.633212E-1	7.691675E-1	8.406904E-1	8.356638E-1	8.052471E-1	7.318244E-1	8.107050E-1	7.732119E-1	8.385298E-1	8.239780E-1	6.787151E-1	7.505297E-1	6.934807E-1	6.343943E-1	7.793344E-1	8.001945E-1	7.281929E-1	6.935855E-1	8.026894E-1	8.734399E-1	8.820680E-1	7.522411E-1	8.132834E-1	8.732533E-1	8.714594E-1
2.864210E+2	8.551035E-1	8.675614E-1	9.748478E-1	9.432774E-1	8.554543E-1	8.675272E-1	9.657310E-1	9.409341E-1	9.861684E-1	9.209463E-1	8.727398E-1	9.420637E-1	1.025577E+0	1.005639E+0	8.374547E-1	8.079468E-1	8.420981E-1	9.621992E-1	8.926164E-1	8.997110E-1	7.962610E-1	8.354578E-1	1.010677E+0	9.085694E-1	8.777515E-1	9.011593E-1	8.432988E-1	9.276836E-1	9.558515E-1	1.007961E+0	8.171716E-1	8.471290E-1	9.024881E-1	9.480010E-1	8.746589E-1	8.469859E-1	8.029633E-1	8.500221E-1	8.890617E-1	9.671272E-1	9.769259E-1	9.175871E-1	9.029125E-1	8.985414E-1	9.690512E-1	8.526831E-1	8.883686E-1	7.671408E-1	9.505176E-1	8.606485E-1	9.086831E-1	8.117872E-1	8.035101E-1	8.920686E-1	9.932996E-1	9.073975E-1	9.086561E-1	8.146432E-1	8.909616E-1	9.401583E-1	9.467658E-1	8.962672E-1	8.632588E-1	7.852698E-1	9.069762E-1	9.036024E-1	9.010851E-1	8.952976E-1	7.659619E-1	8.994738E-1	9.599355E-1	8.917918E-1	8.920337E-1	8.978278E-1	9.521394E-1	9.519188E-1	9.522067E-1	7.827534E-1	9.000426E-1	8.966165E-1	8.556425E-1	8.987327E-1	9.381466E-1	9.310260E-1	8.327608E-1	9.149983E-1	1.018768E+0	9.697407E-1	8.927913E-1	8.789909E-1	9.440039E-1	8.851253E-1	9.862458E-1	8.152320E-1	8.208740E-1	7.661515E-1	8.120143E-1	8.404517E-1	9.103905E-1	8.905588E-1	8.021455E-1	9.778792E-1	9.657710E-1	9.115974E-1	8.162556E-1	9.116423E-1	8.790265E-1	9.180156E-1	9.417558E-1	8.379963E-1	8.084440E-1	8.113707E-1	9.392505E-1	9.018731E-1	8.594437E-1	9.043162E-1	8.330469E-1	1.004624E+0	1.021919E+0	9.435143E-1	8.472037E-1	8.625993E-1	8.822284E-1	8.858429E-1	9.185604E-1	7.774558E-1	7.700463E-1	8.126799E-1	8.987215E-1	8.845400E-1	9.303231E-1	7.976376E-1	8.453619E-1	9.742810E-1	9.836410E-1	9.545795E-1	8.940336E-1	8.358593E-1	8.817105E-1	8.947446E-1	9.569730E-1	7.852269E-1	7.988680E-1	8.203348E-1	8.512498E-1	9.134857E-1	9.002932E-1	8.343710E-1	8.697439E-1	9.611062E-1	9.619268E-1	9.351834E-1	7.901695E-1	9.365831E-1	9.686711E-1	9.177538E-1	9.191501E-1	9.052623E-1	8.945141E-1	8.242722E-1	7.398979E-1	8.389498E-1	8.784372E-1	9.026548E-1	7.614863E-1	8.691302E-1	9.906033E-1	8.864684E-1	8.879841E-1	9.722349E-1	8.597521E-1	9.132504E-1
2.866160E+2	7.207624E-1	7.390828E-1	8.076970E-1	8.122254E-1	6.841006E-1	7.223540E-1	7.547062E-1	8.013511E-1	7.657225E-1	7.755339E-1	7.187445E-1	7.919163E-1	7.754403E-1	8.308333E-1	6.817815E-1	6.716005E-1	7.233666E-1	8.088533E-1	7.358728E-1	7.664031E-1	6.940939E-1	6.990401E-1	7.284860E-1	7.707965E-1	7.867951E-1	8.042519E-1	7.276922E-1	7.629629E-1	8.097288E-1	7.913137E-1	6.889740E-1	6.660970E-1	7.706531E-1	8.041327E-1	7.235507E-1	7.265057E-1	6.237551E-1	7.074985E-1	7.274337E-1	7.540452E-1	7.616608E-1	7.601295E-1	7.711280E-1	7.166930E-1	7.841788E-1	7.988165E-1	7.278468E-1	6.529622E-1	7.220041E-1	7.830161E-1	7.518805E-1	6.696921E-1	6.776038E-1	7.238128E-1	8.361446E-1	8.072186E-1	7.406050E-1	6.211162E-1	7.507709E-1	7.754781E-1	7.886290E-1	7.725320E-1	6.795531E-1	6.688229E-1	7.127268E-1	7.574720E-1	7.467948E-1	6.681102E-1	6.546419E-1	7.626646E-1	7.671413E-1	7.639932E-1	7.436909E-1	8.025895E-1	7.570174E-1	7.115090E-1	7.868676E-1	7.819698E-1	7.221521E-1	7.172514E-1	7.304681E-1	8.016185E-1	7.820860E-1	7.563582E-1	7.272576E-1	7.399330E-1	8.548868E-1	8.825242E-1	6.958228E-1	7.385929E-1	7.706306E-1	7.538394E-1	7.956754E-1	7.388941E-1	7.096914E-1	6.491602E-1	6.663898E-1	7.133785E-1	7.748076E-1	6.979801E-1	6.493025E-1	7.770161E-1	8.291372E-1	8.001942E-1	6.655145E-1	7.726641E-1	7.043340E-1	7.576719E-1	7.480684E-1	7.092611E-1	6.821880E-1	6.803465E-1	7.196442E-1	7.825927E-1	7.266961E-1	7.332193E-1	6.518354E-1	8.338458E-1	8.751962E-1	7.546905E-1	7.364460E-1	7.389389E-1	7.112828E-1	7.851437E-1	8.302097E-1	6.611040E-1	6.480002E-1	6.448254E-1	7.590955E-1	7.447346E-1	7.719110E-1	7.276766E-1	6.266968E-1	8.082343E-1	8.025065E-1	7.768839E-1	7.868460E-1	7.416647E-1	7.761596E-1	7.625639E-1	8.113241E-1	6.435312E-1	6.376550E-1	7.428320E-1	7.662932E-1	7.092537E-1	7.276908E-1	6.996538E-1	6.562247E-1	7.874837E-1	8.265261E-1	7.723042E-1	6.753030E-1	8.087971E-1	7.465954E-1	6.762645E-1	7.666901E-1	6.375248E-1	7.081813E-1	6.758269E-1	6.495873E-1	6.743410E-1	7.300449E-1	7.130214E-1	6.603719E-1	7.414248E-1	7.800618E-1	7.359732E-1	6.937508E-1	7.628487E-1	8.080062E-1	8.182690E-1
2.868020E+2	8.906080E-1	9.740399E-1	9.758025E-1	1.092617E+0	8.740438E-1	8.964007E-1	1.050501E+0	9.753770E-1	9.965415E-1	9.702829E-1	9.264777E-1	9.657235E-1	1.022507E+0	9.758339E-1	8.118648E-1	9.224773E-1	8.965836E-1	1.015457E+0	8.860164E-1	9.265585E-1	8.212669E-1	8.756736E-1	9.668885E-1	9.352888E-1	9.269847E-1	9.616238E-1	9.120157E-1	9.668552E-1	9.519438E-1	1.013078E+0	9.067651E-1	8.109220E-1	9.145511E-1	9.931682E-1	9.427883E-1	8.852785E-1	8.265803E-1	9.432690E-1	9.412002E-1	1.060462E+0	9.938097E-1	9.857270E-1	1.015598E+0	9.150731E-1	1.030404E+0	1.028158E+0	8.859237E-1	8.697478E-1	9.340712E-1	1.017698E+0	9.715861E-1	8.538548E-1	8.599773E-1	9.429571E-1	1.040811E+0	9.621176E-1	9.491906E-1	8.223847E-1	8.953710E-1	9.815514E-1	1.007829E+0	9.855801E-1	8.531401E-1	8.472250E-1	9.438929E-1	1.004769E+0	9.615738E-1	9.109343E-1	7.725092E-1	9.287276E-1	1.023662E+0	9.430974E-1	9.174895E-1	9.782711E-1	1.011965E+0	9.979540E-1	9.875134E-1	1.046740E+0	8.780173E-1	9.074110E-1	9.253703E-1	1.028505E+0	1.043773E+0	9.399579E-1	8.574039E-1	9.253906E-1	9.858096E-1	1.057849E+0	9.389278E-1	1.018385E+0	1.002776E+0	9.273236E-1	1.004112E+0	9.933559E-1	8.740479E-1	8.919568E-1	9.268857E-1	1.048476E+0	9.552735E-1	8.839831E-1	8.325658E-1	1.005309E+0	1.013296E+0	9.739501E-1	8.617460E-1	1.017486E+0	8.973686E-1	9.415694E-1	9.706038E-1	9.952466E-1	8.165898E-1	8.934490E-1	9.538309E-1	1.004930E+0	9.463151E-1	9.589440E-1	9.147086E-1	1.035831E+0	1.025498E+0	1.008392E+0	9.114248E-1	1.039129E+0	9.076165E-1	9.287143E-1	1.035762E+0	9.531688E-1	8.295813E-1	8.296961E-1	9.872166E-1	9.956683E-1	9.903133E-1	8.740403E-1	8.588408E-1	9.995486E-1	9.943487E-1	1.077600E+0	9.535822E-1	9.132670E-1	9.909009E-1	9.562459E-1	9.665684E-1	8.426922E-1	8.656560E-1	8.633914E-1	9.371021E-1	9.144310E-1	9.572685E-1	9.017299E-1	8.697443E-1	1.011513E+0	9.968154E-1	9.580601E-1	8.567196E-1	1.007152E+0	9.237569E-1	9.759783E-1	9.782860E-1	8.228818E-1	8.598654E-1	8.218652E-1	8.386492E-1	8.869980E-1	9.171103E-1	9.111885E-1	8.212682E-1	1.029625E+0	9.756276E-1	9.841582E-1	1.002759E+0	9.584794E-1	9.430026E-1	9.208492E-1
2.870100E+2	8.877288E-1	9.274004E-1	1.017829E+0	1.041821E+0	9.281981E-1	8.699329E-1	1.027054E+0	1.066015E+0	9.757937E-1	9.962492E-1	9.361022E-1	1.047622E+0	1.040922E+0	1.020945E+0	8.772621E-1	8.687187E-1	9.681483E-1	1.031068E+0	9.833633E-1	9.645126E-1	8.912840E-1	9.269285E-1	9.531034E-1	9.603378E-1	9.870661E-1	9.699063E-1	9.378857E-1	9.678591E-1	1.002735E+0	1.076196E+0	8.630613E-1	9.026454E-1	9.860695E-1	9.981879E-1	9.340536E-1	9.347786E-1	9.196567E-1	9.091543E-1	9.794341E-1	1.044612E+0	9.372503E-1	1.052026E+0	9.907688E-1	9.977305E-1	1.035312E+0	1.062437E+0	9.005910E-1	8.566332E-1	9.496527E-1	1.041791E+0	1.014435E+0	9.164879E-1	8.668451E-1	9.733251E-1	1.003350E+0	9.654847E-1	9.686137E-1	8.232446E-1	9.094782E-1	9.716528E-1	1.023486E+0	1.024654E+0	9.021790E-1	8.524501E-1	9.825672E-1	1.002725E+0	9.580667E-1	8.989769E-1	8.547255E-1	1.027678E+0	1.006722E+0	9.888065E-1	9.455782E-1	1.026353E+0	9.687069E-1	1.067520E+0	1.003014E+0	1.051439E+0	9.305374E-1	9.497617E-1	9.631757E-1	1.036238E+0	1.020935E+0	9.707231E-1	8.720354E-1	9.533689E-1	1.037995E+0	1.097898E+0	9.868390E-1	1.010363E+0	1.059587E+0	9.367023E-1	1.036441E+0	1.026436E+0	9.320554E-1	8.847440E-1	8.509082E-1	1.065420E+0	1.002027E+0	9.375291E-1	8.845026E-1	1.070789E+0	1.034512E+0	9.706258E-1	8.572859E-1	1.048779E+0	9.392949E-1	1.001359E+0	9.804931E-1	1.014802E+0	8.450990E-1	8.625749E-1	9.237603E-1	1.033557E+0	9.541239E-1	9.991411E-1	8.416023E-1	1.029764E+0	1.021919E+0	9.628803E-1	1.002637E+0	1.048986E+0	9.008458E-1	9.935189E-1	9.978961E-1	1.060022E+0	8.995349E-1	8.900315E-1	9.469028E-1	1.044959E+0	9.790659E-1	9.421595E-1	8.491058E-1	1.020304E+0	1.062163E+0	1.018653E+0	9.856469E-1	1.057822E+0	9.554131E-1	9.250365E-1	9.796500E-1	1.037129E+0	8.694947E-1	8.430374E-1	9.558821E-1	1.028838E+0	9.338079E-1	8.666673E-1	8.895301E-1	1.075921E+0	1.076561E+0	1.017538E+0	8.485146E-1	9.899867E-1	9.495410E-1	9.778869E-1	1.000462E+0	9.901144E-1	8.783446E-1	8.194585E-1	8.563741E-1	9.893225E-1	9.665743E-1	9.557528E-1	8.057688E-1	1.034803E+0	1.068125E+0	9.920800E-1	9.530971E-1	1.034898E+0	9.497513E-1	9.778394E-1
2.872160E+2	6.228856E-1	6.378834E-1	6.854377E-1	6.699970E-1	6.501529E-1	6.156802E-1	6.771501E-1	7.379052E-1	7.302786E-1	6.907097E-1	6.778396E-1	6.936372E-1	7.700699E-1	7.277220E-1	6.057221E-1	6.100507E-1	5.843048E-1	7.225392E-1	6.451254E-1	5.895856E-1	6.305074E-1	6.067815E-1	6.855089E-1	7.223677E-1	6.424325E-1	6.535062E-1	7.414361E-1	7.207782E-1	6.776716E-1	7.759616E-1	6.234182E-1	5.985117E-1	6.560521E-1	6.811764E-1	7.025876E-1	6.611277E-1	6.056954E-1	6.832399E-1	6.735582E-1	6.853649E-1	6.991910E-1	6.855428E-1	6.890022E-1	6.991897E-1	6.884687E-1	6.870030E-1	5.860663E-1	5.542126E-1	6.475643E-1	6.991373E-1	6.853296E-1	6.519301E-1	6.249522E-1	6.376319E-1	7.429477E-1	6.725246E-1	6.730467E-1	6.107947E-1	6.493754E-1	7.196854E-1	7.220861E-1	7.101984E-1	5.954851E-1	6.105998E-1	7.100896E-1	6.777655E-1	6.977022E-1	6.377570E-1	5.869765E-1	7.136202E-1	7.058349E-1	6.949624E-1	6.348477E-1	6.888586E-1	6.741826E-1	7.381074E-1	7.016150E-1	7.052029E-1	7.052094E-1	6.367031E-1	6.464571E-1	7.130992E-1	7.154745E-1	7.176534E-1	6.386975E-1	7.015620E-1	7.871362E-1	7.160974E-1	6.851760E-1	6.924616E-1	7.343885E-1	6.319303E-1	7.293158E-1	7.405901E-1	5.912584E-1	6.090942E-1	6.410642E-1	6.870219E-1	7.149645E-1	6.810706E-1	5.966243E-1	6.787962E-1	7.179632E-1	6.721627E-1	5.941574E-1	6.962721E-1	6.737637E-1	6.716115E-1	6.977915E-1	7.385930E-1	6.015480E-1	5.990207E-1	6.522136E-1	7.320181E-1	6.456810E-1	6.538554E-1	6.222825E-1	7.133461E-1	7.159476E-1	7.033694E-1	6.610564E-1	7.210173E-1	6.486600E-1	6.645062E-1	7.391538E-1	7.101774E-1	5.973958E-1	5.844912E-1	7.128810E-1	7.017176E-1	6.613032E-1	6.577167E-1	6.004868E-1	7.396501E-1	7.293383E-1	7.563802E-1	6.540059E-1	7.239454E-1	6.478610E-1	6.634281E-1	7.502728E-1	7.868003E-1	5.700988E-1	6.277522E-1	6.571898E-1	7.319464E-1	6.790947E-1	6.230685E-1	5.935698E-1	6.894711E-1	7.733631E-1	6.679887E-1	6.151336E-1	7.458578E-1	7.183163E-1	7.001274E-1	6.844534E-1	7.380282E-1	6.311842E-1	6.084249E-1	5.981011E-1	7.250588E-1	6.706884E-1	6.750952E-1	5.754969E-1	7.776658E-1	7.201584E-1	6.541255E-1	6.970618E-1	7.643763E-1	6.842589E-1	6.359036E-1
2.874030E+2	4.559196E-1	4.583652E-1	4.934536E-1	4.922115E-1	4.553598E-1	4.905591E-1	4.877690E-1	4.723367E-1	4.579644E-1	4.734563E-1	4.492528E-1	4.552208E-1	5.168642E-1	4.739704E-1	4.002905E-1	4.028049E-1	4.119001E-1	4.801234E-1	4.586826E-1	4.451692E-1	4.218860E-1	4.411879E-1	4.779203E-1	4.927459E-1	4.897258E-1	4.621758E-1	4.503988E-1	4.807284E-1	4.940417E-1	5.217855E-1	4.427756E-1	4.046069E-1	4.173703E-1	4.846127E-1	4.291952E-1	4.453832E-1	4.091223E-1	4.300337E-1	4.867305E-1	5.057420E-1	4.628213E-1	4.884894E-1	4.674522E-1	4.589955E-1	4.610589E-1	4.633754E-1	4.084337E-1	4.030023E-1	4.337652E-1	4.885484E-1	4.665349E-1	4.257002E-1	4.303702E-1	4.784032E-1	4.980773E-1	4.570135E-1	4.264604E-1	3.759811E-1	4.254228E-1	4.551180E-1	4.520015E-1	4.552855E-1	4.475874E-1	3.956212E-1	4.631020E-1	4.846290E-1	4.399680E-1	4.354041E-1	3.737949E-1	4.632339E-1	4.977143E-1	4.850745E-1	4.470045E-1	4.928339E-1	4.670963E-1	4.588237E-1	4.897738E-1	5.109337E-1	4.315965E-1	4.648121E-1	4.549148E-1	5.266060E-1	4.813842E-1	4.377866E-1	4.199903E-1	4.409618E-1	5.188829E-1	5.051735E-1	4.811097E-1	4.989136E-1	4.611045E-1	4.856407E-1	4.604745E-1	5.539848E-1	4.405990E-1	4.376147E-1	4.628780E-1	4.677018E-1	5.223434E-1	4.020665E-1	4.192973E-1	5.168675E-1	4.956151E-1	4.776221E-1	4.023862E-1	4.588127E-1	4.492852E-1	5.067372E-1	4.851469E-1	4.949753E-1	4.288621E-1	4.032380E-1	4.663218E-1	4.600615E-1	4.680334E-1	4.724502E-1	3.990736E-1	4.974897E-1	5.307540E-1	4.748434E-1	4.944540E-1	4.889295E-1	4.658675E-1	4.312064E-1	4.470530E-1	5.225913E-1	4.158138E-1	3.810552E-1	4.739433E-1	5.278569E-1	4.672705E-1	4.413933E-1	4.170177E-1	5.194583E-1	4.910964E-1	4.667708E-1	4.799403E-1	5.001161E-1	4.567783E-1	4.963668E-1	5.034523E-1	4.506688E-1	4.050474E-1	4.539583E-1	4.640242E-1	4.681482E-1	4.754927E-1	4.588233E-1	4.575428E-1	5.242501E-1	4.601968E-1	4.547809E-1	3.863099E-1	5.284305E-1	4.546525E-1	4.710465E-1	4.626936E-1	5.081867E-1	4.463907E-1	4.246740E-1	3.330754E-1	4.688020E-1	4.917184E-1	4.143489E-1	3.592473E-1	4.937797E-1	5.422114E-1	5.221124E-1	4.123328E-1	5.381774E-1	4.907650E-1	5.105276E-1
2.876200E+2	3.964252E-1	4.046861E-1	3.988935E-1	4.332882E-1	3.785743E-1	3.646357E-1	3.858646E-1	4.016384E-1	4.432679E-1	4.137332E-1	3.979217E-1	4.288317E-1	4.531792E-1	4.651097E-1	3.839407E-1	3.887810E-1	3.980754E-1	4.590044E-1	3.976353E-1	3.877724E-1	3.718743E-1	3.686422E-1	4.260235E-1	4.259466E-1	4.154588E-1	3.801767E-1	4.059350E-1	3.863148E-1	4.143388E-1	4.629328E-1	3.480834E-1	3.627674E-1	4.053062E-1	4.143520E-1	3.855226E-1	3.940153E-1	3.438300E-1	4.050166E-1	4.033095E-1	4.669991E-1	3.876889E-1	4.341618E-1	4.292544E-1	4.171799E-1	4.250648E-1	4.592941E-1	3.929521E-1	3.760009E-1	3.956790E-1	4.037776E-1	4.127483E-1	4.032638E-1	3.525374E-1	4.119216E-1	4.578747E-1	3.997683E-1	3.833921E-1	3.553385E-1	3.610580E-1	3.705285E-1	4.112924E-1	4.413304E-1	3.938766E-1	3.889026E-1	3.892693E-1	4.774756E-1	4.198048E-1	4.225272E-1	3.606986E-1	4.425839E-1	4.138211E-1	4.291048E-1	4.426151E-1	4.650950E-1	4.137135E-1	4.383631E-1	4.329389E-1	4.419996E-1	3.528166E-1	3.909071E-1	4.162697E-1	4.870733E-1	4.242892E-1	4.169457E-1	3.676241E-1	4.089867E-1	4.355688E-1	4.722438E-1	3.790761E-1	4.116663E-1	4.375971E-1	4.162463E-1	4.468627E-1	4.377806E-1	3.962875E-1	3.927417E-1	4.113213E-1	4.592304E-1	4.400595E-1	3.964305E-1	3.376822E-1	4.044904E-1	4.557286E-1	4.476932E-1	3.551123E-1	4.468479E-1	3.986249E-1	4.424191E-1	4.291011E-1	4.444593E-1	3.661416E-1	3.655873E-1	4.143823E-1	4.552896E-1	3.918989E-1	4.260683E-1	3.819630E-1	4.472095E-1	4.368147E-1	4.332053E-1	4.106876E-1	4.324756E-1	3.913965E-1	4.391827E-1	4.091878E-1	4.909307E-1	3.495816E-1	3.702262E-1	4.228119E-1	4.740852E-1	4.082174E-1	3.880029E-1	3.660956E-1	4.192894E-1	4.598658E-1	4.513932E-1	4.258883E-1	4.665425E-1	4.121927E-1	4.293586E-1	4.519945E-1	4.522429E-1	3.190674E-1	3.733242E-1	4.050009E-1	4.255999E-1	3.992458E-1	4.154561E-1	4.031322E-1	4.635753E-1	4.552120E-1	4.218390E-1	3.708119E-1	4.292521E-1	4.030844E-1	4.204581E-1	4.035574E-1	4.579342E-1	3.616941E-1	3.693081E-1	3.296994E-1	4.652424E-1	3.703063E-1	4.352084E-1	3.621994E-1	4.678937E-1	4.268093E-1	4.173818E-1	4.167477E-1	5.121947E-1	4.030185E-1	4.573376E-1
2.878020E+2	3.733960E-1	4.029259E-1	4.265927E-1	4.343037E-1	3.721083E-1	4.071451E-1	4.273476E-1	4.351746E-1	3.844822E-1	4.016154E-1	3.931096E-1	4.588610E-1	4.155825E-1	4.328875E-1	3.583512E-1	4.074797E-1	4.151526E-1	4.231936E-1	4.248588E-1	4.081389E-1	3.432963E-1	3.986064E-1	4.617022E-1	4.184327E-1	4.062797E-1	4.141359E-1	3.768315E-1	4.696800E-1	4.620046E-1	4.475796E-1	3.990711E-1	3.780547E-1	4.216779E-1	4.210435E-1	4.064855E-1	4.033545E-1	3.486921E-1	3.860639E-1	4.241647E-1	4.520307E-1	4.172350E-1	4.378450E-1	4.206595E-1	3.880064E-1	4.438804E-1	4.478677E-1	3.848036E-1	3.760004E-1	4.069319E-1	4.207316E-1	4.173064E-1	4.294392E-1	3.929798E-1	4.234124E-1	4.514789E-1	4.393346E-1	4.078816E-1	3.992045E-1	3.972078E-1	4.290214E-1	3.940700E-1	4.478428E-1	3.744160E-1	3.545658E-1	3.998168E-1	4.314912E-1	4.092851E-1	3.792969E-1	3.388712E-1	4.184924E-1	4.460874E-1	4.169776E-1	4.320825E-1	4.077677E-1	4.312009E-1	4.670080E-1	4.243272E-1	4.639338E-1	4.061837E-1	3.917380E-1	3.851861E-1	4.707445E-1	4.433206E-1	4.149605E-1	3.414408E-1	4.289711E-1	4.758521E-1	4.677939E-1	3.959336E-1	4.237003E-1	4.356384E-1	4.246869E-1	4.604751E-1	4.360836E-1	4.140121E-1	3.662978E-1	3.597650E-1	4.564067E-1	4.783967E-1	4.189757E-1	3.451017E-1	4.115699E-1	4.489390E-1	3.978106E-1	3.738429E-1	4.127928E-1	3.933832E-1	4.143359E-1	4.389916E-1	4.151277E-1	3.612548E-1	3.972141E-1	4.107376E-1	4.362054E-1	3.958028E-1	4.301917E-1	3.640750E-1	4.290052E-1	4.394989E-1	4.225540E-1	4.451254E-1	4.647349E-1	4.150917E-1	4.022932E-1	4.470535E-1	4.743097E-1	3.555345E-1	3.942053E-1	3.874142E-1	4.552653E-1	3.894704E-1	4.266650E-1	3.608537E-1	4.824591E-1	4.268508E-1	4.377248E-1	4.048169E-1	4.795994E-1	3.985440E-1	3.963131E-1	4.790319E-1	4.380738E-1	3.743397E-1	3.960268E-1	4.103658E-1	4.653114E-1	4.444908E-1	3.813150E-1	3.849954E-1	4.589084E-1	4.842860E-1	3.962172E-1	3.799288E-1	4.235307E-1	3.922721E-1	4.185491E-1	4.553018E-1	4.645247E-1	4.163623E-1	3.620861E-1	3.423600E-1	4.857078E-1	4.125765E-1	4.456385E-1	3.555571E-1	4.808368E-1	4.611662E-1	4.165017E-1	4.619955E-1	4.724571E-1	4.772655E-1	3.661552E-1
2.880020E+2	4.261722E-1	4.504449E-1	4.848566E-1	4.952591E-1	3.955475E-1	4.360185E-1	4.174275E-1	4.804939E-1	4.674739E-1	4.734563E-1	4.997829E-1	4.597706E-1	4.923116E-1	4.659152E-1	4.749282E-1	3.661867E-1	4.127130E-1	4.314571E-1	4.578577E-1	3.924007E-1	3.904500E-1	4.198978E-1	4.544040E-1	4.284524E-1	4.471679E-1	4.273887E-1	4.398898E-1	4.204645E-1	4.463764E-1	4.706090E-1	4.369481E-1	4.062151E-1	4.475285E-1	4.344260E-1	4.632604E-1	4.267037E-1	3.813383E-1	4.125974E-1	4.484954E-1	4.573138E-1	4.678861E-1	4.488948E-1	4.636326E-1	3.870346E-1	4.659669E-1	4.845955E-1	4.345074E-1	4.022309E-1	3.948137E-1	4.510708E-1	4.473902E-1	3.770890E-1	3.899275E-1	4.324411E-1	4.533071E-1	4.536459E-1	4.416605E-1	3.949032E-1	3.883910E-1	4.416197E-1	4.355615E-1	4.645892E-1	3.946544E-1	3.926347E-1	4.367331E-1	4.897385E-1	4.268184E-1	3.894151E-1	3.672469E-1	4.615134E-1	4.614140E-1	4.617540E-1	4.075049E-1	4.253352E-1	4.661754E-1	4.700773E-1	4.355218E-1	4.835170E-1	4.485394E-1	4.017017E-1	4.187901E-1	4.741817E-1	4.699656E-1	4.536653E-1	4.022773E-1	4.345665E-1	4.529639E-1	4.962734E-1	4.527176E-1	4.437577E-1	4.091912E-1	3.946781E-1	4.323998E-1	4.683159E-1	3.954819E-1	3.679008E-1	3.995632E-1	4.469936E-1	4.699811E-1	4.048850E-1	3.651341E-1	4.496185E-1	4.557279E-1	4.535127E-1	3.925748E-1	4.348832E-1	4.082326E-1	4.034648E-1	4.051990E-1	4.566817E-1	3.832475E-1	3.934491E-1	4.280504E-1	4.705576E-1	4.328943E-1	4.745118E-1	3.874073E-1	4.784180E-1	4.591810E-1	4.670976E-1	4.283716E-1	4.754889E-1	3.964741E-1	4.680956E-1	4.209087E-1	4.640198E-1	4.024187E-1	3.624908E-1	4.582104E-1	4.400301E-1	4.297769E-1	3.861605E-1	3.436304E-1	4.508740E-1	4.661117E-1	4.437049E-1	4.313850E-1	4.814638E-1	4.358510E-1	4.009027E-1	4.886255E-1	5.183679E-1	3.643603E-1	4.062044E-1	4.497145E-1	4.936769E-1	4.294090E-1	4.089963E-1	4.278649E-1	4.178373E-1	4.701640E-1	4.319046E-1	4.036311E-1	4.845626E-1	4.180556E-1	4.004137E-1	4.405175E-1	4.711154E-1	4.025024E-1	4.150451E-1	3.381394E-1	4.599042E-1	4.125756E-1	4.086606E-1	3.673660E-1	4.722080E-1	4.770225E-1	4.446650E-1	4.388194E-1	4.770424E-1	4.300174E-1	3.737536E-1
2.882020E+2	4.444044E-1	4.530857E-1	4.714853E-1	5.135461E-1	3.656411E-1	4.167695E-1	4.553042E-1	4.641795E-1	4.873566E-1	4.223885E-1	4.925645E-1	4.706908E-1	4.669906E-1	4.715535E-1	4.692414E-1	4.035843E-1	4.094606E-1	4.599229E-1	4.529082E-1	4.525745E-1	3.604434E-1	4.309368E-1	4.941381E-1	4.351325E-1	4.638575E-1	4.348430E-1	4.811193E-1	4.636543E-1	4.807577E-1	4.996093E-1	4.937630E-1	3.981693E-1	4.638995E-1	4.310804E-1	5.034391E-1	3.669303E-1	3.730032E-1	4.080488E-1	4.902067E-1	4.441056E-1	4.138587E-1	4.488948E-1	4.579024E-1	4.376012E-1	4.536964E-1	4.650073E-1	4.418415E-1	4.053174E-1	4.052006E-1	4.492858E-1	4.291579E-1	4.088731E-1	3.777188E-1	4.111007E-1	4.916814E-1	4.502784E-1	4.045035E-1	3.622193E-1	4.271853E-1	4.416199E-1	4.637444E-1	4.804047E-1	4.577067E-1	3.762129E-1	4.367333E-1	4.202503E-1	4.583773E-1	3.857357E-1	4.167222E-1	4.589321E-1	4.598013E-1	4.449634E-1	4.636826E-1	4.724921E-1	4.698570E-1	4.608697E-1	4.648012E-1	4.279002E-1	4.027957E-1	4.174792E-1	4.280315E-1	4.698846E-1	4.994648E-1	4.665669E-1	4.192204E-1	4.001935E-1	5.088121E-1	5.140729E-1	4.331978E-1	4.658193E-1	4.983267E-1	4.275002E-1	4.604745E-1	5.022444E-1	3.842020E-1	3.590862E-1	3.995628E-1	4.517001E-1	4.634353E-1	4.612494E-1	3.896188E-1	4.965154E-1	4.489391E-1	4.219207E-1	3.907907E-1	4.358031E-1	3.986242E-1	4.786547E-1	4.670141E-1	4.664585E-1	3.718435E-1	3.874246E-1	4.116488E-1	4.581528E-1	4.319185E-1	3.838093E-1	3.998514E-1	4.376739E-1	4.421829E-1	4.438575E-1	4.246489E-1	4.898259E-1	4.472498E-1	3.943172E-1	4.894262E-1	4.972631E-1	3.875346E-1	3.996199E-1	4.277292E-1	5.108288E-1	4.138418E-1	4.064127E-1	4.185156E-1	4.842636E-1	4.545122E-1	4.590824E-1	4.707792E-1	4.926552E-1	4.076429E-1	4.091643E-1	5.025799E-1	5.089215E-1	3.681989E-1	3.835010E-1	4.246744E-1	4.407284E-1	4.369503E-1	4.237597E-1	3.899424E-1	4.607750E-1	4.485667E-1	4.566115E-1	3.881328E-1	4.902848E-1	4.363539E-1	4.653192E-1	4.534540E-1	5.271343E-1	3.909531E-1	3.933804E-1	3.972221E-1	4.892674E-1	4.350595E-1	4.361575E-1	3.599855E-1	4.808372E-1	5.060932E-1	4.543456E-1	4.321974E-1	5.045524E-1	4.255177E-1	4.953304E-1
2.884210E+2	5.058178E-1	5.208450E-1	5.087354E-1	5.389434E-1	4.561685E-1	4.865483E-1	5.490928E-1	5.702257E-1	5.150207E-1	5.288514E-1	5.543223E-1	5.089103E-1	5.337449E-1	5.480815E-1	5.317950E-1	4.253990E-1	5.216851E-1	5.168531E-1	5.106553E-1	4.896041E-1	4.361757E-1	4.593243E-1	5.225190E-1	5.386699E-1	5.164287E-1	5.077309E-1	5.514543E-1	5.178906E-1	5.198282E-1	5.405500E-1	5.425658E-1	4.577092E-1	5.250780E-1	5.439995E-1	5.427443E-1	4.687317E-1	4.438527E-1	4.884073E-1	5.154061E-1	5.858674E-1	5.100954E-1	5.124304E-1	5.514884E-1	5.270662E-1	5.674021E-1	5.351971E-1	5.461398E-1	4.431191E-1	4.960877E-1	5.456570E-1	5.467595E-1	4.780507E-1	4.418156E-1	5.178006E-1	5.592950E-1	4.881618E-1	5.049963E-1	4.619934E-1	5.294633E-1	4.830148E-1	5.381149E-1	5.362255E-1	5.768032E-1	4.807168E-1	5.492396E-1	5.152860E-1	5.951344E-1	4.501206E-1	4.159944E-1	5.553012E-1	5.630541E-1	5.363805E-1	4.803597E-1	4.900603E-1	5.388863E-1	5.038365E-1	5.242195E-1	4.976172E-1	5.806858E-1	5.254307E-1	5.112014E-1	5.231684E-1	5.670273E-1	5.102339E-1	4.377026E-1	5.456817E-1	5.591665E-1	5.318723E-1	4.899821E-1	5.259903E-1	5.727702E-1	4.453175E-1	5.200281E-1	5.887610E-1	5.469474E-1	4.800842E-1	4.655915E-1	5.430047E-1	5.560062E-1	5.100981E-1	4.356195E-1	5.071346E-1	5.388963E-1	5.050578E-1	4.657157E-1	5.545330E-1	4.981986E-1	5.366316E-1	5.139943E-1	5.463063E-1	4.866953E-1	4.423941E-1	4.918372E-1	5.402174E-1	5.490488E-1	5.229554E-1	4.698467E-1	5.347661E-1	5.575935E-1	5.716766E-1	4.711856E-1	5.095400E-1	4.904085E-1	4.780655E-1	5.480263E-1	5.938263E-1	4.567440E-1	4.359749E-1	5.113081E-1	5.439880E-1	5.132007E-1	4.736116E-1	4.342414E-1	5.736040E-1	5.276795E-1	5.462222E-1	5.165858E-1	5.905804E-1	4.731568E-1	4.780082E-1	5.313616E-1	5.569405E-1	4.518758E-1	4.586557E-1	5.275178E-1	5.485173E-1	4.947635E-1	4.846592E-1	4.674359E-1	5.307849E-1	5.440953E-1	5.554367E-1	4.820331E-1	5.255694E-1	5.727604E-1	5.101809E-1	5.172093E-1	5.897434E-1	4.317612E-1	4.720166E-1	4.081941E-1	6.004894E-1	4.944172E-1	4.939952E-1	4.507656E-1	5.369243E-1	5.607102E-1	5.397138E-1	5.149681E-1	5.855576E-1	4.727661E-1	5.067281E-1
2.886030E+2	6.958139E-1	6.801224E-1	7.255542E-1	7.583809E-1	6.533864E-1	6.958862E-1	7.186341E-1	7.424373E-1	7.181764E-1	7.201383E-1	7.572430E-1	7.109274E-1	7.907865E-1	7.236940E-1	7.272752E-1	6.435531E-1	6.989695E-1	7.133556E-1	7.424717E-1	7.034519E-1	6.476541E-1	6.446313E-1	7.430821E-1	6.764432E-1	6.507776E-1	7.446158E-1	7.721564E-1	7.187700E-1	7.472159E-1	8.160497E-1	7.632706E-1	6.210396E-1	7.137836E-1	7.171435E-1	7.462601E-1	6.368453E-1	5.806895E-1	6.604971E-1	7.404686E-1	7.434780E-1	7.143867E-1	6.744934E-1	7.558485E-1	6.962715E-1	7.195543E-1	7.367886E-1	7.245878E-1	6.113017E-1	6.787254E-1	7.633851E-1	7.117675E-1	6.491248E-1	6.165584E-1	7.073973E-1	7.630484E-1	6.767339E-1	6.384240E-1	6.073538E-1	7.719319E-1	6.926892E-1	7.487036E-1	6.627512E-1	7.737412E-1	6.471765E-1	7.030583E-1	7.043351E-1	7.494241E-1	6.515539E-1	6.138968E-1	6.912492E-1	7.526211E-1	7.126861E-1	6.532807E-1	7.045775E-1	7.551768E-1	7.708442E-1	7.214215E-1	7.647366E-1	7.526471E-1	6.325510E-1	7.111451E-1	7.595080E-1	7.221355E-1	7.116985E-1	6.348461E-1	7.031613E-1	7.926301E-1	7.552569E-1	6.807398E-1	7.365880E-1	7.637745E-1	6.619391E-1	7.054941E-1	7.668850E-1	7.395014E-1	6.139028E-1	6.537273E-1	7.152605E-1	7.392757E-1	7.092531E-1	6.159146E-1	7.354275E-1	7.629417E-1	7.453241E-1	6.039691E-1	7.579379E-1	7.418931E-1	6.833879E-1	6.944952E-1	7.271862E-1	7.392068E-1	6.585084E-1	6.513019E-1	7.606445E-1	7.755004E-1	6.950826E-1	6.518357E-1	7.506230E-1	7.606798E-1	7.198313E-1	6.657102E-1	7.210168E-1	7.832153E-1	7.133597E-1	7.607903E-1	7.568762E-1	7.767442E-1	5.891322E-1	6.774828E-1	7.617630E-1	7.512894E-1	7.120280E-1	6.042312E-1	8.100397E-1	7.516455E-1	7.691952E-1	7.291287E-1	7.948242E-1	7.079166E-1	7.185039E-1	7.258528E-1	7.529519E-1	6.568471E-1	6.653293E-1	6.992218E-1	7.574759E-1	6.899869E-1	6.378323E-1	6.512780E-1	6.932053E-1	7.874843E-1	7.210613E-1	6.269851E-1	7.182017E-1	6.858770E-1	6.924908E-1	7.130984E-1	7.907528E-1	6.358033E-1	6.389166E-1	5.989452E-1	8.113669E-1	7.003673E-1	6.921623E-1	6.168273E-1	7.466023E-1	7.360153E-1	7.148514E-1	7.114083E-1	7.750744E-1	7.247591E-1	6.548998E-1
2.888080E+2	7.831360E-1	7.910019E-1	8.086522E-1	7.847947E-1	7.536117E-1	7.504257E-1	8.250479E-1	8.593602E-1	9.023126E-1	7.668780E-1	8.759479E-1	7.746264E-1	8.368227E-1	8.429165E-1	8.104433E-1	7.495125E-1	7.794795E-1	8.060990E-1	8.637425E-1	7.895472E-1	6.433671E-1	7.534497E-1	8.541743E-1	7.616117E-1	7.425685E-1	8.092218E-1	8.982722E-1	8.523540E-1	7.542487E-1	8.629616E-1	8.579622E-1	7.175900E-1	7.827164E-1	8.317363E-1	8.842669E-1	7.974864E-1	7.001624E-1	8.015039E-1	8.351862E-1	8.174416E-1	7.920508E-1	8.052480E-1	8.484794E-1	7.341973E-1	8.079008E-1	8.510506E-1	8.484416E-1	6.714780E-1	7.514337E-1	7.812317E-1	8.375752E-1	7.622401E-1	7.081273E-1	7.722379E-1	8.580730E-1	7.954330E-1	7.608713E-1	6.761637E-1	8.477588E-1	7.970753E-1	8.457776E-1	8.385870E-1	8.632586E-1	7.024134E-1	7.935909E-1	8.218518E-1	7.459177E-1	7.085810E-1	6.706475E-1	8.323592E-1	8.639423E-1	8.143655E-1	8.156677E-1	7.942676E-1	9.088814E-1	8.322257E-1	7.946184E-1	8.391540E-1	8.593817E-1	7.429939E-1	7.245867E-1	8.566212E-1	8.610673E-1	8.417077E-1	6.864430E-1	7.751056E-1	8.832682E-1	8.380243E-1	7.836602E-1	8.458971E-1	8.852337E-1	7.669673E-1	8.160936E-1	8.423754E-1	8.281246E-1	7.429137E-1	6.998567E-1	8.282159E-1	8.440020E-1	7.740723E-1	6.997556E-1	8.301071E-1	8.401692E-1	7.852291E-1	7.404396E-1	8.011967E-1	8.388472E-1	8.364854E-1	7.966962E-1	8.054049E-1	9.037466E-1	7.029366E-1	7.624720E-1	8.722911E-1	8.379704E-1	7.857849E-1	7.233868E-1	8.555171E-1	8.689336E-1	8.457130E-1	7.634379E-1	9.011307E-1	8.653033E-1	7.572281E-1	8.437322E-1	8.320695E-1	9.240925E-1	6.711253E-1	7.620445E-1	8.469006E-1	8.965786E-1	7.433259E-1	6.618929E-1	8.650872E-1	8.810274E-1	8.708578E-1	8.628845E-1	8.414546E-1	8.489532E-1	7.772507E-1	8.749913E-1	8.458412E-1	8.710298E-1	7.123009E-1	7.904388E-1	8.255528E-1	8.592378E-1	6.895040E-1	7.551525E-1	8.696277E-1	8.688908E-1	8.052465E-1	6.971817E-1	8.822262E-1	8.289377E-1	7.927135E-1	8.193575E-1	8.929047E-1	8.390757E-1	6.557673E-1	6.740635E-1	8.371708E-1	8.379675E-1	8.362827E-1	6.345412E-1	9.079596E-1	8.399644E-1	7.465347E-1	7.103050E-1	9.034578E-1	8.777526E-1	7.004911E-1
2.890020E+2	6.372794E-1	5.894839E-1	6.969004E-1	7.106329E-1	6.024649E-1	6.012429E-1	6.762484E-1	7.116198E-1	6.671712E-1	6.569531E-1	6.962869E-1	6.754379E-1	7.516545E-1	7.244990E-1	7.194561E-1	5.929095E-1	6.168341E-1	6.656078E-1	6.830741E-1	6.192087E-1	5.669210E-1	5.728750E-1	7.284859E-1	6.113146E-1	6.240747E-1	6.576472E-1	6.767608E-1	6.394229E-1	6.448525E-1	7.213732E-1	6.889735E-1	5.920754E-1	6.336479E-1	6.895415E-1	6.903593E-1	6.377787E-1	5.737441E-1	6.559484E-1	6.648685E-1	6.325351E-1	6.451636E-1	6.616022E-1	6.708577E-1	6.564021E-1	6.672010E-1	6.984287E-1	7.254024E-1	5.889294E-1	6.492944E-1	6.696905E-1	6.926225E-1	6.051881E-1	5.875621E-1	6.236790E-1	6.926939E-1	7.120907E-1	6.181557E-1	5.746694E-1	6.969876E-1	6.242970E-1	6.719842E-1	6.832194E-1	6.818888E-1	5.829809E-1	6.169199E-1	7.053562E-1	6.678962E-1	5.687728E-1	5.651491E-1	7.007140E-1	6.622749E-1	6.333958E-1	6.409911E-1	6.527970E-1	7.330883E-1	6.624043E-1	6.620028E-1	6.597691E-1	7.331634E-1	6.383642E-1	6.271354E-1	6.744248E-1	6.460100E-1	6.789481E-1	5.709288E-1	6.296170E-1	7.193869E-1	6.991885E-1	6.062110E-1	7.085076E-1	7.245939E-1	6.600638E-1	6.646575E-1	7.253225E-1	7.193593E-1	6.515641E-1	6.247837E-1	6.663139E-1	7.018744E-1	6.679196E-1	5.513648E-1	6.796814E-1	6.653463E-1	6.563669E-1	5.709660E-1	6.576168E-1	6.781312E-1	6.480585E-1	6.582301E-1	6.139323E-1	7.188433E-1	5.817016E-1	6.276107E-1	7.119795E-1	7.452418E-1	6.466395E-1	5.950613E-1	6.994762E-1	6.944751E-1	6.704459E-1	6.424414E-1	6.520178E-1	6.774322E-1	6.345954E-1	7.634951E-1	6.967222E-1	7.067905E-1	5.404003E-1	6.479843E-1	6.828979E-1	6.997346E-1	5.693465E-1	5.907516E-1	7.333334E-1	6.918611E-1	6.769301E-1	6.485091E-1	6.894375E-1	6.742492E-1	6.285475E-1	6.499745E-1	6.813171E-1	7.474334E-1	6.019179E-1	6.482471E-1	7.414023E-1	6.966900E-1	6.147635E-1	5.770818E-1	6.642685E-1	7.060777E-1	6.579223E-1	5.750211E-1	7.267859E-1	7.149888E-1	6.256764E-1	6.807579E-1	7.009578E-1	7.274302E-1	5.947845E-1	5.128537E-1	6.894671E-1	6.724874E-1	6.068268E-1	5.703302E-1	7.138126E-1	6.875640E-1	6.937298E-1	6.176028E-1	7.475639E-1	7.810070E-1	7.460824E-1
2.892050E+2	4.789490E-1	5.041249E-1	5.058703E-1	5.745001E-1	4.747582E-1	4.737156E-1	5.761476E-1	5.548175E-1	5.426844E-1	5.323139E-1	5.631453E-1	5.034500E-1	5.736435E-1	5.504983E-1	5.744455E-1	4.838330E-1	5.054208E-1	5.140985E-1	5.882028E-1	5.173773E-1	4.733273E-1	4.955976E-1	5.217084E-1	5.336608E-1	5.147598E-1	5.334067E-1	5.773233E-1	5.108600E-1	5.284238E-1	5.994029E-1	5.702448E-1	4.923070E-1	5.000902E-1	5.180703E-1	5.803036E-1	5.126283E-1	4.813614E-1	4.724869E-1	5.536410E-1	5.418423E-1	5.202257E-1	5.271637E-1	5.448031E-1	5.367903E-1	5.395892E-1	5.996735E-1	5.591764E-1	4.369473E-1	5.324417E-1	5.715350E-1	5.558767E-1	5.126401E-1	4.929414E-1	5.219041E-1	5.556401E-1	5.470900E-1	4.881069E-1	4.671541E-1	5.788390E-1	5.505060E-1	5.467261E-1	5.864634E-1	5.581218E-1	4.687738E-1	5.246295E-1	5.633141E-1	5.644513E-1	4.813932E-1	4.429148E-1	5.707888E-1	5.082009E-1	5.298509E-1	4.882605E-1	5.409156E-1	5.803039E-1	5.335043E-1	5.827777E-1	5.297340E-1	5.476493E-1	5.104840E-1	5.078411E-1	5.627017E-1	5.422855E-1	5.519163E-1	4.769769E-1	5.224992E-1	5.381089E-1	5.817113E-1	5.263590E-1	5.691122E-1	5.619944E-1	5.390920E-1	5.038637E-1	5.717969E-1	5.558090E-1	5.001171E-1	5.008664E-1	5.637135E-1	5.896678E-1	4.931892E-1	4.252325E-1	5.540319E-1	5.618102E-1	5.441315E-1	4.897980E-1	5.462495E-1	5.637083E-1	5.302905E-1	5.181143E-1	5.536391E-1	5.657073E-1	4.845633E-1	4.881919E-1	5.449876E-1	5.363597E-1	5.415070E-1	4.581807E-1	5.521041E-1	5.826439E-1	5.426263E-1	4.823552E-1	5.642010E-1	5.809596E-1	5.000002E-1	5.345034E-1	6.278607E-1	5.624189E-1	4.901218E-1	5.526052E-1	5.502620E-1	5.506954E-1	4.671682E-1	4.110269E-1	6.051888E-1	5.464182E-1	5.445133E-1	5.110883E-1	5.486130E-1	6.005456E-1	5.055460E-1	5.897959E-1	5.742583E-1	5.731696E-1	4.547410E-1	5.158924E-1	6.232119E-1	5.383326E-1	5.077274E-1	4.946417E-1	5.643881E-1	5.615395E-1	5.508620E-1	4.856798E-1	5.274768E-1	5.702652E-1	5.789052E-1	5.513979E-1	6.004533E-1	5.811362E-1	5.025077E-1	4.377348E-1	5.684565E-1	5.366860E-1	5.300250E-1	4.419091E-1	5.774788E-1	5.580681E-1	5.124312E-1	5.513870E-1	6.023689E-1	5.245141E-1	4.459398E-1
2.894040E+2	4.501624E-1	4.988451E-1	5.584034E-1	5.440235E-1	4.400024E-1	4.464454E-1	5.355655E-1	5.149366E-1	5.435484E-1	5.556839E-1	5.190317E-1	4.970805E-1	5.813162E-1	5.472765E-1	5.573851E-1	4.962992E-1	5.021688E-1	5.425644E-1	5.618043E-1	4.738671E-1	4.311740E-1	4.648441E-1	5.533333E-1	5.161263E-1	4.747054E-1	4.919937E-1	5.514541E-1	5.058381E-1	5.331122E-1	5.533444E-1	5.607757E-1	5.059841E-1	5.009518E-1	4.996687E-1	5.768098E-1	4.528544E-1	4.355177E-1	4.823424E-1	5.301788E-1	5.277545E-1	5.219136E-1	5.188768E-1	5.944617E-1	4.881689E-1	5.224105E-1	5.417263E-1	5.860663E-1	4.593202E-1	4.831037E-1	5.251342E-1	5.622578E-1	4.911384E-1	4.273178E-1	5.186213E-1	4.980768E-1	5.302535E-1	4.923294E-1	5.041389E-1	5.232917E-1	5.289088E-1	5.216758E-1	5.669264E-1	5.643485E-1	4.493658E-1	5.123240E-1	5.408331E-1	4.890599E-1	4.924304E-1	4.531017E-1	5.621843E-1	5.251410E-1	5.317158E-1	4.856266E-1	5.168741E-1	5.609757E-1	5.355498E-1	5.621101E-1	5.172006E-1	5.044469E-1	4.963674E-1	5.086807E-1	5.489506E-1	5.537057E-1	5.142038E-1	4.369330E-1	5.440830E-1	5.298697E-1	5.719217E-1	5.236968E-1	5.841551E-1	5.424050E-1	4.678236E-1	5.319391E-1	5.522881E-1	5.670890E-1	4.937064E-1	4.664961E-1	5.307681E-1	5.756417E-1	5.025832E-1	4.482327E-1	4.991707E-1	5.439886E-1	5.632532E-1	4.799870E-1	5.324440E-1	5.043130E-1	5.049259E-1	5.106970E-1	5.389737E-1	5.819984E-1	4.544431E-1	4.863694E-1	5.096815E-1	5.783307E-1	4.992483E-1	4.768458E-1	5.018245E-1	5.522256E-1	5.067986E-1	4.665327E-1	5.462793E-1	5.538782E-1	5.009969E-1	5.308967E-1	5.455449E-1	5.802792E-1	4.235984E-1	5.044252E-1	5.807316E-1	5.741296E-1	4.818963E-1	4.611999E-1	5.393123E-1	5.455254E-1	5.675793E-1	5.202505E-1	5.784570E-1	5.787074E-1	5.193138E-1	5.243844E-1	5.522177E-1	5.570483E-1	4.563071E-1	4.908524E-1	5.296070E-1	5.643063E-1	4.865051E-1	4.657880E-1	5.522546E-1	5.632011E-1	5.032786E-1	4.765634E-1	5.360591E-1	5.952176E-1	5.159081E-1	4.996535E-1	5.988055E-1	5.765157E-1	4.455362E-1	4.166344E-1	5.542213E-1	5.555725E-1	5.252847E-1	4.463376E-1	5.188034E-1	5.281161E-1	4.921891E-1	5.182785E-1	5.687450E-1	5.582630E-1	5.637175E-1
2.896060E+2	4.895048E-1	5.252450E-1	5.755959E-1	5.267527E-1	4.925402E-1	5.082039E-1	5.743431E-1	5.892596E-1	5.331753E-1	5.842467E-1	5.463019E-1	5.152804E-1	5.513925E-1	5.359983E-1	5.403248E-1	5.438258E-1	4.883438E-1	5.416459E-1	5.708787E-1	5.451502E-1	5.097639E-1	4.774611E-1	5.476570E-1	5.962841E-1	5.297806E-1	5.201551E-1	6.128946E-1	5.570621E-1	5.518649E-1	5.678439E-1	5.411093E-1	4.778229E-1	5.380032E-1	5.548743E-1	5.715684E-1	5.014202E-1	4.424632E-1	4.967464E-1	5.675438E-1	5.761824E-1	5.151601E-1	5.437385E-1	5.562631E-1	5.241496E-1	5.346810E-1	5.376460E-1	5.705848E-1	4.608632E-1	5.670649E-1	5.599349E-1	5.595225E-1	4.864644E-1	4.593665E-1	5.613014E-1	5.739146E-1	5.605596E-1	5.303306E-1	4.284487E-1	5.453341E-1	5.451070E-1	5.107153E-1	5.892545E-1	5.472235E-1	4.650409E-1	5.158394E-1	5.530953E-1	5.609454E-1	5.071478E-1	4.501912E-1	5.053963E-1	5.638610E-1	5.755596E-1	5.198596E-1	5.002307E-1	5.674191E-1	5.611243E-1	5.035518E-1	5.524513E-1	5.959340E-1	4.689638E-1	5.044802E-1	5.274652E-1	5.537055E-1	5.449695E-1	4.661961E-1	5.440828E-1	6.021970E-1	5.790413E-1	5.299077E-1	6.072203E-1	6.090111E-1	5.081464E-1	5.498045E-1	5.488956E-1	5.944814E-1	4.608528E-1	4.737315E-1	5.495943E-1	5.728366E-1	5.260683E-1	4.534268E-1	5.487224E-1	5.626586E-1	5.133710E-1	4.897980E-1	5.637369E-1	5.759365E-1	5.330087E-1	5.387205E-1	5.194184E-1	5.705944E-1	4.582082E-1	4.963935E-1	5.812493E-1	6.281112E-1	5.301700E-1	4.542914E-1	5.616397E-1	5.987475E-1	5.397216E-1	4.879385E-1	5.704735E-1	5.978840E-1	5.747755E-1	5.471237E-1	5.637490E-1	5.698598E-1	4.522193E-1	5.408059E-1	5.377149E-1	5.553825E-1	4.938630E-1	4.761768E-1	5.727020E-1	6.026321E-1	5.641619E-1	5.367411E-1	5.859174E-1	5.559597E-1	4.936132E-1	5.470602E-1	6.002365E-1	5.839173E-1	5.001465E-1	5.275179E-1	5.362258E-1	5.509006E-1	4.901965E-1	4.831001E-1	5.942597E-1	5.715076E-1	5.170048E-1	4.701824E-1	5.351053E-1	5.394903E-1	5.168622E-1	5.153618E-1	5.469056E-1	5.649659E-1	5.009026E-1	3.955338E-1	5.524419E-1	5.169001E-1	5.120103E-1	4.389573E-1	5.723017E-1	6.047572E-1	5.678763E-1	5.480755E-1	6.023689E-1	5.110150E-1	4.497391E-1
2.898030E+2	4.424848E-1	4.618855E-1	4.800815E-1	5.389432E-1	4.634422E-1	4.304041E-1	5.139212E-1	5.321572E-1	5.132915E-1	4.907672E-1	5.727697E-1	4.979905E-1	5.160975E-1	4.981373E-1	5.381925E-1	5.173354E-1	4.671997E-1	5.434828E-1	4.900318E-1	5.257091E-1	4.583235E-1	4.616905E-1	5.006251E-1	5.286505E-1	4.838844E-1	5.052459E-1	5.643884E-1	5.319523E-1	5.260792E-1	5.618735E-1	5.425658E-1	5.349491E-1	4.690692E-1	4.904681E-1	5.156675E-1	5.172979E-1	4.153738E-1	4.558090E-1	4.693507E-1	5.171878E-1	4.856139E-1	4.967768E-1	5.772719E-1	4.376009E-1	5.142309E-1	4.813304E-1	5.363619E-1	4.909513E-1	4.779098E-1	4.769485E-1	5.102934E-1	5.098354E-1	4.578403E-1	5.013853E-1	4.834587E-1	5.033147E-1	4.737507E-1	4.060854E-1	5.206462E-1	5.451073E-1	5.021042E-1	5.232005E-1	5.254278E-1	4.538442E-1	4.762863E-1	5.224382E-1	5.267553E-1	4.915105E-1	4.174497E-1	5.045355E-1	5.315945E-1	4.916044E-1	5.023038E-1	5.187243E-1	5.149559E-1	5.283886E-1	5.250805E-1	5.352181E-1	4.781871E-1	4.747763E-1	4.960797E-1	5.360599E-1	5.575114E-1	5.320681E-1	4.315423E-1	5.264966E-1	5.197979E-1	5.541216E-1	4.819960E-1	5.089418E-1	5.463228E-1	4.959557E-1	4.851471E-1	5.251455E-1	4.953840E-1	4.215887E-1	4.891080E-1	5.025290E-1	5.513303E-1	4.941291E-1	4.081674E-1	4.920916E-1	5.592643E-1	5.100460E-1	3.997104E-1	5.260006E-1	5.436185E-1	5.031137E-1	5.156426E-1	5.080123E-1	5.290528E-1	4.612201E-1	5.091500E-1	5.259036E-1	5.734507E-1	5.085241E-1	4.294046E-1	5.269644E-1	5.799603E-1	5.135765E-1	4.451249E-1	5.283576E-1	5.191819E-1	4.850449E-1	5.173735E-1	5.661235E-1	5.586978E-1	4.375224E-1	5.181905E-1	5.368188E-1	5.178878E-1	4.837377E-1	4.289992E-1	5.808236E-1	5.383874E-1	5.223008E-1	5.220819E-1	5.355561E-1	5.368519E-1	4.523068E-1	5.008353E-1	5.317504E-1	5.340182E-1	4.195122E-1	4.380893E-1	5.135326E-1	5.425220E-1	4.412915E-1	4.171478E-1	5.279844E-1	5.997506E-1	4.758275E-1	4.191300E-1	5.370126E-1	5.228558E-1	4.777278E-1	4.987300E-1	5.658534E-1	5.326276E-1	4.688063E-1	3.997539E-1	5.871430E-1	5.213970E-1	5.063210E-1	4.094350E-1	5.179405E-1	5.228309E-1	4.965898E-1	4.708236E-1	5.962548E-1	5.380139E-1	5.523196E-1
2.900030E+2	4.252126E-1	4.293258E-1	4.609783E-1	5.165934E-1	3.915065E-1	4.007291E-1	4.985911E-1	4.723360E-1	4.622868E-1	4.812459E-1	4.580754E-1	4.552210E-1	4.808025E-1	4.731648E-1	4.301451E-1	4.877287E-1	4.224722E-1	4.810418E-1	4.595076E-1	4.831247E-1	3.961659E-1	4.388220E-1	4.917055E-1	4.843961E-1	4.204651E-1	4.588633E-1	5.174986E-1	4.465786E-1	4.166830E-1	4.731685E-1	4.697260E-1	4.915017E-1	4.501131E-1	4.695572E-1	4.920844E-1	4.705991E-1	4.077328E-1	4.398885E-1	5.084544E-1	4.705217E-1	4.147030E-1	4.332415E-1	4.760465E-1	4.521876E-1	4.553323E-1	4.952049E-1	4.956205E-1	5.140956E-1	4.406897E-1	4.582090E-1	4.619765E-1	4.733767E-1	3.876384E-1	4.447525E-1	5.117834E-1	4.814273E-1	4.163257E-1	3.802815E-1	4.897871E-1	4.623169E-1	4.167723E-1	4.590066E-1	4.818368E-1	5.090819E-1	4.525541E-1	4.989357E-1	4.531177E-1	5.080667E-1	3.927122E-1	4.554908E-1	4.517339E-1	5.177242E-1	4.092605E-1	4.336571E-1	5.177173E-1	5.294115E-1	4.579118E-1	4.843003E-1	4.934355E-1	4.581687E-1	4.305516E-1	5.059796E-1	4.566429E-1	4.824464E-1	3.899566E-1	4.593479E-1	4.969101E-1	5.149625E-1	4.394088E-1	4.768511E-1	5.081218E-1	4.762637E-1	4.825951E-1	4.827352E-1	4.897444E-1	4.223901E-1	4.502151E-1	4.771154E-1	4.625005E-1	4.687653E-1	3.873928E-1	4.434242E-1	4.828854E-1	4.801164E-1	4.139816E-1	4.919467E-1	4.466650E-1	4.360770E-1	4.587720E-1	4.689027E-1	4.809939E-1	3.663408E-1	4.280510E-1	4.581529E-1	4.826744E-1	4.724495E-1	3.765189E-1	4.645476E-1	4.743908E-1	5.000200E-1	4.665316E-1	4.781765E-1	5.073343E-1	4.381852E-1	4.695914E-1	4.568961E-1	4.954420E-1	4.290140E-1	4.385447E-1	5.072441E-1	4.719571E-1	4.257443E-1	3.945521E-1	4.806539E-1	5.276794E-1	4.633538E-1	4.854371E-1	4.991839E-1	4.604183E-1	4.311931E-1	4.685659E-1	5.026233E-1	4.779769E-1	4.140326E-1	4.515038E-1	4.766577E-1	4.788434E-1	4.062284E-1	4.031326E-1	4.617087E-1	4.701651E-1	4.685064E-1	3.954270E-1	4.721655E-1	5.037255E-1	4.700922E-1	4.645415E-1	4.933581E-1	5.118381E-1	4.030093E-1	3.946897E-1	4.857076E-1	4.395562E-1	4.446901E-1	3.821270E-1	4.808368E-1	4.814270E-1	4.745873E-1	4.719274E-1	4.877410E-1	5.132648E-1	5.143268E-1
2.905220E+2	4.041022E-1	4.434056E-1	4.466507E-1	5.369117E-1	4.416193E-1	4.384255E-1	4.994932E-1	4.913702E-1	4.908149E-1	4.786495E-1	5.222407E-1	5.343903E-1	4.877077E-1	5.013598E-1	4.898554E-1	5.048695E-1	3.956354E-1	4.984891E-1	4.718817E-1	4.868279E-1	4.247434E-1	4.522276E-1	5.054909E-1	4.810566E-1	4.805464E-1	5.019323E-1	4.997134E-1	5.028251E-1	4.588786E-1	5.081384E-1	5.534919E-1	4.923064E-1	4.699315E-1	4.837764E-1	5.051857E-1	4.640616E-1	4.105117E-1	4.717296E-1	4.832545E-1	4.652378E-1	4.661980E-1	4.912523E-1	5.199751E-1	5.037276E-1	4.872353E-1	5.156088E-1	5.151762E-1	5.241250E-1	4.406898E-1	4.796254E-1	4.884142E-1	4.995517E-1	4.395266E-1	4.915360E-1	5.245741E-1	4.982629E-1	4.788174E-1	4.060855E-1	4.730347E-1	5.001121E-1	4.848818E-1	4.804048E-1	5.106383E-1	5.225181E-1	4.850759E-1	4.866731E-1	4.855541E-1	4.915110E-1	4.152671E-1	4.933497E-1	4.775473E-1	4.449627E-1	4.329604E-1	4.687934E-1	5.103542E-1	5.345268E-1	4.587725E-1	4.843005E-1	5.120715E-1	5.146360E-1	4.305516E-1	5.352003E-1	4.766262E-1	4.884008E-1	4.138299E-1	4.889249E-1	5.216299E-1	5.042832E-1	4.544920E-1	4.497744E-1	4.660029E-1	4.800141E-1	4.962074E-1	5.124230E-1	5.106918E-1	5.321688E-1	4.348385E-1	4.818208E-1	4.868117E-1	5.298265E-1	4.037161E-1	4.903217E-1	4.922205E-1	5.225162E-1	4.193331E-1	4.864237E-1	4.842234E-1	4.451366E-1	4.727840E-1	5.006788E-1	5.249800E-1	4.800446E-1	4.298731E-1	4.991846E-1	4.748658E-1	4.631731E-1	4.006283E-1	5.113596E-1	5.459631E-1	4.787166E-1	4.609484E-1	4.799686E-1	4.971786E-1	4.750747E-1	5.146683E-1	5.075527E-1	5.133024E-1	4.437101E-1	5.260568E-1	5.117256E-1	5.216373E-1	4.321878E-1	4.140224E-1	4.707274E-1	4.955571E-1	4.778776E-1	4.506240E-1	4.907902E-1	5.077340E-1	4.422088E-1	4.990917E-1	4.766465E-1	5.079170E-1	4.109014E-1	4.649187E-1	5.381159E-1	5.140347E-1	4.440603E-1	4.220946E-1	5.139824E-1	5.108680E-1	5.188354E-1	4.245990E-1	5.074500E-1	4.995668E-1	4.366850E-1	4.959568E-1	5.106583E-1	5.064485E-1	4.030092E-1	3.870937E-1	5.293072E-1	4.935171E-1	4.702911E-1	3.776989E-1	5.317468E-1	4.919980E-1	4.455446E-1	4.939994E-1	5.290070E-1	4.930150E-1	3.965491E-1
2.910030E+2	5.470795E-1	5.349242E-1	5.908787E-1	5.684047E-1	5.232537E-1	5.330680E-1	6.041028E-1	5.829149E-1	5.297169E-1	5.842473E-1	6.000396E-1	5.780694E-1	6.051021E-1	6.084990E-1	6.483722E-1	5.726532E-1	5.322579E-1	6.224505E-1	5.972775E-1	6.108775E-1	4.990477E-1	5.200420E-1	5.849577E-1	5.804199E-1	5.831856E-1	5.723355E-1	6.145117E-1	5.500311E-1	5.588979E-1	5.866091E-1	6.052080E-1	6.041440E-1	5.207700E-1	5.983692E-1	5.925319E-1	5.565247E-1	4.903910E-1	5.103928E-1	5.423442E-1	5.550504E-1	5.750968E-1	5.667589E-1	6.374348E-1	5.805506E-1	5.804907E-1	5.645791E-1	6.154002E-1	6.236462E-1	5.800485E-1	5.697505E-1	5.622578E-1	6.061235E-1	4.868369E-1	5.416026E-1	5.812232E-1	6.060195E-1	5.632653E-1	5.092996E-1	6.114620E-1	5.946006E-1	6.070066E-1	5.613447E-1	6.266216E-1	5.859666E-1	5.237501E-1	5.796640E-1	5.723420E-1	6.405169E-1	4.749286E-1	5.845552E-1	5.937078E-1	6.007465E-1	5.549701E-1	6.130374E-1	6.005526E-1	5.785161E-1	5.655548E-1	5.610680E-1	6.179581E-1	6.367037E-1	5.540465E-1	5.755924E-1	5.613174E-1	6.045165E-1	5.116314E-1	5.712623E-1	5.747313E-1	6.671485E-1	5.582992E-1	5.781379E-1	6.129302E-1	6.366193E-1	5.804320E-1	5.946990E-1	6.250967E-1	5.706323E-1	5.451869E-1	5.458290E-1	5.980832E-1	5.720998E-1	5.187194E-1	6.327834E-1	5.439887E-1	5.549398E-1	4.719591E-1	5.775424E-1	5.768098E-1	6.163519E-1	5.510833E-1	6.065992E-1	5.746676E-1	5.929967E-1	5.219072E-1	6.146477E-1	5.714987E-1	5.631523E-1	4.745133E-1	5.330321E-1	6.202191E-1	6.065362E-1	5.475064E-1	6.269274E-1	5.538785E-1	6.206381E-1	5.831859E-1	6.088652E-1	6.137679E-1	5.651528E-1	5.575218E-1	6.085143E-1	6.041244E-1	5.932798E-1	4.814191E-1	6.106033E-1	6.106637E-1	5.923540E-1	5.816315E-1	5.803222E-1	6.487713E-1	5.844869E-1	5.627587E-1	5.947258E-1	6.153922E-1	5.815636E-1	5.123151E-1	5.920108E-1	6.271471E-1	6.046132E-1	5.366865E-1	5.970597E-1	6.155329E-1	5.966135E-1	4.902380E-1	5.942312E-1	5.744242E-1	5.645880E-1	5.948259E-1	6.152815E-1	5.988452E-1	4.960880E-1	4.141022E-1	6.236240E-1	6.374128E-1	6.153595E-1	4.670026E-1	6.137194E-1	6.074001E-1	5.335531E-1	5.050359E-1	6.558616E-1	6.527608E-1	5.105275E-1
2.914980E+2	6.305624E-1	6.546040E-1	6.911698E-1	6.791397E-1	5.580104E-1	5.868064E-1	7.096156E-1	6.663019E-1	6.516105E-1	6.309865E-1	6.561842E-1	6.963677E-1	6.841334E-1	6.624709E-1	7.052394E-1	6.902998E-1	5.704796E-1	6.683624E-1	6.896734E-1	6.840116E-1	5.890689E-1	5.736628E-1	6.806436E-1	6.722675E-1	6.140610E-1	6.783541E-1	6.832281E-1	6.816070E-1	6.761082E-1	6.906682E-1	6.911592E-1	6.870157E-1	6.155528E-1	6.184440E-1	6.903588E-1	6.714015E-1	5.772171E-1	6.074292E-1	6.865922E-1	6.536668E-1	6.696446E-1	6.533147E-1	6.899570E-1	6.758502E-1	6.508402E-1	6.902676E-1	6.610307E-1	6.876790E-1	6.380421E-1	6.536285E-1	6.716555E-1	7.183033E-1	5.829834E-1	6.343492E-1	6.853846E-1	6.767334E-1	6.122448E-1	5.368237E-1	7.190297E-1	6.872890E-1	6.117039E-1	6.515880E-1	6.850027E-1	6.800199E-1	6.450470E-1	6.491525E-1	6.906894E-1	6.727092E-1	5.244039E-1	6.688778E-1	6.566279E-1	7.229477E-1	5.646259E-1	6.648176E-1	6.612970E-1	6.828645E-1	6.714748E-1	6.738694E-1	6.848792E-1	6.433467E-1	5.901709E-1	6.941917E-1	6.859759E-1	6.362730E-1	5.532164E-1	6.935679E-1	7.303729E-1	6.822784E-1	6.257302E-1	6.954708E-1	6.736587E-1	7.003868E-1	6.825233E-1	6.973318E-1	6.750481E-1	6.860201E-1	6.103110E-1	6.917281E-1	7.308604E-1	7.139502E-1	5.684300E-1	6.761420E-1	6.891086E-1	7.004295E-1	6.423239E-1	6.566961E-1	6.982201E-1	6.634583E-1	6.771867E-1	7.011137E-1	6.536793E-1	6.931475E-1	6.093856E-1	6.604505E-1	7.110780E-1	7.074510E-1	5.725075E-1	6.543977E-1	7.329458E-1	6.646350E-1	6.070738E-1	6.520177E-1	6.554307E-1	6.605185E-1	6.724387E-1	7.093857E-1	6.971167E-1	7.206306E-1	6.529008E-1	7.178492E-1	6.997345E-1	6.172134E-1	5.278476E-1	7.008463E-1	6.900774E-1	6.735127E-1	6.924838E-1	7.090236E-1	6.960876E-1	7.111605E-1	6.456136E-1	7.049329E-1	6.944629E-1	7.068202E-1	6.446691E-1	6.695427E-1	7.059075E-1	6.876583E-1	5.754325E-1	7.342772E-1	7.376435E-1	6.789685E-1	5.731979E-1	7.410904E-1	7.449312E-1	6.667196E-1	6.585818E-1	7.001338E-1	6.897014E-1	6.814442E-1	5.407070E-1	7.028140E-1	7.030651E-1	6.987994E-1	5.592594E-1	6.508230E-1	6.990161E-1	6.479652E-1	6.738858E-1	7.414510E-1	6.707587E-1	7.080900E-1
2.920010E+2	3.935475E-1	4.205262E-1	4.867677E-1	4.972914E-1	4.181794E-1	4.111556E-1	4.598129E-1	4.977149E-1	4.510481E-1	4.622039E-1	4.997828E-1	5.034505E-1	4.792669E-1	4.860542E-1	4.898563E-1	4.612392E-1	4.346708E-1	4.617590E-1	4.504331E-1	4.535011E-1	3.997380E-1	4.206863E-1	4.592699E-1	4.835610E-1	4.396575E-1	4.472664E-1	5.142655E-1	4.777148E-1	4.112130E-1	4.868147E-1	4.944912E-1	5.035707E-1	4.371887E-1	4.963230E-1	4.981987E-1	4.696661E-1	3.966199E-1	4.603574E-1	4.563159E-1	5.295156E-1	4.771717E-1	4.912520E-1	4.741370E-1	4.784436E-1	4.806907E-1	4.748017E-1	4.776940E-1	4.863216E-1	4.450173E-1	4.528558E-1	5.212334E-1	4.733766E-1	3.830599E-1	4.570638E-1	4.843718E-1	5.083654E-1	4.070371E-1	3.854427E-1	4.686257E-1	4.632166E-1	4.418238E-1	4.822659E-1	4.935129E-1	4.792238E-1	4.244276E-1	5.081324E-1	5.162368E-1	4.455216E-1	3.752499E-1	4.881867E-1	4.630281E-1	5.223880E-1	4.478818E-1	4.687936E-1	4.486883E-1	4.342718E-1	4.510226E-1	4.874337E-1	4.773398E-1	5.030098E-1	4.574348E-1	5.283251E-1	4.908999E-1	5.390146E-1	3.961173E-1	4.705393E-1	4.840926E-1	4.998330E-1	4.465070E-1	4.738423E-1	4.953885E-1	5.259644E-1	4.638780E-1	5.175127E-1	4.857163E-1	5.233546E-1	4.203663E-1	4.611131E-1	4.671759E-1	4.744012E-1	3.784894E-1	4.894373E-1	4.760961E-1	4.518499E-1	4.050618E-1	4.827426E-1	4.519046E-1	4.831845E-1	5.016306E-1	4.746066E-1	4.809936E-1	4.747738E-1	4.189384E-1	4.963224E-1	5.109807E-1	5.167698E-1	4.091836E-1	5.035579E-1	4.904940E-1	4.719386E-1	4.404709E-1	4.719035E-1	4.980250E-1	4.980058E-1	4.524624E-1	4.830158E-1	4.641861E-1	4.777452E-1	4.405104E-1	4.938019E-1	4.747700E-1	4.901809E-1	4.185156E-1	5.023122E-1	5.018034E-1	4.889829E-1	4.698628E-1	4.935884E-1	5.195627E-1	4.587319E-1	5.095575E-1	4.695612E-1	5.117558E-1	4.977976E-1	4.765434E-1	4.974590E-1	5.224125E-1	4.837375E-1	4.319867E-1	4.887792E-1	4.701646E-1	4.858925E-1	4.072777E-1	5.017286E-1	4.662973E-1	4.786827E-1	4.608456E-1	5.081871E-1	4.941293E-1	4.832497E-1	4.326710E-1	5.097317E-1	4.692346E-1	4.759801E-1	3.946737E-1	5.429644E-1	4.867129E-1	4.613863E-1	4.697199E-1	5.198374E-1	5.470132E-1	4.003487E-1
2.925000E+2	5.144534E-1	5.771641E-1	5.135119E-1	6.232647E-1	4.901155E-1	5.442968E-1	6.022995E-1	6.191703E-1	5.677547E-1	5.643392E-1	5.783840E-1	5.507699E-1	5.805488E-1	5.867481E-1	6.242036E-1	6.232952E-1	5.493355E-1	6.343886E-1	6.253260E-1	6.210612E-1	5.069060E-1	5.413324E-1	5.711727E-1	5.762448E-1	5.414629E-1	5.549424E-1	6.096608E-1	6.052732E-1	5.659306E-1	5.610207E-1	5.935536E-1	5.228805E-1	5.776399E-1	5.841499E-1	6.047604E-1	6.088259E-1	5.431818E-1	5.392007E-1	5.797099E-1	6.096415E-1	5.734088E-1	5.354507E-1	5.887318E-1	5.717986E-1	5.821263E-1	5.433592E-1	5.787332E-1	6.151590E-1	5.532156E-1	5.679653E-1	5.339964E-1	5.902307E-1	4.845478E-1	5.374986E-1	5.885333E-1	5.765545E-1	5.320193E-1	4.903776E-1	6.008819E-1	6.134986E-1	5.764752E-1	5.771600E-1	5.721326E-1	6.158244E-1	5.149610E-1	5.653578E-1	6.082843E-1	6.405163E-1	4.945736E-1	5.286277E-1	6.025811E-1	5.811564E-1	5.523372E-1	5.640315E-1	5.729405E-1	5.713557E-1	5.758876E-1	6.143352E-1	5.984754E-1	5.794064E-1	5.112013E-1	5.566851E-1	5.679787E-1	6.174171E-1	4.569551E-1	5.704626E-1	5.957887E-1	6.368902E-1	5.370056E-1	6.192549E-1	5.962784E-1	5.897313E-1	5.787310E-1	6.082701E-1	5.993152E-1	6.371403E-1	5.289062E-1	6.041885E-1	6.083688E-1	5.871308E-1	5.046215E-1	5.973900E-1	5.923621E-1	5.865320E-1	5.112058E-1	5.683390E-1	5.986461E-1	6.118223E-1	5.576770E-1	5.609720E-1	5.844423E-1	5.884792E-1	5.620022E-1	5.650269E-1	6.242069E-1	6.579771E-1	4.939559E-1	6.101864E-1	6.014315E-1	5.484364E-1	5.363379E-1	5.946684E-1	6.215796E-1	6.166499E-1	5.786789E-1	5.550425E-1	6.182324E-1	6.231672E-1	5.427731E-1	6.040324E-1	6.378683E-1	6.356242E-1	4.851637E-1	6.024819E-1	6.106630E-1	5.821021E-1	5.449862E-1	5.999065E-1	6.123752E-1	6.010099E-1	5.767136E-1	5.821298E-1	6.069478E-1	6.371463E-1	5.418269E-1	6.137568E-1	6.539585E-1	6.046134E-1	5.012367E-1	6.297302E-1	6.396231E-1	6.002742E-1	5.403786E-1	5.742039E-1	5.686017E-1	6.170855E-1	5.754214E-1	6.045719E-1	6.227143E-1	5.715150E-1	5.643393E-1	6.592146E-1	5.771566E-1	6.238933E-1	4.714307E-1	6.214858E-1	5.615913E-1	5.441148E-1	4.796524E-1	6.650321E-1	5.852624E-1	5.599182E-1
2.930010E+2	6.046533E-1	6.502032E-1	6.787519E-1	7.583817E-1	6.347957E-1	5.948258E-1	7.357676E-1	6.771780E-1	6.619839E-1	7.383154E-1	7.147343E-1	6.836282E-1	6.887364E-1	6.818045E-1	7.038179E-1	7.222440E-1	6.558687E-1	6.674446E-1	6.772995E-1	7.256706E-1	5.954993E-1	6.020498E-1	7.479476E-1	6.614134E-1	6.591214E-1	6.402539E-1	6.969718E-1	7.237914E-1	6.518854E-1	7.623140E-1	7.253941E-1	6.902341E-1	6.474351E-1	6.811763E-1	7.060812E-1	6.928823E-1	6.265335E-1	6.529159E-1	7.326476E-1	7.223468E-1	7.034116E-1	6.901468E-1	7.415246E-1	6.116689E-1	7.375506E-1	6.478269E-1	7.099203E-1	6.768775E-1	6.250585E-1	6.848597E-1	7.017398E-1	7.388690E-1	5.959556E-1	6.532268E-1	7.018313E-1	7.205096E-1	6.418016E-1	5.944516E-1	7.093310E-1	7.223842E-1	6.813782E-1	7.092684E-1	7.153599E-1	6.927095E-1	6.652628E-1	7.237501E-1	7.152350E-1	6.865059E-1	5.826109E-1	6.895276E-1	6.864748E-1	7.024245E-1	6.585472E-1	7.027278E-1	6.760240E-1	7.278778E-1	6.869754E-1	6.965860E-1	6.925029E-1	7.363510E-1	5.910106E-1	6.881760E-1	7.221363E-1	6.829179E-1	5.793997E-1	6.975652E-1	7.322046E-1	7.143179E-1	6.195201E-1	7.225475E-1	7.245937E-1	7.125781E-1	6.731656E-1	6.930904E-1	7.088855E-1	7.461186E-1	6.057889E-1	6.503124E-1	7.159003E-1	6.867077E-1	5.854950E-1	6.858753E-1	7.442711E-1	7.195513E-1	5.932656E-1	7.100779E-1	6.921064E-1	7.458955E-1	7.274633E-1	7.385933E-1	7.652730E-1	7.089607E-1	6.576806E-1	7.472863E-1	6.905808E-1	7.043592E-1	6.261708E-1	6.916744E-1	7.392087E-1	7.217674E-1	6.126586E-1	7.326659E-1	6.858954E-1	6.884343E-1	6.399835E-1	7.418377E-1	7.119998E-1	6.533342E-1	6.745328E-1	6.882746E-1	7.006724E-1	7.378033E-1	5.592995E-1	7.017486E-1	6.793700E-1	6.982882E-1	6.219411E-1	7.472605E-1	7.361237E-1	6.817868E-1	7.084091E-1	7.214637E-1	6.906248E-1	7.162146E-1	6.312558E-1	7.120908E-1	7.360704E-1	7.024225E-1	5.993410E-1	6.922721E-1	7.177069E-1	7.256365E-1	5.640815E-1	6.743349E-1	6.717383E-1	7.268532E-1	6.881495E-1	7.116679E-1	7.274301E-1	6.934808E-1	6.310182E-1	7.063728E-1	6.697899E-1	7.405185E-1	5.983760E-1	6.991440E-1	7.254443E-1	6.866898E-1	6.827140E-1	7.399229E-1	6.932590E-1	7.688780E-1
2.935110E+2	7.744994E-1	7.170828E-1	7.628048E-1	8.193357E-1	7.487616E-1	6.902716E-1	8.106189E-1	8.221981E-1	7.657226E-1	8.335255E-1	8.422622E-1	7.673466E-1	7.984588E-1	7.599438E-1	8.047561E-1	7.798987E-1	7.152346E-1	7.757970E-1	8.010447E-1	8.200971E-1	6.740888E-1	6.911548E-1	7.341629E-1	8.217315E-1	7.083551E-1	7.487570E-1	8.158118E-1	8.332709E-1	7.456538E-1	7.887555E-1	8.237277E-1	8.213821E-1	7.172297E-1	8.158431E-1	7.715907E-1	7.685333E-1	6.689049E-1	7.294839E-1	8.073791E-1	8.385736E-1	7.481538E-1	7.702574E-1	8.150571E-1	7.517010E-1	7.481853E-1	7.759641E-1	8.272557E-1	8.026296E-1	7.410460E-1	7.642777E-1	7.837876E-1	7.846764E-1	6.623420E-1	7.591051E-1	7.895453E-1	7.802794E-1	7.625609E-1	6.305771E-1	8.133724E-1	8.123735E-1	7.518353E-1	7.939302E-1	7.830821E-1	8.196065E-1	7.338218E-1	7.983478E-1	7.783546E-1	8.023992E-1	6.415449E-1	7.729898E-1	7.824686E-1	8.703360E-1	7.472023E-1	8.321767E-1	7.929128E-1	8.025571E-1	7.825621E-1	8.054702E-1	7.856841E-1	8.218811E-1	7.195462E-1	7.921654E-1	7.678125E-1	7.950632E-1	6.702705E-1	7.743064E-1	7.615016E-1	8.264543E-1	7.366366E-1	8.067859E-1	8.058943E-1	8.363616E-1	8.160936E-1	8.296519E-1	8.434324E-1	8.134292E-1	7.179471E-1	8.112719E-1	8.150148E-1	8.031942E-1	6.589485E-1	8.062165E-1	8.053750E-1	8.193158E-1	6.253759E-1	7.791066E-1	7.986680E-1	7.794128E-1	7.348809E-1	7.834058E-1	8.068151E-1	8.166410E-1	7.533602E-1	8.045401E-1	7.774521E-1	8.435051E-1	6.907223E-1	7.618929E-1	8.796691E-1	7.934228E-1	7.922904E-1	7.962890E-1	7.925245E-1	7.951148E-1	7.824278E-1	8.154481E-1	8.533955E-1	7.987557E-1	7.856441E-1	8.648243E-1	7.756605E-1	7.957965E-1	7.030794E-1	8.759165E-1	8.078596E-1	8.289969E-1	7.392070E-1	8.461177E-1	8.462240E-1	8.497670E-1	7.930087E-1	7.860147E-1	7.988679E-1	8.571287E-1	7.680817E-1	7.934049E-1	8.466699E-1	8.186856E-1	6.999179E-1	8.014862E-1	7.908071E-1	8.299528E-1	7.728483E-1	7.840021E-1	7.831919E-1	7.908047E-1	7.629938E-1	8.335908E-1	8.290668E-1	7.713140E-1	7.061363E-1	8.674225E-1	7.507310E-1	8.514533E-1	6.286360E-1	8.544616E-1	8.064898E-1	8.046208E-1	7.147193E-1	8.117567E-1	8.035054E-1	7.346853E-1
2.940050E+2	7.744990E-1	7.188429E-1	7.121822E-1	7.675249E-1	7.099656E-1	6.838548E-1	7.682338E-1	7.560332E-1	7.760972E-1	6.967688E-1	7.829094E-1	7.627965E-1	7.493530E-1	7.663879E-1	7.379380E-1	7.549668E-1	7.436974E-1	7.363127E-1	7.540214E-1	7.830659E-1	7.626817E-1	6.998295E-1	7.617325E-1	7.532622E-1	7.759471E-1	7.429588E-1	7.608382E-1	7.639672E-1	7.347141E-1	7.537850E-1	7.625424E-1	7.787386E-1	7.577277E-1	7.071058E-1	7.934263E-1	7.274394E-1	6.855750E-1	6.764166E-1	7.595858E-1	7.646112E-1	7.557513E-1	6.855437E-1	7.558488E-1	7.059960E-1	7.710900E-1	7.571927E-1	7.661437E-1	7.547972E-1	7.358536E-1	7.241222E-1	7.391177E-1	7.519571E-1	6.325832E-1	6.876992E-1	7.593941E-1	7.794381E-1	6.814922E-1	6.718630E-1	7.622336E-1	7.808778E-1	6.946866E-1	7.967201E-1	7.550592E-1	7.367504E-1	6.942677E-1	7.605387E-1	7.406580E-1	7.104207E-1	5.898871E-1	7.101777E-1	7.114813E-1	7.779851E-1	6.813698E-1	7.656033E-1	7.496544E-1	7.882353E-1	7.842834E-1	7.764865E-1	7.577303E-1	8.102549E-1	7.195462E-1	7.182554E-1	7.012009E-1	7.613200E-1	6.433177E-1	7.375350E-1	7.468528E-1	7.819562E-1	7.126804E-1	7.867288E-1	7.745498E-1	8.091667E-1	7.471816E-1	8.186259E-1	7.733393E-1	7.765683E-1	6.428730E-1	7.416162E-1	7.579769E-1	7.440112E-1	6.122054E-1	7.301183E-1	7.425735E-1	7.386733E-1	6.262676E-1	7.514954E-1	7.183095E-1	7.721669E-1	7.192210E-1	7.548886E-1	7.693452E-1	7.857680E-1	6.941297E-1	7.711413E-1	8.038072E-1	7.301269E-1	6.137270E-1	7.254831E-1	8.331473E-1	7.333874E-1	7.234155E-1	7.434190E-1	7.713684E-1	7.562310E-1	7.761164E-1	7.703318E-1	7.618606E-1	7.268188E-1	6.922317E-1	7.653469E-1	8.000317E-1	7.589746E-1	6.371804E-1	7.540891E-1	7.632449E-1	7.939697E-1	7.300455E-1	7.537889E-1	7.688803E-1	7.708253E-1	7.363179E-1	8.379690E-1	7.282409E-1	7.216949E-1	7.278391E-1	7.414018E-1	7.955588E-1	7.328724E-1	6.488051E-1	7.837501E-1	7.924680E-1	7.576633E-1	7.081209E-1	8.335910E-1	7.366138E-1	8.127585E-1	7.713099E-1	7.693341E-1	7.235797E-1	7.231692E-1	6.774398E-1	7.882331E-1	7.120593E-1	7.386225E-1	5.924723E-1	7.569564E-1	7.377768E-1	7.447751E-1	7.080971E-1	7.964727E-1	8.102552E-1	8.144688E-1
2.945010E+2	7.255613E-1	6.590038E-1	7.064509E-1	7.157127E-1	6.703593E-1	6.581890E-1	6.978918E-1	6.762712E-1	7.363301E-1	6.941713E-1	7.147341E-1	7.500571E-1	7.255670E-1	7.333603E-1	7.215883E-1	6.988705E-1	7.201141E-1	6.720352E-1	7.713456E-1	6.877156E-1	7.255306E-1	6.501511E-1	6.976719E-1	7.065030E-1	7.383958E-1	6.816677E-1	7.470947E-1	7.378543E-1	7.050212E-1	7.495202E-1	7.144677E-1	7.336821E-1	6.939646E-1	6.719755E-1	7.287913E-1	7.657312E-1	6.827975E-1	6.756589E-1	6.865924E-1	7.082584E-1	7.245167E-1	6.293743E-1	7.023711E-1	6.622365E-1	7.383689E-1	7.204652E-1	7.050322E-1	6.923080E-1	7.531648E-1	7.259073E-1	7.008276E-1	6.893232E-1	7.562000E-1	7.147839E-1	7.182776E-1	7.053558E-1	7.591837E-1	5.918717E-1	6.908153E-1	7.484822E-1	7.197386E-1	7.055473E-1	6.951216E-1	7.009208E-1	6.661420E-1	7.309034E-1	7.003320E-1	7.214576E-1	6.582793E-1	6.998528E-1	7.034148E-1	7.360076E-1	7.120915E-1	6.435508E-1	7.257245E-1	7.217396E-1	7.343382E-1	7.114695E-1	7.170688E-1	7.272159E-1	6.632593E-1	6.916132E-1	6.717022E-1	7.305544E-1	6.132841E-1	7.087567E-1	7.340353E-1	7.267780E-1	6.763040E-1	7.225474E-1	7.226351E-1	7.285201E-1	7.191064E-1	7.388934E-1	7.491686E-1	7.493233E-1	6.202608E-1	6.992588E-1	7.243149E-1	7.346173E-1	5.943987E-1	7.212698E-1	7.408766E-1	6.821394E-1	6.253766E-1	7.027148E-1	7.410197E-1	6.978824E-1	6.574055E-1	7.418522E-1	7.204721E-1	7.067016E-1	6.759055E-1	6.852610E-1	7.413378E-1	7.765091E-1	5.966163E-1	7.211481E-1	7.329461E-1	7.091791E-1	6.387186E-1	7.407316E-1	7.459799E-1	7.392820E-1	7.030918E-1	6.682274E-1	7.373024E-1	6.989716E-1	6.853485E-1	7.456310E-1	7.128574E-1	7.019028E-1	6.042308E-1	7.197973E-1	6.874000E-1	7.418576E-1	7.327927E-1	7.090234E-1	7.042759E-1	7.074891E-1	7.049196E-1	7.269742E-1	7.075136E-1	7.428318E-1	6.750751E-1	6.799433E-1	6.975282E-1	7.651668E-1	5.820282E-1	7.604136E-1	7.509348E-1	7.219765E-1	6.607157E-1	7.553942E-1	6.900365E-1	7.020360E-1	7.075539E-1	7.330865E-1	7.620786E-1	7.183553E-1	6.327065E-1	7.312876E-1	7.147572E-1	7.187103E-1	6.360173E-1	7.327963E-1	7.360147E-1	7.465353E-1	6.882325E-1	7.093560E-1	8.260048E-1	7.118893E-1
2.950050E+2	7.908121E-1	7.206031E-1	7.914590E-1	7.675248E-1	7.431043E-1	6.966889E-1	7.646261E-1	7.832244E-1	8.219146E-1	7.833241E-1	7.708787E-1	7.600678E-1	7.639318E-1	7.688048E-1	8.154194E-1	7.557460E-1	7.656542E-1	7.868156E-1	7.663963E-1	7.053044E-1	7.662535E-1	6.446312E-1	7.974123E-1	7.849912E-1	8.226771E-1	6.982329E-1	8.069186E-1	8.011301E-1	7.636262E-1	7.802256E-1	7.909495E-1	7.626473E-1	8.042586E-1	7.480915E-1	7.235504E-1	8.040237E-1	7.703173E-1	7.029505E-1	7.726204E-1	7.927876E-1	7.768549E-1	6.947506E-1	7.653986E-1	7.701783E-1	7.776339E-1	7.669864E-1	7.506621E-1	7.648266E-1	7.557617E-1	7.366148E-1	7.491455E-1	7.641100E-1	8.172449E-1	7.459728E-1	7.255873E-1	8.131115E-1	7.828286E-1	7.157295E-1	8.098454E-1	8.555680E-1	7.549666E-1	7.622987E-1	7.721849E-1	7.658620E-1	7.180001E-1	7.268155E-1	7.862436E-1	7.977998E-1	7.659613E-1	7.600837E-1	7.945681E-1	7.817162E-1	7.814350E-1	8.284795E-1	7.975149E-1	8.127880E-1	7.722283E-1	7.678703E-1	7.695891E-1	7.969690E-1	7.581909E-1	7.801336E-1	7.002486E-1	7.742212E-1	8.081177E-1	7.519237E-1	8.265052E-1	8.068753E-1	7.703515E-1	7.917428E-1	7.960980E-1	7.622783E-1	7.888689E-1	7.465279E-1	7.459466E-1	7.949983E-1	6.890029E-1	7.453815E-1	7.626525E-1	8.172852E-1	6.864001E-1	7.655129E-1	7.900991E-1	7.727590E-1	6.797859E-1	7.965948E-1	7.445139E-1	7.948139E-1	7.678487E-1	7.222978E-1	7.717888E-1	7.963100E-1	7.324013E-1	7.778216E-1	8.028315E-1	7.919689E-1	5.818394E-1	7.783633E-1	8.009392E-1	8.040746E-1	7.001475E-1	8.115225E-1	7.476728E-1	8.210365E-1	8.202918E-1	7.252161E-1	7.901394E-1	8.049444E-1	6.941985E-1	7.734131E-1	8.178411E-1	7.672598E-1	6.738743E-1	7.685283E-1	8.042905E-1	8.255795E-1	7.630263E-1	8.060151E-1	7.424930E-1	7.726616E-1	7.555055E-1	7.592497E-1	8.119178E-1	8.007630E-1	7.296265E-1	8.047512E-1	7.586929E-1	7.494812E-1	7.073371E-1	7.734817E-1	8.040982E-1	7.585783E-1	7.974631E-1	7.735132E-1	8.172938E-1	8.280305E-1	7.833217E-1	8.278246E-1	8.044272E-1	7.809427E-1	6.968524E-1	8.078082E-1	7.588251E-1	8.163722E-1	6.197801E-1	7.768026E-1	8.152985E-1	7.597363E-1	7.268591E-1	8.025856E-1	7.877567E-1	6.966917E-1
2.955070E+2	9.126784E-1	8.209221E-1	7.905040E-1	7.959698E-1	7.899846E-1	7.600507E-1	8.079133E-1	8.013519E-1	8.011665E-1	7.616850E-1	8.037631E-1	7.864558E-1	8.383582E-1	8.324438E-1	7.976487E-1	8.204129E-1	7.916776E-1	7.399855E-1	7.911458E-1	8.460177E-1	8.398428E-1	7.148112E-1	8.128190E-1	8.451105E-1	7.901323E-1	7.446160E-1	8.295552E-1	8.945395E-1	8.323891E-1	8.902556E-1	8.208146E-1	8.519556E-1	8.068426E-1	7.840587E-1	8.222513E-1	8.124294E-1	8.210234E-1	7.385810E-1	8.143301E-1	8.570641E-1	8.047143E-1	7.886741E-1	8.360660E-1	7.760125E-1	8.070826E-1	8.159566E-1	8.394776E-1	8.388885E-1	7.938475E-1	8.240629E-1	8.311931E-1	8.211351E-1	8.050362E-1	7.180669E-1	8.059922E-1	7.929070E-1	8.047853E-1	7.862596E-1	8.786191E-1	8.375701E-1	8.168124E-1	8.199791E-1	8.585885E-1	8.024385E-1	8.577550E-1	7.738226E-1	8.020238E-1	7.757249E-1	8.016126E-1	8.074075E-1	8.413552E-1	7.891795E-1	8.332234E-1	8.109105E-1	8.610215E-1	8.189252E-1	8.187297E-1	8.477705E-1	7.933078E-1	8.335068E-1	8.211987E-1	8.497458E-1	8.134885E-1	7.732298E-1	7.904058E-1	7.894949E-1	7.972078E-1	8.522639E-1	8.741591E-1	8.288479E-1	8.597669E-1	8.410509E-1	8.331086E-1	8.491605E-1	8.345697E-1	8.222430E-1	8.282957E-1	8.432757E-1	8.374570E-1	8.219814E-1	8.014040E-1	8.265674E-1	8.588405E-1	7.877231E-1	8.189325E-1	8.545787E-1	7.715906E-1	8.138378E-1	7.736187E-1	7.736290E-1	7.595710E-1	7.842621E-1	7.907207E-1	8.159913E-1	8.272329E-1	8.331981E-1	7.513857E-1	8.095722E-1	8.215162E-1	8.418394E-1	8.081132E-1	8.393003E-1	8.128352E-1	8.100691E-1	7.788213E-1	7.885363E-1	8.228839E-1	8.033973E-1	7.748275E-1	8.227034E-1	8.525236E-1	8.409023E-1	6.708795E-1	8.371115E-1	8.105365E-1	7.879900E-1	7.327937E-1	8.172074E-1	7.825293E-1	8.121313E-1	8.113241E-1	7.805041E-1	7.973320E-1	8.359911E-1	8.172667E-1	8.283887E-1	8.491831E-1	8.758941E-1	6.751851E-1	8.089536E-1	8.539385E-1	8.180570E-1	8.056678E-1	8.259624E-1	8.014901E-1	8.299388E-1	8.128901E-1	8.838428E-1	8.413870E-1	7.913737E-1	7.415862E-1	8.078076E-1	7.885030E-1	8.467125E-1	6.906327E-1	8.199464E-1	8.100126E-1	7.852584E-1	7.092011E-1	8.790044E-1	8.620049E-1	7.270860E-1
2.960030E+2	8.291949E-1	7.971619E-1	7.905045E-1	8.152729E-1	8.724276E-1	6.974897E-1	8.512005E-1	8.158542E-1	8.487145E-1	8.291978E-1	8.727404E-1	9.020247E-1	9.051124E-1	8.654723E-1	8.239494E-1	8.180757E-1	8.242069E-1	8.336454E-1	8.637425E-1	8.413887E-1	8.148369E-1	7.321591E-1	8.703925E-1	8.417699E-1	8.427046E-1	8.166759E-1	8.263217E-1	8.051480E-1	8.316073E-1	8.373734E-1	8.579624E-1	8.318409E-1	8.438955E-1	7.514375E-1	8.301125E-1	8.544574E-1	8.550588E-1	7.363069E-1	8.690750E-1	8.297687E-1	8.806895E-1	8.199816E-1	8.417950E-1	8.382498E-1	8.087182E-1	8.404415E-1	9.054791E-1	8.319461E-1	8.180830E-1	8.508333E-1	8.311940E-1	7.865461E-1	8.431893E-1	7.673132E-1	7.986831E-1	8.661475E-1	8.520758E-1	8.671107E-1	8.354148E-1	8.348709E-1	8.340344E-1	8.525410E-1	8.375710E-1	8.815629E-1	8.032600E-1	8.177636E-1	8.993318E-1	8.428697E-1	8.263502E-1	8.246158E-1	8.098951E-1	8.292913E-1	8.832569E-1	8.515948E-1	8.398524E-1	8.209714E-1	8.144245E-1	8.250535E-1	8.831004E-1	8.185592E-1	8.287593E-1	8.815439E-1	8.848577E-1	8.099498E-1	8.381519E-1	7.807015E-1	8.594645E-1	9.101132E-1	8.723850E-1	8.509115E-1	8.636845E-1	8.354237E-1	8.552282E-1	8.627318E-1	8.450438E-1	9.288171E-1	8.174417E-1	8.122135E-1	8.066002E-1	8.971349E-1	8.681794E-1	8.469194E-1	8.444128E-1	8.209786E-1	8.349874E-1	8.085592E-1	8.895077E-1	8.500733E-1	8.123557E-1	8.298478E-1	8.532440E-1	8.783879E-1	8.116791E-1	8.074023E-1	8.321138E-1	8.867950E-1	8.268251E-1	8.416474E-1	8.349370E-1	8.137586E-1	8.760565E-1	8.590152E-1	7.933707E-1	8.180461E-1	8.175873E-1	8.637297E-1	8.496746E-1	8.374325E-1	8.810220E-1	8.621359E-1	8.440869E-1	8.473460E-1	8.558462E-1	8.524529E-1	8.631823E-1	8.956325E-1	8.418138E-1	8.125435E-1	8.544128E-1	8.185576E-1	8.444656E-1	8.277359E-1	8.410900E-1	8.680897E-1	7.859670E-1	8.472999E-1	8.818602E-1	8.168402E-1	8.037919E-1	8.313565E-1	8.406477E-1	8.208022E-1	8.694824E-1	8.574322E-1	8.414136E-1	8.652558E-1	8.572422E-1	8.475956E-1	8.544755E-1	7.921768E-1	7.846310E-1	8.514066E-1	8.478600E-1	8.514534E-1	7.496767E-1	8.363415E-1	8.575835E-1	7.896594E-1	7.820386E-1	8.805319E-1	8.260046E-1	9.322461E-1
2.964980E+2	7.984880E-1	6.678035E-1	7.398814E-1	8.051135E-1	7.762439E-1	6.846573E-1	8.466910E-1	7.061820E-1	7.614009E-1	7.123480E-1	7.195467E-1	7.391372E-1	7.355412E-1	7.583325E-1	7.457572E-1	7.791200E-1	7.193002E-1	7.161114E-1	6.838991E-1	7.654765E-1	7.712552E-1	6.785391E-1	7.649763E-1	7.616116E-1	7.617609E-1	6.816674E-1	7.301176E-1	6.856246E-1	7.487791E-1	7.222256E-1	7.822087E-1	7.787384E-1	7.663445E-1	6.836865E-1	7.532478E-1	7.545240E-1	7.612874E-1	6.438182E-1	7.891306E-1	7.329124E-1	7.228283E-1	7.242173E-1	7.577594E-1	7.546190E-1	7.457311E-1	7.759639E-1	7.824402E-1	7.532545E-1	7.748047E-1	7.535700E-1	7.464099E-1	7.893506E-1	8.050363E-1	6.934443E-1	7.785817E-1	7.701780E-1	7.786065E-1	7.079885E-1	7.490080E-1	7.610802E-1	7.056459E-1	7.260149E-1	7.464973E-1	7.815375E-1	7.303055E-1	7.053562E-1	7.730935E-1	7.812436E-1	7.186687E-1	6.654365E-1	7.590747E-1	7.360079E-1	7.656351E-1	7.045769E-1	7.174411E-1	7.217389E-1	7.481165E-1	6.770021E-1	7.712834E-1	7.604316E-1	7.506297E-1	7.792739E-1	7.735218E-1	7.077292E-1	7.395791E-1	7.135533E-1	7.560083E-1	7.783966E-1	7.002593E-1	7.205414E-1	7.676923E-1	7.716565E-1	7.880179E-1	7.643401E-1	7.548085E-1	7.717602E-1	7.486998E-1	7.425583E-1	7.364714E-1	7.449503E-1	7.524343E-1	7.557786E-1	7.731258E-1	7.519742E-1	7.556028E-1	7.441321E-1	7.349054E-1	7.404600E-1	7.431229E-1	7.190386E-1	7.774904E-1	7.601654E-1	7.998323E-1	7.596909E-1	7.911181E-1	7.806317E-1	7.832723E-1	7.870329E-1	7.186314E-1	7.130523E-1	7.485455E-1	7.559643E-1	7.544428E-1	7.841474E-1	7.039932E-1	7.307567E-1	8.303255E-1	7.778712E-1	7.767940E-1	7.456309E-1	8.103423E-1	7.525315E-1	7.525034E-1	7.748447E-1	7.453995E-1	7.563803E-1	7.822648E-1	7.416642E-1	7.652412E-1	7.735788E-1	7.799260E-1	7.450801E-1	7.305438E-1	7.819751E-1	7.653990E-1	7.489661E-1	7.545028E-1	7.623994E-1	7.823582E-1	7.398777E-1	7.534263E-1	7.549185E-1	7.245309E-1	7.210633E-1	7.582396E-1	7.755331E-1	7.556017E-1	7.932247E-1	7.266606E-1	7.319962E-1	7.584667E-1	7.401844E-1	7.381396E-1	7.120728E-1	7.201553E-1	7.517794E-1	7.615621E-1	7.430151E-1	7.445170E-1	7.964720E-1	6.392597E-1	7.802762E-1
2.970020E+2	8.426297E-1	7.443624E-1	8.134281E-1	8.802913E-1	8.756605E-1	7.648632E-1	8.475920E-1	8.385133E-1	8.884805E-1	8.326599E-1	8.061691E-1	8.601655E-1	8.544718E-1	8.856105E-1	8.239492E-1	8.235296E-1	8.437240E-1	8.465010E-1	8.373432E-1	8.173195E-1	8.234106E-1	7.321590E-1	8.695820E-1	7.958458E-1	8.343593E-1	7.164550E-1	8.303636E-1	8.001250E-1	8.105101E-1	8.134903E-1	8.200862E-1	8.704616E-1	8.594045E-1	8.200256E-1	8.397202E-1	8.170993E-1	8.293585E-1	7.264517E-1	8.273655E-1	8.244853E-1	8.553642E-1	8.282691E-1	8.160114E-1	8.333875E-1	8.209890E-1	8.551325E-1	8.517010E-1	8.404322E-1	8.648250E-1	8.544018E-1	7.974617E-1	8.276787E-1	8.637922E-1	7.484351E-1	8.443672E-1	8.274236E-1	8.098523E-1	7.845396E-1	8.389420E-1	8.636671E-1	8.199432E-1	8.553320E-1	8.212249E-1	8.576757E-1	8.102910E-1	7.738228E-1	8.362126E-1	8.612647E-1	8.045230E-1	8.306386E-1	7.921487E-1	8.544771E-1	8.534127E-1	8.183081E-1	8.508968E-1	8.414321E-1	8.058128E-1	8.352378E-1	8.449809E-1	8.650608E-1	7.901147E-1	8.428709E-1	8.049242E-1	8.059796E-1	8.173586E-1	8.094795E-1	8.255895E-1	8.540438E-1	8.085033E-1	7.807128E-1	8.656434E-1	8.532415E-1	8.816016E-1	8.610354E-1	8.385980E-1	8.743282E-1	8.545263E-1	8.329218E-1	8.711184E-1	7.891027E-1	8.140172E-1	8.433804E-1	8.554453E-1	8.384372E-1	8.546098E-1	8.481363E-1	8.449610E-1	8.011548E-1	8.016420E-1	8.339220E-1	8.508004E-1	8.475143E-1	8.727313E-1	9.009189E-1	8.887266E-1	8.692725E-1	8.206036E-1	7.957016E-1	7.776786E-1	8.340930E-1	8.090439E-1	8.670798E-1	8.238368E-1	7.941173E-1	8.338144E-1	8.518569E-1	8.273484E-1	8.559967E-1	8.230086E-1	8.486929E-1	8.281522E-1	8.510281E-1	8.094169E-1	8.425271E-1	8.194591E-1	8.896520E-1	8.097495E-1	9.160646E-1	8.271151E-1	8.754683E-1	7.877753E-1	8.269479E-1	8.004030E-1	8.610432E-1	8.360474E-1	8.454088E-1	8.273984E-1	8.352938E-1	8.524324E-1	8.332228E-1	7.692090E-1	9.040718E-1	8.512501E-1	8.641084E-1	8.414141E-1	8.728923E-1	8.249024E-1	8.566567E-1	8.814250E-1	8.170505E-1	8.665027E-1	8.487383E-1	8.163829E-1	8.087863E-1	8.559569E-1	8.156320E-1	8.549405E-1	8.512655E-1	8.129394E-1	7.949440E-1	7.810069E-1	8.942531E-1
2.975020E+2	9.769701E-1	9.054012E-1	9.395072E-1	9.605489E-1	9.872020E-1	8.458710E-1	9.531060E-1	9.481850E-1	9.092292E-1	9.339298E-1	9.088330E-1	9.202242E-1	9.557524E-1	9.814722E-1	9.376834E-1	9.403972E-1	8.795068E-1	9.392435E-1	9.577893E-1	9.330381E-1	9.448677E-1	8.244181E-1	9.198564E-1	9.227638E-1	9.386671E-1	8.945331E-1	9.298005E-1	9.347139E-1	9.769484E-1	8.928143E-1	9.031226E-1	9.388511E-1	9.093820E-1	8.944693E-1	9.392950E-1	9.310428E-1	9.106281E-1	8.431996E-1	9.194754E-1	9.539198E-1	9.524441E-1	8.669427E-1	9.640306E-1	9.442463E-1	9.649613E-1	8.853296E-1	9.454067E-1	9.229805E-1	9.202222E-1	9.141876E-1	9.442378E-1	9.557517E-1	9.309424E-1	8.108135E-1	9.101535E-1	9.225509E-1	9.407454E-1	8.868937E-1	9.429829E-1	9.428573E-1	9.287601E-1	9.688339E-1	9.270887E-1	9.158990E-1	9.386196E-1	9.557175E-1	9.379038E-1	9.081742E-1	9.311222E-1	8.719396E-1	9.179889E-1	9.524256E-1	9.166118E-1	8.987519E-1	9.558208E-1	9.191811E-1	9.504840E-1	1.007573E+0	9.220669E-1	9.265094E-1	8.934472E-1	9.296716E-1	9.219696E-1	9.419428E-1	9.482754E-1	9.421780E-1	9.482721E-1	9.279113E-1	9.309425E-1	9.481863E-1	9.763284E-1	9.779631E-1	9.266930E-1	9.450075E-1	9.521970E-1	9.039762E-1	9.422628E-1	9.807036E-1	9.534038E-1	9.262574E-1	9.609235E-1	9.380600E-1	9.691652E-1	9.914095E-1	9.438063E-1	9.272892E-1	9.768539E-1	9.406637E-1	9.063157E-1	9.390274E-1	9.412158E-1	8.942017E-1	9.419849E-1	8.913761E-1	9.775503E-1	9.434830E-1	9.108198E-1	9.292034E-1	9.718184E-1	9.570713E-1	9.570313E-1	9.351829E-1	9.566999E-1	9.895310E-1	9.275768E-1	9.460453E-1	9.106975E-1	9.287071E-1	9.282192E-1	9.571319E-1	9.040774E-1	9.375575E-1	9.105120E-1	9.435978E-1	9.399187E-1	9.383479E-1	9.691566E-1	9.188625E-1	9.517741E-1	9.709324E-1	9.683116E-1	9.371557E-1	9.539389E-1	9.119286E-1	9.594588E-1	9.825080E-1	9.354840E-1	8.943484E-1	9.612532E-1	9.349695E-1	9.461442E-1	9.754465E-1	9.834382E-1	9.537497E-1	9.262530E-1	9.931602E-1	8.951258E-1	9.291522E-1	9.953805E-1	9.245739E-1	9.576576E-1	9.483930E-1	9.467887E-1	9.548052E-1	9.681404E-1	9.649093E-1	8.822493E-1	9.982397E-1	9.210927E-1	9.324966E-1	8.732538E-1	9.626402E-1
2.980020E+2	1.023030E+0	9.476403E-1	9.796235E-1	1.029631E+0	9.896272E-1	8.538914E-1	1.012625E+0	1.041542E+0	1.116706E+0	9.469129E-1	1.049192E+0	1.078562E+0	1.016369E+0	9.951670E-1	1.047863E+0	9.770158E-1	1.039712E+0	9.374066E-1	1.057610E+0	1.054310E+0	1.039891E+0	8.914443E-1	1.013109E+0	1.033817E+0	1.002921E+0	9.508559E-1	9.783076E-1	1.009040E+0	1.008205E+0	9.687251E-1	1.035692E+0	1.038620E+0	1.022259E+0	9.914958E-1	1.018780E+0	9.805425E-1	1.007178E+0	9.326552E-1	1.007241E+0	9.979461E-1	1.049525E+0	9.277162E-1	1.067165E+0	9.695299E-1	1.009952E+0	1.004489E+0	9.682217E-1	9.993576E-1	1.029285E+0	9.962823E-1	9.980244E-1	1.000623E+0	1.023273E+0	9.610142E-1	1.091978E+0	1.015153E+0	1.016749E+0	1.021933E+0	1.014401E+0	1.020247E+0	9.671203E-1	1.056286E+0	1.058640E+0	9.905447E-1	1.006299E+0	9.884194E-1	1.014172E+0	1.007512E+0	1.011157E+0	9.837955E-1	1.004302E+0	1.033582E+0	1.057055E+0	9.847436E-1	1.058905E+0	1.053197E+0	1.040904E+0	9.707556E-1	1.058450E+0	1.026158E+0	1.006021E+0	1.003581E+0	1.055193E+0	1.027292E+0	1.012193E+0	9.973352E-1	1.070039E+0	9.786414E-1	1.020555E+0	9.852922E-1	9.861229E-1	1.019224E+0	1.050904E+0	1.058669E+0	1.010205E+0	1.012153E+0	1.030000E+0	9.967057E-1	1.016052E+0	1.026773E+0	1.034377E+0	9.584106E-1	9.963221E-1	9.822638E-1	1.058869E+0	9.668661E-1	1.024894E+0	1.029442E+0	1.003572E+0	1.017246E+0	1.064213E+0	1.016943E+0	1.013061E+0	1.030694E+0	9.843822E-1	1.086752E+0	1.067144E+0	1.017626E+0	9.977634E-1	1.025821E+0	1.007291E+0	9.988051E-1	9.981668E-1	1.049352E+0	1.070921E+0	9.959112E-1	1.032745E+0	1.036227E+0	1.031465E+0	1.066467E+0	1.014686E+0	1.025007E+0	1.031077E+0	1.047377E+0	1.021118E+0	1.003275E+0	1.005802E+0	1.057822E+0	9.827115E-1	1.009485E+0	1.005815E+0	1.061532E+0	1.025333E+0	9.714263E-1	9.916533E-1	9.929083E-1	1.033515E+0	9.967705E-1	1.079967E+0	9.797756E-1	9.910013E-1	1.030349E+0	1.028109E+0	1.057695E+0	9.894644E-1	9.597514E-1	1.054054E+0	1.031305E+0	1.038498E+0	1.011234E+0	1.028557E+0	1.006229E+0	9.728697E-1	1.000316E+0	1.000615E+0	9.907959E-1	1.085743E+0	1.003520E+0	9.939301E-1	1.025728E+0	1.010501E+0	1.050025E+0
2.985010E+2	9.827273E-1	1.027719E+0	1.006368E+0	9.981369E-1	9.661873E-1	1.086489E+0	9.882768E-1	9.871603E-1	9.974062E-1	9.659549E-1	9.625710E-1	9.939338E-1	9.948850E-1	9.460273E-1	9.753575E-1	1.015193E+0	9.941716E-1	9.842372E-1	9.841878E-1	9.385921E-1	9.577277E-1	9.758180E-1	1.000946E+0	9.670182E-1	9.887348E-1	1.000553E+0	9.871995E-1	9.718774E-1	1.037117E+0	9.687254E-1	9.934441E-1	9.412655E-1	9.860697E-1	9.203988E-1	9.724863E-1	9.936176E-1	9.752258E-1	8.833783E-1	1.002027E+0	9.759329E-1	9.372498E-1	9.534989E-1	9.286961E-1	9.850889E-1	9.698700E-1	9.800040E-1	9.421474E-1	9.499820E-1	1.018899E+0	9.793280E-1	9.752339E-1	1.018385E+0	9.645176E-1	9.019183E-1	1.016142E+0	9.949491E-1	1.041239E+0	9.049564E-1	9.888313E-1	9.698531E-1	9.906058E-1	9.334800E-1	9.325377E-1	1.010699E+0	9.983890E-1	9.352805E-1	9.861195E-1	1.023148E+0	9.631357E-1	9.201231E-1	9.623549E-1	9.710817E-1	9.640114E-1	9.671753E-1	9.567422E-1	1.012276E+0	9.694294E-1	9.738881E-1	9.330789E-1	9.647079E-1	1.011061E+0	9.502977E-1	9.828711E-1	9.915644E-1	9.867798E-1	9.317855E-1	9.555962E-1	9.768602E-1	9.930503E-1	9.130867E-1	9.635956E-1	9.873404E-1	9.488128E-1	9.187135E-1	9.755615E-1	9.873127E-1	1.011909E+0	9.439928E-1	9.683637E-1	9.337716E-1	9.312456E-1	9.681454E-1	1.000566E+0	1.015519E+0	9.215079E-1	9.493787E-1	9.925755E-1	9.859583E-1	9.739001E-1	9.634706E-1	9.721694E-1	9.348649E-1	9.884579E-1	9.829826E-1	1.003904E+0	9.640969E-1	9.730390E-1	9.604116E-1	9.843431E-1	9.638492E-1	9.905376E-1	9.468327E-1	1.015938E+0	9.546362E-1	9.537209E-1	9.967020E-1	9.345114E-1	9.627421E-1	9.547695E-1	1.007319E+0	9.818780E-1	9.375576E-1	9.561919E-1	1.019403E+0	9.657951E-1	9.870431E-1	9.819830E-1	9.580327E-1	9.408553E-1	9.525740E-1	9.569731E-1	9.749407E-1	1.026869E+0	9.847335E-1	9.818157E-1	9.881809E-1	9.949730E-1	9.884661E-1	9.777410E-1	9.919100E-1	9.403293E-1	9.562299E-1	1.008053E+0	9.213257E-1	9.894645E-1	9.683427E-1	9.514898E-1	9.291522E-1	9.545718E-1	9.727180E-1	9.677862E-1	9.964405E-1	9.719706E-1	9.908343E-1	9.888059E-1	9.640467E-1	9.562472E-1	1.016722E+0	9.553041E-1	9.691780E-1	1.044248E+0	9.854349E-1
2.990010E+2	9.875262E-1	1.039160E+0	9.977716E-1	9.818832E-1	1.001751E+0	1.069645E+0	1.027956E+0	9.753768E-1	9.844390E-1	1.062031E+0	1.026735E+0	9.875628E-1	9.864450E-1	1.038667E+0	9.895742E-1	1.027659E+0	9.941721E-1	1.056777E+0	1.015537E+0	1.027464E+0	1.008454E+0	1.075962E+0	9.936484E-1	9.812127E-1	1.057995E+0	9.798449E-1	9.863919E-1	1.017074E+0	9.628834E-1	9.926081E-1	1.001457E+0	1.021724E+0	1.030015E+0	1.045029E+0	9.873347E-1	1.033778E+0	1.046075E+0	1.133553E+0	1.013324E+0	9.653666E-1	1.020823E+0	1.069521E+0	9.764445E-1	1.038574E+0	1.027131E+0	1.038767E+0	1.049704E+0	1.000129E+0	1.003318E+0	9.811128E-1	9.816154E-1	9.940791E-1	1.020984E+0	1.022571E+0	9.786805E-1	9.663263E-1	1.020971E+0	1.053757E+0	1.007348E+0	1.060743E+0	1.005480E+0	9.911616E-1	9.792426E-1	9.897986E-1	1.022120E+0	9.618498E-1	1.045732E+0	9.431265E-1	1.001698E+0	9.536801E-1	1.001882E+0	1.003732E+0	1.023700E+0	9.449835E-1	9.880356E-1	9.703326E-1	9.504842E-1	1.014622E+0	1.052520E+0	1.008720E+0	1.000140E+0	1.003581E+0	1.019031E+0	9.885868E-1	9.644474E-1	9.229921E-1	1.010529E+0	1.019580E+0	9.832901E-1	9.521981E-1	1.000817E+0	9.798378E-1	1.021127E+0	1.040007E+0	1.040015E+0	1.020167E+0	9.703017E-1	9.647015E-1	9.964163E-1	1.010803E+0	1.046249E+0	9.442545E-1	9.810469E-1	1.054593E+0	1.001784E+0	1.000920E+0	1.007424E+0	1.030348E+0	9.887362E-1	9.993211E-1	9.957921E-1	1.058359E+0	1.003949E+0	1.022106E+0	9.804786E-1	1.006356E+0	1.013481E+0	9.742819E-1	1.002237E+0	1.034537E+0	1.047313E+0	1.006869E+0	9.981667E-1	1.001495E+0	9.645393E-1	9.935363E-1	1.005954E+0	1.005286E+0	1.022616E+0	9.508591E-1	1.026871E+0	9.946307E-1	1.008612E+0	9.553305E-1	9.979175E-1	9.870426E-1	1.020461E+0	1.027046E+0	1.020929E+0	1.044366E+0	1.006686E+0	9.930466E-1	9.608480E-1	1.045797E+0	9.809216E-1	1.039239E+0	1.001676E+0	9.949253E-1	9.645504E-1	1.005912E+0	1.008445E+0	1.011133E+0	9.770567E-1	1.023363E+0	9.952863E-1	9.941133E-1	1.033726E+0	1.006591E+0	9.692008E-1	1.005617E+0	9.635661E-1	1.031142E+0	1.054710E+0	1.007901E+0	9.784738E-1	1.027900E+0	1.014389E+0	1.010561E+0	1.013795E+0	1.042540E+0	9.407509E-1	9.436439E-1
2.995040E+2	1.048938E+0	1.048839E+0	1.093287E+0	1.047917E+0	1.021958E+0	1.092905E+0	1.018938E+0	1.052419E+0	9.930839E-1	1.048183E+0	1.037162E+0	1.073103E+0	1.028645E+0	1.056389E+0	1.059236E+0	1.028438E+0	1.058417E+0	1.061369E+0	1.011412E+0	1.042276E+0	1.068469E+0	1.135104E+0	1.056898E+0	1.068886E+0	1.030458E+0	1.065158E+0	1.064001E+0	1.070307E+0	1.002735E+0	1.123108E+0	1.048803E+0	1.037011E+0	1.031738E+0	1.072631E+0	1.079048E+0	1.016967E+0	1.046770E+0	1.119148E+0	1.012455E+0	1.065744E+0	1.030954E+0	1.096225E+0	1.046156E+0	1.024960E+0	1.005044E+0	1.050194E+0	1.061927E+0	1.088077E+0	9.946618E-1	1.073022E+0	1.065486E+0	9.996881E-1	1.046166E+0	1.171950E+0	1.019797E+0	1.038725E+0	1.015060E+0	1.091603E+0	1.040853E+0	1.027447E+0	1.074371E+0	1.055355E+0	1.059419E+0	1.079373E+0	1.063432E+0	1.069148E+0	1.036089E+0	1.071897E+0	1.071545E+0	1.167067E+0	1.078516E+0	1.044776E+0	1.029844E+0	1.091077E+0	1.072711E+0	9.938615E-1	1.048655E+0	1.034989E+0	1.048285E+0	1.031140E+0	1.083310E+0	1.061161E+0	1.028548E+0	1.027292E+0	1.039916E+0	1.082870E+0	1.006867E+0	1.069418E+0	1.050720E+0	1.091593E+0	1.029222E+0	9.798384E-1	9.998574E-1	9.916597E-1	1.072241E+0	1.049815E+0	1.021859E+0	1.072009E+0	1.031012E+0	1.065289E+0	1.010634E+0	1.028315E+0	1.042998E+0	9.656365E-1	1.056194E+0	1.008283E+0	9.978163E-1	9.950174E-1	1.095058E+0	1.009099E+0	1.028374E+0	1.091491E+0	1.025818E+0	1.022107E+0	1.076135E+0	1.014602E+0	1.064811E+0	1.003757E+0	1.072915E+0	1.024854E+0	1.040797E+0	1.074973E+0	1.035401E+0	9.935201E-1	1.024041E+0	1.008574E+0	1.081860E+0	1.033906E+0	1.081613E+0	1.038686E+0	1.052179E+0	1.054464E+0	1.076758E+0	1.020305E+0	1.061271E+0	1.057950E+0	1.031454E+0	1.039170E+0	1.111010E+0	1.014075E+0	1.051167E+0	1.036342E+0	1.085981E+0	1.061454E+0	1.060513E+0	9.929093E-1	1.005865E+0	1.031834E+0	9.810390E-1	1.049784E+0	1.054133E+0	9.946624E-1	9.788802E-1	1.083442E+0	1.076798E+0	1.095291E+0	1.045738E+0	1.083205E+0	1.033879E+0	1.040120E+0	1.034465E+0	1.030253E+0	1.015139E+0	1.017383E+0	1.051541E+0	1.048609E+0	1.026721E+0	9.920794E-1	1.102083E+0	9.645927E-1	1.077998E+0	1.061422E+0
3.000060E+2	9.808084E-1	1.031240E+0	9.834435E-1	9.818825E-1	1.033274E+0	1.051198E+0	9.990981E-1	9.953168E-1	9.991353E-1	1.042989E+0	1.015507E+0	9.466144E-1	1.017904E+0	9.822777E-1	9.902856E-1	1.011297E+0	1.034020E+0	1.020966E+0	9.734635E-1	1.004320E+0	9.805902E-1	1.097254E+0	1.015542E+0	1.026302E+0	9.812245E-1	1.109056E+0	1.054300E+0	9.969875E-1	1.012112E+0	1.054020E+0	1.017482E+0	1.022528E+0	1.020536E+0	1.075977E+0	1.003056E+0	1.044052E+0	1.014123E+0	1.088066E+0	1.045476E+0	1.041090E+0	1.009004E+0	1.086096E+0	1.017507E+0	1.037601E+0	1.023041E+0	1.041216E+0	1.032593E+0	1.039474E+0	1.033614E+0	1.056067E+0	1.035402E+0	1.031473E+0	1.014117E+0	1.131733E+0	9.832490E-1	1.062296E+0	9.652355E-1	1.040856E+0	1.005584E+0	9.788526E-1	1.033663E+0	9.948830E-1	1.043072E+0	1.013685E+0	9.711410E-1	1.089585E+0	9.799840E-1	1.046143E+0	1.021343E+0	1.103395E+0	1.034956E+0	9.944024E-1	1.008778E+0	1.113269E+0	9.677863E-1	1.051151E+0	1.040043E+0	9.981722E-1	9.855990E-1	1.042765E+0	1.006021E+0	1.051707E+0	9.923877E-1	1.023323E+0	1.048388E+0	1.122839E+0	1.008697E+0	1.027589E+0	1.021442E+0	1.109644E+0	1.043915E+0	1.055796E+0	1.052606E+0	1.045944E+0	9.497805E-1	1.026577E+0	1.023668E+0	1.041888E+0	1.034753E+0	1.037106E+0	1.016571E+0	1.162814E+0	1.009901E+0	9.905782E-1	1.017839E+0	1.147262E+0	1.000437E+0	1.018571E+0	1.032418E+0	1.071836E+0	9.982352E-1	1.004141E+0	1.026729E+0	1.050734E+0	9.775501E-1	9.847110E-1	9.707055E-1	1.114720E+0	9.709237E-1	9.938673E-1	9.570307E-1	1.037337E+0	9.956274E-1	1.011466E+0	1.059201E+0	1.059231E+0	1.034232E+0	1.033132E+0	9.813169E-1	9.795372E-1	1.020310E+0	1.050783E+0	1.016849E+0	1.013987E+0	1.013980E+0	1.026341E+0	9.911438E-1	9.990674E-1	9.927206E-1	1.008567E+0	1.011047E+0	9.969824E-1	9.470300E-1	1.024660E+0	1.025637E+0	1.004255E+0	1.028487E+0	1.093656E+0	1.035449E+0	1.037649E+0	1.059947E+0	1.032180E+0	1.024463E+0	9.604244E-1	1.022734E+0	9.893416E-1	1.019866E+0	1.020595E+0	1.008470E+0	1.045737E+0	1.047969E+0	9.875427E-1	1.038522E+0	1.028761E+0	1.012424E+0	1.003740E+0	1.034650E+0	9.788776E-1	1.013795E+0	1.065464E+0	1.053248E+0	9.968342E-1
