Photon Energy (eV)	#1	#2	#3	#4	#5	#6	#7	#8	#9	#10	#11	#12	#13	#14	#15	#16	#17	#18	#19	#20	#21	#22	#23	#24	#25	#26	#27	#28	#29	#30	#31	#32	#33	#34	#35	#36	#37	#38	#39	#40	#41	#42	#43	#44	#45	#46	#47	#48	#49	#50	#51	#52	#53	#54	#55	#56	#57	#58	#59	#60	#61	#62	#63	#64	#65	#66	#67	#68	#69	#70	#71	#72	#73	#74	#75	#76	#77	#78	#79	#80	#81	#82	#83	#84	#85	#86	#87	#88	#89	#90	#91	#92	#93	#94	#95	#96	#97	#98	#99	#100	#101	#102	#103	#104	#105	#106	#107	#108	#109	#110	#111	#112	#113	#114	#115	#116	#117	#118	#119	#120	#121	#122	#123	#124	#125	#126	#127	#128	#129	#130	#131	#132	#133	#134	#135	#136	#137	#138	#139	#140	#141	#142	#143	#144	#145	#146	#147	#148	#149	#150	#151	#152	#153	#154	#155	#156	#157	#158	#159	#160	#161	#162	#163	#164	#165	#166	#167	#168	#169	#170	#171	#172	
2.790030E+2	-5.478953E-3	-8.711885E-3	-5.429294E-4	-8.718115E-3	-6.969519E-3	-2.718726E-3	-8.006590E-3	8.709686E-3	-5.288437E-3	-2.340467E-3	-4.553138E-3	-8.156023E-3	-1.141598E-2	-1.761406E-2	-4.118272E-3	-8.501794E-3	5.942346E-3	-1.152321E-2	-6.643228E-3	2.745919E-3	-4.424169E-4	-5.134291E-3	4.012577E-3	-1.105867E-2	-1.902502E-2	-1.032870E-2	-6.422210E-3	-9.757048E-3	-1.219710E-2	-4.413936E-3	1.757455E-3	6.452949E-3	2.109996E-3	-4.364293E-3	-5.620603E-3	1.366648E-3	-5.443180E-3	6.036229E-3	2.579407E-4	-1.559223E-2	-7.394027E-3	-8.824413E-3	1.044751E-2	-5.758521E-3	-9.953954E-3	-7.915307E-3	3.021923E-3	6.940351E-3	5.928134E-3	-1.312569E-2	-4.584527E-3	-5.568938E-3	-8.621123E-3	-3.538228E-3	-4.350795E-3	-5.900661E-3	1.187908E-2	-1.090274E-2	1.516583E-3	-3.429372E-4	1.877602E-3	6.596378E-3	-3.278378E-3	-3.605181E-3	-8.357206E-3	-3.719760E-3	-2.159426E-2	-8.293635E-3	-5.052322E-3	-2.975144E-3	1.559348E-3	-1.082524E-2	-2.297974E-3	-1.633866E-2	7.443999E-3	-1.251438E-2	-1.722857E-3	-8.453181E-3	-1.998999E-2	-8.965308E-3	-1.619222E-2	-3.898660E-3	2.623378E-3	-6.846907E-3	4.592576E-3	-4.712394E-3	-1.591704E-2	1.008934E-3	6.555421E-3	8.745562E-4	-1.030604E-3	-3.169892E-3	-1.926489E-2	-7.696946E-3	4.485843E-4	4.314960E-3	-7.457929E-3	-8.110179E-3	-6.863492E-3	-1.946487E-2	-7.040128E-3	-1.168468E-2	8.336414E-3	9.261111E-3	5.023797E-3	-1.514349E-2	-1.284471E-3	3.549112E-3	-1.207814E-2	6.814357E-3	1.728037E-3	-6.714972E-3	-4.913308E-3	-2.192334E-3	-9.290592E-3	-2.427044E-3	1.587550E-3	-2.043144E-2	-1.388574E-2	-1.407412E-2	-3.812586E-3	-3.364341E-4	-4.348727E-3	-2.277991E-3	5.926978E-3	-1.060284E-2	-7.035288E-3	2.217368E-3	3.264453E-3	-9.966137E-3	-1.458625E-2	-4.902055E-3	7.630501E-6	-6.313305E-3	-1.410392E-2	-8.464360E-4	-9.775531E-3	-1.709315E-2	-1.217356E-3	-6.475772E-3	5.509314E-4	7.787146E-4	-1.162740E-2	-1.434849E-2	-1.273695E-2	-1.436848E-2	4.412748E-3	-1.059025E-2	-1.128042E-3	-1.130859E-2	-8.939059E-3	-4.713596E-3	-2.161464E-2	-1.007572E-2	1.708367E-3	-6.398874E-4	-2.169189E-2	-3.964244E-3	-1.330291E-2	-8.802046E-3	-1.206090E-2	-1.438234E-2	-2.357388E-3	1.643507E-3	-1.363958E-2	9.741585E-3	-5.462587E-4	-6.889826E-3	4.939994E-3	1.309997E-2	5.125082E-3	-3.578536E-2
2.795020E+2	-2.751732E-3	-3.849391E-3	3.671795E-3	1.090602E-3	5.383336E-3	-1.129705E-2	-3.771004E-3	-1.433661E-2	9.489261E-4	-1.861731E-2	-1.375292E-2	1.664867E-3	-2.904053E-3	5.310154E-3	-7.919530E-4	-1.248614E-3	-1.873848E-3	-1.036932E-2	1.241390E-3	4.018454E-3	5.626033E-4	-1.229260E-2	5.077433E-3	-5.594403E-3	-6.917518E-3	3.930229E-3	4.705165E-3	-8.368243E-3	-8.512184E-3	5.382342E-3	-7.195034E-4	-1.453929E-3	-9.017130E-3	-7.718313E-4	5.514714E-3	-6.369230E-3	1.082264E-3	-8.638681E-4	2.737314E-3	1.867006E-3	-1.144703E-2	-1.449258E-2	1.722638E-2	-8.851697E-3	-4.593741E-3	-6.747529E-3	-2.126329E-3	-5.787842E-3	-2.576051E-3	-4.420085E-3	5.147700E-3	7.882743E-3	-3.750114E-3	-1.071761E-2	1.543455E-2	-6.038700E-3	-1.572548E-2	-9.613939E-3	-1.459002E-3	-3.437858E-3	4.546055E-4	-2.347628E-3	-6.996357E-3	-1.259759E-3	-2.916879E-3	-6.731065E-3	-6.153488E-3	5.061977E-4	8.737461E-4	-7.791024E-4	-2.388851E-3	-2.006225E-2	3.108599E-3	2.671859E-3	-4.000328E-3	1.074553E-2	-3.315297E-3	-2.233621E-3	6.703611E-3	3.444979E-3	-4.945239E-3	2.236958E-3	-1.149021E-2	5.742860E-3	8.186556E-3	-5.968303E-3	-2.496861E-3	1.225349E-2	-2.624387E-3	-4.956665E-3	-2.587626E-3	1.250451E-2	7.493871E-3	5.559989E-3	-2.168671E-3	-2.481427E-3	8.477152E-3	-6.908221E-3	-2.697443E-3	-7.551034E-3	-3.564359E-3	-3.461447E-3	-5.529330E-3	-1.213810E-2	6.271103E-3	-4.676653E-3	5.783271E-3	-8.196419E-3	-1.075803E-2	-1.023960E-2	1.411889E-2	3.070593E-3	9.102745E-3	-2.363450E-3	-1.278744E-2	-7.284741E-3	1.402200E-3	-9.224606E-3	6.854711E-3	-6.885574E-3	-5.453638E-3	-1.256058E-2	1.002208E-3	-4.082336E-3	-8.896353E-3	-4.607956E-3	4.035086E-3	-1.325347E-2	-4.475008E-3	7.576776E-3	8.903336E-3	-1.233447E-2	7.143725E-3	-7.661094E-3	-3.947871E-3	-3.846229E-3	-1.131499E-2	5.728942E-3	-2.900663E-3	1.123565E-3	-2.471544E-3	-3.093419E-3	-4.025099E-3	8.774020E-3	1.411730E-2	1.352244E-2	-1.308903E-3	4.951355E-3	-5.237971E-3	-4.699537E-4	5.484318E-3	-1.919127E-2	-6.456109E-3	1.545261E-4	-8.762684E-3	3.809409E-3	5.398272E-3	5.114798E-3	6.129232E-3	-1.550856E-2	9.547536E-4	5.039865E-3	-1.250450E-2	4.494660E-3	-1.524414E-3	-1.138089E-2	-1.377280E-2	-7.043027E-3	1.138529E-3	1.079410E-2	-1.327659E-2	-3.997942E-3
2.800030E+2	1.546134E-3	-3.938233E-3	-3.035794E-3	3.017668E-3	-4.539480E-3	1.889050E-3	-4.107243E-3	-4.694708E-3	-1.633272E-3	-1.739473E-2	1.238599E-2	-1.533356E-2	1.947408E-3	-5.649465E-3	-2.034815E-4	-1.353425E-2	4.405026E-3	-1.472835E-3	8.341125E-3	1.136937E-3	-9.827922E-3	-4.176032E-3	-1.469037E-3	-1.394197E-3	1.739044E-2	-2.681040E-3	-9.822699E-3	-8.408742E-3	7.846308E-3	-1.606599E-2	-1.026594E-2	-7.938330E-3	3.191532E-3	-8.380555E-4	-5.847246E-3	-3.421287E-3	-3.424305E-3	-8.781775E-3	1.324255E-3	9.080800E-3	5.473914E-3	3.361075E-3	-2.430150E-3	-3.029654E-3	2.179202E-3	-1.664193E-3	-8.403803E-3	-5.850267E-3	-1.267780E-3	-1.574800E-2	3.760412E-3	-2.701710E-3	7.391438E-3	-4.948303E-3	-3.065911E-3	1.365455E-2	-1.357312E-3	-1.380686E-2	-2.860837E-3	-1.388055E-2	-3.373771E-3	-6.805848E-3	-9.669223E-4	-7.580602E-3	5.316532E-3	-3.969748E-3	7.979220E-3	-9.999714E-3	-4.056028E-3	5.055155E-3	-2.501971E-3	-4.902721E-3	-2.613606E-2	1.081029E-2	-8.280927E-3	-5.326612E-3	2.520564E-3	6.512406E-3	5.252422E-3	-7.991847E-3	6.153009E-4	-4.675403E-4	-1.841249E-3	-9.924772E-3	-2.228342E-3	7.210029E-3	1.386663E-2	-2.233340E-3	9.162718E-3	-1.068155E-2	-1.230970E-3	-1.452953E-2	8.736316E-3	-1.332858E-2	-3.489945E-3	-6.536527E-3	-3.435758E-3	-5.659728E-3	-2.819584E-3	1.353424E-3	-1.110203E-2	2.410066E-3	-8.343803E-3	-9.435781E-3	1.572903E-3	5.832944E-3	-1.400052E-4	-5.393623E-3	-7.969727E-3	6.516262E-3	1.428306E-3	-1.315197E-2	-9.902640E-3	3.824709E-3	3.016931E-4	3.808922E-4	-6.270598E-3	8.577306E-4	-2.179141E-3	6.171306E-3	3.138982E-3	-7.297289E-3	-1.009583E-2	-1.060142E-2	-3.176106E-3	7.544988E-3	-4.768711E-3	-1.878028E-3	-1.059430E-2	-1.270885E-2	5.847894E-3	-1.241969E-2	-6.322568E-3	1.832301E-3	-6.990434E-3	-1.386356E-2	-7.225630E-3	2.914165E-3	-7.428309E-3	-5.556599E-4	-3.980701E-3	4.981424E-4	-5.395770E-3	7.485102E-3	-1.134685E-2	-1.721789E-2	6.837475E-3	6.587283E-3	3.832335E-3	-4.217579E-3	-2.553234E-3	-1.445205E-2	-6.564311E-3	-1.157190E-2	7.869246E-3	-2.437514E-3	5.271367E-3	-8.156736E-3	3.585829E-3	-2.438643E-3	9.591487E-3	-1.326277E-2	-6.886926E-3	-1.078005E-2	-4.054061E-3	-7.958657E-3	-8.797991E-4	3.169549E-3	-1.515475E-2	-6.164727E-3	-9.739794E-3	1.497272E-2
2.805050E+2	-1.627156E-2	8.805169E-4	-5.026602E-3	-1.645732E-3	-7.163865E-3	-6.669624E-3	-8.645918E-3	1.120445E-2	-1.789959E-3	1.462177E-2	9.333705E-3	8.755300E-3	-8.014061E-3	-1.061371E-2	2.817086E-3	-5.067018E-3	-4.628697E-3	1.111404E-2	-8.040511E-4	-1.462948E-2	-5.352000E-3	-3.139191E-3	-2.571122E-3	9.855283E-3	-5.761221E-3	7.616418E-3	-5.575723E-3	2.345751E-3	-1.138091E-3	6.503017E-3	-6.307858E-3	-9.337641E-3	5.717659E-3	-9.604429E-3	-8.840906E-3	-3.333395E-3	-6.853878E-3	6.276515E-5	-6.588142E-3	-1.421682E-2	-3.778949E-3	-2.264413E-3	7.713445E-3	2.781718E-3	-1.302236E-2	7.193283E-3	5.051528E-5	2.470457E-4	-6.939189E-3	-3.309055E-3	5.110435E-4	4.019649E-4	-3.922215E-3	1.359177E-2	-4.296938E-4	-1.022742E-2	-2.766925E-3	5.581942E-3	-2.292544E-3	9.253188E-4	-2.255208E-3	3.418907E-4	4.626025E-3	9.721270E-3	-1.791914E-3	-1.402996E-2	-7.933720E-3	2.738704E-4	-1.386254E-2	-9.267359E-3	-4.913246E-3	1.164896E-2	-5.450157E-3	-1.116593E-2	-3.470383E-3	1.353062E-2	-6.503986E-3	-1.505205E-2	-7.226280E-3	8.076010E-3	-7.996463E-3	9.489256E-3	-4.821780E-3	-1.004351E-2	6.575475E-3	3.754388E-3	2.079142E-4	-5.226066E-3	-7.353040E-3	3.239909E-3	-1.385427E-3	1.077668E-3	-1.317139E-3	-6.825065E-3	-2.396918E-3	-2.718012E-3	-5.066928E-3	3.613063E-3	7.004851E-3	5.682831E-3	-8.806306E-3	3.449732E-3	-3.139968E-4	-3.961336E-3	4.385104E-3	-7.534266E-3	-1.738138E-3	-5.511044E-3	2.098790E-3	-4.435680E-3	-8.457744E-3	5.275370E-3	-2.200427E-3	-1.513999E-2	-4.834575E-3	-2.609358E-2	-8.923684E-3	-3.992382E-4	-2.315484E-3	-5.660623E-3	1.538135E-3	5.603642E-4	7.433190E-4	-2.752130E-3	-3.349544E-3	-8.506150E-3	-1.183766E-3	-7.100276E-3	5.731989E-3	1.003418E-3	-1.192331E-2	7.672620E-3	-4.026307E-3	2.879293E-3	-1.283512E-3	-1.220164E-3	-1.818853E-3	4.087441E-3	9.973480E-3	-1.312435E-2	1.157644E-4	3.436767E-4	1.368459E-2	-1.454864E-2	1.378887E-2	5.241944E-3	-1.578333E-3	8.003408E-3	-4.170335E-3	5.039191E-4	-7.952782E-3	1.386934E-2	-2.153400E-3	-5.235422E-3	-1.023212E-2	-7.190731E-3	-1.056969E-2	7.470716E-3	-3.867310E-3	-5.142227E-3	5.045205E-3	-1.466161E-2	5.747360E-3	-4.778186E-3	-2.971340E-3	-4.591799E-3	1.809235E-3	-1.353481E-3	-9.895412E-3	-1.467724E-2	-9.891580E-3	-2.323171E-2
2.810070E+2	8.999982E-3	-8.876683E-3	1.542338E-3	-1.437675E-3	1.172927E-2	-1.005921E-2	5.829653E-3	-1.428329E-2	-6.680066E-3	1.265912E-3	-3.200854E-3	1.857352E-3	7.728647E-4	1.622807E-2	-2.521161E-3	1.229773E-2	1.209460E-2	3.710885E-3	-1.260618E-2	-1.539012E-3	-2.855954E-3	1.580172E-2	-1.278593E-3	-3.955620E-3	-8.280105E-3	5.256693E-3	-4.225904E-3	1.034483E-3	3.264292E-4	3.930777E-3	2.120410E-2	-1.300268E-2	1.009280E-2	4.688376E-4	-9.108192E-5	6.006280E-3	2.246248E-3	2.990812E-4	2.652397E-4	-8.157358E-3	-3.586925E-3	6.246409E-3	-6.918826E-3	8.905720E-3	-3.250184E-3	4.858133E-3	6.499438E-3	-4.531830E-3	9.886984E-3	-1.896472E-3	-9.154696E-3	-7.159848E-4	-7.451847E-3	-3.662992E-3	-8.179351E-3	-7.111775E-3	-5.203812E-3	-2.591160E-3	9.791917E-3	-4.757144E-3	-5.856107E-3	-6.739556E-3	-8.595247E-3	-7.473691E-3	-5.717926E-3	1.316178E-2	1.122056E-3	9.622938E-3	-3.936743E-3	7.570445E-3	6.721421E-3	-5.900980E-3	1.770915E-3	-9.525925E-3	-1.074613E-2	1.131210E-2	-1.825940E-3	6.689029E-3	-5.835061E-3	3.473248E-3	4.963412E-3	-1.558729E-2	3.501521E-3	4.438770E-3	-2.119284E-3	2.933373E-3	5.540946E-3	1.521504E-2	-1.454314E-2	3.532705E-3	-1.416297E-2	7.714009E-3	-5.320722E-3	-5.249151E-3	-2.107943E-4	1.468866E-2	-6.299535E-3	-6.926306E-3	8.706718E-3	1.447232E-3	6.233371E-3	1.497501E-4	6.732592E-3	1.875816E-3	7.653226E-3	8.579022E-3	-5.879085E-3	1.489925E-2	6.742797E-3	4.204955E-3	-6.874485E-3	1.835403E-3	1.533576E-2	1.274633E-2	-4.585263E-3	6.690012E-3	1.377536E-4	6.635046E-3	-5.096089E-3	4.795897E-3	1.051680E-2	8.828851E-3	7.859486E-3	5.516519E-3	-4.558304E-3	-5.835321E-3	-5.928592E-3	3.316071E-3	6.015566E-3	1.010576E-2	-1.449558E-3	9.414298E-3	-1.452765E-4	1.959501E-3	1.807848E-2	-2.438214E-3	-4.367190E-3	-5.078738E-3	1.476611E-3	5.762883E-3	-2.486418E-3	-1.415695E-2	3.691045E-3	2.431963E-3	2.996062E-3	6.835494E-3	2.806706E-3	-7.467635E-3	-5.255716E-3	5.640744E-3	-2.466816E-3	-3.262613E-3	-3.952475E-4	-3.722069E-3	4.111488E-3	7.299625E-4	-6.082577E-3	-6.757186E-3	6.136482E-3	5.595600E-3	-3.466667E-3	2.435643E-3	2.931475E-4	-4.564888E-3	1.559713E-2	3.776017E-3	7.878363E-3	1.819714E-3	-9.695810E-3	2.442655E-4	1.219217E-3	4.056059E-2
2.815020E+2	1.517449E-3	-3.069225E-4	-1.004274E-2	1.390799E-3	3.423081E-4	6.586932E-3	1.036795E-2	1.610671E-3	4.630115E-3	6.050814E-3	-2.188820E-3	1.165283E-2	-6.021397E-4	5.141000E-3	-4.903381E-3	-1.350171E-3	3.024065E-3	8.633749E-3	-1.931485E-3	6.917566E-3	5.026282E-3	-1.005341E-2	-3.277345E-4	-1.674107E-2	1.321216E-2	-1.970006E-2	-2.019503E-3	8.559839E-3	-6.131009E-3	-1.952732E-3	-1.304854E-2	4.803617E-3	-9.200301E-3	2.793903E-3	1.358750E-2	5.813003E-3	6.516338E-3	6.871781E-3	5.907131E-3	7.849328E-3	-5.029539E-3	3.301701E-3	-1.909265E-2	4.297133E-3	1.710866E-2	-4.508592E-4	1.257310E-4	5.317624E-3	4.156510E-3	1.679665E-2	4.108866E-3	6.686526E-3	1.356581E-2	-6.086231E-3	9.505698E-3	8.370814E-3	5.134820E-3	1.537306E-2	-1.797120E-2	5.516620E-3	2.897477E-3	-1.043585E-3	1.052142E-2	7.353671E-3	1.080173E-2	1.011547E-2	2.182096E-3	1.240544E-2	-7.713249E-3	2.670372E-3	-5.983440E-3	6.291723E-3	2.992670E-3	-5.551957E-3	9.825234E-3	-1.093852E-2	-3.463596E-3	5.241662E-3	8.908985E-3	-6.681397E-3	1.187988E-2	-4.278735E-3	-4.123720E-3	1.562630E-3	-1.634984E-2	5.014166E-3	1.349593E-3	-3.382329E-3	-2.751271E-3	-6.450760E-3	1.970956E-2	7.579693E-3	4.402591E-3	9.381452E-3	2.783730E-3	-2.598956E-3	3.788358E-3	-3.163433E-4	-6.194119E-3	4.409330E-3	-5.557296E-5	-4.725284E-3	3.597758E-3	-6.309127E-3	-1.047590E-2	1.872599E-3	-1.421081E-4	-2.375395E-3	3.640581E-3	4.077200E-3	1.933931E-3	-1.065060E-2	-1.311376E-2	3.778284E-3	8.625675E-3	6.599227E-3	2.512164E-3	4.241912E-3	4.482085E-3	1.356435E-2	2.428710E-4	-7.351353E-3	-3.498463E-3	-7.404965E-3	6.896581E-3	3.820984E-3	5.688141E-3	1.911778E-3	-3.174262E-3	-2.666212E-3	1.311289E-3	1.067070E-2	-2.928702E-4	2.995909E-3	3.179269E-3	-2.568799E-3	1.908041E-2	-1.196706E-2	-4.596895E-3	5.560195E-3	-1.219684E-3	4.127331E-3	-2.879174E-3	-5.448413E-3	-5.110161E-3	2.110804E-5	6.756566E-3	-2.887653E-3	5.071564E-3	-4.254723E-3	5.301420E-3	4.472635E-3	-3.603467E-3	1.938082E-2	1.387526E-3	-4.044328E-3	9.021849E-4	-8.199916E-3	-1.108221E-2	-2.435247E-3	-1.233290E-2	6.174448E-3	5.818219E-3	1.358959E-3	7.744258E-4	-9.137843E-3	-1.250175E-2	6.064656E-3	8.126651E-3	-4.089989E-3	2.637647E-2	-1.049423E-2
2.820040E+2	9.054863E-3	1.102522E-2	1.040613E-2	1.528182E-3	-9.493949E-3	7.970338E-3	5.815126E-3	1.624731E-2	2.228852E-3	2.485144E-3	-8.818044E-4	-3.898626E-3	1.183468E-2	2.874547E-3	9.776086E-3	8.590503E-3	-8.284151E-3	1.124684E-3	1.838073E-3	2.742888E-3	1.093105E-2	1.228452E-2	-1.276738E-3	5.851746E-3	3.896057E-3	1.307390E-2	9.796062E-3	5.623394E-3	1.041569E-2	2.467630E-3	-4.235113E-4	1.396501E-2	1.857069E-3	-7.849910E-4	-5.153017E-3	2.915688E-3	-1.082960E-3	-1.934483E-3	-5.552984E-3	1.536520E-2	1.078835E-2	6.215578E-3	-1.096115E-2	4.427005E-3	2.209724E-3	9.670490E-4	-5.916122E-3	4.229901E-3	-9.547742E-3	-3.137717E-3	6.187066E-4	9.868832E-3	-3.707679E-3	6.982386E-3	-9.843663E-4	2.840339E-3	-2.596521E-3	1.608317E-3	5.943414E-4	-2.988750E-4	1.770477E-3	1.369483E-2	-1.367866E-3	-1.373074E-2	2.623102E-3	6.032057E-3	9.623762E-3	-6.833016E-3	6.996009E-3	-6.653669E-3	4.651858E-4	6.392919E-3	2.124146E-2	1.240251E-2	5.144504E-3	-7.893561E-3	1.002980E-2	-9.776675E-3	2.872206E-3	9.979400E-4	2.125079E-3	6.065771E-3	4.754009E-3	8.821941E-3	1.781058E-3	-1.467144E-3	-1.040823E-2	-1.617767E-2	-5.585220E-3	7.795725E-3	2.138965E-4	-1.660436E-4	1.748296E-3	1.515626E-3	4.176190E-3	-2.455048E-3	-6.275900E-3	1.874825E-2	4.127817E-6	4.598213E-3	2.645406E-3	1.337095E-2	-9.000747E-3	5.217721E-3	-1.035415E-2	4.697679E-3	6.084705E-3	-3.691103E-3	6.754489E-3	-6.602824E-3	-3.391855E-3	1.063699E-2	2.724236E-3	1.744378E-4	1.183390E-2	1.013110E-2	-4.879569E-3	-7.755412E-5	2.932854E-3	-3.524547E-3	3.355174E-3	2.213333E-3	2.177403E-3	1.388775E-2	8.552021E-3	1.139796E-2	-1.540948E-3	7.246034E-3	6.009157E-3	3.823133E-3	3.430203E-3	6.635146E-3	1.206370E-2	-1.597576E-3	-1.180617E-3	5.006047E-3	-8.515369E-3	3.725737E-4	-3.089845E-3	-1.277032E-2	3.191108E-3	-5.514116E-3	7.725124E-3	1.193439E-3	-6.548534E-3	1.818967E-4	-6.685752E-3	-5.841805E-3	3.953729E-3	8.112108E-3	5.863893E-3	4.801881E-3	1.637063E-2	2.772482E-3	5.463483E-3	3.873621E-3	1.250554E-2	1.172454E-2	6.878939E-3	2.143554E-2	5.275074E-3	1.938961E-2	-1.161594E-3	1.371951E-2	4.609222E-3	1.311812E-2	1.074989E-2	3.279763E-3	1.370776E-2	-3.972206E-3	-6.063865E-3	8.719752E-3
2.825030E+2	3.383815E-3	1.377738E-2	3.027811E-3	4.774271E-3	1.071189E-2	1.429829E-2	2.518021E-3	-4.457519E-3	7.583840E-3	1.392887E-2	2.857844E-3	3.457860E-3	8.381275E-3	4.323457E-3	-5.492350E-5	8.813614E-3	-1.067934E-2	-1.217991E-3	1.056436E-2	-1.393271E-3	1.958361E-3	6.709291E-3	-2.166786E-3	2.303693E-2	5.485206E-3	2.832559E-3	1.356481E-2	8.970567E-3	9.389961E-3	4.148890E-3	7.803803E-3	6.510999E-3	-4.751626E-3	1.310086E-2	6.450641E-3	-2.977707E-3	6.959473E-3	-1.689731E-3	1.649245E-3	3.804074E-3	1.497420E-2	6.456642E-3	4.015442E-3	-2.771704E-3	9.322660E-3	3.759423E-3	6.748646E-3	-5.649836E-4	3.591343E-4	2.484037E-2	-4.075061E-4	-1.585343E-2	6.495727E-3	8.379212E-3	-7.930134E-3	4.412848E-3	1.063615E-2	1.435138E-2	1.268074E-2	1.627542E-2	4.484924E-3	-3.696485E-3	6.057328E-3	1.657503E-2	4.256528E-5	-8.587707E-4	1.477433E-2	2.317917E-3	2.675112E-2	4.379302E-3	7.041553E-3	1.735760E-2	4.770549E-3	1.669781E-2	4.084034E-3	1.084826E-3	4.281313E-3	1.707243E-2	9.314111E-3	7.646374E-3	9.550257E-3	6.440238E-3	1.139805E-2	6.248986E-3	-4.381991E-4	-6.764114E-3	7.857041E-3	-1.458071E-3	1.713892E-2	6.646083E-3	4.741310E-4	-1.101042E-2	3.521678E-3	1.664268E-2	8.578236E-4	-2.213652E-3	1.627054E-2	5.559463E-3	2.858941E-3	9.524873E-3	2.168962E-2	4.909111E-4	4.521113E-3	1.548969E-2	-4.076085E-3	6.372163E-3	-2.684168E-3	6.719222E-3	1.156924E-2	-3.346762E-4	-4.850792E-4	9.699186E-3	2.967398E-3	-8.279897E-4	1.073660E-2	1.200414E-2	1.443418E-2	1.839815E-2	9.206809E-3	5.613312E-3	-9.525742E-3	1.594310E-2	6.160601E-3	7.714566E-3	-1.395272E-3	6.788337E-3	1.073408E-2	7.540524E-3	-2.777598E-3	2.832114E-3	8.466398E-3	-4.736550E-3	-8.428033E-3	5.904972E-3	6.248605E-3	1.977736E-2	2.393716E-2	2.103583E-2	7.782976E-3	2.047946E-2	6.300544E-3	1.701662E-2	-1.173312E-3	1.446103E-2	4.840267E-3	5.783487E-3	-1.124051E-2	7.245301E-3	2.934436E-3	5.994071E-3	5.262260E-3	1.847568E-2	2.441654E-2	8.297284E-3	-1.545302E-3	5.899469E-3	1.426679E-2	2.768032E-3	5.521945E-3	7.295577E-3	6.993946E-3	9.267157E-3	1.105168E-2	-1.093503E-3	1.208626E-3	6.433470E-3	7.263120E-3	9.526524E-4	6.833042E-3	4.765824E-3	6.251064E-3	9.256170E-3
2.830040E+2	8.540029E-3	1.327484E-2	1.150782E-3	1.469027E-2	1.780948E-2	1.641551E-2	4.482384E-3	1.543779E-2	-1.947785E-3	2.993711E-2	5.950628E-3	1.150504E-2	9.125779E-3	1.611429E-2	5.177315E-3	7.340876E-4	-8.945696E-3	1.375020E-2	-8.547603E-4	1.673912E-2	7.282722E-3	1.701458E-2	1.724377E-2	-1.770166E-3	6.193683E-3	2.166762E-3	2.147437E-2	-1.259162E-3	2.682921E-2	2.521029E-2	1.591311E-3	1.511571E-2	2.860087E-3	1.258954E-2	2.517359E-2	5.336666E-3	-5.856203E-3	1.377638E-2	2.244901E-2	1.797698E-2	9.110431E-3	1.563124E-2	3.369899E-3	1.427625E-2	3.110531E-3	1.489759E-2	2.485001E-3	1.668943E-2	1.228656E-2	6.592640E-3	1.887439E-2	9.883401E-5	2.370862E-2	1.153178E-2	1.201909E-2	-6.490265E-3	1.403037E-2	2.360974E-2	4.202662E-3	1.415379E-2	7.842734E-3	5.767180E-3	2.149585E-2	-2.862427E-3	1.060797E-2	7.049779E-3	5.714446E-3	1.669344E-2	5.575124E-3	6.270340E-3	3.485216E-3	1.122252E-3	1.398969E-2	1.202559E-2	9.708828E-3	7.750786E-3	3.449198E-3	6.388033E-3	1.389262E-2	1.987824E-2	2.185781E-2	1.107277E-2	-4.390641E-3	8.417515E-3	2.120533E-2	7.329287E-3	8.112840E-5	3.583928E-3	2.111177E-2	2.173381E-2	2.525562E-2	2.986317E-2	8.571591E-3	-5.740619E-3	2.749698E-2	1.453717E-2	1.116804E-2	1.037066E-2	1.131450E-2	-4.912737E-4	1.143911E-4	9.717395E-3	1.422103E-2	1.340779E-2	1.645095E-2	2.066251E-2	9.730866E-3	2.068491E-2	4.843768E-3	3.979645E-3	2.051271E-2	1.303524E-2	1.325086E-2	8.827312E-3	-2.068207E-2	-3.082368E-3	8.870068E-3	3.315825E-2	7.497385E-3	4.841900E-3	1.914173E-2	2.230448E-2	1.443556E-2	1.344269E-2	-1.405342E-2	-4.935265E-3	2.372540E-2	-3.378986E-3	1.474444E-2	1.386077E-2	1.619913E-2	1.664358E-2	-4.283775E-4	7.908756E-3	2.197169E-3	2.061011E-2	6.473185E-3	1.101078E-2	-2.113126E-3	5.558348E-3	1.281194E-2	2.923724E-2	3.251689E-3	7.353017E-3	7.235278E-3	3.367246E-2	5.673165E-3	1.115626E-2	-4.336989E-3	1.296190E-2	1.730300E-2	1.292154E-2	3.319620E-2	2.225080E-2	1.564960E-2	-2.885798E-3	9.303411E-3	1.555211E-2	1.463721E-2	2.279429E-2	1.067011E-2	1.932410E-2	2.793674E-2	7.425636E-3	1.559525E-2	3.590313E-3	-1.427340E-3	3.268762E-3	7.607326E-3	2.050809E-2	1.130069E-2	-2.911199E-3
2.835040E+2	1.270032E-2	2.733999E-2	1.141450E-2	2.844761E-2	3.201733E-2	1.528426E-2	5.631899E-3	3.247721E-2	3.355096E-2	1.729969E-2	2.399332E-2	1.384278E-2	2.426680E-2	2.869572E-2	1.441019E-2	1.815773E-2	8.905252E-3	2.031198E-2	1.643338E-2	2.688216E-2	2.983529E-2	1.351528E-2	2.977475E-2	1.235073E-2	1.571987E-2	2.351044E-2	2.275849E-2	2.398834E-2	2.954353E-2	1.891107E-4	1.792923E-2	2.714337E-2	2.667615E-2	2.655895E-2	9.602790E-3	2.688320E-2	-3.711395E-4	1.610930E-2	2.747610E-2	1.472539E-2	1.153591E-2	1.691490E-2	1.555732E-2	1.546193E-2	1.410135E-2	3.882960E-2	2.931571E-2	1.281818E-2	3.649626E-2	1.943942E-2	3.668418E-2	1.700999E-2	2.638370E-2	7.833943E-3	5.800540E-3	1.936380E-2	3.557715E-2	4.519639E-2	1.084406E-2	3.262039E-2	1.163335E-3	1.438884E-2	4.095325E-4	1.240529E-2	1.898281E-2	1.261515E-2	2.063511E-2	2.882766E-2	1.431415E-2	2.954647E-2	9.945732E-3	2.448801E-2	1.088644E-2	1.039866E-2	6.969338E-3	1.294557E-3	1.063578E-2	1.941144E-2	2.165184E-2	1.203648E-2	2.304436E-2	1.886654E-2	2.879269E-2	2.133528E-2	1.984922E-2	1.527528E-2	2.211779E-2	2.257022E-2	1.636866E-2	3.625328E-2	8.977112E-3	2.137948E-2	-5.923125E-4	1.878811E-2	1.126869E-2	2.535484E-2	1.089516E-2	1.709739E-2	1.237560E-2	1.132293E-2	-2.566148E-3	8.414270E-3	1.887987E-2	1.751811E-2	3.019634E-2	2.605188E-2	1.220611E-2	1.438679E-2	2.110193E-2	6.234990E-3	2.600818E-2	2.720524E-2	2.750860E-2	2.701979E-2	1.601067E-2	3.356964E-2	2.187853E-2	1.240891E-2	3.343893E-2	-4.839725E-3	3.105200E-2	1.678366E-2	2.207906E-2	3.650521E-2	-7.207144E-3	2.279418E-2	2.638351E-2	2.009694E-2	9.820335E-3	1.251637E-2	2.025887E-2	2.705479E-2	1.066946E-2	2.406201E-2	2.066017E-2	2.483264E-2	1.484263E-2	2.912048E-2	5.858239E-3	2.460548E-2	1.253589E-2	1.803532E-2	2.892675E-2	5.707942E-3	6.788096E-3	2.555974E-2	1.836398E-2	1.226136E-2	1.297905E-2	2.786300E-3	1.396371E-2	1.260357E-2	2.531088E-2	1.283591E-2	1.202350E-2	2.537862E-2	8.120416E-5	1.955064E-2	2.444050E-2	9.111876E-3	1.784245E-2	1.116672E-2	2.021930E-2	1.171341E-2	2.320588E-2	3.123594E-2	6.897572E-3	3.519463E-2	1.622630E-2	2.395451E-2	6.001014E-3	4.634972E-3
2.840020E+2	4.508494E-2	3.670518E-2	2.210329E-2	4.436700E-2	3.624304E-2	1.921966E-2	2.572257E-2	1.244133E-2	1.756364E-2	3.702651E-2	2.671944E-2	2.095428E-2	2.826297E-2	4.308243E-2	2.521524E-2	5.451157E-2	2.748626E-2	4.072202E-2	1.529578E-2	2.984343E-2	2.895353E-2	1.112372E-2	3.014552E-2	2.254977E-2	3.280374E-2	2.772216E-2	3.277979E-2	4.033279E-2	3.505803E-2	3.146041E-2	2.289324E-2	4.100023E-2	2.254352E-2	3.323921E-2	5.224703E-2	2.034420E-2	2.774825E-2	3.523111E-2	4.011267E-2	3.792521E-2	2.654749E-2	1.386843E-2	2.682817E-2	5.742210E-2	4.443483E-2	3.369432E-2	3.097774E-2	3.141420E-2	3.675884E-2	2.087443E-2	2.808562E-2	1.847835E-2	2.789292E-2	4.265231E-2	1.710170E-2	5.092082E-2	2.344838E-2	4.562568E-2	3.181754E-2	3.925323E-2	3.745260E-2	2.641008E-2	4.228504E-2	4.160502E-2	4.687236E-2	1.390903E-2	5.162536E-2	2.097864E-2	3.497739E-2	4.366134E-2	6.016890E-2	2.616241E-2	3.864148E-2	3.633080E-2	1.711660E-2	5.071555E-2	3.692340E-2	3.557960E-2	2.701977E-2	5.176852E-2	3.936911E-2	3.775375E-2	3.027198E-2	3.025436E-2	3.756959E-2	3.298318E-2	3.362412E-2	4.984759E-2	1.961870E-3	2.892112E-2	3.244599E-2	5.618579E-2	4.092836E-2	2.011754E-2	2.402793E-2	4.080905E-2	2.451503E-2	1.981764E-2	3.106217E-2	4.915919E-2	2.202443E-2	4.385632E-2	2.841474E-2	4.739785E-2	3.975199E-2	3.595421E-2	1.069153E-2	5.549753E-2	2.704546E-2	3.670846E-2	3.879074E-2	3.931859E-2	4.567291E-2	2.191025E-2	2.972717E-2	3.857293E-2	2.066605E-2	2.806309E-2	1.977077E-2	3.521052E-2	2.650612E-2	2.950714E-2	4.444054E-2	3.656857E-2	2.307900E-2	3.472419E-2	3.804988E-2	3.100478E-2	3.817396E-2	1.648239E-2	5.517683E-2	4.560018E-2	2.739253E-2	1.540808E-2	2.343387E-2	2.466538E-2	3.980594E-2	3.220580E-2	2.937183E-3	2.288805E-2	4.235219E-2	3.119665E-2	2.645566E-2	3.421411E-2	4.161132E-2	2.984734E-2	4.599557E-2	2.178213E-2	3.517713E-2	2.973858E-2	3.644481E-2	2.073291E-3	2.547066E-3	4.429881E-2	3.294252E-2	4.326229E-2	1.322204E-2	4.890521E-2	8.468354E-3	4.098626E-2	5.620219E-2	5.103680E-2	2.690226E-2	6.974204E-2	3.892336E-2	3.899357E-2	4.014993E-2	5.104605E-2	3.092486E-2	4.997259E-2	5.423876E-2	2.605504E-2
2.841030E+2	3.638314E-2	3.069184E-2	3.760111E-2	4.187131E-2	5.821191E-2	5.964086E-2	4.158803E-2	3.971200E-2	3.858562E-2	3.637735E-2	3.106355E-2	6.301838E-2	4.067818E-2	5.674247E-2	4.136029E-2	5.658261E-2	3.890473E-2	4.417349E-2	3.772388E-2	5.807598E-2	6.519675E-2	4.535981E-2	4.355555E-2	4.865355E-2	3.199101E-2	3.110300E-2	5.212487E-2	4.104040E-2	5.861377E-2	5.644480E-2	4.170741E-2	2.799823E-2	3.919494E-2	4.444785E-2	3.284727E-2	6.466676E-2	3.907908E-2	5.270902E-2	4.330201E-2	5.433198E-2	4.666337E-2	7.628284E-2	5.604204E-2	4.243713E-2	3.490873E-2	6.047539E-2	3.031938E-2	3.608997E-2	4.925949E-2	5.241685E-2	6.788198E-2	1.581894E-2	4.714847E-2	3.334056E-2	4.179691E-2	6.084872E-2	5.890508E-2	3.881298E-2	4.936235E-2	3.836000E-2	4.081239E-2	3.476033E-2	4.173172E-2	3.702312E-2	3.275385E-2	5.386872E-2	4.073794E-2	4.065124E-2	4.606935E-2	4.696906E-2	3.630948E-2	3.337400E-2	1.256915E-2	3.407793E-2	4.105972E-2	4.531091E-2	4.233979E-2	5.115279E-2	2.629796E-2	5.944002E-2	4.757657E-2	4.934007E-2	1.761210E-2	2.936713E-2	4.383980E-2	5.142854E-2	3.561481E-2	4.774834E-2	4.380037E-2	4.912066E-2	5.978116E-2	5.900165E-2	4.919654E-2	4.073935E-2	4.672122E-2	3.311777E-2	2.045314E-2	3.623126E-2	3.441770E-2	3.883386E-2	2.406094E-2	5.231144E-2	6.328292E-2	1.929651E-2	4.046617E-2	3.527659E-2	4.004881E-2	3.613428E-2	4.500248E-2	3.996366E-2	5.515105E-2	5.201411E-2	3.800278E-2	4.673740E-2	3.813291E-2	4.094797E-2	2.395296E-2	5.414254E-2	4.978346E-2	4.534859E-2	2.401225E-2	3.301464E-2	4.387174E-2	3.037369E-2	4.860951E-2	3.936861E-2	5.283682E-2	4.257516E-2	4.692455E-2	4.675607E-2	5.008884E-2	4.171157E-2	3.062539E-2	2.365931E-2	2.151262E-2	5.891102E-2	3.307786E-2	7.476461E-2	2.604472E-2	4.685675E-2	2.941593E-2	3.450413E-2	4.844332E-2	5.423909E-2	4.743595E-2	4.898965E-2	2.565243E-2	5.943355E-2	8.225116E-2	3.560602E-2	4.427062E-2	5.900642E-2	6.976260E-2	2.977652E-2	4.353400E-2	2.408291E-2	4.885069E-2	5.532208E-2	3.910055E-2	5.013831E-2	3.209144E-2	3.929013E-2	6.118763E-2	3.139870E-2	3.961451E-2	4.092693E-2	4.218037E-2	1.999217E-2	3.732815E-2	4.166492E-2	4.831938E-2	6.763487E-2
2.842040E+2	6.745911E-2	7.314911E-2	5.637181E-2	4.373390E-2	7.862727E-2	5.442203E-2	3.756338E-2	7.454703E-2	5.409760E-2	4.944879E-2	6.355745E-2	8.169964E-2	4.455197E-2	7.098438E-2	5.328826E-2	9.600297E-2	6.190147E-2	6.593858E-2	5.175905E-2	6.381974E-2	8.645630E-2	7.299733E-2	4.810134E-2	8.503841E-2	6.403149E-2	6.449544E-2	5.450554E-2	6.827871E-2	5.309335E-2	4.077109E-2	6.240975E-2	5.695480E-2	5.797329E-2	6.283146E-2	6.922014E-2	5.266910E-2	7.015375E-2	4.411469E-2	6.067747E-2	5.550338E-2	6.181230E-2	6.573803E-2	5.142012E-2	4.655063E-2	6.395712E-2	6.720024E-2	3.391539E-2	5.467177E-2	5.351084E-2	8.500687E-2	6.142089E-2	4.118404E-2	7.404887E-2	8.131853E-2	4.417063E-2	6.524891E-2	5.018018E-2	6.546913E-2	5.917567E-2	7.812205E-2	5.019532E-2	4.353548E-2	8.310850E-2	4.750360E-2	5.038227E-2	5.675931E-2	6.812234E-2	6.764590E-2	8.002401E-2	4.814048E-2	8.963367E-2	6.424500E-2	5.993330E-2	6.170413E-2	4.869124E-2	4.799398E-2	6.411692E-2	7.549723E-2	5.398179E-2	5.650862E-2	8.225500E-2	8.059629E-2	5.198107E-2	5.935152E-2	6.435350E-2	8.845525E-2	7.135835E-2	7.225578E-2	4.324536E-2	6.080306E-2	4.962320E-2	5.005877E-2	5.795106E-2	7.357390E-2	5.952207E-2	7.542420E-2	4.971100E-2	7.358881E-2	6.831638E-2	6.923963E-2	7.036236E-2	6.248111E-2	5.616066E-2	6.295267E-2	5.935087E-2	6.779731E-2	4.657902E-2	4.167762E-2	6.343842E-2	6.566132E-2	8.504291E-2	4.772786E-2	5.926513E-2	5.459228E-2	8.900668E-2	5.710315E-2	5.894698E-2	5.527818E-2	5.990097E-2	5.274125E-2	6.564793E-2	6.430552E-2	7.823376E-2	8.518780E-2	7.335324E-2	4.832404E-2	6.558786E-2	4.496554E-2	7.073715E-2	4.508893E-2	6.451493E-2	6.784411E-2	4.599491E-2	6.474032E-2	3.911877E-2	7.860604E-2	4.903992E-2	5.425364E-2	5.553794E-2	3.613518E-2	5.937914E-2	7.671829E-2	7.111052E-2	8.471139E-2	5.212493E-2	5.434425E-2	4.253002E-2	6.735659E-2	4.415673E-2	6.289008E-2	7.656281E-2	7.577211E-2	5.470617E-2	5.300666E-2	6.086740E-2	6.500319E-2	4.996751E-2	3.647587E-2	8.454412E-2	6.969398E-2	7.390642E-2	6.276516E-2	6.098689E-2	6.034968E-2	8.306962E-2	4.817098E-2	6.833431E-2	6.408677E-2	5.973300E-2	7.456232E-2	9.049722E-2	3.433126E-2
2.843030E+2	6.445757E-2	8.008194E-2	6.205636E-2	7.374761E-2	7.620072E-2	7.937892E-2	8.018201E-2	6.435928E-2	5.996281E-2	8.727313E-2	6.505732E-2	6.697372E-2	8.087671E-2	8.169540E-2	7.409633E-2	7.390645E-2	1.034011E-1	9.662431E-2	5.066329E-2	7.864148E-2	8.692714E-2	8.847453E-2	7.074064E-2	8.949006E-2	7.376058E-2	7.188005E-2	8.648430E-2	8.053856E-2	6.177921E-2	7.175152E-2	1.009225E-1	7.326328E-2	6.122192E-2	6.573535E-2	7.767750E-2	7.447374E-2	6.111540E-2	6.610267E-2	6.478436E-2	9.046148E-2	9.259054E-2	7.219380E-2	6.631339E-2	7.192661E-2	6.608716E-2	7.304164E-2	7.592535E-2	8.748204E-2	5.841434E-2	9.626933E-2	6.570667E-2	6.857827E-2	8.259945E-2	7.386169E-2	7.662769E-2	4.867143E-2	6.930777E-2	9.762189E-2	6.384782E-2	7.805255E-2	7.984199E-2	9.456517E-2	7.957985E-2	6.783570E-2	1.124607E-1	6.012083E-2	5.791410E-2	7.256648E-2	6.475415E-2	8.316908E-2	6.819660E-2	6.441943E-2	6.634187E-2	9.598941E-2	7.794401E-2	8.798778E-2	6.589731E-2	6.612399E-2	7.837515E-2	7.969607E-2	7.627004E-2	6.410859E-2	7.632009E-2	8.102803E-2	7.554310E-2	7.427850E-2	8.034719E-2	1.019639E-1	7.883054E-2	8.692930E-2	1.052443E-1	9.664298E-2	1.039330E-1	7.795562E-2	7.672199E-2	9.136688E-2	7.360100E-2	5.768042E-2	7.114718E-2	9.022488E-2	6.637165E-2	6.527435E-2	9.463748E-2	9.385427E-2	7.081832E-2	8.082311E-2	6.625255E-2	9.514714E-2	8.884296E-2	8.414661E-2	7.951666E-2	6.947284E-2	9.171310E-2	4.658974E-2	7.052562E-2	5.557921E-2	8.927817E-2	7.880789E-2	8.999130E-2	6.888975E-2	6.272792E-2	7.322452E-2	6.913707E-2	6.276590E-2	8.778063E-2	8.310291E-2	8.398041E-2	7.553686E-2	7.745543E-2	5.073248E-2	9.454931E-2	6.962180E-2	9.501818E-2	8.840048E-2	7.165971E-2	8.970145E-2	9.752196E-2	8.079849E-2	8.727912E-2	9.036884E-2	8.877375E-2	5.696319E-2	9.709166E-2	8.355272E-2	6.435833E-2	6.607246E-2	9.627379E-2	8.292274E-2	5.152163E-2	9.484933E-2	5.876981E-2	8.814742E-2	5.326743E-2	7.707241E-2	6.489188E-2	7.861583E-2	6.100155E-2	8.378693E-2	7.591362E-2	9.131033E-2	8.370488E-2	6.863388E-2	7.759706E-2	6.881973E-2	7.428072E-2	5.720955E-2	6.485895E-2	1.302987E-1	7.957659E-2	7.020856E-2	1.045120E-1	1.036908E-1
2.844030E+2	9.454476E-2	1.098823E-1	7.844774E-2	1.135599E-1	9.658745E-2	9.651242E-2	7.636002E-2	6.823775E-2	1.033495E-1	8.727660E-2	7.643573E-2	9.164973E-2	1.105150E-1	9.889431E-2	1.206711E-1	8.156223E-2	7.012240E-2	9.529267E-2	8.201485E-2	9.159672E-2	8.576420E-2	8.990002E-2	1.231778E-1	8.839483E-2	9.888734E-2	6.877990E-2	1.108608E-1	7.882932E-2	7.116258E-2	7.456734E-2	8.999058E-2	7.726037E-2	8.627597E-2	6.412658E-2	8.861470E-2	9.306792E-2	1.062414E-1	8.467711E-2	9.904517E-2	1.085627E-1	1.188221E-1	8.541314E-2	9.682735E-2	1.004993E-1	7.177395E-2	9.537125E-2	9.472335E-2	8.172402E-2	9.290256E-2	1.032391E-1	7.222673E-2	7.215734E-2	1.074349E-1	6.999227E-2	1.040737E-1	9.361509E-2	7.396318E-2	7.462361E-2	7.093473E-2	8.995484E-2	9.000904E-2	1.213428E-1	7.167419E-2	7.227947E-2	1.083568E-1	8.465048E-2	6.438215E-2	1.024896E-1	7.143777E-2	7.940656E-2	8.340801E-2	8.373823E-2	9.592585E-2	1.021585E-1	6.868064E-2	7.439616E-2	1.193734E-1	6.736872E-2	1.001692E-1	9.991900E-2	9.467984E-2	7.506736E-2	6.677518E-2	1.041361E-1	8.133514E-2	9.019481E-2	9.226221E-2	8.401069E-2	1.020272E-1	8.074265E-2	8.405025E-2	1.024855E-1	9.042432E-2	9.241459E-2	9.934745E-2	8.515812E-2	8.631459E-2	1.031115E-1	9.750928E-2	7.668802E-2	9.741872E-2	7.569517E-2	8.531249E-2	8.289337E-2	8.194603E-2	1.301124E-1	1.012302E-1	8.863635E-2	8.866019E-2	9.475704E-2	9.395388E-2	9.931141E-2	9.833244E-2	8.621429E-2	8.922507E-2	9.080636E-2	9.217235E-2	8.513613E-2	1.255620E-1	1.072251E-1	6.710801E-2	9.795525E-2	9.333059E-2	1.097160E-1	9.242609E-2	9.932581E-2	8.669135E-2	1.271427E-1	6.896462E-2	1.029822E-1	9.599420E-2	8.994933E-2	8.721608E-2	8.724565E-2	7.299093E-2	8.164499E-2	1.112675E-1	6.888673E-2	7.867860E-2	1.140601E-1	8.865653E-2	7.295596E-2	8.764838E-2	9.058753E-2	1.036980E-1	1.011477E-1	9.789570E-2	8.084895E-2	1.164731E-1	9.244983E-2	1.025698E-1	1.053920E-1	1.161080E-1	8.831312E-2	9.157894E-2	1.036370E-1	9.502301E-2	8.662460E-2	9.656613E-2	9.420963E-2	1.089797E-1	7.127473E-2	8.992216E-2	1.151994E-1	9.706582E-2	9.149224E-2	9.536478E-2	7.519555E-2	9.672226E-2	9.222885E-2	7.845553E-2	6.333100E-2
2.845010E+2	1.110321E-1	1.267181E-1	1.108568E-1	1.170212E-1	1.477809E-1	1.194276E-1	1.276078E-1	1.124624E-1	1.363369E-1	1.299179E-1	1.293363E-1	1.267888E-1	1.286226E-1	1.312469E-1	1.175483E-1	1.666494E-1	1.388105E-1	1.097737E-1	1.035881E-1	1.317229E-1	1.152831E-1	1.096019E-1	1.201462E-1	1.154014E-1	1.563138E-1	1.222229E-1	1.216420E-1	1.203162E-1	1.285563E-1	1.279891E-1	1.267007E-1	1.326952E-1	1.241748E-1	1.229088E-1	1.181325E-1	1.585581E-1	1.386195E-1	1.122342E-1	1.289155E-1	1.288802E-1	1.165378E-1	1.282463E-1	1.237694E-1	1.409574E-1	1.098550E-1	1.311589E-1	1.223842E-1	1.283394E-1	1.633370E-1	1.231158E-1	1.102415E-1	1.334534E-1	1.161815E-1	1.284874E-1	1.425386E-1	1.461643E-1	1.193571E-1	1.302533E-1	1.293216E-1	1.512963E-1	1.228225E-1	1.091345E-1	1.237665E-1	1.209982E-1	1.457018E-1	1.225304E-1	1.182165E-1	1.525536E-1	1.575463E-1	1.360883E-1	1.094145E-1	1.308007E-1	1.102709E-1	1.266905E-1	1.093143E-1	1.171975E-1	1.459795E-1	1.233060E-1	1.361412E-1	1.262214E-1	1.246415E-1	1.215186E-1	1.382793E-1	1.017482E-1	1.511630E-1	1.272439E-1	1.360982E-1	1.449189E-1	1.258698E-1	1.308007E-1	1.365385E-1	1.678084E-1	1.205556E-1	1.265192E-1	1.358352E-1	1.538266E-1	1.335394E-1	1.494676E-1	1.384677E-1	1.316019E-1	1.228288E-1	1.445535E-1	1.174375E-1	1.185972E-1	1.565444E-1	1.090307E-1	1.359429E-1	1.352293E-1	1.206640E-1	1.429218E-1	1.355001E-1	1.077432E-1	1.302900E-1	1.157435E-1	1.356650E-1	1.386284E-1	1.316375E-1	1.404185E-1	1.538725E-1	1.432308E-1	9.327675E-2	1.514146E-1	1.345297E-1	1.240339E-1	1.295901E-1	1.443338E-1	1.200329E-1	1.332831E-1	1.551177E-1	1.284842E-1	1.599971E-1	1.320395E-1	1.038266E-1	1.418552E-1	1.416670E-1	1.573483E-1	1.212219E-1	1.464368E-1	1.401369E-1	1.227698E-1	1.469013E-1	1.369810E-1	1.417062E-1	1.251813E-1	1.234656E-1	1.315957E-1	1.283981E-1	1.679551E-1	1.375236E-1	1.105167E-1	1.483757E-1	1.427988E-1	1.317057E-1	1.101090E-1	1.329851E-1	1.329868E-1	1.488736E-1	1.392531E-1	1.268090E-1	1.135202E-1	1.351204E-1	1.389246E-1	1.388500E-1	1.207536E-1	1.420900E-1	1.214378E-1	9.845200E-2	1.375695E-1	1.823491E-1	1.623460E-1	1.519698E-1	1.338719E-1
2.846040E+2	2.041873E-1	2.439917E-1	2.220903E-1	2.314703E-1	2.465823E-1	2.502522E-1	2.031489E-1	2.520677E-1	2.395268E-1	2.210824E-1	2.176970E-1	2.071237E-1	2.656592E-1	2.268939E-1	1.887320E-1	2.108593E-1	1.999390E-1	2.275525E-1	2.238889E-1	2.359674E-1	2.444862E-1	2.097095E-1	2.363521E-1	2.255113E-1	2.175095E-1	2.585044E-1	2.218318E-1	2.113063E-1	2.104338E-1	2.275327E-1	2.117346E-1	2.234198E-1	2.574933E-1	2.274970E-1	2.372070E-1	2.279233E-1	2.393026E-1	1.750791E-1	2.222100E-1	1.986948E-1	2.176883E-1	2.280070E-1	2.221259E-1	2.207061E-1	2.590996E-1	2.484764E-1	2.284935E-1	2.247319E-1	2.402562E-1	2.505248E-1	2.135752E-1	2.127884E-1	2.414370E-1	1.905637E-1	1.869891E-1	2.324362E-1	2.337981E-1	2.297423E-1	2.248429E-1	2.048974E-1	2.325024E-1	2.448102E-1	2.457831E-1	2.398181E-1	2.453122E-1	2.002067E-1	1.982097E-1	2.193806E-1	2.187870E-1	2.146611E-1	2.403989E-1	2.317249E-1	2.394541E-1	2.152051E-1	2.288177E-1	2.346053E-1	2.485265E-1	2.428852E-1	2.207984E-1	2.601045E-1	1.942768E-1	2.237801E-1	2.066671E-1	2.325110E-1	2.517740E-1	2.176581E-1	2.230012E-1	2.282848E-1	2.477234E-1	2.266998E-1	1.868605E-1	2.559601E-1	2.105288E-1	2.235165E-1	2.011201E-1	2.293330E-1	2.688459E-1	2.606786E-1	2.489735E-1	1.958102E-1	2.248142E-1	2.103737E-1	2.196890E-1	2.148278E-1	2.244445E-1	2.404328E-1	2.364588E-1	2.458423E-1	2.126005E-1	2.304043E-1	1.967323E-1	2.008109E-1	2.301224E-1	2.334119E-1	2.209690E-1	2.332188E-1	2.095974E-1	2.604094E-1	2.185494E-1	2.674424E-1	2.218497E-1	2.530881E-1	2.406083E-1	2.038650E-1	2.044047E-1	1.995411E-1	2.306779E-1	2.228568E-1	2.489287E-1	2.340437E-1	1.899198E-1	2.232222E-1	2.370548E-1	1.681547E-1	2.127313E-1	2.500208E-1	2.276718E-1	2.238038E-1	2.028535E-1	2.218377E-1	2.230097E-1	2.128319E-1	2.437542E-1	2.387677E-1	2.628129E-1	2.242944E-1	2.483225E-1	2.361760E-1	2.559575E-1	1.937768E-1	2.701555E-1	2.567631E-1	2.643372E-1	2.442205E-1	2.113340E-1	2.510232E-1	2.187346E-1	2.145440E-1	2.500090E-1	2.278632E-1	2.265597E-1	2.075217E-1	2.303893E-1	2.244791E-1	2.489901E-1	2.189581E-1	2.184666E-1	2.369612E-1	2.493639E-1	2.124405E-1	1.914784E-1	2.661769E-1
2.847000E+2	3.890608E-1	3.482071E-1	3.859065E-1	4.201636E-1	4.192715E-1	4.511418E-1	3.948229E-1	3.912864E-1	4.346157E-1	3.993350E-1	3.996091E-1	4.153341E-1	4.145543E-1	4.397202E-1	4.065515E-1	4.024036E-1	4.033916E-1	3.984562E-1	3.702916E-1	3.838558E-1	4.332778E-1	3.985139E-1	3.883466E-1	4.103669E-1	4.301886E-1	4.144961E-1	3.719286E-1	3.933742E-1	3.979808E-1	4.109763E-1	4.360321E-1	4.215020E-1	4.127900E-1	4.150033E-1	3.933746E-1	4.410367E-1	3.962561E-1	4.473812E-1	4.127964E-1	3.580994E-1	3.749841E-1	3.787672E-1	4.293705E-1	3.815435E-1	4.017335E-1	4.093200E-1	4.093753E-1	4.300286E-1	3.423083E-1	3.969631E-1	4.178255E-1	4.138051E-1	3.952221E-1	3.820273E-1	3.965919E-1	4.394948E-1	4.221923E-1	3.546532E-1	3.954897E-1	3.658002E-1	4.251354E-1	4.397894E-1	4.087275E-1	4.030247E-1	3.607192E-1	3.758367E-1	3.583036E-1	4.359269E-1	4.330811E-1	4.479741E-1	3.537170E-1	4.103106E-1	4.003500E-1	3.998054E-1	4.155143E-1	4.158000E-1	3.992663E-1	4.514683E-1	3.816757E-1	4.152982E-1	3.944245E-1	3.954947E-1	4.009777E-1	3.788792E-1	4.114460E-1	3.934998E-1	4.136144E-1	3.895509E-1	4.548614E-1	3.668939E-1	4.369856E-1	4.533878E-1	4.563046E-1	4.100172E-1	3.823165E-1	3.827608E-1	3.903197E-1	3.544459E-1	3.910220E-1	4.264406E-1	3.903704E-1	4.530186E-1	3.753366E-1	3.751112E-1	3.696564E-1	3.873846E-1	3.575161E-1	4.122674E-1	3.898784E-1	3.892070E-1	4.073365E-1	3.979282E-1	4.367682E-1	4.034474E-1	4.025229E-1	4.624313E-1	4.141851E-1	3.887222E-1	4.298784E-1	4.270310E-1	4.185063E-1	4.012793E-1	4.198403E-1	4.069481E-1	3.972039E-1	4.074850E-1	3.951507E-1	4.062383E-1	4.214130E-1	3.514524E-1	4.457066E-1	3.614751E-1	3.831148E-1	4.275848E-1	4.285407E-1	3.909972E-1	4.189806E-1	4.077064E-1	4.093987E-1	3.827981E-1	4.169851E-1	3.969408E-1	4.101027E-1	4.143932E-1	4.087106E-1	4.348398E-1	4.142429E-1	4.309847E-1	4.390336E-1	4.402605E-1	4.261513E-1	4.204825E-1	4.000788E-1	3.634799E-1	3.910371E-1	3.799123E-1	3.925081E-1	4.335577E-1	3.988885E-1	4.143989E-1	4.690644E-1	4.193743E-1	3.909578E-1	3.567211E-1	4.181383E-1	3.457782E-1	4.014195E-1	3.896875E-1	4.131719E-1	4.062129E-1	3.757566E-1	4.607464E-1
2.848000E+2	9.199524E-1	8.335107E-1	8.446402E-1	8.395497E-1	8.858640E-1	8.671249E-1	8.674895E-1	9.051575E-1	8.700269E-1	8.570304E-1	9.122856E-1	8.845187E-1	9.034905E-1	9.095412E-1	8.774083E-1	8.190970E-1	8.780246E-1	9.524584E-1	8.599708E-1	9.430002E-1	8.798304E-1	8.222735E-1	8.626637E-1	8.732439E-1	8.972224E-1	8.496117E-1	8.794890E-1	9.069266E-1	8.557401E-1	8.706384E-1	8.760190E-1	8.389771E-1	8.184497E-1	8.480945E-1	8.668986E-1	8.950895E-1	8.311675E-1	8.368119E-1	8.348248E-1	8.645393E-1	8.893356E-1	9.223078E-1	8.799561E-1	8.211029E-1	8.879887E-1	8.941549E-1	9.317096E-1	8.384049E-1	8.268442E-1	8.845721E-1	8.024823E-1	8.486241E-1	8.855755E-1	8.312574E-1	8.447607E-1	8.978343E-1	8.429466E-1	8.721206E-1	8.509487E-1	8.452243E-1	8.274849E-1	9.215745E-1	8.326272E-1	9.122479E-1	8.930609E-1	9.657369E-1	8.422412E-1	8.624617E-1	8.939317E-1	9.322284E-1	7.975240E-1	8.944819E-1	8.885186E-1	8.249261E-1	8.368132E-1	8.628296E-1	8.597200E-1	8.947124E-1	8.973451E-1	9.347897E-1	9.259636E-1	8.780822E-1	8.488329E-1	8.436904E-1	8.726403E-1	8.996303E-1	9.059480E-1	8.564911E-1	9.368253E-1	8.424107E-1	9.062626E-1	8.995916E-1	9.154697E-1	8.817484E-1	8.590113E-1	9.690299E-1	9.292289E-1	9.268222E-1	8.917293E-1	9.315959E-1	8.675866E-1	8.530478E-1	8.956707E-1	8.776787E-1	9.452623E-1	8.062771E-1	8.138606E-1	9.042879E-1	9.523892E-1	8.101294E-1	8.676080E-1	8.522011E-1	9.019021E-1	8.628520E-1	9.097303E-1	9.158253E-1	8.790857E-1	8.855194E-1	8.118672E-1	9.108849E-1	9.219822E-1	9.390170E-1	9.137206E-1	1.017727E+0	8.861996E-1	9.230148E-1	9.222061E-1	8.869497E-1	8.370213E-1	9.137307E-1	8.553656E-1	8.098164E-1	9.121359E-1	8.545515E-1	8.585968E-1	8.895389E-1	8.797419E-1	8.642407E-1	8.538766E-1	8.725291E-1	9.272156E-1	9.016397E-1	8.837842E-1	9.334766E-1	9.171573E-1	9.011444E-1	9.187668E-1	8.430480E-1	9.801234E-1	8.705566E-1	9.001032E-1	8.743006E-1	9.093295E-1	8.493678E-1	8.926758E-1	8.865581E-1	9.207651E-1	8.484744E-1	8.262148E-1	8.690348E-1	8.217462E-1	8.362666E-1	8.424658E-1	9.159126E-1	7.855255E-1	8.473419E-1	8.361215E-1	8.849613E-1	8.760245E-1	9.646190E-1	8.482771E-1	8.707518E-1
2.849020E+2	1.482434E+0	1.478400E+0	1.473320E+0	1.533202E+0	1.502771E+0	1.471384E+0	1.521018E+0	1.440175E+0	1.473442E+0	1.458414E+0	1.420377E+0	1.476067E+0	1.638424E+0	1.473012E+0	1.465820E+0	1.514772E+0	1.458788E+0	1.482045E+0	1.558888E+0	1.530811E+0	1.518192E+0	1.468703E+0	1.543804E+0	1.445752E+0	1.450774E+0	1.400332E+0	1.466195E+0	1.513653E+0	1.525944E+0	1.516327E+0	1.535809E+0	1.527174E+0	1.527236E+0	1.474226E+0	1.523160E+0	1.472283E+0	1.505922E+0	1.441213E+0	1.397759E+0	1.527557E+0	1.535384E+0	1.535783E+0	1.550145E+0	1.380429E+0	1.512954E+0	1.435010E+0	1.472735E+0	1.555433E+0	1.490478E+0	1.417664E+0	1.498516E+0	1.473107E+0	1.510950E+0	1.554365E+0	1.520491E+0	1.450391E+0	1.438005E+0	1.488907E+0	1.503364E+0	1.520004E+0	1.500180E+0	1.499679E+0	1.423030E+0	1.531661E+0	1.530055E+0	1.576053E+0	1.495422E+0	1.576412E+0	1.536982E+0	1.469077E+0	1.392452E+0	1.493275E+0	1.528205E+0	1.512201E+0	1.425820E+0	1.550859E+0	1.603050E+0	1.491470E+0	1.569755E+0	1.508281E+0	1.535960E+0	1.541356E+0	1.474701E+0	1.406575E+0	1.540311E+0	1.486767E+0	1.478634E+0	1.523486E+0	1.512705E+0	1.527147E+0	1.479756E+0	1.499751E+0	1.503046E+0	1.562368E+0	1.452919E+0	1.515560E+0	1.528458E+0	1.485305E+0	1.464749E+0	1.480288E+0	1.531448E+0	1.439875E+0	1.463618E+0	1.429231E+0	1.488871E+0	1.460529E+0	1.544227E+0	1.409108E+0	1.491462E+0	1.500348E+0	1.521667E+0	1.418260E+0	1.490002E+0	1.516445E+0	1.599677E+0	1.591579E+0	1.476955E+0	1.436273E+0	1.546185E+0	1.481188E+0	1.579165E+0	1.511492E+0	1.474906E+0	1.508771E+0	1.540339E+0	1.510788E+0	1.532995E+0	1.480111E+0	1.465390E+0	1.511565E+0	1.471682E+0	1.500647E+0	1.498236E+0	1.478471E+0	1.451141E+0	1.524586E+0	1.536004E+0	1.505474E+0	1.560396E+0	1.418834E+0	1.524206E+0	1.483196E+0	1.465058E+0	1.428960E+0	1.496558E+0	1.464978E+0	1.537593E+0	1.547255E+0	1.526226E+0	1.420792E+0	1.483849E+0	1.565662E+0	1.456418E+0	1.531469E+0	1.484993E+0	1.431137E+0	1.611847E+0	1.575881E+0	1.412551E+0	1.470546E+0	1.382662E+0	1.496353E+0	1.374592E+0	1.495882E+0	1.528910E+0	1.498759E+0	1.506393E+0	1.477971E+0	1.643522E+0	1.503247E+0	1.647206E+0	1.686583E+0
2.850010E+2	1.899237E+0	1.766222E+0	1.765774E+0	1.774488E+0	1.936607E+0	1.752089E+0	1.779884E+0	1.878058E+0	1.927990E+0	1.869615E+0	1.807417E+0	1.821506E+0	1.847311E+0	1.782133E+0	1.792484E+0	1.838334E+0	1.805941E+0	1.798396E+0	1.715169E+0	1.913186E+0	1.835763E+0	1.799519E+0	1.730493E+0	1.688171E+0	1.877157E+0	1.790530E+0	1.786685E+0	1.863953E+0	1.868658E+0	1.867125E+0	1.840621E+0	1.847507E+0	1.781374E+0	1.877728E+0	1.841810E+0	1.819077E+0	1.830203E+0	1.795602E+0	1.818177E+0	1.836208E+0	1.908676E+0	1.884139E+0	1.762120E+0	1.871665E+0	1.786700E+0	1.831394E+0	1.816116E+0	1.799988E+0	1.789291E+0	1.740311E+0	1.806237E+0	1.832200E+0	1.951149E+0	1.785678E+0	1.784492E+0	1.823932E+0	1.819140E+0	1.798246E+0	1.791892E+0	1.883871E+0	1.811222E+0	1.783015E+0	1.823415E+0	1.875587E+0	1.752463E+0	1.919835E+0	1.863150E+0	1.831373E+0	1.786061E+0	1.853776E+0	1.871008E+0	1.798264E+0	1.773759E+0	1.914145E+0	1.833044E+0	1.858993E+0	1.936439E+0	1.847957E+0	1.729871E+0	1.894296E+0	1.848594E+0	1.849025E+0	1.835746E+0	1.814527E+0	1.899063E+0	1.800259E+0	1.934274E+0	1.869493E+0	1.864733E+0	1.896975E+0	1.889660E+0	1.892651E+0	1.851975E+0	1.834526E+0	1.762554E+0	1.787342E+0	1.813889E+0	1.740686E+0	1.723330E+0	1.789062E+0	1.827350E+0	1.821895E+0	1.853290E+0	1.828496E+0	1.790219E+0	1.831719E+0	1.753304E+0	1.808909E+0	1.883818E+0	1.786793E+0	1.862801E+0	1.848985E+0	1.841932E+0	1.819748E+0	1.894437E+0	1.912453E+0	1.900858E+0	1.847268E+0	2.003847E+0	1.754016E+0	1.803257E+0	1.782977E+0	1.808606E+0	1.897298E+0	1.853621E+0	1.905774E+0	1.895848E+0	1.799852E+0	1.907454E+0	1.789288E+0	1.837998E+0	1.722096E+0	1.764266E+0	1.778003E+0	1.822705E+0	1.823692E+0	1.937104E+0	1.996785E+0	1.962216E+0	1.880102E+0	1.900382E+0	1.764881E+0	1.872966E+0	1.792585E+0	1.768621E+0	1.674811E+0	1.858439E+0	1.862681E+0	1.870074E+0	1.836022E+0	1.848572E+0	1.837585E+0	1.872394E+0	1.829365E+0	1.743275E+0	1.820231E+0	1.891517E+0	1.890797E+0	1.907599E+0	1.852526E+0	1.794857E+0	1.738664E+0	1.772653E+0	1.855830E+0	1.779681E+0	1.752185E+0	1.904331E+0	1.755208E+0	1.962318E+0	1.912928E+0	1.737782E+0	1.589476E+0
2.851000E+2	1.730884E+0	1.759179E+0	1.660664E+0	1.742216E+0	1.755263E+0	1.663634E+0	1.710072E+0	1.666335E+0	1.822145E+0	1.753885E+0	1.709323E+0	1.678221E+0	1.741653E+0	1.743386E+0	1.656520E+0	1.715323E+0	1.713372E+0	1.826367E+0	1.675251E+0	1.673086E+0	1.770753E+0	1.780484E+0	1.650167E+0	1.749947E+0	1.734387E+0	1.691602E+0	1.648875E+0	1.800887E+0	1.755379E+0	1.768665E+0	1.762314E+0	1.762470E+0	1.683607E+0	1.641540E+0	1.775064E+0	1.602165E+0	1.799009E+0	1.745612E+0	1.673190E+0	1.723485E+0	1.783218E+0	1.729369E+0	1.773964E+0	1.730986E+0	1.682169E+0	1.731430E+0	1.673410E+0	1.734028E+0	1.653674E+0	1.638404E+0	1.594814E+0	1.674315E+0	1.750374E+0	1.803679E+0	1.688816E+0	1.669215E+0	1.718171E+0	1.709695E+0	1.704138E+0	1.694536E+0	1.725817E+0	1.632991E+0	1.807452E+0	1.685195E+0	1.752531E+0	1.693862E+0	1.774949E+0	1.709077E+0	1.651033E+0	1.688793E+0	1.684272E+0	1.817390E+0	1.645779E+0	1.624915E+0	1.745700E+0	1.720387E+0	1.715053E+0	1.776623E+0	1.705025E+0	1.808829E+0	1.645792E+0	1.755488E+0	1.684230E+0	1.828075E+0	1.859358E+0	1.669093E+0	1.694575E+0	1.837232E+0	1.801797E+0	1.693510E+0	1.770594E+0	1.780728E+0	1.714020E+0	1.740513E+0	1.693205E+0	1.773323E+0	1.711820E+0	1.634560E+0	1.654107E+0	1.746267E+0	1.797957E+0	1.692213E+0	1.668129E+0	1.784985E+0	1.786237E+0	1.836143E+0	1.816769E+0	1.632540E+0	1.674411E+0	1.580733E+0	1.690002E+0	1.796816E+0	1.688227E+0	1.662103E+0	1.694283E+0	1.769967E+0	1.711163E+0	1.695657E+0	1.784193E+0	1.704203E+0	1.701787E+0	1.758842E+0	1.669258E+0	1.748304E+0	1.713519E+0	1.694561E+0	1.734073E+0	1.697177E+0	1.660433E+0	1.673620E+0	1.731618E+0	1.700352E+0	1.730563E+0	1.755910E+0	1.780519E+0	1.825905E+0	1.836488E+0	1.804962E+0	1.737313E+0	1.819914E+0	1.767719E+0	1.705822E+0	1.636366E+0	1.828653E+0	1.710100E+0	1.715146E+0	1.770334E+0	1.748366E+0	1.711577E+0	1.644299E+0	1.673467E+0	1.698036E+0	1.780275E+0	1.710646E+0	1.684496E+0	1.708229E+0	1.707768E+0	1.680843E+0	1.695763E+0	1.710973E+0	1.622919E+0	1.730451E+0	1.662619E+0	1.783588E+0	1.759272E+0	1.612841E+0	1.745098E+0	1.602917E+0	1.717160E+0	1.784273E+0	1.774744E+0	1.814667E+0
2.852010E+2	1.487313E+0	1.358207E+0	1.225785E+0	1.351515E+0	1.425718E+0	1.382834E+0	1.394396E+0	1.337841E+0	1.328091E+0	1.350867E+0	1.437350E+0	1.325490E+0	1.397041E+0	1.451338E+0	1.297160E+0	1.387751E+0	1.297700E+0	1.431959E+0	1.336519E+0	1.428254E+0	1.431466E+0	1.315684E+0	1.313431E+0	1.374175E+0	1.491167E+0	1.326974E+0	1.367827E+0	1.468560E+0	1.357684E+0	1.448025E+0	1.296875E+0	1.481270E+0	1.340069E+0	1.367769E+0	1.315915E+0	1.310495E+0	1.374859E+0	1.358457E+0	1.291650E+0	1.366347E+0	1.385134E+0	1.363954E+0	1.421007E+0	1.300259E+0	1.422625E+0	1.440214E+0	1.375462E+0	1.439707E+0	1.362080E+0	1.367486E+0	1.345205E+0	1.372759E+0	1.333027E+0	1.300321E+0	1.320737E+0	1.336962E+0	1.325204E+0	1.282081E+0	1.358786E+0	1.430787E+0	1.350103E+0	1.388465E+0	1.361810E+0	1.445749E+0	1.409147E+0	1.329199E+0	1.352228E+0	1.402442E+0	1.429136E+0	1.334145E+0	1.335027E+0	1.422265E+0	1.444267E+0	1.402616E+0	1.398064E+0	1.351565E+0	1.333390E+0	1.352020E+0	1.318073E+0	1.336765E+0	1.421000E+0	1.390916E+0	1.351021E+0	1.340529E+0	1.408015E+0	1.334843E+0	1.379587E+0	1.342992E+0	1.379561E+0	1.375769E+0	1.403773E+0	1.382522E+0	1.416628E+0	1.305695E+0	1.308067E+0	1.424254E+0	1.264271E+0	1.403847E+0	1.358077E+0	1.393955E+0	1.356320E+0	1.370437E+0	1.376917E+0	1.380949E+0	1.433576E+0	1.349624E+0	1.329103E+0	1.369237E+0	1.364055E+0	1.326624E+0	1.436085E+0	1.337281E+0	1.412966E+0	1.317781E+0	1.369352E+0	1.462621E+0	1.394466E+0	1.302734E+0	1.363021E+0	1.385283E+0	1.326212E+0	1.377230E+0	1.396372E+0	1.339487E+0	1.307635E+0	1.335513E+0	1.436171E+0	1.402916E+0	1.476578E+0	1.458239E+0	1.279438E+0	1.276510E+0	1.364772E+0	1.307293E+0	1.435993E+0	1.476102E+0	1.352490E+0	1.389928E+0	1.336564E+0	1.381905E+0	1.404781E+0	1.348384E+0	1.366867E+0	1.314750E+0	1.368251E+0	1.245274E+0	1.405436E+0	1.484251E+0	1.336071E+0	1.303736E+0	1.377346E+0	1.323761E+0	1.480961E+0	1.387262E+0	1.328671E+0	1.310885E+0	1.433687E+0	1.360734E+0	1.343254E+0	1.390500E+0	1.468404E+0	1.402039E+0	1.242764E+0	1.404271E+0	1.401078E+0	1.362702E+0	1.329675E+0	1.384719E+0	1.458764E+0	1.391579E+0	1.320565E+0	1.337454E+0
2.853000E+2	9.344556E-1	8.786202E-1	9.472213E-1	9.629224E-1	9.121599E-1	9.609166E-1	1.015966E+0	8.959255E-1	9.191718E-1	9.337365E-1	9.857688E-1	9.370627E-1	8.820791E-1	9.065874E-1	8.913533E-1	9.612248E-1	8.857909E-1	1.006215E+0	9.731040E-1	8.838178E-1	9.796393E-1	9.231149E-1	9.305852E-1	9.513474E-1	9.509519E-1	8.959013E-1	9.226851E-1	1.011638E+0	9.104239E-1	9.521221E-1	9.692037E-1	9.485151E-1	9.755947E-1	9.747065E-1	9.739348E-1	8.530707E-1	9.440551E-1	9.177514E-1	9.878786E-1	9.352704E-1	9.403530E-1	9.568738E-1	9.987364E-1	8.694596E-1	9.647504E-1	9.899667E-1	9.512745E-1	9.814028E-1	8.404018E-1	9.677243E-1	9.718815E-1	1.064063E+0	9.100453E-1	9.357900E-1	9.138758E-1	9.282586E-1	8.982950E-1	9.471159E-1	9.553937E-1	9.130737E-1	9.593206E-1	9.669531E-1	9.052567E-1	9.348955E-1	1.005477E+0	9.771673E-1	9.169895E-1	9.960115E-1	9.472595E-1	9.727076E-1	8.923350E-1	9.593323E-1	1.003746E+0	9.472547E-1	9.135650E-1	9.508723E-1	9.753799E-1	9.694517E-1	9.075410E-1	9.594880E-1	9.362892E-1	9.341380E-1	8.801732E-1	9.422145E-1	1.004389E+0	8.982722E-1	9.562195E-1	9.289260E-1	1.015367E+0	9.967716E-1	9.590560E-1	9.478411E-1	1.027062E+0	9.305487E-1	9.062016E-1	1.020048E+0	8.886797E-1	9.159616E-1	9.057662E-1	9.034828E-1	1.007576E+0	9.380621E-1	9.102104E-1	8.698810E-1	9.782098E-1	9.074661E-1	8.959894E-1	9.243665E-1	9.319637E-1	9.398710E-1	9.628136E-1	9.136833E-1	9.031939E-1	9.182602E-1	9.466346E-1	9.189985E-1	8.738014E-1	9.246177E-1	9.589269E-1	8.642146E-1	8.690696E-1	8.986443E-1	9.403627E-1	9.189644E-1	1.001091E+0	1.044346E+0	8.961403E-1	9.030080E-1	9.693371E-1	8.805810E-1	9.523709E-1	9.467654E-1	9.728225E-1	9.335778E-1	9.703841E-1	9.697565E-1	9.457915E-1	9.987998E-1	9.208164E-1	8.852191E-1	9.478601E-1	8.789278E-1	9.373327E-1	9.508076E-1	9.021268E-1	8.506477E-1	9.126787E-1	9.113659E-1	9.175699E-1	9.888174E-1	9.263969E-1	9.776021E-1	1.044501E+0	9.506969E-1	8.905067E-1	8.959194E-1	9.815220E-1	1.028798E+0	9.429766E-1	8.975326E-1	9.569006E-1	1.014806E+0	8.963892E-1	9.621074E-1	1.012108E+0	9.323876E-1	9.294760E-1	9.456671E-1	9.965172E-1	9.628629E-1	9.197260E-1	8.744946E-1
2.854010E+2	6.801122E-1	6.924137E-1	7.190799E-1	6.919037E-1	7.428100E-1	6.907599E-1	7.106866E-1	6.847994E-1	7.143665E-1	7.150440E-1	6.896366E-1	7.191312E-1	7.325380E-1	7.503971E-1	6.844558E-1	7.073440E-1	6.374184E-1	7.765410E-1	7.199631E-1	6.918360E-1	7.310686E-1	7.342962E-1	7.218910E-1	7.332744E-1	7.345101E-1	7.148901E-1	7.180927E-1	7.803398E-1	7.386040E-1	7.534762E-1	6.390828E-1	6.819190E-1	6.992306E-1	6.620761E-1	7.489721E-1	6.477574E-1	6.894530E-1	7.414599E-1	7.213413E-1	7.098819E-1	7.424196E-1	7.637904E-1	7.071310E-1	6.757109E-1	6.983762E-1	7.066737E-1	7.506941E-1	7.367822E-1	7.731475E-1	7.534260E-1	7.102046E-1	6.870651E-1	7.392265E-1	6.972574E-1	7.417339E-1	6.809708E-1	6.950768E-1	7.512021E-1	7.485238E-1	7.382884E-1	6.656333E-1	7.714964E-1	7.223781E-1	7.427211E-1	7.046890E-1	7.095046E-1	7.029917E-1	7.261428E-1	7.575081E-1	6.793366E-1	6.503494E-1	7.456221E-1	7.315125E-1	6.842599E-1	6.990946E-1	6.951143E-1	6.933183E-1	7.153669E-1	7.008958E-1	7.622872E-1	7.194565E-1	7.651666E-1	7.116551E-1	7.210943E-1	7.125793E-1	6.925787E-1	7.218250E-1	7.204087E-1	7.329558E-1	6.852193E-1	6.847047E-1	7.578741E-1	7.403451E-1	7.547178E-1	7.043681E-1	8.200601E-1	7.327450E-1	7.093077E-1	7.250035E-1	7.730444E-1	7.338659E-1	8.053230E-1	6.897373E-1	7.153356E-1	6.732128E-1	8.149805E-1	7.186315E-1	7.292187E-1	7.779499E-1	7.551826E-1	7.911391E-1	7.483429E-1	7.990488E-1	7.603046E-1	7.016184E-1	7.090070E-1	6.539625E-1	6.834255E-1	7.358792E-1	7.349572E-1	7.542783E-1	7.710142E-1	7.287332E-1	7.059221E-1	6.403910E-1	7.474670E-1	7.135308E-1	7.499096E-1	7.242014E-1	7.275907E-1	6.983026E-1	7.129017E-1	7.771301E-1	7.786419E-1	7.481798E-1	7.185412E-1	6.956236E-1	7.191381E-1	7.028421E-1	7.100105E-1	7.671747E-1	7.036258E-1	7.032539E-1	7.539343E-1	6.854006E-1	7.558311E-1	7.751991E-1	7.161956E-1	7.371380E-1	7.420779E-1	7.737997E-1	7.193790E-1	7.430973E-1	7.333525E-1	7.530594E-1	6.989193E-1	7.259181E-1	7.582979E-1	7.319412E-1	7.360518E-1	6.844180E-1	7.421911E-1	6.972857E-1	7.389799E-1	7.608780E-1	7.070336E-1	7.652905E-1	6.867580E-1	7.317545E-1	7.015381E-1	7.385321E-1	7.532692E-1
2.855000E+2	5.545641E-1	5.236841E-1	5.201285E-1	5.590707E-1	5.339819E-1	5.259206E-1	6.163526E-1	5.121849E-1	5.489457E-1	5.595553E-1	5.995354E-1	5.470866E-1	5.607839E-1	5.759097E-1	5.717456E-1	5.891395E-1	4.883438E-1	5.934059E-1	5.360328E-1	5.143159E-1	4.996250E-1	5.565779E-1	5.611572E-1	5.787807E-1	5.324006E-1	5.668834E-1	5.950757E-1	5.624474E-1	5.380175E-1	5.396743E-1	5.486214E-1	5.851739E-1	5.264441E-1	5.096505E-1	5.000395E-1	5.860767E-1	5.700488E-1	5.875024E-1	5.109022E-1	5.317753E-1	5.558640E-1	5.416000E-1	5.016450E-1	5.208722E-1	5.689835E-1	5.985268E-1	5.890811E-1	5.643938E-1	5.283372E-1	5.455185E-1	5.571195E-1	5.433882E-1	5.244006E-1	5.441533E-1	5.207561E-1	5.445755E-1	5.647664E-1	5.801970E-1	5.672353E-1	5.597179E-1	5.204171E-1	5.674509E-1	5.878546E-1	5.827312E-1	5.516816E-1	5.504631E-1	5.481941E-1	5.601012E-1	5.778128E-1	5.914500E-1	5.918836E-1	5.519191E-1	5.291966E-1	5.327262E-1	5.682025E-1	5.512083E-1	6.098548E-1	5.701375E-1	5.593476E-1	5.899584E-1	5.961990E-1	5.641781E-1	5.465394E-1	5.586857E-1	5.917245E-1	4.990584E-1	5.362096E-1	5.566080E-1	5.703669E-1	5.432046E-1	5.236903E-1	5.370142E-1	5.683874E-1	5.959444E-1	5.340333E-1	5.590938E-1	5.980856E-1	5.539089E-1	5.762379E-1	5.271061E-1	6.193820E-1	5.781366E-1	5.686346E-1	5.399120E-1	5.076466E-1	5.424668E-1	5.795685E-1	4.887605E-1	5.197028E-1	5.890778E-1	5.590519E-1	5.269278E-1	5.610017E-1	5.488189E-1	5.783222E-1	5.413969E-1	5.552768E-1	5.704003E-1	5.844920E-1	5.030531E-1	5.197877E-1	5.780131E-1	5.222459E-1	5.800534E-1	5.623932E-1	5.508591E-1	5.360150E-1	5.400203E-1	5.387721E-1	5.084265E-1	5.556703E-1	6.209029E-1	5.250869E-1	6.190687E-1	5.746820E-1	5.481940E-1	4.873934E-1	5.522509E-1	5.111322E-1	6.243397E-1	6.152297E-1	5.829941E-1	5.371726E-1	5.564446E-1	5.321521E-1	5.722067E-1	5.789175E-1	5.582839E-1	5.459174E-1	5.426797E-1	5.396024E-1	5.743661E-1	5.648455E-1	5.578208E-1	5.110867E-1	5.873897E-1	5.754248E-1	5.314945E-1	5.058529E-1	5.736795E-1	5.235295E-1	5.460597E-1	5.313823E-1	5.000840E-1	5.819800E-1	5.595497E-1	5.797629E-1	5.662511E-1	6.164230E-1	5.486299E-1	4.932364E-1	6.009807E-1
2.856010E+2	4.089246E-1	3.606922E-1	3.467500E-1	4.141861E-1	3.172293E-1	3.652414E-1	4.061728E-1	3.639199E-1	4.089806E-1	4.166742E-1	3.579938E-1	3.879526E-1	3.601778E-1	3.732869E-1	3.957553E-1	3.616443E-1	3.742096E-1	3.992009E-1	3.376709E-1	3.591385E-1	3.520592E-1	3.792007E-1	3.934490E-1	3.758960E-1	3.963090E-1	3.767538E-1	3.914972E-1	3.633397E-1	3.448612E-1	4.290752E-1	3.808680E-1	3.951121E-1	3.934176E-1	3.985939E-1	3.662481E-1	3.423361E-1	4.005146E-1	3.923792E-1	3.740693E-1	3.981630E-1	4.066886E-1	3.737367E-1	3.752754E-1	3.806894E-1	3.886851E-1	3.601131E-1	3.903581E-1	3.369753E-1	3.441429E-1	3.902103E-1	4.028670E-1	4.082232E-1	3.884374E-1	3.778647E-1	3.525835E-1	3.786873E-1	3.796897E-1	3.864390E-1	3.775743E-1	3.314036E-1	3.974879E-1	3.859221E-1	4.011785E-1	3.747919E-1	4.152505E-1	3.851443E-1	4.125644E-1	3.847446E-1	4.018756E-1	3.978677E-1	3.858021E-1	3.888448E-1	4.008401E-1	3.751083E-1	3.558867E-1	3.734339E-1	3.836143E-1	3.332519E-1	3.653812E-1	3.952898E-1	3.838095E-1	3.996866E-1	3.760233E-1	3.888378E-1	3.957001E-1	4.147311E-1	3.969246E-1	4.033959E-1	3.634472E-1	3.513110E-1	3.844510E-1	3.605474E-1	3.593734E-1	3.440922E-1	3.988069E-1	3.817935E-1	3.494367E-1	3.758889E-1	3.866510E-1	4.261916E-1	4.008835E-1	4.219112E-1	3.515633E-1	3.671672E-1	3.943628E-1	4.044597E-1	4.188548E-1	4.083656E-1	3.624472E-1	3.327586E-1	4.075078E-1	3.886401E-1	4.285790E-1	3.751943E-1	3.810090E-1	4.333142E-1	4.005735E-1	4.017616E-1	3.917618E-1	3.846863E-1	3.839908E-1	3.905861E-1	3.474351E-1	4.128420E-1	3.864483E-1	3.959549E-1	3.785544E-1	4.109358E-1	3.819557E-1	3.975321E-1	4.007779E-1	4.234994E-1	3.882445E-1	3.684246E-1	3.361083E-1	3.881623E-1	3.920798E-1	4.044614E-1	3.401829E-1	4.039116E-1	3.931705E-1	4.109715E-1	3.883279E-1	4.060389E-1	3.721824E-1	4.063705E-1	4.105065E-1	3.769560E-1	3.873909E-1	3.610335E-1	3.914239E-1	3.924864E-1	4.088121E-1	3.666081E-1	3.979505E-1	3.544770E-1	4.335489E-1	3.960939E-1	3.707101E-1	3.685738E-1	4.070525E-1	3.311950E-1	3.934669E-1	4.201434E-1	3.756410E-1	3.990220E-1	4.125927E-1	3.678752E-1	4.296903E-1	4.194362E-1	3.732116E-1	3.722962E-1
2.858030E+2	2.629572E-1	2.882695E-1	2.514475E-1	2.821530E-1	3.124064E-1	2.812407E-1	3.013828E-1	3.240301E-1	2.760138E-1	2.990828E-1	2.620134E-1	2.799444E-1	2.707399E-1	3.465940E-1	2.710093E-1	3.004350E-1	2.694420E-1	3.108175E-1	2.561248E-1	2.351177E-1	2.682337E-1	3.071534E-1	2.575404E-1	2.946614E-1	2.873521E-1	2.821623E-1	2.665606E-1	2.775155E-1	3.123107E-1	3.395206E-1	2.716162E-1	2.821734E-1	2.892881E-1	2.879964E-1	2.821090E-1	2.904562E-1	2.753632E-1	2.916181E-1	3.214444E-1	2.803783E-1	2.556375E-1	3.135987E-1	3.154098E-1	2.968813E-1	2.956288E-1	2.778942E-1	2.676807E-1	2.911573E-1	2.997847E-1	3.026113E-1	2.574813E-1	3.073059E-1	2.878708E-1	2.740211E-1	2.805617E-1	3.006853E-1	2.599227E-1	2.870319E-1	3.010761E-1	2.924729E-1	2.742615E-1	3.572520E-1	3.026307E-1	3.027717E-1	2.773844E-1	3.043747E-1	2.971033E-1	2.515468E-1	3.078121E-1	3.082753E-1	3.152326E-1	2.938352E-1	3.134113E-1	2.942626E-1	2.729323E-1	3.328985E-1	3.127695E-1	2.919855E-1	2.440599E-1	2.982564E-1	3.000210E-1	2.987031E-1	2.763951E-1	2.555797E-1	2.763812E-1	2.573808E-1	3.071765E-1	2.516868E-1	3.065081E-1	3.181133E-1	3.254690E-1	3.294378E-1	3.033188E-1	2.888229E-1	2.865336E-1	3.302072E-1	2.740149E-1	2.948423E-1	2.961221E-1	3.162326E-1	2.839420E-1	2.948441E-1	3.125263E-1	2.724369E-1	3.035374E-1	3.051033E-1	2.516929E-1	2.907842E-1	3.156849E-1	3.011836E-1	3.329156E-1	3.027575E-1	2.935958E-1	3.127412E-1	3.121455E-1	2.843016E-1	3.219684E-1	2.761234E-1	3.097574E-1	2.655199E-1	2.995681E-1	3.348243E-1	2.664087E-1	3.086395E-1	2.971046E-1	2.666745E-1	2.993935E-1	2.789877E-1	2.859278E-1	3.069574E-1	3.271106E-1	3.208760E-1	3.208961E-1	3.247668E-1	3.115224E-1	2.644410E-1	3.022097E-1	2.959041E-1	2.624172E-1	3.166324E-1	3.117198E-1	2.862511E-1	2.988476E-1	2.915600E-1	2.817222E-1	2.839719E-1	3.026430E-1	2.657717E-1	2.658316E-1	2.925529E-1	2.951478E-1	3.349854E-1	3.128232E-1	3.042289E-1	2.526190E-1	2.952130E-1	2.884898E-1	3.417119E-1	3.175980E-1	3.165571E-1	2.903628E-1	3.135070E-1	2.923114E-1	2.889489E-1	3.174046E-1	2.943546E-1	2.853386E-1	3.013535E-1	3.113392E-1	2.976279E-1	3.087244E-1	2.424313E-1
2.860050E+2	5.841722E-1	5.766679E-1	5.548803E-1	5.755998E-1	5.843251E-1	6.275226E-1	5.276852E-1	5.585603E-1	5.863347E-1	5.961874E-1	5.725666E-1	5.734612E-1	5.724860E-1	5.368909E-1	5.521004E-1	5.593157E-1	4.988127E-1	6.512512E-1	5.855121E-1	5.985795E-1	5.841046E-1	5.627522E-1	5.241142E-1	5.146211E-1	5.680296E-1	6.115294E-1	5.937125E-1	5.886121E-1	5.231885E-1	5.974035E-1	5.565147E-1	5.665336E-1	5.398614E-1	5.326259E-1	6.231160E-1	5.140118E-1	5.308985E-1	5.721561E-1	5.676340E-1	5.454814E-1	5.984703E-1	5.869379E-1	5.839589E-1	5.525779E-1	5.617274E-1	6.200912E-1	5.830007E-1	5.546848E-1	5.964827E-1	5.876918E-1	5.447441E-1	6.263701E-1	5.898935E-1	5.563235E-1	6.073492E-1	5.656150E-1	5.457928E-1	5.745096E-1	5.759624E-1	5.836966E-1	5.633046E-1	6.161547E-1	5.306711E-1	5.575468E-1	5.901988E-1	5.598245E-1	5.683155E-1	5.304111E-1	5.735729E-1	5.679171E-1	5.440633E-1	6.107053E-1	6.653925E-1	5.626451E-1	6.107725E-1	6.038574E-1	6.357049E-1	5.825531E-1	5.798693E-1	5.711095E-1	5.461352E-1	5.621165E-1	6.265072E-1	5.506544E-1	5.295359E-1	5.592141E-1	5.895253E-1	5.962010E-1	5.204737E-1	5.502506E-1	6.097269E-1	5.518044E-1	5.948333E-1	5.565200E-1	5.955946E-1	5.847069E-1	5.344168E-1	6.444553E-1	5.714453E-1	5.668184E-1	5.733986E-1	5.659909E-1	5.582718E-1	5.510654E-1	5.763193E-1	5.756797E-1	5.543561E-1	5.426589E-1	6.269406E-1	5.845120E-1	5.875089E-1	5.288085E-1	5.734933E-1	5.257822E-1	5.714901E-1	6.593449E-1	5.737670E-1	6.083980E-1	5.644432E-1	5.390022E-1	5.375258E-1	6.399974E-1	5.502851E-1	5.790046E-1	5.658983E-1	5.764485E-1	5.903884E-1	6.178535E-1	5.223538E-1	5.477210E-1	5.794063E-1	6.029617E-1	5.839788E-1	5.641516E-1	6.240685E-1	5.812648E-1	6.090731E-1	6.603092E-1	5.895392E-1	5.906319E-1	5.435695E-1	6.586907E-1	5.932895E-1	5.748613E-1	5.439295E-1	6.056619E-1	6.031410E-1	6.034037E-1	5.426466E-1	5.697451E-1	6.385094E-1	5.828623E-1	5.660350E-1	5.791858E-1	5.960275E-1	5.660245E-1	5.902048E-1	6.550294E-1	5.881776E-1	5.645021E-1	5.382112E-1	5.668881E-1	5.594600E-1	5.575756E-1	6.326150E-1	5.886736E-1	5.662879E-1	5.893986E-1	5.604180E-1	6.062497E-1	5.358077E-1	5.308833E-1
2.862030E+2	1.228940E+0	1.147590E+0	1.209441E+0	1.229789E+0	1.157343E+0	1.235674E+0	1.226033E+0	1.172666E+0	1.254602E+0	1.208120E+0	1.242476E+0	1.264188E+0	1.228359E+0	1.179227E+0	1.203924E+0	1.139623E+0	1.111134E+0	1.221614E+0	1.248799E+0	1.200867E+0	1.255465E+0	1.122512E+0	1.171620E+0	1.197416E+0	1.224682E+0	1.174452E+0	1.208366E+0	1.181572E+0	1.122861E+0	1.325003E+0	1.199133E+0	1.204843E+0	1.246181E+0	1.223094E+0	1.225039E+0	1.142822E+0	1.171839E+0	1.247825E+0	1.203050E+0	1.192250E+0	1.298483E+0	1.227254E+0	1.158346E+0	1.155015E+0	1.153377E+0	1.225821E+0	1.209485E+0	1.245446E+0	1.219724E+0	1.187444E+0	1.165654E+0	1.272468E+0	1.201216E+0	1.199490E+0	1.238902E+0	1.254549E+0	1.192405E+0	1.223585E+0	1.152119E+0	1.163216E+0	1.187527E+0	1.165614E+0	1.262636E+0	1.263098E+0	1.269175E+0	1.176676E+0	1.161220E+0	1.201658E+0	1.282234E+0	1.224375E+0	1.160589E+0	1.216703E+0	1.194154E+0	1.172013E+0	1.199031E+0	1.122208E+0	1.132067E+0	1.190130E+0	1.171362E+0	1.188522E+0	1.194171E+0	1.198505E+0	1.194087E+0	1.134014E+0	1.202047E+0	1.219981E+0	1.289102E+0	1.276751E+0	1.209555E+0	1.251864E+0	1.183890E+0	1.265778E+0	1.214176E+0	1.225246E+0	1.241399E+0	1.240987E+0	1.221108E+0	1.173644E+0	1.182500E+0	1.291586E+0	1.256406E+0	1.204676E+0	1.177640E+0	1.126114E+0	1.263232E+0	1.245422E+0	1.113427E+0	1.138957E+0	1.229971E+0	1.228626E+0	1.221535E+0	1.218635E+0	1.178679E+0	1.180919E+0	1.196811E+0	1.192092E+0	1.207286E+0	1.196342E+0	1.289549E+0	1.153261E+0	1.202894E+0	1.256936E+0	1.261097E+0	1.254715E+0	1.211637E+0	1.201125E+0	1.250919E+0	1.255723E+0	1.179789E+0	1.216225E+0	1.231432E+0	1.218228E+0	1.174229E+0	1.265026E+0	1.201283E+0	1.310210E+0	1.193865E+0	1.217079E+0	1.303430E+0	1.252726E+0	1.238700E+0	1.264641E+0	1.272635E+0	1.134083E+0	1.302321E+0	1.224727E+0	1.249008E+0	1.255027E+0	1.275618E+0	1.188181E+0	1.204696E+0	1.196440E+0	1.280895E+0	1.192736E+0	1.164486E+0	1.252066E+0	1.197702E+0	1.177691E+0	1.235937E+0	1.164051E+0	1.166744E+0	1.227803E+0	1.201265E+0	1.129501E+0	1.247206E+0	1.172752E+0	1.231628E+0	1.271128E+0	1.187747E+0	1.221152E+0	1.317150E+0	1.326694E+0
2.864210E+2	1.381254E+0	1.300767E+0	1.368796E+0	1.327941E+0	1.402415E+0	1.383019E+0	1.348686E+0	1.320219E+0	1.446682E+0	1.351097E+0	1.351624E+0	1.384935E+0	1.433647E+0	1.418570E+0	1.412422E+0	1.308642E+0	1.276982E+0	1.397788E+0	1.383582E+0	1.377468E+0	1.329475E+0	1.319064E+0	1.444266E+0	1.325659E+0	1.346380E+0	1.328643E+0	1.306508E+0	1.355210E+0	1.363330E+0	1.419846E+0	1.374790E+0	1.404238E+0	1.366054E+0	1.379305E+0	1.349066E+0	1.323753E+0	1.328495E+0	1.316372E+0	1.270205E+0	1.400723E+0	1.469303E+0	1.416775E+0	1.351545E+0	1.324539E+0	1.372262E+0	1.307597E+0	1.449005E+0	1.314149E+0	1.442615E+0	1.266351E+0	1.296919E+0	1.310986E+0	1.365269E+0	1.357615E+0	1.378873E+0	1.320839E+0	1.385481E+0	1.410579E+0	1.419767E+0	1.428294E+0	1.345143E+0	1.467662E+0	1.430547E+0	1.334075E+0	1.364582E+0	1.337156E+0	1.330745E+0	1.464325E+0	1.325762E+0	1.328712E+0	1.335718E+0	1.324046E+0	1.376423E+0	1.417752E+0	1.343133E+0	1.369820E+0	1.365555E+0	1.355504E+0	1.404880E+0	1.424194E+0	1.327331E+0	1.424330E+0	1.302562E+0	1.330964E+0	1.415708E+0	1.359278E+0	1.407972E+0	1.344828E+0	1.388042E+0	1.319225E+0	1.346691E+0	1.380565E+0	1.423027E+0	1.377179E+0	1.316898E+0	1.294882E+0	1.296960E+0	1.285710E+0	1.312364E+0	1.377978E+0	1.404084E+0	1.412485E+0	1.338272E+0	1.313723E+0	1.370080E+0	1.404172E+0	1.375663E+0	1.360389E+0	1.388086E+0	1.334360E+0	1.406291E+0	1.355181E+0	1.456549E+0	1.275705E+0	1.343703E+0	1.409435E+0	1.375141E+0	1.406291E+0	1.455853E+0	1.353146E+0	1.282825E+0	1.377090E+0	1.369764E+0	1.357060E+0	1.311681E+0	1.296683E+0	1.322591E+0	1.381919E+0	1.356500E+0	1.332271E+0	1.450362E+0	1.264394E+0	1.440675E+0	1.385871E+0	1.398648E+0	1.371862E+0	1.348078E+0	1.294555E+0	1.362649E+0	1.392586E+0	1.340249E+0	1.322578E+0	1.388374E+0	1.362300E+0	1.276250E+0	1.382624E+0	1.413493E+0	1.358462E+0	1.428308E+0	1.344705E+0	1.375373E+0	1.377509E+0	1.369485E+0	1.364035E+0	1.448581E+0	1.357043E+0	1.323665E+0	1.554496E+0	1.459233E+0	1.369935E+0	1.346930E+0	1.308528E+0	1.306236E+0	1.386997E+0	1.355871E+0	1.257535E+0	1.387554E+0	1.265616E+0	1.389107E+0	1.445063E+0	1.289426E+0	1.376542E+0
2.866160E+2	1.162842E+0	1.106120E+0	1.131716E+0	1.140469E+0	1.119666E+0	1.149712E+0	1.051994E+0	1.120305E+0	1.120946E+0	1.135656E+0	1.111226E+0	1.161298E+0	1.080764E+0	1.169444E+0	1.148193E+0	1.085758E+0	1.094545E+0	1.172867E+0	1.138510E+0	1.170716E+0	1.156887E+0	1.101967E+0	1.039329E+0	1.121489E+0	1.204150E+0	1.183198E+0	1.125457E+0	1.111654E+0	1.152177E+0	1.110816E+0	1.157349E+0	1.102197E+0	1.163817E+0	1.167623E+0	1.113098E+0	1.131712E+0	1.030051E+0	1.094359E+0	1.036803E+0	1.088643E+0	1.141997E+0	1.138974E+0	1.153957E+0	1.053654E+0	1.106617E+0	1.131977E+0	1.190420E+0	1.117520E+0	1.094025E+0	1.125658E+0	1.072215E+0	1.079601E+0	1.149607E+0	1.094997E+0	1.158435E+0	1.173078E+0	1.127476E+0	1.064953E+0	1.194370E+0	1.174386E+0	1.117582E+0	1.115058E+0	1.130665E+0	1.135342E+0	1.071688E+0	1.096930E+0	1.102177E+0	1.090800E+0	1.131656E+0	1.125107E+0	1.067108E+0	1.132877E+0	1.147004E+0	1.139363E+0	1.071066E+0	1.022995E+0	1.126469E+0	1.077565E+0	1.132654E+0	1.138794E+0	1.132181E+0	1.130725E+0	1.087310E+0	1.077627E+0	1.235404E+0	1.062914E+0	1.181430E+0	1.221545E+0	1.080172E+0	1.074777E+0	1.098866E+0	1.174364E+0	1.145497E+0	1.136752E+0	1.141190E+0	1.096002E+0	1.062909E+0	1.051346E+0	1.114737E+0	1.077097E+0	1.135405E+0	1.116435E+0	1.147172E+0	1.150662E+0	1.115238E+0	1.187623E+0	1.100570E+0	1.120511E+0	1.099361E+0	1.127786E+0	1.184773E+0	1.134509E+0	1.112631E+0	1.105255E+0	1.133879E+0	1.140886E+0	1.074299E+0	1.166048E+0	1.244700E+0	1.079909E+0	1.113540E+0	1.177936E+0	1.102606E+0	1.200178E+0	1.183126E+0	1.101212E+0	1.111412E+0	1.094902E+0	1.143391E+0	1.120282E+0	1.201444E+0	1.151480E+0	1.066865E+0	1.148530E+0	1.138517E+0	1.113724E+0	1.184248E+0	1.146944E+0	1.197267E+0	1.183903E+0	1.133575E+0	1.082681E+0	1.106826E+0	1.231666E+0	1.146249E+0	1.072454E+0	1.140593E+0	1.136850E+0	1.076264E+0	1.100615E+0	1.179672E+0	1.134068E+0	1.168342E+0	1.176288E+0	1.114472E+0	9.970687E-1	1.101803E+0	1.093943E+0	1.153930E+0	1.121570E+0	1.180925E+0	1.050751E+0	1.083532E+0	1.093254E+0	1.174411E+0	1.071518E+0	1.089603E+0	1.047928E+0	1.082943E+0	1.132553E+0	1.209516E+0	1.230856E+0
2.868020E+2	1.431668E+0	1.449194E+0	1.359526E+0	1.526829E+0	1.422298E+0	1.418479E+0	1.456486E+0	1.358998E+0	1.451576E+0	1.413323E+0	1.424466E+0	1.409459E+0	1.420016E+0	1.367192E+0	1.359688E+0	1.483050E+0	1.349892E+0	1.464107E+0	1.363297E+0	1.407918E+0	1.361660E+0	1.372529E+0	1.372243E+0	1.355308E+0	1.411997E+0	1.408133E+0	1.402825E+0	1.401838E+0	1.348758E+0	1.417359E+0	1.514427E+0	1.334304E+0	1.374328E+0	1.434983E+0	1.442537E+0	1.373745E+0	1.358386E+0	1.452359E+0	1.334834E+0	1.525631E+0	1.484665E+0	1.469203E+0	1.510700E+0	1.338721E+0	1.450251E+0	1.451743E+0	1.440631E+0	1.479898E+0	1.408764E+0	1.455358E+0	1.378216E+0	1.369429E+0	1.451081E+0	1.420951E+0	1.436955E+0	1.393672E+0	1.440188E+0	1.402989E+0	1.418695E+0	1.482063E+0	1.423143E+0	1.416319E+0	1.411522E+0	1.430797E+0	1.415883E+0	1.446844E+0	1.411476E+0	1.479333E+0	1.328418E+0	1.362456E+0	1.418668E+0	1.394970E+0	1.409017E+0	1.382172E+0	1.424517E+0	1.427219E+0	1.408728E+0	1.438106E+0	1.372983E+0	1.433080E+0	1.430353E+0	1.446221E+0	1.443919E+0	1.335103E+0	1.449755E+0	1.322464E+0	1.356133E+0	1.458389E+0	1.454630E+0	1.423323E+0	1.424888E+0	1.439184E+0	1.440747E+0	1.363970E+0	1.404781E+0	1.499028E+0	1.472677E+0	1.471056E+0	1.369550E+0	1.358456E+0	1.448922E+0	1.428702E+0	1.396101E+0	1.395274E+0	1.436819E+0	1.445866E+0	1.399874E+0	1.386994E+0	1.422899E+0	1.394182E+0	1.419238E+0	1.483249E+0	1.470413E+0	1.396082E+0	1.470042E+0	1.483410E+0	1.499777E+0	1.437494E+0	1.451879E+0	1.436537E+0	1.372818E+0	1.510802E+0	1.405402E+0	1.413938E+0	1.472029E+0	1.400624E+0	1.423164E+0	1.402142E+0	1.481056E+0	1.415168E+0	1.537148E+0	1.375894E+0	1.454468E+0	1.388351E+0	1.406087E+0	1.540037E+0	1.428622E+0	1.399436E+0	1.521664E+0	1.478355E+0	1.345382E+0	1.402338E+0	1.494617E+0	1.424274E+0	1.396407E+0	1.371550E+0	1.493705E+0	1.458378E+0	1.418980E+0	1.405322E+0	1.417046E+0	1.402071E+0	1.474474E+0	1.456553E+0	1.372668E+0	1.433417E+0	1.399671E+0	1.403782E+0	1.393973E+0	1.356877E+0	1.516037E+0	1.374159E+0	1.355161E+0	1.390686E+0	1.452520E+0	1.479777E+0	1.358090E+0	1.396785E+0	1.558445E+0	1.415066E+0	1.405017E+0	1.378639E+0
2.870100E+2	1.415882E+0	1.370194E+0	1.408060E+0	1.445287E+0	1.499669E+0	1.366994E+0	1.414011E+0	1.476009E+0	1.411513E+0	1.441162E+0	1.429342E+0	1.518600E+0	1.436162E+0	1.420967E+0	1.458947E+0	1.387027E+0	1.447679E+0	1.476195E+0	1.502432E+0	1.455322E+0	1.467584E+0	1.442652E+0	1.343537E+0	1.382260E+0	1.493446E+0	1.410657E+0	1.432773E+0	1.393314E+0	1.411519E+0	1.496068E+0	1.431676E+0	1.474697E+0	1.471650E+0	1.432376E+0	1.418440E+0	1.439823E+0	1.501652E+0	1.390197E+0	1.378668E+0	1.491779E+0	1.390163E+0	1.556752E+0	1.463079E+0	1.448330E+0	1.447094E+0	1.489793E+0	1.454312E+0	1.447565E+0	1.422379E+0	1.480354E+0	1.430061E+0	1.457990E+0	1.453715E+0	1.457074E+0	1.375071E+0	1.389887E+0	1.458109E+0	1.393520E+0	1.429282E+0	1.455858E+0	1.436635E+0	1.462685E+0	1.482320E+0	1.429916E+0	1.463584E+0	1.433839E+0	1.396805E+0	1.449720E+0	1.459820E+0	1.498839E+0	1.386133E+0	1.452465E+0	1.442425E+0	1.440462E+0	1.354471E+0	1.516125E+0	1.421557E+0	1.435491E+0	1.444574E+0	1.490917E+0	1.478997E+0	1.447652E+0	1.403978E+0	1.369057E+0	1.464585E+0	1.353772E+0	1.419668E+0	1.503925E+0	1.518065E+0	1.402997E+0	1.495341E+0	1.445127E+0	1.477707E+0	1.400559E+0	1.487823E+0	1.476906E+0	1.342637E+0	1.484798E+0	1.428520E+0	1.430970E+0	1.529218E+0	1.511458E+0	1.416074E+0	1.381362E+0	1.419490E+0	1.467726E+0	1.456054E+0	1.465548E+0	1.428288E+0	1.392682E+0	1.459912E+0	1.422640E+0	1.414463E+0	1.424301E+0	1.472084E+0	1.534736E+0	1.370725E+0	1.419254E+0	1.437232E+0	1.362246E+0	1.500038E+0	1.436185E+0	1.389066E+0	1.503069E+0	1.409296E+0	1.439720E+0	1.538532E+0	1.494619E+0	1.411961E+0	1.428271E+0	1.511803E+0	1.473068E+0	1.428771E+0	1.391882E+0	1.493013E+0	1.446136E+0	1.466994E+0	1.450057E+0	1.464221E+0	1.421397E+0	1.356011E+0	1.405396E+0	1.506377E+0	1.383225E+0	1.417816E+0	1.400845E+0	1.452832E+0	1.392233E+0	1.442459E+0	1.465935E+0	1.521366E+0	1.479864E+0	1.450657E+0	1.381193E+0	1.403584E+0	1.427074E+0	1.422675E+0	1.482038E+0	1.422168E+0	1.345040E+0	1.539338E+0	1.414904E+0	1.423805E+0	1.449343E+0	1.416532E+0	1.433313E+0	1.480156E+0	1.399268E+0	1.472052E+0	1.514935E+0	1.406114E+0	1.454840E+0
2.872160E+2	9.945611E-1	9.432120E-1	9.493085E-1	9.283224E-1	1.051397E+0	9.685103E-1	9.327504E-1	1.018382E+0	1.056599E+0	9.996905E-1	1.035902E+0	1.004661E+0	1.061831E+0	1.012511E+0	1.008643E+0	9.745807E-1	8.733178E-1	1.035161E+0	9.863575E-1	8.892971E-1	1.038975E+0	9.456059E-1	9.669949E-1	1.038487E+0	9.713396E-1	9.498072E-1	1.133493E+0	1.037035E+0	9.527716E-1	1.076966E+0	1.035326E+0	9.784929E-1	9.785189E-1	9.774639E-1	1.067360E+0	1.016375E+0	9.891159E-1	1.045717E+0	9.484937E-1	9.773280E-1	1.035980E+0	1.014858E+0	1.018561E+0	1.015123E+0	9.595082E-1	9.616869E-1	9.477257E-1	9.375335E-1	9.692253E-1	9.933969E-1	9.655710E-1	1.037143E+0	1.048107E+0	9.548747E-1	1.017441E+0	9.669639E-1	1.012699E+0	1.033843E+0	1.020570E+0	1.076475E+0	1.011595E+0	1.013227E+0	9.799346E-1	1.024907E+0	1.057915E+0	9.700489E-1	1.018151E+0	1.028860E+0	1.003673E+0	1.041909E+0	9.724718E-1	1.020044E+0	9.684087E-1	9.665944E-1	9.430976E-1	1.048572E+0	9.927591E-1	9.613583E-1	1.096169E+0	1.001167E+0	9.922166E-1	9.964367E-1	9.842362E-1	1.012634E+0	1.073757E+0	9.972015E-1	1.077303E+0	9.792085E-1	1.054262E+0	9.624287E-1	1.037073E+0	9.750668E-1	1.038564E+0	1.009747E+0	9.453083E-1	1.017680E+0	1.011766E+0	9.577606E-1	1.019630E+0	1.039654E+0	1.032893E+0	9.597804E-1	9.825540E-1	9.551075E-1	9.839952E-1	9.746493E-1	1.044720E+0	9.823863E-1	1.015242E+0	1.013659E+0	1.040022E+0	9.886792E-1	9.977345E-1	1.009993E+0	9.959511E-1	1.005104E+0	1.014326E+0	9.847406E-1	1.006608E+0	9.948111E-1	9.888125E-1	9.867649E-1	1.000608E+0	1.004730E+0	1.042936E+0	9.636068E-1	1.022976E+0	9.824815E-1	1.063180E+0	9.593587E-1	1.021521E+0	1.028712E+0	1.011603E+0	1.010164E+0	1.024323E+0	1.073080E+0	9.736619E-1	9.923202E-1	9.929789E-1	1.018540E+0	1.037720E+0	1.065808E+0	9.888435E-1	1.030575E+0	9.727083E-1	9.968204E-1	1.056642E+0	1.000595E+0	9.633546E-1	9.407687E-1	1.092813E+0	9.690515E-1	1.052391E+0	1.016487E+0	1.063310E+0	1.021136E+0	9.728631E-1	1.000947E+0	1.027861E+0	9.999934E-1	1.077179E+0	9.762355E-1	9.906468E-1	1.023632E+0	1.013529E+0	1.050378E+0	9.974142E-1	9.208569E-1	1.076759E+0	1.045079E+0	1.016061E+0	9.452957E-1
2.874030E+2	7.235010E-1	6.738728E-1	6.794143E-1	6.764508E-1	7.323576E-1	7.672593E-1	6.676473E-1	6.433658E-1	6.580868E-1	6.810721E-1	6.827834E-1	6.539681E-1	7.065758E-1	6.542133E-1	6.634414E-1	6.396599E-1	6.111544E-1	6.837892E-1	6.978255E-1	6.667420E-1	6.912141E-1	6.837995E-1	6.701175E-1	7.017097E-1	7.350281E-1	6.664651E-1	6.847710E-1	6.861287E-1	6.888529E-1	7.168063E-1	7.319514E-1	6.575978E-1	6.173310E-1	6.905916E-1	6.484707E-1	6.792163E-1	6.642353E-1	6.539132E-1	6.807589E-1	7.137253E-1	6.806257E-1	7.176311E-1	6.859706E-1	6.599173E-1	6.357913E-1	6.427909E-1	6.571538E-1	6.777915E-1	6.440170E-1	6.898227E-1	6.534256E-1	6.714830E-1	7.174927E-1	7.122373E-1	6.789249E-1	6.511595E-1	6.368824E-1	6.326013E-1	6.643893E-1	6.744312E-1	6.266880E-1	6.441127E-1	7.317738E-1	6.599872E-1	6.848174E-1	6.896616E-1	6.386052E-1	6.979250E-1	6.356761E-1	6.744324E-1	6.814523E-1	7.060117E-1	6.772122E-1	6.866636E-1	6.492928E-1	6.475326E-1	6.865504E-1	6.905920E-1	6.673558E-1	7.276076E-1	6.929293E-1	7.311155E-1	6.593864E-1	6.135867E-1	7.025264E-1	6.245026E-1	7.053323E-1	6.848976E-1	7.346615E-1	6.890992E-1	6.472715E-1	7.439236E-1	6.492840E-1	7.494626E-1	7.008195E-1	7.269558E-1	7.256237E-1	6.475232E-1	7.411528E-1	6.091796E-1	7.235420E-1	7.270460E-1	6.733112E-1	6.726325E-1	6.619800E-1	6.380298E-1	6.920654E-1	7.359338E-1	6.996073E-1	6.743375E-1	7.372275E-1	6.615193E-1	7.076837E-1	6.316208E-1	7.167095E-1	7.218858E-1	6.466076E-1	6.834720E-1	7.408357E-1	6.664170E-1	7.344093E-1	6.639161E-1	7.140981E-1	6.467856E-1	6.243262E-1	7.034949E-1	7.082048E-1	6.369016E-1	7.019507E-1	7.169987E-1	7.172690E-1	6.858419E-1	6.987749E-1	7.055386E-1	6.839004E-1	6.558959E-1	7.098222E-1	6.805123E-1	6.952437E-1	7.559964E-1	6.899008E-1	6.041651E-1	6.986854E-1	7.406100E-1	6.800402E-1	6.331094E-1	7.346841E-1	7.314591E-1	7.381585E-1	7.113827E-1	6.448740E-1	6.528082E-1	6.569493E-1	7.158010E-1	6.684603E-1	6.811535E-1	6.522314E-1	6.830324E-1	7.229036E-1	6.936218E-1	5.967536E-1	6.261106E-1	7.210810E-1	6.231589E-1	6.297640E-1	6.629316E-1	7.445060E-1	7.289941E-1	6.318409E-1	7.300286E-1	7.231014E-1	7.530375E-1
2.876200E+2	6.315592E-1	5.974427E-1	5.513886E-1	5.972373E-1	6.115300E-1	5.731003E-1	5.302861E-1	5.474697E-1	6.395801E-1	5.976651E-1	6.074852E-1	6.183436E-1	6.214965E-1	6.446826E-1	6.391305E-1	6.198325E-1	5.929047E-1	6.563446E-1	6.074171E-1	5.827718E-1	6.118913E-1	5.740385E-1	5.999521E-1	6.081440E-1	6.257114E-1	5.499061E-1	6.199137E-1	5.529100E-1	5.793390E-1	6.376858E-1	5.783718E-1	5.920222E-1	6.018946E-1	5.926302E-1	5.847866E-1	6.028429E-1	5.607578E-1	6.185557E-1	5.662831E-1	6.620550E-1	5.722432E-1	6.407572E-1	6.335446E-1	6.022685E-1	5.881037E-1	6.396951E-1	6.354157E-1	6.352940E-1	5.895795E-1	5.723726E-1	5.810598E-1	6.384062E-1	5.903080E-1	6.160018E-1	6.269250E-1	5.705125E-1	5.746956E-1	6.000181E-1	5.662951E-1	5.503296E-1	5.720987E-1	6.265265E-1	6.469286E-1	6.515093E-1	5.774971E-1	6.820391E-1	6.129321E-1	6.799564E-1	6.160433E-1	6.473342E-1	5.705254E-1	6.264101E-1	6.732089E-1	6.504351E-1	5.775591E-1	6.209570E-1	6.084371E-1	5.990304E-1	5.480537E-1	6.148599E-1	6.362841E-1	6.788648E-1	5.840577E-1	5.866561E-1	6.175478E-1	5.820304E-1	5.942584E-1	6.426064E-1	5.802129E-1	5.706694E-1	6.167809E-1	6.395048E-1	6.325711E-1	5.934631E-1	6.331023E-1	6.551215E-1	6.472573E-1	6.384321E-1	6.268521E-1	6.028517E-1	5.856444E-1	5.717987E-1	6.214633E-1	6.326596E-1	5.863604E-1	6.239620E-1	6.163642E-1	6.446291E-1	6.204459E-1	6.078685E-1	6.320385E-1	6.022577E-1	6.307492E-1	6.276189E-1	6.020720E-1	6.535455E-1	6.214475E-1	6.172584E-1	6.115938E-1	6.101714E-1	6.119167E-1	5.893617E-1	6.022839E-1	6.614197E-1	5.733314E-1	6.635251E-1	5.980858E-1	6.213878E-1	6.285353E-1	6.465060E-1	6.290136E-1	6.051948E-1	6.161960E-1	5.721369E-1	6.427866E-1	6.367906E-1	6.323593E-1	6.373523E-1	6.297310E-1	6.558796E-1	6.213285E-1	6.090828E-1	5.529027E-1	6.114383E-1	5.948339E-1	5.777805E-1	6.190392E-1	6.645857E-1	6.530916E-1	6.318517E-1	6.405989E-1	6.073657E-1	6.330385E-1	5.838267E-1	5.949488E-1	6.098721E-1	5.706610E-1	6.175295E-1	5.884030E-1	6.055555E-1	5.929308E-1	6.239655E-1	5.445271E-1	6.572292E-1	6.374782E-1	6.308122E-1	5.869265E-1	5.836805E-1	6.412002E-1	6.975448E-1	5.954523E-1	6.766330E-1
2.878020E+2	5.945083E-1	5.960869E-1	5.909934E-1	5.998297E-1	6.024195E-1	6.409980E-1	5.885524E-1	5.955437E-1	5.558024E-1	5.814368E-1	5.983436E-1	6.634896E-1	5.709427E-1	6.012500E-1	5.919896E-1	6.514458E-1	6.198554E-1	6.066011E-1	6.469241E-1	6.148679E-1	5.662653E-1	6.218733E-1	6.507139E-1	5.986825E-1	6.132555E-1	6.007910E-1	5.768757E-1	6.744597E-1	6.482221E-1	6.178525E-1	6.643595E-1	6.183567E-1	6.278221E-1	6.036121E-1	6.186402E-1	6.189048E-1	5.702816E-1	5.922334E-1	5.982929E-1	6.422421E-1	6.180807E-1	6.476598E-1	6.224925E-1	5.624676E-1	6.168661E-1	6.263289E-1	6.235800E-1	6.365753E-1	6.076801E-1	5.977016E-1	5.886641E-1	6.822911E-1	6.593836E-1	6.346727E-1	6.198529E-1	6.279773E-1	6.135641E-1	6.761022E-1	6.245623E-1	6.401588E-1	5.492993E-1	6.371659E-1	6.173828E-1	5.952530E-1	5.943051E-1	6.174444E-1	5.989612E-1	6.114030E-1	5.799431E-1	6.122632E-1	6.155303E-1	6.096248E-1	6.583605E-1	5.710066E-1	6.031854E-1	6.627394E-1	5.973727E-1	6.305013E-1	6.321165E-1	6.165372E-1	5.894926E-1	6.571022E-1	6.127459E-1	5.840668E-1	5.740659E-1	6.104453E-1	6.516202E-1	6.372862E-1	6.073746E-1	5.883913E-1	6.154320E-1	6.533285E-1	6.533383E-1	5.923995E-1	6.629097E-1	6.122340E-1	5.668358E-1	6.355859E-1	6.839458E-1	6.380082E-1	5.983047E-1	5.828805E-1	6.136415E-1	5.627316E-1	6.183035E-1	5.773680E-1	6.094316E-1	6.046428E-1	6.362503E-1	5.688021E-1	6.247908E-1	6.556291E-1	6.262619E-1	6.025779E-1	6.092237E-1	6.610342E-1	5.935530E-1	5.934632E-1	6.166619E-1	5.962261E-1	6.644538E-1	6.350483E-1	6.400861E-1	6.067566E-1	6.281798E-1	6.424566E-1	6.095012E-1	6.629293E-1	5.768790E-1	6.221281E-1	6.012039E-1	6.667625E-1	6.086463E-1	6.595419E-1	5.975726E-1	6.186411E-1	6.022749E-1	6.566567E-1	6.100917E-1	6.062711E-1	6.603800E-1	5.912552E-1	6.496171E-1	6.499567E-1	6.040357E-1	6.330971E-1	6.907845E-1	6.108535E-1	6.249453E-1	6.267500E-1	6.832435E-1	5.712087E-1	6.497412E-1	5.772403E-1	5.801573E-1	6.083725E-1	6.456770E-1	6.280072E-1	6.785402E-1	5.949434E-1	6.166579E-1	6.530005E-1	6.081062E-1	6.743217E-1	6.270666E-1	6.496997E-1	6.361461E-1	5.836540E-1	7.125415E-1	6.447117E-1	7.071329E-1	5.417486E-1
2.880020E+2	6.754546E-1	6.636346E-1	6.692242E-1	6.819455E-1	6.379307E-1	6.838504E-1	5.728458E-1	6.564911E-1	6.735600E-1	6.829969E-1	6.827504E-1	6.660478E-1	6.756836E-1	6.457656E-1	6.440219E-1	5.896039E-1	6.149452E-1	6.175764E-1	6.245520E-1	5.924945E-1	6.420307E-1	6.532745E-1	6.180260E-1	6.119620E-1	6.731490E-1	6.182768E-1	6.334458E-1	6.032923E-1	6.244342E-1	6.485558E-1	6.548607E-1	6.658784E-1	6.651313E-1	6.215586E-1	6.672218E-1	6.559168E-1	6.227140E-1	6.308758E-1	6.214845E-1	6.482020E-1	6.922674E-1	6.621042E-1	6.831631E-1	5.593687E-1	6.468990E-1	6.765686E-1	7.014412E-1	6.787441E-1	5.876321E-1	6.393350E-1	6.292347E-1	5.976586E-1	6.525981E-1	6.471338E-1	6.215521E-1	6.467325E-1	6.634872E-1	6.678650E-1	6.100656E-1	6.581801E-1	6.063498E-1	6.589086E-1	6.483984E-1	6.568703E-1	6.468481E-1	6.978312E-1	6.223175E-1	6.248465E-1	6.261954E-1	6.718724E-1	6.343543E-1	6.725435E-1	6.186388E-1	5.936238E-1	6.499426E-1	6.647413E-1	6.113017E-1	6.553154E-1	6.953370E-1	6.290768E-1	6.388726E-1	6.596465E-1	6.471796E-1	6.361958E-1	6.740055E-1	6.162599E-1	6.180963E-1	6.742704E-1	6.921354E-1	6.131378E-1	5.760558E-1	6.041319E-1	6.109538E-1	6.346051E-1	6.313712E-1	6.128136E-1	6.274169E-1	6.202269E-1	6.707371E-1	6.138792E-1	6.307628E-1	6.343951E-1	6.210509E-1	6.408857E-1	6.467437E-1	6.061719E-1	6.302287E-1	5.866958E-1	5.846333E-1	6.240853E-1	6.604481E-1	6.472055E-1	6.504842E-1	6.477444E-1	6.641070E-1	7.264538E-1	6.294381E-1	6.593401E-1	6.422016E-1	6.570545E-1	6.371242E-1	6.476437E-1	6.091740E-1	7.039844E-1	5.888705E-1	6.265756E-1	6.874351E-1	6.076276E-1	6.802043E-1	5.992681E-1	6.611317E-1	6.013592E-1	5.777016E-1	6.144172E-1	6.508127E-1	6.252311E-1	6.396567E-1	6.570130E-1	6.650315E-1	6.112257E-1	6.716491E-1	6.988118E-1	6.301973E-1	6.644566E-1	6.605019E-1	6.695248E-1	6.650834E-1	6.530217E-1	6.921754E-1	5.688696E-1	6.610738E-1	6.225721E-1	6.876785E-1	6.581263E-1	6.162274E-1	5.821648E-1	6.221583E-1	6.350603E-1	6.537690E-1	6.807437E-1	6.066525E-1	6.160834E-1	6.059201E-1	6.163038E-1	6.455992E-1	6.359905E-1	6.560486E-1	6.221109E-1	6.744182E-1	6.487945E-1	6.344309E-1	5.522026E-1
2.882020E+2	7.056539E-1	6.689762E-1	6.521369E-1	7.087656E-1	5.911411E-1	6.552483E-1	6.262918E-1	6.352593E-1	7.038757E-1	6.107404E-1	6.745522E-1	6.834536E-1	6.422748E-1	6.552554E-1	6.380239E-1	6.511832E-1	6.114796E-1	6.597179E-1	6.193472E-1	6.849433E-1	5.942203E-1	6.719683E-1	6.739313E-1	6.230702E-1	7.000417E-1	6.306778E-1	6.559885E-1	6.693436E-1	6.750048E-1	6.912387E-1	6.709271E-1	6.582214E-1	6.916460E-1	6.189026E-1	6.878861E-1	5.666853E-1	6.108029E-1	6.255877E-1	6.702970E-1	6.312492E-1	6.136605E-1	6.637764E-1	6.321757E-1	6.364665E-1	6.316200E-1	6.512007E-1	6.086159E-1	6.910369E-1	6.054579E-1	6.402622E-1	5.890369E-1	6.504495E-1	6.346844E-1	6.172019E-1	6.749403E-1	6.437747E-1	6.090425E-1	6.141366E-1	6.117212E-1	6.629149E-1	6.496370E-1	6.838356E-1	6.647612E-1	6.334609E-1	6.474728E-1	6.010756E-1	6.424847E-1	6.203372E-1	7.121665E-1	6.697117E-1	6.294334E-1	6.492913E-1	7.060184E-1	6.615683E-1	6.551089E-1	6.534766E-1	6.547513E-1	5.807165E-1	6.162054E-1	6.555183E-1	6.538936E-1	6.553460E-1	6.889392E-1	6.555087E-1	7.040644E-1	5.691328E-1	6.963647E-1	7.007290E-1	6.627305E-1	6.447911E-1	7.031882E-1	6.555740E-1	6.527955E-1	6.828273E-1	6.148583E-1	5.996411E-1	6.288086E-1	6.281940E-1	6.629676E-1	7.002139E-1	6.747341E-1	7.021638E-1	6.134809E-1	5.974275E-1	6.452840E-1	6.090242E-1	6.167922E-1	6.984137E-1	6.768410E-1	6.392083E-1	6.422569E-1	6.389421E-1	6.268930E-1	6.323265E-1	6.642287E-1	5.892277E-1	6.513558E-1	6.050487E-1	6.199484E-1	6.257316E-1	6.332141E-1	6.690259E-1	6.889842E-1	5.938492E-1	6.875453E-1	6.739431E-1	6.637584E-1	6.716258E-1	6.364484E-1	6.979414E-1	6.382315E-1	6.345364E-1	7.051690E-1	6.616057E-1	6.361468E-1	6.488267E-1	6.997873E-1	6.741110E-1	6.233871E-1	6.254922E-1	6.929597E-1	6.881103E-1	6.385248E-1	6.290647E-1	6.249471E-1	5.992235E-1	6.785994E-1	6.783825E-1	6.324635E-1	6.287871E-1	6.322654E-1	6.604305E-1	6.627775E-1	6.676102E-1	6.450249E-1	6.790391E-1	6.423151E-1	7.136547E-1	6.368341E-1	6.469513E-1	7.141052E-1	6.574908E-1	6.406917E-1	6.596150E-1	6.343351E-1	6.493869E-1	6.983098E-1	6.382320E-1	6.659253E-1	6.880858E-1	6.293396E-1	7.370032E-1
2.884210E+2	8.007274E-1	7.664814E-1	7.015671E-1	7.417378E-1	7.348278E-1	7.623704E-1	7.531543E-1	7.809001E-1	7.417864E-1	7.624657E-1	7.576385E-1	7.370840E-1	7.331031E-1	7.601912E-1	7.222478E-1	6.843760E-1	7.774175E-1	7.390888E-1	6.970615E-1	7.388966E-1	7.168880E-1	7.140639E-1	7.108423E-1	7.708445E-1	7.775456E-1	7.349740E-1	7.504588E-1	7.457489E-1	7.284232E-1	7.466437E-1	7.361467E-1	7.541881E-1	7.810406E-1	7.792046E-1	7.397606E-1	7.219380E-1	7.245700E-1	7.465128E-1	7.025333E-1	8.326993E-1	7.542424E-1	7.557484E-1	7.560937E-1	7.648823E-1	7.894270E-1	7.479771E-1	7.436325E-1	7.536462E-1	7.399045E-1	7.750069E-1	7.471619E-1	7.585323E-1	7.394535E-1	7.743810E-1	7.653759E-1	6.970967E-1	7.583287E-1	7.801121E-1	7.175749E-1	7.252221E-1	7.528261E-1	7.621910E-1	7.813889E-1	8.094560E-1	8.130708E-1	7.352700E-1	8.125162E-1	7.226623E-1	7.091809E-1	8.084570E-1	7.662878E-1	7.821209E-1	7.296817E-1	6.846119E-1	7.379795E-1	7.131195E-1	7.378459E-1	6.752573E-1	7.915147E-1	8.266450E-1	7.797782E-1	7.287625E-1	7.770208E-1	7.154023E-1	7.330967E-1	7.740120E-1	7.635291E-1	7.235117E-1	7.491000E-1	7.266262E-1	7.887664E-1	6.817470E-1	7.366134E-1	8.005639E-1	7.501756E-1	8.052150E-1	7.318254E-1	7.548350E-1	7.615115E-1	7.736211E-1	7.520649E-1	7.155534E-1	7.332448E-1	7.149652E-1	7.671826E-1	7.735304E-1	7.166950E-1	7.840034E-1	7.444916E-1	7.479536E-1	7.318076E-1	7.320012E-1	7.486573E-1	7.440510E-1	7.905074E-1	8.027688E-1	7.634482E-1	7.371097E-1	7.688668E-1	8.053838E-1	7.011982E-1	6.946577E-1	7.529944E-1	7.189313E-1	7.688314E-1	8.043685E-1	7.800466E-1	7.307793E-1	7.590308E-1	7.414312E-1	7.892949E-1	7.376131E-1	7.297977E-1	7.815361E-1	7.375676E-1	7.715319E-1	7.660840E-1	8.067657E-1	7.219359E-1	7.298547E-1	7.313176E-1	7.520745E-1	7.811614E-1	7.506254E-1	7.763158E-1	7.442817E-1	7.667862E-1	7.743571E-1	7.561741E-1	7.222576E-1	7.660481E-1	8.033902E-1	8.206548E-1	7.138808E-1	8.449879E-1	7.430583E-1	7.312592E-1	7.975478E-1	7.014321E-1	7.742900E-1	7.318229E-1	8.059965E-1	7.267034E-1	7.456681E-1	7.917315E-1	7.235245E-1	7.726458E-1	7.577180E-1	7.919192E-1	7.966544E-1	6.977100E-1	7.521162E-1
2.886030E+2	1.102081E+0	1.001222E+0	1.001375E+0	1.046123E+0	1.052609E+0	1.090432E+0	9.867523E-1	1.021452E+0	1.035887E+0	1.039220E+0	1.037669E+0	1.031973E+0	1.090433E+0	1.006076E+0	9.915929E-1	1.035833E+0	1.043247E+0	1.020565E+0	1.016772E+0	1.062941E+0	1.065129E+0	1.002200E+0	1.012497E+0	9.707429E-1	9.816573E-1	1.080687E+0	1.053385E+0	1.037024E+0	1.050746E+0	1.132932E+0	1.039496E+0	1.023653E+0	1.063619E+0	1.028672E+0	1.018324E+0	9.807272E-1	9.473390E-1	1.009106E+0	1.009665E+0	1.059576E+0	1.056764E+0	9.960432E-1	1.037539E+0	1.010465E+0	1.003193E+0	1.031278E+0	9.896724E-1	1.040106E+0	1.014555E+0	1.083436E+0	9.738176E-1	1.029953E+0	1.031161E+0	1.056620E+0	1.044160E+0	9.703840E-1	9.585789E-1	1.024207E+0	1.048540E+0	1.041460E+0	1.050029E+0	9.444637E-1	1.051648E+0	1.091792E+0	1.043265E+0	1.006029E+0	1.025362E+0	1.048293E+0	1.047817E+0	1.008856E+0	1.027355E+0	1.044289E+0	9.945180E-1	9.869357E-1	1.036383E+0	1.092842E+0	1.020143E+0	1.043931E+0	1.029231E+0	9.964178E-1	1.089573E+0	1.061191E+0	9.913448E-1	1.000405E+0	1.064930E+0	9.994425E-1	1.085402E+0	1.032419E+0	1.045159E+0	1.021158E+0	1.052085E+0	1.017199E+0	1.003698E+0	1.046941E+0	1.007773E+0	1.031598E+0	1.029832E+0	9.964037E-1	1.012241E+0	1.079041E+0	1.064265E+0	1.038486E+0	1.041222E+0	1.060452E+0	9.966473E-1	1.059578E+0	1.012242E+0	1.003525E+0	1.011037E+0	9.988748E-1	1.005259E+0	1.096547E+0	9.951759E-1	1.049317E+0	1.063782E+0	1.070809E+0	1.060898E+0	1.035585E+0	1.038461E+0	1.016927E+0	9.930738E-1	9.864109E-1	1.074712E+0	1.082718E+0	1.072531E+0	1.029822E+0	1.062238E+0	1.000075E+0	1.009224E+0	1.042671E+0	1.032563E+0	1.116589E+0	1.016550E+0	1.105610E+0	1.029274E+0	1.091630E+0	1.083430E+0	1.088760E+0	1.041106E+0	1.103332E+0	1.003621E+0	1.021528E+0	1.040346E+0	1.095043E+0	1.033943E+0	1.030687E+0	1.023056E+0	1.023847E+0	1.054965E+0	9.443389E-1	1.098811E+0	1.048067E+0	1.068770E+0	9.773576E-1	1.012956E+0	1.012011E+0	1.011480E+0	1.073774E+0	1.033827E+0	1.049570E+0	1.074333E+0	1.091901E+0	1.031712E+0	1.047406E+0	1.083978E+0	1.007646E+0	1.018087E+0	1.007771E+0	1.096721E+0	1.056329E+0	1.073008E+0	9.752395E-1
2.888080E+2	1.240097E+0	1.164973E+0	1.116847E+0	1.083401E+0	1.214624E+0	1.176633E+0	1.133799E+0	1.185307E+0	1.302862E+0	1.107667E+0	1.202227E+0	1.125666E+0	1.155644E+0	1.173662E+0	1.107348E+0	1.207334E+0	1.164602E+0	1.154037E+0	1.184850E+0	1.194075E+0	1.059172E+0	1.172025E+0	1.165366E+0	1.094983E+0	1.121752E+0	1.176064E+0	1.227479E+0	1.231393E+0	1.061942E+0	1.199999E+0	1.170956E+0	1.183555E+0	1.167815E+0	1.194409E+0	1.209990E+0	1.233105E+0	1.144740E+0	1.227350E+0	1.142652E+0	1.166943E+0	1.175655E+0	1.190150E+0	1.166721E+0	1.067864E+0	1.130975E+0	1.195936E+0	1.160929E+0	1.143369E+0	1.124528E+0	1.110472E+0	1.147274E+0	1.212144E+0	1.185741E+0	1.155664E+0	1.177449E+0	1.141280E+0	1.145979E+0	1.143378E+0	1.154693E+0	1.202568E+0	1.189078E+0	1.196558E+0	1.175157E+0	1.185165E+0	1.178154E+0	1.173955E+0	1.021093E+0	1.139403E+0	1.145138E+0	1.212650E+0	1.179021E+0	1.192121E+0	1.242788E+0	1.113437E+0	1.248168E+0	1.180295E+0	1.125252E+0	1.147198E+0	1.176589E+0	1.170553E+0	1.109118E+0	1.197770E+0	1.182566E+0	1.181441E+0	1.151828E+0	1.101451E+0	1.210519E+0	1.146994E+0	1.204405E+0	1.170729E+0	1.220161E+0	1.179358E+0	1.162978E+0	1.151584E+0	1.130191E+0	1.248806E+0	1.103103E+0	1.154309E+0	1.156695E+0	1.177236E+0	1.209450E+0	1.172598E+0	1.147804E+0	1.118400E+0	1.222572E+0	1.120851E+0	1.146288E+0	1.229801E+0	1.161958E+0	1.107793E+0	1.232443E+0	1.171494E+0	1.166747E+0	1.203863E+0	1.151050E+0	1.211000E+0	1.178249E+0	1.180922E+0	1.187996E+0	1.196082E+0	1.139715E+0	1.235112E+0	1.183244E+0	1.150604E+0	1.191266E+0	1.134124E+0	1.255297E+0	1.140591E+0	1.136120E+0	1.160596E+0	1.228110E+0	1.166832E+0	1.114409E+0	1.181860E+0	1.207493E+0	1.238009E+0	1.283440E+0	1.153872E+0	1.166956E+0	1.198872E+0	1.213028E+0	1.150397E+0	1.182300E+0	1.182649E+0	1.172214E+0	1.126045E+0	1.170737E+0	1.113393E+0	1.224496E+0	1.186105E+0	1.185724E+0	1.173772E+0	1.189251E+0	1.201876E+0	1.156927E+0	1.163629E+0	1.164576E+0	1.215754E+0	1.198056E+0	1.085801E+0	1.211127E+0	1.129399E+0	1.169658E+0	1.270655E+0	1.116246E+0	1.227298E+0	1.155378E+0	1.054353E+0	1.096337E+0	1.233011E+0	1.272628E+0	1.045800E+0
2.890020E+2	1.010777E+0	8.690692E-1	9.629137E-1	9.835282E-1	9.720612E-1	9.437292E-1	9.298294E-1	9.811396E-1	9.636743E-1	9.494725E-1	9.558277E-1	9.819853E-1	1.038523E+0	1.009196E+0	9.834536E-1	9.563232E-1	9.218890E-1	9.536409E-1	9.368323E-1	9.375756E-1	9.341340E-1	8.921993E-1	9.945673E-1	8.785567E-1	9.428437E-1	9.557543E-1	9.248998E-1	9.235850E-1	9.079105E-1	1.002540E+0	9.402593E-1	9.773425E-1	9.453879E-1	9.907218E-1	9.438652E-1	9.845769E-1	9.382765E-1	1.005464E+0	9.092738E-1	9.022790E-1	9.566359E-1	9.787043E-1	9.228045E-1	9.550009E-1	9.331481E-1	9.809097E-1	9.932041E-1	1.003772E+0	9.720483E-1	9.525431E-1	9.490799E-1	9.623893E-1	9.844931E-1	9.340296E-1	9.502247E-1	1.022367E+0	9.304863E-1	9.714054E-1	9.486692E-1	9.411087E-1	9.441480E-1	9.749733E-1	9.285065E-1	9.844660E-1	9.163070E-1	1.008328E+0	9.149976E-1	9.153554E-1	9.662016E-1	1.023779E+0	9.048156E-1	9.283959E-1	9.771672E-1	9.155450E-1	1.007438E+0	9.399414E-1	9.370946E-1	9.016817E-1	1.004352E+0	1.006882E+0	9.617292E-1	9.435664E-1	8.877005E-1	9.552406E-1	9.589848E-1	8.962245E-1	9.862093E-1	9.569208E-1	9.315575E-1	9.830822E-1	9.994548E-1	1.015210E+0	9.469441E-1	9.919412E-1	9.824895E-1	1.096404E+0	9.853978E-1	9.292330E-1	9.621837E-1	1.016694E+0	9.542743E-1	9.615710E-1	9.093196E-1	9.347660E-1	9.431943E-1	9.206880E-1	9.265604E-1	9.528590E-1	9.596777E-1	8.448448E-1	9.798974E-1	9.705083E-1	9.602600E-1	9.839925E-1	1.023890E+0	9.973872E-1	9.702560E-1	9.670881E-1	9.496180E-1	9.483415E-1	9.592373E-1	8.936243E-1	9.262292E-1	9.644905E-1	1.078467E+0	9.501329E-1	9.598522E-1	9.195705E-1	9.665939E-1	9.366082E-1	9.583931E-1	8.943652E-1	9.957597E-1	1.003174E+0	9.478911E-1	9.620161E-1	9.651183E-1	9.458810E-1	9.263386E-1	9.693383E-1	9.003049E-1	9.267957E-1	1.014962E+0	1.000333E+0	9.606359E-1	1.012075E+0	9.490078E-1	9.930563E-1	9.368161E-1	9.073423E-1	9.637741E-1	9.582654E-1	9.816261E-1	9.910411E-1	9.766855E-1	9.193514E-1	9.679555E-1	9.543786E-1	9.896122E-1	9.884766E-1	9.227518E-1	9.309635E-1	9.184196E-1	9.229530E-1	1.004494E+0	9.660694E-1	9.424136E-1	9.802038E-1	9.537287E-1	1.021188E+0	1.076355E+0	1.117800E+0
2.892050E+2	7.576842E-1	7.415554E-1	6.971469E-1	7.923855E-1	7.645104E-1	7.422610E-1	7.902265E-1	7.605374E-1	7.818327E-1	7.676512E-1	7.707527E-1	7.293516E-1	7.895942E-1	7.643957E-1	7.823401E-1	7.792026E-1	7.532266E-1	7.350121E-1	8.041756E-1	7.822627E-1	7.782600E-1	7.703230E-1	7.104671E-1	7.648005E-1	7.752739E-1	7.727209E-1	7.868082E-1	7.356811E-1	7.413363E-1	8.296292E-1	7.756479E-1	8.111361E-1	7.437366E-1	7.422895E-1	7.907128E-1	7.888890E-1	7.855004E-1	7.230787E-1	7.553029E-1	7.700153E-1	7.695350E-1	7.775211E-1	7.471245E-1	7.784802E-1	7.515754E-1	8.397911E-1	7.626024E-1	7.440975E-1	7.945803E-1	8.104996E-1	7.594730E-1	8.130570E-1	8.233600E-1	7.796792E-1	7.599656E-1	7.835888E-1	7.323167E-1	7.878197E-1	7.845267E-1	8.269444E-1	7.648981E-1	8.343221E-1	7.574611E-1	7.900733E-1	7.768213E-1	8.034964E-1	7.712508E-1	7.726092E-1	7.557152E-1	8.319552E-1	6.922840E-1	7.739444E-1	7.420925E-1	7.564011E-1	7.953364E-1	7.550132E-1	8.220986E-1	7.210691E-1	7.475235E-1	8.037105E-1	7.761982E-1	7.851174E-1	7.433915E-1	7.736008E-1	7.993825E-1	7.421431E-1	7.354488E-1	7.931678E-1	8.062716E-1	7.875715E-1	7.731914E-1	8.265457E-1	7.145995E-1	7.790244E-1	7.565565E-1	8.398010E-1	7.876714E-1	7.840326E-1	8.061321E-1	7.482395E-1	7.349379E-1	7.824769E-1	7.656580E-1	7.720114E-1	8.070115E-1	7.628483E-1	7.675355E-1	7.772729E-1	7.519902E-1	7.600449E-1	7.678313E-1	8.067207E-1	7.439540E-1	7.519540E-1	7.329535E-1	8.332775E-1	7.453805E-1	7.622319E-1	7.942226E-1	7.651539E-1	7.178632E-1	7.711050E-1	7.918896E-1	7.574199E-1	7.513504E-1	8.539907E-1	7.608371E-1	8.321942E-1	8.220355E-1	7.527756E-1	7.515599E-1	7.320091E-1	6.917674E-1	8.263119E-1	7.457134E-1	7.709814E-1	7.585871E-1	7.504468E-1	8.224561E-1	7.768119E-1	8.145276E-1	7.786731E-1	7.750233E-1	7.540444E-1	7.609308E-1	8.485462E-1	7.300375E-1	8.177205E-1	8.011844E-1	7.694272E-1	7.638521E-1	7.989987E-1	8.270946E-1	7.175662E-1	7.764147E-1	8.481114E-1	7.813855E-1	8.149308E-1	7.878577E-1	8.331700E-1	7.858045E-1	7.652427E-1	7.301702E-1	8.037667E-1	7.771085E-1	7.798777E-1	7.617351E-1	7.204978E-1	8.491102E-1	8.207937E-1	7.188787E-1	6.644431E-1
2.894040E+2	7.212249E-1	7.431159E-1	7.792702E-1	7.596477E-1	7.175913E-1	7.086613E-1	7.439064E-1	7.141240E-1	7.930417E-1	8.116026E-1	7.194410E-1	7.293757E-1	8.106374E-1	7.698234E-1	7.690414E-1	8.094457E-1	7.578725E-1	7.854778E-1	7.778422E-1	7.253889E-1	7.180791E-1	7.319653E-1	7.632607E-1	7.489901E-1	7.239142E-1	7.217428E-1	7.612646E-1	7.379083E-1	7.577301E-1	7.752754E-1	7.727101E-1	8.443558E-1	7.546898E-1	7.249659E-1	7.967607E-1	7.058762E-1	7.203884E-1	7.476259E-1	7.326393E-1	7.595435E-1	7.821944E-1	7.752333E-1	8.258367E-1	7.167692E-1	7.369037E-1	7.681830E-1	8.100917E-1	7.925008E-1	7.299429E-1	7.545475E-1	7.779939E-1	7.895578E-1	7.223840E-1	7.849705E-1	6.903709E-1	7.702999E-1	7.486148E-1	8.611006E-1	7.181745E-1	8.049750E-1	7.392962E-1	8.165274E-1	7.759188E-1	7.673912E-1	7.682683E-1	7.811190E-1	6.765319E-1	8.042598E-1	7.830045E-1	8.294389E-1	7.246579E-1	7.869281E-1	7.474482E-1	7.318703E-1	7.784984E-1	7.673827E-1	8.028829E-1	7.131081E-1	6.970922E-1	7.918625E-1	7.868296E-1	7.757284E-1	7.686706E-1	7.324470E-1	7.412974E-1	7.826259E-1	7.333023E-1	7.907669E-1	8.120525E-1	8.185876E-1	7.556599E-1	7.264916E-1	7.645814E-1	7.620129E-1	7.820902E-1	8.396998E-1	7.429093E-1	7.475302E-1	7.968181E-1	7.727574E-1	7.843369E-1	7.142437E-1	7.507910E-1	8.098211E-1	8.006678E-1	7.530264E-1	6.949095E-1	7.494148E-1	7.506898E-1	7.494673E-1	8.005764E-1	7.663131E-1	7.505382E-1	7.123987E-1	8.011412E-1	7.779058E-1	7.856584E-1	7.020141E-1	7.622145E-1	7.235309E-1	7.029080E-1	7.562410E-1	7.645297E-1	7.685984E-1	7.559248E-1	7.511261E-1	7.957102E-1	7.286390E-1	7.596918E-1	8.047467E-1	7.936593E-1	7.645905E-1	7.859156E-1	7.460431E-1	7.541808E-1	8.142069E-1	7.820833E-1	8.016351E-1	8.026324E-1	8.082648E-1	7.328141E-1	7.584258E-1	7.629015E-1	7.661917E-1	7.328189E-1	7.300108E-1	7.756100E-1	7.931394E-1	7.640703E-1	7.625282E-1	7.760594E-1	7.386224E-1	8.216850E-1	7.385550E-1	8.210662E-1	7.648666E-1	7.167166E-1	8.232555E-1	7.918201E-1	7.480768E-1	7.572670E-1	7.555433E-1	7.656544E-1	8.065034E-1	7.948167E-1	7.096653E-1	7.298177E-1	7.006103E-1	8.080253E-1	7.847466E-1	7.753432E-1	8.518243E-1
2.896060E+2	7.868886E-1	7.854317E-1	8.063909E-1	7.383617E-1	8.061333E-1	8.095784E-1	8.009596E-1	8.221404E-1	7.809734E-1	8.566256E-1	7.605317E-1	7.409899E-1	7.726887E-1	7.571453E-1	7.487467E-1	8.247562E-1	7.426831E-1	7.876555E-1	7.942452E-1	8.016861E-1	8.535672E-1	7.549019E-1	7.587400E-1	8.512902E-1	8.121908E-1	7.664353E-1	8.500400E-1	8.146630E-1	7.879577E-1	7.991538E-1	7.489271E-1	7.970802E-1	8.142961E-1	8.086312E-1	7.926218E-1	7.830827E-1	7.349597E-1	7.731509E-1	7.874231E-1	8.322784E-1	7.752211E-1	8.155660E-1	7.759801E-1	7.728652E-1	7.576748E-1	7.657166E-1	7.918330E-1	7.982984E-1	8.605747E-1	8.075247E-1	7.772182E-1	7.844870E-1	7.805306E-1	8.525291E-1	7.983327E-1	8.179518E-1	8.092289E-1	7.345398E-1	7.517734E-1	8.327942E-1	7.267086E-1	8.524331E-1	7.558777E-1	7.984079E-1	7.769899E-1	8.020771E-1	7.795235E-1	8.318282E-1	7.813469E-1	7.509693E-1	7.826903E-1	8.557447E-1	8.036275E-1	7.113161E-1	7.907673E-1	8.073069E-1	7.216175E-1	7.657207E-1	8.284239E-1	7.516790E-1	7.845722E-1	7.488010E-1	7.719894E-1	7.805578E-1	7.946419E-1	7.875006E-1	8.374811E-1	8.061829E-1	8.255434E-1	8.545602E-1	8.520761E-1	7.943726E-1	7.940845E-1	7.606680E-1	8.237381E-1	7.879899E-1	7.576822E-1	7.775084E-1	7.964702E-1	8.189474E-1	7.969681E-1	7.882051E-1	7.800148E-1	7.416739E-1	8.202595E-1	8.006609E-1	7.978863E-1	7.949885E-1	7.957073E-1	7.253375E-1	7.882676E-1	7.759165E-1	7.692644E-1	8.154128E-1	8.744675E-1	8.292394E-1	7.516540E-1	7.886895E-1	8.302956E-1	7.737920E-1	7.384460E-1	7.932475E-1	8.293221E-1	8.855701E-1	7.825252E-1	7.799432E-1	7.849734E-1	7.809400E-1	8.177786E-1	7.483223E-1	7.708226E-1	7.866228E-1	8.147636E-1	7.955050E-1	8.372771E-1	8.127046E-1	8.102105E-1	8.154219E-1	7.741045E-1	7.711699E-1	7.680722E-1	8.286248E-1	8.037726E-1	8.431949E-1	7.914061E-1	7.421908E-1	7.603289E-1	8.021549E-1	7.955598E-1	8.236944E-1	7.909560E-1	7.620771E-1	8.141693E-1	7.402890E-1	7.470313E-1	7.691951E-1	7.432977E-1	7.546016E-1	7.793386E-1	8.441002E-1	7.222379E-1	7.562093E-1	7.148221E-1	7.889933E-1	7.850962E-1	7.859724E-1	8.402071E-1	8.126502E-1	8.580038E-1	8.345005E-1	7.120222E-1	6.812635E-1
2.898030E+2	7.166017E-1	6.960253E-1	6.776727E-1	7.610575E-1	7.642523E-1	6.913138E-1	7.221913E-1	7.469298E-1	7.574847E-1	7.251390E-1	8.036826E-1	7.003400E-1	7.292335E-1	7.090391E-1	7.518744E-1	7.232481E-1	7.191595E-1	7.967643E-1	6.871258E-1	7.387241E-1	7.751501E-1	7.358076E-1	6.992250E-1	7.399036E-1	7.482114E-1	7.502284E-1	7.888637E-1	7.493104E-1	7.580208E-1	7.972340E-1	7.573413E-1	7.488601E-1	7.226403E-1	7.215894E-1	7.226820E-1	7.258559E-1	6.996993E-1	7.149414E-1	6.572078E-1	7.233147E-1	7.382504E-1	7.511074E-1	8.119617E-1	6.278389E-1	7.355437E-1	6.909773E-1	7.505486E-1	7.401098E-1	7.365505E-1	6.954494E-1	7.163237E-1	7.552401E-1	7.863067E-1	7.687661E-1	6.788268E-1	7.149295E-1	7.306118E-1	7.027496E-1	7.248359E-1	8.329426E-1	7.217392E-1	7.622480E-1	7.311014E-1	7.717078E-1	7.226777E-1	7.633754E-1	7.374822E-1	8.023000E-1	7.303213E-1	7.538779E-1	7.426529E-1	7.321547E-1	7.824504E-1	7.432826E-1	7.230534E-1	7.656676E-1	7.587610E-1	7.474083E-1	6.686135E-1	7.665352E-1	7.758018E-1	7.665287E-1	7.826797E-1	7.676357E-1	7.408641E-1	7.669775E-1	7.277859E-1	7.760635E-1	7.559782E-1	7.214343E-1	7.701395E-1	7.792797E-1	7.053853E-1	7.330825E-1	6.911048E-1	7.263231E-1	7.881181E-1	7.160580E-1	7.722151E-1	7.736203E-1	7.232582E-1	7.126256E-1	7.812860E-1	7.425561E-1	6.743888E-1	7.526532E-1	7.585558E-1	7.558202E-1	7.671365E-1	7.148356E-1	7.360767E-1	7.869166E-1	7.951166E-1	7.436761E-1	8.039697E-1	8.014359E-1	7.161171E-1	7.460128E-1	8.103752E-1	7.417045E-1	6.789304E-1	7.400850E-1	7.250766E-1	7.525045E-1	7.453708E-1	7.895342E-1	7.758049E-1	7.614583E-1	7.895594E-1	7.529898E-1	7.241603E-1	7.764304E-1	7.400755E-1	8.130649E-1	7.533791E-1	7.577982E-1	7.941584E-1	7.508858E-1	7.531991E-1	7.117098E-1	7.082536E-1	7.394267E-1	7.405039E-1	7.129592E-1	6.611293E-1	7.163495E-1	7.547672E-1	7.275110E-1	6.925634E-1	7.378519E-1	8.368554E-1	7.061724E-1	7.319273E-1	7.486912E-1	7.296379E-1	7.160930E-1	7.261313E-1	7.871888E-1	7.404935E-1	7.961918E-1	7.361611E-1	8.101667E-1	7.267718E-1	7.861338E-1	7.385182E-1	7.169987E-1	7.312412E-1	7.153995E-1	7.430963E-1	8.325259E-1	7.558646E-1	8.440144E-1
2.900030E+2	6.945052E-1	6.526377E-1	6.563273E-1	7.355579E-1	6.516498E-1	6.495024E-1	7.068103E-1	6.675123E-1	6.881266E-1	7.172203E-1	6.479490E-1	6.453453E-1	6.850377E-1	6.793540E-1	6.053092E-1	6.876685E-1	6.558973E-1	7.116113E-1	6.499058E-1	6.844087E-1	6.762145E-1	7.056336E-1	6.928077E-1	6.832888E-1	6.554827E-1	6.870136E-1	7.295203E-1	6.338236E-1	6.047712E-1	6.760508E-1	6.610200E-1	6.937651E-1	6.988909E-1	6.964849E-1	6.952099E-1	6.649605E-1	6.928104E-1	6.963089E-1	7.180522E-1	6.630414E-1	6.357150E-1	6.608422E-1	6.751112E-1	6.418743E-1	6.568067E-1	7.174310E-1	6.997741E-1	7.220119E-1	6.876955E-1	6.748591E-1	6.542670E-1	6.693426E-1	6.733400E-1	6.892784E-1	7.256675E-1	6.761482E-1	6.483817E-1	6.641896E-1	6.881058E-1	6.520040E-1	6.057525E-1	6.747635E-1	6.768003E-1	7.138755E-1	6.976349E-1	7.367756E-1	6.412580E-1	7.175940E-1	6.955584E-1	6.866351E-1	6.373445E-1	7.303403E-1	6.447608E-1	6.268926E-1	7.337624E-1	7.633583E-1	6.671549E-1	6.820321E-1	6.965602E-1	6.954473E-1	6.802867E-1	7.301042E-1	6.473257E-1	6.942881E-1	6.749507E-1	6.750962E-1	7.020112E-1	7.262768E-1	6.950685E-1	6.821495E-1	7.228083E-1	7.317756E-1	7.090273E-1	6.798497E-1	6.896664E-1	6.931141E-1	7.340241E-1	6.859990E-1	6.534794E-1	7.184574E-1	6.932159E-1	6.483739E-1	6.803910E-1	6.968537E-1	7.052047E-1	7.103608E-1	6.280895E-1	6.604037E-1	6.881252E-1	6.656970E-1	6.746960E-1	6.309995E-1	6.737456E-1	6.540901E-1	6.816402E-1	7.511476E-1	6.338752E-1	6.641245E-1	6.681255E-1	7.284932E-1	7.182745E-1	6.756259E-1	7.149272E-1	6.856668E-1	6.822392E-1	6.422333E-1	6.936623E-1	7.532311E-1	6.741669E-1	7.179413E-1	6.655660E-1	6.895338E-1	6.871462E-1	6.795141E-1	7.450227E-1	6.778271E-1	7.450536E-1	7.061361E-1	6.510208E-1	6.844025E-1	6.683214E-1	7.051419E-1	6.682800E-1	7.100035E-1	6.878758E-1	6.709622E-1	6.717027E-1	6.756121E-1	6.755348E-1	6.515363E-1	6.612788E-1	7.015119E-1	6.967841E-1	6.643273E-1	7.092513E-1	7.107923E-1	6.822482E-1	6.919303E-1	7.181682E-1	6.908467E-1	7.334257E-1	6.759778E-1	6.176654E-1	6.964527E-1	6.958655E-1	6.718238E-1	6.790663E-1	6.896038E-1	7.515912E-1	6.872041E-1	7.273787E-1	7.926866E-1
2.905220E+2	6.731672E-1	6.859556E-1	6.474048E-1	7.780561E-1	7.477765E-1	7.230673E-1	7.210461E-1	7.075494E-1	7.438096E-1	7.263490E-1	7.525367E-1	7.720513E-1	7.077691E-1	7.330463E-1	7.029106E-1	7.248903E-1	6.253755E-1	7.504841E-1	6.797923E-1	7.021300E-1	7.378732E-1	7.403477E-1	7.252320E-1	6.910066E-1	7.630236E-1	7.652979E-1	7.172760E-1	7.270084E-1	6.785863E-1	7.404119E-1	7.940509E-1	7.077871E-1	7.444318E-1	7.313269E-1	7.271878E-1	6.684301E-1	7.105760E-1	7.604936E-1	6.951435E-1	6.677193E-1	7.279126E-1	7.627024E-1	7.510081E-1	7.283410E-1	7.163498E-1	7.607763E-1	7.408843E-1	7.501771E-1	7.010114E-1	7.190803E-1	7.054606E-1	7.206030E-1	7.774207E-1	7.752087E-1	7.571989E-1	7.147008E-1	7.591191E-1	7.215087E-1	6.768552E-1	7.187704E-1	7.192116E-1	7.190752E-1	7.319072E-1	7.468455E-1	7.612831E-1	7.316472E-1	6.996824E-1	7.068700E-1	7.488576E-1	7.569422E-1	6.872360E-1	6.399756E-1	6.945191E-1	6.900860E-1	7.363466E-1	7.752218E-1	6.809376E-1	6.947200E-1	7.364887E-1	7.398777E-1	6.949688E-1	7.870228E-1	6.884210E-1	7.068383E-1	7.307520E-1	7.319118E-1	7.508690E-1	7.250661E-1	7.326994E-1	6.552243E-1	6.750608E-1	6.880982E-1	7.451320E-1	7.356509E-1	7.330786E-1	7.616188E-1	7.280165E-1	7.060973E-1	7.014578E-1	7.620460E-1	7.374054E-1	7.296888E-1	7.065614E-1	7.470145E-1	7.285203E-1	7.153376E-1	6.941390E-1	6.556705E-1	7.237906E-1	7.242113E-1	7.510751E-1	7.374046E-1	6.937033E-1	7.259418E-1	6.836886E-1	6.971101E-1	6.886235E-1	7.440931E-1	7.838087E-1	6.975830E-1	7.240644E-1	6.906855E-1	7.136154E-1	7.457861E-1	7.625313E-1	7.273937E-1	7.325050E-1	7.677469E-1	8.247081E-1	7.376913E-1	7.495199E-1	6.991204E-1	7.346113E-1	6.779604E-1	7.123700E-1	7.080809E-1	7.047010E-1	7.071357E-1	7.319866E-1	7.146186E-1	7.255372E-1	6.810498E-1	7.238217E-1	7.174498E-1	7.216016E-1	7.712767E-1	7.349356E-1	7.518917E-1	7.202799E-1	7.382023E-1	7.321658E-1	7.920128E-1	7.616520E-1	7.269199E-1	7.163501E-1	6.721160E-1	7.419759E-1	7.297039E-1	7.239016E-1	7.034014E-1	7.324336E-1	7.504276E-1	7.067924E-1	7.501058E-1	7.005911E-1	7.565949E-1	7.071056E-1	6.590478E-1	8.012265E-1	7.587940E-1	7.113399E-1	6.215063E-1
2.910030E+2	9.128313E-1	8.279985E-1	8.570378E-1	8.250352E-1	8.866440E-1	8.796094E-1	8.730723E-1	8.426651E-1	8.040757E-1	8.875789E-1	8.666803E-1	8.369023E-1	8.809751E-1	8.917630E-1	9.339041E-1	8.243593E-1	8.425950E-1	9.377224E-1	8.627175E-1	8.832350E-1	8.679716E-1	8.520630E-1	8.406559E-1	8.366939E-1	9.278044E-1	8.744166E-1	8.841152E-1	7.968068E-1	8.289242E-1	8.568590E-1	8.705701E-1	8.714347E-1	8.241733E-1	9.047761E-1	8.529347E-1	8.016651E-1	8.483466E-1	8.240925E-1	7.803050E-1	7.993879E-1	8.981107E-1	8.812434E-1	9.222048E-1	8.411364E-1	8.559085E-1	8.343932E-1	8.875453E-1	8.976406E-1	9.232920E-1	8.537827E-1	8.116790E-1	8.752628E-1	8.617439E-1	8.540815E-1	8.398032E-1	8.716084E-1	8.941743E-1	9.051146E-1	8.762984E-1	8.568013E-1	9.021546E-1	8.426253E-1	9.024150E-1	8.429107E-1	8.261570E-1	8.726878E-1	8.268584E-1	9.279978E-1	8.606606E-1	9.007555E-1	8.573113E-1	8.684001E-1	8.922209E-1	9.047229E-1	8.685255E-1	8.409403E-1	8.431359E-1	8.082417E-1	8.940504E-1	9.186627E-1	8.971448E-1	8.490242E-1	8.148833E-1	8.767693E-1	9.058415E-1	8.586641E-1	8.314611E-1	9.638968E-1	9.031994E-1	8.437239E-1	8.895483E-1	9.185606E-1	8.748990E-1	8.568908E-1	9.005752E-1	8.196675E-1	9.145601E-1	8.019642E-1	8.660038E-1	8.255665E-1	9.501136E-1	9.428056E-1	7.832038E-1	7.960516E-1	8.216856E-1	8.516082E-1	8.299370E-1	8.883282E-1	8.478785E-1	8.801679E-1	8.253170E-1	8.506344E-1	8.483262E-1	8.953409E-1	8.266195E-1	8.151219E-1	8.184888E-1	7.774773E-1	8.932703E-1	8.771695E-1	8.622889E-1	9.049303E-1	7.975899E-1	8.980132E-1	8.695791E-1	8.762375E-1	8.803109E-1	8.113843E-1	8.852921E-1	8.802282E-1	8.720904E-1	8.572888E-1	8.596723E-1	8.805746E-1	8.815474E-1	8.506413E-1	9.127563E-1	8.383519E-1	9.392383E-1	8.534132E-1	8.243489E-1	8.538292E-1	8.816444E-1	8.515801E-1	8.049018E-1	8.514748E-1	9.015786E-1	8.866944E-1	9.226102E-1	8.592618E-1	8.859258E-1	8.659517E-1	8.832845E-1	8.531199E-1	8.267253E-1	8.533180E-1	8.933279E-1	8.828808E-1	8.595247E-1	8.163972E-1	7.874314E-1	8.870221E-1	9.163687E-1	9.538053E-1	8.681758E-1	8.751096E-1	8.765225E-1	7.843820E-1	8.216546E-1	9.428080E-1	9.457371E-1	8.024884E-1
2.914980E+2	1.114765E+0	1.072838E+0	1.062183E+0	1.045038E+0	1.002848E+0	1.026117E+0	1.086794E+0	1.023020E+0	1.048709E+0	1.015861E+0	1.005080E+0	1.069255E+0	1.056557E+0	1.029374E+0	1.077674E+0	1.053981E+0	9.572356E-1	1.066935E+0	1.056714E+0	1.048456E+0	1.085200E+0	9.960794E-1	1.036651E+0	1.028622E+0	1.035630E+0	1.098778E+0	1.042051E+0	1.047548E+0	1.063712E+0	1.071151E+0	1.054871E+0	1.051520E+0	1.033255E+0	9.911727E-1	1.054876E+0	1.027482E+0	1.058531E+0	1.039002E+0	1.047902E+0	9.990203E-1	1.108903E+0	1.076280E+0	1.057786E+0	1.037684E+0	1.018322E+0	1.082355E+0	1.011226E+0	1.049881E+0	1.076179E+0	1.038983E+0	1.027526E+0	1.101466E+0	1.092589E+0	1.060599E+0	1.050460E+0	1.032339E+0	1.030395E+0	1.011175E+0	1.094171E+0	1.052287E+0	9.654736E-1	1.036793E+0	1.046278E+0	1.038705E+0	1.076412E+0	1.035362E+0	1.057389E+0	1.032060E+0	1.006126E+0	1.091494E+0	1.005087E+0	1.109029E+0	9.623974E-1	1.040009E+0	1.013412E+0	1.051891E+0	1.062183E+0	1.030517E+0	1.050712E+0	9.841041E-1	1.012802E+0	1.085645E+0	1.053762E+0	9.781958E-1	1.038191E+0	1.104123E+0	1.120007E+0	1.045308E+0	1.073514E+0	1.075151E+0	1.036189E+0	1.070807E+0	1.091617E+0	1.065979E+0	1.031442E+0	1.046157E+0	1.085077E+0	1.077124E+0	1.120567E+0	1.093399E+0	1.103822E+0	1.067616E+0	1.052065E+0	1.066970E+0	1.184270E+0	1.025992E+0	1.065982E+0	1.013818E+0	1.105974E+0	1.078637E+0	9.966290E-1	1.055688E+0	1.050409E+0	1.019563E+0	1.092231E+0	1.086123E+0	1.046385E+0	1.010753E+0	1.119264E+0	1.019227E+0	1.013418E+0	9.982133E-1	1.001587E+0	1.013833E+0	1.063929E+0	1.083349E+0	1.061297E+0	1.099054E+0	1.098689E+0	1.100634E+0	1.071083E+0	9.461857E-1	9.990168E-1	1.071012E+0	1.056948E+0	1.026060E+0	1.151599E+0	1.086133E+0	1.069241E+0	1.089669E+0	1.004057E+0	1.074238E+0	1.055866E+0	1.076657E+0	1.076848E+0	1.020884E+0	1.077150E+0	1.052029E+0	1.049248E+0	1.119096E+0	1.126178E+0	1.039775E+0	1.094280E+0	1.126992E+0	1.137238E+0	1.020521E+0	1.050913E+0	1.066273E+0	1.050853E+0	1.039960E+0	1.055979E+0	1.062356E+0	1.073332E+0	1.069633E+0	1.094740E+0	9.843666E-1	1.071263E+0	9.880322E-1	1.163326E+0	1.129404E+0	1.030945E+0	1.093847E+0
2.920010E+2	7.581024E-1	7.503740E-1	8.136308E-1	8.303807E-1	8.180745E-1	7.832926E-1	7.670220E-1	8.278124E-1	7.897119E-1	8.090787E-1	8.312548E-1	8.383876E-1	8.028130E-1	8.201186E-1	8.121793E-1	7.635881E-1	7.925496E-1	8.023476E-1	7.499183E-1	7.539667E-1	8.021743E-1	7.953451E-1	7.604422E-1	8.018069E-1	8.060258E-1	7.867148E-1	8.511232E-1	7.969595E-1	7.021625E-1	8.189883E-1	8.188536E-1	8.361347E-1	7.990656E-1	8.635695E-1	8.271195E-1	7.802208E-1	7.928894E-1	8.557751E-1	7.576279E-1	8.771169E-1	8.587092E-1	8.792797E-1	7.902023E-1	7.969927E-1	8.155726E-1	8.077176E-1	7.937286E-1	8.051959E-1	8.156730E-1	7.836065E-1	8.671297E-1	7.882694E-1	7.822216E-1	8.319288E-1	8.073416E-1	8.405344E-1	7.447653E-1	7.893233E-1	7.752386E-1	7.690402E-1	7.574789E-1	8.323697E-1	8.178323E-1	7.927262E-1	7.690701E-1	8.806945E-1	8.580620E-1	7.403524E-1	7.830341E-1	8.655390E-1	7.702676E-1	8.685848E-1	8.289598E-1	7.966795E-1	7.472146E-1	7.275280E-1	7.729321E-1	8.084522E-1	7.943102E-1	8.348607E-1	8.512477E-1	8.967514E-1	8.185033E-1	8.991497E-1	8.083275E-1	8.143304E-1	8.061932E-1	8.302544E-1	8.317203E-1	7.961258E-1	8.280921E-1	8.708046E-1	8.047759E-1	8.578848E-1	8.055636E-1	8.651704E-1	8.128543E-1	7.803535E-1	7.774807E-1	7.875449E-1	8.014416E-1	8.410172E-1	7.892412E-1	7.453323E-1	8.121099E-1	8.193809E-1	7.483438E-1	8.003369E-1	8.875274E-1	7.931250E-1	7.948372E-1	7.840422E-1	7.835623E-1	8.336825E-1	8.514861E-1	8.611070E-1	8.135770E-1	8.459946E-1	8.124084E-1	7.857684E-1	7.988586E-1	7.847458E-1	8.255688E-1	8.290639E-1	7.771393E-1	8.007926E-1	7.661538E-1	7.900224E-1	8.064701E-1	8.232539E-1	7.883717E-1	8.155257E-1	8.611642E-1	8.354057E-1	8.341407E-1	8.070753E-1	8.494602E-1	8.217991E-1	8.662999E-1	7.617266E-1	8.593577E-1	7.767655E-1	8.432573E-1	8.218992E-1	8.631158E-1	8.238729E-1	8.644458E-1	8.015584E-1	8.565794E-1	8.113733E-1	7.790242E-1	8.062636E-1	8.455394E-1	8.295924E-1	7.726600E-1	7.942962E-1	7.987514E-1	8.393124E-1	8.169120E-1	7.995897E-1	8.131857E-1	8.402962E-1	7.776275E-1	7.908373E-1	8.164708E-1	8.928274E-1	8.094198E-1	7.626151E-1	8.806234E-1	8.599027E-1	9.120119E-1	6.637848E-1
2.925000E+2	9.264275E-1	9.638918E-1	8.051890E-1	9.763714E-1	8.987408E-1	9.699045E-1	9.404561E-1	9.677664E-1	9.318692E-1	9.260894E-1	9.031090E-1	8.613087E-1	9.137905E-1	9.292781E-1	9.722290E-1	9.695178E-1	9.397491E-1	1.031819E+0	9.762491E-1	9.692815E-1	9.536545E-1	9.579265E-1	8.870343E-1	8.976599E-1	9.316385E-1	9.160300E-1	9.476401E-1	9.474137E-1	9.074845E-1	8.875426E-1	9.233837E-1	8.152135E-1	9.909932E-1	9.554895E-1	9.425050E-1	9.501420E-1	1.017848E+0	9.389218E-1	9.021282E-1	9.489280E-1	9.693510E-1	8.992153E-1	9.199572E-1	8.941890E-1	9.281398E-1	8.680841E-1	9.022353E-1	9.554197E-1	9.521480E-1	9.208853E-1	8.350023E-1	9.229974E-1	9.295932E-1	9.168636E-1	9.193121E-1	8.966847E-1	9.129379E-1	9.406441E-1	9.325159E-1	9.564262E-1	9.277186E-1	9.349452E-1	8.896848E-1	9.564312E-1	8.748095E-1	9.187179E-1	9.485522E-1	9.990163E-1	9.654126E-1	8.785894E-1	9.392661E-1	9.071636E-1	9.585482E-1	8.987002E-1	8.943751E-1	8.964051E-1	9.271535E-1	9.569082E-1	9.338427E-1	9.028935E-1	8.931379E-1	8.870802E-1	8.875305E-1	9.663275E-1	8.741024E-1	9.246709E-1	9.293780E-1	9.933866E-1	9.380869E-1	9.749518E-1	9.343282E-1	9.173291E-1	9.424551E-1	9.469676E-1	9.330008E-1	9.898855E-1	9.579683E-1	9.579946E-1	9.492045E-1	9.150257E-1	9.981454E-1	9.615974E-1	9.213680E-1	9.093035E-1	9.603763E-1	9.047667E-1	9.307107E-1	9.519173E-1	9.269941E-1	8.798178E-1	9.076464E-1	9.132269E-1	9.862579E-1	8.895480E-1	9.762392E-1	1.028694E+0	9.203775E-1	9.606030E-1	9.354535E-1	8.567306E-1	9.116757E-1	9.277509E-1	9.677483E-1	9.638609E-1	9.325478E-1	8.638927E-1	9.592018E-1	9.683829E-1	9.308765E-1	9.441380E-1	9.944551E-1	9.926719E-1	9.359375E-1	9.389940E-1	9.528483E-1	9.030339E-1	9.240456E-1	9.366348E-1	9.583863E-1	9.376067E-1	9.135444E-1	9.040238E-1	9.401697E-1	9.889360E-1	9.212881E-1	9.533264E-1	1.016621E+0	9.416225E-1	9.317969E-1	9.787017E-1	9.949915E-1	9.358557E-1	1.050477E+0	8.905232E-1	8.845389E-1	9.616900E-1	9.354682E-1	9.380509E-1	9.670932E-1	8.885038E-1	9.956088E-1	1.019758E+0	8.980520E-1	9.734059E-1	9.142788E-1	9.591359E-1	8.765153E-1	8.448250E-1	8.442612E-1	1.031997E+0	9.160553E-1	8.720794E-1
2.930010E+2	1.021249E+0	1.021077E+0	9.992392E-1	1.117503E+0	1.093283E+0	9.960233E-1	1.079298E+0	9.958077E-1	1.021520E+0	1.138389E+0	1.049730E+0	1.005969E+0	1.020801E+0	1.015964E+0	1.031968E+0	1.057989E+0	1.055369E+0	1.020945E+0	9.945183E-1	1.065889E+0	1.053150E+0	1.000954E+0	1.092386E+0	9.697468E-1	1.066671E+0	9.941057E-1	1.019896E+0	1.066487E+0	9.840437E-1	1.134902E+0	1.062542E+0	1.012973E+0	1.043777E+0	1.047128E+0	1.035171E+0	1.017487E+0	1.103919E+0	1.068277E+0	1.071808E+0	1.058511E+0	1.118621E+0	1.089003E+0	1.089242E+0	8.996924E-1	1.107544E+0	9.740833E-1	1.041229E+0	9.890591E-1	1.011528E+0	1.043703E+0	1.030663E+0	1.087414E+0	1.076438E+0	1.046982E+0	1.030591E+0	1.054888E+0	1.036240E+0	1.071889E+0	1.035583E+0	1.060196E+0	1.031985E+0	1.081175E+0	1.047193E+0	1.012818E+0	1.065614E+0	1.104769E+0	1.048982E+0	1.007416E+0	1.073587E+0	1.074738E+0	1.006564E+0	1.031960E+0	1.075656E+0	1.052746E+0	9.924059E-1	1.073305E+0	1.041642E+0	1.021400E+0	1.016980E+0	1.079971E+0	9.720073E-1	1.031411E+0	1.060677E+0	1.005068E+0	1.044021E+0	1.061954E+0	1.075008E+0	1.048532E+0	1.019071E+0	1.069649E+0	1.067142E+0	1.043847E+0	1.031776E+0	1.015626E+0	1.038635E+0	1.091911E+0	1.031443E+0	9.700886E-1	1.050780E+0	1.007195E+0	1.088371E+0	1.037564E+0	1.089169E+0	1.050893E+0	1.047800E+0	1.062772E+0	1.012732E+0	1.092772E+0	1.139301E+0	1.089758E+0	1.120060E+0	1.036319E+0	1.085974E+0	1.104324E+0	1.015910E+0	1.035917E+0	1.096169E+0	1.023530E+0	1.082285E+0	1.060492E+0	9.787332E-1	1.075293E+0	1.005097E+0	1.012445E+0	9.700559E-1	1.086783E+0	1.040508E+0	9.555800E-1	1.086860E+0	1.011516E+0	1.028062E+0	1.084294E+0	1.013965E+0	1.027720E+0	9.971672E-1	1.020302E+0	9.912577E-1	1.096902E+0	1.083855E+0	1.001021E+0	1.056327E+0	1.054632E+0	1.007474E+0	1.046924E+0	1.009768E+0	1.040085E+0	1.077115E+0	1.030108E+0	1.046762E+0	1.011384E+0	1.050865E+0	1.065253E+0	1.031138E+0	9.829866E-1	9.833336E-1	1.066212E+0	1.052094E+0	1.039548E+0	1.063618E+0	1.015122E+0	1.047433E+0	1.028023E+0	9.806081E-1	1.087393E+0	1.090223E+0	1.014744E+0	1.065388E+0	1.004044E+0	1.129303E+0	1.080268E+0	1.020738E+0	1.128138E+0
2.935110E+2	1.182022E+0	1.084097E+0	1.078715E+0	1.160561E+0	1.153225E+0	1.112983E+0	1.142355E+0	1.163875E+0	1.111645E+0	1.235622E+0	1.188850E+0	1.085165E+0	1.132409E+0	1.088374E+0	1.134618E+0	1.097424E+0	1.103100E+0	1.139587E+0	1.130415E+0	1.158463E+0	1.139736E+0	1.104225E+0	1.031529E+0	1.159020E+0	1.100062E+0	1.118427E+0	1.148492E+0	1.181063E+0	1.081297E+0	1.130230E+0	1.160171E+0	1.160330E+0	1.111593E+0	1.207167E+0	1.087086E+0	1.084573E+0	1.132020E+0	1.145071E+0	1.134638E+0	1.182037E+0	1.142927E+0	1.167885E+0	1.150520E+0	1.062760E+0	1.079656E+0	1.121775E+0	1.166658E+0	1.128322E+0	1.153875E+0	1.118258E+0	1.106183E+0	1.109120E+0	1.149334E+0	1.166469E+0	1.113222E+0	1.098155E+0	1.182517E+0	1.091863E+0	1.140878E+0	1.145902E+0	1.094144E+0	1.162742E+0	1.099850E+0	1.151878E+0	1.127184E+0	1.169775E+0	1.096432E+0	1.131774E+0	1.134964E+0	1.156685E+0	1.101169E+0	1.229083E+0	1.172224E+0	1.197524E+0	1.118080E+0	1.136403E+0	1.140737E+0	1.135281E+0	1.107243E+0	1.158300E+0	1.137471E+0	1.140351E+0	1.082750E+0	1.123652E+0	1.161733E+0	1.131510E+0	1.073080E+0	1.165459E+0	1.163800E+0	1.147082E+0	1.139786E+0	1.178154E+0	1.202403E+0	1.168736E+0	1.187697E+0	1.144286E+0	1.174435E+0	1.161716E+0	1.149293E+0	1.132149E+0	1.178251E+0	1.170545E+0	1.132378E+0	1.150542E+0	1.061396E+0	1.119893E+0	1.123131E+0	1.097173E+0	1.106040E+0	1.110530E+0	1.134929E+0	1.148017E+0	1.195254E+0	1.141615E+0	1.098836E+0	1.191881E+0	1.161208E+0	1.082518E+0	1.238030E+0	1.119861E+0	1.215338E+0	1.122825E+0	1.116207E+0	1.123754E+0	1.139799E+0	1.148209E+0	1.199813E+0	1.123885E+0	1.215432E+0	1.220583E+0	1.093673E+0	1.123695E+0	1.223213E+0	1.231249E+0	1.139639E+0	1.164998E+0	1.131216E+0	1.192938E+0	1.197369E+0	1.200144E+0	1.136524E+0	1.105085E+0	1.120830E+0	1.205202E+0	1.181028E+0	1.114345E+0	1.190951E+0	1.154428E+0	1.173415E+0	1.124226E+0	1.112776E+0	1.171444E+0	1.149009E+0	1.104960E+0	1.102898E+0	1.116170E+0	1.085920E+0	1.172304E+0	1.165331E+0	1.085630E+0	1.126157E+0	1.213061E+0	1.056136E+0	1.201615E+0	1.100236E+0	1.191043E+0	1.138273E+0	1.131523E+0	1.135692E+0	1.138725E+0	1.136902E+0	1.035207E+0
2.940050E+2	1.040242E+0	1.033567E+0	9.545835E-1	1.030715E+0	9.496467E-1	1.049475E+0	1.026351E+0	1.013846E+0	1.039818E+0	9.803891E-1	1.047404E+0	1.022614E+0	1.001028E+0	1.040813E+0	9.858460E-1	1.007685E+0	9.957305E-1	1.029803E+0	1.008941E+0	1.049577E+0	1.017284E+0	1.071623E+0	1.015481E+0	1.008316E+0	1.038404E+0	1.057860E+0	1.017077E+0	1.028104E+0	9.813182E-1	1.024880E+0	1.018493E+0	1.044025E+0	1.058043E+0	9.946372E-1	1.060323E+0	9.735091E-1	9.905341E-1	1.011487E+0	1.012831E+0	1.023401E+0	1.046676E+0	9.890970E-1	1.012016E+0	9.465518E-1	1.041827E+0	1.038789E+0	1.025594E+0	1.006720E+0	1.080938E+0	1.004720E+0	9.886986E-1	1.006868E+0	1.029054E+0	1.000618E+0	1.014736E+0	1.039308E+0	9.970592E-1	1.103103E+0	1.012789E+0	1.043591E+0	9.561837E-1	1.106686E+0	1.005026E+0	9.806938E-1	1.009879E+0	1.056403E+0	9.889753E-1	9.485643E-1	9.891426E-1	1.007522E+0	9.480164E-1	1.039321E+0	1.013077E+0	1.044272E+0	1.002220E+0	1.057776E+0	1.084064E+0	1.037466E+0	1.011799E+0	1.082689E+0	1.078462E+0	9.793006E-1	9.367668E-1	1.019713E+0	1.055601E+0	1.021956E+0	9.962907E-1	1.044615E+0	1.066572E+0	1.060607E+0	1.038452E+0	1.080280E+0	1.043032E+0	1.093366E+0	1.032125E+0	1.035601E+0	9.963063E-1	1.005939E+0	1.012794E+0	9.937549E-1	1.037213E+0	1.005127E+0	9.897487E-1	9.828988E-1	1.007392E+0	1.024145E+0	9.569657E-1	1.030698E+0	1.025999E+0	1.014459E+0	1.025726E+0	1.047272E+0	1.043561E+0	1.037217E+0	1.076787E+0	9.773711E-1	9.780780E-1	9.773897E-1	1.111891E+0	9.808514E-1	1.052049E+0	9.935184E-1	1.029984E+0	1.012575E+0	1.071432E+0	1.028225E+0	1.015078E+0	9.690510E-1	1.014808E+0	1.023996E+0	1.069773E+0	1.015730E+0	1.051338E+0	1.005200E+0	1.020237E+0	1.058050E+0	1.058953E+0	1.007250E+0	1.030460E+0	1.030975E+0	9.999359E-1	1.118856E+0	9.683375E-1	9.613595E-1	1.060276E+0	9.887523E-1	1.060562E+0	9.790807E-1	1.031219E+0	1.042708E+0	1.057457E+0	1.012609E+0	9.863762E-1	1.114575E+0	9.835527E-1	1.087857E+0	1.038181E+0	1.027037E+0	9.638738E-1	9.647347E-1	1.024024E+0	1.048421E+0	9.490301E-1	9.872865E-1	9.830427E-1	1.002018E+0	9.860050E-1	9.923724E-1	1.066488E+0	1.060094E+0	1.086700E+0	1.088844E+0
2.945010E+2	9.319474E-1	9.067180E-1	9.057515E-1	9.192243E-1	8.578392E-1	9.665259E-1	8.917291E-1	8.660117E-1	9.439886E-1	9.346583E-1	9.147416E-1	9.621464E-1	9.276660E-1	9.531308E-1	9.226400E-1	8.931899E-1	9.227293E-1	8.992325E-1	9.878363E-1	8.810666E-1	9.262536E-1	9.511107E-1	8.899791E-1	9.043805E-1	9.440641E-1	9.273512E-1	9.555827E-1	9.487780E-1	9.011078E-1	9.749434E-1	9.131471E-1	9.405877E-1	8.898946E-1	9.063521E-1	9.321146E-1	9.816964E-1	8.713538E-1	9.709064E-1	8.764776E-1	9.061020E-1	9.263529E-1	8.701480E-1	8.988942E-1	8.491440E-1	9.445852E-1	9.464040E-1	9.030207E-1	8.829143E-1	9.659000E-1	9.684135E-1	8.978523E-1	8.833025E-1	9.639086E-1	1.001999E+0	9.186912E-1	9.011588E-1	9.705156E-1	9.351061E-1	8.778968E-1	9.577020E-1	9.185703E-1	9.391065E-1	8.855403E-1	8.930678E-1	8.815772E-1	9.726806E-1	8.954307E-1	9.227166E-1	9.206274E-1	9.564583E-1	8.978241E-1	9.409048E-1	9.512961E-1	8.419899E-1	9.289443E-1	9.271667E-1	9.528083E-1	9.101122E-1	9.164561E-1	9.302123E-1	9.502112E-1	9.016014E-1	8.589647E-1	9.367247E-1	9.624681E-1	9.403663E-1	9.372114E-1	9.275195E-1	9.681693E-1	9.310070E-1	9.272077E-1	9.300208E-1	9.605965E-1	9.444231E-1	9.573227E-1	9.567775E-1	9.196465E-1	9.068757E-1	9.263328E-1	9.392265E-1	9.636927E-1	9.505945E-1	9.454587E-1	8.681551E-1	9.627232E-1	9.167625E-1	9.454329E-1	8.912618E-1	8.970998E-1	9.546758E-1	9.191568E-1	9.009956E-1	9.725054E-1	8.821869E-1	9.494315E-1	9.952999E-1	9.098911E-1	9.301360E-1	9.359012E-1	9.076201E-1	8.888243E-1	9.477158E-1	9.535876E-1	9.472581E-1	9.282898E-1	8.529698E-1	9.404833E-1	8.918960E-1	9.613387E-1	9.548708E-1	9.118952E-1	8.985404E-1	9.544361E-1	9.184806E-1	8.787889E-1	9.464619E-1	1.017648E+0	9.066697E-1	9.025351E-1	9.046779E-1	9.161212E-1	9.284390E-1	9.006872E-1	9.479122E-1	9.404234E-1	8.677279E-1	8.891034E-1	9.793732E-1	8.854049E-1	9.685938E-1	9.593681E-1	9.230035E-1	8.804911E-1	9.671253E-1	8.818636E-1	8.984318E-1	9.109627E-1	9.368768E-1	9.725431E-1	9.176303E-1	9.152371E-1	9.310146E-1	9.121086E-1	9.195048E-1	1.010589E+0	9.289191E-1	9.414352E-1	9.525199E-1	9.922674E-1	9.040044E-1	1.060679E+0	9.098359E-1
2.950050E+2	9.556985E-1	9.325067E-1	9.543560E-1	9.271987E-1	8.951177E-1	9.618897E-1	9.186797E-1	9.449127E-1	9.917916E-1	9.922801E-1	9.283293E-1	9.168823E-1	9.193053E-1	9.400810E-1	9.819176E-1	9.093516E-1	9.233349E-1	9.903680E-1	9.227295E-1	8.498654E-1	9.209100E-1	8.865127E-1	9.571506E-1	9.461762E-1	9.905705E-1	8.932216E-1	9.708142E-1	9.683507E-1	9.188416E-1	9.543406E-1	9.519036E-1	9.192022E-1	9.710414E-1	9.494512E-1	8.700464E-1	9.700664E-1	9.257921E-1	9.503963E-1	9.280754E-1	9.550452E-1	9.350816E-1	9.022624E-1	9.213815E-1	9.299660E-1	9.362263E-1	9.483037E-1	9.034309E-1	9.178516E-1	9.107512E-1	9.243307E-1	9.029440E-1	9.217113E-1	9.809369E-1	9.838784E-1	8.729777E-1	9.790127E-1	9.416843E-1	9.264898E-1	9.746503E-1	1.032267E+0	9.073119E-1	9.294890E-1	9.273868E-1	9.189248E-1	8.627391E-1	9.099242E-1	9.463879E-1	9.610952E-1	9.185398E-1	9.821285E-1	9.554079E-1	9.410592E-1	9.389607E-1	1.023509E+0	9.610558E-1	9.830262E-1	9.298759E-1	9.251210E-1	9.256969E-1	9.599594E-1	9.117496E-1	9.611696E-1	8.428229E-1	9.350383E-1	9.705534E-1	9.473586E-1	9.947727E-1	9.706457E-1	9.252246E-1	9.632105E-1	9.615117E-1	9.165142E-1	9.503400E-1	8.990625E-1	8.968802E-1	9.561504E-1	9.272601E-1	9.098717E-1	9.182680E-1	9.831782E-1	9.876939E-1	9.514436E-1	9.494009E-1	9.270662E-1	9.417215E-1	9.797974E-1	8.935505E-1	9.564670E-1	9.724825E-1	8.749527E-1	9.272517E-1	9.570044E-1	9.911956E-1	9.422405E-1	9.677623E-1	9.547898E-1	8.341621E-1	9.445186E-1	9.629410E-1	9.686001E-1	9.166585E-1	9.773930E-1	8.991560E-1	9.904434E-1	1.020247E+0	8.715978E-1	9.494471E-1	9.680725E-1	9.155577E-1	9.319706E-1	9.854066E-1	9.245030E-1	1.001432E+0	9.224807E-1	9.684937E-1	9.923268E-1	9.969528E-1	9.703124E-1	8.950405E-1	9.302607E-1	9.243465E-1	9.127623E-1	9.743362E-1	9.625461E-1	9.566683E-1	9.670019E-1	9.104641E-1	9.021883E-1	1.012585E+0	9.268130E-1	9.672420E-1	9.127465E-1	1.001895E+0	9.319078E-1	9.844089E-1	9.987154E-1	9.495826E-1	9.968509E-1	9.666440E-1	9.395710E-1	9.490070E-1	9.682430E-1	9.113407E-1	9.839265E-1	9.265131E-1	9.268134E-1	9.820476E-1	9.124067E-1	9.863365E-1	9.632126E-1	9.509753E-1	8.373068E-1
2.955070E+2	1.097270E+0	1.055786E+0	9.467494E-1	9.554344E-1	9.461328E-1	1.042797E+0	9.645714E-1	9.607605E-1	9.602703E-1	9.583985E-1	9.621158E-1	9.428385E-1	1.003640E+0	1.012140E+0	9.543517E-1	9.818027E-1	9.489637E-1	9.250253E-1	9.467680E-1	1.014669E+0	1.004378E+0	9.766521E-1	9.698816E-1	1.013145E+0	9.447984E-1	9.463958E-1	9.917096E-1	1.074840E+0	9.963256E-1	1.083574E+0	9.821717E-1	1.021281E+0	9.674917E-1	9.889078E-1	9.835907E-1	9.738753E-1	9.818162E-1	9.925463E-1	9.723321E-1	1.027012E+0	9.628577E-1	1.018007E+0	1.000641E+0	9.309491E-1	9.661581E-1	1.003335E+0	1.004834E+0	1.001723E+0	9.504229E-1	1.028084E+0	9.962445E-1	9.851538E-1	9.607218E-1	9.414087E-1	9.649392E-1	9.487786E-1	9.629364E-1	9.713868E-1	1.053775E+0	1.004272E+0	9.780362E-1	9.867515E-1	1.026490E+0	9.577823E-1	1.026482E+0	9.630976E-1	9.594686E-1	9.283499E-1	9.570116E-1	1.037017E+0	1.005963E+0	9.450448E-1	9.962776E-1	9.952926E-1	1.031618E+0	9.841333E-1	9.806301E-1	1.016552E+0	9.486833E-1	9.983600E-1	9.825296E-1	1.041215E+0	9.738365E-1	9.278975E-1	9.434839E-1	9.888139E-1	9.532839E-1	1.019692E+0	1.045495E+0	1.002384E+0	1.032407E+0	1.006253E+0	9.983283E-1	1.018041E+0	9.985678E-1	9.835378E-1	9.928620E-1	1.028779E+0	1.003450E+0	9.842532E-1	9.577269E-1	1.030414E+0	1.027502E+0	9.410549E-1	9.805350E-1	1.051204E+0	9.211401E-1	9.745175E-1	9.248670E-1	9.338916E-1	9.070458E-1	9.372144E-1	9.971094E-1	9.852114E-1	9.918203E-1	9.994610E-1	9.717417E-1	9.806245E-1	9.824351E-1	1.009083E+0	1.005362E+0	1.006660E+0	9.725706E-1	9.712812E-1	9.465408E-1	9.436204E-1	9.837013E-1	9.608038E-1	1.009321E+0	9.862142E-1	1.021461E+0	1.008328E+0	9.753918E-1	9.998612E-1	9.701176E-1	9.409289E-1	9.456811E-1	9.781186E-1	9.381244E-1	9.724849E-1	9.864052E-1	9.333636E-1	9.511524E-1	9.996939E-1	1.066505E+0	9.897184E-1	1.014571E+0	1.050038E+0	9.602572E-1	9.635209E-1	1.021722E+0	9.794180E-1	1.006164E+0	9.894023E-1	9.594707E-1	9.947959E-1	9.798670E-1	1.058968E+0	1.005787E+0	9.466930E-1	1.004333E+0	9.624564E-1	9.415028E-1	1.014611E+0	1.026566E+0	9.727022E-1	9.695988E-1	9.377732E-1	9.562388E-1	1.049202E+0	1.035443E+0	8.691075E-1
2.960030E+2	9.684087E-1	9.969642E-1	9.204991E-1	9.517097E-1	1.017436E+0	9.301153E-1	9.885102E-1	9.512690E-1	9.898893E-1	1.015169E+0	1.016948E+0	1.053283E+0	1.055109E+0	1.024005E+0	9.594378E-1	9.524947E-1	9.614379E-1	1.014043E+0	1.006238E+0	9.814893E-1	9.478022E-1	9.730222E-1	1.010893E+0	9.814094E-1	9.810249E-1	1.010828E+0	9.611473E-1	9.399188E-1	9.683888E-1	9.909170E-1	9.994385E-1	9.702325E-1	9.852757E-1	9.218491E-1	9.658648E-1	9.967061E-1	9.955439E-1	9.624161E-1	1.009648E+0	9.668039E-1	1.026103E+0	1.030554E+0	9.798985E-1	9.787547E-1	9.415906E-1	1.005441E+0	1.055817E+0	9.669154E-1	9.540565E-1	1.032452E+0	9.687320E-1	9.168404E-1	9.798720E-1	9.781130E-1	9.296796E-1	1.009600E+0	9.921208E-1	1.042915E+0	9.736975E-1	9.733424E-1	9.712774E-1	9.974091E-1	9.738148E-1	1.024973E+0	9.341120E-1	9.900314E-1	1.047244E+0	9.820547E-1	9.597617E-1	1.030102E+0	9.417350E-1	9.662706E-1	1.028125E+0	1.016798E+0	9.784534E-1	9.592735E-1	9.486954E-1	9.619575E-1	1.028221E+0	9.535577E-1	9.646750E-1	1.050966E+0	1.030962E+0	9.454407E-1	9.741785E-1	9.509588E-1	1.000285E+0	1.059911E+0	1.014728E+0	1.000795E+0	1.008545E+0	9.722556E-1	9.971348E-1	1.006270E+0	9.836900E-1	1.082644E+0	9.527463E-1	9.633661E-1	9.394157E-1	1.045181E+0	1.010598E+0	1.026959E+0	9.825829E-1	9.546393E-1	9.727151E-1	9.669284E-1	1.034687E+0	9.906663E-1	9.454226E-1	9.751191E-1	9.928916E-1	1.022970E+0	9.453873E-1	9.502052E-1	9.705136E-1	1.035648E+0	9.619341E-1	9.956181E-1	9.719861E-1	9.490870E-1	1.020777E+0	1.003971E+0	9.232641E-1	9.542637E-1	9.535905E-1	1.007120E+0	9.888996E-1	9.751003E-1	1.028936E+0	1.008833E+0	9.842683E-1	9.891433E-1	9.959952E-1	1.000035E+0	1.007048E+0	1.043942E+0	9.815012E-1	9.490068E-1	9.973561E-1	9.539592E-1	9.844243E-1	9.641661E-1	9.771311E-1	1.010837E+0	9.431036E-1	9.874844E-1	1.026116E+0	9.524706E-1	9.938441E-1	9.684732E-1	9.791050E-1	9.566441E-1	1.029145E+0	1.000551E+0	9.805380E-1	1.009459E+0	1.002724E+0	9.879414E-1	9.943434E-1	9.223251E-1	9.953313E-1	9.893009E-1	9.862031E-1	9.930603E-1	1.011722E+0	9.685342E-1	9.997144E-1	9.178914E-1	9.895595E-1	1.024401E+0	9.646437E-1	1.088196E+0
2.964980E+2	9.043382E-1	8.095634E-1	8.352965E-1	9.116799E-1	8.774968E-1	8.858727E-1	9.540579E-1	7.961628E-1	8.607848E-1	8.458084E-1	8.118430E-1	8.353769E-1	8.301658E-1	8.698124E-1	8.416110E-1	8.801536E-1	8.129457E-1	8.443237E-1	7.705324E-1	8.656493E-1	8.703256E-1	8.744797E-1	8.608793E-1	8.602801E-1	8.593316E-1	8.167622E-1	8.228783E-1	7.740329E-1	8.451271E-1	8.273057E-1	8.834633E-1	8.802064E-1	8.669826E-1	8.133402E-1	8.497910E-1	8.528108E-1	8.591690E-1	8.161499E-1	8.891707E-1	8.270100E-1	8.156345E-1	8.816718E-1	8.550144E-1	8.540197E-1	8.417212E-1	9.005175E-1	8.833443E-1	8.492076E-1	8.754252E-1	8.868698E-1	8.434557E-1	8.929851E-1	9.088699E-1	8.587361E-1	8.793780E-1	8.705104E-1	8.792647E-1	8.248692E-1	8.458847E-1	8.597891E-1	7.955569E-1	8.233546E-1	8.425880E-1	8.816484E-1	8.236485E-1	8.283998E-1	8.727776E-1	8.833927E-1	8.092691E-1	8.059599E-1	8.565313E-1	8.310962E-1	8.640707E-1	8.147606E-1	8.102119E-1	8.172258E-1	8.447655E-1	7.637876E-1	8.716690E-1	8.593513E-1	8.471227E-1	9.016109E-1	8.741715E-1	8.005228E-1	8.332106E-1	8.432915E-1	8.529340E-1	8.791736E-1	7.884498E-1	8.220087E-1	8.690792E-1	8.719297E-1	8.907475E-1	8.641798E-1	8.519154E-1	8.712274E-1	8.457090E-1	8.541378E-1	8.320316E-1	8.411479E-1	8.480640E-1	8.890046E-1	8.725220E-1	8.476962E-1	8.530274E-1	8.631376E-1	8.276776E-1	8.362748E-1	8.382618E-1	8.190025E-1	8.771669E-1	8.577477E-1	9.040446E-1	8.672934E-1	8.945942E-1	8.834459E-1	8.840470E-1	9.035262E-1	8.106598E-1	8.056175E-1	8.450947E-1	8.562900E-1	8.516963E-1	8.870572E-1	7.948975E-1	8.252157E-1	9.381586E-1	8.783726E-1	8.789334E-1	8.457143E-1	9.168643E-1	8.511316E-1	8.487509E-1	8.817007E-1	8.422101E-1	8.541028E-1	8.844044E-1	8.396961E-1	8.652544E-1	8.739282E-1	8.814898E-1	8.412160E-1	8.223051E-1	8.828821E-1	8.646094E-1	8.474275E-1	8.503402E-1	8.622509E-1	8.840753E-1	8.384145E-1	8.510235E-1	8.528062E-1	8.175135E-1	8.161216E-1	8.567328E-1	8.769098E-1	8.548609E-1	8.968010E-1	8.191411E-1	8.263519E-1	8.565395E-1	8.368264E-1	8.324351E-1	8.045738E-1	8.112620E-1	8.508257E-1	8.607814E-1	8.386647E-1	8.411315E-1	9.023666E-1	7.213354E-1	8.823049E-1
2.970020E+2	8.992569E-1	8.505481E-1	8.653386E-1	9.397273E-1	9.340013E-1	9.331945E-1	8.992013E-1	8.932007E-1	9.477905E-1	9.337823E-1	8.578769E-1	9.176502E-1	9.107160E-1	9.592439E-1	8.772640E-1	8.772964E-1	9.002406E-1	9.412614E-1	8.910412E-1	8.713085E-1	8.762098E-1	8.894003E-1	9.237987E-1	8.470524E-1	8.879172E-1	8.100252E-1	8.831338E-1	8.523713E-1	8.627245E-1	8.786424E-1	8.731047E-1	9.282160E-1	9.163717E-1	9.205530E-1	8.934242E-1	8.706459E-1	8.827768E-1	8.684024E-1	8.784323E-1	8.780169E-1	9.114409E-1	9.515205E-1	8.676826E-1	8.892809E-1	8.741273E-1	9.365530E-1	9.068321E-1	8.951744E-1	9.220795E-1	9.484680E-1	8.491718E-1	8.823321E-1	9.201241E-1	8.749219E-1	8.992135E-1	8.827028E-1	8.623219E-1	8.624047E-1	8.936741E-1	9.209043E-1	8.736202E-1	9.161965E-1	8.756289E-1	9.143469E-1	8.633529E-1	8.576127E-1	8.901124E-1	9.201633E-1	8.557435E-1	9.491758E-1	8.434191E-1	9.120415E-1	9.097441E-1	8.926490E-1	9.068064E-1	8.987485E-1	8.583093E-1	8.909443E-1	9.021111E-1	9.228004E-1	8.409822E-1	9.205840E-1	8.584341E-1	8.598063E-1	8.702256E-1	9.022008E-1	8.791490E-1	9.112545E-1	8.609572E-1	8.405138E-1	9.240582E-1	9.108393E-1	9.406149E-1	9.188271E-1	8.930596E-1	9.320494E-1	9.112311E-1	9.036860E-1	9.298241E-1	8.406260E-1	8.654330E-1	9.351620E-1	9.106671E-1	8.922179E-1	9.108541E-1	9.279674E-1	8.984312E-1	8.534893E-1	8.531415E-1	8.965751E-1	9.058258E-1	9.027620E-1	9.307084E-1	9.700087E-1	9.481072E-1	9.277860E-1	8.731813E-1	8.605621E-1	8.273241E-1	8.893839E-1	8.615119E-1	9.267679E-1	8.772949E-1	8.459324E-1	8.893985E-1	9.083374E-1	8.809060E-1	9.121512E-1	8.775143E-1	9.078400E-1	8.829939E-1	9.082011E-1	8.612287E-1	9.034863E-1	8.731948E-1	9.490380E-1	8.625662E-1	9.793463E-1	8.815409E-1	9.335406E-1	8.386895E-1	8.809054E-1	8.501409E-1	9.175164E-1	8.908753E-1	9.020807E-1	8.796138E-1	8.912940E-1	9.086301E-1	8.899368E-1	8.186100E-1	9.652496E-1	9.072714E-1	9.226362E-1	8.969178E-1	9.313378E-1	8.799236E-1	9.135122E-1	9.389671E-1	8.704440E-1	9.240523E-1	9.052944E-1	8.683841E-1	8.623195E-1	9.112954E-1	8.700735E-1	9.115964E-1	9.070854E-1	8.661724E-1	8.483298E-1	8.325136E-1	9.545278E-1
2.975020E+2	1.008083E+0	9.999971E-1	9.658291E-1	9.903704E-1	1.017867E+0	9.964632E-1	9.765813E-1	9.767581E-1	9.358658E-1	1.011609E+0	9.345875E-1	9.479994E-1	9.847799E-1	1.027163E+0	9.655128E-1	9.687293E-1	9.060664E-1	1.008642E+0	9.853357E-1	9.615340E-1	9.725027E-1	9.672188E-1	9.433061E-1	9.501112E-1	9.654815E-1	9.792621E-1	9.553533E-1	9.625880E-1	1.006545E+0	9.322685E-1	9.293685E-1	9.671806E-1	9.365001E-1	9.696577E-1	9.657184E-1	9.590644E-1	9.368047E-1	9.742841E-1	9.430564E-1	9.826689E-1	9.807162E-1	9.624660E-1	9.910535E-1	9.736102E-1	9.942004E-1	9.364165E-1	9.727496E-1	9.501851E-1	9.465709E-1	9.799456E-1	9.721741E-1	9.853058E-1	9.577110E-1	9.161462E-1	9.359330E-1	9.516163E-1	9.685292E-1	9.438970E-1	9.708631E-1	9.712899E-1	9.568697E-1	1.003502E+0	9.550761E-1	9.431985E-1	9.667046E-1	1.023864E+0	9.645879E-1	9.364926E-1	9.585205E-1	9.618885E-1	9.444821E-1	9.824992E-1	9.437309E-1	9.473960E-1	9.840278E-1	9.479159E-1	9.797886E-1	1.041107E+0	9.506716E-1	9.546299E-1	9.196182E-1	9.815373E-1	9.497676E-1	9.711787E-1	9.767307E-1	1.014694E+0	9.759887E-1	9.564583E-1	9.590362E-1	9.863866E-1	1.006708E+0	1.009700E+0	9.547382E-1	9.744857E-1	9.803634E-1	9.305301E-1	9.710948E-1	1.028325E+0	9.832555E-1	9.543763E-1	9.893481E-1	1.004387E+0	9.971817E-1	1.020993E+0	9.722269E-1	9.797857E-1	1.004448E+0	9.692347E-1	9.330502E-1	9.757480E-1	9.688023E-1	9.201430E-1	9.706196E-1	9.256506E-1	1.007626E+0	9.725750E-1	9.370614E-1	9.708482E-1	1.000829E+0	9.863971E-1	9.855468E-1	9.653846E-1	9.853531E-1	1.020888E+0	9.562730E-1	9.750266E-1	9.374456E-1	9.564011E-1	9.565136E-1	9.892039E-1	9.311945E-1	9.667228E-1	9.369919E-1	9.772193E-1	9.684212E-1	9.667765E-1	9.987886E-1	9.475608E-1	9.809667E-1	1.000811E+0	9.982217E-1	9.652592E-1	9.808037E-1	9.386951E-1	9.891245E-1	1.013100E+0	9.615799E-1	9.217939E-1	9.906271E-1	9.643105E-1	9.746560E-1	1.006113E+0	1.013902E+0	9.833573E-1	9.540309E-1	1.024374E+0	9.221913E-1	9.572969E-1	1.025196E+0	9.523862E-1	9.871735E-1	9.772930E-1	9.737120E-1	9.847479E-1	9.969626E-1	9.947507E-1	9.077306E-1	1.029029E+0	9.489628E-1	9.616494E-1	8.994990E-1	9.925444E-1
2.980020E+2	1.023220E+0	1.014333E+0	9.760138E-1	1.029417E+0	9.887115E-1	9.745365E-1	1.005818E+0	1.041413E+0	1.116878E+0	9.938830E-1	1.047626E+0	1.079097E+0	1.015763E+0	1.009366E+0	1.047356E+0	9.758800E-1	1.040399E+0	9.751640E-1	1.055817E+0	1.054565E+0	1.039022E+0	1.013934E+0	1.007491E+0	1.033386E+0	1.000524E+0	1.009318E+0	9.742444E-1	1.007338E+0	1.007005E+0	9.796961E-1	1.035058E+0	1.038325E+0	1.020052E+0	1.040429E+0	1.016134E+0	9.791582E-1	1.004351E+0	1.046323E+0	1.001976E+0	9.965778E-1	1.048247E+0	9.982879E-1	1.063889E+0	9.683717E-1	1.008951E+0	1.031443E+0	9.652212E-1	9.985167E-1	1.027715E+0	1.035427E+0	9.941699E-1	9.984094E-1	1.021407E+0	1.056083E+0	1.090624E+0	1.014300E+0	1.014250E+0	1.054333E+0	1.011304E+0	1.019699E+0	9.651303E-1	1.062131E+0	1.060364E+0	9.909500E-1	1.007728E+0	1.026767E+0	1.012316E+0	1.009992E+0	1.011222E+0	1.054246E+0	1.004656E+0	1.034839E+0	1.057497E+0	1.008991E+0	1.058199E+0	1.054551E+0	1.041917E+0	9.749472E-1	1.060532E+0	1.026781E+0	1.006123E+0	1.029036E+0	1.057003E+0	1.027647E+0	1.013648E+0	1.042404E+0	1.071861E+0	9.791375E-1	1.021317E+0	9.977884E-1	9.855812E-1	1.021125E+0	1.052158E+0	1.061356E+0	1.009234E+0	1.012196E+0	1.030564E+0	1.017081E+0	1.018328E+0	1.030175E+0	1.034153E+0	9.948275E-1	9.941966E-1	9.806285E-1	1.059725E+0	9.907436E-1	1.023158E+0	1.029623E+0	1.003605E+0	1.025740E+0	1.064357E+0	1.016874E+0	1.013091E+0	1.038791E+0	9.832288E-1	1.087884E+0	1.067396E+0	1.031404E+0	9.964107E-1	1.025694E+0	1.005943E+0	1.000170E+0	9.971073E-1	1.049942E+0	1.072769E+0	9.956627E-1	1.032995E+0	1.036499E+0	1.031686E+0	1.069694E+0	1.014618E+0	1.025809E+0	1.030917E+0	1.052251E+0	1.020942E+0	1.002937E+0	1.004964E+0	1.059147E+0	9.817726E-1	1.008890E+0	1.005392E+0	1.061966E+0	1.023218E+0	9.703409E-1	9.911963E-1	9.922301E-1	1.031395E+0	9.975780E-1	1.080738E+0	9.794800E-1	9.900326E-1	1.030742E+0	1.027891E+0	1.057776E+0	9.886204E-1	9.584507E-1	1.054981E+0	1.031543E+0	1.037471E+0	1.011020E+0	1.028837E+0	1.005465E+0	9.698000E-1	1.000242E+0	9.994154E-1	9.899581E-1	1.086476E+0	1.002318E+0	9.933976E-1	1.025950E+0	1.010873E+0	1.050440E+0
2.985010E+2	1.004158E+0	1.016900E+0	1.030586E+0	1.020456E+0	9.874275E-1	1.047784E+0	1.013358E+0	1.009567E+0	1.020220E+0	9.640276E-1	9.846340E-1	1.015696E+0	1.017016E+0	9.585270E-1	9.967949E-1	1.037768E+0	1.016766E+0	1.010065E+0	1.005331E+0	9.587231E-1	9.781483E-1	1.012415E+0	1.023815E+0	9.883734E-1	1.010079E+0	1.030702E+0	1.009936E+0	9.944475E-1	1.060356E+0	9.929602E-1	1.015641E+0	9.618855E-1	1.008835E+0	9.866722E-1	9.918220E-1	1.015562E+0	9.964294E-1	1.006371E+0	1.019852E+0	9.967544E-1	9.561679E-1	1.045883E+0	9.454727E-1	1.006597E+0	9.903406E-1	1.027507E+0	9.610550E-1	9.703953E-1	1.041502E+0	1.040846E+0	9.954129E-1	1.041452E+0	9.850567E-1	1.010640E+0	1.036618E+0	1.018277E+0	1.063394E+0	9.550638E-1	1.009434E+0	9.904041E-1	1.012721E+0	9.574723E-1	9.531617E-1	1.033592E+0	1.020306E+0	9.923189E-1	1.005768E+0	1.046888E+0	9.834824E-1	1.006835E+0	9.813384E-1	9.925488E-1	9.843355E-1	1.012590E+0	9.760908E-1	1.035370E+0	9.906096E-1	9.996482E-1	9.525374E-1	9.857427E-1	1.033505E+0	9.948211E-1	1.003581E+0	1.013229E+0	1.009508E+0	9.948541E-1	9.748922E-1	9.987612E-1	1.015228E+0	9.449158E-1	9.843345E-1	1.010303E+0	9.692416E-1	9.395906E-1	9.957987E-1	1.008942E+0	1.034603E+0	9.830792E-1	9.886742E-1	9.536279E-1	9.501838E-1	1.027362E+0	1.020847E+0	1.037185E+0	9.404879E-1	9.941638E-1	1.013332E+0	1.007194E+0	9.951452E-1	9.925073E-1	9.926042E-1	9.543638E-1	1.010077E+0	1.012075E+0	1.025636E+0	9.846958E-1	9.937279E-1	9.947290E-1	1.004760E+0	9.842937E-1	1.011201E+0	9.686480E-1	1.038081E+0	9.747422E-1	9.746589E-1	1.019061E+0	9.543994E-1	9.835793E-1	9.751225E-1	1.032281E+0	1.003251E+0	9.578909E-1	9.766484E-1	1.046883E+0	9.864538E-1	1.008603E+0	1.002889E+0	9.793482E-1	9.604354E-1	9.724906E-1	9.772264E-1	9.959663E-1	1.049537E+0	1.006199E+0	1.003353E+0	1.009321E+0	1.017823E+0	1.010862E+0	9.989027E-1	1.013900E+0	9.607701E-1	9.763603E-1	1.030107E+0	9.403276E-1	1.011228E+0	9.887962E-1	9.720483E-1	9.487002E-1	9.744942E-1	9.940267E-1	9.887917E-1	1.017887E+0	9.925861E-1	1.012553E+0	1.010038E+0	9.845237E-1	9.769222E-1	1.038414E+0	9.756930E-1	9.903858E-1	1.068903E+0	1.006798E+0
2.990010E+2	1.005739E+0	1.025133E+0	1.018241E+0	1.000236E+0	1.021204E+0	1.028271E+0	1.051140E+0	9.939592E-1	1.003628E+0	1.057950E+0	1.047890E+0	1.005835E+0	1.005251E+0	1.050651E+0	1.008644E+0	1.047564E+0	1.013706E+0	1.048825E+0	1.036139E+0	1.047852E+0	1.028195E+0	1.013069E+0	1.016598E+0	1.000833E+0	1.080330E+0	9.600876E-1	1.008173E+0	1.038060E+0	9.808293E-1	1.004743E+0	1.021511E+0	1.042617E+0	1.051714E+0	1.018871E+0	1.008481E+0	1.054938E+0	1.068163E+0	1.044732E+0	1.038056E+0	9.851105E-1	1.041785E+0	1.020255E+0	9.994308E-1	1.059518E+0	1.047676E+0	1.033107E+0	1.073235E+0	1.020867E+0	1.024331E+0	9.967446E-1	1.001112E+0	1.013449E+0	1.042197E+0	1.039919E+0	9.967180E-1	9.851090E-1	1.040148E+0	1.074312E+0	1.027177E+0	1.081814E+0	1.025461E+0	1.009483E+0	9.979031E-1	1.008517E+0	1.041268E+0	1.016838E+0	1.064534E+0	9.593603E-1	1.021198E+0	1.040588E+0	1.018993E+0	1.022341E+0	1.043156E+0	9.858926E-1	1.005501E+0	9.888002E-1	9.680022E-1	1.038227E+0	1.072579E+0	1.028542E+0	1.019295E+0	1.047136E+0	1.036537E+0	1.007088E+0	9.821153E-1	9.824053E-1	1.028185E+0	1.040376E+0	1.002119E+0	9.829587E-1	1.019906E+0	9.980328E-1	1.041659E+0	1.062860E+0	1.059831E+0	1.040327E+0	9.882630E-1	1.000601E+0	1.014463E+0	1.029993E+0	1.067547E+0	9.987544E-1	9.978975E-1	1.074750E+0	1.021284E+0	1.045871E+0	1.025974E+0	1.050262E+0	1.007918E+0	1.027108E+0	1.014430E+0	1.079957E+0	1.023186E+0	1.049587E+0	9.981227E-1	1.025351E+0	1.033133E+0	1.006377E+0	1.020443E+0	1.054609E+0	1.067527E+0	1.028174E+0	1.016964E+0	1.020461E+0	9.831731E-1	1.013048E+0	1.026061E+0	1.025111E+0	1.042501E+0	9.708225E-1	1.046944E+0	1.014260E+0	1.028727E+0	9.776949E-1	1.017055E+0	1.005931E+0	1.040050E+0	1.048007E+0	1.040982E+0	1.065241E+0	1.026023E+0	1.012085E+0	9.785526E-1	1.066864E+0	9.995973E-1	1.059034E+0	1.022216E+0	1.014838E+0	9.827567E-1	1.025554E+0	1.028851E+0	1.030843E+0	9.951568E-1	1.042725E+0	1.014611E+0	1.012652E+0	1.054458E+0	1.026492E+0	9.877659E-1	1.025616E+0	9.818508E-1	1.050893E+0	1.077460E+0	1.027179E+0	9.969539E-1	1.047626E+0	1.035426E+0	1.029080E+0	1.033744E+0	1.063114E+0	9.584916E-1	9.606366E-1
2.995040E+2	1.037769E+0	1.004667E+0	1.084051E+0	1.037101E+0	1.011842E+0	1.020528E+0	1.011182E+0	1.042629E+0	9.830408E-1	1.013594E+0	1.028313E+0	1.062422E+0	1.018620E+0	1.037844E+0	1.049668E+0	1.018102E+0	1.048907E+0	1.022702E+0	1.001684E+0	1.032180E+0	1.059082E+0	1.038935E+0	1.049645E+0	1.060181E+0	1.020303E+0	1.014918E+0	1.056090E+0	1.059648E+0	9.924722E-1	1.105219E+0	1.039672E+0	1.026974E+0	1.021829E+0	1.015180E+0	1.071753E+0	1.007495E+0	1.038235E+0	1.002062E+0	1.007616E+0	1.056840E+0	1.022124E+0	1.016044E+0	1.039242E+0	1.014761E+0	9.952270E-1	1.014839E+0	1.053511E+0	1.079558E+0	9.852153E-1	1.005992E+0	1.059108E+0	9.899928E-1	1.037745E+0	1.030988E+0	1.013039E+0	1.029292E+0	1.005376E+0	1.034811E+0	1.033227E+0	1.016969E+0	1.065781E+0	1.038019E+0	1.050271E+0	1.069718E+0	1.052161E+0	9.865917E-1	1.028522E+0	1.062144E+0	1.063194E+0	1.022097E+0	1.072438E+0	1.033740E+0	1.020969E+0	1.038671E+0	1.064383E+0	9.836812E-1	1.039489E+0	1.015683E+0	1.037375E+0	1.021594E+0	1.074093E+0	1.021498E+0	1.018482E+0	1.017304E+0	1.030026E+0	1.022914E+0	9.972435E-1	1.059281E+0	1.041130E+0	1.070967E+0	1.019507E+0	9.677834E-1	9.901103E-1	9.802264E-1	1.062091E+0	1.040591E+0	1.011855E+0	1.076808E+0	1.020027E+0	1.055067E+0	1.000871E+0	1.051559E+0	1.031523E+0	9.541964E-1	1.046510E+0	1.020183E+0	9.868588E-1	9.845336E-1	1.086421E+0	1.006566E+0	1.018465E+0	1.082708E+0	1.015809E+0	1.019077E+0	1.065688E+0	1.003728E+0	1.055187E+0	1.007045E+0	1.062017E+0	1.014128E+0	1.030139E+0	1.066975E+0	1.025332E+0	9.828014E-1	1.014717E+0	9.992010E-1	1.073542E+0	1.024612E+0	1.071567E+0	1.030991E+0	1.042206E+0	1.045032E+0	1.068093E+0	1.014629E+0	1.051513E+0	1.048529E+0	1.021092E+0	1.029971E+0	1.101908E+0	1.003781E+0	1.041374E+0	1.026748E+0	1.076760E+0	1.052169E+0	1.051091E+0	9.819214E-1	9.969671E-1	1.022746E+0	9.711757E-1	1.039772E+0	1.045552E+0	9.842877E-1	9.684424E-1	1.072926E+0	1.067644E+0	1.085278E+0	1.036043E+0	1.074223E+0	1.024656E+0	1.030912E+0	1.025161E+0	1.019656E+0	1.006608E+0	1.006972E+0	1.042453E+0	1.038360E+0	1.018002E+0	9.809846E-1	1.093227E+0	9.546351E-1	1.069240E+0	1.051571E+0
3.000060E+2	9.210304E-1	9.389701E-1	9.252804E-1	9.224200E-1	9.729476E-1	9.324168E-1	9.419210E-1	9.356742E-1	9.403667E-1	9.589368E-1	9.569501E-1	8.889516E-1	9.585699E-1	9.164478E-1	9.320243E-1	9.519566E-1	9.741562E-1	9.346014E-1	9.156930E-1	9.451461E-1	9.230504E-1	9.544276E-1	9.591450E-1	9.671151E-1	9.232830E-1	1.005712E+0	9.962024E-1	9.379184E-1	9.527926E-1	9.851126E-1	9.587503E-1	9.630181E-1	9.610688E-1	9.691911E-1	9.460921E-1	9.837834E-1	9.560165E-1	9.262276E-1	9.894441E-1	9.820485E-1	9.509604E-1	9.570638E-1	9.609113E-1	9.771414E-1	9.636046E-1	9.566865E-1	9.742286E-1	9.804771E-1	9.746651E-1	9.410444E-1	9.780237E-1	9.713909E-1	9.558824E-1	9.462242E-1	9.270678E-1	1.001406E+0	9.083025E-1	9.375828E-1	9.479946E-1	9.198245E-1	9.740362E-1	9.293919E-1	9.832246E-1	9.540242E-1	9.118325E-1	9.536198E-1	9.242717E-1	9.851226E-1	9.623837E-1	9.143461E-1	9.780936E-1	9.340312E-1	9.503126E-1	1.006458E+0	9.117987E-1	9.896820E-1	9.801934E-1	9.303868E-1	9.263059E-1	9.827094E-1	9.473657E-1	9.259716E-1	9.346297E-1	9.635539E-1	9.879724E-1	9.427295E-1	9.518301E-1	9.659860E-1	9.611700E-1	1.016984E+0	9.839636E-1	9.930558E-1	9.920932E-1	9.814819E-1	8.926820E-1	9.674137E-1	9.636204E-1	8.941062E-1	9.752522E-1	9.767610E-1	9.578972E-1	9.231108E-1	9.583540E-1	9.322474E-1	9.597660E-1	9.692529E-1	9.462288E-1	9.591521E-1	9.738607E-1	9.723308E-1	9.413416E-1	9.459536E-1	9.672169E-1	9.548192E-1	9.196995E-1	9.257656E-1	9.134947E-1	9.895974E-1	9.155409E-1	9.348778E-1	8.996438E-1	9.706487E-1	9.371626E-1	9.511658E-1	9.984096E-1	9.980004E-1	9.755567E-1	9.737969E-1	9.226090E-1	9.070082E-1	9.617870E-1	9.902865E-1	9.586232E-1	9.313225E-1	9.556147E-1	9.672227E-1	9.322172E-1	9.359663E-1	9.339354E-1	9.487868E-1	9.517620E-1	9.379750E-1	8.911291E-1	9.657324E-1	9.656379E-1	9.443935E-1	9.700189E-1	1.032181E+0	9.758002E-1	9.769837E-1	1.000139E+0	9.716544E-1	9.644999E-1	9.028882E-1	9.638652E-1	9.304495E-1	9.602787E-1	9.617441E-1	9.504165E-1	9.860392E-1	9.881862E-1	9.288057E-1	9.798341E-1	9.683055E-1	9.541774E-1	9.447818E-1	9.754433E-1	9.201741E-1	9.549750E-1	1.004266E+0	9.929936E-1	9.380091E-1
