Photon Energy (eV)	#1	#2	#3	#4	#5	#6	#7	#8	#9	#10	#11	#12	#13	#14	#15	#16	#17	#18	#19	#20	#21	#22	#23	#24	#25	#26	#27	#28	#29	#30	#31	#32	#33	#34	#35	#36	#37	#38	#39	#40	#41	#42	#43	#44	#45	#46	#47	#48	#49	#50	#51	#52	#53	#54	#55	#56	#57	#58	#59	#60	#61	#62	#63	#64	#65	#66	#67	#68	#69	#70	#71	#72	#73	#74	#75	#76	#77	#78	#79	#80	#81	#82	#83	#84	#85	#86	#87	#88	#89	#90	#91	#92	#93	#94	#95	#96	#97	#98	#99	#100	#101	#102	#103	#104	#105	#106	#107	#108	#109	#110	#111	#112	#113	#114	#115	#116	#117	#118	#119	#120	#121	#122	#123	#124	#125	#126	#127	#128	#129	#130	#131	#132	#133	#134	#135	#136	#137	#138	#139	#140	#141	#142	#143	#144	#145	#146	#147	#148	#149	#150	#151	#152	#153	#154	#155	#156	#157	#158	#159	#160	#161	#162	#163	#164	#165	#166	
2.790010E+2	-1.271049E-2	6.702719E-3	-1.069735E-2	2.987957E-3	2.867502E-3	7.424147E-3	-5.519975E-3	-3.246233E-3	-1.440103E-3	5.110904E-3	-5.663641E-3	-4.997341E-3	-2.591939E-3	-6.266774E-3	8.991729E-4	-1.575107E-3	-1.253066E-2	1.512500E-3	7.609734E-3	-1.004184E-3	-1.329483E-3	6.367027E-5	4.993664E-3	-8.605922E-3	1.776719E-3	8.935107E-3	6.718761E-3	-4.922527E-3	-1.612759E-3	3.836524E-3	9.731358E-4	3.053374E-3	-5.341437E-3	7.716607E-3	-7.777005E-3	-6.235287E-3	2.107617E-3	-3.544826E-3	-5.146816E-3	5.233906E-3	-6.035952E-3	3.419485E-3	2.913191E-3	-4.423088E-3	-1.239442E-2	-1.773362E-3	-4.359861E-3	7.742985E-4	9.029750E-3	-9.586286E-3	-2.672490E-3	4.179015E-3	-5.254327E-3	5.889353E-3	8.211369E-3	-4.991283E-3	-1.101563E-3	-4.929236E-3	3.526819E-3	-9.476459E-3	1.294636E-2	-5.025149E-3	3.283459E-4	-1.161317E-3	3.064758E-3	2.416768E-4	-3.050726E-3	4.920668E-3	1.094252E-2	-6.082484E-3	4.096252E-3	-7.098094E-3	2.861620E-3	-1.490195E-2	2.873085E-3	1.809457E-4	-6.160339E-3	2.911748E-3	-7.090961E-3	1.221122E-2	-4.788860E-4	-4.950541E-3	4.192915E-3	1.138887E-3	3.228326E-3	-9.934720E-4	-8.114892E-3	-2.088211E-3	-5.740712E-3	-2.413785E-3	1.697125E-3	5.058023E-3	-3.600456E-3	-2.700462E-3	-5.270769E-3	-1.661399E-3	1.998100E-3	-3.107027E-3	-9.446428E-3	-3.744250E-3	-3.365588E-3	-5.474458E-3	1.254019E-3	-4.433489E-4	3.324689E-3	3.233764E-3	-5.787582E-4	-3.444302E-3	-4.166866E-3	3.193646E-3	-4.947238E-3	1.931715E-3	-6.862870E-3	3.551218E-4	-3.588667E-3	3.246174E-3	-8.374754E-3	-3.176545E-3	-3.877780E-3	6.137594E-3	-8.423428E-3	-8.393317E-4	-4.365841E-3	-5.368334E-3	-8.812688E-3	-4.540543E-3	-7.468580E-3	5.435066E-3	-2.202072E-3	-2.410171E-3	-4.033184E-3	8.735064E-3	8.322901E-5	-6.314295E-3	-1.236383E-2	-5.027123E-4	5.511173E-3	3.473425E-3	7.752119E-3	1.836926E-3	2.357803E-3	-1.309064E-3	-1.054501E-3	-5.573595E-3	-2.072234E-5	1.931832E-3	-4.884786E-3	-2.087468E-3	-2.588045E-3	-2.565020E-3	-4.131837E-3	-8.870331E-3	1.424024E-3	8.977877E-3	-4.607697E-3	-4.202874E-3	1.116898E-2	-6.412423E-3	-8.235890E-3	-3.526178E-3	8.440243E-3	-1.277052E-3	2.822866E-3	-9.878994E-3	-1.203535E-2	-1.787383E-4
2.795040E+2	-3.468962E-3	3.498982E-3	1.997083E-3	-3.251692E-3	-1.697340E-3	1.913968E-3	1.304175E-3	1.726545E-3	6.750518E-3	-4.744739E-3	-5.429428E-3	-2.381351E-3	-4.541021E-3	7.236591E-4	2.335830E-3	3.273278E-3	1.388284E-2	2.463922E-3	4.584671E-3	-7.457582E-3	-8.151381E-3	2.730234E-3	6.255431E-4	3.336961E-3	-4.154783E-4	-4.505983E-3	-2.967553E-3	-1.714877E-4	-5.189765E-3	-6.091609E-3	-1.020415E-2	-4.204423E-3	2.957358E-3	-4.235051E-3	-2.418424E-3	-3.965165E-4	-3.429325E-3	-5.603547E-4	1.561959E-3	-8.765860E-3	-4.306171E-4	-9.094147E-4	1.491126E-3	1.106344E-2	-5.584837E-3	3.898384E-3	-3.441750E-3	7.812951E-3	-3.047051E-3	-6.214904E-3	-9.686959E-3	-1.174425E-3	2.812652E-3	-3.631612E-3	-5.139365E-3	-3.973882E-3	-1.226007E-2	-5.433883E-3	1.274856E-3	3.975831E-4	1.045191E-3	5.799877E-3	-2.358942E-3	2.654100E-3	-3.747071E-3	-7.283862E-3	-5.067599E-3	1.846416E-3	5.527323E-4	-3.809353E-3	-1.081636E-3	-1.581832E-3	-2.591695E-3	5.062569E-3	-4.584187E-3	-3.873041E-3	-1.437839E-3	7.796000E-4	6.973914E-3	-3.763190E-3	1.993671E-3	-3.074881E-3	-3.910720E-3	-9.656440E-3	8.354505E-3	2.594652E-3	-3.654420E-3	1.552197E-3	1.244517E-2	-2.226858E-3	1.150388E-3	-2.696433E-3	-4.901623E-4	-4.668302E-3	-1.228197E-3	6.327912E-4	2.993675E-3	7.396841E-3	-2.196945E-3	-4.255173E-3	-3.849693E-3	4.109408E-3	5.413699E-3	3.743046E-3	3.450037E-3	6.456714E-5	-3.238017E-4	2.692681E-3	4.260753E-3	-1.168084E-3	-5.436946E-3	-3.614990E-3	3.080055E-3	-2.609503E-3	-1.693223E-3	-4.616757E-3	-2.365950E-3	-2.981221E-3	4.279601E-4	-5.170953E-3	3.096923E-4	-6.625860E-3	-2.264701E-3	3.400605E-3	-1.234486E-3	5.006560E-3	9.336688E-3	-5.501114E-3	-4.213352E-3	4.540040E-3	-5.527083E-3	-5.438364E-3	-3.292105E-3	7.453536E-3	-3.929781E-3	1.292371E-3	-5.918029E-3	-4.926236E-3	9.080019E-4	-2.279298E-3	-5.740134E-3	-2.591909E-3	-1.037876E-2	2.493224E-3	3.927673E-3	1.283216E-2	-3.178207E-3	-6.179929E-3	-1.580726E-3	-2.408113E-4	5.061688E-3	-7.249859E-4	-7.349357E-4	-2.225223E-3	7.465742E-3	-8.648293E-3	-3.424880E-3	-8.418814E-3	8.812591E-3	-9.850223E-3	-5.058926E-3	-1.103120E-2	3.260136E-3	-6.392351E-3	1.113663E-2	-3.802302E-3
2.800020E+2	9.280796E-3	-7.035257E-4	-6.747796E-3	-2.405485E-3	-2.528647E-3	-4.999983E-3	6.726368E-3	5.864753E-3	3.513136E-3	-9.591281E-4	-6.808599E-4	2.465688E-3	1.781413E-3	4.088811E-3	-8.141603E-3	-1.450052E-3	-6.080685E-3	-6.525663E-4	-9.443299E-3	4.993195E-3	-1.221961E-3	-9.435447E-3	-6.096402E-3	6.198707E-3	-1.929829E-3	-5.960729E-3	-4.464739E-3	4.299728E-3	-7.652752E-4	-6.126629E-3	2.562372E-3	-8.867144E-3	1.508157E-3	4.021146E-3	-1.084103E-2	-5.216242E-3	1.481674E-3	1.445530E-3	3.113341E-3	2.197187E-3	2.576991E-3	4.947006E-3	-8.149793E-3	2.963504E-3	5.882641E-3	-4.436248E-3	-2.702558E-3	-1.197943E-3	-6.181478E-4	5.834324E-4	-3.320849E-3	1.910143E-3	-1.109594E-3	-9.217692E-3	-4.256645E-4	5.094845E-4	-8.794837E-3	-2.431698E-3	-3.756155E-3	1.173420E-3	-1.092704E-2	-2.730662E-3	-2.410982E-3	1.852742E-3	-1.158366E-3	1.785532E-3	4.880960E-3	-4.063635E-3	-1.005591E-3	-3.866347E-3	-2.713880E-3	5.725446E-3	-9.875838E-3	2.087383E-3	3.106931E-3	-6.524444E-3	8.010078E-3	-1.249402E-2	2.892163E-3	-6.101629E-3	-4.255478E-3	-1.555574E-2	-2.402692E-4	-5.017773E-4	-3.065633E-3	-7.724096E-3	-5.284624E-3	-3.486383E-3	-4.672765E-3	-3.794622E-3	-1.983269E-3	-1.531237E-2	-7.851220E-3	3.593052E-3	-1.242315E-3	-2.958962E-3	-1.917780E-3	2.076476E-4	1.388827E-2	-1.791381E-3	-7.560166E-3	-4.611249E-3	-6.453410E-3	5.260264E-3	-2.388237E-3	8.394435E-3	-7.123588E-3	2.615623E-3	-2.849517E-4	-7.244056E-3	-7.672144E-3	3.357821E-3	-4.157211E-3	6.881987E-3	-8.211257E-3	-9.480672E-3	1.160587E-3	1.216300E-3	5.990992E-3	1.070593E-2	-1.429969E-2	-2.250262E-3	-4.097175E-3	-5.990128E-3	5.303202E-3	-6.588074E-3	1.089608E-2	-4.405456E-4	-4.268387E-3	-6.013906E-3	-7.419603E-3	-1.053243E-2	-8.914563E-3	-1.008358E-2	4.875682E-3	-5.208084E-3	-1.376921E-3	-2.148899E-3	-1.766220E-3	2.877881E-4	-5.791736E-3	7.154242E-3	9.366224E-3	-1.474708E-2	-3.718885E-3	-7.803123E-3	-6.255181E-3	3.450751E-3	-8.576896E-3	-6.082031E-3	1.755049E-3	-5.424760E-3	-6.902554E-3	-9.740642E-3	1.112305E-3	-6.350689E-3	-4.258544E-3	6.967677E-3	3.149464E-3	-4.120762E-3	-1.367894E-3	6.471606E-3	-9.341942E-4	1.336692E-2	-1.246172E-2	-3.857906E-3
2.805050E+2	-5.924448E-3	-2.331340E-3	-7.748419E-3	-4.710355E-3	-2.488814E-3	-5.642141E-3	-2.764588E-3	4.800928E-4	-6.020375E-3	3.677913E-3	-6.956036E-3	-5.461255E-4	-8.077830E-3	-2.656697E-3	-3.908794E-3	-2.043922E-3	-2.218517E-3	-1.377543E-3	-7.723839E-3	1.471372E-3	5.109835E-3	-8.110030E-3	-1.548076E-4	-8.825874E-3	-1.269900E-2	-1.631090E-3	-3.311894E-3	-5.278210E-3	-2.938875E-3	2.632048E-3	-2.006816E-3	5.888482E-3	2.298982E-3	-1.896825E-3	-4.052201E-4	-2.731943E-3	-6.959004E-3	-1.958327E-3	-1.322615E-2	-1.525013E-3	-4.147067E-4	-1.198010E-2	-1.085081E-2	-1.029277E-2	1.810190E-4	2.520135E-3	-2.934034E-4	3.027648E-4	-2.200878E-3	-3.187687E-3	-6.215519E-3	-3.551571E-3	-7.316271E-3	-7.845919E-3	-7.618885E-3	-2.689138E-4	1.804142E-3	-2.392788E-3	-5.941437E-3	3.840048E-4	7.357986E-3	1.540247E-3	-5.552332E-3	1.179137E-3	-8.230573E-3	-1.016702E-2	-8.983064E-3	-9.844847E-3	1.262273E-3	-3.145051E-3	-1.050440E-2	-9.292498E-4	5.382206E-3	6.490138E-3	-7.587523E-4	2.123991E-3	3.605200E-3	4.416676E-3	-1.881017E-3	-2.264124E-3	-9.623679E-3	-2.359312E-3	5.476184E-4	-1.066196E-2	-1.084493E-2	6.689292E-3	-9.411089E-3	-3.456358E-3	-5.458896E-3	-2.246958E-3	2.101625E-3	9.051862E-3	-4.165148E-3	-7.456983E-3	-2.717337E-3	-5.741855E-3	-9.942995E-3	-5.430733E-4	3.332226E-4	-1.769096E-3	-5.340119E-3	1.207822E-3	-4.846174E-3	-1.460460E-2	-2.346345E-3	-1.089471E-2	2.166781E-3	-4.027203E-3	-6.958815E-3	-6.458205E-3	4.014965E-3	-9.253860E-3	6.551219E-4	-3.431838E-3	2.313217E-3	2.570109E-3	4.788760E-3	-3.693411E-3	-6.846071E-3	-8.224183E-3	1.849678E-3	-2.963743E-3	-4.067631E-3	-5.105338E-3	-4.188103E-3	-2.940693E-3	-7.988126E-3	-4.045319E-3	1.570795E-3	-5.225548E-3	2.664480E-3	-9.660428E-3	-5.385712E-3	-2.254996E-3	1.366603E-3	-5.970974E-3	-4.399266E-3	2.088370E-5	-4.322961E-3	-1.197539E-2	-5.751884E-3	-4.702192E-3	-2.471514E-3	2.559178E-3	-3.676849E-3	-1.187435E-3	-3.953237E-3	-7.840928E-3	-7.773721E-3	-3.863576E-3	-1.194346E-2	2.470766E-3	-2.290159E-3	-3.729682E-3	2.723743E-3	-5.515312E-3	4.218410E-3	-1.063701E-2	-4.783191E-3	-3.317872E-3	9.339520E-4	5.761774E-3	-3.998886E-3	-6.299313E-3	-4.025753E-3	-8.266596E-4
2.810050E+2	5.102146E-3	3.240706E-3	-1.501433E-4	7.169857E-3	-4.999034E-3	1.071296E-3	3.868773E-3	-6.894046E-3	-1.254136E-2	2.718468E-3	-3.541523E-4	-5.474098E-3	2.431526E-4	-7.554286E-3	-5.918162E-3	5.226708E-3	-1.076818E-2	-1.532618E-3	-9.349021E-3	-6.776752E-3	-3.405124E-3	-1.140575E-2	-6.048970E-3	-6.019578E-3	3.345247E-4	-1.233182E-2	-7.470330E-3	-9.190005E-3	-8.308235E-3	-7.481550E-3	-6.456943E-3	-1.015788E-2	-8.159144E-3	-7.284564E-3	5.994230E-4	-7.588060E-3	-6.370442E-3	-5.544599E-3	8.835432E-3	-2.315838E-3	9.584914E-4	-1.011566E-3	6.228375E-3	-3.926796E-3	1.528485E-3	-5.869137E-3	-1.303619E-3	-4.208755E-3	-7.182355E-3	1.983655E-3	-1.915913E-3	-1.148009E-2	-5.924055E-3	2.967397E-4	-2.048543E-4	1.257866E-3	6.944565E-3	-5.550208E-3	-3.393681E-3	-2.121760E-3	-7.057095E-3	7.122531E-4	9.690427E-3	-5.351613E-3	-4.882126E-3	-6.090290E-3	2.387668E-3	-1.662745E-3	-7.137902E-3	-1.076671E-2	-5.393106E-3	-5.488832E-3	-8.469690E-3	-4.530403E-3	-5.987432E-3	1.914928E-3	-6.029811E-3	-8.886582E-4	-6.439388E-3	2.137750E-3	1.009570E-3	-4.119453E-3	-1.012317E-3	-1.078103E-2	-3.970467E-3	-2.344544E-3	-4.987370E-3	-3.709890E-4	-2.534608E-3	-1.653266E-3	-6.842316E-3	-5.982184E-3	4.414739E-3	-3.446966E-3	-4.678115E-3	-4.449499E-3	-1.407736E-2	-1.494637E-3	-7.460915E-3	-1.045449E-2	-3.853930E-4	-4.716994E-3	-7.336351E-3	3.531416E-3	-9.080638E-3	-5.164336E-3	-2.207027E-3	-7.510245E-3	1.829744E-3	1.662845E-3	-9.211728E-3	4.415533E-4	2.096834E-3	-4.047534E-4	-4.293217E-3	1.596549E-3	-3.776237E-4	-3.830246E-3	1.032191E-3	-1.213062E-2	9.229619E-4	-1.054662E-2	1.695772E-4	-2.723615E-3	-5.067506E-3	7.683551E-3	-8.939943E-3	2.369518E-3	3.571430E-3	-1.627706E-3	6.114919E-3	-2.256999E-3	3.514583E-3	4.072191E-3	-1.120283E-2	-4.508975E-3	-6.070594E-3	5.866099E-4	-7.070562E-3	-4.205189E-3	-6.631043E-3	-7.631246E-3	5.335592E-4	-1.089345E-2	-9.866052E-3	-4.622457E-3	1.153502E-3	5.133660E-3	-7.895395E-3	-1.336874E-2	-3.997880E-3	7.570397E-4	-9.276762E-3	-6.102025E-3	-9.943837E-3	5.979719E-3	-5.890375E-3	-1.956581E-3	-1.208626E-2	-7.053156E-3	-5.210655E-3	-5.066356E-3	-4.130061E-3	-5.110352E-3	7.585928E-3	1.992393E-3
2.815020E+2	-3.037289E-3	-1.085921E-2	-4.184692E-3	-2.612944E-3	2.940196E-4	-2.508240E-3	3.195259E-4	-2.279722E-3	-1.576746E-3	-1.033360E-2	2.532177E-3	-1.688569E-3	-2.022049E-3	5.145259E-3	-6.043512E-3	-7.051401E-3	2.782743E-3	-2.447886E-3	2.038290E-3	-2.522968E-3	-8.531312E-5	7.534052E-3	6.528916E-5	7.003343E-3	9.385360E-4	1.539590E-3	3.550188E-3	-3.290718E-3	-4.720395E-3	1.691423E-3	4.947943E-4	9.444677E-4	1.954336E-3	-6.682205E-3	3.530807E-3	8.894781E-3	-8.665115E-4	-3.604155E-3	7.953972E-3	1.467473E-3	-5.308070E-3	-2.621722E-3	-6.198150E-3	-8.934619E-3	5.068469E-3	-1.164773E-3	-4.240552E-3	-4.788135E-3	-5.696090E-3	-5.007885E-3	-7.795787E-3	4.834334E-3	-6.837274E-3	6.992498E-3	-2.317635E-3	-4.926558E-3	-2.010766E-3	-6.454121E-3	-2.821150E-3	4.596109E-3	-1.687600E-3	3.355618E-3	-7.895527E-3	-3.353232E-3	1.077203E-3	2.816630E-3	-2.183584E-4	1.512096E-3	-1.384550E-3	1.344254E-3	-1.626594E-3	1.771809E-3	9.832950E-5	-3.369202E-4	-1.830022E-3	6.847583E-3	-6.166326E-3	-7.611388E-3	-2.191085E-3	-2.952147E-4	-6.834290E-3	7.231052E-3	-6.194422E-3	2.055092E-3	4.329058E-3	-4.493527E-3	6.468132E-3	-5.185605E-3	1.888494E-3	-5.500109E-3	5.081520E-4	2.677903E-3	-2.999076E-3	-6.332123E-3	9.669479E-3	3.914991E-3	1.003859E-3	3.063754E-3	-2.414822E-3	8.871476E-3	6.664672E-3	3.759347E-3	-3.845742E-3	-4.358123E-3	-1.853337E-3	2.233762E-3	-6.691276E-3	-9.174737E-3	-2.033951E-3	6.761102E-3	1.482957E-3	-6.649250E-3	-2.792703E-3	4.988775E-3	1.364680E-2	-7.303784E-3	-1.942153E-3	-1.148325E-3	-7.382583E-3	-1.675430E-3	-4.565821E-3	2.607428E-3	2.325925E-3	2.172260E-3	-8.419236E-4	-3.783765E-4	5.945596E-4	-7.955453E-3	-3.788925E-3	-6.240143E-3	4.673113E-4	9.272650E-3	-8.024995E-4	-5.749957E-3	9.816915E-3	4.130659E-3	-1.642177E-3	4.648733E-3	-3.480403E-4	8.737585E-3	8.027277E-3	1.103330E-2	-9.067498E-3	2.218700E-3	-3.214977E-3	5.027212E-3	-7.245134E-3	-1.072398E-2	5.756109E-3	1.165808E-2	4.685336E-3	-7.157546E-3	-7.885637E-3	3.394053E-3	1.638809E-3	7.349953E-3	-5.264785E-3	4.466845E-3	-9.036954E-3	1.006245E-2	-1.428609E-2	1.032301E-4	-8.354551E-3	7.916499E-3	1.075963E-2	-4.089511E-3
2.820030E+2	-2.326553E-4	-6.377034E-3	4.029174E-3	-5.972809E-4	-3.186411E-3	-2.078813E-3	8.299213E-5	1.378831E-3	4.641943E-4	3.034533E-3	1.228177E-2	9.107114E-3	4.771439E-3	8.712777E-4	2.512101E-3	-6.003772E-3	7.090065E-3	-6.671664E-3	-2.582390E-3	-6.332234E-4	5.943606E-3	3.537739E-3	3.632343E-3	8.747676E-4	5.214434E-3	2.032643E-3	-6.502766E-4	1.781384E-4	4.658005E-3	8.123019E-3	9.057853E-4	1.200682E-2	-3.534536E-3	6.418515E-3	7.113142E-3	6.243461E-3	-4.413275E-4	3.764017E-3	1.948983E-4	-5.190374E-4	-4.117051E-3	-5.190116E-3	-1.455458E-3	9.208506E-3	-2.374843E-4	2.029884E-3	5.340766E-3	-3.053393E-3	6.084500E-3	-7.620299E-4	8.573041E-3	-3.300509E-3	1.068525E-2	2.043817E-3	1.432308E-3	4.709836E-3	6.389555E-3	2.423205E-3	3.387808E-3	1.660516E-3	-9.196827E-3	1.719017E-3	9.363175E-4	4.250882E-3	1.582240E-2	1.325255E-2	2.474364E-3	-7.185461E-3	-6.834479E-3	6.636388E-3	3.027873E-3	8.338679E-4	4.726196E-3	8.904123E-3	3.962676E-3	-2.895196E-3	6.840913E-5	5.340893E-3	7.835011E-3	-9.736083E-3	5.224668E-3	1.806289E-2	2.969095E-3	6.304054E-3	-7.767388E-4	-2.716186E-3	5.705819E-3	5.271736E-3	6.311830E-3	-2.795752E-3	2.696588E-4	4.002062E-3	6.249518E-3	5.272262E-3	-4.077721E-3	5.842826E-3	7.956324E-3	-7.512071E-3	3.271097E-3	-1.522562E-3	8.764965E-3	2.137121E-3	-1.416758E-3	8.274043E-3	9.411050E-3	2.269347E-4	-2.124686E-3	8.163997E-3	-5.313910E-3	-9.336065E-3	1.157432E-2	6.537167E-3	-5.670920E-6	-6.487293E-3	2.364121E-3	7.806219E-3	-1.484582E-3	1.465612E-3	1.150070E-2	1.340821E-3	1.596256E-2	1.367554E-2	3.456214E-3	1.065988E-2	1.295140E-2	-7.815355E-3	1.400326E-3	-9.664385E-3	5.391959E-3	4.723577E-3	4.615023E-3	3.202469E-3	3.885120E-3	5.550775E-4	9.873574E-3	4.066419E-3	7.319853E-3	-4.043362E-3	-1.163322E-3	3.277337E-3	8.627283E-3	-9.447820E-3	4.223189E-3	8.365815E-3	7.137774E-3	4.752521E-3	1.430109E-2	9.022972E-3	5.507694E-3	5.029142E-3	-7.793701E-3	9.714638E-3	1.319380E-2	9.182922E-3	-1.844649E-3	3.239092E-3	-4.059290E-3	1.093124E-2	8.175860E-3	4.965523E-4	9.398217E-3	1.358062E-3	-7.777817E-4	-4.811934E-3	-7.246596E-3	8.363583E-3
2.825040E+2	1.099090E-2	6.828703E-3	2.350214E-2	3.419943E-3	1.173872E-2	4.819766E-3	-4.017271E-3	2.969779E-3	1.085074E-2	1.495654E-3	4.270173E-3	3.514683E-3	1.043683E-2	5.648750E-3	1.826497E-2	9.624267E-3	7.842395E-3	8.705855E-3	1.486585E-2	1.193014E-2	3.139821E-3	1.508553E-2	2.983340E-3	6.037594E-3	6.780093E-3	1.192228E-2	8.595844E-3	1.837508E-2	1.887730E-2	3.416774E-3	1.373182E-2	1.336305E-3	8.316284E-3	1.942376E-3	1.019830E-2	7.029806E-3	1.447732E-2	1.000271E-2	-3.286634E-3	4.227183E-3	1.277091E-2	1.334643E-2	1.602152E-2	4.341818E-3	5.556132E-3	4.795118E-3	1.100098E-2	4.358212E-3	3.630271E-3	2.219170E-2	2.303448E-2	8.583099E-3	1.294362E-2	5.472815E-3	6.062727E-3	7.683450E-3	9.028975E-3	2.476873E-2	7.722940E-3	3.386587E-3	7.519021E-3	-5.371201E-3	7.262693E-3	-7.069966E-5	-1.946223E-3	5.444779E-3	7.576755E-3	1.447751E-2	3.604993E-3	1.968930E-2	1.419549E-2	6.766885E-3	7.868871E-3	-2.774939E-3	3.217701E-3	2.225233E-3	8.110628E-3	7.545145E-3	-9.863685E-5	7.811273E-3	1.296442E-2	4.765981E-3	3.648101E-3	2.210317E-2	2.745879E-3	8.987880E-3	1.927844E-2	7.763614E-3	-2.238516E-3	2.063135E-2	3.098635E-3	3.201137E-3	8.441806E-3	1.573952E-2	9.544974E-3	4.421105E-3	1.198618E-2	1.988566E-3	4.026519E-3	1.466547E-2	5.071322E-3	3.589003E-3	1.723072E-2	-1.402698E-3	-5.172184E-4	1.905580E-3	1.688236E-2	1.068419E-2	1.266800E-2	1.258882E-2	1.019581E-2	7.249845E-3	7.986444E-3	7.075037E-4	-5.377774E-4	6.182162E-3	8.595716E-3	1.214784E-2	-8.454043E-4	9.016839E-3	8.244044E-3	6.942852E-3	8.843633E-3	2.954671E-3	1.890105E-3	9.572930E-3	2.168993E-3	1.980223E-2	3.938551E-3	1.225386E-2	3.118136E-3	6.678043E-3	1.091195E-2	1.232202E-2	1.563672E-3	6.701297E-3	6.575960E-3	2.388846E-3	6.010984E-3	4.320243E-3	4.902434E-3	7.494686E-3	8.849300E-3	1.557721E-2	9.432038E-3	-1.093071E-2	1.006196E-2	9.224925E-3	1.715098E-2	9.432961E-3	1.636481E-2	9.235178E-3	1.247222E-2	2.427193E-4	3.455584E-3	8.148404E-3	7.510485E-3	5.059069E-3	1.400438E-2	1.730919E-2	7.151154E-3	3.679932E-3	1.211247E-2	1.120953E-2	6.287236E-3	2.399141E-3
2.830060E+2	1.368694E-2	-1.397560E-3	2.170906E-2	2.693641E-3	5.637337E-3	1.073247E-2	4.422404E-3	1.216023E-2	1.115073E-2	1.495183E-2	2.154654E-2	1.667804E-2	1.656367E-2	1.011262E-2	3.403573E-3	1.138490E-2	2.061463E-2	2.070498E-2	9.364079E-3	1.454510E-2	1.404073E-2	5.720879E-3	1.961925E-3	3.041535E-2	1.173598E-2	1.096496E-2	2.445752E-2	2.046205E-2	1.175687E-2	7.032737E-3	-3.949552E-4	8.371109E-3	1.159312E-2	1.432369E-2	1.689160E-2	2.030637E-2	1.633635E-2	1.459114E-2	3.247154E-3	1.240455E-2	1.155983E-2	1.297635E-2	5.304441E-3	2.048204E-3	1.245459E-2	2.914264E-2	1.278064E-2	1.082212E-2	8.725454E-3	2.511168E-2	7.473536E-3	1.615073E-2	1.733718E-2	1.287500E-2	1.447640E-2	4.932479E-3	2.099167E-2	1.199437E-2	2.349881E-2	1.725074E-3	1.996421E-2	1.343870E-2	1.045401E-2	1.471104E-2	2.064683E-2	5.735758E-3	1.612384E-2	7.966282E-3	9.219901E-3	1.816222E-2	1.467349E-2	2.010305E-2	9.077004E-3	2.340678E-2	6.542828E-3	1.384869E-2	1.359151E-2	5.639557E-3	7.294391E-3	8.092570E-3	1.498222E-2	4.278492E-3	1.494020E-2	1.969817E-2	2.413550E-2	1.774747E-2	1.233186E-2	1.395987E-2	1.204556E-2	1.890725E-2	2.424800E-2	1.795195E-2	2.785172E-3	9.906478E-3	7.709880E-3	1.335134E-2	2.468158E-2	1.021349E-2	9.627668E-3	2.835545E-3	2.107185E-2	1.125364E-2	1.027853E-2	8.518677E-3	3.823469E-3	1.404563E-2	2.858983E-2	1.094842E-2	1.154084E-2	1.214123E-2	1.622152E-2	7.587626E-3	7.303937E-3	1.790953E-2	7.736516E-3	1.134018E-2	2.432921E-2	2.271246E-2	9.126067E-3	3.019239E-3	1.877189E-2	3.476430E-3	1.228332E-2	5.692930E-3	1.717238E-2	1.884546E-2	3.101467E-3	9.869581E-3	1.903869E-2	1.415833E-2	1.845056E-2	2.325844E-2	7.025115E-3	2.015280E-2	2.052782E-2	1.442215E-2	6.833634E-3	2.146653E-2	4.847437E-3	2.064750E-2	4.388527E-3	8.565576E-3	1.516436E-2	4.725200E-3	8.195651E-3	2.429837E-2	9.182067E-3	4.931037E-3	1.045953E-2	1.352314E-2	1.358850E-2	1.920740E-2	6.603451E-3	5.021821E-3	8.090939E-3	1.246674E-2	7.015957E-3	1.516355E-2	1.019005E-2	1.782919E-2	1.822131E-2	9.358065E-3	1.639665E-2	2.602406E-2	2.798014E-2	3.677556E-4
2.835020E+2	1.990421E-2	3.662663E-2	1.908674E-2	1.798465E-2	8.338627E-3	9.751445E-3	8.280090E-3	5.070976E-3	9.852529E-3	1.549036E-2	1.967592E-2	1.722693E-2	2.671861E-2	2.266982E-2	1.489620E-2	1.825359E-2	3.160165E-2	1.160530E-2	1.201903E-2	1.887933E-2	2.913535E-2	1.809440E-2	2.913648E-2	1.666078E-2	1.786268E-2	2.330529E-2	1.966402E-2	6.831779E-3	2.001790E-2	1.085106E-2	1.019529E-2	1.371691E-2	1.894235E-2	1.253241E-2	6.062371E-3	3.174979E-2	1.534847E-2	1.869367E-2	8.653666E-3	2.103703E-2	1.918576E-2	1.883211E-2	1.317222E-2	5.613501E-3	1.894418E-2	1.331634E-2	8.122939E-3	2.475968E-2	1.323149E-2	1.221854E-2	1.541921E-2	2.490462E-2	2.431323E-2	2.276136E-2	1.018401E-2	1.871528E-2	1.868521E-2	2.364397E-2	1.962999E-2	2.004089E-2	1.136528E-2	1.905390E-2	1.307762E-2	2.342495E-2	1.644943E-2	1.932963E-2	2.588257E-2	2.122201E-2	2.992706E-2	1.372922E-2	2.978845E-2	1.682627E-2	1.368381E-2	2.785338E-3	1.391059E-2	1.578000E-3	2.470691E-2	2.215044E-2	2.160788E-2	2.117522E-2	1.793857E-2	1.595042E-2	3.590843E-2	2.698939E-2	1.525130E-2	2.765185E-2	8.650152E-3	3.180685E-2	2.050562E-2	2.109429E-2	1.386525E-2	6.927711E-3	1.604782E-2	1.842440E-2	3.054359E-2	3.163119E-2	1.603799E-2	8.916229E-3	1.080570E-2	1.722170E-2	1.015147E-2	1.399290E-2	2.044080E-2	1.723626E-2	1.012136E-2	1.794925E-2	1.643668E-2	6.863159E-3	1.118566E-2	2.514320E-2	2.618354E-2	2.278012E-2	1.831951E-2	2.673693E-2	2.552407E-2	2.520601E-2	1.224797E-2	1.520765E-2	1.743264E-2	2.085106E-2	2.578208E-2	1.786353E-2	1.994471E-2	2.824252E-2	7.022056E-3	2.177174E-2	2.181113E-2	1.031364E-2	1.966076E-2	2.485241E-2	9.506591E-3	1.764746E-2	2.643767E-2	1.816676E-2	2.199528E-2	2.509500E-2	1.600272E-2	1.543825E-2	1.219516E-2	1.920725E-2	1.874769E-2	1.930116E-2	1.724738E-2	2.314838E-2	2.285528E-2	2.060937E-2	7.497510E-3	2.262780E-2	2.535469E-2	2.392141E-2	2.346910E-2	5.664316E-3	1.732491E-2	1.710583E-2	1.876335E-2	2.601282E-2	2.503975E-2	2.421959E-2	9.809161E-3	1.765657E-2	1.331644E-2	1.533806E-2	1.027191E-2	2.758969E-2	2.244283E-2	7.670352E-3
2.840030E+2	5.652507E-2	3.326794E-2	5.975965E-2	5.046389E-2	5.326210E-2	5.457054E-2	4.891595E-2	4.319526E-2	6.501756E-2	4.392546E-2	4.878965E-2	4.934958E-2	5.865755E-2	5.196616E-2	5.802455E-2	6.550527E-2	4.155245E-2	4.491240E-2	4.909818E-2	5.117486E-2	6.373979E-2	7.232215E-2	5.096266E-2	5.523637E-2	4.832331E-2	3.934059E-2	6.426091E-2	6.099797E-2	5.277585E-2	5.359074E-2	5.031539E-2	4.929483E-2	4.641046E-2	4.829112E-2	4.969407E-2	4.212655E-2	5.394757E-2	6.847802E-2	6.336663E-2	6.161175E-2	5.930911E-2	4.328752E-2	5.810475E-2	5.272211E-2	4.601034E-2	5.842306E-2	5.838933E-2	5.337184E-2	5.103891E-2	6.429017E-2	5.323583E-2	5.628376E-2	5.656651E-2	4.809160E-2	4.963093E-2	4.475114E-2	6.368451E-2	5.820177E-2	6.671830E-2	4.592696E-2	4.674187E-2	4.397528E-2	5.282697E-2	4.896401E-2	6.721965E-2	6.085530E-2	5.114119E-2	5.481785E-2	4.129292E-2	4.740535E-2	7.039469E-2	4.472153E-2	5.994840E-2	5.619861E-2	4.003738E-2	5.275259E-2	5.839476E-2	5.057984E-2	5.020527E-2	5.866425E-2	5.263090E-2	3.659551E-2	5.800102E-2	7.023945E-2	5.415899E-2	4.255755E-2	4.482345E-2	4.587589E-2	5.438676E-2	5.582772E-2	5.228580E-2	6.324786E-2	3.629304E-2	5.058817E-2	5.764118E-2	5.012070E-2	3.819150E-2	4.831444E-2	6.071993E-2	4.878875E-2	6.645038E-2	5.575657E-2	5.398505E-2	4.884751E-2	5.922320E-2	5.011438E-2	5.228509E-2	7.033994E-2	5.579410E-2	5.179187E-2	6.192312E-2	4.030340E-2	6.074085E-2	6.345411E-2	5.747074E-2	6.056106E-2	4.510678E-2	4.932523E-2	5.487429E-2	5.110815E-2	4.641257E-2	6.504917E-2	3.957659E-2	5.926372E-2	5.719838E-2	6.368634E-2	3.654650E-2	5.026138E-2	4.687107E-2	4.258416E-2	5.144319E-2	4.262742E-2	6.186555E-2	5.107960E-2	5.188925E-2	6.771912E-2	6.030022E-2	3.888522E-2	5.248646E-2	3.866139E-2	5.067608E-2	5.628165E-2	5.148500E-2	4.590652E-2	4.561805E-2	5.480475E-2	3.398322E-2	5.920267E-2	6.671648E-2	5.746464E-2	3.686310E-2	4.738647E-2	6.553347E-2	5.231273E-2	5.424752E-2	4.784730E-2	6.047519E-2	4.645137E-2	3.820364E-2	4.714656E-2	4.129057E-2	4.957645E-2	6.413958E-2	4.927931E-2	6.193258E-2	7.309231E-2
2.841030E+2	5.167984E-2	7.696606E-2	5.509847E-2	6.531381E-2	5.452077E-2	6.976898E-2	7.787235E-2	7.099952E-2	4.677363E-2	8.123375E-2	7.219887E-2	5.880827E-2	6.448295E-2	6.553662E-2	5.842548E-2	5.675908E-2	6.336198E-2	8.650890E-2	6.741173E-2	5.861678E-2	6.940114E-2	7.276800E-2	5.271105E-2	6.672024E-2	6.383469E-2	4.726025E-2	6.967089E-2	5.240894E-2	8.207135E-2	8.131469E-2	6.902409E-2	5.609607E-2	5.635744E-2	7.617713E-2	6.171442E-2	5.960446E-2	7.339292E-2	6.814945E-2	6.077140E-2	7.309804E-2	7.272799E-2	6.349582E-2	7.097273E-2	6.000682E-2	5.490317E-2	5.804583E-2	5.962980E-2	6.247056E-2	6.004536E-2	5.316673E-2	4.887258E-2	6.516598E-2	6.925429E-2	6.021335E-2	6.274083E-2	4.911782E-2	6.308674E-2	6.928170E-2	7.796536E-2	7.060995E-2	6.756845E-2	6.026200E-2	7.203501E-2	6.165571E-2	6.373928E-2	6.867546E-2	5.605171E-2	7.396648E-2	6.245452E-2	5.289110E-2	6.630284E-2	7.555859E-2	6.450069E-2	6.439306E-2	5.872799E-2	8.853820E-2	6.260566E-2	7.151359E-2	6.322283E-2	7.382412E-2	5.963740E-2	6.783146E-2	5.043361E-2	7.535638E-2	5.860636E-2	6.438189E-2	5.618037E-2	7.580256E-2	7.216123E-2	7.403034E-2	4.807441E-2	7.574254E-2	5.467009E-2	6.816933E-2	6.106921E-2	5.439241E-2	7.403593E-2	5.968897E-2	7.155654E-2	6.292135E-2	5.099140E-2	7.481009E-2	6.078994E-2	6.472394E-2	7.733152E-2	6.039829E-2	6.911384E-2	5.261584E-2	6.017361E-2	4.968886E-2	6.008884E-2	7.561643E-2	6.454111E-2	6.469320E-2	7.033086E-2	5.833228E-2	6.321219E-2	6.190270E-2	5.966336E-2	7.782673E-2	6.493215E-2	6.464736E-2	6.715724E-2	5.137375E-2	5.758364E-2	6.564839E-2	6.991115E-2	6.565430E-2	6.597594E-2	6.554390E-2	5.001255E-2	7.019021E-2	6.151878E-2	6.266386E-2	7.985567E-2	6.463126E-2	6.730178E-2	6.518509E-2	6.560098E-2	7.324463E-2	6.469960E-2	7.634864E-2	7.455053E-2	7.677397E-2	7.785673E-2	6.579935E-2	6.853251E-2	6.429785E-2	5.555228E-2	6.799704E-2	9.216693E-2	7.147254E-2	6.767400E-2	6.474782E-2	7.360611E-2	7.515482E-2	7.164007E-2	7.934539E-2	6.074499E-2	7.171556E-2	7.880921E-2	7.215644E-2	6.450935E-2	5.390895E-2	6.958554E-2	6.389751E-2
2.842030E+2	6.920091E-2	6.663077E-2	7.224099E-2	6.444322E-2	7.372150E-2	7.254563E-2	6.885246E-2	5.934442E-2	6.504135E-2	8.275111E-2	5.943702E-2	5.001874E-2	6.986728E-2	7.273219E-2	7.333562E-2	6.875582E-2	7.479488E-2	7.541167E-2	6.473664E-2	8.319591E-2	7.395560E-2	7.132180E-2	8.876030E-2	9.802474E-2	6.043793E-2	6.465112E-2	7.111169E-2	6.846395E-2	7.435266E-2	9.604382E-2	8.134437E-2	7.249254E-2	8.266994E-2	6.056539E-2	8.003385E-2	6.061336E-2	7.865163E-2	7.171913E-2	6.659005E-2	8.294872E-2	6.646932E-2	6.241609E-2	1.071997E-1	6.579385E-2	7.345080E-2	7.585043E-2	7.853608E-2	7.371635E-2	7.972740E-2	5.418499E-2	6.859904E-2	8.006209E-2	9.559608E-2	8.080950E-2	7.677704E-2	6.148163E-2	7.381292E-2	7.301250E-2	7.138649E-2	8.603067E-2	7.826695E-2	5.903990E-2	8.845775E-2	8.688077E-2	7.131819E-2	7.052212E-2	7.449842E-2	7.515598E-2	8.852366E-2	5.763021E-2	8.869251E-2	6.843348E-2	7.602735E-2	8.220231E-2	8.067402E-2	5.325237E-2	6.844595E-2	6.636144E-2	6.500115E-2	7.840370E-2	8.180613E-2	8.480216E-2	8.360739E-2	7.576291E-2	8.457181E-2	8.047845E-2	6.983758E-2	6.832802E-2	7.240718E-2	9.254631E-2	7.595590E-2	8.655012E-2	7.086108E-2	8.305612E-2	8.479316E-2	6.859110E-2	7.967610E-2	6.251129E-2	6.288322E-2	6.405843E-2	7.416094E-2	8.005023E-2	7.350146E-2	6.590761E-2	8.138677E-2	6.977324E-2	7.989275E-2	7.197363E-2	8.573203E-2	6.463207E-2	8.305690E-2	7.155446E-2	9.170670E-2	7.191967E-2	6.920233E-2	8.224882E-2	7.688202E-2	7.852326E-2	6.454218E-2	7.916139E-2	6.364688E-2	6.501671E-2	7.674672E-2	7.934539E-2	8.197365E-2	8.104051E-2	9.123406E-2	6.768219E-2	7.986508E-2	7.246756E-2	8.153752E-2	6.867325E-2	5.128363E-2	7.947988E-2	6.292434E-2	6.938829E-2	6.686738E-2	6.948126E-2	7.733577E-2	9.376459E-2	7.160680E-2	6.545299E-2	8.221825E-2	7.212476E-2	7.186084E-2	6.521555E-2	6.229284E-2	7.027803E-2	7.878906E-2	8.425311E-2	7.712774E-2	7.957574E-2	9.417932E-2	7.491191E-2	8.795726E-2	9.863601E-2	8.474031E-2	7.109587E-2	8.525541E-2	7.538186E-2	7.948620E-2	7.845804E-2	5.801156E-2	1.027622E-1	8.391971E-2	9.442552E-2
2.843040E+2	9.122814E-2	1.002028E-1	6.717218E-2	7.027218E-2	7.466499E-2	7.055063E-2	8.567026E-2	7.198119E-2	5.693683E-2	6.449759E-2	8.209452E-2	8.708819E-2	7.712015E-2	8.131462E-2	7.164686E-2	9.168651E-2	7.915365E-2	8.399624E-2	8.648337E-2	7.847953E-2	7.511183E-2	7.022416E-2	8.794182E-2	7.597562E-2	7.351544E-2	7.181525E-2	6.558659E-2	8.966183E-2	9.221094E-2	7.073019E-2	7.065752E-2	6.770525E-2	8.223265E-2	1.003361E-1	7.240187E-2	6.164475E-2	6.980960E-2	7.653600E-2	7.218307E-2	1.035670E-1	9.001194E-2	6.741674E-2	7.826937E-2	8.074874E-2	7.020423E-2	8.852692E-2	8.064832E-2	9.002668E-2	7.217333E-2	5.997369E-2	7.528349E-2	9.836573E-2	9.204487E-2	9.886574E-2	8.311148E-2	7.393281E-2	7.994705E-2	8.344217E-2	7.647396E-2	6.460024E-2	9.647553E-2	9.351204E-2	8.363156E-2	8.187711E-2	7.811072E-2	7.234412E-2	8.125752E-2	8.602673E-2	7.911611E-2	7.211663E-2	1.000825E-1	8.009649E-2	7.359259E-2	7.377163E-2	7.533631E-2	7.580937E-2	6.614913E-2	6.733520E-2	8.232403E-2	8.623401E-2	6.164683E-2	7.232172E-2	8.790631E-2	9.468320E-2	7.405125E-2	7.559080E-2	7.245251E-2	8.619034E-2	7.081007E-2	7.390450E-2	8.017370E-2	7.901966E-2	7.756446E-2	8.360377E-2	7.575733E-2	6.407823E-2	7.005525E-2	8.431079E-2	8.791689E-2	7.613848E-2	9.460790E-2	8.284632E-2	7.240921E-2	7.652980E-2	7.251866E-2	8.366587E-2	7.622256E-2	6.731120E-2	9.196339E-2	7.715079E-2	8.047372E-2	7.341478E-2	8.144497E-2	8.342472E-2	9.665356E-2	9.673406E-2	7.480342E-2	8.909178E-2	7.915444E-2	8.024864E-2	7.135466E-2	7.753147E-2	9.058993E-2	8.227797E-2	7.998032E-2	8.625983E-2	8.234531E-2	7.437955E-2	8.586836E-2	7.928877E-2	7.717227E-2	1.077835E-1	8.608835E-2	8.939884E-2	7.926195E-2	7.930190E-2	7.545056E-2	8.935607E-2	7.444214E-2	8.512780E-2	8.503852E-2	1.007079E-1	6.898169E-2	7.486921E-2	7.540966E-2	7.239975E-2	8.011404E-2	7.599342E-2	7.815497E-2	7.188033E-2	7.139962E-2	9.982680E-2	8.792897E-2	7.602043E-2	8.222399E-2	7.320258E-2	9.023155E-2	9.907949E-2	7.972933E-2	8.853463E-2	7.405313E-2	6.856628E-2	8.949981E-2	5.069445E-2	9.167096E-2	8.347302E-2
2.844010E+2	8.209298E-2	1.062115E-1	7.804005E-2	7.835325E-2	8.825113E-2	8.855113E-2	1.109843E-1	8.488798E-2	9.133265E-2	9.961984E-2	9.022365E-2	9.570333E-2	1.037694E-1	1.028442E-1	8.948296E-2	7.525543E-2	8.648712E-2	1.056947E-1	1.054163E-1	7.672927E-2	9.727243E-2	1.039600E-1	8.924919E-2	8.819621E-2	1.043040E-1	7.853458E-2	1.032461E-1	9.612980E-2	1.001329E-1	9.766596E-2	8.526933E-2	8.422822E-2	1.103856E-1	9.896743E-2	7.383908E-2	1.028186E-1	1.041774E-1	8.571298E-2	9.667683E-2	1.143679E-1	1.096817E-1	9.657335E-2	8.445689E-2	9.831897E-2	1.096661E-1	1.096436E-1	1.060649E-1	9.331010E-2	9.273112E-2	9.186779E-2	9.605545E-2	1.069334E-1	7.771878E-2	1.020248E-1	1.092654E-1	8.318135E-2	9.623967E-2	1.003274E-1	9.556098E-2	9.850849E-2	8.536682E-2	1.035177E-1	8.532219E-2	8.626120E-2	9.309386E-2	8.638473E-2	1.120159E-1	8.992099E-2	1.088940E-1	1.310582E-1	8.853140E-2	1.042500E-1	9.519475E-2	9.697725E-2	9.432459E-2	1.070319E-1	1.065894E-1	9.982129E-2	7.899194E-2	1.204761E-1	8.971389E-2	9.214336E-2	1.003621E-1	1.095955E-1	8.352393E-2	9.445559E-2	9.782025E-2	1.292305E-1	9.339340E-2	1.096074E-1	9.179019E-2	8.634787E-2	1.052056E-1	9.421081E-2	9.221507E-2	9.480749E-2	1.100711E-1	8.759885E-2	8.047657E-2	1.127467E-1	1.012291E-1	9.144743E-2	9.136545E-2	9.318335E-2	8.961115E-2	8.158520E-2	8.167375E-2	1.042572E-1	9.091924E-2	9.276703E-2	1.016640E-1	9.506792E-2	9.797578E-2	1.078627E-1	7.720359E-2	1.053689E-1	1.174694E-1	1.171456E-1	1.054580E-1	1.062173E-1	1.120903E-1	9.477198E-2	1.106988E-1	9.990535E-2	9.281162E-2	1.028060E-1	1.058701E-1	1.050264E-1	9.769863E-2	1.072777E-1	1.014900E-1	7.673960E-2	9.206228E-2	1.014261E-1	9.117795E-2	8.444109E-2	1.083234E-1	9.696744E-2	9.057403E-2	9.757573E-2	9.965385E-2	1.043635E-1	8.888271E-2	1.033691E-1	1.096225E-1	9.763210E-2	9.519072E-2	9.715200E-2	1.121624E-1	8.209401E-2	8.570917E-2	9.083931E-2	1.054745E-1	8.241363E-2	1.069881E-1	7.817533E-2	8.404737E-2	1.118590E-1	1.031575E-1	1.123675E-1	1.153867E-1	8.694470E-2	1.124852E-1	1.253687E-1	8.956292E-2	7.002522E-2
2.845040E+2	1.663492E-1	1.657048E-1	1.961450E-1	1.858643E-1	1.903185E-1	1.889584E-1	1.673397E-1	1.681860E-1	2.048803E-1	1.659027E-1	1.644755E-1	1.667329E-1	1.823882E-1	2.128788E-1	1.764612E-1	1.821886E-1	1.862375E-1	1.935363E-1	1.822186E-1	2.168789E-1	1.885015E-1	1.840408E-1	1.637049E-1	1.847436E-1	1.704792E-1	1.711511E-1	1.821859E-1	1.979113E-1	1.971354E-1	1.580540E-1	1.794429E-1	2.015761E-1	1.776055E-1	2.085710E-1	1.669587E-1	1.601811E-1	1.970566E-1	1.874398E-1	1.797749E-1	1.710081E-1	2.052662E-1	1.799270E-1	1.897787E-1	1.672357E-1	2.000878E-1	1.808664E-1	1.830092E-1	1.732429E-1	2.147205E-1	2.006793E-1	1.845278E-1	1.772066E-1	1.720089E-1	1.913274E-1	1.647949E-1	1.739653E-1	2.222830E-1	1.818207E-1	1.801464E-1	1.940237E-1	1.966225E-1	1.848629E-1	2.070978E-1	1.680815E-1	1.988749E-1	1.784209E-1	1.661944E-1	1.874759E-1	1.767282E-1	1.842417E-1	1.860599E-1	1.689233E-1	2.077513E-1	1.790291E-1	1.807521E-1	1.932475E-1	1.901101E-1	2.018388E-1	1.810216E-1	2.116395E-1	1.956888E-1	1.599533E-1	1.859186E-1	1.869532E-1	1.795082E-1	1.751261E-1	2.054378E-1	1.659957E-1	1.816924E-1	1.864105E-1	2.009303E-1	1.854864E-1	1.788207E-1	1.983845E-1	1.936642E-1	1.884119E-1	2.020865E-1	1.818273E-1	1.816160E-1	1.807585E-1	1.920365E-1	1.706472E-1	1.850521E-1	2.058775E-1	1.859650E-1	1.875632E-1	1.754155E-1	1.777628E-1	1.871742E-1	1.969886E-1	1.899071E-1	1.965274E-1	1.792400E-1	1.923332E-1	2.031695E-1	1.791048E-1	1.875886E-1	1.792490E-1	1.561866E-1	1.736081E-1	1.935973E-1	1.938205E-1	1.691407E-1	1.807531E-1	1.703492E-1	2.060373E-1	1.796261E-1	2.123314E-1	1.975240E-1	1.819153E-1	1.804060E-1	1.638172E-1	1.803216E-1	1.772213E-1	1.850975E-1	1.982628E-1	2.086040E-1	1.888560E-1	2.125430E-1	1.801652E-1	1.771292E-1	1.923905E-1	1.845521E-1	1.798333E-1	2.004368E-1	1.929933E-1	1.716820E-1	2.000537E-1	1.805439E-1	1.710178E-1	2.103824E-1	1.899938E-1	1.850483E-1	1.848895E-1	2.023534E-1	1.931343E-1	1.807887E-1	1.876991E-1	1.935934E-1	1.910950E-1	1.843817E-1	1.866389E-1	1.926896E-1	1.857269E-1	1.714550E-1	2.039106E-1
2.846040E+2	3.301901E-1	3.362020E-1	3.270613E-1	3.712213E-1	3.340862E-1	3.775897E-1	3.476080E-1	3.471444E-1	3.287595E-1	3.827988E-1	3.568390E-1	3.706224E-1	3.297806E-1	3.445683E-1	3.610876E-1	3.488378E-1	3.760138E-1	3.538755E-1	3.430639E-1	3.310096E-1	4.047119E-1	3.612138E-1	3.389731E-1	3.760029E-1	3.484840E-1	3.562168E-1	3.544597E-1	3.599811E-1	3.460163E-1	3.618921E-1	3.484215E-1	3.294916E-1	3.990310E-1	3.771292E-1	3.822357E-1	3.304137E-1	3.478534E-1	3.302605E-1	3.457466E-1	3.406772E-1	3.626512E-1	3.423722E-1	3.356452E-1	3.518706E-1	3.786034E-1	3.487107E-1	3.633323E-1	3.453101E-1	3.952469E-1	4.011446E-1	3.457392E-1	3.706315E-1	3.790460E-1	3.664077E-1	3.279296E-1	3.362381E-1	3.825950E-1	3.645831E-1	3.804180E-1	3.550421E-1	3.676743E-1	3.268257E-1	3.551809E-1	3.446814E-1	3.786114E-1	3.531902E-1	3.673262E-1	3.542962E-1	3.737935E-1	3.593042E-1	3.343721E-1	3.372792E-1	3.457007E-1	3.825818E-1	3.647402E-1	3.687086E-1	3.480400E-1	3.658772E-1	3.366042E-1	3.517039E-1	3.360979E-1	3.499495E-1	3.558846E-1	3.670104E-1	3.716585E-1	3.613627E-1	3.537231E-1	3.606633E-1	3.535912E-1	3.642423E-1	3.578458E-1	3.425480E-1	3.652713E-1	4.069655E-1	3.254110E-1	3.755715E-1	4.076543E-1	3.803484E-1	3.527894E-1	3.602302E-1	3.716915E-1	3.517289E-1	3.174779E-1	3.726153E-1	4.061291E-1	3.399500E-1	3.359558E-1	3.322590E-1	3.697198E-1	3.628355E-1	3.768213E-1	3.661686E-1	3.401121E-1	3.484721E-1	3.620516E-1	3.532206E-1	3.484247E-1	3.573275E-1	3.448560E-1	3.660792E-1	3.987621E-1	3.480575E-1	3.823332E-1	3.678738E-1	3.859990E-1	3.826534E-1	3.798543E-1	3.436843E-1	3.805656E-1	3.698307E-1	3.304097E-1	3.543654E-1	3.446784E-1	3.400951E-1	3.563577E-1	3.580008E-1	3.504617E-1	3.518561E-1	3.568185E-1	3.924716E-1	4.046623E-1	3.435960E-1	3.793387E-1	3.511138E-1	3.780100E-1	3.310108E-1	3.396946E-1	3.628273E-1	3.559556E-1	3.935184E-1	3.566609E-1	3.764173E-1	3.552385E-1	3.637308E-1	3.643548E-1	4.188921E-1	3.574633E-1	3.574172E-1	3.893710E-1	3.771342E-1	3.744466E-1	3.668805E-1	3.451310E-1	3.568618E-1	3.673612E-1	3.289349E-1
2.847030E+2	7.201602E-1	8.160196E-1	6.642450E-1	7.350467E-1	7.437395E-1	7.151849E-1	7.567663E-1	7.058902E-1	7.810850E-1	7.131768E-1	7.756894E-1	6.926060E-1	7.179885E-1	7.717922E-1	7.510182E-1	7.202500E-1	7.529045E-1	7.331659E-1	7.282138E-1	6.606614E-1	7.054564E-1	7.171621E-1	7.097344E-1	7.185359E-1	7.348530E-1	7.449645E-1	7.248651E-1	7.332024E-1	6.884420E-1	7.031852E-1	7.443782E-1	6.965911E-1	7.380082E-1	7.140710E-1	7.529519E-1	6.837460E-1	7.395153E-1	7.151106E-1	7.108522E-1	6.958220E-1	7.092474E-1	7.340362E-1	7.500091E-1	7.364483E-1	7.292702E-1	7.143780E-1	7.517397E-1	7.552493E-1	7.364025E-1	7.269326E-1	7.285439E-1	7.770101E-1	7.591622E-1	7.536414E-1	7.282374E-1	7.225184E-1	7.440987E-1	7.291313E-1	7.116557E-1	6.719297E-1	7.106579E-1	7.355877E-1	7.169361E-1	7.231037E-1	7.528612E-1	6.890085E-1	6.928030E-1	7.184857E-1	7.074501E-1	7.323620E-1	7.413089E-1	7.179622E-1	7.550276E-1	6.918929E-1	6.986396E-1	7.601197E-1	7.203021E-1	7.334029E-1	7.375969E-1	7.159507E-1	7.090549E-1	7.132483E-1	7.274227E-1	7.639208E-1	7.602938E-1	7.689625E-1	7.535417E-1	7.410858E-1	7.006791E-1	7.061726E-1	7.234062E-1	7.372955E-1	7.355371E-1	7.286218E-1	7.070372E-1	7.966389E-1	7.061826E-1	7.183616E-1	7.574853E-1	7.128949E-1	7.285903E-1	7.302135E-1	6.882255E-1	7.771742E-1	7.976388E-1	6.669023E-1	7.483527E-1	7.228712E-1	7.224385E-1	7.655645E-1	7.372198E-1	7.511395E-1	6.997152E-1	7.680048E-1	7.460201E-1	7.589746E-1	7.157459E-1	7.705980E-1	7.190005E-1	7.578332E-1	7.300300E-1	7.266590E-1	7.704875E-1	7.395576E-1	7.640858E-1	7.670496E-1	7.161197E-1	7.311069E-1	7.579933E-1	7.539906E-1	7.342525E-1	7.698175E-1	7.717599E-1	7.589150E-1	7.595752E-1	7.590715E-1	7.747714E-1	7.174026E-1	7.344611E-1	7.482673E-1	7.457303E-1	7.436346E-1	7.652153E-1	7.696357E-1	7.686579E-1	7.895210E-1	7.384473E-1	7.503875E-1	7.473408E-1	7.389483E-1	7.230958E-1	7.502495E-1	8.082381E-1	7.424534E-1	7.490655E-1	7.549047E-1	8.009299E-1	7.657869E-1	7.392128E-1	7.250013E-1	7.268207E-1	7.826134E-1	7.652575E-1	7.736355E-1	7.523691E-1	7.572202E-1
2.848050E+2	1.158220E+0	1.280122E+0	1.255871E+0	1.221552E+0	1.243509E+0	1.276080E+0	1.193576E+0	1.169677E+0	1.240814E+0	1.296477E+0	1.243344E+0	1.288028E+0	1.225475E+0	1.190734E+0	1.235679E+0	1.322870E+0	1.204705E+0	1.258312E+0	1.215206E+0	1.275165E+0	1.293021E+0	1.220931E+0	1.240319E+0	1.155151E+0	1.261363E+0	1.282911E+0	1.236341E+0	1.260382E+0	1.288941E+0	1.155499E+0	1.215019E+0	1.259535E+0	1.204001E+0	1.204068E+0	1.229441E+0	1.177922E+0	1.239617E+0	1.201697E+0	1.235778E+0	1.227222E+0	1.184372E+0	1.246592E+0	1.210560E+0	1.278790E+0	1.248045E+0	1.222808E+0	1.254535E+0	1.249754E+0	1.299418E+0	1.219174E+0	1.205458E+0	1.311931E+0	1.247296E+0	1.236556E+0	1.193728E+0	1.142963E+0	1.239990E+0	1.287644E+0	1.289478E+0	1.184235E+0	1.254471E+0	1.201492E+0	1.203914E+0	1.239645E+0	1.277617E+0	1.237352E+0	1.199104E+0	1.275754E+0	1.273073E+0	1.282363E+0	1.264904E+0	1.288109E+0	1.176229E+0	1.238630E+0	1.250309E+0	1.329405E+0	1.253128E+0	1.218055E+0	1.210679E+0	1.232701E+0	1.180311E+0	1.314595E+0	1.265021E+0	1.234456E+0	1.197371E+0	1.169425E+0	1.208563E+0	1.273375E+0	1.223516E+0	1.239760E+0	1.250451E+0	1.266222E+0	1.195477E+0	1.325265E+0	1.245820E+0	1.274897E+0	1.222836E+0	1.267996E+0	1.254240E+0	1.218537E+0	1.237185E+0	1.188198E+0	1.216310E+0	1.271977E+0	1.326418E+0	1.267982E+0	1.168303E+0	1.242638E+0	1.270355E+0	1.200551E+0	1.207220E+0	1.267679E+0	1.110658E+0	1.269830E+0	1.225999E+0	1.219938E+0	1.219736E+0	1.211925E+0	1.217795E+0	1.210155E+0	1.250951E+0	1.260558E+0	1.245327E+0	1.188766E+0	1.322558E+0	1.220727E+0	1.209453E+0	1.289265E+0	1.295553E+0	1.213394E+0	1.235939E+0	1.235113E+0	1.206376E+0	1.230248E+0	1.274834E+0	1.269709E+0	1.212114E+0	1.229216E+0	1.227249E+0	1.265440E+0	1.211750E+0	1.258016E+0	1.252541E+0	1.312781E+0	1.251591E+0	1.264622E+0	1.228605E+0	1.211917E+0	1.273013E+0	1.171036E+0	1.183439E+0	1.253702E+0	1.227754E+0	1.245776E+0	1.225716E+0	1.231280E+0	1.242546E+0	1.299407E+0	1.280059E+0	1.215597E+0	1.277287E+0	1.169346E+0	1.212324E+0	1.173897E+0	1.305193E+0	1.283038E+0
2.849040E+2	1.390494E+0	1.484170E+0	1.395156E+0	1.447403E+0	1.402248E+0	1.408638E+0	1.440869E+0	1.406110E+0	1.382297E+0	1.448692E+0	1.407451E+0	1.459941E+0	1.461788E+0	1.395657E+0	1.375114E+0	1.371063E+0	1.412436E+0	1.459534E+0	1.416376E+0	1.359339E+0	1.449982E+0	1.402759E+0	1.356772E+0	1.352270E+0	1.372123E+0	1.431477E+0	1.373252E+0	1.414322E+0	1.469795E+0	1.467399E+0	1.401693E+0	1.384983E+0	1.436723E+0	1.492688E+0	1.423623E+0	1.424748E+0	1.434117E+0	1.419857E+0	1.445750E+0	1.368356E+0	1.424270E+0	1.371681E+0	1.402065E+0	1.321595E+0	1.448662E+0	1.371377E+0	1.472022E+0	1.377452E+0	1.415629E+0	1.384405E+0	1.387175E+0	1.406236E+0	1.392515E+0	1.515137E+0	1.400450E+0	1.354129E+0	1.424471E+0	1.434594E+0	1.460174E+0	1.431149E+0	1.451426E+0	1.395111E+0	1.433133E+0	1.471206E+0	1.467643E+0	1.417252E+0	1.454788E+0	1.395913E+0	1.472564E+0	1.411710E+0	1.452161E+0	1.380389E+0	1.378205E+0	1.468188E+0	1.376880E+0	1.434024E+0	1.409785E+0	1.394954E+0	1.423333E+0	1.437266E+0	1.466126E+0	1.487008E+0	1.348695E+0	1.463134E+0	1.408839E+0	1.437268E+0	1.395945E+0	1.430463E+0	1.437134E+0	1.390008E+0	1.363557E+0	1.386896E+0	1.391066E+0	1.431393E+0	1.414202E+0	1.357394E+0	1.402267E+0	1.451928E+0	1.435333E+0	1.444318E+0	1.458069E+0	1.504134E+0	1.375236E+0	1.426523E+0	1.490122E+0	1.462592E+0	1.343907E+0	1.462419E+0	1.426962E+0	1.487958E+0	1.433551E+0	1.424329E+0	1.465272E+0	1.435025E+0	1.462957E+0	1.424144E+0	1.375682E+0	1.454617E+0	1.324964E+0	1.408324E+0	1.406525E+0	1.451716E+0	1.402172E+0	1.461970E+0	1.392029E+0	1.411239E+0	1.410524E+0	1.424695E+0	1.501147E+0	1.472419E+0	1.426276E+0	1.438574E+0	1.428027E+0	1.418932E+0	1.431474E+0	1.460402E+0	1.447199E+0	1.353906E+0	1.409168E+0	1.426404E+0	1.370121E+0	1.423547E+0	1.395801E+0	1.468631E+0	1.392274E+0	1.461211E+0	1.405551E+0	1.448356E+0	1.416560E+0	1.472287E+0	1.397750E+0	1.412560E+0	1.450924E+0	1.464243E+0	1.436759E+0	1.406933E+0	1.441751E+0	1.300290E+0	1.351254E+0	1.466190E+0	1.442504E+0	1.407506E+0	1.360358E+0	1.441827E+0	1.356948E+0	1.486703E+0
2.850030E+2	1.364661E+0	1.437117E+0	1.380518E+0	1.368505E+0	1.355748E+0	1.433746E+0	1.393550E+0	1.367024E+0	1.465661E+0	1.430742E+0	1.414751E+0	1.398297E+0	1.348852E+0	1.381951E+0	1.405956E+0	1.373550E+0	1.400561E+0	1.412076E+0	1.396259E+0	1.391167E+0	1.388800E+0	1.353307E+0	1.372417E+0	1.347192E+0	1.440855E+0	1.388715E+0	1.393715E+0	1.338718E+0	1.379499E+0	1.369026E+0	1.356975E+0	1.410347E+0	1.432748E+0	1.402885E+0	1.447678E+0	1.405084E+0	1.418878E+0	1.307558E+0	1.353220E+0	1.358589E+0	1.466798E+0	1.348168E+0	1.360692E+0	1.381932E+0	1.367944E+0	1.386544E+0	1.409589E+0	1.366671E+0	1.374599E+0	1.397930E+0	1.428116E+0	1.438343E+0	1.371827E+0	1.401509E+0	1.366339E+0	1.337051E+0	1.464869E+0	1.341003E+0	1.402942E+0	1.413677E+0	1.418239E+0	1.374360E+0	1.434287E+0	1.366649E+0	1.489633E+0	1.294490E+0	1.436578E+0	1.482511E+0	1.386870E+0	1.376573E+0	1.397035E+0	1.383218E+0	1.430983E+0	1.347301E+0	1.353900E+0	1.422261E+0	1.388971E+0	1.407015E+0	1.458414E+0	1.401226E+0	1.456115E+0	1.409222E+0	1.378931E+0	1.443729E+0	1.438229E+0	1.371171E+0	1.383131E+0	1.370628E+0	1.363111E+0	1.425824E+0	1.413688E+0	1.358949E+0	1.380820E+0	1.383423E+0	1.393865E+0	1.334488E+0	1.354532E+0	1.369994E+0	1.382068E+0	1.399133E+0	1.390574E+0	1.391262E+0	1.373693E+0	1.396812E+0	1.394015E+0	1.352874E+0	1.384933E+0	1.408531E+0	1.386691E+0	1.417052E+0	1.407578E+0	1.320284E+0	1.381833E+0	1.368141E+0	1.384998E+0	1.370739E+0	1.381868E+0	1.328426E+0	1.341099E+0	1.412724E+0	1.451276E+0	1.337955E+0	1.383438E+0	1.411434E+0	1.347194E+0	1.423905E+0	1.428201E+0	1.379396E+0	1.408713E+0	1.380524E+0	1.393230E+0	1.364115E+0	1.351628E+0	1.387325E+0	1.378230E+0	1.355086E+0	1.411643E+0	1.376034E+0	1.392032E+0	1.427643E+0	1.356862E+0	1.427064E+0	1.370699E+0	1.385926E+0	1.375421E+0	1.426267E+0	1.364660E+0	1.401563E+0	1.410818E+0	1.429272E+0	1.359995E+0	1.341883E+0	1.473778E+0	1.421465E+0	1.409141E+0	1.395553E+0	1.409643E+0	1.304744E+0	1.393804E+0	1.447557E+0	1.392622E+0	1.388763E+0	1.368653E+0	1.433007E+0	1.350761E+0	1.408651E+0
2.851050E+2	1.253439E+0	1.296770E+0	1.186963E+0	1.222419E+0	1.310873E+0	1.217838E+0	1.232061E+0	1.240025E+0	1.298109E+0	1.270720E+0	1.252249E+0	1.209288E+0	1.227804E+0	1.184611E+0	1.215042E+0	1.245641E+0	1.258933E+0	1.224577E+0	1.230092E+0	1.222897E+0	1.259310E+0	1.257140E+0	1.172461E+0	1.301892E+0	1.270845E+0	1.221547E+0	1.275019E+0	1.272166E+0	1.281732E+0	1.206901E+0	1.298852E+0	1.219191E+0	1.244073E+0	1.196492E+0	1.248885E+0	1.293160E+0	1.258215E+0	1.243243E+0	1.179010E+0	1.237363E+0	1.293870E+0	1.257101E+0	1.195728E+0	1.219135E+0	1.281408E+0	1.252900E+0	1.271798E+0	1.170547E+0	1.235356E+0	1.251524E+0	1.175642E+0	1.295036E+0	1.288136E+0	1.280935E+0	1.227603E+0	1.242978E+0	1.267548E+0	1.248531E+0	1.297867E+0	1.248980E+0	1.308976E+0	1.262928E+0	1.242623E+0	1.223712E+0	1.244702E+0	1.179071E+0	1.216623E+0	1.315668E+0	1.224343E+0	1.209160E+0	1.312167E+0	1.265577E+0	1.225567E+0	1.235129E+0	1.220475E+0	1.278185E+0	1.254877E+0	1.254603E+0	1.192596E+0	1.354426E+0	1.264250E+0	1.320446E+0	1.241790E+0	1.248000E+0	1.229495E+0	1.255726E+0	1.260057E+0	1.284484E+0	1.222302E+0	1.217953E+0	1.258737E+0	1.228280E+0	1.283425E+0	1.230661E+0	1.214105E+0	1.226373E+0	1.281611E+0	1.249636E+0	1.283150E+0	1.178530E+0	1.216245E+0	1.254475E+0	1.205007E+0	1.214778E+0	1.237880E+0	1.229894E+0	1.214865E+0	1.259924E+0	1.277748E+0	1.219263E+0	1.251670E+0	1.233468E+0	1.246829E+0	1.222904E+0	1.233149E+0	1.313724E+0	1.290473E+0	1.193319E+0	1.192367E+0	1.200439E+0	1.270146E+0	1.179396E+0	1.236293E+0	1.279827E+0	1.304330E+0	1.214741E+0	1.237791E+0	1.236029E+0	1.300640E+0	1.233457E+0	1.219202E+0	1.311164E+0	1.253080E+0	1.257025E+0	1.234844E+0	1.248886E+0	1.266971E+0	1.231246E+0	1.260487E+0	1.232721E+0	1.258774E+0	1.268535E+0	1.232193E+0	1.272829E+0	1.236429E+0	1.249472E+0	1.204290E+0	1.241631E+0	1.264910E+0	1.218502E+0	1.249695E+0	1.244053E+0	1.309191E+0	1.274857E+0	1.235488E+0	1.246516E+0	1.222587E+0	1.258501E+0	1.275100E+0	1.201034E+0	1.263914E+0	1.289117E+0	1.195328E+0	1.338957E+0	1.292833E+0	1.286858E+0
2.852020E+2	1.019974E+0	1.020258E+0	1.018566E+0	9.606196E-1	1.031054E+0	1.007532E+0	1.027939E+0	1.005297E+0	1.051796E+0	1.009667E+0	9.600017E-1	1.077186E+0	9.995206E-1	1.051403E+0	1.023142E+0	9.944121E-1	9.910723E-1	1.003800E+0	1.050580E+0	9.986125E-1	9.687597E-1	9.911268E-1	1.027219E+0	9.227625E-1	9.657610E-1	1.048069E+0	9.806916E-1	1.027358E+0	1.020211E+0	1.066759E+0	9.994398E-1	9.945758E-1	9.941288E-1	1.022863E+0	9.524423E-1	9.574803E-1	1.016217E+0	1.040126E+0	9.800489E-1	9.979058E-1	1.022581E+0	1.018877E+0	1.018172E+0	1.008743E+0	1.013385E+0	9.696776E-1	1.022825E+0	9.489120E-1	9.983089E-1	1.036777E+0	1.016649E+0	1.065291E+0	9.800122E-1	9.715286E-1	9.765395E-1	9.469092E-1	1.030752E+0	1.077970E+0	1.015355E+0	1.053303E+0	9.547592E-1	1.034435E+0	1.030399E+0	9.698133E-1	1.077279E+0	1.026773E+0	1.026517E+0	1.018148E+0	9.627931E-1	1.039256E+0	1.007171E+0	9.896141E-1	9.638090E-1	9.975832E-1	1.017461E+0	1.015141E+0	9.877730E-1	1.004216E+0	9.922609E-1	1.028108E+0	1.013976E+0	1.013395E+0	9.988316E-1	1.011497E+0	1.041162E+0	1.025100E+0	1.045579E+0	9.866187E-1	9.851372E-1	1.074198E+0	1.022795E+0	9.880516E-1	1.056402E+0	1.049899E+0	1.045049E+0	9.460659E-1	1.043657E+0	1.018173E+0	1.107014E+0	9.958083E-1	1.073451E+0	1.005016E+0	1.071472E+0	1.075795E+0	1.027993E+0	1.002864E+0	1.009302E+0	1.015436E+0	1.012602E+0	1.052238E+0	1.000754E+0	1.058384E+0	1.036272E+0	1.044263E+0	9.833473E-1	1.045317E+0	1.028419E+0	1.032731E+0	9.754124E-1	9.696194E-1	1.038449E+0	1.072706E+0	9.885650E-1	9.983481E-1	1.047049E+0	1.011476E+0	1.075435E+0	1.003637E+0	1.012104E+0	1.002840E+0	1.025295E+0	9.897961E-1	1.024778E+0	1.032229E+0	1.037079E+0	1.024924E+0	1.052386E+0	9.607737E-1	9.617815E-1	9.825924E-1	1.033791E+0	9.776870E-1	1.003655E+0	1.070252E+0	9.883560E-1	1.087417E+0	1.056193E+0	1.040847E+0	1.011811E+0	9.752828E-1	9.812988E-1	9.723616E-1	9.788443E-1	1.019961E+0	1.023803E+0	1.050075E+0	1.034799E+0	9.979726E-1	1.002634E+0	9.989316E-1	9.676339E-1	1.019013E+0	1.051286E+0	1.078437E+0	9.153483E-1	1.082916E+0
2.853030E+2	6.615404E-1	6.741737E-1	6.723268E-1	6.548644E-1	7.054548E-1	6.761343E-1	6.913346E-1	6.760631E-1	6.676842E-1	6.989947E-1	6.738784E-1	7.069732E-1	6.499165E-1	6.747607E-1	6.554577E-1	7.001527E-1	6.538538E-1	6.471220E-1	6.323986E-1	6.414844E-1	6.797615E-1	6.747432E-1	6.662241E-1	6.352249E-1	6.856035E-1	6.781484E-1	6.458259E-1	6.610430E-1	6.562655E-1	6.636626E-1	6.838204E-1	6.313041E-1	6.839960E-1	6.705995E-1	6.803051E-1	6.925362E-1	6.874768E-1	6.953784E-1	6.735303E-1	6.790133E-1	6.864088E-1	6.853555E-1	6.649799E-1	6.866638E-1	6.403852E-1	6.963635E-1	7.166646E-1	7.063172E-1	6.982906E-1	7.289312E-1	6.530685E-1	6.994810E-1	6.725192E-1	6.562895E-1	6.776273E-1	6.487171E-1	6.806211E-1	6.746256E-1	6.976343E-1	6.668243E-1	6.931788E-1	6.690812E-1	6.949272E-1	6.848017E-1	7.146442E-1	6.677351E-1	6.754434E-1	6.832623E-1	6.614451E-1	6.863066E-1	6.753634E-1	6.843597E-1	6.546009E-1	6.385185E-1	6.732022E-1	6.730242E-1	6.544461E-1	6.711522E-1	6.719471E-1	6.627041E-1	6.790904E-1	6.582503E-1	6.820158E-1	6.879293E-1	6.925216E-1	6.274479E-1	6.962509E-1	6.557735E-1	6.802932E-1	7.096960E-1	6.593849E-1	6.783294E-1	7.102841E-1	6.774716E-1	6.796148E-1	6.906270E-1	6.866020E-1	6.694966E-1	6.486335E-1	7.105653E-1	6.470654E-1	6.522765E-1	7.151208E-1	6.624812E-1	6.698251E-1	7.093924E-1	6.925788E-1	6.729958E-1	6.883875E-1	7.068576E-1	6.760751E-1	6.839039E-1	6.773047E-1	7.147430E-1	7.027502E-1	6.266532E-1	6.631749E-1	6.868215E-1	7.063705E-1	6.736386E-1	7.092050E-1	6.572788E-1	6.499052E-1	6.406444E-1	6.794593E-1	7.062325E-1	7.113235E-1	6.814229E-1	6.613563E-1	6.736630E-1	6.484037E-1	6.890883E-1	6.908296E-1	7.169474E-1	6.574844E-1	6.854631E-1	7.036889E-1	6.800181E-1	6.720490E-1	7.071784E-1	7.031455E-1	7.027224E-1	7.054353E-1	7.364213E-1	7.160114E-1	6.981695E-1	6.751516E-1	7.449249E-1	7.733224E-1	6.876613E-1	6.838157E-1	6.698717E-1	7.288464E-1	7.110613E-1	7.005501E-1	7.060254E-1	7.387991E-1	6.858819E-1	6.931789E-1	7.020356E-1	7.087653E-1	7.155098E-1	6.740275E-1	6.877417E-1	6.954279E-1	6.080028E-1
2.854050E+2	4.755927E-1	5.768389E-1	5.169182E-1	5.069028E-1	4.718415E-1	5.126843E-1	5.327323E-1	4.855742E-1	4.863612E-1	5.476384E-1	5.137400E-1	5.433508E-1	4.774648E-1	5.130617E-1	5.235999E-1	5.074213E-1	5.043082E-1	5.095660E-1	4.903436E-1	4.652025E-1	5.446894E-1	5.153329E-1	5.076153E-1	4.828710E-1	5.067869E-1	4.791098E-1	5.117505E-1	5.120854E-1	5.552169E-1	4.924778E-1	4.892169E-1	4.918092E-1	5.220409E-1	5.125337E-1	4.805995E-1	4.876181E-1	5.187775E-1	5.262458E-1	5.405828E-1	5.108657E-1	4.599968E-1	4.964035E-1	4.691700E-1	5.074493E-1	4.753516E-1	5.080878E-1	5.128083E-1	5.294769E-1	5.174259E-1	5.314614E-1	5.110107E-1	5.373146E-1	5.434727E-1	5.208415E-1	5.272550E-1	4.988104E-1	5.264730E-1	5.046674E-1	5.487018E-1	4.655872E-1	4.735109E-1	5.205334E-1	4.844839E-1	5.184779E-1	5.028758E-1	5.243947E-1	5.376548E-1	5.184757E-1	4.775722E-1	5.509951E-1	4.945118E-1	5.239690E-1	5.141264E-1	5.033013E-1	5.112466E-1	5.266817E-1	5.068033E-1	5.312032E-1	4.936291E-1	5.193744E-1	5.625378E-1	5.174700E-1	4.975123E-1	5.294262E-1	5.420574E-1	4.979542E-1	5.395854E-1	5.046519E-1	5.282943E-1	5.510490E-1	5.069835E-1	5.458497E-1	5.043137E-1	5.193300E-1	5.153214E-1	5.110863E-1	4.741513E-1	5.210159E-1	5.182300E-1	4.748622E-1	5.468196E-1	5.571242E-1	5.067786E-1	5.412973E-1	5.135111E-1	4.884971E-1	5.180935E-1	5.127518E-1	5.067711E-1	4.994497E-1	5.294423E-1	5.451664E-1	4.941562E-1	5.160162E-1	5.525117E-1	5.353146E-1	4.892432E-1	4.996754E-1	4.962645E-1	5.317215E-1	5.358377E-1	5.055958E-1	5.458436E-1	5.190662E-1	5.284227E-1	5.425169E-1	5.355687E-1	5.004546E-1	5.152640E-1	5.129690E-1	5.185013E-1	5.614891E-1	4.850782E-1	5.141128E-1	5.450686E-1	5.321109E-1	5.542892E-1	5.438557E-1	4.950806E-1	5.360830E-1	5.091932E-1	5.322442E-1	4.766665E-1	5.448188E-1	5.331420E-1	5.017136E-1	4.910606E-1	5.206327E-1	5.466017E-1	4.895612E-1	5.241074E-1	5.164818E-1	5.459491E-1	5.326560E-1	4.839130E-1	5.199584E-1	5.082882E-1	4.921389E-1	4.932524E-1	5.310874E-1	4.966753E-1	4.880202E-1	5.315541E-1	5.535807E-1	4.973802E-1	5.276770E-1
2.855050E+2	4.589560E-1	5.215410E-1	4.578089E-1	4.628734E-1	4.630764E-1	4.740285E-1	4.676883E-1	4.543728E-1	4.535868E-1	4.490347E-1	4.929410E-1	5.018452E-1	4.575759E-1	4.577356E-1	5.037094E-1	4.552105E-1	4.390666E-1	4.974255E-1	4.854280E-1	4.843136E-1	5.261168E-1	4.619847E-1	4.836899E-1	4.523031E-1	4.649710E-1	4.647556E-1	4.827303E-1	4.585663E-1	4.789011E-1	4.750622E-1	4.413295E-1	4.475346E-1	4.623171E-1	4.552196E-1	4.643501E-1	4.751294E-1	4.853663E-1	4.746275E-1	4.579094E-1	4.660041E-1	5.051131E-1	4.710698E-1	4.885736E-1	4.566454E-1	4.748835E-1	4.533260E-1	4.849747E-1	4.425823E-1	4.688828E-1	4.627425E-1	4.596063E-1	4.886016E-1	4.761961E-1	4.586744E-1	4.656739E-1	4.744375E-1	4.837892E-1	4.766624E-1	4.878814E-1	4.312216E-1	4.653428E-1	4.825865E-1	4.205271E-1	4.553605E-1	4.766012E-1	4.727770E-1	4.450574E-1	4.831414E-1	4.824636E-1	4.877566E-1	4.871133E-1	4.769799E-1	4.858199E-1	4.730927E-1	4.704866E-1	4.694580E-1	4.663052E-1	4.516040E-1	4.804242E-1	4.629809E-1	4.685877E-1	4.813043E-1	4.441438E-1	4.566373E-1	4.823403E-1	4.408483E-1	4.726152E-1	4.807787E-1	4.406405E-1	4.862747E-1	4.478898E-1	4.175337E-1	4.341328E-1	4.659655E-1	4.755188E-1	4.583148E-1	5.024272E-1	4.655048E-1	4.965218E-1	4.632129E-1	5.077581E-1	4.778478E-1	4.628032E-1	5.014170E-1	4.828107E-1	4.494179E-1	4.291368E-1	4.639029E-1	4.691113E-1	4.515596E-1	5.090825E-1	4.755464E-1	4.856126E-1	4.824821E-1	4.803688E-1	4.780015E-1	4.807383E-1	4.280701E-1	4.348001E-1	4.658716E-1	4.854633E-1	4.660504E-1	4.683446E-1	4.717259E-1	4.577397E-1	4.848107E-1	4.902048E-1	5.024555E-1	5.083294E-1	4.525239E-1	4.975073E-1	4.775668E-1	5.089646E-1	4.603284E-1	4.628522E-1	4.843495E-1	4.910193E-1	5.123813E-1	4.828567E-1	4.653896E-1	4.623492E-1	4.593164E-1	4.622147E-1	4.588185E-1	5.193187E-1	4.960443E-1	4.547162E-1	4.973898E-1	4.915925E-1	4.565377E-1	4.745313E-1	4.625039E-1	4.843427E-1	4.797910E-1	4.698030E-1	4.707257E-1	4.416540E-1	4.931698E-1	4.986053E-1	4.737559E-1	4.926114E-1	4.461411E-1	4.611268E-1	4.800537E-1	4.853199E-1	4.058295E-1
2.856010E+2	4.138910E-1	4.448045E-1	3.699049E-1	4.370579E-1	4.266426E-1	4.280972E-1	4.024021E-1	4.294424E-1	4.488933E-1	4.049779E-1	3.792203E-1	4.427143E-1	4.060344E-1	4.273779E-1	4.255481E-1	3.805865E-1	3.944579E-1	4.033728E-1	4.038010E-1	4.166742E-1	3.943349E-1	4.234312E-1	4.232267E-1	3.839356E-1	4.003927E-1	3.827245E-1	4.073766E-1	3.877208E-1	4.188196E-1	4.285867E-1	4.241200E-1	4.015001E-1	4.138790E-1	4.529931E-1	3.859803E-1	4.253233E-1	4.275187E-1	3.991644E-1	4.063347E-1	4.079106E-1	3.862004E-1	4.230713E-1	4.355441E-1	4.231038E-1	4.274537E-1	3.954333E-1	4.051717E-1	3.737449E-1	3.939442E-1	4.457639E-1	4.123336E-1	4.332570E-1	3.927827E-1	3.972096E-1	3.846557E-1	4.382502E-1	4.242531E-1	4.110825E-1	4.262625E-1	3.775248E-1	4.376967E-1	3.734430E-1	4.301780E-1	3.882704E-1	4.149178E-1	4.634033E-1	3.900164E-1	4.048349E-1	4.089624E-1	4.141855E-1	3.992188E-1	4.361909E-1	4.104027E-1	3.973812E-1	3.810837E-1	4.267326E-1	3.810616E-1	4.049791E-1	4.451848E-1	4.393517E-1	4.143343E-1	4.462288E-1	4.266741E-1	4.583453E-1	4.256152E-1	3.865255E-1	4.595298E-1	3.734244E-1	4.160804E-1	4.182693E-1	4.327645E-1	4.267633E-1	4.001212E-1	4.068578E-1	4.334911E-1	3.965954E-1	4.135161E-1	4.067097E-1	3.857169E-1	4.071016E-1	4.245547E-1	3.832766E-1	4.027587E-1	4.313431E-1	4.120656E-1	3.998375E-1	4.166900E-1	4.353257E-1	4.127103E-1	3.976134E-1	4.255039E-1	4.866377E-1	4.575436E-1	4.156523E-1	4.264168E-1	4.008577E-1	4.300502E-1	4.302563E-1	3.891607E-1	4.102441E-1	3.586037E-1	4.133068E-1	4.146938E-1	4.029202E-1	4.460391E-1	4.353649E-1	3.797450E-1	4.202547E-1	4.234981E-1	4.286844E-1	3.875316E-1	4.619862E-1	4.175297E-1	4.375929E-1	4.115846E-1	4.106225E-1	4.094577E-1	4.046093E-1	4.279300E-1	4.135463E-1	4.406095E-1	4.353743E-1	4.247094E-1	4.163946E-1	3.932492E-1	4.382285E-1	4.235275E-1	4.056177E-1	4.034828E-1	4.457277E-1	4.129775E-1	4.558673E-1	4.269905E-1	3.947615E-1	4.379762E-1	3.885244E-1	4.116250E-1	4.136584E-1	4.248974E-1	4.307553E-1	3.970186E-1	4.086904E-1	3.805458E-1	4.176215E-1	4.232008E-1	3.618076E-1
2.858030E+2	5.351980E-1	5.371540E-1	5.015659E-1	5.035946E-1	4.995405E-1	5.474061E-1	5.355393E-1	5.319779E-1	5.438664E-1	5.297169E-1	5.085571E-1	5.696432E-1	5.268430E-1	5.260776E-1	5.008473E-1	5.628538E-1	4.978324E-1	5.012677E-1	5.121117E-1	5.474140E-1	5.208663E-1	5.357194E-1	5.179482E-1	5.431691E-1	5.468959E-1	5.057810E-1	5.776637E-1	5.347609E-1	5.374744E-1	5.010653E-1	5.229543E-1	5.157803E-1	5.195867E-1	5.290013E-1	5.258163E-1	5.413650E-1	5.663523E-1	5.109705E-1	5.128464E-1	5.291582E-1	5.477785E-1	5.017492E-1	5.525571E-1	4.924679E-1	5.307550E-1	5.285148E-1	5.408628E-1	5.617102E-1	5.291522E-1	5.006314E-1	5.328268E-1	5.188587E-1	4.974388E-1	5.326160E-1	5.234052E-1	5.055167E-1	5.367714E-1	5.296317E-1	5.597450E-1	5.138730E-1	5.261657E-1	5.289868E-1	5.555658E-1	5.442742E-1	5.668537E-1	5.419675E-1	5.119869E-1	5.424327E-1	5.339010E-1	5.447861E-1	5.483784E-1	4.885324E-1	5.479924E-1	5.363066E-1	5.510031E-1	5.406062E-1	5.197628E-1	5.348972E-1	5.408048E-1	5.347007E-1	5.078185E-1	5.415763E-1	5.301091E-1	5.357122E-1	5.004203E-1	5.643744E-1	5.102965E-1	5.579342E-1	5.231376E-1	5.504317E-1	5.460537E-1	5.473319E-1	5.355165E-1	5.529640E-1	4.985007E-1	5.431740E-1	5.259946E-1	5.407123E-1	5.675158E-1	5.550593E-1	5.219703E-1	5.589732E-1	5.380392E-1	5.461615E-1	5.796366E-1	5.475015E-1	4.930574E-1	5.226756E-1	5.241679E-1	5.237577E-1	5.591601E-1	5.267546E-1	5.333701E-1	5.584394E-1	5.092565E-1	5.181459E-1	5.377041E-1	5.384337E-1	5.203356E-1	5.458023E-1	5.765850E-1	5.442596E-1	5.275667E-1	5.307879E-1	5.036366E-1	5.360044E-1	5.518020E-1	5.180485E-1	5.443048E-1	5.324025E-1	5.052783E-1	5.610921E-1	5.387519E-1	5.066894E-1	4.995973E-1	5.491030E-1	5.342443E-1	5.289713E-1	5.544647E-1	5.122653E-1	5.547955E-1	5.420380E-1	5.572470E-1	5.608280E-1	5.450640E-1	5.791160E-1	5.371268E-1	5.675162E-1	5.345180E-1	5.384124E-1	5.448457E-1	5.585953E-1	5.404079E-1	5.443546E-1	5.319385E-1	5.444318E-1	5.262594E-1	5.537259E-1	4.966405E-1	5.862003E-1	5.598236E-1	5.843377E-1	5.408043E-1	5.112796E-1	5.363533E-1	6.367745E-1
2.860020E+2	8.269024E-1	8.494942E-1	8.380263E-1	8.041096E-1	7.981120E-1	8.433817E-1	7.945753E-1	8.380258E-1	7.994538E-1	8.327215E-1	8.120658E-1	8.229043E-1	8.079138E-1	7.613515E-1	8.214289E-1	8.228123E-1	7.892907E-1	7.913454E-1	8.056231E-1	8.078781E-1	7.995605E-1	8.091731E-1	7.738236E-1	8.114351E-1	7.799383E-1	8.321581E-1	7.985111E-1	7.958327E-1	8.184415E-1	8.275696E-1	8.217513E-1	7.924780E-1	8.132265E-1	8.072442E-1	8.049788E-1	8.086735E-1	8.214289E-1	7.844209E-1	7.826653E-1	8.303066E-1	8.041995E-1	8.086536E-1	8.143748E-1	8.003881E-1	7.910401E-1	8.122176E-1	8.003219E-1	8.132351E-1	8.310560E-1	8.484189E-1	8.120865E-1	8.473971E-1	8.189136E-1	8.055142E-1	8.018212E-1	8.208508E-1	8.167175E-1	7.677251E-1	8.240857E-1	7.959797E-1	8.558897E-1	8.221823E-1	8.006325E-1	8.435533E-1	8.122687E-1	8.146828E-1	7.573761E-1	8.123749E-1	7.962881E-1	8.240574E-1	8.936266E-1	8.345915E-1	8.055779E-1	8.347962E-1	8.421667E-1	7.753447E-1	7.990612E-1	7.989015E-1	8.080224E-1	8.938691E-1	8.378757E-1	7.855051E-1	8.029393E-1	8.461478E-1	8.511169E-1	8.274394E-1	8.034006E-1	8.618242E-1	7.739272E-1	8.181148E-1	8.827395E-1	8.597366E-1	8.186992E-1	7.957293E-1	8.125841E-1	8.262802E-1	7.962381E-1	8.215221E-1	8.152914E-1	8.478092E-1	8.503886E-1	8.341213E-1	8.365178E-1	8.358386E-1	8.311051E-1	8.363853E-1	8.120643E-1	7.840629E-1	8.004322E-1	8.077806E-1	7.712601E-1	8.199720E-1	8.092542E-1	8.463510E-1	7.993257E-1	8.300261E-1	8.962861E-1	8.568476E-1	8.279199E-1	8.411818E-1	8.300052E-1	7.632258E-1	7.876604E-1	8.451513E-1	8.410965E-1	8.304441E-1	8.109180E-1	8.499771E-1	8.420000E-1	8.328183E-1	7.939596E-1	8.667369E-1	8.035256E-1	8.451376E-1	7.816348E-1	8.342757E-1	7.834364E-1	8.383038E-1	8.366415E-1	8.163103E-1	8.096754E-1	8.243997E-1	8.402748E-1	8.568226E-1	7.993655E-1	8.571296E-1	8.132313E-1	7.977785E-1	8.079341E-1	8.623074E-1	7.678594E-1	8.124252E-1	8.028526E-1	8.254271E-1	8.844256E-1	8.154961E-1	8.424310E-1	8.380781E-1	7.913679E-1	8.433990E-1	8.568404E-1	8.437235E-1	7.931408E-1	8.162051E-1	8.425055E-1	9.532176E-1
2.862020E+2	1.207348E+0	1.211720E+0	1.111923E+0	1.155423E+0	1.174203E+0	1.253255E+0	1.159630E+0	1.163751E+0	1.199769E+0	1.225545E+0	1.184410E+0	1.223823E+0	1.168672E+0	1.192470E+0	1.220365E+0	1.176298E+0	1.186590E+0	1.226737E+0	1.170671E+0	1.177499E+0	1.189970E+0	1.174876E+0	1.166722E+0	1.156380E+0	1.244737E+0	1.206924E+0	1.219470E+0	1.171495E+0	1.210657E+0	1.230944E+0	1.208390E+0	1.236123E+0	1.216946E+0	1.226483E+0	1.146027E+0	1.248534E+0	1.184438E+0	1.188514E+0	1.233551E+0	1.203534E+0	1.156734E+0	1.172660E+0	1.212374E+0	1.176348E+0	1.180321E+0	1.225465E+0	1.208486E+0	1.231808E+0	1.281522E+0	1.205030E+0	1.183448E+0	1.232122E+0	1.206089E+0	1.167253E+0	1.150602E+0	1.176245E+0	1.166711E+0	1.218784E+0	1.175743E+0	1.177107E+0	1.200008E+0	1.171382E+0	1.198643E+0	1.237667E+0	1.211673E+0	1.171878E+0	1.215204E+0	1.192400E+0	1.186465E+0	1.204707E+0	1.188872E+0	1.202588E+0	1.261612E+0	1.220483E+0	1.243983E+0	1.220795E+0	1.207818E+0	1.218479E+0	1.201775E+0	1.293444E+0	1.242701E+0	1.185349E+0	1.213955E+0	1.249012E+0	1.214230E+0	1.168711E+0	1.211330E+0	1.183909E+0	1.167698E+0	1.254528E+0	1.229177E+0	1.232087E+0	1.197255E+0	1.234838E+0	1.175669E+0	1.223944E+0	1.173459E+0	1.158450E+0	1.204073E+0	1.201590E+0	1.263761E+0	1.221146E+0	1.230838E+0	1.200587E+0	1.256957E+0	1.153226E+0	1.189895E+0	1.197556E+0	1.209175E+0	1.199940E+0	1.192514E+0	1.180717E+0	1.211420E+0	1.230184E+0	1.216806E+0	1.242186E+0	1.172306E+0	1.240214E+0	1.191436E+0	1.220151E+0	1.216349E+0	1.209032E+0	1.159284E+0	1.168857E+0	1.227042E+0	1.167023E+0	1.186560E+0	1.249639E+0	1.243233E+0	1.257236E+0	1.166741E+0	1.226899E+0	1.175478E+0	1.236032E+0	1.195057E+0	1.176414E+0	1.246303E+0	1.188688E+0	1.205661E+0	1.187520E+0	1.145722E+0	1.240500E+0	1.254603E+0	1.215126E+0	1.154131E+0	1.329705E+0	1.169751E+0	1.268301E+0	1.268779E+0	1.205749E+0	1.157703E+0	1.267833E+0	1.209362E+0	1.265211E+0	1.199021E+0	1.196379E+0	1.252828E+0	1.194187E+0	1.231397E+0	1.256161E+0	1.158650E+0	1.283504E+0	1.141968E+0	1.267325E+0	1.313386E+0	1.273793E+0
2.864190E+2	1.221978E+0	1.315973E+0	1.195616E+0	1.241369E+0	1.239103E+0	1.314476E+0	1.220339E+0	1.206766E+0	1.257539E+0	1.244315E+0	1.242086E+0	1.262792E+0	1.225704E+0	1.202925E+0	1.216803E+0	1.209954E+0	1.212614E+0	1.241445E+0	1.191757E+0	1.260867E+0	1.268740E+0	1.258390E+0	1.182601E+0	1.226330E+0	1.253960E+0	1.250456E+0	1.234629E+0	1.208620E+0	1.221471E+0	1.301517E+0	1.236335E+0	1.194660E+0	1.221279E+0	1.278079E+0	1.188748E+0	1.193952E+0	1.239808E+0	1.184643E+0	1.207618E+0	1.240886E+0	1.258221E+0	1.207042E+0	1.210676E+0	1.237037E+0	1.181783E+0	1.197232E+0	1.250201E+0	1.233697E+0	1.219395E+0	1.280701E+0	1.263355E+0	1.280526E+0	1.262097E+0	1.292330E+0	1.224977E+0	1.216110E+0	1.276910E+0	1.306523E+0	1.235157E+0	1.243121E+0	1.265350E+0	1.224423E+0	1.254378E+0	1.251436E+0	1.237601E+0	1.292467E+0	1.250071E+0	1.246458E+0	1.200336E+0	1.234017E+0	1.260878E+0	1.246643E+0	1.255872E+0	1.223751E+0	1.230400E+0	1.277748E+0	1.202477E+0	1.244661E+0	1.230894E+0	1.240335E+0	1.261210E+0	1.256768E+0	1.199501E+0	1.245750E+0	1.200032E+0	1.238739E+0	1.228854E+0	1.219147E+0	1.205426E+0	1.300109E+0	1.225690E+0	1.243609E+0	1.241046E+0	1.223923E+0	1.215029E+0	1.222223E+0	1.229660E+0	1.267109E+0	1.218763E+0	1.212551E+0	1.232923E+0	1.236016E+0	1.232213E+0	1.241358E+0	1.279348E+0	1.228755E+0	1.237169E+0	1.254933E+0	1.217427E+0	1.272742E+0	1.224043E+0	1.278067E+0	1.212148E+0	1.301402E+0	1.233018E+0	1.235004E+0	1.235235E+0	1.203869E+0	1.193762E+0	1.248672E+0	1.299821E+0	1.257884E+0	1.238709E+0	1.208131E+0	1.213184E+0	1.266648E+0	1.235133E+0	1.270997E+0	1.217102E+0	1.202674E+0	1.182004E+0	1.222391E+0	1.254384E+0	1.240264E+0	1.211594E+0	1.255950E+0	1.287130E+0	1.234106E+0	1.192267E+0	1.202688E+0	1.233571E+0	1.253272E+0	1.225289E+0	1.250664E+0	1.228251E+0	1.251326E+0	1.229891E+0	1.243351E+0	1.216574E+0	1.227300E+0	1.262842E+0	1.199013E+0	1.246617E+0	1.320738E+0	1.197189E+0	1.189254E+0	1.207632E+0	1.287367E+0	1.182104E+0	1.245906E+0	1.231085E+0	1.234454E+0	1.248664E+0	1.304665E+0	1.211367E+0	1.352338E+0
2.866120E+2	1.174144E+0	1.204517E+0	1.079908E+0	1.153513E+0	1.128645E+0	1.118483E+0	1.118522E+0	1.110632E+0	1.207662E+0	1.241949E+0	1.173095E+0	1.122653E+0	1.089266E+0	1.168828E+0	1.196975E+0	1.147805E+0	1.138050E+0	1.148960E+0	1.176611E+0	1.114272E+0	1.192999E+0	1.153740E+0	1.204113E+0	1.077273E+0	1.153237E+0	1.148077E+0	1.149060E+0	1.116582E+0	1.228333E+0	1.129288E+0	1.160105E+0	1.136266E+0	1.136534E+0	1.188362E+0	1.180335E+0	1.131572E+0	1.136830E+0	1.140332E+0	1.123507E+0	1.148000E+0	1.176262E+0	1.195765E+0	1.175361E+0	1.142012E+0	1.117821E+0	1.169810E+0	1.157878E+0	1.144466E+0	1.191467E+0	1.129836E+0	1.195268E+0	1.165641E+0	1.209770E+0	1.178121E+0	1.123613E+0	1.156175E+0	1.177351E+0	1.141825E+0	1.249119E+0	1.126783E+0	1.189173E+0	1.112029E+0	1.148014E+0	1.208422E+0	1.178144E+0	1.092179E+0	1.137206E+0	1.171896E+0	1.165592E+0	1.188540E+0	1.176687E+0	1.202472E+0	1.127942E+0	1.137572E+0	1.135650E+0	1.182356E+0	1.128318E+0	1.086910E+0	1.163957E+0	1.158336E+0	1.170528E+0	1.180293E+0	1.159209E+0	1.192588E+0	1.158711E+0	1.202150E+0	1.138860E+0	1.160922E+0	1.204441E+0	1.201364E+0	1.130101E+0	1.163259E+0	1.136922E+0	1.163084E+0	1.210898E+0	1.150396E+0	1.199345E+0	1.168782E+0	1.160663E+0	1.149867E+0	1.163135E+0	1.110590E+0	1.153085E+0	1.169831E+0	1.188252E+0	1.199305E+0	1.176713E+0	1.203728E+0	1.143925E+0	1.184783E+0	1.169905E+0	1.187180E+0	1.179806E+0	1.225039E+0	1.166235E+0	1.245816E+0	1.131248E+0	1.132852E+0	1.168691E+0	1.140350E+0	1.138840E+0	1.203139E+0	1.134300E+0	1.168808E+0	1.188089E+0	1.140783E+0	1.119357E+0	1.157480E+0	1.175720E+0	1.183151E+0	1.185238E+0	1.178049E+0	1.168007E+0	1.180169E+0	1.197381E+0	1.163857E+0	1.174661E+0	1.168500E+0	1.160589E+0	1.151723E+0	1.167998E+0	1.213921E+0	1.194146E+0	1.203045E+0	1.142666E+0	1.198986E+0	1.137375E+0	1.149680E+0	1.214085E+0	1.186767E+0	1.128050E+0	1.185214E+0	1.134877E+0	1.217775E+0	1.148614E+0	1.139227E+0	1.088782E+0	1.171192E+0	1.198280E+0	1.165755E+0	1.158884E+0	1.138077E+0	1.164296E+0	1.164846E+0	1.058077E+0	1.102238E+0
2.868020E+2	1.322597E+0	1.304862E+0	1.267901E+0	1.226322E+0	1.282304E+0	1.314920E+0	1.277433E+0	1.297834E+0	1.319087E+0	1.314435E+0	1.301393E+0	1.300469E+0	1.260553E+0	1.253063E+0	1.294466E+0	1.304807E+0	1.334772E+0	1.282318E+0	1.311187E+0	1.288527E+0	1.328589E+0	1.246269E+0	1.247618E+0	1.300252E+0	1.343085E+0	1.322243E+0	1.305862E+0	1.285868E+0	1.301868E+0	1.291887E+0	1.277070E+0	1.279150E+0	1.296232E+0	1.276076E+0	1.268977E+0	1.302747E+0	1.288565E+0	1.264213E+0	1.337607E+0	1.262527E+0	1.241930E+0	1.236759E+0	1.343556E+0	1.259997E+0	1.301528E+0	1.317481E+0	1.298959E+0	1.288617E+0	1.219922E+0	1.299180E+0	1.313585E+0	1.368859E+0	1.295373E+0	1.338321E+0	1.321152E+0	1.209056E+0	1.387166E+0	1.317964E+0	1.313696E+0	1.282236E+0	1.276475E+0	1.338091E+0	1.278998E+0	1.294091E+0	1.287652E+0	1.264886E+0	1.256826E+0	1.317475E+0	1.253579E+0	1.306491E+0	1.322841E+0	1.255239E+0	1.319035E+0	1.264749E+0	1.229864E+0	1.313301E+0	1.238064E+0	1.308259E+0	1.301819E+0	1.314155E+0	1.285619E+0	1.304688E+0	1.258831E+0	1.346710E+0	1.283691E+0	1.249546E+0	1.291252E+0	1.310231E+0	1.247138E+0	1.328865E+0	1.315122E+0	1.234824E+0	1.270643E+0	1.267764E+0	1.334966E+0	1.317610E+0	1.250699E+0	1.295136E+0	1.335174E+0	1.319016E+0	1.315095E+0	1.350854E+0	1.284437E+0	1.265364E+0	1.353091E+0	1.310359E+0	1.270826E+0	1.277016E+0	1.211154E+0	1.290859E+0	1.265624E+0	1.281220E+0	1.226686E+0	1.322420E+0	1.242161E+0	1.279507E+0	1.335768E+0	1.321723E+0	1.265223E+0	1.297015E+0	1.296143E+0	1.223078E+0	1.301044E+0	1.289804E+0	1.279766E+0	1.307719E+0	1.255824E+0	1.264555E+0	1.276468E+0	1.303515E+0	1.297544E+0	1.299946E+0	1.285112E+0	1.257095E+0	1.341919E+0	1.276149E+0	1.269968E+0	1.236331E+0	1.303538E+0	1.230326E+0	1.272082E+0	1.234973E+0	1.363082E+0	1.336006E+0	1.326163E+0	1.298769E+0	1.275677E+0	1.270698E+0	1.327832E+0	1.297840E+0	1.269692E+0	1.338032E+0	1.307673E+0	1.309980E+0	1.294302E+0	1.293559E+0	1.291157E+0	1.287260E+0	1.237500E+0	1.301607E+0	1.306418E+0	1.324906E+0	1.324668E+0	1.356467E+0	1.296102E+0	1.255728E+0
2.870090E+2	1.075785E+0	1.109115E+0	1.067871E+0	1.052619E+0	1.106764E+0	1.083636E+0	1.173377E+0	1.082026E+0	1.082926E+0	1.130325E+0	1.058271E+0	1.048899E+0	1.045074E+0	1.104108E+0	1.110883E+0	1.066408E+0	1.084123E+0	1.074370E+0	1.069166E+0	1.080462E+0	1.036578E+0	1.044570E+0	1.072277E+0	1.039694E+0	1.099926E+0	1.056804E+0	1.085235E+0	1.061853E+0	1.137118E+0	1.027641E+0	1.051029E+0	1.007830E+0	1.020927E+0	1.080162E+0	1.086390E+0	1.095153E+0	1.044707E+0	1.078904E+0	1.103151E+0	1.059948E+0	1.075056E+0	1.052941E+0	1.163591E+0	1.081691E+0	1.122453E+0	1.119993E+0	1.122375E+0	1.089256E+0	1.099889E+0	1.085912E+0	1.059744E+0	1.084893E+0	1.107371E+0	1.124523E+0	1.109871E+0	1.048528E+0	1.072304E+0	1.099152E+0	1.106240E+0	1.049910E+0	1.015791E+0	1.066248E+0	1.070773E+0	1.112389E+0	1.064277E+0	1.044159E+0	1.088070E+0	1.114629E+0	1.025630E+0	1.073469E+0	1.059507E+0	1.083627E+0	1.050671E+0	1.020146E+0	1.130121E+0	1.119012E+0	1.060399E+0	1.056255E+0	1.039440E+0	1.062656E+0	1.108845E+0	1.093033E+0	1.098267E+0	1.120325E+0	1.042245E+0	1.105889E+0	1.082730E+0	1.095439E+0	1.068633E+0	1.114097E+0	1.094771E+0	1.086343E+0	1.102737E+0	1.064120E+0	1.040700E+0	1.088327E+0	1.105897E+0	1.037918E+0	1.109728E+0	1.118078E+0	1.088701E+0	1.056714E+0	1.097290E+0	1.068265E+0	1.115801E+0	1.044805E+0	1.034927E+0	1.073704E+0	1.043236E+0	1.073190E+0	1.078607E+0	1.071975E+0	1.065563E+0	1.104818E+0	1.071175E+0	1.142174E+0	1.093528E+0	1.046655E+0	1.045276E+0	1.092548E+0	1.064857E+0	1.076304E+0	1.019934E+0	1.049697E+0	1.065656E+0	1.072347E+0	1.130755E+0	1.091501E+0	1.085541E+0	1.081159E+0	1.110292E+0	1.061377E+0	1.083951E+0	1.079715E+0	1.080821E+0	1.068078E+0	1.078396E+0	1.134076E+0	1.013827E+0	1.093486E+0	1.067017E+0	1.121941E+0	1.090197E+0	1.121266E+0	1.016118E+0	1.087442E+0	1.080227E+0	1.064440E+0	1.089234E+0	1.103924E+0	1.015431E+0	1.097895E+0	1.088660E+0	1.050836E+0	1.155593E+0	1.089265E+0	1.138958E+0	1.094436E+0	1.104213E+0	1.094960E+0	1.113930E+0	1.119008E+0	1.147724E+0	1.159651E+0	1.058836E+0	1.090889E+0
2.872050E+2	1.037724E+0	1.032456E+0	9.494488E-1	9.872170E-1	9.829980E-1	9.691496E-1	9.821742E-1	9.437296E-1	1.005651E+0	1.033801E+0	9.595780E-1	1.038373E+0	9.520984E-1	1.009441E+0	1.033127E+0	1.038889E+0	1.040583E+0	9.455515E-1	1.000294E+0	1.033132E+0	1.047746E+0	1.027565E+0	9.850881E-1	9.935258E-1	9.459066E-1	9.965297E-1	9.988778E-1	9.581297E-1	1.024002E+0	9.514246E-1	9.543929E-1	9.939075E-1	9.833072E-1	1.015051E+0	9.828339E-1	1.039155E+0	1.057094E+0	9.847990E-1	9.823105E-1	9.825712E-1	9.926008E-1	1.078984E+0	1.010813E+0	9.782294E-1	9.937628E-1	1.002373E+0	9.834868E-1	9.797438E-1	1.017519E+0	1.013466E+0	1.000157E+0	1.042579E+0	1.057016E+0	1.052576E+0	9.913359E-1	1.000430E+0	9.918382E-1	1.008788E+0	1.013548E+0	9.663293E-1	9.605260E-1	9.987490E-1	1.012531E+0	9.980125E-1	1.002895E+0	9.863259E-1	9.760270E-1	1.029688E+0	9.902351E-1	9.965631E-1	9.687166E-1	9.806258E-1	1.001147E+0	9.386705E-1	1.023779E+0	1.052672E+0	9.803106E-1	9.458822E-1	1.044252E+0	9.931806E-1	9.967544E-1	9.677251E-1	1.000869E+0	1.006615E+0	9.714072E-1	9.915308E-1	1.030199E+0	9.727953E-1	9.536955E-1	1.040585E+0	9.992833E-1	9.673941E-1	1.024196E+0	1.009607E+0	9.444025E-1	1.014640E+0	9.949973E-1	9.462419E-1	1.009605E+0	9.659339E-1	9.604719E-1	1.000284E+0	1.013600E+0	1.026544E+0	1.091836E+0	9.576355E-1	1.026588E+0	1.028622E+0	1.020627E+0	9.971411E-1	1.028007E+0	9.991294E-1	9.616729E-1	1.058511E+0	1.010208E+0	9.585499E-1	1.020080E+0	9.912877E-1	9.829492E-1	1.007682E+0	1.034648E+0	1.070964E+0	1.035107E+0	1.054885E+0	1.022830E+0	9.963307E-1	9.499423E-1	1.037417E+0	1.026840E+0	9.627990E-1	9.874455E-1	1.002335E+0	1.050794E+0	1.003101E+0	1.017121E+0	9.994811E-1	9.822974E-1	9.799740E-1	1.007777E+0	9.989251E-1	9.710164E-1	1.005001E+0	9.789723E-1	1.046873E+0	9.832919E-1	1.013060E+0	1.000223E+0	1.032758E+0	1.054514E+0	1.001110E+0	1.023329E+0	1.029389E+0	1.038689E+0	1.027075E+0	1.059622E+0	1.015008E+0	9.229255E-1	9.886075E-1	1.057525E+0	1.029747E+0	9.890235E-1	9.972170E-1	9.697935E-1	1.010246E+0	1.076380E+0	1.002982E+0
2.874000E+2	9.323722E-1	9.012056E-1	8.278711E-1	8.603566E-1	8.594149E-1	8.544327E-1	8.952575E-1	8.674625E-1	9.037442E-1	9.011255E-1	8.690789E-1	8.917693E-1	8.643097E-1	8.847395E-1	9.018613E-1	9.425195E-1	8.861826E-1	8.402200E-1	8.670930E-1	9.073296E-1	8.620129E-1	9.177993E-1	8.999048E-1	8.946514E-1	8.726398E-1	8.383655E-1	8.455147E-1	8.917268E-1	8.593586E-1	8.985522E-1	9.126818E-1	8.754512E-1	9.158570E-1	8.932866E-1	8.938587E-1	9.506250E-1	8.905583E-1	8.301888E-1	8.976249E-1	8.945827E-1	9.041628E-1	8.674554E-1	9.377244E-1	9.058072E-1	8.687202E-1	8.732767E-1	9.065997E-1	9.269934E-1	8.865432E-1	8.665894E-1	9.181065E-1	9.723285E-1	8.748564E-1	9.462648E-1	8.912870E-1	8.358740E-1	8.711400E-1	9.360681E-1	8.841865E-1	8.671437E-1	9.090432E-1	8.502624E-1	9.552987E-1	9.039207E-1	9.001931E-1	8.730844E-1	8.408773E-1	8.634371E-1	9.123291E-1	8.430265E-1	9.306742E-1	8.208141E-1	8.840002E-1	8.589131E-1	9.007203E-1	9.274306E-1	9.172649E-1	8.657005E-1	9.285669E-1	8.803779E-1	8.748062E-1	9.275935E-1	8.144219E-1	8.761578E-1	8.744679E-1	9.028803E-1	8.412690E-1	9.050955E-1	8.682135E-1	8.932964E-1	8.958805E-1	8.710482E-1	8.432536E-1	9.268009E-1	9.107716E-1	8.905323E-1	9.144945E-1	8.691948E-1	8.974630E-1	8.559027E-1	8.807569E-1	8.340373E-1	8.820631E-1	9.010492E-1	9.110773E-1	8.142276E-1	8.189496E-1	8.786081E-1	8.611212E-1	8.957163E-1	9.423889E-1	9.091244E-1	8.815181E-1	8.836630E-1	8.625168E-1	9.296561E-1	9.148244E-1	9.022011E-1	8.963629E-1	8.840892E-1	8.895041E-1	8.960529E-1	9.001482E-1	8.578324E-1	9.121565E-1	8.653318E-1	8.659423E-1	8.736866E-1	8.876391E-1	8.336923E-1	8.612188E-1	9.335733E-1	8.887618E-1	9.048267E-1	8.820922E-1	9.237092E-1	9.125617E-1	8.860991E-1	8.756091E-1	9.382786E-1	9.036414E-1	9.252656E-1	8.904718E-1	9.013756E-1	8.789641E-1	9.308135E-1	8.879312E-1	9.316465E-1	8.860840E-1	8.679979E-1	8.572160E-1	9.256334E-1	8.766939E-1	9.431619E-1	9.202563E-1	8.532666E-1	9.303792E-1	8.633744E-1	9.096312E-1	9.338283E-1	9.053725E-1	8.832570E-1	9.074525E-1	9.761455E-1	8.887133E-1	9.790824E-1
2.876030E+2	7.483571E-1	8.007149E-1	7.353734E-1	7.944248E-1	7.286930E-1	7.764048E-1	7.739427E-1	7.230691E-1	7.654634E-1	7.741140E-1	7.964401E-1	7.628241E-1	7.574619E-1	7.722061E-1	7.706040E-1	7.692779E-1	7.539965E-1	7.486986E-1	7.874931E-1	7.593058E-1	7.735496E-1	7.675908E-1	7.834479E-1	7.374064E-1	8.088066E-1	7.791416E-1	7.703491E-1	7.248605E-1	7.800604E-1	7.387866E-1	7.483518E-1	7.514508E-1	7.531278E-1	7.550220E-1	8.076318E-1	7.194207E-1	7.770262E-1	7.387674E-1	7.511059E-1	7.869422E-1	7.908084E-1	7.535489E-1	7.304107E-1	7.540123E-1	7.860538E-1	7.626710E-1	7.907517E-1	8.007506E-1	7.273431E-1	7.977454E-1	7.579094E-1	7.412263E-1	8.143946E-1	7.646029E-1	7.700085E-1	7.824310E-1	7.720988E-1	7.238053E-1	7.513003E-1	7.645690E-1	7.279865E-1	7.571134E-1	7.555571E-1	7.891860E-1	7.962698E-1	7.939462E-1	7.191053E-1	8.244681E-1	7.603327E-1	7.818189E-1	7.768937E-1	8.011432E-1	7.685299E-1	7.298662E-1	7.678123E-1	8.002135E-1	7.932123E-1	7.040945E-1	8.112974E-1	8.030085E-1	8.194482E-1	7.543080E-1	7.484746E-1	7.853708E-1	7.814274E-1	7.400924E-1	7.639719E-1	7.520182E-1	8.209587E-1	7.813719E-1	7.544822E-1	7.976459E-1	7.360191E-1	7.974904E-1	7.404530E-1	7.676641E-1	8.057585E-1	7.535728E-1	7.879234E-1	7.918880E-1	7.752705E-1	7.400357E-1	7.834227E-1	7.454083E-1	8.232378E-1	7.505068E-1	7.569669E-1	7.708541E-1	7.787137E-1	8.007101E-1	7.712073E-1	7.746244E-1	7.597447E-1	8.048015E-1	7.542902E-1	7.671126E-1	8.083958E-1	7.872743E-1	7.422552E-1	7.661442E-1	7.780609E-1	7.803062E-1	7.818736E-1	7.199535E-1	7.954180E-1	7.647499E-1	8.185406E-1	7.538917E-1	7.829121E-1	7.678673E-1	7.800573E-1	8.059679E-1	8.047284E-1	7.869705E-1	7.612922E-1	7.529894E-1	7.620220E-1	7.662588E-1	7.743035E-1	7.508486E-1	7.830378E-1	7.338934E-1	8.256219E-1	7.883938E-1	7.673041E-1	7.399108E-1	7.382297E-1	8.063721E-1	8.295937E-1	8.044227E-1	7.594265E-1	8.005057E-1	8.308779E-1	7.838297E-1	7.531883E-1	8.002963E-1	7.306010E-1	7.694685E-1	7.840166E-1	7.704757E-1	7.318449E-1	7.619103E-1	7.611885E-1	7.624300E-1	8.487951E-1	7.906882E-1
2.878030E+2	6.563245E-1	6.820308E-1	5.991545E-1	6.242375E-1	6.668294E-1	6.302861E-1	6.370982E-1	6.496614E-1	6.213516E-1	6.866306E-1	6.454967E-1	6.197385E-1	6.377106E-1	6.372891E-1	6.659204E-1	6.720776E-1	6.104100E-1	6.173166E-1	6.328050E-1	6.509365E-1	6.424168E-1	6.122679E-1	6.659475E-1	6.345098E-1	6.563418E-1	6.114873E-1	6.482757E-1	6.244794E-1	6.850340E-1	6.498675E-1	6.918474E-1	5.982290E-1	6.226912E-1	6.055151E-1	6.467298E-1	6.860331E-1	6.185698E-1	6.204925E-1	6.323413E-1	6.264738E-1	6.315101E-1	6.099221E-1	6.731712E-1	6.380541E-1	6.373091E-1	6.497401E-1	6.326617E-1	6.143889E-1	6.431345E-1	6.526077E-1	6.410742E-1	6.386310E-1	6.556645E-1	6.446354E-1	6.529684E-1	5.904529E-1	6.696843E-1	6.462569E-1	6.766573E-1	6.358981E-1	6.174690E-1	6.507717E-1	6.341951E-1	6.358224E-1	6.460562E-1	6.695177E-1	6.535626E-1	6.536358E-1	6.341666E-1	6.564806E-1	6.232209E-1	6.091305E-1	7.042677E-1	6.274050E-1	6.498014E-1	6.652522E-1	6.041387E-1	6.441779E-1	6.583784E-1	6.731214E-1	6.311956E-1	6.939418E-1	6.388512E-1	7.070246E-1	6.842128E-1	6.853594E-1	6.235463E-1	6.052412E-1	6.015355E-1	6.418055E-1	6.304277E-1	6.334026E-1	6.263477E-1	6.649354E-1	6.610202E-1	6.126371E-1	6.265967E-1	6.342476E-1	6.417707E-1	6.529388E-1	6.358735E-1	6.379919E-1	5.843901E-1	6.516982E-1	6.936005E-1	6.265987E-1	6.308601E-1	6.598481E-1	6.319430E-1	6.537958E-1	6.328512E-1	6.472221E-1	6.396151E-1	6.372817E-1	6.403450E-1	6.640976E-1	6.763239E-1	6.344685E-1	6.267587E-1	6.545642E-1	6.637789E-1	6.493897E-1	6.574319E-1	6.412443E-1	6.417906E-1	6.322246E-1	6.441755E-1	6.581437E-1	6.872518E-1	5.891655E-1	6.619978E-1	6.437398E-1	6.598285E-1	6.421491E-1	6.487343E-1	6.463453E-1	6.274113E-1	6.698913E-1	6.249973E-1	6.034900E-1	6.681986E-1	6.583570E-1	6.668547E-1	7.107515E-1	6.837850E-1	6.367585E-1	6.700838E-1	6.484929E-1	6.771969E-1	6.490350E-1	6.339305E-1	6.106954E-1	6.784353E-1	6.059575E-1	6.341642E-1	6.669369E-1	6.391009E-1	6.499519E-1	6.676109E-1	6.798079E-1	6.503463E-1	6.281432E-1	6.923407E-1	6.476638E-1	7.002889E-1	6.487691E-1
2.880010E+2	7.312799E-1	7.876230E-1	7.068654E-1	6.809815E-1	7.816990E-1	7.768991E-1	7.192691E-1	7.548792E-1	7.439642E-1	7.490930E-1	7.223059E-1	7.547455E-1	7.104145E-1	7.342125E-1	7.597462E-1	7.492514E-1	7.674690E-1	7.025886E-1	7.200254E-1	7.191083E-1	7.646029E-1	7.395061E-1	7.066391E-1	7.342445E-1	7.519163E-1	6.897031E-1	7.482304E-1	7.277639E-1	7.245587E-1	7.381311E-1	6.682538E-1	7.307605E-1	7.138929E-1	7.116475E-1	7.538019E-1	7.576776E-1	7.552526E-1	7.259013E-1	7.268563E-1	7.327044E-1	7.314585E-1	7.371005E-1	7.708368E-1	7.524068E-1	7.297442E-1	7.396274E-1	7.562866E-1	7.122447E-1	6.819943E-1	7.823091E-1	7.860401E-1	7.488634E-1	7.619358E-1	7.185535E-1	7.180519E-1	7.404377E-1	7.700252E-1	7.410070E-1	7.301852E-1	7.134697E-1	7.263974E-1	7.331184E-1	7.707860E-1	7.515641E-1	7.218799E-1	7.053856E-1	7.591591E-1	7.461530E-1	7.515340E-1	7.616954E-1	7.264895E-1	7.165758E-1	7.304475E-1	7.275097E-1	7.610610E-1	7.657658E-1	7.116126E-1	7.023080E-1	7.624694E-1	7.496290E-1	7.447103E-1	7.628727E-1	7.071281E-1	8.016766E-1	7.532368E-1	7.464270E-1	7.222729E-1	7.180075E-1	7.350380E-1	7.309402E-1	7.791692E-1	7.258568E-1	7.549338E-1	7.337457E-1	7.221154E-1	7.198680E-1	7.265883E-1	7.642419E-1	7.355461E-1	7.446232E-1	7.505813E-1	7.230717E-1	7.571571E-1	7.008666E-1	7.394202E-1	7.410129E-1	7.085941E-1	7.550559E-1	7.280045E-1	7.184053E-1	7.556377E-1	7.329820E-1	7.692108E-1	7.636661E-1	6.922011E-1	7.634086E-1	7.593558E-1	7.451953E-1	7.311258E-1	7.704987E-1	7.539282E-1	7.057791E-1	7.549098E-1	7.070701E-1	7.234113E-1	7.854727E-1	7.583895E-1	7.414440E-1	7.657220E-1	7.200191E-1	7.261800E-1	7.246723E-1	8.103385E-1	7.563383E-1	7.437163E-1	7.719690E-1	7.867398E-1	7.414685E-1	7.509526E-1	7.804803E-1	7.179872E-1	7.171590E-1	7.627523E-1	7.417327E-1	7.620339E-1	7.254501E-1	7.151129E-1	7.746045E-1	7.385567E-1	7.150245E-1	7.188510E-1	7.311817E-1	7.763056E-1	7.575435E-1	7.662065E-1	7.493392E-1	7.154056E-1	7.313787E-1	7.412103E-1	7.397622E-1	7.223957E-1	7.486111E-1	7.497108E-1	7.468143E-1	7.373471E-1	7.076295E-1
2.882210E+2	8.050258E-1	8.354477E-1	7.910740E-1	7.764506E-1	7.946073E-1	7.526419E-1	7.922911E-1	7.989622E-1	8.284437E-1	8.091323E-1	7.993243E-1	8.358934E-1	8.428297E-1	7.831011E-1	7.910653E-1	8.262646E-1	8.064691E-1	8.129501E-1	8.154254E-1	7.860616E-1	8.109381E-1	8.025395E-1	7.887012E-1	8.537700E-1	7.718637E-1	7.965708E-1	7.771807E-1	7.862629E-1	8.066610E-1	8.168333E-1	7.595002E-1	8.129824E-1	7.983846E-1	8.346882E-1	7.375692E-1	8.347696E-1	8.097963E-1	7.899365E-1	8.349175E-1	8.581412E-1	7.835088E-1	8.388826E-1	7.780413E-1	8.059541E-1	7.983294E-1	8.294840E-1	8.222850E-1	7.990076E-1	7.927042E-1	8.122862E-1	8.022807E-1	8.210309E-1	8.286717E-1	8.377033E-1	7.888664E-1	8.055943E-1	8.310123E-1	8.341480E-1	8.467225E-1	7.936288E-1	8.001830E-1	8.401825E-1	8.160341E-1	7.909515E-1	8.470147E-1	7.710588E-1	7.984506E-1	8.759560E-1	7.671546E-1	8.285729E-1	8.257258E-1	7.851230E-1	8.495920E-1	7.812178E-1	8.336766E-1	7.726289E-1	8.254531E-1	8.144836E-1	7.749657E-1	8.520598E-1	8.452681E-1	8.329084E-1	8.205049E-1	8.347886E-1	8.328998E-1	8.531871E-1	8.043048E-1	8.084624E-1	7.686341E-1	8.543419E-1	8.397502E-1	7.948467E-1	7.826145E-1	8.399622E-1	8.365432E-1	8.006447E-1	8.201935E-1	8.262308E-1	8.102741E-1	8.024288E-1	7.996609E-1	8.350787E-1	7.609704E-1	8.667475E-1	8.483201E-1	8.026593E-1	7.994660E-1	8.156522E-1	7.914191E-1	8.001650E-1	8.149078E-1	8.553211E-1	8.126182E-1	8.518238E-1	8.230175E-1	7.961285E-1	7.863102E-1	8.097947E-1	7.733987E-1	8.067250E-1	8.183422E-1	8.486205E-1	8.301397E-1	8.136443E-1	8.118446E-1	8.020853E-1	7.715512E-1	7.958866E-1	8.261002E-1	8.112176E-1	8.079128E-1	8.279234E-1	8.087322E-1	8.381380E-1	8.166049E-1	8.209247E-1	8.308525E-1	8.315398E-1	8.287937E-1	8.263281E-1	8.258193E-1	8.425018E-1	8.187325E-1	8.332736E-1	8.444345E-1	8.283262E-1	8.612394E-1	8.241354E-1	8.321129E-1	8.412259E-1	7.783604E-1	7.858710E-1	8.559300E-1	8.269850E-1	8.366277E-1	8.082185E-1	8.143157E-1	8.122497E-1	8.661452E-1	7.935281E-1	8.807556E-1	7.792197E-1	8.537703E-1	8.764952E-1	8.394555E-1	8.808984E-1
2.884090E+2	8.916920E-1	9.579998E-1	8.378677E-1	8.851664E-1	8.492413E-1	8.823852E-1	8.595491E-1	9.087772E-1	9.241872E-1	9.146523E-1	8.593514E-1	9.513836E-1	8.897219E-1	8.938772E-1	8.977043E-1	9.132171E-1	8.885572E-1	9.434038E-1	9.232469E-1	9.357348E-1	8.881558E-1	8.751095E-1	8.932323E-1	9.006431E-1	9.213345E-1	9.070937E-1	8.796799E-1	8.838310E-1	8.897591E-1	8.769927E-1	8.354213E-1	9.232067E-1	9.023456E-1	9.196429E-1	8.587721E-1	8.588904E-1	8.915347E-1	9.082223E-1	8.906633E-1	8.930656E-1	9.270289E-1	8.720458E-1	8.694348E-1	8.703382E-1	8.726831E-1	8.966837E-1	9.121860E-1	9.485489E-1	9.021707E-1	8.932669E-1	9.444566E-1	9.438945E-1	8.979057E-1	9.348304E-1	8.692122E-1	8.424216E-1	9.622747E-1	9.283381E-1	8.709345E-1	8.531402E-1	8.561739E-1	8.794852E-1	9.113067E-1	8.899222E-1	8.651209E-1	8.915577E-1	9.159705E-1	9.074697E-1	9.046644E-1	9.147308E-1	9.373781E-1	9.038413E-1	9.182182E-1	8.938166E-1	9.085459E-1	9.288584E-1	9.415576E-1	8.766915E-1	8.968481E-1	9.343584E-1	8.681704E-1	9.151327E-1	8.971341E-1	9.221437E-1	8.859065E-1	8.929486E-1	8.552902E-1	8.808026E-1	9.147543E-1	9.136523E-1	9.208607E-1	8.609986E-1	8.885705E-1	9.301258E-1	8.667319E-1	8.528919E-1	9.197358E-1	8.380881E-1	8.824345E-1	8.639486E-1	9.165388E-1	9.077159E-1	8.702299E-1	9.076720E-1	9.458170E-1	9.394871E-1	8.866882E-1	9.551752E-1	8.569969E-1	9.164771E-1	9.036074E-1	9.266815E-1	8.916174E-1	8.849590E-1	9.237581E-1	8.880911E-1	9.079605E-1	8.954405E-1	9.569945E-1	9.426694E-1	9.131573E-1	9.114040E-1	9.545125E-1	9.290204E-1	9.311365E-1	8.655490E-1	9.084632E-1	9.045943E-1	9.175055E-1	9.253347E-1	9.030737E-1	9.395776E-1	8.941503E-1	8.804680E-1	8.753472E-1	8.944585E-1	8.966900E-1	9.123271E-1	8.842453E-1	9.501920E-1	9.125619E-1	8.616279E-1	9.174037E-1	9.388123E-1	8.982971E-1	9.222140E-1	8.869143E-1	9.248942E-1	9.580647E-1	8.974177E-1	8.414800E-1	9.423034E-1	9.299430E-1	8.973837E-1	8.808176E-1	9.010543E-1	8.958432E-1	8.727875E-1	9.245311E-1	9.431109E-1	9.450841E-1	8.999206E-1	9.019954E-1	9.216818E-1	9.014125E-1	9.455259E-1
2.886010E+2	1.002073E+0	9.748927E-1	9.268123E-1	9.478544E-1	9.630795E-1	1.018129E+0	9.664611E-1	9.676294E-1	1.003925E+0	9.351655E-1	9.497668E-1	9.160706E-1	9.401440E-1	9.366892E-1	9.441933E-1	9.376141E-1	9.531141E-1	9.483145E-1	9.293855E-1	9.412594E-1	9.913075E-1	9.935798E-1	9.499848E-1	9.916950E-1	9.428931E-1	9.265504E-1	9.445879E-1	9.774834E-1	1.010036E+0	9.665729E-1	9.783330E-1	9.591935E-1	9.622829E-1	9.565714E-1	9.205603E-1	9.133380E-1	9.614133E-1	9.706555E-1	9.076558E-1	9.888377E-1	9.295777E-1	9.676256E-1	9.758107E-1	9.564285E-1	9.703001E-1	9.950293E-1	1.001161E+0	9.969019E-1	9.896796E-1	9.767847E-1	9.837218E-1	9.865349E-1	9.779563E-1	9.868982E-1	9.407742E-1	9.549951E-1	1.022139E+0	9.654635E-1	9.516409E-1	9.774551E-1	9.760111E-1	9.617538E-1	9.809537E-1	9.492269E-1	9.429343E-1	9.595530E-1	9.475744E-1	1.045207E+0	9.610600E-1	1.004452E+0	9.970946E-1	9.664895E-1	9.880282E-1	9.391418E-1	9.739843E-1	1.016202E+0	9.476304E-1	9.532919E-1	9.324666E-1	9.705182E-1	9.939140E-1	9.899667E-1	9.511123E-1	9.820852E-1	9.601605E-1	9.474520E-1	1.018078E+0	1.011369E+0	9.674385E-1	9.438091E-1	9.381312E-1	9.820878E-1	9.558165E-1	9.339290E-1	9.419700E-1	9.882533E-1	9.673631E-1	9.411175E-1	9.484505E-1	9.863282E-1	9.956919E-1	9.936510E-1	9.765075E-1	9.200646E-1	9.939393E-1	9.745049E-1	9.608076E-1	9.694959E-1	9.586631E-1	9.823294E-1	9.470173E-1	9.651811E-1	9.884716E-1	1.020459E+0	9.658841E-1	1.022735E+0	1.017652E+0	9.847363E-1	9.221222E-1	9.438101E-1	9.506120E-1	9.350285E-1	9.409245E-1	9.998646E-1	9.783410E-1	9.739534E-1	9.689316E-1	1.029479E+0	9.347735E-1	1.014186E+0	9.491498E-1	1.045918E+0	9.986916E-1	9.996995E-1	9.972809E-1	1.008850E+0	9.513130E-1	9.184707E-1	9.455183E-1	9.775002E-1	1.023943E+0	9.118185E-1	9.747035E-1	1.004411E+0	9.883795E-1	1.003433E+0	9.988403E-1	1.004847E+0	9.544006E-1	9.926980E-1	9.138512E-1	9.612534E-1	1.029199E+0	9.576816E-1	9.759724E-1	9.853085E-1	9.869341E-1	9.669359E-1	1.052880E+0	9.886685E-1	9.733769E-1	9.539110E-1	9.847143E-1	9.847408E-1	9.741827E-1	9.579283E-1
2.887980E+2	1.066180E+0	1.070411E+0	1.036873E+0	1.029795E+0	1.055221E+0	1.027024E+0	9.896445E-1	1.015283E+0	1.055315E+0	1.054784E+0	1.044622E+0	1.024575E+0	1.048326E+0	1.072283E+0	1.042247E+0	1.038719E+0	1.074560E+0	1.014052E+0	1.022294E+0	1.049237E+0	1.012557E+0	1.003559E+0	1.019559E+0	1.064182E+0	9.990559E-1	1.024848E+0	1.063838E+0	1.050281E+0	1.047832E+0	1.015058E+0	1.017895E+0	1.062602E+0	1.023143E+0	1.046022E+0	1.013718E+0	1.079639E+0	9.658277E-1	1.024008E+0	1.071224E+0	1.015291E+0	1.056844E+0	1.058234E+0	9.991010E-1	9.990688E-1	1.031546E+0	1.082215E+0	1.051587E+0	1.019932E+0	1.033443E+0	1.043216E+0	1.033702E+0	1.078135E+0	1.106984E+0	1.041090E+0	9.974619E-1	1.017480E+0	1.054654E+0	1.067906E+0	1.056168E+0	1.032851E+0	1.024995E+0	1.032297E+0	1.039783E+0	1.046645E+0	1.019849E+0	1.077535E+0	1.033149E+0	1.069953E+0	1.014249E+0	1.039058E+0	1.039004E+0	1.049859E+0	1.047720E+0	1.068547E+0	1.031437E+0	1.016005E+0	1.031006E+0	9.673348E-1	1.044052E+0	1.094874E+0	1.049589E+0	1.069974E+0	1.050351E+0	1.110459E+0	1.067970E+0	1.089365E+0	1.068681E+0	1.023197E+0	9.941062E-1	1.036564E+0	1.044543E+0	1.058792E+0	1.070727E+0	1.031524E+0	1.020255E+0	1.090319E+0	1.043179E+0	1.045520E+0	1.043001E+0	1.044463E+0	1.064301E+0	1.026388E+0	1.046422E+0	1.088551E+0	1.042957E+0	1.036981E+0	1.055631E+0	1.019994E+0	1.031698E+0	1.011357E+0	1.078950E+0	1.027084E+0	1.033905E+0	1.105183E+0	9.993893E-1	1.045034E+0	1.032699E+0	1.052353E+0	1.018689E+0	1.064702E+0	1.060644E+0	1.085884E+0	1.025631E+0	1.026538E+0	1.058273E+0	1.017241E+0	1.041793E+0	1.039789E+0	1.090330E+0	1.044028E+0	1.045157E+0	1.032988E+0	1.067237E+0	1.043381E+0	1.023981E+0	1.105711E+0	1.066590E+0	1.070518E+0	1.001752E+0	1.060848E+0	1.037547E+0	1.030624E+0	1.033414E+0	1.025470E+0	1.018226E+0	9.957943E-1	1.025186E+0	1.053159E+0	1.118946E+0	1.097701E+0	1.035877E+0	1.044901E+0	1.099962E+0	1.004335E+0	1.006208E+0	1.034236E+0	1.033668E+0	1.006338E+0	1.066494E+0	1.016467E+0	1.031595E+0	1.029494E+0	1.026728E+0	1.092862E+0	1.094341E+0	1.052984E+0
2.890110E+2	1.039107E+0	1.071868E+0	9.987393E-1	9.975209E-1	1.040754E+0	1.118295E+0	1.090234E+0	9.999418E-1	1.074391E+0	1.082549E+0	1.015998E+0	1.057761E+0	1.028224E+0	1.035528E+0	1.005638E+0	1.037857E+0	1.054650E+0	9.823946E-1	9.762715E-1	1.052809E+0	1.064957E+0	1.029077E+0	9.892645E-1	1.031555E+0	1.104751E+0	1.055444E+0	1.014108E+0	1.043043E+0	1.050100E+0	1.019072E+0	1.009062E+0	1.066206E+0	1.046381E+0	1.020787E+0	1.036789E+0	1.051523E+0	1.033337E+0	1.022953E+0	1.054415E+0	1.022124E+0	1.075676E+0	1.030468E+0	1.036926E+0	1.018493E+0	1.011421E+0	1.063081E+0	1.112623E+0	1.036426E+0	1.008825E+0	1.007374E+0	1.081373E+0	1.084998E+0	1.080862E+0	9.915629E-1	1.042644E+0	1.033791E+0	1.053843E+0	1.074626E+0	1.046978E+0	9.983303E-1	1.002302E+0	1.060626E+0	1.073195E+0	1.038125E+0	1.036448E+0	1.061160E+0	1.038079E+0	1.089346E+0	1.011845E+0	1.086644E+0	1.053042E+0	1.041657E+0	1.017968E+0	1.040909E+0	1.065308E+0	1.079910E+0	1.052746E+0	1.060842E+0	1.035316E+0	1.115917E+0	1.127929E+0	1.040020E+0	1.044519E+0	1.117323E+0	1.123490E+0	9.932422E-1	9.940069E-1	1.073605E+0	1.060171E+0	1.044347E+0	1.028300E+0	1.066684E+0	1.035082E+0	9.789876E-1	1.034639E+0	1.083283E+0	1.040144E+0	1.004459E+0	1.022014E+0	1.018339E+0	1.023202E+0	1.062453E+0	1.058954E+0	1.016270E+0	1.064331E+0	9.776250E-1	9.353922E-1	1.056621E+0	1.046087E+0	1.043756E+0	1.008889E+0	1.024626E+0	1.075728E+0	1.080099E+0	1.035623E+0	1.074922E+0	1.016332E+0	9.877386E-1	1.071592E+0	1.026834E+0	1.086880E+0	1.026613E+0	1.024023E+0	1.064259E+0	1.047117E+0	1.040386E+0	1.048783E+0	1.008972E+0	1.084549E+0	1.033907E+0	1.056403E+0	1.087957E+0	1.023015E+0	1.048933E+0	1.070255E+0	1.049662E+0	1.071520E+0	1.026441E+0	1.075418E+0	1.033880E+0	9.989718E-1	1.012389E+0	1.038652E+0	1.070906E+0	1.027175E+0	1.044093E+0	1.037321E+0	1.019639E+0	1.119178E+0	1.080282E+0	1.055687E+0	1.059074E+0	1.049782E+0	1.074982E+0	1.027612E+0	1.001564E+0	1.079105E+0	1.005030E+0	1.129856E+0	1.112736E+0	1.096689E+0	1.061742E+0	1.103438E+0	1.078821E+0	1.100436E+0	1.065571E+0
2.892050E+2	9.730068E-1	1.032898E+0	9.906402E-1	9.159434E-1	9.361713E-1	9.907544E-1	1.013341E+0	1.003467E+0	1.003519E+0	1.000181E+0	9.647764E-1	9.457223E-1	9.696860E-1	9.302065E-1	9.973984E-1	9.759517E-1	1.019803E+0	9.454214E-1	9.908229E-1	1.021103E+0	9.887255E-1	9.422836E-1	9.286386E-1	9.992566E-1	1.011486E+0	1.007039E+0	1.018665E+0	9.971759E-1	1.001810E+0	1.010988E+0	9.556123E-1	9.414591E-1	9.311113E-1	9.229586E-1	9.483801E-1	9.525091E-1	1.004472E+0	9.562410E-1	9.635234E-1	9.615911E-1	1.041006E+0	9.956106E-1	9.607562E-1	9.174157E-1	9.421421E-1	9.570055E-1	9.634242E-1	9.543862E-1	9.673467E-1	9.561891E-1	9.365015E-1	1.003139E+0	1.061998E+0	9.755336E-1	9.970112E-1	9.600184E-1	1.026111E+0	1.020453E+0	9.686616E-1	9.712141E-1	9.840933E-1	9.689804E-1	9.605391E-1	9.974081E-1	1.032195E+0	9.904608E-1	9.830464E-1	1.015397E+0	9.908913E-1	9.677089E-1	9.919166E-1	9.503323E-1	1.017510E+0	9.342586E-1	9.735847E-1	1.055698E+0	9.502967E-1	9.257333E-1	9.924270E-1	1.009449E+0	9.955126E-1	9.458329E-1	1.011248E+0	1.010854E+0	9.733017E-1	1.029053E+0	9.790232E-1	9.465626E-1	1.017836E+0	1.007779E+0	9.610303E-1	9.790292E-1	9.788077E-1	9.437800E-1	9.691348E-1	1.007330E+0	9.838435E-1	9.737835E-1	9.753956E-1	9.957257E-1	1.028088E+0	9.854539E-1	9.482044E-1	9.908557E-1	1.032193E+0	9.519971E-1	9.152242E-1	1.032990E+0	9.575568E-1	9.679161E-1	9.512537E-1	9.553302E-1	9.764428E-1	1.005375E+0	9.544226E-1	9.903433E-1	9.803120E-1	9.955568E-1	9.437892E-1	9.761493E-1	1.019826E+0	9.763246E-1	9.983480E-1	1.004365E+0	9.796122E-1	9.738664E-1	9.745505E-1	9.885878E-1	9.723355E-1	9.961804E-1	9.338000E-1	9.867750E-1	1.027437E+0	9.909410E-1	9.712696E-1	1.029058E+0	9.589274E-1	9.515042E-1	9.908883E-1	9.416314E-1	9.580849E-1	9.726102E-1	9.644500E-1	1.038237E+0	9.894018E-1	9.822604E-1	9.897772E-1	9.583953E-1	1.023147E+0	9.829537E-1	9.575094E-1	1.035632E+0	1.030343E+0	9.655422E-1	9.546025E-1	1.008606E+0	9.885254E-1	9.762198E-1	9.950255E-1	1.008104E+0	9.770044E-1	9.479545E-1	1.003629E+0	9.847958E-1	9.378174E-1	9.036452E-1
2.894040E+2	8.665259E-1	9.066921E-1	8.359676E-1	8.958250E-1	8.449266E-1	9.028605E-1	8.602740E-1	8.777824E-1	8.822601E-1	9.395194E-1	8.596365E-1	8.670536E-1	8.246382E-1	8.689233E-1	8.859839E-1	9.223198E-1	8.682141E-1	8.629977E-1	8.711778E-1	8.694370E-1	8.822449E-1	8.653843E-1	8.827195E-1	8.686736E-1	9.229437E-1	8.753085E-1	9.181326E-1	9.071446E-1	8.597756E-1	8.439124E-1	8.687818E-1	8.950259E-1	8.306828E-1	9.101188E-1	8.528331E-1	8.713457E-1	8.952741E-1	8.988308E-1	8.481726E-1	8.533445E-1	8.803899E-1	8.696987E-1	8.809077E-1	9.517475E-1	8.832114E-1	9.667367E-1	9.386284E-1	8.500005E-1	8.916721E-1	8.797131E-1	9.062346E-1	9.000675E-1	8.670007E-1	9.228353E-1	8.813417E-1	8.523620E-1	8.875111E-1	8.635557E-1	8.588785E-1	9.459621E-1	8.722419E-1	8.633452E-1	8.928610E-1	8.793037E-1	9.186474E-1	8.610875E-1	9.229826E-1	9.268962E-1	9.312892E-1	9.288576E-1	9.253723E-1	9.204735E-1	8.668272E-1	8.727851E-1	8.928339E-1	9.030771E-1	8.667526E-1	8.623731E-1	8.522458E-1	9.111968E-1	8.936852E-1	8.762242E-1	8.723768E-1	9.875368E-1	8.777982E-1	8.728423E-1	8.880841E-1	9.557024E-1	8.533527E-1	9.372021E-1	8.559241E-1	8.983077E-1	8.622063E-1	8.959972E-1	8.660278E-1	9.329384E-1	9.074674E-1	8.580246E-1	8.783623E-1	9.081750E-1	8.959699E-1	8.981442E-1	8.774633E-1	9.153272E-1	8.998701E-1	8.358138E-1	8.712209E-1	9.199170E-1	8.899441E-1	8.699742E-1	8.986227E-1	9.197969E-1	8.848378E-1	8.933397E-1	8.746191E-1	8.610074E-1	9.102653E-1	8.676878E-1	8.689428E-1	9.457230E-1	9.208569E-1	9.066849E-1	9.028764E-1	8.901339E-1	9.389166E-1	8.916366E-1	8.631989E-1	8.749169E-1	8.809231E-1	8.518361E-1	8.423162E-1	9.010746E-1	9.339222E-1	8.829193E-1	9.113455E-1	9.153759E-1	9.026468E-1	8.963379E-1	8.986407E-1	8.611807E-1	8.237356E-1	8.658082E-1	8.926094E-1	8.841204E-1	8.691105E-1	8.885800E-1	8.940187E-1	8.740594E-1	9.144050E-1	8.828371E-1	9.032282E-1	9.025228E-1	8.725675E-1	8.939153E-1	8.792296E-1	9.312210E-1	8.970670E-1	9.154075E-1	9.317359E-1	8.765067E-1	8.594529E-1	9.292607E-1	9.166046E-1	8.863043E-1	8.431071E-1	8.836111E-1
2.896030E+2	6.906366E-1	7.945753E-1	7.091899E-1	7.261966E-1	7.436688E-1	7.835182E-1	7.673497E-1	7.514760E-1	7.484078E-1	8.102119E-1	7.590789E-1	7.955140E-1	7.445785E-1	7.259162E-1	7.721899E-1	7.616947E-1	8.176161E-1	7.627719E-1	7.828681E-1	7.783666E-1	7.681666E-1	8.018549E-1	7.708680E-1	7.927262E-1	7.523419E-1	7.387443E-1	7.682121E-1	7.643952E-1	7.931097E-1	7.790433E-1	7.482243E-1	7.554811E-1	7.708597E-1	7.588309E-1	7.583085E-1	7.622823E-1	7.620402E-1	7.491080E-1	7.630666E-1	7.409917E-1	7.528133E-1	7.814783E-1	7.380723E-1	7.273066E-1	7.771969E-1	7.355740E-1	7.985412E-1	7.788184E-1	7.826536E-1	7.981254E-1	7.850002E-1	8.126006E-1	7.893187E-1	7.678348E-1	7.223898E-1	7.422663E-1	7.468877E-1	7.673477E-1	7.780800E-1	7.428260E-1	7.809938E-1	7.495272E-1	7.833691E-1	7.622643E-1	7.424096E-1	7.712260E-1	7.175837E-1	7.735207E-1	7.534062E-1	7.812576E-1	7.627045E-1	7.480842E-1	7.953391E-1	7.178242E-1	7.784881E-1	8.387552E-1	7.753640E-1	7.610547E-1	7.948617E-1	7.817978E-1	8.002195E-1	7.780592E-1	7.758748E-1	8.512692E-1	7.276401E-1	7.776815E-1	7.360542E-1	7.959089E-1	7.759699E-1	7.959319E-1	7.843405E-1	8.024517E-1	7.427540E-1	8.098191E-1	7.731565E-1	7.888641E-1	7.415176E-1	7.838651E-1	7.887933E-1	7.534656E-1	8.067950E-1	7.019586E-1	7.674406E-1	7.761361E-1	8.322371E-1	7.142354E-1	7.693633E-1	7.675770E-1	7.349880E-1	8.351771E-1	7.533106E-1	7.603878E-1	7.550715E-1	7.797558E-1	7.676509E-1	8.427341E-1	7.589483E-1	7.510742E-1	7.767216E-1	7.814646E-1	8.093271E-1	7.888021E-1	7.853296E-1	7.579396E-1	7.776691E-1	7.561695E-1	7.691962E-1	7.991723E-1	7.804215E-1	7.428066E-1	7.153975E-1	8.108469E-1	7.838188E-1	7.478612E-1	7.643973E-1	7.586950E-1	7.765771E-1	7.649682E-1	7.446046E-1	7.993314E-1	7.842655E-1	7.973521E-1	7.894530E-1	7.527413E-1	7.260945E-1	7.387231E-1	7.658367E-1	7.812875E-1	7.628823E-1	7.822020E-1	7.800875E-1	7.474274E-1	7.491429E-1	7.642307E-1	7.725390E-1	7.717082E-1	7.446865E-1	7.635041E-1	7.473286E-1	7.901488E-1	7.550626E-1	8.015176E-1	7.241340E-1	7.635740E-1	8.182356E-1	8.441797E-1
2.898030E+2	8.447689E-1	8.813958E-1	7.628981E-1	7.889453E-1	8.416455E-1	8.445723E-1	8.247095E-1	8.342246E-1	8.038350E-1	8.378563E-1	8.719048E-1	8.457256E-1	8.244670E-1	7.959264E-1	8.570931E-1	8.022520E-1	8.389590E-1	8.436789E-1	8.359901E-1	8.424888E-1	8.252578E-1	7.960865E-1	8.363946E-1	7.910360E-1	8.492354E-1	8.067621E-1	8.110747E-1	7.832877E-1	8.367049E-1	7.855617E-1	7.966273E-1	8.160413E-1	8.331641E-1	8.586558E-1	8.008414E-1	8.395674E-1	8.130318E-1	8.393576E-1	7.779675E-1	8.179303E-1	8.052028E-1	7.955940E-1	8.469831E-1	8.108326E-1	8.463285E-1	8.313939E-1	8.583356E-1	8.518984E-1	8.558132E-1	8.734568E-1	8.132205E-1	8.428882E-1	8.638431E-1	8.475302E-1	8.364209E-1	8.069174E-1	8.227576E-1	8.427791E-1	8.554539E-1	8.323413E-1	7.915406E-1	8.014958E-1	8.335045E-1	8.136066E-1	8.210941E-1	7.897899E-1	8.377437E-1	8.395411E-1	8.226528E-1	8.385336E-1	8.126258E-1	8.404984E-1	8.221841E-1	8.009196E-1	8.040171E-1	8.482373E-1	8.314649E-1	8.266464E-1	8.044875E-1	8.218034E-1	8.622529E-1	8.383226E-1	7.976132E-1	8.294231E-1	8.310256E-1	8.556026E-1	7.718557E-1	8.135593E-1	7.928939E-1	8.075348E-1	8.465135E-1	8.504242E-1	8.238698E-1	8.248578E-1	8.405066E-1	8.072251E-1	8.118311E-1	8.720496E-1	8.437007E-1	8.365177E-1	8.618880E-1	8.212781E-1	8.407314E-1	8.630889E-1	8.599728E-1	8.191891E-1	7.976266E-1	8.213701E-1	8.133093E-1	8.123847E-1	8.220335E-1	8.345428E-1	8.289162E-1	8.519561E-1	8.150117E-1	8.131789E-1	8.216169E-1	8.528672E-1	7.899859E-1	8.056425E-1	8.243313E-1	7.855603E-1	8.050309E-1	8.615391E-1	8.463155E-1	8.888281E-1	8.427581E-1	8.771251E-1	8.346707E-1	8.269605E-1	7.907426E-1	8.532505E-1	8.169383E-1	8.569885E-1	8.323815E-1	8.525025E-1	8.096711E-1	7.890180E-1	8.292438E-1	8.395308E-1	8.174545E-1	8.502959E-1	8.327110E-1	8.359456E-1	8.459706E-1	8.386323E-1	8.096281E-1	8.432371E-1	8.457925E-1	8.308292E-1	8.374847E-1	8.102852E-1	8.963306E-1	8.640196E-1	8.350899E-1	8.197425E-1	8.577916E-1	8.426426E-1	8.466488E-1	8.798712E-1	8.152073E-1	8.116314E-1	8.349968E-1	8.577034E-1	8.252285E-1	7.894968E-1
2.900020E+2	8.360155E-1	8.169976E-1	7.897977E-1	8.173311E-1	8.078003E-1	8.084605E-1	8.204268E-1	7.990231E-1	8.143088E-1	8.568701E-1	8.131431E-1	8.111014E-1	8.240842E-1	8.374173E-1	8.121100E-1	8.546720E-1	8.059315E-1	8.069898E-1	7.688601E-1	8.530238E-1	8.277528E-1	8.232202E-1	8.070714E-1	8.241590E-1	8.422159E-1	7.860012E-1	8.101295E-1	8.014321E-1	8.021171E-1	8.749853E-1	8.829974E-1	7.863371E-1	8.035773E-1	8.256986E-1	8.258762E-1	7.766044E-1	8.125653E-1	8.237865E-1	7.809893E-1	8.228879E-1	8.381482E-1	7.729677E-1	8.284631E-1	7.952169E-1	8.018039E-1	8.361330E-1	8.663328E-1	8.279188E-1	8.216644E-1	8.046246E-1	8.301657E-1	7.871173E-1	8.116515E-1	8.085676E-1	7.970177E-1	8.207808E-1	8.303502E-1	8.128433E-1	8.041697E-1	8.499069E-1	8.240705E-1	8.188646E-1	8.243185E-1	8.672075E-1	8.201352E-1	8.113411E-1	8.171317E-1	7.966969E-1	8.243701E-1	8.064263E-1	8.445543E-1	8.129374E-1	8.499120E-1	8.388929E-1	8.286224E-1	8.215165E-1	7.834880E-1	8.267335E-1	8.237995E-1	8.464355E-1	7.981649E-1	8.270702E-1	7.682277E-1	8.102751E-1	8.272540E-1	8.074847E-1	8.474843E-1	8.065824E-1	8.272123E-1	8.331543E-1	8.657479E-1	8.015198E-1	7.581292E-1	8.577653E-1	8.093777E-1	8.381634E-1	8.371715E-1	8.594105E-1	8.455383E-1	8.395639E-1	8.758184E-1	8.051578E-1	8.570313E-1	8.618863E-1	8.365430E-1	8.104995E-1	8.543309E-1	8.372499E-1	8.440830E-1	8.328658E-1	8.416412E-1	8.316932E-1	8.554973E-1	8.034961E-1	8.413878E-1	8.215319E-1	8.081504E-1	8.327576E-1	8.251235E-1	8.180748E-1	8.727446E-1	8.429442E-1	8.175918E-1	8.263862E-1	8.281207E-1	8.249262E-1	8.023749E-1	8.422632E-1	8.148851E-1	8.476630E-1	8.682309E-1	8.200705E-1	8.337296E-1	8.629382E-1	7.937621E-1	8.493270E-1	8.718349E-1	7.997214E-1	8.308242E-1	7.968557E-1	8.316060E-1	7.978470E-1	8.222048E-1	8.535671E-1	8.414836E-1	8.435665E-1	8.300362E-1	8.005336E-1	7.831459E-1	7.860704E-1	8.259426E-1	8.503868E-1	8.337362E-1	8.124253E-1	8.409736E-1	8.284083E-1	8.623969E-1	7.659774E-1	8.342774E-1	7.971443E-1	8.000940E-1	8.778885E-1	7.977089E-1	8.909734E-1	8.093669E-1	7.141062E-1
2.905110E+2	7.919245E-1	7.810866E-1	7.432074E-1	6.918366E-1	7.668808E-1	8.074009E-1	7.358093E-1	7.768239E-1	7.605804E-1	8.005708E-1	7.408491E-1	7.374339E-1	7.698698E-1	7.679459E-1	7.680629E-1	7.296263E-1	7.645817E-1	7.816664E-1	7.972133E-1	7.220111E-1	7.389360E-1	7.604525E-1	7.663676E-1	7.444582E-1	7.745003E-1	7.866341E-1	7.527583E-1	7.944698E-1	8.155227E-1	7.766140E-1	7.414288E-1	7.838037E-1	7.742440E-1	7.740580E-1	7.991049E-1	7.699197E-1	7.263171E-1	7.627151E-1	7.724871E-1	7.687814E-1	7.387669E-1	7.623565E-1	7.570061E-1	7.579137E-1	7.821645E-1	7.431463E-1	8.077182E-1	7.742136E-1	7.942916E-1	8.062041E-1	7.375070E-1	8.307375E-1	7.676185E-1	7.792458E-1	7.430435E-1	7.130892E-1	8.127677E-1	7.491104E-1	7.498499E-1	8.181977E-1	7.770738E-1	7.863906E-1	8.258031E-1	7.656050E-1	7.867696E-1	7.343354E-1	7.433720E-1	7.738880E-1	7.865266E-1	7.910026E-1	7.802190E-1	7.365751E-1	7.937475E-1	7.892462E-1	7.596219E-1	8.289655E-1	7.338120E-1	7.271257E-1	7.732011E-1	8.055044E-1	8.001501E-1	7.864584E-1	7.798440E-1	7.829660E-1	7.561779E-1	7.810271E-1	7.633472E-1	7.438974E-1	7.868897E-1	7.903496E-1	8.139273E-1	7.801929E-1	7.811947E-1	7.284261E-1	7.500251E-1	7.801336E-1	7.612874E-1	7.412987E-1	8.065436E-1	7.581764E-1	7.708122E-1	7.841959E-1	7.833624E-1	7.204321E-1	8.144679E-1	7.951649E-1	7.683238E-1	7.842895E-1	7.616368E-1	7.461017E-1	7.854808E-1	7.880032E-1	7.624186E-1	7.743936E-1	7.418939E-1	7.767112E-1	7.730625E-1	7.901819E-1	7.830757E-1	8.010771E-1	7.799099E-1	7.871700E-1	7.706142E-1	7.528396E-1	7.871751E-1	7.298808E-1	7.570360E-1	7.181441E-1	7.779247E-1	7.278380E-1	8.123254E-1	8.066119E-1	8.125634E-1	7.674025E-1	7.606370E-1	7.517255E-1	7.688158E-1	7.891309E-1	7.938729E-1	7.298336E-1	7.398209E-1	7.985075E-1	7.652687E-1	7.932318E-1	8.119091E-1	7.909166E-1	7.515849E-1	7.873752E-1	7.970623E-1	7.769055E-1	7.587145E-1	7.896355E-1	8.087746E-1	7.693748E-1	7.284286E-1	7.772691E-1	7.620684E-1	8.061294E-1	8.124309E-1	7.771987E-1	8.200876E-1	7.535950E-1	8.346780E-1	7.957517E-1	8.162356E-1	8.136929E-1
2.910060E+2	8.341716E-1	8.333095E-1	8.467589E-1	7.691726E-1	8.695850E-1	8.345136E-1	7.739211E-1	8.195193E-1	9.025116E-1	8.530053E-1	7.995052E-1	8.118714E-1	7.580767E-1	8.258162E-1	8.357629E-1	7.908800E-1	8.384502E-1	8.171245E-1	8.191393E-1	8.148007E-1	8.458620E-1	8.821347E-1	7.782087E-1	8.010081E-1	8.383468E-1	8.092331E-1	7.991422E-1	8.322968E-1	8.648773E-1	8.092841E-1	8.148597E-1	8.013314E-1	8.099804E-1	8.036806E-1	8.159175E-1	8.246681E-1	8.138740E-1	8.322773E-1	8.093573E-1	8.264321E-1	8.208866E-1	8.160573E-1	8.044261E-1	7.899503E-1	8.356239E-1	8.042994E-1	8.367681E-1	7.757865E-1	8.717200E-1	8.731471E-1	8.330942E-1	8.844869E-1	8.143652E-1	8.511097E-1	8.170686E-1	7.636925E-1	8.434351E-1	8.476940E-1	7.997953E-1	8.186691E-1	8.145954E-1	8.700403E-1	8.070958E-1	8.294433E-1	8.364246E-1	8.447997E-1	7.777492E-1	8.283879E-1	8.315727E-1	8.513512E-1	8.488847E-1	8.367871E-1	8.285653E-1	8.030231E-1	8.400339E-1	8.433145E-1	8.326458E-1	7.789637E-1	8.124136E-1	8.264902E-1	8.214451E-1	8.072514E-1	7.962683E-1	8.561485E-1	7.821390E-1	8.498288E-1	8.235502E-1	8.322658E-1	8.146768E-1	8.654799E-1	8.099341E-1	8.008214E-1	8.169551E-1	8.548815E-1	7.805724E-1	8.036660E-1	8.657269E-1	8.766450E-1	8.024350E-1	8.656235E-1	8.655171E-1	8.201409E-1	8.170567E-1	8.467162E-1	8.754053E-1	8.107510E-1	7.719104E-1	8.037098E-1	8.649267E-1	8.261366E-1	8.152792E-1	8.007763E-1	8.657249E-1	8.541975E-1	8.200245E-1	8.010217E-1	8.360704E-1	8.673242E-1	7.968577E-1	8.643846E-1	8.313548E-1	8.599355E-1	8.119309E-1	8.057592E-1	7.782899E-1	8.405167E-1	8.355765E-1	8.211709E-1	8.233657E-1	8.423459E-1	8.290453E-1	8.184968E-1	8.486897E-1	8.324886E-1	8.139786E-1	8.352817E-1	8.315605E-1	8.322582E-1	8.443153E-1	8.350555E-1	8.057893E-1	8.126956E-1	8.234866E-1	8.470136E-1	8.559645E-1	8.331475E-1	8.319720E-1	9.094882E-1	8.457164E-1	8.496050E-1	7.952561E-1	8.533195E-1	8.760787E-1	8.307813E-1	8.383607E-1	8.077537E-1	8.270960E-1	8.282965E-1	8.945741E-1	8.467738E-1	8.481806E-1	8.566980E-1	8.525470E-1	8.129795E-1	7.942853E-1	8.148477E-1
2.915070E+2	1.047045E+0	1.046401E+0	1.039079E+0	1.004058E+0	1.065861E+0	1.017759E+0	9.780737E-1	1.065210E+0	1.022287E+0	1.015000E+0	9.858811E-1	1.024698E+0	1.046261E+0	1.045141E+0	1.037373E+0	1.012923E+0	1.060270E+0	1.006832E+0	1.064560E+0	1.032730E+0	1.001939E+0	1.051188E+0	1.048658E+0	9.470578E-1	9.932492E-1	1.003921E+0	1.025816E+0	1.046600E+0	1.061817E+0	1.019246E+0	1.044268E+0	1.011597E+0	9.943302E-1	9.856307E-1	9.612540E-1	1.030720E+0	1.025850E+0	1.025001E+0	1.007565E+0	9.965281E-1	1.064610E+0	1.064360E+0	1.031662E+0	1.006586E+0	1.006642E+0	1.047436E+0	1.060380E+0	1.046108E+0	1.015342E+0	1.025466E+0	1.024526E+0	1.089860E+0	1.015804E+0	1.042569E+0	1.027428E+0	1.018492E+0	1.042329E+0	1.062662E+0	1.019501E+0	1.053972E+0	1.001268E+0	1.032359E+0	1.033909E+0	1.027763E+0	1.023669E+0	1.022300E+0	9.863854E-1	1.008054E+0	9.902695E-1	1.049490E+0	1.026056E+0	1.039219E+0	1.097661E+0	1.018040E+0	1.005672E+0	1.046725E+0	1.003726E+0	1.020671E+0	1.026162E+0	1.036255E+0	1.085723E+0	1.048712E+0	9.853472E-1	1.041559E+0	1.112615E+0	1.037663E+0	1.030850E+0	9.836171E-1	9.974060E-1	1.084832E+0	1.045355E+0	1.019010E+0	9.826517E-1	1.010276E+0	9.768073E-1	1.031062E+0	1.051559E+0	1.026534E+0	1.015798E+0	1.018816E+0	1.028563E+0	1.022066E+0	1.026619E+0	9.942508E-1	1.070376E+0	9.988433E-1	9.728356E-1	1.012995E+0	1.023750E+0	1.044380E+0	1.067077E+0	1.010037E+0	1.002220E+0	1.016631E+0	9.716763E-1	1.049638E+0	1.045834E+0	1.038375E+0	1.004432E+0	1.045415E+0	1.013027E+0	1.045865E+0	1.044772E+0	1.010885E+0	1.077595E+0	1.026629E+0	1.051348E+0	1.091889E+0	1.029759E+0	1.056618E+0	1.037529E+0	9.671478E-1	1.059094E+0	1.051171E+0	1.044933E+0	1.003177E+0	1.055079E+0	1.016307E+0	1.022774E+0	1.021752E+0	1.014957E+0	1.012517E+0	1.026478E+0	1.069794E+0	1.051753E+0	1.030438E+0	1.005761E+0	1.099080E+0	1.049345E+0	1.001410E+0	1.070231E+0	1.039391E+0	9.977418E-1	1.007333E+0	1.044034E+0	1.057883E+0	1.034275E+0	1.024479E+0	1.098244E+0	1.024194E+0	1.006598E+0	1.031185E+0	1.004279E+0	1.038770E+0	1.064961E+0	1.059805E+0
2.920030E+2	9.449646E-1	1.037900E+0	1.027558E+0	9.519772E-1	1.038137E+0	1.057527E+0	9.990947E-1	1.008413E+0	9.747184E-1	9.913701E-1	9.737564E-1	1.005358E+0	1.023033E+0	9.972734E-1	1.009339E+0	9.932874E-1	1.061986E+0	1.004844E+0	1.010870E+0	1.048131E+0	9.485525E-1	1.043005E+0	1.009828E+0	1.022950E+0	1.038618E+0	9.551210E-1	1.054472E+0	1.042924E+0	1.039991E+0	1.018863E+0	9.805461E-1	9.867149E-1	1.017533E+0	1.046691E+0	1.005760E+0	9.805085E-1	1.042120E+0	1.018036E+0	1.044035E+0	9.646590E-1	1.058189E+0	1.026504E+0	1.059111E+0	1.005320E+0	1.047444E+0	9.996552E-1	9.921155E-1	1.040480E+0	9.841931E-1	1.035985E+0	9.609117E-1	1.030896E+0	1.075338E+0	1.044487E+0	1.067768E+0	1.012735E+0	1.063149E+0	1.045889E+0	1.090381E+0	9.418499E-1	9.820760E-1	1.008815E+0	9.969301E-1	9.979761E-1	1.001824E+0	9.978123E-1	9.932474E-1	1.051746E+0	1.013692E+0	1.038059E+0	1.024430E+0	1.074332E+0	1.086804E+0	1.006812E+0	1.024751E+0	1.008116E+0	1.045302E+0	9.918780E-1	1.000758E+0	1.075760E+0	1.077338E+0	9.930324E-1	1.011355E+0	1.122139E+0	9.951065E-1	1.036296E+0	1.029040E+0	1.059607E+0	9.932864E-1	1.013136E+0	1.049221E+0	1.012855E+0	1.075640E+0	1.007159E+0	9.856513E-1	9.595427E-1	9.884330E-1	1.047616E+0	1.049485E+0	1.008833E+0	1.039435E+0	1.055485E+0	1.035624E+0	1.011129E+0	1.086816E+0	1.001353E+0	1.030790E+0	1.074741E+0	1.036669E+0	1.002967E+0	1.085754E+0	1.000487E+0	1.015886E+0	1.043940E+0	1.065466E+0	1.002718E+0	1.002943E+0	1.013571E+0	9.569436E-1	1.032923E+0	1.060886E+0	9.968518E-1	9.991981E-1	1.005960E+0	1.071645E+0	1.037453E+0	9.590394E-1	1.038168E+0	1.031447E+0	9.829848E-1	9.816636E-1	1.014980E+0	1.014007E+0	1.018101E+0	1.071206E+0	1.054420E+0	1.075132E+0	9.940341E-1	1.130194E+0	1.021947E+0	1.040933E+0	9.981981E-1	1.055579E+0	1.042673E+0	1.066241E+0	1.064967E+0	1.033845E+0	1.049948E+0	1.130981E+0	9.662670E-1	9.348578E-1	9.954498E-1	1.067292E+0	1.034016E+0	1.052509E+0	1.061502E+0	1.049587E+0	1.049788E+0	1.016338E+0	1.009733E+0	1.006943E+0	1.019365E+0	1.007492E+0	1.019976E+0	1.028820E+0	1.042446E+0
2.925020E+2	1.125477E+0	1.116724E+0	1.069441E+0	1.031568E+0	1.095326E+0	1.122700E+0	1.078951E+0	1.116337E+0	1.057334E+0	1.171286E+0	1.126018E+0	1.105760E+0	1.080340E+0	1.108988E+0	1.100770E+0	1.123081E+0	1.089459E+0	1.108774E+0	1.121618E+0	1.083012E+0	1.065582E+0	1.087917E+0	1.093000E+0	1.079691E+0	1.072707E+0	1.070659E+0	1.016765E+0	1.140149E+0	1.107722E+0	1.097471E+0	1.120501E+0	1.078059E+0	1.077482E+0	1.077883E+0	1.068776E+0	1.118690E+0	1.145297E+0	1.050231E+0	1.079653E+0	1.105030E+0	1.125792E+0	1.079232E+0	1.050525E+0	1.078346E+0	1.127220E+0	1.088995E+0	1.048028E+0	1.066344E+0	1.157152E+0	1.074789E+0	1.134745E+0	1.072895E+0	1.111209E+0	1.127316E+0	1.124015E+0	1.088814E+0	1.129017E+0	1.088285E+0	1.065759E+0	1.091571E+0	1.083191E+0	1.099864E+0	1.057107E+0	1.052526E+0	1.088953E+0	1.052221E+0	1.068720E+0	1.086704E+0	1.060325E+0	1.101383E+0	1.109327E+0	1.099300E+0	1.064751E+0	1.128172E+0	1.104104E+0	1.116177E+0	1.052820E+0	1.082305E+0	1.100806E+0	1.108614E+0	1.099843E+0	1.167583E+0	1.030240E+0	1.112911E+0	1.107771E+0	1.071353E+0	1.098467E+0	1.086316E+0	1.023087E+0	1.133122E+0	1.085066E+0	1.096041E+0	1.092860E+0	1.076014E+0	1.073192E+0	1.073859E+0	1.067918E+0	1.084252E+0	1.113267E+0	1.105050E+0	1.140108E+0	1.051451E+0	1.050015E+0	1.180209E+0	1.216036E+0	1.082026E+0	1.061550E+0	1.124671E+0	1.137151E+0	1.172730E+0	1.146981E+0	1.137787E+0	1.119451E+0	1.118793E+0	1.091176E+0	1.082706E+0	1.127812E+0	1.069591E+0	1.103796E+0	1.108626E+0	1.093764E+0	1.065057E+0	1.107910E+0	1.085119E+0	1.110867E+0	1.027435E+0	1.102198E+0	1.117773E+0	1.134579E+0	1.075713E+0	1.095452E+0	1.105493E+0	1.076315E+0	1.124386E+0	1.060247E+0	1.124424E+0	1.110988E+0	1.063423E+0	1.066361E+0	1.076250E+0	1.079832E+0	1.068675E+0	1.165229E+0	1.139504E+0	1.123369E+0	1.154215E+0	1.085378E+0	1.112986E+0	1.090005E+0	1.106420E+0	1.011529E+0	1.127139E+0	1.150094E+0	1.072606E+0	1.074823E+0	1.158789E+0	1.077021E+0	1.071544E+0	1.181569E+0	1.090251E+0	1.161960E+0	1.099993E+0	1.109805E+0	1.028419E+0	1.070115E+0	1.058013E+0
2.930050E+2	1.080254E+0	1.099274E+0	1.050851E+0	1.032050E+0	1.089082E+0	1.137343E+0	1.056250E+0	1.159780E+0	1.088072E+0	1.083732E+0	1.098196E+0	1.038777E+0	1.125965E+0	1.075857E+0	1.097414E+0	1.068262E+0	1.059026E+0	1.075002E+0	1.053277E+0	1.074248E+0	1.072358E+0	1.075182E+0	1.054343E+0	1.134559E+0	1.073011E+0	1.071211E+0	1.062015E+0	1.066272E+0	1.119539E+0	1.119223E+0	1.109832E+0	1.091763E+0	1.084273E+0	1.079406E+0	1.074780E+0	1.106139E+0	1.039710E+0	1.081177E+0	1.115364E+0	1.026927E+0	1.081847E+0	1.095743E+0	1.053904E+0	1.051694E+0	1.097337E+0	1.096069E+0	1.175970E+0	1.143599E+0	1.115129E+0	1.180990E+0	1.071712E+0	1.130113E+0	1.051798E+0	1.082386E+0	1.052848E+0	1.078113E+0	1.052816E+0	1.091712E+0	1.146448E+0	1.064003E+0	1.149347E+0	1.082883E+0	1.075376E+0	1.142340E+0	1.099558E+0	1.151770E+0	1.126828E+0	1.046745E+0	1.110612E+0	1.136659E+0	1.140952E+0	1.048627E+0	1.109645E+0	1.062954E+0	1.104442E+0	1.128506E+0	1.084251E+0	1.060749E+0	1.060401E+0	1.147993E+0	1.074023E+0	1.140802E+0	1.122787E+0	1.120438E+0	1.111297E+0	1.127146E+0	1.098667E+0	1.063896E+0	1.060003E+0	1.138422E+0	1.051447E+0	1.074311E+0	1.143769E+0	1.112359E+0	1.112985E+0	1.079893E+0	1.068428E+0	1.073528E+0	1.040266E+0	1.076567E+0	1.123577E+0	1.090382E+0	1.075068E+0	1.059221E+0	1.111389E+0	1.063727E+0	1.089956E+0	1.136252E+0	1.105727E+0	1.084577E+0	1.082580E+0	1.095543E+0	1.091656E+0	1.077788E+0	1.135812E+0	1.107235E+0	1.095374E+0	1.051061E+0	1.014141E+0	1.075291E+0	1.110663E+0	1.079503E+0	1.046819E+0	1.063080E+0	1.031363E+0	1.071548E+0	1.095161E+0	1.054090E+0	1.062062E+0	1.057173E+0	1.027262E+0	1.091565E+0	1.172646E+0	1.076307E+0	1.126979E+0	1.180211E+0	1.073516E+0	1.082759E+0	1.069096E+0	1.091616E+0	1.087331E+0	1.106705E+0	1.096239E+0	1.146771E+0	1.096471E+0	1.080077E+0	1.111976E+0	1.118415E+0	1.043842E+0	1.130598E+0	1.109849E+0	1.068725E+0	1.065041E+0	1.122763E+0	1.096069E+0	1.029798E+0	1.137704E+0	1.054963E+0	1.103298E+0	1.138030E+0	1.133309E+0	1.146026E+0	1.089507E+0	1.228102E+0	1.108026E+0	1.194551E+0
2.935090E+2	1.041784E+0	1.049453E+0	1.044322E+0	1.021379E+0	1.030078E+0	1.034780E+0	1.101751E+0	1.080714E+0	1.048372E+0	1.056326E+0	1.040280E+0	1.098804E+0	1.006414E+0	1.024335E+0	1.026506E+0	1.013219E+0	1.046304E+0	9.972964E-1	1.019901E+0	1.066810E+0	1.032744E+0	1.080315E+0	1.083536E+0	1.058306E+0	1.034128E+0	1.011540E+0	1.058573E+0	1.069149E+0	1.048595E+0	1.067633E+0	1.036961E+0	1.023251E+0	1.072642E+0	1.071902E+0	1.054738E+0	1.018743E+0	1.037131E+0	1.087230E+0	1.075201E+0	1.025428E+0	1.010700E+0	1.017576E+0	1.049452E+0	1.046921E+0	1.069294E+0	1.001981E+0	1.015919E+0	1.021402E+0	1.064572E+0	1.108214E+0	1.074302E+0	1.085628E+0	1.021285E+0	1.104202E+0	1.006081E+0	1.042697E+0	1.100353E+0	1.056655E+0	1.039553E+0	1.043679E+0	1.012193E+0	1.009091E+0	1.072177E+0	1.078209E+0	1.066923E+0	1.090798E+0	1.045497E+0	1.062738E+0	1.043687E+0	1.069486E+0	1.040630E+0	1.027264E+0	1.086432E+0	1.065318E+0	1.073208E+0	1.022876E+0	9.974715E-1	1.064715E+0	1.020696E+0	1.019557E+0	1.008753E+0	1.129746E+0	1.007739E+0	1.058187E+0	1.064365E+0	1.018520E+0	1.027441E+0	1.051924E+0	1.044489E+0	1.036687E+0	1.007065E+0	1.030128E+0	1.028759E+0	1.047489E+0	1.047955E+0	1.029636E+0	1.055630E+0	1.027780E+0	1.030560E+0	1.087318E+0	1.061747E+0	1.068122E+0	1.071836E+0	1.091465E+0	1.091408E+0	1.007408E+0	1.044944E+0	1.083136E+0	1.049657E+0	1.087296E+0	1.126695E+0	1.083285E+0	1.068799E+0	1.030110E+0	1.027956E+0	1.048425E+0	1.040311E+0	1.065468E+0	1.029836E+0	1.073986E+0	1.061651E+0	1.054553E+0	1.052041E+0	1.088248E+0	1.072184E+0	1.037866E+0	1.063952E+0	1.041315E+0	1.068560E+0	1.046493E+0	1.040903E+0	1.069361E+0	1.044375E+0	1.043069E+0	1.019031E+0	1.046436E+0	1.079352E+0	1.076865E+0	1.024496E+0	1.020673E+0	1.045061E+0	1.021990E+0	1.063389E+0	1.067102E+0	1.105061E+0	1.103953E+0	1.051402E+0	1.066457E+0	1.054207E+0	1.045026E+0	1.032589E+0	1.066327E+0	1.048282E+0	1.052115E+0	1.088820E+0	1.050708E+0	1.066411E+0	1.017458E+0	1.025678E+0	1.003363E+0	1.073941E+0	1.050631E+0	1.068414E+0	1.094215E+0	1.122142E+0	1.169455E+0
2.940070E+2	1.037141E+0	1.064073E+0	1.026030E+0	1.008199E+0	9.806620E-1	1.066882E+0	1.082263E+0	1.036389E+0	1.050995E+0	1.106056E+0	1.061729E+0	1.052822E+0	1.045957E+0	1.015552E+0	1.012663E+0	1.051908E+0	1.102162E+0	1.089495E+0	1.082640E+0	1.036995E+0	9.805032E-1	1.011859E+0	1.042012E+0	1.040169E+0	1.022061E+0	1.050798E+0	1.033496E+0	1.049211E+0	1.048226E+0	1.032668E+0	1.030864E+0	1.021541E+0	1.069173E+0	1.035450E+0	1.084514E+0	1.054288E+0	1.051356E+0	1.009471E+0	1.009770E+0	1.064214E+0	1.068083E+0	1.022534E+0	1.022979E+0	1.040370E+0	1.020233E+0	1.049059E+0	1.011282E+0	1.028979E+0	1.039720E+0	1.045278E+0	1.069004E+0	1.071316E+0	1.012502E+0	1.019370E+0	1.050997E+0	1.005436E+0	1.059367E+0	1.113980E+0	1.010941E+0	1.059291E+0	1.000790E+0	1.041019E+0	1.056422E+0	1.071557E+0	1.081150E+0	1.023517E+0	9.806697E-1	1.066496E+0	1.011345E+0	1.023456E+0	1.088231E+0	1.053829E+0	1.057309E+0	9.962464E-1	1.041161E+0	1.069190E+0	1.050642E+0	1.009657E+0	1.025066E+0	1.103898E+0	1.090152E+0	1.070499E+0	1.012999E+0	1.100226E+0	1.064398E+0	1.080790E+0	1.031991E+0	1.087782E+0	9.998445E-1	1.023851E+0	1.045251E+0	1.098453E+0	1.083800E+0	1.001304E+0	1.019167E+0	1.021148E+0	1.012142E+0	1.047781E+0	1.070501E+0	1.026349E+0	1.037140E+0	1.005610E+0	1.040472E+0	9.684570E-1	1.110487E+0	1.049091E+0	1.065018E+0	1.036676E+0	1.025619E+0	1.071570E+0	1.115078E+0	1.059969E+0	1.027304E+0	1.099747E+0	1.079351E+0	1.069749E+0	1.062307E+0	1.017171E+0	1.034770E+0	1.076723E+0	1.035889E+0	1.055738E+0	1.056620E+0	1.090134E+0	1.068834E+0	1.009399E+0	1.046528E+0	1.016279E+0	1.066429E+0	1.023259E+0	1.062467E+0	1.044006E+0	1.065770E+0	1.083074E+0	1.059201E+0	1.044791E+0	1.119564E+0	1.015478E+0	1.074353E+0	1.035313E+0	1.037384E+0	1.026237E+0	1.033271E+0	1.064952E+0	1.070373E+0	1.024903E+0	1.074409E+0	1.076963E+0	1.048948E+0	1.016770E+0	1.035336E+0	1.042647E+0	1.053671E+0	1.032187E+0	1.055735E+0	1.065623E+0	1.086309E+0	1.084492E+0	1.066309E+0	1.041447E+0	1.050587E+0	1.057227E+0	9.902249E-1	1.069625E+0	1.069926E+0	9.716915E-1
2.945030E+2	1.012497E+0	1.024655E+0	9.409996E-1	1.017498E+0	1.023959E+0	1.004785E+0	1.000567E+0	1.035681E+0	1.001762E+0	1.012632E+0	1.015631E+0	9.891103E-1	9.525396E-1	1.049714E+0	1.017585E+0	9.464184E-1	1.003577E+0	9.995871E-1	9.605875E-1	9.952401E-1	1.032466E+0	1.017105E+0	1.010542E+0	9.583572E-1	9.946627E-1	9.942613E-1	1.001113E+0	9.802647E-1	1.024164E+0	9.914680E-1	1.015044E+0	9.873682E-1	9.721136E-1	9.785217E-1	9.577012E-1	1.015524E+0	9.806147E-1	9.874892E-1	1.024307E+0	9.856008E-1	1.041036E+0	9.664802E-1	1.020534E+0	9.794932E-1	9.934268E-1	1.008362E+0	1.016599E+0	1.028978E+0	1.010250E+0	1.002401E+0	9.911917E-1	1.040520E+0	1.040848E+0	1.040388E+0	9.865244E-1	9.694287E-1	1.007844E+0	9.913632E-1	9.809425E-1	9.871310E-1	9.819288E-1	9.776459E-1	9.609313E-1	1.010249E+0	1.033720E+0	9.845382E-1	9.951935E-1	1.044980E+0	9.981325E-1	1.033840E+0	1.036431E+0	9.668228E-1	1.000076E+0	1.031937E+0	9.680958E-1	1.024259E+0	9.545131E-1	9.644757E-1	9.749549E-1	1.022539E+0	1.084423E+0	1.060363E+0	9.880574E-1	1.036329E+0	1.016425E+0	9.819636E-1	9.989242E-1	9.735241E-1	1.022367E+0	1.026848E+0	9.929462E-1	9.705352E-1	9.796881E-1	9.605738E-1	1.005596E+0	9.783968E-1	9.618743E-1	9.994042E-1	1.012965E+0	1.010073E+0	1.019494E+0	1.026185E+0	1.001975E+0	9.848758E-1	1.027826E+0	9.668069E-1	1.017321E+0	1.047911E+0	9.740379E-1	9.624423E-1	1.003600E+0	1.025786E+0	9.292580E-1	1.005801E+0	9.806897E-1	9.996414E-1	9.765820E-1	9.825791E-1	9.941855E-1	1.000676E+0	1.002897E+0	9.745729E-1	9.939703E-1	1.031044E+0	9.761009E-1	1.005373E+0	1.014588E+0	1.033934E+0	1.020572E+0	1.001676E+0	1.029715E+0	1.027490E+0	9.884598E-1	9.977444E-1	9.831026E-1	9.921319E-1	1.009242E+0	9.348213E-1	1.036906E+0	9.760643E-1	9.959898E-1	1.020412E+0	1.052378E+0	9.989884E-1	9.935426E-1	9.698832E-1	1.001352E+0	1.022325E+0	9.908929E-1	9.823493E-1	9.670913E-1	9.818039E-1	1.007311E+0	1.053060E+0	1.001251E+0	1.068016E+0	9.694884E-1	1.026411E+0	1.048138E+0	1.002718E+0	9.713544E-1	1.008482E+0	9.947285E-1	9.986700E-1	1.031993E+0	9.838863E-1
2.950050E+2	9.689004E-1	1.025000E+0	9.901568E-1	9.937168E-1	9.712933E-1	1.015437E+0	1.004548E+0	1.004301E+0	9.622068E-1	1.024688E+0	9.644161E-1	9.597526E-1	1.005875E+0	9.544280E-1	9.494311E-1	9.992050E-1	9.967695E-1	9.991761E-1	1.010324E+0	9.831013E-1	9.650312E-1	9.423081E-1	9.758410E-1	9.593257E-1	9.576252E-1	9.876266E-1	9.961315E-1	9.886147E-1	9.631581E-1	9.897184E-1	9.995800E-1	9.631673E-1	9.704965E-1	1.002680E+0	9.964470E-1	9.698155E-1	9.853382E-1	1.008147E+0	1.005885E+0	9.588603E-1	9.944365E-1	9.910028E-1	1.022850E+0	9.800755E-1	9.685379E-1	9.983603E-1	1.000636E+0	9.302814E-1	9.721506E-1	9.900184E-1	1.000802E+0	1.001227E+0	9.915586E-1	1.015792E+0	9.579424E-1	9.180846E-1	9.802981E-1	9.861067E-1	1.006515E+0	9.958445E-1	9.723267E-1	1.016594E+0	9.546332E-1	9.839241E-1	1.029820E+0	9.396244E-1	9.646776E-1	9.540590E-1	9.435868E-1	9.995361E-1	1.025367E+0	9.943716E-1	9.858652E-1	9.740292E-1	9.649644E-1	1.011720E+0	9.751874E-1	9.493304E-1	9.778284E-1	9.853360E-1	9.901722E-1	9.634895E-1	9.750621E-1	1.021185E+0	9.902338E-1	9.898624E-1	9.724215E-1	1.003783E+0	9.908657E-1	9.654214E-1	9.805447E-1	9.601644E-1	9.769907E-1	9.917456E-1	9.654909E-1	9.509320E-1	1.010004E+0	1.007155E+0	9.978436E-1	9.396093E-1	9.760885E-1	9.846077E-1	1.052759E+0	9.918532E-1	9.603752E-1	9.084698E-1	9.943639E-1	1.041907E+0	9.693564E-1	9.693666E-1	1.025143E+0	1.024369E+0	9.869652E-1	1.001199E+0	1.008959E+0	1.002841E+0	9.858639E-1	9.882342E-1	9.944705E-1	1.012376E+0	9.885049E-1	1.044888E+0	9.608760E-1	9.383571E-1	9.841710E-1	9.601528E-1	9.428866E-1	9.670263E-1	9.948129E-1	9.695701E-1	9.649114E-1	9.763819E-1	9.783934E-1	9.522902E-1	9.737197E-1	1.059549E+0	9.639723E-1	9.858790E-1	9.740400E-1	9.902050E-1	1.011612E+0	9.705344E-1	9.872117E-1	9.526906E-1	9.912069E-1	9.977336E-1	9.459226E-1	9.597875E-1	1.027906E+0	1.028640E+0	9.695251E-1	9.624361E-1	1.011686E+0	9.875703E-1	9.832785E-1	9.972155E-1	9.802319E-1	1.032290E+0	1.022081E+0	9.453843E-1	9.802930E-1	1.005145E+0	9.819650E-1	9.358726E-1	1.013464E+0	8.681484E-1
2.955100E+2	1.007477E+0	9.416466E-1	9.347397E-1	9.799886E-1	1.009339E+0	1.027798E+0	9.677184E-1	9.777219E-1	9.919449E-1	1.047780E+0	9.511437E-1	9.686484E-1	9.955405E-1	1.031814E+0	1.023767E+0	1.000852E+0	1.001530E+0	9.746515E-1	9.813581E-1	9.916563E-1	9.802271E-1	9.817873E-1	9.707462E-1	9.676859E-1	1.015707E+0	9.863692E-1	9.790850E-1	9.998107E-1	9.811848E-1	9.892737E-1	9.639317E-1	9.771071E-1	1.008556E+0	9.411462E-1	9.530041E-1	9.709296E-1	1.003433E+0	1.015833E+0	9.590495E-1	1.024262E+0	9.699094E-1	1.022977E+0	9.463094E-1	9.984650E-1	1.060703E+0	9.946713E-1	1.003223E+0	9.687913E-1	9.618324E-1	9.655244E-1	1.001508E+0	1.040077E+0	1.028022E+0	1.007189E+0	9.976486E-1	9.890447E-1	9.773361E-1	1.019298E+0	9.701635E-1	9.857463E-1	9.829355E-1	9.852252E-1	9.853928E-1	1.005749E+0	1.011027E+0	9.993713E-1	9.608631E-1	1.009842E+0	9.586693E-1	9.958767E-1	9.926313E-1	9.756861E-1	1.040620E+0	9.924684E-1	9.924708E-1	1.017481E+0	9.833907E-1	9.460962E-1	9.853511E-1	1.059959E+0	1.039996E+0	9.974797E-1	1.012200E+0	1.012229E+0	9.700925E-1	1.025886E+0	9.988084E-1	1.001661E+0	9.882177E-1	9.976528E-1	1.022377E+0	1.030569E+0	9.849435E-1	9.935621E-1	9.974105E-1	9.639794E-1	9.516208E-1	9.865032E-1	9.773342E-1	9.993138E-1	9.901866E-1	1.007796E+0	9.756293E-1	9.999227E-1	9.804584E-1	9.699089E-1	1.003192E+0	9.920974E-1	9.414546E-1	9.716010E-1	9.657543E-1	1.018055E+0	1.022580E+0	9.812711E-1	1.021715E+0	1.002245E+0	1.005197E+0	1.023400E+0	9.797408E-1	1.014365E+0	1.032609E+0	1.060550E+0	9.640858E-1	9.911532E-1	1.013511E+0	1.003560E+0	9.892655E-1	9.704786E-1	1.025277E+0	9.768192E-1	1.015968E+0	9.671996E-1	9.956883E-1	1.001055E+0	1.005062E+0	1.005584E+0	1.041069E+0	1.013068E+0	9.613632E-1	9.907052E-1	9.654060E-1	1.015348E+0	9.930543E-1	1.046066E+0	1.000592E+0	1.038088E+0	1.001452E+0	1.029445E+0	1.011600E+0	1.037367E+0	9.740037E-1	9.707445E-1	9.713840E-1	9.835074E-1	9.752464E-1	9.964034E-1	9.797317E-1	9.745916E-1	1.003562E+0	1.028129E+0	9.919215E-1	1.020205E+0	9.474593E-1	1.060718E+0	9.772064E-1	9.840811E-1
2.960060E+2	9.257278E-1	9.735627E-1	8.916728E-1	9.424155E-1	9.832324E-1	9.879971E-1	9.201345E-1	9.505349E-1	9.945648E-1	9.752527E-1	9.657263E-1	9.652639E-1	9.254295E-1	9.482839E-1	9.493042E-1	9.662824E-1	9.680393E-1	9.522094E-1	9.422185E-1	9.695314E-1	9.239449E-1	9.416918E-1	9.176979E-1	9.206301E-1	9.302228E-1	9.979943E-1	9.441216E-1	8.995256E-1	9.704702E-1	9.496661E-1	9.457182E-1	9.594575E-1	9.180154E-1	9.795498E-1	9.724464E-1	9.631628E-1	9.871971E-1	9.801888E-1	9.620011E-1	9.659218E-1	9.101897E-1	9.669102E-1	9.287580E-1	9.444176E-1	9.216240E-1	9.484164E-1	9.406490E-1	9.448342E-1	9.273758E-1	9.332823E-1	1.005345E+0	9.502449E-1	9.692989E-1	9.667291E-1	9.708749E-1	9.385903E-1	9.797242E-1	9.476769E-1	9.834722E-1	9.784297E-1	9.452353E-1	9.152334E-1	9.568776E-1	9.789128E-1	9.748534E-1	9.769695E-1	9.672375E-1	9.597944E-1	9.454909E-1	9.515973E-1	9.441791E-1	9.305219E-1	9.743465E-1	9.535797E-1	9.015982E-1	9.785507E-1	9.525098E-1	9.615295E-1	9.829541E-1	9.793290E-1	9.612136E-1	9.900259E-1	9.929918E-1	9.811538E-1	9.081391E-1	9.874289E-1	9.686524E-1	1.012578E+0	9.138385E-1	9.754874E-1	9.752563E-1	9.478394E-1	9.572195E-1	9.945476E-1	9.288828E-1	9.203508E-1	1.007453E+0	9.635909E-1	9.286104E-1	9.378733E-1	9.321575E-1	9.894546E-1	9.570850E-1	9.527719E-1	9.576541E-1	9.642377E-1	9.391228E-1	9.456871E-1	9.250714E-1	9.559186E-1	9.831254E-1	9.820748E-1	9.197090E-1	1.013803E+0	9.935256E-1	9.904428E-1	9.627437E-1	9.545903E-1	9.283079E-1	9.666735E-1	9.489515E-1	9.665988E-1	1.009348E+0	9.299365E-1	9.557597E-1	9.867142E-1	9.606742E-1	1.015163E+0	9.767509E-1	9.615119E-1	9.122269E-1	9.705209E-1	9.531199E-1	9.710446E-1	9.521514E-1	9.506290E-1	9.283281E-1	9.492489E-1	9.566801E-1	9.645987E-1	9.052949E-1	9.510972E-1	9.481363E-1	9.906745E-1	9.933343E-1	9.711204E-1	9.530811E-1	9.830968E-1	9.478175E-1	9.478057E-1	9.213240E-1	9.868361E-1	9.613738E-1	9.932471E-1	9.740729E-1	9.993714E-1	9.409464E-1	8.907474E-1	9.598003E-1	9.414888E-1	1.002328E+0	9.337268E-1	9.602954E-1	9.267436E-1	9.996684E-1	1.004855E+0
2.965070E+2	9.828803E-1	1.013604E+0	1.021727E+0	9.667296E-1	9.381318E-1	9.762458E-1	9.522612E-1	9.265121E-1	9.697372E-1	9.883820E-1	9.422767E-1	9.477089E-1	9.422085E-1	9.569347E-1	9.832223E-1	9.871997E-1	9.332871E-1	9.736249E-1	9.932160E-1	8.959505E-1	1.005134E+0	9.533152E-1	9.066246E-1	9.480498E-1	1.003507E+0	9.628956E-1	9.851759E-1	9.992188E-1	9.532080E-1	9.355703E-1	9.286645E-1	9.469844E-1	9.994136E-1	9.900642E-1	9.410414E-1	9.688642E-1	9.639647E-1	9.733577E-1	9.785532E-1	9.541522E-1	9.910154E-1	9.392548E-1	9.668633E-1	9.675496E-1	9.642339E-1	9.809851E-1	9.771585E-1	9.628935E-1	9.916882E-1	1.001524E+0	9.721590E-1	1.024865E+0	9.232376E-1	9.956766E-1	9.537871E-1	9.367642E-1	9.681040E-1	9.451976E-1	9.647909E-1	9.858991E-1	9.089321E-1	9.590746E-1	9.525828E-1	9.865921E-1	9.827468E-1	9.379344E-1	9.621330E-1	9.238583E-1	9.431200E-1	9.635288E-1	9.934519E-1	9.784865E-1	9.841208E-1	9.895251E-1	9.457228E-1	1.003824E+0	9.686621E-1	9.515306E-1	9.621708E-1	9.975290E-1	9.626274E-1	9.631577E-1	9.570372E-1	1.014878E+0	9.611963E-1	9.514058E-1	9.687551E-1	9.745130E-1	9.215002E-1	9.964108E-1	9.774913E-1	9.504880E-1	9.852595E-1	9.565342E-1	9.685585E-1	9.860997E-1	9.469928E-1	9.213994E-1	9.632007E-1	9.881983E-1	9.741254E-1	9.647801E-1	9.390542E-1	8.953558E-1	1.029536E+0	9.660262E-1	9.825556E-1	9.476700E-1	9.756211E-1	9.706018E-1	9.345894E-1	9.739950E-1	9.768188E-1	9.981208E-1	9.663555E-1	1.014264E+0	9.384894E-1	9.086192E-1	9.819262E-1	9.883341E-1	9.349086E-1	1.007530E+0	9.744109E-1	9.402300E-1	9.257487E-1	1.001989E+0	9.840955E-1	9.536865E-1	9.587556E-1	9.999790E-1	9.832362E-1	9.493540E-1	9.465100E-1	9.750171E-1	9.629856E-1	9.913690E-1	9.338613E-1	9.607555E-1	9.933027E-1	9.309661E-1	9.749189E-1	9.847844E-1	9.574525E-1	9.614220E-1	9.511229E-1	9.204900E-1	1.013083E+0	9.366451E-1	1.015718E+0	1.014263E+0	9.437601E-1	1.003111E+0	9.991811E-1	9.971438E-1	9.578058E-1	9.332324E-1	9.430495E-1	9.534575E-1	9.827887E-1	9.380121E-1	1.006024E+0	9.470779E-1	9.526485E-1	9.961714E-1	9.233112E-1	9.763888E-1
2.970020E+2	9.629108E-1	9.990441E-1	9.894138E-1	9.630461E-1	9.433751E-1	1.015222E+0	9.817431E-1	9.673054E-1	9.777129E-1	9.817625E-1	9.547513E-1	9.796707E-1	9.492736E-1	9.800442E-1	9.857269E-1	1.006212E+0	9.620083E-1	9.910449E-1	9.995121E-1	9.764762E-1	9.794721E-1	9.550157E-1	9.713771E-1	9.408472E-1	9.453908E-1	9.574293E-1	1.002010E+0	1.023901E+0	1.019777E+0	1.006365E+0	9.178693E-1	9.737629E-1	1.005065E+0	9.973635E-1	9.556820E-1	9.584482E-1	9.520004E-1	9.698324E-1	9.983751E-1	9.799000E-1	9.321024E-1	9.817137E-1	9.624776E-1	9.641208E-1	9.858923E-1	9.635211E-1	9.783978E-1	9.929408E-1	9.941858E-1	9.848874E-1	9.731879E-1	9.943066E-1	1.017834E+0	9.972724E-1	9.892893E-1	9.650469E-1	9.809104E-1	1.027737E+0	9.616995E-1	1.024976E+0	9.719875E-1	1.014575E+0	9.666325E-1	1.002536E+0	9.946973E-1	9.710904E-1	9.321326E-1	1.020459E+0	9.889423E-1	9.629297E-1	9.739904E-1	9.749658E-1	1.014332E+0	9.414510E-1	9.976680E-1	9.749020E-1	9.653756E-1	9.797616E-1	1.019430E+0	9.926113E-1	9.684626E-1	1.002658E+0	9.740445E-1	9.620859E-1	9.960229E-1	9.549418E-1	1.007588E+0	9.862163E-1	9.804698E-1	1.011270E+0	9.563416E-1	9.726279E-1	9.739548E-1	9.696133E-1	9.284232E-1	9.683089E-1	9.814743E-1	1.022855E+0	9.339044E-1	9.847282E-1	9.938217E-1	9.984936E-1	9.388822E-1	9.485799E-1	1.026527E+0	1.010416E+0	9.452311E-1	9.469961E-1	9.284690E-1	9.602767E-1	9.290778E-1	9.628265E-1	1.001719E+0	1.069533E+0	1.009448E+0	1.000379E+0	1.014463E+0	9.348771E-1	9.676956E-1	9.999236E-1	1.004401E+0	9.728581E-1	9.921190E-1	9.459307E-1	9.856833E-1	9.988515E-1	1.004096E+0	9.608354E-1	9.514745E-1	9.547833E-1	9.869639E-1	9.961534E-1	9.664314E-1	9.664674E-1	9.701802E-1	1.036249E+0	9.900526E-1	1.021982E+0	1.017632E+0	9.789070E-1	9.778257E-1	1.037132E+0	9.931268E-1	1.026065E+0	9.466259E-1	9.549326E-1	9.739684E-1	9.764120E-1	9.575760E-1	1.006996E+0	9.480985E-1	1.026457E+0	9.753128E-1	1.003741E+0	9.673920E-1	9.719120E-1	9.506923E-1	9.414161E-1	1.024536E+0	9.775961E-1	1.017708E+0	9.685346E-1	1.009042E+0	1.006517E+0	9.972315E-1	9.964127E-1
2.975020E+2	9.939505E-1	1.005381E+0	1.000915E+0	9.871582E-1	9.872774E-1	1.011505E+0	1.006954E+0	1.014637E+0	1.035279E+0	9.914888E-1	1.011451E+0	9.930918E-1	1.006276E+0	9.719990E-1	1.017562E+0	9.895536E-1	1.005986E+0	1.014199E+0	9.904992E-1	9.727306E-1	9.846390E-1	9.776894E-1	1.011408E+0	1.040453E+0	9.997032E-1	9.758716E-1	1.011945E+0	1.063740E+0	1.029957E+0	1.024030E+0	9.931418E-1	9.986279E-1	1.019353E+0	1.003671E+0	1.000401E+0	1.000020E+0	9.990659E-1	9.546351E-1	1.004983E+0	1.005325E+0	9.816441E-1	9.940583E-1	1.019317E+0	1.005264E+0	1.008088E+0	1.019342E+0	9.474793E-1	1.011184E+0	1.003888E+0	9.838129E-1	1.016713E+0	9.846380E-1	1.042367E+0	9.909529E-1	9.477188E-1	9.833938E-1	1.010816E+0	1.013553E+0	9.452961E-1	1.016908E+0	9.596633E-1	9.935064E-1	1.005507E+0	1.028917E+0	9.963752E-1	1.033750E+0	9.964844E-1	1.030662E+0	9.765501E-1	1.010519E+0	9.727424E-1	1.021030E+0	9.754283E-1	9.941304E-1	1.006387E+0	9.491069E-1	9.607317E-1	9.919845E-1	1.011294E+0	9.665790E-1	1.011948E+0	9.869240E-1	1.004144E+0	9.586298E-1	9.926660E-1	9.736020E-1	9.756868E-1	1.019035E+0	1.002539E+0	1.019345E+0	9.765309E-1	9.947673E-1	1.009848E+0	9.787075E-1	1.014058E+0	9.654021E-1	9.860756E-1	1.008765E+0	9.986941E-1	9.754841E-1	1.027554E+0	9.957276E-1	9.995826E-1	9.656569E-1	9.802292E-1	9.889830E-1	1.030012E+0	9.856921E-1	1.019072E+0	1.015782E+0	9.658209E-1	9.984938E-1	9.453726E-1	9.982354E-1	9.960484E-1	9.722566E-1	9.938381E-1	9.963643E-1	1.008224E+0	1.016250E+0	1.012967E+0	1.004456E+0	1.064184E+0	1.038393E+0	9.874992E-1	1.032584E+0	9.694112E-1	1.041074E+0	9.980586E-1	1.016958E+0	9.916435E-1	9.683590E-1	1.011005E+0	1.013076E+0	9.786356E-1	1.014079E+0	1.037215E+0	9.949265E-1	1.013246E+0	9.764912E-1	1.001814E+0	1.033575E+0	9.933078E-1	1.000744E+0	9.770633E-1	1.009941E+0	1.037837E+0	1.011165E+0	1.025765E+0	1.022174E+0	1.010002E+0	1.003229E+0	9.693361E-1	1.024834E+0	9.842445E-1	9.736751E-1	9.747318E-1	1.008507E+0	9.859084E-1	9.782753E-1	9.702172E-1	1.011146E+0	9.939766E-1	1.011679E+0	9.419370E-1	1.038583E+0
2.980050E+2	1.032182E+0	9.994459E-1	1.001051E+0	1.036104E+0	1.065308E+0	1.028300E+0	9.589767E-1	1.051651E+0	1.000763E+0	1.006095E+0	9.945572E-1	1.008663E+0	1.029435E+0	9.958110E-1	1.033868E+0	1.018728E+0	1.027148E+0	1.027849E+0	9.882875E-1	1.029660E+0	1.018265E+0	9.833108E-1	9.814867E-1	9.489081E-1	1.025626E+0	1.005268E+0	1.003270E+0	9.908962E-1	1.036739E+0	1.017327E+0	1.001186E+0	9.748331E-1	9.980061E-1	9.743167E-1	9.941431E-1	1.002253E+0	9.956037E-1	1.004960E+0	9.954249E-1	1.022548E+0	1.005224E+0	1.030366E+0	9.666553E-1	1.026580E+0	9.848336E-1	9.981013E-1	1.042248E+0	9.776762E-1	1.024786E+0	9.904765E-1	9.950690E-1	1.013897E+0	1.006442E+0	1.017079E+0	9.987807E-1	1.026409E+0	9.962709E-1	9.720302E-1	9.653177E-1	1.005916E+0	9.822234E-1	1.027100E+0	1.002324E+0	1.017935E+0	1.009373E+0	9.899201E-1	1.001115E+0	9.779287E-1	9.721961E-1	9.806126E-1	1.005810E+0	1.004371E+0	1.010838E+0	9.719232E-1	9.827489E-1	1.057741E+0	9.726275E-1	1.001886E+0	1.001580E+0	1.021398E+0	1.023483E+0	9.834338E-1	1.000946E+0	1.004039E+0	1.022512E+0	1.016103E+0	1.050051E+0	9.722406E-1	1.036024E+0	9.949393E-1	1.022581E+0	9.815581E-1	9.955978E-1	9.913852E-1	9.927623E-1	1.011247E+0	1.008901E+0	1.018591E+0	9.844111E-1	1.018004E+0	9.617414E-1	1.025423E+0	9.846262E-1	1.000780E+0	1.028198E+0	1.018523E+0	9.825413E-1	9.961416E-1	1.000035E+0	1.031435E+0	1.018307E+0	1.020470E+0	1.009544E+0	1.013255E+0	9.804016E-1	9.871831E-1	1.016436E+0	9.971580E-1	9.999841E-1	1.006440E+0	1.016017E+0	1.003336E+0	9.938139E-1	9.895579E-1	1.009952E+0	9.934301E-1	1.043857E+0	1.013676E+0	1.043150E+0	9.849395E-1	9.846359E-1	9.975459E-1	9.844657E-1	9.840787E-1	9.776859E-1	9.971810E-1	9.962397E-1	1.040904E+0	9.537331E-1	1.025045E+0	9.843496E-1	1.011329E+0	1.010322E+0	1.039744E+0	1.011613E+0	9.661300E-1	9.740766E-1	9.872903E-1	1.004598E+0	9.838138E-1	9.645029E-1	9.917058E-1	9.885973E-1	1.013691E+0	9.709355E-1	1.003957E+0	1.038418E+0	9.750482E-1	1.003007E+0	1.009869E+0	1.025023E+0	1.023803E+0	1.004643E+0	1.035754E+0	1.067595E+0	9.917682E-1
2.985020E+2	9.529314E-1	1.004799E+0	9.582078E-1	9.738468E-1	9.509137E-1	9.685579E-1	9.517784E-1	9.558050E-1	9.602280E-1	9.697770E-1	9.824191E-1	9.482500E-1	9.564164E-1	9.875769E-1	1.003979E+0	9.295564E-1	9.773387E-1	9.647325E-1	9.643258E-1	9.922063E-1	9.693424E-1	9.694139E-1	1.009152E+0	9.636905E-1	9.842835E-1	9.599500E-1	1.017694E+0	9.599317E-1	9.474132E-1	9.719375E-1	1.004968E+0	9.770383E-1	9.487495E-1	9.586637E-1	9.654932E-1	9.429114E-1	9.777639E-1	9.781489E-1	9.419948E-1	9.680865E-1	9.875382E-1	9.732100E-1	9.661614E-1	9.700435E-1	1.015725E+0	9.632234E-1	1.020982E+0	1.006747E+0	9.325266E-1	9.767551E-1	9.484062E-1	9.749229E-1	9.447719E-1	9.471752E-1	1.029268E+0	9.654162E-1	9.741065E-1	9.372468E-1	9.895441E-1	9.935624E-1	1.009133E+0	9.481684E-1	9.871553E-1	9.770837E-1	9.193389E-1	9.570439E-1	9.904761E-1	9.978824E-1	1.014147E+0	9.915673E-1	9.512196E-1	9.621951E-1	9.729810E-1	9.885970E-1	9.544433E-1	9.907035E-1	1.038851E+0	9.500835E-1	9.881585E-1	9.873953E-1	9.685135E-1	9.426692E-1	9.173651E-1	9.578315E-1	9.604953E-1	9.518195E-1	9.548608E-1	9.952619E-1	9.748462E-1	9.273750E-1	9.874182E-1	9.736455E-1	9.701756E-1	9.811406E-1	9.652080E-1	9.853216E-1	1.006637E+0	9.781174E-1	9.904032E-1	9.754634E-1	9.929200E-1	9.705435E-1	9.891427E-1	1.012893E+0	9.591313E-1	9.968366E-1	9.397825E-1	9.785924E-1	9.650920E-1	9.643680E-1	9.520061E-1	9.678402E-1	9.787844E-1	9.598923E-1	9.845474E-1	9.987792E-1	9.828763E-1	9.945133E-1	9.633549E-1	9.418847E-1	9.431555E-1	9.495411E-1	9.927753E-1	9.435695E-1	9.544110E-1	9.781509E-1	9.685529E-1	9.679111E-1	9.788966E-1	9.829549E-1	9.852561E-1	1.041484E+0	9.663620E-1	9.685333E-1	9.521869E-1	1.004770E+0	9.298229E-1	9.218280E-1	9.541514E-1	9.759607E-1	9.802396E-1	9.495610E-1	9.343630E-1	9.424958E-1	1.019019E+0	1.018011E+0	9.981943E-1	9.711711E-1	9.700110E-1	9.674003E-1	1.022417E+0	9.697530E-1	1.004917E+0	9.886223E-1	9.893206E-1	1.006425E+0	9.665003E-1	9.823121E-1	9.778816E-1	9.740863E-1	9.892968E-1	9.688263E-1	9.798552E-1	9.665384E-1	9.168343E-1	9.944908E-1
2.990040E+2	1.012956E+0	1.016674E+0	1.043539E+0	1.050004E+0	1.022286E+0	9.950513E-1	1.023160E+0	1.007274E+0	1.049491E+0	1.011206E+0	1.024826E+0	1.039199E+0	1.022517E+0	1.000929E+0	9.677338E-1	1.034436E+0	1.021816E+0	1.015064E+0	1.040039E+0	1.002290E+0	1.008322E+0	1.047294E+0	1.031634E+0	1.040387E+0	9.919655E-1	1.030750E+0	9.858277E-1	9.953277E-1	1.017376E+0	1.013587E+0	1.037676E+0	1.046607E+0	1.040009E+0	1.035334E+0	1.044812E+0	1.023960E+0	1.042515E+0	1.059570E+0	1.072876E+0	1.015318E+0	1.022881E+0	1.042866E+0	1.020218E+0	1.031421E+0	1.005730E+0	1.030876E+0	1.053527E+0	1.064231E+0	1.040542E+0	1.044559E+0	1.021385E+0	1.036241E+0	1.046770E+0	1.042342E+0	1.034370E+0	1.027932E+0	9.714803E-1	1.014614E+0	1.063044E+0	9.996671E-1	1.018941E+0	1.037687E+0	9.902017E-1	1.011121E+0	1.056559E+0	1.042542E+0	9.930737E-1	1.018823E+0	1.032902E+0	1.042564E+0	1.067482E+0	1.026197E+0	1.037052E+0	1.023435E+0	1.055516E+0	1.015058E+0	1.039146E+0	1.062983E+0	1.020263E+0	1.059023E+0	1.048747E+0	1.046205E+0	1.048683E+0	1.034692E+0	1.026874E+0	1.055803E+0	1.053804E+0	9.888430E-1	9.937004E-1	1.025730E+0	1.019949E+0	1.035461E+0	1.038849E+0	1.011631E+0	1.052410E+0	1.032005E+0	1.027460E+0	1.024298E+0	1.010491E+0	1.013984E+0	1.069651E+0	1.000949E+0	9.910002E-1	1.031156E+0	1.044953E+0	1.014451E+0	1.053235E+0	1.034996E+0	1.025054E+0	1.033150E+0	1.023272E+0	1.021509E+0	1.064499E+0	1.039011E+0	1.016697E+0	1.039131E+0	1.030448E+0	1.026092E+0	1.021940E+0	1.056673E+0	1.006489E+0	1.015629E+0	1.002005E+0	1.021376E+0	1.033671E+0	9.903044E-1	1.013890E+0	1.045382E+0	1.030266E+0	1.001085E+0	9.948475E-1	1.016581E+0	1.027390E+0	1.031944E+0	1.042762E+0	1.026262E+0	9.935720E-1	1.014328E+0	1.032034E+0	1.038209E+0	1.013063E+0	9.985736E-1	1.042313E+0	1.041324E+0	9.714898E-1	1.047042E+0	1.015547E+0	1.033039E+0	1.030736E+0	1.006321E+0	1.020414E+0	1.028969E+0	1.004667E+0	1.021404E+0	1.023567E+0	1.054941E+0	1.035006E+0	1.034068E+0	1.027753E+0	1.003778E+0	1.055577E+0	1.108689E+0	1.038182E+0	9.831913E-1	1.026413E+0	1.010418E+0
2.995040E+2	9.970190E-1	1.014417E+0	1.017647E+0	9.840929E-1	1.003163E+0	1.001761E+0	1.045238E+0	1.001695E+0	1.012622E+0	1.020287E+0	1.011414E+0	1.020300E+0	1.006253E+0	1.023342E+0	9.996779E-1	1.035912E+0	9.892106E-1	9.859103E-1	1.002296E+0	1.014900E+0	1.037974E+0	1.031722E+0	9.988537E-1	1.004142E+0	1.023883E+0	1.008721E+0	9.961844E-1	1.021478E+0	9.953852E-1	1.026793E+0	1.004526E+0	1.019859E+0	1.026246E+0	9.877528E-1	1.034508E+0	1.019747E+0	1.000136E+0	1.033700E+0	1.010853E+0	9.820031E-1	1.020282E+0	9.951299E-1	1.004345E+0	1.006338E+0	9.786580E-1	1.002904E+0	9.743631E-1	9.672802E-1	1.011594E+0	1.035469E+0	1.016696E+0	9.870542E-1	1.012544E+0	1.036558E+0	1.024188E+0	9.978124E-1	1.028229E+0	1.071237E+0	1.025624E+0	9.964939E-1	1.032983E+0	1.002322E+0	9.928326E-1	1.013009E+0	1.040427E+0	1.004668E+0	1.041917E+0	1.027709E+0	1.042237E+0	9.836795E-1	9.828872E-1	1.021451E+0	1.015296E+0	9.983558E-1	1.007556E+0	1.009238E+0	1.018885E+0	9.960948E-1	9.935903E-1	9.740365E-1	1.016604E+0	1.027206E+0	1.022394E+0	1.056090E+0	1.025100E+0	1.022620E+0	9.995259E-1	1.010815E+0	1.000814E+0	1.042974E+0	1.021908E+0	9.958448E-1	1.023738E+0	1.057645E+0	9.996094E-1	1.006213E+0	1.014072E+0	1.010141E+0	1.054641E+0	9.965130E-1	9.862252E-1	1.011774E+0	1.046883E+0	1.001985E+0	9.908514E-1	1.002452E+0	9.940897E-1	1.006151E+0	1.048759E+0	1.031740E+0	1.052585E+0	1.004293E+0	1.028308E+0	1.032846E+0	1.013658E+0	1.022303E+0	9.760660E-1	1.019311E+0	1.035555E+0	1.009063E+0	1.012128E+0	1.039099E+0	9.913687E-1	1.015120E+0	1.030335E+0	1.026285E+0	1.030588E+0	1.007852E+0	9.733140E-1	9.992058E-1	1.040477E+0	1.012107E+0	1.043460E+0	1.014371E+0	1.056695E+0	1.003780E+0	1.048684E+0	1.040376E+0	1.028701E+0	1.008294E+0	1.014956E+0	1.010407E+0	1.013557E+0	1.022683E+0	1.039844E+0	1.006413E+0	1.011740E+0	1.004846E+0	1.017348E+0	1.012627E+0	9.909370E-1	1.036219E+0	1.018101E+0	9.859401E-1	1.016342E+0	1.016962E+0	9.957302E-1	9.959532E-1	1.033366E+0	1.043425E+0	9.950459E-1	9.479337E-1	1.003910E+0	1.003309E+0	1.024852E+0	1.008142E+0
3.000040E+2	1.010961E+0	9.592831E-1	9.786403E-1	9.687946E-1	9.710528E-1	9.948252E-1	1.013893E+0	9.689389E-1	9.416168E-1	1.001147E+0	9.753326E-1	9.904965E-1	9.791038E-1	1.020342E+0	9.771786E-1	9.918143E-1	9.785007E-1	9.922445E-1	1.014553E+0	9.882136E-1	9.814578E-1	9.905700E-1	9.674656E-1	1.002419E+0	9.745383E-1	1.019440E+0	9.850788E-1	9.686264E-1	9.731293E-1	9.463262E-1	9.585017E-1	9.830347E-1	9.676369E-1	1.040262E+0	9.606422E-1	1.011110E+0	9.849156E-1	9.689861E-1	9.738682E-1	1.006719E+0	9.824302E-1	9.643705E-1	1.023302E+0	9.603524E-1	1.006965E+0	9.855527E-1	9.614016E-1	9.728806E-1	9.866638E-1	9.689270E-1	1.001731E+0	1.003247E+0	9.471048E-1	9.658927E-1	9.656735E-1	9.990374E-1	1.019098E+0	9.913179E-1	1.011175E+0	9.874534E-1	9.970571E-1	9.912157E-1	1.021979E+0	9.519349E-1	9.779259E-1	9.720756E-1	9.769336E-1	9.469947E-1	9.619673E-1	9.910576E-1	1.019859E+0	9.647559E-1	9.884041E-1	1.023559E+0	9.933479E-1	9.781533E-1	9.697592E-1	9.969683E-1	9.851140E-1	9.915681E-1	9.307055E-1	1.013562E+0	1.006469E+0	9.887177E-1	9.723525E-1	9.800518E-1	9.660717E-1	1.013804E+0	9.920768E-1	9.896366E-1	9.716131E-1	1.018723E+0	9.617913E-1	9.794903E-1	9.759520E-1	9.998112E-1	9.568534E-1	9.600874E-1	9.613596E-1	1.020552E+0	9.619076E-1	9.955828E-1	9.887655E-1	9.875283E-1	9.966372E-1	9.787550E-1	1.000340E+0	9.984268E-1	9.419868E-1	9.235256E-1	9.880092E-1	9.873933E-1	9.734909E-1	9.567595E-1	1.008648E+0	9.803474E-1	1.000335E+0	9.665611E-1	9.709431E-1	9.696895E-1	1.009243E+0	9.879386E-1	9.558524E-1	9.919835E-1	9.841320E-1	9.792452E-1	9.737018E-1	9.241045E-1	9.763157E-1	1.014857E+0	1.003140E+0	9.639230E-1	9.673168E-1	9.879964E-1	9.920348E-1	9.539282E-1	9.944662E-1	9.876384E-1	1.018136E+0	9.759997E-1	1.005579E+0	9.965544E-1	1.006136E+0	9.530081E-1	9.809703E-1	9.524629E-1	9.626055E-1	9.924884E-1	9.515415E-1	1.007665E+0	9.917272E-1	9.701240E-1	1.014381E+0	9.655099E-1	1.015590E+0	9.440401E-1	9.896129E-1	1.004112E+0	9.720846E-1	9.905658E-1	9.648406E-1	9.396016E-1	9.794336E-1	9.995286E-1	1.022368E+0	9.565974E-1
