Photon Energy (eV)	#1	#2	#3	#4	#5	#6	#7	#8	#9	#10	#11	#12	#13	#14	#15	#16	#17	#18	#19	#20	#21	#22	#23	#24	#25	#26	#27	#28	#29	#30	#31	#32	#33	#34	#35	#36	#37	#38	#39	#40	#41	#42	#43	#44	#45	#46	#47	#48	#49	#50	#51	#52	#53	#54	#55	#56	#57	#58	#59	#60	#61	#62	#63	#64	#65	#66	#67	#68	#69	#70	#71	#72	#73	#74	#75	#76	#77	#78	#79	#80	#81	#82	#83	#84	#85	#86	#87	#88	#89	#90	#91	#92	#93	#94	#95	#96	#97	#98	#99	#100	#101	#102	#103	#104	#105	#106	#107	#108	#109	#110	#111	#112	#113	#114	#115	#116	#117	#118	#119	#120	#121	#122	#123	#124	#125	#126	#127	#128	#129	#130	#131	#132	#133	#134	#135	#136	#137	#138	#139	#140	#141	#142	#143	#144	#145	#146	#147	#148	#149	#150	#151	#152	#153	#154	#155	#156	#157	#158	#159	#160	#161	#162	#163	#164	#165	
2.790010E+2	-7.613823E-3	9.365623E-4	6.771031E-3	3.791406E-3	-9.331531E-3	-9.190605E-3	-1.053383E-2	-1.339834E-3	8.563562E-3	4.527677E-3	-4.239882E-3	-9.371348E-3	4.139594E-3	1.650065E-4	-5.502821E-3	-2.139530E-3	-9.188963E-3	-3.433454E-3	-1.950002E-4	-9.790679E-3	-7.459628E-4	-5.469047E-3	-1.307313E-3	-3.845106E-3	2.000721E-3	-5.225727E-3	-5.702515E-4	1.657069E-3	2.895623E-3	-4.732232E-3	-3.580143E-3	7.559365E-3	-1.980631E-3	-2.108572E-3	-3.616604E-3	-4.974133E-3	-3.373879E-3	-1.232870E-3	1.030506E-3	-7.068763E-3	3.574595E-3	5.349267E-3	-4.454990E-3	-1.111141E-2	-6.112179E-3	-8.394400E-3	-8.736776E-3	6.912633E-3	-2.922837E-3	-7.609103E-3	4.446221E-3	-7.108961E-3	-1.363370E-3	-2.602345E-3	3.571658E-3	-4.058881E-3	-7.584664E-3	-6.839340E-3	-6.990890E-3	6.645659E-3	5.023063E-3	2.461169E-4	1.232648E-4	-1.430889E-3	-1.175704E-2	-6.592460E-3	-4.518641E-3	-9.405339E-4	-1.180615E-2	-3.924515E-3	-7.982854E-3	-1.557672E-3	-5.440714E-3	-3.274019E-3	6.053952E-3	-3.386300E-3	1.894671E-3	-6.545030E-3	-4.245215E-3	-2.438630E-3	-5.632896E-3	-1.775500E-3	-3.490327E-3	-5.407098E-4	-9.687523E-3	-6.563505E-3	-9.409671E-3	5.727450E-3	-5.593506E-3	-6.319563E-4	-6.559487E-3	7.197486E-3	-9.138047E-3	1.320458E-3	1.362677E-2	5.548555E-4	-3.680779E-3	3.796710E-3	1.988852E-3	2.843334E-3	-9.636902E-3	-4.807377E-3	2.002822E-3	3.159075E-3	5.831001E-3	-6.179018E-3	-7.579432E-4	2.324605E-3	-7.969966E-3	-9.356012E-3	1.081994E-2	-6.266739E-4	-1.094417E-2	-1.440636E-4	3.400471E-3	1.575876E-2	-4.435397E-3	-3.949090E-3	-1.015983E-3	-7.715847E-3	-9.566071E-4	-4.086047E-3	1.713912E-3	-8.903256E-4	-9.216221E-3	-3.103003E-3	-6.977095E-3	-1.530993E-3	2.939224E-3	2.394426E-3	-8.956794E-3	-5.636138E-3	7.907891E-3	7.548049E-4	1.058381E-3	2.208756E-4	-1.050993E-2	9.902986E-3	2.183248E-3	5.054122E-4	-3.146895E-3	2.944809E-4	-2.955336E-3	-1.917823E-5	-6.970017E-3	-9.205011E-3	-4.658777E-3	1.037622E-2	-1.953607E-4	-3.555540E-4	-3.911267E-5	1.210740E-3	8.063053E-3	-2.492254E-3	2.197695E-3	-3.449113E-3	-5.363059E-3	9.635546E-3	2.397132E-3	-6.995198E-3	-2.766762E-3	-7.999889E-3	3.686078E-3	-1.673984E-2	-6.399963E-3
2.795040E+2	-3.290846E-3	-2.925364E-3	-8.832584E-3	-1.802959E-3	-1.185868E-3	7.544607E-3	5.810261E-3	1.208449E-3	-2.689094E-3	-5.209919E-4	6.529557E-3	-1.953815E-3	-7.139154E-3	2.346070E-3	-8.057129E-3	-6.140536E-4	6.672327E-3	-8.983646E-4	2.279055E-3	1.571900E-3	-1.947356E-3	-4.038213E-3	-1.112048E-3	-1.200001E-2	-2.445412E-3	-5.032924E-3	4.206941E-4	1.057078E-3	-5.112005E-3	-1.857673E-3	-5.661772E-3	-8.643773E-3	-3.268715E-3	1.015352E-3	-1.679601E-3	5.722407E-3	-4.617616E-3	5.850777E-3	-5.376193E-3	1.044490E-3	-2.428157E-3	-4.303651E-3	-1.026516E-3	8.401192E-3	3.514101E-3	4.378456E-3	3.930446E-3	-3.215048E-3	4.562501E-3	-2.002296E-3	-1.852454E-3	4.683792E-3	-1.877513E-3	2.394230E-3	-1.046480E-2	-1.533126E-2	5.886077E-3	-3.494130E-3	6.493347E-3	-9.766632E-3	-2.826289E-3	3.268820E-3	-4.861464E-3	6.024006E-3	2.958755E-3	7.191251E-4	1.057257E-2	-1.461585E-3	7.956904E-3	3.823667E-3	-3.728467E-3	4.599565E-3	-1.171197E-3	-3.100145E-3	-2.806682E-3	4.363563E-4	2.112021E-3	2.556789E-3	8.438970E-3	-5.270214E-3	-1.535485E-3	1.092385E-2	6.360764E-3	-3.708338E-3	5.529038E-3	-4.273146E-3	-2.640661E-3	1.848906E-4	-1.006502E-2	2.927467E-4	3.414589E-3	-1.014169E-2	-8.833150E-3	4.237646E-3	-1.011184E-2	-2.152064E-3	-5.850377E-3	-7.319224E-3	-4.648968E-3	-1.283195E-2	-3.550700E-3	-4.637621E-3	-1.502583E-2	9.618809E-3	-6.873164E-3	-1.265107E-2	-4.747942E-3	1.064540E-2	5.319538E-4	5.836340E-3	-8.252732E-3	1.575674E-3	-4.107247E-3	-3.797741E-3	-1.116996E-2	-2.740122E-3	-6.614583E-4	-3.740159E-3	3.271148E-3	2.447698E-3	-4.528207E-3	-6.828694E-3	-5.724737E-4	-6.682867E-3	-2.403159E-3	3.004071E-3	-4.982626E-3	1.046978E-4	1.601718E-3	-1.275957E-2	-3.420769E-4	-3.615292E-3	-5.558741E-3	-7.680206E-3	-5.698519E-3	-4.395529E-3	8.220550E-3	-4.036675E-3	1.546062E-3	-8.190677E-3	-1.469151E-3	3.752428E-4	-3.506350E-3	-5.122040E-3	-4.413150E-3	-4.733435E-3	-6.610048E-4	-6.939112E-4	-3.869041E-3	-4.660608E-3	-1.463388E-3	2.087419E-3	-6.157988E-3	-3.859916E-3	-7.766314E-3	-3.269318E-3	-5.903265E-3	-1.573450E-3	-2.932400E-3	2.003136E-3	-2.587595E-3	-5.401390E-4	-5.830400E-3	1.707714E-3	-3.234324E-3
2.800020E+2	3.852648E-3	-1.379571E-3	2.403501E-3	-8.293775E-3	3.254418E-4	-2.821918E-3	-9.389181E-4	-6.478339E-3	5.331706E-3	2.386081E-3	-8.602793E-3	8.389097E-3	1.054122E-2	-1.788548E-3	7.040754E-3	7.604671E-4	6.617105E-3	-4.821632E-3	6.600438E-4	-9.520433E-3	7.990463E-4	2.929188E-3	4.406294E-4	-6.764367E-3	-7.075980E-3	-2.986065E-3	-4.087005E-3	-5.774322E-3	3.647641E-3	-5.486485E-4	7.136471E-3	-6.659913E-3	-1.052110E-3	3.104013E-4	-3.400409E-3	-8.785739E-3	5.139646E-3	2.318997E-4	-2.157933E-3	-1.373438E-3	-7.031318E-3	5.401690E-3	5.290165E-3	-1.163127E-2	4.896208E-3	-2.653827E-3	1.762638E-3	-1.213763E-2	-2.740688E-3	3.243401E-3	-3.528123E-3	-9.917024E-3	1.092227E-3	9.588781E-4	-1.767618E-2	-5.353114E-3	5.610557E-4	-3.562928E-3	-1.836137E-3	-2.864468E-3	-6.068297E-3	2.479113E-3	-1.195585E-3	-5.633549E-3	-6.064164E-3	6.926670E-3	5.047335E-3	-6.485155E-3	-1.222619E-2	-2.444342E-3	4.607508E-3	-2.918850E-3	-6.062510E-3	3.272583E-3	1.693273E-3	-3.141087E-3	-3.755154E-3	-6.338813E-3	9.974035E-4	-2.285741E-3	-8.370662E-4	8.273204E-4	-4.033590E-3	6.587499E-4	-5.887999E-3	1.869153E-3	3.733495E-3	-5.645701E-3	-1.013278E-2	6.809866E-3	-2.882131E-3	-7.831111E-3	-8.173260E-4	-1.196566E-2	-3.995960E-3	-4.948029E-5	2.926160E-3	-8.189921E-3	-3.829906E-3	-3.064189E-4	-1.231205E-2	1.177439E-3	-2.567935E-3	-1.017416E-2	-7.732065E-3	8.344551E-4	-3.124685E-3	-1.051390E-2	-2.796657E-4	-6.902377E-3	1.923683E-3	-3.403218E-3	-5.815557E-3	5.422088E-3	-7.955852E-3	-1.206882E-3	-7.191822E-4	1.249444E-3	2.388953E-3	2.382405E-3	-7.598444E-3	1.175245E-3	1.964069E-3	9.858717E-4	-3.911046E-3	4.416174E-3	5.797140E-3	-3.624678E-3	4.481267E-3	-2.886419E-3	6.870625E-3	-3.673140E-3	-6.705836E-4	-3.157973E-3	6.490843E-3	-4.458025E-3	5.841076E-3	-9.926108E-3	-2.195766E-4	7.889360E-3	6.719165E-3	-9.662424E-3	3.796302E-4	1.638218E-3	-5.988563E-3	-7.039785E-4	-4.510611E-3	-1.553559E-3	-4.699025E-3	-7.648601E-3	6.735778E-3	-7.428235E-3	2.782990E-3	-4.662121E-3	-7.045258E-3	2.243167E-3	4.820001E-3	-8.337344E-3	1.685797E-3	1.208576E-3	-5.769661E-3	5.411091E-3	-7.364550E-3	1.627182E-3	1.851378E-2
2.805050E+2	-9.386238E-4	5.100364E-3	1.237743E-3	-1.627458E-3	-3.527781E-3	2.049166E-3	9.017476E-4	-2.395281E-3	-2.593421E-4	-1.002769E-2	-9.744964E-4	-9.634286E-3	-6.430697E-3	-7.898307E-3	6.879985E-4	2.900141E-3	-1.085635E-3	-4.779435E-3	-6.035896E-3	1.924694E-4	-3.337490E-3	-9.753167E-3	1.109354E-5	-8.688736E-3	7.813156E-4	-9.597820E-5	-7.678942E-4	-3.290371E-3	-5.102407E-3	-3.157172E-3	2.929834E-3	-7.845652E-3	-6.870412E-3	-1.070646E-2	-3.744749E-3	1.762175E-3	2.406820E-3	-3.169845E-3	-2.453430E-3	-8.240623E-3	2.906565E-3	-5.341585E-4	-1.087736E-3	-9.715895E-3	3.513957E-3	-3.995525E-3	-1.575883E-3	-3.175807E-3	7.047639E-3	1.769782E-3	7.003629E-3	-4.516427E-3	-9.534592E-3	-3.143790E-3	4.210121E-3	-3.836957E-3	-2.891939E-3	2.613378E-3	-7.385288E-3	-2.798890E-3	5.856979E-3	-1.255411E-2	7.740151E-4	-7.043356E-3	2.056807E-4	-6.479199E-5	-3.475726E-3	1.036802E-4	-4.753648E-3	-5.159005E-3	1.568008E-3	-9.548869E-3	-2.825278E-3	-8.844010E-3	-1.342164E-3	4.774164E-3	-4.503182E-3	-1.155323E-3	3.482172E-3	-4.528930E-3	-8.006725E-4	-4.566922E-3	-1.580318E-2	-2.893122E-3	-1.604042E-3	1.087291E-2	-3.458879E-3	-6.440012E-3	-3.816362E-3	-9.975138E-3	1.149724E-3	-1.095381E-2	6.917351E-4	-7.013571E-3	3.707394E-3	4.319851E-3	1.261843E-2	2.226071E-3	-2.073691E-3	-4.480706E-3	-5.757411E-3	-7.590768E-3	9.982863E-3	-3.037937E-3	-4.892547E-4	-8.150420E-4	-6.471932E-3	-1.559977E-3	5.107290E-4	-1.551987E-4	-1.686085E-3	-1.460109E-2	4.025805E-3	-4.595941E-3	3.514808E-3	-1.639119E-2	-9.286481E-3	-7.346966E-3	-1.622381E-3	9.123595E-4	-1.058616E-2	6.364043E-3	-9.283288E-3	1.890544E-3	-9.658348E-4	2.987559E-3	-2.508264E-3	2.301426E-3	-1.356164E-3	-3.606751E-3	1.329093E-2	-1.129640E-3	-1.320042E-3	2.122635E-3	-2.225320E-3	3.503182E-3	-5.625755E-3	-3.312700E-3	6.653934E-4	-6.424761E-3	-9.737839E-3	1.080609E-3	-1.143451E-2	-7.336422E-3	-5.190864E-3	-5.574030E-3	-3.711736E-3	-6.637621E-3	-6.191072E-3	3.395554E-3	-3.151655E-3	-1.792599E-3	-3.930255E-3	-4.610594E-3	7.737530E-4	-4.833913E-3	-1.055370E-2	-3.076909E-3	-2.955965E-3	-6.754144E-3	-5.722129E-3	-4.576028E-3	-2.929053E-3	-2.717441E-4	-1.416093E-2
2.810050E+2	-1.549343E-2	8.770443E-4	-1.255938E-3	6.394199E-4	-3.675995E-3	-2.927917E-3	7.236494E-5	2.133795E-3	-2.859972E-3	-6.502332E-3	-9.138074E-3	4.809335E-4	-5.157597E-3	4.932619E-3	-3.276725E-3	-6.134794E-3	-1.280546E-2	-4.163766E-3	8.658307E-4	-5.116920E-3	1.399431E-3	9.325449E-4	-4.099300E-3	1.779797E-3	-1.382563E-4	-3.732937E-3	-7.555680E-3	2.619243E-3	-2.324989E-3	-5.304793E-3	-7.960525E-3	-5.679757E-4	5.417598E-3	2.099402E-4	1.049191E-2	-1.198578E-2	-1.102753E-2	-2.616006E-3	-4.395534E-3	-5.079580E-3	-4.078651E-3	-1.337896E-2	-6.487712E-3	8.110888E-3	-2.354814E-3	-6.892833E-3	-1.085405E-2	1.167972E-3	-9.333167E-3	-1.050882E-2	-1.220761E-2	-1.512378E-3	1.110853E-4	9.993273E-5	2.332897E-3	1.567057E-3	-3.882254E-3	-3.620566E-3	3.166460E-3	7.771825E-3	-3.015187E-3	-1.049350E-2	2.768062E-4	-7.130794E-3	2.609137E-3	-2.983535E-3	-1.912467E-3	8.019024E-4	-2.731018E-3	-5.974187E-3	-7.673856E-3	-5.220615E-3	-5.482130E-3	3.881588E-3	1.047825E-3	-9.402470E-3	-8.283964E-3	-5.727471E-4	-8.520773E-3	-3.901931E-3	8.918754E-3	-9.342011E-3	3.772303E-4	-1.236367E-3	-1.137051E-3	-4.415854E-3	7.327759E-4	-1.154514E-2	-4.011336E-3	-1.227485E-2	9.688199E-4	6.279531E-3	1.998735E-3	4.050862E-3	-9.701747E-3	-7.319685E-3	-6.033047E-3	6.007204E-3	-2.259075E-3	1.969386E-3	-2.305854E-3	5.443035E-3	4.326171E-3	-3.982170E-3	-6.242156E-3	-7.743567E-3	-5.781614E-3	-3.330418E-3	-3.936953E-4	-3.210031E-4	-1.132170E-2	7.001116E-3	-5.940428E-3	-3.194149E-3	1.065263E-2	-8.517758E-3	2.028199E-3	6.167833E-3	-4.206486E-3	-6.799828E-3	-3.898422E-3	-1.364346E-2	-1.615012E-3	-1.028157E-2	-3.286167E-3	-6.061073E-3	-1.833418E-3	-6.646795E-3	-2.234508E-3	-3.755072E-3	3.449357E-4	1.120037E-2	-1.479433E-3	-8.438078E-3	-6.373943E-4	-1.087700E-2	-8.830271E-3	-7.099655E-3	5.020034E-4	-1.196918E-3	-8.366546E-3	-6.900296E-3	1.837824E-3	5.906426E-5	-1.542843E-3	2.443637E-3	-6.876297E-3	-1.608155E-3	7.398753E-3	2.495602E-3	2.246939E-6	-6.701471E-3	-1.071277E-3	-1.080482E-3	4.498187E-3	-3.401064E-3	-1.454168E-3	-1.065351E-2	-1.166093E-2	-9.799503E-3	-2.754885E-3	-2.732837E-3	-1.625568E-2	5.850711E-3	2.468510E-4
2.815020E+2	2.980329E-4	-5.711972E-3	-2.178211E-3	-6.865371E-3	-7.682259E-3	5.116108E-3	-3.400867E-3	-8.172343E-3	-1.663417E-2	2.092298E-3	-4.438500E-5	1.094445E-3	-3.892009E-3	6.614374E-6	-4.056378E-3	-8.260864E-4	1.500923E-4	1.830510E-3	-1.340276E-2	2.071939E-3	4.714686E-3	7.838334E-4	-5.477934E-3	-2.928107E-3	-4.916108E-3	7.225115E-3	-4.630958E-4	-2.057133E-3	-6.844987E-3	6.252150E-4	1.137812E-3	9.342359E-3	9.604366E-3	2.982969E-3	-8.095451E-3	7.080873E-3	-2.096553E-3	-2.757208E-3	-2.460614E-3	2.623711E-3	7.809030E-3	7.035185E-4	5.770768E-4	2.260083E-3	-2.401760E-3	-6.055251E-5	1.139900E-2	-1.478179E-4	-7.847271E-3	5.943826E-3	-2.544248E-4	-1.082750E-2	-3.821847E-3	-4.804530E-3	3.463560E-3	-1.482305E-4	2.011023E-3	3.846996E-3	-6.287012E-3	-2.017798E-3	-1.341460E-2	-6.336264E-4	7.996976E-4	6.348391E-4	-6.480036E-3	-5.197357E-3	-3.671613E-3	-6.672796E-3	4.473149E-3	-6.107027E-3	4.288713E-3	-6.809844E-3	6.914775E-4	-1.120201E-2	-8.661038E-3	8.685890E-4	2.389639E-3	-2.187597E-3	-5.763517E-3	4.265064E-3	-4.133747E-3	-1.073628E-3	2.541026E-3	-3.968735E-3	1.186121E-4	-4.522966E-3	8.128595E-3	4.164683E-3	3.626780E-3	-8.711626E-3	-1.055388E-2	2.530527E-5	3.907481E-4	-5.158682E-3	-8.488931E-3	-3.075697E-3	-2.184955E-3	1.858129E-3	-4.079328E-3	2.616137E-4	1.797645E-3	3.089744E-3	-5.985821E-4	-1.576641E-3	-4.774239E-3	-1.970633E-3	4.444239E-3	7.108912E-4	-2.767738E-3	-4.900861E-3	-6.634699E-4	-5.690373E-3	-2.039160E-3	4.356355E-3	-1.979906E-3	-1.482270E-3	9.704913E-3	9.904131E-4	9.374730E-4	-3.903699E-3	3.494232E-3	-2.818667E-3	5.810443E-4	-4.431130E-3	-1.265563E-3	-7.675646E-3	3.531797E-4	4.180044E-3	-8.213893E-3	1.406310E-3	-1.068888E-2	-8.885741E-3	-2.339038E-3	1.161048E-3	-6.886123E-3	-1.578788E-3	-5.772515E-4	-6.523784E-3	-8.065067E-3	-8.475149E-3	-3.279798E-3	5.000608E-3	6.386696E-3	2.161950E-3	-3.951338E-3	-3.406918E-3	-1.752665E-3	-4.176404E-5	-3.428252E-3	-8.597032E-3	-6.727429E-3	-4.490469E-3	-1.962747E-3	-4.908044E-3	-1.074787E-3	1.143689E-2	1.217628E-2	1.067151E-3	3.724189E-3	-1.916999E-3	5.621243E-3	5.075539E-3	-3.304644E-4	-8.988499E-3	-1.072825E-2
2.820030E+2	1.557600E-3	-4.633191E-4	-3.367198E-3	-1.535433E-3	9.817036E-3	-1.231816E-2	3.040805E-3	3.199071E-3	-1.780139E-3	1.138216E-2	5.439196E-3	-4.668166E-5	-2.072088E-3	3.178543E-3	8.494484E-3	4.400986E-3	5.215114E-3	-3.131217E-3	6.849462E-3	6.226349E-3	-1.139162E-3	3.787513E-3	3.024496E-5	2.042565E-2	8.619912E-3	-2.076835E-3	5.694479E-4	2.160659E-3	-2.790143E-3	8.517310E-3	2.286273E-3	1.048875E-3	-3.139723E-3	4.876221E-3	6.196425E-3	3.444062E-4	4.680660E-3	-9.247414E-4	1.073702E-2	7.869088E-3	-1.509620E-3	1.125218E-3	3.965974E-3	6.028563E-3	-4.889898E-3	1.100686E-3	2.034231E-3	7.662668E-3	4.810106E-3	3.441453E-3	5.356237E-3	1.499929E-2	-3.285025E-3	1.860471E-3	2.020815E-3	8.185373E-3	9.526400E-3	5.147222E-3	-5.829918E-3	7.242923E-3	4.680002E-4	9.207051E-3	6.321474E-3	3.883491E-4	5.687566E-3	3.618814E-3	-5.428393E-3	1.022091E-2	8.818923E-3	2.622688E-3	5.484858E-3	9.265522E-3	6.161775E-3	9.994829E-3	-4.570333E-3	9.358036E-3	-7.555822E-4	4.907444E-3	-6.848490E-3	1.548879E-2	-6.017997E-3	-6.758154E-3	2.377080E-3	1.260073E-2	-5.743116E-3	-4.103360E-3	-5.214069E-4	1.052133E-2	1.857846E-2	7.096506E-3	1.644279E-3	6.918875E-3	8.549797E-4	5.851292E-3	7.845998E-3	-4.911063E-4	3.126203E-3	-6.398186E-3	9.372884E-3	4.169074E-3	2.135923E-2	-1.508197E-3	-2.370763E-3	2.203060E-3	6.123151E-3	9.590676E-3	3.442729E-3	4.568891E-4	-6.569546E-5	3.781650E-3	3.890941E-3	3.271980E-3	2.577093E-3	-5.750054E-4	6.177363E-3	1.052714E-2	-6.250052E-3	-2.117630E-3	2.883546E-3	6.722289E-3	2.079992E-2	6.591079E-3	-2.076489E-3	6.670702E-3	8.700162E-3	-1.260714E-3	1.951602E-3	-7.753075E-3	-2.673396E-3	8.837114E-3	-2.823331E-5	-6.428633E-5	-6.090872E-3	5.633831E-3	3.305496E-4	7.884708E-3	3.026899E-3	3.505787E-3	-4.967665E-3	6.497977E-3	3.223316E-3	4.888983E-3	1.006414E-2	4.647967E-4	1.249715E-2	8.528360E-3	1.386332E-2	-7.380753E-3	4.708813E-3	1.097682E-2	3.028825E-4	-1.603278E-3	-2.272095E-3	6.692636E-3	-3.756456E-3	-3.063623E-3	-3.454386E-3	1.056772E-2	1.891321E-3	1.108146E-2	9.336487E-3	-4.394095E-3	4.580508E-3	1.262022E-2	-3.087906E-3
2.825040E+2	2.162844E-2	3.566256E-3	5.221656E-3	1.569417E-2	1.526096E-2	1.254872E-2	5.048436E-3	1.184448E-2	1.032745E-2	-3.337196E-3	1.103088E-2	1.104165E-2	1.001073E-2	-9.419981E-4	4.669817E-3	1.652871E-3	4.425422E-3	1.939736E-2	8.979262E-3	1.436537E-2	2.568075E-4	1.082735E-2	1.151463E-2	1.202088E-2	3.173807E-3	1.192535E-2	1.245378E-2	3.627778E-3	1.563127E-2	6.457995E-3	3.712049E-3	5.766715E-3	1.289627E-3	3.420147E-3	3.848483E-3	1.083579E-2	8.888458E-3	4.617994E-3	5.076177E-3	1.022512E-2	7.575565E-4	5.637072E-3	3.223739E-3	7.657850E-3	3.834386E-3	1.651800E-2	2.040397E-3	2.933035E-3	6.423717E-3	5.721759E-3	1.036529E-3	1.419921E-2	1.867903E-2	5.237154E-3	1.254193E-2	1.897601E-2	-3.625698E-3	5.909369E-3	1.866944E-2	-4.212619E-3	1.397634E-2	8.480133E-3	-2.238209E-3	1.419139E-2	1.284010E-2	3.573535E-3	3.386932E-3	4.433576E-3	1.026803E-2	1.716272E-2	3.436089E-3	1.219076E-2	1.412858E-2	9.271179E-3	8.585167E-3	4.927108E-4	1.090155E-2	9.335278E-3	1.245945E-2	-1.328410E-3	1.003911E-2	1.176504E-2	1.167100E-2	-9.122108E-4	1.841208E-2	1.113676E-2	3.435752E-3	3.032500E-3	1.141376E-2	1.739445E-2	1.281809E-2	8.505410E-3	1.485233E-2	8.677657E-3	7.118323E-3	8.213325E-3	-9.216306E-4	8.019217E-3	5.529232E-3	8.375670E-3	1.040604E-2	8.833745E-3	4.251250E-3	3.789968E-3	1.415673E-2	1.893420E-2	1.299715E-2	1.266507E-3	1.043408E-2	1.201746E-2	5.289427E-3	1.247258E-2	2.224366E-2	2.528457E-3	-2.639562E-3	4.052317E-3	9.619459E-3	8.746155E-3	-2.636269E-3	5.954623E-3	3.273692E-3	1.324650E-2	9.288237E-3	1.273877E-2	1.234783E-2	7.692631E-3	8.199483E-3	1.296937E-2	5.455751E-3	1.036996E-2	-4.905108E-4	1.180387E-2	9.550818E-3	9.603938E-3	7.567583E-3	9.700572E-3	8.454680E-3	1.749015E-2	8.355601E-3	9.394756E-3	1.605775E-2	4.922797E-3	-7.720893E-4	8.153611E-3	1.555963E-2	1.265138E-2	8.307768E-3	7.539547E-3	6.275184E-3	4.393817E-3	4.340676E-3	1.871789E-2	4.548320E-3	1.492077E-2	1.217318E-2	4.336979E-3	9.732297E-3	2.370794E-3	7.850852E-3	1.117267E-2	4.643301E-3	9.756356E-3	2.444356E-2	4.194260E-3	1.885074E-2
2.830060E+2	2.295478E-2	1.526168E-2	1.488838E-2	1.109136E-2	1.240962E-2	4.548599E-3	-8.287412E-4	1.375489E-2	1.477285E-2	8.715479E-3	1.277666E-2	1.697871E-2	2.196394E-2	-1.548292E-3	1.089250E-2	1.654758E-2	1.402285E-2	1.594322E-2	4.178660E-3	8.697723E-3	2.103286E-2	1.124749E-2	4.165540E-3	7.692885E-4	9.546385E-3	1.374839E-2	1.619419E-2	2.320107E-2	1.836123E-2	2.202071E-2	3.231776E-3	1.165219E-2	1.036602E-2	2.844896E-2	8.006746E-3	2.064119E-3	7.091076E-3	1.836298E-2	3.314225E-3	9.746425E-3	5.573472E-3	6.593082E-3	1.609656E-2	7.054991E-3	1.146556E-2	1.563883E-2	2.298541E-2	1.890436E-2	-2.481871E-3	1.451729E-2	1.671795E-2	1.933817E-2	7.666344E-3	8.430100E-3	9.664854E-3	2.429840E-2	1.726297E-3	8.502043E-3	1.047507E-2	9.177225E-3	1.523592E-2	5.850633E-3	1.176750E-2	8.680692E-3	7.731190E-3	2.448147E-2	1.488263E-2	1.297671E-2	1.524805E-2	4.999712E-3	2.109994E-2	7.354999E-3	1.223015E-2	6.693018E-3	1.190030E-2	9.570909E-3	1.422262E-2	6.622038E-3	5.486635E-3	7.326443E-3	1.422751E-2	1.131619E-2	9.389889E-3	2.097693E-2	-4.198581E-3	2.214839E-2	7.071073E-3	1.080146E-2	5.367651E-3	5.083985E-3	1.748389E-2	3.922981E-3	1.451159E-2	1.047856E-2	1.259365E-2	9.949299E-3	1.399188E-2	-2.264865E-3	1.523885E-2	1.456751E-2	2.275750E-2	5.465953E-3	7.912619E-3	7.218051E-3	7.959235E-3	8.106735E-3	1.419464E-2	8.005321E-3	1.767136E-2	7.829775E-3	-2.889587E-3	1.440655E-2	8.653068E-3	2.404501E-2	9.488559E-3	2.608405E-3	1.809446E-2	1.571510E-2	1.442965E-2	2.963823E-2	2.363913E-2	1.224616E-2	1.644620E-2	1.217415E-2	8.191751E-4	1.717684E-2	1.964901E-2	1.791787E-2	2.226308E-2	2.402667E-2	1.136507E-2	1.632652E-2	1.071988E-2	2.549039E-2	1.896701E-2	6.778031E-3	7.989980E-3	1.437081E-2	1.831159E-2	2.435366E-2	9.619618E-3	1.404083E-2	1.123041E-2	8.406314E-3	4.290148E-3	1.375951E-2	5.974077E-3	3.238948E-3	2.302573E-2	1.073313E-2	1.379217E-2	7.085956E-3	1.244808E-2	1.320705E-2	1.541221E-2	1.526397E-2	1.005891E-2	2.595151E-3	1.628309E-2	6.317898E-3	2.484665E-3	2.027456E-2	1.298387E-2	3.186520E-3	5.171362E-3
2.835020E+2	8.467479E-3	2.246682E-2	2.176577E-2	9.767007E-3	1.273605E-2	2.004721E-2	2.386225E-2	1.911715E-2	3.449279E-3	1.290341E-2	2.891638E-2	1.914455E-2	7.780340E-3	3.226683E-2	1.477186E-2	1.709812E-2	2.733132E-2	1.563926E-2	2.674914E-2	1.752469E-2	1.428809E-2	1.975849E-2	2.123305E-2	1.619803E-2	2.363909E-2	2.082556E-2	2.222140E-2	1.516588E-2	2.204450E-2	1.563131E-2	1.770338E-2	2.284117E-2	3.063787E-2	1.923860E-2	8.349527E-3	1.996105E-2	2.434848E-2	3.348348E-2	1.256227E-2	2.676798E-2	8.274637E-3	2.336943E-2	1.819143E-2	2.969200E-2	1.415630E-2	3.600428E-2	1.993582E-2	1.537981E-2	1.294122E-2	1.736922E-2	7.565487E-3	1.666604E-2	8.810849E-3	1.961006E-2	2.180304E-2	2.499442E-2	-9.377644E-4	1.607440E-2	1.926493E-2	2.594360E-2	1.242593E-2	2.798727E-2	2.344710E-2	1.282694E-2	1.551130E-2	3.395474E-2	3.157190E-2	1.677143E-2	1.964113E-2	2.559153E-2	2.388765E-2	2.014799E-2	5.183439E-3	3.330421E-2	1.384313E-2	3.557175E-2	2.687150E-2	2.851474E-2	9.132772E-3	2.597998E-2	2.822458E-2	3.103252E-2	1.119702E-2	3.170893E-2	1.753237E-2	2.138962E-2	1.296280E-2	2.935647E-2	-5.901543E-3	1.223568E-2	2.385353E-2	1.167349E-2	2.420447E-2	1.092017E-2	2.971337E-2	1.331615E-2	2.707599E-2	2.553044E-2	1.822639E-2	3.604619E-2	2.348984E-2	1.972697E-2	1.868555E-2	1.000294E-2	1.664495E-2	1.815798E-2	3.007450E-2	1.251677E-2	1.586960E-2	1.601472E-2	6.775749E-3	2.017279E-2	1.761960E-2	2.304557E-2	5.307858E-3	1.886165E-2	1.494617E-2	1.774804E-2	1.497918E-2	2.561287E-2	2.029537E-2	1.201177E-2	2.713506E-2	2.976218E-2	1.549477E-2	2.090010E-2	1.452937E-2	2.855045E-2	2.289459E-2	2.713812E-2	1.261402E-2	3.517217E-2	1.273620E-2	1.951405E-2	1.959073E-2	2.553027E-2	1.642162E-2	3.953187E-2	2.270534E-2	1.446109E-2	5.308830E-3	1.612214E-2	2.457691E-2	1.984344E-2	1.885522E-2	2.183765E-2	2.600002E-2	1.693886E-2	1.970127E-2	1.278627E-2	2.096744E-2	1.669547E-2	1.916462E-2	2.934882E-3	1.741259E-2	2.837000E-2	2.905045E-2	2.164764E-2	2.387298E-2	2.053501E-2	1.829617E-2	2.078528E-2	6.791600E-3	2.204627E-2	1.763637E-2
2.840030E+2	5.262795E-2	5.170722E-2	5.495546E-2	5.412105E-2	5.651259E-2	4.745419E-2	4.551490E-2	5.004328E-2	2.880438E-2	4.723835E-2	5.061014E-2	4.943338E-2	4.696781E-2	3.619989E-2	3.598648E-2	5.597225E-2	5.711163E-2	5.195913E-2	6.115382E-2	4.189386E-2	5.594280E-2	4.518916E-2	4.944453E-2	3.895022E-2	5.251500E-2	4.404488E-2	5.548672E-2	4.826525E-2	5.988326E-2	4.970811E-2	3.905252E-2	5.056416E-2	4.326512E-2	5.303563E-2	4.189066E-2	5.694254E-2	4.629281E-2	6.431991E-2	3.967521E-2	4.641125E-2	5.926646E-2	6.761879E-2	5.002348E-2	5.975004E-2	4.352609E-2	6.119067E-2	4.996400E-2	5.145191E-2	4.399195E-2	5.550843E-2	4.428762E-2	6.018361E-2	4.908191E-2	5.562910E-2	5.432032E-2	6.168078E-2	4.603624E-2	4.223023E-2	5.786842E-2	6.251419E-2	4.615449E-2	4.741782E-2	4.649442E-2	5.162957E-2	6.012615E-2	6.123100E-2	4.922235E-2	5.965651E-2	5.954213E-2	5.913158E-2	6.127854E-2	5.678807E-2	4.875062E-2	3.591519E-2	4.961103E-2	3.852668E-2	5.584615E-2	6.024615E-2	4.150336E-2	5.462528E-2	5.608033E-2	5.426066E-2	4.939911E-2	6.586039E-2	4.888400E-2	5.850822E-2	4.249500E-2	5.039210E-2	5.204353E-2	5.680687E-2	5.454189E-2	4.035454E-2	4.706152E-2	5.527518E-2	6.793756E-2	5.340358E-2	5.901362E-2	4.703095E-2	5.114839E-2	3.879398E-2	3.916325E-2	5.848225E-2	6.193150E-2	4.798756E-2	3.442317E-2	3.240644E-2	4.444866E-2	4.884133E-2	5.500751E-2	6.553388E-2	4.006236E-2	4.674490E-2	6.130658E-2	3.288467E-2	6.472315E-2	4.807237E-2	5.262963E-2	5.095194E-2	5.261557E-2	7.480147E-2	6.737981E-2	6.093086E-2	4.732667E-2	4.641660E-2	5.514549E-2	4.484131E-2	5.603842E-2	3.740247E-2	5.605280E-2	4.689692E-2	3.601801E-2	6.310208E-2	5.749144E-2	4.214755E-2	6.368964E-2	4.868313E-2	5.670269E-2	4.950923E-2	4.678527E-2	5.364516E-2	4.359894E-2	4.908692E-2	5.186463E-2	5.794539E-2	6.682444E-2	4.355015E-2	6.197579E-2	5.927119E-2	4.755088E-2	5.758991E-2	4.980214E-2	4.828178E-2	5.210046E-2	4.227228E-2	5.637308E-2	4.304854E-2	5.979975E-2	5.691771E-2	4.877020E-2	6.153826E-2	5.507357E-2	5.379032E-2	4.631032E-2	3.281647E-2	3.467453E-2
2.841030E+2	6.328468E-2	4.943646E-2	7.037517E-2	5.183229E-2	6.865435E-2	5.893442E-2	5.089442E-2	6.986462E-2	6.145503E-2	7.208045E-2	5.891185E-2	7.024990E-2	5.886690E-2	6.820383E-2	7.471341E-2	5.962828E-2	6.837988E-2	6.482569E-2	5.542235E-2	6.918264E-2	6.005883E-2	7.372395E-2	6.496314E-2	6.059396E-2	6.805804E-2	6.618288E-2	6.013776E-2	6.088080E-2	5.947296E-2	4.863277E-2	5.317794E-2	6.403186E-2	6.495759E-2	6.705176E-2	6.794680E-2	7.378563E-2	6.778655E-2	5.950156E-2	5.741210E-2	7.834769E-2	4.561722E-2	5.910686E-2	5.816781E-2	7.780127E-2	7.275871E-2	6.910960E-2	5.568607E-2	8.290452E-2	5.564428E-2	6.649847E-2	5.383112E-2	5.888639E-2	7.291625E-2	5.510509E-2	6.314358E-2	7.953807E-2	6.420944E-2	6.153550E-2	6.365409E-2	6.479786E-2	8.147550E-2	5.548799E-2	5.139441E-2	9.339395E-2	5.085061E-2	5.696380E-2	5.336709E-2	6.268909E-2	6.788238E-2	7.958918E-2	4.990107E-2	6.033269E-2	5.847053E-2	6.243938E-2	4.443788E-2	6.725980E-2	5.847332E-2	6.221332E-2	6.083181E-2	6.403968E-2	6.710396E-2	6.620375E-2	5.187700E-2	8.838592E-2	5.714304E-2	6.713826E-2	5.279756E-2	4.979218E-2	6.171070E-2	5.872335E-2	6.990569E-2	4.852699E-2	7.348375E-2	6.624053E-2	5.195763E-2	6.634644E-2	6.282679E-2	5.080172E-2	6.298157E-2	5.182010E-2	5.429218E-2	7.631311E-2	7.299845E-2	5.772081E-2	6.663309E-2	6.370429E-2	4.634326E-2	6.672854E-2	6.502704E-2	4.823678E-2	5.161157E-2	6.988952E-2	6.083291E-2	7.318721E-2	7.382238E-2	5.968933E-2	6.615973E-2	7.463727E-2	5.891298E-2	8.263500E-2	6.203651E-2	4.939787E-2	8.669048E-2	4.767440E-2	6.804815E-2	6.521272E-2	8.156015E-2	6.552877E-2	6.038937E-2	8.759367E-2	6.813074E-2	5.985263E-2	7.239499E-2	7.000574E-2	6.642612E-2	6.709130E-2	5.873391E-2	7.590764E-2	7.438543E-2	5.106029E-2	7.551043E-2	5.021297E-2	8.110689E-2	7.301011E-2	7.134823E-2	7.120289E-2	6.536967E-2	6.614981E-2	6.201153E-2	5.797871E-2	7.375491E-2	7.100116E-2	7.765686E-2	7.129455E-2	5.825235E-2	5.973018E-2	6.353624E-2	6.050716E-2	6.280455E-2	6.668121E-2	5.122935E-2	3.899380E-2	6.969465E-2	4.902088E-2	5.458671E-2
2.842030E+2	7.400130E-2	6.271680E-2	6.731567E-2	8.064379E-2	7.597754E-2	7.135935E-2	7.525535E-2	6.435862E-2	9.169666E-2	6.705074E-2	8.034175E-2	7.505344E-2	6.496457E-2	7.618543E-2	6.158177E-2	6.755876E-2	7.488180E-2	8.292328E-2	8.054774E-2	6.068865E-2	7.510486E-2	7.232320E-2	8.303715E-2	8.553023E-2	9.437155E-2	7.828263E-2	8.805848E-2	7.412352E-2	7.808212E-2	7.276220E-2	6.845465E-2	6.770532E-2	9.121141E-2	8.048430E-2	7.616261E-2	9.393305E-2	7.067674E-2	6.828001E-2	6.944610E-2	9.061443E-2	5.896696E-2	7.102579E-2	7.208125E-2	8.265235E-2	8.446199E-2	6.896570E-2	8.520125E-2	6.438392E-2	7.450279E-2	7.510852E-2	5.324265E-2	8.754996E-2	7.742394E-2	9.250086E-2	6.927143E-2	7.726270E-2	7.107406E-2	8.025063E-2	7.969876E-2	7.835891E-2	7.422150E-2	9.021388E-2	6.397508E-2	8.366475E-2	6.812138E-2	7.763182E-2	8.945593E-2	5.929902E-2	6.560522E-2	7.564897E-2	6.867219E-2	6.844623E-2	7.869245E-2	7.529025E-2	7.456573E-2	9.521219E-2	7.534530E-2	8.257230E-2	8.184354E-2	8.843184E-2	7.657680E-2	8.384154E-2	7.452344E-2	8.124937E-2	7.222831E-2	7.434062E-2	8.392384E-2	8.311730E-2	6.534687E-2	7.657457E-2	8.932736E-2	8.687681E-2	7.873922E-2	6.820110E-2	8.450000E-2	7.698887E-2	5.784385E-2	5.447038E-2	7.661866E-2	6.928902E-2	6.232498E-2	8.086575E-2	6.421466E-2	7.701362E-2	7.743848E-2	8.796400E-2	7.289529E-2	7.323821E-2	8.414277E-2	8.015183E-2	7.614299E-2	6.194641E-2	8.961330E-2	8.454119E-2	6.874012E-2	7.049121E-2	7.443275E-2	5.863020E-2	8.033843E-2	1.081617E-1	7.560163E-2	6.247112E-2	7.984641E-2	6.941829E-2	7.405346E-2	8.183664E-2	7.022996E-2	6.995097E-2	7.999972E-2	7.656000E-2	7.116950E-2	6.095515E-2	8.455978E-2	6.774564E-2	7.709508E-2	7.357736E-2	6.240521E-2	6.774170E-2	6.231015E-2	7.275813E-2	8.995687E-2	5.909214E-2	9.197288E-2	6.850511E-2	6.689992E-2	6.799556E-2	7.493760E-2	6.637977E-2	7.516829E-2	8.315817E-2	8.122883E-2	7.580009E-2	7.593960E-2	6.050958E-2	8.301006E-2	1.209770E-1	7.491910E-2	8.365434E-2	7.295714E-2	6.393327E-2	5.922493E-2	5.862389E-2	7.873328E-2	7.538702E-2	9.959879E-2
2.843040E+2	6.076985E-2	8.039857E-2	8.445460E-2	6.387617E-2	8.036070E-2	1.029096E-1	8.746270E-2	7.321783E-2	9.203273E-2	6.956242E-2	6.168835E-2	7.910965E-2	7.452751E-2	7.497549E-2	8.581195E-2	8.996744E-2	7.922256E-2	6.347746E-2	7.851920E-2	8.331365E-2	1.095432E-1	8.047562E-2	7.293297E-2	8.294128E-2	7.770703E-2	8.862976E-2	7.400596E-2	8.864125E-2	7.610962E-2	8.803418E-2	7.413960E-2	7.926552E-2	7.870394E-2	6.116308E-2	8.560114E-2	8.253031E-2	7.198453E-2	6.539232E-2	6.663551E-2	8.532211E-2	9.233158E-2	8.286625E-2	7.562502E-2	8.149217E-2	6.689422E-2	6.153712E-2	1.076364E-1	8.450485E-2	7.590671E-2	7.113692E-2	7.236150E-2	6.743771E-2	8.794962E-2	7.962107E-2	7.547554E-2	7.266357E-2	7.618260E-2	8.912094E-2	8.900288E-2	6.634174E-2	7.655014E-2	7.248247E-2	6.341542E-2	7.553673E-2	7.501879E-2	9.031681E-2	8.268531E-2	7.712229E-2	9.946740E-2	7.298805E-2	8.025564E-2	8.416976E-2	7.455278E-2	8.117233E-2	9.980904E-2	7.994000E-2	8.204605E-2	7.722175E-2	9.269811E-2	8.461192E-2	8.608135E-2	6.964563E-2	7.346918E-2	8.661541E-2	7.809225E-2	8.234702E-2	8.522977E-2	5.854957E-2	9.341086E-2	7.440400E-2	8.522999E-2	7.311875E-2	9.531820E-2	8.636285E-2	8.973112E-2	7.887631E-2	6.660334E-2	8.263634E-2	7.434349E-2	8.873552E-2	7.605981E-2	8.861825E-2	6.885919E-2	7.277321E-2	8.292980E-2	6.194819E-2	9.100605E-2	7.056257E-2	8.537237E-2	8.544230E-2	6.581156E-2	6.367917E-2	7.918298E-2	8.567778E-2	6.488116E-2	8.839119E-2	9.464463E-2	7.782813E-2	8.538245E-2	8.262930E-2	9.767859E-2	6.993413E-2	8.844019E-2	6.168493E-2	9.608871E-2	8.058270E-2	7.206193E-2	7.341105E-2	8.276543E-2	7.425028E-2	9.208881E-2	8.949286E-2	7.804507E-2	7.826748E-2	8.063502E-2	9.582745E-2	8.372312E-2	8.583701E-2	8.162861E-2	8.759115E-2	9.712362E-2	8.693803E-2	7.249645E-2	8.706015E-2	8.467380E-2	1.050833E-1	8.302886E-2	9.783127E-2	6.687705E-2	7.875554E-2	8.793683E-2	7.249065E-2	8.786146E-2	6.798896E-2	7.186339E-2	7.237189E-2	8.368650E-2	7.911400E-2	7.482074E-2	7.625732E-2	9.564024E-2	9.489654E-2	9.650164E-2	7.738791E-2	6.559250E-2
2.844010E+2	9.758653E-2	9.432237E-2	8.243819E-2	1.043915E-1	8.523495E-2	8.890175E-2	8.276739E-2	8.014407E-2	9.439569E-2	1.025217E-1	1.008201E-1	9.728670E-2	9.810653E-2	1.125240E-1	1.024374E-1	1.103036E-1	1.089058E-1	1.119424E-1	1.277112E-1	1.161959E-1	1.053527E-1	8.305449E-2	1.074624E-1	1.124671E-1	9.562614E-2	9.139575E-2	1.050547E-1	1.023905E-1	9.374396E-2	1.115630E-1	1.076909E-1	1.024471E-1	9.130862E-2	1.136987E-1	1.057442E-1	1.060272E-1	1.106459E-1	9.529638E-2	9.855561E-2	7.879904E-2	1.135314E-1	1.041487E-1	9.704085E-2	8.881443E-2	8.304016E-2	1.030413E-1	1.065043E-1	1.077007E-1	8.481743E-2	1.138060E-1	8.034150E-2	9.492438E-2	9.991970E-2	1.023769E-1	1.000413E-1	1.178422E-1	1.069284E-1	9.920170E-2	8.575184E-2	8.758868E-2	7.864564E-2	1.009789E-1	1.044910E-1	7.792437E-2	1.000064E-1	1.027190E-1	1.030815E-1	8.822919E-2	1.012028E-1	1.071959E-1	1.202416E-1	9.791437E-2	8.641239E-2	8.025227E-2	1.031631E-1	9.288499E-2	8.050321E-2	9.023948E-2	8.131126E-2	9.560079E-2	1.238819E-1	1.140537E-1	1.018877E-1	9.302363E-2	1.017739E-1	9.214699E-2	1.047568E-1	1.067333E-1	1.025534E-1	1.091596E-1	1.051711E-1	1.098590E-1	9.219484E-2	1.048783E-1	1.159593E-1	9.744283E-2	9.678694E-2	9.919524E-2	8.374175E-2	1.091438E-1	8.662910E-2	9.329970E-2	7.528479E-2	9.893985E-2	8.803583E-2	7.673726E-2	9.484155E-2	9.379052E-2	9.426099E-2	9.758641E-2	1.009276E-1	7.752451E-2	1.051449E-1	7.946857E-2	8.495193E-2	9.704035E-2	9.522472E-2	9.999357E-2	1.103263E-1	1.212304E-1	1.034670E-1	9.432837E-2	9.655657E-2	1.044525E-1	9.428685E-2	8.448107E-2	7.615357E-2	1.172553E-1	1.021183E-1	8.840301E-2	9.183369E-2	8.552922E-2	9.664309E-2	9.401274E-2	8.839369E-2	9.643207E-2	1.030310E-1	9.449877E-2	1.045937E-1	9.631087E-2	1.242860E-1	8.435285E-2	8.111882E-2	9.855937E-2	1.113691E-1	1.047913E-1	1.173628E-1	9.754686E-2	1.193521E-1	9.558727E-2	1.111630E-1	9.872765E-2	1.051288E-1	9.476380E-2	9.333959E-2	9.334278E-2	1.065192E-1	1.251120E-1	1.076773E-1	1.077270E-1	9.711309E-2	1.101820E-1	9.621895E-2	1.074275E-1	9.771292E-2
2.845040E+2	1.829232E-1	1.972341E-1	1.844431E-1	2.028935E-1	1.873325E-1	1.963115E-1	1.988698E-1	1.726035E-1	2.027845E-1	1.671246E-1	1.925763E-1	1.680137E-1	1.967507E-1	1.874327E-1	1.778866E-1	2.193876E-1	2.081621E-1	2.136524E-1	1.889324E-1	2.052688E-1	1.981956E-1	1.940733E-1	1.848256E-1	1.776429E-1	1.827442E-1	1.739069E-1	2.037755E-1	1.938274E-1	2.130383E-1	2.106333E-1	2.023288E-1	1.831351E-1	1.865247E-1	1.891263E-1	1.917674E-1	1.995054E-1	1.963658E-1	1.893479E-1	2.097985E-1	2.043863E-1	1.743543E-1	1.838459E-1	1.715941E-1	2.083523E-1	2.117845E-1	1.835472E-1	1.942925E-1	2.010421E-1	1.999625E-1	1.775267E-1	1.819395E-1	1.970247E-1	1.875069E-1	1.920031E-1	1.756821E-1	2.172404E-1	1.985404E-1	1.789873E-1	1.700449E-1	1.871612E-1	1.799504E-1	2.029716E-1	1.891720E-1	1.952332E-1	1.738962E-1	1.809780E-1	1.845411E-1	1.983066E-1	1.896514E-1	2.029324E-1	1.786982E-1	2.013718E-1	2.160921E-1	1.864970E-1	1.726873E-1	1.842395E-1	1.935382E-1	1.702435E-1	1.864259E-1	1.934649E-1	1.973006E-1	1.987430E-1	1.848606E-1	1.923962E-1	1.883732E-1	1.840967E-1	2.100425E-1	1.860539E-1	2.001373E-1	1.896475E-1	1.920493E-1	1.857639E-1	2.096629E-1	2.244344E-1	2.090819E-1	1.922393E-1	1.706527E-1	1.661654E-1	1.987057E-1	2.043840E-1	1.928044E-1	1.944908E-1	1.984380E-1	1.864102E-1	1.862789E-1	1.844003E-1	1.851162E-1	1.867434E-1	1.973639E-1	2.033835E-1	1.973249E-1	1.831777E-1	1.903890E-1	1.957907E-1	2.100555E-1	1.857816E-1	2.021890E-1	1.702453E-1	1.890754E-1	1.871714E-1	1.787897E-1	1.857063E-1	1.850696E-1	1.910014E-1	1.726314E-1	1.757071E-1	1.949344E-1	1.667661E-1	1.927845E-1	2.025676E-1	1.969432E-1	1.805780E-1	1.711455E-1	1.928754E-1	1.906192E-1	2.058326E-1	1.914566E-1	2.006929E-1	2.103162E-1	2.118190E-1	1.799153E-1	2.016529E-1	2.014686E-1	1.603610E-1	1.854099E-1	2.024356E-1	2.036337E-1	1.785611E-1	2.061666E-1	1.817140E-1	1.886548E-1	1.717758E-1	2.086278E-1	2.012223E-1	1.800385E-1	1.886176E-1	1.755905E-1	2.003613E-1	1.637325E-1	2.013341E-1	1.731327E-1	1.897258E-1	1.987992E-1	1.601928E-1	2.086000E-1
2.846040E+2	3.498633E-1	3.700666E-1	3.304004E-1	3.319759E-1	3.588657E-1	3.378625E-1	3.559466E-1	3.444993E-1	3.553262E-1	3.592880E-1	3.747849E-1	3.462082E-1	3.801617E-1	3.356660E-1	3.843344E-1	3.644429E-1	3.915332E-1	3.907655E-1	3.859988E-1	4.278253E-1	3.727173E-1	3.753069E-1	3.880753E-1	4.118427E-1	4.230379E-1	3.864402E-1	3.776950E-1	4.137303E-1	4.340180E-1	3.585729E-1	4.075581E-1	3.812967E-1	3.720491E-1	3.600966E-1	3.645756E-1	3.954530E-1	3.813710E-1	4.161442E-1	3.638493E-1	3.775989E-1	3.421439E-1	4.336979E-1	3.620557E-1	4.023105E-1	3.637447E-1	3.508469E-1	3.776648E-1	3.905551E-1	3.846570E-1	3.837634E-1	3.919319E-1	3.427731E-1	3.847661E-1	3.856179E-1	3.581293E-1	4.023698E-1	4.098705E-1	4.016638E-1	3.834451E-1	4.144882E-1	3.848198E-1	3.566134E-1	4.340612E-1	3.617565E-1	3.871256E-1	3.584462E-1	3.963280E-1	3.708942E-1	4.093780E-1	3.554596E-1	3.901639E-1	3.578216E-1	3.570780E-1	3.596169E-1	3.954308E-1	3.888629E-1	3.913235E-1	3.625837E-1	4.063040E-1	3.963106E-1	3.798411E-1	4.088747E-1	3.511083E-1	3.679314E-1	3.539950E-1	3.770969E-1	3.615783E-1	3.527950E-1	3.735738E-1	3.976622E-1	3.697434E-1	3.768259E-1	4.125607E-1	4.094969E-1	4.005435E-1	3.995817E-1	3.591988E-1	3.947425E-1	4.304564E-1	4.069948E-1	3.462938E-1	3.958773E-1	3.556308E-1	3.451244E-1	3.805062E-1	3.522131E-1	3.615647E-1	3.706017E-1	3.641160E-1	3.779395E-1	3.703073E-1	3.768153E-1	3.924683E-1	3.606754E-1	3.618375E-1	3.603388E-1	3.685132E-1	3.805547E-1	3.934943E-1	3.664338E-1	3.637988E-1	3.506468E-1	3.763240E-1	3.644969E-1	3.769440E-1	3.578712E-1	3.524567E-1	3.808185E-1	3.851113E-1	3.674435E-1	3.578895E-1	3.977908E-1	3.712761E-1	3.688830E-1	3.840416E-1	3.678725E-1	3.655354E-1	3.880235E-1	3.718738E-1	3.751578E-1	3.980736E-1	3.709632E-1	3.631701E-1	3.584287E-1	3.906187E-1	3.777508E-1	3.634282E-1	3.384890E-1	4.016077E-1	3.915650E-1	3.500854E-1	3.713640E-1	3.517848E-1	4.361203E-1	3.665033E-1	3.631701E-1	3.985724E-1	3.673688E-1	3.887208E-1	3.973388E-1	3.795902E-1	3.691367E-1	4.050234E-1	3.630609E-1	3.855719E-1
2.847030E+2	7.302063E-1	7.115117E-1	7.026074E-1	7.137300E-1	7.407398E-1	7.354831E-1	7.282102E-1	7.108256E-1	7.619826E-1	7.297493E-1	6.849708E-1	7.126088E-1	7.348497E-1	7.791573E-1	7.269944E-1	7.428975E-1	8.134171E-1	7.737635E-1	7.489487E-1	8.164390E-1	8.040762E-1	7.618304E-1	7.975986E-1	8.007749E-1	7.863653E-1	7.910972E-1	7.662659E-1	7.485498E-1	7.540162E-1	7.680453E-1	8.300759E-1	7.861724E-1	8.315047E-1	8.221868E-1	7.568941E-1	7.845549E-1	7.545128E-1	7.801405E-1	7.437626E-1	7.781704E-1	8.522801E-1	8.371049E-1	8.089583E-1	8.045157E-1	8.238752E-1	8.162184E-1	7.679074E-1	7.917738E-1	7.581980E-1	8.294954E-1	7.648259E-1	7.819946E-1	8.051164E-1	7.803556E-1	7.413459E-1	7.507605E-1	7.800670E-1	7.963045E-1	7.523792E-1	7.995156E-1	7.683508E-1	8.096906E-1	7.819201E-1	7.767010E-1	7.964872E-1	7.130287E-1	8.088544E-1	7.511758E-1	8.044471E-1	8.114309E-1	7.935317E-1	7.483063E-1	7.532729E-1	7.730528E-1	7.594455E-1	8.053678E-1	7.783700E-1	7.975746E-1	8.091546E-1	7.929793E-1	7.529158E-1	8.066320E-1	7.528157E-1	7.979412E-1	7.603965E-1	7.646258E-1	7.593426E-1	7.685603E-1	7.786773E-1	7.946484E-1	7.878140E-1	7.602830E-1	7.348857E-1	7.737204E-1	7.455750E-1	7.749905E-1	7.481281E-1	7.482159E-1	7.590613E-1	8.011574E-1	7.707644E-1	7.795218E-1	7.839956E-1	7.761683E-1	7.934076E-1	7.395658E-1	7.339705E-1	7.824900E-1	7.477392E-1	7.507190E-1	7.909013E-1	7.341276E-1	7.671866E-1	7.645531E-1	7.545673E-1	7.595547E-1	8.045855E-1	7.617962E-1	7.070775E-1	7.699268E-1	7.601709E-1	7.374073E-1	7.677437E-1	8.097488E-1	7.362711E-1	7.956795E-1	7.321894E-1	7.644295E-1	8.181141E-1	7.844964E-1	7.853322E-1	7.571790E-1	7.240808E-1	7.703998E-1	7.587420E-1	7.551508E-1	7.748201E-1	8.069523E-1	7.054110E-1	8.025663E-1	7.595367E-1	7.497173E-1	7.757340E-1	7.395606E-1	7.459546E-1	8.005355E-1	7.435678E-1	7.519658E-1	7.442085E-1	8.118417E-1	7.564821E-1	7.425262E-1	7.446240E-1	7.939203E-1	7.086010E-1	7.652957E-1	7.617267E-1	7.717962E-1	8.101007E-1	8.549973E-1	7.685377E-1	7.503767E-1	7.666387E-1	7.757165E-1	7.585947E-1
2.848050E+2	1.254725E+0	1.229718E+0	1.220590E+0	1.205183E+0	1.290271E+0	1.245655E+0	1.203723E+0	1.234735E+0	1.268340E+0	1.236408E+0	1.226609E+0	1.194689E+0	1.205218E+0	1.207407E+0	1.196738E+0	1.252697E+0	1.292579E+0	1.214496E+0	1.250735E+0	1.270429E+0	1.235800E+0	1.244518E+0	1.283315E+0	1.289327E+0	1.349085E+0	1.292147E+0	1.275484E+0	1.231256E+0	1.313157E+0	1.267378E+0	1.299708E+0	1.247484E+0	1.239160E+0	1.255628E+0	1.221489E+0	1.340656E+0	1.246382E+0	1.234036E+0	1.268155E+0	1.190447E+0	1.255678E+0	1.259922E+0	1.233891E+0	1.272234E+0	1.275377E+0	1.238971E+0	1.334697E+0	1.192168E+0	1.274601E+0	1.205414E+0	1.227852E+0	1.205298E+0	1.245408E+0	1.249922E+0	1.251397E+0	1.273855E+0	1.262642E+0	1.274339E+0	1.204019E+0	1.252362E+0	1.253261E+0	1.217558E+0	1.293822E+0	1.258908E+0	1.247853E+0	1.287763E+0	1.260248E+0	1.298370E+0	1.267855E+0	1.266140E+0	1.256249E+0	1.265576E+0	1.308317E+0	1.203529E+0	1.200997E+0	1.301591E+0	1.191568E+0	1.179528E+0	1.311101E+0	1.303480E+0	1.289655E+0	1.313756E+0	1.273209E+0	1.214298E+0	1.243709E+0	1.244420E+0	1.214090E+0	1.232273E+0	1.259064E+0	1.262596E+0	1.263734E+0	1.215439E+0	1.239227E+0	1.261049E+0	1.232596E+0	1.269774E+0	1.219839E+0	1.302637E+0	1.363183E+0	1.172777E+0	1.223359E+0	1.285583E+0	1.225645E+0	1.244933E+0	1.302657E+0	1.278403E+0	1.258326E+0	1.247131E+0	1.287138E+0	1.247521E+0	1.250075E+0	1.223309E+0	1.229695E+0	1.244225E+0	1.265286E+0	1.230695E+0	1.222789E+0	1.224365E+0	1.248938E+0	1.276854E+0	1.202845E+0	1.257997E+0	1.190573E+0	1.282711E+0	1.209783E+0	1.307591E+0	1.297944E+0	1.210895E+0	1.267080E+0	1.212673E+0	1.202405E+0	1.201765E+0	1.292341E+0	1.246355E+0	1.252120E+0	1.250067E+0	1.261256E+0	1.220870E+0	1.216893E+0	1.267565E+0	1.264244E+0	1.286020E+0	1.254351E+0	1.259422E+0	1.239998E+0	1.222270E+0	1.239091E+0	1.263512E+0	1.277589E+0	1.263595E+0	1.258627E+0	1.232620E+0	1.251871E+0	1.166550E+0	1.183374E+0	1.237224E+0	1.279487E+0	1.202252E+0	1.241670E+0	1.277243E+0	1.235112E+0	1.295373E+0	1.229185E+0	1.290257E+0	1.303578E+0
2.849040E+2	1.401202E+0	1.429587E+0	1.369237E+0	1.381544E+0	1.395836E+0	1.451428E+0	1.486225E+0	1.430408E+0	1.477013E+0	1.467103E+0	1.403142E+0	1.442934E+0	1.393230E+0	1.418835E+0	1.420086E+0	1.436658E+0	1.391422E+0	1.397116E+0	1.369243E+0	1.357844E+0	1.430125E+0	1.350160E+0	1.416923E+0	1.445844E+0	1.392888E+0	1.387338E+0	1.413629E+0	1.332344E+0	1.424382E+0	1.435280E+0	1.365327E+0	1.384620E+0	1.361452E+0	1.383314E+0	1.404299E+0	1.360577E+0	1.392007E+0	1.418293E+0	1.452983E+0	1.412131E+0	1.416605E+0	1.432770E+0	1.355460E+0	1.444450E+0	1.481432E+0	1.386730E+0	1.383477E+0	1.437879E+0	1.410601E+0	1.437703E+0	1.351272E+0	1.391413E+0	1.398802E+0	1.427758E+0	1.351388E+0	1.446606E+0	1.407577E+0	1.424831E+0	1.386693E+0	1.402912E+0	1.422450E+0	1.435758E+0	1.467061E+0	1.377851E+0	1.348661E+0	1.418004E+0	1.400869E+0	1.364054E+0	1.430043E+0	1.488048E+0	1.430197E+0	1.493435E+0	1.388136E+0	1.297033E+0	1.412994E+0	1.510186E+0	1.344550E+0	1.426325E+0	1.425205E+0	1.464765E+0	1.390985E+0	1.472756E+0	1.390183E+0	1.460218E+0	1.363704E+0	1.367508E+0	1.376541E+0	1.436833E+0	1.509910E+0	1.382137E+0	1.412432E+0	1.435064E+0	1.459128E+0	1.465786E+0	1.413665E+0	1.440589E+0	1.398154E+0	1.412706E+0	1.463705E+0	1.392036E+0	1.385488E+0	1.489757E+0	1.325971E+0	1.460159E+0	1.490212E+0	1.393142E+0	1.395576E+0	1.425465E+0	1.378448E+0	1.420721E+0	1.403446E+0	1.446713E+0	1.410778E+0	1.381920E+0	1.403168E+0	1.373409E+0	1.358651E+0	1.501405E+0	1.381661E+0	1.397364E+0	1.397371E+0	1.416929E+0	1.400608E+0	1.480665E+0	1.468315E+0	1.327150E+0	1.402206E+0	1.388703E+0	1.447650E+0	1.411870E+0	1.376599E+0	1.424828E+0	1.438761E+0	1.420670E+0	1.392732E+0	1.414656E+0	1.383538E+0	1.431578E+0	1.327760E+0	1.460838E+0	1.454356E+0	1.464922E+0	1.454530E+0	1.374636E+0	1.458583E+0	1.457701E+0	1.378358E+0	1.348773E+0	1.421795E+0	1.445697E+0	1.400428E+0	1.442927E+0	1.450714E+0	1.405555E+0	1.390409E+0	1.409441E+0	1.456060E+0	1.455710E+0	1.419525E+0	1.502848E+0	1.478339E+0	1.491653E+0	1.421352E+0	1.499175E+0	1.368270E+0
2.850030E+2	1.412312E+0	1.452305E+0	1.421089E+0	1.466552E+0	1.374224E+0	1.448614E+0	1.358438E+0	1.335072E+0	1.456976E+0	1.366438E+0	1.397197E+0	1.410118E+0	1.313771E+0	1.394255E+0	1.430492E+0	1.435536E+0	1.431812E+0	1.365756E+0	1.331927E+0	1.394332E+0	1.401262E+0	1.366359E+0	1.342595E+0	1.342732E+0	1.362320E+0	1.418155E+0	1.399089E+0	1.335684E+0	1.360492E+0	1.395036E+0	1.399968E+0	1.355888E+0	1.355882E+0	1.353617E+0	1.330319E+0	1.395809E+0	1.289126E+0	1.376490E+0	1.385915E+0	1.344837E+0	1.395072E+0	1.350490E+0	1.403198E+0	1.371295E+0	1.397150E+0	1.380015E+0	1.438469E+0	1.337987E+0	1.421671E+0	1.368124E+0	1.378310E+0	1.378665E+0	1.359660E+0	1.362141E+0	1.348632E+0	1.403909E+0	1.359919E+0	1.364293E+0	1.385671E+0	1.488600E+0	1.375084E+0	1.396763E+0	1.390139E+0	1.386397E+0	1.472637E+0	1.359315E+0	1.335040E+0	1.403983E+0	1.452771E+0	1.359607E+0	1.339955E+0	1.379749E+0	1.459169E+0	1.258057E+0	1.387928E+0	1.387689E+0	1.403728E+0	1.440082E+0	1.373745E+0	1.441444E+0	1.360307E+0	1.387640E+0	1.397582E+0	1.425236E+0	1.381681E+0	1.430767E+0	1.364102E+0	1.352466E+0	1.401828E+0	1.403743E+0	1.395558E+0	1.346649E+0	1.361254E+0	1.348854E+0	1.366135E+0	1.455390E+0	1.436822E+0	1.357850E+0	1.395575E+0	1.359366E+0	1.446347E+0	1.458811E+0	1.313235E+0	1.328031E+0	1.408519E+0	1.382060E+0	1.298457E+0	1.397679E+0	1.357680E+0	1.332813E+0	1.357740E+0	1.413341E+0	1.452686E+0	1.362350E+0	1.372288E+0	1.382319E+0	1.380334E+0	1.446473E+0	1.345690E+0	1.439986E+0	1.401759E+0	1.424689E+0	1.388990E+0	1.372591E+0	1.382586E+0	1.449402E+0	1.392896E+0	1.422098E+0	1.426383E+0	1.401097E+0	1.341813E+0	1.430542E+0	1.410327E+0	1.366624E+0	1.364697E+0	1.445105E+0	1.410983E+0	1.413030E+0	1.353514E+0	1.358148E+0	1.400827E+0	1.383628E+0	1.406549E+0	1.383822E+0	1.365866E+0	1.413710E+0	1.374956E+0	1.367816E+0	1.395196E+0	1.411249E+0	1.406506E+0	1.381717E+0	1.354762E+0	1.402523E+0	1.384395E+0	1.461272E+0	1.469322E+0	1.445842E+0	1.388497E+0	1.407244E+0	1.364486E+0	1.354824E+0	1.335369E+0	1.338838E+0	1.471310E+0
2.851050E+2	1.207343E+0	1.236200E+0	1.252314E+0	1.259871E+0	1.285042E+0	1.298425E+0	1.263917E+0	1.202506E+0	1.285056E+0	1.229852E+0	1.272909E+0	1.259482E+0	1.268645E+0	1.192735E+0	1.314661E+0	1.218478E+0	1.302529E+0	1.249448E+0	1.265832E+0	1.252669E+0	1.256760E+0	1.265390E+0	1.256707E+0	1.213897E+0	1.186623E+0	1.246991E+0	1.223184E+0	1.203753E+0	1.266752E+0	1.223654E+0	1.204408E+0	1.234961E+0	1.239247E+0	1.228749E+0	1.130795E+0	1.202683E+0	1.188696E+0	1.243297E+0	1.254043E+0	1.203683E+0	1.252838E+0	1.248672E+0	1.247469E+0	1.241628E+0	1.256877E+0	1.257546E+0	1.239033E+0	1.205006E+0	1.280991E+0	1.212039E+0	1.265106E+0	1.194033E+0	1.216817E+0	1.221624E+0	1.270703E+0	1.192399E+0	1.246839E+0	1.227471E+0	1.250122E+0	1.299068E+0	1.241159E+0	1.306907E+0	1.244173E+0	1.246610E+0	1.327743E+0	1.222008E+0	1.279338E+0	1.337735E+0	1.252015E+0	1.250269E+0	1.275429E+0	1.236995E+0	1.247128E+0	1.222794E+0	1.259285E+0	1.257364E+0	1.244578E+0	1.270549E+0	1.283204E+0	1.277371E+0	1.263381E+0	1.265473E+0	1.190303E+0	1.183355E+0	1.238502E+0	1.252051E+0	1.193267E+0	1.192978E+0	1.255996E+0	1.252780E+0	1.209418E+0	1.264332E+0	1.329224E+0	1.250776E+0	1.226780E+0	1.219620E+0	1.258537E+0	1.238858E+0	1.253152E+0	1.218599E+0	1.293378E+0	1.255448E+0	1.262868E+0	1.247425E+0	1.347678E+0	1.286836E+0	1.234356E+0	1.217886E+0	1.259655E+0	1.264071E+0	1.269425E+0	1.235576E+0	1.270931E+0	1.202081E+0	1.212001E+0	1.277105E+0	1.286317E+0	1.281314E+0	1.253631E+0	1.220015E+0	1.263518E+0	1.218604E+0	1.243297E+0	1.204475E+0	1.274886E+0	1.263412E+0	1.216495E+0	1.285868E+0	1.323339E+0	1.203046E+0	1.219160E+0	1.280106E+0	1.291969E+0	1.305139E+0	1.242063E+0	1.228090E+0	1.239821E+0	1.271951E+0	1.232187E+0	1.250307E+0	1.261875E+0	1.223969E+0	1.247959E+0	1.224940E+0	1.211108E+0	1.321793E+0	1.278202E+0	1.247853E+0	1.312977E+0	1.254914E+0	1.286339E+0	1.260952E+0	1.274322E+0	1.220699E+0	1.189257E+0	1.285784E+0	1.257503E+0	1.226259E+0	1.233501E+0	1.246290E+0	1.267648E+0	1.312390E+0	1.317028E+0	1.303520E+0	1.334206E+0
2.852020E+2	9.546140E-1	9.272833E-1	1.007259E+0	9.613581E-1	1.000334E+0	9.800055E-1	1.025243E+0	9.788778E-1	1.016437E+0	1.002877E+0	1.022584E+0	1.029322E+0	9.804715E-1	1.016808E+0	1.036275E+0	9.918749E-1	1.008836E+0	1.007233E+0	9.921388E-1	1.018110E+0	1.067716E+0	1.013839E+0	9.765668E-1	9.725913E-1	1.032140E+0	1.017517E+0	1.055855E+0	1.060460E+0	1.011688E+0	1.052968E+0	9.963112E-1	9.890418E-1	1.027708E+0	9.818876E-1	1.006003E+0	1.049914E+0	9.639775E-1	9.953580E-1	1.042460E+0	9.432600E-1	1.027555E+0	1.031112E+0	9.843760E-1	9.987671E-1	1.041109E+0	9.530667E-1	1.000571E+0	1.009104E+0	9.873368E-1	1.009982E+0	1.044666E+0	1.042844E+0	9.840817E-1	1.014955E+0	1.023432E+0	9.750400E-1	1.041231E+0	1.032320E+0	1.024545E+0	1.044069E+0	9.637466E-1	9.855941E-1	9.959021E-1	9.909517E-1	1.064376E+0	9.524534E-1	1.011450E+0	1.031517E+0	9.835325E-1	9.968454E-1	9.962276E-1	1.044759E+0	1.036217E+0	9.856019E-1	9.788746E-1	1.105467E+0	1.069470E+0	1.021974E+0	1.052378E+0	1.011645E+0	9.712664E-1	9.866114E-1	9.751631E-1	1.005580E+0	1.020174E+0	1.027787E+0	9.632476E-1	1.056071E+0	1.055063E+0	1.004924E+0	1.009645E+0	1.029517E+0	9.862406E-1	1.058332E+0	9.754488E-1	1.071769E+0	1.098386E+0	1.030882E+0	1.064185E+0	1.013712E+0	1.007201E+0	1.033006E+0	1.019526E+0	1.006079E+0	1.025008E+0	9.902592E-1	1.032740E+0	1.012338E+0	1.008606E+0	9.569032E-1	9.946225E-1	1.034055E+0	1.064397E+0	9.428335E-1	1.003071E+0	9.593019E-1	1.013111E+0	9.799387E-1	9.650546E-1	1.047466E+0	9.851932E-1	1.013649E+0	9.884122E-1	1.021682E+0	9.995220E-1	1.006120E+0	1.090488E+0	1.045507E+0	1.029582E+0	1.003454E+0	1.025812E+0	9.724404E-1	1.030852E+0	1.045560E+0	1.001340E+0	1.026400E+0	1.089775E+0	9.830244E-1	9.924499E-1	1.079554E+0	1.059204E+0	9.886238E-1	9.749527E-1	9.446871E-1	1.026394E+0	1.084012E+0	9.721722E-1	9.868775E-1	1.067116E+0	1.076068E+0	1.035513E+0	9.975595E-1	1.050729E+0	9.733154E-1	9.712855E-1	1.040114E+0	1.011593E+0	9.680406E-1	1.004095E+0	1.057771E+0	9.873988E-1	1.025045E+0	1.094401E+0	1.053739E+0	9.653782E-1
2.853030E+2	6.688429E-1	6.916654E-1	6.601438E-1	6.717774E-1	6.669984E-1	6.677980E-1	6.497285E-1	7.063545E-1	6.474608E-1	6.980829E-1	6.609440E-1	6.737270E-1	6.827583E-1	7.109262E-1	6.881737E-1	6.972847E-1	6.450464E-1	6.895277E-1	6.885232E-1	6.296631E-1	6.710467E-1	6.664539E-1	7.116854E-1	7.119295E-1	6.850721E-1	6.755027E-1	6.606191E-1	6.579325E-1	7.359267E-1	7.000213E-1	6.885257E-1	6.742582E-1	6.802722E-1	6.404021E-1	6.222892E-1	6.643171E-1	6.484716E-1	6.611461E-1	6.986981E-1	6.790896E-1	6.739924E-1	7.100613E-1	6.711237E-1	7.070214E-1	6.835046E-1	7.148499E-1	6.656669E-1	6.844127E-1	6.542522E-1	6.476896E-1	6.283338E-1	6.581185E-1	6.594539E-1	6.713613E-1	6.415228E-1	6.789911E-1	6.672857E-1	6.691791E-1	6.882822E-1	7.106910E-1	6.669445E-1	6.936056E-1	6.553634E-1	7.220809E-1	7.204978E-1	6.818248E-1	7.170894E-1	6.844770E-1	6.612646E-1	6.632041E-1	6.944631E-1	6.707955E-1	6.935290E-1	6.859783E-1	6.851710E-1	7.234441E-1	7.004956E-1	7.094201E-1	7.059185E-1	6.864432E-1	6.744944E-1	6.965734E-1	6.722550E-1	6.671516E-1	6.670992E-1	6.931158E-1	6.726158E-1	6.672705E-1	6.763304E-1	6.726770E-1	6.375004E-1	7.212054E-1	7.219566E-1	6.538501E-1	6.519329E-1	6.574174E-1	6.552092E-1	6.629172E-1	7.105281E-1	6.952371E-1	6.875626E-1	7.018502E-1	6.962617E-1	6.500336E-1	6.944484E-1	6.928708E-1	6.778816E-1	6.963930E-1	6.459535E-1	6.791412E-1	6.638558E-1	7.047568E-1	7.111190E-1	6.415217E-1	6.967564E-1	6.851675E-1	6.805495E-1	6.977064E-1	6.438419E-1	6.901814E-1	6.731899E-1	6.954026E-1	6.652139E-1	6.881284E-1	6.648795E-1	6.778112E-1	7.045538E-1	7.067807E-1	7.391704E-1	6.734768E-1	6.499578E-1	7.196251E-1	7.196526E-1	7.059994E-1	6.637792E-1	7.204572E-1	6.381902E-1	6.843710E-1	6.516696E-1	6.881854E-1	7.021733E-1	6.839076E-1	6.647051E-1	6.561657E-1	6.579873E-1	7.298981E-1	7.230291E-1	6.479685E-1	6.849861E-1	7.004019E-1	6.947680E-1	7.354178E-1	6.955313E-1	7.296547E-1	6.770149E-1	6.537303E-1	7.297735E-1	6.715035E-1	6.792564E-1	7.137619E-1	7.083010E-1	6.572882E-1	6.367671E-1	7.237009E-1	7.278263E-1
2.854050E+2	4.701995E-1	5.360079E-1	4.711531E-1	5.073858E-1	4.980226E-1	5.359018E-1	4.932892E-1	5.013732E-1	4.940433E-1	4.922736E-1	5.487549E-1	5.130260E-1	4.712779E-1	4.981360E-1	5.295387E-1	5.146656E-1	5.459837E-1	5.288193E-1	4.838857E-1	4.822113E-1	4.997446E-1	4.901799E-1	5.416164E-1	5.207832E-1	5.364045E-1	5.074076E-1	5.281320E-1	5.343644E-1	5.259356E-1	5.194317E-1	4.957070E-1	4.467323E-1	4.910435E-1	5.227316E-1	5.448077E-1	5.114643E-1	5.092678E-1	5.179108E-1	5.277853E-1	5.057484E-1	4.685504E-1	5.316523E-1	5.197222E-1	5.160428E-1	5.108248E-1	5.174591E-1	5.403846E-1	5.207396E-1	5.575966E-1	5.427304E-1	5.070544E-1	5.190142E-1	5.188895E-1	4.899769E-1	5.074769E-1	5.085588E-1	5.344709E-1	5.209898E-1	4.895622E-1	5.059865E-1	5.043514E-1	5.408323E-1	5.408564E-1	5.273477E-1	4.857601E-1	5.046496E-1	5.080053E-1	5.013429E-1	5.370948E-1	4.916512E-1	5.136388E-1	5.010282E-1	5.080576E-1	4.647203E-1	4.783992E-1	5.069382E-1	5.565417E-1	5.375624E-1	4.957555E-1	5.209112E-1	5.273830E-1	5.481591E-1	4.946307E-1	5.295652E-1	5.151948E-1	5.043850E-1	4.818839E-1	5.275672E-1	4.838339E-1	5.306169E-1	4.799408E-1	5.253126E-1	5.114133E-1	5.820221E-1	5.068846E-1	5.534071E-1	5.260343E-1	4.686620E-1	5.008148E-1	5.219847E-1	5.769986E-1	4.754756E-1	5.160738E-1	5.329163E-1	5.166613E-1	5.018293E-1	4.809745E-1	5.062143E-1	5.254578E-1	4.879713E-1	5.541518E-1	5.048620E-1	5.066556E-1	5.154977E-1	5.133267E-1	5.449506E-1	4.851784E-1	4.951641E-1	4.835976E-1	4.901032E-1	5.122804E-1	5.255051E-1	5.049500E-1	5.163212E-1	5.211949E-1	5.192424E-1	4.982369E-1	5.055032E-1	5.310199E-1	5.252945E-1	5.176574E-1	5.311389E-1	5.151508E-1	5.292128E-1	5.269210E-1	5.312227E-1	5.234224E-1	5.141934E-1	4.891442E-1	5.445759E-1	5.059368E-1	4.918683E-1	5.272615E-1	5.444170E-1	5.211102E-1	5.409393E-1	4.841038E-1	5.222837E-1	5.205813E-1	5.402819E-1	5.096581E-1	5.301710E-1	5.001129E-1	5.088722E-1	5.174071E-1	5.245794E-1	5.581953E-1	5.922084E-1	5.097287E-1	5.318650E-1	5.465876E-1	5.537251E-1	5.458601E-1	5.387558E-1	6.087010E-1
2.855050E+2	4.535528E-1	4.729250E-1	4.519889E-1	4.677425E-1	4.483420E-1	4.701397E-1	4.399871E-1	4.263490E-1	5.058923E-1	4.716447E-1	4.633694E-1	4.799814E-1	4.263926E-1	4.980610E-1	4.778889E-1	4.792068E-1	5.027468E-1	4.843897E-1	4.535727E-1	4.645982E-1	5.004607E-1	4.606885E-1	4.726455E-1	4.992045E-1	4.711119E-1	4.609081E-1	4.597957E-1	4.393422E-1	4.614613E-1	4.948357E-1	4.956588E-1	4.736086E-1	4.859657E-1	4.678365E-1	4.567563E-1	4.273073E-1	4.657455E-1	4.811662E-1	4.540638E-1	4.696886E-1	4.591973E-1	4.821783E-1	4.527054E-1	4.650708E-1	4.945579E-1	4.818311E-1	4.714516E-1	4.639055E-1	5.145613E-1	4.588405E-1	4.808357E-1	4.924049E-1	4.463705E-1	4.533745E-1	4.455334E-1	4.548807E-1	4.690271E-1	4.798973E-1	4.614121E-1	5.044928E-1	4.491579E-1	4.883293E-1	4.831992E-1	4.903530E-1	4.846756E-1	4.716448E-1	4.786141E-1	4.992330E-1	4.663189E-1	4.560576E-1	4.586955E-1	4.759371E-1	5.035033E-1	4.398575E-1	4.753543E-1	4.695285E-1	4.469399E-1	4.777469E-1	5.058161E-1	5.143936E-1	5.002499E-1	4.774204E-1	4.874795E-1	4.633420E-1	4.616518E-1	4.843812E-1	4.532424E-1	4.880220E-1	4.498588E-1	4.692179E-1	4.704144E-1	4.608655E-1	4.704420E-1	4.675848E-1	4.478996E-1	5.174099E-1	4.944538E-1	5.051309E-1	5.055480E-1	4.512914E-1	4.578772E-1	5.068060E-1	4.641747E-1	4.801396E-1	5.024164E-1	4.778543E-1	4.576334E-1	4.390883E-1	4.499850E-1	4.938325E-1	4.373945E-1	4.762096E-1	4.903685E-1	4.899953E-1	4.593178E-1	4.544672E-1	4.944113E-1	4.777364E-1	4.636955E-1	4.949101E-1	4.687889E-1	4.839072E-1	4.695060E-1	4.904376E-1	4.716070E-1	4.438086E-1	4.566433E-1	4.919295E-1	4.975039E-1	4.826805E-1	4.967208E-1	4.938623E-1	4.719804E-1	4.521366E-1	4.921816E-1	4.768486E-1	5.026562E-1	4.949484E-1	4.446024E-1	4.892066E-1	4.921807E-1	5.064023E-1	5.136155E-1	5.042774E-1	4.781261E-1	4.450952E-1	4.554312E-1	5.153787E-1	4.618429E-1	4.951927E-1	4.533334E-1	4.702442E-1	4.950815E-1	4.741068E-1	4.529254E-1	4.582950E-1	4.850040E-1	4.905818E-1	4.535220E-1	5.176387E-1	4.532859E-1	4.840407E-1	5.002824E-1	5.009815E-1	5.254656E-1
2.856010E+2	4.039841E-1	4.113627E-1	4.280708E-1	4.363174E-1	4.235250E-1	3.972062E-1	3.938988E-1	3.997788E-1	4.460305E-1	4.028717E-1	4.126579E-1	4.256391E-1	3.975310E-1	4.282126E-1	4.144993E-1	4.238816E-1	4.201698E-1	3.885438E-1	3.887120E-1	4.091177E-1	4.515301E-1	4.258073E-1	4.671551E-1	3.969882E-1	4.240199E-1	4.086424E-1	3.971344E-1	4.218721E-1	3.931606E-1	4.262536E-1	4.455344E-1	3.840591E-1	3.951926E-1	4.275179E-1	4.174897E-1	4.376666E-1	3.995854E-1	4.352988E-1	4.395111E-1	4.115459E-1	4.024489E-1	4.308785E-1	4.258079E-1	3.987840E-1	4.070313E-1	4.153628E-1	4.351274E-1	4.205778E-1	4.121445E-1	4.257358E-1	4.232540E-1	4.290995E-1	4.313015E-1	4.366239E-1	4.276550E-1	4.301803E-1	4.446120E-1	4.376737E-1	4.242222E-1	4.194127E-1	4.172124E-1	4.171580E-1	4.247506E-1	4.034527E-1	4.275522E-1	4.250871E-1	3.810069E-1	4.253486E-1	3.752380E-1	4.224628E-1	4.264525E-1	4.229471E-1	4.254997E-1	3.936100E-1	4.129604E-1	4.514834E-1	4.277567E-1	4.084732E-1	4.535233E-1	4.255563E-1	4.024668E-1	4.103892E-1	4.232206E-1	4.228327E-1	4.348996E-1	3.797821E-1	4.168543E-1	4.060254E-1	4.108134E-1	4.294349E-1	4.389327E-1	4.046398E-1	4.384078E-1	4.364228E-1	4.347159E-1	4.170992E-1	4.180701E-1	4.321097E-1	4.567064E-1	4.223302E-1	4.471078E-1	4.352850E-1	4.193723E-1	4.276695E-1	4.012041E-1	4.173234E-1	3.914913E-1	4.279115E-1	4.498470E-1	3.870964E-1	3.840618E-1	4.162265E-1	4.481374E-1	4.311477E-1	4.237002E-1	4.228311E-1	4.451241E-1	4.286450E-1	4.254545E-1	4.436055E-1	4.037640E-1	4.342565E-1	4.463739E-1	4.435128E-1	3.847573E-1	4.398850E-1	4.242363E-1	4.171524E-1	4.366854E-1	4.420398E-1	4.183128E-1	4.023971E-1	4.233314E-1	4.381339E-1	4.229105E-1	4.456299E-1	4.298255E-1	4.233876E-1	4.169445E-1	3.958572E-1	3.940574E-1	4.514177E-1	4.166400E-1	4.191179E-1	4.054019E-1	4.105111E-1	4.342624E-1	4.303506E-1	4.131593E-1	4.262640E-1	4.078360E-1	3.937483E-1	4.416459E-1	4.459136E-1	4.544299E-1	4.407417E-1	4.359412E-1	4.386956E-1	4.251299E-1	4.246940E-1	4.429988E-1	4.367419E-1	4.913063E-1	4.000551E-1	5.040313E-1
2.858030E+2	5.360850E-1	5.242187E-1	5.457765E-1	5.083427E-1	5.301983E-1	5.200245E-1	5.260511E-1	5.056323E-1	5.487130E-1	5.064749E-1	5.492387E-1	4.961322E-1	5.286420E-1	5.047067E-1	5.389187E-1	5.436733E-1	5.437160E-1	5.723315E-1	5.326549E-1	5.907010E-1	5.675993E-1	5.632243E-1	5.581824E-1	5.607905E-1	5.770461E-1	5.318267E-1	5.067593E-1	5.099147E-1	5.443735E-1	5.330829E-1	5.467867E-1	5.198340E-1	5.289921E-1	5.428144E-1	5.545229E-1	5.244809E-1	5.283671E-1	5.520037E-1	5.319050E-1	5.449999E-1	5.546038E-1	5.548927E-1	4.938529E-1	5.370889E-1	5.327200E-1	5.022507E-1	5.298695E-1	5.245798E-1	5.265159E-1	5.858812E-1	5.081554E-1	5.340457E-1	5.797174E-1	5.421852E-1	5.038745E-1	5.615753E-1	5.533454E-1	5.524749E-1	5.054644E-1	5.279646E-1	5.267140E-1	5.653492E-1	5.377138E-1	5.533366E-1	5.361176E-1	5.348616E-1	5.390492E-1	5.431914E-1	5.103034E-1	5.624743E-1	5.530663E-1	5.042549E-1	5.355578E-1	5.072733E-1	5.234965E-1	5.289515E-1	4.921047E-1	5.305640E-1	5.520736E-1	5.688441E-1	5.423649E-1	5.614227E-1	5.282533E-1	5.514957E-1	5.793797E-1	5.180318E-1	5.360535E-1	5.645941E-1	5.324641E-1	5.464448E-1	5.607462E-1	5.387021E-1	5.031197E-1	5.564836E-1	5.503277E-1	5.205875E-1	5.336112E-1	5.478367E-1	5.478624E-1	5.092644E-1	5.047569E-1	5.858580E-1	5.337055E-1	5.828616E-1	4.988835E-1	5.535740E-1	5.378008E-1	5.530776E-1	5.401565E-1	5.537766E-1	5.280341E-1	5.415118E-1	5.087735E-1	5.134305E-1	5.149286E-1	5.145367E-1	5.474957E-1	5.154699E-1	5.341088E-1	5.544709E-1	5.187617E-1	5.913629E-1	5.579130E-1	5.736894E-1	5.029502E-1	5.129279E-1	5.429942E-1	5.054883E-1	5.683332E-1	5.263388E-1	5.398806E-1	5.623655E-1	5.392793E-1	5.631977E-1	5.255301E-1	5.681979E-1	5.458231E-1	5.384800E-1	5.407845E-1	5.460276E-1	5.425921E-1	5.678229E-1	5.577530E-1	5.041683E-1	5.244512E-1	5.518997E-1	5.305243E-1	5.280197E-1	5.520010E-1	5.523676E-1	5.148001E-1	5.535902E-1	5.191891E-1	5.131900E-1	4.905873E-1	5.369865E-1	5.513922E-1	5.268977E-1	5.027090E-1	5.389542E-1	5.659123E-1	5.543054E-1	5.718067E-1	5.929409E-1	5.053871E-1
2.860020E+2	8.664063E-1	8.133227E-1	7.810323E-1	7.940904E-1	8.515942E-1	8.406746E-1	7.832097E-1	7.867338E-1	8.366440E-1	7.987695E-1	7.888003E-1	8.287019E-1	8.223638E-1	7.987683E-1	7.878288E-1	7.976700E-1	8.316990E-1	7.960972E-1	8.130897E-1	8.504339E-1	8.519445E-1	8.546651E-1	8.667479E-1	8.414834E-1	8.622841E-1	7.790135E-1	8.505200E-1	8.795570E-1	8.332293E-1	8.342413E-1	8.143063E-1	8.224432E-1	8.871238E-1	8.600236E-1	8.025583E-1	8.247619E-1	8.182528E-1	8.556178E-1	8.355243E-1	8.051631E-1	7.986982E-1	8.613589E-1	8.120363E-1	8.668224E-1	8.028240E-1	8.569460E-1	8.369229E-1	8.142534E-1	8.214997E-1	8.730657E-1	8.367659E-1	8.666785E-1	7.948221E-1	8.306168E-1	8.271308E-1	8.151560E-1	8.666808E-1	8.724626E-1	8.198698E-1	8.255143E-1	7.937006E-1	8.347937E-1	8.434993E-1	8.496055E-1	8.448301E-1	7.823960E-1	7.622961E-1	8.369545E-1	8.215505E-1	8.254995E-1	7.931256E-1	8.743559E-1	8.272273E-1	8.022615E-1	8.153918E-1	8.540424E-1	8.356455E-1	8.231185E-1	9.205341E-1	8.694605E-1	8.312400E-1	8.486469E-1	7.508087E-1	8.651720E-1	8.218466E-1	8.152195E-1	8.174087E-1	8.343300E-1	8.383407E-1	8.578674E-1	8.852482E-1	8.382512E-1	8.238101E-1	8.566224E-1	8.357957E-1	8.372020E-1	8.042600E-1	8.493869E-1	8.197912E-1	8.170263E-1	8.351395E-1	8.764665E-1	8.324494E-1	8.233535E-1	8.691428E-1	8.295462E-1	8.137247E-1	8.379016E-1	8.407366E-1	8.239767E-1	8.354231E-1	7.876266E-1	8.227901E-1	8.292123E-1	8.568167E-1	8.580967E-1	8.392596E-1	8.443826E-1	8.170669E-1	8.093148E-1	8.259210E-1	8.683711E-1	8.160823E-1	9.028269E-1	8.311304E-1	8.230742E-1	8.127989E-1	8.322590E-1	8.114058E-1	7.768607E-1	8.067072E-1	8.220732E-1	8.333926E-1	8.302766E-1	8.160127E-1	8.996684E-1	8.055460E-1	8.608028E-1	7.953871E-1	8.193612E-1	8.125463E-1	8.882022E-1	8.064546E-1	7.625307E-1	8.069142E-1	8.395503E-1	8.362583E-1	7.922198E-1	8.425229E-1	8.788714E-1	8.735263E-1	8.312617E-1	8.614397E-1	8.577575E-1	8.027420E-1	8.468191E-1	8.578872E-1	8.616430E-1	8.180958E-1	8.482628E-1	8.566946E-1	8.476006E-1	7.862206E-1	8.724920E-1	8.332356E-1
2.862020E+2	1.226057E+0	1.248191E+0	1.190825E+0	1.234996E+0	1.178764E+0	1.185944E+0	1.148720E+0	1.169830E+0	1.180025E+0	1.183811E+0	1.218240E+0	1.176417E+0	1.122707E+0	1.182008E+0	1.220698E+0	1.212100E+0	1.240201E+0	1.230925E+0	1.163793E+0	1.208437E+0	1.211540E+0	1.150887E+0	1.204019E+0	1.263822E+0	1.207055E+0	1.226102E+0	1.201128E+0	1.198160E+0	1.218359E+0	1.205796E+0	1.227006E+0	1.182841E+0	1.159001E+0	1.236845E+0	1.201870E+0	1.196723E+0	1.175934E+0	1.243829E+0	1.206339E+0	1.220542E+0	1.174451E+0	1.150881E+0	1.210114E+0	1.173606E+0	1.228395E+0	1.245265E+0	1.223655E+0	1.191926E+0	1.270508E+0	1.204066E+0	1.224225E+0	1.145985E+0	1.186387E+0	1.201915E+0	1.134388E+0	1.266924E+0	1.226459E+0	1.213522E+0	1.218000E+0	1.186704E+0	1.159147E+0	1.264319E+0	1.235718E+0	1.225448E+0	1.202867E+0	1.164195E+0	1.170890E+0	1.206479E+0	1.135561E+0	1.231111E+0	1.162544E+0	1.249397E+0	1.181208E+0	1.177623E+0	1.189619E+0	1.256048E+0	1.193672E+0	1.242134E+0	1.184146E+0	1.247643E+0	1.169412E+0	1.192039E+0	1.213264E+0	1.150576E+0	1.218747E+0	1.246462E+0	1.185161E+0	1.180980E+0	1.236467E+0	1.217285E+0	1.182155E+0	1.186354E+0	1.198765E+0	1.251074E+0	1.139121E+0	1.225076E+0	1.217065E+0	1.214337E+0	1.255825E+0	1.165724E+0	1.166895E+0	1.262369E+0	1.261723E+0	1.214741E+0	1.167153E+0	1.248973E+0	1.216753E+0	1.207946E+0	1.212746E+0	1.173670E+0	1.256435E+0	1.149708E+0	1.238014E+0	1.187550E+0	1.179092E+0	1.246848E+0	1.177189E+0	1.229787E+0	1.163581E+0	1.199282E+0	1.151710E+0	1.199322E+0	1.274441E+0	1.203153E+0	1.172731E+0	1.204964E+0	1.217603E+0	1.218893E+0	1.156953E+0	1.201419E+0	1.237099E+0	1.279105E+0	1.274660E+0	1.236079E+0	1.143063E+0	1.196096E+0	1.215137E+0	1.245420E+0	1.175543E+0	1.210920E+0	1.271056E+0	1.224018E+0	1.232536E+0	1.226888E+0	1.205701E+0	1.210514E+0	1.182093E+0	1.219977E+0	1.227340E+0	1.232442E+0	1.133292E+0	1.148740E+0	1.210568E+0	1.182318E+0	1.174894E+0	1.200722E+0	1.215891E+0	1.216528E+0	1.202672E+0	1.270184E+0	1.162392E+0	1.149867E+0	1.133002E+0	1.189279E+0	1.322116E+0
2.864190E+2	1.225909E+0	1.202177E+0	1.209960E+0	1.192425E+0	1.250385E+0	1.246992E+0	1.193866E+0	1.153478E+0	1.240538E+0	1.241945E+0	1.246239E+0	1.223831E+0	1.239698E+0	1.273482E+0	1.290328E+0	1.227244E+0	1.233421E+0	1.187969E+0	1.247869E+0	1.231853E+0	1.260819E+0	1.240241E+0	1.236302E+0	1.214831E+0	1.195735E+0	1.208844E+0	1.241289E+0	1.233384E+0	1.289085E+0	1.257049E+0	1.218254E+0	1.297061E+0	1.171095E+0	1.228606E+0	1.209003E+0	1.234300E+0	1.217811E+0	1.197024E+0	1.253032E+0	1.217007E+0	1.273866E+0	1.219415E+0	1.240819E+0	1.237305E+0	1.214163E+0	1.251072E+0	1.205097E+0	1.198968E+0	1.217728E+0	1.241957E+0	1.252484E+0	1.235386E+0	1.236458E+0	1.264814E+0	1.257010E+0	1.243597E+0	1.217653E+0	1.225430E+0	1.284048E+0	1.213970E+0	1.214538E+0	1.231020E+0	1.201889E+0	1.261628E+0	1.256189E+0	1.219535E+0	1.249488E+0	1.258593E+0	1.225093E+0	1.287889E+0	1.220635E+0	1.225186E+0	1.218249E+0	1.169758E+0	1.196472E+0	1.205604E+0	1.187833E+0	1.297419E+0	1.234453E+0	1.231634E+0	1.213539E+0	1.195559E+0	1.192374E+0	1.265925E+0	1.172246E+0	1.239910E+0	1.231005E+0	1.225229E+0	1.238606E+0	1.175196E+0	1.253450E+0	1.204883E+0	1.198476E+0	1.251420E+0	1.211602E+0	1.243008E+0	1.278634E+0	1.232654E+0	1.283277E+0	1.273359E+0	1.221343E+0	1.245603E+0	1.192264E+0	1.253257E+0	1.176968E+0	1.234183E+0	1.186225E+0	1.224572E+0	1.175373E+0	1.259631E+0	1.264631E+0	1.253218E+0	1.222818E+0	1.242731E+0	1.232470E+0	1.263162E+0	1.213913E+0	1.239071E+0	1.188721E+0	1.206225E+0	1.247772E+0	1.263359E+0	1.229192E+0	1.226334E+0	1.189675E+0	1.353853E+0	1.242478E+0	1.284751E+0	1.226171E+0	1.277506E+0	1.250948E+0	1.216729E+0	1.255142E+0	1.257364E+0	1.228731E+0	1.266550E+0	1.226739E+0	1.172382E+0	1.184241E+0	1.227229E+0	1.232586E+0	1.253093E+0	1.221512E+0	1.163120E+0	1.240130E+0	1.273354E+0	1.252063E+0	1.271875E+0	1.251786E+0	1.250893E+0	1.248709E+0	1.216335E+0	1.219202E+0	1.245638E+0	1.254299E+0	1.214339E+0	1.240107E+0	1.301943E+0	1.179302E+0	1.295444E+0	1.229904E+0	1.270571E+0	1.289528E+0	1.259882E+0	1.111232E+0
2.866120E+2	1.154295E+0	1.182759E+0	1.133476E+0	1.149509E+0	1.160590E+0	1.168911E+0	1.127363E+0	1.139379E+0	1.171669E+0	1.119028E+0	1.122589E+0	1.127690E+0	1.211230E+0	1.143478E+0	1.166346E+0	1.169885E+0	1.153394E+0	1.154403E+0	1.158012E+0	1.248502E+0	1.155128E+0	1.098342E+0	1.176095E+0	1.206735E+0	1.203996E+0	1.116141E+0	1.178409E+0	1.172451E+0	1.188163E+0	1.175355E+0	1.179202E+0	1.161183E+0	1.218248E+0	1.160136E+0	1.137996E+0	1.180788E+0	1.190703E+0	1.160246E+0	1.184239E+0	1.180034E+0	1.165358E+0	1.208972E+0	1.163054E+0	1.211321E+0	1.172525E+0	1.201490E+0	1.133845E+0	1.114338E+0	1.121713E+0	1.158093E+0	1.154003E+0	1.168503E+0	1.207932E+0	1.160257E+0	1.176569E+0	1.165250E+0	1.179388E+0	1.220420E+0	1.157307E+0	1.141489E+0	1.128641E+0	1.191150E+0	1.232111E+0	1.159257E+0	1.182418E+0	1.171054E+0	1.161081E+0	1.145821E+0	1.213103E+0	1.132947E+0	1.189389E+0	1.181214E+0	1.169617E+0	1.154821E+0	1.211195E+0	1.167604E+0	1.139265E+0	1.172402E+0	1.216840E+0	1.164825E+0	1.185045E+0	1.200954E+0	1.123529E+0	1.201466E+0	1.195303E+0	1.183047E+0	1.149202E+0	1.143756E+0	1.178874E+0	1.153071E+0	1.108893E+0	1.206303E+0	1.202465E+0	1.183052E+0	1.108438E+0	1.133523E+0	1.193224E+0	1.152924E+0	1.258621E+0	1.141138E+0	1.155948E+0	1.203851E+0	1.163190E+0	1.124233E+0	1.168251E+0	1.176248E+0	1.118409E+0	1.090206E+0	1.147393E+0	1.158858E+0	1.157428E+0	1.178270E+0	1.200223E+0	1.160265E+0	1.182902E+0	1.240915E+0	1.211009E+0	1.251976E+0	1.162009E+0	1.140485E+0	1.138021E+0	1.152276E+0	1.166764E+0	1.131853E+0	1.139142E+0	1.233828E+0	1.209885E+0	1.202561E+0	1.174707E+0	1.194570E+0	1.187713E+0	1.248135E+0	1.172016E+0	1.189134E+0	1.149119E+0	1.196355E+0	1.178428E+0	1.167572E+0	1.175696E+0	1.138349E+0	1.115729E+0	1.171467E+0	1.152448E+0	1.236801E+0	1.156542E+0	1.151067E+0	1.223111E+0	1.178843E+0	1.168106E+0	1.105783E+0	1.134107E+0	1.118206E+0	1.162354E+0	1.179548E+0	1.173914E+0	1.170103E+0	1.158458E+0	1.208406E+0	1.194343E+0	1.133157E+0	1.177202E+0	1.224951E+0	1.190675E+0	1.234947E+0	1.092645E+0
2.868020E+2	1.317323E+0	1.258106E+0	1.264429E+0	1.307089E+0	1.269352E+0	1.336029E+0	1.207594E+0	1.261553E+0	1.305337E+0	1.341398E+0	1.299645E+0	1.315272E+0	1.247685E+0	1.270498E+0	1.309581E+0	1.355182E+0	1.270282E+0	1.241032E+0	1.271836E+0	1.195668E+0	1.236783E+0	1.267096E+0	1.272338E+0	1.260484E+0	1.249274E+0	1.214219E+0	1.282995E+0	1.290799E+0	1.252021E+0	1.286485E+0	1.326080E+0	1.272175E+0	1.239741E+0	1.227291E+0	1.305201E+0	1.242151E+0	1.280924E+0	1.294203E+0	1.279346E+0	1.290808E+0	1.203455E+0	1.279564E+0	1.262559E+0	1.339020E+0	1.207805E+0	1.290001E+0	1.351144E+0	1.319813E+0	1.321411E+0	1.329188E+0	1.309381E+0	1.302420E+0	1.282294E+0	1.289627E+0	1.237952E+0	1.304981E+0	1.250916E+0	1.251401E+0	1.253556E+0	1.252957E+0	1.264745E+0	1.264841E+0	1.331093E+0	1.289568E+0	1.248255E+0	1.328947E+0	1.307952E+0	1.282240E+0	1.245343E+0	1.282930E+0	1.234241E+0	1.253610E+0	1.303428E+0	1.304890E+0	1.231751E+0	1.323072E+0	1.235918E+0	1.257158E+0	1.358397E+0	1.330416E+0	1.224902E+0	1.309393E+0	1.262212E+0	1.260302E+0	1.292414E+0	1.319248E+0	1.235965E+0	1.246910E+0	1.209781E+0	1.319229E+0	1.294576E+0	1.322309E+0	1.261558E+0	1.283812E+0	1.237586E+0	1.264918E+0	1.323494E+0	1.301570E+0	1.257873E+0	1.243067E+0	1.335166E+0	1.231150E+0	1.329426E+0	1.303987E+0	1.305725E+0	1.237364E+0	1.284349E+0	1.256376E+0	1.244679E+0	1.282240E+0	1.286167E+0	1.295107E+0	1.339534E+0	1.240261E+0	1.263593E+0	1.298850E+0	1.322759E+0	1.305054E+0	1.284198E+0	1.287445E+0	1.264929E+0	1.275011E+0	1.261686E+0	1.274413E+0	1.289431E+0	1.349778E+0	1.251167E+0	1.373782E+0	1.356522E+0	1.289613E+0	1.296184E+0	1.298704E+0	1.291499E+0	1.320348E+0	1.263542E+0	1.323840E+0	1.259427E+0	1.300939E+0	1.256116E+0	1.319791E+0	1.309965E+0	1.316399E+0	1.312727E+0	1.288908E+0	1.266536E+0	1.346457E+0	1.306803E+0	1.287546E+0	1.310756E+0	1.337161E+0	1.250777E+0	1.301041E+0	1.277875E+0	1.287524E+0	1.280098E+0	1.292891E+0	1.243256E+0	1.294664E+0	1.292157E+0	1.369651E+0	1.300069E+0	1.362292E+0	1.268779E+0	1.241538E+0	1.383619E+0
2.870090E+2	1.080320E+0	1.131989E+0	1.089016E+0	1.076011E+0	1.031318E+0	1.117963E+0	1.025014E+0	1.086022E+0	1.080504E+0	1.064221E+0	1.118698E+0	1.060386E+0	1.070964E+0	1.046112E+0	1.058450E+0	1.138668E+0	1.096608E+0	1.030040E+0	1.012415E+0	1.098100E+0	1.066054E+0	1.042915E+0	1.039391E+0	1.064388E+0	1.107032E+0	1.085712E+0	1.062084E+0	1.024765E+0	1.040590E+0	1.097599E+0	1.067201E+0	9.972848E-1	1.088221E+0	1.035744E+0	1.067923E+0	1.080488E+0	1.089113E+0	1.045384E+0	1.070698E+0	1.021232E+0	1.050111E+0	1.089586E+0	1.054083E+0	1.041510E+0	1.059950E+0	1.079309E+0	1.084789E+0	1.116858E+0	1.073288E+0	1.075307E+0	1.128909E+0	1.066367E+0	1.070104E+0	1.055114E+0	1.077609E+0	1.073741E+0	1.058857E+0	1.094921E+0	1.078273E+0	1.089413E+0	1.061378E+0	1.071626E+0	1.067854E+0	1.061938E+0	1.091332E+0	1.049513E+0	1.085085E+0	1.118259E+0	1.068854E+0	1.107837E+0	1.093415E+0	1.113788E+0	1.149588E+0	1.086083E+0	1.094392E+0	1.159915E+0	1.052976E+0	1.116866E+0	1.071448E+0	1.136822E+0	1.072338E+0	1.021844E+0	1.066498E+0	1.071026E+0	1.059482E+0	1.043982E+0	1.074609E+0	1.047263E+0	1.022110E+0	1.088394E+0	1.105067E+0	1.077209E+0	1.076948E+0	1.056729E+0	1.082867E+0	1.136210E+0	1.068989E+0	1.100782E+0	1.131932E+0	1.052967E+0	1.045520E+0	1.084384E+0	1.044774E+0	1.060697E+0	1.045496E+0	1.110746E+0	1.044810E+0	1.034602E+0	1.059095E+0	1.047774E+0	1.112912E+0	1.115624E+0	1.126834E+0	1.063733E+0	1.117515E+0	1.066193E+0	1.095924E+0	1.072572E+0	1.104789E+0	1.079274E+0	1.136530E+0	1.093383E+0	1.096248E+0	1.122191E+0	1.097834E+0	1.097217E+0	1.077706E+0	1.126155E+0	1.098541E+0	1.050856E+0	1.090502E+0	1.074941E+0	1.093490E+0	1.119813E+0	1.052962E+0	1.035603E+0	1.111284E+0	1.112918E+0	1.022397E+0	1.089735E+0	1.093400E+0	1.094559E+0	1.102896E+0	1.080618E+0	1.141656E+0	1.116187E+0	1.065574E+0	1.073446E+0	1.158264E+0	1.082256E+0	1.086893E+0	1.026861E+0	1.033776E+0	1.089668E+0	1.098307E+0	1.066604E+0	1.076526E+0	1.067035E+0	1.039806E+0	1.063775E+0	1.059662E+0	1.081804E+0	1.059284E+0	1.199498E+0	1.240760E+0
2.872050E+2	1.012071E+0	1.045503E+0	9.507876E-1	1.002253E+0	9.944416E-1	9.797115E-1	9.798392E-1	9.745344E-1	1.013495E+0	1.020485E+0	9.785204E-1	1.012006E+0	9.745612E-1	1.015481E+0	9.838831E-1	1.005964E+0	1.011281E+0	1.005056E+0	9.693694E-1	9.889977E-1	1.016056E+0	9.742972E-1	1.046498E+0	1.032819E+0	9.850920E-1	1.026277E+0	9.671893E-1	1.020565E+0	9.845671E-1	1.017191E+0	9.908678E-1	9.521696E-1	9.914880E-1	9.772814E-1	1.030910E+0	1.011216E+0	1.012456E+0	1.005904E+0	1.021420E+0	9.601989E-1	9.667445E-1	9.936810E-1	9.942710E-1	9.941608E-1	9.808923E-1	1.018174E+0	1.020279E+0	9.919140E-1	9.726165E-1	1.000100E+0	9.934541E-1	9.677891E-1	1.032286E+0	9.973310E-1	9.776047E-1	9.852687E-1	1.031895E+0	9.822679E-1	1.025295E+0	1.053695E+0	9.485577E-1	1.029159E+0	1.007899E+0	9.919358E-1	9.913319E-1	1.003523E+0	1.011241E+0	9.897647E-1	9.656627E-1	9.799968E-1	1.021749E+0	1.011600E+0	9.982897E-1	9.739671E-1	9.997993E-1	1.007888E+0	1.006850E+0	1.010728E+0	1.055929E+0	1.008171E+0	9.650152E-1	9.614648E-1	1.004051E+0	1.000869E+0	9.699788E-1	9.844232E-1	9.580133E-1	9.730761E-1	9.875476E-1	1.040865E+0	1.028896E+0	1.016059E+0	9.843458E-1	1.039696E+0	1.067464E+0	1.000463E+0	9.899193E-1	9.640275E-1	1.003131E+0	9.946332E-1	1.002356E+0	9.846491E-1	1.002677E+0	9.950816E-1	1.039302E+0	9.856269E-1	9.785966E-1	9.818636E-1	9.853211E-1	1.027123E+0	1.033483E+0	9.662173E-1	9.893597E-1	9.251870E-1	1.047559E+0	9.660658E-1	1.012247E+0	1.002966E+0	9.561075E-1	9.835304E-1	9.610146E-1	9.904392E-1	1.042354E+0	9.997420E-1	1.002814E+0	9.928388E-1	1.000461E+0	1.015530E+0	1.018704E+0	1.034865E+0	1.059064E+0	1.037283E+0	9.985581E-1	1.034719E+0	9.831369E-1	1.047438E+0	1.022146E+0	1.054486E+0	1.032166E+0	9.968670E-1	1.028350E+0	1.002949E+0	1.009976E+0	9.962955E-1	1.033300E+0	1.021756E+0	1.021316E+0	1.016583E+0	1.025434E+0	1.017310E+0	1.042778E+0	9.805435E-1	1.049507E+0	1.022443E+0	9.965628E-1	1.033365E+0	9.836222E-1	1.051131E+0	9.925799E-1	1.037148E+0	9.588074E-1	1.026226E+0	1.077445E+0	9.192092E-1	1.098100E+0
2.874000E+2	9.301240E-1	8.554448E-1	8.516636E-1	9.012909E-1	8.848219E-1	8.583457E-1	8.199919E-1	8.341387E-1	9.137447E-1	8.766642E-1	8.751815E-1	8.541218E-1	8.744318E-1	8.713252E-1	9.315110E-1	8.990780E-1	8.758483E-1	8.653769E-1	8.717913E-1	9.305304E-1	8.973774E-1	8.550858E-1	8.736639E-1	8.659300E-1	9.161042E-1	8.653611E-1	8.984746E-1	9.402018E-1	8.558125E-1	9.082245E-1	8.693771E-1	8.863741E-1	9.006231E-1	8.518747E-1	9.218982E-1	9.351072E-1	8.638650E-1	8.745702E-1	9.449478E-1	8.673866E-1	8.484616E-1	8.682136E-1	8.708808E-1	9.434564E-1	8.978322E-1	8.890629E-1	9.017561E-1	8.677060E-1	8.844692E-1	9.153099E-1	8.791722E-1	8.653640E-1	8.583726E-1	8.961226E-1	8.732496E-1	9.282762E-1	9.098477E-1	9.135611E-1	9.054064E-1	8.483142E-1	8.744171E-1	8.987797E-1	8.439025E-1	8.933196E-1	8.857584E-1	8.896532E-1	8.650498E-1	8.724289E-1	9.371839E-1	9.126359E-1	8.903692E-1	9.041930E-1	8.740699E-1	8.709192E-1	8.974662E-1	8.745564E-1	8.476968E-1	8.694951E-1	8.574807E-1	9.222783E-1	8.432325E-1	8.833886E-1	8.594591E-1	8.558126E-1	9.005729E-1	8.797910E-1	8.193586E-1	8.697063E-1	9.229865E-1	8.445446E-1	8.947971E-1	8.822390E-1	8.653564E-1	9.143728E-1	9.139219E-1	9.125906E-1	8.487211E-1	9.192555E-1	9.493532E-1	9.308188E-1	9.067045E-1	9.006786E-1	8.775981E-1	8.763314E-1	8.375737E-1	8.963184E-1	9.019005E-1	8.674651E-1	9.008062E-1	8.511391E-1	8.579393E-1	8.877565E-1	8.989784E-1	8.748035E-1	8.840425E-1	8.974479E-1	8.995850E-1	8.953164E-1	8.426761E-1	8.872281E-1	8.829681E-1	8.600122E-1	8.943106E-1	9.386741E-1	8.775106E-1	8.841036E-1	9.242919E-1	9.309954E-1	8.918252E-1	9.032906E-1	8.992389E-1	8.837266E-1	8.592134E-1	9.126121E-1	9.249133E-1	8.768177E-1	9.045018E-1	8.907000E-1	9.296992E-1	9.056520E-1	9.038167E-1	8.930748E-1	9.549147E-1	8.472651E-1	9.086755E-1	9.221025E-1	9.055321E-1	8.837255E-1	8.852736E-1	9.251638E-1	8.966929E-1	8.586578E-1	8.804127E-1	8.793602E-1	8.942488E-1	9.322207E-1	9.207438E-1	9.266766E-1	9.302095E-1	8.949755E-1	8.955383E-1	8.709544E-1	9.166055E-1	8.703750E-1	8.935022E-1
2.876030E+2	7.700040E-1	7.522941E-1	7.821967E-1	7.118886E-1	7.774697E-1	7.241952E-1	7.418342E-1	7.096302E-1	8.047570E-1	7.493320E-1	7.710998E-1	7.720199E-1	7.048182E-1	7.583374E-1	8.265796E-1	7.963611E-1	7.771953E-1	7.807803E-1	7.385605E-1	7.735538E-1	7.314319E-1	7.245210E-1	7.513758E-1	7.486891E-1	8.069293E-1	7.667991E-1	7.626907E-1	7.627386E-1	7.433515E-1	7.773488E-1	7.973970E-1	7.393600E-1	7.854968E-1	7.648440E-1	7.614962E-1	7.666723E-1	7.565130E-1	7.644630E-1	7.505724E-1	7.598922E-1	7.312577E-1	7.474048E-1	7.106832E-1	7.751205E-1	7.734015E-1	7.948067E-1	7.986649E-1	7.722063E-1	7.285306E-1	7.674749E-1	7.695138E-1	7.533598E-1	7.583204E-1	7.657934E-1	7.665154E-1	7.616149E-1	7.552727E-1	7.738431E-1	7.960286E-1	7.820892E-1	7.758635E-1	7.377924E-1	7.445945E-1	7.882923E-1	7.437417E-1	7.828854E-1	7.624316E-1	7.988781E-1	7.822984E-1	7.602046E-1	7.715921E-1	7.754422E-1	7.524260E-1	7.399332E-1	7.959344E-1	7.878286E-1	7.704216E-1	7.482695E-1	7.842009E-1	7.796786E-1	7.502548E-1	7.539265E-1	7.890303E-1	7.590448E-1	7.627621E-1	7.941429E-1	7.352895E-1	7.871419E-1	7.890406E-1	7.973757E-1	7.588023E-1	7.471116E-1	7.553183E-1	7.593048E-1	8.027756E-1	7.879039E-1	7.816044E-1	7.593180E-1	7.558924E-1	7.756643E-1	7.913733E-1	8.103809E-1	7.677376E-1	7.552775E-1	7.623226E-1	7.355376E-1	7.669150E-1	7.289392E-1	7.757848E-1	7.263995E-1	7.659572E-1	8.107873E-1	7.807896E-1	7.613345E-1	7.651456E-1	7.752475E-1	7.623141E-1	7.955338E-1	7.532975E-1	7.525856E-1	7.720872E-1	7.645492E-1	7.770781E-1	7.897621E-1	7.560904E-1	7.784969E-1	7.512900E-1	7.724173E-1	8.155907E-1	7.896402E-1	7.569254E-1	7.874615E-1	7.888188E-1	7.473602E-1	7.826237E-1	7.857194E-1	7.665576E-1	7.757001E-1	8.322875E-1	7.782160E-1	7.622838E-1	7.441424E-1	7.892951E-1	7.858736E-1	7.873584E-1	7.307658E-1	8.314122E-1	7.235499E-1	7.800662E-1	7.949596E-1	7.658153E-1	7.588049E-1	7.852595E-1	7.873200E-1	7.937981E-1	7.946987E-1	7.801732E-1	7.401790E-1	7.760653E-1	7.805769E-1	7.765728E-1	7.857669E-1	7.896875E-1	7.404730E-1	8.125374E-1
2.878030E+2	6.064635E-1	6.218094E-1	6.570078E-1	6.096049E-1	6.207490E-1	6.325158E-1	5.990902E-1	6.274647E-1	6.584939E-1	6.695755E-1	6.655407E-1	6.547257E-1	6.291497E-1	6.306956E-1	6.466458E-1	6.400641E-1	6.214256E-1	6.657027E-1	6.248702E-1	6.529148E-1	6.108950E-1	6.383201E-1	6.700825E-1	6.476933E-1	6.532892E-1	6.554505E-1	6.358140E-1	6.660241E-1	6.616554E-1	6.541166E-1	6.201711E-1	6.635118E-1	6.789315E-1	6.400438E-1	6.482731E-1	6.470409E-1	6.687920E-1	6.476672E-1	6.572042E-1	6.500888E-1	6.651312E-1	6.603216E-1	6.375415E-1	6.233798E-1	6.569173E-1	6.380006E-1	6.778090E-1	6.361964E-1	6.892911E-1	6.422188E-1	6.223018E-1	6.634847E-1	6.095505E-1	6.221719E-1	6.258690E-1	6.615932E-1	6.414775E-1	6.648800E-1	6.334802E-1	6.483947E-1	6.786483E-1	6.810848E-1	7.043035E-1	6.312060E-1	6.759754E-1	6.487709E-1	6.407390E-1	6.289721E-1	6.599658E-1	6.503225E-1	6.659729E-1	6.364019E-1	6.643041E-1	6.133382E-1	6.247433E-1	6.295834E-1	6.495714E-1	6.245164E-1	6.959482E-1	6.764675E-1	6.429569E-1	6.413409E-1	6.459918E-1	6.029566E-1	6.244308E-1	6.491666E-1	6.065582E-1	6.335912E-1	6.711418E-1	6.461987E-1	6.511777E-1	6.340715E-1	6.652269E-1	6.676548E-1	6.643927E-1	6.740222E-1	6.576057E-1	6.446314E-1	6.272638E-1	6.301114E-1	6.270999E-1	6.896476E-1	6.488208E-1	6.507615E-1	6.466248E-1	6.272105E-1	6.347268E-1	6.536144E-1	6.327921E-1	6.399263E-1	6.851096E-1	6.723022E-1	6.636407E-1	6.324648E-1	6.830909E-1	6.257921E-1	5.975693E-1	6.696076E-1	6.392355E-1	6.033274E-1	6.443783E-1	6.139870E-1	6.696862E-1	6.456288E-1	6.422763E-1	6.293696E-1	6.465217E-1	6.507487E-1	6.469374E-1	6.069199E-1	6.227757E-1	6.699690E-1	6.614622E-1	6.095888E-1	6.231033E-1	6.733602E-1	6.716670E-1	6.670676E-1	6.214803E-1	6.497597E-1	6.242847E-1	6.575225E-1	6.424188E-1	6.024040E-1	6.212281E-1	6.502777E-1	6.792700E-1	6.525388E-1	6.470749E-1	6.569059E-1	6.297720E-1	6.637481E-1	6.314587E-1	5.978614E-1	6.662562E-1	6.914081E-1	6.692608E-1	6.692291E-1	6.185108E-1	6.693543E-1	6.202520E-1	7.010175E-1	6.398280E-1	7.405200E-1	6.388730E-1
2.880010E+2	7.288583E-1	7.358599E-1	7.457792E-1	6.881360E-1	7.320194E-1	7.300408E-1	7.400688E-1	7.298816E-1	7.364850E-1	7.076614E-1	7.207392E-1	7.295465E-1	7.321553E-1	7.499973E-1	7.421412E-1	7.599554E-1	7.405321E-1	7.499779E-1	7.558010E-1	7.392259E-1	7.213319E-1	7.425606E-1	7.266973E-1	7.784141E-1	7.573471E-1	7.173960E-1	7.327785E-1	7.157752E-1	7.378000E-1	7.406765E-1	7.525909E-1	7.783226E-1	7.400417E-1	7.075061E-1	7.198465E-1	7.526097E-1	7.151736E-1	7.388519E-1	7.239199E-1	7.635678E-1	7.167228E-1	7.883782E-1	7.312305E-1	7.100455E-1	7.645704E-1	7.635971E-1	7.884464E-1	7.533749E-1	7.517467E-1	7.660965E-1	7.427673E-1	7.125421E-1	7.561992E-1	7.106098E-1	7.335668E-1	7.616889E-1	7.267838E-1	7.303819E-1	7.337021E-1	7.407494E-1	7.354598E-1	7.421733E-1	7.894087E-1	7.452053E-1	7.512171E-1	7.337197E-1	7.117147E-1	7.503422E-1	7.012060E-1	7.274222E-1	7.564436E-1	7.559277E-1	7.472862E-1	6.764080E-1	6.759362E-1	7.235164E-1	7.510203E-1	7.367003E-1	7.630307E-1	7.554824E-1	6.867179E-1	7.418344E-1	7.643524E-1	7.526353E-1	7.228396E-1	7.539332E-1	7.620603E-1	7.388350E-1	7.392626E-1	6.907083E-1	7.721466E-1	7.448070E-1	7.975345E-1	7.879126E-1	7.014936E-1	7.289047E-1	7.163665E-1	7.648448E-1	7.961131E-1	7.360549E-1	7.573620E-1	7.528056E-1	7.506848E-1	7.154733E-1	7.442730E-1	6.887539E-1	7.449605E-1	7.483110E-1	7.808964E-1	7.205335E-1	8.243155E-1	7.581438E-1	7.398104E-1	7.382529E-1	7.747049E-1	7.638449E-1	7.228658E-1	7.883074E-1	7.502000E-1	7.215102E-1	7.529755E-1	7.665981E-1	6.978436E-1	7.803037E-1	7.251333E-1	7.545291E-1	7.796750E-1	7.805719E-1	7.276978E-1	7.770437E-1	7.255625E-1	7.313603E-1	7.709494E-1	7.345185E-1	7.281088E-1	7.477324E-1	7.405662E-1	7.557407E-1	7.032263E-1	7.705746E-1	7.818357E-1	7.637862E-1	7.842817E-1	7.366933E-1	7.750806E-1	6.866034E-1	7.334250E-1	7.842196E-1	7.434296E-1	7.194324E-1	7.406962E-1	7.729398E-1	7.697706E-1	7.256901E-1	7.190942E-1	7.507401E-1	7.810192E-1	7.511188E-1	7.334436E-1	8.066583E-1	7.280104E-1	7.671337E-1	7.663040E-1	7.212853E-1	7.870413E-1
2.882210E+2	8.303928E-1	8.552918E-1	8.017429E-1	7.836798E-1	8.100486E-1	8.279471E-1	8.247268E-1	7.943291E-1	7.865541E-1	8.170816E-1	8.571416E-1	8.463964E-1	8.124669E-1	7.922852E-1	8.247396E-1	8.206356E-1	8.127534E-1	8.171806E-1	8.164371E-1	8.223914E-1	7.811534E-1	8.087835E-1	8.050475E-1	8.313045E-1	8.267301E-1	7.616813E-1	8.591589E-1	8.501357E-1	8.389479E-1	8.582816E-1	8.386479E-1	8.325131E-1	8.194390E-1	8.457739E-1	7.871007E-1	8.509124E-1	8.157050E-1	8.320017E-1	8.648197E-1	8.439619E-1	7.886267E-1	7.838073E-1	7.919011E-1	8.529533E-1	8.173351E-1	8.448952E-1	7.948564E-1	8.500704E-1	8.688964E-1	8.163053E-1	8.638466E-1	7.816728E-1	8.584197E-1	8.159712E-1	8.129566E-1	8.453865E-1	8.283488E-1	7.970064E-1	8.205154E-1	8.950716E-1	8.057709E-1	8.099204E-1	8.281356E-1	8.400757E-1	8.141175E-1	8.119811E-1	7.790262E-1	8.289019E-1	8.114028E-1	8.381949E-1	8.142046E-1	8.296475E-1	8.923342E-1	8.184429E-1	8.316439E-1	8.055702E-1	8.062220E-1	8.385248E-1	8.409139E-1	9.093746E-1	8.124528E-1	8.771689E-1	8.012748E-1	8.443076E-1	8.693831E-1	7.540020E-1	8.046548E-1	8.246942E-1	7.982883E-1	8.255984E-1	8.274787E-1	8.380903E-1	8.052037E-1	8.288934E-1	8.333304E-1	8.768570E-1	8.357182E-1	7.941066E-1	8.239424E-1	8.296989E-1	8.280863E-1	8.079546E-1	8.118352E-1	8.373162E-1	8.320306E-1	8.189966E-1	8.373447E-1	8.087217E-1	8.508098E-1	8.302443E-1	8.232031E-1	8.625945E-1	8.238904E-1	7.327471E-1	7.454138E-1	7.809012E-1	8.106959E-1	8.519886E-1	7.884400E-1	8.120354E-1	8.119020E-1	8.610106E-1	8.141642E-1	8.220798E-1	8.265573E-1	8.103683E-1	8.596892E-1	8.539968E-1	8.292477E-1	8.112217E-1	8.035834E-1	9.004504E-1	8.402370E-1	8.269614E-1	7.822178E-1	8.294990E-1	8.141954E-1	8.213485E-1	8.232607E-1	8.563263E-1	8.112730E-1	8.209534E-1	8.332572E-1	8.182570E-1	8.432942E-1	7.961522E-1	8.392580E-1	7.801989E-1	8.309704E-1	8.443699E-1	7.986577E-1	8.258454E-1	8.235372E-1	8.259485E-1	8.119419E-1	8.480662E-1	7.887192E-1	8.042819E-1	7.560024E-1	8.820138E-1	7.781468E-1	8.151863E-1	8.574265E-1	8.801074E-1	8.824483E-1
2.884090E+2	8.851891E-1	8.844720E-1	9.144691E-1	8.894545E-1	8.807415E-1	9.002678E-1	8.965890E-1	8.958316E-1	9.296055E-1	8.615585E-1	8.541818E-1	8.851874E-1	9.040753E-1	8.891206E-1	9.057276E-1	9.016084E-1	9.342954E-1	9.005046E-1	8.840743E-1	9.476421E-1	9.056595E-1	9.089770E-1	9.562546E-1	9.581169E-1	9.439598E-1	8.494807E-1	9.446292E-1	9.386402E-1	9.242757E-1	9.338942E-1	8.990060E-1	9.209779E-1	9.145913E-1	9.398064E-1	9.215731E-1	9.284096E-1	9.201045E-1	9.420960E-1	9.690969E-1	9.404818E-1	8.977741E-1	9.083927E-1	9.553480E-1	9.464203E-1	9.246270E-1	9.335891E-1	9.116476E-1	8.613721E-1	9.274722E-1	9.266586E-1	8.834590E-1	9.328479E-1	8.825688E-1	9.253718E-1	8.810270E-1	9.359498E-1	8.785017E-1	8.967208E-1	8.894193E-1	9.374173E-1	8.861921E-1	9.513952E-1	9.271556E-1	9.322370E-1	9.070148E-1	9.024916E-1	8.984482E-1	9.907070E-1	9.092974E-1	9.396655E-1	8.632930E-1	9.237209E-1	9.425044E-1	8.689269E-1	8.840440E-1	9.814350E-1	9.218398E-1	8.880006E-1	9.283275E-1	9.267948E-1	9.091331E-1	9.277732E-1	9.228573E-1	9.134145E-1	8.215863E-1	8.950341E-1	8.921713E-1	8.867026E-1	9.618637E-1	8.326029E-1	8.654574E-1	9.606940E-1	9.372835E-1	9.449987E-1	9.337375E-1	9.764792E-1	8.761019E-1	8.760971E-1	9.438144E-1	9.110858E-1	9.744625E-1	9.410677E-1	8.846868E-1	9.276444E-1	8.869379E-1	9.216948E-1	8.785052E-1	8.998639E-1	8.857082E-1	8.965402E-1	9.332820E-1	9.108349E-1	9.033494E-1	9.114751E-1	8.942699E-1	8.996144E-1	9.326744E-1	9.279408E-1	9.052526E-1	9.265610E-1	9.190625E-1	9.132130E-1	8.711660E-1	9.516433E-1	9.328391E-1	9.378108E-1	9.228114E-1	9.129566E-1	9.307394E-1	9.327090E-1	8.949679E-1	8.956715E-1	9.077218E-1	9.495087E-1	9.119139E-1	9.131907E-1	9.237579E-1	9.139302E-1	8.783143E-1	9.252447E-1	8.872621E-1	9.410213E-1	9.629647E-1	9.169357E-1	9.211348E-1	8.826798E-1	9.158965E-1	8.986214E-1	9.388655E-1	9.115575E-1	9.081628E-1	8.795378E-1	9.472368E-1	8.746721E-1	9.401973E-1	9.246284E-1	9.203624E-1	8.264818E-1	8.895025E-1	8.770889E-1	9.253805E-1	9.206332E-1	9.324386E-1	8.689438E-1	9.717056E-1
2.886010E+2	1.003256E+0	9.587866E-1	9.559698E-1	9.784243E-1	9.550747E-1	1.052231E+0	9.432657E-1	9.452646E-1	9.812888E-1	9.280327E-1	9.737388E-1	1.018888E+0	9.485510E-1	9.423042E-1	9.558320E-1	1.027083E+0	9.494436E-1	9.323152E-1	9.118708E-1	9.502601E-1	9.957174E-1	9.438597E-1	9.330225E-1	9.996135E-1	9.762363E-1	9.273071E-1	1.003512E+0	9.234427E-1	9.133169E-1	1.004317E+0	1.006989E+0	9.596555E-1	9.163387E-1	9.830013E-1	9.433128E-1	1.014280E+0	9.323973E-1	9.795372E-1	9.798494E-1	9.390450E-1	9.350291E-1	9.675636E-1	9.651112E-1	1.034782E+0	9.551544E-1	1.034315E+0	9.573510E-1	1.009237E+0	9.645583E-1	9.733400E-1	9.705086E-1	9.393020E-1	9.759535E-1	9.652145E-1	9.495481E-1	9.321849E-1	9.614460E-1	1.010926E+0	9.202491E-1	1.004238E+0	9.423139E-1	9.475295E-1	9.523028E-1	9.951741E-1	1.000170E+0	9.764951E-1	9.496547E-1	9.517427E-1	9.303952E-1	9.664663E-1	9.669287E-1	1.012786E+0	1.008516E+0	9.367726E-1	9.424085E-1	1.000492E+0	9.887098E-1	9.456721E-1	9.730261E-1	1.004263E+0	9.962100E-1	9.663634E-1	9.454125E-1	9.581350E-1	9.667937E-1	9.790506E-1	9.630798E-1	9.627436E-1	9.545457E-1	9.412657E-1	9.794265E-1	1.060560E+0	9.716682E-1	1.037077E+0	1.012581E+0	9.974616E-1	9.425678E-1	9.199959E-1	9.217559E-1	1.000535E+0	9.595257E-1	1.006826E+0	9.394041E-1	9.667177E-1	9.706891E-1	9.898552E-1	9.671813E-1	9.656732E-1	9.666315E-1	9.231822E-1	9.796878E-1	9.963269E-1	1.007907E+0	9.321097E-1	9.416108E-1	1.001974E+0	9.644724E-1	9.557082E-1	9.539669E-1	1.005348E+0	9.544768E-1	1.006320E+0	9.266321E-1	9.563188E-1	9.886104E-1	1.000855E+0	9.724345E-1	1.001946E+0	9.584741E-1	9.722609E-1	9.453410E-1	9.582014E-1	9.635028E-1	9.556901E-1	9.675645E-1	9.488699E-1	1.011437E+0	1.003871E+0	1.015339E+0	1.006005E+0	9.562886E-1	9.815235E-1	9.587382E-1	9.876659E-1	1.036026E+0	9.296391E-1	9.977310E-1	1.005131E+0	9.743205E-1	9.978356E-1	9.306342E-1	9.455571E-1	1.014959E+0	9.871448E-1	9.726859E-1	9.984424E-1	9.781184E-1	9.487743E-1	9.822764E-1	9.970144E-1	9.803003E-1	9.858381E-1	9.751661E-1	9.294254E-1	9.122524E-1
2.887980E+2	1.056406E+0	1.059147E+0	9.970714E-1	1.078229E+0	1.013473E+0	1.065714E+0	1.035243E+0	1.027313E+0	9.967959E-1	1.040238E+0	1.013088E+0	1.010030E+0	9.938017E-1	9.920566E-1	1.067289E+0	1.036738E+0	1.031079E+0	1.027837E+0	1.003631E+0	1.000607E+0	1.019907E+0	9.755075E-1	1.044718E+0	1.017420E+0	1.009694E+0	9.995210E-1	1.031639E+0	1.031372E+0	1.024592E+0	1.020355E+0	1.034536E+0	1.064022E+0	1.045117E+0	1.003301E+0	1.053561E+0	1.029884E+0	1.007339E+0	1.015514E+0	1.035808E+0	1.006013E+0	9.847457E-1	1.054201E+0	1.026328E+0	1.021209E+0	1.004862E+0	9.983136E-1	1.006783E+0	1.043672E+0	1.015407E+0	1.022731E+0	1.032449E+0	1.017470E+0	9.749209E-1	1.035946E+0	1.034025E+0	1.017880E+0	1.057053E+0	1.049093E+0	1.018096E+0	1.023685E+0	1.054201E+0	1.058591E+0	1.069317E+0	1.049609E+0	1.065429E+0	1.032537E+0	1.007144E+0	1.043066E+0	1.037996E+0	1.040094E+0	1.024892E+0	1.071166E+0	1.040964E+0	1.027421E+0	1.064224E+0	1.080962E+0	1.039093E+0	9.940645E-1	1.053786E+0	1.066348E+0	1.085658E+0	1.033729E+0	1.003914E+0	1.039313E+0	1.045892E+0	9.954649E-1	9.969919E-1	1.047091E+0	9.808828E-1	1.009362E+0	1.011744E+0	1.007735E+0	1.055943E+0	1.070095E+0	1.060241E+0	1.071626E+0	9.991499E-1	1.042375E+0	1.125651E+0	1.038465E+0	9.968877E-1	1.043927E+0	1.030583E+0	1.008716E+0	1.029229E+0	1.009764E+0	1.019257E+0	9.981497E-1	1.014045E+0	1.022206E+0	1.063830E+0	1.043055E+0	1.055255E+0	1.016355E+0	1.034170E+0	1.093199E+0	1.068073E+0	1.027257E+0	1.001003E+0	1.001356E+0	1.039280E+0	1.065782E+0	1.008581E+0	1.051475E+0	9.606377E-1	1.019532E+0	1.020533E+0	1.017318E+0	1.041658E+0	1.057356E+0	1.080752E+0	1.030805E+0	1.123230E+0	1.059060E+0	1.052090E+0	1.084337E+0	1.030901E+0	1.053784E+0	9.946108E-1	1.036383E+0	9.788317E-1	1.035345E+0	1.027423E+0	9.754222E-1	1.062542E+0	1.012351E+0	1.089610E+0	1.038329E+0	1.038025E+0	1.070252E+0	1.049714E+0	1.076646E+0	1.049956E+0	1.067003E+0	1.058772E+0	1.040671E+0	1.050764E+0	1.035935E+0	1.011286E+0	1.078178E+0	1.042910E+0	1.010545E+0	1.002362E+0	9.913871E-1	1.157702E+0
2.890110E+2	1.025137E+0	1.035056E+0	1.065040E+0	1.037119E+0	1.037887E+0	1.024547E+0	1.054105E+0	1.051473E+0	1.041276E+0	9.897027E-1	1.025047E+0	1.021762E+0	1.017264E+0	9.948294E-1	1.072942E+0	1.038020E+0	1.064445E+0	9.980521E-1	1.007494E+0	1.020458E+0	9.849062E-1	1.020251E+0	1.016466E+0	1.051727E+0	1.046351E+0	9.951258E-1	1.025892E+0	1.018599E+0	9.931852E-1	1.097950E+0	1.048108E+0	1.044151E+0	1.007514E+0	1.065971E+0	1.027929E+0	1.097614E+0	1.019188E+0	1.042898E+0	1.056405E+0	1.005180E+0	1.040715E+0	1.041267E+0	1.031113E+0	1.046822E+0	1.016119E+0	1.043010E+0	1.053864E+0	1.075271E+0	1.061656E+0	1.078152E+0	1.017249E+0	9.749990E-1	1.015698E+0	1.039421E+0	1.043566E+0	1.033988E+0	1.025700E+0	1.043080E+0	1.040770E+0	1.051341E+0	1.017401E+0	1.036286E+0	1.067513E+0	1.046890E+0	1.059021E+0	1.098067E+0	1.040735E+0	1.080965E+0	1.039189E+0	1.061718E+0	1.032511E+0	1.001086E+0	1.061116E+0	1.033264E+0	1.005485E+0	1.099197E+0	9.804397E-1	1.021360E+0	1.038888E+0	1.068158E+0	1.005272E+0	1.083882E+0	1.012059E+0	1.023658E+0	1.084620E+0	1.058608E+0	1.050219E+0	1.056179E+0	9.740378E-1	1.013364E+0	1.015872E+0	1.069690E+0	1.058468E+0	1.045172E+0	1.031505E+0	1.020723E+0	1.030254E+0	1.075905E+0	1.001757E+0	1.073879E+0	1.089457E+0	1.099446E+0	1.036952E+0	1.017697E+0	1.101537E+0	1.070297E+0	1.026163E+0	1.035163E+0	1.004276E+0	9.875105E-1	1.078767E+0	1.043404E+0	1.034578E+0	9.907771E-1	1.083440E+0	1.036022E+0	1.029588E+0	1.027078E+0	1.045682E+0	1.005101E+0	1.039044E+0	1.014108E+0	1.025818E+0	1.030218E+0	1.043429E+0	1.059961E+0	1.061972E+0	1.073008E+0	1.087919E+0	1.031108E+0	1.044266E+0	1.046364E+0	1.118779E+0	1.081861E+0	1.029923E+0	1.046854E+0	1.066688E+0	1.087141E+0	1.033215E+0	1.066012E+0	1.054265E+0	1.075264E+0	1.049137E+0	1.022274E+0	1.021301E+0	1.064053E+0	1.042300E+0	1.067896E+0	1.087108E+0	1.063819E+0	1.035957E+0	1.100127E+0	1.060690E+0	1.085130E+0	1.023591E+0	1.033409E+0	1.032769E+0	1.052729E+0	1.046116E+0	1.031659E+0	1.020497E+0	1.051902E+0	9.693953E-1	1.083560E+0	9.460297E-1
2.892050E+2	1.003038E+0	9.891243E-1	9.465378E-1	1.002500E+0	9.572610E-1	1.005170E+0	9.585244E-1	9.713297E-1	9.694147E-1	9.743113E-1	1.013592E+0	9.974867E-1	9.823088E-1	1.005923E+0	9.708812E-1	1.046222E+0	9.640124E-1	9.585076E-1	9.536030E-1	1.006062E+0	1.012933E+0	9.682442E-1	9.846605E-1	1.015518E+0	9.991591E-1	9.110212E-1	9.891219E-1	9.448764E-1	9.575830E-1	9.725388E-1	9.487617E-1	1.000293E+0	9.619869E-1	9.514550E-1	9.929490E-1	9.978601E-1	9.556189E-1	9.638038E-1	9.602699E-1	9.832538E-1	9.598732E-1	9.905511E-1	9.450214E-1	1.018245E+0	9.589752E-1	9.905270E-1	1.000428E+0	1.014372E+0	9.772928E-1	1.012400E+0	9.478582E-1	9.927484E-1	9.425664E-1	9.994889E-1	9.433542E-1	1.006863E+0	1.000474E+0	1.042781E+0	9.786719E-1	9.861100E-1	9.649392E-1	9.857001E-1	9.990217E-1	9.910288E-1	9.759401E-1	9.439334E-1	9.783208E-1	9.943788E-1	9.547303E-1	9.814399E-1	1.001980E+0	9.997217E-1	1.012284E+0	9.539012E-1	1.011201E+0	1.029630E+0	9.971017E-1	9.951247E-1	9.380461E-1	1.054067E+0	9.861189E-1	9.854731E-1	9.982023E-1	1.015625E+0	9.703823E-1	9.523677E-1	9.702988E-1	1.020100E+0	9.859038E-1	9.531837E-1	9.431861E-1	9.783564E-1	9.827185E-1	1.009927E+0	9.712402E-1	9.905913E-1	9.517268E-1	9.975278E-1	9.918391E-1	9.869434E-1	9.179956E-1	9.878556E-1	9.802268E-1	9.592756E-1	9.536773E-1	9.572350E-1	1.008813E+0	1.000157E+0	9.961234E-1	9.693377E-1	9.144150E-1	9.903988E-1	1.012362E+0	8.822938E-1	9.608205E-1	9.869224E-1	9.994746E-1	1.001169E+0	9.729946E-1	1.051271E+0	1.033318E+0	9.906245E-1	9.363081E-1	9.943073E-1	9.647377E-1	1.005786E+0	9.919092E-1	9.688331E-1	9.841695E-1	1.035413E+0	9.640926E-1	9.512182E-1	1.004198E+0	1.030632E+0	9.782573E-1	1.000414E+0	1.037227E+0	1.034040E+0	9.358518E-1	1.013029E+0	9.350157E-1	9.823064E-1	1.035083E+0	9.633401E-1	9.629618E-1	9.845345E-1	1.034991E+0	9.884729E-1	9.664165E-1	1.004183E+0	1.020932E+0	1.016483E+0	9.564982E-1	9.485956E-1	9.852561E-1	1.023728E+0	9.691551E-1	9.735493E-1	9.166590E-1	1.045145E+0	1.021236E+0	9.661847E-1	9.905725E-1	8.754019E-1	1.103115E+0
2.894040E+2	8.422584E-1	9.013658E-1	8.788365E-1	8.677443E-1	8.452408E-1	9.141888E-1	8.710357E-1	8.951708E-1	8.960779E-1	8.802569E-1	9.246884E-1	9.035680E-1	8.761405E-1	8.938359E-1	9.047356E-1	9.072527E-1	9.215179E-1	8.647541E-1	8.616275E-1	8.294556E-1	8.800568E-1	8.589446E-1	9.152929E-1	8.984300E-1	9.158232E-1	9.086478E-1	8.648675E-1	9.047107E-1	8.671718E-1	8.720755E-1	8.855458E-1	8.658297E-1	8.564793E-1	8.639319E-1	8.774028E-1	9.117181E-1	8.847042E-1	8.855383E-1	9.208963E-1	8.958601E-1	8.756894E-1	9.333078E-1	8.853631E-1	8.909927E-1	8.561947E-1	9.199846E-1	9.587281E-1	9.225324E-1	8.763260E-1	8.333243E-1	8.872445E-1	9.306481E-1	8.687780E-1	9.106723E-1	8.578419E-1	8.871418E-1	9.258229E-1	8.986133E-1	8.525848E-1	8.624704E-1	8.735779E-1	8.873037E-1	8.721188E-1	8.975064E-1	8.992368E-1	8.271174E-1	8.126298E-1	8.862429E-1	8.813030E-1	9.481359E-1	8.674955E-1	9.093852E-1	9.207951E-1	8.706819E-1	8.989756E-1	9.338168E-1	8.486019E-1	8.523788E-1	9.502058E-1	8.247695E-1	9.163460E-1	8.764889E-1	8.572007E-1	8.528916E-1	8.506265E-1	8.762159E-1	9.059140E-1	8.956535E-1	8.709885E-1	8.767186E-1	8.547263E-1	8.701152E-1	8.917485E-1	8.695182E-1	8.636115E-1	9.394818E-1	9.317302E-1	8.834241E-1	8.436511E-1	8.871511E-1	9.002256E-1	9.012614E-1	8.995195E-1	8.873630E-1	8.745154E-1	8.955158E-1	8.655699E-1	9.010092E-1	8.748739E-1	8.617087E-1	8.983387E-1	9.031388E-1	9.009432E-1	8.295752E-1	9.205653E-1	8.702043E-1	8.918837E-1	8.771973E-1	8.989879E-1	9.047412E-1	9.306793E-1	9.062728E-1	8.523852E-1	8.588950E-1	8.895734E-1	9.304217E-1	9.087292E-1	9.287315E-1	9.052835E-1	8.890604E-1	9.146291E-1	9.093935E-1	9.339920E-1	9.335101E-1	8.596448E-1	8.631842E-1	9.205691E-1	8.699120E-1	8.975056E-1	9.586953E-1	9.076294E-1	9.215772E-1	8.805798E-1	9.271826E-1	8.846872E-1	8.709691E-1	8.538580E-1	9.069483E-1	9.001944E-1	8.526505E-1	8.559531E-1	9.094660E-1	8.893369E-1	8.849907E-1	9.261586E-1	9.140464E-1	8.883718E-1	9.728312E-1	9.444226E-1	8.971921E-1	9.273106E-1	9.123748E-1	8.919281E-1	8.602561E-1	8.432057E-1
2.896030E+2	7.623561E-1	7.342354E-1	7.121753E-1	7.711100E-1	7.431603E-1	8.222313E-1	7.283841E-1	7.821355E-1	7.698672E-1	7.556168E-1	7.824465E-1	7.340139E-1	7.689920E-1	7.457390E-1	7.767466E-1	7.579085E-1	7.602269E-1	7.974249E-1	7.344449E-1	7.382823E-1	7.740119E-1	7.607197E-1	7.943062E-1	7.646756E-1	8.087169E-1	7.455071E-1	7.628341E-1	7.602808E-1	7.833739E-1	7.355807E-1	7.550015E-1	7.364268E-1	7.800025E-1	7.451960E-1	7.895704E-1	7.704643E-1	7.666698E-1	7.652361E-1	7.781932E-1	7.587042E-1	7.614951E-1	7.927903E-1	7.327646E-1	7.627859E-1	7.584897E-1	7.928345E-1	7.771329E-1	7.564098E-1	8.110734E-1	7.792357E-1	7.889271E-1	7.429692E-1	7.214414E-1	7.564463E-1	7.466977E-1	8.233770E-1	8.132949E-1	8.011821E-1	7.399595E-1	8.049489E-1	7.393489E-1	7.389074E-1	8.170000E-1	8.160167E-1	8.107896E-1	7.534948E-1	7.462705E-1	7.528451E-1	7.456385E-1	7.335341E-1	7.854131E-1	7.675365E-1	7.668835E-1	7.651461E-1	8.093054E-1	8.008224E-1	7.838282E-1	7.575422E-1	7.702043E-1	7.935433E-1	7.556658E-1	7.888121E-1	7.612360E-1	7.839853E-1	7.670569E-1	7.883845E-1	7.717784E-1	7.595511E-1	7.373730E-1	7.990466E-1	7.490842E-1	7.792954E-1	7.948207E-1	7.785572E-1	8.009476E-1	7.553188E-1	7.390739E-1	7.721832E-1	7.654152E-1	7.762502E-1	8.027463E-1	7.895744E-1	7.712335E-1	7.720962E-1	7.876158E-1	7.944578E-1	7.156216E-1	8.249964E-1	7.721401E-1	7.931733E-1	7.969395E-1	7.936864E-1	7.350628E-1	7.955937E-1	8.066467E-1	7.202077E-1	7.955431E-1	8.049193E-1	7.579794E-1	8.043246E-1	7.402693E-1	7.743028E-1	7.522297E-1	8.011347E-1	7.790005E-1	7.823582E-1	7.866646E-1	7.776328E-1	7.929993E-1	8.082888E-1	8.182219E-1	7.900898E-1	7.922229E-1	7.833844E-1	7.698297E-1	7.801936E-1	7.789585E-1	8.032669E-1	7.738877E-1	6.795867E-1	7.891311E-1	7.810717E-1	7.253670E-1	7.762058E-1	7.510690E-1	7.948583E-1	7.567307E-1	7.647980E-1	7.710675E-1	7.762723E-1	7.658705E-1	8.012530E-1	7.932824E-1	7.765042E-1	7.969421E-1	7.934203E-1	7.637177E-1	7.463529E-1	7.774434E-1	7.579769E-1	7.376759E-1	7.679945E-1	7.569204E-1	7.499227E-1	8.192890E-1
2.898030E+2	8.259606E-1	8.621358E-1	7.558414E-1	8.747591E-1	7.679311E-1	8.148188E-1	8.105877E-1	8.178184E-1	8.359635E-1	8.389885E-1	8.413555E-1	8.392594E-1	8.383070E-1	8.267900E-1	8.167314E-1	8.061213E-1	8.788939E-1	8.313332E-1	8.273259E-1	8.514852E-1	8.266361E-1	8.312730E-1	8.442337E-1	8.979051E-1	8.210891E-1	8.238007E-1	8.410724E-1	8.355119E-1	8.645750E-1	8.276417E-1	7.963625E-1	8.103457E-1	7.943103E-1	8.142445E-1	8.369070E-1	8.222395E-1	8.033972E-1	8.122142E-1	8.734798E-1	8.393745E-1	8.448569E-1	8.608832E-1	8.356020E-1	8.317436E-1	7.847501E-1	8.527947E-1	8.457986E-1	8.314934E-1	8.010834E-1	8.399616E-1	7.955921E-1	8.835998E-1	8.558083E-1	8.217832E-1	8.483180E-1	9.167063E-1	8.066996E-1	8.474682E-1	8.364768E-1	8.350188E-1	8.399511E-1	8.037125E-1	8.314891E-1	8.181725E-1	8.325848E-1	8.329545E-1	8.296447E-1	8.030121E-1	8.153936E-1	8.175145E-1	8.426259E-1	8.182831E-1	8.576676E-1	8.140721E-1	8.015586E-1	8.947899E-1	8.075377E-1	8.576923E-1	8.057196E-1	8.365285E-1	7.866915E-1	7.843662E-1	7.981262E-1	8.315016E-1	8.310816E-1	8.507831E-1	8.068219E-1	8.138513E-1	8.195253E-1	8.003725E-1	8.306950E-1	8.842307E-1	8.282684E-1	8.650016E-1	8.290814E-1	8.460510E-1	8.467133E-1	8.177840E-1	8.032876E-1	8.269064E-1	8.684443E-1	8.466181E-1	8.554296E-1	8.273113E-1	8.355796E-1	8.242470E-1	8.142654E-1	8.544368E-1	8.324026E-1	8.539098E-1	8.674053E-1	8.407331E-1	8.413989E-1	8.138413E-1	8.373790E-1	8.283435E-1	8.040837E-1	8.349380E-1	7.903441E-1	7.998184E-1	7.655238E-1	8.632879E-1	7.843489E-1	8.866579E-1	8.470408E-1	8.217700E-1	7.726695E-1	8.762260E-1	8.330161E-1	8.525900E-1	8.710295E-1	8.143717E-1	8.478415E-1	8.603149E-1	8.139109E-1	8.396317E-1	8.224026E-1	8.618148E-1	8.347174E-1	8.768744E-1	8.138065E-1	8.221455E-1	8.522632E-1	7.964667E-1	8.260334E-1	8.077287E-1	8.157400E-1	8.465312E-1	8.263019E-1	9.099989E-1	8.119208E-1	8.577597E-1	8.811320E-1	8.614690E-1	8.447061E-1	8.355072E-1	8.262901E-1	8.503759E-1	8.086851E-1	8.796464E-1	8.731652E-1	8.217313E-1	8.393514E-1	8.422151E-1	8.834163E-1
2.900020E+2	7.775562E-1	7.999605E-1	8.116629E-1	8.395115E-1	8.042987E-1	7.767860E-1	8.529705E-1	8.285342E-1	8.476919E-1	8.406846E-1	8.206110E-1	8.595233E-1	8.458468E-1	8.206012E-1	8.101894E-1	7.988014E-1	8.393730E-1	8.359665E-1	8.240505E-1	8.172691E-1	8.054709E-1	8.836459E-1	8.301132E-1	8.456069E-1	8.572978E-1	8.092878E-1	7.920806E-1	8.522258E-1	8.197960E-1	8.112430E-1	8.319712E-1	8.214237E-1	8.013021E-1	8.336146E-1	8.510323E-1	7.849533E-1	8.268005E-1	8.187348E-1	8.130778E-1	8.480649E-1	8.150728E-1	8.006434E-1	8.177738E-1	8.136568E-1	7.903696E-1	8.304107E-1	8.501794E-1	8.264905E-1	8.748613E-1	8.240413E-1	7.840922E-1	7.985224E-1	8.701797E-1	8.468404E-1	8.259459E-1	8.639984E-1	8.092469E-1	8.543558E-1	8.326556E-1	8.636435E-1	8.505038E-1	8.270921E-1	8.668273E-1	8.592636E-1	8.266666E-1	8.653328E-1	7.964452E-1	8.421902E-1	8.817615E-1	8.527170E-1	8.320124E-1	8.067660E-1	8.059632E-1	7.855098E-1	7.810990E-1	8.778417E-1	8.670391E-1	8.388211E-1	8.464810E-1	8.676754E-1	8.591881E-1	8.292524E-1	7.910875E-1	8.311732E-1	7.728462E-1	8.674714E-1	8.225468E-1	8.214596E-1	8.280120E-1	8.000788E-1	8.279648E-1	7.997523E-1	8.465155E-1	8.229962E-1	7.966034E-1	8.760340E-1	8.040158E-1	7.956289E-1	8.082978E-1	8.395102E-1	8.491858E-1	8.499194E-1	7.974430E-1	8.399160E-1	8.046981E-1	7.772318E-1	8.097926E-1	7.949413E-1	8.373989E-1	7.914669E-1	8.658123E-1	8.262899E-1	8.536006E-1	7.830325E-1	8.018062E-1	8.174341E-1	8.140084E-1	8.273739E-1	8.574015E-1	8.220033E-1	8.723593E-1	8.293001E-1	8.137754E-1	8.404662E-1	8.313238E-1	8.174229E-1	8.460834E-1	8.098911E-1	8.271501E-1	8.429017E-1	8.453397E-1	8.524820E-1	8.374319E-1	8.605228E-1	7.905971E-1	8.192264E-1	8.144374E-1	8.660235E-1	8.151640E-1	8.961402E-1	8.707708E-1	8.299122E-1	8.375720E-1	7.873167E-1	8.167074E-1	8.099294E-1	8.252297E-1	8.601446E-1	7.965661E-1	8.142349E-1	8.026198E-1	8.174141E-1	8.093325E-1	8.128070E-1	7.638247E-1	8.292060E-1	8.463551E-1	8.085464E-1	8.383411E-1	8.060951E-1	7.846285E-1	8.418771E-1	8.608825E-1	8.187987E-1	7.862599E-1
2.905110E+2	7.655740E-1	8.013794E-1	7.961716E-1	7.700006E-1	7.680126E-1	7.699818E-1	7.749581E-1	7.650985E-1	7.869853E-1	7.648396E-1	7.468714E-1	7.647124E-1	7.080538E-1	7.350970E-1	7.718281E-1	8.004222E-1	7.749170E-1	7.666898E-1	7.686688E-1	7.667276E-1	7.772437E-1	7.583512E-1	7.964405E-1	7.514411E-1	7.653800E-1	7.676374E-1	7.282279E-1	7.942887E-1	7.742398E-1	7.818204E-1	8.081894E-1	7.376093E-1	7.904266E-1	7.728636E-1	7.264979E-1	7.966526E-1	7.492856E-1	7.306032E-1	8.122735E-1	7.970418E-1	7.498330E-1	7.900116E-1	7.809688E-1	8.075526E-1	8.042536E-1	7.989385E-1	7.880442E-1	8.161414E-1	7.587010E-1	7.818638E-1	7.719111E-1	7.989191E-1	7.468906E-1	7.640615E-1	7.727509E-1	7.963871E-1	7.933468E-1	7.961742E-1	8.058446E-1	7.951789E-1	7.692598E-1	7.925103E-1	7.690494E-1	7.940420E-1	7.548159E-1	8.273998E-1	7.607664E-1	7.648357E-1	7.416420E-1	8.075873E-1	8.098933E-1	7.633841E-1	8.003713E-1	7.590093E-1	8.088835E-1	7.997831E-1	7.776149E-1	7.635458E-1	7.702186E-1	8.052936E-1	7.677297E-1	7.622037E-1	7.586309E-1	7.913398E-1	7.702287E-1	7.567522E-1	7.393722E-1	7.999033E-1	7.935935E-1	7.597440E-1	7.559701E-1	8.211110E-1	8.070045E-1	7.618618E-1	7.996707E-1	8.012082E-1	7.504525E-1	7.776971E-1	7.524760E-1	7.432010E-1	7.713813E-1	7.996256E-1	7.566255E-1	7.487467E-1	8.204337E-1	7.193720E-1	8.110640E-1	7.749174E-1	7.668676E-1	7.214691E-1	7.975577E-1	7.991707E-1	7.604456E-1	7.682648E-1	7.993187E-1	8.132981E-1	7.696482E-1	7.616691E-1	7.733298E-1	8.112554E-1	8.126879E-1	7.765364E-1	7.755100E-1	7.710965E-1	7.857726E-1	8.143305E-1	7.926553E-1	7.699382E-1	8.058549E-1	7.759951E-1	8.003847E-1	7.836485E-1	8.354800E-1	7.795898E-1	8.087344E-1	7.750785E-1	7.299527E-1	8.381521E-1	7.677966E-1	8.326611E-1	7.465737E-1	7.866305E-1	8.256014E-1	7.512288E-1	7.712374E-1	8.111549E-1	7.850269E-1	8.196955E-1	7.676984E-1	7.796138E-1	7.864323E-1	7.606281E-1	7.481727E-1	7.825718E-1	7.727771E-1	7.976321E-1	7.480866E-1	7.876643E-1	7.959501E-1	8.717850E-1	7.443326E-1	7.712412E-1	7.814558E-1	7.411657E-1	7.548067E-1
2.910060E+2	8.028616E-1	8.077717E-1	7.726730E-1	8.828071E-1	7.997619E-1	8.442294E-1	8.451411E-1	8.018066E-1	8.269839E-1	7.953273E-1	8.095093E-1	8.270197E-1	8.456299E-1	7.892447E-1	8.397037E-1	8.362602E-1	9.068889E-1	8.492685E-1	7.972345E-1	8.596693E-1	8.675303E-1	8.110512E-1	8.751797E-1	8.975778E-1	8.291172E-1	8.390072E-1	8.061541E-1	8.370138E-1	8.491485E-1	7.967810E-1	8.511844E-1	8.182035E-1	8.240297E-1	8.770674E-1	8.419425E-1	8.111751E-1	8.403078E-1	8.605734E-1	8.980896E-1	8.067441E-1	8.364506E-1	8.253177E-1	8.325942E-1	8.276472E-1	8.326629E-1	7.853107E-1	8.284391E-1	8.608101E-1	8.249959E-1	8.384444E-1	8.191962E-1	8.213081E-1	8.633403E-1	8.079962E-1	8.098222E-1	8.105845E-1	8.638029E-1	8.663528E-1	8.515150E-1	9.048211E-1	8.216622E-1	8.565231E-1	7.823103E-1	8.025983E-1	8.507690E-1	8.256506E-1	8.374179E-1	8.143702E-1	8.446761E-1	8.804276E-1	8.574780E-1	8.340584E-1	8.831618E-1	8.147840E-1	8.364996E-1	8.643495E-1	8.287442E-1	7.903503E-1	8.601662E-1	8.475355E-1	9.393695E-1	8.488852E-1	7.908249E-1	7.948065E-1	8.122231E-1	8.789844E-1	8.263853E-1	7.985545E-1	8.281656E-1	8.234458E-1	8.144367E-1	8.409842E-1	8.440415E-1	8.597228E-1	8.551452E-1	8.189750E-1	8.546324E-1	8.322173E-1	8.103663E-1	8.251689E-1	8.221549E-1	8.668904E-1	8.080131E-1	8.568202E-1	8.694227E-1	8.141374E-1	8.301522E-1	8.416888E-1	8.174383E-1	8.374071E-1	8.436886E-1	8.417387E-1	7.844953E-1	8.049965E-1	8.647729E-1	8.284814E-1	8.083470E-1	8.345949E-1	8.141816E-1	8.207327E-1	8.718470E-1	8.427248E-1	8.469942E-1	8.396033E-1	8.340858E-1	8.432730E-1	8.121356E-1	8.735464E-1	8.537806E-1	7.969324E-1	8.194952E-1	8.380903E-1	8.206181E-1	8.378205E-1	8.775796E-1	8.154635E-1	8.588892E-1	8.142563E-1	8.372915E-1	8.250655E-1	8.427213E-1	8.127782E-1	8.354855E-1	7.992635E-1	8.732377E-1	7.930139E-1	7.875171E-1	8.317305E-1	8.476218E-1	8.492525E-1	7.906278E-1	8.455356E-1	7.918547E-1	8.709092E-1	8.764902E-1	8.603122E-1	8.146577E-1	8.067311E-1	8.454374E-1	8.874587E-1	8.054313E-1	8.558499E-1	8.106681E-1	8.000338E-1	8.051851E-1
2.915070E+2	1.041006E+0	1.015996E+0	1.030546E+0	1.013127E+0	1.036406E+0	1.059300E+0	1.005115E+0	9.821058E-1	1.033790E+0	1.004731E+0	1.065603E+0	1.027628E+0	1.033642E+0	9.927131E-1	1.002317E+0	1.014426E+0	1.060717E+0	1.023002E+0	9.885384E-1	1.027260E+0	1.053313E+0	9.905614E-1	1.050919E+0	9.538877E-1	1.028127E+0	9.826677E-1	9.874563E-1	9.940970E-1	1.042936E+0	1.039261E+0	9.961648E-1	1.028195E+0	1.022131E+0	9.698156E-1	1.023730E+0	1.043993E+0	9.892793E-1	1.060949E+0	1.054077E+0	1.056951E+0	9.926683E-1	1.033089E+0	9.840959E-1	9.984464E-1	1.013877E+0	1.034460E+0	1.037421E+0	9.744351E-1	1.018798E+0	1.023631E+0	1.004058E+0	1.028276E+0	1.020957E+0	9.930401E-1	9.800250E-1	1.092501E+0	1.012231E+0	1.076888E+0	1.000637E+0	1.039435E+0	9.811144E-1	1.030612E+0	1.011325E+0	9.865224E-1	1.018235E+0	1.013979E+0	1.015511E+0	1.053545E+0	1.031328E+0	1.077160E+0	1.063397E+0	9.887130E-1	1.098997E+0	1.001664E+0	1.009608E+0	1.055957E+0	1.006013E+0	1.028384E+0	1.086798E+0	1.028545E+0	1.019013E+0	1.019369E+0	1.006425E+0	1.006392E+0	1.024181E+0	1.043583E+0	1.032682E+0	9.975853E-1	1.020745E+0	9.674286E-1	9.538763E-1	1.035615E+0	9.812779E-1	1.048443E+0	1.023370E+0	1.050151E+0	1.033597E+0	1.014982E+0	1.053015E+0	1.037636E+0	1.008841E+0	1.052196E+0	1.039853E+0	1.067063E+0	1.049504E+0	9.742705E-1	1.033091E+0	1.046933E+0	1.039412E+0	1.042075E+0	1.060680E+0	1.019068E+0	1.059407E+0	9.759362E-1	1.030157E+0	1.016257E+0	1.027121E+0	1.023977E+0	1.028629E+0	9.854724E-1	1.057223E+0	1.033144E+0	1.046983E+0	1.076399E+0	1.027789E+0	1.064400E+0	1.046829E+0	1.044230E+0	1.065691E+0	1.061841E+0	1.005324E+0	1.065861E+0	1.083818E+0	1.028419E+0	1.004956E+0	9.811790E-1	1.071999E+0	1.039552E+0	1.009704E+0	1.037163E+0	1.032610E+0	1.010226E+0	1.034497E+0	1.019721E+0	1.092216E+0	1.005246E+0	1.059735E+0	1.045823E+0	1.112062E+0	1.104232E+0	1.068649E+0	1.067155E+0	1.019550E+0	1.042428E+0	1.031789E+0	1.051455E+0	1.001061E+0	1.045644E+0	1.059435E+0	1.063344E+0	1.033506E+0	9.686175E-1	1.032525E+0	1.086714E+0	1.078168E+0
2.920030E+2	1.045786E+0	1.065565E+0	9.628403E-1	9.990403E-1	1.057721E+0	1.029790E+0	1.001960E+0	9.797319E-1	1.028744E+0	1.004881E+0	1.078184E+0	1.073568E+0	9.711332E-1	1.069113E+0	1.037782E+0	1.063906E+0	1.033911E+0	1.048906E+0	9.900913E-1	1.040437E+0	1.036736E+0	9.593419E-1	1.055064E+0	1.092778E+0	1.054477E+0	9.769842E-1	9.514952E-1	1.047111E+0	9.868195E-1	1.018865E+0	1.026860E+0	1.023941E+0	1.017462E+0	1.042863E+0	1.033150E+0	1.021341E+0	9.957036E-1	1.046166E+0	1.078064E+0	1.048697E+0	1.020822E+0	1.042053E+0	9.863129E-1	1.015016E+0	1.030328E+0	1.037315E+0	1.007919E+0	1.061851E+0	9.916451E-1	9.900292E-1	1.020872E+0	9.812951E-1	1.070178E+0	1.017729E+0	1.010343E+0	1.072972E+0	1.082731E+0	1.108108E+0	1.068852E+0	1.039418E+0	1.010850E+0	1.045139E+0	1.042587E+0	1.027650E+0	1.065475E+0	1.012005E+0	1.022520E+0	1.021568E+0	1.055479E+0	1.062925E+0	1.059970E+0	1.030600E+0	1.047324E+0	1.003268E+0	1.047853E+0	1.069380E+0	1.075793E+0	1.040393E+0	1.063189E+0	1.078936E+0	9.944029E-1	9.935676E-1	1.057874E+0	1.053950E+0	1.041130E+0	1.018909E+0	9.742253E-1	1.065920E+0	1.101997E+0	1.000048E+0	1.002757E+0	1.041294E+0	9.823457E-1	1.076906E+0	1.051560E+0	1.046686E+0	1.018513E+0	1.049659E+0	1.058599E+0	1.029877E+0	1.049614E+0	1.037004E+0	1.000871E+0	1.012178E+0	9.891233E-1	1.006951E+0	9.819740E-1	1.025076E+0	1.026320E+0	1.016548E+0	1.055791E+0	1.019672E+0	1.037024E+0	9.887766E-1	9.868941E-1	1.001744E+0	9.844425E-1	1.006168E+0	9.814160E-1	1.051581E+0	1.011175E+0	1.065765E+0	9.913494E-1	1.033428E+0	1.019390E+0	1.107447E+0	1.029429E+0	1.048035E+0	1.058994E+0	1.032931E+0	1.018756E+0	9.825269E-1	1.059082E+0	1.069331E+0	1.046013E+0	1.050111E+0	1.054176E+0	1.068999E+0	9.601529E-1	1.024668E+0	1.004385E+0	1.037836E+0	1.078261E+0	1.038311E+0	1.068090E+0	1.053426E+0	1.095361E+0	1.041808E+0	1.031223E+0	1.063632E+0	9.873542E-1	1.020122E+0	1.073621E+0	9.970882E-1	9.936880E-1	1.134364E+0	1.092735E+0	1.057935E+0	9.919778E-1	1.035348E+0	1.049632E+0	1.004450E+0	1.056059E+0	9.143493E-1	1.073952E+0
2.925020E+2	1.088115E+0	1.106669E+0	1.076632E+0	1.120099E+0	1.044748E+0	1.092163E+0	1.042835E+0	1.079507E+0	1.080146E+0	1.046936E+0	1.073652E+0	1.131783E+0	1.092050E+0	1.087579E+0	1.118802E+0	1.129903E+0	1.110911E+0	1.095053E+0	1.044579E+0	1.117880E+0	1.094211E+0	1.058392E+0	1.093858E+0	1.096133E+0	1.128158E+0	1.059753E+0	1.054424E+0	1.083920E+0	1.043394E+0	1.102356E+0	1.071269E+0	1.163892E+0	1.068947E+0	1.121688E+0	1.133905E+0	1.046801E+0	1.136401E+0	1.068978E+0	1.104718E+0	1.116753E+0	1.076342E+0	1.114546E+0	1.080652E+0	1.082057E+0	1.114919E+0	1.132335E+0	1.102001E+0	1.090821E+0	1.135609E+0	1.109389E+0	1.160875E+0	1.035941E+0	1.042057E+0	1.104838E+0	1.115036E+0	1.146353E+0	1.084085E+0	1.111465E+0	1.059915E+0	1.052897E+0	1.061377E+0	1.116630E+0	1.088297E+0	1.100033E+0	1.145997E+0	1.073383E+0	1.030434E+0	1.137990E+0	1.067939E+0	1.115437E+0	1.074769E+0	1.066061E+0	1.050244E+0	1.124392E+0	1.090502E+0	1.116931E+0	1.048892E+0	1.100945E+0	1.118877E+0	1.091062E+0	1.101345E+0	1.103261E+0	1.074864E+0	1.090931E+0	1.099608E+0	1.060750E+0	1.110456E+0	1.113023E+0	1.105739E+0	1.048597E+0	1.051717E+0	1.058860E+0	1.057856E+0	1.136380E+0	1.141242E+0	1.102626E+0	1.075778E+0	1.054629E+0	1.126556E+0	1.084175E+0	1.103159E+0	1.157908E+0	1.070678E+0	1.115046E+0	1.147174E+0	1.131098E+0	1.073036E+0	1.071717E+0	1.060258E+0	1.062083E+0	1.094585E+0	1.122022E+0	1.116267E+0	1.092026E+0	1.139210E+0	1.087203E+0	1.036040E+0	1.086959E+0	1.070844E+0	1.089784E+0	1.143050E+0	1.068449E+0	1.077068E+0	1.090974E+0	1.078859E+0	1.092536E+0	1.069256E+0	1.111253E+0	1.147337E+0	1.090708E+0	1.134509E+0	1.102883E+0	1.180332E+0	1.137858E+0	1.110289E+0	1.131312E+0	1.090043E+0	1.122978E+0	1.042113E+0	1.111115E+0	1.069284E+0	1.110710E+0	1.096430E+0	1.055269E+0	1.096861E+0	1.144463E+0	1.113459E+0	1.069225E+0	1.117073E+0	1.127192E+0	1.188270E+0	1.115508E+0	1.124767E+0	1.141851E+0	1.110728E+0	1.101777E+0	1.076917E+0	1.131223E+0	1.125656E+0	1.102934E+0	1.124388E+0	1.135903E+0	1.037643E+0	1.075780E+0	9.492660E-1
2.930050E+2	1.048375E+0	1.129761E+0	1.096617E+0	1.054014E+0	1.091048E+0	1.095548E+0	1.070592E+0	1.077082E+0	1.126764E+0	1.072861E+0	1.063780E+0	1.112953E+0	1.051722E+0	1.080746E+0	1.081415E+0	1.078699E+0	1.093521E+0	1.158022E+0	1.105569E+0	1.084601E+0	1.059511E+0	1.080200E+0	1.111829E+0	1.070405E+0	1.093793E+0	1.038022E+0	1.131481E+0	1.074312E+0	1.067647E+0	1.131976E+0	1.076653E+0	1.092432E+0	1.051217E+0	1.117108E+0	1.081745E+0	1.096955E+0	1.105396E+0	1.106459E+0	1.112002E+0	1.120580E+0	1.091842E+0	1.085009E+0	1.036521E+0	1.119751E+0	1.121117E+0	1.083817E+0	1.079054E+0	1.107434E+0	1.116225E+0	1.087795E+0	1.074214E+0	1.080536E+0	1.083173E+0	1.110860E+0	1.035760E+0	1.160396E+0	1.096361E+0	1.135458E+0	1.049887E+0	1.098403E+0	1.097837E+0	1.090381E+0	1.069822E+0	1.091195E+0	1.114536E+0	1.110539E+0	1.063431E+0	1.118995E+0	1.113813E+0	1.122486E+0	1.075086E+0	1.069438E+0	1.137744E+0	1.075577E+0	1.108954E+0	1.149552E+0	1.090919E+0	1.103762E+0	1.127031E+0	1.074964E+0	1.098881E+0	1.069092E+0	1.074411E+0	1.060631E+0	1.139840E+0	1.045291E+0	1.048068E+0	1.050184E+0	1.096056E+0	1.081562E+0	1.090676E+0	1.084104E+0	1.060743E+0	1.120919E+0	1.065408E+0	1.096695E+0	1.117464E+0	1.081455E+0	1.092658E+0	1.045304E+0	1.127074E+0	1.126812E+0	1.088446E+0	1.095993E+0	1.088354E+0	1.085350E+0	1.162151E+0	1.139343E+0	1.123053E+0	1.034689E+0	1.108530E+0	1.140917E+0	1.169481E+0	1.084106E+0	1.115302E+0	1.134036E+0	1.107494E+0	1.109182E+0	1.105187E+0	1.133679E+0	1.152786E+0	1.083646E+0	1.056413E+0	1.039708E+0	1.106239E+0	1.122638E+0	1.132011E+0	1.093168E+0	1.166983E+0	1.101369E+0	1.086186E+0	1.100468E+0	1.195100E+0	1.066915E+0	1.118522E+0	1.109389E+0	1.105340E+0	1.133012E+0	1.107606E+0	1.102961E+0	1.136221E+0	1.141179E+0	1.117441E+0	1.108077E+0	1.092343E+0	1.119442E+0	1.136162E+0	1.139306E+0	1.108200E+0	1.153694E+0	1.098555E+0	1.113046E+0	1.100172E+0	1.105474E+0	1.115842E+0	1.079957E+0	1.080845E+0	1.172686E+0	1.070543E+0	1.086194E+0	1.056617E+0	1.110217E+0	1.039713E+0	1.021664E+0	1.158431E+0
2.935090E+2	1.025354E+0	1.059673E+0	1.090231E+0	9.979854E-1	9.946609E-1	1.046573E+0	1.086143E+0	1.028348E+0	1.071074E+0	1.037694E+0	1.115900E+0	1.042751E+0	1.031309E+0	1.074084E+0	1.095208E+0	1.028768E+0	1.055009E+0	1.050287E+0	9.950006E-1	1.032551E+0	1.044057E+0	1.055477E+0	1.070040E+0	1.023388E+0	1.026670E+0	1.046924E+0	1.012619E+0	1.027936E+0	1.001165E+0	1.112706E+0	1.012944E+0	1.023449E+0	1.011940E+0	1.053196E+0	9.900071E-1	1.052405E+0	1.050926E+0	1.051441E+0	1.094935E+0	1.020960E+0	9.989420E-1	1.064658E+0	1.079535E+0	1.073664E+0	1.049496E+0	1.060048E+0	1.045742E+0	1.037979E+0	1.026473E+0	1.073692E+0	9.866638E-1	1.024455E+0	1.028692E+0	1.052534E+0	1.036179E+0	1.074653E+0	1.019479E+0	1.062206E+0	1.074613E+0	1.052161E+0	1.042563E+0	1.013520E+0	1.024460E+0	1.050046E+0	1.054802E+0	1.048404E+0	1.011595E+0	1.013379E+0	9.955430E-1	1.062334E+0	1.063562E+0	9.911321E-1	1.034132E+0	1.060658E+0	1.001348E+0	1.072793E+0	1.001497E+0	1.073196E+0	1.156788E+0	1.040527E+0	1.069918E+0	1.079271E+0	1.032497E+0	1.046689E+0	1.033699E+0	1.116421E+0	1.040864E+0	1.050836E+0	1.074815E+0	1.008695E+0	1.029818E+0	1.048171E+0	1.040847E+0	1.074632E+0	1.042401E+0	1.071231E+0	1.082175E+0	1.049311E+0	1.040449E+0	1.028373E+0	1.050947E+0	1.050902E+0	1.019942E+0	1.020319E+0	1.052893E+0	1.061813E+0	1.070763E+0	1.057104E+0	1.011267E+0	1.007766E+0	1.024274E+0	1.053140E+0	1.052832E+0	1.040897E+0	1.029013E+0	1.064663E+0	1.097841E+0	1.056586E+0	1.007176E+0	1.073514E+0	1.102206E+0	1.014168E+0	1.004313E+0	1.065369E+0	1.072712E+0	1.097526E+0	1.055145E+0	1.039523E+0	1.065065E+0	1.040964E+0	1.074911E+0	1.026328E+0	1.071580E+0	1.095980E+0	9.647418E-1	1.070245E+0	1.030140E+0	1.036211E+0	9.804460E-1	1.091522E+0	1.007321E+0	1.057063E+0	1.051307E+0	1.065772E+0	1.054798E+0	1.071611E+0	1.078936E+0	1.030576E+0	1.109812E+0	1.080187E+0	1.074317E+0	1.024025E+0	1.088566E+0	1.076635E+0	1.034181E+0	1.084186E+0	1.088294E+0	1.072018E+0	1.025362E+0	1.085773E+0	1.021745E+0	1.162932E+0	1.011784E+0	1.175533E+0	1.059687E+0
2.940070E+2	1.002219E+0	1.035227E+0	1.083761E+0	9.911140E-1	1.045954E+0	1.050856E+0	1.023007E+0	1.027678E+0	1.084639E+0	1.098412E+0	1.070672E+0	1.041742E+0	1.020128E+0	1.025371E+0	1.051808E+0	1.077853E+0	1.065055E+0	1.032835E+0	1.063436E+0	1.020400E+0	1.038679E+0	9.731067E-1	1.051856E+0	1.028415E+0	1.061423E+0	1.043490E+0	1.020989E+0	1.043044E+0	1.049272E+0	1.051439E+0	1.023195E+0	1.086705E+0	1.074478E+0	1.032182E+0	1.001178E+0	1.057520E+0	1.029395E+0	1.046035E+0	9.773561E-1	9.917089E-1	1.054531E+0	1.060869E+0	1.033284E+0	1.098416E+0	1.054290E+0	1.045635E+0	1.018303E+0	1.041445E+0	1.077551E+0	1.114807E+0	1.027025E+0	1.038391E+0	1.015506E+0	1.007192E+0	1.026949E+0	1.081399E+0	1.039476E+0	1.039502E+0	1.037922E+0	1.069538E+0	1.038011E+0	1.085217E+0	1.052089E+0	1.069604E+0	1.045044E+0	1.023432E+0	1.045078E+0	1.028846E+0	1.036526E+0	1.060451E+0	1.043694E+0	1.024946E+0	1.060920E+0	1.039252E+0	1.047937E+0	1.055249E+0	1.023225E+0	1.007139E+0	1.053882E+0	1.099715E+0	9.997613E-1	1.043830E+0	1.027029E+0	9.904442E-1	9.855040E-1	1.053939E+0	1.025989E+0	1.089494E+0	1.033384E+0	1.052648E+0	1.020377E+0	1.032461E+0	1.068519E+0	1.022193E+0	1.047279E+0	1.072622E+0	1.029256E+0	1.011905E+0	1.035919E+0	1.074032E+0	1.066285E+0	1.059763E+0	1.050893E+0	1.055923E+0	1.014044E+0	1.055036E+0	1.048558E+0	1.081164E+0	1.041069E+0	1.053027E+0	1.069888E+0	1.029247E+0	1.033693E+0	1.006500E+0	1.051341E+0	1.101693E+0	1.056984E+0	1.015305E+0	1.032691E+0	1.039037E+0	1.093914E+0	1.093289E+0	9.979854E-1	1.002637E+0	1.032174E+0	1.084502E+0	1.085957E+0	1.035495E+0	1.081968E+0	1.049016E+0	1.087580E+0	1.040827E+0	1.065589E+0	1.072336E+0	9.871426E-1	1.054758E+0	1.109635E+0	1.012912E+0	1.019964E+0	1.058529E+0	1.074753E+0	1.064453E+0	1.033709E+0	1.040289E+0	9.911017E-1	1.046789E+0	1.046324E+0	9.983211E-1	1.058472E+0	1.104594E+0	1.014512E+0	1.091636E+0	1.084663E+0	1.006815E+0	1.066874E+0	1.005776E+0	1.074175E+0	1.081578E+0	9.970575E-1	1.052184E+0	1.045160E+0	1.098326E+0	1.115601E+0	1.085262E+0	1.049117E+0
2.945030E+2	9.556966E-1	1.016437E+0	1.014125E+0	9.914613E-1	1.007591E+0	1.041489E+0	1.008313E+0	9.296276E-1	9.643758E-1	9.826459E-1	9.902124E-1	9.967923E-1	9.857877E-1	1.004253E+0	1.017769E+0	1.041848E+0	1.001070E+0	1.000990E+0	9.974619E-1	1.003765E+0	1.007790E+0	9.230284E-1	9.827163E-1	9.822675E-1	1.001141E+0	9.599822E-1	1.007781E+0	9.825115E-1	9.891640E-1	9.987258E-1	9.795112E-1	9.820931E-1	9.897420E-1	1.029115E+0	9.674226E-1	9.984154E-1	9.842782E-1	9.769787E-1	1.001043E+0	1.017203E+0	9.875533E-1	1.033293E+0	9.683183E-1	1.049197E+0	1.015013E+0	9.747999E-1	1.000226E+0	9.680958E-1	9.825374E-1	1.019100E+0	9.947451E-1	1.002166E+0	1.008275E+0	9.809979E-1	1.004853E+0	1.035157E+0	9.509737E-1	1.020599E+0	1.013952E+0	1.061797E+0	9.647226E-1	1.017691E+0	1.009215E+0	1.003184E+0	9.775193E-1	1.014805E+0	9.858046E-1	1.048085E+0	9.915891E-1	1.042005E+0	1.015576E+0	1.019103E+0	9.861291E-1	9.423013E-1	1.061817E+0	9.992845E-1	1.002543E+0	9.794635E-1	1.029930E+0	1.002023E+0	1.023888E+0	9.762455E-1	9.990301E-1	9.579973E-1	1.019242E+0	9.801636E-1	9.705564E-1	9.942719E-1	1.023407E+0	1.048254E+0	1.014727E+0	9.966838E-1	9.928969E-1	9.976550E-1	9.990562E-1	9.863896E-1	9.925336E-1	9.797488E-1	1.010996E+0	1.005547E+0	9.652089E-1	1.015249E+0	9.500956E-1	9.797443E-1	9.978080E-1	9.643854E-1	1.057663E+0	1.002248E+0	9.795362E-1	9.865726E-1	1.011257E+0	1.028587E+0	1.026725E+0	9.155385E-1	1.013141E+0	9.823151E-1	1.023135E+0	1.026380E+0	1.047056E+0	1.023756E+0	1.003313E+0	1.018445E+0	9.482548E-1	9.796523E-1	9.770422E-1	9.984916E-1	1.019209E+0	9.959092E-1	9.630468E-1	9.753761E-1	9.909927E-1	9.999974E-1	1.063245E+0	1.071885E+0	1.011089E+0	9.856907E-1	1.024461E+0	1.018695E+0	1.033593E+0	9.779019E-1	1.021351E+0	1.052910E+0	1.026923E+0	9.839642E-1	9.689194E-1	1.064831E+0	1.007524E+0	9.993870E-1	1.011808E+0	9.993354E-1	9.862839E-1	9.761764E-1	1.052029E+0	1.006769E+0	9.718042E-1	1.014561E+0	1.059180E+0	1.004474E+0	1.018656E+0	1.001245E+0	9.813077E-1	1.006199E+0	9.412520E-1	9.250909E-1	1.001271E+0
2.950050E+2	1.022443E+0	9.813877E-1	1.001171E+0	9.355121E-1	9.768974E-1	9.772817E-1	9.373658E-1	9.305454E-1	9.590506E-1	1.018388E+0	9.661394E-1	9.729470E-1	9.826414E-1	9.896797E-1	1.017980E+0	1.009454E+0	9.893756E-1	9.579274E-1	9.862716E-1	9.524427E-1	9.659020E-1	9.648470E-1	9.993909E-1	1.017344E+0	1.017086E+0	1.030543E+0	9.900882E-1	9.560291E-1	9.328148E-1	9.926174E-1	9.615157E-1	9.642212E-1	1.006206E+0	9.610100E-1	9.200094E-1	9.794420E-1	9.846331E-1	9.579583E-1	1.063788E+0	9.770726E-1	9.778413E-1	9.605611E-1	1.019068E+0	9.839159E-1	9.680456E-1	9.620534E-1	9.751159E-1	9.779262E-1	9.522281E-1	1.043181E+0	1.020813E+0	9.754275E-1	9.830650E-1	1.000579E+0	9.798058E-1	9.500990E-1	1.011128E+0	9.901416E-1	9.775803E-1	1.023383E+0	9.968564E-1	1.091563E+0	9.753571E-1	9.944245E-1	1.014949E+0	9.737958E-1	9.780538E-1	9.523560E-1	9.424485E-1	1.007412E+0	9.800729E-1	9.478504E-1	9.972863E-1	1.000775E+0	9.721359E-1	1.010602E+0	9.717909E-1	1.006627E+0	1.016730E+0	1.010068E+0	1.009150E+0	9.936653E-1	9.477288E-1	9.916724E-1	9.994024E-1	1.040772E+0	9.908795E-1	1.001140E+0	1.020314E+0	9.906228E-1	1.002794E+0	1.011603E+0	9.820754E-1	9.922498E-1	1.004756E+0	1.030950E+0	1.002543E+0	9.530202E-1	1.000464E+0	9.651366E-1	9.914691E-1	1.002058E+0	1.004161E+0	1.017772E+0	9.838033E-1	9.901496E-1	9.686300E-1	1.012507E+0	9.488889E-1	9.834058E-1	1.016182E+0	1.026534E+0	9.622439E-1	1.001304E+0	9.761650E-1	9.601659E-1	9.519098E-1	1.055142E+0	9.960468E-1	1.000677E+0	9.658357E-1	1.002174E+0	9.283773E-1	9.833288E-1	1.001003E+0	9.973218E-1	1.024250E+0	9.711224E-1	1.007280E+0	1.012523E+0	9.589620E-1	1.009306E+0	1.012028E+0	9.943439E-1	1.001363E+0	1.019489E+0	1.009444E+0	9.857389E-1	1.001533E+0	1.000307E+0	1.021353E+0	1.035932E+0	1.010422E+0	9.934332E-1	1.001379E+0	9.876791E-1	1.030789E+0	1.041367E+0	9.916985E-1	1.053609E+0	1.004994E+0	9.800751E-1	9.898303E-1	1.020370E+0	9.999517E-1	9.979040E-1	1.010362E+0	1.005247E+0	1.002412E+0	9.899944E-1	9.682741E-1	9.472521E-1	1.013172E+0	9.710897E-1	8.399880E-1
2.955100E+2	1.022131E+0	9.939961E-1	9.934037E-1	9.445742E-1	9.781862E-1	1.024276E+0	9.928142E-1	9.656535E-1	9.919394E-1	9.680718E-1	9.974218E-1	9.928731E-1	1.012092E+0	1.033085E+0	1.002311E+0	1.035307E+0	9.817460E-1	9.885933E-1	9.864090E-1	1.020869E+0	9.981876E-1	9.805967E-1	1.026884E+0	9.874050E-1	1.019313E+0	9.568160E-1	1.014509E+0	1.017283E+0	1.043605E+0	9.928990E-1	1.018233E+0	9.898096E-1	9.857758E-1	9.685535E-1	9.103269E-1	1.041006E+0	9.711595E-1	9.690685E-1	1.003098E+0	9.325570E-1	9.498705E-1	9.677383E-1	9.749503E-1	1.040666E+0	1.065281E+0	1.044048E+0	9.811659E-1	9.831340E-1	9.808721E-1	9.877928E-1	1.014976E+0	9.908666E-1	9.774385E-1	1.004896E+0	1.006271E+0	9.529501E-1	1.013463E+0	1.017506E+0	1.023299E+0	1.010849E+0	9.590536E-1	1.028394E+0	9.969099E-1	1.001320E+0	1.001548E+0	9.830819E-1	1.027445E+0	9.762330E-1	9.942120E-1	1.046887E+0	9.775409E-1	9.865045E-1	1.019122E+0	9.292039E-1	9.638551E-1	9.732699E-1	9.787856E-1	1.004892E+0	1.003844E+0	9.919043E-1	1.007939E+0	1.000165E+0	9.272617E-1	1.053053E+0	9.585729E-1	9.895898E-1	9.607400E-1	1.008436E+0	9.605893E-1	1.002471E+0	1.005077E+0	9.964138E-1	9.889211E-1	1.019125E+0	9.829648E-1	1.008774E+0	9.706838E-1	1.023477E+0	9.982475E-1	1.031621E+0	9.883086E-1	1.009529E+0	9.853442E-1	1.004893E+0	1.026437E+0	9.670738E-1	9.658223E-1	1.035593E+0	9.710428E-1	1.020110E+0	1.011013E+0	9.949572E-1	1.003366E+0	9.652820E-1	9.839542E-1	9.947903E-1	1.025724E+0	1.029399E+0	9.632361E-1	9.993963E-1	9.869731E-1	9.943552E-1	9.533793E-1	1.022809E+0	1.007722E+0	1.052710E+0	9.885419E-1	9.894677E-1	1.005490E+0	1.072341E+0	1.028553E+0	9.975189E-1	1.071414E+0	1.004883E+0	9.304953E-1	9.805801E-1	1.017278E+0	1.027850E+0	1.005069E+0	1.016198E+0	1.028893E+0	9.896326E-1	9.602347E-1	1.029256E+0	1.001102E+0	1.024581E+0	9.749078E-1	1.019850E+0	9.650736E-1	1.009356E+0	9.928113E-1	9.913492E-1	1.007475E+0	1.014753E+0	9.907979E-1	1.032145E+0	9.552173E-1	1.011688E+0	9.874694E-1	9.924994E-1	9.628570E-1	9.876920E-1	9.161735E-1	1.046653E+0	9.912962E-1
2.960060E+2	9.624768E-1	9.795207E-1	1.004621E+0	9.635270E-1	9.641198E-1	9.826221E-1	9.075697E-1	9.007391E-1	1.008189E+0	9.989705E-1	9.266057E-1	9.794740E-1	9.648065E-1	9.888326E-1	9.648778E-1	9.512567E-1	9.577602E-1	9.178873E-1	9.491823E-1	9.477304E-1	9.452576E-1	9.866082E-1	9.558292E-1	9.999305E-1	9.366398E-1	9.701964E-1	9.579829E-1	9.590120E-1	9.030170E-1	9.697476E-1	9.645459E-1	9.781262E-1	9.236482E-1	9.495808E-1	9.544012E-1	9.395140E-1	9.421198E-1	9.623084E-1	9.741336E-1	9.291621E-1	9.092906E-1	9.888669E-1	9.065738E-1	9.433255E-1	9.274816E-1	9.249952E-1	9.529014E-1	9.524783E-1	9.681976E-1	9.754147E-1	1.001310E+0	9.437247E-1	9.707160E-1	9.608191E-1	9.486259E-1	9.249467E-1	9.609179E-1	9.459009E-1	9.489526E-1	9.510116E-1	9.500727E-1	9.662067E-1	9.336237E-1	9.745636E-1	9.727076E-1	9.381087E-1	9.459174E-1	9.546019E-1	9.259620E-1	9.564558E-1	9.441075E-1	9.417103E-1	9.888019E-1	9.780368E-1	9.768059E-1	9.526629E-1	9.385471E-1	9.694922E-1	9.405168E-1	1.023923E+0	9.594260E-1	9.369250E-1	9.359384E-1	9.385303E-1	9.146406E-1	9.711773E-1	9.187067E-1	9.583874E-1	8.991649E-1	9.888493E-1	9.629027E-1	9.459124E-1	9.895260E-1	9.372350E-1	9.506654E-1	1.012355E+0	9.482496E-1	9.383533E-1	9.478577E-1	9.469643E-1	9.258776E-1	9.729406E-1	9.333945E-1	9.566072E-1	9.364058E-1	9.828747E-1	9.424059E-1	9.323840E-1	9.230007E-1	9.596754E-1	9.820406E-1	9.295928E-1	9.774564E-1	9.339925E-1	9.832974E-1	9.307797E-1	9.285997E-1	9.623396E-1	9.566835E-1	9.470392E-1	9.538379E-1	9.853693E-1	9.654271E-1	9.833585E-1	9.575921E-1	9.335945E-1	1.002425E+0	9.973725E-1	9.359247E-1	9.865998E-1	9.288662E-1	1.014826E+0	1.007067E+0	1.005491E+0	9.066603E-1	9.802808E-1	9.431725E-1	9.730002E-1	9.837429E-1	1.002141E+0	9.621102E-1	9.866787E-1	9.715536E-1	9.532640E-1	9.753270E-1	9.398503E-1	9.816479E-1	9.795136E-1	9.712019E-1	1.000635E+0	9.595272E-1	9.578017E-1	9.332617E-1	9.701824E-1	9.939394E-1	9.741774E-1	9.691842E-1	9.702399E-1	9.501418E-1	9.364649E-1	9.828115E-1	9.860080E-1	9.772803E-1	9.501353E-1	9.584051E-1
2.965070E+2	9.544051E-1	9.608928E-1	9.596201E-1	9.107460E-1	9.419422E-1	1.011200E+0	9.494922E-1	9.586698E-1	9.908691E-1	9.555962E-1	9.277119E-1	9.893701E-1	9.165578E-1	9.619220E-1	9.989894E-1	9.383874E-1	9.551719E-1	9.591320E-1	9.710469E-1	1.017202E+0	9.276079E-1	9.835272E-1	9.853296E-1	9.715831E-1	9.436999E-1	9.415604E-1	9.913378E-1	9.441404E-1	9.913161E-1	9.657341E-1	9.853598E-1	9.752257E-1	9.829226E-1	9.488198E-1	9.782567E-1	9.656035E-1	9.704860E-1	9.520392E-1	9.556902E-1	9.395870E-1	9.543845E-1	9.719543E-1	9.583288E-1	9.915511E-1	9.523397E-1	9.666045E-1	9.874146E-1	9.754636E-1	9.647234E-1	1.005462E+0	9.378078E-1	8.948106E-1	8.986802E-1	9.840828E-1	9.944001E-1	9.322292E-1	9.628830E-1	9.796189E-1	9.295891E-1	9.944500E-1	9.521029E-1	9.503321E-1	1.008773E+0	9.916983E-1	9.694135E-1	9.821490E-1	9.639431E-1	9.998067E-1	9.286230E-1	1.026090E+0	9.819891E-1	9.461918E-1	9.673786E-1	9.675360E-1	9.459395E-1	9.750570E-1	9.939973E-1	9.950182E-1	9.928402E-1	9.863723E-1	9.740476E-1	9.932870E-1	9.499684E-1	9.926994E-1	9.610256E-1	1.008317E+0	9.243268E-1	9.789360E-1	9.846930E-1	9.790208E-1	9.911546E-1	9.524338E-1	9.838412E-1	9.572797E-1	9.645318E-1	9.499009E-1	8.962458E-1	9.575844E-1	9.982337E-1	9.479863E-1	9.301204E-1	1.006943E+0	9.421935E-1	9.614505E-1	9.209889E-1	9.783947E-1	1.008436E+0	9.525635E-1	9.743054E-1	9.963771E-1	9.598606E-1	9.229355E-1	1.002131E+0	9.463966E-1	9.777817E-1	9.440088E-1	9.660882E-1	9.787607E-1	9.276587E-1	9.350897E-1	9.914896E-1	9.939615E-1	9.629606E-1	9.802545E-1	9.768364E-1	9.316933E-1	1.000943E+0	1.001149E+0	9.938921E-1	9.467282E-1	9.727958E-1	1.034825E+0	9.740276E-1	1.004295E+0	9.461867E-1	9.501928E-1	9.714356E-1	9.716240E-1	9.603854E-1	1.005143E+0	9.659728E-1	9.306917E-1	9.571948E-1	9.251831E-1	9.707004E-1	9.938893E-1	1.002776E+0	9.119941E-1	9.191575E-1	9.656664E-1	9.256637E-1	9.681386E-1	9.824842E-1	9.865381E-1	9.652572E-1	9.922469E-1	9.644412E-1	9.508424E-1	9.087050E-1	1.011785E+0	9.402116E-1	9.845481E-1	9.810076E-1	9.093086E-1	1.090802E+0
2.970020E+2	9.944355E-1	9.911388E-1	9.857794E-1	9.448331E-1	9.433509E-1	9.724847E-1	9.710182E-1	9.839134E-1	9.802331E-1	9.543698E-1	9.892027E-1	9.726835E-1	9.636435E-1	9.678675E-1	9.671517E-1	9.758295E-1	9.602884E-1	9.875077E-1	9.633416E-1	9.970843E-1	1.001772E+0	9.562040E-1	1.034224E+0	9.763848E-1	9.924841E-1	9.519882E-1	1.001609E+0	9.808622E-1	9.832742E-1	1.022223E+0	9.627931E-1	9.502870E-1	1.021132E+0	9.784309E-1	9.800732E-1	9.909054E-1	9.803927E-1	1.004146E+0	1.005503E+0	1.014094E+0	1.022463E+0	9.944813E-1	9.433460E-1	1.019771E+0	9.731241E-1	9.801850E-1	9.837043E-1	9.521855E-1	9.618200E-1	9.939663E-1	9.911988E-1	9.555005E-1	9.550191E-1	1.008353E+0	9.497819E-1	9.692619E-1	9.217150E-1	1.008768E+0	9.747584E-1	1.002340E+0	9.649626E-1	9.471400E-1	9.946538E-1	1.001493E+0	9.935235E-1	1.019623E+0	1.009045E+0	9.668074E-1	9.898619E-1	9.848359E-1	9.873045E-1	9.530811E-1	1.007201E+0	9.812879E-1	9.488625E-1	1.005387E+0	9.638287E-1	1.004081E+0	1.016093E+0	1.021396E+0	1.008194E+0	9.924177E-1	9.822303E-1	9.803711E-1	9.578585E-1	9.821983E-1	9.185374E-1	9.626747E-1	9.621990E-1	9.920356E-1	1.007471E+0	1.005597E+0	1.026968E+0	1.008450E+0	9.825730E-1	9.936175E-1	9.617362E-1	9.797597E-1	1.021695E+0	9.663872E-1	9.954760E-1	9.712234E-1	9.577178E-1	9.622170E-1	9.736325E-1	9.424446E-1	9.479947E-1	9.879552E-1	9.889760E-1	9.385681E-1	9.923646E-1	9.773719E-1	1.002785E+0	9.965637E-1	9.904362E-1	9.907511E-1	9.817135E-1	9.837176E-1	9.921107E-1	9.704583E-1	9.375432E-1	9.932142E-1	9.310468E-1	9.985400E-1	9.864029E-1	9.912492E-1	1.002813E+0	9.896100E-1	9.818739E-1	9.827035E-1	9.430626E-1	1.006165E+0	9.668624E-1	1.008371E+0	9.642375E-1	9.905927E-1	9.649384E-1	9.779770E-1	9.530226E-1	9.894061E-1	9.832087E-1	1.016913E+0	1.026386E+0	9.651817E-1	1.006895E+0	1.009494E+0	1.023773E+0	9.881301E-1	9.729523E-1	1.033486E+0	9.425362E-1	1.055579E+0	1.017849E+0	1.003318E+0	9.591149E-1	9.994421E-1	9.849061E-1	9.382883E-1	9.492301E-1	9.684689E-1	9.751807E-1	1.020918E+0	9.405533E-1	9.149748E-1	1.084832E+0
2.975020E+2	9.907261E-1	1.015327E+0	1.027416E+0	9.840821E-1	1.004288E+0	1.006649E+0	1.052330E+0	1.019179E+0	1.004180E+0	1.005342E+0	1.003729E+0	1.004778E+0	9.699053E-1	1.012622E+0	9.989744E-1	9.826572E-1	1.032269E+0	9.679617E-1	1.025553E+0	9.782236E-1	1.000155E+0	1.008229E+0	1.011566E+0	1.036764E+0	9.771470E-1	9.961184E-1	9.583899E-1	9.851924E-1	9.841484E-1	9.838823E-1	9.874083E-1	9.640902E-1	9.954665E-1	9.986932E-1	9.748108E-1	9.841786E-1	9.415089E-1	9.773784E-1	9.635546E-1	1.006316E+0	1.026976E+0	9.778269E-1	9.374135E-1	1.036716E+0	1.000504E+0	1.010849E+0	9.855338E-1	1.018685E+0	1.020958E+0	9.893006E-1	9.761628E-1	1.018177E+0	1.021190E+0	1.043780E+0	9.902837E-1	1.007034E+0	1.021678E+0	9.957044E-1	9.884864E-1	1.008622E+0	1.009298E+0	9.626375E-1	1.004014E+0	1.002043E+0	1.003264E+0	9.748985E-1	9.877609E-1	9.777982E-1	1.017381E+0	1.038968E+0	1.015055E+0	9.984961E-1	1.000898E+0	1.001394E+0	1.030494E+0	1.032019E+0	1.028399E+0	1.012043E+0	9.924458E-1	9.626068E-1	9.742124E-1	1.008594E+0	9.785800E-1	9.998726E-1	9.763197E-1	9.936343E-1	9.954196E-1	9.547119E-1	9.910773E-1	9.936557E-1	9.663555E-1	9.829030E-1	9.822023E-1	1.001609E+0	9.689100E-1	9.685183E-1	9.850506E-1	9.743341E-1	9.813631E-1	1.014569E+0	1.043711E+0	1.009807E+0	9.957339E-1	9.699492E-1	1.030831E+0	9.815606E-1	1.013306E+0	1.002518E+0	1.007136E+0	9.927542E-1	1.003221E+0	1.013368E+0	9.586510E-1	9.707684E-1	9.847523E-1	9.887151E-1	9.601714E-1	1.012172E+0	9.772923E-1	9.857477E-1	9.914127E-1	9.592843E-1	9.686452E-1	1.024792E+0	9.978148E-1	1.016851E+0	1.015395E+0	1.024259E+0	1.023488E+0	9.866552E-1	9.860812E-1	1.005484E+0	1.005468E+0	1.019375E+0	1.017809E+0	1.007796E+0	1.020548E+0	9.818936E-1	1.005437E+0	9.997206E-1	9.891015E-1	1.014555E+0	1.014356E+0	1.001285E+0	9.866726E-1	1.026294E+0	1.019088E+0	1.004758E+0	1.023912E+0	1.005172E+0	9.875295E-1	1.012604E+0	1.005021E+0	1.007558E+0	9.856941E-1	1.011626E+0	1.010640E+0	9.948186E-1	9.927631E-1	1.002483E+0	9.789272E-1	9.356679E-1	9.980044E-1	9.182337E-1	1.021111E+0
2.980050E+2	9.933164E-1	9.987643E-1	1.002780E+0	1.005815E+0	9.964822E-1	1.001377E+0	9.867059E-1	9.797326E-1	1.017696E+0	1.020676E+0	1.027294E+0	1.004324E+0	1.010094E+0	9.860662E-1	9.591054E-1	1.027922E+0	9.924663E-1	1.000333E+0	9.675503E-1	1.006112E+0	1.002333E+0	1.029310E+0	1.011896E+0	9.655116E-1	1.023877E+0	9.968036E-1	1.017065E+0	9.969148E-1	9.883073E-1	9.937768E-1	1.048301E+0	1.022608E+0	9.851914E-1	1.004379E+0	9.912875E-1	9.969506E-1	1.023481E+0	1.013350E+0	9.902081E-1	1.012161E+0	9.971068E-1	1.046649E+0	1.001704E+0	9.642676E-1	1.008579E+0	9.957953E-1	9.919886E-1	9.852278E-1	9.887463E-1	1.016866E+0	1.007339E+0	1.031517E+0	9.991970E-1	9.953385E-1	1.002594E+0	1.025221E+0	1.017386E+0	9.882695E-1	1.008408E+0	9.937975E-1	9.893785E-1	1.009999E+0	1.021012E+0	9.966117E-1	9.858332E-1	1.006688E+0	1.012605E+0	9.898377E-1	9.915847E-1	1.004051E+0	9.676128E-1	1.022912E+0	1.030786E+0	9.834663E-1	1.088067E+0	9.796348E-1	9.820553E-1	1.020064E+0	1.021765E+0	9.963100E-1	1.002757E+0	1.011532E+0	1.030319E+0	1.006613E+0	9.962148E-1	1.004273E+0	1.000334E+0	1.005815E+0	1.005486E+0	1.029469E+0	1.011800E+0	9.889482E-1	9.786312E-1	1.007289E+0	1.004306E+0	9.903435E-1	9.759367E-1	1.057145E+0	1.007886E+0	1.023127E+0	1.009254E+0	9.830354E-1	1.012239E+0	9.967905E-1	9.776109E-1	1.024825E+0	9.374715E-1	9.641251E-1	9.813873E-1	9.796846E-1	9.903579E-1	9.980112E-1	1.004449E+0	9.864702E-1	1.011063E+0	9.641070E-1	1.054721E+0	9.878978E-1	9.683867E-1	9.996119E-1	1.033096E+0	1.027625E+0	1.024722E+0	1.021405E+0	1.027515E+0	1.030277E+0	1.010712E+0	9.756973E-1	9.906350E-1	9.725528E-1	1.005862E+0	9.868791E-1	1.001642E+0	9.980765E-1	1.003138E+0	9.752478E-1	1.008813E+0	9.958642E-1	9.923304E-1	1.001827E+0	1.011567E+0	1.041349E+0	1.022320E+0	9.947116E-1	9.933391E-1	9.761541E-1	9.837644E-1	9.947051E-1	9.846460E-1	1.016566E+0	9.724317E-1	1.005091E+0	9.940850E-1	1.009239E+0	1.029490E+0	1.002823E+0	1.011450E+0	1.025460E+0	1.003144E+0	9.990340E-1	9.819978E-1	9.961074E-1	9.386096E-1	9.772546E-1	9.397288E-1
2.985020E+2	1.007354E+0	9.417022E-1	9.801860E-1	9.684343E-1	9.754991E-1	9.535026E-1	9.566293E-1	9.796384E-1	9.791716E-1	9.559404E-1	9.733301E-1	1.001624E+0	9.739962E-1	1.003183E+0	1.003257E+0	9.682917E-1	9.720115E-1	9.916121E-1	9.707756E-1	9.836841E-1	9.649303E-1	9.561558E-1	9.452847E-1	9.537301E-1	9.532711E-1	9.804636E-1	9.356301E-1	9.899809E-1	9.643713E-1	9.712596E-1	9.674209E-1	1.001115E+0	9.645584E-1	9.926896E-1	1.017297E+0	9.667653E-1	9.726763E-1	9.825220E-1	1.004614E+0	9.855472E-1	9.409277E-1	9.651502E-1	1.026684E+0	9.560773E-1	9.491318E-1	9.690466E-1	9.902412E-1	9.786528E-1	9.898622E-1	9.435925E-1	9.899014E-1	9.593517E-1	9.780380E-1	9.455894E-1	9.970353E-1	9.403359E-1	9.896350E-1	9.554069E-1	1.007849E+0	9.594910E-1	9.827096E-1	1.007260E+0	9.556840E-1	9.789468E-1	9.903292E-1	9.716958E-1	9.649456E-1	9.736143E-1	9.365475E-1	9.379146E-1	9.982061E-1	9.590281E-1	9.857775E-1	9.658547E-1	9.227134E-1	9.679452E-1	9.617485E-1	9.693621E-1	9.917832E-1	9.952884E-1	9.731797E-1	9.698389E-1	9.582984E-1	9.996017E-1	9.834341E-1	1.001154E+0	9.555911E-1	9.358048E-1	9.785511E-1	9.912650E-1	9.873107E-1	9.669228E-1	9.636097E-1	9.796468E-1	9.957222E-1	9.665712E-1	9.759507E-1	9.456976E-1	9.601995E-1	9.425052E-1	9.388331E-1	9.811342E-1	9.427580E-1	9.851139E-1	1.016092E+0	9.401216E-1	9.597036E-1	9.700501E-1	9.640038E-1	9.935604E-1	9.744305E-1	9.780107E-1	9.686857E-1	9.687313E-1	9.596658E-1	1.004528E+0	9.891316E-1	9.797263E-1	1.001325E+0	1.004653E+0	9.246274E-1	1.022378E+0	9.561718E-1	9.367131E-1	9.431475E-1	9.679079E-1	9.666041E-1	9.837307E-1	9.872276E-1	9.744295E-1	9.635928E-1	9.394406E-1	9.725183E-1	1.001691E+0	9.758463E-1	9.862802E-1	9.872385E-1	9.765105E-1	9.985093E-1	9.425111E-1	9.999077E-1	9.709902E-1	9.529416E-1	9.574056E-1	9.688596E-1	1.007636E+0	9.829518E-1	9.378561E-1	9.745934E-1	9.757873E-1	9.765262E-1	9.250877E-1	9.655608E-1	1.010405E+0	9.680590E-1	9.653229E-1	9.752957E-1	9.351776E-1	9.822790E-1	9.821664E-1	9.738640E-1	9.985504E-1	9.547162E-1	1.044586E+0	9.683920E-1
2.990040E+2	1.028978E+0	1.010322E+0	1.013616E+0	1.039361E+0	9.991164E-1	1.028910E+0	1.023788E+0	1.019706E+0	1.036730E+0	1.021061E+0	1.022626E+0	1.006030E+0	1.027582E+0	1.032433E+0	1.067209E+0	1.041020E+0	1.004586E+0	1.021057E+0	1.045242E+0	1.027183E+0	1.044012E+0	1.034779E+0	1.062564E+0	1.006883E+0	1.033035E+0	1.036645E+0	1.062741E+0	1.015968E+0	1.080662E+0	1.031091E+0	1.008036E+0	1.016328E+0	1.070933E+0	1.027856E+0	1.001041E+0	1.018258E+0	1.064777E+0	1.020581E+0	1.046815E+0	1.050289E+0	9.909296E-1	1.046715E+0	1.033651E+0	1.036997E+0	1.029685E+0	1.027832E+0	1.035465E+0	1.020185E+0	1.010166E+0	1.053858E+0	1.056402E+0	1.017680E+0	9.953035E-1	1.010932E+0	1.026350E+0	1.057114E+0	1.027683E+0	1.035218E+0	1.014248E+0	1.019442E+0	1.034714E+0	1.034704E+0	1.024458E+0	1.010522E+0	1.025202E+0	1.021974E+0	1.024209E+0	1.036238E+0	1.047457E+0	1.011751E+0	1.053228E+0	1.060760E+0	1.002685E+0	1.034301E+0	9.815862E-1	1.025295E+0	1.016147E+0	1.025081E+0	1.030487E+0	1.025599E+0	1.063566E+0	1.040368E+0	1.048687E+0	1.055315E+0	1.058347E+0	1.024969E+0	1.015776E+0	1.064711E+0	1.020596E+0	1.022974E+0	1.005504E+0	1.028800E+0	1.059850E+0	9.959540E-1	1.031590E+0	1.058009E+0	1.068678E+0	1.050772E+0	1.033950E+0	9.975046E-1	1.005149E+0	1.037546E+0	1.031999E+0	1.030594E+0	9.910584E-1	1.025114E+0	1.040819E+0	1.034569E+0	1.030500E+0	1.042238E+0	1.042669E+0	1.030045E+0	1.073128E+0	1.067464E+0	1.060599E+0	1.039456E+0	1.020048E+0	1.023358E+0	1.012181E+0	1.027752E+0	1.060032E+0	1.005813E+0	1.010346E+0	1.004910E+0	1.047570E+0	1.007729E+0	1.033176E+0	1.041898E+0	1.034788E+0	1.029225E+0	1.064237E+0	1.080536E+0	1.004967E+0	9.891817E-1	1.012556E+0	1.035626E+0	9.507506E-1	1.060330E+0	1.042982E+0	1.084597E+0	1.015116E+0	1.016186E+0	9.702355E-1	1.049512E+0	1.048506E+0	1.035879E+0	1.029257E+0	1.074322E+0	1.026834E+0	1.014035E+0	1.028353E+0	1.007365E+0	1.045108E+0	1.036613E+0	1.035702E+0	1.032299E+0	1.036186E+0	1.032448E+0	1.027571E+0	1.045772E+0	1.037053E+0	1.064100E+0	1.025052E+0	1.060508E+0	1.059255E+0
2.995040E+2	9.860862E-1	1.042102E+0	9.925077E-1	1.021209E+0	1.006046E+0	1.012917E+0	1.010548E+0	1.009797E+0	9.839772E-1	1.036749E+0	1.019652E+0	1.002112E+0	1.037354E+0	9.703078E-1	1.006505E+0	1.040984E+0	1.008750E+0	1.037682E+0	1.024938E+0	1.025139E+0	1.002559E+0	9.990786E-1	9.823220E-1	1.048071E+0	1.030807E+0	9.839881E-1	1.047933E+0	1.014691E+0	9.931925E-1	9.950763E-1	1.020980E+0	1.010462E+0	9.897404E-1	9.898325E-1	1.010683E+0	1.028399E+0	1.023988E+0	1.001808E+0	1.003773E+0	9.941140E-1	1.055178E+0	1.022589E+0	1.006137E+0	1.023033E+0	1.019956E+0	1.026339E+0	1.010060E+0	1.007720E+0	9.903876E-1	1.005498E+0	9.894895E-1	1.005684E+0	1.002854E+0	1.009244E+0	1.026111E+0	1.028134E+0	9.579080E-1	9.899661E-1	1.007873E+0	1.013730E+0	1.013853E+0	1.024306E+0	1.023895E+0	1.007192E+0	1.035970E+0	1.018674E+0	1.015589E+0	1.055115E+0	1.029215E+0	1.021281E+0	1.011770E+0	1.003556E+0	1.036247E+0	1.030627E+0	1.022046E+0	9.890479E-1	1.032018E+0	9.720059E-1	9.841666E-1	1.034942E+0	1.031004E+0	1.014036E+0	1.007303E+0	1.002562E+0	1.014035E+0	1.016612E+0	1.040831E+0	1.045115E+0	1.001305E+0	9.812476E-1	1.010586E+0	1.022972E+0	1.010594E+0	1.001815E+0	1.033204E+0	1.002230E+0	1.014039E+0	1.039159E+0	1.051475E+0	1.060664E+0	1.001664E+0	1.012210E+0	1.009364E+0	1.022596E+0	9.878301E-1	1.040601E+0	1.029418E+0	1.029181E+0	1.034044E+0	1.018729E+0	1.042990E+0	1.027284E+0	1.038416E+0	1.032106E+0	1.006105E+0	1.013237E+0	1.009971E+0	1.002378E+0	1.031807E+0	9.980467E-1	1.015148E+0	1.057200E+0	1.051447E+0	1.011856E+0	1.028468E+0	9.976255E-1	9.852221E-1	9.927273E-1	9.794587E-1	1.059296E+0	9.939130E-1	1.022112E+0	1.036127E+0	1.028933E+0	1.012961E+0	9.763638E-1	1.049181E+0	9.981041E-1	1.010088E+0	9.778815E-1	1.026269E+0	1.001151E+0	1.042753E+0	1.019624E+0	9.930043E-1	1.009114E+0	1.008926E+0	1.038957E+0	1.012371E+0	9.908856E-1	1.007490E+0	1.032070E+0	9.878063E-1	9.603876E-1	1.024087E+0	9.971141E-1	9.847975E-1	1.006352E+0	1.018002E+0	9.867692E-1	1.056429E+0	1.028706E+0	1.059013E+0	1.077778E+0	1.015284E+0
3.000040E+2	9.935395E-1	9.917821E-1	9.834934E-1	9.810981E-1	1.018569E+0	9.966445E-1	9.699993E-1	9.919474E-1	9.782444E-1	9.602326E-1	9.533694E-1	9.811324E-1	9.810677E-1	9.953877E-1	9.649499E-1	9.391242E-1	9.899168E-1	9.813541E-1	9.659418E-1	9.796571E-1	9.860101E-1	9.724476E-1	9.863672E-1	9.890406E-1	9.818629E-1	1.005981E+0	9.782411E-1	9.972522E-1	9.893182E-1	1.024914E+0	9.678527E-1	9.853965E-1	9.941103E-1	9.865494E-1	1.004881E+0	1.005449E+0	9.735689E-1	1.004360E+0	9.910355E-1	9.515727E-1	9.888820E-1	9.410701E-1	9.944105E-1	9.829083E-1	9.921450E-1	9.701387E-1	9.867120E-1	9.895290E-1	9.998797E-1	9.908852E-1	9.807051E-1	9.675890E-1	1.003418E+0	9.951167E-1	9.576254E-1	9.421614E-1	9.857101E-1	1.035435E+0	9.731359E-1	1.004917E+0	9.700475E-1	9.610932E-1	9.709371E-1	1.004685E+0	9.594010E-1	1.006070E+0	9.948908E-1	9.673970E-1	9.778148E-1	9.860358E-1	9.541289E-1	9.552481E-1	9.436070E-1	9.843568E-1	9.550937E-1	1.006059E+0	9.796327E-1	1.001445E+0	9.793527E-1	9.852536E-1	9.552813E-1	9.556315E-1	9.768122E-1	9.360356E-1	9.716491E-1	9.593565E-1	9.920483E-1	9.938423E-1	1.002984E+0	9.813885E-1	1.018444E+0	1.009454E+0	1.005114E+0	1.013686E+0	9.662674E-1	1.014328E+0	9.803451E-1	9.328931E-1	9.651266E-1	9.616300E-1	1.001389E+0	9.762663E-1	1.007906E+0	9.949567E-1	9.965770E-1	9.877778E-1	1.019281E+0	9.995569E-1	9.829299E-1	9.730337E-1	9.463316E-1	9.532808E-1	9.566704E-1	9.744600E-1	9.778149E-1	9.899569E-1	9.659567E-1	9.944672E-1	1.009008E+0	9.841887E-1	9.756830E-1	9.276996E-1	9.886673E-1	1.000325E+0	9.554855E-1	9.796103E-1	9.888902E-1	9.816879E-1	9.844033E-1	9.778418E-1	9.863141E-1	9.655487E-1	9.792772E-1	9.627424E-1	9.776891E-1	1.018686E+0	9.834693E-1	9.872972E-1	9.506540E-1	9.934635E-1	9.580386E-1	9.557681E-1	9.973935E-1	9.774614E-1	1.009619E+0	9.449227E-1	9.760133E-1	9.494015E-1	9.776432E-1	9.975543E-1	1.027670E+0	1.017781E+0	1.002418E+0	9.757983E-1	9.569679E-1	9.908159E-1	9.816299E-1	1.005743E+0	9.762401E-1	9.837746E-1	9.717288E-1	9.768688E-1	1.024605E+0	9.216395E-1	9.962294E-1
