Photon Energy (eV)	#1	#2	#3	#4	#5	#6	#7	#8	#9	#10	#11	#12	#13	#14	#15	#16	#17	#18	#19	#20	#21	#22	#23	#24	#25	#26	#27	#28	#29	#30	#31	#32	#33	#34	#35	#36	#37	#38	#39	#40	#41	#42	#43	#44	#45	#46	#47	#48	#49	#50	#51	#52	#53	#54	#55	#56	#57	#58	#59	#60	#61	#62	#63	#64	#65	#66	#67	#68	#69	#70	#71	#72	#73	#74	#75	#76	#77	#78	#79	#80	#81	#82	#83	#84	#85	#86	#87	#88	#89	#90	#91	#92	#93	#94	#95	#96	#97	#98	#99	#100	#101	#102	#103	#104	#105	#106	#107	#108	#109	#110	#111	#112	#113	#114	#115	#116	#117	#118	#119	#120	#121	#122	#123	#124	#125	#126	#127	#128	#129	#130	#131	#132	#133	#134	#135	#136	#137	#138	#139	#140	#141	#142	#143	#144	#145	#146	#147	#148	#149	#150	#151	#152	#153	#154	#155	#156	#157	#158	#159	#160	#161	#162	#163	#164	#165	#166	#167	#168	#169	#170	#171	#172	
2.790030E+2	1.650918E-3	-9.822562E-3	-1.197122E-2	5.302018E-3	-1.581724E-3	-1.160925E-3	-2.855246E-3	2.392408E-4	-7.535484E-3	-5.496467E-3	-3.113493E-3	-7.360794E-3	-1.207295E-2	-1.114872E-2	-4.637600E-3	6.820104E-3	1.455312E-5	-7.363778E-5	-5.695235E-3	-6.559009E-3	-7.626925E-4	-9.452739E-3	6.714881E-4	-2.642794E-3	-8.312750E-3	-3.060681E-3	-4.098823E-3	-5.749727E-6	-1.199766E-2	-6.144405E-3	-5.170529E-4	-9.421650E-3	-3.821079E-3	-9.962121E-3	-1.754247E-2	-2.480682E-3	-1.655933E-3	-8.093022E-3	3.325439E-3	-1.924145E-3	1.593205E-3	-4.544727E-3	-7.560494E-3	-6.683117E-3	-1.986018E-3	-9.739208E-3	-8.227746E-3	-1.452159E-2	-9.135946E-3	-7.696203E-3	-4.610680E-3	-2.283047E-3	-1.168229E-2	2.044595E-4	-2.492524E-3	-3.743520E-4	2.102942E-3	-8.727363E-3	-1.449943E-3	-1.425744E-2	-6.209884E-4	-7.968882E-3	-1.233598E-2	-2.542362E-3	-4.376364E-3	-4.227367E-3	1.850419E-3	-8.154229E-3	-5.525980E-3	-1.523363E-2	-5.983151E-3	-4.625829E-3	8.764961E-4	3.833074E-4	-9.622377E-3	-5.894022E-3	-2.579093E-3	1.338903E-3	4.014436E-3	-7.567470E-3	-1.426327E-2	-4.168909E-4	-9.150346E-3	-1.058806E-3	4.123966E-4	-6.179052E-3	-4.538913E-3	-4.378602E-3	1.370267E-3	-3.754270E-3	1.131489E-3	-3.222363E-3	-3.655825E-3	-1.435154E-2	-8.937922E-3	-5.068675E-3	-6.263825E-3	-2.096224E-3	6.223948E-3	-1.859088E-2	-7.648996E-4	-2.104458E-3	-1.004788E-2	-5.582159E-3	3.693252E-3	1.464156E-3	-7.075681E-3	-4.366695E-3	-2.955405E-3	-4.799182E-3	-1.551727E-3	-1.960890E-3	-4.186868E-3	-1.467767E-2	-1.437579E-4	-1.376049E-2	1.229752E-3	-6.904925E-3	7.145742E-3	1.097207E-2	7.586512E-4	-6.290798E-3	-5.767577E-3	-6.584244E-4	7.965517E-4	-5.860285E-3	-6.854346E-3	-5.780561E-3	-9.150725E-3	7.547067E-3	1.401782E-2	-4.317772E-3	-6.372420E-4	-8.698560E-3	-1.191112E-3	-6.044155E-4	4.701240E-3	2.245466E-3	-5.663587E-3	-4.555163E-4	7.987928E-3	-1.086842E-2	-1.266245E-2	2.351338E-3	-1.810409E-3	-7.535208E-6	-1.531181E-3	-9.795937E-3	-1.197285E-2	1.428515E-3	-6.032032E-3	-9.933702E-3	1.371364E-3	-1.447296E-2	-3.688500E-3	-1.739821E-3	-5.682056E-4	-1.124864E-3	8.984388E-5	6.509345E-4	-5.371273E-3	8.786561E-3	-3.924442E-3	-8.538714E-3	-1.137591E-4	1.489514E-3	-1.314495E-2	-6.164186E-3	-7.702331E-3	-1.087893E-2	-4.264656E-3	-1.917536E-2
2.795060E+2	-6.220972E-3	-8.314398E-4	-8.954640E-3	-3.616580E-3	-8.545379E-3	-1.347315E-3	-9.233187E-3	-4.668073E-3	4.286383E-3	4.239018E-3	-6.149043E-3	-8.380603E-3	-3.525095E-3	-1.062208E-2	-1.607605E-3	-8.445751E-5	-1.274750E-2	2.995420E-3	7.991944E-4	-6.773398E-3	-1.711990E-2	-1.203953E-3	-5.102042E-3	4.480601E-3	1.139958E-3	-4.050789E-3	-2.648586E-3	-1.072125E-3	-6.851041E-3	-7.017885E-3	-4.991184E-3	-9.539474E-3	-6.765882E-3	-5.219975E-3	2.968323E-3	-8.027981E-3	1.370307E-3	1.739311E-3	-8.789073E-3	-5.385664E-3	-4.600743E-3	-3.923360E-3	3.400148E-3	-1.077969E-2	2.879261E-3	-3.607893E-3	8.739333E-4	-3.860944E-3	5.892110E-3	-6.337324E-3	-8.351419E-3	-1.343267E-2	-6.138253E-3	3.648338E-3	-5.041237E-3	-5.424132E-3	-1.190283E-2	-7.352675E-3	-7.073822E-4	-1.437013E-2	6.050154E-3	-1.346246E-2	-1.252158E-2	-2.030468E-2	-8.380435E-3	-1.611080E-2	-1.112465E-2	-8.330620E-3	-1.271865E-4	-6.869224E-3	-5.402637E-3	-1.550770E-2	-7.292166E-3	-5.052496E-3	2.983251E-3	-1.935912E-3	5.068589E-3	1.856540E-3	-6.327108E-3	1.755297E-3	-1.385088E-3	-3.115081E-3	-1.643728E-3	-4.061190E-3	2.119310E-4	-1.205570E-2	-7.900972E-3	8.394778E-3	-5.083277E-3	5.353576E-3	-1.960212E-3	-3.411780E-3	-1.458428E-2	-1.106579E-2	-9.012266E-3	-5.247480E-3	-6.417092E-3	1.640482E-3	8.864179E-5	-6.221230E-3	-6.631485E-3	-1.162846E-2	-1.379827E-3	-1.021930E-4	-5.312203E-3	-3.177622E-4	2.651046E-3	-7.251684E-3	-6.069156E-3	-3.364443E-3	-3.742057E-4	-1.003815E-2	-5.116592E-3	-6.052222E-4	-9.426321E-3	-8.345525E-3	-3.932069E-3	-6.361753E-3	-4.698000E-3	-7.799785E-3	-5.194821E-3	-6.753781E-3	2.627894E-3	-9.713352E-3	-6.138696E-3	-1.160922E-2	-1.167498E-2	-6.772054E-3	-7.379630E-3	-4.240853E-3	-1.410848E-2	-8.476479E-3	-1.682191E-3	-4.071964E-3	-6.068101E-3	-1.023866E-2	-1.428756E-3	-9.994141E-3	-7.674721E-3	-1.569999E-2	1.405214E-3	-8.085922E-3	-6.488411E-3	-3.812614E-3	-8.388610E-3	-6.864710E-3	2.590455E-4	-1.459837E-2	-8.982859E-3	6.250274E-3	-1.121502E-2	-1.161169E-2	-6.479528E-3	-6.479765E-3	-1.393144E-3	-3.803457E-3	-8.030126E-3	7.390788E-3	-1.135806E-2	-8.693082E-3	5.586557E-3	-1.060668E-2	9.753830E-4	-7.797498E-3	-4.228542E-3	2.063669E-3	-6.026109E-3	-8.220453E-4	-1.594288E-3	-6.412680E-3	-9.122624E-3	-1.544411E-2
2.800050E+2	4.561227E-3	-8.922336E-4	-7.973444E-3	-2.731444E-3	2.343558E-3	-1.063040E-2	-1.191891E-2	-4.650934E-3	4.251196E-3	-3.310268E-4	-1.181741E-2	-1.111193E-2	-5.013944E-3	-7.217535E-3	-5.685729E-3	-1.090569E-2	-1.101479E-2	-1.279050E-2	-1.082581E-2	-4.918451E-3	4.738924E-3	-4.347388E-4	3.550049E-3	-8.744806E-3	-4.716005E-3	4.537521E-3	1.426979E-3	-8.720342E-3	2.179723E-3	-2.787009E-3	-1.014765E-2	6.235025E-3	3.474469E-3	3.727879E-3	-1.562352E-3	-1.431054E-2	-7.354138E-3	2.465451E-3	-5.662248E-3	-1.031031E-2	7.262731E-3	-5.590556E-3	-2.658593E-3	-4.854846E-3	-1.382487E-2	-1.830133E-2	4.190467E-3	-3.109749E-4	4.975237E-4	-9.460889E-3	-3.972047E-3	-6.481572E-3	-7.004067E-3	-4.410597E-3	-1.369634E-2	1.798910E-3	-5.078117E-3	-1.125079E-2	-6.664233E-3	7.841727E-3	-8.815595E-4	-5.493913E-3	-6.076503E-3	-3.279987E-4	-5.370821E-3	-9.907092E-3	-1.313308E-2	-8.379270E-3	-1.134497E-2	6.537650E-3	-2.364002E-3	-4.098870E-3	-1.173524E-3	-5.105988E-3	-2.177471E-3	-1.279218E-2	-5.159311E-3	-1.075208E-3	-1.142270E-2	-7.779256E-3	-1.098106E-2	-3.991935E-3	-5.968861E-3	-1.153435E-2	-5.535373E-3	-8.854313E-3	1.027832E-2	-3.104901E-3	-1.224984E-2	6.112037E-3	-3.978642E-3	-9.543698E-3	-1.001667E-2	-1.622155E-3	-9.981699E-3	-4.505697E-3	-3.861126E-3	2.450289E-3	-1.979038E-2	-2.439229E-3	-1.635974E-2	-1.166921E-2	-1.024763E-2	-3.403097E-3	-7.117540E-3	-4.522534E-3	-7.151492E-3	-7.309953E-3	-2.418972E-3	3.727784E-3	-8.391113E-3	-1.008926E-2	-2.782324E-4	-4.631386E-3	-3.826378E-3	-5.628972E-3	-1.314717E-2	-1.021355E-2	-7.266917E-3	6.321578E-4	-8.578555E-3	-5.657012E-3	-7.753100E-3	-5.323662E-3	-1.710851E-2	-4.225177E-3	5.854317E-3	2.147497E-3	1.175202E-3	-1.649974E-3	-1.720432E-3	-1.508333E-3	-3.430759E-3	-6.253490E-3	-1.076795E-2	-7.708229E-5	-1.590495E-2	1.539778E-3	-1.772553E-2	-5.400453E-3	7.110803E-3	-1.281952E-3	-7.162947E-4	-8.093034E-3	-3.755302E-4	7.832444E-3	-8.396997E-3	-1.090974E-2	-1.287266E-2	-1.326296E-3	-4.476929E-3	-5.608211E-3	-2.700763E-3	-7.000295E-3	-8.020364E-3	-7.554999E-3	-7.585144E-4	-9.833159E-3	-1.308792E-2	-7.909369E-3	-2.358737E-3	2.188033E-3	-1.848678E-2	-6.921372E-3	-9.036088E-3	-1.008910E-2	2.087010E-3	-1.581168E-2	-1.315667E-2	-1.264953E-2	-9.157700E-3	-3.938772E-3
2.805050E+2	-8.378839E-3	-1.246546E-2	-6.807876E-3	-4.550538E-3	-3.452672E-3	-2.998159E-3	4.790691E-4	-6.931084E-4	-3.985863E-3	-2.562146E-3	-7.047248E-3	-8.345940E-3	-1.144616E-2	-4.356916E-3	-1.124300E-2	-2.965897E-5	-9.133809E-3	-6.063981E-3	-2.482793E-3	-8.656043E-3	-1.383469E-2	-1.569321E-2	-8.213595E-3	-2.039665E-3	-5.579816E-3	-3.197720E-3	-6.725273E-3	-1.863810E-3	-8.315172E-3	1.688683E-4	-7.508402E-3	-4.484990E-4	-9.550766E-3	-3.527799E-3	-6.860731E-3	-7.797923E-4	1.431523E-3	-1.665927E-2	-2.063880E-2	-2.881173E-3	5.753822E-4	-8.744544E-3	-9.421706E-3	2.134222E-3	-3.562627E-3	-1.421736E-3	-1.682324E-2	-1.817606E-4	-3.027458E-4	-8.557727E-5	-1.211391E-3	2.596921E-3	2.114234E-3	-7.220418E-3	9.938688E-3	-6.988303E-3	2.792627E-3	1.235147E-3	-3.610146E-3	7.029492E-3	-1.224905E-2	-1.071398E-2	-1.155097E-2	-8.557564E-3	1.537410E-2	1.909966E-3	-6.186518E-3	-9.215551E-3	3.145117E-3	-8.915251E-3	8.557569E-4	-4.747714E-3	-4.589726E-3	-6.732251E-3	-1.209512E-3	-2.700178E-3	-5.052000E-3	-7.462723E-3	-3.631933E-4	2.475161E-4	-7.408471E-3	-8.862167E-3	-3.283680E-3	-4.010962E-3	7.628300E-3	-3.866759E-3	-1.101691E-2	-1.214972E-2	-3.248084E-3	-2.083275E-2	5.928207E-3	4.483319E-3	-4.525181E-3	-3.671429E-3	-3.443879E-3	-2.014471E-3	-8.974117E-3	-4.402726E-3	-5.815778E-3	6.338035E-3	-8.174726E-3	1.542907E-3	-6.928989E-3	-4.897774E-3	-9.666320E-3	-2.742912E-3	-9.696028E-3	1.835278E-3	-1.539865E-3	-8.932133E-3	-7.400066E-3	-2.033927E-3	-9.126535E-3	-1.087990E-2	5.731934E-3	-5.508044E-3	-1.054370E-2	-3.987126E-3	-1.135219E-2	-1.391147E-2	-8.489518E-3	-4.689010E-3	-6.691421E-3	-9.645442E-3	-7.730835E-3	-7.481592E-3	2.156186E-3	-9.100363E-3	-7.279586E-3	9.499077E-4	1.770041E-4	-1.041293E-2	1.873002E-3	-1.041023E-2	-4.187002E-4	-6.792454E-4	-1.154044E-2	-7.531271E-3	-1.021937E-2	-3.387170E-3	-7.771898E-3	-1.292787E-3	-5.895843E-3	6.664231E-3	-1.867162E-2	-6.018320E-3	7.329486E-4	3.214089E-3	1.317996E-3	-8.240118E-3	-4.358625E-3	-1.228140E-2	-1.496079E-2	-1.100311E-2	-1.190161E-2	-1.856585E-2	-9.558410E-3	-9.752262E-3	-8.439395E-3	-2.746171E-3	-1.088968E-2	-7.696166E-3	-2.726233E-3	-3.041069E-3	-8.135711E-3	-9.718086E-3	-1.143212E-2	6.371814E-3	5.850043E-3	-8.148110E-4	7.263089E-3	2.296699E-2
2.810040E+2	6.186930E-3	-2.120142E-3	-9.646210E-4	3.458542E-3	1.900482E-3	1.573742E-3	3.450057E-3	-6.614402E-3	-1.085152E-2	8.145182E-4	7.352518E-3	-1.652943E-3	1.109439E-3	1.085131E-2	5.150400E-3	-1.205584E-2	1.003337E-3	-1.638353E-3	-4.503904E-4	-2.479254E-3	5.928824E-3	-3.856522E-3	-7.079510E-3	1.817859E-3	-1.468512E-2	4.879939E-3	-5.534102E-3	6.014122E-3	-1.163382E-2	-3.106221E-3	-4.535325E-3	-7.639365E-3	-3.446565E-3	-3.197273E-3	6.918446E-3	-4.734756E-3	-3.764374E-3	2.094702E-3	7.338534E-3	1.480136E-3	-7.992753E-4	3.736455E-3	-2.203816E-3	1.436198E-2	-1.122837E-2	-2.587282E-3	-7.963623E-3	1.005451E-3	-1.494788E-2	-4.435625E-3	-2.590009E-3	5.038019E-3	-6.561087E-3	-7.631572E-3	7.871097E-4	1.412555E-3	3.042169E-3	6.071701E-3	-4.134768E-3	1.907471E-3	2.434419E-4	-3.817999E-3	-2.796015E-3	-9.859148E-3	-2.686755E-3	-1.702535E-3	1.036042E-3	4.443243E-4	1.049074E-2	-1.595353E-3	-6.564927E-3	-6.644517E-4	6.288376E-3	4.830843E-3	-3.392757E-3	-7.335188E-3	1.504144E-3	7.172095E-4	-2.545668E-3	-1.356951E-2	-8.704978E-3	-8.450786E-3	1.397014E-2	-2.651955E-3	-1.005795E-3	-1.954167E-3	1.168511E-3	-8.780896E-3	1.036985E-2	-2.216462E-5	-4.850689E-4	3.918053E-3	1.071481E-3	2.339021E-3	-3.013249E-3	-4.083400E-3	-1.615573E-3	-1.007160E-2	7.434367E-3	-3.793778E-3	2.560187E-3	6.668900E-3	1.168479E-2	-2.926437E-3	-4.809512E-3	2.543889E-3	3.874924E-3	3.053559E-3	5.266723E-3	5.717735E-4	-1.134996E-2	4.437707E-3	-3.921382E-3	-1.829712E-3	-5.131373E-3	1.230886E-2	6.396605E-3	-1.278340E-2	-2.624323E-3	-7.421511E-3	-3.082749E-3	-6.020644E-3	-5.283144E-3	-3.054750E-3	-7.071457E-4	5.518922E-3	-1.082778E-2	-4.761460E-3	-1.147292E-2	-1.420191E-2	-9.970526E-3	-1.001789E-3	1.336041E-3	-6.625351E-3	-4.826022E-3	3.449081E-3	-6.029156E-3	-8.774387E-4	6.580892E-3	-3.914788E-3	-8.877973E-3	-5.533073E-3	8.040443E-3	3.438330E-3	-1.103657E-2	-3.635350E-3	-3.781873E-3	8.096495E-3	-3.200870E-3	-3.254789E-3	-2.304227E-3	-5.225886E-3	4.419819E-3	5.124633E-3	9.081962E-3	-6.971499E-3	1.334991E-3	-6.003902E-3	8.455969E-3	-1.325307E-2	-6.614134E-3	-3.188091E-3	-5.284923E-3	-8.291064E-4	-4.588382E-3	-3.236435E-3	-7.255156E-3	-2.756862E-3	1.141030E-3	4.068936E-3	2.079027E-3	-4.265436E-3
2.815020E+2	1.074541E-2	8.838410E-3	1.290892E-2	-1.343547E-2	-2.899536E-3	-1.167153E-2	-6.748089E-4	-9.907440E-4	-3.361698E-3	-6.597981E-3	-4.507718E-3	3.007552E-3	7.119232E-3	-8.722229E-3	-8.196446E-3	5.432349E-3	-5.330225E-4	8.475491E-3	-7.489610E-3	-2.246655E-3	4.910872E-4	-6.011289E-4	6.586731E-3	-1.034027E-2	-2.041089E-3	-2.686482E-3	4.545896E-3	1.213239E-3	-1.758210E-3	9.834400E-3	1.855522E-2	5.300446E-3	4.649097E-4	5.972239E-3	3.707587E-3	5.233879E-3	7.457881E-3	-7.458287E-4	5.254627E-4	3.329516E-3	-1.583089E-2	9.637234E-3	5.700714E-3	-1.193543E-2	8.455725E-3	-3.062190E-3	2.310744E-3	-5.274303E-4	-5.921627E-4	-2.674101E-3	-5.906856E-3	2.293890E-3	7.480377E-3	-3.083044E-3	5.698466E-3	2.226386E-5	-9.524135E-3	1.711314E-2	1.935628E-3	-6.552330E-4	-1.031546E-3	7.043685E-3	1.222527E-2	3.637283E-3	2.099573E-3	-2.256896E-3	3.233478E-3	1.260690E-2	-4.320437E-3	-6.301152E-3	-2.122046E-4	1.324671E-2	-9.246355E-3	-3.540094E-3	-6.395658E-4	-6.299805E-3	-9.184186E-3	2.403312E-3	-6.502740E-4	-3.174680E-3	1.479861E-2	-4.963009E-3	5.776781E-3	-2.439707E-3	-6.476615E-3	8.779420E-3	-4.119681E-3	-3.251423E-3	-8.834415E-3	1.852727E-3	-2.652351E-4	-1.617231E-4	2.095548E-3	4.287844E-4	2.680666E-3	-3.869121E-3	-5.733345E-3	-6.416287E-3	-5.119386E-3	-1.674097E-3	-6.014444E-3	-3.896386E-4	-1.589010E-3	2.181106E-3	1.497121E-3	-7.149898E-3	3.263179E-3	-2.075820E-3	-3.389895E-4	-5.797966E-4	1.522621E-2	-1.022674E-2	7.681612E-3	5.525962E-3	-6.809325E-3	2.487282E-3	5.835347E-3	1.397515E-2	9.421513E-4	-4.133475E-3	-1.211590E-3	1.083113E-2	5.929369E-4	-3.719829E-3	1.714649E-2	4.455231E-3	1.801553E-3	3.574140E-3	-9.031441E-4	-1.800132E-3	-1.064232E-2	-4.767292E-3	-2.727575E-3	9.847933E-3	8.779212E-4	-1.718697E-4	-3.278820E-3	-3.352200E-3	2.320133E-3	-3.697718E-3	-7.277614E-3	-3.063593E-3	-6.225625E-3	3.689072E-3	1.145466E-2	2.334018E-3	-5.522834E-3	-8.774543E-4	8.649763E-3	-9.208715E-3	1.134149E-2	5.563110E-3	3.740102E-3	4.633756E-3	-6.295923E-3	1.082017E-2	-1.213609E-2	9.657082E-3	1.045021E-2	2.682224E-3	-6.413049E-3	-5.370796E-3	7.226276E-3	1.150782E-2	8.285613E-3	4.669971E-3	1.011312E-2	-2.541410E-3	6.602862E-3	-1.064021E-2	-9.260056E-3	-2.363457E-4
2.820030E+2	-1.054496E-2	5.093892E-3	4.958363E-3	2.208213E-3	6.731174E-3	7.984998E-3	-8.216335E-3	4.856179E-3	-3.011153E-3	-7.062422E-3	1.181003E-2	7.804311E-3	5.378524E-3	1.231073E-2	-2.236306E-3	1.702446E-3	7.930046E-3	-3.504200E-3	2.826087E-3	7.757260E-3	1.584211E-3	1.432530E-2	-3.305550E-3	-1.224083E-2	9.964644E-3	1.029262E-2	-3.321272E-3	-8.578385E-3	1.282859E-2	-1.155541E-3	-5.722958E-3	7.966875E-3	-1.069848E-3	-6.745442E-3	4.249472E-3	1.002354E-2	7.436840E-4	-3.493055E-3	8.897912E-3	-3.499398E-4	-1.130755E-2	2.744657E-3	-1.602160E-3	8.049085E-3	2.380998E-3	7.828299E-3	-4.885036E-3	-4.620163E-3	1.575441E-3	1.396622E-2	8.768783E-3	1.264727E-2	-2.494805E-4	8.259329E-3	-6.408606E-3	3.731154E-4	6.339877E-3	-4.086938E-3	3.356940E-3	1.529416E-3	6.286561E-3	7.506937E-3	2.393360E-2	7.463219E-4	-5.469498E-4	1.142329E-2	1.547802E-2	-8.229377E-4	9.661780E-3	6.846605E-3	3.296013E-3	-5.657845E-5	4.330408E-3	9.874687E-3	5.896539E-4	3.234724E-3	-2.385063E-4	-6.626040E-3	3.960529E-3	2.735764E-3	-3.728436E-4	1.286561E-2	2.318275E-4	-2.174848E-4	3.666805E-4	-4.591821E-3	1.805639E-3	7.110177E-3	3.071678E-3	-5.136499E-3	-8.723500E-3	2.153580E-4	3.300542E-3	2.327148E-3	1.783684E-2	1.076749E-2	1.199485E-2	7.935804E-3	1.014134E-2	5.442637E-3	3.277058E-3	5.749470E-3	5.239426E-3	9.854993E-4	1.861140E-3	1.519312E-3	5.492158E-3	1.220553E-4	-5.121265E-3	5.451912E-3	6.568784E-4	9.556191E-3	4.893830E-3	7.575333E-3	2.973719E-3	1.067668E-3	6.283153E-3	2.256350E-3	5.140128E-4	1.563858E-2	-9.256183E-3	-6.252615E-3	9.581330E-3	1.087832E-2	-1.720548E-3	1.509686E-3	5.128514E-3	1.605911E-3	4.107833E-4	-4.698441E-3	4.671198E-3	1.277865E-2	-4.103945E-3	4.323702E-3	1.293092E-3	2.602242E-3	1.409534E-2	1.271496E-2	7.385362E-3	1.459507E-2	-1.227209E-3	1.017011E-2	2.372008E-3	-8.759173E-3	1.917532E-2	-3.789306E-3	1.469675E-2	6.071459E-3	6.872664E-3	-3.391409E-3	-8.431363E-3	7.564544E-3	7.060952E-3	9.155048E-3	3.200137E-3	5.731963E-3	1.336237E-2	8.005631E-3	4.681858E-4	1.739628E-2	3.523106E-3	-7.488518E-3	4.583354E-3	-2.944005E-3	7.977280E-3	-1.085159E-3	9.613029E-3	-2.975575E-3	-3.497353E-3	1.223703E-2	1.674231E-2	1.162500E-2
2.825060E+2	4.658398E-3	9.094097E-4	3.176091E-3	2.409002E-3	-6.765398E-3	2.961226E-3	1.092935E-2	7.232950E-3	8.072892E-3	-3.211700E-3	8.037009E-3	8.754812E-3	6.839311E-3	-1.492257E-3	1.152950E-2	3.364196E-3	7.516126E-4	1.476351E-3	1.033761E-2	5.805366E-3	4.869278E-3	2.108354E-3	5.439168E-3	8.354169E-3	3.172829E-3	-3.109037E-3	9.945417E-3	7.523911E-3	6.879788E-3	6.710201E-3	-1.448708E-3	-7.139365E-3	3.617976E-3	1.049079E-2	-1.182685E-3	-1.687331E-3	6.308842E-3	1.115726E-2	-6.630475E-4	9.448477E-3	4.067714E-3	3.016269E-4	4.426829E-3	5.179287E-3	6.047364E-3	1.205177E-2	1.291724E-2	-2.817678E-3	5.186241E-3	3.892924E-3	1.054808E-2	-6.367979E-3	9.583502E-3	1.045975E-2	-1.032603E-4	4.424220E-3	5.476905E-3	-4.858125E-3	-5.453651E-3	-2.149002E-3	-2.932906E-3	6.842589E-3	-2.985043E-4	9.954741E-3	-6.679656E-3	6.711020E-3	6.702314E-3	1.027419E-2	-4.769615E-3	7.557274E-3	2.109859E-4	-2.358609E-3	-1.037030E-4	-4.053902E-3	1.169621E-2	3.226649E-3	2.902184E-3	8.624804E-3	7.334324E-3	6.700025E-3	1.876318E-2	6.189547E-3	-5.671680E-4	1.464785E-2	-1.191212E-2	1.168749E-2	1.456782E-2	4.027431E-3	-7.660637E-3	6.368415E-3	4.010395E-3	1.941664E-3	6.372185E-3	1.038146E-2	3.983600E-3	-2.723480E-3	2.389449E-3	2.660898E-3	-1.768919E-3	-2.300236E-3	1.622692E-2	4.906206E-3	6.845393E-3	4.221737E-3	1.506189E-2	-1.008466E-3	1.907226E-3	-2.628686E-3	-2.165242E-3	-3.739987E-3	-1.153599E-3	4.211280E-3	1.223851E-2	5.153769E-3	8.605577E-3	-8.257839E-4	-2.953854E-3	1.295404E-2	7.212081E-3	-2.997773E-3	1.773927E-2	2.110354E-3	1.238430E-2	1.057457E-3	8.384105E-3	9.670678E-3	4.113862E-3	7.281231E-3	9.910354E-3	5.139918E-3	9.026516E-3	6.636645E-3	1.917544E-3	1.376474E-2	8.372199E-3	1.875413E-3	-2.067161E-3	2.455138E-3	8.140038E-3	-4.408282E-3	3.074613E-3	7.118742E-3	2.321696E-3	-1.046210E-2	6.349718E-4	1.263065E-3	-1.357108E-3	-6.207714E-4	8.325241E-3	-1.906316E-3	8.319558E-3	1.666807E-2	6.969466E-3	1.061720E-2	1.142928E-2	1.592958E-2	7.617714E-3	3.064905E-4	3.009191E-3	5.706217E-3	5.897787E-3	1.479189E-2	1.175545E-2	1.377818E-2	3.145694E-3	1.359477E-2	8.766291E-3	1.212480E-2	3.896031E-3	1.538597E-2	1.206442E-2	1.399269E-4
2.830030E+2	-2.658106E-3	1.129012E-2	1.562843E-2	1.095625E-2	1.226950E-2	1.528836E-2	1.804001E-2	5.288891E-3	1.213525E-2	2.020821E-2	5.435355E-3	1.728554E-2	1.161164E-2	2.039769E-2	1.692679E-2	5.756544E-3	2.372957E-2	1.112341E-2	1.298095E-2	1.807018E-2	1.410495E-2	1.480864E-2	7.453262E-3	2.135574E-2	2.105735E-2	-3.605366E-3	6.409764E-3	5.489140E-3	1.866780E-2	3.497591E-3	1.631606E-2	1.468601E-2	1.709678E-2	8.461700E-3	9.304413E-3	1.676367E-2	-4.537793E-3	1.153446E-2	1.566582E-2	6.593103E-3	1.903943E-2	6.383216E-3	9.919079E-3	4.528513E-3	1.083854E-2	1.883957E-2	1.760726E-2	2.583509E-2	1.182742E-2	1.283058E-2	7.325538E-3	5.989170E-3	1.245706E-2	-2.262416E-4	1.131770E-2	4.755723E-3	6.750563E-3	1.185590E-2	1.672755E-2	1.312370E-2	5.135893E-3	2.006402E-2	9.420677E-3	2.725340E-2	1.056731E-2	1.416042E-2	2.143974E-3	1.157720E-2	2.790546E-3	1.797308E-2	1.616417E-2	1.881304E-2	1.091019E-2	9.395895E-3	1.772569E-3	3.049591E-2	1.273818E-2	2.232030E-4	5.999654E-3	2.065231E-2	9.553918E-3	1.074471E-2	6.350404E-4	1.132660E-2	1.631060E-2	1.703490E-2	-2.438120E-4	1.213316E-2	2.226445E-2	1.005893E-2	4.342567E-3	5.781171E-3	1.994220E-2	1.523449E-2	9.887905E-3	1.674484E-2	1.848078E-2	8.299363E-3	8.606165E-3	2.323878E-2	1.588113E-2	6.924290E-3	6.423726E-3	9.523319E-3	4.792168E-3	1.021422E-2	6.734669E-3	1.862194E-2	1.534217E-2	1.166407E-2	1.433758E-2	1.614379E-2	-2.184345E-3	1.436882E-2	8.025925E-3	1.820501E-2	1.083194E-2	1.106521E-2	1.012744E-2	9.021200E-3	1.731549E-2	2.272237E-2	3.087762E-4	2.017968E-2	7.078592E-3	8.021760E-3	1.030268E-2	1.180566E-2	2.468967E-2	1.295442E-2	8.549223E-3	1.106930E-2	7.455124E-3	8.123217E-3	1.272867E-2	3.844540E-3	2.145271E-2	2.799708E-3	1.685678E-2	2.236885E-2	5.576136E-3	1.283690E-2	1.925447E-2	1.498395E-2	9.017797E-3	8.885694E-3	4.901249E-3	1.942023E-2	1.186357E-2	1.964885E-2	1.715714E-2	1.486517E-2	5.793838E-4	9.425490E-3	7.588156E-3	6.153916E-3	8.736278E-3	1.354197E-3	1.041198E-2	6.166036E-3	1.663943E-2	8.583765E-3	5.881917E-3	4.785760E-3	6.693895E-3	2.310851E-3	7.278891E-3	1.257515E-2	8.460680E-3	9.704212E-3	-6.343804E-3	8.328105E-3
2.835020E+2	3.027620E-2	3.181065E-2	2.338844E-2	8.880669E-3	3.222560E-2	1.711937E-2	2.511945E-2	7.715636E-3	2.630678E-2	2.587835E-2	2.397318E-2	2.192335E-2	1.775243E-2	3.280404E-2	2.250050E-2	2.208736E-2	2.308549E-2	2.063328E-2	1.810333E-2	1.817663E-2	2.496487E-2	1.343283E-2	1.385983E-2	2.472793E-2	1.129216E-2	1.886627E-2	1.839044E-2	1.342007E-2	2.194887E-2	1.377471E-2	3.097931E-2	2.129574E-2	2.567326E-2	2.287178E-2	2.361133E-2	3.531481E-2	2.769194E-2	4.242377E-2	3.779876E-2	1.920405E-2	2.534313E-2	1.640790E-2	2.693421E-2	2.373296E-2	2.974513E-2	1.850365E-2	2.299557E-2	2.798750E-2	2.748028E-2	2.504840E-2	2.780391E-2	2.769904E-2	5.930861E-3	3.433385E-2	2.568111E-2	2.395486E-2	2.712178E-2	1.283399E-2	1.824312E-2	1.500623E-2	1.782892E-2	8.807321E-3	1.728222E-2	2.350107E-2	3.033949E-2	1.915179E-2	1.593921E-2	3.247935E-2	2.575613E-2	2.923102E-2	2.352798E-2	1.677141E-2	2.452635E-2	1.568635E-2	3.574734E-2	1.472102E-2	2.172713E-2	2.851106E-2	1.982418E-2	2.904688E-2	3.630002E-2	1.932248E-2	2.693203E-2	3.227137E-2	2.899281E-2	2.476623E-2	2.334409E-2	6.877091E-3	2.246087E-2	3.711251E-2	1.319420E-2	3.252450E-2	2.975042E-2	2.080374E-2	3.531078E-2	1.861032E-2	4.175733E-2	2.174622E-2	3.703213E-2	3.424924E-2	2.028922E-2	2.040729E-2	3.617989E-2	2.301991E-2	3.533718E-2	2.735323E-2	2.312263E-2	2.712572E-2	3.310473E-2	2.866301E-2	2.803699E-2	1.898494E-2	1.955055E-2	2.274422E-2	2.341158E-2	2.883347E-2	2.548892E-2	1.831438E-2	1.279576E-2	4.419252E-3	1.134637E-2	2.904790E-2	3.130088E-2	5.801874E-3	2.358588E-2	2.290100E-2	3.398390E-2	1.620831E-2	3.558966E-2	1.986180E-2	2.485389E-2	1.618649E-2	2.779845E-2	4.352102E-2	1.695314E-2	1.934370E-2	2.425460E-2	2.899279E-2	3.225376E-2	4.097321E-2	2.920049E-2	3.628947E-2	2.786388E-2	2.040816E-2	2.471458E-2	2.166767E-2	2.213161E-2	3.491179E-2	1.527191E-2	1.279044E-2	2.180181E-2	1.131682E-2	2.397714E-2	1.303662E-2	2.222451E-2	2.531642E-2	3.052703E-2	2.105521E-2	2.205842E-2	3.456480E-2	1.519298E-2	2.485253E-2	3.855719E-2	2.026180E-2	3.361774E-2	1.983507E-2	2.127353E-2	2.834196E-2	1.473952E-2	4.426634E-3	1.102947E-2	1.322794E-2
2.840020E+2	4.594397E-2	5.915070E-2	5.811726E-2	3.394842E-2	4.664215E-2	6.599689E-2	4.639354E-2	5.275322E-2	5.046184E-2	4.226223E-2	5.469145E-2	4.717466E-2	5.228435E-2	4.213376E-2	3.145164E-2	4.412509E-2	4.754368E-2	5.652768E-2	4.715172E-2	4.223157E-2	5.988352E-2	4.661396E-2	6.069229E-2	6.368776E-2	4.940366E-2	4.539417E-2	4.527045E-2	4.893750E-2	4.991363E-2	5.354160E-2	4.887995E-2	4.061436E-2	6.095188E-2	5.403119E-2	4.507503E-2	4.767335E-2	3.879549E-2	4.865060E-2	4.871300E-2	4.492972E-2	4.513028E-2	4.370252E-2	4.415001E-2	5.678613E-2	4.709525E-2	4.898675E-2	5.057915E-2	6.971743E-2	3.697895E-2	6.445756E-2	5.038981E-2	4.551812E-2	5.301158E-2	5.489944E-2	4.635794E-2	5.986287E-2	4.815956E-2	5.190751E-2	3.772102E-2	4.509789E-2	4.869750E-2	5.050367E-2	5.450954E-2	3.063896E-2	5.418426E-2	6.131457E-2	4.623776E-2	5.674567E-2	5.801120E-2	4.998172E-2	2.414080E-2	4.123611E-2	5.147177E-2	7.226288E-2	5.350896E-2	4.019080E-2	5.155928E-2	4.574848E-2	5.001276E-2	5.712204E-2	4.394933E-2	5.516531E-2	6.033925E-2	5.305766E-2	5.318581E-2	5.834749E-2	5.722592E-2	5.514206E-2	5.515508E-2	3.412766E-2	7.435971E-2	3.821704E-2	4.717097E-2	5.345385E-2	5.769802E-2	3.863806E-2	6.496377E-2	6.579569E-2	4.336573E-2	5.354233E-2	4.255256E-2	4.886311E-2	5.610782E-2	4.975351E-2	4.936864E-2	5.201502E-2	6.420263E-2	5.093335E-2	5.314473E-2	5.827580E-2	4.483837E-2	7.643783E-2	6.778559E-2	4.297613E-2	4.701464E-2	5.522909E-2	4.844385E-2	7.152791E-2	4.263038E-2	4.487540E-2	3.748203E-2	4.955762E-2	6.330678E-2	6.596953E-2	4.499292E-2	4.620242E-2	5.027943E-2	4.798649E-2	4.663114E-2	6.912394E-2	6.933635E-2	5.703053E-2	6.328664E-2	4.049108E-2	6.095950E-2	5.527956E-2	5.562799E-2	5.022171E-2	3.538286E-2	3.532401E-2	4.313882E-2	5.514079E-2	6.250780E-2	5.104704E-2	6.702267E-2	6.381301E-2	6.039567E-2	6.648993E-2	4.072304E-2	6.526525E-2	4.842210E-2	6.641995E-2	4.191457E-2	5.265230E-2	6.070355E-2	6.361638E-2	6.750361E-2	4.886257E-2	5.508334E-2	5.525464E-2	5.937736E-2	5.818857E-2	7.657585E-2	4.082630E-2	4.403031E-2	4.925005E-2	4.212456E-2	5.356265E-2	5.612423E-2	4.378481E-2	5.419220E-2	3.911057E-2
2.841030E+2	6.447589E-2	5.995237E-2	5.438836E-2	6.097157E-2	4.585286E-2	6.566844E-2	5.649414E-2	6.227457E-2	4.501233E-2	4.914651E-2	5.219322E-2	5.982347E-2	5.808440E-2	4.689728E-2	4.916385E-2	6.040563E-2	5.832637E-2	4.906487E-2	4.917032E-2	7.108255E-2	6.287639E-2	5.195266E-2	7.022251E-2	6.881205E-2	4.366290E-2	6.989248E-2	7.020513E-2	6.370700E-2	4.956527E-2	5.321062E-2	6.240752E-2	6.748887E-2	5.753888E-2	6.831793E-2	6.361138E-2	4.611335E-2	5.176740E-2	6.612402E-2	7.549260E-2	6.082473E-2	6.802059E-2	5.268090E-2	6.564533E-2	8.548254E-2	4.443119E-2	6.350974E-2	5.313933E-2	5.858826E-2	7.514727E-2	4.037178E-2	5.316146E-2	5.646701E-2	5.256413E-2	5.764336E-2	6.073905E-2	5.942063E-2	6.676143E-2	7.773897E-2	5.075545E-2	6.320481E-2	5.966430E-2	6.156631E-2	5.421236E-2	5.688138E-2	5.945273E-2	7.416774E-2	6.585099E-2	4.727658E-2	5.589507E-2	6.994886E-2	4.100601E-2	4.321721E-2	7.333758E-2	4.885840E-2	7.466030E-2	4.705583E-2	5.864880E-2	5.309684E-2	6.420691E-2	6.750812E-2	5.357443E-2	5.834163E-2	7.520108E-2	5.980154E-2	5.791461E-2	5.196034E-2	5.239021E-2	6.135283E-2	5.084705E-2	5.705588E-2	5.320143E-2	5.455860E-2	5.575580E-2	4.543659E-2	5.599560E-2	4.959945E-2	6.732034E-2	4.975498E-2	7.125709E-2	5.122024E-2	5.064587E-2	5.102260E-2	7.682547E-2	6.051887E-2	8.692787E-2	7.443673E-2	7.203300E-2	7.138316E-2	5.122948E-2	6.255288E-2	5.921624E-2	6.291897E-2	7.257883E-2	5.343643E-2	5.033648E-2	7.227736E-2	5.235025E-2	6.473645E-2	6.249991E-2	6.408009E-2	6.267311E-2	6.145998E-2	7.677508E-2	4.766979E-2	4.626100E-2	5.451402E-2	5.064579E-2	6.044597E-2	4.495323E-2	5.481814E-2	6.050498E-2	9.035140E-2	5.366097E-2	5.629487E-2	5.722455E-2	6.747296E-2	6.779094E-2	4.188341E-2	5.888884E-2	6.624185E-2	6.928333E-2	5.887108E-2	5.420260E-2	7.501758E-2	5.643138E-2	8.038116E-2	6.788091E-2	5.306134E-2	6.744664E-2	5.662928E-2	6.911500E-2	4.922293E-2	5.032416E-2	5.463878E-2	6.627661E-2	5.316763E-2	7.824939E-2	5.455063E-2	5.918095E-2	4.947222E-2	6.485959E-2	6.826206E-2	4.767752E-2	6.564574E-2	6.542598E-2	7.334860E-2	5.687516E-2	6.060036E-2	6.982596E-2	6.962308E-2	7.920697E-2	5.170141E-2
2.842030E+2	6.711824E-2	8.038300E-2	6.246837E-2	6.020688E-2	7.498959E-2	5.784952E-2	5.680040E-2	6.017820E-2	4.994679E-2	5.509064E-2	6.112858E-2	7.726381E-2	5.384741E-2	5.019885E-2	5.465862E-2	5.897947E-2	4.618471E-2	6.263205E-2	6.658203E-2	5.701248E-2	5.194618E-2	5.869509E-2	6.740196E-2	5.444442E-2	6.017019E-2	6.367097E-2	7.622238E-2	6.586680E-2	6.594426E-2	5.509281E-2	5.998211E-2	6.066138E-2	5.258599E-2	5.560029E-2	6.236449E-2	7.017342E-2	7.062209E-2	6.078466E-2	5.181610E-2	4.721338E-2	6.660314E-2	6.687043E-2	6.532610E-2	7.952406E-2	7.277085E-2	6.405172E-2	6.434745E-2	6.281255E-2	6.601139E-2	6.542250E-2	6.710062E-2	7.909538E-2	5.462873E-2	5.571920E-2	6.671282E-2	7.362447E-2	4.234733E-2	6.759196E-2	5.833603E-2	4.948275E-2	6.915133E-2	6.357054E-2	5.853108E-2	5.813142E-2	7.134815E-2	7.808857E-2	5.794466E-2	7.127889E-2	6.051811E-2	6.600203E-2	6.110896E-2	6.810008E-2	3.883751E-2	7.042544E-2	5.420257E-2	6.070762E-2	6.489490E-2	5.816008E-2	5.748151E-2	7.396218E-2	4.915280E-2	5.600324E-2	5.971334E-2	6.302792E-2	5.385714E-2	6.445995E-2	6.089748E-2	6.841966E-2	5.005847E-2	7.147131E-2	7.189709E-2	6.150737E-2	6.195848E-2	4.815655E-2	6.577189E-2	7.150020E-2	8.168023E-2	6.124024E-2	5.457531E-2	7.111915E-2	5.877291E-2	7.149886E-2	6.680982E-2	6.530727E-2	6.491412E-2	7.051142E-2	4.810068E-2	7.226162E-2	6.436617E-2	6.150627E-2	6.342355E-2	5.970069E-2	8.647745E-2	5.738955E-2	7.983746E-2	4.681461E-2	6.523248E-2	6.705689E-2	7.826194E-2	7.247999E-2	7.746363E-2	7.272486E-2	7.940123E-2	6.317987E-2	5.827588E-2	6.307025E-2	7.492040E-2	7.335101E-2	4.503809E-2	6.489141E-2	7.563410E-2	4.707450E-2	7.980424E-2	5.578723E-2	7.049027E-2	6.536954E-2	5.712306E-2	6.176240E-2	7.718006E-2	7.398677E-2	6.146270E-2	7.165861E-2	7.500309E-2	6.367487E-2	4.223601E-2	7.422860E-2	6.849510E-2	6.453630E-2	7.559594E-2	7.645392E-2	7.078810E-2	4.723691E-2	7.190038E-2	7.498513E-2	6.867588E-2	4.940277E-2	5.618512E-2	6.246200E-2	7.167794E-2	5.416532E-2	8.235375E-2	6.269502E-2	5.428908E-2	6.934188E-2	5.141865E-2	5.245691E-2	7.653729E-2	7.229778E-2	5.999173E-2	4.980360E-2	8.562406E-2	6.106498E-2
2.843040E+2	8.584273E-2	9.172022E-2	8.308092E-2	9.814394E-2	9.801708E-2	9.367843E-2	8.242184E-2	9.258930E-2	8.496643E-2	7.523029E-2	8.123548E-2	1.018346E-1	8.163556E-2	8.548683E-2	8.456709E-2	7.919040E-2	8.307411E-2	8.987632E-2	1.172208E-1	8.228196E-2	1.044597E-1	1.101884E-1	1.191212E-1	9.042198E-2	7.927410E-2	8.107083E-2	8.069976E-2	6.544703E-2	8.830698E-2	1.192465E-1	8.418694E-2	9.625217E-2	7.400430E-2	8.868166E-2	8.547695E-2	1.141231E-1	7.957463E-2	1.150421E-1	8.478342E-2	1.125396E-1	1.092163E-1	1.093822E-1	7.575034E-2	9.815062E-2	9.211940E-2	9.175616E-2	8.859952E-2	8.495787E-2	9.535186E-2	8.010667E-2	9.411917E-2	9.795463E-2	7.971991E-2	9.634159E-2	9.729153E-2	9.246692E-2	9.641668E-2	1.031350E-1	8.460340E-2	8.788050E-2	9.777922E-2	9.873236E-2	8.529545E-2	9.223889E-2	7.273044E-2	8.793075E-2	8.140099E-2	8.482512E-2	9.112390E-2	7.802617E-2	8.919981E-2	1.008454E-1	9.141769E-2	9.150881E-2	8.320134E-2	8.551163E-2	9.497612E-2	9.146776E-2	9.776476E-2	9.429911E-2	1.075241E-1	9.046038E-2	1.024870E-1	8.560449E-2	8.063427E-2	1.043444E-1	8.929258E-2	8.547008E-2	8.590731E-2	8.174454E-2	9.465186E-2	7.892283E-2	8.153527E-2	7.700947E-2	8.966403E-2	9.094151E-2	1.074940E-1	7.960060E-2	8.571526E-2	1.090189E-1	9.584229E-2	1.002640E-1	9.300538E-2	9.736542E-2	1.070127E-1	8.718020E-2	8.240759E-2	8.843835E-2	8.167246E-2	8.808352E-2	8.435441E-2	9.196113E-2	1.021051E-1	7.851189E-2	9.313629E-2	6.741995E-2	9.903439E-2	9.728112E-2	9.057191E-2	9.147540E-2	8.523600E-2	7.062331E-2	8.060412E-2	8.642401E-2	8.430535E-2	1.092250E-1	7.829476E-2	8.204713E-2	9.273991E-2	1.081137E-1	1.026520E-1	8.678778E-2	1.064869E-1	8.325939E-2	1.144515E-1	1.036704E-1	9.340908E-2	8.809330E-2	9.679790E-2	9.295809E-2	9.831151E-2	1.187456E-1	9.561655E-2	8.509194E-2	9.712371E-2	1.008037E-1	8.791873E-2	9.464549E-2	9.160379E-2	9.799849E-2	9.030406E-2	1.090810E-1	1.073284E-1	8.084691E-2	7.357885E-2	1.101733E-1	9.505611E-2	8.948479E-2	1.174577E-1	9.775382E-2	1.087496E-1	1.067768E-1	1.144302E-1	8.294764E-2	1.112424E-1	1.036075E-1	7.206033E-2	1.069914E-1	8.870698E-2	8.239374E-2	9.871164E-2	4.077242E-2
2.844010E+2	1.518785E-1	1.192722E-1	1.214606E-1	1.432840E-1	1.438244E-1	1.205589E-1	1.225659E-1	1.489595E-1	1.479731E-1	1.358351E-1	1.606312E-1	1.516266E-1	1.355882E-1	1.510253E-1	1.607977E-1	1.636202E-1	1.249245E-1	1.486993E-1	1.236661E-1	1.428444E-1	1.592400E-1	1.248988E-1	1.452014E-1	1.577646E-1	1.399308E-1	1.342542E-1	1.298557E-1	1.429355E-1	1.367299E-1	1.091177E-1	1.175267E-1	1.131869E-1	1.457185E-1	1.228181E-1	1.508333E-1	1.573932E-1	1.414041E-1	1.381757E-1	1.228698E-1	1.361049E-1	1.337153E-1	1.355082E-1	1.335114E-1	1.273221E-1	1.289499E-1	1.585706E-1	1.312171E-1	1.199164E-1	1.312437E-1	1.308270E-1	1.496626E-1	1.383585E-1	1.154948E-1	1.604070E-1	1.249366E-1	1.438485E-1	1.276215E-1	1.423711E-1	1.582827E-1	1.555948E-1	1.441244E-1	1.474323E-1	1.418737E-1	1.357119E-1	1.120343E-1	1.112455E-1	1.332107E-1	1.304659E-1	1.409966E-1	1.479224E-1	1.391681E-1	1.230348E-1	1.194692E-1	1.163289E-1	1.534792E-1	1.248885E-1	1.167142E-1	1.361125E-1	1.519174E-1	1.441954E-1	1.645661E-1	1.458658E-1	1.408107E-1	1.374384E-1	1.322482E-1	1.463489E-1	1.369032E-1	1.391483E-1	1.431080E-1	1.488832E-1	1.295444E-1	1.493331E-1	1.270431E-1	1.323167E-1	1.340057E-1	1.407285E-1	1.381076E-1	1.414637E-1	1.410924E-1	1.711731E-1	1.569242E-1	1.318664E-1	1.383189E-1	1.490732E-1	1.369886E-1	1.453394E-1	1.289410E-1	1.398016E-1	1.295938E-1	1.326758E-1	1.168000E-1	1.339336E-1	1.568324E-1	1.446828E-1	1.449231E-1	1.364541E-1	1.384942E-1	1.393825E-1	1.269192E-1	1.425250E-1	1.464428E-1	1.698599E-1	1.181147E-1	1.506478E-1	1.487712E-1	1.099191E-1	1.464702E-1	1.305789E-1	1.756992E-1	1.265373E-1	1.549102E-1	1.531361E-1	1.454008E-1	1.379143E-1	1.503849E-1	1.378823E-1	1.649671E-1	1.360963E-1	1.328102E-1	1.302662E-1	1.355322E-1	1.401287E-1	1.404335E-1	1.383223E-1	1.700940E-1	1.427333E-1	1.490850E-1	1.221269E-1	1.218372E-1	1.536038E-1	1.241397E-1	1.289805E-1	1.191449E-1	1.429908E-1	1.260443E-1	1.466805E-1	1.677429E-1	1.353817E-1	1.452272E-1	1.340437E-1	1.291217E-1	1.380363E-1	1.295271E-1	1.314942E-1	1.556768E-1	1.412726E-1	1.340136E-1	1.388169E-1	1.435497E-1	1.341065E-1	1.732454E-1	8.770205E-2
2.845030E+2	2.131056E-1	1.884354E-1	2.078556E-1	1.665169E-1	2.008542E-1	2.006634E-1	1.925655E-1	2.210360E-1	2.020362E-1	2.224867E-1	2.055854E-1	2.022541E-1	2.014454E-1	1.896411E-1	2.118824E-1	2.246881E-1	1.821463E-1	2.192179E-1	2.264680E-1	2.128995E-1	2.026974E-1	2.011954E-1	2.040208E-1	1.859977E-1	1.891662E-1	1.882752E-1	1.821807E-1	1.993944E-1	2.044341E-1	1.892877E-1	1.799989E-1	2.033919E-1	2.068416E-1	1.906422E-1	2.166028E-1	1.868611E-1	2.063522E-1	1.986386E-1	2.003628E-1	2.125698E-1	2.051018E-1	1.898510E-1	2.331620E-1	1.844130E-1	2.006873E-1	2.139757E-1	2.093750E-1	1.815046E-1	2.063345E-1	2.076485E-1	2.132819E-1	2.079562E-1	2.339308E-1	1.893492E-1	2.107808E-1	2.048402E-1	2.109902E-1	2.075345E-1	2.087748E-1	2.115807E-1	1.994959E-1	1.901070E-1	1.890003E-1	2.083947E-1	2.095741E-1	2.024507E-1	1.728490E-1	2.053823E-1	2.238609E-1	2.210515E-1	1.866703E-1	2.075628E-1	1.942869E-1	2.155324E-1	2.114558E-1	2.187600E-1	2.065490E-1	2.217328E-1	1.947302E-1	1.982440E-1	1.844545E-1	2.083900E-1	2.043286E-1	1.901098E-1	2.104529E-1	2.013390E-1	1.959565E-1	2.002017E-1	2.108624E-1	1.837953E-1	2.175594E-1	1.673419E-1	1.958515E-1	2.059116E-1	1.919768E-1	2.155087E-1	2.156295E-1	2.299503E-1	2.050581E-1	2.204775E-1	2.240418E-1	2.050355E-1	1.998266E-1	2.005358E-1	2.191925E-1	1.915587E-1	1.930853E-1	1.879587E-1	1.837846E-1	2.006545E-1	2.109379E-1	2.105630E-1	1.648434E-1	2.151610E-1	2.158787E-1	2.125753E-1	2.249306E-1	2.287104E-1	1.980882E-1	2.237636E-1	2.023694E-1	2.118961E-1	2.086459E-1	2.069074E-1	2.121644E-1	2.007547E-1	2.020192E-1	2.169503E-1	2.139160E-1	2.187425E-1	1.914369E-1	2.341915E-1	2.007342E-1	1.949082E-1	2.285048E-1	2.042767E-1	1.936316E-1	1.913418E-1	2.503968E-1	1.852398E-1	1.918977E-1	2.111267E-1	2.154689E-1	2.344298E-1	2.217300E-1	2.249953E-1	1.954000E-1	2.178125E-1	2.022657E-1	2.380624E-1	2.136031E-1	2.002786E-1	1.788110E-1	2.178871E-1	2.129488E-1	2.166075E-1	2.438397E-1	2.047197E-1	2.215955E-1	2.040149E-1	2.191955E-1	2.177265E-1	1.821364E-1	2.179486E-1	2.123013E-1	2.224073E-1	1.948371E-1	2.197218E-1	2.154931E-1	2.089319E-1	1.911929E-1	1.781382E-1
2.846040E+2	3.188502E-1	3.415542E-1	2.858584E-1	3.496505E-1	3.374856E-1	3.099199E-1	3.390316E-1	3.091621E-1	3.422016E-1	3.275476E-1	3.297695E-1	3.454766E-1	3.027777E-1	3.341152E-1	2.930895E-1	3.422674E-1	3.180292E-1	3.565542E-1	3.196800E-1	3.363141E-1	2.893895E-1	3.311606E-1	3.455997E-1	3.409764E-1	3.113328E-1	3.090890E-1	3.144418E-1	3.335403E-1	3.239704E-1	3.272680E-1	3.231145E-1	3.570138E-1	3.371341E-1	3.057112E-1	3.185569E-1	3.306077E-1	3.430309E-1	3.582866E-1	3.365436E-1	3.388410E-1	3.293697E-1	3.196731E-1	3.052876E-1	3.282280E-1	3.378310E-1	3.114205E-1	3.601060E-1	3.587049E-1	3.240510E-1	3.089211E-1	3.118213E-1	3.495955E-1	3.220468E-1	3.452607E-1	3.263451E-1	3.000563E-1	3.196052E-1	3.369515E-1	3.403766E-1	3.548747E-1	3.281634E-1	3.221188E-1	3.127455E-1	2.742856E-1	3.280509E-1	3.518647E-1	3.270215E-1	3.094018E-1	3.205426E-1	3.407406E-1	3.827515E-1	3.045480E-1	3.450227E-1	3.275103E-1	3.263295E-1	3.683598E-1	3.392663E-1	3.056341E-1	3.166957E-1	3.349893E-1	3.404593E-1	3.123458E-1	3.328552E-1	3.636505E-1	2.954841E-1	3.403983E-1	3.138816E-1	3.103590E-1	3.287712E-1	3.978402E-1	3.137738E-1	3.309019E-1	3.537046E-1	3.306459E-1	3.167443E-1	3.047946E-1	3.383593E-1	3.563235E-1	3.357485E-1	3.207125E-1	3.403456E-1	3.145642E-1	3.252692E-1	3.182297E-1	3.355876E-1	3.547126E-1	3.526087E-1	3.344417E-1	3.325306E-1	3.294249E-1	3.333606E-1	3.168825E-1	3.286442E-1	2.938566E-1	3.347105E-1	3.228140E-1	3.228381E-1	3.378961E-1	3.420195E-1	3.249802E-1	3.503476E-1	3.117675E-1	3.282721E-1	3.668867E-1	3.110596E-1	3.257132E-1	3.153268E-1	3.803004E-1	3.147293E-1	3.357470E-1	3.288900E-1	3.423348E-1	3.469781E-1	3.389521E-1	3.445061E-1	3.070971E-1	3.523127E-1	3.107521E-1	3.125517E-1	2.872908E-1	3.280842E-1	3.065609E-1	3.500994E-1	3.520936E-1	3.210426E-1	3.293465E-1	3.170515E-1	3.164898E-1	3.463617E-1	3.263442E-1	3.433267E-1	2.997450E-1	3.574959E-1	3.163481E-1	3.203470E-1	3.322884E-1	3.468610E-1	3.390889E-1	3.484659E-1	3.315218E-1	3.426719E-1	3.058892E-1	3.444929E-1	3.512693E-1	3.374123E-1	3.456635E-1	3.322350E-1	3.305782E-1	3.631305E-1	2.956198E-1	2.933445E-1	3.494601E-1
2.847030E+2	6.816363E-1	5.581104E-1	6.485904E-1	5.768528E-1	5.963037E-1	6.434341E-1	6.138433E-1	6.241418E-1	6.214953E-1	6.016663E-1	6.086748E-1	6.181798E-1	6.234885E-1	6.364973E-1	5.776272E-1	5.734756E-1	5.783280E-1	6.339079E-1	5.830086E-1	6.101545E-1	6.380527E-1	6.403422E-1	6.161199E-1	5.542868E-1	5.653708E-1	6.243469E-1	6.125915E-1	6.081350E-1	5.865189E-1	5.726274E-1	6.116156E-1	5.983543E-1	6.176264E-1	6.483884E-1	5.694299E-1	6.245841E-1	5.661636E-1	6.463625E-1	5.921329E-1	6.160275E-1	6.429340E-1	5.894640E-1	5.738168E-1	6.438898E-1	6.272661E-1	6.246827E-1	5.726458E-1	6.724937E-1	6.707262E-1	5.824898E-1	6.273896E-1	5.910467E-1	6.100355E-1	6.018825E-1	5.945616E-1	6.069458E-1	6.394832E-1	6.008592E-1	6.113951E-1	6.023507E-1	6.582588E-1	5.848872E-1	5.983259E-1	6.301084E-1	6.113221E-1	6.674121E-1	6.472324E-1	5.994185E-1	6.190972E-1	6.052492E-1	6.412372E-1	6.343225E-1	6.005184E-1	5.736647E-1	6.293902E-1	6.155882E-1	6.248839E-1	6.249114E-1	6.181356E-1	6.503862E-1	6.131973E-1	6.062716E-1	6.019604E-1	6.308582E-1	6.152636E-1	6.244244E-1	6.238889E-1	6.059936E-1	6.158238E-1	6.288844E-1	6.102271E-1	6.178144E-1	6.051845E-1	6.039833E-1	6.146973E-1	6.158976E-1	5.864021E-1	6.431377E-1	5.841113E-1	6.010363E-1	6.293157E-1	5.998830E-1	6.082884E-1	5.926630E-1	6.231035E-1	6.071877E-1	6.341102E-1	6.215903E-1	6.156267E-1	6.070323E-1	6.437892E-1	6.597670E-1	6.128181E-1	6.122401E-1	6.184223E-1	5.996710E-1	6.753623E-1	6.158559E-1	6.218554E-1	6.203024E-1	6.525748E-1	5.921525E-1	6.321948E-1	6.521891E-1	6.782673E-1	6.299215E-1	6.464177E-1	6.232364E-1	6.251009E-1	5.888968E-1	6.091956E-1	6.614324E-1	5.983637E-1	6.190894E-1	6.682815E-1	5.868985E-1	6.380293E-1	5.915574E-1	6.251658E-1	5.707224E-1	6.561433E-1	6.371898E-1	6.049323E-1	6.325017E-1	6.317322E-1	5.670463E-1	6.247717E-1	6.155177E-1	6.363373E-1	6.366998E-1	6.201321E-1	5.637670E-1	5.979666E-1	5.572793E-1	6.074149E-1	5.643825E-1	6.673952E-1	6.147203E-1	6.617972E-1	6.162352E-1	6.047566E-1	6.435642E-1	6.391754E-1	6.411966E-1	6.383486E-1	6.055616E-1	6.063456E-1	6.345436E-1	6.345252E-1	6.922266E-1	6.230644E-1	6.547834E-1
2.848000E+2	1.202339E+0	1.276312E+0	1.171412E+0	1.253118E+0	1.237543E+0	1.260873E+0	1.192276E+0	1.210111E+0	1.244999E+0	1.184061E+0	1.270923E+0	1.236008E+0	1.179058E+0	1.191407E+0	1.215279E+0	1.276077E+0	1.248212E+0	1.321158E+0	1.243979E+0	1.257797E+0	1.258011E+0	1.249371E+0	1.234439E+0	1.240835E+0	1.229295E+0	1.232568E+0	1.211798E+0	1.215477E+0	1.228909E+0	1.248348E+0	1.257517E+0	1.257670E+0	1.167153E+0	1.174344E+0	1.194669E+0	1.240050E+0	1.235086E+0	1.202928E+0	1.210222E+0	1.191503E+0	1.296358E+0	1.223822E+0	1.191238E+0	1.297659E+0	1.214239E+0	1.204883E+0	1.216294E+0	1.284944E+0	1.231296E+0	1.171114E+0	1.300264E+0	1.311972E+0	1.233339E+0	1.179964E+0	1.204225E+0	1.178404E+0	1.255533E+0	1.172695E+0	1.283191E+0	1.175849E+0	1.274648E+0	1.220939E+0	1.203266E+0	1.286736E+0	1.245860E+0	1.256075E+0	1.288338E+0	1.302102E+0	1.206354E+0	1.250511E+0	1.245433E+0	1.174430E+0	1.307742E+0	1.245872E+0	1.246165E+0	1.216309E+0	1.194845E+0	1.226765E+0	1.219546E+0	1.215907E+0	1.254648E+0	1.218572E+0	1.132333E+0	1.220032E+0	1.220734E+0	1.245721E+0	1.198481E+0	1.202136E+0	1.252029E+0	1.257985E+0	1.195316E+0	1.185422E+0	1.240481E+0	1.201931E+0	1.240127E+0	1.239766E+0	1.219357E+0	1.215386E+0	1.238840E+0	1.187690E+0	1.269993E+0	1.233322E+0	1.251738E+0	1.251164E+0	1.208263E+0	1.182947E+0	1.220041E+0	1.174524E+0	1.238658E+0	1.282658E+0	1.201235E+0	1.254208E+0	1.213225E+0	1.232236E+0	1.153925E+0	1.273005E+0	1.259091E+0	1.211746E+0	1.254652E+0	1.208141E+0	1.223008E+0	1.276930E+0	1.202110E+0	1.225230E+0	1.285600E+0	1.188646E+0	1.250770E+0	1.269380E+0	1.273800E+0	1.243819E+0	1.251087E+0	1.230103E+0	1.274106E+0	1.291661E+0	1.235280E+0	1.231682E+0	1.259574E+0	1.221638E+0	1.263002E+0	1.323398E+0	1.256845E+0	1.198450E+0	1.234554E+0	1.237465E+0	1.198058E+0	1.221000E+0	1.272335E+0	1.294409E+0	1.247661E+0	1.211872E+0	1.298763E+0	1.227637E+0	1.230595E+0	1.188585E+0	1.276064E+0	1.187236E+0	1.243561E+0	1.263350E+0	1.178582E+0	1.192740E+0	1.174763E+0	1.284787E+0	1.277461E+0	1.253963E+0	1.232131E+0	1.214967E+0	1.267432E+0	1.240384E+0	1.266093E+0	1.247336E+0	1.164460E+0	1.105036E+0
2.849010E+2	1.520682E+0	1.482361E+0	1.481323E+0	1.545501E+0	1.500338E+0	1.570799E+0	1.526286E+0	1.533754E+0	1.562354E+0	1.523065E+0	1.520189E+0	1.559546E+0	1.504286E+0	1.567172E+0	1.565269E+0	1.625381E+0	1.455905E+0	1.559286E+0	1.544111E+0	1.570728E+0	1.494380E+0	1.601063E+0	1.609246E+0	1.488211E+0	1.561902E+0	1.542622E+0	1.493315E+0	1.470839E+0	1.528514E+0	1.517958E+0	1.563749E+0	1.528513E+0	1.571065E+0	1.534297E+0	1.569545E+0	1.562455E+0	1.599671E+0	1.599917E+0	1.484479E+0	1.518047E+0	1.488397E+0	1.551882E+0	1.474739E+0	1.592062E+0	1.494031E+0	1.558687E+0	1.562975E+0	1.568890E+0	1.567888E+0	1.497968E+0	1.476075E+0	1.542793E+0	1.592757E+0	1.529097E+0	1.568705E+0	1.539630E+0	1.563359E+0	1.616432E+0	1.492283E+0	1.526567E+0	1.563878E+0	1.521760E+0	1.480085E+0	1.568552E+0	1.497031E+0	1.588608E+0	1.545578E+0	1.499528E+0	1.550143E+0	1.538596E+0	1.504557E+0	1.516659E+0	1.591269E+0	1.532408E+0	1.614187E+0	1.545076E+0	1.503382E+0	1.522866E+0	1.599252E+0	1.553313E+0	1.558030E+0	1.548332E+0	1.567488E+0	1.566193E+0	1.602033E+0	1.521840E+0	1.521565E+0	1.535117E+0	1.529948E+0	1.515938E+0	1.552286E+0	1.488933E+0	1.572858E+0	1.556640E+0	1.533086E+0	1.515283E+0	1.548392E+0	1.607827E+0	1.571216E+0	1.504464E+0	1.562834E+0	1.539589E+0	1.520158E+0	1.475541E+0	1.488651E+0	1.612227E+0	1.608992E+0	1.422249E+0	1.598403E+0	1.568118E+0	1.575483E+0	1.591218E+0	1.520065E+0	1.478042E+0	1.558436E+0	1.559742E+0	1.562286E+0	1.588897E+0	1.517240E+0	1.561175E+0	1.509932E+0	1.567046E+0	1.574724E+0	1.535739E+0	1.525871E+0	1.493997E+0	1.637925E+0	1.562995E+0	1.606799E+0	1.468822E+0	1.532895E+0	1.510943E+0	1.552764E+0	1.502490E+0	1.567982E+0	1.554606E+0	1.526364E+0	1.513832E+0	1.596234E+0	1.542613E+0	1.538402E+0	1.530715E+0	1.599566E+0	1.588223E+0	1.534546E+0	1.537599E+0	1.483575E+0	1.534354E+0	1.542917E+0	1.613652E+0	1.587027E+0	1.484749E+0	1.596970E+0	1.492766E+0	1.522206E+0	1.580401E+0	1.527104E+0	1.546649E+0	1.556958E+0	1.558877E+0	1.491274E+0	1.509888E+0	1.502366E+0	1.550198E+0	1.558275E+0	1.569060E+0	1.517472E+0	1.560295E+0	1.553797E+0	1.545270E+0	1.542239E+0	1.532143E+0
2.850030E+2	1.586275E+0	1.485156E+0	1.576477E+0	1.555051E+0	1.514591E+0	1.506352E+0	1.495142E+0	1.571238E+0	1.545330E+0	1.522697E+0	1.557062E+0	1.532827E+0	1.475264E+0	1.484313E+0	1.507969E+0	1.558473E+0	1.502046E+0	1.577917E+0	1.503870E+0	1.607755E+0	1.484091E+0	1.530010E+0	1.569266E+0	1.531657E+0	1.546715E+0	1.525824E+0	1.514002E+0	1.539456E+0	1.489906E+0	1.462078E+0	1.488034E+0	1.536180E+0	1.510338E+0	1.461442E+0	1.454013E+0	1.541811E+0	1.554231E+0	1.582852E+0	1.566006E+0	1.529348E+0	1.482067E+0	1.552137E+0	1.552533E+0	1.598655E+0	1.586105E+0	1.483945E+0	1.490516E+0	1.510677E+0	1.610359E+0	1.513932E+0	1.523886E+0	1.664734E+0	1.530118E+0	1.583320E+0	1.504726E+0	1.514289E+0	1.571317E+0	1.548170E+0	1.455016E+0	1.529836E+0	1.481837E+0	1.543215E+0	1.559610E+0	1.515958E+0	1.523915E+0	1.533352E+0	1.538514E+0	1.613846E+0	1.549073E+0	1.628628E+0	1.508096E+0	1.526719E+0	1.559537E+0	1.567384E+0	1.445472E+0	1.495847E+0	1.535341E+0	1.485541E+0	1.599913E+0	1.529532E+0	1.546938E+0	1.533378E+0	1.573510E+0	1.530968E+0	1.514539E+0	1.520643E+0	1.540066E+0	1.473373E+0	1.480200E+0	1.522857E+0	1.580267E+0	1.446995E+0	1.583204E+0	1.510724E+0	1.519947E+0	1.574549E+0	1.504982E+0	1.525363E+0	1.475112E+0	1.590982E+0	1.561614E+0	1.588872E+0	1.664591E+0	1.532497E+0	1.488687E+0	1.496066E+0	1.536403E+0	1.525900E+0	1.516467E+0	1.531995E+0	1.571372E+0	1.544106E+0	1.505281E+0	1.465307E+0	1.562706E+0	1.542270E+0	1.591405E+0	1.488312E+0	1.614699E+0	1.523365E+0	1.524593E+0	1.529706E+0	1.578945E+0	1.503300E+0	1.484120E+0	1.569853E+0	1.516226E+0	1.551616E+0	1.504902E+0	1.476513E+0	1.479736E+0	1.607142E+0	1.544465E+0	1.596911E+0	1.564121E+0	1.472875E+0	1.486154E+0	1.484562E+0	1.503666E+0	1.459654E+0	1.463155E+0	1.569134E+0	1.526485E+0	1.529917E+0	1.524305E+0	1.539997E+0	1.546587E+0	1.582060E+0	1.569321E+0	1.609311E+0	1.514364E+0	1.518555E+0	1.581679E+0	1.555476E+0	1.525383E+0	1.543678E+0	1.525372E+0	1.532940E+0	1.545057E+0	1.502837E+0	1.527916E+0	1.545953E+0	1.553942E+0	1.517045E+0	1.501910E+0	1.567652E+0	1.557708E+0	1.536341E+0	1.521840E+0	1.444494E+0	1.510144E+0	1.469997E+0
2.851000E+2	1.335807E+0	1.357509E+0	1.322222E+0	1.364262E+0	1.342207E+0	1.382744E+0	1.377977E+0	1.367676E+0	1.439769E+0	1.333091E+0	1.376235E+0	1.372490E+0	1.333749E+0	1.337088E+0	1.312854E+0	1.385200E+0	1.368374E+0	1.387651E+0	1.348644E+0	1.310673E+0	1.352872E+0	1.389589E+0	1.407964E+0	1.304622E+0	1.402601E+0	1.348689E+0	1.384877E+0	1.411032E+0	1.407565E+0	1.393123E+0	1.385941E+0	1.328172E+0	1.355818E+0	1.405594E+0	1.325837E+0	1.376197E+0	1.316060E+0	1.425279E+0	1.366383E+0	1.326579E+0	1.354214E+0	1.405472E+0	1.382232E+0	1.453631E+0	1.369161E+0	1.350275E+0	1.394004E+0	1.460232E+0	1.359175E+0	1.423712E+0	1.347075E+0	1.406115E+0	1.397351E+0	1.374953E+0	1.294993E+0	1.313652E+0	1.434948E+0	1.377913E+0	1.448282E+0	1.403197E+0	1.388663E+0	1.359600E+0	1.332684E+0	1.419723E+0	1.310339E+0	1.343984E+0	1.414187E+0	1.344764E+0	1.360146E+0	1.331298E+0	1.348789E+0	1.329787E+0	1.350115E+0	1.384767E+0	1.406805E+0	1.328897E+0	1.316246E+0	1.388861E+0	1.330754E+0	1.364158E+0	1.364120E+0	1.393939E+0	1.378946E+0	1.418958E+0	1.334915E+0	1.363744E+0	1.328119E+0	1.297395E+0	1.323085E+0	1.421440E+0	1.350978E+0	1.345200E+0	1.358704E+0	1.316145E+0	1.322367E+0	1.372015E+0	1.352054E+0	1.388898E+0	1.301149E+0	1.326563E+0	1.449044E+0	1.361289E+0	1.375180E+0	1.365860E+0	1.432632E+0	1.378602E+0	1.372961E+0	1.292980E+0	1.350695E+0	1.334202E+0	1.374795E+0	1.394813E+0	1.330355E+0	1.330721E+0	1.327865E+0	1.406931E+0	1.398962E+0	1.347187E+0	1.387266E+0	1.338164E+0	1.388724E+0	1.349662E+0	1.380917E+0	1.383380E+0	1.427006E+0	1.386121E+0	1.386948E+0	1.396337E+0	1.364073E+0	1.302776E+0	1.359217E+0	1.378700E+0	1.474168E+0	1.390853E+0	1.324551E+0	1.337264E+0	1.346708E+0	1.357254E+0	1.402335E+0	1.371278E+0	1.344146E+0	1.452691E+0	1.453696E+0	1.383893E+0	1.356078E+0	1.308832E+0	1.323112E+0	1.360093E+0	1.375521E+0	1.378938E+0	1.388910E+0	1.363369E+0	1.379908E+0	1.440099E+0	1.400995E+0	1.318466E+0	1.371131E+0	1.389151E+0	1.348646E+0	1.352950E+0	1.359476E+0	1.365530E+0	1.329732E+0	1.381945E+0	1.409139E+0	1.314283E+0	1.399497E+0	1.341093E+0	1.282592E+0	1.438769E+0	1.296710E+0	1.215756E+0
2.852010E+2	1.124773E+0	1.056706E+0	1.056913E+0	1.060500E+0	1.059169E+0	1.088678E+0	1.085075E+0	1.056676E+0	1.056362E+0	1.003837E+0	1.091249E+0	1.055843E+0	1.067912E+0	1.091264E+0	1.052837E+0	1.073767E+0	1.060643E+0	1.084514E+0	1.052874E+0	1.073150E+0	1.143059E+0	1.144215E+0	1.030761E+0	1.049532E+0	1.132026E+0	1.053899E+0	1.005929E+0	1.085445E+0	1.021692E+0	1.027400E+0	1.078968E+0	1.040482E+0	1.023629E+0	1.098116E+0	1.108700E+0	1.084644E+0	1.064212E+0	1.107140E+0	1.063487E+0	1.040204E+0	1.060152E+0	1.040377E+0	1.095190E+0	1.076621E+0	1.082907E+0	1.048456E+0	1.092319E+0	1.057841E+0	1.151972E+0	1.115175E+0	1.085288E+0	1.117191E+0	1.083950E+0	1.030804E+0	1.062438E+0	1.082154E+0	1.117151E+0	1.075268E+0	1.029293E+0	1.044137E+0	1.113943E+0	1.115979E+0	1.065250E+0	1.098019E+0	1.097591E+0	1.094612E+0	1.034053E+0	1.115233E+0	1.133819E+0	1.090885E+0	1.059090E+0	1.049388E+0	1.089203E+0	1.097680E+0	1.019390E+0	1.040229E+0	1.115278E+0	1.083749E+0	1.091117E+0	9.976281E-1	1.064357E+0	1.124108E+0	1.072086E+0	1.102118E+0	1.130274E+0	1.086534E+0	1.086428E+0	1.071967E+0	1.100381E+0	1.059432E+0	1.079712E+0	1.021276E+0	1.094765E+0	1.009756E+0	1.079363E+0	1.133260E+0	1.106588E+0	1.088260E+0	1.060147E+0	1.018308E+0	1.102148E+0	1.081991E+0	1.078815E+0	1.048758E+0	1.034922E+0	1.087603E+0	1.084989E+0	9.715676E-1	1.039618E+0	1.070252E+0	1.052050E+0	1.089719E+0	1.076662E+0	1.070028E+0	1.083392E+0	1.109284E+0	1.117948E+0	1.083659E+0	1.131249E+0	1.034220E+0	1.090116E+0	1.087180E+0	1.092117E+0	1.068607E+0	1.066959E+0	1.121083E+0	1.039723E+0	1.106560E+0	1.081698E+0	1.083197E+0	1.113609E+0	1.100017E+0	1.112874E+0	1.127836E+0	1.043875E+0	1.070836E+0	1.088457E+0	1.083976E+0	1.093680E+0	1.046225E+0	1.102327E+0	1.106949E+0	1.128501E+0	1.141766E+0	1.097655E+0	1.038779E+0	1.089198E+0	1.075082E+0	1.028090E+0	1.172370E+0	1.152972E+0	1.098778E+0	1.094764E+0	1.104653E+0	1.118251E+0	1.060707E+0	1.093771E+0	1.068469E+0	1.096554E+0	1.038105E+0	1.104219E+0	1.108656E+0	1.084979E+0	1.113443E+0	1.084321E+0	1.085622E+0	1.085208E+0	1.038836E+0	1.161681E+0	1.072887E+0	1.110500E+0	1.202312E+0
2.853000E+2	9.052219E-1	9.084797E-1	8.788065E-1	9.344421E-1	9.008724E-1	9.609942E-1	9.144001E-1	8.791843E-1	9.289141E-1	8.926315E-1	9.296831E-1	8.937043E-1	9.263838E-1	9.254211E-1	8.917938E-1	8.968423E-1	9.690968E-1	8.672643E-1	8.771902E-1	9.535591E-1	9.629344E-1	9.398021E-1	8.778123E-1	8.776874E-1	8.881344E-1	9.061962E-1	8.344964E-1	8.834923E-1	8.849461E-1	8.452414E-1	9.259451E-1	8.629678E-1	8.765151E-1	8.538790E-1	8.456612E-1	8.477281E-1	8.925916E-1	9.073996E-1	8.963856E-1	9.460924E-1	9.523319E-1	9.034104E-1	9.154697E-1	8.918779E-1	8.923378E-1	9.149233E-1	9.447041E-1	9.015089E-1	9.515161E-1	8.622062E-1	9.294005E-1	9.013580E-1	9.137486E-1	9.407198E-1	8.811669E-1	9.233717E-1	9.685372E-1	8.611213E-1	9.275071E-1	8.501531E-1	9.751224E-1	8.902559E-1	8.903730E-1	8.769483E-1	9.540596E-1	9.210205E-1	8.975177E-1	9.322128E-1	8.637357E-1	8.468424E-1	8.963456E-1	8.187904E-1	9.038405E-1	8.973123E-1	9.231239E-1	8.869823E-1	9.050249E-1	9.281142E-1	9.030574E-1	8.979473E-1	8.588846E-1	8.916488E-1	9.192448E-1	9.094501E-1	9.540818E-1	9.355843E-1	9.030931E-1	9.621519E-1	8.633876E-1	8.796380E-1	9.218648E-1	9.093331E-1	8.966171E-1	9.131332E-1	8.998212E-1	9.489026E-1	8.905566E-1	9.372703E-1	9.187843E-1	8.985936E-1	8.982958E-1	9.538008E-1	8.809227E-1	9.141314E-1	8.899431E-1	9.136018E-1	9.886602E-1	8.367445E-1	9.083693E-1	9.173506E-1	8.921208E-1	9.087923E-1	9.118094E-1	9.582924E-1	9.543582E-1	9.773442E-1	9.624088E-1	9.073739E-1	9.220606E-1	9.076128E-1	8.878677E-1	9.037409E-1	9.492230E-1	8.945627E-1	8.913287E-1	8.729760E-1	9.259084E-1	9.765473E-1	9.168238E-1	9.100165E-1	9.385494E-1	9.353756E-1	9.198783E-1	9.759973E-1	8.628194E-1	8.962271E-1	9.190875E-1	8.917631E-1	8.860028E-1	8.746819E-1	8.893661E-1	9.466924E-1	9.460245E-1	9.916107E-1	9.278072E-1	9.194703E-1	9.259926E-1	9.648392E-1	8.850483E-1	9.719386E-1	9.654258E-1	9.056077E-1	9.006330E-1	8.927331E-1	9.149311E-1	9.160927E-1	8.740441E-1	8.630334E-1	9.429556E-1	9.103813E-1	9.335661E-1	8.965898E-1	9.578278E-1	8.521790E-1	9.676503E-1	9.425819E-1	9.235648E-1	9.406522E-1	9.727379E-1	9.295160E-1	8.626831E-1	9.162316E-1
2.854010E+2	7.605343E-1	6.664648E-1	7.047241E-1	7.233577E-1	7.040814E-1	7.683988E-1	6.626903E-1	7.479470E-1	7.465460E-1	7.239551E-1	7.347519E-1	7.078521E-1	7.343368E-1	6.804326E-1	7.642059E-1	7.558467E-1	7.184912E-1	7.279157E-1	7.701198E-1	7.800219E-1	7.305078E-1	7.409998E-1	7.473173E-1	7.691483E-1	7.246107E-1	7.517467E-1	7.781269E-1	7.214318E-1	7.595656E-1	7.389093E-1	7.207932E-1	6.926176E-1	7.375598E-1	6.773892E-1	7.348228E-1	7.525563E-1	7.325296E-1	7.668748E-1	7.682824E-1	7.139592E-1	7.484653E-1	7.258679E-1	7.499568E-1	7.394301E-1	7.059429E-1	7.383967E-1	7.492098E-1	7.223333E-1	8.219547E-1	7.344937E-1	7.985034E-1	7.320811E-1	7.200362E-1	7.336304E-1	7.353876E-1	7.327012E-1	7.269019E-1	7.646907E-1	7.526364E-1	7.170241E-1	7.073972E-1	7.465903E-1	7.652826E-1	7.036137E-1	7.488931E-1	8.036711E-1	7.800269E-1	7.462984E-1	7.751043E-1	7.284640E-1	7.494531E-1	6.989479E-1	7.725941E-1	7.553640E-1	7.519866E-1	7.336993E-1	7.335155E-1	7.171597E-1	7.189516E-1	7.417014E-1	7.686980E-1	7.297505E-1	7.103708E-1	7.319410E-1	7.442567E-1	7.106393E-1	7.433286E-1	7.263984E-1	7.520665E-1	7.227763E-1	7.501551E-1	7.667678E-1	7.435049E-1	7.412687E-1	7.063898E-1	7.816939E-1	7.288546E-1	7.624607E-1	7.624478E-1	7.172780E-1	7.806961E-1	7.459109E-1	8.017770E-1	7.859120E-1	7.557255E-1	7.590753E-1	8.051941E-1	7.125921E-1	7.153204E-1	7.702523E-1	7.600465E-1	7.385879E-1	7.625094E-1	7.067261E-1	7.278407E-1	7.635778E-1	7.550357E-1	7.590378E-1	7.639297E-1	7.554025E-1	7.451941E-1	7.614224E-1	7.521244E-1	7.358306E-1	7.072679E-1	6.895968E-1	7.538509E-1	7.582990E-1	7.271484E-1	7.356202E-1	7.322798E-1	7.371687E-1	7.379503E-1	7.867465E-1	7.149555E-1	7.291848E-1	7.390858E-1	7.647025E-1	7.597536E-1	7.251086E-1	7.787326E-1	7.300179E-1	7.521442E-1	7.286376E-1	7.830832E-1	7.553239E-1	8.294052E-1	7.445455E-1	7.679711E-1	8.204447E-1	7.643273E-1	7.493217E-1	7.810551E-1	8.188383E-1	7.724357E-1	7.771533E-1	7.612065E-1	7.666451E-1	7.527163E-1	7.734055E-1	7.552973E-1	7.653315E-1	7.540900E-1	8.000664E-1	7.986853E-1	7.570388E-1	7.831745E-1	7.603321E-1	7.826137E-1	7.599326E-1	7.756695E-1	7.040501E-1
2.855000E+2	5.806231E-1	5.626556E-1	5.876351E-1	6.134985E-1	5.603074E-1	5.538827E-1	5.673241E-1	5.422496E-1	5.511942E-1	5.792236E-1	5.765739E-1	5.751226E-1	5.845933E-1	5.900485E-1	5.555912E-1	5.736934E-1	6.037682E-1	5.165188E-1	5.754509E-1	5.962634E-1	6.149431E-1	6.119606E-1	5.493972E-1	5.540601E-1	5.859036E-1	5.701656E-1	5.372206E-1	5.505348E-1	5.786298E-1	5.661756E-1	5.742206E-1	5.697764E-1	6.000464E-1	5.141693E-1	5.586110E-1	6.062880E-1	6.032204E-1	5.651694E-1	5.959631E-1	5.750787E-1	5.680171E-1	5.752770E-1	5.664129E-1	6.059156E-1	5.642552E-1	5.743196E-1	5.562406E-1	5.699910E-1	6.045955E-1	5.355269E-1	5.500299E-1	5.815117E-1	5.979906E-1	5.674320E-1	5.886104E-1	5.679277E-1	5.713897E-1	5.843546E-1	5.796253E-1	5.520482E-1	5.568580E-1	5.587376E-1	6.063520E-1	6.036342E-1	5.902471E-1	6.155232E-1	6.056150E-1	6.103905E-1	5.449441E-1	5.880389E-1	5.963526E-1	5.702884E-1	5.985710E-1	6.047987E-1	5.797898E-1	5.739592E-1	5.655848E-1	5.528337E-1	5.511702E-1	5.856245E-1	6.142296E-1	5.449635E-1	5.716673E-1	5.977274E-1	5.754158E-1	5.560568E-1	5.968858E-1	5.518535E-1	5.776749E-1	5.867049E-1	5.678188E-1	5.561915E-1	5.821105E-1	5.602175E-1	6.418952E-1	5.305516E-1	6.292955E-1	6.080864E-1	5.844497E-1	5.828640E-1	5.888872E-1	5.831553E-1	5.863795E-1	5.453000E-1	5.665206E-1	5.937170E-1	6.077377E-1	5.496273E-1	6.039131E-1	5.524645E-1	5.630960E-1	5.923839E-1	5.761787E-1	5.804556E-1	6.193730E-1	5.255706E-1	6.285636E-1	6.267849E-1	6.052472E-1	5.937117E-1	5.847267E-1	5.806226E-1	5.625103E-1	5.618524E-1	5.574718E-1	5.936606E-1	5.860440E-1	5.989414E-1	5.988612E-1	6.327451E-1	5.963129E-1	5.886953E-1	6.075869E-1	6.068673E-1	6.043384E-1	5.975847E-1	5.319543E-1	6.042774E-1	6.104917E-1	5.760767E-1	5.982224E-1	5.807680E-1	6.043362E-1	5.807779E-1	5.923034E-1	6.112032E-1	5.618764E-1	5.797179E-1	6.194188E-1	6.299105E-1	6.035559E-1	5.821857E-1	6.253750E-1	6.505626E-1	6.053204E-1	5.769440E-1	5.980653E-1	5.784628E-1	6.036690E-1	6.048542E-1	5.817014E-1	5.983017E-1	5.984610E-1	5.915031E-1	6.231352E-1	5.763121E-1	5.648159E-1	5.739115E-1	6.023154E-1	5.295532E-1	5.840501E-1	5.784860E-1
2.856010E+2	4.226324E-1	4.005831E-1	4.353267E-1	4.103954E-1	4.514665E-1	4.297966E-1	4.435429E-1	4.263440E-1	4.038848E-1	4.313017E-1	4.470306E-1	4.368657E-1	4.282071E-1	4.203382E-1	4.740326E-1	4.249416E-1	4.614192E-1	4.570717E-1	4.711058E-1	4.611563E-1	4.260600E-1	4.289650E-1	4.358633E-1	4.122920E-1	4.408446E-1	4.431134E-1	4.132251E-1	4.337360E-1	4.440633E-1	4.218322E-1	4.444241E-1	4.346016E-1	4.457457E-1	4.329989E-1	4.237829E-1	4.641769E-1	4.341077E-1	4.379875E-1	4.499226E-1	4.037073E-1	4.650131E-1	4.283443E-1	4.353173E-1	4.261626E-1	4.352662E-1	4.129174E-1	4.148177E-1	4.165074E-1	4.642322E-1	4.296614E-1	4.296219E-1	4.400334E-1	4.240512E-1	3.979368E-1	4.052697E-1	4.243939E-1	4.631758E-1	4.441208E-1	4.319914E-1	4.369226E-1	4.664863E-1	4.645309E-1	4.183448E-1	4.155495E-1	4.543769E-1	4.418514E-1	4.139170E-1	4.248701E-1	4.339640E-1	4.360235E-1	4.128664E-1	4.379925E-1	4.662312E-1	4.663147E-1	4.441198E-1	4.310673E-1	4.102244E-1	4.298815E-1	4.708221E-1	4.518408E-1	4.326503E-1	4.223711E-1	4.552170E-1	4.547335E-1	4.432292E-1	4.182452E-1	4.267931E-1	4.254495E-1	3.979097E-1	4.482944E-1	4.551662E-1	4.267543E-1	4.745001E-1	4.705102E-1	4.375202E-1	4.391672E-1	4.360269E-1	4.256198E-1	4.250282E-1	4.551815E-1	4.482116E-1	4.217112E-1	4.259986E-1	4.016112E-1	4.380793E-1	4.197676E-1	4.247930E-1	4.224537E-1	4.553673E-1	4.315597E-1	4.145732E-1	4.343268E-1	4.411726E-1	4.271170E-1	4.045506E-1	4.271470E-1	4.761762E-1	4.464023E-1	4.512487E-1	4.253076E-1	4.127983E-1	4.222791E-1	4.481410E-1	4.457101E-1	4.159624E-1	4.197396E-1	4.805760E-1	4.477028E-1	4.545345E-1	4.146229E-1	4.443719E-1	4.179113E-1	4.652415E-1	4.323499E-1	4.297297E-1	4.284293E-1	4.122684E-1	4.319860E-1	4.336167E-1	4.340954E-1	4.618501E-1	4.293179E-1	4.810547E-1	4.365574E-1	4.202945E-1	4.285548E-1	4.165945E-1	4.158972E-1	4.398097E-1	4.504599E-1	4.389926E-1	4.596398E-1	4.741867E-1	4.472560E-1	4.440488E-1	4.412916E-1	4.476390E-1	4.606910E-1	4.535223E-1	4.288415E-1	4.407658E-1	4.690100E-1	4.532418E-1	4.585473E-1	4.475269E-1	4.512957E-1	4.302737E-1	4.143115E-1	4.536369E-1	3.817125E-1	4.519345E-1	4.237857E-1
2.858030E+2	4.893731E-1	5.154217E-1	4.852771E-1	4.882432E-1	4.648714E-1	5.319536E-1	4.893135E-1	5.021459E-1	5.291880E-1	4.590307E-1	5.082358E-1	4.626629E-1	5.110603E-1	4.705928E-1	5.071899E-1	4.943543E-1	4.714933E-1	5.079039E-1	4.669272E-1	5.313682E-1	5.287746E-1	5.163806E-1	5.141150E-1	5.026722E-1	5.111144E-1	4.838894E-1	5.028224E-1	4.841377E-1	4.992044E-1	5.399432E-1	4.984170E-1	4.756585E-1	5.404327E-1	5.331063E-1	4.561029E-1	5.102447E-1	5.147759E-1	5.168269E-1	4.855311E-1	5.177232E-1	5.375070E-1	5.120946E-1	4.317989E-1	4.678913E-1	4.944440E-1	5.193035E-1	5.001029E-1	5.013558E-1	5.479226E-1	4.747915E-1	5.055006E-1	4.921029E-1	5.060942E-1	5.224741E-1	4.881391E-1	4.886308E-1	5.228326E-1	5.706130E-1	5.037656E-1	5.097510E-1	5.119627E-1	4.630369E-1	5.131026E-1	5.521282E-1	5.135545E-1	5.231084E-1	5.219742E-1	4.808795E-1	4.827905E-1	5.282766E-1	4.868759E-1	4.973394E-1	4.959455E-1	5.056785E-1	4.685452E-1	5.172366E-1	5.128582E-1	4.981429E-1	4.760647E-1	4.815793E-1	5.678884E-1	5.126252E-1	4.974782E-1	4.796770E-1	5.019346E-1	4.870587E-1	5.333297E-1	5.030656E-1	4.872030E-1	5.272752E-1	5.305734E-1	4.559059E-1	4.798660E-1	4.961506E-1	4.998713E-1	4.864357E-1	5.034885E-1	4.930734E-1	5.170504E-1	4.749115E-1	5.193308E-1	5.300599E-1	5.336434E-1	5.078476E-1	4.612230E-1	4.875974E-1	4.683210E-1	4.610748E-1	5.236652E-1	5.313255E-1	5.143353E-1	5.116926E-1	5.388338E-1	4.721949E-1	4.653499E-1	5.264078E-1	5.525112E-1	4.793962E-1	4.952108E-1	4.756837E-1	5.007651E-1	5.348393E-1	5.311866E-1	5.171110E-1	4.933477E-1	5.337121E-1	5.550261E-1	4.702786E-1	5.113343E-1	4.861854E-1	4.998085E-1	5.204839E-1	5.434476E-1	5.491432E-1	5.264356E-1	4.684399E-1	5.118023E-1	4.883084E-1	4.992478E-1	5.013382E-1	4.926980E-1	5.229690E-1	5.534745E-1	5.054467E-1	4.858381E-1	5.145569E-1	5.138442E-1	5.244932E-1	5.713754E-1	5.165243E-1	5.308134E-1	4.570657E-1	4.792713E-1	5.060375E-1	5.316193E-1	5.134577E-1	5.297817E-1	5.077392E-1	5.277918E-1	4.900521E-1	5.177097E-1	6.039483E-1	4.977450E-1	4.872475E-1	5.379561E-1	4.967721E-1	5.709444E-1	4.906459E-1	5.322786E-1	5.145529E-1	5.945617E-1	5.272558E-1
2.860020E+2	8.931156E-1	9.129823E-1	9.493916E-1	8.893667E-1	8.817798E-1	9.017822E-1	9.257207E-1	8.963201E-1	9.195744E-1	9.143922E-1	9.326292E-1	8.959540E-1	9.169928E-1	9.090989E-1	9.256300E-1	9.010830E-1	9.111787E-1	8.651480E-1	9.217337E-1	9.467834E-1	9.683816E-1	9.368552E-1	9.070361E-1	8.946047E-1	9.364829E-1	9.258640E-1	9.316140E-1	8.935257E-1	9.079707E-1	8.872789E-1	9.254860E-1	8.752376E-1	9.548481E-1	8.416049E-1	8.785061E-1	9.082310E-1	8.891115E-1	9.081591E-1	9.674768E-1	8.738937E-1	9.860448E-1	9.277952E-1	8.831183E-1	9.202345E-1	8.615827E-1	8.724415E-1	9.328870E-1	9.654515E-1	9.099567E-1	8.995464E-1	9.877332E-1	9.138250E-1	9.203127E-1	8.780398E-1	9.198649E-1	9.111549E-1	9.916024E-1	9.074125E-1	8.737371E-1	9.207185E-1	9.381286E-1	9.124405E-1	9.090247E-1	9.578828E-1	9.389776E-1	9.011956E-1	9.699755E-1	9.604545E-1	9.220992E-1	9.060557E-1	8.731862E-1	8.879205E-1	8.862894E-1	9.207393E-1	9.162832E-1	9.066325E-1	9.171742E-1	8.973379E-1	9.345571E-1	8.674844E-1	8.920075E-1	9.348727E-1	9.036200E-1	9.421861E-1	8.882593E-1	9.144709E-1	8.940543E-1	9.235338E-1	8.604809E-1	8.812363E-1	9.152935E-1	8.874334E-1	9.489180E-1	9.454941E-1	9.363850E-1	8.894717E-1	8.586892E-1	9.066829E-1	8.445737E-1	8.952054E-1	9.244882E-1	9.042233E-1	1.030081E+0	9.483027E-1	9.040935E-1	8.923828E-1	9.015082E-1	8.856716E-1	8.772040E-1	9.345111E-1	8.644196E-1	9.226827E-1	8.883253E-1	8.490773E-1	9.513014E-1	9.158832E-1	9.071233E-1	8.957246E-1	9.155677E-1	8.948969E-1	9.517183E-1	9.168905E-1	8.980516E-1	8.953332E-1	9.386296E-1	9.059439E-1	9.153954E-1	9.132174E-1	9.386004E-1	8.778245E-1	9.009621E-1	9.381550E-1	9.223737E-1	9.610340E-1	9.336925E-1	9.339956E-1	9.336041E-1	9.277416E-1	8.741752E-1	8.917338E-1	9.501957E-1	9.303971E-1	9.109356E-1	9.518812E-1	9.051849E-1	9.020167E-1	8.752868E-1	9.059692E-1	9.104759E-1	9.067443E-1	9.179801E-1	9.058790E-1	8.979200E-1	9.204267E-1	9.549108E-1	9.317006E-1	9.352326E-1	8.783566E-1	9.177145E-1	9.085072E-1	8.991611E-1	9.596552E-1	9.546812E-1	8.881442E-1	9.316596E-1	9.128278E-1	9.096494E-1	9.040429E-1	9.087067E-1	9.394767E-1	9.757293E-1	9.151598E-1
2.862050E+2	1.243804E+0	1.278562E+0	1.293469E+0	1.360798E+0	1.288652E+0	1.317523E+0	1.251695E+0	1.304632E+0	1.266133E+0	1.276670E+0	1.265033E+0	1.231119E+0	1.309159E+0	1.281769E+0	1.292935E+0	1.315999E+0	1.281242E+0	1.283239E+0	1.258627E+0	1.328352E+0	1.259176E+0	1.284227E+0	1.278003E+0	1.333197E+0	1.307263E+0	1.269502E+0	1.248819E+0	1.151052E+0	1.239714E+0	1.299441E+0	1.300304E+0	1.252434E+0	1.319709E+0	1.219957E+0	1.271652E+0	1.188113E+0	1.281386E+0	1.343219E+0	1.284934E+0	1.342911E+0	1.341709E+0	1.289213E+0	1.263881E+0	1.273104E+0	1.260680E+0	1.199860E+0	1.297779E+0	1.298819E+0	1.324150E+0	1.247676E+0	1.327068E+0	1.277796E+0	1.278630E+0	1.202013E+0	1.272556E+0	1.243625E+0	1.320579E+0	1.290399E+0	1.293336E+0	1.256826E+0	1.376526E+0	1.271087E+0	1.284081E+0	1.302535E+0	1.282114E+0	1.271442E+0	1.300474E+0	1.258989E+0	1.257908E+0	1.298347E+0	1.272104E+0	1.283459E+0	1.271100E+0	1.334445E+0	1.238100E+0	1.328375E+0	1.327465E+0	1.329275E+0	1.243512E+0	1.325055E+0	1.332181E+0	1.260594E+0	1.315860E+0	1.272826E+0	1.268917E+0	1.300078E+0	1.269979E+0	1.302249E+0	1.275964E+0	1.255050E+0	1.294861E+0	1.242595E+0	1.323557E+0	1.246609E+0	1.328524E+0	1.271390E+0	1.272152E+0	1.323862E+0	1.303747E+0	1.234454E+0	1.323638E+0	1.315493E+0	1.295137E+0	1.291012E+0	1.272654E+0	1.305794E+0	1.278693E+0	1.271293E+0	1.332105E+0	1.258542E+0	1.319236E+0	1.282255E+0	1.267187E+0	1.205979E+0	1.315596E+0	1.342761E+0	1.321820E+0	1.266996E+0	1.300599E+0	1.331602E+0	1.261332E+0	1.345256E+0	1.312656E+0	1.266615E+0	1.274165E+0	1.233019E+0	1.266759E+0	1.331066E+0	1.320324E+0	1.234026E+0	1.305416E+0	1.269823E+0	1.311476E+0	1.287602E+0	1.300219E+0	1.297478E+0	1.336555E+0	1.371423E+0	1.258596E+0	1.197709E+0	1.291359E+0	1.305855E+0	1.286603E+0	1.258828E+0	1.279487E+0	1.182203E+0	1.267390E+0	1.299797E+0	1.365228E+0	1.289610E+0	1.246525E+0	1.289909E+0	1.220034E+0	1.240402E+0	1.261231E+0	1.322425E+0	1.282188E+0	1.362143E+0	1.316985E+0	1.282757E+0	1.298493E+0	1.343810E+0	1.338127E+0	1.304762E+0	1.361820E+0	1.294490E+0	1.343204E+0	1.285744E+0	1.276320E+0	1.296500E+0	1.262141E+0	1.224335E+0
2.864160E+2	1.204360E+0	1.165367E+0	1.221080E+0	1.220524E+0	1.199044E+0	1.238461E+0	1.178824E+0	1.214274E+0	1.124275E+0	1.165662E+0	1.234957E+0	1.184057E+0	1.173374E+0	1.194549E+0	1.171662E+0	1.243599E+0	1.167760E+0	1.242064E+0	1.207167E+0	1.264256E+0	1.168897E+0	1.224003E+0	1.201498E+0	1.209924E+0	1.144833E+0	1.210406E+0	1.183260E+0	1.208550E+0	1.124651E+0	1.149450E+0	1.117606E+0	1.179325E+0	1.259648E+0	1.209911E+0	1.144387E+0	1.274817E+0	1.181185E+0	1.266231E+0	1.207223E+0	1.231661E+0	1.218667E+0	1.255058E+0	1.194554E+0	1.197971E+0	1.187227E+0	1.210700E+0	1.224302E+0	1.148663E+0	1.195774E+0	1.207067E+0	1.213860E+0	1.199640E+0	1.241851E+0	1.186508E+0	1.206971E+0	1.177862E+0	1.309559E+0	1.234098E+0	1.200865E+0	1.200897E+0	1.201708E+0	1.197658E+0	1.249286E+0	1.242856E+0	1.237677E+0	1.242860E+0	1.152488E+0	1.171691E+0	1.272947E+0	1.194616E+0	1.214417E+0	1.110630E+0	1.219578E+0	1.211576E+0	1.157146E+0	1.231365E+0	1.178326E+0	1.209805E+0	1.221893E+0	1.166310E+0	1.273066E+0	1.198111E+0	1.217574E+0	1.122177E+0	1.199151E+0	1.203119E+0	1.196164E+0	1.175016E+0	1.236770E+0	1.241288E+0	1.212024E+0	1.214311E+0	1.237965E+0	1.116689E+0	1.202482E+0	1.170555E+0	1.161375E+0	1.257237E+0	1.217284E+0	1.220645E+0	1.227624E+0	1.230739E+0	1.231022E+0	1.225031E+0	1.241628E+0	1.246856E+0	1.169238E+0	1.163699E+0	1.263517E+0	1.152681E+0	1.220318E+0	1.200938E+0	1.244682E+0	1.192012E+0	1.241175E+0	1.175896E+0	1.232484E+0	1.223657E+0	1.197729E+0	1.165766E+0	1.185045E+0	1.168181E+0	1.248689E+0	1.186147E+0	1.188189E+0	1.279892E+0	1.218459E+0	1.220114E+0	1.176412E+0	1.167819E+0	1.199246E+0	1.185326E+0	1.151921E+0	1.205661E+0	1.186154E+0	1.243792E+0	1.253891E+0	1.227874E+0	1.214996E+0	1.138271E+0	1.208042E+0	1.212204E+0	1.231515E+0	1.134879E+0	1.197639E+0	1.173204E+0	1.163671E+0	1.172201E+0	1.225998E+0	1.241292E+0	1.190094E+0	1.205536E+0	1.243242E+0	1.209405E+0	1.220246E+0	1.215213E+0	1.239732E+0	1.216689E+0	1.207739E+0	1.150590E+0	1.213072E+0	1.265386E+0	1.215317E+0	1.193965E+0	1.217524E+0	1.252570E+0	1.208836E+0	1.242370E+0	1.294205E+0	1.189855E+0	1.255449E+0	1.266457E+0
2.866130E+2	1.178177E+0	1.125643E+0	1.222058E+0	1.176103E+0	1.095107E+0	1.186994E+0	1.187718E+0	1.151752E+0	1.142025E+0	1.144306E+0	1.192630E+0	1.158017E+0	1.105557E+0	1.182041E+0	1.187316E+0	1.204409E+0	1.205872E+0	1.225755E+0	1.189495E+0	1.174426E+0	1.181181E+0	1.180006E+0	1.181467E+0	1.169495E+0	1.161941E+0	1.147346E+0	1.106335E+0	1.140189E+0	1.150452E+0	1.156378E+0	1.129769E+0	1.103234E+0	1.196020E+0	1.074244E+0	1.125135E+0	1.140175E+0	1.202745E+0	1.135206E+0	1.199047E+0	1.135741E+0	1.203135E+0	1.139344E+0	1.155348E+0	1.198550E+0	1.130655E+0	1.108341E+0	1.199062E+0	1.160716E+0	1.176918E+0	1.180635E+0	1.161408E+0	1.215026E+0	1.150861E+0	1.191612E+0	1.151217E+0	1.149747E+0	1.244913E+0	1.199322E+0	1.127870E+0	1.131014E+0	1.198782E+0	1.161984E+0	1.168324E+0	1.209167E+0	1.128540E+0	1.171750E+0	1.153828E+0	1.167054E+0	1.234824E+0	1.172553E+0	1.126025E+0	1.079800E+0	1.201326E+0	1.233544E+0	1.104605E+0	1.169824E+0	1.219283E+0	1.113897E+0	1.221213E+0	1.162852E+0	1.191238E+0	1.150959E+0	1.235512E+0	1.173873E+0	1.216087E+0	1.184242E+0	1.156485E+0	1.164474E+0	1.162854E+0	1.157045E+0	1.168302E+0	1.124845E+0	1.188019E+0	1.200586E+0	1.200683E+0	1.173112E+0	1.160903E+0	1.172337E+0	1.209948E+0	1.105337E+0	1.199922E+0	1.145838E+0	1.173238E+0	1.144926E+0	1.113018E+0	1.178034E+0	1.150392E+0	1.154208E+0	1.263065E+0	1.126170E+0	1.190161E+0	1.121168E+0	1.161140E+0	1.161464E+0	1.202121E+0	1.215197E+0	1.172532E+0	1.180443E+0	1.212344E+0	1.138985E+0	1.147488E+0	1.158620E+0	1.128712E+0	1.129646E+0	1.234809E+0	1.153675E+0	1.141752E+0	1.151142E+0	1.247598E+0	1.173019E+0	1.138503E+0	1.162941E+0	1.202182E+0	1.182308E+0	1.147428E+0	1.124570E+0	1.099950E+0	1.118861E+0	1.159534E+0	1.121341E+0	1.163786E+0	1.200656E+0	1.151672E+0	1.157958E+0	1.130812E+0	1.112100E+0	1.151336E+0	1.136854E+0	1.172587E+0	1.254617E+0	1.157774E+0	1.147502E+0	1.198770E+0	1.165442E+0	1.208197E+0	1.132023E+0	1.204316E+0	1.162520E+0	1.157844E+0	1.167487E+0	1.117730E+0	1.223712E+0	1.179609E+0	1.182346E+0	1.149198E+0	1.124000E+0	1.215726E+0	1.115118E+0	1.172042E+0	1.129500E+0	1.108922E+0	1.140412E+0
2.868020E+2	1.504736E+0	1.494891E+0	1.445316E+0	1.487092E+0	1.481462E+0	1.495607E+0	1.370014E+0	1.396620E+0	1.492711E+0	1.462922E+0	1.487283E+0	1.490427E+0	1.497501E+0	1.425482E+0	1.400206E+0	1.446390E+0	1.432497E+0	1.535930E+0	1.533173E+0	1.495498E+0	1.448553E+0	1.517840E+0	1.404872E+0	1.458685E+0	1.444492E+0	1.430260E+0	1.421866E+0	1.472941E+0	1.398783E+0	1.462736E+0	1.473678E+0	1.449171E+0	1.456237E+0	1.479616E+0	1.423099E+0	1.377200E+0	1.437799E+0	1.535830E+0	1.523063E+0	1.416337E+0	1.459154E+0	1.470410E+0	1.463394E+0	1.425285E+0	1.441513E+0	1.437053E+0	1.489826E+0	1.480832E+0	1.425628E+0	1.446885E+0	1.436000E+0	1.513353E+0	1.451658E+0	1.483798E+0	1.407851E+0	1.410726E+0	1.523697E+0	1.486005E+0	1.416149E+0	1.419467E+0	1.426693E+0	1.431586E+0	1.403717E+0	1.501597E+0	1.484018E+0	1.433500E+0	1.475177E+0	1.483675E+0	1.460957E+0	1.414562E+0	1.494906E+0	1.395246E+0	1.452979E+0	1.454842E+0	1.485614E+0	1.453457E+0	1.434495E+0	1.439376E+0	1.503348E+0	1.493604E+0	1.474006E+0	1.471319E+0	1.426178E+0	1.391641E+0	1.517559E+0	1.427853E+0	1.499873E+0	1.456263E+0	1.419006E+0	1.453250E+0	1.484154E+0	1.355719E+0	1.484275E+0	1.427461E+0	1.393512E+0	1.396031E+0	1.428984E+0	1.470707E+0	1.420140E+0	1.447906E+0	1.551973E+0	1.490641E+0	1.518048E+0	1.435676E+0	1.458770E+0	1.443352E+0	1.428112E+0	1.402735E+0	1.454764E+0	1.425849E+0	1.456138E+0	1.434646E+0	1.531227E+0	1.403400E+0	1.491953E+0	1.397833E+0	1.542314E+0	1.492387E+0	1.397243E+0	1.453154E+0	1.440948E+0	1.447733E+0	1.449901E+0	1.392924E+0	1.436718E+0	1.434745E+0	1.474998E+0	1.410953E+0	1.494128E+0	1.493872E+0	1.443501E+0	1.492862E+0	1.461655E+0	1.446516E+0	1.454563E+0	1.405863E+0	1.421633E+0	1.522927E+0	1.534050E+0	1.451992E+0	1.431468E+0	1.481532E+0	1.478599E+0	1.471569E+0	1.430670E+0	1.462747E+0	1.511961E+0	1.516043E+0	1.541796E+0	1.524180E+0	1.531544E+0	1.422910E+0	1.505228E+0	1.479510E+0	1.475907E+0	1.502593E+0	1.440949E+0	1.421263E+0	1.508836E+0	1.371564E+0	1.476606E+0	1.550817E+0	1.470974E+0	1.388842E+0	1.402941E+0	1.458917E+0	1.444568E+0	1.439881E+0	1.501595E+0	1.504509E+0	1.508658E+0	1.446862E+0
2.870070E+2	1.379402E+0	1.307540E+0	1.335281E+0	1.305581E+0	1.328969E+0	1.386740E+0	1.316195E+0	1.376265E+0	1.349098E+0	1.358599E+0	1.378487E+0	1.438713E+0	1.368687E+0	1.394562E+0	1.359549E+0	1.398786E+0	1.358064E+0	1.338396E+0	1.397221E+0	1.446864E+0	1.370544E+0	1.446979E+0	1.393507E+0	1.387824E+0	1.331390E+0	1.395984E+0	1.382057E+0	1.303623E+0	1.282404E+0	1.373215E+0	1.391527E+0	1.289558E+0	1.357044E+0	1.389420E+0	1.315940E+0	1.409002E+0	1.346809E+0	1.416651E+0	1.383428E+0	1.336642E+0	1.400834E+0	1.394015E+0	1.344079E+0	1.441822E+0	1.327697E+0	1.356216E+0	1.375294E+0	1.422618E+0	1.407828E+0	1.360822E+0	1.364210E+0	1.418324E+0	1.389758E+0	1.359454E+0	1.366101E+0	1.344926E+0	1.377095E+0	1.406704E+0	1.316209E+0	1.310442E+0	1.345142E+0	1.291820E+0	1.337886E+0	1.375990E+0	1.406945E+0	1.401267E+0	1.316985E+0	1.366137E+0	1.456136E+0	1.359977E+0	1.366794E+0	1.354317E+0	1.367042E+0	1.389674E+0	1.343360E+0	1.374652E+0	1.396112E+0	1.329073E+0	1.368544E+0	1.338332E+0	1.361572E+0	1.320651E+0	1.388151E+0	1.302138E+0	1.423295E+0	1.407154E+0	1.373363E+0	1.405664E+0	1.376340E+0	1.361271E+0	1.358985E+0	1.320899E+0	1.377797E+0	1.349904E+0	1.383568E+0	1.343619E+0	1.388770E+0	1.458139E+0	1.292942E+0	1.346289E+0	1.442249E+0	1.378901E+0	1.377213E+0	1.361073E+0	1.368630E+0	1.398386E+0	1.274466E+0	1.261217E+0	1.365475E+0	1.332527E+0	1.317442E+0	1.317137E+0	1.387379E+0	1.375053E+0	1.344736E+0	1.387439E+0	1.409744E+0	1.423595E+0	1.337010E+0	1.337804E+0	1.373822E+0	1.343956E+0	1.402236E+0	1.395552E+0	1.315300E+0	1.349852E+0	1.358394E+0	1.357371E+0	1.416548E+0	1.360120E+0	1.424794E+0	1.349209E+0	1.446556E+0	1.385719E+0	1.346162E+0	1.335517E+0	1.457019E+0	1.367106E+0	1.409100E+0	1.314820E+0	1.319947E+0	1.443956E+0	1.433803E+0	1.381186E+0	1.364842E+0	1.289147E+0	1.372164E+0	1.389087E+0	1.365566E+0	1.420375E+0	1.407956E+0	1.370766E+0	1.356653E+0	1.351969E+0	1.381406E+0	1.390440E+0	1.324934E+0	1.397187E+0	1.415882E+0	1.362098E+0	1.423803E+0	1.429878E+0	1.365679E+0	1.409489E+0	1.352969E+0	1.323290E+0	1.375421E+0	1.367859E+0	1.369014E+0	1.416268E+0	1.320599E+0	1.325873E+0
2.872120E+2	1.092305E+0	1.087800E+0	1.090037E+0	1.046911E+0	1.011783E+0	1.060630E+0	1.087552E+0	1.077247E+0	1.048939E+0	1.058300E+0	1.069639E+0	1.057755E+0	1.032675E+0	1.047208E+0	1.023642E+0	1.036827E+0	1.045250E+0	1.057334E+0	1.061761E+0	1.066763E+0	1.055884E+0	1.058061E+0	1.106471E+0	1.021862E+0	1.054823E+0	1.086582E+0	9.853657E-1	1.033046E+0	1.046627E+0	1.061108E+0	1.049100E+0	1.020381E+0	1.069675E+0	1.014597E+0	1.022800E+0	1.060500E+0	9.980702E-1	1.085944E+0	1.088466E+0	1.073060E+0	1.051151E+0	1.042858E+0	1.016129E+0	1.072763E+0	1.069659E+0	1.067957E+0	1.105032E+0	1.075202E+0	1.017181E+0	1.070755E+0	1.094136E+0	1.121969E+0	1.052245E+0	1.086563E+0	1.041654E+0	1.069801E+0	1.059440E+0	1.097443E+0	1.060749E+0	1.055091E+0	1.037365E+0	1.034026E+0	1.041648E+0	1.075853E+0	1.050857E+0	1.056695E+0	1.068725E+0	1.057484E+0	1.071533E+0	1.081794E+0	1.060266E+0	1.022028E+0	1.112478E+0	1.006435E+0	1.027339E+0	1.081434E+0	1.042634E+0	1.054979E+0	1.060237E+0	1.055032E+0	1.035102E+0	1.051536E+0	1.068332E+0	1.045261E+0	1.034049E+0	1.087729E+0	1.024852E+0	1.058954E+0	1.039861E+0	1.036896E+0	1.045704E+0	1.010410E+0	1.102632E+0	1.025775E+0	1.062905E+0	1.022287E+0	1.060953E+0	1.059852E+0	1.000529E+0	1.063050E+0	1.081637E+0	1.018636E+0	1.057831E+0	1.060365E+0	1.046355E+0	1.063612E+0	1.009440E+0	1.018002E+0	1.084093E+0	1.034611E+0	1.085379E+0	1.087366E+0	1.097923E+0	1.031400E+0	1.035955E+0	1.086339E+0	1.107456E+0	1.031811E+0	1.037833E+0	1.018042E+0	9.918071E-1	1.048614E+0	1.047525E+0	1.054994E+0	1.018955E+0	1.035989E+0	1.111410E+0	1.045266E+0	1.091364E+0	1.083958E+0	1.105600E+0	1.071576E+0	1.077868E+0	1.132081E+0	1.097167E+0	1.075258E+0	1.114845E+0	1.117294E+0	1.063045E+0	1.048197E+0	1.057201E+0	1.125881E+0	1.054540E+0	1.095753E+0	1.047298E+0	1.046140E+0	1.023795E+0	1.045958E+0	1.048297E+0	1.201821E+0	1.099739E+0	1.001875E+0	1.061323E+0	1.088436E+0	1.037319E+0	1.020011E+0	1.109238E+0	1.090529E+0	1.075452E+0	1.096025E+0	1.053024E+0	1.060923E+0	1.056980E+0	1.103835E+0	1.100975E+0	1.077929E+0	1.077654E+0	1.046288E+0	1.082950E+0	1.013767E+0	1.022431E+0	1.004829E+0
2.874030E+2	8.588779E-1	9.462855E-1	9.419790E-1	9.472464E-1	8.931928E-1	9.662682E-1	8.959375E-1	9.010105E-1	8.884504E-1	9.583555E-1	9.996672E-1	8.565248E-1	8.934704E-1	9.281935E-1	9.329869E-1	9.907002E-1	9.543102E-1	9.607351E-1	9.765392E-1	9.447668E-1	9.534348E-1	9.328666E-1	9.063589E-1	9.249708E-1	9.533709E-1	9.555677E-1	9.167293E-1	8.746312E-1	9.225283E-1	8.805443E-1	9.599228E-1	9.164572E-1	9.616984E-1	9.275542E-1	8.928846E-1	9.188581E-1	9.357860E-1	9.344579E-1	9.845213E-1	9.510813E-1	9.755814E-1	9.427137E-1	9.002711E-1	9.481565E-1	9.254824E-1	9.420663E-1	9.330381E-1	9.605365E-1	1.006890E+0	9.630603E-1	9.045604E-1	9.234539E-1	9.167565E-1	9.286146E-1	9.660948E-1	9.315725E-1	9.627292E-1	8.820249E-1	9.139782E-1	9.050850E-1	1.000802E+0	9.363358E-1	9.576952E-1	9.255737E-1	9.648260E-1	9.501791E-1	9.517726E-1	9.418762E-1	9.092095E-1	9.364734E-1	9.218405E-1	9.276378E-1	9.508538E-1	9.730232E-1	9.323449E-1	9.508451E-1	9.583452E-1	9.217201E-1	9.637286E-1	9.123288E-1	9.298492E-1	9.350681E-1	9.035847E-1	9.562279E-1	9.593187E-1	9.292723E-1	8.939393E-1	9.068307E-1	9.134198E-1	9.741695E-1	9.539096E-1	9.062096E-1	9.736130E-1	9.217467E-1	9.107358E-1	9.343548E-1	9.116876E-1	9.690398E-1	9.085839E-1	9.782869E-1	9.774877E-1	9.543109E-1	9.323819E-1	8.973821E-1	9.385015E-1	9.470544E-1	9.277017E-1	9.250461E-1	9.540893E-1	9.118376E-1	9.276960E-1	9.236608E-1	9.604703E-1	8.998682E-1	9.669255E-1	9.555799E-1	9.636827E-1	9.713835E-1	9.096491E-1	9.616552E-1	9.344394E-1	9.728032E-1	9.382069E-1	9.129106E-1	9.568984E-1	9.293732E-1	9.286476E-1	9.483354E-1	9.614250E-1	9.761017E-1	9.397732E-1	9.698727E-1	9.522075E-1	1.019938E+0	9.353045E-1	9.477316E-1	9.473749E-1	8.831640E-1	9.465598E-1	9.250607E-1	9.351336E-1	1.010144E+0	9.096094E-1	9.344514E-1	9.443308E-1	9.457366E-1	9.101590E-1	9.362175E-1	9.905503E-1	1.001223E+0	9.591989E-1	9.449044E-1	9.323605E-1	9.627723E-1	9.625882E-1	9.263681E-1	9.677567E-1	9.653604E-1	9.608586E-1	9.259298E-1	9.619491E-1	9.992898E-1	9.703739E-1	8.999459E-1	9.647470E-1	9.875957E-1	9.684681E-1	9.274167E-1	1.029472E+0	9.650041E-1	8.576135E-1	9.669417E-1
2.876210E+2	8.668012E-1	8.578505E-1	7.834017E-1	8.144790E-1	8.166276E-1	8.790692E-1	8.442730E-1	8.166395E-1	7.641341E-1	8.108486E-1	8.159981E-1	8.550889E-1	7.947173E-1	8.425619E-1	8.445823E-1	8.224532E-1	8.294339E-1	8.325364E-1	7.758741E-1	8.566859E-1	8.245217E-1	8.672724E-1	8.109250E-1	8.691009E-1	7.832854E-1	8.603255E-1	7.558433E-1	8.353857E-1	8.641875E-1	8.761695E-1	8.112142E-1	8.185122E-1	8.494200E-1	8.527381E-1	8.665058E-1	8.106522E-1	8.341239E-1	8.848721E-1	8.338893E-1	8.022565E-1	8.671722E-1	8.475621E-1	8.348570E-1	8.615849E-1	8.062365E-1	8.654494E-1	8.719822E-1	8.243485E-1	8.262892E-1	8.633055E-1	7.962292E-1	8.227236E-1	7.809753E-1	8.419845E-1	8.132233E-1	7.946501E-1	8.748115E-1	8.875126E-1	8.574460E-1	8.845854E-1	8.363730E-1	8.059303E-1	8.322446E-1	8.320422E-1	8.072544E-1	8.468068E-1	8.468732E-1	8.284087E-1	8.159138E-1	8.049488E-1	9.088614E-1	8.841502E-1	8.697040E-1	8.749638E-1	8.114671E-1	8.800093E-1	8.275471E-1	8.362532E-1	8.494508E-1	8.120586E-1	8.858118E-1	8.080560E-1	8.366189E-1	7.999511E-1	8.455640E-1	8.320698E-1	8.546973E-1	8.964994E-1	8.366727E-1	8.187902E-1	8.319430E-1	8.158971E-1	8.577131E-1	7.712550E-1	7.867424E-1	8.058762E-1	8.076276E-1	9.004248E-1	8.497345E-1	7.683752E-1	8.117766E-1	8.589457E-1	8.628358E-1	8.645708E-1	7.977071E-1	8.383216E-1	8.570185E-1	7.875156E-1	8.420962E-1	8.557236E-1	9.035044E-1	8.378976E-1	8.839805E-1	8.272117E-1	8.560260E-1	8.874625E-1	8.376401E-1	8.142707E-1	8.130668E-1	8.635391E-1	7.798845E-1	8.273165E-1	8.266740E-1	8.384399E-1	8.667584E-1	8.804697E-1	8.108391E-1	8.422562E-1	8.957608E-1	8.284395E-1	8.733665E-1	8.642319E-1	9.032335E-1	8.544108E-1	8.405370E-1	8.688421E-1	8.357304E-1	8.315553E-1	8.273764E-1	8.549491E-1	8.815108E-1	8.713226E-1	8.634009E-1	8.106727E-1	8.051503E-1	7.929737E-1	8.399462E-1	8.113356E-1	8.878849E-1	8.835137E-1	8.194997E-1	8.295393E-1	8.502204E-1	8.667153E-1	8.305778E-1	8.568659E-1	8.530760E-1	8.528622E-1	8.303377E-1	7.901431E-1	8.084163E-1	8.552124E-1	8.569225E-1	9.004867E-1	8.302887E-1	8.520278E-1	9.128597E-1	8.574195E-1	8.641687E-1	8.979191E-1	8.614108E-1	8.350643E-1
2.878020E+2	7.348100E-1	7.413216E-1	7.500603E-1	7.358149E-1	6.955938E-1	7.632691E-1	7.650961E-1	7.504227E-1	7.416966E-1	7.573803E-1	7.583041E-1	7.328055E-1	7.478967E-1	7.689171E-1	7.026446E-1	7.089318E-1	7.123620E-1	7.237404E-1	7.555928E-1	7.847631E-1	7.706867E-1	7.139760E-1	7.510685E-1	7.585017E-1	7.326864E-1	7.622307E-1	7.515559E-1	7.763974E-1	7.652711E-1	7.329462E-1	7.120149E-1	7.064040E-1	7.265396E-1	7.521288E-1	7.292411E-1	7.826852E-1	7.127375E-1	7.812503E-1	7.540484E-1	7.698785E-1	7.447083E-1	7.722285E-1	7.138995E-1	7.789254E-1	7.180358E-1	7.176358E-1	7.827766E-1	7.687271E-1	7.838529E-1	7.628921E-1	7.127443E-1	7.216895E-1	7.055017E-1	7.764118E-1	7.413093E-1	6.992016E-1	8.396323E-1	7.817035E-1	6.947183E-1	7.618343E-1	7.539860E-1	7.799810E-1	7.294709E-1	7.475292E-1	7.907178E-1	7.830162E-1	7.810249E-1	7.673263E-1	7.548970E-1	7.522341E-1	7.469801E-1	7.446586E-1	7.185362E-1	8.139630E-1	7.676911E-1	7.530601E-1	7.625912E-1	6.921225E-1	7.409102E-1	7.327405E-1	7.993932E-1	8.344398E-1	7.680079E-1	7.568815E-1	7.569720E-1	8.006961E-1	7.297929E-1	7.556644E-1	7.619414E-1	7.839373E-1	7.703371E-1	6.875483E-1	7.354238E-1	7.234336E-1	7.733778E-1	7.394380E-1	7.377355E-1	7.369101E-1	7.185737E-1	7.313666E-1	7.715043E-1	7.432398E-1	7.800768E-1	7.408114E-1	7.566636E-1	7.684396E-1	7.627545E-1	7.332953E-1	7.882128E-1	7.917129E-1	7.991416E-1	8.054207E-1	7.138740E-1	6.549896E-1	7.439440E-1	7.239331E-1	7.838297E-1	7.908321E-1	7.620279E-1	7.279074E-1	7.576479E-1	7.833321E-1	8.011900E-1	7.562019E-1	7.558484E-1	8.112311E-1	7.399930E-1	7.753769E-1	7.776979E-1	7.241013E-1	7.417110E-1	7.989534E-1	7.577371E-1	7.738206E-1	7.523224E-1	7.511289E-1	7.414475E-1	7.634716E-1	7.414893E-1	7.707090E-1	7.309753E-1	7.679166E-1	7.737085E-1	7.367308E-1	7.412230E-1	7.388936E-1	7.200610E-1	7.904854E-1	8.204737E-1	7.646718E-1	7.608404E-1	7.245415E-1	7.762994E-1	8.352155E-1	7.578637E-1	7.542837E-1	8.098044E-1	7.620369E-1	8.240078E-1	7.555730E-1	7.891848E-1	7.715746E-1	7.723434E-1	7.412994E-1	7.672857E-1	7.830649E-1	7.468785E-1	7.657645E-1	7.776780E-1	7.429553E-1	7.495429E-1	7.939497E-1
2.880020E+2	6.956503E-1	6.476679E-1	6.596231E-1	6.438043E-1	6.445409E-1	6.730981E-1	6.828701E-1	7.024380E-1	6.744048E-1	6.630472E-1	6.598214E-1	6.791700E-1	6.631684E-1	6.763438E-1	6.609760E-1	7.096100E-1	7.044107E-1	6.766580E-1	6.797405E-1	7.094289E-1	7.502609E-1	6.529038E-1	6.493073E-1	6.708520E-1	7.174822E-1	7.013145E-1	6.931784E-1	6.778848E-1	6.864952E-1	6.542601E-1	6.692931E-1	6.421605E-1	6.813028E-1	7.207055E-1	6.654682E-1	6.876359E-1	6.856076E-1	7.188445E-1	6.855277E-1	6.835545E-1	7.154812E-1	6.595083E-1	6.632070E-1	7.190968E-1	7.018669E-1	7.015190E-1	7.194098E-1	6.664257E-1	6.916350E-1	6.972610E-1	6.694579E-1	6.767772E-1	6.746198E-1	6.798167E-1	6.964700E-1	6.759921E-1	6.790191E-1	6.989575E-1	6.937476E-1	6.817571E-1	7.098017E-1	6.751172E-1	6.702423E-1	7.078940E-1	6.925303E-1	6.642373E-1	7.076918E-1	6.498712E-1	6.554006E-1	6.753085E-1	6.955194E-1	6.440750E-1	6.636558E-1	7.140366E-1	6.522283E-1	6.858630E-1	6.771588E-1	6.760912E-1	6.836248E-1	6.585414E-1	6.649177E-1	6.776373E-1	7.134168E-1	6.889534E-1	6.763811E-1	7.025736E-1	6.761563E-1	6.657047E-1	6.888291E-1	7.055957E-1	6.993831E-1	6.621292E-1	7.360279E-1	6.929937E-1	6.909108E-1	6.955540E-1	6.805838E-1	6.697974E-1	7.187465E-1	6.872742E-1	7.159414E-1	6.858756E-1	6.891120E-1	7.166640E-1	6.757747E-1	7.034451E-1	7.161681E-1	6.811831E-1	6.817808E-1	6.944166E-1	6.826592E-1	6.782534E-1	7.443937E-1	7.161513E-1	6.998060E-1	6.619384E-1	6.962484E-1	6.978133E-1	7.103318E-1	6.707618E-1	6.628525E-1	7.366105E-1	7.097333E-1	6.932303E-1	6.638459E-1	6.746032E-1	7.239275E-1	7.175507E-1	7.300528E-1	7.261351E-1	6.679604E-1	7.269798E-1	6.785301E-1	7.482828E-1	6.942807E-1	6.844289E-1	6.682455E-1	7.199400E-1	6.926485E-1	6.452331E-1	6.751423E-1	7.207284E-1	7.209175E-1	6.570662E-1	6.799826E-1	6.491633E-1	6.906834E-1	7.030947E-1	7.145514E-1	7.348292E-1	6.698860E-1	6.846230E-1	6.585571E-1	7.081470E-1	6.585820E-1	6.778835E-1	7.089976E-1	6.641952E-1	6.621376E-1	6.596084E-1	6.851014E-1	6.932199E-1	7.588814E-1	6.570420E-1	6.988737E-1	6.836378E-1	7.205848E-1	6.488147E-1	6.376447E-1	6.789746E-1	6.640736E-1	7.416715E-1
2.882230E+2	7.189679E-1	7.006176E-1	7.051302E-1	6.971748E-1	7.146807E-1	7.060559E-1	6.887677E-1	7.127286E-1	7.044194E-1	7.216077E-1	7.118423E-1	7.353893E-1	7.229042E-1	7.294657E-1	7.011062E-1	6.915933E-1	7.225565E-1	7.132158E-1	6.990727E-1	6.940657E-1	7.385969E-1	7.486194E-1	7.375872E-1	7.025479E-1	6.872541E-1	7.248172E-1	7.341479E-1	7.230319E-1	7.200366E-1	7.408232E-1	7.126379E-1	7.001728E-1	7.058155E-1	7.316650E-1	6.944182E-1	6.899045E-1	6.805359E-1	7.577142E-1	7.139659E-1	6.988181E-1	7.070107E-1	7.363735E-1	6.920542E-1	7.229613E-1	7.337527E-1	7.191598E-1	6.453476E-1	7.199941E-1	6.808444E-1	7.012360E-1	7.242643E-1	7.046386E-1	7.149412E-1	7.862631E-1	7.218295E-1	7.350931E-1	7.760728E-1	7.289273E-1	7.069016E-1	7.199512E-1	6.677407E-1	7.359530E-1	7.397718E-1	7.113748E-1	7.336198E-1	7.326059E-1	6.631099E-1	7.534045E-1	7.477753E-1	7.001059E-1	7.105005E-1	6.787174E-1	7.062825E-1	6.865439E-1	7.173167E-1	7.123511E-1	7.069327E-1	7.452628E-1	7.437909E-1	7.452967E-1	7.482675E-1	7.075623E-1	7.223846E-1	6.374491E-1	7.338524E-1	6.690930E-1	6.987163E-1	7.181534E-1	6.879213E-1	7.089352E-1	7.021519E-1	6.992312E-1	7.079730E-1	7.242533E-1	6.998986E-1	7.230652E-1	7.024418E-1	7.300303E-1	7.425130E-1	6.911107E-1	7.359193E-1	7.299280E-1	7.272809E-1	7.546794E-1	7.080629E-1	7.368117E-1	7.519086E-1	6.854651E-1	6.984435E-1	6.984937E-1	7.069195E-1	7.774116E-1	7.493227E-1	6.858090E-1	6.981907E-1	7.113663E-1	7.469520E-1	7.150442E-1	7.408515E-1	6.646464E-1	6.873370E-1	7.655833E-1	7.363460E-1	6.634215E-1	7.109844E-1	7.213516E-1	7.137843E-1	7.101857E-1	7.360059E-1	6.730888E-1	6.869417E-1	7.402781E-1	7.220585E-1	7.588895E-1	6.872656E-1	7.161879E-1	7.054325E-1	6.975519E-1	7.383732E-1	6.888398E-1	6.908537E-1	7.157916E-1	7.438048E-1	7.339584E-1	7.650630E-1	7.157099E-1	6.956387E-1	7.414237E-1	7.236395E-1	7.515273E-1	7.497422E-1	7.306222E-1	7.098073E-1	7.082166E-1	7.439430E-1	7.027521E-1	7.501932E-1	6.995063E-1	7.061655E-1	6.803372E-1	7.237598E-1	7.071716E-1	7.267855E-1	7.191564E-1	6.806595E-1	7.240112E-1	7.572105E-1	7.158325E-1	6.943311E-1	7.026370E-1	7.304901E-1	6.612552E-1
2.884130E+2	9.020848E-1	9.189624E-1	9.335033E-1	9.156524E-1	8.989478E-1	9.408962E-1	9.304286E-1	9.354235E-1	9.109906E-1	9.513578E-1	9.736191E-1	9.850279E-1	8.798593E-1	9.929238E-1	9.864425E-1	8.965064E-1	9.269310E-1	9.864207E-1	9.514734E-1	9.731236E-1	9.413537E-1	9.116060E-1	9.479466E-1	9.475632E-1	9.920889E-1	9.576085E-1	9.627650E-1	9.350501E-1	9.216170E-1	9.534381E-1	9.399615E-1	9.041755E-1	9.807547E-1	8.792490E-1	9.651831E-1	9.256949E-1	9.505770E-1	1.028941E+0	9.908836E-1	9.785995E-1	9.529494E-1	9.529014E-1	9.436856E-1	9.747429E-1	8.999044E-1	9.287891E-1	9.456261E-1	9.392609E-1	9.328857E-1	9.770800E-1	9.694545E-1	9.549680E-1	9.301207E-1	9.864070E-1	9.333504E-1	9.341192E-1	9.443136E-1	9.706190E-1	9.531650E-1	9.179141E-1	9.611310E-1	9.423476E-1	8.734662E-1	9.624478E-1	9.475466E-1	9.389364E-1	9.868037E-1	8.986545E-1	9.345975E-1	9.464297E-1	1.015444E+0	8.915857E-1	9.842120E-1	9.286569E-1	9.411277E-1	9.007939E-1	9.426263E-1	9.394113E-1	1.003351E+0	9.325616E-1	9.248813E-1	9.651328E-1	9.722196E-1	9.468650E-1	9.679872E-1	9.568473E-1	9.380139E-1	9.817362E-1	9.031698E-1	9.763332E-1	9.465699E-1	9.556898E-1	9.761798E-1	9.316555E-1	9.117243E-1	9.012248E-1	9.748139E-1	9.604579E-1	9.573098E-1	8.965181E-1	1.010358E+0	9.641675E-1	9.453566E-1	9.218791E-1	9.353051E-1	9.112945E-1	9.181591E-1	8.974842E-1	9.759434E-1	9.324599E-1	9.571589E-1	9.821476E-1	9.462056E-1	9.127989E-1	1.009904E+0	9.516440E-1	9.741422E-1	9.276944E-1	9.538032E-1	9.444263E-1	9.285223E-1	9.649532E-1	9.663241E-1	9.399843E-1	1.000683E+0	9.693313E-1	9.401124E-1	9.793014E-1	9.822284E-1	9.314219E-1	9.306285E-1	9.644882E-1	9.405286E-1	1.008563E+0	9.345896E-1	1.002909E+0	9.664838E-1	9.790827E-1	9.752046E-1	9.459649E-1	9.195696E-1	1.039684E+0	9.950037E-1	9.701388E-1	9.558118E-1	8.717060E-1	9.428033E-1	1.004255E+0	9.669559E-1	1.003638E+0	9.294318E-1	9.479822E-1	8.993007E-1	9.670393E-1	9.556911E-1	8.960152E-1	1.026428E+0	9.461968E-1	9.621634E-1	8.829327E-1	9.619463E-1	9.915969E-1	9.162689E-1	8.881018E-1	9.350030E-1	9.671479E-1	9.629293E-1	9.153808E-1	9.625176E-1	9.262627E-1	9.388784E-1	9.140607E-1
2.886030E+2	1.220255E+0	1.181876E+0	1.207522E+0	1.214562E+0	1.177726E+0	1.250905E+0	1.164128E+0	1.213859E+0	1.157665E+0	1.210126E+0	1.236618E+0	1.188469E+0	1.217954E+0	1.187355E+0	1.142657E+0	1.140598E+0	1.209045E+0	1.199628E+0	1.168043E+0	1.229982E+0	1.206957E+0	1.276768E+0	1.228534E+0	1.168179E+0	1.149970E+0	1.288624E+0	1.123011E+0	1.145524E+0	1.183052E+0	1.226366E+0	1.233492E+0	1.187584E+0	1.264713E+0	1.190091E+0	1.175624E+0	1.147602E+0	1.201775E+0	1.236743E+0	1.181333E+0	1.217384E+0	1.201880E+0	1.187104E+0	1.251927E+0	1.206886E+0	1.217305E+0	1.170838E+0	1.226302E+0	1.223696E+0	1.267652E+0	1.192188E+0	1.245539E+0	1.174874E+0	1.212798E+0	1.212971E+0	1.183448E+0	1.152403E+0	1.256075E+0	1.222360E+0	1.219397E+0	1.220519E+0	1.186844E+0	1.204295E+0	1.160711E+0	1.237205E+0	1.215314E+0	1.281530E+0	1.223061E+0	1.191804E+0	1.178903E+0	1.235552E+0	1.207269E+0	1.187836E+0	1.198957E+0	1.288093E+0	1.213656E+0	1.178502E+0	1.198792E+0	1.163193E+0	1.168755E+0	1.176806E+0	1.212175E+0	1.205656E+0	1.203406E+0	1.263557E+0	1.208454E+0	1.217181E+0	1.243858E+0	1.137430E+0	1.233908E+0	1.239322E+0	1.191852E+0	1.177130E+0	1.267388E+0	1.179487E+0	1.183342E+0	1.167438E+0	1.175231E+0	1.238190E+0	1.231158E+0	1.111563E+0	1.184892E+0	1.199308E+0	1.185339E+0	1.169500E+0	1.211407E+0	1.159583E+0	1.208204E+0	1.175538E+0	1.255725E+0	1.190680E+0	1.155455E+0	1.225131E+0	1.241922E+0	1.181170E+0	1.221556E+0	1.244772E+0	1.210159E+0	1.302844E+0	1.215820E+0	1.160075E+0	1.249294E+0	1.223314E+0	1.227395E+0	1.202823E+0	1.213328E+0	1.214581E+0	1.231854E+0	1.172789E+0	1.253461E+0	1.236570E+0	1.183743E+0	1.264729E+0	1.217690E+0	1.274791E+0	1.189834E+0	1.196037E+0	1.183242E+0	1.199398E+0	1.236416E+0	1.127635E+0	1.168711E+0	1.236520E+0	1.185337E+0	1.182941E+0	1.233687E+0	1.180950E+0	1.229031E+0	1.247652E+0	1.187791E+0	1.286551E+0	1.273616E+0	1.153809E+0	1.153785E+0	1.212000E+0	1.247708E+0	1.233105E+0	1.249080E+0	1.184418E+0	1.259812E+0	1.220953E+0	1.162180E+0	1.193841E+0	1.212626E+0	1.161762E+0	1.170486E+0	1.191587E+0	1.229425E+0	1.177457E+0	1.213134E+0	1.139419E+0	1.287013E+0	1.102134E+0
2.888240E+2	1.303565E+0	1.219979E+0	1.232789E+0	1.246504E+0	1.257335E+0	1.214713E+0	1.254509E+0	1.250870E+0	1.275695E+0	1.254547E+0	1.217731E+0	1.237806E+0	1.195723E+0	1.284410E+0	1.229615E+0	1.280007E+0	1.256335E+0	1.282575E+0	1.282988E+0	1.325003E+0	1.223010E+0	1.241831E+0	1.280376E+0	1.275355E+0	1.275850E+0	1.188228E+0	1.256488E+0	1.216327E+0	1.246287E+0	1.169704E+0	1.248643E+0	1.196750E+0	1.253136E+0	1.235180E+0	1.191536E+0	1.252401E+0	1.257934E+0	1.315175E+0	1.226141E+0	1.280805E+0	1.262140E+0	1.306273E+0	1.273075E+0	1.224996E+0	1.245844E+0	1.225899E+0	1.258457E+0	1.213623E+0	1.305356E+0	1.300378E+0	1.209088E+0	1.249480E+0	1.238033E+0	1.236449E+0	1.238556E+0	1.141001E+0	1.263388E+0	1.193552E+0	1.312111E+0	1.219951E+0	1.247268E+0	1.244883E+0	1.169794E+0	1.261465E+0	1.209436E+0	1.271085E+0	1.249960E+0	1.288463E+0	1.254453E+0	1.284206E+0	1.274055E+0	1.204660E+0	1.206537E+0	1.311516E+0	1.256653E+0	1.235954E+0	1.286319E+0	1.264442E+0	1.342084E+0	1.238148E+0	1.252493E+0	1.307061E+0	1.257674E+0	1.269034E+0	1.218784E+0	1.274500E+0	1.276831E+0	1.270750E+0	1.250234E+0	1.306579E+0	1.272787E+0	1.191955E+0	1.296615E+0	1.210036E+0	1.228576E+0	1.241300E+0	1.248734E+0	1.271209E+0	1.222852E+0	1.221984E+0	1.297769E+0	1.281348E+0	1.343436E+0	1.246334E+0	1.203522E+0	1.276144E+0	1.239999E+0	1.251245E+0	1.257267E+0	1.232507E+0	1.261712E+0	1.243054E+0	1.266208E+0	1.253084E+0	1.322434E+0	1.285091E+0	1.263511E+0	1.250582E+0	1.289122E+0	1.222739E+0	1.274190E+0	1.287777E+0	1.190536E+0	1.192436E+0	1.320871E+0	1.282752E+0	1.265153E+0	1.225397E+0	1.242798E+0	1.317218E+0	1.250219E+0	1.268639E+0	1.261051E+0	1.382149E+0	1.209318E+0	1.191976E+0	1.262466E+0	1.274874E+0	1.291612E+0	1.213851E+0	1.279444E+0	1.252592E+0	1.316589E+0	1.268846E+0	1.289848E+0	1.252629E+0	1.264551E+0	1.187373E+0	1.275905E+0	1.272884E+0	1.240216E+0	1.223351E+0	1.252490E+0	1.267844E+0	1.272187E+0	1.208219E+0	1.269134E+0	1.253631E+0	1.278012E+0	1.287538E+0	1.244217E+0	1.260222E+0	1.249576E+0	1.252997E+0	1.291592E+0	1.320727E+0	1.290886E+0	1.230502E+0	1.247936E+0	1.224201E+0	1.327767E+0	1.283669E+0
2.890220E+2	1.069899E+0	1.031713E+0	1.101555E+0	1.054718E+0	1.100736E+0	1.104465E+0	1.079988E+0	1.073986E+0	1.055587E+0	1.084026E+0	1.070967E+0	1.048408E+0	1.084586E+0	1.084704E+0	1.071222E+0	1.081932E+0	1.061305E+0	1.093786E+0	1.123573E+0	1.062558E+0	1.107221E+0	1.113688E+0	1.116799E+0	1.049428E+0	1.088334E+0	1.089853E+0	1.048432E+0	1.082647E+0	1.071165E+0	1.082764E+0	1.103453E+0	1.082345E+0	1.105998E+0	1.048349E+0	1.074129E+0	1.115373E+0	1.087147E+0	1.120027E+0	1.120436E+0	1.129990E+0	1.104329E+0	1.057424E+0	1.026499E+0	1.109050E+0	1.057866E+0	1.093251E+0	1.083525E+0	1.071598E+0	1.135476E+0	1.101010E+0	1.030785E+0	1.176945E+0	1.056308E+0	1.105712E+0	1.071133E+0	1.011458E+0	1.086522E+0	1.107289E+0	1.131136E+0	1.046909E+0	1.092859E+0	1.050901E+0	1.091668E+0	1.060696E+0	1.038061E+0	1.112298E+0	1.032464E+0	1.094944E+0	1.085179E+0	1.131736E+0	1.131040E+0	1.057017E+0	1.074065E+0	1.114829E+0	1.024583E+0	1.053806E+0	1.000857E+0	1.059834E+0	1.098367E+0	1.028353E+0	1.080713E+0	1.051337E+0	1.108706E+0	1.080023E+0	1.039198E+0	1.108762E+0	1.089795E+0	1.034334E+0	1.070112E+0	1.053016E+0	1.058134E+0	1.078171E+0	1.062066E+0	1.033438E+0	1.072781E+0	1.054674E+0	1.034569E+0	1.039674E+0	1.072447E+0	1.159088E+0	1.142036E+0	1.048744E+0	1.088740E+0	1.080809E+0	1.070487E+0	1.095482E+0	1.084728E+0	1.054210E+0	1.082018E+0	1.140188E+0	1.098891E+0	1.101278E+0	1.079307E+0	1.052932E+0	1.082149E+0	1.080322E+0	1.082003E+0	1.126398E+0	1.102143E+0	1.132765E+0	1.027218E+0	1.173876E+0	1.107276E+0	1.071962E+0	1.080391E+0	1.082701E+0	1.083463E+0	1.143848E+0	1.054248E+0	1.051036E+0	1.111068E+0	1.106416E+0	1.109161E+0	1.055049E+0	1.099331E+0	1.039590E+0	1.062640E+0	1.108791E+0	1.114035E+0	1.072161E+0	1.023051E+0	1.087127E+0	1.125646E+0	1.083462E+0	1.089920E+0	1.086064E+0	1.081913E+0	1.082880E+0	1.061842E+0	1.136098E+0	1.030750E+0	1.112267E+0	1.055264E+0	1.086392E+0	1.077088E+0	1.015533E+0	1.098683E+0	1.129378E+0	1.116068E+0	1.053208E+0	1.068265E+0	1.081279E+0	1.079393E+0	1.087232E+0	1.074130E+0	1.136681E+0	1.083597E+0	1.115825E+0	1.104805E+0	1.130927E+0	1.041487E+0	1.161862E+0
2.892010E+2	9.428658E-1	9.738881E-1	9.614852E-1	9.899512E-1	9.601167E-1	9.100893E-1	1.014343E+0	9.286071E-1	1.006453E+0	9.422836E-1	9.907819E-1	1.017382E+0	1.011103E+0	9.427839E-1	9.676152E-1	9.650252E-1	9.762148E-1	8.926752E-1	1.030661E+0	9.723006E-1	1.008555E+0	9.987427E-1	9.842466E-1	1.004067E+0	9.610561E-1	9.835010E-1	9.925148E-1	1.019099E+0	9.985342E-1	9.364025E-1	9.624150E-1	9.317565E-1	1.025591E+0	9.621567E-1	9.606237E-1	9.702942E-1	9.338902E-1	9.561216E-1	9.745392E-1	1.018112E+0	9.873727E-1	9.233673E-1	9.959441E-1	9.642429E-1	9.666966E-1	9.743103E-1	9.633564E-1	9.533920E-1	9.615937E-1	9.508206E-1	9.361604E-1	9.336592E-1	8.933905E-1	1.025492E+0	9.922856E-1	9.323926E-1	1.016332E+0	9.812327E-1	9.338428E-1	9.552198E-1	9.306773E-1	9.639965E-1	1.011289E+0	9.745764E-1	8.989108E-1	1.012285E+0	9.417974E-1	9.942869E-1	1.001184E+0	9.886643E-1	1.002079E+0	9.066361E-1	9.559501E-1	9.998406E-1	1.029415E+0	9.783479E-1	9.684570E-1	9.083287E-1	9.668785E-1	9.816887E-1	9.454373E-1	9.498093E-1	9.618997E-1	9.270416E-1	9.631201E-1	9.911929E-1	1.008478E+0	9.568459E-1	9.735449E-1	9.705666E-1	9.695049E-1	9.588806E-1	1.029784E+0	9.566773E-1	1.005692E+0	9.930281E-1	9.699762E-1	9.848525E-1	9.626447E-1	9.856043E-1	9.626869E-1	1.020489E+0	9.578136E-1	9.943828E-1	9.363231E-1	9.844604E-1	9.481682E-1	9.416088E-1	9.405805E-1	1.000052E+0	9.207273E-1	9.842452E-1	9.759889E-1	9.105437E-1	9.872126E-1	9.141406E-1	1.037513E+0	1.000411E+0	9.914240E-1	9.547441E-1	9.491317E-1	9.785019E-1	1.002369E+0	9.443409E-1	1.026575E+0	9.943056E-1	9.144010E-1	9.093507E-1	9.777865E-1	9.323264E-1	9.804192E-1	9.767711E-1	9.742156E-1	1.064513E+0	9.696138E-1	9.876762E-1	9.299499E-1	1.034150E+0	9.687843E-1	9.904014E-1	9.700787E-1	1.019298E+0	9.692645E-1	1.004481E+0	1.005707E+0	9.932083E-1	9.856943E-1	9.717396E-1	9.802932E-1	1.038197E+0	9.899008E-1	9.557470E-1	9.787810E-1	9.859896E-1	9.656817E-1	9.413155E-1	1.071776E+0	9.713057E-1	9.981677E-1	9.946521E-1	1.020125E+0	1.004700E+0	9.904388E-1	9.923843E-1	9.697222E-1	9.875292E-1	9.876558E-1	9.554413E-1	9.690606E-1	9.567031E-1	9.440616E-1	8.698774E-1
2.894050E+2	9.489078E-1	9.371775E-1	9.433015E-1	9.307855E-1	9.229747E-1	9.399322E-1	9.326965E-1	9.845177E-1	9.184255E-1	9.607479E-1	9.103050E-1	8.973059E-1	9.354713E-1	9.427887E-1	9.309118E-1	9.634160E-1	9.636030E-1	9.563603E-1	9.083956E-1	1.006978E+0	9.535412E-1	9.574893E-1	9.135239E-1	1.002104E+0	8.972209E-1	9.628836E-1	9.752036E-1	9.307567E-1	9.268525E-1	9.088192E-1	9.619281E-1	9.202444E-1	9.041646E-1	8.984299E-1	9.933259E-1	9.033426E-1	9.390042E-1	9.308052E-1	9.773635E-1	9.468999E-1	9.090322E-1	9.005491E-1	9.314054E-1	9.801620E-1	8.889363E-1	9.559342E-1	9.442500E-1	9.812356E-1	9.520010E-1	9.195721E-1	9.368557E-1	9.384022E-1	9.598124E-1	9.917563E-1	9.142882E-1	9.552915E-1	9.681643E-1	9.209839E-1	9.595305E-1	9.699298E-1	9.005713E-1	9.471834E-1	9.195416E-1	9.648474E-1	9.333518E-1	9.207269E-1	9.404480E-1	9.386311E-1	9.928900E-1	9.310395E-1	9.314475E-1	9.413494E-1	9.387638E-1	9.264127E-1	9.846798E-1	9.294124E-1	9.156485E-1	9.243529E-1	9.099204E-1	9.408077E-1	9.318553E-1	9.913591E-1	9.494872E-1	9.091888E-1	8.797036E-1	9.693272E-1	9.592559E-1	9.581484E-1	9.280123E-1	9.207502E-1	9.449985E-1	9.139228E-1	9.113619E-1	9.378116E-1	9.532139E-1	9.278087E-1	9.457911E-1	9.207152E-1	9.390069E-1	9.055456E-1	9.472742E-1	9.631824E-1	9.610846E-1	9.965811E-1	9.731553E-1	9.464636E-1	9.727534E-1	9.408493E-1	9.594018E-1	9.153268E-1	9.768998E-1	8.990992E-1	9.735980E-1	9.187282E-1	9.645522E-1	9.878502E-1	9.457657E-1	9.697482E-1	9.609323E-1	8.910906E-1	9.533256E-1	9.695933E-1	9.639543E-1	9.426603E-1	9.539300E-1	9.219905E-1	9.777103E-1	9.419599E-1	9.831738E-1	9.085194E-1	9.781261E-1	9.184680E-1	9.674626E-1	1.009010E+0	9.426709E-1	9.243558E-1	9.576534E-1	1.006951E+0	9.058406E-1	9.583726E-1	9.181400E-1	9.514141E-1	9.936270E-1	9.556279E-1	9.738634E-1	9.658461E-1	9.254877E-1	1.027432E+0	9.528667E-1	9.335187E-1	9.596119E-1	9.285910E-1	9.086725E-1	9.821932E-1	9.071541E-1	9.684472E-1	9.650981E-1	9.617872E-1	9.920936E-1	9.554164E-1	9.399581E-1	1.040343E+0	9.440092E-1	9.150402E-1	9.562937E-1	9.832046E-1	9.616658E-1	9.189756E-1	9.349571E-1	9.579736E-1	1.004279E+0	8.956754E-1
2.896180E+2	8.712090E-1	9.001288E-1	8.767998E-1	9.079440E-1	8.343980E-1	9.403217E-1	8.961603E-1	8.569690E-1	9.215934E-1	8.598317E-1	9.318046E-1	8.740600E-1	8.841741E-1	9.039467E-1	8.897567E-1	8.615498E-1	8.583583E-1	8.772325E-1	9.102454E-1	9.634726E-1	8.827434E-1	8.660785E-1	9.125455E-1	9.028664E-1	9.069353E-1	9.197846E-1	8.454510E-1	9.130816E-1	8.888348E-1	8.676272E-1	9.342205E-1	8.893315E-1	9.240957E-1	8.337401E-1	8.205537E-1	8.986590E-1	9.210144E-1	9.700473E-1	8.715344E-1	8.703663E-1	8.648108E-1	8.877162E-1	9.156765E-1	9.564433E-1	9.121671E-1	9.318646E-1	8.681490E-1	8.562587E-1	9.326370E-1	8.723463E-1	9.407900E-1	9.123196E-1	8.679685E-1	8.960379E-1	9.108244E-1	8.877410E-1	9.115815E-1	8.969882E-1	8.837358E-1	9.360722E-1	9.317461E-1	9.012185E-1	8.992822E-1	8.768426E-1	9.674012E-1	9.391524E-1	8.880257E-1	9.349826E-1	8.418876E-1	9.450453E-1	9.058485E-1	8.875641E-1	8.929476E-1	9.402640E-1	9.001727E-1	9.223922E-1	8.983942E-1	8.954796E-1	9.296307E-1	9.474712E-1	9.262793E-1	8.709130E-1	9.426646E-1	9.316416E-1	9.709179E-1	9.642052E-1	9.159901E-1	9.212166E-1	8.805938E-1	8.598546E-1	9.221365E-1	8.758269E-1	9.383890E-1	8.681482E-1	9.300380E-1	8.884478E-1	9.018879E-1	8.970605E-1	9.362697E-1	8.930250E-1	9.045350E-1	8.939361E-1	9.465371E-1	9.246431E-1	9.059321E-1	8.816961E-1	9.533147E-1	9.244097E-1	9.369999E-1	8.551806E-1	9.407934E-1	8.996337E-1	8.597781E-1	8.819516E-1	9.018990E-1	9.007622E-1	9.522262E-1	8.738370E-1	9.084479E-1	8.803115E-1	9.417321E-1	9.059811E-1	9.080337E-1	9.024184E-1	9.398266E-1	8.722661E-1	9.620276E-1	9.303176E-1	9.473739E-1	9.027516E-1	9.703343E-1	9.243749E-1	9.221500E-1	9.570875E-1	9.182999E-1	9.151100E-1	9.015808E-1	8.981283E-1	9.014586E-1	9.013102E-1	8.790434E-1	8.973508E-1	9.010456E-1	9.046431E-1	9.175983E-1	9.083011E-1	9.018452E-1	8.903947E-1	9.205618E-1	9.208495E-1	9.677463E-1	8.282071E-1	9.114806E-1	9.090649E-1	9.072712E-1	8.671694E-1	9.627152E-1	9.271947E-1	9.502548E-1	8.825185E-1	8.603709E-1	9.471234E-1	8.705884E-1	8.341625E-1	9.424475E-1	9.026143E-1	9.263814E-1	9.018863E-1	9.329172E-1	9.968250E-1	9.011433E-1	9.391683E-1
2.898030E+2	8.154186E-1	7.437091E-1	8.237638E-1	8.214991E-1	8.003768E-1	7.951013E-1	8.126608E-1	8.474059E-1	7.994914E-1	7.952564E-1	7.872442E-1	8.567632E-1	7.951369E-1	7.718274E-1	7.841127E-1	8.160250E-1	7.986567E-1	8.105240E-1	8.104356E-1	8.658146E-1	7.866630E-1	7.830898E-1	8.223223E-1	8.260998E-1	8.002168E-1	8.228405E-1	8.048874E-1	8.020866E-1	7.833255E-1	8.159516E-1	8.128548E-1	8.178777E-1	8.570147E-1	7.355829E-1	8.012649E-1	7.637724E-1	8.059650E-1	8.296161E-1	8.477178E-1	8.480687E-1	8.125116E-1	8.299723E-1	8.183895E-1	8.655540E-1	8.144962E-1	7.900469E-1	8.224193E-1	8.196175E-1	8.444932E-1	8.094892E-1	8.221806E-1	8.406047E-1	8.107841E-1	8.415780E-1	8.553491E-1	8.007007E-1	8.213963E-1	8.188348E-1	8.400588E-1	8.141517E-1	7.681893E-1	8.301666E-1	7.956326E-1	8.201849E-1	8.048382E-1	8.043342E-1	7.812071E-1	8.538549E-1	8.224149E-1	8.301770E-1	8.487867E-1	8.083498E-1	8.366100E-1	8.280851E-1	8.187053E-1	7.883988E-1	8.273345E-1	8.051348E-1	7.933836E-1	7.774430E-1	8.179262E-1	8.580450E-1	8.439473E-1	8.341860E-1	7.954596E-1	8.395233E-1	7.940216E-1	8.636189E-1	7.628869E-1	8.494998E-1	8.420127E-1	7.629324E-1	7.773523E-1	7.855684E-1	7.609472E-1	8.123701E-1	8.262198E-1	8.141950E-1	8.296750E-1	8.687778E-1	8.188205E-1	8.066534E-1	8.114640E-1	8.225307E-1	8.089428E-1	7.708658E-1	8.043979E-1	7.814777E-1	7.898804E-1	8.016811E-1	7.918611E-1	8.450066E-1	8.563088E-1	8.083256E-1	8.023171E-1	8.226189E-1	8.548502E-1	8.115870E-1	8.550737E-1	8.039931E-1	8.767704E-1	8.371682E-1	8.354254E-1	8.432949E-1	8.306121E-1	7.688398E-1	8.256538E-1	7.925101E-1	8.574368E-1	7.917504E-1	8.434866E-1	8.144713E-1	8.469749E-1	8.760695E-1	8.621279E-1	8.169420E-1	7.771692E-1	8.225876E-1	8.288088E-1	8.482118E-1	8.674054E-1	8.128997E-1	8.504596E-1	8.748256E-1	8.330112E-1	8.008279E-1	8.134278E-1	7.846685E-1	7.999424E-1	8.767909E-1	8.529658E-1	7.899343E-1	7.933070E-1	8.016591E-1	8.357412E-1	7.945656E-1	8.282615E-1	8.426316E-1	8.723422E-1	7.954183E-1	8.192397E-1	8.226324E-1	8.341201E-1	8.085464E-1	8.441042E-1	8.167520E-1	8.633542E-1	8.235277E-1	8.348776E-1	8.444715E-1	9.137493E-1	7.389584E-1
2.900030E+2	7.094422E-1	6.934500E-1	7.139870E-1	7.144087E-1	7.185414E-1	7.318459E-1	7.101695E-1	7.041706E-1	7.256682E-1	7.287120E-1	7.386814E-1	7.161787E-1	7.032378E-1	6.980987E-1	6.688711E-1	6.990231E-1	7.139776E-1	7.090238E-1	7.591015E-1	7.507583E-1	7.093004E-1	7.091147E-1	7.375267E-1	7.345690E-1	6.937543E-1	7.561493E-1	7.088037E-1	6.831028E-1	6.798319E-1	7.177401E-1	7.420942E-1	7.075094E-1	7.455613E-1	7.138667E-1	6.852325E-1	6.986692E-1	7.101564E-1	7.287813E-1	7.529465E-1	7.786577E-1	6.913453E-1	7.258603E-1	7.205800E-1	7.363452E-1	7.616345E-1	7.002577E-1	7.524695E-1	7.287384E-1	6.736700E-1	7.071521E-1	7.205713E-1	7.068849E-1	7.429571E-1	6.793643E-1	6.995046E-1	7.434901E-1	7.290077E-1	7.354160E-1	6.806442E-1	7.296863E-1	8.076907E-1	7.398084E-1	7.003102E-1	7.219904E-1	7.297067E-1	7.284577E-1	7.396043E-1	7.189808E-1	7.499413E-1	7.196690E-1	7.094204E-1	6.942335E-1	6.992295E-1	7.627701E-1	6.905729E-1	7.227208E-1	7.426079E-1	7.338296E-1	7.059842E-1	7.376488E-1	7.453098E-1	7.328176E-1	7.036269E-1	7.188451E-1	7.183163E-1	7.230276E-1	7.215523E-1	7.122617E-1	6.915951E-1	7.016539E-1	7.256282E-1	7.009600E-1	6.952432E-1	7.164140E-1	7.245400E-1	6.734069E-1	7.152813E-1	7.240364E-1	7.265779E-1	7.323783E-1	7.203326E-1	7.404482E-1	7.170486E-1	7.197513E-1	7.224917E-1	7.494796E-1	7.055765E-1	6.771607E-1	7.375579E-1	6.914052E-1	7.060639E-1	7.437644E-1	6.992625E-1	7.013667E-1	7.218883E-1	7.260566E-1	7.199924E-1	7.268260E-1	7.126314E-1	6.849704E-1	6.810665E-1	7.116331E-1	7.575127E-1	7.018281E-1	7.283296E-1	7.044013E-1	7.082944E-1	7.117742E-1	7.485466E-1	7.042911E-1	7.318303E-1	7.495369E-1	7.395723E-1	7.047980E-1	7.356734E-1	7.211232E-1	7.060484E-1	7.084287E-1	7.860040E-1	7.155812E-1	7.118707E-1	7.072186E-1	7.085522E-1	7.696972E-1	7.429937E-1	6.779680E-1	7.745559E-1	7.206669E-1	7.847820E-1	7.365703E-1	7.467459E-1	7.108259E-1	7.584985E-1	7.246959E-1	7.346116E-1	7.136014E-1	7.056161E-1	7.182525E-1	7.367419E-1	7.044729E-1	6.755829E-1	7.114130E-1	7.732742E-1	6.958895E-1	6.930928E-1	7.492133E-1	6.915909E-1	7.825477E-1	6.995487E-1	6.676474E-1	6.793716E-1	7.771569E-1
2.905220E+2	8.047019E-1	7.660620E-1	7.710480E-1	7.597998E-1	7.210969E-1	7.661139E-1	7.913585E-1	7.772123E-1	7.338193E-1	8.035535E-1	7.980613E-1	8.028921E-1	7.377834E-1	7.804586E-1	7.301770E-1	7.942377E-1	7.490321E-1	7.620727E-1	7.817443E-1	8.165818E-1	8.364318E-1	7.724979E-1	8.040106E-1	7.785159E-1	7.166423E-1	8.033875E-1	7.482162E-1	7.865901E-1	7.616592E-1	7.453249E-1	7.969158E-1	7.745864E-1	8.033471E-1	7.894351E-1	7.587279E-1	7.654378E-1	7.564335E-1	8.465693E-1	8.107159E-1	7.934759E-1	8.125005E-1	7.444135E-1	7.717539E-1	7.893723E-1	7.383605E-1	7.593395E-1	7.733843E-1	7.731021E-1	8.103267E-1	7.855823E-1	7.584661E-1	7.650912E-1	7.667913E-1	7.740289E-1	8.172864E-1	7.808041E-1	8.098397E-1	8.014961E-1	7.857168E-1	7.641694E-1	7.997835E-1	7.638709E-1	7.147001E-1	7.559516E-1	7.662830E-1	7.599365E-1	8.343946E-1	8.091317E-1	7.903963E-1	7.918040E-1	8.044792E-1	7.792746E-1	7.321596E-1	8.475855E-1	7.614324E-1	7.449490E-1	7.497107E-1	7.755673E-1	7.685413E-1	7.314508E-1	8.090379E-1	8.035873E-1	7.754779E-1	8.036188E-1	8.014133E-1	8.063692E-1	7.437138E-1	8.153568E-1	7.766590E-1	7.608784E-1	7.806375E-1	7.636009E-1	8.005215E-1	7.852237E-1	7.812283E-1	7.775810E-1	7.036643E-1	8.006411E-1	8.061201E-1	7.717702E-1	7.991440E-1	7.635441E-1	8.243009E-1	8.210936E-1	7.814471E-1	8.317635E-1	7.743460E-1	7.508463E-1	7.441049E-1	7.405335E-1	8.032815E-1	8.199913E-1	8.181217E-1	8.154090E-1	7.893475E-1	7.383686E-1	8.042613E-1	7.798989E-1	7.924941E-1	7.343940E-1	7.806656E-1	7.783449E-1	8.391330E-1	7.652452E-1	7.515237E-1	7.933774E-1	7.530566E-1	7.690989E-1	7.846819E-1	7.316148E-1	8.167787E-1	7.913689E-1	7.886697E-1	7.784026E-1	8.092263E-1	8.094629E-1	8.023109E-1	8.180620E-1	7.810849E-1	7.679313E-1	7.971058E-1	8.653639E-1	7.951973E-1	7.577898E-1	7.606122E-1	7.745205E-1	7.658672E-1	7.675888E-1	7.957558E-1	7.815608E-1	7.272937E-1	7.685783E-1	7.970436E-1	7.613483E-1	7.681035E-1	7.998261E-1	7.948012E-1	7.823918E-1	8.339781E-1	7.705755E-1	7.939994E-1	8.242813E-1	8.129655E-1	7.543497E-1	7.612517E-1	8.002477E-1	7.584972E-1	7.715693E-1	7.844327E-1	7.743779E-1	7.738904E-1	8.043370E-1
2.910040E+2	1.024982E+0	9.696975E-1	9.880218E-1	1.007272E+0	9.456872E-1	1.004664E+0	9.328844E-1	9.818168E-1	1.023880E+0	1.016944E+0	9.669042E-1	1.001070E+0	9.992231E-1	1.016128E+0	9.921679E-1	1.005319E+0	1.008115E+0	1.004669E+0	1.002065E+0	1.067782E+0	9.855945E-1	9.814030E-1	9.981249E-1	1.066101E+0	9.552474E-1	9.623118E-1	9.665774E-1	9.603734E-1	9.038032E-1	9.412980E-1	1.015236E+0	9.663748E-1	1.012979E+0	9.535262E-1	1.010745E+0	9.953100E-1	9.910882E-1	9.760844E-1	9.853768E-1	1.030338E+0	1.028822E+0	9.958091E-1	9.532550E-1	1.033590E+0	1.006603E+0	9.690502E-1	9.828819E-1	1.022120E+0	1.033724E+0	1.045383E+0	1.032343E+0	1.009874E+0	1.002657E+0	9.473195E-1	9.906630E-1	9.722758E-1	1.047672E+0	1.025040E+0	1.025927E+0	9.875954E-1	1.033188E+0	9.547068E-1	1.004531E+0	1.036150E+0	1.012925E+0	1.006036E+0	1.049500E+0	9.765281E-1	9.697355E-1	1.019908E+0	1.043404E+0	1.009488E+0	1.016931E+0	1.027055E+0	1.031998E+0	1.033249E+0	9.874122E-1	1.000971E+0	1.047208E+0	9.750473E-1	1.006330E+0	9.951971E-1	1.056608E+0	1.037662E+0	9.834492E-1	9.469034E-1	1.012313E+0	1.030820E+0	1.007469E+0	1.049481E+0	9.986751E-1	9.772465E-1	1.071669E+0	9.404321E-1	9.745155E-1	1.029562E+0	9.783051E-1	1.062462E+0	9.883614E-1	1.019170E+0	9.714743E-1	1.017191E+0	1.043949E+0	1.041385E+0	1.013045E+0	1.022722E+0	1.003891E+0	9.764565E-1	9.881712E-1	9.934492E-1	9.957875E-1	1.038961E+0	1.037236E+0	1.009275E+0	1.045446E+0	1.031830E+0	1.073512E+0	1.023946E+0	1.024676E+0	1.006047E+0	1.000152E+0	1.028597E+0	1.002858E+0	9.686835E-1	1.018888E+0	1.013120E+0	1.050262E+0	1.003066E+0	1.035766E+0	1.039536E+0	9.917458E-1	9.876838E-1	1.069517E+0	1.033702E+0	1.014824E+0	9.970166E-1	1.026784E+0	1.032887E+0	1.023954E+0	1.011311E+0	1.010938E+0	1.056832E+0	1.041051E+0	9.867356E-1	9.785825E-1	1.009508E+0	1.040941E+0	9.733205E-1	1.009133E+0	1.014056E+0	9.735450E-1	1.015218E+0	9.813648E-1	1.011596E+0	1.001219E+0	1.025983E+0	1.018458E+0	9.684568E-1	1.022827E+0	1.036225E+0	1.055285E+0	1.028921E+0	9.553314E-1	1.025508E+0	1.036543E+0	9.989432E-1	1.015632E+0	1.045391E+0	1.046882E+0	9.443603E-1	1.052425E+0	1.003897E+0
2.915150E+2	1.206928E+0	1.145156E+0	1.142974E+0	1.130276E+0	1.153066E+0	1.200321E+0	1.203871E+0	1.184940E+0	1.205160E+0	1.167948E+0	1.143331E+0	1.159390E+0	1.165719E+0	1.188776E+0	1.210882E+0	1.174631E+0	1.182206E+0	1.149101E+0	1.243823E+0	1.116669E+0	1.176826E+0	1.165385E+0	1.252599E+0	1.180566E+0	1.114333E+0	1.186559E+0	1.171054E+0	1.213261E+0	1.157925E+0	1.177570E+0	1.189246E+0	1.213022E+0	1.170042E+0	1.176514E+0	1.169527E+0	1.169249E+0	1.165545E+0	1.102882E+0	1.169314E+0	1.231109E+0	1.153725E+0	1.106878E+0	1.249473E+0	1.238400E+0	1.173746E+0	1.131364E+0	1.145204E+0	1.231640E+0	1.205893E+0	1.192256E+0	1.210415E+0	1.113593E+0	1.125845E+0	1.146812E+0	1.163689E+0	1.163679E+0	1.214084E+0	1.142705E+0	1.187776E+0	1.148101E+0	1.181896E+0	1.173238E+0	1.202088E+0	1.217200E+0	1.166013E+0	1.167241E+0	1.175137E+0	1.165584E+0	1.144477E+0	1.162696E+0	1.230167E+0	1.179122E+0	1.126214E+0	1.180249E+0	1.199883E+0	1.270294E+0	1.180831E+0	1.150237E+0	1.178227E+0	1.167237E+0	1.182762E+0	1.207479E+0	1.236474E+0	1.142959E+0	1.202980E+0	1.169939E+0	1.207724E+0	1.180005E+0	1.169662E+0	1.146586E+0	1.166086E+0	1.198484E+0	1.153839E+0	1.181327E+0	1.189432E+0	1.155243E+0	1.166183E+0	1.177160E+0	1.177902E+0	1.164271E+0	1.247153E+0	1.203597E+0	1.209535E+0	1.152108E+0	1.184666E+0	1.175439E+0	1.190916E+0	1.116481E+0	1.185152E+0	1.173524E+0	1.154728E+0	1.185497E+0	1.218039E+0	1.090637E+0	1.151991E+0	1.173918E+0	1.110827E+0	1.171785E+0	1.198927E+0	1.188411E+0	1.127146E+0	1.217985E+0	1.205713E+0	1.113069E+0	1.211564E+0	1.164387E+0	1.196094E+0	1.136566E+0	1.199899E+0	1.181768E+0	1.156035E+0	1.218223E+0	1.175853E+0	1.210724E+0	1.147944E+0	1.135415E+0	1.206363E+0	1.235952E+0	1.183508E+0	1.179318E+0	1.137352E+0	1.237416E+0	1.287514E+0	1.162584E+0	1.221354E+0	1.210859E+0	1.218126E+0	1.128485E+0	1.176130E+0	1.183015E+0	1.150256E+0	1.156120E+0	1.193195E+0	1.198167E+0	1.184654E+0	1.165971E+0	1.154260E+0	1.191646E+0	1.201329E+0	1.137513E+0	1.177792E+0	1.169640E+0	1.229966E+0	1.166732E+0	1.205791E+0	1.135030E+0	1.238018E+0	1.125783E+0	1.186505E+0	1.159321E+0	1.231080E+0	1.159344E+0
2.920010E+2	1.106018E+0	1.109121E+0	1.107857E+0	1.091581E+0	1.046330E+0	1.029416E+0	1.096711E+0	1.058135E+0	1.074771E+0	1.085295E+0	1.068306E+0	1.058861E+0	1.007595E+0	1.072624E+0	1.073538E+0	1.009256E+0	1.134352E+0	1.043279E+0	1.144715E+0	1.088294E+0	9.796345E-1	1.151294E+0	1.122557E+0	1.098417E+0	1.023926E+0	1.020814E+0	1.025194E+0	1.005157E+0	1.033261E+0	1.095148E+0	1.050171E+0	1.017279E+0	9.858594E-1	1.098031E+0	1.068906E+0	1.118564E+0	1.027466E+0	1.041214E+0	1.095688E+0	1.052306E+0	1.073153E+0	1.076333E+0	1.066018E+0	1.051861E+0	1.097078E+0	1.048999E+0	1.014079E+0	1.098454E+0	1.045984E+0	1.062408E+0	1.004170E+0	1.001315E+0	1.092327E+0	1.072934E+0	1.076964E+0	1.044724E+0	1.001386E+0	1.075258E+0	1.128547E+0	1.072299E+0	1.049040E+0	1.009647E+0	1.098618E+0	1.051800E+0	1.025488E+0	1.065703E+0	1.082359E+0	1.078364E+0	1.035875E+0	1.075017E+0	1.124240E+0	1.095836E+0	1.113291E+0	1.073866E+0	1.115428E+0	1.076965E+0	1.075067E+0	1.069996E+0	1.063905E+0	1.096657E+0	1.019200E+0	1.124130E+0	1.140827E+0	1.006352E+0	1.026717E+0	1.021046E+0	1.043933E+0	1.051951E+0	1.100337E+0	1.015202E+0	1.054718E+0	1.077029E+0	1.081335E+0	1.047520E+0	1.066214E+0	1.022737E+0	1.082853E+0	1.052384E+0	1.084262E+0	1.020972E+0	1.085264E+0	1.125847E+0	1.090063E+0	1.056604E+0	1.073416E+0	1.076833E+0	1.067572E+0	1.020512E+0	1.073973E+0	1.055457E+0	1.083199E+0	1.074235E+0	1.061381E+0	1.108970E+0	1.091767E+0	1.074181E+0	1.075109E+0	1.096295E+0	1.098434E+0	1.015810E+0	1.039681E+0	1.072744E+0	1.082141E+0	1.064887E+0	1.134963E+0	1.064803E+0	1.017671E+0	1.113238E+0	1.155362E+0	1.028911E+0	1.039966E+0	1.038687E+0	1.057235E+0	1.072574E+0	1.101663E+0	1.066505E+0	1.040831E+0	1.113383E+0	1.035450E+0	1.044035E+0	1.053563E+0	1.131159E+0	1.081219E+0	1.115136E+0	1.099732E+0	1.055528E+0	1.104479E+0	1.087008E+0	1.106965E+0	1.083415E+0	1.101264E+0	1.076305E+0	1.012780E+0	1.067006E+0	1.045928E+0	1.075965E+0	1.092827E+0	1.074484E+0	1.014400E+0	1.086696E+0	1.054374E+0	1.090809E+0	1.075253E+0	9.458666E-1	1.043053E+0	1.034735E+0	1.131618E+0	1.037714E+0	1.119724E+0	1.045425E+0	1.162353E+0	1.081308E+0
2.925020E+2	1.047704E+0	1.027080E+0	1.035532E+0	1.051606E+0	1.011100E+0	1.039800E+0	1.051039E+0	1.066052E+0	1.096345E+0	1.092826E+0	1.027852E+0	1.042933E+0	1.079449E+0	1.039566E+0	1.007349E+0	1.030044E+0	1.079029E+0	1.109072E+0	1.068431E+0	1.141682E+0	1.042198E+0	1.044749E+0	1.110237E+0	1.045219E+0	1.060738E+0	1.058142E+0	1.099167E+0	9.728446E-1	1.061569E+0	1.097826E+0	1.062942E+0	1.021557E+0	1.080783E+0	1.034502E+0	1.054742E+0	1.101457E+0	1.007510E+0	1.090256E+0	1.121192E+0	1.007595E+0	1.084903E+0	1.057032E+0	1.082777E+0	1.099153E+0	1.113871E+0	1.052042E+0	1.095945E+0	1.091286E+0	1.099561E+0	1.053222E+0	1.055947E+0	1.093848E+0	1.034766E+0	1.093060E+0	1.082877E+0	1.017829E+0	1.105369E+0	1.105101E+0	1.082293E+0	1.092931E+0	1.054981E+0	1.026737E+0	1.063732E+0	1.027247E+0	1.037000E+0	1.045569E+0	1.052404E+0	1.082254E+0	1.089390E+0	1.041708E+0	1.058817E+0	1.051727E+0	1.034119E+0	1.101262E+0	1.032195E+0	1.048140E+0	1.052288E+0	1.057639E+0	1.024479E+0	1.077890E+0	1.043712E+0	1.034289E+0	1.103298E+0	1.054991E+0	1.089689E+0	1.079831E+0	1.056989E+0	1.095591E+0	1.098961E+0	1.023752E+0	1.073545E+0	9.937939E-1	1.039074E+0	1.030141E+0	1.073609E+0	1.055272E+0	1.071847E+0	1.061354E+0	1.031348E+0	1.061037E+0	1.085909E+0	1.017264E+0	1.068908E+0	1.061063E+0	1.060879E+0	1.081238E+0	1.089255E+0	1.039732E+0	1.078091E+0	1.064317E+0	1.084543E+0	1.041314E+0	1.076508E+0	1.046978E+0	1.069066E+0	1.032289E+0	1.126773E+0	1.077960E+0	1.034379E+0	1.010888E+0	1.083222E+0	1.021999E+0	1.178212E+0	1.065133E+0	1.084887E+0	1.068331E+0	1.076923E+0	1.110110E+0	1.065219E+0	1.126338E+0	1.096646E+0	1.088903E+0	1.031258E+0	1.150366E+0	1.108044E+0	1.039015E+0	1.058431E+0	1.070783E+0	1.038034E+0	1.060074E+0	1.078437E+0	1.118249E+0	1.076712E+0	1.028714E+0	1.103378E+0	1.075108E+0	1.058723E+0	1.098444E+0	1.079567E+0	1.135570E+0	1.129652E+0	1.033441E+0	1.066784E+0	1.095252E+0	1.141735E+0	1.089687E+0	1.102670E+0	1.068332E+0	1.056976E+0	1.077604E+0	1.063040E+0	1.084071E+0	1.072073E+0	1.063038E+0	1.030260E+0	1.056333E+0	1.077492E+0	1.065849E+0	1.097682E+0	9.815099E-1	1.133359E+0	1.074471E+0
2.930020E+2	1.056366E+0	1.094270E+0	1.164166E+0	1.108959E+0	1.097645E+0	1.127683E+0	1.079325E+0	1.079258E+0	1.125920E+0	1.115852E+0	1.130488E+0	1.045998E+0	1.116882E+0	1.067445E+0	1.064654E+0	1.094624E+0	1.094039E+0	1.103649E+0	1.100541E+0	1.150585E+0	1.114723E+0	1.138475E+0	1.076595E+0	1.123863E+0	1.027485E+0	1.061284E+0	1.148984E+0	1.043910E+0	1.162140E+0	1.103693E+0	1.080863E+0	1.079241E+0	1.114065E+0	1.094629E+0	1.093067E+0	1.100573E+0	1.141328E+0	1.139855E+0	1.088072E+0	1.135258E+0	1.090930E+0	1.072479E+0	1.069341E+0	1.078293E+0	1.091182E+0	1.117775E+0	1.156027E+0	1.100478E+0	1.185068E+0	1.116081E+0	1.114410E+0	1.146795E+0	1.112890E+0	1.145358E+0	1.101645E+0	1.085643E+0	1.144942E+0	1.127625E+0	1.108601E+0	1.162164E+0	1.105716E+0	1.120327E+0	1.041194E+0	1.140167E+0	1.112915E+0	1.158396E+0	1.177065E+0	1.151502E+0	1.098679E+0	1.129579E+0	1.104747E+0	1.101748E+0	1.092242E+0	1.188333E+0	1.181194E+0	1.127951E+0	1.124227E+0	1.106785E+0	1.115392E+0	1.138377E+0	1.077932E+0	1.170000E+0	1.135075E+0	1.136060E+0	1.101030E+0	1.121643E+0	1.169292E+0	1.096552E+0	1.057710E+0	1.093476E+0	1.165656E+0	1.074520E+0	1.136740E+0	1.102601E+0	1.090644E+0	1.118376E+0	1.103297E+0	1.157208E+0	1.103863E+0	1.107754E+0	1.139143E+0	1.104875E+0	1.145957E+0	1.197526E+0	1.095167E+0	1.118482E+0	1.174687E+0	1.081794E+0	1.098019E+0	1.109639E+0	1.116353E+0	1.163338E+0	1.087401E+0	1.128278E+0	1.117141E+0	1.118289E+0	1.127702E+0	1.120424E+0	1.106486E+0	1.072988E+0	1.133466E+0	1.163654E+0	1.169355E+0	1.085912E+0	1.179338E+0	1.072927E+0	1.149330E+0	1.181032E+0	1.174368E+0	1.152048E+0	1.108827E+0	1.109492E+0	1.145800E+0	1.161263E+0	1.169822E+0	1.109718E+0	1.113056E+0	1.090143E+0	1.104109E+0	1.063638E+0	1.116251E+0	1.142799E+0	1.156281E+0	1.141131E+0	1.181232E+0	1.078787E+0	1.195193E+0	1.121151E+0	1.170181E+0	1.138698E+0	1.224221E+0	1.118692E+0	1.113390E+0	1.093885E+0	1.093971E+0	1.176457E+0	1.183496E+0	1.135429E+0	1.137747E+0	1.101151E+0	1.204081E+0	1.130761E+0	1.109501E+0	1.105804E+0	1.152315E+0	1.145331E+0	1.176750E+0	1.120291E+0	1.135096E+0	1.152316E+0	1.130523E+0	1.092937E+0
2.935120E+2	1.156441E+0	1.113544E+0	1.105533E+0	1.161255E+0	1.105914E+0	1.136943E+0	1.161025E+0	1.148861E+0	1.150695E+0	1.163684E+0	1.096336E+0	1.128861E+0	1.165534E+0	1.094245E+0	1.148313E+0	1.145117E+0	1.211529E+0	1.175304E+0	1.143717E+0	1.232735E+0	1.107167E+0	1.196263E+0	1.213075E+0	1.128908E+0	1.157735E+0	1.118839E+0	1.079274E+0	1.132412E+0	1.136711E+0	1.163902E+0	1.126713E+0	1.096824E+0	1.083439E+0	1.174282E+0	1.247494E+0	1.193763E+0	1.127863E+0	1.117301E+0	1.177868E+0	1.220762E+0	1.180098E+0	1.117517E+0	1.158974E+0	1.169731E+0	1.180579E+0	1.100148E+0	1.180170E+0	1.112562E+0	1.177053E+0	1.103743E+0	1.128852E+0	1.175683E+0	1.101870E+0	1.154319E+0	1.140731E+0	1.171492E+0	1.166957E+0	1.163151E+0	1.155948E+0	1.161078E+0	1.172702E+0	1.114772E+0	1.162557E+0	1.131053E+0	1.126568E+0	1.115578E+0	1.214134E+0	1.137384E+0	1.118118E+0	1.170610E+0	1.133601E+0	1.125660E+0	1.152093E+0	1.174238E+0	1.148713E+0	1.172460E+0	1.148092E+0	1.190716E+0	1.159254E+0	1.170428E+0	1.162040E+0	1.113090E+0	1.121044E+0	1.188829E+0	1.139978E+0	1.160532E+0	1.154335E+0	1.183432E+0	1.115089E+0	1.134238E+0	1.157411E+0	1.108874E+0	1.148461E+0	1.150309E+0	1.179279E+0	1.156916E+0	1.115688E+0	1.123168E+0	1.103696E+0	1.105582E+0	1.152935E+0	1.137157E+0	1.169901E+0	1.160386E+0	1.094838E+0	1.144614E+0	1.236130E+0	1.063238E+0	1.124977E+0	1.142540E+0	1.176148E+0	1.195290E+0	1.165414E+0	1.121400E+0	1.169573E+0	1.159182E+0	1.199214E+0	1.136518E+0	1.201982E+0	1.133385E+0	1.132743E+0	1.198534E+0	1.206760E+0	1.153061E+0	1.208832E+0	1.175969E+0	1.117342E+0	1.094130E+0	1.170499E+0	1.223404E+0	1.112465E+0	1.166134E+0	1.193641E+0	1.171214E+0	1.266587E+0	1.166998E+0	1.129175E+0	1.151551E+0	1.167109E+0	1.161973E+0	1.144969E+0	1.181491E+0	1.170921E+0	1.184215E+0	1.162365E+0	1.146120E+0	1.188000E+0	1.176251E+0	1.154501E+0	1.235121E+0	1.212548E+0	1.135720E+0	1.135940E+0	1.115106E+0	1.165682E+0	1.172805E+0	1.193623E+0	1.119723E+0	1.163684E+0	1.139795E+0	1.145935E+0	1.153300E+0	1.191839E+0	1.164982E+0	1.195575E+0	1.194216E+0	1.134358E+0	1.102216E+0	1.132016E+0	1.100191E+0	1.175646E+0	1.137797E+0
2.940110E+2	1.042461E+0	9.778853E-1	1.038653E+0	1.026462E+0	9.430883E-1	9.901243E-1	9.761039E-1	9.127805E-1	1.006916E+0	9.879506E-1	9.707995E-1	1.024261E+0	1.012633E+0	1.042813E+0	9.726392E-1	1.014050E+0	1.020516E+0	9.893702E-1	1.001092E+0	1.017560E+0	1.039432E+0	9.963702E-1	1.020920E+0	1.073526E+0	1.015866E+0	1.013093E+0	9.972269E-1	9.620355E-1	9.640800E-1	1.000820E+0	1.035620E+0	9.703343E-1	1.019848E+0	1.022706E+0	1.048225E+0	1.016892E+0	1.065786E+0	1.023228E+0	1.027248E+0	1.069547E+0	1.020586E+0	1.029893E+0	9.742068E-1	9.543772E-1	9.810194E-1	1.003159E+0	9.988940E-1	1.004156E+0	1.023529E+0	1.002823E+0	1.017001E+0	9.915247E-1	9.930452E-1	1.033906E+0	1.019453E+0	9.678757E-1	1.044753E+0	1.021292E+0	9.875983E-1	9.899594E-1	1.069802E+0	9.652147E-1	1.025101E+0	9.882157E-1	9.800573E-1	1.004289E+0	9.598539E-1	1.058662E+0	1.040387E+0	1.039334E+0	9.746248E-1	1.040755E+0	1.001761E+0	1.009602E+0	1.003630E+0	1.014767E+0	1.037988E+0	9.254964E-1	9.855050E-1	1.026900E+0	1.012032E+0	9.691879E-1	9.874742E-1	9.971499E-1	1.007516E+0	1.057659E+0	1.007713E+0	1.065275E+0	9.836010E-1	9.803753E-1	9.985412E-1	1.028656E+0	9.861651E-1	9.858924E-1	9.586713E-1	9.737600E-1	1.038149E+0	1.010751E+0	9.668621E-1	9.329687E-1	1.031220E+0	9.804595E-1	1.065433E+0	1.052081E+0	9.844219E-1	1.050337E+0	1.032086E+0	9.845983E-1	1.047138E+0	1.030223E+0	1.017013E+0	9.972621E-1	9.814461E-1	9.975146E-1	9.915869E-1	1.059285E+0	1.046774E+0	1.027925E+0	1.032546E+0	1.003305E+0	1.005199E+0	1.027237E+0	1.080960E+0	1.027660E+0	1.035396E+0	1.035942E+0	1.020110E+0	1.021266E+0	1.038741E+0	1.048030E+0	9.975442E-1	1.020692E+0	9.839173E-1	1.033143E+0	1.052781E+0	9.925424E-1	9.875002E-1	1.025832E+0	1.028289E+0	1.055196E+0	9.559784E-1	1.047569E+0	1.056664E+0	1.013401E+0	1.033759E+0	1.005978E+0	1.015286E+0	1.025719E+0	9.729908E-1	1.039390E+0	9.919622E-1	1.013610E+0	1.004769E+0	9.711985E-1	9.759865E-1	9.907809E-1	1.033542E+0	9.890340E-1	1.053754E+0	1.027610E+0	1.072815E+0	1.058650E+0	1.028104E+0	9.820093E-1	1.003643E+0	9.965270E-1	1.033123E+0	1.025148E+0	9.809155E-1	9.956553E-1	1.117976E+0	9.778018E-1
2.945010E+2	9.269751E-1	8.946247E-1	8.867696E-1	8.698965E-1	8.516731E-1	8.958740E-1	8.831086E-1	8.567809E-1	8.900922E-1	8.336217E-1	8.890691E-1	9.323330E-1	8.742504E-1	8.967460E-1	8.759232E-1	9.322873E-1	9.252688E-1	9.488099E-1	8.844968E-1	9.076191E-1	8.986272E-1	9.216800E-1	8.804296E-1	8.885105E-1	9.083491E-1	8.750644E-1	8.828936E-1	8.903504E-1	8.599995E-1	9.264536E-1	8.763530E-1	8.810313E-1	9.679135E-1	8.879409E-1	9.120756E-1	8.235141E-1	8.785912E-1	9.301446E-1	8.708207E-1	9.697455E-1	8.852625E-1	9.222202E-1	8.719574E-1	8.909819E-1	8.776731E-1	9.021813E-1	8.927351E-1	9.372288E-1	8.724012E-1	8.840587E-1	8.983666E-1	8.918388E-1	8.657019E-1	9.032732E-1	9.073676E-1	8.653987E-1	9.069419E-1	9.054532E-1	9.029363E-1	9.029172E-1	9.019735E-1	9.039154E-1	8.842270E-1	8.772394E-1	8.950403E-1	9.068593E-1	9.194278E-1	9.041407E-1	8.875306E-1	8.818586E-1	9.125182E-1	8.540266E-1	9.063721E-1	9.312521E-1	9.142310E-1	8.364656E-1	9.072819E-1	9.119521E-1	9.287173E-1	9.187702E-1	8.973671E-1	9.237005E-1	9.177451E-1	8.837477E-1	8.762561E-1	9.010682E-1	8.818361E-1	8.808632E-1	8.648970E-1	8.822721E-1	9.142367E-1	8.283754E-1	9.356440E-1	8.984954E-1	8.365727E-1	9.109291E-1	9.124703E-1	9.014593E-1	8.783663E-1	8.949696E-1	8.793735E-1	8.944448E-1	9.521199E-1	8.760528E-1	8.572137E-1	9.138954E-1	9.146020E-1	9.003608E-1	8.638485E-1	9.383230E-1	8.878001E-1	9.134478E-1	9.303675E-1	9.116376E-1	9.022528E-1	8.834290E-1	9.488061E-1	9.208288E-1	8.657019E-1	8.950932E-1	9.002158E-1	9.107491E-1	9.141039E-1	9.123640E-1	9.469385E-1	8.949209E-1	9.241295E-1	9.251679E-1	9.329537E-1	9.241417E-1	9.055609E-1	9.308021E-1	8.838759E-1	9.054964E-1	9.732196E-1	8.837607E-1	8.653436E-1	8.775599E-1	9.102520E-1	9.266406E-1	8.906682E-1	9.527151E-1	9.063557E-1	8.758216E-1	9.535215E-1	8.577379E-1	9.003163E-1	8.701660E-1	8.786674E-1	9.332053E-1	9.234661E-1	8.769043E-1	9.138163E-1	8.947924E-1	8.923574E-1	9.554545E-1	8.891454E-1	8.797043E-1	9.511556E-1	8.477425E-1	9.119170E-1	9.625374E-1	8.744737E-1	9.168196E-1	8.878513E-1	8.902397E-1	9.539341E-1	8.661157E-1	8.463116E-1	8.217490E-1	9.942700E-1	8.027960E-1
2.950070E+2	9.212078E-1	9.241514E-1	9.617667E-1	9.416477E-1	9.301425E-1	1.007080E+0	9.555062E-1	9.637143E-1	1.007966E+0	9.638955E-1	9.426203E-1	9.695255E-1	9.361816E-1	9.221697E-1	9.492520E-1	9.424996E-1	9.753568E-1	9.166272E-1	9.569781E-1	9.788758E-1	9.588533E-1	9.579466E-1	9.471809E-1	9.405909E-1	9.787042E-1	9.298477E-1	9.535296E-1	9.074710E-1	9.442841E-1	9.611956E-1	9.503361E-1	9.160948E-1	9.645388E-1	9.360638E-1	9.169716E-1	9.667460E-1	9.307964E-1	9.816790E-1	8.894329E-1	1.001710E+0	9.746324E-1	9.400867E-1	9.566770E-1	9.454099E-1	9.747161E-1	9.798478E-1	9.725691E-1	9.120251E-1	9.324017E-1	9.012999E-1	9.614364E-1	9.506456E-1	9.382999E-1	9.988618E-1	9.505774E-1	9.507071E-1	9.459174E-1	1.002391E+0	9.064574E-1	9.663213E-1	9.926696E-1	9.657841E-1	9.687733E-1	9.645338E-1	9.421720E-1	9.867209E-1	9.697676E-1	9.415771E-1	9.660060E-1	9.823834E-1	9.456266E-1	9.340233E-1	9.141971E-1	9.955321E-1	9.623035E-1	9.204492E-1	9.004309E-1	9.185792E-1	9.425005E-1	9.666118E-1	9.491110E-1	9.477440E-1	9.837742E-1	9.931179E-1	8.769671E-1	9.651767E-1	9.351817E-1	9.556038E-1	9.321775E-1	9.764676E-1	9.184209E-1	9.332757E-1	9.937884E-1	9.093994E-1	9.216793E-1	9.422582E-1	9.506077E-1	9.690364E-1	9.325987E-1	9.884429E-1	9.936222E-1	9.697316E-1	9.363406E-1	9.398961E-1	8.969338E-1	9.668852E-1	8.746005E-1	9.301904E-1	9.545942E-1	9.680077E-1	9.976192E-1	9.652541E-1	9.833201E-1	9.406422E-1	9.665864E-1	9.378782E-1	1.016939E+0	9.521765E-1	9.761124E-1	9.456859E-1	9.744882E-1	9.824334E-1	9.919852E-1	9.475061E-1	9.668936E-1	9.999318E-1	9.306933E-1	9.376144E-1	9.604788E-1	9.108318E-1	9.653044E-1	9.721573E-1	9.579346E-1	9.894904E-1	9.730424E-1	9.593916E-1	9.547833E-1	9.702299E-1	9.382394E-1	9.168005E-1	9.588150E-1	9.711298E-1	9.926427E-1	9.710343E-1	9.374427E-1	9.206605E-1	9.786557E-1	9.992223E-1	9.506057E-1	9.899457E-1	9.605589E-1	9.491817E-1	9.747948E-1	1.010555E+0	9.324937E-1	9.550755E-1	9.265897E-1	9.547034E-1	9.386842E-1	9.536638E-1	9.729392E-1	9.643999E-1	9.623983E-1	9.416380E-1	9.640050E-1	9.643528E-1	1.003939E+0	9.429860E-1	9.042650E-1	9.761187E-1	1.021078E+0	9.355950E-1
2.955070E+2	1.041223E+0	1.049047E+0	1.107359E+0	1.009891E+0	1.076776E+0	1.052384E+0	1.072569E+0	1.079285E+0	1.106738E+0	1.002072E+0	1.003880E+0	1.066533E+0	1.047728E+0	1.083683E+0	1.088347E+0	1.059809E+0	1.103739E+0	1.089817E+0	1.098285E+0	1.114521E+0	1.102437E+0	1.049365E+0	1.056590E+0	1.099643E+0	1.034911E+0	1.051685E+0	1.116427E+0	1.071669E+0	1.052564E+0	1.059643E+0	1.052517E+0	1.056177E+0	1.084295E+0	1.045125E+0	1.045095E+0	1.011590E+0	1.051562E+0	1.077050E+0	1.082942E+0	1.161511E+0	1.043180E+0	1.010351E+0	1.059695E+0	1.105381E+0	1.043821E+0	1.113268E+0	1.045581E+0	1.086406E+0	1.156508E+0	1.063091E+0	1.116065E+0	1.105494E+0	1.084286E+0	1.068805E+0	1.055326E+0	1.093640E+0	1.085900E+0	1.065510E+0	1.065069E+0	1.087194E+0	1.082554E+0	1.059150E+0	1.048203E+0	1.061969E+0	1.068662E+0	1.027346E+0	1.139310E+0	1.125424E+0	1.070094E+0	1.088998E+0	1.078373E+0	9.778031E-1	1.100851E+0	1.108355E+0	1.104648E+0	1.066177E+0	1.099933E+0	1.158405E+0	1.056304E+0	1.041878E+0	1.084951E+0	1.055956E+0	1.104540E+0	1.099656E+0	1.077066E+0	1.125389E+0	1.096955E+0	1.097167E+0	1.113383E+0	1.079121E+0	1.039481E+0	1.059353E+0	1.127635E+0	1.026366E+0	1.075848E+0	1.056083E+0	1.072087E+0	1.100436E+0	1.050073E+0	1.023852E+0	1.105166E+0	1.066265E+0	1.027331E+0	1.125795E+0	1.063995E+0	1.033147E+0	1.064195E+0	1.037494E+0	1.090279E+0	1.046515E+0	1.091947E+0	1.063571E+0	1.110665E+0	1.063132E+0	1.045703E+0	1.113304E+0	1.044276E+0	1.076664E+0	1.083332E+0	1.106796E+0	1.068211E+0	1.133599E+0	1.080707E+0	1.053323E+0	1.072285E+0	1.069385E+0	1.057709E+0	1.137603E+0	1.056043E+0	1.036054E+0	1.093048E+0	1.095279E+0	1.071069E+0	1.101313E+0	1.108693E+0	1.112620E+0	1.076876E+0	1.063008E+0	1.105551E+0	1.131609E+0	1.097641E+0	1.106018E+0	1.044079E+0	1.036649E+0	1.078469E+0	1.042471E+0	1.037758E+0	1.085380E+0	1.100671E+0	1.135505E+0	1.076293E+0	1.101198E+0	1.054506E+0	1.043006E+0	1.088905E+0	1.046070E+0	1.084310E+0	1.125599E+0	1.106093E+0	1.011891E+0	1.065750E+0	1.104508E+0	1.134637E+0	1.132984E+0	1.103600E+0	1.093785E+0	1.065937E+0	1.075465E+0	1.078413E+0	9.768945E-1	1.142650E+0	1.110052E+0
2.960050E+2	1.186244E+0	1.133503E+0	1.142138E+0	1.177164E+0	1.093813E+0	1.150027E+0	1.100653E+0	1.114185E+0	1.129698E+0	1.087227E+0	1.174816E+0	1.087030E+0	1.183724E+0	1.126905E+0	1.095728E+0	1.095215E+0	1.133875E+0	1.109934E+0	1.112323E+0	1.177475E+0	1.140636E+0	1.169816E+0	1.136827E+0	1.158761E+0	1.118605E+0	1.139428E+0	1.067998E+0	1.103597E+0	1.086737E+0	1.119231E+0	1.123585E+0	1.107982E+0	1.170248E+0	1.113786E+0	1.102417E+0	1.147829E+0	1.095589E+0	1.139440E+0	1.153943E+0	1.186200E+0	1.155568E+0	1.047013E+0	1.124163E+0	1.133267E+0	1.122697E+0	1.135130E+0	1.153476E+0	1.148024E+0	1.158276E+0	1.166704E+0	1.116530E+0	1.140562E+0	1.114638E+0	1.095098E+0	1.053676E+0	1.097820E+0	1.182206E+0	1.163115E+0	1.148343E+0	1.199775E+0	1.165801E+0	1.073098E+0	1.135730E+0	1.124784E+0	1.123250E+0	1.133144E+0	1.136506E+0	1.139623E+0	1.094035E+0	1.147502E+0	1.149621E+0	1.111355E+0	1.152708E+0	1.126314E+0	1.080660E+0	1.167097E+0	1.102807E+0	1.154901E+0	1.139741E+0	1.119906E+0	1.127293E+0	1.093019E+0	1.138702E+0	1.108959E+0	1.113679E+0	1.138049E+0	1.140311E+0	1.165053E+0	1.089786E+0	1.092752E+0	1.136268E+0	1.056300E+0	1.175771E+0	1.130687E+0	1.118897E+0	1.169556E+0	1.122524E+0	1.121014E+0	1.114680E+0	1.159689E+0	1.158388E+0	1.085626E+0	1.154168E+0	1.136296E+0	1.096428E+0	1.079652E+0	1.088190E+0	1.003291E+0	1.124664E+0	1.125786E+0	1.110956E+0	1.139342E+0	1.184238E+0	1.093229E+0	1.168908E+0	1.164615E+0	1.122085E+0	1.137876E+0	1.143423E+0	1.144854E+0	1.151948E+0	1.140942E+0	1.154598E+0	1.136712E+0	1.141813E+0	1.192127E+0	1.082655E+0	1.132362E+0	1.245839E+0	1.109707E+0	1.102737E+0	1.131812E+0	1.128816E+0	1.168590E+0	1.154748E+0	1.166321E+0	1.129601E+0	1.129213E+0	1.140589E+0	1.148979E+0	1.162302E+0	1.196933E+0	1.203146E+0	1.146445E+0	1.165742E+0	1.100368E+0	1.105337E+0	1.108298E+0	1.203515E+0	1.189429E+0	1.129553E+0	1.122925E+0	1.079270E+0	1.165023E+0	1.117894E+0	1.139592E+0	1.113585E+0	1.130150E+0	1.133501E+0	1.074836E+0	1.113621E+0	1.182175E+0	1.151390E+0	1.120380E+0	1.141185E+0	1.131685E+0	1.109758E+0	1.108245E+0	1.080695E+0	1.143607E+0	1.126645E+0	1.131977E+0
2.965010E+2	1.117553E+0	1.049064E+0	1.015055E+0	1.085408E+0	1.042302E+0	1.083255E+0	1.042602E+0	1.102400E+0	1.045566E+0	1.082112E+0	1.101745E+0	1.101740E+0	1.076402E+0	1.054983E+0	1.036436E+0	1.065288E+0	1.090627E+0	1.049661E+0	1.035389E+0	1.125127E+0	1.077853E+0	1.053392E+0	1.060566E+0	1.025955E+0	1.090891E+0	1.054325E+0	1.043894E+0	1.028909E+0	1.042542E+0	1.040173E+0	1.016346E+0	1.064240E+0	1.049794E+0	1.050633E+0	1.094698E+0	1.071028E+0	1.040006E+0	1.059137E+0	1.109402E+0	1.071453E+0	1.067842E+0	1.029831E+0	1.067918E+0	1.086946E+0	1.092945E+0	1.048005E+0	1.064709E+0	1.042036E+0	1.141677E+0	1.018145E+0	1.018740E+0	1.075676E+0	9.968838E-1	1.079169E+0	1.006934E+0	1.015174E+0	1.073502E+0	1.134849E+0	1.076234E+0	1.021428E+0	1.102933E+0	1.019566E+0	9.939709E-1	1.051896E+0	1.070006E+0	1.077221E+0	1.075927E+0	1.082098E+0	1.021949E+0	1.084259E+0	1.080020E+0	1.076359E+0	1.096389E+0	1.068685E+0	1.061125E+0	1.090254E+0	1.068878E+0	1.034365E+0	1.076512E+0	1.024751E+0	1.099672E+0	1.046579E+0	1.057568E+0	1.109534E+0	1.056783E+0	1.076630E+0	1.035992E+0	1.070367E+0	1.025374E+0	1.051129E+0	1.024215E+0	1.048093E+0	1.067875E+0	1.075947E+0	1.051183E+0	1.059989E+0	1.059231E+0	1.017761E+0	1.050606E+0	1.054585E+0	1.057707E+0	1.040922E+0	1.062898E+0	1.091649E+0	1.021353E+0	1.097128E+0	1.066524E+0	1.058628E+0	1.081113E+0	1.058321E+0	1.053539E+0	1.065043E+0	1.033462E+0	1.012644E+0	1.069021E+0	1.074080E+0	1.107433E+0	1.073599E+0	1.061686E+0	1.046265E+0	1.048395E+0	1.111135E+0	1.061834E+0	1.068316E+0	1.074422E+0	1.060397E+0	1.065744E+0	1.051491E+0	1.051652E+0	1.050051E+0	1.034772E+0	1.068621E+0	1.074835E+0	1.131618E+0	1.061198E+0	1.082982E+0	1.021738E+0	1.075300E+0	1.089201E+0	1.060672E+0	1.055747E+0	1.073683E+0	1.034501E+0	1.017925E+0	1.046433E+0	1.061946E+0	1.083491E+0	1.089757E+0	1.075684E+0	1.086830E+0	1.062076E+0	1.059427E+0	1.038474E+0	1.079053E+0	1.090837E+0	1.075484E+0	1.060405E+0	1.051561E+0	1.083660E+0	1.033045E+0	1.102580E+0	1.112192E+0	1.053280E+0	1.053821E+0	1.070758E+0	1.038622E+0	1.043351E+0	1.084854E+0	1.025143E+0	1.015545E+0	9.434861E-1	9.954345E-1
2.970040E+2	9.464344E-1	9.594920E-1	1.003776E+0	9.963385E-1	9.622909E-1	9.614798E-1	9.434935E-1	9.694285E-1	9.467681E-1	9.700919E-1	9.904383E-1	9.823145E-1	9.592415E-1	9.756512E-1	9.883926E-1	9.714379E-1	9.980904E-1	9.847141E-1	9.471071E-1	9.697305E-1	9.261351E-1	9.448627E-1	9.724824E-1	9.833806E-1	9.664031E-1	9.818750E-1	9.333562E-1	9.554388E-1	1.002365E+0	9.780310E-1	9.649539E-1	9.878496E-1	9.709017E-1	9.378153E-1	9.558655E-1	9.786418E-1	9.313057E-1	9.520734E-1	9.519649E-1	9.883826E-1	9.709985E-1	9.532719E-1	9.570516E-1	9.715656E-1	9.633079E-1	9.850965E-1	9.637094E-1	1.006389E+0	9.587222E-1	9.747894E-1	9.888330E-1	9.699883E-1	9.623886E-1	9.566538E-1	9.616644E-1	9.334016E-1	1.010394E+0	9.785771E-1	9.640542E-1	9.421614E-1	1.014173E+0	9.468116E-1	9.429421E-1	9.608769E-1	9.626580E-1	9.713636E-1	9.844655E-1	9.740764E-1	9.455485E-1	9.927402E-1	9.823368E-1	9.384690E-1	9.614200E-1	9.588638E-1	9.678281E-1	9.708734E-1	9.987542E-1	9.584003E-1	9.711964E-1	9.388414E-1	9.826103E-1	9.025734E-1	9.984384E-1	9.346148E-1	9.424718E-1	9.406173E-1	9.596176E-1	9.849569E-1	9.538502E-1	9.543605E-1	9.422739E-1	9.366622E-1	1.047572E+0	9.390162E-1	9.637781E-1	9.710716E-1	9.342563E-1	9.460373E-1	9.365768E-1	9.286796E-1	9.785939E-1	9.734762E-1	9.596557E-1	9.604766E-1	9.665990E-1	9.744987E-1	9.655937E-1	9.807516E-1	9.897959E-1	9.581693E-1	9.291020E-1	1.024971E+0	9.178711E-1	9.405188E-1	9.524404E-1	1.010437E+0	1.019676E+0	9.552274E-1	9.663381E-1	9.694511E-1	9.462352E-1	9.914282E-1	1.009260E+0	9.697412E-1	1.007723E+0	9.648148E-1	9.824396E-1	9.560767E-1	9.670165E-1	9.142232E-1	9.634609E-1	1.002061E+0	1.007600E+0	9.907524E-1	9.621988E-1	1.010708E+0	9.744371E-1	9.973253E-1	1.005721E+0	9.447325E-1	1.013088E+0	1.036485E+0	9.990823E-1	9.511554E-1	9.758300E-1	9.485432E-1	9.481760E-1	9.525884E-1	1.003291E+0	9.943506E-1	9.539423E-1	9.465779E-1	9.101041E-1	9.666105E-1	9.608831E-1	9.557796E-1	1.005143E+0	9.991830E-1	9.820390E-1	9.704978E-1	9.867846E-1	9.562326E-1	9.871678E-1	9.509532E-1	9.814429E-1	9.705902E-1	9.585241E-1	9.597065E-1	9.502481E-1	9.534705E-1	1.038649E+0	9.285317E-1
2.975020E+2	1.023175E+0	9.992689E-1	9.845092E-1	9.953070E-1	9.375503E-1	9.893316E-1	9.684389E-1	1.017942E+0	1.008835E+0	1.038204E+0	9.936272E-1	1.008497E+0	9.830317E-1	1.008316E+0	9.894321E-1	1.005610E+0	9.886825E-1	9.622162E-1	1.007375E+0	1.082790E+0	9.927974E-1	1.029409E+0	1.020718E+0	1.027286E+0	9.925301E-1	1.036340E+0	9.877458E-1	1.013521E+0	9.933627E-1	1.037584E+0	1.007161E+0	1.002926E+0	9.602919E-1	1.002299E+0	9.890244E-1	9.620927E-1	9.704695E-1	1.036753E+0	9.796887E-1	1.021928E+0	1.019373E+0	9.884878E-1	9.906291E-1	1.010976E+0	1.010395E+0	9.514417E-1	9.907144E-1	9.513916E-1	1.043973E+0	9.430127E-1	1.011142E+0	1.027724E+0	9.799879E-1	1.015108E+0	1.003557E+0	9.873647E-1	1.045291E+0	9.975990E-1	9.968908E-1	1.074687E+0	1.033405E+0	1.035324E+0	9.760258E-1	1.001367E+0	1.039284E+0	9.648106E-1	1.012734E+0	9.733038E-1	9.885592E-1	1.017093E+0	1.001297E+0	9.698215E-1	1.043253E+0	1.008172E+0	9.922723E-1	9.893070E-1	1.009352E+0	9.970226E-1	1.038304E+0	9.908251E-1	9.575190E-1	1.009508E+0	9.780637E-1	1.075582E+0	9.634086E-1	9.921799E-1	9.945413E-1	9.764974E-1	9.538001E-1	9.626653E-1	1.017588E+0	1.007963E+0	1.014369E+0	9.823106E-1	9.504791E-1	1.007967E+0	9.175435E-1	9.566103E-1	9.881347E-1	9.883550E-1	1.028669E+0	1.045944E+0	1.007742E+0	9.794649E-1	9.906594E-1	1.015039E+0	9.978995E-1	9.984929E-1	1.000155E+0	9.999400E-1	9.668219E-1	1.042176E+0	1.052647E+0	9.957099E-1	1.002166E+0	1.021314E+0	1.024238E+0	9.840294E-1	9.912288E-1	9.751717E-1	1.010609E+0	9.876246E-1	1.032703E+0	9.846419E-1	1.018342E+0	9.893238E-1	1.002851E+0	9.942821E-1	1.005417E+0	1.005373E+0	1.048818E+0	1.021646E+0	1.007697E+0	1.066756E+0	9.999792E-1	1.021510E+0	9.983473E-1	9.965682E-1	1.010035E+0	9.678377E-1	9.707278E-1	1.000641E+0	1.028490E+0	1.015378E+0	9.973102E-1	9.944086E-1	1.010966E+0	1.008078E+0	1.008287E+0	1.054555E+0	1.014573E+0	9.742923E-1	9.820316E-1	9.367933E-1	9.851766E-1	1.000593E+0	9.720818E-1	9.947867E-1	1.016355E+0	1.004600E+0	1.034783E+0	1.030725E+0	1.048711E+0	9.921670E-1	1.015439E+0	1.001373E+0	1.050161E+0	9.799413E-1	9.416710E-1	9.323913E-1	1.042675E+0	9.834269E-1
2.980040E+2	1.035636E+0	1.016074E+0	1.007931E+0	1.006079E+0	1.035480E+0	1.027856E+0	1.007385E+0	1.043682E+0	9.883712E-1	9.980607E-1	1.052864E+0	1.070133E+0	1.025446E+0	1.030976E+0	1.033257E+0	1.017719E+0	1.052626E+0	9.766099E-1	1.043258E+0	1.027681E+0	9.968113E-1	1.017315E+0	1.055037E+0	1.049965E+0	1.045256E+0	1.036380E+0	1.044276E+0	1.025331E+0	1.075115E+0	1.025385E+0	1.043438E+0	1.042472E+0	1.025299E+0	1.017595E+0	9.972976E-1	9.901354E-1	1.022150E+0	1.035101E+0	1.036650E+0	1.039010E+0	1.044683E+0	1.064176E+0	1.021380E+0	1.027757E+0	1.012873E+0	1.006496E+0	1.044906E+0	1.107552E+0	1.014116E+0	1.035950E+0	1.032202E+0	1.003805E+0	1.059866E+0	1.053507E+0	1.030329E+0	1.038953E+0	1.042633E+0	1.044194E+0	1.033735E+0	9.884542E-1	1.023196E+0	9.963400E-1	1.027646E+0	1.062471E+0	1.037443E+0	1.040085E+0	1.002731E+0	1.050930E+0	1.005870E+0	1.038836E+0	1.027122E+0	1.025636E+0	9.870140E-1	1.007459E+0	1.037975E+0	1.037307E+0	1.022769E+0	1.022713E+0	1.037215E+0	1.027932E+0	1.074949E+0	1.043879E+0	1.041093E+0	1.003112E+0	9.790410E-1	9.931915E-1	1.010420E+0	1.039804E+0	1.043906E+0	9.880549E-1	1.030340E+0	1.017091E+0	1.013614E+0	1.017150E+0	1.070633E+0	1.034407E+0	1.064368E+0	1.024404E+0	1.054598E+0	1.050761E+0	1.013268E+0	1.021799E+0	1.021629E+0	1.041521E+0	1.017067E+0	1.026790E+0	1.047350E+0	1.035817E+0	1.067745E+0	1.017030E+0	1.022850E+0	1.025773E+0	1.018871E+0	1.015217E+0	1.011373E+0	1.059054E+0	1.063142E+0	1.015600E+0	1.055613E+0	1.008350E+0	1.006504E+0	1.060186E+0	1.017078E+0	1.038545E+0	9.789452E-1	9.752869E-1	1.010572E+0	1.036285E+0	1.049436E+0	1.017325E+0	1.003781E+0	1.029997E+0	1.037246E+0	1.016706E+0	1.045458E+0	1.031457E+0	1.034654E+0	1.005406E+0	9.820534E-1	1.003265E+0	1.023843E+0	1.059762E+0	1.061587E+0	1.004378E+0	1.031588E+0	1.052579E+0	1.056069E+0	1.039090E+0	1.051557E+0	1.004579E+0	1.048803E+0	9.987729E-1	1.025945E+0	1.036796E+0	1.008503E+0	1.054469E+0	9.911140E-1	1.027246E+0	1.049211E+0	1.033988E+0	1.077356E+0	1.053192E+0	1.000892E+0	1.013487E+0	1.038824E+0	1.036785E+0	1.004637E+0	1.058804E+0	1.005606E+0	1.040807E+0	1.043134E+0	1.026501E+0
2.985010E+2	1.059170E+0	1.049538E+0	1.027455E+0	1.092470E+0	1.055884E+0	1.046897E+0	1.041856E+0	1.022820E+0	1.092298E+0	1.033245E+0	1.032419E+0	1.069286E+0	1.054094E+0	1.041852E+0	1.016487E+0	1.040610E+0	1.038715E+0	1.074511E+0	1.051186E+0	1.075046E+0	1.084075E+0	1.056426E+0	1.051821E+0	1.079144E+0	1.032983E+0	1.037294E+0	1.022603E+0	1.041517E+0	1.002011E+0	1.033389E+0	1.060019E+0	1.055470E+0	1.083863E+0	1.059195E+0	1.076537E+0	1.027477E+0	1.009138E+0	1.044200E+0	1.053559E+0	1.038619E+0	1.052271E+0	1.033492E+0	1.082331E+0	1.051652E+0	1.093031E+0	1.071137E+0	1.027345E+0	1.005805E+0	1.050443E+0	1.036162E+0	1.050008E+0	1.053326E+0	1.047168E+0	1.056944E+0	1.053303E+0	1.037161E+0	1.059821E+0	1.039277E+0	1.066445E+0	1.111307E+0	1.044491E+0	1.033643E+0	1.043408E+0	1.068891E+0	1.056237E+0	1.025342E+0	1.069042E+0	1.046257E+0	1.030696E+0	1.033013E+0	1.052739E+0	1.046875E+0	1.063124E+0	1.059815E+0	1.078410E+0	1.050224E+0	1.058650E+0	1.065831E+0	1.038788E+0	1.073812E+0	1.021436E+0	1.053138E+0	1.062730E+0	1.064610E+0	1.065324E+0	1.071937E+0	1.067995E+0	1.035233E+0	1.054281E+0	1.058981E+0	1.029415E+0	1.063929E+0	1.039195E+0	1.055206E+0	1.018624E+0	1.022576E+0	1.053193E+0	1.068717E+0	1.051539E+0	1.053803E+0	1.076051E+0	1.073003E+0	1.069016E+0	1.045125E+0	1.038567E+0	1.050984E+0	1.077106E+0	1.023629E+0	1.047178E+0	1.066427E+0	1.065880E+0	1.044624E+0	1.003426E+0	1.000736E+0	1.046384E+0	1.030457E+0	1.029119E+0	1.062481E+0	1.039333E+0	1.073238E+0	1.062387E+0	1.042707E+0	1.072551E+0	9.918089E-1	1.056745E+0	1.046333E+0	1.084573E+0	1.039633E+0	1.074040E+0	1.015352E+0	1.056577E+0	1.057889E+0	1.029538E+0	1.005782E+0	1.032387E+0	1.057105E+0	1.050608E+0	1.056928E+0	1.033629E+0	1.014663E+0	1.082833E+0	1.044104E+0	1.061573E+0	1.086640E+0	1.038665E+0	1.041390E+0	1.039337E+0	1.032803E+0	1.032717E+0	1.049154E+0	1.061089E+0	1.062895E+0	1.028737E+0	1.019094E+0	1.051358E+0	1.027042E+0	9.913325E-1	1.049043E+0	1.054614E+0	1.065167E+0	1.046084E+0	9.872422E-1	1.091865E+0	1.044388E+0	1.051183E+0	1.054328E+0	1.047218E+0	1.039083E+0	1.046597E+0	1.030120E+0	1.052323E+0	1.044417E+0
2.990020E+2	1.012502E+0	1.029153E+0	1.048752E+0	9.996381E-1	9.930594E-1	1.031556E+0	1.020704E+0	1.012703E+0	9.958204E-1	1.018479E+0	9.865798E-1	1.000821E+0	1.023325E+0	9.910134E-1	1.001286E+0	1.025925E+0	9.717085E-1	1.035501E+0	1.037882E+0	1.007986E+0	1.018234E+0	9.941889E-1	9.869184E-1	9.868934E-1	1.002182E+0	9.856109E-1	1.020699E+0	1.002936E+0	9.806639E-1	1.013669E+0	9.748740E-1	9.906327E-1	9.479658E-1	9.934922E-1	1.035029E+0	1.056464E+0	1.037860E+0	1.004635E+0	9.847834E-1	1.023558E+0	1.020996E+0	1.015902E+0	1.009336E+0	1.011786E+0	9.800703E-1	9.789119E-1	1.007596E+0	9.966504E-1	1.024623E+0	9.860074E-1	9.984073E-1	1.002668E+0	1.005706E+0	9.710795E-1	1.015337E+0	1.027615E+0	9.861110E-1	9.684548E-1	1.012577E+0	1.016214E+0	1.034874E+0	1.005119E+0	1.004970E+0	9.921024E-1	1.007175E+0	1.001225E+0	1.040732E+0	9.701725E-1	1.025547E+0	1.013489E+0	9.960663E-1	1.018127E+0	1.048925E+0	1.026331E+0	9.767643E-1	1.024233E+0	1.027247E+0	9.834364E-1	1.018750E+0	9.927018E-1	1.015190E+0	1.006224E+0	9.857093E-1	1.013587E+0	1.000865E+0	1.032101E+0	9.920048E-1	1.000826E+0	1.008147E+0	9.875153E-1	1.049440E+0	1.028325E+0	1.014090E+0	1.017734E+0	1.021402E+0	1.032712E+0	9.667820E-1	9.976017E-1	9.758006E-1	1.043723E+0	9.796270E-1	1.008296E+0	1.019554E+0	1.019203E+0	9.993460E-1	9.940638E-1	9.675182E-1	1.043286E+0	9.955757E-1	9.803473E-1	9.702104E-1	9.901227E-1	1.000799E+0	1.011301E+0	9.922348E-1	9.844190E-1	9.769152E-1	1.048998E+0	1.002243E+0	9.936194E-1	1.019886E+0	9.949546E-1	1.005438E+0	1.036502E+0	1.038266E+0	9.989514E-1	9.662887E-1	1.004533E+0	9.684227E-1	9.794685E-1	1.022856E+0	1.051980E+0	9.871024E-1	1.021663E+0	9.985291E-1	9.793471E-1	1.001254E+0	1.035185E+0	1.034035E+0	1.036302E+0	1.003182E+0	9.936234E-1	9.931317E-1	9.887096E-1	1.012965E+0	1.003558E+0	9.764758E-1	9.992472E-1	1.025606E+0	9.875820E-1	9.958838E-1	1.002609E+0	1.008723E+0	1.005857E+0	9.939109E-1	9.566939E-1	1.022020E+0	1.021859E+0	9.733461E-1	1.000206E+0	9.570841E-1	1.012180E+0	1.007378E+0	1.051461E+0	1.018008E+0	9.809594E-1	9.883010E-1	1.048206E+0	1.013432E+0	1.044905E+0	9.919329E-1	9.867276E-1
2.995040E+2	9.154925E-1	9.587796E-1	9.527897E-1	9.193474E-1	9.215406E-1	9.279471E-1	9.412720E-1	9.366801E-1	9.214302E-1	9.427754E-1	9.557981E-1	9.175941E-1	9.481951E-1	9.553211E-1	9.566327E-1	9.490753E-1	9.203316E-1	9.574065E-1	9.260941E-1	9.130390E-1	9.335367E-1	9.461363E-1	9.539643E-1	9.163501E-1	9.403413E-1	9.294412E-1	9.337593E-1	9.143068E-1	9.726852E-1	9.275785E-1	9.527508E-1	9.223581E-1	9.509266E-1	9.429434E-1	9.106867E-1	9.255566E-1	9.283594E-1	9.380077E-1	9.632038E-1	8.999502E-1	9.055756E-1	9.025792E-1	9.076076E-1	9.180452E-1	9.377454E-1	9.315999E-1	9.349723E-1	9.431938E-1	9.200455E-1	9.464918E-1	9.500231E-1	9.255586E-1	9.392326E-1	9.492545E-1	9.323433E-1	9.129541E-1	9.135734E-1	9.761586E-1	9.259073E-1	9.125232E-1	9.361433E-1	9.335212E-1	9.185259E-1	8.713792E-1	9.521183E-1	9.483094E-1	9.055479E-1	9.371287E-1	9.352413E-1	9.176417E-1	9.096023E-1	9.441847E-1	9.206227E-1	9.278346E-1	9.593687E-1	9.314539E-1	9.107460E-1	9.527655E-1	9.490162E-1	9.268397E-1	9.251071E-1	9.193395E-1	9.109265E-1	9.286266E-1	9.592724E-1	9.397892E-1	9.583393E-1	9.322899E-1	9.051232E-1	9.550525E-1	9.178808E-1	9.244387E-1	9.419031E-1	9.231976E-1	9.233782E-1	9.203499E-1	9.444113E-1	9.816701E-1	9.255432E-1	8.883948E-1	9.577143E-1	9.460809E-1	9.100616E-1	9.425047E-1	9.482964E-1	9.358736E-1	9.556066E-1	9.068907E-1	9.070749E-1	9.408749E-1	9.523062E-1	9.236143E-1	9.630005E-1	9.669423E-1	9.764745E-1	9.172589E-1	9.578555E-1	8.973234E-1	9.534541E-1	9.380852E-1	9.760101E-1	9.402210E-1	9.252794E-1	9.230981E-1	9.389818E-1	9.728299E-1	9.645677E-1	9.475899E-1	9.288661E-1	9.829236E-1	9.422899E-1	9.212322E-1	9.461256E-1	9.625859E-1	9.199838E-1	9.535325E-1	9.557132E-1	9.383796E-1	9.698280E-1	9.633423E-1	9.339110E-1	9.123129E-1	9.260207E-1	9.249218E-1	8.872443E-1	9.003290E-1	9.528801E-1	9.772336E-1	9.336669E-1	9.674456E-1	9.375115E-1	9.555578E-1	9.263691E-1	9.539807E-1	9.273890E-1	9.639536E-1	9.614395E-1	9.517259E-1	9.426024E-1	9.323835E-1	9.588955E-1	9.307642E-1	9.214011E-1	9.239747E-1	9.167959E-1	9.556877E-1	9.780201E-1	8.851868E-1	9.668124E-1	9.296622E-1	9.418958E-1	1.003188E+0
3.000040E+2	9.771993E-1	9.464547E-1	9.630719E-1	9.824655E-1	9.940357E-1	9.657437E-1	9.887826E-1	9.841149E-1	1.002080E+0	1.007439E+0	9.723393E-1	9.421664E-1	9.489401E-1	9.808375E-1	9.923368E-1	9.666703E-1	1.016619E+0	9.559716E-1	9.415797E-1	9.762477E-1	9.673430E-1	9.859335E-1	9.522592E-1	9.676478E-1	9.792384E-1	1.011274E+0	9.786625E-1	1.015908E+0	9.695255E-1	9.999790E-1	9.689183E-1	9.890672E-1	9.919461E-1	9.867741E-1	9.804499E-1	1.000366E+0	1.002493E+0	9.780566E-1	9.618041E-1	9.988621E-1	9.764738E-1	9.838503E-1	9.793449E-1	9.907602E-1	9.762805E-1	1.011855E+0	9.851806E-1	9.467986E-1	9.907728E-1	9.953882E-1	9.693603E-1	1.014643E+0	9.480266E-1	9.692151E-1	9.686885E-1	9.833166E-1	9.978618E-1	9.719159E-1	9.613363E-1	9.715010E-1	9.612955E-1	1.031377E+0	1.005451E+0	1.005157E+0	9.470262E-1	9.850383E-1	9.819478E-1	9.955117E-1	1.002645E+0	9.970205E-1	1.014471E+0	9.651779E-1	9.803141E-1	9.785610E-1	9.474824E-1	9.567828E-1	9.805885E-1	9.752545E-1	9.562302E-1	9.787141E-1	9.633175E-1	9.774201E-1	9.995418E-1	9.900650E-1	9.954968E-1	9.629821E-1	9.712406E-1	9.918463E-1	9.885425E-1	1.010397E+0	9.729246E-1	9.662167E-1	9.911976E-1	9.867128E-1	9.659630E-1	9.899552E-1	9.712461E-1	9.276075E-1	9.925195E-1	9.633190E-1	9.733394E-1	9.508201E-1	9.797388E-1	9.516456E-1	9.967236E-1	9.922878E-1	9.524195E-1	9.903774E-1	9.824266E-1	9.953210E-1	9.887529E-1	1.015866E+0	1.013903E+0	1.005803E+0	9.735329E-1	1.008811E+0	9.729678E-1	9.755973E-1	9.493565E-1	9.867071E-1	9.352128E-1	9.619319E-1	9.796538E-1	1.010046E+0	9.870622E-1	1.006598E+0	9.739983E-1	9.719599E-1	9.792355E-1	1.004932E+0	9.744960E-1	9.389025E-1	9.999879E-1	9.932638E-1	1.003643E+0	9.785579E-1	9.577713E-1	9.641013E-1	9.804551E-1	9.824273E-1	9.562308E-1	9.901978E-1	9.576880E-1	9.953509E-1	1.029537E+0	1.002144E+0	9.752377E-1	9.516260E-1	9.564522E-1	9.912391E-1	9.567122E-1	9.801648E-1	1.010225E+0	9.842729E-1	1.018839E+0	9.978418E-1	1.034094E+0	9.501270E-1	9.802258E-1	9.682556E-1	9.605802E-1	1.016621E+0	9.784640E-1	9.666895E-1	9.751889E-1	9.722396E-1	9.818238E-1	9.687195E-1	9.675522E-1	9.545059E-1	9.707147E-1	9.391668E-1
