Photon Energy (eV)	#1	#2	#3	#4	#5	#6	#7	#8	#9	#10	#11	#12	#13	#14	#15	#16	#17	#18	#19	#20	#21	#22	#23	#24	#25	#26	#27	#28	#29	#30	#31	#32	#33	#34	#35	#36	#37	#38	#39	#40	#41	#42	#43	#44	#45	#46	#47	#48	#49	#50	#51	#52	#53	#54	#55	#56	#57	#58	#59	#60	#61	#62	#63	#64	#65	#66	#67	#68	#69	#70	#71	#72	#73	#74	#75	#76	#77	#78	#79	#80	#81	#82	#83	#84	#85	#86	#87	#88	#89	#90	#91	#92	#93	#94	#95	#96	#97	#98	#99	#100	#101	#102	#103	#104	#105	#106	#107	#108	#109	#110	#111	#112	#113	#114	#115	#116	#117	#118	#119	#120	#121	#122	#123	#124	#125	#126	#127	#128	#129	#130	#131	#132	#133	#134	#135	#136	#137	#138	#139	#140	#141	#142	#143	#144	#145	#146	#147	#148	#149	#150	#151	#152	#153	#154	#155	#156	#157	#158	#159	#160	#161	#162	#163	#164	#165	#166	#167	#168	#169	#170	#171	
2.790030E+2	-1.260433E-2	-1.055495E-2	8.652618E-4	1.465063E-3	-1.229022E-2	-7.133776E-3	-1.275094E-2	-3.949367E-3	-1.033866E-4	4.742939E-3	-5.238624E-3	-4.709689E-3	-4.075549E-3	-1.860240E-3	-9.913511E-4	1.309396E-3	-1.287248E-3	-5.401728E-3	-7.371660E-3	-1.584662E-3	-1.021756E-2	-7.966087E-3	-9.801389E-3	6.480115E-3	-3.562415E-3	-1.380449E-3	-5.980102E-3	-2.663430E-3	-1.104499E-2	-3.966754E-3	-3.645562E-3	-1.315932E-2	-8.411775E-3	4.860180E-3	-3.960881E-3	-7.231015E-3	7.161879E-4	-8.733514E-3	-9.069708E-4	1.060960E-3	-6.922844E-3	-1.143868E-2	-8.781664E-3	-5.708785E-3	-3.639276E-3	9.114170E-4	-9.566516E-3	-3.322327E-3	-4.475311E-3	-9.416186E-3	2.894091E-3	-5.658314E-3	-1.395167E-3	1.161809E-3	3.824614E-4	-7.729380E-3	2.130425E-3	-1.083724E-2	-1.683668E-2	-4.823031E-3	-3.801956E-3	-2.741978E-4	-5.896389E-3	4.042267E-3	-4.487918E-3	-6.193832E-3	-7.747793E-3	1.742568E-3	-8.160405E-3	1.210069E-3	-3.234110E-3	2.967443E-3	-4.348429E-3	-8.379043E-3	-3.038672E-3	2.512905E-3	-5.178897E-3	-3.161350E-3	-5.178004E-3	-9.675373E-3	-7.279332E-3	-6.692399E-3	-4.470773E-3	-1.456957E-2	2.206620E-3	-4.399902E-3	-7.339430E-3	-9.472514E-3	4.221888E-3	-2.496410E-3	-6.205257E-4	-1.404878E-2	-3.890168E-3	-8.232559E-3	-7.757617E-3	-8.251474E-3	-4.084902E-3	1.193810E-4	-3.039687E-4	-7.158627E-3	-8.830919E-3	8.315443E-3	-6.809900E-3	-1.005227E-2	-6.643804E-3	-1.049922E-2	1.620845E-3	-8.707268E-3	-8.344401E-4	1.374900E-3	-1.003360E-2	-9.596709E-3	-8.219844E-3	-3.884913E-3	-6.765092E-3	5.187425E-3	-1.121741E-2	2.850378E-3	-1.146936E-2	-3.390072E-3	1.059679E-2	-5.458597E-3	-5.330708E-3	-1.198511E-2	-4.539584E-3	9.770808E-3	-3.918331E-3	-1.016763E-2	-1.159714E-2	-1.047241E-2	5.114400E-3	3.766502E-3	-7.869796E-3	-1.130826E-2	-9.911526E-4	-2.339838E-3	-1.256338E-3	-1.240911E-2	-5.301633E-3	-1.200870E-2	-7.973242E-3	8.985380E-4	4.201363E-4	-1.154563E-2	-6.305066E-3	-3.481217E-3	-1.188194E-2	-1.248413E-2	-1.047013E-2	3.960903E-3	-3.274276E-3	-1.009876E-2	-2.926724E-3	-1.053550E-2	-5.121345E-3	-9.425917E-3	-5.008125E-3	-9.916631E-3	-2.113953E-3	3.766240E-3	1.185590E-3	-1.230555E-2	-6.039743E-3	-3.733282E-3	-1.235534E-4	-2.392827E-3	-4.136965E-3	-6.991440E-4	-6.161833E-3	-2.852527E-3	-2.166067E-2
2.795060E+2	-8.172940E-5	-3.906366E-3	3.816083E-3	3.146079E-3	2.406438E-3	-5.622734E-3	6.763175E-3	6.366188E-4	-4.064029E-3	-5.461030E-3	-9.250087E-3	-1.195503E-2	-4.280654E-3	-6.171231E-3	-7.748698E-3	-1.117085E-2	-9.540343E-3	4.922831E-3	-7.496946E-3	-2.764328E-3	1.768211E-3	-9.672537E-3	4.350489E-3	-2.394544E-3	1.044364E-3	1.506790E-3	-6.167951E-3	-3.752300E-3	8.616295E-4	-7.031524E-3	-2.987913E-3	-4.778058E-3	-7.636754E-3	-6.915181E-3	1.029393E-2	-6.478155E-3	2.948324E-3	-5.066684E-3	-9.746260E-3	-4.728585E-3	-7.086434E-3	-1.860348E-3	6.247036E-4	-2.899803E-3	-8.949668E-3	-7.110693E-4	-6.286826E-3	2.795089E-3	-1.347593E-2	-1.269125E-2	2.648117E-3	-5.801695E-3	-5.689036E-3	-5.579584E-3	-1.401465E-3	-3.900731E-3	-5.689390E-3	-7.952409E-3	-6.885258E-3	-2.205815E-3	-8.502058E-3	-2.468123E-3	-8.949744E-3	-8.557196E-3	-7.754979E-3	-1.007127E-3	2.593811E-3	-6.741495E-3	-5.925818E-3	-1.799880E-3	-1.122394E-3	-2.615562E-3	-1.546696E-2	-3.517297E-3	1.434280E-4	-9.029572E-3	-5.365955E-3	-4.827801E-3	-3.695934E-3	6.838376E-3	-1.260724E-2	5.754593E-3	-1.481211E-2	-7.368568E-3	6.941382E-3	3.442886E-3	-1.401608E-2	-5.243029E-3	-9.563042E-3	-9.787347E-3	-4.610211E-3	-8.874641E-3	-4.825931E-3	-1.013239E-2	-2.353718E-3	-1.549489E-2	-1.128028E-2	-5.008034E-3	-3.418491E-3	-8.316938E-3	-1.775072E-2	1.967531E-3	-8.599190E-3	-1.507147E-2	-8.653635E-3	-4.839931E-4	-4.755594E-3	-2.454136E-3	-3.208515E-3	-6.035380E-3	-4.447579E-3	-7.939962E-3	-3.366461E-3	-8.801176E-4	-3.777410E-3	-1.333404E-2	-4.723742E-3	3.621929E-3	-8.145602E-3	-1.302223E-2	-2.834088E-3	5.523663E-3	4.921461E-3	-1.034315E-2	-4.703644E-3	-3.989104E-3	-8.666843E-3	-1.274022E-2	4.593222E-4	3.294821E-3	-7.105772E-3	-6.395902E-3	-8.892682E-3	-1.716147E-2	-1.155006E-3	4.443352E-3	-4.931922E-3	4.638613E-3	-8.234600E-3	2.926235E-3	-8.461175E-4	6.444993E-3	3.730778E-3	-3.346183E-3	-4.088285E-3	-9.944316E-4	6.730498E-3	-1.918771E-2	-9.839900E-3	-5.367422E-3	-1.008086E-2	2.506776E-3	-1.365855E-2	-8.872455E-3	-8.687399E-3	-1.288225E-3	2.692617E-3	-7.448622E-3	-4.007440E-3	-7.341006E-3	-2.981572E-3	-4.994145E-3	-1.333610E-2	5.282525E-3	-1.146258E-2	2.257457E-3	-1.451887E-3	-1.314640E-2	-9.346624E-3	-5.537350E-4	3.305779E-3
2.800050E+2	-1.073528E-2	-9.094952E-3	-6.660395E-3	-1.350744E-2	-2.910749E-3	-9.831879E-3	1.314868E-3	-7.330828E-3	1.504030E-3	-7.766025E-3	-9.303272E-3	-7.566803E-3	-4.322139E-3	-9.626945E-3	-9.427873E-3	9.184408E-3	-1.404562E-2	3.242554E-3	2.330839E-3	-4.711014E-3	-1.357674E-2	1.777832E-3	-4.740772E-4	-2.434581E-3	-7.679240E-3	-4.736312E-3	-6.211716E-3	-1.514275E-2	-8.908371E-3	-8.503270E-3	1.240341E-3	-6.358552E-3	-1.133183E-2	-1.107717E-2	-1.310552E-2	-1.198644E-2	-7.338236E-3	-7.433355E-3	-1.940866E-3	-1.350756E-2	-4.655030E-3	-1.001208E-2	-4.658893E-3	2.042095E-3	-6.787923E-3	1.364820E-3	1.009757E-2	-6.276916E-3	-5.557172E-3	-1.039228E-2	-1.142397E-2	3.151138E-3	-8.328953E-4	-8.515423E-3	-6.194091E-3	-9.566445E-3	-5.734593E-3	-5.704727E-3	-1.705343E-2	-5.926360E-3	4.944513E-3	-5.166371E-3	-8.065591E-3	-2.017448E-3	-7.027219E-3	-1.636750E-2	-7.029133E-3	-4.059649E-3	-1.161855E-3	-6.042896E-3	-2.067784E-2	-2.664504E-3	-9.180762E-3	-1.028080E-2	-5.002053E-3	-1.472606E-2	-9.383704E-3	9.872380E-4	-3.871930E-4	-1.781086E-2	-1.692753E-2	-1.868872E-3	-8.094628E-3	-9.972454E-4	-8.015739E-3	-1.668840E-2	5.040343E-4	-6.735046E-3	-1.141496E-2	-1.392526E-2	-8.418620E-4	2.562909E-3	-7.144986E-3	-7.187144E-4	-7.885654E-3	-9.220779E-3	-7.847597E-4	-2.423337E-3	-1.722940E-2	-1.124705E-2	-7.443014E-3	-1.103594E-2	1.740333E-3	-3.830688E-3	-8.705259E-3	-5.365554E-4	-5.719752E-3	-5.252591E-3	-2.513697E-3	-5.315908E-3	-6.286272E-3	-1.066596E-2	-9.187527E-3	-7.378935E-3	-9.530120E-3	-1.703845E-2	-6.430711E-3	-6.932644E-3	1.958966E-3	-4.829477E-4	-1.368621E-2	-3.231030E-3	2.146297E-3	2.222137E-3	-3.903353E-3	-6.442081E-3	-6.511737E-3	-6.229566E-4	-1.267132E-2	-4.512255E-3	-4.391043E-3	-3.481725E-3	-6.348241E-3	-8.130548E-3	-6.635505E-3	-7.954632E-3	-1.488491E-3	-1.030244E-2	3.814725E-3	-8.437039E-3	-4.476628E-3	-4.050597E-3	-8.286557E-3	-8.585054E-4	-5.658139E-3	-1.113776E-2	-6.884237E-3	3.284465E-3	-3.771916E-3	-3.670376E-3	-1.005620E-2	-1.177750E-2	1.022488E-2	-1.656063E-2	-7.879209E-3	-4.086019E-3	-1.460899E-2	-3.824499E-3	-3.148658E-3	-1.494081E-2	-8.634390E-3	5.555012E-3	-1.133914E-2	-4.884765E-3	-1.921755E-3	-1.964586E-3	-1.485171E-3	4.147203E-3	4.001596E-3	1.890312E-3	1.329082E-2
2.805050E+2	-3.242222E-3	-6.434013E-3	-1.281037E-2	2.442929E-4	-4.558382E-3	6.204412E-3	-1.380088E-2	-8.901058E-5	-9.636043E-3	-1.156463E-2	-1.634144E-3	-7.477183E-3	-1.225031E-3	-6.114503E-4	-4.436130E-3	-7.044054E-3	-9.505898E-3	-1.122450E-2	-4.177937E-3	1.034699E-4	2.651208E-3	-5.792456E-3	-1.231203E-2	-6.649377E-3	3.982742E-3	-5.405028E-3	6.463970E-3	-2.824827E-3	3.171601E-3	-8.405000E-3	-8.946584E-3	-5.508302E-3	5.204175E-3	-2.673647E-4	-3.162750E-3	-3.652407E-3	-1.523967E-4	-4.211301E-3	-2.615404E-3	-1.103269E-2	-7.863730E-3	-9.920511E-3	-6.300781E-3	-1.570708E-2	-1.550638E-3	-6.264919E-3	1.569141E-3	1.389116E-4	-8.130985E-3	-9.519248E-3	-8.038654E-4	-3.761704E-3	5.018352E-3	-4.048912E-3	-1.333942E-3	-2.227836E-3	-3.093540E-3	3.577180E-3	-1.774952E-3	1.538908E-3	-4.672146E-3	-7.714958E-3	-4.180159E-3	-7.679579E-3	-6.911311E-3	-5.534561E-3	4.562363E-3	-1.310261E-2	-2.389468E-4	-6.628755E-3	2.097570E-3	-6.376342E-3	-7.247286E-3	2.427270E-3	2.766699E-3	-5.738298E-3	-1.087558E-2	-4.734002E-3	-7.001929E-3	-5.007405E-3	-1.409324E-3	-3.436324E-3	-9.684507E-3	-3.641537E-3	-1.703341E-2	-8.554242E-3	-6.653915E-3	-5.908618E-3	4.049350E-3	-1.511360E-3	-8.404430E-3	4.453461E-3	-3.984430E-3	-5.686935E-3	-1.387467E-3	-1.387155E-2	-9.474948E-3	-6.708139E-3	-9.273546E-3	-2.518331E-3	-4.939567E-3	-9.306217E-3	-2.116454E-3	1.148320E-3	-1.297540E-3	-4.582248E-3	-9.234278E-3	-1.338468E-2	-4.591733E-3	-1.645832E-3	-5.285543E-3	-5.205543E-3	-1.734201E-2	-1.372946E-2	-8.469075E-3	-1.603857E-2	-7.962076E-3	-4.558434E-3	3.805237E-3	4.506000E-4	8.908839E-3	-3.091659E-3	-1.479132E-2	-1.297797E-2	-4.612978E-3	-4.958261E-3	-1.644639E-3	-5.350112E-3	-1.288359E-3	-3.561670E-3	-4.279418E-3	-3.295655E-3	-1.937091E-3	1.255136E-3	-9.676857E-3	-4.723919E-3	-8.299826E-3	-1.375792E-2	-6.177313E-3	-3.586406E-3	-3.601485E-3	-9.783957E-3	-1.158204E-2	-3.155926E-3	1.043980E-2	4.919479E-3	4.294934E-3	-2.196681E-3	-5.881859E-3	-1.228298E-3	-2.453214E-3	-3.397900E-3	-8.769959E-3	-5.417854E-3	-7.890598E-4	1.674665E-3	-6.647041E-3	-1.314761E-2	6.721001E-3	-5.554662E-3	4.343255E-4	2.712494E-3	-5.886284E-3	-1.534694E-4	-8.183497E-3	-9.693034E-3	4.778480E-4	-8.989931E-3	-6.283700E-3	-1.123267E-2	1.348881E-2
2.810040E+2	2.504777E-3	8.297335E-3	-3.839836E-3	-8.056827E-3	-4.204086E-3	1.473843E-3	6.220250E-3	9.708334E-4	-9.159945E-3	-1.980689E-3	-5.908560E-3	8.715374E-4	-2.480152E-3	-2.466509E-3	3.148932E-3	-1.393199E-2	1.039456E-2	1.242099E-2	8.444619E-3	-9.775075E-3	1.375312E-3	4.388039E-3	3.869348E-3	-8.497903E-3	-1.088802E-2	7.957348E-3	9.052893E-4	-4.182197E-3	-5.483191E-3	5.470770E-3	-2.556293E-3	4.009477E-3	-2.626081E-3	-8.117352E-3	4.403156E-3	4.693285E-4	4.864051E-3	1.390353E-3	-3.859010E-3	9.021838E-3	3.995686E-3	-2.272829E-3	-5.036232E-3	4.542932E-3	-1.296766E-3	-4.180067E-4	-6.697871E-3	6.786234E-3	1.105748E-3	1.643368E-3	-9.149066E-3	-6.183540E-3	-7.690657E-3	-7.368844E-3	-1.793299E-3	-7.508109E-3	-6.073613E-3	1.507699E-3	5.673078E-3	-2.579098E-3	-5.151933E-3	5.106126E-3	2.755075E-3	6.573606E-3	-3.558073E-3	-1.423203E-3	-1.305338E-2	-3.564514E-3	3.225404E-3	6.006251E-4	8.435971E-3	-3.025305E-3	-8.683148E-3	-1.058528E-2	1.352885E-3	8.245979E-3	5.544475E-4	2.760861E-3	1.699928E-3	1.027366E-2	-1.092964E-3	2.659303E-4	4.127075E-3	3.149684E-3	2.308167E-3	1.250567E-2	8.826466E-4	-5.571554E-3	-7.247491E-3	1.238556E-3	-1.075446E-2	-3.091706E-3	-2.939256E-3	5.419766E-3	-7.784699E-5	-7.154025E-3	-2.885291E-3	-3.692772E-3	-9.790501E-4	3.581838E-3	4.857074E-3	-4.137259E-3	-5.836660E-3	6.434561E-4	-3.632058E-3	4.843789E-3	-2.510610E-3	-3.786712E-3	-5.057917E-3	2.862860E-3	3.108095E-3	-3.080736E-3	-4.600861E-3	-3.703855E-3	-2.372094E-3	1.439561E-2	3.858238E-3	-7.988779E-3	-5.185755E-3	6.772157E-4	-4.065904E-3	-1.132965E-3	-3.942603E-3	5.323361E-3	6.903299E-4	-2.747753E-3	1.516155E-3	1.099180E-2	4.670399E-3	-7.679853E-4	-6.456101E-3	9.853041E-3	6.858259E-3	6.109480E-4	4.717106E-3	-5.171185E-3	-1.042372E-3	2.275801E-3	-6.692798E-3	-3.205650E-3	-7.690542E-3	7.935067E-4	-5.009738E-3	6.186834E-3	-3.604972E-3	-2.458350E-3	-1.286375E-3	1.865211E-3	1.006482E-2	5.737419E-4	2.822399E-3	5.037367E-3	-3.571903E-3	-1.070710E-2	-5.497544E-3	-7.828350E-4	1.015486E-2	-3.047620E-3	3.561830E-3	-1.978516E-3	6.348789E-4	-3.366026E-3	7.802098E-3	-2.486563E-3	-1.022606E-2	-1.241795E-2	3.822639E-3	-1.317058E-3	-2.315445E-3	-9.756578E-3	1.278708E-2
2.815020E+2	1.680557E-3	-9.283345E-3	1.191169E-2	-1.072879E-3	5.581341E-3	1.253606E-2	-6.404385E-4	-1.071926E-2	5.864934E-3	3.532817E-3	1.123160E-2	-3.312366E-3	5.158774E-3	1.156812E-3	6.714110E-3	8.397822E-4	2.671068E-3	-1.306346E-2	-9.969447E-3	7.095319E-4	-4.720880E-5	-6.005856E-3	3.385533E-3	-4.736418E-3	2.683431E-3	-5.662097E-3	-1.348270E-3	4.704306E-3	3.672233E-3	7.159631E-3	-6.445826E-4	7.323297E-3	-3.316806E-3	1.076478E-3	1.161746E-3	5.225962E-3	-4.325323E-3	-3.734483E-3	3.397663E-3	2.971790E-3	-1.526926E-3	4.397321E-3	-5.694372E-3	-1.001065E-2	6.216888E-3	1.227704E-3	1.676500E-2	-2.839268E-3	1.360690E-2	1.887068E-3	4.117857E-3	9.595242E-4	6.327862E-4	2.222197E-3	7.771284E-4	-1.717531E-3	-5.261454E-6	-1.281746E-3	8.951759E-3	-5.145427E-3	4.029105E-3	3.388241E-3	3.957819E-3	-7.101282E-3	1.196450E-2	4.908968E-3	4.217709E-4	-1.523118E-3	3.468224E-3	-1.255011E-3	-9.127274E-3	-1.285961E-3	7.772293E-3	1.284921E-3	-3.468724E-3	-2.758082E-3	6.340054E-3	-1.301697E-2	-2.235459E-3	1.073571E-3	8.403965E-4	1.330803E-3	1.853537E-3	6.499749E-4	-7.370035E-4	-2.395074E-3	1.001307E-2	9.111040E-3	9.114801E-3	1.481869E-3	-2.950371E-3	6.785520E-3	-4.987478E-3	6.109534E-4	-1.674561E-3	1.186163E-2	8.076911E-4	-1.048177E-2	4.137654E-3	5.740879E-3	9.874303E-3	1.220940E-2	4.744178E-3	7.356796E-3	-2.508376E-3	-6.510254E-3	1.334780E-3	1.551055E-2	-7.773385E-3	-1.034080E-2	6.736309E-4	1.309126E-2	3.006004E-3	2.937138E-3	1.296607E-2	1.015446E-2	1.236312E-2	4.171965E-3	-3.278105E-3	-1.082211E-2	-5.492382E-4	-3.376297E-3	-6.545256E-3	1.008729E-2	-6.538623E-3	4.882120E-3	2.720053E-3	2.432223E-3	-6.277180E-3	-3.002566E-3	-2.227877E-4	-6.722359E-3	2.870880E-3	-2.449338E-3	-2.061830E-3	4.350021E-4	-2.498269E-3	7.181541E-3	-7.385280E-3	-2.973558E-3	-9.877174E-4	1.777417E-3	-3.578604E-4	-3.506840E-3	2.939005E-3	-7.060152E-4	-2.024165E-3	-2.541222E-3	4.336322E-3	-5.303710E-3	2.280422E-3	8.325978E-4	-1.001573E-2	4.738769E-3	3.201301E-3	8.612913E-3	-5.343330E-4	3.569147E-3	-8.174495E-3	7.460733E-3	-1.033352E-2	4.137636E-3	6.038385E-3	-4.102525E-3	6.676084E-3	7.191767E-3	-1.385342E-2	2.988482E-3	5.336681E-3	1.501771E-2	-1.191254E-2
2.820030E+2	6.307580E-3	7.322051E-3	-1.270951E-2	1.104303E-2	-1.201436E-4	-5.582249E-3	1.570603E-3	-4.825604E-3	-1.166466E-3	-3.015374E-3	7.933738E-3	1.919712E-2	3.765442E-4	2.927923E-3	1.044167E-2	-4.377216E-4	1.270726E-3	-6.300864E-3	2.738654E-3	1.054443E-2	9.943868E-3	4.258176E-3	-3.403859E-3	4.994268E-3	-4.647518E-3	-3.764786E-3	6.580822E-3	1.738640E-2	4.729878E-3	5.423948E-3	6.601910E-3	2.314091E-3	1.444811E-2	9.720036E-3	-1.042491E-3	1.201294E-2	-8.482023E-4	9.111927E-3	-2.485849E-3	-2.194281E-3	7.063162E-3	8.876774E-3	-9.675667E-5	-8.693619E-4	2.239849E-3	9.294822E-4	-1.790727E-3	9.270768E-3	1.682816E-3	1.087182E-2	3.796758E-3	-6.732114E-3	-1.452661E-3	4.074552E-3	4.057530E-4	9.134096E-3	1.215682E-3	7.524810E-3	4.387332E-3	6.866926E-4	-7.987890E-4	4.618715E-4	-1.261721E-3	8.938928E-3	2.452406E-3	1.304066E-2	1.778755E-3	3.458931E-3	1.466655E-3	1.238529E-3	1.399184E-2	-1.430158E-4	1.192270E-2	8.409378E-3	-3.095347E-3	8.136461E-3	7.584532E-3	3.493574E-3	-1.545292E-4	1.466120E-3	7.261420E-3	-2.501471E-3	4.802655E-3	1.670717E-2	-3.416829E-4	-1.215284E-3	7.647916E-4	8.806118E-3	1.413299E-3	4.356331E-3	7.031269E-3	-4.326470E-3	2.242314E-3	6.848769E-3	5.095349E-3	1.073840E-2	1.351527E-2	1.016430E-2	2.599204E-3	1.383950E-3	1.035068E-2	-1.085088E-2	4.415005E-3	4.593193E-3	8.842937E-3	-1.984116E-3	4.496512E-3	6.849743E-3	7.371617E-3	1.379172E-3	1.450813E-2	1.006052E-2	7.578976E-3	1.146137E-2	3.974167E-3	-4.049472E-3	7.910670E-3	4.603187E-3	3.917082E-3	-2.159808E-4	-1.715553E-4	1.225611E-3	1.473427E-2	4.276477E-3	-7.872536E-3	8.064757E-3	8.874184E-3	7.745956E-3	1.008196E-2	-5.124257E-3	-4.210388E-3	1.687646E-3	4.166313E-3	1.479529E-2	1.493639E-3	2.348270E-3	6.630299E-3	1.150231E-2	5.951735E-3	1.199683E-3	9.605164E-3	-6.713936E-3	6.316554E-3	5.240139E-3	-6.472282E-4	2.745957E-3	9.342893E-3	9.149795E-3	5.631368E-3	3.610691E-3	9.410107E-3	-2.536511E-3	1.239849E-2	2.626897E-2	7.920904E-3	3.536983E-3	-9.687741E-4	1.144515E-3	-6.049854E-3	1.137045E-2	1.024190E-2	-2.705598E-4	-2.745335E-3	-1.911442E-3	-4.036271E-3	5.314629E-3	9.205137E-3	5.474260E-3	1.304517E-3	1.553737E-2	8.608972E-3
2.825060E+2	-7.003796E-5	2.166808E-3	3.713385E-3	-6.388881E-3	7.777829E-4	-5.544083E-3	5.001987E-3	1.362448E-2	1.629100E-3	1.643979E-3	2.227363E-3	-3.141015E-4	6.359891E-3	-1.877074E-3	3.073552E-3	4.475743E-3	-1.425154E-3	1.155299E-2	1.907528E-3	2.031949E-3	2.707432E-4	8.935477E-3	3.785360E-3	7.882004E-3	5.961337E-3	7.904907E-3	3.223605E-3	-7.138009E-3	7.828337E-3	3.723473E-4	6.598635E-3	1.214080E-5	2.533280E-3	6.400717E-3	4.372654E-3	-8.266357E-3	5.499160E-3	5.996163E-3	-4.857764E-3	4.978049E-3	4.515148E-4	1.295414E-2	1.128239E-2	1.608354E-2	5.493167E-5	-1.894913E-3	-7.873817E-3	-2.506097E-3	1.145732E-2	1.242816E-2	4.675777E-3	6.293867E-3	-6.388691E-4	1.887937E-3	-2.776718E-3	1.074122E-2	2.908479E-3	3.702241E-3	1.970293E-2	9.981241E-3	-4.560551E-3	1.809094E-3	-1.259214E-3	3.144305E-3	4.760491E-3	2.250083E-3	-1.009928E-4	1.168641E-2	-9.544435E-4	1.110986E-2	6.780858E-4	7.537393E-3	7.365113E-3	-2.048023E-5	8.830689E-3	8.128310E-3	9.174550E-3	-2.405667E-3	9.976540E-3	6.243128E-3	1.496370E-2	1.709341E-3	1.335794E-2	1.013990E-3	3.802660E-3	6.837553E-3	3.220635E-3	5.866501E-3	1.135358E-2	4.340769E-3	5.079641E-3	2.752197E-3	8.346026E-3	-1.931418E-3	2.329186E-3	9.932182E-3	-6.787687E-3	8.371129E-3	9.526032E-3	-5.699523E-4	7.373141E-4	-3.014611E-4	3.606557E-3	6.999695E-3	8.807509E-3	1.555972E-2	9.016620E-3	2.229550E-3	3.655484E-3	2.183127E-3	1.022289E-3	2.028601E-4	1.169178E-2	3.335644E-3	4.883004E-3	4.177430E-3	-3.744880E-3	-1.454765E-3	3.028949E-3	1.318942E-2	-5.133356E-3	-2.995138E-3	3.276149E-3	4.235109E-3	1.468965E-2	-2.792181E-3	-4.462490E-3	-4.477123E-3	1.661807E-2	2.308802E-3	1.851249E-3	-3.956372E-4	9.276218E-3	6.340333E-3	1.251723E-2	3.182433E-3	1.283773E-2	8.516740E-3	9.500232E-3	9.534307E-3	3.766503E-3	5.879495E-3	-4.458604E-3	6.098128E-3	2.505338E-3	4.620525E-4	-2.789114E-3	1.084735E-2	1.942464E-4	-3.525960E-4	8.423496E-3	9.514722E-3	4.629656E-3	1.075130E-2	7.830033E-3	8.100011E-3	-2.174463E-4	1.113167E-2	-9.525610E-4	1.271782E-3	3.754480E-3	-2.003767E-3	7.443083E-3	3.525024E-3	8.775351E-3	6.064634E-3	2.601960E-3	-2.679598E-3	8.802983E-3	7.981250E-4	3.556189E-3
2.830030E+2	1.624068E-2	2.148743E-2	1.571369E-2	1.312757E-2	1.531802E-2	1.350040E-2	6.321384E-3	1.168213E-2	1.513181E-2	1.986801E-2	9.941983E-3	1.526652E-2	4.488315E-3	1.852871E-2	-7.742121E-4	1.677529E-2	2.146791E-2	3.851185E-3	1.359435E-2	5.445696E-3	7.832165E-3	1.007741E-2	1.060062E-2	5.356437E-3	1.310532E-2	3.579626E-3	2.534353E-3	1.361280E-2	5.172869E-3	9.479852E-3	4.340048E-3	1.614522E-2	1.113768E-2	4.319658E-3	1.040164E-3	1.990614E-2	-1.363564E-3	1.268089E-2	2.301446E-2	1.343048E-2	1.654460E-2	9.276215E-3	1.866160E-2	1.252712E-2	1.371260E-2	4.855485E-3	3.784040E-3	-4.046396E-3	3.786609E-3	1.518855E-2	3.244297E-3	1.773284E-2	1.204815E-2	1.616627E-2	1.193417E-2	1.277471E-2	1.434181E-2	9.464189E-3	3.835229E-3	8.472890E-3	1.851381E-2	4.858318E-3	2.289992E-2	2.656400E-3	1.056210E-2	1.032651E-2	1.857460E-2	1.210348E-2	8.281186E-3	1.567458E-3	8.958159E-3	5.605854E-3	1.786648E-2	2.066133E-2	1.511095E-3	5.228356E-3	7.150552E-3	2.090411E-2	6.976581E-3	6.598785E-3	1.625088E-2	5.438399E-3	1.292081E-2	5.056105E-3	1.086901E-2	1.046679E-2	1.262425E-2	9.147103E-3	-1.927416E-3	1.630285E-2	1.607095E-2	1.378751E-2	1.718391E-2	1.382252E-2	1.371233E-2	2.146050E-2	2.097491E-2	9.659244E-3	1.494157E-2	1.910423E-2	1.314485E-2	1.313938E-2	8.856130E-3	8.212970E-3	1.379022E-2	4.192880E-3	5.751476E-3	8.995543E-3	1.295259E-2	1.553786E-2	6.740848E-3	1.313427E-2	2.043995E-2	1.184313E-2	9.090550E-3	1.654561E-2	9.946785E-3	5.687164E-3	1.536859E-2	1.361611E-2	6.934725E-3	1.253641E-2	5.531707E-3	9.161844E-3	1.679074E-2	-1.788305E-3	1.209365E-2	1.218807E-2	4.255206E-6	2.183752E-2	1.969986E-2	4.984089E-3	1.876140E-3	1.604792E-2	1.792376E-3	9.780517E-3	4.918646E-5	2.354464E-3	1.452493E-2	1.655112E-2	1.220406E-2	4.754541E-3	1.922733E-2	4.887988E-3	4.419543E-3	1.065029E-2	4.497501E-3	1.126292E-2	9.737054E-3	7.777066E-3	2.928119E-3	9.919215E-3	1.168984E-2	1.033450E-2	9.022318E-3	-6.341576E-3	1.513723E-2	2.153965E-2	1.416413E-2	5.945784E-3	5.698302E-3	1.053491E-2	1.806303E-2	8.464498E-3	2.050228E-2	5.639914E-3	4.819862E-3	1.422219E-2	4.661824E-3	-8.848014E-3	-2.146444E-2
2.835020E+2	1.399917E-2	1.473072E-2	2.579931E-2	2.415857E-2	1.904068E-2	1.016061E-2	2.651328E-2	2.164341E-2	1.616977E-2	2.085147E-2	1.832146E-2	2.716597E-2	1.987350E-2	2.732671E-2	1.766524E-2	4.483267E-2	2.895341E-2	2.379882E-2	1.322857E-2	1.407889E-2	2.933072E-2	2.904505E-2	2.994022E-2	1.875068E-2	3.082653E-2	2.906906E-2	2.019542E-2	1.925595E-2	2.833846E-2	2.966555E-2	3.272508E-2	3.725774E-2	2.140233E-2	2.211395E-2	1.740149E-2	2.393853E-2	3.244467E-2	3.286651E-2	2.106832E-2	4.144235E-2	2.592917E-2	1.516773E-2	2.398728E-2	4.517242E-2	1.696102E-2	2.534832E-2	3.281889E-2	2.511454E-2	2.092884E-2	2.028827E-2	2.130772E-2	2.732342E-2	1.383481E-2	2.244808E-2	3.192838E-2	2.217647E-2	1.965427E-2	2.375482E-2	2.479849E-2	2.351406E-2	7.278737E-3	3.114316E-2	2.779122E-2	1.285278E-2	2.258428E-2	3.174410E-2	3.856556E-2	1.693491E-2	2.895002E-2	2.978216E-2	2.592398E-2	2.695434E-2	2.928960E-2	2.952533E-2	2.496313E-2	1.186319E-2	1.211975E-2	1.905285E-2	2.863446E-2	1.561305E-2	2.344770E-2	3.564601E-2	2.605017E-2	3.230338E-2	1.863821E-2	2.626029E-2	2.531686E-2	3.619834E-2	2.845585E-2	2.575623E-2	1.612995E-2	2.835390E-2	3.778898E-2	3.274503E-2	2.309014E-2	2.981118E-2	3.825102E-2	3.592702E-2	2.001554E-2	1.235007E-2	2.885807E-2	3.496029E-2	7.371609E-3	2.079638E-2	1.572080E-2	1.359211E-2	3.739295E-2	2.863028E-2	3.213165E-2	1.948698E-2	3.967249E-2	2.422604E-2	2.324470E-2	2.690571E-2	1.881608E-2	3.170273E-2	3.473013E-2	2.430021E-2	2.164824E-2	2.030822E-2	3.678531E-2	1.956084E-2	2.295399E-2	3.882986E-2	4.352951E-2	3.091735E-2	2.867122E-2	3.232324E-2	3.355105E-2	2.891548E-2	2.967342E-2	3.868520E-3	2.820689E-2	1.890421E-2	2.282537E-2	1.148848E-2	3.496783E-2	3.473643E-2	2.800262E-2	8.067619E-3	2.139706E-2	2.916812E-2	2.128315E-2	1.607342E-2	3.301716E-2	3.168784E-2	2.896129E-2	1.421356E-2	2.632096E-2	2.618100E-2	1.671615E-2	2.014437E-2	1.573064E-2	3.297409E-2	3.369901E-2	3.140290E-2	1.136052E-2	1.842050E-2	3.459857E-2	2.763487E-2	1.315636E-2	2.476265E-2	3.179256E-2	3.688922E-2	2.484736E-2	2.665278E-2	2.227985E-2	4.704699E-2	1.778951E-2	1.724609E-2	4.098591E-2
2.840020E+2	4.780154E-2	4.873710E-2	6.092709E-2	5.216208E-2	7.517821E-2	4.193385E-2	4.558403E-2	3.434736E-2	4.826928E-2	6.320771E-2	4.924271E-2	4.773088E-2	5.304014E-2	5.309178E-2	4.929196E-2	5.061265E-2	4.776798E-2	4.181853E-2	4.594501E-2	4.453355E-2	5.495102E-2	3.441054E-2	5.917495E-2	4.849126E-2	3.886493E-2	5.063794E-2	3.739063E-2	5.425150E-2	5.331234E-2	4.605537E-2	5.514691E-2	5.901996E-2	6.558900E-2	6.470648E-2	4.536538E-2	4.613878E-2	5.855965E-2	4.406639E-2	6.062801E-2	4.791765E-2	4.413419E-2	2.955480E-2	7.264702E-2	4.544880E-2	6.342878E-2	6.003011E-2	5.031352E-2	4.911097E-2	6.829402E-2	4.009155E-2	5.295695E-2	5.674890E-2	5.499382E-2	4.260568E-2	4.662407E-2	4.775937E-2	6.135655E-2	5.458064E-2	5.733273E-2	5.072945E-2	4.440518E-2	5.156648E-2	5.381265E-2	4.485130E-2	5.207450E-2	6.224550E-2	5.175075E-2	3.964836E-2	6.224943E-2	7.040206E-2	4.138868E-2	6.879303E-2	5.248668E-2	4.657605E-2	5.911038E-2	5.099330E-2	5.899019E-2	5.646079E-2	4.756498E-2	5.433851E-2	5.238588E-2	7.507383E-2	3.346029E-2	5.484941E-2	6.665812E-2	5.275197E-2	4.900780E-2	5.363180E-2	4.178708E-2	5.272133E-2	6.408005E-2	5.724974E-2	5.442557E-2	4.473448E-2	5.462350E-2	5.248412E-2	5.236542E-2	3.344889E-2	4.248269E-2	5.325046E-2	3.919849E-2	3.625629E-2	5.530591E-2	5.928818E-2	6.726476E-2	5.645462E-2	4.536514E-2	5.458992E-2	5.051988E-2	4.300403E-2	5.217171E-2	3.832878E-2	4.070310E-2	6.026051E-2	6.054671E-2	6.073502E-2	5.696054E-2	5.145843E-2	6.365602E-2	4.866373E-2	5.992857E-2	4.954864E-2	5.770866E-2	4.397895E-2	3.088748E-2	5.718851E-2	4.564789E-2	8.136153E-2	4.649653E-2	5.522694E-2	6.632564E-2	3.891793E-2	4.912006E-2	4.810113E-2	6.116559E-2	6.108043E-2	5.103397E-2	4.867445E-2	6.112251E-2	4.722515E-2	4.842642E-2	5.217623E-2	4.186368E-2	5.034580E-2	5.095141E-2	6.226836E-2	4.563155E-2	5.039764E-2	6.110676E-2	4.927166E-2	4.299909E-2	4.561845E-2	6.170677E-2	5.892099E-2	6.096273E-2	6.656550E-2	5.099353E-2	6.045471E-2	5.760371E-2	4.473279E-2	6.222516E-2	4.960545E-2	6.069088E-2	5.839316E-2	5.122489E-2	6.154864E-2	5.500838E-2	6.133425E-2	3.363939E-2	3.467012E-2	3.809824E-2
2.841030E+2	5.333624E-2	3.952740E-2	3.929321E-2	6.829344E-2	4.758785E-2	7.804821E-2	5.769057E-2	7.614019E-2	4.866711E-2	4.905966E-2	7.209259E-2	6.403433E-2	4.953434E-2	6.441661E-2	4.752519E-2	5.013973E-2	8.022532E-2	6.532096E-2	4.553440E-2	3.292624E-2	8.946659E-2	5.992864E-2	6.624494E-2	6.718457E-2	6.257162E-2	5.514941E-2	6.341395E-2	6.953058E-2	6.494995E-2	5.868916E-2	6.145027E-2	4.218198E-2	5.070896E-2	7.213204E-2	5.734831E-2	4.358369E-2	8.496654E-2	7.155036E-2	5.235174E-2	5.335156E-2	6.103268E-2	5.822983E-2	6.656309E-2	6.784447E-2	7.943762E-2	6.574629E-2	7.392602E-2	7.458295E-2	5.381685E-2	5.613521E-2	5.962911E-2	7.730554E-2	6.492054E-2	6.146896E-2	5.800203E-2	5.752052E-2	7.161502E-2	6.391099E-2	4.938027E-2	4.528295E-2	5.354953E-2	5.625321E-2	4.965267E-2	5.844659E-2	7.040665E-2	6.187656E-2	6.604923E-2	4.487444E-2	5.078197E-2	6.940584E-2	6.387897E-2	5.054132E-2	6.634331E-2	5.495276E-2	6.601734E-2	6.634329E-2	5.441572E-2	7.485928E-2	7.694236E-2	5.964101E-2	5.649415E-2	5.518376E-2	5.822042E-2	5.861653E-2	6.539909E-2	5.576918E-2	6.562163E-2	7.035709E-2	5.646335E-2	8.008785E-2	5.680907E-2	6.459392E-2	6.296484E-2	6.911005E-2	5.414893E-2	6.520805E-2	6.398913E-2	4.227015E-2	5.847915E-2	5.400012E-2	4.546591E-2	6.923608E-2	6.165098E-2	4.863128E-2	5.903758E-2	5.247309E-2	5.715257E-2	4.146681E-2	7.594976E-2	4.798671E-2	5.348228E-2	6.032637E-2	5.328857E-2	4.102027E-2	5.392149E-2	7.276531E-2	5.737997E-2	6.777437E-2	4.255519E-2	5.407574E-2	5.686874E-2	5.526839E-2	5.210551E-2	6.247911E-2	5.061116E-2	5.691614E-2	5.400485E-2	7.073786E-2	6.172915E-2	6.086023E-2	6.123319E-2	4.451822E-2	5.855357E-2	4.847931E-2	5.493527E-2	6.894731E-2	6.813760E-2	4.902757E-2	5.846329E-2	6.632649E-2	5.649871E-2	5.582547E-2	6.761015E-2	5.603252E-2	4.542487E-2	5.959653E-2	4.683788E-2	5.266559E-2	6.797749E-2	5.618485E-2	5.994453E-2	5.471764E-2	6.516918E-2	5.837275E-2	7.656250E-2	6.110825E-2	4.304363E-2	6.622215E-2	6.986173E-2	5.846949E-2	5.416288E-2	6.705367E-2	6.543527E-2	5.083176E-2	6.260244E-2	6.364793E-2	7.849615E-2	7.146493E-2	6.232005E-2	4.548118E-2	5.973053E-2
2.842030E+2	3.512999E-2	5.562224E-2	7.125716E-2	4.330164E-2	6.709052E-2	5.239258E-2	5.619842E-2	7.841306E-2	5.571848E-2	6.742250E-2	4.679614E-2	4.724081E-2	7.699367E-2	5.395336E-2	5.236005E-2	7.236195E-2	8.070203E-2	7.441102E-2	5.547062E-2	6.916912E-2	5.903895E-2	7.002362E-2	6.501296E-2	6.925348E-2	6.275862E-2	6.213827E-2	5.052109E-2	7.650486E-2	6.940423E-2	7.228024E-2	4.047717E-2	6.231242E-2	4.195620E-2	6.290398E-2	6.857810E-2	7.907570E-2	5.766749E-2	4.393636E-2	6.549408E-2	6.133129E-2	6.396747E-2	5.768270E-2	6.038510E-2	6.488360E-2	6.203834E-2	6.935971E-2	6.512842E-2	7.887691E-2	5.493877E-2	4.061594E-2	6.327137E-2	5.829584E-2	6.445095E-2	7.207702E-2	6.714512E-2	6.477621E-2	7.839868E-2	6.685950E-2	4.960497E-2	7.395725E-2	7.245851E-2	6.824190E-2	5.007602E-2	6.233675E-2	7.674767E-2	5.985177E-2	5.744477E-2	4.793994E-2	6.566897E-2	7.153034E-2	6.451064E-2	6.567490E-2	5.610920E-2	7.771596E-2	2.857696E-2	7.720667E-2	7.096295E-2	5.666220E-2	6.381600E-2	7.204591E-2	7.055469E-2	6.719946E-2	6.586808E-2	6.576872E-2	7.561667E-2	7.077291E-2	7.116246E-2	7.403323E-2	6.248437E-2	7.366689E-2	5.960114E-2	6.032495E-2	6.509941E-2	6.424233E-2	6.234502E-2	7.188628E-2	8.506338E-2	6.416169E-2	6.012223E-2	5.536126E-2	7.046831E-2	6.545311E-2	5.835777E-2	6.626361E-2	5.248402E-2	6.526751E-2	7.159759E-2	6.635274E-2	5.215953E-2	6.361981E-2	7.314962E-2	5.322614E-2	5.994527E-2	5.782492E-2	5.126313E-2	5.352646E-2	5.518604E-2	5.233827E-2	6.651221E-2	7.092054E-2	7.061890E-2	6.019029E-2	4.138481E-2	7.171945E-2	5.627367E-2	7.707638E-2	5.745331E-2	4.890726E-2	5.605908E-2	8.257637E-2	5.287956E-2	5.123682E-2	5.893865E-2	8.205956E-2	6.236338E-2	6.355504E-2	5.911937E-2	4.446055E-2	8.075306E-2	6.402939E-2	6.636023E-2	6.914442E-2	5.093491E-2	6.181781E-2	6.615833E-2	6.344466E-2	6.843315E-2	6.219901E-2	6.539461E-2	7.585429E-2	6.419780E-2	7.130318E-2	5.936763E-2	6.073865E-2	6.369120E-2	6.043159E-2	5.663271E-2	5.154918E-2	7.038616E-2	6.238946E-2	7.783206E-2	5.732909E-2	6.018039E-2	6.698643E-2	6.912724E-2	6.164568E-2	6.370673E-2	6.437113E-2	6.846910E-2	6.487489E-2	3.949377E-2
2.843040E+2	8.973568E-2	8.195509E-2	8.298262E-2	9.882180E-2	7.299060E-2	8.449254E-2	8.874713E-2	8.068350E-2	8.518930E-2	9.359048E-2	8.489624E-2	9.625738E-2	7.837246E-2	1.068194E-1	9.379095E-2	8.171767E-2	8.604045E-2	9.759415E-2	8.610812E-2	8.791643E-2	9.153548E-2	9.268610E-2	9.587755E-2	8.838518E-2	1.014336E-1	8.514694E-2	8.497229E-2	1.015988E-1	1.031256E-1	7.982905E-2	8.332800E-2	8.535544E-2	8.642901E-2	9.531497E-2	9.852979E-2	9.643484E-2	8.011732E-2	8.024679E-2	1.086897E-1	9.778235E-2	9.011340E-2	9.746119E-2	1.019835E-1	1.090400E-1	1.170397E-1	9.961417E-2	1.069279E-1	1.088567E-1	9.339561E-2	9.473662E-2	9.794074E-2	1.051291E-1	1.106900E-1	8.987272E-2	7.486290E-2	9.301418E-2	9.621050E-2	8.055340E-2	7.186516E-2	1.062539E-1	8.597606E-2	8.035224E-2	8.269322E-2	8.076546E-2	8.893471E-2	8.185976E-2	9.451225E-2	6.821170E-2	8.952263E-2	9.939546E-2	8.909759E-2	8.854103E-2	9.073180E-2	1.017855E-1	7.200144E-2	7.951649E-2	1.075443E-1	9.436532E-2	8.719853E-2	9.590729E-2	8.215122E-2	9.222258E-2	8.649653E-2	1.209389E-1	9.135807E-2	7.305505E-2	8.346767E-2	7.929881E-2	1.037567E-1	8.041769E-2	6.372677E-2	9.139589E-2	9.108811E-2	1.111197E-1	1.036458E-1	1.135743E-1	9.227643E-2	9.314890E-2	9.482481E-2	8.479013E-2	9.848450E-2	9.042575E-2	8.104906E-2	9.555405E-2	9.998185E-2	7.836700E-2	1.049222E-1	8.268049E-2	8.605832E-2	8.416610E-2	9.346422E-2	7.994103E-2	9.072652E-2	1.062417E-1	1.176705E-1	1.106854E-1	1.056248E-1	9.825042E-2	8.730768E-2	7.919906E-2	8.727979E-2	9.407312E-2	8.494602E-2	8.570407E-2	8.651476E-2	8.586862E-2	9.283428E-2	1.065176E-1	7.693188E-2	8.611343E-2	1.019821E-1	8.208396E-2	8.442318E-2	9.366010E-2	1.019356E-1	9.688964E-2	8.605508E-2	8.717238E-2	8.108042E-2	6.573733E-2	8.808597E-2	8.019586E-2	1.083808E-1	7.730458E-2	9.594564E-2	7.632780E-2	9.783188E-2	8.236761E-2	1.080233E-1	8.639705E-2	1.149599E-1	9.631356E-2	8.768670E-2	8.046289E-2	1.016016E-1	1.047890E-1	8.511264E-2	7.561035E-2	7.659677E-2	7.375666E-2	1.011329E-1	7.683675E-2	1.252999E-1	9.717995E-2	9.227235E-2	8.316489E-2	9.359815E-2	6.930677E-2	8.182499E-2	8.382738E-2	3.989902E-2
2.844010E+2	1.192653E-1	1.512104E-1	1.558644E-1	1.543969E-1	1.783736E-1	1.349824E-1	1.482432E-1	1.243163E-1	1.318083E-1	1.498690E-1	1.340990E-1	1.475108E-1	1.207703E-1	1.357799E-1	1.214111E-1	1.640313E-1	1.549099E-1	1.410711E-1	1.317696E-1	1.432531E-1	1.329577E-1	1.445109E-1	1.371688E-1	1.201031E-1	1.516898E-1	1.469427E-1	1.356396E-1	1.543609E-1	1.336895E-1	1.570687E-1	1.453911E-1	1.632650E-1	1.102957E-1	1.663851E-1	1.404778E-1	1.635496E-1	1.640666E-1	1.311116E-1	1.498944E-1	1.535290E-1	1.189931E-1	1.393071E-1	1.236791E-1	1.770454E-1	1.424533E-1	1.294192E-1	1.448287E-1	1.448648E-1	1.355692E-1	1.256625E-1	1.409502E-1	1.532537E-1	1.192065E-1	1.132585E-1	1.372352E-1	1.353857E-1	1.295599E-1	1.497860E-1	1.571582E-1	1.516507E-1	1.280381E-1	1.420111E-1	1.377402E-1	1.624449E-1	1.361828E-1	1.306300E-1	1.369230E-1	1.313002E-1	1.631499E-1	1.191167E-1	1.522016E-1	1.440695E-1	1.363023E-1	1.241061E-1	1.239569E-1	1.680830E-1	1.669636E-1	1.084918E-1	1.679942E-1	1.547278E-1	1.409929E-1	1.575917E-1	1.501788E-1	1.525321E-1	1.610562E-1	1.388330E-1	1.489475E-1	1.502755E-1	1.384174E-1	1.243950E-1	1.214264E-1	1.389346E-1	1.470654E-1	1.252781E-1	1.300667E-1	1.582798E-1	1.297974E-1	1.576425E-1	1.584504E-1	1.444384E-1	1.457300E-1	1.401473E-1	1.407946E-1	1.338051E-1	1.576844E-1	1.655846E-1	1.600297E-1	1.624662E-1	1.387035E-1	1.343415E-1	1.547370E-1	1.730347E-1	1.495057E-1	1.393095E-1	1.404391E-1	1.372031E-1	1.502648E-1	1.217100E-1	1.164101E-1	1.448812E-1	1.273350E-1	1.418034E-1	1.259479E-1	1.421577E-1	1.376427E-1	1.364384E-1	1.334324E-1	1.443566E-1	1.505213E-1	1.404641E-1	1.440455E-1	1.249245E-1	1.331445E-1	1.534554E-1	1.145741E-1	1.126367E-1	1.442666E-1	1.248618E-1	1.376210E-1	1.387966E-1	1.470767E-1	1.638735E-1	1.507928E-1	1.291963E-1	1.441615E-1	1.496961E-1	1.455792E-1	1.591856E-1	1.294378E-1	1.406003E-1	1.221804E-1	1.585011E-1	1.523152E-1	1.501631E-1	1.528969E-1	1.701279E-1	1.582650E-1	1.323565E-1	1.715671E-1	1.402957E-1	1.348816E-1	1.210063E-1	1.302203E-1	1.541598E-1	1.576202E-1	1.448510E-1	1.534566E-1	1.509593E-1	1.235043E-1	1.386346E-1	8.821695E-2
2.845030E+2	2.072668E-1	1.914602E-1	2.308750E-1	1.952876E-1	2.322859E-1	1.929309E-1	2.113931E-1	1.943442E-1	1.823896E-1	2.155224E-1	2.437317E-1	2.102460E-1	2.004698E-1	2.026027E-1	2.091614E-1	2.268977E-1	2.131547E-1	1.843344E-1	1.974290E-1	2.067967E-1	2.332980E-1	2.107310E-1	2.270161E-1	2.003173E-1	2.092254E-1	2.087865E-1	2.167954E-1	2.194406E-1	2.104040E-1	2.148602E-1	1.992595E-1	2.185114E-1	1.888396E-1	2.051229E-1	1.936199E-1	2.148243E-1	2.083840E-1	2.225202E-1	2.170083E-1	2.282782E-1	2.274705E-1	2.237312E-1	2.181089E-1	2.388071E-1	2.269508E-1	2.222270E-1	2.384737E-1	2.491642E-1	2.117740E-1	2.141599E-1	2.135347E-1	1.825583E-1	2.082679E-1	2.157580E-1	2.045842E-1	2.012522E-1	2.159847E-1	2.207978E-1	2.148880E-1	2.062390E-1	2.117687E-1	2.308039E-1	1.807982E-1	2.424765E-1	2.134973E-1	2.455608E-1	2.204053E-1	2.064781E-1	2.377400E-1	2.198978E-1	2.019157E-1	2.137534E-1	2.310337E-1	2.229503E-1	2.154158E-1	1.912414E-1	2.271031E-1	2.119578E-1	2.153587E-1	2.055304E-1	2.305799E-1	2.265927E-1	2.350235E-1	2.138185E-1	2.027038E-1	2.020327E-1	2.194938E-1	2.125600E-1	2.258124E-1	2.138684E-1	2.360770E-1	2.318021E-1	2.386963E-1	2.160906E-1	2.435718E-1	2.034810E-1	2.149462E-1	2.076090E-1	1.930574E-1	2.301508E-1	2.379587E-1	2.002494E-1	1.900583E-1	2.246763E-1	1.992637E-1	2.201945E-1	2.230916E-1	2.462866E-1	2.097240E-1	1.854149E-1	2.167432E-1	2.328457E-1	2.486813E-1	2.072265E-1	2.084696E-1	1.892929E-1	2.179907E-1	2.359321E-1	2.145121E-1	2.009638E-1	2.046339E-1	2.239719E-1	1.940942E-1	2.062714E-1	2.267767E-1	2.121358E-1	2.282327E-1	2.089428E-1	2.137656E-1	2.180885E-1	2.097394E-1	2.064442E-1	2.030214E-1	1.779556E-1	2.189541E-1	1.581425E-1	2.240586E-1	2.073912E-1	2.226072E-1	1.785049E-1	2.153724E-1	2.158964E-1	2.178695E-1	2.146750E-1	2.231864E-1	2.200347E-1	2.048963E-1	2.381550E-1	2.070975E-1	2.302080E-1	2.183354E-1	2.211391E-1	2.217377E-1	2.248880E-1	2.055495E-1	2.314212E-1	2.004200E-1	2.314173E-1	2.092065E-1	2.423421E-1	2.140469E-1	1.950038E-1	1.664131E-1	2.092008E-1	2.179943E-1	2.107306E-1	2.094966E-1	2.172333E-1	2.430439E-1	2.420753E-1	2.162037E-1
2.846040E+2	2.932151E-1	3.477563E-1	3.054110E-1	3.517322E-1	3.313045E-1	3.258450E-1	3.468597E-1	3.193944E-1	3.261391E-1	3.290537E-1	3.339480E-1	2.872053E-1	3.715432E-1	3.435097E-1	3.315908E-1	3.355659E-1	3.177677E-1	3.343504E-1	3.206463E-1	3.143315E-1	3.367817E-1	3.806584E-1	3.762709E-1	3.795036E-1	3.797187E-1	3.716290E-1	3.826617E-1	4.044319E-1	3.399030E-1	3.301706E-1	3.401583E-1	3.800495E-1	3.413382E-1	3.344487E-1	3.318664E-1	3.702640E-1	3.500432E-1	3.266584E-1	3.536576E-1	3.429177E-1	3.441775E-1	3.500263E-1	3.623051E-1	3.537704E-1	3.598968E-1	3.539153E-1	3.969097E-1	3.892984E-1	3.398658E-1	3.574562E-1	3.320884E-1	3.858646E-1	3.652708E-1	3.734984E-1	3.636664E-1	3.744104E-1	3.845611E-1	3.636400E-1	3.852486E-1	3.729368E-1	3.668315E-1	3.307088E-1	3.487306E-1	3.304798E-1	3.758207E-1	3.252360E-1	3.579590E-1	3.286270E-1	3.586971E-1	3.508578E-1	3.617130E-1	3.252802E-1	3.780919E-1	3.664714E-1	3.481913E-1	4.105637E-1	3.654408E-1	3.420498E-1	3.553773E-1	3.788760E-1	3.405360E-1	3.533838E-1	3.262391E-1	3.361872E-1	3.381441E-1	3.326831E-1	3.451151E-1	3.425404E-1	3.484288E-1	3.310289E-1	3.239489E-1	3.632955E-1	3.586118E-1	3.292106E-1	3.473530E-1	3.850929E-1	3.411027E-1	3.611726E-1	3.370712E-1	3.532202E-1	3.439606E-1	3.157789E-1	3.133940E-1	3.161656E-1	3.556834E-1	3.436479E-1	3.599404E-1	3.496667E-1	3.557343E-1	3.405382E-1	3.527875E-1	3.559547E-1	3.665770E-1	3.330870E-1	3.699285E-1	3.365693E-1	3.169115E-1	3.402019E-1	3.421342E-1	3.456962E-1	3.343212E-1	3.643659E-1	3.311372E-1	3.481176E-1	3.640720E-1	3.387206E-1	3.374937E-1	3.571457E-1	3.019450E-1	3.496315E-1	3.224258E-1	3.632509E-1	3.041942E-1	3.439763E-1	3.404921E-1	3.335331E-1	3.544803E-1	4.101773E-1	3.363806E-1	3.581318E-1	3.343605E-1	3.341479E-1	3.593634E-1	3.480153E-1	3.122370E-1	3.600283E-1	3.436543E-1	3.396341E-1	3.118954E-1	3.576547E-1	3.381243E-1	3.042178E-1	3.439364E-1	3.366334E-1	3.334621E-1	3.369933E-1	3.711428E-1	3.432903E-1	3.490876E-1	3.552034E-1	3.721328E-1	3.383199E-1	3.468448E-1	3.019420E-1	3.445481E-1	3.302376E-1	3.541344E-1	3.353138E-1	3.557339E-1	3.542003E-1	2.871346E-1
2.847030E+2	5.638477E-1	6.059567E-1	6.276286E-1	6.503102E-1	6.386071E-1	6.427897E-1	5.925742E-1	5.956047E-1	6.363700E-1	6.140263E-1	6.277447E-1	5.641743E-1	6.638872E-1	6.099465E-1	6.012133E-1	5.868818E-1	6.051502E-1	5.777713E-1	6.021383E-1	6.427093E-1	6.571514E-1	6.311582E-1	7.187724E-1	6.787041E-1	6.794133E-1	6.946955E-1	7.068957E-1	7.210401E-1	6.926616E-1	6.707705E-1	7.062533E-1	7.049742E-1	6.689141E-1	6.501806E-1	6.731527E-1	7.486254E-1	6.656012E-1	6.876695E-1	6.759967E-1	6.870040E-1	6.691903E-1	7.096809E-1	6.944632E-1	7.145326E-1	6.957504E-1	7.228528E-1	6.992618E-1	6.694545E-1	7.040206E-1	6.590652E-1	6.492313E-1	6.771390E-1	6.588776E-1	6.722751E-1	6.886874E-1	6.654044E-1	6.847463E-1	6.501096E-1	6.720728E-1	6.390915E-1	6.952766E-1	6.755217E-1	6.700525E-1	7.065198E-1	6.924235E-1	6.700105E-1	6.629519E-1	5.863596E-1	6.516980E-1	6.555907E-1	6.588035E-1	6.506770E-1	7.161838E-1	6.426507E-1	6.487645E-1	6.823494E-1	6.887936E-1	6.769181E-1	6.552875E-1	6.462428E-1	6.696697E-1	6.887649E-1	6.636975E-1	6.686010E-1	6.614622E-1	6.395488E-1	6.813976E-1	6.295086E-1	6.386572E-1	6.441633E-1	6.679374E-1	6.716370E-1	6.826263E-1	6.754038E-1	6.254054E-1	6.864210E-1	5.989623E-1	6.255699E-1	7.083010E-1	6.705987E-1	6.490646E-1	6.757250E-1	6.904812E-1	6.816508E-1	6.706739E-1	6.351526E-1	6.942090E-1	6.072676E-1	6.438095E-1	6.570424E-1	6.320600E-1	6.733636E-1	6.394341E-1	6.641377E-1	6.265778E-1	5.910251E-1	6.310838E-1	6.355217E-1	6.529840E-1	6.921668E-1	6.171656E-1	6.710226E-1	6.342104E-1	6.531529E-1	6.718605E-1	6.413920E-1	6.267283E-1	6.610215E-1	6.411278E-1	6.285209E-1	6.181843E-1	7.010595E-1	6.882629E-1	6.059218E-1	6.163042E-1	6.471452E-1	6.447153E-1	6.553348E-1	6.392433E-1	6.581768E-1	6.116629E-1	6.747120E-1	6.189417E-1	6.356712E-1	6.391892E-1	6.117290E-1	6.399131E-1	6.450698E-1	6.105570E-1	6.858764E-1	6.376449E-1	6.475892E-1	6.609454E-1	6.925652E-1	6.171669E-1	6.444163E-1	6.170097E-1	6.047443E-1	6.047078E-1	6.497210E-1	6.392150E-1	6.387676E-1	6.916465E-1	6.302705E-1	6.651566E-1	6.482281E-1	6.529653E-1	6.059568E-1	6.683229E-1	6.139930E-1	6.525532E-1
2.848000E+2	1.181199E+0	1.186825E+0	1.193082E+0	1.224278E+0	1.288135E+0	1.205854E+0	1.190941E+0	1.223885E+0	1.244892E+0	1.248095E+0	1.265093E+0	1.270900E+0	1.232484E+0	1.145850E+0	1.197567E+0	1.258447E+0	1.195979E+0	1.228789E+0	1.222438E+0	1.305453E+0	1.299443E+0	1.214169E+0	1.241119E+0	1.273841E+0	1.245907E+0	1.240401E+0	1.254025E+0	1.317877E+0	1.299321E+0	1.262264E+0	1.298412E+0	1.245197E+0	1.222600E+0	1.247988E+0	1.248142E+0	1.256688E+0	1.243242E+0	1.261525E+0	1.246486E+0	1.269014E+0	1.272311E+0	1.244610E+0	1.268201E+0	1.278490E+0	1.245444E+0	1.228668E+0	1.327759E+0	1.351831E+0	1.240844E+0	1.270816E+0	1.187528E+0	1.327588E+0	1.245692E+0	1.256694E+0	1.219971E+0	1.178473E+0	1.244901E+0	1.213494E+0	1.364788E+0	1.280072E+0	1.301783E+0	1.239635E+0	1.265236E+0	1.269518E+0	1.220387E+0	1.262227E+0	1.234336E+0	1.183438E+0	1.257682E+0	1.228326E+0	1.231305E+0	1.229100E+0	1.303376E+0	1.211343E+0	1.311943E+0	1.232597E+0	1.275490E+0	1.252720E+0	1.309233E+0	1.248364E+0	1.258008E+0	1.230390E+0	1.268749E+0	1.244866E+0	1.303363E+0	1.241504E+0	1.236478E+0	1.177388E+0	1.287003E+0	1.287318E+0	1.230809E+0	1.266334E+0	1.234602E+0	1.203033E+0	1.285856E+0	1.225536E+0	1.315144E+0	1.220724E+0	1.231311E+0	1.186613E+0	1.286980E+0	1.310933E+0	1.275599E+0	1.279068E+0	1.261121E+0	1.245307E+0	1.255596E+0	1.204426E+0	1.218777E+0	1.229579E+0	1.273720E+0	1.221664E+0	1.295586E+0	1.206701E+0	1.325356E+0	1.300206E+0	1.267436E+0	1.238231E+0	1.290630E+0	1.203000E+0	1.275836E+0	1.263737E+0	1.240968E+0	1.275847E+0	1.245622E+0	1.293620E+0	1.272221E+0	1.230324E+0	1.251230E+0	1.244112E+0	1.258718E+0	1.255722E+0	1.288790E+0	1.252924E+0	1.215325E+0	1.246798E+0	1.334261E+0	1.300480E+0	1.270870E+0	1.184650E+0	1.232376E+0	1.232102E+0	1.256620E+0	1.208473E+0	1.250817E+0	1.258322E+0	1.238583E+0	1.309208E+0	1.233671E+0	1.278563E+0	1.219349E+0	1.248345E+0	1.233573E+0	1.298083E+0	1.255368E+0	1.237442E+0	1.203057E+0	1.277035E+0	1.281608E+0	1.236450E+0	1.242965E+0	1.248896E+0	1.256484E+0	1.213754E+0	1.305403E+0	1.273520E+0	1.227475E+0	1.174811E+0	1.226615E+0	1.329605E+0	1.237424E+0
2.849010E+2	1.543225E+0	1.595776E+0	1.620003E+0	1.532865E+0	1.563862E+0	1.574110E+0	1.554070E+0	1.522983E+0	1.534331E+0	1.589332E+0	1.608044E+0	1.515531E+0	1.580298E+0	1.483607E+0	1.549274E+0	1.545563E+0	1.494548E+0	1.531767E+0	1.523735E+0	1.587368E+0	1.541486E+0	1.574139E+0	1.546077E+0	1.489103E+0	1.533391E+0	1.524228E+0	1.487731E+0	1.563540E+0	1.480305E+0	1.540109E+0	1.587955E+0	1.536900E+0	1.474521E+0	1.589251E+0	1.521932E+0	1.577536E+0	1.560363E+0	1.566961E+0	1.515837E+0	1.456284E+0	1.513373E+0	1.539016E+0	1.561675E+0	1.565548E+0	1.489033E+0	1.519151E+0	1.555690E+0	1.657437E+0	1.530922E+0	1.580021E+0	1.537019E+0	1.538766E+0	1.589994E+0	1.464675E+0	1.562125E+0	1.486821E+0	1.553545E+0	1.546053E+0	1.541350E+0	1.517565E+0	1.514823E+0	1.527324E+0	1.531185E+0	1.532033E+0	1.498650E+0	1.475561E+0	1.525228E+0	1.569676E+0	1.519982E+0	1.581411E+0	1.529177E+0	1.448185E+0	1.616488E+0	1.494315E+0	1.545795E+0	1.542537E+0	1.518608E+0	1.577066E+0	1.512167E+0	1.528715E+0	1.500598E+0	1.570555E+0	1.504975E+0	1.545961E+0	1.584160E+0	1.487430E+0	1.519201E+0	1.453176E+0	1.509330E+0	1.501173E+0	1.510007E+0	1.497697E+0	1.552408E+0	1.450141E+0	1.519543E+0	1.496302E+0	1.539911E+0	1.546965E+0	1.587045E+0	1.545644E+0	1.578446E+0	1.482920E+0	1.469077E+0	1.529146E+0	1.658041E+0	1.557103E+0	1.517216E+0	1.526970E+0	1.532616E+0	1.556340E+0	1.545443E+0	1.548700E+0	1.677983E+0	1.560352E+0	1.517999E+0	1.528805E+0	1.570045E+0	1.579852E+0	1.567969E+0	1.523721E+0	1.512276E+0	1.597597E+0	1.530129E+0	1.551720E+0	1.545169E+0	1.588683E+0	1.498230E+0	1.580369E+0	1.498038E+0	1.523905E+0	1.492101E+0	1.492473E+0	1.515516E+0	1.564673E+0	1.584379E+0	1.448591E+0	1.499193E+0	1.571164E+0	1.548290E+0	1.530069E+0	1.588327E+0	1.499653E+0	1.577423E+0	1.510703E+0	1.486701E+0	1.565848E+0	1.584043E+0	1.651967E+0	1.543546E+0	1.500963E+0	1.547455E+0	1.453508E+0	1.585847E+0	1.502840E+0	1.554410E+0	1.524126E+0	1.514362E+0	1.589256E+0	1.553302E+0	1.594335E+0	1.551117E+0	1.525992E+0	1.502697E+0	1.576238E+0	1.581767E+0	1.526478E+0	1.514055E+0	1.470381E+0	1.564681E+0	1.634928E+0	1.320067E+0
2.850030E+2	1.506674E+0	1.542890E+0	1.518918E+0	1.584949E+0	1.573148E+0	1.512629E+0	1.572981E+0	1.574526E+0	1.537540E+0	1.532116E+0	1.600691E+0	1.601370E+0	1.518489E+0	1.525232E+0	1.551659E+0	1.530365E+0	1.543627E+0	1.486598E+0	1.530642E+0	1.565506E+0	1.528633E+0	1.506657E+0	1.582779E+0	1.485625E+0	1.417789E+0	1.534172E+0	1.507858E+0	1.535733E+0	1.502297E+0	1.523417E+0	1.474400E+0	1.494913E+0	1.479252E+0	1.563312E+0	1.477520E+0	1.541104E+0	1.508036E+0	1.590788E+0	1.496695E+0	1.457608E+0	1.497363E+0	1.516856E+0	1.590063E+0	1.536087E+0	1.489496E+0	1.539119E+0	1.578242E+0	1.564232E+0	1.537842E+0	1.461854E+0	1.480124E+0	1.527432E+0	1.507465E+0	1.524198E+0	1.599981E+0	1.507846E+0	1.553927E+0	1.431351E+0	1.485484E+0	1.418693E+0	1.536579E+0	1.554735E+0	1.599917E+0	1.516921E+0	1.529105E+0	1.534907E+0	1.505525E+0	1.438450E+0	1.507320E+0	1.502451E+0	1.504125E+0	1.452201E+0	1.557905E+0	1.504094E+0	1.491764E+0	1.507300E+0	1.580102E+0	1.532005E+0	1.514193E+0	1.599743E+0	1.465987E+0	1.547930E+0	1.496000E+0	1.512099E+0	1.580281E+0	1.421351E+0	1.538902E+0	1.476712E+0	1.556326E+0	1.487218E+0	1.527176E+0	1.437377E+0	1.494356E+0	1.497829E+0	1.534416E+0	1.560739E+0	1.443517E+0	1.613429E+0	1.471373E+0	1.471709E+0	1.531500E+0	1.515537E+0	1.583295E+0	1.408873E+0	1.558809E+0	1.537273E+0	1.553685E+0	1.458149E+0	1.541521E+0	1.543033E+0	1.518487E+0	1.557698E+0	1.487903E+0	1.486739E+0	1.548931E+0	1.542061E+0	1.528521E+0	1.457482E+0	1.563566E+0	1.513029E+0	1.473406E+0	1.566726E+0	1.641146E+0	1.499697E+0	1.446685E+0	1.466170E+0	1.458349E+0	1.575405E+0	1.515480E+0	1.581135E+0	1.450025E+0	1.581314E+0	1.563987E+0	1.520692E+0	1.551229E+0	1.539983E+0	1.537938E+0	1.601879E+0	1.505111E+0	1.522925E+0	1.510511E+0	1.507797E+0	1.502243E+0	1.544379E+0	1.480000E+0	1.570793E+0	1.523221E+0	1.530188E+0	1.524836E+0	1.525660E+0	1.508390E+0	1.492038E+0	1.506189E+0	1.564347E+0	1.588255E+0	1.505064E+0	1.483070E+0	1.548047E+0	1.525814E+0	1.564154E+0	1.529518E+0	1.515663E+0	1.571800E+0	1.591804E+0	1.501339E+0	1.531006E+0	1.527741E+0	1.485546E+0	1.519800E+0	1.487209E+0	1.533413E+0
2.851000E+2	1.370431E+0	1.378733E+0	1.345615E+0	1.425265E+0	1.370248E+0	1.439140E+0	1.361680E+0	1.408814E+0	1.442016E+0	1.347626E+0	1.429086E+0	1.373225E+0	1.319886E+0	1.357332E+0	1.299316E+0	1.379102E+0	1.403340E+0	1.340002E+0	1.347223E+0	1.400462E+0	1.339168E+0	1.350725E+0	1.383579E+0	1.324019E+0	1.387152E+0	1.348173E+0	1.292088E+0	1.363280E+0	1.335544E+0	1.306326E+0	1.354319E+0	1.344243E+0	1.295964E+0	1.364604E+0	1.271419E+0	1.400214E+0	1.321476E+0	1.263978E+0	1.357573E+0	1.298290E+0	1.363541E+0	1.393773E+0	1.380879E+0	1.346669E+0	1.328272E+0	1.408833E+0	1.365142E+0	1.378361E+0	1.388531E+0	1.314498E+0	1.332892E+0	1.368720E+0	1.379234E+0	1.343411E+0	1.380362E+0	1.365151E+0	1.360700E+0	1.308304E+0	1.363368E+0	1.380765E+0	1.398632E+0	1.378384E+0	1.367003E+0	1.387017E+0	1.359016E+0	1.280120E+0	1.360911E+0	1.326996E+0	1.339771E+0	1.384442E+0	1.421509E+0	1.347535E+0	1.369800E+0	1.386439E+0	1.285937E+0	1.287506E+0	1.339131E+0	1.388600E+0	1.372184E+0	1.318540E+0	1.358418E+0	1.406480E+0	1.330148E+0	1.361548E+0	1.381132E+0	1.391123E+0	1.380846E+0	1.280398E+0	1.297608E+0	1.360566E+0	1.361942E+0	1.427810E+0	1.397198E+0	1.353029E+0	1.373290E+0	1.412857E+0	1.432077E+0	1.376514E+0	1.342551E+0	1.390620E+0	1.300329E+0	1.401045E+0	1.345520E+0	1.306765E+0	1.386591E+0	1.401961E+0	1.398372E+0	1.351578E+0	1.348411E+0	1.390246E+0	1.303829E+0	1.374422E+0	1.392172E+0	1.417916E+0	1.332304E+0	1.334180E+0	1.388853E+0	1.345914E+0	1.373340E+0	1.374814E+0	1.363334E+0	1.439760E+0	1.364695E+0	1.364877E+0	1.357166E+0	1.338329E+0	1.381518E+0	1.328740E+0	1.254654E+0	1.345488E+0	1.354351E+0	1.373360E+0	1.374386E+0	1.349567E+0	1.373518E+0	1.295576E+0	1.332323E+0	1.405668E+0	1.478853E+0	1.344828E+0	1.381776E+0	1.315637E+0	1.392755E+0	1.318810E+0	1.377064E+0	1.368199E+0	1.369976E+0	1.367055E+0	1.355888E+0	1.279557E+0	1.398033E+0	1.332270E+0	1.409838E+0	1.358967E+0	1.373632E+0	1.441772E+0	1.308729E+0	1.313612E+0	1.363028E+0	1.372702E+0	1.435255E+0	1.330177E+0	1.318130E+0	1.336807E+0	1.306756E+0	1.421457E+0	1.362611E+0	1.396888E+0	1.351205E+0	1.413362E+0	1.247114E+0
2.852010E+2	1.075062E+0	1.107543E+0	1.092224E+0	1.089855E+0	1.073528E+0	1.057295E+0	1.096582E+0	1.102252E+0	1.091703E+0	1.101726E+0	1.130168E+0	1.087189E+0	1.053622E+0	1.033308E+0	1.081983E+0	1.081408E+0	1.105817E+0	1.057165E+0	1.081972E+0	1.001850E+0	1.092573E+0	1.054828E+0	1.102838E+0	1.016903E+0	1.068715E+0	1.032548E+0	1.017734E+0	1.140607E+0	1.096289E+0	1.052001E+0	1.116702E+0	1.087996E+0	9.636938E-1	1.065316E+0	1.050027E+0	1.111765E+0	1.058759E+0	1.063515E+0	1.061595E+0	1.098443E+0	1.085467E+0	1.015920E+0	1.062504E+0	1.083773E+0	1.042404E+0	1.111474E+0	1.101814E+0	1.100822E+0	1.141059E+0	1.101112E+0	1.034051E+0	1.077675E+0	1.111664E+0	1.118668E+0	1.030034E+0	1.033435E+0	1.110971E+0	1.094692E+0	1.049106E+0	1.031305E+0	1.086404E+0	1.062888E+0	1.050484E+0	1.096633E+0	1.072746E+0	1.049363E+0	1.077292E+0	1.008639E+0	1.028318E+0	1.113625E+0	1.095892E+0	1.090633E+0	1.160548E+0	1.074334E+0	1.084225E+0	1.027383E+0	1.068381E+0	1.070583E+0	1.057976E+0	1.103548E+0	1.022362E+0	1.074274E+0	1.064550E+0	1.083456E+0	1.148511E+0	1.102466E+0	1.141771E+0	9.936199E-1	1.102433E+0	1.044350E+0	1.033359E+0	1.109228E+0	1.068264E+0	1.023598E+0	1.162236E+0	1.138434E+0	1.084978E+0	1.030357E+0	1.117225E+0	9.585969E-1	1.161855E+0	1.035368E+0	1.047367E+0	1.088441E+0	1.070469E+0	1.081854E+0	1.119138E+0	1.058330E+0	1.083030E+0	1.103936E+0	1.106745E+0	1.170448E+0	1.056530E+0	1.087587E+0	1.023461E+0	1.069390E+0	1.096447E+0	1.114599E+0	1.079631E+0	1.108365E+0	1.074879E+0	1.047955E+0	1.062405E+0	1.129502E+0	1.104481E+0	1.107587E+0	1.085380E+0	1.122362E+0	1.097818E+0	1.105902E+0	1.031320E+0	1.075711E+0	1.152240E+0	1.039793E+0	1.102758E+0	1.047249E+0	1.105837E+0	1.130806E+0	1.120777E+0	1.074954E+0	1.115850E+0	1.047147E+0	1.044959E+0	1.108550E+0	1.067760E+0	1.040885E+0	1.105510E+0	1.112184E+0	1.084840E+0	1.066924E+0	1.114761E+0	1.067208E+0	1.108666E+0	1.120883E+0	1.143733E+0	1.060049E+0	1.091461E+0	1.050672E+0	1.142447E+0	1.038531E+0	1.138536E+0	1.068526E+0	1.131855E+0	1.026346E+0	1.124455E+0	1.132307E+0	1.087385E+0	1.108108E+0	1.111459E+0	1.116844E+0	1.130071E+0
2.853000E+2	8.667411E-1	9.478097E-1	8.932329E-1	9.322311E-1	8.788302E-1	9.262437E-1	8.393057E-1	9.401801E-1	8.923938E-1	9.041605E-1	9.043524E-1	8.764720E-1	9.337859E-1	9.225158E-1	9.465312E-1	8.879705E-1	9.117424E-1	9.313126E-1	9.092619E-1	8.744183E-1	8.799792E-1	9.693005E-1	9.448652E-1	8.730097E-1	8.918669E-1	9.328094E-1	9.442077E-1	9.436035E-1	9.256454E-1	8.977625E-1	9.323983E-1	9.248750E-1	8.439712E-1	9.067276E-1	8.798616E-1	9.739437E-1	9.361043E-1	9.090701E-1	9.232437E-1	8.698523E-1	9.350438E-1	9.300643E-1	9.355624E-1	9.671881E-1	9.254044E-1	8.917670E-1	9.058095E-1	9.311740E-1	9.076313E-1	9.705998E-1	8.838476E-1	9.183835E-1	9.042430E-1	8.877963E-1	9.745442E-1	9.061254E-1	9.148302E-1	8.986069E-1	9.598022E-1	8.830293E-1	8.622990E-1	9.110474E-1	9.138299E-1	8.710766E-1	9.373609E-1	9.371722E-1	9.208019E-1	9.606677E-1	9.477096E-1	9.091688E-1	9.877189E-1	8.468372E-1	9.503398E-1	9.367278E-1	9.542013E-1	9.045079E-1	9.207120E-1	8.942345E-1	8.782745E-1	9.311273E-1	8.735828E-1	9.144433E-1	8.796603E-1	9.483233E-1	9.474705E-1	8.626419E-1	9.014444E-1	8.808629E-1	9.255738E-1	9.349168E-1	9.074825E-1	8.782225E-1	9.457921E-1	8.806333E-1	8.348883E-1	8.911159E-1	9.281651E-1	9.806691E-1	9.111455E-1	9.144373E-1	8.994251E-1	9.280832E-1	8.988650E-1	9.161719E-1	8.931904E-1	8.982670E-1	9.467216E-1	9.147849E-1	9.268976E-1	9.275855E-1	8.960354E-1	9.325382E-1	9.189838E-1	8.958217E-1	9.734310E-1	9.775210E-1	9.485499E-1	9.011241E-1	9.426732E-1	9.400349E-1	8.876895E-1	9.112701E-1	9.575114E-1	9.156047E-1	9.214217E-1	9.109537E-1	8.817126E-1	9.017995E-1	9.093643E-1	8.820560E-1	8.799823E-1	9.133900E-1	9.059196E-1	9.075152E-1	8.690473E-1	9.017477E-1	9.417015E-1	9.659544E-1	9.465003E-1	9.725198E-1	9.225073E-1	9.864163E-1	9.179897E-1	8.781598E-1	8.946592E-1	9.630595E-1	9.823020E-1	8.743705E-1	9.000810E-1	9.749429E-1	8.930608E-1	9.146369E-1	9.525277E-1	9.594960E-1	9.639348E-1	8.800531E-1	9.084272E-1	9.387427E-1	9.295998E-1	9.266170E-1	9.000146E-1	8.993656E-1	8.823396E-1	8.769677E-1	9.482010E-1	9.271947E-1	9.192611E-1	9.274112E-1	8.827887E-1	8.646685E-1	8.739685E-1
2.854010E+2	7.152858E-1	7.668566E-1	7.837400E-1	7.528860E-1	7.321985E-1	6.873631E-1	6.974676E-1	7.293923E-1	7.445807E-1	7.407433E-1	7.761318E-1	7.292502E-1	7.367278E-1	7.222556E-1	7.534609E-1	7.892714E-1	7.531798E-1	7.558103E-1	7.245170E-1	7.746267E-1	7.830747E-1	7.248746E-1	7.490174E-1	7.437939E-1	7.667470E-1	7.300933E-1	7.875071E-1	7.563077E-1	7.450308E-1	7.582055E-1	7.307630E-1	7.000309E-1	7.352126E-1	7.091842E-1	7.874027E-1	7.290045E-1	7.597047E-1	7.708086E-1	7.313087E-1	7.332070E-1	7.008258E-1	7.393875E-1	7.116768E-1	7.253644E-1	7.759972E-1	7.293901E-1	8.254165E-1	7.349379E-1	7.386818E-1	7.215219E-1	7.284740E-1	7.250246E-1	7.439187E-1	7.666098E-1	7.796093E-1	7.280272E-1	7.632175E-1	7.655446E-1	8.106505E-1	6.927400E-1	7.750303E-1	7.871927E-1	7.547212E-1	7.345680E-1	7.257489E-1	7.507110E-1	7.546973E-1	7.782108E-1	8.113145E-1	7.536863E-1	8.087284E-1	7.259059E-1	7.496581E-1	7.465775E-1	7.461049E-1	7.110772E-1	7.368931E-1	6.951905E-1	7.689447E-1	7.068213E-1	7.961661E-1	7.705332E-1	7.274437E-1	7.021731E-1	8.139390E-1	7.920620E-1	7.434885E-1	7.308931E-1	7.768673E-1	7.291032E-1	7.180624E-1	7.551574E-1	7.300547E-1	7.086644E-1	7.369090E-1	7.562951E-1	7.819764E-1	7.818487E-1	7.222756E-1	7.533798E-1	7.746821E-1	7.276662E-1	7.172004E-1	7.272677E-1	7.741318E-1	7.370249E-1	7.516825E-1	6.694389E-1	7.978761E-1	7.751833E-1	7.502049E-1	7.775862E-1	8.026271E-1	7.475239E-1	7.513221E-1	7.863369E-1	7.884090E-1	7.450666E-1	7.538756E-1	7.425365E-1	7.348980E-1	8.137868E-1	7.770104E-1	7.601033E-1	7.024105E-1	7.202038E-1	7.395708E-1	7.468532E-1	7.613045E-1	7.545778E-1	7.851499E-1	7.783880E-1	7.243282E-1	7.361347E-1	7.504104E-1	7.430780E-1	8.069313E-1	7.651889E-1	7.573492E-1	7.466902E-1	7.766846E-1	7.463364E-1	7.907779E-1	6.904773E-1	7.623737E-1	7.370445E-1	7.605794E-1	7.646575E-1	7.548449E-1	7.982794E-1	7.768504E-1	7.545243E-1	7.651845E-1	7.462728E-1	7.846134E-1	7.414048E-1	7.159163E-1	7.590326E-1	7.002037E-1	7.531069E-1	7.770535E-1	7.741380E-1	7.957124E-1	7.756752E-1	7.557151E-1	7.593171E-1	7.185246E-1	7.098966E-1	7.242960E-1	7.968341E-1	8.057814E-1
2.855000E+2	5.655555E-1	5.483975E-1	5.452742E-1	6.063993E-1	5.755368E-1	5.904064E-1	5.628824E-1	5.983153E-1	5.652137E-1	5.998712E-1	5.710299E-1	5.866982E-1	6.084544E-1	6.037048E-1	6.217372E-1	5.645753E-1	5.873061E-1	5.503026E-1	5.662225E-1	6.098576E-1	5.915145E-1	5.498942E-1	5.475127E-1	6.012498E-1	6.123767E-1	5.954591E-1	6.137034E-1	5.860513E-1	5.538212E-1	5.944848E-1	6.148115E-1	5.692827E-1	5.481955E-1	6.141173E-1	6.030047E-1	5.549509E-1	5.323686E-1	5.846057E-1	6.107861E-1	5.680390E-1	5.895996E-1	6.043254E-1	5.893270E-1	5.866953E-1	6.202185E-1	5.787038E-1	6.035562E-1	5.916478E-1	5.557653E-1	5.706721E-1	5.801856E-1	6.052047E-1	6.164435E-1	6.085401E-1	5.961499E-1	5.610518E-1	6.228884E-1	5.624001E-1	5.880150E-1	5.756967E-1	5.979257E-1	5.890305E-1	5.481670E-1	5.680251E-1	5.933810E-1	5.630544E-1	6.104012E-1	5.566990E-1	6.087436E-1	5.866577E-1	5.888033E-1	6.150871E-1	5.927682E-1	6.017929E-1	6.035879E-1	5.606528E-1	6.051776E-1	5.984418E-1	5.757377E-1	5.937582E-1	6.134806E-1	5.868711E-1	6.234148E-1	5.717356E-1	5.707820E-1	5.799091E-1	5.492266E-1	5.768523E-1	5.940526E-1	5.911357E-1	6.015974E-1	5.949748E-1	5.851453E-1	5.724520E-1	5.810894E-1	5.392877E-1	5.966001E-1	5.959281E-1	5.884956E-1	5.387520E-1	5.811437E-1	6.174561E-1	5.789715E-1	5.997069E-1	6.211724E-1	6.015231E-1	6.008713E-1	5.973879E-1	5.946748E-1	5.542101E-1	5.998139E-1	6.226210E-1	5.759139E-1	6.142442E-1	5.698161E-1	5.810595E-1	6.459131E-1	6.039675E-1	6.492116E-1	6.133536E-1	5.938457E-1	5.951364E-1	5.853897E-1	5.824756E-1	5.937612E-1	5.468669E-1	5.904679E-1	5.975327E-1	5.936619E-1	6.070332E-1	5.917018E-1	5.951404E-1	6.261362E-1	5.829410E-1	6.213027E-1	5.547343E-1	6.179328E-1	6.234739E-1	5.851569E-1	5.620429E-1	6.033605E-1	6.236393E-1	5.878662E-1	5.413919E-1	6.308745E-1	6.002440E-1	5.851854E-1	5.934967E-1	5.704447E-1	6.161216E-1	5.730731E-1	5.486843E-1	5.834303E-1	6.714489E-1	6.320781E-1	5.724022E-1	6.123133E-1	5.823483E-1	5.983512E-1	5.980821E-1	6.607084E-1	6.018593E-1	6.371688E-1	6.006694E-1	5.898863E-1	5.920123E-1	5.927128E-1	6.119408E-1	6.002784E-1	6.396098E-1	5.097134E-1
2.856010E+2	4.200317E-1	4.270436E-1	4.354631E-1	4.618914E-1	3.979852E-1	4.535157E-1	3.885838E-1	4.733304E-1	4.483855E-1	4.345594E-1	4.192403E-1	4.403086E-1	4.283086E-1	4.143389E-1	4.274494E-1	4.095878E-1	4.433508E-1	4.291032E-1	4.643268E-1	4.469199E-1	4.764615E-1	4.437472E-1	4.514560E-1	4.397892E-1	4.090140E-1	4.170298E-1	4.278781E-1	4.687638E-1	4.011656E-1	4.670641E-1	4.673525E-1	4.459367E-1	4.145424E-1	4.731444E-1	4.536386E-1	4.534880E-1	5.030397E-1	4.367150E-1	4.536536E-1	4.032085E-1	4.160248E-1	4.627388E-1	4.201832E-1	4.472310E-1	4.276120E-1	4.306356E-1	4.695165E-1	4.658577E-1	4.561651E-1	4.628008E-1	4.380937E-1	4.027852E-1	4.485862E-1	4.489712E-1	4.092431E-1	4.547229E-1	4.708990E-1	4.116348E-1	4.370388E-1	4.005900E-1	4.272955E-1	4.165700E-1	4.320084E-1	4.350278E-1	4.200224E-1	4.271881E-1	4.615818E-1	4.031141E-1	4.524812E-1	4.321385E-1	4.694965E-1	4.007927E-1	4.668805E-1	4.300042E-1	4.325423E-1	4.738015E-1	4.296425E-1	4.260216E-1	4.156284E-1	4.580025E-1	3.851763E-1	4.594136E-1	4.398659E-1	4.043487E-1	4.593134E-1	4.097835E-1	4.424828E-1	4.359905E-1	4.609156E-1	4.274852E-1	4.329340E-1	4.383268E-1	4.366302E-1	4.462134E-1	4.558820E-1	4.380558E-1	4.380384E-1	4.446026E-1	4.342254E-1	4.533226E-1	4.529527E-1	4.439608E-1	4.389696E-1	4.121003E-1	4.658410E-1	4.225444E-1	4.539968E-1	4.317694E-1	4.620590E-1	4.540148E-1	4.472421E-1	4.931171E-1	4.285536E-1	4.266108E-1	4.650470E-1	4.576416E-1	4.744724E-1	4.602625E-1	4.805286E-1	4.480297E-1	4.612155E-1	4.895154E-1	5.093211E-1	4.329465E-1	4.661691E-1	4.791597E-1	4.453736E-1	4.536837E-1	4.636862E-1	4.227920E-1	4.446809E-1	4.466085E-1	5.091637E-1	4.349459E-1	4.555418E-1	4.259844E-1	4.638419E-1	4.856685E-1	4.438115E-1	4.520211E-1	4.411940E-1	4.213864E-1	4.418569E-1	4.341307E-1	4.642312E-1	4.148732E-1	4.381584E-1	4.738343E-1	4.564145E-1	4.526720E-1	4.840854E-1	4.522380E-1	4.141952E-1	4.413905E-1	4.407341E-1	4.008679E-1	4.641191E-1	4.484362E-1	4.346864E-1	4.451965E-1	4.576333E-1	4.546278E-1	4.493006E-1	4.639479E-1	4.015124E-1	4.044692E-1	4.492327E-1	4.764141E-1	4.484341E-1	4.663755E-1	4.909768E-1
2.858030E+2	4.784536E-1	4.513199E-1	5.022319E-1	5.301506E-1	4.999370E-1	4.535876E-1	5.193687E-1	5.418086E-1	4.965778E-1	5.024454E-1	5.011941E-1	4.748822E-1	5.069568E-1	4.651625E-1	4.899212E-1	5.017855E-1	5.293264E-1	4.842121E-1	5.144645E-1	5.116004E-1	5.059439E-1	4.977041E-1	4.892852E-1	5.111850E-1	5.110131E-1	5.223556E-1	5.306414E-1	5.286273E-1	5.190789E-1	5.040294E-1	5.124225E-1	5.496390E-1	5.142829E-1	5.405182E-1	4.909182E-1	5.333675E-1	5.163039E-1	5.303849E-1	5.034519E-1	5.026986E-1	4.820479E-1	4.844625E-1	5.484578E-1	5.317034E-1	5.497345E-1	5.101499E-1	4.955644E-1	5.018925E-1	5.427987E-1	5.283603E-1	4.930112E-1	5.074662E-1	5.162362E-1	5.093241E-1	5.051073E-1	4.998208E-1	5.211017E-1	4.787104E-1	5.396051E-1	5.027731E-1	5.440044E-1	5.095320E-1	5.242218E-1	5.404932E-1	5.254433E-1	5.229560E-1	5.039992E-1	4.945396E-1	5.215553E-1	5.258428E-1	5.094774E-1	5.412221E-1	5.239672E-1	4.719484E-1	5.543971E-1	4.901852E-1	5.198575E-1	5.064010E-1	5.165661E-1	5.010064E-1	5.497958E-1	5.050541E-1	4.866265E-1	4.942627E-1	4.962618E-1	4.945210E-1	5.123536E-1	5.022510E-1	5.158050E-1	5.129509E-1	4.877471E-1	5.152076E-1	5.084839E-1	5.155672E-1	5.216530E-1	5.344441E-1	5.523152E-1	5.526184E-1	5.262653E-1	4.561728E-1	5.325451E-1	4.807608E-1	5.281290E-1	4.808145E-1	5.261150E-1	5.202752E-1	5.274288E-1	5.314569E-1	5.276867E-1	5.080719E-1	5.138747E-1	5.146356E-1	5.039350E-1	5.294427E-1	5.180974E-1	5.182673E-1	5.185285E-1	5.171145E-1	5.600902E-1	5.057421E-1	4.857409E-1	5.136914E-1	5.334064E-1	5.532225E-1	5.377926E-1	5.027250E-1	4.732601E-1	5.132137E-1	5.400831E-1	5.515041E-1	5.234673E-1	4.925060E-1	4.470599E-1	5.177043E-1	5.495553E-1	4.935298E-1	4.896400E-1	4.862199E-1	4.956122E-1	5.269969E-1	4.971933E-1	5.053587E-1	5.196630E-1	4.874248E-1	5.333091E-1	5.538334E-1	5.010033E-1	4.588789E-1	4.976097E-1	5.315736E-1	5.048738E-1	5.339362E-1	5.377215E-1	5.279998E-1	5.518392E-1	5.338573E-1	5.299579E-1	5.089493E-1	5.264378E-1	5.236862E-1	5.312916E-1	5.003292E-1	5.596253E-1	5.132759E-1	5.440706E-1	5.037082E-1	5.006696E-1	5.063676E-1	5.405016E-1	5.312389E-1	5.369114E-1
2.860020E+2	8.923523E-1	9.025266E-1	9.073980E-1	9.456439E-1	9.265023E-1	8.787950E-1	9.143688E-1	9.162813E-1	9.089367E-1	9.465162E-1	9.121626E-1	8.564362E-1	9.189499E-1	8.923044E-1	9.082896E-1	8.687111E-1	9.257014E-1	9.043241E-1	8.678697E-1	9.386012E-1	9.142734E-1	9.286824E-1	9.548557E-1	9.157447E-1	9.388566E-1	9.071819E-1	8.793857E-1	9.592204E-1	8.673339E-1	9.708639E-1	9.496682E-1	9.965688E-1	9.629823E-1	9.870882E-1	9.220481E-1	9.222689E-1	9.512018E-1	9.601881E-1	9.422603E-1	8.891148E-1	9.216517E-1	8.954181E-1	9.292123E-1	9.413938E-1	9.846730E-1	9.475957E-1	9.366273E-1	9.312867E-1	9.785880E-1	9.328010E-1	9.725394E-1	9.631163E-1	9.341151E-1	8.696831E-1	9.476903E-1	9.131295E-1	9.666730E-1	9.313516E-1	9.637403E-1	8.799936E-1	9.223112E-1	9.017223E-1	9.457707E-1	9.649783E-1	9.136703E-1	9.076642E-1	9.111522E-1	9.639908E-1	9.521284E-1	9.031636E-1	9.764997E-1	9.176168E-1	9.440331E-1	9.295926E-1	9.212589E-1	8.738066E-1	9.072809E-1	9.556658E-1	9.302038E-1	9.691221E-1	9.231212E-1	9.589633E-1	9.363416E-1	9.494623E-1	9.238398E-1	9.373788E-1	9.110353E-1	8.934557E-1	9.626192E-1	8.893215E-1	9.511762E-1	9.197083E-1	9.070066E-1	9.013238E-1	9.039248E-1	9.245294E-1	9.453822E-1	9.892513E-1	9.204846E-1	9.294933E-1	9.626465E-1	9.313722E-1	9.003339E-1	8.998638E-1	9.620491E-1	9.264602E-1	9.606029E-1	9.097693E-1	9.677123E-1	8.846162E-1	9.024787E-1	9.156234E-1	9.721818E-1	9.093606E-1	9.389741E-1	8.882646E-1	9.633211E-1	9.532563E-1	9.906620E-1	9.291013E-1	8.757104E-1	9.895613E-1	9.521973E-1	9.206819E-1	9.243442E-1	9.695303E-1	9.427488E-1	9.169990E-1	9.195318E-1	9.632778E-1	9.530414E-1	8.838598E-1	9.463115E-1	9.882151E-1	8.859329E-1	9.565565E-1	9.573755E-1	9.501623E-1	8.967847E-1	9.035986E-1	9.272213E-1	9.305962E-1	9.349939E-1	8.947886E-1	8.916512E-1	9.590307E-1	9.729327E-1	9.702649E-1	9.059292E-1	9.814650E-1	9.131169E-1	8.896468E-1	9.106952E-1	9.426577E-1	1.003255E+0	9.822558E-1	9.213177E-1	9.584996E-1	8.877632E-1	9.659949E-1	9.649899E-1	8.952408E-1	8.879034E-1	9.064395E-1	9.556126E-1	9.448959E-1	9.078206E-1	9.273819E-1	9.358520E-1	8.773788E-1	8.477396E-1
2.862050E+2	1.255130E+0	1.238300E+0	1.237507E+0	1.307095E+0	1.322489E+0	1.290053E+0	1.277632E+0	1.328699E+0	1.332733E+0	1.265332E+0	1.345507E+0	1.310954E+0	1.306596E+0	1.211805E+0	1.174983E+0	1.258615E+0	1.321877E+0	1.254972E+0	1.248693E+0	1.287956E+0	1.295003E+0	1.271922E+0	1.281637E+0	1.276407E+0	1.329382E+0	1.281857E+0	1.386120E+0	1.292687E+0	1.306373E+0	1.267165E+0	1.296803E+0	1.317921E+0	1.289592E+0	1.259147E+0	1.344585E+0	1.314994E+0	1.311208E+0	1.330107E+0	1.298196E+0	1.255796E+0	1.350560E+0	1.275433E+0	1.264775E+0	1.273406E+0	1.258898E+0	1.319435E+0	1.353268E+0	1.280314E+0	1.373583E+0	1.290352E+0	1.201588E+0	1.282034E+0	1.294313E+0	1.252598E+0	1.285873E+0	1.250466E+0	1.376704E+0	1.297548E+0	1.375622E+0	1.274816E+0	1.296571E+0	1.265644E+0	1.221871E+0	1.332251E+0	1.309752E+0	1.255108E+0	1.276849E+0	1.251278E+0	1.267033E+0	1.275341E+0	1.340297E+0	1.257268E+0	1.351557E+0	1.244468E+0	1.317471E+0	1.253954E+0	1.290925E+0	1.305313E+0	1.306882E+0	1.240468E+0	1.280647E+0	1.235708E+0	1.282464E+0	1.323108E+0	1.315862E+0	1.275446E+0	1.327115E+0	1.250252E+0	1.328861E+0	1.285142E+0	1.345617E+0	1.304744E+0	1.250374E+0	1.286347E+0	1.318078E+0	1.293917E+0	1.287416E+0	1.339793E+0	1.329147E+0	1.294634E+0	1.279412E+0	1.278029E+0	1.300949E+0	1.238642E+0	1.325448E+0	1.313158E+0	1.255966E+0	1.235531E+0	1.368548E+0	1.295744E+0	1.298138E+0	1.244605E+0	1.302347E+0	1.309712E+0	1.305042E+0	1.321942E+0	1.350252E+0	1.227067E+0	1.294973E+0	1.283607E+0	1.311023E+0	1.335348E+0	1.266760E+0	1.320144E+0	1.352629E+0	1.370367E+0	1.286534E+0	1.271922E+0	1.322299E+0	1.273375E+0	1.308834E+0	1.291286E+0	1.256448E+0	1.274835E+0	1.302021E+0	1.273922E+0	1.314954E+0	1.310000E+0	1.277573E+0	1.254319E+0	1.329072E+0	1.279672E+0	1.266913E+0	1.232470E+0	1.301014E+0	1.309398E+0	1.255473E+0	1.259732E+0	1.274025E+0	1.334904E+0	1.274523E+0	1.284346E+0	1.343560E+0	1.350521E+0	1.245427E+0	1.305927E+0	1.277039E+0	1.314097E+0	1.279765E+0	1.332865E+0	1.384870E+0	1.291845E+0	1.338610E+0	1.240216E+0	1.312729E+0	1.312499E+0	1.266671E+0	1.267178E+0	1.251752E+0	1.317549E+0	1.359383E+0
2.864160E+2	1.208054E+0	1.251034E+0	1.174956E+0	1.276133E+0	1.178655E+0	1.167521E+0	1.237096E+0	1.185035E+0	1.256970E+0	1.249535E+0	1.224770E+0	1.248344E+0	1.262465E+0	1.204868E+0	1.211445E+0	1.194436E+0	1.229760E+0	1.162150E+0	1.212761E+0	1.208281E+0	1.238546E+0	1.273611E+0	1.226184E+0	1.133349E+0	1.139877E+0	1.224864E+0	1.184632E+0	1.176891E+0	1.148417E+0	1.165900E+0	1.178127E+0	1.149545E+0	1.206731E+0	1.151088E+0	1.165911E+0	1.176157E+0	1.217465E+0	1.217675E+0	1.151797E+0	1.142879E+0	1.154198E+0	1.132265E+0	1.181409E+0	1.176431E+0	1.148427E+0	1.204082E+0	1.256035E+0	1.257704E+0	1.215115E+0	1.123672E+0	1.183086E+0	1.180143E+0	1.177742E+0	1.165370E+0	1.238377E+0	1.240789E+0	1.213141E+0	1.218464E+0	1.282750E+0	1.189451E+0	1.240003E+0	1.148348E+0	1.237210E+0	1.138876E+0	1.115077E+0	1.199444E+0	1.210929E+0	1.194858E+0	1.211411E+0	1.168957E+0	1.219906E+0	1.206604E+0	1.253299E+0	1.185845E+0	1.204933E+0	1.113842E+0	1.187132E+0	1.251237E+0	1.224652E+0	1.173701E+0	1.192655E+0	1.188693E+0	1.193348E+0	1.142686E+0	1.184963E+0	1.228570E+0	1.173628E+0	1.173709E+0	1.230005E+0	1.224549E+0	1.206295E+0	1.200437E+0	1.228786E+0	1.150346E+0	1.189782E+0	1.199621E+0	1.173423E+0	1.195728E+0	1.167129E+0	1.245831E+0	1.238888E+0	1.189234E+0	1.190257E+0	1.186753E+0	1.188050E+0	1.183139E+0	1.264933E+0	1.162214E+0	1.234056E+0	1.140778E+0	1.212803E+0	1.233847E+0	1.238146E+0	1.208723E+0	1.163703E+0	1.218590E+0	1.259473E+0	1.167142E+0	1.245985E+0	1.204341E+0	1.240771E+0	1.223234E+0	1.206787E+0	1.233612E+0	1.220866E+0	1.170546E+0	1.203469E+0	1.151608E+0	1.209940E+0	1.195909E+0	1.168836E+0	1.171958E+0	1.194518E+0	1.213259E+0	1.211302E+0	1.179980E+0	1.219594E+0	1.241678E+0	1.261065E+0	1.234920E+0	1.169096E+0	1.229231E+0	1.178483E+0	1.148197E+0	1.180546E+0	1.175533E+0	1.168237E+0	1.231980E+0	1.212589E+0	1.204747E+0	1.245423E+0	1.195900E+0	1.227452E+0	1.225689E+0	1.251798E+0	1.184316E+0	1.154453E+0	1.251602E+0	1.186681E+0	1.167409E+0	1.266488E+0	1.223293E+0	1.251931E+0	1.195301E+0	1.235378E+0	1.219517E+0	1.199144E+0	1.262944E+0	1.235585E+0	1.174138E+0	1.238327E+0
2.866130E+2	1.083280E+0	1.199289E+0	1.195402E+0	1.201591E+0	1.172428E+0	1.149501E+0	1.245108E+0	1.203406E+0	1.152115E+0	1.166658E+0	1.235660E+0	1.229077E+0	1.224795E+0	1.112790E+0	1.164234E+0	1.166120E+0	1.212203E+0	1.095929E+0	1.154746E+0	1.121243E+0	1.138291E+0	1.215857E+0	1.198590E+0	1.197743E+0	1.246080E+0	1.164061E+0	1.164268E+0	1.202159E+0	1.155693E+0	1.167604E+0	1.141481E+0	1.103165E+0	1.124577E+0	1.170437E+0	1.149727E+0	1.169047E+0	1.146886E+0	1.163447E+0	1.160402E+0	1.184727E+0	1.119672E+0	1.170044E+0	1.198687E+0	1.215670E+0	1.249752E+0	1.157960E+0	1.201436E+0	1.205970E+0	1.161970E+0	1.173402E+0	1.159834E+0	1.156342E+0	1.243669E+0	1.220764E+0	1.224594E+0	1.123719E+0	1.228777E+0	1.176166E+0	1.170466E+0	1.192066E+0	1.126404E+0	1.172762E+0	1.206270E+0	1.150173E+0	1.180812E+0	1.157001E+0	1.187453E+0	1.142030E+0	1.193060E+0	1.176683E+0	1.177975E+0	1.141023E+0	1.274273E+0	1.190420E+0	1.192428E+0	1.178971E+0	1.189508E+0	1.176178E+0	1.199525E+0	1.185619E+0	1.147586E+0	1.196474E+0	1.166637E+0	1.176028E+0	1.242513E+0	1.169350E+0	1.209853E+0	1.163339E+0	1.174036E+0	1.140372E+0	1.122986E+0	1.212582E+0	1.176072E+0	1.137519E+0	1.195799E+0	1.170656E+0	1.201545E+0	1.197769E+0	1.139911E+0	1.219623E+0	1.244051E+0	1.119740E+0	1.125426E+0	1.164258E+0	1.196877E+0	1.121561E+0	1.157829E+0	1.120533E+0	1.179398E+0	1.167546E+0	1.169134E+0	1.213185E+0	1.211379E+0	1.127036E+0	1.129042E+0	1.176411E+0	1.251916E+0	1.113825E+0	1.185818E+0	1.169937E+0	1.159327E+0	1.160019E+0	1.176516E+0	1.150892E+0	1.167997E+0	1.190873E+0	1.178774E+0	1.166850E+0	1.240247E+0	1.139600E+0	1.190508E+0	1.213541E+0	1.172936E+0	1.216440E+0	1.220252E+0	1.158450E+0	1.224669E+0	1.200372E+0	1.176023E+0	1.213423E+0	1.152841E+0	1.188831E+0	1.152966E+0	1.143409E+0	1.157923E+0	1.155886E+0	1.227664E+0	1.188714E+0	1.183462E+0	1.155544E+0	1.162288E+0	1.157854E+0	1.169038E+0	1.172874E+0	1.140033E+0	1.146094E+0	1.171778E+0	1.211888E+0	1.169025E+0	1.135131E+0	1.185662E+0	1.184460E+0	1.211036E+0	1.149324E+0	1.201999E+0	1.236194E+0	1.150875E+0	1.253299E+0	1.195018E+0	1.214407E+0	1.122955E+0
2.868020E+2	1.438252E+0	1.473693E+0	1.444381E+0	1.505292E+0	1.453356E+0	1.455857E+0	1.468320E+0	1.497550E+0	1.488651E+0	1.455358E+0	1.463887E+0	1.476953E+0	1.476925E+0	1.423936E+0	1.484995E+0	1.399496E+0	1.511451E+0	1.420712E+0	1.457811E+0	1.449729E+0	1.493447E+0	1.520910E+0	1.414923E+0	1.462200E+0	1.393912E+0	1.368864E+0	1.364698E+0	1.489317E+0	1.431553E+0	1.505570E+0	1.428349E+0	1.424001E+0	1.458969E+0	1.535678E+0	1.425955E+0	1.487103E+0	1.409041E+0	1.425115E+0	1.467768E+0	1.420483E+0	1.403217E+0	1.413631E+0	1.448041E+0	1.440589E+0	1.517233E+0	1.448754E+0	1.475725E+0	1.503490E+0	1.514352E+0	1.409874E+0	1.447396E+0	1.432499E+0	1.464937E+0	1.443476E+0	1.422697E+0	1.373289E+0	1.437841E+0	1.465367E+0	1.478991E+0	1.372335E+0	1.416913E+0	1.441016E+0	1.506203E+0	1.402582E+0	1.519704E+0	1.388001E+0	1.379123E+0	1.414210E+0	1.486901E+0	1.446233E+0	1.418749E+0	1.418373E+0	1.483540E+0	1.422011E+0	1.426079E+0	1.450517E+0	1.457292E+0	1.445269E+0	1.434103E+0	1.478987E+0	1.439166E+0	1.497751E+0	1.456274E+0	1.364542E+0	1.423674E+0	1.419751E+0	1.508642E+0	1.414487E+0	1.470272E+0	1.368406E+0	1.368284E+0	1.467291E+0	1.390888E+0	1.456438E+0	1.427255E+0	1.451808E+0	1.486336E+0	1.492485E+0	1.357075E+0	1.414857E+0	1.474650E+0	1.420217E+0	1.456611E+0	1.439369E+0	1.516173E+0	1.450865E+0	1.458877E+0	1.428750E+0	1.380624E+0	1.406336E+0	1.515993E+0	1.480933E+0	1.386828E+0	1.475016E+0	1.461236E+0	1.499895E+0	1.497220E+0	1.449656E+0	1.505554E+0	1.428051E+0	1.474080E+0	1.465912E+0	1.426530E+0	1.403222E+0	1.473117E+0	1.483411E+0	1.422677E+0	1.451222E+0	1.397302E+0	1.460096E+0	1.496890E+0	1.461281E+0	1.454830E+0	1.454971E+0	1.411899E+0	1.388500E+0	1.487650E+0	1.448138E+0	1.489635E+0	1.424004E+0	1.412280E+0	1.421586E+0	1.436056E+0	1.377082E+0	1.483645E+0	1.440234E+0	1.465127E+0	1.512928E+0	1.434316E+0	1.513802E+0	1.476852E+0	1.439501E+0	1.514666E+0	1.555906E+0	1.566891E+0	1.466896E+0	1.453427E+0	1.457578E+0	1.399012E+0	1.456198E+0	1.480224E+0	1.444269E+0	1.507798E+0	1.494949E+0	1.518714E+0	1.477156E+0	1.424128E+0	1.476377E+0	1.462468E+0	1.593074E+0	1.496377E+0
2.870070E+2	1.380307E+0	1.416138E+0	1.352943E+0	1.473730E+0	1.349621E+0	1.455804E+0	1.443652E+0	1.405508E+0	1.378424E+0	1.354926E+0	1.362636E+0	1.317756E+0	1.358079E+0	1.383243E+0	1.441456E+0	1.357324E+0	1.360697E+0	1.426558E+0	1.354260E+0	1.397367E+0	1.345519E+0	1.397433E+0	1.322179E+0	1.385437E+0	1.253698E+0	1.305496E+0	1.395694E+0	1.299355E+0	1.383710E+0	1.356699E+0	1.380932E+0	1.310217E+0	1.320521E+0	1.413434E+0	1.318418E+0	1.407272E+0	1.353953E+0	1.395538E+0	1.354996E+0	1.276638E+0	1.336307E+0	1.373645E+0	1.325302E+0	1.385694E+0	1.382153E+0	1.385519E+0	1.319526E+0	1.393499E+0	1.335145E+0	1.339235E+0	1.342030E+0	1.339269E+0	1.377788E+0	1.324070E+0	1.416508E+0	1.365019E+0	1.386445E+0	1.331705E+0	1.404038E+0	1.258873E+0	1.388484E+0	1.301860E+0	1.376685E+0	1.293769E+0	1.355610E+0	1.353172E+0	1.329674E+0	1.384888E+0	1.364766E+0	1.354246E+0	1.392007E+0	1.328361E+0	1.366309E+0	1.299072E+0	1.335784E+0	1.334681E+0	1.359443E+0	1.345699E+0	1.413608E+0	1.345660E+0	1.271007E+0	1.370015E+0	1.363815E+0	1.294922E+0	1.423088E+0	1.357035E+0	1.334649E+0	1.310702E+0	1.359436E+0	1.343330E+0	1.377391E+0	1.359810E+0	1.346271E+0	1.344410E+0	1.393474E+0	1.366206E+0	1.380076E+0	1.337652E+0	1.367941E+0	1.287147E+0	1.343578E+0	1.293968E+0	1.384825E+0	1.330909E+0	1.333849E+0	1.354370E+0	1.363540E+0	1.342910E+0	1.410606E+0	1.384507E+0	1.374318E+0	1.382697E+0	1.418980E+0	1.394421E+0	1.335673E+0	1.375941E+0	1.424137E+0	1.326043E+0	1.425930E+0	1.372626E+0	1.335708E+0	1.377427E+0	1.402488E+0	1.369346E+0	1.394902E+0	1.395253E+0	1.370133E+0	1.395715E+0	1.439815E+0	1.380881E+0	1.321829E+0	1.338869E+0	1.338704E+0	1.378301E+0	1.391206E+0	1.315777E+0	1.378894E+0	1.406291E+0	1.404454E+0	1.355169E+0	1.377627E+0	1.319467E+0	1.324686E+0	1.340916E+0	1.306205E+0	1.372317E+0	1.400949E+0	1.363719E+0	1.314560E+0	1.374795E+0	1.375670E+0	1.292274E+0	1.378122E+0	1.371238E+0	1.380175E+0	1.376206E+0	1.327379E+0	1.384687E+0	1.376907E+0	1.374207E+0	1.401430E+0	1.382750E+0	1.389003E+0	1.368766E+0	1.407468E+0	1.420320E+0	1.310152E+0	1.387876E+0	1.356895E+0	1.439199E+0	1.363626E+0
2.872120E+2	1.045399E+0	1.069264E+0	1.046256E+0	1.050094E+0	1.050396E+0	1.058605E+0	1.073610E+0	1.052825E+0	1.061907E+0	1.037043E+0	1.067719E+0	1.096319E+0	1.070129E+0	1.002174E+0	1.056722E+0	1.073387E+0	1.080563E+0	1.060902E+0	1.044697E+0	9.695967E-1	1.071665E+0	1.056008E+0	1.078117E+0	1.023110E+0	1.064218E+0	1.064411E+0	1.039370E+0	1.052515E+0	1.007269E+0	9.857207E-1	1.033254E+0	1.006853E+0	1.065842E+0	1.020347E+0	1.021009E+0	1.053131E+0	1.067776E+0	1.137685E+0	1.066649E+0	1.055843E+0	1.076271E+0	1.061612E+0	1.066348E+0	1.013626E+0	1.027334E+0	1.053881E+0	1.133027E+0	1.032123E+0	1.063738E+0	9.889758E-1	1.030834E+0	1.036160E+0	1.051374E+0	1.081200E+0	1.026644E+0	1.020969E+0	1.017953E+0	1.040186E+0	1.063273E+0	1.011477E+0	1.069454E+0	1.098793E+0	1.048070E+0	1.013247E+0	1.053364E+0	1.085007E+0	1.019882E+0	1.008971E+0	1.026367E+0	1.057375E+0	1.082572E+0	9.998716E-1	1.026304E+0	1.035605E+0	1.071155E+0	1.050340E+0	1.068113E+0	1.036886E+0	1.077072E+0	1.101511E+0	1.069431E+0	1.108229E+0	1.041463E+0	1.029554E+0	1.061743E+0	1.032936E+0	1.087746E+0	1.011627E+0	1.054924E+0	1.080490E+0	9.911708E-1	1.007427E+0	1.047933E+0	1.014651E+0	1.063492E+0	1.123384E+0	1.056383E+0	1.080365E+0	1.062498E+0	1.003272E+0	1.028308E+0	1.031542E+0	1.045161E+0	1.066714E+0	1.055628E+0	1.036787E+0	1.092851E+0	1.048538E+0	1.066971E+0	1.072822E+0	1.050743E+0	1.012278E+0	1.088656E+0	1.027571E+0	1.042465E+0	1.039864E+0	1.061819E+0	1.072881E+0	1.050054E+0	1.036538E+0	1.073007E+0	1.076471E+0	1.053777E+0	1.051126E+0	1.086617E+0	1.081505E+0	1.089776E+0	1.019091E+0	1.035404E+0	1.084605E+0	1.084332E+0	1.062425E+0	1.038292E+0	1.052011E+0	1.112638E+0	1.033004E+0	1.021915E+0	1.025831E+0	1.085142E+0	1.037821E+0	1.057206E+0	1.113687E+0	1.065029E+0	1.040072E+0	1.066931E+0	1.077380E+0	1.038917E+0	1.035983E+0	1.025478E+0	1.080661E+0	1.046028E+0	1.052975E+0	1.060883E+0	1.052980E+0	1.080841E+0	1.000210E+0	1.039429E+0	1.100004E+0	1.102095E+0	1.043685E+0	1.124067E+0	1.083536E+0	1.115451E+0	1.056591E+0	1.101358E+0	1.084367E+0	1.083745E+0	1.089630E+0	1.114184E+0	9.624542E-1	1.080881E+0
2.874030E+2	8.883249E-1	9.449839E-1	8.974484E-1	9.356180E-1	9.721459E-1	9.670939E-1	9.729519E-1	8.941071E-1	9.797175E-1	9.180523E-1	9.127051E-1	9.296096E-1	1.004483E+0	8.843506E-1	8.890353E-1	8.858130E-1	9.291028E-1	8.991263E-1	9.195286E-1	9.132363E-1	9.464406E-1	9.311460E-1	9.685594E-1	9.209098E-1	9.325301E-1	9.247049E-1	9.622332E-1	9.465721E-1	8.672098E-1	9.209616E-1	9.421859E-1	9.384132E-1	8.977798E-1	9.819006E-1	8.914332E-1	9.206598E-1	8.960856E-1	9.408610E-1	9.590472E-1	9.058996E-1	9.384151E-1	9.089346E-1	9.565820E-1	9.573242E-1	9.115397E-1	9.312812E-1	9.665545E-1	9.590461E-1	9.314043E-1	9.711076E-1	9.017026E-1	9.329537E-1	9.693603E-1	9.451307E-1	9.288567E-1	9.018015E-1	9.397296E-1	9.642999E-1	1.005075E+0	9.114257E-1	9.480145E-1	9.100381E-1	9.245535E-1	9.406256E-1	9.353061E-1	9.486223E-1	9.602314E-1	8.837050E-1	9.507834E-1	9.968640E-1	1.005654E+0	9.154897E-1	9.597542E-1	9.720626E-1	8.949107E-1	9.432644E-1	9.437005E-1	9.254139E-1	9.403269E-1	9.490622E-1	9.142028E-1	9.805284E-1	9.631615E-1	9.579611E-1	9.226623E-1	9.185705E-1	9.541124E-1	9.212277E-1	9.500368E-1	9.380154E-1	1.007365E+0	9.525225E-1	9.154923E-1	9.486484E-1	9.223088E-1	9.595488E-1	9.398698E-1	9.887168E-1	8.945710E-1	9.046017E-1	9.689387E-1	9.529125E-1	9.004999E-1	9.225005E-1	9.593214E-1	9.292878E-1	9.894486E-1	9.587197E-1	9.372017E-1	9.022731E-1	9.602144E-1	1.003214E+0	9.503589E-1	9.475278E-1	9.568980E-1	9.619142E-1	9.895189E-1	9.716388E-1	9.445490E-1	9.085823E-1	9.642275E-1	9.257791E-1	9.840285E-1	9.881490E-1	9.784927E-1	9.081780E-1	9.398659E-1	9.402535E-1	9.817760E-1	8.973931E-1	9.665426E-1	9.120475E-1	9.710432E-1	9.474559E-1	9.410203E-1	9.356640E-1	9.511628E-1	1.002229E+0	9.680883E-1	8.874698E-1	9.946452E-1	9.461253E-1	9.685930E-1	9.574295E-1	9.671430E-1	9.042330E-1	9.256838E-1	8.576256E-1	9.487778E-1	9.591820E-1	9.053127E-1	9.842405E-1	9.040448E-1	9.999968E-1	1.001726E+0	9.418875E-1	9.760744E-1	9.528809E-1	9.729949E-1	9.581404E-1	9.190202E-1	9.126584E-1	9.151666E-1	9.163125E-1	1.005241E+0	9.937704E-1	9.364659E-1	9.762120E-1	9.349363E-1	9.578829E-1	9.289691E-1
2.876210E+2	8.288146E-1	8.655589E-1	8.576944E-1	8.487586E-1	7.852294E-1	8.602331E-1	8.637380E-1	8.444199E-1	8.444935E-1	8.111014E-1	8.716435E-1	8.817515E-1	8.106042E-1	8.597252E-1	8.436222E-1	7.854309E-1	8.302346E-1	8.221268E-1	8.162628E-1	7.944284E-1	8.354981E-1	8.460587E-1	9.016917E-1	8.611122E-1	8.506972E-1	8.820097E-1	8.285692E-1	8.607935E-1	8.080740E-1	8.354375E-1	8.404722E-1	8.248444E-1	7.733063E-1	8.007947E-1	8.071096E-1	8.508434E-1	8.008546E-1	8.933052E-1	8.397899E-1	7.907430E-1	8.081394E-1	8.247935E-1	8.485230E-1	8.530930E-1	8.692378E-1	8.188654E-1	8.756405E-1	8.423743E-1	8.345870E-1	8.141576E-1	8.477728E-1	9.105386E-1	7.905470E-1	7.945270E-1	8.309224E-1	8.721750E-1	8.272087E-1	8.622571E-1	8.286101E-1	8.612956E-1	8.366017E-1	8.617053E-1	8.368911E-1	8.537762E-1	8.583565E-1	8.406808E-1	8.321301E-1	8.217332E-1	8.265349E-1	8.358479E-1	8.059239E-1	8.894358E-1	8.314449E-1	8.710897E-1	8.490392E-1	7.731595E-1	8.894037E-1	8.936300E-1	8.402341E-1	8.319230E-1	9.100702E-1	8.343086E-1	8.600792E-1	8.372212E-1	8.327974E-1	8.908803E-1	8.322691E-1	7.815931E-1	8.246208E-1	8.640142E-1	8.439793E-1	8.284587E-1	8.361702E-1	8.183564E-1	7.968964E-1	8.319797E-1	8.617129E-1	8.858438E-1	8.778881E-1	8.042497E-1	8.410300E-1	8.450432E-1	8.645625E-1	8.474914E-1	8.518976E-1	8.643412E-1	7.905273E-1	8.469600E-1	8.467945E-1	8.644587E-1	8.991711E-1	8.634309E-1	8.675397E-1	8.144514E-1	8.516571E-1	8.720957E-1	8.464187E-1	8.748701E-1	8.694545E-1	8.459542E-1	8.066257E-1	8.929429E-1	8.294095E-1	8.393366E-1	8.246997E-1	8.362939E-1	8.539536E-1	8.550557E-1	8.514117E-1	8.833916E-1	8.044504E-1	8.448467E-1	8.418797E-1	8.383576E-1	8.889907E-1	8.162952E-1	8.596618E-1	8.886478E-1	8.760612E-1	8.542187E-1	8.640863E-1	8.149519E-1	8.102351E-1	8.071586E-1	8.598548E-1	8.569571E-1	8.448005E-1	8.495934E-1	8.211211E-1	8.543253E-1	8.121862E-1	8.590814E-1	8.485442E-1	8.705718E-1	8.479314E-1	8.402273E-1	7.756407E-1	8.596399E-1	7.823824E-1	8.533296E-1	8.322150E-1	8.416328E-1	8.227021E-1	8.244517E-1	8.208426E-1	8.704328E-1	8.257454E-1	8.260367E-1	8.867446E-1	8.898021E-1	8.784777E-1
2.878020E+2	7.451600E-1	7.065760E-1	7.448235E-1	7.521967E-1	7.085944E-1	7.447987E-1	7.630151E-1	7.639805E-1	7.422512E-1	7.611280E-1	7.758010E-1	7.775807E-1	7.531096E-1	7.223091E-1	7.347888E-1	7.568329E-1	7.738228E-1	7.531458E-1	7.578690E-1	7.225345E-1	7.628040E-1	7.724918E-1	7.170250E-1	7.869100E-1	7.391368E-1	7.419370E-1	8.142233E-1	7.680913E-1	7.529143E-1	7.684419E-1	7.513390E-1	7.414151E-1	7.914585E-1	7.572274E-1	7.440383E-1	7.621318E-1	7.322872E-1	7.791985E-1	7.460743E-1	7.093210E-1	6.982476E-1	7.588497E-1	7.790052E-1	7.389901E-1	7.510331E-1	7.589067E-1	8.138691E-1	7.654329E-1	8.370493E-1	7.451824E-1	7.444865E-1	7.539325E-1	7.836726E-1	7.429988E-1	7.361017E-1	7.171438E-1	7.572596E-1	7.736809E-1	7.639560E-1	7.254500E-1	7.414406E-1	7.696110E-1	7.333012E-1	8.195649E-1	7.996908E-1	7.929659E-1	7.859266E-1	7.604831E-1	7.373824E-1	7.973539E-1	8.011517E-1	7.613086E-1	7.590756E-1	7.652111E-1	7.532923E-1	7.394484E-1	7.494601E-1	7.587971E-1	7.338877E-1	7.495975E-1	7.725207E-1	7.848212E-1	7.783042E-1	8.038398E-1	7.489318E-1	7.962573E-1	7.600310E-1	7.388196E-1	7.170382E-1	7.172715E-1	7.095218E-1	7.462180E-1	7.609044E-1	7.870585E-1	7.591466E-1	7.253983E-1	7.563531E-1	7.579529E-1	7.828887E-1	7.425137E-1	7.697550E-1	7.833845E-1	7.503066E-1	7.601556E-1	7.808666E-1	7.692372E-1	8.375890E-1	7.670631E-1	7.803018E-1	7.240155E-1	7.624518E-1	7.788443E-1	7.793261E-1	7.332289E-1	7.620842E-1	7.641396E-1	7.611363E-1	7.641485E-1	7.849717E-1	7.230432E-1	7.445224E-1	8.082883E-1	7.639907E-1	7.362567E-1	7.759645E-1	7.381611E-1	7.646458E-1	7.225884E-1	7.424678E-1	7.899219E-1	7.327593E-1	7.333082E-1	7.576672E-1	8.058330E-1	7.945788E-1	7.751263E-1	7.498491E-1	7.856676E-1	7.663388E-1	7.245327E-1	7.745395E-1	7.611463E-1	7.617622E-1	7.894924E-1	7.536159E-1	7.635081E-1	7.080240E-1	7.111654E-1	7.689828E-1	8.313051E-1	7.332886E-1	7.816058E-1	7.619764E-1	7.938789E-1	7.733685E-1	7.341872E-1	7.466495E-1	7.646681E-1	7.614726E-1	7.967779E-1	7.883927E-1	7.801729E-1	7.715097E-1	7.591270E-1	7.873696E-1	8.185859E-1	7.640200E-1	7.473430E-1	7.817922E-1	8.031838E-1	8.143850E-1
2.880020E+2	6.832876E-1	6.839219E-1	6.916303E-1	6.705509E-1	7.058277E-1	6.963216E-1	6.886804E-1	6.664326E-1	6.947810E-1	6.937139E-1	6.670043E-1	6.445551E-1	6.479270E-1	6.927981E-1	7.189411E-1	6.643621E-1	7.069773E-1	6.897584E-1	6.888077E-1	6.201977E-1	6.637907E-1	6.770860E-1	6.628514E-1	6.917282E-1	7.001929E-1	7.098373E-1	7.113633E-1	7.264718E-1	7.156231E-1	6.925423E-1	7.162877E-1	6.923344E-1	6.900835E-1	7.053278E-1	7.145359E-1	7.173605E-1	6.665740E-1	7.171003E-1	6.812562E-1	7.041329E-1	6.657075E-1	7.140032E-1	6.780306E-1	7.575923E-1	6.807954E-1	6.660510E-1	6.902433E-1	6.840181E-1	6.593245E-1	6.588730E-1	6.303889E-1	7.279520E-1	6.695790E-1	6.611458E-1	6.861751E-1	6.630141E-1	6.736386E-1	7.236302E-1	6.718246E-1	6.712145E-1	6.628860E-1	6.876168E-1	7.188823E-1	6.418712E-1	6.971052E-1	6.881268E-1	6.728813E-1	7.123315E-1	7.117226E-1	6.977918E-1	6.882947E-1	6.612846E-1	6.548672E-1	6.892288E-1	6.661055E-1	7.108496E-1	6.970207E-1	7.160709E-1	6.872306E-1	6.619218E-1	7.150275E-1	6.672499E-1	6.820680E-1	6.815150E-1	6.764960E-1	7.041031E-1	7.028925E-1	6.918886E-1	6.863861E-1	6.624930E-1	7.002951E-1	6.828720E-1	6.769529E-1	7.071316E-1	6.611787E-1	6.528148E-1	6.755232E-1	6.893106E-1	6.666655E-1	6.641597E-1	6.985763E-1	7.291972E-1	6.921182E-1	6.840965E-1	7.170183E-1	6.937555E-1	7.109481E-1	6.757839E-1	7.173840E-1	6.891959E-1	7.127672E-1	7.183780E-1	6.791653E-1	7.302566E-1	6.863551E-1	6.828871E-1	6.887376E-1	6.842224E-1	6.968109E-1	6.723728E-1	6.756232E-1	7.048045E-1	7.061090E-1	6.738629E-1	7.111784E-1	6.603556E-1	6.466218E-1	7.002988E-1	7.287747E-1	6.659111E-1	7.060237E-1	7.262094E-1	6.568527E-1	7.244790E-1	7.039387E-1	6.895689E-1	7.001268E-1	7.040702E-1	7.332922E-1	7.021499E-1	6.989130E-1	7.378629E-1	7.227865E-1	6.989177E-1	7.295699E-1	7.329660E-1	6.862585E-1	6.941799E-1	7.093419E-1	7.021508E-1	6.730384E-1	6.975094E-1	7.311056E-1	7.255437E-1	7.100127E-1	6.770084E-1	6.798449E-1	6.722058E-1	6.329141E-1	7.091459E-1	7.020579E-1	6.312998E-1	7.072340E-1	6.438016E-1	7.067035E-1	6.853637E-1	7.164278E-1	6.386285E-1	6.595783E-1	7.025406E-1	6.806350E-1
2.882230E+2	6.897025E-1	7.207453E-1	6.889733E-1	6.802430E-1	6.984582E-1	6.920871E-1	6.809134E-1	7.294096E-1	6.887746E-1	6.777227E-1	6.739290E-1	7.072565E-1	7.238882E-1	6.964707E-1	7.535970E-1	7.250817E-1	6.833458E-1	6.955711E-1	6.870006E-1	6.550396E-1	6.876642E-1	7.262467E-1	7.587044E-1	7.352914E-1	7.189217E-1	6.978462E-1	7.026549E-1	7.155813E-1	7.497134E-1	7.615693E-1	7.369571E-1	7.555072E-1	6.960682E-1	7.215061E-1	7.321390E-1	7.519205E-1	6.899902E-1	7.307215E-1	7.094231E-1	7.243175E-1	6.920034E-1	7.322368E-1	7.351372E-1	7.309132E-1	7.456336E-1	7.370824E-1	7.748472E-1	7.234582E-1	7.415048E-1	7.166504E-1	7.300554E-1	7.334612E-1	7.547174E-1	7.423903E-1	7.324307E-1	7.323292E-1	7.348959E-1	7.318160E-1	7.744221E-1	6.926694E-1	7.478360E-1	7.152159E-1	7.333486E-1	6.799583E-1	7.615448E-1	7.559284E-1	7.770740E-1	7.089825E-1	6.853863E-1	7.222093E-1	7.404282E-1	6.857530E-1	7.403409E-1	7.100103E-1	6.629514E-1	7.287706E-1	7.413025E-1	7.134405E-1	7.191989E-1	7.332236E-1	7.132267E-1	7.555142E-1	6.887803E-1	7.026257E-1	7.052090E-1	7.571558E-1	7.330059E-1	7.108669E-1	6.932774E-1	6.888370E-1	6.883381E-1	6.983175E-1	7.084797E-1	6.925347E-1	7.052049E-1	7.226763E-1	7.401824E-1	7.338278E-1	7.452511E-1	7.190197E-1	7.157170E-1	7.374049E-1	6.758942E-1	7.172238E-1	7.625967E-1	7.289659E-1	7.886777E-1	6.768170E-1	7.105412E-1	7.721717E-1	7.131399E-1	6.773378E-1	7.223663E-1	7.600740E-1	7.367219E-1	6.948948E-1	7.404653E-1	7.532613E-1	7.484164E-1	7.856861E-1	7.436790E-1	7.331384E-1	7.334712E-1	7.044597E-1	7.533584E-1	7.494860E-1	7.684303E-1	6.917050E-1	7.189193E-1	7.297887E-1	6.869052E-1	7.110724E-1	7.422042E-1	7.218409E-1	7.430124E-1	7.221129E-1	7.512002E-1	7.080966E-1	7.834791E-1	7.308430E-1	7.084028E-1	7.443354E-1	7.245172E-1	6.956332E-1	7.049468E-1	7.224872E-1	7.272370E-1	7.063670E-1	7.000570E-1	7.332350E-1	7.367634E-1	6.872996E-1	7.075461E-1	7.321980E-1	7.474674E-1	7.236137E-1	7.398495E-1	7.340302E-1	7.142515E-1	6.987604E-1	7.520770E-1	7.381379E-1	7.346464E-1	7.168334E-1	7.787748E-1	7.635833E-1	6.881277E-1	7.533443E-1	6.859713E-1	7.691943E-1	7.157107E-1
2.884130E+2	9.359459E-1	9.895233E-1	9.187435E-1	1.003336E+0	9.492545E-1	9.159166E-1	9.030858E-1	9.095596E-1	9.499957E-1	9.583779E-1	9.866694E-1	9.228962E-1	9.416069E-1	9.615183E-1	9.184547E-1	9.627945E-1	9.631002E-1	9.691476E-1	9.367834E-1	9.363351E-1	9.296609E-1	9.382261E-1	1.042200E+0	1.005607E+0	9.474960E-1	9.675466E-1	9.629606E-1	9.579575E-1	9.230311E-1	9.710194E-1	9.555616E-1	9.271758E-1	9.608628E-1	9.627047E-1	9.527838E-1	9.992782E-1	9.735388E-1	9.687982E-1	9.447158E-1	9.494013E-1	9.165452E-1	9.911337E-1	9.862488E-1	9.811447E-1	9.601761E-1	9.835663E-1	9.815619E-1	9.843025E-1	9.234513E-1	9.572054E-1	9.795104E-1	9.562709E-1	9.496583E-1	9.445123E-1	1.011767E+0	9.376975E-1	9.695492E-1	9.750699E-1	9.346390E-1	9.136696E-1	9.558982E-1	9.688828E-1	9.790473E-1	9.655045E-1	9.209820E-1	9.573035E-1	1.002368E+0	9.791967E-1	9.272090E-1	9.517715E-1	1.013493E+0	9.201533E-1	9.902471E-1	9.498144E-1	1.002905E+0	1.006783E+0	9.203601E-1	9.099714E-1	9.538606E-1	9.528297E-1	9.606134E-1	9.901676E-1	9.656390E-1	9.415802E-1	9.783236E-1	9.483804E-1	1.010160E+0	9.566409E-1	9.496762E-1	9.572227E-1	8.950457E-1	9.697100E-1	9.685223E-1	9.584459E-1	9.583082E-1	9.149437E-1	9.685094E-1	9.998862E-1	9.627003E-1	9.396400E-1	9.535274E-1	9.861002E-1	1.019072E+0	9.492052E-1	9.368645E-1	9.356160E-1	1.004373E+0	1.001613E+0	9.505425E-1	9.163273E-1	9.359033E-1	9.790082E-1	9.847638E-1	9.713432E-1	9.801823E-1	9.971844E-1	9.506281E-1	9.776435E-1	9.508089E-1	9.576368E-1	9.436277E-1	9.729669E-1	9.519801E-1	9.672064E-1	9.887752E-1	9.633648E-1	9.905334E-1	9.690398E-1	9.461359E-1	9.197951E-1	9.906596E-1	9.419292E-1	9.454185E-1	9.320979E-1	9.493931E-1	9.112482E-1	9.645743E-1	1.024007E+0	9.204618E-1	9.206471E-1	9.275197E-1	9.714300E-1	9.519336E-1	9.339930E-1	9.618414E-1	1.007176E+0	9.094625E-1	9.240835E-1	9.253124E-1	1.001641E+0	9.184773E-1	9.059290E-1	9.312930E-1	8.972603E-1	1.027822E+0	9.099176E-1	8.999017E-1	9.431834E-1	9.032288E-1	9.827068E-1	9.707889E-1	9.460138E-1	9.175152E-1	9.289821E-1	9.664305E-1	9.746913E-1	9.508038E-1	9.419585E-1	9.301312E-1	1.034397E+0	8.907613E-1
2.886030E+2	1.211020E+0	1.232411E+0	1.222368E+0	1.239848E+0	1.244844E+0	1.216469E+0	1.206412E+0	1.217241E+0	1.266144E+0	1.223366E+0	1.145909E+0	1.211097E+0	1.210843E+0	1.181167E+0	1.196907E+0	1.216545E+0	1.194919E+0	1.228080E+0	1.154906E+0	1.193585E+0	1.161434E+0	1.219969E+0	1.224097E+0	1.201232E+0	1.137614E+0	1.208566E+0	1.211216E+0	1.240621E+0	1.169159E+0	1.156697E+0	1.243481E+0	1.229844E+0	1.240413E+0	1.186716E+0	1.117543E+0	1.176491E+0	1.200280E+0	1.199872E+0	1.154086E+0	1.177741E+0	1.173488E+0	1.219906E+0	1.229460E+0	1.199710E+0	1.200447E+0	1.153989E+0	1.230557E+0	1.247508E+0	1.164633E+0	1.158101E+0	1.118582E+0	1.196225E+0	1.211342E+0	1.245555E+0	1.248541E+0	1.171276E+0	1.207331E+0	1.221065E+0	1.246511E+0	1.174987E+0	1.267617E+0	1.126663E+0	1.176477E+0	1.203582E+0	1.204738E+0	1.218135E+0	1.224895E+0	1.151975E+0	1.204502E+0	1.192895E+0	1.207573E+0	1.160936E+0	1.197163E+0	1.212934E+0	1.147570E+0	1.223409E+0	1.215482E+0	1.178404E+0	1.186943E+0	1.139926E+0	1.177107E+0	1.238561E+0	1.153555E+0	1.206361E+0	1.202378E+0	1.175347E+0	1.284123E+0	1.154043E+0	1.186468E+0	1.250012E+0	1.165323E+0	1.172538E+0	1.209868E+0	1.180617E+0	1.209029E+0	1.153614E+0	1.211537E+0	1.253179E+0	1.132369E+0	1.210306E+0	1.175417E+0	1.232306E+0	1.197501E+0	1.173658E+0	1.173109E+0	1.214572E+0	1.264575E+0	1.200353E+0	1.183526E+0	1.279197E+0	1.241311E+0	1.232171E+0	1.210934E+0	1.171935E+0	1.240555E+0	1.191673E+0	1.204992E+0	1.211522E+0	1.175633E+0	1.218833E+0	1.182550E+0	1.206780E+0	1.174006E+0	1.240456E+0	1.150267E+0	1.176500E+0	1.168756E+0	1.216004E+0	1.186003E+0	1.184020E+0	1.180537E+0	1.181501E+0	1.188816E+0	1.228783E+0	1.225762E+0	1.152867E+0	1.259988E+0	1.255760E+0	1.185670E+0	1.204971E+0	1.211117E+0	1.211675E+0	1.148572E+0	1.158929E+0	1.185695E+0	1.209035E+0	1.240731E+0	1.222358E+0	1.180381E+0	1.201074E+0	1.177180E+0	1.222953E+0	1.200195E+0	1.252375E+0	1.296550E+0	1.172677E+0	1.180904E+0	1.231840E+0	1.207646E+0	1.235412E+0	1.166352E+0	1.218078E+0	1.221308E+0	1.218427E+0	1.170826E+0	1.229493E+0	1.196298E+0	1.171828E+0	1.177916E+0	1.193354E+0	1.279712E+0
2.888240E+2	1.230231E+0	1.222910E+0	1.257324E+0	1.237981E+0	1.238490E+0	1.292975E+0	1.322318E+0	1.275705E+0	1.275505E+0	1.247799E+0	1.283649E+0	1.205997E+0	1.253489E+0	1.226210E+0	1.220412E+0	1.237731E+0	1.272815E+0	1.249944E+0	1.251873E+0	1.316670E+0	1.260027E+0	1.299713E+0	1.298648E+0	1.226384E+0	1.218685E+0	1.233791E+0	1.229946E+0	1.254488E+0	1.245450E+0	1.198681E+0	1.196170E+0	1.247234E+0	1.156587E+0	1.210166E+0	1.194372E+0	1.247089E+0	1.206337E+0	1.278958E+0	1.242901E+0	1.215971E+0	1.170639E+0	1.288573E+0	1.235054E+0	1.284138E+0	1.211513E+0	1.201509E+0	1.264947E+0	1.279499E+0	1.285972E+0	1.223966E+0	1.261280E+0	1.247884E+0	1.202248E+0	1.284750E+0	1.274484E+0	1.223500E+0	1.263119E+0	1.221844E+0	1.317631E+0	1.247786E+0	1.242734E+0	1.138099E+0	1.217130E+0	1.264700E+0	1.263059E+0	1.207101E+0	1.199707E+0	1.216004E+0	1.248579E+0	1.257947E+0	1.309974E+0	1.201820E+0	1.262614E+0	1.197418E+0	1.220676E+0	1.202131E+0	1.258902E+0	1.274145E+0	1.291704E+0	1.243103E+0	1.196519E+0	1.227224E+0	1.227949E+0	1.173297E+0	1.248839E+0	1.307036E+0	1.245895E+0	1.165575E+0	1.262108E+0	1.228413E+0	1.207635E+0	1.258051E+0	1.235912E+0	1.184732E+0	1.208958E+0	1.225251E+0	1.234355E+0	1.281091E+0	1.225911E+0	1.217266E+0	1.225091E+0	1.243930E+0	1.200077E+0	1.190052E+0	1.287677E+0	1.303879E+0	1.316816E+0	1.183110E+0	1.289092E+0	1.250097E+0	1.294544E+0	1.232037E+0	1.240941E+0	1.213274E+0	1.238785E+0	1.302770E+0	1.223165E+0	1.243464E+0	1.232189E+0	1.246847E+0	1.212980E+0	1.188223E+0	1.296161E+0	1.204496E+0	1.216219E+0	1.240133E+0	1.272310E+0	1.213330E+0	1.241058E+0	1.290868E+0	1.190344E+0	1.268890E+0	1.273413E+0	1.204167E+0	1.187551E+0	1.221419E+0	1.225953E+0	1.294377E+0	1.298882E+0	1.249961E+0	1.278109E+0	1.221335E+0	1.217835E+0	1.221950E+0	1.260234E+0	1.289378E+0	1.237703E+0	1.243106E+0	1.196453E+0	1.269429E+0	1.314740E+0	1.223668E+0	1.246595E+0	1.311198E+0	1.280039E+0	1.237839E+0	1.268217E+0	1.214792E+0	1.270720E+0	1.228276E+0	1.307822E+0	1.257625E+0	1.219521E+0	1.213007E+0	1.224176E+0	1.271287E+0	1.219290E+0	1.198311E+0	1.162567E+0	1.254994E+0	1.252140E+0
2.890220E+2	1.092798E+0	1.081012E+0	1.068434E+0	1.060735E+0	1.044635E+0	1.043713E+0	1.125057E+0	1.136799E+0	1.075741E+0	1.066318E+0	1.086829E+0	1.049090E+0	1.042076E+0	1.075501E+0	1.154864E+0	1.093949E+0	1.077974E+0	1.046028E+0	1.060112E+0	1.115262E+0	1.074859E+0	1.026848E+0	1.090791E+0	1.048705E+0	1.099097E+0	1.079752E+0	1.038519E+0	1.088067E+0	1.027611E+0	1.091000E+0	1.109228E+0	1.095551E+0	1.059594E+0	1.031062E+0	1.065333E+0	1.099452E+0	1.070678E+0	1.146840E+0	1.059022E+0	1.108206E+0	1.005444E+0	1.074286E+0	1.080064E+0	1.114651E+0	1.083441E+0	1.111111E+0	1.146918E+0	1.086106E+0	1.063759E+0	1.054431E+0	1.036349E+0	1.115418E+0	1.046228E+0	1.071850E+0	1.099901E+0	1.058271E+0	1.110452E+0	1.089381E+0	1.105446E+0	1.100175E+0	1.071320E+0	1.095432E+0	1.117565E+0	1.055039E+0	1.092634E+0	1.088978E+0	1.075419E+0	1.095443E+0	1.062001E+0	1.087221E+0	1.074312E+0	1.053905E+0	1.110568E+0	1.085038E+0	1.111435E+0	1.051666E+0	1.194330E+0	1.032809E+0	1.065829E+0	1.076611E+0	1.036171E+0	1.095726E+0	1.005740E+0	1.074185E+0	1.067622E+0	1.113743E+0	1.106843E+0	1.017523E+0	1.081736E+0	1.082954E+0	1.060074E+0	1.122687E+0	1.075107E+0	1.059083E+0	1.094549E+0	1.107487E+0	1.064981E+0	1.080674E+0	1.127930E+0	1.053677E+0	1.106987E+0	1.108151E+0	1.091391E+0	1.069202E+0	1.071665E+0	1.116728E+0	1.102171E+0	1.044271E+0	1.057785E+0	1.125610E+0	1.105320E+0	1.143548E+0	1.057507E+0	1.051095E+0	1.005096E+0	1.069959E+0	1.087961E+0	1.048859E+0	1.079246E+0	1.114738E+0	1.066064E+0	1.057377E+0	1.080112E+0	1.141871E+0	1.064339E+0	1.063569E+0	1.053369E+0	1.093560E+0	1.066941E+0	1.115854E+0	1.131262E+0	1.057895E+0	1.086610E+0	1.100342E+0	1.037578E+0	1.127839E+0	1.119991E+0	1.135900E+0	1.099142E+0	1.061014E+0	1.095111E+0	1.090129E+0	1.011228E+0	9.687313E-1	1.142888E+0	1.131818E+0	1.132441E+0	1.083005E+0	1.079568E+0	1.102535E+0	1.085762E+0	1.040698E+0	1.139582E+0	1.056005E+0	1.079184E+0	1.085418E+0	1.056309E+0	1.076848E+0	1.116815E+0	1.040713E+0	1.059404E+0	1.055856E+0	1.064196E+0	1.112571E+0	1.064078E+0	1.144603E+0	1.059420E+0	1.006234E+0	1.116856E+0	1.215481E+0	1.105909E+0
2.892010E+2	9.882282E-1	9.602681E-1	9.198355E-1	9.151174E-1	9.852918E-1	9.469155E-1	9.977293E-1	9.549444E-1	9.854089E-1	9.530046E-1	9.711617E-1	9.030815E-1	9.697020E-1	9.909256E-1	9.687898E-1	9.776360E-1	9.768401E-1	9.551166E-1	1.005107E+0	9.782527E-1	9.932239E-1	1.041465E+0	1.018219E+0	9.512727E-1	9.781796E-1	9.741318E-1	1.006653E+0	9.910957E-1	9.327207E-1	9.829360E-1	9.796383E-1	1.007014E+0	9.721590E-1	9.080273E-1	9.811997E-1	9.808061E-1	9.143301E-1	9.588175E-1	9.551620E-1	9.569790E-1	9.384451E-1	9.863517E-1	1.004206E+0	9.456625E-1	1.023655E+0	9.553850E-1	1.007657E+0	1.020151E+0	9.933485E-1	9.619770E-1	9.322358E-1	9.630340E-1	9.861189E-1	9.816073E-1	1.012708E+0	9.642502E-1	9.331562E-1	9.900863E-1	9.796120E-1	9.604024E-1	9.507312E-1	9.454167E-1	9.486746E-1	1.031940E+0	9.394386E-1	9.156274E-1	9.658800E-1	9.913392E-1	9.532748E-1	9.474267E-1	9.540596E-1	8.951254E-1	1.021476E+0	9.685295E-1	9.593507E-1	9.347241E-1	9.418527E-1	9.510344E-1	9.725164E-1	9.604153E-1	9.615195E-1	1.001044E+0	1.045791E+0	9.939355E-1	9.672255E-1	1.009356E+0	9.940410E-1	9.633214E-1	9.407608E-1	1.037070E+0	1.044431E+0	9.290186E-1	9.792041E-1	9.714023E-1	9.691137E-1	9.158725E-1	9.618582E-1	9.620009E-1	9.553965E-1	9.604990E-1	9.886763E-1	9.763110E-1	9.266122E-1	9.872468E-1	9.786330E-1	9.909411E-1	1.061311E+0	9.652138E-1	9.656662E-1	9.855330E-1	9.951362E-1	9.883995E-1	9.978961E-1	9.600861E-1	9.893758E-1	9.547940E-1	9.806277E-1	9.657782E-1	1.003980E+0	9.850115E-1	1.006922E+0	9.693328E-1	9.619305E-1	1.004890E+0	1.008432E+0	9.593182E-1	9.394420E-1	9.171162E-1	9.917648E-1	1.002625E+0	9.703356E-1	9.817455E-1	9.782829E-1	9.706505E-1	9.959439E-1	9.846054E-1	9.764585E-1	9.881550E-1	9.930964E-1	9.779960E-1	9.424473E-1	1.002811E+0	9.680964E-1	9.544465E-1	1.000825E+0	9.664484E-1	1.034479E+0	1.008375E+0	9.422678E-1	9.850503E-1	1.022616E+0	9.434704E-1	1.012205E+0	1.002663E+0	9.881645E-1	1.024089E+0	9.794982E-1	9.698385E-1	9.944458E-1	9.479786E-1	1.018892E+0	1.020750E+0	1.005423E+0	1.001170E+0	9.766863E-1	9.928224E-1	1.019135E+0	9.317084E-1	1.004254E+0	9.768621E-1	1.050823E+0
2.894050E+2	8.948696E-1	9.576463E-1	9.465922E-1	9.716115E-1	9.615430E-1	9.355022E-1	9.398878E-1	9.601150E-1	9.618347E-1	9.544015E-1	1.012244E+0	9.598969E-1	9.697316E-1	8.800825E-1	9.416414E-1	9.328487E-1	9.226847E-1	8.758335E-1	9.805796E-1	9.606091E-1	9.553979E-1	9.204221E-1	9.570027E-1	9.570386E-1	9.033131E-1	9.623117E-1	9.837589E-1	9.652345E-1	8.997037E-1	9.435889E-1	9.397261E-1	9.321905E-1	9.694823E-1	9.065817E-1	9.597664E-1	9.399745E-1	9.583884E-1	9.532069E-1	9.735405E-1	9.447143E-1	8.910154E-1	9.351409E-1	9.782016E-1	9.085993E-1	9.173549E-1	9.670145E-1	9.553095E-1	9.684727E-1	9.423516E-1	9.625628E-1	9.069742E-1	9.869044E-1	9.695049E-1	9.552917E-1	9.818330E-1	9.290743E-1	9.156960E-1	9.461906E-1	9.515600E-1	9.107209E-1	9.460198E-1	9.584381E-1	9.670472E-1	9.175088E-1	9.455878E-1	9.266632E-1	9.365705E-1	8.474580E-1	9.447504E-1	9.226331E-1	9.954998E-1	9.122222E-1	9.480155E-1	9.154868E-1	9.647854E-1	8.824506E-1	9.166924E-1	9.297444E-1	9.406050E-1	9.712867E-1	9.309711E-1	9.388737E-1	9.805541E-1	9.741775E-1	9.571671E-1	9.490199E-1	9.743176E-1	8.965485E-1	9.791589E-1	9.703326E-1	9.646124E-1	9.874765E-1	9.648320E-1	9.507635E-1	9.145402E-1	9.495520E-1	9.290372E-1	1.015827E+0	8.782640E-1	9.410592E-1	9.650097E-1	8.997095E-1	9.773956E-1	9.574899E-1	9.680467E-1	9.639477E-1	1.026353E+0	8.826215E-1	9.130791E-1	9.490893E-1	9.562170E-1	9.745964E-1	9.306458E-1	9.902956E-1	1.011846E+0	9.874485E-1	9.537868E-1	9.669637E-1	9.812331E-1	9.339927E-1	9.973189E-1	9.698885E-1	9.764022E-1	9.589568E-1	9.475549E-1	9.021275E-1	9.319082E-1	9.647035E-1	9.562246E-1	9.985582E-1	9.398069E-1	9.491856E-1	9.478553E-1	9.960071E-1	9.530305E-1	9.572971E-1	9.196171E-1	9.842466E-1	9.388936E-1	9.625678E-1	9.210698E-1	9.593391E-1	9.808291E-1	9.291475E-1	9.749583E-1	9.356054E-1	9.655213E-1	9.545171E-1	9.229339E-1	9.476350E-1	9.021691E-1	9.389843E-1	9.499033E-1	9.829079E-1	9.247736E-1	9.250029E-1	9.254914E-1	9.312852E-1	9.391824E-1	9.797168E-1	9.460550E-1	9.478537E-1	9.831408E-1	9.361245E-1	9.909358E-1	1.020553E+0	9.493992E-1	9.397850E-1	1.023602E+0	1.000234E+0	9.403582E-1
2.896180E+2	9.209314E-1	8.761706E-1	9.128571E-1	8.942855E-1	8.614004E-1	8.853589E-1	9.158634E-1	9.278844E-1	9.080171E-1	9.077214E-1	9.159851E-1	8.791811E-1	9.238893E-1	8.591418E-1	8.566437E-1	8.766736E-1	8.779990E-1	8.726686E-1	9.219673E-1	8.992360E-1	8.530225E-1	9.568452E-1	9.127793E-1	8.542559E-1	9.606986E-1	8.876518E-1	9.036642E-1	9.274143E-1	8.814030E-1	9.196260E-1	9.130499E-1	8.936280E-1	9.238601E-1	8.803746E-1	8.777525E-1	9.167405E-1	9.134683E-1	8.847526E-1	9.460067E-1	9.161601E-1	8.576527E-1	9.249330E-1	1.006644E+0	9.338803E-1	9.265027E-1	8.923227E-1	9.189409E-1	9.262807E-1	9.265711E-1	8.479428E-1	8.898497E-1	8.799629E-1	8.817073E-1	9.031501E-1	9.460873E-1	9.011485E-1	9.108203E-1	8.879398E-1	9.319607E-1	8.970327E-1	9.274280E-1	8.781253E-1	8.781359E-1	8.888234E-1	8.992485E-1	8.953493E-1	9.056925E-1	8.698526E-1	9.109622E-1	9.340395E-1	9.183560E-1	8.416901E-1	9.388185E-1	8.736324E-1	8.756202E-1	9.033953E-1	9.370692E-1	9.218799E-1	9.209821E-1	1.001824E+0	8.998946E-1	9.323852E-1	8.767363E-1	9.097662E-1	9.279375E-1	9.020519E-1	9.293034E-1	9.028458E-1	8.537157E-1	9.481828E-1	8.888833E-1	8.766271E-1	9.166642E-1	8.340997E-1	8.655247E-1	8.958047E-1	9.201933E-1	8.854834E-1	9.219146E-1	8.966979E-1	9.091050E-1	8.842288E-1	9.164361E-1	8.723113E-1	9.763117E-1	8.710854E-1	9.020963E-1	8.486672E-1	8.815900E-1	8.854731E-1	9.372918E-1	9.750945E-1	9.373671E-1	9.637383E-1	9.435356E-1	8.924912E-1	9.249401E-1	8.848192E-1	8.858964E-1	8.967762E-1	8.490848E-1	9.674667E-1	9.515374E-1	9.077199E-1	9.249780E-1	8.737446E-1	9.306350E-1	9.166165E-1	9.471334E-1	9.484567E-1	8.670202E-1	8.746658E-1	9.359638E-1	9.340891E-1	8.545219E-1	8.900132E-1	9.305057E-1	9.082330E-1	9.790145E-1	8.688209E-1	9.022820E-1	9.494491E-1	8.899267E-1	9.027943E-1	9.075405E-1	9.150822E-1	9.412315E-1	9.169095E-1	8.769777E-1	9.246100E-1	9.384494E-1	9.231961E-1	8.697189E-1	9.402806E-1	9.248677E-1	9.417998E-1	9.458496E-1	9.291410E-1	8.767261E-1	8.837479E-1	9.417777E-1	9.643718E-1	8.655982E-1	8.366303E-1	8.818667E-1	9.400690E-1	9.432348E-1	8.714618E-1	9.474279E-1	9.089881E-1	7.988233E-1
2.898030E+2	8.493590E-1	8.406606E-1	7.982634E-1	7.710486E-1	8.014014E-1	8.271668E-1	8.074977E-1	8.272930E-1	8.233600E-1	7.994192E-1	8.676586E-1	8.375943E-1	7.900072E-1	7.938377E-1	8.128398E-1	7.893195E-1	8.399210E-1	7.451638E-1	8.678718E-1	8.711200E-1	8.168593E-1	7.478664E-1	8.997771E-1	8.132462E-1	8.195289E-1	7.961990E-1	7.714187E-1	8.091949E-1	7.922843E-1	7.876658E-1	8.215436E-1	8.053289E-1	8.312189E-1	7.473385E-1	8.216131E-1	8.573209E-1	8.584544E-1	8.040441E-1	8.301136E-1	7.967836E-1	7.977762E-1	8.063189E-1	8.005739E-1	8.352700E-1	8.271887E-1	8.347700E-1	8.649583E-1	8.612917E-1	8.419737E-1	8.488393E-1	8.087756E-1	7.851944E-1	8.170877E-1	8.005112E-1	8.524691E-1	8.287175E-1	8.402060E-1	8.587159E-1	8.760165E-1	8.151045E-1	8.130183E-1	7.991582E-1	7.742507E-1	7.852178E-1	8.522399E-1	8.139953E-1	7.816964E-1	8.043719E-1	8.195844E-1	7.916529E-1	8.040006E-1	8.269834E-1	8.203800E-1	8.182671E-1	8.110642E-1	8.168938E-1	8.230358E-1	8.052040E-1	8.572083E-1	8.591077E-1	8.213368E-1	8.166458E-1	8.175597E-1	8.180578E-1	8.266117E-1	8.552877E-1	8.261983E-1	8.038206E-1	8.114004E-1	8.333080E-1	8.245266E-1	8.155860E-1	8.009222E-1	8.289532E-1	8.044058E-1	8.190973E-1	8.276968E-1	7.614214E-1	8.125229E-1	8.356211E-1	8.333996E-1	8.106832E-1	8.329046E-1	7.921346E-1	7.988768E-1	8.337699E-1	7.634487E-1	7.656199E-1	8.064671E-1	8.127474E-1	7.980792E-1	8.180508E-1	8.659607E-1	8.650073E-1	8.303257E-1	7.955989E-1	8.505376E-1	8.086612E-1	8.877524E-1	7.845115E-1	8.493256E-1	8.115877E-1	7.954287E-1	7.999588E-1	8.116156E-1	8.542328E-1	8.071178E-1	7.912132E-1	7.848683E-1	8.310061E-1	8.363386E-1	8.115080E-1	8.017990E-1	8.147723E-1	8.202801E-1	8.320254E-1	8.510128E-1	8.586860E-1	8.198417E-1	8.070052E-1	7.790492E-1	8.505168E-1	7.810738E-1	7.804247E-1	8.351776E-1	8.166010E-1	8.067649E-1	7.842377E-1	8.225761E-1	8.710795E-1	8.207744E-1	8.360742E-1	8.334666E-1	8.865277E-1	8.472410E-1	8.529166E-1	8.453677E-1	8.291469E-1	8.309201E-1	8.172405E-1	8.677279E-1	8.305491E-1	8.294552E-1	7.815995E-1	8.466103E-1	8.866337E-1	8.351252E-1	8.066883E-1	8.687160E-1	7.969715E-1	9.341719E-1
2.900030E+2	6.834456E-1	7.297963E-1	7.261717E-1	6.806963E-1	6.855677E-1	7.071752E-1	7.253114E-1	7.255872E-1	6.929669E-1	7.022974E-1	7.138579E-1	7.583208E-1	7.226250E-1	6.910794E-1	7.008961E-1	7.333161E-1	7.532256E-1	7.321497E-1	7.276434E-1	6.533931E-1	7.055782E-1	7.288473E-1	7.067290E-1	6.971620E-1	7.380816E-1	7.469778E-1	7.368390E-1	7.405273E-1	7.175505E-1	7.500062E-1	7.158704E-1	7.231558E-1	7.168466E-1	6.762852E-1	6.845075E-1	7.241728E-1	7.475228E-1	6.995309E-1	7.160987E-1	6.846532E-1	7.302172E-1	7.522098E-1	7.655026E-1	7.379797E-1	7.480527E-1	7.114317E-1	6.975360E-1	7.197908E-1	7.183900E-1	7.063354E-1	7.246903E-1	7.751233E-1	6.951642E-1	6.931348E-1	7.138312E-1	7.628706E-1	6.964960E-1	6.779701E-1	7.689673E-1	7.113955E-1	6.860972E-1	7.191132E-1	7.545634E-1	7.082861E-1	7.020927E-1	7.055771E-1	7.320356E-1	7.064901E-1	7.095272E-1	7.320256E-1	7.545446E-1	6.826815E-1	6.781290E-1	7.297547E-1	7.574821E-1	6.887417E-1	7.630846E-1	7.418857E-1	6.951585E-1	7.119635E-1	7.415012E-1	7.583176E-1	7.488361E-1	7.379699E-1	7.435336E-1	7.338263E-1	7.449054E-1	6.747557E-1	7.233905E-1	6.965907E-1	7.204191E-1	7.087419E-1	6.852898E-1	7.131608E-1	7.237478E-1	7.419009E-1	7.822083E-1	7.848344E-1	7.083614E-1	7.103407E-1	7.208916E-1	7.206918E-1	6.889315E-1	7.307685E-1	7.136607E-1	7.552290E-1	7.313021E-1	6.923460E-1	6.730587E-1	7.122192E-1	7.212511E-1	6.996996E-1	7.416278E-1	6.998811E-1	7.097413E-1	7.231295E-1	7.468558E-1	7.226741E-1	7.066042E-1	6.848420E-1	7.053477E-1	7.438224E-1	6.895729E-1	7.018568E-1	6.874425E-1	7.135592E-1	7.016942E-1	7.382869E-1	7.626786E-1	7.197256E-1	6.896421E-1	6.883622E-1	7.004698E-1	7.026796E-1	7.418074E-1	7.089726E-1	7.301312E-1	7.660983E-1	7.599016E-1	7.173115E-1	7.485059E-1	7.437873E-1	7.192493E-1	6.992970E-1	6.868698E-1	7.693266E-1	6.879364E-1	7.297710E-1	7.037631E-1	7.689663E-1	7.270258E-1	7.263768E-1	7.024563E-1	7.199909E-1	7.537940E-1	7.052312E-1	6.779335E-1	6.384608E-1	7.689198E-1	6.934028E-1	7.585115E-1	7.056138E-1	7.396508E-1	7.542807E-1	7.165830E-1	7.559382E-1	7.144071E-1	7.608589E-1	7.930472E-1	7.040097E-1	7.117117E-1
2.905220E+2	7.463345E-1	8.184649E-1	7.430745E-1	7.614044E-1	7.878893E-1	7.886090E-1	7.807226E-1	8.045066E-1	7.656480E-1	7.360513E-1	7.730454E-1	7.227686E-1	7.688232E-1	8.030564E-1	7.924848E-1	7.174945E-1	7.912618E-1	7.728740E-1	7.916569E-1	7.614320E-1	7.646299E-1	7.654788E-1	7.874271E-1	7.923438E-1	7.778578E-1	8.061661E-1	7.746631E-1	8.216502E-1	8.541324E-1	7.933337E-1	7.436801E-1	7.328599E-1	8.306627E-1	7.978222E-1	8.131415E-1	8.119975E-1	8.082920E-1	7.938497E-1	7.907663E-1	7.511222E-1	7.735763E-1	7.927835E-1	8.230175E-1	8.248714E-1	8.318306E-1	8.033172E-1	8.293000E-1	8.087500E-1	7.987982E-1	7.978372E-1	8.164910E-1	7.937138E-1	8.036584E-1	7.827131E-1	8.779468E-1	7.431575E-1	8.082704E-1	8.068928E-1	8.080081E-1	7.839157E-1	7.706232E-1	7.863081E-1	7.980720E-1	7.878326E-1	7.737422E-1	7.702561E-1	7.370192E-1	7.981460E-1	7.592983E-1	7.948590E-1	7.798984E-1	7.707663E-1	7.737146E-1	7.264889E-1	7.530834E-1	7.998473E-1	7.845361E-1	8.412450E-1	7.731678E-1	7.539113E-1	7.916604E-1	7.775751E-1	8.165468E-1	7.975177E-1	8.318223E-1	7.764239E-1	8.184125E-1	7.586208E-1	8.099789E-1	7.449320E-1	8.070933E-1	7.714032E-1	7.825953E-1	8.045151E-1	7.752983E-1	8.002192E-1	7.789713E-1	7.697237E-1	7.937225E-1	7.705930E-1	7.731691E-1	8.065482E-1	7.516510E-1	7.806929E-1	8.073965E-1	7.880534E-1	7.873230E-1	7.472946E-1	7.754179E-1	7.968153E-1	8.164333E-1	7.943075E-1	7.793499E-1	7.982476E-1	8.145590E-1	8.058812E-1	7.662760E-1	7.842340E-1	7.828915E-1	7.470741E-1	7.927242E-1	8.262061E-1	7.973588E-1	7.981741E-1	7.515788E-1	7.472326E-1	7.599497E-1	7.657313E-1	8.373952E-1	7.729579E-1	7.731084E-1	7.317924E-1	7.844935E-1	8.053500E-1	7.357215E-1	7.790358E-1	8.428043E-1	8.298679E-1	8.325046E-1	7.997225E-1	7.929711E-1	7.853485E-1	7.709018E-1	7.925401E-1	8.369490E-1	7.695685E-1	8.140625E-1	7.854373E-1	7.510942E-1	8.548371E-1	7.653641E-1	7.565041E-1	8.022083E-1	7.665547E-1	8.022520E-1	7.731112E-1	7.494504E-1	7.650244E-1	7.835026E-1	8.151853E-1	8.105431E-1	7.711335E-1	7.820828E-1	7.912815E-1	7.966579E-1	7.983640E-1	7.915693E-1	8.007049E-1	8.697860E-1	7.571970E-1	7.121761E-1
2.910040E+2	9.606697E-1	9.638852E-1	9.956753E-1	1.048841E+0	1.017376E+0	9.650143E-1	1.038601E+0	9.742428E-1	9.946288E-1	9.985403E-1	9.557875E-1	1.071807E+0	9.583817E-1	9.883536E-1	1.008820E+0	9.878341E-1	1.048762E+0	9.940447E-1	1.002263E+0	1.013884E+0	9.804217E-1	9.642726E-1	1.065334E+0	1.042289E+0	1.014997E+0	9.773558E-1	1.026080E+0	1.000456E+0	9.756772E-1	9.778223E-1	1.082568E+0	1.018453E+0	9.411971E-1	9.955412E-1	9.538450E-1	1.050358E+0	1.033705E+0	9.873884E-1	1.097460E+0	1.018982E+0	1.000564E+0	1.029233E+0	9.705320E-1	1.075610E+0	1.027976E+0	1.024152E+0	1.038526E+0	1.038774E+0	1.051184E+0	1.044652E+0	1.001367E+0	1.053106E+0	1.061104E+0	9.907885E-1	1.048050E+0	9.869446E-1	1.031776E+0	1.024535E+0	1.053422E+0	1.014471E+0	9.892324E-1	9.745659E-1	1.048730E+0	1.031796E+0	9.800583E-1	9.781975E-1	1.000729E+0	9.917176E-1	9.990688E-1	1.006822E+0	1.067341E+0	9.796642E-1	1.048807E+0	9.656056E-1	9.806318E-1	1.012129E+0	1.040440E+0	1.004094E+0	1.061551E+0	9.797314E-1	9.757965E-1	1.031367E+0	1.017309E+0	9.399450E-1	9.882160E-1	1.026350E+0	1.054914E+0	1.005083E+0	1.043537E+0	1.003025E+0	1.061457E+0	9.469461E-1	9.906986E-1	9.956182E-1	1.000488E+0	1.017121E+0	9.856652E-1	1.031144E+0	1.049318E+0	9.639133E-1	9.673289E-1	1.014050E+0	1.019585E+0	1.024443E+0	9.699076E-1	1.003719E+0	1.051637E+0	9.909633E-1	1.044035E+0	1.015221E+0	1.052084E+0	1.011005E+0	1.058650E+0	1.041577E+0	9.763471E-1	1.035666E+0	1.035317E+0	9.874703E-1	1.051467E+0	1.019245E+0	1.025759E+0	1.022169E+0	1.002009E+0	1.009828E+0	1.034294E+0	1.032300E+0	9.914993E-1	1.057826E+0	1.002754E+0	9.763054E-1	1.011084E+0	1.057222E+0	9.823735E-1	1.023655E+0	9.965477E-1	1.040530E+0	1.007156E+0	1.023072E+0	1.085697E+0	9.699956E-1	1.008797E+0	1.011856E+0	9.566362E-1	1.000623E+0	1.046603E+0	1.070378E+0	1.041332E+0	9.383486E-1	1.033375E+0	1.022473E+0	1.018891E+0	9.839491E-1	1.050765E+0	1.042682E+0	1.095724E+0	1.039953E+0	1.050433E+0	1.020238E+0	1.028599E+0	9.956762E-1	1.020756E+0	9.570762E-1	9.871470E-1	9.920800E-1	1.014349E+0	1.037884E+0	1.022960E+0	9.751781E-1	1.020109E+0	9.517256E-1	8.650832E-1
2.915150E+2	1.182444E+0	1.178915E+0	1.189163E+0	1.216539E+0	1.186065E+0	1.200883E+0	1.206666E+0	1.206951E+0	1.138937E+0	1.187613E+0	1.230232E+0	1.184755E+0	1.163297E+0	1.137222E+0	1.176664E+0	1.141810E+0	1.207463E+0	1.175179E+0	1.198151E+0	1.155227E+0	1.172580E+0	1.185048E+0	1.177148E+0	1.110388E+0	1.155232E+0	1.154548E+0	1.133355E+0	1.157015E+0	1.178215E+0	1.170618E+0	1.195543E+0	1.208197E+0	1.159268E+0	1.157001E+0	1.224203E+0	1.261023E+0	1.174532E+0	1.188663E+0	1.157302E+0	1.194621E+0	1.176576E+0	1.160182E+0	1.210595E+0	1.214117E+0	1.123228E+0	1.216156E+0	1.209022E+0	1.183167E+0	1.163909E+0	1.126348E+0	1.255464E+0	1.170972E+0	1.161311E+0	1.141937E+0	1.158426E+0	1.160743E+0	1.151197E+0	1.154475E+0	1.217905E+0	1.143508E+0	1.137829E+0	1.187289E+0	1.220742E+0	1.113128E+0	1.187242E+0	1.139226E+0	1.152327E+0	1.168383E+0	1.195989E+0	1.153533E+0	1.169373E+0	1.148741E+0	1.208440E+0	1.131522E+0	1.165624E+0	1.141241E+0	1.202250E+0	1.134662E+0	1.178392E+0	1.103169E+0	1.084408E+0	1.183950E+0	1.193571E+0	1.101103E+0	1.198814E+0	1.115775E+0	1.180092E+0	1.079878E+0	1.157875E+0	1.188335E+0	1.170137E+0	1.206076E+0	1.237432E+0	1.158947E+0	1.196892E+0	1.140186E+0	1.237840E+0	1.204370E+0	1.144777E+0	1.170793E+0	1.172488E+0	1.178386E+0	1.215906E+0	1.175765E+0	1.152257E+0	1.170771E+0	1.188315E+0	1.182306E+0	1.222984E+0	1.132563E+0	1.187117E+0	1.192096E+0	1.177693E+0	1.143274E+0	1.181255E+0	1.235101E+0	1.191045E+0	1.197184E+0	1.263599E+0	1.202239E+0	1.132719E+0	1.206532E+0	1.154801E+0	1.187515E+0	1.171437E+0	1.136583E+0	1.198087E+0	1.190716E+0	1.120590E+0	1.200857E+0	1.152756E+0	1.187639E+0	1.180993E+0	1.159920E+0	1.198173E+0	1.146718E+0	1.207354E+0	1.118005E+0	1.179825E+0	1.106182E+0	1.137841E+0	1.175104E+0	1.246851E+0	1.169595E+0	1.156977E+0	1.237428E+0	1.223015E+0	1.202342E+0	1.131139E+0	1.173033E+0	1.149876E+0	1.163672E+0	1.154879E+0	1.149164E+0	1.199576E+0	1.142472E+0	1.176946E+0	1.242425E+0	1.171697E+0	1.175943E+0	1.249191E+0	1.134300E+0	1.173067E+0	1.193385E+0	1.205684E+0	1.215708E+0	1.199954E+0	1.164697E+0	1.167634E+0	1.198107E+0	1.239680E+0
2.920010E+2	1.031419E+0	1.098360E+0	1.064406E+0	1.112858E+0	1.008519E+0	1.085010E+0	1.002656E+0	1.119057E+0	1.042668E+0	1.070005E+0	1.055586E+0	1.062279E+0	1.031858E+0	1.069179E+0	1.038154E+0	1.069519E+0	1.123414E+0	1.016337E+0	1.060701E+0	1.038993E+0	9.963855E-1	1.057209E+0	1.119634E+0	1.032237E+0	1.072038E+0	1.058781E+0	1.095480E+0	1.068041E+0	1.013099E+0	1.076815E+0	1.109402E+0	1.146296E+0	1.042609E+0	1.052674E+0	1.115770E+0	1.050671E+0	1.011193E+0	1.024904E+0	1.069186E+0	1.107811E+0	1.081261E+0	1.037938E+0	1.016071E+0	1.057341E+0	1.087701E+0	1.140481E+0	1.072300E+0	1.096706E+0	1.111181E+0	1.064871E+0	1.018902E+0	1.012295E+0	1.062047E+0	1.102420E+0	1.120217E+0	1.016684E+0	1.036496E+0	1.057576E+0	1.153177E+0	1.042073E+0	1.036553E+0	1.073297E+0	1.084714E+0	1.094798E+0	1.090522E+0	1.058841E+0	1.080655E+0	1.081027E+0	1.072925E+0	1.031349E+0	1.087049E+0	1.035974E+0	1.077404E+0	1.015768E+0	1.125396E+0	1.043172E+0	1.064489E+0	1.006095E+0	1.085897E+0	1.020042E+0	1.045774E+0	1.085555E+0	1.053260E+0	1.104614E+0	1.046962E+0	1.036873E+0	1.042841E+0	9.741830E-1	1.060532E+0	1.017249E+0	9.965813E-1	1.058631E+0	1.100395E+0	1.085412E+0	1.008093E+0	1.079419E+0	1.081810E+0	1.056345E+0	1.029233E+0	1.132709E+0	1.091638E+0	1.068373E+0	1.133834E+0	1.036985E+0	1.114899E+0	1.060284E+0	1.161973E+0	1.115118E+0	1.064745E+0	1.076085E+0	1.086232E+0	1.117896E+0	1.089781E+0	1.038327E+0	1.064218E+0	1.054340E+0	1.103627E+0	1.067637E+0	1.149998E+0	1.084695E+0	1.018230E+0	1.141603E+0	1.106159E+0	1.103477E+0	1.031313E+0	1.052684E+0	1.029193E+0	1.019184E+0	1.091765E+0	1.130954E+0	1.016063E+0	1.124492E+0	1.076493E+0	1.076005E+0	1.094858E+0	1.090792E+0	1.179791E+0	1.075931E+0	1.094221E+0	1.052574E+0	1.028719E+0	1.069649E+0	1.134837E+0	1.049592E+0	1.087799E+0	1.052703E+0	1.095263E+0	1.144682E+0	1.037012E+0	1.092223E+0	1.060448E+0	1.024495E+0	1.105639E+0	1.085473E+0	1.045967E+0	1.016651E+0	1.064668E+0	1.077481E+0	1.131039E+0	1.026613E+0	1.098305E+0	1.019234E+0	1.035040E+0	1.054511E+0	1.095308E+0	1.082080E+0	1.072823E+0	1.102620E+0	1.054746E+0	1.023491E+0	1.035314E+0
2.925020E+2	1.037983E+0	1.067918E+0	1.025996E+0	1.084519E+0	1.054295E+0	1.048718E+0	9.944787E-1	1.017526E+0	1.067191E+0	1.082958E+0	1.090813E+0	1.097667E+0	1.064555E+0	9.975408E-1	1.068327E+0	1.026622E+0	1.070304E+0	9.943026E-1	1.018725E+0	1.099671E+0	1.080447E+0	1.008346E+0	1.121965E+0	1.007361E+0	1.050413E+0	1.063866E+0	1.087026E+0	1.057270E+0	1.043882E+0	1.102696E+0	1.062460E+0	1.113105E+0	1.020795E+0	1.033079E+0	1.018652E+0	1.076649E+0	1.068187E+0	1.050038E+0	1.039230E+0	1.009752E+0	1.041590E+0	1.015465E+0	1.103127E+0	1.048080E+0	1.067922E+0	1.082188E+0	1.050414E+0	1.066773E+0	1.108371E+0	1.081133E+0	1.109773E+0	1.077847E+0	1.058213E+0	1.075083E+0	1.041138E+0	1.014901E+0	1.044021E+0	1.019889E+0	1.182556E+0	9.796853E-1	1.055928E+0	1.052871E+0	1.059422E+0	1.045792E+0	1.076336E+0	1.050952E+0	1.057897E+0	1.024880E+0	1.035387E+0	1.051195E+0	1.092850E+0	1.068243E+0	1.050943E+0	1.070860E+0	1.026316E+0	1.065790E+0	1.067552E+0	1.056349E+0	1.078976E+0	1.035251E+0	1.032801E+0	1.079585E+0	1.056976E+0	1.050902E+0	1.052028E+0	9.827526E-1	1.025635E+0	1.047621E+0	1.130429E+0	1.070049E+0	1.030349E+0	1.069235E+0	1.050493E+0	1.059283E+0	1.045253E+0	1.042847E+0	1.046502E+0	1.107078E+0	1.105293E+0	1.070763E+0	1.058515E+0	1.069752E+0	1.054606E+0	1.086771E+0	1.047528E+0	1.104713E+0	1.049915E+0	1.002824E+0	1.061557E+0	1.074145E+0	1.056661E+0	1.093665E+0	1.080623E+0	1.057267E+0	1.084196E+0	1.064366E+0	1.078835E+0	1.048651E+0	1.060286E+0	1.046740E+0	1.040918E+0	1.052122E+0	1.109063E+0	1.041583E+0	1.103506E+0	1.028603E+0	1.029180E+0	1.027738E+0	1.001453E+0	1.057827E+0	1.086384E+0	1.053827E+0	1.065105E+0	1.080843E+0	1.116175E+0	1.015405E+0	1.105440E+0	1.067218E+0	1.152400E+0	1.044436E+0	1.030943E+0	1.073250E+0	1.074921E+0	9.923420E-1	1.015748E+0	1.107366E+0	1.074465E+0	1.075969E+0	1.007798E+0	1.099953E+0	1.085308E+0	1.135575E+0	1.107448E+0	1.045645E+0	1.072590E+0	1.061082E+0	1.041980E+0	1.066853E+0	1.076118E+0	1.106877E+0	1.087470E+0	1.036620E+0	1.087939E+0	1.032211E+0	1.099461E+0	1.078134E+0	1.042607E+0	1.070791E+0	9.943122E-1	1.050157E+0	9.715165E-1
2.930020E+2	1.128620E+0	1.097129E+0	1.065142E+0	1.163057E+0	1.087466E+0	1.212957E+0	1.106123E+0	1.131720E+0	1.108369E+0	1.145161E+0	1.127458E+0	1.141856E+0	1.155132E+0	1.137069E+0	1.069739E+0	1.095776E+0	1.133445E+0	1.090948E+0	1.064912E+0	1.114820E+0	1.145915E+0	1.174147E+0	1.124149E+0	1.114978E+0	1.206430E+0	1.145823E+0	1.173229E+0	1.148636E+0	1.125262E+0	1.152013E+0	1.127121E+0	1.145324E+0	1.072530E+0	1.115172E+0	1.062168E+0	1.093032E+0	1.099846E+0	1.157609E+0	1.052628E+0	1.069301E+0	1.104177E+0	1.144151E+0	1.138333E+0	1.143430E+0	1.208315E+0	1.181998E+0	1.139051E+0	1.163216E+0	1.115740E+0	1.103686E+0	1.062057E+0	1.213263E+0	1.080666E+0	1.054379E+0	1.127603E+0	1.167247E+0	1.145337E+0	1.132397E+0	1.186288E+0	1.093132E+0	1.092615E+0	1.118995E+0	1.127495E+0	1.106638E+0	1.126057E+0	1.045824E+0	1.131074E+0	1.148778E+0	1.163753E+0	1.141109E+0	1.139335E+0	1.073017E+0	1.140411E+0	1.086431E+0	1.129481E+0	1.100164E+0	1.183417E+0	1.130008E+0	1.074906E+0	1.118605E+0	1.181856E+0	1.172842E+0	1.180340E+0	1.132701E+0	1.115704E+0	1.129364E+0	1.142405E+0	1.047075E+0	1.090734E+0	1.154734E+0	1.113503E+0	1.122934E+0	1.130018E+0	1.093016E+0	1.143888E+0	1.142809E+0	1.094364E+0	1.166129E+0	1.137805E+0	1.066424E+0	1.142083E+0	1.152036E+0	1.128061E+0	1.091610E+0	1.168411E+0	1.116155E+0	1.175537E+0	1.124413E+0	1.072541E+0	1.140518E+0	1.158913E+0	1.165807E+0	1.229644E+0	1.133135E+0	1.151473E+0	1.135319E+0	1.121535E+0	1.103096E+0	1.124879E+0	1.150356E+0	1.104064E+0	1.132943E+0	1.110864E+0	1.136982E+0	1.116697E+0	1.130592E+0	1.137552E+0	1.126145E+0	1.160153E+0	1.203544E+0	1.129889E+0	1.130980E+0	1.108412E+0	1.087921E+0	1.099659E+0	1.088952E+0	1.127398E+0	1.094083E+0	1.155878E+0	1.171236E+0	1.115252E+0	1.074935E+0	1.131840E+0	1.078115E+0	1.110905E+0	1.107276E+0	1.136073E+0	1.113096E+0	1.122106E+0	1.151583E+0	1.149785E+0	1.128695E+0	1.121934E+0	1.123060E+0	1.156145E+0	1.075948E+0	1.167232E+0	1.159922E+0	1.092389E+0	1.098393E+0	1.154921E+0	1.160948E+0	1.170098E+0	1.152189E+0	1.143977E+0	1.134636E+0	1.163857E+0	1.126748E+0	1.168771E+0	1.118635E+0	1.283606E+0
2.935120E+2	1.140143E+0	1.146686E+0	1.137587E+0	1.152090E+0	1.156472E+0	1.166691E+0	1.197242E+0	1.141067E+0	1.182048E+0	1.177935E+0	1.140674E+0	1.115131E+0	1.196334E+0	1.144322E+0	1.132479E+0	1.168627E+0	1.115074E+0	1.119172E+0	1.125469E+0	1.134049E+0	1.177815E+0	1.176967E+0	1.126879E+0	1.139859E+0	1.096108E+0	1.131708E+0	1.123025E+0	1.252943E+0	1.164245E+0	1.137838E+0	1.196610E+0	1.125693E+0	1.122711E+0	1.147865E+0	1.146790E+0	1.166665E+0	1.137543E+0	1.171322E+0	1.076350E+0	1.127594E+0	1.135239E+0	1.138625E+0	1.165682E+0	1.145565E+0	1.119152E+0	1.177223E+0	1.235880E+0	1.139450E+0	1.128469E+0	1.103944E+0	1.090489E+0	1.171307E+0	1.158793E+0	1.163160E+0	1.137365E+0	1.215072E+0	1.165332E+0	1.191219E+0	1.154951E+0	1.111236E+0	1.144419E+0	1.123495E+0	1.158653E+0	1.119041E+0	1.118718E+0	1.165416E+0	1.195495E+0	1.150013E+0	1.127600E+0	1.125564E+0	1.164723E+0	1.174750E+0	1.221027E+0	1.168884E+0	1.163155E+0	1.117289E+0	1.176292E+0	1.216704E+0	1.141100E+0	1.138183E+0	1.123056E+0	1.147257E+0	1.176535E+0	1.161833E+0	1.172049E+0	1.152183E+0	1.139677E+0	1.079716E+0	1.140047E+0	1.181963E+0	1.119871E+0	1.060134E+0	1.156874E+0	1.126109E+0	1.171433E+0	1.198026E+0	1.119011E+0	1.121503E+0	1.178125E+0	1.157465E+0	1.162365E+0	1.157764E+0	1.191326E+0	1.093050E+0	1.205781E+0	1.107496E+0	1.175956E+0	1.121935E+0	1.154653E+0	1.100670E+0	1.184604E+0	1.151672E+0	1.156102E+0	1.168424E+0	1.187018E+0	1.132276E+0	1.211580E+0	1.145607E+0	1.230087E+0	1.119436E+0	1.123742E+0	1.182130E+0	1.190522E+0	1.138189E+0	1.175584E+0	1.142892E+0	1.120224E+0	1.138489E+0	1.157929E+0	1.146277E+0	1.128200E+0	1.189023E+0	1.124981E+0	1.145117E+0	1.182431E+0	1.162228E+0	1.183211E+0	1.164344E+0	1.160683E+0	1.145919E+0	1.144240E+0	1.157819E+0	1.142716E+0	1.104064E+0	1.136352E+0	1.138919E+0	1.159689E+0	1.151119E+0	1.140371E+0	1.170831E+0	1.143644E+0	1.127354E+0	1.158087E+0	1.148928E+0	1.169927E+0	1.172200E+0	1.109485E+0	1.164474E+0	1.182057E+0	1.178169E+0	1.177388E+0	1.149312E+0	1.205724E+0	1.112214E+0	1.144271E+0	1.148378E+0	1.128473E+0	1.149072E+0	1.132482E+0	1.193047E+0	1.293015E+0
2.940110E+2	9.691557E-1	1.033755E+0	1.016737E+0	1.057601E+0	1.017265E+0	9.583371E-1	1.072193E+0	9.720705E-1	9.826233E-1	1.013895E+0	9.974368E-1	9.693959E-1	1.029196E+0	1.023213E+0	1.049022E+0	9.916727E-1	9.790384E-1	1.057090E+0	1.018720E+0	1.007393E+0	1.048184E+0	9.927162E-1	1.040215E+0	1.020205E+0	1.017182E+0	9.886888E-1	9.972832E-1	1.003467E+0	1.006174E+0	1.055066E+0	1.036016E+0	1.056458E+0	9.530470E-1	9.393863E-1	9.750720E-1	1.041274E+0	9.895434E-1	9.877128E-1	1.010517E+0	1.050872E+0	9.403590E-1	1.012673E+0	9.831294E-1	1.013375E+0	1.041131E+0	1.000105E+0	1.035533E+0	1.012104E+0	1.019917E+0	1.001223E+0	1.017423E+0	9.633716E-1	1.033582E+0	9.968352E-1	9.710322E-1	9.773339E-1	1.033039E+0	1.076344E+0	1.033324E+0	1.020579E+0	1.053274E+0	9.794334E-1	1.039101E+0	1.001413E+0	1.069300E+0	9.884986E-1	9.825626E-1	9.703678E-1	1.066441E+0	9.962052E-1	1.026980E+0	1.012768E+0	1.071162E+0	1.006254E+0	1.002623E+0	9.872623E-1	1.026011E+0	1.028460E+0	1.005081E+0	1.036523E+0	1.052340E+0	9.777240E-1	9.777773E-1	1.033345E+0	1.039330E+0	1.006427E+0	1.011793E+0	1.000536E+0	1.002893E+0	1.045203E+0	1.013785E+0	9.985798E-1	1.024468E+0	9.976997E-1	1.020472E+0	1.019288E+0	1.069596E+0	1.074947E+0	1.019339E+0	1.008038E+0	1.023001E+0	9.813321E-1	9.663450E-1	9.973581E-1	1.036040E+0	1.020796E+0	1.057007E+0	1.036577E+0	1.058651E+0	1.024516E+0	1.031854E+0	1.033380E+0	1.027783E+0	9.858426E-1	1.051664E+0	9.758834E-1	1.075888E+0	1.022761E+0	1.031156E+0	1.054950E+0	1.026504E+0	1.040486E+0	1.042147E+0	1.038084E+0	9.774959E-1	1.008727E+0	1.024193E+0	1.014646E+0	9.789797E-1	1.053102E+0	9.707823E-1	1.031098E+0	1.005177E+0	1.033716E+0	9.879002E-1	9.496567E-1	9.918719E-1	9.929182E-1	1.065847E+0	9.768317E-1	1.018878E+0	1.008293E+0	1.046584E+0	9.949675E-1	1.033757E+0	1.018503E+0	9.879037E-1	1.071997E+0	1.033466E+0	9.988926E-1	1.038380E+0	9.751350E-1	1.012525E+0	1.046939E+0	1.049156E+0	1.049564E+0	9.886064E-1	1.035783E+0	1.021132E+0	1.008002E+0	1.035144E+0	1.057197E+0	1.016922E+0	9.918899E-1	1.010661E+0	9.970131E-1	1.022340E+0	1.009976E+0	1.000245E+0	1.033504E+0	1.049926E+0
2.945010E+2	8.890362E-1	9.252243E-1	8.822175E-1	9.072097E-1	9.500445E-1	8.914895E-1	9.055080E-1	9.104712E-1	8.929684E-1	8.894541E-1	9.120238E-1	8.292383E-1	8.820762E-1	8.881596E-1	9.182631E-1	8.771683E-1	9.437757E-1	8.415420E-1	9.168873E-1	9.280811E-1	9.111884E-1	8.972965E-1	8.829859E-1	9.020723E-1	9.065656E-1	8.883816E-1	8.869429E-1	9.231423E-1	9.098338E-1	8.987504E-1	9.117754E-1	9.445533E-1	8.752674E-1	8.991211E-1	8.741445E-1	9.560615E-1	8.835533E-1	8.979823E-1	8.750164E-1	8.467909E-1	8.283122E-1	9.086895E-1	8.928130E-1	9.156605E-1	9.242993E-1	8.984631E-1	9.313830E-1	9.104122E-1	9.359096E-1	9.262885E-1	8.614021E-1	8.932099E-1	9.235030E-1	9.206623E-1	9.238664E-1	8.695654E-1	8.713814E-1	8.951372E-1	9.262854E-1	9.049313E-1	9.212900E-1	8.834544E-1	9.104091E-1	9.123753E-1	9.435328E-1	9.306683E-1	8.637967E-1	8.475752E-1	9.028273E-1	9.009275E-1	9.149887E-1	8.962796E-1	9.142877E-1	8.622253E-1	9.186789E-1	8.969156E-1	8.552680E-1	8.965010E-1	8.776657E-1	8.790546E-1	9.462695E-1	8.819913E-1	8.601579E-1	8.722273E-1	9.024419E-1	9.049440E-1	9.567648E-1	9.073371E-1	9.543561E-1	8.808683E-1	8.354530E-1	9.065375E-1	8.881239E-1	8.748289E-1	8.890720E-1	9.263541E-1	9.183035E-1	9.110038E-1	8.425324E-1	8.688845E-1	9.431438E-1	8.983355E-1	9.266448E-1	8.994144E-1	9.729384E-1	9.109513E-1	9.026344E-1	9.126034E-1	9.534658E-1	9.028177E-1	9.240539E-1	8.813094E-1	9.270590E-1	8.301872E-1	9.268508E-1	8.599846E-1	9.075124E-1	9.051330E-1	9.531544E-1	9.155867E-1	9.053792E-1	9.229834E-1	9.263183E-1	9.077673E-1	9.100084E-1	9.201216E-1	9.202561E-1	8.614291E-1	8.877034E-1	8.885246E-1	8.961121E-1	8.906749E-1	9.099544E-1	8.951956E-1	9.311000E-1	9.324818E-1	9.150067E-1	9.086273E-1	9.588135E-1	8.995047E-1	9.471963E-1	9.013468E-1	9.270554E-1	8.716285E-1	8.970613E-1	8.867900E-1	8.887130E-1	9.363570E-1	8.687833E-1	9.342828E-1	8.889544E-1	9.312896E-1	8.517749E-1	9.542626E-1	9.510022E-1	8.743374E-1	8.826142E-1	9.521522E-1	9.299551E-1	8.986949E-1	9.499734E-1	8.568975E-1	9.653762E-1	8.906696E-1	9.240453E-1	8.908323E-1	9.016057E-1	9.324073E-1	8.653376E-1	9.251808E-1	1.008683E+0
2.950070E+2	9.657474E-1	9.138561E-1	9.216336E-1	9.755046E-1	9.606529E-1	9.431437E-1	9.334510E-1	9.376343E-1	9.314356E-1	9.438426E-1	9.528824E-1	9.287419E-1	1.005065E+0	9.266538E-1	9.295281E-1	9.505428E-1	9.344468E-1	9.239348E-1	9.717473E-1	9.301271E-1	9.346060E-1	1.001043E+0	9.896019E-1	9.536154E-1	9.568061E-1	9.377999E-1	1.000867E+0	9.310492E-1	9.663001E-1	9.579720E-1	9.215806E-1	9.717117E-1	9.137576E-1	9.145948E-1	9.720119E-1	9.658822E-1	9.367804E-1	9.335522E-1	9.119430E-1	9.715522E-1	9.472871E-1	9.527748E-1	1.007507E+0	9.487825E-1	9.619211E-1	9.649648E-1	9.899902E-1	9.848401E-1	9.532532E-1	9.583679E-1	9.297161E-1	9.092787E-1	9.653360E-1	9.568452E-1	9.730555E-1	9.370523E-1	9.809822E-1	9.323040E-1	1.015477E+0	9.733298E-1	9.807609E-1	9.690952E-1	9.541481E-1	9.408300E-1	1.008044E+0	9.291657E-1	9.343873E-1	9.482052E-1	9.474930E-1	9.472528E-1	9.802641E-1	9.159170E-1	9.525006E-1	9.522911E-1	9.496468E-1	8.949380E-1	9.601110E-1	9.855918E-1	9.937176E-1	9.555207E-1	9.105557E-1	9.794326E-1	9.446699E-1	9.344276E-1	9.648824E-1	9.763279E-1	9.703865E-1	9.285089E-1	9.163139E-1	9.492785E-1	9.227996E-1	9.352608E-1	9.674667E-1	9.381595E-1	9.399733E-1	9.271382E-1	9.143637E-1	9.646320E-1	9.447500E-1	8.980537E-1	9.342820E-1	9.268506E-1	9.308666E-1	9.678484E-1	9.939691E-1	9.711073E-1	9.910629E-1	9.582736E-1	9.857639E-1	9.229392E-1	9.436288E-1	9.680763E-1	9.765532E-1	9.191232E-1	9.850616E-1	9.529291E-1	1.003416E+0	9.768097E-1	9.198243E-1	9.539758E-1	9.401412E-1	9.777532E-1	9.405489E-1	9.911106E-1	9.315431E-1	9.159776E-1	9.349601E-1	9.493531E-1	8.755427E-1	9.784736E-1	9.376683E-1	9.786970E-1	9.583807E-1	9.076579E-1	9.513706E-1	9.400988E-1	1.005824E+0	9.695224E-1	9.602407E-1	8.979424E-1	9.756699E-1	9.433348E-1	9.304240E-1	9.488860E-1	9.335025E-1	9.203892E-1	9.944210E-1	9.962785E-1	9.485662E-1	9.916758E-1	9.151304E-1	9.371783E-1	1.018746E+0	9.820312E-1	1.003943E+0	9.736418E-1	9.030395E-1	9.790530E-1	9.703072E-1	9.423884E-1	9.420920E-1	9.188817E-1	9.647203E-1	9.558557E-1	9.332028E-1	9.774187E-1	9.666572E-1	9.542644E-1	9.410888E-1	9.308995E-1	7.967101E-1
2.955070E+2	1.058900E+0	1.108910E+0	1.099488E+0	1.098713E+0	1.053626E+0	1.067918E+0	1.055269E+0	1.121810E+0	1.076579E+0	1.057678E+0	1.104526E+0	1.098482E+0	1.086804E+0	1.102813E+0	1.051536E+0	1.061807E+0	1.064704E+0	1.106977E+0	1.044341E+0	1.078139E+0	1.055229E+0	1.068888E+0	1.098560E+0	1.096292E+0	1.070385E+0	1.064656E+0	1.057402E+0	1.122329E+0	1.033764E+0	1.104042E+0	1.068009E+0	1.080360E+0	1.102802E+0	1.043450E+0	1.025267E+0	1.107789E+0	1.058417E+0	1.093647E+0	1.114212E+0	1.033885E+0	1.086073E+0	1.107810E+0	1.116848E+0	1.033260E+0	1.070483E+0	1.053317E+0	1.068560E+0	1.172644E+0	1.084019E+0	1.064643E+0	1.071642E+0	1.156797E+0	1.087610E+0	1.086808E+0	1.073325E+0	1.094715E+0	1.088771E+0	1.051679E+0	1.112449E+0	1.061508E+0	1.065533E+0	1.055129E+0	1.096219E+0	1.053457E+0	1.096235E+0	1.050122E+0	1.078499E+0	1.096924E+0	1.073650E+0	1.061846E+0	1.090308E+0	1.086751E+0	1.148041E+0	1.038476E+0	1.080722E+0	1.044193E+0	1.096560E+0	1.105432E+0	1.080670E+0	1.045415E+0	1.055596E+0	1.140444E+0	1.115240E+0	1.079726E+0	1.124373E+0	1.075114E+0	1.055568E+0	1.024095E+0	1.069373E+0	1.053011E+0	1.041045E+0	1.085135E+0	1.061562E+0	1.015664E+0	1.068707E+0	1.068544E+0	1.085092E+0	1.111860E+0	1.083271E+0	1.034513E+0	1.087011E+0	1.056925E+0	1.103930E+0	1.078827E+0	1.125950E+0	1.118164E+0	1.138745E+0	1.078224E+0	1.080333E+0	1.034377E+0	1.052690E+0	1.077044E+0	1.090399E+0	1.085914E+0	1.072270E+0	1.038219E+0	1.039589E+0	1.064841E+0	1.091395E+0	1.115010E+0	1.060458E+0	1.037216E+0	1.080813E+0	1.073387E+0	1.105250E+0	1.045733E+0	1.034033E+0	1.116066E+0	1.044533E+0	1.076267E+0	1.090748E+0	1.120884E+0	1.059234E+0	1.071734E+0	1.078946E+0	1.072913E+0	1.098490E+0	1.134615E+0	1.102715E+0	1.108601E+0	1.121332E+0	1.112049E+0	1.048223E+0	1.090032E+0	1.090938E+0	1.103741E+0	1.121535E+0	1.104580E+0	1.065261E+0	1.039463E+0	1.040980E+0	1.083959E+0	1.041303E+0	1.138926E+0	1.121352E+0	1.101760E+0	1.069828E+0	1.092517E+0	1.064357E+0	1.047245E+0	1.109122E+0	1.056198E+0	1.100929E+0	1.106215E+0	1.081442E+0	1.081587E+0	1.094800E+0	1.053821E+0	1.152134E+0	1.111465E+0	1.082048E+0
2.960050E+2	1.141665E+0	1.114525E+0	1.105949E+0	1.168867E+0	1.144123E+0	1.139329E+0	1.143936E+0	1.119270E+0	1.108241E+0	1.206187E+0	1.146962E+0	1.138651E+0	1.140447E+0	1.140504E+0	1.201380E+0	1.127893E+0	1.152903E+0	1.117942E+0	1.112639E+0	1.086688E+0	1.110174E+0	1.137286E+0	1.127353E+0	1.141728E+0	1.190389E+0	1.112780E+0	1.148136E+0	1.154261E+0	1.143753E+0	1.185306E+0	1.138616E+0	1.062808E+0	1.114418E+0	1.122854E+0	1.145464E+0	1.178488E+0	1.150761E+0	1.155010E+0	1.126410E+0	1.119402E+0	1.131435E+0	1.061479E+0	1.146488E+0	1.081802E+0	1.172041E+0	1.127169E+0	1.207510E+0	1.115426E+0	1.135608E+0	1.148701E+0	1.096650E+0	1.065330E+0	1.138716E+0	1.126391E+0	1.077474E+0	1.048215E+0	1.150717E+0	1.123832E+0	1.122322E+0	1.113277E+0	1.206852E+0	1.067399E+0	1.158128E+0	1.135469E+0	1.166906E+0	1.107851E+0	1.128951E+0	1.172278E+0	1.126672E+0	1.160908E+0	1.161262E+0	1.154288E+0	1.149899E+0	1.166729E+0	1.106696E+0	1.076832E+0	1.115430E+0	1.163187E+0	1.098934E+0	1.117973E+0	1.115944E+0	1.105124E+0	1.147333E+0	1.139124E+0	1.104598E+0	1.073686E+0	1.130167E+0	1.113469E+0	1.160283E+0	1.159613E+0	1.068210E+0	1.152712E+0	1.156973E+0	1.161519E+0	1.125356E+0	1.124812E+0	1.130495E+0	1.192973E+0	1.122302E+0	1.088451E+0	1.165967E+0	1.110548E+0	1.126653E+0	1.132205E+0	1.118843E+0	1.147474E+0	1.133966E+0	1.111620E+0	1.134516E+0	1.102801E+0	1.189629E+0	1.185721E+0	1.157504E+0	1.133174E+0	1.125241E+0	1.089680E+0	1.162020E+0	1.059375E+0	1.158161E+0	1.161545E+0	1.164958E+0	1.147977E+0	1.132974E+0	1.155857E+0	1.103521E+0	1.155490E+0	1.103980E+0	1.131502E+0	1.166330E+0	1.182147E+0	1.152603E+0	1.104478E+0	1.168693E+0	1.178706E+0	1.127209E+0	1.106352E+0	1.210883E+0	1.108977E+0	1.181787E+0	1.148347E+0	1.134078E+0	1.111936E+0	1.156849E+0	1.079761E+0	1.160864E+0	1.101529E+0	1.203224E+0	1.180951E+0	1.060539E+0	1.141350E+0	1.081018E+0	1.115935E+0	1.114821E+0	1.206360E+0	1.132140E+0	1.120275E+0	1.126403E+0	1.124531E+0	1.106011E+0	1.110132E+0	1.163203E+0	1.115679E+0	1.109854E+0	1.137558E+0	1.133065E+0	1.171722E+0	1.179031E+0	1.112721E+0	1.170938E+0	1.186418E+0	1.065335E+0
2.965010E+2	1.003733E+0	1.090032E+0	1.054438E+0	1.117975E+0	1.102502E+0	1.057408E+0	1.055681E+0	1.125875E+0	1.086338E+0	1.050291E+0	1.070015E+0	1.088418E+0	1.088241E+0	1.014159E+0	1.063292E+0	1.021658E+0	1.085665E+0	1.071101E+0	1.061859E+0	1.064314E+0	1.057081E+0	1.017972E+0	1.084290E+0	1.050166E+0	1.071640E+0	1.029811E+0	1.048314E+0	1.116282E+0	1.065918E+0	1.068672E+0	1.076716E+0	1.053073E+0	1.055597E+0	1.035476E+0	1.076437E+0	1.048143E+0	1.082563E+0	1.092021E+0	1.060850E+0	1.045839E+0	1.055590E+0	1.082143E+0	1.076206E+0	1.073251E+0	1.055722E+0	1.089398E+0	1.144380E+0	1.049842E+0	1.065991E+0	1.043806E+0	1.067172E+0	1.064399E+0	1.012980E+0	1.091862E+0	1.077819E+0	1.061787E+0	1.088789E+0	1.023102E+0	1.057241E+0	1.022021E+0	9.976558E-1	1.046890E+0	1.060438E+0	1.050239E+0	1.081983E+0	1.073128E+0	1.064806E+0	1.048273E+0	1.053784E+0	1.055652E+0	1.121224E+0	1.033588E+0	1.110245E+0	1.029583E+0	1.027057E+0	1.016709E+0	1.082325E+0	1.080557E+0	1.042020E+0	1.049301E+0	1.057947E+0	1.074726E+0	1.092542E+0	1.061725E+0	1.028316E+0	1.021845E+0	1.052690E+0	1.041480E+0	1.114208E+0	1.097553E+0	1.000300E+0	1.077828E+0	1.070206E+0	1.039109E+0	1.079034E+0	1.050885E+0	1.095969E+0	1.020576E+0	1.070625E+0	1.099372E+0	1.054327E+0	1.037120E+0	1.063480E+0	1.077444E+0	1.060828E+0	1.070586E+0	1.077101E+0	1.043057E+0	1.077575E+0	1.017440E+0	1.043909E+0	1.077486E+0	1.120424E+0	1.095913E+0	1.077996E+0	1.033500E+0	1.099983E+0	1.080593E+0	1.071759E+0	1.063860E+0	1.039403E+0	1.048456E+0	1.078702E+0	1.036449E+0	1.055587E+0	1.072852E+0	9.842856E-1	1.098951E+0	1.085803E+0	1.074907E+0	1.087814E+0	1.081652E+0	1.065825E+0	1.044690E+0	1.029522E+0	1.036325E+0	1.119282E+0	1.094908E+0	1.123376E+0	1.063742E+0	1.082247E+0	1.031349E+0	1.052077E+0	1.048089E+0	1.047659E+0	1.047542E+0	1.084862E+0	1.045716E+0	1.016976E+0	1.105507E+0	1.087228E+0	1.023776E+0	9.918804E-1	1.107111E+0	1.050602E+0	1.049005E+0	1.066283E+0	1.091183E+0	1.079536E+0	1.009671E+0	1.102819E+0	1.058404E+0	1.089524E+0	1.070316E+0	1.030076E+0	1.067937E+0	1.054834E+0	1.109297E+0	1.053463E+0	1.038879E+0	1.017381E+0
2.970040E+2	9.563527E-1	9.849957E-1	9.475392E-1	9.942385E-1	9.543307E-1	9.404262E-1	9.986024E-1	9.724363E-1	1.009701E+0	9.488018E-1	9.460590E-1	9.769207E-1	9.716551E-1	9.596620E-1	9.506008E-1	9.945529E-1	9.556221E-1	9.240355E-1	9.451340E-1	9.570489E-1	9.880812E-1	9.488626E-1	9.765278E-1	9.922043E-1	9.742748E-1	9.760624E-1	9.383776E-1	9.648775E-1	9.878485E-1	9.625633E-1	9.333967E-1	9.223673E-1	9.678890E-1	9.642006E-1	9.756406E-1	9.925831E-1	9.663171E-1	9.600760E-1	9.452267E-1	9.834257E-1	9.631592E-1	9.787457E-1	9.970274E-1	9.757436E-1	9.495396E-1	9.376302E-1	1.001136E+0	9.809624E-1	1.002935E+0	9.936880E-1	9.389684E-1	1.009421E+0	9.281470E-1	9.916825E-1	9.591826E-1	9.581793E-1	9.529191E-1	1.005523E+0	1.035482E+0	9.676796E-1	9.655321E-1	9.830656E-1	9.075782E-1	9.809117E-1	9.901224E-1	9.606529E-1	9.404378E-1	9.471422E-1	9.714696E-1	9.438004E-1	9.471789E-1	9.564750E-1	1.027382E+0	9.736456E-1	9.616277E-1	9.656429E-1	1.010599E+0	9.455339E-1	9.941340E-1	9.708876E-1	9.444129E-1	1.010449E+0	9.909164E-1	9.714792E-1	9.821607E-1	1.001077E+0	1.028586E+0	9.047662E-1	1.002103E+0	9.832048E-1	9.250957E-1	9.831363E-1	9.786852E-1	9.350721E-1	9.464041E-1	9.416869E-1	9.359584E-1	9.356808E-1	9.910575E-1	9.288123E-1	9.518946E-1	9.336797E-1	9.739732E-1	9.719857E-1	9.410994E-1	9.833252E-1	9.974427E-1	9.408505E-1	9.596419E-1	9.565804E-1	9.503654E-1	9.471341E-1	9.709632E-1	1.001390E+0	9.752417E-1	9.365895E-1	1.008665E+0	9.524087E-1	9.903642E-1	9.949213E-1	9.224599E-1	1.020085E+0	9.794421E-1	9.655893E-1	1.030842E+0	9.746713E-1	9.109843E-1	9.960094E-1	9.603376E-1	9.342907E-1	9.429996E-1	9.565873E-1	9.712000E-1	9.729401E-1	9.781896E-1	9.497452E-1	9.597401E-1	9.355058E-1	9.796907E-1	9.994491E-1	9.612356E-1	9.427312E-1	9.632982E-1	9.981968E-1	9.880023E-1	9.861575E-1	9.756364E-1	9.949960E-1	9.849012E-1	9.761773E-1	9.517287E-1	9.664207E-1	9.902090E-1	1.045939E+0	1.001497E+0	9.770120E-1	9.354271E-1	9.500619E-1	9.713559E-1	9.505545E-1	9.762781E-1	9.603511E-1	9.794521E-1	9.361545E-1	9.477933E-1	9.799026E-1	9.563231E-1	9.672558E-1	9.656595E-1	8.864557E-1	9.560304E-1
2.975020E+2	9.917152E-1	1.002187E+0	1.044162E+0	1.062403E+0	1.005641E+0	1.004815E+0	1.019467E+0	1.002089E+0	1.010907E+0	1.016809E+0	9.996891E-1	1.000683E+0	9.958996E-1	9.936623E-1	9.931709E-1	9.846421E-1	1.019508E+0	9.751940E-1	9.889821E-1	1.026606E+0	9.830355E-1	1.008415E+0	1.045845E+0	1.012839E+0	1.040260E+0	9.576098E-1	9.849054E-1	1.079421E+0	9.958982E-1	1.058057E+0	1.021434E+0	9.990769E-1	9.923567E-1	1.025019E+0	9.855134E-1	1.021467E+0	1.010617E+0	9.924228E-1	9.657301E-1	1.040293E+0	9.571551E-1	9.739574E-1	1.027124E+0	1.036851E+0	9.767890E-1	1.038162E+0	1.048642E+0	1.012761E+0	9.848964E-1	1.021491E+0	1.008061E+0	1.072331E+0	9.916006E-1	1.006228E+0	9.935438E-1	9.803062E-1	1.020228E+0	9.816184E-1	1.028101E+0	1.012663E+0	9.902412E-1	1.044090E+0	1.024772E+0	1.003337E+0	1.029506E+0	9.707658E-1	1.016734E+0	9.833353E-1	1.011976E+0	9.743925E-1	1.033720E+0	9.890256E-1	9.989149E-1	9.737503E-1	9.825516E-1	9.876658E-1	1.037924E+0	1.002037E+0	1.011384E+0	1.035326E+0	9.594553E-1	1.028001E+0	9.819020E-1	1.029973E+0	1.014948E+0	1.008476E+0	9.952983E-1	1.024441E+0	1.026411E+0	9.990619E-1	9.537867E-1	1.025946E+0	9.597579E-1	9.390053E-1	9.479136E-1	9.862572E-1	9.624023E-1	1.013052E+0	9.990478E-1	1.011593E+0	9.836761E-1	9.926627E-1	9.875271E-1	9.859228E-1	1.012023E+0	9.938687E-1	9.901519E-1	9.862816E-1	9.991090E-1	9.890484E-1	1.001999E+0	1.013135E+0	9.988649E-1	1.004196E+0	1.016869E+0	1.074605E+0	9.810035E-1	9.679148E-1	1.026552E+0	1.001179E+0	9.720391E-1	9.976526E-1	9.842860E-1	1.028126E+0	1.015841E+0	1.005129E+0	1.022539E+0	9.992076E-1	9.984644E-1	1.022976E+0	9.893329E-1	9.721300E-1	9.989629E-1	1.008480E+0	1.001180E+0	9.803635E-1	9.871960E-1	9.816395E-1	1.016802E+0	9.867494E-1	1.009872E+0	1.006725E+0	9.974140E-1	1.008773E+0	9.589902E-1	9.820739E-1	1.004442E+0	9.985780E-1	9.827800E-1	9.977503E-1	1.031332E+0	1.021159E+0	1.022304E+0	9.551739E-1	1.032743E+0	9.933396E-1	9.657483E-1	9.888612E-1	1.045427E+0	1.016382E+0	9.654223E-1	9.689725E-1	9.788609E-1	9.964620E-1	1.013316E+0	1.030218E+0	9.987706E-1	9.476685E-1	9.773520E-1	1.078302E+0	1.050749E+0
2.980040E+2	1.005154E+0	1.027896E+0	1.049230E+0	1.016805E+0	1.033580E+0	1.061097E+0	1.025213E+0	1.082105E+0	1.038271E+0	1.019602E+0	1.023190E+0	1.048754E+0	1.063556E+0	1.054005E+0	1.034565E+0	1.045328E+0	1.017317E+0	1.060673E+0	1.047071E+0	1.069088E+0	1.014620E+0	1.013495E+0	1.012125E+0	1.024974E+0	9.965493E-1	1.016275E+0	1.050398E+0	1.048934E+0	1.041222E+0	1.009184E+0	9.940757E-1	1.007952E+0	9.938172E-1	1.024757E+0	1.019931E+0	1.040031E+0	1.016644E+0	1.011132E+0	1.007715E+0	1.032345E+0	1.050807E+0	1.006124E+0	1.052195E+0	1.030515E+0	1.009994E+0	1.023724E+0	1.040032E+0	1.018274E+0	1.061777E+0	9.977729E-1	1.037171E+0	1.030929E+0	1.041091E+0	9.969570E-1	1.055816E+0	1.015466E+0	1.055915E+0	1.028702E+0	1.058763E+0	1.020838E+0	1.028019E+0	9.997728E-1	1.004407E+0	1.024204E+0	1.006130E+0	1.030424E+0	1.030824E+0	1.060264E+0	1.014575E+0	1.060528E+0	1.031049E+0	1.008237E+0	1.064957E+0	1.002733E+0	1.018956E+0	1.017220E+0	1.040104E+0	1.016734E+0	1.035244E+0	1.036412E+0	1.000702E+0	1.018314E+0	1.033531E+0	1.063540E+0	1.029084E+0	1.019299E+0	1.034930E+0	1.039756E+0	1.057279E+0	1.073114E+0	1.057280E+0	1.054073E+0	1.057697E+0	1.024090E+0	9.972763E-1	1.022818E+0	1.049855E+0	1.033727E+0	9.998934E-1	9.749643E-1	1.038871E+0	9.993317E-1	1.042001E+0	1.054201E+0	1.009010E+0	1.034242E+0	1.010859E+0	1.034246E+0	1.040949E+0	1.049785E+0	1.047144E+0	1.033956E+0	1.010054E+0	1.014795E+0	1.005803E+0	1.046935E+0	1.019073E+0	1.042113E+0	1.047195E+0	1.014633E+0	9.985302E-1	1.037570E+0	1.059287E+0	1.010325E+0	1.066563E+0	1.072714E+0	1.036129E+0	1.040402E+0	1.032705E+0	9.952993E-1	1.029423E+0	9.962190E-1	1.042438E+0	1.036118E+0	1.035902E+0	1.022288E+0	1.078204E+0	1.019502E+0	1.030744E+0	1.026105E+0	1.017943E+0	1.047904E+0	1.012012E+0	1.006339E+0	1.021638E+0	1.009850E+0	1.053430E+0	1.056858E+0	1.010783E+0	1.011972E+0	9.952959E-1	1.028760E+0	1.019651E+0	9.943973E-1	1.032604E+0	1.072699E+0	1.012593E+0	1.047335E+0	1.013566E+0	1.019138E+0	1.026468E+0	1.041749E+0	9.924862E-1	1.016649E+0	1.014598E+0	1.017114E+0	9.814536E-1	1.019608E+0	1.051868E+0	1.075105E+0	1.182516E+0
2.985010E+2	1.042785E+0	9.783872E-1	1.063709E+0	1.032245E+0	1.043940E+0	1.038186E+0	1.070191E+0	1.065983E+0	1.084553E+0	1.078394E+0	1.031488E+0	1.029583E+0	1.046133E+0	1.056710E+0	1.008841E+0	1.036306E+0	1.066306E+0	1.029093E+0	1.047752E+0	1.007655E+0	1.019510E+0	1.077865E+0	1.062766E+0	1.067588E+0	1.048936E+0	1.060399E+0	1.036207E+0	1.046012E+0	1.059013E+0	1.052129E+0	1.053681E+0	1.075559E+0	1.018196E+0	1.029908E+0	1.064989E+0	1.085629E+0	1.040311E+0	1.064177E+0	1.061561E+0	1.039490E+0	1.024960E+0	1.029196E+0	1.051942E+0	1.060672E+0	1.058836E+0	1.055646E+0	1.018536E+0	1.047289E+0	1.042188E+0	1.043216E+0	1.029833E+0	1.057033E+0	1.056773E+0	1.071774E+0	1.058968E+0	1.054153E+0	1.053306E+0	1.062717E+0	1.004199E+0	1.092046E+0	1.057451E+0	1.062310E+0	1.046526E+0	1.057015E+0	1.060819E+0	1.035408E+0	1.039722E+0	1.062473E+0	1.051716E+0	1.029241E+0	1.070161E+0	1.038754E+0	1.015539E+0	1.075340E+0	1.042317E+0	1.095444E+0	1.079985E+0	1.039219E+0	1.040733E+0	1.058216E+0	1.024255E+0	1.025948E+0	1.046464E+0	1.057037E+0	1.039041E+0	1.036806E+0	1.027347E+0	1.049242E+0	1.073692E+0	1.040287E+0	1.069504E+0	1.030983E+0	1.025723E+0	1.049392E+0	1.034102E+0	1.034897E+0	1.029451E+0	1.043816E+0	1.043343E+0	1.051942E+0	1.056630E+0	1.055434E+0	1.033369E+0	1.005728E+0	1.055861E+0	1.019719E+0	1.079270E+0	1.041195E+0	1.013602E+0	1.040478E+0	1.087050E+0	1.069695E+0	1.057099E+0	1.049489E+0	1.048653E+0	1.030864E+0	1.061104E+0	1.052393E+0	1.033348E+0	1.100595E+0	1.040389E+0	1.042306E+0	1.071879E+0	1.035938E+0	1.044221E+0	1.017656E+0	1.056805E+0	1.054226E+0	1.041807E+0	1.054503E+0	1.035693E+0	1.061833E+0	1.045296E+0	1.064725E+0	1.008094E+0	1.050391E+0	1.043268E+0	1.051343E+0	1.043896E+0	1.013170E+0	1.046173E+0	1.042867E+0	1.045110E+0	1.054623E+0	1.023062E+0	1.034063E+0	1.000282E+0	1.067634E+0	1.055592E+0	1.034950E+0	1.050782E+0	1.047801E+0	1.061117E+0	1.057983E+0	1.057384E+0	1.014830E+0	1.042801E+0	1.082996E+0	1.031112E+0	1.031572E+0	1.063413E+0	1.007950E+0	1.067019E+0	1.038810E+0	1.018449E+0	1.021189E+0	1.047651E+0	1.057220E+0	1.049512E+0	9.949755E-1	9.519357E-1
2.990020E+2	1.040693E+0	1.026610E+0	1.032340E+0	1.010709E+0	1.005225E+0	1.012584E+0	9.930617E-1	9.582983E-1	1.016999E+0	9.780037E-1	1.011510E+0	1.026925E+0	9.997036E-1	9.955161E-1	1.023519E+0	9.958528E-1	9.658340E-1	9.920880E-1	9.957665E-1	9.970896E-1	1.008451E+0	9.943290E-1	1.021588E+0	9.886853E-1	9.995595E-1	1.036547E+0	1.005038E+0	1.009476E+0	1.019048E+0	1.036465E+0	9.894349E-1	1.037685E+0	1.053983E+0	1.024369E+0	1.022174E+0	1.001698E+0	9.801108E-1	9.636979E-1	1.033623E+0	1.021389E+0	9.925736E-1	9.992573E-1	9.907027E-1	1.018947E+0	9.999155E-1	1.016127E+0	1.012224E+0	1.005982E+0	9.916860E-1	1.048634E+0	9.964564E-1	9.832224E-1	1.016286E+0	1.007521E+0	1.000899E+0	1.016222E+0	9.952576E-1	9.877590E-1	1.021694E+0	1.010237E+0	9.776654E-1	1.033696E+0	1.030471E+0	9.688578E-1	1.014824E+0	1.000152E+0	1.017182E+0	1.023408E+0	9.984816E-1	1.000628E+0	9.722655E-1	1.035077E+0	1.032294E+0	1.029785E+0	1.027603E+0	9.560996E-1	1.014729E+0	1.029013E+0	1.009504E+0	1.015759E+0	1.027882E+0	9.894380E-1	1.013192E+0	9.915570E-1	9.612111E-1	9.917145E-1	1.029367E+0	1.015701E+0	9.920857E-1	9.906602E-1	1.016406E+0	1.016043E+0	1.011530E+0	1.003257E+0	1.011467E+0	1.030782E+0	9.996318E-1	1.006667E+0	1.039964E+0	1.017866E+0	9.876069E-1	1.030649E+0	1.005298E+0	1.003018E+0	1.000094E+0	1.018207E+0	9.850908E-1	9.792226E-1	1.019841E+0	9.810897E-1	9.840499E-1	9.852604E-1	9.950480E-1	1.014763E+0	1.030997E+0	9.646283E-1	9.777937E-1	9.773505E-1	9.634012E-1	1.025233E+0	1.000675E+0	9.835158E-1	9.979956E-1	1.026479E+0	9.850084E-1	9.700818E-1	1.014972E+0	1.023911E+0	9.946110E-1	1.009215E+0	9.619153E-1	9.987238E-1	9.882257E-1	1.015058E+0	1.029821E+0	9.896270E-1	9.745962E-1	9.878206E-1	1.001215E+0	1.012404E+0	1.019960E+0	9.953664E-1	9.829305E-1	1.005602E+0	1.004962E+0	1.020982E+0	9.953039E-1	9.898481E-1	9.683198E-1	1.002932E+0	1.008161E+0	1.023449E+0	1.038895E+0	9.997203E-1	9.821233E-1	1.008339E+0	1.020161E+0	9.719009E-1	1.030551E+0	1.023633E+0	9.912965E-1	1.009514E+0	1.015060E+0	1.004842E+0	1.009219E+0	1.034261E+0	1.053837E+0	9.981753E-1	9.832321E-1	9.980666E-1	9.949415E-1
2.995040E+2	9.187910E-1	9.710404E-1	9.278312E-1	9.227865E-1	9.563051E-1	9.422006E-1	9.304841E-1	9.225486E-1	9.029931E-1	9.217903E-1	9.437986E-1	9.129789E-1	9.083394E-1	9.031221E-1	9.503306E-1	9.234791E-1	9.572233E-1	9.312325E-1	9.294725E-1	9.402555E-1	9.505364E-1	9.199477E-1	9.519858E-1	9.325849E-1	9.391018E-1	9.453711E-1	9.280179E-1	9.313493E-1	9.293437E-1	9.050430E-1	9.570504E-1	9.417106E-1	9.379140E-1	9.282685E-1	9.192960E-1	9.351715E-1	9.529914E-1	9.301291E-1	9.368324E-1	9.526868E-1	9.437856E-1	9.411955E-1	9.518002E-1	9.465026E-1	9.401907E-1	9.392731E-1	9.241004E-1	9.539025E-1	9.294526E-1	9.146193E-1	9.393944E-1	9.349698E-1	9.141495E-1	9.266796E-1	9.198124E-1	9.374556E-1	9.041463E-1	9.562331E-1	9.260775E-1	9.453324E-1	9.486002E-1	9.156482E-1	9.352957E-1	9.475198E-1	9.325144E-1	9.872843E-1	8.961031E-1	8.865369E-1	9.489217E-1	9.040012E-1	9.363950E-1	9.274950E-1	9.067413E-1	9.331956E-1	9.546546E-1	9.683001E-1	9.208161E-1	9.234325E-1	9.151356E-1	9.323333E-1	9.885313E-1	9.598048E-1	9.400185E-1	9.067010E-1	9.516701E-1	9.485429E-1	9.138402E-1	9.409693E-1	8.994665E-1	9.359843E-1	9.251993E-1	9.233691E-1	9.327587E-1	9.186306E-1	9.554632E-1	9.329841E-1	9.338760E-1	9.504693E-1	9.403910E-1	9.352436E-1	9.363574E-1	9.275138E-1	9.248831E-1	9.348680E-1	9.359054E-1	9.590512E-1	9.520155E-1	9.649520E-1	9.592423E-1	9.603666E-1	8.978240E-1	9.468871E-1	9.427874E-1	9.463421E-1	9.294672E-1	9.596597E-1	9.542129E-1	9.390008E-1	9.591813E-1	9.393769E-1	9.270181E-1	9.572375E-1	9.202047E-1	9.760823E-1	9.173266E-1	9.409879E-1	9.425472E-1	9.429691E-1	9.540565E-1	9.341992E-1	9.729480E-1	9.611676E-1	9.476168E-1	9.431603E-1	9.311237E-1	9.507142E-1	9.689887E-1	9.491109E-1	9.213782E-1	9.462083E-1	9.235456E-1	9.486493E-1	9.638609E-1	9.265225E-1	9.723660E-1	9.453584E-1	9.333845E-1	9.025041E-1	9.530979E-1	9.600012E-1	9.523878E-1	9.120617E-1	9.147350E-1	9.675425E-1	9.447967E-1	9.128964E-1	9.433968E-1	9.142869E-1	9.233053E-1	9.496125E-1	9.134159E-1	9.533566E-1	9.615622E-1	9.536858E-1	9.400607E-1	9.344098E-1	9.480364E-1	9.348210E-1	9.161614E-1	9.385293E-1	8.700196E-1
3.000040E+2	9.925770E-1	9.960666E-1	9.268896E-1	1.017455E+0	9.609504E-1	9.459324E-1	9.810502E-1	9.710655E-1	9.571841E-1	1.002210E+0	9.900133E-1	9.817590E-1	9.822676E-1	9.906468E-1	9.827441E-1	9.990339E-1	9.933197E-1	9.869134E-1	9.799378E-1	9.859113E-1	1.006883E+0	9.943630E-1	9.515352E-1	9.861678E-1	1.015854E+0	9.414087E-1	9.803384E-1	9.642287E-1	9.513725E-1	9.971794E-1	1.005759E+0	9.370934E-1	9.960902E-1	9.926979E-1	9.736101E-1	9.374703E-1	1.009943E+0	1.030864E+0	9.602675E-1	9.540897E-1	9.878745E-1	1.024227E+0	9.533595E-1	9.433637E-1	9.910634E-1	9.652293E-1	1.005108E+0	9.745520E-1	9.748958E-1	9.957576E-1	9.971457E-1	9.938457E-1	9.717015E-1	9.970690E-1	9.645046E-1	9.767032E-1	9.913759E-1	9.645886E-1	9.892654E-1	9.315458E-1	9.882651E-1	9.885725E-1	9.833007E-1	1.002404E+0	9.857125E-1	9.467319E-1	1.016169E+0	9.673182E-1	9.863056E-1	1.005602E+0	9.901294E-1	9.904369E-1	9.804694E-1	9.589463E-1	9.564693E-1	9.629360E-1	9.443658E-1	9.916010E-1	9.993830E-1	9.572802E-1	9.586293E-1	1.006495E+0	9.667953E-1	9.811647E-1	1.018993E+0	1.003638E+0	9.945158E-1	9.543320E-1	9.774768E-1	9.599548E-1	9.316113E-1	9.755322E-1	9.722915E-1	1.004631E+0	1.001691E+0	9.785186E-1	9.871857E-1	9.653210E-1	9.764086E-1	1.019984E+0	9.805347E-1	9.870712E-1	9.944486E-1	1.002185E+0	9.991293E-1	9.687817E-1	9.727643E-1	9.803844E-1	9.663652E-1	9.682799E-1	9.839320E-1	9.642012E-1	9.950113E-1	9.746106E-1	9.850792E-1	9.979127E-1	9.878161E-1	9.891423E-1	9.968740E-1	9.201633E-1	1.033388E+0	9.793704E-1	9.506341E-1	9.511758E-1	9.868813E-1	9.985604E-1	9.495470E-1	9.384932E-1	9.768202E-1	1.006783E+0	1.000021E+0	9.820562E-1	9.764227E-1	9.409398E-1	9.950588E-1	9.869792E-1	9.349435E-1	9.922242E-1	1.002767E+0	1.002113E+0	9.923781E-1	9.652129E-1	9.960866E-1	1.006913E+0	9.779722E-1	9.897465E-1	1.017600E+0	9.831558E-1	1.012207E+0	9.901451E-1	9.933736E-1	9.879284E-1	9.656026E-1	9.803571E-1	9.830918E-1	9.912357E-1	9.810476E-1	9.834814E-1	1.001466E+0	9.760449E-1	1.005406E+0	9.874314E-1	9.638726E-1	9.860140E-1	1.017674E+0	9.930267E-1	9.690219E-1	9.901753E-1	9.992264E-1	9.933234E-1	1.000587E+0
