Photon Energy (eV)	#1	#2	#3	#4	#5	#6	#7	#8	#9	#10	#11	#12	#13	#14	#15	#16	#17	#18	#19	#20	#21	#22	#23	#24	#25	#26	#27	#28	#29	#30	#31	#32	#33	#34	#35	#36	#37	#38	#39	#40	#41	#42	#43	#44	#45	#46	#47	#48	#49	#50	#51	#52	#53	#54	#55	#56	#57	#58	#59	#60	#61	#62	#63	#64	#65	#66	#67	#68	#69	#70	#71	#72	#73	#74	#75	#76	#77	#78	#79	#80	#81	#82	#83	#84	#85	#86	#87	#88	#89	#90	#91	#92	#93	#94	#95	#96	#97	#98	#99	#100	#101	#102	#103	#104	#105	#106	#107	#108	#109	#110	#111	#112	#113	#114	#115	#116	#117	#118	#119	#120	#121	#122	#123	#124	#125	#126	#127	#128	#129	#130	#131	#132	#133	#134	#135	#136	#137	#138	#139	#140	#141	#142	#143	#144	#145	#146	#147	#148	#149	#150	#151	#152	#153	#154	#155	#156	#157	#158	#159	#160	#161	#162	#163	#164	#165	#166	#167	#168	#169	#170	#171	
5.300160E+2	1.557439E-4	-4.322959E-3	2.947831E-3	-1.454532E-2	-9.326974E-3	-1.694588E-4	-4.095634E-3	-6.464442E-3	-3.116701E-3	-9.360288E-3	1.507040E-3	-3.448242E-3	-6.613613E-3	-3.022488E-3	-4.022334E-3	1.531542E-3	-6.880720E-3	2.099933E-3	-6.432669E-4	-9.927304E-3	1.774217E-3	1.373994E-4	-2.633989E-3	-8.251552E-3	-1.504968E-3	-4.252285E-3	-4.358488E-3	-5.831622E-4	-7.896066E-3	-8.324200E-3	-1.058762E-2	-4.478778E-3	-6.862349E-3	-7.082413E-3	-8.564940E-3	1.945947E-3	-1.349692E-2	-8.636444E-4	-9.085779E-3	-1.046782E-2	-1.919364E-3	1.804330E-3	-7.474428E-3	-8.827717E-3	-9.803490E-3	-1.099957E-2	-9.987934E-3	-5.351466E-3	2.651849E-4	-2.756758E-3	-6.036798E-3	-7.789278E-3	2.747521E-3	-7.394051E-3	-8.963505E-3	-7.573342E-3	-8.506651E-3	-8.909424E-4	-8.993974E-3	-3.686553E-3	-4.900274E-3	-1.431156E-3	-8.837734E-3	-3.656966E-3	-2.489686E-3	-1.005766E-3	-6.030634E-3	-3.855767E-3	-1.023280E-2	-5.782706E-3	-4.599157E-3	-7.614477E-3	-9.775277E-3	-4.486275E-3	-1.603348E-3	-3.342302E-3	-7.897698E-5	-2.393809E-3	-5.487633E-3	-7.875699E-3	-3.844567E-3	-4.499511E-3	-3.544744E-3	-6.175954E-3	2.155414E-3	-7.260084E-3	-6.596802E-3	-6.108765E-3	-4.138459E-3	-1.147697E-2	-6.581681E-3	-2.679219E-3	-9.891003E-3	-4.223416E-3	-5.723762E-3	-3.616186E-3	-8.638620E-3	-7.052070E-3	-3.455935E-3	-3.551406E-3	-7.496998E-3	-3.422322E-3	-7.791982E-3	-5.024049E-3	-1.182013E-2	-1.628591E-3	-6.829708E-3	-3.123398E-3	-5.424421E-3	-6.876508E-3	-2.355783E-4	-1.070418E-2	-8.613966E-3	1.320654E-4	-2.456490E-3	3.407649E-4	-2.587950E-3	-3.458324E-3	-2.223804E-3	-7.823818E-4	-3.657743E-4	-9.522351E-3	-1.008729E-2	-5.823015E-3	-4.758621E-3	-5.628375E-3	-8.850606E-3	-9.055482E-3	-1.526862E-3	-2.432539E-3	-2.493403E-3	-1.112846E-2	-4.623990E-3	-5.871157E-3	-5.070551E-3	-4.945309E-3	-1.385048E-2	-1.022736E-2	-5.143337E-3	-6.544405E-3	-6.039998E-3	-3.957825E-3	-8.292655E-3	2.407941E-4	-8.749276E-3	-8.577647E-3	-2.869040E-3	-3.801535E-3	-6.299147E-3	9.702390E-5	-1.192653E-2	-7.375809E-3	-2.971266E-3	-6.391126E-3	-1.361953E-2	1.480578E-3	-9.897755E-3	1.118511E-3	-3.164253E-3	-7.522823E-3	-7.386878E-3	-1.303432E-3	-1.197984E-2	-8.082679E-3	-2.912898E-3	-1.010716E-2	7.067490E-4	-2.543100E-3	-7.769706E-3	-4.686165E-3	-1.453253E-2
5.305080E+2	-6.520737E-3	-4.737999E-3	-4.254782E-3	2.331217E-3	-1.090179E-4	1.006658E-3	-1.023251E-3	-3.201152E-3	-2.466033E-3	-8.576883E-3	-9.346064E-3	-9.305941E-3	-8.669913E-3	-4.794593E-3	2.921935E-4	-6.858715E-3	-7.797438E-4	-6.671122E-3	-4.148526E-3	-1.165785E-3	-1.469899E-2	-3.380860E-3	-7.164700E-3	-4.586725E-3	-6.118033E-3	-8.802491E-3	1.182855E-5	-5.750562E-3	-9.088566E-3	5.182037E-4	7.508942E-3	-1.087715E-2	-1.426946E-4	-1.005774E-3	2.743801E-3	-5.429617E-3	-5.900488E-3	-4.158438E-3	-8.936026E-4	-3.698023E-3	-3.341507E-3	-4.035369E-3	-5.144420E-3	6.157285E-4	4.308507E-6	-3.153254E-3	-5.125032E-3	-7.481529E-3	-6.655100E-3	-4.177175E-3	-2.154050E-3	2.377493E-3	-1.846590E-3	6.735867E-4	-4.884114E-5	3.827892E-3	-6.747684E-3	2.557641E-3	-1.006574E-2	-5.066222E-3	-5.758723E-3	-7.865852E-3	-1.624144E-3	-6.658471E-3	-1.067942E-2	-3.032412E-3	-8.646545E-3	-1.070596E-3	-7.568990E-3	-5.217353E-3	-6.818223E-3	-3.271801E-3	-6.268210E-3	-1.309214E-2	-6.004822E-3	-6.758870E-3	-1.263544E-2	-2.787141E-3	3.948055E-4	-9.254622E-3	3.307418E-3	1.345447E-3	-5.557568E-4	-4.449681E-3	-6.174767E-3	-3.350929E-3	5.644062E-4	-5.996491E-3	2.231821E-3	6.907960E-4	-7.104672E-3	-4.727865E-4	-6.566849E-3	-6.509541E-4	-9.307513E-3	-3.993476E-3	-1.066238E-2	-4.881437E-3	-2.826558E-3	-3.451634E-3	-1.022760E-2	-3.815045E-3	-3.681645E-3	-4.915080E-3	3.624094E-3	-5.818102E-3	-8.391912E-3	3.378822E-3	-1.161790E-2	-2.689320E-3	5.498499E-3	-3.287183E-3	-3.337943E-3	-1.255942E-2	-2.633930E-3	-1.119619E-2	-4.334323E-3	-1.365207E-2	-5.784679E-3	-4.992140E-3	-2.605056E-3	3.504379E-3	-8.763443E-4	-9.418600E-3	1.311729E-4	-6.581458E-3	-7.628929E-3	-3.977825E-3	-5.044105E-3	3.000887E-3	-3.562477E-3	-2.033728E-3	-1.028949E-2	-5.756567E-3	-5.944513E-3	-4.278741E-3	-8.069144E-3	-7.257065E-3	-2.898628E-3	-5.887956E-3	-7.230531E-3	-1.154252E-2	-7.166734E-4	-5.341517E-3	1.410672E-3	-5.072122E-3	-7.296763E-3	2.677410E-3	-8.766310E-3	-5.812214E-3	-7.154602E-3	-9.539880E-3	-5.073155E-3	-3.990140E-3	-2.038033E-3	-5.452077E-3	-1.519634E-3	-9.414387E-3	-6.414856E-3	-5.014380E-3	-6.267383E-3	-3.555162E-3	-1.498657E-3	-9.045069E-3	-1.165911E-2	-3.660402E-3	-7.790002E-3	-3.079028E-3	-5.575450E-3	-7.637929E-3	-2.037773E-2
5.310100E+2	2.464487E-3	-7.744366E-3	-4.699644E-3	-1.834647E-3	-4.816492E-3	-1.048457E-3	-9.285369E-4	2.799360E-3	-3.471725E-3	-3.983904E-3	4.144840E-3	-1.219382E-2	-1.228423E-3	-3.045207E-5	1.649226E-4	-4.490240E-3	-6.982819E-4	3.525568E-3	-5.551431E-3	6.012550E-3	-2.221621E-3	-1.104971E-2	-2.401362E-3	-1.799595E-3	-3.923113E-3	-4.249997E-3	-5.530817E-3	-5.642649E-3	-5.050536E-3	7.571181E-4	-3.659420E-3	-2.486681E-3	-7.154994E-3	-5.379896E-3	3.913638E-3	-2.658252E-3	-9.104295E-4	-2.032405E-3	-3.011488E-3	3.104792E-3	-7.845375E-3	1.077322E-4	-2.226039E-3	1.252668E-4	2.669716E-3	-3.156404E-3	-3.494887E-3	1.556604E-3	-3.519531E-3	2.397507E-3	-4.177260E-3	-4.950727E-3	-3.620961E-3	-3.903506E-3	-2.510221E-3	5.078477E-4	7.799812E-3	-6.761491E-3	1.167765E-3	-3.468325E-3	-6.133478E-3	-3.545757E-3	-4.069108E-3	-7.552591E-4	-5.910151E-3	5.215806E-3	1.708918E-3	-6.349497E-3	1.792583E-3	1.270188E-3	-1.564203E-3	-4.566830E-3	-1.602346E-3	4.482293E-3	1.651718E-3	-7.157047E-3	3.708616E-3	-1.631283E-3	-1.888831E-3	7.153309E-3	-5.645286E-3	-2.509899E-3	7.188187E-4	-2.162493E-3	-2.755728E-3	-1.327199E-3	6.763738E-3	-6.312327E-3	-8.105948E-3	6.327803E-3	-3.141135E-4	-3.472335E-3	-1.358739E-3	-3.987395E-3	-1.550651E-3	-3.361446E-3	-5.742495E-3	-2.683655E-3	-5.929635E-4	-5.524753E-3	-2.079198E-3	-6.232751E-3	-7.089407E-3	2.506146E-3	1.567562E-3	-5.709291E-3	-2.739704E-3	-2.901273E-3	7.262053E-4	-3.596259E-3	-5.601449E-3	-4.158292E-3	2.498075E-3	-7.239736E-3	5.611123E-3	-1.144548E-3	-1.046703E-2	1.740045E-3	-5.142504E-3	2.334725E-3	-3.671747E-3	2.552294E-3	-3.440879E-3	4.414092E-3	-5.039881E-3	-5.886255E-5	-6.951494E-3	-3.516760E-4	-3.371173E-3	-6.363682E-3	6.114066E-3	2.078884E-3	4.030170E-3	-1.062937E-3	-5.384724E-3	1.057800E-3	5.006873E-3	-9.448410E-3	-3.840407E-3	-1.964648E-3	-4.851648E-3	-9.055090E-4	-8.618252E-3	-3.645312E-3	-6.921950E-3	-1.058397E-2	-2.083136E-3	-4.158238E-3	1.224500E-3	-3.684436E-3	2.454469E-3	-4.883538E-3	-6.112550E-3	-6.207355E-3	-7.876117E-3	-8.067750E-3	-1.441440E-3	-6.252839E-3	-3.374689E-3	-3.004674E-3	-6.089671E-4	4.227824E-3	2.346448E-3	-4.740512E-3	-3.210162E-3	-2.555967E-3	-4.488205E-3	-4.948972E-3	-1.297056E-3	1.281848E-4	8.710564E-4
5.315180E+2	-7.391735E-3	1.670241E-3	2.197695E-3	-1.161763E-3	5.903735E-4	-6.894862E-3	-3.331092E-3	-6.646845E-3	3.256356E-3	-6.306962E-4	-2.397287E-3	1.133083E-2	-1.128828E-3	-2.445642E-3	2.152474E-3	-3.489590E-3	9.179050E-4	-4.461859E-3	-3.910913E-3	9.940678E-3	-3.386111E-3	-1.018459E-3	-2.298350E-3	-3.426773E-4	-4.360028E-3	2.407143E-3	-9.220550E-3	-6.608181E-3	-3.186628E-3	-1.411599E-3	-1.729094E-3	-1.488215E-3	-7.052976E-3	-6.787019E-3	-6.725885E-3	-3.095700E-3	1.429422E-3	-7.251695E-3	5.250160E-3	-7.808007E-3	-5.702191E-3	8.998110E-5	5.180705E-3	9.005181E-3	-3.574573E-3	-4.743990E-5	1.071556E-3	2.135737E-3	6.524410E-4	1.713723E-3	-1.283642E-3	-4.854421E-3	-4.925923E-3	1.937653E-3	-6.037376E-3	-4.812879E-3	-4.188652E-4	-2.630740E-5	-2.803365E-3	1.620207E-3	5.136577E-3	9.085913E-3	5.904890E-3	-6.183879E-4	3.609978E-3	-2.324645E-4	-3.167395E-4	-6.262434E-3	-1.171600E-3	-2.476653E-3	-5.008106E-4	4.542000E-3	2.270698E-4	-1.770296E-3	-5.240296E-3	7.138677E-3	-6.256548E-3	-1.834297E-3	-1.592620E-3	1.871118E-3	-1.964287E-3	1.600059E-3	-1.897480E-4	-2.588367E-3	-1.673722E-3	9.687390E-4	-2.219953E-3	6.434404E-3	-7.472195E-3	-2.155439E-3	-5.648037E-3	1.302211E-4	2.542373E-3	4.793060E-4	3.171605E-3	-1.166761E-3	2.918419E-4	8.288515E-3	-4.056999E-4	-1.054276E-3	-1.944729E-3	8.760556E-4	-3.420185E-3	-2.843149E-3	6.156440E-4	3.222135E-4	-3.722711E-3	-1.329473E-2	-1.239916E-3	-3.996996E-3	-8.059272E-4	1.792948E-3	-3.090380E-3	4.897601E-3	-5.290198E-3	-3.961796E-3	-1.815267E-4	-1.701844E-3	-4.487189E-3	-4.759703E-3	1.680481E-3	5.096836E-4	7.491002E-3	1.899967E-3	-2.583308E-3	2.746983E-3	2.195569E-3	2.972991E-4	3.910845E-4	-3.201213E-3	-6.782743E-3	-3.383466E-3	-3.717158E-3	-6.476306E-3	-5.710972E-3	3.838498E-3	2.574499E-3	4.769913E-4	-4.263661E-3	5.206529E-3	4.266850E-3	-1.912741E-4	6.554220E-3	-1.361084E-3	2.325487E-3	-2.456915E-3	3.167828E-3	-4.602181E-3	5.049252E-3	-2.110731E-3	1.599880E-3	7.119064E-3	-5.459057E-3	1.081065E-2	6.568925E-3	-6.860881E-3	-3.060361E-3	1.024110E-2	2.278801E-4	-4.756011E-3	1.605136E-3	-6.245835E-3	-2.768422E-3	1.087501E-3	8.397173E-3	2.272674E-3	-2.553854E-3	3.150969E-3	4.040329E-3	-2.925353E-3	-2.914597E-2
5.320070E+2	5.311756E-3	5.418824E-3	1.266901E-3	3.260017E-3	3.611013E-3	-3.067016E-4	1.816022E-3	9.883850E-3	-3.824167E-3	7.881062E-3	2.702192E-3	1.299063E-2	1.156843E-2	8.668885E-3	-6.204474E-3	1.596721E-3	-1.983238E-3	-5.980283E-3	7.039110E-3	-3.576923E-3	1.348011E-2	5.906469E-4	1.213704E-3	8.312251E-3	4.711381E-3	1.109454E-2	7.551178E-3	6.811744E-3	4.395046E-3	-3.026356E-3	9.062916E-3	1.572281E-2	3.324775E-3	3.373492E-3	4.206983E-3	-2.456037E-3	6.459777E-3	4.568529E-3	8.465787E-4	2.860276E-3	1.036185E-2	-4.197374E-3	-3.103634E-3	-6.122706E-3	3.716920E-4	1.056592E-2	7.115659E-4	9.045927E-4	7.859358E-3	8.576928E-4	5.390011E-3	5.839926E-4	5.661378E-3	-1.874264E-3	5.563346E-3	7.358913E-4	4.708818E-3	2.217943E-3	4.376422E-3	5.232131E-3	1.862151E-3	-5.215804E-3	-4.766548E-3	7.124406E-3	1.119106E-3	-3.449945E-3	5.222217E-3	7.889799E-3	7.220700E-3	6.260397E-3	2.906747E-3	1.346319E-3	8.924180E-3	4.471678E-3	-5.627384E-3	-1.870484E-3	7.110527E-3	-4.572783E-3	5.587249E-4	1.997971E-3	-4.377266E-3	2.497809E-3	3.472847E-3	9.533541E-3	-3.444572E-3	4.019584E-3	1.965766E-3	5.265212E-3	6.305167E-3	2.716320E-3	1.000393E-2	-8.342701E-4	1.245053E-2	2.416657E-3	7.161673E-3	9.866011E-4	1.337847E-2	3.571945E-3	7.349837E-3	4.535495E-3	1.581048E-2	7.220466E-3	8.894720E-3	5.535356E-3	2.950036E-3	5.991274E-3	9.368992E-3	2.629178E-3	1.455102E-3	7.734133E-3	-3.326781E-3	1.276116E-2	5.948881E-3	8.015875E-4	-1.085946E-2	2.028913E-3	6.282632E-3	4.576359E-3	5.817280E-3	3.562927E-3	2.433194E-3	-2.791864E-3	-3.147140E-3	7.334675E-3	1.912145E-3	2.017376E-3	5.308633E-3	9.516299E-4	1.563710E-3	4.064319E-3	1.790001E-3	8.638485E-3	6.438667E-3	1.049710E-2	6.546214E-3	-4.428946E-3	-4.592463E-3	9.207949E-3	1.775608E-3	3.689425E-3	5.767019E-3	3.997395E-3	-1.926828E-3	-5.467237E-3	-2.282548E-4	1.347064E-2	-7.033087E-4	2.555515E-3	2.560971E-3	3.490320E-6	3.155914E-3	3.604195E-3	3.333277E-4	3.933921E-3	7.827181E-3	-2.393506E-3	8.929313E-3	-2.940629E-3	2.772924E-3	7.414471E-3	2.722870E-3	2.717129E-3	1.049049E-2	6.033780E-3	6.444634E-3	2.933916E-3	1.086649E-2	3.292500E-3	-2.158355E-3	4.936542E-3	2.837682E-2
5.325070E+2	5.980485E-3	9.716259E-3	2.541999E-3	1.195050E-2	1.005110E-2	7.412821E-3	7.562492E-3	3.629229E-3	9.622271E-3	1.467071E-2	3.389279E-3	6.265408E-4	6.072350E-3	1.624290E-3	7.617218E-3	1.171028E-2	9.424078E-3	1.148776E-2	7.215027E-3	-1.283215E-3	5.052388E-3	1.472098E-2	1.328470E-2	6.668298E-3	1.119476E-2	3.803091E-3	1.154685E-2	1.177281E-2	2.082675E-2	1.148683E-2	-5.957279E-4	3.608015E-3	1.788824E-2	1.688161E-2	4.426403E-3	1.169366E-2	1.241864E-2	9.737653E-3	6.894131E-3	1.600878E-2	8.446585E-3	6.230700E-3	1.276782E-2	5.204246E-3	1.033235E-2	6.790750E-3	1.682473E-2	8.236061E-3	1.397647E-3	1.965010E-3	8.261739E-3	1.463294E-2	1.984576E-3	1.056058E-2	1.199660E-2	7.314590E-3	3.164571E-3	2.903157E-3	1.631889E-2	5.368762E-3	9.793747E-3	8.972657E-3	1.339264E-2	4.564678E-3	1.435017E-2	2.504783E-3	8.062783E-3	9.648496E-3	9.960109E-3	5.946128E-3	1.057565E-2	9.564789E-3	8.494584E-3	1.039474E-2	1.682413E-2	1.199003E-2	8.151818E-3	1.321931E-2	8.015554E-3	6.107924E-3	1.252399E-2	1.566096E-3	9.858355E-5	5.842954E-3	1.189337E-2	6.949889E-3	-4.771560E-4	6.717967E-3	1.117961E-2	3.897490E-3	9.644576E-3	7.328390E-3	2.823685E-3	5.965802E-3	6.248648E-3	1.115127E-2	1.137318E-2	2.756702E-3	-6.868103E-5	9.046575E-3	5.938048E-3	5.373596E-3	1.308850E-2	4.740777E-3	3.062796E-3	6.842497E-3	1.231504E-2	1.331140E-2	1.610093E-2	9.424950E-3	4.471237E-3	3.595539E-3	6.595332E-3	1.396791E-2	1.562895E-2	1.393286E-2	1.128820E-2	1.249584E-2	1.182090E-2	4.636572E-3	2.528903E-3	5.747859E-3	1.006066E-2	1.592881E-3	1.033849E-2	7.504336E-3	1.592683E-2	1.213605E-2	7.987346E-3	4.932227E-3	4.934556E-3	5.828287E-3	8.161798E-3	8.669867E-3	1.556455E-2	8.756697E-3	1.893072E-2	1.724789E-2	1.437042E-2	5.501055E-3	8.088309E-3	1.259973E-2	1.300019E-2	1.557435E-2	1.216332E-2	1.322001E-2	9.784420E-3	7.329028E-3	6.230735E-3	1.150687E-2	1.187087E-2	1.107597E-2	1.928270E-2	1.844046E-3	9.137578E-3	2.129364E-2	6.989877E-3	7.248244E-3	9.952994E-3	1.288342E-2	9.935223E-3	4.159477E-3	3.409984E-3	1.474698E-2	2.940366E-3	1.111694E-2	3.258820E-3	4.127631E-3	1.276024E-2	1.018472E-2	3.480836E-2
5.330280E+2	3.037904E-2	2.968611E-2	2.533139E-2	3.495687E-2	1.948379E-2	2.113621E-2	2.070426E-2	2.096640E-2	1.309983E-2	1.847641E-2	2.190716E-2	1.331483E-2	1.972590E-2	2.810603E-2	3.096142E-2	3.049126E-2	2.523779E-2	2.565822E-2	8.392354E-3	1.363333E-2	1.253130E-2	2.639596E-2	2.969688E-2	1.538219E-2	2.671466E-2	1.827518E-2	2.030064E-2	2.797423E-2	1.439794E-2	2.213126E-2	2.367343E-2	1.343531E-2	1.132614E-2	2.929585E-2	1.927162E-2	2.589520E-2	2.826327E-2	3.007939E-2	2.118687E-2	2.389436E-2	1.893439E-2	2.014309E-2	1.517109E-2	2.305052E-2	2.248090E-2	1.616601E-2	2.379463E-2	1.831483E-2	1.984389E-2	2.419863E-2	1.832314E-2	1.316300E-2	2.893390E-2	1.821260E-2	2.161853E-2	1.989422E-2	2.011122E-2	1.518792E-2	8.778037E-3	1.804863E-2	2.852660E-2	2.633296E-2	2.854028E-2	1.778086E-2	2.239055E-2	2.552388E-2	3.114618E-2	2.283116E-2	1.946635E-2	1.478805E-2	1.545550E-2	2.403829E-2	1.783765E-2	6.854176E-3	1.545445E-2	1.979935E-2	2.519770E-2	1.475773E-2	2.288740E-2	1.524564E-2	1.982556E-2	1.856367E-2	2.360387E-2	2.793211E-2	2.255254E-2	1.789763E-2	2.627085E-2	1.917004E-2	1.873708E-2	2.460216E-2	2.236466E-2	2.254908E-2	1.278717E-2	1.984881E-2	1.940359E-2	1.887318E-2	1.099828E-2	2.346375E-2	1.892762E-2	3.946162E-2	2.763510E-2	3.070301E-2	1.783795E-2	2.381494E-2	1.542144E-2	2.781425E-2	1.471996E-2	3.409105E-2	2.014131E-2	2.338699E-2	3.261681E-2	2.798966E-2	1.724529E-2	2.521724E-2	2.109251E-2	2.237479E-2	1.879327E-2	3.259882E-2	1.466270E-2	1.645039E-2	2.096744E-2	3.313308E-2	8.578705E-3	3.002900E-2	1.772932E-2	1.795811E-2	2.755522E-2	1.131444E-2	2.129269E-2	2.354372E-2	1.776908E-2	1.966188E-2	3.653390E-2	1.376058E-2	1.906902E-2	1.258250E-2	2.277873E-2	8.982054E-3	2.265464E-2	2.211234E-2	1.955628E-2	1.880040E-2	2.458488E-2	2.100757E-2	1.289570E-2	2.713341E-2	3.461578E-2	2.881428E-2	3.048572E-2	3.214245E-2	2.435496E-2	3.614585E-2	1.200255E-2	3.070353E-2	3.326463E-2	3.465970E-2	2.033294E-2	2.249999E-2	2.011017E-2	2.278186E-2	4.033534E-2	1.151913E-2	2.419850E-2	3.076452E-2	2.470160E-2	2.890375E-2	3.617947E-2	2.242542E-2	1.713875E-2	1.546506E-2	1.064679E-2
5.331580E+2	2.314688E-2	2.777445E-2	1.698433E-2	2.302828E-2	2.528347E-2	2.078183E-2	2.392654E-2	2.939189E-2	3.396153E-2	3.272719E-2	2.465447E-2	3.059574E-2	3.388449E-2	2.914932E-2	2.367285E-2	1.797806E-2	3.147422E-2	2.093123E-2	2.067106E-2	2.151532E-2	1.615605E-2	4.013946E-2	2.669986E-2	2.912218E-2	2.315587E-2	3.511640E-2	1.969367E-2	2.226951E-2	2.695683E-2	2.845191E-2	2.046559E-2	1.406658E-2	6.814413E-3	2.889281E-2	2.445581E-2	2.173687E-2	3.429603E-2	4.320603E-2	2.720697E-2	2.987777E-2	3.623460E-2	2.179232E-2	3.454707E-2	2.380547E-2	2.997652E-2	3.176841E-2	2.156155E-2	2.845236E-2	3.124081E-2	3.077890E-2	3.343286E-2	3.052313E-2	2.624888E-2	3.430299E-2	3.077509E-2	3.304559E-2	3.039885E-2	3.531194E-2	3.266591E-2	3.735032E-2	3.363478E-2	2.785377E-2	2.617269E-2	3.423855E-2	2.045711E-2	3.156961E-2	3.853930E-2	2.844259E-2	2.120126E-2	3.102235E-2	3.272594E-2	2.661870E-2	1.685668E-2	2.550366E-2	3.043133E-2	2.919209E-2	1.204287E-2	1.949368E-2	2.751269E-2	3.345341E-2	2.511148E-2	2.823842E-2	9.764758E-3	2.206985E-2	2.514018E-2	3.173200E-2	1.312089E-2	2.244467E-2	1.519289E-2	1.951039E-2	3.365449E-2	2.109120E-2	2.279903E-2	2.778026E-2	3.054538E-2	1.855106E-2	1.982994E-2	3.912678E-2	2.995032E-2	2.311672E-2	3.263928E-2	2.248049E-2	3.541962E-2	2.910182E-2	2.394297E-2	3.259168E-2	1.995781E-2	3.193097E-2	2.934396E-2	2.403780E-2	3.046664E-2	3.315672E-2	3.794831E-2	2.783952E-2	2.775789E-2	3.441809E-2	2.584045E-2	2.631279E-2	2.881656E-2	3.173800E-2	3.889588E-2	3.179415E-2	1.911131E-2	3.450127E-2	2.519743E-2	3.129856E-2	3.061845E-2	1.703670E-2	3.413512E-2	1.937075E-2	2.218829E-2	2.098040E-2	2.394494E-2	2.168279E-2	3.052843E-2	2.915937E-2	2.663273E-2	3.114132E-2	1.686789E-2	2.891331E-2	4.601131E-2	3.310497E-2	2.367455E-2	3.436756E-2	2.341197E-2	2.731841E-2	2.099416E-2	3.965385E-2	1.967600E-2	2.383317E-2	2.791123E-2	3.082949E-2	2.074528E-2	2.642573E-2	2.119432E-2	3.158465E-2	2.764231E-2	2.315751E-2	3.169837E-2	2.981213E-2	3.792818E-2	2.023649E-2	1.750552E-2	2.675079E-2	3.015114E-2	2.650104E-2	3.549402E-2	2.869598E-2	1.835432E-2	3.327121E-2	1.701827E-3
5.333130E+2	2.752918E-2	3.160346E-2	3.263567E-2	2.700685E-2	3.384054E-2	3.787545E-2	2.975771E-2	3.678414E-2	3.469239E-2	3.394646E-2	3.203316E-2	3.435244E-2	4.284443E-2	3.702936E-2	3.959665E-2	3.793668E-2	3.487452E-2	3.422196E-2	3.172454E-2	3.004459E-2	3.410899E-2	2.371820E-2	2.769091E-2	3.476965E-2	5.688655E-2	4.682373E-2	4.039259E-2	3.341977E-2	2.451125E-2	3.746647E-2	4.296236E-2	3.289693E-2	3.349533E-2	3.092460E-2	3.230279E-2	3.846987E-2	4.306240E-2	3.609929E-2	3.713039E-2	3.350566E-2	3.277332E-2	3.186327E-2	3.668492E-2	3.425581E-2	3.278246E-2	3.819985E-2	3.141295E-2	2.528283E-2	3.146850E-2	4.437547E-2	3.213292E-2	2.872038E-2	3.605363E-2	4.073352E-2	2.986689E-2	4.127485E-2	3.902738E-2	3.385118E-2	2.311716E-2	1.838745E-2	4.367819E-2	3.381789E-2	4.543486E-2	3.903409E-2	3.541126E-2	2.907288E-2	3.473843E-2	3.573347E-2	2.554315E-2	4.640035E-2	3.852956E-2	3.881820E-2	3.607828E-2	2.727671E-2	3.139444E-2	3.042476E-2	4.080519E-2	4.526583E-2	3.366236E-2	3.065471E-2	3.092170E-2	3.740979E-2	2.904218E-2	2.941585E-2	3.443628E-2	3.143800E-2	4.615314E-2	3.147180E-2	3.660595E-2	3.133752E-2	3.941539E-2	4.779607E-2	3.519598E-2	2.884043E-2	4.015231E-2	3.137281E-2	3.357689E-2	3.932945E-2	3.287832E-2	3.710788E-2	3.813963E-2	3.257361E-2	3.667098E-2	3.673103E-2	3.918479E-2	3.430725E-2	1.898807E-2	2.677962E-2	3.986267E-2	3.808767E-2	3.554181E-2	3.636322E-2	3.656157E-2	2.610751E-2	4.802019E-2	2.151031E-2	2.848505E-2	4.603641E-2	3.492392E-2	4.218797E-2	4.151308E-2	4.331476E-2	3.405106E-2	5.292573E-2	2.740044E-2	2.257266E-2	4.865399E-2	2.429086E-2	3.484835E-2	4.193036E-2	3.582422E-2	2.003900E-2	4.016617E-2	3.471636E-2	3.622683E-2	4.808043E-2	3.324181E-2	2.403280E-2	3.823424E-2	2.310783E-2	3.185356E-2	3.233543E-2	3.478320E-2	2.985538E-2	2.741506E-2	3.360021E-2	3.616876E-2	3.746568E-2	3.882055E-2	4.160896E-2	4.250017E-2	3.104773E-2	2.273272E-2	3.610961E-2	2.470563E-2	2.741677E-2	3.773618E-2	3.463956E-2	3.539427E-2	2.862394E-2	5.205809E-2	3.449658E-2	2.840397E-2	3.669781E-2	3.305642E-2	3.303736E-2	4.173746E-2	4.048453E-2	4.304330E-2	5.275164E-2	2.952997E-2
5.334630E+2	5.109022E-2	4.548429E-2	4.554351E-2	3.777043E-2	3.405985E-2	4.575307E-2	4.215913E-2	4.290429E-2	3.658363E-2	4.542216E-2	5.834569E-2	4.775503E-2	5.849950E-2	3.985003E-2	4.119470E-2	4.414497E-2	5.395841E-2	3.984720E-2	2.842568E-2	4.188145E-2	4.436778E-2	2.592932E-2	3.689066E-2	4.730518E-2	4.860720E-2	3.954373E-2	4.337912E-2	3.850688E-2	4.430870E-2	4.390397E-2	4.597729E-2	4.075057E-2	3.892661E-2	6.093767E-2	5.561147E-2	5.784292E-2	5.238004E-2	4.651213E-2	6.214572E-2	4.933735E-2	6.274142E-2	4.697933E-2	4.095054E-2	5.827684E-2	4.341842E-2	4.026315E-2	4.190818E-2	4.619206E-2	5.739268E-2	4.715342E-2	4.257703E-2	4.852733E-2	3.921530E-2	5.883416E-2	3.869129E-2	4.607618E-2	3.757204E-2	5.247322E-2	3.934902E-2	4.543278E-2	5.827376E-2	5.903071E-2	4.083909E-2	4.907040E-2	5.743200E-2	3.793053E-2	4.172425E-2	7.337100E-2	4.621644E-2	4.857713E-2	4.949520E-2	5.308311E-2	4.502127E-2	5.568934E-2	4.969051E-2	4.690230E-2	4.655067E-2	5.070424E-2	4.858574E-2	5.974013E-2	4.669295E-2	4.362828E-2	3.884826E-2	5.097538E-2	4.388153E-2	5.875564E-2	5.283658E-2	4.999528E-2	5.982601E-2	4.439506E-2	6.008923E-2	5.164702E-2	4.121654E-2	5.518213E-2	6.279138E-2	3.824986E-2	4.704559E-2	4.207218E-2	4.367919E-2	5.544336E-2	5.875844E-2	5.033245E-2	3.674264E-2	5.155332E-2	3.445865E-2	5.307254E-2	5.844851E-2	4.569777E-2	4.543827E-2	5.643746E-2	5.082302E-2	4.241284E-2	4.543112E-2	4.835572E-2	5.219531E-2	5.366604E-2	4.901641E-2	4.945031E-2	3.392089E-2	3.671603E-2	5.622534E-2	5.973045E-2	4.472654E-2	5.570391E-2	4.226782E-2	4.735349E-2	4.322802E-2	4.358666E-2	4.599095E-2	4.242264E-2	4.410023E-2	5.413498E-2	5.901872E-2	4.890380E-2	4.226269E-2	5.602974E-2	3.673991E-2	4.989396E-2	4.303053E-2	4.782792E-2	4.138199E-2	5.671890E-2	4.022707E-2	4.628204E-2	4.637289E-2	6.060954E-2	3.544782E-2	5.046364E-2	5.511798E-2	4.441506E-2	5.532375E-2	4.773407E-2	3.860141E-2	5.238871E-2	3.637498E-2	5.180574E-2	4.834719E-2	4.644660E-2	6.925074E-2	4.912442E-2	5.083879E-2	4.809845E-2	5.359519E-2	5.297979E-2	5.022373E-2	5.509391E-2	4.618977E-2	5.702718E-2	5.915889E-2	4.253375E-2	2.961969E-2
5.336030E+2	6.198012E-2	5.256446E-2	5.499450E-2	6.101181E-2	6.046606E-2	5.313421E-2	4.709617E-2	5.403583E-2	6.155349E-2	5.530320E-2	6.641853E-2	5.669055E-2	6.804921E-2	6.331561E-2	5.223103E-2	6.880909E-2	5.236114E-2	6.206028E-2	4.825183E-2	5.985156E-2	6.208796E-2	7.018939E-2	5.853705E-2	4.117615E-2	7.188825E-2	7.164936E-2	6.635847E-2	7.019174E-2	7.580219E-2	5.831352E-2	5.208743E-2	6.386815E-2	6.161509E-2	5.447153E-2	6.907580E-2	7.674638E-2	6.670291E-2	6.771831E-2	6.244596E-2	5.398077E-2	5.412319E-2	5.369768E-2	6.969345E-2	5.932985E-2	5.668052E-2	6.630425E-2	5.212152E-2	6.802825E-2	6.590256E-2	5.833675E-2	6.189056E-2	6.236771E-2	5.928656E-2	5.198879E-2	6.396416E-2	5.890026E-2	5.930740E-2	6.390666E-2	7.746175E-2	5.531767E-2	6.696020E-2	6.020925E-2	5.129919E-2	6.076272E-2	4.228120E-2	5.428705E-2	6.493643E-2	5.880624E-2	6.379159E-2	6.272621E-2	5.736245E-2	5.624013E-2	5.454588E-2	4.902909E-2	5.809788E-2	6.215833E-2	5.490450E-2	6.983703E-2	6.335186E-2	4.881258E-2	7.583477E-2	5.772270E-2	6.103953E-2	5.788670E-2	5.135070E-2	6.995379E-2	4.901237E-2	6.270966E-2	6.916444E-2	4.782414E-2	5.749815E-2	6.060953E-2	5.941777E-2	6.457739E-2	5.470832E-2	4.819172E-2	7.298963E-2	5.791510E-2	6.536620E-2	7.464486E-2	5.465582E-2	5.355688E-2	5.879208E-2	6.395920E-2	6.441139E-2	6.614986E-2	6.179268E-2	6.867150E-2	6.301287E-2	5.717476E-2	6.697630E-2	6.285601E-2	5.362225E-2	5.787850E-2	6.701246E-2	6.596934E-2	5.765249E-2	6.178309E-2	4.826014E-2	5.563957E-2	6.050172E-2	4.895365E-2	6.200808E-2	7.228153E-2	6.817605E-2	5.872474E-2	4.614064E-2	5.317394E-2	6.532558E-2	6.971137E-2	6.556836E-2	5.002528E-2	7.164587E-2	5.528515E-2	5.967351E-2	6.333591E-2	5.175319E-2	4.447671E-2	7.511467E-2	6.373915E-2	6.087984E-2	5.344852E-2	4.857273E-2	7.145604E-2	5.331335E-2	7.658362E-2	6.797544E-2	6.070969E-2	6.172098E-2	5.078644E-2	4.279275E-2	6.391286E-2	6.364084E-2	7.242629E-2	5.273282E-2	6.554693E-2	6.689149E-2	7.315283E-2	6.310111E-2	5.650020E-2	6.147406E-2	4.734093E-2	5.970130E-2	5.919361E-2	6.328838E-2	6.063840E-2	6.495763E-2	6.078296E-2	8.616470E-2	5.762921E-2	6.380821E-2
5.337580E+2	7.291682E-2	7.764777E-2	9.116358E-2	8.241316E-2	7.114240E-2	8.809201E-2	8.464234E-2	9.302336E-2	8.042169E-2	7.226334E-2	9.125803E-2	7.690550E-2	8.206882E-2	8.646881E-2	9.442733E-2	7.374825E-2	7.948024E-2	8.617240E-2	5.508158E-2	7.739783E-2	8.209428E-2	8.267901E-2	9.191229E-2	7.256953E-2	1.060068E-1	1.085402E-1	8.079931E-2	1.047520E-1	8.285704E-2	8.166308E-2	8.318513E-2	9.430786E-2	8.284070E-2	8.694182E-2	8.725080E-2	7.761089E-2	7.518990E-2	8.505862E-2	8.583262E-2	9.492056E-2	9.791110E-2	9.786279E-2	8.164821E-2	8.477270E-2	8.611251E-2	8.402211E-2	9.625171E-2	8.767448E-2	8.270781E-2	7.355874E-2	8.854761E-2	8.772636E-2	8.335160E-2	7.955754E-2	8.152092E-2	8.239367E-2	9.022060E-2	7.146559E-2	8.310789E-2	9.681304E-2	8.759559E-2	7.303882E-2	8.921327E-2	8.490620E-2	8.352659E-2	9.446786E-2	8.289357E-2	8.662581E-2	8.671735E-2	9.089463E-2	9.106463E-2	9.477701E-2	8.682364E-2	7.600090E-2	7.714767E-2	8.216821E-2	8.632899E-2	7.570456E-2	8.571521E-2	7.352258E-2	8.131904E-2	9.488349E-2	8.499190E-2	8.936457E-2	8.306206E-2	9.885898E-2	8.538201E-2	8.399230E-2	9.304176E-2	7.159839E-2	9.091809E-2	8.716627E-2	8.390751E-2	8.146294E-2	9.786323E-2	9.209926E-2	8.316805E-2	9.808045E-2	8.102247E-2	8.276194E-2	8.503758E-2	7.935916E-2	1.105045E-1	8.581957E-2	8.494684E-2	8.858913E-2	8.869249E-2	9.229330E-2	8.286897E-2	8.233659E-2	9.633569E-2	9.293058E-2	8.051669E-2	9.726053E-2	6.950229E-2	8.187399E-2	8.815756E-2	9.492737E-2	8.332903E-2	7.021727E-2	8.549717E-2	8.233693E-2	9.015970E-2	8.672829E-2	7.133437E-2	9.803750E-2	8.000459E-2	7.920541E-2	8.797848E-2	7.478415E-2	7.878210E-2	8.524753E-2	8.419994E-2	8.366726E-2	9.213022E-2	9.641681E-2	9.202004E-2	7.784905E-2	6.960087E-2	7.578490E-2	8.783490E-2	9.773058E-2	9.704963E-2	9.443754E-2	9.017844E-2	8.305615E-2	8.468462E-2	1.008455E-1	9.445234E-2	8.001945E-2	9.243302E-2	9.050788E-2	7.436636E-2	8.386085E-2	9.355477E-2	7.763281E-2	8.441048E-2	9.396247E-2	8.311255E-2	8.012039E-2	8.988501E-2	8.401111E-2	7.698592E-2	8.673027E-2	8.124190E-2	8.465229E-2	1.011270E-1	7.960119E-2	9.507924E-2	8.933925E-2	9.429344E-2
5.339090E+2	1.122143E-1	1.160709E-1	1.041636E-1	1.159511E-1	1.100517E-1	1.192923E-1	1.119627E-1	1.317157E-1	1.095193E-1	1.063266E-1	1.089097E-1	1.119987E-1	1.209735E-1	1.071191E-1	1.083240E-1	1.157420E-1	1.158343E-1	1.253348E-1	1.194063E-1	9.729610E-2	1.056662E-1	1.165612E-1	1.112062E-1	1.054999E-1	1.580294E-1	1.280989E-1	1.455337E-1	1.258306E-1	1.101038E-1	1.051070E-1	1.230190E-1	1.217843E-1	1.235735E-1	1.048714E-1	1.311326E-1	1.310701E-1	1.319960E-1	1.223951E-1	1.161038E-1	1.199591E-1	1.245147E-1	1.387891E-1	1.334101E-1	1.308449E-1	1.159457E-1	1.277811E-1	1.132257E-1	1.327713E-1	1.187938E-1	1.223109E-1	1.179155E-1	1.088591E-1	1.308912E-1	1.323788E-1	1.217089E-1	1.095514E-1	1.263983E-1	1.194896E-1	1.137476E-1	1.063406E-1	1.277222E-1	1.195980E-1	1.327076E-1	1.216100E-1	1.137489E-1	1.245482E-1	1.229734E-1	1.229224E-1	1.187309E-1	1.131532E-1	1.345205E-1	1.170170E-1	1.338458E-1	1.046932E-1	1.165342E-1	1.251836E-1	1.246988E-1	1.403929E-1	1.280897E-1	1.223811E-1	1.164132E-1	1.381167E-1	1.134863E-1	1.484000E-1	1.057202E-1	1.264940E-1	1.183592E-1	1.335869E-1	1.283283E-1	1.254947E-1	1.380009E-1	1.045182E-1	1.013916E-1	1.294811E-1	1.342503E-1	1.228531E-1	1.357495E-1	1.375123E-1	1.234887E-1	1.043817E-1	1.326471E-1	1.359543E-1	1.277736E-1	1.106327E-1	1.202827E-1	1.096006E-1	1.221604E-1	1.328570E-1	1.250824E-1	1.053851E-1	1.200007E-1	1.272714E-1	1.257304E-1	1.109054E-1	1.283179E-1	1.413302E-1	1.218184E-1	1.161081E-1	1.318408E-1	1.255194E-1	1.183705E-1	1.152665E-1	1.353357E-1	1.143935E-1	1.183547E-1	1.265165E-1	1.449856E-1	1.257848E-1	1.501339E-1	1.228798E-1	1.196963E-1	1.286999E-1	1.438733E-1	1.191960E-1	1.161117E-1	1.452396E-1	1.183781E-1	1.234591E-1	1.169681E-1	1.345029E-1	1.361481E-1	1.098235E-1	1.250613E-1	1.260419E-1	1.212865E-1	1.113284E-1	1.064349E-1	1.254616E-1	1.059752E-1	1.230762E-1	1.161811E-1	1.290177E-1	1.258668E-1	1.177484E-1	1.170402E-1	1.105972E-1	1.204678E-1	1.113612E-1	1.418977E-1	1.223040E-1	1.296933E-1	1.213615E-1	1.315048E-1	1.244785E-1	1.270935E-1	1.140068E-1	1.167483E-1	1.313112E-1	1.415964E-1	1.581006E-1	9.161787E-2
5.340740E+2	2.009776E-1	1.966374E-1	1.825795E-1	1.828346E-1	1.950391E-1	1.677832E-1	1.837475E-1	1.948093E-1	2.106321E-1	1.909872E-1	1.703653E-1	1.676409E-1	1.953140E-1	1.946041E-1	2.006933E-1	1.881767E-1	1.766773E-1	2.000061E-1	1.865084E-1	1.803593E-1	1.569126E-1	1.802172E-1	1.962982E-1	1.627684E-1	2.816127E-1	2.382153E-1	2.307512E-1	2.103070E-1	2.125815E-1	2.142822E-1	2.336792E-1	2.122217E-1	1.960827E-1	2.177741E-1	2.146571E-1	2.133207E-1	2.100966E-1	2.038966E-1	2.202376E-1	2.061230E-1	1.923824E-1	1.998754E-1	2.051455E-1	1.896004E-1	1.953054E-1	2.212295E-1	2.093955E-1	2.022289E-1	2.267687E-1	2.113958E-1	1.999496E-1	2.128598E-1	1.830677E-1	1.949397E-1	2.110030E-1	2.003047E-1	1.890228E-1	1.919627E-1	1.928950E-1	1.773643E-1	2.160077E-1	1.822101E-1	2.015076E-1	2.052506E-1	1.768087E-1	1.916563E-1	2.047145E-1	2.122966E-1	1.884938E-1	2.056317E-1	1.921626E-1	2.203249E-1	1.934426E-1	1.904890E-1	1.973021E-1	2.248851E-1	2.032642E-1	2.096516E-1	2.031021E-1	2.075273E-1	1.860702E-1	2.143879E-1	1.769916E-1	2.047302E-1	2.126915E-1	2.032231E-1	2.006493E-1	1.786937E-1	1.880827E-1	1.845428E-1	2.187091E-1	2.101617E-1	2.039390E-1	1.887691E-1	1.952371E-1	2.039498E-1	1.947328E-1	2.053782E-1	2.028160E-1	2.231865E-1	2.030332E-1	1.979153E-1	2.102255E-1	1.970700E-1	2.022266E-1	1.877309E-1	1.922151E-1	1.845142E-1	1.920364E-1	1.690427E-1	1.831271E-1	1.819575E-1	2.167818E-1	2.023467E-1	1.792153E-1	2.162963E-1	2.025626E-1	2.071465E-1	2.034831E-1	1.950800E-1	2.154450E-1	1.931665E-1	1.992842E-1	1.951775E-1	2.023422E-1	2.053328E-1	2.116011E-1	2.055369E-1	1.977548E-1	1.991322E-1	1.900618E-1	1.931681E-1	2.006914E-1	2.019046E-1	1.913214E-1	2.077449E-1	2.041350E-1	2.045338E-1	1.931353E-1	2.088273E-1	2.078530E-1	2.112367E-1	1.991308E-1	1.965585E-1	1.918516E-1	1.886654E-1	2.071238E-1	1.825863E-1	1.908755E-1	2.069030E-1	1.848777E-1	2.085059E-1	1.799493E-1	2.133549E-1	2.009636E-1	1.990646E-1	1.964183E-1	2.143128E-1	1.852725E-1	2.252930E-1	2.111475E-1	1.978189E-1	1.851479E-1	2.042937E-1	1.844800E-1	1.788699E-1	1.916156E-1	2.176115E-1	2.216938E-1	1.987507E-1	2.255379E-1
5.342090E+2	3.084390E-1	3.090061E-1	2.998217E-1	3.053555E-1	3.353693E-1	3.226008E-1	3.030990E-1	3.032796E-1	3.134855E-1	3.124760E-1	3.165515E-1	3.181484E-1	3.131947E-1	3.087882E-1	3.086818E-1	2.942021E-1	3.025152E-1	3.015338E-1	2.960863E-1	3.049828E-1	3.055054E-1	2.801320E-1	2.798475E-1	3.107110E-1	4.033978E-1	4.132579E-1	3.684177E-1	3.592000E-1	3.404300E-1	3.550965E-1	3.641392E-1	3.694688E-1	3.418624E-1	3.552657E-1	3.464613E-1	3.524154E-1	3.527542E-1	3.375156E-1	3.512813E-1	3.443892E-1	3.563401E-1	3.423282E-1	3.515283E-1	3.459429E-1	3.425252E-1	3.332353E-1	3.614558E-1	3.439186E-1	3.350824E-1	3.242652E-1	3.358869E-1	3.338918E-1	3.470111E-1	3.282644E-1	3.393873E-1	3.570037E-1	3.529788E-1	3.540205E-1	3.352812E-1	3.250304E-1	3.498710E-1	3.238117E-1	3.372985E-1	3.383419E-1	3.400769E-1	3.444361E-1	3.484060E-1	3.157927E-1	3.164658E-1	3.393100E-1	3.472941E-1	3.367872E-1	3.460878E-1	3.042394E-1	3.328427E-1	3.256259E-1	3.465415E-1	3.193319E-1	3.421562E-1	3.361595E-1	3.176334E-1	3.238975E-1	3.367674E-1	3.234547E-1	3.260633E-1	3.370726E-1	3.274373E-1	3.243839E-1	3.383826E-1	3.236146E-1	3.337291E-1	3.571753E-1	3.309599E-1	3.349851E-1	3.237126E-1	3.356008E-1	3.440583E-1	3.439144E-1	3.398435E-1	3.131476E-1	3.418590E-1	3.162125E-1	3.295201E-1	3.406979E-1	3.373159E-1	3.399625E-1	3.403862E-1	3.437354E-1	3.316236E-1	3.341691E-1	3.204837E-1	3.131817E-1	3.376748E-1	3.251734E-1	3.367988E-1	3.575907E-1	3.515456E-1	3.036343E-1	3.195539E-1	3.117055E-1	3.541734E-1	3.336259E-1	3.226977E-1	3.182775E-1	3.334629E-1	3.123288E-1	3.184821E-1	3.414003E-1	3.250370E-1	3.273714E-1	3.370971E-1	3.347495E-1	3.666685E-1	3.240001E-1	3.194070E-1	3.463652E-1	3.318445E-1	3.344202E-1	3.350170E-1	3.358043E-1	3.152648E-1	3.222522E-1	3.242199E-1	3.484126E-1	3.262057E-1	3.630317E-1	3.410862E-1	3.311154E-1	3.355578E-1	3.254830E-1	3.409623E-1	3.382032E-1	3.304990E-1	3.243161E-1	3.163328E-1	3.264531E-1	3.324005E-1	3.086675E-1	3.388467E-1	3.258043E-1	3.153683E-1	2.972879E-1	3.236981E-1	3.206623E-1	3.538629E-1	3.120576E-1	3.393565E-1	3.409833E-1	3.450553E-1	3.465049E-1	3.226574E-1
5.343600E+2	5.595499E-1	5.696718E-1	5.302090E-1	5.588829E-1	5.254130E-1	5.387306E-1	5.429952E-1	5.672507E-1	5.493278E-1	5.840282E-1	5.636903E-1	5.825515E-1	5.809503E-1	5.677459E-1	5.729348E-1	5.629252E-1	5.819561E-1	5.866901E-1	5.543219E-1	5.867426E-1	5.551267E-1	5.692299E-1	5.449095E-1	5.602971E-1	7.088712E-1	6.652650E-1	6.384225E-1	6.381390E-1	6.338119E-1	6.175819E-1	6.281343E-1	6.214730E-1	6.091664E-1	6.285806E-1	6.310302E-1	6.409247E-1	6.012108E-1	6.232114E-1	5.986249E-1	5.856045E-1	6.389973E-1	6.225154E-1	6.380272E-1	5.794696E-1	6.049477E-1	6.381229E-1	6.145496E-1	5.780326E-1	6.055717E-1	6.349199E-1	6.004925E-1	5.946525E-1	6.120283E-1	6.039546E-1	6.098381E-1	5.868069E-1	6.220000E-1	6.129708E-1	6.456380E-1	5.730459E-1	6.387193E-1	5.807591E-1	5.415636E-1	6.034863E-1	5.727183E-1	6.264078E-1	5.610287E-1	5.831583E-1	6.034329E-1	5.615910E-1	6.043424E-1	5.781713E-1	6.062870E-1	5.939735E-1	6.024103E-1	5.742598E-1	6.340585E-1	5.921973E-1	5.642182E-1	6.007101E-1	5.711960E-1	5.943074E-1	6.325100E-1	5.749612E-1	6.064450E-1	5.811477E-1	5.749060E-1	5.944308E-1	5.907853E-1	6.130275E-1	5.752537E-1	5.963951E-1	5.753798E-1	6.086718E-1	5.632414E-1	5.931074E-1	5.636655E-1	6.081055E-1	6.076358E-1	6.146849E-1	5.856470E-1	5.814380E-1	6.126475E-1	5.930664E-1	5.727099E-1	6.091679E-1	5.819499E-1	5.853992E-1	5.767852E-1	5.679546E-1	5.987175E-1	6.048594E-1	5.760916E-1	5.692680E-1	5.974961E-1	5.803974E-1	5.674664E-1	6.205024E-1	5.557125E-1	6.112850E-1	5.743527E-1	5.786421E-1	6.019389E-1	6.008590E-1	5.900615E-1	6.061800E-1	5.773411E-1	5.988115E-1	5.868588E-1	6.031248E-1	5.872863E-1	6.210666E-1	6.043712E-1	5.945853E-1	5.811570E-1	6.029601E-1	5.950220E-1	5.984243E-1	5.742725E-1	5.932175E-1	6.108390E-1	6.049585E-1	5.928499E-1	6.015753E-1	5.902410E-1	5.839548E-1	6.065981E-1	5.592175E-1	5.900947E-1	5.894384E-1	5.804091E-1	5.628513E-1	6.388782E-1	5.465591E-1	5.839488E-1	5.718943E-1	5.971103E-1	5.817817E-1	5.609139E-1	6.222690E-1	6.173357E-1	6.113691E-1	5.946574E-1	5.551807E-1	5.910603E-1	6.133029E-1	5.850518E-1	5.899037E-1	6.210311E-1	6.039511E-1	5.660452E-1
5.345050E+2	8.948394E-1	8.930722E-1	8.557961E-1	9.223974E-1	9.028660E-1	9.379762E-1	8.640483E-1	8.921423E-1	9.466240E-1	9.006229E-1	8.595761E-1	8.912044E-1	8.722575E-1	8.867641E-1	8.962500E-1	9.280524E-1	9.086245E-1	9.055145E-1	8.983662E-1	9.372551E-1	8.902451E-1	9.158337E-1	8.968060E-1	9.291475E-1	1.028927E+0	1.018372E+0	9.988471E-1	9.738179E-1	9.964306E-1	9.516556E-1	9.662002E-1	9.862424E-1	1.000581E+0	9.952774E-1	9.613068E-1	9.782225E-1	1.023028E+0	9.862030E-1	9.408989E-1	9.566442E-1	9.863122E-1	9.236149E-1	9.887102E-1	9.354771E-1	9.433703E-1	9.558956E-1	9.989602E-1	9.359752E-1	9.457330E-1	9.498892E-1	9.725767E-1	9.697773E-1	9.631577E-1	9.676322E-1	9.502738E-1	9.148290E-1	9.102416E-1	9.620673E-1	9.929024E-1	8.909628E-1	9.958432E-1	9.511660E-1	9.320713E-1	9.676085E-1	9.169106E-1	9.510596E-1	8.901263E-1	9.939472E-1	9.461018E-1	9.822794E-1	9.313488E-1	9.214890E-1	9.459732E-1	9.320926E-1	9.293230E-1	9.298171E-1	9.106111E-1	9.473904E-1	9.426971E-1	9.356978E-1	8.975809E-1	9.567683E-1	9.311385E-1	9.147951E-1	9.303048E-1	9.424842E-1	9.016221E-1	9.494702E-1	9.735255E-1	9.291795E-1	9.163345E-1	9.411232E-1	9.180771E-1	9.166466E-1	9.861999E-1	9.462146E-1	9.411290E-1	9.147151E-1	9.692127E-1	9.651120E-1	9.726143E-1	8.987959E-1	9.486671E-1	9.239669E-1	9.697496E-1	9.025435E-1	9.240193E-1	9.609708E-1	9.214091E-1	9.066942E-1	9.497971E-1	9.162014E-1	8.999151E-1	8.939807E-1	9.545863E-1	9.092416E-1	9.278497E-1	9.260680E-1	9.386665E-1	9.667965E-1	9.585385E-1	9.446828E-1	9.655774E-1	9.020991E-1	8.963040E-1	9.507092E-1	9.604537E-1	8.913090E-1	9.250863E-1	9.038402E-1	9.274560E-1	9.112789E-1	9.617631E-1	8.916389E-1	8.933543E-1	9.320855E-1	9.250232E-1	9.491491E-1	8.868326E-1	9.066319E-1	9.301702E-1	9.234104E-1	9.346622E-1	9.690145E-1	9.325661E-1	9.615211E-1	9.078202E-1	8.967863E-1	9.316371E-1	9.035797E-1	9.172314E-1	9.328226E-1	8.937811E-1	9.726624E-1	8.886819E-1	9.213223E-1	8.695530E-1	9.094061E-1	9.335559E-1	8.944026E-1	9.649768E-1	9.544530E-1	9.410966E-1	9.133549E-1	9.412161E-1	9.049893E-1	9.352804E-1	9.247131E-1	9.861922E-1	9.327144E-1	9.778436E-1
5.346620E+2	1.399728E+0	1.338620E+0	1.282239E+0	1.320911E+0	1.366167E+0	1.323844E+0	1.326189E+0	1.339876E+0	1.369691E+0	1.380877E+0	1.362800E+0	1.327053E+0	1.336531E+0	1.343695E+0	1.371894E+0	1.338673E+0	1.370145E+0	1.312938E+0	1.338448E+0	1.310157E+0	1.346358E+0	1.325387E+0	1.344487E+0	1.369690E+0	1.497648E+0	1.440461E+0	1.407017E+0	1.372950E+0	1.421671E+0	1.377944E+0	1.420072E+0	1.418782E+0	1.344237E+0	1.401015E+0	1.383570E+0	1.335434E+0	1.399191E+0	1.422053E+0	1.385352E+0	1.435598E+0	1.406089E+0	1.342330E+0	1.414886E+0	1.338996E+0	1.355413E+0	1.393030E+0	1.395318E+0	1.356240E+0	1.371628E+0	1.387587E+0	1.412993E+0	1.377025E+0	1.401632E+0	1.416240E+0	1.318703E+0	1.348025E+0	1.377582E+0	1.369543E+0	1.390408E+0	1.358719E+0	1.358388E+0	1.359647E+0	1.319945E+0	1.344944E+0	1.303136E+0	1.365145E+0	1.333169E+0	1.362585E+0	1.397020E+0	1.353123E+0	1.293894E+0	1.353562E+0	1.354913E+0	1.385971E+0	1.286020E+0	1.319095E+0	1.359396E+0	1.350865E+0	1.397060E+0	1.397232E+0	1.340593E+0	1.349731E+0	1.325772E+0	1.326577E+0	1.385658E+0	1.340002E+0	1.359919E+0	1.347011E+0	1.369898E+0	1.377993E+0	1.389439E+0	1.378919E+0	1.351953E+0	1.376529E+0	1.354367E+0	1.348815E+0	1.411545E+0	1.359700E+0	1.318220E+0	1.307768E+0	1.322893E+0	1.360004E+0	1.361612E+0	1.334609E+0	1.371278E+0	1.286202E+0	1.288057E+0	1.321774E+0	1.334275E+0	1.324536E+0	1.314087E+0	1.403302E+0	1.360358E+0	1.342015E+0	1.350704E+0	1.400225E+0	1.379286E+0	1.292303E+0	1.323343E+0	1.330869E+0	1.347802E+0	1.314552E+0	1.309184E+0	1.322523E+0	1.290521E+0	1.358284E+0	1.346798E+0	1.357108E+0	1.339879E+0	1.330441E+0	1.362224E+0	1.359393E+0	1.394517E+0	1.404014E+0	1.353235E+0	1.324075E+0	1.318023E+0	1.336068E+0	1.278494E+0	1.323644E+0	1.386079E+0	1.314627E+0	1.280486E+0	1.343551E+0	1.358772E+0	1.403043E+0	1.284102E+0	1.336959E+0	1.397522E+0	1.385618E+0	1.304890E+0	1.367631E+0	1.415756E+0	1.389895E+0	1.343326E+0	1.293133E+0	1.340065E+0	1.300410E+0	1.328931E+0	1.339789E+0	1.314230E+0	1.300931E+0	1.298831E+0	1.334999E+0	1.309969E+0	1.350116E+0	1.311347E+0	1.356868E+0	1.360884E+0	1.352218E+0	1.409483E+0
5.348070E+2	1.833730E+0	1.693027E+0	1.690997E+0	1.689634E+0	1.746568E+0	1.786575E+0	1.750030E+0	1.730310E+0	1.725859E+0	1.707644E+0	1.685289E+0	1.662023E+0	1.697300E+0	1.650801E+0	1.755529E+0	1.736856E+0	1.683652E+0	1.769523E+0	1.688909E+0	1.719298E+0	1.680510E+0	1.736120E+0	1.624324E+0	1.714174E+0	1.751558E+0	1.713649E+0	1.755788E+0	1.747158E+0	1.742998E+0	1.685230E+0	1.802164E+0	1.715620E+0	1.693347E+0	1.716249E+0	1.755898E+0	1.721288E+0	1.759309E+0	1.738037E+0	1.727082E+0	1.691546E+0	1.726391E+0	1.709004E+0	1.774250E+0	1.665037E+0	1.713959E+0	1.746916E+0	1.751762E+0	1.666477E+0	1.704822E+0	1.723446E+0	1.775614E+0	1.677674E+0	1.786882E+0	1.810227E+0	1.695464E+0	1.645503E+0	1.720612E+0	1.783478E+0	1.744698E+0	1.673803E+0	1.727799E+0	1.657530E+0	1.677913E+0	1.712000E+0	1.699833E+0	1.789926E+0	1.652102E+0	1.686380E+0	1.740428E+0	1.689886E+0	1.729833E+0	1.713601E+0	1.728396E+0	1.697904E+0	1.622468E+0	1.667911E+0	1.722983E+0	1.731008E+0	1.679656E+0	1.722469E+0	1.704908E+0	1.658817E+0	1.692957E+0	1.647345E+0	1.724838E+0	1.692286E+0	1.686998E+0	1.700309E+0	1.704048E+0	1.693257E+0	1.710690E+0	1.747799E+0	1.668306E+0	1.684908E+0	1.671658E+0	1.653917E+0	1.757525E+0	1.685632E+0	1.700574E+0	1.690620E+0	1.707931E+0	1.649248E+0	1.701607E+0	1.668667E+0	1.692531E+0	1.660631E+0	1.608622E+0	1.755187E+0	1.658745E+0	1.675907E+0	1.644890E+0	1.701274E+0	1.684184E+0	1.674296E+0	1.665692E+0	1.671211E+0	1.753106E+0	1.664192E+0	1.650368E+0	1.633755E+0	1.643688E+0	1.657844E+0	1.627400E+0	1.622942E+0	1.692617E+0	1.715771E+0	1.729921E+0	1.646265E+0	1.705943E+0	1.669891E+0	1.722832E+0	1.626587E+0	1.721367E+0	1.636549E+0	1.647545E+0	1.661031E+0	1.629464E+0	1.684180E+0	1.628847E+0	1.708843E+0	1.693648E+0	1.689253E+0	1.629059E+0	1.713943E+0	1.755325E+0	1.731820E+0	1.675390E+0	1.643831E+0	1.756903E+0	1.680466E+0	1.609263E+0	1.642621E+0	1.648098E+0	1.697602E+0	1.648833E+0	1.687861E+0	1.696083E+0	1.602543E+0	1.726193E+0	1.639528E+0	1.671426E+0	1.697226E+0	1.630583E+0	1.626470E+0	1.712987E+0	1.637448E+0	1.650212E+0	1.699263E+0	1.646112E+0	1.669264E+0	1.720358E+0
5.349530E+2	2.112517E+0	1.976143E+0	1.920491E+0	1.967638E+0	1.974268E+0	2.029245E+0	1.955064E+0	1.995198E+0	1.975587E+0	1.993817E+0	2.016264E+0	1.963530E+0	2.006997E+0	2.006730E+0	2.062412E+0	1.968223E+0	2.032670E+0	2.013858E+0	1.961057E+0	1.991858E+0	1.998107E+0	2.003099E+0	1.930126E+0	2.015710E+0	1.917444E+0	1.939371E+0	2.001151E+0	1.957279E+0	1.998004E+0	1.925330E+0	1.923861E+0	2.025125E+0	2.051535E+0	2.006193E+0	2.000049E+0	1.939852E+0	1.970286E+0	1.975794E+0	1.941101E+0	1.950866E+0	2.006931E+0	1.918898E+0	1.957424E+0	1.942628E+0	2.025943E+0	2.007197E+0	1.961895E+0	1.892443E+0	1.958416E+0	1.983513E+0	1.984081E+0	1.926067E+0	1.911111E+0	1.931842E+0	1.925763E+0	1.939762E+0	1.963890E+0	2.013923E+0	2.004694E+0	1.894988E+0	2.011898E+0	1.907006E+0	1.929234E+0	1.915362E+0	1.924372E+0	1.956708E+0	1.927634E+0	1.985393E+0	1.960523E+0	1.950931E+0	1.919499E+0	1.943769E+0	1.975103E+0	1.969712E+0	1.859205E+0	1.938503E+0	1.983263E+0	1.962670E+0	1.901173E+0	1.963021E+0	1.886879E+0	1.919344E+0	1.939440E+0	1.875339E+0	1.945766E+0	1.908524E+0	1.959119E+0	1.948568E+0	1.993306E+0	2.014126E+0	1.965548E+0	1.963505E+0	1.903946E+0	1.978873E+0	1.907051E+0	1.940959E+0	2.006988E+0	1.967008E+0	1.899210E+0	1.888892E+0	1.919004E+0	1.936238E+0	1.881694E+0	1.863338E+0	1.967425E+0	1.896694E+0	1.909531E+0	1.940032E+0	1.944141E+0	1.927802E+0	1.949644E+0	1.901388E+0	2.017069E+0	1.934991E+0	1.919839E+0	2.030312E+0	1.973266E+0	1.918742E+0	1.917715E+0	1.978428E+0	1.932428E+0	1.893320E+0	1.914615E+0	1.917720E+0	1.927767E+0	1.918923E+0	1.948913E+0	1.939233E+0	1.943009E+0	1.917665E+0	1.929580E+0	1.946530E+0	2.032501E+0	1.940903E+0	1.935791E+0	1.950028E+0	1.935067E+0	1.950303E+0	1.892243E+0	1.890836E+0	1.933035E+0	1.904723E+0	1.948841E+0	1.926703E+0	1.933600E+0	1.921669E+0	1.858497E+0	1.845951E+0	1.973665E+0	1.915932E+0	1.830656E+0	1.914272E+0	1.963274E+0	1.933730E+0	1.867844E+0	1.923932E+0	1.942364E+0	1.933346E+0	1.853011E+0	1.861502E+0	1.860339E+0	1.896426E+0	1.828843E+0	1.865659E+0	1.947367E+0	1.884220E+0	1.861610E+0	1.938106E+0	1.889739E+0	1.936409E+0	1.839346E+0
5.351140E+2	2.145717E+0	2.060408E+0	2.087304E+0	2.059701E+0	2.065381E+0	2.076049E+0	2.082271E+0	2.071501E+0	2.115778E+0	2.058236E+0	2.048662E+0	2.053729E+0	2.054620E+0	2.031802E+0	2.070568E+0	2.114566E+0	2.137904E+0	2.125943E+0	2.047142E+0	2.150399E+0	2.139181E+0	2.074088E+0	2.054207E+0	2.079739E+0	2.029999E+0	1.959005E+0	1.969303E+0	2.032776E+0	2.063698E+0	1.961123E+0	2.007724E+0	2.016169E+0	2.031156E+0	2.148749E+0	2.057661E+0	2.003886E+0	2.077857E+0	2.080719E+0	2.038126E+0	2.022363E+0	2.030841E+0	2.040366E+0	2.090019E+0	2.041890E+0	1.976787E+0	2.105919E+0	2.049736E+0	1.931476E+0	1.982958E+0	2.067932E+0	2.088021E+0	2.113579E+0	2.088790E+0	2.020503E+0	2.024930E+0	2.006187E+0	2.037710E+0	2.060301E+0	2.114287E+0	2.021294E+0	2.092251E+0	1.963746E+0	2.009503E+0	2.059353E+0	1.964433E+0	2.002017E+0	1.980087E+0	2.055895E+0	2.069686E+0	2.040287E+0	2.084283E+0	2.068018E+0	2.006248E+0	2.058689E+0	1.981526E+0	1.982188E+0	2.057810E+0	2.022032E+0	1.977358E+0	2.046938E+0	2.024910E+0	2.044433E+0	2.038168E+0	2.010766E+0	2.017384E+0	2.048288E+0	2.010242E+0	1.978730E+0	2.012338E+0	2.084573E+0	1.984993E+0	2.073535E+0	1.985258E+0	1.999320E+0	2.095269E+0	2.012714E+0	2.063076E+0	1.925103E+0	2.010673E+0	1.960018E+0	2.033148E+0	1.929953E+0	1.984684E+0	2.039583E+0	2.069470E+0	1.990661E+0	2.057359E+0	2.025793E+0	1.977274E+0	1.990039E+0	1.983518E+0	2.024791E+0	2.007980E+0	2.026837E+0	1.992223E+0	2.017887E+0	2.033471E+0	2.012238E+0	1.997493E+0	1.990662E+0	1.999964E+0	1.920512E+0	1.926968E+0	1.955066E+0	2.010072E+0	1.981291E+0	2.024294E+0	2.025693E+0	2.063084E+0	2.069184E+0	2.061272E+0	1.995972E+0	2.040487E+0	1.987751E+0	1.988761E+0	2.068021E+0	2.012443E+0	2.024561E+0	1.927355E+0	1.975484E+0	1.998789E+0	2.056549E+0	2.008282E+0	1.942191E+0	2.074618E+0	2.044291E+0	1.978017E+0	1.931041E+0	2.036259E+0	2.021713E+0	1.952632E+0	1.950493E+0	2.035899E+0	2.043463E+0	1.991156E+0	2.009378E+0	1.962941E+0	1.971221E+0	2.000183E+0	1.967158E+0	1.943795E+0	1.967154E+0	1.915488E+0	1.915644E+0	2.036474E+0	2.016220E+0	1.975834E+0	2.038598E+0	1.975126E+0	2.019961E+0	2.036120E+0
5.352600E+2	2.085517E+0	1.968049E+0	1.948298E+0	1.960583E+0	1.971584E+0	1.989968E+0	1.964357E+0	1.937684E+0	2.023150E+0	1.959739E+0	1.964579E+0	1.943322E+0	1.938959E+0	1.969813E+0	1.990650E+0	1.952587E+0	1.957038E+0	1.941651E+0	1.976734E+0	1.959876E+0	1.941908E+0	1.989105E+0	1.905563E+0	1.987336E+0	1.922329E+0	1.916329E+0	1.889912E+0	1.865246E+0	1.914382E+0	1.882325E+0	1.906522E+0	1.913774E+0	1.917158E+0	1.998278E+0	1.921057E+0	1.946867E+0	1.948439E+0	1.863901E+0	1.896048E+0	1.892228E+0	1.959249E+0	1.899235E+0	1.934859E+0	1.889055E+0	1.952624E+0	1.933247E+0	1.929544E+0	1.894710E+0	1.920969E+0	1.969233E+0	1.970740E+0	1.868181E+0	1.930150E+0	1.939171E+0	1.930583E+0	1.869256E+0	1.860765E+0	1.945138E+0	1.941677E+0	1.889097E+0	1.982975E+0	1.857747E+0	1.873910E+0	1.878977E+0	1.853280E+0	1.894255E+0	1.825060E+0	1.933643E+0	1.891575E+0	1.941252E+0	1.952322E+0	1.965710E+0	1.964986E+0	1.885643E+0	1.868513E+0	1.931225E+0	1.968844E+0	1.948451E+0	1.933666E+0	1.900405E+0	1.943427E+0	1.867935E+0	1.910124E+0	1.878843E+0	1.930314E+0	1.946808E+0	1.855021E+0	1.886421E+0	1.942950E+0	1.896424E+0	1.899195E+0	1.927272E+0	1.861718E+0	1.901508E+0	1.912834E+0	1.907091E+0	1.863563E+0	1.869270E+0	1.898636E+0	1.949660E+0	1.919012E+0	1.866525E+0	1.895390E+0	1.930196E+0	1.941814E+0	1.868689E+0	1.927359E+0	1.911054E+0	1.893003E+0	1.937602E+0	1.911559E+0	1.902417E+0	1.941956E+0	1.919279E+0	1.939475E+0	1.902613E+0	1.935975E+0	1.851377E+0	1.875880E+0	1.825664E+0	1.887340E+0	1.844522E+0	1.867566E+0	1.860877E+0	1.884736E+0	1.856239E+0	1.873364E+0	1.894908E+0	1.944257E+0	1.903027E+0	1.933859E+0	1.900078E+0	1.920941E+0	1.943733E+0	1.952740E+0	1.927572E+0	1.899248E+0	1.918390E+0	1.893480E+0	1.859864E+0	1.879064E+0	1.878871E+0	1.898623E+0	1.922965E+0	1.908931E+0	1.897419E+0	1.799017E+0	1.765268E+0	1.911216E+0	1.887913E+0	1.871372E+0	1.854289E+0	1.940127E+0	1.879957E+0	1.863364E+0	1.798021E+0	1.865382E+0	1.926494E+0	1.877241E+0	1.803295E+0	1.894596E+0	1.862182E+0	1.874776E+0	1.832043E+0	1.883546E+0	1.905414E+0	1.846320E+0	1.834503E+0	1.862704E+0	1.908582E+0	1.834373E+0
5.354010E+2	1.809499E+0	1.746417E+0	1.689587E+0	1.724504E+0	1.717411E+0	1.801389E+0	1.724013E+0	1.774333E+0	1.677798E+0	1.682228E+0	1.700574E+0	1.718259E+0	1.726722E+0	1.719640E+0	1.736123E+0	1.703964E+0	1.703223E+0	1.747888E+0	1.729265E+0	1.707801E+0	1.713852E+0	1.824701E+0	1.699156E+0	1.724486E+0	1.636316E+0	1.666307E+0	1.661186E+0	1.689707E+0	1.746128E+0	1.647622E+0	1.622334E+0	1.695913E+0	1.709849E+0	1.768368E+0	1.716288E+0	1.713579E+0	1.712600E+0	1.700543E+0	1.710404E+0	1.713094E+0	1.660163E+0	1.692705E+0	1.723228E+0	1.696794E+0	1.691632E+0	1.644263E+0	1.722091E+0	1.662283E+0	1.728269E+0	1.698708E+0	1.784069E+0	1.719920E+0	1.716988E+0	1.743006E+0	1.705528E+0	1.679214E+0	1.637690E+0	1.674790E+0	1.694725E+0	1.658840E+0	1.767002E+0	1.679529E+0	1.645234E+0	1.648487E+0	1.696934E+0	1.724244E+0	1.668427E+0	1.666069E+0	1.740728E+0	1.660164E+0	1.693617E+0	1.711622E+0	1.659478E+0	1.686874E+0	1.650524E+0	1.736939E+0	1.735546E+0	1.663015E+0	1.709477E+0	1.669826E+0	1.638428E+0	1.685907E+0	1.681512E+0	1.700386E+0	1.711947E+0	1.625455E+0	1.615183E+0	1.635439E+0	1.711849E+0	1.678865E+0	1.717314E+0	1.719685E+0	1.702767E+0	1.697070E+0	1.749087E+0	1.704264E+0	1.711610E+0	1.665978E+0	1.688224E+0	1.609037E+0	1.643525E+0	1.649752E+0	1.697274E+0	1.681076E+0	1.692771E+0	1.684537E+0	1.619043E+0	1.699661E+0	1.685680E+0	1.665108E+0	1.709225E+0	1.637586E+0	1.715789E+0	1.645706E+0	1.670410E+0	1.664128E+0	1.766511E+0	1.649457E+0	1.691148E+0	1.683193E+0	1.659638E+0	1.649447E+0	1.642606E+0	1.667894E+0	1.693486E+0	1.691424E+0	1.698986E+0	1.670650E+0	1.720349E+0	1.673140E+0	1.700562E+0	1.631062E+0	1.758539E+0	1.656753E+0	1.695773E+0	1.665324E+0	1.676094E+0	1.684824E+0	1.629673E+0	1.641087E+0	1.681938E+0	1.625695E+0	1.666925E+0	1.684033E+0	1.715187E+0	1.633661E+0	1.662918E+0	1.640704E+0	1.702372E+0	1.649527E+0	1.610881E+0	1.706591E+0	1.677640E+0	1.701699E+0	1.647742E+0	1.607326E+0	1.667113E+0	1.660663E+0	1.617629E+0	1.638937E+0	1.680409E+0	1.669271E+0	1.657570E+0	1.613866E+0	1.664917E+0	1.665387E+0	1.621691E+0	1.682441E+0	1.713154E+0	1.634442E+0	1.739839E+0
5.355580E+2	1.484535E+0	1.445363E+0	1.441381E+0	1.469964E+0	1.442729E+0	1.469731E+0	1.464493E+0	1.490972E+0	1.438038E+0	1.419409E+0	1.505211E+0	1.499107E+0	1.445195E+0	1.460163E+0	1.458784E+0	1.450976E+0	1.501893E+0	1.412728E+0	1.453944E+0	1.490885E+0	1.406099E+0	1.494111E+0	1.409377E+0	1.496773E+0	1.385590E+0	1.448503E+0	1.455184E+0	1.446063E+0	1.452759E+0	1.441195E+0	1.408833E+0	1.431304E+0	1.484959E+0	1.529808E+0	1.441774E+0	1.407963E+0	1.446931E+0	1.463393E+0	1.424013E+0	1.454898E+0	1.452692E+0	1.440405E+0	1.428105E+0	1.420684E+0	1.419460E+0	1.441548E+0	1.409607E+0	1.425105E+0	1.450764E+0	1.415833E+0	1.444863E+0	1.414264E+0	1.399854E+0	1.474030E+0	1.439898E+0	1.429342E+0	1.377727E+0	1.520082E+0	1.463203E+0	1.385126E+0	1.505068E+0	1.392357E+0	1.466765E+0	1.381818E+0	1.393263E+0	1.427553E+0	1.388021E+0	1.442761E+0	1.391505E+0	1.440049E+0	1.413151E+0	1.434233E+0	1.466219E+0	1.495677E+0	1.402935E+0	1.441217E+0	1.485019E+0	1.452593E+0	1.488031E+0	1.445153E+0	1.440035E+0	1.358241E+0	1.444497E+0	1.441511E+0	1.447504E+0	1.429638E+0	1.462522E+0	1.435346E+0	1.447288E+0	1.430410E+0	1.449882E+0	1.431703E+0	1.422820E+0	1.429721E+0	1.452968E+0	1.412110E+0	1.440003E+0	1.466336E+0	1.451368E+0	1.404127E+0	1.428350E+0	1.438348E+0	1.445034E+0	1.449756E+0	1.424195E+0	1.403393E+0	1.423656E+0	1.424053E+0	1.428124E+0	1.430412E+0	1.420772E+0	1.388168E+0	1.443872E+0	1.409221E+0	1.438098E+0	1.450221E+0	1.414215E+0	1.404099E+0	1.383598E+0	1.442189E+0	1.356974E+0	1.397143E+0	1.383554E+0	1.436298E+0	1.405602E+0	1.377936E+0	1.411935E+0	1.448238E+0	1.463360E+0	1.405554E+0	1.466546E+0	1.453421E+0	1.511265E+0	1.383982E+0	1.451099E+0	1.464518E+0	1.420564E+0	1.512301E+0	1.421896E+0	1.460627E+0	1.402750E+0	1.417997E+0	1.430338E+0	1.428394E+0	1.494037E+0	1.431188E+0	1.383800E+0	1.405274E+0	1.477378E+0	1.447631E+0	1.422179E+0	1.446816E+0	1.474463E+0	1.464854E+0	1.380132E+0	1.384683E+0	1.436819E+0	1.464928E+0	1.421991E+0	1.365877E+0	1.413663E+0	1.419581E+0	1.334045E+0	1.378522E+0	1.404587E+0	1.419950E+0	1.437259E+0	1.449625E+0	1.428522E+0	1.382663E+0	1.377013E+0
5.357040E+2	1.314420E+0	1.279755E+0	1.264281E+0	1.230773E+0	1.306285E+0	1.297478E+0	1.237937E+0	1.171537E+0	1.203404E+0	1.212221E+0	1.285760E+0	1.255281E+0	1.295782E+0	1.238808E+0	1.245110E+0	1.272256E+0	1.302117E+0	1.255273E+0	1.229167E+0	1.269931E+0	1.257430E+0	1.287393E+0	1.203360E+0	1.263919E+0	1.192237E+0	1.234098E+0	1.208069E+0	1.218917E+0	1.240695E+0	1.200978E+0	1.239289E+0	1.267114E+0	1.235878E+0	1.290183E+0	1.237908E+0	1.251143E+0	1.227596E+0	1.295625E+0	1.236346E+0	1.238496E+0	1.314422E+0	1.217622E+0	1.284915E+0	1.245892E+0	1.205547E+0	1.262906E+0	1.236704E+0	1.241147E+0	1.245368E+0	1.272349E+0	1.272055E+0	1.235727E+0	1.214721E+0	1.292248E+0	1.188275E+0	1.264517E+0	1.246829E+0	1.252349E+0	1.292540E+0	1.205743E+0	1.265963E+0	1.256575E+0	1.171120E+0	1.234302E+0	1.271897E+0	1.242358E+0	1.218245E+0	1.246869E+0	1.247403E+0	1.259676E+0	1.270572E+0	1.220848E+0	1.241259E+0	1.264036E+0	1.187715E+0	1.251357E+0	1.259566E+0	1.275064E+0	1.215602E+0	1.206330E+0	1.219859E+0	1.223689E+0	1.264957E+0	1.221748E+0	1.242189E+0	1.288949E+0	1.312384E+0	1.228453E+0	1.229985E+0	1.223681E+0	1.260443E+0	1.241635E+0	1.220579E+0	1.242602E+0	1.274894E+0	1.224811E+0	1.220006E+0	1.218406E+0	1.244416E+0	1.195219E+0	1.211665E+0	1.207383E+0	1.237768E+0	1.236335E+0	1.231680E+0	1.219090E+0	1.272400E+0	1.250980E+0	1.231664E+0	1.269273E+0	1.286430E+0	1.237048E+0	1.251628E+0	1.215949E+0	1.275519E+0	1.226113E+0	1.231027E+0	1.234493E+0	1.237063E+0	1.212542E+0	1.248628E+0	1.242422E+0	1.182665E+0	1.206518E+0	1.245060E+0	1.213806E+0	1.196121E+0	1.188602E+0	1.240038E+0	1.260184E+0	1.257617E+0	1.252127E+0	1.255423E+0	1.276847E+0	1.242330E+0	1.293492E+0	1.240314E+0	1.254205E+0	1.246718E+0	1.250162E+0	1.224943E+0	1.237287E+0	1.235675E+0	1.246617E+0	1.289470E+0	1.226027E+0	1.243381E+0	1.197080E+0	1.320892E+0	1.239250E+0	1.212577E+0	1.271678E+0	1.254972E+0	1.248945E+0	1.210113E+0	1.212723E+0	1.240634E+0	1.192339E+0	1.209701E+0	1.240186E+0	1.205511E+0	1.305560E+0	1.187512E+0	1.164801E+0	1.299687E+0	1.275316E+0	1.194651E+0	1.238520E+0	1.189594E+0	1.254661E+0	1.187043E+0
5.358600E+2	1.103113E+0	1.055027E+0	1.046196E+0	1.063729E+0	1.057834E+0	1.097734E+0	1.042740E+0	1.106182E+0	1.053920E+0	1.063661E+0	1.045386E+0	1.092444E+0	1.094440E+0	1.049612E+0	1.065614E+0	1.064647E+0	1.065061E+0	1.065875E+0	1.022289E+0	1.079005E+0	1.035857E+0	1.108333E+0	1.073625E+0	1.080503E+0	1.034413E+0	1.051033E+0	1.065081E+0	1.032538E+0	1.038240E+0	1.048277E+0	1.051773E+0	1.043681E+0	1.064688E+0	1.121055E+0	1.011374E+0	1.108356E+0	1.080251E+0	1.090002E+0	1.043143E+0	1.054551E+0	1.098210E+0	1.068950E+0	1.062247E+0	1.054601E+0	1.103299E+0	1.047771E+0	1.078329E+0	1.062765E+0	1.043171E+0	1.053595E+0	1.118395E+0	1.062793E+0	1.098374E+0	1.096590E+0	1.060328E+0	1.101498E+0	1.042831E+0	1.090592E+0	1.056006E+0	1.063386E+0	1.083663E+0	1.058749E+0	1.005157E+0	1.018229E+0	1.086959E+0	1.058134E+0	1.033391E+0	1.089689E+0	1.055132E+0	1.071250E+0	1.060402E+0	1.053419E+0	1.063210E+0	1.028638E+0	9.989843E-1	1.016390E+0	1.099986E+0	1.097672E+0	1.023437E+0	1.054230E+0	1.074216E+0	1.019627E+0	1.066891E+0	1.071425E+0	1.104515E+0	1.059465E+0	1.037635E+0	1.091122E+0	1.011895E+0	1.054185E+0	1.055506E+0	1.109185E+0	1.034037E+0	1.085541E+0	1.071235E+0	1.020717E+0	1.052404E+0	1.068940E+0	1.092983E+0	1.066940E+0	1.042954E+0	1.033176E+0	1.051286E+0	1.054911E+0	1.058554E+0	1.063709E+0	1.062263E+0	1.029780E+0	1.028777E+0	1.067419E+0	1.065675E+0	1.007902E+0	1.057117E+0	1.037188E+0	1.066968E+0	1.063488E+0	1.088388E+0	1.088259E+0	1.049215E+0	1.053097E+0	1.039585E+0	1.065513E+0	1.067977E+0	1.046479E+0	1.091523E+0	1.028250E+0	1.085599E+0	1.092089E+0	1.061683E+0	1.123010E+0	1.084991E+0	1.096039E+0	1.093777E+0	1.062289E+0	1.075585E+0	1.078367E+0	1.006128E+0	1.083687E+0	1.066039E+0	1.101896E+0	1.078976E+0	1.070092E+0	1.057321E+0	1.050300E+0	1.051642E+0	1.081680E+0	1.059848E+0	1.012679E+0	1.074610E+0	1.058878E+0	1.066252E+0	1.054826E+0	1.031664E+0	1.062174E+0	1.028644E+0	1.049730E+0	1.070371E+0	1.054364E+0	1.077716E+0	1.008231E+0	1.032370E+0	1.083460E+0	1.090800E+0	1.056420E+0	1.065881E+0	1.058991E+0	1.039297E+0	1.072077E+0	1.036440E+0	1.136816E+0	1.096632E+0
5.360170E+2	9.385747E-1	9.079736E-1	8.510206E-1	8.790418E-1	8.666410E-1	9.543449E-1	8.452100E-1	8.973940E-1	8.729075E-1	8.837692E-1	8.910918E-1	8.775958E-1	9.367016E-1	9.258332E-1	9.058057E-1	9.216091E-1	8.770788E-1	9.158452E-1	8.395887E-1	8.836612E-1	8.932006E-1	9.212559E-1	8.667209E-1	9.015381E-1	8.908643E-1	8.995412E-1	8.682768E-1	8.970400E-1	9.062794E-1	8.659165E-1	8.645953E-1	8.964811E-1	8.843627E-1	9.372225E-1	9.102520E-1	8.978657E-1	8.634650E-1	9.061653E-1	9.092787E-1	8.519312E-1	8.705690E-1	9.006375E-1	9.072163E-1	8.698201E-1	8.902968E-1	9.184578E-1	9.422176E-1	9.276609E-1	9.313050E-1	9.082838E-1	9.457888E-1	8.805729E-1	9.196389E-1	9.013957E-1	8.905735E-1	9.010668E-1	9.188009E-1	9.515883E-1	8.798644E-1	8.990623E-1	8.874263E-1	8.824196E-1	8.711627E-1	8.776268E-1	9.150834E-1	8.934540E-1	8.700194E-1	9.189731E-1	8.677047E-1	9.330946E-1	8.833588E-1	9.344757E-1	8.954383E-1	8.726389E-1	8.369758E-1	8.758674E-1	9.429318E-1	8.488676E-1	8.666873E-1	8.829195E-1	8.790095E-1	8.967002E-1	9.103864E-1	9.108855E-1	8.766051E-1	9.131441E-1	8.990363E-1	9.092710E-1	8.859596E-1	8.825214E-1	9.554033E-1	8.939657E-1	9.040735E-1	8.886787E-1	9.055797E-1	8.980322E-1	8.713444E-1	8.684145E-1	8.840420E-1	8.972234E-1	8.640442E-1	8.638058E-1	9.253304E-1	8.939557E-1	8.529105E-1	9.063095E-1	8.763093E-1	9.180395E-1	8.715453E-1	9.010143E-1	9.138177E-1	9.108992E-1	9.227728E-1	8.762918E-1	8.653726E-1	8.864586E-1	9.208405E-1	8.792705E-1	9.065557E-1	8.671907E-1	9.131749E-1	8.901280E-1	8.609405E-1	8.529446E-1	9.206908E-1	9.254094E-1	9.232464E-1	9.050304E-1	8.981305E-1	8.829259E-1	9.637129E-1	8.950470E-1	8.881944E-1	8.721760E-1	9.211016E-1	9.077245E-1	9.112557E-1	9.004739E-1	8.976975E-1	8.969005E-1	9.176511E-1	8.833329E-1	9.022886E-1	9.281388E-1	8.843559E-1	8.811597E-1	8.643049E-1	8.551936E-1	9.381228E-1	9.029052E-1	9.380273E-1	8.806419E-1	9.084540E-1	9.200703E-1	8.628668E-1	8.887867E-1	8.769297E-1	8.876224E-1	8.913144E-1	8.989690E-1	9.085356E-1	8.803953E-1	8.987703E-1	9.110133E-1	9.115767E-1	9.401340E-1	8.907422E-1	8.941887E-1	8.952384E-1	9.210450E-1	9.551040E-1
5.362680E+2	7.339942E-1	6.567481E-1	7.020164E-1	6.883805E-1	7.294614E-1	7.323089E-1	7.159221E-1	6.896239E-1	6.983447E-1	7.094578E-1	7.767894E-1	6.669963E-1	7.188944E-1	7.051175E-1	7.128607E-1	7.125163E-1	7.269742E-1	7.513648E-1	6.867015E-1	7.055282E-1	7.102317E-1	7.283679E-1	6.924305E-1	7.013942E-1	7.251551E-1	7.181097E-1	7.069623E-1	7.504205E-1	7.196581E-1	7.206961E-1	7.230124E-1	7.236013E-1	7.174525E-1	7.583475E-1	7.441388E-1	7.218220E-1	7.242518E-1	7.233825E-1	7.331928E-1	7.196322E-1	7.545079E-1	7.040973E-1	7.201775E-1	7.149926E-1	6.943189E-1	7.113650E-1	7.224414E-1	6.889045E-1	7.410191E-1	7.169204E-1	7.044565E-1	7.292796E-1	6.849380E-1	7.195813E-1	6.710073E-1	7.232541E-1	7.302402E-1	7.219614E-1	7.164575E-1	7.185594E-1	6.903491E-1	7.173229E-1	7.077255E-1	6.829913E-1	6.631688E-1	6.989178E-1	6.778793E-1	7.204324E-1	6.963761E-1	7.162139E-1	7.203208E-1	6.667053E-1	6.896348E-1	7.322699E-1	6.389801E-1	7.144890E-1	7.290873E-1	7.253934E-1	7.061967E-1	7.316693E-1	7.105099E-1	7.071741E-1	7.105404E-1	6.768176E-1	6.788558E-1	7.119333E-1	7.161181E-1	7.665516E-1	6.919489E-1	6.938996E-1	7.452897E-1	7.065822E-1	7.056715E-1	7.463600E-1	6.857040E-1	6.769817E-1	6.782712E-1	7.119137E-1	7.364768E-1	7.242960E-1	6.948393E-1	7.244186E-1	7.203642E-1	7.051308E-1	7.561821E-1	7.242336E-1	6.920013E-1	7.155432E-1	7.127557E-1	7.140228E-1	6.888135E-1	7.539310E-1	7.033895E-1	7.055800E-1	7.170627E-1	7.077024E-1	7.082955E-1	7.229381E-1	7.194640E-1	6.910735E-1	7.257493E-1	6.840507E-1	6.482925E-1	7.173429E-1	7.210176E-1	7.202788E-1	7.225288E-1	6.783189E-1	7.183011E-1	6.911445E-1	7.064799E-1	6.867458E-1	6.883479E-1	7.052647E-1	7.240708E-1	7.104425E-1	6.637470E-1	7.416014E-1	7.234631E-1	7.182035E-1	7.040240E-1	7.341504E-1	7.036419E-1	7.116742E-1	7.086859E-1	7.219502E-1	7.292343E-1	7.075393E-1	7.593066E-1	7.418564E-1	7.117342E-1	7.328008E-1	7.004514E-1	7.323759E-1	6.966302E-1	7.199993E-1	7.405904E-1	7.086546E-1	7.017198E-1	7.049583E-1	7.061866E-1	7.286501E-1	7.404492E-1	7.126323E-1	6.814708E-1	7.369149E-1	7.157590E-1	7.425317E-1	6.428132E-1	7.237684E-1	7.679393E-1
5.365250E+2	6.275898E-1	5.471579E-1	5.576956E-1	5.629698E-1	5.421103E-1	5.607665E-1	5.516588E-1	5.663017E-1	5.596332E-1	5.722990E-1	5.793022E-1	5.557386E-1	5.772453E-1	5.751083E-1	5.866634E-1	5.685110E-1	5.551769E-1	5.455624E-1	5.457427E-1	5.466952E-1	5.675405E-1	5.694924E-1	5.438779E-1	5.515711E-1	5.636714E-1	5.582434E-1	5.799265E-1	5.615405E-1	5.732861E-1	5.848881E-1	5.626939E-1	5.771044E-1	5.287446E-1	5.964774E-1	5.869886E-1	5.726630E-1	5.548040E-1	5.787956E-1	5.438450E-1	5.605091E-1	5.389582E-1	5.858836E-1	5.580634E-1	5.242346E-1	5.618588E-1	5.852503E-1	5.747531E-1	5.675162E-1	5.929625E-1	5.721112E-1	5.729002E-1	5.607854E-1	5.636031E-1	5.572277E-1	5.568706E-1	5.815445E-1	5.546827E-1	5.582350E-1	5.906326E-1	5.324614E-1	5.742796E-1	5.316737E-1	5.826507E-1	5.723690E-1	5.483844E-1	5.800099E-1	5.459762E-1	5.636187E-1	5.533479E-1	5.638309E-1	5.569105E-1	5.983080E-1	5.692513E-1	5.912486E-1	5.396761E-1	5.139500E-1	5.229332E-1	5.727188E-1	5.770089E-1	5.739483E-1	5.387783E-1	5.835846E-1	5.438831E-1	5.786856E-1	5.702567E-1	5.850889E-1	5.845287E-1	5.726377E-1	5.680197E-1	5.375283E-1	6.045782E-1	5.610972E-1	5.499544E-1	5.735181E-1	5.792486E-1	5.638785E-1	5.514730E-1	5.313821E-1	5.651740E-1	5.768513E-1	5.895931E-1	5.754486E-1	5.576385E-1	5.658134E-1	5.492880E-1	5.608732E-1	5.632030E-1	5.796962E-1	5.943459E-1	5.589516E-1	5.623699E-1	5.428353E-1	6.022395E-1	5.817761E-1	5.951455E-1	5.611499E-1	5.702498E-1	5.787930E-1	5.509304E-1	5.668022E-1	5.652701E-1	5.549703E-1	5.628385E-1	5.777625E-1	5.944597E-1	5.851392E-1	5.838111E-1	5.908355E-1	5.851781E-1	5.542368E-1	5.770405E-1	5.614307E-1	5.933765E-1	5.718158E-1	5.784048E-1	5.933607E-1	5.563762E-1	5.897979E-1	5.703863E-1	5.774267E-1	6.014879E-1	5.581778E-1	6.124816E-1	5.724895E-1	5.891195E-1	6.036800E-1	5.557003E-1	5.413639E-1	5.726247E-1	5.741566E-1	5.950792E-1	5.669969E-1	5.513240E-1	5.833569E-1	5.489173E-1	5.578142E-1	5.681993E-1	5.754465E-1	6.073487E-1	5.852755E-1	5.398640E-1	5.715085E-1	5.569368E-1	5.466869E-1	5.909041E-1	5.684490E-1	5.665543E-1	5.807087E-1	5.809924E-1	6.003607E-1	6.287317E-1
5.367710E+2	5.143984E-1	4.935953E-1	4.938755E-1	5.031612E-1	4.841914E-1	4.918436E-1	4.574693E-1	5.049294E-1	5.353428E-1	4.758746E-1	5.182090E-1	4.975759E-1	5.220002E-1	4.968734E-1	5.009860E-1	4.811088E-1	5.026546E-1	4.987787E-1	5.180320E-1	4.808508E-1	4.553089E-1	4.811522E-1	4.929262E-1	4.855736E-1	4.938352E-1	4.854874E-1	4.891525E-1	5.145780E-1	4.918166E-1	4.856205E-1	5.136467E-1	5.282199E-1	4.956575E-1	5.018893E-1	5.006099E-1	5.054376E-1	5.214250E-1	5.090629E-1	4.949590E-1	4.933381E-1	5.086556E-1	4.927226E-1	5.079599E-1	4.985700E-1	4.928586E-1	5.092435E-1	5.283950E-1	4.939481E-1	5.305808E-1	4.931391E-1	5.117064E-1	4.824915E-1	4.946390E-1	4.966944E-1	4.920878E-1	5.200978E-1	5.114634E-1	5.269975E-1	5.083359E-1	5.192270E-1	5.113199E-1	5.169337E-1	5.059277E-1	4.962413E-1	4.962307E-1	5.099602E-1	4.831122E-1	4.811305E-1	4.850616E-1	4.964419E-1	4.813508E-1	4.948422E-1	5.046324E-1	5.155501E-1	5.067786E-1	4.983015E-1	5.111472E-1	4.941073E-1	5.061967E-1	5.104686E-1	5.134167E-1	5.113735E-1	4.952881E-1	4.961215E-1	4.977793E-1	5.182661E-1	4.698665E-1	5.175544E-1	5.245932E-1	5.074981E-1	5.054694E-1	4.874028E-1	4.763301E-1	5.366431E-1	4.933817E-1	5.005698E-1	5.075492E-1	5.044167E-1	5.205969E-1	4.853114E-1	4.934028E-1	4.807790E-1	5.154379E-1	5.028817E-1	5.315116E-1	5.114863E-1	5.157774E-1	5.161708E-1	5.176052E-1	5.191975E-1	5.097461E-1	5.029249E-1	4.870220E-1	5.119414E-1	5.084793E-1	4.876631E-1	4.811016E-1	5.025973E-1	4.811227E-1	4.838288E-1	4.912160E-1	5.059513E-1	5.154918E-1	4.963483E-1	4.803640E-1	5.043019E-1	5.119408E-1	5.172172E-1	4.805749E-1	4.980871E-1	5.142463E-1	4.958471E-1	5.123513E-1	5.251640E-1	5.034377E-1	5.076201E-1	4.832652E-1	5.312614E-1	5.045383E-1	5.120785E-1	5.071887E-1	4.915126E-1	5.152662E-1	4.995581E-1	5.106114E-1	5.428273E-1	4.836785E-1	4.784292E-1	5.232460E-1	5.035391E-1	4.954313E-1	5.094847E-1	4.939227E-1	5.515918E-1	4.927838E-1	4.877338E-1	4.860526E-1	5.091174E-1	4.901991E-1	4.714541E-1	4.715928E-1	5.095019E-1	5.249299E-1	5.247381E-1	5.222677E-1	5.195022E-1	4.860410E-1	4.952573E-1	5.297492E-1	5.391659E-1	5.239847E-1
5.370170E+2	4.757494E-1	4.490335E-1	4.671834E-1	4.824155E-1	4.649315E-1	4.915371E-1	5.067503E-1	4.950846E-1	4.594497E-1	4.612865E-1	4.751931E-1	4.755959E-1	4.894677E-1	4.928119E-1	4.912264E-1	4.811478E-1	4.624568E-1	4.816895E-1	4.392962E-1	4.717822E-1	4.686764E-1	4.653839E-1	4.794521E-1	4.927688E-1	4.846135E-1	5.189418E-1	4.689049E-1	4.808647E-1	5.060158E-1	4.925833E-1	4.861180E-1	5.178782E-1	5.102133E-1	5.319262E-1	5.060578E-1	4.922282E-1	4.930411E-1	5.100500E-1	4.720965E-1	4.828701E-1	5.017729E-1	4.853230E-1	5.010493E-1	4.641820E-1	4.994540E-1	5.029633E-1	4.965904E-1	4.919345E-1	4.826266E-1	4.850149E-1	4.883803E-1	4.879699E-1	5.208079E-1	4.693888E-1	4.585540E-1	4.728311E-1	4.747273E-1	5.050513E-1	5.066319E-1	4.916083E-1	5.400019E-1	4.695580E-1	4.510300E-1	4.845261E-1	4.630207E-1	4.715968E-1	4.777408E-1	5.118343E-1	4.939644E-1	4.982078E-1	4.914200E-1	4.695946E-1	4.879862E-1	4.820941E-1	4.794635E-1	4.836404E-1	5.096395E-1	4.707729E-1	4.862044E-1	4.914874E-1	5.194629E-1	4.659148E-1	4.679985E-1	5.048928E-1	4.985807E-1	5.081848E-1	4.813685E-1	4.706432E-1	4.834314E-1	4.944584E-1	4.812948E-1	4.782199E-1	4.777709E-1	4.838092E-1	4.492874E-1	4.802327E-1	4.877272E-1	5.069864E-1	4.810597E-1	5.228311E-1	4.905493E-1	5.131919E-1	4.940889E-1	5.018695E-1	4.756999E-1	4.995933E-1	5.059424E-1	4.985522E-1	5.046467E-1	4.820521E-1	5.142141E-1	4.831094E-1	4.941454E-1	4.735840E-1	4.731661E-1	4.853905E-1	5.028185E-1	4.885189E-1	4.474379E-1	4.713314E-1	5.098582E-1	4.923006E-1	4.759971E-1	4.531438E-1	4.850694E-1	4.902880E-1	5.054282E-1	4.878503E-1	5.072842E-1	5.092542E-1	4.845589E-1	4.801258E-1	4.944125E-1	4.670972E-1	4.799339E-1	5.238257E-1	5.043818E-1	4.865773E-1	4.831774E-1	4.597824E-1	4.686625E-1	4.601509E-1	4.774817E-1	4.834008E-1	4.648114E-1	4.940015E-1	4.907451E-1	4.831172E-1	4.826545E-1	4.990657E-1	4.916765E-1	5.033728E-1	4.920153E-1	5.226362E-1	4.503720E-1	4.890560E-1	4.911454E-1	4.956580E-1	4.799538E-1	4.847309E-1	4.669411E-1	4.903910E-1	4.827869E-1	5.031480E-1	4.436998E-1	4.927992E-1	4.971001E-1	5.251409E-1	4.919772E-1	4.804566E-1	4.717976E-1
5.372640E+2	5.364890E-1	4.972602E-1	4.862280E-1	5.094722E-1	5.155776E-1	5.237681E-1	5.389175E-1	5.189746E-1	4.922186E-1	4.886662E-1	4.839314E-1	4.933118E-1	5.167955E-1	5.079192E-1	4.772791E-1	5.206326E-1	4.972140E-1	5.340889E-1	4.790213E-1	5.110709E-1	4.888782E-1	4.887971E-1	4.548180E-1	5.265961E-1	5.381149E-1	5.282673E-1	5.205548E-1	5.115649E-1	5.027168E-1	5.232217E-1	5.015937E-1	5.010864E-1	4.978605E-1	5.246811E-1	4.919364E-1	5.328069E-1	5.155058E-1	5.457651E-1	5.199657E-1	5.020248E-1	4.915430E-1	4.859272E-1	5.519118E-1	5.037761E-1	4.835882E-1	4.960004E-1	5.250637E-1	5.116122E-1	5.216785E-1	5.045070E-1	5.256977E-1	5.020007E-1	5.398297E-1	5.392542E-1	5.140607E-1	5.210604E-1	4.694034E-1	5.138748E-1	5.326005E-1	4.938896E-1	5.106756E-1	5.134173E-1	5.098532E-1	5.209128E-1	5.046788E-1	4.839034E-1	5.196543E-1	5.484651E-1	5.132609E-1	5.282724E-1	4.825827E-1	5.371989E-1	5.279452E-1	5.221487E-1	4.975379E-1	5.209777E-1	5.391632E-1	5.018665E-1	5.091075E-1	5.207474E-1	5.055467E-1	4.951729E-1	4.844781E-1	5.026636E-1	5.118204E-1	5.024234E-1	4.922757E-1	4.972142E-1	5.088251E-1	4.935300E-1	5.195217E-1	5.606525E-1	5.031263E-1	4.851487E-1	5.048726E-1	5.352075E-1	5.189970E-1	5.044764E-1	5.332114E-1	5.182547E-1	5.195030E-1	5.136102E-1	4.958166E-1	5.455473E-1	5.073444E-1	5.363309E-1	5.466366E-1	5.162109E-1	5.394534E-1	5.179675E-1	5.363251E-1	5.186890E-1	5.170668E-1	5.313925E-1	5.307502E-1	5.524470E-1	5.192937E-1	5.332176E-1	5.277556E-1	5.031125E-1	5.147626E-1	5.146353E-1	4.534874E-1	5.042612E-1	5.171490E-1	5.430436E-1	5.563250E-1	4.931460E-1	5.294336E-1	4.998678E-1	5.307328E-1	5.117494E-1	5.250556E-1	5.091693E-1	5.319271E-1	5.231903E-1	4.978446E-1	4.669385E-1	4.934892E-1	5.432069E-1	5.125333E-1	5.568753E-1	5.143464E-1	5.407887E-1	5.033244E-1	5.159938E-1	5.062720E-1	5.275132E-1	5.338083E-1	5.081072E-1	4.813113E-1	5.240944E-1	5.197471E-1	5.333267E-1	4.806510E-1	4.915678E-1	5.214443E-1	5.120495E-1	5.303452E-1	4.862363E-1	5.118073E-1	5.474549E-1	4.847372E-1	4.459185E-1	5.404105E-1	5.224946E-1	5.180997E-1	5.222874E-1	4.780811E-1	5.663851E-1	5.525437E-1
5.375160E+2	5.774240E-1	5.567743E-1	5.667463E-1	5.592246E-1	5.978301E-1	5.776586E-1	5.967625E-1	5.857974E-1	5.522388E-1	5.513441E-1	5.618682E-1	5.523727E-1	5.851573E-1	5.812495E-1	5.643931E-1	5.812934E-1	5.871840E-1	5.584338E-1	5.613599E-1	5.761389E-1	5.653213E-1	5.848774E-1	5.867091E-1	5.864650E-1	5.908820E-1	5.951649E-1	5.729993E-1	5.805220E-1	5.678548E-1	6.032580E-1	5.910065E-1	5.749701E-1	6.105202E-1	5.657582E-1	5.853391E-1	5.526579E-1	5.823985E-1	6.040781E-1	5.748431E-1	5.870314E-1	5.822969E-1	5.614110E-1	5.410235E-1	5.921433E-1	5.911509E-1	5.769675E-1	5.685190E-1	5.781518E-1	5.964067E-1	5.668309E-1	5.988136E-1	5.780500E-1	5.904715E-1	6.012214E-1	5.883312E-1	5.843875E-1	5.945462E-1	5.972571E-1	5.449994E-1	5.851172E-1	6.139180E-1	5.751680E-1	5.867977E-1	5.993221E-1	5.561319E-1	5.877568E-1	5.454511E-1	5.782814E-1	6.039426E-1	5.842746E-1	6.006806E-1	5.810202E-1	5.964548E-1	5.442960E-1	5.669008E-1	5.711331E-1	6.321910E-1	5.701575E-1	5.729869E-1	5.384261E-1	5.697090E-1	5.365175E-1	5.837373E-1	5.984896E-1	5.708937E-1	5.763026E-1	5.872423E-1	5.615836E-1	5.953384E-1	6.045390E-1	6.001015E-1	5.611371E-1	5.884290E-1	5.768401E-1	5.766722E-1	5.744768E-1	5.806596E-1	5.541623E-1	5.851841E-1	5.376640E-1	5.553992E-1	5.920819E-1	6.035751E-1	5.822317E-1	5.554523E-1	5.476511E-1	5.757840E-1	5.766053E-1	5.786107E-1	5.767020E-1	5.783497E-1	6.000653E-1	5.699222E-1	5.610316E-1	6.052524E-1	5.806347E-1	5.921941E-1	5.619496E-1	5.608195E-1	5.629552E-1	5.851459E-1	5.503754E-1	5.690957E-1	5.743159E-1	5.741721E-1	5.849385E-1	5.842564E-1	5.820185E-1	5.941286E-1	5.640418E-1	5.678094E-1	5.551364E-1	5.740101E-1	5.791877E-1	5.843751E-1	5.737463E-1	5.947292E-1	5.489744E-1	5.845546E-1	5.723526E-1	5.903417E-1	5.964610E-1	5.566962E-1	5.864128E-1	5.807018E-1	5.990980E-1	5.689560E-1	5.853488E-1	6.079594E-1	5.890269E-1	5.929258E-1	6.039368E-1	5.751139E-1	5.970767E-1	5.877876E-1	5.639288E-1	5.719789E-1	5.495827E-1	5.676969E-1	5.700205E-1	5.965263E-1	5.768882E-1	6.161735E-1	5.845569E-1	5.832877E-1	6.062277E-1	5.860448E-1	5.886541E-1	6.160984E-1	6.213903E-1	6.128518E-1
5.377630E+2	6.977471E-1	6.523514E-1	6.745895E-1	6.302120E-1	6.710651E-1	6.688998E-1	6.823817E-1	7.133584E-1	6.776894E-1	6.781939E-1	6.788022E-1	6.631738E-1	6.704737E-1	6.995958E-1	6.786984E-1	6.810544E-1	6.696479E-1	6.642370E-1	6.740803E-1	6.918886E-1	6.871709E-1	6.819940E-1	6.794520E-1	7.115475E-1	7.093368E-1	6.935688E-1	7.124512E-1	6.745217E-1	6.813078E-1	6.755312E-1	6.892690E-1	6.882240E-1	6.813287E-1	7.224173E-1	7.077232E-1	7.063799E-1	6.993279E-1	6.850995E-1	7.155455E-1	6.605329E-1	6.972412E-1	6.681834E-1	6.738692E-1	6.287981E-1	6.978733E-1	6.643839E-1	6.742420E-1	6.731687E-1	6.611697E-1	6.736446E-1	7.299636E-1	6.711474E-1	6.683591E-1	6.810950E-1	6.878752E-1	6.824025E-1	6.766883E-1	6.879958E-1	7.053033E-1	6.389684E-1	6.985560E-1	6.738223E-1	6.587438E-1	6.810410E-1	6.772785E-1	6.904107E-1	6.907465E-1	6.953580E-1	6.964835E-1	6.878136E-1	6.942345E-1	7.240105E-1	6.836149E-1	6.660664E-1	6.431136E-1	6.933196E-1	6.691661E-1	6.954940E-1	6.642604E-1	6.783567E-1	6.623102E-1	6.724781E-1	6.721516E-1	6.966823E-1	6.839641E-1	7.134315E-1	6.992435E-1	6.725435E-1	6.946413E-1	6.599223E-1	6.681270E-1	7.034079E-1	6.675213E-1	6.775271E-1	6.812869E-1	7.028285E-1	6.932530E-1	6.677010E-1	6.779213E-1	6.750072E-1	6.940772E-1	6.468426E-1	6.623734E-1	6.705172E-1	6.360351E-1	6.700448E-1	6.487143E-1	6.825943E-1	7.094192E-1	6.739948E-1	6.804307E-1	6.827643E-1	6.643371E-1	6.758862E-1	6.703355E-1	6.854787E-1	6.814214E-1	6.795575E-1	6.758288E-1	6.831243E-1	6.914362E-1	6.769350E-1	6.871474E-1	6.794435E-1	6.693332E-1	7.002292E-1	6.573847E-1	6.408430E-1	7.215382E-1	7.034899E-1	7.038603E-1	6.859433E-1	7.379944E-1	7.025145E-1	7.037126E-1	7.031371E-1	6.706603E-1	6.647548E-1	6.656548E-1	6.187538E-1	7.073702E-1	6.539380E-1	6.760877E-1	7.058699E-1	6.892256E-1	6.724635E-1	6.835842E-1	6.928378E-1	6.993380E-1	7.158042E-1	6.923882E-1	6.931088E-1	6.885031E-1	6.917728E-1	6.582827E-1	6.631382E-1	6.785696E-1	7.084094E-1	6.871918E-1	6.481557E-1	6.830498E-1	6.929545E-1	6.699170E-1	6.990544E-1	6.950855E-1	6.784454E-1	6.677946E-1	7.261295E-1	7.144888E-1	6.605407E-1	6.580150E-1
5.380110E+2	8.116569E-1	7.815985E-1	7.552311E-1	8.030093E-1	8.063429E-1	7.799115E-1	7.971725E-1	8.241187E-1	7.774816E-1	7.854105E-1	7.788545E-1	8.021754E-1	7.917802E-1	7.770878E-1	7.960667E-1	7.860879E-1	8.143566E-1	7.527029E-1	7.584931E-1	7.761939E-1	7.700672E-1	7.573872E-1	7.793828E-1	7.912849E-1	7.805333E-1	8.159133E-1	8.217055E-1	8.095061E-1	8.204293E-1	7.705564E-1	7.658018E-1	7.812911E-1	7.759875E-1	7.622206E-1	8.620198E-1	8.183551E-1	7.689302E-1	7.822168E-1	8.205583E-1	7.734966E-1	7.720192E-1	8.163160E-1	8.074195E-1	7.999120E-1	8.075048E-1	8.247527E-1	8.191947E-1	7.721277E-1	7.887185E-1	7.989156E-1	8.268842E-1	7.962498E-1	8.045382E-1	7.786344E-1	8.210024E-1	8.107853E-1	8.110586E-1	7.990647E-1	8.022112E-1	7.988982E-1	8.373547E-1	7.981505E-1	8.069247E-1	7.948837E-1	7.985327E-1	7.751227E-1	7.832827E-1	7.791528E-1	8.245296E-1	7.956938E-1	7.765966E-1	8.231387E-1	8.374163E-1	8.010923E-1	7.796308E-1	7.856181E-1	8.081047E-1	7.829964E-1	7.915506E-1	8.263376E-1	7.424752E-1	8.101068E-1	8.055178E-1	7.812422E-1	8.199188E-1	8.206009E-1	7.938779E-1	8.006949E-1	8.022677E-1	7.775817E-1	7.580179E-1	8.029634E-1	7.612905E-1	7.983845E-1	8.102511E-1	7.749475E-1	8.129184E-1	7.923552E-1	7.950468E-1	7.584700E-1	7.902114E-1	7.822654E-1	8.211790E-1	8.418254E-1	7.703735E-1	7.832560E-1	8.072454E-1	7.842171E-1	7.638811E-1	7.954835E-1	7.875400E-1	8.161939E-1	8.144418E-1	7.932192E-1	7.690505E-1	7.814558E-1	7.830521E-1	7.922631E-1	8.319944E-1	7.982374E-1	8.051915E-1	7.260179E-1	7.597655E-1	7.904807E-1	7.837322E-1	8.002822E-1	8.057610E-1	8.120192E-1	8.293521E-1	7.475852E-1	7.846516E-1	8.075037E-1	8.147322E-1	8.067144E-1	8.328734E-1	7.993755E-1	7.853135E-1	8.269878E-1	8.340375E-1	8.202310E-1	8.090715E-1	7.796676E-1	7.802109E-1	7.908252E-1	8.060145E-1	8.160226E-1	7.738452E-1	7.896667E-1	8.437611E-1	7.935415E-1	7.929070E-1	8.148619E-1	8.304161E-1	8.109235E-1	7.887112E-1	7.357075E-1	8.056475E-1	8.000904E-1	7.970419E-1	8.134637E-1	8.329414E-1	8.189642E-1	7.779982E-1	7.887348E-1	8.090645E-1	7.659714E-1	7.583764E-1	7.917569E-1	7.587304E-1	8.177406E-1	7.312458E-1
5.382690E+2	1.005687E+0	9.757710E-1	9.700407E-1	1.012889E+0	9.786163E-1	1.000866E+0	9.746044E-1	9.813629E-1	9.527246E-1	9.694300E-1	9.891478E-1	9.717915E-1	9.634579E-1	9.775862E-1	9.859104E-1	9.909669E-1	9.956482E-1	9.428598E-1	9.301522E-1	9.942969E-1	9.394441E-1	9.988823E-1	9.613059E-1	9.963188E-1	1.030933E+0	9.934273E-1	9.810196E-1	9.685345E-1	1.034588E+0	9.960283E-1	1.006677E+0	9.980358E-1	1.000709E+0	1.007056E+0	9.805949E-1	9.833392E-1	1.009630E+0	9.839130E-1	9.275777E-1	1.013334E+0	9.865137E-1	9.545620E-1	1.009523E+0	9.481927E-1	9.692942E-1	9.657042E-1	9.907609E-1	9.759819E-1	9.794482E-1	1.001101E+0	1.057584E+0	9.978192E-1	9.687909E-1	1.026991E+0	1.029794E+0	9.536771E-1	9.838501E-1	9.759212E-1	1.000906E+0	9.532193E-1	1.024650E+0	9.778902E-1	9.669720E-1	9.995600E-1	9.466032E-1	9.540806E-1	9.940298E-1	9.940342E-1	9.812752E-1	9.945670E-1	9.949504E-1	1.008881E+0	9.791827E-1	1.026795E+0	9.636661E-1	1.006728E+0	9.693047E-1	1.006651E+0	9.707909E-1	9.796565E-1	9.686836E-1	9.769346E-1	9.798251E-1	9.709481E-1	1.014255E+0	9.630318E-1	9.930953E-1	9.820710E-1	1.002760E+0	9.688271E-1	1.015013E+0	1.001482E+0	9.481682E-1	9.753703E-1	1.028877E+0	1.006904E+0	9.533996E-1	9.669798E-1	9.476122E-1	9.710923E-1	9.834443E-1	9.817080E-1	1.006161E+0	1.008598E+0	9.822687E-1	9.913523E-1	9.557179E-1	1.012215E+0	9.790578E-1	1.045481E+0	9.579924E-1	9.833294E-1	9.821587E-1	9.531702E-1	1.031984E+0	9.777895E-1	9.772670E-1	9.250159E-1	9.986511E-1	9.747919E-1	9.201711E-1	9.389787E-1	9.702784E-1	9.226969E-1	9.838440E-1	9.483526E-1	1.034629E+0	9.828844E-1	9.979858E-1	9.601015E-1	9.595254E-1	9.491496E-1	9.965933E-1	9.783081E-1	9.754020E-1	9.765934E-1	9.701536E-1	9.873864E-1	9.831306E-1	9.760753E-1	9.771492E-1	9.453697E-1	9.644317E-1	9.482546E-1	1.024157E+0	9.768866E-1	9.681437E-1	9.543928E-1	1.049080E+0	9.788524E-1	9.565953E-1	1.008170E+0	9.870757E-1	9.833954E-1	9.882747E-1	9.515143E-1	1.027960E+0	9.999385E-1	9.794434E-1	9.198353E-1	9.386783E-1	1.001687E+0	1.008163E+0	9.531362E-1	1.037736E+0	9.887386E-1	9.730633E-1	9.917886E-1	9.804186E-1	1.046014E+0	9.898427E-1
5.385060E+2	1.270549E+0	1.187378E+0	1.230696E+0	1.195892E+0	1.258842E+0	1.215057E+0	1.108833E+0	1.222820E+0	1.194233E+0	1.200404E+0	1.223331E+0	1.168848E+0	1.209834E+0	1.201831E+0	1.195166E+0	1.215875E+0	1.243475E+0	1.178546E+0	1.210845E+0	1.178178E+0	1.207723E+0	1.183903E+0	1.176019E+0	1.221262E+0	1.199310E+0	1.228100E+0	1.207159E+0	1.244122E+0	1.249171E+0	1.190428E+0	1.255345E+0	1.278544E+0	1.207941E+0	1.274333E+0	1.192518E+0	1.235859E+0	1.229682E+0	1.235317E+0	1.168656E+0	1.199599E+0	1.231064E+0	1.230192E+0	1.244974E+0	1.231648E+0	1.220336E+0	1.185941E+0	1.212135E+0	1.179119E+0	1.227909E+0	1.233127E+0	1.253602E+0	1.191849E+0	1.231704E+0	1.211674E+0	1.194703E+0	1.236033E+0	1.226571E+0	1.255664E+0	1.184743E+0	1.206264E+0	1.291339E+0	1.213817E+0	1.179612E+0	1.268014E+0	1.199642E+0	1.216424E+0	1.193588E+0	1.196578E+0	1.262830E+0	1.222328E+0	1.174640E+0	1.264519E+0	1.246309E+0	1.215040E+0	1.208649E+0	1.162854E+0	1.221692E+0	1.178867E+0	1.184620E+0	1.179617E+0	1.218159E+0	1.144231E+0	1.210804E+0	1.223188E+0	1.224326E+0	1.213799E+0	1.194226E+0	1.194944E+0	1.190702E+0	1.190303E+0	1.242051E+0	1.192830E+0	1.202710E+0	1.192872E+0	1.240868E+0	1.177806E+0	1.168816E+0	1.199630E+0	1.200207E+0	1.242308E+0	1.229951E+0	1.216936E+0	1.247327E+0	1.165448E+0	1.208009E+0	1.167315E+0	1.194262E+0	1.218411E+0	1.219836E+0	1.223793E+0	1.203974E+0	1.260822E+0	1.195762E+0	1.197137E+0	1.174087E+0	1.201682E+0	1.184643E+0	1.239016E+0	1.219980E+0	1.156542E+0	1.189328E+0	1.170630E+0	1.172606E+0	1.178714E+0	1.192780E+0	1.170101E+0	1.216091E+0	1.230095E+0	1.236093E+0	1.145210E+0	1.227568E+0	1.215345E+0	1.164589E+0	1.184426E+0	1.197016E+0	1.227127E+0	1.233793E+0	1.241383E+0	1.220299E+0	1.190429E+0	1.222726E+0	1.199793E+0	1.227204E+0	1.237965E+0	1.155094E+0	1.223245E+0	1.190383E+0	1.182197E+0	1.242134E+0	1.188619E+0	1.202348E+0	1.223801E+0	1.147323E+0	1.207429E+0	1.224253E+0	1.160786E+0	1.231786E+0	1.184969E+0	1.208836E+0	1.199536E+0	1.190237E+0	1.243486E+0	1.175383E+0	1.143597E+0	1.192486E+0	1.174630E+0	1.166402E+0	1.199238E+0	1.192510E+0	1.176281E+0	1.280480E+0
5.387700E+2	1.560348E+0	1.492424E+0	1.468669E+0	1.497331E+0	1.480272E+0	1.477234E+0	1.373678E+0	1.509592E+0	1.431898E+0	1.476432E+0	1.497645E+0	1.505333E+0	1.446896E+0	1.417297E+0	1.515741E+0	1.533788E+0	1.444293E+0	1.451486E+0	1.375864E+0	1.472539E+0	1.451984E+0	1.432879E+0	1.449861E+0	1.467680E+0	1.507425E+0	1.505794E+0	1.489055E+0	1.516879E+0	1.477738E+0	1.470704E+0	1.484873E+0	1.494860E+0	1.493663E+0	1.523504E+0	1.483629E+0	1.527291E+0	1.505234E+0	1.481543E+0	1.479179E+0	1.549876E+0	1.520140E+0	1.474302E+0	1.500639E+0	1.483315E+0	1.539704E+0	1.478865E+0	1.531358E+0	1.461964E+0	1.500217E+0	1.477636E+0	1.461093E+0	1.514534E+0	1.485701E+0	1.483479E+0	1.443263E+0	1.455304E+0	1.441927E+0	1.484126E+0	1.460289E+0	1.434578E+0	1.476678E+0	1.452780E+0	1.443568E+0	1.463356E+0	1.433110E+0	1.465122E+0	1.424017E+0	1.451640E+0	1.474718E+0	1.487814E+0	1.451226E+0	1.442650E+0	1.456017E+0	1.480743E+0	1.426490E+0	1.445260E+0	1.490247E+0	1.502378E+0	1.460465E+0	1.498489E+0	1.474941E+0	1.477483E+0	1.413427E+0	1.417636E+0	1.471942E+0	1.469451E+0	1.445422E+0	1.459650E+0	1.430341E+0	1.456974E+0	1.490949E+0	1.459840E+0	1.455413E+0	1.410070E+0	1.463626E+0	1.474362E+0	1.468050E+0	1.470866E+0	1.421414E+0	1.509375E+0	1.500736E+0	1.457106E+0	1.488478E+0	1.475532E+0	1.428123E+0	1.442355E+0	1.385412E+0	1.475737E+0	1.472678E+0	1.463730E+0	1.440246E+0	1.424598E+0	1.468759E+0	1.450349E+0	1.443309E+0	1.469873E+0	1.484307E+0	1.461144E+0	1.460424E+0	1.507844E+0	1.465258E+0	1.451955E+0	1.433010E+0	1.469643E+0	1.489087E+0	1.454653E+0	1.525082E+0	1.456600E+0	1.455472E+0	1.437775E+0	1.436482E+0	1.476272E+0	1.547301E+0	1.453582E+0	1.464303E+0	1.513216E+0	1.421066E+0	1.405873E+0	1.510490E+0	1.474004E+0	1.462242E+0	1.399180E+0	1.448133E+0	1.446340E+0	1.480261E+0	1.477737E+0	1.455500E+0	1.411027E+0	1.496242E+0	1.433001E+0	1.456191E+0	1.427295E+0	1.425527E+0	1.491197E+0	1.421978E+0	1.412796E+0	1.495818E+0	1.448296E+0	1.406071E+0	1.459581E+0	1.400017E+0	1.403565E+0	1.453743E+0	1.429028E+0	1.446659E+0	1.462285E+0	1.428711E+0	1.441222E+0	1.478078E+0	1.499762E+0	1.451599E+0
5.390340E+2	1.794998E+0	1.725894E+0	1.655293E+0	1.664265E+0	1.681480E+0	1.738417E+0	1.650878E+0	1.762290E+0	1.661470E+0	1.715079E+0	1.744942E+0	1.676983E+0	1.751096E+0	1.676046E+0	1.764205E+0	1.755156E+0	1.698764E+0	1.675237E+0	1.701927E+0	1.723666E+0	1.687511E+0	1.668390E+0	1.621896E+0	1.740103E+0	1.647274E+0	1.659175E+0	1.660827E+0	1.702799E+0	1.735819E+0	1.626055E+0	1.673055E+0	1.712207E+0	1.694943E+0	1.746022E+0	1.692132E+0	1.738255E+0	1.700514E+0	1.682995E+0	1.678715E+0	1.685784E+0	1.710456E+0	1.653983E+0	1.702810E+0	1.722867E+0	1.693064E+0	1.787321E+0	1.718106E+0	1.652024E+0	1.715441E+0	1.728412E+0	1.766838E+0	1.688735E+0	1.696712E+0	1.651940E+0	1.698990E+0	1.686956E+0	1.664079E+0	1.706296E+0	1.693782E+0	1.657481E+0	1.717659E+0	1.687115E+0	1.640087E+0	1.668914E+0	1.671010E+0	1.681380E+0	1.657377E+0	1.708380E+0	1.722813E+0	1.721646E+0	1.696409E+0	1.656332E+0	1.641708E+0	1.661151E+0	1.678146E+0	1.668004E+0	1.701734E+0	1.716922E+0	1.679430E+0	1.680087E+0	1.668726E+0	1.631870E+0	1.647746E+0	1.658403E+0	1.704330E+0	1.658819E+0	1.599190E+0	1.633206E+0	1.691849E+0	1.670247E+0	1.690089E+0	1.696243E+0	1.631727E+0	1.694036E+0	1.670187E+0	1.639597E+0	1.689997E+0	1.624194E+0	1.685193E+0	1.645306E+0	1.680275E+0	1.636520E+0	1.661604E+0	1.656388E+0	1.669740E+0	1.628572E+0	1.636555E+0	1.703536E+0	1.637950E+0	1.611093E+0	1.620710E+0	1.699622E+0	1.685356E+0	1.654362E+0	1.688364E+0	1.707058E+0	1.637306E+0	1.658617E+0	1.608634E+0	1.687430E+0	1.683890E+0	1.651331E+0	1.629743E+0	1.687423E+0	1.692276E+0	1.674609E+0	1.739947E+0	1.685795E+0	1.681144E+0	1.646021E+0	1.735408E+0	1.688046E+0	1.696050E+0	1.671717E+0	1.652934E+0	1.697944E+0	1.622787E+0	1.646811E+0	1.661632E+0	1.618055E+0	1.650539E+0	1.604628E+0	1.720815E+0	1.635219E+0	1.745342E+0	1.677747E+0	1.649215E+0	1.634930E+0	1.696221E+0	1.631379E+0	1.665002E+0	1.637252E+0	1.678480E+0	1.673607E+0	1.632530E+0	1.632113E+0	1.687886E+0	1.628824E+0	1.646637E+0	1.607919E+0	1.702741E+0	1.674217E+0	1.656894E+0	1.637444E+0	1.627041E+0	1.676097E+0	1.653327E+0	1.667029E+0	1.619367E+0	1.754454E+0	1.642653E+0
5.392670E+2	2.018175E+0	1.890290E+0	1.818543E+0	1.908943E+0	1.903485E+0	1.925667E+0	1.857099E+0	1.970989E+0	1.878148E+0	1.885852E+0	1.892737E+0	1.892056E+0	1.890943E+0	1.874916E+0	1.872722E+0	1.885661E+0	1.871721E+0	1.909826E+0	1.819777E+0	1.931634E+0	1.921508E+0	1.937354E+0	1.818518E+0	1.932458E+0	1.885285E+0	1.861454E+0	1.840646E+0	1.917376E+0	1.911839E+0	1.886108E+0	1.897906E+0	1.889647E+0	1.845455E+0	1.905313E+0	1.870982E+0	1.844243E+0	1.913821E+0	1.923179E+0	1.844633E+0	1.854650E+0	1.845693E+0	1.856801E+0	1.877452E+0	1.889863E+0	1.879035E+0	1.876515E+0	1.861230E+0	1.826318E+0	1.909703E+0	1.808804E+0	1.922601E+0	1.892131E+0	1.860702E+0	1.930331E+0	1.840200E+0	1.878447E+0	1.830573E+0	1.990741E+0	1.868034E+0	1.829271E+0	1.898664E+0	1.867798E+0	1.852716E+0	1.859180E+0	1.871434E+0	1.844183E+0	1.868940E+0	1.904747E+0	1.952948E+0	1.828421E+0	1.913454E+0	1.871253E+0	1.853085E+0	1.873090E+0	1.775121E+0	1.853636E+0	1.916062E+0	1.906438E+0	1.820593E+0	1.812179E+0	1.848209E+0	1.809962E+0	1.880121E+0	1.840074E+0	1.907917E+0	1.848148E+0	1.826551E+0	1.899762E+0	1.878817E+0	1.879982E+0	1.876576E+0	1.885864E+0	1.847697E+0	1.856658E+0	1.811661E+0	1.845397E+0	1.876136E+0	1.857480E+0	1.909741E+0	1.897123E+0	1.820112E+0	1.809840E+0	1.780128E+0	1.922222E+0	1.859748E+0	1.784213E+0	1.867569E+0	1.847827E+0	1.824994E+0	1.836804E+0	1.831326E+0	1.904969E+0	1.804670E+0	1.877904E+0	1.832418E+0	1.886632E+0	1.853632E+0	1.809942E+0	1.853331E+0	1.871052E+0	1.856572E+0	1.764584E+0	1.801291E+0	1.836754E+0	1.829960E+0	1.806897E+0	1.832957E+0	1.865865E+0	1.840712E+0	1.782409E+0	1.876546E+0	1.821796E+0	1.854658E+0	1.813559E+0	1.870606E+0	1.892079E+0	1.787797E+0	1.806226E+0	1.790897E+0	1.827140E+0	1.839474E+0	1.827035E+0	1.854142E+0	1.892786E+0	1.853378E+0	1.860005E+0	1.776959E+0	1.797985E+0	1.864443E+0	1.779654E+0	1.811637E+0	1.764982E+0	1.739288E+0	1.855397E+0	1.787384E+0	1.849515E+0	1.837947E+0	1.816494E+0	1.826234E+0	1.788256E+0	1.795543E+0	1.815658E+0	1.788430E+0	1.848402E+0	1.797782E+0	1.809806E+0	1.776191E+0	1.923933E+0	1.716752E+0	1.833276E+0	1.856032E+0
5.395160E+2	2.141774E+0	2.025988E+0	1.964837E+0	2.068383E+0	2.073653E+0	2.043631E+0	1.968323E+0	2.025122E+0	1.996572E+0	2.062145E+0	2.027678E+0	1.996929E+0	2.063593E+0	1.997055E+0	2.023943E+0	2.053001E+0	2.086512E+0	1.974291E+0	2.024417E+0	2.049779E+0	2.044560E+0	2.051800E+0	1.969392E+0	2.049118E+0	2.018269E+0	1.982246E+0	1.998280E+0	2.048961E+0	2.048939E+0	1.999043E+0	1.999239E+0	2.063410E+0	2.019583E+0	2.131285E+0	2.013415E+0	2.010360E+0	2.097578E+0	2.055078E+0	1.997093E+0	2.076612E+0	2.079608E+0	2.013958E+0	2.021232E+0	2.035453E+0	2.024783E+0	2.010303E+0	2.065929E+0	1.949072E+0	2.016417E+0	2.028602E+0	2.039986E+0	2.017076E+0	2.029417E+0	2.033213E+0	1.982412E+0	1.988552E+0	1.971520E+0	2.046065E+0	1.995470E+0	2.003237E+0	2.018597E+0	2.089686E+0	1.963233E+0	2.022328E+0	1.918668E+0	1.994838E+0	1.918456E+0	1.971225E+0	1.994873E+0	1.932687E+0	2.060800E+0	2.011401E+0	1.982263E+0	2.035597E+0	1.936990E+0	1.930457E+0	2.079398E+0	1.969104E+0	2.005111E+0	2.016935E+0	1.960498E+0	1.964607E+0	1.975463E+0	1.916358E+0	1.923395E+0	1.973152E+0	1.920300E+0	2.014942E+0	1.988249E+0	2.016509E+0	2.007217E+0	1.946319E+0	1.966677E+0	1.994468E+0	1.996014E+0	2.005965E+0	1.944298E+0	1.976542E+0	1.980564E+0	2.031118E+0	1.993900E+0	1.935015E+0	1.935626E+0	1.980780E+0	1.947169E+0	1.969809E+0	1.988778E+0	1.976421E+0	1.979202E+0	1.976268E+0	1.936998E+0	1.946097E+0	1.953088E+0	1.991395E+0	1.959781E+0	2.034527E+0	1.984195E+0	1.953568E+0	1.935911E+0	1.996468E+0	1.964146E+0	1.936922E+0	1.858375E+0	1.916314E+0	1.958234E+0	1.917079E+0	2.026825E+0	1.962625E+0	1.962598E+0	1.976346E+0	2.017480E+0	1.963966E+0	1.962638E+0	1.939033E+0	1.947064E+0	1.979073E+0	1.948272E+0	1.982690E+0	1.921172E+0	1.999086E+0	1.982779E+0	1.978173E+0	1.945502E+0	2.009410E+0	1.891989E+0	1.997463E+0	1.961687E+0	1.925876E+0	1.980150E+0	1.976777E+0	1.937846E+0	1.950353E+0	1.988145E+0	1.955777E+0	1.913614E+0	1.868405E+0	1.985258E+0	1.991397E+0	1.950823E+0	1.911649E+0	1.974512E+0	1.934769E+0	1.971541E+0	1.917999E+0	1.881896E+0	1.982150E+0	1.906234E+0	2.060437E+0	1.985661E+0	1.921644E+0	2.099858E+0
5.397650E+2	2.154313E+0	2.054623E+0	2.006939E+0	2.104649E+0	2.118859E+0	2.059966E+0	2.031956E+0	2.124933E+0	2.137982E+0	1.994279E+0	2.061007E+0	2.088287E+0	2.141832E+0	2.026282E+0	2.084290E+0	2.094292E+0	2.060508E+0	2.028378E+0	1.995120E+0	2.071981E+0	2.061320E+0	2.027354E+0	1.995141E+0	2.074446E+0	1.990162E+0	2.009385E+0	2.054533E+0	2.088475E+0	2.029522E+0	2.074069E+0	2.025717E+0	2.069237E+0	2.090137E+0	2.137948E+0	2.013709E+0	2.069798E+0	2.053108E+0	2.102928E+0	2.038420E+0	2.019705E+0	2.031177E+0	2.018472E+0	2.032914E+0	2.044069E+0	2.012614E+0	2.017781E+0	2.070114E+0	1.985926E+0	2.109066E+0	2.053021E+0	2.057313E+0	2.008970E+0	2.009756E+0	2.046512E+0	2.060575E+0	1.987814E+0	1.961076E+0	2.064177E+0	2.048794E+0	2.003969E+0	2.027083E+0	2.059440E+0	1.969532E+0	2.016798E+0	2.008318E+0	1.986920E+0	1.906234E+0	2.029330E+0	2.063307E+0	2.068424E+0	2.038882E+0	2.055169E+0	1.988683E+0	1.988330E+0	1.948420E+0	2.034979E+0	2.048746E+0	2.072401E+0	2.043426E+0	2.021358E+0	2.003404E+0	1.985798E+0	2.050005E+0	1.943680E+0	2.018387E+0	2.023694E+0	1.976887E+0	2.055557E+0	1.976931E+0	2.037683E+0	1.998299E+0	2.017499E+0	2.072980E+0	1.982525E+0	2.035198E+0	1.984411E+0	2.066790E+0	2.029693E+0	1.984446E+0	2.050388E+0	2.002523E+0	1.947340E+0	2.011068E+0	2.011219E+0	2.032242E+0	1.988912E+0	1.951986E+0	2.047779E+0	2.037091E+0	2.028699E+0	1.966904E+0	2.013054E+0	2.041550E+0	2.005596E+0	2.035115E+0	2.058981E+0	2.030107E+0	1.937781E+0	1.964320E+0	1.990942E+0	1.979033E+0	1.962251E+0	1.961763E+0	1.986906E+0	1.954475E+0	2.036982E+0	1.985827E+0	1.997682E+0	2.050607E+0	2.008039E+0	1.997523E+0	1.925298E+0	1.994037E+0	2.000751E+0	1.941182E+0	2.065600E+0	1.998585E+0	2.013209E+0	1.975220E+0	1.983582E+0	1.991881E+0	1.983557E+0	2.039589E+0	1.993241E+0	2.000624E+0	2.005371E+0	1.907430E+0	1.964861E+0	2.016142E+0	1.965426E+0	1.943018E+0	2.016963E+0	2.037034E+0	1.952246E+0	1.950184E+0	1.953105E+0	1.976183E+0	1.979026E+0	1.931291E+0	1.905955E+0	1.946429E+0	1.982285E+0	1.975297E+0	1.967191E+0	1.981250E+0	1.972689E+0	1.910338E+0	2.052801E+0	1.890745E+0	2.037392E+0	2.020915E+0
5.400140E+2	2.076637E+0	1.989062E+0	2.000748E+0	2.025254E+0	1.953599E+0	2.011880E+0	1.977172E+0	1.974193E+0	2.069223E+0	2.000491E+0	2.042820E+0	2.004016E+0	2.037952E+0	2.000249E+0	2.067381E+0	2.050811E+0	2.058761E+0	1.995056E+0	1.989060E+0	1.967202E+0	2.056389E+0	1.971280E+0	1.950023E+0	1.959816E+0	2.005120E+0	1.965970E+0	1.981733E+0	1.968659E+0	2.028093E+0	1.975975E+0	2.025140E+0	2.023432E+0	2.031092E+0	2.038872E+0	1.985526E+0	1.984240E+0	2.006847E+0	2.034371E+0	1.999391E+0	1.961590E+0	1.975209E+0	2.001401E+0	2.008222E+0	1.985513E+0	1.996201E+0	2.027922E+0	2.007612E+0	1.952014E+0	2.042445E+0	1.972466E+0	1.980420E+0	1.949210E+0	1.968099E+0	1.971478E+0	1.943312E+0	1.928716E+0	1.936417E+0	1.996598E+0	1.989917E+0	1.954449E+0	2.005276E+0	1.882415E+0	1.979078E+0	1.951983E+0	2.012530E+0	1.897286E+0	1.881119E+0	1.992703E+0	1.972164E+0	1.952393E+0	1.933878E+0	1.993362E+0	1.967917E+0	1.994248E+0	1.894231E+0	1.955800E+0	2.012524E+0	1.984277E+0	1.928587E+0	1.919366E+0	1.888786E+0	1.895786E+0	1.996112E+0	1.965616E+0	1.917628E+0	1.957452E+0	1.949278E+0	1.896753E+0	1.923220E+0	1.922041E+0	1.928895E+0	1.954256E+0	1.932813E+0	1.894348E+0	1.982690E+0	1.963591E+0	1.951148E+0	1.941267E+0	1.954683E+0	1.996359E+0	1.919901E+0	1.939299E+0	1.955730E+0	1.980142E+0	1.908592E+0	1.949817E+0	1.908231E+0	1.949468E+0	2.008830E+0	1.916635E+0	1.936584E+0	1.960538E+0	1.955916E+0	1.913145E+0	1.976077E+0	1.940644E+0	1.963665E+0	1.941652E+0	1.901905E+0	1.875005E+0	1.938345E+0	1.922893E+0	1.889327E+0	1.927307E+0	1.927160E+0	1.936823E+0	1.976938E+0	1.963683E+0	1.967322E+0	2.001183E+0	1.925408E+0	1.989495E+0	2.035607E+0	1.933741E+0	1.920657E+0	1.939549E+0	1.914767E+0	1.980911E+0	1.859948E+0	1.918501E+0	2.030593E+0	1.926886E+0	1.916444E+0	1.944117E+0	1.947967E+0	1.959432E+0	1.861497E+0	1.845252E+0	1.946929E+0	1.915581E+0	1.881904E+0	1.969507E+0	1.960414E+0	1.904628E+0	1.949383E+0	1.918095E+0	1.955619E+0	1.907626E+0	1.943848E+0	1.926787E+0	1.896956E+0	1.884646E+0	1.898927E+0	1.908529E+0	1.979834E+0	1.901256E+0	1.826942E+0	2.005435E+0	1.902281E+0	1.800867E+0	1.841001E+0
5.402740E+2	2.005313E+0	1.990995E+0	1.905242E+0	1.979271E+0	1.974127E+0	1.952783E+0	1.837969E+0	1.945955E+0	2.011889E+0	1.929189E+0	1.942141E+0	1.952138E+0	1.976269E+0	1.911224E+0	1.925947E+0	1.966625E+0	1.954575E+0	1.904509E+0	1.873780E+0	1.928176E+0	1.911862E+0	1.932626E+0	1.885225E+0	1.960534E+0	1.950974E+0	1.887882E+0	1.918057E+0	1.857945E+0	1.906333E+0	1.900034E+0	1.916314E+0	1.894285E+0	1.942027E+0	2.023147E+0	1.883812E+0	1.903701E+0	1.893266E+0	1.949266E+0	1.911703E+0	1.894754E+0	1.940781E+0	1.908614E+0	1.939309E+0	1.895358E+0	1.874955E+0	1.887308E+0	1.952766E+0	1.842026E+0	1.897348E+0	1.963795E+0	2.006989E+0	1.894166E+0	1.939291E+0	1.858262E+0	1.856276E+0	1.902818E+0	1.885225E+0	1.951496E+0	1.874203E+0	1.842716E+0	1.934295E+0	1.917230E+0	1.894460E+0	1.873751E+0	1.868885E+0	1.911762E+0	1.868040E+0	1.865024E+0	1.889476E+0	1.897231E+0	1.926454E+0	1.878850E+0	1.928970E+0	1.828781E+0	1.853314E+0	1.829867E+0	2.013886E+0	1.926839E+0	1.891888E+0	1.927330E+0	1.899272E+0	1.866799E+0	1.932515E+0	1.855451E+0	1.870567E+0	1.928005E+0	1.837441E+0	1.891443E+0	1.860851E+0	1.857127E+0	1.911397E+0	1.858269E+0	1.908265E+0	1.879148E+0	1.978526E+0	1.864522E+0	1.921521E+0	1.905158E+0	1.838269E+0	1.898373E+0	1.848698E+0	1.892808E+0	1.900108E+0	1.902778E+0	1.889746E+0	1.856676E+0	1.828713E+0	1.854607E+0	1.886492E+0	1.901437E+0	1.869408E+0	1.896249E+0	1.854282E+0	1.916540E+0	1.846374E+0	1.894892E+0	1.854920E+0	1.861698E+0	1.794220E+0	1.845006E+0	1.848993E+0	1.862124E+0	1.869418E+0	1.893092E+0	1.878990E+0	1.876616E+0	1.895002E+0	1.880935E+0	1.889163E+0	1.893864E+0	1.951717E+0	1.937722E+0	1.911813E+0	1.835381E+0	1.853606E+0	1.900182E+0	1.844194E+0	1.894347E+0	1.856115E+0	1.870042E+0	1.924492E+0	1.829606E+0	1.882445E+0	1.904040E+0	1.874165E+0	1.835995E+0	1.830579E+0	1.799452E+0	1.853683E+0	1.853098E+0	1.825501E+0	1.866069E+0	1.869962E+0	1.847743E+0	1.834731E+0	1.885053E+0	1.839314E+0	1.889281E+0	1.830561E+0	1.808300E+0	1.869752E+0	1.807367E+0	1.808775E+0	1.818734E+0	1.855809E+0	1.880104E+0	1.848351E+0	1.821688E+0	1.851217E+0	1.821854E+0	1.752189E+0
5.405080E+2	1.916973E+0	1.835284E+0	1.875828E+0	1.889531E+0	1.839416E+0	1.915624E+0	1.802272E+0	1.884457E+0	1.836405E+0	1.853633E+0	1.867609E+0	1.807857E+0	1.961715E+0	1.825256E+0	1.887120E+0	1.865900E+0	1.898622E+0	1.888280E+0	1.846711E+0	1.866206E+0	1.858829E+0	1.861652E+0	1.820550E+0	1.837018E+0	1.865221E+0	1.855295E+0	1.825869E+0	1.864199E+0	1.850993E+0	1.891078E+0	1.846309E+0	1.893282E+0	1.863341E+0	1.931054E+0	1.852298E+0	1.828911E+0	1.866688E+0	1.917506E+0	1.823299E+0	1.791363E+0	1.815292E+0	1.828660E+0	1.851713E+0	1.888507E+0	1.867101E+0	1.886079E+0	1.908792E+0	1.865805E+0	1.902713E+0	1.873377E+0	1.870373E+0	1.881828E+0	1.912893E+0	1.822855E+0	1.811827E+0	1.841744E+0	1.820442E+0	1.971257E+0	1.830890E+0	1.824179E+0	1.914775E+0	1.845752E+0	1.775562E+0	1.807865E+0	1.804481E+0	1.817818E+0	1.772978E+0	1.771544E+0	1.824246E+0	1.870548E+0	1.880327E+0	1.776355E+0	1.861581E+0	1.829817E+0	1.789871E+0	1.834817E+0	1.903661E+0	1.870450E+0	1.827970E+0	1.864029E+0	1.831349E+0	1.768950E+0	1.865719E+0	1.789324E+0	1.811143E+0	1.781625E+0	1.822535E+0	1.836476E+0	1.868007E+0	1.861094E+0	1.835574E+0	1.833683E+0	1.847355E+0	1.784074E+0	1.835975E+0	1.838268E+0	1.835446E+0	1.852599E+0	1.822233E+0	1.806477E+0	1.812321E+0	1.811924E+0	1.853517E+0	1.819709E+0	1.839115E+0	1.792904E+0	1.872811E+0	1.796913E+0	1.850526E+0	1.796513E+0	1.822914E+0	1.827884E+0	1.778905E+0	1.801902E+0	1.788358E+0	1.854156E+0	1.769239E+0	1.765973E+0	1.767600E+0	1.857626E+0	1.826580E+0	1.786003E+0	1.768194E+0	1.837866E+0	1.815049E+0	1.791410E+0	1.836021E+0	1.816215E+0	1.821379E+0	1.811400E+0	1.873112E+0	1.785779E+0	1.841749E+0	1.765805E+0	1.808002E+0	1.911347E+0	1.776273E+0	1.860354E+0	1.714956E+0	1.832529E+0	1.806874E+0	1.778522E+0	1.794292E+0	1.858572E+0	1.835571E+0	1.850960E+0	1.772955E+0	1.757332E+0	1.886037E+0	1.805002E+0	1.759842E+0	1.823275E+0	1.815716E+0	1.813326E+0	1.770664E+0	1.769121E+0	1.864589E+0	1.773767E+0	1.797305E+0	1.712254E+0	1.791440E+0	1.780095E+0	1.790578E+0	1.806849E+0	1.827931E+0	1.850021E+0	1.789947E+0	1.863491E+0	1.832310E+0	1.725717E+0	1.882866E+0
5.407790E+2	1.897278E+0	1.775092E+0	1.770624E+0	1.789165E+0	1.775910E+0	1.761577E+0	1.786190E+0	1.849248E+0	1.829183E+0	1.756462E+0	1.804288E+0	1.755533E+0	1.811183E+0	1.744788E+0	1.809166E+0	1.846776E+0	1.852005E+0	1.748111E+0	1.740714E+0	1.810747E+0	1.832674E+0	1.815564E+0	1.729788E+0	1.783758E+0	1.755290E+0	1.784487E+0	1.776067E+0	1.713371E+0	1.779692E+0	1.746766E+0	1.780855E+0	1.806121E+0	1.810045E+0	1.756885E+0	1.799093E+0	1.817980E+0	1.822562E+0	1.751827E+0	1.732211E+0	1.775429E+0	1.787355E+0	1.757778E+0	1.817511E+0	1.760275E+0	1.749514E+0	1.772032E+0	1.819067E+0	1.765023E+0	1.792734E+0	1.789391E+0	1.745216E+0	1.753314E+0	1.777691E+0	1.782108E+0	1.776777E+0	1.744698E+0	1.829366E+0	1.887376E+0	1.775166E+0	1.772955E+0	1.862440E+0	1.726262E+0	1.727329E+0	1.762025E+0	1.768127E+0	1.762685E+0	1.697444E+0	1.713260E+0	1.793492E+0	1.801136E+0	1.747648E+0	1.754576E+0	1.788757E+0	1.782807E+0	1.731873E+0	1.741753E+0	1.825565E+0	1.760763E+0	1.755334E+0	1.787230E+0	1.694563E+0	1.735503E+0	1.715783E+0	1.701510E+0	1.746294E+0	1.754525E+0	1.734439E+0	1.767247E+0	1.744319E+0	1.802025E+0	1.861538E+0	1.783449E+0	1.748978E+0	1.761251E+0	1.838448E+0	1.781634E+0	1.784268E+0	1.731330E+0	1.743010E+0	1.702853E+0	1.772252E+0	1.786813E+0	1.755389E+0	1.742874E+0	1.748813E+0	1.808285E+0	1.770394E+0	1.681274E+0	1.755345E+0	1.733029E+0	1.720232E+0	1.756713E+0	1.731644E+0	1.693341E+0	1.699224E+0	1.758272E+0	1.827325E+0	1.702126E+0	1.720209E+0	1.755452E+0	1.727434E+0	1.736234E+0	1.697545E+0	1.740044E+0	1.714197E+0	1.763175E+0	1.799074E+0	1.731120E+0	1.737706E+0	1.735598E+0	1.740422E+0	1.749468E+0	1.801980E+0	1.720069E+0	1.788758E+0	1.730876E+0	1.746137E+0	1.756916E+0	1.808460E+0	1.756937E+0	1.695606E+0	1.669000E+0	1.703940E+0	1.764530E+0	1.724009E+0	1.763640E+0	1.676870E+0	1.666561E+0	1.800530E+0	1.697830E+0	1.685569E+0	1.732325E+0	1.797251E+0	1.724292E+0	1.688524E+0	1.708779E+0	1.765287E+0	1.715933E+0	1.689915E+0	1.633547E+0	1.786819E+0	1.711763E+0	1.653071E+0	1.704572E+0	1.710739E+0	1.772736E+0	1.661483E+0	1.748633E+0	1.736943E+0	1.687515E+0	1.739301E+0
5.410130E+2	1.862106E+0	1.715351E+0	1.790325E+0	1.693320E+0	1.751489E+0	1.773568E+0	1.728360E+0	1.765244E+0	1.761596E+0	1.800048E+0	1.765481E+0	1.784052E+0	1.781835E+0	1.715995E+0	1.810413E+0	1.737907E+0	1.762486E+0	1.728007E+0	1.746956E+0	1.744834E+0	1.753066E+0	1.740688E+0	1.704735E+0	1.734289E+0	1.741073E+0	1.736651E+0	1.718414E+0	1.709894E+0	1.758332E+0	1.759757E+0	1.713395E+0	1.746367E+0	1.783963E+0	1.765948E+0	1.726177E+0	1.798584E+0	1.798201E+0	1.791824E+0	1.692032E+0	1.696216E+0	1.760357E+0	1.766349E+0	1.790169E+0	1.678439E+0	1.680223E+0	1.777685E+0	1.741576E+0	1.720036E+0	1.786551E+0	1.766505E+0	1.790993E+0	1.739602E+0	1.764292E+0	1.680719E+0	1.712889E+0	1.689134E+0	1.663965E+0	1.774685E+0	1.744624E+0	1.726589E+0	1.771478E+0	1.743335E+0	1.677230E+0	1.689862E+0	1.728313E+0	1.748474E+0	1.682438E+0	1.662364E+0	1.738157E+0	1.774141E+0	1.736198E+0	1.709264E+0	1.766512E+0	1.702939E+0	1.681540E+0	1.699731E+0	1.773274E+0	1.695075E+0	1.789067E+0	1.671931E+0	1.702080E+0	1.677131E+0	1.766088E+0	1.685171E+0	1.729584E+0	1.724431E+0	1.711531E+0	1.713230E+0	1.768342E+0	1.707527E+0	1.690675E+0	1.727577E+0	1.629479E+0	1.729573E+0	1.782618E+0	1.645981E+0	1.758163E+0	1.714527E+0	1.715339E+0	1.687288E+0	1.707765E+0	1.682120E+0	1.741897E+0	1.727564E+0	1.715719E+0	1.693363E+0	1.690046E+0	1.708333E+0	1.755486E+0	1.689375E+0	1.749614E+0	1.733596E+0	1.770362E+0	1.718279E+0	1.668982E+0	1.731401E+0	1.743170E+0	1.640933E+0	1.619757E+0	1.664131E+0	1.709512E+0	1.649600E+0	1.684695E+0	1.615062E+0	1.719533E+0	1.653925E+0	1.802819E+0	1.720828E+0	1.740870E+0	1.693341E+0	1.820030E+0	1.751409E+0	1.760411E+0	1.711838E+0	1.656542E+0	1.710081E+0	1.696432E+0	1.749702E+0	1.709445E+0	1.666979E+0	1.729037E+0	1.650038E+0	1.717183E+0	1.714471E+0	1.715540E+0	1.701010E+0	1.698475E+0	1.645731E+0	1.750928E+0	1.650777E+0	1.639348E+0	1.676257E+0	1.720002E+0	1.750661E+0	1.725221E+0	1.668299E+0	1.706556E+0	1.687484E+0	1.685967E+0	1.666200E+0	1.723415E+0	1.644932E+0	1.700273E+0	1.633558E+0	1.735761E+0	1.715601E+0	1.671592E+0	1.696581E+0	1.713429E+0	1.670562E+0	1.746570E+0
5.412690E+2	1.740841E+0	1.625604E+0	1.603631E+0	1.654773E+0	1.662044E+0	1.686453E+0	1.626558E+0	1.674760E+0	1.672292E+0	1.630315E+0	1.676150E+0	1.666142E+0	1.674201E+0	1.698800E+0	1.666639E+0	1.647753E+0	1.643177E+0	1.660509E+0	1.651048E+0	1.643079E+0	1.646785E+0	1.705788E+0	1.605831E+0	1.642354E+0	1.547453E+0	1.608555E+0	1.603652E+0	1.627881E+0	1.647281E+0	1.611746E+0	1.612356E+0	1.672162E+0	1.616769E+0	1.672040E+0	1.651797E+0	1.610752E+0	1.667877E+0	1.667179E+0	1.636487E+0	1.597527E+0	1.692878E+0	1.670400E+0	1.662701E+0	1.680869E+0	1.622968E+0	1.643793E+0	1.656716E+0	1.639847E+0	1.659627E+0	1.664547E+0	1.603710E+0	1.558313E+0	1.627766E+0	1.614346E+0	1.624262E+0	1.600297E+0	1.606492E+0	1.576454E+0	1.619304E+0	1.537247E+0	1.719315E+0	1.592594E+0	1.658947E+0	1.560852E+0	1.630560E+0	1.610996E+0	1.548809E+0	1.652492E+0	1.663479E+0	1.616885E+0	1.586303E+0	1.597042E+0	1.590805E+0	1.638122E+0	1.627668E+0	1.609328E+0	1.646358E+0	1.650926E+0	1.623696E+0	1.646228E+0	1.610929E+0	1.612922E+0	1.601217E+0	1.603178E+0	1.600670E+0	1.600255E+0	1.586003E+0	1.586935E+0	1.702240E+0	1.655355E+0	1.630843E+0	1.588135E+0	1.585064E+0	1.645454E+0	1.582200E+0	1.605761E+0	1.617897E+0	1.631193E+0	1.617278E+0	1.613371E+0	1.665622E+0	1.615270E+0	1.655283E+0	1.608167E+0	1.607841E+0	1.672495E+0	1.584135E+0	1.624250E+0	1.626784E+0	1.603006E+0	1.557305E+0	1.627478E+0	1.633915E+0	1.553816E+0	1.596253E+0	1.592235E+0	1.635363E+0	1.628172E+0	1.570980E+0	1.552508E+0	1.634966E+0	1.552842E+0	1.560828E+0	1.527235E+0	1.620957E+0	1.617743E+0	1.624984E+0	1.596878E+0	1.621477E+0	1.608380E+0	1.620655E+0	1.568113E+0	1.677906E+0	1.596210E+0	1.613266E+0	1.548835E+0	1.603897E+0	1.610751E+0	1.652934E+0	1.610813E+0	1.597916E+0	1.590406E+0	1.577430E+0	1.606244E+0	1.609386E+0	1.629909E+0	1.556397E+0	1.547538E+0	1.626365E+0	1.562428E+0	1.553939E+0	1.574200E+0	1.622412E+0	1.576856E+0	1.605938E+0	1.568691E+0	1.639497E+0	1.632168E+0	1.544282E+0	1.559048E+0	1.568675E+0	1.638850E+0	1.535499E+0	1.579507E+0	1.579203E+0	1.593514E+0	1.561122E+0	1.595361E+0	1.598765E+0	1.645611E+0	1.819803E+0
5.415140E+2	1.635747E+0	1.500716E+0	1.452516E+0	1.525973E+0	1.469633E+0	1.546200E+0	1.464808E+0	1.523766E+0	1.513312E+0	1.512085E+0	1.474349E+0	1.534692E+0	1.492678E+0	1.546723E+0	1.531517E+0	1.566356E+0	1.512739E+0	1.524183E+0	1.457167E+0	1.504774E+0	1.513008E+0	1.493193E+0	1.480304E+0	1.516175E+0	1.449768E+0	1.504092E+0	1.482097E+0	1.450473E+0	1.498983E+0	1.481342E+0	1.470284E+0	1.460472E+0	1.513691E+0	1.520306E+0	1.513977E+0	1.495184E+0	1.515079E+0	1.508050E+0	1.473341E+0	1.481137E+0	1.462552E+0	1.447637E+0	1.538188E+0	1.436306E+0	1.517365E+0	1.480985E+0	1.544529E+0	1.426532E+0	1.486587E+0	1.500569E+0	1.518504E+0	1.450854E+0	1.534874E+0	1.481388E+0	1.466251E+0	1.433346E+0	1.495170E+0	1.522598E+0	1.532237E+0	1.500978E+0	1.523829E+0	1.476299E+0	1.442229E+0	1.404723E+0	1.445401E+0	1.462364E+0	1.423657E+0	1.457959E+0	1.480833E+0	1.479145E+0	1.493706E+0	1.514058E+0	1.538248E+0	1.461880E+0	1.416455E+0	1.419574E+0	1.532948E+0	1.485695E+0	1.510354E+0	1.457895E+0	1.431830E+0	1.464953E+0	1.475515E+0	1.465379E+0	1.482059E+0	1.459114E+0	1.436072E+0	1.461783E+0	1.479296E+0	1.516232E+0	1.472800E+0	1.502080E+0	1.455702E+0	1.484124E+0	1.471449E+0	1.486031E+0	1.526698E+0	1.459660E+0	1.464433E+0	1.457950E+0	1.518503E+0	1.459897E+0	1.429355E+0	1.419445E+0	1.462386E+0	1.437570E+0	1.473041E+0	1.461046E+0	1.491765E+0	1.520536E+0	1.516629E+0	1.493542E+0	1.547214E+0	1.473594E+0	1.474756E+0	1.513360E+0	1.495897E+0	1.427600E+0	1.486011E+0	1.425293E+0	1.464462E+0	1.491777E+0	1.448368E+0	1.514012E+0	1.489663E+0	1.497718E+0	1.505018E+0	1.462403E+0	1.522253E+0	1.484730E+0	1.460045E+0	1.464337E+0	1.529621E+0	1.434552E+0	1.430861E+0	1.466302E+0	1.383803E+0	1.463552E+0	1.461776E+0	1.473028E+0	1.508004E+0	1.391259E+0	1.463865E+0	1.483031E+0	1.517255E+0	1.442984E+0	1.438366E+0	1.451426E+0	1.486688E+0	1.479283E+0	1.465798E+0	1.476874E+0	1.462084E+0	1.492655E+0	1.494964E+0	1.457193E+0	1.523190E+0	1.404515E+0	1.506586E+0	1.432533E+0	1.468692E+0	1.447946E+0	1.482383E+0	1.475209E+0	1.493915E+0	1.466514E+0	1.416319E+0	1.487362E+0	1.492821E+0	1.481849E+0	1.489412E+0
5.417760E+2	1.406559E+0	1.278974E+0	1.293460E+0	1.312890E+0	1.297305E+0	1.297896E+0	1.308628E+0	1.335071E+0	1.259415E+0	1.334482E+0	1.312491E+0	1.257508E+0	1.303031E+0	1.331790E+0	1.363163E+0	1.315324E+0	1.311927E+0	1.324293E+0	1.300749E+0	1.296892E+0	1.345871E+0	1.308955E+0	1.284698E+0	1.319017E+0	1.292055E+0	1.271437E+0	1.271124E+0	1.252846E+0	1.352444E+0	1.303114E+0	1.283992E+0	1.351680E+0	1.306874E+0	1.352715E+0	1.313966E+0	1.297292E+0	1.314777E+0	1.315613E+0	1.300140E+0	1.307916E+0	1.290757E+0	1.284871E+0	1.335974E+0	1.325856E+0	1.276299E+0	1.336616E+0	1.295283E+0	1.270356E+0	1.322814E+0	1.319531E+0	1.349394E+0	1.313506E+0	1.341653E+0	1.308790E+0	1.314169E+0	1.298288E+0	1.258265E+0	1.336278E+0	1.304267E+0	1.297989E+0	1.302608E+0	1.305164E+0	1.275705E+0	1.313474E+0	1.323695E+0	1.276540E+0	1.286578E+0	1.298565E+0	1.290806E+0	1.291617E+0	1.294690E+0	1.308106E+0	1.312989E+0	1.331339E+0	1.269460E+0	1.247516E+0	1.364069E+0	1.314010E+0	1.272545E+0	1.329236E+0	1.283823E+0	1.326817E+0	1.316446E+0	1.285180E+0	1.328923E+0	1.280600E+0	1.300331E+0	1.261302E+0	1.294836E+0	1.336258E+0	1.306455E+0	1.336399E+0	1.321009E+0	1.314401E+0	1.306214E+0	1.301581E+0	1.276251E+0	1.357583E+0	1.329883E+0	1.270919E+0	1.302312E+0	1.340811E+0	1.281455E+0	1.311226E+0	1.307924E+0	1.330681E+0	1.324925E+0	1.283485E+0	1.381843E+0	1.280560E+0	1.276673E+0	1.273792E+0	1.278059E+0	1.306385E+0	1.310598E+0	1.320582E+0	1.282640E+0	1.312892E+0	1.258037E+0	1.244557E+0	1.345974E+0	1.253358E+0	1.269473E+0	1.277700E+0	1.289362E+0	1.290422E+0	1.339379E+0	1.323886E+0	1.309195E+0	1.290437E+0	1.303657E+0	1.274771E+0	1.330528E+0	1.319543E+0	1.327617E+0	1.254510E+0	1.307403E+0	1.281621E+0	1.367139E+0	1.247000E+0	1.311927E+0	1.254899E+0	1.317525E+0	1.280295E+0	1.344009E+0	1.280342E+0	1.250321E+0	1.255804E+0	1.330154E+0	1.279743E+0	1.308732E+0	1.276295E+0	1.329078E+0	1.316634E+0	1.269018E+0	1.329157E+0	1.334666E+0	1.333594E+0	1.296049E+0	1.282154E+0	1.269240E+0	1.341558E+0	1.258093E+0	1.266854E+0	1.274567E+0	1.307020E+0	1.276459E+0	1.363618E+0	1.302368E+0	1.273345E+0	1.224079E+0
5.420270E+2	1.169679E+0	1.067084E+0	1.118430E+0	1.081651E+0	1.140544E+0	1.112021E+0	1.134102E+0	1.113564E+0	1.112181E+0	1.126049E+0	1.093855E+0	1.105562E+0	1.120503E+0	1.109581E+0	1.147793E+0	1.134562E+0	1.125316E+0	1.120254E+0	1.111527E+0	1.110802E+0	1.171390E+0	1.148195E+0	1.081256E+0	1.096684E+0	1.113679E+0	1.127503E+0	1.109811E+0	1.085345E+0	1.110387E+0	1.114228E+0	1.094216E+0	1.127090E+0	1.129111E+0	1.205038E+0	1.106568E+0	1.155038E+0	1.115241E+0	1.161304E+0	1.072414E+0	1.071134E+0	1.105447E+0	1.107546E+0	1.128020E+0	1.141399E+0	1.137290E+0	1.093442E+0	1.129834E+0	1.102057E+0	1.145846E+0	1.124028E+0	1.139111E+0	1.055431E+0	1.128100E+0	1.131145E+0	1.121324E+0	1.104853E+0	1.100608E+0	1.154651E+0	1.143774E+0	1.105062E+0	1.136061E+0	1.118371E+0	1.107641E+0	1.125592E+0	1.046210E+0	1.115494E+0	1.072786E+0	1.122246E+0	1.132109E+0	1.120261E+0	1.156480E+0	1.086957E+0	1.138761E+0	1.140944E+0	1.120186E+0	1.110971E+0	1.155073E+0	1.151143E+0	1.115527E+0	1.113815E+0	1.080060E+0	1.064106E+0	1.144642E+0	1.132035E+0	1.102129E+0	1.128476E+0	1.118229E+0	1.087661E+0	1.139309E+0	1.097615E+0	1.111271E+0	1.111831E+0	1.065938E+0	1.116250E+0	1.058463E+0	1.136472E+0	1.116703E+0	1.114136E+0	1.126613E+0	1.092970E+0	1.174559E+0	1.138657E+0	1.091259E+0	1.062854E+0	1.109883E+0	1.118855E+0	1.178393E+0	1.097163E+0	1.109731E+0	1.121860E+0	1.123905E+0	1.150210E+0	1.132975E+0	1.157911E+0	1.096870E+0	1.080967E+0	1.155124E+0	1.094880E+0	1.085817E+0	1.138329E+0	1.131214E+0	1.102405E+0	1.069841E+0	1.117649E+0	1.110373E+0	1.105256E+0	1.136407E+0	1.103056E+0	1.144488E+0	1.189962E+0	1.098105E+0	1.101762E+0	1.127075E+0	1.122847E+0	1.103682E+0	1.156355E+0	1.104012E+0	1.119880E+0	1.152900E+0	1.116660E+0	1.130608E+0	1.077798E+0	1.152796E+0	1.080267E+0	1.073091E+0	1.139210E+0	1.143190E+0	1.111563E+0	1.163111E+0	1.112017E+0	1.073159E+0	1.104779E+0	1.189849E+0	1.126568E+0	1.122000E+0	1.102604E+0	1.131285E+0	1.088477E+0	1.137263E+0	1.122704E+0	1.101884E+0	1.121263E+0	1.162775E+0	1.068477E+0	1.112252E+0	1.110378E+0	1.093128E+0	1.114278E+0	1.087104E+0	1.125562E+0	1.176191E+0
5.422670E+2	1.028618E+0	1.004246E+0	9.758133E-1	9.818471E-1	9.937082E-1	1.025488E+0	1.011166E+0	1.025486E+0	9.838843E-1	9.784789E-1	1.000613E+0	1.033606E+0	9.557835E-1	1.055166E+0	1.040979E+0	9.812775E-1	9.863159E-1	9.912777E-1	1.007533E+0	1.030815E+0	9.892831E-1	1.038458E+0	9.586407E-1	9.552956E-1	1.027838E+0	9.924269E-1	1.034188E+0	1.004775E+0	9.801350E-1	9.771826E-1	9.978828E-1	1.036008E+0	9.722853E-1	1.010277E+0	9.799551E-1	1.029490E+0	1.019422E+0	1.085462E+0	9.889026E-1	1.035637E+0	1.002206E+0	9.661216E-1	9.953219E-1	9.925343E-1	9.892176E-1	1.008697E+0	1.045576E+0	1.006531E+0	1.018202E+0	1.052541E+0	1.032791E+0	9.846659E-1	1.029734E+0	1.029474E+0	1.016933E+0	9.783410E-1	1.006180E+0	9.775980E-1	1.032727E+0	9.357071E-1	1.016433E+0	1.037810E+0	9.827908E-1	9.881043E-1	9.939043E-1	1.001449E+0	9.762968E-1	9.987088E-1	1.000914E+0	1.016959E+0	1.015606E+0	1.053422E+0	1.020773E+0	1.007851E+0	1.004089E+0	1.011709E+0	1.033030E+0	1.058606E+0	1.040873E+0	1.000795E+0	9.486270E-1	9.670122E-1	1.016115E+0	1.005775E+0	1.010489E+0	9.737043E-1	9.627690E-1	9.810912E-1	9.979226E-1	1.031652E+0	1.035804E+0	1.024853E+0	9.917867E-1	1.022388E+0	1.021029E+0	1.044347E+0	1.007773E+0	9.982089E-1	1.020326E+0	1.011958E+0	9.604462E-1	9.672470E-1	1.021160E+0	1.012444E+0	1.010698E+0	1.033821E+0	1.048272E+0	1.010701E+0	1.010574E+0	1.008893E+0	9.856892E-1	9.696566E-1	1.020438E+0	9.996555E-1	1.008604E+0	9.703965E-1	1.006961E+0	9.763874E-1	1.039907E+0	9.725924E-1	9.802255E-1	1.012764E+0	9.668547E-1	1.001667E+0	9.598539E-1	9.763887E-1	1.045360E+0	1.004694E+0	1.022687E+0	1.008723E+0	1.036137E+0	1.037863E+0	1.046304E+0	9.738487E-1	1.001187E+0	1.004034E+0	1.011255E+0	9.561364E-1	1.036028E+0	1.028447E+0	1.006076E+0	1.007697E+0	1.023427E+0	1.002616E+0	9.834244E-1	1.007173E+0	9.774882E-1	1.021061E+0	1.021590E+0	1.015293E+0	9.905534E-1	9.737895E-1	9.822639E-1	9.854588E-1	9.808569E-1	9.767523E-1	9.870613E-1	1.021094E+0	1.020084E+0	9.904483E-1	1.024222E+0	1.006842E+0	9.802249E-1	1.015095E+0	1.037270E+0	9.792359E-1	9.580574E-1	1.010291E+0	9.569626E-1	1.009364E+0	1.016718E+0
5.425190E+2	9.341149E-1	9.192998E-1	9.262422E-1	9.688744E-1	9.337154E-1	9.447779E-1	9.233554E-1	9.216264E-1	9.347274E-1	9.174283E-1	9.083278E-1	8.946142E-1	9.171245E-1	9.967055E-1	9.638191E-1	9.249684E-1	9.274212E-1	9.413853E-1	8.791554E-1	9.411547E-1	8.874375E-1	9.142328E-1	8.617656E-1	9.093221E-1	9.411234E-1	9.585332E-1	8.913781E-1	9.502643E-1	9.436909E-1	9.388528E-1	9.212405E-1	9.262687E-1	9.258635E-1	9.896418E-1	9.422507E-1	9.790574E-1	9.460749E-1	9.833546E-1	9.356260E-1	9.308267E-1	9.221432E-1	9.342120E-1	9.474781E-1	9.172340E-1	9.409467E-1	9.444446E-1	9.239810E-1	9.089083E-1	9.308371E-1	9.138710E-1	9.383418E-1	9.299231E-1	9.115572E-1	9.507914E-1	8.584286E-1	9.149346E-1	9.298328E-1	9.604558E-1	9.217360E-1	9.003091E-1	9.559714E-1	1.004212E+0	9.039357E-1	9.245702E-1	8.989337E-1	9.395834E-1	9.346846E-1	9.411729E-1	9.521487E-1	9.538772E-1	9.665560E-1	9.604799E-1	9.589395E-1	9.625938E-1	9.519802E-1	9.316322E-1	9.702146E-1	9.589892E-1	9.256240E-1	9.797265E-1	9.175780E-1	8.982050E-1	9.026136E-1	9.300251E-1	9.779615E-1	9.053991E-1	9.363077E-1	9.404264E-1	8.950937E-1	9.361708E-1	9.130036E-1	9.420815E-1	9.437046E-1	9.478472E-1	9.451506E-1	9.296548E-1	8.836146E-1	9.528017E-1	9.550708E-1	9.865007E-1	9.262715E-1	9.203774E-1	9.003632E-1	9.602444E-1	9.512942E-1	9.371696E-1	9.684799E-1	9.703775E-1	9.221659E-1	9.155258E-1	8.963656E-1	9.506102E-1	9.141190E-1	8.966771E-1	9.398701E-1	9.547915E-1	9.411150E-1	9.133814E-1	8.824313E-1	9.570940E-1	9.653742E-1	9.119445E-1	9.424427E-1	9.394161E-1	9.895134E-1	9.493565E-1	9.465110E-1	9.577763E-1	9.170906E-1	9.604157E-1	9.379461E-1	9.343021E-1	9.399372E-1	9.163276E-1	9.338136E-1	9.670328E-1	9.087027E-1	9.647216E-1	9.061300E-1	9.993965E-1	8.974108E-1	9.388869E-1	9.329639E-1	9.542345E-1	9.335846E-1	9.617114E-1	8.920411E-1	9.136891E-1	9.815408E-1	9.324337E-1	9.267120E-1	9.561191E-1	9.242795E-1	9.635410E-1	8.863148E-1	9.160148E-1	9.262177E-1	9.322270E-1	9.326178E-1	9.097517E-1	9.145955E-1	9.416713E-1	9.271847E-1	9.193702E-1	9.013692E-1	9.470787E-1	9.358208E-1	9.813581E-1	9.268591E-1	9.344973E-1	8.859477E-1
5.427650E+2	1.025320E+0	9.562270E-1	1.005423E+0	9.352545E-1	9.998713E-1	9.645395E-1	9.421941E-1	9.506530E-1	9.775628E-1	9.989811E-1	9.646732E-1	9.267204E-1	1.001872E+0	9.685011E-1	9.990315E-1	9.847051E-1	9.384588E-1	9.706615E-1	9.313836E-1	9.820313E-1	1.007370E+0	9.742693E-1	1.000495E+0	1.001164E+0	9.627861E-1	9.270991E-1	9.852691E-1	9.965687E-1	9.832299E-1	9.838004E-1	9.988319E-1	9.851918E-1	9.411600E-1	1.005337E+0	9.633560E-1	9.937244E-1	1.027940E+0	1.003935E+0	9.994309E-1	9.314699E-1	9.727077E-1	9.679804E-1	1.018186E+0	9.728065E-1	9.668483E-1	9.819613E-1	9.711963E-1	9.762016E-1	9.433292E-1	9.181752E-1	9.730954E-1	9.618459E-1	9.756526E-1	1.025298E+0	9.625348E-1	9.913366E-1	9.849886E-1	9.801850E-1	9.704754E-1	9.425564E-1	9.915142E-1	9.647661E-1	9.474998E-1	9.544012E-1	9.587366E-1	9.301699E-1	9.571291E-1	1.010325E+0	9.566008E-1	9.976102E-1	9.806661E-1	9.947603E-1	1.007550E+0	9.194634E-1	9.165880E-1	1.019458E+0	9.950860E-1	9.845825E-1	1.008061E+0	9.838336E-1	9.695427E-1	9.653286E-1	9.916889E-1	9.583369E-1	1.005843E+0	1.018285E+0	9.685698E-1	9.751738E-1	1.005964E+0	9.702147E-1	9.877936E-1	9.567223E-1	1.016202E+0	9.848539E-1	9.538320E-1	9.736099E-1	9.992513E-1	9.965672E-1	9.453217E-1	9.679925E-1	9.872486E-1	9.585225E-1	9.713650E-1	9.888214E-1	9.531552E-1	9.474308E-1	9.288242E-1	9.376927E-1	9.564932E-1	9.756587E-1	9.540600E-1	9.572535E-1	9.562663E-1	9.669649E-1	9.667777E-1	1.022025E+0	9.821943E-1	9.545602E-1	9.864000E-1	9.792675E-1	9.498433E-1	9.460180E-1	9.298390E-1	9.325357E-1	9.584234E-1	9.805163E-1	9.966083E-1	9.618435E-1	9.282001E-1	9.602404E-1	9.720501E-1	9.851725E-1	1.006323E+0	9.824854E-1	9.848216E-1	9.976379E-1	1.011341E+0	9.957283E-1	9.450122E-1	9.915428E-1	9.450004E-1	9.348642E-1	1.009088E+0	1.009967E+0	9.904109E-1	9.706420E-1	9.556538E-1	9.172737E-1	9.832482E-1	9.872079E-1	9.487947E-1	9.857201E-1	9.526448E-1	1.008112E+0	9.862050E-1	9.628606E-1	9.917237E-1	9.444609E-1	9.730396E-1	9.905875E-1	9.627795E-1	1.014479E+0	9.518631E-1	9.924163E-1	9.756432E-1	9.877593E-1	9.862936E-1	9.926332E-1	9.224161E-1	1.048350E+0	9.919724E-1
5.430070E+2	1.106612E+0	1.049263E+0	1.118030E+0	1.086393E+0	1.099659E+0	1.081763E+0	1.079390E+0	1.082679E+0	1.050515E+0	1.132062E+0	1.031596E+0	1.073955E+0	1.085978E+0	1.116413E+0	1.044254E+0	1.098693E+0	1.142138E+0	1.080151E+0	1.116934E+0	1.112766E+0	1.103152E+0	1.103119E+0	1.048628E+0	1.083753E+0	1.083767E+0	1.133505E+0	1.112079E+0	1.092039E+0	1.127487E+0	1.128180E+0	1.107844E+0	1.111025E+0	1.089993E+0	1.151917E+0	1.106449E+0	1.086398E+0	1.082837E+0	1.088821E+0	1.118943E+0	1.069613E+0	1.092223E+0	1.066419E+0	1.099104E+0	1.079985E+0	1.081054E+0	1.123296E+0	1.132984E+0	1.076185E+0	1.065868E+0	1.106599E+0	1.123924E+0	1.106635E+0	1.125987E+0	1.105413E+0	1.074971E+0	1.116230E+0	1.074589E+0	1.163014E+0	1.091168E+0	1.034891E+0	1.149651E+0	1.096009E+0	1.091625E+0	1.065914E+0	1.091340E+0	1.102735E+0	1.083483E+0	1.081521E+0	1.062553E+0	1.103529E+0	1.092273E+0	1.099485E+0	1.126367E+0	1.069758E+0	1.058681E+0	1.078237E+0	1.129324E+0	1.075175E+0	1.101221E+0	1.071229E+0	1.060522E+0	1.062891E+0	1.078127E+0	1.106198E+0	1.067829E+0	1.095914E+0	1.112167E+0	1.054737E+0	1.105100E+0	1.110213E+0	1.095345E+0	1.084826E+0	1.092702E+0	1.069495E+0	1.121606E+0	1.146059E+0	1.084083E+0	1.093486E+0	1.076929E+0	1.064340E+0	1.067884E+0	1.072697E+0	1.096122E+0	1.095674E+0	1.059220E+0	1.129258E+0	1.113091E+0	1.105507E+0	1.080052E+0	1.066844E+0	1.053413E+0	1.076331E+0	1.078493E+0	1.075764E+0	1.065668E+0	1.077065E+0	1.107391E+0	1.100867E+0	1.068919E+0	1.096643E+0	1.102210E+0	1.053335E+0	1.030276E+0	1.059620E+0	1.074404E+0	1.113039E+0	1.102663E+0	1.102709E+0	1.113786E+0	1.027451E+0	1.083969E+0	1.116396E+0	1.134419E+0	1.066686E+0	1.121719E+0	1.106375E+0	1.083746E+0	1.107574E+0	1.109211E+0	1.090511E+0	1.082657E+0	1.053025E+0	1.104945E+0	1.087395E+0	1.051155E+0	1.054185E+0	1.093503E+0	1.079158E+0	1.091705E+0	1.112373E+0	1.097467E+0	1.093934E+0	1.093259E+0	1.059880E+0	1.093552E+0	1.038291E+0	1.085906E+0	1.075353E+0	1.077911E+0	1.049650E+0	1.079897E+0	1.084607E+0	1.103157E+0	1.043727E+0	1.087322E+0	1.082385E+0	1.033964E+0	1.083443E+0	1.088223E+0	1.055812E+0	1.069235E+0
5.432590E+2	1.314087E+0	1.225138E+0	1.201338E+0	1.204705E+0	1.230167E+0	1.228648E+0	1.207702E+0	1.241325E+0	1.235557E+0	1.252102E+0	1.268426E+0	1.207282E+0	1.188473E+0	1.266312E+0	1.305666E+0	1.239668E+0	1.222346E+0	1.225028E+0	1.202645E+0	1.265300E+0	1.244998E+0	1.275253E+0	1.181997E+0	1.208207E+0	1.222645E+0	1.266372E+0	1.268569E+0	1.263145E+0	1.239971E+0	1.266813E+0	1.251414E+0	1.271377E+0	1.291570E+0	1.342829E+0	1.267004E+0	1.251097E+0	1.243390E+0	1.281850E+0	1.271368E+0	1.217710E+0	1.242801E+0	1.291696E+0	1.226998E+0	1.285714E+0	1.220062E+0	1.294916E+0	1.251290E+0	1.250638E+0	1.278968E+0	1.255212E+0	1.245166E+0	1.187485E+0	1.227430E+0	1.241727E+0	1.202046E+0	1.209239E+0	1.236687E+0	1.252202E+0	1.250674E+0	1.209524E+0	1.268490E+0	1.283641E+0	1.268023E+0	1.225798E+0	1.259432E+0	1.272345E+0	1.187665E+0	1.215424E+0	1.223558E+0	1.226843E+0	1.267932E+0	1.266055E+0	1.244851E+0	1.223092E+0	1.244697E+0	1.273863E+0	1.276946E+0	1.279952E+0	1.233499E+0	1.243605E+0	1.170947E+0	1.253654E+0	1.248920E+0	1.267139E+0	1.232415E+0	1.232645E+0	1.195366E+0	1.203647E+0	1.270878E+0	1.280240E+0	1.230992E+0	1.240388E+0	1.225928E+0	1.249851E+0	1.233874E+0	1.241552E+0	1.195131E+0	1.226305E+0	1.200588E+0	1.235594E+0	1.247778E+0	1.223751E+0	1.294916E+0	1.195805E+0	1.196506E+0	1.245653E+0	1.267414E+0	1.250250E+0	1.204371E+0	1.286022E+0	1.221890E+0	1.208063E+0	1.253368E+0	1.263452E+0	1.227620E+0	1.262668E+0	1.204914E+0	1.207962E+0	1.183663E+0	1.225121E+0	1.219083E+0	1.252288E+0	1.211852E+0	1.168070E+0	1.229302E+0	1.249113E+0	1.244573E+0	1.266740E+0	1.227882E+0	1.249561E+0	1.254338E+0	1.218970E+0	1.258031E+0	1.230512E+0	1.201347E+0	1.250294E+0	1.200858E+0	1.266680E+0	1.248533E+0	1.250043E+0	1.231881E+0	1.185430E+0	1.217062E+0	1.252636E+0	1.254867E+0	1.265451E+0	1.261647E+0	1.181404E+0	1.275708E+0	1.192554E+0	1.228354E+0	1.242936E+0	1.239042E+0	1.274449E+0	1.226338E+0	1.205353E+0	1.192332E+0	1.281505E+0	1.256281E+0	1.231819E+0	1.225817E+0	1.238710E+0	1.213175E+0	1.219951E+0	1.222705E+0	1.270923E+0	1.224515E+0	1.204576E+0	1.211963E+0	1.273311E+0	1.219550E+0
5.435220E+2	1.488654E+0	1.378164E+0	1.404411E+0	1.399164E+0	1.449813E+0	1.424328E+0	1.427860E+0	1.431902E+0	1.360969E+0	1.383770E+0	1.442035E+0	1.401962E+0	1.467983E+0	1.387177E+0	1.408134E+0	1.398052E+0	1.422599E+0	1.491101E+0	1.420897E+0	1.404353E+0	1.440459E+0	1.455914E+0	1.390504E+0	1.422490E+0	1.379980E+0	1.424541E+0	1.494191E+0	1.443210E+0	1.423016E+0	1.369001E+0	1.422920E+0	1.455721E+0	1.396918E+0	1.484482E+0	1.397285E+0	1.407661E+0	1.432452E+0	1.423064E+0	1.415398E+0	1.402869E+0	1.411443E+0	1.424596E+0	1.397414E+0	1.405468E+0	1.415054E+0	1.429367E+0	1.458975E+0	1.388742E+0	1.384441E+0	1.453327E+0	1.438266E+0	1.443316E+0	1.452814E+0	1.431480E+0	1.429258E+0	1.405776E+0	1.382685E+0	1.410091E+0	1.354445E+0	1.371353E+0	1.439766E+0	1.452052E+0	1.387924E+0	1.397127E+0	1.409312E+0	1.366376E+0	1.391015E+0	1.457304E+0	1.375067E+0	1.428144E+0	1.416867E+0	1.371301E+0	1.419733E+0	1.390023E+0	1.410823E+0	1.398161E+0	1.410531E+0	1.369714E+0	1.341081E+0	1.402924E+0	1.386791E+0	1.345969E+0	1.448591E+0	1.399000E+0	1.406257E+0	1.411401E+0	1.352353E+0	1.373246E+0	1.422728E+0	1.423417E+0	1.429023E+0	1.390558E+0	1.360565E+0	1.422942E+0	1.399751E+0	1.356551E+0	1.369312E+0	1.425988E+0	1.414845E+0	1.348838E+0	1.334973E+0	1.362830E+0	1.384133E+0	1.418938E+0	1.364456E+0	1.400375E+0	1.404648E+0	1.393872E+0	1.383295E+0	1.434409E+0	1.355347E+0	1.419466E+0	1.396274E+0	1.406609E+0	1.426094E+0	1.427583E+0	1.340595E+0	1.415480E+0	1.373031E+0	1.323814E+0	1.417905E+0	1.380859E+0	1.418980E+0	1.397353E+0	1.440266E+0	1.411727E+0	1.429438E+0	1.449076E+0	1.489662E+0	1.413484E+0	1.406912E+0	1.411012E+0	1.446971E+0	1.434071E+0	1.387796E+0	1.375731E+0	1.417871E+0	1.415978E+0	1.432881E+0	1.380040E+0	1.368500E+0	1.362066E+0	1.430212E+0	1.388753E+0	1.379000E+0	1.478900E+0	1.413662E+0	1.343824E+0	1.437971E+0	1.397797E+0	1.327395E+0	1.361783E+0	1.387348E+0	1.398934E+0	1.404370E+0	1.355587E+0	1.393572E+0	1.421152E+0	1.393088E+0	1.374322E+0	1.386767E+0	1.431805E+0	1.370262E+0	1.356538E+0	1.405456E+0	1.421415E+0	1.357875E+0	1.422040E+0	1.443363E+0	1.448762E+0	1.392958E+0
5.437640E+2	1.548148E+0	1.495455E+0	1.510139E+0	1.488555E+0	1.517813E+0	1.468799E+0	1.510058E+0	1.527244E+0	1.516136E+0	1.516558E+0	1.484826E+0	1.517298E+0	1.481328E+0	1.505494E+0	1.555810E+0	1.541659E+0	1.552657E+0	1.431415E+0	1.504901E+0	1.520005E+0	1.519839E+0	1.526531E+0	1.482136E+0	1.494497E+0	1.536136E+0	1.493162E+0	1.522535E+0	1.520787E+0	1.472607E+0	1.475106E+0	1.516658E+0	1.534253E+0	1.544094E+0	1.543283E+0	1.476455E+0	1.546458E+0	1.464853E+0	1.514061E+0	1.444930E+0	1.512294E+0	1.564759E+0	1.521828E+0	1.552000E+0	1.523209E+0	1.493363E+0	1.493442E+0	1.518663E+0	1.495104E+0	1.523334E+0	1.523264E+0	1.505168E+0	1.505157E+0	1.522517E+0	1.524752E+0	1.498667E+0	1.482673E+0	1.507185E+0	1.493775E+0	1.522419E+0	1.448888E+0	1.548102E+0	1.470338E+0	1.504100E+0	1.469185E+0	1.448422E+0	1.510620E+0	1.480758E+0	1.556036E+0	1.504563E+0	1.494563E+0	1.493828E+0	1.505709E+0	1.536942E+0	1.502076E+0	1.395119E+0	1.482061E+0	1.550577E+0	1.540957E+0	1.500472E+0	1.539988E+0	1.447061E+0	1.446904E+0	1.498359E+0	1.501580E+0	1.496182E+0	1.494858E+0	1.492908E+0	1.489562E+0	1.523796E+0	1.462219E+0	1.516733E+0	1.518386E+0	1.507535E+0	1.513143E+0	1.544351E+0	1.503877E+0	1.543165E+0	1.458799E+0	1.526165E+0	1.502075E+0	1.433972E+0	1.433127E+0	1.499772E+0	1.459432E+0	1.444686E+0	1.502114E+0	1.562195E+0	1.540270E+0	1.521643E+0	1.515618E+0	1.484366E+0	1.493219E+0	1.453076E+0	1.465968E+0	1.463429E+0	1.506594E+0	1.483641E+0	1.453561E+0	1.460056E+0	1.444770E+0	1.497874E+0	1.450917E+0	1.422232E+0	1.442681E+0	1.442929E+0	1.469073E+0	1.518205E+0	1.520884E+0	1.475069E+0	1.489513E+0	1.540379E+0	1.467441E+0	1.516093E+0	1.520071E+0	1.479636E+0	1.499929E+0	1.501714E+0	1.458321E+0	1.459301E+0	1.494039E+0	1.502432E+0	1.495018E+0	1.499322E+0	1.455392E+0	1.453844E+0	1.491717E+0	1.439377E+0	1.432490E+0	1.502007E+0	1.439876E+0	1.488230E+0	1.468696E+0	1.551766E+0	1.442282E+0	1.406987E+0	1.491047E+0	1.458817E+0	1.522601E+0	1.480368E+0	1.492386E+0	1.437309E+0	1.501188E+0	1.491968E+0	1.449225E+0	1.512975E+0	1.497055E+0	1.515250E+0	1.490340E+0	1.464997E+0	1.505088E+0	1.497793E+0
5.440120E+2	1.653254E+0	1.578388E+0	1.526003E+0	1.590474E+0	1.596396E+0	1.613456E+0	1.595355E+0	1.597654E+0	1.630196E+0	1.591270E+0	1.603551E+0	1.553256E+0	1.597124E+0	1.582965E+0	1.659544E+0	1.641826E+0	1.537716E+0	1.528765E+0	1.638405E+0	1.578408E+0	1.568645E+0	1.619103E+0	1.579401E+0	1.568205E+0	1.547647E+0	1.560181E+0	1.593303E+0	1.580878E+0	1.562821E+0	1.571324E+0	1.594492E+0	1.651642E+0	1.607906E+0	1.673021E+0	1.598133E+0	1.621760E+0	1.664322E+0	1.544192E+0	1.557740E+0	1.512165E+0	1.574870E+0	1.534793E+0	1.601719E+0	1.563012E+0	1.549466E+0	1.570253E+0	1.620219E+0	1.542912E+0	1.560035E+0	1.598280E+0	1.657803E+0	1.618090E+0	1.612404E+0	1.619862E+0	1.553887E+0	1.623805E+0	1.569080E+0	1.626775E+0	1.602352E+0	1.515267E+0	1.586276E+0	1.566078E+0	1.574026E+0	1.574211E+0	1.541911E+0	1.592766E+0	1.517568E+0	1.572889E+0	1.617827E+0	1.562907E+0	1.582191E+0	1.545144E+0	1.611897E+0	1.575508E+0	1.534322E+0	1.562376E+0	1.604105E+0	1.551188E+0	1.590638E+0	1.584855E+0	1.577450E+0	1.543788E+0	1.525625E+0	1.593543E+0	1.558115E+0	1.543831E+0	1.519139E+0	1.563494E+0	1.590426E+0	1.532497E+0	1.571672E+0	1.537070E+0	1.522265E+0	1.564723E+0	1.590382E+0	1.608887E+0	1.536452E+0	1.592439E+0	1.588463E+0	1.606087E+0	1.586882E+0	1.517371E+0	1.542500E+0	1.517638E+0	1.529284E+0	1.538107E+0	1.551263E+0	1.563725E+0	1.539787E+0	1.577740E+0	1.595381E+0	1.565058E+0	1.561154E+0	1.593534E+0	1.568902E+0	1.553741E+0	1.601561E+0	1.500276E+0	1.502189E+0	1.542712E+0	1.510538E+0	1.522571E+0	1.528862E+0	1.539718E+0	1.516726E+0	1.517496E+0	1.629666E+0	1.580546E+0	1.566121E+0	1.550053E+0	1.598551E+0	1.544326E+0	1.576655E+0	1.512400E+0	1.574838E+0	1.546870E+0	1.495414E+0	1.579276E+0	1.529870E+0	1.576680E+0	1.592170E+0	1.597389E+0	1.523528E+0	1.603084E+0	1.571637E+0	1.513281E+0	1.493110E+0	1.550948E+0	1.593952E+0	1.606965E+0	1.533923E+0	1.523084E+0	1.514673E+0	1.589230E+0	1.600901E+0	1.541982E+0	1.592147E+0	1.550368E+0	1.546933E+0	1.506953E+0	1.516153E+0	1.559426E+0	1.585547E+0	1.498338E+0	1.552299E+0	1.517941E+0	1.586201E+0	1.575657E+0	1.567631E+0	1.513776E+0	1.606558E+0
5.442590E+2	1.690910E+0	1.617885E+0	1.622904E+0	1.577850E+0	1.662729E+0	1.614352E+0	1.558002E+0	1.551981E+0	1.675756E+0	1.557956E+0	1.618311E+0	1.598128E+0	1.675104E+0	1.569627E+0	1.649789E+0	1.630159E+0	1.612242E+0	1.602549E+0	1.619937E+0	1.604554E+0	1.581746E+0	1.700063E+0	1.556884E+0	1.608547E+0	1.525522E+0	1.513597E+0	1.552688E+0	1.596520E+0	1.614010E+0	1.529053E+0	1.590649E+0	1.600821E+0	1.587936E+0	1.667280E+0	1.586805E+0	1.628380E+0	1.579074E+0	1.617963E+0	1.563136E+0	1.585577E+0	1.600898E+0	1.587311E+0	1.636566E+0	1.601982E+0	1.552806E+0	1.576684E+0	1.570694E+0	1.536959E+0	1.587555E+0	1.649407E+0	1.577031E+0	1.570303E+0	1.575786E+0	1.561754E+0	1.625904E+0	1.574711E+0	1.567059E+0	1.625444E+0	1.543569E+0	1.510124E+0	1.606156E+0	1.524054E+0	1.518848E+0	1.547985E+0	1.550171E+0	1.577048E+0	1.575792E+0	1.584247E+0	1.616526E+0	1.600254E+0	1.598870E+0	1.610179E+0	1.618264E+0	1.556644E+0	1.537928E+0	1.550215E+0	1.605373E+0	1.580116E+0	1.574102E+0	1.520136E+0	1.539446E+0	1.533263E+0	1.568305E+0	1.620554E+0	1.629367E+0	1.580970E+0	1.574901E+0	1.573326E+0	1.585775E+0	1.600530E+0	1.593803E+0	1.598796E+0	1.605513E+0	1.555879E+0	1.623689E+0	1.575360E+0	1.504317E+0	1.570867E+0	1.513284E+0	1.636680E+0	1.546782E+0	1.535247E+0	1.556948E+0	1.565705E+0	1.589119E+0	1.584545E+0	1.580991E+0	1.569014E+0	1.621270E+0	1.516716E+0	1.623995E+0	1.583981E+0	1.561763E+0	1.573690E+0	1.573687E+0	1.568366E+0	1.530126E+0	1.548366E+0	1.564753E+0	1.525686E+0	1.585881E+0	1.500672E+0	1.560573E+0	1.507298E+0	1.513907E+0	1.555571E+0	1.650864E+0	1.566439E+0	1.524331E+0	1.595917E+0	1.586879E+0	1.590759E+0	1.592550E+0	1.530645E+0	1.553864E+0	1.574342E+0	1.539513E+0	1.544645E+0	1.561633E+0	1.534723E+0	1.535998E+0	1.553678E+0	1.594265E+0	1.543288E+0	1.546750E+0	1.580541E+0	1.517022E+0	1.576559E+0	1.638074E+0	1.544171E+0	1.617479E+0	1.566409E+0	1.562770E+0	1.526653E+0	1.548307E+0	1.563992E+0	1.571129E+0	1.557763E+0	1.584739E+0	1.573031E+0	1.528537E+0	1.521908E+0	1.555180E+0	1.584966E+0	1.535096E+0	1.542073E+0	1.517718E+0	1.553363E+0	1.544339E+0	1.591145E+0	1.601291E+0
5.445450E+2	1.605336E+0	1.562678E+0	1.537415E+0	1.599752E+0	1.503424E+0	1.564553E+0	1.561411E+0	1.557997E+0	1.569571E+0	1.514089E+0	1.529153E+0	1.539557E+0	1.560980E+0	1.581568E+0	1.577322E+0	1.561410E+0	1.551787E+0	1.540426E+0	1.531475E+0	1.534200E+0	1.606748E+0	1.565745E+0	1.528726E+0	1.562432E+0	1.489441E+0	1.474371E+0	1.592256E+0	1.606343E+0	1.504770E+0	1.492320E+0	1.536465E+0	1.567085E+0	1.509567E+0	1.627285E+0	1.568254E+0	1.604126E+0	1.569922E+0	1.563806E+0	1.543506E+0	1.520182E+0	1.562738E+0	1.560633E+0	1.515495E+0	1.571914E+0	1.542626E+0	1.590105E+0	1.537996E+0	1.461222E+0	1.588909E+0	1.518493E+0	1.564482E+0	1.512445E+0	1.566700E+0	1.529173E+0	1.542929E+0	1.512259E+0	1.544261E+0	1.517018E+0	1.550490E+0	1.545612E+0	1.531288E+0	1.561259E+0	1.540748E+0	1.496796E+0	1.501478E+0	1.499529E+0	1.463835E+0	1.525803E+0	1.560554E+0	1.544494E+0	1.566674E+0	1.578931E+0	1.525230E+0	1.490507E+0	1.542670E+0	1.503833E+0	1.539807E+0	1.533619E+0	1.550201E+0	1.531197E+0	1.529645E+0	1.503988E+0	1.547060E+0	1.538743E+0	1.565706E+0	1.517888E+0	1.499316E+0	1.482815E+0	1.474825E+0	1.573436E+0	1.549602E+0	1.553181E+0	1.480008E+0	1.568211E+0	1.564808E+0	1.529843E+0	1.557546E+0	1.495755E+0	1.511067E+0	1.529831E+0	1.548828E+0	1.490993E+0	1.535319E+0	1.514035E+0	1.521245E+0	1.501048E+0	1.492978E+0	1.441980E+0	1.435933E+0	1.495097E+0	1.565365E+0	1.524917E+0	1.501557E+0	1.511333E+0	1.522930E+0	1.561997E+0	1.494028E+0	1.486647E+0	1.503827E+0	1.503417E+0	1.527944E+0	1.543892E+0	1.490566E+0	1.490466E+0	1.514323E+0	1.530379E+0	1.537116E+0	1.563919E+0	1.522270E+0	1.560479E+0	1.587373E+0	1.538348E+0	1.535479E+0	1.572477E+0	1.546440E+0	1.588720E+0	1.465739E+0	1.492160E+0	1.554028E+0	1.550940E+0	1.527575E+0	1.498063E+0	1.547644E+0	1.535756E+0	1.540915E+0	1.535565E+0	1.536692E+0	1.480678E+0	1.591954E+0	1.514858E+0	1.506463E+0	1.520845E+0	1.532813E+0	1.559848E+0	1.496415E+0	1.455423E+0	1.529346E+0	1.488263E+0	1.529261E+0	1.489344E+0	1.535249E+0	1.544688E+0	1.470824E+0	1.545129E+0	1.486339E+0	1.515323E+0	1.492116E+0	1.518465E+0	1.475789E+0	1.522128E+0	1.552645E+0
5.447660E+2	1.543473E+0	1.494606E+0	1.512979E+0	1.523891E+0	1.516647E+0	1.524202E+0	1.512609E+0	1.475438E+0	1.484234E+0	1.468123E+0	1.483544E+0	1.427077E+0	1.471452E+0	1.496223E+0	1.499196E+0	1.543269E+0	1.500639E+0	1.438085E+0	1.424114E+0	1.480363E+0	1.513106E+0	1.496721E+0	1.478894E+0	1.471781E+0	1.443448E+0	1.458540E+0	1.446258E+0	1.493502E+0	1.496314E+0	1.415859E+0	1.510405E+0	1.511955E+0	1.491255E+0	1.498200E+0	1.446954E+0	1.466123E+0	1.514522E+0	1.461947E+0	1.483645E+0	1.483847E+0	1.467848E+0	1.456807E+0	1.460116E+0	1.484894E+0	1.476140E+0	1.499784E+0	1.476446E+0	1.445354E+0	1.435622E+0	1.460388E+0	1.576638E+0	1.450215E+0	1.487538E+0	1.475817E+0	1.499107E+0	1.504769E+0	1.412221E+0	1.513104E+0	1.489154E+0	1.454171E+0	1.500297E+0	1.465854E+0	1.455233E+0	1.462217E+0	1.414796E+0	1.412728E+0	1.447325E+0	1.489671E+0	1.480877E+0	1.478921E+0	1.470163E+0	1.478839E+0	1.449712E+0	1.439831E+0	1.437192E+0	1.445133E+0	1.525238E+0	1.494313E+0	1.421572E+0	1.480184E+0	1.482710E+0	1.415501E+0	1.421656E+0	1.449010E+0	1.536887E+0	1.466445E+0	1.436575E+0	1.437009E+0	1.453193E+0	1.498006E+0	1.439665E+0	1.558918E+0	1.433485E+0	1.470216E+0	1.503665E+0	1.489701E+0	1.460260E+0	1.505456E+0	1.478314E+0	1.483957E+0	1.474121E+0	1.404423E+0	1.477872E+0	1.472335E+0	1.485125E+0	1.438034E+0	1.476106E+0	1.483719E+0	1.469286E+0	1.468168E+0	1.453052E+0	1.518251E+0	1.425603E+0	1.463716E+0	1.471653E+0	1.509864E+0	1.465604E+0	1.481366E+0	1.440148E+0	1.479784E+0	1.447263E+0	1.417105E+0	1.407332E+0	1.431420E+0	1.407499E+0	1.484878E+0	1.525772E+0	1.443657E+0	1.481552E+0	1.442497E+0	1.567067E+0	1.444474E+0	1.550298E+0	1.451801E+0	1.435316E+0	1.438735E+0	1.446916E+0	1.431307E+0	1.387827E+0	1.493054E+0	1.438339E+0	1.443226E+0	1.483701E+0	1.467745E+0	1.451484E+0	1.502264E+0	1.411927E+0	1.406784E+0	1.530635E+0	1.479863E+0	1.459970E+0	1.448239E+0	1.441752E+0	1.460200E+0	1.460150E+0	1.446056E+0	1.442135E+0	1.444892E+0	1.502464E+0	1.441531E+0	1.457126E+0	1.530276E+0	1.466426E+0	1.426814E+0	1.476203E+0	1.493310E+0	1.425016E+0	1.416610E+0	1.419972E+0	1.414235E+0	1.497463E+0
5.450200E+2	1.522082E+0	1.415885E+0	1.340989E+0	1.434597E+0	1.431727E+0	1.435487E+0	1.395347E+0	1.427105E+0	1.393332E+0	1.375138E+0	1.393128E+0	1.371064E+0	1.418618E+0	1.427762E+0	1.387628E+0	1.399636E+0	1.413607E+0	1.358183E+0	1.392686E+0	1.438250E+0	1.411685E+0	1.367006E+0	1.354964E+0	1.384780E+0	1.383341E+0	1.345918E+0	1.371796E+0	1.366908E+0	1.365683E+0	1.369057E+0	1.425288E+0	1.378285E+0	1.414512E+0	1.420802E+0	1.367176E+0	1.382872E+0	1.438925E+0	1.401015E+0	1.372415E+0	1.338329E+0	1.442113E+0	1.390137E+0	1.442345E+0	1.389522E+0	1.370354E+0	1.407627E+0	1.441426E+0	1.365193E+0	1.361230E+0	1.372390E+0	1.397989E+0	1.372004E+0	1.385099E+0	1.383295E+0	1.390660E+0	1.373369E+0	1.400843E+0	1.353097E+0	1.479872E+0	1.378276E+0	1.450633E+0	1.339650E+0	1.408854E+0	1.345363E+0	1.334714E+0	1.339575E+0	1.311888E+0	1.378138E+0	1.351719E+0	1.378061E+0	1.346897E+0	1.410055E+0	1.405932E+0	1.369293E+0	1.335710E+0	1.423499E+0	1.401273E+0	1.376558E+0	1.421426E+0	1.415663E+0	1.346677E+0	1.319548E+0	1.361456E+0	1.374980E+0	1.388833E+0	1.397822E+0	1.357395E+0	1.379984E+0	1.400870E+0	1.370294E+0	1.423758E+0	1.425968E+0	1.364458E+0	1.368854E+0	1.442966E+0	1.360490E+0	1.390135E+0	1.401678E+0	1.411427E+0	1.344831E+0	1.408951E+0	1.395343E+0	1.382929E+0	1.363495E+0	1.427660E+0	1.347542E+0	1.342299E+0	1.452492E+0	1.375212E+0	1.409199E+0	1.333488E+0	1.392677E+0	1.368056E+0	1.372721E+0	1.398711E+0	1.372874E+0	1.386763E+0	1.379757E+0	1.361505E+0	1.373867E+0	1.358768E+0	1.313671E+0	1.319583E+0	1.343966E+0	1.389626E+0	1.410044E+0	1.367649E+0	1.382876E+0	1.376554E+0	1.420301E+0	1.405587E+0	1.437667E+0	1.362798E+0	1.391553E+0	1.382214E+0	1.372770E+0	1.317102E+0	1.373826E+0	1.424644E+0	1.320227E+0	1.355539E+0	1.412511E+0	1.421201E+0	1.372987E+0	1.339307E+0	1.398795E+0	1.385429E+0	1.325347E+0	1.406465E+0	1.388194E+0	1.346661E+0	1.327628E+0	1.363525E+0	1.377253E+0	1.383520E+0	1.343827E+0	1.342418E+0	1.334627E+0	1.361791E+0	1.384176E+0	1.366952E+0	1.320068E+0	1.333866E+0	1.365681E+0	1.393592E+0	1.405784E+0	1.334097E+0	1.386167E+0	1.337903E+0	1.290812E+0	1.507747E+0
5.452740E+2	1.406239E+0	1.321427E+0	1.332346E+0	1.338433E+0	1.338820E+0	1.335552E+0	1.320434E+0	1.356518E+0	1.360251E+0	1.301400E+0	1.337547E+0	1.321770E+0	1.314781E+0	1.335065E+0	1.346265E+0	1.331753E+0	1.364264E+0	1.309134E+0	1.288037E+0	1.367750E+0	1.311324E+0	1.326700E+0	1.295792E+0	1.333381E+0	1.291479E+0	1.280287E+0	1.246439E+0	1.363858E+0	1.339396E+0	1.306580E+0	1.326882E+0	1.311006E+0	1.319161E+0	1.355721E+0	1.314489E+0	1.363237E+0	1.362291E+0	1.390117E+0	1.323428E+0	1.274884E+0	1.295802E+0	1.326406E+0	1.343444E+0	1.258589E+0	1.316991E+0	1.334118E+0	1.339648E+0	1.288363E+0	1.285560E+0	1.320314E+0	1.304159E+0	1.265728E+0	1.298427E+0	1.285904E+0	1.346929E+0	1.312189E+0	1.307441E+0	1.301808E+0	1.316787E+0	1.324291E+0	1.356849E+0	1.336217E+0	1.312430E+0	1.298555E+0	1.316885E+0	1.298458E+0	1.273145E+0	1.354717E+0	1.355100E+0	1.328247E+0	1.328622E+0	1.305284E+0	1.335133E+0	1.323913E+0	1.258914E+0	1.295270E+0	1.325304E+0	1.309739E+0	1.303972E+0	1.269811E+0	1.306727E+0	1.305293E+0	1.298079E+0	1.311307E+0	1.334662E+0	1.277363E+0	1.319519E+0	1.303524E+0	1.289104E+0	1.337666E+0	1.322784E+0	1.311744E+0	1.253452E+0	1.325758E+0	1.320956E+0	1.319822E+0	1.327028E+0	1.269114E+0	1.309458E+0	1.301607E+0	1.338611E+0	1.258253E+0	1.340897E+0	1.318760E+0	1.307964E+0	1.303707E+0	1.324241E+0	1.337236E+0	1.320763E+0	1.320057E+0	1.294285E+0	1.297645E+0	1.319464E+0	1.296398E+0	1.327117E+0	1.324144E+0	1.328175E+0	1.305877E+0	1.261845E+0	1.296891E+0	1.305393E+0	1.284543E+0	1.301263E+0	1.294395E+0	1.301182E+0	1.250107E+0	1.378237E+0	1.317755E+0	1.292607E+0	1.304370E+0	1.357343E+0	1.328070E+0	1.313680E+0	1.299760E+0	1.328616E+0	1.326605E+0	1.265550E+0	1.295582E+0	1.308378E+0	1.273808E+0	1.250370E+0	1.283249E+0	1.332195E+0	1.287385E+0	1.346600E+0	1.331293E+0	1.273110E+0	1.255734E+0	1.338254E+0	1.287298E+0	1.291368E+0	1.332374E+0	1.277924E+0	1.368097E+0	1.293082E+0	1.324412E+0	1.252376E+0	1.305655E+0	1.327584E+0	1.296838E+0	1.284010E+0	1.299702E+0	1.308641E+0	1.299747E+0	1.301150E+0	1.304211E+0	1.333929E+0	1.344607E+0	1.366231E+0	1.357991E+0	1.321053E+0
5.455340E+2	1.341410E+0	1.224698E+0	1.264445E+0	1.248109E+0	1.249155E+0	1.272601E+0	1.265986E+0	1.252638E+0	1.319319E+0	1.242251E+0	1.266654E+0	1.279522E+0	1.305380E+0	1.263465E+0	1.292213E+0	1.280163E+0	1.275521E+0	1.242656E+0	1.274093E+0	1.275975E+0	1.260325E+0	1.269518E+0	1.254484E+0	1.260209E+0	1.254775E+0	1.258053E+0	1.238783E+0	1.268646E+0	1.243321E+0	1.243147E+0	1.253042E+0	1.297440E+0	1.274775E+0	1.370603E+0	1.293253E+0	1.283107E+0	1.320740E+0	1.298395E+0	1.222866E+0	1.245290E+0	1.269763E+0	1.276810E+0	1.263108E+0	1.270072E+0	1.223298E+0	1.239686E+0	1.264366E+0	1.239333E+0	1.282968E+0	1.289227E+0	1.288417E+0	1.346173E+0	1.272255E+0	1.247860E+0	1.248696E+0	1.235719E+0	1.257832E+0	1.345955E+0	1.268309E+0	1.306244E+0	1.265643E+0	1.249122E+0	1.226321E+0	1.249088E+0	1.233810E+0	1.242037E+0	1.214429E+0	1.243598E+0	1.262274E+0	1.254692E+0	1.271486E+0	1.301624E+0	1.284003E+0	1.280310E+0	1.262064E+0	1.258665E+0	1.266203E+0	1.207296E+0	1.282919E+0	1.257092E+0	1.256966E+0	1.257384E+0	1.200098E+0	1.262988E+0	1.249273E+0	1.260754E+0	1.260084E+0	1.246593E+0	1.310540E+0	1.256158E+0	1.220610E+0	1.279892E+0	1.296158E+0	1.276623E+0	1.308879E+0	1.278474E+0	1.242378E+0	1.269195E+0	1.295917E+0	1.221220E+0	1.196191E+0	1.234271E+0	1.228508E+0	1.285747E+0	1.216972E+0	1.287856E+0	1.235241E+0	1.233310E+0	1.239098E+0	1.246684E+0	1.228467E+0	1.278762E+0	1.205118E+0	1.258204E+0	1.234264E+0	1.236622E+0	1.211188E+0	1.228611E+0	1.216588E+0	1.235029E+0	1.321308E+0	1.251141E+0	1.230987E+0	1.257002E+0	1.244208E+0	1.273182E+0	1.266724E+0	1.227617E+0	1.314232E+0	1.270750E+0	1.248293E+0	1.256778E+0	1.302534E+0	1.248354E+0	1.240303E+0	1.265665E+0	1.228354E+0	1.220625E+0	1.304172E+0	1.233934E+0	1.325868E+0	1.254526E+0	1.217390E+0	1.295611E+0	1.272208E+0	1.278092E+0	1.181395E+0	1.218804E+0	1.287041E+0	1.277344E+0	1.255372E+0	1.251973E+0	1.274659E+0	1.231576E+0	1.263962E+0	1.247816E+0	1.266792E+0	1.267929E+0	1.271464E+0	1.224304E+0	1.225027E+0	1.248196E+0	1.275450E+0	1.226979E+0	1.256657E+0	1.266177E+0	1.231839E+0	1.213922E+0	1.292306E+0	1.233587E+0	1.380385E+0
5.457780E+2	1.294842E+0	1.216189E+0	1.221524E+0	1.241846E+0	1.231123E+0	1.247950E+0	1.253055E+0	1.243777E+0	1.241679E+0	1.248718E+0	1.220178E+0	1.245205E+0	1.241564E+0	1.214680E+0	1.217715E+0	1.279297E+0	1.247927E+0	1.206622E+0	1.166957E+0	1.248037E+0	1.211028E+0	1.252449E+0	1.222441E+0	1.274781E+0	1.218536E+0	1.227744E+0	1.255480E+0	1.257263E+0	1.224455E+0	1.239639E+0	1.217253E+0	1.231946E+0	1.251819E+0	1.248938E+0	1.212236E+0	1.255128E+0	1.256916E+0	1.259263E+0	1.231093E+0	1.184027E+0	1.270699E+0	1.258064E+0	1.235035E+0	1.224384E+0	1.217826E+0	1.244048E+0	1.290347E+0	1.285708E+0	1.216131E+0	1.273119E+0	1.228737E+0	1.241942E+0	1.245030E+0	1.216405E+0	1.265835E+0	1.263151E+0	1.258103E+0	1.246435E+0	1.252417E+0	1.207962E+0	1.313036E+0	1.209653E+0	1.199841E+0	1.212353E+0	1.179190E+0	1.193423E+0	1.194226E+0	1.268517E+0	1.340766E+0	1.248844E+0	1.246378E+0	1.168124E+0	1.299705E+0	1.205377E+0	1.172081E+0	1.188251E+0	1.262524E+0	1.202883E+0	1.217089E+0	1.225878E+0	1.183352E+0	1.210815E+0	1.165488E+0	1.206376E+0	1.232396E+0	1.219080E+0	1.200490E+0	1.243355E+0	1.291813E+0	1.177898E+0	1.209962E+0	1.245182E+0	1.195484E+0	1.280202E+0	1.199732E+0	1.208812E+0	1.206632E+0	1.207631E+0	1.193690E+0	1.238948E+0	1.259982E+0	1.282255E+0	1.203983E+0	1.189997E+0	1.223843E+0	1.232238E+0	1.210855E+0	1.264756E+0	1.202741E+0	1.246143E+0	1.224651E+0	1.287964E+0	1.262035E+0	1.225598E+0	1.241251E+0	1.292817E+0	1.231276E+0	1.213628E+0	1.227537E+0	1.232772E+0	1.224749E+0	1.231091E+0	1.209807E+0	1.204166E+0	1.215516E+0	1.208854E+0	1.236535E+0	1.273396E+0	1.230684E+0	1.220667E+0	1.232539E+0	1.222961E+0	1.257122E+0	1.238776E+0	1.181494E+0	1.262189E+0	1.260239E+0	1.233199E+0	1.248760E+0	1.230574E+0	1.238774E+0	1.182530E+0	1.218805E+0	1.259510E+0	1.222544E+0	1.240798E+0	1.214297E+0	1.196590E+0	1.251748E+0	1.227189E+0	1.244858E+0	1.230131E+0	1.256290E+0	1.312210E+0	1.191769E+0	1.238949E+0	1.210530E+0	1.200496E+0	1.235908E+0	1.226468E+0	1.233163E+0	1.214173E+0	1.210644E+0	1.219211E+0	1.247887E+0	1.275102E+0	1.211539E+0	1.259926E+0	1.280242E+0	1.204670E+0	1.214495E+0
5.460110E+2	1.242654E+0	1.202036E+0	1.231880E+0	1.193878E+0	1.211533E+0	1.219075E+0	1.196933E+0	1.182161E+0	1.213645E+0	1.248812E+0	1.164549E+0	1.198157E+0	1.173341E+0	1.177631E+0	1.231345E+0	1.235493E+0	1.244521E+0	1.185090E+0	1.172494E+0	1.218214E+0	1.226623E+0	1.262155E+0	1.192599E+0	1.177048E+0	1.220529E+0	1.171353E+0	1.213696E+0	1.183477E+0	1.191295E+0	1.221529E+0	1.209895E+0	1.238508E+0	1.192080E+0	1.265939E+0	1.209153E+0	1.234377E+0	1.181045E+0	1.202795E+0	1.178532E+0	1.211078E+0	1.203960E+0	1.195454E+0	1.237970E+0	1.149576E+0	1.170617E+0	1.193190E+0	1.211530E+0	1.189354E+0	1.227776E+0	1.201477E+0	1.241151E+0	1.174544E+0	1.214783E+0	1.221697E+0	1.228371E+0	1.134675E+0	1.227300E+0	1.213523E+0	1.238745E+0	1.181091E+0	1.238319E+0	1.196922E+0	1.215108E+0	1.192423E+0	1.193506E+0	1.124325E+0	1.163577E+0	1.220254E+0	1.217622E+0	1.238001E+0	1.206088E+0	1.182399E+0	1.227257E+0	1.171824E+0	1.145632E+0	1.184278E+0	1.201797E+0	1.203576E+0	1.171996E+0	1.208922E+0	1.105177E+0	1.139573E+0	1.184733E+0	1.239914E+0	1.169375E+0	1.178528E+0	1.166726E+0	1.195065E+0	1.244151E+0	1.178692E+0	1.164318E+0	1.189302E+0	1.188133E+0	1.193266E+0	1.197808E+0	1.220235E+0	1.156589E+0	1.190851E+0	1.148241E+0	1.231683E+0	1.189808E+0	1.205794E+0	1.166031E+0	1.216965E+0	1.204268E+0	1.194568E+0	1.160954E+0	1.239677E+0	1.208470E+0	1.183598E+0	1.154038E+0	1.214258E+0	1.181516E+0	1.199714E+0	1.202037E+0	1.164354E+0	1.233350E+0	1.168769E+0	1.180581E+0	1.183246E+0	1.193788E+0	1.107588E+0	1.168635E+0	1.139614E+0	1.154871E+0	1.168019E+0	1.200360E+0	1.181965E+0	1.220710E+0	1.195903E+0	1.171409E+0	1.210320E+0	1.279227E+0	1.202716E+0	1.158889E+0	1.202166E+0	1.195412E+0	1.162454E+0	1.164855E+0	1.212050E+0	1.194265E+0	1.207558E+0	1.182681E+0	1.233190E+0	1.151325E+0	1.234520E+0	1.175941E+0	1.162421E+0	1.258891E+0	1.160688E+0	1.196242E+0	1.147213E+0	1.190562E+0	1.186029E+0	1.189257E+0	1.187947E+0	1.147328E+0	1.201692E+0	1.178904E+0	1.199616E+0	1.216729E+0	1.145951E+0	1.179235E+0	1.160680E+0	1.185414E+0	1.208083E+0	1.153521E+0	1.221140E+0	1.202681E+0	1.217085E+0	1.154597E+0
5.467660E+2	1.369123E+0	1.273218E+0	1.310782E+0	1.211967E+0	1.292087E+0	1.324911E+0	1.211000E+0	1.247683E+0	1.313968E+0	1.290274E+0	1.306155E+0	1.253944E+0	1.337969E+0	1.282925E+0	1.243964E+0	1.300781E+0	1.262438E+0	1.254745E+0	1.197209E+0	1.285584E+0	1.284009E+0	1.277271E+0	1.221508E+0	1.232813E+0	1.281896E+0	1.271456E+0	1.234272E+0	1.253843E+0	1.274161E+0	1.253382E+0	1.284390E+0	1.333518E+0	1.257232E+0	1.358684E+0	1.252492E+0	1.274118E+0	1.288803E+0	1.310506E+0	1.249798E+0	1.255408E+0	1.288739E+0	1.261811E+0	1.269252E+0	1.326372E+0	1.205960E+0	1.228489E+0	1.269348E+0	1.285639E+0	1.256475E+0	1.242399E+0	1.251054E+0	1.285192E+0	1.253783E+0	1.242989E+0	1.250244E+0	1.231194E+0	1.254709E+0	1.255239E+0	1.258474E+0	1.252893E+0	1.275134E+0	1.287798E+0	1.228943E+0	1.216441E+0	1.218233E+0	1.240933E+0	1.245666E+0	1.246720E+0	1.288568E+0	1.264243E+0	1.271741E+0	1.300534E+0	1.262133E+0	1.246144E+0	1.251308E+0	1.263699E+0	1.234063E+0	1.228338E+0	1.278349E+0	1.232201E+0	1.225887E+0	1.227940E+0	1.217586E+0	1.306027E+0	1.258023E+0	1.224718E+0	1.289459E+0	1.243978E+0	1.297630E+0	1.224539E+0	1.221521E+0	1.237272E+0	1.267971E+0	1.266130E+0	1.243444E+0	1.274195E+0	1.232975E+0	1.285385E+0	1.271702E+0	1.249080E+0	1.230979E+0	1.259143E+0	1.234362E+0	1.246896E+0	1.239007E+0	1.263316E+0	1.278878E+0	1.210497E+0	1.268357E+0	1.221454E+0	1.218085E+0	1.267539E+0	1.221344E+0	1.248242E+0	1.274307E+0	1.270537E+0	1.254246E+0	1.256729E+0	1.267678E+0	1.234408E+0	1.236084E+0	1.215855E+0	1.274295E+0	1.220002E+0	1.258283E+0	1.265798E+0	1.250565E+0	1.282423E+0	1.244872E+0	1.255907E+0	1.227227E+0	1.240055E+0	1.271473E+0	1.289543E+0	1.254853E+0	1.311696E+0	1.274760E+0	1.261769E+0	1.221088E+0	1.183411E+0	1.284483E+0	1.234339E+0	1.284130E+0	1.238342E+0	1.273761E+0	1.271314E+0	1.212883E+0	1.235791E+0	1.298041E+0	1.337518E+0	1.200369E+0	1.241934E+0	1.195698E+0	1.254218E+0	1.241930E+0	1.221433E+0	1.251182E+0	1.227639E+0	1.216055E+0	1.221023E+0	1.212864E+0	1.272371E+0	1.193818E+0	1.201447E+0	1.227582E+0	1.219288E+0	1.239660E+0	1.285946E+0	1.208854E+0	1.249912E+0	1.317589E+0
5.475070E+2	1.494065E+0	1.331168E+0	1.358740E+0	1.352629E+0	1.369869E+0	1.380145E+0	1.327029E+0	1.358077E+0	1.362768E+0	1.309780E+0	1.312167E+0	1.381224E+0	1.381702E+0	1.338364E+0	1.365537E+0	1.374107E+0	1.367883E+0	1.335579E+0	1.337240E+0	1.332310E+0	1.371152E+0	1.362849E+0	1.340777E+0	1.392024E+0	1.400378E+0	1.337190E+0	1.353936E+0	1.394420E+0	1.346256E+0	1.366004E+0	1.358274E+0	1.381828E+0	1.349955E+0	1.411264E+0	1.330982E+0	1.387636E+0	1.416477E+0	1.395307E+0	1.334438E+0	1.390641E+0	1.414750E+0	1.363458E+0	1.390028E+0	1.349568E+0	1.295916E+0	1.364822E+0	1.326980E+0	1.353460E+0	1.351697E+0	1.407698E+0	1.334820E+0	1.377067E+0	1.373789E+0	1.415254E+0	1.327092E+0	1.369656E+0	1.285324E+0	1.408745E+0	1.401696E+0	1.351537E+0	1.387924E+0	1.351461E+0	1.315094E+0	1.359974E+0	1.346457E+0	1.373776E+0	1.302936E+0	1.415473E+0	1.339807E+0	1.343841E+0	1.366118E+0	1.311244E+0	1.382475E+0	1.299951E+0	1.274850E+0	1.372062E+0	1.425822E+0	1.356610E+0	1.352550E+0	1.387456E+0	1.329222E+0	1.307891E+0	1.335040E+0	1.380209E+0	1.374968E+0	1.343134E+0	1.254318E+0	1.383792E+0	1.335391E+0	1.379807E+0	1.324468E+0	1.317636E+0	1.348340E+0	1.377525E+0	1.350879E+0	1.425787E+0	1.338983E+0	1.317620E+0	1.341852E+0	1.318328E+0	1.384809E+0	1.334904E+0	1.329923E+0	1.334213E+0	1.314831E+0	1.318927E+0	1.366212E+0	1.323804E+0	1.376493E+0	1.332791E+0	1.362207E+0	1.421362E+0	1.353875E+0	1.336563E+0	1.319455E+0	1.332562E+0	1.351956E+0	1.255110E+0	1.303333E+0	1.339625E+0	1.358321E+0	1.380616E+0	1.362043E+0	1.358015E+0	1.348811E+0	1.358332E+0	1.352163E+0	1.373321E+0	1.359559E+0	1.349236E+0	1.366555E+0	1.382233E+0	1.392510E+0	1.343694E+0	1.331329E+0	1.352519E+0	1.316428E+0	1.329285E+0	1.369214E+0	1.301292E+0	1.364376E+0	1.326573E+0	1.358454E+0	1.316819E+0	1.329859E+0	1.340975E+0	1.349973E+0	1.303578E+0	1.323610E+0	1.305909E+0	1.311180E+0	1.341126E+0	1.348729E+0	1.319330E+0	1.371099E+0	1.313318E+0	1.338646E+0	1.363675E+0	1.302136E+0	1.344299E+0	1.344525E+0	1.319073E+0	1.335046E+0	1.277237E+0	1.376544E+0	1.317422E+0	1.313353E+0	1.357144E+0	1.299183E+0	1.326620E+0	1.226875E+0
5.482600E+2	1.479890E+0	1.411407E+0	1.397641E+0	1.430253E+0	1.431731E+0	1.446533E+0	1.406365E+0	1.474699E+0	1.402506E+0	1.436774E+0	1.435219E+0	1.406426E+0	1.450670E+0	1.472439E+0	1.406063E+0	1.468777E+0	1.414397E+0	1.452929E+0	1.339400E+0	1.384864E+0	1.408457E+0	1.444229E+0	1.395131E+0	1.390920E+0	1.411656E+0	1.406326E+0	1.394997E+0	1.416017E+0	1.359913E+0	1.409607E+0	1.385460E+0	1.406345E+0	1.402159E+0	1.471418E+0	1.395326E+0	1.407041E+0	1.412021E+0	1.446061E+0	1.426226E+0	1.393508E+0	1.402190E+0	1.434177E+0	1.436394E+0	1.415570E+0	1.378683E+0	1.419420E+0	1.464265E+0	1.394467E+0	1.439739E+0	1.452376E+0	1.407506E+0	1.444718E+0	1.430511E+0	1.442450E+0	1.394785E+0	1.391730E+0	1.363913E+0	1.456355E+0	1.415821E+0	1.405988E+0	1.427132E+0	1.472826E+0	1.363314E+0	1.387845E+0	1.407497E+0	1.399463E+0	1.405465E+0	1.436893E+0	1.434089E+0	1.408646E+0	1.417446E+0	1.393870E+0	1.398816E+0	1.417481E+0	1.341391E+0	1.385276E+0	1.444621E+0	1.401884E+0	1.412788E+0	1.385097E+0	1.408461E+0	1.397143E+0	1.395696E+0	1.409688E+0	1.415163E+0	1.401277E+0	1.404525E+0	1.435825E+0	1.415901E+0	1.348371E+0	1.415625E+0	1.418331E+0	1.358030E+0	1.400839E+0	1.397073E+0	1.460056E+0	1.417249E+0	1.413426E+0	1.443520E+0	1.426155E+0	1.416246E+0	1.373424E+0	1.432567E+0	1.374930E+0	1.416349E+0	1.373471E+0	1.365335E+0	1.464816E+0	1.402127E+0	1.408918E+0	1.412885E+0	1.384534E+0	1.446003E+0	1.433037E+0	1.314694E+0	1.454729E+0	1.429362E+0	1.384407E+0	1.415423E+0	1.371681E+0	1.389617E+0	1.305123E+0	1.389705E+0	1.385834E+0	1.385403E+0	1.400268E+0	1.390279E+0	1.445942E+0	1.442434E+0	1.382396E+0	1.358898E+0	1.420184E+0	1.418540E+0	1.394392E+0	1.385916E+0	1.394697E+0	1.364597E+0	1.439673E+0	1.406838E+0	1.396361E+0	1.425312E+0	1.375849E+0	1.399329E+0	1.379100E+0	1.395651E+0	1.422977E+0	1.387120E+0	1.328202E+0	1.430909E+0	1.387183E+0	1.357020E+0	1.373679E+0	1.393101E+0	1.445033E+0	1.388371E+0	1.421452E+0	1.404736E+0	1.375312E+0	1.369566E+0	1.407108E+0	1.365068E+0	1.411892E+0	1.340875E+0	1.364692E+0	1.432456E+0	1.408780E+0	1.376060E+0	1.454714E+0	1.446270E+0	1.431656E+0	1.352404E+0
5.490490E+2	1.457241E+0	1.353740E+0	1.364080E+0	1.428122E+0	1.379624E+0	1.378010E+0	1.363545E+0	1.397264E+0	1.383977E+0	1.380992E+0	1.377201E+0	1.382589E+0	1.346562E+0	1.436409E+0	1.406473E+0	1.402749E+0	1.409690E+0	1.408443E+0	1.362062E+0	1.432284E+0	1.422269E+0	1.340804E+0	1.364849E+0	1.392286E+0	1.359088E+0	1.393090E+0	1.432009E+0	1.422263E+0	1.380954E+0	1.360652E+0	1.386227E+0	1.397004E+0	1.460637E+0	1.410625E+0	1.417164E+0	1.384273E+0	1.373637E+0	1.373529E+0	1.420773E+0	1.367210E+0	1.432063E+0	1.383305E+0	1.399379E+0	1.354303E+0	1.398432E+0	1.382716E+0	1.403932E+0	1.376508E+0	1.396131E+0	1.395590E+0	1.343160E+0	1.338940E+0	1.396716E+0	1.416079E+0	1.360720E+0	1.381499E+0	1.393379E+0	1.388510E+0	1.397080E+0	1.384079E+0	1.412438E+0	1.405374E+0	1.357294E+0	1.328587E+0	1.399027E+0	1.359686E+0	1.348856E+0	1.382342E+0	1.413873E+0	1.422678E+0	1.358734E+0	1.373374E+0	1.363683E+0	1.402747E+0	1.342391E+0	1.345790E+0	1.369694E+0	1.406879E+0	1.376957E+0	1.377534E+0	1.377894E+0	1.335882E+0	1.366784E+0	1.452804E+0	1.442461E+0	1.417042E+0	1.368101E+0	1.358812E+0	1.408293E+0	1.327485E+0	1.350616E+0	1.404630E+0	1.341861E+0	1.388247E+0	1.412296E+0	1.340789E+0	1.375798E+0	1.404838E+0	1.402779E+0	1.356831E+0	1.371558E+0	1.372542E+0	1.365060E+0	1.388915E+0	1.351213E+0	1.361210E+0	1.379297E+0	1.347249E+0	1.333988E+0	1.387873E+0	1.389055E+0	1.333081E+0	1.409376E+0	1.384750E+0	1.375969E+0	1.381296E+0	1.401423E+0	1.385088E+0	1.349303E+0	1.346708E+0	1.324151E+0	1.340052E+0	1.382327E+0	1.403148E+0	1.344180E+0	1.372751E+0	1.398624E+0	1.404056E+0	1.324850E+0	1.408403E+0	1.349197E+0	1.426962E+0	1.433443E+0	1.386923E+0	1.402714E+0	1.334744E+0	1.365066E+0	1.390089E+0	1.367068E+0	1.415975E+0	1.330864E+0	1.331769E+0	1.343080E+0	1.397494E+0	1.366464E+0	1.335085E+0	1.351205E+0	1.353971E+0	1.390751E+0	1.341764E+0	1.370642E+0	1.353503E+0	1.335861E+0	1.392409E+0	1.352643E+0	1.362663E+0	1.363302E+0	1.421960E+0	1.407186E+0	1.388726E+0	1.397146E+0	1.261604E+0	1.379539E+0	1.374487E+0	1.383118E+0	1.398598E+0	1.385521E+0	1.383057E+0	1.344173E+0	1.417312E+0	1.367557E+0
5.497740E+2	1.421201E+0	1.306901E+0	1.321344E+0	1.327545E+0	1.314326E+0	1.338898E+0	1.328319E+0	1.304731E+0	1.376099E+0	1.371794E+0	1.384991E+0	1.309756E+0	1.334464E+0	1.334487E+0	1.356440E+0	1.346969E+0	1.407036E+0	1.323716E+0	1.322077E+0	1.358782E+0	1.319710E+0	1.375734E+0	1.335289E+0	1.352674E+0	1.348772E+0	1.305692E+0	1.331106E+0	1.293462E+0	1.375298E+0	1.332211E+0	1.379910E+0	1.333256E+0	1.351263E+0	1.391808E+0	1.376295E+0	1.251977E+0	1.325609E+0	1.329113E+0	1.352422E+0	1.310042E+0	1.309831E+0	1.368228E+0	1.320546E+0	1.330020E+0	1.369715E+0	1.309192E+0	1.347843E+0	1.301608E+0	1.342388E+0	1.354240E+0	1.326822E+0	1.281791E+0	1.330335E+0	1.390795E+0	1.334774E+0	1.287681E+0	1.276568E+0	1.345316E+0	1.342746E+0	1.277971E+0	1.376841E+0	1.332040E+0	1.339193E+0	1.294485E+0	1.348952E+0	1.277353E+0	1.264898E+0	1.303766E+0	1.312153E+0	1.389452E+0	1.372383E+0	1.343915E+0	1.315367E+0	1.308579E+0	1.253864E+0	1.313797E+0	1.335450E+0	1.344343E+0	1.374295E+0	1.346146E+0	1.326613E+0	1.299307E+0	1.294441E+0	1.301331E+0	1.336564E+0	1.330573E+0	1.343430E+0	1.326137E+0	1.332537E+0	1.368595E+0	1.329743E+0	1.344281E+0	1.333092E+0	1.333416E+0	1.355657E+0	1.344444E+0	1.321101E+0	1.324557E+0	1.359031E+0	1.316406E+0	1.347632E+0	1.322241E+0	1.346180E+0	1.320531E+0	1.327062E+0	1.328132E+0	1.334060E+0	1.332529E+0	1.328515E+0	1.280875E+0	1.331742E+0	1.282643E+0	1.341340E+0	1.348319E+0	1.342595E+0	1.332773E+0	1.360276E+0	1.311721E+0	1.314839E+0	1.347671E+0	1.363298E+0	1.311643E+0	1.377043E+0	1.320356E+0	1.323446E+0	1.337770E+0	1.346406E+0	1.348794E+0	1.378542E+0	1.275236E+0	1.304824E+0	1.295295E+0	1.403658E+0	1.349134E+0	1.335492E+0	1.307943E+0	1.350833E+0	1.412978E+0	1.326955E+0	1.338192E+0	1.377276E+0	1.295814E+0	1.337908E+0	1.320081E+0	1.340505E+0	1.363232E+0	1.264869E+0	1.278005E+0	1.364389E+0	1.338698E+0	1.297833E+0	1.312688E+0	1.322612E+0	1.336755E+0	1.323427E+0	1.296425E+0	1.316743E+0	1.342787E+0	1.281695E+0	1.284877E+0	1.287217E+0	1.303801E+0	1.328964E+0	1.341613E+0	1.341085E+0	1.306626E+0	1.273969E+0	1.312054E+0	1.388742E+0	1.307899E+0	1.337495E+0
5.505170E+2	1.423508E+0	1.288974E+0	1.329710E+0	1.247364E+0	1.354953E+0	1.319498E+0	1.289953E+0	1.291994E+0	1.288822E+0	1.316145E+0	1.268378E+0	1.310163E+0	1.364242E+0	1.290305E+0	1.346493E+0	1.316145E+0	1.376869E+0	1.357896E+0	1.286572E+0	1.308759E+0	1.336861E+0	1.338263E+0	1.290324E+0	1.354024E+0	1.320513E+0	1.277911E+0	1.337388E+0	1.287315E+0	1.298538E+0	1.272980E+0	1.319444E+0	1.306039E+0	1.327412E+0	1.347012E+0	1.336672E+0	1.323204E+0	1.362718E+0	1.367831E+0	1.332375E+0	1.299457E+0	1.376758E+0	1.292279E+0	1.289060E+0	1.310066E+0	1.331268E+0	1.301644E+0	1.247521E+0	1.289726E+0	1.265855E+0	1.320753E+0	1.317804E+0	1.325482E+0	1.312862E+0	1.341743E+0	1.301879E+0	1.335768E+0	1.269154E+0	1.363882E+0	1.316164E+0	1.308648E+0	1.326449E+0	1.274306E+0	1.274595E+0	1.285833E+0	1.287565E+0	1.290645E+0	1.263753E+0	1.253017E+0	1.330274E+0	1.278641E+0	1.321224E+0	1.301591E+0	1.281770E+0	1.371995E+0	1.243634E+0	1.345181E+0	1.324209E+0	1.340827E+0	1.283380E+0	1.267207E+0	1.310953E+0	1.225268E+0	1.315994E+0	1.229949E+0	1.311626E+0	1.282311E+0	1.289666E+0	1.288260E+0	1.282904E+0	1.323473E+0	1.325627E+0	1.301831E+0	1.292045E+0	1.341612E+0	1.304933E+0	1.224342E+0	1.259092E+0	1.317051E+0	1.314132E+0	1.296229E+0	1.338385E+0	1.325810E+0	1.296061E+0	1.290463E+0	1.313574E+0	1.307461E+0	1.284692E+0	1.288302E+0	1.281000E+0	1.301868E+0	1.265690E+0	1.317164E+0	1.305535E+0	1.280930E+0	1.314092E+0	1.272450E+0	1.322794E+0	1.328187E+0	1.314299E+0	1.323046E+0	1.298597E+0	1.260185E+0	1.317277E+0	1.301028E+0	1.257462E+0	1.334138E+0	1.286828E+0	1.296480E+0	1.332314E+0	1.270212E+0	1.302355E+0	1.325834E+0	1.365880E+0	1.283265E+0	1.334941E+0	1.283052E+0	1.266906E+0	1.296910E+0	1.301123E+0	1.358552E+0	1.357707E+0	1.281795E+0	1.329157E+0	1.267932E+0	1.342582E+0	1.308976E+0	1.280393E+0	1.267205E+0	1.273257E+0	1.306234E+0	1.291946E+0	1.255352E+0	1.308543E+0	1.270457E+0	1.300319E+0	1.311833E+0	1.321455E+0	1.335739E+0	1.262476E+0	1.244357E+0	1.333584E+0	1.289149E+0	1.315705E+0	1.256733E+0	1.318191E+0	1.260968E+0	1.310653E+0	1.328493E+0	1.246343E+0	1.314284E+0	1.407565E+0
5.512620E+2	1.411549E+0	1.357208E+0	1.267443E+0	1.323678E+0	1.361664E+0	1.318739E+0	1.253984E+0	1.321698E+0	1.319238E+0	1.339824E+0	1.375291E+0	1.312434E+0	1.348844E+0	1.313054E+0	1.318472E+0	1.322004E+0	1.361946E+0	1.360581E+0	1.370554E+0	1.365151E+0	1.337381E+0	1.383653E+0	1.287496E+0	1.329598E+0	1.357073E+0	1.263328E+0	1.323529E+0	1.306276E+0	1.336688E+0	1.342148E+0	1.317932E+0	1.375051E+0	1.324168E+0	1.333356E+0	1.313377E+0	1.349235E+0	1.369955E+0	1.370950E+0	1.319851E+0	1.313503E+0	1.301769E+0	1.345742E+0	1.358956E+0	1.329889E+0	1.341169E+0	1.327055E+0	1.339522E+0	1.294205E+0	1.343349E+0	1.344276E+0	1.348415E+0	1.365803E+0	1.384419E+0	1.332369E+0	1.315566E+0	1.283507E+0	1.277847E+0	1.360669E+0	1.344785E+0	1.268952E+0	1.339444E+0	1.340622E+0	1.305053E+0	1.353356E+0	1.320373E+0	1.272062E+0	1.292845E+0	1.314512E+0	1.346949E+0	1.310793E+0	1.291159E+0	1.291086E+0	1.309540E+0	1.318075E+0	1.289362E+0	1.277442E+0	1.336056E+0	1.355466E+0	1.286023E+0	1.277940E+0	1.313706E+0	1.320660E+0	1.304954E+0	1.345034E+0	1.304372E+0	1.330252E+0	1.325422E+0	1.299427E+0	1.290648E+0	1.312266E+0	1.301986E+0	1.316751E+0	1.316637E+0	1.309806E+0	1.352493E+0	1.337542E+0	1.266281E+0	1.269836E+0	1.298209E+0	1.297028E+0	1.323516E+0	1.305368E+0	1.341185E+0	1.298295E+0	1.288192E+0	1.305158E+0	1.357212E+0	1.320882E+0	1.282581E+0	1.290925E+0	1.330716E+0	1.312919E+0	1.313598E+0	1.325377E+0	1.308551E+0	1.363131E+0	1.311265E+0	1.356604E+0	1.343942E+0	1.287081E+0	1.328938E+0	1.271675E+0	1.342009E+0	1.334652E+0	1.307042E+0	1.349979E+0	1.338532E+0	1.327649E+0	1.332730E+0	1.328947E+0	1.308223E+0	1.304636E+0	1.358851E+0	1.336040E+0	1.310081E+0	1.342312E+0	1.275593E+0	1.410537E+0	1.298909E+0	1.360269E+0	1.361425E+0	1.325799E+0	1.290686E+0	1.326495E+0	1.280412E+0	1.319890E+0	1.257260E+0	1.230833E+0	1.351977E+0	1.297131E+0	1.298531E+0	1.284410E+0	1.316619E+0	1.337398E+0	1.351908E+0	1.267231E+0	1.300298E+0	1.321523E+0	1.305341E+0	1.240703E+0	1.297661E+0	1.360635E+0	1.322968E+0	1.313858E+0	1.344876E+0	1.260686E+0	1.328204E+0	1.385560E+0	1.270612E+0	1.348056E+0	1.455653E+0
5.520150E+2	1.420250E+0	1.294286E+0	1.371001E+0	1.343403E+0	1.348669E+0	1.327296E+0	1.308874E+0	1.313485E+0	1.388668E+0	1.406242E+0	1.311210E+0	1.316327E+0	1.356604E+0	1.270515E+0	1.340799E+0	1.382077E+0	1.394297E+0	1.382643E+0	1.317572E+0	1.333930E+0	1.341277E+0	1.395920E+0	1.369021E+0	1.339524E+0	1.346594E+0	1.347715E+0	1.364736E+0	1.325952E+0	1.369521E+0	1.348418E+0	1.300192E+0	1.315697E+0	1.362559E+0	1.346531E+0	1.329468E+0	1.326786E+0	1.376291E+0	1.375481E+0	1.307060E+0	1.379138E+0	1.282544E+0	1.345621E+0	1.299978E+0	1.364998E+0	1.336962E+0	1.298828E+0	1.321474E+0	1.322740E+0	1.351268E+0	1.352553E+0	1.312608E+0	1.331179E+0	1.396272E+0	1.344805E+0	1.339529E+0	1.310531E+0	1.300405E+0	1.394473E+0	1.354719E+0	1.277929E+0	1.378324E+0	1.379702E+0	1.297826E+0	1.341804E+0	1.341698E+0	1.341805E+0	1.287054E+0	1.370411E+0	1.311387E+0	1.312668E+0	1.368755E+0	1.334299E+0	1.329493E+0	1.398134E+0	1.333393E+0	1.343737E+0	1.372728E+0	1.343945E+0	1.325038E+0	1.308178E+0	1.330137E+0	1.304824E+0	1.325777E+0	1.375618E+0	1.310924E+0	1.363059E+0	1.281811E+0	1.325785E+0	1.363977E+0	1.325526E+0	1.319840E+0	1.333600E+0	1.352525E+0	1.328608E+0	1.350118E+0	1.321453E+0	1.314925E+0	1.374122E+0	1.348164E+0	1.312071E+0	1.415445E+0	1.291948E+0	1.312385E+0	1.276637E+0	1.326096E+0	1.318895E+0	1.310975E+0	1.364539E+0	1.322890E+0	1.315479E+0	1.322183E+0	1.350905E+0	1.334609E+0	1.335275E+0	1.358728E+0	1.341221E+0	1.306509E+0	1.314906E+0	1.273652E+0	1.332286E+0	1.344461E+0	1.322634E+0	1.351731E+0	1.354330E+0	1.356376E+0	1.305581E+0	1.350405E+0	1.396074E+0	1.338405E+0	1.346974E+0	1.383867E+0	1.324316E+0	1.339172E+0	1.328864E+0	1.342582E+0	1.368898E+0	1.357829E+0	1.331276E+0	1.352940E+0	1.295365E+0	1.347907E+0	1.349672E+0	1.356729E+0	1.320679E+0	1.351925E+0	1.330739E+0	1.380045E+0	1.309097E+0	1.337927E+0	1.344043E+0	1.319676E+0	1.318605E+0	1.349003E+0	1.277474E+0	1.300013E+0	1.346362E+0	1.377892E+0	1.301284E+0	1.338321E+0	1.340891E+0	1.323162E+0	1.350696E+0	1.336171E+0	1.331237E+0	1.344570E+0	1.350844E+0	1.298671E+0	1.335519E+0	1.370896E+0	1.304841E+0	1.437185E+0
5.527590E+2	1.355312E+0	1.297465E+0	1.310656E+0	1.313256E+0	1.304978E+0	1.319847E+0	1.342984E+0	1.321284E+0	1.365397E+0	1.290917E+0	1.356248E+0	1.222789E+0	1.285387E+0	1.264352E+0	1.305194E+0	1.342135E+0	1.341471E+0	1.279355E+0	1.317292E+0	1.280349E+0	1.355715E+0	1.363889E+0	1.275606E+0	1.355186E+0	1.310340E+0	1.298274E+0	1.339801E+0	1.263120E+0	1.331401E+0	1.273535E+0	1.288831E+0	1.319591E+0	1.353301E+0	1.397939E+0	1.316616E+0	1.330780E+0	1.292595E+0	1.356640E+0	1.310260E+0	1.326799E+0	1.314323E+0	1.329705E+0	1.377905E+0	1.354884E+0	1.279906E+0	1.293802E+0	1.366778E+0	1.289786E+0	1.277166E+0	1.298162E+0	1.293313E+0	1.316304E+0	1.312593E+0	1.345303E+0	1.304105E+0	1.346432E+0	1.313447E+0	1.324170E+0	1.284101E+0	1.254357E+0	1.327172E+0	1.279602E+0	1.314171E+0	1.269626E+0	1.299945E+0	1.298458E+0	1.211731E+0	1.304369E+0	1.350930E+0	1.317899E+0	1.307054E+0	1.260308E+0	1.272663E+0	1.312606E+0	1.268054E+0	1.283656E+0	1.413942E+0	1.320396E+0	1.279360E+0	1.307035E+0	1.301847E+0	1.310032E+0	1.279172E+0	1.250461E+0	1.281826E+0	1.276143E+0	1.306435E+0	1.262704E+0	1.326960E+0	1.263319E+0	1.297024E+0	1.300334E+0	1.320578E+0	1.347207E+0	1.278481E+0	1.305468E+0	1.303923E+0	1.308628E+0	1.254169E+0	1.302855E+0	1.292714E+0	1.296953E+0	1.276735E+0	1.272981E+0	1.295200E+0	1.293100E+0	1.323918E+0	1.264411E+0	1.294694E+0	1.324000E+0	1.319579E+0	1.297229E+0	1.334580E+0	1.288491E+0	1.250000E+0	1.279666E+0	1.337337E+0	1.281527E+0	1.283819E+0	1.267957E+0	1.326815E+0	1.273048E+0	1.242680E+0	1.249159E+0	1.214408E+0	1.290551E+0	1.288992E+0	1.290387E+0	1.322440E+0	1.266881E+0	1.322497E+0	1.273300E+0	1.318567E+0	1.222851E+0	1.285519E+0	1.271838E+0	1.292374E+0	1.313098E+0	1.320049E+0	1.329578E+0	1.317817E+0	1.234594E+0	1.294246E+0	1.278955E+0	1.307633E+0	1.288340E+0	1.257403E+0	1.209543E+0	1.400565E+0	1.303362E+0	1.322884E+0	1.273782E+0	1.337742E+0	1.272204E+0	1.272578E+0	1.263513E+0	1.332965E+0	1.274254E+0	1.293036E+0	1.263471E+0	1.305735E+0	1.304361E+0	1.281293E+0	1.243354E+0	1.276377E+0	1.363542E+0	1.277961E+0	1.264417E+0	1.336383E+0	1.320162E+0	1.319546E+0
5.535380E+2	1.258625E+0	1.232547E+0	1.187914E+0	1.212560E+0	1.246106E+0	1.218783E+0	1.238766E+0	1.247307E+0	1.283147E+0	1.238944E+0	1.296707E+0	1.233377E+0	1.212606E+0	1.222125E+0	1.185289E+0	1.249974E+0	1.237627E+0	1.237946E+0	1.136090E+0	1.224124E+0	1.233669E+0	1.264877E+0	1.210952E+0	1.250901E+0	1.204022E+0	1.217388E+0	1.218631E+0	1.233541E+0	1.210046E+0	1.202384E+0	1.222506E+0	1.202179E+0	1.236784E+0	1.268196E+0	1.244316E+0	1.253723E+0	1.198507E+0	1.269598E+0	1.211088E+0	1.215287E+0	1.209267E+0	1.199084E+0	1.260005E+0	1.214206E+0	1.209220E+0	1.250861E+0	1.250156E+0	1.164026E+0	1.221411E+0	1.271984E+0	1.240567E+0	1.260668E+0	1.236612E+0	1.190542E+0	1.218410E+0	1.161985E+0	1.241881E+0	1.251302E+0	1.203041E+0	1.215908E+0	1.284014E+0	1.214448E+0	1.192529E+0	1.213396E+0	1.215464E+0	1.267817E+0	1.170658E+0	1.236200E+0	1.205642E+0	1.245871E+0	1.219860E+0	1.193728E+0	1.248024E+0	1.230911E+0	1.215891E+0	1.208191E+0	1.273502E+0	1.238521E+0	1.208802E+0	1.215943E+0	1.228997E+0	1.162662E+0	1.186709E+0	1.224122E+0	1.240629E+0	1.272644E+0	1.227260E+0	1.220223E+0	1.225796E+0	1.268609E+0	1.179555E+0	1.237734E+0	1.230683E+0	1.234473E+0	1.230749E+0	1.245567E+0	1.268395E+0	1.275606E+0	1.235171E+0	1.281678E+0	1.252398E+0	1.179461E+0	1.219859E+0	1.217148E+0	1.207214E+0	1.210065E+0	1.222079E+0	1.195862E+0	1.240685E+0	1.217632E+0	1.202610E+0	1.205534E+0	1.238080E+0	1.231935E+0	1.168774E+0	1.190467E+0	1.262392E+0	1.194305E+0	1.224964E+0	1.216796E+0	1.234462E+0	1.183888E+0	1.190233E+0	1.195081E+0	1.246001E+0	1.200346E+0	1.248989E+0	1.226363E+0	1.233230E+0	1.229352E+0	1.241586E+0	1.149308E+0	1.207075E+0	1.252926E+0	1.202667E+0	1.197907E+0	1.198551E+0	1.271332E+0	1.212966E+0	1.201537E+0	1.241904E+0	1.216450E+0	1.215682E+0	1.272454E+0	1.197785E+0	1.244833E+0	1.247128E+0	1.161334E+0	1.260528E+0	1.271423E+0	1.225491E+0	1.211295E+0	1.221886E+0	1.257763E+0	1.244790E+0	1.181492E+0	1.226499E+0	1.213788E+0	1.217681E+0	1.186060E+0	1.219622E+0	1.202237E+0	1.160025E+0	1.226864E+0	1.235254E+0	1.290804E+0	1.199515E+0	1.207365E+0	1.178295E+0	1.178296E+0	1.220188E+0
5.542530E+2	1.193173E+0	1.166768E+0	1.107347E+0	1.143026E+0	1.157386E+0	1.170993E+0	1.099342E+0	1.124830E+0	1.159800E+0	1.111057E+0	1.122149E+0	1.170729E+0	1.197065E+0	1.157679E+0	1.207949E+0	1.146988E+0	1.218939E+0	1.166720E+0	1.123033E+0	1.164840E+0	1.160119E+0	1.125662E+0	1.173803E+0	1.121646E+0	1.187485E+0	1.117203E+0	1.163042E+0	1.128286E+0	1.171673E+0	1.127262E+0	1.142478E+0	1.153423E+0	1.129574E+0	1.199414E+0	1.157754E+0	1.117250E+0	1.180708E+0	1.165487E+0	1.105492E+0	1.150662E+0	1.118850E+0	1.184604E+0	1.161276E+0	1.131555E+0	1.126947E+0	1.115827E+0	1.142131E+0	1.130012E+0	1.151986E+0	1.197790E+0	1.201642E+0	1.154701E+0	1.123836E+0	1.198024E+0	1.126672E+0	1.170349E+0	1.117846E+0	1.163977E+0	1.199627E+0	1.126624E+0	1.158295E+0	1.112833E+0	1.156323E+0	1.139057E+0	1.135743E+0	1.117515E+0	1.106897E+0	1.181115E+0	1.206735E+0	1.194615E+0	1.119222E+0	1.139152E+0	1.131626E+0	1.145203E+0	1.150799E+0	1.104031E+0	1.139111E+0	1.190545E+0	1.130281E+0	1.099550E+0	1.174104E+0	1.135146E+0	1.079137E+0	1.125774E+0	1.164548E+0	1.131050E+0	1.143616E+0	1.143472E+0	1.167002E+0	1.175110E+0	1.158522E+0	1.108599E+0	1.094951E+0	1.148819E+0	1.163571E+0	1.116008E+0	1.161381E+0	1.174717E+0	1.125270E+0	1.167443E+0	1.197768E+0	1.112895E+0	1.138452E+0	1.129456E+0	1.153883E+0	1.132956E+0	1.121967E+0	1.119147E+0	1.131570E+0	1.137844E+0	1.115848E+0	1.111611E+0	1.155282E+0	1.115834E+0	1.151689E+0	1.119481E+0	1.181988E+0	1.125987E+0	1.131425E+0	1.134879E+0	1.154164E+0	1.164074E+0	1.143674E+0	1.161063E+0	1.097254E+0	1.127192E+0	1.154766E+0	1.156797E+0	1.123529E+0	1.088516E+0	1.137922E+0	1.128622E+0	1.146364E+0	1.146010E+0	1.192238E+0	1.137051E+0	1.143935E+0	1.142880E+0	1.165507E+0	1.157171E+0	1.136552E+0	1.118224E+0	1.150414E+0	1.128599E+0	1.121264E+0	1.183391E+0	1.099617E+0	1.137309E+0	1.202723E+0	1.151715E+0	1.062693E+0	1.192168E+0	1.143982E+0	1.172452E+0	1.084682E+0	1.169687E+0	1.116496E+0	1.154249E+0	1.119335E+0	1.057533E+0	1.142399E+0	1.136296E+0	1.140585E+0	1.157482E+0	1.169083E+0	1.147906E+0	1.097703E+0	1.193654E+0	1.230236E+0	1.172905E+0	1.075467E+0
5.550140E+2	1.089566E+0	1.063621E+0	1.103510E+0	1.091177E+0	1.077141E+0	1.094566E+0	1.037646E+0	1.068152E+0	1.073931E+0	1.070502E+0	1.136234E+0	1.067694E+0	1.113655E+0	1.031247E+0	1.091765E+0	1.084252E+0	1.040299E+0	1.070239E+0	1.053678E+0	1.115722E+0	1.046836E+0	1.119927E+0	1.054719E+0	1.099482E+0	1.098819E+0	1.052701E+0	1.043470E+0	1.036125E+0	1.058448E+0	1.055141E+0	1.063564E+0	1.047230E+0	1.109941E+0	1.066970E+0	1.056337E+0	1.082757E+0	1.054895E+0	1.106816E+0	1.061870E+0	1.060380E+0	1.091068E+0	1.045067E+0	1.071825E+0	1.023749E+0	1.041017E+0	1.090764E+0	1.053501E+0	1.082309E+0	1.071726E+0	1.031235E+0	1.113286E+0	1.072375E+0	1.061144E+0	1.090943E+0	1.016002E+0	1.059913E+0	1.031645E+0	1.104671E+0	1.064696E+0	1.027787E+0	1.081442E+0	1.044220E+0	1.078642E+0	1.021720E+0	1.034022E+0	1.036917E+0	1.067075E+0	1.072162E+0	1.038307E+0	1.047866E+0	1.067856E+0	1.058114E+0	1.039262E+0	1.057971E+0	1.053246E+0	1.056237E+0	1.128545E+0	1.057338E+0	1.072984E+0	1.051403E+0	1.050086E+0	1.066595E+0	1.020817E+0	1.029846E+0	1.056837E+0	1.063932E+0	1.093134E+0	1.029203E+0	1.111827E+0	1.084618E+0	1.077751E+0	1.079850E+0	1.053699E+0	1.072432E+0	1.105381E+0	1.087017E+0	1.073319E+0	1.082180E+0	1.048912E+0	1.082857E+0	1.051223E+0	1.090992E+0	1.040652E+0	1.075094E+0	1.064551E+0	1.085078E+0	1.086908E+0	1.067115E+0	1.070836E+0	1.057404E+0	1.085131E+0	1.042442E+0	1.085329E+0	1.057521E+0	1.067342E+0	1.047975E+0	1.073204E+0	1.068811E+0	1.034547E+0	1.057766E+0	1.095670E+0	1.045971E+0	1.040940E+0	1.057453E+0	1.108217E+0	1.039360E+0	1.067407E+0	1.049842E+0	1.090284E+0	1.007786E+0	1.051740E+0	1.059415E+0	1.070609E+0	1.122478E+0	1.053849E+0	1.104480E+0	1.041486E+0	1.106687E+0	1.079312E+0	1.098931E+0	1.097929E+0	1.028745E+0	1.081353E+0	1.088496E+0	1.094142E+0	1.072240E+0	1.052641E+0	1.037532E+0	1.072160E+0	1.082085E+0	1.041479E+0	1.067209E+0	1.037680E+0	1.085339E+0	1.052446E+0	1.027191E+0	1.084199E+0	1.031710E+0	1.044693E+0	9.988882E-1	1.068825E+0	1.070457E+0	1.033102E+0	1.012414E+0	1.096001E+0	1.092166E+0	1.051493E+0	1.042288E+0	1.044051E+0	1.109324E+0	1.100634E+0
5.557600E+2	1.007532E+0	9.916629E-1	1.008062E+0	9.854593E-1	1.008686E+0	1.013241E+0	1.008697E+0	1.028808E+0	1.013768E+0	9.979103E-1	1.005513E+0	1.008305E+0	1.006402E+0	9.787423E-1	9.917510E-1	1.005308E+0	1.008049E+0	1.003123E+0	9.943908E-1	1.002704E+0	1.007455E+0	1.065331E+0	9.628357E-1	1.008779E+0	9.409114E-1	1.025510E+0	1.000548E+0	1.020294E+0	9.744154E-1	1.003548E+0	1.003178E+0	9.970370E-1	1.017901E+0	1.016158E+0	1.022328E+0	9.441741E-1	1.018217E+0	1.029872E+0	9.895797E-1	9.999121E-1	9.919697E-1	1.000070E+0	9.897854E-1	1.039659E+0	9.922210E-1	9.944933E-1	1.055731E+0	9.739829E-1	1.031547E+0	9.767344E-1	1.005659E+0	9.862385E-1	9.666021E-1	1.017708E+0	9.806718E-1	1.011753E+0	1.008186E+0	9.955099E-1	9.882989E-1	9.764438E-1	1.019560E+0	1.006063E+0	9.571333E-1	9.396515E-1	1.011264E+0	1.005119E+0	9.999873E-1	1.012316E+0	1.001694E+0	1.039793E+0	1.014646E+0	9.960490E-1	9.446767E-1	1.001815E+0	9.444314E-1	1.006619E+0	1.023024E+0	9.950025E-1	9.860513E-1	9.610781E-1	9.735579E-1	9.612033E-1	9.955395E-1	9.904438E-1	1.006580E+0	9.836785E-1	9.888158E-1	9.849674E-1	1.001437E+0	1.027379E+0	1.024109E+0	1.007265E+0	9.991932E-1	1.024802E+0	1.040399E+0	9.608806E-1	9.848161E-1	1.022416E+0	9.688606E-1	1.042666E+0	9.633396E-1	9.695950E-1	1.003553E+0	9.933301E-1	9.781364E-1	9.872619E-1	1.017545E+0	1.000872E+0	1.018845E+0	1.008408E+0	1.019190E+0	9.739712E-1	1.017604E+0	9.939916E-1	1.015596E+0	1.028396E+0	1.007260E+0	9.959629E-1	1.040803E+0	9.652083E-1	9.754271E-1	9.600824E-1	1.002901E+0	9.339111E-1	1.005884E+0	9.824044E-1	9.713563E-1	9.986125E-1	1.021832E+0	1.002143E+0	9.850700E-1	1.017535E+0	1.031109E+0	1.005643E+0	9.863253E-1	1.030397E+0	9.824428E-1	1.026250E+0	9.655538E-1	1.010782E+0	1.040103E+0	9.912875E-1	9.896210E-1	1.011997E+0	1.021867E+0	1.035466E+0	9.786034E-1	9.690747E-1	1.036326E+0	1.009948E+0	1.023592E+0	1.021550E+0	9.698293E-1	9.938207E-1	9.609830E-1	9.885289E-1	1.006597E+0	9.974207E-1	9.984966E-1	9.802956E-1	9.995291E-1	9.771338E-1	1.027431E+0	9.480309E-1	1.003670E+0	9.863953E-1	9.828229E-1	9.729385E-1	1.027518E+0	1.037092E+0	9.839722E-1
5.560130E+2	9.955326E-1	9.672939E-1	9.548065E-1	9.792725E-1	9.653154E-1	9.847085E-1	9.081097E-1	9.840207E-1	9.760423E-1	9.600048E-1	9.798070E-1	9.498350E-1	9.540908E-1	9.801392E-1	9.794875E-1	9.857498E-1	9.735599E-1	9.608910E-1	9.706261E-1	9.391306E-1	9.326392E-1	9.739523E-1	9.458546E-1	9.512250E-1	9.693120E-1	9.845180E-1	9.623198E-1	9.833043E-1	9.799437E-1	9.345669E-1	9.567718E-1	9.561919E-1	9.637555E-1	9.791404E-1	9.967463E-1	9.558484E-1	9.803650E-1	9.245464E-1	9.469277E-1	9.779537E-1	9.324530E-1	9.314367E-1	9.537877E-1	9.621560E-1	9.695379E-1	9.555725E-1	9.915201E-1	8.952683E-1	9.268337E-1	9.972318E-1	9.962574E-1	9.449752E-1	9.430576E-1	9.710321E-1	9.221800E-1	9.495651E-1	9.460661E-1	9.577257E-1	9.905139E-1	9.054543E-1	1.001378E+0	9.789435E-1	9.626920E-1	9.530652E-1	9.218920E-1	9.792955E-1	9.389643E-1	9.610340E-1	9.805993E-1	1.000132E+0	9.665038E-1	1.012464E+0	9.592501E-1	9.717070E-1	9.740975E-1	9.666927E-1	9.699664E-1	1.020268E+0	9.658858E-1	9.481860E-1	9.553704E-1	9.533004E-1	9.652234E-1	9.666742E-1	9.728519E-1	9.665037E-1	9.215528E-1	9.173770E-1	9.490180E-1	9.917280E-1	9.804900E-1	9.534808E-1	9.676730E-1	9.267485E-1	9.881822E-1	1.019153E+0	9.535312E-1	9.687801E-1	9.723344E-1	9.819208E-1	9.495865E-1	9.597099E-1	9.259425E-1	9.230371E-1	9.611451E-1	9.468136E-1	9.664658E-1	9.480417E-1	9.709481E-1	9.383716E-1	9.995020E-1	9.441789E-1	9.772723E-1	1.005853E+0	1.011657E+0	9.793137E-1	9.793001E-1	9.483147E-1	9.440436E-1	9.457103E-1	9.867204E-1	9.651865E-1	9.849804E-1	9.640209E-1	9.596691E-1	9.712793E-1	9.607669E-1	9.612329E-1	9.653632E-1	9.773411E-1	9.380317E-1	9.825599E-1	9.629291E-1	9.402036E-1	9.857419E-1	9.719049E-1	9.450622E-1	1.018660E+0	9.232447E-1	9.851275E-1	9.916931E-1	9.516192E-1	9.598206E-1	9.537120E-1	9.249825E-1	1.013960E+0	9.729174E-1	9.275156E-1	9.603908E-1	9.893825E-1	9.828026E-1	9.762734E-1	9.815689E-1	1.000996E+0	9.614635E-1	9.246684E-1	9.748216E-1	9.645829E-1	9.537951E-1	9.611231E-1	9.855717E-1	9.747747E-1	9.438426E-1	9.736118E-1	9.939811E-1	1.042174E+0	9.849370E-1	9.745411E-1	9.572613E-1	9.335461E-1	8.637797E-1
5.565030E+2	9.515989E-1	1.003498E+0	9.152288E-1	9.777247E-1	9.979633E-1	1.047813E+0	9.510316E-1	9.334269E-1	9.563549E-1	9.470496E-1	9.896111E-1	9.490170E-1	9.716789E-1	9.204167E-1	9.759958E-1	9.696433E-1	9.596598E-1	9.499886E-1	9.418135E-1	9.942429E-1	9.837732E-1	9.715289E-1	9.234880E-1	9.563844E-1	9.226673E-1	9.862879E-1	9.407725E-1	9.748273E-1	9.518560E-1	9.844367E-1	9.729768E-1	9.955484E-1	9.224540E-1	9.458561E-1	9.676253E-1	9.597535E-1	9.775066E-1	9.822604E-1	9.939661E-1	9.238781E-1	9.641784E-1	9.481730E-1	1.001756E+0	9.812397E-1	9.414888E-1	9.460798E-1	9.859804E-1	9.521661E-1	9.489655E-1	9.603006E-1	9.597716E-1	9.422009E-1	9.675497E-1	9.784950E-1	9.470664E-1	9.356019E-1	9.254549E-1	9.395280E-1	9.623585E-1	9.312700E-1	9.894948E-1	9.450522E-1	9.345680E-1	9.566776E-1	9.623806E-1	9.471856E-1	9.656646E-1	1.009164E+0	9.413741E-1	9.906214E-1	9.608168E-1	9.707820E-1	9.553220E-1	9.922109E-1	9.478589E-1	9.417951E-1	9.851508E-1	9.283659E-1	9.599925E-1	9.183407E-1	9.309169E-1	9.421048E-1	9.213013E-1	9.592295E-1	9.208589E-1	9.554397E-1	9.931991E-1	9.347937E-1	9.526556E-1	9.680500E-1	9.804137E-1	9.305001E-1	9.376450E-1	9.764969E-1	9.732182E-1	9.350616E-1	9.448130E-1	9.752794E-1	9.980100E-1	9.205636E-1	9.043542E-1	9.558722E-1	9.945357E-1	9.887658E-1	9.299191E-1	9.330916E-1	1.000538E+0	9.595645E-1	9.545840E-1	9.621655E-1	9.760827E-1	9.624828E-1	9.568679E-1	9.671015E-1	9.590901E-1	9.777897E-1	1.004386E+0	9.293568E-1	9.467806E-1	9.607186E-1	9.625053E-1	9.382216E-1	9.189098E-1	9.842438E-1	9.362221E-1	9.641348E-1	9.932825E-1	9.431020E-1	9.442861E-1	9.716916E-1	9.857974E-1	9.619129E-1	9.653612E-1	9.607652E-1	9.304035E-1	9.864238E-1	9.276636E-1	9.753197E-1	9.407914E-1	9.390095E-1	9.772918E-1	9.194874E-1	9.403720E-1	9.658906E-1	9.325165E-1	9.704698E-1	9.305563E-1	9.284931E-1	9.972647E-1	9.815151E-1	9.542530E-1	9.716642E-1	9.297356E-1	9.882005E-1	9.856663E-1	9.321825E-1	1.018067E+0	9.601834E-1	9.642125E-1	9.078377E-1	9.324874E-1	9.494749E-1	9.638377E-1	9.298252E-1	9.358167E-1	9.889929E-1	9.252394E-1	9.751895E-1	9.418266E-1	9.977666E-1	9.959034E-1
5.570220E+2	9.902141E-1	9.230940E-1	8.907927E-1	9.787927E-1	9.348809E-1	9.976726E-1	9.449004E-1	9.867049E-1	9.563745E-1	9.916292E-1	9.731489E-1	9.444799E-1	9.785958E-1	9.299736E-1	9.403543E-1	9.558089E-1	9.652486E-1	9.584285E-1	9.418896E-1	9.474916E-1	9.735842E-1	9.570878E-1	9.589326E-1	9.600290E-1	9.660134E-1	9.431324E-1	9.344643E-1	9.644798E-1	9.565644E-1	9.110312E-1	9.760225E-1	9.596400E-1	9.380987E-1	9.821349E-1	9.537408E-1	9.697373E-1	9.640775E-1	9.928970E-1	9.695297E-1	9.590376E-1	9.168281E-1	1.006668E+0	9.524077E-1	9.758333E-1	9.164056E-1	9.229554E-1	9.854105E-1	9.664101E-1	9.351210E-1	9.821037E-1	9.589907E-1	9.668082E-1	9.750504E-1	9.671670E-1	9.623569E-1	9.492488E-1	9.610146E-1	9.373146E-1	9.812979E-1	9.534998E-1	1.034379E+0	9.766385E-1	9.706788E-1	9.606961E-1	9.445138E-1	9.456955E-1	9.285646E-1	9.792345E-1	9.955972E-1	9.701769E-1	9.182568E-1	9.709189E-1	9.431640E-1	9.965966E-1	9.599897E-1	9.584982E-1	9.456582E-1	1.000104E+0	9.727663E-1	9.626958E-1	9.152827E-1	9.399550E-1	9.610876E-1	9.475581E-1	9.500483E-1	9.596486E-1	9.657956E-1	9.518249E-1	9.574195E-1	9.746026E-1	9.830820E-1	9.517245E-1	9.810006E-1	9.902898E-1	9.356657E-1	9.524606E-1	9.527359E-1	9.696688E-1	9.140120E-1	9.437751E-1	9.312841E-1	9.812494E-1	9.628420E-1	9.538618E-1	9.687602E-1	9.919141E-1	9.383060E-1	1.022258E+0	9.991258E-1	9.257228E-1	9.399465E-1	9.337034E-1	9.619232E-1	9.427408E-1	9.827571E-1	9.488880E-1	9.292540E-1	9.685279E-1	9.609321E-1	9.569515E-1	9.608564E-1	9.538737E-1	9.549191E-1	9.549988E-1	9.701269E-1	9.818214E-1	9.621836E-1	9.934417E-1	9.283767E-1	9.778005E-1	9.710152E-1	9.693177E-1	9.861724E-1	9.778128E-1	9.934976E-1	9.987073E-1	9.674901E-1	1.002878E+0	9.627818E-1	9.192041E-1	9.901496E-1	9.317877E-1	9.706051E-1	9.687575E-1	9.819117E-1	9.904019E-1	9.371044E-1	9.320790E-1	9.795409E-1	9.482182E-1	9.956577E-1	9.364015E-1	9.932286E-1	9.862869E-1	9.977123E-1	9.316762E-1	9.881069E-1	9.429227E-1	9.389221E-1	9.581280E-1	9.844363E-1	1.007852E+0	9.263085E-1	9.494912E-1	9.800811E-1	9.294342E-1	9.492844E-1	9.817734E-1	9.940691E-1	9.913209E-1	9.722621E-1
5.575300E+2	9.803308E-1	1.033307E+0	9.728438E-1	9.476479E-1	9.945807E-1	9.782625E-1	1.017420E+0	9.788200E-1	9.859014E-1	1.067489E+0	1.016678E+0	9.864456E-1	9.972567E-1	9.546662E-1	1.004386E+0	1.017239E+0	1.035623E+0	1.010657E+0	9.550483E-1	1.032877E+0	9.773704E-1	1.004916E+0	9.858781E-1	9.988619E-1	9.815130E-1	1.001461E+0	1.006344E+0	1.002619E+0	1.010428E+0	9.864062E-1	9.815656E-1	9.939555E-1	1.030190E+0	1.009901E+0	1.019767E+0	9.699655E-1	1.025041E+0	1.037994E+0	1.000539E+0	9.987355E-1	9.580324E-1	9.837153E-1	1.045897E+0	1.021155E+0	9.958285E-1	1.030600E+0	1.029538E+0	9.543199E-1	9.795232E-1	1.012251E+0	9.886963E-1	9.911729E-1	1.012388E+0	1.011330E+0	1.007759E+0	9.830817E-1	9.660554E-1	1.035188E+0	9.730232E-1	9.681234E-1	1.035408E+0	1.020739E+0	9.937803E-1	9.999420E-1	9.532865E-1	1.028281E+0	9.433964E-1	1.049281E+0	9.937312E-1	1.040072E+0	1.025307E+0	9.833772E-1	1.020419E+0	1.004399E+0	9.934985E-1	9.633170E-1	1.003271E+0	1.034946E+0	9.821140E-1	1.011952E+0	9.864507E-1	9.714298E-1	1.021134E+0	9.684544E-1	1.038615E+0	1.047940E+0	9.069367E-1	9.979258E-1	9.700391E-1	9.978193E-1	1.006190E+0	1.004510E+0	9.948019E-1	1.000825E+0	1.071353E+0	9.800160E-1	1.033289E+0	1.038008E+0	9.965943E-1	9.875482E-1	9.796652E-1	1.005812E+0	1.017009E+0	1.011403E+0	9.724272E-1	1.025294E+0	9.980637E-1	9.919971E-1	1.029518E+0	1.007709E+0	1.006739E+0	9.883567E-1	9.878091E-1	9.975891E-1	1.019951E+0	1.036903E+0	1.050420E+0	9.819944E-1	9.736334E-1	1.014181E+0	9.969996E-1	9.898985E-1	9.674006E-1	1.004803E+0	1.016060E+0	9.694627E-1	1.001395E+0	9.761367E-1	1.012174E+0	1.028224E+0	1.002268E+0	9.776662E-1	1.019530E+0	1.029762E+0	9.954242E-1	9.737864E-1	9.879064E-1	1.014170E+0	1.027426E+0	1.007381E+0	1.007345E+0	9.562584E-1	9.714156E-1	9.772582E-1	9.732085E-1	1.007337E+0	1.029734E+0	9.395386E-1	9.971938E-1	9.875743E-1	9.828866E-1	1.010066E+0	1.011095E+0	1.033840E+0	1.028574E+0	9.694329E-1	9.815642E-1	9.824160E-1	9.867590E-1	9.716571E-1	1.020074E+0	1.029374E+0	9.943597E-1	9.658055E-1	9.822523E-1	1.012276E+0	9.990819E-1	1.038286E+0	9.577844E-1	1.070611E+0	8.703991E-1
5.580060E+2	1.032957E+0	1.020307E+0	9.982889E-1	1.001096E+0	1.034226E+0	1.014305E+0	1.034159E+0	1.001313E+0	1.026490E+0	1.051168E+0	1.068256E+0	1.000114E+0	1.015707E+0	1.019917E+0	1.027892E+0	1.043683E+0	1.018320E+0	1.007216E+0	1.033787E+0	9.978395E-1	1.024458E+0	1.037620E+0	1.016520E+0	1.033033E+0	1.003214E+0	1.058289E+0	1.007968E+0	1.021451E+0	1.047499E+0	1.006873E+0	1.016311E+0	1.026287E+0	1.011741E+0	1.023426E+0	1.012053E+0	1.028294E+0	1.003866E+0	1.034494E+0	9.890953E-1	1.024422E+0	1.023586E+0	1.059808E+0	1.036041E+0	1.026458E+0	1.040796E+0	1.029251E+0	1.013836E+0	9.899358E-1	1.030023E+0	1.039012E+0	1.011877E+0	1.062125E+0	9.790749E-1	1.034663E+0	1.000108E+0	1.027430E+0	1.024578E+0	1.027902E+0	1.005385E+0	1.022179E+0	1.009805E+0	1.039527E+0	1.026585E+0	1.004251E+0	1.012579E+0	1.062809E+0	9.742298E-1	1.037460E+0	1.047476E+0	1.026232E+0	1.033532E+0	1.049663E+0	1.058337E+0	1.000451E+0	1.053187E+0	1.025253E+0	9.949516E-1	1.030647E+0	1.001406E+0	1.039696E+0	1.007288E+0	1.022058E+0	1.022589E+0	9.901079E-1	1.011864E+0	1.020208E+0	1.027816E+0	1.022317E+0	1.022800E+0	1.008058E+0	9.901069E-1	1.001376E+0	1.021657E+0	1.040889E+0	1.025814E+0	1.010288E+0	1.009268E+0	1.056798E+0	1.021267E+0	1.012502E+0	1.002952E+0	1.062323E+0	1.051662E+0	1.069467E+0	9.851339E-1	1.031521E+0	1.033759E+0	1.020453E+0	9.990738E-1	1.027207E+0	1.000360E+0	1.042644E+0	1.061190E+0	9.850030E-1	1.005699E+0	9.958635E-1	1.020211E+0	1.033337E+0	1.022158E+0	1.036106E+0	1.033167E+0	1.038913E+0	1.031022E+0	1.055827E+0	1.033861E+0	1.030946E+0	9.991723E-1	1.039633E+0	1.035184E+0	1.047046E+0	1.009248E+0	1.012915E+0	9.949411E-1	1.040464E+0	1.011261E+0	1.006833E+0	1.001425E+0	1.000590E+0	1.050433E+0	1.001224E+0	1.027158E+0	1.036661E+0	9.927710E-1	1.063885E+0	1.014468E+0	9.908694E-1	1.001779E+0	1.028649E+0	1.024475E+0	1.034381E+0	1.036818E+0	1.054737E+0	9.678883E-1	1.045315E+0	9.975953E-1	1.026898E+0	1.024632E+0	1.011143E+0	1.036986E+0	9.905596E-1	1.003493E+0	1.032399E+0	1.012437E+0	1.025614E+0	1.003801E+0	1.045396E+0	1.017487E+0	1.023983E+0	1.031787E+0	9.747078E-1	1.049480E+0
5.585100E+2	1.017536E+0	1.030148E+0	1.001198E+0	1.012006E+0	1.020591E+0	1.065232E+0	1.052205E+0	1.038656E+0	1.035202E+0	1.029643E+0	1.006318E+0	1.029254E+0	1.021433E+0	1.027551E+0	1.040093E+0	1.032914E+0	1.010107E+0	1.014378E+0	1.021981E+0	1.032446E+0	1.023566E+0	1.010748E+0	1.022580E+0	1.025207E+0	1.014680E+0	1.015221E+0	1.018021E+0	1.029498E+0	9.958548E-1	9.953004E-1	9.928236E-1	1.042187E+0	1.030598E+0	1.034456E+0	1.041099E+0	1.036424E+0	1.026479E+0	1.037354E+0	1.006559E+0	1.045168E+0	9.869356E-1	1.018246E+0	1.050150E+0	1.015220E+0	1.007233E+0	1.033814E+0	1.043306E+0	1.030807E+0	1.032153E+0	1.041382E+0	1.040627E+0	1.073923E+0	1.055716E+0	1.032941E+0	1.029391E+0	1.034599E+0	9.806925E-1	1.003829E+0	9.782292E-1	1.051005E+0	1.031408E+0	9.452987E-1	1.052371E+0	1.007472E+0	1.013494E+0	9.892297E-1	1.016684E+0	1.055113E+0	1.051667E+0	1.013089E+0	9.682760E-1	1.006498E+0	1.034999E+0	1.026019E+0	9.593056E-1	1.031857E+0	1.011424E+0	9.841774E-1	1.062970E+0	1.040057E+0	1.008078E+0	1.017705E+0	1.010253E+0	1.011077E+0	1.029546E+0	1.027705E+0	1.018113E+0	1.006181E+0	1.005927E+0	1.067405E+0	9.942446E-1	9.951296E-1	1.026108E+0	1.018414E+0	1.036732E+0	1.000784E+0	9.976626E-1	9.967435E-1	1.005391E+0	1.024489E+0	1.016724E+0	9.806329E-1	9.995396E-1	9.888242E-1	1.013059E+0	1.051616E+0	9.798415E-1	1.041438E+0	1.049633E+0	1.010036E+0	1.030684E+0	1.027017E+0	1.005852E+0	1.009657E+0	9.881969E-1	9.936374E-1	9.983579E-1	1.038955E+0	1.018149E+0	1.006644E+0	1.051277E+0	1.031198E+0	1.049345E+0	1.077460E+0	1.065240E+0	1.013337E+0	1.036395E+0	1.023625E+0	1.024010E+0	1.018401E+0	9.950954E-1	1.006236E+0	1.035466E+0	1.044079E+0	9.687525E-1	1.054367E+0	1.044389E+0	1.061593E+0	1.026756E+0	1.010771E+0	1.031264E+0	1.000999E+0	1.034005E+0	1.009711E+0	1.023203E+0	1.032738E+0	9.920821E-1	1.016025E+0	1.010468E+0	1.046406E+0	1.011648E+0	1.016517E+0	9.942321E-1	1.032202E+0	1.030908E+0	9.963986E-1	1.011268E+0	1.035528E+0	1.042589E+0	1.007611E+0	9.953761E-1	9.879321E-1	1.008750E+0	1.019168E+0	1.008918E+0	1.048928E+0	1.032954E+0	1.003035E+0	1.035539E+0	1.071758E+0	1.066149E+0
5.590100E+2	1.029149E+0	1.057924E+0	1.015638E+0	1.025398E+0	1.046328E+0	1.037285E+0	1.023950E+0	1.032362E+0	1.038381E+0	1.036819E+0	1.018393E+0	1.071908E+0	1.024242E+0	9.984494E-1	1.009197E+0	1.002729E+0	1.056784E+0	1.020620E+0	1.013677E+0	9.998784E-1	1.008717E+0	1.024560E+0	1.057231E+0	1.017999E+0	9.887574E-1	1.000830E+0	1.051426E+0	1.035806E+0	1.001439E+0	1.045854E+0	1.056329E+0	9.954272E-1	1.053609E+0	1.026191E+0	1.022596E+0	1.021684E+0	1.030337E+0	1.013364E+0	9.964732E-1	1.030536E+0	1.072003E+0	1.021208E+0	1.028791E+0	1.042906E+0	9.956222E-1	9.798501E-1	1.038315E+0	1.035472E+0	9.949800E-1	1.022781E+0	1.012847E+0	9.980644E-1	1.037505E+0	9.852086E-1	1.030791E+0	9.837598E-1	1.034207E+0	1.022746E+0	1.038774E+0	1.042531E+0	1.024490E+0	1.029978E+0	1.001495E+0	1.007961E+0	1.032938E+0	1.005914E+0	1.004382E+0	1.058799E+0	1.001956E+0	1.004626E+0	9.926743E-1	1.011543E+0	1.003364E+0	1.004725E+0	1.027916E+0	1.025910E+0	1.062236E+0	1.004070E+0	1.009044E+0	9.774194E-1	1.059440E+0	1.060321E+0	9.792240E-1	1.034923E+0	1.004808E+0	1.036161E+0	9.810237E-1	1.043783E+0	9.957530E-1	1.035841E+0	1.033558E+0	1.055401E+0	1.018141E+0	1.026536E+0	1.008625E+0	1.042354E+0	1.028702E+0	9.974770E-1	9.923583E-1	1.026657E+0	1.019805E+0	1.026376E+0	1.006692E+0	1.026964E+0	1.065452E+0	1.011692E+0	1.050276E+0	9.947600E-1	1.040971E+0	1.012760E+0	1.036369E+0	9.969140E-1	1.036362E+0	1.011599E+0	1.026831E+0	1.082413E+0	1.039140E+0	9.973401E-1	1.011606E+0	1.038406E+0	1.051813E+0	1.023966E+0	1.018503E+0	9.970175E-1	1.014897E+0	9.873102E-1	1.047906E+0	1.025216E+0	1.007874E+0	1.038978E+0	9.989392E-1	1.021096E+0	1.031730E+0	9.950085E-1	1.033489E+0	1.056826E+0	1.002416E+0	1.008237E+0	1.005460E+0	1.026409E+0	1.006603E+0	1.079823E+0	1.011601E+0	1.018988E+0	1.003196E+0	1.030370E+0	1.024753E+0	1.076686E+0	1.038009E+0	1.024330E+0	1.029854E+0	1.053708E+0	1.031698E+0	1.056477E+0	1.040368E+0	1.060821E+0	1.038671E+0	1.012173E+0	1.007533E+0	1.058673E+0	1.078367E+0	1.055013E+0	9.906512E-1	1.012525E+0	1.053516E+0	1.028871E+0	9.746509E-1	1.067609E+0	9.962232E-1	1.057863E+0	1.029818E+0
5.595110E+2	9.981574E-1	1.003182E+0	1.032435E+0	1.061252E+0	1.001643E+0	9.965752E-1	1.016993E+0	1.014371E+0	1.021832E+0	1.037805E+0	1.019690E+0	9.928696E-1	9.894994E-1	1.002477E+0	1.014054E+0	9.692109E-1	9.940589E-1	1.000229E+0	9.902666E-1	1.043935E+0	1.019582E+0	1.008743E+0	1.024650E+0	1.017052E+0	1.039773E+0	1.025841E+0	9.886077E-1	9.973954E-1	9.636326E-1	1.041846E+0	1.025849E+0	9.932206E-1	1.018173E+0	9.831320E-1	1.020879E+0	1.029474E+0	1.000338E+0	1.034921E+0	1.039071E+0	9.984833E-1	1.036035E+0	9.864754E-1	1.033567E+0	1.007300E+0	1.074603E+0	1.029974E+0	9.976257E-1	1.058460E+0	9.891403E-1	9.893919E-1	1.011109E+0	1.003872E+0	1.011331E+0	1.029040E+0	1.035070E+0	1.022762E+0	1.011887E+0	1.017557E+0	1.027986E+0	1.030882E+0	9.965884E-1	1.036146E+0	1.032741E+0	1.043175E+0	1.001726E+0	9.850003E-1	1.049730E+0	9.959249E-1	1.011460E+0	9.896470E-1	1.062963E+0	9.967687E-1	1.001357E+0	1.017236E+0	1.029596E+0	1.015156E+0	1.023728E+0	1.046461E+0	1.046363E+0	1.009127E+0	1.003884E+0	1.044996E+0	9.962662E-1	1.015419E+0	1.038276E+0	1.023688E+0	1.025532E+0	1.026917E+0	1.019968E+0	9.893349E-1	1.050409E+0	9.828380E-1	1.019034E+0	9.991408E-1	1.022017E+0	1.016301E+0	1.028886E+0	1.036162E+0	1.034541E+0	9.973554E-1	1.010322E+0	1.022781E+0	1.019434E+0	1.039454E+0	9.950064E-1	9.577855E-1	9.743177E-1	9.890174E-1	1.024279E+0	1.018600E+0	1.000215E+0	1.023375E+0	1.000261E+0	1.017067E+0	1.051901E+0	9.706208E-1	1.033079E+0	1.026423E+0	9.707222E-1	1.022756E+0	1.028440E+0	1.022509E+0	1.005655E+0	1.003446E+0	9.903423E-1	1.037803E+0	1.029158E+0	9.889224E-1	9.781742E-1	9.850395E-1	1.022893E+0	1.005121E+0	1.018609E+0	1.003549E+0	1.034691E+0	1.001386E+0	1.034085E+0	1.037880E+0	1.008833E+0	1.040330E+0	1.034003E+0	1.040531E+0	1.004959E+0	1.007934E+0	1.011686E+0	1.016258E+0	1.043893E+0	9.885428E-1	9.898443E-1	1.039076E+0	9.857085E-1	1.013871E+0	1.047676E+0	9.989398E-1	1.066594E+0	1.012586E+0	9.927148E-1	9.888516E-1	1.016081E+0	1.029494E+0	1.032669E+0	9.887176E-1	1.077593E+0	1.000584E+0	1.006437E+0	1.002113E+0	9.997032E-1	1.027526E+0	1.052932E+0	1.034676E+0	9.388220E-1
5.600240E+2	1.006483E+0	9.836103E-1	1.047031E+0	9.815182E-1	9.921583E-1	9.640635E-1	1.009834E+0	1.032879E+0	1.004815E+0	9.695158E-1	9.944988E-1	1.005171E+0	1.027285E+0	1.040133E+0	1.024535E+0	1.013502E+0	9.965149E-1	1.008576E+0	1.031880E+0	1.001301E+0	9.981287E-1	1.028603E+0	9.817584E-1	9.941340E-1	1.027055E+0	9.707177E-1	1.028589E+0	1.034530E+0	1.060165E+0	1.040468E+0	1.008663E+0	1.015055E+0	1.024366E+0	9.970668E-1	1.009429E+0	9.846128E-1	1.031359E+0	1.000599E+0	1.009154E+0	9.934130E-1	1.025011E+0	1.000403E+0	9.859431E-1	1.017484E+0	9.721499E-1	1.001807E+0	1.036978E+0	9.888986E-1	1.038827E+0	9.997565E-1	1.033103E+0	9.679545E-1	1.010612E+0	1.028992E+0	1.012379E+0	1.004527E+0	1.051018E+0	1.019183E+0	1.043907E+0	9.930950E-1	1.039105E+0	1.020696E+0	1.005191E+0	1.030964E+0	1.046637E+0	1.023490E+0	1.016526E+0	9.637631E-1	9.755583E-1	1.029489E+0	9.940077E-1	1.012470E+0	9.913786E-1	1.041433E+0	1.022996E+0	9.887763E-1	1.005020E+0	1.010962E+0	9.721910E-1	1.032937E+0	1.002007E+0	9.782317E-1	1.057299E+0	1.008185E+0	1.020347E+0	9.786608E-1	1.035375E+0	9.985255E-1	1.037127E+0	9.940087E-1	1.033897E+0	1.059108E+0	1.005188E+0	1.005638E+0	1.013488E+0	1.017146E+0	1.013465E+0	1.026092E+0	1.017518E+0	1.065123E+0	1.016350E+0	1.016890E+0	1.022438E+0	1.012201E+0	1.003304E+0	1.029714E+0	1.002197E+0	1.023698E+0	9.893986E-1	9.989734E-1	1.023584E+0	1.032391E+0	1.004379E+0	1.019649E+0	1.006675E+0	1.025663E+0	9.960778E-1	9.804657E-1	1.012816E+0	1.028746E+0	9.743599E-1	1.005352E+0	1.001582E+0	1.006384E+0	9.818000E-1	1.028043E+0	9.938505E-1	1.021240E+0	1.026112E+0	1.039862E+0	1.021304E+0	1.026588E+0	9.945044E-1	1.005934E+0	1.019055E+0	1.002825E+0	1.008263E+0	9.789745E-1	9.830912E-1	1.017248E+0	1.041846E+0	1.011153E+0	1.036004E+0	1.021481E+0	1.035439E+0	1.021048E+0	1.028691E+0	9.836094E-1	9.931093E-1	9.777493E-1	1.015335E+0	9.908309E-1	1.045658E+0	1.040936E+0	9.572564E-1	9.847794E-1	9.934547E-1	1.008841E+0	1.015968E+0	1.032157E+0	9.835457E-1	1.015823E+0	1.017746E+0	1.035549E+0	1.028327E+0	9.687818E-1	1.034607E+0	9.938289E-1	1.037063E+0	1.015792E+0	9.549402E-1
5.605090E+2	9.704662E-1	9.359151E-1	9.645969E-1	9.620291E-1	9.594376E-1	9.639641E-1	9.427372E-1	9.485258E-1	9.412841E-1	9.282134E-1	9.252713E-1	9.484075E-1	9.589190E-1	9.704171E-1	9.519871E-1	9.605022E-1	9.409385E-1	1.000930E+0	9.850655E-1	9.494512E-1	9.554527E-1	9.483610E-1	9.230674E-1	9.644546E-1	9.642870E-1	9.652281E-1	9.563795E-1	9.310778E-1	9.934002E-1	9.029517E-1	9.636480E-1	9.603951E-1	9.400810E-1	9.831995E-1	9.361260E-1	9.500312E-1	9.614701E-1	9.482661E-1	9.629745E-1	9.527449E-1	9.354868E-1	9.373699E-1	9.333389E-1	9.677982E-1	9.664256E-1	9.616519E-1	9.302031E-1	9.444334E-1	9.501011E-1	9.515306E-1	9.636415E-1	9.399101E-1	9.552768E-1	9.711974E-1	9.804921E-1	9.659124E-1	9.654321E-1	9.321005E-1	9.689094E-1	9.038924E-1	9.567410E-1	9.558086E-1	9.570295E-1	9.716421E-1	9.280564E-1	9.625291E-1	9.845698E-1	9.276026E-1	9.531772E-1	9.631076E-1	1.002289E+0	9.591936E-1	9.256059E-1	9.313961E-1	9.636425E-1	9.466487E-1	9.308297E-1	9.597944E-1	9.904792E-1	9.666775E-1	9.480929E-1	9.711235E-1	9.656277E-1	9.534386E-1	9.492810E-1	9.297593E-1	9.450399E-1	9.627349E-1	9.449674E-1	9.411640E-1	9.269530E-1	9.485539E-1	9.162994E-1	9.793251E-1	9.513059E-1	9.547579E-1	9.685735E-1	9.237722E-1	9.601227E-1	9.596548E-1	9.663886E-1	9.343783E-1	9.323355E-1	9.218420E-1	9.732690E-1	9.951108E-1	9.788614E-1	9.770127E-1	9.400254E-1	9.834004E-1	9.224251E-1	9.222486E-1	9.445105E-1	9.596019E-1	9.642532E-1	9.823204E-1	9.663701E-1	9.835783E-1	9.787988E-1	9.360926E-1	9.428725E-1	9.166902E-1	9.532357E-1	9.090540E-1	9.238174E-1	9.611012E-1	9.449818E-1	9.539731E-1	9.641244E-1	9.316293E-1	9.927077E-1	9.743036E-1	9.821971E-1	9.522494E-1	9.608055E-1	9.320756E-1	9.484679E-1	9.540130E-1	9.831005E-1	9.288410E-1	9.166724E-1	9.241345E-1	9.798442E-1	9.211222E-1	9.534163E-1	9.392211E-1	9.256113E-1	9.487637E-1	9.523136E-1	9.477955E-1	9.476929E-1	9.167130E-1	9.657282E-1	9.385346E-1	9.748162E-1	9.609324E-1	9.758048E-1	9.864813E-1	9.262156E-1	9.747201E-1	9.474247E-1	9.521626E-1	9.319692E-1	9.466577E-1	9.301114E-1	9.607332E-1	9.942512E-1	9.747099E-1	9.438374E-1	9.218244E-1	9.398429E-1
5.610070E+2	9.452509E-1	9.689135E-1	9.408123E-1	9.567013E-1	9.456153E-1	9.585744E-1	9.201224E-1	9.318946E-1	9.319964E-1	9.468352E-1	9.675732E-1	9.522768E-1	9.629152E-1	9.410553E-1	9.322420E-1	9.774593E-1	9.832772E-1	9.480515E-1	9.233427E-1	9.751483E-1	9.700956E-1	9.413649E-1	9.741939E-1	9.481206E-1	9.622336E-1	9.638727E-1	9.490092E-1	9.502423E-1	9.380099E-1	9.667057E-1	9.363763E-1	9.674274E-1	9.214317E-1	9.525291E-1	9.578177E-1	9.494794E-1	9.461512E-1	9.310018E-1	9.966725E-1	9.552326E-1	9.209427E-1	9.764903E-1	9.321689E-1	9.228332E-1	9.431704E-1	9.636520E-1	9.397352E-1	9.519932E-1	9.647749E-1	9.561464E-1	9.267962E-1	9.541514E-1	9.504847E-1	9.179576E-1	9.117685E-1	9.610098E-1	9.321841E-1	9.766827E-1	9.368095E-1	9.564158E-1	9.418628E-1	9.725448E-1	9.245877E-1	9.345350E-1	9.645696E-1	9.710278E-1	9.538784E-1	9.613375E-1	9.587059E-1	9.738089E-1	9.462574E-1	9.638636E-1	9.849592E-1	9.787403E-1	9.433577E-1	9.663992E-1	9.718119E-1	9.638885E-1	9.175472E-1	9.340853E-1	9.712104E-1	9.055647E-1	9.687413E-1	9.868493E-1	9.458783E-1	9.838190E-1	9.671006E-1	9.395415E-1	9.734581E-1	9.641883E-1	9.708314E-1	9.575931E-1	9.935728E-1	9.300567E-1	9.420176E-1	9.583694E-1	9.534429E-1	9.629566E-1	9.688014E-1	9.142187E-1	9.674584E-1	9.566188E-1	9.678994E-1	9.412466E-1	9.647745E-1	9.225608E-1	9.807481E-1	9.536209E-1	9.566191E-1	9.490234E-1	9.863637E-1	9.554109E-1	9.474461E-1	9.974222E-1	9.564438E-1	9.494819E-1	9.467639E-1	9.399007E-1	9.857510E-1	9.312503E-1	9.180711E-1	9.613726E-1	9.406574E-1	9.508125E-1	9.900419E-1	9.414593E-1	9.485363E-1	9.473910E-1	9.645211E-1	9.390441E-1	9.598125E-1	9.537403E-1	9.425524E-1	9.587157E-1	9.719459E-1	9.456875E-1	9.609544E-1	9.587124E-1	9.423267E-1	9.751768E-1	9.424527E-1	9.066989E-1	9.408163E-1	9.568778E-1	9.585914E-1	9.694954E-1	9.831912E-1	9.577235E-1	9.917799E-1	9.302624E-1	9.729437E-1	9.536233E-1	9.471190E-1	8.875948E-1	9.324622E-1	9.575841E-1	9.634542E-1	9.569819E-1	9.546291E-1	9.067850E-1	9.591243E-1	9.679523E-1	9.608539E-1	9.599027E-1	9.688902E-1	9.451772E-1	9.463457E-1	9.093072E-1	9.026189E-1	9.233785E-1	1.020948E+0
