Photon Energy (eV)	#1	#2	#3	#4	#5	#6	#7	#8	#9	#10	#11	#12	#13	#14	#15	#16	#17	#18	#19	#20	#21	#22	#23	#24	#25	#26	#27	#28	#29	#30	#31	#32	#33	#34	#35	#36	#37	#38	#39	#40	#41	#42	#43	#44	#45	#46	#47	#48	#49	#50	#51	#52	#53	#54	#55	#56	#57	#58	#59	#60	#61	#62	#63	#64	#65	#66	#67	#68	#69	#70	#71	#72	#73	#74	#75	#76	#77	#78	#79	#80	#81	#82	#83	#84	#85	#86	#87	#88	#89	#90	#91	#92	#93	#94	#95	#96	#97	#98	#99	#100	#101	#102	#103	#104	#105	#106	#107	#108	#109	#110	#111	#112	#113	#114	#115	#116	#117	#118	#119	#120	#121	#122	#123	#124	#125	#126	#127	#128	#129	#130	#131	#132	#133	#134	#135	#136	#137	#138	#139	#140	#141	#142	#143	#144	#145	#146	#147	#148	#149	#150	#151	#152	#153	#154	#155	#156	#157	#158	#159	#160	#161	#162	#163	#164	#165	#166	#167	#168	#169	#170	#171	
5.300160E+2	-1.202957E-5	-4.459712E-3	2.800943E-3	-1.470124E-2	-9.469152E-3	-3.215480E-4	-4.256130E-3	-6.607825E-3	-3.269054E-3	-9.484674E-3	1.354566E-3	-3.577048E-3	-6.737723E-3	-3.171361E-3	-4.177656E-3	1.387171E-3	-7.025648E-3	1.957782E-3	-8.016122E-4	-1.008455E-2	1.623336E-3	7.944654E-7	-2.763778E-3	-8.396370E-3	-1.642695E-3	-4.398143E-3	-4.513738E-3	-7.374012E-4	-8.035750E-3	-8.474533E-3	-1.074093E-2	-4.626408E-3	-7.004714E-3	-7.232761E-3	-8.726391E-3	1.801004E-3	-1.362555E-2	-1.010226E-3	-9.223625E-3	-1.060731E-2	-2.059213E-3	1.651669E-3	-7.624718E-3	-8.980474E-3	-9.942230E-3	-1.114226E-2	-1.012488E-2	-5.482454E-3	1.168809E-4	-2.910181E-3	-6.176159E-3	-7.931169E-3	2.587128E-3	-7.541015E-3	-9.115247E-3	-7.725511E-3	-8.662732E-3	-1.052394E-3	-9.137400E-3	-3.827397E-3	-5.035878E-3	-1.563082E-3	-8.968298E-3	-3.798374E-3	-2.625625E-3	-1.173365E-3	-6.152990E-3	-3.993136E-3	-1.038015E-2	-5.924860E-3	-4.739141E-3	-7.753679E-3	-9.926273E-3	-4.637719E-3	-1.745541E-3	-3.474541E-3	-2.300833E-4	-2.542378E-3	-5.634487E-3	-8.021874E-3	-3.996486E-3	-4.652159E-3	-3.712447E-3	-6.326869E-3	2.000603E-3	-7.388869E-3	-6.748850E-3	-6.242878E-3	-4.286936E-3	-1.164666E-2	-6.720101E-3	-2.814546E-3	-1.003864E-2	-4.364990E-3	-5.863907E-3	-3.769821E-3	-8.783352E-3	-7.181751E-3	-3.595539E-3	-3.689033E-3	-7.630531E-3	-3.557638E-3	-7.922893E-3	-5.170898E-3	-1.198064E-2	-1.760776E-3	-6.969636E-3	-3.282428E-3	-5.555771E-3	-7.020474E-3	-3.953101E-4	-1.083646E-2	-8.766630E-3	-5.914738E-6	-2.621223E-3	2.076784E-4	-2.743138E-3	-3.589185E-3	-2.365395E-3	-9.250764E-4	-5.027529E-4	-9.675878E-3	-1.023074E-2	-5.959397E-3	-4.911706E-3	-5.779584E-3	-8.986242E-3	-9.215949E-3	-1.658503E-3	-2.583059E-3	-2.661924E-3	-1.127991E-2	-4.770577E-3	-6.024247E-3	-5.212296E-3	-5.096743E-3	-1.398483E-2	-1.035978E-2	-5.290098E-3	-6.680814E-3	-6.182379E-3	-4.091718E-3	-8.430974E-3	9.749974E-5	-8.902651E-3	-8.706605E-3	-3.006144E-3	-3.946068E-3	-6.442248E-3	-4.744206E-5	-1.205959E-2	-7.502848E-3	-3.121295E-3	-6.532409E-3	-1.375631E-2	1.337713E-3	-1.004650E-2	9.721071E-4	-3.308998E-3	-7.660134E-3	-7.519017E-3	-1.481750E-3	-1.213722E-2	-8.214838E-3	-3.054594E-3	-1.024783E-2	5.649822E-4	-2.700339E-3	-7.909155E-3	-4.826609E-3	-1.468180E-2
5.305080E+2	-6.268554E-3	-4.487462E-3	-4.010783E-3	2.648847E-3	1.711314E-4	1.281862E-3	-7.385692E-4	-2.970082E-3	-2.190929E-3	-8.367392E-3	-9.142084E-3	-9.087864E-3	-8.481192E-3	-4.558709E-3	5.742479E-4	-6.621456E-3	-5.124238E-4	-6.460297E-3	-3.874414E-3	-9.030248E-4	-1.450415E-2	-3.114967E-3	-6.952099E-3	-4.338284E-3	-5.886615E-3	-8.573503E-3	3.092917E-4	-5.486753E-3	-8.846471E-3	7.998065E-4	7.830282E-3	-1.066156E-2	1.475826E-4	-7.107044E-4	3.036142E-3	-5.189823E-3	-5.673922E-3	-3.912310E-3	-6.287146E-4	-3.456641E-3	-3.086657E-3	-3.788614E-3	-4.880590E-3	9.000983E-4	2.583593E-4	-2.892836E-3	-4.873891E-3	-7.279957E-3	-6.422718E-3	-3.935716E-3	-1.897460E-3	2.671463E-3	-1.573951E-3	9.621118E-4	2.412704E-4	4.123022E-3	-6.522705E-3	2.870553E-3	-9.842714E-3	-4.829309E-3	-5.517683E-3	-7.651925E-3	-1.367748E-3	-6.436904E-3	-1.046070E-2	-2.770883E-3	-8.464445E-3	-8.089787E-4	-7.335270E-3	-4.989249E-3	-6.587935E-3	-3.013892E-3	-6.014379E-3	-1.289155E-2	-5.775021E-3	-6.523536E-3	-1.244158E-2	-2.522783E-3	6.700963E-4	-9.053244E-3	3.619722E-3	1.628295E-3	-2.687258E-4	-4.191822E-3	-5.920898E-3	-3.124634E-3	8.153816E-4	-5.760527E-3	2.536201E-3	9.848819E-4	-6.883133E-3	-2.210523E-4	-6.325642E-3	-3.880181E-4	-9.093743E-3	-3.722572E-3	-1.042523E-2	-4.661568E-3	-2.595348E-3	-3.203024E-3	-1.002630E-2	-3.574233E-3	-3.431825E-3	-4.685905E-3	3.932297E-3	-5.594258E-3	-8.162881E-3	3.691432E-3	-1.142566E-2	-2.426876E-3	5.820606E-3	-3.048424E-3	-3.084367E-3	-1.234375E-2	-2.359539E-3	-1.100474E-2	-4.043353E-3	-1.348079E-2	-5.539885E-3	-4.774857E-3	-2.369146E-3	3.795807E-3	-5.981577E-4	-9.236727E-3	4.259555E-4	-6.337750E-3	-7.382908E-3	-3.696578E-3	-4.822111E-3	3.299179E-3	-3.301441E-3	-1.770146E-3	-1.008534E-2	-5.504897E-3	-5.691598E-3	-4.025588E-3	-7.849590E-3	-7.003681E-3	-2.628371E-3	-5.660185E-3	-6.991112E-3	-1.135036E-2	-4.292148E-4	-5.094135E-3	1.726945E-3	-4.819517E-3	-7.074436E-3	2.961819E-3	-8.549485E-3	-5.570139E-3	-6.939168E-3	-9.332442E-3	-4.797585E-3	-3.739434E-3	-1.759636E-3	-5.189600E-3	-1.248186E-3	-9.180526E-3	-6.173565E-3	-4.772646E-3	-6.047713E-3	-3.275133E-3	-1.224835E-3	-8.821610E-3	-1.145464E-2	-3.404147E-3	-7.570816E-3	-2.802144E-3	-5.335542E-3	-7.419055E-3	-2.017409E-2
5.310100E+2	2.732346E-3	-7.561216E-3	-4.504040E-3	-1.605505E-3	-4.621710E-3	-8.387891E-4	-6.964381E-4	3.028620E-3	-3.254712E-3	-3.780994E-3	4.405595E-3	-1.203661E-2	-1.023521E-3	1.941318E-4	3.935098E-4	-4.280051E-3	-4.802781E-4	3.768003E-3	-5.338213E-3	6.274755E-3	-1.976567E-3	-1.088627E-2	-2.194696E-3	-1.578444E-3	-3.719245E-3	-4.032275E-3	-5.327485E-3	-5.426902E-3	-4.824571E-3	9.878315E-4	-3.477395E-3	-2.253435E-3	-6.967775E-3	-5.169833E-3	4.158773E-3	-2.443142E-3	-6.915919E-4	-1.817067E-3	-2.810618E-3	3.348664E-3	-7.669808E-3	3.377807E-4	-1.990569E-3	3.528205E-4	2.894618E-3	-2.945114E-3	-3.278750E-3	1.783133E-3	-3.308823E-3	2.639602E-3	-3.982778E-3	-4.762921E-3	-3.411572E-3	-3.700851E-3	-2.291562E-3	7.244349E-4	8.084128E-3	-6.572060E-3	1.427667E-3	-3.264510E-3	-5.939686E-3	-3.341129E-3	-3.877310E-3	-5.342817E-4	-5.698113E-3	5.485986E-3	1.927773E-3	-6.173692E-3	2.047817E-3	1.500393E-3	-1.340397E-3	-4.365999E-3	-1.363564E-3	4.767288E-3	1.893092E-3	-6.967627E-3	3.979787E-3	-1.407653E-3	-1.680832E-3	7.431706E-3	-5.452966E-3	-2.307442E-3	9.604813E-4	-1.937333E-3	-2.524638E-3	-1.129288E-3	7.010038E-3	-6.122561E-3	-7.929913E-3	6.605399E-3	-8.703976E-5	-3.288329E-3	-1.127100E-3	-3.797012E-3	-1.322698E-3	-3.136359E-3	-5.515407E-3	-2.489763E-3	-3.900381E-4	-5.336974E-3	-1.859586E-3	-6.053979E-3	-6.909876E-3	2.744756E-3	1.803035E-3	-5.526279E-3	-2.514107E-3	-2.690441E-3	9.689010E-4	-3.389172E-3	-5.416496E-3	-3.970956E-3	2.745028E-3	-7.026690E-3	5.891920E-3	-9.183297E-4	-1.027247E-2	1.986630E-3	-4.938437E-3	2.562998E-3	-3.487497E-3	2.782115E-3	-3.232580E-3	4.659306E-3	-4.835987E-3	1.848246E-4	-6.746131E-3	-9.743076E-5	-3.178652E-3	-6.187626E-3	6.392633E-3	2.321061E-3	4.295114E-3	-8.256623E-4	-5.174542E-3	1.301268E-3	5.276284E-3	-9.256810E-3	-3.626734E-3	-1.752360E-3	-4.640174E-3	-6.732543E-4	-8.438634E-3	-3.431187E-3	-6.722488E-3	-1.041628E-2	-1.865822E-3	-3.974852E-3	1.469843E-3	-3.472023E-3	2.696590E-3	-4.681724E-3	-5.894466E-3	-6.019827E-3	-7.690297E-3	-7.870935E-3	-1.220643E-3	-6.039995E-3	-3.156818E-3	-2.793893E-3	-3.909541E-4	4.509698E-3	2.594840E-3	-4.528317E-3	-2.985083E-3	-2.339847E-3	-4.287072E-3	-4.737034E-3	-1.071418E-3	3.607344E-4	1.184738E-3
5.315180E+2	-7.491482E-3	1.590419E-3	2.115916E-3	-1.269151E-3	4.992779E-4	-6.986857E-3	-3.430791E-3	-6.740018E-3	3.165972E-3	-7.065114E-4	-2.485644E-3	1.126011E-2	-1.205010E-3	-2.536695E-3	2.056036E-3	-3.568990E-3	8.256773E-4	-4.542464E-3	-4.002874E-3	9.833598E-3	-3.467465E-3	-1.092743E-3	-2.373176E-3	-4.343838E-4	-4.438833E-3	2.321358E-3	-9.316007E-3	-6.696500E-3	-3.269176E-3	-1.509362E-3	-1.834615E-3	-1.575542E-3	-7.140933E-3	-6.880195E-3	-6.835125E-3	-3.176525E-3	1.343977E-3	-7.338316E-3	5.159481E-3	-7.900309E-3	-5.783867E-3	1.931117E-6	5.089515E-3	8.906788E-3	-3.667886E-3	-1.408552E-4	9.864429E-4	2.055472E-3	5.675260E-4	1.619632E-3	-1.369933E-3	-4.945145E-3	-5.018395E-3	1.845114E-3	-6.135665E-3	-4.913861E-3	-5.209283E-4	-1.232209E-4	-2.892127E-3	1.536387E-3	5.057298E-3	9.012001E-3	5.823252E-3	-7.035978E-4	3.535640E-3	-3.354721E-4	-3.924562E-4	-6.345766E-3	-1.266179E-3	-2.565820E-3	-5.846828E-4	4.456063E-3	1.314763E-4	-1.860505E-3	-5.323786E-3	7.064149E-3	-6.342981E-3	-1.922656E-3	-1.685297E-3	1.778010E-3	-2.057528E-3	1.504200E-3	-2.951080E-4	-2.682332E-3	-1.759679E-3	8.869026E-4	-2.322006E-3	6.354646E-3	-7.562912E-3	-2.271811E-3	-5.733757E-3	4.843400E-5	2.447589E-3	3.924786E-4	3.087789E-3	-1.258415E-3	2.049464E-4	8.208689E-3	-4.923966E-4	-1.135795E-3	-2.026642E-3	7.962315E-4	-3.500522E-3	-2.935292E-3	5.046611E-4	2.467754E-4	-3.807362E-3	-1.339384E-2	-1.316899E-3	-4.087076E-3	-9.028446E-4	1.707071E-3	-3.189717E-3	4.825167E-3	-5.391252E-3	-4.034300E-3	-2.699640E-4	-1.776765E-3	-4.568625E-3	-4.845893E-3	1.600498E-3	4.062396E-4	7.399533E-3	1.815485E-3	-2.677322E-3	2.654717E-3	2.114256E-3	1.958829E-4	3.149160E-4	-3.293595E-3	-6.887796E-3	-3.485398E-3	-3.806264E-3	-6.571047E-3	-5.794593E-3	3.745856E-3	2.484758E-3	3.968183E-4	-4.352728E-3	5.122236E-3	4.182650E-3	-2.678721E-4	6.468740E-3	-1.441372E-3	2.228527E-3	-2.534801E-3	3.087991E-3	-4.692564E-3	4.961278E-3	-2.192430E-3	1.512575E-3	7.045503E-3	-5.544975E-3	1.072813E-2	6.478730E-3	-6.937274E-3	-3.158052E-3	1.016220E-2	1.433233E-4	-4.841252E-3	1.522898E-3	-6.355659E-3	-2.875506E-3	1.008613E-3	8.316693E-3	2.183080E-3	-2.633325E-3	3.057983E-3	3.955233E-3	-3.010064E-3	-2.923763E-2
5.320070E+2	5.262685E-3	5.384849E-3	1.225956E-3	3.200273E-3	3.564478E-3	-3.592211E-4	1.762105E-3	9.839935E-3	-3.876503E-3	7.852846E-3	2.657759E-3	1.297210E-2	1.154025E-2	8.626849E-3	-6.266244E-3	1.560100E-3	-2.037118E-3	-6.028178E-3	6.998870E-3	-3.645378E-3	1.345501E-2	5.576134E-4	1.178309E-3	8.270367E-3	4.676304E-3	1.106199E-2	7.507183E-3	6.775272E-3	4.361258E-3	-3.085777E-3	9.006793E-3	1.569362E-2	3.283066E-3	3.327474E-3	4.144174E-3	-2.498826E-3	6.420197E-3	4.527885E-3	7.969808E-4	2.811500E-3	1.033228E-2	-4.249178E-3	-3.155057E-3	-6.187116E-3	3.171354E-4	1.052417E-2	6.687786E-4	8.629221E-4	7.823068E-3	8.050556E-4	5.348947E-3	5.346482E-4	5.616125E-3	-1.927638E-3	5.513820E-3	6.758830E-4	4.653842E-3	2.165962E-3	4.335516E-3	5.193506E-3	1.824843E-3	-5.256018E-3	-4.814933E-3	7.085734E-3	1.087615E-3	-3.513529E-3	5.186875E-3	7.854267E-3	7.176478E-3	6.216818E-3	2.866163E-3	1.302194E-3	8.881786E-3	4.429518E-3	-5.676093E-3	-1.906825E-3	7.073266E-3	-4.624018E-3	5.067573E-4	1.947601E-3	-4.432957E-3	2.444796E-3	3.414466E-3	9.490484E-3	-3.490743E-3	3.978428E-3	1.904077E-3	5.230395E-3	6.262110E-3	2.647367E-3	9.967734E-3	-8.797487E-4	1.241043E-2	2.371331E-3	7.126000E-3	9.394729E-4	1.334928E-2	3.532334E-3	7.307385E-3	4.498381E-3	1.578310E-2	7.186886E-3	8.863368E-3	5.489806E-3	2.884587E-3	5.960123E-3	9.335140E-3	2.575413E-3	1.419719E-3	7.692685E-3	-3.385712E-3	1.272710E-2	5.898384E-3	7.731650E-4	-1.092673E-2	1.997598E-3	6.245919E-3	4.545298E-3	5.782014E-3	3.519272E-3	2.392734E-3	-2.858092E-3	-3.201148E-3	7.295947E-3	1.862823E-3	1.969881E-3	5.275261E-3	8.969360E-4	1.526431E-3	4.017231E-3	1.729938E-3	8.586972E-3	6.397061E-3	1.045674E-2	6.510837E-3	-4.484578E-3	-4.645138E-3	9.179354E-3	1.730799E-3	3.648126E-3	5.730592E-3	3.965677E-3	-1.972510E-3	-5.512217E-3	-2.813699E-4	1.344603E-2	-7.439404E-4	2.506957E-3	2.516769E-3	-3.701159E-5	3.111447E-3	3.573156E-3	2.919299E-4	3.893701E-3	7.786502E-3	-2.429611E-3	8.882195E-3	-2.979242E-3	2.732947E-3	7.377608E-3	2.682062E-3	2.656771E-3	1.043682E-2	6.002250E-3	6.411897E-3	2.888495E-3	1.083684E-2	3.246094E-3	-2.205534E-3	4.897577E-3	2.836329E-2
5.325070E+2	5.777036E-3	9.533122E-3	2.372009E-3	1.172678E-2	9.855975E-3	7.224553E-3	7.359824E-3	3.449370E-3	9.425226E-3	1.448673E-2	3.209809E-3	4.692992E-4	5.907197E-3	1.445783E-3	7.420106E-3	1.152323E-2	9.229791E-3	1.130515E-2	7.018244E-3	-1.475396E-3	4.869842E-3	1.453557E-2	1.310544E-2	6.477115E-3	1.101108E-2	3.620573E-3	1.134076E-2	1.157228E-2	2.061471E-2	1.128203E-2	-7.841373E-4	3.423319E-3	1.768277E-2	1.666602E-2	4.222428E-3	1.150731E-2	1.222689E-2	9.550034E-3	6.706496E-3	1.580409E-2	8.267265E-3	6.046412E-3	1.256142E-2	5.007883E-3	1.014000E-2	6.596889E-3	1.662230E-2	8.060884E-3	1.224066E-3	1.781607E-3	8.077383E-3	1.443312E-2	1.800664E-3	1.036228E-2	1.178738E-2	7.116032E-3	2.968396E-3	2.711161E-3	1.610906E-2	5.191323E-3	9.611106E-3	8.800152E-3	1.320504E-2	4.387424E-3	1.416118E-2	2.307263E-3	7.895243E-3	9.467305E-3	9.757304E-3	5.762719E-3	1.038599E-2	9.375313E-3	8.290953E-3	1.019296E-2	1.662735E-2	1.180838E-2	7.961594E-3	1.301949E-2	7.823761E-3	5.917801E-3	1.232022E-2	1.382310E-3	-9.866616E-5	5.647872E-3	1.169535E-2	6.777460E-3	-6.586400E-4	6.540925E-3	1.098145E-2	3.680819E-3	9.456297E-3	7.155242E-3	2.633360E-3	5.786210E-3	6.066559E-3	1.094769E-2	1.116976E-2	2.592060E-3	-2.340633E-4	8.866445E-3	5.759956E-3	5.202733E-3	1.290175E-2	4.557534E-3	2.856060E-3	6.674415E-3	1.211885E-2	1.309986E-2	1.590971E-2	9.230913E-3	4.279756E-3	3.421676E-3	6.397302E-3	1.377802E-2	1.540683E-2	1.375210E-2	1.108301E-2	1.231481E-2	1.163033E-2	4.463556E-3	2.366164E-3	5.549808E-3	9.863093E-3	1.425386E-3	1.013624E-2	7.307912E-3	1.572576E-2	1.191714E-2	7.817918E-3	4.747870E-3	4.728589E-3	5.627418E-3	7.970004E-3	8.469115E-3	1.536219E-2	8.559785E-3	1.871852E-2	1.704410E-2	1.416713E-2	5.322996E-3	7.900423E-3	1.241753E-2	1.280259E-2	1.538141E-2	1.195104E-2	1.303117E-2	9.602351E-3	7.144707E-3	6.043844E-3	1.131905E-2	1.167815E-2	1.089836E-2	1.906639E-2	1.669840E-3	8.941015E-3	2.108971E-2	6.791189E-3	7.065459E-3	9.763110E-3	1.269032E-2	9.752725E-3	3.946073E-3	3.205902E-3	1.455390E-2	2.765728E-3	1.092025E-2	3.089396E-3	3.935441E-3	1.256642E-2	9.997416E-3	3.454549E-2
5.330280E+2	2.995611E-2	2.930197E-2	2.496639E-2	3.450393E-2	1.912914E-2	2.077986E-2	2.032834E-2	2.061546E-2	1.276423E-2	1.814939E-2	2.154778E-2	1.300672E-2	1.940177E-2	2.771912E-2	3.055409E-2	3.010236E-2	2.486055E-2	2.529923E-2	8.067744E-3	1.328101E-2	1.220065E-2	2.603297E-2	2.932908E-2	1.503993E-2	2.634575E-2	1.792189E-2	1.992894E-2	2.757643E-2	1.405856E-2	2.175818E-2	2.329173E-2	1.309753E-2	1.100578E-2	2.888660E-2	1.889705E-2	2.552798E-2	2.788342E-2	2.969126E-2	2.082689E-2	2.352528E-2	1.859778E-2	1.979090E-2	1.482019E-2	2.267051E-2	2.212364E-2	1.581723E-2	2.342590E-2	1.798826E-2	1.949309E-2	2.382292E-2	1.798367E-2	1.283919E-2	2.853386E-2	1.785994E-2	2.124021E-2	1.953082E-2	1.973799E-2	1.483590E-2	8.456888E-3	1.771172E-2	2.814832E-2	2.597542E-2	2.816835E-2	1.744291E-2	2.203525E-2	2.512444E-2	3.077636E-2	2.248171E-2	1.909870E-2	1.445903E-2	1.512328E-2	2.367009E-2	1.747036E-2	6.537112E-3	1.512886E-2	1.946152E-2	2.481718E-2	1.442185E-2	2.251978E-2	1.490600E-2	1.946323E-2	1.821060E-2	2.320462E-2	2.752870E-2	2.218051E-2	1.757534E-2	2.588912E-2	1.883001E-2	1.838273E-2	2.418549E-2	2.200517E-2	2.220802E-2	1.244561E-2	1.950555E-2	1.905445E-2	1.850778E-2	1.066095E-2	2.311919E-2	1.859320E-2	3.904508E-2	2.725635E-2	3.032553E-2	1.750678E-2	2.344991E-2	1.505303E-2	2.745411E-2	1.438425E-2	3.366336E-2	1.980037E-2	2.301506E-2	3.220118E-2	2.761673E-2	1.688899E-2	2.484491E-2	2.070724E-2	2.203351E-2	1.842156E-2	3.221240E-2	1.433423E-2	1.612835E-2	2.063603E-2	3.271614E-2	8.263620E-3	2.965414E-2	1.737066E-2	1.759839E-2	2.716734E-2	1.096058E-2	2.096079E-2	2.317821E-2	1.739344E-2	1.928967E-2	3.610677E-2	1.341483E-2	1.871471E-2	1.224872E-2	2.240841E-2	8.668823E-3	2.228377E-2	2.175770E-2	1.920212E-2	1.846829E-2	2.420980E-2	2.065921E-2	1.254602E-2	2.675878E-2	3.421333E-2	2.843371E-2	3.008488E-2	3.174749E-2	2.398882E-2	3.574821E-2	1.166576E-2	3.031604E-2	3.284608E-2	3.425198E-2	1.996244E-2	2.213413E-2	1.975631E-2	2.242204E-2	3.991269E-2	1.115490E-2	2.379733E-2	3.037331E-2	2.433017E-2	2.851075E-2	3.577085E-2	2.204556E-2	1.679981E-2	1.513594E-2	1.028174E-2
5.331580E+2	2.182772E-2	2.646922E-2	1.587584E-2	2.169991E-2	2.400482E-2	1.960474E-2	2.262317E-2	2.808823E-2	3.250943E-2	3.137159E-2	2.339455E-2	2.925798E-2	3.254777E-2	2.781686E-2	2.240771E-2	1.683070E-2	3.010143E-2	1.978679E-2	1.941212E-2	2.026685E-2	1.498745E-2	3.863742E-2	2.546508E-2	2.776554E-2	2.194622E-2	3.364450E-2	1.846419E-2	2.098994E-2	2.560194E-2	2.710812E-2	1.926984E-2	1.293676E-2	5.837257E-3	2.750100E-2	2.316095E-2	2.054139E-2	3.289341E-2	4.164491E-2	2.591178E-2	2.853834E-2	3.480267E-2	2.058311E-2	3.305912E-2	2.253009E-2	2.866717E-2	3.036066E-2	2.033737E-2	2.718776E-2	2.986672E-2	2.940853E-2	3.204596E-2	2.917545E-2	2.493422E-2	3.286496E-2	2.936410E-2	3.164115E-2	2.900135E-2	3.382452E-2	3.121786E-2	3.589582E-2	3.223423E-2	2.658626E-2	2.492904E-2	3.283487E-2	1.925523E-2	3.013767E-2	3.713697E-2	2.715937E-2	1.994857E-2	2.967179E-2	3.133009E-2	2.532351E-2	1.565432E-2	2.416583E-2	2.909415E-2	2.787504E-2	1.096520E-2	1.830625E-2	2.620873E-2	3.203663E-2	2.381986E-2	2.691550E-2	8.680476E-3	2.080589E-2	2.382974E-2	3.042681E-2	1.208394E-2	2.123657E-2	1.407445E-2	1.823681E-2	3.225136E-2	1.996268E-2	2.151953E-2	2.649902E-2	2.917886E-2	1.733586E-2	1.856372E-2	3.769012E-2	2.865863E-2	2.191239E-2	3.125307E-2	2.130084E-2	3.400621E-2	2.778220E-2	2.262933E-2	3.125630E-2	1.875154E-2	3.050943E-2	2.802400E-2	2.277461E-2	2.909064E-2	3.179279E-2	3.643550E-2	2.649593E-2	2.637442E-2	3.303525E-2	2.446543E-2	2.505870E-2	2.748147E-2	3.041553E-2	3.747239E-2	3.040876E-2	1.792345E-2	3.313114E-2	2.388515E-2	2.987868E-2	2.922075E-2	1.579665E-2	3.278760E-2	1.820771E-2	2.089710E-2	1.974147E-2	2.267679E-2	2.041709E-2	2.913883E-2	2.779416E-2	2.532305E-2	2.972901E-2	1.571004E-2	2.760169E-2	4.436760E-2	3.172600E-2	2.241241E-2	3.294979E-2	2.209703E-2	2.601625E-2	1.981709E-2	3.817711E-2	1.848268E-2	2.258926E-2	2.661189E-2	2.949654E-2	1.948142E-2	2.514194E-2	1.995584E-2	3.019042E-2	2.629669E-2	2.188749E-2	3.030451E-2	2.847170E-2	3.648178E-2	1.892864E-2	1.629738E-2	2.544805E-2	2.877956E-2	2.519437E-2	3.407182E-2	2.730982E-2	1.719762E-2	3.187654E-2	6.331309E-4
5.333130E+2	2.686288E-2	3.095771E-2	3.198720E-2	2.633324E-2	3.316630E-2	3.718104E-2	2.908946E-2	3.610687E-2	3.400045E-2	3.330167E-2	3.137824E-2	3.369763E-2	4.214871E-2	3.633596E-2	3.887202E-2	3.724137E-2	3.419497E-2	3.357467E-2	3.104047E-2	2.937226E-2	3.341703E-2	2.313872E-2	2.709966E-2	3.408163E-2	5.605931E-2	4.604347E-2	3.964828E-2	3.272852E-2	2.388886E-2	3.675674E-2	4.221427E-2	3.221271E-2	3.282385E-2	3.024644E-2	3.161639E-2	3.777712E-2	4.233442E-2	3.541974E-2	3.643423E-2	3.284021E-2	3.212700E-2	3.121015E-2	3.596669E-2	3.356507E-2	3.213487E-2	3.748154E-2	3.075696E-2	2.470545E-2	3.081630E-2	4.362274E-2	3.148619E-2	2.809295E-2	3.535172E-2	4.000476E-2	2.919984E-2	4.054087E-2	3.829500E-2	3.315503E-2	2.250216E-2	1.784172E-2	4.294557E-2	3.317541E-2	4.470285E-2	3.833450E-2	3.473214E-2	2.840569E-2	3.410609E-2	3.507189E-2	2.490873E-2	4.564363E-2	3.782532E-2	3.811218E-2	3.535654E-2	2.662514E-2	3.075488E-2	2.979535E-2	4.007092E-2	4.450414E-2	3.299230E-2	3.000207E-2	3.025933E-2	3.670980E-2	2.836449E-2	2.875219E-2	3.374444E-2	3.082096E-2	4.539772E-2	3.083034E-2	3.590588E-2	3.062682E-2	3.870811E-2	4.705874E-2	3.448945E-2	2.822245E-2	3.943557E-2	3.069327E-2	3.287002E-2	3.865369E-2	3.224021E-2	3.643290E-2	3.744319E-2	3.193851E-2	3.599759E-2	3.604787E-2	3.843221E-2	3.366719E-2	1.841762E-2	2.613826E-2	3.916224E-2	3.737864E-2	3.484582E-2	3.569444E-2	3.585484E-2	2.548782E-2	4.720561E-2	2.095760E-2	2.781221E-2	4.529805E-2	3.424543E-2	4.148588E-2	4.082690E-2	4.256652E-2	3.336927E-2	5.214638E-2	2.675568E-2	2.196194E-2	4.786190E-2	2.363729E-2	3.420902E-2	4.120707E-2	3.509601E-2	1.944469E-2	3.943864E-2	3.401275E-2	3.552653E-2	4.729197E-2	3.256702E-2	2.341958E-2	3.751954E-2	2.252707E-2	3.119000E-2	3.169600E-2	3.409836E-2	2.922314E-2	2.675379E-2	3.293763E-2	3.549400E-2	3.678441E-2	3.810489E-2	4.088837E-2	4.177409E-2	3.042110E-2	2.211370E-2	3.543243E-2	2.408468E-2	2.679277E-2	3.701608E-2	3.395174E-2	3.470930E-2	2.799732E-2	5.127259E-2	3.375722E-2	2.773305E-2	3.600882E-2	3.238759E-2	3.236646E-2	4.102145E-2	3.973923E-2	4.230985E-2	5.195105E-2	2.880357E-2
5.334630E+2	4.947209E-2	4.403436E-2	4.410541E-2	3.634071E-2	3.276814E-2	4.430687E-2	4.070343E-2	4.151858E-2	3.522889E-2	4.400424E-2	5.669700E-2	4.628486E-2	5.691655E-2	3.848050E-2	3.978328E-2	4.270887E-2	5.237378E-2	3.852192E-2	2.716710E-2	4.043798E-2	4.288049E-2	2.478468E-2	3.561807E-2	4.580090E-2	4.712390E-2	3.814388E-2	4.190605E-2	3.710261E-2	4.281990E-2	4.245239E-2	4.450637E-2	3.932130E-2	3.755624E-2	5.919131E-2	5.396562E-2	5.621391E-2	5.083612E-2	4.504953E-2	6.043712E-2	4.782942E-2	6.104753E-2	4.550328E-2	3.950673E-2	5.660123E-2	4.202775E-2	3.885841E-2	4.049239E-2	4.477704E-2	5.575287E-2	4.566447E-2	4.118281E-2	4.703534E-2	3.782661E-2	5.716198E-2	3.729258E-2	4.460514E-2	3.619666E-2	5.086606E-2	3.793624E-2	4.399441E-2	5.663377E-2	5.741051E-2	3.949103E-2	4.757431E-2	5.578482E-2	3.653611E-2	4.040582E-2	7.153215E-2	4.470258E-2	4.708712E-2	4.797584E-2	5.150977E-2	4.350542E-2	5.401902E-2	4.818906E-2	4.544175E-2	4.504973E-2	4.915410E-2	4.708411E-2	5.806031E-2	4.519479E-2	4.219719E-2	3.742186E-2	4.938874E-2	4.241054E-2	5.716373E-2	5.129311E-2	4.848423E-2	5.813491E-2	4.286214E-2	5.841728E-2	5.016188E-2	3.977708E-2	5.360806E-2	6.106711E-2	3.684929E-2	4.548502E-2	4.072740E-2	4.229991E-2	5.386584E-2	5.710614E-2	4.884445E-2	3.544315E-2	5.002110E-2	3.310594E-2	5.155496E-2	5.677102E-2	4.420062E-2	4.399924E-2	5.480125E-2	4.926716E-2	4.103806E-2	4.394829E-2	4.682568E-2	5.056979E-2	5.212288E-2	4.741984E-2	4.796409E-2	3.263366E-2	3.544322E-2	5.467686E-2	5.805399E-2	4.326285E-2	5.414539E-2	4.081984E-2	4.582439E-2	4.177155E-2	4.206153E-2	4.459167E-2	4.102204E-2	4.259485E-2	5.250833E-2	5.733666E-2	4.734495E-2	4.082565E-2	5.438770E-2	3.539920E-2	4.833039E-2	4.158495E-2	4.635252E-2	3.996462E-2	5.511806E-2	3.883187E-2	4.482001E-2	4.483288E-2	5.892502E-2	3.416129E-2	4.896329E-2	5.349786E-2	4.297796E-2	5.373210E-2	4.627390E-2	3.718398E-2	5.083908E-2	3.502134E-2	5.023784E-2	4.681329E-2	4.494235E-2	6.742313E-2	4.761870E-2	4.933366E-2	4.649080E-2	5.195146E-2	5.140362E-2	4.867809E-2	5.347870E-2	4.473975E-2	5.534487E-2	5.749778E-2	4.113113E-2	2.822595E-2
5.336030E+2	6.066997E-2	5.142139E-2	5.383288E-2	5.969784E-2	5.922512E-2	5.198679E-2	4.596878E-2	5.289234E-2	6.028405E-2	5.415553E-2	6.512133E-2	5.551497E-2	6.678404E-2	6.204949E-2	5.106941E-2	6.748448E-2	5.121173E-2	6.083955E-2	4.710597E-2	5.858487E-2	6.080049E-2	6.886617E-2	5.736433E-2	4.013427E-2	7.054210E-2	7.026829E-2	6.502251E-2	6.881454E-2	7.436661E-2	5.708567E-2	5.093334E-2	6.256259E-2	6.036053E-2	5.325856E-2	6.771505E-2	7.534605E-2	6.541173E-2	6.641301E-2	6.118462E-2	5.281950E-2	5.297594E-2	5.253842E-2	6.831955E-2	5.808568E-2	5.550893E-2	6.498237E-2	5.096904E-2	6.674791E-2	6.460605E-2	5.711806E-2	6.065384E-2	6.112015E-2	5.804148E-2	5.083412E-2	6.265581E-2	5.767298E-2	5.805430E-2	6.259848E-2	7.600529E-2	5.415278E-2	6.566334E-2	5.900880E-2	5.019297E-2	5.953407E-2	4.123930E-2	5.307760E-2	6.370863E-2	5.761832E-2	6.248511E-2	6.147394E-2	5.615788E-2	5.504943E-2	5.332519E-2	4.787345E-2	5.690346E-2	6.091950E-2	5.370834E-2	6.848717E-2	6.208361E-2	4.769636E-2	7.441241E-2	5.651434E-2	5.974110E-2	5.664088E-2	5.018636E-2	6.866233E-2	4.791433E-2	6.146152E-2	6.781963E-2	4.665116E-2	5.629811E-2	5.942030E-2	5.815647E-2	6.331912E-2	5.353175E-2	4.704935E-2	7.155807E-2	5.675377E-2	6.411130E-2	7.328057E-2	5.348718E-2	5.242963E-2	5.759567E-2	6.269952E-2	6.307855E-2	6.489530E-2	6.052415E-2	6.731588E-2	6.176356E-2	5.596325E-2	6.565291E-2	6.162225E-2	5.244037E-2	5.664948E-2	6.565149E-2	6.470346E-2	5.638421E-2	6.055745E-2	4.715261E-2	5.449659E-2	5.932020E-2	4.783555E-2	6.074225E-2	7.095980E-2	6.682591E-2	5.747480E-2	4.503744E-2	5.194491E-2	6.408655E-2	6.838612E-2	6.421904E-2	4.887027E-2	7.027125E-2	5.406775E-2	5.842416E-2	6.204971E-2	5.059841E-2	4.338697E-2	7.370115E-2	6.247910E-2	5.962625E-2	5.231238E-2	4.745266E-2	7.011153E-2	5.210190E-2	7.517378E-2	6.667059E-2	5.949416E-2	6.045712E-2	4.966087E-2	4.175879E-2	6.266800E-2	6.232082E-2	7.107677E-2	5.155384E-2	6.424727E-2	6.555762E-2	7.175487E-2	6.182959E-2	5.531296E-2	6.025128E-2	4.616169E-2	5.842138E-2	5.796952E-2	6.201086E-2	5.939131E-2	6.368563E-2	5.950648E-2	8.465644E-2	5.643307E-2	6.240593E-2
5.337580E+2	7.078441E-2	7.552617E-2	8.883008E-2	8.010671E-2	6.911562E-2	8.580563E-2	8.234922E-2	9.067691E-2	7.821488E-2	7.026655E-2	8.890814E-2	7.481066E-2	7.994281E-2	8.419676E-2	9.200274E-2	7.168396E-2	7.732164E-2	8.394917E-2	5.326444E-2	7.522792E-2	7.983766E-2	8.048680E-2	8.960460E-2	7.050420E-2	1.034242E-1	1.058615E-1	7.856701E-2	1.021186E-1	8.058790E-2	7.944968E-2	8.096025E-2	9.185275E-2	8.061539E-2	8.459738E-2	8.492584E-2	7.549844E-2	7.312077E-2	8.281949E-2	8.356541E-2	9.251389E-2	9.547402E-2	9.540424E-2	7.939597E-2	8.250048E-2	8.388190E-2	8.175729E-2	9.380314E-2	8.543430E-2	8.049170E-2	7.149230E-2	8.625964E-2	8.544506E-2	8.109784E-2	7.738369E-2	7.928084E-2	8.018095E-2	8.784548E-2	6.939171E-2	8.083499E-2	9.438815E-2	8.531236E-2	7.103078E-2	8.693636E-2	8.267232E-2	8.128850E-2	9.200646E-2	8.076095E-2	8.439120E-2	8.438916E-2	8.855970E-2	8.870753E-2	9.236243E-2	8.447228E-2	7.383420E-2	7.504884E-2	7.998207E-2	8.402410E-2	7.359180E-2	8.345439E-2	7.145529E-2	7.910396E-2	9.247024E-2	8.266527E-2	8.698703E-2	8.080093E-2	9.644805E-2	8.315319E-2	8.177321E-2	9.063758E-2	6.947210E-2	8.857364E-2	8.495038E-2	8.162310E-2	7.930417E-2	9.539255E-2	8.967179E-2	8.085815E-2	9.568107E-2	7.889114E-2	8.058225E-2	8.278977E-2	7.724953E-2	1.078594E-1	8.357757E-2	8.262792E-2	8.633799E-2	8.635164E-2	8.988094E-2	8.067055E-2	8.011450E-2	9.387632E-2	9.059023E-2	7.831545E-2	9.476419E-2	6.743595E-2	7.971386E-2	8.575900E-2	9.254273E-2	8.109586E-2	6.827173E-2	8.331751E-2	8.012859E-2	8.780566E-2	8.450969E-2	6.926784E-2	9.552272E-2	7.779875E-2	7.694797E-2	8.574850E-2	7.271842E-2	7.655763E-2	8.295057E-2	8.193880E-2	8.138471E-2	8.972548E-2	9.395029E-2	8.963278E-2	7.567082E-2	6.757823E-2	7.370449E-2	8.551532E-2	9.530108E-2	9.457629E-2	9.204122E-2	8.776553E-2	8.083679E-2	8.245597E-2	9.836835E-2	9.202319E-2	7.785655E-2	9.007436E-2	8.820189E-2	7.221832E-2	8.164732E-2	9.112153E-2	7.548606E-2	8.213262E-2	9.152282E-2	8.088049E-2	7.795795E-2	8.758750E-2	8.165766E-2	7.479930E-2	8.444345E-2	7.903389E-2	8.239423E-2	9.862350E-2	7.738590E-2	9.266674E-2	8.702868E-2	9.169187E-2
5.339090E+2	1.106012E-1	1.144784E-1	1.026872E-1	1.142839E-1	1.085061E-1	1.176679E-1	1.103767E-1	1.299916E-1	1.079662E-1	1.048518E-1	1.073840E-1	1.104557E-1	1.193737E-1	1.056039E-1	1.067868E-1	1.141474E-1	1.142334E-1	1.236716E-1	1.177420E-1	9.583395E-2	1.041332E-1	1.149776E-1	1.096896E-1	1.039861E-1	1.560410E-1	1.263659E-1	1.436277E-1	1.241128E-1	1.085338E-1	1.035976E-1	1.213467E-1	1.201012E-1	1.219044E-1	1.033385E-1	1.293636E-1	1.293420E-1	1.302577E-1	1.207484E-1	1.144896E-1	1.183273E-1	1.228617E-1	1.369836E-1	1.316214E-1	1.290932E-1	1.143657E-1	1.260488E-1	1.116519E-1	1.310445E-1	1.171680E-1	1.206499E-1	1.163135E-1	1.073387E-1	1.291295E-1	1.306212E-1	1.200266E-1	1.080022E-1	1.246785E-1	1.178268E-1	1.121383E-1	1.048495E-1	1.260237E-1	1.179928E-1	1.309825E-1	1.199657E-1	1.121704E-1	1.228349E-1	1.213496E-1	1.212894E-1	1.170773E-1	1.115857E-1	1.327391E-1	1.154092E-1	1.320394E-1	1.031589E-1	1.149473E-1	1.235119E-1	1.229979E-1	1.385515E-1	1.263736E-1	1.207193E-1	1.147914E-1	1.363138E-1	1.118584E-1	1.464535E-1	1.041936E-1	1.248361E-1	1.167474E-1	1.318352E-1	1.265990E-1	1.237406E-1	1.361945E-1	1.030695E-1	9.989569E-2	1.277787E-1	1.324801E-1	1.211536E-1	1.339106E-1	1.357580E-1	1.218452E-1	1.029178E-1	1.308898E-1	1.342049E-1	1.260864E-1	1.091034E-1	1.185899E-1	1.081024E-1	1.204849E-1	1.310709E-1	1.234100E-1	1.038737E-1	1.183470E-1	1.255962E-1	1.240297E-1	1.093275E-1	1.265515E-1	1.395182E-1	1.201094E-1	1.145291E-1	1.300825E-1	1.238742E-1	1.168042E-1	1.136717E-1	1.335477E-1	1.128532E-1	1.167067E-1	1.247908E-1	1.430943E-1	1.240354E-1	1.482586E-1	1.212338E-1	1.180050E-1	1.269500E-1	1.419932E-1	1.175352E-1	1.144883E-1	1.433542E-1	1.167413E-1	1.217615E-1	1.153447E-1	1.327369E-1	1.343558E-1	1.083144E-1	1.233620E-1	1.243659E-1	1.195899E-1	1.097729E-1	1.049345E-1	1.237965E-1	1.044548E-1	1.214204E-1	1.145899E-1	1.273306E-1	1.241261E-1	1.161597E-1	1.154040E-1	1.090423E-1	1.187997E-1	1.097827E-1	1.400554E-1	1.206531E-1	1.279853E-1	1.196379E-1	1.297112E-1	1.227999E-1	1.253814E-1	1.124211E-1	1.151507E-1	1.295417E-1	1.397713E-1	1.561203E-1	9.013320E-2
5.340740E+2	1.963805E-1	1.922099E-1	1.784159E-1	1.785377E-1	1.906318E-1	1.638833E-1	1.795043E-1	1.904525E-1	2.059209E-1	1.867070E-1	1.664141E-1	1.637490E-1	1.909817E-1	1.902106E-1	1.961746E-1	1.838914E-1	1.726007E-1	1.955529E-1	1.821939E-1	1.761625E-1	1.531301E-1	1.761032E-1	1.919303E-1	1.589212E-1	2.756536E-1	2.329927E-1	2.256513E-1	2.055740E-1	2.078056E-1	2.095166E-1	2.285806E-1	2.074504E-1	1.916559E-1	2.128914E-1	2.098635E-1	2.086032E-1	2.054390E-1	1.993516E-1	2.153548E-1	2.015298E-1	1.880630E-1	1.953938E-1	2.005070E-1	1.852734E-1	1.909359E-1	2.163157E-1	2.047275E-1	1.977468E-1	2.217891E-1	2.066959E-1	1.954822E-1	2.081586E-1	1.788408E-1	1.905276E-1	2.062623E-1	1.957965E-1	1.846911E-1	1.875616E-1	1.884692E-1	1.733049E-1	2.112374E-1	1.780775E-1	1.970371E-1	2.006742E-1	1.727177E-1	1.872584E-1	2.002066E-1	2.076337E-1	1.841559E-1	2.010468E-1	1.877943E-1	2.154650E-1	1.889940E-1	1.860895E-1	1.928832E-1	2.199574E-1	1.986721E-1	2.049602E-1	1.985503E-1	2.028956E-1	1.817961E-1	2.096450E-1	1.728275E-1	2.000809E-1	2.079212E-1	1.987421E-1	1.961741E-1	1.745982E-1	1.837785E-1	1.802243E-1	2.138764E-1	2.055606E-1	1.993154E-1	1.845167E-1	1.908232E-1	1.993189E-1	1.902308E-1	2.008659E-1	1.983211E-1	2.183210E-1	1.984787E-1	1.935167E-1	2.055812E-1	1.926665E-1	1.976124E-1	1.835231E-1	1.878240E-1	1.802535E-1	1.876992E-1	1.650852E-1	1.789126E-1	1.778380E-1	2.119728E-1	1.977467E-1	1.750106E-1	2.115438E-1	1.979171E-1	2.025525E-1	1.989041E-1	1.907493E-1	2.107697E-1	1.888020E-1	1.947887E-1	1.908474E-1	1.977596E-1	2.006925E-1	2.068539E-1	2.008405E-1	1.933743E-1	1.946854E-1	1.856550E-1	1.887495E-1	1.961522E-1	1.973203E-1	1.869371E-1	2.030886E-1	1.995394E-1	1.998984E-1	1.887355E-1	2.041858E-1	2.032019E-1	2.065911E-1	1.946227E-1	1.921468E-1	1.874208E-1	1.843667E-1	2.025109E-1	1.784476E-1	1.865168E-1	2.022954E-1	1.806726E-1	2.039073E-1	1.757256E-1	2.086663E-1	1.964029E-1	1.945640E-1	1.919461E-1	2.095089E-1	1.810339E-1	2.203545E-1	2.064857E-1	1.932397E-1	1.808450E-1	1.997136E-1	1.802414E-1	1.747450E-1	1.872824E-1	2.127513E-1	2.168281E-1	1.942960E-1	2.203667E-1
5.342090E+2	3.027469E-1	3.033836E-1	2.943474E-1	2.996754E-1	3.293321E-1	3.167674E-1	2.975417E-1	2.977830E-1	3.077733E-1	3.068498E-1	3.108260E-1	3.123949E-1	3.075653E-1	3.031663E-1	3.030550E-1	2.888005E-1	2.969823E-1	2.960481E-1	2.906109E-1	2.993544E-1	2.998690E-1	2.749842E-1	2.747270E-1	3.050371E-1	3.962808E-1	4.059600E-1	3.618154E-1	3.527496E-1	3.342666E-1	3.487387E-1	3.576517E-1	3.628386E-1	3.357312E-1	3.488490E-1	3.402159E-1	3.461231E-1	3.464553E-1	3.314668E-1	3.449419E-1	3.382183E-1	3.500230E-1	3.361946E-1	3.452038E-1	3.397303E-1	3.364039E-1	3.271878E-1	3.550151E-1	3.377801E-1	3.290425E-1	3.184019E-1	3.298647E-1	3.279052E-1	3.407462E-1	3.223345E-1	3.332418E-1	3.506091E-1	3.466401E-1	3.476417E-1	3.291878E-1	3.191864E-1	3.436157E-1	3.179826E-1	3.312785E-1	3.322598E-1	3.339530E-1	3.382105E-1	3.421983E-1	3.101114E-1	3.106788E-1	3.332100E-1	3.410378E-1	3.307258E-1	3.398212E-1	2.986118E-1	3.268713E-1	3.197474E-1	3.402852E-1	3.135151E-1	3.360009E-1	3.301102E-1	3.118381E-1	3.180531E-1	3.306240E-1	3.175226E-1	3.201246E-1	3.310611E-1	3.215439E-1	3.185300E-1	3.322671E-1	3.176680E-1	3.277040E-1	3.508598E-1	3.249320E-1	3.289922E-1	3.178529E-1	3.294952E-1	3.377833E-1	3.378175E-1	3.337656E-1	3.075032E-1	3.356988E-1	3.105327E-1	3.236055E-1	3.346285E-1	3.311616E-1	3.339144E-1	3.342253E-1	3.375191E-1	3.256493E-1	3.281225E-1	3.146493E-1	3.075417E-1	3.316002E-1	3.192125E-1	3.306504E-1	3.512266E-1	3.451565E-1	2.981121E-1	3.137286E-1	3.061137E-1	3.479389E-1	3.276285E-1	3.168489E-1	3.125892E-1	3.274103E-1	3.066049E-1	3.126648E-1	3.351843E-1	3.192208E-1	3.215027E-1	3.309322E-1	3.286708E-1	3.600973E-1	3.180903E-1	3.135641E-1	3.401397E-1	3.258266E-1	3.283315E-1	3.289578E-1	3.297586E-1	3.095348E-1	3.164834E-1	3.183198E-1	3.422039E-1	3.202323E-1	3.565395E-1	3.349538E-1	3.251838E-1	3.294787E-1	3.196140E-1	3.348501E-1	3.321770E-1	3.244392E-1	3.185180E-1	3.105386E-1	3.205300E-1	3.263629E-1	3.029908E-1	3.327531E-1	3.199252E-1	3.096651E-1	2.917355E-1	3.177678E-1	3.148451E-1	3.475106E-1	3.063786E-1	3.332517E-1	3.348212E-1	3.388956E-1	3.403123E-1	3.166194E-1
5.343600E+2	5.530743E-1	5.631386E-1	5.240810E-1	5.523556E-1	5.193516E-1	5.325116E-1	5.367571E-1	5.607771E-1	5.430170E-1	5.774061E-1	5.572541E-1	5.758910E-1	5.743289E-1	5.612298E-1	5.663795E-1	5.564498E-1	5.752735E-1	5.799601E-1	5.479269E-1	5.799454E-1	5.486826E-1	5.627382E-1	5.386637E-1	5.538454E-1	7.008262E-1	6.576938E-1	6.311371E-1	6.308802E-1	6.265850E-1	6.105451E-1	6.209911E-1	6.143420E-1	6.022524E-1	6.213702E-1	6.238283E-1	6.336520E-1	5.943470E-1	6.161508E-1	5.916854E-1	5.789096E-1	6.318070E-1	6.154505E-1	6.307843E-1	5.728445E-1	5.980525E-1	6.308199E-1	6.075724E-1	5.714120E-1	5.986552E-1	6.277140E-1	5.936591E-1	5.878984E-1	6.049976E-1	5.970748E-1	6.028521E-1	5.800626E-1	6.149134E-1	6.059441E-1	6.382612E-1	5.665188E-1	6.314709E-1	5.741141E-1	5.353682E-1	5.965842E-1	5.661476E-1	6.192537E-1	5.545591E-1	5.765362E-1	5.965181E-1	5.551253E-1	5.973885E-1	5.715498E-1	5.993355E-1	5.871100E-1	5.955646E-1	5.676739E-1	6.268020E-1	5.853874E-1	5.577177E-1	5.938629E-1	5.646074E-1	5.875452E-1	6.252402E-1	5.682741E-1	5.994874E-1	5.745136E-1	5.683207E-1	5.876466E-1	5.839939E-1	6.059723E-1	5.686306E-1	5.896225E-1	5.687323E-1	6.017692E-1	5.567778E-1	5.862728E-1	5.571073E-1	6.012377E-1	6.006969E-1	6.077384E-1	5.789018E-1	5.748455E-1	6.056961E-1	5.863666E-1	5.660542E-1	6.022751E-1	5.752358E-1	5.786545E-1	5.701693E-1	5.614043E-1	5.918424E-1	5.980134E-1	5.695198E-1	5.626236E-1	5.905832E-1	5.737523E-1	5.608806E-1	6.134351E-1	5.492692E-1	6.044017E-1	5.678671E-1	5.720418E-1	5.950741E-1	5.940977E-1	5.832786E-1	5.992310E-1	5.706896E-1	5.919328E-1	5.801809E-1	5.963155E-1	5.804601E-1	6.139419E-1	5.974183E-1	5.877592E-1	5.744356E-1	5.960805E-1	5.881752E-1	5.915169E-1	5.676731E-1	5.864148E-1	6.038966E-1	5.981591E-1	5.860262E-1	5.947655E-1	5.834274E-1	5.772356E-1	5.996470E-1	5.528287E-1	5.832959E-1	5.827246E-1	5.737715E-1	5.564608E-1	6.315096E-1	5.403820E-1	5.772044E-1	5.653152E-1	5.902405E-1	5.750553E-1	5.544872E-1	6.151965E-1	6.103021E-1	6.043264E-1	5.877936E-1	5.487933E-1	5.842801E-1	6.063212E-1	5.783298E-1	5.831536E-1	6.140185E-1	5.970848E-1	5.593962E-1
5.345050E+2	8.884092E-1	8.866762E-1	8.496267E-1	9.156914E-1	8.964285E-1	9.312528E-1	8.579110E-1	8.857905E-1	9.399146E-1	8.942546E-1	8.534627E-1	8.848248E-1	8.660082E-1	8.804082E-1	8.898691E-1	9.214035E-1	9.020945E-1	8.989796E-1	8.919433E-1	9.304539E-1	8.838007E-1	9.093388E-1	8.903969E-1	9.224995E-1	1.021533E+0	1.011103E+0	9.917259E-1	9.669056E-1	9.893442E-1	9.448797E-1	9.593249E-1	9.791655E-1	9.935324E-1	9.881396E-1	9.544384E-1	9.712616E-1	1.015750E+0	9.792345E-1	9.340164E-1	9.498293E-1	9.793910E-1	9.170500E-1	9.817233E-1	9.288373E-1	9.366295E-1	9.490174E-1	9.919111E-1	9.292581E-1	9.389785E-1	9.431371E-1	9.656760E-1	9.629319E-1	9.562262E-1	9.607709E-1	9.434760E-1	9.082432E-1	9.037486E-1	9.551779E-1	9.857968E-1	8.846405E-1	9.887687E-1	9.443614E-1	9.254642E-1	9.606817E-1	9.103572E-1	9.442693E-1	8.836539E-1	9.869414E-1	9.393398E-1	9.752460E-1	9.246099E-1	9.149091E-1	9.392146E-1	9.253560E-1	9.227246E-1	9.231587E-1	9.040463E-1	9.405766E-1	9.359278E-1	9.290436E-1	8.911102E-1	9.499987E-1	9.244136E-1	9.081272E-1	9.236264E-1	9.357459E-1	8.951600E-1	9.427044E-1	9.665431E-1	9.224967E-1	9.097304E-1	9.344309E-1	9.114603E-1	9.101397E-1	9.791920E-1	9.394110E-1	9.343227E-1	9.082463E-1	9.622615E-1	9.583122E-1	9.656072E-1	8.924411E-1	9.419371E-1	9.174841E-1	9.627319E-1	8.961394E-1	9.173508E-1	9.540706E-1	9.148020E-1	9.001622E-1	9.429751E-1	9.097192E-1	8.935416E-1	8.874158E-1	9.476821E-1	9.027174E-1	9.211593E-1	9.194344E-1	9.318743E-1	9.600146E-1	9.518223E-1	9.379937E-1	9.587224E-1	8.957680E-1	8.898593E-1	9.439062E-1	9.535697E-1	8.849268E-1	9.184933E-1	8.974850E-1	9.207032E-1	9.047072E-1	9.548316E-1	8.852390E-1	8.868721E-1	9.254530E-1	9.183507E-1	9.422891E-1	8.804712E-1	9.001024E-1	9.235791E-1	9.169639E-1	9.279261E-1	9.622047E-1	9.258507E-1	9.546067E-1	9.012709E-1	8.904053E-1	9.249139E-1	8.971576E-1	9.106813E-1	9.262643E-1	8.872623E-1	9.659392E-1	8.822452E-1	9.147146E-1	8.632648E-1	9.028201E-1	9.269278E-1	8.880167E-1	9.580789E-1	9.476060E-1	9.343130E-1	9.068214E-1	9.344758E-1	8.985393E-1	9.285474E-1	9.181364E-1	9.792715E-1	9.260923E-1	9.707485E-1
5.346620E+2	1.375946E+0	1.315889E+0	1.260402E+0	1.298291E+0	1.343025E+0	1.301333E+0	1.303750E+0	1.317202E+0	1.346509E+0	1.357581E+0	1.339767E+0	1.304515E+0	1.313867E+0	1.320885E+0	1.348677E+0	1.315913E+0	1.346863E+0	1.290567E+0	1.315714E+0	1.287744E+0	1.323379E+0	1.302949E+0	1.321693E+0	1.346435E+0	1.472198E+0	1.416009E+0	1.383134E+0	1.349672E+0	1.397563E+0	1.354593E+0	1.396042E+0	1.394646E+0	1.321502E+0	1.377170E+0	1.360089E+0	1.312770E+0	1.375468E+0	1.398039E+0	1.361626E+0	1.411302E+0	1.382403E+0	1.319595E+0	1.390962E+0	1.316318E+0	1.332422E+0	1.369320E+0	1.371735E+0	1.333196E+0	1.348350E+0	1.364097E+0	1.389098E+0	1.353767E+0	1.377774E+0	1.392292E+0	1.296265E+0	1.325090E+0	1.354241E+0	1.346255E+0	1.366758E+0	1.335756E+0	1.335352E+0	1.336558E+0	1.297607E+0	1.322077E+0	1.280977E+0	1.341967E+0	1.310415E+0	1.339571E+0	1.373309E+0	1.330115E+0	1.271779E+0	1.330598E+0	1.331885E+0	1.362332E+0	1.264214E+0	1.296663E+0	1.336241E+0	1.327858E+0	1.373325E+0	1.373588E+0	1.317764E+0	1.326903E+0	1.303136E+0	1.303853E+0	1.362096E+0	1.317264E+0	1.336854E+0	1.324159E+0	1.346590E+0	1.354542E+0	1.365805E+0	1.355595E+0	1.328917E+0	1.353262E+0	1.331395E+0	1.325830E+0	1.387462E+0	1.336754E+0	1.295793E+0	1.285660E+0	1.300320E+0	1.337055E+0	1.338569E+0	1.312127E+0	1.347860E+0	1.264423E+0	1.266055E+0	1.299249E+0	1.311588E+0	1.301971E+0	1.291700E+0	1.379633E+0	1.337375E+0	1.318967E+0	1.327628E+0	1.376462E+0	1.355768E+0	1.270316E+0	1.300734E+0	1.308438E+0	1.325115E+0	1.292302E+0	1.286970E+0	1.300259E+0	1.268530E+0	1.335191E+0	1.323867E+0	1.334053E+0	1.317176E+0	1.308018E+0	1.338915E+0	1.336244E+0	1.370763E+0	1.380181E+0	1.330128E+0	1.301613E+0	1.295541E+0	1.313238E+0	1.256729E+0	1.301106E+0	1.362642E+0	1.292506E+0	1.258618E+0	1.320870E+0	1.335615E+0	1.379171E+0	1.262194E+0	1.314332E+0	1.373724E+0	1.362185E+0	1.282732E+0	1.344581E+0	1.391557E+0	1.366621E+0	1.320405E+0	1.271103E+0	1.317234E+0	1.278173E+0	1.306409E+0	1.317071E+0	1.291888E+0	1.278732E+0	1.276653E+0	1.312319E+0	1.287668E+0	1.327234E+0	1.288995E+0	1.333870E+0	1.337928E+0	1.329327E+0	1.385337E+0
5.348070E+2	1.819334E+0	1.679702E+0	1.677635E+0	1.676172E+0	1.732894E+0	1.772492E+0	1.736435E+0	1.716772E+0	1.712387E+0	1.694343E+0	1.672143E+0	1.648932E+0	1.683929E+0	1.637801E+0	1.741819E+0	1.723165E+0	1.670352E+0	1.755492E+0	1.675660E+0	1.705603E+0	1.667171E+0	1.722562E+0	1.611527E+0	1.700685E+0	1.737637E+0	1.700129E+0	1.741984E+0	1.733491E+0	1.729318E+0	1.672006E+0	1.788049E+0	1.702046E+0	1.680148E+0	1.702675E+0	1.742098E+0	1.707760E+0	1.745466E+0	1.724467E+0	1.713199E+0	1.678254E+0	1.712988E+0	1.695631E+0	1.760425E+0	1.652019E+0	1.700460E+0	1.733088E+0	1.738102E+0	1.653282E+0	1.691405E+0	1.709948E+0	1.761715E+0	1.664585E+0	1.772739E+0	1.796091E+0	1.682114E+0	1.632475E+0	1.707139E+0	1.769435E+0	1.730932E+0	1.660736E+0	1.714231E+0	1.644431E+0	1.664788E+0	1.698478E+0	1.686464E+0	1.775888E+0	1.638882E+0	1.673216E+0	1.726750E+0	1.676522E+0	1.716072E+0	1.700139E+0	1.714820E+0	1.684424E+0	1.609752E+0	1.654743E+0	1.709348E+0	1.717308E+0	1.666370E+0	1.708984E+0	1.691425E+0	1.645858E+0	1.679536E+0	1.634162E+0	1.711229E+0	1.678931E+0	1.673708E+0	1.686943E+0	1.690571E+0	1.679899E+0	1.697136E+0	1.734089E+0	1.655098E+0	1.671729E+0	1.658526E+0	1.640824E+0	1.743578E+0	1.672481E+0	1.687107E+0	1.677450E+0	1.694359E+0	1.636392E+0	1.688283E+0	1.655750E+0	1.679058E+0	1.647638E+0	1.595837E+0	1.741324E+0	1.645639E+0	1.662641E+0	1.631869E+0	1.688009E+0	1.671077E+0	1.660814E+0	1.652440E+0	1.658001E+0	1.739245E+0	1.651048E+0	1.637214E+0	1.621059E+0	1.630929E+0	1.644898E+0	1.614636E+0	1.610368E+0	1.679267E+0	1.702260E+0	1.716265E+0	1.633345E+0	1.692532E+0	1.656958E+0	1.709083E+0	1.613696E+0	1.707706E+0	1.623654E+0	1.634423E+0	1.648013E+0	1.616525E+0	1.670781E+0	1.616012E+0	1.695315E+0	1.680429E+0	1.676232E+0	1.616124E+0	1.700631E+0	1.741459E+0	1.718095E+0	1.662095E+0	1.630952E+0	1.742975E+0	1.667322E+0	1.596592E+0	1.629857E+0	1.634922E+0	1.684609E+0	1.635732E+0	1.674540E+0	1.682660E+0	1.589776E+0	1.712699E+0	1.626648E+0	1.658227E+0	1.683850E+0	1.617653E+0	1.613654E+0	1.699480E+0	1.624605E+0	1.637116E+0	1.685976E+0	1.633319E+0	1.656194E+0	1.706655E+0
5.349530E+2	2.094447E+0	1.959204E+0	1.903957E+0	1.950588E+0	1.957413E+0	2.011814E+0	1.938487E+0	1.978184E+0	1.958774E+0	1.976888E+0	1.999135E+0	1.946692E+0	1.989781E+0	1.989542E+0	2.044865E+0	1.951315E+0	2.015206E+0	1.996464E+0	1.944300E+0	1.974597E+0	1.980859E+0	1.986046E+0	1.913574E+0	1.998441E+0	1.900832E+0	1.922699E+0	1.984006E+0	1.940578E+0	1.980915E+0	1.908865E+0	1.907406E+0	2.007690E+0	2.034126E+0	1.988925E+0	1.982920E+0	1.923230E+0	1.953382E+0	1.958970E+0	1.924121E+0	1.934164E+0	1.989940E+0	1.902521E+0	1.940776E+0	1.926083E+0	2.008574E+0	1.989896E+0	1.945202E+0	1.876120E+0	1.941624E+0	1.966584E+0	1.967138E+0	1.909685E+0	1.894606E+0	1.915361E+0	1.909240E+0	1.923054E+0	1.947129E+0	1.996640E+0	1.987466E+0	1.878853E+0	1.994686E+0	1.890591E+0	1.912784E+0	1.898873E+0	1.907874E+0	1.939960E+0	1.910855E+0	1.968507E+0	1.943726E+0	1.934132E+0	1.902862E+0	1.927123E+0	1.958198E+0	1.952694E+0	1.843323E+0	1.921838E+0	1.966173E+0	1.945748E+0	1.884790E+0	1.946268E+0	1.870611E+0	1.903004E+0	1.922703E+0	1.859011E+0	1.929036E+0	1.892109E+0	1.942312E+0	1.931876E+0	1.976147E+0	1.996845E+0	1.948591E+0	1.946707E+0	1.887531E+0	1.962011E+0	1.890724E+0	1.924240E+0	1.989646E+0	1.950281E+0	1.882819E+0	1.872834E+0	1.902393E+0	1.919790E+0	1.865616E+0	1.847590E+0	1.950389E+0	1.880514E+0	1.893029E+0	1.923326E+0	1.927419E+0	1.911187E+0	1.932855E+0	1.885211E+0	1.999974E+0	1.918049E+0	1.903219E+0	2.012858E+0	1.956266E+0	1.902237E+0	1.901085E+0	1.961684E+0	1.916076E+0	1.877201E+0	1.898264E+0	1.901523E+0	1.911203E+0	1.902449E+0	1.932146E+0	1.922667E+0	1.926360E+0	1.901463E+0	1.912814E+0	1.929758E+0	2.014954E+0	1.924264E+0	1.919022E+0	1.933385E+0	1.918357E+0	1.933418E+0	1.876008E+0	1.874519E+0	1.916584E+0	1.888690E+0	1.932017E+0	1.910372E+0	1.916945E+0	1.905068E+0	1.842424E+0	1.830179E+0	1.956618E+0	1.899593E+0	1.814950E+0	1.898054E+0	1.946218E+0	1.917564E+0	1.851683E+0	1.907389E+0	1.925626E+0	1.916608E+0	1.837190E+0	1.845563E+0	1.844324E+0	1.880136E+0	1.813046E+0	1.849643E+0	1.930635E+0	1.868118E+0	1.845517E+0	1.921586E+0	1.873723E+0	1.919889E+0	1.823365E+0
5.351140E+2	2.129865E+0	2.045159E+0	2.071795E+0	2.044273E+0	2.050169E+0	2.060635E+0	2.067069E+0	2.056256E+0	2.100265E+0	2.043163E+0	2.033645E+0	2.038523E+0	2.039388E+0	2.016765E+0	2.055359E+0	2.098889E+0	2.122040E+0	2.110068E+0	2.032053E+0	2.134299E+0	2.123235E+0	2.058855E+0	2.039000E+0	2.064353E+0	2.014794E+0	1.944448E+0	1.954715E+0	2.017815E+0	2.048463E+0	1.946642E+0	1.992904E+0	2.001155E+0	2.016275E+0	2.132786E+0	2.042443E+0	1.989057E+0	2.062466E+0	2.065441E+0	2.022686E+0	2.007414E+0	2.016011E+0	2.025351E+0	2.074707E+0	2.026897E+0	1.962123E+0	2.090237E+0	2.034699E+0	1.917067E+0	1.968266E+0	2.052703E+0	2.072637E+0	2.098100E+0	2.073222E+0	2.005637E+0	2.009936E+0	1.991253E+0	2.022706E+0	2.045027E+0	2.098601E+0	2.006460E+0	2.076798E+0	1.949137E+0	1.994718E+0	2.044048E+0	1.949886E+0	1.987222E+0	1.965158E+0	2.040810E+0	2.054387E+0	2.025108E+0	2.068676E+0	2.052740E+0	1.991420E+0	2.043319E+0	1.966931E+0	1.967461E+0	2.042487E+0	2.006963E+0	1.962634E+0	2.031866E+0	2.009841E+0	2.029433E+0	2.022976E+0	1.995632E+0	2.002401E+0	2.033076E+0	1.995341E+0	1.964087E+0	1.997359E+0	2.069130E+0	1.970178E+0	2.058223E+0	1.970472E+0	1.984609E+0	2.079810E+0	1.997738E+0	2.047665E+0	1.910959E+0	1.995677E+0	1.945649E+0	2.017937E+0	1.915800E+0	1.970056E+0	2.024758E+0	2.053982E+0	1.976011E+0	2.042007E+0	2.010725E+0	1.962572E+0	1.975216E+0	1.968752E+0	2.009943E+0	1.993295E+0	2.011470E+0	1.977314E+0	2.002879E+0	2.018336E+0	1.997287E+0	1.982513E+0	1.976127E+0	1.985374E+0	1.906402E+0	1.912756E+0	1.940832E+0	1.995160E+0	1.966603E+0	2.009252E+0	2.010771E+0	2.047823E+0	2.054141E+0	2.045793E+0	1.981108E+0	2.025244E+0	1.973035E+0	1.973860E+0	2.052803E+0	1.997423E+0	2.009406E+0	1.913070E+0	1.960751E+0	1.984120E+0	2.041662E+0	1.993294E+0	1.927990E+0	2.059199E+0	2.029035E+0	1.963237E+0	1.916805E+0	2.021053E+0	2.006847E+0	1.938179E+0	1.936244E+0	2.020599E+0	2.028781E+0	1.976277E+0	1.994457E+0	1.948314E+0	1.956458E+0	1.985468E+0	1.952627E+0	1.929340E+0	1.952570E+0	1.901199E+0	1.901441E+0	2.021365E+0	2.001366E+0	1.961075E+0	2.023617E+0	1.960703E+0	2.005093E+0	2.020868E+0
5.352600E+2	2.057455E+0	1.941545E+0	1.921999E+0	1.933974E+0	1.945100E+0	1.963134E+0	1.938075E+0	1.911671E+0	1.996037E+0	1.933506E+0	1.938261E+0	1.917140E+0	1.912839E+0	1.943293E+0	1.963951E+0	1.926249E+0	1.930629E+0	1.915373E+0	1.950154E+0	1.933285E+0	1.915608E+0	1.962434E+0	1.879895E+0	1.960573E+0	1.896267E+0	1.890453E+0	1.864420E+0	1.840148E+0	1.888594E+0	1.856991E+0	1.880874E+0	1.887885E+0	1.891463E+0	1.971283E+0	1.895172E+0	1.920657E+0	1.922184E+0	1.838871E+0	1.870169E+0	1.866748E+0	1.933062E+0	1.873717E+0	1.908905E+0	1.863692E+0	1.926321E+0	1.907094E+0	1.903664E+0	1.869102E+0	1.895079E+0	1.942783E+0	1.944268E+0	1.843125E+0	1.904029E+0	1.913132E+0	1.904556E+0	1.843981E+0	1.835730E+0	1.918894E+0	1.915454E+0	1.863758E+0	1.956300E+0	1.832651E+0	1.848746E+0	1.853591E+0	1.828284E+0	1.868734E+0	1.800229E+0	1.907727E+0	1.866072E+0	1.915035E+0	1.925850E+0	1.939259E+0	1.938528E+0	1.860076E+0	1.843401E+0	1.905167E+0	1.942230E+0	1.922106E+0	1.907546E+0	1.874860E+0	1.917167E+0	1.842866E+0	1.884261E+0	1.853269E+0	1.904248E+0	1.920562E+0	1.830004E+0	1.861008E+0	1.916696E+0	1.870811E+0	1.873494E+0	1.901357E+0	1.836520E+0	1.875981E+0	1.887087E+0	1.881300E+0	1.838267E+0	1.844209E+0	1.872966E+0	1.923560E+0	1.893004E+0	1.841516E+0	1.869918E+0	1.904452E+0	1.915475E+0	1.843597E+0	1.901262E+0	1.885222E+0	1.867439E+0	1.911415E+0	1.885725E+0	1.876922E+0	1.915964E+0	1.893061E+0	1.913179E+0	1.876918E+0	1.909780E+0	1.826368E+0	1.850410E+0	1.801242E+0	1.862130E+0	1.819767E+0	1.842447E+0	1.836040E+0	1.859286E+0	1.831177E+0	1.848037E+0	1.869398E+0	1.918096E+0	1.877625E+0	1.907573E+0	1.874380E+0	1.894919E+0	1.917540E+0	1.926261E+0	1.901667E+0	1.873532E+0	1.892365E+0	1.867950E+0	1.834697E+0	1.853843E+0	1.853844E+0	1.872915E+0	1.897244E+0	1.883114E+0	1.871726E+0	1.774625E+0	1.741513E+0	1.885329E+0	1.862556E+0	1.846161E+0	1.829480E+0	1.913747E+0	1.855015E+0	1.838100E+0	1.773703E+0	1.840139E+0	1.900369E+0	1.852014E+0	1.778996E+0	1.869022E+0	1.837022E+0	1.849396E+0	1.807321E+0	1.858112E+0	1.879799E+0	1.821309E+0	1.809829E+0	1.837779E+0	1.882945E+0	1.809387E+0
5.354010E+2	1.789299E+0	1.726915E+0	1.670653E+0	1.705061E+0	1.698280E+0	1.781250E+0	1.704906E+0	1.754609E+0	1.659134E+0	1.663561E+0	1.681689E+0	1.699061E+0	1.707433E+0	1.700433E+0	1.716820E+0	1.684890E+0	1.684144E+0	1.728258E+0	1.709984E+0	1.688545E+0	1.694582E+0	1.804452E+0	1.680179E+0	1.705216E+0	1.617873E+0	1.647630E+0	1.642597E+0	1.670875E+0	1.726644E+0	1.629229E+0	1.604215E+0	1.676873E+0	1.690870E+0	1.748546E+0	1.697113E+0	1.694447E+0	1.693456E+0	1.681635E+0	1.691001E+0	1.693977E+0	1.641768E+0	1.673859E+0	1.704081E+0	1.677923E+0	1.672719E+0	1.625777E+0	1.702960E+0	1.643632E+0	1.708960E+0	1.679781E+0	1.764218E+0	1.700830E+0	1.697702E+0	1.723617E+0	1.686455E+0	1.660377E+0	1.619419E+0	1.656028E+0	1.675727E+0	1.640400E+0	1.747299E+0	1.660714E+0	1.626918E+0	1.630000E+0	1.677971E+0	1.704997E+0	1.649578E+0	1.647554E+0	1.721287E+0	1.641540E+0	1.674536E+0	1.692516E+0	1.640922E+0	1.667889E+0	1.632136E+0	1.717507E+0	1.716074E+0	1.644332E+0	1.690314E+0	1.651216E+0	1.620028E+0	1.667169E+0	1.662607E+0	1.681166E+0	1.692769E+0	1.607245E+0	1.597102E+0	1.617157E+0	1.692651E+0	1.660051E+0	1.698035E+0	1.700518E+0	1.683658E+0	1.678193E+0	1.729586E+0	1.685142E+0	1.692341E+0	1.647476E+0	1.669281E+0	1.591159E+0	1.625012E+0	1.631440E+0	1.678375E+0	1.662510E+0	1.673691E+0	1.665801E+0	1.600815E+0	1.680598E+0	1.666795E+0	1.646416E+0	1.690061E+0	1.619389E+0	1.696768E+0	1.626994E+0	1.651586E+0	1.645474E+0	1.746695E+0	1.630973E+0	1.672087E+0	1.664568E+0	1.641282E+0	1.631107E+0	1.624287E+0	1.649474E+0	1.674523E+0	1.672497E+0	1.679941E+0	1.652001E+0	1.701154E+0	1.654649E+0	1.681353E+0	1.612734E+0	1.738781E+0	1.638215E+0	1.676667E+0	1.646759E+0	1.657252E+0	1.665840E+0	1.611432E+0	1.622652E+0	1.663240E+0	1.607768E+0	1.648184E+0	1.665376E+0	1.695946E+0	1.615282E+0	1.644221E+0	1.622426E+0	1.683232E+0	1.631158E+0	1.592867E+0	1.687706E+0	1.658675E+0	1.683049E+0	1.629191E+0	1.589293E+0	1.648393E+0	1.641948E+0	1.599597E+0	1.620638E+0	1.661591E+0	1.650567E+0	1.638941E+0	1.595799E+0	1.646265E+0	1.646821E+0	1.603449E+0	1.663706E+0	1.694194E+0	1.616227E+0	1.720201E+0
5.355580E+2	1.477434E+0	1.438438E+0	1.434427E+0	1.462790E+0	1.435864E+0	1.462653E+0	1.457620E+0	1.483894E+0	1.431236E+0	1.412716E+0	1.498118E+0	1.491934E+0	1.438252E+0	1.453171E+0	1.451873E+0	1.444000E+0	1.494665E+0	1.405850E+0	1.447025E+0	1.483603E+0	1.399269E+0	1.487047E+0	1.402616E+0	1.489611E+0	1.378820E+0	1.441535E+0	1.448215E+0	1.439199E+0	1.445828E+0	1.434324E+0	1.402103E+0	1.424383E+0	1.477967E+0	1.522438E+0	1.434866E+0	1.401219E+0	1.439985E+0	1.456467E+0	1.416936E+0	1.447945E+0	1.445881E+0	1.433564E+0	1.421360E+0	1.413953E+0	1.412636E+0	1.434565E+0	1.402938E+0	1.418206E+0	1.443813E+0	1.409091E+0	1.437983E+0	1.407581E+0	1.393057E+0	1.467040E+0	1.432995E+0	1.422431E+0	1.371162E+0	1.512792E+0	1.456161E+0	1.378568E+0	1.497888E+0	1.385636E+0	1.459812E+0	1.375140E+0	1.386588E+0	1.420729E+0	1.381177E+0	1.435939E+0	1.384835E+0	1.433093E+0	1.406246E+0	1.427376E+0	1.459220E+0	1.488424E+0	1.396265E+0	1.434283E+0	1.477845E+0	1.445563E+0	1.480852E+0	1.438282E+0	1.433078E+0	1.351801E+0	1.437497E+0	1.434427E+0	1.440538E+0	1.422748E+0	1.455502E+0	1.428479E+0	1.440297E+0	1.423531E+0	1.442855E+0	1.424860E+0	1.415940E+0	1.422936E+0	1.446036E+0	1.405286E+0	1.433003E+0	1.459411E+0	1.444336E+0	1.397504E+0	1.421391E+0	1.431571E+0	1.438166E+0	1.443003E+0	1.417239E+0	1.396729E+0	1.416743E+0	1.417173E+0	1.421242E+0	1.423495E+0	1.413905E+0	1.381603E+0	1.437084E+0	1.402215E+0	1.431094E+0	1.443228E+0	1.407377E+0	1.397330E+0	1.376828E+0	1.435430E+0	1.350606E+0	1.390529E+0	1.376965E+0	1.429601E+0	1.398838E+0	1.371312E+0	1.405127E+0	1.441353E+0	1.456358E+0	1.398991E+0	1.459359E+0	1.446396E+0	1.503933E+0	1.377343E+0	1.444026E+0	1.457563E+0	1.413668E+0	1.504948E+0	1.415082E+0	1.453560E+0	1.396116E+0	1.411430E+0	1.423400E+0	1.421693E+0	1.486838E+0	1.424242E+0	1.377070E+0	1.398589E+0	1.470209E+0	1.440770E+0	1.415372E+0	1.440040E+0	1.467241E+0	1.458158E+0	1.373414E+0	1.378012E+0	1.429871E+0	1.457799E+0	1.415244E+0	1.359347E+0	1.406848E+0	1.412765E+0	1.327565E+0	1.371908E+0	1.397828E+0	1.413193E+0	1.430284E+0	1.442758E+0	1.421827E+0	1.376087E+0	1.370280E+0
5.357040E+2	1.295577E+0	1.261431E+0	1.246139E+0	1.212961E+0	1.287634E+0	1.278885E+0	1.220276E+0	1.154767E+0	1.186182E+0	1.194938E+0	1.267442E+0	1.237298E+0	1.277261E+0	1.221051E+0	1.227316E+0	1.254009E+0	1.283451E+0	1.237223E+0	1.211538E+0	1.251601E+0	1.239305E+0	1.269038E+0	1.186115E+0	1.245800E+0	1.175027E+0	1.216356E+0	1.190703E+0	1.201446E+0	1.222896E+0	1.183758E+0	1.221548E+0	1.248883E+0	1.218241E+0	1.271633E+0	1.220146E+0	1.233226E+0	1.209989E+0	1.277157E+0	1.218412E+0	1.220758E+0	1.295759E+0	1.200205E+0	1.266573E+0	1.228090E+0	1.188255E+0	1.244733E+0	1.219041E+0	1.223327E+0	1.227512E+0	1.254166E+0	1.253884E+0	1.218100E+0	1.197208E+0	1.273801E+0	1.171182E+0	1.246354E+0	1.228984E+0	1.234358E+0	1.273978E+0	1.188523E+0	1.247846E+0	1.238555E+0	1.154368E+0	1.216573E+0	1.253676E+0	1.224538E+0	1.200658E+0	1.229095E+0	1.229504E+0	1.241589E+0	1.252260E+0	1.203345E+0	1.223441E+0	1.245810E+0	1.170716E+0	1.233404E+0	1.241444E+0	1.256734E+0	1.198118E+0	1.189055E+0	1.202299E+0	1.206212E+0	1.246732E+0	1.204049E+0	1.224329E+0	1.270504E+0	1.293618E+0	1.210850E+0	1.212288E+0	1.206062E+0	1.242318E+0	1.223891E+0	1.202993E+0	1.224864E+0	1.256653E+0	1.207167E+0	1.202368E+0	1.201040E+0	1.226543E+0	1.178166E+0	1.194187E+0	1.190172E+0	1.220079E+0	1.218778E+0	1.213880E+0	1.201686E+0	1.254084E+0	1.232988E+0	1.213976E+0	1.251032E+0	1.267958E+0	1.219417E+0	1.233787E+0	1.198270E+0	1.257118E+0	1.208507E+0	1.213270E+0	1.216776E+0	1.219207E+0	1.195298E+0	1.230908E+0	1.224692E+0	1.165710E+0	1.189384E+0	1.227171E+0	1.196356E+0	1.178892E+0	1.171515E+0	1.222301E+0	1.242293E+0	1.239422E+0	1.234112E+0	1.237337E+0	1.258537E+0	1.224398E+0	1.275013E+0	1.222451E+0	1.236104E+0	1.228835E+0	1.232194E+0	1.207437E+0	1.219753E+0	1.217875E+0	1.228872E+0	1.270927E+0	1.208367E+0	1.225489E+0	1.179961E+0	1.301905E+0	1.221543E+0	1.195196E+0	1.253610E+0	1.236809E+0	1.231312E+0	1.192647E+0	1.195284E+0	1.222778E+0	1.175101E+0	1.192389E+0	1.222436E+0	1.188198E+0	1.286812E+0	1.170369E+0	1.148053E+0	1.281054E+0	1.257089E+0	1.177436E+0	1.220795E+0	1.172632E+0	1.236739E+0	1.169779E+0
5.358600E+2	1.094712E+0	1.046992E+0	1.038195E+0	1.055508E+0	1.049810E+0	1.089361E+0	1.034876E+0	1.097825E+0	1.045946E+0	1.055654E+0	1.037491E+0	1.084141E+0	1.086122E+0	1.041615E+0	1.057549E+0	1.056522E+0	1.056920E+0	1.057695E+0	1.014503E+0	1.070677E+0	1.027884E+0	1.099976E+0	1.065466E+0	1.072276E+0	1.026442E+0	1.042996E+0	1.056960E+0	1.024694E+0	1.030331E+0	1.040309E+0	1.043778E+0	1.035671E+0	1.056659E+0	1.112484E+0	1.003641E+0	1.099944E+0	1.072026E+0	1.081775E+0	1.035012E+0	1.046530E+0	1.089976E+0	1.060857E+0	1.054217E+0	1.046619E+0	1.094908E+0	1.039725E+0	1.070191E+0	1.054636E+0	1.035218E+0	1.045600E+0	1.109937E+0	1.054776E+0	1.089955E+0	1.088298E+0	1.052238E+0	1.093078E+0	1.034909E+0	1.082270E+0	1.047924E+0	1.055362E+0	1.075435E+0	1.050666E+0	9.975378E-1	1.010429E+0	1.078697E+0	1.050075E+0	1.025397E+0	1.081479E+0	1.047088E+0	1.063058E+0	1.052231E+0	1.045404E+0	1.055111E+0	1.020709E+0	9.913992E-1	1.008617E+0	1.091568E+0	1.089270E+0	1.015588E+0	1.046235E+0	1.065992E+0	1.011908E+0	1.058692E+0	1.063128E+0	1.096088E+0	1.051386E+0	1.029717E+0	1.082836E+0	1.004125E+0	1.046113E+0	1.047409E+0	1.100787E+0	1.026098E+0	1.077342E+0	1.063099E+0	1.012877E+0	1.044293E+0	1.060887E+0	1.084624E+0	1.058908E+0	1.034925E+0	1.025389E+0	1.043322E+0	1.047016E+0	1.050381E+0	1.055673E+0	1.054104E+0	1.021878E+0	1.020909E+0	1.059245E+0	1.057516E+0	1.000284E+0	1.049152E+0	1.029093E+0	1.058745E+0	1.055366E+0	1.080046E+0	1.079964E+0	1.041122E+0	1.045196E+0	1.031792E+0	1.057467E+0	1.059882E+0	1.038650E+0	1.083196E+0	1.020389E+0	1.077305E+0	1.083799E+0	1.053618E+0	1.114627E+0	1.076599E+0	1.087649E+0	1.085381E+0	1.054190E+0	1.067302E+0	1.070196E+0	9.983805E-1	1.075347E+0	1.057918E+0	1.093471E+0	1.070833E+0	1.062125E+0	1.049202E+0	1.042405E+0	1.043575E+0	1.073387E+0	1.051715E+0	1.004996E+0	1.066357E+0	1.050867E+0	1.058146E+0	1.046910E+0	1.023665E+0	1.054315E+0	1.020721E+0	1.041709E+0	1.062168E+0	1.046242E+0	1.069565E+0	1.000556E+0	1.024480E+0	1.075183E+0	1.082437E+0	1.048374E+0	1.057745E+0	1.050960E+0	1.031316E+0	1.063960E+0	1.028647E+0	1.128240E+0	1.088156E+0
5.360170E+2	9.244384E-1	8.943267E-1	8.381685E-1	8.656640E-1	8.536027E-1	9.400227E-1	8.324962E-1	8.839533E-1	8.597852E-1	8.705553E-1	8.777438E-1	8.643883E-1	9.226811E-1	9.119329E-1	8.922202E-1	9.077477E-1	8.638465E-1	9.020523E-1	8.268927E-1	8.702484E-1	8.796717E-1	9.074755E-1	8.536948E-1	8.879655E-1	8.773980E-1	8.859694E-1	8.551585E-1	8.835437E-1	8.926311E-1	8.528743E-1	8.515799E-1	8.829256E-1	8.711046E-1	9.230823E-1	8.965504E-1	8.843743E-1	8.504538E-1	8.925962E-1	8.954620E-1	8.390945E-1	8.575502E-1	8.871315E-1	8.935984E-1	8.567442E-1	8.769165E-1	9.045948E-1	9.281295E-1	9.137263E-1	9.173193E-1	8.946559E-1	9.316412E-1	8.673808E-1	9.057548E-1	8.878693E-1	8.771393E-1	8.874804E-1	9.050061E-1	9.372742E-1	8.665578E-1	8.856077E-1	8.740847E-1	8.691369E-1	8.581043E-1	8.643930E-1	9.013271E-1	8.799890E-1	8.568585E-1	9.052491E-1	8.546003E-1	9.190637E-1	8.699813E-1	9.204574E-1	8.819319E-1	8.593936E-1	8.243833E-1	8.626672E-1	9.287223E-1	8.360086E-1	8.535961E-1	8.696531E-1	8.657235E-1	8.832658E-1	8.966083E-1	8.970555E-1	8.633541E-1	8.994461E-1	8.855277E-1	8.956185E-1	8.725777E-1	8.691601E-1	9.410318E-1	8.805746E-1	8.904112E-1	8.753658E-1	8.919746E-1	8.844543E-1	8.580972E-1	8.554264E-1	8.707247E-1	8.838147E-1	8.509580E-1	8.508799E-1	9.114839E-1	8.806312E-1	8.399311E-1	8.927619E-1	8.630399E-1	9.041908E-1	8.584023E-1	8.874181E-1	9.000409E-1	8.972952E-1	9.089757E-1	8.629193E-1	8.522179E-1	8.731122E-1	9.069088E-1	8.660282E-1	8.928395E-1	8.542471E-1	8.995981E-1	8.767883E-1	8.479790E-1	8.402215E-1	9.068196E-1	9.114756E-1	9.093292E-1	8.913856E-1	8.846697E-1	8.697496E-1	9.491212E-1	8.815200E-1	8.747532E-1	8.590025E-1	9.071676E-1	8.940944E-1	8.974961E-1	8.868296E-1	8.841774E-1	8.833780E-1	9.039058E-1	8.701861E-1	8.886559E-1	9.142949E-1	8.709629E-1	8.678397E-1	8.512358E-1	8.423523E-1	9.239725E-1	8.893726E-1	9.239681E-1	8.674901E-1	8.946510E-1	9.064459E-1	8.497789E-1	8.753793E-1	8.636634E-1	8.741686E-1	8.779333E-1	8.854706E-1	8.948791E-1	8.670556E-1	8.851695E-1	8.973150E-1	8.978474E-1	9.260505E-1	8.772973E-1	8.807435E-1	8.818612E-1	9.072544E-1	9.405741E-1
5.362680E+2	7.156744E-1	6.403262E-1	6.845396E-1	6.710515E-1	7.113581E-1	7.141302E-1	6.981214E-1	6.725056E-1	6.809476E-1	6.918985E-1	7.576215E-1	6.503481E-1	7.011038E-1	6.875721E-1	6.951427E-1	6.947752E-1	7.088996E-1	7.327457E-1	6.695182E-1	6.878623E-1	6.924511E-1	7.103254E-1	6.752395E-1	6.839041E-1	7.071033E-1	7.001958E-1	6.893071E-1	7.317708E-1	7.017063E-1	7.027800E-1	7.050627E-1	7.055303E-1	6.996458E-1	7.394575E-1	7.256466E-1	7.039004E-1	7.062713E-1	7.054538E-1	7.148789E-1	7.017631E-1	7.359002E-1	6.866012E-1	7.022474E-1	6.972206E-1	6.770647E-1	6.936017E-1	7.045092E-1	6.717693E-1	7.226247E-1	6.991115E-1	6.869640E-1	7.112283E-1	6.677876E-1	7.017063E-1	6.541942E-1	7.052573E-1	7.120874E-1	7.039530E-1	6.985591E-1	7.007588E-1	6.731566E-1	6.995162E-1	6.901934E-1	6.659546E-1	6.465735E-1	6.814598E-1	6.609868E-1	7.026136E-1	6.789730E-1	6.983996E-1	7.023520E-1	6.500511E-1	6.723662E-1	7.139633E-1	6.230151E-1	6.967207E-1	7.109078E-1	7.073186E-1	6.886026E-1	7.135172E-1	6.927803E-1	6.896182E-1	6.927446E-1	6.597914E-1	6.618472E-1	6.942942E-1	6.983495E-1	7.475890E-1	6.746577E-1	6.764932E-1	7.267727E-1	6.890915E-1	6.880214E-1	7.279200E-1	6.686042E-1	6.599918E-1	6.611895E-1	6.943253E-1	7.182284E-1	7.063850E-1	6.774824E-1	7.065216E-1	7.025117E-1	6.876872E-1	7.373134E-1	7.063334E-1	6.746811E-1	6.976829E-1	6.950251E-1	6.962201E-1	6.715999E-1	7.353391E-1	6.859065E-1	6.878531E-1	6.991005E-1	6.901110E-1	6.905249E-1	7.049883E-1	7.015052E-1	6.739851E-1	7.078809E-1	6.670342E-1	6.320637E-1	6.996595E-1	7.030361E-1	7.023134E-1	7.045029E-1	6.612880E-1	7.005269E-1	6.740150E-1	6.887427E-1	6.695526E-1	6.711176E-1	6.876468E-1	7.059793E-1	6.927594E-1	6.471021E-1	7.230855E-1	7.054511E-1	7.003367E-1	6.865073E-1	7.160549E-1	6.860615E-1	6.940379E-1	6.909392E-1	7.039625E-1	7.110986E-1	6.900027E-1	7.404251E-1	7.234838E-1	6.940532E-1	7.147070E-1	6.828459E-1	7.143445E-1	6.791885E-1	7.020585E-1	7.221458E-1	6.909181E-1	6.842578E-1	6.874309E-1	6.886359E-1	7.104094E-1	7.219709E-1	6.948917E-1	6.644309E-1	7.186304E-1	6.979390E-1	7.240774E-1	6.267724E-1	7.058223E-1	7.486223E-1
5.365250E+2	6.225284E-1	5.427209E-1	5.531678E-1	5.583227E-1	5.377195E-1	5.562142E-1	5.472137E-1	5.617507E-1	5.551207E-1	5.677333E-1	5.746646E-1	5.512454E-1	5.726045E-1	5.704615E-1	5.819515E-1	5.639051E-1	5.506597E-1	5.411131E-1	5.413046E-1	5.421834E-1	5.628998E-1	5.649276E-1	5.394837E-1	5.470879E-1	5.590714E-1	5.536979E-1	5.752252E-1	5.569975E-1	5.686461E-1	5.801737E-1	5.581418E-1	5.724030E-1	5.244732E-1	5.916295E-1	5.822361E-1	5.680448E-1	5.503082E-1	5.741567E-1	5.393361E-1	5.559768E-1	5.346398E-1	5.811826E-1	5.535579E-1	5.199767E-1	5.573139E-1	5.804876E-1	5.701411E-1	5.629203E-1	5.881832E-1	5.675005E-1	5.682930E-1	5.562849E-1	5.589983E-1	5.527296E-1	5.523371E-1	5.768214E-1	5.501876E-1	5.536845E-1	5.858395E-1	5.281689E-1	5.696513E-1	5.273506E-1	5.779908E-1	5.677305E-1	5.439373E-1	5.753119E-1	5.415070E-1	5.591059E-1	5.488451E-1	5.592502E-1	5.523490E-1	5.934968E-1	5.646287E-1	5.864232E-1	5.353199E-1	5.097527E-1	5.186362E-1	5.680566E-1	5.723254E-1	5.693258E-1	5.343676E-1	5.789078E-1	5.394057E-1	5.739249E-1	5.656197E-1	5.803793E-1	5.798114E-1	5.680206E-1	5.633959E-1	5.331067E-1	5.996845E-1	5.565863E-1	5.454510E-1	5.689201E-1	5.745802E-1	5.592735E-1	5.469328E-1	5.271149E-1	5.605888E-1	5.722482E-1	5.847983E-1	5.708610E-1	5.531518E-1	5.613118E-1	5.447535E-1	5.563801E-1	5.586018E-1	5.749787E-1	5.895515E-1	5.543948E-1	5.577863E-1	5.384758E-1	5.974333E-1	5.769743E-1	5.902783E-1	5.566063E-1	5.655846E-1	5.741198E-1	5.464109E-1	5.622936E-1	5.607839E-1	5.504997E-1	5.582944E-1	5.731880E-1	5.896460E-1	5.803981E-1	5.790747E-1	5.860549E-1	5.804858E-1	5.498146E-1	5.722863E-1	5.568427E-1	5.885479E-1	5.671747E-1	5.736764E-1	5.885911E-1	5.518280E-1	5.849843E-1	5.657656E-1	5.727419E-1	5.966794E-1	5.537553E-1	6.075196E-1	5.679226E-1	5.843216E-1	5.987909E-1	5.511705E-1	5.369968E-1	5.679528E-1	5.695480E-1	5.902954E-1	5.624829E-1	5.467680E-1	5.787761E-1	5.444138E-1	5.532817E-1	5.635641E-1	5.707435E-1	6.024901E-1	5.805695E-1	5.354765E-1	5.668381E-1	5.523691E-1	5.422500E-1	5.861276E-1	5.638656E-1	5.619456E-1	5.760301E-1	5.763631E-1	5.955581E-1	6.235738E-1
5.367710E+2	5.061753E-1	4.857396E-1	4.860124E-1	4.950463E-1	4.764758E-1	4.840093E-1	4.501291E-1	4.969514E-1	5.268843E-1	4.683348E-1	5.100285E-1	4.896729E-1	5.137823E-1	4.889684E-1	4.930278E-1	4.734200E-1	4.946513E-1	4.908486E-1	5.097843E-1	4.730980E-1	4.479340E-1	4.735091E-1	4.851195E-1	4.778120E-1	4.859491E-1	4.777068E-1	4.813165E-1	5.063907E-1	4.839468E-1	4.778715E-1	5.055038E-1	5.198020E-1	4.877918E-1	4.938447E-1	4.926210E-1	4.974206E-1	5.131731E-1	5.010133E-1	4.870028E-1	4.854930E-1	5.006428E-1	4.848967E-1	4.998786E-1	4.906431E-1	4.850341E-1	5.011108E-1	5.200532E-1	4.861052E-1	5.221832E-1	4.852954E-1	5.036143E-1	4.748315E-1	4.867156E-1	4.887983E-1	4.842117E-1	5.118331E-1	5.033327E-1	5.186113E-1	5.002101E-1	5.110424E-1	5.032169E-1	5.087563E-1	4.979438E-1	4.883407E-1	4.883249E-1	5.018288E-1	4.754128E-1	4.735093E-1	4.772886E-1	4.885348E-1	4.736257E-1	4.869672E-1	4.965642E-1	5.072922E-1	4.987630E-1	4.903771E-1	5.029881E-1	4.862052E-1	4.981390E-1	5.023760E-1	5.052331E-1	5.032856E-1	4.873215E-1	4.881306E-1	4.898156E-1	5.100927E-1	4.623669E-1	5.093630E-1	5.162524E-1	4.993557E-1	4.974169E-1	4.796927E-1	4.686616E-1	5.282095E-1	4.855269E-1	4.925474E-1	4.993866E-1	4.964814E-1	5.123634E-1	4.776296E-1	4.855141E-1	4.731732E-1	5.073008E-1	4.949621E-1	5.230112E-1	5.034342E-1	5.075470E-1	5.079377E-1	5.093989E-1	5.109366E-1	5.016208E-1	4.949924E-1	4.792752E-1	5.037063E-1	5.003129E-1	4.799042E-1	4.733301E-1	4.946201E-1	4.733954E-1	4.762002E-1	4.834983E-1	4.979405E-1	5.073188E-1	4.885505E-1	4.726548E-1	4.962477E-1	5.037737E-1	5.089530E-1	4.729583E-1	4.902297E-1	5.059786E-1	4.879037E-1	5.041711E-1	5.168082E-1	4.953708E-1	4.995540E-1	4.755139E-1	5.227833E-1	4.964994E-1	5.039422E-1	4.991443E-1	4.837744E-1	5.070502E-1	4.916627E-1	5.024312E-1	5.342264E-1	4.759474E-1	4.708324E-1	5.149116E-1	4.955610E-1	4.875600E-1	5.014689E-1	4.859509E-1	5.430131E-1	4.848759E-1	4.799348E-1	4.782544E-1	5.009672E-1	4.823983E-1	4.639276E-1	4.640665E-1	5.013178E-1	5.165437E-1	5.164229E-1	5.139706E-1	5.112743E-1	4.782767E-1	4.873535E-1	5.214196E-1	5.306776E-1	5.154940E-1
5.370170E+2	4.681459E-1	4.418800E-1	4.597676E-1	4.746649E-1	4.575541E-1	4.837713E-1	4.987710E-1	4.873126E-1	4.521414E-1	4.540167E-1	4.676924E-1	4.680725E-1	4.817838E-1	4.850298E-1	4.834727E-1	4.735215E-1	4.550952E-1	4.740700E-1	4.322393E-1	4.642230E-1	4.611698E-1	4.580286E-1	4.719025E-1	4.849678E-1	4.769245E-1	5.107459E-1	4.614226E-1	4.732253E-1	4.980080E-1	4.847985E-1	4.784349E-1	5.096775E-1	5.022054E-1	5.235169E-1	4.980566E-1	4.844660E-1	4.852633E-1	5.020526E-1	4.645358E-1	4.752390E-1	4.939241E-1	4.776671E-1	4.931329E-1	4.568099E-1	4.915991E-1	4.949872E-1	4.887702E-1	4.841847E-1	4.749841E-1	4.773517E-1	4.806878E-1	4.802950E-1	5.125736E-1	4.619468E-1	4.512218E-1	4.653118E-1	4.671872E-1	4.970479E-1	4.985971E-1	4.838846E-1	5.315553E-1	4.621275E-1	4.438951E-1	4.768582E-1	4.556549E-1	4.640798E-1	4.701816E-1	5.038382E-1	4.861279E-1	4.903400E-1	4.836129E-1	4.621452E-1	4.802219E-1	4.743841E-1	4.719036E-1	4.759912E-1	5.015688E-1	4.632703E-1	4.784994E-1	4.837321E-1	5.112596E-1	4.585407E-1	4.604882E-1	4.968405E-1	4.906708E-1	5.002230E-1	4.737656E-1	4.631901E-1	4.757493E-1	4.865690E-1	4.736554E-1	4.707045E-1	4.701445E-1	4.761988E-1	4.421271E-1	4.725674E-1	4.799160E-1	4.990798E-1	4.734617E-1	5.146785E-1	4.827661E-1	5.051872E-1	4.863236E-1	4.940297E-1	4.680710E-1	4.917773E-1	4.979206E-1	4.906390E-1	4.966936E-1	4.743916E-1	5.060912E-1	4.755245E-1	4.863613E-1	4.659715E-1	4.655735E-1	4.777278E-1	4.947995E-1	4.808089E-1	4.402587E-1	4.639433E-1	5.019392E-1	4.845501E-1	4.684546E-1	4.460235E-1	4.773561E-1	4.825002E-1	4.974214E-1	4.800724E-1	4.993475E-1	5.013034E-1	4.767859E-1	4.724728E-1	4.865569E-1	4.596397E-1	4.722710E-1	5.155947E-1	4.963905E-1	4.788112E-1	4.755099E-1	4.524636E-1	4.612329E-1	4.529207E-1	4.698755E-1	4.758002E-1	4.573541E-1	4.861728E-1	4.829756E-1	4.755159E-1	4.749715E-1	4.912170E-1	4.839236E-1	4.955102E-1	4.841360E-1	5.145370E-1	4.431379E-1	4.813020E-1	4.833379E-1	4.877680E-1	4.723632E-1	4.770765E-1	4.595431E-1	4.825469E-1	4.750732E-1	4.952100E-1	4.365959E-1	4.850200E-1	4.892402E-1	5.168767E-1	4.842529E-1	4.728757E-1	4.641255E-1
5.372640E+2	5.265181E-1	4.880282E-1	4.771817E-1	4.999021E-1	5.060416E-1	5.140876E-1	5.289795E-1	5.094238E-1	4.830630E-1	4.796441E-1	4.749519E-1	4.841576E-1	5.072918E-1	4.985065E-1	4.683848E-1	5.109914E-1	4.879672E-1	5.242402E-1	4.700468E-1	5.015198E-1	4.797061E-1	4.797417E-1	4.463489E-1	5.168454E-1	5.281656E-1	5.184646E-1	5.108794E-1	5.020539E-1	4.933445E-1	5.135432E-1	4.922920E-1	4.917213E-1	4.886357E-1	5.149090E-1	4.827596E-1	5.229862E-1	5.059741E-1	5.357470E-1	5.102680E-1	4.927212E-1	4.824678E-1	4.769037E-1	5.417347E-1	4.944323E-1	4.746144E-1	4.867361E-1	5.153755E-1	5.021629E-1	5.120256E-1	4.951585E-1	5.160140E-1	4.927273E-1	5.298218E-1	5.293185E-1	5.044980E-1	5.114020E-1	4.606179E-1	5.043084E-1	5.227072E-1	4.847557E-1	5.012261E-1	5.039331E-1	5.004638E-1	5.112768E-1	4.953061E-1	4.748504E-1	5.100565E-1	5.384326E-1	5.037128E-1	5.185086E-1	4.735522E-1	5.272920E-1	5.181337E-1	5.124027E-1	4.883333E-1	5.113454E-1	5.291689E-1	4.925158E-1	4.996570E-1	5.111255E-1	4.961309E-1	4.859999E-1	4.753675E-1	4.932357E-1	5.022888E-1	4.931534E-1	4.831478E-1	4.879941E-1	4.993589E-1	4.842643E-1	5.098892E-1	5.504170E-1	4.937268E-1	4.761664E-1	4.955087E-1	5.252610E-1	5.092798E-1	4.952076E-1	5.233925E-1	5.087285E-1	5.098589E-1	5.041747E-1	4.866449E-1	5.355786E-1	4.978405E-1	5.265089E-1	5.365115E-1	5.066037E-1	5.295063E-1	5.083491E-1	5.263957E-1	5.091595E-1	5.075146E-1	5.214612E-1	5.208480E-1	5.422965E-1	5.095799E-1	5.233896E-1	5.179523E-1	4.938771E-1	5.053506E-1	5.051353E-1	4.449872E-1	4.950167E-1	5.075318E-1	5.329894E-1	5.460430E-1	4.839004E-1	5.197183E-1	4.906565E-1	5.208132E-1	5.022138E-1	5.152978E-1	4.996845E-1	5.220344E-1	5.135099E-1	4.885556E-1	4.581370E-1	4.842915E-1	5.331871E-1	5.030470E-1	5.467361E-1	5.047760E-1	5.308720E-1	4.939018E-1	5.064120E-1	4.968704E-1	5.178180E-1	5.239063E-1	4.987128E-1	4.723614E-1	5.144824E-1	5.100122E-1	5.235957E-1	4.716313E-1	4.823998E-1	5.117486E-1	5.024913E-1	5.205602E-1	4.772008E-1	5.023454E-1	5.372639E-1	4.756321E-1	4.375400E-1	5.304191E-1	5.128366E-1	5.084986E-1	5.126031E-1	4.692139E-1	5.560140E-1	5.421539E-1
5.375160E+2	5.675531E-1	5.472962E-1	5.571079E-1	5.495786E-1	5.877198E-1	5.678502E-1	5.866670E-1	5.759132E-1	5.428299E-1	5.420181E-1	5.523441E-1	5.429734E-1	5.752869E-1	5.713882E-1	5.548033E-1	5.714171E-1	5.772130E-1	5.489287E-1	5.517686E-1	5.662687E-1	5.556287E-1	5.749990E-1	5.768050E-1	5.765015E-1	5.808370E-1	5.850420E-1	5.632219E-1	5.706441E-1	5.581621E-1	5.930495E-1	5.809995E-1	5.651408E-1	6.002311E-1	5.560656E-1	5.753838E-1	5.432546E-1	5.725264E-1	5.938966E-1	5.649897E-1	5.770902E-1	5.724886E-1	5.518812E-1	5.317717E-1	5.821190E-1	5.811586E-1	5.671188E-1	5.588750E-1	5.683568E-1	5.863015E-1	5.572043E-1	5.887079E-1	5.682830E-1	5.804089E-1	5.910585E-1	5.783172E-1	5.744506E-1	5.844639E-1	5.870961E-1	5.356438E-1	5.752427E-1	6.035575E-1	5.654180E-1	5.769064E-1	5.891709E-1	5.466505E-1	5.777554E-1	5.361514E-1	5.685300E-1	5.936874E-1	5.743550E-1	5.904605E-1	5.711634E-1	5.863028E-1	5.349219E-1	5.572984E-1	5.614288E-1	6.214790E-1	5.604274E-1	5.632341E-1	5.292420E-1	5.599844E-1	5.273820E-1	5.737454E-1	5.882481E-1	5.611438E-1	5.665606E-1	5.773047E-1	5.520413E-1	5.852175E-1	5.942262E-1	5.899171E-1	5.516519E-1	5.783893E-1	5.670960E-1	5.668824E-1	5.646512E-1	5.706936E-1	5.448082E-1	5.752745E-1	5.285441E-1	5.459024E-1	5.821280E-1	5.934045E-1	5.724380E-1	5.458931E-1	5.383817E-1	5.659495E-1	5.667630E-1	5.687866E-1	5.668744E-1	5.684959E-1	5.899780E-1	5.602600E-1	5.513613E-1	5.949125E-1	5.707933E-1	5.820586E-1	5.523988E-1	5.512190E-1	5.534779E-1	5.753421E-1	5.410244E-1	5.594253E-1	5.646744E-1	5.643756E-1	5.749745E-1	5.742984E-1	5.720764E-1	5.841216E-1	5.545227E-1	5.580368E-1	5.456256E-1	5.642043E-1	5.693129E-1	5.743886E-1	5.639968E-1	5.846073E-1	5.395347E-1	5.746167E-1	5.626157E-1	5.803511E-1	5.864677E-1	5.471684E-1	5.765267E-1	5.707658E-1	5.889208E-1	5.592647E-1	5.754713E-1	5.976255E-1	5.790705E-1	5.828963E-1	5.938019E-1	5.652258E-1	5.870930E-1	5.777542E-1	5.543079E-1	5.622081E-1	5.401406E-1	5.580570E-1	5.603479E-1	5.864380E-1	5.669924E-1	6.056846E-1	5.746340E-1	5.733656E-1	5.959821E-1	5.760868E-1	5.786571E-1	6.057510E-1	6.109325E-1	6.022848E-1
5.377630E+2	6.846509E-1	6.401208E-1	6.619652E-1	6.182254E-1	6.585197E-1	6.563769E-1	6.696398E-1	7.001212E-1	6.650215E-1	6.655920E-1	6.661530E-1	6.507647E-1	6.579832E-1	6.865427E-1	6.660220E-1	6.683060E-1	6.570970E-1	6.517950E-1	6.614285E-1	6.788686E-1	6.742409E-1	6.692908E-1	6.667946E-1	6.982632E-1	6.960707E-1	6.805701E-1	6.991256E-1	6.618749E-1	6.685282E-1	6.628937E-1	6.764054E-1	6.752933E-1	6.686255E-1	7.088831E-1	6.944978E-1	6.932204E-1	6.862860E-1	6.723388E-1	7.020989E-1	6.481715E-1	6.843094E-1	6.557029E-1	6.612495E-1	6.169844E-1	6.848760E-1	6.518829E-1	6.616531E-1	6.605928E-1	6.487768E-1	6.610559E-1	7.164156E-1	6.586407E-1	6.557855E-1	6.683759E-1	6.749801E-1	6.696191E-1	6.640209E-1	6.750895E-1	6.920821E-1	6.270219E-1	6.855316E-1	6.612329E-1	6.464642E-1	6.683011E-1	6.645987E-1	6.774769E-1	6.778363E-1	6.824511E-1	6.834410E-1	6.749515E-1	6.812098E-1	7.105334E-1	6.707815E-1	6.534941E-1	6.310824E-1	6.803712E-1	6.565816E-1	6.824626E-1	6.517991E-1	6.656865E-1	6.498573E-1	6.599334E-1	6.594751E-1	6.835532E-1	6.711259E-1	7.001802E-1	6.862165E-1	6.599738E-1	6.816289E-1	6.474644E-1	6.555891E-1	6.903564E-1	6.549528E-1	6.649131E-1	6.685524E-1	6.896396E-1	6.801804E-1	6.552986E-1	6.652581E-1	6.624544E-1	6.810696E-1	6.347910E-1	6.500103E-1	6.580654E-1	6.239780E-1	6.575814E-1	6.364809E-1	6.697775E-1	6.961865E-1	6.613446E-1	6.676687E-1	6.700799E-1	6.519264E-1	6.630961E-1	6.576773E-1	6.726789E-1	6.685688E-1	6.668597E-1	6.631190E-1	6.704721E-1	6.786593E-1	6.643142E-1	6.743148E-1	6.668693E-1	6.567563E-1	6.871151E-1	6.450099E-1	6.287369E-1	7.081619E-1	6.904603E-1	6.905932E-1	6.730635E-1	7.242019E-1	6.893608E-1	6.904976E-1	6.900195E-1	6.580546E-1	6.522116E-1	6.531646E-1	6.070927E-1	6.941984E-1	6.417938E-1	6.633848E-1	6.927732E-1	6.762601E-1	6.598394E-1	6.707807E-1	6.799567E-1	6.862256E-1	7.024996E-1	6.794759E-1	6.802583E-1	6.755012E-1	6.789994E-1	6.458705E-1	6.506841E-1	6.658216E-1	6.951105E-1	6.743677E-1	6.360128E-1	6.702959E-1	6.799059E-1	6.572909E-1	6.859981E-1	6.820767E-1	6.657667E-1	6.552686E-1	7.125966E-1	7.012428E-1	6.481990E-1	6.454501E-1
5.380110E+2	7.982511E-1	7.687209E-1	7.427505E-1	7.896568E-1	7.930997E-1	7.670507E-1	7.840845E-1	8.106388E-1	7.646834E-1	7.725574E-1	7.660694E-1	7.889874E-1	7.787896E-1	7.642803E-1	7.829876E-1	7.731222E-1	8.009488E-1	7.402554E-1	7.459420E-1	7.632950E-1	7.572776E-1	7.449317E-1	7.665780E-1	7.782377E-1	7.676207E-1	8.024577E-1	8.081664E-1	7.961817E-1	8.069177E-1	7.578515E-1	7.531802E-1	7.683458E-1	7.632391E-1	7.495654E-1	8.478727E-1	8.049204E-1	7.562531E-1	7.693751E-1	8.069427E-1	7.607566E-1	7.593768E-1	8.029337E-1	7.941470E-1	7.867723E-1	7.942458E-1	8.111424E-1	8.057710E-1	7.594022E-1	7.757231E-1	7.857885E-1	8.133411E-1	7.832049E-1	7.912379E-1	7.658219E-1	8.074759E-1	7.974216E-1	7.977232E-1	7.858670E-1	7.889515E-1	7.858128E-1	8.236265E-1	7.850231E-1	7.937196E-1	7.817855E-1	7.853819E-1	7.623131E-1	7.703443E-1	7.663869E-1	8.109526E-1	7.825781E-1	7.637248E-1	8.096219E-1	8.236298E-1	7.878107E-1	7.668262E-1	7.726709E-1	7.947545E-1	7.700457E-1	7.784903E-1	8.127884E-1	7.301542E-1	7.968340E-1	7.921718E-1	7.682394E-1	8.063948E-1	8.071508E-1	7.808251E-1	7.875344E-1	7.890234E-1	7.646819E-1	7.454670E-1	7.898163E-1	7.486564E-1	7.853044E-1	7.969346E-1	7.620987E-1	7.994308E-1	7.794070E-1	7.819599E-1	7.460268E-1	7.771422E-1	7.694664E-1	8.077341E-1	8.281325E-1	7.575555E-1	7.704272E-1	7.938993E-1	7.712409E-1	7.512671E-1	7.823455E-1	7.745265E-1	8.028616E-1	8.011032E-1	7.799966E-1	7.562540E-1	7.685811E-1	7.700456E-1	7.792210E-1	8.182535E-1	7.852220E-1	7.920870E-1	7.140416E-1	7.472356E-1	7.776021E-1	7.707755E-1	7.870721E-1	7.924553E-1	7.986176E-1	8.157867E-1	7.353309E-1	7.715868E-1	7.941612E-1	8.012691E-1	7.934069E-1	8.191063E-1	7.862284E-1	7.723179E-1	8.133052E-1	8.203259E-1	8.067275E-1	7.957974E-1	7.669532E-1	7.672929E-1	7.778804E-1	7.926728E-1	8.025610E-1	7.610510E-1	7.767187E-1	8.298514E-1	7.805151E-1	7.798695E-1	8.015700E-1	8.166359E-1	7.977625E-1	7.756421E-1	7.235069E-1	7.923365E-1	7.868331E-1	7.839472E-1	8.001113E-1	8.192723E-1	8.054134E-1	7.650903E-1	7.757369E-1	7.957299E-1	7.533479E-1	7.458245E-1	7.787160E-1	7.462796E-1	8.043417E-1	7.189308E-1
5.382690E+2	9.764928E-1	9.475124E-1	9.419351E-1	9.833976E-1	9.502996E-1	9.719168E-1	9.463945E-1	9.530402E-1	9.251053E-1	9.414609E-1	9.605844E-1	9.436543E-1	9.356283E-1	9.492838E-1	9.573962E-1	9.622619E-1	9.668196E-1	9.155128E-1	9.030848E-1	9.653920E-1	9.120497E-1	9.700470E-1	9.335169E-1	9.674629E-1	1.001092E+0	9.646065E-1	9.525455E-1	9.404261E-1	1.004635E+0	9.672128E-1	9.775925E-1	9.690507E-1	9.718099E-1	9.778132E-1	9.521686E-1	9.548908E-1	9.804519E-1	9.554907E-1	9.005093E-1	9.840636E-1	9.580745E-1	9.269293E-1	9.803117E-1	9.207132E-1	9.412655E-1	9.376389E-1	9.621218E-1	9.477509E-1	9.510771E-1	9.721690E-1	1.027122E+0	9.690337E-1	9.406352E-1	9.973426E-1	9.999812E-1	9.259982E-1	9.553557E-1	9.475814E-1	9.718515E-1	9.256619E-1	9.950582E-1	9.495977E-1	9.390528E-1	9.706356E-1	9.191219E-1	9.263652E-1	9.652640E-1	9.653817E-1	9.528017E-1	9.657770E-1	9.660725E-1	9.797130E-1	9.507429E-1	9.969728E-1	9.358016E-1	9.776082E-1	9.411354E-1	9.774716E-1	9.426432E-1	9.513150E-1	9.405536E-1	9.487042E-1	9.513121E-1	9.426460E-1	9.848484E-1	9.352012E-1	9.644043E-1	9.536579E-1	9.736947E-1	9.406286E-1	9.856260E-1	9.726231E-1	9.205664E-1	9.472091E-1	9.991536E-1	9.776697E-1	9.255650E-1	9.391104E-1	9.201633E-1	9.430704E-1	9.549053E-1	9.534133E-1	9.771286E-1	9.795827E-1	9.536757E-1	9.627776E-1	9.279150E-1	9.828686E-1	9.506987E-1	1.015238E+0	9.301709E-1	9.549789E-1	9.537719E-1	9.253159E-1	1.002007E+0	9.494883E-1	9.487908E-1	8.981711E-1	9.696580E-1	9.467333E-1	8.936425E-1	9.117984E-1	9.421791E-1	8.960896E-1	9.552906E-1	9.207780E-1	1.004658E+0	9.543190E-1	9.692076E-1	9.324062E-1	9.315236E-1	9.215406E-1	9.676653E-1	9.499067E-1	9.470249E-1	9.483084E-1	9.419720E-1	9.586599E-1	9.546288E-1	9.477866E-1	9.488711E-1	9.181132E-1	9.364021E-1	9.208423E-1	9.944272E-1	9.485336E-1	9.400583E-1	9.268110E-1	1.018706E+0	9.505506E-1	9.288937E-1	9.791467E-1	9.582953E-1	9.551311E-1	9.595565E-1	9.238684E-1	9.981765E-1	9.708762E-1	9.511007E-1	8.931437E-1	9.114677E-1	9.725514E-1	9.788855E-1	9.254820E-1	1.007715E+0	9.601337E-1	9.448433E-1	9.630566E-1	9.521236E-1	1.015869E+0	9.608318E-1
5.385060E+2	1.229001E+0	1.148563E+0	1.190510E+0	1.156573E+0	1.217812E+0	1.175374E+0	1.072507E+0	1.182999E+0	1.155216E+0	1.161316E+0	1.183468E+0	1.130627E+0	1.170411E+0	1.162570E+0	1.156141E+0	1.176133E+0	1.202872E+0	1.140004E+0	1.171223E+0	1.139499E+0	1.168104E+0	1.145268E+0	1.137639E+0	1.181350E+0	1.160051E+0	1.187920E+0	1.167646E+0	1.203477E+0	1.208335E+0	1.151524E+0	1.214432E+0	1.236734E+0	1.168540E+0	1.232647E+0	1.153507E+0	1.195542E+0	1.189555E+0	1.195072E+0	1.130253E+0	1.160430E+0	1.191018E+0	1.190085E+0	1.204334E+0	1.191475E+0	1.180544E+0	1.147073E+0	1.172586E+0	1.140598E+0	1.187809E+0	1.192909E+0	1.212770E+0	1.152991E+0	1.191390E+0	1.172125E+0	1.155589E+0	1.195653E+0	1.186518E+0	1.214618E+0	1.145896E+0	1.166953E+0	1.249277E+0	1.174195E+0	1.141154E+0	1.226651E+0	1.160409E+0	1.176640E+0	1.154565E+0	1.157603E+0	1.221578E+0	1.182399E+0	1.136120E+0	1.223287E+0	1.205549E+0	1.175179E+0	1.169239E+0	1.124800E+0	1.181694E+0	1.140241E+0	1.145861E+0	1.141078E+0	1.178299E+0	1.106845E+0	1.171092E+0	1.183036E+0	1.184252E+0	1.174236E+0	1.155250E+0	1.155914E+0	1.151712E+0	1.151253E+0	1.201462E+0	1.153969E+0	1.163293E+0	1.153987E+0	1.200375E+0	1.139160E+0	1.130361E+0	1.160602E+0	1.161019E+0	1.201899E+0	1.189712E+0	1.177344E+0	1.206705E+0	1.127496E+0	1.168368E+0	1.129261E+0	1.155114E+0	1.178529E+0	1.179986E+0	1.183765E+0	1.164576E+0	1.219841E+0	1.156748E+0	1.157746E+0	1.135503E+0	1.162428E+0	1.145714E+0	1.198586E+0	1.180017E+0	1.118898E+0	1.150687E+0	1.132424E+0	1.134268E+0	1.140399E+0	1.153715E+0	1.131749E+0	1.176273E+0	1.189822E+0	1.195852E+0	1.107877E+0	1.187265E+0	1.175554E+0	1.126382E+0	1.145624E+0	1.157746E+0	1.187066E+0	1.193426E+0	1.200695E+0	1.180406E+0	1.151490E+0	1.182830E+0	1.160791E+0	1.187037E+0	1.197674E+0	1.117141E+0	1.183223E+0	1.151425E+0	1.143649E+0	1.201492E+0	1.149816E+0	1.163096E+0	1.183995E+0	1.109527E+0	1.168236E+0	1.184146E+0	1.122740E+0	1.191480E+0	1.146071E+0	1.169371E+0	1.160369E+0	1.151356E+0	1.202731E+0	1.136806E+0	1.106135E+0	1.153451E+0	1.136232E+0	1.128201E+0	1.160021E+0	1.153647E+0	1.137874E+0	1.238320E+0
5.387700E+2	1.512599E+0	1.446790E+0	1.423719E+0	1.451306E+0	1.435039E+0	1.432044E+0	1.331618E+0	1.463564E+0	1.388092E+0	1.431425E+0	1.451959E+0	1.459325E+0	1.402695E+0	1.373899E+0	1.469473E+0	1.486892E+0	1.400055E+0	1.407034E+0	1.333630E+0	1.427322E+0	1.407379E+0	1.389093E+0	1.405558E+0	1.422752E+0	1.461248E+0	1.459680E+0	1.443455E+0	1.470497E+0	1.432475E+0	1.425733E+0	1.439508E+0	1.449023E+0	1.448079E+0	1.476813E+0	1.438231E+0	1.480647E+0	1.459234E+0	1.436321E+0	1.433708E+0	1.502575E+0	1.473854E+0	1.429270E+0	1.454777E+0	1.438006E+0	1.492719E+0	1.433526E+0	1.484640E+0	1.417246E+0	1.454343E+0	1.432486E+0	1.416456E+0	1.468366E+0	1.440152E+0	1.438158E+0	1.399025E+0	1.410727E+0	1.397799E+0	1.438658E+0	1.415495E+0	1.390769E+0	1.431533E+0	1.408332E+0	1.399502E+0	1.418562E+0	1.389207E+0	1.420255E+0	1.380354E+0	1.407355E+0	1.429553E+0	1.442289E+0	1.406684E+0	1.398502E+0	1.411384E+0	1.435273E+0	1.382890E+0	1.401006E+0	1.444567E+0	1.456359E+0	1.415737E+0	1.452723E+0	1.429743E+0	1.432388E+0	1.369974E+0	1.373991E+0	1.426820E+0	1.424563E+0	1.401230E+0	1.415011E+0	1.386471E+0	1.412261E+0	1.445290E+0	1.415291E+0	1.410755E+0	1.366986E+0	1.418855E+0	1.429132E+0	1.422911E+0	1.426051E+0	1.377895E+0	1.463389E+0	1.454749E+0	1.412684E+0	1.443044E+0	1.430612E+0	1.384209E+0	1.398341E+0	1.342826E+0	1.430504E+0	1.427607E+0	1.418871E+0	1.396092E+0	1.381123E+0	1.423923E+0	1.405654E+0	1.398936E+0	1.424904E+0	1.438719E+0	1.416436E+0	1.415594E+0	1.461983E+0	1.420684E+0	1.407623E+0	1.389165E+0	1.424942E+0	1.443477E+0	1.410066E+0	1.478380E+0	1.411938E+0	1.411029E+0	1.393954E+0	1.392269E+0	1.431017E+0	1.499913E+0	1.409031E+0	1.419334E+0	1.466987E+0	1.377445E+0	1.362622E+0	1.464285E+0	1.428872E+0	1.417554E+0	1.356543E+0	1.403702E+0	1.402208E+0	1.434840E+0	1.432445E+0	1.410893E+0	1.367914E+0	1.450377E+0	1.389193E+0	1.411666E+0	1.383764E+0	1.381618E+0	1.445913E+0	1.378291E+0	1.369454E+0	1.449985E+0	1.403797E+0	1.363035E+0	1.414957E+0	1.357136E+0	1.360403E+0	1.409117E+0	1.385252E+0	1.402322E+0	1.417576E+0	1.384903E+0	1.397100E+0	1.433015E+0	1.453984E+0	1.406769E+0
5.390340E+2	1.738681E+0	1.671786E+0	1.603314E+0	1.611778E+0	1.628775E+0	1.683916E+0	1.599144E+0	1.707197E+0	1.609377E+0	1.661471E+0	1.690373E+0	1.624375E+0	1.696299E+0	1.623470E+0	1.708999E+0	1.700115E+0	1.645449E+0	1.622628E+0	1.648509E+0	1.669432E+0	1.634391E+0	1.616132E+0	1.571030E+0	1.685536E+0	1.595454E+0	1.607016E+0	1.608638E+0	1.649378E+0	1.681349E+0	1.575017E+0	1.620611E+0	1.658377E+0	1.641881E+0	1.691155E+0	1.639033E+0	1.683794E+0	1.647193E+0	1.630297E+0	1.625784E+0	1.632937E+0	1.657007E+0	1.602142E+0	1.649435E+0	1.668921E+0	1.640008E+0	1.731219E+0	1.664317E+0	1.600175E+0	1.661642E+0	1.674283E+0	1.711560E+0	1.635894E+0	1.643369E+0	1.600143E+0	1.645644E+0	1.633987E+0	1.611876E+0	1.652705E+0	1.640537E+0	1.605585E+0	1.663827E+0	1.634194E+0	1.588727E+0	1.616517E+0	1.618550E+0	1.628593E+0	1.605273E+0	1.654962E+0	1.668746E+0	1.667632E+0	1.643051E+0	1.604360E+0	1.590094E+0	1.608824E+0	1.625586E+0	1.615640E+0	1.648243E+0	1.662988E+0	1.626692E+0	1.627432E+0	1.616273E+0	1.580737E+0	1.595852E+0	1.606100E+0	1.650780E+0	1.606820E+0	1.548997E+0	1.581951E+0	1.638695E+0	1.617708E+0	1.636994E+0	1.643162E+0	1.580365E+0	1.641024E+0	1.617793E+0	1.587985E+0	1.636741E+0	1.573380E+0	1.632325E+0	1.593818E+0	1.627438E+0	1.585319E+0	1.609548E+0	1.604638E+0	1.617143E+0	1.577577E+0	1.585035E+0	1.650011E+0	1.586498E+0	1.560407E+0	1.569740E+0	1.646485E+0	1.632602E+0	1.602092E+0	1.635191E+0	1.653513E+0	1.585698E+0	1.606555E+0	1.557946E+0	1.634745E+0	1.631342E+0	1.599616E+0	1.578604E+0	1.634774E+0	1.639116E+0	1.621994E+0	1.685303E+0	1.632831E+0	1.628498E+0	1.594572E+0	1.680745E+0	1.634987E+0	1.642714E+0	1.619196E+0	1.600868E+0	1.644717E+0	1.571712E+0	1.594915E+0	1.609449E+0	1.567187E+0	1.598793E+0	1.554486E+0	1.666737E+0	1.584032E+0	1.690486E+0	1.625002E+0	1.597368E+0	1.583716E+0	1.642887E+0	1.580229E+0	1.612789E+0	1.586042E+0	1.625534E+0	1.621447E+0	1.581117E+0	1.580794E+0	1.634832E+0	1.577491E+0	1.594997E+0	1.557451E+0	1.649346E+0	1.621528E+0	1.604746E+0	1.586014E+0	1.575887E+0	1.623548E+0	1.601357E+0	1.614724E+0	1.568669E+0	1.699559E+0	1.590661E+0
5.392670E+2	1.968055E+0	1.843335E+0	1.773287E+0	1.861289E+0	1.856269E+0	1.877829E+0	1.811075E+0	1.922198E+0	1.831565E+0	1.839176E+0	1.845854E+0	1.845060E+0	1.844020E+0	1.828344E+0	1.826276E+0	1.838777E+0	1.825173E+0	1.862313E+0	1.774518E+0	1.883474E+0	1.873621E+0	1.889367E+0	1.773350E+0	1.884464E+0	1.838311E+0	1.815122E+0	1.794847E+0	1.869783E+0	1.864331E+0	1.839292E+0	1.850822E+0	1.842579E+0	1.799707E+0	1.857866E+0	1.824483E+0	1.798424E+0	1.866299E+0	1.875540E+0	1.798486E+0	1.808593E+0	1.800015E+0	1.810738E+0	1.830875E+0	1.843007E+0	1.832382E+0	1.829777E+0	1.815077E+0	1.780886E+0	1.862270E+0	1.763882E+0	1.874939E+0	1.845276E+0	1.814338E+0	1.882481E+0	1.794415E+0	1.831718E+0	1.785103E+0	1.941287E+0	1.821519E+0	1.783925E+0	1.851531E+0	1.821370E+0	1.806797E+0	1.812939E+0	1.824920E+0	1.798329E+0	1.822351E+0	1.857596E+0	1.904444E+0	1.782917E+0	1.865769E+0	1.824777E+0	1.806989E+0	1.826369E+0	1.731045E+0	1.807538E+0	1.868365E+0	1.858988E+0	1.775269E+0	1.767179E+0	1.802185E+0	1.765070E+0	1.833257E+0	1.794075E+0	1.860449E+0	1.802242E+0	1.781171E+0	1.852601E+0	1.832053E+0	1.833179E+0	1.829859E+0	1.839113E+0	1.801656E+0	1.810638E+0	1.766631E+0	1.799408E+0	1.829303E+0	1.811502E+0	1.862276E+0	1.850174E+0	1.774721E+0	1.765013E+0	1.735928E+0	1.874762E+0	1.813333E+0	1.739960E+0	1.821023E+0	1.801808E+0	1.779583E+0	1.791059E+0	1.785724E+0	1.857828E+0	1.759927E+0	1.830879E+0	1.786666E+0	1.839735E+0	1.807393E+0	1.764913E+0	1.807093E+0	1.824811E+0	1.810706E+0	1.720798E+0	1.756542E+0	1.791382E+0	1.784402E+0	1.761907E+0	1.787297E+0	1.819469E+0	1.795029E+0	1.738303E+0	1.829665E+0	1.776399E+0	1.808424E+0	1.768417E+0	1.823938E+0	1.845129E+0	1.743207E+0	1.761111E+0	1.746325E+0	1.781646E+0	1.793839E+0	1.781911E+0	1.807938E+0	1.845953E+0	1.807185E+0	1.813667E+0	1.732655E+0	1.753377E+0	1.817979E+0	1.735463E+0	1.766620E+0	1.721263E+0	1.695723E+0	1.809681E+0	1.742771E+0	1.803482E+0	1.792158E+0	1.771140E+0	1.780898E+0	1.743815E+0	1.750874E+0	1.770396E+0	1.743811E+0	1.802447E+0	1.753012E+0	1.764852E+0	1.731910E+0	1.876209E+0	1.674174E+0	1.787788E+0	1.809544E+0
5.395160E+2	2.086956E+0	1.974130E+0	1.914466E+0	2.015206E+0	2.020669E+0	1.991306E+0	1.918045E+0	1.973409E+0	1.945536E+0	2.009570E+0	1.975920E+0	1.945800E+0	2.010843E+0	1.945933E+0	1.972230E+0	2.000425E+0	2.033096E+0	1.923639E+0	1.972595E+0	1.997114E+0	1.992055E+0	1.999411E+0	1.918999E+0	1.996665E+0	1.966455E+0	1.931404E+0	1.947071E+0	1.996553E+0	1.996479E+0	1.947900E+0	1.948110E+0	2.010483E+0	1.968021E+0	2.076661E+0	1.961863E+0	1.958917E+0	2.043934E+0	2.002614E+0	1.945636E+0	2.023529E+0	2.026631E+0	1.962490E+0	1.969571E+0	1.983458E+0	1.972986E+0	1.958716E+0	2.013186E+0	1.899108E+0	1.964792E+0	1.976749E+0	1.987859E+0	1.965596E+0	1.977341E+0	1.981256E+0	1.931603E+0	1.937568E+0	1.921071E+0	1.993639E+0	1.944273E+0	1.952092E+0	1.966952E+0	2.036212E+0	1.913077E+0	1.970519E+0	1.869477E+0	1.943748E+0	1.869133E+0	1.920898E+0	1.943761E+0	1.883113E+0	2.007891E+0	1.959929E+0	1.931459E+0	1.983307E+0	1.887455E+0	1.880957E+0	2.026082E+0	1.918563E+0	1.953714E+0	1.965377E+0	1.910187E+0	1.914414E+0	1.924709E+0	1.866972E+0	1.874015E+0	1.922643E+0	1.871119E+0	1.963387E+0	1.937246E+0	1.964792E+0	1.955729E+0	1.896554E+0	1.916181E+0	1.943527E+0	1.944931E+0	1.954482E+0	1.894256E+0	1.926113E+0	1.929803E+0	1.979316E+0	1.942697E+0	1.885622E+0	1.886121E+0	1.930330E+0	1.897076E+0	1.919498E+0	1.937703E+0	1.925708E+0	1.928474E+0	1.925563E+0	1.887289E+0	1.896411E+0	1.903207E+0	1.940012E+0	1.909372E+0	1.982421E+0	1.933205E+0	1.903498E+0	1.886120E+0	1.945612E+0	1.914121E+0	1.887429E+0	1.810761E+0	1.867497E+0	1.908006E+0	1.867889E+0	1.974848E+0	1.912322E+0	1.912399E+0	1.925992E+0	1.965563E+0	1.913555E+0	1.912216E+0	1.889306E+0	1.896984E+0	1.928441E+0	1.898233E+0	1.931706E+0	1.871912E+0	1.947826E+0	1.932101E+0	1.927835E+0	1.895527E+0	1.958162E+0	1.843347E+0	1.946196E+0	1.911332E+0	1.876640E+0	1.929296E+0	1.926245E+0	1.888228E+0	1.900606E+0	1.936942E+0	1.906091E+0	1.864408E+0	1.820421E+0	1.934313E+0	1.940205E+0	1.900919E+0	1.862697E+0	1.923930E+0	1.885077E+0	1.920909E+0	1.868828E+0	1.833585E+0	1.931448E+0	1.857274E+0	2.007772E+0	1.935015E+0	1.872486E+0	2.045773E+0
5.397650E+2	2.079976E+0	1.983751E+0	1.937642E+0	2.031792E+0	2.045886E+0	1.988900E+0	1.961968E+0	2.051838E+0	2.064377E+0	1.925636E+0	1.990063E+0	2.016285E+0	2.068102E+0	1.956381E+0	2.012507E+0	2.022036E+0	1.989396E+0	1.958326E+0	1.926216E+0	2.000301E+0	1.990011E+0	1.957515E+0	1.926348E+0	2.002880E+0	1.921327E+0	1.939942E+0	1.983597E+0	2.016456E+0	1.959434E+0	2.002580E+0	1.955886E+0	1.997715E+0	2.018198E+0	2.064105E+0	1.944199E+0	1.998442E+0	1.982300E+0	2.030554E+0	1.967777E+0	1.950056E+0	1.961316E+0	1.948909E+0	1.962820E+0	1.973642E+0	1.943214E+0	1.948019E+0	1.998822E+0	1.917367E+0	2.036349E+0	1.982273E+0	1.986442E+0	1.939796E+0	1.940255E+0	1.975988E+0	1.989442E+0	1.919139E+0	1.893389E+0	1.992896E+0	1.977990E+0	1.934955E+0	1.957168E+0	1.988402E+0	1.901679E+0	1.947167E+0	1.938979E+0	1.918298E+0	1.840260E+0	1.959491E+0	1.992089E+0	1.997044E+0	1.968362E+0	1.984298E+0	1.919960E+0	1.919473E+0	1.881233E+0	1.964741E+0	1.977935E+0	2.000814E+0	1.972875E+0	1.951678E+0	1.934159E+0	1.917379E+0	1.979099E+0	1.876259E+0	1.948626E+0	1.953927E+0	1.908693E+0	1.984684E+0	1.908584E+0	1.967248E+0	1.929233E+0	1.948014E+0	2.001345E+0	1.914226E+0	1.965002E+0	1.915754E+0	1.995231E+0	1.959886E+0	1.915932E+0	1.979854E+0	1.933264E+0	1.880294E+0	1.941770E+0	1.942098E+0	1.961894E+0	1.920421E+0	1.884416E+0	1.977028E+0	1.966774E+0	1.958606E+0	1.898908E+0	1.943780E+0	1.971269E+0	1.935968E+0	1.964662E+0	1.987942E+0	1.959836E+0	1.870838E+0	1.896303E+0	1.922505E+0	1.911030E+0	1.894637E+0	1.894071E+0	1.918648E+0	1.886896E+0	1.966628E+0	1.917155E+0	1.928653E+0	1.979976E+0	1.939008E+0	1.928281E+0	1.858670E+0	1.925050E+0	1.931628E+0	1.873924E+0	1.994401E+0	1.929470E+0	1.943498E+0	1.906989E+0	1.915041E+0	1.923207E+0	1.915407E+0	1.969081E+0	1.924628E+0	1.931404E+0	1.936035E+0	1.841429E+0	1.897154E+0	1.946417E+0	1.897652E+0	1.875952E+0	1.947594E+0	1.966425E+0	1.885236E+0	1.882658E+0	1.885574E+0	1.907838E+0	1.910484E+0	1.864640E+0	1.840144E+0	1.879212E+0	1.913686E+0	1.906940E+0	1.899245E+0	1.912782E+0	1.904630E+0	1.844242E+0	1.982014E+0	1.825586E+0	1.967199E+0	1.950705E+0
5.400140E+2	2.025544E+0	1.940135E+0	1.951496E+0	1.975206E+0	1.905586E+0	1.962378E+0	1.928673E+0	1.925742E+0	2.018466E+0	1.951470E+0	1.992747E+0	1.954732E+0	1.987896E+0	1.951065E+0	2.016671E+0	2.000359E+0	2.008115E+0	1.945893E+0	1.940131E+0	1.918595E+0	2.005665E+0	1.922890E+0	1.902081E+0	1.911575E+0	1.955658E+0	1.917523E+0	1.932941E+0	1.920245E+0	1.978203E+0	1.927404E+0	1.975407E+0	1.973550E+0	1.981294E+0	1.988620E+0	1.936677E+0	1.935452E+0	1.957496E+0	1.984476E+0	1.949893E+0	1.913360E+0	1.926825E+0	1.952266E+0	1.958916E+0	1.936769E+0	1.947131E+0	1.977941E+0	1.958350E+0	1.903944E+0	1.992230E+0	1.924005E+0	1.931780E+0	1.901389E+0	1.919547E+0	1.923052E+0	1.895444E+0	1.881178E+0	1.888801E+0	1.947425E+0	1.940871E+0	1.906494E+0	1.955987E+0	1.836031E+0	1.930522E+0	1.903904E+0	1.963026E+0	1.850551E+0	1.834630E+0	1.943849E+0	1.923613E+0	1.904296E+0	1.886106E+0	1.944353E+0	1.919461E+0	1.945010E+0	1.847676E+0	1.907640E+0	1.962915E+0	1.935360E+0	1.881053E+0	1.872182E+0	1.842179E+0	1.849224E+0	1.946859E+0	1.916980E+0	1.870332E+0	1.909308E+0	1.901338E+0	1.850067E+0	1.875788E+0	1.874628E+0	1.881318E+0	1.906263E+0	1.885119E+0	1.847818E+0	1.933943E+0	1.915154E+0	1.902909E+0	1.893675E+0	1.906541E+0	1.947437E+0	1.872493E+0	1.891757E+0	1.907696E+0	1.931706E+0	1.861396E+0	1.901972E+0	1.861103E+0	1.901399E+0	1.959387E+0	1.869361E+0	1.888841E+0	1.912470E+0	1.907941E+0	1.865667E+0	1.927258E+0	1.892848E+0	1.915177E+0	1.893840E+0	1.854890E+0	1.829066E+0	1.890917E+0	1.875693E+0	1.842852E+0	1.880161E+0	1.879657E+0	1.889099E+0	1.928207E+0	1.915342E+0	1.918988E+0	1.952231E+0	1.877749E+0	1.940455E+0	1.985411E+0	1.886102E+0	1.873181E+0	1.891863E+0	1.867502E+0	1.931973E+0	1.814099E+0	1.871197E+0	1.980774E+0	1.879769E+0	1.869134E+0	1.896458E+0	1.899895E+0	1.911096E+0	1.815534E+0	1.799892E+0	1.898874E+0	1.868511E+0	1.835585E+0	1.921272E+0	1.911890E+0	1.858134E+0	1.901251E+0	1.870807E+0	1.907392E+0	1.860463E+0	1.896083E+0	1.879403E+0	1.850229E+0	1.838115E+0	1.852033E+0	1.861524E+0	1.931073E+0	1.854494E+0	1.781816E+0	1.956169E+0	1.855633E+0	1.756544E+0	1.795271E+0
5.402740E+2	1.945635E+0	1.931820E+0	1.848521E+0	1.920166E+0	1.915503E+0	1.894699E+0	1.783347E+0	1.888217E+0	1.952187E+0	1.871991E+0	1.884520E+0	1.894095E+0	1.917589E+0	1.854378E+0	1.868744E+0	1.908114E+0	1.896416E+0	1.847775E+0	1.817980E+0	1.870617E+0	1.854794E+0	1.875254E+0	1.829182E+0	1.902221E+0	1.892822E+0	1.831615E+0	1.860943E+0	1.802629E+0	1.849568E+0	1.843534E+0	1.859367E+0	1.837777E+0	1.884398E+0	1.962894E+0	1.827733E+0	1.847085E+0	1.836937E+0	1.891419E+0	1.854527E+0	1.838412E+0	1.883274E+0	1.851915E+0	1.881690E+0	1.839043E+0	1.819192E+0	1.831021E+0	1.894801E+0	1.787165E+0	1.840883E+0	1.905476E+0	1.947435E+0	1.837949E+0	1.881483E+0	1.803007E+0	1.800959E+0	1.846146E+0	1.829155E+0	1.893391E+0	1.818305E+0	1.787982E+0	1.876793E+0	1.860188E+0	1.838225E+0	1.817944E+0	1.813232E+0	1.854863E+0	1.812309E+0	1.809668E+0	1.833203E+0	1.840734E+0	1.868984E+0	1.822948E+0	1.871538E+0	1.774118E+0	1.798233E+0	1.775342E+0	1.953919E+0	1.869419E+0	1.835534E+0	1.870071E+0	1.842667E+0	1.811353E+0	1.874866E+0	1.799940E+0	1.814791E+0	1.870705E+0	1.782769E+0	1.835185E+0	1.805366E+0	1.801720E+0	1.854441E+0	1.803064E+0	1.851362E+0	1.823350E+0	1.919736E+0	1.808882E+0	1.864117E+0	1.848676E+0	1.783511E+0	1.842065E+0	1.793519E+0	1.836679E+0	1.843668E+0	1.846434E+0	1.833298E+0	1.801549E+0	1.774103E+0	1.799292E+0	1.830315E+0	1.844773E+0	1.813685E+0	1.840004E+0	1.799213E+0	1.859141E+0	1.791183E+0	1.838485E+0	1.799498E+0	1.806262E+0	1.740583E+0	1.790329E+0	1.794230E+0	1.806824E+0	1.813822E+0	1.837066E+0	1.822993E+0	1.820695E+0	1.838508E+0	1.824897E+0	1.833034E+0	1.837762E+0	1.893404E+0	1.879984E+0	1.854787E+0	1.780665E+0	1.798223E+0	1.843686E+0	1.789158E+0	1.837764E+0	1.800824E+0	1.814314E+0	1.867335E+0	1.775416E+0	1.826290E+0	1.847571E+0	1.818232E+0	1.781204E+0	1.775968E+0	1.745959E+0	1.798355E+0	1.798013E+0	1.771167E+0	1.810736E+0	1.814004E+0	1.793117E+0	1.779931E+0	1.828881E+0	1.784434E+0	1.832857E+0	1.776105E+0	1.754473E+0	1.814096E+0	1.753378E+0	1.754745E+0	1.764542E+0	1.800496E+0	1.824199E+0	1.793228E+0	1.767451E+0	1.796286E+0	1.767675E+0	1.699534E+0
5.405080E+2	1.847618E+0	1.768927E+0	1.808014E+0	1.820968E+0	1.772966E+0	1.846426E+0	1.737167E+0	1.816508E+0	1.770060E+0	1.786815E+0	1.800240E+0	1.742473E+0	1.890993E+0	1.759266E+0	1.819010E+0	1.798419E+0	1.829995E+0	1.820005E+0	1.779899E+0	1.798549E+0	1.791434E+0	1.794470E+0	1.754792E+0	1.770569E+0	1.797685E+0	1.788133E+0	1.759768E+0	1.796798E+0	1.784008E+0	1.822784E+0	1.779623E+0	1.824722E+0	1.796104E+0	1.861158E+0	1.785318E+0	1.762805E+0	1.799239E+0	1.848366E+0	1.757083E+0	1.726596E+0	1.749840E+0	1.762617E+0	1.784801E+0	1.820350E+0	1.799683E+0	1.817802E+0	1.839932E+0	1.798380E+0	1.833968E+0	1.805738E+0	1.802865E+0	1.813980E+0	1.843659E+0	1.756996E+0	1.746228E+0	1.775108E+0	1.754628E+0	1.900016E+0	1.764555E+0	1.758352E+0	1.845643E+0	1.779033E+0	1.711455E+0	1.742447E+0	1.739177E+0	1.752033E+0	1.708739E+0	1.707602E+0	1.758214E+0	1.802913E+0	1.812217E+0	1.712089E+0	1.794211E+0	1.763434E+0	1.725214E+0	1.768452E+0	1.834758E+0	1.802744E+0	1.761822E+0	1.796720E+0	1.765032E+0	1.705048E+0	1.798098E+0	1.724309E+0	1.745524E+0	1.717236E+0	1.756688E+0	1.770105E+0	1.800403E+0	1.793682E+0	1.769122E+0	1.767523E+0	1.780428E+0	1.719657E+0	1.769608E+0	1.771650E+0	1.768809E+0	1.785851E+0	1.756342E+0	1.741313E+0	1.746644E+0	1.746591E+0	1.786618E+0	1.754163E+0	1.772399E+0	1.728202E+0	1.804974E+0	1.731799E+0	1.783601E+0	1.731433E+0	1.756914E+0	1.761974E+0	1.714655E+0	1.736341E+0	1.723424E+0	1.787123E+0	1.704978E+0	1.702055E+0	1.703455E+0	1.790761E+0	1.760839E+0	1.721513E+0	1.704239E+0	1.771734E+0	1.749317E+0	1.726516E+0	1.769517E+0	1.750431E+0	1.755624E+0	1.746129E+0	1.805130E+0	1.721050E+0	1.775012E+0	1.701818E+0	1.742402E+0	1.842341E+0	1.711872E+0	1.792884E+0	1.652797E+0	1.766214E+0	1.741584E+0	1.714459E+0	1.729247E+0	1.791568E+0	1.769029E+0	1.783933E+0	1.708712E+0	1.693855E+0	1.817746E+0	1.739793E+0	1.696186E+0	1.757555E+0	1.749732E+0	1.748122E+0	1.706415E+0	1.705013E+0	1.797082E+0	1.709370E+0	1.732339E+0	1.650276E+0	1.726642E+0	1.715501E+0	1.725635E+0	1.741469E+0	1.761761E+0	1.783187E+0	1.725108E+0	1.796144E+0	1.766238E+0	1.663305E+0	1.814345E+0
5.407790E+2	1.826841E+0	1.709196E+0	1.704866E+0	1.722469E+0	1.710034E+0	1.696166E+0	1.719977E+0	1.780813E+0	1.761380E+0	1.691421E+0	1.737459E+0	1.690353E+0	1.744082E+0	1.680002E+0	1.742107E+0	1.778243E+0	1.783292E+0	1.683154E+0	1.676000E+0	1.743355E+0	1.764486E+0	1.748307E+0	1.665614E+0	1.717517E+0	1.689997E+0	1.718151E+0	1.710057E+0	1.649670E+0	1.713550E+0	1.681918E+0	1.714810E+0	1.738945E+0	1.742989E+0	1.691485E+0	1.732304E+0	1.750560E+0	1.754967E+0	1.686879E+0	1.667601E+0	1.709563E+0	1.721213E+0	1.692586E+0	1.750099E+0	1.694980E+0	1.684608E+0	1.706121E+0	1.751662E+0	1.699507E+0	1.726188E+0	1.723035E+0	1.680484E+0	1.688347E+0	1.711565E+0	1.716015E+0	1.710750E+0	1.679854E+0	1.761526E+0	1.817326E+0	1.709133E+0	1.707273E+0	1.793412E+0	1.662145E+0	1.663305E+0	1.696577E+0	1.702448E+0	1.697190E+0	1.634293E+0	1.649767E+0	1.726864E+0	1.734267E+0	1.682591E+0	1.689435E+0	1.722275E+0	1.716412E+0	1.667637E+0	1.677041E+0	1.757710E+0	1.695280E+0	1.690107E+0	1.720953E+0	1.631484E+0	1.671154E+0	1.651842E+0	1.638004E+0	1.681325E+0	1.689455E+0	1.670077E+0	1.701663E+0	1.679445E+0	1.735005E+0	1.792431E+0	1.717395E+0	1.683882E+0	1.695991E+0	1.770275E+0	1.715345E+0	1.717765E+0	1.667232E+0	1.678289E+0	1.639741E+0	1.706333E+0	1.720695E+0	1.690304E+0	1.678395E+0	1.683647E+0	1.741353E+0	1.704515E+0	1.618663E+0	1.690135E+0	1.668566E+0	1.656243E+0	1.691666E+0	1.667432E+0	1.630038E+0	1.635842E+0	1.692980E+0	1.759304E+0	1.638868E+0	1.656128E+0	1.690539E+0	1.663566E+0	1.671870E+0	1.634487E+0	1.675722E+0	1.650414E+0	1.697624E+0	1.732188E+0	1.666704E+0	1.673278E+0	1.671365E+0	1.675498E+0	1.684382E+0	1.734963E+0	1.656080E+0	1.722163E+0	1.666600E+0	1.681166E+0	1.691453E+0	1.741314E+0	1.691647E+0	1.632640E+0	1.607217E+0	1.640487E+0	1.699181E+0	1.659784E+0	1.698046E+0	1.614451E+0	1.604721E+0	1.733573E+0	1.634804E+0	1.622953E+0	1.668183E+0	1.730235E+0	1.660593E+0	1.625592E+0	1.645198E+0	1.699630E+0	1.651970E+0	1.627145E+0	1.572811E+0	1.720515E+0	1.647967E+0	1.591426E+0	1.641201E+0	1.647098E+0	1.706964E+0	1.599624E+0	1.683687E+0	1.672596E+0	1.624869E+0	1.674208E+0
5.410130E+2	1.799511E+0	1.657666E+0	1.730160E+0	1.636086E+0	1.692672E+0	1.713970E+0	1.670337E+0	1.706058E+0	1.702450E+0	1.739771E+0	1.706277E+0	1.724127E+0	1.722062E+0	1.658303E+0	1.749690E+0	1.679443E+0	1.703224E+0	1.669864E+0	1.688190E+0	1.685987E+0	1.693953E+0	1.682274E+0	1.647473E+0	1.675956E+0	1.682431E+0	1.678177E+0	1.660559E+0	1.652364E+0	1.699174E+0	1.700646E+0	1.655829E+0	1.687521E+0	1.724140E+0	1.706456E+0	1.668115E+0	1.738202E+0	1.737819E+0	1.731746E+0	1.634849E+0	1.639197E+0	1.701394E+0	1.707074E+0	1.730065E+0	1.622027E+0	1.623744E+0	1.717839E+0	1.683114E+0	1.662206E+0	1.726526E+0	1.707204E+0	1.730915E+0	1.681262E+0	1.704876E+0	1.624223E+0	1.655222E+0	1.632260E+0	1.607978E+0	1.714973E+0	1.685858E+0	1.668668E+0	1.711983E+0	1.684741E+0	1.620930E+0	1.632986E+0	1.670175E+0	1.689666E+0	1.625752E+0	1.606572E+0	1.679668E+0	1.714498E+0	1.677679E+0	1.651793E+0	1.707075E+0	1.645457E+0	1.625055E+0	1.642536E+0	1.713568E+0	1.637954E+0	1.728921E+0	1.615722E+0	1.644738E+0	1.620808E+0	1.706564E+0	1.628213E+0	1.671328E+0	1.666518E+0	1.654027E+0	1.655642E+0	1.708835E+0	1.649961E+0	1.633720E+0	1.669624E+0	1.574472E+0	1.671553E+0	1.722748E+0	1.590423E+0	1.698820E+0	1.657074E+0	1.657660E+0	1.630689E+0	1.650207E+0	1.625711E+0	1.683439E+0	1.669729E+0	1.657812E+0	1.636550E+0	1.633046E+0	1.650776E+0	1.696459E+0	1.632456E+0	1.690733E+0	1.675491E+0	1.711000E+0	1.660139E+0	1.612599E+0	1.673182E+0	1.684359E+0	1.585681E+0	1.565041E+0	1.608376E+0	1.652308E+0	1.594186E+0	1.628050E+0	1.560942E+0	1.661629E+0	1.598172E+0	1.742158E+0	1.662875E+0	1.682455E+0	1.636605E+0	1.758642E+0	1.692433E+0	1.701108E+0	1.654197E+0	1.600594E+0	1.652595E+0	1.639249E+0	1.690680E+0	1.651915E+0	1.610828E+0	1.670970E+0	1.594764E+0	1.659312E+0	1.656977E+0	1.657687E+0	1.643687E+0	1.641263E+0	1.590449E+0	1.691944E+0	1.595281E+0	1.584190E+0	1.620051E+0	1.661868E+0	1.692189E+0	1.667052E+0	1.612078E+0	1.649050E+0	1.630515E+0	1.629294E+0	1.610166E+0	1.665478E+0	1.589381E+0	1.642930E+0	1.578528E+0	1.677342E+0	1.657948E+0	1.615265E+0	1.639512E+0	1.655976E+0	1.614424E+0	1.687412E+0
5.412690E+2	1.681358E+0	1.570061E+0	1.548796E+0	1.597991E+0	1.605337E+0	1.628883E+0	1.571057E+0	1.617714E+0	1.615243E+0	1.574783E+0	1.619043E+0	1.609261E+0	1.617137E+0	1.640840E+0	1.609796E+0	1.591434E+0	1.587017E+0	1.603769E+0	1.594606E+0	1.586766E+0	1.590348E+0	1.647680E+0	1.551021E+0	1.586225E+0	1.494407E+0	1.553486E+0	1.548764E+0	1.572230E+0	1.590946E+0	1.556684E+0	1.557304E+0	1.614927E+0	1.561611E+0	1.614803E+0	1.595358E+0	1.555727E+0	1.610946E+0	1.610357E+0	1.580331E+0	1.542953E+0	1.635289E+0	1.613443E+0	1.605941E+0	1.623555E+0	1.567571E+0	1.587528E+0	1.600213E+0	1.583845E+0	1.602943E+0	1.607764E+0	1.548971E+0	1.505129E+0	1.572025E+0	1.559227E+0	1.568698E+0	1.545549E+0	1.551595E+0	1.522455E+0	1.563846E+0	1.484757E+0	1.660686E+0	1.538159E+0	1.602434E+0	1.507437E+0	1.574821E+0	1.555892E+0	1.495760E+0	1.596214E+0	1.606617E+0	1.561603E+0	1.531925E+0	1.542459E+0	1.536330E+0	1.581960E+0	1.572148E+0	1.554305E+0	1.590003E+0	1.594443E+0	1.568172E+0	1.590053E+0	1.555784E+0	1.557906E+0	1.546306E+0	1.548125E+0	1.545849E+0	1.545629E+0	1.531832E+0	1.532702E+0	1.644066E+0	1.598684E+0	1.575052E+0	1.533968E+0	1.530734E+0	1.589378E+0	1.528108E+0	1.550732E+0	1.562357E+0	1.575665E+0	1.562023E+0	1.558395E+0	1.608632E+0	1.560253E+0	1.598847E+0	1.553435E+0	1.552683E+0	1.615547E+0	1.529830E+0	1.568649E+0	1.571177E+0	1.548131E+0	1.503958E+0	1.572042E+0	1.578204E+0	1.500323E+0	1.541470E+0	1.537797E+0	1.579279E+0	1.572542E+0	1.517095E+0	1.499636E+0	1.579397E+0	1.499826E+0	1.507465E+0	1.475231E+0	1.565485E+0	1.562381E+0	1.569349E+0	1.542187E+0	1.566178E+0	1.553626E+0	1.565012E+0	1.514371E+0	1.620487E+0	1.541567E+0	1.557946E+0	1.495857E+0	1.548961E+0	1.555495E+0	1.596443E+0	1.555714E+0	1.543346E+0	1.536296E+0	1.523365E+0	1.551493E+0	1.554218E+0	1.574120E+0	1.503081E+0	1.494708E+0	1.570668E+0	1.509052E+0	1.500814E+0	1.520553E+0	1.566684E+0	1.523262E+0	1.550891E+0	1.514961E+0	1.583384E+0	1.576213E+0	1.491480E+0	1.505753E+0	1.515038E+0	1.582692E+0	1.482796E+0	1.525471E+0	1.525135E+0	1.539069E+0	1.507652E+0	1.540815E+0	1.544269E+0	1.589483E+0	1.757352E+0
5.415140E+2	1.580088E+0	1.449629E+0	1.403004E+0	1.473790E+0	1.419610E+0	1.493609E+0	1.414963E+0	1.472041E+0	1.461842E+0	1.460782E+0	1.424232E+0	1.482493E+0	1.441952E+0	1.494130E+0	1.479468E+0	1.513065E+0	1.461225E+0	1.472295E+0	1.407455E+0	1.453374E+0	1.461332E+0	1.442441E+0	1.429969E+0	1.464547E+0	1.400273E+0	1.452803E+0	1.431549E+0	1.401003E+0	1.447877E+0	1.430911E+0	1.420248E+0	1.410573E+0	1.462259E+0	1.468424E+0	1.462424E+0	1.444304E+0	1.463535E+0	1.456813E+0	1.422932E+0	1.430731E+0	1.412890E+0	1.398365E+0	1.485869E+0	1.387390E+0	1.465788E+0	1.430438E+0	1.492062E+0	1.377919E+0	1.435955E+0	1.449532E+0	1.466904E+0	1.401530E+0	1.482538E+0	1.430982E+0	1.416233E+0	1.384442E+0	1.444272E+0	1.470701E+0	1.479987E+0	1.449999E+0	1.472002E+0	1.426034E+0	1.393199E+0	1.356787E+0	1.396107E+0	1.412492E+0	1.375074E+0	1.408430E+0	1.430336E+0	1.428746E+0	1.442718E+0	1.462542E+0	1.485835E+0	1.411881E+0	1.368231E+0	1.371150E+0	1.480679E+0	1.435012E+0	1.458909E+0	1.408265E+0	1.382931E+0	1.415141E+0	1.425086E+0	1.415219E+0	1.431484E+0	1.409480E+0	1.387175E+0	1.412006E+0	1.428835E+0	1.464491E+0	1.422567E+0	1.451079E+0	1.405971E+0	1.433703E+0	1.421335E+0	1.435287E+0	1.474505E+0	1.410119E+0	1.414564E+0	1.408424E+0	1.466721E+0	1.410329E+0	1.380707E+0	1.371248E+0	1.412368E+0	1.388710E+0	1.422734E+0	1.411169E+0	1.440952E+0	1.468716E+0	1.464947E+0	1.442852E+0	1.494692E+0	1.423082E+0	1.424319E+0	1.461856E+0	1.444755E+0	1.378929E+0	1.435261E+0	1.376927E+0	1.414838E+0	1.441092E+0	1.399033E+0	1.462758E+0	1.438858E+0	1.446649E+0	1.453680E+0	1.412471E+0	1.470562E+0	1.434372E+0	1.410051E+0	1.414345E+0	1.477449E+0	1.385570E+0	1.381906E+0	1.416363E+0	1.336471E+0	1.413496E+0	1.411931E+0	1.422814E+0	1.456724E+0	1.344017E+0	1.413880E+0	1.432665E+0	1.465460E+0	1.393709E+0	1.389274E+0	1.402082E+0	1.435943E+0	1.428969E+0	1.415901E+0	1.426753E+0	1.411996E+0	1.442146E+0	1.443916E+0	1.407469E+0	1.471257E+0	1.356425E+0	1.455345E+0	1.383732E+0	1.418681E+0	1.398421E+0	1.431752E+0	1.424940E+0	1.442988E+0	1.416584E+0	1.367959E+0	1.436702E+0	1.442139E+0	1.431458E+0	1.438252E+0
5.417760E+2	1.353324E+0	1.230537E+0	1.244488E+0	1.262950E+0	1.248229E+0	1.248776E+0	1.259137E+0	1.284710E+0	1.211699E+0	1.284170E+0	1.262917E+0	1.209868E+0	1.253832E+0	1.281436E+0	1.311692E+0	1.265524E+0	1.262263E+0	1.274201E+0	1.251433E+0	1.247633E+0	1.294804E+0	1.259501E+0	1.236144E+0	1.269081E+0	1.243069E+0	1.223179E+0	1.222884E+0	1.205298E+0	1.301230E+0	1.253803E+0	1.235414E+0	1.300442E+0	1.257481E+0	1.301429E+0	1.264215E+0	1.248211E+0	1.265055E+0	1.265921E+0	1.250737E+0	1.258458E+0	1.242041E+0	1.236275E+0	1.285430E+0	1.275741E+0	1.228032E+0	1.285964E+0	1.246294E+0	1.222280E+0	1.272763E+0	1.269651E+0	1.298458E+0	1.263918E+0	1.290810E+0	1.259296E+0	1.264368E+0	1.249112E+0	1.210572E+0	1.285652E+0	1.254775E+0	1.248965E+0	1.253329E+0	1.255801E+0	1.227516E+0	1.263767E+0	1.273587E+0	1.228126E+0	1.237863E+0	1.249558E+0	1.241858E+0	1.242706E+0	1.245564E+0	1.258612E+0	1.263200E+0	1.280790E+0	1.221450E+0	1.200219E+0	1.312406E+0	1.264207E+0	1.224313E+0	1.279001E+0	1.235125E+0	1.276720E+0	1.266460E+0	1.236289E+0	1.278550E+0	1.232205E+0	1.251182E+0	1.213536E+0	1.245743E+0	1.285568E+0	1.256958E+0	1.286010E+0	1.270901E+0	1.264788E+0	1.256784E+0	1.252170E+0	1.227660E+0	1.306473E+0	1.279628E+0	1.222917E+0	1.252934E+0	1.290286E+0	1.233011E+0	1.261808E+0	1.258235E+0	1.280505E+0	1.274680E+0	1.234782E+0	1.329633E+0	1.231992E+0	1.228254E+0	1.225698E+0	1.229722E+0	1.256648E+0	1.260796E+0	1.270640E+0	1.233839E+0	1.263229E+0	1.210235E+0	1.197602E+0	1.295360E+0	1.205947E+0	1.221396E+0	1.229563E+0	1.240455E+0	1.241475E+0	1.288621E+0	1.273670E+0	1.259777E+0	1.241759E+0	1.254071E+0	1.226381E+0	1.280086E+0	1.269533E+0	1.277233E+0	1.206964E+0	1.257827E+0	1.232895E+0	1.315433E+0	1.199706E+0	1.262313E+0	1.207555E+0	1.267570E+0	1.231926E+0	1.293023E+0	1.231772E+0	1.202884E+0	1.208330E+0	1.279733E+0	1.231333E+0	1.259248E+0	1.228119E+0	1.278535E+0	1.267095E+0	1.220799E+0	1.278810E+0	1.284090E+0	1.282982E+0	1.247012E+0	1.233634E+0	1.221191E+0	1.290632E+0	1.210264E+0	1.218832E+0	1.226224E+0	1.257577E+0	1.228067E+0	1.312056E+0	1.253200E+0	1.225179E+0	1.177173E+0
5.420270E+2	1.127882E+0	1.028933E+0	1.078518E+0	1.042761E+0	1.099903E+0	1.072341E+0	1.093673E+0	1.073933E+0	1.072487E+0	1.086015E+0	1.054859E+0	1.066107E+0	1.080636E+0	1.069985E+0	1.106908E+0	1.094070E+0	1.085151E+0	1.080292E+0	1.071771E+0	1.071004E+0	1.129497E+0	1.107337E+0	1.042707E+0	1.057484E+0	1.073875E+0	1.087193E+0	1.070111E+0	1.046502E+0	1.070661E+0	1.074466E+0	1.055172E+0	1.086751E+0	1.088888E+0	1.162019E+0	1.067027E+0	1.113900E+0	1.075463E+0	1.120002E+0	1.033924E+0	1.032875E+0	1.066115E+0	1.068058E+0	1.087748E+0	1.100728E+0	1.096803E+0	1.054291E+0	1.089570E+0	1.062757E+0	1.104987E+0	1.083958E+0	1.098559E+0	1.017769E+0	1.087756E+0	1.090825E+0	1.081240E+0	1.065380E+0	1.061292E+0	1.113411E+0	1.102875E+0	1.065704E+0	1.095568E+0	1.078498E+0	1.068219E+0	1.085432E+0	1.008737E+0	1.075620E+0	1.034460E+0	1.082338E+0	1.091656E+0	1.080281E+0	1.115166E+0	1.048130E+0	1.098049E+0	1.100082E+0	1.080289E+0	1.071312E+0	1.113803E+0	1.110036E+0	1.075691E+0	1.074093E+0	1.041389E+0	1.026125E+0	1.103668E+0	1.091453E+0	1.062675E+0	1.088321E+0	1.078390E+0	1.048829E+0	1.098615E+0	1.058262E+0	1.071561E+0	1.072284E+0	1.027703E+0	1.076520E+0	1.020605E+0	1.095807E+0	1.076619E+0	1.074551E+0	1.086470E+0	1.054058E+0	1.132649E+0	1.098209E+0	1.052356E+0	1.025010E+0	1.070089E+0	1.079069E+0	1.136312E+0	1.057889E+0	1.070111E+0	1.081767E+0	1.083748E+0	1.109355E+0	1.092623E+0	1.116383E+0	1.057508E+0	1.042362E+0	1.113744E+0	1.055794E+0	1.046912E+0	1.097948E+0	1.091108E+0	1.063123E+0	1.031601E+0	1.077996E+0	1.070654E+0	1.065710E+0	1.095777E+0	1.063534E+0	1.103804E+0	1.147769E+0	1.058669E+0	1.062325E+0	1.086762E+0	1.082698E+0	1.064128E+0	1.115144E+0	1.064509E+0	1.079747E+0	1.111763E+0	1.076792E+0	1.090300E+0	1.039466E+0	1.111611E+0	1.041762E+0	1.034573E+0	1.098516E+0	1.102392E+0	1.071996E+0	1.121570E+0	1.072374E+0	1.034835E+0	1.065482E+0	1.147241E+0	1.086614E+0	1.081836E+0	1.063167E+0	1.090840E+0	1.049435E+0	1.096728E+0	1.082679E+0	1.062575E+0	1.081061E+0	1.121202E+0	1.030252E+0	1.072492E+0	1.070756E+0	1.054048E+0	1.074468E+0	1.048368E+0	1.085467E+0	1.133859E+0
5.422670E+2	9.882385E-1	9.649310E-1	9.375666E-1	9.431203E-1	9.548047E-1	9.853940E-1	9.715849E-1	9.854912E-1	9.453151E-1	9.402569E-1	9.614980E-1	9.932080E-1	9.184096E-1	1.013957E+0	1.000309E+0	9.427904E-1	9.476546E-1	9.524754E-1	9.679943E-1	9.903577E-1	9.503542E-1	9.979280E-1	9.211288E-1	9.177700E-1	9.875936E-1	9.534573E-1	9.936568E-1	9.653567E-1	9.416124E-1	9.388744E-1	9.588391E-1	9.953654E-1	9.341993E-1	9.705843E-1	9.415033E-1	9.892557E-1	9.795653E-1	1.043180E+0	9.500213E-1	9.951802E-1	9.630907E-1	9.282740E-1	9.562821E-1	9.536664E-1	9.505422E-1	9.691179E-1	1.004741E+0	9.671942E-1	9.783511E-1	1.011446E+0	9.924739E-1	9.461695E-1	9.893616E-1	9.892314E-1	9.770575E-1	9.399703E-1	9.667646E-1	9.391796E-1	9.922149E-1	8.990394E-1	9.766796E-1	9.972821E-1	9.443955E-1	9.493937E-1	9.549337E-1	9.621605E-1	9.380770E-1	9.597303E-1	9.616355E-1	9.771670E-1	9.757752E-1	1.012271E+0	9.807160E-1	9.682130E-1	9.648491E-1	9.721118E-1	9.925300E-1	1.017181E+0	1.000166E+0	9.616316E-1	9.113152E-1	9.291506E-1	9.761804E-1	9.662014E-1	9.708295E-1	9.356478E-1	9.250763E-1	9.426657E-1	9.587743E-1	9.911401E-1	9.952679E-1	9.849147E-1	9.528069E-1	9.824995E-1	9.810805E-1	1.003385E+0	9.680802E-1	9.593008E-1	9.804721E-1	9.724769E-1	9.227057E-1	9.294615E-1	9.812884E-1	9.729798E-1	9.709618E-1	9.935416E-1	1.007194E+0	9.710472E-1	9.710170E-1	9.693389E-1	9.470092E-1	9.317707E-1	9.805553E-1	9.602627E-1	9.689281E-1	9.323770E-1	9.673131E-1	9.381384E-1	9.991480E-1	9.346626E-1	9.420463E-1	9.732033E-1	9.289349E-1	9.626716E-1	9.221054E-1	9.380174E-1	1.004394E+0	9.651977E-1	9.828108E-1	9.693819E-1	9.954013E-1	9.971894E-1	1.005310E+0	9.355685E-1	9.618374E-1	9.647094E-1	9.715906E-1	9.184476E-1	9.954693E-1	9.882136E-1	9.666949E-1	9.684285E-1	9.832976E-1	9.634496E-1	9.447147E-1	9.676806E-1	9.391452E-1	9.812268E-1	9.815282E-1	9.756056E-1	9.517871E-1	9.357473E-1	9.435224E-1	9.470483E-1	9.422840E-1	9.383915E-1	9.482918E-1	9.809876E-1	9.801842E-1	9.516754E-1	9.842012E-1	9.672097E-1	9.416561E-1	9.753451E-1	9.966536E-1	9.408585E-1	9.204430E-1	9.706880E-1	9.195003E-1	9.699106E-1	9.764614E-1
5.425190E+2	9.024223E-1	8.882157E-1	8.949362E-1	9.359710E-1	9.021849E-1	9.128845E-1	8.921385E-1	8.905662E-1	9.031395E-1	8.865220E-1	8.776543E-1	8.643377E-1	8.862193E-1	9.631410E-1	9.313227E-1	8.936744E-1	8.960583E-1	9.096078E-1	8.492743E-1	9.092321E-1	8.572267E-1	8.833692E-1	8.326157E-1	8.785231E-1	9.092921E-1	9.261033E-1	8.611069E-1	9.181176E-1	9.117320E-1	9.071372E-1	8.901217E-1	8.948380E-1	8.946046E-1	9.561610E-1	9.103886E-1	9.460736E-1	9.141508E-1	9.502737E-1	9.038805E-1	8.993988E-1	8.910803E-1	9.026885E-1	9.154447E-1	8.862265E-1	9.092306E-1	9.124630E-1	8.927694E-1	8.782102E-1	8.993693E-1	8.829827E-1	9.067023E-1	8.985770E-1	8.806292E-1	9.187107E-1	8.292253E-1	8.839650E-1	8.983865E-1	9.279610E-1	8.904586E-1	8.699142E-1	9.237245E-1	9.704315E-1	8.734490E-1	8.933143E-1	8.684693E-1	9.077799E-1	9.031352E-1	9.095017E-1	9.199330E-1	9.216757E-1	9.338655E-1	9.280743E-1	9.264754E-1	9.299502E-1	9.199087E-1	9.001486E-1	9.373965E-1	9.265591E-1	8.943144E-1	9.467228E-1	8.864790E-1	8.678546E-1	8.719105E-1	8.984139E-1	9.448942E-1	8.748594E-1	9.047348E-1	9.086843E-1	8.647253E-1	9.043926E-1	8.820844E-1	9.103919E-1	9.117195E-1	9.159383E-1	9.132317E-1	8.981089E-1	8.534644E-1	9.208017E-1	9.228848E-1	9.533706E-1	8.949009E-1	8.893911E-1	8.699544E-1	9.279902E-1	9.190177E-1	9.056351E-1	9.357094E-1	9.375630E-1	8.909842E-1	8.845043E-1	8.659647E-1	9.186435E-1	8.832361E-1	8.661001E-1	9.079481E-1	9.225881E-1	9.091287E-1	8.825069E-1	8.524379E-1	9.249796E-1	9.330256E-1	8.811595E-1	9.106162E-1	9.078862E-1	9.560902E-1	9.172216E-1	9.144538E-1	9.253172E-1	8.861885E-1	9.281428E-1	9.060589E-1	9.026441E-1	9.080940E-1	8.852516E-1	9.021290E-1	9.344030E-1	8.778811E-1	9.320188E-1	8.754208E-1	9.657198E-1	8.670343E-1	9.073363E-1	9.013532E-1	9.221128E-1	9.018891E-1	9.291999E-1	8.618054E-1	8.828802E-1	9.483643E-1	9.009653E-1	8.954211E-1	9.239796E-1	8.928133E-1	9.312337E-1	8.561736E-1	8.849724E-1	8.948233E-1	9.005844E-1	9.011147E-1	8.789981E-1	8.836964E-1	9.096772E-1	8.957111E-1	8.882590E-1	8.708041E-1	9.151073E-1	9.041760E-1	9.482320E-1	8.956160E-1	9.029731E-1	8.555250E-1
5.427650E+2	9.841568E-1	9.178619E-1	9.651821E-1	8.974412E-1	9.598550E-1	9.258742E-1	9.043479E-1	9.126149E-1	9.383642E-1	9.591135E-1	9.260463E-1	8.894997E-1	9.618931E-1	9.296770E-1	9.590456E-1	9.452200E-1	9.007580E-1	9.317767E-1	8.938605E-1	9.425339E-1	9.668730E-1	9.352756E-1	9.605370E-1	9.610393E-1	9.241300E-1	8.897501E-1	9.456940E-1	9.565744E-1	9.437203E-1	9.443757E-1	9.588719E-1	9.455781E-1	9.034016E-1	9.649389E-1	9.246722E-1	9.539501E-1	9.868594E-1	9.638113E-1	9.592732E-1	8.940825E-1	9.338339E-1	9.292082E-1	9.773925E-1	9.338144E-1	9.281575E-1	9.425143E-1	9.322776E-1	9.371407E-1	9.054424E-1	8.812855E-1	9.341495E-1	9.233515E-1	9.364416E-1	9.843067E-1	9.238402E-1	9.516051E-1	9.454928E-1	9.408023E-1	9.314315E-1	9.047997E-1	9.518172E-1	9.261216E-1	9.095863E-1	9.161088E-1	9.202318E-1	8.927184E-1	9.187871E-1	9.700229E-1	9.181300E-1	9.576627E-1	9.412783E-1	9.549234E-1	9.670952E-1	8.823171E-1	8.798052E-1	9.786725E-1	9.551265E-1	9.450580E-1	9.676930E-1	9.444342E-1	9.305908E-1	9.266768E-1	9.517901E-1	9.196927E-1	9.654679E-1	9.776652E-1	9.298065E-1	9.361084E-1	9.656272E-1	9.311379E-1	9.481834E-1	9.184891E-1	9.754104E-1	9.454992E-1	9.155507E-1	9.344314E-1	9.589914E-1	9.568438E-1	9.074437E-1	9.292981E-1	9.476326E-1	9.202170E-1	9.324965E-1	9.493648E-1	9.147293E-1	9.095425E-1	8.913941E-1	8.999387E-1	9.181151E-1	9.364864E-1	9.157194E-1	9.189860E-1	9.179301E-1	9.279435E-1	9.278112E-1	9.811736E-1	9.426012E-1	9.162851E-1	9.467751E-1	9.402263E-1	9.119604E-1	9.081111E-1	8.924774E-1	8.952934E-1	9.198792E-1	9.411226E-1	9.565847E-1	9.230912E-1	8.910396E-1	9.218577E-1	9.328550E-1	9.455987E-1	9.659372E-1	9.430124E-1	9.452143E-1	9.576704E-1	9.707814E-1	9.556753E-1	9.070179E-1	9.518172E-1	9.070604E-1	8.974801E-1	9.686041E-1	9.696354E-1	9.505623E-1	9.316598E-1	9.172845E-1	8.805057E-1	9.437532E-1	9.476970E-1	9.107510E-1	9.463633E-1	9.141677E-1	9.679698E-1	9.465596E-1	9.241670E-1	9.519032E-1	9.063872E-1	9.340354E-1	9.509351E-1	9.242081E-1	9.736618E-1	9.135111E-1	9.526372E-1	9.364685E-1	9.481907E-1	9.467517E-1	9.528100E-1	8.854245E-1	1.006518E+0	9.517569E-1
5.430070E+2	1.057483E+0	1.002741E+0	1.068595E+0	1.038018E+0	1.051018E+0	1.033882E+0	1.031574E+0	1.034867E+0	1.003918E+0	1.082173E+0	9.858890E-1	1.026401E+0	1.038043E+0	1.067053E+0	9.979594E-1	1.050038E+0	1.091656E+0	1.032353E+0	1.067424E+0	1.063389E+0	1.054147E+0	1.054379E+0	1.002243E+0	1.035722E+0	1.035735E+0	1.083299E+0	1.062782E+0	1.043605E+0	1.077521E+0	1.078305E+0	1.058876E+0	1.061725E+0	1.041780E+0	1.100867E+0	1.057452E+0	1.038327E+0	1.034920E+0	1.040692E+0	1.069307E+0	1.022263E+0	1.044013E+0	1.019216E+0	1.050399E+0	1.032168E+0	1.033272E+0	1.073523E+0	1.082933E+0	1.028596E+0	1.018625E+0	1.057671E+0	1.074306E+0	1.057776E+0	1.076094E+0	1.056523E+0	1.027261E+0	1.066840E+0	1.026959E+0	1.111553E+0	1.042719E+0	9.890728E-1	1.098888E+0	1.047553E+0	1.043437E+0	1.018689E+0	1.042983E+0	1.053856E+0	1.035569E+0	1.033774E+0	1.015366E+0	1.054705E+0	1.043828E+0	1.050833E+0	1.076432E+0	1.022158E+0	1.011834E+0	1.030483E+0	1.079283E+0	1.027471E+0	1.052473E+0	1.023799E+0	1.013438E+0	1.015859E+0	1.030185E+0	1.057037E+0	1.020394E+0	1.047545E+0	1.063059E+0	1.008009E+0	1.056132E+0	1.060912E+0	1.046826E+0	1.036961E+0	1.044191E+0	1.022230E+0	1.072006E+0	1.095264E+0	1.035807E+0	1.045290E+0	1.029309E+0	1.017310E+0	1.020502E+0	1.025344E+0	1.047695E+0	1.047354E+0	1.012080E+0	1.079499E+0	1.063731E+0	1.056490E+0	1.032218E+0	1.019506E+0	1.006652E+0	1.028813E+0	1.030767E+0	1.027843E+0	1.018232E+0	1.029396E+0	1.058141E+0	1.052182E+0	1.021448E+0	1.048339E+0	1.053709E+0	1.006717E+0	9.845543E-1	1.012901E+0	1.026711E+0	1.063700E+0	1.053748E+0	1.053732E+0	1.064672E+0	9.820005E-1	1.035727E+0	1.066913E+0	1.084166E+0	1.019309E+0	1.071954E+0	1.057408E+0	1.035666E+0	1.058380E+0	1.060081E+0	1.042228E+0	1.034715E+0	1.006526E+0	1.055952E+0	1.039349E+0	1.004359E+0	1.007382E+0	1.045072E+0	1.031490E+0	1.043275E+0	1.063216E+0	1.048942E+0	1.045665E+0	1.044591E+0	1.013124E+0	1.045002E+0	9.921513E-1	1.037722E+0	1.027546E+0	1.030177E+0	1.003140E+0	1.032123E+0	1.036337E+0	1.054179E+0	9.974053E-1	1.039110E+0	1.034459E+0	9.880647E-1	1.035396E+0	1.040143E+0	1.009068E+0	1.021331E+0
5.432590E+2	1.255817E+0	1.170833E+0	1.148053E+0	1.150987E+0	1.175673E+0	1.174211E+0	1.154141E+0	1.186464E+0	1.180799E+0	1.196802E+0	1.212356E+0	1.153755E+0	1.135878E+0	1.210263E+0	1.247954E+0	1.184706E+0	1.168141E+0	1.170753E+0	1.149189E+0	1.209108E+0	1.189643E+0	1.218885E+0	1.129644E+0	1.154581E+0	1.168389E+0	1.210196E+0	1.212304E+0	1.207130E+0	1.184913E+0	1.210731E+0	1.196033E+0	1.214937E+0	1.234484E+0	1.283324E+0	1.210868E+0	1.195713E+0	1.188336E+0	1.225207E+0	1.214909E+0	1.163761E+0	1.187892E+0	1.234607E+0	1.172556E+0	1.228847E+0	1.166064E+0	1.237517E+0	1.195902E+0	1.195312E+0	1.222349E+0	1.199657E+0	1.190083E+0	1.134892E+0	1.172908E+0	1.186737E+0	1.148632E+0	1.155586E+0	1.181864E+0	1.196631E+0	1.195129E+0	1.155992E+0	1.212356E+0	1.226883E+0	1.212028E+0	1.171464E+0	1.203615E+0	1.215943E+0	1.135007E+0	1.161686E+0	1.169223E+0	1.172463E+0	1.211688E+0	1.210008E+0	1.189568E+0	1.168658E+0	1.189640E+0	1.217471E+0	1.220303E+0	1.223217E+0	1.178812E+0	1.188544E+0	1.118868E+0	1.198214E+0	1.193400E+0	1.210802E+0	1.177673E+0	1.178149E+0	1.142416E+0	1.150287E+0	1.214539E+0	1.223394E+0	1.176389E+0	1.185601E+0	1.171441E+0	1.194616E+0	1.179191E+0	1.186379E+0	1.141825E+0	1.172162E+0	1.147402E+0	1.180989E+0	1.192424E+0	1.169680E+0	1.237723E+0	1.142938E+0	1.143221E+0	1.190635E+0	1.211167E+0	1.194763E+0	1.150945E+0	1.229041E+0	1.167657E+0	1.154649E+0	1.197913E+0	1.207207E+0	1.172984E+0	1.206788E+0	1.151209E+0	1.154415E+0	1.131004E+0	1.171058E+0	1.165317E+0	1.196917E+0	1.158118E+0	1.116459E+0	1.174715E+0	1.193676E+0	1.189309E+0	1.210482E+0	1.173606E+0	1.194388E+0	1.198525E+0	1.164815E+0	1.202198E+0	1.175866E+0	1.147885E+0	1.194902E+0	1.147490E+0	1.210393E+0	1.193168E+0	1.194658E+0	1.177297E+0	1.133024E+0	1.162989E+0	1.197268E+0	1.199097E+0	1.209341E+0	1.205742E+0	1.129093E+0	1.219128E+0	1.139688E+0	1.173956E+0	1.188036E+0	1.183851E+0	1.218301E+0	1.171828E+0	1.151807E+0	1.139318E+0	1.224602E+0	1.200660E+0	1.177262E+0	1.171529E+0	1.183582E+0	1.159209E+0	1.165834E+0	1.168427E+0	1.214675E+0	1.170199E+0	1.151083E+0	1.158331E+0	1.217016E+0	1.164941E+0
5.435220E+2	1.433018E+0	1.326655E+0	1.351943E+0	1.346628E+0	1.395752E+0	1.371155E+0	1.374599E+0	1.378578E+0	1.310096E+0	1.332214E+0	1.388315E+0	1.349605E+0	1.413338E+0	1.335355E+0	1.355585E+0	1.345787E+0	1.369458E+0	1.435496E+0	1.367768E+0	1.351722E+0	1.386508E+0	1.401680E+0	1.338638E+0	1.369345E+0	1.328325E+0	1.371259E+0	1.438405E+0	1.389298E+0	1.369795E+0	1.317833E+0	1.369841E+0	1.401261E+0	1.344801E+0	1.428973E+0	1.345051E+0	1.355112E+0	1.379002E+0	1.370021E+0	1.362331E+0	1.350504E+0	1.358894E+0	1.371471E+0	1.345190E+0	1.353013E+0	1.362281E+0	1.375895E+0	1.404601E+0	1.336889E+0	1.332692E+0	1.399145E+0	1.384660E+0	1.389571E+0	1.398487E+0	1.378083E+0	1.375827E+0	1.353232E+0	1.331007E+0	1.357333E+0	1.303663E+0	1.320201E+0	1.386053E+0	1.397897E+0	1.336193E+0	1.344919E+0	1.356641E+0	1.315231E+0	1.339024E+0	1.403088E+0	1.323593E+0	1.374811E+0	1.363834E+0	1.320048E+0	1.366617E+0	1.337884E+0	1.358219E+0	1.345917E+0	1.357733E+0	1.318421E+0	1.290879E+0	1.350561E+0	1.334884E+0	1.295711E+0	1.394354E+0	1.346499E+0	1.353622E+0	1.358786E+0	1.301843E+0	1.321940E+0	1.369527E+0	1.370115E+0	1.375614E+0	1.338744E+0	1.309556E+0	1.369935E+0	1.347466E+0	1.305674E+0	1.317866E+0	1.372951E+0	1.362045E+0	1.298535E+0	1.284932E+0	1.312047E+0	1.332495E+0	1.366165E+0	1.313245E+0	1.348214E+0	1.352048E+0	1.341693E+0	1.331584E+0	1.380789E+0	1.304595E+0	1.366627E+0	1.344189E+0	1.353757E+0	1.372638E+0	1.374298E+0	1.290214E+0	1.362632E+0	1.321569E+0	1.274500E+0	1.365235E+0	1.329352E+0	1.366016E+0	1.345417E+0	1.386423E+0	1.358915E+0	1.375960E+0	1.394876E+0	1.434243E+0	1.360893E+0	1.354109E+0	1.358207E+0	1.392847E+0	1.380453E+0	1.335765E+0	1.324313E+0	1.364821E+0	1.362902E+0	1.379346E+0	1.328432E+0	1.317372E+0	1.311368E+0	1.376706E+0	1.336988E+0	1.327288E+0	1.423656E+0	1.360812E+0	1.293676E+0	1.384181E+0	1.345639E+0	1.277760E+0	1.311036E+0	1.335227E+0	1.346965E+0	1.351762E+0	1.304817E+0	1.341400E+0	1.367904E+0	1.341069E+0	1.322988E+0	1.334975E+0	1.378158E+0	1.318883E+0	1.305784E+0	1.352892E+0	1.368366E+0	1.307047E+0	1.368917E+0	1.389636E+0	1.394774E+0	1.340438E+0
5.437640E+2	1.500686E+0	1.449660E+0	1.463887E+0	1.442720E+0	1.471397E+0	1.423790E+0	1.463902E+0	1.480621E+0	1.469768E+0	1.470293E+0	1.439447E+0	1.470863E+0	1.436036E+0	1.459412E+0	1.508283E+0	1.494456E+0	1.505132E+0	1.387491E+0	1.458778E+0	1.473305E+0	1.473148E+0	1.479902E+0	1.436806E+0	1.448703E+0	1.489033E+0	1.447352E+0	1.475871E+0	1.474216E+0	1.427425E+0	1.429934E+0	1.470280E+0	1.487174E+0	1.496947E+0	1.495931E+0	1.431198E+0	1.499173E+0	1.419980E+0	1.467806E+0	1.400410E+0	1.466034E+0	1.517081E+0	1.475317E+0	1.504547E+0	1.476648E+0	1.447681E+0	1.447600E+0	1.472248E+0	1.449331E+0	1.476702E+0	1.476692E+0	1.459156E+0	1.459194E+0	1.475803E+0	1.478137E+0	1.452717E+0	1.437214E+0	1.461055E+0	1.447950E+0	1.475712E+0	1.404587E+0	1.500768E+0	1.425298E+0	1.458171E+0	1.424148E+0	1.403996E+0	1.464335E+0	1.435335E+0	1.508589E+0	1.458442E+0	1.448767E+0	1.447949E+0	1.459621E+0	1.489841E+0	1.455901E+0	1.352381E+0	1.436646E+0	1.503033E+0	1.493721E+0	1.454486E+0	1.492921E+0	1.402621E+0	1.402644E+0	1.452316E+0	1.455368E+0	1.450270E+0	1.449147E+0	1.447238E+0	1.443966E+0	1.477082E+0	1.417281E+0	1.470236E+0	1.472029E+0	1.461259E+0	1.466938E+0	1.497117E+0	1.457701E+0	1.495723E+0	1.414272E+0	1.479464E+0	1.456233E+0	1.389899E+0	1.389346E+0	1.453933E+0	1.414918E+0	1.400211E+0	1.456260E+0	1.514288E+0	1.493050E+0	1.475047E+0	1.469148E+0	1.438833E+0	1.447645E+0	1.408633E+0	1.420738E+0	1.418389E+0	1.460463E+0	1.438001E+0	1.409009E+0	1.415168E+0	1.400703E+0	1.452266E+0	1.406547E+0	1.378638E+0	1.398707E+0	1.398618E+0	1.423989E+0	1.471634E+0	1.474249E+0	1.429976E+0	1.444096E+0	1.493005E+0	1.422378E+0	1.469559E+0	1.473479E+0	1.434141E+0	1.454022E+0	1.455628E+0	1.413443E+0	1.414542E+0	1.448242E+0	1.456484E+0	1.449486E+0	1.453300E+0	1.410923E+0	1.409136E+0	1.445939E+0	1.395181E+0	1.388673E+0	1.455899E+0	1.395796E+0	1.442685E+0	1.423872E+0	1.504031E+0	1.398368E+0	1.363677E+0	1.445315E+0	1.414011E+0	1.475823E+0	1.435064E+0	1.446719E+0	1.393254E+0	1.455066E+0	1.446137E+0	1.404782E+0	1.466600E+0	1.451246E+0	1.468800E+0	1.444694E+0	1.420250E+0	1.459081E+0	1.451521E+0
5.440120E+2	1.596914E+0	1.524639E+0	1.473967E+0	1.536059E+0	1.542095E+0	1.558543E+0	1.541116E+0	1.543393E+0	1.574775E+0	1.537260E+0	1.549079E+0	1.500347E+0	1.542849E+0	1.529076E+0	1.603175E+0	1.585940E+0	1.485281E+0	1.476629E+0	1.582618E+0	1.524473E+0	1.515031E+0	1.564100E+0	1.525695E+0	1.514762E+0	1.494815E+0	1.506942E+0	1.538987E+0	1.527013E+0	1.509512E+0	1.517828E+0	1.540261E+0	1.595326E+0	1.553272E+0	1.615992E+0	1.543704E+0	1.566602E+0	1.607747E+0	1.491668E+0	1.504434E+0	1.460641E+0	1.521413E+0	1.482552E+0	1.547209E+0	1.509826E+0	1.496731E+0	1.516658E+0	1.565157E+0	1.490355E+0	1.506882E+0	1.543923E+0	1.601507E+0	1.563158E+0	1.557406E+0	1.564793E+0	1.500881E+0	1.568508E+0	1.515648E+0	1.571338E+0	1.547686E+0	1.463723E+0	1.532289E+0	1.512749E+0	1.520554E+0	1.520578E+0	1.489336E+0	1.538496E+0	1.465777E+0	1.519475E+0	1.562712E+0	1.509643E+0	1.528177E+0	1.492505E+0	1.556954E+0	1.521655E+0	1.482117E+0	1.509138E+0	1.549384E+0	1.498243E+0	1.536441E+0	1.530942E+0	1.523643E+0	1.491283E+0	1.473446E+0	1.539040E+0	1.504931E+0	1.491301E+0	1.467406E+0	1.510263E+0	1.536196E+0	1.480122E+0	1.518073E+0	1.484819E+0	1.470240E+0	1.511548E+0	1.536246E+0	1.553986E+0	1.483841E+0	1.538423E+0	1.534394E+0	1.551583E+0	1.532740E+0	1.465815E+0	1.490026E+0	1.466118E+0	1.476958E+0	1.485836E+0	1.498274E+0	1.510360E+0	1.487291E+0	1.523931E+0	1.540998E+0	1.511915E+0	1.508075E+0	1.538945E+0	1.515253E+0	1.500805E+0	1.546829E+0	1.449111E+0	1.450809E+0	1.490385E+0	1.459304E+0	1.470777E+0	1.476778E+0	1.487522E+0	1.464932E+0	1.465679E+0	1.574110E+0	1.526624E+0	1.512884E+0	1.497450E+0	1.543873E+0	1.491595E+0	1.522830E+0	1.460755E+0	1.521023E+0	1.494179E+0	1.444300E+0	1.525294E+0	1.477683E+0	1.522942E+0	1.538019E+0	1.543277E+0	1.471475E+0	1.548668E+0	1.517948E+0	1.461588E+0	1.442114E+0	1.498227E+0	1.539562E+0	1.552343E+0	1.481682E+0	1.471347E+0	1.462750E+0	1.535456E+0	1.546252E+0	1.489362E+0	1.537836E+0	1.497357E+0	1.494265E+0	1.455603E+0	1.464479E+0	1.506127E+0	1.531410E+0	1.447212E+0	1.499347E+0	1.466220E+0	1.532125E+0	1.521990E+0	1.514391E+0	1.462237E+0	1.551427E+0
5.442590E+2	1.620152E+0	1.550242E+0	1.555045E+0	1.511536E+0	1.593307E+0	1.546858E+0	1.492838E+0	1.487157E+0	1.605790E+0	1.492922E+0	1.550760E+0	1.531300E+0	1.605259E+0	1.503960E+0	1.580905E+0	1.561975E+0	1.544799E+0	1.535518E+0	1.552127E+0	1.537258E+0	1.515360E+0	1.629179E+0	1.491818E+0	1.541246E+0	1.461545E+0	1.450084E+0	1.487599E+0	1.529684E+0	1.546423E+0	1.465033E+0	1.524168E+0	1.533707E+0	1.521591E+0	1.597455E+0	1.520390E+0	1.560340E+0	1.513032E+0	1.550417E+0	1.497487E+0	1.519289E+0	1.534129E+0	1.520981E+0	1.568150E+0	1.535034E+0	1.487887E+0	1.510592E+0	1.505026E+0	1.472649E+0	1.521130E+0	1.580534E+0	1.511132E+0	1.504724E+0	1.509721E+0	1.496434E+0	1.557852E+0	1.508783E+0	1.501478E+0	1.557389E+0	1.478800E+0	1.446982E+0	1.539015E+0	1.460254E+0	1.455375E+0	1.483169E+0	1.485237E+0	1.510999E+0	1.509838E+0	1.518140E+0	1.548856E+0	1.533309E+0	1.531860E+0	1.542860E+0	1.550491E+0	1.491265E+0	1.473627E+0	1.485308E+0	1.538105E+0	1.513907E+0	1.508201E+0	1.456509E+0	1.474895E+0	1.469160E+0	1.502476E+0	1.552532E+0	1.561133E+0	1.514934E+0	1.509082E+0	1.507523E+0	1.519348E+0	1.533419E+0	1.527070E+0	1.532090E+0	1.538221E+0	1.490890E+0	1.555816E+0	1.509278E+0	1.441003E+0	1.505357E+0	1.449935E+0	1.568446E+0	1.481922E+0	1.471155E+0	1.491878E+0	1.500415E+0	1.522424E+0	1.518425E+0	1.514698E+0	1.503244E+0	1.553469E+0	1.453101E+0	1.556028E+0	1.517898E+0	1.496490E+0	1.507491E+0	1.507603E+0	1.502747E+0	1.465792E+0	1.483558E+0	1.499111E+0	1.462053E+0	1.519846E+0	1.437902E+0	1.495281E+0	1.444440E+0	1.450389E+0	1.490360E+0	1.581751E+0	1.500740E+0	1.460625E+0	1.529386E+0	1.520213E+0	1.524099E+0	1.525795E+0	1.466447E+0	1.488627E+0	1.508475E+0	1.474940E+0	1.479756E+0	1.496222E+0	1.470425E+0	1.471717E+0	1.488904E+0	1.527453E+0	1.478816E+0	1.481805E+0	1.514313E+0	1.453417E+0	1.510733E+0	1.569475E+0	1.479590E+0	1.549899E+0	1.501051E+0	1.497052E+0	1.463033E+0	1.483323E+0	1.498451E+0	1.505269E+0	1.492356E+0	1.518477E+0	1.507251E+0	1.464557E+0	1.457942E+0	1.489913E+0	1.518631E+0	1.470740E+0	1.477535E+0	1.454087E+0	1.488307E+0	1.479831E+0	1.524668E+0	1.533787E+0
5.445450E+2	1.545905E+0	1.504907E+0	1.480535E+0	1.540372E+0	1.447818E+0	1.506715E+0	1.503745E+0	1.500524E+0	1.511583E+0	1.458225E+0	1.472689E+0	1.482626E+0	1.503376E+0	1.523133E+0	1.519080E+0	1.503645E+0	1.494377E+0	1.483433E+0	1.474754E+0	1.477266E+0	1.547198E+0	1.507954E+0	1.472259E+0	1.504636E+0	1.434208E+0	1.419672E+0	1.533342E+0	1.546963E+0	1.448990E+0	1.437089E+0	1.479685E+0	1.509006E+0	1.453781E+0	1.567037E+0	1.510252E+0	1.544894E+0	1.511911E+0	1.506091E+0	1.486190E+0	1.463975E+0	1.505142E+0	1.503004E+0	1.459409E+0	1.513864E+0	1.485642E+0	1.531231E+0	1.481172E+0	1.407125E+0	1.530185E+0	1.462354E+0	1.506725E+0	1.456600E+0	1.508659E+0	1.472648E+0	1.485793E+0	1.456257E+0	1.487155E+0	1.460791E+0	1.493024E+0	1.488575E+0	1.474667E+0	1.503558E+0	1.483901E+0	1.441373E+0	1.445867E+0	1.443967E+0	1.409581E+0	1.469511E+0	1.502788E+0	1.487353E+0	1.508621E+0	1.520588E+0	1.468703E+0	1.435121E+0	1.485707E+0	1.448158E+0	1.482733E+0	1.476795E+0	1.492838E+0	1.474603E+0	1.472969E+0	1.448422E+0	1.489665E+0	1.481579E+0	1.507714E+0	1.461814E+0	1.443884E+0	1.427937E+0	1.420124E+0	1.515125E+0	1.492231E+0	1.495893E+0	1.425066E+0	1.510369E+0	1.506969E+0	1.473099E+0	1.499695E+0	1.440588E+0	1.455176E+0	1.473397E+0	1.491446E+0	1.435975E+0	1.478622E+0	1.458232E+0	1.464755E+0	1.445642E+0	1.437570E+0	1.388437E+0	1.382692E+0	1.439671E+0	1.507425E+0	1.468669E+0	1.446070E+0	1.455073E+0	1.466366E+0	1.504254E+0	1.438491E+0	1.431611E+0	1.448017E+0	1.448021E+0	1.471703E+0	1.486908E+0	1.435407E+0	1.435563E+0	1.458198E+0	1.473680E+0	1.480145E+0	1.505984E+0	1.466067E+0	1.502999E+0	1.528447E+0	1.481339E+0	1.478550E+0	1.514270E+0	1.489066E+0	1.530029E+0	1.411338E+0	1.436714E+0	1.496521E+0	1.493550E+0	1.471107E+0	1.442862E+0	1.490291E+0	1.479092E+0	1.483752E+0	1.478669E+0	1.479787E+0	1.425974E+0	1.533003E+0	1.458869E+0	1.450749E+0	1.464761E+0	1.475821E+0	1.502504E+0	1.440865E+0	1.401422E+0	1.472662E+0	1.432972E+0	1.472727E+0	1.434243E+0	1.478485E+0	1.487369E+0	1.416193E+0	1.487962E+0	1.431238E+0	1.459279E+0	1.436816E+0	1.462259E+0	1.421277E+0	1.465888E+0	1.494754E+0
5.447660E+2	1.489390E+0	1.442303E+0	1.460037E+0	1.470329E+0	1.463637E+0	1.470894E+0	1.459756E+0	1.423909E+0	1.432312E+0	1.416877E+0	1.431717E+0	1.377075E+0	1.420036E+0	1.443877E+0	1.446789E+0	1.489278E+0	1.448102E+0	1.387681E+0	1.374135E+0	1.428365E+0	1.459989E+0	1.444433E+0	1.427206E+0	1.420220E+0	1.392793E+0	1.407368E+0	1.395516E+0	1.441195E+0	1.443873E+0	1.366240E+0	1.457615E+0	1.458920E+0	1.439147E+0	1.445625E+0	1.396237E+0	1.414811E+0	1.461561E+0	1.410842E+0	1.431488E+0	1.431946E+0	1.416620E+0	1.405851E+0	1.408978E+0	1.432969E+0	1.424526E+0	1.447194E+0	1.424820E+0	1.394749E+0	1.385308E+0	1.409290E+0	1.521630E+0	1.399536E+0	1.435355E+0	1.424195E+0	1.446582E+0	1.452080E+0	1.362713E+0	1.460084E+0	1.436911E+0	1.403355E+0	1.447824E+0	1.414546E+0	1.404395E+0	1.410996E+0	1.365167E+0	1.363148E+0	1.396588E+0	1.437687E+0	1.428972E+0	1.427128E+0	1.418560E+0	1.427081E+0	1.398837E+0	1.389191E+0	1.386921E+0	1.394493E+0	1.471777E+0	1.441928E+0	1.371709E+0	1.428416E+0	1.430724E+0	1.365973E+0	1.371653E+0	1.398014E+0	1.483043E+0	1.415181E+0	1.386301E+0	1.386685E+0	1.402215E+0	1.445441E+0	1.389162E+0	1.504570E+0	1.383124E+0	1.418860E+0	1.451063E+0	1.437421E+0	1.408873E+0	1.452982E+0	1.426586E+0	1.432169E+0	1.422410E+0	1.355350E+0	1.426224E+0	1.421003E+0	1.432945E+0	1.387797E+0	1.424296E+0	1.431685E+0	1.417822E+0	1.416684E+0	1.402090E+0	1.465311E+0	1.375726E+0	1.412142E+0	1.419919E+0	1.457046E+0	1.414066E+0	1.429516E+0	1.389548E+0	1.428224E+0	1.396836E+0	1.367533E+0	1.358012E+0	1.381525E+0	1.358066E+0	1.432822E+0	1.472300E+0	1.392967E+0	1.429804E+0	1.392158E+0	1.512046E+0	1.393766E+0	1.495974E+0	1.400869E+0	1.384850E+0	1.388338E+0	1.396125E+0	1.380956E+0	1.339101E+0	1.440765E+0	1.387986E+0	1.392908E+0	1.431652E+0	1.416489E+0	1.400480E+0	1.449606E+0	1.362369E+0	1.357578E+0	1.476986E+0	1.428126E+0	1.408881E+0	1.397686E+0	1.390966E+0	1.409370E+0	1.408865E+0	1.395325E+0	1.391508E+0	1.394093E+0	1.449933E+0	1.391066E+0	1.406116E+0	1.476581E+0	1.414928E+0	1.376787E+0	1.424459E+0	1.441080E+0	1.375016E+0	1.366931E+0	1.370338E+0	1.364729E+0	1.444608E+0
5.450200E+2	1.464020E+0	1.361880E+0	1.289741E+0	1.379627E+0	1.377172E+0	1.380763E+0	1.342137E+0	1.372814E+0	1.340175E+0	1.322792E+0	1.340056E+0	1.318725E+0	1.364626E+0	1.373331E+0	1.334707E+0	1.346193E+0	1.359660E+0	1.306305E+0	1.339456E+0	1.383240E+0	1.357643E+0	1.314885E+0	1.303299E+0	1.331887E+0	1.330458E+0	1.294397E+0	1.319329E+0	1.314650E+0	1.313436E+0	1.316790E+0	1.370983E+0	1.325519E+0	1.360628E+0	1.366456E+0	1.314933E+0	1.330111E+0	1.384091E+0	1.347646E+0	1.319810E+0	1.287223E+0	1.387306E+0	1.337143E+0	1.387345E+0	1.336527E+0	1.318101E+0	1.353814E+0	1.386531E+0	1.313100E+0	1.309229E+0	1.320030E+0	1.344720E+0	1.319733E+0	1.332111E+0	1.330528E+0	1.337507E+0	1.320897E+0	1.347387E+0	1.301312E+0	1.423371E+0	1.325771E+0	1.395368E+0	1.288488E+0	1.355242E+0	1.293951E+0	1.283667E+0	1.288321E+0	1.261720E+0	1.325676E+0	1.300003E+0	1.325436E+0	1.295319E+0	1.356273E+0	1.352186E+0	1.316805E+0	1.284747E+0	1.369200E+0	1.347686E+0	1.323914E+0	1.367182E+0	1.361707E+0	1.295139E+0	1.269184E+0	1.309277E+0	1.322247E+0	1.335713E+0	1.344582E+0	1.305616E+0	1.327330E+0	1.347338E+0	1.317809E+0	1.369401E+0	1.371737E+0	1.312214E+0	1.316704E+0	1.387965E+0	1.308378E+0	1.336819E+0	1.348398E+0	1.357624E+0	1.293595E+0	1.355104E+0	1.342271E+0	1.330228E+0	1.311627E+0	1.373017E+0	1.296211E+0	1.290878E+0	1.397031E+0	1.322692E+0	1.355363E+0	1.282457E+0	1.339690E+0	1.315891E+0	1.319998E+0	1.345124E+0	1.320469E+0	1.333599E+0	1.327097E+0	1.309368E+0	1.321651E+0	1.307143E+0	1.263533E+0	1.269147E+0	1.292878E+0	1.336498E+0	1.356162E+0	1.315307E+0	1.329953E+0	1.324124E+0	1.366328E+0	1.351705E+0	1.382748E+0	1.310627E+0	1.338355E+0	1.329275E+0	1.320358E+0	1.266641E+0	1.321174E+0	1.370266E+0	1.269724E+0	1.303791E+0	1.358868E+0	1.366883E+0	1.320690E+0	1.287953E+0	1.345330E+0	1.332492E+0	1.274804E+0	1.352688E+0	1.335271E+0	1.295251E+0	1.277048E+0	1.311171E+0	1.324960E+0	1.330557E+0	1.292403E+0	1.291019E+0	1.283439E+0	1.309809E+0	1.331377E+0	1.314783E+0	1.269392E+0	1.282731E+0	1.313501E+0	1.340340E+0	1.352174E+0	1.283060E+0	1.333225E+0	1.286902E+0	1.241489E+0	1.449861E+0
5.452740E+2	1.351502E+0	1.270019E+0	1.280521E+0	1.286116E+0	1.286790E+0	1.283621E+0	1.269091E+0	1.303919E+0	1.307396E+0	1.250896E+0	1.285622E+0	1.270361E+0	1.263742E+0	1.283157E+0	1.293963E+0	1.279921E+0	1.311222E+0	1.258191E+0	1.237795E+0	1.314428E+0	1.260106E+0	1.275172E+0	1.245441E+0	1.281486E+0	1.241125E+0	1.230325E+0	1.197755E+0	1.310793E+0	1.287215E+0	1.255736E+0	1.275314E+0	1.259841E+0	1.267900E+0	1.302865E+0	1.263304E+0	1.310285E+0	1.309370E+0	1.336216E+0	1.271750E+0	1.225260E+0	1.245508E+0	1.274870E+0	1.291180E+0	1.209569E+0	1.265823E+0	1.282123E+0	1.287601E+0	1.238245E+0	1.235486E+0	1.268985E+0	1.253472E+0	1.216519E+0	1.247767E+0	1.235860E+0	1.294482E+0	1.261095E+0	1.256546E+0	1.251038E+0	1.265418E+0	1.272884E+0	1.304132E+0	1.284285E+0	1.261491E+0	1.247998E+0	1.265608E+0	1.247844E+0	1.223558E+0	1.302208E+0	1.302347E+0	1.276570E+0	1.276826E+0	1.254488E+0	1.283096E+0	1.272208E+0	1.209934E+0	1.244835E+0	1.273632E+0	1.258682E+0	1.253189E+0	1.220376E+0	1.255785E+0	1.254576E+0	1.247364E+0	1.260046E+0	1.282642E+0	1.227716E+0	1.268253E+0	1.252814E+0	1.238832E+0	1.285482E+0	1.271269E+0	1.260848E+0	1.204461E+0	1.274306E+0	1.269567E+0	1.268322E+0	1.275148E+0	1.219867E+0	1.258545E+0	1.251088E+0	1.286465E+0	1.209385E+0	1.288844E+0	1.267650E+0	1.256864E+0	1.253116E+0	1.272595E+0	1.285130E+0	1.269366E+0	1.268625E+0	1.243830E+0	1.247287E+0	1.268199E+0	1.245630E+0	1.275281E+0	1.272649E+0	1.276277E+0	1.255067E+0	1.212545E+0	1.246638E+0	1.254856E+0	1.234613E+0	1.250625E+0	1.244260E+0	1.250441E+0	1.201283E+0	1.324576E+0	1.266340E+0	1.242407E+0	1.253782E+0	1.304331E+0	1.276304E+0	1.262441E+0	1.249071E+0	1.276765E+0	1.275001E+0	1.216142E+0	1.244949E+0	1.257408E+0	1.224164E+0	1.201651E+0	1.233493E+0	1.280270E+0	1.237372E+0	1.294069E+0	1.279427E+0	1.223469E+0	1.206913E+0	1.286098E+0	1.237226E+0	1.241129E+0	1.280723E+0	1.227873E+0	1.315219E+0	1.242590E+0	1.272813E+0	1.203457E+0	1.254658E+0	1.275968E+0	1.246387E+0	1.234041E+0	1.248898E+0	1.257554E+0	1.249125E+0	1.250434E+0	1.253467E+0	1.282002E+0	1.292289E+0	1.313269E+0	1.305278E+0	1.269169E+0
5.455340E+2	1.291411E+0	1.179026E+0	1.217340E+0	1.201339E+0	1.202634E+0	1.225216E+0	1.218857E+0	1.206083E+0	1.270262E+0	1.196094E+0	1.219559E+0	1.231894E+0	1.256925E+0	1.216412E+0	1.244153E+0	1.232465E+0	1.228001E+0	1.196343E+0	1.226565E+0	1.228296E+0	1.213193E+0	1.222313E+0	1.207833E+0	1.213226E+0	1.207954E+0	1.211088E+0	1.192517E+0	1.221334E+0	1.196885E+0	1.196818E+0	1.206393E+0	1.249014E+0	1.227365E+0	1.319538E+0	1.245083E+0	1.235363E+0	1.271642E+0	1.250159E+0	1.177080E+0	1.198913E+0	1.222622E+0	1.229323E+0	1.216028E+0	1.222802E+0	1.177748E+0	1.193371E+0	1.217312E+0	1.193182E+0	1.235191E+0	1.241275E+0	1.240528E+0	1.296251E+0	1.224763E+0	1.201386E+0	1.202084E+0	1.189619E+0	1.210959E+0	1.295835E+0	1.220942E+0	1.257751E+0	1.218521E+0	1.202605E+0	1.180716E+0	1.202532E+0	1.187773E+0	1.195677E+0	1.169134E+0	1.197389E+0	1.215175E+0	1.207931E+0	1.224021E+0	1.253198E+0	1.236094E+0	1.232447E+0	1.215130E+0	1.211764E+0	1.218927E+0	1.162166E+0	1.235126E+0	1.210291E+0	1.210052E+0	1.210620E+0	1.155134E+0	1.215717E+0	1.202609E+0	1.213887E+0	1.213208E+0	1.200160E+0	1.261709E+0	1.209196E+0	1.175033E+0	1.232381E+0	1.247787E+0	1.229201E+0	1.260187E+0	1.230724E+0	1.195822E+0	1.222116E+0	1.247729E+0	1.175809E+0	1.151462E+0	1.188418E+0	1.182781E+0	1.238076E+0	1.171389E+0	1.240063E+0	1.189066E+0	1.187230E+0	1.192897E+0	1.200151E+0	1.182595E+0	1.231302E+0	1.160209E+0	1.211040E+0	1.188045E+0	1.190539E+0	1.165775E+0	1.182813E+0	1.171082E+0	1.189208E+0	1.272432E+0	1.204610E+0	1.185101E+0	1.210420E+0	1.197746E+0	1.225679E+0	1.219430E+0	1.181699E+0	1.265466E+0	1.223600E+0	1.201534E+0	1.209850E+0	1.253948E+0	1.201742E+0	1.193907E+0	1.218521E+0	1.182455E+0	1.174913E+0	1.255598E+0	1.187906E+0	1.276592E+0	1.207996E+0	1.171875E+0	1.247511E+0	1.224660E+0	1.230420E+0	1.137235E+0	1.173458E+0	1.239019E+0	1.229836E+0	1.208637E+0	1.205482E+0	1.226924E+0	1.185912E+0	1.216737E+0	1.201239E+0	1.219507E+0	1.220530E+0	1.224136E+0	1.178678E+0	1.179376E+0	1.201478E+0	1.227803E+0	1.181198E+0	1.209771E+0	1.219032E+0	1.185866E+0	1.168594E+0	1.244329E+0	1.187659E+0	1.328650E+0
5.457780E+2	1.241602E+0	1.166215E+0	1.171338E+0	1.190583E+0	1.180584E+0	1.196732E+0	1.201636E+0	1.192839E+0	1.190695E+0	1.197609E+0	1.170126E+0	1.194097E+0	1.190717E+0	1.164777E+0	1.167709E+0	1.226789E+0	1.196676E+0	1.157044E+0	1.118829E+0	1.196636E+0	1.161067E+0	1.201116E+0	1.172320E+0	1.222449E+0	1.168408E+0	1.177210E+0	1.203854E+0	1.205588E+0	1.174045E+0	1.188740E+0	1.167279E+0	1.181197E+0	1.200490E+0	1.197505E+0	1.162376E+0	1.203640E+0	1.205357E+0	1.207666E+0	1.180351E+0	1.135361E+0	1.218720E+0	1.206489E+0	1.184270E+0	1.174109E+0	1.167868E+0	1.192862E+0	1.237479E+0	1.233039E+0	1.166145E+0	1.220928E+0	1.178339E+0	1.191056E+0	1.193799E+0	1.166446E+0	1.213810E+0	1.211288E+0	1.206453E+0	1.195161E+0	1.200869E+0	1.158417E+0	1.259252E+0	1.159978E+0	1.150644E+0	1.162527E+0	1.130636E+0	1.144273E+0	1.145150E+0	1.216622E+0	1.285778E+0	1.197571E+0	1.195099E+0	1.120055E+0	1.246305E+0	1.155626E+0	1.123930E+0	1.139377E+0	1.210596E+0	1.153350E+0	1.167053E+0	1.175552E+0	1.134592E+0	1.161132E+0	1.117333E+0	1.156563E+0	1.181662E+0	1.169108E+0	1.151213E+0	1.192333E+0	1.238768E+0	1.129260E+0	1.160185E+0	1.194218E+0	1.146189E+0	1.227816E+0	1.150405E+0	1.158973E+0	1.156770E+0	1.158195E+0	1.144666E+0	1.188216E+0	1.208191E+0	1.229840E+0	1.154577E+0	1.141241E+0	1.173369E+0	1.181783E+0	1.160963E+0	1.212755E+0	1.153289E+0	1.194910E+0	1.174277E+0	1.235312E+0	1.210308E+0	1.174960E+0	1.190069E+0	1.239832E+0	1.180459E+0	1.163775E+0	1.176986E+0	1.182375E+0	1.174706E+0	1.180618E+0	1.160092E+0	1.154920E+0	1.165471E+0	1.159069E+0	1.185635E+0	1.221000E+0	1.180271E+0	1.170686E+0	1.181668E+0	1.172610E+0	1.205408E+0	1.187807E+0	1.132726E+0	1.210388E+0	1.208422E+0	1.182354E+0	1.197441E+0	1.180010E+0	1.187922E+0	1.134090E+0	1.168618E+0	1.207935E+0	1.172135E+0	1.189768E+0	1.164356E+0	1.147513E+0	1.200254E+0	1.176831E+0	1.193792E+0	1.179766E+0	1.204447E+0	1.258709E+0	1.142614E+0	1.187993E+0	1.160674E+0	1.150963E+0	1.185170E+0	1.176119E+0	1.182556E+0	1.164052E+0	1.160727E+0	1.169087E+0	1.196587E+0	1.222812E+0	1.161709E+0	1.208170E+0	1.227852E+0	1.155214E+0	1.164080E+0
5.460110E+2	1.203421E+0	1.164150E+0	1.193078E+0	1.156009E+0	1.173387E+0	1.180673E+0	1.159236E+0	1.144982E+0	1.175424E+0	1.209646E+0	1.127876E+0	1.160399E+0	1.136419E+0	1.140493E+0	1.192608E+0	1.196561E+0	1.205321E+0	1.147709E+0	1.135437E+0	1.179683E+0	1.187830E+0	1.222521E+0	1.155074E+0	1.139889E+0	1.182009E+0	1.134315E+0	1.175383E+0	1.146106E+0	1.153658E+0	1.183061E+0	1.171807E+0	1.199390E+0	1.154556E+0	1.225981E+0	1.171019E+0	1.195532E+0	1.143812E+0	1.164960E+0	1.141179E+0	1.172947E+0	1.166154E+0	1.157819E+0	1.198983E+0	1.113309E+0	1.133740E+0	1.155475E+0	1.173401E+0	1.151882E+0	1.189098E+0	1.163641E+0	1.202143E+0	1.137588E+0	1.176407E+0	1.183247E+0	1.189621E+0	1.098797E+0	1.188644E+0	1.175206E+0	1.199634E+0	1.143935E+0	1.199352E+0	1.159212E+0	1.176938E+0	1.154816E+0	1.155849E+0	1.088739E+0	1.126843E+0	1.181944E+0	1.179199E+0	1.199006E+0	1.167971E+0	1.145114E+0	1.188518E+0	1.134683E+0	1.109526E+0	1.146920E+0	1.163816E+0	1.165565E+0	1.134989E+0	1.170861E+0	1.070154E+0	1.103653E+0	1.147214E+0	1.200669E+0	1.132385E+0	1.141434E+0	1.129963E+0	1.157413E+0	1.204917E+0	1.141375E+0	1.127523E+0	1.151922E+0	1.150551E+0	1.155746E+0	1.160053E+0	1.181668E+0	1.119863E+0	1.153472E+0	1.112015E+0	1.193028E+0	1.152209E+0	1.167943E+0	1.129309E+0	1.178805E+0	1.166140E+0	1.157037E+0	1.124200E+0	1.200560E+0	1.170374E+0	1.146205E+0	1.117547E+0	1.176139E+0	1.144317E+0	1.161631E+0	1.163967E+0	1.127620E+0	1.194319E+0	1.131900E+0	1.143225E+0	1.146130E+0	1.156383E+0	1.072642E+0	1.131776E+0	1.103840E+0	1.118337E+0	1.131087E+0	1.162427E+0	1.144575E+0	1.182359E+0	1.158366E+0	1.134234E+0	1.172087E+0	1.238887E+0	1.164733E+0	1.122164E+0	1.164280E+0	1.157636E+0	1.125601E+0	1.128054E+0	1.173830E+0	1.156645E+0	1.169709E+0	1.145284E+0	1.194474E+0	1.114829E+0	1.195570E+0	1.138798E+0	1.125836E+0	1.219176E+0	1.124106E+0	1.158564E+0	1.111134E+0	1.152784E+0	1.148876E+0	1.151628E+0	1.150423E+0	1.111009E+0	1.163660E+0	1.141744E+0	1.161834E+0	1.178418E+0	1.109592E+0	1.141905E+0	1.124025E+0	1.147974E+0	1.170032E+0	1.117060E+0	1.182651E+0	1.164890E+0	1.178804E+0	1.117747E+0
5.467660E+2	1.312301E+0	1.220388E+0	1.256446E+0	1.161315E+0	1.238531E+0	1.270025E+0	1.160667E+0	1.196004E+0	1.259511E+0	1.236916E+0	1.252093E+0	1.201900E+0	1.282677E+0	1.229720E+0	1.192335E+0	1.246811E+0	1.210018E+0	1.202669E+0	1.147319E+0	1.232089E+0	1.230552E+0	1.224356E+0	1.170849E+0	1.181559E+0	1.228653E+0	1.218592E+0	1.182900E+0	1.201710E+0	1.221184E+0	1.201350E+0	1.231158E+0	1.278120E+0	1.205097E+0	1.302267E+0	1.200450E+0	1.221279E+0	1.235376E+0	1.256268E+0	1.197725E+0	1.203328E+0	1.235441E+0	1.209493E+0	1.216536E+0	1.271446E+0	1.155904E+0	1.177340E+0	1.216710E+0	1.232369E+0	1.204301E+0	1.190837E+0	1.199185E+0	1.231993E+0	1.201613E+0	1.191394E+0	1.198246E+0	1.180016E+0	1.202601E+0	1.203023E+0	1.206092E+0	1.200983E+0	1.222248E+0	1.234423E+0	1.178018E+0	1.165880E+0	1.167559E+0	1.189319E+0	1.193963E+0	1.195099E+0	1.235036E+0	1.211765E+0	1.218858E+0	1.246617E+0	1.209622E+0	1.194189E+0	1.199437E+0	1.211243E+0	1.182680E+0	1.177218E+0	1.225285E+0	1.181044E+0	1.174865E+0	1.177002E+0	1.166792E+0	1.251647E+0	1.205681E+0	1.173947E+0	1.236056E+0	1.192345E+0	1.243743E+0	1.173478E+0	1.170710E+0	1.186039E+0	1.215208E+0	1.213705E+0	1.191803E+0	1.221167E+0	1.181486E+0	1.232274E+0	1.218990E+0	1.197360E+0	1.179757E+0	1.207049E+0	1.183173E+0	1.195310E+0	1.187347E+0	1.211038E+0	1.225688E+0	1.160072E+0	1.215711E+0	1.170622E+0	1.167396E+0	1.215097E+0	1.170646E+0	1.196115E+0	1.221214E+0	1.217836E+0	1.201926E+0	1.204579E+0	1.214939E+0	1.183366E+0	1.185012E+0	1.165410E+0	1.221431E+0	1.169558E+0	1.205952E+0	1.213164E+0	1.198519E+0	1.229064E+0	1.193312E+0	1.203944E+0	1.175986E+0	1.188442E+0	1.218591E+0	1.235958E+0	1.202586E+0	1.257321E+0	1.221767E+0	1.209197E+0	1.170287E+0	1.134157E+0	1.231220E+0	1.183275E+0	1.230751E+0	1.187018E+0	1.220723E+0	1.218476E+0	1.162427E+0	1.184582E+0	1.244103E+0	1.282171E+0	1.150496E+0	1.190518E+0	1.145692E+0	1.202408E+0	1.190201E+0	1.170594E+0	1.199126E+0	1.176450E+0	1.165527E+0	1.170314E+0	1.162490E+0	1.219348E+0	1.144002E+0	1.151458E+0	1.176506E+0	1.168627E+0	1.188132E+0	1.232555E+0	1.158711E+0	1.198079E+0	1.262467E+0
5.475070E+2	1.448668E+0	1.290660E+0	1.317406E+0	1.311255E+0	1.328260E+0	1.338194E+0	1.286694E+0	1.316887E+0	1.321362E+0	1.270041E+0	1.272306E+0	1.339255E+0	1.339795E+0	1.297654E+0	1.324067E+0	1.332304E+0	1.326268E+0	1.294919E+0	1.296499E+0	1.291606E+0	1.329304E+0	1.321490E+0	1.300057E+0	1.349701E+0	1.357747E+0	1.296424E+0	1.312691E+0	1.352023E+0	1.305238E+0	1.324488E+0	1.317011E+0	1.339705E+0	1.308970E+0	1.368269E+0	1.290451E+0	1.345492E+0	1.373477E+0	1.353000E+0	1.293628E+0	1.348418E+0	1.371946E+0	1.322061E+0	1.347797E+0	1.308564E+0	1.256495E+0	1.323223E+0	1.286650E+0	1.312316E+0	1.310575E+0	1.364985E+0	1.294270E+0	1.335321E+0	1.331920E+0	1.372320E+0	1.286642E+0	1.327976E+0	1.246164E+0	1.365879E+0	1.359006E+0	1.310536E+0	1.345769E+0	1.310371E+0	1.275173E+0	1.318602E+0	1.305473E+0	1.331972E+0	1.263218E+0	1.372626E+0	1.298987E+0	1.302938E+0	1.324462E+0	1.271330E+0	1.340381E+0	1.260187E+0	1.236071E+0	1.330338E+0	1.382425E+0	1.315270E+0	1.311377E+0	1.345337E+0	1.288693E+0	1.268151E+0	1.294261E+0	1.338038E+0	1.333080E+0	1.302345E+0	1.216117E+0	1.341761E+0	1.294686E+0	1.337740E+0	1.284097E+0	1.277643E+0	1.307209E+0	1.335763E+0	1.309800E+0	1.382371E+0	1.298025E+0	1.277682E+0	1.301045E+0	1.278333E+0	1.342627E+0	1.294443E+0	1.289530E+0	1.293810E+0	1.274624E+0	1.278910E+0	1.324553E+0	1.283422E+0	1.334634E+0	1.292164E+0	1.320723E+0	1.378354E+0	1.312784E+0	1.295608E+0	1.279104E+0	1.292015E+0	1.310646E+0	1.216841E+0	1.263513E+0	1.299082E+0	1.317260E+0	1.338753E+0	1.320653E+0	1.316962E+0	1.307710E+0	1.316953E+0	1.310941E+0	1.331481E+0	1.318314E+0	1.308380E+0	1.324776E+0	1.340127E+0	1.350081E+0	1.302748E+0	1.290658E+0	1.311397E+0	1.276257E+0	1.288657E+0	1.327550E+0	1.261627E+0	1.322937E+0	1.286423E+0	1.317040E+0	1.276855E+0	1.289244E+0	1.300094E+0	1.308852E+0	1.263985E+0	1.283215E+0	1.266201E+0	1.271292E+0	1.300489E+0	1.307455E+0	1.279447E+0	1.329281E+0	1.273269E+0	1.297824E+0	1.322046E+0	1.262514E+0	1.303440E+0	1.303641E+0	1.278759E+0	1.294289E+0	1.238292E+0	1.334646E+0	1.277343E+0	1.273313E+0	1.315862E+0	1.259741E+0	1.286311E+0	1.189037E+0
5.482600E+2	1.442566E+0	1.375834E+0	1.362380E+0	1.394001E+0	1.395703E+0	1.410091E+0	1.370990E+0	1.437685E+0	1.367194E+0	1.400725E+0	1.399164E+0	1.370981E+0	1.414203E+0	1.435387E+0	1.370674E+0	1.431773E+0	1.378719E+0	1.416297E+0	1.305547E+0	1.349777E+0	1.372806E+0	1.407940E+0	1.360010E+0	1.355824E+0	1.375980E+0	1.370806E+0	1.359770E+0	1.380321E+0	1.325547E+0	1.374098E+0	1.350558E+0	1.370781E+0	1.366896E+0	1.434263E+0	1.360123E+0	1.371594E+0	1.376442E+0	1.409730E+0	1.390065E+0	1.358400E+0	1.366997E+0	1.398112E+0	1.400240E+0	1.379951E+0	1.343945E+0	1.383554E+0	1.427475E+0	1.359306E+0	1.403468E+0	1.415850E+0	1.372091E+0	1.408446E+0	1.394367E+0	1.406170E+0	1.359568E+0	1.356592E+0	1.329512E+0	1.419619E+0	1.380045E+0	1.370652E+0	1.391196E+0	1.435756E+0	1.329019E+0	1.352822E+0	1.372000E+0	1.364150E+0	1.369956E+0	1.400828E+0	1.397920E+0	1.373109E+0	1.381600E+0	1.358735E+0	1.363491E+0	1.381598E+0	1.307597E+0	1.350322E+0	1.408139E+0	1.366460E+0	1.377139E+0	1.350209E+0	1.372885E+0	1.362008E+0	1.360363E+0	1.373942E+0	1.379417E+0	1.365997E+0	1.369156E+0	1.399678E+0	1.380147E+0	1.314225E+0	1.379881E+0	1.382687E+0	1.323652E+0	1.365624E+0	1.361862E+0	1.423184E+0	1.381335E+0	1.377963E+0	1.407156E+0	1.390361E+0	1.380452E+0	1.338926E+0	1.396554E+0	1.340442E+0	1.380482E+0	1.338942E+0	1.330771E+0	1.427857E+0	1.366756E+0	1.373336E+0	1.377213E+0	1.349753E+0	1.409689E+0	1.396644E+0	1.281308E+0	1.418088E+0	1.393187E+0	1.349486E+0	1.379614E+0	1.337277E+0	1.354804E+0	1.272230E+0	1.354692E+0	1.351118E+0	1.350400E+0	1.364908E+0	1.355135E+0	1.409467E+0	1.406182E+0	1.347715E+0	1.324390E+0	1.384306E+0	1.382677E+0	1.359180E+0	1.350811E+0	1.359554E+0	1.330070E+0	1.403241E+0	1.371348E+0	1.361109E+0	1.389459E+0	1.341372E+0	1.363949E+0	1.344446E+0	1.360336E+0	1.387033E+0	1.352071E+0	1.294751E+0	1.394751E+0	1.352265E+0	1.322802E+0	1.339189E+0	1.357740E+0	1.408946E+0	1.353230E+0	1.385576E+0	1.369236E+0	1.340464E+0	1.335056E+0	1.371674E+0	1.330630E+0	1.376178E+0	1.306900E+0	1.330243E+0	1.396319E+0	1.373305E+0	1.341284E+0	1.418098E+0	1.409993E+0	1.395658E+0	1.317927E+0
5.490490E+2	1.415302E+0	1.314776E+0	1.324810E+0	1.386857E+0	1.339978E+0	1.338365E+0	1.324369E+0	1.357197E+0	1.344208E+0	1.341414E+0	1.337679E+0	1.342832E+0	1.307877E+0	1.395157E+0	1.366095E+0	1.362390E+0	1.369141E+0	1.367925E+0	1.322819E+0	1.390969E+0	1.381238E+0	1.302278E+0	1.325642E+0	1.352225E+0	1.319888E+0	1.352954E+0	1.390807E+0	1.381371E+0	1.341173E+0	1.321512E+0	1.346401E+0	1.356714E+0	1.418787E+0	1.369950E+0	1.376413E+0	1.344481E+0	1.334132E+0	1.334098E+0	1.379723E+0	1.327902E+0	1.391082E+0	1.343579E+0	1.359158E+0	1.315370E+0	1.358272E+0	1.342845E+0	1.363635E+0	1.336923E+0	1.355979E+0	1.355505E+0	1.304554E+0	1.300494E+0	1.356449E+0	1.375427E+0	1.321504E+0	1.341721E+0	1.353323E+0	1.348504E+0	1.356806E+0	1.344379E+0	1.371863E+0	1.364984E+0	1.318345E+0	1.290303E+0	1.358780E+0	1.320515E+0	1.309974E+0	1.342716E+0	1.373184E+0	1.381771E+0	1.319510E+0	1.333874E+0	1.324369E+0	1.362248E+0	1.303818E+0	1.307032E+0	1.330184E+0	1.366353E+0	1.337308E+0	1.337952E+0	1.338180E+0	1.297500E+0	1.327304E+0	1.410859E+0	1.400941E+0	1.376379E+0	1.328782E+0	1.319730E+0	1.367738E+0	1.289127E+0	1.311676E+0	1.364363E+0	1.303113E+0	1.348429E+0	1.371715E+0	1.302063E+0	1.336007E+0	1.364624E+0	1.362458E+0	1.317917E+0	1.332001E+0	1.333212E+0	1.325859E+0	1.349174E+0	1.312142E+0	1.322166E+0	1.339503E+0	1.308378E+0	1.295553E+0	1.347889E+0	1.349045E+0	1.294831E+0	1.368958E+0	1.344631E+0	1.336202E+0	1.341563E+0	1.360950E+0	1.345251E+0	1.310329E+0	1.308148E+0	1.286244E+0	1.301562E+0	1.342596E+0	1.363055E+0	1.305410E+0	1.333190E+0	1.358318E+0	1.363610E+0	1.286780E+0	1.368110E+0	1.310134E+0	1.385867E+0	1.392143E+0	1.346972E+0	1.362228E+0	1.296323E+0	1.325689E+0	1.349939E+0	1.327698E+0	1.375238E+0	1.292581E+0	1.293640E+0	1.304310E+0	1.357445E+0	1.327007E+0	1.296555E+0	1.312250E+0	1.315104E+0	1.350647E+0	1.303194E+0	1.331241E+0	1.314709E+0	1.297152E+0	1.352663E+0	1.313576E+0	1.323388E+0	1.323979E+0	1.380934E+0	1.366777E+0	1.348824E+0	1.356987E+0	1.225047E+0	1.339725E+0	1.334928E+0	1.343282E+0	1.358417E+0	1.345612E+0	1.343274E+0	1.305607E+0	1.376649E+0	1.327828E+0
5.497740E+2	1.376054E+0	1.265370E+0	1.279356E+0	1.285140E+0	1.272600E+0	1.296384E+0	1.286180E+0	1.263375E+0	1.332475E+0	1.328420E+0	1.341159E+0	1.268147E+0	1.292179E+0	1.292120E+0	1.313435E+0	1.304175E+0	1.362406E+0	1.281651E+0	1.280021E+0	1.315494E+0	1.277619E+0	1.332173E+0	1.292961E+0	1.309710E+0	1.305873E+0	1.264113E+0	1.288761E+0	1.252302E+0	1.331598E+0	1.289916E+0	1.336182E+0	1.290788E+0	1.308445E+0	1.347535E+0	1.332608E+0	1.212152E+0	1.283521E+0	1.286983E+0	1.309287E+0	1.268446E+0	1.268360E+0	1.324876E+0	1.278591E+0	1.287822E+0	1.326313E+0	1.267489E+0	1.305112E+0	1.260264E+0	1.299758E+0	1.311298E+0	1.284747E+0	1.241134E+0	1.287976E+0	1.346733E+0	1.292324E+0	1.246701E+0	1.235965E+0	1.302524E+0	1.300002E+0	1.237428E+0	1.333187E+0	1.289755E+0	1.296790E+0	1.253319E+0	1.306103E+0	1.236676E+0	1.224628E+0	1.262464E+0	1.270398E+0	1.345367E+0	1.328722E+0	1.301258E+0	1.273489E+0	1.266818E+0	1.214034E+0	1.272042E+0	1.292936E+0	1.301579E+0	1.330661E+0	1.303451E+0	1.284398E+0	1.258092E+0	1.253131E+0	1.259754E+0	1.294027E+0	1.288392E+0	1.300831E+0	1.284039E+0	1.290146E+0	1.325037E+0	1.287451E+0	1.301726E+0	1.290637E+0	1.291180E+0	1.312637E+0	1.301630E+0	1.278908E+0	1.282661E+0	1.315921E+0	1.274721E+0	1.304757E+0	1.280398E+0	1.303524E+0	1.278775E+0	1.284730E+0	1.286084E+0	1.291574E+0	1.290120E+0	1.286303E+0	1.240072E+0	1.289385E+0	1.241998E+0	1.298834E+0	1.305224E+0	1.299777E+0	1.290453E+0	1.316910E+0	1.270047E+0	1.272933E+0	1.305107E+0	1.320287E+0	1.270060E+0	1.333385E+0	1.278654E+0	1.281330E+0	1.295216E+0	1.303562E+0	1.305876E+0	1.334915E+0	1.234849E+0	1.263127E+0	1.254022E+0	1.359040E+0	1.306234E+0	1.292923E+0	1.266389E+0	1.307856E+0	1.368010E+0	1.284769E+0	1.295665E+0	1.333630E+0	1.254841E+0	1.295321E+0	1.278268E+0	1.297793E+0	1.319886E+0	1.224573E+0	1.237465E+0	1.320984E+0	1.296251E+0	1.256614E+0	1.271142E+0	1.280346E+0	1.294588E+0	1.281252E+0	1.255148E+0	1.274814E+0	1.299988E+0	1.240967E+0	1.244054E+0	1.246310E+0	1.262195E+0	1.286617E+0	1.298996E+0	1.298446E+0	1.265126E+0	1.233395E+0	1.270347E+0	1.344837E+0	1.266401E+0	1.294613E+0
5.505170E+2	1.386771E+0	1.255673E+0	1.295374E+0	1.214888E+0	1.320046E+0	1.285428E+0	1.256688E+0	1.258714E+0	1.255558E+0	1.282302E+0	1.235676E+0	1.276342E+0	1.329134E+0	1.256978E+0	1.311809E+0	1.282136E+0	1.341349E+0	1.322840E+0	1.253290E+0	1.274809E+0	1.302219E+0	1.303813E+0	1.257048E+0	1.319079E+0	1.286339E+0	1.244814E+0	1.302825E+0	1.254034E+0	1.264946E+0	1.240091E+0	1.285421E+0	1.272200E+0	1.293231E+0	1.312147E+0	1.302160E+0	1.289070E+0	1.327590E+0	1.332648E+0	1.297782E+0	1.265923E+0	1.341424E+0	1.258952E+0	1.255770E+0	1.276287E+0	1.296953E+0	1.267933E+0	1.215307E+0	1.256413E+0	1.233121E+0	1.286700E+0	1.283845E+0	1.291376E+0	1.278865E+0	1.307171E+0	1.268204E+0	1.301258E+0	1.236354E+0	1.328646E+0	1.282090E+0	1.274957E+0	1.292234E+0	1.241378E+0	1.241756E+0	1.252589E+0	1.254278E+0	1.257266E+0	1.231023E+0	1.220731E+0	1.295897E+0	1.245571E+0	1.287002E+0	1.267985E+0	1.248583E+0	1.336466E+0	1.211531E+0	1.310464E+0	1.289933E+0	1.306154E+0	1.250180E+0	1.234486E+0	1.277031E+0	1.193631E+0	1.281877E+0	1.197920E+0	1.277679E+0	1.249229E+0	1.256385E+0	1.254997E+0	1.249686E+0	1.289201E+0	1.291350E+0	1.268309E+0	1.258561E+0	1.307099E+0	1.271244E+0	1.192539E+0	1.226341E+0	1.283207E+0	1.280206E+0	1.262876E+0	1.303757E+0	1.291739E+0	1.262655E+0	1.257310E+0	1.279492E+0	1.273818E+0	1.251387E+0	1.254936E+0	1.247877E+0	1.268179E+0	1.232908E+0	1.283294E+0	1.271907E+0	1.247560E+0	1.279994E+0	1.239557E+0	1.288484E+0	1.293906E+0	1.280237E+0	1.289095E+0	1.265278E+0	1.227688E+0	1.283299E+0	1.267651E+0	1.224880E+0	1.299651E+0	1.253494E+0	1.262918E+0	1.298014E+0	1.237549E+0	1.268509E+0	1.291525E+0	1.330550E+0	1.250048E+0	1.300345E+0	1.249915E+0	1.234064E+0	1.263250E+0	1.267489E+0	1.323475E+0	1.322747E+0	1.248888E+0	1.294757E+0	1.235275E+0	1.307818E+0	1.275094E+0	1.247245E+0	1.234539E+0	1.240245E+0	1.272563E+0	1.258600E+0	1.223041E+0	1.274526E+0	1.237885E+0	1.266610E+0	1.277905E+0	1.287258E+0	1.301120E+0	1.229871E+0	1.212198E+0	1.299179E+0	1.255708E+0	1.281616E+0	1.224219E+0	1.284112E+0	1.228391E+0	1.276753E+0	1.294209E+0	1.214226E+0	1.280416E+0	1.370961E+0
5.512620E+2	1.365396E+0	1.312886E+0	1.225942E+0	1.280170E+0	1.317236E+0	1.275631E+0	1.212956E+0	1.278608E+0	1.276136E+0	1.296196E+0	1.330491E+0	1.269535E+0	1.304880E+0	1.270134E+0	1.275414E+0	1.278759E+0	1.317447E+0	1.316134E+0	1.325750E+0	1.320411E+0	1.293514E+0	1.338578E+0	1.245451E+0	1.286116E+0	1.312671E+0	1.221882E+0	1.280195E+0	1.263517E+0	1.292937E+0	1.298313E+0	1.274890E+0	1.330033E+0	1.280958E+0	1.289646E+0	1.270407E+0	1.305187E+0	1.325247E+0	1.326278E+0	1.276506E+0	1.270592E+0	1.259345E+0	1.301840E+0	1.314573E+0	1.286470E+0	1.297410E+0	1.283580E+0	1.295811E+0	1.251899E+0	1.299452E+0	1.300401E+0	1.304438E+0	1.321320E+0	1.339126E+0	1.288867E+0	1.272490E+0	1.241473E+0	1.236026E+0	1.316152E+0	1.300738E+0	1.227516E+0	1.295703E+0	1.296842E+0	1.262495E+0	1.309139E+0	1.277182E+0	1.230373E+0	1.250527E+0	1.271673E+0	1.302886E+0	1.267916E+0	1.248806E+0	1.248857E+0	1.266631E+0	1.274806E+0	1.247256E+0	1.235624E+0	1.292292E+0	1.311113E+0	1.243913E+0	1.236155E+0	1.270676E+0	1.277576E+0	1.262117E+0	1.300872E+0	1.261618E+0	1.286859E+0	1.282157E+0	1.256952E+0	1.248352E+0	1.269221E+0	1.259348E+0	1.273830E+0	1.273472E+0	1.267088E+0	1.308325E+0	1.293706E+0	1.224600E+0	1.228446E+0	1.255773E+0	1.254741E+0	1.280164E+0	1.262840E+0	1.297449E+0	1.256022E+0	1.245865E+0	1.262614E+0	1.312765E+0	1.277612E+0	1.240597E+0	1.248623E+0	1.287165E+0	1.270140E+0	1.270728E+0	1.281768E+0	1.265570E+0	1.318626E+0	1.268189E+0	1.312305E+0	1.299904E+0	1.245186E+0	1.285757E+0	1.230141E+0	1.298188E+0	1.291288E+0	1.264222E+0	1.305806E+0	1.294696E+0	1.284150E+0	1.289284E+0	1.285697E+0	1.265214E+0	1.261873E+0	1.314358E+0	1.292309E+0	1.267085E+0	1.298469E+0	1.233750E+0	1.364345E+0	1.256384E+0	1.315814E+0	1.317009E+0	1.282690E+0	1.248358E+0	1.283265E+0	1.238359E+0	1.276661E+0	1.216039E+0	1.190603E+0	1.307708E+0	1.254761E+0	1.256095E+0	1.242544E+0	1.273322E+0	1.293980E+0	1.307613E+0	1.225679E+0	1.257675E+0	1.278159E+0	1.262686E+0	1.200088E+0	1.255239E+0	1.316031E+0	1.279584E+0	1.270881E+0	1.300882E+0	1.219429E+0	1.284742E+0	1.340327E+0	1.229144E+0	1.304089E+0	1.407797E+0
5.520150E+2	1.361325E+0	1.240559E+0	1.314196E+0	1.287427E+0	1.292794E+0	1.272258E+0	1.254582E+0	1.259121E+0	1.331170E+0	1.348194E+0	1.256892E+0	1.261731E+0	1.300510E+0	1.217753E+0	1.285245E+0	1.324795E+0	1.336540E+0	1.325382E+0	1.262817E+0	1.278442E+0	1.285470E+0	1.338205E+0	1.312401E+0	1.283945E+0	1.290701E+0	1.291743E+0	1.308090E+0	1.270882E+0	1.312674E+0	1.292530E+0	1.246274E+0	1.260958E+0	1.306161E+0	1.290545E+0	1.274292E+0	1.271784E+0	1.319305E+0	1.318589E+0	1.252632E+0	1.322051E+0	1.229440E+0	1.289898E+0	1.245982E+0	1.308471E+0	1.281607E+0	1.244807E+0	1.266700E+0	1.267928E+0	1.295245E+0	1.296531E+0	1.258223E+0	1.276087E+0	1.338337E+0	1.289086E+0	1.283904E+0	1.256122E+0	1.246416E+0	1.336628E+0	1.298428E+0	1.224965E+0	1.321253E+0	1.322589E+0	1.244093E+0	1.286166E+0	1.286029E+0	1.286102E+0	1.233636E+0	1.313791E+0	1.256887E+0	1.258196E+0	1.311925E+0	1.278976E+0	1.274233E+0	1.340033E+0	1.278185E+0	1.288020E+0	1.315734E+0	1.288138E+0	1.270050E+0	1.253930E+0	1.274885E+0	1.250760E+0	1.270597E+0	1.318389E+0	1.256411E+0	1.306691E+0	1.228661E+0	1.270824E+0	1.307377E+0	1.270371E+0	1.265035E+0	1.278457E+0	1.296320E+0	1.273630E+0	1.294155E+0	1.266477E+0	1.260098E+0	1.317408E+0	1.292331E+0	1.257780E+0	1.356769E+0	1.238490E+0	1.258022E+0	1.223811E+0	1.270890E+0	1.264341E+0	1.256444E+0	1.307890E+0	1.268005E+0	1.260827E+0	1.267271E+0	1.295076E+0	1.279334E+0	1.279595E+0	1.302196E+0	1.285634E+0	1.252042E+0	1.260371E+0	1.220620E+0	1.277281E+0	1.289007E+0	1.267869E+0	1.295716E+0	1.298470E+0	1.300063E+0	1.251301E+0	1.294306E+0	1.338116E+0	1.283046E+0	1.291324E+0	1.326287E+0	1.269274E+0	1.283521E+0	1.273651E+0	1.286742E+0	1.312180E+0	1.301452E+0	1.275862E+0	1.296808E+0	1.241572E+0	1.292055E+0	1.293956E+0	1.300384E+0	1.266014E+0	1.295702E+0	1.275464E+0	1.322832E+0	1.254903E+0	1.282335E+0	1.288380E+0	1.264975E+0	1.264073E+0	1.292792E+0	1.224685E+0	1.245903E+0	1.290466E+0	1.320705E+0	1.247090E+0	1.282852E+0	1.285332E+0	1.268316E+0	1.294485E+0	1.280601E+0	1.276000E+0	1.288756E+0	1.294869E+0	1.244724E+0	1.280093E+0	1.314229E+0	1.250759E+0	1.377212E+0
5.527590E+2	1.314611E+0	1.258544E+0	1.271337E+0	1.273645E+0	1.265873E+0	1.280275E+0	1.302800E+0	1.281779E+0	1.324541E+0	1.252323E+0	1.315717E+0	1.186038E+0	1.246901E+0	1.226397E+0	1.266092E+0	1.301888E+0	1.301248E+0	1.240937E+0	1.277743E+0	1.241764E+0	1.314946E+0	1.323126E+0	1.237386E+0	1.314566E+0	1.270964E+0	1.259249E+0	1.299587E+0	1.225155E+0	1.291431E+0	1.235318E+0	1.250197E+0	1.279905E+0	1.312839E+0	1.355978E+0	1.277112E+0	1.290916E+0	1.253829E+0	1.316089E+0	1.270765E+0	1.287060E+0	1.275062E+0	1.289908E+0	1.336662E+0	1.314347E+0	1.241543E+0	1.254888E+0	1.325909E+0	1.251107E+0	1.238821E+0	1.259259E+0	1.254575E+0	1.276944E+0	1.273128E+0	1.305037E+0	1.264930E+0	1.306053E+0	1.274066E+0	1.284397E+0	1.245458E+0	1.216782E+0	1.287411E+0	1.241213E+0	1.274880E+0	1.231494E+0	1.260925E+0	1.259461E+0	1.175262E+0	1.265378E+0	1.310404E+0	1.278363E+0	1.267738E+0	1.222469E+0	1.234377E+0	1.273074E+0	1.230056E+0	1.245120E+0	1.371544E+0	1.280728E+0	1.240927E+0	1.267876E+0	1.262721E+0	1.270831E+0	1.240625E+0	1.212690E+0	1.243266E+0	1.237909E+0	1.267301E+0	1.224810E+0	1.287113E+0	1.225254E+0	1.258056E+0	1.261445E+0	1.280871E+0	1.306952E+0	1.240115E+0	1.266189E+0	1.264598E+0	1.269553E+0	1.216519E+0	1.263911E+0	1.253838E+0	1.258199E+0	1.238489E+0	1.234953E+0	1.256168E+0	1.254433E+0	1.284113E+0	1.226358E+0	1.255834E+0	1.284240E+0	1.279954E+0	1.258454E+0	1.294668E+0	1.249550E+0	1.212270E+0	1.241262E+0	1.297073E+0	1.243070E+0	1.245163E+0	1.230094E+0	1.287283E+0	1.234922E+0	1.205363E+0	1.211864E+0	1.177815E+0	1.251757E+0	1.250220E+0	1.251573E+0	1.282891E+0	1.229016E+0	1.282625E+0	1.234983E+0	1.278920E+0	1.186017E+0	1.246789E+0	1.233667E+0	1.253505E+0	1.273551E+0	1.280436E+0	1.289690E+0	1.278348E+0	1.197700E+0	1.255316E+0	1.240688E+0	1.268273E+0	1.249600E+0	1.219585E+0	1.173264E+0	1.358548E+0	1.264328E+0	1.283260E+0	1.235702E+0	1.297408E+0	1.234280E+0	1.234245E+0	1.225510E+0	1.292922E+0	1.235845E+0	1.254275E+0	1.225565E+0	1.266590E+0	1.265080E+0	1.242706E+0	1.205977E+0	1.238009E+0	1.322736E+0	1.239550E+0	1.226436E+0	1.296466E+0	1.280648E+0	1.279593E+0
5.535380E+2	1.214924E+0	1.189844E+0	1.146694E+0	1.170279E+0	1.202980E+0	1.176544E+0	1.195886E+0	1.204225E+0	1.238772E+0	1.196170E+0	1.251950E+0	1.190658E+0	1.170675E+0	1.179780E+0	1.144194E+0	1.206656E+0	1.194731E+0	1.195059E+0	1.096525E+0	1.181544E+0	1.190757E+0	1.221171E+0	1.169053E+0	1.207552E+0	1.162203E+0	1.175102E+0	1.176311E+0	1.190750E+0	1.168007E+0	1.160693E+0	1.180177E+0	1.160356E+0	1.194000E+0	1.224160E+0	1.201186E+0	1.210337E+0	1.156959E+0	1.225738E+0	1.168920E+0	1.173192E+0	1.167482E+0	1.157550E+0	1.216366E+0	1.172146E+0	1.167360E+0	1.207445E+0	1.206910E+0	1.123650E+0	1.179067E+0	1.228002E+0	1.197663E+0	1.217131E+0	1.193665E+0	1.149269E+0	1.176106E+0	1.121604E+0	1.198859E+0	1.207884E+0	1.161202E+0	1.173860E+0	1.239615E+0	1.172376E+0	1.151279E+0	1.171322E+0	1.173297E+0	1.223880E+0	1.130021E+0	1.193511E+0	1.163765E+0	1.202709E+0	1.177471E+0	1.152327E+0	1.204705E+0	1.188078E+0	1.173819E+0	1.166292E+0	1.229324E+0	1.195537E+0	1.166861E+0	1.173828E+0	1.186333E+0	1.122365E+0	1.145368E+0	1.181485E+0	1.197553E+0	1.228692E+0	1.184794E+0	1.177955E+0	1.183245E+0	1.224554E+0	1.138569E+0	1.194991E+0	1.187916E+0	1.191814E+0	1.188108E+0	1.202292E+0	1.224259E+0	1.231649E+0	1.192417E+0	1.237474E+0	1.208946E+0	1.138682E+0	1.177658E+0	1.175140E+0	1.165175E+0	1.168249E+0	1.179605E+0	1.154288E+0	1.197696E+0	1.175358E+0	1.160844E+0	1.163875E+0	1.195260E+0	1.188973E+0	1.128007E+0	1.149182E+0	1.218482E+0	1.152890E+0	1.182389E+0	1.174832E+0	1.191942E+0	1.142892E+0	1.148954E+0	1.153863E+0	1.202765E+0	1.158632E+0	1.205632E+0	1.183740E+0	1.190617E+0	1.186925E+0	1.198349E+0	1.109284E+0	1.165110E+0	1.209460E+0	1.160805E+0	1.156358E+0	1.156890E+0	1.227152E+0	1.170870E+0	1.159843E+0	1.198916E+0	1.174491E+0	1.173439E+0	1.228537E+0	1.156083E+0	1.201640E+0	1.203889E+0	1.121113E+0	1.216783E+0	1.227479E+0	1.183060E+0	1.169456E+0	1.179284E+0	1.214481E+0	1.201540E+0	1.140423E+0	1.183901E+0	1.171545E+0	1.175497E+0	1.144939E+0	1.177378E+0	1.160356E+0	1.119598E+0	1.184326E+0	1.192398E+0	1.246178E+0	1.157870E+0	1.165467E+0	1.137513E+0	1.137463E+0	1.177460E+0
5.542530E+2	1.160442E+0	1.134830E+0	1.076959E+0	1.111502E+0	1.125723E+0	1.138941E+0	1.069211E+0	1.094087E+0	1.128067E+0	1.080706E+0	1.091458E+0	1.138696E+0	1.164408E+0	1.125987E+0	1.174968E+0	1.115541E+0	1.185603E+0	1.134764E+0	1.092191E+0	1.132806E+0	1.128211E+0	1.094872E+0	1.141744E+0	1.090866E+0	1.154928E+0	1.086495E+0	1.131138E+0	1.097324E+0	1.139544E+0	1.096370E+0	1.111210E+0	1.121724E+0	1.098674E+0	1.166497E+0	1.126024E+0	1.086633E+0	1.148416E+0	1.133654E+0	1.074994E+0	1.119174E+0	1.088300E+0	1.152248E+0	1.129479E+0	1.100575E+0	1.096102E+0	1.085139E+0	1.110886E+0	1.099061E+0	1.120427E+0	1.165071E+0	1.168845E+0	1.123173E+0	1.092932E+0	1.165298E+0	1.095730E+0	1.138280E+0	1.087191E+0	1.132039E+0	1.166726E+0	1.095830E+0	1.126598E+0	1.082330E+0	1.124761E+0	1.107833E+0	1.104597E+0	1.086826E+0	1.076506E+0	1.148918E+0	1.173692E+0	1.161923E+0	1.088433E+0	1.107947E+0	1.100536E+0	1.113676E+0	1.119347E+0	1.073732E+0	1.107807E+0	1.157907E+0	1.099270E+0	1.069410E+0	1.141902E+0	1.104111E+0	1.049362E+0	1.094724E+0	1.132585E+0	1.100116E+0	1.112329E+0	1.112166E+0	1.134993E+0	1.142831E+0	1.126748E+0	1.078295E+0	1.064796E+0	1.117445E+0	1.131723E+0	1.085290E+0	1.129388E+0	1.142724E+0	1.094440E+0	1.135608E+0	1.164929E+0	1.082508E+0	1.107327E+0	1.098664E+0	1.122122E+0	1.102022E+0	1.091102E+0	1.088379E+0	1.100542E+0	1.106604E+0	1.085192E+0	1.081245E+0	1.123714E+0	1.084990E+0	1.119979E+0	1.088791E+0	1.149478E+0	1.095126E+0	1.100302E+0	1.103963E+0	1.122770E+0	1.132287E+0	1.112361E+0	1.129486E+0	1.067074E+0	1.096227E+0	1.123056E+0	1.125030E+0	1.092816E+0	1.058783E+0	1.106540E+0	1.097600E+0	1.114861E+0	1.114552E+0	1.159488E+0	1.105901E+0	1.112512E+0	1.111415E+0	1.133566E+0	1.125453E+0	1.105442E+0	1.087752E+0	1.118815E+0	1.097769E+0	1.090391E+0	1.150940E+0	1.069397E+0	1.106236E+0	1.169741E+0	1.120224E+0	1.033519E+0	1.159709E+0	1.112424E+0	1.140610E+0	1.054785E+0	1.137615E+0	1.085795E+0	1.122496E+0	1.088670E+0	1.028492E+0	1.111118E+0	1.105010E+0	1.109212E+0	1.125770E+0	1.137033E+0	1.116484E+0	1.067536E+0	1.160997E+0	1.196749E+0	1.140863E+0	1.045576E+0
5.550140E+2	1.059032E+0	1.033886E+0	1.072697E+0	1.060495E+0	1.047069E+0	1.064001E+0	1.008632E+0	1.038387E+0	1.043933E+0	1.040703E+0	1.104632E+0	1.037860E+0	1.082663E+0	1.002384E+0	1.061308E+0	1.053936E+0	1.011164E+0	1.040317E+0	1.024150E+0	1.084449E+0	1.017408E+0	1.088753E+0	1.025288E+0	1.068759E+0	1.068075E+0	1.023184E+0	1.014206E+0	1.007083E+0	1.028783E+0	1.025638E+0	1.033859E+0	1.017822E+0	1.079024E+0	1.037025E+0	1.026764E+0	1.052528E+0	1.025407E+0	1.075993E+0	1.032018E+0	1.030756E+0	1.060724E+0	1.015873E+0	1.041858E+0	9.951044E-1	1.011934E+0	1.060214E+0	1.024075E+0	1.052098E+0	1.041763E+0	1.002393E+0	1.082278E+0	1.042491E+0	1.031382E+0	1.060504E+0	9.874792E-1	1.030243E+0	1.002756E+0	1.073762E+0	1.034832E+0	9.990928E-1	1.051247E+0	1.015024E+0	1.048604E+0	9.930944E-1	1.005052E+0	1.007846E+0	1.037228E+0	1.042311E+0	1.009189E+0	1.018537E+0	1.037911E+0	1.028531E+0	1.010097E+0	1.028233E+0	1.023851E+0	1.026690E+0	1.096980E+0	1.027700E+0	1.042968E+0	1.022022E+0	1.020644E+0	1.036846E+0	9.920854E-1	1.000832E+0	1.027199E+0	1.034257E+0	1.062652E+0	1.000408E+0	1.080737E+0	1.054196E+0	1.047589E+0	1.049787E+0	1.024123E+0	1.042550E+0	1.074533E+0	1.056541E+0	1.043130E+0	1.052098E+0	1.019593E+0	1.052722E+0	1.021744E+0	1.060658E+0	1.011596E+0	1.045209E+0	1.034632E+0	1.054884E+0	1.056446E+0	1.037205E+0	1.040894E+0	1.027774E+0	1.054764E+0	1.013392E+0	1.055073E+0	1.027714E+0	1.037342E+0	1.018667E+0	1.043039E+0	1.038944E+0	1.005484E+0	1.028366E+0	1.065286E+0	1.016778E+0	1.011823E+0	1.028082E+0	1.077219E+0	1.010204E+0	1.037483E+0	1.020374E+0	1.059925E+0	9.796807E-1	1.022126E+0	1.029706E+0	1.040589E+0	1.091101E+0	1.024242E+0	1.073656E+0	1.012261E+0	1.075646E+0	1.049119E+0	1.068222E+0	1.067305E+0	1.000118E+0	1.051054E+0	1.058196E+0	1.063457E+0	1.042205E+0	1.023155E+0	1.008582E+0	1.042104E+0	1.051903E+0	1.012363E+0	1.037512E+0	1.008427E+0	1.055250E+0	1.022893E+0	9.983733E-1	1.053828E+0	1.002691E+0	1.015486E+0	9.709089E-1	1.038969E+0	1.040385E+0	1.004060E+0	9.840285E-1	1.065348E+0	1.061684E+0	1.022040E+0	1.013098E+0	1.014938E+0	1.078421E+0	1.069550E+0
5.557600E+2	9.797766E-1	9.644270E-1	9.803887E-1	9.581851E-1	9.810266E-1	9.854399E-1	9.810398E-1	1.000687E+0	9.859636E-1	9.706251E-1	9.779806E-1	9.806435E-1	9.788623E-1	9.518506E-1	9.645387E-1	9.776884E-1	9.803618E-1	9.755814E-1	9.670240E-1	9.750447E-1	9.796679E-1	1.036230E+0	9.364212E-1	9.810660E-1	9.149520E-1	9.973153E-1	9.730129E-1	9.922669E-1	9.475637E-1	9.760045E-1	9.756672E-1	9.695524E-1	9.900285E-1	9.881642E-1	9.942572E-1	9.182002E-1	9.902994E-1	1.001698E+0	9.622464E-1	9.724837E-1	9.648413E-1	9.726566E-1	9.625807E-1	1.011192E+0	9.650174E-1	9.670993E-1	1.026857E+0	9.472389E-1	1.003256E+0	9.499142E-1	9.781091E-1	9.592247E-1	9.399347E-1	9.898136E-1	9.536632E-1	9.839579E-1	9.805080E-1	9.680996E-1	9.610538E-1	9.496858E-1	9.916091E-1	9.784710E-1	9.308951E-1	9.137692E-1	9.834899E-1	9.774800E-1	9.725220E-1	9.846479E-1	9.741370E-1	1.011281E+0	9.867166E-1	9.687025E-1	9.185887E-1	9.741646E-1	9.184907E-1	9.789838E-1	9.948784E-1	9.676117E-1	9.589345E-1	9.346673E-1	9.467305E-1	9.348242E-1	9.680637E-1	9.630641E-1	9.788714E-1	9.567214E-1	9.616966E-1	9.579257E-1	9.738840E-1	9.990834E-1	9.959766E-1	9.797239E-1	9.716573E-1	9.967840E-1	1.011889E+0	9.343401E-1	9.575718E-1	9.945197E-1	9.422481E-1	1.014205E+0	9.367780E-1	9.430612E-1	9.760695E-1	9.661965E-1	9.511033E-1	9.602515E-1	9.895322E-1	9.733160E-1	9.908856E-1	9.806751E-1	9.911784E-1	9.473120E-1	9.897428E-1	9.664714E-1	9.875718E-1	1.000207E+0	9.794469E-1	9.686231E-1	1.012174E+0	9.388332E-1	9.488118E-1	9.337375E-1	9.753817E-1	9.083716E-1	9.782064E-1	9.553422E-1	9.445686E-1	9.710932E-1	9.938940E-1	9.747684E-1	9.578174E-1	9.895369E-1	1.002744E+0	9.779733E-1	9.591023E-1	1.002148E+0	9.553707E-1	9.979618E-1	9.389637E-1	9.830205E-1	1.011625E+0	9.642312E-1	9.623549E-1	9.843223E-1	9.937098E-1	1.007016E+0	9.516702E-1	9.425147E-1	1.007830E+0	9.822767E-1	9.955468E-1	9.936609E-1	9.429628E-1	9.667357E-1	9.344403E-1	9.613201E-1	9.788884E-1	9.699010E-1	9.711018E-1	9.533818E-1	9.721066E-1	9.501246E-1	9.991368E-1	9.219187E-1	9.760700E-1	9.593102E-1	9.557806E-1	9.461651E-1	9.994406E-1	1.008718E+0	9.565900E-1
5.560130E+2	9.724024E-1	9.448733E-1	9.326506E-1	9.564050E-1	9.429601E-1	9.618985E-1	8.870198E-1	9.613082E-1	9.534453E-1	9.378505E-1	9.571746E-1	9.278091E-1	9.320283E-1	9.574392E-1	9.568264E-1	9.628973E-1	9.509775E-1	9.385970E-1	9.480867E-1	9.172067E-1	9.108633E-1	9.514439E-1	9.239619E-1	9.291341E-1	9.467864E-1	9.616546E-1	9.399530E-1	9.605018E-1	9.571917E-1	9.128720E-1	9.346057E-1	9.339208E-1	9.414636E-1	9.563555E-1	9.736473E-1	9.336963E-1	9.576656E-1	9.031248E-1	9.248072E-1	9.553180E-1	9.109082E-1	9.098461E-1	9.316589E-1	9.398741E-1	9.471034E-1	9.333329E-1	9.686050E-1	8.744569E-1	9.052965E-1	9.741766E-1	9.732451E-1	9.231214E-1	9.210899E-1	9.485536E-1	9.007026E-1	9.275017E-1	9.241084E-1	9.354517E-1	9.674962E-1	8.844699E-1	9.782205E-1	9.562788E-1	9.404577E-1	9.309451E-1	9.004533E-1	9.565691E-1	9.171449E-1	9.388488E-1	9.578366E-1	9.769670E-1	9.440129E-1	9.890517E-1	9.369408E-1	9.490559E-1	9.515826E-1	9.442765E-1	9.474072E-1	9.966123E-1	9.434662E-1	9.262115E-1	9.331517E-1	9.312460E-1	9.427245E-1	9.441029E-1	9.502371E-1	9.441536E-1	9.001730E-1	8.960743E-1	9.269444E-1	9.686606E-1	9.577315E-1	9.314524E-1	9.451522E-1	9.052972E-1	9.653049E-1	9.954892E-1	9.312489E-1	9.464544E-1	9.498139E-1	9.592788E-1	9.274885E-1	9.375716E-1	9.044905E-1	9.017263E-1	9.387192E-1	9.249426E-1	9.439735E-1	9.259742E-1	9.484340E-1	9.165353E-1	9.763183E-1	9.223711E-1	9.546868E-1	9.823651E-1	9.881102E-1	9.566315E-1	9.564687E-1	9.263174E-1	9.220400E-1	9.239197E-1	9.640519E-1	9.428747E-1	9.621835E-1	9.418483E-1	9.373567E-1	9.487124E-1	9.384171E-1	9.388656E-1	9.430589E-1	9.548292E-1	9.160838E-1	9.597246E-1	9.405173E-1	9.183232E-1	9.627948E-1	9.493871E-1	9.230591E-1	9.949715E-1	9.017642E-1	9.622848E-1	9.687642E-1	9.297068E-1	9.374870E-1	9.316806E-1	9.033825E-1	9.904451E-1	9.503294E-1	9.060465E-1	9.380404E-1	9.665186E-1	9.600627E-1	9.537766E-1	9.586460E-1	9.780414E-1	9.390688E-1	9.031410E-1	9.521599E-1	9.421012E-1	9.316950E-1	9.388618E-1	9.627594E-1	9.520598E-1	9.218316E-1	9.510366E-1	9.709281E-1	1.018120E+0	9.620850E-1	9.519462E-1	9.351538E-1	9.119154E-1	8.433468E-1
5.565030E+2	9.319771E-1	9.829388E-1	8.963817E-1	9.574978E-1	9.775366E-1	1.026379E+0	9.315344E-1	9.143061E-1	9.367373E-1	9.276941E-1	9.693890E-1	9.295308E-1	9.517976E-1	9.014832E-1	9.560048E-1	9.497224E-1	9.399328E-1	9.304537E-1	9.224223E-1	9.737388E-1	9.634856E-1	9.516533E-1	9.045397E-1	9.367236E-1	9.036278E-1	9.660082E-1	9.213894E-1	9.548088E-1	9.322621E-1	9.642574E-1	9.530354E-1	9.750553E-1	9.035281E-1	9.263290E-1	9.477407E-1	9.400638E-1	9.574624E-1	9.621746E-1	9.734337E-1	9.048918E-1	9.444960E-1	9.287340E-1	9.812386E-1	9.611455E-1	9.221702E-1	9.265682E-1	9.658067E-1	9.326182E-1	9.294633E-1	9.406104E-1	9.401105E-1	9.229119E-1	9.476132E-1	9.584517E-1	9.275637E-1	9.163339E-1	9.064179E-1	9.201599E-1	9.425265E-1	9.121933E-1	9.692243E-1	9.256439E-1	9.154337E-1	9.370172E-1	9.426092E-1	9.276908E-1	9.458038E-1	9.885896E-1	9.219859E-1	9.702921E-1	9.410043E-1	9.508675E-1	9.356478E-1	9.717474E-1	9.284395E-1	9.224320E-1	9.648747E-1	9.092143E-1	9.402519E-1	8.994689E-1	9.117176E-1	9.228013E-1	9.022333E-1	9.393772E-1	9.018496E-1	9.358625E-1	9.728661E-1	9.155922E-1	9.330354E-1	9.480862E-1	9.602578E-1	9.114444E-1	9.182875E-1	9.565380E-1	9.532564E-1	9.157498E-1	9.252482E-1	9.553913E-1	9.775592E-1	9.017181E-1	8.856661E-1	9.363532E-1	9.742077E-1	9.686349E-1	9.106641E-1	9.139984E-1	9.799495E-1	9.397960E-1	9.349667E-1	9.423607E-1	9.560088E-1	9.428239E-1	9.372766E-1	9.470496E-1	9.392622E-1	9.577325E-1	9.836782E-1	9.102477E-1	9.272343E-1	9.411429E-1	9.429160E-1	9.189969E-1	9.000164E-1	9.642325E-1	9.169226E-1	9.442929E-1	9.728560E-1	9.236554E-1	9.249485E-1	9.518825E-1	9.654151E-1	9.420928E-1	9.454620E-1	9.409914E-1	9.111617E-1	9.662078E-1	9.085154E-1	9.551873E-1	9.214297E-1	9.196810E-1	9.572788E-1	9.007260E-1	9.209718E-1	9.461581E-1	9.132407E-1	9.504947E-1	9.113791E-1	9.094676E-1	9.767457E-1	9.614304E-1	9.346764E-1	9.518467E-1	9.104451E-1	9.681486E-1	9.653565E-1	9.129734E-1	9.971516E-1	9.403562E-1	9.444473E-1	8.891685E-1	9.133237E-1	9.298564E-1	9.439526E-1	9.106923E-1	9.165405E-1	9.687362E-1	9.061684E-1	9.551776E-1	9.225635E-1	9.773673E-1	9.752196E-1
5.570220E+2	9.672394E-1	9.016843E-1	8.700860E-1	9.559736E-1	9.132321E-1	9.746145E-1	9.230394E-1	9.639713E-1	9.342469E-1	9.688174E-1	9.507004E-1	9.226087E-1	9.560294E-1	9.084161E-1	9.185906E-1	9.336544E-1	9.428870E-1	9.362259E-1	9.200193E-1	9.254191E-1	9.509404E-1	9.349876E-1	9.367880E-1	9.377809E-1	9.435981E-1	9.212190E-1	9.127478E-1	9.421289E-1	9.343646E-1	8.898900E-1	9.534699E-1	9.373297E-1	9.164070E-1	9.593218E-1	9.316266E-1	9.473162E-1	9.417747E-1	9.700092E-1	9.469440E-1	9.368560E-1	8.956620E-1	9.834591E-1	9.303461E-1	9.532883E-1	8.951796E-1	9.014725E-1	9.626677E-1	9.440619E-1	9.134370E-1	9.594195E-1	9.368366E-1	9.445115E-1	9.524129E-1	9.448109E-1	9.400309E-1	9.272291E-1	9.387650E-1	9.155272E-1	9.585215E-1	9.314950E-1	1.010533E+0	9.540623E-1	9.483059E-1	9.384445E-1	9.226127E-1	9.237458E-1	9.070120E-1	9.566863E-1	9.725423E-1	9.477116E-1	8.968702E-1	9.484604E-1	9.212456E-1	9.734336E-1	9.378225E-1	9.363000E-1	9.236728E-1	9.769326E-1	9.502321E-1	9.404389E-1	8.939850E-1	9.182305E-1	9.387172E-1	9.254472E-1	9.279737E-1	9.374869E-1	9.434765E-1	9.297990E-1	9.351972E-1	9.519504E-1	9.603040E-1	9.297714E-1	9.582232E-1	9.674772E-1	9.139821E-1	9.303062E-1	9.305080E-1	9.473608E-1	8.928171E-1	9.220083E-1	9.096273E-1	9.586750E-1	9.406141E-1	9.319116E-1	9.462033E-1	9.690877E-1	9.164728E-1	9.985908E-1	9.760275E-1	9.042017E-1	9.181148E-1	9.121621E-1	9.397119E-1	9.206929E-1	9.598873E-1	9.269150E-1	9.075637E-1	9.461212E-1	9.385914E-1	9.349507E-1	9.387930E-1	9.318475E-1	9.328209E-1	9.330610E-1	9.476212E-1	9.590598E-1	9.398397E-1	9.704043E-1	9.069247E-1	9.553161E-1	9.483742E-1	9.468124E-1	9.632843E-1	9.551412E-1	9.704171E-1	9.756379E-1	9.450283E-1	9.795777E-1	9.404665E-1	8.978548E-1	9.672928E-1	9.103457E-1	9.480704E-1	9.464329E-1	9.590928E-1	9.674463E-1	9.153452E-1	9.105454E-1	9.568047E-1	9.262971E-1	9.726726E-1	9.148167E-1	9.700857E-1	9.636921E-1	9.745543E-1	9.100302E-1	9.651898E-1	9.209570E-1	9.171856E-1	9.359696E-1	9.616870E-1	9.844477E-1	9.047206E-1	9.274847E-1	9.573728E-1	9.078988E-1	9.272580E-1	9.590573E-1	9.711918E-1	9.684561E-1	9.494687E-1
5.575300E+2	9.777938E-1	1.030644E+0	9.702925E-1	9.450944E-1	9.920401E-1	9.756991E-1	1.014889E+0	9.763185E-1	9.834111E-1	1.064828E+0	1.014124E+0	9.838962E-1	9.946654E-1	9.521878E-1	1.001840E+0	1.014597E+0	1.032920E+0	1.007972E+0	9.526004E-1	1.030105E+0	9.747840E-1	1.002379E+0	9.833273E-1	9.962774E-1	9.788885E-1	9.988541E-1	1.003744E+0	1.000074E+0	1.007842E+0	9.838741E-1	9.790370E-1	9.913446E-1	1.027613E+0	1.007254E+0	1.017129E+0	9.674599E-1	1.022386E+0	1.035376E+0	9.977749E-1	9.961617E-1	9.556462E-1	9.812101E-1	1.043278E+0	1.018575E+0	9.932363E-1	1.027886E+0	1.026951E+0	9.517984E-1	9.769865E-1	1.009668E+0	9.861663E-1	9.886765E-1	1.009715E+0	1.008762E+0	1.005151E+0	9.804905E-1	9.635826E-1	1.032502E+0	9.704802E-1	9.656779E-1	1.032753E+0	1.018077E+0	9.912569E-1	9.973242E-1	9.508248E-1	1.025639E+0	9.408217E-1	1.046643E+0	9.911664E-1	1.037349E+0	1.022569E+0	9.808429E-1	1.017800E+0	1.001739E+0	9.909715E-1	9.608034E-1	1.000633E+0	1.032226E+0	9.795302E-1	1.009374E+0	9.838574E-1	9.689702E-1	1.018439E+0	9.658246E-1	1.035918E+0	1.045210E+0	9.045561E-1	9.953557E-1	9.674861E-1	9.952175E-1	1.003534E+0	1.001926E+0	9.921877E-1	9.982842E-1	1.068619E+0	9.774436E-1	1.030557E+0	1.035399E+0	9.939594E-1	9.850720E-1	9.770525E-1	1.003294E+0	1.014423E+0	1.008923E+0	9.698141E-1	1.022699E+0	9.954236E-1	9.893922E-1	1.026838E+0	1.005062E+0	1.004095E+0	9.858667E-1	9.853391E-1	9.948407E-1	1.017236E+0	1.034200E+0	1.047678E+0	9.794311E-1	9.710225E-1	1.011665E+0	9.945313E-1	9.873955E-1	9.649289E-1	1.002335E+0	1.013421E+0	9.669449E-1	9.987836E-1	9.736430E-1	1.009564E+0	1.025701E+0	9.995610E-1	9.750880E-1	1.016828E+0	1.027110E+0	9.927678E-1	9.713009E-1	9.852905E-1	1.011474E+0	1.024778E+0	1.004728E+0	1.004813E+0	9.539376E-1	9.688434E-1	9.748293E-1	9.706521E-1	1.004677E+0	1.027013E+0	9.371326E-1	9.945495E-1	9.850713E-1	9.803496E-1	1.007568E+0	1.008373E+0	1.031399E+0	1.025853E+0	9.669077E-1	9.789778E-1	9.798001E-1	9.842562E-1	9.691619E-1	1.017414E+0	1.026711E+0	9.917369E-1	9.633074E-1	9.796972E-1	1.009698E+0	9.964399E-1	1.035666E+0	9.554030E-1	1.067904E+0	8.680506E-1
5.580060E+2	1.019726E+0	1.007272E+0	9.854980E-1	9.881528E-1	1.021050E+0	1.001323E+0	1.021023E+0	9.885629E-1	1.013421E+0	1.037854E+0	1.054710E+0	9.873288E-1	1.002752E+0	1.006887E+0	1.014805E+0	1.030341E+0	1.005279E+0	9.942922E-1	1.020583E+0	9.849589E-1	1.011280E+0	1.024435E+0	1.003556E+0	1.019829E+0	9.903112E-1	1.044750E+0	9.950551E-1	1.008412E+0	1.034119E+0	9.940142E-1	1.003342E+0	1.013109E+0	9.988753E-1	1.010280E+0	9.991006E-1	1.015173E+0	9.910297E-1	1.021345E+0	9.762724E-1	1.011351E+0	1.010620E+0	1.046336E+0	1.022852E+0	1.013390E+0	1.027519E+0	1.016038E+0	1.000933E+0	9.772519E-1	1.016864E+0	1.025778E+0	9.989809E-1	1.048658E+0	9.664696E-1	1.021489E+0	9.872896E-1	1.014265E+0	1.011507E+0	1.014733E+0	9.924766E-1	1.009193E+0	9.969116E-1	1.026248E+0	1.013540E+0	9.913860E-1	9.996333E-1	1.049244E+0	9.616740E-1	1.024298E+0	1.034089E+0	1.013092E+0	1.020242E+0	1.036279E+0	1.044816E+0	9.875568E-1	1.039803E+0	1.012142E+0	9.821613E-1	1.017427E+0	9.885623E-1	1.026456E+0	9.943581E-1	1.009062E+0	1.009432E+0	9.772943E-1	9.988850E-1	1.007183E+0	1.014694E+0	1.009270E+0	1.009684E+0	9.951064E-1	9.773861E-1	9.886195E-1	1.008537E+0	1.027666E+0	1.012724E+0	9.973059E-1	9.962492E-1	1.043418E+0	1.008194E+0	9.996528E-1	9.900519E-1	1.048879E+0	1.038295E+0	1.055979E+0	9.724069E-1	1.018424E+0	1.020481E+0	1.007358E+0	9.862770E-1	1.014036E+0	9.875189E-1	1.029426E+0	1.047735E+0	9.722063E-1	9.927263E-1	9.831114E-1	1.007085E+0	1.020131E+0	1.009001E+0	1.023011E+0	1.020123E+0	1.025715E+0	1.017883E+0	1.042519E+0	1.020622E+0	1.017749E+0	9.863450E-1	1.026344E+0	1.022005E+0	1.033820E+0	9.961983E-1	9.999057E-1	9.821339E-1	1.027157E+0	9.982326E-1	9.939830E-1	9.885501E-1	9.876890E-1	1.037017E+0	9.883798E-1	1.014091E+0	1.023600E+0	9.800015E-1	1.050425E+0	1.001428E+0	9.781311E-1	9.889135E-1	1.015569E+0	1.011312E+0	1.021224E+0	1.023596E+0	1.041405E+0	9.553436E-1	1.032198E+0	9.847498E-1	1.013750E+0	1.011482E+0	9.981191E-1	1.023787E+0	9.779082E-1	9.906538E-1	1.019149E+0	9.994164E-1	1.012509E+0	9.909369E-1	1.032083E+0	1.004433E+0	1.010925E+0	1.018716E+0	9.622710E-1	1.035897E+0
5.585100E+2	1.015121E+0	1.027705E+0	9.987840E-1	1.009504E+0	1.018200E+0	1.062677E+0	1.049812E+0	1.036226E+0	1.032810E+0	1.027281E+0	1.003996E+0	1.026813E+0	1.018992E+0	1.025110E+0	1.037677E+0	1.030447E+0	1.007673E+0	1.011892E+0	1.019588E+0	1.029887E+0	1.021078E+0	1.008405E+0	1.020150E+0	1.022771E+0	1.012181E+0	1.012791E+0	1.015603E+0	1.027102E+0	9.935085E-1	9.929524E-1	9.904727E-1	1.039674E+0	1.028232E+0	1.031963E+0	1.038625E+0	1.033973E+0	1.024031E+0	1.034951E+0	1.003987E+0	1.042698E+0	9.846862E-1	1.015869E+0	1.047737E+0	1.012862E+0	1.004820E+0	1.031306E+0	1.040902E+0	1.028310E+0	1.029703E+0	1.038945E+0	1.038188E+0	1.071455E+0	1.053153E+0	1.030535E+0	1.026944E+0	1.032095E+0	9.783877E-1	1.001424E+0	9.758758E-1	1.048582E+0	1.028974E+0	9.430144E-1	1.049925E+0	1.005043E+0	1.011098E+0	9.868844E-1	1.014130E+0	1.052678E+0	1.049181E+0	1.010639E+0	9.658795E-1	1.004116E+0	1.032559E+0	1.023517E+0	9.570566E-1	1.029390E+0	1.008975E+0	9.817840E-1	1.060408E+0	1.037627E+0	1.005640E+0	1.015347E+0	1.007793E+0	1.008549E+0	1.027082E+0	1.025234E+0	1.015674E+0	1.003798E+0	1.003494E+0	1.064858E+0	9.918215E-1	9.927723E-1	1.023630E+0	1.016041E+0	1.034293E+0	9.983677E-1	9.952238E-1	9.944352E-1	1.002941E+0	1.022138E+0	1.014229E+0	9.783746E-1	9.972000E-1	9.865976E-1	1.010556E+0	1.049174E+0	9.774480E-1	1.038928E+0	1.047120E+0	1.007592E+0	1.028195E+0	1.024647E+0	1.003548E+0	1.007086E+0	9.857641E-1	9.912433E-1	9.959477E-1	1.036467E+0	1.015637E+0	1.004353E+0	1.048900E+0	1.028811E+0	1.046897E+0	1.075047E+0	1.062703E+0	1.010923E+0	1.033913E+0	1.021232E+0	1.021581E+0	1.016110E+0	9.926113E-1	1.003796E+0	1.032937E+0	1.041608E+0	9.663620E-1	1.051910E+0	1.041850E+0	1.058999E+0	1.024321E+0	1.008317E+0	1.028889E+0	9.987837E-1	1.031492E+0	1.007416E+0	1.020738E+0	1.030227E+0	9.896579E-1	1.013648E+0	1.007999E+0	1.043981E+0	1.009250E+0	1.014213E+0	9.917578E-1	1.029977E+0	1.028393E+0	9.940139E-1	1.008818E+0	1.032995E+0	1.040170E+0	1.005238E+0	9.929809E-1	9.855716E-1	1.006300E+0	1.016752E+0	1.006507E+0	1.046480E+0	1.030441E+0	1.000704E+0	1.033194E+0	1.069268E+0	1.063545E+0
5.590100E+2	1.024541E+0	1.053202E+0	1.011061E+0	1.020704E+0	1.041686E+0	1.032619E+0	1.019460E+0	1.027784E+0	1.033800E+0	1.032270E+0	1.013906E+0	1.067128E+0	1.019653E+0	9.939748E-1	1.004726E+0	9.982210E-1	1.052033E+0	1.015983E+0	1.009165E+0	9.952905E-1	1.004137E+0	1.020038E+0	1.052514E+0	1.013439E+0	9.842423E-1	9.963246E-1	1.046726E+0	1.031217E+0	9.969689E-1	1.041203E+0	1.051628E+0	9.909208E-1	1.048984E+0	1.021556E+0	1.018013E+0	1.017122E+0	1.025721E+0	1.008884E+0	9.918327E-1	1.025937E+0	1.067331E+0	1.016681E+0	1.024257E+0	1.038300E+0	9.911482E-1	9.753991E-1	1.033741E+0	1.030798E+0	9.905197E-1	1.018236E+0	1.008343E+0	9.936615E-1	1.032805E+0	9.808318E-1	1.026174E+0	9.793025E-1	1.029615E+0	1.018148E+0	1.034102E+0	1.037942E+0	1.019921E+0	1.025348E+0	9.970592E-1	1.003416E+0	1.028329E+0	1.001415E+0	9.997583E-1	1.054141E+0	9.974681E-1	1.000087E+0	9.881359E-1	1.007026E+0	9.988765E-1	1.000154E+0	1.023364E+0	1.021304E+0	1.057444E+0	9.995215E-1	1.004484E+0	9.730673E-1	1.054665E+0	1.055651E+0	9.747673E-1	1.030165E+0	1.000283E+0	1.031506E+0	9.766094E-1	1.039130E+0	9.912487E-1	1.031182E+0	1.028879E+0	1.050707E+0	1.013537E+0	1.021994E+0	1.004128E+0	1.037654E+0	1.024025E+0	9.930781E-1	9.878589E-1	1.022149E+0	1.015163E+0	1.021870E+0	1.002225E+0	1.022506E+0	1.060593E+0	1.007217E+0	1.045519E+0	9.902597E-1	1.036295E+0	1.008181E+0	1.031692E+0	9.925182E-1	1.031817E+0	1.006895E+0	1.022150E+0	1.077557E+0	1.034449E+0	9.928516E-1	1.006984E+0	1.033875E+0	1.047236E+0	1.019446E+0	1.013981E+0	9.926820E-1	1.010335E+0	9.828730E-1	1.043196E+0	1.020657E+0	1.003371E+0	1.034466E+0	9.943414E-1	1.016477E+0	1.027043E+0	9.905472E-1	1.028779E+0	1.052145E+0	9.978637E-1	1.003640E+0	1.000957E+0	1.021769E+0	1.002163E+0	1.075186E+0	1.007012E+0	1.014533E+0	9.986596E-1	1.025703E+0	1.020106E+0	1.071926E+0	1.033299E+0	1.019801E+0	1.025258E+0	1.049119E+0	1.026965E+0	1.051989E+0	1.035646E+0	1.056068E+0	1.033979E+0	1.007562E+0	1.003070E+0	1.053970E+0	1.073533E+0	1.050284E+0	9.861539E-1	1.007996E+0	1.048794E+0	1.024305E+0	9.702214E-1	1.062898E+0	9.918649E-1	1.053187E+0	1.025112E+0
5.595110E+2	1.000109E+0	1.005125E+0	1.034394E+0	1.063224E+0	1.003614E+0	9.984668E-1	1.019069E+0	1.016358E+0	1.023882E+0	1.039891E+0	1.021736E+0	9.947923E-1	9.913839E-1	1.004414E+0	1.016069E+0	9.710737E-1	9.959490E-1	1.002078E+0	9.922305E-1	1.045850E+0	1.021512E+0	1.010755E+0	1.026620E+0	1.019023E+0	1.041691E+0	1.027817E+0	9.905326E-1	9.993874E-1	9.655354E-1	1.043888E+0	1.027846E+0	9.951143E-1	1.020228E+0	9.850103E-1	1.022854E+0	1.031472E+0	1.002259E+0	1.036979E+0	1.040893E+0	1.000421E+0	1.038144E+0	9.884249E-1	1.035658E+0	1.009308E+0	1.076652E+0	1.031917E+0	9.996281E-1	1.060442E+0	9.910552E-1	9.913375E-1	1.013090E+0	1.005881E+0	1.013234E+0	1.031080E+0	1.037079E+0	1.024691E+0	1.013886E+0	1.019519E+0	1.029965E+0	1.032941E+0	9.985307E-1	1.038114E+0	1.034779E+0	1.045155E+0	1.003683E+0	9.869268E-1	1.051598E+0	9.979059E-1	1.013435E+0	9.915162E-1	1.064924E+0	9.987097E-1	1.003325E+0	1.019155E+0	1.031628E+0	1.017100E+0	1.025671E+0	1.048437E+0	1.048342E+0	1.011117E+0	1.005789E+0	1.047080E+0	9.981500E-1	1.017268E+0	1.040276E+0	1.025622E+0	1.027486E+0	1.028912E+0	1.021904E+0	9.912456E-1	1.052380E+0	9.847350E-1	1.020975E+0	1.001113E+0	1.024018E+0	1.018245E+0	1.030832E+0	1.038219E+0	1.036467E+0	9.993597E-1	1.012196E+0	1.024834E+0	1.021441E+0	1.041598E+0	9.968466E-1	9.596756E-1	9.761513E-1	9.908992E-1	1.026234E+0	1.020529E+0	1.002111E+0	1.025416E+0	1.002290E+0	1.018873E+0	1.053867E+0	9.724643E-1	1.035066E+0	1.028380E+0	9.725137E-1	1.024827E+0	1.030526E+0	1.024546E+0	1.007643E+0	1.005504E+0	9.922525E-1	1.039818E+0	1.031137E+0	9.908958E-1	9.800553E-1	9.870674E-1	1.024766E+0	1.007026E+0	1.020514E+0	1.005507E+0	1.036616E+0	1.003368E+0	1.036027E+0	1.039821E+0	1.010796E+0	1.042286E+0	1.036085E+0	1.042716E+0	1.006851E+0	1.009991E+0	1.013624E+0	1.018168E+0	1.045843E+0	9.904829E-1	9.916977E-1	1.041143E+0	9.876192E-1	1.015941E+0	1.049607E+0	1.001091E+0	1.068596E+0	1.014539E+0	9.945960E-1	9.907021E-1	1.018104E+0	1.031509E+0	1.034631E+0	9.906480E-1	1.079637E+0	1.002529E+0	1.008378E+0	1.004092E+0	1.001575E+0	1.029584E+0	1.055084E+0	1.036723E+0	9.406111E-1
5.600240E+2	1.002972E+0	9.801778E-1	1.043357E+0	9.779912E-1	9.887272E-1	9.606639E-1	1.006406E+0	1.029321E+0	1.001372E+0	9.662072E-1	9.910987E-1	1.001669E+0	1.023698E+0	1.036513E+0	1.021018E+0	1.009955E+0	9.930073E-1	1.004988E+0	1.028318E+0	9.977019E-1	9.945876E-1	1.025083E+0	9.783329E-1	9.906622E-1	1.023392E+0	9.673056E-1	1.025006E+0	1.030974E+0	1.056504E+0	1.036871E+0	1.005161E+0	1.011475E+0	1.020878E+0	9.935475E-1	1.005904E+0	9.811833E-1	1.027760E+0	9.971647E-1	1.005458E+0	9.899554E-1	1.021548E+0	9.969552E-1	9.825681E-1	1.013993E+0	9.687383E-1	9.982576E-1	1.033438E+0	9.854020E-1	1.035212E+0	9.963002E-1	1.029537E+0	9.646374E-1	1.007030E+0	1.025454E+0	1.008845E+0	1.000978E+0	1.047398E+0	1.015614E+0	1.040250E+0	9.896952E-1	1.035505E+0	1.017115E+0	1.001736E+0	1.027342E+0	1.043008E+0	1.019934E+0	1.012853E+0	9.604556E-1	9.721527E-1	1.025865E+0	9.904503E-1	1.008952E+0	9.879295E-1	1.037741E+0	1.019477E+0	9.853086E-1	1.001469E+0	1.007387E+0	9.687531E-1	1.029378E+0	9.984707E-1	9.748726E-1	1.053562E+0	1.004544E+0	1.016771E+0	9.752186E-1	1.031756E+0	9.950528E-1	1.033476E+0	9.905147E-1	1.030241E+0	1.055443E+0	1.001639E+0	1.002180E+0	1.009976E+0	1.013564E+0	1.009862E+0	1.022588E+0	1.013917E+0	1.061509E+0	1.012730E+0	1.013431E+0	1.018917E+0	1.008806E+0	9.997078E-1	1.026182E+0	9.986411E-1	1.020092E+0	9.859227E-1	9.954453E-1	1.019976E+0	1.028870E+0	1.000964E+0	1.015923E+0	1.003082E+0	1.022063E+0	9.925624E-1	9.770214E-1	1.009193E+0	1.025272E+0	9.710663E-1	1.001906E+0	9.981249E-1	1.003006E+0	9.783541E-1	1.024456E+0	9.903581E-1	1.017715E+0	1.022546E+0	1.036376E+0	1.017626E+0	1.022965E+0	9.909645E-1	1.002428E+0	1.015419E+0	9.993654E-1	1.004687E+0	9.754780E-1	9.796598E-1	1.013654E+0	1.038293E+0	1.007798E+0	1.032340E+0	1.018029E+0	1.031796E+0	1.017433E+0	1.025047E+0	9.802129E-1	9.895774E-1	9.743855E-1	1.011805E+0	9.874829E-1	1.041905E+0	1.037541E+0	9.538422E-1	9.813262E-1	9.899412E-1	1.005247E+0	1.012479E+0	1.028588E+0	9.800878E-1	1.012271E+0	1.014146E+0	1.031950E+0	1.024733E+0	9.654297E-1	1.030946E+0	9.904116E-1	1.033565E+0	1.012298E+0	9.515124E-1
5.605090E+2	9.796195E-1	9.447069E-1	9.736028E-1	9.710105E-1	9.684744E-1	9.729620E-1	9.517086E-1	9.574348E-1	9.502046E-1	9.369924E-1	9.340310E-1	9.573096E-1	9.678588E-1	9.795132E-1	9.609782E-1	9.695049E-1	9.497383E-1	1.010200E+0	9.943744E-1	9.582740E-1	9.644029E-1	9.573193E-1	9.317101E-1	9.735122E-1	9.732377E-1	9.742908E-1	9.653854E-1	9.399079E-1	1.002776E+0	9.114683E-1	9.726934E-1	9.693989E-1	9.489943E-1	9.924159E-1	9.449225E-1	9.589506E-1	9.704694E-1	9.572165E-1	9.718258E-1	9.616865E-1	9.443617E-1	9.462105E-1	9.422126E-1	9.769412E-1	9.754432E-1	9.706357E-1	9.390171E-1	9.532181E-1	9.590226E-1	9.604923E-1	9.726973E-1	9.487931E-1	9.641998E-1	9.803574E-1	9.897068E-1	9.749198E-1	9.745397E-1	9.408649E-1	9.780105E-1	9.124434E-1	9.657319E-1	9.647298E-1	9.660319E-1	9.807119E-1	9.368039E-1	9.715971E-1	9.936092E-1	9.363533E-1	9.621577E-1	9.720903E-1	1.011589E+0	9.682074E-1	9.343589E-1	9.401239E-1	9.727154E-1	9.555145E-1	9.395515E-1	9.687602E-1	9.997137E-1	9.757825E-1	9.569649E-1	9.802872E-1	9.746667E-1	9.622933E-1	9.582022E-1	9.384204E-1	9.538641E-1	9.717721E-1	9.538093E-1	9.500269E-1	9.356030E-1	9.574253E-1	9.249006E-1	9.885332E-1	9.602619E-1	9.637194E-1	9.776529E-1	9.324741E-1	9.690356E-1	9.687222E-1	9.753747E-1	9.432069E-1	9.411172E-1	9.306147E-1	9.823297E-1	1.004456E+0	9.879988E-1	9.861542E-1	9.488242E-1	9.925837E-1	9.310583E-1	9.309543E-1	9.534755E-1	9.684693E-1	9.732582E-1	9.914829E-1	9.754637E-1	9.927627E-1	9.878921E-1	9.449463E-1	9.517867E-1	9.253535E-1	9.622289E-1	9.176855E-1	9.325071E-1	9.701426E-1	9.538611E-1	9.630243E-1	9.731321E-1	9.404918E-1	1.001930E+0	9.834116E-1	9.913480E-1	9.612230E-1	9.697620E-1	9.408830E-1	9.573216E-1	9.629256E-1	9.923389E-1	9.375073E-1	9.253737E-1	9.329692E-1	9.889880E-1	9.298790E-1	9.623739E-1	9.479903E-1	9.342392E-1	9.576805E-1	9.611981E-1	9.567470E-1	9.565859E-1	9.254218E-1	9.747278E-1	9.475555E-1	9.839146E-1	9.699548E-1	9.849266E-1	9.956832E-1	9.349790E-1	9.838815E-1	9.562720E-1	9.611583E-1	9.407059E-1	9.555607E-1	9.388539E-1	9.697923E-1	1.003500E+0	9.839403E-1	9.528053E-1	9.305242E-1	9.487207E-1
5.610070E+2	9.579112E-1	9.818122E-1	9.533025E-1	9.694135E-1	9.582486E-1	9.712880E-1	9.325222E-1	9.443129E-1	9.445098E-1	9.595038E-1	9.805227E-1	9.649581E-1	9.756615E-1	9.535877E-1	9.447269E-1	9.904571E-1	9.963197E-1	9.605671E-1	9.357412E-1	9.880373E-1	9.830026E-1	9.539638E-1	9.871160E-1	9.607644E-1	9.749445E-1	9.767207E-1	9.616920E-1	9.629989E-1	9.505886E-1	9.796041E-1	9.488576E-1	9.803078E-1	9.338088E-1	9.652274E-1	9.705815E-1	9.621271E-1	9.587307E-1	9.434595E-1	1.009731E+0	9.679510E-1	9.333103E-1	9.895231E-1	9.447160E-1	9.352057E-1	9.556792E-1	9.764469E-1	9.523395E-1	9.645784E-1	9.776233E-1	9.689109E-1	9.391635E-1	9.669148E-1	9.631083E-1	9.302527E-1	9.239624E-1	9.737491E-1	9.446656E-1	9.896967E-1	9.493196E-1	9.692042E-1	9.544251E-1	9.854309E-1	9.369291E-1	9.469457E-1	9.774453E-1	9.839986E-1	9.663771E-1	9.741679E-1	9.715164E-1	9.867103E-1	9.587785E-1	9.767099E-1	9.981347E-1	9.917524E-1	9.559554E-1	9.792404E-1	9.847288E-1	9.766832E-1	9.297371E-1	9.465724E-1	9.841116E-1	9.177000E-1	9.816284E-1	9.998864E-1	9.585001E-1	9.968157E-1	9.799159E-1	9.520650E-1	9.863852E-1	9.770666E-1	9.836895E-1	9.702974E-1	1.006782E+0	9.424727E-1	9.545993E-1	9.711439E-1	9.661554E-1	9.757884E-1	9.815869E-1	9.264697E-1	9.802554E-1	9.694049E-1	9.808045E-1	9.538990E-1	9.775604E-1	9.348708E-1	9.937609E-1	9.663081E-1	9.693274E-1	9.616326E-1	9.994492E-1	9.681687E-1	9.601709E-1	1.010549E+0	9.691524E-1	9.620777E-1	9.594263E-1	9.523855E-1	9.987795E-1	9.437154E-1	9.303616E-1	9.742221E-1	9.532422E-1	9.635569E-1	1.003227E+0	9.540376E-1	9.611888E-1	9.601311E-1	9.773106E-1	9.516689E-1	9.725259E-1	9.664196E-1	9.550599E-1	9.715290E-1	9.848289E-1	9.583457E-1	9.737014E-1	9.714476E-1	9.549102E-1	9.880874E-1	9.551052E-1	9.189465E-1	9.533158E-1	9.697264E-1	9.713798E-1	9.823480E-1	9.961944E-1	9.704800E-1	1.004916E+0	9.427186E-1	9.858854E-1	9.664176E-1	9.596933E-1	8.996473E-1	9.448580E-1	9.703483E-1	9.762576E-1	9.696916E-1	9.674105E-1	9.189044E-1	9.718412E-1	9.809186E-1	9.736401E-1	9.727036E-1	9.817969E-1	9.578173E-1	9.588839E-1	9.215377E-1	9.147702E-1	9.357285E-1	1.034602E+0
