Photon Energy (eV)	#1	#2	#3	#4	#5	#6	#7	#8	#9	#10	#11	#12	#13	#14	#15	#16	#17	#18	#19	#20	#21	#22	#23	#24	#25	#26	#27	#28	#29	#30	#31	#32	#33	#34	#35	#36	#37	#38	#39	#40	#41	#42	#43	#44	#45	#46	#47	#48	#49	#50	#51	#52	#53	#54	#55	#56	#57	#58	#59	#60	#61	#62	#63	#64	#65	#66	#67	#68	#69	#70	#71	#72	#73	#74	#75	#76	#77	#78	#79	#80	#81	#82	#83	#84	#85	#86	#87	#88	#89	#90	#91	#92	#93	#94	#95	#96	#97	#98	#99	#100	#101	#102	#103	#104	#105	#106	#107	#108	#109	#110	#111	#112	#113	#114	#115	#116	#117	#118	#119	#120	#121	#122	#123	#124	#125	#126	#127	#128	#129	#130	#131	#132	#133	#134	#135	#136	#137	#138	#139	#140	#141	#142	#143	#144	#145	#146	#147	#148	#149	#150	#151	#152	#153	#154	#155	#156	#157	#158	#159	#160	#161	#162	#163	#164	#165	#166	#167	#168	#169	#170	#171	
5.300160E+2	3.972164E-4	-4.554177E-3	3.689134E-3	-1.173631E-2	-8.828809E-3	8.549388E-5	-4.017746E-3	-6.303257E-3	-2.872237E-3	-1.180684E-2	1.952566E-3	-3.208020E-3	-6.884670E-3	-6.581534E-3	-3.547431E-3	1.733724E-3	-7.320726E-3	1.798898E-4	-3.642081E-4	-9.373166E-3	2.292961E-3	-2.360806E-4	-2.623259E-3	-8.198601E-3	-1.308670E-3	-3.767710E-3	-4.287791E-3	-2.662969E-4	-8.193395E-3	-1.114566E-2	-1.004884E-2	-3.792108E-3	-6.698380E-3	-7.695618E-3	-8.224963E-3	2.139534E-3	-1.309040E-2	-1.127171E-3	-9.284784E-3	-1.031832E-2	-1.658947E-3	1.505582E-3	-7.013208E-3	-7.985675E-3	-1.050034E-2	-1.381331E-2	-9.261691E-3	-4.931638E-3	5.837713E-4	-4.306118E-3	-5.624643E-3	-7.439471E-3	2.866421E-3	-7.486634E-3	-9.133619E-3	-7.733627E-3	-8.069602E-3	-8.808095E-4	-7.442107E-3	-3.635529E-3	-4.854880E-3	-2.817852E-3	-8.368397E-3	-3.416499E-3	-2.207959E-3	-1.372193E-3	-5.853307E-3	-3.774644E-3	-9.067142E-3	-5.480883E-3	-4.598515E-3	-7.802141E-3	-8.049163E-3	-4.975366E-3	-1.286427E-3	-3.216923E-3	3.265775E-4	-5.004171E-3	-5.100795E-3	-6.776249E-3	-3.787281E-3	-5.749588E-3	-2.795618E-3	-5.601446E-3	2.462880E-3	-7.157770E-3	-7.117025E-3	-6.035662E-3	-3.956416E-3	-1.211449E-2	-1.096454E-2	-2.258395E-3	-1.003840E-2	-6.738750E-3	-5.887887E-3	-3.090923E-3	-8.220023E-3	-9.221726E-3	-3.255918E-3	-3.310216E-3	-6.571402E-3	-3.991156E-3	-8.309209E-3	-4.913731E-3	-1.097427E-2	-2.442882E-3	-6.957222E-3	-2.538859E-3	-5.524511E-3	-8.820368E-3	1.558961E-4	-9.320110E-3	-8.652001E-3	-6.317216E-3	-1.861170E-3	6.581272E-4	-2.079543E-3	-4.196758E-3	-1.930694E-3	-4.895822E-4	-8.811811E-5	-9.922250E-3	-1.046139E-2	-5.609207E-3	-4.659806E-3	-7.017637E-3	-7.729683E-3	-7.956888E-3	-1.228306E-3	-3.244351E-3	-1.803812E-3	-1.045659E-2	-3.912089E-3	-5.774019E-3	-5.460714E-3	-4.838576E-3	-1.367848E-2	-1.008241E-2	-5.454997E-3	-6.722632E-3	-6.056757E-3	-4.544585E-3	-7.526244E-3	5.852908E-4	-8.231109E-3	-7.660858E-3	-2.552569E-3	-3.118284E-3	-5.597074E-3	2.517924E-4	-1.280404E-2	-7.459351E-3	-2.521519E-3	-6.357881E-3	-1.409977E-2	1.820864E-3	-1.039064E-2	5.877259E-4	-2.782770E-3	-6.767202E-3	-7.518234E-3	-1.638811E-3	-1.263641E-2	-7.857133E-3	-2.428691E-3	-9.829257E-3	1.200511E-3	-2.352000E-3	-6.422744E-3	-4.379537E-3	-1.333155E-2
5.305080E+2	-5.798816E-3	-5.135584E-3	-4.686155E-3	2.051794E-3	7.810803E-5	1.111611E-3	-8.734334E-4	-3.074727E-3	-2.316322E-3	-1.082976E-2	-9.205038E-3	-9.286283E-3	-9.231726E-3	-7.959073E-3	6.169607E-4	-6.172039E-3	-6.486529E-4	-7.914307E-3	-4.188671E-3	-9.635844E-4	-1.559226E-2	-3.541442E-3	-7.869725E-3	-4.520728E-3	-6.356512E-3	-7.458514E-3	2.522290E-4	-5.591688E-3	-9.611517E-3	-2.844054E-3	7.735411E-3	-9.779599E-3	8.700149E-5	-2.835226E-3	2.918551E-3	-5.049321E-3	-5.631041E-3	-4.025578E-3	-7.142269E-4	-3.546915E-3	-3.230581E-3	-4.516769E-3	-4.827255E-3	7.259427E-4	2.333258E-4	-6.192182E-3	-4.630868E-3	-7.107324E-3	-6.421625E-3	-5.887914E-3	-1.874872E-3	2.538176E-3	-1.543445E-3	4.403834E-4	1.826918E-4	4.257840E-3	-6.437572E-3	2.290104E-3	-8.445487E-3	-5.231629E-3	-5.876949E-3	-9.392823E-3	-1.338952E-3	-6.605303E-3	-1.068646E-2	-3.567620E-3	-8.597012E-3	-9.436446E-4	-6.722200E-3	-5.036487E-3	-7.106758E-3	-3.271848E-3	-5.151398E-3	-1.321046E-2	-5.917576E-3	-6.969968E-3	-1.387854E-2	-5.488415E-3	7.286723E-4	-8.102017E-3	3.787280E-3	-3.593424E-4	-2.541376E-4	-4.050254E-3	-5.849403E-3	-3.502732E-3	8.540406E-4	-6.035649E-3	2.517745E-3	-1.808028E-4	-1.150823E-2	-9.034123E-5	-6.638295E-3	-3.409033E-3	-9.420611E-3	-3.566441E-3	-1.034130E-2	-7.072992E-3	-2.697774E-3	-3.310196E-3	-9.171091E-3	-4.511752E-3	-3.827840E-3	-4.913725E-3	3.658082E-3	-6.785828E-3	-8.746260E-3	3.239242E-3	-1.243010E-2	-4.971475E-3	5.767718E-3	-2.766929E-3	-3.244512E-3	-1.316085E-2	-2.448990E-3	-1.062388E-2	-3.928065E-3	-1.376531E-2	-5.792184E-3	-4.895749E-3	-2.203285E-3	2.949866E-3	-6.718124E-4	-9.348656E-3	3.328355E-4	-8.044605E-3	-6.699046E-3	-3.410080E-3	-4.913118E-3	1.908456E-3	-2.834512E-3	-1.727573E-3	-9.181431E-3	-5.774054E-3	-6.571401E-3	-4.290875E-3	-7.928326E-3	-7.281760E-3	-3.030547E-3	-6.138036E-3	-7.491230E-3	-1.202980E-2	-4.228309E-4	-4.933156E-3	1.646204E-3	-4.663098E-3	-7.090465E-3	2.598549E-3	-8.030569E-3	-5.791136E-3	-7.613201E-3	-9.865575E-3	-4.682743E-3	-4.045855E-3	-1.847574E-3	-5.280554E-3	-1.416885E-3	-9.992165E-3	-6.220304E-3	-4.511496E-3	-6.444205E-3	-3.952476E-3	-1.320210E-3	-8.916539E-3	-1.068629E-2	-3.621288E-3	-8.575095E-3	-3.057648E-3	-4.630350E-3	-7.299290E-3	-1.904504E-2
5.310100E+2	2.303649E-3	-8.623931E-3	-5.284396E-3	-1.395207E-3	-4.609712E-3	-9.405798E-4	-8.734079E-4	2.921008E-3	-3.428161E-3	-3.012748E-3	4.184118E-3	-1.232539E-2	-1.251772E-3	1.683676E-3	1.542398E-4	-4.091583E-3	-6.486800E-4	4.496754E-3	-5.827733E-3	5.869144E-3	-2.292971E-3	-1.015210E-2	-2.623247E-3	-1.762360E-3	-4.113024E-3	-3.306349E-3	-5.801192E-3	-5.591681E-3	-5.357203E-3	1.306737E-3	-3.542389E-3	-2.195435E-3	-7.220363E-3	-4.293346E-3	3.979841E-3	-2.481870E-3	-8.044294E-4	-1.610224E-3	-3.094895E-3	3.224454E-3	-7.945526E-3	-5.102286E-10	-2.094857E-3	1.814985E-4	3.033431E-3	-4.286887E-3	-3.241584E-3	1.595525E-3	-3.419303E-3	2.021243E-3	-4.017604E-3	-4.813763E-3	-3.307411E-3	-3.963486E-3	-2.557415E-3	6.082633E-4	7.706952E-3	-6.694163E-3	1.087052E-3	-3.635538E-3	-6.388021E-3	-5.166011E-3	-3.849448E-3	-6.833169E-4	-5.917333E-3	4.665416E-3	1.829153E-3	-6.605533E-3	1.719637E-3	1.185041E-3	-1.588585E-3	-4.781892E-3	-1.287844E-3	3.259712E-3	1.800993E-3	-7.506112E-3	4.245185E-3	-4.519899E-3	-1.700269E-3	6.481616E-3	-5.951476E-3	-4.132550E-3	7.624210E-4	-1.982048E-3	-2.616808E-3	-1.675236E-3	7.686350E-3	-6.488316E-3	-8.272531E-3	5.243575E-3	-3.896473E-3	-3.342427E-3	-1.295265E-3	-6.738759E-3	-1.850420E-3	-3.090915E-3	-5.568362E-3	-4.924244E-3	-4.651569E-4	-5.517010E-3	-1.805334E-3	-7.114714E-3	-7.749049E-3	2.694617E-3	1.567756E-3	-6.785841E-3	-2.782919E-3	-2.538862E-3	9.207235E-4	-5.933694E-3	-5.455968E-3	-3.640681E-3	2.703725E-3	-7.896515E-3	5.779545E-3	-1.034207E-3	-9.935609E-3	1.342972E-3	-5.240535E-3	2.447902E-3	-3.260864E-3	1.877195E-3	-3.551116E-3	4.540792E-3	-5.159058E-3	-1.882755E-3	-6.183735E-3	-2.273455E-4	-3.333942E-3	-7.252094E-3	5.411382E-3	2.091296E-3	3.752411E-3	-1.274783E-3	-6.016030E-3	1.186813E-3	5.140337E-3	-9.522271E-3	-4.242833E-3	-2.046025E-3	-5.100408E-3	-1.871319E-3	-8.033639E-3	-3.428155E-3	-6.671534E-3	-9.659316E-3	-1.985340E-3	-3.637988E-3	1.216772E-3	-3.776835E-3	2.768452E-3	-5.053135E-3	-5.763413E-3	-6.357867E-3	-8.265390E-3	-8.011847E-3	-1.416874E-3	-6.969358E-3	-3.273851E-3	-2.706904E-3	-5.370214E-4	3.566855E-3	2.640418E-3	-4.678975E-3	-2.914439E-3	-2.586655E-3	-4.973501E-3	-5.174324E-3	-1.045539E-3	2.226277E-8	9.522199E-4
5.315180E+2	-6.752098E-3	1.841070E-3	2.492650E-3	-9.027828E-4	5.469077E-4	-6.584015E-3	-3.493700E-3	-6.764465E-3	3.242850E-3	4.071473E-4	-2.510440E-3	1.148124E-2	-1.251761E-3	-1.071435E-3	2.005070E-3	-3.259380E-3	1.019332E-3	-3.597409E-3	-4.188671E-3	9.548364E-3	-3.668743E-3	-7.083195E-4	-2.623230E-3	-3.831025E-4	-4.673917E-3	2.229840E-3	-9.836742E-3	-6.656776E-3	-3.466446E-3	3.843243E-4	-1.807330E-3	-1.397088E-3	-7.220373E-3	-4.779356E-3	-6.633055E-3	-2.995376E-3	1.389469E-3	-5.957852E-3	5.475598E-3	-7.899927E-3	-5.849972E-3	5.018378E-4	5.009446E-3	8.348669E-3	-3.966777E-3	1.905299E-3	9.261714E-4	2.030664E-3	5.837927E-4	3.075785E-3	-1.339200E-3	-4.813741E-3	-4.630345E-3	2.201947E-3	-6.393519E-3	-5.126749E-3	-4.533413E-4	1.761606E-4	-2.424975E-3	1.684735E-3	5.365956E-3	1.080173E-2	5.690514E-3	-6.832752E-4	3.621049E-3	2.744460E-4	-3.658332E-4	-6.605508E-3	-1.094314E-3	-2.370116E-3	-5.852419E-4	4.781934E-3	1.609766E-4	-1.372485E-3	-5.402991E-3	7.506123E-3	-7.020943E-3	-6.456788E-4	-1.700269E-3	1.620414E-3	-2.164146E-3	2.335795E-3	-2.541655E-4	-2.499101E-3	-1.693209E-3	1.066052E-3	-2.562106E-3	6.639211E-3	-7.733030E-3	-2.350555E-3	-2.265415E-3	-9.032470E-5	2.590529E-3	-7.930608E-5	3.700945E-3	-1.188825E-3	2.651382E-4	8.505489E-3	-4.651262E-4	-1.103399E-3	-1.805326E-3	6.940822E-4	-3.827850E-3	-3.011651E-3	5.225891E-4	-8.143241E-4	-3.975600E-3	-1.199394E-2	-1.381120E-3	-6.414806E-3	-7.794122E-4	1.601907E-3	-3.244479E-3	4.211459E-3	-5.387699E-3	-3.854706E-3	-2.310413E-4	-2.182314E-3	-4.688936E-3	-4.895800E-3	1.498230E-3	-2.681993E-4	7.965973E-3	1.869727E-3	-2.662735E-3	6.846613E-4	2.061254E-3	2.273483E-4	3.509213E-4	-4.389438E-3	-5.926737E-3	-3.364331E-3	-3.433056E-3	-6.673851E-3	-6.571357E-3	3.925661E-3	2.526596E-3	3.359873E-8	-4.848882E-3	5.553442E-3	4.462859E-3	-1.336637E-3	6.173221E-3	-1.421405E-3	2.166088E-3	-2.664623E-3	3.119795E-3	-4.157702E-3	4.623669E-3	-2.266151E-3	1.730255E-3	7.459319E-3	-5.223073E-3	1.040373E-2	6.903990E-3	-6.919326E-3	-3.306152E-3	9.152504E-3	1.636855E-4	-4.511441E-3	1.611062E-3	-6.844484E-3	-3.017646E-3	1.147682E-3	7.771831E-3	2.069298E-3	-2.915521E-3	3.292801E-3	3.435428E-3	-2.919687E-3	-2.761532E-2
5.320070E+2	4.686695E-3	5.910753E-3	1.296154E-3	2.544210E-3	3.359640E-3	-4.275414E-4	1.746833E-3	9.839222E-3	-3.984032E-3	9.201177E-3	2.510468E-3	1.300076E-2	1.236112E-2	1.086719E-2	-6.323677E-3	1.317630E-3	-2.316695E-3	-5.216192E-3	7.284642E-3	-3.591580E-3	1.421649E-2	7.082849E-4	1.192405E-3	8.351863E-3	4.860839E-3	9.150143E-3	7.818959E-3	6.656787E-3	4.569385E-3	-1.460441E-3	8.602980E-3	1.417048E-2	3.218727E-3	3.969294E-3	3.979779E-3	-2.481886E-3	6.216104E-3	4.186584E-3	7.142414E-4	2.740808E-3	1.039026E-2	-4.014915E-3	-3.187818E-3	-5.807772E-3	2.333400E-4	1.333697E-2	4.630871E-4	7.252248E-4	7.589183E-3	2.021230E-3	5.088971E-3	4.376303E-4	5.071329E-3	-1.761561E-3	5.662822E-3	6.082506E-4	4.442819E-3	2.290111E-3	3.595619E-3	5.408974E-3	1.788623E-3	-4.226791E-3	-4.853659E-3	7.060792E-3	9.714857E-4	-3.018856E-3	5.121644E-3	8.115376E-3	6.409524E-3	6.073427E-3	2.926323E-3	1.258405E-3	7.405168E-3	5.318495E-3	-5.917629E-3	-2.144635E-3	7.674042E-3	-1.614239E-3	2.428769E-4	1.620401E-3	-4.869375E-3	4.491869E-3	2.795641E-3	8.876134E-3	-3.540399E-3	4.264199E-3	1.992769E-3	5.281198E-3	6.294322E-3	4.158679E-3	1.458918E-2	-1.174347E-3	1.279087E-2	6.580222E-3	7.233650E-3	7.132911E-4	1.299292E-2	6.893934E-3	7.349122E-3	4.413583E-3	1.422601E-2	8.502945E-3	9.616309E-3	5.547773E-3	2.612932E-3	7.871595E-3	9.740164E-3	2.188677E-3	1.381150E-3	1.186739E-2	-3.585329E-3	1.121325E-2	5.948262E-3	4.211469E-3	-1.126520E-2	1.786336E-3	5.776512E-3	5.371816E-3	5.792169E-3	3.427028E-3	2.027020E-3	-2.413485E-3	-3.551099E-3	7.211804E-3	1.830633E-3	3.252056E-3	4.637799E-3	6.820505E-4	1.403767E-3	4.771080E-3	1.288419E-3	8.092510E-3	5.668536E-3	1.042324E-2	7.311775E-3	-4.838559E-3	-4.791825E-3	8.401967E-3	1.818338E-3	3.799759E-3	5.897356E-3	2.940633E-3	-1.944986E-3	-5.434836E-3	-4.332271E-4	1.132469E-2	-8.508564E-4	2.078873E-3	2.190130E-3	-2.517729E-4	3.287527E-3	3.609379E-3	1.801330E-4	3.467910E-3	8.070929E-3	-2.549241E-3	9.446003E-3	-3.946478E-3	2.619052E-3	6.767216E-3	2.685078E-3	1.831643E-3	1.112760E-2	5.914949E-3	5.828885E-3	2.586627E-3	1.200510E-2	3.292788E-3	-1.941745E-3	4.379537E-3	2.666303E-2
5.325070E+2	5.163354E-3	1.056187E-2	2.492613E-3	9.438291E-3	9.453865E-3	6.755031E-3	7.511454E-3	3.382218E-3	9.357902E-3	1.604102E-2	3.068326E-3	3.377007E-4	6.258810E-3	3.061176E-3	7.094838E-3	1.047165E-2	9.915423E-3	1.205126E-2	7.284642E-3	-1.489178E-3	5.044523E-3	1.392965E-2	1.454706E-2	6.512928E-3	1.159129E-2	3.152590E-3	1.185454E-2	1.144965E-2	2.205918E-2	1.375910E-2	-9.398275E-4	2.993750E-3	1.783339E-2	1.563425E-2	3.979847E-3	1.086892E-2	1.192030E-2	8.534241E-3	6.904067E-3	1.579990E-2	8.294768E-3	6.524265E-3	1.211369E-2	4.537337E-3	1.096702E-2	9.050108E-3	1.574489E-2	7.687548E-3	1.084182E-3	3.075775E-3	7.767348E-3	1.409117E-2	1.543452E-3	1.056935E-2	1.223904E-2	7.386023E-3	2.810745E-3	2.818597E-3	1.362990E-2	5.408987E-3	9.965270E-3	1.080174E-2	1.271994E-2	4.327602E-3	1.421921E-2	3.018807E-3	7.865355E-3	9.813953E-3	8.754495E-3	5.629018E-3	1.095278E-2	9.815542E-3	6.922260E-3	1.098010E-2	1.672363E-2	1.233151E-2	8.653676E-3	1.727240E-2	7.529784E-3	5.155835E-3	1.298500E-2	3.413816E-3	-2.541407E-4	5.256715E-3	1.123694E-2	7.005487E-3	-8.540290E-4	6.639219E-3	1.114991E-2	5.243595E-3	1.404548E-2	6.955835E-3	2.590558E-3	1.038563E-2	6.224323E-3	1.022381E-2	1.087163E-2	5.819539E-3	-4.651467E-4	8.827238E-3	5.127139E-3	6.420596E-3	1.409764E-2	4.596717E-3	2.612913E-3	8.957280E-3	1.272184E-2	1.164374E-2	1.703385E-2	1.427295E-2	3.897095E-3	2.912560E-3	6.489006E-3	1.895165E-2	1.518351E-2	1.306832E-2	1.039775E-2	1.342960E-2	1.186018E-2	4.406201E-3	2.027017E-3	7.776874E-3	1.026944E-2	1.335540E-3	1.031813E-2	1.300828E-2	1.391341E-2	1.068492E-2	7.720677E-3	8.206346E-3	3.865260E-3	5.364686E-3	7.105628E-3	9.073463E-3	1.730773E-2	8.855536E-3	1.873170E-2	1.848445E-2	1.575892E-2	5.553492E-3	8.288181E-3	1.684171E-2	1.175448E-2	1.463226E-2	1.152358E-2	1.332320E-2	9.359435E-3	6.236551E-3	5.597072E-3	1.183410E-2	1.263100E-2	1.130936E-2	1.801062E-2	2.889960E-3	9.237814E-3	2.094010E-2	7.084552E-3	1.116777E-2	9.494187E-3	1.172983E-2	1.020332E-2	7.037274E-3	3.206243E-3	1.439002E-2	2.428708E-3	1.138128E-2	3.258509E-3	3.998384E-3	1.060495E-2	1.021895E-2	3.237666E-2
5.330280E+2	2.708773E-2	3.265457E-2	2.821655E-2	2.962796E-2	1.836079E-2	1.958101E-2	2.113695E-2	2.090839E-2	1.269339E-2	1.994951E-2	2.147834E-2	1.300079E-2	2.081051E-2	3.153014E-2	2.976754E-2	2.753150E-2	2.715149E-2	2.608112E-2	8.377326E-3	1.270191E-2	1.284068E-2	2.479007E-2	3.267128E-2	1.524789E-2	2.785643E-2	1.468633E-2	2.093466E-2	2.742590E-2	1.496872E-2	2.482787E-2	2.248337E-2	1.177543E-2	1.104802E-2	2.632708E-2	1.830724E-2	2.421965E-2	2.727779E-2	2.592471E-2	2.166444E-2	2.353862E-2	1.877242E-2	2.057645E-2	1.429963E-2	2.087169E-2	2.403413E-2	1.905280E-2	2.222810E-2	1.726066E-2	1.909812E-2	2.680312E-2	1.740958E-2	1.251581E-2	2.623871E-2	1.805597E-2	2.210331E-2	2.042031E-2	1.913141E-2	1.444531E-2	7.107619E-3	1.870972E-2	2.938491E-2	2.911777E-2	2.728099E-2	1.753813E-2	2.216782E-2	2.662015E-2	3.091275E-2	2.340253E-2	1.719632E-2	1.407256E-2	1.596933E-2	2.491643E-2	1.464939E-2	7.377260E-3	1.517991E-2	2.037379E-2	2.726725E-2	1.872520E-2	2.210345E-2	1.311055E-2	2.055956E-2	2.066275E-2	2.007771E-2	2.593898E-2	2.139641E-2	1.751369E-2	2.875267E-2	1.931409E-2	1.870312E-2	2.639868E-2	2.763787E-2	2.213216E-2	1.279085E-2	2.560732E-2	1.884118E-2	1.735672E-2	1.034127E-2	2.945577E-2	1.907052E-2	3.917089E-2	2.462471E-2	3.297060E-2	1.913920E-2	2.409312E-2	1.410973E-2	3.121485E-2	1.510720E-2	3.002859E-2	2.117723E-2	2.918739E-2	3.148867E-2	2.431970E-2	1.730396E-2	3.105963E-2	2.047325E-2	2.096563E-2	1.732958E-2	3.357391E-2	1.461840E-2	1.615611E-2	1.841944E-2	3.620270E-2	8.541865E-3	2.964860E-2	1.780705E-2	2.430496E-2	2.421968E-2	9.775586E-3	2.088087E-2	2.767247E-2	1.468799E-2	1.845815E-2	3.249422E-2	1.402262E-2	2.119495E-2	1.268990E-2	2.239087E-2	1.008245E-2	2.485065E-2	2.309071E-2	2.024227E-2	2.325764E-2	2.240958E-2	1.964905E-2	1.204342E-2	2.581365E-2	3.375065E-2	2.494615E-2	2.798536E-2	3.248084E-2	2.612714E-2	3.729676E-2	1.098646E-2	3.352321E-2	3.432564E-2	3.405041E-2	2.125363E-2	3.081625E-2	1.931578E-2	2.075278E-2	4.188720E-2	1.687023E-2	2.527278E-2	3.028090E-2	2.234402E-2	2.948788E-2	3.978830E-2	2.304957E-2	1.418971E-2	1.751815E-2	9.522425E-3
5.331580E+2	2.041511E-2	3.032906E-2	1.864485E-2	2.716583E-2	2.351747E-2	1.906796E-2	2.428131E-2	3.059387E-2	3.326230E-2	3.460629E-2	2.426778E-2	3.022263E-2	3.583162E-2	3.244847E-2	2.375233E-2	1.588083E-2	3.382360E-2	2.122466E-2	2.203604E-2	2.006031E-2	1.650940E-2	3.753920E-2	2.933259E-2	2.903994E-2	2.393033E-2	2.806549E-2	2.043017E-2	2.156794E-2	2.820423E-2	3.128466E-2	1.988079E-2	1.217461E-2	6.350425E-3	2.584102E-2	2.361369E-2	2.011173E-2	3.298194E-2	3.703533E-2	2.785429E-2	2.934267E-2	3.606042E-2	2.208200E-2	3.288007E-2	2.141621E-2	3.196769E-2	3.572402E-2	1.991267E-2	2.683381E-2	3.010669E-2	3.365764E-2	3.187294E-2	2.932024E-2	2.359276E-2	3.391004E-2	3.141961E-2	3.397596E-2	2.892373E-2	3.347089E-2	2.717615E-2	3.892685E-2	3.449532E-2	3.052669E-2	2.477047E-2	3.393746E-2	2.004820E-2	3.265770E-2	3.804649E-2	2.906444E-2	1.860324E-2	2.962649E-2	3.402885E-2	2.743325E-2	1.368350E-2	2.539150E-2	3.010255E-2	3.002451E-2	1.257233E-2	2.356792E-2	2.647561E-2	2.901993E-2	2.597003E-2	3.036523E-2	7.878604E-3	2.025135E-2	2.370533E-2	3.076317E-2	1.394931E-2	2.248279E-2	1.492653E-2	2.097430E-2	3.959922E-2	2.050613E-2	2.299112E-2	3.416954E-2	2.943938E-2	1.688120E-2	1.882645E-2	4.718298E-2	3.023374E-2	2.261980E-2	2.895751E-2	2.412057E-2	3.818507E-2	2.932387E-2	2.194848E-2	3.610066E-2	2.047419E-2	2.792745E-2	3.084508E-2	2.966852E-2	2.915040E-2	2.868853E-2	3.839322E-2	3.369183E-2	2.693854E-2	3.224765E-2	2.379933E-2	2.702704E-2	2.896097E-2	3.133304E-2	3.428306E-2	3.459374E-2	1.948308E-2	3.392225E-2	2.529600E-2	3.868255E-2	2.679620E-2	1.477704E-2	3.351469E-2	2.309222E-2	1.829561E-2	1.954922E-2	2.099753E-2	2.167139E-2	3.396755E-2	2.967066E-2	2.605011E-2	3.192764E-2	1.818340E-2	3.010564E-2	4.797579E-2	3.822800E-2	2.139482E-2	3.219100E-2	2.192073E-2	2.581364E-2	2.013691E-2	3.430096E-2	1.776460E-2	2.391997E-2	2.976069E-2	3.152165E-2	1.909121E-2	2.889936E-2	2.148999E-2	3.077281E-2	2.881044E-2	3.132009E-2	3.061056E-2	2.706885E-2	3.920214E-2	2.612475E-2	1.791727E-2	2.604329E-2	2.720145E-2	2.690117E-2	3.875929E-2	2.939987E-2	1.508585E-2	3.503652E-2	9.522199E-4
5.333130E+2	2.422805E-2	3.439875E-2	3.599352E-2	3.061285E-2	3.148683E-2	3.497222E-2	3.004592E-2	3.797327E-2	3.381818E-2	3.558342E-2	3.207811E-2	3.376828E-2	4.521982E-2	4.071367E-2	4.318609E-2	3.377287E-2	3.715958E-2	3.417533E-2	3.624112E-2	2.794428E-2	3.531185E-2	2.195688E-2	3.076344E-2	3.455673E-2	5.926503E-2	3.729252E-2	4.767056E-2	3.221875E-2	2.536800E-2	4.050862E-2	5.458187E-2	2.854047E-2	3.297001E-2	2.729917E-2	3.741043E-2	3.551643E-2	4.131890E-2	3.075542E-2	3.975785E-2	3.272837E-2	3.239328E-2	3.211932E-2	3.998436E-2	3.067229E-2	3.476784E-2	4.239247E-2	3.704684E-2	2.335267E-2	3.010665E-2	4.789404E-2	3.508705E-2	2.721964E-2	3.241251E-2	4.007548E-2	3.141968E-2	4.231784E-2	3.708400E-2	3.188544E-2	1.914875E-2	1.870971E-2	4.471620E-2	3.663197E-2	4.485460E-2	3.849280E-2	3.488563E-2	2.991334E-2	3.475396E-2	3.642490E-2	2.235523E-2	4.429161E-2	4.004878E-2	4.001727E-2	2.962078E-2	2.693559E-2	3.113168E-2	3.109684E-2	4.392144E-2	5.068720E-2	3.279083E-2	2.636837E-2	3.192150E-2	3.952874E-2	2.465235E-2	2.697314E-2	3.247941E-2	3.030629E-2	5.038841E-2	3.153629E-2	3.650707E-2	3.290803E-2	4.557987E-2	4.706471E-2	3.562009E-2	3.512093E-2	3.852350E-2	2.876941E-2	3.208454E-2	4.718293E-2	3.302459E-2	3.641238E-2	3.372363E-2	3.453233E-2	3.930541E-2	3.693219E-2	3.605820E-2	3.772928E-2	1.928160E-2	2.319996E-2	4.189406E-2	4.458291E-2	3.382699E-2	3.130980E-2	3.677095E-2	3.158606E-2	4.692203E-2	1.983748E-2	2.610991E-2	4.666778E-2	3.502895E-2	4.161422E-2	3.639818E-2	4.639311E-2	3.503117E-2	5.208530E-2	2.729305E-2	2.892632E-2	4.277093E-2	2.114252E-2	3.404107E-2	4.656611E-2	2.963369E-2	1.845817E-2	3.536846E-2	3.426925E-2	4.007615E-2	4.884255E-2	3.232309E-2	2.464589E-2	4.182180E-2	2.367527E-2	3.267451E-2	3.715869E-2	3.154253E-2	2.767592E-2	2.555979E-2	3.130947E-2	3.488512E-2	3.222217E-2	3.528591E-2	4.154526E-2	4.533317E-2	3.152178E-2	2.071220E-2	3.872514E-2	2.499061E-2	2.640272E-2	3.920114E-2	4.391531E-2	3.404815E-2	2.571541E-2	5.370156E-2	4.116347E-2	2.923349E-2	3.557783E-2	2.963014E-2	3.310914E-2	4.544790E-2	4.139505E-2	3.569822E-2	5.401452E-2	2.666303E-2
5.334630E+2	4.519920E-2	4.951484E-2	5.035111E-2	4.046143E-2	3.148683E-2	4.215477E-2	4.262328E-2	4.396906E-2	3.548596E-2	4.730882E-2	5.829852E-2	4.693788E-2	6.164919E-2	4.346881E-2	4.457422E-2	3.918207E-2	5.773174E-2	3.957137E-2	3.241666E-2	3.898186E-2	4.585956E-2	2.384567E-2	4.077952E-2	4.696958E-2	5.029111E-2	3.129494E-2	5.069723E-2	3.701167E-2	4.616667E-2	4.696540E-2	5.761808E-2	3.532631E-2	3.818952E-2	5.305916E-2	6.182010E-2	5.348867E-2	5.009458E-2	3.945069E-2	6.594574E-2	4.820582E-2	6.225446E-2	4.717523E-2	4.544918E-2	5.245144E-2	4.596821E-2	4.429779E-2	5.001321E-2	4.293414E-2	5.512602E-2	5.053040E-2	4.687201E-2	4.612461E-2	3.505846E-2	5.769114E-2	4.073591E-2	4.701017E-2	3.545195E-2	4.932555E-2	3.319679E-2	4.690728E-2	5.953641E-2	6.293189E-2	4.435256E-2	4.805911E-2	5.661192E-2	3.869522E-2	4.353393E-2	7.492572E-2	4.064586E-2	4.606916E-2	5.158678E-2	5.461474E-2	3.686498E-2	5.421438E-2	5.583120E-2	4.771758E-2	4.979942E-2	5.601420E-2	5.853768E-2	5.111637E-2	4.815271E-2	4.545803E-2	3.837637E-2	4.662131E-2	4.125347E-2	5.634842E-2	5.949812E-2	5.009593E-2	5.970609E-2	4.592653E-2	7.439579E-2	5.031679E-2	4.144882E-2	6.366157E-2	7.385066E-2	3.447568E-2	4.481229E-2	4.986888E-2	4.976943E-2	5.406681E-2	5.192135E-2	5.275299E-2	4.042572E-2	5.167338E-2	3.135495E-2	5.727250E-2	6.639217E-2	3.948367E-2	4.741857E-2	6.382735E-2	5.908034E-2	3.611549E-2	4.542290E-2	5.527565E-2	5.691376E-2	4.973472E-2	4.505691E-2	4.968943E-2	3.558060E-2	3.573923E-2	4.908907E-2	6.301961E-2	4.769999E-2	5.422212E-2	4.227095E-2	5.562758E-2	4.225556E-2	3.796561E-2	4.456923E-2	4.656614E-2	3.994111E-2	5.010067E-2	5.165546E-2	4.776700E-2	4.785070E-2	5.651124E-2	3.545957E-2	4.985193E-2	4.667073E-2	4.939665E-2	4.223783E-2	6.228756E-2	3.610904E-2	4.272627E-2	4.323502E-2	5.529122E-2	3.375060E-2	4.313605E-2	4.988704E-2	4.406317E-2	5.882931E-2	4.836549E-2	3.530079E-2	5.490879E-2	3.665942E-2	4.989204E-2	5.006408E-2	5.651054E-2	6.695048E-2	4.421242E-2	5.209052E-2	5.562366E-2	5.582646E-2	5.146867E-2	4.517378E-2	5.483702E-2	5.007838E-2	5.832946E-2	4.914115E-2	4.379557E-2	2.666313E-2
5.336030E+2	5.473155E-2	5.707287E-2	6.052106E-2	6.163604E-2	5.633253E-2	4.882426E-2	4.733980E-2	5.503820E-2	5.994626E-2	5.708006E-2	6.610882E-2	5.554885E-2	7.150684E-2	6.826417E-2	5.567918E-2	6.123491E-2	5.550775E-2	6.115582E-2	5.372426E-2	5.580098E-2	6.420339E-2	6.492635E-2	6.462709E-2	4.053330E-2	7.440840E-2	5.666923E-2	7.591958E-2	6.789909E-2	7.925532E-2	6.172378E-2	6.412465E-2	5.568385E-2	6.063356E-2	4.722673E-2	7.561684E-2	7.094740E-2	6.369684E-2	5.732426E-2	6.594562E-2	5.255884E-2	5.334846E-2	5.369945E-2	7.495939E-2	5.299596E-2	5.996862E-2	7.192434E-2	6.066418E-2	6.338595E-2	6.313220E-2	6.213040E-2	6.669223E-2	5.925305E-2	5.313888E-2	5.064483E-2	6.704080E-2	6.004455E-2	5.612475E-2	5.989530E-2	6.530646E-2	5.701586E-2	6.822412E-2	6.387116E-2	5.489673E-2	5.944746E-2	4.124450E-2	5.516128E-2	6.713008E-2	5.963869E-2	5.612259E-2	5.940103E-2	5.961324E-2	5.763491E-2	4.459214E-2	4.752336E-2	6.457895E-2	6.326605E-2	5.861625E-2	7.586939E-2	7.456891E-2	4.139399E-2	7.845114E-2	5.947275E-2	5.870823E-2	5.282598E-2	4.818035E-2	6.685661E-2	5.494324E-2	6.277080E-2	6.887783E-2	4.918118E-2	7.113362E-2	5.898901E-2	5.990654E-2	7.365074E-2	6.476654E-2	4.351075E-2	6.973747E-2	6.759613E-2	7.321217E-2	7.282471E-2	4.802182E-2	5.587644E-2	6.451312E-2	6.403700E-2	5.905184E-2	7.084415E-2	7.175919E-2	5.944445E-2	6.583361E-2	6.430851E-2	8.012465E-2	5.359074E-2	5.353418E-2	6.527786E-2	7.454623E-2	6.101673E-2	5.291303E-2	6.177606E-2	5.102646E-2	5.434326E-2	6.389516E-2	5.122026E-2	6.958246E-2	7.024839E-2	7.022966E-2	6.743775E-2	5.307718E-2	4.614985E-2	6.351991E-2	7.462037E-2	6.622486E-2	4.573619E-2	6.267319E-2	5.361601E-2	7.006394E-2	6.363222E-2	5.009646E-2	4.425060E-2	9.031087E-2	6.576473E-2	6.232081E-2	5.854506E-2	5.995631E-2	6.530188E-2	4.947331E-2	6.928054E-2	7.799521E-2	5.145147E-2	5.572740E-2	5.010612E-2	4.844772E-2	6.472797E-2	5.853446E-2	7.513835E-2	5.532938E-2	6.300236E-2	6.942848E-2	8.573126E-2	6.547726E-2	5.052851E-2	6.283079E-2	5.446679E-2	6.487944E-2	5.729528E-2	5.683160E-2	6.001028E-2	7.117303E-2	6.185739E-2	7.154586E-2	5.839411E-2	5.808743E-2
5.337580E+2	6.426381E-2	8.439794E-2	1.006026E-1	8.084095E-2	6.617715E-2	8.114578E-2	8.559576E-2	9.424150E-2	7.829136E-2	7.417957E-2	9.065548E-2	7.530335E-2	8.605844E-2	9.260078E-2	9.871086E-2	6.539592E-2	8.441995E-2	8.435904E-2	6.082681E-2	7.209450E-2	8.484011E-2	7.625872E-2	1.013523E-1	7.179538E-2	1.097431E-1	8.573430E-2	9.155775E-2	1.014494E-1	8.634567E-2	8.570621E-2	9.839198E-2	8.242803E-2	8.151162E-2	7.493085E-2	9.418937E-2	7.146088E-2	7.159493E-2	7.181636E-2	9.022897E-2	9.270342E-2	9.683049E-2	9.786346E-2	8.698212E-2	7.586403E-2	9.123617E-2	9.050092E-2	1.074358E-1	8.166197E-2	7.914444E-2	7.794873E-2	9.401191E-2	8.340941E-2	7.474725E-2	7.750864E-2	8.512526E-2	8.402718E-2	8.550186E-2	6.676567E-2	6.982193E-2	1.001100E-1	8.917676E-2	7.702118E-2	9.355882E-2	8.313514E-2	8.204754E-2	9.577749E-2	8.523868E-2	8.794809E-2	7.628920E-2	8.606475E-2	9.472908E-2	9.740022E-2	7.115413E-2	7.325803E-2	8.464744E-2	8.363978E-2	9.241456E-2	8.168038E-2	9.885844E-2	6.260652E-2	8.386156E-2	9.666567E-2	8.056493E-2	8.178118E-2	7.819689E-2	9.426938E-2	9.536766E-2	8.404647E-2	9.261641E-2	7.304861E-2	1.086485E-1	8.500555E-2	8.467866E-2	9.172668E-2	1.111968E-1	8.393061E-2	7.928331E-2	1.127197E-1	8.995697E-2	8.054859E-2	7.488509E-2	8.242626E-2	1.210904E-1	8.591106E-2	7.786486E-2	9.418752E-2	1.015759E-1	7.993043E-2	8.655021E-2	9.076944E-2	1.123928E-1	7.936659E-2	8.057164E-2	1.073925E-1	7.689726E-2	7.568329E-2	8.110252E-2	9.451056E-2	8.743432E-2	6.854106E-2	9.297841E-2	8.500937E-2	1.001027E-1	8.413780E-2	7.372451E-2	1.095435E-1	8.760305E-2	6.888384E-2	8.562907E-2	7.977315E-2	7.859375E-2	7.846969E-2	7.369082E-2	8.106143E-2	1.072709E-1	9.704592E-2	8.930234E-2	7.673845E-2	8.364363E-2	7.804081E-2	9.005428E-2	1.045254E-1	1.132317E-1	8.637212E-2	8.430379E-2	7.477637E-2	9.614681E-2	8.575244E-2	8.541616E-2	7.881005E-2	1.034704E-1	9.167786E-2	6.826014E-2	8.669791E-2	1.037549E-1	7.447388E-2	8.737595E-2	1.084027E-1	9.837932E-2	7.128117E-2	9.182958E-2	9.322020E-2	9.090665E-2	8.377990E-2	7.286100E-2	8.329010E-2	1.128480E-1	8.090855E-2	7.871550E-2	8.905116E-2	9.522526E-2
5.339090E+2	9.905696E-2	1.262578E-1	1.149599E-1	1.113716E-1	1.027424E-1	1.098762E-1	1.133709E-1	1.329833E-1	1.066431E-1	1.088674E-1	1.079498E-1	1.097470E-1	1.268970E-1	1.141820E-1	1.125922E-1	1.028442E-1	1.233404E-1	1.226712E-1	1.302127E-1	9.049034E-2	1.091457E-1	1.074234E-1	1.223384E-1	1.044363E-1	1.635861E-1	1.009588E-1	1.626852E-1	1.216858E-1	1.147077E-1	1.096885E-1	1.422020E-1	1.063783E-1	1.217020E-1	8.999795E-2	1.398248E-1	1.207560E-1	1.260045E-1	1.032159E-1	1.216544E-1	1.168868E-1	1.230247E-1	1.385144E-1	1.399907E-1	1.265007E-1	1.225039E-1	1.367039E-1	1.250329E-1	1.251761E-1	1.136713E-1	1.290942E-1	1.240099E-1	1.033645E-1	1.175226E-1	1.290342E-1	1.267746E-1	1.116601E-1	1.197751E-1	1.116870E-1	9.540931E-2	1.096867E-1	1.300601E-1	1.253942E-1	1.377441E-1	1.191225E-1	1.117223E-1	1.259654E-1	1.258459E-1	1.247504E-1	1.044286E-1	1.069513E-1	1.398780E-1	1.200518E-1	1.097901E-1	1.005368E-1	1.263280E-1	1.276039E-1	1.335605E-1	1.489945E-1	1.450085E-1	1.045899E-1	1.201113E-1	1.397879E-1	1.064878E-1	1.360720E-1	9.943920E-2	1.203116E-1	1.318068E-1	1.338403E-1	1.276848E-1	1.272925E-1	1.613870E-1	1.018078E-1	1.021650E-1	1.435756E-1	1.500566E-1	1.119865E-1	1.296640E-1	1.567692E-1	1.357262E-1	1.015131E-1	1.169134E-1	1.407323E-1	1.395763E-1	1.106380E-1	1.102650E-1	1.159022E-1	1.385488E-1	1.151244E-1	1.307464E-1	1.148250E-1	1.381138E-1	1.086378E-1	1.259945E-1	1.216065E-1	1.391986E-1	1.309649E-1	1.120649E-1	1.151588E-1	1.376333E-1	1.228845E-1	1.262921E-1	1.182622E-1	1.490508E-1	1.108481E-1	1.221529E-1	1.398393E-1	1.535632E-1	1.098048E-1	1.461661E-1	1.290111E-1	1.167311E-1	1.188413E-1	1.259053E-1	1.152557E-1	1.344817E-1	1.463448E-1	1.149169E-1	1.209888E-1	1.387998E-1	1.388368E-1	1.397831E-1	1.168224E-1	1.431677E-1	1.154697E-1	1.134160E-1	9.975745E-2	1.194035E-1	1.065410E-1	9.563688E-2	1.211107E-1	1.294246E-1	1.306588E-1	1.158078E-1	1.207992E-1	1.288425E-1	1.061571E-1	1.246878E-1	1.270435E-1	1.636928E-1	1.091776E-1	1.326430E-1	1.325516E-1	1.525801E-1	1.203287E-1	1.141487E-1	1.117433E-1	1.298267E-1	1.338282E-1	1.172517E-1	1.562044E-1	9.236850E-2
5.340740E+2	1.776988E-1	2.140475E-1	2.023022E-1	1.724329E-1	1.829049E-1	1.545103E-1	1.867386E-1	1.961696E-1	2.055963E-1	1.953422E-1	1.687588E-1	1.674910E-1	2.048191E-1	2.064766E-1	2.065220E-1	1.798214E-1	1.878365E-1	1.955185E-1	2.023311E-1	1.777396E-1	1.618841E-1	1.659755E-1	2.158212E-1	1.632826E-1	2.914637E-1	1.876929E-1	2.560085E-1	2.036975E-1	2.220095E-1	2.222212E-1	2.640894E-1	1.858125E-1	1.932097E-1	1.867191E-1	2.268502E-1	1.967527E-1	2.005977E-1	1.718118E-1	2.302147E-1	2.010454E-1	1.900811E-1	1.992400E-1	2.132197E-1	1.961939E-1	2.060400E-1	2.353023E-1	2.264490E-1	1.926236E-1	2.172517E-1	2.224216E-1	2.081117E-1	2.026158E-1	1.642676E-1	1.898081E-1	2.193895E-1	2.044636E-1	1.790730E-1	1.793335E-1	1.616360E-1	1.831068E-1	2.200038E-1	1.902050E-1	2.075363E-1	2.011191E-1	1.737215E-1	1.934764E-1	2.087065E-1	2.153411E-1	1.658663E-1	1.944978E-1	1.995750E-1	2.262610E-1	1.585681E-1	1.823728E-1	2.117470E-1	2.294732E-1	2.178112E-1	2.206669E-1	2.266216E-1	1.775077E-1	1.920697E-1	2.157913E-1	1.644338E-1	1.872609E-1	2.005717E-1	1.929553E-1	2.229049E-1	1.786554E-1	1.870310E-1	1.864185E-1	2.516408E-1	2.053322E-1	2.061110E-1	2.073165E-1	2.151596E-1	1.861691E-1	1.858783E-1	2.325130E-1	2.211251E-1	2.173706E-1	1.788723E-1	2.042439E-1	2.292035E-1	1.971832E-1	1.855171E-1	1.973324E-1	2.160727E-1	1.597734E-1	2.007235E-1	1.816991E-1	2.073269E-1	1.553840E-1	2.173811E-1	2.189964E-1	1.926841E-1	2.003490E-1	1.864663E-1	2.048013E-1	2.115530E-1	1.909360E-1	2.251754E-1	1.971039E-1	2.181536E-1	1.893770E-1	2.085252E-1	2.240509E-1	2.210688E-1	1.798254E-1	1.919633E-1	2.068759E-1	1.821828E-1	1.783075E-1	1.752456E-1	1.948919E-1	2.205576E-1	2.093380E-1	1.985562E-1	1.994080E-1	2.272925E-1	2.154164E-1	2.134208E-1	2.216156E-1	2.228273E-1	1.801860E-1	1.794383E-1	1.682053E-1	2.277463E-1	1.548740E-1	1.725360E-1	2.036979E-1	2.052108E-1	2.110273E-1	1.655176E-1	2.173233E-1	2.192755E-1	1.913743E-1	2.030900E-1	2.393930E-1	2.113275E-1	2.016625E-1	2.158802E-1	2.135293E-1	2.131214E-1	1.976643E-1	1.656375E-1	1.748580E-1	2.126617E-1	2.220281E-1	1.835694E-1	1.956202E-1	2.237791E-1
5.342090E+2	2.725460E-1	3.361386E-1	3.315192E-1	2.837227E-1	3.136960E-1	2.971355E-1	3.072719E-1	3.045551E-1	3.056613E-1	3.184595E-1	3.132496E-1	3.260328E-1	3.278047E-1	3.263215E-1	3.157210E-1	3.121386E-1	3.196096E-1	2.937277E-1	3.192496E-1	3.249074E-1	3.145964E-1	2.575800E-1	3.069193E-1	3.177537E-1	4.165374E-1	3.251756E-1	4.063347E-1	3.735785E-1	3.543646E-1	3.665761E-1	4.067978E-1	3.826016E-1	3.336150E-1	3.033685E-1	3.626956E-1	3.728805E-1	3.348656E-1	2.838840E-1	3.659148E-1	3.504995E-1	3.514363E-1	3.407657E-1	3.624099E-1	3.628044E-1	3.609787E-1	3.529532E-1	3.862131E-1	3.540617E-1	3.193305E-1	3.400039E-1	3.468526E-1	3.407269E-1	3.106748E-1	3.192831E-1	3.520093E-1	3.723447E-1	3.341191E-1	3.304813E-1	2.805420E-1	3.357993E-1	3.559407E-1	3.367323E-1	3.451126E-1	3.314027E-1	3.342834E-1	3.471597E-1	3.541247E-1	3.200864E-1	2.784245E-1	3.207069E-1	3.606059E-1	3.455578E-1	2.836510E-1	2.904582E-1	3.547983E-1	3.318779E-1	3.711282E-1	3.339866E-1	3.777020E-1	2.875481E-1	3.278712E-1	3.246749E-1	3.103148E-1	2.958428E-1	3.072460E-1	3.195111E-1	3.629677E-1	3.244167E-1	3.364761E-1	3.258251E-1	3.799533E-1	3.489654E-1	3.343433E-1	3.647658E-1	3.524310E-1	3.064773E-1	3.285351E-1	3.872227E-1	3.684799E-1	3.045397E-1	3.010572E-1	3.255412E-1	3.586037E-1	3.407908E-1	3.093693E-1	3.558491E-1	3.800656E-1	2.979227E-1	3.466623E-1	3.553805E-1	3.579110E-1	2.676623E-1	3.385089E-1	3.495525E-1	3.590174E-1	3.312201E-1	3.237167E-1	2.994795E-1	3.312580E-1	3.050078E-1	3.658328E-1	3.392329E-1	3.517519E-1	3.090396E-1	3.423278E-1	3.375307E-1	3.292842E-1	2.984963E-1	3.161957E-1	3.385587E-1	3.197864E-1	3.092422E-1	3.208708E-1	3.123224E-1	3.671646E-1	3.490183E-1	3.224470E-1	3.254380E-1	3.915491E-1	3.469455E-1	3.233980E-1	3.360321E-1	3.583003E-1	3.196523E-1	3.057640E-1	3.225874E-1	3.718240E-1	2.925977E-1	3.029726E-1	3.195206E-1	3.770266E-1	3.448146E-1	3.038388E-1	3.294527E-1	3.441316E-1	3.142835E-1	3.428920E-1	3.421698E-1	3.812410E-1	2.914414E-1	3.211352E-1	3.182215E-1	3.692846E-1	3.099597E-1	3.176743E-1	3.041904E-1	3.757591E-1	3.476243E-1	2.848396E-1	3.386860E-1	3.180520E-1
5.343600E+2	4.941731E-1	6.192740E-1	5.851699E-1	5.136891E-1	4.908979E-1	4.956817E-1	5.499099E-1	5.683694E-1	5.352543E-1	5.935181E-1	5.570430E-1	5.949977E-1	6.075732E-1	5.981542E-1	5.831662E-1	5.905046E-1	6.148483E-1	5.700077E-1	5.951557E-1	6.197676E-1	5.714101E-1	5.229517E-1	5.969066E-1	5.715274E-1	7.311839E-1	5.226338E-1	7.009333E-1	6.627488E-1	6.592536E-1	6.354554E-1	6.956837E-1	6.424597E-1	5.940693E-1	5.347232E-1	6.566731E-1	6.768673E-1	5.700540E-1	5.234865E-1	6.220794E-1	5.952368E-1	6.296168E-1	6.187984E-1	6.542320E-1	6.203427E-1	6.363212E-1	6.735169E-1	6.515618E-1	6.460428E-1	5.740273E-1	6.637502E-1	6.162999E-1	6.526585E-1	5.457206E-1	5.865996E-1	6.309502E-1	6.262525E-1	5.876323E-1	5.714713E-1	5.394262E-1	6.012817E-1	6.487678E-1	6.020798E-1	5.514778E-1	6.393452E-1	5.600250E-1	6.298270E-1	5.681357E-1	6.258290E-1	5.293344E-1	5.300179E-1	6.264825E-1	6.017691E-1	4.961480E-1	5.658198E-1	6.388425E-1	6.004902E-1	6.777618E-1	6.158331E-1	6.181688E-1	5.655210E-1	5.864896E-1	5.931105E-1	5.792037E-1	5.641949E-1	5.695440E-1	5.497779E-1	6.356909E-1	6.055268E-1	5.862705E-1	6.154880E-1	6.490827E-1	5.836567E-1	5.806079E-1	6.587353E-1	6.077961E-1	5.451920E-1	5.374828E-1	6.816016E-1	6.559334E-1	6.002525E-1	5.150975E-1	5.972881E-1	6.655774E-1	5.932927E-1	5.246733E-1	6.354262E-1	6.466280E-1	5.069850E-1	6.021701E-1	6.002658E-1	6.623541E-1	5.166848E-1	5.769793E-1	6.085587E-1	6.334962E-1	5.371163E-1	5.219669E-1	6.107099E-1	5.745301E-1	5.977755E-1	5.884519E-1	5.864843E-1	6.535001E-1	5.830888E-1	6.049401E-1	6.502437E-1	5.910633E-1	5.235623E-1	5.704510E-1	6.208184E-1	5.527332E-1	5.738392E-1	5.282913E-1	5.723785E-1	6.659310E-1	6.070170E-1	5.780697E-1	5.808597E-1	6.685427E-1	6.123429E-1	6.265539E-1	6.274205E-1	6.480181E-1	5.519299E-1	5.526978E-1	5.174389E-1	6.565780E-1	5.540128E-1	5.297758E-1	5.778567E-1	6.391635E-1	5.849574E-1	5.875060E-1	5.531337E-1	6.323502E-1	5.502693E-1	6.154107E-1	6.394170E-1	6.257980E-1	5.562645E-1	6.283081E-1	6.490713E-1	6.742560E-1	5.361390E-1	5.299424E-1	5.964818E-1	6.463886E-1	6.009340E-1	5.124717E-1	5.883214E-1	5.551626E-1
5.345050E+2	7.891990E-1	9.692695E-1	9.423132E-1	8.406633E-1	8.424877E-1	8.614790E-1	8.737772E-1	8.916809E-1	9.210595E-1	9.115702E-1	8.476987E-1	9.070165E-1	9.103428E-1	9.315172E-1	9.089126E-1	9.670675E-1	9.584585E-1	8.765062E-1	9.601168E-1	9.850577E-1	9.148977E-1	8.397922E-1	9.803769E-1	9.452917E-1	1.059292E+0	7.985215E-1	1.091883E+0	1.007836E+0	1.034573E+0	9.762811E-1	1.063947E+0	1.013286E+0	9.745732E-1	8.438434E-1	9.941628E-1	1.028096E+0	9.684696E-1	8.268541E-1	9.753764E-1	9.695977E-1	9.701394E-1	9.154002E-1	1.009993E+0	9.949442E-1	9.905328E-1	1.005988E+0	1.053520E+0	1.039412E+0	8.952761E-1	9.906595E-1	9.944902E-1	1.058590E+0	8.574979E-1	9.380306E-1	9.811328E-1	9.734843E-1	8.585547E-1	8.949063E-1	8.279124E-1	9.369930E-1	1.009564E+0	9.834281E-1	9.456290E-1	1.042949E+0	8.943967E-1	9.542085E-1	8.990310E-1	1.079914E+0	8.280810E-1	9.255310E-1	9.635942E-1	9.611694E-1	7.728770E-1	8.859582E-1	9.820630E-1	9.934899E-1	9.706800E-1	9.814589E-1	1.027205E+0	9.526505E-1	9.165250E-1	9.515647E-1	8.491089E-1	9.514704E-1	8.701708E-1	8.896963E-1	9.943879E-1	9.821517E-1	9.639297E-1	9.306449E-1	1.028039E+0	9.603556E-1	9.235323E-1	9.879043E-1	1.057461E+0	9.950412E-1	8.901477E-1	1.021104E+0	1.041622E+0	1.025063E+0	8.513227E-1	9.210935E-1	1.028008E+0	9.447032E-1	8.863009E-1	9.388885E-1	1.022917E+0	8.552470E-1	9.594212E-1	9.538824E-1	1.044427E+0	8.775485E-1	8.949402E-1	9.512671E-1	1.007306E+0	9.037805E-1	8.500742E-1	9.093502E-1	9.678474E-1	9.610434E-1	9.755244E-1	9.549482E-1	1.045081E+0	8.886554E-1	9.154817E-1	1.014818E+0	9.770315E-1	8.281968E-1	8.957715E-1	9.271250E-1	8.686546E-1	8.798986E-1	8.382245E-1	8.562811E-1	1.020230E+0	9.493706E-1	8.958991E-1	9.191803E-1	1.028573E+0	9.344442E-1	9.521842E-1	9.546311E-1	1.014859E+0	8.880541E-1	8.724113E-1	8.501858E-1	9.787694E-1	8.840296E-1	8.354250E-1	8.835295E-1	1.007193E+0	9.670688E-1	8.198423E-1	9.825779E-1	9.596592E-1	8.862211E-1	8.945415E-1	9.951058E-1	1.036340E+0	7.989817E-1	9.805908E-1	1.008842E+0	1.061835E+0	8.804404E-1	8.422732E-1	8.779100E-1	1.030723E+0	9.403263E-1	8.117994E-1	9.051082E-1	9.551090E-1
5.346620E+2	1.232452E+0	1.450078E+0	1.409532E+0	1.200138E+0	1.272365E+0	1.213937E+0	1.338617E+0	1.335829E+0	1.330214E+0	1.394267E+0	1.341424E+0	1.347694E+0	1.391956E+0	1.407685E+0	1.386888E+0	1.388569E+0	1.442740E+0	1.269882E+0	1.428885E+0	1.371897E+0	1.380830E+0	1.212822E+0	1.466393E+0	1.389853E+0	1.538833E+0	1.309697E+0	1.526214E+0	1.415232E+0	1.471343E+0	1.428256E+0	1.555835E+0	1.451173E+0	1.306535E+0	1.185529E+0	1.427169E+0	1.398325E+0	1.321691E+0	1.189638E+0	1.432473E+0	1.450849E+0	1.379814E+0	1.328435E+0	1.440623E+0	1.418004E+0	1.419880E+0	1.461827E+0	1.465665E+0	1.498923E+0	1.296084E+0	1.443589E+0	1.440176E+0	1.497081E+0	1.245124E+0	1.369614E+0	1.358169E+0	1.430204E+0	1.297035E+0	1.271718E+0	1.157036E+0	1.425395E+0	1.373937E+0	1.401879E+0	1.334759E+0	1.444278E+0	1.268511E+0	1.366410E+0	1.342969E+0	1.475680E+0	1.220157E+0	1.271717E+0	1.335323E+0	1.408154E+0	1.104663E+0	1.314183E+0	1.354616E+0	1.405254E+0	1.445817E+0	1.394541E+0	1.515910E+0	1.415348E+0	1.366132E+0	1.338587E+0	1.204916E+0	1.373906E+0	1.293171E+0	1.261595E+0	1.495997E+0	1.389104E+0	1.353459E+0	1.376530E+0	1.551617E+0	1.403180E+0	1.356803E+0	1.477853E+0	1.446059E+0	1.412080E+0	1.332439E+0	1.512628E+0	1.412242E+0	1.384222E+0	1.155053E+0	1.390143E+0	1.471662E+0	1.360787E+0	1.250540E+0	1.334097E+0	1.421270E+0	1.186175E+0	1.385266E+0	1.387843E+0	1.438659E+0	1.396999E+0	1.348090E+0	1.422425E+0	1.419906E+0	1.426138E+0	1.259515E+0	1.265400E+0	1.360613E+0	1.328717E+0	1.365241E+0	1.325019E+0	1.412476E+0	1.340594E+0	1.314393E+0	1.444090E+0	1.363515E+0	1.408368E+0	1.288473E+0	1.357098E+0	1.268067E+0	1.423276E+0	1.208036E+0	1.344898E+0	1.540019E+0	1.382105E+0	1.273320E+0	1.289990E+0	1.477704E+0	1.389245E+0	1.414568E+0	1.353484E+0	1.382207E+0	1.380704E+0	1.263867E+0	1.235893E+0	1.377540E+0	1.412577E+0	1.246202E+0	1.353874E+0	1.428688E+0	1.438692E+0	1.294783E+0	1.397574E+0	1.445080E+0	1.268606E+0	1.374402E+0	1.414275E+0	1.467015E+0	1.260054E+0	1.330187E+0	1.370348E+0	1.461297E+0	1.323795E+0	1.168691E+0	1.306776E+0	1.438213E+0	1.386970E+0	1.118297E+0	1.309489E+0	1.372195E+0
5.348070E+2	1.610889E+0	1.829721E+0	1.854619E+0	1.529575E+0	1.621612E+0	1.634633E+0	1.762577E+0	1.720483E+0	1.670990E+0	1.720628E+0	1.654949E+0	1.683012E+0	1.762792E+0	1.724517E+0	1.769550E+0	1.794677E+0	1.768558E+0	1.706426E+0	1.796576E+0	1.794477E+0	1.718815E+0	1.584910E+0	1.766870E+0	1.734654E+0	1.795150E+0	1.660788E+0	1.893957E+0	1.794934E+0	1.798451E+0	1.752939E+0	1.966611E+0	1.748552E+0	1.642151E+0	1.448960E+0	1.804985E+0	1.796277E+0	1.657802E+0	1.450496E+0	1.781008E+0	1.704776E+0	1.689952E+0	1.686767E+0	1.801298E+0	1.757216E+0	1.790892E+0	1.828116E+0	1.833818E+0	1.834853E+0	1.607327E+0	1.788425E+0	1.804437E+0	1.817938E+0	1.583362E+0	1.746147E+0	1.741777E+0	1.740939E+0	1.616377E+0	1.651702E+0	1.448531E+0	1.751530E+0	1.743421E+0	1.704327E+0	1.691754E+0	1.832394E+0	1.651103E+0	1.787392E+0	1.660145E+0	1.821056E+0	1.516562E+0	1.584127E+0	1.780791E+0	1.778125E+0	1.406018E+0	1.606014E+0	1.704009E+0	1.771982E+0	1.827882E+0	1.781478E+0	1.816615E+0	1.738399E+0	1.733501E+0	1.640984E+0	1.534292E+0	1.700686E+0	1.605809E+0	1.589178E+0	1.851275E+0	1.748529E+0	1.679865E+0	1.687347E+0	1.903935E+0	1.773917E+0	1.670100E+0	1.803218E+0	1.778637E+0	1.725451E+0	1.655405E+0	1.869861E+0	1.816910E+0	1.784206E+0	1.487810E+0	1.681674E+0	1.834655E+0	1.696979E+0	1.540053E+0	1.717903E+0	1.770126E+0	1.571208E+0	1.717656E+0	1.750123E+0	1.794078E+0	1.687523E+0	1.663884E+0	1.769343E+0	1.746109E+0	1.697468E+0	1.597326E+0	1.625486E+0	1.692697E+0	1.626871E+0	1.659777E+0	1.666668E+0	1.751080E+0	1.640819E+0	1.717298E+0	1.817911E+0	1.745361E+0	1.701635E+0	1.638530E+0	1.701191E+0	1.600990E+0	1.699332E+0	1.488268E+0	1.564912E+0	1.870436E+0	1.728845E+0	1.569720E+0	1.622151E+0	1.877131E+0	1.793185E+0	1.723463E+0	1.734161E+0	1.753617E+0	1.780539E+0	1.626727E+0	1.521673E+0	1.791055E+0	1.745713E+0	1.562560E+0	1.636886E+0	1.756750E+0	1.726479E+0	1.505506E+0	1.705061E+0	1.770054E+0	1.735115E+0	1.731935E+0	1.738226E+0	1.898185E+0	1.717968E+0	1.681934E+0	1.781017E+0	1.826810E+0	1.713652E+0	1.520368E+0	1.580444E+0	1.801966E+0	1.758116E+0	1.348619E+0	1.611678E+0	1.669297E+0
5.349530E+2	1.851577E+0	2.130881E+0	2.105277E+0	1.779729E+0	1.827877E+0	1.853184E+0	1.964339E+0	1.979223E+0	1.907809E+0	2.006434E+0	1.975730E+0	1.984396E+0	2.079174E+0	2.090939E+0	2.073548E+0	2.027687E+0	2.129402E+0	1.939538E+0	2.083955E+0	2.074095E+0	2.036163E+0	1.824784E+0	2.094541E+0	2.034865E+0	1.958361E+0	1.873930E+0	2.153244E+0	2.005819E+0	2.056072E+0	1.997374E+0	2.093270E+0	2.057510E+0	1.985073E+0	1.691980E+0	2.052800E+0	2.019136E+0	1.850865E+0	1.645175E+0	1.996701E+0	1.961121E+0	1.959225E+0	1.890020E+0	1.982189E+0	2.044154E+0	2.111505E+0	2.094856E+0	2.047765E+0	2.076797E+0	1.842010E+0	2.053116E+0	2.011212E+0	2.081038E+0	1.687875E+0	1.858445E+0	1.973592E+0	2.046985E+0	1.839968E+0	1.861514E+0	1.660760E+0	1.978176E+0	2.025004E+0	1.955587E+0	1.939797E+0	2.043764E+0	1.864657E+0	1.949310E+0	1.932324E+0	2.138121E+0	1.704157E+0	1.824102E+0	1.970917E+0	2.011686E+0	1.603062E+0	1.858728E+0	1.947405E+0	2.054001E+0	2.098268E+0	2.013930E+0	2.049795E+0	1.974389E+0	1.913666E+0	1.893784E+0	1.752860E+0	1.930258E+0	1.806688E+0	1.787464E+0	2.144495E+0	1.997952E+0	1.960410E+0	2.001967E+0	2.180676E+0	1.987468E+0	1.900823E+0	2.110979E+0	2.022398E+0	2.017899E+0	1.885564E+0	2.175518E+0	2.023432E+0	1.987782E+0	1.667192E+0	1.969038E+0	2.023435E+0	1.889567E+0	1.785665E+0	1.956768E+0	2.095131E+0	1.731944E+0	2.007233E+0	2.006551E+0	2.119563E+0	1.881065E+0	1.989417E+0	2.038354E+0	2.006480E+0	2.055672E+0	1.792804E+0	1.868726E+0	1.961344E+0	1.964191E+0	1.947435E+0	1.897827E+0	2.053979E+0	1.933034E+0	1.951954E+0	2.028436E+0	1.959218E+0	1.998539E+0	1.859623E+0	1.947957E+0	1.785495E+0	2.026671E+0	1.752216E+0	1.850616E+0	2.190861E+0	2.023542E+0	1.860366E+0	1.873088E+0	2.174733E+0	1.977913E+0	1.961586E+0	1.949094E+0	2.088999E+0	1.993755E+0	1.788921E+0	1.684049E+0	1.980509E+0	1.954118E+0	1.750913E+0	1.861477E+0	1.991894E+0	2.004644E+0	1.787016E+0	1.935676E+0	1.997595E+0	1.971649E+0	1.978004E+0	2.088875E+0	2.030777E+0	1.943091E+0	1.867742E+0	1.986350E+0	2.043513E+0	1.960489E+0	1.724377E+0	1.814279E+0	2.027320E+0	2.000134E+0	1.544884E+0	1.865693E+0	1.780711E+0
5.351140E+2	1.876839E+0	2.216926E+0	2.287739E+0	1.860491E+0	1.908040E+0	1.892692E+0	2.084348E+0	2.050713E+0	2.039562E+0	2.068968E+0	2.003068E+0	2.073036E+0	2.123300E+0	2.112062E+0	2.076787E+0	2.172492E+0	2.235043E+0	2.047458E+0	2.172464E+0	2.239135E+0	2.175116E+0	1.885695E+0	2.223795E+0	2.094629E+0	2.068854E+0	1.888233E+0	2.113897E+0	2.078245E+0	2.118464E+0	2.029197E+0	2.178288E+0	2.042739E+0	1.960544E+0	1.811545E+0	2.110110E+0	2.080751E+0	1.946522E+0	1.728746E+0	2.091456E+0	2.027869E+0	1.977561E+0	2.004948E+0	2.111162E+0	2.143250E+0	2.054567E+0	2.192024E+0	2.133432E+0	2.113346E+0	1.860024E+0	2.134845E+0	2.111386E+0	2.277436E+0	1.838250E+0	1.938596E+0	2.070042E+0	2.111638E+0	1.903618E+0	1.900093E+0	1.747552E+0	2.104796E+0	2.100129E+0	2.008186E+0	2.015111E+0	2.190902E+0	1.898043E+0	1.989374E+0	1.980059E+0	2.208332E+0	1.792796E+0	1.902320E+0	2.134456E+0	2.134502E+0	1.623346E+0	1.937989E+0	2.069874E+0	2.094747E+0	2.170762E+0	2.068649E+0	2.125579E+0	2.052169E+0	2.047845E+0	2.011833E+0	1.837237E+0	2.063658E+0	1.866718E+0	1.913106E+0	2.194596E+0	2.022846E+0	1.973360E+0	2.066514E+0	2.195900E+0	2.093163E+0	1.976107E+0	2.126202E+0	2.214679E+0	2.085901E+0	1.932760E+0	2.122876E+0	2.136179E+0	2.056745E+0	1.761211E+0	1.957064E+0	2.128185E+0	2.062182E+0	1.872939E+0	2.047969E+0	2.250775E+0	1.803382E+0	2.034858E+0	2.064768E+0	2.151366E+0	1.999020E+0	1.978062E+0	2.128376E+0	2.075835E+0	2.037057E+0	1.841790E+0	1.953836E+0	2.036922E+0	1.970067E+0	2.013533E+0	1.919280E+0	2.060893E+0	1.962948E+0	2.030835E+0	2.090056E+0	2.025691E+0	2.083110E+0	1.965957E+0	2.097387E+0	1.900424E+0	2.073040E+0	1.756047E+0	1.887507E+0	2.244724E+0	2.141308E+0	1.929367E+0	1.940306E+0	2.209890E+0	2.057413E+0	2.022315E+0	2.098265E+0	2.145825E+0	2.004287E+0	1.914733E+0	1.785473E+0	2.102470E+0	2.039871E+0	1.801043E+0	1.956654E+0	2.116994E+0	2.033998E+0	1.845905E+0	2.038560E+0	2.121872E+0	2.054135E+0	1.992173E+0	2.122629E+0	2.185954E+0	2.047309E+0	1.947217E+0	2.059235E+0	2.135172E+0	2.008160E+0	1.799185E+0	1.936884E+0	2.146168E+0	2.098915E+0	1.611203E+0	1.941606E+0	1.966400E+0
5.352600E+2	1.889231E+0	2.108790E+0	2.129204E+0	1.765451E+0	2.008357E+0	1.800857E+0	1.959621E+0	1.911423E+0	2.064580E+0	1.960507E+0	1.916043E+0	1.956537E+0	2.027070E+0	2.040889E+0	1.991186E+0	2.000229E+0	2.048782E+0	1.866151E+0	2.092153E+0	2.033098E+0	2.004062E+0	1.802117E+0	2.056862E+0	1.995788E+0	1.988089E+0	1.841175E+0	2.023096E+0	1.901975E+0	1.966732E+0	1.941571E+0	2.062471E+0	1.932970E+0	1.852498E+0	1.679831E+0	1.964714E+0	2.016053E+0	1.832874E+0	1.544213E+0	1.940038E+0	1.892441E+0	1.909981E+0	1.860913E+0	1.949399E+0	1.977726E+0	2.025168E+0	2.006259E+0	2.002378E+0	2.066784E+0	1.796971E+0	2.027278E+0	1.987641E+0	2.008041E+0	1.694050E+0	1.855363E+0	1.968658E+0	1.962523E+0	1.733884E+0	1.789108E+0	1.600553E+0	1.961682E+0	1.984634E+0	1.894063E+0	1.874021E+0	1.993198E+0	1.785700E+0	1.877406E+0	1.820376E+0	2.071879E+0	1.633808E+0	1.804994E+0	1.993993E+0	2.023263E+0	1.585675E+0	1.770204E+0	1.946375E+0	2.035231E+0	2.070349E+0	1.987778E+0	2.072627E+0	1.900144E+0	1.959652E+0	1.833413E+0	1.717787E+0	1.923535E+0	1.779898E+0	1.813506E+0	2.019808E+0	1.922809E+0	1.899445E+0	1.875030E+0	2.095316E+0	1.940317E+0	1.847872E+0	2.016322E+0	2.016846E+0	1.971298E+0	1.740787E+0	2.055729E+0	2.012268E+0	2.040746E+0	1.655491E+0	1.887826E+0	2.027357E+0	1.946154E+0	1.751699E+0	1.917681E+0	2.103482E+0	1.697273E+0	1.942325E+0	2.005108E+0	2.065785E+0	1.872764E+0	1.908306E+0	2.010453E+0	2.016468E+0	1.916340E+0	1.748900E+0	1.793187E+0	1.908387E+0	1.802139E+0	1.894027E+0	1.838831E+0	1.992938E+0	1.865722E+0	1.899030E+0	1.951415E+0	1.873162E+0	1.943522E+0	1.849095E+0	1.920473E+0	1.778797E+0	1.965022E+0	1.647308E+0	1.840265E+0	2.198079E+0	1.989580E+0	1.816456E+0	1.833880E+0	2.164431E+0	1.935823E+0	1.895602E+0	1.911670E+0	2.022534E+0	1.978702E+0	1.757213E+0	1.651574E+0	1.911308E+0	1.858488E+0	1.686668E+0	1.823204E+0	2.025632E+0	1.931009E+0	1.755134E+0	1.869788E+0	1.980093E+0	1.830161E+0	1.888267E+0	2.067715E+0	2.045016E+0	1.870908E+0	1.892444E+0	1.940660E+0	2.083687E+0	1.914933E+0	1.659288E+0	1.824625E+0	1.999020E+0	1.883004E+0	1.515309E+0	1.829197E+0	1.766425E+0
5.354010E+2	1.665698E+0	1.865189E+0	1.841454E+0	1.549764E+0	1.828814E+0	1.622318E+0	1.714887E+0	1.744926E+0	1.757712E+0	1.676654E+0	1.654392E+0	1.725055E+0	1.813018E+0	1.776403E+0	1.732068E+0	1.741002E+0	1.795245E+0	1.674047E+0	1.826080E+0	1.766621E+0	1.840802E+0	1.645349E+0	1.828403E+0	1.726384E+0	1.758692E+0	1.595274E+0	1.773397E+0	1.718248E+0	1.805070E+0	1.694367E+0	1.750598E+0	1.708238E+0	1.732971E+0	1.479581E+0	1.750332E+0	1.769578E+0	1.764425E+0	1.397843E+0	1.744347E+0	1.707194E+0	1.696236E+0	1.650632E+0	1.731896E+0	1.771916E+0	1.770361E+0	1.700941E+0	1.782417E+0	1.808311E+0	1.678385E+0	1.740972E+0	1.794259E+0	1.843149E+0	1.632750E+0	1.657187E+0	1.733562E+0	1.757105E+0	1.612022E+0	1.532794E+0	1.393345E+0	1.717480E+0	1.785838E+0	1.706675E+0	1.641042E+0	1.743564E+0	1.650043E+0	1.703417E+0	1.659596E+0	1.780289E+0	1.536259E+0	1.537466E+0	1.724604E+0	1.756481E+0	1.359175E+0	1.578223E+0	1.714817E+0	1.825597E+0	1.826413E+0	1.691404E+0	1.827300E+0	1.665040E+0	1.647473E+0	1.650145E+0	1.508368E+0	1.736366E+0	1.573943E+0	1.509684E+0	1.753913E+0	1.662069E+0	1.669073E+0	1.655343E+0	1.889798E+0	1.726760E+0	1.685155E+0	1.794178E+0	1.839199E+0	1.756833E+0	1.594415E+0	1.826882E+0	1.784539E+0	1.679935E+0	1.413720E+0	1.663974E+0	1.810569E+0	1.689844E+0	1.522806E+0	1.723872E+0	1.762373E+0	1.505547E+0	1.724104E+0	1.718367E+0	1.843648E+0	1.608014E+0	1.681728E+0	1.719335E+0	1.732588E+0	1.672083E+0	1.591319E+0	1.593251E+0	1.715868E+0	1.656736E+0	1.660833E+0	1.639852E+0	1.748201E+0	1.667528E+0	1.701822E+0	1.774263E+0	1.694344E+0	1.708910E+0	1.632218E+0	1.686307E+0	1.560794E+0	1.683510E+0	1.504557E+0	1.564464E+0	1.903203E+0	1.714050E+0	1.598468E+0	1.608146E+0	1.859555E+0	1.703163E+0	1.691904E+0	1.649148E+0	1.772896E+0	1.728363E+0	1.574740E+0	1.416755E+0	1.764391E+0	1.723365E+0	1.498313E+0	1.587031E+0	1.739101E+0	1.771712E+0	1.513612E+0	1.688300E+0	1.748472E+0	1.632960E+0	1.683288E+0	1.778026E+0	1.757737E+0	1.695861E+0	1.673878E+0	1.730695E+0	1.837559E+0	1.682400E+0	1.462565E+0	1.589236E+0	1.750516E+0	1.722127E+0	1.697237E+0	1.553283E+0	1.669295E+0
5.355580E+2	1.363522E+0	1.539610E+0	1.566867E+0	1.318814E+0	1.533010E+0	1.320137E+0	1.452859E+0	1.462206E+0	1.503102E+0	1.410880E+0	1.460807E+0	1.499649E+0	1.513064E+0	1.504111E+0	1.451670E+0	1.478864E+0	1.578960E+0	1.349745E+0	1.530503E+0	1.538512E+0	1.506025E+0	1.343621E+0	1.512178E+0	1.494213E+0	1.485552E+0	1.383976E+0	1.549419E+0	1.466887E+0	1.497343E+0	1.478064E+0	1.516365E+0	1.438002E+0	1.501225E+0	1.276902E+0	1.466967E+0	1.450699E+0	1.486673E+0	1.199784E+0	1.448185E+0	1.446013E+0	1.480398E+0	1.400705E+0	1.431880E+0	1.480621E+0	1.481017E+0	1.487070E+0	1.455478E+0	1.546356E+0	1.449204E+0	1.445169E+0	1.449284E+0	1.511784E+0	1.412700E+0	1.393393E+0	1.459004E+0	1.490683E+0	1.413456E+0	1.384815E+0	1.199681E+0	1.429651E+0	1.531849E+0	1.410332E+0	1.459281E+0	1.457489E+0	1.435432E+0	1.402635E+0	1.376441E+0	1.536827E+0	1.385244E+0	1.322822E+0	1.433644E+0	1.466041E+0	1.310398E+0	1.390360E+0	1.453412E+0	1.509806E+0	1.590315E+0	1.472026E+0	1.586347E+0	1.437005E+0	1.528985E+0	1.322418E+0	1.291837E+0	1.467496E+0	1.478350E+0	1.317336E+0	1.582539E+0	1.452932E+0	1.506139E+0	1.402023E+0	1.591306E+0	1.432990E+0	1.435491E+0	1.505919E+0	1.523781E+0	1.451548E+0	1.374863E+0	1.601265E+0	1.529458E+0	1.461459E+0	1.308869E+0	1.441681E+0	1.536087E+0	1.452085E+0	1.329450E+0	1.429640E+0	1.545308E+0	1.257614E+0	1.471358E+0	1.471077E+0	1.528917E+0	1.359430E+0	1.411357E+0	1.467700E+0	1.487499E+0	1.453212E+0	1.269682E+0	1.352023E+0	1.399780E+0	1.415373E+0	1.356251E+0	1.385092E+0	1.468335E+0	1.431411E+0	1.408254E+0	1.442038E+0	1.403713E+0	1.477478E+0	1.383224E+0	1.413205E+0	1.342278E+0	1.496929E+0	1.289471E+0	1.302156E+0	1.623870E+0	1.503713E+0	1.350687E+0	1.438425E+0	1.617111E+0	1.510836E+0	1.406440E+0	1.434219E+0	1.517174E+0	1.462476E+0	1.367837E+0	1.237392E+0	1.463760E+0	1.473382E+0	1.296333E+0	1.388620E+0	1.530946E+0	1.495962E+0	1.326660E+0	1.449012E+0	1.460251E+0	1.403532E+0	1.445720E+0	1.563903E+0	1.541169E+0	1.409834E+0	1.404294E+0	1.469254E+0	1.475441E+0	1.433443E+0	1.230379E+0	1.351266E+0	1.546771E+0	1.479403E+0	1.451681E+0	1.309488E+0	1.317916E+0
5.357040E+2	1.204808E+0	1.359962E+0	1.368852E+0	1.100667E+0	1.382531E+0	1.162634E+0	1.224896E+0	1.145810E+0	1.255166E+0	1.201775E+0	1.244909E+0	1.251452E+0	1.352997E+0	1.272683E+0	1.236045E+0	1.293701E+0	1.365453E+0	1.193797E+0	1.289564E+0	1.306198E+0	1.343225E+0	1.154744E+0	1.287536E+0	1.258368E+0	1.275226E+0	1.177291E+0	1.283070E+0	1.233633E+0	1.275177E+0	1.228556E+0	1.330712E+0	1.269950E+0	1.246511E+0	1.073739E+0	1.254711E+0	1.286381E+0	1.258067E+0	1.059693E+0	1.253919E+0	1.227878E+0	1.336330E+0	1.180887E+0	1.285420E+0	1.296041E+0	1.254207E+0	1.299404E+0	1.273946E+0	1.343576E+0	1.241042E+0	1.295425E+0	1.273043E+0	1.318009E+0	1.223075E+0	1.218119E+0	1.200889E+0	1.315504E+0	1.276361E+0	1.138011E+0	1.057196E+0	1.241313E+0	1.285015E+0	1.269441E+0	1.162539E+0	1.298508E+0	1.307197E+0	1.217666E+0	1.205232E+0	1.325075E+0	1.238916E+0	1.153952E+0	1.285655E+0	1.244563E+0	1.107077E+0	1.172129E+0	1.227515E+0	1.307674E+0	1.344910E+0	1.288973E+0	1.292930E+0	1.197037E+0	1.312566E+0	1.187659E+0	1.128671E+0	1.241023E+0	1.302873E+0	1.183013E+0	1.416284E+0	1.239723E+0	1.301126E+0	1.195356E+0	1.380354E+0	1.239492E+0	1.235857E+0	1.305182E+0	1.334022E+0	1.256105E+0	1.208871E+0	1.325153E+0	1.307864E+0	1.240780E+0	1.214844E+0	1.201170E+0	1.311454E+0	1.233821E+0	1.214484E+0	1.235837E+0	1.377736E+0	1.101605E+0	1.285366E+0	1.301242E+0	1.378800E+0	1.206956E+0	1.279953E+0	1.260811E+0	1.315874E+0	1.225318E+0	1.217461E+0	1.180291E+0	1.247528E+0	1.185761E+0	1.289625E+0	1.226871E+0	1.251814E+0	1.199031E+0	1.249487E+0	1.264883E+0	1.185219E+0	1.208309E+0	1.238989E+0	1.259195E+0	1.147984E+0	1.284705E+0	1.208036E+0	1.192825E+0	1.385080E+0	1.322948E+0	1.258685E+0	1.184124E+0	1.411637E+0	1.286943E+0	1.248168E+0	1.247088E+0	1.306097E+0	1.271837E+0	1.186408E+0	1.056029E+0	1.308336E+0	1.250947E+0	1.180499E+0	1.182152E+0	1.299955E+0	1.310679E+0	1.141872E+0	1.231690E+0	1.276467E+0	1.224905E+0	1.245935E+0	1.269683E+0	1.307906E+0	1.276747E+0	1.194323E+0	1.346632E+0	1.310224E+0	1.207793E+0	1.135660E+0	1.210555E+0	1.281802E+0	1.260668E+0	1.207020E+0	1.185402E+0	1.132227E+0
5.358600E+2	1.008920E+0	1.118105E+0	1.128363E+0	9.480135E-1	1.116259E+0	9.810174E-1	1.028898E+0	1.078935E+0	1.096730E+0	1.050321E+0	1.009484E+0	1.084300E+0	1.139415E+0	1.075238E+0	1.055129E+0	1.080246E+0	1.113584E+0	1.009790E+0	1.067748E+0	1.107522E+0	1.103380E+0	9.913656E-1	1.145403E+0	1.072638E+0	1.103600E+0	1.001055E+0	1.128203E+0	1.042451E+0	1.063882E+0	1.069443E+0	1.126844E+0	1.043623E+0	1.071135E+0	9.288999E-1	1.021226E+0	1.136956E+0	1.104056E+0	8.891698E-1	1.054893E+0	1.042632E+0	1.113682E+0	1.033840E+0	1.060269E+0	1.095129E+0	1.144538E+0	1.075053E+0	1.108163E+0	1.147762E+0	1.036886E+0	1.069751E+0	1.116625E+0	1.131059E+0	1.103127E+0	1.030512E+0	1.068816E+0	1.142930E+0	1.065282E+0	9.884493E-1	8.615271E-1	1.091813E+0	1.096952E+0	1.066554E+0	9.953374E-1	1.068461E+0	1.114309E+0	1.034344E+0	1.019755E+0	1.155217E+0	1.045692E+0	9.784145E-1	1.069945E+0	1.070902E+0	9.462545E-1	9.513243E-1	1.029919E+0	1.059436E+0	1.171020E+0	1.106885E+0	1.085985E+0	1.043686E+0	1.152961E+0	9.871398E-1	9.497510E-1	1.085905E+0	1.155559E+0	9.696501E-1	1.116800E+0	1.098036E+0	1.068055E+0	1.027200E+0	1.153633E+0	1.104531E+0	1.043993E+0	1.137267E+0	1.118527E+0	1.044496E+0	1.040229E+0	1.159698E+0	1.145999E+0	1.105060E+0	1.043264E+0	1.025212E+0	1.110914E+0	1.049794E+0	1.041508E+0	1.075691E+0	1.147551E+0	9.046239E-1	1.070373E+0	1.091480E+0	1.139361E+0	9.802154E-1	1.077714E+0	1.072873E+0	1.098407E+0	1.060600E+0	1.076052E+0	1.037267E+0	1.055558E+0	1.027137E+0	1.070707E+0	1.049879E+0	1.128005E+0	1.037700E+0	1.091223E+0	1.068220E+0	1.072364E+0	1.106461E+0	1.078435E+0	1.116633E+0	9.882198E-1	1.120491E+0	1.089716E+0	9.872096E-1	1.194047E+0	1.098911E+0	1.039654E+0	1.018885E+0	1.203740E+0	1.129693E+0	1.102327E+0	1.075463E+0	1.114307E+0	1.067153E+0	1.020052E+0	9.271266E-1	1.110936E+0	1.056054E+0	1.093866E+0	1.002374E+0	1.139040E+0	1.083048E+0	1.028946E+0	1.040376E+0	1.081014E+0	1.056655E+0	1.091964E+0	1.119043E+0	1.162056E+0	1.035383E+0	1.074569E+0	1.112377E+0	1.199893E+0	1.090729E+0	1.038512E+0	9.974132E-1	1.110986E+0	1.087091E+0	1.107543E+0	1.068612E+0	1.043667E+0
5.360170E+2	8.564022E-1	9.593865E-1	9.147950E-1	7.835410E-1	9.128057E-1	8.501926E-1	8.313283E-1	8.727707E-1	9.066062E-1	8.676002E-1	8.582989E-1	8.700406E-1	9.723046E-1	9.452926E-1	8.945686E-1	9.329486E-1	9.145342E-1	8.662538E-1	8.765253E-1	9.051668E-1	9.488337E-1	8.213768E-1	9.217115E-1	8.924220E-1	9.482398E-1	8.543449E-1	9.173423E-1	9.034579E-1	9.258540E-1	8.803515E-1	9.242772E-1	8.943351E-1	8.874072E-1	7.748257E-1	9.166887E-1	9.192352E-1	8.802746E-1	7.370034E-1	9.168114E-1	8.399741E-1	8.805555E-1	8.667193E-1	9.034284E-1	9.018385E-1	9.205305E-1	9.393034E-1	9.659964E-1	9.993788E-1	9.232978E-1	9.194777E-1	9.419935E-1	9.351835E-1	9.214413E-1	8.442277E-1	8.950943E-1	9.322961E-1	9.363496E-1	8.600261E-1	7.807511E-1	9.173074E-1	8.950900E-1	8.857428E-1	8.662971E-1	9.181329E-1	9.357296E-1	8.707804E-1	8.562285E-1	9.717711E-1	8.580966E-1	8.495394E-1	8.883461E-1	9.470749E-1	7.950922E-1	8.046371E-1	8.606238E-1	9.103863E-1	1.000560E+0	8.536112E-1	9.174155E-1	8.722195E-1	9.408721E-1	8.658589E-1	8.084450E-1	9.209641E-1	9.149646E-1	8.330431E-1	9.647811E-1	9.119872E-1	9.326379E-1	8.574161E-1	1.041632E+0	8.877264E-1	9.099319E-1	9.284444E-1	9.434046E-1	9.165787E-1	8.588580E-1	9.394511E-1	9.244093E-1	9.268601E-1	8.621549E-1	8.544583E-1	9.747927E-1	8.866898E-1	8.371782E-1	9.139172E-1	9.441997E-1	8.042946E-1	9.037155E-1	9.187612E-1	9.742790E-1	8.832276E-1	9.382002E-1	9.038879E-1	8.885800E-1	8.817808E-1	9.078391E-1	8.353200E-1	9.093739E-1	8.430547E-1	9.385100E-1	8.744971E-1	9.068767E-1	8.432480E-1	9.174792E-1	9.588476E-1	9.100412E-1	9.145852E-1	9.089317E-1	8.761692E-1	8.758695E-1	9.131782E-1	8.822952E-1	8.076897E-1	1.020230E+0	9.225299E-1	9.392868E-1	8.435621E-1	1.010390E+0	9.163222E-1	9.344917E-1	8.856596E-1	9.488985E-1	9.417339E-1	8.562958E-1	7.532595E-1	9.038941E-1	8.902663E-1	9.532069E-1	8.513004E-1	9.983687E-1	9.006565E-1	9.025113E-1	8.987700E-1	9.042328E-1	8.922297E-1	8.902906E-1	9.396867E-1	9.587491E-1	9.207917E-1	9.585733E-1	9.012573E-1	9.860165E-1	9.381770E-1	9.165916E-1	8.815312E-1	9.489174E-1	9.036352E-1	9.713222E-1	8.627748E-1	9.065418E-1
5.362680E+2	6.681381E-1	6.913671E-1	7.520759E-1	6.121749E-1	7.665445E-1	6.501068E-1	7.018865E-1	6.684531E-1	7.237091E-1	6.941615E-1	7.461647E-1	6.588197E-1	7.437024E-1	7.175406E-1	7.020819E-1	7.199095E-1	7.555167E-1	7.076085E-1	7.142598E-1	7.212081E-1	7.520962E-1	6.471374E-1	7.337919E-1	6.919781E-1	7.698842E-1	6.813385E-1	7.448200E-1	7.538133E-1	7.325213E-1	7.304620E-1	7.711586E-1	7.202977E-1	7.177719E-1	6.241536E-1	7.474134E-1	7.374595E-1	7.363532E-1	5.862858E-1	7.368294E-1	7.074482E-1	7.611107E-1	6.735016E-1	7.154384E-1	7.401286E-1	7.151902E-1	7.249591E-1	7.390842E-1	7.409034E-1	7.326502E-1	7.233321E-1	6.998661E-1	7.729152E-1	6.850728E-1	6.711542E-1	6.720511E-1	7.461670E-1	7.426779E-1	6.470452E-1	7.526551E-1	7.252449E-1	6.932286E-1	7.162025E-1	7.126531E-1	7.122312E-1	6.766046E-1	6.786765E-1	6.652645E-1	7.600162E-1	6.873847E-1	6.495608E-1	7.217968E-1	6.732460E-1	6.110894E-1	6.723613E-1	6.553096E-1	7.404260E-1	7.708292E-1	7.272157E-1	7.459317E-1	7.215217E-1	7.585407E-1	6.809721E-1	6.295250E-1	6.831183E-1	7.071580E-1	6.470930E-1	7.660742E-1	7.662260E-1	7.265439E-1	6.719017E-1	8.111044E-1	6.996478E-1	7.078689E-1	7.776541E-1	7.132731E-1	6.897522E-1	6.668814E-1	7.680880E-1	7.681233E-1	7.464536E-1	6.918757E-1	7.144202E-1	7.563254E-1	6.969566E-1	7.405003E-1	7.282560E-1	7.438311E-1	6.251737E-1	7.365999E-1	7.263172E-1	7.329696E-1	7.294457E-1	7.127079E-1	7.259532E-1	7.345892E-1	7.023975E-1	6.966497E-1	6.847407E-1	7.196103E-1	6.697439E-1	7.449733E-1	6.701533E-1	6.811408E-1	7.075591E-1	7.162762E-1	7.447247E-1	7.111311E-1	6.845180E-1	7.257413E-1	6.837970E-1	6.408614E-1	6.993181E-1	6.834971E-1	6.506653E-1	7.980983E-1	7.198563E-1	6.826187E-1	6.940067E-1	8.134040E-1	7.321806E-1	7.131018E-1	7.343521E-1	7.388408E-1	7.194903E-1	6.831830E-1	6.153646E-1	7.620839E-1	7.359121E-1	7.692332E-1	6.987159E-1	7.559569E-1	7.485821E-1	6.950289E-1	7.132360E-1	7.280340E-1	7.207037E-1	7.504892E-1	7.482393E-1	7.529876E-1	7.204823E-1	7.426927E-1	7.439296E-1	8.100499E-1	7.310669E-1	6.839219E-1	6.885669E-1	7.595797E-1	7.476983E-1	6.979829E-1	6.759121E-1	7.265672E-1
5.365250E+2	5.699552E-1	6.035769E-1	5.959384E-1	4.999004E-1	5.687166E-1	5.741765E-1	5.352363E-1	5.466928E-1	5.780602E-1	6.003584E-1	5.525801E-1	5.478906E-1	5.948990E-1	5.967773E-1	5.757627E-1	5.734451E-1	5.748158E-1	5.246804E-1	5.656531E-1	5.577467E-1	5.989256E-1	5.309794E-1	5.730590E-1	5.421040E-1	5.965760E-1	5.443171E-1	6.086192E-1	5.626309E-1	5.812589E-1	5.957920E-1	5.989544E-1	5.734039E-1	5.272595E-1	4.900074E-1	5.882198E-1	5.839253E-1	5.625947E-1	4.674504E-1	5.444684E-1	5.492883E-1	5.421288E-1	5.595786E-1	5.531322E-1	5.424822E-1	5.765857E-1	5.944471E-1	5.867292E-1	6.090551E-1	5.845355E-1	5.751677E-1	5.675537E-1	5.933184E-1	5.624778E-1	5.174584E-1	5.558718E-1	5.980980E-1	5.631515E-1	4.995974E-1	6.202023E-1	5.353102E-1	5.746670E-1	5.288160E-1	5.851190E-1	5.951579E-1	5.579050E-1	5.612181E-1	5.341142E-1	5.929901E-1	5.452799E-1	5.091311E-1	5.557495E-1	6.022726E-1	5.033922E-1	5.405995E-1	5.518797E-1	5.307904E-1	5.504059E-1	5.722483E-1	6.079672E-1	5.650789E-1	5.735043E-1	5.602300E-1	4.805940E-1	5.828090E-1	5.926337E-1	5.296752E-1	6.231648E-1	5.702186E-1	5.949028E-1	5.178488E-1	6.566940E-1	5.538463E-1	5.495209E-1	5.954695E-1	6.012353E-1	5.732481E-1	5.406646E-1	5.714780E-1	5.878372E-1	5.930798E-1	5.857222E-1	5.655317E-1	5.832319E-1	5.571531E-1	5.366929E-1	5.621391E-1	6.036915E-1	5.048842E-1	6.118378E-1	5.670691E-1	5.968826E-1	5.245485E-1	6.083428E-1	5.969769E-1	6.082226E-1	5.557317E-1	5.593995E-1	5.462481E-1	5.491551E-1	5.473493E-1	5.794626E-1	5.419681E-1	5.895795E-1	5.681305E-1	5.884645E-1	6.035163E-1	5.735423E-1	5.949468E-1	5.888754E-1	5.469614E-1	5.223264E-1	5.705657E-1	5.876916E-1	5.255871E-1	6.353873E-1	5.987999E-1	5.702280E-1	5.500519E-1	6.394491E-1	5.866215E-1	6.069496E-1	5.568459E-1	6.419292E-1	5.775153E-1	5.662137E-1	5.129427E-1	5.782988E-1	5.628482E-1	5.784462E-1	5.385777E-1	6.277434E-1	5.772578E-1	5.464416E-1	5.664270E-1	5.722561E-1	5.568248E-1	5.733757E-1	6.061656E-1	6.498610E-1	5.968678E-1	5.660144E-1	5.819757E-1	6.063588E-1	5.599752E-1	5.916315E-1	5.292294E-1	5.985395E-1	5.825883E-1	6.298734E-1	5.591238E-1	5.923002E-1
5.367710E+2	4.660521E-1	5.506703E-1	5.253462E-1	4.462253E-1	5.068365E-1	5.223597E-1	4.414305E-1	4.858121E-1	5.513761E-1	5.080203E-1	4.923293E-1	4.891334E-1	5.362229E-1	5.173394E-1	4.901620E-1	4.844010E-1	5.186595E-1	4.998588E-1	5.350571E-1	4.894190E-1	4.787733E-1	4.889539E-1	5.158247E-1	4.754427E-1	5.208587E-1	4.963367E-1	5.107560E-1	5.141694E-1	4.966462E-1	5.003239E-1	5.451681E-1	5.235085E-1	4.928104E-1	4.331406E-1	5.001326E-1	5.140907E-1	5.270532E-1	4.790443E-1	4.911400E-1	4.815744E-1	5.096485E-1	5.028679E-1	5.006700E-1	5.147141E-1	5.037835E-1	5.249045E-1	5.376417E-1	5.289890E-1	5.214866E-1	5.097858E-1	5.048785E-1	5.092958E-1	4.923612E-1	5.099714E-1	4.868216E-1	5.329267E-1	5.174539E-1	5.096384E-1	5.319011E-1	5.204132E-1	5.097643E-1	5.231800E-1	5.062886E-1	5.145282E-1	5.033247E-1	5.074292E-1	4.704592E-1	5.046644E-1	4.768071E-1	4.784679E-1	4.769893E-1	4.960635E-1	4.449554E-1	4.911888E-1	5.158597E-1	5.130976E-1	5.362008E-1	4.986398E-1	5.316980E-1	5.014414E-1	5.448292E-1	4.896172E-1	4.363720E-1	4.985290E-1	5.159760E-1	4.675401E-1	4.990446E-1	5.136342E-1	5.479651E-1	4.874720E-1	5.479553E-1	4.795907E-1	4.742329E-1	5.555131E-1	5.108986E-1	5.076254E-1	4.961173E-1	5.408576E-1	5.398351E-1	4.976357E-1	4.891006E-1	4.707850E-1	5.372979E-1	4.934335E-1	5.178796E-1	5.111096E-1	5.512140E-1	4.481536E-1	5.308124E-1	5.252123E-1	5.398290E-1	4.847922E-1	4.904597E-1	5.238021E-1	5.182974E-1	4.818347E-1	4.706715E-1	4.727213E-1	4.779935E-1	4.655891E-1	5.027889E-1	4.926253E-1	5.383287E-1	4.863967E-1	4.736337E-1	5.187913E-1	5.019139E-1	5.199246E-1	4.825406E-1	4.902805E-1	4.646052E-1	5.029161E-1	5.062561E-1	4.810445E-1	5.515329E-1	5.106101E-1	4.939074E-1	4.934784E-1	5.636851E-1	5.182263E-1	5.103601E-1	4.889440E-1	5.389300E-1	5.032668E-1	4.892749E-1	4.599828E-1	5.017220E-1	4.968443E-1	5.278288E-1	4.700908E-1	5.208127E-1	5.166201E-1	4.880876E-1	5.340601E-1	5.121618E-1	4.858102E-1	4.883610E-1	5.351287E-1	5.231620E-1	4.800206E-1	4.929804E-1	5.177720E-1	5.678835E-1	5.366686E-1	5.216847E-1	4.821524E-1	5.110743E-1	4.950947E-1	5.734132E-1	5.007300E-1	4.923141E-1
5.370170E+2	4.298294E-1	4.995085E-1	4.942386E-1	4.260354E-1	4.852724E-1	5.203079E-1	4.875475E-1	4.747428E-1	4.718800E-1	4.899436E-1	4.499306E-1	4.648210E-1	5.010170E-1	5.113704E-1	4.790568E-1	4.827368E-1	4.741787E-1	4.798929E-1	4.509194E-1	4.789072E-1	4.911556E-1	4.714828E-1	5.000852E-1	4.809594E-1	5.096411E-1	5.281703E-1	4.880557E-1	4.790216E-1	5.094089E-1	5.058586E-1	5.143708E-1	5.115334E-1	5.058592E-1	4.564708E-1	5.033162E-1	4.991991E-1	4.967773E-1	4.785608E-1	4.668571E-1	4.699660E-1	5.012662E-1	4.928310E-1	4.924729E-1	4.771453E-1	5.089169E-1	5.168072E-1	5.038366E-1	5.250730E-1	4.729495E-1	5.060947E-1	4.802373E-1	5.134973E-1	5.166157E-1	4.998426E-1	4.512007E-1	4.828755E-1	4.788287E-1	5.022397E-1	5.278870E-1	4.911515E-1	5.368497E-1	4.776249E-1	4.500526E-1	5.008621E-1	4.683509E-1	4.964521E-1	4.627768E-1	5.352383E-1	4.838422E-1	5.424611E-1	4.825082E-1	4.688820E-1	4.285351E-1	4.978802E-1	4.849857E-1	4.964770E-1	5.327718E-1	4.860484E-1	5.088656E-1	4.815545E-1	5.496985E-1	4.653613E-1	4.104492E-1	5.057674E-1	5.150521E-1	5.123142E-1	5.070155E-1	4.651980E-1	5.031860E-1	5.070002E-1	5.191392E-1	4.692924E-1	4.742332E-1	5.079446E-1	4.639639E-1	4.857512E-1	4.754350E-1	5.440814E-1	4.974152E-1	5.345994E-1	4.847679E-1	5.108705E-1	5.132107E-1	4.910556E-1	4.624861E-1	5.002521E-1	5.392871E-1	4.318697E-1	5.160800E-1	4.867240E-1	5.416993E-1	4.638219E-1	4.964080E-1	4.932688E-1	4.806813E-1	4.784499E-1	4.905426E-1	4.863186E-1	4.421372E-1	4.523713E-1	5.191811E-1	4.953070E-1	4.951396E-1	4.431257E-1	4.771290E-1	5.085216E-1	4.941846E-1	4.885519E-1	5.078085E-1	5.017312E-1	4.378060E-1	4.870951E-1	4.870946E-1	4.270533E-1	5.248775E-1	5.248517E-1	5.137719E-1	4.514681E-1	5.388347E-1	4.644452E-1	4.697161E-1	4.573993E-1	4.993537E-1	4.862096E-1	4.450868E-1	4.175154E-1	5.079620E-1	5.004826E-1	4.854861E-1	4.640479E-1	5.151026E-1	5.094015E-1	4.843052E-1	5.057389E-1	4.678208E-1	4.869024E-1	4.916673E-1	5.205179E-1	5.113771E-1	4.926529E-1	4.859994E-1	4.952141E-1	5.203554E-1	5.117735E-1	4.420237E-1	4.557685E-1	5.208499E-1	5.233183E-1	5.312919E-1	4.437953E-1	4.408924E-1
5.372640E+2	4.836874E-1	5.518334E-1	5.133817E-1	4.486875E-1	5.363702E-1	5.526298E-1	5.174184E-1	4.964200E-1	5.041233E-1	5.177918E-1	4.571829E-1	4.810294E-1	5.277735E-1	5.256045E-1	4.642503E-1	5.206009E-1	5.086507E-1	5.306160E-1	4.902565E-1	5.172760E-1	5.108750E-1	4.936754E-1	4.728991E-1	5.126807E-1	5.646064E-1	5.360127E-1	5.405181E-1	5.083111E-1	5.046817E-1	5.358361E-1	5.291190E-1	4.935705E-1	4.922886E-1	4.491805E-1	4.879279E-1	5.387383E-1	5.178388E-1	5.104437E-1	5.130429E-1	4.873782E-1	4.897406E-1	4.923287E-1	5.411097E-1	5.163474E-1	4.911829E-1	5.082336E-1	5.311588E-1	5.433483E-1	5.099777E-1	5.250771E-1	5.155921E-1	5.266256E-1	5.338142E-1	5.720666E-1	5.049057E-1	5.308415E-1	4.723006E-1	5.096387E-1	5.529724E-1	4.922160E-1	5.061873E-1	5.208319E-1	5.072922E-1	5.368492E-1	5.091536E-1	5.079782E-1	5.022870E-1	5.720410E-1	5.011948E-1	5.731243E-1	4.724746E-1	5.353254E-1	4.623414E-1	5.375112E-1	5.019666E-1	5.334715E-1	5.621619E-1	5.165575E-1	5.312121E-1	5.085122E-1	5.334675E-1	4.971638E-1	4.236648E-1	5.021483E-1	5.270590E-1	5.150556E-1	5.166949E-1	4.900949E-1	5.280029E-1	5.107974E-1	5.582855E-1	5.489681E-1	4.980339E-1	5.093718E-1	5.194780E-1	5.394861E-1	5.046022E-1	5.413954E-1	5.498822E-1	5.285307E-1	5.116311E-1	5.181587E-1	5.132105E-1	5.324263E-1	4.917507E-1	5.377100E-1	5.810306E-1	4.460524E-1	5.501480E-1	5.218445E-1	5.632115E-1	4.965880E-1	5.180376E-1	5.759191E-1	5.365175E-1	5.427572E-1	5.048688E-1	5.961053E-1	5.171595E-1	4.812561E-1	5.218248E-1	5.553768E-1	4.686504E-1	4.917391E-1	5.070847E-1	5.742477E-1	5.415933E-1	4.926442E-1	5.283381E-1	5.217697E-1	4.764585E-1	5.171003E-1	5.153575E-1	5.228873E-1	5.776336E-1	5.232083E-1	5.054076E-1	4.716336E-1	5.467147E-1	5.474551E-1	5.117949E-1	5.664692E-1	5.353783E-1	5.413944E-1	4.799174E-1	4.414969E-1	5.221421E-1	5.441386E-1	5.346430E-1	4.927523E-1	5.021254E-1	5.286513E-1	5.107806E-1	5.294359E-1	4.969926E-1	4.874491E-1	5.209498E-1	5.396630E-1	5.624488E-1	4.922017E-1	5.311082E-1	5.518986E-1	5.209212E-1	4.524474E-1	5.362568E-1	4.821524E-1	5.414304E-1	5.190845E-1	5.151605E-1	5.226280E-1	5.151679E-1
5.375160E+2	5.194332E-1	6.163674E-1	5.977326E-1	4.910361E-1	6.198142E-1	6.075248E-1	5.719202E-1	5.591454E-1	5.641622E-1	5.832590E-1	5.297070E-1	5.387729E-1	5.963075E-1	5.999912E-1	5.475372E-1	5.792702E-1	6.009476E-1	5.548984E-1	5.743946E-1	5.813993E-1	5.892949E-1	5.885866E-1	6.093075E-1	5.696881E-1	6.184498E-1	6.010630E-1	5.934858E-1	5.754119E-1	5.689688E-1	6.160850E-1	6.210762E-1	5.642233E-1	6.024214E-1	4.832029E-1	5.791988E-1	5.572240E-1	5.832177E-1	5.630982E-1	5.658940E-1	5.686350E-1	5.788004E-1	5.681104E-1	5.290872E-1	6.056417E-1	5.994533E-1	5.896845E-1	5.732994E-1	6.116665E-1	5.815331E-1	5.883495E-1	5.857662E-1	6.043463E-1	5.818817E-1	6.354825E-1	5.766968E-1	5.939268E-1	5.963371E-1	5.904970E-1	5.640103E-1	5.821288E-1	6.073734E-1	5.818851E-1	5.821059E-1	6.156569E-1	5.594948E-1	6.150079E-1	5.258828E-1	6.014830E-1	5.874889E-1	6.313405E-1	5.873534E-1	5.776077E-1	5.207781E-1	5.586134E-1	5.704048E-1	5.833336E-1	6.576784E-1	5.848399E-1	5.958225E-1	5.239796E-1	5.994743E-1	5.370517E-1	5.090582E-1	5.957358E-1	5.857062E-1	5.886128E-1	6.151938E-1	5.521115E-1	6.159441E-1	6.236243E-1	6.425587E-1	5.478846E-1	5.810932E-1	6.035558E-1	5.911418E-1	5.770524E-1	5.629380E-1	5.929657E-1	6.017913E-1	5.467370E-1	5.449938E-1	5.957260E-1	6.235647E-1	5.666637E-1	5.366927E-1	5.474821E-1	6.102508E-1	4.970049E-1	5.883594E-1	5.790968E-1	6.062355E-1	5.726056E-1	5.694093E-1	6.059262E-1	6.099864E-1	5.687061E-1	5.737250E-1	6.258182E-1	5.480516E-1	5.370684E-1	5.921537E-1	5.918476E-1	5.867003E-1	5.585147E-1	5.615046E-1	6.163536E-1	5.668434E-1	5.790327E-1	5.920338E-1	5.984896E-1	5.068655E-1	5.580173E-1	5.618236E-1	6.169212E-1	6.315002E-1	5.725071E-1	6.021159E-1	5.702167E-1	6.455101E-1	5.755144E-1	5.887795E-1	6.103113E-1	5.764762E-1	5.850403E-1	5.516583E-1	5.294303E-1	5.839712E-1	6.013070E-1	6.066749E-1	6.307324E-1	6.158047E-1	6.070953E-1	5.631917E-1	6.311619E-1	6.031784E-1	5.568249E-1	5.700696E-1	5.875245E-1	5.992797E-1	5.743106E-1	6.181051E-1	6.299835E-1	6.601107E-1	5.922867E-1	5.765733E-1	6.585618E-1	6.072862E-1	5.832936E-1	6.585509E-1	6.350358E-1	5.694462E-1
5.377630E+2	6.261963E-1	7.204358E-1	7.101999E-1	5.516057E-1	6.934135E-1	7.008979E-1	6.526248E-1	6.795221E-1	6.903549E-1	7.146812E-1	6.379356E-1	6.456496E-1	6.817400E-1	7.202956E-1	6.562739E-1	6.762200E-1	6.832363E-1	6.574247E-1	6.869423E-1	6.959790E-1	7.144916E-1	6.839691E-1	7.037442E-1	6.896789E-1	7.407195E-1	6.970245E-1	7.352360E-1	6.670090E-1	6.814702E-1	6.880318E-1	7.212758E-1	6.727970E-1	6.707965E-1	6.154051E-1	6.980630E-1	7.097306E-1	6.981791E-1	6.365246E-1	7.030235E-1	6.382836E-1	6.914348E-1	6.740035E-1	6.569644E-1	6.410334E-1	7.063232E-1	6.773267E-1	6.774942E-1	7.095734E-1	6.430809E-1	6.974956E-1	7.121866E-1	6.993962E-1	6.564082E-1	7.173953E-1	6.731473E-1	6.919448E-1	6.768513E-1	6.782262E-1	7.255626E-1	6.342680E-1	6.896510E-1	6.800399E-1	6.508941E-1	6.976536E-1	6.797838E-1	7.203904E-1	6.647159E-1	7.215151E-1	6.751907E-1	7.402175E-1	6.776512E-1	7.185488E-1	5.951515E-1	6.811110E-1	6.455321E-1	7.066481E-1	6.944161E-1	7.112353E-1	6.886083E-1	6.574423E-1	6.952386E-1	6.712701E-1	5.847951E-1	6.913912E-1	6.993072E-1	7.261333E-1	7.313434E-1	6.598476E-1	7.168329E-1	6.789531E-1	7.132388E-1	6.855554E-1	6.578386E-1	7.067785E-1	6.961142E-1	7.035429E-1	6.705933E-1	7.127579E-1	6.955628E-1	6.846626E-1	6.784442E-1	6.493469E-1	6.829429E-1	6.513064E-1	6.129898E-1	6.685406E-1	6.859861E-1	5.873530E-1	7.200264E-1	6.748376E-1	7.095870E-1	6.490598E-1	6.624177E-1	7.275328E-1	6.740507E-1	6.696798E-1	6.582937E-1	7.537354E-1	6.594818E-1	6.506505E-1	6.957962E-1	7.253955E-1	7.070540E-1	6.594801E-1	6.533686E-1	7.354819E-1	6.358949E-1	6.349581E-1	7.162660E-1	7.444861E-1	6.279770E-1	6.889526E-1	7.189458E-1	7.442497E-1	7.597806E-1	7.001369E-1	6.768683E-1	6.867247E-1	7.327908E-1	6.205272E-1	7.030600E-1	6.680542E-1	6.982492E-1	7.024330E-1	6.540705E-1	5.928815E-1	6.996879E-1	7.088867E-1	6.952546E-1	7.636777E-1	7.175450E-1	6.951638E-1	6.723359E-1	7.305755E-1	6.755247E-1	6.546056E-1	6.749205E-1	7.557970E-1	7.235222E-1	6.510056E-1	7.051016E-1	7.560765E-1	7.138621E-1	7.045816E-1	6.844077E-1	7.392653E-1	6.901213E-1	7.180637E-1	7.598203E-1	6.759119E-1	6.094407E-1
5.380110E+2	7.267620E-1	8.611315E-1	7.933536E-1	7.003196E-1	8.302990E-1	8.142799E-1	7.611051E-1	7.832952E-1	7.898644E-1	8.246070E-1	7.305439E-1	7.793719E-1	8.033174E-1	7.978966E-1	7.677866E-1	7.777463E-1	8.289099E-1	7.421435E-1	7.710804E-1	7.784983E-1	7.984142E-1	7.571587E-1	8.053352E-1	7.650759E-1	8.130710E-1	8.160529E-1	8.457104E-1	7.985469E-1	8.190249E-1	7.825777E-1	7.984856E-1	7.610127E-1	7.621383E-1	6.474842E-1	8.471743E-1	8.196179E-1	7.653134E-1	7.244431E-1	8.039654E-1	7.456580E-1	7.637300E-1	8.200463E-1	7.837485E-1	8.125441E-1	8.155271E-1	8.387995E-1	8.196612E-1	8.109619E-1	7.651753E-1	8.250960E-1	8.043236E-1	8.270048E-1	7.873816E-1	8.173636E-1	8.013833E-1	8.202017E-1	8.090489E-1	7.855098E-1	8.208882E-1	7.917485E-1	8.250773E-1	8.035558E-1	7.939937E-1	8.119929E-1	7.995436E-1	8.065629E-1	7.519662E-1	8.064439E-1	7.966590E-1	8.530943E-1	7.564115E-1	8.151941E-1	7.269965E-1	8.164754E-1	7.803507E-1	7.988670E-1	8.369572E-1	7.984040E-1	8.178285E-1	7.979751E-1	7.774777E-1	8.065657E-1	6.991610E-1	7.730860E-1	8.355359E-1	8.325859E-1	8.287037E-1	7.838804E-1	8.258144E-1	7.977479E-1	8.067547E-1	7.809497E-1	7.486697E-1	8.304545E-1	8.253104E-1	7.734452E-1	7.846131E-1	8.438321E-1	8.138932E-1	7.674182E-1	7.698663E-1	7.836586E-1	8.453930E-1	8.163127E-1	7.405003E-1	7.798287E-1	8.517676E-1	6.734996E-1	7.734298E-1	7.936725E-1	8.185506E-1	7.718234E-1	8.105834E-1	8.512448E-1	7.716174E-1	7.616279E-1	7.544146E-1	8.756084E-1	8.106307E-1	7.588476E-1	8.073705E-1	7.758113E-1	7.801879E-1	7.657878E-1	7.637062E-1	8.381786E-1	7.770909E-1	8.000067E-1	8.215476E-1	7.891437E-1	6.985831E-1	8.089756E-1	7.903214E-1	8.513323E-1	8.969465E-1	7.938047E-1	7.908270E-1	8.519642E-1	9.164435E-1	8.216208E-1	8.039529E-1	7.958375E-1	8.032785E-1	7.862131E-1	7.648006E-1	7.192851E-1	7.904463E-1	8.060733E-1	8.373715E-1	8.442500E-1	8.198041E-1	8.154754E-1	8.068749E-1	8.542644E-1	8.079651E-1	7.250736E-1	7.981916E-1	8.510165E-1	8.374533E-1	8.152229E-1	8.576142E-1	8.891108E-1	8.264581E-1	7.925113E-1	7.936995E-1	8.313500E-1	7.817035E-1	7.808613E-1	8.037339E-1	8.335770E-1	6.751449E-1
5.382690E+2	8.988209E-1	1.072756E+0	1.065550E+0	8.805502E-1	1.004219E+0	1.041043E+0	1.034663E+0	9.271943E-1	9.649775E-1	1.015634E+0	9.899583E-1	9.419668E-1	9.755915E-1	1.001312E+0	9.649005E-1	9.766392E-1	1.014615E+0	9.299281E-1	9.497361E-1	9.939929E-1	9.717622E-1	9.951427E-1	1.008040E+0	9.609223E-1	1.071631E+0	9.890596E-1	1.018232E+0	9.529841E-1	1.031265E+0	1.009026E+0	1.048768E+0	9.685803E-1	9.808363E-1	8.535637E-1	9.623240E-1	9.818815E-1	1.001819E+0	9.080102E-1	9.068120E-1	9.749177E-1	9.738062E-1	9.585605E-1	9.777500E-1	9.600975E-1	9.770001E-1	9.797905E-1	9.882245E-1	1.021135E+0	9.478171E-1	1.031260E+0	1.026095E+0	1.032859E+0	9.448134E-1	1.074111E+0	1.003053E+0	9.625362E-1	9.787835E-1	9.567398E-1	1.019065E+0	9.428449E-1	1.007520E+0	9.820188E-1	9.486421E-1	1.017895E+0	9.452680E-1	9.898852E-1	9.522590E-1	1.026126E+0	9.448599E-1	1.061960E+0	9.671057E-1	9.969075E-1	8.477336E-1	1.042941E+0	9.609658E-1	1.021370E+0	1.001540E+0	1.023106E+0	9.990288E-1	9.424859E-1	1.011749E+0	9.698915E-1	8.480920E-1	9.576754E-1	1.029951E+0	9.737620E-1	1.034243E+0	9.590656E-1	1.029211E+0	9.908562E-1	1.075341E+0	9.717380E-1	9.303326E-1	1.011212E+0	1.043835E+0	1.001223E+0	9.177247E-1	1.027013E+0	9.673877E-1	9.798236E-1	9.544431E-1	9.809612E-1	1.033610E+0	9.756125E-1	9.411719E-1	9.844901E-1	1.005622E+0	8.673284E-1	9.888854E-1	1.040482E+0	9.925179E-1	9.277900E-1	9.749713E-1	1.019177E+0	1.032578E+0	9.500371E-1	9.383399E-1	1.018130E+0	9.706060E-1	9.243251E-1	9.200022E-1	9.994636E-1	9.938306E-1	8.913267E-1	9.564214E-1	9.896571E-1	9.940373E-1	9.655100E-1	9.857872E-1	1.009570E+0	8.506167E-1	9.470025E-1	9.632515E-1	1.028601E+0	1.048551E+0	9.674469E-1	9.727427E-1	1.013283E+0	1.077669E+0	9.759492E-1	9.670069E-1	9.605114E-1	9.889826E-1	9.382222E-1	9.680657E-1	8.571802E-1	9.855758E-1	9.677037E-1	1.036433E+0	1.037121E+0	9.869489E-1	1.005568E+0	9.581640E-1	1.032285E+0	1.009835E+0	9.348390E-1	1.017811E+0	1.059593E+0	1.025045E+0	9.180844E-1	9.634058E-1	1.084613E+0	1.068624E+0	9.551274E-1	1.014711E+0	1.068805E+0	1.001396E+0	9.763119E-1	1.033159E+0	1.062774E+0	9.122576E-1
5.385060E+2	1.132840E+0	1.301823E+0	1.388594E+0	1.036651E+0	1.288772E+0	1.259084E+0	1.255814E+0	1.149499E+0	1.205689E+0	1.253073E+0	1.272803E+0	1.129887E+0	1.222031E+0	1.227226E+0	1.179135E+0	1.193425E+0	1.265373E+0	1.159801E+0	1.264435E+0	1.172696E+0	1.245545E+0	1.175047E+0	1.322352E+0	1.171020E+0	1.242695E+0	1.216043E+0	1.309299E+0	1.218190E+0	1.242088E+0	1.201809E+0	1.318136E+0	1.235223E+0	1.180745E+0	1.080058E+0	1.298222E+0	1.224250E+0	1.215067E+0	1.134569E+0	1.339625E+0	1.141783E+0	1.210600E+0	1.230069E+0	1.334604E+0	1.236692E+0	1.226675E+0	1.198898E+0	1.235977E+0	1.227395E+0	1.184500E+0	1.265896E+0	1.296615E+0	1.225584E+0	1.195734E+0	1.261278E+0	1.305558E+0	1.237820E+0	1.215432E+0	1.225740E+0	1.267916E+0	1.187047E+0	1.266106E+0	1.214491E+0	1.177100E+0	1.285293E+0	1.193795E+0	1.257184E+0	1.186574E+0	1.228822E+0	1.210307E+0	1.298381E+0	1.216429E+0	1.242043E+0	1.074720E+0	1.228744E+0	1.253243E+0	1.173638E+0	1.258212E+0	1.193086E+0	1.226863E+0	1.128980E+0	1.267661E+0	1.131600E+0	1.044803E+0	1.201210E+0	1.237756E+0	1.221848E+0	1.239783E+0	1.162769E+0	1.217501E+0	1.212714E+0	1.310217E+0	1.153312E+0	1.176111E+0	1.231452E+0	1.253275E+0	1.165755E+0	1.120838E+0	1.269283E+0	1.220793E+0	1.248503E+0	1.187981E+0	1.211583E+0	1.277286E+0	1.123024E+0	1.152818E+0	1.154950E+0	1.251910E+0	1.040147E+0	1.227357E+0	1.213201E+0	1.244117E+0	1.185548E+0	1.184241E+0	1.273970E+0	1.170112E+0	1.162702E+0	1.132432E+0	1.359074E+0	1.181331E+0	1.092252E+0	1.185982E+0	1.240278E+0	1.195380E+0	1.133323E+0	1.155627E+0	1.215592E+0	1.164090E+0	1.203761E+0	1.216354E+0	1.198506E+0	1.081502E+0	1.204507E+0	1.120373E+0	1.238715E+0	1.281234E+0	1.212298E+0	1.234115E+0	1.270385E+0	1.332841E+0	1.186396E+0	1.208001E+0	1.211801E+0	1.248765E+0	1.218659E+0	1.088153E+0	1.068519E+0	1.206231E+0	1.190661E+0	1.223813E+0	1.253157E+0	1.236627E+0	1.213468E+0	1.108913E+0	1.261167E+0	1.246127E+0	1.133133E+0	1.215236E+0	1.248019E+0	1.258307E+0	1.189677E+0	1.220636E+0	1.342583E+0	1.246288E+0	1.141581E+0	1.162377E+0	1.264874E+0	1.197422E+0	1.176702E+0	1.250933E+0	1.191241E+0	1.180792E+0
5.387700E+2	1.388306E+0	1.632633E+0	1.653012E+0	1.294192E+0	1.509100E+0	1.525867E+0	1.547713E+0	1.416082E+0	1.441953E+0	1.536928E+0	1.553976E+0	1.452038E+0	1.458144E+0	1.443500E+0	1.491462E+0	1.500500E+0	1.466649E+0	1.424748E+0	1.433255E+0	1.461775E+0	1.493642E+0	1.417755E+0	1.625696E+0	1.404106E+0	1.558463E+0	1.485012E+0	1.610457E+0	1.481798E+0	1.466145E+0	1.480831E+0	1.554102E+0	1.439597E+0	1.456858E+0	1.286139E+0	1.609710E+0	1.508722E+0	1.483164E+0	1.356780E+0	1.689588E+0	1.472134E+0	1.491402E+0	1.470462E+0	1.603478E+0	1.484975E+0	1.544486E+0	1.491358E+0	1.556430E+0	1.516765E+0	1.443701E+0	1.513188E+0	1.534457E+0	1.551695E+0	1.437837E+0	1.539162E+0	1.622313E+0	1.452101E+0	1.424883E+0	1.444533E+0	1.579480E+0	1.407838E+0	1.444461E+0	1.449781E+0	1.444722E+0	1.478898E+0	1.422715E+0	1.510213E+0	1.494421E+0	1.483605E+0	1.408692E+0	1.574353E+0	1.642335E+0	1.407653E+0	1.251477E+0	1.491752E+0	1.566104E+0	1.451363E+0	1.531046E+0	1.515611E+0	1.531457E+0	1.428606E+0	1.531151E+0	1.457171E+0	1.227280E+0	1.387865E+0	1.483432E+0	1.474500E+0	1.597912E+0	1.413549E+0	1.458125E+0	1.479594E+0	1.625563E+0	1.405890E+0	1.419946E+0	1.451214E+0	1.484921E+0	1.454396E+0	1.404561E+0	1.552383E+0	1.480338E+0	1.511113E+0	1.444481E+0	1.446887E+0	1.607786E+0	1.415472E+0	1.358714E+0	1.423126E+0	1.488058E+0	1.424130E+0	1.471820E+0	1.446056E+0	1.494309E+0	1.368166E+0	1.449749E+0	1.538768E+0	1.465163E+0	1.417111E+0	1.414788E+0	1.597279E+0	1.484729E+0	1.418310E+0	1.455663E+0	1.533120E+0	1.491370E+0	1.408441E+0	1.439707E+0	1.507252E+0	1.469157E+0	1.420188E+0	1.429021E+0	1.500234E+0	1.262395E+0	1.458739E+0	1.483480E+0	1.514971E+0	1.563339E+0	1.491658E+0	1.417598E+0	1.433945E+0	1.646811E+0	1.466407E+0	1.441822E+0	1.409088E+0	1.468971E+0	1.419330E+0	1.389672E+0	1.287851E+0	1.470563E+0	1.416214E+0	1.470085E+0	1.505449E+0	1.494092E+0	1.411742E+0	1.373128E+0	1.553628E+0	1.443913E+0	1.375673E+0	1.472166E+0	1.520577E+0	1.459157E+0	1.442768E+0	1.432221E+0	1.510322E+0	1.537115E+0	1.422317E+0	1.405731E+0	1.569064E+0	1.463421E+0	1.410960E+0	1.543988E+0	1.513867E+0	1.335055E+0
5.390340E+2	1.593729E+0	1.883794E+0	1.858806E+0	1.435029E+0	1.710214E+0	1.790594E+0	1.855335E+0	1.649457E+0	1.669323E+0	1.780718E+0	1.806136E+0	1.613111E+0	1.760913E+0	1.702935E+0	1.731607E+0	1.711876E+0	1.721854E+0	1.640593E+0	1.768715E+0	1.706703E+0	1.731657E+0	1.646291E+0	1.813613E+0	1.661099E+0	1.699242E+0	1.631260E+0	1.791552E+0	1.659670E+0	1.718567E+0	1.633026E+0	1.745824E+0	1.643970E+0	1.649461E+0	1.470834E+0	1.830459E+0	1.712581E+0	1.670964E+0	1.536967E+0	1.911470E+0	1.597399E+0	1.674236E+0	1.645612E+0	1.814417E+0	1.720188E+0	1.694288E+0	1.798109E+0	1.741200E+0	1.708663E+0	1.646857E+0	1.765753E+0	1.849972E+0	1.725515E+0	1.637163E+0	1.708710E+0	1.903990E+0	1.679418E+0	1.640312E+0	1.656457E+0	1.825320E+0	1.623310E+0	1.676475E+0	1.679434E+0	1.637028E+0	1.682068E+0	1.654814E+0	1.728662E+0	1.734773E+0	1.741789E+0	1.640841E+0	1.815660E+0	1.913726E+0	1.612519E+0	1.407468E+0	1.668808E+0	1.836771E+0	1.671184E+0	1.744123E+0	1.727239E+0	1.755894E+0	1.596981E+0	1.728087E+0	1.605406E+0	1.427549E+0	1.618991E+0	1.712478E+0	1.659539E+0	1.765868E+0	1.577417E+0	1.720328E+0	1.691687E+0	1.838689E+0	1.629742E+0	1.588010E+0	1.738524E+0	1.689817E+0	1.612751E+0	1.612978E+0	1.709778E+0	1.789561E+0	1.641315E+0	1.612161E+0	1.620764E+0	1.874427E+0	1.581906E+0	1.583949E+0	1.602274E+0	1.793382E+0	1.699901E+0	1.630187E+0	1.586543E+0	1.687919E+0	1.639467E+0	1.660098E+0	1.749867E+0	1.787248E+0	1.638240E+0	1.555736E+0	1.806783E+0	1.809647E+0	1.576444E+0	1.667178E+0	1.736927E+0	1.775266E+0	1.607166E+0	1.634422E+0	1.729590E+0	1.702591E+0	1.637071E+0	1.645903E+0	1.712642E+0	1.528841E+0	1.662779E+0	1.620959E+0	1.736334E+0	1.835449E+0	1.668588E+0	1.613629E+0	1.673683E+0	1.835917E+0	1.604954E+0	1.623049E+0	1.611188E+0	1.744988E+0	1.601441E+0	1.636086E+0	1.457723E+0	1.729227E+0	1.631894E+0	1.660385E+0	1.707387E+0	1.844475E+0	1.608574E+0	1.615189E+0	1.739737E+0	1.730385E+0	1.585439E+0	1.657309E+0	1.704972E+0	1.722867E+0	1.583980E+0	1.737783E+0	1.796633E+0	1.794557E+0	1.626252E+0	1.576227E+0	1.792548E+0	1.815855E+0	1.622639E+0	1.685586E+0	1.764964E+0	1.575023E+0
5.392670E+2	1.787709E+0	2.058207E+0	2.037077E+0	1.641357E+0	1.931476E+0	1.977852E+0	2.082773E+0	1.839475E+0	1.882242E+0	1.952690E+0	1.953973E+0	1.810153E+0	1.896576E+0	1.899921E+0	1.833406E+0	1.832540E+0	1.893102E+0	1.865612E+0	1.886721E+0	1.907480E+0	1.966456E+0	1.906474E+0	2.027767E+0	1.839479E+0	1.939853E+0	1.824105E+0	1.980218E+0	1.860968E+0	1.888265E+0	1.889454E+0	1.974417E+0	1.807627E+0	1.791951E+0	1.602548E+0	2.018309E+0	1.811682E+0	1.875439E+0	1.751447E+0	2.093834E+0	1.753143E+0	1.802063E+0	1.842845E+0	1.994757E+0	1.881897E+0	1.875830E+0	1.882894E+0	1.881055E+0	1.883156E+0	1.829002E+0	1.843263E+0	2.007461E+0	1.928218E+0	1.790184E+0	1.990562E+0	2.056342E+0	1.865548E+0	1.800251E+0	1.927573E+0	2.006440E+0	1.787709E+0	1.848699E+0	1.854611E+0	1.844396E+0	1.868836E+0	1.848761E+0	1.891127E+0	1.950978E+0	1.937127E+0	1.854706E+0	1.922317E+0	2.152014E+0	1.817892E+0	1.584709E+0	1.876744E+0	1.937625E+0	1.852941E+0	1.959159E+0	1.912717E+0	1.898227E+0	1.717627E+0	1.909336E+0	1.776275E+0	1.624767E+0	1.791690E+0	1.911515E+0	1.843661E+0	2.011836E+0	1.830464E+0	1.905920E+0	1.899443E+0	2.036051E+0	1.808065E+0	1.793960E+0	1.900257E+0	1.828099E+0	1.810094E+0	1.786397E+0	1.950440E+0	2.022872E+0	1.887923E+0	1.741281E+0	1.788393E+0	2.002706E+0	1.831553E+0	1.760059E+0	1.751558E+0	2.039076E+0	1.839100E+0	1.812038E+0	1.804006E+0	1.901170E+0	1.831259E+0	1.770954E+0	1.980973E+0	1.934777E+0	1.806341E+0	1.756758E+0	1.964915E+0	2.078293E+0	1.743389E+0	1.833217E+0	1.851165E+0	1.957237E+0	1.748730E+0	1.761233E+0	1.861042E+0	1.791225E+0	1.806664E+0	1.797507E+0	1.847757E+0	1.649439E+0	1.790439E+0	1.767065E+0	1.877611E+0	2.072019E+0	1.854280E+0	1.773591E+0	1.832201E+0	1.974713E+0	1.808385E+0	1.804752E+0	1.830399E+0	1.874880E+0	1.846257E+0	1.730696E+0	1.613106E+0	1.878410E+0	1.789884E+0	1.820512E+0	1.858456E+0	2.041205E+0	1.728888E+0	1.669223E+0	1.921806E+0	1.908914E+0	1.789739E+0	1.799947E+0	1.895410E+0	1.909969E+0	1.755864E+0	1.827462E+0	1.941816E+0	1.967696E+0	1.830182E+0	1.736034E+0	1.929126E+0	2.043266E+0	1.863250E+0	1.780583E+0	1.837956E+0	1.829274E+0
5.395160E+2	1.893044E+0	2.200650E+0	2.195608E+0	1.774313E+0	2.100243E+0	2.093290E+0	2.201735E+0	1.885138E+0	1.996201E+0	2.129549E+0	2.087867E+0	1.906389E+0	2.064622E+0	2.018389E+0	1.976380E+0	1.989407E+0	2.106053E+0	1.923890E+0	2.093790E+0	2.018910E+0	2.086611E+0	2.013660E+0	2.189930E+0	1.945216E+0	2.071659E+0	1.936673E+0	2.144167E+0	1.982920E+0	2.018726E+0	1.997373E+0	2.073748E+0	1.967695E+0	1.956367E+0	1.787727E+0	2.165826E+0	1.969326E+0	2.049637E+0	1.866420E+0	2.260008E+0	1.956769E+0	2.025233E+0	1.993907E+0	2.141761E+0	2.018564E+0	2.016299E+0	2.011973E+0	2.082030E+0	2.002383E+0	1.926573E+0	2.062079E+0	2.124240E+0	2.049529E+0	1.946735E+0	2.090532E+0	2.209238E+0	1.968779E+0	1.934084E+0	1.976192E+0	2.136881E+0	1.951569E+0	1.960614E+0	2.069707E+0	1.949333E+0	2.026455E+0	1.890625E+0	2.040418E+0	1.997623E+0	1.999406E+0	1.889407E+0	2.025857E+0	2.311037E+0	1.949268E+0	1.690960E+0	2.034241E+0	2.108465E+0	1.924251E+0	2.120801E+0	1.970342E+0	2.084773E+0	1.905889E+0	2.020253E+0	1.923435E+0	1.703047E+0	1.860974E+0	1.921672E+0	1.962907E+0	2.109765E+0	1.936389E+0	2.012205E+0	2.032343E+0	2.171975E+0	1.861722E+0	1.904706E+0	2.035823E+0	2.008772E+0	1.962265E+0	1.846847E+0	2.070230E+0	2.092640E+0	2.016470E+0	1.902024E+0	1.907607E+0	2.171878E+0	1.882434E+0	1.838449E+0	1.929621E+0	2.164305E+0	1.962017E+0	1.960278E+0	1.935830E+0	2.004989E+0	1.864898E+0	1.911549E+0	2.095207E+0	2.064082E+0	1.943415E+0	1.875522E+0	2.113482E+0	2.164897E+0	1.855996E+0	1.934747E+0	2.026551E+0	2.014246E+0	1.820849E+0	1.879560E+0	1.968869E+0	1.976221E+0	1.894874E+0	1.914370E+0	2.043567E+0	1.769517E+0	1.925738E+0	1.866707E+0	2.003140E+0	2.150879E+0	1.933706E+0	1.927799E+0	2.006402E+0	2.116547E+0	1.976155E+0	1.940072E+0	1.976896E+0	1.963676E+0	1.955123E+0	1.761893E+0	1.728516E+0	2.068434E+0	1.912021E+0	1.928072E+0	2.058882E+0	2.177724E+0	1.908391E+0	1.902100E+0	2.019488E+0	2.039606E+0	1.802851E+0	1.940691E+0	2.071745E+0	2.034212E+0	1.871356E+0	2.004143E+0	2.062704E+0	2.162336E+0	1.891625E+0	1.811811E+0	2.106052E+0	2.185784E+0	1.990257E+0	2.052132E+0	1.921168E+0	2.063529E+0
5.397650E+2	1.899717E+0	2.226230E+0	2.236885E+0	1.827990E+0	2.137746E+0	2.104062E+0	2.262527E+0	2.101445E+0	2.125173E+0	2.052847E+0	2.115202E+0	2.089245E+0	2.133157E+0	2.041808E+0	2.029128E+0	2.052654E+0	2.072689E+0	1.970835E+0	2.057181E+0	2.036251E+0	2.097615E+0	1.983912E+0	2.211873E+0	1.963604E+0	2.037445E+0	1.957434E+0	2.198141E+0	2.015937E+0	1.994146E+0	2.066556E+0	2.095005E+0	1.967296E+0	2.019525E+0	1.784811E+0	2.158396E+0	2.021701E+0	2.000053E+0	1.904583E+0	2.299530E+0	1.897760E+0	1.972846E+0	1.992902E+0	2.148323E+0	2.021830E+0	1.998568E+0	2.013882E+0	2.080180E+0	2.034149E+0	2.009636E+0	2.081060E+0	2.136026E+0	2.035347E+0	1.922037E+0	2.097578E+0	2.289798E+0	1.962000E+0	1.918849E+0	1.988349E+0	2.187557E+0	1.946256E+0	1.963680E+0	2.034015E+0	1.950340E+0	2.014610E+0	1.973821E+0	2.026699E+0	1.979515E+0	2.052629E+0	1.948501E+0	2.161399E+0	2.279936E+0	1.985513E+0	1.691926E+0	1.981740E+0	2.115152E+0	2.020757E+0	2.083575E+0	2.068166E+0	2.118776E+0	1.903680E+0	2.059208E+0	1.939062E+0	1.763026E+0	1.882171E+0	2.010798E+0	2.007682E+0	2.166699E+0	1.968984E+0	1.995476E+0	2.048615E+0	2.156752E+0	1.922427E+0	2.002821E+0	2.018224E+0	2.043088E+0	1.934686E+0	1.958750E+0	2.120726E+0	2.091526E+0	2.030265E+0	1.905058E+0	1.915419E+0	2.250863E+0	1.906683E+0	1.914220E+0	1.943734E+0	2.118983E+0	2.027675E+0	2.012299E+0	1.982017E+0	2.028838E+0	1.923005E+0	1.992121E+0	2.105213E+0	2.138721E+0	1.962596E+0	1.914342E+0	2.088298E+0	2.191380E+0	1.846691E+0	1.944263E+0	2.048000E+0	2.121358E+0	1.883883E+0	1.870572E+0	2.085948E+0	1.927783E+0	1.923066E+0	1.994385E+0	2.073339E+0	1.751996E+0	1.887550E+0	1.891135E+0	2.060278E+0	2.143103E+0	2.013135E+0	1.972233E+0	2.029926E+0	2.167460E+0	1.954529E+0	1.942462E+0	1.980636E+0	2.057033E+0	1.937065E+0	1.862225E+0	1.732014E+0	2.007173E+0	1.946840E+0	1.953379E+0	2.042264E+0	2.175129E+0	1.969028E+0	1.942623E+0	2.012549E+0	2.072861E+0	1.883698E+0	1.926049E+0	2.057639E+0	2.011623E+0	1.863688E+0	1.965476E+0	2.104348E+0	2.153847E+0	1.931355E+0	1.901190E+0	2.088982E+0	2.182699E+0	1.976853E+0	1.948171E+0	2.030657E+0	1.977828E+0
5.400140E+2	1.826316E+0	2.148905E+0	2.217145E+0	1.797458E+0	1.960075E+0	2.048140E+0	2.190730E+0	2.162325E+0	2.038455E+0	2.050892E+0	2.087865E+0	2.176367E+0	2.016271E+0	2.008286E+0	2.005067E+0	2.055153E+0	2.060459E+0	1.927126E+0	2.038610E+0	2.009973E+0	2.082483E+0	1.922053E+0	2.153679E+0	2.177842E+0	2.028470E+0	1.907148E+0	2.109863E+0	2.136828E+0	1.977130E+0	1.961865E+0	2.085894E+0	1.965697E+0	1.954279E+0	1.695867E+0	2.115948E+0	1.964192E+0	1.946959E+0	1.836469E+0	2.246674E+0	2.029320E+0	1.903693E+0	1.968309E+0	2.113888E+0	2.104595E+0	1.970567E+0	2.017217E+0	2.009790E+0	2.025013E+0	1.938081E+0	1.993007E+0	2.049243E+0	1.975481E+0	1.875295E+0	2.013023E+0	2.152244E+0	1.953141E+0	1.886209E+0	1.917002E+0	2.117315E+0	1.924970E+0	1.935064E+0	1.852733E+0	1.953856E+0	1.950378E+0	1.971171E+0	1.928998E+0	1.947139E+0	2.009597E+0	1.855638E+0	2.032973E+0	2.155024E+0	1.919569E+0	1.669229E+0	1.981225E+0	2.049802E+0	1.936047E+0	2.039492E+0	1.973734E+0	1.992955E+0	1.801595E+0	1.934768E+0	1.845271E+0	1.711686E+0	1.897168E+0	1.903664E+0	1.935492E+0	2.129693E+0	1.810546E+0	1.935054E+0	1.926564E+0	2.075201E+0	1.855761E+0	1.860988E+0	1.921661E+0	1.984043E+0	1.907576E+0	1.843141E+0	2.021881E+0	2.053570E+0	1.970684E+0	1.820135E+0	1.901881E+0	2.181963E+0	1.871021E+0	1.792461E+0	1.899762E+0	2.064714E+0	1.924198E+0	1.977310E+0	1.866071E+0	1.987218E+0	1.864024E+0	1.902898E+0	2.002030E+0	2.071132E+0	1.844697E+0	1.845950E+0	2.085782E+0	2.115249E+0	1.734088E+0	1.891385E+0	2.001340E+0	2.036706E+0	1.821920E+0	1.838620E+0	1.977087E+0	1.912835E+0	1.879867E+0	1.905950E+0	2.061315E+0	1.684997E+0	1.945924E+0	1.923232E+0	1.983340E+0	2.108670E+0	1.879478E+0	1.880751E+0	1.987916E+0	2.032298E+0	1.882625E+0	1.972105E+0	1.919686E+0	1.927650E+0	1.884389E+0	1.808158E+0	1.689547E+0	1.953849E+0	1.825227E+0	1.877944E+0	1.982840E+0	2.096230E+0	1.916089E+0	1.855633E+0	1.957641E+0	2.064106E+0	1.844366E+0	1.894878E+0	1.977029E+0	2.017517E+0	1.877672E+0	1.906945E+0	1.991559E+0	2.060489E+0	1.861961E+0	1.882245E+0	2.006725E+0	2.079282E+0	1.924635E+0	1.949067E+0	1.789781E+0	1.792137E+0
5.402740E+2	1.759593E+0	2.145993E+0	2.105873E+0	1.752154E+0	1.975543E+0	1.982985E+0	2.030895E+0	2.125430E+0	1.977298E+0	1.972721E+0	1.980196E+0	2.114062E+0	1.950088E+0	1.913695E+0	1.863017E+0	1.965276E+0	1.949812E+0	1.835393E+0	1.915680E+0	1.965295E+0	1.930687E+0	1.879557E+0	2.076416E+0	2.172323E+0	1.969021E+0	1.826870E+0	2.036715E+0	2.011679E+0	1.853283E+0	1.881615E+0	1.968344E+0	1.835175E+0	1.863980E+0	1.678857E+0	2.002386E+0	1.897437E+0	1.831122E+0	1.755315E+0	2.141927E+0	2.067530E+0	1.860735E+0	1.871452E+0	2.035200E+0	2.088802E+0	1.842695E+0	1.871938E+0	1.949126E+0	1.924058E+0	1.794970E+0	1.979300E+0	2.071207E+0	1.934520E+0	1.842221E+0	1.891917E+0	2.050310E+0	2.090780E+0	1.824194E+0	1.867854E+0	1.987876E+0	1.903688E+0	1.857892E+0	1.881853E+0	1.864984E+0	1.888425E+0	1.824917E+0	1.938879E+0	1.928480E+0	1.941657E+0	1.770751E+0	1.969417E+0	2.139972E+0	2.085678E+0	1.619966E+0	1.810349E+0	1.997835E+0	1.953739E+0	2.029202E+0	1.911260E+0	1.948750E+0	1.846672E+0	1.938555E+0	1.812392E+0	1.652725E+0	1.860455E+0	1.848707E+0	1.900312E+0	2.001017E+0	2.016513E+0	1.855744E+0	1.854965E+0	2.048559E+0	1.884486E+0	1.827474E+0	1.900731E+0	1.973949E+0	1.833394E+0	1.809199E+0	1.978910E+0	1.925754E+0	1.890133E+0	1.746481E+0	1.850862E+0	2.113619E+0	1.867691E+0	1.766333E+0	1.803677E+0	1.972883E+0	1.863266E+0	1.849788E+0	1.846822E+0	1.912862E+0	1.808103E+0	1.798530E+0	1.999926E+0	1.930073E+0	1.796747E+0	1.738272E+0	1.994125E+0	1.990029E+0	1.701776E+0	1.798847E+0	1.933227E+0	2.010217E+0	1.785056E+0	1.787693E+0	1.910336E+0	1.828842E+0	1.795755E+0	1.824879E+0	1.945666E+0	1.703036E+0	1.890274E+0	1.801079E+0	1.876710E+0	2.029818E+0	1.837300E+0	1.804955E+0	1.896615E+0	2.023206E+0	1.830597E+0	1.861651E+0	1.817567E+0	1.888075E+0	1.839739E+0	1.734336E+0	1.577132E+0	1.915843E+0	1.773779E+0	1.782546E+0	1.914355E+0	2.027710E+0	1.810698E+0	1.765400E+0	1.894066E+0	1.937503E+0	1.807771E+0	1.776805E+0	1.952340E+0	1.895235E+0	1.757670E+0	1.875261E+0	1.904221E+0	1.959776E+0	1.771918E+0	1.759348E+0	1.979304E+0	2.097293E+0	1.743298E+0	1.891712E+0	1.805840E+0	1.700720E+0
5.405080E+2	1.676661E+0	1.973324E+0	2.068782E+0	1.668933E+0	1.835845E+0	1.940402E+0	1.985823E+0	2.052555E+0	1.800521E+0	1.890644E+0	1.899862E+0	1.952482E+0	1.930841E+0	1.822779E+0	1.820912E+0	1.859586E+0	1.887542E+0	1.815425E+0	1.883447E+0	1.897496E+0	1.871987E+0	1.805897E+0	1.999624E+0	2.029807E+0	1.878157E+0	1.790886E+0	1.933809E+0	2.013274E+0	1.794669E+0	1.867778E+0	1.891136E+0	1.828785E+0	1.784121E+0	1.597689E+0	1.964183E+0	1.818361E+0	1.800406E+0	1.722465E+0	2.037174E+0	1.949512E+0	1.736050E+0	1.788644E+0	1.938471E+0	2.075735E+0	1.830094E+0	1.865743E+0	1.900042E+0	1.943204E+0	1.795476E+0	1.883334E+0	1.925500E+0	1.917190E+0	1.812235E+0	1.850520E+0	1.996059E+0	2.018308E+0	1.757274E+0	1.882123E+0	1.936699E+0	1.879749E+0	1.834388E+0	1.806710E+0	1.743473E+0	1.816906E+0	1.757619E+0	1.838984E+0	1.825865E+0	1.839742E+0	1.705095E+0	1.936092E+0	2.082785E+0	1.966384E+0	1.559596E+0	1.806744E+0	1.924249E+0	1.953739E+0	1.912622E+0	1.850245E+0	1.877825E+0	1.781265E+0	1.864430E+0	1.713209E+0	1.591731E+0	1.824780E+0	1.783595E+0	1.750913E+0	1.979382E+0	2.056800E+0	1.852505E+0	1.853333E+0	1.961022E+0	1.915923E+0	1.761901E+0	1.799412E+0	1.826587E+0	1.815805E+0	1.723284E+0	1.919283E+0	1.903984E+0	1.861995E+0	1.704883E+0	1.766530E+0	2.055364E+0	2.031271E+0	1.702056E+0	1.735273E+0	2.012240E+0	1.926299E+0	1.804209E+0	1.740017E+0	1.859082E+0	1.767912E+0	1.719581E+0	1.875161E+0	1.864244E+0	1.856548E+0	1.649544E+0	1.885345E+0	1.953624E+0	2.003360E+0	1.766064E+0	1.847414E+0	1.893316E+0	1.915404E+0	1.714301E+0	1.817905E+0	1.765974E+0	1.776655E+0	1.752238E+0	1.855777E+0	1.627279E+0	1.746792E+0	1.729220E+0	1.800221E+0	1.972062E+0	1.869619E+0	1.732293E+0	1.857404E+0	1.863799E+0	1.800199E+0	1.742109E+0	1.758757E+0	1.794713E+0	1.790572E+0	1.691193E+0	1.584627E+0	1.850047E+0	1.726484E+0	1.804940E+0	1.858963E+0	1.949328E+0	1.764017E+0	1.709205E+0	1.853027E+0	1.864575E+0	1.691412E+0	1.795693E+0	1.827399E+0	1.854966E+0	1.658871E+0	1.789873E+0	1.870670E+0	1.935445E+0	1.758672E+0	1.730204E+0	1.942575E+0	2.025260E+0	1.779281E+0	1.867513E+0	1.706568E+0	1.823562E+0
5.407790E+2	1.654738E+0	1.904139E+0	1.948537E+0	1.576849E+0	1.767872E+0	1.780333E+0	1.964339E+0	2.008744E+0	1.789398E+0	1.787070E+0	1.831245E+0	1.892209E+0	1.777813E+0	1.737832E+0	1.741327E+0	1.835453E+0	1.838614E+0	1.676749E+0	1.770899E+0	1.836528E+0	1.840803E+0	1.756788E+0	1.894698E+0	1.965442E+0	1.763183E+0	1.718453E+0	1.876300E+0	1.846059E+0	1.720927E+0	1.720654E+0	1.819132E+0	1.739773E+0	1.728795E+0	1.450903E+0	1.903159E+0	1.802954E+0	1.753019E+0	1.569814E+0	1.930040E+0	1.926782E+0	1.705142E+0	1.714868E+0	1.898030E+0	1.930355E+0	1.710156E+0	1.748096E+0	1.806034E+0	1.833115E+0	1.687389E+0	1.794225E+0	1.792117E+0	1.781706E+0	1.679499E+0	1.803837E+0	1.952218E+0	1.906737E+0	1.761627E+0	1.797564E+0	1.872982E+0	1.822287E+0	1.779705E+0	1.685070E+0	1.691758E+0	1.765886E+0	1.717874E+0	1.778611E+0	1.743555E+0	1.774629E+0	1.671794E+0	1.858767E+0	1.930283E+0	1.936683E+0	1.494884E+0	1.755788E+0	1.856837E+0	1.849725E+0	1.828862E+0	1.736924E+0	1.798156E+0	1.703046E+0	1.720511E+0	1.676559E+0	1.460081E+0	1.730676E+0	1.714787E+0	1.719389E+0	1.878608E+0	1.973054E+0	1.725183E+0	1.789869E+0	1.983312E+0	1.858472E+0	1.663298E+0	1.771345E+0	1.824061E+0	1.754933E+0	1.670781E+0	1.788747E+0	1.816351E+0	1.750550E+0	1.662424E+0	1.737376E+0	1.941088E+0	1.939497E+0	1.614258E+0	1.745589E+0	1.897148E+0	1.797602E+0	1.706149E+0	1.673623E+0	1.749180E+0	1.694078E+0	1.669293E+0	1.757238E+0	1.766674E+0	1.774184E+0	1.698070E+0	1.811820E+0	1.895701E+0	1.940201E+0	1.665062E+0	1.790560E+0	1.812122E+0	1.841683E+0	1.613452E+0	1.784019E+0	1.725265E+0	1.697545E+0	1.666432E+0	1.772759E+0	1.506684E+0	1.805715E+0	1.683236E+0	1.747581E+0	1.944850E+0	1.906318E+0	1.694132E+0	1.750977E+0	1.957745E+0	1.828263E+0	1.629742E+0	1.645406E+0	1.697296E+0	1.712313E+0	1.580982E+0	1.505686E+0	1.744537E+0	1.711930E+0	1.714410E+0	1.742635E+0	1.860567E+0	1.878553E+0	1.680569E+0	1.753610E+0	1.770637E+0	1.761880E+0	1.693206E+0	1.760391E+0	1.735638E+0	1.606986E+0	1.779132E+0	1.796056E+0	1.782112E+0	1.693521E+0	1.616058E+0	1.856183E+0	1.873997E+0	1.772226E+0	1.761763E+0	1.664234E+0	1.680724E+0
5.410130E+2	1.618989E+0	1.835536E+0	1.965886E+0	1.490181E+0	1.738809E+0	1.788031E+0	1.897259E+0	1.912347E+0	1.718802E+0	1.826642E+0	1.787726E+0	1.918546E+0	1.743077E+0	1.704771E+0	1.738087E+0	1.722691E+0	1.743535E+0	1.654085E+0	1.773083E+0	1.765570E+0	1.755959E+0	1.679822E+0	1.862264E+0	1.905679E+0	1.744669E+0	1.668169E+0	1.810723E+0	1.837538E+0	1.695406E+0	1.728959E+0	1.745391E+0	1.677501E+0	1.699567E+0	1.454791E+0	1.821970E+0	1.779335E+0	1.724935E+0	1.601699E+0	1.880046E+0	1.835850E+0	1.675279E+0	1.718887E+0	1.864693E+0	1.836166E+0	1.637820E+0	1.749049E+0	1.724532E+0	1.781332E+0	1.677381E+0	1.766808E+0	1.834436E+0	1.763323E+0	1.662298E+0	1.696382E+0	1.877139E+0	1.841045E+0	1.598424E+0	1.686052E+0	1.835857E+0	1.770153E+0	1.688226E+0	1.697283E+0	1.638531E+0	1.688902E+0	1.674954E+0	1.759948E+0	1.723797E+0	1.717443E+0	1.615985E+0	1.825434E+0	1.912222E+0	1.881314E+0	1.472668E+0	1.672926E+0	1.798174E+0	1.800398E+0	1.771554E+0	1.667674E+0	1.827787E+0	1.589024E+0	1.723762E+0	1.616186E+0	1.499219E+0	1.709476E+0	1.693545E+0	1.685124E+0	1.848996E+0	1.906965E+0	1.744602E+0	1.691687E+0	1.796825E+0	1.795597E+0	1.545268E+0	1.734719E+0	1.764003E+0	1.617031E+0	1.642145E+0	1.766717E+0	1.782863E+0	1.730140E+0	1.597429E+0	1.631175E+0	1.920924E+0	1.916672E+0	1.579767E+0	1.630502E+0	1.806505E+0	1.821243E+0	1.701546E+0	1.626956E+0	1.773968E+0	1.666993E+0	1.702276E+0	1.778294E+0	1.730824E+0	1.742599E+0	1.615349E+0	1.741817E+0	1.780408E+0	1.833966E+0	1.643914E+0	1.696701E+0	1.793694E+0	1.704927E+0	1.613950E+0	1.668997E+0	1.724236E+0	1.682540E+0	1.665380E+0	1.725238E+0	1.572132E+0	1.803535E+0	1.640124E+0	1.734083E+0	1.797130E+0	1.878379E+0	1.641858E+0	1.738657E+0	1.845614E+0	1.729466E+0	1.656519E+0	1.622417E+0	1.706936E+0	1.660137E+0	1.570063E+0	1.448728E+0	1.762125E+0	1.705691E+0	1.661845E+0	1.689255E+0	1.803986E+0	1.862191E+0	1.603302E+0	1.776156E+0	1.803895E+0	1.749317E+0	1.631805E+0	1.727138E+0	1.726796E+0	1.643077E+0	1.711467E+0	1.721441E+0	1.828506E+0	1.673920E+0	1.633057E+0	1.790998E+0	1.879140E+0	1.870302E+0	1.726811E+0	1.642335E+0	1.683579E+0
5.412690E+2	1.509843E+0	1.734958E+0	1.755907E+0	1.453739E+0	1.645521E+0	1.695684E+0	1.780922E+0	1.809037E+0	1.627075E+0	1.649784E+0	1.692888E+0	1.786847E+0	1.632297E+0	1.683191E+0	1.595570E+0	1.628656E+0	1.618989E+0	1.585555E+0	1.670914E+0	1.658347E+0	1.644524E+0	1.636850E+0	1.749227E+0	1.799478E+0	1.546126E+0	1.540834E+0	1.685116E+0	1.744874E+0	1.582899E+0	1.579069E+0	1.637818E+0	1.601658E+0	1.535671E+0	1.374595E+0	1.738127E+0	1.589341E+0	1.595052E+0	1.486244E+0	1.812909E+0	1.724125E+0	1.606130E+0	1.621023E+0	1.727526E+0	1.833987E+0	1.575754E+0	1.612820E+0	1.636082E+0	1.693431E+0	1.553287E+0	1.660298E+0	1.638380E+0	1.575327E+0	1.529119E+0	1.624597E+0	1.775208E+0	1.739380E+0	1.539123E+0	1.493682E+0	1.699891E+0	1.571703E+0	1.633547E+0	1.546058E+0	1.616440E+0	1.555428E+0	1.575856E+0	1.617242E+0	1.582770E+0	1.702724E+0	1.542354E+0	1.658787E+0	1.742160E+0	1.752957E+0	1.322470E+0	1.604986E+0	1.735914E+0	1.700139E+0	1.638809E+0	1.619729E+0	1.654357E+0	1.560301E+0	1.626374E+0	1.550423E+0	1.355880E+0	1.622092E+0	1.562857E+0	1.559483E+0	1.708935E+0	1.761205E+0	1.675010E+0	1.635816E+0	1.728861E+0	1.646545E+0	1.498634E+0	1.645767E+0	1.561628E+0	1.573280E+0	1.506912E+0	1.676474E+0	1.676809E+0	1.650144E+0	1.553668E+0	1.562460E+0	1.820650E+0	1.779244E+0	1.476819E+0	1.606616E+0	1.689025E+0	1.727218E+0	1.572179E+0	1.539396E+0	1.574749E+0	1.559957E+0	1.567091E+0	1.604047E+0	1.651481E+0	1.598752E+0	1.511374E+0	1.723685E+0	1.722488E+0	1.706182E+0	1.567240E+0	1.593192E+0	1.657793E+0	1.608237E+0	1.517093E+0	1.628434E+0	1.550573E+0	1.554776E+0	1.547465E+0	1.635350E+0	1.400000E+0	1.611495E+0	1.559167E+0	1.612152E+0	1.746598E+0	1.699262E+0	1.547242E+0	1.594700E+0	1.780760E+0	1.665161E+0	1.525026E+0	1.563071E+0	1.564868E+0	1.554783E+0	1.472851E+0	1.385777E+0	1.611238E+0	1.602271E+0	1.541630E+0	1.594585E+0	1.704841E+0	1.743804E+0	1.508747E+0	1.597556E+0	1.675540E+0	1.640612E+0	1.563322E+0	1.667688E+0	1.579964E+0	1.535254E+0	1.554660E+0	1.708715E+0	1.645752E+0	1.613006E+0	1.481021E+0	1.658559E+0	1.748973E+0	1.753176E+0	1.606721E+0	1.613138E+0	1.746429E+0
5.415140E+2	1.415475E+0	1.597749E+0	1.586609E+0	1.336049E+0	1.451442E+0	1.551005E+0	1.597497E+0	1.641614E+0	1.556471E+0	1.522758E+0	1.484798E+0	1.640972E+0	1.617743E+0	1.521099E+0	1.461386E+0	1.542941E+0	1.613431E+0	1.450111E+0	1.470407E+0	1.514335E+0	1.536293E+0	1.428614E+0	1.608048E+0	1.656501E+0	1.485550E+0	1.436107E+0	1.552950E+0	1.550497E+0	1.543198E+0	1.443014E+0	1.489039E+0	1.394493E+0	1.500181E+0	1.244824E+0	1.589017E+0	1.471241E+0	1.459910E+0	1.340357E+0	1.627692E+0	1.594016E+0	1.384005E+0	1.400702E+0	1.594185E+0	1.563924E+0	1.468882E+0	1.448966E+0	1.521235E+0	1.469332E+0	1.387657E+0	1.492623E+0	1.547312E+0	1.462947E+0	1.437837E+0	1.486317E+0	1.598200E+0	1.553769E+0	1.428688E+0	1.438721E+0	1.604566E+0	1.530737E+0	1.443439E+0	1.429119E+0	1.401543E+0	1.395990E+0	1.393041E+0	1.464106E+0	1.451069E+0	1.498326E+0	1.369296E+0	1.513024E+0	1.635811E+0	1.657320E+0	1.275142E+0	1.428446E+0	1.506928E+0	1.495866E+0	1.520273E+0	1.453625E+0	1.534856E+0	1.378228E+0	1.440793E+0	1.404348E+0	1.246087E+0	1.478868E+0	1.442792E+0	1.417847E+0	1.543251E+0	1.617705E+0	1.451111E+0	1.494240E+0	1.557597E+0	1.553318E+0	1.370889E+0	1.480234E+0	1.448584E+0	1.452024E+0	1.417291E+0	1.495976E+0	1.514384E+0	1.487388E+0	1.412420E+0	1.408363E+0	1.568013E+0	1.566212E+0	1.339902E+0	1.376440E+0	1.566775E+0	1.550196E+0	1.437291E+0	1.456163E+0	1.529385E+0	1.425395E+0	1.480029E+0	1.517186E+0	1.522174E+0	1.515829E+0	1.378742E+0	1.507638E+0	1.625398E+0	1.562247E+0	1.399082E+0	1.526683E+0	1.534559E+0	1.590069E+0	1.390282E+0	1.503657E+0	1.432568E+0	1.419279E+0	1.449025E+0	1.505955E+0	1.258274E+0	1.501296E+0	1.417853E+0	1.444781E+0	1.544460E+0	1.605595E+0	1.332391E+0	1.444588E+0	1.570436E+0	1.516679E+0	1.434174E+0	1.365245E+0	1.448675E+0	1.431874E+0	1.384993E+0	1.225898E+0	1.485880E+0	1.500928E+0	1.407300E+0	1.501925E+0	1.603619E+0	1.631193E+0	1.355838E+0	1.505657E+0	1.556519E+0	1.520432E+0	1.447609E+0	1.429894E+0	1.537731E+0	1.407128E+0	1.453163E+0	1.506275E+0	1.584077E+0	1.501771E+0	1.396017E+0	1.521467E+0	1.581755E+0	1.629694E+0	1.496489E+0	1.446714E+0	1.426473E+0
5.417760E+2	1.214341E+0	1.358217E+0	1.409531E+0	1.147448E+0	1.277991E+0	1.299102E+0	1.422465E+0	1.434528E+0	1.305754E+0	1.339550E+0	1.318550E+0	1.340095E+0	1.435144E+0	1.304827E+0	1.297124E+0	1.292455E+0	1.415495E+0	1.256932E+0	1.309234E+0	1.301994E+0	1.367532E+0	1.247293E+0	1.391511E+0	1.437208E+0	1.361600E+0	1.210508E+0	1.327963E+0	1.335880E+0	1.498763E+0	1.261301E+0	1.296445E+0	1.286316E+0	1.357164E+0	1.101929E+0	1.375696E+0	1.273030E+0	1.278253E+0	1.165970E+0	1.432475E+0	1.403935E+0	1.284467E+0	1.237094E+0	1.381056E+0	1.439783E+0	1.363413E+0	1.297974E+0	1.271633E+0	1.303979E+0	1.295587E+0	1.305970E+0	1.371608E+0	1.320636E+0	1.268498E+0	1.308838E+0	1.428860E+0	1.403614E+0	1.233929E+0	1.257978E+0	1.363242E+0	1.319521E+0	1.332031E+0	1.255349E+0	1.235846E+0	1.300784E+0	1.322033E+0	1.272554E+0	1.307847E+0	1.330736E+0	1.200930E+0	1.317043E+0	1.414080E+0	1.427785E+0	1.088242E+0	1.297199E+0	1.346897E+0	1.310891E+0	1.365973E+0	1.281225E+0	1.289529E+0	1.253161E+0	1.296336E+0	1.267974E+0	1.108848E+0	1.293764E+0	1.291788E+0	1.240580E+0	1.393509E+0	1.391821E+0	1.266597E+0	1.313064E+0	1.378180E+0	1.378248E+0	1.240227E+0	1.307084E+0	1.282545E+0	1.268470E+0	1.181294E+0	1.387467E+0	1.371496E+0	1.293191E+0	1.207912E+0	1.289669E+0	1.401646E+0	1.442577E+0	1.195147E+0	1.268410E+0	1.405766E+0	1.358990E+0	1.327260E+0	1.222820E+0	1.283865E+0	1.213510E+0	1.218849E+0	1.341357E+0	1.349375E+0	1.319521E+0	1.178643E+0	1.382740E+0	1.372749E+0	1.360541E+0	1.283807E+0	1.279432E+0	1.341647E+0	1.338462E+0	1.199563E+0	1.292099E+0	1.271790E+0	1.281511E+0	1.242674E+0	1.305570E+0	1.120670E+0	1.303796E+0	1.230075E+0	1.325102E+0	1.428952E+0	1.370054E+0	1.255024E+0	1.261983E+0	1.464976E+0	1.280513E+0	1.243388E+0	1.227840E+0	1.300517E+0	1.232708E+0	1.223316E+0	1.084008E+0	1.288481E+0	1.295123E+0	1.255452E+0	1.295459E+0	1.428169E+0	1.405967E+0	1.229403E+0	1.324168E+0	1.317892E+0	1.383321E+0	1.263881E+0	1.353314E+0	1.319201E+0	1.255994E+0	1.251247E+0	1.392328E+0	1.341344E+0	1.286186E+0	1.188119E+0	1.351784E+0	1.421232E+0	1.489987E+0	1.302912E+0	1.237956E+0	1.169366E+0
5.420270E+2	1.007490E+0	1.130314E+0	1.216902E+0	9.455514E-1	1.120947E+0	1.110817E+0	1.231708E+0	1.193778E+0	1.150653E+0	1.127513E+0	1.096513E+0	1.176994E+0	1.230949E+0	1.083965E+0	1.089368E+0	1.112287E+0	1.211440E+0	1.061053E+0	1.115826E+0	1.112778E+0	1.186845E+0	1.093358E+0	1.167820E+0	1.192170E+0	1.170904E+0	1.071641E+0	1.156453E+0	1.154817E+0	1.227434E+0	1.075439E+0	1.102119E+0	1.069968E+0	1.169784E+0	9.809056E-1	1.156540E+0	1.130794E+0	1.081238E+0	1.026845E+0	1.178688E+0	1.147104E+0	1.109491E+0	1.062948E+0	1.163555E+0	1.237238E+0	1.236940E+0	1.057430E+0	1.106312E+0	1.128182E+0	1.131458E+0	1.108769E+0	1.155194E+0	1.058590E+0	1.066526E+0	1.127840E+0	1.216232E+0	1.191419E+0	1.105540E+0	1.083048E+0	1.193159E+0	1.120010E+0	1.243622E+0	1.068904E+0	1.069649E+0	1.110824E+0	1.079865E+0	1.107343E+0	1.087800E+0	1.146724E+0	1.059293E+0	1.138841E+0	1.259571E+0	1.183151E+0	9.525332E-1	1.108306E+0	1.185318E+0	1.163986E+0	1.233720E+0	1.115603E+0	1.126791E+0	1.046780E+0	1.124285E+0	1.012475E+0	9.614424E-1	1.136576E+0	1.075668E+0	1.089809E+0	1.194803E+0	1.196719E+0	1.158694E+0	1.073307E+0	1.168856E+0	1.143014E+0	1.161055E+0	1.099214E+0	1.035255E+0	1.102987E+0	1.138870E+0	1.130153E+0	1.158279E+0	1.108370E+0	1.114755E+0	1.090284E+0	1.189898E+0	1.165821E+0	1.073908E+0	1.059949E+0	1.245946E+0	1.158336E+0	1.149096E+0	1.064057E+0	1.128136E+0	1.093368E+0	1.133951E+0	1.182899E+0	1.126031E+0	1.076959E+0	1.074203E+0	1.149068E+0	1.181331E+0	1.241083E+0	1.092386E+0	1.121212E+0	1.126853E+0	1.166978E+0	1.064762E+0	1.102110E+0	1.076487E+0	1.066903E+0	1.100545E+0	1.198506E+0	9.387446E-1	1.122128E+0	1.044208E+0	1.123085E+0	1.183496E+0	1.256669E+0	1.056382E+0	1.102344E+0	1.231622E+0	1.146060E+0	1.069812E+0	1.048730E+0	1.133588E+0	1.034544E+0	9.706658E-1	9.596024E-1	1.174466E+0	1.141807E+0	1.091916E+0	1.124240E+0	1.168629E+0	1.213470E+0	1.098646E+0	1.128808E+0	1.163862E+0	1.145150E+0	1.067877E+0	1.100906E+0	1.152725E+0	1.095386E+0	1.081550E+0	1.160385E+0	1.236670E+0	1.082784E+0	1.035112E+0	1.145887E+0	1.213886E+0	1.214804E+0	1.086034E+0	1.091971E+0	1.123658E+0
5.422670E+2	8.835698E-1	1.061129E+0	1.059567E+0	8.574057E-1	9.742170E-1	1.022061E+0	1.095977E+0	1.096461E+0	1.015566E+0	9.770372E-1	1.000558E+0	1.097470E+0	1.046942E+0	1.027944E+0	9.852598E-1	9.595788E-1	1.059095E+0	9.364027E-1	1.010381E+0	1.030259E+0	9.992791E-1	9.861708E-1	1.032365E+0	1.035859E+0	1.077800E+0	9.415410E-1	1.074731E+0	1.066415E+0	1.080426E+0	9.403076E-1	1.002356E+0	9.809539E-1	1.004846E+0	8.205130E-1	1.021756E+0	1.005502E+0	9.855820E-1	9.572833E-1	1.083937E+0	1.105992E+0	1.003143E+0	9.244340E-1	1.024202E+0	1.073893E+0	1.072669E+0	9.726455E-1	1.021103E+0	1.027664E+0	1.002859E+0	1.035478E+0	1.044844E+0	9.850709E-1	9.708325E-1	1.023466E+0	1.100052E+0	1.052211E+0	1.008160E+0	9.144609E-1	1.075257E+0	9.455047E-1	1.109728E+0	9.890640E-1	9.466333E-1	9.723420E-1	1.023165E+0	9.915319E-1	9.873790E-1	1.017632E+0	9.340732E-1	1.030853E+0	1.103054E+0	1.143386E+0	8.515970E-1	9.765450E-1	1.059765E+0	1.057292E+0	1.099994E+0	1.023106E+0	1.048578E+0	9.380654E-1	9.846966E-1	9.176057E-1	8.511417E-1	1.007312E+0	9.833095E-1	9.376684E-1	1.025703E+0	1.076309E+0	1.014105E+0	1.006044E+0	1.086758E+0	1.050872E+0	1.084309E+0	1.003602E+0	9.958905E-1	1.010733E+0	1.029622E+0	1.009286E+0	1.046089E+0	1.023408E+0	9.102489E-1	9.231762E-1	1.110354E+0	1.107332E+0	1.013288E+0	9.747182E-1	1.105211E+0	1.064309E+0	1.095231E+0	9.519580E-1	9.869055E-1	9.190523E-1	1.052298E+0	1.017071E+0	1.032578E+0	9.641394E-1	9.429607E-1	1.021655E+0	1.128374E+0	1.057980E+0	1.003022E+0	1.024672E+0	1.015137E+0	1.042508E+0	1.054776E+0	9.670639E-1	9.878536E-1	9.682376E-1	1.053168E+0	1.010715E+0	8.830847E-1	1.053387E+0	9.876823E-1	9.701121E-1	1.070209E+0	1.088503E+0	1.005153E+0	9.376654E-1	1.103732E+0	1.051944E+0	1.044947E+0	9.722746E-1	1.002174E+0	9.562831E-1	9.353145E-1	8.436904E-1	1.001458E+0	1.045660E+0	9.653746E-1	1.023021E+0	1.075712E+0	1.066206E+0	9.225029E-1	9.825775E-1	1.013919E+0	1.011862E+0	9.606639E-1	1.026846E+0	1.029956E+0	9.627487E-1	1.019793E+0	1.040654E+0	1.039768E+0	1.026106E+0	9.666228E-1	1.007760E+0	1.060564E+0	1.098380E+0	9.542943E-1	9.766416E-1	9.693907E-1
5.425190E+2	8.001613E-1	9.675257E-1	1.001539E+0	8.416481E-1	9.128059E-1	9.384353E-1	9.964063E-1	9.825402E-1	9.621976E-1	9.125477E-1	9.057183E-1	9.455127E-1	1.001408E+0	9.677920E-1	9.093755E-1	9.017421E-1	9.918186E-1	8.862194E-1	8.776177E-1	9.382797E-1	8.933439E-1	8.638740E-1	9.250504E-1	9.829897E-1	9.841354E-1	9.069390E-1	9.233955E-1	1.005706E+0	1.036936E+0	9.006446E-1	9.225422E-1	8.743756E-1	9.542172E-1	7.996138E-1	9.793046E-1	9.536393E-1	9.118674E-1	8.650168E-1	1.022514E+0	9.913629E-1	9.203702E-1	8.913110E-1	9.722856E-1	9.900438E-1	1.017134E+0	9.078659E-1	8.997750E-1	9.254045E-1	9.142910E-1	8.962780E-1	9.468148E-1	9.278310E-1	8.570574E-1	9.424344E-1	9.263308E-1	9.813052E-1	9.292777E-1	8.959633E-1	9.578559E-1	9.071989E-1	1.040737E+0	9.543105E-1	8.683051E-1	9.072002E-1	9.230118E-1	9.278628E-1	9.429308E-1	9.564841E-1	8.862360E-1	9.641938E-1	1.046869E+0	1.039694E+0	7.979903E-1	9.302222E-1	1.002132E+0	9.709716E-1	1.029950E+0	9.243154E-1	9.300468E-1	9.159701E-1	9.500697E-1	8.502269E-1	7.540572E-1	9.292367E-1	9.491366E-1	8.695934E-1	9.949574E-1	1.028778E+0	9.072810E-1	9.105752E-1	9.557274E-1	9.636075E-1	1.028936E+0	9.279686E-1	9.196846E-1	8.975579E-1	9.007539E-1	9.609386E-1	9.768763E-1	9.952707E-1	8.755867E-1	8.763234E-1	9.764725E-1	1.047417E+0	9.516241E-1	8.813453E-1	1.018742E+0	1.019660E+0	9.967116E-1	8.615090E-1	8.933748E-1	8.972080E-1	9.398224E-1	9.102051E-1	9.602851E-1	9.466523E-1	8.791880E-1	9.536681E-1	9.557113E-1	1.037418E+0	9.855714E-1	9.206223E-1	9.874961E-1	9.757320E-1	1.083734E+0	9.367675E-1	8.909749E-1	9.195869E-1	9.410422E-1	9.603314E-1	8.001103E-1	9.480940E-1	8.842115E-1	9.111717E-1	9.957953E-1	1.046873E+0	9.262180E-1	9.415859E-1	9.619016E-1	1.018038E+0	9.866113E-1	9.022339E-1	9.128743E-1	9.096262E-1	9.186793E-1	8.037206E-1	9.129698E-1	9.354817E-1	9.327653E-1	9.364052E-1	1.002521E+0	1.044067E+0	9.343904E-1	9.565683E-1	9.129844E-1	9.452176E-1	1.018757E+0	9.311221E-1	9.400885E-1	8.824438E-1	9.687760E-1	9.671962E-1	9.803581E-1	9.254643E-1	8.505307E-1	9.710292E-1	1.032266E+0	1.063101E+0	9.354752E-1	9.007303E-1	8.408380E-1
5.427650E+2	8.768965E-1	1.003572E+0	1.085291E+0	8.106252E-1	9.751542E-1	9.553651E-1	1.014224E+0	1.010674E+0	1.003891E+0	9.897401E-1	9.598329E-1	9.764107E-1	1.091067E+0	9.379454E-1	9.403768E-1	9.574979E-1	1.000159E+0	9.083429E-1	9.278825E-1	9.766483E-1	1.011660E+0	9.158150E-1	1.071475E+0	1.079075E+0	1.004327E+0	8.751060E-1	1.018233E+0	1.052037E+0	1.077589E+0	9.412298E-1	9.975818E-1	9.274649E-1	9.677877E-1	8.069042E-1	9.973464E-1	9.654492E-1	9.882159E-1	8.804748E-1	1.089174E+0	9.894281E-1	9.685672E-1	9.204188E-1	1.042236E+0	1.047214E+0	1.042336E+0	9.416847E-1	9.433054E-1	9.911121E-1	9.242985E-1	8.978598E-1	9.794905E-1	9.572392E-1	9.148265E-1	1.013338E+0	1.035934E+0	1.060553E+0	9.820474E-1	9.123463E-1	1.005519E+0	9.476331E-1	1.076511E+0	9.143909E-1	9.079714E-1	9.340771E-1	9.818314E-1	9.163363E-1	9.632340E-1	1.024427E+0	8.881122E-1	1.005523E+0	1.059410E+0	1.073922E+0	8.366259E-1	8.864734E-1	9.625096E-1	1.059973E+0	1.053461E+0	9.465913E-1	1.010202E+0	9.172959E-1	1.001469E+0	9.116766E-1	8.267441E-1	9.550904E-1	9.736122E-1	9.755894E-1	1.026841E+0	1.063633E+0	1.017341E+0	9.414938E-1	1.031301E+0	9.760737E-1	1.104708E+0	9.617419E-1	9.257408E-1	9.375020E-1	1.015833E+0	1.002840E+0	9.645964E-1	9.743063E-1	9.306127E-1	9.106822E-1	1.050976E+0	1.075472E+0	9.511008E-1	8.889447E-1	9.746125E-1	9.828909E-1	1.030780E+0	9.158743E-1	9.480907E-1	9.002662E-1	9.809186E-1	9.791682E-1	9.855581E-1	1.010960E+0	9.152334E-1	9.939567E-1	1.065487E+0	1.058470E+0	9.644201E-1	9.528020E-1	9.719479E-1	9.661156E-1	1.045290E+0	9.639828E-1	9.358068E-1	9.200416E-1	9.494645E-1	9.580416E-1	8.274248E-1	9.971943E-1	9.440903E-1	9.728114E-1	1.046330E+0	1.075905E+0	1.027108E+0	9.679125E-1	1.000693E+0	1.006347E+0	1.034906E+0	8.963532E-1	9.849232E-1	9.607975E-1	9.722246E-1	8.092170E-1	9.747983E-1	9.375604E-1	9.327658E-1	9.867630E-1	1.021727E+0	1.072943E+0	9.592446E-1	9.987609E-1	1.012752E+0	9.911039E-1	1.086296E+0	9.411984E-1	9.769195E-1	9.568834E-1	1.015497E+0	1.037762E+0	1.001859E+0	9.948549E-1	9.161053E-1	1.009829E+0	1.084746E+0	1.072274E+0	9.318895E-1	1.005840E+0	9.379677E-1
5.430070E+2	9.445765E-1	1.098919E+0	1.203741E+0	9.391495E-1	1.069849E+0	1.068747E+0	1.158863E+0	1.147654E+0	1.076160E+0	1.117743E+0	1.023989E+0	1.127862E+0	1.179313E+0	1.078914E+0	9.806323E-1	1.065268E+0	1.213664E+0	1.008711E+0	1.110908E+0	1.103843E+0	1.105216E+0	1.033390E+0	1.120124E+0	1.164585E+0	1.127717E+0	1.065643E+0	1.146361E+0	1.149493E+0	1.232162E+0	1.076824E+0	1.103420E+0	1.042826E+0	1.118110E+0	9.220953E-1	1.141152E+0	1.052230E+0	1.038237E+0	9.524523E-1	1.215829E+0	1.132595E+0	1.084869E+0	1.010754E+0	1.122022E+0	1.158832E+0	1.162273E+0	1.074578E+0	1.097514E+0	1.089454E+0	1.041889E+0	1.078187E+0	1.128410E+0	1.098501E+0	1.052855E+0	1.089083E+0	1.153758E+0	1.190897E+0	1.068547E+0	1.079878E+0	1.126433E+0	1.038078E+0	1.244643E+0	1.036027E+0	1.043540E+0	1.040673E+0	1.114839E+0	1.082095E+0	1.087800E+0	1.094068E+0	9.837863E-1	1.108177E+0	1.176796E+0	1.183654E+0	9.332150E-1	1.028529E+0	1.108648E+0	1.118413E+0	1.192575E+0	1.030855E+0	1.100560E+0	9.959605E-1	1.092905E+0	1.000616E+0	8.968883E-1	1.099349E+0	1.030874E+0	1.046863E+0	1.176583E+0	1.146927E+0	1.114993E+0	1.074935E+0	1.140584E+0	1.103989E+0	1.184368E+0	1.041656E+0	1.085723E+0	1.100609E+0	1.099095E+0	1.097385E+0	1.096323E+0	1.068647E+0	1.003837E+0	1.016881E+0	1.183176E+0	1.188171E+0	1.054050E+0	1.057777E+0	1.165441E+0	1.154658E+0	1.160605E+0	9.986257E-1	1.043959E+0	1.009049E+0	1.103670E+0	1.086561E+0	1.083713E+0	1.062857E+0	1.029378E+0	1.143025E+0	1.151543E+0	1.181845E+0	1.113538E+0	1.058461E+0	1.074450E+0	1.094861E+0	1.167111E+0	1.091327E+0	1.032686E+0	1.051444E+0	1.136340E+0	1.022738E+0	9.207066E-1	1.127038E+0	1.061453E+0	1.052449E+0	1.187383E+0	1.188744E+0	1.096633E+0	1.073218E+0	1.172223E+0	1.103971E+0	1.180748E+0	1.008096E+0	1.075746E+0	1.032036E+0	1.029409E+0	8.781639E-1	1.113204E+0	1.099711E+0	1.033026E+0	1.107622E+0	1.177453E+0	1.186999E+0	1.095405E+0	1.047890E+0	1.120105E+0	1.065942E+0	1.185008E+0	1.069165E+0	1.078081E+0	1.010119E+0	1.135252E+0	1.106592E+0	1.157457E+0	1.042527E+0	1.017625E+0	1.102949E+0	1.133625E+0	1.166823E+0	1.094997E+0	1.008759E+0	1.006528E+0
5.432590E+2	1.119495E+0	1.280312E+0	1.290484E+0	1.038621E+0	1.193610E+0	1.210346E+0	1.293022E+0	1.311846E+0	1.262393E+0	1.300465E+0	1.252720E+0	1.263103E+0	1.286342E+0	1.352124E+0	1.217541E+0	1.197585E+0	1.294285E+0	1.215921E+0	1.190130E+0	1.251537E+0	1.243252E+0	1.209045E+0	1.258916E+0	1.294232E+0	1.269055E+0	1.241418E+0	1.301732E+0	1.325230E+0	1.350335E+0	1.285744E+0	1.239622E+0	1.189319E+0	1.320628E+0	1.116025E+0	1.302998E+0	1.208331E+0	1.188741E+0	1.130222E+0	1.376763E+0	1.285435E+0	1.231031E+0	1.220533E+0	1.248807E+0	1.374446E+0	1.307877E+0	1.236050E+0	1.208652E+0	1.262207E+0	1.247048E+0	1.221079E+0	1.246797E+0	1.175696E+0	1.144579E+0	1.219880E+0	1.286378E+0	1.286307E+0	1.226313E+0	1.159679E+0	1.285976E+0	1.210455E+0	1.369340E+0	1.210733E+0	1.209233E+0	1.193734E+0	1.283349E+0	1.245659E+0	1.189318E+0	1.226557E+0	1.129644E+0	1.228168E+0	1.361905E+0	1.358825E+0	1.028839E+0	1.172643E+0	1.299557E+0	1.317861E+0	1.344912E+0	1.224081E+0	1.229292E+0	1.152844E+0	1.203817E+0	1.176878E+0	1.036670E+0	1.255500E+0	1.186499E+0	1.173874E+0	1.261416E+0	1.304457E+0	1.279006E+0	1.236583E+0	1.278139E+0	1.259003E+0	1.324745E+0	1.213850E+0	1.191200E+0	1.189058E+0	1.208342E+0	1.226309E+0	1.219118E+0	1.237469E+0	1.169351E+0	1.156920E+0	1.394362E+0	1.292787E+0	1.187310E+0	1.164178E+0	1.324068E+0	1.301210E+0	1.290430E+0	1.198768E+0	1.207637E+0	1.129194E+0	1.279413E+0	1.272920E+0	1.245343E+0	1.242804E+0	1.117180E+0	1.250798E+0	1.271800E+0	1.316478E+0	1.225642E+0	1.255295E+0	1.261027E+0	1.203838E+0	1.331367E+0	1.221752E+0	1.162544E+0	1.204215E+0	1.249517E+0	1.240874E+0	1.062949E+0	1.227421E+0	1.174026E+0	1.210822E+0	1.268461E+0	1.339929E+0	1.212683E+0	1.226134E+0	1.317084E+0	1.263560E+0	1.339018E+0	1.133206E+0	1.181790E+0	1.186050E+0	1.225916E+0	1.053031E+0	1.283943E+0	1.200535E+0	1.204344E+0	1.185173E+0	1.316566E+0	1.347255E+0	1.237508E+0	1.257122E+0	1.250795E+0	1.234190E+0	1.296943E+0	1.270185E+0	1.251922E+0	1.182005E+0	1.284543E+0	1.263341E+0	1.271751E+0	1.216797E+0	1.141489E+0	1.288670E+0	1.338908E+0	1.293831E+0	1.215086E+0	1.213140E+0	1.140796E+0
5.435220E+2	1.265816E+0	1.437287E+0	1.505848E+0	1.203093E+0	1.403157E+0	1.398632E+0	1.524656E+0	1.508787E+0	1.386917E+0	1.447032E+0	1.420085E+0	1.462675E+0	1.584415E+0	1.503194E+0	1.308692E+0	1.346545E+0	1.502788E+0	1.493281E+0	1.402660E+0	1.385566E+0	1.434485E+0	1.380452E+0	1.477361E+0	1.519042E+0	1.428905E+0	1.449948E+0	1.526717E+0	1.509491E+0	1.544614E+0	1.467458E+0	1.402282E+0	1.357371E+0	1.423976E+0	1.276415E+0	1.433007E+0	1.356216E+0	1.365572E+0	1.264033E+0	1.527701E+0	1.476484E+0	1.394482E+0	1.398694E+0	1.416029E+0	1.497497E+0	1.512282E+0	1.516127E+0	1.398983E+0	1.396664E+0	1.345124E+0	1.496844E+0	1.432676E+0	1.425137E+0	1.350522E+0	1.425101E+0	1.524217E+0	1.491205E+0	1.367215E+0	1.397498E+0	1.384312E+0	1.368468E+0	1.548715E+0	1.501442E+0	1.314172E+0	1.356359E+0	1.431195E+0	1.407575E+0	1.386319E+0	1.467186E+0	1.265648E+0	1.439698E+0	1.516918E+0	1.467551E+0	1.170343E+0	1.371314E+0	1.466791E+0	1.442250E+0	1.481084E+0	1.362095E+0	1.330340E+0	1.296470E+0	1.421859E+0	1.292768E+0	1.198309E+0	1.382179E+0	1.349973E+0	1.347947E+0	1.423118E+0	1.483261E+0	1.427911E+0	1.371650E+0	1.479308E+0	1.407517E+0	1.465604E+0	1.378436E+0	1.347650E+0	1.295573E+0	1.380699E+0	1.422920E+0	1.432895E+0	1.347259E+0	1.247340E+0	1.285507E+0	1.486229E+0	1.529121E+0	1.349832E+0	1.305866E+0	1.463608E+0	1.444614E+0	1.477803E+0	1.334921E+0	1.335777E+0	1.322730E+0	1.421632E+0	1.413475E+0	1.442827E+0	1.401315E+0	1.239644E+0	1.461305E+0	1.470941E+0	1.418311E+0	1.421822E+0	1.380801E+0	1.472939E+0	1.436219E+0	1.555039E+0	1.377338E+0	1.331565E+0	1.373358E+0	1.511669E+0	1.400039E+0	1.189215E+0	1.416734E+0	1.346477E+0	1.406990E+0	1.462271E+0	1.470298E+0	1.428053E+0	1.367850E+0	1.508010E+0	1.391582E+0	1.482946E+0	1.298950E+0	1.384743E+0	1.311470E+0	1.343405E+0	1.227897E+0	1.434829E+0	1.361125E+0	1.353765E+0	1.386100E+0	1.418825E+0	1.471900E+0	1.382314E+0	1.376764E+0	1.428745E+0	1.384412E+0	1.512315E+0	1.404199E+0	1.384025E+0	1.315094E+0	1.449406E+0	1.456530E+0	1.433005E+0	1.350808E+0	1.309068E+0	1.437661E+0	1.480399E+0	1.523855E+0	1.441823E+0	1.376643E+0	1.297920E+0
5.437640E+2	1.314431E+0	1.557054E+0	1.618316E+0	1.277450E+0	1.465973E+0	1.440700E+0	1.609027E+0	1.605640E+0	1.542019E+0	1.585783E+0	1.459694E+0	1.580696E+0	1.595213E+0	1.627633E+0	1.443342E+0	1.481360E+0	1.639008E+0	1.434465E+0	1.483519E+0	1.496465E+0	1.512447E+0	1.447974E+0	1.571322E+0	1.592139E+0	1.587631E+0	1.515925E+0	1.552445E+0	1.587242E+0	1.594720E+0	1.577224E+0	1.491205E+0	1.427224E+0	1.570643E+0	1.327940E+0	1.511541E+0	1.488186E+0	1.393214E+0	1.341807E+0	1.555794E+0	1.587725E+0	1.542739E+0	1.493548E+0	1.569044E+0	1.618915E+0	1.592088E+0	1.583767E+0	1.452701E+0	1.499794E+0	1.476725E+0	1.567496E+0	1.495888E+0	1.482902E+0	1.411816E+0	1.514501E+0	1.594364E+0	1.568891E+0	1.486901E+0	1.521692E+0	1.549378E+0	1.442421E+0	1.660632E+0	1.577995E+0	1.418111E+0	1.422410E+0	1.466697E+0	1.588701E+0	1.470825E+0	1.562872E+0	1.381023E+0	1.509023E+0	1.594675E+0	1.606983E+0	1.264034E+0	1.577706E+0	1.442609E+0	1.524280E+0	1.623132E+0	1.665737E+0	1.478504E+0	1.418442E+0	1.478669E+0	1.462563E+0	1.247106E+0	1.478868E+0	1.431709E+0	1.441148E+0	1.567735E+0	1.603673E+0	1.525024E+0	1.477425E+0	1.562495E+0	1.532179E+0	1.618123E+0	1.616274E+0	1.475331E+0	1.431101E+0	1.549869E+0	1.527136E+0	1.537828E+0	1.496218E+0	1.335297E+0	1.368277E+0	1.604986E+0	1.567636E+0	1.424563E+0	1.462755E+0	1.619851E+0	1.590117E+0	1.619600E+0	1.546131E+0	1.454560E+0	1.387389E+0	1.473542E+0	1.543505E+0	1.472216E+0	1.474085E+0	1.367190E+0	1.511664E+0	1.558098E+0	1.542176E+0	1.499555E+0	1.470905E+0	1.470064E+0	1.477350E+0	1.554539E+0	1.473873E+0	1.407318E+0	1.437009E+0	1.491139E+0	1.491072E+0	1.293834E+0	1.465830E+0	1.404917E+0	1.491126E+0	1.554454E+0	1.595184E+0	1.505941E+0	1.402016E+0	1.529222E+0	1.500896E+0	1.622568E+0	1.417108E+0	1.444616E+0	1.366657E+0	1.408908E+0	1.230894E+0	1.451846E+0	1.442200E+0	1.405838E+0	1.423365E+0	1.581298E+0	1.578736E+0	1.543870E+0	1.412600E+0	1.424659E+0	1.515517E+0	1.577021E+0	1.499417E+0	1.467016E+0	1.425173E+0	1.498810E+0	1.519577E+0	1.552959E+0	1.436619E+0	1.404759E+0	1.513709E+0	1.645556E+0	1.592297E+0	1.460642E+0	1.430655E+0	1.395050E+0
5.440120E+2	1.399744E+0	1.638447E+0	1.626690E+0	1.360671E+0	1.536761E+0	1.577169E+0	1.693925E+0	1.673440E+0	1.652644E+0	1.655647E+0	1.571270E+0	1.612095E+0	1.713505E+0	1.704773E+0	1.534493E+0	1.571652E+0	1.616211E+0	1.524577E+0	1.609724E+0	1.549025E+0	1.555098E+0	1.527300E+0	1.668620E+0	1.664319E+0	1.594361E+0	1.577745E+0	1.619030E+0	1.644226E+0	1.685951E+0	1.673612E+0	1.561911E+0	1.530609E+0	1.630146E+0	1.432435E+0	1.629874E+0	1.555452E+0	1.577503E+0	1.364026E+0	1.671019E+0	1.581923E+0	1.547455E+0	1.501076E+0	1.613859E+0	1.655396E+0	1.645756E+0	1.659023E+0	1.544389E+0	1.542001E+0	1.507251E+0	1.639208E+0	1.642127E+0	1.588982E+0	1.489875E+0	1.603019E+0	1.647521E+0	1.712265E+0	1.542932E+0	1.651174E+0	1.624634E+0	1.503604E+0	1.695383E+0	1.674272E+0	1.479366E+0	1.518985E+0	1.556251E+0	1.669382E+0	1.502651E+0	1.574765E+0	1.479979E+0	1.572128E+0	1.682967E+0	1.643226E+0	1.321506E+0	1.648733E+0	1.581026E+0	1.601487E+0	1.673096E+0	1.670576E+0	1.562058E+0	1.454679E+0	1.606895E+0	1.555278E+0	1.564791E+0	1.550223E+0	1.483894E+0	1.480899E+0	1.619545E+0	1.675647E+0	1.587067E+0	1.548486E+0	1.613599E+0	1.546272E+0	1.627840E+0	1.676687E+0	1.513688E+0	1.525731E+0	1.537670E+0	1.666804E+0	1.595317E+0	1.594418E+0	1.472213E+0	1.445846E+0	1.645319E+0	1.624224E+0	1.502949E+0	1.530071E+0	1.601962E+0	1.608503E+0	1.632488E+0	1.681321E+0	1.552766E+0	1.446805E+0	1.576826E+0	1.716701E+0	1.570955E+0	1.515266E+0	1.470704E+0	1.564040E+0	1.597817E+0	1.640580E+0	1.506956E+0	1.607671E+0	1.571988E+0	1.570842E+0	1.624435E+0	1.644350E+0	1.499558E+0	1.486117E+0	1.576944E+0	1.615309E+0	1.336094E+0	1.539483E+0	1.456653E+0	1.492477E+0	1.648859E+0	1.638460E+0	1.491307E+0	1.592460E+0	1.595290E+0	1.578062E+0	1.712465E+0	1.699945E+0	1.455779E+0	1.499599E+0	1.516518E+0	1.326324E+0	1.497225E+0	1.554980E+0	1.486146E+0	1.602639E+0	1.623343E+0	1.630708E+0	1.501181E+0	1.627035E+0	1.613110E+0	1.561948E+0	1.713515E+0	1.639478E+0	1.523979E+0	1.434197E+0	1.575069E+0	1.636414E+0	1.644620E+0	1.480056E+0	1.435363E+0	1.545783E+0	1.715012E+0	1.676971E+0	1.556535E+0	1.512409E+0	1.489321E+0
5.442590E+2	1.428342E+0	1.675658E+0	1.721211E+0	1.346390E+0	1.596298E+0	1.573577E+0	1.648856E+0	1.620859E+0	1.694338E+0	1.615095E+0	1.581312E+0	1.654139E+0	1.791894E+0	1.685485E+0	1.520151E+0	1.555841E+0	1.690162E+0	1.593107E+0	1.585686E+0	1.570573E+0	1.562435E+0	1.599074E+0	1.639047E+0	1.702015E+0	1.567438E+0	1.526531E+0	1.573127E+0	1.655939E+0	1.736056E+0	1.623805E+0	1.553234E+0	1.479115E+0	1.605617E+0	1.422713E+0	1.611301E+0	1.557508E+0	1.492378E+0	1.425378E+0	1.671497E+0	1.653991E+0	1.568934E+0	1.547249E+0	1.644458E+0	1.691876E+0	1.644356E+0	1.660930E+0	1.492987E+0	1.531559E+0	1.529766E+0	1.687187E+0	1.558026E+0	1.538044E+0	1.451950E+0	1.540924E+0	1.719312E+0	1.655960E+0	1.536945E+0	1.645360E+0	1.560917E+0	1.494559E+0	1.711734E+0	1.624487E+0	1.423634E+0	1.489377E+0	1.560489E+0	1.648529E+0	1.556430E+0	1.582126E+0	1.474819E+0	1.605015E+0	1.696008E+0	1.707654E+0	1.323436E+0	1.624544E+0	1.580513E+0	1.584865E+0	1.669668E+0	1.696732E+0	1.541657E+0	1.391484E+0	1.564154E+0	1.540722E+0	1.603927E+0	1.572454E+0	1.547622E+0	1.512423E+0	1.674772E+0	1.681079E+0	1.578432E+0	1.613035E+0	1.632086E+0	1.604267E+0	1.711870E+0	1.662417E+0	1.541443E+0	1.490065E+0	1.501610E+0	1.639944E+0	1.516059E+0	1.620900E+0	1.431052E+0	1.459381E+0	1.656519E+0	1.670824E+0	1.557819E+0	1.572412E+0	1.628792E+0	1.609553E+0	1.713978E+0	1.611562E+0	1.575682E+0	1.460348E+0	1.573582E+0	1.690907E+0	1.572135E+0	1.525983E+0	1.401387E+0	1.609872E+0	1.660154E+0	1.618059E+0	1.577815E+0	1.580315E+0	1.600781E+0	1.533981E+0	1.616949E+0	1.678753E+0	1.515534E+0	1.468837E+0	1.531143E+0	1.659397E+0	1.326301E+0	1.582581E+0	1.467670E+0	1.506422E+0	1.622762E+0	1.666396E+0	1.534173E+0	1.554370E+0	1.624989E+0	1.532464E+0	1.649346E+0	1.651824E+0	1.521234E+0	1.442908E+0	1.491565E+0	1.384280E+0	1.518213E+0	1.579406E+0	1.526545E+0	1.535663E+0	1.707954E+0	1.672582E+0	1.544409E+0	1.577904E+0	1.556517E+0	1.581618E+0	1.686120E+0	1.673231E+0	1.558354E+0	1.494200E+0	1.585269E+0	1.608072E+0	1.606145E+0	1.561100E+0	1.415446E+0	1.569581E+0	1.635264E+0	1.648041E+0	1.528753E+0	1.656934E+0	1.477895E+0
5.445450E+2	1.353036E+0	1.614609E+0	1.628484E+0	1.363134E+0	1.439721E+0	1.521761E+0	1.648333E+0	1.622706E+0	1.583156E+0	1.566240E+0	1.490379E+0	1.589306E+0	1.665154E+0	1.693749E+0	1.449358E+0	1.486354E+0	1.623442E+0	1.528895E+0	1.494995E+0	1.498041E+0	1.584445E+0	1.469693E+0	1.604710E+0	1.648687E+0	1.526495E+0	1.483166E+0	1.608945E+0	1.661800E+0	1.614103E+0	1.580450E+0	1.495545E+0	1.443988E+0	1.522624E+0	1.386748E+0	1.584771E+0	1.530803E+0	1.479656E+0	1.374173E+0	1.645308E+0	1.581444E+0	1.527549E+0	1.518141E+0	1.518767E+0	1.655940E+0	1.628954E+0	1.670455E+0	1.457329E+0	1.451927E+0	1.527264E+0	1.549044E+0	1.539813E+0	1.477652E+0	1.439600E+0	1.504374E+0	1.626148E+0	1.586095E+0	1.510835E+0	1.531735E+0	1.563425E+0	1.525948E+0	1.627414E+0	1.659242E+0	1.440203E+0	1.436078E+0	1.507502E+0	1.563454E+0	1.441190E+0	1.519841E+0	1.419947E+0	1.544577E+0	1.656881E+0	1.669904E+0	1.244235E+0	1.551459E+0	1.581026E+0	1.533393E+0	1.596683E+0	1.642008E+0	1.513967E+0	1.397671E+0	1.550086E+0	1.507303E+0	1.577497E+0	1.489210E+0	1.482968E+0	1.448004E+0	1.589939E+0	1.579684E+0	1.464056E+0	1.581572E+0	1.582608E+0	1.554402E+0	1.573438E+0	1.670503E+0	1.481387E+0	1.442988E+0	1.550402E+0	1.557216E+0	1.509922E+0	1.511112E+0	1.428886E+0	1.413572E+0	1.629072E+0	1.610912E+0	1.487273E+0	1.485555E+0	1.533977E+0	1.475607E+0	1.513252E+0	1.583656E+0	1.514886E+0	1.401804E+0	1.508689E+0	1.619313E+0	1.517473E+0	1.515831E+0	1.364418E+0	1.541378E+0	1.591196E+0	1.589661E+0	1.517005E+0	1.621078E+0	1.524768E+0	1.512612E+0	1.612454E+0	1.646915E+0	1.407320E+0	1.462472E+0	1.524830E+0	1.618173E+0	1.322694E+0	1.526390E+0	1.411145E+0	1.542867E+0	1.609435E+0	1.676255E+0	1.456807E+0	1.497240E+0	1.612865E+0	1.544742E+0	1.634999E+0	1.588200E+0	1.472523E+0	1.431370E+0	1.481169E+0	1.341812E+0	1.533526E+0	1.480138E+0	1.479332E+0	1.502428E+0	1.585970E+0	1.618680E+0	1.510369E+0	1.607962E+0	1.500507E+0	1.467990E+0	1.636057E+0	1.594136E+0	1.499426E+0	1.410735E+0	1.587956E+0	1.627742E+0	1.514483E+0	1.517664E+0	1.366387E+0	1.538025E+0	1.602852E+0	1.606411E+0	1.457058E+0	1.581022E+0	1.429329E+0
5.447660E+2	1.298226E+0	1.540774E+0	1.600368E+0	1.299116E+0	1.449097E+0	1.479694E+0	1.593307E+0	1.533226E+0	1.494208E+0	1.518362E+0	1.483683E+0	1.470780E+0	1.565637E+0	1.598245E+0	1.450742E+0	1.462637E+0	1.570064E+0	1.426369E+0	1.433257E+0	1.440226E+0	1.488600E+0	1.404533E+0	1.561783E+0	1.548924E+0	1.476013E+0	1.463791E+0	1.458111E+0	1.541445E+0	1.600864E+0	1.495591E+0	1.466480E+0	1.389702E+0	1.500705E+0	1.276416E+0	1.462192E+0	1.396271E+0	1.423929E+0	1.281906E+0	1.577698E+0	1.539846E+0	1.431154E+0	1.413750E+0	1.459750E+0	1.560658E+0	1.554287E+0	1.571378E+0	1.395275E+0	1.432346E+0	1.376648E+0	1.486298E+0	1.547845E+0	1.413584E+0	1.363311E+0	1.448001E+0	1.575732E+0	1.574105E+0	1.378096E+0	1.523808E+0	1.497702E+0	1.431780E+0	1.590110E+0	1.553572E+0	1.356349E+0	1.399178E+0	1.416884E+0	1.469598E+0	1.420341E+0	1.480212E+0	1.343970E+0	1.474806E+0	1.550028E+0	1.559667E+0	1.179517E+0	1.494841E+0	1.468851E+0	1.469590E+0	1.577091E+0	1.595515E+0	1.383775E+0	1.347293E+0	1.498685E+0	1.415127E+0	1.444323E+0	1.398724E+0	1.451566E+0	1.395007E+0	1.518199E+0	1.526266E+0	1.438701E+0	1.501834E+0	1.466256E+0	1.556024E+0	1.519519E+0	1.561572E+0	1.418807E+0	1.401142E+0	1.449640E+0	1.563124E+0	1.471409E+0	1.462012E+0	1.356093E+0	1.327673E+0	1.562971E+0	1.561930E+0	1.448079E+0	1.419327E+0	1.512507E+0	1.513953E+0	1.543636E+0	1.550459E+0	1.404050E+0	1.391758E+0	1.428119E+0	1.563512E+0	1.462224E+0	1.461111E+0	1.334379E+0	1.531307E+0	1.519483E+0	1.559799E+0	1.433453E+0	1.483778E+0	1.435510E+0	1.448508E+0	1.494627E+0	1.596084E+0	1.392889E+0	1.347440E+0	1.479559E+0	1.489926E+0	1.299503E+0	1.427097E+0	1.420246E+0	1.420036E+0	1.489480E+0	1.510829E+0	1.431189E+0	1.432264E+0	1.436488E+0	1.483358E+0	1.532676E+0	1.522972E+0	1.405547E+0	1.361639E+0	1.388632E+0	1.306837E+0	1.405332E+0	1.400105E+0	1.415574E+0	1.463653E+0	1.532504E+0	1.536385E+0	1.418516E+0	1.501031E+0	1.459082E+0	1.452696E+0	1.538289E+0	1.542744E+0	1.466525E+0	1.359306E+0	1.500958E+0	1.608654E+0	1.509391E+0	1.397952E+0	1.353756E+0	1.512155E+0	1.526707E+0	1.494926E+0	1.398806E+0	1.465694E+0	1.375052E+0
5.450200E+2	1.277254E+0	1.455892E+0	1.414319E+0	1.218852E+0	1.364245E+0	1.389910E+0	1.465960E+0	1.478808E+0	1.399148E+0	1.417718E+0	1.465830E+0	1.407463E+0	1.504616E+0	1.520180E+0	1.480360E+0	1.317419E+0	1.473876E+0	1.342192E+0	1.486797E+0	1.391870E+0	1.384500E+0	1.278457E+0	1.450652E+0	1.452378E+0	1.410957E+0	1.347530E+0	1.462149E+0	1.403516E+0	1.456216E+0	1.441171E+0	1.525472E+0	1.257577E+0	1.418756E+0	1.205941E+0	1.466965E+0	1.310003E+0	1.348898E+0	1.224904E+0	1.481991E+0	1.384103E+0	1.402341E+0	1.344996E+0	1.504014E+0	1.453939E+0	1.438079E+0	1.469923E+0	1.475393E+0	1.344447E+0	1.301089E+0	1.391918E+0	1.448212E+0	1.330611E+0	1.265851E+0	1.352879E+0	1.479280E+0	1.431769E+0	1.363404E+0	1.358918E+0	1.484655E+0	1.353037E+0	1.532869E+0	1.415498E+0	1.309654E+0	1.283473E+0	1.333161E+0	1.390010E+0	1.284252E+0	1.365838E+0	1.223443E+0	1.370374E+0	1.416086E+0	1.482653E+0	1.140882E+0	1.417638E+0	1.361304E+0	1.443322E+0	1.444344E+0	1.465731E+0	1.379889E+0	1.284980E+0	1.357472E+0	1.315949E+0	1.379771E+0	1.323751E+0	1.307947E+0	1.326016E+0	1.430519E+0	1.461082E+0	1.383133E+0	1.370023E+0	1.446140E+0	1.419443E+0	1.442288E+0	1.449791E+0	1.357743E+0	1.276079E+0	1.376455E+0	1.451392E+0	1.400521E+0	1.321326E+0	1.292399E+0	1.315701E+0	1.458221E+0	1.442100E+0	1.388504E+0	1.326497E+0	1.371773E+0	1.478231E+0	1.440514E+0	1.484065E+0	1.282931E+0	1.272927E+0	1.367015E+0	1.462436E+0	1.386404E+0	1.325162E+0	1.259050E+0	1.422528E+0	1.432878E+0	1.444259E+0	1.342504E+0	1.372217E+0	1.342798E+0	1.356622E+0	1.471163E+0	1.509820E+0	1.245510E+0	1.285602E+0	1.371120E+0	1.464734E+0	1.253120E+0	1.414001E+0	1.244922E+0	1.356597E+0	1.440611E+0	1.438526E+0	1.299982E+0	1.371211E+0	1.471037E+0	1.307988E+0	1.440389E+0	1.487685E+0	1.344662E+0	1.271336E+0	1.279461E+0	1.213410E+0	1.375267E+0	1.315912E+0	1.298279E+0	1.368980E+0	1.409484E+0	1.403081E+0	1.338006E+0	1.412602E+0	1.380318E+0	1.344537E+0	1.427772E+0	1.421328E+0	1.327549E+0	1.300658E+0	1.405371E+0	1.384229E+0	1.367372E+0	1.333860E+0	1.274582E+0	1.419554E+0	1.424833E+0	1.456824E+0	1.314564E+0	1.334306E+0	1.380766E+0
5.452740E+2	1.177165E+0	1.355311E+0	1.401157E+0	1.132183E+0	1.272366E+0	1.289867E+0	1.383686E+0	1.401785E+0	1.362459E+0	1.336130E+0	1.403907E+0	1.351240E+0	1.390551E+0	1.417327E+0	1.432237E+0	1.250012E+0	1.416609E+0	1.289847E+0	1.369330E+0	1.320389E+0	1.282232E+0	1.236433E+0	1.383401E+0	1.394454E+0	1.313925E+0	1.278788E+0	1.328468E+0	1.396591E+0	1.424078E+0	1.371530E+0	1.422672E+0	1.192513E+0	1.319584E+0	1.147131E+0	1.410721E+0	1.287923E+0	1.273426E+0	1.212343E+0	1.426285E+0	1.314937E+0	1.256701E+0	1.279753E+0	1.435704E+0	1.312375E+0	1.377878E+0	1.388949E+0	1.436029E+0	1.262639E+0	1.225032E+0	1.334969E+0	1.394108E+0	1.222432E+0	1.183388E+0	1.253788E+0	1.442014E+0	1.363992E+0	1.269290E+0	1.303956E+0	1.407894E+0	1.292387E+0	1.429128E+0	1.407044E+0	1.403045E+0	1.228352E+0	1.310906E+0	1.342260E+0	1.357784E+0	1.334132E+0	1.222973E+0	1.316600E+0	1.427626E+0	1.367382E+0	1.080515E+0	1.366682E+0	1.323740E+0	1.307674E+0	1.361564E+0	1.390185E+0	1.348797E+0	1.146215E+0	1.313106E+0	1.297620E+0	1.363505E+0	1.257050E+0	1.253457E+0	1.208141E+0	1.406034E+0	1.375526E+0	1.269294E+0	1.333680E+0	1.368393E+0	1.300738E+0	1.320858E+0	1.399841E+0	1.305255E+0	1.231854E+0	1.310162E+0	1.310112E+0	1.335217E+0	1.273881E+0	1.224377E+0	1.182950E+0	1.421807E+0	1.390269E+0	1.268832E+0	1.279809E+0	1.351499E+0	1.357416E+0	1.379285E+0	1.386403E+0	1.245984E+0	1.182928E+0	1.315101E+0	1.377680E+0	1.314698E+0	1.274958E+0	1.202675E+0	1.342957E+0	1.325307E+0	1.359562E+0	1.286453E+0	1.338429E+0	1.320916E+0	1.303202E+0	1.373805E+0	1.335235E+0	1.252210E+0	1.221949E+0	1.284260E+0	1.342213E+0	1.344853E+0	1.296705E+0	1.196063E+0	1.262563E+0	1.393964E+0	1.385939E+0	1.247185E+0	1.289988E+0	1.347389E+0	1.258884E+0	1.325152E+0	1.348670E+0	1.257391E+0	1.189061E+0	1.283622E+0	1.152955E+0	1.260688E+0	1.244711E+0	1.232087E+0	1.266752E+0	1.348230E+0	1.404524E+0	1.251017E+0	1.399884E+0	1.286968E+0	1.321594E+0	1.328114E+0	1.386565E+0	1.290720E+0	1.214486E+0	1.317301E+0	1.359937E+0	1.337950E+0	1.266060E+0	1.187634E+0	1.313502E+0	1.420719E+0	1.408844E+0	1.338761E+0	1.398540E+0	1.206503E+0
5.455340E+2	1.120448E+0	1.252986E+0	1.326976E+0	1.053887E+0	1.184234E+0	1.226251E+0	1.323418E+0	1.291094E+0	1.318541E+0	1.271639E+0	1.326360E+0	1.304638E+0	1.376938E+0	1.337430E+0	1.371157E+0	1.198417E+0	1.320974E+0	1.221857E+0	1.351850E+0	1.228936E+0	1.229033E+0	1.180239E+0	1.335708E+0	1.314458E+0	1.273543E+0	1.253416E+0	1.316866E+0	1.295940E+0	1.318194E+0	1.301426E+0	1.339821E+0	1.176945E+0	1.272086E+0	1.157339E+0	1.384718E+0	1.209358E+0	1.231303E+0	1.129739E+0	1.314390E+0	1.281082E+0	1.228413E+0	1.228565E+0	1.346626E+0	1.321089E+0	1.276145E+0	1.287017E+0	1.351747E+0	1.211294E+0	1.219527E+0	1.300171E+0	1.373753E+0	1.297003E+0	1.156488E+0	1.213275E+0	1.333508E+0	1.281093E+0	1.218152E+0	1.344649E+0	1.352704E+0	1.271639E+0	1.329475E+0	1.311705E+0	1.307646E+0	1.178244E+0	1.225058E+0	1.280787E+0	1.291933E+0	1.221460E+0	1.136207E+0	1.240165E+0	1.362409E+0	1.359831E+0	1.036566E+0	1.318301E+0	1.347410E+0	1.266390E+0	1.296908E+0	1.277832E+0	1.370173E+0	1.129864E+0	1.259546E+0	1.246414E+0	1.283702E+0	1.206380E+0	1.169874E+0	1.188952E+0	1.349101E+0	1.311246E+0	1.287099E+0	1.249058E+0	1.302061E+0	1.263883E+0	1.361659E+0	1.343711E+0	1.396603E+0	1.185730E+0	1.222659E+0	1.305814E+0	1.381542E+0	1.189470E+0	1.090926E+0	1.156920E+0	1.316498E+0	1.350798E+0	1.177380E+0	1.260809E+0	1.316313E+0	1.246583E+0	1.289510E+0	1.305094E+0	1.319405E+0	1.159338E+0	1.196678E+0	1.331878E+0	1.313523E+0	1.183574E+0	1.093150E+0	1.259357E+0	1.298279E+0	1.290039E+0	1.298615E+0	1.299813E+0	1.292123E+0	1.259929E+0	1.309402E+0	1.356800E+0	1.299616E+0	1.131922E+0	1.301106E+0	1.302135E+0	1.308263E+0	1.219238E+0	1.182168E+0	1.209473E+0	1.321217E+0	1.316923E+0	1.206411E+0	1.211570E+0	1.357695E+0	1.215040E+0	1.400224E+0	1.312851E+0	1.200564E+0	1.189061E+0	1.206681E+0	1.101994E+0	1.203963E+0	1.201575E+0	1.180012E+0	1.252656E+0	1.320718E+0	1.314531E+0	1.244534E+0	1.256543E+0	1.254296E+0	1.241292E+0	1.339450E+0	1.341726E+0	1.231297E+0	1.143657E+0	1.252321E+0	1.303252E+0	1.302870E+0	1.191901E+0	1.143431E+0	1.272117E+0	1.308041E+0	1.268429E+0	1.263480E+0	1.268614E+0	1.257925E+0
5.457780E+2	1.078982E+0	1.241358E+0	1.277921E+0	1.045515E+0	1.164075E+0	1.199573E+0	1.306649E+0	1.278178E+0	1.237933E+0	1.275057E+0	1.274477E+0	1.266144E+0	1.306055E+0	1.280492E+0	1.288798E+0	1.194257E+0	1.288726E+0	1.180846E+0	1.234930E+0	1.198976E+0	1.177672E+0	1.160412E+0	1.298029E+0	1.325953E+0	1.233722E+0	1.220196E+0	1.330993E+0	1.281031E+0	1.294557E+0	1.294047E+0	1.297748E+0	1.114276E+0	1.245988E+0	1.050896E+0	1.294508E+0	1.180089E+0	1.168556E+0	1.093026E+0	1.319627E+0	1.214818E+0	1.226318E+0	1.206482E+0	1.313291E+0	1.270451E+0	1.266809E+0	1.287969E+0	1.375363E+0	1.253067E+0	1.152977E+0	1.280661E+0	1.306792E+0	1.193551E+0	1.128706E+0	1.179363E+0	1.348303E+0	1.306120E+0	1.215432E+0	1.242122E+0	1.332136E+0	1.172682E+0	1.375469E+0	1.266623E+0	1.276013E+0	1.140434E+0	1.167830E+0	1.227546E+0	1.267240E+0	1.242976E+0	1.203744E+0	1.230830E+0	1.331811E+0	1.216877E+0	1.046708E+0	1.238008E+0	1.248099E+0	1.192401E+0	1.289559E+0	1.269602E+0	1.296331E+0	1.098928E+0	1.182718E+0	1.197361E+0	1.243547E+0	1.149503E+0	1.150941E+0	1.146464E+0	1.281915E+0	1.304003E+0	1.265519E+0	1.168233E+0	1.287382E+0	1.226483E+0	1.252369E+0	1.343713E+0	1.276993E+0	1.118202E+0	1.184477E+0	1.239202E+0	1.269353E+0	1.203815E+0	1.145954E+0	1.199088E+0	1.286808E+0	1.246659E+0	1.181038E+0	1.203265E+0	1.287094E+0	1.274949E+0	1.248077E+0	1.300761E+0	1.310988E+0	1.164143E+0	1.250213E+0	1.293977E+0	1.317636E+0	1.234343E+0	1.108401E+0	1.240727E+0	1.306554E+0	1.284165E+0	1.200788E+0	1.275679E+0	1.282910E+0	1.203305E+0	1.275450E+0	1.283370E+0	1.318683E+0	1.169206E+0	1.214775E+0	1.247744E+0	1.314963E+0	1.182685E+0	1.138096E+0	1.195975E+0	1.264019E+0	1.310347E+0	1.234116E+0	1.221093E+0	1.327388E+0	1.207441E+0	1.304114E+0	1.234791E+0	1.298487E+0	1.148425E+0	1.156776E+0	1.066521E+0	1.304363E+0	1.174029E+0	1.144481E+0	1.199778E+0	1.330062E+0	1.287101E+0	1.222921E+0	1.335151E+0	1.228624E+0	1.227090E+0	1.275690E+0	1.266659E+0	1.299557E+0	1.138244E+0	1.256080E+0	1.263341E+0	1.284763E+0	1.180249E+0	1.132747E+0	1.277289E+0	1.296207E+0	1.312176E+0	1.248245E+0	1.235036E+0	1.109374E+0
5.460110E+2	1.032751E+0	1.223917E+0	1.284502E+0	1.001688E+0	1.142510E+0	1.168790E+0	1.244808E+0	1.210841E+0	1.206801E+0	1.271151E+0	1.213111E+0	1.214477E+0	1.230479E+0	1.237789E+0	1.299440E+0	1.149318E+0	1.282053E+0	1.156024E+0	1.237115E+0	1.165864E+0	1.189596E+0	1.165601E+0	1.262733E+0	1.219752E+0	1.232600E+0	1.161144E+0	1.283069E+0	1.202215E+0	1.255795E+0	1.271449E+0	1.286034E+0	1.116672E+0	1.183355E+0	1.061588E+0	1.287609E+0	1.156468E+0	1.094838E+0	1.041337E+0	1.259633E+0	1.238519E+0	1.158736E+0	1.141741E+0	1.312745E+0	1.189868E+0	1.214073E+0	1.231765E+0	1.287841E+0	1.155596E+0	1.160983E+0	1.205261E+0	1.316434E+0	1.124758E+0	1.098276E+0	1.181126E+0	1.305010E+0	1.169518E+0	1.182790E+0	1.206186E+0	1.314074E+0	1.143420E+0	1.293702E+0	1.249715E+0	1.288566E+0	1.118569E+0	1.178958E+0	1.153448E+0	1.231571E+0	1.192586E+0	1.090247E+0	1.216614E+0	1.285154E+0	1.228453E+0	9.858566E-1	1.200437E+0	1.216708E+0	1.185433E+0	1.223922E+0	1.266697E+0	1.244839E+0	1.080809E+0	1.101562E+0	1.124053E+0	1.260321E+0	1.178458E+0	1.089060E+0	1.105344E+0	1.242629E+0	1.249682E+0	1.215883E+0	1.166064E+0	1.235731E+0	1.168488E+0	1.241200E+0	1.249052E+0	1.271442E+0	1.125810E+0	1.132505E+0	1.218788E+0	1.218002E+0	1.193884E+0	1.079227E+0	1.124644E+0	1.243114E+0	1.271387E+0	1.159089E+0	1.163636E+0	1.231038E+0	1.246584E+0	1.250380E+0	1.231963E+0	1.231487E+0	1.092494E+0	1.167478E+0	1.263443E+0	1.272968E+0	1.109113E+0	1.107475E+0	1.191874E+0	1.253597E+0	1.229330E+0	1.167474E+0	1.144811E+0	1.236265E+0	1.135994E+0	1.208551E+0	1.235103E+0	1.274882E+0	1.082361E+0	1.202141E+0	1.219690E+0	1.246934E+0	1.168500E+0	1.155343E+0	1.157732E+0	1.236807E+0	1.246262E+0	1.170340E+0	1.148835E+0	1.235259E+0	1.186396E+0	1.253427E+0	1.259920E+0	1.256884E+0	1.124344E+0	1.088153E+0	1.060525E+0	1.261255E+0	1.139728E+0	1.150808E+0	1.132297E+0	1.275560E+0	1.197587E+0	1.155920E+0	1.203947E+0	1.232125E+0	1.173556E+0	1.205318E+0	1.264645E+0	1.255852E+0	1.110723E+0	1.238359E+0	1.188726E+0	1.257605E+0	1.118803E+0	1.072514E+0	1.206416E+0	1.232409E+0	1.267724E+0	1.169380E+0	1.242335E+0	1.055095E+0
5.467660E+2	1.135699E+0	1.293683E+0	1.366460E+0	1.014491E+0	1.215643E+0	1.267295E+0	1.256339E+0	1.274488E+0	1.303531E+0	1.310237E+0	1.357044E+0	1.267662E+0	1.399470E+0	1.344777E+0	1.309154E+0	1.206738E+0	1.299845E+0	1.223475E+0	1.261701E+0	1.227359E+0	1.242335E+0	1.178353E+0	1.289920E+0	1.274000E+0	1.291491E+0	1.256182E+0	1.301229E+0	1.270380E+0	1.339461E+0	1.300966E+0	1.361078E+0	1.198898E+0	1.244947E+0	1.138869E+0	1.330593E+0	1.190360E+0	1.191811E+0	1.131672E+0	1.332007E+0	1.280114E+0	1.237317E+0	1.203971E+0	1.342254E+0	1.368456E+0	1.247208E+0	1.264631E+0	1.345262E+0	1.245235E+0	1.185000E+0	1.243224E+0	1.323397E+0	1.226109E+0	1.130469E+0	1.198298E+0	1.324739E+0	1.264931E+0	1.206184E+0	1.244237E+0	1.331131E+0	1.209922E+0	1.328455E+0	1.340823E+0	1.299613E+0	1.137246E+0	1.200154E+0	1.269809E+0	1.314980E+0	1.213535E+0	1.150747E+0	1.238832E+0	1.351372E+0	1.346744E+0	1.011453E+0	1.273007E+0	1.325282E+0	1.261565E+0	1.253312E+0	1.288973E+0	1.353656E+0	1.098488E+0	1.218967E+0	1.208142E+0	1.291328E+0	1.237401E+0	1.168487E+0	1.145547E+0	1.370165E+0	1.296761E+0	1.264977E+0	1.208376E+0	1.292818E+0	1.212391E+0	1.320860E+0	1.321357E+0	1.315852E+0	1.172413E+0	1.204097E+0	1.312259E+0	1.345262E+0	1.207676E+0	1.113459E+0	1.171496E+0	1.312576E+0	1.298965E+0	1.188354E+0	1.227695E+0	1.352692E+0	1.214014E+0	1.308385E+0	1.267565E+0	1.296025E+0	1.137930E+0	1.203708E+0	1.310825E+0	1.345848E+0	1.207266E+0	1.123187E+0	1.277990E+0	1.342410E+0	1.278782E+0	1.206076E+0	1.253151E+0	1.344526E+0	1.212920E+0	1.312897E+0	1.334719E+0	1.324869E+0	1.171024E+0	1.222671E+0	1.277516E+0	1.302082E+0	1.194142E+0	1.145282E+0	1.237816E+0	1.335657E+0	1.356361E+0	1.245092E+0	1.243497E+0	1.291627E+0	1.155414E+0	1.345234E+0	1.284515E+0	1.360387E+0	1.126350E+0	1.200962E+0	1.090003E+0	1.298124E+0	1.208851E+0	1.183903E+0	1.302004E+0	1.276594E+0	1.292393E+0	1.157541E+0	1.269837E+0	1.283468E+0	1.203600E+0	1.310639E+0	1.288323E+0	1.291700E+0	1.127417E+0	1.231377E+0	1.317711E+0	1.270618E+0	1.155352E+0	1.108459E+0	1.214175E+0	1.320902E+0	1.331228E+0	1.172069E+0	1.271532E+0	1.200790E+0
5.475070E+2	1.236742E+0	1.349497E+0	1.411925E+0	1.129228E+0	1.285491E+0	1.316545E+0	1.373205E+0	1.383334E+0	1.348561E+0	1.325869E+0	1.359833E+0	1.438868E+0	1.439369E+0	1.398499E+0	1.432235E+0	1.417696E+0	1.396591E+0	1.297941E+0	1.402116E+0	1.375053E+0	1.319379E+0	1.253906E+0	1.411543E+0	1.461573E+0	1.406469E+0	1.317079E+0	1.423305E+0	1.434936E+0	1.410368E+0	1.413501E+0	1.434382E+0	1.344995E+0	1.327413E+0	1.178723E+0	1.408065E+0	1.372647E+0	1.303701E+0	1.201715E+0	1.417713E+0	1.438273E+0	1.354145E+0	1.296315E+0	1.465214E+0	1.389146E+0	1.336344E+0	1.400856E+0	1.401761E+0	1.307024E+0	1.271566E+0	1.405098E+0	1.408036E+0	1.310656E+0	1.235423E+0	1.360803E+0	1.402556E+0	1.403617E+0	1.232297E+0	1.392214E+0	1.477131E+0	1.301966E+0	1.441394E+0	1.402820E+0	1.386476E+0	1.267985E+0	1.323091E+0	1.402087E+0	1.372051E+0	1.374332E+0	1.193426E+0	1.313047E+0	1.447691E+0	1.353792E+0	1.105143E+0	1.323961E+0	1.346379E+0	1.366115E+0	1.444346E+0	1.419243E+0	1.427979E+0	1.233274E+0	1.318520E+0	1.283606E+0	1.411284E+0	1.303069E+0	1.273776E+0	1.252915E+0	1.329172E+0	1.437544E+0	1.298428E+0	1.358088E+0	1.397754E+0	1.287730E+0	1.400519E+0	1.433615E+0	1.425370E+0	1.308413E+0	1.304329E+0	1.341803E+0	1.415591E+0	1.270570E+0	1.249074E+0	1.239173E+0	1.410606E+0	1.385512E+0	1.257858E+0	1.278725E+0	1.441543E+0	1.323801E+0	1.416112E+0	1.379183E+0	1.442869E+0	1.271617E+0	1.331324E+0	1.399787E+0	1.389929E+0	1.263112E+0	1.207756E+0	1.272957E+0	1.376610E+0	1.384040E+0	1.320823E+0	1.419417E+0	1.433783E+0	1.347008E+0	1.403761E+0	1.428173E+0	1.425869E+0	1.249682E+0	1.332164E+0	1.369120E+0	1.444839E+0	1.327802E+0	1.251147E+0	1.286409E+0	1.411734E+0	1.395254E+0	1.282731E+0	1.310155E+0	1.446186E+0	1.268821E+0	1.423655E+0	1.377012E+0	1.434977E+0	1.195081E+0	1.250869E+0	1.147958E+0	1.442771E+0	1.272776E+0	1.204345E+0	1.268263E+0	1.393393E+0	1.394416E+0	1.299647E+0	1.332837E+0	1.414158E+0	1.291549E+0	1.395654E+0	1.427374E+0	1.379113E+0	1.237950E+0	1.358112E+0	1.364564E+0	1.418294E+0	1.227920E+0	1.241068E+0	1.307294E+0	1.398076E+0	1.403198E+0	1.255414E+0	1.344525E+0	1.112229E+0
5.482600E+2	1.222445E+0	1.427983E+0	1.447220E+0	1.191274E+0	1.340340E+0	1.376570E+0	1.451814E+0	1.498176E+0	1.384692E+0	1.450938E+0	1.483682E+0	1.471792E+0	1.506962E+0	1.534414E+0	1.470638E+0	1.545440E+0	1.438846E+0	1.406945E+0	1.400476E+0	1.450211E+0	1.351022E+0	1.324732E+0	1.464962E+0	1.462492E+0	1.414322E+0	1.381208E+0	1.462652E+0	1.481800E+0	1.419822E+0	1.454542E+0	1.458672E+0	1.483105E+0	1.368646E+0	1.225384E+0	1.470682E+0	1.476371E+0	1.293172E+0	1.242295E+0	1.510563E+0	1.463909E+0	1.337904E+0	1.360051E+0	1.510028E+0	1.480618E+0	1.417080E+0	1.452777E+0	1.541612E+0	1.468899E+0	1.344621E+0	1.445171E+0	1.479284E+0	1.515460E+0	1.278198E+0	1.382824E+0	1.469417E+0	1.462008E+0	1.303019E+0	1.435552E+0	1.487669E+0	1.414756E+0	1.475634E+0	1.523983E+0	1.432670E+0	1.378224E+0	1.375024E+0	1.424040E+0	1.475216E+0	1.450203E+0	1.272215E+0	1.372595E+0	1.497858E+0	1.451442E+0	1.309913E+0	1.430504E+0	1.411219E+0	1.384882E+0	1.487940E+0	1.460890E+0	1.487247E+0	1.258464E+0	1.392101E+0	1.367695E+0	1.470757E+0	1.348053E+0	1.306566E+0	1.303629E+0	1.484608E+0	1.490958E+0	1.372882E+0	1.323370E+0	1.489640E+0	1.382580E+0	1.406346E+0	1.453594E+0	1.469780E+0	1.336469E+0	1.376985E+0	1.435812E+0	1.518851E+0	1.370981E+0	1.273771E+0	1.271449E+0	1.515358E+0	1.423555E+0	1.350877E+0	1.328126E+0	1.436775E+0	1.460372E+0	1.438214E+0	1.453757E+0	1.492907E+0	1.235353E+0	1.418386E+0	1.496651E+0	1.381113E+0	1.375368E+0	1.273378E+0	1.399864E+0	1.490801E+0	1.412923E+0	1.347792E+0	1.338427E+0	1.459123E+0	1.371047E+0	1.437709E+0	1.468225E+0	1.461941E+0	1.312429E+0	1.409544E+0	1.398894E+0	1.432467E+0	1.360538E+0	1.270789E+0	1.330951E+0	1.467268E+0	1.434693E+0	1.326120E+0	1.414339E+0	1.481339E+0	1.357677E+0	1.482947E+0	1.424059E+0	1.473536E+0	1.248259E+0	1.309094E+0	1.214908E+0	1.477370E+0	1.293043E+0	1.298280E+0	1.344304E+0	1.437513E+0	1.423773E+0	1.338007E+0	1.455949E+0	1.428160E+0	1.394245E+0	1.458472E+0	1.435434E+0	1.445900E+0	1.292087E+0	1.374224E+0	1.455951E+0	1.421123E+0	1.306317E+0	1.287698E+0	1.394723E+0	1.459305E+0	1.498454E+0	1.392532E+0	1.446716E+0	1.223644E+0
5.490490E+2	1.200997E+0	1.366359E+0	1.408334E+0	1.186843E+0	1.288303E+0	1.306796E+0	1.404122E+0	1.415619E+0	1.363014E+0	1.390358E+0	1.420083E+0	1.442918E+0	1.394776E+0	1.492629E+0	1.466941E+0	1.471790E+0	1.430506E+0	1.359459E+0	1.420687E+0	1.495940E+0	1.360650E+0	1.225572E+0	1.429189E+0	1.459736E+0	1.358234E+0	1.364599E+0	1.497463E+0	1.484461E+0	1.437784E+0	1.400124E+0	1.455203E+0	1.468737E+0	1.422411E+0	1.171916E+0	1.489783E+0	1.448648E+0	1.254559E+0	1.177078E+0	1.500562E+0	1.432469E+0	1.363049E+0	1.307357E+0	1.467400E+0	1.413105E+0	1.433415E+0	1.411337E+0	1.473998E+0	1.445835E+0	1.300589E+0	1.385060E+0	1.408035E+0	1.400981E+0	1.244684E+0	1.353759E+0	1.429959E+0	1.447409E+0	1.328043E+0	1.365261E+0	1.464086E+0	1.448274E+0	1.454171E+0	1.449781E+0	1.422128E+0	1.395989E+0	1.359127E+0	1.379584E+0	1.411560E+0	1.445109E+0	1.249236E+0	1.382372E+0	1.431639E+0	1.441375E+0	1.314260E+0	1.409915E+0	1.408131E+0	1.409007E+0	1.410059E+0	1.461373E+0	1.444987E+0	1.447168E+0	1.347733E+0	1.303011E+0	1.434668E+0	1.521265E+0	1.323189E+0	1.314593E+0	1.441337E+0	1.431203E+0	1.361009E+0	1.299503E+0	1.417325E+0	1.440035E+0	1.383034E+0	1.435991E+0	1.480881E+0	1.354542E+0	1.326604E+0	1.422383E+0	1.470848E+0	1.385876E+0	1.227410E+0	1.267284E+0	1.439738E+0	1.453990E+0	1.284510E+0	1.312924E+0	1.447508E+0	1.363719E+0	1.363169E+0	1.427775E+0	1.464381E+0	1.258947E+0	1.374584E+0	1.441903E+0	1.441066E+0	1.350549E+0	1.243339E+0	1.396843E+0	1.417434E+0	1.394321E+0	1.280636E+0	1.370607E+0	1.447602E+0	1.384936E+0	1.390780E+0	1.435361E+0	1.467095E+0	1.271509E+0	1.291105E+0	1.421794E+0	1.418553E+0	1.363812E+0	1.280848E+0	1.320155E+0	1.482261E+0	1.369506E+0	1.322981E+0	1.362806E+0	1.435882E+0	1.373460E+0	1.380617E+0	1.374870E+0	1.410622E+0	1.261804E+0	1.278423E+0	1.136966E+0	1.435963E+0	1.314871E+0	1.258370E+0	1.297470E+0	1.448415E+0	1.398750E+0	1.279653E+0	1.399305E+0	1.387904E+0	1.333063E+0	1.411714E+0	1.480272E+0	1.481258E+0	1.271784E+0	1.403761E+0	1.298046E+0	1.458467E+0	1.312672E+0	1.240094E+0	1.381271E+0	1.464963E+0	1.420838E+0	1.291262E+0	1.429196E+0	1.235070E+0
5.497740E+2	1.169062E+0	1.316358E+0	1.363468E+0	1.101159E+0	1.224548E+0	1.267295E+0	1.364819E+0	1.318764E+0	1.351895E+0	1.377168E+0	1.425104E+0	1.362889E+0	1.378814E+0	1.383347E+0	1.411412E+0	1.409793E+0	1.424390E+0	1.276898E+0	1.375889E+0	1.416050E+0	1.259305E+0	1.256264E+0	1.394849E+0	1.414681E+0	1.344772E+0	1.276479E+0	1.388497E+0	1.347065E+0	1.428329E+0	1.367379E+0	1.444794E+0	1.398082E+0	1.312800E+0	1.152963E+0	1.442559E+0	1.307435E+0	1.207609E+0	1.136502E+0	1.424854E+0	1.369111E+0	1.243606E+0	1.291297E+0	1.381602E+0	1.384248E+0	1.400282E+0	1.332744E+0	1.411484E+0	1.363595E+0	1.247550E+0	1.340769E+0	1.387678E+0	1.337964E+0	1.182506E+0	1.326016E+0	1.399269E+0	1.345744E+0	1.213801E+0	1.319283E+0	1.403880E+0	1.333886E+0	1.413799E+0	1.370413E+0	1.399530E+0	1.356360E+0	1.307194E+0	1.292861E+0	1.320469E+0	1.359612E+0	1.156374E+0	1.346376E+0	1.442174E+0	1.406645E+0	1.264518E+0	1.312124E+0	1.311905E+0	1.372012E+0	1.370873E+0	1.392605E+0	1.438181E+0	1.410045E+0	1.294173E+0	1.264202E+0	1.355372E+0	1.359429E+0	1.222519E+0	1.230985E+0	1.411730E+0	1.392728E+0	1.284402E+0	1.336390E+0	1.391771E+0	1.403180E+0	1.368947E+0	1.375108E+0	1.417294E+0	1.407324E+0	1.267739E+0	1.336969E+0	1.420615E+0	1.374293E+0	1.201413E+0	1.217308E+0	1.415646E+0	1.385987E+0	1.257856E+0	1.277638E+0	1.396225E+0	1.391035E+0	1.351659E+0	1.313271E+0	1.398911E+0	1.346759E+0	1.298879E+0	1.398736E+0	1.400511E+0	1.391163E+0	1.199901E+0	1.318785E+0	1.376608E+0	1.412433E+0	1.312363E+0	1.337892E+0	1.437813E+0	1.373184E+0	1.362820E+0	1.395312E+0	1.408865E+0	1.403819E+0	1.332166E+0	1.281524E+0	1.365987E+0	1.347991E+0	1.247798E+0	1.281911E+0	1.404517E+0	1.368412E+0	1.301026E+0	1.377932E+0	1.389211E+0	1.345401E+0	1.422218E+0	1.330495E+0	1.399965E+0	1.283878E+0	1.244113E+0	1.153455E+0	1.336128E+0	1.285249E+0	1.225759E+0	1.286897E+0	1.364320E+0	1.363136E+0	1.264524E+0	1.338619E+0	1.352898E+0	1.264235E+0	1.357873E+0	1.393115E+0	1.344737E+0	1.172080E+0	1.287763E+0	1.337378E+0	1.397925E+0	1.278771E+0	1.195891E+0	1.287118E+0	1.341485E+0	1.343928E+0	1.329799E+0	1.318249E+0	1.206503E+0
5.505170E+2	1.168586E+0	1.295427E+0	1.367057E+0	1.032712E+0	1.259240E+0	1.243695E+0	1.322371E+0	1.302623E+0	1.262393E+0	1.315122E+0	1.302371E+0	1.358837E+0	1.406040E+0	1.334216E+0	1.397532E+0	1.374007E+0	1.390473E+0	1.304958E+0	1.336005E+0	1.360860E+0	1.272601E+0	1.217546E+0	1.344293E+0	1.412384E+0	1.313365E+0	1.246493E+0	1.391525E+0	1.337480E+0	1.345136E+0	1.303273E+0	1.377995E+0	1.365753E+0	1.286700E+0	1.110678E+0	1.394799E+0	1.378296E+0	1.238323E+0	1.166935E+0	1.400094E+0	1.354599E+0	1.304376E+0	1.214512E+0	1.345536E+0	1.360288E+0	1.357345E+0	1.321788E+0	1.303124E+0	1.347493E+0	1.173491E+0	1.304387E+0	1.374822E+0	1.379975E+0	1.163983E+0	1.275808E+0	1.361456E+0	1.392665E+0	1.204008E+0	1.334078E+0	1.372773E+0	1.362616E+0	1.358607E+0	1.307481E+0	1.328733E+0	1.343604E+0	1.244667E+0	1.303290E+0	1.316079E+0	1.303559E+0	1.169506E+0	1.235719E+0	1.384983E+0	1.358824E+0	1.229261E+0	1.372344E+0	1.298011E+0	1.401502E+0	1.355687E+0	1.385345E+0	1.339568E+0	1.323870E+0	1.275777E+0	1.189276E+0	1.374179E+0	1.281870E+0	1.196660E+0	1.183469E+0	1.351945E+0	1.349270E+0	1.233685E+0	1.289197E+0	1.384157E+0	1.355484E+0	1.323287E+0	1.379861E+0	1.360770E+0	1.278457E+0	1.205161E+0	1.326227E+0	1.370379E+0	1.350015E+0	1.190149E+0	1.217828E+0	1.359628E+0	1.350798E+0	1.242180E+0	1.254838E+0	1.341360E+0	1.341658E+0	1.299639E+0	1.331075E+0	1.323618E+0	1.377779E+0	1.258866E+0	1.325562E+0	1.367595E+0	1.325163E+0	1.163854E+0	1.331878E+0	1.372750E+0	1.383060E+0	1.242562E+0	1.282651E+0	1.372167E+0	1.355020E+0	1.290426E+0	1.386582E+0	1.340842E+0	1.356532E+0	1.281103E+0	1.273508E+0	1.359802E+0	1.382362E+0	1.208996E+0	1.213972E+0	1.396744E+0	1.339380E+0	1.216341E+0	1.261424E+0	1.358298E+0	1.413797E+0	1.393050E+0	1.311780E+0	1.386773E+0	1.322006E+0	1.236314E+0	1.103993E+0	1.348041E+0	1.321627E+0	1.138154E+0	1.250136E+0	1.353421E+0	1.310680E+0	1.244533E+0	1.269260E+0	1.326058E+0	1.361469E+0	1.353145E+0	1.381528E+0	1.319204E+0	1.290282E+0	1.321595E+0	1.314820E+0	1.375859E+0	1.298899E+0	1.169176E+0	1.236936E+0	1.375955E+0	1.385559E+0	1.188200E+0	1.318247E+0	1.263638E+0
5.512620E+2	1.155718E+0	1.361124E+0	1.300056E+0	1.093773E+0	1.260646E+0	1.243694E+0	1.282542E+0	1.329376E+0	1.285184E+0	1.338571E+0	1.408927E+0	1.359848E+0	1.386327E+0	1.354420E+0	1.365142E+0	1.376503E+0	1.372126E+0	1.304419E+0	1.420141E+0	1.416049E+0	1.266640E+0	1.255792E+0	1.338091E+0	1.383419E+0	1.344773E+0	1.229425E+0	1.373871E+0	1.353990E+0	1.381060E+0	1.370608E+0	1.372786E+0	1.433609E+0	1.280437E+0	1.097069E+0	1.367203E+0	1.401916E+0	1.241395E+0	1.166936E+0	1.383427E+0	1.365727E+0	1.229982E+0	1.262691E+0	1.414938E+0	1.378259E+0	1.363880E+0	1.344174E+0	1.395277E+0	1.348364E+0	1.242545E+0	1.324423E+0	1.403214E+0	1.418312E+0	1.224398E+0	1.263480E+0	1.372415E+0	1.334795E+0	1.209447E+0	1.328268E+0	1.398863E+0	1.317927E+0	1.368314E+0	1.371820E+0	1.356852E+0	1.410113E+0	1.273282E+0	1.281335E+0	1.342966E+0	1.364141E+0	1.181232E+0	1.263273E+0	1.349867E+0	1.344228E+0	1.252444E+0	1.315213E+0	1.342264E+0	1.327512E+0	1.364013E+0	1.396481E+0	1.338595E+0	1.330939E+0	1.275236E+0	1.278755E+0	1.358929E+0	1.397690E+0	1.186959E+0	1.224588E+0	1.386107E+0	1.356965E+0	1.238002E+0	1.275093E+0	1.355888E+0	1.367405E+0	1.344660E+0	1.343238E+0	1.406192E+0	1.392106E+0	1.208872E+0	1.275195E+0	1.350288E+0	1.347258E+0	1.173685E+0	1.195965E+0	1.403324E+0	1.355079E+0	1.215006E+0	1.249409E+0	1.413516E+0	1.371600E+0	1.297336E+0	1.316161E+0	1.387216E+0	1.369911E+0	1.263191E+0	1.367678E+0	1.358192E+0	1.415417E+0	1.150453E+0	1.356557E+0	1.399778E+0	1.341445E+0	1.268474E+0	1.290693E+0	1.394049E+0	1.386004E+0	1.337361E+0	1.398903E+0	1.390313E+0	1.384724E+0	1.277944E+0	1.326754E+0	1.361864E+0	1.354537E+0	1.197978E+0	1.259862E+0	1.365088E+0	1.395800E+0	1.221046E+0	1.368410E+0	1.352238E+0	1.412042E+0	1.392095E+0	1.352414E+0	1.341617E+0	1.377188E+0	1.175489E+0	1.110488E+0	1.320246E+0	1.280049E+0	1.205319E+0	1.238554E+0	1.356537E+0	1.337631E+0	1.248856E+0	1.331104E+0	1.373318E+0	1.317224E+0	1.327642E+0	1.361376E+0	1.358980E+0	1.292988E+0	1.282394E+0	1.384229E+0	1.380387E+0	1.362460E+0	1.189577E+0	1.234867E+0	1.390876E+0	1.443417E+0	1.209709E+0	1.348905E+0	1.303632E+0
5.520150E+2	1.279636E+0	1.289032E+0	1.402355E+0	1.106577E+0	1.257365E+0	1.248312E+0	1.335468E+0	1.317381E+0	1.349115E+0	1.399153E+0	1.339749E+0	1.358330E+0	1.390079E+0	1.306663E+0	1.384114E+0	1.434340E+0	1.398258E+0	1.322226E+0	1.361680E+0	1.380309E+0	1.264349E+0	1.263821E+0	1.419172E+0	1.389857E+0	1.327386E+0	1.307391E+0	1.412711E+0	1.370498E+0	1.410839E+0	1.372911E+0	1.350234E+0	1.367749E+0	1.313320E+0	1.104846E+0	1.380472E+0	1.375215E+0	1.240957E+0	1.167903E+0	1.366290E+0	1.430052E+0	1.207457E+0	1.259176E+0	1.349906E+0	1.410381E+0	1.355479E+0	1.311786E+0	1.372583E+0	1.374037E+0	1.246048E+0	1.329170E+0	1.362501E+0	1.378924E+0	1.230132E+0	1.271844E+0	1.393791E+0	1.359299E+0	1.226856E+0	1.357334E+0	1.405387E+0	1.323779E+0	1.404087E+0	1.407982E+0	1.345808E+0	1.394170E+0	1.290769E+0	1.348298E+0	1.333640E+0	1.418493E+0	1.146995E+0	1.261496E+0	1.427123E+0	1.385505E+0	1.267898E+0	1.391386E+0	1.384460E+0	1.392923E+0	1.397810E+0	1.380983E+0	1.375514E+0	1.358339E+0	1.288219E+0	1.260428E+0	1.376721E+0	1.425611E+0	1.189732E+0	1.251544E+0	1.337144E+0	1.380503E+0	1.305441E+0	1.284860E+0	1.371110E+0	1.381501E+0	1.377689E+0	1.358934E+0	1.400135E+0	1.371659E+0	1.252359E+0	1.376722E+0	1.398845E+0	1.359394E+0	1.252105E+0	1.180866E+0	1.369710E+0	1.328926E+0	1.247929E+0	1.259723E+0	1.362230E+0	1.413099E+0	1.334625E+0	1.335885E+0	1.374590E+0	1.402679E+0	1.280496E+0	1.374520E+0	1.406975E+0	1.389470E+0	1.143523E+0	1.311733E+0	1.323653E+0	1.385020E+0	1.280636E+0	1.338965E+0	1.400960E+0	1.403097E+0	1.384289E+0	1.349611E+0	1.399072E+0	1.451561E+0	1.280574E+0	1.344502E+0	1.436592E+0	1.373629E+0	1.179295E+0	1.250415E+0	1.398406E+0	1.422641E+0	1.298414E+0	1.288870E+0	1.405576E+0	1.341309E+0	1.376315E+0	1.373802E+0	1.408084E+0	1.370167E+0	1.239953E+0	1.117982E+0	1.446172E+0	1.359047E+0	1.191205E+0	1.279342E+0	1.375742E+0	1.368428E+0	1.276952E+0	1.270415E+0	1.319642E+0	1.396433E+0	1.402739E+0	1.338704E+0	1.389915E+0	1.394494E+0	1.304947E+0	1.370347E+0	1.389438E+0	1.376236E+0	1.184719E+0	1.316606E+0	1.353316E+0	1.386970E+0	1.298432E+0	1.300729E+0	1.283634E+0
5.527590E+2	1.343030E+0	1.282637E+0	1.335950E+0	1.078015E+0	1.225956E+0	1.238049E+0	1.366912E+0	1.321532E+0	1.323543E+0	1.280433E+0	1.382148E+0	1.259051E+0	1.313096E+0	1.296563E+0	1.343394E+0	1.388571E+0	1.343213E+0	1.220238E+0	1.357858E+0	1.321438E+0	1.274894E+0	1.231711E+0	1.318535E+0	1.402266E+0	1.288126E+0	1.256181E+0	1.382950E+0	1.301800E+0	1.367352E+0	1.292664E+0	1.334182E+0	1.367346E+0	1.300795E+0	1.145673E+0	1.363494E+0	1.375730E+0	1.162853E+0	1.149063E+0	1.365814E+0	1.372010E+0	1.234175E+0	1.240608E+0	1.426416E+0	1.396224E+0	1.293408E+0	1.302736E+0	1.415189E+0	1.335744E+0	1.173993E+0	1.272224E+0	1.338931E+0	1.360019E+0	1.152519E+0	1.268763E+0	1.353237E+0	1.392664E+0	1.235561E+0	1.285459E+0	1.328621E+0	1.295580E+0	1.347875E+0	1.301847E+0	1.358860E+0	1.315360E+0	1.246256E+0	1.301093E+0	1.252425E+0	1.346589E+0	1.176540E+0	1.262828E+0	1.358897E+0	1.304964E+0	1.209461E+0	1.302861E+0	1.312935E+0	1.326975E+0	1.435531E+0	1.352894E+0	1.324508E+0	1.353037E+0	1.256840E+0	1.262044E+0	1.324871E+0	1.292730E+0	1.158791E+0	1.168393E+0	1.359349E+0	1.310791E+0	1.266057E+0	1.221393E+0	1.343926E+0	1.343558E+0	1.341259E+0	1.374154E+0	1.322414E+0	1.351210E+0	1.238570E+0	1.307423E+0	1.297820E+0	1.346153E+0	1.139888E+0	1.182428E+0	1.328819E+0	1.321316E+0	1.215528E+0	1.232037E+0	1.372369E+0	1.306463E+0	1.302401E+0	1.338771E+0	1.368044E+0	1.342826E+0	1.277251E+0	1.322929E+0	1.291188E+0	1.322342E+0	1.167551E+0	1.274972E+0	1.330826E+0	1.314520E+0	1.261071E+0	1.285332E+0	1.284638E+0	1.290916E+0	1.236010E+0	1.330613E+0	1.332081E+0	1.337893E+0	1.262152E+0	1.261485E+0	1.369592E+0	1.317438E+0	1.158216E+0	1.147383E+0	1.336209E+0	1.319661E+0	1.234639E+0	1.268146E+0	1.367997E+0	1.373461E+0	1.343322E+0	1.253505E+0	1.340092E+0	1.324011E+0	1.198364E+0	1.080511E+0	1.314574E+0	1.255105E+0	1.246200E+0	1.237544E+0	1.376780E+0	1.318381E+0	1.263444E+0	1.262323E+0	1.288719E+0	1.307391E+0	1.353149E+0	1.307468E+0	1.337371E+0	1.310583E+0	1.287227E+0	1.320604E+0	1.328896E+0	1.282478E+0	1.121088E+0	1.324884E+0	1.326564E+0	1.309354E+0	1.261688E+0	1.310948E+0	1.175076E+0
5.535380E+2	1.283451E+0	1.213452E+0	1.209125E+0	9.928247E-1	1.271896E+0	1.135955E+0	1.256863E+0	1.243587E+0	1.307423E+0	1.226692E+0	1.318549E+0	1.267663E+0	1.246908E+0	1.249729E+0	1.217076E+0	1.289958E+0	1.258701E+0	1.177609E+0	1.167729E+0	1.259946E+0	1.224909E+0	1.139161E+0	1.247947E+0	1.290554E+0	1.214652E+0	1.174522E+0	1.254819E+0	1.268250E+0	1.244450E+0	1.217026E+0	1.262180E+0	1.242410E+0	1.216759E+0	1.037287E+0	1.284957E+0	1.292543E+0	1.133453E+0	1.069838E+0	1.258681E+0	1.253028E+0	1.172881E+0	1.115644E+0	1.301269E+0	1.248672E+0	1.229009E+0	1.255579E+0	1.291081E+0	1.202155E+0	1.119951E+0	1.243224E+0	1.281079E+0	1.299103E+0	1.082843E+0	1.119471E+0	1.261170E+0	1.198716E+0	1.165382E+0	1.212000E+0	1.241826E+0	1.252487E+0	1.300347E+0	1.231870E+0	1.229819E+0	1.253406E+0	1.162001E+0	1.267064E+0	1.206878E+0	1.272985E+0	1.047100E+0	1.190393E+0	1.264587E+0	1.232482E+0	1.182898E+0	1.218450E+0	1.255301E+0	1.245481E+0	1.288579E+0	1.265242E+0	1.247753E+0	1.255373E+0	1.182717E+0	1.117046E+0	1.226265E+0	1.262221E+0	1.117691E+0	1.161996E+0	1.273375E+0	1.262811E+0	1.165708E+0	1.223020E+0	1.218876E+0	1.275265E+0	1.246057E+0	1.255236E+0	1.269425E+0	1.285589E+0	1.200917E+0	1.270896E+0	1.274935E+0	1.320776E+0	1.100024E+0	1.072064E+0	1.266081E+0	1.259499E+0	1.129302E+0	1.149522E+0	1.263240E+0	1.232400E+0	1.243931E+0	1.229558E+0	1.243182E+0	1.244527E+0	1.181537E+0	1.261338E+0	1.204201E+0	1.227009E+0	1.098695E+0	1.184825E+0	1.266283E+0	1.257729E+0	1.170119E+0	1.192009E+0	1.227051E+0	1.231617E+0	1.264467E+0	1.234077E+0	1.287251E+0	1.267870E+0	1.173715E+0	1.220835E+0	1.282494E+0	1.185959E+0	1.057142E+0	1.172129E+0	1.246248E+0	1.239140E+0	1.141067E+0	1.224453E+0	1.253442E+0	1.237839E+0	1.262035E+0	1.231048E+0	1.255359E+0	1.313478E+0	1.094392E+0	1.039541E+0	1.300394E+0	1.201573E+0	1.117713E+0	1.202799E+0	1.270367E+0	1.249560E+0	1.151057E+0	1.244406E+0	1.257213E+0	1.219442E+0	1.241212E+0	1.241468E+0	1.255851E+0	1.226669E+0	1.198619E+0	1.212441E+0	1.199892E+0	1.261822E+0	1.083201E+0	1.250389E+0	1.241155E+0	1.246556E+0	1.110232E+0	1.167883E+0	1.083661E+0
5.542530E+2	1.221968E+0	1.145430E+0	1.122381E+0	9.337327E-1	1.199234E+0	1.087730E+0	1.112223E+0	1.118138E+0	1.191235E+0	1.096734E+0	1.138355E+0	1.199788E+0	1.230010E+0	1.180391E+0	1.236971E+0	1.180525E+0	1.251473E+0	1.105840E+0	1.151338E+0	1.195823E+0	1.194183E+0	1.009781E+0	1.205975E+0	1.153552E+0	1.218017E+0	1.074872E+0	1.194284E+0	1.156948E+0	1.205217E+0	1.137699E+0	1.176295E+0	1.188519E+0	1.159867E+0	1.039717E+0	1.191562E+0	1.148252E+0	1.216822E+0	9.804702E-1	1.144884E+0	1.182414E+0	1.149829E+0	1.098079E+0	1.196345E+0	1.160467E+0	1.159939E+0	1.116018E+0	1.176238E+0	1.163429E+0	1.184499E+0	1.161497E+0	1.236618E+0	1.185674E+0	1.157370E+0	1.115507E+0	1.161978E+0	1.202365E+0	1.147430E+0	1.120571E+0	1.234802E+0	1.156720E+0	1.191495E+0	1.124788E+0	1.189149E+0	1.172777E+0	1.127557E+0	1.111734E+0	1.137736E+0	1.212402E+0	1.149810E+0	1.133952E+0	1.156230E+0	1.172078E+0	1.120117E+0	1.128378E+0	1.184807E+0	1.134498E+0	1.161714E+0	1.211973E+0	1.163225E+0	1.132074E+0	1.126991E+0	1.087400E+0	1.112406E+0	1.157778E+0	1.046114E+0	1.029502E+0	1.183416E+0	1.179970E+0	1.106901E+0	1.129721E+0	1.193866E+0	1.139220E+0	1.105196E+0	1.164382E+0	1.196751E+0	1.148636E+0	1.096443E+0	1.166681E+0	1.158279E+0	1.199952E+0	1.048898E+0	1.008553E+0	1.178134E+0	1.165345E+0	1.076521E+0	1.072977E+0	1.156496E+0	1.150457E+0	1.130680E+0	1.146328E+0	1.150116E+0	1.145795E+0	1.099343E+0	1.139204E+0	1.183630E+0	1.150856E+0	1.025681E+0	1.113817E+0	1.166437E+0	1.169605E+0	1.090801E+0	1.168946E+0	1.175801E+0	1.193154E+0	1.110195E+0	1.155514E+0	1.187278E+0	1.192848E+0	1.066327E+0	1.078274E+0	1.172723E+0	1.161409E+0	1.001095E+0	1.068647E+0	1.231810E+0	1.171764E+0	1.085133E+0	1.097303E+0	1.200710E+0	1.188734E+0	1.150145E+0	1.128394E+0	1.184833E+0	1.161971E+0	1.020572E+0	9.850828E-1	1.143835E+0	1.172470E+0	1.062715E+0	1.085968E+0	1.098552E+0	1.226461E+0	1.074332E+0	1.156552E+0	1.092099E+0	1.203600E+0	1.125970E+0	1.176979E+0	1.152236E+0	1.090873E+0	1.118604E+0	1.142454E+0	1.176694E+0	1.187134E+0	1.021511E+0	1.108639E+0	1.132595E+0	1.228916E+0	1.155937E+0	1.159123E+0	9.522507E-1
5.550140E+2	1.113776E+0	1.041361E+0	1.116399E+0	8.894138E-1	1.113448E+0	1.014365E+0	1.047240E+0	1.059103E+0	1.100621E+0	1.054230E+0	1.150070E+0	1.091898E+0	1.141293E+0	1.048607E+0	1.115280E+0	1.113119E+0	1.065767E+0	1.012488E+0	1.077582E+0	1.142737E+0	1.074490E+0	1.002226E+0	1.080536E+0	1.127807E+0	1.124352E+0	1.010743E+0	1.068678E+0	1.060025E+0	1.085625E+0	1.062065E+0	1.092143E+0	1.076355E+0	1.136900E+0	1.047007E+0	1.083311E+0	1.109227E+0	1.083432E+0	9.408585E-1	1.096317E+0	1.087129E+0	1.118397E+0	9.665902E-1	1.101802E+0	1.047758E+0	1.068469E+0	1.087914E+0	1.082231E+0	1.111211E+0	1.098933E+0	9.969875E-1	1.142873E+0	1.098501E+0	1.089899E+0	1.012896E+0	1.045251E+0	1.086100E+0	1.056578E+0	1.060852E+0	1.093820E+0	1.052443E+0	1.109217E+0	1.052465E+0	1.106303E+0	1.048874E+0	1.059199E+0	1.027208E+0	1.093835E+0	1.097465E+0	1.065860E+0	9.886357E-1	1.099542E+0	1.084996E+0	1.066509E+0	1.037793E+0	1.081376E+0	1.081954E+0	1.158776E+0	1.072986E+0	1.101044E+0	1.079486E+0	1.069099E+0	1.016248E+0	1.049378E+0	1.055916E+0	1.073358E+0	9.600554E-1	1.127048E+0	1.057748E+0	1.132258E+0	1.036421E+0	1.107419E+0	1.106157E+0	1.079452E+0	1.083039E+0	1.133668E+0	1.115349E+0	1.058260E+0	1.069451E+0	1.076229E+0	1.109473E+0	1.004704E+0	9.809613E-1	1.072822E+0	1.104955E+0	1.044644E+0	1.021947E+0	1.117137E+0	1.093725E+0	1.084644E+0	1.062132E+0	1.115043E+0	1.072396E+0	1.035535E+0	1.076032E+0	1.093704E+0	1.074139E+0	9.397260E-1	1.053382E+0	1.063281E+0	1.086866E+0	1.038451E+0	1.047198E+0	1.066965E+0	1.083642E+0	1.119180E+0	1.062059E+0	1.094523E+0	1.079633E+0	1.031585E+0	9.935388E-1	1.080986E+0	1.086121E+0	9.311562E-1	1.042998E+0	1.082982E+0	1.132872E+0	9.837208E-1	1.059774E+0	1.108581E+0	1.125600E+0	1.106154E+0	1.033225E+0	1.110248E+0	1.115817E+0	9.914593E-1	8.881562E-1	1.091650E+0	1.065409E+0	9.429861E-1	1.016978E+0	1.072597E+0	1.095079E+0	9.716726E-1	1.067542E+0	1.056510E+0	1.053924E+0	1.090076E+0	1.048510E+0	1.073171E+0	1.026810E+0	1.041810E+0	1.073045E+0	1.063533E+0	1.035641E+0	9.559363E-1	1.052768E+0	1.083717E+0	1.070157E+0	9.802835E-1	1.094891E+0	9.722478E-1
5.557600E+2	1.027507E+0	9.681067E-1	1.016494E+0	8.012686E-1	1.039847E+0	9.363829E-1	1.015273E+0	1.017132E+0	1.035579E+0	9.789918E-1	1.015063E+0	1.027063E+0	1.028165E+0	9.921282E-1	1.010245E+0	1.029067E+0	1.027959E+0	9.461160E-1	1.014205E+0	1.024478E+0	1.030464E+0	9.502848E-1	9.832383E-1	1.031722E+0	9.588961E-1	9.821392E-1	1.021764E+0	1.040853E+0	9.962859E-1	1.007182E+0	1.027077E+0	1.021671E+0	1.039817E+0	9.945151E-1	1.043513E+0	9.649360E-1	1.042626E+0	8.732293E-1	1.018706E+0	1.022318E+0	1.014145E+0	9.214226E-1	1.014912E+0	1.060282E+0	1.015267E+0	9.888403E-1	1.081304E+0	9.972027E-1	1.054900E+0	9.416238E-1	1.029845E+0	1.007652E+0	9.902353E-1	9.419944E-1	1.006341E+0	1.033963E+0	1.029921E+0	9.535688E-1	1.013045E+0	9.971120E-1	1.042782E+0	1.011137E+0	9.792699E-1	9.618645E-1	1.033232E+0	9.931786E-1	1.022499E+0	1.033486E+0	1.025526E+0	9.784144E-1	1.041852E+0	1.018552E+0	9.675044E-1	9.801476E-1	9.671407E-1	1.028340E+0	1.047093E+0	1.007125E+0	1.009230E+0	9.844701E-1	9.944349E-1	9.132935E-1	1.020913E+0	1.013000E+0	1.031336E+0	8.846709E-1	1.016593E+0	1.009313E+0	1.024355E+0	9.789226E-1	1.049787E+0	1.029191E+0	1.022621E+0	1.032142E+0	1.064527E+0	9.836282E-1	1.006818E+0	1.006063E+0	9.913889E-1	1.065337E+0	9.882396E-1	8.653908E-1	1.031370E+0	1.017458E+0	1.001269E+0	9.253169E-1	1.043192E+0	1.023338E+0	1.044131E+0	1.009210E+0	1.044427E+0	9.981264E-1	1.040402E+0	1.006016E+0	1.037868E+0	1.051011E+0	1.032613E+0	9.717977E-1	1.066039E+0	9.879703E-1	9.966758E-1	9.560203E-1	1.025502E+0	9.543634E-1	1.029314E+0	1.000954E+0	9.940370E-1	1.023707E+0	1.019477E+0	9.843787E-1	1.009865E+0	1.040839E+0	1.004928E+0	9.282693E-1	1.011899E+0	1.054542E+0	9.805840E-1	9.779944E-1	9.891765E-1	1.032653E+0	1.059771E+0	9.936604E-1	1.013845E+0	1.035548E+0	9.555893E-1	8.546824E-1	1.012236E+0	9.936895E-1	9.483398E-1	9.454691E-1	1.051315E+0	1.044550E+0	9.273661E-1	9.739079E-1	9.619928E-1	1.011862E+0	1.014506E+0	1.010724E+0	1.023081E+0	1.005156E+0	9.725358E-1	9.770288E-1	1.055046E+0	9.673105E-1	8.728748E-1	9.477494E-1	1.009629E+0	9.960684E-1	9.614637E-1	1.020437E+0	8.665489E-1
5.560130E+2	1.012733E+0	9.419445E-1	9.602604E-1	7.943745E-1	9.924996E-1	9.076528E-1	9.115092E-1	9.700869E-1	9.927729E-1	9.384417E-1	9.866108E-1	9.637474E-1	9.718352E-1	9.907508E-1	9.949766E-1	1.006182E+0	9.890390E-1	9.040263E-1	9.874341E-1	9.572016E-1	9.506678E-1	8.652902E-1	9.632064E-1	9.701173E-1	9.841355E-1	9.406178E-1	9.798940E-1	1.000381E+0	9.991220E-1	9.352347E-1	9.767626E-1	9.769619E-1	9.818806E-1	9.556319E-1	1.014327E+0	9.741784E-1	1.000940E+0	7.819287E-1	9.720438E-1	9.971668E-1	9.507555E-1	8.546741E-1	9.755642E-1	9.775211E-1	9.891330E-1	9.474007E-1	1.012768E+0	9.140910E-1	9.453148E-1	9.590232E-1	1.017524E+0	9.630153E-1	9.633351E-1	8.961934E-1	9.438678E-1	9.677494E-1	9.640946E-1	9.149888E-1	1.012543E+0	9.220953E-1	1.021318E+0	9.810806E-1	9.822830E-1	9.727984E-1	9.394386E-1	9.651861E-1	9.577467E-1	9.785657E-1	1.001139E+0	9.384187E-1	9.896802E-1	1.032646E+0	9.795782E-1	9.482364E-1	9.949282E-1	9.849113E-1	9.897838E-1	1.029886E+0	9.859123E-1	9.685600E-1	9.733345E-1	9.035911E-1	9.873652E-1	9.861134E-1	9.939309E-1	8.668522E-1	9.448533E-1	9.373373E-1	9.682460E-1	9.425789E-1	1.002485E+0	9.717380E-1	9.876488E-1	9.308227E-1	1.008507E+0	1.040216E+0	9.723471E-1	9.507326E-1	9.925049E-1	1.000788E+0	9.713413E-1	8.544584E-1	9.490241E-1	9.428009E-1	9.814107E-1	8.851445E-1	9.883283E-1	9.671319E-1	9.921089E-1	9.351191E-1	1.021512E+0	9.640507E-1	9.966011E-1	1.015492E+0	1.031403E+0	9.985498E-1	1.001188E+0	9.229479E-1	9.645373E-1	9.654500E-1	1.004608E+0	9.587021E-1	1.004771E+0	9.826768E-1	9.793876E-1	9.870896E-1	9.806390E-1	9.818777E-1	9.842078E-1	9.568966E-1	9.593592E-1	1.002650E+0	9.833709E-1	8.630300E-1	1.008567E+0	9.926439E-1	9.659468E-1	9.673521E-1	9.431122E-1	1.004009E+0	1.013866E+0	9.519571E-1	9.808640E-1	9.738406E-1	9.472716E-1	9.311243E-1	9.986224E-1	9.479544E-1	9.833827E-1	9.323762E-1	1.005636E+0	9.954626E-1	9.997685E-1	9.756422E-1	9.602431E-1	9.435787E-1	9.956141E-1	9.739462E-1	9.729910E-1	9.821476E-1	9.972381E-1	9.700881E-1	9.656476E-1	9.900873E-1	9.884812E-1	9.953440E-1	1.008599E+0	9.939514E-1	9.623608E-1	9.138696E-1	7.579910E-1
5.565030E+2	9.660238E-1	9.750836E-1	9.183843E-1	7.914201E-1	1.023440E+0	9.630608E-1	9.523851E-1	9.179703E-1	9.722045E-1	9.218308E-1	9.944213E-1	9.617215E-1	9.873259E-1	9.273846E-1	9.889611E-1	9.870412E-1	9.734703E-1	8.916157E-1	9.557455E-1	1.010812E+0	1.001113E+0	8.619852E-1	9.379282E-1	9.728759E-1	9.353400E-1	9.392333E-1	9.556803E-1	9.897295E-1	9.679238E-1	9.822765E-1	9.906434E-1	1.014085E+0	9.375148E-1	9.211232E-1	9.824890E-1	9.757193E-1	9.952364E-1	8.287866E-1	1.017753E+0	9.396101E-1	9.806161E-1	8.687270E-1	1.022016E+0	9.954891E-1	9.578647E-1	9.354927E-1	1.004432E+0	9.693542E-1	9.653304E-1	9.210596E-1	9.778843E-1	9.577641E-1	9.853844E-1	9.005975E-1	9.668842E-1	9.510654E-1	9.407015E-1	8.954349E-1	9.814364E-1	9.460371E-1	1.006497E+0	9.444480E-1	9.511525E-1	9.737080E-1	9.781221E-1	9.311564E-1	9.824400E-1	1.024993E+0	9.584610E-1	9.268644E-1	9.811521E-1	9.873442E-1	9.728168E-1	9.657366E-1	9.655972E-1	9.570314E-1	1.002519E+0	9.344846E-1	9.771680E-1	9.354149E-1	9.457414E-1	8.906542E-1	9.400939E-1	9.757721E-1	9.380542E-1	8.545166E-1	1.016023E+0	9.522751E-1	9.693247E-1	9.176269E-1	9.997669E-1	9.457208E-1	9.541329E-1	9.779148E-1	9.903390E-1	9.517677E-1	9.606809E-1	9.544928E-1	1.015947E+0	9.356872E-1	9.223806E-1	8.487318E-1	1.016805E+0	1.006997E+0	9.469201E-1	8.699448E-1	1.020531E+0	9.760624E-1	9.723115E-1	9.567685E-1	9.943880E-1	9.797784E-1	9.728079E-1	9.733775E-1	9.749789E-1	9.940370E-1	1.023369E+0	9.017964E-1	9.645378E-1	9.776898E-1	9.792260E-1	9.292035E-1	9.345172E-1	1.000306E+0	9.524275E-1	9.768198E-1	1.010527E+0	9.614172E-1	9.599933E-1	9.483086E-1	1.004712E+0	9.786454E-1	9.838501E-1	8.805776E-1	9.485921E-1	1.003600E+0	9.445146E-1	9.231015E-1	9.582647E-1	9.537350E-1	9.952186E-1	9.166699E-1	9.580317E-1	9.828713E-1	9.514306E-1	9.491101E-1	9.487053E-1	9.437969E-1	1.015992E+0	9.293553E-1	9.724146E-1	9.882439E-1	9.446560E-1	9.606145E-1	9.818302E-1	9.484951E-1	1.036233E+0	9.668924E-1	9.818303E-1	9.253028E-1	9.472959E-1	9.417456E-1	9.854504E-1	9.440037E-1	9.525362E-1	9.415421E-1	9.448015E-1	9.918355E-1	9.587753E-1	9.737217E-1	8.722636E-1
5.570220E+2	1.002723E+0	8.942703E-1	8.944549E-1	7.904349E-1	9.564032E-1	9.148352E-1	9.440010E-1	9.682422E-1	9.710918E-1	9.633581E-1	9.760115E-1	9.566558E-1	9.920198E-1	9.347315E-1	9.505561E-1	9.703976E-1	9.790308E-1	8.986300E-1	9.535606E-1	9.608808E-1	9.882730E-1	8.473472E-1	9.717916E-1	9.742547E-1	9.790873E-1	8.954056E-1	9.471047E-1	9.769482E-1	9.702872E-1	9.061790E-1	9.910766E-1	9.749662E-1	9.510856E-1	9.536878E-1	9.686919E-1	9.834218E-1	9.790021E-1	8.350663E-1	9.901372E-1	9.729837E-1	9.303242E-1	9.169060E-1	9.695532E-1	9.889548E-1	9.298642E-1	9.092952E-1	1.001191E+0	9.811039E-1	9.488177E-1	9.395142E-1	9.746696E-1	9.803449E-1	9.902357E-1	8.873858E-1	9.800364E-1	9.625362E-1	9.744310E-1	8.901500E-1	9.979930E-1	9.662541E-1	1.049424E+0	9.730960E-1	9.852955E-1	9.750754E-1	9.574562E-1	9.273142E-1	9.423819E-1	9.921541E-1	1.010519E+0	9.050889E-1	9.349998E-1	9.848269E-1	9.578454E-1	9.672801E-1	9.753733E-1	9.715076E-1	9.594144E-1	1.003736E+0	9.873695E-1	9.773984E-1	9.273459E-1	8.863422E-1	9.777076E-1	9.612950E-1	9.648382E-1	8.558874E-1	9.852781E-1	9.667609E-1	9.714828E-1	9.214239E-1	9.997667E-1	9.646919E-1	9.954198E-1	9.888557E-1	9.494606E-1	9.665095E-1	9.659835E-1	9.464350E-1	9.277579E-1	9.566515E-1	9.466452E-1	8.690349E-1	9.815145E-1	9.684793E-1	9.835009E-1	9.226028E-1	9.543372E-1	1.036469E+0	1.014665E+0	9.187608E-1	9.546375E-1	9.491967E-1	9.749712E-1	9.460027E-1	9.961376E-1	9.618833E-1	9.438847E-1	9.370486E-1	9.761223E-1	9.708351E-1	9.749958E-1	9.420758E-1	9.684922E-1	9.677188E-1	9.838808E-1	9.917109E-1	9.760008E-1	1.009159E+0	9.426216E-1	9.500262E-1	9.866738E-1	9.819185E-1	1.002053E+0	8.931752E-1	1.010789E+0	1.011816E+0	9.805836E-1	9.466269E-1	9.782667E-1	9.309361E-1	1.003825E+0	9.246900E-1	9.849232E-1	9.813660E-1	9.971779E-1	9.640987E-1	9.526758E-1	9.448365E-1	9.940899E-1	8.966224E-1	1.012384E+0	9.502247E-1	1.008414E+0	9.554126E-1	9.911652E-1	9.452177E-1	1.003643E+0	9.457328E-1	9.523650E-1	9.722225E-1	9.977749E-1	9.972731E-1	9.452788E-1	9.630725E-1	9.947955E-1	8.825656E-1	9.669246E-1	9.960683E-1	1.008962E+0	9.664236E-1	8.494089E-1
5.575300E+2	9.903314E-1	1.005316E+0	9.746174E-1	9.504755E-1	1.006563E+0	9.061140E-1	1.011604E+0	9.894572E-1	9.966644E-1	1.042016E+0	1.016737E+0	9.966711E-1	1.008449E+0	9.581494E-1	1.012559E+0	1.029482E+0	1.047975E+0	9.444972E-1	9.639413E-1	1.044451E+0	9.891899E-1	8.874836E-1	9.965931E-1	1.011034E+0	9.925483E-1	9.479995E-1	1.017728E+0	1.013161E+0	1.022284E+0	9.785873E-1	9.936787E-1	1.006500E+0	1.041383E+0	9.775034E-1	1.032900E+0	9.808538E-1	1.037799E+0	8.708139E-1	1.019181E+0	1.010709E+0	9.696150E-1	8.938203E-1	1.061909E+0	1.031969E+0	1.007800E+0	1.012656E+0	1.042868E+0	9.658731E-1	9.908501E-1	9.658780E-1	1.001990E+0	1.002400E+0	1.025074E+0	9.252592E-1	1.023878E+0	9.943398E-1	9.771514E-1	9.789358E-1	9.869559E-1	9.784909E-1	1.047381E+0	1.013955E+0	1.005883E+0	1.011974E+0	9.638151E-1	1.005802E+0	9.550027E-1	1.060663E+0	1.005829E+0	9.673047E-1	1.041351E+0	9.948944E-1	1.032702E+0	9.708833E-1	1.006763E+0	9.736521E-1	1.015255E+0	1.035214E+0	9.941705E-1	1.024243E+0	9.971400E-1	9.138325E-1	1.035653E+0	9.799085E-1	1.051657E+0	9.321860E-1	9.226486E-1	1.010672E+0	9.817338E-1	9.404092E-1	1.020427E+0	1.015641E+0	1.006592E+0	9.964666E-1	1.084209E+0	9.917121E-1	1.045002E+0	1.010897E+0	1.009250E+0	9.985810E-1	9.925729E-1	8.888174E-1	1.034170E+0	1.024115E+0	9.845461E-1	9.513751E-1	1.012779E+0	1.003377E+0	1.042749E+0	9.971822E-1	1.019641E+0	1.000312E+0	9.987643E-1	9.986460E-1	1.031403E+0	1.048190E+0	1.063575E+0	9.476247E-1	9.866031E-1	1.026158E+0	1.008838E+0	9.753283E-1	9.788573E-1	1.015797E+0	1.027816E+0	9.768201E-1	1.013103E+0	9.886969E-1	1.023689E+0	9.981185E-1	1.015534E+0	9.890109E-1	1.032711E+0	9.390675E-1	1.010234E+0	9.849752E-1	1.000448E+0	9.550292E-1	1.041908E+0	1.018038E+0	1.020083E+0	9.482145E-1	9.839086E-1	9.888915E-1	9.847011E-1	9.800866E-1	1.044001E+0	9.500335E-1	1.010152E+0	9.308657E-1	9.962923E-1	1.021931E+0	1.021922E+0	9.999171E-1	1.019753E+0	9.812708E-1	9.932538E-1	9.835183E-1	9.985266E-1	9.839523E-1	1.031607E+0	1.015783E+0	1.011478E+0	9.757855E-1	9.938240E-1	9.586136E-1	1.014774E+0	1.050400E+0	9.695295E-1	1.039416E+0	7.579907E-1
5.580060E+2	1.040853E+0	1.027990E+0	9.967524E-1	1.010059E+0	1.043128E+0	1.022574E+0	1.021561E+0	1.010674E+0	1.034467E+0	1.060093E+0	1.064156E+0	1.008321E+0	1.024409E+0	1.028861E+0	1.033381E+0	1.053200E+0	1.027959E+0	1.011949E+0	1.040976E+0	1.006082E+0	1.033674E+0	1.039057E+0	1.019964E+0	1.042296E+0	1.011057E+0	1.062876E+0	1.014197E+0	1.029670E+0	1.056792E+0	1.014560E+0	1.025344E+0	1.036040E+0	1.019983E+0	1.015415E+0	1.021226E+0	1.036825E+0	1.013226E+0	9.751566E-1	1.000612E+0	1.033442E+0	1.032480E+0	1.027818E+0	1.046607E+0	1.034691E+0	1.050269E+0	1.026946E+0	1.023419E+0	9.989428E-1	1.038887E+0	9.969871E-1	1.022345E+0	1.071194E+0	9.884717E-1	9.569675E-1	1.012917E+0	1.036571E+0	1.033729E+0	9.789358E-1	1.016557E+0	1.030630E+0	1.018763E+0	1.032272E+0	1.036008E+0	1.013341E+0	1.021045E+0	1.037088E+0	9.835376E-1	1.045942E+0	1.056949E+0	9.517507E-1	1.046869E+0	1.059324E+0	1.067958E+0	9.647069E-1	1.064396E+0	1.033701E+0	1.003988E+0	1.027949E+0	1.010687E+0	1.048989E+0	1.015535E+0	9.591107E-1	1.034128E+0	9.990400E-1	1.021637E+0	9.047736E-1	1.043353E+0	1.032398E+0	1.032448E+0	9.469186E-1	1.001398E+0	1.009679E+0	1.030878E+0	1.033094E+0	1.035255E+0	1.019293E+0	1.017955E+0	1.026476E+0	1.031576E+0	1.021201E+0	1.012937E+0	9.367113E-1	1.066661E+0	1.079752E+0	9.944757E-1	9.546320E-1	1.046174E+0	1.029116E+0	1.008683E+0	1.014021E+0	1.010288E+0	1.053175E+0	1.070143E+0	9.833799E-1	1.014358E+0	1.004191E+0	1.029840E+0	9.944600E-1	1.032940E+0	1.045251E+0	1.042152E+0	1.020917E+0	1.040474E+0	1.064411E+0	1.042794E+0	1.035871E+0	1.007951E+0	1.049625E+0	1.044745E+0	1.013005E+0	1.019658E+0	1.021199E+0	1.004927E+0	9.458161E-1	1.023562E+0	1.014555E+0	1.009858E+0	9.399058E-1	1.062516E+0	1.009270E+0	1.035863E+0	1.024136E+0	1.002175E+0	1.072672E+0	1.023171E+0	9.606016E-1	1.011669E+0	1.036826E+0	1.033513E+0	9.726629E-1	1.047681E+0	1.064763E+0	9.770754E-1	1.008010E+0	9.859141E-1	1.036443E+0	1.034343E+0	1.009212E+0	1.044197E+0	9.997423E-1	1.011200E+0	1.016361E+0	1.022228E+0	1.034581E+0	1.012768E+0	9.875843E-1	1.029694E+0	1.033466E+0	1.041225E+0	9.445255E-1	9.122571E-1
5.585100E+2	1.022265E+0	1.034966E+0	9.967526E-1	1.017446E+0	1.025783E+0	1.070287E+0	1.036235E+0	1.044803E+0	1.040026E+0	1.034688E+0	9.994422E-1	1.034155E+0	1.026756E+0	1.032996E+0	1.042173E+0	1.038637E+0	1.016283E+0	1.021122E+0	1.025132E+0	1.037617E+0	1.029088E+0	1.017337E+0	1.022349E+0	1.030802E+0	1.019470E+0	1.020893E+0	1.020754E+0	1.034463E+0	1.001013E+0	1.000726E+0	9.980162E-1	1.048014E+0	1.035642E+0	1.042632E+0	1.046166E+0	1.041446E+0	1.032095E+0	1.054380E+0	1.011563E+0	1.050372E+0	9.916176E-1	1.030829E+0	1.055351E+0	1.019990E+0	1.012467E+0	1.041236E+0	1.048889E+0	1.036366E+0	1.037386E+0	1.055514E+0	1.045380E+0	1.079070E+0	1.061234E+0	1.053853E+0	1.033742E+0	1.039699E+0	9.853117E-1	1.018573E+0	9.834432E-1	1.056167E+0	1.036649E+0	9.529012E-1	1.057599E+0	1.012886E+0	1.018395E+0	9.997647E-1	1.021401E+0	1.060097E+0	1.056948E+0	1.033075E+0	9.726237E-1	1.011506E+0	1.039947E+0	1.038823E+0	9.640531E-1	1.036918E+0	1.016724E+0	9.911447E-1	1.068495E+0	1.045456E+0	1.012831E+0	1.023795E+0	1.015322E+0	1.016103E+0	1.035031E+0	1.035441E+0	1.022855E+0	1.011576E+0	1.010867E+0	1.073849E+0	9.992227E-1	9.999226E-1	1.031364E+0	1.024056E+0	1.041816E+0	1.005978E+0	1.002576E+0	9.861868E-1	1.010924E+0	1.029477E+0	1.022469E+0	9.330668E-1	1.006722E+0	9.941575E-1	1.018515E+0	1.020319E+0	9.859435E-1	1.046450E+0	1.055638E+0	1.006323E+0	1.036945E+0	1.033952E+0	1.010661E+0	1.005490E+0	9.931990E-1	9.985496E-1	1.003961E+0	9.994966E-1	1.025218E+0	1.011960E+0	1.056429E+0	1.011800E+0	1.055447E+0	1.082573E+0	1.070753E+0	1.014818E+0	1.041446E+0	1.029619E+0	1.030531E+0	9.809426E-1	1.001620E+0	1.010833E+0	1.041813E+0	9.458162E-1	9.769144E-1	1.058924E+0	1.049064E+0	9.942385E-1	1.035241E+0	1.015700E+0	1.035862E+0	9.851062E-1	1.039722E+0	1.013976E+0	1.028369E+0	9.965738E-1	9.986225E-1	1.020715E+0	1.015018E+0	9.817273E-1	1.018613E+0	1.022412E+0	1.000308E+0	9.924036E-1	1.015669E+0	1.002575E+0	1.017340E+0	1.030372E+0	1.046161E+0	1.013277E+0	9.999234E-1	9.695093E-1	1.014873E+0	1.025047E+0	1.014225E+0	9.875841E-1	1.041528E+0	1.008770E+0	1.041225E+0	1.035037E+0	9.236850E-1
5.590100E+2	1.031320E+0	1.060547E+0	1.006922E+0	1.027787E+0	1.048754E+0	1.039504E+0	1.005840E+0	1.035579E+0	1.040582E+0	1.039085E+0	1.008926E+0	1.074170E+0	1.026756E+0	1.000853E+0	1.008395E+0	1.005350E+0	1.058540E+0	1.022741E+0	1.012020E+0	1.002403E+0	1.011203E+0	1.028196E+0	1.054305E+0	1.020688E+0	9.908655E-1	1.003822E+0	1.051526E+0	1.038191E+0	1.003849E+0	1.048688E+0	1.058743E+0	9.981183E-1	1.055998E+0	1.031454E+0	1.024940E+0	1.023987E+0	1.032971E+0	1.027328E+0	9.987081E-1	1.032958E+0	1.074391E+0	1.030829E+0	1.031305E+0	1.045036E+0	9.979993E-1	9.840769E-1	1.041016E+0	1.038106E+0	9.973552E-1	1.033896E+0	1.014846E+0	1.000300E+0	1.040067E+0	1.002328E+0	1.032647E+0	9.859973E-1	1.036449E+0	1.034956E+0	1.041141E+0	1.044994E+0	1.026939E+0	1.035559E+0	1.003873E+0	1.010607E+0	1.035353E+0	1.014035E+0	1.006585E+0	1.061229E+0	1.004422E+0	1.021521E+0	9.946969E-1	1.014022E+0	1.005657E+0	1.014632E+0	1.030433E+0	1.028339E+0	1.065217E+0	1.008578E+0	1.011660E+0	9.800499E-1	1.062065E+0	1.077697E+0	9.812659E-1	1.037302E+0	1.007323E+0	1.064682E+0	9.818619E-1	1.046433E+0	9.979191E-1	1.052694E+0	1.035651E+0	1.057918E+0	1.020678E+0	1.032617E+0	1.011031E+0	1.044971E+0	1.031214E+0	1.010897E+0	9.941793E-1	1.028925E+0	1.022468E+0	1.067900E+0	1.007283E+0	1.029346E+0	1.067637E+0	1.039319E+0	1.051541E+0	9.970735E-1	1.043670E+0	1.022200E+0	1.038815E+0	9.994386E-1	1.038779E+0	1.018124E+0	1.029052E+0	1.084857E+0	1.041855E+0	1.018633E+0	1.013081E+0	1.040845E+0	1.053785E+0	1.037007E+0	1.020319E+0	9.992368E-1	1.017331E+0	9.911972E-1	1.050206E+0	1.028255E+0	1.010002E+0	1.052510E+0	1.001105E+0	1.023381E+0	1.034627E+0	1.024553E+0	1.034669E+0	1.058924E+0	1.004630E+0	1.027847E+0	1.006754E+0	1.028561E+0	1.009085E+0	1.087760E+0	1.013844E+0	1.021500E+0	1.005496E+0	1.024553E+0	1.026984E+0	1.078402E+0	1.040327E+0	1.012949E+0	1.033147E+0	1.056581E+0	1.034889E+0	1.049624E+0	1.020921E+0	1.064303E+0	1.041428E+0	1.012739E+0	1.007857E+0	1.061550E+0	1.080476E+0	1.041232E+0	9.933716E-1	1.015513E+0	1.056000E+0	9.891357E-1	9.787583E-1	1.070862E+0	9.991035E-1	1.033576E+0	8.894035E-1
5.595110E+2	9.979574E-1	1.002990E+0	1.021878E+0	1.060780E+0	1.001406E+0	9.964087E-1	9.964060E-1	1.014825E+0	1.021681E+0	1.037619E+0	1.007253E+0	9.926189E-1	9.892038E-1	1.002230E+0	1.010246E+0	9.691504E-1	9.929308E-1	1.000617E+0	9.857951E-1	1.043925E+0	1.019458E+0	1.009782E+0	1.019010E+0	1.017010E+0	1.039661E+0	1.025966E+0	9.859475E-1	9.971851E-1	9.631974E-1	1.041771E+0	1.025344E+0	9.929293E-1	1.017895E+0	9.857660E-1	1.020695E+0	1.029123E+0	1.000062E+0	1.046168E+0	1.038703E+0	9.981342E-1	1.035624E+0	9.931890E-1	1.033492E+0	1.006923E+0	1.074537E+0	1.031710E+0	9.974861E-1	1.058123E+0	9.888486E-1	9.975140E-1	1.010560E+0	1.003451E+0	1.010960E+0	1.043724E+0	1.034290E+0	1.022493E+0	1.011424E+0	1.027028E+0	1.027595E+0	1.030630E+0	9.962765E-1	1.038846E+0	1.032493E+0	1.042950E+0	1.001438E+0	9.904346E-1	1.049387E+0	9.955516E-1	1.010988E+0	1.003301E+0	1.062420E+0	9.964044E-1	1.000828E+0	1.024411E+0	1.029404E+0	1.014936E+0	1.023582E+0	1.048290E+0	1.046150E+0	1.008776E+0	1.003633E+0	1.059370E+0	9.954979E-1	1.015068E+0	1.037801E+0	1.048689E+0	1.023994E+0	1.026513E+0	1.019499E+0	1.002790E+0	1.049787E+0	9.825784E-1	1.018735E+0	1.002175E+0	1.021629E+0	1.015964E+0	1.028562E+0	1.047426E+0	1.033809E+0	9.969261E-1	1.009904E+0	1.061132E+0	1.017365E+0	1.038857E+0	9.944756E-1	9.812322E-1	9.728239E-1	9.886687E-1	1.023874E+0	1.025086E+0	9.995325E-1	1.023029E+0	9.998452E-1	1.020756E+0	1.051386E+0	9.703447E-1	1.032612E+0	1.045325E+0	9.695027E-1	1.022241E+0	1.027874E+0	1.032717E+0	1.004771E+0	1.002976E+0	9.898723E-1	1.038951E+0	1.028563E+0	9.891527E-1	9.773643E-1	1.003272E+0	1.021719E+0	1.004832E+0	1.018340E+0	1.050199E+0	1.032447E+0	1.000313E+0	1.032858E+0	1.069297E+0	1.006754E+0	1.039668E+0	1.032993E+0	1.049265E+0	1.004204E+0	1.007454E+0	1.011214E+0	1.038042E+0	1.041733E+0	9.874528E-1	9.887360E-1	1.079422E+0	9.848728E-1	1.013268E+0	1.047316E+0	1.024193E+0	1.041924E+0	1.012954E+0	9.923080E-1	9.946020E-1	1.012768E+0	1.029067E+0	1.031607E+0	1.004214E+0	1.077112E+0	1.000681E+0	1.005482E+0	1.047595E+0	9.977952E-1	1.027115E+0	1.051979E+0	1.064233E+0	1.046525E+0
5.600240E+2	1.003677E+0	9.808979E-1	1.033843E+0	9.790368E-1	9.892178E-1	9.615218E-1	9.864490E-1	1.030506E+0	1.002224E+0	9.667778E-1	9.782425E-1	1.002243E+0	1.024409E+0	1.037128E+0	1.017187E+0	1.010343E+0	9.929308E-1	1.006012E+0	1.024585E+0	9.987239E-1	9.951519E-1	1.026780E+0	9.732223E-1	9.912649E-1	1.024518E+0	9.687603E-1	1.021763E+0	1.031800E+0	1.057264E+0	1.037622E+0	1.004524E+0	1.011690E+0	1.021549E+0	9.969446E-1	1.006368E+0	9.818811E-1	1.028145E+0	1.008971E+0	1.005850E+0	9.903956E-1	1.022003E+0	1.003226E+0	9.826688E-1	1.014545E+0	9.690654E-1	1.000748E+0	1.033607E+0	9.858891E-1	1.035885E+0	1.005423E+0	1.029845E+0	9.651158E-1	1.007435E+0	1.040641E+0	1.009081E+0	1.001639E+0	1.047874E+0	1.025971E+0	1.040639E+0	9.901957E-1	1.036138E+0	1.020530E+0	1.002367E+0	1.027918E+0	1.043831E+0	1.026659E+0	1.013719E+0	9.610136E-1	9.725306E-1	1.040633E+0	9.906834E-1	1.009492E+0	9.882709E-1	1.046029E+0	1.020142E+0	9.859831E-1	1.002029E+0	1.010031E+0	9.693953E-1	1.029546E+0	9.993043E-1	9.892963E-1	1.053444E+0	1.005244E+0	1.017021E+0	9.998038E-1	1.031396E+0	9.952791E-1	1.034066E+0	1.004959E+0	1.030758E+0	1.056292E+0	1.002220E+0	1.005980E+0	1.010526E+0	1.014063E+0	1.010531E+0	1.034533E+0	1.014273E+0	1.062027E+0	1.012937E+0	1.052282E+0	1.017925E+0	1.008899E+0	1.000224E+0	1.052348E+0	9.984664E-1	1.020711E+0	9.861232E-1	1.001993E+0	1.020109E+0	1.028272E+0	1.001468E+0	1.020757E+0	1.003778E+0	1.022806E+0	9.928703E-1	9.959711E-1	1.009220E+0	1.025668E+0	9.712944E-1	1.012872E+0	9.984368E-1	1.003510E+0	9.788885E-1	1.026628E+0	9.909452E-1	1.017343E+0	1.022636E+0	1.056517E+0	1.017596E+0	1.023927E+0	9.910352E-1	1.049298E+0	1.014676E+0	1.000313E+0	1.005676E+0	1.007122E+0	9.788726E-1	1.014531E+0	1.039210E+0	1.017720E+0	1.032618E+0	1.018992E+0	1.032529E+0	1.041040E+0	1.024715E+0	9.812160E-1	9.901964E-1	1.013453E+0	1.011346E+0	9.877626E-1	1.041913E+0	1.064652E+0	9.328214E-1	9.829100E-1	9.899471E-1	1.012235E+0	1.009822E+0	1.029066E+0	9.811277E-1	1.029086E+0	1.013741E+0	1.032463E+0	1.024912E+0	1.009829E+0	1.029694E+0	9.904239E-1	1.033159E+0	1.040877E+0	1.060807E+0
5.605090E+2	9.655472E-1	9.308977E-1	9.500903E-1	9.573694E-1	9.540593E-1	9.589568E-1	9.183221E-1	9.437979E-1	9.366258E-1	9.232962E-1	9.079502E-1	9.439932E-1	9.535282E-1	9.650369E-1	9.426902E-1	9.550031E-1	9.356624E-1	9.962996E-1	9.754143E-1	9.445873E-1	9.497513E-1	9.441466E-1	9.121725E-1	9.590837E-1	9.594572E-1	9.609170E-1	9.471052E-1	9.263569E-1	9.877769E-1	8.978771E-1	9.568105E-1	9.546071E-1	9.349049E-1	9.804196E-1	9.304857E-1	9.449097E-1	9.557446E-1	9.539012E-1	9.568075E-1	9.473491E-1	9.303243E-1	9.384854E-1	9.269272E-1	9.628200E-1	9.606651E-1	9.578800E-1	9.243185E-1	9.388934E-1	9.448143E-1	9.542780E-1	9.580639E-1	9.346578E-1	9.496652E-1	9.794285E-1	9.740085E-1	9.604502E-1	9.602862E-1	9.361286E-1	9.623716E-1	8.986863E-1	9.513051E-1	9.529013E-1	9.511525E-1	9.659642E-1	9.230121E-1	9.629909E-1	9.791478E-1	9.225125E-1	9.476742E-1	9.708598E-1	9.957001E-1	9.536191E-1	9.206585E-1	9.333105E-1	9.573641E-1	9.414827E-1	9.251259E-1	9.562771E-1	9.844548E-1	9.610475E-1	9.430360E-1	9.795939E-1	9.599173E-1	9.483682E-1	9.435946E-1	9.472630E-1	9.385904E-1	9.568021E-1	9.396515E-1	9.490883E-1	9.214747E-1	9.435529E-1	9.109032E-1	9.769638E-1	9.459280E-1	9.493901E-1	9.633316E-1	9.287071E-1	9.545492E-1	9.544449E-1	9.605092E-1	9.643028E-1	9.254973E-1	9.161721E-1	9.678237E-1	1.014347E+0	9.728242E-1	9.718600E-1	9.341003E-1	9.837114E-1	9.167573E-1	9.159939E-1	9.392817E-1	9.581110E-1	9.591096E-1	9.771133E-1	9.605213E-1	9.964751E-1	9.728120E-1	9.306901E-1	9.379809E-1	9.211587E-1	9.477619E-1	9.041477E-1	9.184774E-1	9.573074E-1	9.399295E-1	9.477769E-1	9.584138E-1	9.443003E-1	9.866738E-1	9.693706E-1	9.757063E-1	9.903586E-1	9.547010E-1	9.280078E-1	9.439916E-1	9.796750E-1	9.764485E-1	9.239218E-1	9.120178E-1	9.278980E-1	9.742681E-1	9.166496E-1	9.483114E-1	9.556052E-1	9.203438E-1	9.453556E-1	9.478534E-1	9.802165E-1	9.407504E-1	9.112441E-1	9.592447E-1	9.577240E-1	9.479908E-1	9.566889E-1	9.701098E-1	9.870447E-1	9.179897E-1	9.690643E-1	9.429994E-1	9.631466E-1	9.260406E-1	9.413551E-1	9.253348E-1	9.984482E-1	9.864760E-1	9.685504E-1	9.381625E-1	9.416065E-1	1.040810E+0
5.610070E+2	9.383804E-1	9.617116E-1	9.937610E-1	9.475211E-1	9.376510E-1	9.507479E-1	1.035187E+0	9.198151E-1	9.243951E-1	9.384412E-1	1.034030E+0	9.444992E-1	9.549368E-1	9.328948E-1	9.459289E-1	9.683164E-1	9.756949E-1	9.412601E-1	9.360769E-1	9.666621E-1	9.616741E-1	9.347027E-1	9.989782E-1	9.388553E-1	9.549706E-1	9.567650E-1	9.587075E-1	9.423332E-1	9.301083E-1	9.587558E-1	9.312176E-1	9.586015E-1	9.140269E-1	9.473694E-1	9.501191E-1	9.418290E-1	9.377556E-1	9.340956E-1	9.877561E-1	9.473491E-1	9.135597E-1	9.756239E-1	9.236486E-1	9.159949E-1	9.349975E-1	9.574033E-1	9.312649E-1	9.436805E-1	9.568238E-1	9.563873E-1	9.189594E-1	9.462112E-1	9.421675E-1	9.230573E-1	9.033139E-1	9.531510E-1	9.249253E-1	9.784077E-1	9.282547E-1	9.486972E-1	9.339292E-1	9.669910E-1	9.165072E-1	9.263333E-1	9.569259E-1	9.690278E-1	9.462224E-1	9.536535E-1	9.504881E-1	9.788592E-1	9.370070E-1	9.556321E-1	9.766805E-1	9.780888E-1	9.342082E-1	9.586399E-1	9.633329E-1	9.577303E-1	9.091575E-1	9.261351E-1	9.635953E-1	9.111372E-1	9.604254E-1	9.788744E-1	9.375925E-1	9.993473E-1	9.579489E-1	9.309995E-1	9.655483E-1	9.697010E-1	9.617081E-1	9.500575E-1	9.852201E-1	9.251148E-1	9.338155E-1	9.503413E-1	9.458313E-1	9.657736E-1	9.606894E-1	9.069985E-1	9.587762E-1	9.846052E-1	9.585471E-1	9.328160E-1	9.568489E-1	9.378027E-1	9.722279E-1	9.461213E-1	9.479117E-1	9.466657E-1	9.775525E-1	9.461389E-1	9.398222E-1	9.933816E-1	9.491175E-1	9.421395E-1	9.383396E-1	9.496391E-1	9.772253E-1	9.233457E-1	9.104838E-1	9.635291E-1	9.327900E-1	9.431449E-1	9.818836E-1	9.352274E-1	9.409598E-1	9.382284E-1	9.563080E-1	9.494534E-1	9.516291E-1	9.464569E-1	9.335516E-1	9.939583E-1	9.630310E-1	9.389631E-1	9.539232E-1	9.819152E-1	9.334142E-1	9.683493E-1	9.349697E-1	9.081152E-1	9.331695E-1	9.487569E-1	9.509102E-1	9.835839E-1	9.759331E-1	9.500333E-1	9.843563E-1	9.595702E-1	9.635900E-1	9.439690E-1	9.392527E-1	9.033931E-1	1.054760E+0	9.441251E-1	9.545239E-1	9.537938E-1	9.612050E-1	8.982343E-1	9.526660E-1	9.764511E-1	9.526338E-1	9.503599E-1	9.612796E-1	9.798238E-1	9.360542E-1	9.008122E-1	8.951460E-1	9.401456E-1	1.126513E+0
