Photon Energy (eV)	#1	#2	#3	#4	#5	#6	#7	#8	#9	#10	#11	#12	#13	#14	#15	#16	#17	#18	#19	#20	#21	#22	#23	#24	#25	#26	#27	#28	#29	#30	#31	#32	#33	#34	#35	#36	#37	#38	#39	#40	#41	#42	#43	#44	#45	#46	#47	#48	#49	#50	#51	#52	#53	#54	#55	#56	#57	#58	#59	#60	#61	#62	#63	#64	#65	#66	#67	#68	#69	#70	#71	#72	#73	#74	#75	#76	#77	#78	#79	#80	#81	#82	#83	#84	#85	#86	#87	#88	#89	#90	#91	#92	#93	#94	#95	#96	#97	#98	#99	#100	#101	#102	#103	#104	#105	#106	#107	#108	#109	#110	#111	#112	#113	#114	#115	#116	#117	#118	#119	#120	#121	#122	#123	#124	#125	#126	#127	#128	#129	#130	#131	#132	#133	#134	#135	#136	#137	#138	#139	#140	#141	#142	#143	#144	#145	#146	#147	#148	#149	#150	#151	#152	#153	#154	#155	#156	#157	#158	#159	#160	#161	#162	#163	#164	#165	#166	#167	#168	#169	#170	#171	#172	
5.300160E+2	-9.725520E-3	-6.116171E-3	-3.615886E-3	-2.402365E-3	-9.623787E-3	-5.157752E-3	-8.613176E-3	-1.437144E-3	1.052121E-3	-5.550792E-3	-4.526559E-3	-3.044784E-3	-6.560807E-3	-9.043061E-3	-5.643096E-3	-5.209176E-3	-4.351225E-3	-7.355436E-3	-1.670557E-3	-8.374946E-3	-4.147399E-3	-1.308026E-2	-6.409182E-4	-7.896065E-3	-3.322553E-3	-5.870808E-3	-1.153267E-2	-7.948037E-3	-1.062612E-2	-6.763281E-3	-2.248473E-3	-5.945410E-3	-5.061770E-3	-3.285843E-3	-6.044723E-3	-1.138722E-2	-4.075935E-3	-8.471806E-3	-1.414724E-2	-2.308509E-3	3.390916E-3	-8.218100E-3	-5.407886E-3	-5.391045E-4	-5.265913E-3	-9.708732E-3	-4.824226E-3	-1.185432E-2	-7.380864E-3	-3.817696E-3	-1.063804E-2	1.435637E-3	-4.389909E-3	-1.970425E-3	-1.258022E-3	-1.943451E-3	-5.060104E-3	-3.344777E-3	-1.886720E-3	-1.483454E-2	-2.301197E-3	-9.493640E-3	-4.815428E-3	-1.500111E-2	-8.686769E-3	1.324737E-3	4.269470E-3	-5.795284E-3	-7.597343E-3	-6.577853E-3	2.547256E-3	-8.763038E-3	-8.499647E-3	-7.991463E-3	-5.412391E-3	-6.146953E-3	-4.882729E-3	-1.291891E-3	-2.538727E-3	-9.736632E-3	-2.021945E-3	3.779418E-3	-1.061016E-2	-3.745435E-3	-7.020557E-3	-5.903591E-3	-5.419744E-3	-3.223518E-3	-4.520169E-3	-3.058574E-3	5.517113E-3	-1.720671E-3	-6.938787E-3	-6.349053E-3	-6.241972E-3	-1.002476E-2	2.446078E-3	-5.457365E-3	-5.389994E-3	-4.036603E-4	-1.100415E-2	-5.405263E-3	-5.971868E-3	-5.486433E-3	-7.158421E-3	-6.793980E-3	-9.968666E-4	-9.686077E-3	-2.620161E-3	-5.287561E-3	-1.176789E-2	-4.563904E-3	-1.213157E-2	-2.288487E-3	-8.879661E-3	-3.483069E-3	-7.629501E-3	3.901045E-3	-1.004472E-2	-8.664482E-3	-7.680633E-3	-1.041443E-2	-7.142298E-3	-8.669152E-3	-7.806568E-4	-3.876286E-3	-4.053734E-4	2.008022E-3	-1.222583E-2	-3.287907E-3	2.078516E-3	-4.683435E-3	-6.873989E-3	4.345361E-3	-3.559440E-3	-5.901224E-3	-9.530793E-3	-7.958627E-3	-6.497736E-3	-5.653297E-3	-1.415912E-3	-6.553173E-3	-1.091096E-2	-1.232288E-2	-1.351208E-2	-1.048201E-2	-7.886701E-3	-7.278119E-3	-7.216127E-4	-1.282864E-2	-7.440584E-3	-5.769148E-3	-4.934840E-3	-4.319084E-3	-7.902986E-3	-6.455000E-3	-6.114397E-3	-2.612468E-3	-3.866826E-3	-5.939804E-3	1.283426E-4	-8.788866E-3	-8.090693E-3	-7.141644E-3	-7.882496E-3	-9.241905E-3	-8.001440E-3	-6.905985E-3	-1.634721E-3	-1.715671E-2	-2.138194E-3	1.030955E-2
5.305080E+2	7.265524E-4	-6.175417E-3	-1.517543E-2	-7.475134E-3	1.949900E-3	2.899172E-3	-1.738957E-3	2.780402E-3	-1.711697E-3	-7.987588E-3	-2.399969E-3	-3.012019E-3	9.425115E-4	-6.157619E-3	-1.858709E-3	-5.619643E-3	-7.903568E-3	-2.473242E-3	-3.820593E-3	-1.118532E-2	-1.090762E-2	4.243417E-3	2.850845E-4	-5.226596E-3	-8.145718E-3	-1.157402E-3	-3.044275E-3	-3.812305E-3	2.462224E-3	-9.257171E-3	-4.863978E-3	1.953911E-3	-2.512123E-3	-9.287883E-3	2.909673E-3	-1.873560E-3	-9.342534E-3	-5.217129E-3	-1.754375E-3	-4.696743E-3	-1.194668E-2	-8.251415E-3	-3.801688E-3	-1.000705E-2	-7.800443E-3	-8.766295E-3	-2.468371E-3	-4.763115E-4	-2.890294E-3	-8.404367E-3	2.689505E-3	-5.507831E-3	-1.952795E-3	-8.001471E-3	-6.990519E-4	-3.895735E-3	-4.552865E-3	-2.838718E-3	-6.054868E-3	3.367197E-3	6.399852E-4	-5.235108E-3	-3.732224E-3	-8.761138E-3	-6.103402E-3	4.122534E-3	-6.328341E-3	-1.596141E-3	-8.681909E-3	-2.904367E-3	-7.142021E-3	2.700957E-3	-4.973395E-4	1.114811E-3	-2.392406E-3	-6.129984E-3	-4.840043E-3	-4.374307E-3	-6.809818E-3	-4.200827E-3	-4.438093E-4	-1.368583E-2	-6.116832E-3	-5.426473E-3	-6.559024E-3	-5.395305E-3	-3.921087E-3	-3.139694E-3	-4.022408E-3	3.586139E-3	3.086808E-3	-1.733277E-3	-4.607566E-3	3.612175E-3	-5.225286E-3	-6.553659E-4	-1.817098E-3	-7.542066E-3	-7.534129E-3	-8.719059E-3	-3.810385E-3	-3.874870E-3	-6.001020E-3	-8.173278E-3	-3.357905E-3	1.346138E-3	-8.709865E-3	-2.765714E-3	-2.928587E-3	-2.144902E-3	2.337622E-3	-5.989388E-3	-1.013637E-2	-6.362438E-3	-5.952557E-3	-5.236803E-3	3.527043E-3	-2.971954E-3	-7.422551E-3	-7.212718E-3	-8.075504E-4	-2.752556E-3	-5.600119E-3	-2.465600E-3	-1.162152E-2	-5.993531E-3	-1.399675E-2	-1.373735E-2	-2.402318E-3	-3.398037E-3	-6.811873E-3	-3.607732E-3	-6.398386E-3	-3.381454E-3	7.973384E-4	-1.317069E-2	-7.005113E-3	-1.054437E-3	-4.953447E-3	-5.699396E-3	-4.844430E-3	-9.445132E-3	4.050016E-3	-4.056613E-3	-1.362705E-2	-1.172093E-2	-6.824441E-3	-5.649452E-3	6.005643E-3	-5.841923E-3	-1.809775E-3	-1.682345E-3	1.205925E-4	-6.101585E-3	5.801049E-3	-2.604542E-3	1.304447E-3	-7.220338E-3	-5.701544E-3	-1.135493E-2	-5.935416E-3	-6.849164E-4	-1.382716E-3	-5.556714E-3	2.498739E-3	-8.742085E-3	5.031237E-3	-1.002224E-3	-7.569968E-3	-4.867439E-3	4.717539E-3	-5.231357E-3
5.310100E+2	2.465111E-4	-4.555116E-3	6.326656E-3	-7.201878E-5	-1.008081E-2	-1.377315E-3	-2.697168E-3	-1.766353E-3	-1.705936E-2	-3.672809E-3	4.442126E-3	1.614670E-3	-8.585926E-3	-5.535855E-3	-9.145379E-3	-1.104331E-3	6.202246E-4	2.221696E-4	-1.050928E-2	-4.628793E-3	4.580920E-3	-3.771554E-3	-2.206769E-3	-2.929638E-3	9.587105E-4	-7.262901E-3	-1.058729E-4	2.087993E-3	-2.250352E-3	-2.186228E-3	-2.443972E-3	-4.112451E-3	-6.036068E-3	-4.861039E-3	-2.347444E-3	-7.725058E-3	-3.929773E-3	-4.747392E-3	3.694895E-3	-7.568211E-3	-3.169147E-3	-1.606187E-3	-2.615441E-3	-1.056535E-2	4.195340E-4	4.968162E-3	-8.904345E-3	-4.501183E-3	7.805993E-3	-4.852328E-3	-3.636313E-3	-4.385594E-3	-4.321577E-3	-6.434127E-3	-1.432966E-2	-2.332479E-3	1.210690E-3	-5.518129E-3	3.375695E-3	3.444788E-3	-5.528593E-3	5.283954E-3	-3.140796E-3	-3.273092E-3	-6.578683E-3	2.516846E-3	-2.371660E-3	-9.567843E-3	-5.055250E-3	-3.289965E-3	-7.773791E-5	-2.020202E-3	7.321815E-4	-1.022211E-2	-7.666083E-4	-2.947998E-3	-8.746695E-4	-6.889566E-3	1.480767E-3	5.579385E-3	-9.125073E-3	-1.575652E-4	-4.896527E-3	7.109737E-3	-2.282260E-3	9.254606E-4	-4.869648E-3	3.703012E-6	-1.335101E-3	-7.887671E-4	-2.494373E-3	2.682690E-3	2.889822E-3	-8.763676E-3	-5.934557E-3	-3.567810E-3	-6.626213E-3	-1.827058E-4	9.739222E-3	-4.192142E-3	-3.504662E-4	5.000555E-3	3.138022E-3	-6.744421E-3	-3.287141E-3	-2.078702E-4	-1.196688E-2	-8.583381E-3	-5.383536E-3	-3.635492E-3	-4.663880E-3	-4.437379E-3	-2.807526E-3	-2.599706E-3	-4.151442E-3	-6.914593E-3	-7.998390E-3	-8.043173E-3	-3.574131E-3	4.774713E-3	-7.400777E-4	1.758502E-3	-6.625713E-3	7.527682E-4	-3.490518E-3	-4.314221E-3	-4.255894E-3	-8.695571E-3	-2.239872E-4	-4.516293E-3	-6.731942E-3	-1.192186E-3	-3.178594E-3	-7.034228E-3	-4.489316E-3	1.455823E-3	-1.157520E-3	-1.539912E-3	-5.848813E-4	-7.379700E-4	-2.512741E-3	-7.641310E-4	-3.425031E-3	2.308569E-3	5.627725E-3	-7.772985E-4	3.575436E-3	-7.380520E-4	-9.714278E-3	-1.200501E-3	7.389247E-4	2.063531E-4	-4.909682E-3	3.078615E-3	-6.774406E-3	-7.564587E-3	-4.745270E-3	-1.075640E-2	-6.585715E-3	4.101796E-3	-2.253807E-3	-2.955128E-3	-4.396249E-3	-1.178090E-3	-5.811381E-3	6.848620E-3	1.218022E-3	-1.340957E-2	-9.967117E-3	2.705431E-3	4.937569E-3	-1.179410E-2
5.315180E+2	-4.713781E-3	-5.560615E-5	-6.963336E-4	5.191399E-3	1.299157E-3	-3.206454E-3	2.047928E-3	-3.341412E-3	-4.605079E-3	-1.058950E-3	-4.586702E-3	4.873262E-3	4.307291E-3	1.943549E-3	-4.612943E-3	2.439547E-5	9.864385E-3	2.699799E-3	1.766617E-3	5.974592E-3	-2.044135E-3	-6.989484E-3	1.891751E-3	-1.769088E-3	-2.969666E-3	-1.970281E-4	5.886078E-3	-7.646948E-3	2.327169E-3	5.071070E-3	-3.461725E-3	-3.399239E-3	-7.240250E-3	-3.953369E-5	4.826001E-3	5.991506E-3	-1.189843E-4	3.370116E-4	-5.404676E-3	4.417520E-3	6.874880E-3	-2.412428E-3	-4.454545E-3	-3.697246E-3	2.397771E-4	5.972613E-3	1.366711E-3	4.421776E-3	-5.499341E-3	3.505148E-3	-5.376925E-3	1.830260E-3	-5.460574E-3	1.637980E-3	3.913913E-3	-1.037830E-3	-3.548051E-3	-2.744592E-4	3.762293E-3	-5.913716E-3	-5.700307E-3	3.580404E-3	-7.037313E-5	3.772861E-3	7.534750E-3	-1.236893E-2	-8.422656E-4	2.527950E-3	-6.752310E-3	3.103578E-3	-3.507306E-3	-3.636578E-3	-1.794428E-3	-3.602431E-4	-1.926253E-3	-2.107029E-3	5.857363E-3	-1.992306E-3	1.475685E-3	2.958424E-4	-6.699950E-3	9.080244E-4	-3.229963E-3	-8.237875E-3	-1.207185E-4	5.638903E-3	5.225988E-5	-6.121095E-4	-6.216376E-3	-4.015230E-3	-8.793352E-3	1.574565E-4	-6.485998E-3	1.637922E-3	-1.890845E-3	-1.898685E-4	-5.708649E-3	-1.720499E-3	-4.351243E-3	6.073111E-4	6.206675E-3	-4.061440E-3	-2.551916E-3	-2.823166E-3	9.810797E-4	-5.866701E-3	1.662492E-3	2.976712E-3	-5.953954E-3	-1.755628E-3	4.085259E-3	-2.560875E-4	1.646114E-3	-6.461502E-3	3.198060E-3	-4.183126E-3	-9.210848E-4	-3.069933E-3	-4.281282E-3	3.097255E-3	-3.291199E-3	-6.749024E-3	1.379791E-3	4.043118E-5	5.261340E-3	4.011586E-3	1.367523E-2	4.514602E-3	-6.671414E-3	-5.200187E-3	-2.065044E-3	1.570557E-3	9.218444E-3	-7.551421E-4	1.129033E-2	-2.743133E-4	8.595513E-3	-2.996124E-3	-5.593111E-3	-1.504322E-3	4.011076E-3	1.272749E-2	-5.728023E-3	4.787722E-3	3.886804E-3	7.021553E-3	-2.345506E-3	-5.657157E-3	-5.235264E-3	1.053410E-3	-1.838370E-3	-1.774173E-3	-5.121623E-3	2.913183E-3	2.466176E-4	2.830945E-3	-5.865364E-4	2.461943E-3	5.821251E-5	-6.460510E-3	-1.866322E-3	-1.995322E-3	-4.152967E-4	-5.259242E-3	-3.892821E-3	-6.275457E-3	-1.575489E-3	-6.174932E-5	1.085248E-2	4.537865E-3	6.258183E-3	2.064178E-2
5.320070E+2	5.949024E-3	1.002614E-2	-4.729360E-3	-2.579604E-3	1.950921E-3	7.205357E-4	1.168305E-2	5.104430E-3	9.244811E-3	5.599848E-3	-1.149767E-3	-3.510651E-3	-3.083481E-4	5.116645E-3	6.380373E-3	-7.035490E-4	-3.910488E-3	-2.044405E-3	9.186584E-3	7.762859E-3	-1.882087E-3	3.241021E-3	2.476257E-3	5.100200E-3	-1.236040E-3	4.043743E-3	-6.200353E-4	4.148745E-3	1.640613E-3	6.562146E-3	4.273535E-3	4.651249E-3	7.850413E-3	9.555226E-3	-1.301066E-3	7.769507E-3	8.508386E-3	8.778070E-3	9.026919E-3	-2.731987E-3	-2.703557E-3	1.587900E-2	4.543599E-3	8.265635E-3	-3.889949E-3	6.602175E-3	5.296193E-3	-4.064985E-3	7.008653E-4	-2.071325E-3	1.198418E-2	-3.901409E-3	6.359068E-3	7.382387E-3	1.446940E-3	-2.878191E-3	4.557366E-3	1.271194E-2	-6.029455E-3	1.257886E-2	6.927706E-3	-1.042854E-3	6.410135E-3	8.921229E-3	4.007078E-3	3.827513E-3	-2.937233E-3	-5.338377E-3	1.532278E-2	6.875726E-3	-6.167080E-3	7.542531E-3	1.253652E-3	1.003019E-2	3.951721E-3	8.930972E-3	4.220827E-4	1.243743E-3	-2.628819E-3	1.991448E-3	7.352279E-3	2.443154E-3	1.631837E-3	2.719742E-3	6.123037E-3	-1.608258E-3	6.832339E-3	-1.287640E-5	9.104449E-3	5.622595E-4	-3.130899E-3	1.930366E-3	4.330350E-3	1.095905E-3	2.118136E-3	6.979394E-3	9.815739E-4	4.212723E-3	3.509358E-3	2.460460E-3	2.069471E-3	-3.290218E-5	6.712183E-3	1.139420E-2	1.698149E-3	2.893998E-5	1.139961E-2	1.402740E-3	6.943365E-3	3.608679E-3	5.435789E-3	5.366110E-3	3.431408E-3	8.840337E-3	6.447021E-3	1.341844E-2	1.195714E-3	-7.942929E-4	1.105661E-2	3.271687E-3	2.760935E-3	1.211395E-2	7.061641E-3	2.058495E-4	1.701512E-3	4.657125E-3	-1.708406E-4	1.741009E-3	7.617806E-3	-6.393189E-4	5.282297E-3	-4.077711E-3	5.721352E-3	-2.924543E-3	-3.990732E-3	2.497830E-3	-6.495122E-4	-7.048221E-3	8.519435E-3	5.695110E-3	-2.585088E-4	3.409682E-3	5.208329E-3	5.463231E-3	1.921149E-3	7.012341E-3	2.403619E-3	-1.493992E-4	2.079343E-3	7.277824E-3	3.503182E-3	6.546947E-4	-4.689538E-4	1.923079E-3	-2.357962E-3	2.440319E-3	-4.755423E-3	6.728599E-3	4.080207E-3	7.096858E-3	3.960040E-3	9.968906E-3	9.692828E-3	6.293731E-3	-1.127967E-3	1.158269E-2	-5.312113E-3	6.485055E-4	-1.116494E-3	5.809580E-3	-6.128871E-3	-1.190394E-2
5.325070E+2	7.517214E-3	6.876168E-3	1.789035E-2	7.337722E-3	1.450462E-2	6.121812E-3	-6.816777E-4	-1.339923E-3	1.307920E-2	1.267029E-2	8.220871E-3	3.079521E-3	1.020528E-2	1.367634E-2	1.487975E-2	1.261230E-2	5.680671E-3	8.951114E-3	5.047233E-3	1.045160E-2	1.440032E-2	1.635686E-2	-1.805406E-3	1.272119E-2	1.471527E-2	1.044440E-2	9.416774E-3	1.317055E-2	6.446466E-3	6.573465E-3	8.744613E-3	6.851940E-3	1.299980E-2	7.919072E-3	1.957558E-3	7.224825E-3	8.958840E-3	9.321245E-3	8.584476E-3	1.288793E-2	7.553588E-3	4.609133E-3	1.173596E-2	1.654312E-2	1.629699E-2	9.320774E-4	9.534037E-3	1.647503E-2	7.263640E-3	1.564057E-2	4.977591E-3	1.052894E-2	9.765788E-3	7.385656E-3	1.092589E-2	1.208769E-2	7.392964E-3	-7.358559E-4	6.833055E-3	1.357405E-3	5.962406E-3	6.907244E-3	5.348686E-3	1.434125E-2	9.827026E-3	5.772984E-4	8.210030E-3	1.976970E-2	1.276403E-2	2.792881E-3	1.434689E-2	4.176329E-3	8.805581E-3	7.428820E-3	6.545936E-3	8.400992E-3	4.317996E-3	1.330433E-2	9.020911E-3	6.070784E-3	1.093850E-2	6.712797E-3	2.322165E-2	7.580304E-3	9.859523E-3	6.342792E-3	7.325880E-3	6.984495E-3	6.989604E-3	3.714172E-3	5.814703E-3	-1.316564E-3	1.081218E-2	8.766727E-3	1.717452E-2	7.458407E-3	1.072431E-2	1.068991E-2	4.026786E-3	1.024709E-2	6.888855E-3	8.373920E-3	4.674599E-3	1.183310E-2	1.112424E-2	1.149347E-2	8.611508E-3	1.665572E-2	9.942874E-3	9.214904E-3	4.573094E-3	9.880649E-3	1.999794E-2	8.871796E-3	9.338578E-3	6.399152E-3	1.182622E-2	1.097831E-2	1.426608E-2	4.733545E-3	9.758526E-3	6.043551E-3	1.092670E-2	1.013570E-2	8.929839E-3	5.515327E-3	5.153626E-3	1.416929E-2	1.390574E-2	1.704174E-2	8.248047E-3	1.199051E-2	1.511174E-3	9.750006E-3	-4.817563E-5	1.539258E-2	9.747426E-3	2.059732E-2	9.109740E-3	7.899875E-3	5.020517E-3	6.252614E-4	1.080567E-2	3.819969E-3	1.570345E-2	8.946348E-3	1.107759E-2	1.947218E-2	7.586168E-3	1.153983E-2	6.846622E-3	8.364618E-3	1.531451E-2	2.505791E-3	1.098769E-2	1.135286E-2	1.489718E-2	1.139866E-2	1.201567E-2	1.255659E-2	5.967162E-3	4.455325E-3	4.592126E-3	1.284196E-2	1.621593E-2	5.828141E-3	8.639784E-3	2.073103E-2	9.435823E-3	8.971278E-3	-7.646226E-3	-2.021929E-3
5.330280E+2	1.224888E-2	1.943045E-2	1.573542E-2	2.349398E-2	1.069998E-2	2.396677E-2	1.966458E-2	3.343312E-2	1.748171E-2	1.958655E-2	2.586744E-2	2.276571E-2	1.679481E-2	2.096900E-2	1.253325E-2	2.727654E-2	2.508104E-2	1.874770E-2	3.624574E-2	2.562189E-2	2.128153E-2	1.334038E-2	2.095154E-2	1.677624E-2	2.323666E-2	1.627451E-2	2.135257E-2	2.273259E-2	1.912202E-2	1.665476E-2	2.038842E-2	2.489603E-2	1.507618E-2	2.221092E-2	8.909284E-3	1.955740E-2	1.834110E-2	2.593730E-2	1.934387E-2	1.778951E-2	2.296155E-2	1.492518E-2	1.950033E-2	3.425323E-2	1.848020E-2	1.057455E-2	2.794482E-2	1.605171E-2	2.547893E-2	1.566381E-2	3.938943E-3	2.390779E-2	2.147745E-2	1.987731E-2	1.833468E-2	1.610233E-2	3.017044E-2	1.970969E-2	9.184642E-3	2.025232E-2	1.703501E-2	2.992046E-2	1.375878E-2	2.342198E-2	1.514964E-2	2.326092E-2	3.668424E-2	1.979024E-2	3.371719E-2	2.144076E-2	2.324396E-2	1.812637E-2	2.337450E-2	1.211062E-2	2.478989E-2	1.878391E-2	1.690830E-2	1.960574E-2	1.148222E-2	2.041927E-2	7.361142E-3	1.315498E-2	1.447875E-2	2.602506E-2	2.674115E-2	2.042980E-2	9.386274E-3	1.402695E-2	2.325126E-2	2.960780E-2	2.078087E-2	1.054969E-2	2.430860E-2	1.308234E-2	2.293061E-2	2.347872E-2	1.292300E-2	1.212011E-2	1.484669E-2	7.484583E-3	1.079234E-2	2.030101E-2	1.227111E-2	2.413070E-2	2.004751E-2	1.101628E-2	2.361139E-2	2.197990E-2	1.042067E-2	1.061032E-2	2.350749E-2	9.894966E-3	1.796557E-2	1.948961E-2	3.090845E-2	1.689523E-2	1.429152E-2	1.599761E-2	9.970495E-3	1.768031E-2	1.914115E-2	2.486388E-2	2.135150E-2	3.217541E-2	2.085011E-2	2.316783E-2	1.548278E-2	1.023498E-2	1.971022E-2	1.761497E-2	1.601267E-2	2.241646E-2	2.515178E-2	2.781942E-2	2.461002E-2	3.255596E-2	1.972337E-2	1.894219E-2	2.957438E-2	2.418729E-2	1.399051E-2	1.401533E-2	3.144242E-2	1.950766E-2	1.896360E-2	1.553219E-2	2.545088E-2	1.237930E-2	2.611322E-2	1.257594E-2	1.814656E-2	2.251005E-2	1.642945E-2	9.844451E-3	1.715712E-2	2.141544E-2	1.485385E-2	2.327361E-2	2.337014E-2	1.658810E-2	2.467056E-2	2.402426E-2	1.982979E-2	1.328744E-2	1.415750E-2	1.947603E-2	2.391642E-2	2.021965E-2	2.729274E-2	2.498823E-2	3.172427E-2	-1.992310E-3
5.331580E+2	2.932610E-2	2.135371E-2	2.336478E-2	2.279433E-2	2.136503E-2	2.167068E-2	1.558460E-2	3.162334E-2	3.048455E-2	3.738893E-2	2.385496E-2	2.900998E-2	2.219389E-2	2.451815E-2	3.426628E-2	2.044890E-2	2.480874E-2	2.238984E-2	2.585891E-2	2.063897E-2	2.483764E-2	2.869581E-2	2.608550E-2	2.415218E-2	2.515804E-2	2.594943E-2	2.417544E-2	2.416516E-2	1.845154E-2	3.335609E-2	3.353278E-2	3.860702E-2	2.211397E-2	1.980604E-2	2.206824E-2	3.056785E-2	2.782579E-2	4.057277E-2	2.348737E-2	2.582455E-2	1.925020E-2	2.449488E-2	2.539434E-2	3.574057E-2	2.425294E-2	1.996492E-2	1.882593E-2	2.716699E-2	1.374829E-2	2.120398E-2	2.262646E-2	3.060849E-2	2.417855E-2	2.137987E-2	2.968307E-2	3.573025E-2	2.148880E-2	1.373609E-2	2.717514E-2	1.252929E-2	3.256335E-2	1.996083E-2	2.507927E-2	1.870633E-2	2.395698E-2	4.178537E-2	2.379941E-2	2.283720E-2	1.826635E-2	2.391752E-2	3.740574E-2	2.890410E-2	2.210472E-2	3.001347E-2	3.135721E-2	2.578239E-2	1.588694E-2	2.739404E-2	2.485533E-2	3.343056E-2	2.820335E-2	2.315189E-2	2.201001E-2	2.154894E-2	3.251280E-2	2.811814E-2	2.246094E-2	3.078458E-2	3.602760E-2	2.465607E-2	2.108664E-2	2.064527E-2	1.901296E-2	2.178670E-2	3.562812E-2	1.983817E-2	2.304310E-2	2.577620E-2	1.636677E-2	2.345085E-2	1.547744E-2	2.258063E-2	2.720097E-2	2.748971E-2	2.873469E-2	2.004737E-2	3.385728E-2	2.242614E-2	1.702667E-2	2.422820E-2	2.141727E-2	2.495870E-2	1.729797E-2	2.026166E-2	3.650053E-2	2.027092E-2	2.087027E-2	2.668686E-2	3.188411E-2	3.178220E-2	1.905688E-2	1.843816E-2	2.229640E-2	2.152753E-2	2.723839E-2	1.970795E-2	1.423129E-2	2.983196E-2	2.216545E-2	2.658196E-2	2.834895E-2	2.457865E-2	2.183555E-2	3.741797E-2	2.583112E-2	2.046716E-2	2.426306E-2	2.327940E-2	2.136263E-2	2.725374E-2	2.355691E-2	2.611191E-2	3.281256E-2	2.861995E-2	2.420597E-2	1.864786E-2	1.843334E-2	3.836231E-2	2.129478E-2	1.341859E-2	4.084226E-2	4.302746E-2	3.138275E-2	2.642972E-2	2.147797E-2	1.574842E-2	1.857794E-2	2.125321E-2	1.589228E-2	2.234723E-2	1.977261E-2	2.434135E-2	1.190055E-2	3.089524E-2	3.641249E-2	2.707407E-2	2.582750E-2	2.116862E-2	3.294762E-2	3.027936E-2	3.251873E-2	3.647419E-2
5.333130E+2	2.968028E-2	2.998146E-2	3.319571E-2	4.304827E-2	3.439140E-2	3.275256E-2	2.934351E-2	3.480684E-2	3.190280E-2	4.495793E-2	2.467237E-2	3.096908E-2	4.058237E-2	3.051281E-2	3.218479E-2	3.782740E-2	3.577818E-2	2.438341E-2	3.857755E-2	4.704239E-2	2.870375E-2	3.011020E-2	3.581265E-2	3.126479E-2	2.864341E-2	1.926057E-2	3.413553E-2	4.434262E-2	3.414267E-2	4.134314E-2	3.627459E-2	3.922358E-2	3.333589E-2	3.401618E-2	3.015452E-2	3.601928E-2	2.203238E-2	4.601524E-2	2.773150E-2	4.533396E-2	2.974472E-2	3.420224E-2	3.337988E-2	3.337174E-2	3.328198E-2	2.693906E-2	3.894519E-2	4.356407E-2	4.539337E-2	3.310129E-2	3.139044E-2	2.523949E-2	3.525024E-2	3.379734E-2	3.160183E-2	3.074460E-2	3.597997E-2	3.545267E-2	3.774304E-2	3.470273E-2	3.064512E-2	2.876183E-2	3.484220E-2	3.495023E-2	3.596629E-2	3.253787E-2	3.784310E-2	4.078297E-2	3.128402E-2	2.657076E-2	3.454658E-2	4.809032E-2	3.397534E-2	3.661335E-2	4.602727E-2	3.502285E-2	3.267468E-2	3.228993E-2	4.227091E-2	3.439712E-2	3.632871E-2	3.628655E-2	3.017314E-2	4.405950E-2	3.204358E-2	3.886106E-2	3.189173E-2	3.260307E-2	3.753417E-2	2.815266E-2	4.238254E-2	2.683097E-2	4.165240E-2	2.776210E-2	4.443168E-2	2.510245E-2	3.964093E-2	3.872145E-2	3.019123E-2	2.936272E-2	3.610190E-2	3.581548E-2	3.416792E-2	3.383923E-2	3.574893E-2	2.956194E-2	3.651617E-2	3.444495E-2	2.844200E-2	2.422501E-2	3.898506E-2	2.588126E-2	3.886399E-2	2.926894E-2	3.276353E-2	3.447701E-2	3.867706E-2	1.812030E-2	2.251809E-2	4.018773E-2	3.393816E-2	3.228300E-2	2.527973E-2	3.701619E-2	3.636144E-2	3.542495E-2	2.705379E-2	2.879431E-2	3.925419E-2	4.198234E-2	5.083225E-2	2.489197E-2	2.422577E-2	3.623253E-2	3.066631E-2	2.818037E-2	4.040612E-2	3.488870E-2	4.855852E-2	3.803367E-2	4.195826E-2	2.654436E-2	3.700574E-2	2.856436E-2	3.581438E-2	3.636130E-2	3.823287E-2	2.441498E-2	1.397451E-2	3.720333E-2	5.092526E-2	3.497799E-2	2.848498E-2	4.900874E-2	3.615830E-2	3.055745E-2	3.820780E-2	1.580123E-2	3.231148E-2	3.129547E-2	4.031119E-2	3.971757E-2	3.847087E-2	4.120436E-2	2.850637E-2	4.222973E-2	4.195081E-2	4.002253E-2	3.721546E-2	3.642637E-2	2.097174E-2	5.080124E-3
5.334630E+2	4.969605E-2	5.251422E-2	3.219775E-2	4.249869E-2	3.881460E-2	4.310331E-2	4.783811E-2	3.442010E-2	4.463320E-2	4.397230E-2	4.440896E-2	4.112828E-2	4.713879E-2	3.313065E-2	3.975821E-2	3.476019E-2	5.019088E-2	3.541980E-2	3.716503E-2	5.143914E-2	5.312163E-2	4.128722E-2	4.520452E-2	5.548991E-2	2.932868E-2	4.673388E-2	6.235120E-2	4.442371E-2	4.854788E-2	4.225492E-2	4.129143E-2	5.384436E-2	5.300378E-2	3.959999E-2	3.018914E-2	4.310578E-2	4.481430E-2	5.440245E-2	4.833093E-2	4.148157E-2	5.035567E-2	4.505843E-2	5.023467E-2	3.231886E-2	5.052221E-2	4.406756E-2	4.240406E-2	4.232532E-2	5.354621E-2	4.039819E-2	4.627717E-2	4.312373E-2	4.847834E-2	5.405530E-2	6.504643E-2	5.180777E-2	3.669782E-2	4.309585E-2	4.310769E-2	3.892286E-2	4.945717E-2	3.549311E-2	5.753340E-2	4.380883E-2	4.618249E-2	3.220540E-2	4.043433E-2	4.527091E-2	4.875026E-2	4.303374E-2	4.093769E-2	5.200347E-2	3.765383E-2	5.018915E-2	5.217986E-2	4.316945E-2	3.801359E-2	4.496776E-2	4.540676E-2	4.834256E-2	3.653479E-2	3.013165E-2	3.884506E-2	4.444966E-2	5.134013E-2	3.805852E-2	4.947464E-2	3.801546E-2	3.925697E-2	4.943443E-2	5.449591E-2	5.798304E-2	4.921921E-2	4.201299E-2	5.182858E-2	5.678850E-2	3.825695E-2	3.891984E-2	4.649021E-2	3.594224E-2	5.651592E-2	4.738341E-2	4.503328E-2	4.854067E-2	3.873896E-2	3.895979E-2	3.871109E-2	5.253650E-2	3.414901E-2	4.995465E-2	4.445387E-2	4.607918E-2	3.548050E-2	6.027555E-2	4.667931E-2	4.250899E-2	5.141527E-2	4.025492E-2	5.232962E-2	4.788113E-2	4.011642E-2	4.393765E-2	4.242532E-2	4.109503E-2	3.831353E-2	4.752803E-2	4.142158E-2	4.557842E-2	4.856851E-2	5.147649E-2	3.993752E-2	3.707944E-2	3.408797E-2	4.144445E-2	5.180502E-2	5.034433E-2	4.741701E-2	3.850424E-2	4.077134E-2	4.367648E-2	4.661384E-2	4.183183E-2	5.475784E-2	4.617752E-2	3.031247E-2	4.263946E-2	4.950307E-2	4.931510E-2	4.196771E-2	3.631096E-2	4.208290E-2	5.930467E-2	5.127385E-2	4.723074E-2	5.097585E-2	4.494951E-2	3.136108E-2	4.798015E-2	3.691959E-2	2.555914E-2	5.537071E-2	5.403190E-2	5.151863E-2	4.390479E-2	3.960397E-2	5.153425E-2	4.414105E-2	6.125333E-2	4.798287E-2	5.003676E-2	4.878694E-2	1.791030E-2
5.336030E+2	6.141675E-2	3.586901E-2	5.597943E-2	4.858339E-2	5.307058E-2	5.565205E-2	6.160150E-2	5.444899E-2	7.663631E-2	5.640741E-2	5.540990E-2	4.127132E-2	5.089682E-2	5.345283E-2	5.593274E-2	5.899220E-2	6.007570E-2	6.682405E-2	5.473170E-2	6.024541E-2	4.565503E-2	5.506659E-2	5.989723E-2	5.889150E-2	5.277798E-2	6.025043E-2	6.085484E-2	6.852773E-2	4.529416E-2	6.879649E-2	5.965428E-2	5.319446E-2	6.353020E-2	5.845574E-2	5.233533E-2	4.586262E-2	4.680060E-2	6.782234E-2	6.259078E-2	5.827165E-2	6.644108E-2	5.308411E-2	4.885239E-2	5.498675E-2	5.982885E-2	6.799720E-2	6.264236E-2	5.771456E-2	6.235509E-2	5.591192E-2	5.444519E-2	6.955064E-2	6.085242E-2	6.639992E-2	4.552664E-2	6.953070E-2	4.639792E-2	6.259249E-2	7.102787E-2	6.000324E-2	6.412052E-2	5.961682E-2	5.975298E-2	6.721774E-2	5.800082E-2	5.223120E-2	5.672121E-2	7.111606E-2	6.475870E-2	6.053236E-2	5.786182E-2	6.328285E-2	5.923615E-2	5.343594E-2	5.720668E-2	5.632950E-2	6.035192E-2	4.468452E-2	4.952305E-2	5.827113E-2	5.727864E-2	7.152263E-2	4.650160E-2	6.522903E-2	4.917517E-2	6.734938E-2	5.212265E-2	5.576881E-2	5.822625E-2	5.432225E-2	5.709790E-2	6.191852E-2	4.100705E-2	6.323571E-2	5.573084E-2	7.108700E-2	5.572672E-2	5.862010E-2	6.035025E-2	5.447857E-2	5.964865E-2	5.149316E-2	6.261813E-2	5.603205E-2	5.604054E-2	6.367418E-2	7.171218E-2	6.451902E-2	5.138368E-2	5.968197E-2	7.467978E-2	5.829903E-2	5.742142E-2	5.329019E-2	6.125354E-2	4.609578E-2	5.061402E-2	5.835628E-2	6.647271E-2	5.651820E-2	5.584604E-2	5.548821E-2	4.442925E-2	7.817967E-2	4.232188E-2	6.521452E-2	4.597283E-2	5.189447E-2	5.333219E-2	6.898843E-2	6.104940E-2	7.413264E-2	5.730462E-2	7.091135E-2	6.447237E-2	6.156838E-2	6.274186E-2	6.230145E-2	5.616054E-2	5.964999E-2	7.153586E-2	5.077540E-2	6.545989E-2	7.249842E-2	7.188802E-2	5.321578E-2	4.762312E-2	6.846018E-2	5.598039E-2	5.352191E-2	5.605776E-2	6.372074E-2	6.833208E-2	5.280292E-2	7.011840E-2	5.074074E-2	6.550523E-2	6.226190E-2	5.721098E-2	5.035941E-2	6.133148E-2	6.120599E-2	4.770940E-2	5.543397E-2	5.496713E-2	5.330572E-2	6.859666E-2	4.624934E-2	7.710883E-2	4.974966E-2	8.756021E-2	2.512122E-2
5.337580E+2	9.625237E-2	6.590882E-2	8.134255E-2	8.711538E-2	8.431858E-2	9.044328E-2	7.122665E-2	7.539036E-2	7.402488E-2	8.040304E-2	7.087607E-2	8.700320E-2	7.994803E-2	7.926109E-2	8.045187E-2	6.981227E-2	8.576440E-2	6.827790E-2	7.686722E-2	7.185718E-2	7.712136E-2	7.694764E-2	7.873942E-2	9.091672E-2	7.583823E-2	7.674913E-2	9.237712E-2	6.177732E-2	8.826598E-2	8.290747E-2	7.283604E-2	7.550313E-2	8.021079E-2	6.908275E-2	8.437422E-2	7.782861E-2	6.926000E-2	7.908269E-2	8.065978E-2	7.896411E-2	8.199575E-2	9.497809E-2	6.240462E-2	8.125333E-2	8.320292E-2	7.160200E-2	8.146398E-2	8.726371E-2	8.225037E-2	7.765249E-2	8.308119E-2	7.882487E-2	8.147334E-2	8.028623E-2	8.202163E-2	6.266212E-2	8.760765E-2	8.052692E-2	9.323118E-2	7.039459E-2	8.204782E-2	7.877525E-2	7.359816E-2	8.367795E-2	7.250963E-2	8.539526E-2	9.530665E-2	8.303963E-2	8.533646E-2	9.432108E-2	7.570107E-2	7.497240E-2	8.798799E-2	7.801782E-2	7.974257E-2	7.366659E-2	9.303643E-2	7.086852E-2	8.115035E-2	8.574688E-2	7.910418E-2	7.541745E-2	8.640662E-2	8.170692E-2	8.028755E-2	7.590651E-2	8.326640E-2	8.839988E-2	7.780040E-2	6.774027E-2	7.555996E-2	8.210468E-2	7.421866E-2	8.089558E-2	8.577525E-2	6.970866E-2	8.200413E-2	7.735996E-2	7.822462E-2	8.937425E-2	8.206369E-2	8.046616E-2	7.918263E-2	6.800659E-2	8.685092E-2	8.123240E-2	7.598203E-2	8.891760E-2	8.647635E-2	9.534971E-2	8.137024E-2	7.288092E-2	6.487411E-2	6.647739E-2	8.512757E-2	7.730541E-2	8.039355E-2	7.795095E-2	5.874005E-2	8.604863E-2	9.782482E-2	7.525301E-2	7.069431E-2	6.516608E-2	8.002705E-2	6.161221E-2	8.278501E-2	7.570810E-2	8.288427E-2	8.299677E-2	7.274362E-2	7.781668E-2	6.995843E-2	7.912743E-2	8.716554E-2	8.163454E-2	7.619266E-2	8.842445E-2	7.598471E-2	7.077804E-2	8.551932E-2	7.834480E-2	7.922413E-2	8.322052E-2	6.926276E-2	5.726971E-2	7.384552E-2	7.774224E-2	7.931166E-2	9.277745E-2	8.173319E-2	7.850284E-2	9.054007E-2	8.003454E-2	8.544897E-2	7.962862E-2	8.622843E-2	7.990588E-2	7.740931E-2	8.368898E-2	9.058927E-2	7.535645E-2	8.647935E-2	8.294396E-2	7.885711E-2	9.281326E-2	8.866049E-2	9.501162E-2	8.076031E-2	9.031658E-2	9.360517E-2	7.470440E-2
5.339090E+2	9.759929E-2	1.176280E-1	1.162146E-1	1.084221E-1	1.115016E-1	1.293819E-1	1.220652E-1	1.107906E-1	9.897381E-2	1.215404E-1	9.948505E-2	1.031142E-1	1.068808E-1	1.077377E-1	1.058630E-1	1.096294E-1	1.115984E-1	1.156052E-1	1.036322E-1	1.070413E-1	1.376781E-1	1.372533E-1	1.181645E-1	1.144975E-1	1.156490E-1	9.735637E-2	1.113792E-1	1.187026E-1	1.227156E-1	1.049579E-1	1.159648E-1	1.116342E-1	9.916664E-2	1.202911E-1	8.854821E-2	1.134594E-1	1.050754E-1	1.210470E-1	1.234281E-1	9.808539E-2	1.220539E-1	1.093058E-1	9.922249E-2	1.127640E-1	9.818284E-2	1.294509E-1	1.063109E-1	1.146729E-1	1.132060E-1	1.069455E-1	1.030394E-1	1.087644E-1	1.014286E-1	1.124006E-1	1.136440E-1	1.106908E-1	1.130419E-1	1.149003E-1	1.132810E-1	1.117574E-1	1.124758E-1	1.126856E-1	1.178493E-1	1.230737E-1	1.262000E-1	1.117452E-1	1.179306E-1	1.286591E-1	1.242652E-1	1.012399E-1	1.182701E-1	1.257288E-1	1.204333E-1	1.101103E-1	1.084059E-1	1.184838E-1	1.369469E-1	1.250085E-1	1.129533E-1	1.255390E-1	1.121262E-1	1.199011E-1	1.107587E-1	1.175381E-1	1.236776E-1	1.174196E-1	1.117736E-1	1.190371E-1	1.129018E-1	1.067638E-1	1.090648E-1	1.172036E-1	1.125381E-1	1.068491E-1	1.103457E-1	1.099649E-1	1.222492E-1	1.218098E-1	1.106990E-1	1.088300E-1	1.171160E-1	1.067985E-1	1.141068E-1	1.137521E-1	1.005302E-1	1.176757E-1	1.254315E-1	1.248369E-1	1.037807E-1	1.100270E-1	1.224804E-1	1.268960E-1	1.221889E-1	1.012382E-1	1.255346E-1	1.204136E-1	1.022724E-1	1.220436E-1	1.027477E-1	1.024851E-1	1.048645E-1	1.083438E-1	1.102453E-1	1.019672E-1	1.015296E-1	1.228363E-1	1.173249E-1	1.259576E-1	1.119102E-1	1.160478E-1	1.163653E-1	1.371703E-1	1.058607E-1	1.382324E-1	1.203014E-1	1.156262E-1	1.159910E-1	1.142820E-1	1.155266E-1	1.022845E-1	1.045082E-1	1.149818E-1	1.189136E-1	1.084316E-1	1.061905E-1	1.128426E-1	1.207912E-1	1.191142E-1	9.768902E-2	1.250315E-1	1.184677E-1	1.199109E-1	1.033651E-1	1.060790E-1	1.197676E-1	1.240646E-1	1.171727E-1	1.176888E-1	1.165515E-1	1.210303E-1	1.049670E-1	1.056881E-1	1.123336E-1	1.165261E-1	1.066139E-1	1.211766E-1	1.042807E-1	1.173048E-1	1.351963E-1	1.151460E-1	1.486231E-1	9.594626E-2
5.340740E+2	1.830575E-1	1.795137E-1	1.500031E-1	1.782821E-1	1.787531E-1	1.802614E-1	1.811162E-1	1.836497E-1	1.954438E-1	1.894745E-1	2.084179E-1	1.853521E-1	1.860596E-1	1.845481E-1	1.756927E-1	1.765108E-1	1.711069E-1	1.774809E-1	1.765876E-1	1.746618E-1	1.725659E-1	1.892597E-1	2.026331E-1	1.802963E-1	1.936268E-1	1.991526E-1	1.901000E-1	1.678309E-1	1.624579E-1	1.977179E-1	1.934628E-1	1.689965E-1	2.029176E-1	1.872082E-1	1.804553E-1	1.658979E-1	1.896215E-1	1.833143E-1	1.751255E-1	1.875214E-1	1.864200E-1	1.738200E-1	1.858870E-1	1.934136E-1	1.835469E-1	1.931845E-1	1.924281E-1	1.957086E-1	1.931310E-1	1.618496E-1	1.742877E-1	1.874818E-1	1.988634E-1	1.789235E-1	1.620394E-1	1.900242E-1	1.799858E-1	1.835630E-1	1.774376E-1	1.897832E-1	1.980060E-1	1.695502E-1	1.723463E-1	1.851551E-1	1.768019E-1	1.812223E-1	1.749313E-1	1.761843E-1	1.862753E-1	1.625000E-1	2.014601E-1	2.054631E-1	1.766913E-1	1.997530E-1	1.880163E-1	1.812095E-1	1.782099E-1	1.956162E-1	1.938776E-1	2.058297E-1	1.888236E-1	1.829140E-1	1.828708E-1	1.779645E-1	1.768255E-1	1.749033E-1	1.815137E-1	1.737998E-1	1.871976E-1	1.843726E-1	1.708732E-1	2.009210E-1	1.779444E-1	1.846539E-1	1.782593E-1	2.045819E-1	1.834405E-1	1.736018E-1	1.905994E-1	1.693680E-1	1.959156E-1	1.931235E-1	1.771392E-1	2.108317E-1	1.828706E-1	1.742573E-1	1.717680E-1	2.192036E-1	1.753136E-1	1.787046E-1	1.739350E-1	1.701775E-1	1.854127E-1	1.783830E-1	1.910419E-1	1.704431E-1	1.750350E-1	1.987054E-1	1.762198E-1	2.076196E-1	1.710674E-1	1.912796E-1	1.830322E-1	1.904281E-1	1.869105E-1	1.754532E-1	1.824266E-1	2.036752E-1	1.920302E-1	1.917707E-1	1.918193E-1	1.894278E-1	1.924244E-1	1.815143E-1	1.754075E-1	1.717582E-1	1.833896E-1	1.689179E-1	1.862302E-1	1.716007E-1	1.895824E-1	1.981123E-1	1.999348E-1	1.855321E-1	1.937785E-1	1.891815E-1	1.783241E-1	2.095838E-1	1.892324E-1	1.945344E-1	1.754550E-1	1.820091E-1	1.880569E-1	1.544121E-1	1.776081E-1	1.914012E-1	1.841015E-1	1.906535E-1	1.635888E-1	1.972492E-1	1.883072E-1	1.917177E-1	1.754847E-1	2.057909E-1	1.948604E-1	1.967693E-1	1.755707E-1	1.927759E-1	1.982678E-1	1.924912E-1	2.036519E-1	1.878038E-1
5.342090E+2	3.106477E-1	2.996432E-1	3.126172E-1	2.860102E-1	3.067025E-1	3.099602E-1	3.103164E-1	3.109687E-1	3.044876E-1	3.097095E-1	3.162214E-1	3.144495E-1	3.012373E-1	3.028634E-1	3.017123E-1	3.159651E-1	3.078385E-1	3.073221E-1	2.925559E-1	2.841711E-1	2.946305E-1	2.979037E-1	2.954812E-1	3.010408E-1	3.043947E-1	3.077031E-1	3.139424E-1	3.046567E-1	3.058443E-1	2.914810E-1	3.048471E-1	3.022098E-1	2.760707E-1	3.038886E-1	2.839741E-1	3.105543E-1	3.012524E-1	2.888871E-1	3.054539E-1	3.048344E-1	2.837874E-1	2.937673E-1	2.974268E-1	3.060698E-1	2.914619E-1	3.091051E-1	3.035141E-1	2.915030E-1	3.090429E-1	3.082188E-1	2.708604E-1	3.190709E-1	3.194205E-1	3.056966E-1	2.974973E-1	2.890767E-1	3.041624E-1	3.089731E-1	3.129711E-1	2.815114E-1	3.207238E-1	2.788889E-1	2.856337E-1	3.148113E-1	3.112224E-1	2.955967E-1	2.952603E-1	3.036900E-1	3.079553E-1	3.347559E-1	3.252716E-1	3.208060E-1	3.034738E-1	2.930867E-1	3.088174E-1	3.020490E-1	3.113932E-1	3.122630E-1	3.044377E-1	3.136295E-1	3.278653E-1	2.943126E-1	3.193057E-1	2.986992E-1	2.768220E-1	3.114750E-1	2.914406E-1	2.916209E-1	3.036585E-1	3.198883E-1	2.682128E-1	3.204843E-1	2.936447E-1	2.899982E-1	2.982340E-1	2.905836E-1	3.046118E-1	3.041896E-1	2.842488E-1	3.118428E-1	3.027195E-1	2.914675E-1	2.997689E-1	2.981790E-1	2.816443E-1	2.899888E-1	3.036306E-1	2.996451E-1	2.999891E-1	3.074354E-1	3.144017E-1	2.950286E-1	2.856233E-1	2.952831E-1	2.920649E-1	2.951411E-1	3.142514E-1	2.914834E-1	3.038960E-1	2.992666E-1	2.798436E-1	3.073543E-1	3.048136E-1	2.917471E-1	3.055986E-1	2.844201E-1	3.094618E-1	3.168061E-1	3.034886E-1	2.976295E-1	3.264459E-1	3.010760E-1	3.052696E-1	3.152234E-1	2.729648E-1	3.161913E-1	2.947751E-1	2.805640E-1	3.005638E-1	3.008951E-1	3.012544E-1	3.154484E-1	2.961408E-1	3.130824E-1	2.979851E-1	3.053896E-1	2.997746E-1	2.898880E-1	2.769085E-1	2.990221E-1	3.140423E-1	3.145705E-1	3.172145E-1	3.119443E-1	3.077386E-1	3.157754E-1	3.092035E-1	2.990268E-1	2.997586E-1	3.116280E-1	3.278949E-1	3.025402E-1	2.955352E-1	2.951876E-1	3.033596E-1	3.273905E-1	3.042248E-1	2.945370E-1	3.259976E-1	2.790658E-1	3.095002E-1	2.430823E-1
5.343600E+2	5.639663E-1	5.495988E-1	5.141554E-1	5.596747E-1	5.591845E-1	5.723192E-1	5.417332E-1	5.684602E-1	5.606919E-1	5.789426E-1	5.342447E-1	5.722602E-1	5.769647E-1	5.607548E-1	5.560370E-1	5.922062E-1	5.166079E-1	5.499480E-1	5.527660E-1	5.533580E-1	5.355661E-1	5.406368E-1	5.678303E-1	5.543558E-1	5.513329E-1	5.769378E-1	5.684704E-1	5.311588E-1	5.451894E-1	5.624184E-1	5.415516E-1	5.552740E-1	5.681587E-1	5.928038E-1	5.308882E-1	5.718166E-1	5.290822E-1	5.782558E-1	5.483099E-1	5.463669E-1	5.427283E-1	5.283905E-1	5.557297E-1	5.547205E-1	5.666748E-1	5.270133E-1	5.590105E-1	5.614508E-1	5.397060E-1	5.401078E-1	5.411334E-1	5.285910E-1	5.609819E-1	5.644091E-1	5.728698E-1	5.410061E-1	5.579428E-1	5.555391E-1	5.743048E-1	5.561882E-1	5.554590E-1	5.342981E-1	5.955390E-1	5.615749E-1	5.769674E-1	5.532186E-1	5.421172E-1	5.528144E-1	5.159267E-1	5.585113E-1	5.475730E-1	5.679313E-1	5.710159E-1	5.767439E-1	5.364599E-1	5.378065E-1	5.552213E-1	5.615603E-1	5.246960E-1	5.656907E-1	5.614309E-1	5.648589E-1	5.744307E-1	5.308017E-1	5.449728E-1	5.774078E-1	5.273045E-1	5.866047E-1	5.281051E-1	5.334111E-1	5.474597E-1	5.576485E-1	5.330708E-1	5.393469E-1	5.612154E-1	5.569588E-1	5.771749E-1	5.392263E-1	5.850157E-1	5.588099E-1	5.967190E-1	5.747414E-1	5.590623E-1	5.802310E-1	5.438889E-1	5.482404E-1	5.215707E-1	5.566683E-1	5.485447E-1	5.845305E-1	5.552127E-1	5.827923E-1	5.620176E-1	5.525372E-1	5.764141E-1	5.440076E-1	5.659350E-1	5.223635E-1	5.388299E-1	5.825130E-1	5.430423E-1	5.584270E-1	5.784731E-1	5.345987E-1	5.394158E-1	5.313073E-1	5.592162E-1	5.618043E-1	5.839457E-1	5.266504E-1	5.408805E-1	5.777805E-1	5.889319E-1	5.857158E-1	5.599199E-1	5.432571E-1	5.617720E-1	5.664995E-1	5.576205E-1	5.605905E-1	5.793297E-1	5.817064E-1	5.421464E-1	5.600899E-1	5.420014E-1	5.633394E-1	5.731010E-1	5.628256E-1	5.759053E-1	5.367670E-1	5.352282E-1	5.522687E-1	5.570574E-1	5.767213E-1	5.768540E-1	5.896753E-1	5.681941E-1	5.516355E-1	5.473915E-1	5.551184E-1	5.558040E-1	5.929730E-1	5.418158E-1	5.195104E-1	5.708495E-1	5.309090E-1	5.565773E-1	5.689743E-1	5.826575E-1	5.829673E-1	5.977967E-1	5.249262E-1
5.345050E+2	9.228049E-1	8.704936E-1	8.652292E-1	9.089866E-1	8.813053E-1	8.686381E-1	8.671187E-1	9.133132E-1	8.868949E-1	8.799842E-1	9.400145E-1	8.707218E-1	8.904484E-1	9.153722E-1	9.126304E-1	9.112176E-1	8.994467E-1	8.879736E-1	9.073380E-1	8.808818E-1	9.232680E-1	9.320194E-1	8.637091E-1	8.900992E-1	8.933316E-1	9.357735E-1	8.700640E-1	9.032449E-1	8.946724E-1	9.050479E-1	8.835661E-1	8.931948E-1	9.324757E-1	8.919734E-1	8.613741E-1	9.022849E-1	9.023228E-1	9.018112E-1	8.480265E-1	8.814814E-1	9.231956E-1	8.832410E-1	9.102772E-1	8.504955E-1	8.969630E-1	8.930952E-1	8.697333E-1	8.692742E-1	9.183371E-1	8.758272E-1	8.795362E-1	9.228116E-1	9.116891E-1	9.043421E-1	9.241216E-1	8.995441E-1	9.368565E-1	9.139914E-1	9.355040E-1	8.776544E-1	9.241063E-1	8.641122E-1	8.801564E-1	8.833795E-1	9.081943E-1	9.249744E-1	9.057937E-1	8.777229E-1	8.864659E-1	8.990727E-1	8.960013E-1	9.073575E-1	9.054996E-1	8.962389E-1	8.752929E-1	9.176588E-1	9.013267E-1	9.213499E-1	8.855939E-1	9.351234E-1	9.176069E-1	8.582312E-1	8.853475E-1	8.932261E-1	8.976953E-1	9.341269E-1	8.582979E-1	9.248852E-1	9.129369E-1	9.133318E-1	8.985405E-1	9.072453E-1	8.853675E-1	8.858178E-1	8.866415E-1	9.285924E-1	9.377321E-1	9.206611E-1	8.817527E-1	9.004026E-1	8.962665E-1	8.469131E-1	8.871724E-1	8.646321E-1	9.059076E-1	8.850756E-1	8.909001E-1	9.305329E-1	9.416867E-1	8.721690E-1	8.788723E-1	9.259496E-1	9.160549E-1	9.143724E-1	9.158738E-1	9.019698E-1	9.149401E-1	8.704233E-1	9.122838E-1	9.056573E-1	8.349482E-1	8.791763E-1	8.747227E-1	8.813668E-1	8.815724E-1	8.889709E-1	8.630850E-1	9.273490E-1	8.827774E-1	8.939128E-1	8.907744E-1	9.361464E-1	9.188601E-1	9.008330E-1	8.678666E-1	8.969294E-1	8.861912E-1	8.933877E-1	8.655403E-1	8.925171E-1	8.781987E-1	9.232742E-1	9.257507E-1	8.847251E-1	9.141734E-1	9.302051E-1	9.078755E-1	8.820183E-1	9.039415E-1	9.229508E-1	9.166986E-1	8.737616E-1	9.111613E-1	9.070785E-1	8.801323E-1	9.108045E-1	8.811164E-1	9.116246E-1	8.767879E-1	9.184429E-1	9.330393E-1	8.827259E-1	8.499882E-1	9.089067E-1	9.043634E-1	8.907657E-1	8.973282E-1	8.766284E-1	9.125617E-1	8.878356E-1	8.818616E-1	8.807998E-1
5.346620E+2	1.342517E+0	1.308004E+0	1.306611E+0	1.319816E+0	1.281312E+0	1.351135E+0	1.277105E+0	1.340378E+0	1.306903E+0	1.290727E+0	1.314120E+0	1.320435E+0	1.347016E+0	1.345497E+0	1.293838E+0	1.303756E+0	1.333891E+0	1.370334E+0	1.322818E+0	1.316794E+0	1.291964E+0	1.310199E+0	1.360026E+0	1.298290E+0	1.304793E+0	1.338842E+0	1.298314E+0	1.304455E+0	1.313137E+0	1.298549E+0	1.290464E+0	1.296673E+0	1.272276E+0	1.361460E+0	1.297395E+0	1.296165E+0	1.309309E+0	1.321956E+0	1.290036E+0	1.311941E+0	1.294250E+0	1.318587E+0	1.334568E+0	1.363328E+0	1.329912E+0	1.299896E+0	1.288408E+0	1.313908E+0	1.317789E+0	1.308110E+0	1.319075E+0	1.280485E+0	1.396822E+0	1.338333E+0	1.273219E+0	1.277425E+0	1.295083E+0	1.312499E+0	1.395207E+0	1.280127E+0	1.344503E+0	1.324741E+0	1.341344E+0	1.313900E+0	1.332991E+0	1.325131E+0	1.352518E+0	1.257464E+0	1.280377E+0	1.318548E+0	1.329825E+0	1.326747E+0	1.318640E+0	1.300320E+0	1.282207E+0	1.277970E+0	1.289122E+0	1.320706E+0	1.309424E+0	1.301697E+0	1.259389E+0	1.281245E+0	1.362364E+0	1.249073E+0	1.286749E+0	1.352162E+0	1.272852E+0	1.281159E+0	1.345025E+0	1.332800E+0	1.306176E+0	1.339897E+0	1.287411E+0	1.273833E+0	1.330095E+0	1.316682E+0	1.279762E+0	1.286050E+0	1.301828E+0	1.345616E+0	1.287443E+0	1.264388E+0	1.332081E+0	1.252608E+0	1.322850E+0	1.291541E+0	1.290658E+0	1.313344E+0	1.283097E+0	1.344487E+0	1.308170E+0	1.278848E+0	1.325334E+0	1.287834E+0	1.325562E+0	1.294017E+0	1.300932E+0	1.247854E+0	1.314400E+0	1.291807E+0	1.289267E+0	1.314458E+0	1.260849E+0	1.264220E+0	1.296420E+0	1.301702E+0	1.337425E+0	1.279292E+0	1.302221E+0	1.317205E+0	1.314807E+0	1.316107E+0	1.297736E+0	1.304013E+0	1.260848E+0	1.311650E+0	1.329391E+0	1.325886E+0	1.289015E+0	1.281194E+0	1.247087E+0	1.299071E+0	1.290810E+0	1.314903E+0	1.319694E+0	1.344759E+0	1.258134E+0	1.248383E+0	1.287319E+0	1.268635E+0	1.268496E+0	1.295316E+0	1.337576E+0	1.319583E+0	1.283655E+0	1.280122E+0	1.304907E+0	1.318490E+0	1.258684E+0	1.355512E+0	1.274326E+0	1.313386E+0	1.262640E+0	1.278513E+0	1.299066E+0	1.338884E+0	1.292473E+0	1.297633E+0	1.304087E+0	1.286760E+0	1.300445E+0	1.275560E+0
5.348070E+2	1.755826E+0	1.667158E+0	1.649068E+0	1.727436E+0	1.701300E+0	1.726875E+0	1.673521E+0	1.717469E+0	1.678806E+0	1.714880E+0	1.728187E+0	1.726154E+0	1.710976E+0	1.743508E+0	1.730148E+0	1.732230E+0	1.687741E+0	1.698722E+0	1.748746E+0	1.682308E+0	1.668821E+0	1.775124E+0	1.659150E+0	1.650434E+0	1.660599E+0	1.693535E+0	1.715633E+0	1.634255E+0	1.718838E+0	1.681119E+0	1.724028E+0	1.679600E+0	1.725843E+0	1.738413E+0	1.630814E+0	1.681020E+0	1.719624E+0	1.777319E+0	1.649207E+0	1.711297E+0	1.737787E+0	1.637240E+0	1.734830E+0	1.652008E+0	1.625311E+0	1.712500E+0	1.681703E+0	1.684981E+0	1.663164E+0	1.638855E+0	1.720431E+0	1.686755E+0	1.734455E+0	1.687144E+0	1.678945E+0	1.672874E+0	1.768874E+0	1.711396E+0	1.694066E+0	1.742993E+0	1.685766E+0	1.707439E+0	1.685136E+0	1.689723E+0	1.688251E+0	1.701928E+0	1.656529E+0	1.700167E+0	1.613816E+0	1.714858E+0	1.700213E+0	1.714731E+0	1.764258E+0	1.636861E+0	1.655175E+0	1.700824E+0	1.700919E+0	1.650898E+0	1.633523E+0	1.694210E+0	1.676578E+0	1.669936E+0	1.696459E+0	1.677311E+0	1.621859E+0	1.681693E+0	1.652982E+0	1.675057E+0	1.663374E+0	1.674198E+0	1.671770E+0	1.701306E+0	1.624051E+0	1.658745E+0	1.716054E+0	1.665999E+0	1.700627E+0	1.668595E+0	1.732006E+0	1.656406E+0	1.672504E+0	1.640523E+0	1.679498E+0	1.669566E+0	1.672495E+0	1.616781E+0	1.679558E+0	1.707594E+0	1.674592E+0	1.674612E+0	1.698008E+0	1.642203E+0	1.675217E+0	1.635854E+0	1.659543E+0	1.678376E+0	1.653328E+0	1.620572E+0	1.670379E+0	1.695528E+0	1.609616E+0	1.714322E+0	1.660944E+0	1.612290E+0	1.630219E+0	1.646873E+0	1.688887E+0	1.645317E+0	1.669625E+0	1.629699E+0	1.637208E+0	1.665249E+0	1.663644E+0	1.634826E+0	1.637309E+0	1.676917E+0	1.645085E+0	1.608785E+0	1.658348E+0	1.663040E+0	1.635184E+0	1.724704E+0	1.691802E+0	1.627533E+0	1.643007E+0	1.680974E+0	1.648432E+0	1.599639E+0	1.677979E+0	1.655716E+0	1.566914E+0	1.638204E+0	1.675222E+0	1.626668E+0	1.600578E+0	1.599261E+0	1.627183E+0	1.677794E+0	1.625750E+0	1.645058E+0	1.627091E+0	1.643821E+0	1.585309E+0	1.620247E+0	1.667182E+0	1.699348E+0	1.611465E+0	1.652348E+0	1.643959E+0	1.653079E+0	1.647964E+0	1.570723E+0
5.349530E+2	2.030610E+0	1.972293E+0	1.891926E+0	1.971781E+0	1.950119E+0	1.947206E+0	1.989339E+0	2.032635E+0	1.915282E+0	1.955286E+0	1.950314E+0	1.972405E+0	2.017171E+0	2.018052E+0	1.953755E+0	1.961096E+0	1.885105E+0	1.956821E+0	2.029664E+0	1.979745E+0	1.951286E+0	1.971883E+0	1.962415E+0	2.000283E+0	1.987820E+0	2.011707E+0	1.958725E+0	1.930085E+0	1.993131E+0	1.947808E+0	1.927504E+0	1.995985E+0	2.002547E+0	1.968564E+0	1.907630E+0	1.982463E+0	1.972238E+0	1.960046E+0	1.896298E+0	1.943315E+0	1.943568E+0	1.941095E+0	1.953325E+0	1.926276E+0	1.895478E+0	1.946362E+0	1.910972E+0	1.968706E+0	1.920988E+0	1.870668E+0	1.901516E+0	1.967554E+0	1.992987E+0	1.912490E+0	1.958304E+0	1.880625E+0	2.014024E+0	1.907274E+0	1.978469E+0	1.883674E+0	1.985122E+0	1.963253E+0	1.918344E+0	1.943513E+0	1.983266E+0	1.913216E+0	1.978067E+0	1.860948E+0	1.984133E+0	1.984558E+0	1.902675E+0	1.988697E+0	2.066795E+0	1.936287E+0	1.939490E+0	1.983578E+0	1.915911E+0	1.881915E+0	1.869817E+0	1.959387E+0	2.005733E+0	1.936386E+0	1.999811E+0	1.921157E+0	1.885364E+0	1.916799E+0	1.909657E+0	1.956858E+0	1.980788E+0	1.951471E+0	1.898526E+0	1.917188E+0	1.927228E+0	1.917129E+0	1.973367E+0	1.961032E+0	1.982175E+0	1.884235E+0	1.904163E+0	1.920163E+0	1.929823E+0	1.870280E+0	1.943847E+0	1.925508E+0	1.960638E+0	1.968431E+0	1.877441E+0	1.965397E+0	1.859327E+0	1.933555E+0	1.895924E+0	1.868599E+0	1.946018E+0	1.958046E+0	1.912207E+0	1.952735E+0	1.929580E+0	1.869757E+0	1.935144E+0	1.949945E+0	1.867710E+0	1.867360E+0	1.932120E+0	1.846252E+0	1.886543E+0	1.928937E+0	1.919165E+0	1.907219E+0	1.925563E+0	1.947639E+0	1.925547E+0	1.906161E+0	1.969788E+0	1.915771E+0	1.910384E+0	1.855309E+0	1.890411E+0	1.910346E+0	1.848963E+0	1.868589E+0	1.922898E+0	1.918680E+0	1.882935E+0	1.907163E+0	1.905880E+0	1.922506E+0	1.818821E+0	1.884131E+0	1.969214E+0	1.896835E+0	1.840898E+0	1.884905E+0	1.880689E+0	1.879876E+0	1.887144E+0	1.867562E+0	1.884594E+0	1.852334E+0	1.844197E+0	1.913701E+0	1.953212E+0	1.904221E+0	1.828156E+0	1.816233E+0	1.928789E+0	1.896741E+0	1.873962E+0	1.836039E+0	1.938860E+0	1.923787E+0	1.910711E+0	1.856883E+0
5.351140E+2	2.134032E+0	2.060332E+0	1.949000E+0	2.045091E+0	2.105830E+0	2.131016E+0	2.077566E+0	2.132931E+0	2.067689E+0	2.087666E+0	2.097360E+0	2.081917E+0	2.095315E+0	2.064161E+0	2.085364E+0	2.080264E+0	2.050275E+0	2.102802E+0	2.077985E+0	2.027630E+0	1.988806E+0	2.059417E+0	2.011812E+0	2.074587E+0	2.115419E+0	2.105003E+0	2.071750E+0	2.007984E+0	2.042172E+0	2.043207E+0	2.021701E+0	2.095417E+0	2.085042E+0	2.106978E+0	2.027421E+0	2.039363E+0	2.045477E+0	2.062648E+0	1.969254E+0	2.095263E+0	2.076075E+0	2.049403E+0	2.070157E+0	2.048569E+0	2.088855E+0	2.071376E+0	2.009882E+0	2.024189E+0	2.088819E+0	2.071309E+0	2.054087E+0	2.043224E+0	2.100540E+0	1.984487E+0	2.043224E+0	2.013925E+0	2.072310E+0	2.011565E+0	2.061904E+0	2.035478E+0	2.043262E+0	2.030157E+0	2.047199E+0	1.955299E+0	2.033734E+0	2.097747E+0	1.937795E+0	1.980080E+0	2.061259E+0	2.044303E+0	2.000170E+0	2.059509E+0	2.125529E+0	2.028973E+0	2.068550E+0	2.068105E+0	1.995486E+0	2.000692E+0	2.003518E+0	2.066076E+0	2.002678E+0	2.076844E+0	2.069199E+0	1.994331E+0	2.001456E+0	2.052142E+0	1.978484E+0	2.001936E+0	2.039373E+0	2.022836E+0	2.023387E+0	2.002193E+0	1.948836E+0	1.979456E+0	2.033809E+0	2.058033E+0	2.003772E+0	1.957084E+0	2.004515E+0	1.971461E+0	2.012767E+0	1.990213E+0	1.976393E+0	1.930358E+0	2.035394E+0	1.985279E+0	1.984802E+0	2.051986E+0	2.032654E+0	2.054775E+0	1.972943E+0	1.999188E+0	1.937689E+0	2.033925E+0	2.008766E+0	1.975643E+0	1.996358E+0	2.006697E+0	1.986601E+0	1.996187E+0	1.952129E+0	2.021847E+0	1.999542E+0	1.978477E+0	1.928348E+0	1.966882E+0	2.019039E+0	1.981976E+0	2.011384E+0	2.002517E+0	1.941240E+0	2.065950E+0	1.985365E+0	1.965009E+0	1.968844E+0	1.987837E+0	2.002259E+0	2.021951E+0	2.021547E+0	2.044068E+0	1.962057E+0	2.020500E+0	1.984757E+0	1.972876E+0	2.015303E+0	1.992855E+0	1.926696E+0	1.950654E+0	1.992010E+0	2.016784E+0	1.959828E+0	1.949058E+0	1.955310E+0	2.004830E+0	1.954336E+0	1.931683E+0	1.941973E+0	2.058394E+0	1.927288E+0	1.969728E+0	2.075818E+0	1.996452E+0	1.870281E+0	1.952138E+0	2.039702E+0	2.110476E+0	1.952244E+0	1.946114E+0	2.002402E+0	1.978817E+0	1.977086E+0	1.965436E+0
5.352600E+2	2.030915E+0	1.933028E+0	1.869615E+0	1.989033E+0	1.884259E+0	1.951930E+0	1.897069E+0	2.010700E+0	1.927587E+0	1.893299E+0	1.934133E+0	1.959130E+0	1.924261E+0	1.969607E+0	1.912549E+0	1.963732E+0	1.905352E+0	1.969655E+0	1.898208E+0	1.898068E+0	1.936024E+0	1.933466E+0	1.864045E+0	1.943624E+0	1.882372E+0	1.899915E+0	1.905606E+0	1.972813E+0	1.865319E+0	1.870459E+0	1.946647E+0	1.933101E+0	1.899698E+0	1.996258E+0	1.869875E+0	1.876588E+0	1.927653E+0	1.977188E+0	1.899202E+0	1.978023E+0	1.860227E+0	1.892589E+0	1.938812E+0	1.869915E+0	1.916255E+0	1.912022E+0	1.871803E+0	1.906813E+0	1.977069E+0	1.908659E+0	1.914072E+0	1.907793E+0	1.925328E+0	1.860137E+0	1.880480E+0	1.877961E+0	1.976179E+0	1.893313E+0	1.942133E+0	1.859494E+0	1.928423E+0	1.921042E+0	1.876370E+0	1.938952E+0	1.919697E+0	1.961884E+0	1.918642E+0	1.831837E+0	1.894984E+0	1.944469E+0	1.892352E+0	1.908933E+0	1.973099E+0	1.863014E+0	1.898532E+0	1.868980E+0	1.915372E+0	1.915459E+0	1.862601E+0	1.890919E+0	1.939439E+0	1.893880E+0	1.869409E+0	1.833813E+0	1.918292E+0	1.897859E+0	1.830002E+0	1.888609E+0	1.897896E+0	1.879704E+0	1.898447E+0	1.896720E+0	1.907189E+0	1.889148E+0	1.903765E+0	1.868003E+0	1.971666E+0	1.857324E+0	1.908899E+0	1.881218E+0	1.952424E+0	1.858396E+0	1.880440E+0	1.874739E+0	1.872753E+0	1.907964E+0	1.824152E+0	1.988629E+0	1.856756E+0	1.869658E+0	1.887674E+0	1.857658E+0	1.921372E+0	1.913083E+0	1.885489E+0	1.852993E+0	1.899320E+0	1.885691E+0	1.904992E+0	1.890274E+0	1.854515E+0	1.870480E+0	1.869492E+0	1.794195E+0	1.796088E+0	1.847987E+0	1.895626E+0	1.850874E+0	1.896594E+0	1.883967E+0	1.851382E+0	1.852945E+0	1.869526E+0	1.851757E+0	1.828966E+0	1.775720E+0	1.887580E+0	1.792652E+0	1.917169E+0	1.801680E+0	1.857008E+0	1.929765E+0	1.827464E+0	1.886904E+0	1.890465E+0	1.894474E+0	1.805892E+0	1.810160E+0	1.891108E+0	1.839591E+0	1.837606E+0	1.854932E+0	1.896865E+0	1.840086E+0	1.864359E+0	1.814345E+0	1.820170E+0	1.867591E+0	1.843027E+0	1.815686E+0	1.871359E+0	1.894008E+0	1.806809E+0	1.852140E+0	1.899185E+0	1.902628E+0	1.897716E+0	1.835133E+0	1.832682E+0	1.847083E+0	1.746935E+0	1.883369E+0
5.354010E+2	1.765943E+0	1.706865E+0	1.668498E+0	1.770780E+0	1.723382E+0	1.730644E+0	1.656214E+0	1.725156E+0	1.663459E+0	1.690165E+0	1.718372E+0	1.717202E+0	1.716096E+0	1.756863E+0	1.749583E+0	1.696618E+0	1.706702E+0	1.719958E+0	1.662041E+0	1.700779E+0	1.676958E+0	1.679364E+0	1.632840E+0	1.701663E+0	1.661251E+0	1.710456E+0	1.696403E+0	1.699730E+0	1.699128E+0	1.701432E+0	1.700179E+0	1.722232E+0	1.753625E+0	1.708524E+0	1.670220E+0	1.670605E+0	1.688800E+0	1.828247E+0	1.724199E+0	1.649924E+0	1.634253E+0	1.768081E+0	1.738170E+0	1.658763E+0	1.642135E+0	1.652906E+0	1.663774E+0	1.675698E+0	1.689029E+0	1.644863E+0	1.695432E+0	1.691583E+0	1.715320E+0	1.666471E+0	1.717537E+0	1.662005E+0	1.713239E+0	1.709121E+0	1.705523E+0	1.633970E+0	1.698678E+0	1.711431E+0	1.677509E+0	1.670836E+0	1.736453E+0	1.739636E+0	1.708142E+0	1.644644E+0	1.624357E+0	1.683733E+0	1.675415E+0	1.660507E+0	1.756507E+0	1.656269E+0	1.694737E+0	1.701179E+0	1.669839E+0	1.651496E+0	1.730594E+0	1.689409E+0	1.707851E+0	1.698817E+0	1.648016E+0	1.672073E+0	1.675894E+0	1.679066E+0	1.625049E+0	1.732445E+0	1.695202E+0	1.702230E+0	1.629232E+0	1.673805E+0	1.713175E+0	1.688705E+0	1.722858E+0	1.684866E+0	1.674623E+0	1.654384E+0	1.657222E+0	1.642807E+0	1.678954E+0	1.604654E+0	1.637206E+0	1.648843E+0	1.713669E+0	1.698406E+0	1.643353E+0	1.720515E+0	1.708418E+0	1.738959E+0	1.645763E+0	1.671275E+0	1.675922E+0	1.649695E+0	1.675499E+0	1.698721E+0	1.720660E+0	1.673052E+0	1.669874E+0	1.694066E+0	1.652683E+0	1.673382E+0	1.682769E+0	1.627615E+0	1.656419E+0	1.602991E+0	1.675851E+0	1.689818E+0	1.667129E+0	1.706608E+0	1.695681E+0	1.628261E+0	1.675607E+0	1.704138E+0	1.649243E+0	1.670307E+0	1.652404E+0	1.651753E+0	1.621543E+0	1.681379E+0	1.701187E+0	1.711277E+0	1.661011E+0	1.657481E+0	1.706293E+0	1.597741E+0	1.630958E+0	1.613527E+0	1.731767E+0	1.621422E+0	1.624978E+0	1.648933E+0	1.685759E+0	1.634570E+0	1.634541E+0	1.757665E+0	1.622726E+0	1.648996E+0	1.592214E+0	1.683104E+0	1.639355E+0	1.659332E+0	1.593243E+0	1.722342E+0	1.713671E+0	1.690290E+0	1.632260E+0	1.639187E+0	1.629722E+0	1.701370E+0	1.622695E+0	1.657194E+0
5.355580E+2	1.498485E+0	1.461841E+0	1.472770E+0	1.460499E+0	1.432168E+0	1.493461E+0	1.429207E+0	1.446609E+0	1.440165E+0	1.508099E+0	1.447561E+0	1.417542E+0	1.486836E+0	1.446280E+0	1.466815E+0	1.458463E+0	1.409141E+0	1.480208E+0	1.394406E+0	1.445000E+0	1.491655E+0	1.532485E+0	1.401801E+0	1.466177E+0	1.469650E+0	1.466877E+0	1.429600E+0	1.461553E+0	1.450853E+0	1.395629E+0	1.473602E+0	1.449282E+0	1.444906E+0	1.481147E+0	1.427457E+0	1.483725E+0	1.407497E+0	1.511081E+0	1.441439E+0	1.455261E+0	1.438853E+0	1.446432E+0	1.426147E+0	1.395974E+0	1.447585E+0	1.470445E+0	1.427256E+0	1.416207E+0	1.471746E+0	1.477509E+0	1.470939E+0	1.406660E+0	1.481018E+0	1.437282E+0	1.433800E+0	1.422887E+0	1.473860E+0	1.444611E+0	1.478844E+0	1.437573E+0	1.473933E+0	1.463573E+0	1.435079E+0	1.423589E+0	1.379861E+0	1.465547E+0	1.450142E+0	1.417654E+0	1.417879E+0	1.482649E+0	1.476283E+0	1.431824E+0	1.481218E+0	1.447137E+0	1.431901E+0	1.445019E+0	1.459583E+0	1.481790E+0	1.421573E+0	1.458708E+0	1.469176E+0	1.476801E+0	1.423063E+0	1.402817E+0	1.354037E+0	1.470830E+0	1.434485E+0	1.386876E+0	1.415906E+0	1.451510E+0	1.422670E+0	1.428360E+0	1.418245E+0	1.482116E+0	1.438204E+0	1.414405E+0	1.474047E+0	1.443965E+0	1.414184E+0	1.454170E+0	1.485572E+0	1.438754E+0	1.409251E+0	1.416896E+0	1.427640E+0	1.454663E+0	1.381940E+0	1.433061E+0	1.452723E+0	1.454214E+0	1.430948E+0	1.453763E+0	1.430803E+0	1.438462E+0	1.409274E+0	1.395298E+0	1.426191E+0	1.424089E+0	1.448918E+0	1.468380E+0	1.420589E+0	1.415123E+0	1.408610E+0	1.357079E+0	1.320206E+0	1.428892E+0	1.449931E+0	1.434393E+0	1.450966E+0	1.456500E+0	1.459169E+0	1.519751E+0	1.437311E+0	1.443914E+0	1.413118E+0	1.430394E+0	1.364251E+0	1.387370E+0	1.410887E+0	1.401463E+0	1.452343E+0	1.442470E+0	1.420249E+0	1.398318E+0	1.461026E+0	1.426560E+0	1.369047E+0	1.406547E+0	1.465036E+0	1.451363E+0	1.359200E+0	1.405714E+0	1.527785E+0	1.451212E+0	1.409748E+0	1.419972E+0	1.395496E+0	1.426659E+0	1.423040E+0	1.425959E+0	1.474913E+0	1.425467E+0	1.354615E+0	1.379873E+0	1.445337E+0	1.437244E+0	1.425812E+0	1.440104E+0	1.370885E+0	1.417521E+0	1.455057E+0	1.532257E+0
5.357040E+2	1.293186E+0	1.326550E+0	1.227891E+0	1.239967E+0	1.245043E+0	1.273375E+0	1.195361E+0	1.264006E+0	1.216764E+0	1.262763E+0	1.211618E+0	1.222736E+0	1.274937E+0	1.267662E+0	1.310658E+0	1.182232E+0	1.267358E+0	1.225876E+0	1.229779E+0	1.203169E+0	1.183907E+0	1.269533E+0	1.214401E+0	1.210124E+0	1.254568E+0	1.209650E+0	1.217050E+0	1.304296E+0	1.183024E+0	1.200108E+0	1.251147E+0	1.251206E+0	1.289663E+0	1.292320E+0	1.220863E+0	1.217878E+0	1.257943E+0	1.254238E+0	1.146279E+0	1.270745E+0	1.203559E+0	1.233801E+0	1.195725E+0	1.208212E+0	1.200734E+0	1.272385E+0	1.191364E+0	1.190336E+0	1.217365E+0	1.247829E+0	1.256038E+0	1.194355E+0	1.289972E+0	1.177065E+0	1.194976E+0	1.238725E+0	1.205462E+0	1.243364E+0	1.259405E+0	1.237740E+0	1.192670E+0	1.244284E+0	1.223075E+0	1.254199E+0	1.216543E+0	1.258446E+0	1.266559E+0	1.213991E+0	1.226604E+0	1.221727E+0	1.242760E+0	1.226799E+0	1.273152E+0	1.178720E+0	1.247306E+0	1.202943E+0	1.258718E+0	1.246909E+0	1.193245E+0	1.278894E+0	1.222943E+0	1.261438E+0	1.236894E+0	1.196983E+0	1.197358E+0	1.233352E+0	1.223279E+0	1.248995E+0	1.256184E+0	1.269611E+0	1.191111E+0	1.265400E+0	1.231357E+0	1.238464E+0	1.229113E+0	1.223862E+0	1.235199E+0	1.187276E+0	1.195596E+0	1.214271E+0	1.234149E+0	1.213743E+0	1.246521E+0	1.198864E+0	1.248433E+0	1.245155E+0	1.208591E+0	1.231257E+0	1.220870E+0	1.227083E+0	1.219544E+0	1.196935E+0	1.206011E+0	1.224142E+0	1.248190E+0	1.201270E+0	1.249672E+0	1.211813E+0	1.229180E+0	1.269335E+0	1.199528E+0	1.245544E+0	1.194150E+0	1.236178E+0	1.224791E+0	1.176115E+0	1.243391E+0	1.223745E+0	1.236826E+0	1.153967E+0	1.254776E+0	1.287149E+0	1.199459E+0	1.263519E+0	1.216677E+0	1.184538E+0	1.202301E+0	1.253407E+0	1.232954E+0	1.202220E+0	1.223344E+0	1.248590E+0	1.270193E+0	1.215591E+0	1.232937E+0	1.268633E+0	1.231341E+0	1.222518E+0	1.266759E+0	1.236707E+0	1.216414E+0	1.172923E+0	1.222751E+0	1.209722E+0	1.248198E+0	1.267378E+0	1.185295E+0	1.223709E+0	1.167013E+0	1.272561E+0	1.262570E+0	1.272333E+0	1.178865E+0	1.210538E+0	1.256529E+0	1.240718E+0	1.222196E+0	1.242362E+0	1.235913E+0	1.252723E+0	1.247985E+0	1.317865E+0
5.358600E+2	1.110161E+0	1.031172E+0	1.010570E+0	1.098603E+0	1.047257E+0	1.024240E+0	1.020581E+0	1.036880E+0	1.084638E+0	1.068892E+0	1.064812E+0	1.065302E+0	1.110786E+0	1.072035E+0	1.112846E+0	1.013813E+0	1.075386E+0	1.056381E+0	1.013417E+0	1.004798E+0	1.046784E+0	1.086958E+0	1.027561E+0	1.052835E+0	1.061000E+0	1.096429E+0	1.051215E+0	1.077111E+0	1.057717E+0	1.048449E+0	1.075850E+0	1.053437E+0	1.058113E+0	1.112754E+0	1.035522E+0	1.055558E+0	1.055233E+0	1.110081E+0	1.021389E+0	1.043628E+0	1.091906E+0	1.055633E+0	1.064164E+0	1.108886E+0	1.069618E+0	1.089502E+0	1.038035E+0	1.017918E+0	1.077414E+0	1.055002E+0	1.062652E+0	1.025449E+0	1.067689E+0	1.044345E+0	1.084567E+0	1.088299E+0	1.082319E+0	1.096829E+0	1.066373E+0	1.063313E+0	1.046516E+0	1.057268E+0	1.049115E+0	1.072977E+0	1.071053E+0	1.054887E+0	1.064647E+0	1.042115E+0	1.065891E+0	1.080784E+0	1.049803E+0	1.053042E+0	1.062203E+0	1.060010E+0	1.069689E+0	1.080642E+0	1.062507E+0	1.067458E+0	1.065233E+0	1.123084E+0	1.057537E+0	1.074410E+0	1.049775E+0	1.062283E+0	1.069152E+0	1.033079E+0	1.068716E+0	1.010613E+0	1.036531E+0	1.096514E+0	1.065917E+0	1.059411E+0	1.045344E+0	1.061653E+0	1.031213E+0	1.018509E+0	1.088489E+0	1.031084E+0	1.097364E+0	1.033931E+0	1.017414E+0	1.011232E+0	1.092655E+0	1.039121E+0	1.051443E+0	1.032881E+0	1.041193E+0	1.082610E+0	1.044509E+0	1.071466E+0	1.075097E+0	1.078155E+0	1.028439E+0	1.052561E+0	1.048087E+0	1.062502E+0	1.054708E+0	1.063595E+0	1.049013E+0	1.094567E+0	1.012544E+0	1.042076E+0	1.020206E+0	1.057826E+0	1.037066E+0	1.050824E+0	1.069154E+0	1.090229E+0	1.050080E+0	1.027886E+0	1.057217E+0	1.089466E+0	1.054485E+0	1.072770E+0	1.056851E+0	1.044921E+0	1.059342E+0	1.097040E+0	1.057123E+0	1.054479E+0	1.021353E+0	1.086930E+0	1.081619E+0	1.065587E+0	1.020115E+0	1.080012E+0	1.068291E+0	1.054073E+0	1.095249E+0	1.101180E+0	9.985000E-1	1.069259E+0	1.020447E+0	1.106731E+0	1.017527E+0	1.041098E+0	1.061817E+0	1.033016E+0	1.021736E+0	1.052358E+0	1.058730E+0	1.089053E+0	9.979638E-1	1.008192E+0	1.049101E+0	1.078049E+0	1.045292E+0	1.058755E+0	1.083005E+0	1.162745E+0	1.012962E+0	9.632392E-1
5.360170E+2	8.911699E-1	8.511469E-1	8.481601E-1	9.468211E-1	8.937717E-1	9.201561E-1	8.389993E-1	8.775278E-1	8.985955E-1	9.058279E-1	9.225129E-1	8.726235E-1	8.990730E-1	8.985742E-1	9.098266E-1	8.836141E-1	8.519962E-1	8.936669E-1	9.331802E-1	8.782866E-1	9.027821E-1	8.688521E-1	8.838191E-1	8.641773E-1	8.993313E-1	9.152249E-1	8.770886E-1	8.839273E-1	8.891812E-1	8.799468E-1	9.167592E-1	9.078754E-1	8.967704E-1	8.794446E-1	8.517763E-1	8.872523E-1	8.846871E-1	9.099236E-1	8.745286E-1	8.866947E-1	8.768918E-1	8.582713E-1	8.960627E-1	8.822217E-1	8.968256E-1	8.558718E-1	8.896226E-1	8.856841E-1	8.634369E-1	8.785573E-1	8.793693E-1	8.851823E-1	9.047180E-1	8.930496E-1	8.816856E-1	8.798748E-1	9.036488E-1	8.938413E-1	8.977672E-1	8.723352E-1	9.158396E-1	8.830744E-1	9.148787E-1	8.646959E-1	8.723399E-1	8.993182E-1	9.014051E-1	8.411706E-1	8.768755E-1	8.886124E-1	8.958206E-1	9.091399E-1	8.977135E-1	8.848520E-1	9.005569E-1	9.126175E-1	8.930023E-1	8.694692E-1	8.781810E-1	9.100591E-1	8.633423E-1	8.966180E-1	8.843891E-1	8.710165E-1	8.842950E-1	8.697674E-1	8.579808E-1	8.689325E-1	8.582984E-1	9.460352E-1	8.854716E-1	8.791347E-1	8.773628E-1	8.560438E-1	9.394693E-1	8.983799E-1	9.338967E-1	8.968028E-1	8.972177E-1	8.822660E-1	8.942409E-1	8.986137E-1	9.095015E-1	8.958179E-1	9.017803E-1	9.166439E-1	8.606076E-1	9.193970E-1	8.966264E-1	9.112374E-1	8.657011E-1	8.760572E-1	8.712444E-1	8.867659E-1	9.079327E-1	8.599276E-1	8.578826E-1	8.873425E-1	8.777003E-1	9.211489E-1	8.618888E-1	8.783367E-1	8.873299E-1	8.869023E-1	8.681858E-1	9.009548E-1	9.131428E-1	8.762224E-1	8.689428E-1	9.206479E-1	8.890493E-1	8.789380E-1	9.099015E-1	8.724434E-1	8.749430E-1	9.458029E-1	8.778359E-1	8.600947E-1	9.123471E-1	8.714832E-1	9.283825E-1	9.310868E-1	8.925224E-1	8.780082E-1	8.846296E-1	8.915409E-1	8.572672E-1	9.056669E-1	8.920855E-1	9.116921E-1	8.643173E-1	8.933036E-1	8.564295E-1	9.198321E-1	8.925224E-1	8.886387E-1	8.626999E-1	9.070135E-1	9.011585E-1	8.896062E-1	9.054543E-1	8.926033E-1	8.663434E-1	9.455997E-1	8.967361E-1	8.956569E-1	8.560865E-1	8.405362E-1	8.646436E-1	9.435556E-1	9.217905E-1	1.014748E+0
5.362680E+2	7.105835E-1	6.717182E-1	6.563524E-1	7.087941E-1	7.245999E-1	6.775744E-1	7.045488E-1	7.195423E-1	6.792177E-1	7.134465E-1	6.822629E-1	6.964201E-1	7.170632E-1	7.028496E-1	6.887488E-1	6.673379E-1	7.101427E-1	6.476042E-1	6.939978E-1	6.714308E-1	6.983345E-1	7.227276E-1	6.612344E-1	6.984739E-1	7.361049E-1	7.166196E-1	6.908823E-1	6.807728E-1	7.138995E-1	7.013991E-1	6.937185E-1	6.909589E-1	6.941257E-1	7.018868E-1	6.793051E-1	6.568001E-1	6.913212E-1	6.992455E-1	6.661006E-1	7.315740E-1	6.815742E-1	6.680080E-1	6.940279E-1	7.158974E-1	7.018305E-1	6.804767E-1	6.947317E-1	6.863661E-1	7.041662E-1	6.737226E-1	7.148862E-1	6.298540E-1	7.131326E-1	6.855536E-1	6.974400E-1	7.039576E-1	7.077666E-1	7.001819E-1	7.070180E-1	7.187929E-1	6.939430E-1	6.516515E-1	7.117222E-1	6.989011E-1	6.865355E-1	7.022848E-1	6.764642E-1	6.767022E-1	7.149859E-1	7.369120E-1	7.043184E-1	7.200291E-1	7.254268E-1	7.023314E-1	6.628103E-1	6.632088E-1	7.011997E-1	6.936768E-1	6.932812E-1	7.188028E-1	6.711941E-1	6.776136E-1	6.726577E-1	6.782204E-1	6.906807E-1	6.964614E-1	6.992983E-1	6.847988E-1	6.860520E-1	7.184124E-1	7.136727E-1	7.368595E-1	6.733648E-1	7.036087E-1	7.288743E-1	7.039105E-1	7.043197E-1	6.572295E-1	6.881747E-1	7.151780E-1	7.251317E-1	6.710736E-1	6.797046E-1	6.954922E-1	7.011833E-1	6.430923E-1	6.578919E-1	7.428472E-1	7.086715E-1	7.419848E-1	7.045356E-1	7.117763E-1	6.702714E-1	6.964412E-1	7.129668E-1	6.897812E-1	6.710273E-1	6.826581E-1	7.164204E-1	7.144481E-1	6.603934E-1	6.918350E-1	6.756336E-1	6.923719E-1	6.959266E-1	6.764973E-1	7.354756E-1	6.743171E-1	6.921299E-1	6.909833E-1	7.138739E-1	6.972164E-1	7.104042E-1	6.884195E-1	6.787871E-1	6.773329E-1	6.814237E-1	6.510743E-1	6.996247E-1	6.862338E-1	7.072527E-1	7.062906E-1	6.806485E-1	6.491585E-1	7.004829E-1	6.988232E-1	6.754383E-1	7.055104E-1	7.139812E-1	7.091502E-1	7.095159E-1	6.721305E-1	6.705974E-1	6.839177E-1	6.663434E-1	7.218140E-1	7.032534E-1	6.913092E-1	6.681984E-1	6.803847E-1	6.968172E-1	7.208594E-1	7.322465E-1	7.047770E-1	6.998513E-1	7.248281E-1	6.740988E-1	7.000845E-1	6.823563E-1	6.645781E-1	7.532662E-1	7.329596E-1
5.365250E+2	5.498952E-1	5.744281E-1	5.324034E-1	5.582020E-1	5.495912E-1	5.466106E-1	5.761220E-1	5.767833E-1	5.642631E-1	5.808277E-1	5.817546E-1	5.339384E-1	5.499155E-1	5.615670E-1	5.487276E-1	5.593583E-1	5.487403E-1	5.428535E-1	5.500875E-1	5.756724E-1	5.409841E-1	5.466811E-1	5.241395E-1	5.623459E-1	5.394014E-1	5.688141E-1	5.274862E-1	5.646017E-1	5.738171E-1	5.637382E-1	5.558051E-1	5.884898E-1	5.386608E-1	5.939143E-1	5.624203E-1	5.778223E-1	5.715723E-1	5.797735E-1	5.533016E-1	5.523531E-1	5.415055E-1	5.425160E-1	5.706437E-1	5.612113E-1	5.708617E-1	5.718945E-1	5.326516E-1	5.588443E-1	5.773449E-1	5.427075E-1	5.728809E-1	5.407148E-1	5.800974E-1	5.685247E-1	5.611675E-1	5.619271E-1	5.701903E-1	5.609929E-1	5.551982E-1	5.096825E-1	5.377208E-1	5.626479E-1	5.502954E-1	5.549535E-1	5.575061E-1	5.692172E-1	5.579802E-1	5.600582E-1	5.574795E-1	5.498754E-1	5.483303E-1	5.402830E-1	5.917158E-1	5.499384E-1	5.644008E-1	5.741301E-1	5.432739E-1	5.413023E-1	5.810741E-1	5.740384E-1	5.510200E-1	5.523927E-1	5.721925E-1	5.193857E-1	5.384851E-1	5.711049E-1	5.489634E-1	5.624367E-1	5.466919E-1	5.693579E-1	5.648627E-1	5.612147E-1	5.717076E-1	5.199543E-1	5.738195E-1	5.834752E-1	5.601607E-1	5.518495E-1	5.705153E-1	5.342960E-1	5.565020E-1	5.721972E-1	5.641445E-1	5.583704E-1	5.769106E-1	5.505117E-1	5.482403E-1	5.656023E-1	5.552107E-1	5.434231E-1	5.599921E-1	5.680897E-1	5.455209E-1	5.837559E-1	5.890976E-1	5.242120E-1	5.620295E-1	5.685320E-1	5.541300E-1	5.594295E-1	5.954941E-1	5.694527E-1	5.647629E-1	5.748704E-1	5.537875E-1	5.646878E-1	5.456685E-1	5.838435E-1	5.658624E-1	6.005659E-1	5.510213E-1	5.709618E-1	6.014107E-1	5.686473E-1	5.725252E-1	5.607970E-1	5.649021E-1	5.838584E-1	5.638600E-1	5.793924E-1	5.541437E-1	5.917675E-1	5.325732E-1	5.100281E-1	5.875311E-1	5.514321E-1	5.550243E-1	5.663908E-1	5.928539E-1	5.646683E-1	5.607996E-1	5.535861E-1	5.474805E-1	5.455323E-1	5.671849E-1	5.636994E-1	5.620483E-1	5.757729E-1	5.515202E-1	5.623916E-1	5.817746E-1	5.785354E-1	5.268048E-1	5.644730E-1	5.654983E-1	6.049334E-1	5.675596E-1	5.638742E-1	5.790834E-1	6.087858E-1	5.583454E-1	5.413197E-1
5.367710E+2	5.007263E-1	4.898171E-1	4.634803E-1	4.848062E-1	4.618847E-1	5.088358E-1	4.633376E-1	5.151833E-1	5.003970E-1	4.945547E-1	4.907143E-1	5.006040E-1	4.677455E-1	5.145083E-1	5.018675E-1	4.670056E-1	4.664926E-1	4.768907E-1	4.708082E-1	4.984123E-1	4.568492E-1	4.948362E-1	4.946107E-1	4.799076E-1	4.653613E-1	5.155575E-1	4.912142E-1	4.598326E-1	4.805506E-1	5.003779E-1	4.993632E-1	4.700899E-1	4.692238E-1	4.784986E-1	4.673857E-1	5.050564E-1	4.873916E-1	5.263325E-1	4.777795E-1	4.858375E-1	4.841038E-1	4.826543E-1	4.939396E-1	4.748437E-1	4.980838E-1	5.014146E-1	4.821778E-1	4.690647E-1	4.650971E-1	4.994938E-1	4.625409E-1	4.568874E-1	5.129957E-1	4.700272E-1	4.881993E-1	4.764302E-1	5.083430E-1	4.769280E-1	4.802563E-1	4.886240E-1	5.030490E-1	4.820944E-1	4.971761E-1	4.619884E-1	4.938467E-1	4.851549E-1	5.146271E-1	4.954819E-1	5.083373E-1	5.047046E-1	4.855109E-1	4.767170E-1	4.828309E-1	4.958910E-1	4.792851E-1	4.858391E-1	4.749714E-1	4.715810E-1	5.086081E-1	4.869517E-1	4.960289E-1	5.048607E-1	5.015513E-1	4.572802E-1	4.960558E-1	4.754585E-1	4.759733E-1	4.898884E-1	4.867060E-1	4.829078E-1	4.835709E-1	4.900278E-1	4.640550E-1	4.532682E-1	4.985245E-1	5.030399E-1	5.160051E-1	4.848852E-1	4.927150E-1	5.019685E-1	4.626078E-1	5.021548E-1	5.096314E-1	4.773755E-1	5.059569E-1	4.733241E-1	4.949634E-1	4.984453E-1	4.938209E-1	4.942863E-1	4.888662E-1	4.928936E-1	5.018223E-1	5.275266E-1	4.934580E-1	4.792344E-1	4.966364E-1	5.020104E-1	4.846831E-1	5.285704E-1	4.765640E-1	4.694713E-1	4.844807E-1	4.693009E-1	4.672077E-1	4.771117E-1	4.948492E-1	4.444214E-1	5.198790E-1	5.234525E-1	4.922165E-1	5.014095E-1	4.807166E-1	4.849712E-1	4.866763E-1	5.156646E-1	4.567830E-1	5.030762E-1	4.782276E-1	5.201417E-1	5.098534E-1	5.024865E-1	5.003310E-1	4.819637E-1	5.000797E-1	5.047056E-1	5.001081E-1	4.567257E-1	4.991139E-1	4.910185E-1	4.968322E-1	5.287437E-1	4.770366E-1	4.906212E-1	4.715329E-1	4.884045E-1	4.801009E-1	5.056757E-1	4.680934E-1	4.964343E-1	4.845555E-1	5.124162E-1	5.004255E-1	5.339203E-1	4.828124E-1	5.067687E-1	4.723538E-1	5.229606E-1	5.081178E-1	5.164467E-1	4.511168E-1	4.980477E-1
5.370170E+2	5.125741E-1	4.498630E-1	4.741736E-1	4.774779E-1	4.554231E-1	4.832239E-1	5.016104E-1	4.936165E-1	4.491008E-1	4.749635E-1	4.480802E-1	4.599517E-1	4.630257E-1	5.031249E-1	4.867286E-1	4.755855E-1	4.614157E-1	4.522288E-1	4.640715E-1	4.561596E-1	5.013827E-1	4.965308E-1	4.650854E-1	4.722987E-1	4.609677E-1	4.714828E-1	4.655905E-1	5.110812E-1	4.949707E-1	4.815936E-1	4.725811E-1	4.722054E-1	4.763505E-1	5.144476E-1	4.556377E-1	4.747579E-1	4.637654E-1	4.834348E-1	4.538180E-1	5.001887E-1	4.773749E-1	4.413116E-1	4.607915E-1	4.857318E-1	4.902724E-1	4.889234E-1	4.397292E-1	4.962055E-1	4.675120E-1	4.739774E-1	4.873961E-1	4.405411E-1	5.097562E-1	4.669744E-1	4.829926E-1	4.865590E-1	5.154956E-1	4.684647E-1	4.527282E-1	4.672116E-1	5.046599E-1	4.691312E-1	4.917095E-1	4.652278E-1	4.701625E-1	4.849296E-1	4.962877E-1	4.533523E-1	4.600308E-1	4.632385E-1	4.900808E-1	4.745431E-1	4.898834E-1	4.772511E-1	4.880077E-1	4.716858E-1	4.645295E-1	4.445766E-1	4.727001E-1	5.229411E-1	4.653699E-1	5.193149E-1	4.803976E-1	4.886310E-1	4.563665E-1	4.914508E-1	4.652709E-1	4.620597E-1	4.814272E-1	5.018254E-1	4.782932E-1	4.924760E-1	5.109543E-1	4.710411E-1	4.686218E-1	4.683120E-1	4.586575E-1	4.776618E-1	4.744214E-1	4.687770E-1	4.623821E-1	4.967424E-1	5.045703E-1	4.712524E-1	4.960468E-1	4.540667E-1	4.619407E-1	4.966100E-1	4.520383E-1	4.444169E-1	4.620329E-1	4.829021E-1	4.312460E-1	4.783197E-1	4.447108E-1	4.659576E-1	4.658867E-1	4.671636E-1	4.689194E-1	5.048385E-1	4.445877E-1	4.964993E-1	4.896556E-1	4.781802E-1	4.379045E-1	4.844852E-1	4.784977E-1	5.046458E-1	4.630603E-1	4.615924E-1	4.934912E-1	4.759820E-1	4.670506E-1	4.995469E-1	4.785535E-1	4.636109E-1	4.822545E-1	4.904511E-1	5.159801E-1	4.697167E-1	4.718522E-1	4.833633E-1	4.655181E-1	4.877855E-1	4.684736E-1	5.174572E-1	4.778488E-1	4.411458E-1	4.551088E-1	5.164279E-1	4.932582E-1	4.479425E-1	4.773662E-1	4.799980E-1	4.856154E-1	4.991610E-1	4.691856E-1	4.943253E-1	4.622232E-1	4.859911E-1	4.630594E-1	5.021646E-1	4.925697E-1	4.741484E-1	5.141495E-1	4.696413E-1	4.705158E-1	4.607127E-1	4.735450E-1	5.181324E-1	5.036027E-1	4.084415E-1
5.372640E+2	5.106751E-1	5.019483E-1	4.859811E-1	5.048908E-1	4.744568E-1	5.043320E-1	4.919461E-1	5.102018E-1	4.812916E-1	5.023108E-1	4.999726E-1	5.038090E-1	5.050179E-1	5.048562E-1	4.814485E-1	4.723719E-1	5.162843E-1	5.219955E-1	5.194527E-1	4.687498E-1	4.919757E-1	4.899795E-1	4.817416E-1	5.054588E-1	4.840246E-1	4.589646E-1	5.065008E-1	4.794950E-1	5.067793E-1	4.948994E-1	4.709815E-1	5.325400E-1	5.110140E-1	4.981958E-1	4.860453E-1	4.936182E-1	5.101642E-1	5.102144E-1	4.663113E-1	4.872125E-1	5.013995E-1	5.053304E-1	4.752122E-1	4.859636E-1	4.925972E-1	4.852369E-1	4.986786E-1	4.963673E-1	4.628501E-1	4.889666E-1	5.067886E-1	4.885662E-1	4.963314E-1	4.743401E-1	5.014887E-1	4.516484E-1	5.104186E-1	5.042969E-1	5.025077E-1	4.590590E-1	4.677935E-1	4.960900E-1	4.961953E-1	5.103922E-1	4.993474E-1	5.105751E-1	5.536828E-1	4.738150E-1	4.703461E-1	5.050132E-1	5.023992E-1	5.288517E-1	4.991291E-1	5.191682E-1	5.069324E-1	5.082119E-1	4.991703E-1	4.986342E-1	4.663428E-1	5.161040E-1	4.954381E-1	5.167471E-1	4.918885E-1	4.774568E-1	5.088197E-1	5.003140E-1	4.815098E-1	5.197002E-1	5.099894E-1	5.103155E-1	4.780354E-1	5.081940E-1	4.966766E-1	4.946238E-1	4.755129E-1	5.087310E-1	5.313880E-1	5.144650E-1	5.010864E-1	4.990065E-1	4.938041E-1	5.106623E-1	5.122599E-1	4.873191E-1	4.896786E-1	4.882173E-1	4.794175E-1	5.221646E-1	4.944603E-1	5.106636E-1	4.893956E-1	4.777328E-1	4.810966E-1	4.946414E-1	4.899562E-1	5.123699E-1	4.997128E-1	4.689175E-1	4.941505E-1	5.134684E-1	5.137091E-1	4.951005E-1	5.089778E-1	4.640141E-1	5.002166E-1	4.954785E-1	5.435200E-1	4.860465E-1	4.963532E-1	4.815745E-1	4.850154E-1	4.840028E-1	4.692139E-1	5.143984E-1	4.952358E-1	4.838831E-1	4.601297E-1	5.041047E-1	5.436311E-1	5.013535E-1	5.207431E-1	5.286204E-1	5.009350E-1	5.318198E-1	5.251479E-1	5.222904E-1	4.542452E-1	4.642087E-1	5.032223E-1	4.942360E-1	4.822605E-1	4.930965E-1	5.062274E-1	4.837886E-1	5.325027E-1	4.975325E-1	5.263988E-1	5.436898E-1	4.904393E-1	4.942746E-1	5.275733E-1	4.964496E-1	5.209219E-1	5.263757E-1	5.136636E-1	5.166426E-1	5.069546E-1	4.977236E-1	5.138412E-1	5.486768E-1	5.253161E-1	4.285604E-1
5.375160E+2	5.861255E-1	5.568991E-1	5.517134E-1	5.741582E-1	5.482132E-1	5.381613E-1	5.395144E-1	5.977797E-1	5.568980E-1	5.727166E-1	5.544519E-1	5.440519E-1	5.793959E-1	5.550464E-1	5.834034E-1	5.294707E-1	5.722906E-1	5.627125E-1	5.310923E-1	5.358814E-1	5.926710E-1	5.646972E-1	5.774413E-1	5.394428E-1	5.633853E-1	5.613977E-1	5.741714E-1	5.555732E-1	5.657161E-1	5.822540E-1	5.725717E-1	5.683341E-1	5.370176E-1	5.776933E-1	5.323897E-1	5.537034E-1	5.524679E-1	5.570266E-1	5.456166E-1	5.633042E-1	5.637248E-1	5.657601E-1	5.660717E-1	5.574655E-1	5.885395E-1	5.485991E-1	5.224845E-1	5.424312E-1	5.744455E-1	5.643680E-1	5.548986E-1	5.506813E-1	5.649452E-1	5.430286E-1	5.779949E-1	5.544244E-1	5.566308E-1	5.414072E-1	5.340105E-1	5.533873E-1	5.621156E-1	5.679673E-1	5.506198E-1	5.698983E-1	5.523949E-1	5.811914E-1	5.639536E-1	6.069134E-1	5.707058E-1	5.703105E-1	5.736660E-1	5.681213E-1	5.960346E-1	5.639593E-1	5.828945E-1	5.749239E-1	5.668330E-1	5.698725E-1	5.422903E-1	5.790462E-1	5.662398E-1	5.882076E-1	5.630258E-1	5.588945E-1	5.769403E-1	5.791241E-1	5.478423E-1	5.631371E-1	5.504785E-1	6.063495E-1	5.525128E-1	5.803236E-1	5.565776E-1	5.577495E-1	5.665738E-1	5.716482E-1	5.786928E-1	5.565738E-1	5.568898E-1	5.577012E-1	5.683241E-1	5.881860E-1	5.092184E-1	5.825953E-1	5.700713E-1	5.770899E-1	5.708591E-1	5.723387E-1	5.485555E-1	5.574682E-1	5.552738E-1	5.422401E-1	5.691703E-1	5.955664E-1	5.668713E-1	5.863355E-1	5.362804E-1	5.467827E-1	5.886545E-1	5.575725E-1	5.307824E-1	5.642946E-1	5.708784E-1	5.521744E-1	5.668001E-1	5.600874E-1	5.903013E-1	5.681763E-1	5.912943E-1	5.674139E-1	5.627745E-1	5.764554E-1	5.543716E-1	5.498824E-1	5.692255E-1	5.587944E-1	5.968287E-1	5.552276E-1	5.694485E-1	5.671138E-1	5.490357E-1	5.758418E-1	6.011933E-1	5.797800E-1	5.842102E-1	5.871544E-1	5.347211E-1	5.437875E-1	5.543466E-1	5.754103E-1	5.834905E-1	5.529481E-1	5.754811E-1	5.646482E-1	5.526105E-1	5.558779E-1	5.639290E-1	5.857408E-1	5.405735E-1	5.897810E-1	5.581628E-1	5.429911E-1	5.548760E-1	5.838410E-1	5.716015E-1	5.736881E-1	5.909693E-1	5.697132E-1	6.016575E-1	5.629281E-1	5.813334E-1	4.873162E-1
5.377630E+2	7.017995E-1	6.325620E-1	6.582161E-1	6.554394E-1	6.348383E-1	6.582854E-1	6.839429E-1	6.503844E-1	6.587213E-1	6.772915E-1	6.478094E-1	6.525431E-1	6.572085E-1	6.558192E-1	6.519373E-1	6.933539E-1	6.625276E-1	6.473863E-1	6.650589E-1	6.306429E-1	6.385102E-1	6.632557E-1	6.557948E-1	6.603267E-1	6.724737E-1	6.600742E-1	6.454231E-1	6.800710E-1	6.565338E-1	6.604351E-1	6.420153E-1	6.920330E-1	6.237867E-1	6.668231E-1	6.206347E-1	6.437388E-1	6.215397E-1	6.717446E-1	6.669380E-1	6.871299E-1	7.043568E-1	6.569270E-1	6.943303E-1	6.464011E-1	6.616103E-1	6.666508E-1	6.522570E-1	6.554262E-1	6.734689E-1	6.816620E-1	6.447952E-1	6.996149E-1	6.586018E-1	6.662537E-1	6.554741E-1	6.892761E-1	6.458434E-1	6.443380E-1	6.460238E-1	6.612694E-1	6.594094E-1	6.652181E-1	6.554159E-1	6.293151E-1	6.603161E-1	6.758415E-1	6.828414E-1	6.099065E-1	6.526084E-1	6.594996E-1	6.810477E-1	6.772736E-1	6.724662E-1	6.570013E-1	6.446963E-1	6.739979E-1	6.711410E-1	6.278128E-1	6.262216E-1	6.549464E-1	6.526697E-1	6.599865E-1	6.444309E-1	7.002061E-1	6.388437E-1	6.504570E-1	6.687311E-1	6.562166E-1	6.626692E-1	6.697886E-1	6.727272E-1	6.385506E-1	6.372025E-1	6.379267E-1	6.646855E-1	6.784228E-1	6.586433E-1	6.454309E-1	6.574674E-1	6.531386E-1	6.845083E-1	6.601910E-1	6.720275E-1	6.595564E-1	6.775019E-1	6.748807E-1	6.220777E-1	6.522231E-1	6.659199E-1	6.262933E-1	6.912441E-1	6.786773E-1	6.284804E-1	6.690051E-1	6.629317E-1	6.650176E-1	6.730451E-1	6.619776E-1	6.761064E-1	6.954803E-1	6.602649E-1	6.401548E-1	6.445744E-1	6.299539E-1	6.512144E-1	6.524554E-1	6.665138E-1	6.734682E-1	6.793783E-1	6.664198E-1	7.096261E-1	6.651722E-1	6.406906E-1	6.557856E-1	6.311706E-1	6.589709E-1	6.905491E-1	6.570096E-1	6.489010E-1	6.835202E-1	6.870239E-1	6.791048E-1	6.893419E-1	6.342399E-1	6.785960E-1	6.654324E-1	6.379050E-1	6.430213E-1	6.343189E-1	6.977725E-1	6.419925E-1	6.902149E-1	6.561518E-1	6.628520E-1	6.844976E-1	6.469033E-1	6.226894E-1	6.553120E-1	6.405714E-1	6.497859E-1	6.503766E-1	6.711594E-1	6.516947E-1	6.467611E-1	6.701241E-1	7.189820E-1	6.668994E-1	7.003523E-1	6.623843E-1	6.881910E-1	6.481711E-1	7.465097E-1
5.380110E+2	8.129682E-1	7.873684E-1	7.668719E-1	7.932785E-1	7.523489E-1	7.585157E-1	8.002569E-1	7.635033E-1	7.621456E-1	8.091258E-1	7.931949E-1	8.045468E-1	8.026220E-1	7.607569E-1	7.768710E-1	7.677743E-1	7.663164E-1	8.008099E-1	7.728263E-1	7.925347E-1	7.514196E-1	8.075264E-1	7.634558E-1	8.096304E-1	8.402977E-1	7.953056E-1	7.986206E-1	7.630945E-1	7.616849E-1	7.737283E-1	7.777956E-1	7.650389E-1	7.304574E-1	8.479078E-1	7.649691E-1	7.500656E-1	7.889447E-1	8.076254E-1	7.868063E-1	7.759841E-1	7.889753E-1	7.899598E-1	7.535040E-1	8.002775E-1	7.733653E-1	7.830348E-1	7.575803E-1	7.348654E-1	7.526193E-1	7.586821E-1	7.769384E-1	7.869068E-1	7.954691E-1	7.823402E-1	7.782290E-1	7.884513E-1	7.660419E-1	7.736843E-1	7.724007E-1	7.498009E-1	7.654101E-1	7.887712E-1	7.741048E-1	7.632790E-1	7.678369E-1	8.282499E-1	7.891065E-1	7.711041E-1	7.744533E-1	7.845607E-1	8.018682E-1	7.710995E-1	7.982214E-1	7.901032E-1	8.244952E-1	7.531554E-1	7.606234E-1	7.422684E-1	7.631810E-1	8.096514E-1	7.751576E-1	7.554100E-1	8.202618E-1	7.730194E-1	7.742175E-1	7.857387E-1	8.041789E-1	7.397851E-1	7.468091E-1	7.662217E-1	7.737365E-1	8.281589E-1	7.643151E-1	7.899363E-1	7.674736E-1	7.781705E-1	8.178162E-1	7.763695E-1	7.967722E-1	7.954216E-1	7.778559E-1	7.301106E-1	7.683869E-1	7.457820E-1	7.527439E-1	7.591670E-1	7.818186E-1	7.839549E-1	7.856974E-1	8.119496E-1	7.663283E-1	7.683236E-1	7.552213E-1	7.702731E-1	8.245513E-1	7.680978E-1	7.802779E-1	7.614986E-1	7.583123E-1	7.556296E-1	7.574243E-1	7.831766E-1	7.450270E-1	7.666363E-1	7.768733E-1	7.247982E-1	8.039265E-1	7.386378E-1	7.633245E-1	7.710952E-1	8.169372E-1	7.674363E-1	7.836148E-1	7.699230E-1	7.905875E-1	7.749516E-1	8.023514E-1	7.862828E-1	7.734856E-1	7.790198E-1	7.680886E-1	7.783820E-1	8.012792E-1	7.634492E-1	7.672202E-1	7.735510E-1	7.817166E-1	8.007724E-1	7.330697E-1	7.684912E-1	7.485270E-1	7.903089E-1	7.508224E-1	7.471048E-1	7.338878E-1	7.760503E-1	7.519395E-1	7.373850E-1	7.419852E-1	8.088393E-1	7.644077E-1	7.765606E-1	7.542324E-1	7.775769E-1	7.720040E-1	7.505371E-1	8.046780E-1	7.454471E-1	7.631165E-1	7.959888E-1	8.366465E-1	8.490150E-1
5.382690E+2	9.747017E-1	9.551033E-1	9.440430E-1	9.818442E-1	9.320748E-1	9.278426E-1	9.222324E-1	9.546595E-1	9.399185E-1	9.015533E-1	9.286233E-1	9.269218E-1	9.657252E-1	9.480628E-1	9.464297E-1	9.341486E-1	9.565539E-1	9.458294E-1	9.426196E-1	9.214770E-1	9.670702E-1	9.882511E-1	9.717272E-1	9.537489E-1	9.548823E-1	9.629843E-1	9.524015E-1	9.813732E-1	9.333710E-1	9.607932E-1	9.876266E-1	9.550121E-1	9.777157E-1	1.001546E+0	9.338787E-1	9.345378E-1	9.195888E-1	9.545472E-1	9.397120E-1	9.727503E-1	9.427610E-1	9.369775E-1	9.514529E-1	9.591955E-1	9.784366E-1	9.365045E-1	8.969927E-1	9.225634E-1	8.855856E-1	9.202455E-1	9.595931E-1	9.098920E-1	9.476994E-1	9.580658E-1	9.526404E-1	9.780677E-1	9.260300E-1	9.464515E-1	9.306198E-1	9.515079E-1	9.651912E-1	9.313753E-1	9.642976E-1	9.672296E-1	9.698999E-1	9.680447E-1	9.826200E-1	9.226618E-1	9.478460E-1	9.349540E-1	9.619701E-1	9.433086E-1	9.869325E-1	9.423676E-1	9.637267E-1	9.715373E-1	9.471690E-1	9.326294E-1	9.534496E-1	9.724839E-1	9.487008E-1	9.317220E-1	9.545339E-1	9.322101E-1	9.428504E-1	9.501564E-1	9.733485E-1	9.500564E-1	9.724576E-1	9.359120E-1	9.629815E-1	9.681986E-1	9.374191E-1	9.149319E-1	9.629049E-1	9.301082E-1	9.943652E-1	9.573142E-1	9.242240E-1	8.888984E-1	9.263482E-1	9.540409E-1	9.269905E-1	9.613168E-1	9.664848E-1	9.209135E-1	9.260256E-1	9.321886E-1	9.301401E-1	9.527386E-1	9.578911E-1	9.218605E-1	9.568462E-1	9.441151E-1	9.989897E-1	9.029865E-1	9.433461E-1	8.786518E-1	9.716652E-1	9.759006E-1	9.505911E-1	9.065963E-1	9.298521E-1	9.007025E-1	9.345388E-1	9.541674E-1	9.715838E-1	9.623080E-1	9.408974E-1	9.375317E-1	9.472580E-1	9.784843E-1	9.889949E-1	9.503456E-1	9.296138E-1	9.417343E-1	9.501698E-1	9.606317E-1	9.802987E-1	9.425947E-1	9.636346E-1	9.550005E-1	9.451642E-1	9.520711E-1	9.189390E-1	9.579678E-1	9.514218E-1	9.796709E-1	9.628873E-1	9.544017E-1	9.469221E-1	9.583261E-1	9.567830E-1	9.493005E-1	9.268159E-1	9.396817E-1	9.166700E-1	9.530234E-1	9.477342E-1	9.231228E-1	9.733173E-1	8.950339E-1	9.138738E-1	9.631891E-1	9.000636E-1	9.489365E-1	9.292798E-1	9.374517E-1	9.553876E-1	9.746090E-1	9.778730E-1	8.467047E-1
5.385060E+2	1.218187E+0	1.146914E+0	1.143078E+0	1.144304E+0	1.153645E+0	1.149989E+0	1.162510E+0	1.161205E+0	1.201957E+0	1.247801E+0	1.185439E+0	1.148782E+0	1.171808E+0	1.131332E+0	1.178504E+0	1.140192E+0	1.123044E+0	1.161882E+0	1.144371E+0	1.174749E+0	1.168240E+0	1.204501E+0	1.171031E+0	1.152165E+0	1.161852E+0	1.170556E+0	1.138626E+0	1.211320E+0	1.220084E+0	1.133921E+0	1.144712E+0	1.208790E+0	1.184756E+0	1.237667E+0	1.155025E+0	1.166271E+0	1.200279E+0	1.223048E+0	1.091343E+0	1.212762E+0	1.144773E+0	1.150653E+0	1.179349E+0	1.174823E+0	1.152448E+0	1.166621E+0	1.137911E+0	1.123989E+0	1.163679E+0	1.110984E+0	1.158455E+0	1.184310E+0	1.182574E+0	1.162855E+0	1.138262E+0	1.134203E+0	1.161555E+0	1.144736E+0	1.175782E+0	1.184396E+0	1.212891E+0	1.151709E+0	1.166674E+0	1.182504E+0	1.138076E+0	1.206551E+0	1.117745E+0	1.186109E+0	1.166062E+0	1.189050E+0	1.132760E+0	1.144659E+0	1.169232E+0	1.126554E+0	1.163978E+0	1.219721E+0	1.155114E+0	1.194992E+0	1.163482E+0	1.185860E+0	1.167625E+0	1.177903E+0	1.189355E+0	1.141723E+0	1.179925E+0	1.155443E+0	1.124659E+0	1.187481E+0	1.166731E+0	1.228595E+0	1.134335E+0	1.159898E+0	1.134879E+0	1.154320E+0	1.196434E+0	1.157786E+0	1.205510E+0	1.158237E+0	1.162444E+0	1.121351E+0	1.185951E+0	1.175037E+0	1.178659E+0	1.153885E+0	1.134275E+0	1.181293E+0	1.172314E+0	1.194503E+0	1.126731E+0	1.176086E+0	1.126602E+0	1.181235E+0	1.157141E+0	1.169136E+0	1.183348E+0	1.167686E+0	1.150262E+0	1.137367E+0	1.139906E+0	1.184621E+0	1.135305E+0	1.119957E+0	1.188685E+0	1.093141E+0	1.145972E+0	1.129682E+0	1.206639E+0	1.148086E+0	1.156528E+0	1.100279E+0	1.198018E+0	1.180361E+0	1.202964E+0	1.163932E+0	1.141799E+0	1.157840E+0	1.180892E+0	1.140537E+0	1.117748E+0	1.175910E+0	1.156146E+0	1.153911E+0	1.140850E+0	1.161827E+0	1.178937E+0	1.182558E+0	1.127681E+0	1.114530E+0	1.179923E+0	1.145380E+0	1.160892E+0	1.143970E+0	1.136125E+0	1.187331E+0	1.102306E+0	1.144540E+0	1.204596E+0	1.147155E+0	1.126902E+0	1.139244E+0	1.194309E+0	1.112876E+0	1.129300E+0	1.194818E+0	1.119970E+0	1.194146E+0	1.165500E+0	1.180749E+0	1.157558E+0	1.141818E+0	1.190209E+0	1.230150E+0
5.387700E+2	1.474489E+0	1.402669E+0	1.449724E+0	1.439978E+0	1.416244E+0	1.409753E+0	1.409935E+0	1.474708E+0	1.431085E+0	1.366191E+0	1.406318E+0	1.462261E+0	1.434304E+0	1.463603E+0	1.473267E+0	1.420470E+0	1.420882E+0	1.419448E+0	1.337171E+0	1.471960E+0	1.383915E+0	1.430494E+0	1.388099E+0	1.460865E+0	1.393021E+0	1.452783E+0	1.398184E+0	1.444024E+0	1.445535E+0	1.415915E+0	1.414222E+0	1.436683E+0	1.429157E+0	1.400933E+0	1.394173E+0	1.411504E+0	1.417233E+0	1.430044E+0	1.376154E+0	1.454400E+0	1.378602E+0	1.416103E+0	1.446866E+0	1.454804E+0	1.424292E+0	1.454647E+0	1.397090E+0	1.472406E+0	1.385083E+0	1.389643E+0	1.355870E+0	1.417121E+0	1.461248E+0	1.386164E+0	1.386906E+0	1.452746E+0	1.458264E+0	1.400941E+0	1.397639E+0	1.438425E+0	1.423952E+0	1.426429E+0	1.437504E+0	1.444174E+0	1.446734E+0	1.468214E+0	1.425250E+0	1.324767E+0	1.421759E+0	1.419405E+0	1.421173E+0	1.403449E+0	1.490170E+0	1.399251E+0	1.406094E+0	1.407272E+0	1.403707E+0	1.393827E+0	1.375169E+0	1.463962E+0	1.399193E+0	1.405543E+0	1.510780E+0	1.359903E+0	1.408462E+0	1.438617E+0	1.374037E+0	1.423370E+0	1.439044E+0	1.464238E+0	1.388115E+0	1.436290E+0	1.386696E+0	1.378610E+0	1.409386E+0	1.366476E+0	1.440408E+0	1.436751E+0	1.457017E+0	1.407456E+0	1.421239E+0	1.403373E+0	1.459289E+0	1.370924E+0	1.376179E+0	1.407001E+0	1.425348E+0	1.419050E+0	1.432079E+0	1.435897E+0	1.423357E+0	1.421333E+0	1.400653E+0	1.405323E+0	1.399793E+0	1.439107E+0	1.447355E+0	1.390074E+0	1.416218E+0	1.411949E+0	1.384674E+0	1.447597E+0	1.416980E+0	1.405091E+0	1.368232E+0	1.384988E+0	1.420363E+0	1.470064E+0	1.414015E+0	1.426922E+0	1.439747E+0	1.472127E+0	1.424048E+0	1.395859E+0	1.423609E+0	1.433161E+0	1.399336E+0	1.396313E+0	1.435203E+0	1.408669E+0	1.384108E+0	1.435404E+0	1.421339E+0	1.409352E+0	1.394753E+0	1.392842E+0	1.349761E+0	1.413648E+0	1.401481E+0	1.417148E+0	1.361328E+0	1.382729E+0	1.385367E+0	1.385013E+0	1.412296E+0	1.434194E+0	1.394799E+0	1.413047E+0	1.404140E+0	1.499139E+0	1.376275E+0	1.419139E+0	1.383165E+0	1.373218E+0	1.402768E+0	1.412047E+0	1.411223E+0	1.348473E+0	1.394321E+0	1.464904E+0	1.466632E+0	1.323826E+0
5.390340E+2	1.737751E+0	1.549419E+0	1.577048E+0	1.646962E+0	1.645081E+0	1.622819E+0	1.618892E+0	1.686723E+0	1.555657E+0	1.603145E+0	1.620548E+0	1.648898E+0	1.703598E+0	1.640117E+0	1.700032E+0	1.676124E+0	1.595220E+0	1.621058E+0	1.649691E+0	1.655884E+0	1.629980E+0	1.660912E+0	1.662032E+0	1.657391E+0	1.633508E+0	1.654507E+0	1.637411E+0	1.619431E+0	1.671659E+0	1.612756E+0	1.628655E+0	1.640370E+0	1.615064E+0	1.755740E+0	1.603643E+0	1.664681E+0	1.662115E+0	1.606308E+0	1.580585E+0	1.653686E+0	1.629792E+0	1.641330E+0	1.592633E+0	1.631123E+0	1.644552E+0	1.605939E+0	1.619204E+0	1.654364E+0	1.591655E+0	1.637011E+0	1.652867E+0	1.619927E+0	1.713083E+0	1.615010E+0	1.632804E+0	1.625501E+0	1.578268E+0	1.649696E+0	1.644899E+0	1.673183E+0	1.660021E+0	1.593815E+0	1.623149E+0	1.617058E+0	1.648124E+0	1.681888E+0	1.546326E+0	1.597755E+0	1.600138E+0	1.583016E+0	1.575541E+0	1.627459E+0	1.638024E+0	1.678501E+0	1.589114E+0	1.666431E+0	1.612908E+0	1.596854E+0	1.588930E+0	1.696276E+0	1.641900E+0	1.638917E+0	1.650881E+0	1.603296E+0	1.618159E+0	1.618372E+0	1.610731E+0	1.639852E+0	1.584602E+0	1.675557E+0	1.591716E+0	1.610119E+0	1.622595E+0	1.632904E+0	1.639114E+0	1.649334E+0	1.666116E+0	1.587878E+0	1.613222E+0	1.659328E+0	1.636149E+0	1.582378E+0	1.642676E+0	1.640949E+0	1.625282E+0	1.656060E+0	1.609418E+0	1.650337E+0	1.603594E+0	1.589672E+0	1.655988E+0	1.581071E+0	1.595007E+0	1.581571E+0	1.572941E+0	1.618125E+0	1.621991E+0	1.611682E+0	1.610375E+0	1.612874E+0	1.530607E+0	1.653927E+0	1.581159E+0	1.644355E+0	1.581903E+0	1.547770E+0	1.608890E+0	1.575732E+0	1.657898E+0	1.573781E+0	1.642937E+0	1.701345E+0	1.613376E+0	1.596201E+0	1.589441E+0	1.601509E+0	1.593989E+0	1.590204E+0	1.580445E+0	1.603918E+0	1.586572E+0	1.595065E+0	1.586404E+0	1.607235E+0	1.620518E+0	1.607542E+0	1.560850E+0	1.563710E+0	1.623953E+0	1.560542E+0	1.572002E+0	1.582169E+0	1.582792E+0	1.542192E+0	1.584803E+0	1.695127E+0	1.585437E+0	1.632572E+0	1.574840E+0	1.613250E+0	1.605392E+0	1.584506E+0	1.552069E+0	1.623995E+0	1.641125E+0	1.578517E+0	1.613148E+0	1.623540E+0	1.559278E+0	1.612155E+0	1.692727E+0	1.519876E+0
5.392670E+2	1.905353E+0	1.852093E+0	1.822112E+0	1.879572E+0	1.853222E+0	1.861015E+0	1.819031E+0	1.851756E+0	1.815373E+0	1.830275E+0	1.824056E+0	1.850432E+0	1.862917E+0	1.818864E+0	1.919154E+0	1.851102E+0	1.807347E+0	1.833655E+0	1.794352E+0	1.890712E+0	1.813131E+0	1.885664E+0	1.833259E+0	1.875608E+0	1.880365E+0	1.817314E+0	1.817102E+0	1.841212E+0	1.802504E+0	1.868973E+0	1.870246E+0	1.840195E+0	1.831301E+0	1.897970E+0	1.835924E+0	1.859772E+0	1.853871E+0	1.868482E+0	1.776873E+0	1.906683E+0	1.878041E+0	1.826671E+0	1.826770E+0	1.836910E+0	1.833044E+0	1.839105E+0	1.802285E+0	1.846010E+0	1.839334E+0	1.823917E+0	1.813558E+0	1.754142E+0	1.905308E+0	1.825241E+0	1.812775E+0	1.852713E+0	1.841648E+0	1.844441E+0	1.841962E+0	1.842465E+0	1.815562E+0	1.840453E+0	1.839179E+0	1.800503E+0	1.803725E+0	1.838888E+0	1.861026E+0	1.830144E+0	1.854943E+0	1.836926E+0	1.805332E+0	1.889290E+0	1.807091E+0	1.848434E+0	1.871140E+0	1.846639E+0	1.805423E+0	1.816935E+0	1.787129E+0	1.849416E+0	1.802862E+0	1.870144E+0	1.840571E+0	1.794381E+0	1.777650E+0	1.851650E+0	1.761005E+0	1.874981E+0	1.780586E+0	1.838335E+0	1.832377E+0	1.840640E+0	1.795511E+0	1.816682E+0	1.878313E+0	1.776565E+0	1.776538E+0	1.737257E+0	1.824939E+0	1.832464E+0	1.815806E+0	1.800011E+0	1.786005E+0	1.796794E+0	1.782373E+0	1.814144E+0	1.773328E+0	1.781260E+0	1.796899E+0	1.824169E+0	1.781395E+0	1.793427E+0	1.837734E+0	1.812829E+0	1.855439E+0	1.847145E+0	1.783966E+0	1.773670E+0	1.847629E+0	1.871552E+0	1.784671E+0	1.761392E+0	1.770128E+0	1.796139E+0	1.772116E+0	1.840341E+0	1.838824E+0	1.811538E+0	1.784184E+0	1.785111E+0	1.797977E+0	1.763893E+0	1.813682E+0	1.756004E+0	1.766148E+0	1.844303E+0	1.867540E+0	1.780077E+0	1.824319E+0	1.777013E+0	1.811447E+0	1.817646E+0	1.794753E+0	1.752405E+0	1.776655E+0	1.787849E+0	1.725679E+0	1.748239E+0	1.801021E+0	1.817567E+0	1.730195E+0	1.766408E+0	1.831675E+0	1.766629E+0	1.762694E+0	1.795630E+0	1.773344E+0	1.843648E+0	1.779044E+0	1.812783E+0	1.761486E+0	1.799058E+0	1.715796E+0	1.758438E+0	1.761406E+0	1.791882E+0	1.724236E+0	1.777076E+0	1.714969E+0	1.821296E+0	1.815270E+0	1.676877E+0
5.395160E+2	2.075320E+0	1.976773E+0	1.936683E+0	1.981582E+0	1.968503E+0	2.012707E+0	1.993327E+0	2.047663E+0	1.910468E+0	1.987699E+0	1.996116E+0	1.964827E+0	1.994130E+0	1.986224E+0	1.982132E+0	2.032269E+0	1.930322E+0	1.982081E+0	2.003374E+0	2.039508E+0	1.995611E+0	1.991611E+0	1.990922E+0	1.984165E+0	1.963327E+0	1.974320E+0	1.982779E+0	1.992444E+0	1.983273E+0	1.904451E+0	2.038311E+0	2.029706E+0	2.011116E+0	1.959817E+0	1.897479E+0	1.967624E+0	1.974738E+0	1.931070E+0	1.892532E+0	2.050370E+0	1.997306E+0	1.956265E+0	1.993871E+0	1.933086E+0	1.981862E+0	2.006335E+0	1.954753E+0	1.961054E+0	1.968989E+0	1.950306E+0	1.948545E+0	1.936755E+0	2.003142E+0	1.966042E+0	1.949474E+0	1.929358E+0	1.973045E+0	1.991379E+0	1.948843E+0	2.017905E+0	1.959148E+0	1.956644E+0	1.920252E+0	1.931009E+0	1.972436E+0	1.988514E+0	1.923190E+0	1.919465E+0	1.923687E+0	1.906732E+0	1.906330E+0	1.984001E+0	1.977884E+0	1.883360E+0	1.942311E+0	2.010481E+0	1.938198E+0	1.899951E+0	1.920648E+0	1.976644E+0	1.908598E+0	1.914677E+0	1.930596E+0	1.917155E+0	1.971726E+0	1.922915E+0	1.895078E+0	1.933113E+0	1.932636E+0	1.993859E+0	1.973164E+0	1.933126E+0	1.880468E+0	1.852305E+0	1.992592E+0	1.922480E+0	2.011121E+0	1.914909E+0	1.925834E+0	1.931799E+0	1.983850E+0	1.865592E+0	1.889356E+0	1.884705E+0	1.891419E+0	1.862560E+0	1.922176E+0	1.971760E+0	1.908503E+0	1.956434E+0	1.914843E+0	1.909051E+0	1.900531E+0	1.913466E+0	1.883341E+0	1.961285E+0	1.918771E+0	1.900771E+0	1.887649E+0	1.982194E+0	2.017285E+0	1.895554E+0	1.856027E+0	1.878671E+0	1.968903E+0	1.838713E+0	1.938500E+0	1.909624E+0	1.913037E+0	1.879327E+0	1.926717E+0	1.899396E+0	1.933912E+0	1.893234E+0	1.879674E+0	1.960805E+0	1.836254E+0	1.900816E+0	1.850144E+0	1.920039E+0	1.932076E+0	1.899320E+0	1.964493E+0	1.941614E+0	1.878700E+0	1.902845E+0	1.896080E+0	1.879843E+0	1.931139E+0	1.944192E+0	1.808516E+0	1.915116E+0	1.914972E+0	1.880527E+0	1.862600E+0	1.909462E+0	1.924321E+0	1.908233E+0	1.914561E+0	1.927157E+0	1.918651E+0	1.914321E+0	1.786819E+0	1.908461E+0	1.886828E+0	2.001307E+0	1.903978E+0	1.928463E+0	1.917792E+0	1.831751E+0	1.972270E+0	2.057389E+0
5.397650E+2	2.038662E+0	1.929727E+0	1.989941E+0	2.010107E+0	1.947726E+0	2.045521E+0	1.945676E+0	2.066482E+0	1.983760E+0	1.945746E+0	2.007875E+0	2.028429E+0	2.043646E+0	2.028610E+0	1.997562E+0	1.947763E+0	1.996372E+0	1.946342E+0	2.013263E+0	1.947986E+0	2.020400E+0	2.035736E+0	2.001321E+0	2.023106E+0	1.962724E+0	2.034914E+0	1.971277E+0	1.974087E+0	1.969977E+0	1.973169E+0	2.067598E+0	2.017671E+0	2.051764E+0	1.966712E+0	2.009499E+0	1.978502E+0	1.997401E+0	1.975409E+0	1.858207E+0	2.057960E+0	1.956284E+0	2.025204E+0	2.024406E+0	1.995701E+0	1.987948E+0	1.965896E+0	1.945144E+0	1.963502E+0	2.038754E+0	1.937426E+0	1.959392E+0	1.945215E+0	2.035948E+0	1.953017E+0	1.978382E+0	1.967363E+0	2.002771E+0	1.908560E+0	1.930599E+0	1.944208E+0	2.008565E+0	1.944646E+0	1.985077E+0	1.978764E+0	1.998567E+0	1.959924E+0	2.008200E+0	1.917399E+0	2.001157E+0	1.903614E+0	1.966604E+0	1.971048E+0	2.049228E+0	1.937187E+0	1.924162E+0	1.957883E+0	1.945905E+0	1.921888E+0	1.912344E+0	1.971221E+0	1.914001E+0	1.947836E+0	1.947969E+0	1.928538E+0	1.938962E+0	1.969794E+0	1.867290E+0	1.972382E+0	1.921556E+0	1.987844E+0	1.926258E+0	1.964754E+0	1.913367E+0	1.995295E+0	1.909049E+0	1.907557E+0	1.976145E+0	1.902565E+0	1.939693E+0	1.955825E+0	1.975973E+0	1.895946E+0	1.934914E+0	1.931305E+0	1.908203E+0	1.908927E+0	1.903547E+0	1.944151E+0	1.937399E+0	1.878140E+0	1.954426E+0	1.935998E+0	1.946740E+0	1.986488E+0	1.922324E+0	1.893333E+0	1.921320E+0	1.935609E+0	2.000688E+0	2.024818E+0	1.938356E+0	1.888381E+0	1.917927E+0	1.893942E+0	1.904247E+0	1.906170E+0	1.948311E+0	1.997879E+0	1.949195E+0	1.891993E+0	1.965286E+0	1.967044E+0	1.980196E+0	1.921249E+0	1.851975E+0	1.937206E+0	1.968812E+0	1.945183E+0	1.889503E+0	1.856984E+0	1.895523E+0	1.911607E+0	1.929898E+0	1.947013E+0	1.925806E+0	1.916843E+0	1.874191E+0	1.934744E+0	1.930632E+0	1.914470E+0	1.888920E+0	1.953432E+0	1.884562E+0	1.897608E+0	1.869235E+0	1.964798E+0	1.882429E+0	2.002517E+0	1.896424E+0	1.922203E+0	1.906204E+0	1.883753E+0	1.903557E+0	1.904381E+0	1.905046E+0	1.927984E+0	1.903595E+0	1.917188E+0	1.860279E+0	1.995754E+0	1.910923E+0	1.981838E+0
5.400140E+2	2.048135E+0	1.896636E+0	1.939775E+0	1.991841E+0	1.959327E+0	2.011572E+0	1.948336E+0	1.977976E+0	1.901172E+0	1.916186E+0	1.980836E+0	1.926952E+0	2.036816E+0	1.984824E+0	1.977761E+0	1.884741E+0	2.013222E+0	1.999477E+0	1.973984E+0	1.913325E+0	1.888713E+0	1.957579E+0	1.937008E+0	1.950668E+0	1.984309E+0	2.031935E+0	1.923071E+0	1.918020E+0	1.987622E+0	1.923969E+0	1.892144E+0	1.958344E+0	1.933006E+0	2.019023E+0	1.912650E+0	1.924459E+0	1.960199E+0	1.961392E+0	1.859072E+0	1.975758E+0	1.949966E+0	1.953962E+0	1.991248E+0	2.022798E+0	1.933108E+0	1.951759E+0	1.936486E+0	1.924869E+0	1.945672E+0	1.830088E+0	1.900951E+0	1.930644E+0	2.023356E+0	1.915037E+0	1.934513E+0	1.974582E+0	1.944732E+0	1.920821E+0	1.911610E+0	1.987779E+0	1.923572E+0	1.854838E+0	1.959595E+0	1.880750E+0	1.905818E+0	1.959648E+0	1.908563E+0	1.932020E+0	1.913931E+0	1.975821E+0	1.882173E+0	2.032539E+0	1.984960E+0	1.933925E+0	1.950609E+0	1.944376E+0	1.944209E+0	1.916554E+0	1.906702E+0	1.981235E+0	1.951161E+0	1.920137E+0	1.942931E+0	1.917399E+0	1.863378E+0	1.935329E+0	1.839713E+0	1.921630E+0	1.887695E+0	1.912861E+0	1.921984E+0	1.923053E+0	1.902188E+0	1.882227E+0	1.967996E+0	1.916882E+0	1.883205E+0	1.944211E+0	1.910763E+0	1.949335E+0	1.942216E+0	1.905456E+0	1.841280E+0	1.926574E+0	1.926935E+0	1.888292E+0	1.886843E+0	1.900714E+0	1.906523E+0	1.999629E+0	1.934467E+0	1.857365E+0	1.890279E+0	1.875124E+0	1.880855E+0	1.804986E+0	1.852479E+0	1.860737E+0	1.861812E+0	1.934055E+0	1.905886E+0	1.895749E+0	1.866479E+0	1.874592E+0	1.871416E+0	1.870919E+0	1.972831E+0	1.922855E+0	1.932897E+0	1.892279E+0	1.908034E+0	1.908311E+0	1.924820E+0	1.927776E+0	1.880461E+0	1.961593E+0	1.892900E+0	1.873953E+0	1.909406E+0	1.890596E+0	1.870660E+0	1.906139E+0	1.883073E+0	1.832853E+0	1.911281E+0	1.913325E+0	1.853346E+0	1.866568E+0	1.874473E+0	1.916916E+0	1.858193E+0	1.849402E+0	1.858089E+0	1.809663E+0	1.940904E+0	1.908556E+0	1.901168E+0	1.914249E+0	1.897658E+0	1.849594E+0	1.907002E+0	1.884191E+0	1.857108E+0	1.875752E+0	1.880714E+0	1.895723E+0	1.864292E+0	1.912111E+0	1.921663E+0	1.904595E+0	1.873982E+0	1.933261E+0
5.402740E+2	1.952779E+0	1.874238E+0	1.839444E+0	1.920375E+0	1.890542E+0	1.931183E+0	1.846140E+0	1.933006E+0	1.794575E+0	1.865252E+0	1.817001E+0	1.871049E+0	1.904645E+0	1.903786E+0	1.895391E+0	1.871913E+0	1.848352E+0	1.914855E+0	1.883428E+0	1.900524E+0	1.885620E+0	1.848372E+0	1.839449E+0	1.837059E+0	1.860255E+0	1.916761E+0	1.909230E+0	1.866668E+0	1.900014E+0	1.891056E+0	1.879312E+0	1.894202E+0	1.929058E+0	1.903991E+0	1.879590E+0	1.847543E+0	1.863623E+0	1.877031E+0	1.780442E+0	1.902532E+0	1.870261E+0	1.786512E+0	1.824068E+0	1.857170E+0	1.862234E+0	1.868322E+0	1.827485E+0	1.805170E+0	1.838862E+0	1.801168E+0	1.862795E+0	1.860365E+0	1.918522E+0	1.832845E+0	1.925277E+0	1.849562E+0	1.855628E+0	1.857536E+0	1.855486E+0	1.900941E+0	1.859211E+0	1.817522E+0	1.821307E+0	1.819864E+0	1.834788E+0	1.878809E+0	1.874509E+0	1.816784E+0	1.909154E+0	1.876324E+0	1.822979E+0	1.846185E+0	1.958505E+0	1.890392E+0	1.829270E+0	1.844460E+0	1.878751E+0	1.827107E+0	1.807136E+0	1.902552E+0	1.912455E+0	1.858939E+0	1.892140E+0	1.821664E+0	1.889575E+0	1.843481E+0	1.821739E+0	1.835212E+0	1.851675E+0	1.854884E+0	1.773555E+0	1.867528E+0	1.826424E+0	1.820795E+0	1.814600E+0	1.826875E+0	1.865106E+0	1.837828E+0	1.878625E+0	1.852900E+0	1.890549E+0	1.784965E+0	1.817145E+0	1.825317E+0	1.875213E+0	1.819753E+0	1.773456E+0	1.819893E+0	1.837701E+0	1.781334E+0	1.831115E+0	1.851689E+0	1.794218E+0	1.839563E+0	1.837469E+0	1.817027E+0	1.790758E+0	1.756975E+0	1.832327E+0	1.858906E+0	1.785514E+0	1.826613E+0	1.773337E+0	1.763394E+0	1.783697E+0	1.806305E+0	1.888468E+0	1.831205E+0	1.823720E+0	1.810953E+0	1.841134E+0	1.901670E+0	1.821570E+0	1.802398E+0	1.777434E+0	1.847917E+0	1.814700E+0	1.859241E+0	1.818378E+0	1.800288E+0	1.850418E+0	1.855450E+0	1.820458E+0	1.799348E+0	1.828261E+0	1.766173E+0	1.767006E+0	1.784272E+0	1.785764E+0	1.791934E+0	1.746671E+0	1.808627E+0	1.773320E+0	1.826440E+0	1.766693E+0	1.783068E+0	1.732111E+0	1.794117E+0	1.778515E+0	1.826635E+0	1.838670E+0	1.797225E+0	1.777423E+0	1.830233E+0	1.829392E+0	1.812331E+0	1.873445E+0	1.751447E+0	1.849149E+0	1.841865E+0	1.753621E+0	1.827925E+0
5.405080E+2	1.919318E+0	1.772045E+0	1.801750E+0	1.837575E+0	1.814496E+0	1.841382E+0	1.749890E+0	1.809427E+0	1.826995E+0	1.801088E+0	1.766155E+0	1.776485E+0	1.809986E+0	1.804512E+0	1.839071E+0	1.774259E+0	1.824868E+0	1.768125E+0	1.810675E+0	1.802182E+0	1.825397E+0	1.826273E+0	1.786491E+0	1.779394E+0	1.813296E+0	1.836887E+0	1.759523E+0	1.791802E+0	1.827207E+0	1.832548E+0	1.800497E+0	1.852557E+0	1.769845E+0	1.847714E+0	1.702024E+0	1.799896E+0	1.759812E+0	1.809213E+0	1.777474E+0	1.859115E+0	1.845159E+0	1.757803E+0	1.790849E+0	1.754201E+0	1.772413E+0	1.785020E+0	1.759208E+0	1.764954E+0	1.784572E+0	1.726075E+0	1.772345E+0	1.752723E+0	1.849193E+0	1.765449E+0	1.758463E+0	1.797039E+0	1.863362E+0	1.768018E+0	1.737599E+0	1.789157E+0	1.796049E+0	1.704049E+0	1.759742E+0	1.769413E+0	1.802795E+0	1.805091E+0	1.778825E+0	1.775087E+0	1.826714E+0	1.792252E+0	1.750342E+0	1.739994E+0	1.856527E+0	1.784450E+0	1.788567E+0	1.791777E+0	1.771022E+0	1.716586E+0	1.772926E+0	1.831407E+0	1.771387E+0	1.742358E+0	1.823153E+0	1.783794E+0	1.740782E+0	1.763168E+0	1.746630E+0	1.722081E+0	1.708005E+0	1.826598E+0	1.796976E+0	1.748834E+0	1.690808E+0	1.789010E+0	1.794577E+0	1.768733E+0	1.725312E+0	1.762848E+0	1.823530E+0	1.774149E+0	1.802315E+0	1.741594E+0	1.756649E+0	1.728099E+0	1.799334E+0	1.767484E+0	1.711176E+0	1.758237E+0	1.758894E+0	1.728487E+0	1.806137E+0	1.751827E+0	1.788322E+0	1.765926E+0	1.734206E+0	1.747133E+0	1.768012E+0	1.720750E+0	1.677499E+0	1.724025E+0	1.712907E+0	1.730506E+0	1.709106E+0	1.693439E+0	1.705313E+0	1.722845E+0	1.744875E+0	1.765223E+0	1.744263E+0	1.756963E+0	1.722751E+0	1.835960E+0	1.794342E+0	1.716549E+0	1.738031E+0	1.800807E+0	1.735987E+0	1.785381E+0	1.714569E+0	1.715690E+0	1.752729E+0	1.799818E+0	1.756212E+0	1.727208E+0	1.720728E+0	1.793502E+0	1.712169E+0	1.734528E+0	1.717907E+0	1.785640E+0	1.758941E+0	1.753543E+0	1.737153E+0	1.684636E+0	1.682442E+0	1.745205E+0	1.772167E+0	1.753212E+0	1.726984E+0	1.716221E+0	1.778857E+0	1.699637E+0	1.681014E+0	1.745626E+0	1.771195E+0	1.733404E+0	1.709500E+0	1.726104E+0	1.777702E+0	1.780606E+0	1.773928E+0	1.717031E+0
5.407790E+2	1.860180E+0	1.697297E+0	1.664279E+0	1.770164E+0	1.755450E+0	1.683699E+0	1.736041E+0	1.677511E+0	1.725861E+0	1.727243E+0	1.690677E+0	1.693460E+0	1.742956E+0	1.726326E+0	1.761258E+0	1.733100E+0	1.696674E+0	1.728211E+0	1.734290E+0	1.767323E+0	1.707528E+0	1.791060E+0	1.612290E+0	1.662277E+0	1.749787E+0	1.736817E+0	1.645747E+0	1.709479E+0	1.732119E+0	1.730009E+0	1.734676E+0	1.740583E+0	1.703904E+0	1.731403E+0	1.618168E+0	1.737139E+0	1.743643E+0	1.744576E+0	1.654672E+0	1.733348E+0	1.709570E+0	1.720445E+0	1.711334E+0	1.671750E+0	1.685175E+0	1.700332E+0	1.686731E+0	1.691608E+0	1.743383E+0	1.730779E+0	1.689761E+0	1.687323E+0	1.746886E+0	1.722141E+0	1.683970E+0	1.740542E+0	1.742387E+0	1.696525E+0	1.704036E+0	1.704484E+0	1.749583E+0	1.744663E+0	1.704744E+0	1.713108E+0	1.679496E+0	1.732752E+0	1.708372E+0	1.658873E+0	1.734706E+0	1.714803E+0	1.724230E+0	1.710472E+0	1.690057E+0	1.683381E+0	1.691921E+0	1.671427E+0	1.719042E+0	1.644452E+0	1.659819E+0	1.781131E+0	1.652182E+0	1.697957E+0	1.721448E+0	1.631671E+0	1.672194E+0	1.697226E+0	1.712226E+0	1.700108E+0	1.667500E+0	1.698860E+0	1.668916E+0	1.633611E+0	1.693273E+0	1.671371E+0	1.674681E+0	1.693173E+0	1.777015E+0	1.681123E+0	1.660193E+0	1.745071E+0	1.712754E+0	1.710808E+0	1.632819E+0	1.601182E+0	1.744683E+0	1.683503E+0	1.635458E+0	1.676811E+0	1.656512E+0	1.767758E+0	1.707226E+0	1.686235E+0	1.678996E+0	1.671577E+0	1.713836E+0	1.659147E+0	1.726853E+0	1.637293E+0	1.721904E+0	1.694989E+0	1.672989E+0	1.692650E+0	1.674459E+0	1.594378E+0	1.675015E+0	1.688273E+0	1.647028E+0	1.611823E+0	1.712652E+0	1.683256E+0	1.748178E+0	1.688460E+0	1.692710E+0	1.615992E+0	1.711537E+0	1.674972E+0	1.668721E+0	1.648843E+0	1.608902E+0	1.659195E+0	1.676054E+0	1.740856E+0	1.712699E+0	1.624219E+0	1.666625E+0	1.656579E+0	1.688840E+0	1.635372E+0	1.605310E+0	1.633511E+0	1.670972E+0	1.670615E+0	1.691381E+0	1.611391E+0	1.621283E+0	1.680003E+0	1.683450E+0	1.684246E+0	1.705106E+0	1.686741E+0	1.678000E+0	1.708181E+0	1.677769E+0	1.641942E+0	1.652036E+0	1.703457E+0	1.627933E+0	1.663584E+0	1.654807E+0	1.751032E+0	1.694748E+0	1.743729E+0
5.410130E+2	1.740750E+0	1.721348E+0	1.611235E+0	1.719223E+0	1.695175E+0	1.664060E+0	1.652041E+0	1.668361E+0	1.696297E+0	1.704197E+0	1.709249E+0	1.653952E+0	1.773419E+0	1.706409E+0	1.726550E+0	1.664481E+0	1.689480E+0	1.687307E+0	1.710704E+0	1.644378E+0	1.655401E+0	1.666104E+0	1.693458E+0	1.697694E+0	1.660852E+0	1.714560E+0	1.685203E+0	1.654210E+0	1.646193E+0	1.695747E+0	1.699980E+0	1.710377E+0	1.645497E+0	1.743188E+0	1.641715E+0	1.698850E+0	1.653283E+0	1.670287E+0	1.637643E+0	1.673395E+0	1.707280E+0	1.646380E+0	1.666424E+0	1.700214E+0	1.665211E+0	1.661121E+0	1.656859E+0	1.692813E+0	1.682260E+0	1.671203E+0	1.656519E+0	1.643634E+0	1.732171E+0	1.673873E+0	1.603926E+0	1.647726E+0	1.697761E+0	1.678046E+0	1.680953E+0	1.720627E+0	1.737042E+0	1.680742E+0	1.671353E+0	1.660648E+0	1.685054E+0	1.697733E+0	1.582994E+0	1.643625E+0	1.676786E+0	1.646327E+0	1.628790E+0	1.645657E+0	1.694706E+0	1.656288E+0	1.642789E+0	1.723840E+0	1.719317E+0	1.691033E+0	1.579339E+0	1.658744E+0	1.649405E+0	1.644416E+0	1.622862E+0	1.626884E+0	1.651640E+0	1.623648E+0	1.618247E+0	1.652470E+0	1.646801E+0	1.665753E+0	1.639521E+0	1.650971E+0	1.634516E+0	1.647315E+0	1.658555E+0	1.649826E+0	1.706826E+0	1.630563E+0	1.718658E+0	1.692406E+0	1.693938E+0	1.628050E+0	1.677442E+0	1.638180E+0	1.646806E+0	1.665195E+0	1.587349E+0	1.658015E+0	1.762724E+0	1.681899E+0	1.648670E+0	1.659443E+0	1.672293E+0	1.651141E+0	1.703762E+0	1.581201E+0	1.653922E+0	1.608841E+0	1.665462E+0	1.667497E+0	1.693173E+0	1.679264E+0	1.639702E+0	1.623879E+0	1.677259E+0	1.663793E+0	1.650209E+0	1.679308E+0	1.684370E+0	1.659658E+0	1.685946E+0	1.661535E+0	1.654138E+0	1.651699E+0	1.658423E+0	1.707156E+0	1.613377E+0	1.610543E+0	1.601154E+0	1.641057E+0	1.631405E+0	1.638043E+0	1.658179E+0	1.687648E+0	1.636737E+0	1.697041E+0	1.620551E+0	1.663773E+0	1.630569E+0	1.685079E+0	1.616022E+0	1.601418E+0	1.666228E+0	1.610961E+0	1.615193E+0	1.635917E+0	1.614765E+0	1.634125E+0	1.642252E+0	1.599069E+0	1.658889E+0	1.642446E+0	1.622245E+0	1.609413E+0	1.630338E+0	1.676555E+0	1.594937E+0	1.608740E+0	1.617905E+0	1.703047E+0	1.623135E+0	1.574144E+0
5.412690E+2	1.615442E+0	1.561997E+0	1.570197E+0	1.606874E+0	1.538245E+0	1.563333E+0	1.551648E+0	1.609590E+0	1.522610E+0	1.573151E+0	1.594620E+0	1.600751E+0	1.607589E+0	1.567367E+0	1.606668E+0	1.593429E+0	1.563268E+0	1.659621E+0	1.611370E+0	1.602918E+0	1.597978E+0	1.661285E+0	1.581952E+0	1.609114E+0	1.534757E+0	1.617588E+0	1.588678E+0	1.653498E+0	1.594606E+0	1.568475E+0	1.655117E+0	1.584308E+0	1.612088E+0	1.641829E+0	1.524919E+0	1.575937E+0	1.598154E+0	1.556767E+0	1.570183E+0	1.560388E+0	1.610791E+0	1.556084E+0	1.571067E+0	1.595046E+0	1.639075E+0	1.609455E+0	1.571690E+0	1.571522E+0	1.594454E+0	1.552918E+0	1.575955E+0	1.621215E+0	1.654444E+0	1.528871E+0	1.536208E+0	1.598754E+0	1.615845E+0	1.577421E+0	1.564913E+0	1.558140E+0	1.644138E+0	1.585919E+0	1.569957E+0	1.579633E+0	1.566475E+0	1.595935E+0	1.576769E+0	1.518202E+0	1.629396E+0	1.580369E+0	1.558238E+0	1.662903E+0	1.655716E+0	1.593172E+0	1.594156E+0	1.563165E+0	1.617555E+0	1.570520E+0	1.610416E+0	1.591078E+0	1.545106E+0	1.553246E+0	1.550887E+0	1.525409E+0	1.581620E+0	1.576979E+0	1.568053E+0	1.551593E+0	1.552287E+0	1.579005E+0	1.563949E+0	1.598037E+0	1.531858E+0	1.556987E+0	1.580723E+0	1.543542E+0	1.585395E+0	1.550494E+0	1.578274E+0	1.633277E+0	1.624530E+0	1.536459E+0	1.588053E+0	1.526252E+0	1.615664E+0	1.552554E+0	1.558428E+0	1.551658E+0	1.554060E+0	1.567745E+0	1.561009E+0	1.507640E+0	1.538351E+0	1.556063E+0	1.561104E+0	1.499540E+0	1.580445E+0	1.513989E+0	1.551599E+0	1.542875E+0	1.515670E+0	1.566180E+0	1.575811E+0	1.558518E+0	1.567029E+0	1.493898E+0	1.584188E+0	1.555152E+0	1.576165E+0	1.616239E+0	1.564623E+0	1.546280E+0	1.555060E+0	1.532832E+0	1.524440E+0	1.566942E+0	1.512605E+0	1.613556E+0	1.593421E+0	1.571423E+0	1.580422E+0	1.572688E+0	1.573119E+0	1.568638E+0	1.604103E+0	1.621728E+0	1.561105E+0	1.578640E+0	1.546439E+0	1.513147E+0	1.500928E+0	1.549113E+0	1.561399E+0	1.561825E+0	1.514475E+0	1.499328E+0	1.553691E+0	1.524480E+0	1.528974E+0	1.582878E+0	1.482988E+0	1.538703E+0	1.505023E+0	1.562535E+0	1.574643E+0	1.562640E+0	1.534451E+0	1.549693E+0	1.509599E+0	1.592932E+0	1.648918E+0	1.428126E+0
5.415140E+2	1.502171E+0	1.424445E+0	1.428943E+0	1.495211E+0	1.433953E+0	1.391702E+0	1.395304E+0	1.512400E+0	1.466041E+0	1.436610E+0	1.451226E+0	1.422313E+0	1.484861E+0	1.465014E+0	1.459907E+0	1.486629E+0	1.454777E+0	1.454999E+0	1.452081E+0	1.446231E+0	1.472692E+0	1.442781E+0	1.414871E+0	1.423282E+0	1.488755E+0	1.442473E+0	1.446781E+0	1.420329E+0	1.502699E+0	1.471553E+0	1.425571E+0	1.457675E+0	1.493282E+0	1.444396E+0	1.436743E+0	1.447155E+0	1.444553E+0	1.435894E+0	1.443320E+0	1.434182E+0	1.439442E+0	1.428440E+0	1.440538E+0	1.433173E+0	1.462044E+0	1.400542E+0	1.437076E+0	1.393204E+0	1.418678E+0	1.410538E+0	1.430603E+0	1.421728E+0	1.470707E+0	1.369698E+0	1.423730E+0	1.390781E+0	1.424195E+0	1.403566E+0	1.410469E+0	1.453904E+0	1.444776E+0	1.434246E+0	1.424994E+0	1.460673E+0	1.408489E+0	1.413325E+0	1.496956E+0	1.383150E+0	1.428108E+0	1.512253E+0	1.453208E+0	1.406800E+0	1.483318E+0	1.463098E+0	1.430424E+0	1.429709E+0	1.405586E+0	1.381433E+0	1.405797E+0	1.435821E+0	1.460848E+0	1.455835E+0	1.500987E+0	1.424094E+0	1.380520E+0	1.450855E+0	1.423316E+0	1.422575E+0	1.447862E+0	1.446677E+0	1.397490E+0	1.393499E+0	1.390184E+0	1.415769E+0	1.444344E+0	1.451519E+0	1.435288E+0	1.419918E+0	1.406599E+0	1.415436E+0	1.425865E+0	1.387442E+0	1.447868E+0	1.380619E+0	1.465364E+0	1.439781E+0	1.402546E+0	1.411100E+0	1.419030E+0	1.436820E+0	1.404893E+0	1.414867E+0	1.464097E+0	1.426617E+0	1.426070E+0	1.397687E+0	1.437269E+0	1.394740E+0	1.428363E+0	1.426495E+0	1.404641E+0	1.410295E+0	1.411226E+0	1.352107E+0	1.386342E+0	1.403711E+0	1.461353E+0	1.438220E+0	1.439039E+0	1.427909E+0	1.418815E+0	1.424174E+0	1.452475E+0	1.431966E+0	1.390179E+0	1.385407E+0	1.457041E+0	1.436604E+0	1.362009E+0	1.346917E+0	1.440933E+0	1.401966E+0	1.437280E+0	1.390341E+0	1.449581E+0	1.435019E+0	1.403764E+0	1.447300E+0	1.430592E+0	1.442972E+0	1.360871E+0	1.380304E+0	1.404267E+0	1.369787E+0	1.412143E+0	1.379866E+0	1.464247E+0	1.386171E+0	1.422982E+0	1.399519E+0	1.419196E+0	1.443147E+0	1.394754E+0	1.412486E+0	1.423245E+0	1.434857E+0	1.376046E+0	1.397158E+0	1.385961E+0	1.433913E+0	1.409680E+0	1.322153E+0
5.417760E+2	1.328972E+0	1.235982E+0	1.260198E+0	1.253754E+0	1.256189E+0	1.279358E+0	1.253582E+0	1.285461E+0	1.266406E+0	1.236276E+0	1.249155E+0	1.330749E+0	1.280623E+0	1.303966E+0	1.305238E+0	1.282019E+0	1.282528E+0	1.271015E+0	1.219040E+0	1.242788E+0	1.261659E+0	1.291691E+0	1.253036E+0	1.208968E+0	1.287335E+0	1.293221E+0	1.273306E+0	1.306151E+0	1.226202E+0	1.305711E+0	1.292933E+0	1.333927E+0	1.275545E+0	1.318306E+0	1.186281E+0	1.231100E+0	1.347735E+0	1.298453E+0	1.262846E+0	1.230324E+0	1.292042E+0	1.258303E+0	1.265058E+0	1.279339E+0	1.281149E+0	1.270269E+0	1.232162E+0	1.246489E+0	1.258597E+0	1.233497E+0	1.260237E+0	1.263995E+0	1.299396E+0	1.269373E+0	1.237531E+0	1.283099E+0	1.320354E+0	1.269293E+0	1.212368E+0	1.249834E+0	1.268395E+0	1.284334E+0	1.217769E+0	1.224320E+0	1.241655E+0	1.288765E+0	1.289070E+0	1.233158E+0	1.220062E+0	1.250383E+0	1.254209E+0	1.266948E+0	1.277659E+0	1.231631E+0	1.251376E+0	1.242599E+0	1.286123E+0	1.210425E+0	1.241468E+0	1.340680E+0	1.280940E+0	1.290978E+0	1.249130E+0	1.193554E+0	1.256954E+0	1.234776E+0	1.191692E+0	1.254119E+0	1.251543E+0	1.345892E+0	1.282782E+0	1.297078E+0	1.251119E+0	1.230619E+0	1.274731E+0	1.245680E+0	1.255468E+0	1.227155E+0	1.230215E+0	1.231536E+0	1.271754E+0	1.250822E+0	1.243770E+0	1.181569E+0	1.306533E+0	1.272442E+0	1.244653E+0	1.215988E+0	1.268511E+0	1.283156E+0	1.256834E+0	1.192587E+0	1.251508E+0	1.257151E+0	1.209338E+0	1.248837E+0	1.273897E+0	1.241727E+0	1.211142E+0	1.283077E+0	1.249673E+0	1.275482E+0	1.208589E+0	1.199592E+0	1.276763E+0	1.263068E+0	1.256907E+0	1.227074E+0	1.249743E+0	1.220251E+0	1.263364E+0	1.290186E+0	1.276960E+0	1.232218E+0	1.239603E+0	1.208866E+0	1.265893E+0	1.255441E+0	1.213657E+0	1.220321E+0	1.250610E+0	1.262532E+0	1.288790E+0	1.309477E+0	1.214381E+0	1.216935E+0	1.234746E+0	1.193113E+0	1.244710E+0	1.243829E+0	1.167346E+0	1.239153E+0	1.258118E+0	1.216164E+0	1.218015E+0	1.214764E+0	1.271487E+0	1.258557E+0	1.272198E+0	1.270846E+0	1.303358E+0	1.229371E+0	1.229360E+0	1.230763E+0	1.264705E+0	1.235430E+0	1.239790E+0	1.255121E+0	1.199664E+0	1.224311E+0	1.225212E+0	1.113389E+0
5.420270E+2	1.105281E+0	1.059867E+0	1.009274E+0	1.117120E+0	1.027025E+0	1.092647E+0	1.064824E+0	1.143410E+0	1.077502E+0	1.044636E+0	1.036262E+0	1.054416E+0	1.081414E+0	1.104255E+0	1.090045E+0	1.078286E+0	1.075354E+0	1.077877E+0	1.048705E+0	1.086843E+0	1.067628E+0	1.116684E+0	1.071617E+0	1.111176E+0	1.062764E+0	1.089592E+0	1.105192E+0	1.058810E+0	1.077747E+0	1.075393E+0	1.076436E+0	1.073868E+0	1.107587E+0	1.120062E+0	1.052001E+0	1.082891E+0	1.067525E+0	1.121269E+0	1.054704E+0	1.052720E+0	1.110171E+0	1.078049E+0	1.090338E+0	1.057880E+0	1.118407E+0	1.125904E+0	1.075962E+0	1.045873E+0	1.088465E+0	1.077934E+0	1.057412E+0	1.071536E+0	1.109972E+0	1.087966E+0	1.047051E+0	1.057341E+0	1.064076E+0	1.070336E+0	1.115268E+0	1.073046E+0	1.115163E+0	1.083926E+0	1.042248E+0	1.096938E+0	1.093892E+0	1.128867E+0	1.070519E+0	1.066516E+0	1.063371E+0	1.070644E+0	1.057503E+0	1.055739E+0	1.112699E+0	1.080347E+0	1.032552E+0	1.050083E+0	1.105714E+0	1.076427E+0	1.097983E+0	1.126099E+0	1.113332E+0	1.060043E+0	1.097374E+0	1.033446E+0	1.032997E+0	1.042372E+0	1.071800E+0	1.040954E+0	1.065613E+0	1.049918E+0	1.073287E+0	1.077631E+0	1.032910E+0	1.058154E+0	1.079838E+0	1.087066E+0	1.101462E+0	1.071314E+0	1.078558E+0	1.064551E+0	1.088027E+0	1.084452E+0	1.046208E+0	1.001331E+0	1.065553E+0	1.078856E+0	1.089189E+0	1.058888E+0	1.078036E+0	1.130975E+0	1.064515E+0	1.114268E+0	1.059262E+0	1.092423E+0	1.079571E+0	1.011185E+0	1.054062E+0	1.107652E+0	1.041405E+0	1.057899E+0	1.066946E+0	1.032565E+0	1.033841E+0	1.060542E+0	1.054981E+0	1.081501E+0	1.093384E+0	1.068089E+0	1.067032E+0	1.055790E+0	1.078882E+0	1.099454E+0	1.086164E+0	1.065284E+0	1.050675E+0	1.061670E+0	1.066948E+0	1.063830E+0	1.115750E+0	1.056698E+0	1.109446E+0	1.081643E+0	1.079790E+0	1.059830E+0	1.107855E+0	1.069594E+0	1.039720E+0	1.054761E+0	1.082211E+0	1.037210E+0	1.055467E+0	1.065617E+0	1.074335E+0	1.078964E+0	1.092969E+0	1.075994E+0	1.078866E+0	1.089024E+0	1.076227E+0	1.085860E+0	1.062314E+0	1.099467E+0	1.035637E+0	1.098318E+0	1.104002E+0	1.040397E+0	1.091137E+0	1.054006E+0	1.066761E+0	1.137035E+0	1.046463E+0	1.077531E+0
5.422670E+2	9.607017E-1	9.392006E-1	9.312845E-1	9.705361E-1	9.508198E-1	1.013331E+0	9.487769E-1	9.446811E-1	9.901557E-1	9.894137E-1	9.596078E-1	9.574392E-1	9.621104E-1	9.983707E-1	9.693495E-1	9.432622E-1	9.374638E-1	9.673244E-1	9.760001E-1	9.475903E-1	9.516640E-1	9.640281E-1	9.273560E-1	9.616732E-1	9.505479E-1	9.596192E-1	9.697873E-1	9.703052E-1	9.458742E-1	9.530752E-1	9.893803E-1	9.688675E-1	9.505598E-1	1.006293E+0	9.192989E-1	9.494097E-1	9.775187E-1	9.198118E-1	9.346779E-1	9.914319E-1	9.465337E-1	9.457645E-1	9.662515E-1	9.940461E-1	9.499636E-1	9.551553E-1	9.843927E-1	9.618535E-1	9.753832E-1	9.656772E-1	9.467581E-1	9.953651E-1	1.036193E+0	9.251088E-1	9.362731E-1	9.376833E-1	9.880415E-1	9.797694E-1	9.687332E-1	9.875974E-1	9.649857E-1	9.599808E-1	9.851610E-1	9.680193E-1	9.173097E-1	9.639977E-1	9.567383E-1	9.607852E-1	9.728960E-1	9.153821E-1	9.722550E-1	9.653950E-1	9.815522E-1	9.779620E-1	9.444932E-1	9.837773E-1	9.688956E-1	9.376738E-1	9.138953E-1	9.745693E-1	9.647737E-1	9.884724E-1	9.747341E-1	9.399007E-1	9.492533E-1	9.992669E-1	9.490399E-1	9.626216E-1	9.819960E-1	1.005026E+0	9.253803E-1	9.818162E-1	9.671839E-1	9.457139E-1	9.821487E-1	9.591928E-1	9.078852E-1	9.621668E-1	9.752353E-1	9.650113E-1	9.825458E-1	9.508339E-1	9.652777E-1	9.653003E-1	9.941678E-1	9.695821E-1	9.343838E-1	9.185506E-1	9.488718E-1	9.548294E-1	9.897690E-1	9.449130E-1	9.122586E-1	9.677377E-1	9.425753E-1	9.572132E-1	9.645586E-1	9.487365E-1	9.534354E-1	9.645380E-1	9.658046E-1	9.267796E-1	9.033804E-1	9.518590E-1	9.257001E-1	9.188354E-1	9.806219E-1	9.311898E-1	9.694337E-1	9.276056E-1	9.708320E-1	9.863339E-1	1.006306E+0	9.767276E-1	9.850943E-1	9.788811E-1	9.463793E-1	9.886495E-1	9.402847E-1	9.612980E-1	9.393334E-1	9.809997E-1	9.452891E-1	9.445697E-1	9.485762E-1	9.969668E-1	9.861997E-1	9.617814E-1	9.651432E-1	9.884244E-1	9.358346E-1	9.052437E-1	9.466603E-1	9.355988E-1	9.298616E-1	9.649070E-1	9.404228E-1	9.254004E-1	9.582244E-1	1.009156E+0	9.630607E-1	9.413409E-1	9.336391E-1	9.688493E-1	1.004920E+0	9.801389E-1	9.595745E-1	9.804922E-1	9.848592E-1	9.897517E-1	9.444862E-1	1.010301E+0
5.425190E+2	9.535503E-1	8.794696E-1	8.819669E-1	9.341638E-1	8.830894E-1	9.148252E-1	8.776816E-1	8.756470E-1	8.783985E-1	8.444867E-1	8.807323E-1	8.942100E-1	9.082836E-1	9.072688E-1	9.403570E-1	8.960771E-1	9.020171E-1	9.093826E-1	9.016958E-1	8.993089E-1	9.114168E-1	9.030534E-1	8.671712E-1	8.883696E-1	9.157521E-1	9.137649E-1	9.310964E-1	8.844188E-1	9.200040E-1	8.504422E-1	8.987604E-1	9.199976E-1	8.608294E-1	9.063179E-1	8.591685E-1	8.701507E-1	9.043721E-1	8.890682E-1	8.618747E-1	8.588291E-1	9.222466E-1	8.939166E-1	8.920276E-1	8.784437E-1	8.730399E-1	8.984606E-1	9.058335E-1	8.983566E-1	8.617507E-1	8.722493E-1	9.164077E-1	9.374741E-1	9.003235E-1	8.725372E-1	9.074598E-1	8.641795E-1	9.259165E-1	8.965576E-1	9.017173E-1	8.820062E-1	8.858838E-1	9.355452E-1	9.363581E-1	9.166224E-1	8.936148E-1	9.046661E-1	8.976961E-1	9.070645E-1	8.838059E-1	8.766389E-1	9.093834E-1	9.199237E-1	9.348103E-1	8.645117E-1	8.531961E-1	8.876806E-1	8.935511E-1	8.936624E-1	8.834046E-1	9.487670E-1	8.944219E-1	8.702596E-1	8.894972E-1	9.018845E-1	8.818862E-1	9.154860E-1	8.711538E-1	8.862176E-1	8.641401E-1	9.254327E-1	8.544289E-1	8.653571E-1	8.660864E-1	8.968209E-1	8.938922E-1	9.133651E-1	8.924600E-1	9.034695E-1	9.046487E-1	9.163614E-1	9.214321E-1	8.702384E-1	8.690084E-1	8.679365E-1	9.171266E-1	9.277644E-1	8.853824E-1	8.762637E-1	9.038122E-1	9.177357E-1	8.922232E-1	9.179977E-1	9.035641E-1	9.039894E-1	9.061174E-1	8.711637E-1	9.318197E-1	8.522583E-1	8.935385E-1	8.886913E-1	8.859652E-1	9.064023E-1	8.691696E-1	8.277857E-1	8.431425E-1	9.000371E-1	9.423443E-1	8.758510E-1	8.623703E-1	9.155585E-1	8.667838E-1	9.250480E-1	9.014221E-1	9.164963E-1	8.679033E-1	8.825640E-1	8.942526E-1	8.887071E-1	9.063225E-1	8.971101E-1	8.883242E-1	9.265286E-1	8.760690E-1	8.714013E-1	8.823041E-1	9.216806E-1	9.110238E-1	8.544191E-1	9.218027E-1	9.253854E-1	8.732392E-1	9.115988E-1	8.957703E-1	8.696504E-1	9.081659E-1	8.901679E-1	8.753571E-1	9.095815E-1	8.953805E-1	9.115510E-1	8.771235E-1	9.440512E-1	9.151702E-1	8.949793E-1	9.069231E-1	8.900141E-1	8.907783E-1	8.869134E-1	8.915466E-1	9.360794E-1	9.663626E-1	8.166226E-1
5.427650E+2	9.613288E-1	9.472387E-1	9.476407E-1	9.597685E-1	9.083743E-1	9.625981E-1	9.224152E-1	9.076513E-1	9.179790E-1	9.117566E-1	9.244420E-1	9.348299E-1	9.134248E-1	9.709574E-1	9.661657E-1	9.198488E-1	8.626700E-1	9.099811E-1	9.680375E-1	9.368716E-1	9.153365E-1	9.242497E-1	9.162434E-1	9.652653E-1	9.322460E-1	9.535243E-1	9.202475E-1	9.073523E-1	9.014243E-1	9.270682E-1	9.362666E-1	9.490908E-1	9.594006E-1	9.356888E-1	9.110319E-1	9.141623E-1	9.799935E-1	9.530448E-1	9.487410E-1	8.932592E-1	9.374878E-1	9.194571E-1	9.633100E-1	9.419048E-1	9.161022E-1	9.328029E-1	9.200580E-1	9.132746E-1	9.051408E-1	9.276976E-1	9.256246E-1	9.006737E-1	9.406833E-1	9.116864E-1	9.190221E-1	9.078210E-1	9.727996E-1	9.118121E-1	9.013138E-1	9.222864E-1	9.167991E-1	9.331301E-1	9.262941E-1	9.498541E-1	9.379256E-1	9.351598E-1	9.074012E-1	9.312959E-1	9.564606E-1	9.612255E-1	9.668534E-1	9.616069E-1	9.346811E-1	9.094660E-1	9.267401E-1	9.213171E-1	9.592057E-1	9.062897E-1	9.327409E-1	9.333720E-1	9.034563E-1	9.458961E-1	9.455369E-1	9.462555E-1	9.168134E-1	8.966263E-1	8.993717E-1	9.293424E-1	9.710763E-1	9.609049E-1	9.740928E-1	9.602784E-1	9.404533E-1	9.371180E-1	9.349517E-1	9.494916E-1	9.262866E-1	9.149306E-1	8.754716E-1	8.963598E-1	9.299566E-1	9.093218E-1	9.464250E-1	8.883707E-1	9.158953E-1	9.366811E-1	9.070825E-1	9.482194E-1	9.050134E-1	9.677551E-1	9.179308E-1	9.129478E-1	8.710039E-1	9.278014E-1	9.087813E-1	9.171919E-1	9.147754E-1	9.278105E-1	8.903039E-1	9.376284E-1	9.210989E-1	9.484467E-1	9.198598E-1	9.442145E-1	9.087692E-1	9.108607E-1	9.675289E-1	9.565313E-1	9.380499E-1	8.857522E-1	9.855123E-1	9.803073E-1	9.961149E-1	9.471414E-1	9.163455E-1	9.168356E-1	9.462567E-1	9.308914E-1	9.612817E-1	9.043087E-1	9.216791E-1	9.675114E-1	9.550454E-1	8.916464E-1	9.207127E-1	9.538467E-1	9.429158E-1	9.100200E-1	9.740953E-1	9.367379E-1	8.926579E-1	9.042611E-1	9.245897E-1	9.358263E-1	9.105582E-1	9.233822E-1	9.435932E-1	9.075855E-1	9.251191E-1	9.198150E-1	9.544651E-1	9.415320E-1	9.215334E-1	9.517700E-1	9.391948E-1	9.477693E-1	9.454054E-1	9.304037E-1	9.978437E-1	9.229394E-1	9.907233E-1	8.940704E-1
5.430070E+2	1.055086E+0	9.882971E-1	9.744907E-1	1.040523E+0	1.028352E+0	1.053349E+0	1.015205E+0	1.051986E+0	9.875190E-1	1.043903E+0	9.907587E-1	1.045096E+0	1.040611E+0	1.057400E+0	1.050279E+0	1.056929E+0	1.058623E+0	1.082396E+0	1.043796E+0	1.045589E+0	1.051636E+0	1.076813E+0	1.027485E+0	1.032345E+0	1.032649E+0	1.033117E+0	1.023905E+0	1.011481E+0	1.068540E+0	1.001840E+0	1.032880E+0	1.015650E+0	1.057937E+0	1.049003E+0	9.952345E-1	1.047094E+0	1.071172E+0	1.016584E+0	1.018538E+0	1.001517E+0	1.028518E+0	1.049456E+0	1.052523E+0	1.046388E+0	1.074150E+0	1.065564E+0	9.874191E-1	9.735080E-1	1.064375E+0	1.075520E+0	1.011994E+0	1.044228E+0	1.080534E+0	9.937434E-1	1.073931E+0	1.045122E+0	1.045099E+0	1.023837E+0	1.042086E+0	1.044455E+0	1.058284E+0	1.055686E+0	1.012380E+0	1.035579E+0	9.862617E-1	1.068149E+0	1.026091E+0	1.034954E+0	1.014921E+0	1.039678E+0	1.059626E+0	1.058460E+0	1.055007E+0	1.001396E+0	1.004703E+0	1.059833E+0	1.035113E+0	1.089259E+0	1.030052E+0	1.079149E+0	1.019999E+0	1.040122E+0	1.010754E+0	1.059124E+0	1.002577E+0	1.055531E+0	1.041621E+0	1.042436E+0	1.041711E+0	1.063336E+0	1.056671E+0	1.106662E+0	9.919314E-1	1.048197E+0	1.035312E+0	1.021321E+0	1.004756E+0	1.050841E+0	1.021658E+0	1.027706E+0	1.032976E+0	9.994196E-1	1.050947E+0	9.922253E-1	1.017799E+0	9.524837E-1	1.006482E+0	1.034667E+0	1.027471E+0	1.023420E+0	1.020725E+0	9.432292E-1	1.019637E+0	1.047057E+0	1.025128E+0	1.038927E+0	1.060254E+0	1.059360E+0	9.907985E-1	1.024761E+0	1.029011E+0	1.089529E+0	1.068375E+0	9.783960E-1	9.934664E-1	1.022859E+0	1.025290E+0	1.023911E+0	1.022560E+0	1.033177E+0	1.094020E+0	1.091998E+0	1.026583E+0	1.026620E+0	1.030525E+0	1.023296E+0	9.801537E-1	1.042268E+0	1.054894E+0	1.020214E+0	1.055712E+0	1.067159E+0	1.035530E+0	1.015113E+0	9.931043E-1	1.039873E+0	1.038439E+0	1.017215E+0	1.027778E+0	1.021025E+0	1.019035E+0	1.035494E+0	9.984428E-1	1.028043E+0	1.003207E+0	1.036871E+0	1.016015E+0	1.033688E+0	9.936789E-1	1.046031E+0	1.035599E+0	1.064598E+0	9.665443E-1	1.067719E+0	1.038886E+0	1.072969E+0	1.005677E+0	1.030095E+0	1.020617E+0	1.086407E+0	1.057032E+0	9.537618E-1
5.432590E+2	1.210310E+0	1.203708E+0	1.132699E+0	1.243262E+0	1.162747E+0	1.189386E+0	1.165207E+0	1.215002E+0	1.236322E+0	1.199943E+0	1.175862E+0	1.199476E+0	1.179250E+0	1.213299E+0	1.178799E+0	1.178504E+0	1.156648E+0	1.150084E+0	1.185725E+0	1.183446E+0	1.203287E+0	1.203871E+0	1.165271E+0	1.186101E+0	1.205695E+0	1.191943E+0	1.202519E+0	1.174188E+0	1.181804E+0	1.184632E+0	1.186309E+0	1.187049E+0	1.181571E+0	1.266926E+0	1.153806E+0	1.197037E+0	1.192372E+0	1.219634E+0	1.137203E+0	1.168136E+0	1.170626E+0	1.177250E+0	1.172505E+0	1.201379E+0	1.188598E+0	1.185600E+0	1.183664E+0	1.180660E+0	1.134446E+0	1.209973E+0	1.179919E+0	1.183746E+0	1.187653E+0	1.173119E+0	1.170555E+0	1.183054E+0	1.234502E+0	1.159541E+0	1.130865E+0	1.229351E+0	1.129860E+0	1.179156E+0	1.184370E+0	1.173678E+0	1.197236E+0	1.213478E+0	1.127389E+0	1.137425E+0	1.202648E+0	1.179335E+0	1.226109E+0	1.170647E+0	1.239217E+0	1.205816E+0	1.216222E+0	1.158917E+0	1.169980E+0	1.228240E+0	1.142202E+0	1.204329E+0	1.172137E+0	1.132004E+0	1.174460E+0	1.154075E+0	1.174725E+0	1.149512E+0	1.152656E+0	1.215322E+0	1.178288E+0	1.197532E+0	1.176059E+0	1.219520E+0	1.166724E+0	1.154489E+0	1.208547E+0	1.207546E+0	1.230926E+0	1.163403E+0	1.165097E+0	1.216178E+0	1.182983E+0	1.210893E+0	1.139406E+0	1.175533E+0	1.211005E+0	1.214477E+0	1.194591E+0	1.152777E+0	1.180800E+0	1.188549E+0	1.173329E+0	1.158340E+0	1.163826E+0	1.176895E+0	1.134324E+0	1.157125E+0	1.129243E+0	1.137098E+0	1.133377E+0	1.186651E+0	1.156491E+0	1.169730E+0	1.129763E+0	1.117498E+0	1.129699E+0	1.190031E+0	1.193560E+0	1.207633E+0	1.117974E+0	1.131321E+0	1.209152E+0	1.199977E+0	1.200706E+0	1.152734E+0	1.220362E+0	1.144763E+0	1.156086E+0	1.190279E+0	1.175648E+0	1.194802E+0	1.157037E+0	1.196940E+0	1.200794E+0	1.126385E+0	1.195211E+0	1.166056E+0	1.098971E+0	1.137998E+0	1.171594E+0	1.215296E+0	1.186622E+0	1.140246E+0	1.157895E+0	1.160599E+0	1.181490E+0	1.212122E+0	1.129395E+0	1.221375E+0	1.192000E+0	1.197714E+0	1.173453E+0	1.193363E+0	1.144400E+0	1.143549E+0	1.195145E+0	1.233126E+0	1.138643E+0	1.141570E+0	1.185573E+0	1.232962E+0	1.267040E+0	1.165850E+0
5.435220E+2	1.489813E+0	1.341739E+0	1.326871E+0	1.413382E+0	1.320674E+0	1.405621E+0	1.323543E+0	1.404660E+0	1.364889E+0	1.388381E+0	1.368602E+0	1.378120E+0	1.405861E+0	1.378846E+0	1.372911E+0	1.332082E+0	1.377453E+0	1.411465E+0	1.351692E+0	1.360819E+0	1.348909E+0	1.366579E+0	1.375489E+0	1.335893E+0	1.364340E+0	1.345964E+0	1.359179E+0	1.364513E+0	1.333782E+0	1.330844E+0	1.359218E+0	1.372981E+0	1.359883E+0	1.365811E+0	1.402089E+0	1.363272E+0	1.386208E+0	1.370776E+0	1.300863E+0	1.382645E+0	1.352313E+0	1.387720E+0	1.321858E+0	1.366742E+0	1.355737E+0	1.357388E+0	1.355520E+0	1.340138E+0	1.345459E+0	1.341714E+0	1.343660E+0	1.298890E+0	1.358086E+0	1.356169E+0	1.332096E+0	1.375068E+0	1.366193E+0	1.339751E+0	1.349356E+0	1.370705E+0	1.367354E+0	1.345394E+0	1.370938E+0	1.332364E+0	1.332145E+0	1.414534E+0	1.402405E+0	1.360132E+0	1.335950E+0	1.397739E+0	1.344945E+0	1.363665E+0	1.364935E+0	1.358457E+0	1.387700E+0	1.353190E+0	1.355539E+0	1.384721E+0	1.346711E+0	1.389089E+0	1.326000E+0	1.379235E+0	1.360393E+0	1.323712E+0	1.326293E+0	1.333398E+0	1.313441E+0	1.362208E+0	1.339315E+0	1.350156E+0	1.384316E+0	1.374496E+0	1.343384E+0	1.352745E+0	1.383729E+0	1.314618E+0	1.350732E+0	1.345766E+0	1.390507E+0	1.326732E+0	1.359471E+0	1.374933E+0	1.315017E+0	1.335390E+0	1.421916E+0	1.402625E+0	1.312814E+0	1.328612E+0	1.349357E+0	1.406063E+0	1.382787E+0	1.338505E+0	1.354401E+0	1.325625E+0	1.315195E+0	1.331413E+0	1.328397E+0	1.358890E+0	1.336573E+0	1.329603E+0	1.351214E+0	1.306384E+0	1.282787E+0	1.280957E+0	1.319746E+0	1.370561E+0	1.440777E+0	1.313933E+0	1.356462E+0	1.375412E+0	1.309231E+0	1.372712E+0	1.327557E+0	1.373735E+0	1.341001E+0	1.308660E+0	1.337715E+0	1.299316E+0	1.337510E+0	1.332461E+0	1.330791E+0	1.401229E+0	1.319953E+0	1.305178E+0	1.317792E+0	1.333968E+0	1.331552E+0	1.297200E+0	1.354745E+0	1.342046E+0	1.294221E+0	1.348466E+0	1.360607E+0	1.363388E+0	1.368349E+0	1.359993E+0	1.281677E+0	1.304048E+0	1.315354E+0	1.341322E+0	1.307474E+0	1.365505E+0	1.331665E+0	1.353625E+0	1.306474E+0	1.383149E+0	1.345034E+0	1.358527E+0	1.320293E+0	1.353137E+0	1.330242E+0	1.475628E+0
5.437640E+2	1.492692E+0	1.411114E+0	1.425181E+0	1.477537E+0	1.454665E+0	1.472617E+0	1.466279E+0	1.485361E+0	1.485143E+0	1.477573E+0	1.481505E+0	1.417179E+0	1.548688E+0	1.434003E+0	1.497743E+0	1.454434E+0	1.450965E+0	1.519866E+0	1.483952E+0	1.478941E+0	1.467451E+0	1.508303E+0	1.477624E+0	1.473218E+0	1.499343E+0	1.463268E+0	1.529794E+0	1.426630E+0	1.467767E+0	1.458212E+0	1.522104E+0	1.483368E+0	1.465084E+0	1.526182E+0	1.434954E+0	1.472654E+0	1.457538E+0	1.458773E+0	1.425353E+0	1.450937E+0	1.467141E+0	1.420316E+0	1.443214E+0	1.447276E+0	1.452636E+0	1.502902E+0	1.410784E+0	1.478059E+0	1.491176E+0	1.448032E+0	1.468586E+0	1.497993E+0	1.506556E+0	1.481921E+0	1.426651E+0	1.453476E+0	1.499855E+0	1.446241E+0	1.490136E+0	1.476553E+0	1.498738E+0	1.457896E+0	1.415946E+0	1.459672E+0	1.524221E+0	1.490030E+0	1.417963E+0	1.491560E+0	1.413426E+0	1.497490E+0	1.482490E+0	1.442479E+0	1.558206E+0	1.403080E+0	1.417759E+0	1.441853E+0	1.459360E+0	1.444063E+0	1.434688E+0	1.476935E+0	1.423461E+0	1.446197E+0	1.514663E+0	1.459335E+0	1.420503E+0	1.450100E+0	1.461814E+0	1.391523E+0	1.389919E+0	1.466339E+0	1.493403E+0	1.455745E+0	1.419633E+0	1.480804E+0	1.437171E+0	1.449229E+0	1.444394E+0	1.447971E+0	1.443013E+0	1.479591E+0	1.466902E+0	1.498261E+0	1.452704E+0	1.410980E+0	1.491675E+0	1.483493E+0	1.470459E+0	1.463782E+0	1.451712E+0	1.464443E+0	1.442132E+0	1.448675E+0	1.392927E+0	1.457924E+0	1.431554E+0	1.449909E+0	1.452793E+0	1.418593E+0	1.421596E+0	1.455069E+0	1.467355E+0	1.462830E+0	1.432592E+0	1.377899E+0	1.397678E+0	1.435376E+0	1.485506E+0	1.425884E+0	1.420106E+0	1.493869E+0	1.532107E+0	1.468034E+0	1.414346E+0	1.432053E+0	1.461905E+0	1.419181E+0	1.458503E+0	1.467124E+0	1.450400E+0	1.434065E+0	1.430164E+0	1.451119E+0	1.435355E+0	1.448675E+0	1.472881E+0	1.436732E+0	1.376627E+0	1.416765E+0	1.483280E+0	1.418069E+0	1.434047E+0	1.419462E+0	1.434047E+0	1.447701E+0	1.438549E+0	1.428556E+0	1.422352E+0	1.458082E+0	1.390633E+0	1.456570E+0	1.437606E+0	1.504343E+0	1.417065E+0	1.417786E+0	1.445125E+0	1.460950E+0	1.478874E+0	1.426001E+0	1.437029E+0	1.459454E+0	1.524084E+0	1.388393E+0
5.440120E+2	1.614601E+0	1.515310E+0	1.485249E+0	1.555611E+0	1.560832E+0	1.511779E+0	1.513531E+0	1.561547E+0	1.486701E+0	1.523510E+0	1.581548E+0	1.563768E+0	1.573216E+0	1.570536E+0	1.547244E+0	1.544532E+0	1.561709E+0	1.568424E+0	1.563169E+0	1.578949E+0	1.551444E+0	1.586571E+0	1.502183E+0	1.529460E+0	1.529512E+0	1.545213E+0	1.527713E+0	1.577387E+0	1.536257E+0	1.582706E+0	1.564820E+0	1.540386E+0	1.526542E+0	1.542395E+0	1.535877E+0	1.588093E+0	1.562330E+0	1.530066E+0	1.498959E+0	1.527172E+0	1.503737E+0	1.505892E+0	1.545331E+0	1.575584E+0	1.530616E+0	1.472605E+0	1.543430E+0	1.530376E+0	1.522756E+0	1.486115E+0	1.520524E+0	1.514551E+0	1.616716E+0	1.539788E+0	1.494284E+0	1.503361E+0	1.503693E+0	1.522914E+0	1.500982E+0	1.536351E+0	1.555359E+0	1.501378E+0	1.530913E+0	1.487924E+0	1.522207E+0	1.523741E+0	1.547426E+0	1.569149E+0	1.548033E+0	1.543205E+0	1.557963E+0	1.538534E+0	1.587650E+0	1.523506E+0	1.562349E+0	1.548093E+0	1.500273E+0	1.515638E+0	1.497650E+0	1.600731E+0	1.559041E+0	1.538099E+0	1.520968E+0	1.486326E+0	1.515897E+0	1.519931E+0	1.521193E+0	1.472528E+0	1.580651E+0	1.536169E+0	1.571528E+0	1.516642E+0	1.506542E+0	1.488740E+0	1.576704E+0	1.505541E+0	1.542921E+0	1.480602E+0	1.548891E+0	1.497358E+0	1.567727E+0	1.439768E+0	1.472932E+0	1.510326E+0	1.519126E+0	1.485819E+0	1.543521E+0	1.505477E+0	1.476485E+0	1.520757E+0	1.530477E+0	1.475017E+0	1.531600E+0	1.496450E+0	1.487825E+0	1.470937E+0	1.535553E+0	1.454987E+0	1.460695E+0	1.531430E+0	1.492233E+0	1.493863E+0	1.522219E+0	1.501754E+0	1.509665E+0	1.466184E+0	1.542166E+0	1.501502E+0	1.517605E+0	1.506403E+0	1.504134E+0	1.519517E+0	1.461123E+0	1.543392E+0	1.522409E+0	1.507911E+0	1.552967E+0	1.498751E+0	1.496118E+0	1.487425E+0	1.440221E+0	1.527966E+0	1.526467E+0	1.526509E+0	1.484836E+0	1.506467E+0	1.485207E+0	1.470712E+0	1.522390E+0	1.523376E+0	1.478948E+0	1.473807E+0	1.492997E+0	1.508942E+0	1.496635E+0	1.473980E+0	1.451616E+0	1.511648E+0	1.470063E+0	1.521793E+0	1.528570E+0	1.505668E+0	1.467833E+0	1.526461E+0	1.509365E+0	1.505509E+0	1.507569E+0	1.491785E+0	1.493344E+0	1.484500E+0	1.460787E+0	1.450501E+0
5.442590E+2	1.615621E+0	1.590849E+0	1.568521E+0	1.544247E+0	1.539383E+0	1.534097E+0	1.512873E+0	1.578774E+0	1.512046E+0	1.530309E+0	1.529776E+0	1.525602E+0	1.522367E+0	1.511483E+0	1.502138E+0	1.525197E+0	1.513707E+0	1.525350E+0	1.524071E+0	1.513119E+0	1.463931E+0	1.515537E+0	1.541613E+0	1.564101E+0	1.489049E+0	1.583043E+0	1.524583E+0	1.469829E+0	1.507004E+0	1.576319E+0	1.546032E+0	1.548338E+0	1.519271E+0	1.592981E+0	1.482920E+0	1.545348E+0	1.515976E+0	1.537927E+0	1.479851E+0	1.568810E+0	1.526134E+0	1.554590E+0	1.530878E+0	1.492554E+0	1.520746E+0	1.526113E+0	1.534828E+0	1.548023E+0	1.500133E+0	1.535611E+0	1.534709E+0	1.533520E+0	1.601187E+0	1.501341E+0	1.516692E+0	1.499154E+0	1.597380E+0	1.482415E+0	1.568573E+0	1.574704E+0	1.558580E+0	1.514170E+0	1.531495E+0	1.546813E+0	1.517986E+0	1.563203E+0	1.549218E+0	1.487025E+0	1.526571E+0	1.483131E+0	1.558704E+0	1.547852E+0	1.614457E+0	1.462524E+0	1.576631E+0	1.506855E+0	1.503450E+0	1.439760E+0	1.558139E+0	1.521746E+0	1.518358E+0	1.511790E+0	1.559504E+0	1.493340E+0	1.510957E+0	1.526916E+0	1.539429E+0	1.542002E+0	1.523844E+0	1.532924E+0	1.488410E+0	1.537922E+0	1.480841E+0	1.532660E+0	1.547566E+0	1.514093E+0	1.544205E+0	1.472485E+0	1.549766E+0	1.560566E+0	1.533903E+0	1.513980E+0	1.552989E+0	1.471217E+0	1.519886E+0	1.512448E+0	1.486387E+0	1.525564E+0	1.515475E+0	1.519191E+0	1.490527E+0	1.537685E+0	1.452536E+0	1.476481E+0	1.470821E+0	1.481664E+0	1.462089E+0	1.462435E+0	1.501511E+0	1.524624E+0	1.482566E+0	1.510240E+0	1.486495E+0	1.518144E+0	1.500285E+0	1.459300E+0	1.597022E+0	1.529031E+0	1.559274E+0	1.430801E+0	1.552238E+0	1.511336E+0	1.517618E+0	1.518824E+0	1.501264E+0	1.540526E+0	1.521895E+0	1.507951E+0	1.483356E+0	1.509927E+0	1.524987E+0	1.522639E+0	1.475916E+0	1.464727E+0	1.456245E+0	1.500294E+0	1.507226E+0	1.472069E+0	1.499008E+0	1.461282E+0	1.488193E+0	1.530553E+0	1.544965E+0	1.505691E+0	1.530227E+0	1.559571E+0	1.520645E+0	1.466640E+0	1.493083E+0	1.473040E+0	1.508714E+0	1.433878E+0	1.531716E+0	1.469719E+0	1.482232E+0	1.536035E+0	1.478901E+0	1.519049E+0	1.491278E+0	1.537844E+0	1.503191E+0	1.469853E+0
5.445450E+2	1.490033E+0	1.521563E+0	1.489144E+0	1.509969E+0	1.518163E+0	1.447322E+0	1.493968E+0	1.579086E+0	1.442420E+0	1.456953E+0	1.454408E+0	1.513664E+0	1.492980E+0	1.518267E+0	1.492035E+0	1.499797E+0	1.512361E+0	1.522343E+0	1.536843E+0	1.519942E+0	1.527880E+0	1.506320E+0	1.443866E+0	1.513960E+0	1.505689E+0	1.513455E+0	1.492673E+0	1.508841E+0	1.459786E+0	1.488252E+0	1.547632E+0	1.496421E+0	1.468249E+0	1.487872E+0	1.433205E+0	1.481983E+0	1.510001E+0	1.515051E+0	1.430659E+0	1.481974E+0	1.491631E+0	1.490127E+0	1.484226E+0	1.505576E+0	1.483544E+0	1.542056E+0	1.470819E+0	1.457562E+0	1.462540E+0	1.489548E+0	1.468526E+0	1.485105E+0	1.491922E+0	1.450464E+0	1.458345E+0	1.507398E+0	1.495333E+0	1.504755E+0	1.475324E+0	1.542752E+0	1.500947E+0	1.501521E+0	1.558859E+0	1.525386E+0	1.459139E+0	1.489446E+0	1.462441E+0	1.448131E+0	1.419368E+0	1.454114E+0	1.484299E+0	1.440027E+0	1.550104E+0	1.405112E+0	1.452798E+0	1.509235E+0	1.487922E+0	1.498434E+0	1.453747E+0	1.502123E+0	1.472864E+0	1.421495E+0	1.429854E+0	1.476265E+0	1.452545E+0	1.478029E+0	1.454538E+0	1.498324E+0	1.424763E+0	1.484625E+0	1.413239E+0	1.502690E+0	1.446691E+0	1.452236E+0	1.470607E+0	1.458260E+0	1.454455E+0	1.410810E+0	1.462316E+0	1.477900E+0	1.464402E+0	1.464962E+0	1.484318E+0	1.444408E+0	1.456647E+0	1.485751E+0	1.476883E+0	1.444489E+0	1.465716E+0	1.467395E+0	1.486577E+0	1.469292E+0	1.381723E+0	1.484036E+0	1.466865E+0	1.416259E+0	1.406728E+0	1.476467E+0	1.469556E+0	1.493543E+0	1.444757E+0	1.474115E+0	1.491002E+0	1.413698E+0	1.466059E+0	1.489773E+0	1.454369E+0	1.509852E+0	1.503236E+0	1.448917E+0	1.478860E+0	1.503699E+0	1.457497E+0	1.427622E+0	1.456937E+0	1.460179E+0	1.459309E+0	1.463335E+0	1.417443E+0	1.518132E+0	1.467258E+0	1.435930E+0	1.504180E+0	1.478393E+0	1.454378E+0	1.483456E+0	1.397126E+0	1.452527E+0	1.500557E+0	1.464410E+0	1.412798E+0	1.440113E+0	1.384438E+0	1.416932E+0	1.490825E+0	1.506184E+0	1.420697E+0	1.466501E+0	1.447806E+0	1.453149E+0	1.488062E+0	1.417496E+0	1.404547E+0	1.416206E+0	1.447875E+0	1.420872E+0	1.456402E+0	1.400949E+0	1.479471E+0	1.584772E+0	1.402786E+0	1.491086E+0
5.447660E+2	1.513582E+0	1.355391E+0	1.419466E+0	1.470948E+0	1.389709E+0	1.436858E+0	1.431216E+0	1.456263E+0	1.433966E+0	1.399353E+0	1.381332E+0	1.432372E+0	1.451035E+0	1.424325E+0	1.500485E+0	1.424702E+0	1.451205E+0	1.461628E+0	1.408089E+0	1.488852E+0	1.459241E+0	1.450932E+0	1.452155E+0	1.469015E+0	1.371576E+0	1.440687E+0	1.453064E+0	1.418781E+0	1.391225E+0	1.456729E+0	1.438756E+0	1.425950E+0	1.441572E+0	1.505555E+0	1.396490E+0	1.419744E+0	1.438674E+0	1.435615E+0	1.399691E+0	1.406053E+0	1.517517E+0	1.391399E+0	1.441984E+0	1.412322E+0	1.440493E+0	1.440195E+0	1.455222E+0	1.384443E+0	1.404689E+0	1.401176E+0	1.395673E+0	1.440137E+0	1.476613E+0	1.369566E+0	1.449112E+0	1.429732E+0	1.382172E+0	1.441433E+0	1.455136E+0	1.460159E+0	1.403957E+0	1.439990E+0	1.397828E+0	1.457242E+0	1.427575E+0	1.408806E+0	1.480188E+0	1.443290E+0	1.407321E+0	1.465224E+0	1.451875E+0	1.396348E+0	1.461855E+0	1.414672E+0	1.446893E+0	1.412806E+0	1.444756E+0	1.398301E+0	1.397818E+0	1.490279E+0	1.382926E+0	1.424332E+0	1.467403E+0	1.410364E+0	1.389939E+0	1.490392E+0	1.380578E+0	1.417422E+0	1.457202E+0	1.419103E+0	1.418166E+0	1.383610E+0	1.402799E+0	1.394787E+0	1.433464E+0	1.435300E+0	1.408443E+0	1.380321E+0	1.464072E+0	1.426542E+0	1.429265E+0	1.465599E+0	1.384135E+0	1.349952E+0	1.406886E+0	1.419412E+0	1.412836E+0	1.413545E+0	1.398675E+0	1.422337E+0	1.417059E+0	1.392579E+0	1.420211E+0	1.418116E+0	1.395152E+0	1.443288E+0	1.453939E+0	1.412243E+0	1.369549E+0	1.392326E+0	1.386706E+0	1.438104E+0	1.408900E+0	1.322837E+0	1.329886E+0	1.371923E+0	1.432694E+0	1.458511E+0	1.405140E+0	1.424830E+0	1.401310E+0	1.401088E+0	1.412718E+0	1.422150E+0	1.379260E+0	1.446789E+0	1.425838E+0	1.378197E+0	1.438430E+0	1.367078E+0	1.414982E+0	1.395491E+0	1.436208E+0	1.399486E+0	1.431879E+0	1.428182E+0	1.439679E+0	1.442781E+0	1.422960E+0	1.450866E+0	1.440282E+0	1.386654E+0	1.435291E+0	1.368223E+0	1.384606E+0	1.407292E+0	1.351834E+0	1.427125E+0	1.455007E+0	1.434789E+0	1.390669E+0	1.411705E+0	1.416990E+0	1.401418E+0	1.418133E+0	1.388240E+0	1.381697E+0	1.413147E+0	1.354481E+0	1.417406E+0	1.415470E+0	1.408216E+0
5.450200E+2	1.394214E+0	1.357045E+0	1.297249E+0	1.359143E+0	1.372938E+0	1.366839E+0	1.302578E+0	1.391317E+0	1.336437E+0	1.327865E+0	1.364018E+0	1.332535E+0	1.361358E+0	1.394635E+0	1.357936E+0	1.361974E+0	1.351974E+0	1.362714E+0	1.359256E+0	1.370645E+0	1.375575E+0	1.374551E+0	1.305628E+0	1.361599E+0	1.321089E+0	1.322881E+0	1.358016E+0	1.304707E+0	1.338811E+0	1.345999E+0	1.345228E+0	1.363870E+0	1.328713E+0	1.370500E+0	1.300872E+0	1.392120E+0	1.364986E+0	1.356181E+0	1.316350E+0	1.294907E+0	1.390350E+0	1.326163E+0	1.321700E+0	1.340304E+0	1.357070E+0	1.293412E+0	1.340911E+0	1.338665E+0	1.329343E+0	1.360321E+0	1.344521E+0	1.342189E+0	1.358871E+0	1.319031E+0	1.376386E+0	1.328685E+0	1.375888E+0	1.326518E+0	1.334564E+0	1.390018E+0	1.327439E+0	1.328323E+0	1.387462E+0	1.341687E+0	1.328441E+0	1.313436E+0	1.349105E+0	1.347889E+0	1.301300E+0	1.364819E+0	1.306449E+0	1.353713E+0	1.406270E+0	1.284471E+0	1.330516E+0	1.349759E+0	1.341662E+0	1.374082E+0	1.345417E+0	1.358597E+0	1.336551E+0	1.340538E+0	1.358032E+0	1.320345E+0	1.317764E+0	1.334829E+0	1.234779E+0	1.289615E+0	1.324745E+0	1.382188E+0	1.332354E+0	1.328222E+0	1.295053E+0	1.315719E+0	1.320955E+0	1.337391E+0	1.362367E+0	1.297600E+0	1.327962E+0	1.332874E+0	1.331079E+0	1.272380E+0	1.315179E+0	1.332667E+0	1.374266E+0	1.322590E+0	1.271246E+0	1.329811E+0	1.341722E+0	1.298740E+0	1.265937E+0	1.312018E+0	1.323628E+0	1.324237E+0	1.367332E+0	1.298535E+0	1.319642E+0	1.322323E+0	1.351809E+0	1.339289E+0	1.328868E+0	1.326013E+0	1.327606E+0	1.284260E+0	1.291040E+0	1.341669E+0	1.352319E+0	1.340839E+0	1.326494E+0	1.348560E+0	1.330530E+0	1.332815E+0	1.328293E+0	1.367106E+0	1.298002E+0	1.308699E+0	1.329542E+0	1.303046E+0	1.333910E+0	1.335220E+0	1.316467E+0	1.393269E+0	1.344474E+0	1.328499E+0	1.327540E+0	1.322832E+0	1.338944E+0	1.321952E+0	1.312743E+0	1.282351E+0	1.300245E+0	1.314533E+0	1.321512E+0	1.348924E+0	1.358019E+0	1.328651E+0	1.308768E+0	1.311829E+0	1.310192E+0	1.323066E+0	1.339376E+0	1.348251E+0	1.337207E+0	1.364602E+0	1.303818E+0	1.325305E+0	1.307805E+0	1.336370E+0	1.356026E+0	1.381821E+0	1.399140E+0	1.303694E+0
5.452740E+2	1.318107E+0	1.289822E+0	1.254987E+0	1.259671E+0	1.278563E+0	1.276059E+0	1.254861E+0	1.266823E+0	1.257490E+0	1.237954E+0	1.225675E+0	1.271396E+0	1.274806E+0	1.261580E+0	1.255960E+0	1.263189E+0	1.324565E+0	1.248405E+0	1.286390E+0	1.277503E+0	1.236703E+0	1.278390E+0	1.279772E+0	1.282300E+0	1.315384E+0	1.300490E+0	1.244075E+0	1.274919E+0	1.258468E+0	1.240512E+0	1.304947E+0	1.333667E+0	1.280975E+0	1.277535E+0	1.211874E+0	1.237880E+0	1.271068E+0	1.238248E+0	1.218047E+0	1.311754E+0	1.296802E+0	1.209859E+0	1.284491E+0	1.292935E+0	1.279081E+0	1.269157E+0	1.221829E+0	1.296583E+0	1.244806E+0	1.256573E+0	1.264482E+0	1.281426E+0	1.265622E+0	1.216208E+0	1.309039E+0	1.256339E+0	1.299822E+0	1.256158E+0	1.241841E+0	1.309550E+0	1.269591E+0	1.260728E+0	1.301637E+0	1.305019E+0	1.304517E+0	1.307614E+0	1.232269E+0	1.256803E+0	1.293786E+0	1.274163E+0	1.255606E+0	1.259289E+0	1.320352E+0	1.245156E+0	1.282570E+0	1.317552E+0	1.269700E+0	1.249010E+0	1.251623E+0	1.294075E+0	1.309314E+0	1.284798E+0	1.285097E+0	1.274136E+0	1.292012E+0	1.246224E+0	1.215145E+0	1.262489E+0	1.274942E+0	1.254011E+0	1.280051E+0	1.247439E+0	1.200445E+0	1.272110E+0	1.307699E+0	1.264915E+0	1.275799E+0	1.279068E+0	1.264613E+0	1.294115E+0	1.339972E+0	1.238958E+0	1.285199E+0	1.230194E+0	1.305488E+0	1.273724E+0	1.215323E+0	1.246054E+0	1.273768E+0	1.241206E+0	1.241315E+0	1.275843E+0	1.223592E+0	1.251532E+0	1.252518E+0	1.234110E+0	1.272767E+0	1.247741E+0	1.303013E+0	1.270248E+0	1.210530E+0	1.259198E+0	1.260193E+0	1.240944E+0	1.281982E+0	1.220354E+0	1.229720E+0	1.235094E+0	1.246371E+0	1.255364E+0	1.280505E+0	1.295226E+0	1.255636E+0	1.266591E+0	1.263114E+0	1.274805E+0	1.263999E+0	1.252099E+0	1.282077E+0	1.249126E+0	1.242798E+0	1.268722E+0	1.249422E+0	1.253885E+0	1.279361E+0	1.321831E+0	1.230608E+0	1.248059E+0	1.220737E+0	1.288593E+0	1.217005E+0	1.253421E+0	1.211105E+0	1.220462E+0	1.246857E+0	1.251811E+0	1.223688E+0	1.273770E+0	1.234040E+0	1.264678E+0	1.277930E+0	1.272431E+0	1.223427E+0	1.233044E+0	1.236878E+0	1.233387E+0	1.244190E+0	1.229288E+0	1.216576E+0	1.219426E+0	1.287608E+0	1.168948E+0
5.455340E+2	1.266591E+0	1.231870E+0	1.252572E+0	1.223570E+0	1.221243E+0	1.220872E+0	1.210250E+0	1.208888E+0	1.230667E+0	1.198868E+0	1.194105E+0	1.179625E+0	1.215756E+0	1.246409E+0	1.254452E+0	1.238131E+0	1.223904E+0	1.210328E+0	1.232288E+0	1.252508E+0	1.227226E+0	1.212078E+0	1.173011E+0	1.190105E+0	1.225508E+0	1.190433E+0	1.219771E+0	1.217757E+0	1.210468E+0	1.206428E+0	1.223711E+0	1.203258E+0	1.199965E+0	1.240748E+0	1.195328E+0	1.207501E+0	1.223351E+0	1.254490E+0	1.184045E+0	1.218153E+0	1.186631E+0	1.208200E+0	1.195271E+0	1.224243E+0	1.212130E+0	1.225060E+0	1.198515E+0	1.207497E+0	1.239005E+0	1.205383E+0	1.169930E+0	1.238551E+0	1.249720E+0	1.191023E+0	1.165180E+0	1.227255E+0	1.261727E+0	1.221734E+0	1.238425E+0	1.226088E+0	1.247544E+0	1.184996E+0	1.231589E+0	1.234671E+0	1.218479E+0	1.224347E+0	1.279505E+0	1.226020E+0	1.184585E+0	1.194184E+0	1.200517E+0	1.208723E+0	1.281982E+0	1.143385E+0	1.254491E+0	1.212079E+0	1.166356E+0	1.141069E+0	1.201077E+0	1.259581E+0	1.216855E+0	1.165213E+0	1.171732E+0	1.192509E+0	1.187537E+0	1.194194E+0	1.195090E+0	1.201553E+0	1.191148E+0	1.246373E+0	1.202921E+0	1.215088E+0	1.221405E+0	1.204028E+0	1.242687E+0	1.175795E+0	1.247633E+0	1.179606E+0	1.203709E+0	1.217715E+0	1.186599E+0	1.205575E+0	1.201289E+0	1.190133E+0	1.212947E+0	1.172716E+0	1.211202E+0	1.201111E+0	1.208131E+0	1.181596E+0	1.172795E+0	1.194431E+0	1.170369E+0	1.173489E+0	1.220753E+0	1.195006E+0	1.222031E+0	1.174796E+0	1.208075E+0	1.237805E+0	1.237168E+0	1.207301E+0	1.218190E+0	1.189023E+0	1.159090E+0	1.190079E+0	1.218115E+0	1.211354E+0	1.235159E+0	1.212024E+0	1.204895E+0	1.277253E+0	1.233673E+0	1.247023E+0	1.215187E+0	1.198402E+0	1.197402E+0	1.249036E+0	1.200745E+0	1.212820E+0	1.155560E+0	1.227421E+0	1.187538E+0	1.270470E+0	1.265882E+0	1.190709E+0	1.219339E+0	1.241231E+0	1.239073E+0	1.227876E+0	1.187149E+0	1.181442E+0	1.187918E+0	1.162759E+0	1.195487E+0	1.199159E+0	1.174706E+0	1.203991E+0	1.221282E+0	1.226613E+0	1.137535E+0	1.220271E+0	1.213899E+0	1.168511E+0	1.186865E+0	1.195905E+0	1.200115E+0	1.229011E+0	1.198595E+0	1.206498E+0	1.250449E+0	1.111746E+0
5.457780E+2	1.248016E+0	1.180555E+0	1.212225E+0	1.167912E+0	1.188793E+0	1.209845E+0	1.151973E+0	1.209890E+0	1.183756E+0	1.199455E+0	1.181262E+0	1.168133E+0	1.192684E+0	1.182040E+0	1.188929E+0	1.187194E+0	1.162037E+0	1.200023E+0	1.184290E+0	1.196606E+0	1.157261E+0	1.211428E+0	1.169819E+0	1.150634E+0	1.219897E+0	1.164210E+0	1.258990E+0	1.181082E+0	1.163045E+0	1.176985E+0	1.165191E+0	1.244888E+0	1.189211E+0	1.170488E+0	1.139132E+0	1.200485E+0	1.170813E+0	1.226168E+0	1.143154E+0	1.180799E+0	1.224214E+0	1.185372E+0	1.166406E+0	1.176441E+0	1.170566E+0	1.166731E+0	1.173686E+0	1.167879E+0	1.170158E+0	1.164332E+0	1.150358E+0	1.195851E+0	1.207150E+0	1.167904E+0	1.164106E+0	1.205675E+0	1.208627E+0	1.208157E+0	1.220287E+0	1.224891E+0	1.170326E+0	1.176383E+0	1.214361E+0	1.138330E+0	1.232343E+0	1.217415E+0	1.219132E+0	1.209412E+0	1.200324E+0	1.149808E+0	1.161576E+0	1.191411E+0	1.212272E+0	1.171945E+0	1.181860E+0	1.172805E+0	1.196419E+0	1.153735E+0	1.119005E+0	1.255985E+0	1.186124E+0	1.151171E+0	1.146738E+0	1.179873E+0	1.185583E+0	1.150333E+0	1.168445E+0	1.161361E+0	1.211474E+0	1.167554E+0	1.178815E+0	1.194839E+0	1.185407E+0	1.128306E+0	1.135762E+0	1.195272E+0	1.189951E+0	1.181461E+0	1.194976E+0	1.188746E+0	1.192144E+0	1.166245E+0	1.124301E+0	1.107072E+0	1.200772E+0	1.215163E+0	1.138503E+0	1.194953E+0	1.160100E+0	1.196964E+0	1.185951E+0	1.118016E+0	1.130211E+0	1.119546E+0	1.125282E+0	1.172522E+0	1.162596E+0	1.156667E+0	1.155058E+0	1.177082E+0	1.182896E+0	1.156996E+0	1.192165E+0	1.196040E+0	1.120879E+0	1.138182E+0	1.227352E+0	1.224867E+0	1.226766E+0	1.194778E+0	1.179854E+0	1.202457E+0	1.176600E+0	1.221400E+0	1.133319E+0	1.152266E+0	1.131910E+0	1.201867E+0	1.205607E+0	1.113412E+0	1.193096E+0	1.135973E+0	1.168204E+0	1.193321E+0	1.140505E+0	1.156963E+0	1.155947E+0	1.136876E+0	1.165266E+0	1.183154E+0	1.148077E+0	1.166914E+0	1.201615E+0	1.179988E+0	1.167427E+0	1.200220E+0	1.138728E+0	1.192269E+0	1.153213E+0	1.159749E+0	1.147440E+0	1.147008E+0	1.174511E+0	1.161000E+0	1.155735E+0	1.166122E+0	1.136663E+0	1.171340E+0	1.189740E+0	1.203672E+0	1.155044E+0	1.140151E+0
5.460110E+2	1.210372E+0	1.107020E+0	1.154488E+0	1.183142E+0	1.158266E+0	1.145911E+0	1.155409E+0	1.148977E+0	1.175105E+0	1.147010E+0	1.149881E+0	1.166977E+0	1.149368E+0	1.156326E+0	1.223034E+0	1.185845E+0	1.103489E+0	1.114942E+0	1.184973E+0	1.134019E+0	1.141578E+0	1.168463E+0	1.152308E+0	1.197373E+0	1.194625E+0	1.165950E+0	1.138500E+0	1.218774E+0	1.144045E+0	1.146427E+0	1.176401E+0	1.177404E+0	1.143497E+0	1.166820E+0	1.133398E+0	1.159739E+0	1.160670E+0	1.182624E+0	1.132868E+0	1.154150E+0	1.187760E+0	1.188783E+0	1.169014E+0	1.214068E+0	1.147559E+0	1.158995E+0	1.136441E+0	1.156798E+0	1.182404E+0	1.096452E+0	1.146234E+0	1.215742E+0	1.125536E+0	1.123757E+0	1.141052E+0	1.169227E+0	1.145632E+0	1.105935E+0	1.151489E+0	1.163503E+0	1.155766E+0	1.118768E+0	1.150863E+0	1.158061E+0	1.150513E+0	1.164118E+0	1.173066E+0	1.127171E+0	1.157935E+0	1.177788E+0	1.137084E+0	1.155339E+0	1.181787E+0	1.116892E+0	1.167832E+0	1.095714E+0	1.167585E+0	1.158889E+0	1.137021E+0	1.178349E+0	1.126616E+0	1.185093E+0	1.118488E+0	1.172190E+0	1.165629E+0	1.191385E+0	1.144931E+0	1.145353E+0	1.158451E+0	1.160846E+0	1.168464E+0	1.160449E+0	1.151174E+0	1.146765E+0	1.205548E+0	1.137776E+0	1.148270E+0	1.120021E+0	1.144866E+0	1.192909E+0	1.201671E+0	1.162248E+0	1.140386E+0	1.078555E+0	1.119096E+0	1.134897E+0	1.139776E+0	1.108069E+0	1.140748E+0	1.149831E+0	1.128442E+0	1.160933E+0	1.125404E+0	1.178945E+0	1.152154E+0	1.139417E+0	1.106770E+0	1.152025E+0	1.141899E+0	1.159717E+0	1.149218E+0	1.117776E+0	1.132577E+0	1.137288E+0	1.098156E+0	1.124716E+0	1.178541E+0	1.202220E+0	1.134749E+0	1.150405E+0	1.114804E+0	1.161920E+0	1.138814E+0	1.140131E+0	1.150396E+0	1.150231E+0	1.109157E+0	1.125262E+0	1.111644E+0	1.147244E+0	1.137756E+0	1.121694E+0	1.097780E+0	1.147515E+0	1.176504E+0	1.142324E+0	1.090966E+0	1.089579E+0	1.149274E+0	1.165469E+0	1.138862E+0	1.187873E+0	1.106116E+0	1.118560E+0	1.183104E+0	1.102295E+0	1.175148E+0	1.138654E+0	1.164356E+0	1.156170E+0	1.162968E+0	1.150769E+0	1.090391E+0	1.131523E+0	1.170015E+0	1.194727E+0	1.147322E+0	1.166013E+0	1.151465E+0	1.181398E+0	1.188067E+0	1.098558E+0
5.467660E+2	1.265421E+0	1.221292E+0	1.211815E+0	1.260535E+0	1.227098E+0	1.233203E+0	1.180875E+0	1.205699E+0	1.183753E+0	1.205508E+0	1.220187E+0	1.201480E+0	1.192989E+0	1.217921E+0	1.195467E+0	1.217290E+0	1.195006E+0	1.195234E+0	1.208115E+0	1.226564E+0	1.167331E+0	1.248307E+0	1.186140E+0	1.225717E+0	1.177650E+0	1.211253E+0	1.207469E+0	1.218306E+0	1.218840E+0	1.171978E+0	1.248206E+0	1.214688E+0	1.193763E+0	1.207511E+0	1.167046E+0	1.164053E+0	1.195632E+0	1.211660E+0	1.212887E+0	1.226804E+0	1.224253E+0	1.168632E+0	1.239911E+0	1.188913E+0	1.228975E+0	1.183462E+0	1.206177E+0	1.218828E+0	1.213807E+0	1.183171E+0	1.150724E+0	1.176118E+0	1.253365E+0	1.238303E+0	1.179670E+0	1.194697E+0	1.208481E+0	1.203504E+0	1.179159E+0	1.203463E+0	1.154389E+0	1.203845E+0	1.177830E+0	1.188480E+0	1.203278E+0	1.151321E+0	1.130096E+0	1.264094E+0	1.210570E+0	1.216179E+0	1.232619E+0	1.214540E+0	1.245151E+0	1.234535E+0	1.212975E+0	1.256546E+0	1.192169E+0	1.190075E+0	1.202600E+0	1.230560E+0	1.174851E+0	1.218116E+0	1.186251E+0	1.196400E+0	1.199483E+0	1.192598E+0	1.183525E+0	1.204579E+0	1.245336E+0	1.244472E+0	1.212010E+0	1.240365E+0	1.187501E+0	1.177114E+0	1.184583E+0	1.252948E+0	1.228068E+0	1.192623E+0	1.160958E+0	1.224691E+0	1.209762E+0	1.164002E+0	1.212804E+0	1.146936E+0	1.187054E+0	1.205895E+0	1.186496E+0	1.185058E+0	1.213051E+0	1.187673E+0	1.186740E+0	1.190669E+0	1.163576E+0	1.191707E+0	1.183621E+0	1.219198E+0	1.193750E+0	1.163687E+0	1.152290E+0	1.162595E+0	1.217593E+0	1.149446E+0	1.144335E+0	1.174685E+0	1.181643E+0	1.152311E+0	1.192966E+0	1.213475E+0	1.191219E+0	1.190868E+0	1.124580E+0	1.236826E+0	1.216846E+0	1.243206E+0	1.202362E+0	1.188493E+0	1.176073E+0	1.236518E+0	1.208660E+0	1.224398E+0	1.158357E+0	1.216246E+0	1.189268E+0	1.199324E+0	1.180928E+0	1.212136E+0	1.209274E+0	1.168683E+0	1.161563E+0	1.203251E+0	1.140237E+0	1.142388E+0	1.191235E+0	1.203526E+0	1.155925E+0	1.218217E+0	1.159145E+0	1.247244E+0	1.159450E+0	1.223445E+0	1.158842E+0	1.185037E+0	1.177597E+0	1.205264E+0	1.212850E+0	1.176561E+0	1.184580E+0	1.195869E+0	1.170119E+0	1.226775E+0	1.293157E+0	1.274493E+0
5.475070E+2	1.415760E+0	1.336467E+0	1.318448E+0	1.368798E+0	1.332432E+0	1.335654E+0	1.299462E+0	1.358201E+0	1.289381E+0	1.333328E+0	1.293894E+0	1.307512E+0	1.341040E+0	1.330518E+0	1.323815E+0	1.303164E+0	1.303846E+0	1.339707E+0	1.336506E+0	1.253872E+0	1.284024E+0	1.279231E+0	1.308347E+0	1.276119E+0	1.310568E+0	1.321835E+0	1.282635E+0	1.286799E+0	1.318472E+0	1.335128E+0	1.287986E+0	1.342939E+0	1.341476E+0	1.362145E+0	1.227450E+0	1.322816E+0	1.334232E+0	1.322039E+0	1.243078E+0	1.299772E+0	1.292965E+0	1.333315E+0	1.304714E+0	1.346882E+0	1.334653E+0	1.324324E+0	1.297483E+0	1.357252E+0	1.328156E+0	1.240138E+0	1.271914E+0	1.362628E+0	1.361977E+0	1.287712E+0	1.295167E+0	1.296080E+0	1.354680E+0	1.315733E+0	1.314029E+0	1.339457E+0	1.324922E+0	1.311072E+0	1.270379E+0	1.343895E+0	1.300358E+0	1.324879E+0	1.299457E+0	1.312866E+0	1.319821E+0	1.284685E+0	1.275695E+0	1.331931E+0	1.394860E+0	1.304273E+0	1.298376E+0	1.341019E+0	1.316184E+0	1.339185E+0	1.316952E+0	1.346521E+0	1.288888E+0	1.304175E+0	1.261088E+0	1.291380E+0	1.280883E+0	1.291928E+0	1.299578E+0	1.288648E+0	1.325497E+0	1.308348E+0	1.309521E+0	1.312498E+0	1.294222E+0	1.294979E+0	1.276668E+0	1.321891E+0	1.286881E+0	1.308117E+0	1.288539E+0	1.330368E+0	1.315539E+0	1.310916E+0	1.322537E+0	1.295029E+0	1.286915E+0	1.298384E+0	1.292766E+0	1.323886E+0	1.288032E+0	1.272801E+0	1.281197E+0	1.304954E+0	1.291952E+0	1.317855E+0	1.311299E+0	1.325147E+0	1.294979E+0	1.326749E+0	1.286051E+0	1.330024E+0	1.266583E+0	1.297244E+0	1.261780E+0	1.285716E+0	1.246679E+0	1.315268E+0	1.307557E+0	1.304419E+0	1.291180E+0	1.319606E+0	1.266486E+0	1.410436E+0	1.335847E+0	1.312856E+0	1.267371E+0	1.311092E+0	1.280229E+0	1.253368E+0	1.274593E+0	1.265792E+0	1.251423E+0	1.279983E+0	1.282064E+0	1.353579E+0	1.312745E+0	1.275333E+0	1.294657E+0	1.231969E+0	1.298685E+0	1.293562E+0	1.241486E+0	1.306435E+0	1.298949E+0	1.259640E+0	1.284792E+0	1.334714E+0	1.273934E+0	1.323882E+0	1.275982E+0	1.302461E+0	1.290762E+0	1.276582E+0	1.281862E+0	1.275065E+0	1.324435E+0	1.281856E+0	1.271721E+0	1.242276E+0	1.332540E+0	1.404190E+0	1.325810E+0	1.322780E+0
5.482600E+2	1.448704E+0	1.340920E+0	1.365486E+0	1.362176E+0	1.374940E+0	1.391124E+0	1.371960E+0	1.461054E+0	1.387294E+0	1.425048E+0	1.356211E+0	1.360821E+0	1.364524E+0	1.424178E+0	1.328904E+0	1.408321E+0	1.415213E+0	1.400185E+0	1.427267E+0	1.332708E+0	1.390466E+0	1.437142E+0	1.355334E+0	1.379828E+0	1.376780E+0	1.370858E+0	1.333700E+0	1.373600E+0	1.399297E+0	1.407759E+0	1.405817E+0	1.377818E+0	1.363343E+0	1.407262E+0	1.333103E+0	1.376643E+0	1.397792E+0	1.374240E+0	1.398506E+0	1.372603E+0	1.412954E+0	1.360524E+0	1.411871E+0	1.419112E+0	1.390332E+0	1.362851E+0	1.345334E+0	1.357515E+0	1.395539E+0	1.383068E+0	1.407562E+0	1.389915E+0	1.420814E+0	1.360233E+0	1.330770E+0	1.343664E+0	1.433538E+0	1.351194E+0	1.294587E+0	1.392329E+0	1.386345E+0	1.389929E+0	1.350680E+0	1.411667E+0	1.380347E+0	1.361100E+0	1.365991E+0	1.371155E+0	1.374510E+0	1.356236E+0	1.402250E+0	1.329153E+0	1.423906E+0	1.389474E+0	1.375441E+0	1.339016E+0	1.358971E+0	1.371696E+0	1.334051E+0	1.403837E+0	1.396157E+0	1.404830E+0	1.340377E+0	1.352369E+0	1.377590E+0	1.356528E+0	1.280767E+0	1.327570E+0	1.345047E+0	1.387302E+0	1.383967E+0	1.361614E+0	1.319647E+0	1.401324E+0	1.376635E+0	1.367123E+0	1.403317E+0	1.379547E+0	1.374774E+0	1.404216E+0	1.447324E+0	1.340376E+0	1.353848E+0	1.331918E+0	1.373994E+0	1.380638E+0	1.404954E+0	1.325807E+0	1.341540E+0	1.370357E+0	1.339612E+0	1.381027E+0	1.381625E+0	1.389243E+0	1.400141E+0	1.394849E+0	1.377097E+0	1.373873E+0	1.367350E+0	1.404831E+0	1.368794E+0	1.305450E+0	1.383292E+0	1.342105E+0	1.400824E+0	1.346359E+0	1.381243E+0	1.379728E+0	1.398232E+0	1.317667E+0	1.350709E+0	1.399806E+0	1.407832E+0	1.292571E+0	1.404809E+0	1.329562E+0	1.369519E+0	1.342293E+0	1.386639E+0	1.370313E+0	1.351074E+0	1.370732E+0	1.368378E+0	1.351151E+0	1.404226E+0	1.364509E+0	1.349419E+0	1.336883E+0	1.367564E+0	1.345538E+0	1.342850E+0	1.343102E+0	1.387401E+0	1.363242E+0	1.315035E+0	1.368671E+0	1.375403E+0	1.316290E+0	1.330875E+0	1.413183E+0	1.403253E+0	1.322450E+0	1.346138E+0	1.339769E+0	1.372326E+0	1.352548E+0	1.357679E+0	1.386199E+0	1.271781E+0	1.404842E+0	1.351697E+0	1.356742E+0
5.490490E+2	1.400089E+0	1.323349E+0	1.318061E+0	1.409601E+0	1.362650E+0	1.351584E+0	1.353166E+0	1.382110E+0	1.336281E+0	1.369670E+0	1.309858E+0	1.355800E+0	1.374455E+0	1.348901E+0	1.371454E+0	1.328539E+0	1.426645E+0	1.357253E+0	1.363656E+0	1.389581E+0	1.400238E+0	1.385633E+0	1.314966E+0	1.332421E+0	1.378967E+0	1.356918E+0	1.365728E+0	1.343996E+0	1.364396E+0	1.330846E+0	1.384247E+0	1.377839E+0	1.388758E+0	1.429107E+0	1.364017E+0	1.396277E+0	1.348123E+0	1.348766E+0	1.299946E+0	1.330733E+0	1.387983E+0	1.309074E+0	1.366826E+0	1.323180E+0	1.345156E+0	1.314513E+0	1.305366E+0	1.319662E+0	1.322222E+0	1.374468E+0	1.340218E+0	1.320129E+0	1.371311E+0	1.328844E+0	1.337922E+0	1.353056E+0	1.366750E+0	1.307827E+0	1.355737E+0	1.362272E+0	1.328303E+0	1.320138E+0	1.331736E+0	1.328053E+0	1.321349E+0	1.386276E+0	1.348464E+0	1.332902E+0	1.343507E+0	1.299804E+0	1.316364E+0	1.383137E+0	1.347835E+0	1.363495E+0	1.362236E+0	1.319751E+0	1.326550E+0	1.331703E+0	1.340611E+0	1.387164E+0	1.378963E+0	1.359347E+0	1.326195E+0	1.300857E+0	1.327139E+0	1.347781E+0	1.310101E+0	1.316164E+0	1.320875E+0	1.363089E+0	1.345227E+0	1.342822E+0	1.355304E+0	1.333694E+0	1.314507E+0	1.345319E+0	1.370606E+0	1.326811E+0	1.336634E+0	1.341489E+0	1.338211E+0	1.281263E+0	1.306693E+0	1.307694E+0	1.360642E+0	1.321191E+0	1.310738E+0	1.357147E+0	1.372546E+0	1.375471E+0	1.301944E+0	1.337554E+0	1.325182E+0	1.340023E+0	1.338437E+0	1.366408E+0	1.292648E+0	1.305820E+0	1.325190E+0	1.372775E+0	1.335036E+0	1.282825E+0	1.340436E+0	1.253896E+0	1.308071E+0	1.324805E+0	1.327146E+0	1.331825E+0	1.374317E+0	1.362632E+0	1.310959E+0	1.377152E+0	1.347055E+0	1.384760E+0	1.314164E+0	1.373257E+0	1.306708E+0	1.316795E+0	1.341946E+0	1.305574E+0	1.354028E+0	1.328503E+0	1.361978E+0	1.338844E+0	1.345716E+0	1.373103E+0	1.340237E+0	1.351131E+0	1.385313E+0	1.340453E+0	1.320383E+0	1.322434E+0	1.300713E+0	1.309926E+0	1.302467E+0	1.352877E+0	1.273023E+0	1.320547E+0	1.326302E+0	1.393136E+0	1.390434E+0	1.342669E+0	1.303743E+0	1.361559E+0	1.268784E+0	1.316923E+0	1.334911E+0	1.326436E+0	1.327122E+0	1.356663E+0	1.323748E+0	1.365289E+0
5.497740E+2	1.330563E+0	1.347090E+0	1.326322E+0	1.358173E+0	1.301277E+0	1.265152E+0	1.254432E+0	1.302212E+0	1.264997E+0	1.286217E+0	1.289324E+0	1.254486E+0	1.300614E+0	1.302539E+0	1.254009E+0	1.283227E+0	1.325823E+0	1.348965E+0	1.305767E+0	1.262788E+0	1.339934E+0	1.298305E+0	1.264741E+0	1.297698E+0	1.259675E+0	1.314734E+0	1.283311E+0	1.255064E+0	1.284857E+0	1.284233E+0	1.315043E+0	1.312147E+0	1.313101E+0	1.370925E+0	1.289730E+0	1.256109E+0	1.351041E+0	1.315655E+0	1.281536E+0	1.312339E+0	1.338616E+0	1.294020E+0	1.270350E+0	1.284839E+0	1.277458E+0	1.277268E+0	1.261746E+0	1.327047E+0	1.263592E+0	1.311512E+0	1.309983E+0	1.273476E+0	1.360729E+0	1.324394E+0	1.299353E+0	1.313357E+0	1.308155E+0	1.244542E+0	1.251016E+0	1.259705E+0	1.307283E+0	1.319236E+0	1.278461E+0	1.259802E+0	1.259449E+0	1.297709E+0	1.291823E+0	1.325361E+0	1.309738E+0	1.308270E+0	1.251224E+0	1.301262E+0	1.342349E+0	1.308145E+0	1.293075E+0	1.259306E+0	1.292812E+0	1.261033E+0	1.285166E+0	1.292185E+0	1.295157E+0	1.257895E+0	1.312563E+0	1.270354E+0	1.312736E+0	1.303269E+0	1.269145E+0	1.277946E+0	1.299182E+0	1.327231E+0	1.308590E+0	1.262261E+0	1.246093E+0	1.330564E+0	1.288643E+0	1.320864E+0	1.362708E+0	1.252398E+0	1.282084E+0	1.295311E+0	1.291028E+0	1.257774E+0	1.280416E+0	1.259158E+0	1.315900E+0	1.284194E+0	1.263815E+0	1.291670E+0	1.266918E+0	1.264989E+0	1.288928E+0	1.273852E+0	1.318716E+0	1.303938E+0	1.278312E+0	1.291716E+0	1.261211E+0	1.258666E+0	1.279101E+0	1.345918E+0	1.284637E+0	1.254881E+0	1.325247E+0	1.265505E+0	1.275008E+0	1.269444E+0	1.318404E+0	1.267324E+0	1.293268E+0	1.307097E+0	1.228385E+0	1.295045E+0	1.266716E+0	1.239234E+0	1.279150E+0	1.320095E+0	1.240692E+0	1.271727E+0	1.275651E+0	1.298462E+0	1.260150E+0	1.320859E+0	1.227910E+0	1.313961E+0	1.333996E+0	1.248263E+0	1.223508E+0	1.285453E+0	1.286776E+0	1.249200E+0	1.261382E+0	1.278700E+0	1.276993E+0	1.303482E+0	1.299966E+0	1.302136E+0	1.245021E+0	1.288427E+0	1.274685E+0	1.257406E+0	1.272443E+0	1.269276E+0	1.252924E+0	1.249364E+0	1.284412E+0	1.315797E+0	1.239486E+0	1.319188E+0	1.297797E+0	1.303492E+0	1.235179E+0	1.179363E+0
5.505170E+2	1.365747E+0	1.305736E+0	1.264606E+0	1.283393E+0	1.271010E+0	1.290483E+0	1.277352E+0	1.284724E+0	1.279762E+0	1.252163E+0	1.278993E+0	1.235212E+0	1.308409E+0	1.293262E+0	1.261016E+0	1.265863E+0	1.291764E+0	1.274286E+0	1.295986E+0	1.286268E+0	1.294605E+0	1.300360E+0	1.317015E+0	1.300515E+0	1.293670E+0	1.270731E+0	1.277429E+0	1.303143E+0	1.284521E+0	1.241576E+0	1.285050E+0	1.279389E+0	1.254247E+0	1.291431E+0	1.280690E+0	1.269279E+0	1.266793E+0	1.311452E+0	1.232800E+0	1.254419E+0	1.250289E+0	1.262576E+0	1.254472E+0	1.304612E+0	1.264455E+0	1.230354E+0	1.274682E+0	1.252569E+0	1.290067E+0	1.274969E+0	1.251926E+0	1.261903E+0	1.266263E+0	1.245993E+0	1.295107E+0	1.292234E+0	1.268538E+0	1.242002E+0	1.290980E+0	1.267998E+0	1.355049E+0	1.304010E+0	1.263352E+0	1.255624E+0	1.261553E+0	1.328117E+0	1.277080E+0	1.272783E+0	1.281019E+0	1.242125E+0	1.239805E+0	1.252834E+0	1.320900E+0	1.254849E+0	1.300238E+0	1.279780E+0	1.270065E+0	1.260348E+0	1.233301E+0	1.306515E+0	1.260283E+0	1.291839E+0	1.248936E+0	1.284743E+0	1.270724E+0	1.250245E+0	1.242508E+0	1.258115E+0	1.310094E+0	1.317850E+0	1.281398E+0	1.280366E+0	1.292057E+0	1.263543E+0	1.217428E+0	1.286476E+0	1.250021E+0	1.233140E+0	1.275300E+0	1.251743E+0	1.276770E+0	1.247882E+0	1.266555E+0	1.210398E+0	1.337352E+0	1.278382E+0	1.282320E+0	1.305432E+0	1.223154E+0	1.225692E+0	1.251172E+0	1.194670E+0	1.275007E+0	1.276390E+0	1.266701E+0	1.241170E+0	1.276180E+0	1.264818E+0	1.273389E+0	1.250463E+0	1.279029E+0	1.249645E+0	1.254594E+0	1.260636E+0	1.263824E+0	1.281370E+0	1.291651E+0	1.202689E+0	1.259726E+0	1.217422E+0	1.282851E+0	1.250049E+0	1.244521E+0	1.259213E+0	1.223807E+0	1.234467E+0	1.238823E+0	1.307162E+0	1.234676E+0	1.199790E+0	1.246340E+0	1.232960E+0	1.244815E+0	1.187442E+0	1.302934E+0	1.224375E+0	1.283235E+0	1.241416E+0	1.283892E+0	1.231137E+0	1.256281E+0	1.306283E+0	1.269110E+0	1.272133E+0	1.202861E+0	1.296844E+0	1.286373E+0	1.246895E+0	1.214311E+0	1.298006E+0	1.261585E+0	1.269465E+0	1.227167E+0	1.294895E+0	1.290682E+0	1.300340E+0	1.263597E+0	1.238462E+0	1.234950E+0	1.299161E+0	1.326142E+0	1.324772E+0
5.512620E+2	1.385506E+0	1.307395E+0	1.298633E+0	1.286752E+0	1.256137E+0	1.297443E+0	1.289923E+0	1.288583E+0	1.265655E+0	1.309606E+0	1.235654E+0	1.282522E+0	1.319651E+0	1.308172E+0	1.298122E+0	1.273178E+0	1.310873E+0	1.260044E+0	1.274824E+0	1.247036E+0	1.295710E+0	1.329972E+0	1.278341E+0	1.299312E+0	1.317431E+0	1.279821E+0	1.300105E+0	1.248878E+0	1.285406E+0	1.236824E+0	1.267627E+0	1.270196E+0	1.275091E+0	1.383393E+0	1.259708E+0	1.271519E+0	1.328601E+0	1.263308E+0	1.239320E+0	1.273000E+0	1.268119E+0	1.319412E+0	1.294304E+0	1.304451E+0	1.310597E+0	1.292477E+0	1.225295E+0	1.246006E+0	1.276716E+0	1.250856E+0	1.284416E+0	1.248814E+0	1.326993E+0	1.288427E+0	1.326486E+0	1.265336E+0	1.314053E+0	1.289004E+0	1.292631E+0	1.270311E+0	1.268396E+0	1.291188E+0	1.272983E+0	1.300216E+0	1.295553E+0	1.346716E+0	1.278111E+0	1.300345E+0	1.283319E+0	1.277689E+0	1.306588E+0	1.272859E+0	1.284138E+0	1.261430E+0	1.329315E+0	1.268875E+0	1.277790E+0	1.307221E+0	1.270750E+0	1.294088E+0	1.251810E+0	1.255142E+0	1.273634E+0	1.296823E+0	1.271764E+0	1.297966E+0	1.267739E+0	1.295764E+0	1.332242E+0	1.313425E+0	1.279267E+0	1.288905E+0	1.259989E+0	1.271736E+0	1.298842E+0	1.259138E+0	1.309913E+0	1.302246E+0	1.260161E+0	1.288097E+0	1.324422E+0	1.287447E+0	1.287691E+0	1.312919E+0	1.257514E+0	1.269852E+0	1.295729E+0	1.308234E+0	1.277389E+0	1.291286E+0	1.274502E+0	1.259788E+0	1.313108E+0	1.267978E+0	1.273150E+0	1.242613E+0	1.277281E+0	1.262351E+0	1.217626E+0	1.265451E+0	1.227674E+0	1.288148E+0	1.262185E+0	1.224920E+0	1.224993E+0	1.249778E+0	1.273299E+0	1.303517E+0	1.256974E+0	1.270821E+0	1.307638E+0	1.281789E+0	1.316619E+0	1.229443E+0	1.277417E+0	1.304224E+0	1.261854E+0	1.292308E+0	1.237752E+0	1.250457E+0	1.287060E+0	1.270402E+0	1.263096E+0	1.294665E+0	1.233200E+0	1.267791E+0	1.269640E+0	1.245718E+0	1.263281E+0	1.330547E+0	1.232749E+0	1.219297E+0	1.189220E+0	1.282221E+0	1.257473E+0	1.255605E+0	1.245197E+0	1.296384E+0	1.278851E+0	1.227406E+0	1.242261E+0	1.254806E+0	1.235812E+0	1.292487E+0	1.247962E+0	1.219559E+0	1.278991E+0	1.254517E+0	1.245377E+0	1.246765E+0	1.299230E+0	1.360266E+0
5.520150E+2	1.349931E+0	1.272298E+0	1.289139E+0	1.329947E+0	1.261451E+0	1.339858E+0	1.255910E+0	1.337011E+0	1.255502E+0	1.305502E+0	1.303134E+0	1.284126E+0	1.327561E+0	1.304851E+0	1.312133E+0	1.284507E+0	1.272135E+0	1.244629E+0	1.332790E+0	1.304646E+0	1.315002E+0	1.330235E+0	1.265331E+0	1.311056E+0	1.252010E+0	1.264224E+0	1.295667E+0	1.287355E+0	1.313741E+0	1.227500E+0	1.289776E+0	1.279266E+0	1.296766E+0	1.294836E+0	1.234008E+0	1.285403E+0	1.329142E+0	1.282513E+0	1.259359E+0	1.236649E+0	1.299773E+0	1.253943E+0	1.282108E+0	1.292840E+0	1.286681E+0	1.283039E+0	1.259458E+0	1.294680E+0	1.257610E+0	1.311568E+0	1.221934E+0	1.250350E+0	1.259805E+0	1.278452E+0	1.261362E+0	1.253281E+0	1.248290E+0	1.289642E+0	1.258824E+0	1.296244E+0	1.273235E+0	1.218141E+0	1.291245E+0	1.265739E+0	1.307714E+0	1.304186E+0	1.305653E+0	1.292412E+0	1.243060E+0	1.289556E+0	1.300136E+0	1.279261E+0	1.285966E+0	1.295900E+0	1.257680E+0	1.280205E+0	1.314173E+0	1.293859E+0	1.270574E+0	1.321077E+0	1.263339E+0	1.306687E+0	1.322406E+0	1.243222E+0	1.337990E+0	1.231349E+0	1.283255E+0	1.250959E+0	1.254550E+0	1.285236E+0	1.280222E+0	1.239515E+0	1.270524E+0	1.275978E+0	1.302094E+0	1.274401E+0	1.260785E+0	1.282436E+0	1.259511E+0	1.299929E+0	1.292874E+0	1.243066E+0	1.288880E+0	1.239541E+0	1.268186E+0	1.295249E+0	1.251409E+0	1.278601E+0	1.290972E+0	1.294277E+0	1.295363E+0	1.301031E+0	1.245813E+0	1.271834E+0	1.297034E+0	1.285356E+0	1.353721E+0	1.304862E+0	1.291146E+0	1.275664E+0	1.313492E+0	1.267259E+0	1.275560E+0	1.265442E+0	1.282384E+0	1.238603E+0	1.300463E+0	1.233472E+0	1.295714E+0	1.254583E+0	1.260563E+0	1.327921E+0	1.330371E+0	1.319538E+0	1.283152E+0	1.313632E+0	1.260251E+0	1.274818E+0	1.240319E+0	1.276453E+0	1.259356E+0	1.276547E+0	1.231223E+0	1.261101E+0	1.326570E+0	1.277363E+0	1.237526E+0	1.222989E+0	1.271440E+0	1.276392E+0	1.277264E+0	1.260960E+0	1.269244E+0	1.213836E+0	1.260668E+0	1.263291E+0	1.253427E+0	1.298644E+0	1.195252E+0	1.238610E+0	1.349803E+0	1.265427E+0	1.241707E+0	1.290173E+0	1.295294E+0	1.298496E+0	1.270815E+0	1.245884E+0	1.301846E+0	1.289125E+0	1.352938E+0	1.320768E+0
5.527590E+2	1.302502E+0	1.257683E+0	1.306100E+0	1.334537E+0	1.260084E+0	1.248818E+0	1.294439E+0	1.266970E+0	1.256302E+0	1.270300E+0	1.225595E+0	1.273103E+0	1.279317E+0	1.343618E+0	1.266684E+0	1.240310E+0	1.310379E+0	1.250064E+0	1.235349E+0	1.220667E+0	1.248532E+0	1.288574E+0	1.229473E+0	1.270143E+0	1.273739E+0	1.299684E+0	1.223783E+0	1.212063E+0	1.291000E+0	1.271756E+0	1.253365E+0	1.299526E+0	1.351813E+0	1.256830E+0	1.282052E+0	1.291745E+0	1.252722E+0	1.263791E+0	1.256204E+0	1.230569E+0	1.275269E+0	1.284702E+0	1.241602E+0	1.236526E+0	1.303023E+0	1.275353E+0	1.233938E+0	1.275731E+0	1.250266E+0	1.260407E+0	1.262710E+0	1.266649E+0	1.314845E+0	1.307548E+0	1.229414E+0	1.259577E+0	1.299565E+0	1.281249E+0	1.257023E+0	1.302826E+0	1.323677E+0	1.297782E+0	1.303814E+0	1.264901E+0	1.312741E+0	1.277482E+0	1.274430E+0	1.267166E+0	1.222727E+0	1.234010E+0	1.237265E+0	1.281057E+0	1.291060E+0	1.252247E+0	1.306546E+0	1.247914E+0	1.250314E+0	1.282746E+0	1.306175E+0	1.258402E+0	1.247319E+0	1.256758E+0	1.268930E+0	1.265436E+0	1.277307E+0	1.272329E+0	1.248614E+0	1.265630E+0	1.238092E+0	1.261816E+0	1.268072E+0	1.272499E+0	1.223816E+0	1.253301E+0	1.268406E+0	1.268881E+0	1.261336E+0	1.288354E+0	1.230768E+0	1.263782E+0	1.325020E+0	1.263993E+0	1.254512E+0	1.242666E+0	1.340141E+0	1.221439E+0	1.288335E+0	1.311262E+0	1.272133E+0	1.264506E+0	1.276389E+0	1.271936E+0	1.248242E+0	1.250491E+0	1.246610E+0	1.208857E+0	1.263776E+0	1.305897E+0	1.212756E+0	1.258396E+0	1.256845E+0	1.229151E+0	1.292968E+0	1.202786E+0	1.220315E+0	1.255362E+0	1.262656E+0	1.262508E+0	1.241305E+0	1.287720E+0	1.246431E+0	1.286787E+0	1.219375E+0	1.258867E+0	1.226945E+0	1.206213E+0	1.270601E+0	1.288797E+0	1.278010E+0	1.273672E+0	1.237349E+0	1.322568E+0	1.257234E+0	1.241108E+0	1.260802E+0	1.224807E+0	1.231723E+0	1.208046E+0	1.214126E+0	1.235111E+0	1.245246E+0	1.237440E+0	1.269237E+0	1.232316E+0	1.209422E+0	1.222015E+0	1.219494E+0	1.268807E+0	1.160426E+0	1.210885E+0	1.255783E+0	1.228906E+0	1.242478E+0	1.314851E+0	1.283181E+0	1.284185E+0	1.319614E+0	1.266572E+0	1.326099E+0	1.238081E+0	1.200055E+0	1.190538E+0
5.535380E+2	1.183235E+0	1.233165E+0	1.174098E+0	1.207803E+0	1.177383E+0	1.191452E+0	1.208133E+0	1.207283E+0	1.173341E+0	1.182447E+0	1.211472E+0	1.200293E+0	1.192475E+0	1.206619E+0	1.251662E+0	1.175012E+0	1.179995E+0	1.192500E+0	1.197195E+0	1.229155E+0	1.213944E+0	1.236777E+0	1.233896E+0	1.182429E+0	1.175757E+0	1.203046E+0	1.164978E+0	1.157887E+0	1.138423E+0	1.200735E+0	1.212918E+0	1.215035E+0	1.196823E+0	1.203225E+0	1.154385E+0	1.159784E+0	1.205920E+0	1.183657E+0	1.177788E+0	1.170429E+0	1.218888E+0	1.172580E+0	1.149937E+0	1.171373E+0	1.184617E+0	1.177625E+0	1.156198E+0	1.169162E+0	1.223172E+0	1.227725E+0	1.202814E+0	1.196026E+0	1.238648E+0	1.177141E+0	1.180244E+0	1.161468E+0	1.165930E+0	1.156469E+0	1.146586E+0	1.154106E+0	1.203919E+0	1.218143E+0	1.150658E+0	1.185809E+0	1.200084E+0	1.222383E+0	1.139812E+0	1.196185E+0	1.195427E+0	1.203481E+0	1.178841E+0	1.172116E+0	1.193482E+0	1.196677E+0	1.174031E+0	1.168696E+0	1.181580E+0	1.150147E+0	1.188020E+0	1.205000E+0	1.176022E+0	1.235863E+0	1.179070E+0	1.176055E+0	1.216140E+0	1.162552E+0	1.149420E+0	1.180616E+0	1.206102E+0	1.240320E+0	1.170490E+0	1.174689E+0	1.171412E+0	1.211099E+0	1.152912E+0	1.206566E+0	1.244679E+0	1.182277E+0	1.180803E+0	1.185301E+0	1.220116E+0	1.171901E+0	1.177491E+0	1.130979E+0	1.207356E+0	1.161163E+0	1.186444E+0	1.130687E+0	1.210563E+0	1.205718E+0	1.145752E+0	1.125756E+0	1.138863E+0	1.171773E+0	1.146309E+0	1.134251E+0	1.194195E+0	1.187832E+0	1.168132E+0	1.207877E+0	1.238348E+0	1.176867E+0	1.175207E+0	1.171827E+0	1.130273E+0	1.175691E+0	1.177493E+0	1.164222E+0	1.164097E+0	1.226935E+0	1.144395E+0	1.207915E+0	1.202444E+0	1.185572E+0	1.157325E+0	1.185433E+0	1.144282E+0	1.227023E+0	1.164731E+0	1.163994E+0	1.170361E+0	1.222616E+0	1.193388E+0	1.191477E+0	1.182373E+0	1.186302E+0	1.152501E+0	1.108179E+0	1.192552E+0	1.187893E+0	1.198942E+0	1.190117E+0	1.170913E+0	1.168813E+0	1.181199E+0	1.185465E+0	1.157300E+0	1.118998E+0	1.162836E+0	1.248114E+0	1.147741E+0	1.234041E+0	1.180902E+0	1.151537E+0	1.206961E+0	1.188039E+0	1.185833E+0	1.145067E+0	1.222964E+0	1.197077E+0	1.107053E+0	1.122353E+0
5.542530E+2	1.159102E+0	1.109584E+0	1.098286E+0	1.109148E+0	1.121623E+0	1.147195E+0	1.130073E+0	1.128039E+0	1.099817E+0	1.136783E+0	1.090161E+0	1.149487E+0	1.146541E+0	1.141870E+0	1.120462E+0	1.112326E+0	1.076191E+0	1.129039E+0	1.138455E+0	1.125449E+0	1.104749E+0	1.150029E+0	1.098560E+0	1.097966E+0	1.146974E+0	1.110482E+0	1.119592E+0	1.153738E+0	1.092694E+0	1.110553E+0	1.151006E+0	1.132002E+0	1.094333E+0	1.167567E+0	1.092320E+0	1.110044E+0	1.119352E+0	1.118211E+0	1.071618E+0	1.157305E+0	1.123654E+0	1.188466E+0	1.112754E+0	1.103218E+0	1.123051E+0	1.171174E+0	1.127858E+0	1.118620E+0	1.138331E+0	1.061682E+0	1.109569E+0	1.102850E+0	1.192868E+0	1.104665E+0	1.114880E+0	1.098133E+0	1.102807E+0	1.090414E+0	1.121619E+0	1.116698E+0	1.142643E+0	1.070824E+0	1.094937E+0	1.096784E+0	1.060219E+0	1.175412E+0	1.070920E+0	1.108923E+0	1.128794E+0	1.099950E+0	1.103299E+0	1.146113E+0	1.109227E+0	1.099851E+0	1.117242E+0	1.114074E+0	1.100088E+0	1.051311E+0	1.099163E+0	1.143885E+0	1.126342E+0	1.167427E+0	1.105798E+0	1.120225E+0	1.126896E+0	1.113766E+0	1.071494E+0	1.124220E+0	1.127124E+0	1.202867E+0	1.138705E+0	1.151215E+0	1.089580E+0	1.136204E+0	1.136292E+0	1.148500E+0	1.138196E+0	1.098576E+0	1.092889E+0	1.131021E+0	1.134997E+0	1.126785E+0	1.094665E+0	1.093297E+0	1.143607E+0	1.121651E+0	1.077267E+0	1.130021E+0	1.112006E+0	1.115141E+0	1.125654E+0	1.103764E+0	1.099719E+0	1.119597E+0	1.120785E+0	1.111174E+0	1.097434E+0	1.084577E+0	1.112218E+0	1.117326E+0	1.089853E+0	1.122207E+0	1.107821E+0	1.064925E+0	1.118900E+0	1.093473E+0	1.126340E+0	1.112687E+0	1.166840E+0	1.114044E+0	1.099206E+0	1.167894E+0	1.179604E+0	1.136691E+0	1.103636E+0	1.194305E+0	1.158092E+0	1.092099E+0	1.087012E+0	1.120203E+0	1.157120E+0	1.122216E+0	1.077673E+0	1.086090E+0	1.130504E+0	1.102191E+0	1.115205E+0	1.062326E+0	1.105243E+0	1.126765E+0	1.068410E+0	1.107296E+0	1.095812E+0	1.109879E+0	1.148999E+0	1.107980E+0	1.085481E+0	1.095223E+0	1.079324E+0	1.099324E+0	1.114131E+0	1.076297E+0	1.034404E+0	1.100591E+0	1.144684E+0	1.096722E+0	1.118179E+0	1.121398E+0	1.105107E+0	1.152678E+0	1.063049E+0	1.080449E+0
5.550140E+2	1.066694E+0	1.075625E+0	1.045096E+0	1.080492E+0	9.915829E-1	1.052074E+0	1.007977E+0	1.038171E+0	9.966449E-1	1.010023E+0	1.056391E+0	1.080523E+0	1.057922E+0	1.068934E+0	1.041555E+0	9.886811E-1	1.033933E+0	1.032790E+0	1.047646E+0	1.015003E+0	1.060877E+0	1.043457E+0	1.053476E+0	1.035505E+0	1.057910E+0	1.058957E+0	1.025521E+0	1.023615E+0	1.015492E+0	9.884967E-1	1.039599E+0	1.103624E+0	1.031355E+0	1.046909E+0	1.028607E+0	1.044119E+0	1.029381E+0	1.059559E+0	1.001154E+0	1.019194E+0	1.026501E+0	1.017367E+0	1.044757E+0	1.031871E+0	1.005975E+0	1.039931E+0	1.022358E+0	1.039956E+0	1.011117E+0	9.975551E-1	1.031004E+0	1.036638E+0	1.062951E+0	1.084448E+0	1.072133E+0	1.045543E+0	1.051076E+0	1.030847E+0	1.021494E+0	1.012324E+0	1.010626E+0	1.057769E+0	1.027053E+0	1.038188E+0	1.030029E+0	1.060717E+0	1.031663E+0	1.014258E+0	1.043245E+0	1.046227E+0	1.003055E+0	1.068400E+0	1.038462E+0	1.045260E+0	1.041163E+0	1.029453E+0	1.035531E+0	1.013809E+0	9.950409E-1	1.029958E+0	1.036014E+0	1.003808E+0	1.018807E+0	1.017445E+0	1.034791E+0	1.019965E+0	1.012735E+0	1.060459E+0	1.044077E+0	1.030886E+0	1.071327E+0	1.045821E+0	1.009141E+0	1.046421E+0	1.047598E+0	1.008727E+0	1.074089E+0	1.054919E+0	1.021423E+0	1.017327E+0	1.005563E+0	1.010227E+0	1.048789E+0	1.003692E+0	1.004948E+0	1.031743E+0	1.041265E+0	1.015503E+0	1.014444E+0	1.055185E+0	1.059327E+0	9.851065E-1	1.057840E+0	1.021305E+0	1.014202E+0	1.002362E+0	1.057620E+0	1.024739E+0	1.009443E+0	1.047452E+0	1.020332E+0	1.057536E+0	1.000517E+0	9.844752E-1	9.860130E-1	9.796792E-1	1.017334E+0	1.041441E+0	9.965173E-1	1.075009E+0	1.034189E+0	1.026211E+0	1.068776E+0	1.052043E+0	1.034449E+0	1.008626E+0	1.054822E+0	1.100112E+0	1.025474E+0	1.052510E+0	1.032284E+0	1.025997E+0	1.045458E+0	1.059984E+0	1.007367E+0	1.060839E+0	1.001459E+0	1.040950E+0	1.056154E+0	1.053584E+0	1.028046E+0	1.025494E+0	1.035007E+0	1.044372E+0	1.010474E+0	1.074316E+0	1.065659E+0	1.060112E+0	1.019872E+0	1.044251E+0	1.057205E+0	1.030692E+0	1.019432E+0	1.003905E+0	1.057841E+0	1.087711E+0	1.041271E+0	1.050669E+0	1.027839E+0	1.056460E+0	1.081390E+0	1.041822E+0
5.557600E+2	9.997244E-1	9.937305E-1	9.857868E-1	9.954521E-1	9.711611E-1	9.903909E-1	9.645307E-1	9.708459E-1	9.879374E-1	9.747848E-1	9.834511E-1	9.655790E-1	9.802849E-1	9.727722E-1	9.646389E-1	1.000279E+0	9.704169E-1	1.003218E+0	1.027406E+0	9.775379E-1	9.630760E-1	9.756281E-1	9.380829E-1	9.667340E-1	9.650716E-1	9.417109E-1	1.001613E+0	9.304103E-1	9.842976E-1	9.896981E-1	1.015635E+0	9.806703E-1	9.614387E-1	9.702292E-1	9.327445E-1	9.881264E-1	9.585320E-1	1.014533E+0	9.200902E-1	9.590692E-1	9.617989E-1	9.857658E-1	9.902289E-1	9.644079E-1	9.613940E-1	9.450067E-1	1.010093E+0	9.658813E-1	9.355349E-1	9.779167E-1	9.752401E-1	9.664018E-1	9.713255E-1	9.873887E-1	9.750214E-1	1.012960E+0	9.940881E-1	9.370320E-1	9.577584E-1	9.691218E-1	1.017869E+0	9.795777E-1	9.826836E-1	9.820125E-1	9.995247E-1	9.815248E-1	9.679289E-1	9.546349E-1	9.694823E-1	9.728170E-1	9.442064E-1	1.006143E+0	1.011847E+0	9.514922E-1	9.836996E-1	9.740794E-1	9.595755E-1	9.710377E-1	9.711579E-1	9.683630E-1	9.392345E-1	9.817459E-1	9.518631E-1	9.663507E-1	9.844100E-1	9.724406E-1	9.601153E-1	9.372974E-1	9.976819E-1	9.948307E-1	9.820724E-1	9.869278E-1	9.480852E-1	9.654354E-1	1.001071E+0	9.618940E-1	9.770416E-1	1.038765E+0	9.506679E-1	9.924407E-1	9.841413E-1	1.029461E+0	9.279959E-1	9.733226E-1	9.961333E-1	9.428123E-1	9.397095E-1	9.730644E-1	9.887394E-1	9.649503E-1	9.725161E-1	9.238467E-1	9.467547E-1	9.648749E-1	9.880438E-1	9.341861E-1	9.597417E-1	9.525991E-1	9.986843E-1	9.876948E-1	9.754710E-1	9.559322E-1	9.896745E-1	9.497855E-1	9.153393E-1	9.582509E-1	9.764795E-1	9.590258E-1	9.837226E-1	9.848252E-1	9.750458E-1	9.572641E-1	9.907251E-1	9.858405E-1	9.331283E-1	9.428759E-1	1.004599E+0	9.781364E-1	9.864411E-1	9.377526E-1	9.733019E-1	9.998597E-1	9.323975E-1	9.297296E-1	9.792634E-1	9.797828E-1	9.430493E-1	1.006749E+0	9.453709E-1	9.895414E-1	9.738255E-1	9.743446E-1	9.422316E-1	9.428516E-1	9.898612E-1	9.969690E-1	9.602159E-1	9.728621E-1	9.580385E-1	9.304628E-1	1.008431E+0	1.014197E+0	9.959509E-1	9.700302E-1	9.739269E-1	1.011234E+0	9.728469E-1	9.624858E-1	9.600576E-1	9.920838E-1	1.027586E+0	9.343004E-1
5.560130E+2	9.528003E-1	9.567305E-1	9.090434E-1	9.816486E-1	9.715070E-1	9.214349E-1	9.206844E-1	9.295051E-1	9.574161E-1	9.304781E-1	9.295456E-1	9.284604E-1	9.539545E-1	9.462696E-1	9.377356E-1	9.483901E-1	9.304750E-1	9.505746E-1	9.417401E-1	9.373100E-1	9.136304E-1	9.931171E-1	9.282486E-1	9.311190E-1	9.442907E-1	9.596448E-1	9.527152E-1	9.656677E-1	9.752963E-1	9.516635E-1	9.642428E-1	9.319072E-1	9.376559E-1	9.377369E-1	9.317883E-1	9.229976E-1	9.060479E-1	9.270358E-1	9.338706E-1	9.433613E-1	9.181399E-1	9.411432E-1	9.579383E-1	9.257352E-1	9.800909E-1	9.738374E-1	9.131078E-1	9.344759E-1	9.562006E-1	9.356219E-1	9.559739E-1	9.444803E-1	9.564752E-1	9.575802E-1	9.428492E-1	9.256135E-1	9.349895E-1	9.182822E-1	9.123022E-1	9.140195E-1	9.793870E-1	9.103402E-1	9.245162E-1	9.289887E-1	9.381033E-1	9.291359E-1	9.530491E-1	9.366555E-1	9.218366E-1	9.434886E-1	9.006736E-1	9.738441E-1	9.200750E-1	9.439304E-1	9.678308E-1	9.548267E-1	9.724699E-1	9.385882E-1	9.596239E-1	9.321742E-1	9.379477E-1	9.726256E-1	9.297185E-1	9.357729E-1	9.358080E-1	9.545302E-1	9.435376E-1	9.424014E-1	8.874737E-1	9.719911E-1	9.476366E-1	9.354237E-1	9.428268E-1	9.002589E-1	9.542271E-1	9.806521E-1	9.618748E-1	9.329070E-1	9.293696E-1	9.051040E-1	9.458732E-1	9.186451E-1	9.222226E-1	8.990562E-1	9.481109E-1	8.927154E-1	9.783080E-1	9.311778E-1	9.099996E-1	9.189486E-1	9.054793E-1	9.640311E-1	9.297476E-1	9.393689E-1	9.510158E-1	9.315405E-1	9.247827E-1	9.653277E-1	9.100165E-1	9.207034E-1	9.320403E-1	9.141869E-1	9.858563E-1	9.311337E-1	9.124157E-1	9.384391E-1	9.461354E-1	9.569653E-1	9.375573E-1	9.639892E-1	9.555549E-1	9.463388E-1	9.383309E-1	9.811372E-1	9.597594E-1	9.520599E-1	9.296520E-1	9.489520E-1	9.600102E-1	9.058809E-1	9.307840E-1	9.377165E-1	9.438606E-1	8.933243E-1	9.055784E-1	9.555626E-1	9.236840E-1	9.245867E-1	9.130006E-1	9.444645E-1	9.428489E-1	9.671788E-1	8.919509E-1	9.459764E-1	8.950010E-1	9.250001E-1	9.490288E-1	9.179519E-1	9.055801E-1	9.628450E-1	9.870026E-1	9.416338E-1	9.753892E-1	9.365918E-1	9.271826E-1	9.004115E-1	9.395107E-1	9.386762E-1	9.087574E-1	9.317146E-1	9.791605E-1	9.000398E-1
5.565030E+2	9.275026E-1	9.505005E-1	9.814987E-1	9.524034E-1	9.353778E-1	9.615682E-1	9.467498E-1	9.837974E-1	9.520630E-1	9.501614E-1	9.604689E-1	9.494157E-1	9.566880E-1	9.589918E-1	9.614727E-1	9.358880E-1	9.575384E-1	9.075876E-1	9.407298E-1	9.199656E-1	9.252426E-1	9.708434E-1	9.160596E-1	9.457584E-1	9.520182E-1	9.327887E-1	9.443794E-1	8.939295E-1	9.186123E-1	9.397953E-1	9.669047E-1	9.541197E-1	9.238240E-1	9.498798E-1	9.309476E-1	9.510265E-1	9.102360E-1	9.545432E-1	9.191205E-1	9.649517E-1	9.289975E-1	8.810523E-1	9.063425E-1	9.067467E-1	9.650627E-1	9.028560E-1	8.579697E-1	9.699100E-1	9.208728E-1	9.079395E-1	9.305667E-1	9.144558E-1	9.679571E-1	9.312742E-1	9.028671E-1	8.926073E-1	9.190710E-1	9.277809E-1	9.195810E-1	9.617017E-1	9.201667E-1	9.722420E-1	8.875790E-1	9.770329E-1	8.975696E-1	9.356457E-1	9.266594E-1	9.243866E-1	9.436432E-1	9.820463E-1	9.317998E-1	9.312357E-1	9.485830E-1	9.182115E-1	9.531490E-1	9.047028E-1	9.405906E-1	9.037514E-1	9.174446E-1	9.599746E-1	9.673769E-1	9.277409E-1	9.121793E-1	9.290862E-1	9.346282E-1	9.158391E-1	9.349602E-1	8.929406E-1	9.083337E-1	9.507149E-1	9.116563E-1	9.048866E-1	9.267578E-1	8.933519E-1	9.616177E-1	9.537710E-1	9.157063E-1	9.551084E-1	9.048282E-1	9.355604E-1	9.535802E-1	9.328173E-1	9.352396E-1	9.136773E-1	9.488480E-1	9.193532E-1	9.269400E-1	8.741244E-1	9.395662E-1	9.277769E-1	9.384151E-1	9.580726E-1	9.351331E-1	9.298918E-1	9.400166E-1	9.740083E-1	9.228260E-1	9.463811E-1	9.183658E-1	9.657734E-1	9.481097E-1	9.707373E-1	9.322695E-1	8.714809E-1	9.453640E-1	9.097878E-1	9.196584E-1	8.852556E-1	9.458424E-1	9.599993E-1	8.831168E-1	9.652100E-1	9.290505E-1	9.882229E-1	9.474671E-1	9.171350E-1	9.271802E-1	9.506120E-1	9.585208E-1	9.080170E-1	9.702031E-1	9.316548E-1	8.944757E-1	9.036983E-1	8.850026E-1	9.213496E-1	9.517660E-1	9.087102E-1	9.195913E-1	9.732943E-1	9.393081E-1	9.727155E-1	9.055474E-1	9.231951E-1	9.566229E-1	9.522248E-1	9.289921E-1	9.441306E-1	9.036328E-1	9.471507E-1	9.153510E-1	9.199166E-1	9.022939E-1	9.464669E-1	9.357079E-1	9.493070E-1	9.411899E-1	9.279141E-1	9.059008E-1	9.523999E-1	9.346437E-1	9.659611E-1
5.570220E+2	9.651239E-1	1.000613E+0	9.423762E-1	9.702946E-1	9.572597E-1	9.649961E-1	9.093609E-1	9.301687E-1	9.326018E-1	9.202140E-1	9.386870E-1	8.838451E-1	9.282114E-1	9.470785E-1	9.800836E-1	9.276336E-1	8.956660E-1	9.077933E-1	9.605489E-1	8.997638E-1	9.606168E-1	9.897365E-1	9.240795E-1	9.432785E-1	9.318275E-1	9.378476E-1	9.371819E-1	9.207616E-1	9.288255E-1	9.069367E-1	9.555868E-1	9.580919E-1	9.584303E-1	9.586606E-1	9.076089E-1	9.034445E-1	9.308843E-1	9.328542E-1	9.060549E-1	9.183644E-1	8.954843E-1	9.495837E-1	9.277665E-1	9.703479E-1	9.622500E-1	9.328460E-1	9.363316E-1	9.499956E-1	9.174109E-1	9.720353E-1	9.060641E-1	9.167860E-1	9.537063E-1	9.151747E-1	9.450560E-1	9.758299E-1	9.140078E-1	9.753498E-1	9.200196E-1	9.343535E-1	9.526554E-1	9.536452E-1	9.496308E-1	9.466605E-1	9.254698E-1	9.683302E-1	9.535687E-1	9.117606E-1	9.290294E-1	9.665109E-1	9.356925E-1	9.165800E-1	9.205964E-1	9.567400E-1	9.571900E-1	9.850693E-1	9.067162E-1	9.370656E-1	9.082730E-1	9.216010E-1	9.351674E-1	9.776697E-1	9.556946E-1	9.653374E-1	9.507247E-1	9.254544E-1	9.023821E-1	9.572392E-1	9.760992E-1	9.472891E-1	9.236635E-1	9.515916E-1	9.409426E-1	9.548932E-1	9.422618E-1	9.357775E-1	9.540190E-1	9.615139E-1	9.076263E-1	9.524104E-1	9.498840E-1	9.495535E-1	9.098434E-1	9.270994E-1	9.363631E-1	9.198962E-1	9.241155E-1	9.672414E-1	9.157125E-1	9.620855E-1	9.239346E-1	9.188865E-1	8.992909E-1	9.445798E-1	9.430439E-1	9.479169E-1	9.034245E-1	9.110014E-1	9.395081E-1	9.545962E-1	9.455372E-1	9.578763E-1	9.513579E-1	8.895170E-1	9.519620E-1	9.506875E-1	9.731500E-1	9.285727E-1	9.272907E-1	9.605731E-1	9.131699E-1	9.265542E-1	9.178090E-1	9.572378E-1	8.970999E-1	9.086443E-1	9.101613E-1	9.105546E-1	9.004890E-1	9.561247E-1	8.925794E-1	9.604572E-1	8.935798E-1	9.744865E-1	9.411290E-1	8.985807E-1	8.899648E-1	9.261520E-1	9.198339E-1	9.078463E-1	9.355342E-1	9.360310E-1	9.449820E-1	9.142731E-1	9.509242E-1	9.524522E-1	9.400024E-1	9.202009E-1	9.394011E-1	9.195197E-1	8.825903E-1	9.476521E-1	9.219260E-1	9.187731E-1	9.539961E-1	9.561131E-1	9.532360E-1	9.640142E-1	8.897798E-1	9.447365E-1	9.823674E-1	8.214164E-1
5.575300E+2	9.992296E-1	9.984221E-1	9.943350E-1	9.991356E-1	1.052113E+0	9.930009E-1	9.815098E-1	1.056776E+0	1.008531E+0	9.520760E-1	1.012520E+0	9.808022E-1	1.011121E+0	1.007558E+0	1.024832E+0	1.018955E+0	1.016403E+0	9.842863E-1	1.038364E+0	9.763323E-1	9.868703E-1	1.034699E+0	9.751794E-1	1.014352E+0	1.005292E+0	1.034912E+0	9.655610E-1	9.936397E-1	1.002265E+0	9.866944E-1	9.755781E-1	9.848095E-1	1.014025E+0	9.938835E-1	9.765146E-1	1.006416E+0	1.024967E+0	1.028129E+0	9.925441E-1	1.007335E+0	1.011202E+0	9.619444E-1	9.698421E-1	1.002612E+0	9.765283E-1	9.799053E-1	9.574905E-1	1.012703E+0	9.823893E-1	1.001562E+0	9.931781E-1	9.768887E-1	9.912351E-1	9.887134E-1	9.792025E-1	1.029914E+0	1.014423E+0	1.036552E+0	9.972197E-1	9.683175E-1	9.969241E-1	9.668440E-1	9.840707E-1	9.684829E-1	1.016315E+0	9.929776E-1	9.998550E-1	9.833205E-1	9.507601E-1	1.004217E+0	9.755511E-1	1.002311E+0	1.006549E+0	1.001774E+0	1.027616E+0	9.968569E-1	1.005057E+0	9.723664E-1	1.003327E+0	1.015197E+0	1.026886E+0	1.009366E+0	9.849473E-1	9.957387E-1	9.819814E-1	9.880889E-1	9.619928E-1	9.998288E-1	1.025094E+0	1.052049E+0	1.016555E+0	9.847819E-1	9.710982E-1	9.845145E-1	9.589661E-1	1.019807E+0	9.817852E-1	9.711285E-1	9.759951E-1	1.015345E+0	1.003699E+0	9.906515E-1	9.782775E-1	9.972908E-1	9.768389E-1	9.810256E-1	9.477080E-1	9.964153E-1	9.610449E-1	1.021138E+0	9.985873E-1	1.013331E+0	1.021569E+0	9.820826E-1	9.967852E-1	1.001239E+0	1.055193E+0	1.007742E+0	9.742778E-1	1.013413E+0	9.862035E-1	1.018609E+0	9.747992E-1	9.415853E-1	9.571090E-1	9.852964E-1	9.869498E-1	9.796485E-1	1.015405E+0	1.034816E+0	9.925041E-1	1.004915E+0	9.915478E-1	1.013034E+0	9.895864E-1	1.005070E+0	1.011288E+0	1.018176E+0	1.006822E+0	1.013925E+0	1.019173E+0	1.039432E+0	1.030543E+0	9.694581E-1	9.773402E-1	9.890695E-1	9.633852E-1	9.762193E-1	9.858823E-1	9.722526E-1	9.520767E-1	9.985130E-1	9.883099E-1	1.007771E+0	1.018081E+0	1.020865E+0	9.784908E-1	9.907659E-1	9.945380E-1	9.871380E-1	1.042756E+0	9.837182E-1	1.012828E+0	9.930600E-1	1.004555E+0	1.057771E+0	1.006711E+0	1.013648E+0	1.022121E+0	1.030206E+0	1.003952E+0	8.971700E-1
5.580060E+2	1.022751E+0	1.017626E+0	9.642129E-1	1.019682E+0	9.870659E-1	9.563334E-1	1.005858E+0	9.934092E-1	1.014819E+0	9.950270E-1	1.045087E+0	1.001794E+0	9.969900E-1	1.033557E+0	9.420709E-1	1.012983E+0	9.870538E-1	1.004604E+0	1.025539E+0	1.022921E+0	9.968292E-1	1.014057E+0	1.009702E+0	1.023809E+0	1.025491E+0	9.666438E-1	1.024818E+0	9.916046E-1	9.802434E-1	1.019661E+0	1.032871E+0	1.012221E+0	1.018649E+0	9.858450E-1	1.042556E+0	1.000400E+0	9.786302E-1	1.027756E+0	1.004680E+0	9.996951E-1	9.981599E-1	1.032467E+0	9.927504E-1	1.050160E+0	1.040048E+0	1.017143E+0	9.625131E-1	1.016090E+0	1.043604E+0	1.048332E+0	1.041589E+0	9.859850E-1	1.031821E+0	1.020466E+0	9.974443E-1	1.012304E+0	9.711729E-1	1.020909E+0	1.026196E+0	9.873805E-1	9.794528E-1	1.005096E+0	1.013882E+0	1.026034E+0	1.027525E+0	1.043378E+0	1.007764E+0	1.008094E+0	1.018760E+0	1.015531E+0	9.657936E-1	1.037365E+0	9.752025E-1	1.006450E+0	1.011127E+0	1.048437E+0	9.970931E-1	1.013980E+0	9.822852E-1	1.028893E+0	9.965975E-1	1.041987E+0	9.937336E-1	1.033027E+0	1.056795E+0	1.019421E+0	1.025747E+0	1.007088E+0	1.007322E+0	1.018466E+0	9.914522E-1	9.928554E-1	9.638763E-1	9.950265E-1	9.920699E-1	1.026284E+0	1.007353E+0	1.032569E+0	9.860228E-1	1.033884E+0	1.036180E+0	1.010450E+0	1.019472E+0	9.593097E-1	9.866594E-1	1.019013E+0	9.906089E-1	9.547939E-1	1.014624E+0	1.001922E+0	1.011823E+0	9.810306E-1	1.042723E+0	1.048233E+0	9.725701E-1	1.017588E+0	1.001147E+0	1.028151E+0	9.838774E-1	1.045800E+0	9.728681E-1	1.035049E+0	1.029236E+0	9.716547E-1	1.012325E+0	1.044694E+0	1.006077E+0	1.001262E+0	1.022608E+0	1.042787E+0	9.600631E-1	9.979415E-1	1.022975E+0	9.678390E-1	1.021297E+0	1.051118E+0	1.031429E+0	1.013173E+0	1.009173E+0	1.024757E+0	1.004163E+0	1.000813E+0	1.035842E+0	9.981273E-1	1.045021E+0	1.034877E+0	1.011899E+0	1.024892E+0	1.002768E+0	1.037676E+0	1.002766E+0	9.919888E-1	1.001521E+0	9.888999E-1	9.723507E-1	1.020931E+0	1.030500E+0	1.007631E+0	1.026827E+0	1.036229E+0	9.856897E-1	9.927554E-1	9.940498E-1	9.584973E-1	1.031871E+0	1.050634E+0	1.020487E+0	1.072612E+0	9.830485E-1	1.012351E+0	9.594145E-1	9.877995E-1
5.585100E+2	1.040978E+0	1.000094E+0	1.006857E+0	9.933430E-1	9.926697E-1	1.034307E+0	1.009582E+0	1.047909E+0	1.014450E+0	1.018221E+0	1.014728E+0	1.023956E+0	1.011861E+0	1.007649E+0	1.032678E+0	1.022863E+0	1.052658E+0	1.000216E+0	1.010793E+0	9.981139E-1	1.056614E+0	1.011035E+0	9.987167E-1	9.968071E-1	9.858057E-1	1.045657E+0	1.007122E+0	9.862779E-1	1.008930E+0	1.044551E+0	1.033257E+0	1.017600E+0	1.003643E+0	1.027023E+0	1.014519E+0	9.971350E-1	1.008395E+0	1.002571E+0	1.014562E+0	9.843921E-1	1.050344E+0	9.880492E-1	1.033632E+0	9.722963E-1	1.034936E+0	1.025809E+0	1.021908E+0	1.038901E+0	9.923794E-1	9.746627E-1	9.953628E-1	1.019389E+0	1.046495E+0	1.010163E+0	1.017725E+0	1.008825E+0	1.031370E+0	9.989040E-1	1.017774E+0	1.021082E+0	9.890803E-1	9.882628E-1	1.021815E+0	1.006503E+0	1.035606E+0	9.458450E-1	1.032828E+0	1.001170E+0	1.036812E+0	1.021574E+0	1.015456E+0	9.941644E-1	1.030644E+0	1.028930E+0	1.011184E+0	1.025185E+0	9.527731E-1	9.991681E-1	1.033143E+0	1.001042E+0	1.009517E+0	1.006792E+0	1.017695E+0	1.021497E+0	1.015939E+0	1.030823E+0	1.009074E+0	1.023567E+0	1.042183E+0	1.054830E+0	1.012623E+0	1.021361E+0	1.023412E+0	9.783108E-1	1.010346E+0	1.026311E+0	1.024375E+0	1.011221E+0	1.025463E+0	1.005250E+0	1.008683E+0	1.026506E+0	1.039952E+0	1.035280E+0	9.984511E-1	9.844547E-1	9.856676E-1	1.007763E+0	1.022177E+0	1.000737E+0	9.822541E-1	1.026190E+0	9.957673E-1	9.662679E-1	1.003064E+0	1.022984E+0	1.012866E+0	1.029983E+0	9.967141E-1	1.030680E+0	1.027684E+0	1.064773E+0	1.039553E+0	9.831523E-1	1.029042E+0	1.004763E+0	9.978889E-1	1.003576E+0	9.966971E-1	9.900735E-1	1.043121E+0	9.927937E-1	1.014473E+0	1.039293E+0	1.046439E+0	1.017413E+0	1.010886E+0	9.887765E-1	1.003884E+0	1.002105E+0	9.690161E-1	1.038646E+0	1.016353E+0	1.011869E+0	1.047376E+0	1.013386E+0	1.016344E+0	1.013988E+0	1.023992E+0	9.905745E-1	1.020409E+0	1.031988E+0	1.020748E+0	1.012831E+0	1.038830E+0	9.565018E-1	9.960293E-1	1.007205E+0	1.036986E+0	1.030174E+0	1.043991E+0	1.061616E+0	1.054848E+0	1.041136E+0	1.011191E+0	1.041494E+0	1.020677E+0	9.942965E-1	1.007380E+0	1.006534E+0	1.120947E+0	1.008347E+0
5.590100E+2	1.048511E+0	1.013588E+0	1.007813E+0	9.846133E-1	1.008635E+0	1.001259E+0	1.042002E+0	1.026478E+0	1.018158E+0	1.037695E+0	9.967658E-1	1.019971E+0	1.030306E+0	1.012958E+0	1.000179E+0	1.042908E+0	9.977990E-1	1.030946E+0	9.986179E-1	1.020822E+0	1.014412E+0	1.008070E+0	1.037010E+0	1.006582E+0	1.031518E+0	1.021834E+0	1.006679E+0	1.033023E+0	1.026321E+0	1.000651E+0	1.004628E+0	1.019766E+0	9.994949E-1	1.039276E+0	1.028967E+0	1.028648E+0	1.012685E+0	1.001810E+0	9.756968E-1	9.936692E-1	1.016151E+0	1.024982E+0	1.036740E+0	9.988723E-1	1.021658E+0	1.016096E+0	1.024363E+0	9.975222E-1	1.017751E+0	1.006638E+0	1.005287E+0	1.002145E+0	1.016277E+0	1.011754E+0	1.047593E+0	1.014454E+0	1.015759E+0	1.033578E+0	1.002381E+0	1.007516E+0	1.024101E+0	1.040707E+0	9.994973E-1	1.013512E+0	1.047201E+0	1.022927E+0	1.032059E+0	1.025328E+0	1.024568E+0	1.006741E+0	1.040008E+0	9.890362E-1	1.037661E+0	1.014411E+0	1.031544E+0	9.861008E-1	1.032384E+0	1.043722E+0	1.021183E+0	1.023940E+0	1.046148E+0	1.012100E+0	1.010557E+0	1.041409E+0	1.030255E+0	9.583192E-1	9.841522E-1	1.025691E+0	9.938323E-1	9.757566E-1	1.018875E+0	1.062213E+0	1.020553E+0	1.055260E+0	1.026921E+0	9.721009E-1	9.827738E-1	1.027061E+0	1.002562E+0	1.005246E+0	1.028877E+0	1.039134E+0	1.012082E+0	1.025616E+0	1.004258E+0	9.938550E-1	1.029719E+0	1.005204E+0	1.026356E+0	1.058276E+0	1.033141E+0	1.010186E+0	1.023812E+0	1.015182E+0	1.058980E+0	1.036168E+0	1.026032E+0	9.781839E-1	1.016666E+0	9.842224E-1	1.031265E+0	1.015375E+0	1.033397E+0	9.924264E-1	1.008586E+0	9.976344E-1	1.026777E+0	1.000747E+0	9.711418E-1	1.033397E+0	1.039353E+0	1.012854E+0	1.009105E+0	1.010474E+0	9.893740E-1	1.012264E+0	9.912114E-1	1.030994E+0	1.003802E+0	1.024621E+0	1.021879E+0	9.983361E-1	1.054562E+0	1.032872E+0	1.008399E+0	1.039642E+0	1.011319E+0	1.035171E+0	9.640091E-1	1.037066E+0	9.786930E-1	1.000448E+0	1.056189E+0	1.023857E+0	9.870240E-1	1.014169E+0	9.917904E-1	1.020158E+0	1.037524E+0	9.994582E-1	1.016089E+0	1.015550E+0	1.017595E+0	1.029007E+0	9.900635E-1	1.004792E+0	1.023794E+0	9.949846E-1	1.050844E+0	1.017576E+0	1.033273E+0	1.018809E+0
5.595110E+2	1.003091E+0	1.034782E+0	1.050791E+0	9.904239E-1	1.015464E+0	1.067167E+0	9.755648E-1	9.902147E-1	1.012132E+0	1.011696E+0	1.055492E+0	1.032508E+0	9.641637E-1	1.018023E+0	1.078525E+0	1.004550E+0	1.049968E+0	1.030607E+0	1.053039E+0	1.028883E+0	1.037305E+0	1.010474E+0	1.050193E+0	9.864038E-1	9.988580E-1	9.960541E-1	1.011226E+0	1.024184E+0	1.012756E+0	1.034463E+0	1.020030E+0	1.040657E+0	1.053008E+0	1.028052E+0	9.729736E-1	1.020514E+0	1.022560E+0	1.008641E+0	1.014578E+0	1.052422E+0	1.006015E+0	1.025259E+0	1.026037E+0	9.754802E-1	1.015559E+0	1.004057E+0	1.034294E+0	9.807024E-1	1.027549E+0	1.031073E+0	1.013288E+0	1.007584E+0	1.005883E+0	1.018351E+0	1.011218E+0	9.995319E-1	1.000549E+0	1.041916E+0	1.011093E+0	9.965368E-1	1.032410E+0	1.025864E+0	1.028075E+0	9.944872E-1	9.997067E-1	1.074922E+0	9.855447E-1	1.030629E+0	9.922444E-1	1.014082E+0	1.017234E+0	1.054040E+0	1.007139E+0	1.039949E+0	9.821584E-1	1.031601E+0	1.022277E+0	1.014059E+0	1.036947E+0	1.019796E+0	1.036422E+0	1.024003E+0	1.046617E+0	1.015894E+0	1.028040E+0	9.957059E-1	1.025948E+0	1.020331E+0	1.013104E+0	1.025100E+0	1.025441E+0	1.006478E+0	9.936688E-1	1.035700E+0	1.013503E+0	1.005452E+0	1.009527E+0	9.777675E-1	1.026295E+0	1.030732E+0	1.006444E+0	1.016394E+0	9.962907E-1	1.047900E+0	1.037781E+0	1.021790E+0	1.042500E+0	1.061094E+0	9.887341E-1	1.043983E+0	1.055644E+0	1.029670E+0	1.028357E+0	1.021965E+0	1.006536E+0	1.010498E+0	9.696929E-1	1.026608E+0	1.041007E+0	1.004968E+0	1.043164E+0	9.531274E-1	1.006818E+0	1.048968E+0	1.044639E+0	1.032484E+0	1.019735E+0	1.029199E+0	1.034593E+0	1.021610E+0	1.044224E+0	1.033673E+0	1.011640E+0	1.035705E+0	1.019440E+0	9.903212E-1	1.025726E+0	1.027754E+0	1.026327E+0	1.021908E+0	1.013103E+0	1.035398E+0	1.011912E+0	1.004510E+0	1.013023E+0	1.022409E+0	1.035926E+0	1.013765E+0	1.035746E+0	1.041617E+0	1.057849E+0	1.028719E+0	9.805999E-1	1.022240E+0	1.042143E+0	1.011438E+0	1.000146E+0	1.007765E+0	1.020172E+0	1.060904E+0	1.028342E+0	1.022983E+0	9.962205E-1	9.948315E-1	1.051697E+0	1.008638E+0	1.018808E+0	1.051599E+0	1.021645E+0	1.014172E+0	1.020672E+0	1.049375E+0
5.600240E+2	1.003565E+0	1.020094E+0	1.037560E+0	1.013069E+0	1.040341E+0	9.836566E-1	1.010698E+0	9.727224E-1	9.821718E-1	9.553408E-1	1.009911E+0	1.005731E+0	1.019375E+0	9.824573E-1	9.931955E-1	9.987685E-1	1.004882E+0	1.010554E+0	9.929885E-1	9.999471E-1	9.799192E-1	9.872497E-1	9.847398E-1	9.792591E-1	9.772092E-1	9.961168E-1	1.010862E+0	1.002591E+0	1.006655E+0	9.687195E-1	1.014725E+0	1.003565E+0	1.015433E+0	1.013674E+0	1.039162E+0	1.047208E+0	1.021669E+0	1.016376E+0	1.048887E+0	1.035822E+0	9.796921E-1	1.000327E+0	1.001191E+0	1.019144E+0	1.011411E+0	1.022131E+0	1.002030E+0	9.869729E-1	1.001137E+0	1.003607E+0	9.999047E-1	1.004158E+0	9.761472E-1	1.000931E+0	9.724251E-1	1.016041E+0	1.020365E+0	9.662759E-1	1.001297E+0	9.877375E-1	1.007428E+0	9.855210E-1	9.725181E-1	1.013805E+0	1.013861E+0	1.019589E+0	1.034290E+0	9.751337E-1	1.023063E+0	9.831154E-1	1.031255E+0	9.624262E-1	1.047401E+0	1.010232E+0	1.035847E+0	1.013922E+0	1.075768E+0	1.010797E+0	1.015741E+0	1.007141E+0	1.025135E+0	1.039442E+0	1.015945E+0	9.883727E-1	9.793735E-1	1.044115E+0	1.009836E+0	9.896397E-1	1.010696E+0	9.925679E-1	9.872688E-1	9.796159E-1	9.932956E-1	1.014921E+0	1.009588E+0	1.006993E+0	1.016269E+0	1.006095E+0	9.812814E-1	1.004180E+0	9.708886E-1	1.002419E+0	1.025994E+0	1.011266E+0	9.795185E-1	1.030538E+0	1.001527E+0	1.009812E+0	1.010829E+0	1.005021E+0	1.025160E+0	1.018604E+0	9.841170E-1	9.874892E-1	1.005215E+0	9.818397E-1	1.006851E+0	1.039576E+0	1.030031E+0	9.634448E-1	1.021462E+0	9.768175E-1	9.781899E-1	1.046852E+0	1.015447E+0	9.621515E-1	1.015176E+0	1.021751E+0	9.927590E-1	1.026905E+0	1.005274E+0	9.793655E-1	1.026660E+0	1.018756E+0	1.022569E+0	1.007448E+0	9.817284E-1	1.012935E+0	1.000020E+0	1.014343E+0	1.007794E+0	1.013823E+0	9.651321E-1	1.008006E+0	1.009358E+0	9.698641E-1	9.871642E-1	1.000136E+0	1.033920E+0	9.775898E-1	1.006145E+0	1.011413E+0	1.018156E+0	1.006487E+0	1.021364E+0	1.028790E+0	1.053118E+0	9.952023E-1	9.824511E-1	9.649438E-1	1.012167E+0	9.835879E-1	1.001372E+0	1.040492E+0	9.797288E-1	9.680378E-1	1.012973E+0	9.765849E-1	9.934761E-1	1.006625E+0	9.365468E-1	1.070568E+0
5.605090E+2	9.349421E-1	9.589863E-1	9.699964E-1	1.009751E+0	1.004381E+0	9.781321E-1	1.004306E+0	9.671564E-1	9.821017E-1	9.675052E-1	9.411304E-1	9.280272E-1	9.559124E-1	9.549422E-1	1.003941E+0	9.301553E-1	9.089837E-1	9.603601E-1	9.592435E-1	9.477850E-1	9.487036E-1	9.805960E-1	9.704255E-1	1.019105E+0	9.630478E-1	9.894832E-1	9.514004E-1	9.625583E-1	9.986707E-1	9.510224E-1	9.432736E-1	9.415953E-1	9.220363E-1	9.419868E-1	9.200086E-1	9.483504E-1	9.822686E-1	9.950969E-1	9.626382E-1	9.628567E-1	9.979483E-1	9.405209E-1	9.087310E-1	1.017581E+0	9.437196E-1	9.564560E-1	9.572013E-1	9.694475E-1	9.409067E-1	9.353309E-1	9.835341E-1	9.686453E-1	9.517512E-1	9.963968E-1	9.804216E-1	9.915432E-1	9.673826E-1	9.682270E-1	9.654228E-1	1.003013E+0	9.848664E-1	9.886393E-1	9.859143E-1	9.837552E-1	9.333881E-1	9.340269E-1	9.335511E-1	9.760799E-1	9.490936E-1	9.950953E-1	9.668549E-1	9.893218E-1	9.403215E-1	9.448684E-1	9.918689E-1	9.578400E-1	9.469229E-1	9.404219E-1	9.542401E-1	9.651743E-1	9.600291E-1	9.350574E-1	9.590183E-1	9.697693E-1	9.360800E-1	9.856987E-1	9.950030E-1	9.456118E-1	9.567727E-1	9.714054E-1	9.732872E-1	9.611614E-1	1.000506E+0	9.670172E-1	9.874250E-1	9.803482E-1	9.880972E-1	9.628053E-1	1.000488E+0	9.963897E-1	9.675499E-1	9.370668E-1	9.551236E-1	9.852225E-1	9.984967E-1	9.673232E-1	9.499719E-1	9.992159E-1	9.798046E-1	9.760979E-1	9.575953E-1	9.941468E-1	9.369052E-1	9.644444E-1	9.803292E-1	9.603843E-1	1.005019E+0	9.521483E-1	9.916564E-1	9.668710E-1	9.902997E-1	9.618478E-1	9.703696E-1	9.749744E-1	9.358748E-1	9.538612E-1	9.431324E-1	9.860430E-1	9.723550E-1	9.054900E-1	9.730410E-1	9.573872E-1	9.789395E-1	9.504766E-1	9.405056E-1	9.569596E-1	9.576539E-1	9.930759E-1	1.010531E+0	9.577793E-1	1.008576E+0	9.362716E-1	9.614967E-1	9.689094E-1	9.698770E-1	9.512717E-1	9.688481E-1	9.377747E-1	9.607092E-1	9.387636E-1	9.737032E-1	9.436747E-1	9.529959E-1	9.682632E-1	1.001071E+0	1.010306E+0	9.484017E-1	9.736181E-1	9.367138E-1	9.473607E-1	9.476309E-1	9.591577E-1	9.463946E-1	9.434012E-1	9.608601E-1	9.652043E-1	9.462380E-1	9.636639E-1	9.859604E-1	9.628533E-1	9.776734E-1	1.019772E+0
5.610070E+2	9.461613E-1	9.548298E-1	9.627693E-1	9.891181E-1	9.514433E-1	9.791453E-1	9.519887E-1	1.002110E+0	9.761663E-1	1.014515E+0	9.368865E-1	9.880127E-1	1.021393E+0	9.904132E-1	9.494101E-1	9.877730E-1	9.986555E-1	9.627133E-1	9.597787E-1	9.815282E-1	9.662165E-1	9.885177E-1	9.492131E-1	9.880338E-1	1.018070E+0	9.842113E-1	9.878929E-1	9.997608E-1	9.664233E-1	9.809313E-1	9.512156E-1	9.645944E-1	9.877356E-1	9.641437E-1	9.818139E-1	9.577447E-1	9.737923E-1	9.477492E-1	9.789578E-1	9.711423E-1	9.516893E-1	9.883948E-1	1.000918E+0	9.664661E-1	9.326679E-1	9.583076E-1	9.976902E-1	1.010364E+0	9.766739E-1	1.000356E+0	9.610343E-1	1.012093E+0	9.716261E-1	9.419385E-1	9.731733E-1	9.572996E-1	9.934017E-1	9.701904E-1	9.758362E-1	9.967349E-1	9.826616E-1	9.659106E-1	9.782979E-1	9.619035E-1	9.427118E-1	9.593127E-1	9.739635E-1	9.835660E-1	9.554578E-1	9.638619E-1	9.633989E-1	9.736458E-1	9.616320E-1	9.551604E-1	9.362709E-1	9.369144E-1	9.727810E-1	9.778518E-1	9.564618E-1	9.540137E-1	9.261501E-1	9.406186E-1	9.564341E-1	9.300307E-1	9.535178E-1	9.659170E-1	9.502385E-1	9.880724E-1	9.760891E-1	9.618741E-1	9.910520E-1	9.763154E-1	1.004689E+0	9.537641E-1	9.601471E-1	9.825105E-1	9.716058E-1	9.824810E-1	9.778884E-1	9.243182E-1	9.813763E-1	9.680301E-1	9.510857E-1	9.354055E-1	9.948358E-1	9.830267E-1	1.000006E+0	9.621175E-1	9.574750E-1	9.139633E-1	9.343826E-1	9.401723E-1	9.883196E-1	9.964194E-1	9.733070E-1	9.705371E-1	9.783916E-1	9.453497E-1	9.400481E-1	1.004014E+0	9.132572E-1	9.930110E-1	9.424362E-1	9.819718E-1	9.540867E-1	1.004412E+0	9.912134E-1	9.574227E-1	1.009845E+0	9.797370E-1	9.349240E-1	1.025985E+0	9.362068E-1	9.774569E-1	9.603761E-1	9.644764E-1	1.001366E+0	9.332927E-1	9.462617E-1	9.544872E-1	9.754697E-1	9.767121E-1	9.547022E-1	9.757065E-1	9.069471E-1	9.685493E-1	9.685002E-1	9.742738E-1	9.788546E-1	9.767126E-1	9.604341E-1	9.917673E-1	9.697902E-1	9.774217E-1	9.372169E-1	9.578647E-1	9.800151E-1	9.884198E-1	9.593258E-1	9.609310E-1	9.660901E-1	9.643496E-1	9.895201E-1	9.926353E-1	9.745887E-1	9.612009E-1	9.570239E-1	9.462598E-1	9.576454E-1	9.798883E-1	9.514729E-1	8.453298E-1
