Photon Energy (eV)	#1	#2	#3	#4	#5	#6	#7	#8	#9	#10	#11	#12	#13	#14	#15	#16	#17	#18	#19	#20	#21	#22	#23	#24	#25	#26	#27	#28	#29	#30	#31	#32	#33	#34	#35	#36	#37	#38	#39	#40	#41	#42	#43	#44	#45	#46	#47	#48	#49	#50	#51	#52	#53	#54	#55	#56	#57	#58	#59	#60	#61	#62	#63	#64	#65	#66	#67	#68	#69	#70	#71	#72	#73	#74	#75	#76	#77	#78	#79	#80	#81	#82	#83	#84	#85	#86	#87	#88	#89	#90	#91	#92	#93	#94	#95	#96	#97	#98	#99	#100	#101	#102	#103	#104	#105	#106	#107	#108	#109	#110	#111	#112	#113	#114	#115	#116	#117	#118	#119	#120	#121	#122	#123	#124	#125	#126	#127	#128	#129	#130	#131	#132	#133	#134	#135	#136	#137	#138	#139	#140	#141	#142	#143	#144	#145	#146	#147	#148	#149	#150	#151	#152	#153	#154	#155	#156	#157	#158	#159	#160	#161	#162	#163	#164	#165	#166	#167	#168	#169	#170	#171	#172	
5.300160E+2	-8.509914E-3	-6.428986E-3	-3.669136E-3	-1.673392E-3	-8.960084E-3	-4.520573E-3	-8.664859E-3	-1.007908E-3	1.467434E-3	-7.794004E-3	-4.061619E-3	-2.634153E-3	-6.621615E-3	-1.251822E-2	-5.015039E-3	-4.419418E-3	-4.380814E-3	-8.835060E-3	-1.372818E-3	-7.727303E-3	-3.960418E-3	-1.248678E-2	-2.400847E-4	-7.715576E-3	-3.105217E-3	-4.932412E-3	-1.185972E-2	-7.600619E-3	-1.103396E-2	-9.574643E-3	-1.668002E-3	-5.068587E-3	-4.709565E-3	-4.568738E-3	-5.548358E-3	-1.055168E-2	-3.575423E-3	-7.496356E-3	-1.451309E-2	-1.881036E-3	3.909608E-3	-8.534713E-3	-4.851010E-3	-9.098750E-5	-5.321280E-3	-1.236750E-2	-4.138192E-3	-1.111056E-2	-6.900292E-3	-5.333686E-3	-9.991722E-3	1.838285E-3	-3.676835E-3	-1.939707E-3	-8.278000E-4	-1.574687E-3	-4.527404E-3	-3.097610E-3	-1.245774E-3	-1.547652E-2	-1.932229E-3	-1.086003E-2	-4.173060E-3	-1.490582E-2	-8.407242E-3	1.210237E-3	4.779301E-3	-5.683383E-3	-6.553513E-3	-6.120495E-3	3.232330E-3	-8.894506E-3	-6.878178E-3	-8.130072E-3	-5.106019E-3	-6.006237E-3	-4.950069E-3	-3.825664E-3	-1.932385E-3	-8.324330E-3	-1.644074E-3	2.197956E-3	-8.927614E-3	-3.161037E-3	-6.444900E-3	-5.715755E-3	-5.587966E-3	-2.868428E-3	-4.201729E-3	-3.545620E-3	2.701268E-4	-1.087450E-3	-6.779185E-3	-8.864565E-3	-6.246691E-3	-9.159204E-3	2.938349E-3	-7.668000E-3	-5.048475E-3	9.352701E-5	-9.658192E-3	-5.854807E-3	-6.120811E-3	-5.242626E-3	-6.391568E-3	-7.583955E-3	-4.922894E-4	-8.338257E-3	-2.296905E-3	-7.219114E-3	-1.123442E-2	-3.643891E-3	-1.216086E-2	-8.274040E-3	-8.374621E-3	-2.874741E-3	-6.831063E-3	3.112857E-3	-9.949900E-3	-8.361813E-3	-6.571295E-3	-1.075493E-2	-7.149944E-3	-8.332612E-3	-3.290376E-4	-5.192796E-3	1.722854E-4	2.332116E-3	-1.192593E-2	-4.077346E-3	2.294290E-3	-4.067705E-3	-5.845296E-3	4.426916E-3	-3.590186E-3	-5.690822E-3	-9.188780E-3	-7.767041E-3	-6.854069E-3	-5.599531E-3	-9.481722E-4	-6.762920E-3	-9.904571E-3	-1.140674E-2	-1.277090E-2	-9.191216E-3	-7.401987E-3	-6.054231E-3	-1.595356E-4	-1.261897E-2	-7.657761E-3	-5.640638E-3	-4.281659E-3	-4.138528E-3	-7.887839E-3	-6.030864E-3	-6.136730E-3	-3.036675E-3	-3.317583E-3	-5.098629E-3	7.262515E-4	-8.870013E-3	-8.254699E-3	-6.745032E-3	-6.965325E-3	-8.807891E-3	-8.519636E-3	-6.856558E-3	-1.033917E-3	-1.606244E-2	-1.485528E-3	1.114125E-2
5.305080E+2	5.567199E-4	-7.013463E-3	-1.735398E-2	-6.191582E-3	1.792006E-3	2.644114E-3	-1.906241E-3	2.713563E-3	-1.834264E-3	-1.022964E-2	-2.400032E-3	-3.143975E-3	9.459415E-4	-9.736399E-3	-1.774556E-3	-5.235264E-3	-8.761650E-3	-4.463068E-3	-4.118441E-3	-1.085296E-2	-1.172886E-2	3.260880E-3	2.400974E-4	-5.423813E-3	-8.751047E-3	-1.644120E-3	-3.280353E-3	-3.888717E-3	2.582435E-3	-1.235441E-2	-4.713897E-3	1.733983E-3	-2.616445E-3	-9.858802E-3	2.774186E-3	-1.872062E-3	-9.266888E-3	-5.103903E-3	-1.872629E-3	-4.825293E-3	-1.225007E-2	-9.036762E-3	-3.773005E-3	-9.372735E-3	-8.607931E-3	-1.189180E-2	-2.332474E-3	-5.150532E-4	-2.909750E-3	-1.049526E-2	2.629443E-3	-5.514923E-3	-1.875921E-3	-8.405410E-3	-8.278169E-4	-4.199213E-3	-4.527377E-3	-3.097582E-3	-5.232242E-3	3.529732E-3	5.880426E-4	-7.082623E-3	-3.662135E-3	-8.943471E-3	-6.260686E-3	3.444451E-3	-6.466132E-3	-1.770235E-3	-7.941323E-3	-3.023377E-3	-7.707859E-3	2.795409E-3	-4.913012E-4	-3.357893E-8	-2.464991E-3	-6.552264E-3	-5.429087E-3	-7.173123E-3	-6.763271E-3	-3.783771E-3	-5.480351E-4	-1.483632E-2	-5.356563E-3	-5.211468E-3	-6.444878E-3	-5.715780E-3	-4.451401E-3	-3.321305E-3	-4.201713E-3	2.454691E-3	-2.431040E-3	-1.631203E-3	-4.842267E-3	1.583109E-4	-5.740204E-3	-6.316892E-4	-1.869868E-3	-1.034292E-2	-7.853200E-3	-8.885707E-3	-3.512055E-3	-4.806192E-3	-6.677269E-3	-8.529027E-3	-3.239542E-3	9.137062E-5	-9.353719E-3	-2.545370E-3	-3.215647E-3	-4.785697E-3	2.340480E-3	-5.392905E-3	-1.055134E-2	-7.217733E-3	-6.037524E-3	-5.100340E-3	3.300397E-3	-3.449384E-3	-7.718162E-3	-7.358363E-3	-7.885345E-4	-3.645736E-3	-5.990505E-3	-2.543644E-3	-1.217561E-2	-7.746639E-3	-1.274825E-2	-1.256329E-2	-2.455334E-3	-4.646256E-3	-5.863277E-3	-3.513030E-3	-5.845336E-3	-3.676607E-3	8.285118E-4	-1.382059E-2	-7.088480E-3	-1.590835E-3	-5.644487E-3	-6.178774E-3	-5.215049E-3	-1.005301E-2	3.809444E-3	-3.913287E-3	-1.328861E-2	-1.068173E-2	-6.832622E-3	-5.001338E-3	5.583027E-3	-6.057128E-3	-1.978939E-3	-1.827230E-3	3.210363E-8	-6.395968E-3	6.134965E-3	-2.690685E-3	1.320552E-3	-8.097741E-3	-5.745052E-3	-1.066084E-2	-6.354710E-3	-1.349789E-3	-1.500842E-3	-5.665832E-3	2.267777E-3	-8.807866E-3	5.598619E-3	-1.142788E-3	-6.548162E-3	-4.903290E-3	4.456670E-3	-5.570621E-3
5.310100E+2	7.953849E-5	-5.260103E-3	7.040748E-3	-1.673146E-4	-9.895017E-3	-1.450010E-3	-2.946070E-3	-1.938246E-3	-1.724229E-2	-2.922763E-3	4.246254E-3	1.444546E-3	-9.459465E-3	-4.636375E-3	-9.181399E-3	-1.155833E-3	5.475869E-4	1.001917E-3	-1.125707E-2	-4.601685E-3	4.721996E-3	-3.419961E-3	-2.641057E-3	-3.132075E-3	8.468504E-4	-5.871901E-3	-2.523514E-4	1.944351E-3	-2.582437E-3	-2.162007E-3	-2.538255E-3	-3.868154E-3	-6.279433E-3	-4.087816E-3	-2.427426E-3	-7.488237E-3	-4.013217E-3	-4.146930E-3	3.745310E-3	-7.769529E-3	-3.388313E-3	-2.008212E-3	-2.694967E-3	-9.918763E-3	3.130182E-4	3.805396E-3	-8.652644E-3	-4.488348E-3	7.565406E-3	-5.849802E-3	-3.681174E-3	-4.464425E-3	-4.127041E-3	-6.681239E-3	-1.517600E-2	-2.624461E-3	1.016351E-3	-5.678874E-3	2.740696E-3	3.529715E-3	-5.964718E-3	3.305211E-3	-3.151125E-3	-3.439807E-3	-6.797349E-3	1.768778E-3	-2.530245E-3	-1.015557E-2	-4.703108E-3	-3.465799E-3	-2.485972E-4	-2.287189E-3	4.912992E-4	-1.067068E-2	-8.803716E-4	-3.276139E-3	-1.117705E-3	-9.564111E-3	1.449266E-3	4.843224E-3	-9.864588E-3	-2.197969E-3	-4.336259E-3	6.578405E-3	-2.350532E-3	2.286491E-4	-5.587959E-3	-1.509722E-4	-1.519791E-3	-1.909241E-3	-5.672368E-3	2.718651E-3	2.905341E-3	-1.171389E-2	-6.246685E-3	-3.474164E-3	-6.678118E-3	-2.853213E-3	1.009699E-2	-4.396112E-3	-4.389938E-4	4.107118E-3	3.338620E-3	-7.120599E-3	-3.239561E-3	-1.553334E-3	-1.289824E-2	-7.811642E-3	-5.971901E-3	-6.245724E-3	-4.681043E-3	-4.081073E-3	-3.040179E-3	-3.520848E-3	-4.284673E-3	-6.769551E-3	-7.752109E-3	-8.497265E-3	-3.812577E-3	4.682638E-3	-7.885537E-4	7.291464E-4	-7.149955E-3	6.139920E-4	-3.784320E-3	-6.214375E-3	-3.962319E-3	-8.049523E-3	-3.507877E-4	-5.784085E-3	-5.863283E-3	-1.294287E-3	-3.001639E-3	-7.278132E-3	-5.247152E-3	1.354953E-3	-1.312669E-3	-2.152356E-3	-8.063626E-4	-9.654503E-4	-2.844593E-3	-1.827840E-3	-3.301513E-3	2.081524E-3	5.349993E-3	-1.242055E-3	3.416333E-3	-7.896698E-4	-9.251874E-3	-1.514233E-3	6.023048E-4	7.941015E-5	-4.816896E-3	2.633608E-3	-7.303504E-3	-7.700978E-3	-5.204589E-3	-1.164052E-2	-6.716046E-3	3.708074E-3	-2.541900E-3	-3.663680E-3	-4.877778E-3	-1.349043E-3	-5.507435E-3	6.366094E-3	1.217101E-3	-1.428456E-2	-8.615985E-3	2.198027E-3	4.456734E-3	-1.225535E-2
5.315180E+2	-4.215188E-3	1.544906E-8	-6.941397E-4	4.350836E-3	1.324514E-3	-2.985277E-3	2.252870E-3	-3.333792E-3	-4.585709E-3	2.327650E-8	-4.615450E-3	5.013420E-3	4.729710E-3	3.709091E-3	-4.552118E-3	6.798653E-5	1.095206E-2	3.734396E-3	1.921946E-3	5.817186E-3	-2.132475E-3	-6.283156E-3	2.160852E-3	-1.756989E-3	-3.105203E-3	2.349038E-4	6.308349E-3	-7.600606E-3	2.582426E-3	7.103781E-3	-3.408501E-3	-3.067848E-3	-7.325987E-3	1.202304E-3	4.854818E-3	5.786406E-3	-7.295719E-5	6.380072E-4	-5.618005E-3	4.498168E-3	7.037273E-3	-2.008166E-3	-4.311984E-3	-3.366921E-3	3.130096E-4	8.562082E-3	1.279064E-3	4.341190E-3	-5.403881E-3	4.989577E-3	-5.258800E-3	1.838272E-3	-5.027492E-3	1.939724E-3	4.138933E-3	-1.049803E-3	-3.418647E-3	2.624333E-9	3.239026E-3	-6.244891E-3	-5.964752E-3	5.193919E-3	-8.518752E-5	3.898442E-3	7.691735E-3	-1.219528E-2	-8.434309E-4	2.701955E-3	-6.090921E-3	3.170868E-3	-3.729648E-3	-3.811932E-3	-1.473884E-3	-1.498137E-8	-1.936764E-3	-2.184084E-3	6.546804E-3	-9.564412E-4	1.449281E-3	3.026903E-4	-7.124383E-3	1.648501E-3	-2.805812E-3	-7.774437E-3	-7.578475E-5	5.715728E-3	9.470388E-5	-6.038848E-4	-6.347307E-3	-4.091179E-3	-4.591942E-3	5.527937E-10	-6.779206E-3	1.108086E-3	-1.181828E-3	-1.579328E-4	-5.609593E-3	-2.318237E-3	-4.487558E-3	6.547096E-4	5.707095E-3	-4.281891E-3	-2.782164E-3	-2.895186E-3	9.631066E-4	-7.035708E-3	1.870762E-3	2.720918E-3	-6.431286E-3	-4.299006E-3	4.212944E-3	-1.457759E-4	1.788372E-3	-7.217765E-3	3.310933E-3	-3.987556E-3	-8.442874E-4	-3.449403E-3	-4.370536E-3	3.177496E-3	-2.891345E-3	-7.473745E-3	1.545959E-3	8.772370E-5	5.594205E-3	1.957965E-3	1.257596E-2	4.137606E-3	-6.664507E-3	-6.353026E-3	-1.784480E-3	1.479175E-3	8.373027E-3	-9.754379E-4	1.297981E-2	-2.709860E-4	8.663687E-3	-3.275258E-3	-6.249258E-3	-1.544701E-3	4.266838E-3	1.133247E-2	-5.333232E-3	4.579368E-3	3.796765E-3	5.713453E-3	-2.277532E-3	-5.001322E-3	-4.944955E-3	1.009503E-3	-1.979012E-3	-1.827204E-3	-4.816890E-3	2.633604E-3	2.921311E-4	2.876250E-3	-5.437580E-4	1.518314E-3	8.089845E-5	-6.025690E-3	-1.997194E-3	-2.506743E-3	-3.752226E-4	-5.126217E-3	-3.563683E-3	-6.191659E-3	-1.703954E-3	7.551765E-9	9.305309E-3	4.226934E-3	5.942236E-3	2.116821E-2
5.320070E+2	5.328631E-3	1.110463E-2	-5.454093E-3	-2.175423E-3	1.792044E-3	5.970585E-4	1.213081E-2	5.039479E-3	9.171389E-3	6.819757E-3	-1.292347E-3	-3.653855E-3	-4.729708E-4	6.954557E-3	6.095227E-3	-7.479115E-4	-4.380807E-3	-1.184062E-3	9.609681E-3	7.380043E-3	-2.132553E-3	3.260891E-3	2.641055E-3	5.118249E-3	-1.411433E-3	3.523121E-3	-7.569691E-4	4.065428E-3	1.643318E-3	8.493633E-3	3.988703E-3	4.134902E-3	7.849286E-3	9.377872E-3	-1.387081E-3	7.318065E-3	8.245345E-3	7.815345E-3	9.363322E-3	-2.862466E-3	-2.867038E-3	1.656744E-2	4.311982E-3	7.552785E-3	-4.382274E-3	9.037765E-3	4.890641E-3	-4.046874E-3	5.819243E-4	-1.204364E-3	1.156937E-2	-3.939212E-3	5.777886E-3	7.543320E-3	1.379660E-3	-3.149355E-3	4.342603E-3	1.239031E-2	-5.232257E-3	1.330435E-2	7.140886E-3	4.721890E-4	6.046724E-3	8.943458E-3	3.935289E-3	4.561577E-3	-3.092463E-3	-5.683437E-3	1.380093E-2	6.710422E-3	-6.713348E-3	7.878004E-3	9.826128E-4	1.067071E-2	3.873563E-3	9.282398E-3	3.193598E-4	4.303851E-3	-2.898570E-3	1.664877E-3	7.672408E-3	4.395952E-3	1.275380E-3	2.477567E-3	5.838312E-3	-1.143145E-3	7.482161E-3	-1.509529E-4	9.208039E-3	1.909202E-3	1.350579E-3	1.631201E-3	4.358086E-3	5.382053E-3	2.363640E-3	6.474608E-3	8.013679E-4	7.846358E-3	3.365632E-3	2.338357E-3	1.756036E-3	9.612359E-4	7.233698E-3	1.165897E-2	1.488437E-3	1.736089E-3	1.191365E-2	1.141041E-3	7.350037E-3	7.867998E-3	5.149126E-3	4.664142E-3	3.397895E-3	1.285113E-2	6.232274E-3	1.270451E-2	9.977960E-4	8.413493E-5	1.125175E-2	3.177468E-3	2.365634E-3	1.276007E-2	7.343178E-3	8.773333E-5	1.645356E-3	6.044051E-3	-3.445346E-4	1.429343E-3	7.541435E-3	-9.482346E-5	4.333732E-3	-4.067739E-3	5.055410E-3	-2.776192E-3	-4.694840E-3	2.438909E-3	-7.875945E-4	-7.205575E-3	9.474705E-3	5.985713E-3	-4.740591E-4	2.558946E-3	4.825289E-3	5.078887E-3	1.725781E-3	5.713498E-3	2.277527E-3	-2.632008E-4	1.754669E-3	7.066616E-3	3.699822E-3	5.561007E-4	-5.352376E-4	1.504919E-3	-2.629286E-3	2.319558E-3	-5.204587E-3	5.567219E-3	3.964913E-3	6.489218E-3	3.994376E-3	9.062828E-3	1.031839E-2	6.205438E-3	-1.133901E-3	1.107526E-2	-6.085480E-3	5.713637E-4	-1.033951E-3	5.241480E-3	-5.942260E-3	-1.225531E-2
5.325070E+2	6.760213E-3	7.597910E-3	2.013060E-2	5.856877E-3	1.394654E-2	5.714687E-3	-8.665100E-4	-1.473095E-3	1.302344E-2	1.412663E-2	8.123195E-3	2.974017E-3	1.087840E-2	1.622734E-2	1.442788E-2	1.149044E-2	6.023625E-3	9.745877E-3	5.216704E-3	9.984723E-3	1.523231E-2	1.566813E-2	-2.160863E-3	1.291020E-2	1.552605E-2	8.690408E-3	9.841040E-3	1.308016E-2	6.808219E-3	8.493641E-3	8.339952E-3	6.135704E-3	1.308214E-2	7.935180E-3	1.733861E-3	6.807512E-3	8.683139E-3	8.293837E-3	8.895096E-3	1.284016E-2	7.558538E-3	5.020414E-3	1.131898E-2	1.519662E-2	1.768546E-2	2.854056E-3	8.953604E-3	1.581964E-2	7.066592E-3	1.789354E-2	4.732881E-3	1.024200E-2	8.929404E-3	7.543312E-3	1.131303E-2	1.259752E-2	7.114474E-3	-5.162520E-4	5.730551E-3	1.357615E-3	6.132770E-3	8.971337E-3	5.024783E-3	1.444720E-2	9.838252E-3	1.210237E-3	8.152969E-3	2.059067E-2	1.148793E-2	2.728380E-3	1.516712E-2	4.320214E-3	7.369450E-3	8.130092E-3	6.514582E-3	8.736327E-3	4.630698E-3	1.721549E-2	8.695678E-3	5.297310E-3	1.150867E-2	8.791884E-3	2.015087E-2	7.090970E-3	9.477783E-3	6.630303E-3	8.050461E-3	7.095543E-3	7.062501E-3	5.182147E-3	1.107464E-2	-1.631200E-3	1.113723E-2	1.393001E-2	1.705177E-2	6.948382E-3	1.041786E-2	1.533602E-2	3.926607E-3	1.019523E-2	6.146111E-3	9.874536E-3	5.007925E-3	1.212847E-2	1.041913E-2	1.434554E-2	8.959837E-3	1.483331E-2	1.056570E-2	1.468154E-2	4.212916E-3	8.599503E-3	2.056611E-2	1.337926E-2	9.153611E-3	6.027683E-3	1.112927E-2	1.219906E-2	1.459942E-2	4.682574E-3	8.674094E-3	8.385188E-3	1.140127E-2	1.008681E-2	9.049403E-3	1.115179E-2	4.306858E-3	1.271375E-2	1.385513E-2	2.095554E-2	6.883018E-3	1.146359E-2	1.263835E-3	1.027945E-2	-2.761459E-4	1.598854E-2	9.713835E-3	2.199107E-2	1.007947E-2	8.302743E-3	5.215035E-3	4.752350E-3	9.904582E-3	3.580248E-3	1.518697E-2	9.688052E-3	1.081828E-2	1.710976E-2	7.018668E-3	1.211421E-2	7.313585E-3	8.659561E-3	1.445065E-2	3.762365E-3	1.139353E-2	1.122672E-2	1.576911E-2	1.568940E-2	1.173287E-2	1.158787E-2	6.173175E-3	7.327398E-3	4.690153E-3	1.268069E-2	1.490257E-2	6.366065E-3	9.493350E-3	2.171253E-2	7.926706E-3	9.299294E-3	-7.427852E-3	-2.228173E-3
5.330280E+2	1.105495E-2	2.162476E-2	1.775062E-2	2.041549E-2	1.020669E-2	2.260293E-2	2.044909E-2	3.388083E-2	1.742572E-2	2.143352E-2	2.584659E-2	2.285777E-2	1.797298E-2	2.410912E-2	1.211325E-2	2.495264E-2	2.738012E-2	1.958286E-2	3.816430E-2	2.457115E-2	2.254379E-2	1.280494E-2	2.328930E-2	1.703539E-2	2.455944E-2	1.338793E-2	2.245772E-2	2.262508E-2	2.042460E-2	1.914931E-2	1.965332E-2	2.254191E-2	1.517527E-2	2.043904E-2	8.496019E-3	1.855050E-2	1.787707E-2	2.264858E-2	2.013111E-2	1.774717E-2	2.319694E-2	1.556337E-2	1.886499E-2	3.157624E-2	2.003308E-2	1.331884E-2	2.655988E-2	1.537814E-2	2.502403E-2	1.789355E-2	3.681170E-3	2.337270E-2	1.973476E-2	2.004374E-2	1.903900E-2	1.679665E-2	2.928946E-2	1.910171E-2	7.723802E-3	2.144989E-2	1.772618E-2	3.352442E-2	1.320065E-2	2.362000E-2	1.520458E-2	2.466987E-2	3.682875E-2	2.059068E-2	3.045457E-2	2.086862E-2	2.461551E-2	1.905972E-2	1.965185E-2	1.270322E-2	2.500188E-2	1.965678E-2	1.852278E-2	2.391039E-2	1.111109E-2	1.801084E-2	7.672472E-3	1.538580E-2	1.249864E-2	2.451941E-2	2.585543E-2	2.034817E-2	1.032350E-2	1.434211E-2	2.369063E-2	3.191119E-2	2.728153E-2	1.033091E-2	2.517983E-2	1.867890E-2	2.262314E-2	2.210842E-2	1.255480E-2	1.694092E-2	1.514541E-2	7.389226E-3	9.658213E-3	2.245801E-2	1.335454E-2	2.480464E-2	1.882449E-2	1.379734E-2	2.491032E-2	1.957294E-2	1.102508E-2	1.614157E-2	2.293701E-2	8.599533E-3	1.842012E-2	2.499810E-2	3.077180E-2	1.604292E-2	1.343188E-2	1.724698E-2	1.013596E-2	1.772702E-2	1.708536E-2	2.807217E-2	2.241607E-2	3.219014E-2	2.138959E-2	3.056102E-2	1.360964E-2	9.102718E-3	1.964277E-2	2.152448E-2	1.351102E-2	2.144799E-2	2.259135E-2	2.828722E-2	2.789280E-2	3.387401E-2	1.969018E-2	2.030667E-2	3.306070E-2	2.568064E-2	1.469694E-2	1.900933E-2	2.920582E-2	1.856717E-2	1.829338E-2	1.564997E-2	2.505284E-2	1.079231E-2	2.424627E-2	1.312376E-2	1.970380E-2	2.343635E-2	1.552105E-2	1.222757E-2	1.782063E-2	2.124731E-2	1.576910E-2	3.188490E-2	2.289936E-2	1.529597E-2	2.578199E-2	3.046666E-2	2.101204E-2	1.322029E-2	1.295872E-2	2.049363E-2	2.653268E-2	2.114110E-2	2.309089E-2	2.755973E-2	2.971135E-2	-2.228255E-3
5.331580E+2	2.727946E-2	2.454703E-2	2.727053E-2	2.794575E-2	2.095880E-2	2.106764E-2	1.680982E-2	3.434605E-2	3.118284E-2	4.091858E-2	2.473887E-2	2.999547E-2	2.459461E-2	2.874550E-2	3.572260E-2	1.924143E-2	2.792767E-2	2.395480E-2	2.882920E-2	2.040359E-2	2.711350E-2	2.807541E-2	3.001201E-2	2.528570E-2	2.738233E-2	2.184347E-2	2.649509E-2	2.474623E-2	2.042458E-2	3.768092E-2	3.401260E-2	3.574697E-2	2.302460E-2	1.899629E-2	2.254037E-2	2.978287E-2	2.794661E-2	3.604629E-2	2.528088E-2	2.657987E-2	2.006926E-2	2.610631E-2	2.533300E-2	3.376012E-2	2.707595E-2	2.425931E-2	1.843393E-2	2.685659E-2	1.405002E-2	2.460366E-2	2.261286E-2	3.072595E-2	2.288637E-2	2.219898E-2	3.173165E-2	3.831735E-2	2.152820E-2	1.393905E-2	2.366966E-2	1.384736E-2	3.486432E-2	2.360874E-2	2.495350E-2	1.949221E-2	2.486393E-2	4.477807E-2	2.445881E-2	2.450386E-2	1.703913E-2	2.396576E-2	4.052856E-2	3.125792E-2	1.916055E-2	3.099593E-2	3.239681E-2	2.784710E-2	1.804375E-2	3.299632E-2	2.512076E-2	3.027023E-2	3.068975E-2	2.637565E-2	1.964071E-2	2.093122E-2	3.222452E-2	2.857890E-2	2.566669E-2	3.245846E-2	3.763680E-2	2.754724E-2	2.836195E-2	2.120555E-2	2.033759E-2	2.912644E-2	3.579177E-2	1.926594E-2	2.323983E-2	3.352523E-2	1.738919E-2	2.422534E-2	1.448730E-2	2.560389E-2	3.060414E-2	2.903005E-2	2.775523E-2	2.421385E-2	3.672550E-2	2.062618E-2	1.883449E-2	3.171530E-2	2.153271E-2	2.259197E-2	1.842009E-2	2.658250E-2	3.719878E-2	1.993774E-2	2.033970E-2	2.885714E-2	3.356933E-2	3.277826E-2	1.761107E-2	2.205668E-2	2.415524E-2	2.219104E-2	2.879372E-2	2.749638E-2	1.309284E-2	2.760915E-2	2.279961E-2	3.176514E-2	2.472777E-2	2.422144E-2	2.022162E-2	3.864170E-2	3.010219E-2	2.195036E-2	2.494095E-2	2.535994E-2	2.459396E-2	2.973547E-2	2.560108E-2	3.271795E-2	3.123750E-2	2.805898E-2	2.398857E-2	1.912773E-2	1.878963E-2	3.448278E-2	2.041790E-2	1.463802E-2	4.551653E-2	4.583991E-2	3.050689E-2	3.028674E-2	2.307909E-2	1.623699E-2	2.042990E-2	3.036655E-2	1.610232E-2	2.132167E-2	2.142445E-2	3.162359E-2	1.313252E-2	3.156677E-2	3.434070E-2	2.886542E-2	2.945367E-2	2.285530E-2	2.860518E-2	3.364653E-2	3.119704E-2	3.788010E-2
5.333130E+2	2.680226E-2	3.331384E-2	3.738544E-2	4.601851E-2	3.264585E-2	3.079117E-2	3.032706E-2	3.667198E-2	3.173313E-2	4.773831E-2	2.529276E-2	3.101521E-2	4.351348E-2	3.430915E-2	3.618545E-2	3.433536E-2	3.887973E-2	2.504782E-2	4.420474E-2	4.488789E-2	3.031225E-2	2.855257E-2	4.057625E-2	3.170257E-2	3.020522E-2	1.573666E-2	4.113046E-2	4.383615E-2	3.638866E-2	4.509353E-2	4.750165E-2	3.494668E-2	3.349032E-2	3.053830E-2	3.606461E-2	3.386742E-2	2.137953E-2	3.987425E-2	3.043071E-2	4.522669E-2	2.997354E-2	3.514307E-2	3.719106E-2	3.048425E-2	3.599694E-2	3.091868E-2	4.552047E-2	4.142535E-2	4.447794E-2	3.647535E-2	3.523401E-2	2.442319E-2	3.234106E-2	3.383727E-2	3.393908E-2	3.201859E-2	3.483323E-2	3.407332E-2	3.214094E-2	3.665491E-2	3.183997E-2	3.210792E-2	3.517329E-2	3.508598E-2	3.613321E-2	3.416538E-2	3.851561E-2	4.239263E-2	2.814159E-2	2.573559E-2	3.655025E-2	5.057177E-2	2.849523E-2	3.658536E-2	4.665846E-2	3.658348E-2	3.576810E-2	3.730016E-2	4.202898E-2	3.027022E-2	3.836215E-2	3.901405E-2	2.627266E-2	4.143526E-2	3.085970E-2	3.818137E-2	3.532724E-2	3.336425E-2	3.817320E-2	3.027469E-2	5.051133E-2	2.664287E-2	4.309633E-2	3.482509E-2	4.338911E-2	2.352965E-2	3.873309E-2	4.743466E-2	3.085188E-2	2.927614E-2	3.248668E-2	3.871171E-2	3.728140E-2	3.466390E-2	3.353386E-2	3.353394E-2	3.849779E-2	3.063205E-2	3.031894E-2	3.074197E-2	3.791628E-2	2.259197E-2	3.988046E-2	3.556066E-2	3.252462E-2	3.273498E-2	3.645798E-2	1.926611E-2	2.296850E-2	4.030389E-2	3.022791E-2	3.572819E-2	2.647415E-2	3.692662E-2	3.718501E-2	4.384100E-2	2.394608E-2	2.580362E-2	3.911010E-2	4.712624E-2	4.308240E-2	2.366677E-2	2.164345E-2	3.639074E-2	3.452084E-2	2.899615E-2	4.016800E-2	3.602796E-2	5.422765E-2	4.016220E-2	4.409076E-2	3.216968E-2	3.428507E-2	2.705982E-2	3.434336E-2	3.452925E-2	3.757927E-2	2.132143E-2	1.276122E-2	3.785697E-2	5.532542E-2	3.630652E-2	2.676047E-2	5.286071E-2	3.768622E-2	3.015439E-2	4.047140E-2	2.328101E-2	3.163830E-2	2.873790E-2	4.212271E-2	4.724254E-2	4.071073E-2	4.073998E-2	2.607947E-2	4.299293E-2	4.649303E-2	4.171083E-2	3.136235E-2	3.871888E-2	1.931243E-2	4.456458E-3
5.334630E+2	4.541270E-2	5.902980E-2	3.679040E-2	4.601851E-2	3.732066E-2	4.102647E-2	5.008296E-2	3.667194E-2	4.494000E-2	4.725119E-2	4.578541E-2	4.172178E-2	5.108111E-2	3.755463E-2	4.451819E-2	3.188769E-2	5.530786E-2	3.652427E-2	4.310645E-2	4.957641E-2	5.681654E-2	3.952827E-2	5.162064E-2	5.691172E-2	3.133441E-2	3.828477E-2	7.342911E-2	4.436641E-2	5.235273E-2	4.648332E-2	5.359333E-2	4.855177E-2	5.389847E-2	3.582839E-2	3.658476E-2	4.101533E-2	4.414539E-2	4.753002E-2	5.290261E-2	4.179178E-2	5.134604E-2	4.669013E-2	5.659504E-2	2.993822E-2	5.524743E-2	4.994564E-2	5.184072E-2	4.054239E-2	5.295785E-2	4.473389E-2	5.258811E-2	4.228100E-2	4.494731E-2	5.452760E-2	7.036155E-2	5.458915E-2	3.594198E-2	4.181724E-2	3.762234E-2	4.154219E-2	5.200247E-2	3.966270E-2	6.378890E-2	4.425871E-2	4.686583E-2	3.416544E-2	4.357605E-2	4.742380E-2	4.433260E-2	4.210605E-2	4.400953E-2	5.514613E-2	3.193429E-2	5.030483E-2	5.986363E-2	4.531986E-2	4.199554E-2	5.116821E-2	5.700487E-2	4.252971E-2	3.891016E-2	3.296963E-2	3.953651E-2	4.194786E-2	4.996698E-2	3.772415E-2	5.748964E-2	3.925207E-2	4.031876E-2	5.263976E-2	7.103990E-2	5.817931E-2	5.132817E-2	5.097124E-2	6.364867E-2	5.337607E-2	3.766459E-2	4.796966E-2	5.497237E-2	3.601064E-2	5.136407E-2	5.129516E-2	5.119237E-2	5.015691E-2	3.668590E-2	4.395045E-2	4.617767E-2	4.695751E-2	3.675026E-2	5.896941E-2	5.383179E-2	4.051975E-2	3.666139E-2	6.988912E-2	5.238989E-2	4.052460E-2	4.889203E-2	4.198164E-2	5.644486E-2	4.833122E-2	3.601064E-2	4.830603E-2	4.676458E-2	4.113671E-2	3.965310E-2	5.763174E-2	4.203481E-2	4.115039E-2	4.858069E-2	5.736693E-2	3.747405E-2	3.531525E-2	3.064843E-2	4.179307E-2	6.048041E-2	5.230151E-2	4.751900E-2	3.995826E-2	4.576084E-2	4.653406E-2	4.930578E-2	4.861998E-2	5.104668E-2	4.404506E-2	2.916594E-2	4.049113E-2	4.896695E-2	4.343245E-2	3.908120E-2	3.735219E-2	4.603282E-2	6.204672E-2	4.870403E-2	5.116766E-2	5.346185E-2	4.462851E-2	3.348018E-2	5.972083E-2	3.649334E-2	2.363926E-2	5.846344E-2	6.344007E-2	5.534414E-2	4.397763E-2	3.677045E-2	5.293452E-2	4.941413E-2	6.456615E-2	4.101223E-2	5.292140E-2	4.605261E-2	1.782588E-2
5.336030E+2	5.543370E-2	3.974283E-2	6.297018E-2	5.103867E-2	5.041018E-2	5.228526E-2	6.360026E-2	5.667484E-2	7.630627E-2	5.942935E-2	5.630863E-2	4.121199E-2	5.439181E-2	5.888196E-2	6.072059E-2	5.350879E-2	6.516467E-2	6.712797E-2	6.177680E-2	5.739046E-2	4.813406E-2	5.193540E-2	6.746698E-2	5.966203E-2	5.561152E-2	4.861926E-2	7.090591E-2	6.769851E-2	4.812691E-2	7.381756E-2	7.360929E-2	4.735136E-2	6.384077E-2	5.169870E-2	5.947192E-2	4.305750E-2	4.545882E-2	5.853536E-2	6.741559E-2	5.798506E-2	6.698441E-2	5.422076E-2	5.443907E-2	5.013972E-2	6.463791E-2	7.515613E-2	7.305850E-2	5.466980E-2	6.093898E-2	6.073496E-2	6.047617E-2	6.749203E-2	5.575266E-2	6.616588E-2	4.883911E-2	7.243546E-2	4.481197E-2	5.988644E-2	6.104286E-2	6.326366E-2	6.662023E-2	6.468797E-2	6.532195E-2	6.719080E-2	5.813508E-2	5.427366E-2	5.988189E-2	7.369780E-2	5.821070E-2	5.847649E-2	6.141450E-2	6.632775E-2	4.962098E-2	5.284555E-2	6.461751E-2	5.842433E-2	6.594734E-2	5.021178E-2	6.086953E-2	5.070267E-2	6.028340E-2	7.473122E-2	4.616847E-2	6.091414E-2	4.723736E-2	6.561718E-2	5.976267E-2	5.691549E-2	5.909248E-2	5.700372E-2	7.320084E-2	6.144169E-2	4.212784E-2	7.376587E-2	6.719407E-2	6.616736E-2	5.422631E-2	6.990370E-2	6.955684E-2	5.396917E-2	5.355919E-2	5.496532E-2	7.011129E-2	5.719938E-2	5.244597E-2	6.971764E-2	8.457688E-2	5.696337E-2	5.466591E-2	6.870295E-2	9.034358E-2	5.057683E-2	5.865826E-2	6.143900E-2	6.933391E-2	4.330658E-2	4.751044E-2	5.964929E-2	7.150932E-2	5.635855E-2	6.071867E-2	5.924312E-2	5.140236E-2	7.744939E-2	4.458911E-2	7.601940E-2	5.443853E-2	4.611552E-2	5.278985E-2	7.500384E-2	6.296663E-2	6.970600E-2	5.102806E-2	7.015536E-2	7.705053E-2	6.314121E-2	6.222105E-2	6.297876E-2	6.934682E-2	6.275331E-2	7.490690E-2	5.739353E-2	7.949045E-2	6.752467E-2	6.851398E-2	4.943401E-2	5.750774E-2	5.922606E-2	5.152349E-2	5.400912E-2	6.461796E-2	6.586010E-2	6.422509E-2	5.624678E-2	7.508030E-2	4.963879E-2	6.936829E-2	7.490410E-2	6.076835E-2	4.588786E-2	6.391030E-2	7.038166E-2	5.309285E-2	5.476969E-2	5.037717E-2	5.398099E-2	7.667691E-2	4.799612E-2	6.513710E-2	5.190692E-2	8.170632E-2	2.451062E-2
5.337580E+2	8.740552E-2	7.364112E-2	9.212462E-2	8.718403E-2	8.079653E-2	8.554997E-2	7.399797E-2	7.853845E-2	7.410516E-2	8.475997E-2	7.237053E-2	8.760729E-2	8.608091E-2	8.716379E-2	8.664461E-2	6.370747E-2	9.364003E-2	6.876771E-2	8.648741E-2	6.885130E-2	8.194955E-2	7.293250E-2	8.907553E-2	9.266317E-2	8.045314E-2	6.224209E-2	1.067373E-1	6.133525E-2	9.461049E-2	8.910593E-2	8.883873E-2	6.775913E-2	8.110938E-2	6.131708E-2	9.380253E-2	7.369148E-2	6.778673E-2	6.858358E-2	8.707856E-2	7.908544E-2	8.314406E-2	9.739676E-2	6.899205E-2	7.470914E-2	9.046171E-2	7.943728E-2	9.382458E-2	8.336557E-2	8.089182E-2	8.447803E-2	9.097730E-2	7.694616E-2	7.511233E-2	8.039041E-2	8.802051E-2	6.561195E-2	8.528121E-2	7.743931E-2	8.047694E-2	7.466737E-2	8.577439E-2	8.546356E-2	8.014080E-2	8.416048E-2	7.316065E-2	8.890466E-2	1.003654E-1	8.655526E-2	7.717715E-2	9.165984E-2	8.080831E-2	7.903422E-2	7.418581E-2	7.723560E-2	8.944329E-2	7.698908E-2	1.023541E-1	7.842609E-2	9.661862E-2	7.522161E-2	8.384883E-2	7.912709E-2	8.391920E-2	7.680465E-2	7.771791E-2	7.430507E-2	9.556329E-2	9.088360E-2	7.947531E-2	7.118646E-2	9.480990E-2	8.210332E-2	7.699229E-2	9.371111E-2	1.006220E-1	6.521983E-2	8.040465E-2	9.183764E-2	8.975064E-2	8.932491E-2	7.419251E-2	8.589971E-2	8.903007E-2	6.987553E-2	8.186456E-2	8.890603E-2	8.989382E-2	7.908167E-2	9.279450E-2	1.076373E-1	9.830161E-2	6.369478E-2	6.670584E-2	7.622665E-2	9.562615E-2	7.335232E-2	7.606276E-2	7.984069E-2	6.369809E-2	8.646078E-2	1.085579E-1	8.002403E-2	8.096848E-2	6.481884E-2	8.506487E-2	7.244412E-2	9.320006E-2	6.778158E-2	8.277976E-2	9.036463E-2	7.469320E-2	7.358884E-2	6.287665E-2	7.870881E-2	1.041148E-1	8.427841E-2	7.587290E-2	8.936807E-2	9.353784E-2	7.491797E-2	9.007774E-2	8.700421E-2	9.574438E-2	7.801540E-2	6.644303E-2	5.340861E-2	8.711567E-2	6.764949E-2	7.353643E-2	9.388516E-2	9.404451E-2	8.159026E-2	8.563348E-2	8.502863E-2	9.728307E-2	7.858703E-2	9.174035E-2	9.514855E-2	9.475297E-2	7.647980E-2	9.495773E-2	8.600073E-2	1.043093E-1	8.228940E-2	7.273104E-2	9.374733E-2	1.015057E-1	9.942057E-2	6.858353E-2	9.248569E-2	9.656189E-2	7.464593E-2
5.339090E+2	8.740533E-2	1.297486E-1	1.302042E-1	1.057587E-1	1.055728E-1	1.208617E-1	1.254675E-1	1.134272E-1	9.776748E-2	1.261655E-1	1.000633E-1	1.023927E-1	1.135135E-1	1.163730E-1	1.116425E-1	9.879059E-2	1.204724E-1	1.146734E-1	1.144931E-1	1.011499E-1	1.445546E-1	1.282879E-1	1.318125E-1	1.151222E-1	1.211035E-1	7.774385E-2	1.264193E-1	1.164841E-1	1.298255E-1	1.108805E-1	1.358331E-1	9.897110E-2	9.890094E-2	1.045998E-1	9.692367E-2	1.058568E-1	1.014980E-1	1.035136E-1	1.310862E-1	9.675082E-2	1.222401E-1	1.104495E-1	1.061830E-1	1.107441E-1	1.050174E-1	1.403230E-1	1.191056E-1	1.094130E-1	1.098229E-1	1.144156E-1	1.104351E-1	1.047835E-1	9.222067E-2	1.109949E-1	1.200285E-1	1.144270E-1	1.085652E-1	1.089314E-1	9.642268E-2	1.170242E-1	1.160181E-1	1.199324E-1	1.245967E-1	1.222277E-1	1.257506E-1	1.145983E-1	1.222940E-1	1.323951E-1	1.109470E-1	9.696925E-2	1.245692E-1	1.308766E-1	1.002244E-1	1.072153E-1	1.190232E-1	1.223092E-1	1.488208E-1	1.343762E-1	1.304348E-1	1.088214E-1	1.172787E-1	1.230864E-1	1.053456E-1	1.090988E-1	1.182069E-1	1.131727E-1	1.262498E-1	1.207753E-1	1.138043E-1	1.099160E-1	1.315456E-1	1.158149E-1	1.152462E-1	1.207797E-1	1.259463E-1	1.016987E-1	1.183361E-1	1.410557E-1	1.239680E-1	1.072838E-1	1.044841E-1	1.121152E-1	1.263112E-1	1.154159E-1	9.342200E-2	1.261861E-1	1.442436E-1	1.096259E-1	1.097915E-1	1.217510E-1	1.427710E-1	1.096075E-1	1.241122E-1	1.126673E-1	1.376940E-1	1.128568E-1	9.540445E-2	1.227478E-1	1.088910E-1	1.015123E-1	1.143402E-1	1.128356E-1	1.232884E-1	1.000787E-1	1.062899E-1	1.378226E-1	1.273101E-1	1.115651E-1	1.101394E-1	1.233628E-1	1.149713E-1	1.285032E-1	9.368304E-2	1.354337E-1	1.411211E-1	1.178815E-1	1.142029E-1	1.135110E-1	1.388949E-1	1.067772E-1	1.085677E-1	1.242918E-1	1.379025E-1	1.004960E-1	1.006138E-1	1.025940E-1	1.372213E-1	1.023953E-1	8.932827E-2	1.246756E-1	1.337964E-1	1.230605E-1	9.633778E-2	1.104240E-1	1.335087E-1	1.208961E-1	1.229679E-1	1.356374E-1	1.374769E-1	1.093896E-1	1.085750E-1	1.172385E-1	1.324509E-1	1.141259E-1	9.702884E-2	1.204324E-1	1.175712E-1	1.211329E-1	1.133870E-1	1.158185E-1	1.500424E-1	9.470015E-2
5.340740E+2	1.656649E-1	1.998833E-1	1.700692E-1	1.720254E-1	1.714882E-1	1.699909E-1	1.883744E-1	1.892523E-1	1.951681E-1	1.982601E-1	2.113880E-1	1.895750E-1	1.995945E-1	2.002912E-1	1.852480E-1	1.726287E-1	1.861845E-1	1.775209E-1	1.957639E-1	1.761656E-1	1.824831E-1	1.783943E-1	2.278510E-1	1.852500E-1	2.046617E-1	1.604204E-1	2.157456E-1	1.663300E-1	1.734916E-1	2.095615E-1	2.241644E-1	1.513912E-1	2.046050E-1	1.642333E-1	1.957547E-1	1.564025E-1	1.851191E-1	1.580614E-1	1.872657E-1	1.870406E-1	1.884425E-1	1.772215E-1	1.978135E-1	2.046538E-1	1.979832E-1	2.102473E-1	2.130057E-1	1.906449E-1	1.891351E-1	1.742903E-1	1.861618E-1	1.825174E-1	1.827157E-1	1.782385E-1	1.724546E-1	1.984103E-1	1.745354E-1	1.755291E-1	1.522337E-1	2.006516E-1	2.062457E-1	1.813154E-1	1.823391E-1	1.855200E-1	1.778040E-1	1.872115E-1	1.824574E-1	1.827075E-1	1.678470E-1	1.571420E-1	2.140805E-1	2.157559E-1	1.483717E-1	1.956301E-1	2.061774E-1	1.889235E-1	1.952873E-1	2.104114E-1	2.217391E-1	1.801082E-1	1.994833E-1	1.884759E-1	1.737053E-1	1.665098E-1	1.705245E-1	1.698732E-1	2.063752E-1	1.778420E-1	1.905085E-1	1.906490E-1	2.033955E-1	2.006370E-1	1.840068E-1	2.076843E-1	2.014133E-1	1.912375E-1	1.792407E-1	2.015077E-1	2.131582E-1	1.684550E-1	1.764818E-1	2.038701E-1	1.975358E-1	2.158869E-1	1.716970E-1	1.875891E-1	1.980025E-1	1.944129E-1	1.874262E-1	1.966998E-1	2.017522E-1	1.485238E-1	1.901026E-1	1.976963E-1	2.095599E-1	1.612639E-1	1.649434E-1	2.009902E-1	1.875605E-1	2.078744E-1	1.842588E-1	1.997865E-1	2.050296E-1	1.890187E-1	1.971135E-1	1.965608E-1	1.960476E-1	1.824307E-1	1.906397E-1	2.035814E-1	1.878804E-1	1.789800E-1	1.718838E-1	1.791023E-1	2.068487E-1	1.769578E-1	1.824628E-1	1.685359E-1	2.241678E-1	1.809234E-1	1.991195E-1	2.131240E-1	2.283131E-1	1.739323E-1	1.855230E-1	1.726464E-1	2.015618E-1	1.818898E-1	1.749883E-1	1.958468E-1	1.993604E-1	1.883649E-1	1.771543E-1	1.612156E-1	1.983640E-1	1.882565E-1	1.947444E-1	2.181330E-1	1.918525E-1	1.803076E-1	1.968150E-1	2.115312E-1	2.067434E-1	2.037004E-1	1.791550E-1	1.968259E-1	1.993605E-1	2.011262E-1	1.678400E-1	1.939323E-1	2.064941E-1	1.882859E-1
5.342090E+2	2.797138E-1	3.319695E-1	3.521370E-1	2.709235E-1	2.920985E-1	2.907673E-1	3.204270E-1	3.181076E-1	3.024738E-1	3.215033E-1	3.188363E-1	3.282512E-1	3.211486E-1	3.259374E-1	3.144047E-1	3.407021E-1	3.312992E-1	3.048547E-1	3.209649E-1	3.084853E-1	3.090634E-1	2.790838E-1	3.301320E-1	3.135884E-1	3.198372E-1	2.463845E-1	3.525106E-1	3.227617E-1	3.242109E-1	3.063892E-1	3.473055E-1	3.190550E-1	2.742020E-1	2.642646E-1	3.034282E-1	3.350999E-1	2.910678E-1	2.475390E-1	3.239699E-1	3.160965E-1	2.848790E-1	2.977120E-1	3.126200E-1	3.275008E-1	3.125476E-1	3.334466E-1	3.308321E-1	3.063124E-1	2.998730E-1	3.291384E-1	2.855533E-1	3.316829E-1	2.912196E-1	3.028113E-1	3.142813E-1	3.070639E-1	2.931723E-1	2.937533E-1	2.668448E-1	2.962258E-1	3.322608E-1	2.955815E-1	2.983348E-1	3.139397E-1	3.114250E-1	3.033923E-1	3.055946E-1	3.135192E-1	2.760956E-1	3.221740E-1	3.438712E-1	3.351969E-1	2.535092E-1	2.850609E-1	3.350605E-1	3.134167E-1	3.394771E-1	3.323540E-1	3.429953E-1	2.731891E-1	3.447115E-1	3.005729E-1	2.997119E-1	2.782569E-1	2.656058E-1	3.006502E-1	3.291210E-1	2.969569E-1	3.074416E-1	3.281123E-1	3.130615E-1	3.186266E-1	3.021584E-1	3.221316E-1	3.310743E-1	2.703544E-1	2.962410E-1	3.491616E-1	3.146887E-1	3.087560E-1	2.713078E-1	3.055863E-1	3.321939E-1	3.036811E-1	2.631052E-1	3.092978E-1	3.456924E-1	2.644537E-1	3.192677E-1	3.334569E-1	3.576305E-1	2.565281E-1	2.915030E-1	3.233913E-1	3.170661E-1	2.781082E-1	2.948104E-1	2.928621E-1	3.209082E-1	2.981819E-1	2.957080E-1	3.184555E-1	3.383670E-1	2.884837E-1	3.195281E-1	3.135266E-1	3.262864E-1	2.821846E-1	3.006037E-1	3.133844E-1	3.153428E-1	2.832613E-1	2.718859E-1	3.092088E-1	3.195248E-1	3.243776E-1	2.916777E-1	2.780231E-1	3.578214E-1	3.164707E-1	3.147985E-1	3.354047E-1	3.334541E-1	2.923296E-1	2.844113E-1	2.764825E-1	3.336590E-1	2.608578E-1	2.544265E-1	2.988173E-1	3.537214E-1	3.265995E-1	2.970415E-1	3.226200E-1	3.409285E-1	3.096161E-1	3.247812E-1	3.375752E-1	3.442995E-1	2.836709E-1	3.400683E-1	3.295409E-1	3.435087E-1	2.905763E-1	2.773175E-1	3.250192E-1	3.429772E-1	3.056892E-1	2.739896E-1	2.781333E-1	3.104839E-1	2.417636E-1
5.343600E+2	5.039936E-1	6.043246E-1	5.740697E-1	5.204274E-1	5.286445E-1	5.328321E-1	5.548982E-1	5.762845E-1	5.528537E-1	5.952678E-1	5.342866E-1	5.913280E-1	6.106080E-1	5.976290E-1	5.727182E-1	6.278954E-1	5.519830E-1	5.403954E-1	5.999212E-1	5.913572E-1	5.576543E-1	5.024145E-1	6.292920E-1	5.720978E-1	5.750294E-1	4.582429E-1	6.310877E-1	5.582042E-1	5.735318E-1	5.852895E-1	6.070782E-1	5.807550E-1	5.604396E-1	5.100138E-1	5.593479E-1	6.113151E-1	5.073440E-1	4.915694E-1	5.763107E-1	5.619401E-1	5.408271E-1	5.311627E-1	5.767304E-1	6.010402E-1	6.027147E-1	5.627208E-1	5.998927E-1	6.356548E-1	5.173576E-1	5.712178E-1	5.621667E-1	5.874696E-1	5.059763E-1	5.545431E-1	5.995900E-1	5.842081E-1	5.332166E-1	5.240064E-1	4.856026E-1	5.905510E-1	5.706827E-1	5.604718E-1	6.136172E-1	6.019658E-1	5.706183E-1	5.625658E-1	5.552435E-1	6.002980E-1	4.578978E-1	5.332207E-1	5.741129E-1	5.979669E-1	4.731193E-1	5.558944E-1	5.753952E-1	5.689546E-1	6.000731E-1	5.905866E-1	5.821254E-1	5.388104E-1	5.831047E-1	5.703743E-1	5.323401E-1	5.268690E-1	5.176395E-1	5.526010E-1	5.899553E-1	6.044815E-1	5.300443E-1	5.419444E-1	6.258540E-1	5.518876E-1	5.442722E-1	5.909179E-1	6.126817E-1	5.181265E-1	5.569545E-1	6.118357E-1	6.394745E-1	5.517574E-1	5.307620E-1	5.971035E-1	6.143082E-1	5.872522E-1	5.042334E-1	5.784826E-1	5.867224E-1	4.877432E-1	5.792754E-1	6.249781E-1	6.216402E-1	5.031445E-1	5.694140E-1	5.974899E-1	6.179679E-1	5.090147E-1	5.269132E-1	5.200171E-1	5.636114E-1	5.761282E-1	5.632908E-1	5.727456E-1	6.351866E-1	5.247787E-1	5.594207E-1	5.770831E-1	5.795289E-1	4.970396E-1	5.741992E-1	5.483520E-1	5.152046E-1	5.400829E-1	5.207071E-1	5.698709E-1	6.487159E-1	5.530948E-1	5.521133E-1	5.559536E-1	6.565776E-1	5.852484E-1	6.011511E-1	6.106746E-1	5.996077E-1	5.196316E-1	5.132519E-1	5.050216E-1	6.280300E-1	5.640960E-1	5.228906E-1	5.320161E-1	5.963613E-1	5.806653E-1	5.180824E-1	5.901214E-1	6.319016E-1	5.740475E-1	5.923118E-1	6.134044E-1	6.181207E-1	5.015230E-1	5.721064E-1	6.367146E-1	6.215426E-1	5.074965E-1	5.178643E-1	5.222815E-1	6.219351E-1	5.862377E-1	4.862885E-1	5.743589E-1	5.927420E-1	5.191790E-1
5.345050E+2	8.198946E-1	9.514900E-1	9.596257E-1	8.346919E-1	8.283004E-1	8.035555E-1	8.829503E-1	9.195898E-1	8.692681E-1	8.972864E-1	9.341703E-1	8.926421E-1	9.364865E-1	9.685392E-1	9.324129E-1	9.562908E-1	9.555657E-1	8.655618E-1	9.760736E-1	9.325748E-1	9.556748E-1	8.607933E-1	9.510202E-1	9.121933E-1	9.262008E-1	7.386842E-1	9.576081E-1	9.415938E-1	9.355404E-1	9.350732E-1	9.799827E-1	9.244861E-1	9.147040E-1	7.615336E-1	8.974533E-1	9.554346E-1	8.602154E-1	7.619168E-1	8.852989E-1	9.000363E-1	9.145849E-1	8.815892E-1	9.367830E-1	9.117066E-1	9.482850E-1	9.465888E-1	9.244803E-1	9.733850E-1	8.755095E-1	9.201429E-1	9.060925E-1	1.015006E+0	8.175308E-1	8.830013E-1	9.610554E-1	9.642324E-1	8.902338E-1	8.564790E-1	7.860829E-1	9.299487E-1	9.436891E-1	8.999663E-1	8.997727E-1	9.592468E-1	8.920602E-1	9.345682E-1	9.212822E-1	9.608681E-1	7.817188E-1	8.531086E-1	9.336481E-1	9.532400E-1	7.457889E-1	8.582317E-1	9.314084E-1	9.877535E-1	9.674941E-1	9.611981E-1	9.724638E-1	9.588108E-1	9.437093E-1	8.599579E-1	8.134316E-1	9.354117E-1	8.456473E-1	8.882320E-1	9.536453E-1	9.636381E-1	9.103459E-1	9.216058E-1	1.015898E+0	9.324997E-1	8.972742E-1	9.618056E-1	9.581063E-1	9.833511E-1	8.935319E-1	1.035538E+0	9.552848E-1	9.636821E-1	7.897777E-1	8.739404E-1	9.682038E-1	8.905424E-1	8.341442E-1	9.271634E-1	9.937550E-1	8.342635E-1	9.876627E-1	9.242868E-1	9.736525E-1	8.931836E-1	9.176076E-1	9.798556E-1	9.732069E-1	9.029476E-1	8.446728E-1	8.607501E-1	9.474742E-1	9.067543E-1	8.566330E-1	8.953935E-1	9.534568E-1	8.747479E-1	9.069200E-1	9.560741E-1	8.849703E-1	8.680696E-1	8.609476E-1	9.232759E-1	8.404897E-1	9.106150E-1	8.064957E-1	8.706011E-1	9.977912E-1	9.200187E-1	8.645313E-1	8.709406E-1	1.010972E+0	9.264338E-1	9.055198E-1	9.616159E-1	1.012045E+0	8.163739E-1	8.611720E-1	8.284540E-1	9.861722E-1	8.757566E-1	8.162385E-1	9.085664E-1	1.014012E+0	9.124287E-1	8.418837E-1	9.225230E-1	9.573474E-1	8.824573E-1	9.129759E-1	1.004628E+0	9.807878E-1	8.259835E-1	9.550237E-1	9.398381E-1	9.659897E-1	8.825207E-1	8.152678E-1	8.702363E-1	9.958266E-1	8.976412E-1	7.564872E-1	8.675398E-1	8.675728E-1	8.667854E-1
5.346620E+2	1.202600E+0	1.441262E+0	1.461205E+0	1.220245E+0	1.213974E+0	1.260561E+0	1.310822E+0	1.359652E+0	1.291336E+0	1.325958E+0	1.316331E+0	1.364244E+0	1.427906E+0	1.434033E+0	1.330994E+0	1.375660E+0	1.428696E+0	1.348119E+0	1.435692E+0	1.402464E+0	1.347752E+0	1.219647E+0	1.509003E+0	1.340293E+0	1.363752E+0	1.238501E+0	1.431995E+0	1.367936E+0	1.382532E+0	1.369175E+0	1.438175E+0	1.349449E+0	1.257979E+0	1.171759E+0	1.361437E+0	1.380736E+0	1.258180E+0	1.125570E+0	1.356740E+0	1.349033E+0	1.291991E+0	1.327406E+0	1.382535E+0	1.468615E+0	1.416869E+0	1.387538E+0	1.377279E+0	1.477993E+0	1.266583E+0	1.384689E+0	1.367815E+0	1.416809E+0	1.262353E+0	1.316636E+0	1.334108E+0	1.378897E+0	1.240600E+0	1.240061E+0	1.181742E+0	1.366547E+0	1.383736E+0	1.389613E+0	1.380105E+0	1.435315E+0	1.319759E+0	1.349024E+0	1.385717E+0	1.385727E+0	1.137922E+0	1.260600E+0	1.396122E+0	1.404068E+0	1.094611E+0	1.254572E+0	1.373517E+0	1.385259E+0	1.394315E+0	1.386802E+0	1.445893E+0	1.341578E+0	1.305412E+0	1.292958E+0	1.259810E+0	1.315761E+0	1.221422E+0	1.295193E+0	1.424738E+0	1.344079E+0	1.351797E+0	1.354726E+0	1.484277E+0	1.387057E+0	1.314678E+0	1.391579E+0	1.444842E+0	1.402148E+0	1.229039E+0	1.456031E+0	1.419746E+0	1.449124E+0	1.143180E+0	1.314361E+0	1.464547E+0	1.299467E+0	1.227621E+0	1.362462E+0	1.449230E+0	1.199214E+0	1.355163E+0	1.432868E+0	1.456736E+0	1.295467E+0	1.336085E+0	1.388627E+0	1.417253E+0	1.340835E+0	1.208945E+0	1.242876E+0	1.374853E+0	1.312132E+0	1.328715E+0	1.348194E+0	1.383614E+0	1.304184E+0	1.343266E+0	1.408104E+0	1.377500E+0	1.351042E+0	1.273970E+0	1.366471E+0	1.245310E+0	1.402072E+0	1.143468E+0	1.269475E+0	1.458989E+0	1.392627E+0	1.306642E+0	1.301592E+0	1.515350E+0	1.367831E+0	1.294748E+0	1.360810E+0	1.416864E+0	1.374887E+0	1.248440E+0	1.205048E+0	1.373354E+0	1.342193E+0	1.167489E+0	1.260382E+0	1.413080E+0	1.386241E+0	1.244361E+0	1.349171E+0	1.404909E+0	1.277712E+0	1.361345E+0	1.458609E+0	1.413855E+0	1.296449E+0	1.312341E+0	1.407250E+0	1.444951E+0	1.289918E+0	1.179248E+0	1.318131E+0	1.441769E+0	1.349034E+0	1.090099E+0	1.267241E+0	1.287988E+0	1.267866E+0
5.348070E+2	1.554770E+0	1.815898E+0	1.822961E+0	1.576679E+0	1.592165E+0	1.592696E+0	1.698142E+0	1.721563E+0	1.638569E+0	1.741962E+0	1.711229E+0	1.761921E+0	1.792096E+0	1.836006E+0	1.758277E+0	1.804001E+0	1.786826E+0	1.650882E+0	1.873895E+0	1.769729E+0	1.720183E+0	1.633383E+0	1.819210E+0	1.683596E+0	1.715490E+0	1.654229E+0	1.864498E+0	1.692465E+0	1.787738E+0	1.762509E+0	1.895932E+0	1.725590E+0	1.687075E+0	1.479065E+0	1.689659E+0	1.768253E+0	1.633381E+0	1.495922E+0	1.713951E+0	1.738652E+0	1.714746E+0	1.628631E+0	1.775468E+0	1.757439E+0	1.711266E+0	1.806130E+0	1.774999E+0	1.870468E+0	1.580337E+0	1.714512E+0	1.762226E+0	1.842770E+0	1.549142E+0	1.640350E+0	1.738620E+0	1.784116E+0	1.675230E+0	1.597831E+0	1.418439E+0	1.838991E+0	1.714903E+0	1.769711E+0	1.712762E+0	1.822868E+0	1.652468E+0	1.712644E+0	1.677540E+0	1.850835E+0	1.417797E+0	1.620309E+0	1.764108E+0	1.793395E+0	1.447853E+0	1.560975E+0	1.751717E+0	1.821530E+0	1.818261E+0	1.712462E+0	1.781161E+0	1.723438E+0	1.718079E+0	1.665512E+0	1.550084E+0	1.744808E+0	1.521679E+0	1.591958E+0	1.828776E+0	1.736298E+0	1.652712E+0	1.682018E+0	1.875400E+0	1.740482E+0	1.639111E+0	1.789535E+0	1.840410E+0	1.751775E+0	1.614768E+0	1.866357E+0	1.866251E+0	1.762276E+0	1.468048E+0	1.685576E+0	1.825120E+0	1.711677E+0	1.534418E+0	1.685375E+0	1.863349E+0	1.540996E+0	1.747930E+0	1.762348E+0	1.866325E+0	1.641780E+0	1.668182E+0	1.742475E+0	1.753215E+0	1.718075E+0	1.518878E+0	1.595220E+0	1.726915E+0	1.701964E+0	1.638355E+0	1.737561E+0	1.801013E+0	1.643627E+0	1.667074E+0	1.759002E+0	1.717570E+0	1.714398E+0	1.616492E+0	1.673123E+0	1.533884E+0	1.753745E+0	1.449638E+0	1.574257E+0	1.872687E+0	1.759010E+0	1.597533E+0	1.560992E+0	1.925987E+0	1.758834E+0	1.677344E+0	1.784685E+0	1.834885E+0	1.704604E+0	1.534232E+0	1.488735E+0	1.776478E+0	1.712293E+0	1.503906E+0	1.624820E+0	1.724380E+0	1.735643E+0	1.542471E+0	1.646016E+0	1.732105E+0	1.657375E+0	1.674553E+0	1.834138E+0	1.802251E+0	1.737255E+0	1.650593E+0	1.738719E+0	1.789960E+0	1.721065E+0	1.491717E+0	1.653004E+0	1.773308E+0	1.722716E+0	1.357540E+0	1.608101E+0	1.611842E+0	1.592074E+0
5.349530E+2	1.795273E+0	2.144946E+0	2.091901E+0	1.799575E+0	1.821232E+0	1.793818E+0	2.015277E+0	2.034168E+0	1.865837E+0	1.985038E+0	1.928341E+0	2.010717E+0	2.108987E+0	2.121140E+0	1.981870E+0	2.037753E+0	1.991630E+0	1.900626E+0	2.174264E+0	2.079172E+0	2.005334E+0	1.811857E+0	2.148139E+0	2.036989E+0	2.048031E+0	1.960038E+0	2.124904E+0	1.995250E+0	2.068988E+0	2.038167E+0	2.114802E+0	2.045712E+0	1.954474E+0	1.674315E+0	1.974714E+0	2.081230E+0	1.868921E+0	1.647125E+0	1.967228E+0	1.970756E+0	1.913878E+0	1.928350E+0	1.995376E+0	2.044625E+0	1.992041E+0	2.048722E+0	2.012457E+0	2.179504E+0	1.822264E+0	1.953495E+0	1.944184E+0	2.144775E+0	1.775608E+0	1.855877E+0	2.024478E+0	2.001949E+0	1.903631E+0	1.778525E+0	1.654140E+0	1.983983E+0	2.015830E+0	2.030827E+0	1.945775E+0	2.091631E+0	1.937955E+0	1.922108E+0	1.999718E+0	2.021898E+0	1.740225E+0	1.871617E+0	1.970483E+0	2.075986E+0	1.693501E+0	1.843493E+0	2.048570E+0	2.120204E+0	2.043892E+0	1.947739E+0	2.033816E+0	1.987698E+0	2.051827E+0	1.927624E+0	1.823525E+0	1.993932E+0	1.765526E+0	1.810988E+0	2.108931E+0	2.023896E+0	1.964891E+0	1.956944E+0	2.124448E+0	1.957434E+0	1.941272E+0	2.063066E+0	2.110872E+0	2.056401E+0	1.878687E+0	2.102816E+0	2.047438E+0	2.038388E+0	1.690622E+0	1.917845E+0	2.108345E+0	1.969896E+0	1.795508E+0	2.047762E+0	2.078388E+0	1.770074E+0	1.936278E+0	2.029539E+0	2.078841E+0	1.864345E+0	1.935900E+0	2.080479E+0	2.015552E+0	1.994049E+0	1.768943E+0	1.836508E+0	1.996398E+0	1.952815E+0	1.898577E+0	1.888491E+0	2.090299E+0	1.877816E+0	1.926711E+0	2.056779E+0	1.946006E+0	1.982966E+0	1.859045E+0	1.995138E+0	1.797480E+0	2.002247E+0	1.712677E+0	1.840771E+0	2.179782E+0	1.941660E+0	1.833292E+0	1.849592E+0	2.143099E+0	1.971426E+0	1.968441E+0	1.980445E+0	2.035520E+0	1.990853E+0	1.778088E+0	1.699384E+0	1.955262E+0	2.011322E+0	1.761842E+0	1.858016E+0	2.020710E+0	1.991137E+0	1.726585E+0	1.897154E+0	2.035935E+0	1.930717E+0	1.935558E+0	2.018868E+0	2.038687E+0	2.014437E+0	1.978501E+0	2.011765E+0	2.060114E+0	1.925573E+0	1.723031E+0	1.841894E+0	2.058108E+0	1.910702E+0	1.598789E+0	1.868820E+0	1.865874E+0	1.886201E+0
5.351140E+2	1.880690E+0	2.233200E+0	2.151989E+0	1.861824E+0	1.960073E+0	1.957584E+0	2.094299E+0	2.127672E+0	2.008358E+0	2.114615E+0	2.066804E+0	2.117276E+0	2.182770E+0	2.161943E+0	2.107785E+0	2.153200E+0	2.159194E+0	2.039985E+0	2.220395E+0	2.127096E+0	2.036865E+0	1.886303E+0	2.194239E+0	2.105283E+0	2.172239E+0	2.043184E+0	2.239464E+0	2.068433E+0	2.112183E+0	2.129898E+0	2.209223E+0	2.138950E+0	2.027736E+0	1.789259E+0	2.094348E+0	2.133308E+0	1.930649E+0	1.727511E+0	2.035581E+0	2.116986E+0	2.036898E+0	2.028758E+0	2.106955E+0	2.166382E+0	2.186894E+0	2.171922E+0	2.108162E+0	2.231597E+0	1.973908E+0	2.154800E+0	2.092480E+0	2.218836E+0	1.862502E+0	1.918376E+0	2.104498E+0	2.135798E+0	1.950752E+0	1.869385E+0	1.717923E+0	2.136031E+0	2.066739E+0	2.091734E+0	2.068412E+0	2.095755E+0	1.979278E+0	2.099730E+0	1.951924E+0	2.143204E+0	1.799441E+0	1.920284E+0	2.063471E+0	2.141549E+0	1.734279E+0	1.924798E+0	2.176396E+0	2.202106E+0	2.120058E+0	2.062030E+0	2.170047E+0	2.086679E+0	2.040318E+0	2.059504E+0	1.879643E+0	2.061600E+0	1.865610E+0	1.931248E+0	2.176556E+0	2.061942E+0	2.014778E+0	2.020769E+0	2.254640E+0	2.036274E+0	1.954829E+0	2.121006E+0	2.166076E+0	2.148778E+0	1.891506E+0	2.175039E+0	2.146724E+0	2.084408E+0	1.756036E+0	2.032672E+0	2.135053E+0	1.966612E+0	1.856446E+0	2.057083E+0	2.188274E+0	1.840645E+0	2.107627E+0	2.147315E+0	2.155611E+0	1.988092E+0	1.923025E+0	2.151774E+0	2.108452E+0	2.009071E+0	1.822360E+0	1.962707E+0	2.041035E+0	1.990443E+0	1.980062E+0	2.036147E+0	2.154070E+0	2.002021E+0	1.962746E+0	2.090493E+0	2.035418E+0	2.053832E+0	1.931125E+0	2.044636E+0	1.803598E+0	2.161999E+0	1.721209E+0	1.878135E+0	2.237779E+0	2.073361E+0	1.934102E+0	1.951218E+0	2.334813E+0	2.144624E+0	2.000203E+0	2.076955E+0	2.136090E+0	2.051298E+0	1.873350E+0	1.753540E+0	2.063447E+0	2.075549E+0	1.774764E+0	1.965531E+0	2.140998E+0	2.047862E+0	1.785992E+0	2.013974E+0	2.098448E+0	1.989729E+0	1.985430E+0	2.232957E+0	2.122196E+0	2.064959E+0	2.095605E+0	2.105475E+0	2.100074E+0	2.062092E+0	1.815844E+0	2.042293E+0	2.136002E+0	2.018123E+0	1.645658E+0	1.915485E+0	1.923813E+0	1.989815E+0
5.352600E+2	1.864945E+0	2.099359E+0	2.071074E+0	1.816144E+0	1.946050E+0	1.790750E+0	1.917536E+0	2.010910E+0	1.994051E+0	1.920252E+0	1.912835E+0	1.999500E+0	2.040405E+0	2.068753E+0	1.939743E+0	2.038981E+0	2.021746E+0	1.918664E+0	2.035339E+0	1.995820E+0	2.024984E+0	1.775590E+0	2.039615E+0	1.978774E+0	1.973506E+0	1.850118E+0	2.066868E+0	2.039266E+0	1.942682E+0	1.955701E+0	2.133945E+0	1.979289E+0	1.860806E+0	1.700767E+0	1.938300E+0	1.969924E+0	1.838273E+0	1.661480E+0	1.969573E+0	2.005595E+0	1.838289E+0	1.879653E+0	1.980287E+0	1.984570E+0	2.014106E+0	2.011142E+0	1.969571E+0	2.108868E+0	1.874642E+0	1.992209E+0	1.956803E+0	2.079122E+0	1.713026E+0	1.804149E+0	1.943905E+0	1.998797E+0	1.867044E+0	1.765618E+0	1.623743E+0	1.957914E+0	1.956854E+0	1.985495E+0	1.902338E+0	2.084753E+0	1.874632E+0	1.970701E+0	1.939557E+0	1.990030E+0	1.659737E+0	1.832682E+0	1.959046E+0	1.991613E+0	1.615385E+0	1.773373E+0	2.004198E+0	1.996803E+0	2.041012E+0	1.980736E+0	2.024154E+0	1.916407E+0	1.982229E+0	1.884763E+0	1.704661E+0	1.902690E+0	1.792821E+0	1.792241E+0	2.020282E+0	1.951431E+0	1.880679E+0	1.884397E+0	2.122824E+0	1.935683E+0	1.919482E+0	2.030778E+0	2.034898E+0	1.957385E+0	1.867468E+0	2.071255E+0	2.051930E+0	1.996297E+0	1.706867E+0	1.904736E+0	2.038788E+0	1.916377E+0	1.713032E+0	1.984167E+0	2.018721E+0	1.790616E+0	1.931227E+0	1.960914E+0	2.067606E+0	1.853411E+0	1.913903E+0	2.031362E+0	1.986924E+0	1.891672E+0	1.739925E+0	1.851143E+0	1.964600E+0	1.891608E+0	1.886485E+0	1.890678E+0	2.021890E+0	1.824140E+0	1.834407E+0	1.969440E+0	1.921195E+0	1.924740E+0	1.828528E+0	1.926866E+0	1.726611E+0	1.942894E+0	1.624998E+0	1.775493E+0	2.085884E+0	1.857653E+0	1.830140E+0	1.736173E+0	2.221116E+0	1.900754E+0	1.899219E+0	1.990313E+0	1.973047E+0	1.968374E+0	1.763590E+0	1.671566E+0	1.945014E+0	1.931296E+0	1.691497E+0	1.799970E+0	2.016580E+0	1.958246E+0	1.739429E+0	1.854265E+0	2.008474E+0	1.872263E+0	1.867513E+0	2.032033E+0	2.035294E+0	1.909216E+0	1.895159E+0	2.000773E+0	2.035352E+0	1.962805E+0	1.696303E+0	1.846600E+0	2.082449E+0	1.908987E+0	1.511251E+0	1.793750E+0	1.705434E+0	1.912940E+0
5.354010E+2	1.644003E+0	1.843368E+0	1.839026E+0	1.609809E+0	1.856293E+0	1.576319E+0	1.665387E+0	1.715985E+0	1.762383E+0	1.703966E+0	1.691290E+0	1.743566E+0	1.823313E+0	1.835544E+0	1.765684E+0	1.753009E+0	1.819136E+0	1.665635E+0	1.773957E+0	1.779107E+0	1.821173E+0	1.531261E+0	1.776950E+0	1.723018E+0	1.805824E+0	1.655639E+0	1.830682E+0	1.748144E+0	1.776470E+0	1.769458E+0	1.854595E+0	1.754402E+0	1.797488E+0	1.445398E+0	1.722434E+0	1.744767E+0	1.759905E+0	1.520805E+0	1.778090E+0	1.663087E+0	1.688684E+0	1.743599E+0	1.766843E+0	1.751982E+0	1.737556E+0	1.729069E+0	1.742045E+0	1.843981E+0	1.658655E+0	1.705223E+0	1.724365E+0	1.833836E+0	1.649541E+0	1.602420E+0	1.765659E+0	1.758923E+0	1.705719E+0	1.582341E+0	1.418935E+0	1.711376E+0	1.736579E+0	1.758855E+0	1.692323E+0	1.787092E+0	1.707203E+0	1.737784E+0	1.718020E+0	1.777599E+0	1.450177E+0	1.576949E+0	1.725323E+0	1.723257E+0	1.456202E+0	1.567581E+0	1.780241E+0	1.808425E+0	1.776585E+0	1.698597E+0	1.871014E+0	1.703457E+0	1.736709E+0	1.682001E+0	1.495498E+0	1.726354E+0	1.558076E+0	1.577327E+0	1.785021E+0	1.780684E+0	1.671489E+0	1.697837E+0	1.813276E+0	1.699704E+0	1.715137E+0	1.805684E+0	1.832303E+0	1.756515E+0	1.577904E+0	1.835330E+0	1.772579E+0	1.734775E+0	1.460143E+0	1.636292E+0	1.766137E+0	1.676467E+0	1.559629E+0	1.757195E+0	1.809594E+0	1.541523E+0	1.767230E+0	1.814423E+0	1.795175E+0	1.659270E+0	1.661205E+0	1.743002E+0	1.757305E+0	1.725865E+0	1.568155E+0	1.634086E+0	1.713524E+0	1.686408E+0	1.672527E+0	1.682872E+0	1.810870E+0	1.646259E+0	1.683362E+0	1.700775E+0	1.690180E+0	1.748253E+0	1.599657E+0	1.739121E+0	1.574165E+0	1.699936E+0	1.449638E+0	1.626027E+0	1.871032E+0	1.738415E+0	1.593855E+0	1.593560E+0	1.870955E+0	1.764626E+0	1.730918E+0	1.755620E+0	1.786126E+0	1.720589E+0	1.583934E+0	1.401292E+0	1.750287E+0	1.713873E+0	1.541236E+0	1.576865E+0	1.774457E+0	1.731348E+0	1.538192E+0	1.639249E+0	1.754307E+0	1.806018E+0	1.656840E+0	1.785555E+0	1.749817E+0	1.760894E+0	1.651683E+0	1.739878E+0	1.786022E+0	1.816033E+0	1.522814E+0	1.631028E+0	1.781584E+0	1.696434E+0	1.633253E+0	1.634478E+0	1.574704E+0	1.672294E+0
5.355580E+2	1.382981E+0	1.564582E+0	1.608762E+0	1.317133E+0	1.529524E+0	1.348074E+0	1.424157E+0	1.425709E+0	1.512553E+0	1.506681E+0	1.412146E+0	1.424913E+0	1.565066E+0	1.497086E+0	1.467092E+0	1.493555E+0	1.488383E+0	1.420804E+0	1.474133E+0	1.498320E+0	1.605029E+0	1.384763E+0	1.511405E+0	1.470924E+0	1.583378E+0	1.408079E+0	1.528895E+0	1.489901E+0	1.502732E+0	1.438208E+0	1.593080E+0	1.463089E+0	1.467819E+0	1.241969E+0	1.459228E+0	1.535946E+0	1.453441E+0	1.245673E+0	1.472845E+0	1.453554E+0	1.473399E+0	1.413253E+0	1.436977E+0	1.462059E+0	1.517349E+0	1.524056E+0	1.481109E+0	1.544658E+0	1.477084E+0	1.515794E+0	1.482458E+0	1.511353E+0	1.501422E+0	1.365343E+0	1.459931E+0	1.491227E+0	1.519449E+0	1.322665E+0	1.219114E+0	1.491449E+0	1.507734E+0	1.489711E+0	1.434783E+0	1.508696E+0	1.428158E+0	1.446769E+0	1.444757E+0	1.517653E+0	1.418260E+0	1.368558E+0	1.505026E+0	1.470648E+0	1.330923E+0	1.352134E+0	1.490255E+0	1.521217E+0	1.570122E+0	1.508744E+0	1.523188E+0	1.457361E+0	1.567371E+0	1.445168E+0	1.279196E+0	1.434686E+0	1.389294E+0	1.361956E+0	1.559985E+0	1.410661E+0	1.480529E+0	1.430000E+0	1.569091E+0	1.436537E+0	1.438156E+0	1.568712E+0	1.515749E+0	1.460892E+0	1.414426E+0	1.584962E+0	1.498275E+0	1.520957E+0	1.367513E+0	1.448589E+0	1.505166E+0	1.426230E+0	1.339517E+0	1.488560E+0	1.507714E+0	1.271889E+0	1.504005E+0	1.502463E+0	1.547076E+0	1.430143E+0	1.405293E+0	1.505345E+0	1.464579E+0	1.404821E+0	1.287233E+0	1.377653E+0	1.473054E+0	1.448097E+0	1.426496E+0	1.409989E+0	1.501875E+0	1.359441E+0	1.328953E+0	1.502596E+0	1.448305E+0	1.470655E+0	1.378145E+0	1.471155E+0	1.342183E+0	1.572915E+0	1.232099E+0	1.364016E+0	1.588234E+0	1.475554E+0	1.303492E+0	1.325175E+0	1.612110E+0	1.456457E+0	1.463528E+0	1.466096E+0	1.513367E+0	1.438833E+0	1.343705E+0	1.239327E+0	1.455346E+0	1.481703E+0	1.291434E+0	1.398183E+0	1.470383E+0	1.460601E+0	1.381372E+0	1.441725E+0	1.498978E+0	1.446392E+0	1.410748E+0	1.530478E+0	1.549793E+0	1.478613E+0	1.472479E+0	1.482453E+0	1.505174E+0	1.442089E+0	1.272550E+0	1.374119E+0	1.541573E+0	1.476450E+0	1.400276E+0	1.348398E+0	1.399406E+0	1.531913E+0
5.357040E+2	1.202601E+0	1.430157E+0	1.348750E+0	1.125362E+0	1.337386E+0	1.157696E+0	1.199566E+0	1.254522E+0	1.287486E+0	1.270424E+0	1.190605E+0	1.236784E+0	1.351286E+0	1.321368E+0	1.320347E+0	1.219823E+0	1.348195E+0	1.182530E+0	1.308297E+0	1.255557E+0	1.282863E+0	1.155227E+0	1.318367E+0	1.222497E+0	1.361494E+0	1.170856E+0	1.310875E+0	1.339300E+0	1.233692E+0	1.245478E+0	1.362462E+0	1.272217E+0	1.319729E+0	1.090962E+0	1.255327E+0	1.270453E+0	1.308091E+0	1.041355E+0	1.179307E+0	1.278371E+0	1.241426E+0	1.213943E+0	1.213830E+0	1.275334E+0	1.267094E+0	1.328078E+0	1.245456E+0	1.308026E+0	1.230668E+0	1.289195E+0	1.275262E+0	1.292852E+0	1.317278E+0	1.125682E+0	1.225394E+0	1.307516E+0	1.252242E+0	1.146619E+0	1.045702E+0	1.293240E+0	1.228484E+0	1.275348E+0	1.231919E+0	1.338543E+0	1.268239E+0	1.251273E+0	1.271016E+0	1.309141E+0	1.235990E+0	1.135389E+0	1.275779E+0	1.268870E+0	1.152582E+0	1.109249E+0	1.307494E+0	1.275507E+0	1.363179E+0	1.278726E+0	1.287921E+0	1.287093E+0	1.335001E+0	1.242405E+0	1.120029E+0	1.233234E+0	1.273743E+0	1.148412E+0	1.339500E+0	1.278862E+0	1.348042E+0	1.258715E+0	1.323825E+0	1.281577E+0	1.265287E+0	1.319871E+0	1.305050E+0	1.273289E+0	1.241862E+0	1.310517E+0	1.275584E+0	1.279078E+0	1.255127E+0	1.224704E+0	1.339904E+0	1.214018E+0	1.249157E+0	1.280229E+0	1.328124E+0	1.100209E+0	1.292688E+0	1.276156E+0	1.326132E+0	1.184839E+0	1.251315E+0	1.287755E+0	1.306244E+0	1.217871E+0	1.254075E+0	1.175233E+0	1.257688E+0	1.259454E+0	1.257220E+0	1.248117E+0	1.282163E+0	1.246822E+0	1.247016E+0	1.243637E+0	1.249847E+0	1.262121E+0	1.253977E+0	1.169622E+0	1.162204E+0	1.339947E+0	1.170959E+0	1.196542E+0	1.375587E+0	1.228949E+0	1.237856E+0	1.199965E+0	1.416168E+0	1.255455E+0	1.264884E+0	1.276915E+0	1.361501E+0	1.258488E+0	1.150589E+0	1.108661E+0	1.314706E+0	1.295868E+0	1.148349E+0	1.196279E+0	1.323250E+0	1.226554E+0	1.128756E+0	1.209777E+0	1.335962E+0	1.298865E+0	1.207540E+0	1.321958E+0	1.280340E+0	1.328896E+0	1.269312E+0	1.331471E+0	1.319439E+0	1.273734E+0	1.114129E+0	1.194647E+0	1.330284E+0	1.282754E+0	1.272069E+0	1.200286E+0	1.207768E+0	1.324686E+0
5.358600E+2	1.023178E+0	1.101111E+0	1.098259E+0	9.868042E-1	1.113931E+0	9.222848E-1	1.014483E+0	1.019139E+0	1.137257E+0	1.063883E+0	1.036633E+0	1.065478E+0	1.165877E+0	1.106703E+0	1.110641E+0	1.036656E+0	1.132989E+0	1.008198E+0	1.066130E+0	1.039368E+0	1.123383E+0	9.796167E-1	1.104682E+0	1.053366E+0	1.140743E+0	1.052009E+0	1.121626E+0	1.095904E+0	1.092364E+0	1.077766E+0	1.160999E+0	1.061337E+0	1.072737E+0	9.288928E-1	1.053503E+0	1.091245E+0	1.086998E+0	9.131195E-1	1.040731E+0	1.039889E+0	1.115799E+0	1.028688E+0	1.070455E+0	1.160130E+0	1.117783E+0	1.126392E+0	1.075261E+0	1.108477E+0	1.079028E+0	1.079636E+0	1.069116E+0	1.100094E+0	1.080460E+0	9.890392E-1	1.101778E+0	1.137973E+0	1.114201E+0	1.002065E+0	8.772735E-1	1.100462E+0	1.067688E+0	1.073256E+0	1.046938E+0	1.134447E+0	1.106177E+0	1.039020E+0	1.058476E+0	1.113482E+0	1.064368E+0	9.946903E-1	1.067417E+0	1.078780E+0	9.531159E-1	9.883130E-1	1.111000E+0	1.135179E+0	1.139469E+0	1.084576E+0	1.139130E+0	1.120001E+0	1.143741E+0	1.048434E+0	9.419890E-1	1.084579E+0	1.126795E+0	9.527057E-1	1.159358E+0	1.024780E+0	1.102374E+0	1.077070E+0	1.174185E+0	1.062996E+0	1.063850E+0	1.120893E+0	1.085235E+0	1.050150E+0	1.084258E+0	1.127553E+0	1.160029E+0	1.079290E+0	1.025523E+0	1.010786E+0	1.163514E+0	1.042185E+0	1.042702E+0	1.052161E+0	1.133765E+0	9.585473E-1	1.095157E+0	1.103873E+0	1.158086E+0	1.056283E+0	1.056563E+0	1.097099E+0	1.087141E+0	1.067643E+0	1.050987E+0	1.021273E+0	1.063525E+0	1.075830E+0	1.051143E+0	1.034843E+0	1.085634E+0	1.057364E+0	1.044636E+0	1.100110E+0	1.064308E+0	1.113165E+0	1.075088E+0	1.029666E+0	9.705014E-1	1.122507E+0	1.058633E+0	1.003859E+0	1.181718E+0	1.072858E+0	1.102914E+0	1.038822E+0	1.202684E+0	1.089206E+0	1.051540E+0	1.100896E+0	1.148171E+0	1.091135E+0	9.968198E-1	9.327865E-1	1.128518E+0	1.107397E+0	1.123465E+0	1.049899E+0	1.074930E+0	1.106435E+0	1.025461E+0	1.091828E+0	1.077709E+0	1.056147E+0	1.091485E+0	1.104837E+0	1.110414E+0	1.088796E+0	1.110805E+0	1.126687E+0	1.106132E+0	1.049258E+0	1.030060E+0	1.023023E+0	1.125811E+0	1.081626E+0	1.165920E+0	1.100867E+0	9.715626E-1	9.570273E-1
5.360170E+2	8.256204E-1	9.129166E-1	9.257106E-1	8.567811E-1	9.559231E-1	8.322146E-1	8.377192E-1	8.665589E-1	9.474085E-1	9.031316E-1	9.026004E-1	8.783665E-1	9.478383E-1	9.314478E-1	9.125071E-1	9.081535E-1	9.019007E-1	8.579106E-1	9.887034E-1	9.133006E-1	9.734959E-1	7.863501E-1	9.543820E-1	8.686504E-1	9.719324E-1	8.824280E-1	9.404492E-1	9.039445E-1	9.223935E-1	9.082025E-1	9.943422E-1	9.192830E-1	9.136579E-1	7.379685E-1	8.709255E-1	9.222490E-1	9.158166E-1	7.518682E-1	8.951307E-1	8.877683E-1	9.005104E-1	8.384138E-1	9.060601E-1	9.286323E-1	9.412422E-1	8.885563E-1	9.262862E-1	9.694114E-1	8.690247E-1	9.031093E-1	8.892646E-1	9.546051E-1	9.201817E-1	8.493796E-1	8.997993E-1	9.243399E-1	9.351378E-1	8.203405E-1	8.090054E-1	9.038831E-1	9.381440E-1	8.999663E-1	9.237893E-1	9.184279E-1	9.054761E-1	8.898830E-1	9.004782E-1	9.032890E-1	8.802529E-1	8.212525E-1	9.147513E-1	9.354513E-1	8.096575E-1	8.287599E-1	9.398594E-1	9.631824E-1	9.617460E-1	8.875531E-1	9.439614E-1	9.124975E-1	9.382290E-1	8.791894E-1	7.976166E-1	8.938916E-1	9.366341E-1	8.054673E-1	9.348931E-1	8.848317E-1	9.173187E-1	9.336057E-1	9.807832E-1	8.862823E-1	8.967900E-1	9.081429E-1	9.935609E-1	9.307644E-1	9.346692E-1	9.852502E-1	9.530415E-1	9.255196E-1	9.056762E-1	9.022534E-1	9.726550E-1	9.022790E-1	8.987604E-1	9.381280E-1	9.417682E-1	8.179376E-1	9.440205E-1	9.432674E-1	9.371408E-1	8.625755E-1	8.993667E-1	9.286274E-1	9.463302E-1	8.684506E-1	8.589491E-1	8.557017E-1	8.939119E-1	9.092624E-1	8.997408E-1	8.762534E-1	9.488187E-1	8.905359E-1	8.782906E-1	9.479014E-1	9.139121E-1	8.992146E-1	8.930423E-1	9.272585E-1	8.206052E-1	9.106158E-1	9.173986E-1	8.197297E-1	9.834299E-1	9.758425E-1	9.186139E-1	8.176005E-1	1.042420E+0	9.038428E-1	9.600407E-1	9.479073E-1	9.526174E-1	9.047970E-1	8.694556E-1	7.738030E-1	9.104443E-1	9.568303E-1	9.205618E-1	8.722238E-1	9.339927E-1	9.276822E-1	8.638274E-1	9.118004E-1	9.497519E-1	9.058385E-1	8.892059E-1	9.747670E-1	9.841867E-1	9.251754E-1	9.702756E-1	9.276903E-1	9.648635E-1	9.888221E-1	9.153746E-1	8.524461E-1	9.257224E-1	8.622156E-1	9.529319E-1	8.969589E-1	8.883709E-1	1.013848E+0
5.362680E+2	6.633755E-1	7.253069E-1	7.210327E-1	6.464343E-1	7.810846E-1	6.167613E-1	7.082663E-1	7.153747E-1	7.217916E-1	7.160751E-1	6.721962E-1	7.055315E-1	7.610132E-1	7.334748E-1	6.958568E-1	6.915349E-1	7.567863E-1	6.251021E-1	7.399490E-1	7.038806E-1	7.582635E-1	6.584595E-1	7.186077E-1	7.068526E-1	8.014279E-1	6.973459E-1	7.461523E-1	7.013788E-1	7.453805E-1	7.289095E-1	7.585033E-1	7.052024E-1	7.121926E-1	5.922506E-1	6.997920E-1	6.884099E-1	7.209929E-1	5.815254E-1	6.863294E-1	7.376124E-1	7.050304E-1	6.551675E-1	7.071688E-1	7.599221E-1	7.412249E-1	7.111309E-1	7.290052E-1	7.575027E-1	7.138922E-1	6.971612E-1	7.283446E-1	6.851622E-1	7.310881E-1	6.558392E-1	7.165833E-1	7.448259E-1	7.383353E-1	6.437792E-1	7.611672E-1	7.442300E-1	7.148443E-1	6.671839E-1	7.352328E-1	7.473548E-1	7.181916E-1	6.994137E-1	6.806295E-1	7.322278E-1	7.234308E-1	6.854211E-1	7.237944E-1	7.458706E-1	6.593206E-1	6.615851E-1	6.968833E-1	7.049139E-1	7.600712E-1	7.130077E-1	7.512077E-1	7.267894E-1	7.349094E-1	6.692831E-1	6.114127E-1	7.016657E-1	7.373733E-1	6.490836E-1	7.672540E-1	7.018569E-1	7.387008E-1	7.137738E-1	7.971059E-1	7.481746E-1	6.929305E-1	7.519050E-1	7.772900E-1	7.351052E-1	7.102845E-1	7.273912E-1	7.365169E-1	7.560359E-1	7.401696E-1	6.783721E-1	7.317170E-1	7.050939E-1	7.043867E-1	6.629117E-1	7.255506E-1	6.657429E-1	7.510829E-1	7.739024E-1	7.686241E-1	7.064719E-1	6.965666E-1	7.348036E-1	7.488458E-1	7.020860E-1	6.770433E-1	6.628730E-1	7.348986E-1	7.100843E-1	6.957679E-1	6.952427E-1	7.279431E-1	7.005527E-1	7.089837E-1	7.175448E-1	7.423275E-1	6.979014E-1	7.173102E-1	7.008248E-1	6.640805E-1	7.281229E-1	7.230812E-1	6.509064E-1	7.669151E-1	7.037665E-1	7.185611E-1	6.244531E-1	8.065601E-1	7.173204E-1	7.348461E-1	7.247304E-1	7.326851E-1	6.734984E-1	6.923894E-1	6.108447E-1	7.242557E-1	7.525668E-1	7.420643E-1	6.844535E-1	7.729209E-1	7.041232E-1	6.823917E-1	6.826742E-1	7.142858E-1	7.410567E-1	7.307376E-1	7.485358E-1	7.356115E-1	7.133491E-1	7.518542E-1	7.547245E-1	8.213443E-1	7.416842E-1	7.200211E-1	6.944277E-1	7.334206E-1	7.227978E-1	7.592442E-1	6.362409E-1	7.309007E-1	7.364320E-1
5.365250E+2	5.035168E-1	6.388078E-1	5.734747E-1	4.998446E-1	5.814701E-1	5.645611E-1	5.637362E-1	5.613983E-1	5.875217E-1	6.142659E-1	5.597632E-1	5.306568E-1	5.713511E-1	5.874291E-1	5.430910E-1	5.687436E-1	5.727921E-1	5.261865E-1	5.746614E-1	5.918783E-1	5.754761E-1	5.138676E-1	5.567831E-1	5.574302E-1	5.755940E-1	5.592392E-1	5.579111E-1	5.704005E-1	5.866789E-1	5.788035E-1	5.961996E-1	5.891580E-1	5.416014E-1	4.917384E-1	5.681906E-1	5.939562E-1	5.843975E-1	4.724298E-1	5.585204E-1	5.457466E-1	5.491677E-1	5.221260E-1	5.702625E-1	5.852066E-1	5.905067E-1	5.855533E-1	5.484286E-1	6.051927E-1	5.737244E-1	5.500552E-1	5.721581E-1	5.769653E-1	5.834148E-1	5.325597E-1	5.648231E-1	5.826332E-1	5.836648E-1	5.064531E-1	5.877558E-1	5.166980E-1	5.424553E-1	5.642496E-1	5.574075E-1	5.817855E-1	5.716914E-1	5.553044E-1	5.501826E-1	5.941492E-1	5.536562E-1	5.004797E-1	5.517353E-1	5.481578E-1	5.276532E-1	5.071136E-1	5.817339E-1	5.978938E-1	5.766006E-1	5.451564E-1	6.173914E-1	5.696864E-1	5.913257E-1	5.346572E-1	5.098937E-1	5.273814E-1	5.640430E-1	5.210502E-1	5.899551E-1	5.646254E-1	5.772464E-1	5.533997E-1	6.193710E-1	5.584121E-1	5.762312E-1	5.443794E-1	6.005259E-1	5.977168E-1	5.537494E-1	5.984613E-1	5.985258E-1	5.540025E-1	5.575415E-1	5.666940E-1	5.948327E-1	5.543878E-1	5.683247E-1	5.560051E-1	5.926298E-1	4.966962E-1	5.760601E-1	5.558695E-1	5.991711E-1	5.534300E-1	5.554645E-1	6.038277E-1	6.068663E-1	5.234812E-1	5.559261E-1	5.407137E-1	5.569164E-1	5.445207E-1	6.153355E-1	5.607146E-1	5.963451E-1	5.700375E-1	5.525099E-1	5.872988E-1	5.407671E-1	5.927309E-1	5.741991E-1	5.972794E-1	5.029682E-1	5.850123E-1	6.003300E-1	5.266526E-1	6.338027E-1	5.704385E-1	5.836178E-1	5.486545E-1	6.372247E-1	5.933580E-1	5.636979E-1	5.953210E-1	5.630373E-1	5.191319E-1	5.691672E-1	4.722310E-1	5.824794E-1	5.935770E-1	6.037644E-1	5.335304E-1	5.963620E-1	5.682716E-1	5.469839E-1	5.336863E-1	5.962604E-1	5.673666E-1	5.718041E-1	6.113805E-1	5.953027E-1	5.784668E-1	6.151370E-1	5.939070E-1	5.782058E-1	5.830410E-1	5.708336E-1	5.678036E-1	6.044092E-1	5.702395E-1	6.331058E-1	5.713145E-1	5.303483E-1	5.325485E-1
5.367710E+2	4.610468E-1	5.552312E-1	5.008852E-1	4.370923E-1	4.917133E-1	5.492086E-1	4.545589E-1	5.037160E-1	5.236887E-1	5.363257E-1	4.739162E-1	5.000668E-1	4.881080E-1	5.443108E-1	4.991124E-1	4.777715E-1	4.890089E-1	4.857458E-1	4.939397E-1	5.152996E-1	4.881951E-1	5.110040E-1	5.260505E-1	4.776775E-1	4.988105E-1	5.352818E-1	5.210700E-1	4.669963E-1	4.932421E-1	5.236722E-1	5.383276E-1	4.735140E-1	4.740974E-1	4.196010E-1	4.745615E-1	5.219662E-1	5.007768E-1	5.030532E-1	4.817415E-1	4.819548E-1	4.928697E-1	5.005378E-1	4.948026E-1	4.983945E-1	5.172608E-1	5.251423E-1	4.987695E-1	5.111581E-1	4.644828E-1	5.247635E-1	4.638269E-1	4.903020E-1	5.185824E-1	4.903166E-1	4.908747E-1	4.960258E-1	5.226835E-1	4.687664E-1	5.105180E-1	4.976918E-1	5.096915E-1	4.957841E-1	5.057975E-1	4.868473E-1	5.089054E-1	4.905109E-1	5.091370E-1	5.281842E-1	5.073965E-1	4.942856E-1	4.890774E-1	4.856419E-1	4.328322E-1	4.801826E-1	4.956362E-1	5.083459E-1	5.061819E-1	4.834678E-1	5.429949E-1	4.861404E-1	5.348780E-1	4.912473E-1	4.491857E-1	4.668941E-1	5.221890E-1	4.355421E-1	5.138078E-1	4.939719E-1	5.166343E-1	4.715759E-1	5.334745E-1	4.899020E-1	4.697011E-1	4.769453E-1	5.245526E-1	5.181265E-1	5.126121E-1	5.283792E-1	5.194326E-1	5.231362E-1	4.662281E-1	4.995816E-1	5.397454E-1	4.759833E-1	5.010821E-1	4.803480E-1	5.376896E-1	4.398203E-1	5.145032E-1	5.081753E-1	5.261469E-1	4.830300E-1	5.136174E-1	5.483744E-1	5.110455E-1	4.811949E-1	4.937557E-1	4.796338E-1	4.894061E-1	5.169266E-1	4.960006E-1	4.644671E-1	5.140238E-1	4.674155E-1	4.681034E-1	4.989358E-1	4.932197E-1	4.546098E-1	5.305292E-1	5.233190E-1	4.519827E-1	5.167863E-1	4.827916E-1	4.510201E-1	5.415629E-1	5.270802E-1	4.744028E-1	4.745398E-1	5.428808E-1	5.348523E-1	5.215038E-1	5.081338E-1	5.315462E-1	4.936540E-1	4.868471E-1	4.344726E-1	5.272491E-1	4.824957E-1	5.118840E-1	4.653882E-1	5.307969E-1	5.449147E-1	4.790122E-1	4.823303E-1	4.981008E-1	4.944396E-1	4.902402E-1	5.400188E-1	5.079124E-1	5.135745E-1	5.149141E-1	5.291165E-1	5.500643E-1	5.549817E-1	4.901648E-1	4.778062E-1	5.046074E-1	5.313849E-1	5.593524E-1	4.871135E-1	4.308153E-1	4.924402E-1
5.370170E+2	4.705905E-1	5.084747E-1	5.098104E-1	4.285576E-1	4.832988E-1	5.200383E-1	4.904314E-1	4.809218E-1	4.686598E-1	5.124566E-1	4.312692E-1	4.567302E-1	4.814865E-1	5.304015E-1	4.824473E-1	4.847067E-1	4.807950E-1	4.578744E-1	4.840557E-1	4.704988E-1	5.338916E-1	5.110039E-1	4.929169E-1	4.685110E-1	4.925998E-1	4.887762E-1	4.923037E-1	5.173729E-1	5.063893E-1	5.023604E-1	5.078683E-1	4.739140E-1	4.798538E-1	4.484559E-1	4.605171E-1	4.892902E-1	4.749462E-1	4.609459E-1	4.559925E-1	4.947130E-1	4.845292E-1	4.553542E-1	4.603068E-1	5.071303E-1	5.074008E-1	5.103967E-1	4.536254E-1	5.385299E-1	4.654806E-1	5.025685E-1	4.869657E-1	4.713936E-1	5.136300E-1	5.049727E-1	4.831485E-1	5.049491E-1	5.282269E-1	4.734125E-1	4.796230E-1	4.743415E-1	5.096913E-1	4.849241E-1	4.986439E-1	4.886815E-1	4.831473E-1	5.184389E-1	4.883326E-1	4.817854E-1	4.578974E-1	5.128682E-1	4.890775E-1	4.815755E-1	4.372544E-1	5.005077E-1	5.014460E-1	4.919657E-1	4.932479E-1	4.662527E-1	5.028986E-1	5.201946E-1	5.003522E-1	5.269640E-1	4.282696E-1	4.971377E-1	4.789701E-1	5.036744E-1	4.978958E-1	4.640803E-1	5.091254E-1	5.228520E-1	5.248311E-1	4.909893E-1	5.157030E-1	5.025890E-1	4.916310E-1	4.811739E-1	4.543789E-1	5.208898E-1	4.986781E-1	4.872188E-1	4.644719E-1	5.022034E-1	5.325118E-1	4.684717E-1	4.900498E-1	4.617081E-1	5.004713E-1	4.371871E-1	4.694841E-1	4.560999E-1	4.947840E-1	4.712242E-1	4.401155E-1	5.061238E-1	4.590451E-1	4.667285E-1	4.619797E-1	4.725670E-1	4.709936E-1	4.923434E-1	4.607786E-1	5.076691E-1	5.175024E-1	4.753092E-1	4.374999E-1	5.106836E-1	4.756481E-1	5.132889E-1	4.710746E-1	4.618747E-1	4.530026E-1	4.907158E-1	4.676249E-1	4.640753E-1	5.316210E-1	4.717978E-1	4.990810E-1	4.621872E-1	5.846099E-1	4.821396E-1	4.807318E-1	4.883934E-1	4.944670E-1	4.986497E-1	4.557826E-1	4.444090E-1	5.027656E-1	4.651221E-1	4.654652E-1	4.875970E-1	5.251180E-1	4.605438E-1	4.774060E-1	4.716080E-1	5.127079E-1	5.050167E-1	4.771898E-1	5.273664E-1	5.006300E-1	5.019867E-1	4.898584E-1	5.152333E-1	5.393709E-1	4.902293E-1	5.198082E-1	4.411795E-1	5.007127E-1	4.662480E-1	5.200633E-1	4.860995E-1	4.783530E-1	4.021966E-1
5.372640E+2	4.691587E-1	5.675047E-1	5.228998E-1	4.531570E-1	5.034003E-1	5.425560E-1	4.810734E-1	4.972033E-1	5.022277E-1	5.421713E-1	4.816699E-1	5.005767E-1	5.254727E-1	5.322559E-1	4.773554E-1	4.814432E-1	5.382934E-1	5.283724E-1	5.417141E-1	4.835226E-1	5.238387E-1	5.043231E-1	5.106845E-1	5.015113E-1	5.174415E-1	4.760933E-1	5.357051E-1	4.855562E-1	5.185970E-1	5.162593E-1	5.061279E-1	5.339366E-1	5.149139E-1	4.345093E-1	4.912068E-1	5.086919E-1	5.222293E-1	4.863059E-1	4.686331E-1	4.819547E-1	5.090295E-1	5.216242E-1	4.748591E-1	5.076764E-1	5.097482E-1	5.065914E-1	5.141187E-1	5.376471E-1	4.609913E-1	5.185694E-1	5.064236E-1	5.223408E-1	5.001231E-1	5.127314E-1	5.019120E-1	4.687315E-1	5.232377E-1	5.095507E-1	5.314467E-1	4.661960E-1	4.723901E-1	5.127825E-1	5.032422E-1	5.359213E-1	5.131983E-1	5.458090E-1	5.451223E-1	5.035871E-1	4.680751E-1	5.584397E-1	5.015098E-1	5.369762E-1	4.456065E-1	5.442070E-1	5.209901E-1	5.301873E-1	5.301336E-1	5.226807E-1	4.961354E-1	5.133837E-1	5.326863E-1	5.286133E-1	4.384721E-1	4.858604E-1	5.335620E-1	5.228796E-1	5.149445E-1	5.220521E-1	5.391632E-1	5.381256E-1	5.242909E-1	5.067576E-1	5.011759E-1	5.291829E-1	4.987213E-1	5.223903E-1	5.265028E-1	5.626179E-1	5.267246E-1	5.186467E-1	4.956411E-1	5.247486E-1	5.403021E-1	4.844341E-1	4.837459E-1	4.984398E-1	5.193761E-1	4.598318E-1	5.135842E-1	5.242356E-1	5.238063E-1	4.664144E-1	4.910839E-1	5.462616E-1	5.046185E-1	5.129094E-1	4.951374E-1	5.351609E-1	4.933112E-1	5.003708E-1	5.306976E-1	5.448559E-1	5.360535E-1	4.611000E-1	4.996942E-1	5.341789E-1	5.392168E-1	4.947824E-1	5.047480E-1	5.119407E-1	4.438253E-1	4.984813E-1	4.695211E-1	5.374575E-1	5.476387E-1	4.929346E-1	4.759780E-1	5.183348E-1	6.136393E-1	5.145781E-1	5.300376E-1	5.481629E-1	5.310375E-1	5.426117E-1	5.101450E-1	4.553392E-1	4.777127E-1	4.888130E-1	5.137982E-1	4.881021E-1	5.127281E-1	5.067815E-1	5.068425E-1	4.891026E-1	5.612035E-1	5.027900E-1	5.359161E-1	5.835443E-1	5.302454E-1	5.098662E-1	5.579442E-1	5.100270E-1	5.703259E-1	5.441897E-1	5.193225E-1	4.856548E-1	5.396601E-1	5.039588E-1	5.634876E-1	5.155195E-1	4.991516E-1	4.222507E-1
5.375160E+2	5.364428E-1	6.271187E-1	5.919195E-1	5.128969E-1	5.786651E-1	5.763322E-1	5.257846E-1	5.804711E-1	5.787172E-1	6.162145E-1	5.320706E-1	5.398342E-1	6.006757E-1	5.827925E-1	5.759587E-1	5.369236E-1	5.957912E-1	5.688127E-1	5.526964E-1	5.502030E-1	6.284845E-1	5.782897E-1	6.100841E-1	5.331378E-1	5.998711E-1	5.775594E-1	6.048448E-1	5.603253E-1	5.768183E-1	6.047477E-1	6.118643E-1	5.671497E-1	5.389850E-1	5.018376E-1	5.359406E-1	5.679170E-1	5.629453E-1	5.284130E-1	5.463479E-1	5.550704E-1	5.700191E-1	5.823710E-1	5.632559E-1	5.802928E-1	6.069401E-1	5.703314E-1	5.362392E-1	5.844435E-1	5.697337E-1	5.959933E-1	5.521751E-1	5.858940E-1	5.663059E-1	5.838542E-1	5.764123E-1	5.731854E-1	5.681417E-1	5.446568E-1	5.618438E-1	5.601414E-1	5.656423E-1	5.845533E-1	5.558744E-1	5.955446E-1	5.652519E-1	6.184220E-1	5.529943E-1	6.422251E-1	5.647586E-1	6.270191E-1	5.706318E-1	5.745869E-1	5.296179E-1	5.884145E-1	5.965239E-1	5.973473E-1	5.995940E-1	5.944117E-1	5.739133E-1	5.728644E-1	6.061221E-1	5.989482E-1	4.996902E-1	5.658264E-1	6.018024E-1	6.019857E-1	5.837042E-1	5.632667E-1	5.793927E-1	6.363141E-1	6.026236E-1	5.763556E-1	5.592831E-1	5.937678E-1	5.909028E-1	5.839785E-1	5.708456E-1	6.059509E-1	5.828192E-1	5.770121E-1	5.671998E-1	6.018226E-1	5.347374E-1	5.769233E-1	5.604448E-1	5.867064E-1	6.156694E-1	5.019623E-1	5.673314E-1	5.694968E-1	5.921498E-1	5.267569E-1	5.785343E-1	6.539999E-1	5.811585E-1	5.841294E-1	5.287553E-1	6.199658E-1	5.853713E-1	5.410085E-1	5.469939E-1	6.175881E-1	5.986639E-1	5.463556E-1	5.638635E-1	6.005792E-1	5.826302E-1	5.751273E-1	5.994540E-1	6.120720E-1	5.111255E-1	5.894503E-1	5.519870E-1	5.950823E-1	6.255182E-1	5.671868E-1	6.145970E-1	5.862730E-1	6.396440E-1	5.800347E-1	5.570608E-1	5.997076E-1	6.326232E-1	5.885717E-1	5.645079E-1	5.278752E-1	5.585652E-1	5.688338E-1	5.630880E-1	6.269108E-1	6.164954E-1	5.654116E-1	5.732083E-1	6.070514E-1	5.769793E-1	5.584601E-1	5.718045E-1	6.366860E-1	5.807373E-1	6.044233E-1	5.884472E-1	6.031624E-1	6.046586E-1	6.019269E-1	5.747211E-1	6.342550E-1	6.229092E-1	5.742391E-1	6.544731E-1	5.855171E-1	5.496608E-1	4.790710E-1
5.377630E+2	6.419022E-1	7.118644E-1	7.061583E-1	5.846861E-1	6.688888E-1	7.032494E-1	6.666749E-1	6.311761E-1	6.838222E-1	7.272789E-1	6.206876E-1	6.474101E-1	6.810812E-1	6.880381E-1	6.426203E-1	7.013258E-1	6.888836E-1	6.529738E-1	6.905272E-1	6.465775E-1	6.764664E-1	6.780248E-1	6.921969E-1	6.523087E-1	7.156106E-1	6.766769E-1	6.785264E-1	6.854704E-1	6.693161E-1	6.853601E-1	6.845309E-1	6.891961E-1	6.258504E-1	5.787848E-1	6.238478E-1	6.593079E-1	6.325563E-1	6.360732E-1	6.676028E-1	6.767655E-1	7.118073E-1	6.752489E-1	6.899206E-1	6.714721E-1	6.820641E-1	6.925800E-1	6.680603E-1	7.045253E-1	6.675023E-1	7.193560E-1	6.410491E-1	7.429374E-1	6.590521E-1	7.148928E-1	6.536723E-1	7.122829E-1	6.585052E-1	6.473929E-1	6.774512E-1	6.692912E-1	6.634301E-1	6.841820E-1	6.601174E-1	6.570028E-1	6.752612E-1	7.184048E-1	6.693845E-1	6.450203E-1	6.447888E-1	7.234720E-1	6.775474E-1	6.848796E-1	5.969255E-1	6.844509E-1	6.593812E-1	7.000001E-1	7.097727E-1	6.541878E-1	6.618359E-1	6.468755E-1	6.981913E-1	6.714810E-1	5.716210E-1	7.078167E-1	6.654933E-1	6.751477E-1	7.127006E-1	6.561131E-1	6.968618E-1	7.023188E-1	7.322791E-1	6.339912E-1	6.401492E-1	6.782972E-1	6.922003E-1	6.919939E-1	6.493802E-1	7.022469E-1	6.877150E-1	6.752228E-1	6.817811E-1	6.752264E-1	7.061209E-1	6.529803E-1	6.655116E-1	6.859371E-1	6.706101E-1	5.720038E-1	6.886078E-1	6.390919E-1	7.344524E-1	6.574984E-1	6.386233E-1	7.337478E-1	6.793165E-1	6.620258E-1	6.627668E-1	7.486867E-1	6.724096E-1	6.749649E-1	6.773684E-1	6.996173E-1	6.757677E-1	6.231910E-1	6.477763E-1	6.986467E-1	6.570523E-1	6.798463E-1	6.873198E-1	7.184615E-1	6.452163E-1	6.809740E-1	6.363492E-1	7.071802E-1	6.940071E-1	6.685377E-1	7.101601E-1	6.912689E-1	7.279402E-1	6.987839E-1	6.959706E-1	7.071831E-1	7.250661E-1	6.435237E-1	6.561476E-1	5.979275E-1	6.656091E-1	6.709658E-1	6.430055E-1	7.586530E-1	6.779301E-1	7.055534E-1	6.529550E-1	7.131495E-1	7.160385E-1	6.508711E-1	6.309968E-1	7.126024E-1	6.875469E-1	6.651431E-1	6.843133E-1	7.460467E-1	7.076542E-1	6.645209E-1	6.723975E-1	7.980293E-1	7.022637E-1	7.056565E-1	7.185760E-1	7.173979E-1	6.120551E-1	7.330890E-1
5.380110E+2	7.402034E-1	8.819406E-1	8.192068E-1	7.036650E-1	7.880970E-1	8.056025E-1	7.768919E-1	7.377029E-1	7.872752E-1	8.636743E-1	7.569365E-1	7.947535E-1	8.281756E-1	7.942114E-1	7.620557E-1	7.723082E-1	7.929282E-1	8.027146E-1	7.987058E-1	8.080694E-1	7.920790E-1	8.207085E-1	8.021612E-1	7.962309E-1	8.900674E-1	8.091468E-1	8.354780E-1	7.655423E-1	7.730829E-1	7.988664E-1	8.242078E-1	7.576222E-1	7.294612E-1	7.321977E-1	7.642925E-1	7.639739E-1	7.984847E-1	7.604812E-1	7.837078E-1	7.606756E-1	7.936476E-1	8.067847E-1	7.438210E-1	8.265325E-1	7.938112E-1	8.095952E-1	7.709895E-1	7.853160E-1	7.423246E-1	7.967806E-1	7.683118E-1	8.311760E-1	7.914181E-1	8.347243E-1	7.723210E-1	8.109629E-1	7.771417E-1	7.733612E-1	8.035240E-1	7.556339E-1	7.667631E-1	8.074193E-1	7.745795E-1	7.927600E-1	7.815145E-1	8.759193E-1	7.700305E-1	8.116092E-1	7.609015E-1	8.553207E-1	7.944091E-1	7.763660E-1	7.050112E-1	8.185973E-1	8.389718E-1	7.786269E-1	8.007895E-1	7.694361E-1	8.019323E-1	7.948974E-1	8.253347E-1	7.648955E-1	7.241559E-1	7.775308E-1	8.019740E-1	8.109543E-1	8.536309E-1	7.362778E-1	7.816119E-1	7.994154E-1	8.376229E-1	8.188600E-1	7.645959E-1	8.354854E-1	7.950173E-1	7.895866E-1	8.027092E-1	8.408064E-1	8.296339E-1	8.183302E-1	7.704610E-1	7.433868E-1	8.040540E-1	7.351408E-1	7.359067E-1	7.681732E-1	8.389759E-1	6.847017E-1	8.089644E-1	8.235439E-1	8.098172E-1	7.388297E-1	7.641669E-1	8.404295E-1	8.411609E-1	7.610648E-1	7.645420E-1	8.562067E-1	7.510797E-1	7.301530E-1	7.725207E-1	8.510978E-1	7.777995E-1	7.552848E-1	7.696972E-1	7.721973E-1	7.883244E-1	7.403304E-1	7.688723E-1	8.271269E-1	7.395388E-1	7.819277E-1	7.728456E-1	8.251316E-1	8.652303E-1	7.823542E-1	8.214755E-1	8.232151E-1	8.640129E-1	7.932034E-1	7.760922E-1	8.080791E-1	8.383338E-1	7.719125E-1	7.400214E-1	6.933178E-1	8.119410E-1	8.310081E-1	7.401500E-1	8.313384E-1	7.868599E-1	8.042243E-1	7.417999E-1	8.000592E-1	7.645340E-1	7.777985E-1	7.573050E-1	7.976288E-1	7.928998E-1	8.241291E-1	8.003322E-1	8.571152E-1	8.145900E-1	7.945654E-1	7.700744E-1	8.283774E-1	8.434467E-1	7.473672E-1	8.219686E-1	8.249322E-1	7.858655E-1	8.300191E-1
5.382690E+2	8.971992E-1	1.081239E+0	1.067914E+0	8.793719E-1	9.853747E-1	9.944436E-1	1.007724E+0	9.288935E-1	9.804256E-1	9.727908E-1	9.574319E-1	9.252717E-1	1.007433E+0	1.000066E+0	9.541706E-1	9.481339E-1	1.003755E+0	9.606523E-1	9.908998E-1	9.487243E-1	1.030159E+0	1.013976E+0	1.049460E+0	9.474866E-1	1.022180E+0	9.876524E-1	1.017663E+0	9.946213E-1	9.580777E-1	1.002251E+0	1.059179E+0	9.544971E-1	9.869181E-1	8.740686E-1	9.437482E-1	9.610515E-1	9.398975E-1	9.073780E-1	9.461608E-1	9.638279E-1	9.583721E-1	9.689450E-1	9.491802E-1	1.000156E+0	1.015427E+0	9.784592E-1	9.217717E-1	9.945748E-1	8.824928E-1	9.764037E-1	9.586805E-1	9.703621E-1	9.516977E-1	1.031713E+0	9.555363E-1	1.016721E+0	9.489978E-1	9.556014E-1	9.759387E-1	9.695902E-1	9.774610E-1	9.632370E-1	9.743776E-1	1.014284E+0	9.972402E-1	1.033992E+0	9.690748E-1	9.809930E-1	9.399282E-1	1.028318E+0	9.629876E-1	9.598474E-1	8.804044E-1	9.857728E-1	9.895112E-1	1.015055E+0	1.007733E+0	9.760216E-1	1.010627E+0	9.633522E-1	1.020434E+0	9.528224E-1	8.511827E-1	9.466889E-1	9.857660E-1	9.897438E-1	1.044000E+0	9.554856E-1	1.027816E+0	9.859734E-1	1.051013E+0	9.672982E-1	9.476338E-1	9.770016E-1	1.006223E+0	9.525570E-1	9.859571E-1	1.047307E+0	9.721133E-1	9.238362E-1	9.258698E-1	9.814241E-1	9.804451E-1	9.576786E-1	9.539205E-1	9.414165E-1	1.003798E+0	8.226775E-1	9.674509E-1	9.763610E-1	1.021866E+0	8.958071E-1	9.782332E-1	1.039534E+0	1.029297E+0	9.035044E-1	9.330930E-1	9.965387E-1	9.725809E-1	9.529114E-1	9.785962E-1	9.943752E-1	9.807030E-1	8.963252E-1	9.355488E-1	1.025538E+0	9.614602E-1	9.736924E-1	9.572322E-1	1.014874E+0	8.649623E-1	1.005468E+0	9.842250E-1	1.027720E+0	1.028721E+0	9.606673E-1	9.810973E-1	1.014678E+0	1.106526E+0	9.704581E-1	9.823221E-1	9.994516E-1	9.978226E-1	9.702401E-1	8.943076E-1	8.657157E-1	9.975594E-1	1.022637E+0	9.799011E-1	1.041318E+0	1.006269E+0	9.844058E-1	9.564188E-1	1.025798E+0	9.754601E-1	9.509309E-1	9.344157E-1	1.040055E+0	1.021570E+0	9.488150E-1	1.029102E+0	9.982646E-1	9.975077E-1	9.942187E-1	9.066274E-1	1.056510E+0	9.846297E-1	9.502079E-1	1.037024E+0	1.019710E+0	9.284806E-1	8.367028E-1
5.385060E+2	1.122911E+0	1.299825E+0	1.333281E+0	1.025962E+0	1.221451E+0	1.232413E+0	1.359692E+0	1.128458E+0	1.254468E+0	1.346416E+0	1.275345E+0	1.148072E+0	1.224054E+0	1.194332E+0	1.202298E+0	1.157001E+0	1.181178E+0	1.181983E+0	1.234713E+0	1.208675E+0	1.245393E+0	1.235874E+0	1.361104E+0	1.142287E+0	1.244626E+0	1.198571E+0	1.276054E+0	1.226352E+0	1.254353E+0	1.183394E+0	1.242367E+0	1.207395E+0	1.197278E+0	1.084231E+0	1.300061E+0	1.194379E+0	1.226220E+0	1.161454E+0	1.293072E+0	1.193477E+0	1.163755E+0	1.189343E+0	1.307077E+0	1.219642E+0	1.197135E+0	1.219151E+0	1.199860E+0	1.210018E+0	1.160337E+0	1.179256E+0	1.238975E+0	1.259238E+0	1.186714E+0	1.251116E+0	1.286096E+0	1.174190E+0	1.190151E+0	1.155394E+0	1.300341E+0	1.205267E+0	1.229491E+0	1.191300E+0	1.203814E+0	1.239017E+0	1.170573E+0	1.288698E+0	1.148440E+0	1.259386E+0	1.155501E+0	1.305731E+0	1.212623E+0	1.162134E+0	1.043022E+0	1.177845E+0	1.247278E+0	1.272776E+0	1.229528E+0	1.250034E+0	1.245894E+0	1.173122E+0	1.256086E+0	1.204490E+0	1.061364E+0	1.158907E+0	1.232796E+0	1.202828E+0	1.207093E+0	1.194622E+0	1.233255E+0	1.294173E+0	1.237392E+0	1.159236E+0	1.147619E+0	1.232017E+0	1.249337E+0	1.184697E+0	1.195382E+0	1.267185E+0	1.222854E+0	1.165154E+0	1.184008E+0	1.208974E+0	1.247535E+0	1.149701E+0	1.119401E+0	1.207861E+0	1.270821E+0	1.054393E+0	1.171874E+0	1.205103E+0	1.203493E+0	1.148107E+0	1.184790E+0	1.286168E+0	1.219187E+0	1.167795E+0	1.137103E+0	1.290327E+0	1.141079E+0	1.156604E+0	1.170477E+0	1.227340E+0	1.252596E+0	1.086835E+0	1.147800E+0	1.213502E+0	1.194031E+0	1.161913E+0	1.176635E+0	1.190103E+0	1.091335E+0	1.209593E+0	1.196079E+0	1.256868E+0	1.262914E+0	1.182339E+0	1.221057E+0	1.206141E+0	1.261951E+0	1.211430E+0	1.180967E+0	1.205082E+0	1.199978E+0	1.182556E+0	1.148000E+0	1.067923E+0	1.181471E+0	1.160570E+0	1.201948E+0	1.248269E+0	1.234454E+0	1.172691E+0	1.135179E+0	1.281450E+0	1.160094E+0	1.155238E+0	1.228512E+0	1.249081E+0	1.212856E+0	1.168056E+0	1.266587E+0	1.242384E+0	1.237833E+0	1.233262E+0	1.128707E+0	1.329119E+0	1.236812E+0	1.197617E+0	1.255527E+0	1.195214E+0	1.134974E+0	1.221074E+0
5.387700E+2	1.353394E+0	1.582701E+0	1.683140E+0	1.284502E+0	1.489788E+0	1.502627E+0	1.637316E+0	1.427106E+0	1.486690E+0	1.467222E+0	1.505750E+0	1.454996E+0	1.491756E+0	1.537884E+0	1.495796E+0	1.433587E+0	1.488384E+0	1.437196E+0	1.436241E+0	1.507177E+0	1.468391E+0	1.460157E+0	1.605521E+0	1.442047E+0	1.485702E+0	1.478073E+0	1.559173E+0	1.455431E+0	1.479725E+0	1.470636E+0	1.526506E+0	1.427476E+0	1.437991E+0	1.219849E+0	1.560662E+0	1.438427E+0	1.440746E+0	1.351416E+0	1.621253E+0	1.425091E+0	1.395206E+0	1.456930E+0	1.594903E+0	1.502462E+0	1.473216E+0	1.513114E+0	1.465310E+0	1.576004E+0	1.374827E+0	1.468305E+0	1.469312E+0	1.498216E+0	1.458651E+0	1.483453E+0	1.608380E+0	1.495427E+0	1.486741E+0	1.406815E+0	1.559460E+0	1.456693E+0	1.437166E+0	1.468467E+0	1.484350E+0	1.505487E+0	1.481281E+0	1.560714E+0	1.542590E+0	1.396908E+0	1.401143E+0	1.549518E+0	1.658686E+0	1.412704E+0	1.322081E+0	1.454267E+0	1.591671E+0	1.457881E+0	1.487251E+0	1.450404E+0	1.487922E+0	1.439654E+0	1.498317E+0	1.430331E+0	1.353679E+0	1.373174E+0	1.463903E+0	1.489530E+0	1.567372E+0	1.421981E+0	1.513250E+0	1.534191E+0	1.561528E+0	1.426751E+0	1.396029E+0	1.463762E+0	1.475230E+0	1.390778E+0	1.421902E+0	1.564629E+0	1.566151E+0	1.453613E+0	1.410975E+0	1.437052E+0	1.625915E+0	1.356744E+0	1.351072E+0	1.431541E+0	1.579789E+0	1.413026E+0	1.476441E+0	1.463042E+0	1.523205E+0	1.407841E+0	1.426215E+0	1.538087E+0	1.465749E+0	1.430974E+0	1.423548E+0	1.567958E+0	1.485327E+0	1.369833E+0	1.419137E+0	1.577330E+0	1.521010E+0	1.389439E+0	1.364492E+0	1.480632E+0	1.411611E+0	1.478780E+0	1.432339E+0	1.535442E+0	1.305473E+0	1.500805E+0	1.408404E+0	1.499071E+0	1.567246E+0	1.457127E+0	1.440009E+0	1.468350E+0	1.613927E+0	1.445455E+0	1.408060E+0	1.491317E+0	1.486954E+0	1.426845E+0	1.350434E+0	1.252245E+0	1.406948E+0	1.463279E+0	1.420640E+0	1.535478E+0	1.440956E+0	1.411025E+0	1.376555E+0	1.488001E+0	1.479696E+0	1.440824E+0	1.415880E+0	1.530475E+0	1.503186E+0	1.528208E+0	1.452872E+0	1.575012E+0	1.508551E+0	1.410251E+0	1.406188E+0	1.563008E+0	1.490940E+0	1.361603E+0	1.502979E+0	1.524915E+0	1.391979E+0	1.307975E+0
5.390340E+2	1.592946E+0	1.745762E+0	1.828314E+0	1.466736E+0	1.727734E+0	1.726266E+0	1.876984E+0	1.629927E+0	1.613802E+0	1.718581E+0	1.732275E+0	1.637517E+0	1.769391E+0	1.720562E+0	1.723093E+0	1.687736E+0	1.669091E+0	1.638857E+0	1.769013E+0	1.692630E+0	1.726580E+0	1.692077E+0	1.918608E+0	1.633639E+0	1.739767E+0	1.679126E+0	1.822607E+0	1.629891E+0	1.708857E+0	1.672170E+0	1.754078E+0	1.626356E+0	1.622710E+0	1.526674E+0	1.791095E+0	1.693200E+0	1.686356E+0	1.515061E+0	1.857677E+0	1.617940E+0	1.646982E+0	1.685865E+0	1.752289E+0	1.681548E+0	1.698587E+0	1.667711E+0	1.694641E+0	1.766720E+0	1.577347E+0	1.726901E+0	1.786944E+0	1.709361E+0	1.706272E+0	1.724406E+0	1.889274E+0	1.670741E+0	1.606484E+0	1.653589E+0	1.830038E+0	1.692372E+0	1.673067E+0	1.637974E+0	1.672904E+0	1.682521E+0	1.684665E+0	1.784699E+0	1.670788E+0	1.682008E+0	1.573692E+0	1.723840E+0	1.834725E+0	1.635834E+0	1.450800E+0	1.740854E+0	1.795030E+0	1.723789E+0	1.706172E+0	1.658425E+0	1.715458E+0	1.664409E+0	1.755342E+0	1.664968E+0	1.477134E+0	1.615635E+0	1.678175E+0	1.671980E+0	1.836733E+0	1.635301E+0	1.663441E+0	1.752387E+0	1.787884E+0	1.596939E+0	1.630876E+0	1.730173E+0	1.712268E+0	1.675028E+0	1.642016E+0	1.726195E+0	1.769773E+0	1.708959E+0	1.620385E+0	1.617416E+0	1.913035E+0	1.618247E+0	1.592202E+0	1.681539E+0	1.821411E+0	1.700563E+0	1.647788E+0	1.615860E+0	1.780195E+0	1.574439E+0	1.622045E+0	1.727159E+0	1.718740E+0	1.602901E+0	1.591641E+0	1.812782E+0	1.870302E+0	1.555465E+0	1.564757E+0	1.796621E+0	1.777826E+0	1.617316E+0	1.577237E+0	1.650717E+0	1.625574E+0	1.580343E+0	1.675944E+0	1.690192E+0	1.494629E+0	1.730446E+0	1.591821E+0	1.709766E+0	1.821321E+0	1.624596E+0	1.636388E+0	1.667675E+0	1.802615E+0	1.642402E+0	1.610970E+0	1.653630E+0	1.660668E+0	1.625171E+0	1.567883E+0	1.442031E+0	1.689931E+0	1.611214E+0	1.641252E+0	1.685894E+0	1.798206E+0	1.605032E+0	1.572445E+0	1.654486E+0	1.734446E+0	1.700244E+0	1.606969E+0	1.764296E+0	1.701268E+0	1.640378E+0	1.691987E+0	1.755497E+0	1.735366E+0	1.665483E+0	1.641388E+0	1.743003E+0	1.828807E+0	1.631296E+0	1.675987E+0	1.674042E+0	1.675723E+0	1.498489E+0
5.392670E+2	1.730852E+0	2.067795E+0	2.093090E+0	1.658005E+0	1.928753E+0	1.960654E+0	2.090661E+0	1.772268E+0	1.865838E+0	1.943633E+0	1.931665E+0	1.815449E+0	1.916962E+0	1.890252E+0	1.927244E+0	1.844792E+0	1.874443E+0	1.836690E+0	1.906842E+0	1.914552E+0	1.902513E+0	1.903004E+0	2.096280E+0	1.831184E+0	1.984232E+0	1.826160E+0	2.003786E+0	1.832988E+0	1.825770E+0	1.920028E+0	1.994707E+0	1.805619E+0	1.823652E+0	1.636805E+0	2.030890E+0	1.873430E+0	1.863229E+0	1.745692E+0	2.067881E+0	1.848569E+0	1.880514E+0	1.859069E+0	1.990530E+0	1.875917E+0	1.876065E+0	1.892226E+0	1.868448E+0	1.952142E+0	1.806304E+0	1.906528E+0	1.942075E+0	1.833839E+0	1.879610E+0	1.930015E+0	2.077456E+0	1.886998E+0	1.857616E+0	1.831701E+0	2.028868E+0	1.847135E+0	1.813199E+0	1.874063E+0	1.877812E+0	1.855888E+0	1.826873E+0	1.933277E+0	1.991848E+0	1.908972E+0	1.806845E+0	1.980458E+0	2.081871E+0	1.882336E+0	1.585907E+0	1.899388E+0	2.093466E+0	1.893059E+0	1.892513E+0	1.869317E+0	1.911110E+0	1.797449E+0	1.909887E+0	1.882564E+0	1.631708E+0	1.791455E+0	1.826032E+0	1.894667E+0	1.989597E+0	1.852697E+0	1.852252E+0	1.905125E+0	2.038550E+0	1.809540E+0	1.788257E+0	1.906831E+0	1.943731E+0	1.787309E+0	1.734973E+0	1.871173E+0	1.983491E+0	1.870027E+0	1.781062E+0	1.823469E+0	2.060494E+0	1.755809E+0	1.730364E+0	1.825725E+0	1.986228E+0	1.818528E+0	1.829704E+0	1.836810E+0	1.896281E+0	1.767709E+0	1.849523E+0	1.961122E+0	2.008543E+0	1.813219E+0	1.734400E+0	1.974822E+0	2.124726E+0	1.788256E+0	1.807102E+0	1.895603E+0	1.972036E+0	1.754147E+0	1.749010E+0	1.943900E+0	1.842640E+0	1.799256E+0	1.786959E+0	1.897282E+0	1.621071E+0	1.778148E+0	1.771919E+0	1.862382E+0	2.005246E+0	1.853314E+0	1.899975E+0	1.850715E+0	2.062667E+0	1.803437E+0	1.822892E+0	1.867485E+0	1.860793E+0	1.753061E+0	1.700943E+0	1.590085E+0	1.870996E+0	1.784418E+0	1.803478E+0	1.945844E+0	1.999542E+0	1.774729E+0	1.802585E+0	1.875713E+0	1.930762E+0	1.782078E+0	1.780823E+0	1.972816E+0	1.908091E+0	1.824856E+0	1.839055E+0	1.973004E+0	1.935730E+0	1.785817E+0	1.744412E+0	1.958576E+0	2.033766E+0	1.764425E+0	1.824184E+0	1.871863E+0	1.834677E+0	1.635524E+0
5.395160E+2	1.882598E+0	2.203392E+0	2.221013E+0	1.745358E+0	2.046558E+0	2.116229E+0	2.286660E+0	1.956487E+0	1.960486E+0	2.106819E+0	2.110006E+0	1.925068E+0	2.048447E+0	2.060406E+0	1.986961E+0	2.021028E+0	1.999297E+0	1.982055E+0	2.125398E+0	2.061460E+0	2.089869E+0	2.006080E+0	2.272028E+0	1.933400E+0	2.068355E+0	1.979297E+0	2.182435E+0	1.979344E+0	2.005600E+0	1.952922E+0	2.169191E+0	1.986891E+0	1.999477E+0	1.686823E+0	2.094866E+0	1.978095E+0	1.980560E+0	1.800720E+0	2.197568E+0	1.983023E+0	1.996241E+0	1.987593E+0	2.168401E+0	1.967644E+0	2.024905E+0	2.060615E+0	2.022390E+0	2.067808E+0	1.930510E+0	2.035050E+0	2.082489E+0	2.020297E+0	1.971903E+0	2.074419E+0	2.229771E+0	1.960481E+0	1.986787E+0	1.974188E+0	2.141982E+0	2.018192E+0	1.953325E+0	1.988803E+0	1.957019E+0	1.985686E+0	1.994302E+0	2.086884E+0	2.054824E+0	1.998413E+0	1.870218E+0	2.051252E+0	2.193759E+0	1.973318E+0	1.732801E+0	1.931910E+0	2.169001E+0	2.056866E+0	2.028082E+0	1.951086E+0	2.049757E+0	1.916863E+0	2.018395E+0	1.924326E+0	1.708742E+0	1.910379E+0	2.021195E+0	1.963710E+0	2.137343E+0	1.906594E+0	2.007265E+0	2.062774E+0	2.190891E+0	1.897623E+0	1.869603E+0	1.940550E+0	2.058195E+0	1.930381E+0	1.960963E+0	2.058949E+0	2.089512E+0	1.968237E+0	1.941736E+0	1.886910E+0	2.175674E+0	1.838440E+0	1.833331E+0	1.871778E+0	2.147509E+0	2.009167E+0	1.939954E+0	1.966268E+0	2.033905E+0	1.877027E+0	1.909077E+0	2.066218E+0	2.035421E+0	1.922276E+0	1.861966E+0	2.110610E+0	2.166572E+0	1.891105E+0	2.038937E+0	2.036145E+0	2.064212E+0	1.832557E+0	1.939546E+0	1.938284E+0	1.939801E+0	1.892691E+0	1.915343E+0	1.993998E+0	1.734769E+0	1.911833E+0	1.887561E+0	2.005092E+0	2.130074E+0	1.966047E+0	1.864795E+0	1.973114E+0	2.091695E+0	1.947674E+0	1.940468E+0	1.948089E+0	2.034502E+0	1.938898E+0	1.795172E+0	1.689947E+0	2.052058E+0	1.914981E+0	1.929811E+0	2.077586E+0	2.086276E+0	1.923449E+0	1.880188E+0	1.991966E+0	2.037689E+0	1.891194E+0	1.930432E+0	2.037594E+0	2.048886E+0	1.935636E+0	1.999197E+0	2.094486E+0	2.011150E+0	1.932047E+0	1.864442E+0	2.182002E+0	2.240186E+0	1.911274E+0	2.034414E+0	1.878965E+0	1.989179E+0	2.003185E+0
5.397650E+2	1.862080E+0	2.165399E+0	2.297171E+0	1.809112E+0	2.035807E+0	2.164337E+0	2.242467E+0	2.116969E+0	2.042476E+0	2.074670E+0	2.134931E+0	2.101978E+0	2.108986E+0	2.117433E+0	2.014735E+0	1.977374E+0	2.079793E+0	1.958558E+0	2.149010E+0	1.982796E+0	2.129166E+0	2.063341E+0	2.297956E+0	1.983817E+0	2.081341E+0	2.052579E+0	2.183448E+0	1.974042E+0	2.005132E+0	2.036310E+0	2.214011E+0	1.987291E+0	2.053376E+0	1.700286E+0	2.230631E+0	2.001579E+0	2.015584E+0	1.853833E+0	2.170880E+0	2.003143E+0	1.968090E+0	2.070929E+0	2.215829E+0	2.044630E+0	2.044160E+0	2.032076E+0	2.025097E+0	2.083260E+0	2.011818E+0	2.034532E+0	2.107208E+0	2.041832E+0	2.016477E+0	2.073122E+0	2.277229E+0	2.011399E+0	2.030027E+0	1.904490E+0	2.135505E+0	1.956285E+0	2.015830E+0	1.989274E+0	2.036219E+0	2.047141E+0	2.034013E+0	2.070127E+0	2.159406E+0	2.009038E+0	1.957651E+0	2.060543E+0	2.277306E+0	1.972301E+0	1.806988E+0	2.000002E+0	2.162665E+0	2.013729E+0	2.049158E+0	1.986476E+0	2.054106E+0	1.922769E+0	2.037575E+0	1.970486E+0	1.735781E+0	1.933960E+0	2.000269E+0	2.024527E+0	2.120297E+0	1.956868E+0	2.008876E+0	2.070409E+0	2.153080E+0	1.938949E+0	1.915122E+0	2.103910E+0	1.985265E+0	1.926594E+0	1.940127E+0	2.059486E+0	2.118679E+0	2.005841E+0	1.946567E+0	1.930953E+0	2.243005E+0	1.896655E+0	1.862226E+0	1.931537E+0	2.141011E+0	1.994419E+0	1.982217E+0	1.900080E+0	2.087736E+0	1.915068E+0	1.967552E+0	2.159695E+0	2.092094E+0	1.868861E+0	1.877162E+0	2.160581E+0	2.311632E+0	1.945292E+0	1.972175E+0	2.042160E+0	2.147692E+0	1.860452E+0	1.887717E+0	2.022047E+0	1.958927E+0	1.992444E+0	1.963746E+0	2.023013E+0	1.785751E+0	1.997804E+0	1.944910E+0	2.046960E+0	2.116816E+0	1.955209E+0	2.012338E+0	2.030389E+0	2.147331E+0	1.894964E+0	1.914868E+0	1.977151E+0	2.015708E+0	1.959883E+0	1.856267E+0	1.714790E+0	2.042947E+0	1.984999E+0	1.937471E+0	2.059920E+0	2.190559E+0	1.975404E+0	1.861459E+0	2.025262E+0	2.058135E+0	1.963003E+0	1.900136E+0	2.156533E+0	2.045974E+0	1.946300E+0	1.994293E+0	2.071347E+0	2.149604E+0	1.936905E+0	1.893600E+0	2.114502E+0	2.252355E+0	1.911846E+0	1.985476E+0	2.059541E+0	1.937182E+0	1.939678E+0
5.400140E+2	1.846809E+0	2.100524E+0	2.203759E+0	1.813128E+0	2.015704E+0	2.099854E+0	2.211794E+0	2.221637E+0	1.920315E+0	2.014265E+0	2.076221E+0	2.145825E+0	2.066890E+0	2.043253E+0	1.967052E+0	1.936581E+0	2.065556E+0	1.979873E+0	2.073233E+0	2.004154E+0	1.960549E+0	1.956928E+0	2.193276E+0	2.222157E+0	2.058190E+0	2.020168E+0	2.098158E+0	2.134186E+0	1.986821E+0	1.958481E+0	1.997749E+0	1.950878E+0	1.906855E+0	1.721445E+0	2.089668E+0	1.953078E+0	1.949916E+0	1.816033E+0	2.141382E+0	2.095888E+0	1.926910E+0	1.970022E+0	2.148991E+0	2.198052E+0	1.955885E+0	1.990217E+0	1.988082E+0	2.047502E+0	1.892601E+0	1.896205E+0	2.016754E+0	2.006640E+0	1.976405E+0	2.004588E+0	2.196658E+0	2.050239E+0	1.942438E+0	1.891070E+0	2.085673E+0	2.007877E+0	1.903423E+0	1.871700E+0	1.983589E+0	1.926518E+0	1.913272E+0	2.042200E+0	2.025018E+0	1.997860E+0	1.846626E+0	2.109213E+0	2.150001E+0	2.006863E+0	1.727404E+0	1.970019E+0	2.163191E+0	1.973326E+0	2.019461E+0	1.954431E+0	2.020290E+0	1.906424E+0	2.049087E+0	1.916632E+0	1.708738E+0	1.897051E+0	1.896092E+0	1.962340E+0	2.061197E+0	1.880777E+0	1.947192E+0	1.966219E+0	2.119583E+0	1.872068E+0	1.878321E+0	1.957645E+0	2.019197E+0	1.909536E+0	1.824194E+0	2.076604E+0	2.059219E+0	1.972728E+0	1.887299E+0	1.915222E+0	2.106119E+0	1.866610E+0	1.855923E+0	1.885484E+0	2.093748E+0	1.923854E+0	1.923874E+0	1.995472E+0	2.034841E+0	1.810125E+0	1.885469E+0	2.011822E+0	2.020814E+0	1.758695E+0	1.785979E+0	2.049529E+0	2.123051E+0	1.833910E+0	1.906462E+0	2.023567E+0	2.062471E+0	1.817299E+0	1.830457E+0	1.958203E+0	1.956859E+0	1.887726E+0	1.920075E+0	1.997979E+0	1.712335E+0	1.914052E+0	1.864340E+0	2.024900E+0	2.115717E+0	1.948703E+0	1.906278E+0	1.927076E+0	2.138865E+0	1.901913E+0	1.862716E+0	1.946991E+0	1.941551E+0	1.821499E+0	1.818469E+0	1.691438E+0	1.994550E+0	1.892339E+0	1.853722E+0	2.033673E+0	2.122414E+0	1.844797E+0	1.803120E+0	1.906183E+0	2.107218E+0	1.881726E+0	1.888487E+0	2.034054E+0	2.019274E+0	1.847569E+0	1.965971E+0	2.041268E+0	2.065743E+0	1.876468E+0	1.833340E+0	2.051191E+0	2.174951E+0	1.880990E+0	2.018560E+0	1.939833E+0	1.870331E+0	1.862806E+0
5.402740E+2	1.766164E+0	2.081825E+0	2.095467E+0	1.752885E+0	1.950260E+0	2.021555E+0	2.101058E+0	2.176515E+0	1.817961E+0	1.966039E+0	1.910064E+0	2.088722E+0	1.937771E+0	1.964896E+0	1.890209E+0	1.928018E+0	1.900181E+0	1.901721E+0	1.983722E+0	1.996341E+0	1.962377E+0	1.852897E+0	2.088116E+0	2.097947E+0	1.935113E+0	1.911184E+0	2.088573E+0	2.082748E+0	1.904181E+0	1.930220E+0	1.989048E+0	1.891657E+0	1.908423E+0	1.628148E+0	2.058979E+0	1.897937E+0	1.857976E+0	1.742825E+0	2.055711E+0	2.140050E+0	1.848195E+0	1.805351E+0	1.973278E+0	2.109600E+0	1.885927E+0	1.909827E+0	1.880636E+0	1.943756E+0	1.792837E+0	1.871426E+0	1.981517E+0	1.958846E+0	1.878257E+0	1.923120E+0	2.191689E+0	2.094857E+0	1.850968E+0	1.832732E+0	2.028366E+0	2.024710E+0	1.840917E+0	1.838652E+0	1.848176E+0	1.890288E+0	1.846194E+0	1.963438E+0	1.994099E+0	1.949782E+0	1.844313E+0	2.007451E+0	2.086845E+0	2.112073E+0	1.696447E+0	1.928864E+0	2.031668E+0	2.030108E+0	1.950476E+0	1.867880E+0	1.918842E+0	1.878724E+0	2.011820E+0	1.860588E+0	1.668436E+0	1.882187E+0	1.924296E+0	1.873176E+0	2.045286E+0	2.016648E+0	1.903205E+0	1.910031E+0	1.959133E+0	1.951997E+0	1.803263E+0	1.898282E+0	1.866239E+0	1.851741E+0	1.810301E+0	1.968002E+0	2.029488E+0	1.901453E+0	1.840326E+0	1.798303E+0	2.083306E+0	1.846891E+0	1.807064E+0	1.821339E+0	1.972646E+0	1.884884E+0	1.857267E+0	1.782791E+0	1.930923E+0	1.819307E+0	1.793726E+0	1.978549E+0	1.979326E+0	1.775386E+0	1.730254E+0	1.939992E+0	2.094597E+0	1.767187E+0	1.790281E+0	1.955211E+0	1.965078E+0	1.714149E+0	1.749013E+0	1.895377E+0	1.878300E+0	1.802416E+0	1.815900E+0	1.917193E+0	1.656248E+0	1.912385E+0	1.768603E+0	1.897496E+0	2.005246E+0	1.841393E+0	1.830665E+0	1.917529E+0	2.042710E+0	1.816179E+0	1.845176E+0	1.899832E+0	1.881616E+0	1.792026E+0	1.743398E+0	1.563755E+0	1.906298E+0	1.812317E+0	1.769981E+0	1.907482E+0	2.000060E+0	1.809045E+0	1.725517E+0	1.928758E+0	1.923168E+0	1.762598E+0	1.724426E+0	1.911072E+0	1.897896E+0	1.829493E+0	1.901151E+0	1.951602E+0	1.984699E+0	1.838157E+0	1.787663E+0	1.966425E+0	2.190530E+0	1.727289E+0	1.947566E+0	1.880994E+0	1.754458E+0	1.765877E+0
5.405080E+2	1.741827E+0	1.976621E+0	2.061552E+0	1.684614E+0	1.879202E+0	1.935578E+0	1.999160E+0	2.045334E+0	1.858680E+0	1.906123E+0	1.864648E+0	1.990834E+0	1.848850E+0	1.869853E+0	1.841601E+0	1.834597E+0	1.882108E+0	1.763458E+0	1.915082E+0	1.901010E+0	1.907084E+0	1.838104E+0	2.035776E+0	2.039737E+0	1.894464E+0	1.839312E+0	1.932627E+0	2.007446E+0	1.838449E+0	1.877869E+0	1.912900E+0	1.856842E+0	1.758240E+0	1.585829E+0	1.872758E+0	1.856581E+0	1.761219E+0	1.686840E+0	2.059924E+0	2.099322E+0	1.830995E+0	1.783763E+0	1.945252E+0	2.000948E+0	1.801885E+0	1.831817E+0	1.817434E+0	1.907553E+0	1.746945E+0	1.800713E+0	1.893168E+0	1.853272E+0	1.817478E+0	1.859324E+0	2.010130E+0	2.043417E+0	1.866489E+0	1.751677E+0	1.907282E+0	1.913388E+0	1.785473E+0	1.730523E+0	1.792987E+0	1.844883E+0	1.821504E+0	1.894179E+0	1.900199E+0	1.912886E+0	1.771687E+0	1.924711E+0	2.011261E+0	1.998222E+0	1.614890E+0	1.828251E+0	1.994163E+0	1.979877E+0	1.845567E+0	1.761717E+0	1.889854E+0	1.815612E+0	1.870978E+0	1.751238E+0	1.614364E+0	1.886796E+0	1.778265E+0	1.798184E+0	1.968573E+0	2.001249E+0	1.757309E+0	1.887668E+0	1.991546E+0	1.895991E+0	1.673492E+0	1.872163E+0	1.852562E+0	1.812892E+0	1.681013E+0	1.895247E+0	1.977881E+0	1.897526E+0	1.758672E+0	1.761078E+0	2.020989E+0	2.001825E+0	1.728265E+0	1.774190E+0	1.908252E+0	1.955977E+0	1.779171E+0	1.736554E+0	1.910794E+0	1.757651E+0	1.793726E+0	1.906723E+0	1.875328E+0	1.814890E+0	1.710914E+0	1.906171E+0	1.923870E+0	1.929736E+0	1.718260E+0	1.857868E+0	1.898408E+0	1.832031E+0	1.671023E+0	1.814168E+0	1.741345E+0	1.792035E+0	1.741190E+0	1.867128E+0	1.553259E+0	1.863571E+0	1.747748E+0	1.813759E+0	1.966033E+0	1.827300E+0	1.756630E+0	1.848466E+0	1.933244E+0	1.748409E+0	1.753676E+0	1.846647E+0	1.822189E+0	1.726584E+0	1.644510E+0	1.593063E+0	1.853911E+0	1.767568E+0	1.705852E+0	1.907482E+0	2.021746E+0	1.760427E+0	1.696613E+0	1.785411E+0	1.838447E+0	1.731421E+0	1.770563E+0	1.874125E+0	1.849346E+0	1.724735E+0	1.844501E+0	1.853258E+0	1.885078E+0	1.763155E+0	1.739553E+0	1.888461E+0	2.006504E+0	1.709577E+0	1.880017E+0	1.826212E+0	1.782682E+0	1.665607E+0
5.407790E+2	1.685040E+0	1.890708E+0	1.902096E+0	1.620858E+0	1.815157E+0	1.767718E+0	1.981480E+0	1.893221E+0	1.753575E+0	1.825262E+0	1.782678E+0	1.896004E+0	1.777434E+0	1.785933E+0	1.761052E+0	1.788907E+0	1.749043E+0	1.721378E+0	1.831615E+0	1.861416E+0	1.780961E+0	1.799926E+0	1.834096E+0	1.902231E+0	1.825582E+0	1.736907E+0	1.804946E+0	1.912530E+0	1.739847E+0	1.769922E+0	1.839801E+0	1.741597E+0	1.690213E+0	1.484834E+0	1.778088E+0	1.789186E+0	1.741957E+0	1.624157E+0	1.914325E+0	1.954072E+0	1.693896E+0	1.743098E+0	1.856315E+0	1.904311E+0	1.710324E+0	1.741913E+0	1.739787E+0	1.824996E+0	1.704049E+0	1.802776E+0	1.802192E+0	1.781315E+0	1.713928E+0	1.810185E+0	1.921833E+0	1.975704E+0	1.742863E+0	1.678367E+0	1.867411E+0	1.819986E+0	1.736575E+0	1.768768E+0	1.734222E+0	1.782964E+0	1.694324E+0	1.815419E+0	1.822042E+0	1.784870E+0	1.679628E+0	1.837994E+0	1.977446E+0	1.960608E+0	1.467997E+0	1.722054E+0	1.883241E+0	1.843915E+0	1.788085E+0	1.684724E+0	1.766185E+0	1.762487E+0	1.742189E+0	1.703980E+0	1.522028E+0	1.723283E+0	1.705016E+0	1.727764E+0	1.926520E+0	1.971360E+0	1.712788E+0	1.752931E+0	1.846769E+0	1.768218E+0	1.673008E+0	1.745847E+0	1.725942E+0	1.732354E+0	1.728565E+0	1.804301E+0	1.797818E+0	1.863292E+0	1.668235E+0	1.726996E+0	1.875200E+0	1.851116E+0	1.673102E+0	1.687023E+0	1.820818E+0	1.862237E+0	1.672135E+0	1.772568E+0	1.802664E+0	1.688567E+0	1.681062E+0	1.801623E+0	1.850203E+0	1.738665E+0	1.667167E+0	1.810261E+0	1.970735E+0	1.946294E+0	1.674628E+0	1.813575E+0	1.856090E+0	1.753619E+0	1.637457E+0	1.774325E+0	1.640562E+0	1.642177E+0	1.705936E+0	1.785203E+0	1.572126E+0	1.810326E+0	1.642059E+0	1.703461E+0	1.931788E+0	1.915643E+0	1.681543E+0	1.705854E+0	1.808664E+0	1.793011E+0	1.673552E+0	1.782490E+0	1.771399E+0	1.637160E+0	1.587043E+0	1.468860E+0	1.824875E+0	1.744404E+0	1.587652E+0	1.740914E+0	1.915913E+0	1.881503E+0	1.642555E+0	1.701326E+0	1.765997E+0	1.799339E+0	1.676886E+0	1.794665E+0	1.818760E+0	1.722884E+0	1.735564E+0	1.861358E+0	1.878325E+0	1.694622E+0	1.620980E+0	1.852362E+0	1.906698E+0	1.750715E+0	1.743539E+0	1.792734E+0	1.700976E+0	1.765875E+0
5.410130E+2	1.566223E+0	1.905903E+0	1.830695E+0	1.566134E+0	1.741760E+0	1.736504E+0	1.875427E+0	1.870889E+0	1.712857E+0	1.789699E+0	1.791539E+0	1.840944E+0	1.795880E+0	1.754404E+0	1.715685E+0	1.707317E+0	1.729328E+0	1.671099E+0	1.795920E+0	1.721806E+0	1.715613E+0	1.663924E+0	1.914287E+0	1.930189E+0	1.722264E+0	1.704023E+0	1.836741E+0	1.839354E+0	1.642653E+0	1.724056E+0	1.791499E+0	1.700380E+0	1.622186E+0	1.485796E+0	1.793173E+0	1.739148E+0	1.641261E+0	1.545687E+0	1.882489E+0	1.874577E+0	1.681387E+0	1.657751E+0	1.796489E+0	1.924512E+0	1.679336E+0	1.691018E+0	1.698254E+0	1.814400E+0	1.634212E+0	1.729998E+0	1.755916E+0	1.724591E+0	1.688711E+0	1.748115E+0	1.819189E+0	1.858653E+0	1.687980E+0	1.649974E+0	1.830537E+0	1.825956E+0	1.713393E+0	1.693220E+0	1.689767E+0	1.717380E+0	1.689494E+0	1.767942E+0	1.678097E+0	1.757478E+0	1.613475E+0	1.753042E+0	1.856105E+0	1.874206E+0	1.463081E+0	1.683943E+0	1.817216E+0	1.889780E+0	1.777067E+0	1.721546E+0	1.670050E+0	1.631264E+0	1.728492E+0	1.640239E+0	1.426118E+0	1.707391E+0	1.673174E+0	1.642257E+0	1.809455E+0	1.903422E+0	1.681141E+0	1.708203E+0	1.803010E+0	1.775827E+0	1.604730E+0	1.709754E+0	1.698592E+0	1.677396E+0	1.650029E+0	1.739032E+0	1.849427E+0	1.795947E+0	1.639259E+0	1.633142E+0	1.914146E+0	1.881164E+0	1.569613E+0	1.658512E+0	1.756426E+0	1.829584E+0	1.768143E+0	1.675721E+0	1.729637E+0	1.650960E+0	1.663892E+0	1.768351E+0	1.828001E+0	1.646857E+0	1.586574E+0	1.767350E+0	1.894296E+0	1.902147E+0	1.684615E+0	1.787873E+0	1.806233E+0	1.774669E+0	1.629066E+0	1.737551E+0	1.633329E+0	1.699503E+0	1.667526E+0	1.749358E+0	1.507375E+0	1.770943E+0	1.594664E+0	1.729573E+0	1.861090E+0	1.940031E+0	1.615910E+0	1.655318E+0	1.788706E+0	1.761728E+0	1.617609E+0	1.666786E+0	1.705367E+0	1.691112E+0	1.549763E+0	1.495688E+0	1.740036E+0	1.783890E+0	1.601531E+0	1.783819E+0	1.840537E+0	1.840982E+0	1.607231E+0	1.690602E+0	1.747883E+0	1.775401E+0	1.597652E+0	1.730896E+0	1.740592E+0	1.631571E+0	1.705063E+0	1.778636E+0	1.805158E+0	1.707035E+0	1.587450E+0	1.811025E+0	1.855096E+0	1.834708E+0	1.687706E+0	1.731867E+0	1.619270E+0	1.685662E+0
5.412690E+2	1.450743E+0	1.725892E+0	1.780122E+0	1.462218E+0	1.577207E+0	1.628008E+0	1.757928E+0	1.800648E+0	1.534015E+0	1.648434E+0	1.668029E+0	1.777722E+0	1.623241E+0	1.607892E+0	1.593009E+0	1.630624E+0	1.594618E+0	1.640495E+0	1.687741E+0	1.674916E+0	1.652097E+0	1.650562E+0	1.784155E+0	1.825227E+0	1.587894E+0	1.603966E+0	1.727731E+0	1.834582E+0	1.586779E+0	1.591094E+0	1.740154E+0	1.571532E+0	1.585558E+0	1.397305E+0	1.661570E+0	1.609979E+0	1.582596E+0	1.437545E+0	1.800563E+0	1.744052E+0	1.582344E+0	1.563364E+0	1.690306E+0	1.802209E+0	1.647407E+0	1.634889E+0	1.607514E+0	1.680634E+0	1.544925E+0	1.604054E+0	1.667042E+0	1.697277E+0	1.609025E+0	1.592939E+0	1.738616E+0	1.799338E+0	1.603160E+0	1.547755E+0	1.700977E+0	1.650015E+0	1.617621E+0	1.594064E+0	1.583992E+0	1.629780E+0	1.567141E+0	1.658468E+0	1.667977E+0	1.619954E+0	1.564439E+0	1.678713E+0	1.771570E+0	1.889452E+0	1.426237E+0	1.616362E+0	1.759640E+0	1.710142E+0	1.666886E+0	1.595299E+0	1.699035E+0	1.561340E+0	1.615048E+0	1.546275E+0	1.360309E+0	1.597694E+0	1.598564E+0	1.591499E+0	1.749785E+0	1.782948E+0	1.581372E+0	1.616011E+0	1.716574E+0	1.715474E+0	1.500138E+0	1.612401E+0	1.615527E+0	1.566066E+0	1.529288E+0	1.650225E+0	1.695167E+0	1.729726E+0	1.568581E+0	1.538244E+0	1.808424E+0	1.748765E+0	1.537042E+0	1.543382E+0	1.720983E+0	1.708986E+0	1.554995E+0	1.558429E+0	1.634148E+0	1.496169E+0	1.527616E+0	1.663253E+0	1.672001E+0	1.558943E+0	1.512888E+0	1.659832E+0	1.761507E+0	1.756146E+0	1.504300E+0	1.664278E+0	1.732609E+0	1.699938E+0	1.518497E+0	1.557248E+0	1.565108E+0	1.568153E+0	1.557563E+0	1.701003E+0	1.399798E+0	1.645578E+0	1.496086E+0	1.601268E+0	1.708092E+0	1.779606E+0	1.510897E+0	1.653076E+0	1.777215E+0	1.681790E+0	1.562140E+0	1.600439E+0	1.615463E+0	1.572215E+0	1.519733E+0	1.427626E+0	1.673417E+0	1.691760E+0	1.517784E+0	1.598573E+0	1.705280E+0	1.776635E+0	1.503403E+0	1.637554E+0	1.636286E+0	1.623978E+0	1.533798E+0	1.612970E+0	1.619704E+0	1.613495E+0	1.522046E+0	1.661205E+0	1.670078E+0	1.652535E+0	1.529133E+0	1.683879E+0	1.779637E+0	1.762715E+0	1.571219E+0	1.616218E+0	1.638582E+0	1.525228E+0
5.415140E+2	1.345758E+0	1.569844E+0	1.615905E+0	1.355788E+0	1.466414E+0	1.445818E+0	1.574407E+0	1.687142E+0	1.560977E+0	1.497912E+0	1.513504E+0	1.574807E+0	1.667230E+0	1.491523E+0	1.442558E+0	1.515991E+0	1.606115E+0	1.432828E+0	1.516414E+0	1.506655E+0	1.547904E+0	1.429143E+0	1.591117E+0	1.609804E+0	1.579425E+0	1.425929E+0	1.568759E+0	1.571562E+0	1.601806E+0	1.484073E+0	1.494306E+0	1.441081E+0	1.532180E+0	1.224179E+0	1.561179E+0	1.474168E+0	1.441184E+0	1.321752E+0	1.650281E+0	1.598314E+0	1.410322E+0	1.430824E+0	1.545852E+0	1.615481E+0	1.464764E+0	1.418455E+0	1.465760E+0	1.485941E+0	1.370837E+0	1.452819E+0	1.509278E+0	1.484562E+0	1.426235E+0	1.422672E+0	1.606727E+0	1.561038E+0	1.409129E+0	1.373259E+0	1.529562E+0	1.535431E+0	1.417002E+0	1.437304E+0	1.433761E+0	1.502737E+0	1.405080E+0	1.464645E+0	1.579137E+0	1.471816E+0	1.367372E+0	1.601282E+0	1.647250E+0	1.594155E+0	1.273932E+0	1.480183E+0	1.574769E+0	1.559985E+0	1.442702E+0	1.399237E+0	1.479227E+0	1.405148E+0	1.521882E+0	1.445168E+0	1.312867E+0	1.487483E+0	1.391112E+0	1.459809E+0	1.583853E+0	1.629865E+0	1.470339E+0	1.476371E+0	1.530196E+0	1.492000E+0	1.355839E+0	1.461862E+0	1.472191E+0	1.468474E+0	1.379700E+0	1.506852E+0	1.506688E+0	1.495145E+0	1.372781E+0	1.385145E+0	1.644276E+0	1.577406E+0	1.390475E+0	1.426606E+0	1.544934E+0	1.550474E+0	1.415343E+0	1.424109E+0	1.466566E+0	1.397787E+0	1.449824E+0	1.520662E+0	1.523593E+0	1.449333E+0	1.371971E+0	1.525052E+0	1.617558E+0	1.619181E+0	1.389170E+0	1.494751E+0	1.547675E+0	1.471012E+0	1.339320E+0	1.459180E+0	1.440035E+0	1.445378E+0	1.418134E+0	1.499031E+0	1.266215E+0	1.511899E+0	1.393711E+0	1.491419E+0	1.552885E+0	1.570399E+0	1.452613E+0	1.467227E+0	1.514746E+0	1.435605E+0	1.418963E+0	1.424418E+0	1.472225E+0	1.389874E+0	1.369590E+0	1.262182E+0	1.501465E+0	1.549090E+0	1.401979E+0	1.516295E+0	1.541624E+0	1.578339E+0	1.348192E+0	1.429871E+0	1.522350E+0	1.490926E+0	1.440579E+0	1.461136E+0	1.503668E+0	1.422989E+0	1.453960E+0	1.554183E+0	1.542882E+0	1.489033E+0	1.377030E+0	1.541034E+0	1.590743E+0	1.584441E+0	1.438876E+0	1.448831E+0	1.397920E+0	1.408244E+0
5.417760E+2	1.192581E+0	1.364115E+0	1.427292E+0	1.139418E+0	1.286435E+0	1.331184E+0	1.415319E+0	1.435944E+0	1.364523E+0	1.289909E+0	1.304699E+0	1.473858E+0	1.467164E+0	1.327858E+0	1.291183E+0	1.309163E+0	1.438004E+0	1.253575E+0	1.274799E+0	1.296715E+0	1.332214E+0	1.279300E+0	1.410563E+0	1.369170E+0	1.410049E+0	1.279367E+0	1.382032E+0	1.446950E+0	1.412585E+0	1.313582E+0	1.356372E+0	1.319438E+0	1.376766E+0	1.115969E+0	1.291215E+0	1.255646E+0	1.361939E+0	1.196387E+0	1.445691E+0	1.373077E+0	1.336303E+0	1.259127E+0	1.359359E+0	1.444044E+0	1.422035E+0	1.281938E+0	1.257645E+0	1.330101E+0	1.281048E+0	1.269068E+0	1.331529E+0	1.321215E+0	1.276759E+0	1.319223E+0	1.398677E+0	1.441887E+0	1.345929E+0	1.242127E+0	1.317280E+0	1.320935E+0	1.348451E+0	1.283843E+0	1.226297E+0	1.260116E+0	1.288630E+0	1.335057E+0	1.361542E+0	1.313611E+0	1.180019E+0	1.325199E+0	1.423472E+0	1.437102E+0	1.101487E+0	1.247460E+0	1.379329E+0	1.357410E+0	1.338267E+0	1.226601E+0	1.307729E+0	1.313426E+0	1.344322E+0	1.282518E+0	1.094015E+0	1.248613E+0	1.269646E+0	1.243523E+0	1.327565E+0	1.438285E+0	1.272409E+0	1.374910E+0	1.406483E+0	1.390323E+0	1.221224E+0	1.271906E+0	1.301000E+0	1.261915E+0	1.208203E+0	1.303562E+0	1.319335E+0	1.302649E+0	1.225714E+0	1.249871E+0	1.413911E+0	1.351580E+0	1.241281E+0	1.259942E+0	1.373023E+0	1.338769E+0	1.266045E+0	1.273237E+0	1.313495E+0	1.180903E+0	1.240586E+0	1.341623E+0	1.293974E+0	1.296881E+0	1.217235E+0	1.359484E+0	1.373738E+0	1.458131E+0	1.238819E+0	1.353663E+0	1.327379E+0	1.306815E+0	1.234675E+0	1.314633E+0	1.240545E+0	1.235036E+0	1.232932E+0	1.282838E+0	1.129067E+0	1.371564E+0	1.226884E+0	1.284781E+0	1.386080E+0	1.372033E+0	1.263060E+0	1.284188E+0	1.351456E+0	1.302374E+0	1.232169E+0	1.284045E+0	1.321879E+0	1.310446E+0	1.148518E+0	1.070904E+0	1.322676E+0	1.279022E+0	1.221087E+0	1.308336E+0	1.324283E+0	1.418654E+0	1.209571E+0	1.270726E+0	1.314927E+0	1.314455E+0	1.251352E+0	1.327523E+0	1.345885E+0	1.293667E+0	1.335763E+0	1.326263E+0	1.362216E+0	1.299094E+0	1.225414E+0	1.328071E+0	1.434468E+0	1.425026E+0	1.247945E+0	1.236806E+0	1.216681E+0	1.187648E+0
5.420270E+2	9.873884E-1	1.164231E+0	1.138718E+0	1.012909E+0	1.047082E+0	1.132108E+0	1.198525E+0	1.271268E+0	1.155967E+0	1.084830E+0	1.077619E+0	1.164386E+0	1.233041E+0	1.118757E+0	1.073142E+0	1.096216E+0	1.200344E+0	1.058476E+0	1.091390E+0	1.128971E+0	1.121556E+0	1.102735E+0	1.200240E+0	1.252291E+0	1.158810E+0	1.074086E+0	1.193794E+0	1.168023E+0	1.235572E+0	1.076377E+0	1.124014E+0	1.057338E+0	1.189952E+0	9.452443E-1	1.140368E+0	1.099415E+0	1.073427E+0	1.028437E+0	1.201778E+0	1.169434E+0	1.155414E+0	1.072868E+0	1.166396E+0	1.189612E+0	1.260990E+0	1.129248E+0	1.092868E+0	1.110684E+0	1.114444E+0	1.102864E+0	1.112238E+0	1.114801E+0	1.088115E+0	1.124819E+0	1.177934E+0	1.182589E+0	1.108658E+0	1.041301E+0	1.206159E+0	1.128157E+0	1.266291E+0	1.074197E+0	1.043873E+0	1.122522E+0	1.170572E+0	1.161904E+0	1.125387E+0	1.130253E+0	1.031986E+0	1.128751E+0	1.194224E+0	1.191614E+0	9.658896E-1	1.088413E+0	1.132656E+0	1.141185E+0	1.224259E+0	1.081704E+0	1.150244E+0	1.097297E+0	1.201833E+0	1.046236E+0	9.562729E-1	1.075864E+0	1.045365E+0	1.044158E+0	1.187771E+0	1.187827E+0	1.123829E+0	1.065069E+0	1.170943E+0	1.148905E+0	1.166989E+0	1.080527E+0	1.095365E+0	1.094208E+0	1.164929E+0	1.127020E+0	1.150493E+0	1.119697E+0	1.070742E+0	1.076325E+0	1.182989E+0	1.139370E+0	1.069494E+0	1.059288E+0	1.194613E+0	1.159717E+0	1.157632E+0	1.112143E+0	1.107999E+0	1.098261E+0	1.099484E+0	1.157307E+0	1.149073E+0	1.044830E+0	1.016907E+0	1.205518E+0	1.175113E+0	1.196743E+0	1.068491E+0	1.089529E+0	1.129114E+0	1.148935E+0	1.049078E+0	1.118498E+0	1.074127E+0	1.071641E+0	1.064040E+0	1.102488E+0	9.567354E-1	1.161334E+0	1.043467E+0	1.103803E+0	1.167910E+0	1.196431E+0	1.058808E+0	1.085424E+0	1.235946E+0	1.124542E+0	1.088994E+0	1.091574E+0	1.100932E+0	1.052668E+0	1.039274E+0	9.342770E-1	1.108020E+0	1.123717E+0	1.053597E+0	1.087251E+0	1.192119E+0	1.213686E+0	1.028672E+0	1.120610E+0	1.175868E+0	1.159136E+0	1.056062E+0	1.142290E+0	1.131292E+0	1.098530E+0	1.081391E+0	1.179908E+0	1.142153E+0	1.154481E+0	1.065533E+0	1.113543E+0	1.256285E+0	1.191332E+0	1.105263E+0	1.143474E+0	1.036928E+0	1.144200E+0
5.422670E+2	8.590239E-1	1.032729E+0	1.052444E+0	8.823842E-1	9.704150E-1	1.051250E+0	1.069592E+0	1.051700E+0	1.063519E+0	1.028323E+0	9.989710E-1	1.058340E+0	1.097771E+0	1.012121E+0	9.550959E-1	9.599634E-1	1.047563E+0	9.508153E-1	1.018357E+0	9.857114E-1	1.000458E+0	9.528939E-1	1.039376E+0	1.084993E+0	1.037424E+0	9.477233E-1	1.048447E+0	1.071511E+0	1.085323E+0	9.545316E-1	1.033941E+0	9.548983E-1	1.022502E+0	8.505036E-1	9.978451E-1	9.651362E-1	9.836768E-1	8.446951E-1	1.066011E+0	1.102206E+0	9.860000E-1	9.418345E-1	1.034881E+0	1.119181E+0	1.071771E+0	9.584808E-1	1.000775E+0	1.022390E+0	9.997148E-1	9.887916E-1	9.970702E-1	1.036541E+0	1.016531E+0	9.571414E-1	1.054319E+0	1.049790E+0	1.030491E+0	9.540522E-1	1.049689E+0	1.039099E+0	1.096924E+0	9.519052E-1	9.876630E-1	9.913514E-1	9.827512E-1	9.932174E-1	1.006747E+0	1.019007E+0	9.450154E-1	9.659319E-1	1.098746E+0	1.090470E+0	8.528918E-1	9.862806E-1	1.037050E+0	1.070203E+0	1.073360E+0	9.430254E-1	9.584542E-1	9.506378E-1	1.042355E+0	9.764504E-1	8.501623E-1	9.794955E-1	9.612008E-1	1.001632E+0	1.052524E+0	1.099058E+0	1.038543E+0	1.020339E+0	1.011036E+0	1.047771E+0	1.100651E+0	9.660794E-1	9.971062E-1	9.662961E-1	9.656554E-1	1.012534E+0	1.041109E+0	1.015874E+0	9.688919E-1	9.441981E-1	1.092290E+0	1.098996E+0	1.037449E+0	9.507368E-1	1.025656E+0	1.007524E+0	1.070351E+0	9.374269E-1	1.031228E+0	9.321000E-1	9.793061E-1	1.024747E+0	1.004173E+0	9.897462E-1	9.404605E-1	1.033387E+0	1.076916E+0	1.092385E+0	1.028538E+0	9.763289E-1	9.870807E-1	1.031576E+0	1.058950E+0	9.473908E-1	9.645608E-1	9.344221E-1	1.039311E+0	9.670829E-1	8.613931E-1	1.042077E+0	9.884898E-1	1.011513E+0	1.095554E+0	1.104293E+0	9.789970E-1	1.008502E+0	1.042420E+0	1.023171E+0	1.015509E+0	9.851947E-1	9.632834E-1	9.377682E-1	9.388333E-1	8.691939E-1	1.051651E+0	1.025270E+0	9.492738E-1	1.036271E+0	1.057894E+0	1.031597E+0	9.253765E-1	9.704927E-1	1.000585E+0	1.040560E+0	9.525937E-1	9.686934E-1	1.007005E+0	1.020658E+0	9.980542E-1	1.012727E+0	1.030714E+0	1.019580E+0	9.746605E-1	1.049708E+0	1.105364E+0	1.109052E+0	1.021860E+0	9.963774E-1	9.373945E-1	1.074010E+0
5.425190E+2	8.456628E-1	9.579193E-1	9.869946E-1	8.402144E-1	8.937480E-1	9.407084E-1	9.796496E-1	9.665733E-1	9.358520E-1	8.695198E-1	9.092467E-1	9.782953E-1	1.027298E+0	9.115114E-1	9.185248E-1	9.040747E-1	9.982786E-1	8.857822E-1	9.315946E-1	9.278864E-1	9.497336E-1	8.832216E-1	9.635043E-1	9.937805E-1	9.911282E-1	8.951117E-1	9.979812E-1	9.686381E-1	1.046349E+0	8.442685E-1	9.312493E-1	8.988758E-1	9.183676E-1	7.576864E-1	9.245020E-1	8.773186E-1	9.022442E-1	8.097654E-1	9.747188E-1	9.471441E-1	9.526377E-1	8.825938E-1	9.475627E-1	9.815924E-1	9.764566E-1	8.937886E-1	9.131939E-1	9.468975E-1	8.760080E-1	8.855595E-1	9.571027E-1	9.682613E-1	8.760598E-1	8.950714E-1	1.013481E+0	9.595082E-1	9.578679E-1	8.657718E-1	9.694603E-1	9.201739E-1	9.986314E-1	9.197976E-1	9.309431E-1	9.308109E-1	9.494803E-1	9.245138E-1	9.370251E-1	9.541598E-1	8.515714E-1	9.172633E-1	1.019181E+0	1.030495E+0	8.057270E-1	8.648371E-1	9.292956E-1	9.577221E-1	9.813864E-1	8.913789E-1	9.188405E-1	9.179461E-1	9.585059E-1	8.528141E-1	7.695589E-1	9.323365E-1	8.856816E-1	9.101802E-1	9.581914E-1	1.003493E+0	9.065912E-1	9.319698E-1	9.262205E-1	9.161873E-1	9.776556E-1	9.086181E-1	9.003664E-1	9.127619E-1	9.416145E-1	9.429867E-1	9.580899E-1	9.569471E-1	9.012862E-1	8.571620E-1	9.754373E-1	9.802143E-1	9.497177E-1	9.024921E-1	9.642174E-1	9.538078E-1	1.011091E+0	8.936255E-1	9.202893E-1	8.966816E-1	9.616016E-1	9.497523E-1	9.580161E-1	8.940448E-1	9.013167E-1	9.213246E-1	1.001594E+0	9.975645E-1	9.365400E-1	9.473450E-1	9.424414E-1	8.905357E-1	9.562802E-1	9.192985E-1	9.180468E-1	8.707779E-1	9.161925E-1	9.471709E-1	7.655413E-1	9.716314E-1	8.775873E-1	9.421824E-1	9.574705E-1	9.888499E-1	9.432923E-1	8.973300E-1	9.958529E-1	9.455492E-1	1.010770E+0	9.215865E-1	8.870948E-1	8.598358E-1	8.984496E-1	7.971537E-1	9.651047E-1	9.057648E-1	9.066835E-1	9.615662E-1	9.778747E-1	1.030167E+0	9.371511E-1	8.931773E-1	9.684491E-1	9.509310E-1	9.964047E-1	9.403515E-1	9.341804E-1	9.149778E-1	9.621049E-1	1.003471E+0	1.001447E+0	9.327036E-1	8.857307E-1	9.445367E-1	1.016761E+0	9.942046E-1	9.315645E-1	9.334792E-1	9.492779E-1	8.600989E-1
5.427650E+2	8.566383E-1	1.035652E+0	1.065534E+0	8.668214E-1	9.231991E-1	9.934202E-1	1.033719E+0	1.005648E+0	9.820765E-1	9.411274E-1	9.585400E-1	1.026221E+0	1.037230E+0	9.796667E-1	9.476905E-1	9.318157E-1	9.577564E-1	8.868753E-1	1.004628E+0	9.706043E-1	9.575008E-1	9.051737E-1	1.022089E+0	1.083617E+0	1.013147E+0	9.373891E-1	9.904108E-1	9.978033E-1	1.029445E+0	9.239545E-1	9.738911E-1	9.308873E-1	1.027734E+0	7.822128E-1	9.827605E-1	9.253118E-1	9.814887E-1	8.710123E-1	1.076780E+0	9.888538E-1	9.724462E-1	9.107082E-1	1.027335E+0	1.056393E+0	1.028574E+0	9.318427E-1	9.312520E-1	9.663211E-1	9.238948E-1	9.454343E-1	9.707762E-1	9.341219E-1	9.188310E-1	9.386069E-1	1.030589E+0	1.011998E+0	1.010533E+0	8.843574E-1	9.729489E-1	9.663317E-1	1.037444E+0	9.212145E-1	9.248111E-1	9.684188E-1	1.000460E+0	9.597038E-1	9.510828E-1	9.837882E-1	9.251252E-1	1.009291E+0	1.087806E+0	1.081322E+0	8.091662E-1	9.136180E-1	1.013281E+0	9.981281E-1	1.057552E+0	9.076379E-1	9.739132E-1	9.065944E-1	9.722072E-1	9.308423E-1	8.215942E-1	9.820589E-1	9.243507E-1	8.950903E-1	9.934240E-1	1.056030E+0	1.022988E+0	9.717904E-1	1.059656E+0	1.020584E+0	1.065301E+0	9.532572E-1	9.454442E-1	9.525573E-1	9.811487E-1	9.590358E-1	9.311644E-1	9.401118E-1	9.131390E-1	8.996317E-1	1.066693E+0	1.006974E+0	9.523442E-1	9.151014E-1	9.919829E-1	1.035434E+0	1.016144E+0	9.461872E-1	9.502477E-1	8.944953E-1	9.310207E-1	9.787995E-1	9.650270E-1	9.452343E-1	8.884222E-1	1.006634E+0	1.002152E+0	1.056265E+0	9.743905E-1	9.954687E-1	1.001574E+0	1.019473E+0	1.032791E+0	9.330891E-1	9.464720E-1	9.533791E-1	9.998496E-1	9.204311E-1	8.741395E-1	1.033757E+0	9.733239E-1	9.759459E-1	1.013808E+0	1.030041E+0	1.001050E+0	9.422486E-1	1.060563E+0	9.559762E-1	1.051542E+0	9.665508E-1	9.709027E-1	8.838151E-1	9.414217E-1	8.284537E-1	1.002115E+0	9.689390E-1	9.626735E-1	9.751944E-1	1.001622E+0	1.025400E+0	9.697991E-1	9.654134E-1	9.742917E-1	9.904564E-1	1.076571E+0	9.423757E-1	9.676797E-1	9.256388E-1	1.049255E+0	1.003471E+0	1.010452E+0	9.942184E-1	9.187762E-1	1.009418E+0	1.082969E+0	1.046772E+0	1.049432E+0	9.223216E-1	9.760195E-1	9.436576E-1
5.430070E+2	9.425325E-1	1.082992E+0	1.097663E+0	9.416221E-1	1.047083E+0	1.089120E+0	1.139777E+0	1.167067E+0	1.058566E+0	1.078498E+0	1.029434E+0	1.148582E+0	1.183378E+0	1.069148E+0	1.032406E+0	1.072149E+0	1.176798E+0	1.057382E+0	1.085900E+0	1.085211E+0	1.102362E+0	1.055492E+0	1.148380E+0	1.160620E+0	1.124370E+0	1.016777E+0	1.103961E+0	1.113933E+0	1.221953E+0	1.000398E+0	1.076149E+0	9.977133E-1	1.135530E+0	8.783966E-1	1.074309E+0	1.061122E+0	1.074739E+0	9.308240E-1	1.157773E+0	1.110057E+0	1.068883E+0	1.040739E+0	1.124357E+0	1.174872E+0	1.207932E+0	1.066458E+0	1.001225E+0	1.031661E+0	1.088505E+0	1.096670E+0	1.063331E+0	1.084862E+0	1.057050E+0	1.024386E+0	1.206078E+0	1.166843E+0	1.087591E+0	9.948375E-1	1.125433E+0	1.096661E+0	1.199247E+0	1.043980E+0	1.012702E+0	1.057856E+0	1.054123E+0	1.096551E+0	1.077593E+0	1.095593E+0	9.834132E-1	1.092472E+0	1.194223E+0	1.192123E+0	9.152863E-1	1.007622E+0	1.100435E+0	1.150468E+0	1.143302E+0	1.092705E+0	1.077294E+0	1.049621E+0	1.099898E+0	1.024806E+0	8.802610E-1	1.100981E+0	1.012607E+0	1.055132E+0	1.153107E+0	1.186015E+0	1.099692E+0	1.077616E+0	1.151495E+0	1.178266E+0	1.125344E+0	1.068181E+0	1.048768E+0	1.026462E+0	1.066093E+0	1.103480E+0	1.088789E+0	1.079851E+0	1.015867E+0	9.908620E-1	1.186882E+0	1.126224E+0	1.060038E+0	9.326451E-1	1.103045E+0	1.131279E+0	1.155334E+0	1.002155E+0	1.058380E+0	9.255421E-1	1.091972E+0	1.106606E+0	1.090646E+0	1.072650E+0	1.031645E+0	1.151003E+0	1.117088E+0	1.156105E+0	1.087943E+0	1.145855E+0	1.165637E+0	1.058416E+0	1.129537E+0	1.049545E+0	1.004873E+0	1.021989E+0	1.091925E+0	1.075749E+0	9.725410E-1	1.153571E+0	1.005078E+0	1.058783E+0	1.140845E+0	1.150362E+0	1.037806E+0	1.056227E+0	1.166397E+0	1.080518E+0	1.204674E+0	1.069092E+0	1.054711E+0	1.008207E+0	1.017530E+0	9.064554E-1	1.106312E+0	1.084759E+0	1.017706E+0	1.063528E+0	1.144109E+0	1.175551E+0	1.046869E+0	1.063046E+0	1.075372E+0	1.114044E+0	1.160000E+0	1.075483E+0	1.040019E+0	1.053105E+0	1.139674E+0	1.136522E+0	1.061106E+0	1.116169E+0	1.017426E+0	1.143892E+0	1.153563E+0	1.160477E+0	1.074934E+0	1.085650E+0	1.041384E+0	1.007162E+0
5.432590E+2	1.079010E+0	1.316189E+0	1.273187E+0	1.121848E+0	1.180782E+0	1.226273E+0	1.304583E+0	1.343837E+0	1.321604E+0	1.304036E+0	1.215529E+0	1.313261E+0	1.336619E+0	1.355677E+0	1.150452E+0	1.191266E+0	1.281388E+0	1.194555E+0	1.227573E+0	1.224822E+0	1.257274E+0	1.194359E+0	1.298679E+0	1.329294E+0	1.309552E+0	1.223000E+0	1.290688E+0	1.288925E+0	1.346851E+0	1.257985E+0	1.229312E+0	1.162176E+0	1.264259E+0	1.101543E+0	1.241801E+0	1.209695E+0	1.192948E+0	1.125569E+0	1.288389E+0	1.290640E+0	1.213279E+0	1.163737E+0	1.248863E+0	1.344127E+0	1.332827E+0	1.183948E+0	1.196702E+0	1.247101E+0	1.157343E+0	1.231901E+0	1.236346E+0	1.226676E+0	1.158801E+0	1.205855E+0	1.310933E+0	1.316962E+0	1.281069E+0	1.123902E+0	1.217120E+0	1.287807E+0	1.276875E+0	1.163440E+0	1.181842E+0	1.195906E+0	1.276290E+0	1.242893E+0	1.181050E+0	1.201250E+0	1.161978E+0	1.235380E+0	1.377720E+0	1.314611E+0	1.072500E+0	1.209859E+0	1.328093E+0	1.254759E+0	1.288928E+0	1.228994E+0	1.191304E+0	1.168129E+0	1.261018E+0	1.112176E+0	1.020552E+0	1.196326E+0	1.183210E+0	1.145670E+0	1.273013E+0	1.378048E+0	1.240763E+0	1.210714E+0	1.277908E+0	1.295167E+0	1.319521E+0	1.173130E+0	1.220971E+0	1.210278E+0	1.302231E+0	1.217429E+0	1.238561E+0	1.274591E+0	1.159862E+0	1.197440E+0	1.283705E+0	1.329983E+0	1.257565E+0	1.187028E+0	1.306266E+0	1.256092E+0	1.323926E+0	1.158865E+0	1.213320E+0	1.132803E+0	1.243266E+0	1.240753E+0	1.203996E+0	1.191721E+0	1.096117E+0	1.232276E+0	1.274428E+0	1.334712E+0	1.216740E+0	1.227336E+0	1.229986E+0	1.205773E+0	1.280582E+0	1.218099E+0	1.166639E+0	1.201635E+0	1.190840E+0	1.175311E+0	1.072472E+0	1.264507E+0	1.172381E+0	1.185736E+0	1.347971E+0	1.283690E+0	1.221580E+0	1.205017E+0	1.297633E+0	1.263565E+0	1.316086E+0	1.197404E+0	1.219788E+0	1.116113E+0	1.221518E+0	1.015259E+0	1.170652E+0	1.210054E+0	1.157440E+0	1.263414E+0	1.330994E+0	1.293288E+0	1.210108E+0	1.197361E+0	1.261175E+0	1.298868E+0	1.285374E+0	1.266791E+0	1.242958E+0	1.202357E+0	1.287286E+0	1.273620E+0	1.255279E+0	1.193871E+0	1.167583E+0	1.308190E+0	1.302537E+0	1.282754E+0	1.243809E+0	1.228690E+0	1.240451E+0	1.227759E+0
5.435220E+2	1.316174E+0	1.453537E+0	1.477864E+0	1.262915E+0	1.328039E+0	1.434048E+0	1.467309E+0	1.537820E+0	1.444865E+0	1.508142E+0	1.400515E+0	1.493743E+0	1.577365E+0	1.552258E+0	1.325901E+0	1.332823E+0	1.511383E+0	1.468350E+0	1.385722E+0	1.394652E+0	1.395279E+0	1.346108E+0	1.518126E+0	1.481923E+0	1.467635E+0	1.423580E+0	1.442091E+0	1.482477E+0	1.504142E+0	1.481756E+0	1.391184E+0	1.330241E+0	1.440083E+0	1.219848E+0	1.493560E+0	1.364397E+0	1.372885E+0	1.265289E+0	1.458332E+0	1.511946E+0	1.387908E+0	1.415263E+0	1.391701E+0	1.512836E+0	1.504674E+0	1.495515E+0	1.350641E+0	1.400296E+0	1.357866E+0	1.435785E+0	1.390428E+0	1.332772E+0	1.311429E+0	1.402415E+0	1.475936E+0	1.515372E+0	1.403585E+0	1.379453E+0	1.432392E+0	1.421394E+0	1.528403E+0	1.445329E+0	1.348423E+0	1.343589E+0	1.405082E+0	1.513240E+0	1.451506E+0	1.422620E+0	1.277628E+0	1.463683E+0	1.495578E+0	1.515882E+0	1.169779E+0	1.392277E+0	1.498177E+0	1.450234E+0	1.478149E+0	1.430320E+0	1.387924E+0	1.333405E+0	1.412276E+0	1.376482E+0	1.169516E+0	1.358307E+0	1.322418E+0	1.323090E+0	1.436105E+0	1.528413E+0	1.396317E+0	1.351998E+0	1.488597E+0	1.445239E+0	1.503528E+0	1.361185E+0	1.384063E+0	1.304554E+0	1.414958E+0	1.395042E+0	1.463499E+0	1.376731E+0	1.319223E+0	1.346869E+0	1.466770E+0	1.495244E+0	1.461392E+0	1.358081E+0	1.421464E+0	1.430930E+0	1.497573E+0	1.358892E+0	1.415542E+0	1.295465E+0	1.432656E+0	1.383876E+0	1.382199E+0	1.357529E+0	1.276642E+0	1.457408E+0	1.487558E+0	1.480205E+0	1.407569E+0	1.357491E+0	1.383032E+0	1.368391E+0	1.480491E+0	1.389204E+0	1.394040E+0	1.294168E+0	1.430238E+0	1.414828E+0	1.149971E+0	1.432025E+0	1.283283E+0	1.398679E+0	1.467273E+0	1.452788E+0	1.399580E+0	1.303277E+0	1.462130E+0	1.395636E+0	1.498134E+0	1.388228E+0	1.327470E+0	1.280470E+0	1.333351E+0	1.150394E+0	1.404099E+0	1.364832E+0	1.324934E+0	1.382033E+0	1.437342E+0	1.513988E+0	1.408138E+0	1.393190E+0	1.446393E+0	1.443050E+0	1.444777E+0	1.338659E+0	1.357535E+0	1.333069E+0	1.420191E+0	1.443117E+0	1.446641E+0	1.400543E+0	1.264289E+0	1.453128E+0	1.523072E+0	1.511876E+0	1.370637E+0	1.335209E+0	1.287988E+0	1.538596E+0
5.437640E+2	1.307584E+0	1.515489E+0	1.575446E+0	1.308601E+0	1.449584E+0	1.490343E+0	1.610798E+0	1.611318E+0	1.558226E+0	1.593878E+0	1.502980E+0	1.523313E+0	1.721620E+0	1.599553E+0	1.433761E+0	1.441747E+0	1.579832E+0	1.571088E+0	1.508725E+0	1.501964E+0	1.506320E+0	1.475907E+0	1.616087E+0	1.618971E+0	1.598622E+0	1.532565E+0	1.608628E+0	1.536035E+0	1.639840E+0	1.608234E+0	1.543478E+0	1.423877E+0	1.537417E+0	1.354504E+0	1.515409E+0	1.461913E+0	1.430240E+0	1.334192E+0	1.582863E+0	1.571814E+0	1.492164E+0	1.437853E+0	1.505431E+0	1.587094E+0	1.597169E+0	1.643926E+0	1.392626E+0	1.529648E+0	1.491050E+0	1.537470E+0	1.505599E+0	1.522905E+0	1.441093E+0	1.518369E+0	1.565888E+0	1.586755E+0	1.526653E+0	1.519875E+0	1.564442E+0	1.516973E+0	1.658956E+0	1.614368E+0	1.377042E+0	1.457788E+0	1.591826E+0	1.616016E+0	1.452628E+0	1.545608E+0	1.338688E+0	1.559697E+0	1.632330E+0	1.588057E+0	1.323063E+0	1.520326E+0	1.511910E+0	1.529954E+0	1.575388E+0	1.610126E+0	1.458454E+0	1.403331E+0	1.500509E+0	1.508360E+0	1.301134E+0	1.482357E+0	1.402030E+0	1.442433E+0	1.583853E+0	1.545624E+0	1.434939E+0	1.528737E+0	1.586919E+0	1.515381E+0	1.572290E+0	1.631872E+0	1.416478E+0	1.422992E+0	1.496699E+0	1.564097E+0	1.500521E+0	1.520396E+0	1.408782E+0	1.475327E+0	1.603655E+0	1.563790E+0	1.517606E+0	1.489656E+0	1.573288E+0	1.559427E+0	1.594040E+0	1.540912E+0	1.457671E+0	1.388164E+0	1.457334E+0	1.583510E+0	1.485614E+0	1.463244E+0	1.381642E+0	1.522022E+0	1.565111E+0	1.602621E+0	1.515339E+0	1.530299E+0	1.527387E+0	1.456276E+0	1.553544E+0	1.485740E+0	1.420397E+0	1.390312E+0	1.481272E+0	1.542270E+0	1.327908E+0	1.513009E+0	1.352007E+0	1.447750E+0	1.583816E+0	1.556850E+0	1.508796E+0	1.454311E+0	1.567961E+0	1.486002E+0	1.593432E+0	1.418938E+0	1.426514E+0	1.403362E+0	1.472105E+0	1.222933E+0	1.432569E+0	1.471179E+0	1.432127E+0	1.445631E+0	1.572086E+0	1.574046E+0	1.471824E+0	1.462042E+0	1.503069E+0	1.498165E+0	1.585998E+0	1.481381E+0	1.421620E+0	1.434576E+0	1.547103E+0	1.570959E+0	1.521496E+0	1.450184E+0	1.384320E+0	1.523764E+0	1.656467E+0	1.571300E+0	1.478165E+0	1.430569E+0	1.464771E+0	1.438326E+0
5.440120E+2	1.415431E+0	1.628289E+0	1.639108E+0	1.378379E+0	1.555702E+0	1.530261E+0	1.662789E+0	1.693655E+0	1.560427E+0	1.641129E+0	1.604887E+0	1.680345E+0	1.748581E+0	1.751158E+0	1.481445E+0	1.530678E+0	1.699211E+0	1.619182E+0	1.589447E+0	1.604068E+0	1.592231E+0	1.549398E+0	1.642977E+0	1.680389E+0	1.631364E+0	1.617588E+0	1.606613E+0	1.698297E+0	1.715898E+0	1.744905E+0	1.586553E+0	1.478295E+0	1.602300E+0	1.367008E+0	1.621517E+0	1.576791E+0	1.533121E+0	1.399744E+0	1.664324E+0	1.654250E+0	1.529693E+0	1.524706E+0	1.612149E+0	1.727409E+0	1.682625E+0	1.610631E+0	1.523546E+0	1.583509E+0	1.522977E+0	1.578248E+0	1.559239E+0	1.540234E+0	1.546441E+0	1.577420E+0	1.640388E+0	1.641346E+0	1.531094E+0	1.600413E+0	1.575902E+0	1.578877E+0	1.721457E+0	1.662058E+0	1.489457E+0	1.486224E+0	1.590218E+0	1.652880E+0	1.585884E+0	1.626666E+0	1.466367E+0	1.607035E+0	1.715378E+0	1.693775E+0	1.348608E+0	1.650408E+0	1.666146E+0	1.642981E+0	1.619462E+0	1.689506E+0	1.522706E+0	1.520928E+0	1.644092E+0	1.604520E+0	1.614874E+0	1.496713E+0	1.494384E+0	1.509651E+0	1.679322E+0	1.633942E+0	1.632864E+0	1.607286E+0	1.670115E+0	1.579538E+0	1.668166E+0	1.651818E+0	1.553736E+0	1.478423E+0	1.598742E+0	1.604752E+0	1.611025E+0	1.538917E+0	1.505363E+0	1.419746E+0	1.626469E+0	1.673651E+0	1.545973E+0	1.529675E+0	1.650677E+0	1.603665E+0	1.620686E+0	1.677669E+0	1.541930E+0	1.411339E+0	1.601655E+0	1.669063E+0	1.542291E+0	1.484946E+0	1.460390E+0	1.570483E+0	1.608632E+0	1.686407E+0	1.541097E+0	1.633654E+0	1.620142E+0	1.586788E+0	1.673984E+0	1.645101E+0	1.468980E+0	1.462081E+0	1.582291E+0	1.624764E+0	1.301904E+0	1.568479E+0	1.397504E+0	1.575157E+0	1.649544E+0	1.653321E+0	1.603309E+0	1.563800E+0	1.615138E+0	1.541031E+0	1.603858E+0	1.683788E+0	1.509814E+0	1.478299E+0	1.482976E+0	1.367010E+0	1.541889E+0	1.526454E+0	1.469452E+0	1.572327E+0	1.620613E+0	1.633634E+0	1.531771E+0	1.598615E+0	1.561496E+0	1.546040E+0	1.617224E+0	1.654978E+0	1.499299E+0	1.499007E+0	1.644603E+0	1.635750E+0	1.576086E+0	1.561340E+0	1.445065E+0	1.587077E+0	1.687137E+0	1.643296E+0	1.535375E+0	1.535060E+0	1.402377E+0	1.501832E+0
5.442590E+2	1.424497E+0	1.719460E+0	1.736091E+0	1.375871E+0	1.542615E+0	1.560966E+0	1.670067E+0	1.721099E+0	1.595643E+0	1.655741E+0	1.560581E+0	1.648224E+0	1.700809E+0	1.694133E+0	1.444873E+0	1.519257E+0	1.655950E+0	1.582567E+0	1.556503E+0	1.545723E+0	1.509065E+0	1.487837E+0	1.693875E+0	1.727142E+0	1.596929E+0	1.665503E+0	1.611659E+0	1.591183E+0	1.691954E+0	1.746758E+0	1.575242E+0	1.493502E+0	1.603352E+0	1.418469E+0	1.571584E+0	1.542585E+0	1.495470E+0	1.414580E+0	1.651217E+0	1.708228E+0	1.560970E+0	1.581439E+0	1.605685E+0	1.645511E+0	1.680277E+0	1.677698E+0	1.523093E+0	1.609998E+0	1.508509E+0	1.639670E+0	1.582375E+0	1.568072E+0	1.539691E+0	1.545950E+0	1.674052E+0	1.645545E+0	1.635313E+0	1.566341E+0	1.655137E+0	1.627209E+0	1.734059E+0	1.684721E+0	1.498144E+0	1.553185E+0	1.594513E+0	1.704824E+0	1.596571E+0	1.550080E+0	1.453878E+0	1.552615E+0	1.725319E+0	1.713089E+0	1.379072E+0	1.592986E+0	1.690445E+0	1.608035E+0	1.631438E+0	1.613474E+0	1.592753E+0	1.453729E+0	1.610117E+0	1.585837E+0	1.664356E+0	1.512087E+0	1.497567E+0	1.524741E+0	1.708871E+0	1.719541E+0	1.582980E+0	1.612739E+0	1.590702E+0	1.610535E+0	1.648312E+0	1.709282E+0	1.533478E+0	1.495002E+0	1.608891E+0	1.604756E+0	1.621122E+0	1.612995E+0	1.480777E+0	1.501543E+0	1.724401E+0	1.638907E+0	1.555428E+0	1.565860E+0	1.598689E+0	1.633681E+0	1.672137E+0	1.684483E+0	1.509159E+0	1.479118E+0	1.527617E+0	1.655859E+0	1.533529E+0	1.504416E+0	1.398219E+0	1.587141E+0	1.662751E+0	1.687913E+0	1.539521E+0	1.660450E+0	1.591157E+0	1.613106E+0	1.672505E+0	1.644080E+0	1.529962E+0	1.496834E+0	1.634907E+0	1.552512E+0	1.354417E+0	1.569589E+0	1.459593E+0	1.558499E+0	1.635735E+0	1.701560E+0	1.582832E+0	1.582892E+0	1.610904E+0	1.573471E+0	1.709109E+0	1.689818E+0	1.469685E+0	1.429341E+0	1.465372E+0	1.371482E+0	1.574345E+0	1.539088E+0	1.457965E+0	1.516295E+0	1.640230E+0	1.705608E+0	1.593317E+0	1.623447E+0	1.605901E+0	1.646247E+0	1.702983E+0	1.644351E+0	1.532316E+0	1.460073E+0	1.633707E+0	1.581375E+0	1.650941E+0	1.511161E+0	1.426599E+0	1.631549E+0	1.662793E+0	1.681578E+0	1.540887E+0	1.670999E+0	1.448431E+0	1.528568E+0
5.445450E+2	1.304243E+0	1.632381E+0	1.637919E+0	1.336712E+0	1.509891E+0	1.462198E+0	1.636795E+0	1.708076E+0	1.510904E+0	1.565137E+0	1.472518E+0	1.622733E+0	1.654932E+0	1.688569E+0	1.424042E+0	1.482541E+0	1.642806E+0	1.568903E+0	1.557598E+0	1.541034E+0	1.564356E+0	1.468270E+0	1.573830E+0	1.658844E+0	1.602572E+0	1.580476E+0	1.565734E+0	1.620879E+0	1.626220E+0	1.636493E+0	1.563929E+0	1.432281E+0	1.537937E+0	1.316513E+0	1.503965E+0	1.468553E+0	1.477960E+0	1.382998E+0	1.583331E+0	1.601254E+0	1.514055E+0	1.505125E+0	1.544775E+0	1.647149E+0	1.626279E+0	1.681980E+0	1.447703E+0	1.504044E+0	1.459624E+0	1.578246E+0	1.500864E+0	1.507148E+0	1.423532E+0	1.481729E+0	1.596240E+0	1.641872E+0	1.519448E+0	1.577697E+0	1.545009E+0	1.582131E+0	1.656939E+0	1.657336E+0	1.512963E+0	1.519707E+0	1.520993E+0	1.612104E+0	1.494800E+0	1.498092E+0	1.341465E+0	1.510139E+0	1.629845E+0	1.581448E+0	1.314221E+0	1.518799E+0	1.545717E+0	1.598206E+0	1.601739E+0	1.665596E+0	1.474397E+0	1.423761E+0	1.549832E+0	1.479784E+0	1.514378E+0	1.483382E+0	1.428419E+0	1.464380E+0	1.602040E+0	1.657493E+0	1.468729E+0	1.550008E+0	1.498862E+0	1.561599E+0	1.597469E+0	1.606703E+0	1.445851E+0	1.428678E+0	1.503643E+0	1.525577E+0	1.517912E+0	1.515908E+0	1.402636E+0	1.441773E+0	1.635373E+0	1.596185E+0	1.479254E+0	1.526389E+0	1.576245E+0	1.535205E+0	1.604147E+0	1.613914E+0	1.493712E+0	1.402160E+0	1.441779E+0	1.651110E+0	1.517753E+0	1.427080E+0	1.334668E+0	1.589665E+0	1.614769E+0	1.640250E+0	1.489580E+0	1.607953E+0	1.583620E+0	1.490485E+0	1.621170E+0	1.665023E+0	1.382669E+0	1.466594E+0	1.563876E+0	1.559904E+0	1.279981E+0	1.549619E+0	1.390869E+0	1.453155E+0	1.573874E+0	1.599664E+0	1.506173E+0	1.523936E+0	1.527447E+0	1.569993E+0	1.630884E+0	1.581248E+0	1.485940E+0	1.430840E+0	1.451393E+0	1.346146E+0	1.447944E+0	1.507501E+0	1.447918E+0	1.507714E+0	1.544722E+0	1.591683E+0	1.416698E+0	1.516221E+0	1.552732E+0	1.577771E+0	1.578074E+0	1.631190E+0	1.474053E+0	1.429014E+0	1.598849E+0	1.551293E+0	1.501796E+0	1.444786E+0	1.382375E+0	1.497603E+0	1.624336E+0	1.538732E+0	1.516763E+0	1.708534E+0	1.341469E+0	1.538597E+0
5.447660E+2	1.319515E+0	1.447692E+0	1.555806E+0	1.300065E+0	1.376192E+0	1.445820E+0	1.561409E+0	1.568521E+0	1.496041E+0	1.499862E+0	1.432085E+0	1.529940E+0	1.601014E+0	1.576831E+0	1.505055E+0	1.399321E+0	1.573260E+0	1.502230E+0	1.468090E+0	1.500925E+0	1.487587E+0	1.411006E+0	1.589194E+0	1.602010E+0	1.453523E+0	1.498274E+0	1.517788E+0	1.517472E+0	1.542642E+0	1.594334E+0	1.447315E+0	1.358653E+0	1.503404E+0	1.329019E+0	1.462351E+0	1.401157E+0	1.401779E+0	1.305004E+0	1.542134E+0	1.512436E+0	1.533344E+0	1.399198E+0	1.494109E+0	1.538497E+0	1.571347E+0	1.563536E+0	1.425584E+0	1.421927E+0	1.395775E+0	1.478113E+0	1.419879E+0	1.455147E+0	1.402369E+0	1.392502E+0	1.578581E+0	1.550015E+0	1.398041E+0	1.504388E+0	1.516603E+0	1.490363E+0	1.542514E+0	1.581788E+0	1.349955E+0	1.444947E+0	1.481283E+0	1.518266E+0	1.504919E+0	1.486351E+0	1.323886E+0	1.514122E+0	1.586083E+0	1.526047E+0	1.233646E+0	1.521850E+0	1.531982E+0	1.489002E+0	1.547609E+0	1.547001E+0	1.410148E+0	1.405597E+0	1.448445E+0	1.475940E+0	1.544476E+0	1.410594E+0	1.360178E+0	1.469412E+0	1.512251E+0	1.560119E+0	1.495012E+0	1.474732E+0	1.496703E+0	1.431102E+0	1.541295E+0	1.535471E+0	1.401790E+0	1.399306E+0	1.449151E+0	1.485453E+0	1.510616E+0	1.456418E+0	1.362246E+0	1.435479E+0	1.516849E+0	1.484445E+0	1.421991E+0	1.451282E+0	1.500625E+0	1.495179E+0	1.522838E+0	1.556484E+0	1.418818E+0	1.322575E+0	1.474505E+0	1.569774E+0	1.436538E+0	1.447109E+0	1.372431E+0	1.512937E+0	1.497602E+0	1.521346E+0	1.423343E+0	1.560923E+0	1.489125E+0	1.387861E+0	1.463707E+0	1.528646E+0	1.355278E+0	1.411072E+0	1.454436E+0	1.524633E+0	1.204522E+0	1.434797E+0	1.341107E+0	1.440096E+0	1.482741E+0	1.574192E+0	1.461539E+0	1.428486E+0	1.543168E+0	1.407220E+0	1.562614E+0	1.526414E+0	1.409751E+0	1.345414E+0	1.419293E+0	1.287519E+0	1.484951E+0	1.487498E+0	1.363693E+0	1.486516E+0	1.566923E+0	1.524475E+0	1.463260E+0	1.456964E+0	1.434120E+0	1.465321E+0	1.494181E+0	1.579063E+0	1.471629E+0	1.401666E+0	1.485007E+0	1.537988E+0	1.511364E+0	1.423202E+0	1.347873E+0	1.456790E+0	1.533779E+0	1.545015E+0	1.383044E+0	1.521871E+0	1.347411E+0	1.448354E+0
5.450200E+2	1.216440E+0	1.450615E+0	1.422529E+0	1.201166E+0	1.360296E+0	1.376220E+0	1.422077E+0	1.499207E+0	1.395340E+0	1.423382E+0	1.492456E+0	1.422367E+0	1.502163E+0	1.543915E+0	1.506441E+0	1.332827E+0	1.465384E+0	1.400037E+0	1.507628E+0	1.379023E+0	1.402590E+0	1.336564E+0	1.453302E+0	1.484672E+0	1.401018E+0	1.377077E+0	1.504163E+0	1.392860E+0	1.484421E+0	1.472953E+0	1.496482E+0	1.294226E+0	1.385662E+0	1.209268E+0	1.451427E+0	1.371035E+0	1.330418E+0	1.233230E+0	1.477530E+0	1.392705E+0	1.405631E+0	1.333932E+0	1.433202E+0	1.458239E+0	1.480258E+0	1.404186E+0	1.427386E+0	1.370715E+0	1.320952E+0	1.434758E+0	1.448275E+0	1.353779E+0	1.291164E+0	1.341205E+0	1.522290E+0	1.440312E+0	1.392498E+0	1.385132E+0	1.392528E+0	1.419223E+0	1.458840E+0	1.459496E+0	1.340757E+0	1.330747E+0	1.379322E+0	1.416606E+0	1.372787E+0	1.389079E+0	1.224888E+0	1.411033E+0	1.427947E+0	1.479797E+0	1.187465E+0	1.382622E+0	1.409439E+0	1.422933E+0	1.437430E+0	1.520699E+0	1.357970E+0	1.282097E+0	1.400768E+0	1.390220E+0	1.430713E+0	1.321402E+0	1.290117E+0	1.316687E+0	1.353137E+0	1.419717E+0	1.359841E+0	1.437094E+0	1.407023E+0	1.374552E+0	1.423628E+0	1.449039E+0	1.292388E+0	1.304556E+0	1.402670E+0	1.397181E+0	1.370384E+0	1.361577E+0	1.269176E+0	1.246726E+0	1.441734E+0	1.465666E+0	1.389948E+0	1.353142E+0	1.351165E+0	1.407759E+0	1.461282E+0	1.422160E+0	1.266218E+0	1.246491E+0	1.375248E+0	1.466793E+0	1.409075E+0	1.303000E+0	1.246245E+0	1.417534E+0	1.479190E+0	1.464152E+0	1.364987E+0	1.440613E+0	1.404484E+0	1.348389E+0	1.421257E+0	1.493914E+0	1.280340E+0	1.296427E+0	1.373941E+0	1.445552E+0	1.233584E+0	1.363243E+0	1.261482E+0	1.384272E+0	1.405967E+0	1.425690E+0	1.364401E+0	1.351564E+0	1.431890E+0	1.375365E+0	1.454520E+0	1.525862E+0	1.322391E+0	1.278973E+0	1.318334E+0	1.193123E+0	1.381893E+0	1.364307E+0	1.259851E+0	1.314395E+0	1.415143E+0	1.444394E+0	1.348194E+0	1.437774E+0	1.408997E+0	1.382372E+0	1.447104E+0	1.452534E+0	1.327919E+0	1.292279E+0	1.432173E+0	1.469726E+0	1.425253E+0	1.385972E+0	1.239991E+0	1.391383E+0	1.451994E+0	1.459880E+0	1.385112E+0	1.484336E+0	1.332556E+0	1.334714E+0
5.452740E+2	1.148202E+0	1.376388E+0	1.373146E+0	1.109297E+0	1.264461E+0	1.282567E+0	1.367489E+0	1.362443E+0	1.310599E+0	1.322549E+0	1.339036E+0	1.352517E+0	1.403784E+0	1.393695E+0	1.390709E+0	1.233694E+0	1.430883E+0	1.279807E+0	1.421964E+0	1.283167E+0	1.258186E+0	1.239693E+0	1.421608E+0	1.395293E+0	1.392549E+0	1.351239E+0	1.379005E+0	1.358392E+0	1.392395E+0	1.354813E+0	1.455147E+0	1.262616E+0	1.333332E+0	1.124627E+0	1.353637E+0	1.216842E+0	1.236289E+0	1.124134E+0	1.365639E+0	1.407917E+0	1.308673E+0	1.214445E+0	1.428352E+0	1.402546E+0	1.391987E+0	1.374696E+0	1.363284E+0	1.322151E+0	1.234161E+0	1.322234E+0	1.406730E+0	1.288125E+0	1.200221E+0	1.233873E+0	1.458274E+0	1.358955E+0	1.313223E+0	1.309240E+0	1.381563E+0	1.330167E+0	1.391799E+0	1.381583E+0	1.448579E+0	1.284423E+0	1.350882E+0	1.405997E+0	1.367162E+0	1.287896E+0	1.215174E+0	1.314138E+0	1.403578E+0	1.372556E+0	1.112789E+0	1.337396E+0	1.402568E+0	1.384167E+0	1.356950E+0	1.379151E+0	1.347345E+0	1.215352E+0	1.368984E+0	1.329225E+0	1.404185E+0	1.270654E+0	1.262369E+0	1.226606E+0	1.347454E+0	1.386200E+0	1.306201E+0	1.301266E+0	1.377851E+0	1.287012E+0	1.316617E+0	1.397752E+0	1.344557E+0	1.228755E+0	1.310779E+0	1.374180E+0	1.342334E+0	1.317803E+0	1.274881E+0	1.211597E+0	1.417807E+0	1.349703E+0	1.317979E+0	1.300511E+0	1.290907E+0	1.316651E+0	1.384108E+0	1.356458E+0	1.243279E+0	1.209762E+0	1.269021E+0	1.383873E+0	1.291053E+0	1.236232E+0	1.199736E+0	1.335253E+0	1.423953E+0	1.385886E+0	1.241446E+0	1.365695E+0	1.330858E+0	1.300502E+0	1.408424E+0	1.356517E+0	1.162504E+0	1.192155E+0	1.288701E+0	1.343714E+0	1.320261E+0	1.316093E+0	1.189443E+0	1.278927E+0	1.378350E+0	1.385582E+0	1.296141E+0	1.296538E+0	1.373835E+0	1.284418E+0	1.370607E+0	1.387680E+0	1.226898E+0	1.205038E+0	1.268633E+0	1.191134E+0	1.268018E+0	1.286918E+0	1.169405E+0	1.318936E+0	1.322217E+0	1.374801E+0	1.233657E+0	1.298944E+0	1.291557E+0	1.299981E+0	1.350158E+0	1.407488E+0	1.248297E+0	1.232022E+0	1.364630E+0	1.385267E+0	1.301433E+0	1.249990E+0	1.174874E+0	1.292491E+0	1.378482E+0	1.339890E+0	1.241052E+0	1.306804E+0	1.224108E+0	1.194336E+0
5.455340E+2	1.099051E+0	1.309175E+0	1.365410E+0	1.073654E+0	1.202752E+0	1.222180E+0	1.313420E+0	1.294527E+0	1.277579E+0	1.274810E+0	1.299161E+0	1.249531E+0	1.332838E+0	1.370512E+0	1.382842E+0	1.203913E+0	1.316434E+0	1.236085E+0	1.357169E+0	1.252956E+0	1.243107E+0	1.170497E+0	1.297240E+0	1.289417E+0	1.292051E+0	1.232394E+0	1.346201E+0	1.292106E+0	1.333233E+0	1.311728E+0	1.358549E+0	1.134165E+0	1.243849E+0	1.088078E+0	1.329709E+0	1.182127E+0	1.184631E+0	1.134183E+0	1.321629E+0	1.301925E+0	1.192426E+0	1.207417E+0	1.323782E+0	1.322832E+0	1.313108E+0	1.320944E+0	1.331231E+0	1.225911E+0	1.223185E+0	1.262874E+0	1.296295E+0	1.239804E+0	1.179961E+0	1.202839E+0	1.292719E+0	1.321686E+0	1.269427E+0	1.267941E+0	1.371595E+0	1.240022E+0	1.361557E+0	1.292816E+0	1.364776E+0	1.209664E+0	1.256433E+0	1.311041E+0	1.413271E+0	1.251000E+0	1.107851E+0	1.226089E+0	1.335950E+0	1.311562E+0	1.075941E+0	1.223068E+0	1.390424E+0	1.266770E+0	1.240545E+0	1.254337E+0	1.332851E+0	1.175849E+0	1.266500E+0	1.200094E+0	1.301644E+0	1.182997E+0	1.155002E+0	1.169905E+0	1.329269E+0	1.312833E+0	1.215017E+0	1.287629E+0	1.333014E+0	1.246233E+0	1.333081E+0	1.316546E+0	1.377478E+0	1.133057E+0	1.275521E+0	1.260762E+0	1.333921E+0	1.231938E+0	1.123863E+0	1.173321E+0	1.337121E+0	1.298999E+0	1.219213E+0	1.191962E+0	1.341122E+0	1.261358E+0	1.306014E+0	1.284914E+0	1.308344E+0	1.124494E+0	1.207322E+0	1.290393E+0	1.348895E+0	1.187824E+0	1.146313E+0	1.250951E+0	1.339150E+0	1.343239E+0	1.263003E+0	1.303353E+0	1.327960E+0	1.238399E+0	1.267251E+0	1.317698E+0	1.298429E+0	1.160562E+0	1.270289E+0	1.289665E+0	1.311593E+0	1.287251E+0	1.162903E+0	1.253718E+0	1.344103E+0	1.295073E+0	1.221579E+0	1.286995E+0	1.298238E+0	1.240394E+0	1.267727E+0	1.334491E+0	1.216232E+0	1.211033E+0	1.246888E+0	1.066431E+0	1.290792E+0	1.270599E+0	1.179934E+0	1.250290E+0	1.297437E+0	1.288524E+0	1.204756E+0	1.231787E+0	1.232545E+0	1.239298E+0	1.290035E+0	1.323478E+0	1.228393E+0	1.189842E+0	1.208304E+0	1.323370E+0	1.287923E+0	1.179302E+0	1.121905E+0	1.248016E+0	1.323469E+0	1.333606E+0	1.217616E+0	1.288544E+0	1.183999E+0	1.130830E+0
5.457780E+2	1.084736E+0	1.256575E+0	1.322571E+0	1.025961E+0	1.172367E+0	1.212964E+0	1.252073E+0	1.296852E+0	1.230805E+0	1.277243E+0	1.286975E+0	1.238824E+0	1.309189E+0	1.299578E+0	1.312476E+0	1.155776E+0	1.251270E+0	1.224611E+0	1.306100E+0	1.198778E+0	1.173647E+0	1.170497E+0	1.295318E+0	1.248164E+0	1.288099E+0	1.207028E+0	1.391118E+0	1.254986E+0	1.282524E+0	1.281150E+0	1.295016E+0	1.174580E+0	1.234432E+0	1.027000E+0	1.268849E+0	1.177020E+0	1.135157E+0	1.110259E+0	1.277621E+0	1.263650E+0	1.232043E+0	1.185327E+0	1.293601E+0	1.273150E+0	1.269439E+0	1.259580E+0	1.305048E+0	1.187064E+0	1.156843E+0	1.221580E+0	1.276312E+0	1.198836E+0	1.141241E+0	1.180856E+0	1.293271E+0	1.300165E+0	1.217870E+0	1.255551E+0	1.353160E+0	1.240565E+0	1.278893E+0	1.284791E+0	1.347400E+0	1.116560E+0	1.272530E+0	1.305455E+0	1.348608E+0	1.235907E+0	1.124043E+0	1.181846E+0	1.294178E+0	1.294284E+0	1.018950E+0	1.255080E+0	1.311721E+0	1.227455E+0	1.274077E+0	1.269642E+0	1.243478E+0	1.174032E+0	1.236358E+0	1.187455E+0	1.275626E+0	1.172235E+0	1.154548E+0	1.128295E+0	1.301423E+0	1.270257E+0	1.237544E+0	1.207987E+0	1.308161E+0	1.227204E+0	1.295309E+0	1.235340E+0	1.260985E+0	1.153428E+0	1.218356E+0	1.264509E+0	1.326068E+0	1.204439E+0	1.130449E+0	1.136620E+0	1.253099E+0	1.209796E+0	1.208709E+0	1.236918E+0	1.262550E+0	1.256616E+0	1.255480E+0	1.302922E+0	1.323792E+0	1.053660E+0	1.167621E+0	1.232829E+0	1.245481E+0	1.167239E+0	1.091972E+0	1.233285E+0	1.282238E+0	1.279021E+0	1.209379E+0	1.250851E+0	1.318104E+0	1.246821E+0	1.226777E+0	1.260491E+0	1.365097E+0	1.173199E+0	1.262921E+0	1.273167E+0	1.312610E+0	1.212921E+0	1.110767E+0	1.228504E+0	1.264015E+0	1.247376E+0	1.155946E+0	1.240391E+0	1.336338E+0	1.139023E+0	1.309922E+0	1.237434E+0	1.297500E+0	1.134597E+0	1.125219E+0	1.037120E+0	1.295346E+0	1.163200E+0	1.111023E+0	1.205870E+0	1.279369E+0	1.273268E+0	1.219743E+0	1.251539E+0	1.255333E+0	1.239857E+0	1.251351E+0	1.311834E+0	1.264806E+0	1.122170E+0	1.219198E+0	1.244698E+0	1.299745E+0	1.172287E+0	1.094206E+0	1.218192E+0	1.267969E+0	1.271895E+0	1.210034E+0	1.286515E+0	1.100806E+0	1.160911E+0
5.460110E+2	1.038926E+0	1.163647E+0	1.242842E+0	1.025460E+0	1.127958E+0	1.134667E+0	1.240116E+0	1.215447E+0	1.206593E+0	1.205636E+0	1.237130E+0	1.221489E+0	1.245338E+0	1.255069E+0	1.332845E+0	1.139052E+0	1.173512E+0	1.122962E+0	1.290174E+0	1.120636E+0	1.143031E+0	1.114189E+0	1.259784E+0	1.281166E+0	1.245756E+0	1.193403E+0	1.242238E+0	1.278321E+0	1.245432E+0	1.232042E+0	1.290668E+0	1.096553E+0	1.172160E+0	1.010169E+0	1.246485E+0	1.121879E+0	1.111077E+0	1.057622E+0	1.249999E+0	1.218994E+0	1.180436E+0	1.172272E+0	1.280126E+0	1.297172E+0	1.228593E+0	1.235321E+0	1.247711E+0	1.160571E+0	1.154350E+0	1.135896E+0	1.255803E+0	1.202512E+0	1.050746E+0	1.121801E+0	1.251884E+0	1.244525E+0	1.140257E+0	1.135260E+0	1.261471E+0	1.163454E+0	1.247134E+0	1.206408E+0	1.261044E+0	1.121604E+0	1.173255E+0	1.232840E+0	1.281699E+0	1.137519E+0	1.070844E+0	1.195118E+0	1.250914E+0	1.239390E+0	9.811196E-1	1.181402E+0	1.280028E+0	1.132449E+0	1.227611E+0	1.259120E+0	1.247343E+0	1.087762E+0	1.159634E+0	1.207239E+0	1.228693E+0	1.150194E+0	1.120884E+0	1.153901E+0	1.259372E+0	1.236743E+0	1.168888E+0	1.186166E+0	1.280609E+0	1.177180E+0	1.242045E+0	1.239615E+0	1.321258E+0	1.084261E+0	1.161189E+0	1.183727E+0	1.254830E+0	1.193776E+0	1.125182E+0	1.118795E+0	1.255326E+0	1.163787E+0	1.112572E+0	1.140976E+0	1.248372E+0	1.151292E+0	1.218731E+0	1.235761E+0	1.243281E+0	1.078146E+0	1.148307E+0	1.281943E+0	1.259502E+0	1.120501E+0	1.026577E+0	1.213092E+0	1.252110E+0	1.244403E+0	1.160490E+0	1.193432E+0	1.236942E+0	1.171037E+0	1.186793E+0	1.228313E+0	1.292743E+0	1.137090E+0	1.154010E+0	1.211154E+0	1.225427E+0	1.158562E+0	1.061953E+0	1.132165E+0	1.267329E+0	1.231116E+0	1.121292E+0	1.147748E+0	1.217198E+0	1.159297E+0	1.233120E+0	1.208920E+0	1.204550E+0	1.080144E+0	1.147999E+0	1.013273E+0	1.208801E+0	1.103185E+0	1.084705E+0	1.173566E+0	1.254072E+0	1.280418E+0	1.108953E+0	1.171965E+0	1.265849E+0	1.124620E+0	1.274655E+0	1.237436E+0	1.280828E+0	1.105020E+0	1.222466E+0	1.232548E+0	1.200686E+0	1.126421E+0	1.093233E+0	1.231795E+0	1.265534E+0	1.249613E+0	1.156270E+0	1.244921E+0	1.121604E+0	1.104091E+0
5.467660E+2	1.095235E+0	1.294565E+0	1.317812E+0	1.101265E+0	1.204624E+0	1.230878E+0	1.277548E+0	1.285224E+0	1.225302E+0	1.277244E+0	1.322977E+0	1.267375E+0	1.302570E+0	1.332031E+0	1.312938E+0	1.178215E+0	1.283580E+0	1.215867E+0	1.327514E+0	1.221699E+0	1.178217E+0	1.201515E+0	1.306845E+0	1.321504E+0	1.237851E+0	1.248835E+0	1.327531E+0	1.287864E+0	1.336989E+0	1.269104E+0	1.379434E+0	1.139768E+0	1.233387E+0	1.055855E+0	1.293815E+0	1.134643E+0	1.153545E+0	1.092074E+0	1.348314E+0	1.305361E+0	1.226308E+0	1.163236E+0	1.367985E+0	1.280246E+0	1.325786E+0	1.270998E+0	1.333937E+0	1.231651E+0	1.194253E+0	1.235516E+0	1.270529E+0	1.171001E+0	1.179060E+0	1.245513E+0	1.304309E+0	1.280743E+0	1.212326E+0	1.244709E+0	1.301336E+0	1.212871E+0	1.255201E+0	1.307926E+0	1.300391E+0	1.159213E+0	1.236579E+0	1.228931E+0	1.244590E+0	1.283984E+0	1.128205E+0	1.243347E+0	1.366283E+0	1.312071E+0	1.042041E+0	1.315549E+0	1.339713E+0	1.308815E+0	1.263058E+0	1.302639E+0	1.328985E+0	1.144518E+0	1.218820E+0	1.250648E+0	1.312356E+0	1.182486E+0	1.162281E+0	1.163961E+0	1.312222E+0	1.310113E+0	1.266511E+0	1.281628E+0	1.338414E+0	1.267984E+0	1.290952E+0	1.281881E+0	1.308091E+0	1.203173E+0	1.251480E+0	1.270392E+0	1.282313E+0	1.235305E+0	1.141425E+0	1.129282E+0	1.345469E+0	1.246885E+0	1.188220E+0	1.222115E+0	1.309812E+0	1.240292E+0	1.305552E+0	1.285890E+0	1.317240E+0	1.114875E+0	1.196591E+0	1.305710E+0	1.303908E+0	1.208414E+0	1.115919E+0	1.234800E+0	1.273310E+0	1.256948E+0	1.239346E+0	1.236634E+0	1.259552E+0	1.218929E+0	1.286503E+0	1.268155E+0	1.319102E+0	1.156497E+0	1.220830E+0	1.263495E+0	1.245312E+0	1.242874E+0	1.143471E+0	1.243812E+0	1.334712E+0	1.282065E+0	1.198477E+0	1.270711E+0	1.333917E+0	1.247345E+0	1.265829E+0	1.320783E+0	1.314259E+0	1.138096E+0	1.161461E+0	1.084318E+0	1.350576E+0	1.192683E+0	1.105278E+0	1.221517E+0	1.265427E+0	1.240378E+0	1.203150E+0	1.270726E+0	1.246568E+0	1.252662E+0	1.266733E+0	1.365483E+0	1.285196E+0	1.178257E+0	1.227912E+0	1.280563E+0	1.307621E+0	1.209520E+0	1.142802E+0	1.222377E+0	1.316654E+0	1.291323E+0	1.183842E+0	1.301732E+0	1.230050E+0	1.291263E+0
5.475070E+2	1.208807E+0	1.397428E+0	1.413011E+0	1.179078E+0	1.289707E+0	1.314297E+0	1.386206E+0	1.427105E+0	1.316099E+0	1.392206E+0	1.383346E+0	1.405031E+0	1.441622E+0	1.434031E+0	1.432375E+0	1.386674E+0	1.372839E+0	1.342653E+0	1.444480E+0	1.334742E+0	1.274182E+0	1.213923E+0	1.420647E+0	1.382003E+0	1.357544E+0	1.342784E+0	1.390108E+0	1.365815E+0	1.424790E+0	1.424772E+0	1.402494E+0	1.348248E+0	1.360544E+0	1.173199E+0	1.339594E+0	1.349590E+0	1.266499E+0	1.174855E+0	1.361889E+0	1.386817E+0	1.276352E+0	1.307323E+0	1.418648E+0	1.429847E+0	1.419219E+0	1.401807E+0	1.413845E+0	1.351731E+0	1.288530E+0	1.276808E+0	1.384121E+0	1.338023E+0	1.263254E+0	1.276981E+0	1.411919E+0	1.369976E+0	1.339832E+0	1.341247E+0	1.428404E+0	1.331251E+0	1.419524E+0	1.403778E+0	1.382150E+0	1.292218E+0	1.317610E+0	1.394266E+0	1.411022E+0	1.314730E+0	1.212864E+0	1.294667E+0	1.394132E+0	1.418298E+0	1.151109E+0	1.369920E+0	1.413666E+0	1.377067E+0	1.374675E+0	1.444665E+0	1.434300E+0	1.234422E+0	1.318563E+0	1.320432E+0	1.375105E+0	1.257326E+0	1.223697E+0	1.243067E+0	1.420762E+0	1.380766E+0	1.329268E+0	1.328539E+0	1.425390E+0	1.322898E+0	1.386829E+0	1.390154E+0	1.389633E+0	1.251496E+0	1.293149E+0	1.374177E+0	1.402915E+0	1.322294E+0	1.223519E+0	1.254592E+0	1.446741E+0	1.387259E+0	1.270172E+0	1.297774E+0	1.407286E+0	1.365630E+0	1.366649E+0	1.358406E+0	1.399626E+0	1.203640E+0	1.310331E+0	1.423483E+0	1.424267E+0	1.295211E+0	1.193747E+0	1.387751E+0	1.401079E+0	1.417492E+0	1.270361E+0	1.376086E+0	1.369701E+0	1.315764E+0	1.338331E+0	1.426492E+0	1.422464E+0	1.224658E+0	1.305012E+0	1.380691E+0	1.381442E+0	1.397634E+0	1.237785E+0	1.295135E+0	1.385528E+0	1.394797E+0	1.286690E+0	1.273518E+0	1.388347E+0	1.272832E+0	1.346902E+0	1.370680E+0	1.396546E+0	1.266983E+0	1.273292E+0	1.126051E+0	1.427445E+0	1.240589E+0	1.218693E+0	1.295212E+0	1.360938E+0	1.401019E+0	1.290923E+0	1.311922E+0	1.366929E+0	1.353981E+0	1.369737E+0	1.429253E+0	1.393950E+0	1.236657E+0	1.345024E+0	1.362127E+0	1.404428E+0	1.264559E+0	1.231732E+0	1.311851E+0	1.396010E+0	1.324463E+0	1.327901E+0	1.467091E+0	1.240451E+0	1.321346E+0
5.482600E+2	1.227893E+0	1.391582E+0	1.450494E+0	1.164519E+0	1.320559E+0	1.358309E+0	1.452232E+0	1.522934E+0	1.405247E+0	1.476478E+0	1.438731E+0	1.461110E+0	1.454865E+0	1.522587E+0	1.426358E+0	1.520071E+0	1.476885E+0	1.390744E+0	1.530142E+0	1.431640E+0	1.368318E+0	1.352310E+0	1.460025E+0	1.488339E+0	1.415130E+0	1.381302E+0	1.434016E+0	1.474520E+0	1.498979E+0	1.490093E+0	1.517802E+0	1.490301E+0	1.365254E+0	1.202055E+0	1.441545E+0	1.481826E+0	1.313344E+0	1.211697E+0	1.519194E+0	1.479560E+0	1.383214E+0	1.323388E+0	1.522677E+0	1.522664E+0	1.465704E+0	1.430824E+0	1.453574E+0	1.467401E+0	1.336915E+0	1.412044E+0	1.517694E+0	1.496119E+0	1.302422E+0	1.337759E+0	1.438409E+0	1.448187E+0	1.405249E+0	1.366548E+0	1.396011E+0	1.437685E+0	1.470937E+0	1.475547E+0	1.456756E+0	1.438067E+0	1.383077E+0	1.420519E+0	1.470620E+0	1.419825E+0	1.251259E+0	1.355728E+0	1.519945E+0	1.419823E+0	1.368260E+0	1.438517E+0	1.483914E+0	1.373242E+0	1.435510E+0	1.466186E+0	1.441064E+0	1.308432E+0	1.415565E+0	1.411101E+0	1.449076E+0	1.326527E+0	1.304675E+0	1.294740E+0	1.388938E+0	1.414279E+0	1.337849E+0	1.397272E+0	1.494002E+0	1.361504E+0	1.402325E+0	1.491781E+0	1.485867E+0	1.284185E+0	1.398931E+0	1.437839E+0	1.484814E+0	1.384587E+0	1.335028E+0	1.272417E+0	1.468998E+0	1.414960E+0	1.344769E+0	1.369040E+0	1.517168E+0	1.356678E+0	1.411668E+0	1.450389E+0	1.452054E+0	1.263546E+0	1.390271E+0	1.488444E+0	1.508401E+0	1.352522E+0	1.259142E+0	1.425106E+0	1.477516E+0	1.484723E+0	1.361835E+0	1.373897E+0	1.489703E+0	1.362601E+0	1.491350E+0	1.448455E+0	1.490170E+0	1.285139E+0	1.401824E+0	1.367610E+0	1.460468E+0	1.376002E+0	1.293711E+0	1.264523E+0	1.525271E+0	1.402926E+0	1.365449E+0	1.352124E+0	1.497811E+0	1.366674E+0	1.442195E+0	1.455676E+0	1.477813E+0	1.254495E+0	1.350953E+0	1.195111E+0	1.474703E+0	1.334825E+0	1.272771E+0	1.337108E+0	1.459539E+0	1.428188E+0	1.366926E+0	1.408427E+0	1.387964E+0	1.377360E+0	1.464816E+0	1.409515E+0	1.441527E+0	1.330751E+0	1.449602E+0	1.399153E+0	1.463524E+0	1.315822E+0	1.265748E+0	1.373592E+0	1.476822E+0	1.464450E+0	1.256905E+0	1.455931E+0	1.255306E+0	1.344739E+0
5.490490E+2	1.188286E+0	1.375219E+0	1.401110E+0	1.206688E+0	1.310273E+0	1.319926E+0	1.434035E+0	1.441989E+0	1.355169E+0	1.419973E+0	1.391101E+0	1.457035E+0	1.466690E+0	1.443304E+0	1.473111E+0	1.435219E+0	1.490573E+0	1.348665E+0	1.463699E+0	1.494151E+0	1.379282E+0	1.304115E+0	1.417769E+0	1.438381E+0	1.419080E+0	1.368620E+0	1.469848E+0	1.444296E+0	1.462821E+0	1.409947E+0	1.495610E+0	1.491103E+0	1.392463E+0	1.222255E+0	1.476396E+0	1.504294E+0	1.267813E+0	1.190644E+0	1.413388E+0	1.435887E+0	1.360278E+0	1.273686E+0	1.475784E+0	1.421658E+0	1.419220E+0	1.381354E+0	1.411587E+0	1.427668E+0	1.268081E+0	1.404818E+0	1.446699E+0	1.422586E+0	1.258299E+0	1.308013E+0	1.447792E+0	1.459732E+0	1.341495E+0	1.324212E+0	1.462787E+0	1.468098E+0	1.408435E+0	1.402360E+0	1.437338E+0	1.436693E+0	1.321366E+0	1.447887E+0	1.452630E+0	1.434920E+0	1.222580E+0	1.300423E+0	1.427948E+0	1.494534E+0	1.337801E+0	1.411077E+0	1.470712E+0	1.422932E+0	1.405811E+0	1.424101E+0	1.448789E+0	1.500044E+0	1.388709E+0	1.365492E+0	1.433261E+0	1.402394E+0	1.253268E+0	1.287422E+0	1.421328E+0	1.427416E+0	1.314249E+0	1.374363E+0	1.453482E+0	1.417507E+0	1.438642E+0	1.420545E+0	1.419515E+0	1.399304E+0	1.361001E+0	1.383273E+0	1.443864E+0	1.410961E+0	1.232739E+0	1.217365E+0	1.418920E+0	1.409793E+0	1.332163E+0	1.311480E+0	1.416740E+0	1.414605E+0	1.444284E+0	1.456712E+0	1.413199E+0	1.300278E+0	1.330719E+0	1.436685E+0	1.442965E+0	1.375333E+0	1.181314E+0	1.355947E+0	1.433439E+0	1.463648E+0	1.329240E+0	1.351477E+0	1.445065E+0	1.274714E+0	1.393615E+0	1.426490E+0	1.433835E+0	1.242258E+0	1.379199E+0	1.415968E+0	1.419169E+0	1.355478E+0	1.239205E+0	1.355910E+0	1.429164E+0	1.450621E+0	1.304018E+0	1.328543E+0	1.451245E+0	1.303535E+0	1.446462E+0	1.412355E+0	1.472228E+0	1.244501E+0	1.296074E+0	1.204052E+0	1.466731E+0	1.350617E+0	1.290476E+0	1.334078E+0	1.436824E+0	1.407215E+0	1.282896E+0	1.354816E+0	1.376277E+0	1.362886E+0	1.357152E+0	1.415587E+0	1.437644E+0	1.313136E+0	1.438710E+0	1.422292E+0	1.419060E+0	1.339025E+0	1.171473E+0	1.339061E+0	1.452967E+0	1.402742E+0	1.312737E+0	1.408251E+0	1.231538E+0	1.354767E+0
5.497740E+2	1.130546E+0	1.401519E+0	1.413604E+0	1.164016E+0	1.252308E+0	1.237018E+0	1.330576E+0	1.359653E+0	1.283633E+0	1.333751E+0	1.370609E+0	1.348439E+0	1.388649E+0	1.394622E+0	1.348122E+0	1.387081E+0	1.385980E+0	1.343749E+0	1.402747E+0	1.359226E+0	1.320792E+0	1.224422E+0	1.364466E+0	1.401711E+0	1.297133E+0	1.327284E+0	1.382034E+0	1.349908E+0	1.378308E+0	1.361300E+0	1.421640E+0	1.420678E+0	1.317635E+0	1.172719E+0	1.396290E+0	1.354696E+0	1.271315E+0	1.162413E+0	1.394192E+0	1.416749E+0	1.312840E+0	1.261134E+0	1.372835E+0	1.381255E+0	1.348321E+0	1.342824E+0	1.365087E+0	1.436053E+0	1.212709E+0	1.341331E+0	1.415145E+0	1.373215E+0	1.249297E+0	1.304136E+0	1.406954E+0	1.417740E+0	1.284947E+0	1.260714E+0	1.351165E+0	1.358405E+0	1.386757E+0	1.401890E+0	1.380616E+0	1.363311E+0	1.260190E+0	1.356283E+0	1.392467E+0	1.427653E+0	1.192510E+0	1.309270E+0	1.357832E+0	1.406607E+0	1.332888E+0	1.354673E+0	1.396758E+0	1.358504E+0	1.370364E+0	1.349027E+0	1.389373E+0	1.397879E+0	1.304864E+0	1.264384E+0	1.418979E+0	1.370099E+0	1.240077E+0	1.245353E+0	1.377574E+0	1.386201E+0	1.293329E+0	1.338906E+0	1.414584E+0	1.360963E+0	1.321942E+0	1.417224E+0	1.391662E+0	1.427730E+0	1.350849E+0	1.305702E+0	1.384965E+0	1.396933E+0	1.188398E+0	1.195343E+0	1.390542E+0	1.365196E+0	1.288559E+0	1.275295E+0	1.366523E+0	1.393014E+0	1.331278E+0	1.339423E+0	1.398222E+0	1.381607E+0	1.318917E+0	1.397080E+0	1.376940E+0	1.392580E+0	1.149537E+0	1.306985E+0	1.383224E+0	1.457128E+0	1.277197E+0	1.322490E+0	1.428835E+0	1.359971E+0	1.356101E+0	1.367753E+0	1.425048E+0	1.362779E+0	1.290807E+0	1.356231E+0	1.328417E+0	1.392087E+0	1.162900E+0	1.215000E+0	1.388845E+0	1.426233E+0	1.234182E+0	1.280255E+0	1.379278E+0	1.348137E+0	1.344057E+0	1.400840E+0	1.326960E+0	1.319935E+0	1.278470E+0	1.090778E+0	1.335204E+0	1.334826E+0	1.193812E+0	1.239689E+0	1.369712E+0	1.371462E+0	1.260953E+0	1.347478E+0	1.372774E+0	1.311673E+0	1.325924E+0	1.380665E+0	1.381326E+0	1.184280E+0	1.315063E+0	1.344773E+0	1.361092E+0	1.230024E+0	1.183136E+0	1.338536E+0	1.347809E+0	1.395312E+0	1.283787E+0	1.356514E+0	1.151316E+0	1.170938E+0
5.505170E+2	1.151065E+0	1.347165E+0	1.334472E+0	1.091224E+0	1.212571E+0	1.248790E+0	1.343575E+0	1.329883E+0	1.286936E+0	1.284551E+0	1.348454E+0	1.315299E+0	1.384865E+0	1.372832E+0	1.343953E+0	1.356486E+0	1.338889E+0	1.256854E+0	1.380782E+0	1.372772E+0	1.265042E+0	1.214399E+0	1.408643E+0	1.392545E+0	1.320843E+0	1.272322E+0	1.363865E+0	1.389679E+0	1.366100E+0	1.304778E+0	1.377255E+0	1.373056E+0	1.248038E+0	1.092887E+0	1.371843E+0	1.357250E+0	1.181564E+0	1.149017E+0	1.329591E+0	1.342653E+0	1.215885E+0	1.217958E+0	1.344269E+0	1.390537E+0	1.322966E+0	1.282415E+0	1.366893E+0	1.343784E+0	1.227674E+0	1.292809E+0	1.340997E+0	1.349052E+0	1.152497E+0	1.216200E+0	1.390398E+0	1.383099E+0	1.235608E+0	1.247291E+0	1.382061E+0	1.355690E+0	1.425070E+0	1.373557E+0	1.352512E+0	1.346798E+0	1.251603E+0	1.376390E+0	1.364916E+0	1.359452E+0	1.156424E+0	1.232285E+0	1.333962E+0	1.342565E+0	1.300463E+0	1.288619E+0	1.392537E+0	1.368876E+0	1.334438E+0	1.336588E+0	1.321739E+0	1.400606E+0	1.258826E+0	1.287465E+0	1.338886E+0	1.373686E+0	1.190033E+0	1.184538E+0	1.337224E+0	1.352688E+0	1.293330E+0	1.318178E+0	1.373529E+0	1.368572E+0	1.358745E+0	1.334117E+0	1.303529E+0	1.378459E+0	1.228506E+0	1.274672E+0	1.365897E+0	1.338566E+0	1.165130E+0	1.175943E+0	1.363831E+0	1.300875E+0	1.298540E+0	1.258847E+0	1.374796E+0	1.395645E+0	1.273856E+0	1.286375E+0	1.342985E+0	1.283660E+0	1.262047E+0	1.355884E+0	1.352986E+0	1.326926E+0	1.153221E+0	1.301936E+0	1.365371E+0	1.342235E+0	1.256168E+0	1.306086E+0	1.341294E+0	1.348393E+0	1.331423E+0	1.367245E+0	1.381638E+0	1.292363E+0	1.243455E+0	1.252685E+0	1.374812E+0	1.338283E+0	1.130673E+0	1.221754E+0	1.313727E+0	1.322712E+0	1.221054E+0	1.304400E+0	1.323033E+0	1.281522E+0	1.312768E+0	1.295558E+0	1.333054E+0	1.271481E+0	1.231354E+0	1.059974E+0	1.387018E+0	1.329034E+0	1.178019E+0	1.208898E+0	1.351128E+0	1.400063E+0	1.239010E+0	1.304022E+0	1.259423E+0	1.381815E+0	1.352024E+0	1.323982E+0	1.302675E+0	1.381274E+0	1.283472E+0	1.329156E+0	1.317190E+0	1.374099E+0	1.175360E+0	1.309235E+0	1.361443E+0	1.325606E+0	1.208655E+0	1.337239E+0	1.222624E+0	1.368138E+0
5.512620E+2	1.173016E+0	1.355348E+0	1.377310E+0	1.099758E+0	1.202287E+0	1.265165E+0	1.363331E+0	1.340114E+0	1.274830E+0	1.352749E+0	1.309132E+0	1.373929E+0	1.402837E+0	1.395086E+0	1.389786E+0	1.370354E+0	1.365174E+0	1.248658E+0	1.364853E+0	1.337346E+0	1.268699E+0	1.247805E+0	1.373588E+0	1.397586E+0	1.349638E+0	1.287354E+0	1.394650E+0	1.338242E+0	1.373143E+0	1.305705E+0	1.364638E+0	1.369054E+0	1.274726E+0	1.176567E+0	1.355717E+0	1.365926E+0	1.244610E+0	1.112171E+0	1.342696E+0	1.368661E+0	1.238820E+0	1.279711E+0	1.393315E+0	1.397632E+0	1.377434E+0	1.353289E+0	1.319944E+0	1.342463E+0	1.220689E+0	1.274228E+0	1.382015E+0	1.341177E+0	1.213280E+0	1.263187E+0	1.430681E+0	1.360528E+0	1.286057E+0	1.300980E+0	1.390034E+0	1.364379E+0	1.339882E+0	1.366002E+0	1.368864E+0	1.400461E+0	1.291312E+0	1.402086E+0	1.372223E+0	1.395229E+0	1.163827E+0	1.272988E+0	1.412036E+0	1.370015E+0	1.270002E+0	1.301319E+0	1.430038E+0	1.363415E+0	1.348330E+0	1.392062E+0	1.367633E+0	1.392885E+0	1.256088E+0	1.256694E+0	1.371025E+0	1.392650E+0	1.196401E+0	1.235294E+0	1.370754E+0	1.398883E+0	1.321223E+0	1.319813E+0	1.377312E+0	1.383798E+0	1.330658E+0	1.348364E+0	1.396218E+0	1.354772E+0	1.293152E+0	1.352243E+0	1.355799E+0	1.383462E+0	1.213860E+0	1.218937E+0	1.392766E+0	1.416838E+0	1.226568E+0	1.256107E+0	1.395471E+0	1.404600E+0	1.335871E+0	1.360838E+0	1.373413E+0	1.359304E+0	1.305504E+0	1.352717E+0	1.365843E+0	1.334160E+0	1.159208E+0	1.304965E+0	1.311253E+0	1.363809E+0	1.211482E+0	1.352022E+0	1.355207E+0	1.315764E+0	1.295883E+0	1.339150E+0	1.367682E+0	1.405658E+0	1.246084E+0	1.311285E+0	1.406935E+0	1.376000E+0	1.199868E+0	1.197444E+0	1.375585E+0	1.401841E+0	1.248884E+0	1.295415E+0	1.332105E+0	1.341767E+0	1.360651E+0	1.339974E+0	1.356927E+0	1.389877E+0	1.170264E+0	1.102700E+0	1.378477E+0	1.339037E+0	1.164140E+0	1.312880E+0	1.331511E+0	1.312831E+0	1.166222E+0	1.318696E+0	1.320772E+0	1.349527E+0	1.314270E+0	1.380668E+0	1.376468E+0	1.322407E+0	1.269311E+0	1.319899E+0	1.332949E+0	1.385970E+0	1.141344E+0	1.234935E+0	1.384324E+0	1.350748E+0	1.225887E+0	1.289559E+0	1.203312E+0	1.468406E+0
5.520150E+2	1.268931E+0	1.322034E+0	1.375526E+0	1.143434E+0	1.227064E+0	1.314808E+0	1.336296E+0	1.399192E+0	1.272628E+0	1.355186E+0	1.389440E+0	1.382599E+0	1.419867E+0	1.400185E+0	1.413394E+0	1.390753E+0	1.330673E+0	1.241552E+0	1.436241E+0	1.408195E+0	1.293374E+0	1.256394E+0	1.368309E+0	1.419127E+0	1.287536E+0	1.279836E+0	1.398688E+0	1.388086E+0	1.412114E+0	1.303852E+0	1.396838E+0	1.387062E+0	1.304029E+0	1.108275E+0	1.336988E+0	1.389925E+0	1.250300E+0	1.136575E+0	1.373126E+0	1.338238E+0	1.276873E+0	1.223983E+0	1.389004E+0	1.393813E+0	1.360529E+0	1.351863E+0	1.365089E+0	1.403384E+0	1.209716E+0	1.344942E+0	1.323642E+0	1.351676E+0	1.157901E+0	1.261463E+0	1.369428E+0	1.356329E+0	1.228955E+0	1.309759E+0	1.362628E+0	1.401304E+0	1.353489E+0	1.297066E+0	1.397479E+0	1.372022E+0	1.312244E+0	1.366897E+0	1.411023E+0	1.395789E+0	1.134684E+0	1.292900E+0	1.414023E+0	1.385769E+0	1.279828E+0	1.345528E+0	1.361899E+0	1.384712E+0	1.395754E+0	1.386801E+0	1.376329E+0	1.430574E+0	1.276363E+0	1.317137E+0	1.432240E+0	1.343956E+0	1.266917E+0	1.179509E+0	1.396893E+0	1.359026E+0	1.252565E+0	1.300175E+0	1.387573E+0	1.339755E+0	1.350510E+0	1.361661E+0	1.408880E+0	1.379881E+0	1.253080E+0	1.340475E+0	1.364214E+0	1.405351E+0	1.192787E+0	1.184857E+0	1.403337E+0	1.346414E+0	1.245483E+0	1.290099E+0	1.357073E+0	1.381956E+0	1.358840E+0	1.371061E+0	1.404775E+0	1.409590E+0	1.247023E+0	1.365919E+0	1.400896E+0	1.389241E+0	1.237038E+0	1.357968E+0	1.399962E+0	1.383878E+0	1.305057E+0	1.338899E+0	1.378976E+0	1.368389E+0	1.365481E+0	1.336085E+0	1.405927E+0	1.338853E+0	1.293438E+0	1.306163E+0	1.365635E+0	1.437016E+0	1.222145E+0	1.294235E+0	1.393811E+0	1.424067E+0	1.257284E+0	1.286995E+0	1.344199E+0	1.378837E+0	1.341686E+0	1.355876E+0	1.333053E+0	1.365397E+0	1.269148E+0	1.119592E+0	1.353424E+0	1.324824E+0	1.180892E+0	1.266948E+0	1.389331E+0	1.365266E+0	1.253460E+0	1.258876E+0	1.335379E+0	1.367340E+0	1.331048E+0	1.393825E+0	1.295392E+0	1.344193E+0	1.389141E+0	1.339569E+0	1.347017E+0	1.391903E+0	1.190910E+0	1.320223E+0	1.381400E+0	1.349605E+0	1.286544E+0	1.340282E+0	1.261249E+0	1.434984E+0
5.527590E+2	1.330489E+0	1.281707E+0	1.372552E+0	1.129879E+0	1.220519E+0	1.207850E+0	1.357610E+0	1.306621E+0	1.255569E+0	1.299166E+0	1.288084E+0	1.351496E+0	1.347973E+0	1.420586E+0	1.344419E+0	1.323035E+0	1.352577E+0	1.228984E+0	1.312141E+0	1.298796E+0	1.210205E+0	1.199606E+0	1.310205E+0	1.354962E+0	1.290923E+0	1.296278E+0	1.301794E+0	1.287863E+0	1.367037E+0	1.330720E+0	1.337225E+0	1.387861E+0	1.339613E+0	1.061626E+0	1.368721E+0	1.376649E+0	1.161865E+0	1.104038E+0	1.349718E+0	1.312227E+0	1.234649E+0	1.235532E+0	1.325401E+0	1.314099E+0	1.357243E+0	1.323797E+0	1.317687E+0	1.362328E+0	1.184776E+0	1.273712E+0	1.347834E+0	1.349576E+0	1.190317E+0	1.271375E+0	1.315347E+0	1.343205E+0	1.260557E+0	1.282396E+0	1.340701E+0	1.387726E+0	1.386254E+0	1.361281E+0	1.390326E+0	1.350924E+0	1.297219E+0	1.319419E+0	1.357604E+0	1.348832E+0	1.098137E+0	1.219012E+0	1.326006E+0	1.367471E+0	1.265088E+0	1.281504E+0	1.394118E+0	1.330107E+0	1.308089E+0	1.354762E+0	1.394204E+0	1.342942E+0	1.241290E+0	1.248450E+0	1.354699E+0	1.348054E+0	1.190485E+0	1.201000E+0	1.339498E+0	1.354501E+0	1.217699E+0	1.258172E+0	1.354620E+0	1.355524E+0	1.281750E+0	1.317970E+0	1.352662E+0	1.353825E+0	1.235451E+0	1.327102E+0	1.313727E+0	1.346422E+0	1.204201E+0	1.187478E+0	1.346026E+0	1.329985E+0	1.296963E+0	1.199089E+0	1.377158E+0	1.396700E+0	1.319334E+0	1.318009E+0	1.364051E+0	1.357560E+0	1.231466E+0	1.323667E+0	1.327278E+0	1.287979E+0	1.138024E+0	1.339290E+0	1.296185E+0	1.345247E+0	1.231460E+0	1.279836E+0	1.377815E+0	1.282078E+0	1.280579E+0	1.334555E+0	1.345457E+0	1.349686E+0	1.221358E+0	1.321526E+0	1.330965E+0	1.372672E+0	1.104134E+0	1.216800E+0	1.314276E+0	1.290192E+0	1.251511E+0	1.282501E+0	1.365368E+0	1.356247E+0	1.300441E+0	1.384391E+0	1.341691E+0	1.324931E+0	1.190972E+0	1.058980E+0	1.327801E+0	1.292183E+0	1.113415E+0	1.208395E+0	1.336158E+0	1.320462E+0	1.235799E+0	1.260004E+0	1.262927E+0	1.303878E+0	1.276053E+0	1.342202E+0	1.237618E+0	1.295059E+0	1.276392E+0	1.282878E+0	1.328448E+0	1.398382E+0	1.162238E+0	1.286213E+0	1.412073E+0	1.351890E+0	1.290680E+0	1.267240E+0	1.102293E+0	1.274550E+0
5.535380E+2	1.249846E+0	1.257744E+0	1.238083E+0	1.024958E+0	1.245296E+0	1.150530E+0	1.269230E+0	1.247080E+0	1.238511E+0	1.212942E+0	1.276452E+0	1.278081E+0	1.270878E+0	1.278248E+0	1.331454E+0	1.256133E+0	1.243057E+0	1.174879E+0	1.274249E+0	1.310261E+0	1.248590E+0	1.153796E+0	1.317407E+0	1.263747E+0	1.228819E+0	1.202327E+0	1.242243E+0	1.233247E+0	1.213034E+0	1.258913E+0	1.296758E+0	1.300231E+0	1.219780E+0	1.019305E+0	1.235038E+0	1.238799E+0	1.181564E+0	1.033699E+0	1.267788E+0	1.250400E+0	1.224747E+0	1.130100E+0	1.230539E+0	1.248032E+0	1.246905E+0	1.224381E+0	1.237330E+0	1.251078E+0	1.161831E+0	1.243259E+0	1.286831E+0	1.277098E+0	1.123683E+0	1.146801E+0	1.265678E+0	1.241376E+0	1.133604E+0	1.160556E+0	1.226089E+0	1.231876E+0	1.263267E+0	1.280068E+0	1.229874E+0	1.268830E+0	1.188281E+0	1.265236E+0	1.217037E+0	1.276158E+0	1.075934E+0	1.191138E+0	1.265832E+0	1.253619E+0	1.172235E+0	1.227133E+0	1.255201E+0	1.248207E+0	1.238148E+0	1.217037E+0	1.270533E+0	1.288454E+0	1.172238E+0	1.230316E+0	1.261853E+0	1.255786E+0	1.134987E+0	1.099487E+0	1.235504E+0	1.265726E+0	1.188196E+0	1.239082E+0	1.253058E+0	1.253845E+0	1.228970E+0	1.275705E+0	1.232116E+0	1.289869E+0	1.221027E+0	1.220107E+0	1.263241E+0	1.265610E+0	1.109815E+0	1.103064E+0	1.265898E+0	1.212612E+0	1.170359E+0	1.142071E+0	1.270820E+0	1.207642E+0	1.257318E+0	1.261069E+0	1.226896E+0	1.204516E+0	1.125772E+0	1.242865E+0	1.223277E+0	1.211196E+0	1.077235E+0	1.220665E+0	1.250993E+0	1.293572E+0	1.215688E+0	1.227886E+0	1.254914E+0	1.251558E+0	1.188278E+0	1.252318E+0	1.257599E+0	1.247227E+0	1.147697E+0	1.261788E+0	1.224917E+0	1.291132E+0	1.090862E+0	1.147921E+0	1.241923E+0	1.270141E+0	1.128642E+0	1.223547E+0	1.246832E+0	1.242132E+0	1.232171E+0	1.281849E+0	1.276168E+0	1.274476E+0	1.119006E+0	1.026190E+0	1.245241E+0	1.187945E+0	1.095232E+0	1.163470E+0	1.287627E+0	1.271840E+0	1.142671E+0	1.197361E+0	1.236050E+0	1.267692E+0	1.213132E+0	1.185814E+0	1.242469E+0	1.336775E+0	1.168543E+0	1.289242E+0	1.265411E+0	1.227327E+0	1.096634E+0	1.192029E+0	1.270892E+0	1.224471E+0	1.193491E+0	1.228690E+0	1.019100E+0	1.204361E+0
5.542530E+2	1.220259E+0	1.119813E+0	1.144668E+0	9.320841E-1	1.195274E+0	1.095773E+0	1.175131E+0	1.153112E+0	1.161470E+0	1.154001E+0	1.137435E+0	1.211291E+0	1.211757E+0	1.197114E+0	1.180078E+0	1.176989E+0	1.135727E+0	1.100009E+0	1.199569E+0	1.187838E+0	1.169079E+0	1.060740E+0	1.160383E+0	1.161078E+0	1.209622E+0	1.098515E+0	1.181679E+0	1.216277E+0	1.155748E+0	1.152356E+0	1.218000E+0	1.198991E+0	1.155416E+0	1.040467E+0	1.155975E+0	1.172934E+0	1.186379E+0	9.676680E-1	1.140918E+0	1.222918E+0	1.187214E+0	1.132611E+0	1.178794E+0	1.163406E+0	1.188212E+0	1.204403E+0	1.194442E+0	1.184412E+0	1.203233E+0	1.058474E+0	1.174292E+0	1.164696E+0	1.262352E+0	1.057575E+0	1.182348E+0	1.160018E+0	1.164095E+0	1.079504E+0	1.187222E+0	1.179202E+0	1.208825E+0	1.112918E+0	1.158336E+0	1.161048E+0	1.082027E+0	1.202121E+0	1.131571E+0	1.170501E+0	1.106003E+0	1.073444E+0	1.171844E+0	1.212453E+0	1.128999E+0	1.114328E+0	1.182309E+0	1.177224E+0	1.153359E+0	1.100356E+0	1.163286E+0	1.210357E+0	1.111407E+0	1.150090E+0	1.171556E+0	1.184025E+0	1.040815E+0	1.042329E+0	1.140038E+0	1.192809E+0	1.099157E+0	1.189441E+0	1.206598E+0	1.216327E+0	1.131156E+0	1.184052E+0	1.201726E+0	1.215016E+0	1.105094E+0	1.121669E+0	1.157225E+0	1.195460E+0	1.021573E+0	1.049585E+0	1.164627E+0	1.160027E+0	1.097336E+0	1.091634E+0	1.142036E+0	1.194476E+0	1.142473E+0	1.154974E+0	1.192724E+0	1.169972E+0	1.075878E+0	1.175263E+0	1.184130E+0	1.174472E+0	9.796056E-1	1.103049E+0	1.179019E+0	1.184199E+0	1.059028E+0	1.158981E+0	1.170854E+0	1.125779E+0	1.164089E+0	1.152720E+0	1.190930E+0	1.179970E+0	1.138752E+0	1.134348E+0	1.164753E+0	1.235663E+0	1.059107E+0	1.088945E+0	1.171775E+0	1.265264E+0	1.129694E+0	1.077564E+0	1.151279E+0	1.183047E+0	1.204199E+0	1.164504E+0	1.141059E+0	1.150085E+0	1.057912E+0	9.432198E-1	1.192859E+0	1.126349E+0	1.003828E+0	1.091795E+0	1.135849E+0	1.171261E+0	1.058109E+0	1.125125E+0	1.189892E+0	1.172498E+0	1.125509E+0	1.148361E+0	1.142458E+0	1.165737E+0	1.121699E+0	1.112804E+0	1.097127E+0	1.160956E+0	1.028601E+0	1.088949E+0	1.186179E+0	1.186760E+0	1.068042E+0	1.170865E+0	9.685910E-1	1.147539E+0
5.550140E+2	1.121479E+0	1.083577E+0	1.087548E+0	9.064809E-1	1.055029E+0	1.003143E+0	1.046196E+0	1.059144E+0	1.050862E+0	1.023451E+0	1.100327E+0	1.136857E+0	1.115744E+0	1.118295E+0	1.094899E+0	1.044406E+0	1.089728E+0	1.004918E+0	1.101823E+0	1.069583E+0	1.120185E+0	9.605286E-1	1.110446E+0	1.092785E+0	1.113643E+0	1.045901E+0	1.080241E+0	1.077344E+0	1.071704E+0	1.023562E+0	1.097906E+0	1.166179E+0	1.086865E+0	1.056818E+0	1.085233E+0	1.100435E+0	1.087873E+0	9.269960E-1	1.063202E+0	1.075218E+0	1.082436E+0	9.679413E-1	1.104951E+0	1.086421E+0	1.061911E+0	1.066933E+0	1.080680E+0	1.098766E+0	1.066557E+0	9.924050E-1	1.089099E+0	1.092741E+0	1.122784E+0	1.036022E+0	1.134889E+0	1.102280E+0	1.107548E+0	1.018585E+0	1.079587E+0	1.066793E+0	1.066680E+0	1.096864E+0	1.084240E+0	1.096379E+0	1.085248E+0	1.080912E+0	1.087714E+0	1.068201E+0	1.101374E+0	1.015486E+0	1.062445E+0	1.127064E+0	1.096084E+0	1.054877E+0	1.099379E+0	1.084947E+0	1.093481E+0	1.058273E+0	1.050724E+0	1.087761E+0	1.085102E+0	9.841433E-1	1.077180E+0	1.072789E+0	1.080851E+0	9.467613E-1	1.074118E+0	1.121250E+0	1.093792E+0	1.013793E+0	1.132588E+0	1.102144E+0	1.063849E+0	1.087176E+0	1.105494E+0	1.064837E+0	1.089602E+0	1.072451E+0	1.078692E+0	1.072556E+0	9.886475E-1	9.337120E-1	1.112320E+0	1.061436E+0	1.014859E+0	9.989820E-1	1.101273E+0	1.071244E+0	1.057030E+0	1.090246E+0	1.119702E+0	1.043165E+0	1.038322E+0	1.069109E+0	1.069028E+0	1.057071E+0	9.533571E-1	1.038941E+0	1.067431E+0	1.107437E+0	9.948930E-1	1.089529E+0	1.054909E+0	1.038418E+0	1.024398E+0	1.030136E+0	1.073608E+0	1.101883E+0	9.698595E-1	1.089971E+0	1.093374E+0	1.082570E+0	9.562626E-1	1.004758E+0	1.093345E+0	1.064186E+0	1.025204E+0	1.083179E+0	1.083544E+0	1.108901E+0	1.070029E+0	1.060318E+0	1.103979E+0	1.118111E+0	9.388330E-1	9.039711E-1	1.068733E+0	1.099500E+0	9.554953E-1	1.018100E+0	1.089386E+0	1.082600E+0	9.970944E-1	1.056274E+0	1.043822E+0	1.134084E+0	1.102206E+0	1.108381E+0	1.077888E+0	1.104092E+0	1.060149E+0	1.063055E+0	1.079679E+0	1.056812E+0	9.493909E-1	1.078486E+0	1.103906E+0	1.109623E+0	9.929100E-1	1.072462E+0	9.834459E-1	1.104091E+0
5.557600E+2	1.047992E+0	9.976619E-1	1.022099E+0	8.326839E-1	1.029785E+0	9.412200E-1	9.978467E-1	9.870415E-1	1.037656E+0	9.835073E-1	1.021126E+0	1.011435E+0	1.030135E+0	1.013976E+0	1.010648E+0	1.052566E+0	1.017445E+0	9.726751E-1	1.077113E+0	1.026866E+0	1.012794E+0	8.946744E-1	9.851145E-1	1.016697E+0	1.011453E+0	9.279942E-1	1.051477E+0	9.760621E-1	1.035079E+0	1.021247E+0	1.068751E+0	1.032927E+0	1.009942E+0	9.765036E-1	9.791194E-1	1.038147E+0	1.009508E+0	8.848885E-1	9.737826E-1	1.008482E+0	1.011021E+0	9.338021E-1	1.044044E+0	1.011622E+0	1.011202E+0	9.660914E-1	1.063975E+0	1.017092E+0	9.837527E-1	9.696944E-1	1.027045E+0	1.015532E+0	1.022833E+0	9.398996E-1	1.028933E+0	1.064487E+0	1.044350E+0	9.230767E-1	1.009326E+0	1.017920E+0	1.070713E+0	1.012343E+0	1.034163E+0	1.033546E+0	1.049830E+0	9.971273E-1	1.017430E+0	1.002236E+0	1.020422E+0	9.411556E-1	9.968031E-1	1.057942E+0	1.064639E+0	9.573171E-1	1.035465E+0	1.023245E+0	1.009648E+0	1.010454E+0	1.022222E+0	1.019654E+0	9.864553E-1	9.594161E-1	1.003717E+0	1.015890E+0	1.036718E+0	8.992060E-1	1.015018E+0	9.876419E-1	1.049271E+0	9.750632E-1	1.035346E+0	1.036896E+0	9.979924E-1	9.997960E-1	1.053326E+0	1.012251E+0	1.027094E+0	1.051052E+0	1.000721E+0	1.042812E+0	1.037819E+0	9.447228E-1	9.804448E-1	1.025284E+0	1.048481E+0	9.079744E-1	9.908008E-1	1.023322E+0	1.041870E+0	9.929082E-1	1.024676E+0	9.740782E-1	9.954014E-1	1.004149E+0	1.038061E+0	9.819566E-1	1.011843E+0	9.556505E-1	1.051809E+0	1.039706E+0	1.024858E+0	9.790631E-1	1.040415E+0	9.984217E-1	9.631912E-1	1.004086E+0	1.027613E+0	1.011156E+0	1.009321E+0	9.943917E-1	1.027605E+0	1.007132E+0	9.927567E-1	9.349793E-1	9.839823E-1	9.921022E-1	1.030979E+0	9.579690E-1	1.039396E+0	9.849394E-1	1.019777E+0	1.030707E+0	9.820767E-1	9.787328E-1	9.414216E-1	8.314348E-1	1.003253E+0	1.061069E+0	8.894561E-1	9.519756E-1	1.028468E+0	1.024445E+0	9.264468E-1	9.496118E-1	1.019281E+0	1.049466E+0	9.950074E-1	1.013738E+0	1.009433E+0	9.812603E-1	1.008948E+0	1.042807E+0	1.051539E+0	1.017961E+0	8.711527E-1	9.989540E-1	1.027471E+0	1.013060E+0	9.239821E-1	1.003479E+0	9.314522E-1	9.871063E-1
5.560130E+2	9.921602E-1	9.538281E-1	9.358257E-1	8.156155E-1	1.022774E+0	8.695731E-1	9.458572E-1	9.381970E-1	9.969340E-1	9.313851E-1	9.585401E-1	9.645297E-1	9.951351E-1	9.792027E-1	9.754649E-1	9.909653E-1	9.676131E-1	9.152931E-1	9.804665E-1	9.778974E-1	9.533898E-1	9.032642E-1	9.678262E-1	9.722375E-1	9.815298E-1	9.387982E-1	9.929349E-1	1.005757E+0	1.018178E+0	9.749168E-1	1.007398E+0	9.745049E-1	9.780218E-1	9.370687E-1	9.707963E-1	9.630936E-1	9.473395E-1	8.030669E-1	9.812734E-1	9.849289E-1	9.583720E-1	8.840994E-1	1.003080E+0	9.630289E-1	1.023408E+0	9.884483E-1	9.551784E-1	9.769163E-1	9.982189E-1	9.211748E-1	9.996996E-1	9.855933E-1	9.998723E-1	9.049849E-1	9.880957E-1	9.658063E-1	9.756078E-1	8.982959E-1	9.550102E-1	9.532988E-1	1.022827E+0	9.339627E-1	9.662021E-1	9.707129E-1	9.784582E-1	9.373614E-1	9.949392E-1	9.765210E-1	9.635209E-1	9.062021E-1	9.440910E-1	1.016773E+0	9.619596E-1	9.430890E-1	1.011696E+0	9.959438E-1	1.015877E+0	9.698042E-1	1.002898E+0	9.747020E-1	9.782356E-1	9.440300E-1	9.736183E-1	9.769326E-1	9.784883E-1	8.763429E-1	9.905833E-1	9.858305E-1	9.269740E-1	9.461523E-1	9.921276E-1	9.759980E-1	9.854042E-1	9.257137E-1	9.971059E-1	1.024569E+0	1.004121E+0	9.371019E-1	9.715521E-1	9.446009E-1	9.904059E-1	8.367140E-1	9.676473E-1	9.403076E-1	9.912194E-1	8.536987E-1	1.024474E+0	9.727658E-1	9.518312E-1	9.374265E-1	9.474393E-1	1.007745E+0	9.707220E-1	9.708775E-1	9.924878E-1	9.724975E-1	9.680933E-1	9.617079E-1	9.519373E-1	9.624436E-1	9.717622E-1	9.298456E-1	1.029401E+0	9.721076E-1	9.533189E-1	9.765044E-1	9.888514E-1	1.000775E+0	9.788039E-1	9.659452E-1	1.000073E+0	9.888275E-1	9.809082E-1	9.214736E-1	1.004971E+0	9.953543E-1	9.726964E-1	9.220348E-1	1.004320E+0	9.449703E-1	9.742635E-1	9.605190E-1	9.871569E-1	9.342718E-1	9.491880E-1	8.985059E-1	9.707989E-1	9.673597E-1	9.574091E-1	9.105858E-1	9.876834E-1	1.009669E+0	9.301931E-1	9.434041E-1	9.152791E-1	9.665181E-1	9.922103E-1	9.489550E-1	9.458327E-1	1.007217E+0	1.022566E+0	9.595066E-1	1.021709E+0	9.753327E-1	9.440457E-1	8.801779E-1	9.846295E-1	9.799205E-1	9.357002E-1	9.334793E-1	8.809434E-1	9.436580E-1
5.565030E+2	9.611429E-1	9.427235E-1	1.006035E+0	7.875019E-1	9.797648E-1	9.023258E-1	9.676923E-1	9.879711E-1	9.881297E-1	9.445375E-1	9.856785E-1	9.823739E-1	9.927701E-1	9.866211E-1	9.949083E-1	9.726081E-1	9.917074E-1	8.693868E-1	9.744261E-1	9.549755E-1	9.611585E-1	8.794040E-1	9.500605E-1	9.823216E-1	9.854822E-1	9.073250E-1	9.793088E-1	9.267461E-1	9.538508E-1	9.573112E-1	1.004786E+0	9.921116E-1	9.586605E-1	9.442825E-1	9.650751E-1	9.870902E-1	9.464630E-1	8.226847E-1	9.606739E-1	1.002103E+0	9.646276E-1	8.238543E-1	9.443288E-1	9.395518E-1	1.002281E+0	9.113891E-1	8.928790E-1	1.008262E+0	9.563178E-1	8.891728E-1	9.681468E-1	9.493530E-1	1.006174E+0	8.752429E-1	9.411881E-1	9.264402E-1	9.539870E-1	9.029424E-1	9.575008E-1	9.978279E-1	9.557860E-1	9.920404E-1	9.227671E-1	1.015200E+0	9.312347E-1	9.390368E-1	9.623272E-1	9.586325E-1	9.806370E-1	9.380580E-1	9.714414E-1	9.669634E-1	9.860328E-1	9.126016E-1	9.910957E-1	9.386116E-1	9.770752E-1	9.286792E-1	9.536236E-1	9.978597E-1	1.003445E+0	8.956747E-1	9.501514E-1	9.646302E-1	9.716643E-1	8.361044E-1	9.763763E-1	9.287641E-1	9.436022E-1	9.205142E-1	9.494497E-1	9.390245E-1	9.631294E-1	9.133671E-1	9.991317E-1	9.909315E-1	9.506965E-1	9.542214E-1	9.406999E-1	9.709777E-1	9.925989E-1	8.451035E-1	9.759932E-1	9.501670E-1	9.864914E-1	8.745323E-1	9.653985E-1	9.085177E-1	9.770966E-1	9.418069E-1	9.759948E-1	9.959397E-1	9.707221E-1	9.555615E-1	9.755438E-1	1.010890E+0	9.602641E-1	9.374781E-1	9.552850E-1	1.003584E+0	9.849049E-1	9.817974E-1	9.679495E-1	9.047451E-1	9.819481E-1	9.412617E-1	9.557754E-1	9.217845E-1	9.819608E-1	9.562734E-1	9.195165E-1	1.002694E+0	9.666875E-1	9.241744E-1	9.861918E-1	9.525380E-1	9.637700E-1	9.181049E-1	9.970626E-1	9.414946E-1	1.008872E+0	9.484553E-1	9.302690E-1	9.392675E-1	9.217472E-1	9.203661E-1	9.907274E-1	9.431427E-1	9.569314E-1	9.403660E-1	9.773581E-1	1.010148E+0	9.392921E-1	9.157507E-1	9.731231E-1	9.893429E-1	9.651775E-1	9.707175E-1	9.395208E-1	9.854327E-1	9.495771E-1	9.317391E-1	9.417884E-1	9.812679E-1	9.722306E-1	9.225606E-1	9.812217E-1	9.633502E-1	9.419032E-1	9.486969E-1	8.363753E-1	1.007161E+0
5.570220E+2	1.000273E+0	9.929862E-1	9.691456E-1	8.025626E-1	1.002671E+0	9.059083E-1	9.297404E-1	9.344749E-1	9.694197E-1	9.153098E-1	9.640782E-1	9.166050E-1	9.634462E-1	9.745665E-1	1.014352E+0	9.640431E-1	9.298287E-1	8.710264E-1	9.952930E-1	9.341378E-1	9.981729E-1	8.970609E-1	9.587037E-1	9.800293E-1	9.668508E-1	9.115529E-1	9.722433E-1	9.548508E-1	9.646516E-1	9.234913E-1	9.930364E-1	9.961122E-1	9.947677E-1	9.529387E-1	9.437482E-1	9.380758E-1	9.679147E-1	8.035454E-1	9.470971E-1	9.540134E-1	9.302226E-1	8.851039E-1	9.669665E-1	1.006708E+0	9.994638E-1	9.408805E-1	9.741400E-1	9.875131E-1	9.528264E-1	9.521448E-1	9.429043E-1	9.519794E-1	9.913157E-1	8.597250E-1	9.853367E-1	1.013047E+0	9.489976E-1	9.483734E-1	9.579995E-1	9.695899E-1	9.895584E-1	9.726819E-1	9.871523E-1	9.835551E-1	9.602123E-1	9.719918E-1	9.904416E-1	9.457749E-1	9.653712E-1	9.230149E-1	9.754198E-1	9.517154E-1	9.570467E-1	9.507112E-1	9.953213E-1	1.022153E+0	9.416266E-1	9.626315E-1	9.439614E-1	9.579029E-1	9.700146E-1	9.440301E-1	9.950440E-1	1.002050E+0	9.880412E-1	8.447919E-1	9.422808E-1	9.953401E-1	1.013870E+0	9.172412E-1	9.618751E-1	9.874166E-1	9.776562E-1	9.760518E-1	9.788725E-1	9.719812E-1	9.902310E-1	9.606412E-1	9.435051E-1	9.883752E-1	9.882099E-1	8.603086E-1	9.492844E-1	9.637819E-1	9.733583E-1	8.750804E-1	9.624449E-1	1.004363E+0	9.518309E-1	9.773342E-1	9.605470E-1	9.565871E-1	9.331668E-1	9.703494E-1	9.784650E-1	9.836254E-1	9.395413E-1	9.021429E-1	9.770446E-1	9.915430E-1	9.822765E-1	9.686726E-1	9.876603E-1	9.231648E-1	9.883649E-1	9.831447E-1	1.010558E+0	9.660182E-1	9.640723E-1	9.551363E-1	9.501072E-1	9.610923E-1	9.548400E-1	8.944615E-1	9.337200E-1	9.422399E-1	9.443427E-1	8.793629E-1	9.365850E-1	9.913111E-1	9.263799E-1	9.758729E-1	9.282372E-1	1.010705E+0	9.781812E-1	8.960217E-1	9.263869E-1	9.610423E-1	9.559737E-1	8.782812E-1	9.737443E-1	9.724890E-1	9.821090E-1	9.061568E-1	9.672800E-1	9.893433E-1	9.772955E-1	9.449062E-1	9.754479E-1	9.553040E-1	9.158058E-1	9.600847E-1	9.631755E-1	9.542878E-1	9.911832E-1	9.293626E-1	9.938796E-1	1.001061E+0	9.253604E-1	9.426104E-1	8.794577E-1	8.567564E-1
5.575300E+2	1.011725E+0	9.737002E-1	9.988951E-1	1.004375E+0	1.067651E+0	9.222846E-1	9.780905E-1	1.071241E+0	1.022248E+0	9.318717E-1	1.015587E+0	9.935902E-1	1.025405E+0	1.013975E+0	1.036108E+0	1.033802E+0	1.031135E+0	9.218510E-1	1.050755E+0	9.898787E-1	1.001371E+0	9.161488E-1	9.884752E-1	1.029532E+0	1.019358E+0	9.820155E-1	9.788039E-1	1.006818E+0	1.016769E+0	9.814024E-1	9.899913E-1	9.997148E-1	1.027734E+0	9.644810E-1	9.916030E-1	1.020277E+0	1.040591E+0	8.652705E-1	1.013576E+0	1.022221E+0	1.026139E+0	8.760669E-1	9.874492E-1	1.015990E+0	9.905426E-1	9.651400E-1	9.727843E-1	1.027688E+0	9.962237E-1	9.583383E-1	1.009165E+0	9.908462E-1	1.006174E+0	9.071398E-1	9.974776E-1	1.044541E+0	1.028828E+0	9.829634E-1	1.013811E+0	9.815369E-1	1.011233E+0	9.627654E-1	9.989050E-1	9.826382E-1	1.029975E+0	9.736674E-1	1.014619E+0	9.966460E-1	9.649083E-1	9.362885E-1	9.933222E-1	1.016772E+0	1.021406E+0	9.710368E-1	1.043917E+0	1.010140E+0	1.019708E+0	9.750650E-1	1.018359E+0	1.030097E+0	1.040711E+0	9.522726E-1	1.001676E+0	1.009739E+0	9.966869E-1	8.809157E-1	9.814907E-1	1.015269E+0	1.040153E+0	9.947011E-1	1.033726E+0	9.982912E-1	9.854042E-1	9.827006E-1	9.733005E-1	1.034515E+0	9.955737E-1	9.478015E-1	9.911849E-1	1.029343E+0	1.019378E+0	8.770861E-1	9.971382E-1	1.012610E+0	9.917443E-1	9.118117E-1	9.642174E-1	1.010683E+0	9.757184E-1	1.012862E+0	1.013910E+0	1.028297E+0	1.035639E+0	9.856651E-1	1.010601E+0	1.014784E+0	1.071249E+0	9.748322E-1	9.898777E-1	1.028167E+0	1.000676E+0	1.006406E+0	9.888197E-1	9.547412E-1	9.705951E-1	9.954030E-1	1.001255E+0	9.949055E-1	1.029840E+0	1.006908E+0	1.008230E+0	1.019335E+0	1.006973E+0	9.255248E-1	1.006628E+0	1.019201E+0	1.026779E+0	9.607766E-1	1.023672E+0	1.027225E+0	1.034948E+0	1.033450E+0	1.046076E+0	9.837285E-1	9.911245E-1	9.650806E-1	9.793392E-1	9.894708E-1	1.001436E+0	9.181569E-1	9.675494E-1	1.013006E+0	1.001376E+0	9.767005E-1	1.012270E+0	1.036105E+0	9.926747E-1	9.945052E-1	1.008947E+0	1.002119E+0	1.057426E+0	9.733899E-1	1.032965E+0	1.006090E+0	1.018882E+0	1.004186E+0	1.025037E+0	1.027916E+0	1.037025E+0	1.002464E+0	8.779712E-1	9.135772E-1
5.580060E+2	1.043697E+0	1.038574E+0	9.750951E-1	1.042026E+0	1.008749E+0	9.770439E-1	1.006164E+0	1.015883E+0	1.036004E+0	1.016632E+0	1.054911E+0	1.023161E+0	1.018783E+0	1.056166E+0	9.597251E-1	1.035433E+0	1.009231E+0	1.022407E+0	1.045813E+0	1.044578E+0	1.018735E+0	1.028769E+0	1.026410E+0	1.046490E+0	1.047022E+0	9.843637E-1	1.044410E+0	1.012651E+0	1.001744E+0	1.040702E+0	1.055261E+0	1.034927E+0	1.040293E+0	9.909315E-1	1.065466E+0	1.021808E+0	1.000751E+0	9.815436E-1	1.029493E+0	1.021731E+0	1.019883E+0	1.014129E+0	1.016016E+0	1.072227E+0	1.062849E+0	1.027929E+0	9.845221E-1	1.038723E+0	1.066058E+0	1.019245E+0	1.065960E+0	1.007653E+0	1.054798E+0	9.562797E-1	1.023414E+0	1.034568E+0	9.927932E-1	9.850282E-1	1.050685E+0	1.008689E+0	1.001152E+0	1.010928E+0	1.036719E+0	1.048682E+0	1.049294E+0	1.031200E+0	1.030363E+0	1.029628E+0	1.041238E+0	9.539863E-1	9.908355E-1	1.060483E+0	9.973325E-1	9.832320E-1	1.034937E+0	1.070748E+0	1.019229E+0	1.024320E+0	1.004348E+0	1.051438E+0	1.017693E+0	9.907370E-1	1.018001E+0	1.055361E+0	1.080394E+0	9.156675E-1	1.054797E+0	1.030216E+0	1.029961E+0	9.696082E-1	1.015898E+0	1.014059E+0	9.854034E-1	1.000272E+0	1.014327E+0	1.048728E+0	1.029231E+0	1.015743E+0	1.009135E+0	1.056281E+0	1.059767E+0	9.017289E-1	1.047218E+0	9.811527E-1	1.009081E+0	9.545745E-1	1.015613E+0	9.759256E-1	1.037733E+0	1.001669E+0	1.034974E+0	1.004247E+0	1.065147E+0	1.060131E+0	9.936562E-1	1.039266E+0	1.023815E+0	1.002091E+0	1.007173E+0	1.068805E+0	9.943674E-1	1.030468E+0	1.052009E+0	9.926326E-1	1.034271E+0	1.063335E+0	1.028130E+0	1.024246E+0	1.045624E+0	1.021701E+0	9.827379E-1	1.019335E+0	1.046311E+0	8.904099E-1	1.046948E+0	1.072858E+0	1.053558E+0	9.635842E-1	1.033953E+0	1.046341E+0	1.025940E+0	1.001645E+0	1.058774E+0	1.019697E+0	1.067232E+0	1.016253E+0	1.035139E+0	1.046328E+0	1.024884E+0	9.878139E-1	1.026403E+0	1.014436E+0	1.023855E+0	9.654134E-1	9.737073E-1	1.043900E+0	1.053731E+0	1.018799E+0	1.047302E+0	1.059130E+0	1.006225E+0	9.901656E-1	1.016644E+0	9.796487E-1	1.054357E+0	1.005232E+0	1.045972E+0	1.096482E+0	1.005317E+0	9.933333E-1	8.452886E-1	1.013846E+0
5.585100E+2	1.047992E+0	1.007014E+0	1.004845E+0	1.001363E+0	1.000334E+0	1.042038E+0	9.962868E-1	1.056817E+0	1.021697E+0	1.025887E+0	1.010603E+0	1.031319E+0	1.019730E+0	1.015367E+0	1.037498E+0	1.030946E+0	1.061801E+0	1.009290E+0	1.016160E+0	1.005507E+0	1.064889E+0	1.020179E+0	1.000959E+0	1.004781E+0	9.928215E-1	1.053886E+0	1.012112E+0	9.935610E-1	1.016768E+0	1.052749E+0	1.040901E+0	1.025726E+0	1.010989E+0	1.037580E+0	1.021773E+0	1.004449E+0	1.016511E+0	1.021737E+0	1.022004E+0	9.917980E-1	1.057936E+0	1.002582E+0	1.041349E+0	9.794081E-1	1.042660E+0	1.035540E+0	1.030117E+0	1.047111E+0	9.997151E-1	9.903402E-1	1.002329E+0	1.027087E+0	1.054349E+0	1.033007E+0	1.024518E+0	1.016197E+0	1.038806E+0	1.016004E+0	1.025271E+0	1.028781E+0	9.966147E-1	9.986525E-1	1.029565E+0	1.014283E+0	1.042854E+0	9.580282E-1	1.039921E+0	1.008385E+0	1.044475E+0	1.044244E+0	1.022662E+0	1.001525E+0	1.038111E+0	1.044208E+0	1.018563E+0	1.032528E+0	9.598295E-1	1.008539E+0	1.041063E+0	1.008756E+0	1.016597E+0	1.015465E+0	1.025143E+0	1.028706E+0	1.023527E+0	1.041415E+0	1.016155E+0	1.031574E+0	1.049808E+0	1.063978E+0	1.020220E+0	1.028740E+0	1.031405E+0	9.860248E-1	1.017872E+0	1.034042E+0	1.031902E+0	1.002904E+0	1.033817E+0	1.012507E+0	1.016745E+0	9.788023E-1	1.050000E+0	1.043596E+0	1.006454E+0	9.567676E-1	9.943456E-1	1.015423E+0	1.030385E+0	9.992352E-1	9.905035E-1	1.035730E+0	1.002913E+0	9.645402E-1	1.010601E+0	1.030364E+0	1.021052E+0	9.930053E-1	1.006058E+0	1.038704E+0	1.035372E+0	1.047421E+0	1.047952E+0	9.905274E-1	1.036738E+0	1.008683E+0	1.005390E+0	1.012059E+0	1.005637E+0	9.557049E-1	1.052077E+0	9.999207E-1	1.023088E+0	9.430826E-1	1.057995E+0	1.024079E+0	1.017852E+0	9.276499E-1	1.014601E+0	1.009269E+0	9.756856E-1	1.024676E+0	1.024236E+0	1.018698E+0	1.054807E+0	9.804819E-1	1.025460E+0	1.021058E+0	1.031105E+0	9.307758E-1	1.030017E+0	1.040654E+0	1.029207E+0	9.755719E-1	1.026293E+0	9.648486E-1	1.004328E+0	1.004627E+0	1.042932E+0	1.038273E+0	1.051435E+0	1.044543E+0	1.063921E+0	1.049798E+0	1.018884E+0	9.827328E-1	1.031367E+0	1.002204E+0	1.015656E+0	9.740587E-1	9.745329E-1	1.020533E+0
5.590100E+2	1.055150E+0	1.020456E+0	1.003655E+0	9.918238E-1	1.015761E+0	1.008261E+0	1.028000E+0	1.034490E+0	1.024999E+0	1.044886E+0	9.923248E-1	1.026730E+0	1.037703E+0	1.020002E+0	1.004166E+0	1.050120E+0	1.003755E+0	1.037708E+0	1.001334E+0	1.027908E+0	1.021478E+0	1.016361E+0	1.038896E+0	1.013946E+0	1.038553E+0	1.029460E+0	1.011104E+0	1.040225E+0	1.033671E+0	1.007809E+0	1.011313E+0	1.026924E+0	1.006280E+0	1.049122E+0	1.035817E+0	1.035593E+0	1.020014E+0	1.020302E+0	9.822100E-1	1.000631E+0	1.023010E+0	1.039231E+0	1.044044E+0	1.005616E+0	1.028575E+0	1.025075E+0	1.031923E+0	1.004730E+0	1.024655E+0	1.022342E+0	1.011795E+0	1.009229E+0	1.023283E+0	1.033868E+0	1.054318E+0	1.021446E+0	1.022729E+0	1.050594E+0	1.009326E+0	1.014662E+0	1.031397E+0	1.051062E+0	1.006570E+0	1.020703E+0	1.054123E+0	1.035668E+0	1.038797E+0	1.032423E+0	1.031522E+0	1.028317E+0	1.047029E+0	9.959341E-1	1.044498E+0	1.028963E+0	1.038634E+0	9.926679E-1	1.039829E+0	1.053013E+0	1.028503E+0	1.031005E+0	1.053316E+0	1.033597E+0	1.016981E+0	1.048185E+0	1.037173E+0	9.897442E-1	9.894464E-1	1.032933E+0	1.000460E+0	9.963374E-1	1.025622E+0	1.069520E+0	1.028017E+0	1.066282E+0	1.034079E+0	9.790873E-1	9.896967E-1	1.045703E+0	1.009136E+0	1.011946E+0	1.036061E+0	1.085763E+0	1.017170E+0	1.032798E+0	1.011182E+0	1.025298E+0	1.035699E+0	1.012263E+0	1.033599E+0	1.072724E+0	1.040123E+0	1.017366E+0	1.030811E+0	1.026331E+0	1.066106E+0	1.043161E+0	1.033486E+0	1.003606E+0	1.022796E+0	9.910408E-1	1.038001E+0	1.033202E+0	1.039836E+0	9.994741E-1	1.015513E+0	1.006129E+0	1.033815E+0	1.008448E+0	9.777517E-1	1.051285E+0	1.045959E+0	1.019890E+0	1.016453E+0	1.043926E+0	9.944765E-1	1.018660E+0	9.978999E-1	1.055105E+0	1.009763E+0	1.031280E+0	1.029258E+0	1.010418E+0	1.061314E+0	1.040180E+0	1.014940E+0	1.038610E+0	1.018058E+0	1.041590E+0	9.708090E-1	1.029709E+0	9.861347E-1	1.007763E+0	1.063996E+0	1.021284E+0	9.731231E-1	1.022188E+0	9.987357E-1	1.025378E+0	1.042446E+0	1.006754E+0	1.022566E+0	1.006942E+0	1.025086E+0	1.036847E+0	9.970139E-1	9.701751E-1	1.032827E+0	1.002204E+0	1.058392E+0	9.984059E-1	8.972838E-1	1.030558E+0
5.595110E+2	1.000750E+0	1.032729E+0	1.038164E+0	9.888121E-1	1.013423E+0	1.065067E+0	9.536553E-1	9.889022E-1	1.010141E+0	1.009812E+0	1.041064E+0	1.030299E+0	9.620269E-1	1.015830E+0	1.072680E+0	1.002389E+0	1.047016E+0	1.028964E+0	1.046362E+0	1.026866E+0	1.035186E+0	1.009680E+0	1.042737E+0	9.846124E-1	9.967739E-1	9.946988E-1	1.006561E+0	1.022196E+0	1.010665E+0	1.032365E+0	1.017406E+0	1.038129E+0	1.050758E+0	1.028442E+0	9.707971E-1	1.018234E+0	1.020452E+0	1.017910E+0	1.012174E+0	1.050192E+0	1.003723E+0	1.030195E+0	1.024101E+0	9.734026E-1	1.013079E+0	1.003669E+0	1.032374E+0	9.786836E-1	1.025155E+0	1.037827E+0	1.010743E+0	1.005552E+0	1.003472E+0	1.030850E+0	1.008515E+0	9.973003E-1	9.983367E-1	1.049561E+0	1.008827E+0	9.945698E-1	1.030388E+0	1.026508E+0	1.025988E+0	9.922688E-1	9.972400E-1	1.078677E+0	9.831319E-1	1.028510E+0	9.898890E-1	1.026104E+0	1.014705E+0	1.051841E+0	1.004703E+0	1.045223E+0	9.800037E-1	1.029251E+0	1.020188E+0	1.013800E+0	1.034783E+0	1.017384E+0	1.034134E+0	1.036345E+0	1.043508E+0	1.013327E+0	1.025347E+0	1.018550E+0	1.022406E+0	1.017988E+0	1.010651E+0	1.037249E+0	1.022921E+0	1.004272E+0	9.916986E-1	1.036837E+0	1.011288E+0	1.003249E+0	1.007327E+0	9.863198E-1	1.023720E+0	1.028220E+0	1.004014E+0	1.052207E+0	9.921305E-1	1.045472E+0	1.035348E+0	1.044486E+0	1.039243E+0	1.058606E+0	9.862848E-1	1.048390E+0	1.052762E+0	1.027422E+0	1.025982E+0	1.023691E+0	1.004173E+0	1.008108E+0	9.676321E-1	1.043484E+0	1.037860E+0	1.002580E+0	1.040629E+0	9.610166E-1	1.003892E+0	1.046838E+0	1.042168E+0	1.031668E+0	1.017276E+0	1.027404E+0	1.031944E+0	1.038200E+0	1.040861E+0	1.031538E+0	1.009344E+0	1.080392E+0	1.014913E+0	9.872245E-1	1.022578E+0	1.056227E+0	1.022463E+0	1.019116E+0	1.010295E+0	1.042223E+0	1.008997E+0	1.002212E+0	1.010280E+0	1.042585E+0	1.031723E+0	1.010529E+0	1.032541E+0	1.079680E+0	1.055313E+0	1.026352E+0	9.783623E-1	1.045551E+0	1.016360E+0	1.009941E+0	9.978025E-1	1.011713E+0	1.014773E+0	1.058205E+0	1.025289E+0	1.037023E+0	9.935673E-1	9.931394E-1	1.048526E+0	1.052325E+0	1.014814E+0	1.049057E+0	1.019103E+0	1.041014E+0	1.133487E+0	1.043928E+0
5.600240E+2	1.004090E+0	1.021041E+0	1.028050E+0	1.013913E+0	1.041005E+0	9.847205E-1	9.905677E-1	9.740162E-1	9.831771E-1	9.562282E-1	9.973097E-1	1.006336E+0	1.020203E+0	9.829117E-1	9.898151E-1	9.991274E-1	1.004850E+0	1.011476E+0	9.892528E-1	1.000819E+0	9.803509E-1	9.891607E-1	9.798319E-1	9.800285E-1	9.781424E-1	9.975170E-1	1.007570E+0	1.003636E+0	1.007379E+0	9.693570E-1	1.013923E+0	1.003716E+0	1.016222E+0	1.016901E+0	1.039458E+0	1.047847E+0	1.022203E+0	1.028436E+0	1.049158E+0	1.036453E+0	9.802658E-1	1.006598E+0	1.001463E+0	1.019812E+0	1.011670E+0	1.024599E+0	1.002580E+0	9.875132E-1	1.001710E+0	1.013051E+0	1.000225E+0	1.005027E+0	9.764594E-1	1.015765E+0	9.726435E-1	1.016722E+0	1.021066E+0	9.762519E-1	1.001851E+0	9.885961E-1	1.008209E+0	9.887352E-1	9.733550E-1	1.014283E+0	1.014412E+0	1.026173E+0	1.034861E+0	9.759621E-1	1.023196E+0	9.973454E-1	1.031613E+0	9.628970E-1	1.047445E+0	1.018292E+0	1.036522E+0	1.014509E+0	1.076714E+0	1.013321E+0	1.016425E+0	1.007395E+0	1.025914E+0	1.055028E+0	1.015960E+0	9.887229E-1	9.793978E-1	1.070680E+0	1.009336E+0	9.899049E-1	1.011188E+0	1.007247E+0	9.878061E-1	9.803483E-1	9.941197E-1	1.018792E+0	1.010274E+0	1.007513E+0	1.016943E+0	1.017884E+0	9.816490E-1	1.004650E+0	9.710883E-1	1.040672E+0	1.024960E+0	1.011671E+0	9.801871E-1	1.056547E+0	1.001435E+0	1.010683E+0	1.011092E+0	1.011402E+0	1.025143E+0	1.018239E+0	9.846711E-1	9.920023E-1	1.005926E+0	9.825131E-1	1.007237E+0	1.059638E+0	1.030049E+0	9.639488E-1	1.021704E+0	9.878127E-1	9.783841E-1	1.047889E+0	1.016007E+0	9.642459E-1	1.015726E+0	1.021536E+0	9.930098E-1	1.046733E+0	1.005172E+0	9.805067E-1	1.026405E+0	1.065086E+0	1.021541E+0	1.008362E+0	9.826726E-1	1.044998E+0	9.994818E-1	1.015061E+0	1.008872E+0	1.024128E+0	9.653156E-1	1.009206E+0	1.009763E+0	9.929026E-1	9.867410E-1	1.001053E+0	1.034456E+0	1.016585E+0	1.005752E+0	1.012053E+0	1.017967E+0	1.032571E+0	9.994157E-1	1.030539E+0	1.053266E+0	1.002097E+0	9.798172E-1	9.655009E-1	1.013306E+0	1.000000E+0	1.000884E+0	1.041164E+0	9.800063E-1	1.012558E+0	1.011406E+0	9.764915E-1	9.935998E-1	1.034926E+0	1.042870E+0	1.067326E+0
5.605090E+2	9.215361E-1	9.450612E-1	9.465356E-1	9.953384E-1	9.895817E-1	9.642494E-1	9.692523E-1	9.535487E-1	9.683191E-1	9.537924E-1	9.153394E-1	9.150754E-1	9.416893E-1	9.407209E-1	9.851862E-1	9.163117E-1	8.953298E-1	9.469900E-1	9.409293E-1	9.341378E-1	9.341976E-1	9.672094E-1	9.505407E-1	1.004321E+0	9.493488E-1	9.759087E-1	9.333838E-1	9.490174E-1	9.839022E-1	9.369264E-1	9.277688E-1	9.272861E-1	9.084248E-1	9.308166E-1	9.057759E-1	9.345021E-1	9.674782E-1	9.915922E-1	9.475654E-1	9.486166E-1	9.833937E-1	9.327976E-1	8.942019E-1	1.002886E+0	9.290347E-1	9.437343E-1	9.425388E-1	9.548442E-1	9.268874E-1	9.294338E-1	9.686729E-1	9.546051E-1	9.372907E-1	9.955034E-1	9.649180E-1	9.768298E-1	9.534330E-1	9.633454E-1	9.500265E-1	9.885958E-1	9.704043E-1	9.764581E-1	9.708004E-1	9.688781E-1	9.194282E-1	9.256309E-1	9.195951E-1	9.619863E-1	9.348400E-1	9.938051E-1	9.515507E-1	9.745873E-1	9.265857E-1	9.380080E-1	9.763062E-1	9.435254E-1	9.325247E-1	9.282008E-1	9.396134E-1	9.506383E-1	9.459018E-1	9.346889E-1	9.445396E-1	9.554033E-1	9.216215E-1	9.952321E-1	9.792175E-1	9.310286E-1	9.425293E-1	9.706994E-1	9.586337E-1	9.471804E-1	9.858883E-1	9.556307E-1	9.727942E-1	9.658222E-1	9.736692E-1	9.590361E-1	9.855756E-1	9.816408E-1	9.526497E-1	9.578302E-1	9.392687E-1	9.703550E-1	9.838647E-1	9.765038E-1	9.352695E-1	9.848785E-1	9.646938E-1	9.671143E-1	9.427582E-1	9.780119E-1	9.229730E-1	9.539777E-1	9.661960E-1	9.463473E-1	9.897379E-1	9.556501E-1	9.764868E-1	9.524093E-1	9.759681E-1	9.577356E-1	9.557757E-1	9.610563E-1	9.217281E-1	9.412613E-1	9.294168E-1	9.705307E-1	9.577580E-1	9.090526E-1	9.582650E-1	9.438972E-1	9.633712E-1	9.781980E-1	9.254351E-1	9.438662E-1	9.443423E-1	1.009626E+0	9.946438E-1	9.438114E-1	9.946498E-1	9.314562E-1	9.470308E-1	9.552533E-1	9.554002E-1	9.591186E-1	9.542869E-1	9.257703E-1	9.473598E-1	9.615664E-1	9.577408E-1	9.295888E-1	9.376861E-1	9.783933E-1	9.649430E-1	9.965803E-1	9.339499E-1	9.651503E-1	9.196151E-1	9.330553E-1	9.343259E-1	9.612418E-1	9.316576E-1	9.294661E-1	9.469616E-1	9.937210E-1	9.296168E-1	9.484938E-1	9.708528E-1	9.740582E-1	1.071096E+0	1.000476E+0
5.610070E+2	9.267853E-1	9.351256E-1	1.003655E+0	9.667233E-1	9.311466E-1	9.586201E-1	1.056074E+0	9.763423E-1	9.556623E-1	9.927621E-1	9.884481E-1	9.670790E-1	9.998649E-1	9.690029E-1	9.509297E-1	9.656730E-1	9.780175E-1	9.431644E-1	9.601491E-1	9.601852E-1	9.451635E-1	9.686414E-1	9.606245E-1	9.658206E-1	9.973385E-1	9.641649E-1	9.848599E-1	9.787132E-1	9.458703E-1	9.600913E-1	9.334264E-1	9.432933E-1	9.670333E-1	9.462060E-1	9.609134E-1	9.375656E-1	9.525920E-1	9.384799E-1	9.573965E-1	9.505793E-1	9.317870E-1	9.744672E-1	9.788249E-1	9.466489E-1	9.121315E-1	9.394532E-1	9.759449E-1	9.883949E-1	9.558193E-1	9.877597E-1	9.402749E-1	9.908462E-1	9.503466E-1	9.347272E-1	9.516732E-1	9.369377E-1	9.728357E-1	9.592155E-1	9.540134E-1	9.761067E-1	9.618349E-1	9.476560E-1	9.570033E-1	9.409013E-1	9.226482E-1	9.446229E-1	9.533314E-1	9.631049E-1	9.348395E-1	9.561978E-1	9.416045E-1	9.527320E-1	9.413251E-1	9.420733E-1	9.150335E-1	9.167706E-1	9.516860E-1	9.588061E-1	9.352655E-1	9.333838E-1	9.064429E-1	9.341392E-1	9.358672E-1	9.102946E-1	9.325399E-1	9.687108E-1	9.286421E-1	9.663551E-1	9.554027E-1	9.548805E-1	9.688983E-1	9.558804E-1	9.834683E-1	9.361611E-1	9.393662E-1	9.615586E-1	9.512308E-1	9.724103E-1	9.569680E-1	9.047558E-1	9.596752E-1	9.829971E-1	9.292527E-1	9.149553E-1	9.738835E-1	9.858241E-1	9.783951E-1	9.422218E-1	9.362118E-1	8.994660E-1	9.137362E-1	9.189821E-1	9.675027E-1	9.793271E-1	9.533413E-1	9.502411E-1	9.570401E-1	9.425262E-1	9.195772E-1	9.825119E-1	8.939586E-1	9.823438E-1	9.221510E-1	9.615823E-1	9.335742E-1	9.846767E-1	9.702458E-1	9.357756E-1	9.882746E-1	9.773242E-1	9.149278E-1	1.004913E+0	9.150288E-1	9.989062E-1	9.386911E-1	9.449498E-1	9.810973E-1	9.428096E-1	9.250948E-1	9.351224E-1	9.552995E-1	9.654540E-1	9.343324E-1	9.547537E-1	8.875768E-1	9.700487E-1	9.485927E-1	9.536720E-1	9.588451E-1	9.938705E-1	9.386393E-1	9.691523E-1	9.489256E-1	9.812152E-1	1.046158E+0	9.320031E-1	9.581859E-1	9.722362E-1	9.531146E-1	9.390809E-1	9.468537E-1	9.600845E-1	9.682404E-1	9.699359E-1	9.542510E-1	9.832561E-1	9.339980E-1	9.250671E-1	9.370785E-1	9.842037E-1	1.035441E+0	8.233338E-1
