Photon Energy (eV)	#1	#2	#3	#4	#5	#6	#7	#8	#9	#10	#11	#12	#13	#14	#15	#16	#17	#18	#19	#20	#21	#22	#23	#24	#25	#26	#27	#28	#29	#30	#31	#32	#33	#34	#35	#36	#37	#38	#39	#40	#41	#42	#43	#44	#45	#46	#47	#48	#49	#50	#51	#52	#53	#54	#55	#56	#57	#58	#59	#60	#61	#62	#63	#64	#65	#66	#67	#68	#69	#70	#71	#72	#73	#74	#75	#76	#77	#78	#79	#80	#81	#82	#83	#84	#85	#86	#87	#88	#89	#90	#91	#92	#93	#94	#95	#96	#97	#98	#99	#100	#101	#102	#103	#104	#105	#106	#107	#108	#109	#110	#111	#112	#113	#114	#115	#116	#117	#118	#119	#120	#121	#122	#123	#124	#125	#126	#127	#128	#129	#130	#131	#132	#133	#134	#135	#136	#137	#138	#139	#140	#141	#142	#143	#144	#145	#146	#147	#148	#149	#150	#151	#152	#153	#154	#155	#156	#157	#158	#159	#160	#161	#162	#163	#164	#165	#166	
5.290170E+2	2.079062E-2	-2.151383E-2	4.163456E-3	6.069741E-3	-2.713789E-3	-1.518831E-2	1.845223E-3	-1.345901E-3	2.685500E-3	2.386245E-2	-9.924626E-3	-8.474461E-3	1.830833E-2	-1.587303E-2	2.108096E-2	-1.161214E-3	-9.407591E-3	2.242770E-2	-1.916366E-2	-2.950968E-3	-9.873641E-3	-1.821390E-8	1.110915E-2	-6.764714E-3	-1.889056E-2	3.054702E-3	1.460110E-2	-9.335807E-3	1.144659E-2	-2.133012E-2	6.587126E-4	-1.433464E-2	1.598486E-2	-1.504612E-2	1.392056E-2	6.546353E-3	1.324478E-2	-4.064908E-2	3.613319E-3	1.135916E-2	1.739364E-2	-2.962906E-3	-1.294701E-2	-1.581422E-3	-6.650216E-3	-2.160298E-2	1.142281E-2	9.425125E-3	4.365744E-3	-3.045971E-3	2.132372E-2	-1.492546E-2	2.254963E-2	-2.209395E-2	-6.556722E-3	2.529095E-3	1.413793E-4	2.261026E-2	1.687546E-2	6.262923E-4	-2.926882E-2	-1.458695E-2	-1.591641E-2	2.768159E-2	1.533585E-2	1.628294E-2	-1.397305E-3	-1.612049E-2	-9.083996E-3	3.350335E-3	-1.338132E-2	-1.065279E-2	-1.214859E-2	-1.982392E-2	-2.932288E-3	-9.106990E-3	1.266857E-2	-1.238456E-3	2.652364E-2	-6.158602E-3	2.074854E-2	-2.616573E-3	-6.434356E-3	-2.063476E-2	-1.698409E-2	5.336987E-4	-1.463648E-2	3.041854E-2	1.410739E-2	-1.211973E-2	-4.870830E-3	2.834228E-3	-9.408736E-3	-1.086662E-2	4.920814E-3	-1.139442E-2	7.966181E-3	4.280927E-3	3.797820E-3	-2.176602E-2	-1.972797E-2	-7.837455E-3	1.275249E-2	-1.214150E-2	2.424748E-3	-2.414186E-2	1.458393E-2	4.712639E-3	-1.123141E-3	-1.673986E-2	-3.198224E-2	7.166453E-3	1.146897E-2	-1.374975E-3	1.497661E-2	2.839576E-3	-3.623452E-2	2.077650E-2	-6.037735E-3	2.399894E-3	-2.372120E-2	2.278259E-3	1.597642E-2	-3.631125E-3	-4.014210E-2	-2.251887E-3	2.125906E-2	-2.839263E-4	8.945952E-3	-4.476127E-3	1.392574E-2	1.221747E-2	-1.735139E-2	-8.949489E-3	1.050303E-2	-4.417771E-3	-6.411119E-3	-1.847984E-2	-4.078777E-3	1.042538E-2	-2.874690E-2	5.920952E-3	2.222516E-3	6.817016E-3	2.262520E-2	7.740266E-3	-1.345372E-2	-1.042664E-2	-2.853179E-2	6.939674E-3	-3.395779E-2	-1.338449E-3	8.904453E-3	1.303542E-2	-2.118365E-3	8.871282E-3	-2.293141E-2	-1.318633E-2	1.304922E-2	2.269633E-3	-9.472294E-3	3.443245E-2	-3.185348E-2	1.785048E-3	-5.672855E-2	-6.181295E-3
5.295060E+2	-3.191799E-2	-2.770476E-2	-5.650433E-2	-3.377275E-2	-4.358131E-2	-5.127933E-2	-4.489950E-2	-3.962910E-2	-2.219081E-2	-4.964541E-2	-5.438663E-2	-3.707615E-2	-5.055237E-2	-4.788574E-2	-5.658580E-2	-3.419415E-2	-4.103932E-2	-5.706284E-2	-3.386460E-2	-3.330458E-2	-5.516161E-2	-5.320310E-2	-4.616477E-2	-4.083888E-2	-4.389696E-2	-4.688355E-2	-4.634243E-2	-3.174178E-2	-6.555668E-2	-2.793562E-2	-4.781792E-2	-1.473655E-3	-6.421024E-2	-5.675796E-2	-3.499681E-2	-3.834336E-2	-4.025921E-2	-4.178210E-2	-5.523188E-2	-3.191406E-2	-5.161518E-2	-6.052852E-2	-5.178792E-2	-3.110171E-2	-6.298082E-2	-2.777530E-2	-4.949878E-2	-6.497182E-2	-5.913707E-2	-6.338455E-2	-3.952342E-2	-1.830467E-2	-4.550456E-2	-6.980621E-2	-2.773973E-2	-6.562208E-2	-2.360704E-2	-5.741636E-2	-4.672151E-2	-5.699205E-2	-4.508992E-2	-4.294310E-2	-6.324327E-2	-8.880604E-2	-2.555975E-2	-3.391016E-2	-5.393430E-2	-4.836136E-2	-5.316443E-2	-5.137205E-2	-5.377810E-2	-3.359741E-2	-6.074285E-2	-2.525516E-2	-3.812023E-2	-4.390377E-2	-4.030938E-2	-3.316109E-2	-6.188821E-2	-3.303206E-2	-5.137069E-2	-3.983055E-2	-2.515244E-2	-2.921020E-2	-1.698407E-2	-2.188334E-2	-4.028520E-2	-3.190248E-2	-3.992124E-2	-3.982185E-2	-3.381778E-2	-4.251265E-2	-3.528223E-2	-4.421053E-2	-1.893789E-2	-4.290511E-2	-2.389855E-2	-6.185288E-2	-5.939800E-2	-4.323386E-2	-1.337259E-2	-6.829810E-2	-3.936641E-2	-4.299558E-2	-2.838292E-2	-4.943337E-2	-4.732348E-2	-2.855333E-2	-5.503846E-2	-3.963205E-2	-2.434467E-2	-2.574601E-2	-4.892463E-2	-5.270969E-2	-5.197795E-2	-5.933339E-2	-3.398731E-2	-5.568086E-2	-3.787328E-2	-3.599859E-2	-3.501694E-2	-3.303499E-2	-6.162371E-2	-4.832207E-2	-5.042754E-2	-4.391185E-2	-5.834952E-2	-4.797835E-2	-4.646085E-2	-4.375098E-2	-6.614718E-2	-4.022823E-2	-6.400095E-2	-5.521135E-2	-5.804314E-2	-4.859583E-2	-6.258445E-2	-3.061590E-2	-1.821860E-2	-3.984494E-2	-4.616918E-2	-5.610816E-2	-4.778541E-2	-5.535422E-2	-5.612216E-2	-6.937056E-2	-4.972003E-2	-4.927658E-2	-4.188709E-2	-4.964528E-2	-4.610536E-2	-5.273619E-2	-6.474635E-2	-5.105524E-2	-3.601190E-2	-5.179667E-2	-3.713414E-2	-3.428443E-2	-6.002722E-2	-4.199099E-2	-4.972943E-2	-3.570779E-2	-4.390606E-2	-4.581380E-2	-5.341621E-2	-6.976162E-2
5.300060E+2	-1.786235E-2	-3.018104E-2	-7.732062E-3	-2.505734E-2	-3.464161E-2	-3.563981E-2	7.995681E-3	-9.720326E-3	-2.219083E-2	-2.770266E-2	-6.748641E-3	-2.754234E-2	-2.759888E-2	-8.403326E-3	-2.440952E-2	-8.387242E-3	3.681373E-3	-2.185996E-2	-2.651412E-2	-4.229816E-2	-3.725701E-2	-2.823012E-2	-1.752781E-2	-3.783238E-2	-2.867567E-2	-3.094584E-2	-2.805947E-2	-1.680444E-2	-2.393340E-2	-2.573382E-2	-3.095650E-2	-5.077416E-2	-2.194526E-2	-1.504603E-2	-3.395603E-2	-7.169906E-3	-4.025930E-2	-4.390656E-3	-3.251969E-2	-8.113725E-3	-1.541383E-2	1.552034E-3	-2.805190E-2	-1.845019E-2	-2.477424E-3	4.320717E-3	5.439315E-4	-4.285382E-2	-7.276324E-3	-1.348921E-2	-2.322522E-2	-2.393699E-2	-1.957912E-2	-2.534708E-2	3.530568E-3	-1.237900E-2	-2.926141E-2	-1.795124E-2	-3.207820E-3	-1.816232E-2	-2.083093E-2	8.315986E-3	-1.253595E-2	-4.528302E-2	-4.308635E-2	-3.869036E-2	-1.257548E-2	-2.852088E-2	-2.814591E-2	2.233575E-3	-1.843094E-2	-1.720834E-2	-1.457821E-2	-5.702699E-3	-3.492130E-2	6.797085E-4	-4.030925E-2	-4.526962E-2	-3.094425E-2	-3.863075E-2	-3.763354E-2	-2.616658E-3	-1.696324E-2	-3.135412E-2	-1.163478E-2	-1.761346E-2	-2.467292E-2	-2.102096E-2	-3.511861E-2	-8.656952E-3	-3.047773E-2	-4.359226E-2	-9.408599E-3	-1.682087E-2	-1.297322E-2	-1.477068E-2	-5.007315E-2	-3.350982E-2	-1.807776E-2	-3.130721E-2	-1.972807E-2	-1.119643E-3	-4.712866E-2	-2.356896E-2	-2.267769E-2	-3.333885E-2	-1.756027E-2	-3.964196E-2	-1.347885E-2	-6.023503E-2	-3.707401E-2	-2.388851E-3	-1.640504E-2	-3.682050E-2	-2.026265E-2	-1.748618E-2	-4.746993E-2	-1.385165E-3	-1.591772E-2	-2.106583E-2	-1.468454E-2	-2.278273E-2	-1.141177E-2	-2.262479E-2	9.999388E-4	-3.377840E-2	-2.578244E-2	-3.889370E-2	-2.568325E-2	-1.602750E-2	-1.160480E-2	-1.996516E-2	-2.531596E-2	-2.767446E-2	-1.160861E-2	-1.214889E-2	-2.228612E-2	-1.958321E-2	-1.821858E-2	-3.298982E-2	2.584319E-2	-2.001845E-2	-1.444667E-2	-3.463055E-2	-1.028417E-2	-1.796334E-2	-8.774113E-3	-3.213685E-2	-2.246109E-2	-1.121017E-2	-2.512325E-2	-2.917891E-2	-9.206388E-3	-2.063936E-2	-2.584382E-2	-1.745633E-2	-1.346291E-2	-1.873840E-2	-1.942906E-2	-1.815832E-2	-3.907309E-2	-1.785384E-2	-1.635709E-2	-3.629421E-2	-3.685302E-2	3.620518E-2
5.305080E+2	2.781839E-2	1.191768E-2	3.152346E-2	5.711814E-2	2.027411E-2	3.774514E-2	3.628853E-2	2.736656E-2	1.738520E-2	-7.954214E-3	3.983062E-2	1.800843E-2	3.907557E-2	2.787764E-2	2.884758E-2	3.806502E-2	5.494618E-2	4.258456E-3	3.228954E-2	3.639598E-2	2.909464E-2	4.777396E-2	3.085854E-2	3.232044E-2	5.069183E-2	9.429819E-3	-6.347913E-4	2.373962E-2	5.098838E-2	4.362350E-2	3.332771E-2	4.568354E-2	3.332432E-2	4.096675E-2	2.432870E-2	1.153430E-2	3.422693E-2	3.639986E-2	2.219597E-2	-4.868214E-3	1.060574E-2	1.735436E-2	4.099874E-2	1.845019E-2	1.316989E-2	5.555037E-3	2.338953E-2	4.561878E-2	3.823404E-2	1.435947E-2	3.544888E-2	4.139678E-2	-2.295496E-3	4.513676E-2	6.556524E-3	2.169656E-2	1.710469E-2	2.589899E-2	2.245424E-2	4.196114E-2	3.085089E-2	2.358464E-2	3.479084E-2	2.768202E-2	3.286249E-2	3.898936E-2	3.660835E-2	2.232085E-2	4.020922E-3	1.116746E-3	3.105482E-2	2.977332E-2	3.523083E-2	4.860930E-2	3.971943E-2	3.330163E-2	3.570248E-2	1.637412E-2	3.536462E-2	4.310957E-2	4.020939E-2	3.343443E-2	5.264516E-3	1.581105E-2	2.581049E-2	1.227605E-2	4.112170E-2	3.709374E-3	6.903527E-3	4.790173E-2	4.300279E-2	2.118878E-2	2.704974E-2	3.795844E-2	1.565716E-2	2.911920E-2	2.389848E-2	3.380495E-2	4.511830E-2	5.694930E-2	5.865421E-2	3.023035E-2	3.160388E-2	7.584952E-2	1.725787E-2	3.908691E-2	2.887031E-2	6.680925E-2	4.043622E-2	3.018913E-2	3.420997E-2	4.007886E-2	3.121302E-2	4.629308E-2	1.145271E-2	2.436083E-2	5.589639E-2	1.634409E-2	2.469990E-2	2.479876E-2	5.421968E-2	4.214809E-2	2.054129E-2	3.435616E-2	3.299926E-2	5.066722E-2	2.487776E-2	4.059698E-2	3.780361E-2	3.826397E-2	3.597474E-2	3.963218E-2	3.384939E-2	5.053009E-2	3.040349E-2	3.865576E-2	4.732021E-2	3.558049E-2	1.223634E-2	2.984800E-2	3.397353E-2	2.622141E-2	6.000953E-2	4.499251E-2	1.557318E-2	3.461225E-2	1.345376E-2	2.042489E-2	4.795773E-2	1.014257E-2	2.236248E-2	5.112987E-2	2.097842E-2	2.281200E-2	3.629434E-2	2.947553E-2	4.216411E-2	4.344541E-2	2.464891E-2	3.972129E-2	1.420847E-2	1.275274E-2	-1.119165E-2	3.748410E-2	1.283639E-2	-6.181553E-3
5.310100E+2	1.961929E-2	4.039629E-2	5.650430E-2	3.470666E-2	5.220184E-2	4.376038E-2	4.243915E-2	4.890084E-2	2.869260E-2	6.116554E-2	6.312007E-2	7.203387E-2	5.109886E-2	6.095770E-2	5.214772E-2	2.774267E-2	7.130736E-2	5.535950E-2	7.744225E-2	7.012219E-2	8.596739E-2	6.623258E-2	4.863350E-2	7.240754E-2	7.026238E-2	6.361818E-2	7.452876E-2	4.721256E-2	7.180020E-2	7.004570E-2	5.229636E-2	4.782668E-2	4.849631E-2	7.076136E-2	7.220550E-2	9.632579E-2	5.206159E-2	3.866613E-2	7.381448E-2	6.545094E-2	4.341340E-2	2.638416E-2	7.444523E-2	6.694776E-2	5.176680E-2	5.246416E-2	6.146561E-2	7.175808E-2	4.352597E-2	5.613235E-2	4.522787E-2	8.194886E-2	6.683917E-2	5.814926E-2	5.094029E-2	6.642065E-2	6.686291E-2	5.659418E-2	6.931518E-2	6.576025E-2	6.987616E-2	6.393734E-2	6.634199E-2	7.888578E-2	4.688381E-2	1.986788E-2	7.349611E-2	8.060246E-2	1.005208E-1	5.360560E-2	6.640203E-2	7.893991E-2	8.018073E-2	5.512661E-2	5.038273E-2	6.374878E-2	5.067474E-2	3.838983E-2	3.978544E-2	5.430695E-2	6.768334E-2	5.785601E-2	5.439935E-2	6.833571E-2	5.255692E-2	5.604289E-2	1.080311E-1	7.987999E-2	7.173800E-2	4.905597E-2	3.186942E-2	6.113719E-2	5.527570E-2	9.035648E-2	6.814674E-2	4.037297E-2	7.055774E-2	1.011201E-1	6.091709E-2	4.502288E-2	5.653596E-2	6.605881E-2	6.819789E-2	4.156686E-2	3.893722E-2	4.828360E-2	4.315663E-2	4.684960E-2	5.279215E-2	7.025042E-2	4.948487E-2	2.415351E-2	7.999246E-2	5.973737E-2	5.608947E-2	3.631754E-2	8.286195E-2	6.842375E-2	8.288200E-2	4.399861E-2	6.664516E-2	5.240035E-2	4.792967E-2	4.329425E-2	6.271290E-2	9.345387E-2	7.312530E-2	5.535975E-2	4.242078E-2	1.516112E-2	6.730780E-2	5.155173E-2	9.529045E-2	6.595076E-2	7.904929E-2	6.405800E-2	6.685837E-2	6.867904E-2	6.335711E-2	4.698558E-2	6.301072E-2	6.794995E-2	3.667250E-2	5.699006E-2	5.553457E-2	6.615759E-2	6.726803E-2	7.412897E-2	8.073856E-2	4.110402E-2	6.101362E-2	5.113009E-2	6.323709E-2	4.453728E-2	6.001978E-2	7.526239E-2	5.636710E-2	6.787464E-2	4.668773E-2	7.263313E-2	7.696201E-2	9.819642E-2	4.562786E-2	6.604324E-2	1.089029E-1	-6.181424E-3
5.315080E+2	2.049775E-3	2.925243E-2	2.795483E-2	1.089432E-3	2.665956E-2	4.255721E-2	1.783684E-2	3.439361E-3	2.982334E-2	3.812540E-2	2.395140E-2	2.648282E-2	-2.732670E-4	-4.134903E-3	5.547630E-3	3.083927E-2	5.862866E-3	3.719023E-2	1.023818E-2	2.290589E-2	3.436093E-2	2.062972E-2	2.789651E-2	1.929208E-2	3.112221E-2	3.493031E-2	8.506698E-3	1.200316E-2	1.664930E-2	3.481624E-2	3.543543E-2	1.888956E-2	2.465456E-2	1.593999E-2	2.641016E-2	-5.922872E-3	3.422698E-2	5.807113E-3	3.768158E-2	5.950136E-3	2.191888E-2	8.324413E-3	1.618370E-2	-7.907229E-3	3.924895E-2	3.024432E-2	5.983399E-3	2.048423E-2	2.765015E-2	2.248193E-2	2.458334E-2	9.856380E-3	2.795088E-2	2.128071E-2	2.975724E-2	2.489115E-2	8.057546E-3	1.712908E-2	2.133856E-2	3.194038E-2	3.296042E-2	1.485965E-2	1.225427E-2	2.000117E-2	5.988246E-3	4.376937E-2	1.536986E-2	4.092084E-2	2.308264E-2	7.817511E-3	1.388645E-2	1.010664E-2	1.457806E-2	-2.715418E-4	1.306224E-2	2.677720E-2	8.061823E-3	1.417252E-2	4.420555E-3	1.735598E-2	7.011549E-3	-8.431215E-3	3.802124E-2	3.296216E-2	1.190235E-2	2.295083E-2	-6.830317E-3	2.547249E-2	1.530827E-2	5.771170E-4	3.854947E-2	3.306546E-2	1.293682E-2	-6.103176E-3	2.042907E-2	1.336391E-2	2.276054E-2	1.490961E-2	1.838141E-2	2.713288E-2	2.899629E-2	1.231601E-2	1.718830E-2	8.427670E-3	1.725799E-2	4.368538E-2	1.696510E-2	-3.049394E-3	1.347886E-2	4.392416E-2	3.293705E-2	1.035148E-2	1.016238E-3	1.329201E-2	-1.468368E-3	4.109996E-2	3.230207E-2	7.479508E-3	2.360237E-2	2.373233E-2	1.468461E-2	2.961764E-2	3.880002E-2	2.988710E-2	6.271320E-2	-4.503812E-3	1.402207E-2	1.788545E-2	2.164299E-2	2.555756E-2	-1.160597E-3	3.367241E-2	2.247140E-2	3.180479E-2	1.934768E-2	1.325343E-2	2.656022E-2	2.896109E-2	2.447293E-3	2.185047E-2	3.774842E-3	4.088292E-2	8.890388E-3	2.317799E-2	3.320320E-2	1.241373E-2	1.930312E-2	2.156749E-2	-6.677626E-3	4.857775E-2	4.776177E-2	2.650198E-2	7.697124E-3	2.607081E-2	1.369874E-2	8.871205E-3	9.024526E-3	1.124320E-2	3.392858E-2	-4.539543E-3	4.262524E-2	-5.101095E-3	3.529701E-2	2.796427E-2	3.602472E-2	2.914120E-2
5.320070E+2	7.906317E-3	-1.160810E-2	-1.605917E-2	1.354023E-2	2.027418E-2	8.872452E-3	-7.995795E-3	-6.131302E-3	2.685486E-3	1.919987E-3	-1.310035E-2	-1.694912E-2	9.563933E-3	2.267597E-3	-2.218985E-3	-2.180694E-2	-2.685963E-2	-1.419444E-3	1.837602E-3	-1.082049E-2	-3.554449E-3	-1.085775E-2	-1.357783E-2	1.252707E-3	-2.323960E-2	-8.632946E-3	1.764821E-2	1.840494E-2	-1.144637E-2	-2.573385E-2	-2.041807E-2	-1.862160E-2	2.980261E-3	-4.320098E-3	-3.707840E-2	-1.091072E-2	-8.786184E-3	2.960166E-2	-3.613292E-3	-7.031947E-3	1.852481E-2	3.654284E-2	-1.078909E-2	1.528728E-2	-3.912098E-4	-1.172733E-2	-2.719724E-3	-1.470341E-2	-2.103532E-2	-7.252417E-4	-1.561925E-2	-1.492539E-2	-1.201755E-2	1.585889E-2	-2.773975E-2	3.021542E-2	-6.643932E-3	-1.137363E-2	-1.882804E-2	-1.690973E-2	-1.133841E-2	-9.133881E-3	-1.267670E-3	-4.799711E-4	2.482952E-3	-1.643171E-3	8.663042E-3	-6.200208E-3	-7.446106E-4	1.898534E-2	-4.292169E-3	-1.830095E-2	2.593718E-8	-1.656515E-2	-1.039637E-2	-2.106838E-2	-8.061932E-3	2.407970E-2	8.841138E-3	-9.517679E-3	-4.435970E-3	9.012662E-3	-1.111387E-2	1.795492E-2	2.273517E-3	-2.828832E-2	-2.132744E-2	-4.080543E-2	1.050568E-2	-4.039861E-3	6.958339E-4	-4.723613E-3	-1.764118E-2	-1.339750E-3	-2.848137E-2	-1.406652E-4	-1.138085E-3	-1.461440E-2	-2.278691E-3	6.857805E-3	-2.184646E-2	-1.567502E-2	-2.051482E-2	-1.328437E-2	1.426007E-4	5.259484E-9	3.869224E-3	3.603884E-3	1.123172E-3	-1.559530E-2	1.113832E-3	-1.831415E-2	-2.337347E-2	3.513998E-3	2.672318E-2	4.484197E-4	-1.376349E-2	-1.357387E-2	-1.921107E-2	2.399907E-3	-3.388730E-2	-3.189593E-2	-3.423493E-3	-4.748450E-3	-2.528515E-2	-1.688917E-2	-1.492652E-2	1.334300E-2	-2.597121E-3	1.862657E-2	-1.276524E-2	-3.188445E-2	-2.076464E-2	-1.115230E-2	-3.869571E-3	-1.325342E-2	-2.747689E-3	-1.958319E-2	-1.169246E-2	-1.813729E-2	1.451906E-3	-1.099606E-2	5.556411E-3	-5.180880E-3	-2.438828E-2	3.066866E-3	5.264636E-3	1.128364E-2	3.035378E-3	-2.402195E-2	8.006273E-3	-9.904765E-3	-3.169340E-3	6.709149E-8	-1.454600E-2	-1.516689E-2	-1.938076E-2	-1.429672E-2	-5.509713E-3	-9.079181E-3	-3.552052E-3	-3.188193E-2	3.357517E-2	-3.391405E-2	-1.697736E-2	-1.324587E-2
5.325120E+2	-2.840404E-2	9.441333E-3	-3.985049E-2	-5.369410E-2	-3.847298E-2	-3.082773E-2	-5.351013E-2	-2.288014E-2	-3.689049E-2	-3.977110E-2	-4.274183E-2	-2.648305E-2	-3.962217E-2	-1.480593E-2	-2.440958E-2	-3.109741E-2	-5.849124E-2	-3.889363E-2	-4.226519E-2	-4.004985E-2	-4.357625E-2	-4.234527E-2	-4.122729E-2	-3.983679E-2	-3.737362E-2	-2.457069E-2	-4.024807E-2	-4.347826E-2	-4.994804E-2	-4.775202E-2	-2.252573E-2	-2.719573E-2	-3.928481E-2	-3.649790E-2	-3.083368E-2	-5.205959E-2	-4.445560E-2	-2.365293E-2	-4.594048E-2	-3.083229E-2	-4.482744E-2	-2.666638E-2	-2.805176E-2	-4.164468E-2	-3.168598E-2	-3.147862E-2	-5.058677E-2	-2.475717E-2	-2.632721E-2	-1.232879E-2	-4.821592E-2	-6.110952E-2	-3.794295E-2	-2.317838E-2	-2.874842E-2	-6.775181E-2	-3.265415E-2	-3.549128E-2	-6.122606E-2	-4.822396E-2	-2.715938E-2	-4.403368E-2	-2.042380E-2	-1.968153E-2	-3.490725E-2	-4.466585E-2	-6.623028E-2	-4.464122E-2	-3.648541E-2	-3.573705E-2	-2.146077E-2	-3.906038E-2	-4.251999E-2	-3.611744E-2	-1.679422E-2	-5.042817E-2	-1.842706E-2	-1.334700E-2	-2.210292E-2	-2.743340E-2	-4.221261E-2	-4.680812E-2	-3.802120E-2	-5.386476E-2	-4.694033E-2	-2.401835E-2	-4.140042E-2	-4.575152E-2	-4.352301E-2	-3.289642E-2	-4.495117E-2	-2.739713E-2	-2.352152E-2	-4.897398E-2	-4.876130E-2	-1.364520E-2	-5.007315E-2	-4.413845E-2	-4.846018E-2	-3.965578E-2	-6.951137E-2	-1.567495E-2	-2.273267E-2	-3.385366E-2	-2.495982E-2	-2.414183E-2	-4.256144E-2	-5.073068E-2	-3.818993E-2	-1.216147E-2	-2.434480E-2	-3.530129E-2	-3.498756E-2	-3.193130E-2	-3.553301E-2	-2.824676E-2	-3.960517E-2	-4.238396E-2	-5.214448E-2	-4.026509E-2	-2.823947E-2	-3.873070E-2	-4.678842E-2	-2.821108E-2	-4.357051E-2	-4.278597E-2	-3.422571E-2	-4.002920E-2	-3.607211E-2	-3.335461E-2	-2.553046E-2	-4.499596E-2	-2.417830E-2	-4.529804E-2	-6.578216E-2	-3.755127E-2	-4.670942E-2	-4.495848E-2	-2.583233E-2	-1.813738E-2	-5.313811E-2	-5.385257E-2	-5.111927E-2	-3.681194E-2	-3.614154E-2	-3.665680E-2	-3.334169E-2	-3.556490E-2	-3.217408E-2	-2.188661E-2	-3.395775E-2	-3.560361E-2	-2.369500E-2	-3.476097E-2	-3.149277E-2	-3.806052E-2	-1.464652E-2	-4.205736E-2	-3.334844E-2	-4.085603E-2	-3.196885E-2	-5.483695E-2	-1.119176E-2	-1.725459E-2	6.211169E-3	3.620539E-2
5.330130E+2	-1.786231E-2	-1.532269E-2	5.947822E-4	4.824710E-3	-1.803928E-2	7.669406E-3	-2.275715E-2	-6.131222E-3	-1.837444E-3	3.922239E-2	-3.969682E-4	8.474574E-3	1.830815E-2	2.574374E-2	-1.220475E-2	-1.045185E-2	1.499820E-3	-3.690646E-3	-1.076314E-2	2.670027E-3	6.977593E-3	2.171554E-2	-1.061533E-2	1.227679E-2	9.377358E-3	7.304821E-3	1.663248E-2	-1.146979E-2	-1.664933E-2	-2.573376E-2	-5.664350E-3	2.639188E-2	8.128261E-4	-1.623774E-2	2.471849E-3	-3.584950E-2	7.999177E-3	5.792844E-2	-5.678043E-3	4.056875E-2	-2.333283E-2	1.171067E-2	1.618369E-2	2.635740E-3	-3.911143E-4	6.172974E-4	-1.359848E-2	-6.283556E-4	-9.393191E-3	2.364221E-2	1.371779E-2	-7.040286E-3	6.346364E-3	5.015210E-3	2.521889E-3	1.464100E-3	-4.382173E-3	1.712904E-2	3.486738E-3	-1.878846E-3	8.701535E-3	2.903775E-2	-2.267748E-2	2.384175E-2	-2.088591E-2	5.527256E-3	-2.151797E-2	6.200263E-3	2.070019E-2	1.116794E-3	-7.321894E-3	-7.375009E-3	7.289101E-3	1.819468E-2	2.052634E-2	-1.998099E-2	-3.339913E-2	1.307176E-2	-2.099787E-2	8.397651E-3	-1.359386E-2	1.947916E-2	8.774223E-3	-1.527506E-2	7.622801E-3	1.868085E-2	5.436405E-3	-6.182602E-3	-1.230663E-2	1.211979E-2	-1.266419E-2	1.471068E-2	-3.528202E-3	3.200418E-2	4.920821E-3	9.987751E-3	-1.707043E-2	1.254763E-2	1.367063E-3	3.786685E-2	-1.125422E-2	3.246956E-2	6.099007E-3	-1.099897E-2	1.155273E-2	5.748193E-3	-1.279817E-2	6.930428E-3	2.695771E-2	1.988763E-2	2.148079E-2	-1.512916E-2	2.192175E-2	3.284804E-2	6.754208E-3	-3.900756E-2	-1.488699E-2	3.628925E-2	-1.372214E-2	-1.039956E-2	-1.129572E-3	2.278288E-2	1.711757E-2	-1.396557E-3	-1.957102E-2	-1.238542E-2	-1.251414E-2	-4.826179E-3	1.356312E-2	-3.321013E-3	8.123278E-3	-2.711679E-2	4.266756E-3	1.748595E-2	-8.292014E-3	-5.522305E-3	-1.495919E-2	7.998740E-3	6.797960E-3	-2.042232E-2	4.936286E-3	-1.973555E-3	1.111265E-3	2.727836E-4	-1.028408E-2	-9.784950E-3	-6.434294E-3	-2.870891E-2	4.249538E-3	2.402194E-2	2.760807E-4	1.579416E-2	1.494140E-2	3.258898E-3	-4.378244E-3	-1.402240E-2	-4.438471E-4	-1.540709E-2	1.536934E-2	7.944247E-3	-2.368095E-3	3.060671E-2	-1.291375E-2	1.130491E-2	-3.022780E-2	-2.737447E-2
5.332090E+2	4.773059E-2	3.915806E-2	5.650435E-2	6.209836E-2	6.880443E-2	6.541496E-2	8.672329E-2	6.564980E-2	2.190802E-2	1.039535E-1	5.782730E-2	8.580511E-2	5.765693E-2	8.656781E-2	8.765264E-2	1.122611E-2	6.367211E-2	5.990157E-2	2.178886E-2	7.237076E-2	9.544658E-2	6.080317E-2	5.653295E-2	5.637296E-2	5.286660E-2	5.511830E-2	2.780556E-2	5.041351E-2	1.560871E-2	4.142171E-2	3.438158E-2	6.068783E-2	6.258456E-2	4.692594E-2	4.306280E-2	2.774441E-2	4.261976E-2	6.699308E-2	1.393707E-2	6.869659E-2	4.454452E-2	5.008773E-2	5.394574E-2	6.062225E-2	2.464474E-2	6.727807E-2	7.778356E-2	6.673111E-2	3.929237E-2	8.049986E-2	5.174717E-2	5.378759E-2	5.387630E-2	9.176467E-2	5.194911E-2	5.470742E-2	5.329247E-2	8.400054E-2	5.815783E-2	6.951743E-2	6.143807E-2	8.902199E-2	3.479085E-2	7.760530E-2	6.090524E-2	6.169599E-2	7.014215E-2	4.092118E-2	4.690967E-2	4.690497E-2	5.024351E-2	7.566197E-2	6.317252E-2	7.902404E-2	3.545459E-2	3.221417E-2	3.685412E-2	3.949042E-2	1.657716E-2	7.782149E-2	5.967021E-2	9.506950E-2	3.217202E-2	3.617790E-2	5.683658E-2	8.272920E-2	4.000609E-2	7.790112E-2	4.652448E-2	6.290695E-2	5.636274E-2	7.517325E-2	7.291679E-2	7.249335E-2	5.144513E-2	2.461767E-2	4.210702E-2	3.616692E-2	4.511807E-2	4.144484E-2	5.759506E-2	1.018878E-1	6.265366E-2	5.185184E-2	4.464233E-2	4.713392E-2	4.077550E-2	7.346255E-2	5.166880E-2	6.681680E-2	5.966852E-2	6.237418E-2	4.398854E-2	8.296072E-2	4.551744E-2	1.957864E-2	2.893153E-2	8.836861E-2	4.994916E-2	4.186511E-2	7.116354E-2	8.657455E-2	6.732960E-2	7.569542E-2	3.642787E-2	9.007542E-2	7.071314E-2	4.513932E-2	7.127871E-2	8.331465E-2	6.150526E-2	3.724834E-2	5.774328E-2	9.458844E-2	5.362073E-2	6.737145E-2	6.441611E-2	1.083969E-1	6.662002E-2	9.497084E-2	5.371852E-2	5.667228E-2	6.000980E-2	8.098631E-2	8.961921E-2	7.316768E-2	5.206006E-2	5.584675E-2	6.131300E-2	7.099845E-2	4.224023E-2	5.541322E-2	4.633363E-2	9.450668E-2	5.889000E-2	3.176489E-2	7.648757E-2	6.898525E-2	8.844635E-2	2.496753E-2	8.643439E-2	9.564604E-2	4.734964E-2	3.272400E-2	7.908901E-2	9.978576E-2
5.334060E+2	5.827201E-2	6.763651E-2	4.341913E-2	7.454921E-2	5.858767E-2	1.303786E-1	6.335121E-2	8.239875E-2	6.035331E-2	1.050509E-1	9.699625E-2	8.368622E-2	8.716859E-2	8.123245E-2	7.100967E-2	5.767832E-2	8.657771E-2	9.056230E-2	8.689260E-2	9.710307E-2	7.227622E-2	1.292069E-1	6.344537E-2	5.436827E-2	7.134938E-2	9.761835E-2	8.976502E-2	6.428400E-2	4.266401E-2	6.013695E-2	6.599683E-2	9.069680E-2	8.100828E-2	9.817165E-2	7.740876E-2	4.769562E-2	6.779857E-2	8.285580E-2	8.310608E-2	6.977821E-2	9.432116E-2	1.087818E-1	8.631331E-2	6.483914E-2	9.140691E-2	9.813952E-2	8.648638E-2	9.588700E-2	1.049118E-1	9.442381E-2	7.239183E-2	7.969598E-2	4.199388E-2	5.272734E-2	8.321917E-2	5.044785E-2	5.216166E-2	7.742318E-2	7.824126E-2	8.329569E-2	5.932896E-2	1.053807E-1	6.972232E-2	8.656591E-2	7.492643E-2	5.930567E-2	6.008195E-2	8.928218E-2	1.088604E-1	8.599221E-2	5.832262E-2	9.642162E-2	6.924693E-2	1.116110E-1	8.770297E-2	5.722415E-2	5.988802E-2	9.452976E-2	5.967754E-2	8.453934E-2	1.146179E-1	1.113507E-1	6.375889E-2	9.299000E-2	7.395423E-2	8.913442E-2	4.335180E-2	9.471828E-2	6.573441E-2	8.137516E-2	9.644370E-2	7.733240E-2	9.879010E-2	5.820311E-2	8.842630E-2	5.837920E-2	8.079982E-2	5.978611E-2	6.091675E-2	1.046559E-1	6.606865E-2	1.007672E-1	3.936635E-2	5.756561E-2	1.222319E-1	9.196927E-2	7.411032E-2	5.572050E-2	6.514770E-2	8.398558E-2	8.639984E-2	9.103995E-2	6.373275E-2	8.662698E-2	9.602700E-2	9.370767E-2	7.949103E-2	9.280122E-2	2.689573E-2	8.879662E-2	9.036650E-2	1.002439E-1	5.820018E-2	9.133660E-2	7.414140E-2	9.232748E-2	9.121822E-2	1.030533E-1	8.282149E-2	1.191239E-1	8.819614E-2	9.565353E-2	4.522732E-2	1.000961E-1	8.347162E-2	5.190911E-2	6.563746E-2	7.088554E-2	7.205823E-2	5.955300E-2	9.204764E-2	1.017844E-1	5.667534E-2	9.298444E-2	6.846350E-2	8.718756E-2	6.024887E-2	7.527198E-2	9.530822E-2	9.448606E-2	6.763923E-2	5.220092E-2	8.255487E-2	9.776541E-2	1.018217E-1	4.664566E-2	5.755042E-2	4.566617E-2	9.192602E-2	7.036313E-2	6.630583E-2	7.906746E-2	4.218404E-2	1.065022E-1	7.577615E-2	5.739891E-2
5.336080E+2	4.304539E-2	3.668165E-2	2.319652E-2	1.852053E-2	3.815365E-2	3.293303E-2	3.505847E-2	6.684623E-2	3.886948E-2	8.530223E-2	8.072110E-3	3.813570E-2	4.891301E-2	8.123212E-2	3.994319E-2	5.458144E-2	6.367229E-2	3.832584E-2	3.438968E-2	2.965088E-2	2.488204E-2	6.840388E-2	3.875881E-2	3.933570E-2	1.916246E-2	7.955586E-2	1.663254E-2	3.974393E-2	3.850151E-2	9.495260E-3	4.175824E-2	3.282236E-2	2.682199E-2	3.858375E-2	2.953253E-2	3.117215E-4	2.373566E-2	5.112995E-2	2.735794E-2	3.083196E-2	4.567607E-2	5.234509E-2	3.776195E-2	3.953609E-2	2.673078E-2	3.888561E-2	1.795018E-2	2.249516E-2	5.622654E-2	7.237705E-2	3.218920E-2	5.941958E-2	2.362991E-2	4.513685E-2	3.278337E-2	5.044782E-2	2.954424E-2	5.878659E-2	4.365300E-2	3.695089E-2	3.612457E-2	2.031283E-2	1.000061E-2	4.304291E-2	5.038942E-2	4.735463E-2	5.002194E-2	3.100086E-2	2.784793E-2	3.238674E-2	-1.237149E-2	5.818101E-2	5.345374E-2	4.209180E-2	6.850989E-2	4.743778E-2	3.339907E-2	4.279278E-2	2.209930E-3	3.527167E-2	1.731425E-2	4.390082E-2	-1.754847E-3	5.091666E-3	7.395446E-2	6.244746E-2	1.881836E-2	4.723546E-2	5.132730E-2	5.598137E-2	3.854949E-2	3.414514E-2	5.527549E-2	6.415755E-2	2.162202E-2	2.911920E-2	1.251829E-2	4.679554E-2	3.174951E-2	1.759158E-2	1.840402E-2	3.023060E-2	3.825762E-2	9.570498E-3	6.632158E-2	2.989001E-2	3.482281E-2	1.247475E-2	2.920414E-2	5.765966E-2	2.529944E-2	5.600419E-2	5.095738E-2	5.484839E-2	6.196249E-2	4.588260E-2	2.668451E-2	5.955895E-2	2.360249E-2	2.906563E-2	3.727613E-2	5.923515E-2	5.705899E-2	2.206609E-2	2.614234E-2	3.715594E-2	2.487752E-2	6.785062E-2	6.088960E-2	9.486597E-2	3.249351E-2	6.466303E-2	4.067583E-2	7.476229E-2	4.975057E-3	2.871566E-2	2.411796E-2	5.212951E-2	3.398974E-2	5.269820E-2	5.836486E-2	6.682278E-2	2.667076E-2	5.153668E-2	2.732649E-2	3.811719E-2	4.504057E-2	2.728078E-2	3.096012E-2	6.672773E-2	3.230133E-2	3.828072E-2	6.806661E-2	8.147128E-2	3.629430E-2	4.206706E-2	6.465177E-2	3.567266E-2	5.480765E-2	2.723752E-2	3.196885E-2	4.973589E-2	6.628936E-2	7.794305E-2	4.927560E-2	1.068498E-1
5.338150E+2	5.563703E-3	2.429966E-2	-1.486967E-2	-1.400730E-3	1.644282E-2	-1.954897E-3	3.628858E-2	4.635856E-3	1.625443E-2	1.069704E-2	3.347896E-2	-7.415167E-3	2.814529E-2	5.242101E-2	3.217599E-2	-4.258144E-3	-8.316868E-3	2.356325E-2	7.875774E-4	1.953318E-2	-2.040573E-2	1.085777E-2	-6.665471E-3	1.227674E-2	1.916250E-2	-4.382924E-3	3.085264E-2	-1.467058E-2	3.121797E-3	-4.334842E-2	4.874158E-3	2.103307E-2	1.896547E-3	-1.936582E-3	1.912455E-2	-1.839238E-2	-2.137539E-2	4.673936E-3	3.613344E-3	1.135925E-2	-1.541392E-2	2.977045E-2	-2.373612E-2	-5.271798E-4	-2.438385E-2	-1.049277E-2	-3.807593E-3	1.646297E-2	-2.103532E-2	3.292519E-2	7.198427E-3	-2.844273E-2	-6.616364E-3	1.477454E-2	1.664376E-2	-1.450887E-2	-8.905587E-3	-3.699871E-3	-6.554861E-3	-1.878854E-3	-1.344787E-2	-2.658379E-2	1.676158E-2	1.104095E-2	-1.153835E-2	-6.423375E-3	8.382671E-4	-2.479893E-3	1.831730E-2	8.934299E-3	-1.136150E-2	-5.189879E-3	1.336349E-2	2.253936E-2	1.412858E-2	-4.757409E-3	-1.382040E-2	2.958336E-2	-1.215673E-2	1.847554E-2	-4.435935E-3	2.761976E-2	-1.345367E-2	2.545843E-2	-8.425142E-3	2.188307E-2	-1.575161E-2	1.755875E-2	-1.590848E-2	-1.731421E-3	1.294265E-2	6.073242E-3	3.175397E-2	2.247747E-2	-5.815554E-3	-1.814674E-2	-2.503650E-2	-9.890541E-3	1.519033E-4	2.116969E-2	2.793687E-2	6.717842E-3	4.990065E-3	-7.570740E-3	4.706680E-3	1.609459E-2	2.678628E-3	4.712687E-3	6.739436E-3	1.874302E-2	-1.161543E-2	-2.388819E-3	-5.952297E-3	5.851540E-2	-1.556408E-2	1.120918E-2	-1.151635E-2	3.628957E-2	2.744650E-3	-1.893251E-2	-1.242541E-2	2.278276E-2	-1.825903E-2	2.765253E-2	-1.427179E-4	2.927476E-2	9.197318E-3	-1.277527E-2	6.637268E-3	2.440238E-2	-8.848642E-9	1.817722E-2	-8.249092E-3	9.775660E-3	-6.080638E-3	1.435787E-2	-3.053352E-4	3.227079E-2	-8.157952E-4	-4.427169E-3	1.655117E-2	2.509374E-2	-3.444994E-2	2.454128E-3	-2.203751E-2	-6.279900E-3	-1.228363E-2	-1.956773E-2	-1.153403E-2	2.936014E-2	1.463224E-2	-2.382503E-2	1.660165E-3	3.258845E-2	-3.601181E-2	-3.720242E-3	3.106800E-3	2.456826E-2	3.044880E-2	3.404589E-3	1.184031E-3	2.167970E-2	-8.609690E-4	3.510415E-2	9.523628E-3	-2.031036E-2
5.340070E+2	2.430449E-2	6.144573E-2	2.081737E-2	2.972632E-2	3.815372E-2	4.015126E-2	5.597050E-2	2.856291E-2	1.625447E-2	5.019411E-2	4.512359E-2	5.296610E-3	1.721514E-2	6.415879E-2	1.997145E-2	2.671027E-2	8.044359E-3	2.469896E-2	3.858995E-2	4.216716E-4	3.818036E-3	4.234530E-2	2.987146E-2	3.632915E-2	2.351131E-2	7.849378E-2	3.694711E-2	3.227522E-2	9.365238E-3	5.353186E-2	3.859710E-2	1.741698E-3	5.174727E-2	7.597561E-3	6.635013E-3	1.028727E-2	4.681582E-2	2.620239E-2	3.768164E-2	7.031927E-3	5.020093E-2	3.428569E-2	8.739216E-2	-8.961522E-3	5.906914E-2	2.283751E-2	4.405938E-2	1.344676E-2	2.553350E-2	4.568916E-2	3.762204E-2	2.337372E-2	2.362995E-2	2.236483E-2	3.984442E-2	1.637222E-2	2.049724E-2	4.782414E-2	7.043120E-2	2.693037E-2	-1.845877E-3	2.903764E-2	1.000061E-2	-6.880370E-3	2.468337E-2	5.811082E-2	1.984111E-2	1.736051E-2	4.690984E-2	3.573709E-2	5.024341E-2	8.221800E-2	5.223884E-2	4.643669E-2	4.825039E-2	2.786473E-2	2.648867E-2	4.279291E-2	8.841124E-3	4.758858E-2	3.105135E-2	1.947913E-2	5.089000E-2	1.688299E-2	1.832160E-2	7.525750E-2	2.439413E-2	5.020319E-2	-2.701561E-3	2.827896E-2	2.630272E-2	4.926072E-2	3.645801E-2	1.056888E-2	2.281487E-2	4.262348E-2	1.934648E-2	3.734778E-2	5.605606E-2	3.190356E-2	2.264100E-2	7.949429E-2	2.495055E-2	-5.285133E-3	4.350127E-2	7.357522E-2	5.029976E-2	1.691018E-2	3.594351E-2	6.796147E-2	3.548297E-2	2.733861E-2	1.843747E-2	4.629282E-2	3.024679E-2	3.990440E-2	3.791991E-2	2.188452E-2	7.135582E-3	9.866346E-3	1.129574E-2	4.100879E-2	3.537677E-2	3.770797E-2	2.042821E-2	3.377828E-2	4.055845E-2	4.400379E-2	3.087768E-2	6.136669E-2	2.785117E-2	1.698519E-2	2.702269E-2	2.960211E-2	-3.869666E-3	2.208896E-2	4.121385E-2	7.088512E-2	3.534951E-3	2.413551E-2	2.700466E-2	4.088304E-2	5.556384E-3	5.262750E-2	2.380048E-2	3.067023E-3	3.919110E-2	3.070876E-2	3.460244E-2	4.217192E-2	5.797634E-3	3.720985E-2	3.063755E-2	2.498454E-2	3.290499E-2	2.146280E-2	3.387940E-2	1.457449E-2	2.580887E-2	1.134896E-2	4.262515E-2	-5.101126E-3	1.980068E-2	6.544681E-3	2.898286E-3	3.620539E-2
5.342040E+2	1.262082E-1	1.654541E-1	1.302573E-1	1.417831E-1	1.505387E-1	1.592515E-1	1.519195E-1	1.493941E-1	1.745580E-1	1.884333E-1	1.647474E-1	1.451274E-1	1.177732E-1	1.367214E-1	1.852914E-1	8.245322E-2	1.465685E-1	1.677814E-1	1.761481E-1	1.375744E-1	1.428411E-1	1.454941E-1	1.207190E-1	1.134966E-1	1.300593E-1	1.794325E-1	1.771167E-1	1.411043E-1	1.155044E-1	1.768340E-1	2.072116E-1	1.571458E-1	1.568677E-1	1.637184E-1	1.336115E-1	1.137825E-1	1.244497E-1	1.870984E-1	1.708580E-1	1.141333E-1	1.633293E-1	1.415153E-1	1.467324E-1	1.196626E-1	1.258311E-1	1.685042E-1	1.582878E-1	1.562092E-1	1.853492E-1	1.478010E-1	1.538839E-1	1.754432E-1	1.748609E-1	1.481518E-1	1.245766E-1	1.185983E-1	1.482870E-1	1.497757E-1	1.195238E-1	1.146106E-1	9.940812E-2	1.631834E-1	1.429666E-1	1.902525E-1	1.123166E-1	1.847888E-1	1.360930E-1	1.413634E-1	1.731943E-1	1.943202E-1	1.482057E-1	1.663485E-1	1.725101E-1	1.246457E-1	1.495490E-1	1.170313E-1	1.266861E-1	1.814908E-1	1.315125E-1	1.886742E-1	1.306443E-1	1.683351E-1	1.702181E-1	1.326516E-1	1.402862E-1	1.361036E-1	1.649041E-1	1.085671E-1	1.557824E-1	1.667899E-1	1.899644E-1	1.237587E-1	1.281922E-1	1.796700E-1	1.564237E-1	1.731681E-1	1.320115E-1	1.542632E-1	1.860931E-1	1.475913E-1	1.592803E-1	1.690659E-1	1.591287E-1	1.147027E-1	1.427698E-1	1.126622E-1	1.431605E-1	1.089462E-1	1.527597E-1	1.629631E-1	1.373171E-1	1.090887E-1	1.206421E-1	1.672960E-1	1.465367E-1	9.849072E-2	1.547690E-1	1.670423E-1	1.575311E-1	1.250617E-1	1.084394E-1	1.583394E-1	1.746005E-1	1.013926E-1	1.449973E-1	1.711438E-1	1.454974E-1	1.427996E-1	1.647776E-1	1.549329E-1	1.543433E-1	1.516753E-1	1.464910E-1	1.496624E-1	1.487004E-1	1.137581E-1	1.181469E-1	1.315649E-1	1.427574E-1	1.406711E-1	1.315389E-1	1.390019E-1	1.366880E-1	1.213430E-1	1.131257E-1	1.537831E-1	1.281024E-1	1.141216E-1	1.754400E-1	1.350567E-1	8.199567E-2	1.239432E-1	1.513768E-1	1.412169E-1	1.176384E-1	1.336416E-1	1.628869E-1	1.578196E-1	1.348438E-1	1.134885E-1	1.041946E-1	1.402803E-1	1.110564E-1	1.279217E-1	1.552796E-1	1.563011E-1
5.344070E+2	2.480227E-1	3.276580E-1	2.920381E-1	3.073791E-1	3.152866E-1	2.807584E-1	3.253668E-1	2.905636E-1	3.306017E-1	3.255752E-1	3.013104E-1	2.584753E-1	3.429365E-1	2.807782E-1	3.683626E-1	2.651664E-1	2.741859E-1	3.074580E-1	3.189573E-1	2.814725E-1	3.060880E-1	3.355049E-1	2.984661E-1	2.808617E-1	3.235868E-1	3.186223E-1	3.497904E-1	2.798080E-1	2.996872E-1	2.263749E-1	3.252411E-1	3.136208E-1	2.468165E-1	3.067323E-1	3.032615E-1	2.671571E-1	3.321721E-1	2.868103E-1	3.133252E-1	3.045359E-1	3.171854E-1	3.029243E-1	2.610972E-1	2.440699E-1	2.165862E-1	3.351555E-1	3.247342E-1	2.848970E-1	2.689614E-1	3.079301E-1	2.788378E-1	3.252594E-1	2.569593E-1	2.923729E-1	3.011029E-1	2.612904E-1	2.738136E-1	3.646416E-1	2.902311E-1	3.563563E-1	2.945341E-1	3.006024E-1	2.319858E-1	3.285022E-1	2.256555E-1	3.246119E-1	3.317103E-1	2.740477E-1	2.911398E-1	3.104656E-1	3.047433E-1	3.051079E-1	3.377305E-1	3.440665E-1	2.903005E-1	2.823162E-1	2.741030E-1	3.157869E-1	3.171768E-1	2.816118E-1	3.206733E-1	3.474275E-1	3.152836E-1	3.105927E-1	2.879276E-1	3.485321E-1	3.098751E-1	2.915738E-1	2.782470E-1	2.949124E-1	3.491722E-1	2.500827E-1	3.069557E-1	2.975647E-1	3.651872E-1	2.845801E-1	2.901962E-1	2.912545E-1	2.808873E-1	3.026360E-1	2.959200E-1	3.000635E-1	3.409902E-1	2.335482E-1	2.705641E-1	3.356877E-1	3.526937E-1	2.708403E-1	2.942876E-1	3.220645E-1	3.078900E-1	2.449857E-1	2.948547E-1	3.188557E-1	2.957169E-1	2.670749E-1	2.738651E-1	2.734180E-1	3.178070E-1	2.871894E-1	2.609327E-1	3.406021E-1	3.309422E-1	2.544593E-1	3.301365E-1	3.107606E-1	3.360760E-1	3.063230E-1	2.836707E-1	3.524618E-1	3.144892E-1	2.851724E-1	3.205739E-1	3.435223E-1	3.830846E-1	2.628595E-1	2.512540E-1	3.268453E-1	3.167851E-1	2.903396E-1	2.883392E-1	3.070444E-1	2.844899E-1	3.351257E-1	2.859002E-1	2.671130E-1	3.398515E-1	2.866615E-1	2.774260E-1	2.727828E-1	3.293633E-1	2.599337E-1	2.733228E-1	3.074178E-1	3.221302E-1	2.618452E-1	2.800589E-1	3.199425E-1	3.007170E-1	3.370632E-1	2.853522E-1	2.805609E-1	3.004551E-1	2.968974E-1	2.645963E-1	2.834620E-1
5.346150E+2	3.557832E-1	3.895674E-1	3.753083E-1	3.907996E-1	4.251181E-1	4.094820E-1	4.606797E-1	3.408099E-1	3.306011E-1	3.859174E-1	3.870585E-1	3.665252E-1	4.391224E-1	4.152329E-1	4.338244E-1	3.694252E-1	3.134532E-1	3.880849E-1	3.966625E-1	4.175021E-1	3.977171E-1	4.321387E-1	4.219013E-1	3.951101E-1	3.996937E-1	3.972494E-1	4.229229E-1	3.160845E-1	3.746096E-1	3.871074E-1	3.895257E-1	4.175798E-1	3.681927E-1	3.401004E-1	4.052595E-1	3.531954E-1	4.150503E-1	4.205127E-1	4.041739E-1	3.651184E-1	3.929823E-1	4.033819E-1	4.261713E-1	3.632053E-1	4.043552E-1	4.709456E-1	3.660733E-1	3.643202E-1	3.472811E-1	4.019188E-1	4.146564E-1	3.962268E-1	4.060298E-1	4.300876E-1	3.596079E-1	3.507388E-1	4.174359E-1	3.821821E-1	4.241192E-1	4.214902E-1	3.884053E-1	3.922143E-1	3.807284E-1	4.347503E-1	3.658691E-1	4.082670E-1	4.300772E-1	4.178920E-1	3.924045E-1	3.998090E-1	4.340128E-1	3.695709E-1	4.361334E-1	4.287927E-1	3.798697E-1	3.573460E-1	3.904245E-1	3.906391E-1	4.354287E-1	3.734303E-1	3.836344E-1	4.602320E-1	3.924967E-1	3.588296E-1	3.906349E-1	3.794888E-1	4.236213E-1	3.499383E-1	4.079159E-1	4.645891E-1	4.115190E-1	4.120347E-1	3.986892E-1	3.582992E-1	4.498861E-1	4.421336E-1	3.857910E-1	4.861127E-1	4.729048E-1	3.718099E-1	4.050205E-1	4.221048E-1	3.753662E-1	3.329661E-1	3.983576E-1	4.023654E-1	4.907946E-1	3.074330E-1	4.189669E-1	4.262248E-1	4.262724E-1	3.978687E-1	3.796384E-1	4.154134E-1	4.202296E-1	3.734868E-1	4.648685E-1	4.451702E-1	4.429548E-1	3.341205E-1	4.122964E-1	4.100900E-1	4.473436E-1	3.762416E-1	3.598499E-1	4.042137E-1	3.662311E-1	3.653726E-1	3.644726E-1	3.998227E-1	4.200931E-1	3.662253E-1	4.013574E-1	4.184220E-1	4.339413E-1	4.086462E-1	4.368697E-1	3.974552E-1	4.157634E-1	3.246149E-1	3.940362E-1	4.468921E-1	4.311802E-1	4.071132E-1	3.717001E-1	4.154932E-1	4.123837E-1	3.517926E-1	4.449741E-1	4.371993E-1	3.989342E-1	3.670120E-1	3.723290E-1	4.051831E-1	4.577039E-1	4.072198E-1	3.865798E-1	4.021141E-1	4.828282E-1	4.165044E-1	4.298038E-1	4.195669E-1	4.261465E-1	4.182738E-1	4.169771E-1	4.106221E-1
5.348120E+2	5.513906E-1	5.505335E-1	5.049709E-1	5.003665E-1	5.170696E-1	5.514413E-1	5.676999E-1	5.166752E-1	4.866433E-1	5.482936E-1	5.966654E-1	4.777541E-1	5.353086E-1	5.827663E-1	5.825010E-1	5.149775E-1	5.774132E-1	5.845397E-1	5.741234E-1	5.501571E-1	5.441127E-1	5.461458E-1	5.512611E-1	5.414299E-1	5.421208E-1	5.364395E-1	5.651249E-1	5.049351E-1	5.338184E-1	5.412347E-1	6.024017E-1	5.290423E-1	5.405039E-1	5.987150E-1	4.520955E-1	4.828776E-1	5.755632E-1	5.938737E-1	5.342521E-1	5.122480E-1	5.400508E-1	6.054263E-1	5.998770E-1	5.055352E-1	4.773762E-1	5.882203E-1	5.151139E-1	5.080874E-1	4.562943E-1	5.817739E-1	5.906790E-1	5.573083E-1	5.691432E-1	6.155141E-1	5.401684E-1	5.871383E-1	6.119465E-1	5.959515E-1	5.379243E-1	5.492530E-1	4.801674E-1	6.070659E-1	5.182007E-1	6.075618E-1	5.504825E-1	5.815523E-1	6.055730E-1	5.294954E-1	5.484730E-1	5.539251E-1	5.875206E-1	5.454794E-1	5.831309E-1	5.624004E-1	5.440798E-1	4.932718E-1	4.595262E-1	5.359424E-1	5.691506E-1	5.055586E-1	4.946748E-1	5.753630E-1	5.363920E-1	5.035408E-1	5.842811E-1	5.449486E-1	6.020468E-1	5.111818E-1	6.024184E-1	5.453873E-1	5.629332E-1	4.908519E-1	5.174743E-1	5.940886E-1	6.395619E-1	5.209100E-1	5.417003E-1	5.876768E-1	6.503392E-1	5.888742E-1	5.713177E-1	6.281191E-1	6.625744E-1	5.558001E-1	5.523951E-1	5.759570E-1	6.241331E-1	4.859606E-1	5.773425E-1	5.086353E-1	5.930257E-1	5.252720E-1	5.654645E-1	5.633069E-1	5.494400E-1	5.313107E-1	5.996956E-1	5.803556E-1	5.571237E-1	5.357125E-1	5.512333E-1	6.060214E-1	5.956965E-1	5.024940E-1	5.438463E-1	5.854906E-1	5.399231E-1	5.527437E-1	5.260752E-1	5.222672E-1	5.872009E-1	4.818436E-1	5.492711E-1	5.682233E-1	6.395795E-1	5.003154E-1	5.321209E-1	5.430872E-1	5.800025E-1	4.834229E-1	5.427053E-1	5.190716E-1	5.534207E-1	5.085503E-1	5.350717E-1	5.486840E-1	5.574501E-1	4.854827E-1	5.445323E-1	5.354227E-1	5.667915E-1	4.773030E-1	5.582669E-1	5.713836E-1	5.695518E-1	4.965055E-1	5.215050E-1	5.475797E-1	5.941838E-1	4.880027E-1	5.304460E-1	5.381662E-1	6.052145E-1	5.325120E-1	5.362321E-1	6.013623E-1
5.350150E+2	8.465593E-1	9.108500E-1	8.939581E-1	9.622921E-1	9.653350E-1	9.388167E-1	9.330465E-1	9.796630E-1	8.982326E-1	8.763367E-1	9.777695E-1	8.855926E-1	9.309836E-1	9.327727E-1	9.220162E-1	9.093073E-1	8.141048E-1	9.377057E-1	9.468967E-1	8.615626E-1	9.116819E-1	9.413680E-1	9.067537E-1	7.999934E-1	9.041684E-1	8.913205E-1	9.521160E-1	8.303545E-1	8.772109E-1	8.527931E-1	9.470063E-1	8.559264E-1	8.374426E-1	9.824640E-1	8.580049E-1	8.482308E-1	9.427491E-1	9.643893E-1	1.012241E+0	8.616799E-1	9.065875E-1	9.293727E-1	8.750010E-1	8.313129E-1	8.101443E-1	1.058549E+0	9.198075E-1	8.780627E-1	8.531877E-1	9.449648E-1	9.036067E-1	8.862293E-1	9.018541E-1	8.757632E-1	8.569070E-1	9.108557E-1	9.455566E-1	8.173957E-1	8.737620E-1	9.337930E-1	8.250648E-1	9.037142E-1	8.754060E-1	1.047912E+0	8.519413E-1	9.663672E-1	9.006738E-1	8.519044E-1	8.856297E-1	9.347481E-1	8.915057E-1	8.994817E-1	9.560920E-1	9.219451E-1	9.268823E-1	8.042683E-1	8.868045E-1	9.355256E-1	9.747396E-1	8.829079E-1	8.816006E-1	9.347089E-1	9.177742E-1	8.240502E-1	8.742143E-1	8.641241E-1	9.823163E-1	8.405929E-1	9.217863E-1	9.286009E-1	9.336773E-1	8.071993E-1	8.350131E-1	9.060924E-1	9.723920E-1	8.596489E-1	8.694517E-1	8.852780E-1	1.006423E+0	8.607994E-1	9.028538E-1	9.539343E-1	9.697422E-1	7.374964E-1	9.083927E-1	8.771557E-1	9.872447E-1	7.964436E-1	8.862330E-1	9.332862E-1	9.201690E-1	8.533347E-1	8.383978E-1	9.495389E-1	9.124044E-1	9.258711E-1	9.569851E-1	1.000317E+0	8.897517E-1	7.618380E-1	9.488470E-1	9.489014E-1	9.357681E-1	8.320891E-1	9.049817E-1	9.187702E-1	9.391731E-1	8.638923E-1	9.704820E-1	9.080839E-1	9.156164E-1	8.906816E-1	8.553369E-1	9.085778E-1	9.922610E-1	8.228149E-1	9.363256E-1	9.888102E-1	9.106561E-1	8.833004E-1	8.412083E-1	9.938783E-1	9.157009E-1	8.881230E-1	8.148013E-1	8.501176E-1	9.306418E-1	8.397030E-1	8.687025E-1	9.432621E-1	9.720767E-1	8.081759E-1	8.770187E-1	8.722843E-1	9.028386E-1	8.410535E-1	8.647360E-1	8.907023E-1	9.781271E-1	9.646566E-1	8.335589E-1	8.850425E-1	8.979212E-1	9.585232E-1	9.138713E-1	8.839415E-1
5.352130E+2	1.532943E+0	1.606718E+0	1.551789E+0	1.640860E+0	1.623047E+0	1.575222E+0	1.663738E+0	1.625692E+0	1.575548E+0	1.711257E+0	1.680694E+0	1.668432E+0	1.685171E+0	1.702148E+0	1.670946E+0	1.601965E+0	1.542724E+0	1.706493E+0	1.556984E+0	1.679984E+0	1.688947E+0	1.744843E+0	1.625640E+0	1.694942E+0	1.549983E+0	1.491643E+0	1.643825E+0	1.597492E+0	1.552549E+0	1.587100E+0	1.709987E+0	1.620084E+0	1.449741E+0	1.678457E+0	1.489767E+0	1.713606E+0	1.585848E+0	1.652166E+0	1.633728E+0	1.692528E+0	1.593281E+0	1.629189E+0	1.618372E+0	1.686347E+0	1.538271E+0	1.779473E+0	1.557309E+0	1.682357E+0	1.453290E+0	1.649303E+0	1.546848E+0	1.652211E+0	1.619124E+0	1.643495E+0	1.565027E+0	1.592367E+0	1.577718E+0	1.576004E+0	1.545436E+0	1.750470E+0	1.491656E+0	1.662785E+0	1.517699E+0	1.936293E+0	1.537818E+0	1.689388E+0	1.626133E+0	1.768290E+0	1.570663E+0	1.665124E+0	1.577241E+0	1.652281E+0	1.599966E+0	1.628001E+0	1.581591E+0	1.493680E+0	1.575517E+0	1.689559E+0	1.763814E+0	1.565944E+0	1.531819E+0	1.627819E+0	1.588118E+0	1.512232E+0	1.583535E+0	1.577201E+0	1.688213E+0	1.440063E+0	1.654173E+0	1.578448E+0	1.665144E+0	1.528429E+0	1.519489E+0	1.607508E+0	1.703661E+0	1.583268E+0	1.547714E+0	1.602122E+0	1.604353E+0	1.572815E+0	1.537327E+0	1.707453E+0	1.618455E+0	1.481420E+0	1.554209E+0	1.572673E+0	1.668227E+0	1.408538E+0	1.584885E+0	1.639509E+0	1.613915E+0	1.514769E+0	1.567767E+0	1.670669E+0	1.583127E+0	1.434016E+0	1.588420E+0	1.629705E+0	1.682350E+0	1.447678E+0	1.574632E+0	1.630107E+0	1.621617E+0	1.436534E+0	1.530112E+0	1.569566E+0	1.707519E+0	1.625866E+0	1.654987E+0	1.616184E+0	1.741877E+0	1.485461E+0	1.604008E+0	1.533113E+0	1.768380E+0	1.434679E+0	1.551790E+0	1.597817E+0	1.608943E+0	1.430563E+0	1.538102E+0	1.661538E+0	1.632481E+0	1.566554E+0	1.502371E+0	1.590849E+0	1.659481E+0	1.415598E+0	1.616598E+0	1.698087E+0	1.731848E+0	1.401392E+0	1.431211E+0	1.529486E+0	1.622511E+0	1.369894E+0	1.577236E+0	1.579168E+0	1.641617E+0	1.636511E+0	1.515563E+0	1.628528E+0	1.657238E+0	1.622523E+0	1.549898E+0	1.731678E+0
5.354010E+2	2.386822E+0	2.483362E+0	2.385674E+0	2.687974E+0	2.550231E+0	2.508773E+0	2.626921E+0	2.648571E+0	2.378373E+0	2.540691E+0	2.510651E+0	2.608050E+0	2.535541E+0	2.610241E+0	2.517517E+0	2.389591E+0	2.425140E+0	2.619495E+0	2.503093E+0	2.540002E+0	2.611557E+0	2.710092E+0	2.690145E+0	2.634991E+0	2.442599E+0	2.384158E+0	2.601656E+0	2.471323E+0	2.391261E+0	2.514067E+0	2.679525E+0	2.602877E+0	2.396913E+0	2.612800E+0	2.401503E+0	2.585215E+0	2.475484E+0	2.714992E+0	2.490596E+0	2.581797E+0	2.491530E+0	2.555884E+0	2.479344E+0	2.566688E+0	2.378020E+0	2.631249E+0	2.529880E+0	2.641481E+0	2.341272E+0	2.478960E+0	2.494326E+0	2.531964E+0	2.473581E+0	2.619426E+0	2.436558E+0	2.525184E+0	2.499384E+0	2.536323E+0	2.391165E+0	2.767564E+0	2.355484E+0	2.516737E+0	2.358313E+0	2.939883E+0	2.370918E+0	2.649029E+0	2.575154E+0	2.812400E+0	2.464185E+0	2.556322E+0	2.391236E+0	2.723025E+0	2.526902E+0	2.445939E+0	2.543396E+0	2.527799E+0	2.378246E+0	2.515146E+0	2.735241E+0	2.503157E+0	2.399539E+0	2.474437E+0	2.513495E+0	2.489836E+0	2.442639E+0	2.434386E+0	2.602644E+0	2.537115E+0	2.614685E+0	2.533017E+0	2.490132E+0	2.492591E+0	2.474462E+0	2.604254E+0	2.745091E+0	2.736780E+0	2.464963E+0	2.570511E+0	2.648299E+0	2.596115E+0	2.571129E+0	2.512478E+0	2.584321E+0	2.575026E+0	2.557162E+0	2.523403E+0	2.664698E+0	2.361052E+0	2.404847E+0	2.532304E+0	2.644989E+0	2.394912E+0	2.409790E+0	2.582473E+0	2.497001E+0	2.371394E+0	2.479393E+0	2.439706E+0	2.548498E+0	2.414041E+0	2.403748E+0	2.563057E+0	2.564234E+0	2.299069E+0	2.386095E+0	2.486085E+0	2.596480E+0	2.471873E+0	2.382199E+0	2.409765E+0	2.527522E+0	2.419948E+0	2.480110E+0	2.456147E+0	2.607516E+0	2.200062E+0	2.482317E+0	2.417553E+0	2.436663E+0	2.276018E+0	2.370893E+0	2.475813E+0	2.493733E+0	2.465312E+0	2.272215E+0	2.562913E+0	2.517007E+0	2.278295E+0	2.530830E+0	2.469994E+0	2.523647E+0	2.181996E+0	2.340375E+0	2.406114E+0	2.482276E+0	2.301664E+0	2.440051E+0	2.446414E+0	2.614815E+0	2.511512E+0	2.414243E+0	2.474039E+0	2.521584E+0	2.415043E+0	2.533746E+0	2.699508E+0
5.356150E+2	2.245095E+0	2.323634E+0	2.273855E+0	2.612024E+0	2.435289E+0	2.358398E+0	2.457165E+0	2.552862E+0	2.373852E+0	2.435369E+0	2.414320E+0	2.458685E+0	2.390170E+0	2.551552E+0	2.418765E+0	2.441205E+0	2.304064E+0	2.391248E+0	2.515695E+0	2.531003E+0	2.487281E+0	2.583065E+0	2.413649E+0	2.526757E+0	2.312133E+0	2.438347E+0	2.498055E+0	2.349694E+0	2.301768E+0	2.423788E+0	2.561489E+0	2.509637E+0	2.269031E+0	2.450724E+0	2.281816E+0	2.576487E+0	2.462897E+0	2.525770E+0	2.314060E+0	2.448725E+0	2.470031E+0	2.409150E+0	2.466400E+0	2.469690E+0	2.238233E+0	2.715191E+0	2.398245E+0	2.513799E+0	2.312692E+0	2.495204E+0	2.422614E+0	2.420446E+0	2.342872E+0	2.545690E+0	2.243892E+0	2.422959E+0	2.300349E+0	2.415734E+0	2.272900E+0	2.608482E+0	2.206767E+0	2.361873E+0	2.271545E+0	2.758106E+0	2.171116E+0	2.485307E+0	2.543857E+0	2.523474E+0	2.284289E+0	2.423421E+0	2.373056E+0	2.612671E+0	2.540264E+0	2.293865E+0	2.422902E+0	2.475601E+0	2.328724E+0	2.419377E+0	2.605930E+0	2.444934E+0	2.275905E+0	2.352328E+0	2.362581E+0	2.349414E+0	2.269321E+0	2.253983E+0	2.477744E+0	2.433242E+0	2.572657E+0	2.463765E+0	2.447819E+0	2.391095E+0	2.305108E+0	2.428007E+0	2.578084E+0	2.539842E+0	2.439926E+0	2.557517E+0	2.489093E+0	2.481621E+0	2.302082E+0	2.519192E+0	2.453462E+0	2.579594E+0	2.286742E+0	2.515355E+0	2.459927E+0	2.433131E+0	2.272305E+0	2.462481E+0	2.460414E+0	2.337581E+0	2.355206E+0	2.417465E+0	2.266769E+0	2.475418E+0	2.408610E+0	2.424200E+0	2.431038E+0	2.420442E+0	2.302083E+0	2.391052E+0	2.482067E+0	2.333707E+0	2.303810E+0	2.428660E+0	2.484312E+0	2.407146E+0	2.323329E+0	2.383197E+0	2.398704E+0	2.405644E+0	2.327644E+0	2.381250E+0	2.598671E+0	2.450773E+0	2.231978E+0	2.365697E+0	2.298527E+0	2.410834E+0	2.215249E+0	2.372054E+0	2.298143E+0	2.567841E+0	2.179364E+0	2.351442E+0	2.382468E+0	2.242873E+0	2.443414E+0	2.412342E+0	2.425361E+0	2.282649E+0	2.302947E+0	2.210584E+0	2.430307E+0	2.223825E+0	2.306308E+0	2.315381E+0	2.424583E+0	2.457035E+0	2.263870E+0	2.211331E+0	2.481982E+0	2.445983E+0	2.166046E+0	2.268579E+0
5.358080E+2	2.130307E+0	2.201053E+0	2.090661E+0	2.350556E+0	2.312687E+0	2.348773E+0	2.313241E+0	2.260956E+0	2.178234E+0	2.249949E+0	2.275639E+0	2.299791E+0	2.241517E+0	2.462987E+0	2.316692E+0	2.292557E+0	2.071735E+0	2.433264E+0	2.223774E+0	2.299420E+0	2.347200E+0	2.414765E+0	2.233925E+0	2.347361E+0	2.301261E+0	2.232217E+0	2.347721E+0	2.212055E+0	2.126953E+0	2.310399E+0	2.300141E+0	2.454974E+0	2.124896E+0	2.320820E+0	2.196469E+0	2.299666E+0	2.262520E+0	2.446455E+0	2.195340E+0	2.352449E+0	2.270924E+0	2.324491E+0	2.282981E+0	2.346337E+0	2.122442E+0	2.499161E+0	2.193722E+0	2.274521E+0	2.184632E+0	2.308385E+0	2.182483E+0	2.267248E+0	2.275902E+0	2.416649E+0	2.165213E+0	2.231287E+0	2.195178E+0	2.261160E+0	2.176944E+0	2.479467E+0	2.144536E+0	2.259351E+0	2.169004E+0	2.605780E+0	2.063618E+0	2.420773E+0	2.406366E+0	2.618952E+0	2.199702E+0	2.270420E+0	2.293276E+0	2.423653E+0	2.424853E+0	2.153741E+0	2.353591E+0	2.425583E+0	2.193977E+0	2.249856E+0	2.422482E+0	2.169480E+0	2.223247E+0	2.172074E+0	2.309936E+0	2.187550E+0	2.219033E+0	2.223027E+0	2.352848E+0	2.293764E+0	2.330131E+0	2.170582E+0	2.324241E+0	2.293926E+0	2.115760E+0	2.351792E+0	2.536329E+0	2.315889E+0	2.145179E+0	2.452412E+0	2.389439E+0	2.313457E+0	2.238533E+0	2.422906E+0	2.385825E+0	2.352188E+0	2.176063E+0	2.310723E+0	2.406352E+0	2.261257E+0	2.183568E+0	2.424710E+0	2.381493E+0	2.269632E+0	2.151959E+0	2.274461E+0	2.220960E+0	2.211179E+0	2.199631E+0	2.320036E+0	2.299299E+0	2.291378E+0	2.195901E+0	2.319284E+0	2.288066E+0	2.297952E+0	2.159813E+0	2.290175E+0	2.378164E+0	2.419637E+0	2.082081E+0	2.256131E+0	2.308189E+0	2.310288E+0	2.414118E+0	2.191794E+0	2.451630E+0	2.281791E+0	2.130621E+0	2.303917E+0	2.177797E+0	2.248598E+0	2.171114E+0	2.254763E+0	2.239244E+0	2.277706E+0	2.165261E+0	2.113099E+0	2.250272E+0	2.128609E+0	2.223657E+0	2.286356E+0	2.232104E+0	2.288003E+0	2.050602E+0	2.153010E+0	2.334274E+0	2.322268E+0	2.243580E+0	2.118834E+0	2.223911E+0	2.235733E+0	2.217692E+0	2.263617E+0	2.311524E+0	2.467400E+0	2.318428E+0	2.134348E+0
5.360170E+2	1.572767E+0	1.681010E+0	1.592234E+0	1.755409E+0	1.676686E+0	1.740037E+0	1.746156E+0	1.746524E+0	1.628693E+0	1.733201E+0	1.675401E+0	1.702330E+0	1.682985E+0	1.758704E+0	1.697575E+0	1.642224E+0	1.550360E+0	1.634952E+0	1.720795E+0	1.739567E+0	1.764778E+0	1.823018E+0	1.667114E+0	1.797166E+0	1.665230E+0	1.693521E+0	1.711878E+0	1.758602E+0	1.650364E+0	1.700493E+0	1.784810E+0	1.786205E+0	1.627472E+0	1.776182E+0	1.612582E+0	1.666222E+0	1.701249E+0	1.859519E+0	1.667797E+0	1.765011E+0	1.765238E+0	1.640477E+0	1.713317E+0	1.678967E+0	1.641543E+0	1.779473E+0	1.670448E+0	1.681352E+0	1.578179E+0	1.752574E+0	1.680495E+0	1.679245E+0	1.626685E+0	1.708557E+0	1.548887E+0	1.683946E+0	1.607120E+0	1.666993E+0	1.721723E+0	1.819362E+0	1.635099E+0	1.694412E+0	1.623620E+0	1.975976E+0	1.624283E+0	1.812480E+0	1.737913E+0	1.913374E+0	1.627847E+0	1.681876E+0	1.631777E+0	1.872986E+0	1.794344E+0	1.634519E+0	1.661564E+0	1.748131E+0	1.630799E+0	1.750103E+0	1.772655E+0	1.667840E+0	1.626834E+0	1.703410E+0	1.730843E+0	1.576547E+0	1.643448E+0	1.532368E+0	1.743972E+0	1.721003E+0	1.743021E+0	1.678868E+0	1.745303E+0	1.637478E+0	1.515961E+0	1.713492E+0	1.824148E+0	1.849984E+0	1.710453E+0	1.758009E+0	1.797586E+0	1.732631E+0	1.768238E+0	1.813820E+0	1.747089E+0	1.816242E+0	1.685426E+0	1.630153E+0	1.726562E+0	1.583739E+0	1.538831E+0	1.821503E+0	1.683927E+0	1.694194E+0	1.640936E+0	1.724447E+0	1.691194E+0	1.709012E+0	1.633362E+0	1.721674E+0	1.740531E+0	1.616205E+0	1.629982E+0	1.680228E+0	1.767689E+0	1.700212E+0	1.672966E+0	1.783497E+0	1.685807E+0	1.810966E+0	1.620357E+0	1.646217E+0	1.763926E+0	1.664255E+0	1.704133E+0	1.677407E+0	1.843560E+0	1.623541E+0	1.636051E+0	1.586784E+0	1.683991E+0	1.688768E+0	1.607790E+0	1.723567E+0	1.689157E+0	1.689806E+0	1.594048E+0	1.630573E+0	1.664160E+0	1.629271E+0	1.833926E+0	1.677800E+0	1.601538E+0	1.631611E+0	1.724607E+0	1.677220E+0	1.718543E+0	1.685827E+0	1.689676E+0	1.638021E+0	1.690335E+0	1.786316E+0	1.586604E+0	1.666787E+0	1.667570E+0	1.677262E+0	1.592962E+0	1.745804E+0
5.362050E+2	1.674670E+0	1.775113E+0	1.695727E+0	1.679457E+0	1.735433E+0	1.765301E+0	1.827343E+0	1.783611E+0	1.785866E+0	1.734297E+0	1.755856E+0	1.715042E+0	1.814147E+0	1.855809E+0	1.891742E+0	1.691773E+0	1.829590E+0	1.759866E+0	1.753346E+0	1.777788E+0	1.901694E+0	1.881651E+0	1.720438E+0	1.733025E+0	1.715242E+0	1.761522E+0	1.832750E+0	1.853561E+0	1.742976E+0	1.805080E+0	1.887032E+0	1.870874E+0	1.729342E+0	1.813126E+0	1.706254E+0	1.790917E+0	1.830289E+0	1.936569E+0	1.735934E+0	1.864540E+0	1.767500E+0	1.774796E+0	1.759710E+0	1.817080E+0	1.717695E+0	1.937483E+0	1.701997E+0	1.830147E+0	1.612048E+0	1.866289E+0	1.748948E+0	1.797522E+0	1.732548E+0	1.782294E+0	1.643707E+0	1.735059E+0	1.724732E+0	1.761271E+0	1.682672E+0	1.934598E+0	1.650922E+0	1.768575E+0	1.711512E+0	2.051500E+0	1.592735E+0	1.751531E+0	1.829575E+0	1.981576E+0	1.835145E+0	1.868378E+0	1.689342E+0	1.851133E+0	1.761542E+0	1.704038E+0	1.838571E+0	1.729646E+0	1.789733E+0	1.877793E+0	1.855541E+0	1.775334E+0	1.641715E+0	1.733647E+0	1.786998E+0	1.728761E+0	1.703361E+0	1.689286E+0	1.865524E+0	1.760572E+0	1.797050E+0	1.699646E+0	1.775364E+0	1.801589E+0	1.733535E+0	1.787326E+0	1.876637E+0	1.869113E+0	1.662655E+0	1.864294E+0	1.826754E+0	1.814925E+0	1.805310E+0	1.892194E+0	1.855762E+0	1.769390E+0	1.695694E+0	1.697980E+0	1.838471E+0	1.787771E+0	1.721919E+0	1.783730E+0	1.874867E+0	1.813104E+0	1.758238E+0	1.902896E+0	1.684146E+0	1.703034E+0	1.786165E+0	1.802564E+0	1.853603E+0	1.788998E+0	1.729385E+0	1.751993E+0	1.837300E+0	1.795179E+0	1.783821E+0	1.759853E+0	1.772653E+0	1.894999E+0	1.764646E+0	1.769818E+0	1.780173E+0	1.673790E+0	1.778089E+0	1.696131E+0	1.814814E+0	1.795835E+0	1.749619E+0	1.752276E+0	1.679641E+0	1.856718E+0	1.742524E+0	1.696501E+0	1.698048E+0	1.855595E+0	1.656340E+0	1.770774E+0	1.794017E+0	1.704686E+0	1.804787E+0	1.824068E+0	1.811359E+0	1.739760E+0	1.647334E+0	1.679391E+0	1.732100E+0	1.803728E+0	1.667188E+0	1.780155E+0	1.857368E+0	1.837387E+0	1.674222E+0	1.696118E+0	1.739885E+0	1.822439E+0	1.622774E+0	1.646902E+0
5.364090E+2	1.808199E+0	1.921220E+0	1.742119E+0	2.045511E+0	2.052157E+0	1.952975E+0	2.015552E+0	1.973831E+0	1.863888E+0	2.021747E+0	1.940056E+0	1.938558E+0	2.092868E+0	1.958250E+0	1.944999E+0	1.823905E+0	1.903760E+0	1.988117E+0	1.944458E+0	1.890210E+0	2.050196E+0	2.098806E+0	1.991007E+0	2.012635E+0	1.933776E+0	1.886899E+0	1.964795E+0	1.975193E+0	1.992716E+0	1.865629E+0	1.997686E+0	1.961972E+0	2.018694E+0	1.966864E+0	1.914412E+0	1.955512E+0	2.011784E+0	2.064606E+0	1.881498E+0	2.058187E+0	1.976789E+0	1.962166E+0	1.907521E+0	2.036373E+0	1.920068E+0	2.081914E+0	1.890201E+0	1.933699E+0	1.876643E+0	1.966080E+0	1.923883E+0	1.922557E+0	1.897822E+0	1.972059E+0	1.831327E+0	1.896917E+0	1.863830E+0	1.842394E+0	1.852264E+0	2.071129E+0	1.889291E+0	1.921261E+0	1.792644E+0	2.185910E+0	1.796045E+0	1.931986E+0	1.907821E+0	2.121700E+0	1.973342E+0	1.850509E+0	1.894355E+0	2.112265E+0	1.868449E+0	1.910424E+0	1.916410E+0	1.915591E+0	1.904902E+0	1.878894E+0	2.024628E+0	1.868272E+0	1.969113E+0	1.841800E+0	2.051391E+0	1.906703E+0	1.826394E+0	1.815249E+0	2.019415E+0	1.866419E+0	2.035975E+0	1.910874E+0	1.953499E+0	2.001331E+0	1.941701E+0	1.892121E+0	1.992352E+0	2.044674E+0	1.913020E+0	2.009553E+0	1.989605E+0	1.981896E+0	1.847680E+0	1.982886E+0	2.043168E+0	2.004795E+0	1.820066E+0	1.998029E+0	2.046812E+0	1.885351E+0	1.867941E+0	1.972591E+0	2.033982E+0	1.903347E+0	1.701329E+0	1.913896E+0	1.876788E+0	1.836946E+0	1.818747E+0	1.918913E+0	1.900808E+0	1.924459E+0	1.889785E+0	1.960456E+0	1.998207E+0	1.902438E+0	1.880962E+0	1.923114E+0	1.987356E+0	2.007421E+0	1.866225E+0	1.877246E+0	1.992540E+0	1.947938E+0	1.828153E+0	1.866860E+0	2.056938E+0	1.912906E+0	1.915697E+0	1.852675E+0	1.874335E+0	1.924125E+0	1.848219E+0	1.909655E+0	2.024766E+0	1.974484E+0	1.877303E+0	1.919154E+0	1.885268E+0	1.810952E+0	2.007546E+0	1.921224E+0	1.838967E+0	1.844698E+0	1.783768E+0	1.780416E+0	1.965965E+0	1.984588E+0	1.911001E+0	1.767941E+0	1.895647E+0	1.937257E+0	1.792626E+0	1.984332E+0	1.979216E+0	1.991416E+0	1.692339E+0	1.731675E+0
5.366140E+2	1.803514E+0	1.994274E+0	1.787322E+0	2.025591E+0	1.984469E+0	2.035984E+0	1.992179E+0	2.003740E+0	2.021061E+0	1.950433E+0	1.870187E+0	1.995763E+0	2.218568E+0	2.032947E+0	1.888414E+0	1.970488E+0	2.051012E+0	1.998337E+0	2.027414E+0	2.018369E+0	2.067048E+0	2.064060E+0	1.870536E+0	1.967538E+0	1.988137E+0	1.894337E+0	2.004407E+0	1.897306E+0	2.140478E+0	2.027464E+0	2.061969E+0	2.033780E+0	2.051205E+0	2.016920E+0	1.799926E+0	1.999154E+0	2.124039E+0	2.053275E+0	1.870142E+0	2.017078E+0	1.982446E+0	1.974584E+0	1.869760E+0	1.899315E+0	2.020212E+0	2.153514E+0	1.890202E+0	1.979947E+0	1.974014E+0	2.027579E+0	1.931489E+0	1.998029E+0	1.935630E+0	1.956877E+0	1.813171E+0	1.959746E+0	2.037985E+0	1.946537E+0	1.866769E+0	2.190122E+0	2.039063E+0	1.907083E+0	1.863634E+0	2.248634E+0	2.166441E+0	2.088543E+0	2.026309E+0	2.150221E+0	1.987640E+0	1.966655E+0	1.843860E+0	2.112265E+0	2.101702E+0	1.891958E+0	1.982521E+0	1.911242E+0	2.050016E+0	1.933932E+0	2.030155E+0	1.966809E+0	2.093891E+0	1.934834E+0	2.067769E+0	1.967804E+0	1.915194E+0	1.804575E+0	2.016070E+0	1.937643E+0	1.906307E+0	2.004370E+0	1.950159E+0	1.913876E+0	1.948757E+0	2.001680E+0	2.086593E+0	2.148208E+0	1.974475E+0	1.982391E+0	2.111135E+0	2.094008E+0	1.990674E+0	1.987364E+0	2.015445E+0	1.988797E+0	1.846309E+0	1.875020E+0	1.963477E+0	1.882025E+0	1.853338E+0	1.995484E+0	2.011070E+0	1.865127E+0	1.891802E+0	1.968898E+0	1.870914E+0	1.802271E+0	1.950202E+0	1.990938E+0	1.933741E+0	1.966058E+0	1.851379E+0	1.922863E+0	2.017606E+0	1.885679E+0	1.830677E+0	1.995174E+0	2.046459E+0	1.957456E+0	1.788886E+0	1.909590E+0	1.951924E+0	1.947937E+0	1.895282E+0	2.012255E+0	2.004975E+0	1.999053E+0	1.874179E+0	1.891288E+0	1.956999E+0	2.042946E+0	1.826151E+0	1.844243E+0	1.900302E+0	1.975576E+0	1.760945E+0	1.819845E+0	1.908666E+0	1.881797E+0	1.901917E+0	1.968200E+0	1.928417E+0	1.903591E+0	1.799464E+0	1.777157E+0	1.943370E+0	1.917051E+0	1.908633E+0	1.895639E+0	2.034840E+0	1.940662E+0	1.860115E+0	1.815995E+0	1.869020E+0	1.948575E+0	1.960661E+0	1.738741E+0
5.368080E+2	1.432211E+0	1.510138E+0	1.369784E+0	1.491452E+0	1.497891E+0	1.465746E+0	1.484140E+0	1.593392E+0	1.537102E+0	1.512676E+0	1.477439E+0	1.484111E+0	1.599914E+0	1.546353E+0	1.555556E+0	1.393445E+0	1.533999E+0	1.516851E+0	1.540184E+0	1.502358E+0	1.569935E+0	1.533116E+0	1.555529E+0	1.570672E+0	1.559768E+0	1.426829E+0	1.548348E+0	1.535609E+0	1.553589E+0	1.472606E+0	1.530835E+0	1.522554E+0	1.603629E+0	1.573580E+0	1.429402E+0	1.546515E+0	1.647746E+0	1.561521E+0	1.488164E+0	1.631945E+0	1.569523E+0	1.482454E+0	1.438194E+0	1.508171E+0	1.558091E+0	1.672074E+0	1.515968E+0	1.595895E+0	1.539019E+0	1.517022E+0	1.454491E+0	1.450577E+0	1.553230E+0	1.523130E+0	1.347142E+0	1.493336E+0	1.600335E+0	1.503650E+0	1.410431E+0	1.632728E+0	1.596075E+0	1.515551E+0	1.494035E+0	1.777561E+0	1.544829E+0	1.579439E+0	1.526648E+0	1.536403E+0	1.549219E+0	1.561263E+0	1.444942E+0	1.654466E+0	1.640056E+0	1.478101E+0	1.564530E+0	1.478455E+0	1.695293E+0	1.536552E+0	1.578150E+0	1.458450E+0	1.716123E+0	1.476637E+0	1.543662E+0	1.489721E+0	1.660566E+0	1.409607E+0	1.639146E+0	1.515244E+0	1.598944E+0	1.472256E+0	1.602796E+0	1.538146E+0	1.638274E+0	1.631324E+0	1.593911E+0	1.610278E+0	1.562510E+0	1.566693E+0	1.571539E+0	1.557311E+0	1.593466E+0	1.603327E+0	1.607366E+0	1.655116E+0	1.474337E+0	1.572672E+0	1.593222E+0	1.490594E+0	1.577022E+0	1.518181E+0	1.499352E+0	1.499904E+0	1.479499E+0	1.605889E+0	1.597224E+0	1.473471E+0	1.507524E+0	1.558787E+0	1.560496E+0	1.509542E+0	1.510246E+0	1.546949E+0	1.526899E+0	1.535973E+0	1.613539E+0	1.530158E+0	1.594136E+0	1.511173E+0	1.552253E+0	1.597702E+0	1.517904E+0	1.466391E+0	1.498191E+0	1.550737E+0	1.603648E+0	1.572736E+0	1.439443E+0	1.568028E+0	1.489299E+0	1.598509E+0	1.402208E+0	1.459660E+0	1.493571E+0	1.597094E+0	1.469462E+0	1.476350E+0	1.503886E+0	1.431593E+0	1.453907E+0	1.476016E+0	1.469020E+0	1.443152E+0	1.437248E+0	1.415425E+0	1.698207E+0	1.519847E+0	1.424560E+0	1.431480E+0	1.504743E+0	1.537776E+0	1.425574E+0	1.506103E+0	1.528103E+0	1.415468E+0	1.433956E+0	1.413777E+0
5.370070E+2	1.053880E+0	1.149822E+0	1.039086E+0	1.168974E+0	1.121143E+0	1.120475E+0	1.115104E+0	1.175864E+0	1.150389E+0	1.136358E+0	1.070927E+0	1.123940E+0	1.253425E+0	1.182474E+0	1.169441E+0	1.102342E+0	1.179505E+0	1.179583E+0	1.120157E+0	1.125749E+0	1.312953E+0	1.175895E+0	1.145725E+0	1.204875E+0	1.228163E+0	1.100635E+0	1.192844E+0	1.097093E+0	1.287201E+0	1.151140E+0	1.131428E+0	1.146371E+0	1.178813E+0	1.192215E+0	1.038062E+0	1.183656E+0	1.244890E+0	1.215931E+0	1.064891E+0	1.246813E+0	1.159997E+0	1.128030E+0	1.069204E+0	1.182394E+0	1.195071E+0	1.257296E+0	1.149352E+0	1.132421E+0	1.131542E+0	1.178198E+0	1.131783E+0	1.098000E+0	1.164349E+0	1.186976E+0	1.110095E+0	1.100401E+0	1.135544E+0	1.092554E+0	1.119223E+0	1.191823E+0	1.155197E+0	1.157828E+0	1.073728E+0	1.374334E+0	1.166253E+0	1.201796E+0	1.144357E+0	1.284676E+0	1.243038E+0	1.172622E+0	1.128837E+0	1.258946E+0	1.185700E+0	1.120728E+0	1.173198E+0	1.109828E+0	1.234616E+0	1.142472E+0	1.117304E+0	1.109094E+0	1.192973E+0	1.092869E+0	1.114315E+0	1.103825E+0	1.142751E+0	1.092566E+0	1.191966E+0	1.068115E+0	1.291583E+0	1.152527E+0	1.121832E+0	1.132185E+0	1.276042E+0	1.183562E+0	1.199050E+0	1.184884E+0	1.272312E+0	1.181699E+0	1.202088E+0	1.133918E+0	1.183548E+0	1.174504E+0	1.233664E+0	1.190022E+0	1.175391E+0	1.048448E+0	1.218207E+0	1.112470E+0	1.195122E+0	1.145038E+0	1.179846E+0	1.133622E+0	1.236763E+0	1.255101E+0	1.136762E+0	1.107608E+0	1.203043E+0	1.172068E+0	1.175175E+0	1.118090E+0	1.093432E+0	1.118633E+0	1.150310E+0	1.130401E+0	1.205547E+0	1.184494E+0	1.180412E+0	1.244313E+0	1.242899E+0	1.161059E+0	1.162798E+0	1.076626E+0	1.183022E+0	1.113452E+0	1.163626E+0	1.189492E+0	1.113395E+0	1.114584E+0	1.110787E+0	1.207773E+0	1.224499E+0	1.120192E+0	1.114621E+0	1.143352E+0	1.264954E+0	1.128184E+0	1.159940E+0	1.102512E+0	1.150377E+0	1.158926E+0	1.221652E+0	1.105855E+0	1.139023E+0	1.092800E+0	1.188674E+0	1.020768E+0	1.241107E+0	1.161646E+0	1.184597E+0	1.204118E+0	1.249155E+0	1.133722E+0	1.113147E+0	1.096556E+0	1.212009E+0	1.088811E+0
5.372010E+2	8.910686E-1	8.885621E-1	8.451862E-1	9.149777E-1	9.857690E-1	9.893453E-1	1.008083E+0	9.401826E-1	9.739940E-1	9.827587E-1	9.110759E-1	9.470341E-1	1.016240E+0	9.861283E-1	9.564124E-1	9.578245E-1	9.002743E-1	8.990952E-1	9.825983E-1	9.694854E-1	1.060183E+0	9.804552E-1	9.324279E-1	9.483162E-1	9.661396E-1	8.966319E-1	9.937606E-1	9.775944E-1	1.073882E+0	1.006921E+0	9.754607E-1	1.034908E+0	9.761581E-1	9.705463E-1	8.486390E-1	1.002850E+0	1.017235E+0	1.092427E+0	9.544275E-1	1.078047E+0	9.722030E-1	9.745218E-1	9.052093E-1	9.030048E-1	9.906117E-1	9.721357E-1	9.121921E-1	9.846321E-1	9.473841E-1	1.023869E+0	8.840489E-1	9.076308E-1	9.439830E-1	1.013478E+0	9.698825E-1	9.587750E-1	9.749593E-1	9.544260E-1	8.804562E-1	1.023978E+0	1.006479E+0	9.876914E-1	8.686444E-1	1.128557E+0	1.070440E+0	9.448550E-1	9.353272E-1	1.005669E+0	1.023828E+0	9.492660E-1	9.450319E-1	1.013111E+0	1.036272E+0	9.252049E-1	9.492740E-1	9.673785E-1	1.026160E+0	8.859900E-1	1.042153E+0	9.310561E-1	9.903523E-1	9.265689E-1	9.645700E-1	9.226674E-1	9.608733E-1	9.014870E-1	9.867774E-1	1.000848E+0	1.088676E+0	9.932394E-1	1.029424E+0	9.292042E-1	1.093751E+0	9.882613E-1	1.029653E+0	1.031832E+0	1.037879E+0	1.019908E+0	1.019792E+0	9.681396E-1	9.494599E-1	1.004319E+0	9.331479E-1	9.911842E-1	1.035046E+0	9.553292E-1	9.777203E-1	9.605562E-1	1.064826E+0	9.962397E-1	9.405365E-1	8.979259E-1	1.026547E+0	9.813174E-1	9.793596E-1	9.617392E-1	9.199075E-1	9.537775E-1	9.270758E-1	8.972982E-1	9.612719E-1	1.014972E+0	9.357676E-1	9.002430E-1	9.449809E-1	9.536747E-1	9.560593E-1	9.184006E-1	1.070907E+0	9.577548E-1	9.504317E-1	9.335904E-1	9.998376E-1	9.482304E-1	1.017689E+0	9.166933E-1	9.668546E-1	9.005481E-1	8.845509E-1	9.792716E-1	1.029370E+0	9.668100E-1	1.011271E+0	9.742896E-1	1.013433E+0	8.910100E-1	9.552097E-1	9.322564E-1	1.031393E+0	9.603447E-1	9.301128E-1	9.270336E-1	9.844760E-1	9.602734E-1	9.243048E-1	9.234693E-1	1.083694E+0	8.929231E-1	9.920461E-1	9.862193E-1	1.024188E+0	9.602843E-1	9.116949E-1	9.680404E-1	9.999991E-1	9.969723E-1
5.374220E+2	1.090190E+0	1.158490E+0	1.089048E+0	1.175201E+0	1.182445E+0	1.097618E+0	1.183991E+0	1.232093E+0	1.193357E+0	1.152815E+0	1.157735E+0	1.195975E+0	1.198774E+0	1.233693E+0	1.203835E+0	1.124020E+0	1.178415E+0	1.237498E+0	1.135909E+0	1.180836E+0	1.227643E+0	1.260587E+0	1.173374E+0	1.192849E+0	1.208593E+0	1.105949E+0	1.170497E+0	1.221926E+0	1.319458E+0	1.039947E+0	1.236813E+0	1.197815E+0	1.171228E+0	1.224393E+0	1.027656E+0	1.197372E+0	1.253283E+0	1.269186E+0	1.158837E+0	1.204621E+0	1.247106E+0	1.175438E+0	1.187885E+0	1.130732E+0	1.182554E+0	1.300502E+0	1.085166E+0	1.102261E+0	1.110375E+0	1.167755E+0	1.114398E+0	1.137426E+0	1.139504E+0	1.179386E+0	1.085885E+0	1.166422E+0	1.180778E+0	1.075014E+0	1.163854E+0	1.158003E+0	1.263833E+0	1.133834E+0	1.082742E+0	1.367934E+0	1.269076E+0	1.238844E+0	1.187952E+0	1.258635E+0	1.225168E+0	1.273133E+0	1.103588E+0	1.226169E+0	1.284103E+0	1.147884E+0	1.094291E+0	1.165284E+0	1.233464E+0	1.155682E+0	1.180297E+0	1.166200E+0	1.242197E+0	1.185903E+0	1.218434E+0	1.127406E+0	1.141681E+0	1.155547E+0	1.203118E+0	1.180887E+0	1.227949E+0	1.186000E+0	1.175273E+0	1.109510E+0	1.265456E+0	1.196661E+0	1.232453E+0	1.172504E+0	1.215411E+0	1.230118E+0	1.272576E+0	1.157772E+0	1.243923E+0	1.196897E+0	1.240317E+0	1.272299E+0	1.198212E+0	1.199048E+0	1.190825E+0	1.118014E+0	1.271503E+0	1.191968E+0	1.211670E+0	1.210063E+0	1.187983E+0	1.082764E+0	1.070982E+0	1.200866E+0	1.222143E+0	1.205310E+0	1.136751E+0	1.192754E+0	1.085525E+0	1.149389E+0	1.166285E+0	1.198554E+0	1.229546E+0	1.163101E+0	1.174381E+0	1.181855E+0	1.188646E+0	1.126404E+0	1.155836E+0	1.211315E+0	1.342313E+0	1.166323E+0	1.195688E+0	1.130956E+0	1.222077E+0	1.157610E+0	1.105349E+0	1.203203E+0	1.225662E+0	1.139365E+0	1.134625E+0	1.201160E+0	1.248500E+0	1.116502E+0	1.149411E+0	1.107083E+0	1.252362E+0	1.147182E+0	1.099073E+0	1.109068E+0	1.161962E+0	1.099317E+0	1.293744E+0	1.171865E+0	1.146422E+0	1.133887E+0	1.120801E+0	1.224546E+0	1.259811E+0	1.110767E+0	1.226788E+0	1.132256E+0	1.132506E+0	1.060553E+0
5.376110E+2	1.529428E+0	1.544807E+0	1.532756E+0	1.690664E+0	1.629434E+0	1.622141E+0	1.646516E+0	1.671154E+0	1.583463E+0	1.586184E+0	1.644701E+0	1.562500E+0	1.869892E+0	1.641323E+0	1.589951E+0	1.519383E+0	1.625620E+0	1.591800E+0	1.623138E+0	1.624896E+0	1.708958E+0	1.773073E+0	1.611815E+0	1.629801E+0	1.691324E+0	1.568145E+0	1.692581E+0	1.588958E+0	1.764827E+0	1.730218E+0	1.643595E+0	1.712254E+0	1.693579E+0	1.784524E+0	1.472075E+0	1.658740E+0	1.758950E+0	1.689558E+0	1.623405E+0	1.775829E+0	1.643057E+0	1.568238E+0	1.608662E+0	1.617817E+0	1.636328E+0	1.786880E+0	1.536639E+0	1.581821E+0	1.616280E+0	1.686434E+0	1.591397E+0	1.660097E+0	1.670975E+0	1.652171E+0	1.617480E+0	1.595562E+0	1.605990E+0	1.515709E+0	1.553246E+0	1.825624E+0	1.744792E+0	1.555903E+0	1.593195E+0	1.900450E+0	1.674527E+0	1.639193E+0	1.581421E+0	1.736048E+0	1.772001E+0	1.622686E+0	1.573202E+0	1.712374E+0	1.802847E+0	1.598672E+0	1.662630E+0	1.591545E+0	1.828890E+0	1.658738E+0	1.663246E+0	1.687995E+0	1.766492E+0	1.659219E+0	1.606835E+0	1.461850E+0	1.640239E+0	1.533435E+0	1.570007E+0	1.538986E+0	1.721410E+0	1.607305E+0	1.659576E+0	1.598609E+0	1.777049E+0	1.690867E+0	1.712012E+0	1.585519E+0	1.740042E+0	1.639913E+0	1.671195E+0	1.669420E+0	1.739639E+0	1.670506E+0	1.624000E+0	1.656259E+0	1.702541E+0	1.717523E+0	1.638463E+0	1.553799E+0	1.685976E+0	1.607462E+0	1.546451E+0	1.558298E+0	1.716428E+0	1.647445E+0	1.564334E+0	1.668360E+0	1.700775E+0	1.651866E+0	1.607700E+0	1.591672E+0	1.628852E+0	1.681367E+0	1.629605E+0	1.573959E+0	1.686680E+0	1.554930E+0	1.674952E+0	1.684917E+0	1.686153E+0	1.579221E+0	1.613063E+0	1.677365E+0	1.582390E+0	1.631144E+0	1.739636E+0	1.684285E+0	1.681234E+0	1.639743E+0	1.590452E+0	1.643068E+0	1.793629E+0	1.557779E+0	1.672488E+0	1.611274E+0	1.843218E+0	1.521916E+0	1.604497E+0	1.553857E+0	1.815714E+0	1.594525E+0	1.577244E+0	1.548091E+0	1.583342E+0	1.546866E+0	1.663184E+0	1.636605E+0	1.719264E+0	1.548076E+0	1.646256E+0	1.813554E+0	1.755921E+0	1.571141E+0	1.550486E+0	1.655844E+0	1.705589E+0	1.434968E+0
5.378110E+2	1.700440E+0	1.715679E+0	1.688588E+0	1.897347E+0	1.796734E+0	1.774925E+0	1.851946E+0	1.858981E+0	1.834487E+0	1.921907E+0	1.756915E+0	1.848517E+0	2.051333E+0	2.026545E+0	1.896180E+0	1.746483E+0	1.939756E+0	2.061930E+0	1.840502E+0	1.804771E+0	1.935398E+0	1.982627E+0	1.756974E+0	1.832242E+0	1.881589E+0	1.855024E+0	1.883537E+0	1.824753E+0	1.915712E+0	2.015354E+0	1.992416E+0	1.939466E+0	1.901652E+0	2.039563E+0	1.667744E+0	1.861992E+0	2.014931E+0	1.985291E+0	1.854656E+0	1.781239E+0	1.868185E+0	1.868481E+0	1.795314E+0	1.846601E+0	1.985787E+0	2.036240E+0	1.701997E+0	1.781889E+0	1.799380E+0	1.944034E+0	1.808708E+0	1.698395E+0	1.771436E+0	1.836512E+0	1.724404E+0	1.883075E+0	1.823119E+0	1.754693E+0	1.758542E+0	1.920821E+0	1.846046E+0	1.877636E+0	1.743064E+0	2.060460E+0	1.836941E+0	1.894940E+0	1.924588E+0	1.925774E+0	1.965004E+0	1.852744E+0	1.752968E+0	1.965858E+0	1.980216E+0	1.793109E+0	1.814044E+0	1.790541E+0	2.059229E+0	1.785328E+0	1.855541E+0	1.844758E+0	1.972548E+0	1.838310E+0	1.832622E+0	1.774855E+0	1.828535E+0	1.669005E+0	1.944700E+0	1.766507E+0	1.996356E+0	1.841618E+0	1.885584E+0	1.931151E+0	1.994623E+0	1.836151E+0	2.013826E+0	1.927634E+0	1.953991E+0	1.882008E+0	1.972590E+0	1.845934E+0	1.836029E+0	1.850767E+0	1.879050E+0	1.848241E+0	1.789258E+0	1.835934E+0	1.803946E+0	1.717912E+0	1.997112E+0	1.909638E+0	1.748847E+0	1.745156E+0	1.933613E+0	1.973787E+0	1.859168E+0	1.720968E+0	1.890655E+0	1.828050E+0	1.756999E+0	1.804998E+0	1.849120E+0	1.846541E+0	1.819041E+0	1.876740E+0	1.996388E+0	1.831912E+0	1.854675E+0	1.847305E+0	1.906625E+0	1.857608E+0	1.826591E+0	1.905027E+0	1.768987E+0	1.764423E+0	1.947484E+0	1.835594E+0	1.855861E+0	1.764412E+0	1.736200E+0	1.817872E+0	1.936492E+0	1.805896E+0	1.803620E+0	1.891589E+0	1.864374E+0	1.809330E+0	1.815075E+0	1.716113E+0	1.892203E+0	1.835812E+0	1.741787E+0	1.886458E+0	1.834479E+0	1.678305E+0	1.890269E+0	1.842647E+0	2.012787E+0	1.795701E+0	1.875927E+0	1.883916E+0	1.939446E+0	1.773911E+0	1.715780E+0	1.886695E+0	1.761904E+0	1.456163E+0
5.380110E+2	1.534115E+0	1.672342E+0	1.585096E+0	1.698134E+0	1.677963E+0	1.761692E+0	1.810122E+0	1.782414E+0	1.732722E+0	1.873633E+0	1.763266E+0	1.634534E+0	1.891752E+0	1.991329E+0	1.705341E+0	1.673192E+0	1.749966E+0	1.871152E+0	1.724995E+0	1.642884E+0	1.734235E+0	1.904451E+0	1.739199E+0	1.752067E+0	1.848971E+0	1.830586E+0	1.737272E+0	1.715924E+0	1.872008E+0	1.937189E+0	1.806940E+0	1.731547E+0	1.746681E+0	1.915618E+0	1.534523E+0	1.751014E+0	1.807209E+0	1.947899E+0	1.620308E+0	1.815857E+0	1.851215E+0	1.853808E+0	1.734895E+0	1.843437E+0	1.691616E+0	2.121417E+0	1.673712E+0	1.731621E+0	1.635332E+0	1.903421E+0	1.542501E+0	1.760349E+0	1.747671E+0	1.831092E+0	1.669933E+0	1.768069E+0	1.877401E+0	1.827046E+0	1.728417E+0	1.800572E+0	1.766941E+0	1.959433E+0	1.603337E+0	2.007978E+0	1.898867E+0	2.012057E+0	1.682024E+0	1.800531E+0	1.705286E+0	1.920868E+0	1.719640E+0	1.806337E+0	1.902465E+0	1.719245E+0	1.672227E+0	1.630691E+0	1.834649E+0	1.911918E+0	1.792548E+0	1.711509E+0	1.922179E+0	1.827844E+0	1.777638E+0	1.620497E+0	1.641308E+0	1.768281E+0	1.783002E+0	1.664617E+0	1.834269E+0	1.741198E+0	1.685184E+0	1.708736E+0	1.831148E+0	1.768273E+0	1.791938E+0	1.804967E+0	1.913022E+0	1.876104E+0	1.796371E+0	1.768410E+0	1.711040E+0	1.757838E+0	1.790337E+0	1.885951E+0	1.744759E+0	1.725571E+0	1.807518E+0	1.700170E+0	1.842106E+0	1.823792E+0	1.792126E+0	1.638986E+0	1.819794E+0	1.799006E+0	1.721734E+0	1.633687E+0	1.761446E+0	1.705053E+0	1.686742E+0	1.712202E+0	1.645797E+0	1.683645E+0	1.769970E+0	1.756074E+0	1.797536E+0	1.637124E+0	1.760592E+0	1.766679E+0	1.810818E+0	1.638132E+0	1.724470E+0	1.690476E+0	1.749644E+0	1.667492E+0	1.801548E+0	1.753866E+0	1.815562E+0	1.678356E+0	1.735113E+0	1.710476E+0	1.866803E+0	1.676200E+0	1.696936E+0	1.689806E+0	1.852621E+0	1.634078E+0	1.662990E+0	1.617846E+0	1.808429E+0	1.646838E+0	1.718596E+0	1.616620E+0	1.684762E+0	1.658753E+0	1.758085E+0	1.740772E+0	1.786727E+0	1.593604E+0	1.684535E+0	1.815823E+0	1.804466E+0	1.657861E+0	1.634854E+0	1.767700E+0	1.735404E+0	1.611580E+0
5.382110E+2	1.368960E+0	1.544807E+0	1.434022E+0	1.644596E+0	1.635819E+0	1.568004E+0	1.625604E+0	1.535966E+0	1.607209E+0	1.707966E+0	1.473205E+0	1.532839E+0	1.649100E+0	1.752302E+0	1.490094E+0	1.574093E+0	1.598352E+0	1.784848E+0	1.531783E+0	1.505732E+0	1.664724E+0	1.651466E+0	1.621689E+0	1.577688E+0	1.539111E+0	1.575581E+0	1.588977E+0	1.423579E+0	1.702393E+0	1.807282E+0	1.795348E+0	1.682245E+0	1.584124E+0	1.883441E+0	1.457504E+0	1.628814E+0	1.672924E+0	1.799466E+0	1.601725E+0	1.586509E+0	1.542373E+0	1.638220E+0	1.497534E+0	1.590406E+0	1.574782E+0	1.884402E+0	1.468102E+0	1.555681E+0	1.501976E+0	1.818715E+0	1.497953E+0	1.470853E+0	1.612643E+0	1.729161E+0	1.471215E+0	1.614730E+0	1.611644E+0	1.600121E+0	1.439441E+0	1.706631E+0	1.641427E+0	1.692232E+0	1.470371E+0	1.781401E+0	1.637136E+0	1.725238E+0	1.563536E+0	1.670328E+0	1.620700E+0	1.708677E+0	1.526746E+0	1.664300E+0	1.677716E+0	1.584552E+0	1.542138E+0	1.589371E+0	1.762092E+0	1.832661E+0	1.726238E+0	1.535712E+0	1.584477E+0	1.781327E+0	1.605666E+0	1.494009E+0	1.556789E+0	1.646587E+0	1.613497E+0	1.499417E+0	1.691394E+0	1.594607E+0	1.562716E+0	1.592130E+0	1.721774E+0	1.714684E+0	1.678610E+0	1.560760E+0	1.641033E+0	1.781627E+0	1.729530E+0	1.616945E+0	1.688796E+0	1.690659E+0	1.563010E+0	1.629976E+0	1.679720E+0	1.570373E+0	1.612270E+0	1.518316E+0	1.748877E+0	1.794032E+0	1.523537E+0	1.511583E+0	1.704813E+0	1.816117E+0	1.546714E+0	1.437604E+0	1.682798E+0	1.664055E+0	1.481457E+0	1.578873E+0	1.493303E+0	1.599349E+0	1.582818E+0	1.547145E+0	1.631823E+0	1.633746E+0	1.680982E+0	1.599748E+0	1.665375E+0	1.617338E+0	1.585213E+0	1.617769E+0	1.608558E+0	1.587086E+0	1.625760E+0	1.642316E+0	1.549349E+0	1.516176E+0	1.462106E+0	1.582516E+0	1.710002E+0	1.576953E+0	1.390221E+0	1.572007E+0	1.528229E+0	1.498549E+0	1.575249E+0	1.500153E+0	1.665163E+0	1.531534E+0	1.575036E+0	1.488125E+0	1.548327E+0	1.433892E+0	1.611213E+0	1.661789E+0	1.660087E+0	1.540302E+0	1.606819E+0	1.624027E+0	1.624493E+0	1.553289E+0	1.473004E+0	1.596344E+0	1.619462E+0	1.279552E+0
5.384110E+2	1.641874E+0	1.533664E+0	1.630299E+0	1.694400E+0	1.768639E+0	1.667856E+0	1.672348E+0	1.630477E+0	1.646784E+0	1.816582E+0	1.648935E+0	1.648304E+0	1.816333E+0	1.845138E+0	1.690917E+0	1.631901E+0	1.728151E+0	1.868881E+0	1.679842E+0	1.617028E+0	1.730021E+0	1.781759E+0	1.614777E+0	1.708973E+0	1.693498E+0	1.721147E+0	1.686486E+0	1.602828E+0	1.826221E+0	1.820493E+0	1.736332E+0	1.716542E+0	1.777026E+0	1.900125E+0	1.555340E+0	1.732311E+0	1.698102E+0	1.869717E+0	1.586240E+0	1.675220E+0	1.646451E+0	1.766895E+0	1.623767E+0	1.720085E+0	1.715609E+0	2.051052E+0	1.602999E+0	1.648175E+0	1.622631E+0	1.841921E+0	1.534896E+0	1.637567E+0	1.576996E+0	1.703136E+0	1.572087E+0	1.559356E+0	1.695330E+0	1.771136E+0	1.596760E+0	1.835646E+0	1.720534E+0	1.814381E+0	1.619113E+0	1.903011E+0	1.675695E+0	1.922426E+0	1.649607E+0	1.865013E+0	1.664780E+0	1.773452E+0	1.576231E+0	1.708004E+0	1.728739E+0	1.689917E+0	1.618911E+0	1.630692E+0	1.851924E+0	1.841467E+0	1.731765E+0	1.623051E+0	1.783664E+0	1.805749E+0	1.672349E+0	1.639792E+0	1.656287E+0	1.707434E+0	1.719437E+0	1.599328E+0	1.733416E+0	1.708879E+0	1.666257E+0	1.651514E+0	1.871136E+0	1.896885E+0	1.752572E+0	1.749824E+0	1.902779E+0	1.907991E+0	1.678486E+0	1.690889E+0	1.667612E+0	1.746641E+0	1.717149E+0	1.735109E+0	1.671733E+0	1.709476E+0	1.576555E+0	1.643617E+0	1.844352E+0	1.870720E+0	1.631737E+0	1.598643E+0	1.745463E+0	1.883341E+0	1.546713E+0	1.557166E+0	1.699650E+0	1.768213E+0	1.670274E+0	1.687669E+0	1.654833E+0	1.685924E+0	1.620476E+0	1.607478E+0	1.654681E+0	1.764356E+0	1.738881E+0	1.718985E+0	1.715010E+0	1.768662E+0	1.697779E+0	1.592737E+0	1.671137E+0	1.785351E+0	1.748480E+0	1.647838E+0	1.664138E+0	1.643051E+0	1.596978E+0	1.694482E+0	1.884225E+0	1.816048E+0	1.612479E+0	1.666900E+0	1.731562E+0	1.745071E+0	1.535473E+0	1.583566E+0	1.683376E+0	1.757874E+0	1.576139E+0	1.492409E+0	1.599038E+0	1.618560E+0	1.763734E+0	1.587384E+0	1.738201E+0	1.689099E+0	1.628858E+0	1.714818E+0	1.734608E+0	1.673164E+0	1.646906E+0	1.693920E+0	1.629398E+0	1.279551E+0
5.386120E+2	2.111567E+0	1.902647E+0	1.799218E+0	2.010650E+0	1.904012E+0	2.027562E+0	1.987259E+0	1.992972E+0	1.947563E+0	2.142431E+0	1.885007E+0	1.922669E+0	2.096148E+0	2.249567E+0	1.952766E+0	1.930229E+0	2.019380E+0	2.113032E+0	1.938158E+0	1.877843E+0	1.950142E+0	2.005430E+0	1.932743E+0	1.949497E+0	1.938125E+0	1.963400E+0	1.998314E+0	1.962390E+0	2.079084E+0	2.286178E+0	2.009277E+0	2.080937E+0	1.972094E+0	2.101535E+0	1.908168E+0	1.960499E+0	2.150265E+0	2.132591E+0	1.904211E+0	2.045205E+0	2.033353E+0	2.064882E+0	1.947442E+0	1.953084E+0	2.023342E+0	2.374481E+0	1.821664E+0	2.010105E+0	1.881935E+0	2.113445E+0	1.834786E+0	1.889889E+0	1.975599E+0	2.046881E+0	1.876720E+0	1.935253E+0	1.999535E+0	2.015602E+0	1.911398E+0	1.984701E+0	2.085472E+0	2.155744E+0	1.949273E+0	2.111664E+0	1.988838E+0	2.227170E+0	1.902231E+0	2.028697E+0	2.051973E+0	2.123005E+0	1.865067E+0	2.033598E+0	2.087122E+0	1.976684E+0	1.922808E+0	1.896018E+0	2.165185E+0	2.167299E+0	2.074360E+0	1.918660E+0	2.044667E+0	2.159281E+0	1.948442E+0	1.824165E+0	1.987944E+0	2.054365E+0	2.030567E+0	1.928740E+0	2.106813E+0	2.040151E+0	2.035886E+0	1.960302E+0	2.076948E+0	2.212462E+0	2.114032E+0	2.106570E+0	2.086001E+0	2.155992E+0	2.086828E+0	1.943733E+0	1.989615E+0	2.181062E+0	1.938930E+0	2.027650E+0	2.061960E+0	2.061258E+0	1.864662E+0	1.892004E+0	2.120668E+0	2.362903E+0	1.892687E+0	1.791870E+0	2.019558E+0	2.187682E+0	1.834501E+0	1.900314E+0	2.131096E+0	2.051882E+0	1.997412E+0	1.824197E+0	1.959820E+0	2.041334E+0	2.054125E+0	1.967239E+0	2.075244E+0	2.133666E+0	2.034397E+0	1.968812E+0	2.068228E+0	2.100187E+0	2.077255E+0	1.893108E+0	2.014751E+0	2.029878E+0	2.046987E+0	1.884190E+0	1.987745E+0	2.007132E+0	1.945033E+0	1.930980E+0	2.092132E+0	2.146494E+0	1.926972E+0	1.873047E+0	2.053603E+0	2.124783E+0	1.900477E+0	1.900079E+0	2.009973E+0	1.968199E+0	1.840071E+0	1.784734E+0	1.933485E+0	1.965084E+0	1.901567E+0	1.997180E+0	1.957160E+0	2.051099E+0	1.906085E+0	1.914559E+0	2.162045E+0	2.115685E+0	1.896569E+0	1.986655E+0	1.894410E+0	1.858839E+0
5.388180E+2	2.427818E+0	2.213435E+0	2.087093E+0	2.318184E+0	2.377819E+0	2.298246E+0	2.422722E+0	2.406910E+0	2.381768E+0	2.426590E+0	2.324335E+0	2.261650E+0	2.568336E+0	2.627314E+0	2.291171E+0	2.180040E+0	2.478585E+0	2.521840E+0	2.329835E+0	2.228596E+0	2.455681E+0	2.467967E+0	2.222077E+0	2.357389E+0	2.386064E+0	2.401155E+0	2.309125E+0	2.308083E+0	2.451611E+0	2.565809E+0	2.382335E+0	2.322080E+0	2.378488E+0	2.646170E+0	2.064288E+0	2.469248E+0	2.449258E+0	2.658339E+0	2.312001E+0	2.365426E+0	2.460980E+0	2.419306E+0	2.259246E+0	2.360043E+0	2.253879E+0	2.849749E+0	2.218742E+0	2.396167E+0	2.258717E+0	2.527691E+0	2.236810E+0	2.194029E+0	2.328833E+0	2.494724E+0	2.172273E+0	2.304760E+0	2.335407E+0	2.342284E+0	2.133429E+0	2.372999E+0	2.339662E+0	2.457845E+0	2.220840E+0	2.616018E+0	2.398962E+0	2.635885E+0	2.324767E+0	2.457750E+0	2.378407E+0	2.445753E+0	2.251866E+0	2.442228E+0	2.522040E+0	2.378592E+0	2.324805E+0	2.320104E+0	2.424318E+0	2.586698E+0	2.318598E+0	2.209790E+0	2.500278E+0	2.522117E+0	2.370771E+0	2.232574E+0	2.284297E+0	2.415172E+0	2.324969E+0	2.234411E+0	2.503023E+0	2.388737E+0	2.357642E+0	2.289606E+0	2.398017E+0	2.667364E+0	2.553034E+0	2.294505E+0	2.492279E+0	2.661443E+0	2.462357E+0	2.319420E+0	2.397416E+0	2.390438E+0	2.297112E+0	2.344190E+0	2.395141E+0	2.383148E+0	2.325396E+0	2.249057E+0	2.332960E+0	2.598692E+0	2.362398E+0	2.279186E+0	2.414438E+0	2.628915E+0	2.212736E+0	2.272157E+0	2.419846E+0	2.460758E+0	2.267466E+0	2.226313E+0	2.164273E+0	2.424084E+0	2.246984E+0	2.314712E+0	2.426094E+0	2.590798E+0	2.375751E+0	2.320843E+0	2.441069E+0	2.442107E+0	2.315153E+0	2.346047E+0	2.358365E+0	2.325073E+0	2.490322E+0	2.212211E+0	2.333334E+0	2.437410E+0	2.301792E+0	2.247455E+0	2.474261E+0	2.414911E+0	2.313701E+0	2.359510E+0	2.333333E+0	2.503324E+0	2.295898E+0	2.170887E+0	2.444628E+0	2.348280E+0	2.207810E+0	2.259093E+0	2.325887E+0	2.382216E+0	2.272138E+0	2.244431E+0	2.358386E+0	2.470842E+0	2.389785E+0	2.354894E+0	2.455683E+0	2.513572E+0	2.242653E+0	2.319845E+0	2.543685E+0	2.325091E+0
5.390080E+2	2.038945E+0	1.846928E+0	1.790891E+0	1.876180E+0	1.971698E+0	1.837483E+0	1.981108E+0	1.933154E+0	1.914771E+0	2.059050E+0	1.960169E+0	1.894067E+0	2.076473E+0	2.202615E+0	1.931684E+0	1.834227E+0	2.049920E+0	2.142556E+0	1.949709E+0	1.953166E+0	2.017547E+0	2.110750E+0	1.925833E+0	1.989584E+0	2.035976E+0	2.008027E+0	1.995266E+0	1.918645E+0	1.933402E+0	2.161775E+0	1.972393E+0	1.945896E+0	1.939582E+0	2.258848E+0	1.804089E+0	1.880695E+0	2.019127E+0	2.177914E+0	1.909372E+0	1.919713E+0	1.991495E+0	1.980227E+0	1.959310E+0	1.884555E+0	1.973269E+0	2.210297E+0	1.839071E+0	1.919624E+0	1.963430E+0	2.093719E+0	1.825006E+0	1.891016E+0	1.851372E+0	2.012179E+0	1.726421E+0	1.921410E+0	1.920374E+0	1.955307E+0	1.880158E+0	1.871970E+0	1.867140E+0	2.060860E+0	1.821942E+0	2.084784E+0	2.034407E+0	2.175783E+0	1.844106E+0	2.055978E+0	2.010276E+0	2.037013E+0	1.822651E+0	2.070746E+0	2.003298E+0	2.042944E+0	1.856697E+0	1.946038E+0	1.984369E+0	2.170601E+0	1.994791E+0	1.927619E+0	2.044667E+0	2.133697E+0	1.962480E+0	1.904559E+0	1.831746E+0	1.930538E+0	1.956967E+0	1.898074E+0	2.021569E+0	2.051693E+0	1.999145E+0	1.973259E+0	2.006384E+0	2.095756E+0	1.963722E+0	1.872491E+0	1.977888E+0	2.254012E+0	1.956790E+0	1.917495E+0	1.948306E+0	2.006397E+0	1.971089E+0	1.940802E+0	1.986654E+0	1.935949E+0	1.926570E+0	1.867608E+0	2.038671E+0	2.117957E+0	1.956334E+0	1.875744E+0	2.038140E+0	2.120458E+0	1.913202E+0	1.874010E+0	1.913126E+0	2.040801E+0	1.833843E+0	1.868995E+0	1.855898E+0	2.021970E+0	1.968536E+0	1.833166E+0	2.034102E+0	2.016567E+0	2.024748E+0	2.021049E+0	2.025519E+0	2.053982E+0	1.918269E+0	1.925289E+0	1.886181E+0	2.007848E+0	2.046988E+0	1.866519E+0	1.940119E+0	2.014855E+0	1.868896E+0	1.975538E+0	2.016636E+0	2.067548E+0	1.839181E+0	1.843598E+0	1.938421E+0	2.050009E+0	1.790507E+0	1.862372E+0	2.009973E+0	1.903073E+0	1.802524E+0	1.831848E+0	1.987818E+0	2.030260E+0	1.890270E+0	1.875843E+0	1.907450E+0	2.008903E+0	1.918845E+0	1.941796E+0	1.989175E+0	2.040444E+0	1.869021E+0	1.986652E+0	1.871221E+0	1.809387E+0
5.392030E+2	1.558712E+0	1.521283E+0	1.362648E+0	1.604753E+0	1.513216E+0	1.466949E+0	1.493981E+0	1.486915E+0	1.566501E+0	1.630069E+0	1.545190E+0	1.492584E+0	1.591170E+0	1.670135E+0	1.612142E+0	1.406864E+0	1.490368E+0	1.594071E+0	1.618938E+0	1.497862E+0	1.508849E+0	1.572204E+0	1.572315E+0	1.507534E+0	1.530413E+0	1.444891E+0	1.538189E+0	1.475861E+0	1.592090E+0	1.758842E+0	1.613034E+0	1.576143E+0	1.462747E+0	1.695141E+0	1.370076E+0	1.602628E+0	1.608929E+0	1.621574E+0	1.481970E+0	1.583263E+0	1.495990E+0	1.643863E+0	1.520191E+0	1.462836E+0	1.538271E+0	1.736267E+0	1.481157E+0	1.460171E+0	1.578179E+0	1.735169E+0	1.391471E+0	1.460715E+0	1.492738E+0	1.589276E+0	1.470208E+0	1.467779E+0	1.581111E+0	1.518998E+0	1.436094E+0	1.617698E+0	1.511696E+0	1.652970E+0	1.394872E+0	1.639312E+0	1.540154E+0	1.721654E+0	1.622779E+0	1.676527E+0	1.565897E+0	1.582481E+0	1.402525E+0	1.539743E+0	1.618188E+0	1.518291E+0	1.451502E+0	1.448010E+0	1.582427E+0	1.717079E+0	1.515155E+0	1.531233E+0	1.566161E+0	1.658054E+0	1.512075E+0	1.396462E+0	1.577115E+0	1.515288E+0	1.518709E+0	1.493481E+0	1.597744E+0	1.554208E+0	1.688523E+0	1.408584E+0	1.605344E+0	1.724210E+0	1.649980E+0	1.526998E+0	1.689968E+0	1.663533E+0	1.575186E+0	1.577587E+0	1.586052E+0	1.623481E+0	1.454337E+0	1.593409E+0	1.614682E+0	1.550829E+0	1.557507E+0	1.426280E+0	1.597240E+0	1.691016E+0	1.501898E+0	1.422402E+0	1.478338E+0	1.766004E+0	1.512649E+0	1.520101E+0	1.563700E+0	1.578732E+0	1.486945E+0	1.475410E+0	1.398419E+0	1.627827E+0	1.475547E+0	1.478991E+0	1.621539E+0	1.666398E+0	1.567601E+0	1.558868E+0	1.589190E+0	1.662390E+0	1.530671E+0	1.533140E+0	1.528912E+0	1.536417E+0	1.615810E+0	1.495424E+0	1.636051E+0	1.568029E+0	1.463194E+0	1.574518E+0	1.608953E+0	1.517179E+0	1.521353E+0	1.443301E+0	1.590522E+0	1.582671E+0	1.487507E+0	1.447591E+0	1.655452E+0	1.452528E+0	1.460186E+0	1.457073E+0	1.542291E+0	1.572936E+0	1.482417E+0	1.495809E+0	1.571319E+0	1.750174E+0	1.464145E+0	1.519618E+0	1.543979E+0	1.661686E+0	1.512607E+0	1.420229E+0	1.427330E+0	1.456163E+0
5.394100E+2	1.149926E+0	1.019811E+0	9.962614E-1	1.056918E+0	1.099432E+0	1.063933E+0	1.097883E+0	1.038284E+0	1.036184E+0	1.134164E+0	1.212784E+0	1.076271E+0	1.184565E+0	1.215552E+0	1.189412E+0	1.035245E+0	1.064977E+0	1.144380E+0	1.159010E+0	1.029069E+0	1.055971E+0	1.125950E+0	1.169423E+0	1.072587E+0	1.164016E+0	1.121886E+0	1.143072E+0	1.002134E+0	1.107179E+0	1.189671E+0	1.290559E+0	1.103501E+0	1.105121E+0	1.230352E+0	1.120286E+0	1.061456E+0	1.160962E+0	1.167209E+0	1.079345E+0	1.135383E+0	1.083070E+0	1.119000E+0	1.112362E+0	1.085398E+0	1.118921E+0	1.157305E+0	1.204833E+0	1.061040E+0	1.066982E+0	1.194443E+0	1.112226E+0	1.046184E+0	1.083331E+0	1.118662E+0	1.073780E+0	9.971103E-1	1.063168E+0	1.094747E+0	1.051165E+0	1.116668E+0	1.028629E+0	1.202544E+0	9.835808E-1	1.209203E+0	1.059925E+0	1.195821E+0	1.083995E+0	1.151993E+0	1.057186E+0	1.082164E+0	1.027845E+0	1.151872E+0	1.135890E+0	1.063157E+0	1.055905E+0	1.005438E+0	1.142480E+0	1.171092E+0	1.065361E+0	1.012797E+0	1.084221E+0	1.130083E+0	1.051140E+0	1.041652E+0	1.050742E+0	1.074418E+0	1.033614E+0	1.033491E+0	1.109086E+0	1.152526E+0	1.100679E+0	1.060925E+0	1.096102E+0	1.212143E+0	1.096458E+0	9.901934E-1	1.147131E+0	1.226577E+0	1.240978E+0	1.071900E+0	1.079744E+0	1.067019E+0	1.056238E+0	1.126029E+0	1.110352E+0	1.113975E+0	1.120583E+0	1.000475E+0	1.118743E+0	1.180522E+0	1.090741E+0	1.044439E+0	1.103201E+0	1.169544E+0	1.002853E+0	1.017935E+0	1.103046E+0	1.094503E+0	1.115894E+0	1.107425E+0	1.047120E+0	1.040032E+0	1.062439E+0	1.054426E+0	1.093550E+0	1.195753E+0	1.053762E+0	1.033094E+0	1.092838E+0	1.194558E+0	1.057195E+0	9.991483E-1	1.154578E+0	1.101336E+0	1.099501E+0	1.053644E+0	1.084086E+0	1.074865E+0	1.028124E+0	1.086666E+0	1.076991E+0	1.205905E+0	9.979361E-1	1.079000E+0	1.106284E+0	1.130521E+0	1.100276E+0	9.551097E-1	1.167375E+0	1.084191E+0	1.028397E+0	1.044819E+0	1.044846E+0	1.115611E+0	1.041801E+0	1.037938E+0	1.173644E+0	1.120561E+0	1.040764E+0	1.040693E+0	1.169824E+0	1.147750E+0	1.021892E+0	1.129876E+0	1.026501E+0	9.828435E-1
5.396110E+2	9.988289E-1	9.158026E-1	8.630294E-1	9.685166E-1	8.976496E-1	9.520507E-1	9.748701E-1	9.270235E-1	9.706014E-1	9.937300E-1	1.033877E+0	8.993647E-1	1.037006E+0	1.069361E+0	1.066254E+0	9.505980E-1	9.569933E-1	1.038771E+0	1.101256E+0	9.728585E-1	1.004363E+0	1.013029E+0	9.521782E-1	8.701457E-1	9.846235E-1	9.656955E-1	1.015091E+0	9.466526E-1	9.927160E-1	1.070773E+0	1.126160E+0	9.320204E-1	9.772413E-1	1.199366E+0	1.040145E+0	9.604548E-1	1.025629E+0	1.060702E+0	9.420392E-1	1.000154E+0	9.699397E-1	1.045633E+0	9.343406E-1	9.251450E-1	9.175907E-1	1.159774E+0	9.916087E-1	9.504491E-1	9.188069E-1	1.086529E+0	1.055725E+0	9.098846E-1	9.126562E-1	1.080708E+0	9.335686E-1	9.609044E-1	9.421634E-1	9.719670E-1	1.018808E+0	9.763804E-1	9.663993E-1	1.001869E+0	1.023020E+0	1.079915E+0	9.886492E-1	1.075119E+0	1.067229E+0	1.004428E+0	1.027401E+0	1.059828E+0	9.682596E-1	1.112537E+0	9.779593E-1	9.773443E-1	9.556726E-1	9.173564E-1	1.019250E+0	1.054410E+0	1.042153E+0	9.153812E-1	9.926416E-1	9.754118E-1	1.039442E+0	8.626391E-1	9.020311E-1	9.911548E-1	1.035845E+0	9.939234E-1	9.638088E-1	9.586110E-1	9.793239E-1	9.767102E-1	1.046707E+0	1.101394E+0	9.974426E-1	9.586825E-1	1.041293E+0	1.099032E+0	9.322896E-1	9.991478E-1	9.473406E-1	1.040147E+0	1.011881E+0	9.740435E-1	9.951102E-1	1.009361E+0	9.955779E-1	9.283976E-1	9.884468E-1	1.082085E+0	9.596306E-1	9.000495E-1	9.603460E-1	1.002095E+0	8.489744E-1	9.294572E-1	9.367603E-1	1.055720E+0	9.062185E-1	9.836959E-1	9.352904E-1	1.027502E+0	9.722860E-1	9.806864E-1	9.632662E-1	1.068521E+0	9.572663E-1	9.876704E-1	9.947232E-1	1.030529E+0	9.469501E-1	9.180962E-1	9.611524E-1	1.006608E+0	9.358767E-1	9.211111E-1	9.155657E-1	1.023011E+0	9.193575E-1	1.006691E+0	1.044469E+0	1.048012E+0	9.323704E-1	9.928327E-1	1.015783E+0	9.295649E-1	8.499203E-1	8.716969E-1	1.039893E+0	1.013727E+0	9.952671E-1	9.612985E-1	9.579130E-1	9.809129E-1	1.012428E+0	9.383512E-1	1.033984E+0	1.007297E+0	9.468093E-1	9.408231E-1	1.027740E+0	1.064857E+0	9.840127E-1	9.299627E-1	9.701850E-1	7.497168E-1
5.398120E+2	1.076134E+0	9.640923E-1	9.070438E-1	1.025790E+0	1.053456E+0	1.030248E+0	9.687190E-1	1.040677E+0	1.014699E+0	1.135261E+0	9.798866E-1	1.006355E+0	1.052308E+0	1.116313E+0	1.084007E+0	9.722756E-1	1.080248E+0	1.046720E+0	1.144308E+0	9.739831E-1	1.014896E+0	1.086862E+0	1.035126E+0	9.984248E-1	1.047683E+0	1.051760E+0	1.061814E+0	9.647902E-1	1.046826E+0	1.015727E+0	1.110352E+0	9.866806E-1	9.967483E-1	1.078998E+0	1.051593E+0	9.729236E-1	9.868115E-1	1.119621E+0	1.070053E+0	1.089947E+0	1.025373E+0	1.064822E+0	1.108046E+0	1.007379E+0	9.687050E-1	1.184464E+0	1.068848E+0	1.081147E+0	9.812524E-1	1.115537E+0	1.066590E+0	9.853561E-1	9.925934E-1	1.009140E+0	9.809780E-1	9.843311E-1	1.076738E+0	1.019106E+0	1.098025E+0	1.007694E+0	1.036012E+0	1.133835E+0	1.169508E+0	1.178480E+0	1.017861E+0	1.112166E+0	1.142121E+0	1.050309E+0	1.027402E+0	9.872368E-1	1.019765E+0	1.087407E+0	1.089726E+0	1.014276E+0	1.000457E+0	9.804265E-1	1.037676E+0	1.175496E+0	1.106252E+0	9.422543E-1	1.073918E+0	1.121942E+0	1.089747E+0	9.130196E-1	9.555249E-1	1.061609E+0	1.122827E+0	9.385268E-1	9.782170E-1	1.074037E+0	1.067279E+0	9.518775E-1	1.024362E+0	1.159746E+0	1.179962E+0	1.044212E+0	1.075434E+0	1.161622E+0	1.143753E+0	9.574044E-1	9.822959E-1	1.052463E+0	1.021861E+0	9.923277E-1	9.551737E-1	9.978647E-1	1.114632E+0	9.738630E-1	1.026637E+0	1.139315E+0	1.102198E+0	8.936797E-1	1.040483E+0	1.256324E+0	1.199019E+0	9.641312E-1	1.042373E+0	1.083422E+0	1.112600E+0	9.730294E-1	9.759557E-1	1.095851E+0	1.081839E+0	9.348785E-1	1.011265E+0	1.142834E+0	1.104421E+0	1.048992E+0	9.670192E-1	1.076734E+0	1.080404E+0	1.003916E+0	1.070380E+0	1.050667E+0	1.081813E+0	9.884816E-1	1.002268E+0	1.028528E+0	1.017248E+0	1.027258E+0	1.059568E+0	1.114554E+0	9.868231E-1	1.057185E+0	1.026361E+0	9.949925E-1	9.867973E-1	9.036915E-1	1.110312E+0	1.043620E+0	1.016249E+0	9.420239E-1	1.033979E+0	1.020019E+0	1.090382E+0	1.000163E+0	1.035168E+0	1.115009E+0	9.932059E-1	1.070202E+0	1.037212E+0	1.101840E+0	9.960651E-1	8.918833E-1	1.009938E+0	1.110004E+0
5.400460E+2	1.179209E+0	9.690452E-1	9.736596E-1	1.127887E+0	1.035576E+0	1.013405E+0	1.092963E+0	1.075371E+0	1.120989E+0	1.195604E+0	1.103746E+0	1.038136E+0	1.175821E+0	1.197413E+0	1.257093E+0	1.064149E+0	1.087883E+0	1.192075E+0	1.209412E+0	1.135868E+0	1.113896E+0	1.103148E+0	1.111161E+0	1.089623E+0	1.146621E+0	1.177138E+0	1.170497E+0	1.065084E+0	1.167533E+0	1.156644E+0	1.265267E+0	1.108858E+0	1.167976E+0	1.297091E+0	1.072409E+0	1.041505E+0	1.075985E+0	1.178541E+0	1.140254E+0	1.041265E+0	1.079675E+0	1.104327E+0	1.073521E+0	1.041117E+0	1.036511E+0	1.238780E+0	1.178724E+0	1.070089E+0	1.083915E+0	1.206047E+0	1.111139E+0	1.002252E+0	1.015277E+0	1.103480E+0	1.103033E+0	1.094012E+0	1.090309E+0	1.110095E+0	1.119224E+0	1.147983E+0	1.095076E+0	1.167644E+0	1.072601E+0	1.215603E+0	1.169759E+0	1.231674E+0	1.185716E+0	1.129672E+0	1.133432E+0	1.187141E+0	1.080361E+0	1.091777E+0	1.144395E+0	1.118556E+0	1.167866E+0	1.117439E+0	1.148239E+0	1.193107E+0	1.299653E+0	1.013917E+0	1.120853E+0	1.190555E+0	1.234812E+0	9.977025E-1	1.088187E+0	1.107511E+0	1.157397E+0	1.013708E+0	1.159513E+0	1.129441E+0	1.185292E+0	1.014499E+0	1.120800E+0	1.206188E+0	1.256311E+0	1.077974E+0	1.142578E+0	1.206500E+0	1.210595E+0	1.050433E+0	1.134824E+0	1.115164E+0	1.189307E+0	1.121458E+0	1.130892E+0	1.139267E+0	1.180109E+0	1.031524E+0	1.219833E+0	1.296126E+0	1.204033E+0	1.103893E+0	1.071841E+0	1.174434E+0	1.115619E+0	1.046631E+0	1.074957E+0	1.142150E+0	1.174077E+0	1.015694E+0	1.082137E+0	1.207485E+0	1.162863E+0	1.061130E+0	1.146120E+0	1.201383E+0	1.241929E+0	1.085330E+0	1.076679E+0	1.173765E+0	1.199933E+0	9.765013E-1	1.019180E+0	1.142090E+0	1.204533E+0	1.116598E+0	1.064547E+0	1.152094E+0	1.105349E+0	1.111803E+0	1.150165E+0	1.161921E+0	1.203525E+0	1.064820E+0	1.099231E+0	1.118837E+0	1.199716E+0	9.802488E-1	1.112739E+0	1.115153E+0	1.147664E+0	9.998470E-1	9.820611E-1	1.091713E+0	1.161559E+0	1.071133E+0	1.128669E+0	1.128333E+0	1.169519E+0	1.048638E+0	1.202977E+0	1.254873E+0	1.159636E+0	1.067998E+0	1.132505E+0	1.067617E+0
5.402160E+2	8.231329E-1	7.808387E-1	6.941117E-1	7.219916E-1	7.622752E-1	8.052807E-1	8.457064E-1	7.966206E-1	7.919433E-1	7.479723E-1	8.644968E-1	7.860172E-1	7.998205E-1	8.634128E-1	9.087021E-1	7.327881E-1	8.053800E-1	8.786540E-1	8.502898E-1	8.188430E-1	8.200523E-1	8.838211E-1	7.852930E-1	7.709296E-1	7.900091E-1	8.583812E-1	8.728894E-1	7.055214E-1	8.449530E-1	8.792144E-1	9.069613E-1	8.098409E-1	8.569498E-1	9.181086E-1	8.215783E-1	7.310174E-1	8.074151E-1	8.080253E-1	7.902804E-1	8.378801E-1	7.855392E-1	7.916669E-1	8.318438E-1	7.659464E-1	8.122314E-1	9.326343E-1	8.240733E-1	7.533971E-1	7.515827E-1	8.161668E-1	8.416736E-1	8.039991E-1	8.003123E-1	8.334721E-1	8.387488E-1	8.352505E-1	8.335990E-1	8.130096E-1	8.179754E-1	8.561328E-1	8.208461E-1	8.709949E-1	8.269528E-1	9.122227E-1	7.678143E-1	8.886868E-1	8.268998E-1	8.333024E-1	7.653016E-1	7.705807E-1	8.430299E-1	9.169630E-1	8.188133E-1	8.578580E-1	7.967938E-1	7.466363E-1	8.499502E-1	8.837892E-1	9.161668E-1	7.328644E-1	8.506918E-1	8.684227E-1	8.955461E-1	6.975611E-1	7.447607E-1	8.054138E-1	8.696854E-1	7.693700E-1	8.365421E-1	8.258717E-1	8.290224E-1	7.899242E-1	8.455983E-1	8.441676E-1	9.270607E-1	8.382670E-1	8.660373E-1	8.262305E-1	8.934003E-1	7.618098E-1	7.598591E-1	7.826291E-1	7.967522E-1	8.083458E-1	7.851629E-1	8.449666E-1	9.074795E-1	7.908998E-1	7.974970E-1	9.527434E-1	8.667057E-1	7.896334E-1	7.872946E-1	9.397602E-1	8.759917E-1	7.333740E-1	7.435095E-1	8.307805E-1	7.997332E-1	7.725042E-1	7.297079E-1	8.087879E-1	9.083793E-1	7.449425E-1	7.575563E-1	8.861194E-1	8.668020E-1	8.400455E-1	8.273496E-1	8.919118E-1	8.018903E-1	7.929419E-1	8.382706E-1	8.039380E-1	8.054174E-1	8.128742E-1	7.800175E-1	7.383668E-1	8.584472E-1	7.610526E-1	7.703564E-1	8.517746E-1	8.679157E-1	8.041372E-1	8.053975E-1	8.699793E-1	8.183338E-1	6.763043E-1	8.905570E-1	8.226189E-1	8.351409E-1	6.914599E-1	7.635231E-1	7.745196E-1	8.813734E-1	8.112918E-1	8.114770E-1	8.051990E-1	8.841705E-1	8.239300E-1	8.465835E-1	8.557120E-1	8.738164E-1	7.633661E-1	8.542439E-1	7.285227E-1
5.404070E+2	5.572472E-1	5.827268E-1	5.156773E-1	5.837872E-1	5.362269E-1	5.755012E-1	6.107557E-1	5.812774E-1	5.307426E-1	5.932767E-1	5.998406E-1	5.794494E-1	6.544486E-1	6.105103E-1	5.536545E-1	4.819446E-1	5.926836E-1	5.993023E-1	5.919742E-1	5.670200E-1	5.462186E-1	5.819767E-1	5.581735E-1	5.263969E-1	5.399455E-1	5.746893E-1	6.138793E-1	5.486798E-1	5.681584E-1	6.744449E-1	6.276933E-1	5.601230E-1	5.773500E-1	6.201666E-1	5.790719E-1	5.477172E-1	5.126174E-1	6.018052E-1	6.343936E-1	5.933856E-1	5.954831E-1	5.828513E-1	5.739827E-1	4.833951E-1	5.347509E-1	6.351291E-1	6.619794E-1	5.794687E-1	5.219148E-1	6.189058E-1	6.134961E-1	5.347790E-1	5.021705E-1	5.927433E-1	5.684127E-1	5.594521E-1	5.712354E-1	6.178766E-1	6.071005E-1	5.830731E-1	5.666548E-1	6.310590E-1	5.846835E-1	6.139627E-1	5.516525E-1	6.401116E-1	5.988659E-1	6.038973E-1	5.687259E-1	6.242814E-1	5.471239E-1	6.012022E-1	6.220064E-1	5.526246E-1	5.846001E-1	5.726516E-1	5.654819E-1	6.383143E-1	6.387755E-1	5.391500E-1	5.713739E-1	6.381605E-1	6.603992E-1	4.724545E-1	5.842805E-1	5.769729E-1	5.741683E-1	5.408589E-1	5.856098E-1	6.019460E-1	6.252812E-1	5.621105E-1	6.727159E-1	5.797977E-1	6.896668E-1	5.231608E-1	6.247753E-1	6.301895E-1	6.260334E-1	5.626354E-1	5.554299E-1	5.833336E-1	5.428123E-1	5.489436E-1	5.569592E-1	5.886022E-1	6.550875E-1	5.735606E-1	5.335360E-1	6.791824E-1	6.197577E-1	5.443817E-1	5.759176E-1	6.525312E-1	5.799808E-1	5.313106E-1	5.603703E-1	5.725989E-1	5.900583E-1	6.039770E-1	5.376793E-1	6.618394E-1	6.173782E-1	5.672963E-1	5.952738E-1	6.068841E-1	6.207376E-1	5.811330E-1	6.080311E-1	6.701251E-1	7.020888E-1	5.652797E-1	4.719012E-1	5.814405E-1	6.030957E-1	5.345536E-1	5.980639E-1	5.817017E-1	6.039316E-1	5.896769E-1	6.031028E-1	6.059128E-1	6.678843E-1	5.816294E-1	5.914868E-1	5.042873E-1	6.077543E-1	5.140483E-1	5.153930E-1	5.012579E-1	6.021300E-1	5.340558E-1	5.160091E-1	5.941959E-1	6.554158E-1	5.434365E-1	6.221079E-1	5.964391E-1	6.533406E-1	5.243194E-1	6.097779E-1	6.338136E-1	6.121019E-1	6.800671E-1	5.461697E-1	4.671376E-1
5.406030E+2	3.792095E-1	3.388025E-1	3.515166E-1	3.484669E-1	3.829740E-1	3.830165E-1	3.831822E-1	3.551676E-1	3.848761E-1	4.265117E-1	4.230515E-1	3.824151E-1	3.724482E-1	3.512075E-1	3.805681E-1	3.756201E-1	3.614462E-1	3.983047E-1	4.491651E-1	3.882722E-1	3.766530E-1	3.984801E-1	3.409278E-1	3.600345E-1	3.812105E-1	3.855610E-1	4.239378E-1	3.555613E-1	3.798121E-1	4.322446E-1	4.327325E-1	3.982894E-1	3.616904E-1	3.853888E-1	4.135861E-1	4.093079E-1	3.615461E-1	4.341099E-1	3.701058E-1	4.029831E-1	3.839320E-1	3.853231E-1	3.711465E-1	3.705845E-1	3.814056E-1	4.190986E-1	3.997982E-1	3.964919E-1	3.525727E-1	3.972768E-1	3.874922E-1	3.658115E-1	3.757829E-1	3.943038E-1	3.797819E-1	3.294418E-1	3.461906E-1	4.358983E-1	4.575919E-1	3.751452E-1	3.757478E-1	4.271140E-1	4.111524E-1	3.797065E-1	3.775537E-1	4.524855E-1	4.311948E-1	3.856514E-1	3.935962E-1	3.919912E-1	3.814973E-1	3.564599E-1	3.632420E-1	3.755674E-1	4.193230E-1	3.616958E-1	4.077002E-1	4.566861E-1	4.442694E-1	3.857470E-1	4.248453E-1	4.323207E-1	3.971761E-1	3.641900E-1	3.713780E-1	4.083116E-1	4.046636E-1	3.825833E-1	3.658940E-1	3.999512E-1	3.792322E-1	3.710066E-1	4.010419E-1	3.952157E-1	4.307993E-1	3.892404E-1	4.005856E-1	4.022654E-1	3.610977E-1	3.753885E-1	3.838358E-1	4.142678E-1	4.175048E-1	3.969595E-1	3.721145E-1	3.529317E-1	4.741271E-1	3.595502E-1	3.785295E-1	4.365254E-1	4.835542E-1	3.628328E-1	3.842833E-1	4.251918E-1	3.849891E-1	3.878353E-1	3.952094E-1	4.307655E-1	4.012388E-1	3.490530E-1	3.388736E-1	3.941407E-1	3.594714E-1	4.008220E-1	3.552790E-1	4.683928E-1	4.000050E-1	4.096600E-1	4.233419E-1	4.437172E-1	4.491047E-1	3.662257E-1	3.558462E-1	3.842761E-1	4.195692E-1	3.523195E-1	3.855812E-1	4.239335E-1	3.853087E-1	3.805982E-1	4.230725E-1	3.769692E-1	4.145096E-1	3.645750E-1	3.740507E-1	4.131556E-1	4.661992E-1	3.415089E-1	4.389037E-1	3.795473E-1	3.702226E-1	3.787913E-1	3.711219E-1	3.552148E-1	4.034737E-1	3.705898E-1	4.339220E-1	4.265436E-1	4.805088E-1	3.450065E-1	4.132284E-1	4.080893E-1	3.917106E-1	3.897152E-1	3.971012E-1	3.258484E-1
5.408060E+2	4.272325E-1	3.598516E-1	3.979091E-1	4.119665E-1	3.357209E-1	4.263246E-1	3.831827E-1	4.113953E-1	3.916609E-1	4.352887E-1	4.177586E-1	4.110166E-1	4.434950E-1	4.675209E-1	4.660007E-1	4.158789E-1	3.832611E-1	4.812020E-1	4.554661E-1	5.119348E-1	4.071955E-1	4.538541E-1	4.238762E-1	4.061357E-1	4.083908E-1	4.609998E-1	4.716777E-1	4.291810E-1	3.975025E-1	4.784829E-1	4.748868E-1	4.282987E-1	4.342995E-1	4.521266E-1	4.000558E-1	4.467151E-1	4.265914E-1	4.647020E-1	3.659758E-1	4.224559E-1	3.918506E-1	4.699777E-1	4.250925E-1	4.296257E-1	4.043548E-1	5.030425E-1	4.520170E-1	4.578193E-1	3.568068E-1	4.425305E-1	4.613787E-1	4.187550E-1	3.725426E-1	4.550273E-1	3.848264E-1	3.986571E-1	4.016033E-1	4.413796E-1	4.073833E-1	3.901762E-1	3.356689E-1	4.478351E-1	4.088983E-1	4.385901E-1	3.915755E-1	4.321684E-1	4.826147E-1	3.918508E-1	4.400596E-1	4.232610E-1	4.239135E-1	4.329415E-1	4.446376E-1	4.494314E-1	4.577097E-1	3.812698E-1	4.134582E-1	4.731974E-1	4.752131E-1	3.611130E-1	4.465951E-1	4.625571E-1	5.293720E-1	3.856288E-1	3.574693E-1	4.019060E-1	4.470403E-1	3.677447E-1	4.019122E-1	4.299611E-1	4.271056E-1	4.498236E-1	4.527890E-1	4.488038E-1	4.856735E-1	3.712340E-1	4.529340E-1	4.424173E-1	5.057181E-1	4.052049E-1	4.177309E-1	4.601735E-1	3.709303E-1	3.569637E-1	3.812426E-1	4.517979E-1	4.265060E-1	3.795101E-1	4.257060E-1	4.834547E-1	5.128307E-1	3.861901E-1	3.831226E-1	4.691927E-1	4.343243E-1	3.471824E-1	4.131857E-1	4.329810E-1	4.253901E-1	4.023850E-1	3.716314E-1	4.157860E-1	4.336480E-1	3.695377E-1	4.147059E-1	3.952064E-1	4.229221E-1	4.073892E-1	4.117980E-1	4.529589E-1	4.572285E-1	3.817202E-1	4.161485E-1	4.382487E-1	4.206740E-1	3.633638E-1	4.344283E-1	4.316557E-1	4.473057E-1	3.965935E-1	4.846312E-1	4.254638E-1	4.378472E-1	4.016598E-1	4.116612E-1	4.038093E-1	4.743877E-1	4.169228E-1	4.109798E-1	4.275909E-1	4.011430E-1	3.948523E-1	3.856103E-1	4.084423E-1	4.509250E-1	3.774581E-1	4.481233E-1	4.709603E-1	4.283110E-1	3.586247E-1	4.558527E-1	4.399708E-1	3.951541E-1	3.682948E-1	3.639752E-1	3.964936E-1
5.410190E+2	5.291362E-1	4.712893E-1	4.109955E-1	4.729746E-1	4.532153E-1	4.961006E-1	4.582208E-1	4.831770E-1	5.137810E-1	5.022139E-1	5.045655E-1	5.561441E-1	5.495185E-1	5.720959E-1	5.758443E-1	5.087839E-1	4.334352E-1	5.788621E-1	5.352704E-1	5.625237E-1	4.819733E-1	5.233449E-1	5.374365E-1	5.454377E-1	4.997180E-1	5.013761E-1	5.112901E-1	5.614835E-1	5.608738E-1	5.863725E-1	5.317943E-1	5.429754E-1	5.188292E-1	5.212491E-1	5.176658E-1	5.065683E-1	4.696040E-1	5.202240E-1	4.888282E-1	5.706672E-1	4.619912E-1	5.331872E-1	5.577992E-1	4.475489E-1	4.669451E-1	5.413109E-1	5.727716E-1	5.332218E-1	4.880463E-1	6.049822E-1	5.287454E-1	5.595608E-1	4.762444E-1	5.222591E-1	4.756102E-1	5.019493E-1	4.875497E-1	4.885183E-1	5.568919E-1	5.166865E-1	5.255212E-1	4.707372E-1	5.193262E-1	5.960403E-1	5.107558E-1	5.576523E-1	5.586247E-1	5.679361E-1	5.043934E-1	5.114866E-1	4.956176E-1	5.389233E-1	4.944467E-1	5.461069E-1	5.334167E-1	4.965336E-1	5.067452E-1	5.183297E-1	5.647294E-1	5.682644E-1	4.855169E-1	5.672215E-1	5.270325E-1	5.303392E-1	4.601759E-1	5.065190E-1	5.150642E-1	5.072244E-1	5.231766E-1	5.292271E-1	5.428937E-1	4.908515E-1	5.562844E-1	5.488351E-1	5.429345E-1	5.490440E-1	5.473901E-1	6.160180E-1	5.215178E-1	4.743794E-1	4.103160E-1	5.038390E-1	4.796033E-1	4.838080E-1	4.759466E-1	4.954836E-1	5.455594E-1	4.726551E-1	5.301666E-1	5.796017E-1	5.446546E-1	5.178400E-1	5.108777E-1	5.449728E-1	5.470895E-1	5.253321E-1	4.907109E-1	5.160866E-1	5.110167E-1	5.186472E-1	4.981440E-1	5.126123E-1	5.956962E-1	4.913210E-1	4.912759E-1	5.460829E-1	5.338919E-1	5.175400E-1	5.203034E-1	5.684720E-1	5.349802E-1	4.317827E-1	5.686137E-1	5.153518E-1	5.146486E-1	5.212996E-1	4.747264E-1	5.397767E-1	5.430212E-1	4.765678E-1	5.008919E-1	5.393722E-1	5.323069E-1	4.856451E-1	4.339919E-1	5.089610E-1	5.738286E-1	4.283503E-1	5.166080E-1	5.268816E-1	5.336623E-1	4.526750E-1	4.508096E-1	5.062068E-1	4.927264E-1	5.045176E-1	5.215055E-1	5.187090E-1	5.663442E-1	4.766534E-1	5.932006E-1	4.973585E-1	4.950194E-1	4.587324E-1	5.064181E-1	3.117198E-1
5.415090E+2	6.591506E-1	6.483512E-1	5.537434E-1	6.298556E-1	6.664914E-1	5.983592E-1	6.169055E-1	6.375052E-1	6.008476E-1	6.755610E-1	6.792380E-1	6.610174E-1	7.309601E-1	7.513676E-1	7.189717E-1	6.646582E-1	6.210433E-1	7.185386E-1	7.074821E-1	6.749441E-1	6.578585E-1	6.623234E-1	6.480340E-1	6.787285E-1	6.443203E-1	6.681915E-1	6.372404E-1	5.988260E-1	7.023932E-1	6.854544E-1	7.109474E-1	6.587247E-1	6.510432E-1	7.047820E-1	6.217453E-1	6.661770E-1	6.049383E-1	7.173794E-1	6.787846E-1	7.156325E-1	6.192395E-1	6.246149E-1	7.002161E-1	6.099110E-1	5.869084E-1	7.511689E-1	6.576262E-1	7.252470E-1	6.129347E-1	6.467551E-1	6.808631E-1	6.384115E-1	6.371987E-1	6.697321E-1	6.117873E-1	6.393167E-1	6.458728E-1	6.419939E-1	6.506148E-1	6.795205E-1	5.877501E-1	7.259431E-1	5.936975E-1	7.189291E-1	5.703462E-1	6.831348E-1	7.687735E-1	6.919394E-1	5.973201E-1	6.901729E-1	6.612447E-1	6.645725E-1	6.329404E-1	6.623341E-1	6.784345E-1	6.291961E-1	6.748935E-1	7.076638E-1	7.117142E-1	6.880746E-1	6.389139E-1	6.509536E-1	6.990054E-1	6.461089E-1	6.131671E-1	6.271440E-1	6.834539E-1	6.704467E-1	6.192272E-1	5.973294E-1	6.063542E-1	6.106972E-1	6.421378E-1	6.917384E-1	7.182959E-1	7.178509E-1	6.156711E-1	6.585330E-1	6.710003E-1	6.997914E-1	5.999168E-1	7.064940E-1	6.703374E-1	6.586468E-1	6.140098E-1	6.736733E-1	7.027093E-1	6.744687E-1	6.739409E-1	7.169548E-1	7.406852E-1	6.664774E-1	6.502481E-1	6.708649E-1	6.997934E-1	6.783742E-1	5.626179E-1	6.756506E-1	6.690981E-1	6.605085E-1	6.269166E-1	6.288036E-1	6.869908E-1	5.952268E-1	6.204160E-1	7.397456E-1	7.220578E-1	6.821991E-1	6.322714E-1	6.643489E-1	7.229780E-1	6.379896E-1	6.072981E-1	6.959936E-1	6.639029E-1	6.416851E-1	6.652275E-1	6.159030E-1	6.670162E-1	6.582266E-1	6.495628E-1	6.893704E-1	7.412281E-1	6.590702E-1	6.138187E-1	6.620145E-1	7.294232E-1	6.054607E-1	6.440893E-1	6.464583E-1	6.385726E-1	5.276300E-1	5.860370E-1	6.376484E-1	6.701037E-1	6.041046E-1	6.434106E-1	7.441248E-1	7.008982E-1	5.924124E-1	7.210756E-1	7.052280E-1	6.775314E-1	6.110487E-1	7.018630E-1	6.578786E-1
5.420110E+2	7.048318E-1	6.037765E-1	6.084633E-1	5.900124E-1	6.613831E-1	6.609171E-1	6.636501E-1	6.949300E-1	6.901766E-1	7.073783E-1	7.321691E-1	6.620764E-1	7.047277E-1	7.908499E-1	7.733392E-1	6.615608E-1	7.072124E-1	7.662325E-1	7.169325E-1	8.053523E-1	6.852419E-1	7.339853E-1	6.746964E-1	7.318441E-1	7.258620E-1	6.745659E-1	7.113889E-1	7.215260E-1	7.096772E-1	7.515086E-1	7.478311E-1	7.326751E-1	7.344896E-1	7.882065E-1	6.560908E-1	8.008466E-1	7.392236E-1	8.125578E-1	6.932380E-1	7.372690E-1	6.848544E-1	6.945962E-1	6.775585E-1	6.942553E-1	6.682743E-1	8.844896E-1	7.283397E-1	7.765211E-1	6.531531E-1	7.128938E-1	7.406234E-1	7.105041E-1	5.972301E-1	7.250353E-1	7.015632E-1	7.000136E-1	6.775381E-1	6.825553E-1	6.896657E-1	6.932989E-1	6.415420E-1	7.586620E-1	7.244097E-1	8.277367E-1	6.871914E-1	7.823258E-1	7.654196E-1	8.097436E-1	6.473568E-1	6.723034E-1	6.410469E-1	7.279437E-1	7.410623E-1	6.840593E-1	7.200202E-1	6.759551E-1	7.002299E-1	7.318811E-1	7.791285E-1	8.235627E-1	7.362168E-1	7.637572E-1	7.691985E-1	7.211435E-1	6.602415E-1	7.040030E-1	7.157934E-1	6.249419E-1	7.356894E-1	6.873610E-1	7.277088E-1	7.607732E-1	6.927085E-1	7.322281E-1	8.185029E-1	6.964698E-1	7.897898E-1	7.518296E-1	7.706539E-1	7.510758E-1	6.963061E-1	7.076131E-1	7.379803E-1	6.735026E-1	6.950224E-1	7.185089E-1	7.634255E-1	6.589448E-1	7.772786E-1	8.302703E-1	8.081513E-1	7.121301E-1	7.385160E-1	8.163125E-1	7.444308E-1	7.895685E-1	6.592440E-1	7.044598E-1	6.405551E-1	7.586375E-1	6.472485E-1	7.461352E-1	7.588843E-1	7.549971E-1	7.609845E-1	7.296125E-1	7.558320E-1	7.832668E-1	6.622828E-1	7.325026E-1	7.357424E-1	7.714864E-1	7.028731E-1	7.224285E-1	7.423989E-1	6.494169E-1	6.395836E-1	6.677571E-1	6.735420E-1	6.502298E-1	7.227374E-1	6.961363E-1	7.534533E-1	7.855938E-1	6.984425E-1	7.145906E-1	7.341019E-1	7.208670E-1	7.047955E-1	7.500189E-1	7.368574E-1	6.497000E-1	6.464067E-1	7.104288E-1	6.904392E-1	7.357422E-1	7.451971E-1	6.786108E-1	7.693359E-1	8.159859E-1	6.701627E-1	7.817454E-1	6.310418E-1	7.395672E-1	7.184249E-1	5.872336E-1
5.425510E+2	8.559295E-1	7.585504E-1	7.250403E-1	7.917155E-1	7.546124E-1	7.908437E-1	7.595987E-1	8.241372E-1	7.387985E-1	7.775958E-1	8.306212E-1	7.701273E-1	8.468201E-1	8.655461E-1	8.743064E-1	8.174350E-1	7.933814E-1	8.627565E-1	8.313891E-1	9.402563E-1	7.252644E-1	8.165038E-1	7.823313E-1	8.521070E-1	8.443712E-1	8.243810E-1	7.713164E-1	8.314221E-1	8.387092E-1	8.880217E-1	8.648067E-1	8.623569E-1	7.496602E-1	9.228757E-1	8.132518E-1	8.769105E-1	8.221025E-1	8.318196E-1	7.613740E-1	8.800713E-1	7.991157E-1	7.578056E-1	8.199759E-1	8.176068E-1	7.809372E-1	9.511507E-1	8.795559E-1	8.388537E-1	8.277867E-1	8.103642E-1	8.210297E-1	8.952403E-1	7.711471E-1	8.247973E-1	8.226099E-1	7.702940E-1	7.623539E-1	8.722082E-1	8.157436E-1	8.974676E-1	7.311932E-1	8.393679E-1	8.123033E-1	9.199028E-1	8.052036E-1	8.576150E-1	9.129703E-1	9.461471E-1	8.069996E-1	8.398219E-1	8.379801E-1	7.716466E-1	8.443255E-1	7.959421E-1	8.095885E-1	7.890445E-1	8.441919E-1	9.135096E-1	8.796972E-1	8.571537E-1	8.506923E-1	8.672592E-1	8.779975E-1	8.186901E-1	7.736475E-1	8.587880E-1	8.094666E-1	8.900546E-1	8.065264E-1	7.727763E-1	8.446095E-1	7.856055E-1	8.914661E-1	8.477408E-1	9.556910E-1	7.966280E-1	7.556497E-1	8.474872E-1	9.043374E-1	8.906166E-1	8.022279E-1	8.296552E-1	7.934253E-1	8.037751E-1	8.216754E-1	8.104768E-1	8.586667E-1	7.598508E-1	8.356872E-1	9.836484E-1	9.290801E-1	8.490872E-1	8.174916E-1	8.395350E-1	9.053573E-1	8.840235E-1	8.513702E-1	8.717801E-1	8.238848E-1	8.151692E-1	7.827981E-1	7.973956E-1	8.490382E-1	8.611387E-1	8.215546E-1	8.647249E-1	8.764514E-1	9.388400E-1	8.215773E-1	7.891041E-1	8.784814E-1	8.954495E-1	8.189280E-1	8.226622E-1	8.341627E-1	8.493219E-1	8.313052E-1	7.979431E-1	8.290802E-1	8.924408E-1	8.783759E-1	7.829779E-1	8.568028E-1	9.208442E-1	7.572093E-1	8.466124E-1	9.212838E-1	8.636985E-1	8.517037E-1	8.098065E-1	8.472889E-1	7.856893E-1	7.599015E-1	7.951578E-1	7.107757E-1	8.204485E-1	8.386987E-1	7.430159E-1	8.400936E-1	9.249346E-1	7.779097E-1	8.161768E-1	8.290492E-1	9.228222E-1	8.409930E-1	7.002657E-1
5.430070E+2	7.985359E-1	7.152151E-1	8.713564E-1	7.842453E-1	7.073598E-1	7.463316E-1	7.214652E-1	7.810680E-1	7.772450E-1	7.216413E-1	7.840415E-1	7.701274E-1	8.074719E-1	8.356680E-1	8.310348E-1	8.370480E-1	8.075620E-1	8.082496E-1	8.429400E-1	8.031039E-1	7.821367E-1	7.676440E-1	7.852935E-1	7.839576E-1	7.617410E-1	7.670046E-1	7.865531E-1	8.036810E-1	7.513010E-1	8.726091E-1	9.048530E-1	8.205580E-1	7.236525E-1	8.358767E-1	7.903538E-1	8.407487E-1	7.476162E-1	8.295520E-1	7.634396E-1	8.227351E-1	7.233192E-1	7.544194E-1	7.455306E-1	8.228787E-1	7.454693E-1	8.881924E-1	8.306005E-1	8.277940E-1	7.346489E-1	9.878991E-1	8.166828E-1	7.848495E-1	7.106542E-1	8.215445E-1	7.943656E-1	8.682613E-1	7.080709E-1	8.009522E-1	7.532632E-1	8.173040E-1	7.501785E-1	8.251897E-1	8.134303E-1	8.123761E-1	7.467822E-1	8.839065E-1	8.447843E-1	8.866250E-1	8.165304E-1	8.297696E-1	7.501179E-1	8.066099E-1	7.908724E-1	7.981140E-1	8.351797E-1	7.890447E-1	8.165511E-1	8.584704E-1	8.277554E-1	8.246820E-1	8.163491E-1	8.928444E-1	8.312026E-1	8.315532E-1	7.511794E-1	7.392298E-1	7.726673E-1	7.485955E-1	7.308858E-1	7.566163E-1	8.167757E-1	7.899241E-1	8.103153E-1	8.608394E-1	9.485331E-1	8.067561E-1	7.852376E-1	8.014296E-1	9.286434E-1	7.773140E-1	7.863401E-1	7.781503E-1	7.357633E-1	8.072030E-1	8.022779E-1	8.242729E-1	8.086659E-1	8.186216E-1	8.222078E-1	8.680435E-1	9.125306E-1	8.851863E-1	7.570976E-1	8.737589E-1	7.867175E-1	8.015239E-1	7.659808E-1	7.897817E-1	7.766806E-1	8.674336E-1	7.319666E-1	7.985354E-1	8.125208E-1	8.611388E-1	7.061288E-1	8.804885E-1	8.390584E-1	9.161294E-1	7.915651E-1	8.595683E-1	8.877658E-1	8.453874E-1	7.335944E-1	8.270687E-1	8.430074E-1	7.543382E-1	7.165163E-1	7.703620E-1	7.823097E-1	7.930424E-1	8.121705E-1	7.886171E-1	8.101290E-1	8.815778E-1	7.619112E-1	8.174040E-1	7.680285E-1	7.882838E-1	7.824991E-1	7.863186E-1	7.490035E-1	7.739109E-1	7.043619E-1	7.995033E-1	7.887303E-1	8.204487E-1	7.629514E-1	7.818802E-1	8.192138E-1	9.771402E-1	7.873813E-1	8.251054E-1	7.412375E-1	9.656604E-1	6.223604E-1	6.932007E-1
5.435440E+2	1.115959E+0	1.008667E+0	1.186593E+0	1.071859E+0	1.025360E+0	1.009796E+0	1.074510E+0	9.844481E-1	1.026007E+0	1.081502E+0	9.693001E-1	9.851698E-1	1.054495E+0	1.160064E+0	1.091774E+0	1.105441E+0	1.030073E+0	1.102365E+0	1.094956E+0	1.213438E+0	9.801396E-1	1.121607E+0	1.040064E+0	1.099646E+0	1.011804E+0	1.067698E+0	1.065877E+0	9.775931E-1	1.081164E+0	1.113708E+0	1.179905E+0	1.148514E+0	1.095368E+0	1.196982E+0	9.766563E-1	1.189890E+0	1.017234E+0	1.099226E+0	1.067989E+0	1.044509E+0	1.025374E+0	1.045632E+0	1.060574E+0	1.119136E+0	9.822668E-1	1.190636E+0	1.074287E+0	1.154540E+0	1.008770E+0	1.139906E+0	1.097014E+0	1.123908E+0	9.396614E-1	1.060105E+0	1.028388E+0	1.172812E+0	1.045073E+0	1.054186E+0	1.060091E+0	1.056545E+0	1.089803E+0	1.112021E+0	1.064713E+0	1.246325E+0	9.547650E-1	1.090655E+0	1.101880E+0	1.158193E+0	1.054802E+0	1.047543E+0	1.020776E+0	1.115815E+0	1.111594E+0	1.036001E+0	1.074032E+0	1.069594E+0	1.103323E+0	1.092938E+0	1.152668E+0	1.102375E+0	1.005233E+0	1.068447E+0	1.113145E+0	1.069522E+0	1.023995E+0	9.644688E-1	1.064838E+0	1.090867E+0	1.053857E+0	1.083272E+0	1.075071E+0	9.238052E-1	1.040826E+0	1.147837E+0	1.172805E+0	1.089227E+0	1.017395E+0	1.169890E+0	1.219101E+0	1.098138E+0	1.037376E+0	1.054703E+0	1.047367E+0	1.032323E+0	1.005380E+0	1.067992E+0	1.078915E+0	1.062571E+0	1.064827E+0	1.117567E+0	1.169663E+0	1.094338E+0	1.014932E+0	1.175656E+0	1.122666E+0	1.084890E+0	1.010914E+0	1.082315E+0	1.046734E+0	1.122358E+0	1.049379E+0	1.048007E+0	1.096674E+0	1.005266E+0	1.036408E+0	1.070773E+0	1.158701E+0	1.194346E+0	1.089377E+0	1.198025E+0	1.085047E+0	1.133838E+0	1.066968E+0	1.048465E+0	1.030956E+0	9.973181E-1	1.002268E+0	1.051697E+0	1.053141E+0	1.085525E+0	1.054923E+0	1.096508E+0	1.167964E+0	1.135717E+0	1.022835E+0	1.045232E+0	1.078048E+0	1.192781E+0	1.103027E+0	1.044688E+0	1.061527E+0	1.080156E+0	1.030357E+0	1.035226E+0	1.065527E+0	1.107764E+0	1.063575E+0	1.117230E+0	1.109200E+0	1.159858E+0	1.051421E+0	1.080160E+0	1.076989E+0	1.137015E+0	9.536223E-1	1.060553E+0
5.440010E+2	1.498975E+0	1.258784E+0	1.399523E+0	1.323365E+0	1.527264E+0	1.316569E+0	1.331605E+0	1.352924E+0	1.478304E+0	1.373340E+0	1.363107E+0	1.336864E+0	1.521216E+0	1.417233E+0	1.440165E+0	1.345961E+0	1.441284E+0	1.443039E+0	1.470880E+0	1.518098E+0	1.442497E+0	1.413680E+0	1.327420E+0	1.351194E+0	1.408643E+0	1.377953E+0	1.406145E+0	1.251801E+0	1.373568E+0	1.451688E+0	1.450743E+0	1.502191E+0	1.364130E+0	1.554513E+0	1.300344E+0	1.406860E+0	1.371831E+0	1.428950E+0	1.331244E+0	1.393942E+0	1.364760E+0	1.354907E+0	1.323829E+0	1.320507E+0	1.323380E+0	1.462216E+0	1.359313E+0	1.380747E+0	1.264897E+0	1.420713E+0	1.405595E+0	1.395382E+0	1.320981E+0	1.347463E+0	1.350168E+0	1.399628E+0	1.323270E+0	1.294266E+0	1.398159E+0	1.395992E+0	1.343994E+0	1.430483E+0	1.389240E+0	1.584269E+0	1.402278E+0	1.496980E+0	1.459579E+0	1.552524E+0	1.372897E+0	1.351309E+0	1.283356E+0	1.382410E+0	1.370358E+0	1.422702E+0	1.377927E+0	1.359929E+0	1.334815E+0	1.435280E+0	1.452163E+0	1.404702E+0	1.365829E+0	1.499895E+0	1.520264E+0	1.327859E+0	1.287183E+0	1.412810E+0	1.498636E+0	1.429182E+0	1.340808E+0	1.379915E+0	1.482555E+0	1.258508E+0	1.390121E+0	1.432450E+0	1.524722E+0	1.367196E+0	1.445293E+0	1.329319E+0	1.586123E+0	1.360523E+0	1.293707E+0	1.367083E+0	1.387802E+0	1.331721E+0	1.313454E+0	1.411726E+0	1.426548E+0	1.348660E+0	1.418646E+0	1.499868E+0	1.485350E+0	1.348084E+0	1.302964E+0	1.460441E+0	1.374041E+0	1.494994E+0	1.379439E+0	1.349360E+0	1.281659E+0	1.391147E+0	1.213168E+0	1.328235E+0	1.306652E+0	1.417540E+0	1.360973E+0	1.468231E+0	1.422857E+0	1.502088E+0	1.396421E+0	1.453309E+0	1.418104E+0	1.376995E+0	1.291113E+0	1.402038E+0	1.405749E+0	1.379456E+0	1.281914E+0	1.356200E+0	1.364215E+0	1.389431E+0	1.387107E+0	1.396505E+0	1.406890E+0	1.426940E+0	1.361332E+0	1.378210E+0	1.429013E+0	1.417882E+0	1.348279E+0	1.391672E+0	1.390613E+0	1.353206E+0	1.248895E+0	1.289417E+0	1.334417E+0	1.264584E+0	1.415091E+0	1.452580E+0	1.458346E+0	1.577497E+0	1.378214E+0	1.354344E+0	1.259501E+0	1.382150E+0	1.291512E+0	1.230100E+0
5.445070E+2	1.695754E+0	1.437084E+0	1.537513E+0	1.454099E+0	1.771192E+0	1.448904E+0	1.540725E+0	1.494094E+0	1.651308E+0	1.597155E+0	1.544132E+0	1.527541E+0	1.639264E+0	1.693610E+0	1.621018E+0	1.563771E+0	1.571084E+0	1.535022E+0	1.595836E+0	1.653003E+0	1.746873E+0	1.533116E+0	1.578240E+0	1.556640E+0	1.650009E+0	1.506518E+0	1.628590E+0	1.437449E+0	1.543184E+0	1.664163E+0	1.663618E+0	1.629730E+0	1.585208E+0	1.652238E+0	1.530360E+0	1.656246E+0	1.630959E+0	1.672562E+0	1.531524E+0	1.522680E+0	1.709803E+0	1.562595E+0	1.506166E+0	1.531365E+0	1.519495E+0	1.659729E+0	1.538814E+0	1.670293E+0	1.476575E+0	1.627257E+0	1.591396E+0	1.616164E+0	1.606162E+0	1.533975E+0	1.552922E+0	1.560422E+0	1.601466E+0	1.536539E+0	1.519774E+0	1.458620E+0	1.588691E+0	1.575535E+0	1.453468E+0	1.787803E+0	1.555346E+0	1.591392E+0	1.589246E+0	1.612047E+0	1.523009E+0	1.566847E+0	1.502507E+0	1.562688E+0	1.568380E+0	1.548706E+0	1.496287E+0	1.515428E+0	1.529450E+0	1.632319E+0	1.704136E+0	1.621932E+0	1.610805E+0	1.644100E+0	1.799866E+0	1.555108E+0	1.490457E+0	1.513153E+0	1.699364E+0	1.552835E+0	1.564126E+0	1.495341E+0	1.556035E+0	1.417222E+0	1.582997E+0	1.612270E+0	1.745415E+0	1.522497E+0	1.537473E+0	1.598579E+0	1.734390E+0	1.589513E+0	1.409162E+0	1.541747E+0	1.499803E+0	1.509988E+0	1.499439E+0	1.519790E+0	1.546792E+0	1.475070E+0	1.538832E+0	1.656678E+0	1.645739E+0	1.613506E+0	1.482983E+0	1.648667E+0	1.580779E+0	1.561949E+0	1.510895E+0	1.543274E+0	1.530856E+0	1.559673E+0	1.474100E+0	1.540114E+0	1.492664E+0	1.496867E+0	1.490113E+0	1.645005E+0	1.670127E+0	1.636087E+0	1.546482E+0	1.536479E+0	1.593335E+0	1.565323E+0	1.464058E+0	1.483547E+0	1.580431E+0	1.562795E+0	1.405252E+0	1.517278E+0	1.479509E+0	1.561951E+0	1.550878E+0	1.502517E+0	1.528021E+0	1.569826E+0	1.555261E+0	1.613048E+0	1.542492E+0	1.543573E+0	1.495187E+0	1.448258E+0	1.467916E+0	1.519179E+0	1.397404E+0	1.518622E+0	1.431577E+0	1.517558E+0	1.469533E+0	1.709087E+0	1.590579E+0	1.656940E+0	1.636333E+0	1.576244E+0	1.478169E+0	1.470207E+0	1.364388E+0	1.265422E+0
5.450090E+2	1.375989E+0	1.224113E+0	1.317443E+0	1.172710E+0	1.349746E+0	1.187845E+0	1.182760E+0	1.222521E+0	1.382192E+0	1.239489E+0	1.238190E+0	1.229873E+0	1.314635E+0	1.392691E+0	1.372484E+0	1.338734E+0	1.342027E+0	1.230685E+0	1.373223E+0	1.384317E+0	1.394049E+0	1.318132E+0	1.259284E+0	1.272021E+0	1.312966E+0	1.187763E+0	1.329966E+0	1.230461E+0	1.350676E+0	1.409853E+0	1.403320E+0	1.315706E+0	1.269845E+0	1.351913E+0	1.212917E+0	1.385660E+0	1.435827E+0	1.354167E+0	1.282723E+0	1.261959E+0	1.310458E+0	1.236390E+0	1.231043E+0	1.256195E+0	1.233668E+0	1.428886E+0	1.360400E+0	1.405881E+0	1.267015E+0	1.376620E+0	1.246958E+0	1.404393E+0	1.308019E+0	1.260713E+0	1.258376E+0	1.277169E+0	1.373028E+0	1.267956E+0	1.249766E+0	1.299543E+0	1.253286E+0	1.283249E+0	1.274303E+0	1.408896E+0	1.361383E+0	1.373888E+0	1.373509E+0	1.354118E+0	1.395532E+0	1.292118E+0	1.313652E+0	1.301557E+0	1.406804E+0	1.291267E+0	1.273431E+0	1.362104E+0	1.385488E+0	1.291077E+0	1.399116E+0	1.418140E+0	1.300580E+0	1.301034E+0	1.259380E+0	1.310708E+0	1.216572E+0	1.197178E+0	1.300137E+0	1.311464E+0	1.402040E+0	1.242558E+0	1.266566E+0	1.259587E+0	1.326613E+0	1.270495E+0	1.401848E+0	1.250155E+0	1.324662E+0	1.367110E+0	1.347924E+0	1.323550E+0	1.343491E+0	1.296544E+0	1.274693E+0	1.201449E+0	1.287211E+0	1.354245E+0	1.352736E+0	1.165697E+0	1.386072E+0	1.375104E+0	1.453526E+0	1.271641E+0	1.331999E+0	1.407884E+0	1.249528E+0	1.420864E+0	1.276073E+0	1.259607E+0	1.241041E+0	1.192755E+0	1.199613E+0	1.317982E+0	1.268992E+0	1.251066E+0	1.186119E+0	1.372526E+0	1.427682E+0	1.327209E+0	1.235974E+0	1.285814E+0	1.263760E+0	1.374611E+0	1.198951E+0	1.171829E+0	1.242123E+0	1.240297E+0	1.237952E+0	1.222704E+0	1.275027E+0	1.224912E+0	1.240761E+0	1.280340E+0	1.346880E+0	1.366951E+0	1.269656E+0	1.309278E+0	1.278098E+0	1.206492E+0	1.303356E+0	1.194159E+0	1.240426E+0	1.264331E+0	1.182489E+0	1.247052E+0	1.294874E+0	1.248559E+0	1.297919E+0	1.234935E+0	1.328431E+0	1.299449E+0	1.205345E+0	1.284204E+0	1.226786E+0	1.282192E+0	1.119254E+0	1.307809E+0
5.455020E+2	1.039824E+0	9.071353E-1	1.083100E+0	1.022056E+0	1.136468E+0	9.761118E-1	9.884021E-1	9.712885E-1	1.072368E+0	1.015673E+0	1.086806E+0	9.894064E-1	1.080727E+0	1.078965E+0	1.109526E+0	1.018729E+0	1.090065E+0	1.069433E+0	1.123307E+0	1.093148E+0	1.132855E+0	1.049946E+0	1.019327E+0	1.062565E+0	1.144446E+0	9.975717E-1	1.069940E+0	1.023474E+0	1.103018E+0	1.035544E+0	1.068199E+0	1.078849E+0	1.132214E+0	1.101641E+0	1.046390E+0	1.118816E+0	1.174600E+0	1.142282E+0	1.022565E+0	1.043428E+0	1.153209E+0	9.508191E-1	1.100493E+0	1.036901E+0	1.039641E+0	1.157305E+0	1.051442E+0	1.079137E+0	1.048988E+0	1.057521E+0	1.041599E+0	1.076598E+0	1.072530E+0	9.885371E-1	9.920740E-1	1.080169E+0	1.100488E+0	9.840260E-1	1.003187E+0	9.889055E-1	1.010698E+0	9.985975E-1	1.009498E+0	1.202803E+0	1.063430E+0	1.069143E+0	1.092938E+0	1.143312E+0	1.060760E+0	1.055361E+0	9.894681E-1	1.050260E+0	1.171121E+0	9.708269E-1	9.716668E-1	1.002174E+0	1.164363E+0	1.067619E+0	1.117303E+0	1.105736E+0	1.108262E+0	1.112638E+0	1.085067E+0	1.066307E+0	1.068931E+0	1.035989E+0	1.061494E+0	9.513860E-1	1.176322E+0	1.062495E+0	1.018291E+0	9.583555E-1	1.089046E+0	1.097820E+0	1.145367E+0	1.005949E+0	1.160787E+0	1.094309E+0	1.108509E+0	1.144652E+0	1.158127E+0	1.014396E+0	1.038495E+0	9.774723E-1	1.059008E+0	1.053045E+0	1.070581E+0	9.882774E-1	1.120988E+0	1.059192E+0	1.090742E+0	1.115573E+0	1.010287E+0	1.140209E+0	1.085078E+0	1.022716E+0	1.162594E+0	1.014722E+0	1.032463E+0	1.054093E+0	1.086654E+0	1.068511E+0	1.040757E+0	1.000797E+0	1.098121E+0	1.125945E+0	1.136990E+0	1.083060E+0	1.121697E+0	1.109078E+0	1.095491E+0	1.064705E+0	1.150027E+0	1.026435E+0	9.911558E-1	1.094509E+0	1.158577E+0	1.039561E+0	1.023774E+0	1.071815E+0	1.207077E+0	1.076207E+0	1.063503E+0	1.047368E+0	1.098057E+0	1.024202E+0	1.115484E+0	1.040809E+0	1.149163E+0	1.025471E+0	9.720773E-1	1.009484E+0	1.084690E+0	1.010243E+0	1.040673E+0	1.015044E+0	1.088428E+0	1.035057E+0	1.103401E+0	1.147374E+0	1.045500E+0	1.059755E+0	9.702386E-1	1.167955E+0	1.009935E+0	8.486190E-1
5.460060E+2	8.617873E-1	7.622660E-1	9.118016E-1	7.730401E-1	8.989255E-1	7.571590E-1	7.448377E-1	7.487669E-1	9.004952E-1	7.315155E-1	8.083886E-1	7.870758E-1	8.675881E-1	8.047214E-1	8.532255E-1	8.380799E-1	8.533734E-1	8.525366E-1	8.565909E-1	9.245176E-1	8.864047E-1	7.991312E-1	8.119556E-1	8.290560E-1	8.769875E-1	7.786929E-1	8.393696E-1	7.962126E-1	7.554635E-1	8.406832E-1	8.490007E-1	8.580702E-1	9.057162E-1	9.061908E-1	8.184560E-1	8.619471E-1	8.756062E-1	8.193549E-1	7.572448E-1	8.259799E-1	8.398419E-1	7.939243E-1	7.573979E-1	7.648918E-1	8.038858E-1	9.437440E-1	8.621486E-1	8.619779E-1	8.066187E-1	8.579394E-1	8.232019E-1	8.794710E-1	8.532445E-1	8.193757E-1	8.337051E-1	8.480287E-1	8.234212E-1	7.932776E-1	7.476832E-1	7.960092E-1	7.997517E-1	8.938974E-1	8.585034E-1	8.558986E-1	8.402572E-1	8.062274E-1	8.872611E-1	8.382631E-1	8.344003E-1	8.018500E-1	8.137423E-1	8.546850E-1	8.467549E-1	7.568370E-1	8.159871E-1	7.912196E-1	8.430394E-1	8.254471E-1	8.730654E-1	8.851469E-1	8.529813E-1	8.102756E-1	8.405616E-1	8.658552E-1	8.014634E-1	7.424317E-1	8.373463E-1	8.415819E-1	8.941722E-1	8.224084E-1	8.568561E-1	7.758881E-1	8.009075E-1	8.179692E-1	8.936584E-1	8.495207E-1	8.580709E-1	8.994500E-1	8.994766E-1	8.250204E-1	8.594255E-1	7.725530E-1	8.156041E-1	7.706350E-1	8.604695E-1	8.219736E-1	8.539048E-1	7.864636E-1	8.424263E-1	8.646100E-1	8.387013E-1	8.204220E-1	8.430432E-1	8.505357E-1	8.489745E-1	9.282619E-1	8.850760E-1	8.341048E-1	8.710890E-1	8.407670E-1	8.189448E-1	7.791700E-1	7.817079E-1	7.907501E-1	8.386973E-1	8.320726E-1	8.462971E-1	8.831983E-1	8.804479E-1	8.942215E-1	9.051731E-1	8.859136E-1	8.849210E-1	7.675891E-1	8.054173E-1	8.437993E-1	8.105462E-1	8.045633E-1	8.475698E-1	8.147511E-1	9.050908E-1	8.483910E-1	8.601373E-1	8.892132E-1	8.218527E-1	8.068890E-1	8.230135E-1	7.928541E-1	9.111950E-1	7.916569E-1	7.423779E-1	7.632031E-1	7.840493E-1	8.299197E-1	8.576477E-1	7.861087E-1	8.410651E-1	8.640528E-1	7.449763E-1	9.079118E-1	9.022327E-1	7.906720E-1	7.636217E-1	8.895029E-1	9.006213E-1	7.355871E-1
5.465160E+2	1.092533E+0	9.343759E-1	1.026000E+0	9.373901E-1	1.182445E+0	9.424264E-1	9.035230E-1	9.437704E-1	1.091590E+0	9.333883E-1	9.269551E-1	9.459744E-1	9.932858E-1	1.005335E+0	9.697262E-1	9.475015E-1	1.019166E+0	1.000162E+0	9.951993E-1	1.015579E+0	1.074929E+0	1.040174E+0	9.936521E-1	9.382938E-1	1.002019E+0	9.189450E-1	9.389114E-1	9.061079E-1	9.053068E-1	1.008021E+0	9.870527E-1	9.952542E-1	9.371441E-1	1.057545E+0	9.214944E-1	9.941216E-1	1.057101E+0	9.813853E-1	8.615142E-1	9.276715E-1	1.011799E+0	9.361457E-1	9.203141E-1	9.356888E-1	9.050729E-1	1.040032E+0	9.589714E-1	1.045959E+0	9.516173E-1	1.009946E+0	9.698868E-1	9.470562E-1	9.483033E-1	1.005887E+0	9.850132E-1	1.004563E+0	1.007754E+0	8.754971E-1	9.161596E-1	9.388034E-1	9.347561E-1	9.429750E-1	9.542834E-1	1.088875E+0	9.781333E-1	1.042852E+0	9.778028E-1	1.011869E+0	1.030976E+0	9.246969E-1	9.218027E-1	9.377210E-1	9.901080E-1	9.425850E-1	8.980919E-1	9.227950E-1	1.007732E+0	9.784557E-1	1.038839E+0	1.010558E+0	9.605884E-1	1.035884E+0	9.645691E-1	9.119481E-1	1.038974E+0	9.228359E-1	1.028037E+0	9.335799E-1	1.092277E+0	9.170588E-1	9.314500E-1	8.590246E-1	1.012601E+0	9.727810E-1	1.110773E+0	9.339245E-1	1.058365E+0	1.017545E+0	9.991320E-1	9.788734E-1	1.019369E+0	9.628920E-1	9.187330E-1	9.351910E-1	1.028198E+0	9.610770E-1	9.860534E-1	9.505763E-1	1.080552E+0	1.047747E+0	9.710858E-1	1.014712E+0	1.027708E+0	9.923171E-1	9.887570E-1	1.002391E+0	1.103046E+0	9.792631E-1	9.424446E-1	9.783622E-1	9.996761E-1	9.420679E-1	9.163677E-1	8.667246E-1	1.014693E+0	9.840754E-1	1.003102E+0	1.016060E+0	1.037433E+0	1.017821E+0	1.006135E+0	9.598140E-1	9.918742E-1	9.151871E-1	9.546710E-1	9.200068E-1	1.020585E+0	9.303364E-1	9.683024E-1	9.050084E-1	1.115321E+0	9.904942E-1	1.061280E+0	1.021192E+0	9.570168E-1	9.459224E-1	9.669085E-1	1.004243E+0	1.095742E+0	9.187067E-1	9.146520E-1	9.281048E-1	1.013452E+0	9.570151E-1	9.740157E-1	9.234706E-1	1.030434E+0	1.006186E+0	9.398484E-1	1.073606E+0	9.780109E-1	9.666596E-1	1.008117E+0	9.680396E-1	1.119254E+0	9.899080E-1
5.470110E+2	1.333821E+0	1.323170E+0	1.272240E+0	1.162749E+0	1.371456E+0	1.110851E+0	1.246727E+0	1.169883E+0	1.296255E+0	1.266917E+0	1.253010E+0	1.169491E+0	1.374751E+0	1.321196E+0	1.275955E+0	1.265441E+0	1.288580E+0	1.246583E+0	1.290267E+0	1.276394E+0	1.310846E+0	1.230185E+0	1.185223E+0	1.241955E+0	1.217290E+0	1.166511E+0	1.250739E+0	1.140837E+0	1.305931E+0	1.228203E+0	1.302152E+0	1.263192E+0	1.261177E+0	1.350721E+0	1.184816E+0	1.320819E+0	1.366585E+0	1.277118E+0	1.207359E+0	1.261959E+0	1.348923E+0	1.213814E+0	1.184650E+0	1.227728E+0	1.245143E+0	1.391851E+0	1.234206E+0	1.187717E+0	1.251139E+0	1.215329E+0	1.215448E+0	1.243313E+0	1.216199E+0	1.199989E+0	1.220045E+0	1.282493E+0	1.384338E+0	1.124346E+0	1.196211E+0	1.299543E+0	1.205823E+0	1.250529E+0	1.254020E+0	1.454981E+0	1.221171E+0	1.237649E+0	1.281847E+0	1.271037E+0	1.328816E+0	1.238513E+0	1.134897E+0	1.211964E+0	1.348491E+0	1.214144E+0	1.236110E+0	1.254451E+0	1.266864E+0	1.360426E+0	1.304073E+0	1.366633E+0	1.315461E+0	1.260332E+0	1.262890E+0	1.237816E+0	1.231549E+0	1.164087E+0	1.226536E+0	1.275852E+0	1.291583E+0	1.276033E+0	1.293286E+0	1.152698E+0	1.228998E+0	1.296693E+0	1.313571E+0	1.238902E+0	1.345147E+0	1.291529E+0	1.352785E+0	1.247220E+0	1.338194E+0	1.170026E+0	1.179327E+0	1.179737E+0	1.359095E+0	1.236984E+0	1.243208E+0	1.214487E+0	1.246790E+0	1.354502E+0	1.233309E+0	1.272703E+0	1.269282E+0	1.340660E+0	1.238956E+0	1.364669E+0	1.358093E+0	1.226364E+0	1.225672E+0	1.270617E+0	1.271905E+0	1.299756E+0	1.294098E+0	1.241011E+0	1.250117E+0	1.267815E+0	1.291382E+0	1.346514E+0	1.257906E+0	1.245385E+0	1.353117E+0	1.329318E+0	1.325247E+0	1.176236E+0	1.308457E+0	1.236982E+0	1.375943E+0	1.250286E+0	1.182573E+0	1.235193E+0	1.344134E+0	1.222822E+0	1.259088E+0	1.216430E+0	1.222641E+0	1.288247E+0	1.225454E+0	1.241915E+0	1.337351E+0	1.152520E+0	1.176375E+0	1.232207E+0	1.256139E+0	1.195997E+0	1.150261E+0	1.195904E+0	1.260044E+0	1.236045E+0	1.258835E+0	1.331225E+0	1.358087E+0	1.243396E+0	1.268110E+0	1.279811E+0	1.390888E+0	1.088811E+0
5.475070E+2	1.620789E+0	1.593098E+0	1.468519E+0	1.343287E+0	1.642205E+0	1.515070E+0	1.396801E+0	1.362495E+0	1.451166E+0	1.543395E+0	1.466852E+0	1.487287E+0	1.501543E+0	1.639190E+0	1.598827E+0	1.491512E+0	1.346390E+0	1.500952E+0	1.475080E+0	1.527091E+0	1.585733E+0	1.513572E+0	1.405431E+0	1.428362E+0	1.585862E+0	1.469330E+0	1.447790E+0	1.291278E+0	1.472424E+0	1.506733E+0	1.523457E+0	1.488259E+0	1.430236E+0	1.585498E+0	1.441892E+0	1.426810E+0	1.583751E+0	1.525263E+0	1.454095E+0	1.432888E+0	1.519747E+0	1.448592E+0	1.454378E+0	1.474434E+0	1.368236E+0	1.546160E+0	1.414796E+0	1.554676E+0	1.372853E+0	1.467127E+0	1.340403E+0	1.599267E+0	1.468972E+0	1.384332E+0	1.348152E+0	1.475233E+0	1.575455E+0	1.385255E+0	1.397043E+0	1.348394E+0	1.486382E+0	1.431572E+0	1.531221E+0	1.600910E+0	1.404615E+0	1.498176E+0	1.536708E+0	1.509124E+0	1.549218E+0	1.409381E+0	1.431812E+0	1.434854E+0	1.497917E+0	1.419444E+0	1.398186E+0	1.436047E+0	1.470714E+0	1.575080E+0	1.548311E+0	1.577142E+0	1.482595E+0	1.570836E+0	1.571738E+0	1.456491E+0	1.446592E+0	1.359435E+0	1.480793E+0	1.415333E+0	1.562926E+0	1.374145E+0	1.433567E+0	1.302774E+0	1.530074E+0	1.588452E+0	1.535458E+0	1.431341E+0	1.604616E+0	1.521816E+0	1.491329E+0	1.562082E+0	1.506611E+0	1.435380E+0	1.409980E+0	1.401428E+0	1.473196E+0	1.424372E+0	1.437265E+0	1.437368E+0	1.472562E+0	1.529626E+0	1.522266E+0	1.439389E+0	1.444657E+0	1.499552E+0	1.530267E+0	1.591840E+0	1.568195E+0	1.378171E+0	1.312398E+0	1.459410E+0	1.401808E+0	1.472905E+0	1.492664E+0	1.470053E+0	1.445542E+0	1.460350E+0	1.521765E+0	1.511173E+0	1.479532E+0	1.434827E+0	1.447115E+0	1.481887E+0	1.518671E+0	1.415255E+0	1.392482E+0	1.384979E+0	1.554233E+0	1.350684E+0	1.413160E+0	1.343732E+0	1.520679E+0	1.447255E+0	1.560248E+0	1.491294E+0	1.456534E+0	1.423776E+0	1.479318E+0	1.383603E+0	1.542537E+0	1.380995E+0	1.324354E+0	1.367127E+0	1.460188E+0	1.357853E+0	1.394295E+0	1.443154E+0	1.431660E+0	1.422598E+0	1.429348E+0	1.555933E+0	1.548714E+0	1.447439E+0	1.364531E+0	1.436889E+0	1.559833E+0	1.321939E+0
5.480030E+2	1.439238E+0	1.470515E+0	1.409041E+0	1.292239E+0	1.524710E+0	1.472964E+0	1.314383E+0	1.362496E+0	1.367491E+0	1.535715E+0	1.319704E+0	1.359110E+0	1.427217E+0	1.515406E+0	1.463465E+0	1.302605E+0	1.433650E+0	1.519123E+0	1.385824E+0	1.467509E+0	1.555190E+0	1.565689E+0	1.370870E+0	1.355202E+0	1.443435E+0	1.487393E+0	1.322855E+0	1.345692E+0	1.430800E+0	1.543064E+0	1.407535E+0	1.411093E+0	1.445408E+0	1.500883E+0	1.290977E+0	1.547763E+0	1.480938E+0	1.494669E+0	1.281690E+0	1.414497E+0	1.481284E+0	1.492613E+0	1.368064E+0	1.320506E+0	1.357804E+0	1.515297E+0	1.423497E+0	1.474247E+0	1.327343E+0	1.441599E+0	1.383864E+0	1.488876E+0	1.450608E+0	1.570843E+0	1.284602E+0	1.292077E+0	1.417133E+0	1.568330E+0	1.257576E+0	1.423549E+0	1.321845E+0	1.655149E+0	1.301347E+0	1.566347E+0	1.373068E+0	1.488614E+0	1.371272E+0	1.473162E+0	1.432465E+0	1.469688E+0	1.315672E+0	1.375853E+0	1.448108E+0	1.355355E+0	1.416315E+0	1.283811E+0	1.386640E+0	1.502428E+0	1.483108E+0	1.434935E+0	1.402462E+0	1.409188E+0	1.483997E+0	1.405038E+0	1.441243E+0	1.299656E+0	1.480794E+0	1.331249E+0	1.484885E+0	1.403001E+0	1.353406E+0	1.330847E+0	1.405410E+0	1.400298E+0	1.577210E+0	1.361568E+0	1.524955E+0	1.456863E+0	1.486469E+0	1.380797E+0	1.322306E+0	1.428663E+0	1.382257E+0	1.331721E+0	1.401312E+0	1.357694E+0	1.387261E+0	1.323155E+0	1.396182E+0	1.438058E+0	1.498079E+0	1.507337E+0	1.395878E+0	1.505664E+0	1.352897E+0	1.487819E+0	1.462582E+0	1.331632E+0	1.311299E+0	1.320749E+0	1.423269E+0	1.325956E+0	1.383111E+0	1.334863E+0	1.364401E+0	1.370274E+0	1.576044E+0	1.431682E+0	1.486458E+0	1.448689E+0	1.375166E+0	1.454472E+0	1.474299E+0	1.382212E+0	1.371476E+0	1.344114E+0	1.511493E+0	1.357303E+0	1.302217E+0	1.359726E+0	1.584562E+0	1.382971E+0	1.401334E+0	1.409488E+0	1.413046E+0	1.489203E+0	1.383387E+0	1.345896E+0	1.557107E+0	1.244337E+0	1.316624E+0	1.370339E+0	1.413100E+0	1.282899E+0	1.415761E+0	1.359592E+0	1.353544E+0	1.347088E+0	1.451386E+0	1.508269E+0	1.489513E+0	1.416834E+0	1.268110E+0	1.446409E+0	1.503521E+0	1.201843E+0
5.485390E+2	1.393558E+0	1.485374E+0	1.374543E+0	1.222514E+0	1.409770E+0	1.435671E+0	1.300852E+0	1.227307E+0	1.348270E+0	1.506093E+0	1.276300E+0	1.276483E+0	1.347426E+0	1.530346E+0	1.407988E+0	1.358348E+0	1.294033E+0	1.355600E+0	1.245114E+0	1.279767E+0	1.409847E+0	1.452769E+0	1.257309E+0	1.254984E+0	1.465179E+0	1.408765E+0	1.275117E+0	1.188851E+0	1.418314E+0	1.469302E+0	1.441258E+0	1.407877E+0	1.396640E+0	1.412692E+0	1.284732E+0	1.364462E+0	1.372880E+0	1.411954E+0	1.269301E+0	1.277104E+0	1.370417E+0	1.372965E+0	1.331381E+0	1.239325E+0	1.220107E+0	1.464685E+0	1.328852E+0	1.305345E+0	1.260664E+0	1.470608E+0	1.313237E+0	1.333427E+0	1.378234E+0	1.414694E+0	1.256357E+0	1.341060E+0	1.324401E+0	1.465282E+0	1.354645E+0	1.294534E+0	1.364033E+0	1.552632E+0	1.216835E+0	1.424258E+0	1.369562E+0	1.471884E+0	1.462933E+0	1.457041E+0	1.409829E+0	1.387044E+0	1.339911E+0	1.334334E+0	1.433531E+0	1.382511E+0	1.350204E+0	1.244664E+0	1.277229E+0	1.480411E+0	1.425640E+0	1.347598E+0	1.237618E+0	1.439424E+0	1.342442E+0	1.334290E+0	1.373842E+0	1.362638E+0	1.341398E+0	1.234305E+0	1.355216E+0	1.387996E+0	1.277700E+0	1.235834E+0	1.363072E+0	1.396725E+0	1.461495E+0	1.281666E+0	1.330351E+0	1.426159E+0	1.386814E+0	1.318779E+0	1.409161E+0	1.364844E+0	1.285783E+0	1.238016E+0	1.361377E+0	1.319757E+0	1.295591E+0	1.276583E+0	1.395057E+0	1.434624E+0	1.299502E+0	1.342774E+0	1.329676E+0	1.286880E+0	1.413978E+0	1.339560E+0	1.353597E+0	1.344929E+0	1.259703E+0	1.241819E+0	1.330644E+0	1.231408E+0	1.342028E+0	1.200789E+0	1.437542E+0	1.356765E+0	1.412002E+0	1.374903E+0	1.362947E+0	1.432516E+0	1.314822E+0	1.340045E+0	1.421960E+0	1.267658E+0	1.285240E+0	1.337488E+0	1.367396E+0	1.252493E+0	1.279377E+0	1.314026E+0	1.370847E+0	1.316429E+0	1.295762E+0	1.277511E+0	1.361332E+0	1.218147E+0	1.295648E+0	1.340182E+0	1.424768E+0	1.257150E+0	1.270243E+0	1.236491E+0	1.378085E+0	1.295935E+0	1.318598E+0	1.359592E+0	1.383134E+0	1.433701E+0	1.377148E+0	1.459469E+0	1.416103E+0	1.281654E+0	1.242284E+0	1.396430E+0	1.457143E+0	1.300744E+0
5.490430E+2	1.343191E+0	1.298406E+0	1.247260E+0	1.216288E+0	1.321650E+0	1.317772E+0	1.155698E+0	1.155526E+0	1.246503E+0	1.357979E+0	1.157735E+0	1.175847E+0	1.262170E+0	1.361746E+0	1.299255E+0	1.208668E+0	1.183869E+0	1.346514E+0	1.245116E+0	1.301126E+0	1.281356E+0	1.269272E+0	1.232622E+0	1.219907E+0	1.235773E+0	1.324827E+0	1.175575E+0	1.108830E+0	1.250780E+0	1.309670E+0	1.193606E+0	1.261048E+0	1.218911E+0	1.251803E+0	1.125490E+0	1.323313E+0	1.336162E+0	1.264655E+0	1.142320E+0	1.195967E+0	1.293490E+0	1.247677E+0	1.204069E+0	1.104375E+0	1.167949E+0	1.299268E+0	1.258140E+0	1.281215E+0	1.110374E+0	1.367335E+0	1.223054E+0	1.235427E+0	1.239965E+0	1.317100E+0	1.165573E+0	1.183460E+0	1.278035E+0	1.350174E+0	1.148234E+0	1.241925E+0	1.175237E+0	1.327964E+0	1.228102E+0	1.353853E+0	1.227012E+0	1.379863E+0	1.225957E+0	1.200353E+0	1.210871E+0	1.320038E+0	1.141967E+0	1.230538E+0	1.273170E+0	1.281492E+0	1.132678E+0	1.061981E+0	1.202368E+0	1.386846E+0	1.335017E+0	1.198673E+0	1.199841E+0	1.308011E+0	1.328404E+0	1.148845E+0	1.190895E+0	1.285780E+0	1.223192E+0	1.122523E+0	1.262768E+0	1.296809E+0	1.203106E+0	1.165655E+0	1.239584E+0	1.340754E+0	1.356516E+0	1.287292E+0	1.324662E+0	1.289166E+0	1.237332E+0	1.186396E+0	1.238628E+0	1.370441E+0	1.177109E+0	1.176308E+0	1.291774E+0	1.277221E+0	1.246780E+0	1.090293E+0	1.211970E+0	1.276669E+0	1.305866E+0	1.212186E+0	1.214696E+0	1.336992E+0	1.210765E+0	1.326408E+0	1.312026E+0	1.283984E+0	1.189446E+0	1.190621E+0	1.183799E+0	1.353295E+0	1.297522E+0	1.170622E+0	1.214690E+0	1.286955E+0	1.286556E+0	1.312446E+0	1.253287E+0	1.296209E+0	1.297414E+0	1.269720E+0	1.345727E+0	1.296296E+0	1.208955E+0	1.092300E+0	1.270923E+0	1.269041E+0	1.219555E+0	1.200919E+0	1.324387E+0	1.235228E+0	1.239086E+0	1.356044E+0	1.267304E+0	1.243851E+0	1.237152E+0	1.221347E+0	1.334924E+0	1.238999E+0	1.162019E+0	1.121917E+0	1.222331E+0	1.223154E+0	1.106200E+0	1.175299E+0	1.306203E+0	1.200512E+0	1.211277E+0	1.249513E+0	1.276387E+0	1.245946E+0	1.195794E+0	1.298853E+0	1.288199E+0	1.159455E+0
5.495150E+2	1.646559E+0	1.673580E+0	1.587475E+0	1.522578E+0	1.700952E+0	1.659434E+0	1.468149E+0	1.521610E+0	1.637740E+0	1.683829E+0	1.544131E+0	1.407839E+0	1.667682E+0	1.638122E+0	1.609922E+0	1.554481E+0	1.487096E+0	1.629274E+0	1.525483E+0	1.590047E+0	1.614169E+0	1.739414E+0	1.519980E+0	1.557644E+0	1.666317E+0	1.590457E+0	1.509749E+0	1.447052E+0	1.525494E+0	1.628934E+0	1.648865E+0	1.659739E+0	1.559199E+0	1.635553E+0	1.466871E+0	1.679937E+0	1.719084E+0	1.745079E+0	1.435513E+0	1.515108E+0	1.567261E+0	1.637091E+0	1.400431E+0	1.411176E+0	1.467336E+0	1.756018E+0	1.624758E+0	1.655213E+0	1.517851E+0	1.670190E+0	1.493607E+0	1.492255E+0	1.588878E+0	1.692292E+0	1.488363E+0	1.528477E+0	1.498555E+0	1.717420E+0	1.462871E+0	1.593898E+0	1.467397E+0	1.632247E+0	1.556010E+0	1.741719E+0	1.481733E+0	1.666680E+0	1.506528E+0	1.654207E+0	1.624274E+0	1.642788E+0	1.483319E+0	1.440317E+0	1.715377E+0	1.693175E+0	1.552800E+0	1.482805E+0	1.460348E+0	1.643327E+0	1.680929E+0	1.559226E+0	1.560437E+0	1.635960E+0	1.576419E+0	1.505800E+0	1.606002E+0	1.485399E+0	1.532091E+0	1.519201E+0	1.750225E+0	1.677714E+0	1.618382E+0	1.440974E+0	1.599462E+0	1.603934E+0	1.731099E+0	1.551758E+0	1.530645E+0	1.709589E+0	1.634736E+0	1.492908E+0	1.604059E+0	1.678343E+0	1.512000E+0	1.499704E+0	1.589581E+0	1.596815E+0	1.528935E+0	1.411864E+0	1.583762E+0	1.646377E+0	1.602459E+0	1.509461E+0	1.638613E+0	1.739114E+0	1.547888E+0	1.669556E+0	1.659203E+0	1.674027E+0	1.457304E+0	1.522342E+0	1.512506E+0	1.578844E+0	1.612487E+0	1.534855E+0	1.575825E+0	1.660768E+0	1.659271E+0	1.620189E+0	1.567260E+0	1.678561E+0	1.595656E+0	1.510494E+0	1.547117E+0	1.656478E+0	1.483140E+0	1.507573E+0	1.741071E+0	1.634225E+0	1.482773E+0	1.536816E+0	1.615921E+0	1.702138E+0	1.572472E+0	1.590549E+0	1.629307E+0	1.674969E+0	1.575249E+0	1.524148E+0	1.704015E+0	1.646839E+0	1.406073E+0	1.436728E+0	1.442077E+0	1.660926E+0	1.489196E+0	1.493520E+0	1.602092E+0	1.656897E+0	1.514023E+0	1.698930E+0	1.625676E+0	1.642557E+0	1.521215E+0	1.710581E+0	1.609527E+0	1.618647E+0
5.500050E+2	2.009663E+0	2.068565E+0	1.927692E+0	1.867465E+0	2.086638E+0	1.948163E+0	1.832264E+0	1.752506E+0	1.962262E+0	1.978958E+0	1.876539E+0	1.671610E+0	2.050240E+0	2.055356E+0	1.916153E+0	1.861068E+0	1.931029E+0	1.985846E+0	1.872004E+0	2.035232E+0	1.963833E+0	2.132465E+0	1.861648E+0	1.802176E+0	1.970741E+0	1.924087E+0	1.845954E+0	1.716991E+0	1.898022E+0	2.068197E+0	1.901787E+0	1.956614E+0	1.900570E+0	2.039562E+0	1.780150E+0	1.940549E+0	1.997096E+0	2.021549E+0	1.804070E+0	1.836412E+0	2.005071E+0	1.963296E+0	1.783447E+0	1.845547E+0	1.858521E+0	2.083148E+0	1.919574E+0	1.910576E+0	1.853357E+0	2.087918E+0	1.904324E+0	1.956350E+0	1.963716E+0	2.145557E+0	1.722386E+0	1.838350E+0	1.887577E+0	2.025468E+0	1.870116E+0	1.912052E+0	1.882963E+0	2.069586E+0	1.869269E+0	2.025899E+0	1.752812E+0	2.080176E+0	1.903349E+0	1.943136E+0	1.944751E+0	1.983407E+0	1.763065E+0	1.754986E+0	1.895176E+0	1.979942E+0	1.889752E+0	1.757918E+0	1.871503E+0	1.911917E+0	2.084307E+0	1.957851E+0	1.891270E+0	2.070897E+0	1.935572E+0	1.859538E+0	1.876678E+0	2.017003E+0	1.851026E+0	1.803108E+0	2.013164E+0	2.033225E+0	1.837711E+0	1.759482E+0	1.933467E+0	1.982626E+0	2.094946E+0	1.843230E+0	1.979027E+0	2.028448E+0	1.951930E+0	1.823273E+0	1.956779E+0	1.950415E+0	1.790337E+0	1.728253E+0	1.949000E+0	1.943997E+0	1.995620E+0	1.706823E+0	1.902760E+0	1.911927E+0	2.011070E+0	1.826906E+0	1.953356E+0	2.089901E+0	1.841548E+0	1.955312E+0	1.935597E+0	1.978748E+0	1.799812E+0	1.857262E+0	1.950782E+0	1.987795E+0	1.825889E+0	1.722556E+0	1.981530E+0	2.079620E+0	1.976500E+0	1.961997E+0	1.913552E+0	2.021637E+0	1.934516E+0	2.019454E+0	1.949896E+0	1.941759E+0	1.813709E+0	1.715210E+0	1.988966E+0	2.022578E+0	1.743814E+0	1.797307E+0	1.920232E+0	2.041609E+0	1.975869E+0	1.907951E+0	1.965453E+0	1.940185E+0	1.872400E+0	1.815524E+0	2.075536E+0	1.932968E+0	1.724118E+0	1.760105E+0	1.888812E+0	1.914028E+0	1.886881E+0	1.743060E+0	1.960710E+0	1.906744E+0	1.896805E+0	1.994002E+0	1.966679E+0	1.900163E+0	1.841471E+0	1.786738E+0	1.851345E+0	1.887098E+0
5.504950E+2	2.090482E+0	2.087138E+0	1.934829E+0	2.040532E+0	2.136446E+0	2.068466E+0	1.795361E+0	1.897263E+0	2.073075E+0	2.147917E+0	1.877598E+0	1.907840E+0	2.056798E+0	2.130053E+0	2.088128E+0	1.895132E+0	1.946299E+0	2.093726E+0	1.973860E+0	2.095939E+0	2.033345E+0	2.141151E+0	1.867572E+0	1.893375E+0	2.194710E+0	2.085590E+0	1.892678E+0	1.934649E+0	2.026014E+0	2.129848E+0	2.039838E+0	2.051999E+0	2.010024E+0	2.093192E+0	1.919618E+0	2.131329E+0	2.079976E+0	2.181313E+0	1.891822E+0	1.882931E+0	2.061635E+0	2.099872E+0	1.902127E+0	1.933052E+0	1.866866E+0	2.149811E+0	1.845598E+0	2.067416E+0	1.913686E+0	2.106484E+0	1.986903E+0	1.980006E+0	2.015566E+0	2.122786E+0	1.833345E+0	1.823443E+0	2.024415E+0	2.071511E+0	1.905819E+0	2.023530E+0	2.000038E+0	2.088125E+0	2.025897E+0	2.069421E+0	1.923405E+0	2.076590E+0	2.115734E+0	2.010097E+0	2.047208E+0	2.064933E+0	1.866078E+0	1.951652E+0	2.026381E+0	2.007100E+0	1.871624E+0	1.860133E+0	2.063836E+0	2.089143E+0	2.089832E+0	1.973527E+0	1.965679E+0	2.131371E+0	2.033843E+0	1.913135E+0	2.000783E+0	2.094929E+0	1.990422E+0	1.904010E+0	2.188457E+0	2.174045E+0	1.918984E+0	1.799431E+0	2.013442E+0	2.044551E+0	2.135504E+0	1.992907E+0	2.049585E+0	2.179612E+0	2.151240E+0	1.962815E+0	2.073294E+0	2.011995E+0	1.881267E+0	1.925947E+0	2.058538E+0	2.102644E+0	1.933713E+0	1.795532E+0	1.992620E+0	1.957711E+0	2.068351E+0	1.982974E+0	1.967295E+0	2.146124E+0	2.001300E+0	2.071288E+0	2.089524E+0	2.095096E+0	1.964479E+0	1.899927E+0	1.959820E+0	2.151831E+0	1.913759E+0	1.871154E+0	2.029530E+0	1.996300E+0	2.047667E+0	2.023319E+0	1.875460E+0	2.108273E+0	1.955404E+0	1.884764E+0	2.037508E+0	2.081648E+0	1.901050E+0	1.912905E+0	2.081775E+0	2.098705E+0	1.874336E+0	1.912700E+0	2.075870E+0	2.127321E+0	2.000318E+0	2.087921E+0	1.920791E+0	2.028979E+0	1.942593E+0	1.910362E+0	2.223659E+0	2.085640E+0	1.837863E+0	1.844697E+0	2.050602E+0	2.197547E+0	1.791979E+0	1.875843E+0	2.037641E+0	2.114393E+0	1.881727E+0	2.099546E+0	2.085081E+0	2.111859E+0	1.977494E+0	2.034253E+0	2.093170E+0	2.063706E+0
5.510080E+2	1.845680E+0	1.828354E+0	1.725465E+0	1.659536E+0	1.951265E+0	1.785754E+0	1.559178E+0	1.596980E+0	1.784734E+0	1.792445E+0	1.645759E+0	1.598516E+0	1.729984E+0	1.838736E+0	1.755269E+0	1.696934E+0	1.733604E+0	1.850712E+0	1.679842E+0	1.755305E+0	1.790055E+0	1.801303E+0	1.642427E+0	1.633809E+0	1.810918E+0	1.743458E+0	1.632651E+0	1.567618E+0	1.653486E+0	1.732419E+0	1.747926E+0	1.667241E+0	1.722839E+0	1.774990E+0	1.632358E+0	1.809619E+0	1.743214E+0	1.766608E+0	1.636827E+0	1.639518E+0	1.770894E+0	1.738678E+0	1.724107E+0	1.611492E+0	1.637371E+0	1.828850E+0	1.697646E+0	1.765803E+0	1.613105E+0	1.742130E+0	1.691359E+0	1.767108E+0	1.757393E+0	1.821331E+0	1.505512E+0	1.639223E+0	1.672712E+0	1.805120E+0	1.588950E+0	1.662790E+0	1.678343E+0	1.874365E+0	1.649537E+0	1.764761E+0	1.610262E+0	1.879404E+0	1.632840E+0	1.765809E+0	1.783917E+0	1.802489E+0	1.600469E+0	1.628243E+0	1.805276E+0	1.802886E+0	1.638104E+0	1.619818E+0	1.615828E+0	1.842568E+0	1.700820E+0	1.767495E+0	1.654307E+0	1.802260E+0	1.709785E+0	1.707323E+0	1.760064E+0	1.818452E+0	1.700480E+0	1.595372E+0	1.775438E+0	1.856625E+0	1.681843E+0	1.503597E+0	1.727655E+0	1.780180E+0	1.859936E+0	1.723940E+0	1.737765E+0	1.838314E+0	1.702793E+0	1.725476E+0	1.696211E+0	1.771273E+0	1.619564E+0	1.537415E+0	1.768720E+0	1.831335E+0	1.606318E+0	1.600372E+0	1.716303E+0	1.827226E+0	1.719569E+0	1.695256E+0	1.714106E+0	1.833228E+0	1.596048E+0	1.777163E+0	1.738975E+0	1.876805E+0	1.568180E+0	1.640737E+0	1.690979E+0	1.763385E+0	1.623900E+0	1.659989E+0	1.802106E+0	1.728324E+0	1.760592E+0	1.650849E+0	1.715010E+0	1.805628E+0	1.770889E+0	1.758418E+0	1.784917E+0	1.728074E+0	1.611388E+0	1.597034E+0	1.849754E+0	1.814060E+0	1.644835E+0	1.620218E+0	1.809890E+0	1.740484E+0	1.666932E+0	1.729072E+0	1.786802E+0	1.781289E+0	1.700426E+0	1.733253E+0	1.767150E+0	1.815526E+0	1.550740E+0	1.580214E+0	1.650955E+0	1.754346E+0	1.604435E+0	1.730469E+0	1.727549E+0	1.825682E+0	1.609139E+0	1.705740E+0	1.758288E+0	1.725450E+0	1.646907E+0	1.770079E+0	1.563147E+0	1.533873E+0
5.515000E+2	1.409956E+0	1.471754E+0	1.385249E+0	1.361963E+0	1.451915E+0	1.416422E+0	1.477989E+0	1.252429E+0	1.401415E+0	1.461111E+0	1.428742E+0	1.277542E+0	1.408635E+0	1.499400E+0	1.422412E+0	1.278863E+0	1.289670E+0	1.468022E+0	1.463528E+0	1.317990E+0	1.413008E+0	1.478828E+0	1.371857E+0	1.344178E+0	1.415167E+0	1.380078E+0	1.348248E+0	1.281675E+0	1.348595E+0	1.427468E+0	1.387512E+0	1.390729E+0	1.305608E+0	1.457979E+0	1.256630E+0	1.356981E+0	1.422189E+0	1.462943E+0	1.200133E+0	1.351751E+0	1.345529E+0	1.275894E+0	1.305488E+0	1.283606E+0	1.258704E+0	1.488140E+0	1.329940E+0	1.443080E+0	1.350627E+0	1.351091E+0	1.303460E+0	1.369473E+0	1.382555E+0	1.369149E+0	1.154478E+0	1.264390E+0	1.343627E+0	1.525576E+0	1.265386E+0	1.414780E+0	1.356651E+0	1.456658E+0	1.228102E+0	1.474181E+0	1.297119E+0	1.482639E+0	1.380215E+0	1.423561E+0	1.372896E+0	1.336790E+0	1.281335E+0	1.270964E+0	1.435961E+0	1.437909E+0	1.275562E+0	1.287074E+0	1.369364E+0	1.438583E+0	1.350489E+0	1.402464E+0	1.332632E+0	1.434772E+0	1.447731E+0	1.343938E+0	1.337467E+0	1.404270E+0	1.331362E+0	1.312453E+0	1.429655E+0	1.407617E+0	1.326687E+0	1.259587E+0	1.378360E+0	1.396725E+0	1.296870E+0	1.237776E+0	1.353113E+0	1.439149E+0	1.488898E+0	1.386761E+0	1.463182E+0	1.438740E+0	1.394455E+0	1.296297E+0	1.415005E+0	1.407128E+0	1.352737E+0	1.204507E+0	1.286105E+0	1.388840E+0	1.380970E+0	1.360823E+0	1.359873E+0	1.395660E+0	1.276545E+0	1.338365E+0	1.362585E+0	1.423603E+0	1.231161E+0	1.305817E+0	1.305794E+0	1.470626E+0	1.238180E+0	1.289054E+0	1.314116E+0	1.399550E+0	1.372197E+0	1.443039E+0	1.357176E+0	1.470636E+0	1.350796E+0	1.455663E+0	1.410582E+0	1.425168E+0	1.313986E+0	1.295519E+0	1.368616E+0	1.373853E+0	1.332672E+0	1.310600E+0	1.388270E+0	1.502517E+0	1.337989E+0	1.396400E+0	1.323721E+0	1.385219E+0	1.264060E+0	1.309330E+0	1.378631E+0	1.352170E+0	1.220547E+0	1.214005E+0	1.369633E+0	1.433892E+0	1.227086E+0	1.289768E+0	1.318038E+0	1.385953E+0	1.317992E+0	1.321012E+0	1.345061E+0	1.439789E+0	1.283606E+0	1.358350E+0	1.384265E+0	1.286616E+0
5.520040E+2	1.152269E+0	1.186967E+0	1.194918E+0	1.109212E+0	1.181167E+0	1.071152E+0	1.191371E+0	1.075371E+0	1.177526E+0	1.236197E+0	1.185259E+0	1.049788E+0	1.065425E+0	1.182474E+0	1.250436E+0	1.060019E+0	1.046435E+0	1.196618E+0	1.142208E+0	1.107763E+0	1.224483E+0	1.148751E+0	1.152636E+0	1.079602E+0	1.164016E+0	1.127198E+0	1.158308E+0	9.722595E-1	1.137357E+0	1.139029E+0	1.144075E+0	1.084209E+0	1.079111E+0	1.198173E+0	1.131735E+0	1.164953E+0	1.088573E+0	1.205735E+0	1.146449E+0	1.032609E+0	1.124927E+0	1.119001E+0	1.111282E+0	1.026357E+0	1.075109E+0	1.196808E+0	1.180901E+0	1.115330E+0	1.127308E+0	1.207207E+0	1.042685E+0	1.050689E+0	1.041202E+0	1.204326E+0	1.131277E+0	1.089753E+0	1.184171E+0	1.185736E+0	1.186169E+0	1.092869E+0	1.061325E+0	1.231990E+0	1.187537E+0	1.134958E+0	1.035387E+0	1.200602E+0	1.134297E+0	1.170594E+0	1.138198E+0	1.237396E+0	1.120758E+0	1.095055E+0	1.208783E+0	1.261940E+0	1.136943E+0	1.028273E+0	1.083744E+0	1.166689E+0	1.151562E+0	1.123650E+0	1.124287E+0	1.263821E+0	1.111976E+0	1.085601E+0	1.109585E+0	1.147007E+0	9.956983E-1	1.078007E+0	1.106685E+0	1.187155E+0	1.101791E+0	1.003702E+0	1.054939E+0	1.208570E+0	1.230067E+0	1.031832E+0	1.109575E+0	1.191146E+0	1.140107E+0	1.120799E+0	1.092455E+0	1.135317E+0	1.001901E+0	1.041466E+0	1.182237E+0	1.172607E+0	1.107488E+0	1.075878E+0	1.103017E+0	1.141605E+0	1.104743E+0	1.074167E+0	1.107845E+0	1.123099E+0	1.069808E+0	1.160215E+0	1.078327E+0	1.123314E+0	1.057712E+0	1.065825E+0	1.135227E+0	1.191539E+0	1.029345E+0	1.053309E+0	1.127835E+0	1.107930E+0	1.173175E+0	1.189805E+0	1.093994E+0	1.203800E+0	1.100133E+0	1.129070E+0	1.150027E+0	1.176236E+0	1.023217E+0	1.012780E+0	1.128047E+0	1.072659E+0	9.867927E-1	1.122084E+0	1.085120E+0	1.207032E+0	1.122401E+0	1.121539E+0	1.155647E+0	1.135194E+0	1.094427E+0	1.004244E+0	1.096956E+0	1.168535E+0	1.074777E+0	1.026617E+0	1.100386E+0	1.127561E+0	9.954808E-1	1.060831E+0	1.071860E+0	1.102794E+0	1.098762E+0	1.181420E+0	1.135487E+0	1.296957E+0	1.039110E+0	1.201275E+0	9.503121E-1	1.032295E+0
5.525040E+2	1.104246E+0	1.258784E+0	1.223470E+0	1.206326E+0	1.293554E+0	1.178221E+0	1.326685E+0	1.077764E+0	1.185442E+0	1.243878E+0	1.283711E+0	1.075211E+0	1.146309E+0	1.229425E+0	1.226027E+0	1.151892E+0	1.176233E+0	1.260210E+0	1.203113E+0	1.229177E+0	1.210792E+0	1.224755E+0	1.273110E+0	1.055549E+0	1.166190E+0	1.252576E+0	1.248708E+0	1.064017E+0	1.164412E+0	1.239212E+0	1.159882E+0	1.119577E+0	1.127878E+0	1.252995E+0	1.217080E+0	1.146248E+0	1.242792E+0	1.269187E+0	1.158838E+0	1.219767E+0	1.127189E+0	1.230746E+0	1.254778E+0	1.101212E+0	1.099100E+0	1.237544E+0	1.155879E+0	1.237984E+0	1.084973E+0	1.246659E+0	1.219795E+0	1.214024E+0	1.251847E+0	1.318185E+0	1.237192E+0	1.090817E+0	1.183041E+0	1.191218E+0	1.218525E+0	1.144226E+0	1.099295E+0	1.202544E+0	1.232610E+0	1.193843E+0	1.104326E+0	1.266330E+0	1.270670E+0	1.186713E+0	1.135815E+0	1.215060E+0	1.194482E+0	1.168260E+0	1.230650E+0	1.177213E+0	1.200921E+0	1.072856E+0	1.200066E+0	1.194208E+0	1.222292E+0	1.175158E+0	1.196407E+0	1.190555E+0	1.141222E+0	1.043795E+0	1.142751E+0	1.166221E+0	1.203118E+0	1.070094E+0	1.202736E+0	1.167531E+0	1.212013E+0	1.107353E+0	1.216062E+0	1.156172E+0	1.275398E+0	1.062217E+0	1.174443E+0	1.213585E+0	1.152260E+0	1.106487E+0	1.170837E+0	1.280870E+0	1.220357E+0	9.729006E-1	1.210762E+0	1.295614E+0	1.272970E+0	1.002692E+0	1.152439E+0	1.221727E+0	1.221853E+0	1.108141E+0	1.194952E+0	1.163433E+0	1.180224E+0	1.193693E+0	1.183941E+0	1.238553E+0	1.104917E+0	1.030627E+0	1.134097E+0	1.254191E+0	1.135474E+0	1.047723E+0	1.167833E+0	1.157471E+0	1.211773E+0	1.257938E+0	1.166714E+0	1.296211E+0	1.203416E+0	1.181516E+0	1.136373E+0	1.230208E+0	1.145938E+0	1.068003E+0	1.152471E+0	1.278971E+0	1.137979E+0	1.070673E+0	1.169910E+0	1.200265E+0	1.112399E+0	1.219703E+0	1.180330E+0	1.215810E+0	1.163449E+0	1.067090E+0	1.277860E+0	1.129032E+0	1.073675E+0	1.070518E+0	1.187318E+0	1.193823E+0	1.072306E+0	1.069988E+0	1.210335E+0	1.217168E+0	1.154438E+0	1.164397E+0	1.202977E+0	1.175806E+0	1.064937E+0	1.175095E+0	1.152380E+0	1.081746E+0
5.530150E+2	1.367790E+0	1.321932E+0	1.362648E+0	1.289747E+0	1.434036E+0	1.353864E+0	1.384501E+0	1.246449E+0	1.331307E+0	1.383213E+0	1.454149E+0	1.233050E+0	1.393333E+0	1.438576E+0	1.319227E+0	1.318089E+0	1.263493E+0	1.401022E+0	1.417326E+0	1.359586E+0	1.378251E+0	1.330077E+0	1.337296E+0	1.245965E+0	1.314054E+0	1.377953E+0	1.349265E+0	1.214457E+0	1.199791E+0	1.371322E+0	1.415965E+0	1.251402E+0	1.324032E+0	1.367405E+0	1.392974E+0	1.300869E+0	1.349800E+0	1.462942E+0	1.354988E+0	1.235994E+0	1.296883E+0	1.389898E+0	1.347565E+0	1.258303E+0	1.252445E+0	1.425183E+0	1.394125E+0	1.315398E+0	1.184461E+0	1.373138E+0	1.382778E+0	1.316530E+0	1.286414E+0	1.460237E+0	1.378412E+0	1.275039E+0	1.287082E+0	1.353464E+0	1.449483E+0	1.298292E+0	1.242739E+0	1.353048E+0	1.345293E+0	1.435778E+0	1.286602E+0	1.345205E+0	1.374626E+0	1.293356E+0	1.327624E+0	1.374760E+0	1.337890E+0	1.234908E+0	1.420167E+0	1.379254E+0	1.369397E+0	1.225091E+0	1.311780E+0	1.383544E+0	1.369277E+0	1.359915E+0	1.356672E+0	1.388254E+0	1.313194E+0	1.267831E+0	1.275414E+0	1.380784E+0	1.380429E+0	1.260024E+0	1.317996E+0	1.392612E+0	1.374559E+0	1.200206E+0	1.292508E+0	1.424114E+0	1.383954E+0	1.223147E+0	1.290522E+0	1.332862E+0	1.451225E+0	1.343826E+0	1.342430E+0	1.284230E+0	1.325703E+0	1.176310E+0	1.348826E+0	1.381836E+0	1.287257E+0	1.218921E+0	1.311939E+0	1.316731E+0	1.393699E+0	1.335343E+0	1.236764E+0	1.449440E+0	1.394010E+0	1.314452E+0	1.288432E+0	1.305037E+0	1.448521E+0	1.305817E+0	1.239147E+0	1.425061E+0	1.388815E+0	1.236542E+0	1.231831E+0	1.400676E+0	1.451806E+0	1.303362E+0	1.285608E+0	1.390932E+0	1.408821E+0	1.273295E+0	1.371897E+0	1.425168E+0	1.461028E+0	1.264594E+0	1.311222E+0	1.339651E+0	1.377268E+0	1.159789E+0	1.395238E+0	1.450639E+0	1.423559E+0	1.371314E+0	1.149772E+0	1.318625E+0	1.365838E+0	1.252198E+0	1.445407E+0	1.348967E+0	1.330980E+0	1.144403E+0	1.396196E+0	1.357852E+0	1.372829E+0	1.261150E+0	1.322773E+0	1.415934E+0	1.352791E+0	1.349385E+0	1.320197E+0	1.347968E+0	1.199239E+0	1.415470E+0	1.357764E+0	1.201843E+0
5.534770E+2	1.353733E+0	1.352888E+0	1.369784E+0	1.305933E+0	1.372734E+0	1.315367E+0	1.382041E+0	1.137581E+0	1.257809E+0	1.378825E+0	1.372634E+0	1.108050E+0	1.325565E+0	1.370281E+0	1.329212E+0	1.270604E+0	1.259130E+0	1.480512E+0	1.419426E+0	1.373075E+0	1.401422E+0	1.380021E+0	1.383707E+0	1.283045E+0	1.373853E+0	1.322701E+0	1.326919E+0	1.124833E+0	1.193548E+0	1.350404E+0	1.371705E+0	1.283554E+0	1.306691E+0	1.359061E+0	1.335730E+0	1.351994E+0	1.363440E+0	1.439148E+0	1.350859E+0	1.260877E+0	1.334216E+0	1.297341E+0	1.364827E+0	1.206642E+0	1.218020E+0	1.391852E+0	1.375632E+0	1.308361E+0	1.169644E+0	1.420713E+0	1.344749E+0	1.223036E+0	1.347988E+0	1.450478E+0	1.350170E+0	1.205823E+0	1.366244E+0	1.349079E+0	1.279890E+0	1.290776E+0	1.193166E+0	1.477379E+0	1.340786E+0	1.416579E+0	1.205980E+0	1.376277E+0	1.351152E+0	1.320637E+0	1.318094E+0	1.404914E+0	1.352028E+0	1.161705E+0	1.355779E+0	1.390116E+0	1.366198E+0	1.208781E+0	1.261105E+0	1.372535E+0	1.348279E+0	1.316244E+0	1.347514E+0	1.378951E+0	1.416144E+0	1.290341E+0	1.264716E+0	1.329546E+0	1.386005E+0	1.214520E+0	1.354015E+0	1.396075E+0	1.374561E+0	1.149459E+0	1.279571E+0	1.370526E+0	1.399463E+0	1.204016E+0	1.266623E+0	1.382463E+0	1.319971E+0	1.340248E+0	1.247101E+0	1.434261E+0	1.324594E+0	1.255157E+0	1.347684E+0	1.426671E+0	1.374165E+0	1.263276E+0	1.307446E+0	1.344201E+0	1.414066E+0	1.328974E+0	1.295995E+0	1.390773E+0	1.445694E+0	1.337168E+0	1.300790E+0	1.282875E+0	1.292637E+0	1.278084E+0	1.198483E+0	1.323678E+0	1.380828E+0	1.168388E+0	1.270688E+0	1.347756E+0	1.448187E+0	1.353327E+0	1.329473E+0	1.350503E+0	1.343834E+0	1.322166E+0	1.345728E+0	1.388820E+0	1.395800E+0	1.204954E+0	1.336867E+0	1.365026E+0	1.301131E+0	1.165500E+0	1.334841E+0	1.332219E+0	1.342436E+0	1.276421E+0	1.315493E+0	1.380547E+0	1.444221E+0	1.216776E+0	1.388345E+0	1.326546E+0	1.411596E+0	1.227925E+0	1.417929E+0	1.407821E+0	1.381867E+0	1.229100E+0	1.225721E+0	1.312665E+0	1.350470E+0	1.301719E+0	1.382950E+0	1.312261E+0	1.392080E+0	1.308372E+0	1.357764E+0	1.258358E+0
5.540290E+2	1.224891E+0	1.199350E+0	1.166369E+0	1.152789E+0	1.219481E+0	1.100024E+0	1.142167E+0	1.055032E+0	1.093851E+0	1.147330E+0	1.185258E+0	9.872880E-1	1.114612E+0	1.141923E+0	1.169440E+0	1.037310E+0	1.099880E+0	1.135296E+0	1.127507E+0	1.143738E+0	1.181302E+0	1.159610E+0	1.138812E+0	1.029493E+0	1.070515E+0	1.110199E+0	1.177606E+0	9.711916E-1	1.055150E+0	1.111507E+0	1.122998E+0	1.068133E+0	1.094283E+0	1.161229E+0	1.124449E+0	1.077667E+0	1.084378E+0	1.153613E+0	1.113414E+0	1.053165E+0	1.078543E+0	1.097556E+0	1.180333E+0	1.036900E+0	1.054245E+0	1.233843E+0	1.197217E+0	1.127394E+0	9.770192E-1	1.210688E+0	1.110052E+0	1.094621E+0	1.113578E+0	1.214085E+0	1.112112E+0	1.056742E+0	1.058644E+0	1.187929E+0	1.095793E+0	1.095374E+0	1.012807E+0	1.130563E+0	1.136830E+0	1.174640E+0	1.026040E+0	1.186261E+0	1.109706E+0	1.143313E+0	1.035742E+0	1.164804E+0	1.156105E+0	1.051352E+0	1.174767E+0	1.131590E+0	1.195590E+0	1.100041E+0	1.039980E+0	1.228333E+0	1.223398E+0	1.077743E+0	1.062471E+0	1.152178E+0	1.188017E+0	1.015926E+0	1.098886E+0	1.141670E+0	1.108330E+0	1.041406E+0	1.157111E+0	1.105202E+0	1.139645E+0	9.939851E-1	1.092574E+0	1.140692E+0	1.188313E+0	1.005949E+0	1.107299E+0	1.149813E+0	1.171704E+0	1.188781E+0	1.082921E+0	1.178983E+0	1.105030E+0	1.075748E+0	1.045315E+0	1.178354E+0	1.149156E+0	1.064789E+0	1.091785E+0	1.156485E+0	1.154388E+0	1.022143E+0	1.119460E+0	1.147543E+0	1.190795E+0	1.052607E+0	1.183942E+0	1.147691E+0	1.100525E+0	1.067959E+0	1.096821E+0	1.167616E+0	1.171992E+0	1.104704E+0	1.126692E+0	1.155219E+0	1.149052E+0	1.121669E+0	1.127468E+0	1.159903E+0	1.208057E+0	1.113575E+0	1.160268E+0	1.150902E+0	1.237700E+0	1.029347E+0	1.159798E+0	1.197329E+0	1.121664E+0	1.106089E+0	1.157133E+0	1.099890E+0	1.166853E+0	1.085545E+0	1.120388E+0	1.040559E+0	1.162280E+0	1.137934E+0	1.197728E+0	1.118356E+0	1.189627E+0	1.010554E+0	1.021905E+0	1.130819E+0	1.161559E+0	9.829933E-1	1.051738E+0	1.180524E+0	1.105722E+0	1.150778E+0	1.121278E+0	1.173255E+0	1.147584E+0	1.115595E+0	1.135818E+0	1.110004E+0
5.550140E+2	1.025768E+0	1.056957E+0	9.796072E-1	1.028280E+0	9.896012E-1	1.079573E+0	1.017925E+0	9.485575E-1	1.009047E+0	1.031033E+0	9.947078E-1	9.152543E-1	9.277038E-1	1.147260E+0	9.774927E-1	9.960188E-1	9.602660E-1	1.002434E+0	1.010950E+0	1.067291E+0	1.011736E+0	1.047774E+0	1.057839E+0	9.052222E-1	1.008543E+0	9.540083E-1	1.096349E+0	9.039745E-1	9.448490E-1	1.068571E+0	1.040799E+0	1.014544E+0	1.003250E+0	1.031327E+0	9.547995E-1	9.604552E-1	9.815664E-1	1.126419E+0	1.075216E+0	9.211806E-1	9.880404E-1	9.880671E-1	1.058416E+0	8.418549E-1	9.040295E-1	1.067189E+0	1.067759E+0	1.052997E+0	8.859986E-1	1.006465E+0	1.023128E+0	9.819775E-1	1.007716E+0	1.039503E+0	1.056632E+0	9.577102E-1	9.647808E-1	1.030068E+0	1.037776E+0	9.525813E-1	9.326469E-1	1.061854E+0	1.055699E+0	1.047912E+0	9.489225E-1	1.020145E+0	1.068346E+0	9.858282E-1	1.013105E+0	1.025208E+0	1.047033E+0	9.082219E-1	1.061784E+0	1.034915E+0	1.109221E+0	9.151823E-1	9.259621E-1	1.086332E+0	1.032206E+0	9.433735E-1	9.731804E-1	1.016114E+0	1.012535E+0	8.358411E-1	9.351962E-1	1.084026E+0	9.845476E-1	9.414938E-1	9.734141E-1	1.050952E+0	9.871171E-1	8.557854E-1	9.926081E-1	1.057331E+0	1.079757E+0	9.463042E-1	1.042432E+0	1.018727E+0	1.006423E+0	9.514410E-1	1.001362E+0	1.043506E+0	9.608714E-1	8.940515E-1	9.255080E-1	9.898174E-1	1.046770E+0	9.040035E-1	9.760919E-1	9.870820E-1	9.825431E-1	1.026391E+0	8.918224E-1	1.064430E+0	1.034569E+0	9.521743E-1	9.772089E-1	9.881276E-1	1.047832E+0	9.239638E-1	9.736977E-1	1.037754E+0	1.029345E+0	8.935388E-1	9.426957E-1	1.080907E+0	1.068236E+0	9.433837E-1	1.005112E+0	1.047856E+0	1.072281E+0	9.478957E-1	9.884594E-1	9.801733E-1	1.061913E+0	8.338587E-1	9.937204E-1	1.002049E+0	1.013984E+0	9.461390E-1	9.329659E-1	1.040118E+0	1.086839E+0	9.404783E-1	9.981536E-1	1.005507E+0	1.038273E+0	9.448268E-1	9.536906E-1	1.055365E+0	1.071465E+0	9.430961E-1	9.796466E-1	1.039572E+0	1.051971E+0	9.349173E-1	9.333825E-1	9.595485E-1	1.009445E+0	9.680609E-1	9.981392E-1	9.908912E-1	1.020170E+0	9.942196E-1	9.999988E-1	1.018166E+0
5.560300E+2	9.508052E-1	9.430427E-1	9.308346E-1	9.174688E-1	9.295763E-1	9.400198E-1	1.008083E+0	9.485575E-1	9.592932E-1	9.399709E-1	9.671841E-1	9.173729E-1	9.124020E-1	9.477136E-1	1.014107E+0	8.814356E-1	8.991840E-1	1.011518E+0	9.636976E-1	1.000963E+0	9.285332E-1	1.002171E+0	1.005502E+0	9.372929E-1	9.411350E-1	1.034759E+0	9.754771E-1	8.612967E-1	9.084288E-1	8.627008E-1	1.007077E+0	9.738187E-1	8.764565E-1	9.586290E-1	8.600868E-1	8.906255E-1	9.144240E-1	9.315297E-1	9.709454E-1	8.768269E-1	9.179010E-1	9.214717E-1	9.343407E-1	9.082771E-1	8.946411E-1	9.165860E-1	9.546195E-1	8.649927E-1	8.404878E-1	9.403240E-1	8.960014E-1	9.087573E-1	9.483037E-1	1.031912E+0	9.456727E-1	8.821050E-1	9.059753E-1	9.895079E-1	1.015461E+0	9.200148E-1	8.778012E-1	9.866006E-1	9.599174E-1	1.013350E+0	9.232165E-1	9.675630E-1	9.241498E-1	9.250667E-1	8.856292E-1	9.727181E-1	8.975659E-1	8.787219E-1	9.694550E-1	9.034803E-1	8.948938E-1	8.292785E-1	8.637714E-1	9.190137E-1	9.957373E-1	9.556907E-1	9.205224E-1	9.812273E-1	9.692486E-1	8.551359E-1	8.603059E-1	9.196343E-1	9.421712E-1	7.950891E-1	9.049780E-1	9.505313E-1	1.019404E+0	8.341910E-1	9.831984E-1	9.620625E-1	9.366038E-1	8.427686E-1	9.479756E-1	9.407839E-1	9.553812E-1	9.132766E-1	1.009836E+0	8.957142E-1	9.741790E-1	8.094885E-1	8.616108E-1	9.587785E-1	9.991500E-1	8.452340E-1	8.940949E-1	9.619011E-1	8.908912E-1	8.437797E-1	9.301498E-1	9.434273E-1	9.100556E-1	8.816314E-1	8.659776E-1	9.881276E-1	9.391523E-1	8.258356E-1	8.641270E-1	9.967460E-1	9.688619E-1	8.276208E-1	9.038388E-1	9.165189E-1	9.572669E-1	9.286203E-1	9.254650E-1	9.531348E-1	1.018900E+0	9.073689E-1	8.974362E-1	9.328093E-1	9.701493E-1	8.460077E-1	9.363256E-1	9.347488E-1	9.465492E-1	7.941854E-1	9.201899E-1	9.036539E-1	9.901574E-1	9.241165E-1	8.900221E-1	9.354064E-1	9.177739E-1	8.557003E-1	1.025323E+0	9.720889E-1	9.897449E-1	9.323874E-1	8.782258E-1	1.041745E+0	9.988702E-1	8.765384E-1	9.037931E-1	9.251254E-1	1.017566E+0	8.840786E-1	8.868403E-1	9.079974E-1	9.667939E-1	1.006120E+0	8.973090E-1	9.687148E-1
5.570330E+2	1.222547E+0	1.070578E+0	1.134251E+0	1.090535E+0	1.195216E+0	1.144537E+0	1.228275E+0	1.151937E+0	1.124381E+0	1.152815E+0	1.173614E+0	1.167373E+0	1.191124E+0	1.185675E+0	1.169440E+0	1.145699E+0	1.040980E+0	1.072839E+0	1.188411E+0	1.199948E+0	1.129695E+0	1.214984E+0	1.252371E+0	1.120692E+0	1.134661E+0	1.146324E+0	1.157293E+0	1.141904E+0	1.022893E+0	1.119213E+0	1.151452E+0	1.194600E+0	1.114873E+0	1.188641E+0	1.114041E+0	1.075173E+0	1.113752E+0	1.137751E+0	1.141288E+0	1.210030E+0	1.150946E+0	1.124644E+0	1.179254E+0	1.144438E+0	1.030252E+0	1.137554E+0	1.129769E+0	1.150518E+0	1.044755E+0	1.188641E+0	1.170900E+0	1.131793E+0	1.071449E+0	1.156614E+0	1.167591E+0	1.127023E+0	1.131021E+0	1.207661E+0	1.157161E+0	1.159256E+0	1.001206E+0	1.174187E+0	1.187537E+0	1.222004E+0	1.030714E+0	1.143238E+0	1.130943E+0	1.186713E+0	1.092926E+0	1.152521E+0	1.101569E+0	1.132205E+0	1.165047E+0	1.167436E+0	1.172132E+0	9.945626E-1	1.107930E+0	1.207418E+0	1.195769E+0	1.171799E+0	1.133446E+0	1.133571E+0	1.151751E+0	1.030933E+0	1.077487E+0	1.235608E+0	1.204233E+0	1.041406E+0	1.094679E+0	1.196389E+0	1.086205E+0	9.594354E-1	1.105510E+0	1.089484E+0	1.117930E+0	9.823152E-1	1.086815E+0	1.113203E+0	1.186288E+0	1.090982E+0	1.142238E+0	1.157709E+0	1.085069E+0	1.034609E+0	1.106930E+0	1.096731E+0	1.157489E+0	9.439232E-1	1.081675E+0	1.210281E+0	1.187485E+0	1.143177E+0	1.083456E+0	1.132877E+0	1.182573E+0	1.126737E+0	1.114281E+0	1.148799E+0	1.059907E+0	1.102091E+0	1.108117E+0	1.172174E+0	1.144603E+0	1.068951E+0	1.098120E+0	1.119189E+0	1.180413E+0	1.097822E+0	1.082450E+0	1.082510E+0	1.181366E+0	1.068282E+0	1.156853E+0	1.191656E+0	1.248756E+0	9.962138E-1	1.173230E+0	1.137752E+0	1.165171E+0	1.090095E+0	1.101381E+0	1.168688E+0	1.134624E+0	1.141171E+0	1.102758E+0	1.245019E+0	1.121334E+0	1.081944E+0	1.164947E+0	1.114085E+0	1.163125E+0	1.050174E+0	1.107631E+0	1.139509E+0	1.166078E+0	1.027636E+0	1.048188E+0	1.160536E+0	1.155598E+0	1.104248E+0	1.163904E+0	1.168155E+0	1.175132E+0	1.115597E+0	1.049689E+0	1.088811E+0
5.580110E+2	1.445095E+0	1.392509E+0	1.447106E+0	1.441647E+0	1.448084E+0	1.427249E+0	1.307002E+0	1.358906E+0	1.335831E+0	1.398574E+0	1.370517E+0	1.452330E+0	1.364914E+0	1.489796E+0	1.368046E+0	1.435769E+0	1.309304E+0	1.482784E+0	1.424676E+0	1.451769E+0	1.383518E+0	1.384365E+0	1.420243E+0	1.435378E+0	1.421690E+0	1.417266E+0	1.403098E+0	1.394772E+0	1.276795E+0	1.352606E+0	1.365381E+0	1.325353E+0	1.338119E+0	1.382898E+0	1.344058E+0	1.451748E+0	1.405403E+0	1.399491E+0	1.404542E+0	1.452361E+0	1.287833E+0	1.253320E+0	1.424168E+0	1.454402E+0	1.287912E+0	1.480733E+0	1.390862E+0	1.369688E+0	1.297708E+0	1.510060E+0	1.428413E+0	1.336807E+0	1.393357E+0	1.358306E+0	1.350170E+0	1.415600E+0	1.294999E+0	1.458704E+0	1.362455E+0	1.478662E+0	1.227973E+0	1.390130E+0	1.385859E+0	1.367935E+0	1.271413E+0	1.438422E+0	1.415984E+0	1.490521E+0	1.315711E+0	1.489789E+0	1.333850E+0	1.338705E+0	1.401945E+0	1.374907E+0	1.420580E+0	1.369715E+0	1.292201E+0	1.382442E+0	1.383644E+0	1.410301E+0	1.344081E+0	1.391744E+0	1.354140E+0	1.354657E+0	1.320348E+0	1.355166E+0	1.387120E+0	1.431161E+0	1.367224E+0	1.439937E+0	1.375674E+0	1.274703E+0	1.363072E+0	1.416969E+0	1.425708E+0	1.425715E+0	1.337180E+0	1.436787E+0	1.401396E+0	1.335477E+0	1.378445E+0	1.418585E+0	1.313505E+0	1.361432E+0	1.384197E+0	1.324356E+0	1.388451E+0	1.306522E+0	1.310815E+0	1.356791E+0	1.379697E+0	1.380995E+0	1.301802E+0	1.349216E+0	1.456265E+0	1.384994E+0	1.323263E+0	1.465709E+0	1.366189E+0	1.306883E+0	1.235759E+0	1.386330E+0	1.450440E+0	1.254418E+0	1.247831E+0	1.360142E+0	1.418032E+0	1.397616E+0	1.331781E+0	1.459085E+0	1.471485E+0	1.288790E+0	1.429924E+0	1.453808E+0	1.493090E+0	1.227043E+0	1.377165E+0	1.391505E+0	1.377268E+0	1.254616E+0	1.359232E+0	1.320941E+0	1.384664E+0	1.385493E+0	1.270831E+0	1.350169E+0	1.372859E+0	1.265911E+0	1.393202E+0	1.448257E+0	1.435890E+0	1.201155E+0	1.297191E+0	1.330696E+0	1.346844E+0	1.246269E+0	1.353546E+0	1.429260E+0	1.408467E+0	1.400454E+0	1.367558E+0	1.342867E+0	1.433404E+0	1.320270E+0	1.377640E+0	1.449096E+0
5.590390E+2	1.352562E+0	1.329361E+0	1.347183E+0	1.334570E+0	1.339529E+0	1.317773E+0	1.475529E+0	1.313445E+0	1.305300E+0	1.371145E+0	1.277359E+0	1.334745E+0	1.348518E+0	1.360678E+0	1.443493E+0	1.382090E+0	1.157690E+0	1.355598E+0	1.374272E+0	1.362958E+0	1.346656E+0	1.338762E+0	1.281997E+0	1.330148E+0	1.256431E+0	1.323765E+0	1.408177E+0	1.339290E+0	1.287201E+0	1.328386E+0	1.347466E+0	1.443246E+0	1.282850E+0	1.330460E+0	1.302426E+0	1.378179E+0	1.233351E+0	1.445946E+0	1.361182E+0	1.392859E+0	1.290095E+0	1.299599E+0	1.355117E+0	1.404850E+0	1.201331E+0	1.357287E+0	1.412619E+0	1.347570E+0	1.241613E+0	1.351091E+0	1.312151E+0	1.221909E+0	1.273452E+0	1.360475E+0	1.315873E+0	1.344255E+0	1.302914E+0	1.394024E+0	1.400390E+0	1.298291E+0	1.237466E+0	1.455566E+0	1.372338E+0	1.408896E+0	1.230517E+0	1.486224E+0	1.427163E+0	1.290877E+0	1.171556E+0	1.330089E+0	1.370208E+0	1.316854E+0	1.315690E+0	1.334717E+0	1.383259E+0	1.351230E+0	1.224251E+0	1.346117E+0	1.428954E+0	1.277054E+0	1.322330E+0	1.344063E+0	1.288626E+0	1.386815E+0	1.332117E+0	1.314601E+0	1.407192E+0	1.339162E+0	1.299988E+0	1.355676E+0	1.240960E+0	1.322209E+0	1.296036E+0	1.351473E+0	1.394691E+0	1.303048E+0	1.321248E+0	1.334043E+0	1.369800E+0	1.342633E+0	1.329720E+0	1.317818E+0	1.292436E+0	1.374003E+0	1.343120E+0	1.308261E+0	1.326546E+0	1.342006E+0	1.298459E+0	1.428901E+0	1.342782E+0	1.330034E+0	1.232117E+0	1.376105E+0	1.285941E+0	1.399343E+0	1.290678E+0	1.303930E+0	1.316787E+0	1.329283E+0	1.303534E+0	1.337347E+0	1.399087E+0	1.368380E+0	1.222690E+0	1.218272E+0	1.381846E+0	1.359005E+0	1.269448E+0	1.372449E+0	1.339191E+0	1.360308E+0	1.352554E+0	1.318326E+0	1.377005E+0	1.381665E+0	1.267260E+0	1.400332E+0	1.366391E+0	1.310599E+0	1.356909E+0	1.473195E+0	1.384664E+0	1.342955E+0	1.286110E+0	1.275396E+0	1.335422E+0	1.260197E+0	1.360419E+0	1.354304E+0	1.424847E+0	1.220428E+0	1.281494E+0	1.367629E+0	1.318599E+0	1.293202E+0	1.172461E+0	1.353751E+0	1.350470E+0	1.333496E+0	1.268098E+0	1.387502E+0	1.225065E+0	1.279811E+0	1.208695E+0	1.237165E+0
5.600180E+2	1.112445E+0	1.173349E+0	1.184213E+0	1.124153E+0	1.162011E+0	1.060323E+0	1.084351E+0	1.133991E+0	1.067845E+0	1.142942E+0	1.124918E+0	1.146186E+0	1.101495E+0	1.089636E+0	1.123950E+0	1.092020E+0	1.082429E+0	1.181855E+0	1.101256E+0	1.158352E+0	1.152865E+0	1.185668E+0	1.124000E+0	1.136726E+0	1.117266E+0	1.150575E+0	1.159324E+0	1.149373E+0	1.035380E+0	1.142332E+0	1.098760E+0	1.143155E+0	1.131129E+0	1.115942E+0	1.081777E+0	1.152483E+0	1.021431E+0	1.101492E+0	1.146449E+0	1.098601E+0	1.078544E+0	1.135932E+0	1.171703E+0	1.090669E+0	1.005216E+0	1.167181E+0	1.099309E+0	1.135438E+0	9.410324E-1	1.137586E+0	1.085062E+0	1.102506E+0	1.029320E+0	1.147938E+0	1.153470E+0	1.154709E+0	1.097093E+0	1.123250E+0	1.140424E+0	1.179298E+0	9.843297E-1	1.092391E+0	1.105278E+0	1.100394E+0	1.062262E+0	1.225698E+0	1.119765E+0	1.156953E+0	1.094118E+0	1.063178E+0	1.111668E+0	1.083039E+0	1.013190E+0	1.127245E+0	1.067634E+0	1.119615E+0	1.016947E+0	1.109449E+0	1.121724E+0	1.199793E+0	1.092235E+0	1.109149E+0	1.184507E+0	1.119903E+0	1.066790E+0	1.139535E+0	1.133978E+0	1.136372E+0	1.128296E+0	1.086734E+0	1.127399E+0	1.128945E+0	1.060820E+0	1.114491E+0	1.175191E+0	1.140994E+0	1.127783E+0	1.095489E+0	1.110940E+0	1.126762E+0	1.064916E+0	1.157710E+0	1.110574E+0	1.105458E+0	1.098943E+0	1.141566E+0	1.117012E+0	1.182330E+0	1.061456E+0	1.085519E+0	1.071647E+0	1.092216E+0	1.079972E+0	1.181767E+0	1.079205E+0	1.136302E+0	1.142370E+0	1.173177E+0	1.154317E+0	1.087158E+0	1.078748E+0	1.069650E+0	1.073851E+0	1.106939E+0	1.039836E+0	1.076403E+0	1.175587E+0	1.147787E+0	9.877978E-1	1.110233E+0	1.211539E+0	1.049210E+0	1.054452E+0	1.139886E+0	1.151466E+0	1.199432E+0	1.115836E+0	1.174159E+0	1.144505E+0	1.155218E+0	1.135065E+0	1.116808E+0	1.137959E+0	1.084453E+0	1.086303E+0	1.128184E+0	1.090916E+0	1.133363E+0	1.105455E+0	1.063907E+0	1.194044E+0	1.104785E+0	1.112459E+0	1.137337E+0	1.080215E+0	1.121499E+0	1.074226E+0	1.112788E+0	1.054683E+0	1.181420E+0	1.184033E+0	1.163054E+0	1.087319E+0	1.153676E+0	1.168943E+0	1.117069E+0
5.610130E+2	9.238654E-1	9.541869E-1	9.784176E-1	9.498406E-1	9.985405E-1	8.943054E-1	9.797907E-1	9.222377E-1	9.638166E-1	9.268055E-1	9.491859E-1	9.661017E-1	9.255181E-1	1.020275E+0	9.919166E-1	9.413077E-1	9.155447E-1	9.604160E-1	9.542468E-1	8.952884E-1	9.327452E-1	9.001087E-1	9.363778E-1	9.282715E-1	9.683150E-1	9.476333E-1	9.856347E-1	9.658575E-1	9.219569E-1	9.353615E-1	9.986455E-1	9.856085E-1	8.677862E-1	9.490949E-1	9.808199E-1	9.953685E-1	9.605842E-1	9.428606E-1	9.358456E-1	9.990724E-1	9.314760E-1	9.361461E-1	9.602346E-1	9.768051E-1	8.424821E-1	9.671987E-1	9.567953E-1	9.745786E-1	8.658879E-1	9.995035E-1	8.786165E-1	9.335396E-1	9.493839E-1	9.625117E-1	9.466822E-1	9.278934E-1	8.799654E-1	9.379838E-1	9.217391E-1	1.012705E+0	8.672540E-1	9.756950E-1	9.103363E-1	9.762264E-1	8.975102E-1	9.532206E-1	9.442691E-1	9.411867E-1	8.737156E-1	9.447994E-1	9.662391E-1	9.267959E-1	9.488026E-1	9.501878E-1	9.247502E-1	9.630291E-1	8.499503E-1	9.465334E-1	9.040092E-1	9.500916E-1	8.976257E-1	9.312208E-1	9.306421E-1	9.548257E-1	9.458956E-1	9.527254E-1	9.834313E-1	9.652357E-1	9.397957E-1	9.401435E-1	9.359029E-1	9.335223E-1	9.126344E-1	1.016842E+0	8.984300E-1	9.710621E-1	9.456997E-1	1.008098E+0	9.517355E-1	9.705251E-1	9.293348E-1	9.640119E-1	9.409104E-1	9.100500E-1	9.620208E-1	1.009361E+0	9.836729E-1	9.095476E-1	8.727535E-1	9.355747E-1	9.901806E-1	9.828608E-1	8.314287E-1	9.666507E-1	9.417713E-1	9.605439E-1	9.288952E-1	9.604261E-1	9.303697E-1	8.908999E-1	9.115701E-1	9.545967E-1	9.928268E-1	8.924231E-1	9.175523E-1	9.356602E-1	9.874213E-1	9.433838E-1	8.804471E-1	9.346519E-1	9.515918E-1	9.931883E-1	8.621644E-1	1.039653E+0	1.029851E+0	9.741241E-1	9.815082E-1	9.292329E-1	9.291459E-1	9.655621E-1	9.178668E-1	9.611711E-1	9.668205E-1	1.039733E+0	9.758224E-1	9.984982E-1	9.645690E-1	1.001959E+0	9.464045E-1	9.421948E-1	9.533026E-1	9.827141E-1	9.373884E-1	9.972069E-1	9.717555E-1	9.887164E-1	9.404843E-1	9.406721E-1	9.479678E-1	1.039559E+0	9.105216E-1	1.017672E+0	9.254698E-1	1.041820E+0	9.569361E-1	7.991675E-1
5.620220E+2	8.360178E-1	8.303670E-1	8.654095E-1	7.929608E-1	8.452873E-1	8.389658E-1	8.137251E-1	7.798711E-1	8.077744E-1	8.324516E-1	8.253274E-1	8.485172E-1	7.812392E-1	8.431368E-1	8.310353E-1	8.432416E-1	7.901090E-1	8.218761E-1	8.009373E-1	8.536926E-1	8.105728E-1	8.262758E-1	8.287424E-1	8.040018E-1	7.845727E-1	8.870696E-1	8.647634E-1	8.965058E-1	7.731526E-1	8.615992E-1	8.511077E-1	7.723299E-1	7.724189E-1	8.466014E-1	7.841095E-1	8.170565E-1	7.874822E-1	8.080243E-1	8.388023E-1	8.097519E-1	7.357633E-1	7.973111E-1	7.757401E-1	8.987876E-1	8.132742E-1	8.462209E-1	8.240739E-1	8.438808E-1	7.282985E-1	7.836760E-1	7.797395E-1	8.073785E-1	7.614242E-1	8.844372E-1	8.306797E-1	8.799754E-1	8.234213E-1	8.152029E-1	8.826881E-1	7.884936E-1	7.375221E-1	8.044671E-1	8.956885E-1	8.021355E-1	7.561298E-1	8.002515E-1	8.023077E-1	7.837031E-1	7.271779E-1	8.521054E-1	8.450495E-1	8.153508E-1	7.568552E-1	8.241843E-1	8.725010E-1	8.075300E-1	7.359326E-1	8.364563E-1	8.377015E-1	7.317446E-1	7.602578E-1	7.893427E-1	7.972760E-1	7.801005E-1	7.693671E-1	8.118186E-1	7.949702E-1	8.148733E-1	7.873167E-1	7.716221E-1	7.978491E-1	8.147570E-1	7.691535E-1	8.298778E-1	8.328188E-1	8.889088E-1	7.875147E-1	8.309541E-1	7.961765E-1	7.844696E-1	7.471483E-1	7.871080E-1	8.056239E-1	8.826245E-1	7.965726E-1	8.403683E-1	8.467620E-1	8.252742E-1	7.626771E-1	8.543078E-1	8.170626E-1	8.119291E-1	8.186532E-1	7.637555E-1	8.560225E-1	7.979375E-1	7.581155E-1	7.831330E-1	8.172980E-1	8.055685E-1	7.816677E-1	8.110654E-1	8.102378E-1	8.265026E-1	7.952687E-1	8.084293E-1	8.535340E-1	8.491298E-1	7.788676E-1	8.087422E-1	7.775197E-1	8.573075E-1	7.540736E-1	8.303731E-1	7.932566E-1	8.725148E-1	7.751325E-1	8.288349E-1	8.551848E-1	8.170358E-1	8.168164E-1	8.450081E-1	8.256867E-1	8.008652E-1	7.924697E-1	7.963745E-1	7.937663E-1	8.488440E-1	8.383494E-1	8.322279E-1	8.307237E-1	8.253093E-1	8.395896E-1	7.929857E-1	8.757232E-1	8.490662E-1	8.126595E-1	8.496171E-1	8.760520E-1	7.842093E-1	7.992214E-1	8.314815E-1	8.169965E-1	7.538445E-1	8.906820E-1	8.698116E-1
5.629840E+2	9.519763E-1	9.529491E-1	8.999068E-1	9.473513E-1	8.874313E-1	8.991171E-1	9.281263E-1	9.736812E-1	9.389395E-1	9.520394E-1	8.920201E-1	9.629231E-1	9.102165E-1	9.413094E-1	9.774923E-1	9.609208E-1	9.090010E-1	9.729085E-1	9.269456E-1	9.256414E-1	9.401177E-1	9.565695E-1	9.897020E-1	9.703643E-1	9.030814E-1	9.274452E-1	9.053924E-1	9.743937E-1	9.677414E-1	9.562773E-1	8.900998E-1	9.159435E-1	9.501490E-1	9.061908E-1	9.423104E-1	9.143176E-1	9.763202E-1	9.383285E-1	9.265547E-1	9.612087E-1	9.699399E-1	9.237293E-1	9.375773E-1	9.146023E-1	9.499283E-1	9.449780E-1	9.415647E-1	9.494439E-1	9.198652E-1	9.403242E-1	9.372899E-1	9.605745E-1	9.839510E-1	9.039560E-1	9.759351E-1	8.938175E-1	9.308554E-1	9.675821E-1	9.206226E-1	9.450658E-1	9.885491E-1	9.560638E-1	9.125901E-1	9.160634E-1	8.729741E-1	9.568068E-1	9.263838E-1	8.915856E-1	8.927781E-1	9.403318E-1	8.844367E-1	9.049444E-1	8.601183E-1	9.110836E-1	9.439430E-1	9.608527E-1	8.706818E-1	8.760833E-1	9.426912E-1	9.534507E-1	8.598504E-1	9.579673E-1	8.709782E-1	9.301710E-1	8.752847E-1	9.089592E-1	9.622445E-1	9.118179E-1	9.049782E-1	9.389885E-1	9.114092E-1	9.259642E-1	9.149866E-1	9.084745E-1	8.876933E-1	8.877842E-1	9.195251E-1	8.604781E-1	9.456588E-1	9.216253E-1	9.420451E-1	9.001918E-1	9.497818E-1	8.597696E-1	9.483286E-1	8.633600E-1	9.384332E-1	9.417059E-1	8.761233E-1	9.767805E-1	9.328986E-1	9.308389E-1	9.336334E-1	9.092043E-1	9.335480E-1	8.995664E-1	9.412549E-1	9.438049E-1	9.523251E-1	9.570301E-1	9.703083E-1	9.545981E-1	8.615913E-1	1.025378E+0	8.935529E-1	9.176446E-1	9.717411E-1	9.115864E-1	8.665958E-1	9.669962E-1	9.515913E-1	8.775695E-1	8.906093E-1	9.680575E-1	8.595906E-1	9.177967E-1	9.424307E-1	9.645381E-1	9.313206E-1	9.518504E-1	9.027666E-1	9.465099E-1	9.034762E-1	9.132093E-1	8.888468E-1	8.980201E-1	9.692485E-1	9.151173E-1	8.322790E-1	9.870357E-1	8.660622E-1	9.248921E-1	8.540785E-1	8.733704E-1	9.627176E-1	8.490665E-1	8.777556E-1	9.551063E-1	9.607274E-1	8.988331E-1	9.223615E-1	9.194758E-1	9.805674E-1	1.020400E+0	9.701856E-1	9.828435E-1
5.640120E+2	1.098390E+0	1.094104E+0	1.156853E+0	1.147809E+0	1.204155E+0	1.168596E+0	1.112643E+0	1.197398E+0	1.217102E+0	1.129775E+0	1.190552E+0	1.118645E+0	1.208611E+0	1.129118E+0	1.082897E+0	1.140537E+0	1.171870E+0	1.145516E+0	1.184212E+0	1.111135E+0	1.151812E+0	1.155266E+0	1.192135E+0	1.170801E+0	1.134661E+0	1.121886E+0	1.162371E+0	1.114164E+0	1.167534E+0	1.163249E+0	1.167259E+0	1.144227E+0	1.166892E+0	1.152887E+0	1.146306E+0	1.149989E+0	1.185092E+0	1.090160E+0	1.129931E+0	1.149447E+0	1.182622E+0	1.172051E+0	1.177096E+0	1.132841E+0	1.191943E+0	1.133851E+0	1.171109E+0	1.132421E+0	1.220446E+0	1.185160E+0	1.166554E+0	1.114897E+0	1.161108E+0	1.139264E+0	1.096981E+0	1.174942E+0	1.175124E+0	1.183544E+0	1.112530E+0	1.188065E+0	1.175236E+0	1.167644E+0	1.118800E+0	1.159279E+0	1.176768E+0	1.097825E+0	1.189069E+0	1.168114E+0	1.215637E+0	1.190492E+0	1.212660E+0	1.152963E+0	1.200278E+0	1.213058E+0	1.183861E+0	1.180509E+0	1.227707E+0	1.134766E+0	1.195768E+0	1.189714E+0	1.194116E+0	1.177763E+0	1.183337E+0	1.119903E+0	1.221921E+0	1.181167E+0	1.150706E+0	1.197704E+0	1.123494E+0	1.172149E+0	1.187519E+0	1.099793E+0	1.130208E+0	1.140691E+0	1.171612E+0	1.145495E+0	1.150545E+0	1.202957E+0	1.153475E+0	1.197130E+0	1.215325E+0	1.133078E+0	1.147169E+0	1.199163E+0	1.103506E+0	1.102480E+0	1.117012E+0	1.179003E+0	1.164794E+0	1.074072E+0	1.162026E+0	1.133622E+0	1.109007E+0	1.192766E+0	1.175525E+0	1.197280E+0	1.191806E+0	1.139934E+0	1.134556E+0	1.128757E+0	1.136356E+0	1.118633E+0	1.133192E+0	1.151629E+0	1.090122E+0	1.179990E+0	1.054967E+0	1.140974E+0	1.073215E+0	1.102147E+0	1.165119E+0	1.144567E+0	1.201226E+0	1.155307E+0	1.155887E+0	1.142000E+0	1.137816E+0	1.139959E+0	1.144505E+0	1.119801E+0	1.034014E+0	1.177710E+0	1.199080E+0	1.142262E+0	1.119213E+0	1.068599E+0	1.159940E+0	1.129936E+0	1.164946E+0	1.116220E+0	1.164228E+0	1.154040E+0	1.119704E+0	1.191651E+0	1.049710E+0	1.202771E+0	1.103815E+0	1.197180E+0	1.102240E+0	1.132620E+0	1.041948E+0	1.165603E+0	1.090764E+0	1.108457E+0	1.145756E+0	1.124133E+0
5.650210E+2	1.133529E+0	1.116390E+0	1.084289E+0	1.157770E+0	1.153071E+0	1.164987E+0	1.159389E+0	1.196201E+0	1.148127E+0	1.175856E+0	1.150324E+0	1.146187E+0	1.124449E+0	1.077899E+0	1.141703E+0	1.164279E+0	1.175143E+0	1.161415E+0	1.162160E+0	1.149359E+0	1.162345E+0	1.179153E+0	1.122025E+0	1.181825E+0	1.192284E+0	1.196262E+0	1.171512E+0	1.180315E+0	1.157128E+0	1.063066E+0	1.145129E+0	1.207460E+0	1.222162E+0	1.155270E+0	1.188978E+0	1.196126E+0	1.096966E+0	1.143415E+0	1.180517E+0	1.114829E+0	1.128321E+0	1.186726E+0	1.140413E+0	1.123352E+0	1.123093E+0	1.193106E+0	1.092781E+0	1.127395E+0	1.183402E+0	1.171236E+0	1.179592E+0	1.211772E+0	1.118979E+0	1.157698E+0	1.111103E+0	1.158968E+0	1.227144E+0	1.125442E+0	1.151581E+0	1.171781E+0	1.159415E+0	1.128381E+0	1.112039E+0	1.215603E+0	1.172095E+0	1.175506E+0	1.128708E+0	1.253675E+0	1.216828E+0	1.113434E+0	1.151055E+0	1.155149E+0	1.195418E+0	1.101175E+0	1.154004E+0	1.112002E+0	1.256498E+0	1.172193E+0	1.147143E+0	1.163961E+0	1.175801E+0	1.111476E+0	1.213755E+0	1.165997E+0	1.220851E+0	1.138468E+0	1.138438E+0	1.170995E+0	1.218344E+0	1.186001E+0	1.089545E+0	1.184009E+0	1.237231E+0	1.166890E+0	1.189507E+0	1.186009E+0	1.158511E+0	1.101393E+0	1.107293E+0	1.094560E+0	1.092455E+0	1.166666E+0	1.173783E+0	1.195735E+0	1.127467E+0	1.164559E+0	1.143203E+0	1.188983E+0	1.211971E+0	1.162207E+0	1.149296E+0	1.162287E+0	1.186822E+0	1.156100E+0	1.164954E+0	1.186519E+0	1.122146E+0	1.086747E+0	1.149926E+0	1.118091E+0	1.142005E+0	1.156224E+0	1.214216E+0	1.199673E+0	1.108407E+0	1.161976E+0	1.187650E+0	1.140974E+0	1.216350E+0	1.204955E+0	1.160477E+0	1.158870E+0	1.237637E+0	1.048465E+0	1.162520E+0	1.143105E+0	1.130490E+0	1.203948E+0	1.164083E+0	1.117515E+0	1.158294E+0	1.088613E+0	1.137958E+0	1.164076E+0	1.141543E+0	1.209968E+0	1.133033E+0	1.133363E+0	1.132166E+0	1.148250E+0	1.137723E+0	1.119775E+0	1.182489E+0	1.160149E+0	1.140093E+0	1.134091E+0	1.088428E+0	1.122781E+0	1.133560E+0	1.162127E+0	1.187585E+0	1.146474E+0	1.207847E+0	1.056099E+0	1.003313E+0	1.293679E+0
5.660100E+2	1.007028E+0	1.008667E+0	1.056929E+0	1.012095E+0	9.883237E-1	1.038669E+0	1.040066E+0	1.005981E+0	1.030529E+0	1.036519E+0	1.008470E+0	9.999999E-1	1.062146E+0	1.036282E+0	1.011888E+0	9.733078E-1	1.067158E+0	9.729086E-1	1.004650E+0	1.049304E+0	1.013842E+0	1.046688E+0	1.059813E+0	9.773792E-1	1.053119E+0	1.006071E+0	9.561784E-1	9.605226E-1	1.024975E+0	1.005820E+0	9.859988E-1	9.995402E-1	1.008670E+0	1.027752E+0	9.922682E-1	1.005344E+0	1.047659E+0	1.099224E+0	1.026694E+0	1.017464E+0	1.074018E+0	1.046762E+0	1.053021E+0	1.016870E+0	1.099100E+0	1.010405E+0	1.050354E+0	9.675407E-1	1.093440E+0	1.006465E+0	1.019868E+0	1.022528E+0	1.035801E+0	1.001549E+0	1.050580E+0	9.875260E-1	9.828755E-1	1.022395E+0	1.063438E+0	9.651071E-1	1.090858E+0	1.009505E+0	1.047809E+0	1.031271E+0	1.139378E+0	1.036877E+0	1.038165E+0	9.982286E-1	1.103649E+0	1.018506E+0	1.006637E+0	1.101611E+0	1.027767E+0	1.088141E+0	9.919262E-1	1.046758E+0	1.014643E+0	1.037899E+0	9.957371E-1	1.058706E+0	1.125432E+0	1.075425E+0	1.055820E+0	1.101681E+0	1.026135E+0	1.059474E+0	1.033614E+0	1.025579E+0	1.007033E+0	1.082117E+0	1.023858E+0	1.049049E+0	1.016129E+0	1.018033E+0	1.010566E+0	9.654342E-1	1.062916E+0	1.034079E+0	1.047744E+0	1.032542E+0	1.064916E+0	1.070377E+0	1.036277E+0	1.016325E+0	1.112635E+0	1.084085E+0	1.062247E+0	1.049265E+0	1.099647E+0	1.019131E+0	9.621752E-1	1.049748E+0	1.122944E+0	1.063207E+0	9.922804E-1	9.701098E-1	1.072709E+0	1.056828E+0	1.029169E+0	1.103158E+0	1.083266E+0	1.045729E+0	1.055592E+0	1.027613E+0	1.084406E+0	9.964606E-1	1.028432E+0	1.013790E+0	1.108999E+0	9.797022E-1	1.033985E+0	9.812699E-1	1.079483E+0	1.025333E+0	1.002211E+0	1.028243E+0	1.070653E+0	9.976358E-1	9.759159E-1	1.042109E+0	1.110674E+0	1.031095E+0	1.052389E+0	9.873788E-1	1.041640E+0	1.066262E+0	1.021893E+0	9.859610E-1	1.118809E+0	1.043621E+0	1.038337E+0	1.014838E+0	1.104008E+0	1.017846E+0	1.045192E+0	1.004743E+0	1.114467E+0	1.040610E+0	9.746469E-1	9.669258E-1	1.117726E+0	1.021497E+0	9.512981E-1	9.799405E-1	1.072879E+0	1.067618E+0
5.670200E+2	1.049194E+0	1.043336E+0	9.581949E-1	9.921726E-1	9.231912E-1	9.953595E-1	9.662593E-1	9.246295E-1	8.937106E-1	9.465531E-1	9.841212E-1	9.576267E-1	9.878206E-1	9.519804E-1	9.630681E-1	9.764056E-1	9.711736E-1	9.649595E-1	9.668485E-1	1.015579E+0	9.885656E-1	9.359390E-1	8.712048E-1	9.673574E-1	9.639666E-1	9.136324E-1	9.541478E-1	9.082418E-1	9.875128E-1	1.014627E+0	9.617605E-1	9.748913E-1	1.011921E+0	9.622037E-1	9.652077E-1	9.217987E-1	9.458965E-1	9.779866E-1	9.616553E-1	9.482274E-1	9.778589E-1	9.372741E-1	9.559181E-1	9.367419E-1	9.801803E-1	9.042410E-1	9.633219E-1	1.004740E+0	9.886604E-1	9.136355E-1	1.038340E+0	9.493099E-1	9.893521E-1	9.505836E-1	9.880394E-1	9.768776E-1	9.806142E-1	9.478498E-1	9.474011E-1	9.287829E-1	9.811658E-1	9.582444E-1	1.002737E+0	8.994218E-1	9.851444E-1	9.795127E-1	9.710970E-1	9.635072E-1	9.702154E-1	9.403313E-1	9.339227E-1	9.431856E-1	1.010760E+0	9.121702E-1	9.290148E-1	9.293189E-1	1.044587E+0	9.960686E-1	9.769501E-1	9.523318E-1	9.869167E-1	9.568053E-1	9.481912E-1	9.473220E-1	9.405457E-1	9.473884E-1	9.365951E-1	9.137957E-1	1.019039E+0	9.089785E-1	1.053917E+0	9.929052E-1	1.019658E+0	9.191917E-1	1.009373E+0	9.553067E-1	9.752887E-1	9.620408E-1	9.979169E-1	9.991479E-1	1.008777E+0	9.785670E-1	9.464551E-1	9.363332E-1	9.494692E-1	9.357862E-1	9.086693E-1	9.062215E-1	1.012034E+0	9.779259E-1	9.863612E-1	9.287145E-1	9.975110E-1	9.483165E-1	9.358983E-1	9.880435E-1	9.850730E-1	1.029127E+0	9.863563E-1	9.964960E-1	9.748266E-1	9.591539E-1	9.323442E-1	8.767807E-1	1.110691E+0	9.998391E-1	9.162551E-1	1.000162E+0	1.075525E+0	1.002806E+0	9.597157E-1	9.872286E-1	9.748066E-1	9.328103E-1	9.966841E-1	9.222158E-1	9.619691E-1	9.358520E-1	9.998445E-1	9.861267E-1	1.059568E+0	9.498934E-1	9.145902E-1	9.524755E-1	1.040465E+0	9.622782E-1	9.575499E-1	9.848198E-1	9.670456E-1	9.304502E-1	1.009624E+0	9.784311E-1	9.627427E-1	9.667909E-1	9.548091E-1	9.715461E-1	1.062390E+0	8.940331E-1	1.004805E+0	1.015726E+0	1.020636E+0	8.977967E-1	1.027057E+0	1.039439E+0	9.602484E-1	8.627481E-1
