Photon Energy (eV)	#1	#2	#3	#4	#5	#6	#7	#8	#9	#10	#11	#12	#13	#14	#15	#16	#17	#18	#19	#20	#21	#22	#23	#24	#25	#26	#27	#28	#29	#30	#31	#32	#33	#34	#35	#36	#37	#38	#39	#40	#41	#42	#43	#44	#45	#46	#47	#48	#49	#50	#51	#52	#53	#54	#55	#56	#57	#58	#59	#60	#61	#62	#63	#64	#65	#66	#67	#68	#69	#70	#71	#72	#73	#74	#75	#76	#77	#78	#79	#80	#81	#82	#83	#84	#85	#86	#87	#88	#89	#90	#91	#92	#93	#94	#95	#96	#97	#98	#99	#100	#101	#102	#103	#104	#105	#106	#107	#108	#109	#110	#111	#112	#113	#114	#115	#116	#117	#118	#119	#120	#121	#122	#123	#124	#125	#126	#127	#128	#129	#130	#131	#132	#133	#134	#135	#136	#137	#138	#139	#140	#141	#142	#143	#144	#145	#146	#147	#148	#149	#150	#151	#152	#153	#154	#155	#156	#157	#158	#159	#160	#161	#162	#163	#164	#165	#166	
5.290170E+2	2.030456E-2	-1.869824E-2	2.833207E-3	5.132302E-3	-4.274866E-3	-7.349340E-3	-1.604435E-4	-2.992451E-3	8.415767E-4	3.160472E-2	-1.244721E-2	-1.097288E-2	1.579170E-2	-1.312510E-2	1.844456E-2	-3.033822E-3	-1.113935E-2	2.284751E-2	-2.129065E-2	-4.673827E-3	-1.098666E-2	3.968857E-3	9.611990E-3	-8.856007E-3	-1.997358E-2	7.840690E-3	1.275393E-2	-1.173029E-2	9.390200E-3	-2.038234E-2	-1.336726E-3	-1.577281E-2	1.446632E-2	-1.444923E-2	1.254571E-2	4.454551E-3	1.081550E-2	-3.683261E-2	1.684108E-3	9.943527E-3	1.480343E-2	-6.721516E-4	-1.543766E-2	-3.609524E-3	-8.547598E-3	-1.984531E-2	9.680873E-3	7.623938E-3	2.689101E-3	-1.641881E-3	1.904090E-2	-1.604188E-2	1.991012E-2	-1.972605E-2	-8.701803E-3	6.014579E-4	-1.555600E-3	2.723875E-2	1.554024E-2	-1.219766E-3	-3.155633E-2	-1.433425E-2	-1.789675E-2	2.098026E-2	1.490004E-2	1.662826E-2	-3.270996E-3	-1.642519E-2	-9.369411E-3	6.090625E-3	-1.634698E-2	-1.181581E-2	-1.226485E-2	-1.924239E-2	-5.062927E-3	-1.112430E-2	1.106340E-2	-1.032468E-3	2.375742E-2	-7.720074E-3	2.535115E-2	-3.304169E-3	-8.121763E-3	-2.210088E-2	-1.003088E-2	1.012167E-3	-1.631280E-2	2.983426E-2	2.039165E-2	-1.218824E-2	-6.627320E-3	1.219224E-3	-6.942802E-3	-1.150223E-2	2.503059E-3	-1.263009E-2	1.638265E-2	2.869018E-3	1.368980E-3	-2.248335E-2	-4.539906E-3	-8.393070E-3	9.982178E-3	-1.461703E-2	1.872942E-2	-2.579736E-2	1.278684E-2	3.061875E-3	6.980514E-3	-1.696206E-2	-3.144198E-2	5.364054E-3	2.086585E-2	-3.304325E-3	1.334260E-2	8.577793E-4	-1.820980E-2	1.917575E-2	-8.383074E-3	4.378742E-4	-7.320039E-3	5.687853E-4	1.459242E-2	-5.775908E-3	-3.196470E-2	-4.026344E-3	1.770893E-2	-2.170466E-3	1.470068E-2	-6.603539E-3	1.200060E-2	1.022892E-2	-4.805995E-3	-1.199613E-2	8.628020E-3	-6.589001E-3	7.958488E-3	-2.178747E-2	-6.209796E-3	9.039710E-3	-2.482228E-2	3.685274E-3	1.475780E-4	4.443586E-3	2.492930E-2	5.735272E-3	-1.586242E-2	-1.203736E-2	-2.132495E-2	4.925748E-3	-3.888975E-2	-3.333454E-3	1.899359E-2	1.167736E-2	-4.094780E-3	7.185040E-3	-2.133156E-2	-1.585313E-2	1.058981E-2	1.324167E-4	-2.320507E-3	3.286330E-2	-3.282243E-2	-2.670036E-4	-4.311509E-2	-9.483270E-3
5.295060E+2	-3.442353E-2	-2.484912E-2	-6.523529E-2	-3.686869E-2	-4.227580E-2	-4.514358E-2	-4.987730E-2	-4.384073E-2	-2.239458E-2	-4.485929E-2	-5.840869E-2	-4.175489E-2	-4.966999E-2	-4.408708E-2	-5.621873E-2	-3.625942E-2	-4.262274E-2	-5.417260E-2	-3.581416E-2	-3.418615E-2	-5.215962E-2	-4.941440E-2	-5.036503E-2	-4.364334E-2	-4.366145E-2	-4.544722E-2	-4.869442E-2	-3.538365E-2	-6.630786E-2	-2.630497E-2	-4.739921E-2	-2.761509E-3	-6.634444E-2	-5.234339E-2	-3.746792E-2	-3.833596E-2	-4.017896E-2	-3.752496E-2	-5.949697E-2	-3.382052E-2	-5.089248E-2	-5.585065E-2	-5.600457E-2	-3.480190E-2	-6.415940E-2	-2.499400E-2	-5.150689E-2	-6.772435E-2	-6.174139E-2	-6.178358E-2	-4.017095E-2	-1.883593E-2	-4.546303E-2	-6.976439E-2	-2.989103E-2	-6.648883E-2	-2.400309E-2	-5.872965E-2	-4.999041E-2	-5.657587E-2	-4.711037E-2	-4.278919E-2	-6.504806E-2	-7.556108E-2	-2.802430E-2	-3.241586E-2	-5.606300E-2	-4.498000E-2	-5.261344E-2	-5.037924E-2	-5.917030E-2	-3.304736E-2	-5.897656E-2	-2.458736E-2	-4.205382E-2	-4.653377E-2	-4.126437E-2	-3.194440E-2	-6.212984E-2	-3.284889E-2	-5.385165E-2	-4.020432E-2	-2.575140E-2	-3.002075E-2	-1.844305E-2	-2.250789E-2	-4.116462E-2	-3.464444E-2	-4.016973E-2	-4.062993E-2	-3.468473E-2	-4.554311E-2	-3.610527E-2	-4.317808E-2	-1.848948E-2	-4.169862E-2	-2.612245E-2	-6.094824E-2	-5.560370E-2	-4.236819E-2	-1.642022E-2	-6.843895E-2	-3.888120E-2	-4.575199E-2	-3.156272E-2	-5.110730E-2	-4.925487E-2	-3.223916E-2	-5.611421E-2	-3.807201E-2	-2.392585E-2	-2.771241E-2	-4.880910E-2	-5.259392E-2	-5.427431E-2	-6.165469E-2	-3.024238E-2	-5.781423E-2	-4.110397E-2	-3.968134E-2	-3.119088E-2	-3.550423E-2	-6.500934E-2	-5.320417E-2	-4.811275E-2	-4.358338E-2	-5.580887E-2	-4.764495E-2	-4.311467E-2	-4.570317E-2	-6.821237E-2	-4.129059E-2	-5.584614E-2	-6.018357E-2	-6.099861E-2	-5.229945E-2	-5.528280E-2	-3.375125E-2	-2.099318E-2	-4.358260E-2	-4.401763E-2	-5.705474E-2	-5.014382E-2	-5.333361E-2	-5.571299E-2	-7.160392E-2	-5.275713E-2	-4.950509E-2	-3.443256E-2	-5.307766E-2	-5.167708E-2	-5.610794E-2	-5.649898E-2	-5.687353E-2	-3.781246E-2	-5.513787E-2	-3.496824E-2	-3.736255E-2	-5.855618E-2	-4.104988E-2	-4.373816E-2	-3.831444E-2	-4.396969E-2	-4.516130E-2	-3.920770E-2	-7.753767E-2
5.300060E+2	-1.940287E-2	-2.706436E-2	-9.727189E-3	-2.719823E-2	-3.347520E-2	-2.820514E-2	7.375182E-3	-1.120988E-2	-2.196969E-2	-2.145970E-2	-8.222714E-3	-3.094152E-2	-2.727801E-2	-4.882705E-3	-2.464332E-2	-9.406220E-3	2.989008E-3	-1.941149E-2	-2.792105E-2	-4.267872E-2	-3.525216E-2	-2.368937E-2	-1.964706E-2	-4.011519E-2	-2.855834E-2	-2.790406E-2	-2.968198E-2	-1.889447E-2	-2.462689E-2	-2.373823E-2	-3.074765E-2	-5.052862E-2	-2.307382E-2	-1.357086E-2	-3.596330E-2	-7.759283E-3	-3.973829E-2	-1.680773E-3	-3.527276E-2	-9.179271E-3	-1.566294E-2	4.469763E-3	-3.067723E-2	-2.071849E-2	-3.362228E-3	3.812900E-3	-2.695793E-4	-4.472405E-2	-8.251239E-3	-1.132059E-2	-2.370744E-2	-2.370536E-2	-1.988262E-2	-2.232865E-2	2.703093E-3	-1.323276E-2	-2.919776E-2	-1.574475E-2	-4.341530E-3	-1.844352E-2	-2.218121E-2	1.001745E-2	-1.354327E-2	-3.879310E-2	-4.588099E-2	-3.668728E-2	-1.362057E-2	-2.654019E-2	-2.813045E-2	6.052936E-3	-2.079486E-2	-1.709287E-2	-1.487583E-2	-3.190248E-3	-3.823150E-2	-6.376857E-5	-4.080991E-2	-4.341794E-2	-3.135430E-2	-3.775125E-2	-3.962099E-2	-2.266856E-3	-1.731953E-2	-3.166556E-2	-1.289819E-2	-1.740080E-2	-2.530595E-2	-2.279033E-2	-3.523907E-2	-7.312890E-3	-3.098509E-2	-4.632530E-2	-1.052406E-2	-1.614545E-2	-1.258560E-2	-1.476923E-2	-5.110835E-2	-3.269864E-2	-1.742130E-2	-3.061214E-2	-2.191566E-2	3.600801E-4	-4.582537E-2	-2.522030E-2	-2.553665E-2	-3.373889E-2	-1.866601E-2	-4.378634E-2	-1.534925E-2	-5.747023E-2	-3.529203E-2	-3.236023E-3	-1.904714E-2	-3.644951E-2	-2.149173E-2	-1.864108E-2	-4.822544E-2	-1.228042E-3	-1.755299E-2	-2.326207E-2	-1.727183E-2	-2.390624E-2	-1.262423E-2	-2.512591E-2	-1.472325E-3	-3.318315E-2	-2.495237E-2	-3.843434E-2	-2.764118E-2	-1.696340E-2	-1.258822E-2	-2.063009E-2	-2.810575E-2	-3.010464E-2	-1.276705E-2	-1.352954E-2	-2.611058E-2	-2.120137E-2	-2.048537E-2	-3.580034E-2	2.343150E-2	-2.062398E-2	-1.566581E-2	-3.340063E-2	-1.212968E-2	-1.898235E-2	-1.005176E-2	-3.228312E-2	-2.472298E-2	-1.235534E-2	-2.837069E-2	-3.113858E-2	-1.264593E-2	-2.303973E-2	-2.702039E-2	-1.893282E-2	-1.456698E-2	-2.042413E-2	-1.937295E-2	-1.800069E-2	-4.008090E-2	-1.908287E-2	-1.684925E-2	-3.554091E-2	-3.660532E-2	3.846002E-2
5.305080E+2	2.909364E-2	1.798558E-2	3.526981E-2	6.111445E-2	1.881682E-2	5.030850E-2	3.838906E-2	2.936103E-2	1.630644E-2	-1.189315E-4	4.111420E-2	1.940881E-2	3.731497E-2	3.151430E-2	2.759519E-2	3.876760E-2	5.545930E-2	6.687676E-3	3.256504E-2	3.582308E-2	2.655152E-2	5.416697E-2	3.222937E-2	3.326598E-2	4.878176E-2	1.628491E-2	-1.213227E-3	2.531813E-2	5.040808E-2	4.387275E-2	3.178781E-2	4.455535E-2	3.365572E-2	3.864395E-2	2.492271E-2	1.089169E-2	3.283763E-2	3.801475E-2	2.277428E-2	-5.475981E-3	9.886790E-3	2.024847E-2	4.264575E-2	1.954044E-2	1.275053E-2	5.351486E-3	2.347343E-2	4.645015E-2	3.900801E-2	1.720030E-2	3.465344E-2	3.940274E-2	-2.525221E-3	5.304792E-2	6.434071E-3	2.132306E-2	1.611596E-2	3.222592E-2	2.287687E-2	4.028126E-2	3.098128E-2	2.626124E-2	3.482913E-2	2.287719E-2	3.404101E-2	4.098754E-2	3.703781E-2	2.011529E-2	3.496557E-3	5.407505E-3	3.306623E-2	2.808979E-2	3.316584E-2	5.574520E-2	4.210490E-2	3.427429E-2	3.497013E-2	1.832320E-2	3.441114E-2	4.105992E-2	3.939373E-2	3.469703E-2	5.024435E-3	1.536499E-2	2.302467E-2	1.568149E-2	4.048810E-2	3.718411E-3	5.063455E-3	5.309854E-2	4.256891E-2	2.201377E-2	2.551928E-2	3.774120E-2	1.395490E-2	2.721131E-2	2.158775E-2	3.414828E-2	4.104315E-2	5.411458E-2	5.342789E-2	3.293549E-2	2.983508E-2	7.833726E-2	1.393841E-2	4.323616E-2	2.903765E-2	7.242922E-2	3.767827E-2	3.014411E-2	3.149348E-2	4.108044E-2	2.871109E-2	4.579297E-2	1.145355E-2	2.459088E-2	4.831952E-2	1.765639E-2	2.574657E-2	2.625069E-2	4.659445E-2	4.562463E-2	2.106216E-2	3.685650E-2	2.960560E-2	4.964360E-2	2.300744E-2	3.913812E-2	3.473396E-2	3.874831E-2	3.623106E-2	3.939319E-2	2.849980E-2	5.373119E-2	3.111439E-2	4.046479E-2	4.186966E-2	3.729386E-2	1.306425E-2	3.151998E-2	3.214233E-2	2.593183E-2	6.102770E-2	4.219520E-2	1.449818E-2	3.494650E-2	1.347272E-2	1.978895E-2	4.337992E-2	1.042972E-2	2.393409E-2	5.308868E-2	1.672013E-2	2.469857E-2	3.653883E-2	3.050337E-2	4.001349E-2	4.546393E-2	2.333386E-2	3.744381E-2	1.077663E-2	1.314378E-2	-1.132877E-2	3.573872E-2	6.897002E-3	-6.831921E-3
5.310100E+2	2.081713E-2	4.796346E-2	6.427788E-2	3.771568E-2	4.961665E-2	5.567963E-2	4.571536E-2	5.326263E-2	2.769519E-2	7.189990E-2	6.628177E-2	7.934865E-2	4.951698E-2	6.411454E-2	5.092508E-2	2.881627E-2	7.274054E-2	5.742376E-2	7.941494E-2	7.001954E-2	7.993259E-2	7.369514E-2	5.180353E-2	7.570826E-2	6.844354E-2	7.562718E-2	7.633388E-2	5.129159E-2	7.187102E-2	7.015130E-2	5.078629E-2	4.732631E-2	4.973455E-2	6.685821E-2	7.533541E-2	9.386852E-2	5.081626E-2	4.112831E-2	7.812529E-2	6.764810E-2	4.220246E-2	2.984315E-2	7.902144E-2	7.282536E-2	5.220032E-2	4.796651E-2	6.296218E-2	7.401034E-2	4.505113E-2	6.028940E-2	4.492167E-2	7.918983E-2	6.552874E-2	6.788110E-2	5.304763E-2	6.662482E-2	6.532086E-2	6.655291E-2	7.275370E-2	6.431746E-2	7.170974E-2	6.842467E-2	6.743294E-2	6.654617E-2	4.932330E-2	2.263277E-2	7.533881E-2	7.333019E-2	9.748128E-2	6.118593E-2	7.184466E-2	7.557711E-2	7.652040E-2	6.352404E-2	5.417669E-2	6.646454E-2	5.045756E-2	4.109379E-2	3.939693E-2	5.242646E-2	6.782551E-2	6.040422E-2	5.313163E-2	6.780552E-2	4.894650E-2	6.414070E-2	1.077148E-1	8.454221E-2	6.689413E-2	5.538496E-2	3.191342E-2	6.456581E-2	5.364683E-2	9.002683E-2	6.227344E-2	3.844491E-2	6.785285E-2	1.014197E-1	5.618124E-2	4.330804E-2	5.210553E-2	7.021636E-2	6.548863E-2	4.344830E-2	3.571367E-2	5.358648E-2	4.415726E-2	5.136921E-2	5.036031E-2	6.948573E-2	4.629692E-2	2.528145E-2	7.782493E-2	5.969335E-2	5.779942E-2	3.741705E-2	7.415156E-2	7.215294E-2	8.777331E-2	4.743212E-2	5.863021E-2	5.718807E-2	5.013241E-2	4.708947E-2	5.863371E-2	9.213958E-2	6.891008E-2	5.410353E-2	3.985927E-2	1.577482E-2	6.876639E-2	5.193801E-2	8.753916E-2	7.085288E-2	8.205288E-2	6.790013E-2	6.148537E-2	7.280068E-2	6.924549E-2	5.039304E-2	6.175349E-2	6.818602E-2	3.781145E-2	5.418292E-2	5.566629E-2	6.771991E-2	6.990668E-2	7.321991E-2	7.567815E-2	4.333991E-2	6.682219E-2	5.373853E-2	5.818702E-2	4.894766E-2	6.130095E-2	7.895727E-2	5.445390E-2	7.184986E-2	4.504281E-2	6.939077E-2	7.344967E-2	1.021692E-1	4.433991E-2	6.381752E-2	9.873535E-2	-6.323015E-3
5.315080E+2	2.906998E-3	2.118208E-2	3.308824E-2	2.217578E-3	2.604777E-2	2.442593E-2	2.111008E-2	4.535200E-3	2.952761E-2	2.307412E-2	2.679065E-2	2.997279E-2	5.505332E-4	-1.031276E-2	6.520405E-3	3.264671E-2	6.812785E-3	3.378519E-2	1.135731E-2	2.361254E-2	3.274387E-2	1.468966E-2	3.092040E-2	2.097843E-2	3.110779E-2	3.049703E-2	9.756159E-3	1.377148E-2	1.753013E-2	3.198041E-2	3.528517E-2	1.943402E-2	2.597138E-2	1.551078E-2	2.836353E-2	-4.916072E-3	3.416222E-2	6.982407E-3	4.086849E-2	6.972259E-3	2.200966E-2	9.492375E-3	1.802142E-2	-7.835154E-3	4.027194E-2	2.787089E-2	6.990193E-3	2.195290E-2	2.931261E-2	2.655827E-2	2.506854E-2	1.024564E-2	2.811722E-2	2.912894E-2	3.155066E-2	2.569686E-2	8.506501E-3	2.386779E-2	2.288031E-2	3.206514E-2	3.439070E-2	1.856175E-2	1.317203E-2	1.765839E-2	6.920413E-3	4.711804E-2	1.651356E-2	3.822150E-2	2.297586E-2	1.367066E-2	1.566188E-2	1.044777E-2	1.460363E-2	4.257763E-3	1.469752E-2	2.864629E-2	8.709465E-3	1.767713E-2	5.118529E-3	1.748053E-2	7.002117E-3	-6.477245E-3	3.788695E-2	3.342964E-2	1.099615E-2	2.864761E-2	-6.042886E-3	2.778915E-2	1.417850E-2	4.900874E-3	3.908904E-2	3.565139E-2	1.285174E-2	-3.382000E-3	1.944531E-2	1.343314E-2	2.164412E-2	1.686065E-2	1.769686E-2	2.672961E-2	2.641950E-2	1.575930E-2	1.723082E-2	9.615419E-3	1.510573E-2	4.940634E-2	1.802952E-2	-2.476114E-3	1.255434E-2	4.461242E-2	3.142998E-2	1.157825E-2	-2.328078E-4	1.444850E-2	-7.981642E-4	4.292221E-2	2.765118E-2	9.612855E-3	2.579745E-2	2.631898E-2	1.125937E-2	3.351739E-2	4.125020E-2	3.315477E-2	5.934503E-2	-3.150180E-3	1.402956E-2	1.818157E-2	2.010657E-2	2.692920E-2	-3.558479E-4	3.462335E-2	1.893812E-2	3.498765E-2	2.095281E-2	1.482977E-2	2.288809E-2	3.155514E-2	3.423837E-3	2.416840E-2	3.137447E-3	4.176748E-2	1.014601E-2	2.275619E-2	3.355240E-2	1.346620E-2	2.112185E-2	2.197232E-2	-8.271826E-3	5.175732E-2	5.342728E-2	2.851348E-2	4.912541E-3	2.936236E-2	1.488589E-2	1.009363E-2	8.661138E-3	1.272146E-2	3.343930E-2	-3.492137E-3	4.008177E-2	-4.252919E-3	3.517029E-2	2.774313E-2	3.013210E-2	3.285325E-2
5.320070E+2	9.293564E-3	-1.895895E-2	-1.679202E-2	1.609022E-2	2.051112E-2	-6.494105E-3	-6.579669E-3	-5.451818E-3	3.901776E-3	-1.055700E-2	-1.199803E-2	-1.745655E-2	1.057914E-2	-3.835772E-3	-6.074218E-4	-2.117161E-2	-2.611184E-2	-6.070696E-3	3.403357E-3	-9.522947E-3	-1.948984E-3	-2.224165E-2	-1.260440E-2	2.697057E-3	-2.134713E-2	-2.081226E-2	2.013596E-2	2.131586E-2	-9.999223E-3	-2.758975E-2	-1.838794E-2	-1.709274E-2	4.321138E-3	-5.857554E-3	-3.728929E-2	-9.192835E-3	-7.123630E-3	1.880974E-2	-1.880553E-3	-5.874313E-3	1.951803E-2	2.489930E-2	-9.676769E-3	1.821457E-2	1.103110E-3	-1.151679E-2	-1.267280E-3	-1.382532E-2	-2.049386E-2	-9.250565E-3	-1.380167E-2	-1.284430E-2	-1.022790E-2	-5.682701E-4	-2.732241E-2	3.188754E-2	-5.011626E-3	-2.596765E-2	-1.746778E-2	-1.502576E-2	-1.011091E-2	-1.622074E-2	-7.222472E-5	9.939924E-4	3.868046E-3	-6.707958E-3	1.026732E-2	-4.609092E-3	1.417527E-4	8.915692E-3	-3.211474E-3	-1.645245E-2	1.001669E-3	-2.557535E-2	-9.738196E-3	-2.072509E-2	-6.681636E-3	1.938053E-2	1.035101E-2	-7.910079E-3	-4.074120E-3	9.695093E-3	-9.663198E-3	1.900813E-2	2.402282E-3	-3.005893E-2	-2.000238E-2	-4.184662E-2	9.810807E-3	-3.823492E-3	1.846379E-3	-4.006499E-3	-1.662898E-2	-4.254705E-4	-2.463029E-2	1.160547E-3	-1.273734E-3	-1.197600E-2	-7.375882E-4	7.791531E-3	-2.183814E-2	-1.247737E-2	-1.847616E-2	-1.246795E-2	-1.158969E-3	3.573082E-3	5.194380E-3	5.348144E-3	9.809814E-4	-1.264120E-2	2.194281E-3	-1.760084E-2	-2.410920E-2	5.331848E-3	2.879816E-2	1.761438E-3	-1.486840E-2	-1.172661E-2	-1.900579E-2	3.972204E-3	-3.322418E-2	-3.175048E-2	-2.330174E-3	-3.964554E-3	-2.448084E-2	-1.479369E-2	-1.267234E-2	1.430814E-2	-3.106870E-3	2.039617E-2	-1.164962E-2	-3.073978E-2	-2.173377E-2	-1.051441E-2	-2.525050E-3	-1.271681E-2	-5.123062E-3	-1.922289E-2	-1.150832E-2	-1.811250E-2	1.392552E-3	-9.642079E-3	7.346425E-3	-3.599510E-3	-2.464116E-2	4.484987E-3	7.045741E-3	1.237926E-2	1.706357E-3	-2.387202E-2	1.028992E-2	-9.107539E-3	-5.086501E-3	1.437531E-3	-1.346013E-2	-1.454359E-2	-1.868596E-2	-1.373145E-2	-4.002875E-3	-7.255766E-3	-5.180248E-3	-3.153855E-2	3.434433E-2	-3.147220E-2	-1.979601E-2	-1.305967E-2
5.325120E+2	-2.858950E-2	2.439553E-3	-4.371464E-2	-5.820331E-2	-3.496650E-2	-4.322189E-2	-5.597227E-2	-2.366398E-2	-3.390833E-2	-4.958381E-2	-4.310998E-2	-2.760442E-2	-3.680531E-2	-1.938542E-2	-2.201577E-2	-3.035952E-2	-5.812770E-2	-4.108935E-2	-4.171479E-2	-3.839351E-2	-3.888054E-2	-5.117520E-2	-4.194880E-2	-4.003519E-2	-3.479259E-2	-3.608625E-2	-3.939031E-2	-4.568865E-2	-4.826546E-2	-4.798916E-2	-1.998773E-2	-2.515999E-2	-3.873084E-2	-3.479191E-2	-3.044686E-2	-4.901060E-2	-4.159073E-2	-2.889687E-2	-4.680188E-2	-3.021380E-2	-4.186496E-2	-3.243025E-2	-2.789238E-2	-4.361530E-2	-3.025668E-2	-2.864569E-2	-5.006293E-2	-2.376360E-2	-2.557436E-2	-2.005135E-2	-4.600450E-2	-5.741073E-2	-3.545732E-2	-3.767060E-2	-2.782021E-2	-6.641216E-2	-3.017524E-2	-4.944332E-2	-6.225139E-2	-4.539894E-2	-2.612290E-2	-4.992094E-2	-1.887379E-2	-1.470183E-2	-3.514752E-2	-5.155551E-2	-6.620293E-2	-3.911250E-2	-3.398215E-2	-5.094410E-2	-2.104915E-2	-3.570617E-2	-3.917430E-2	-5.093165E-2	-1.589266E-2	-5.093819E-2	-1.644465E-2	-2.007985E-2	-1.955089E-2	-2.473662E-2	-4.202575E-2	-5.254375E-2	-3.518713E-2	-5.182110E-2	-4.399749E-2	-3.951434E-2	-3.937429E-2	-4.660264E-2	-4.092973E-2	-4.942982E-2	-4.312060E-2	-2.757529E-2	-2.181674E-2	-5.313480E-2	-4.247134E-2	-1.115197E-2	-4.896284E-2	-4.967480E-2	-4.252765E-2	-3.648009E-2	-6.723899E-2	-2.996184E-2	-1.935398E-2	-3.334371E-2	-2.522889E-2	-3.915851E-2	-4.128477E-2	-5.370683E-2	-3.709096E-2	-1.909675E-2	-2.075481E-2	-3.475493E-2	-3.520362E-2	-3.291891E-2	-3.482950E-2	-2.725359E-2	-3.857625E-2	-4.782904E-2	-5.327150E-2	-4.146846E-2	-2.747710E-2	-4.573793E-2	-4.707344E-2	-2.903019E-2	-4.155372E-2	-4.304643E-2	-3.022243E-2	-3.748160E-2	-3.553776E-2	-3.257839E-2	-2.419200E-2	-4.352300E-2	-2.448543E-2	-4.677296E-2	-6.645738E-2	-3.805990E-2	-4.768516E-2	-4.568670E-2	-2.653691E-2	-1.762569E-2	-5.301740E-2	-5.224980E-2	-5.066954E-2	-3.324416E-2	-3.616234E-2	-3.576661E-2	-3.287569E-2	-3.353486E-2	-3.201211E-2	-2.114767E-2	-3.553596E-2	-3.565319E-2	-2.458187E-2	-3.621021E-2	-3.033791E-2	-3.812504E-2	-1.357579E-2	-4.266399E-2	-3.047378E-2	-3.716853E-2	-3.298826E-2	-5.498750E-2	-8.884404E-3	-1.485794E-2	2.959676E-3	4.192227E-2
5.330130E+2	-1.701348E-2	-2.188697E-2	3.125825E-3	-1.316853E-2	-1.437465E-2	-6.637052E-3	-2.175373E-2	-7.111328E-3	5.170295E-4	2.570792E-2	2.424634E-3	1.155551E-2	2.001341E-2	1.916419E-2	-9.583880E-3	-8.488444E-3	3.797708E-3	-7.327896E-3	-8.699285E-3	4.907637E-3	8.914150E-3	9.129373E-3	-8.512834E-3	1.526498E-2	1.148223E-2	-4.274833E-3	2.008243E-2	-1.038830E-2	-1.430028E-2	-2.677758E-2	-3.010284E-3	2.853836E-2	3.014256E-3	-1.587745E-2	4.968471E-3	-3.272653E-2	1.030024E-2	4.566185E-2	-3.357087E-3	4.417804E-2	-2.050789E-2	2.942792E-3	1.986539E-2	5.207812E-3	1.911609E-3	1.598302E-4	-1.157068E-2	1.698325E-3	-7.588417E-3	1.480438E-2	1.641805E-2	-4.383135E-3	8.748293E-3	-9.864584E-3	5.401940E-3	3.935051E-3	-2.126187E-3	3.022557E-3	6.969765E-3	4.657154E-4	1.142868E-2	2.212448E-2	-2.057985E-2	2.280962E-2	-1.987591E-2	-3.854074E-3	-1.945976E-2	8.135770E-3	2.249205E-2	-1.573535E-2	-4.868823E-3	-4.752408E-3	9.472725E-3	2.244941E-3	2.539035E-2	-1.856617E-2	-3.098387E-2	5.626656E-3	-1.798391E-2	1.051381E-2	-1.234678E-2	1.229358E-2	1.124294E-2	-1.290100E-2	8.704328E-3	3.517685E-3	8.256231E-3	-3.995855E-3	-1.047231E-2	-5.554812E-3	-1.000588E-2	1.771177E-2	-1.618525E-3	2.319329E-2	7.432362E-3	1.196488E-2	-1.589022E-2	1.988623E-3	4.399776E-3	3.894488E-2	-1.041921E-2	1.126552E-2	9.361477E-3	-8.842532E-3	1.142430E-2	-1.368232E-2	-9.921232E-3	1.023468E-2	2.771078E-2	8.452075E-3	2.312542E-2	-1.324836E-2	2.246563E-2	2.240266E-2	9.793605E-3	-3.787666E-2	-1.476687E-2	1.482738E-2	-1.116656E-2	-8.620658E-3	-1.625585E-3	1.309388E-3	2.143278E-2	7.541066E-4	-1.782298E-2	-2.014402E-2	-8.778032E-3	-2.444537E-3	1.398956E-2	-1.154480E-2	1.142147E-2	-2.498194E-2	3.440696E-3	1.693091E-3	-5.178839E-3	-3.375417E-3	-1.596412E-2	-6.025441E-3	1.053385E-2	-1.956210E-2	6.094562E-3	-7.014107E-3	4.308867E-3	2.679535E-3	-8.835841E-3	-1.300982E-2	-3.911809E-3	-2.626505E-2	4.076325E-3	1.809259E-2	3.270882E-3	1.913811E-2	1.374586E-2	-2.889468E-3	-1.585847E-3	-1.226565E-2	9.350096E-4	-1.897176E-2	1.753729E-2	1.024549E-2	-2.886188E-3	3.467377E-2	-1.003103E-2	1.338104E-2	-3.147196E-2	-2.766806E-2
5.332090E+2	5.329099E-2	3.309964E-2	6.813075E-2	4.327672E-2	6.964136E-2	4.818834E-2	9.916057E-2	7.108684E-2	2.406320E-2	8.785872E-2	6.521815E-2	9.806035E-2	5.900276E-2	7.706011E-2	8.971746E-2	1.458941E-2	6.828153E-2	5.361117E-2	2.558739E-2	7.561490E-2	9.262812E-2	4.634178E-2	6.467503E-2	6.239393E-2	5.483390E-2	4.350275E-2	3.227341E-2	5.784866E-2	1.881805E-2	3.744917E-2	3.683352E-2	6.329701E-2	6.739233E-2	4.249228E-2	4.826731E-2	3.024865E-2	4.494437E-2	5.445121E-2	1.821024E-2	7.403793E-2	4.649503E-2	3.862472E-2	6.109586E-2	6.941888E-2	2.789304E-2	5.987589E-2	8.333572E-2	7.229909E-2	4.365267E-2	6.995183E-2	5.516969E-2	5.537727E-2	5.634317E-2	7.477736E-2	5.830236E-2	5.847940E-2	5.535410E-2	6.979243E-2	6.580016E-2	7.154706E-2	6.670058E-2	8.179377E-2	3.905425E-2	6.924054E-2	6.753081E-2	4.974225E-2	7.616843E-2	4.064403E-2	4.885308E-2	2.809117E-2	5.892213E-2	7.609251E-2	6.391880E-2	6.203691E-2	4.235491E-2	3.682463E-2	4.023588E-2	3.130292E-2	2.028057E-2	7.866760E-2	6.331182E-2	8.657372E-2	3.485870E-2	3.903736E-2	5.655674E-2	6.812032E-2	4.372098E-2	8.642145E-2	4.648745E-2	4.412932E-2	6.024322E-2	8.263011E-2	7.459623E-2	6.186089E-2	5.099621E-2	2.657682E-2	4.334532E-2	2.470652E-2	4.581155E-2	4.300731E-2	5.697514E-2	7.595680E-2	6.511265E-2	5.789168E-2	4.485067E-2	2.640679E-2	4.615745E-2	8.428234E-2	5.278155E-2	5.191607E-2	5.987749E-2	6.840629E-2	4.530087E-2	7.039732E-2	5.072579E-2	2.328931E-2	2.720195E-2	6.433558E-2	5.779104E-2	4.866557E-2	6.655459E-2	6.312615E-2	7.525648E-2	8.579097E-2	3.699439E-2	7.620612E-2	7.117792E-2	4.733024E-2	7.174775E-2	7.059106E-2	6.730931E-2	4.079182E-2	5.559654E-2	7.331531E-2	6.075199E-2	7.516586E-2	6.280475E-2	8.847761E-2	7.751650E-2	1.056570E-1	5.606764E-2	4.869110E-2	6.638622E-2	8.066007E-2	9.473947E-2	6.056508E-2	5.879132E-2	5.859351E-2	6.056919E-2	5.031574E-2	5.135093E-2	6.182247E-2	4.526704E-2	7.628473E-2	6.516235E-2	3.679437E-2	7.771218E-2	5.892958E-2	8.985333E-2	2.730390E-2	8.683655E-2	7.916752E-2	5.082738E-2	3.497119E-2	7.453335E-2	7.846645E-2
5.334060E+2	6.526546E-2	6.243701E-2	5.390168E-2	5.627151E-2	6.061812E-2	1.103124E-1	7.445096E-2	9.008321E-2	6.223226E-2	8.981662E-2	1.083770E-1	9.664222E-2	8.874928E-2	7.292177E-2	7.433475E-2	6.387215E-2	9.278660E-2	8.366572E-2	9.428234E-2	1.015183E-1	7.177093E-2	1.115552E-1	7.318135E-2	6.114291E-2	7.387735E-2	8.642347E-2	9.803482E-2	7.387506E-2	4.699531E-2	5.604581E-2	6.899962E-2	9.417702E-2	8.732197E-2	9.038324E-2	8.550445E-2	5.066025E-2	7.064501E-2	6.997911E-2	9.335277E-2	7.571334E-2	9.617149E-2	9.322118E-2	9.675413E-2	7.481141E-2	9.670969E-2	8.805549E-2	9.293294E-2	1.033116E-1	1.126878E-1	8.419491E-2	7.685571E-2	8.154906E-2	4.555399E-2	3.787908E-2	9.227318E-2	5.499306E-2	5.483133E-2	6.409715E-2	8.806613E-2	8.573691E-2	6.525623E-2	9.853612E-2	7.593302E-2	7.785870E-2	8.340768E-2	4.843338E-2	6.690424E-2	8.632275E-2	1.108647E-1	6.640197E-2	6.901674E-2	9.735569E-2	7.129656E-2	9.486975E-2	1.007021E-1	6.406667E-2	6.441350E-2	8.503635E-2	6.454712E-2	8.625691E-2	1.212006E-1	1.035556E-1	6.717655E-2	9.736069E-2	7.404741E-2	7.558613E-2	4.838165E-2	1.055631E-1	6.611092E-2	6.318510E-2	1.021775E-1	8.623408E-2	1.013741E-1	4.941195E-2	8.624564E-2	5.994721E-2	8.282348E-2	4.782919E-2	6.156059E-2	1.053937E-1	6.625269E-2	7.601595E-2	4.328157E-2	6.487886E-2	1.230707E-1	7.029225E-2	8.173459E-2	6.566434E-2	6.711452E-2	6.860175E-2	8.619846E-2	9.951459E-2	6.615670E-2	7.490460E-2	1.044020E-1	1.012183E-1	7.606567E-2	6.955485E-2	3.384835E-2	1.007146E-1	8.546824E-2	7.731940E-2	6.645581E-2	1.039486E-1	7.457509E-2	7.934300E-2	9.182752E-2	1.054833E-1	8.418952E-2	1.062577E-1	9.596209E-2	1.010686E-1	4.443685E-2	7.971545E-2	9.324224E-2	5.951461E-2	6.491363E-2	5.308251E-2	8.446195E-2	6.826836E-2	9.590477E-2	9.340802E-2	6.389995E-2	9.321404E-2	7.383516E-2	7.513448E-2	6.833685E-2	7.891557E-2	9.488209E-2	7.370038E-2	8.064512E-2	5.930526E-2	8.177238E-2	8.055385E-2	1.107341E-1	5.343328E-2	5.977245E-2	3.642440E-2	9.420546E-2	7.207113E-2	6.756846E-2	6.409926E-2	4.656700E-2	1.079408E-1	7.233258E-2	3.756374E-2
5.336080E+2	4.957041E-2	3.188107E-2	3.103593E-2	1.765158E-3	4.147634E-2	1.878498E-2	4.380928E-2	7.383388E-2	4.187120E-2	7.168181E-2	1.342392E-2	4.643732E-2	5.186323E-2	7.359425E-2	4.408403E-2	6.128465E-2	6.977382E-2	3.437903E-2	4.013585E-2	3.395284E-2	2.766889E-2	5.503583E-2	4.704923E-2	4.584410E-2	2.293906E-2	6.918784E-2	2.210646E-2	4.752624E-2	4.341353E-2	8.334082E-3	4.573379E-2	3.689076E-2	3.166104E-2	3.615328E-2	3.546182E-2	4.478786E-3	2.776927E-2	4.187954E-2	3.401749E-2	3.614481E-2	4.899938E-2	4.200347E-2	4.514377E-2	4.759072E-2	3.131514E-2	3.590315E-2	2.306191E-2	2.778685E-2	6.289239E-2	6.365054E-2	3.689392E-2	6.245599E-2	2.829200E-2	3.118026E-2	3.988678E-2	5.569800E-2	3.318825E-2	4.617099E-2	5.194501E-2	4.079971E-2	4.175209E-2	1.549131E-2	1.517736E-2	4.130743E-2	5.781117E-2	3.767525E-2	5.711578E-2	3.318234E-2	3.160940E-2	1.624339E-2	-8.402178E-3	6.082930E-2	5.651742E-2	2.735317E-2	8.047547E-2	5.430724E-2	3.822078E-2	3.623435E-2	7.842332E-3	3.867295E-2	2.180352E-2	3.863121E-2	3.292142E-3	9.655702E-3	7.508012E-2	4.935363E-2	2.435364E-2	5.517251E-2	5.286343E-2	3.914196E-2	4.418856E-2	4.065717E-2	5.932140E-2	5.623642E-2	2.487187E-2	3.229324E-2	1.531565E-2	3.614440E-2	3.484111E-2	2.109422E-2	2.037102E-2	1.120387E-2	4.276950E-2	1.468899E-2	6.799444E-2	1.130693E-2	4.136686E-2	1.824690E-2	3.190863E-2	4.504267E-2	2.857919E-2	6.334603E-2	5.382857E-2	4.538213E-2	6.938292E-2	5.206285E-2	2.653195E-2	3.891010E-2	3.087008E-2	3.620321E-2	3.628195E-2	3.844424E-2	6.583791E-2	2.821827E-2	2.842776E-2	2.810573E-2	2.888717E-2	7.127586E-2	6.301333E-2	8.340527E-2	3.875215E-2	7.017247E-2	4.067344E-2	5.571442E-2	1.085930E-2	3.519121E-2	2.440560E-2	3.546256E-2	4.269653E-2	6.145101E-2	6.232847E-2	6.009664E-2	3.309341E-2	5.390481E-2	3.180298E-2	2.803303E-2	5.278240E-2	3.140116E-2	3.221911E-2	4.780445E-2	4.159045E-2	4.510005E-2	6.811331E-2	6.496451E-2	4.308803E-2	4.917244E-2	6.741595E-2	2.695257E-2	5.839257E-2	3.090509E-2	3.356404E-2	3.621923E-2	7.111541E-2	8.067753E-2	4.734324E-2	8.725872E-2
5.338150E+2	9.933922E-3	1.998806E-2	-2.745112E-2	-1.667903E-2	2.117670E-2	-1.361031E-2	1.600313E-2	7.780246E-3	2.049787E-2	1.034882E-3	1.978552E-2	-3.034650E-3	3.219718E-2	4.715866E-2	2.847778E-2	6.074855E-4	-4.159056E-3	2.098056E-2	-3.730738E-3	2.488511E-2	-1.450397E-2	1.482479E-3	-1.630961E-2	1.849587E-2	2.372358E-2	-1.363651E-2	2.278060E-2	-1.121860E-2	8.160336E-3	-4.155977E-2	1.714043E-3	2.621382E-2	6.385792E-3	-5.277722E-4	2.196139E-2	-1.322948E-2	-1.626636E-2	1.611383E-5	3.893018E-3	1.640818E-2	-1.061101E-2	2.192320E-2	-2.524312E-2	4.281735E-3	-2.037798E-2	-7.548127E-3	-1.326052E-3	2.222971E-2	-1.772465E-2	2.630233E-2	1.221569E-2	-2.318545E-2	-1.228875E-3	2.241638E-3	2.349612E-2	-9.930354E-3	-4.488731E-3	-1.554805E-2	-1.325258E-3	2.755293E-3	-9.344739E-3	-3.061382E-2	2.293311E-2	1.468485E-2	-7.742056E-3	-1.273093E-2	6.403166E-3	2.945463E-3	2.296791E-2	-5.387780E-3	-6.268239E-3	-1.065298E-4	1.823367E-2	8.884331E-3	2.147906E-2	-2.781276E-4	-8.905565E-3	2.439064E-2	-5.662352E-3	2.301192E-2	-1.586398E-6	2.340295E-2	-7.657389E-3	3.104461E-2	-3.848869E-3	9.301357E-3	-9.996332E-3	2.415305E-2	-1.143756E-2	-1.618822E-2	1.954218E-2	1.129569E-2	3.665831E-2	1.748489E-2	2.324631E-4	-1.270006E-2	-2.155337E-2	-1.671230E-2	6.022681E-3	2.530318E-2	3.072260E-2	-9.922664E-3	1.084021E-2	-2.757394E-3	7.171773E-3	-1.203524E-3	8.489306E-3	1.037211E-2	1.021787E-2	9.944011E-3	-6.031213E-3	2.517216E-3	-3.249486E-3	4.974685E-2	-1.125620E-2	1.663590E-2	-9.137306E-3	1.775262E-2	9.025345E-3	-1.558537E-2	-9.950450E-3	3.994121E-3	-1.395115E-2	3.510558E-2	3.480693E-3	2.145634E-2	1.457408E-2	-8.070914E-3	9.604708E-3	1.560336E-2	5.653030E-3	2.347606E-2	-6.091060E-3	-7.096141E-3	-1.474855E-4	2.045859E-2	8.528040E-4	1.686727E-2	4.521210E-3	-1.195470E-5	2.049184E-2	2.023873E-2	-3.039364E-2	7.432354E-3	-1.882375E-2	-1.457632E-2	-7.580390E-3	-1.467322E-2	-9.045745E-3	1.272265E-2	2.239556E-2	-2.023731E-2	3.146318E-3	1.679783E-2	-3.184618E-2	1.201451E-3	6.717593E-3	1.650405E-2	3.514723E-2	8.640797E-3	3.143479E-3	9.613750E-3	4.972618E-3	3.974874E-2	9.475470E-3	-3.833851E-2
5.340070E+2	3.053792E-2	5.805385E-2	1.135637E-2	1.459341E-2	4.280062E-2	2.689301E-2	3.589200E-2	3.454715E-2	2.098644E-2	3.954042E-2	3.180701E-2	1.175721E-2	2.188972E-2	5.895036E-2	1.723036E-2	3.375168E-2	1.331309E-2	2.257835E-2	2.998359E-2	6.101699E-3	9.034985E-3	3.193221E-2	1.428820E-2	4.520181E-2	2.861158E-2	6.982012E-2	2.302332E-2	4.173000E-2	1.510330E-2	5.200827E-2	3.041624E-2	7.451529E-3	5.903683E-2	8.836031E-3	1.082229E-3	1.625024E-2	5.223147E-2	2.039637E-2	2.342420E-2	1.321204E-2	5.503063E-2	2.671073E-2	7.327514E-2	-3.870852E-3	6.609240E-2	2.296293E-2	4.060700E-2	2.004186E-2	3.200033E-2	3.929715E-2	3.859715E-2	2.863314E-2	2.966611E-2	1.037396E-2	3.514482E-2	2.282309E-2	2.540481E-2	3.668198E-2	6.591076E-2	3.286283E-2	3.429824E-3	2.538385E-2	1.432187E-2	-7.127512E-5	3.168354E-2	4.949469E-2	1.440404E-2	2.231156E-2	5.207837E-2	2.099168E-2	4.008025E-2	8.657002E-2	5.704787E-2	3.316175E-2	3.878037E-2	3.547464E-2	3.280268E-2	3.787626E-2	2.717921E-3	5.285719E-2	3.748304E-2	1.591430E-2	5.371172E-2	2.292650E-2	2.261965E-2	6.391192E-2	2.596514E-2	6.021163E-2	1.952958E-3	1.368353E-2	2.858169E-2	5.845527E-2	4.175023E-2	6.721304E-3	2.550164E-2	4.693844E-2	2.351956E-2	2.867970E-2	5.937067E-2	3.642547E-2	2.601995E-2	5.866472E-2	3.110267E-2	2.594638E-4	4.671778E-2	5.499554E-2	5.899837E-2	2.459881E-2	4.006168E-2	5.602865E-2	3.959890E-2	3.457741E-2	2.213392E-2	3.872497E-2	3.747502E-2	4.733739E-2	3.870977E-2	4.689917E-3	1.436510E-2	1.657802E-2	1.306163E-2	2.226415E-2	4.406917E-2	4.684489E-2	2.422184E-2	2.634016E-2	4.544009E-2	4.910255E-2	3.444629E-2	5.229022E-2	3.535572E-2	2.283425E-2	2.888574E-2	1.295104E-2	2.762807E-3	2.942660E-2	4.276136E-2	5.539627E-2	9.910143E-3	3.175608E-2	3.179903E-2	3.631342E-2	1.230175E-2	5.678825E-2	2.944994E-2	-4.894677E-3	4.794718E-2	3.665831E-2	3.716809E-2	2.568773E-2	1.300761E-2	4.579806E-2	3.244887E-2	9.770739E-3	4.091840E-2	2.877583E-2	3.804856E-2	7.013870E-3	3.116465E-2	1.711277E-2	4.575600E-2	-1.603089E-2	2.618382E-2	1.233063E-2	3.590856E-3	1.857609E-2
5.342040E+2	1.412544E-1	1.643404E-1	1.301327E-1	1.266567E-1	1.532040E-1	1.413084E-1	1.313286E-1	1.685640E-1	1.777605E-1	1.738474E-1	1.509182E-1	1.707176E-1	1.222555E-1	1.292479E-1	1.779311E-1	9.348065E-2	1.585640E-1	1.612896E-1	1.662612E-1	1.473241E-1	1.424599E-1	1.309912E-1	1.048960E-1	1.291193E-1	1.358064E-1	1.720273E-1	1.587888E-1	1.638726E-1	1.247758E-1	1.717193E-1	1.901589E-1	1.657079E-1	1.701382E-1	1.547932E-1	1.304153E-1	1.203826E-1	1.306893E-1	1.698537E-1	1.560926E-1	1.270966E-1	1.683705E-1	1.272298E-1	1.331816E-1	1.405182E-1	1.359225E-1	1.549751E-1	1.557466E-1	1.716815E-1	2.016941E-1	1.395201E-1	1.546387E-1	1.800978E-1	1.828625E-1	1.351492E-1	1.203494E-1	1.290954E-1	1.541446E-1	1.400526E-1	1.151841E-1	1.217217E-1	1.107463E-1	1.601084E-1	1.521867E-1	1.713838E-1	1.269360E-1	1.718796E-1	1.239413E-1	1.392370E-1	1.788819E-1	1.747221E-1	1.297894E-1	1.708615E-1	1.762739E-1	1.115215E-1	1.321286E-1	1.323240E-1	1.361631E-1	1.729744E-1	1.139630E-1	1.939905E-1	1.423646E-1	1.646271E-1	1.547544E-1	1.419667E-1	1.425061E-1	1.268437E-1	1.355275E-1	1.257827E-1	1.574772E-1	1.508418E-1	1.615614E-1	1.403716E-1	1.346328E-1	1.695716E-1	1.386103E-1	1.756290E-1	1.378854E-1	1.410416E-1	1.694977E-1	1.516919E-1	1.619032E-1	1.437918E-1	1.385631E-1	1.305381E-1	1.478326E-1	9.408364E-2	1.268559E-1	1.299171E-1	1.585353E-1	1.453379E-1	1.318407E-1	1.225653E-1	1.274698E-1	1.557918E-1	1.410052E-1	1.106806E-1	1.519774E-1	1.441019E-1	1.440836E-1	1.458777E-1	1.064504E-1	1.377428E-1	1.605258E-1	1.198555E-1	1.477797E-1	1.578942E-1	1.345115E-1	1.494559E-1	1.699632E-1	1.450292E-1	1.558916E-1	1.629355E-1	1.468353E-1	1.323372E-1	1.450599E-1	1.307142E-1	1.206869E-1	1.162438E-1	1.473441E-1	1.613185E-1	1.401120E-1	1.336719E-1	1.406048E-1	1.251941E-1	1.237576E-1	1.440471E-1	1.438910E-1	1.221654E-1	1.779987E-1	1.164766E-1	1.000629E-1	1.401614E-1	1.534873E-1	1.279923E-1	1.309410E-1	1.502736E-1	1.684621E-1	1.535765E-1	1.400820E-1	1.181708E-1	1.093308E-1	1.277674E-1	1.185685E-1	1.334838E-1	1.535835E-1	1.397609E-1
5.344070E+2	2.740459E-1	3.300746E-1	3.059145E-1	2.924327E-1	3.151084E-1	2.583726E-1	3.036470E-1	3.255109E-1	3.328515E-1	3.075746E-1	2.872376E-1	3.001769E-1	3.468174E-1	2.683357E-1	3.564634E-1	2.879550E-1	2.929325E-1	2.972232E-1	3.082158E-1	2.959711E-1	2.995828E-1	3.133342E-1	2.819716E-1	3.106731E-1	3.304773E-1	3.130120E-1	3.264500E-1	3.197742E-1	3.151242E-1	2.204855E-1	3.027358E-1	3.256303E-1	2.656028E-1	2.890494E-1	3.035895E-1	2.747894E-1	3.398020E-1	2.631749E-1	2.984519E-1	3.301744E-1	3.227127E-1	2.786187E-1	2.480311E-1	2.806853E-1	2.307115E-1	3.063666E-1	3.239544E-1	3.089925E-1	2.909630E-1	2.968474E-1	2.803446E-1	3.299192E-1	2.668813E-1	2.786006E-1	3.003418E-1	2.775253E-1	2.810565E-1	3.577967E-1	2.900451E-1	3.658093E-1	3.175516E-1	2.984543E-1	2.449653E-1	2.923058E-1	2.502702E-1	3.072854E-1	3.162812E-1	2.650960E-1	2.977455E-1	2.879823E-1	2.862853E-1	3.095832E-1	3.401436E-1	3.303466E-1	2.725424E-1	3.115753E-1	2.882140E-1	3.041672E-1	2.904023E-1	2.875049E-1	3.422394E-1	3.439687E-1	2.932341E-1	3.254191E-1	2.888041E-1	3.443095E-1	2.705993E-1	3.269258E-1	2.781578E-1	2.780279E-1	3.099065E-1	2.784167E-1	3.167558E-1	2.838360E-1	3.278334E-1	2.856896E-1	2.986638E-1	2.729192E-1	2.574395E-1	3.058536E-1	2.983420E-1	2.680527E-1	3.072633E-1	2.592548E-1	2.779881E-1	3.121811E-1	3.301143E-1	3.134421E-1	3.022621E-1	2.945214E-1	2.939781E-1	2.684029E-1	3.070498E-1	3.026306E-1	2.862038E-1	2.899935E-1	2.677167E-1	2.468952E-1	2.961450E-1	3.271627E-1	2.528851E-1	3.170476E-1	3.073108E-1	2.925100E-1	3.315837E-1	2.920543E-1	3.100804E-1	3.149347E-1	2.908344E-1	3.403209E-1	2.980782E-1	3.028991E-1	3.189321E-1	3.253238E-1	3.436990E-1	2.960713E-1	2.552486E-1	3.103116E-1	2.999239E-1	3.289207E-1	3.027276E-1	3.004299E-1	2.748990E-1	3.364101E-1	3.059060E-1	2.568441E-1	3.322175E-1	3.001298E-1	2.808718E-1	2.513599E-1	3.148852E-1	2.906190E-1	2.765019E-1	2.977421E-1	2.920458E-1	2.919958E-1	2.876685E-1	3.204631E-1	2.737385E-1	3.405501E-1	2.953087E-1	2.674111E-1	3.040611E-1	3.026412E-1	2.619517E-1	2.686022E-1
5.346150E+2	3.916682E-1	3.948502E-1	3.978162E-1	3.774793E-1	4.245137E-1	3.834375E-1	4.394732E-1	3.832046E-1	3.345544E-1	3.679027E-1	3.741802E-1	4.254423E-1	4.444669E-1	3.993737E-1	4.219259E-1	4.010340E-1	3.356350E-1	3.769926E-1	3.869009E-1	4.379750E-1	3.892800E-1	4.076793E-1	4.064817E-1	4.364009E-1	4.087239E-1	3.940608E-1	3.991163E-1	3.625897E-1	3.941991E-1	3.777006E-1	3.653909E-1	4.338544E-1	3.950966E-1	3.217454E-1	4.091301E-1	3.630639E-1	4.249350E-1	3.889913E-1	3.906491E-1	3.963357E-1	4.002391E-1	3.741679E-1	4.146532E-1	4.162459E-1	4.271822E-1	4.310296E-1	3.673348E-1	3.950725E-1	3.751249E-1	3.904661E-1	4.175890E-1	4.024652E-1	4.195708E-1	4.175663E-1	3.624614E-1	3.719704E-1	4.271710E-1	3.773694E-1	4.285534E-1	4.332955E-1	4.185574E-1	3.920904E-1	4.004254E-1	3.856042E-1	4.038491E-1	3.893445E-1	4.148024E-1	4.023971E-1	4.010407E-1	3.765211E-1	4.172900E-1	3.756638E-1	4.393795E-1	4.167136E-1	3.634082E-1	3.946187E-1	4.096230E-1	3.791018E-1	4.052406E-1	3.809790E-1	4.104021E-1	4.585656E-1	3.684970E-1	3.770078E-1	3.918120E-1	3.788712E-1	3.776927E-1	3.929448E-1	4.073580E-1	4.487758E-1	3.697558E-1	4.571802E-1	4.117155E-1	3.443399E-1	4.064966E-1	4.422736E-1	3.974417E-1	4.616203E-1	4.358854E-1	3.762520E-1	4.095882E-1	3.850996E-1	3.410018E-1	3.681987E-1	4.093892E-1	3.792429E-1	4.658431E-1	3.566393E-1	4.303068E-1	3.937455E-1	4.079999E-1	4.338116E-1	3.960738E-1	3.977065E-1	4.117042E-1	4.046466E-1	4.541963E-1	4.135616E-1	4.209988E-1	3.813590E-1	3.994063E-1	3.871996E-1	4.223492E-1	4.311276E-1	3.629200E-1	3.832575E-1	3.400198E-1	3.762988E-1	3.742968E-1	3.889851E-1	4.032576E-1	3.888551E-1	4.004386E-1	4.016790E-1	3.940470E-1	4.579827E-1	4.437064E-1	3.822299E-1	4.008320E-1	3.687039E-1	4.137967E-1	4.405627E-1	4.225900E-1	4.091738E-1	3.978922E-1	4.052296E-1	4.058281E-1	3.685145E-1	4.501249E-1	4.133398E-1	3.853770E-1	4.091051E-1	3.772994E-1	3.990202E-1	4.214369E-1	4.518160E-1	3.969576E-1	4.065179E-1	4.443510E-1	4.211028E-1	4.449599E-1	4.068162E-1	4.248011E-1	4.257208E-1	4.137838E-1	3.986011E-1
5.348120E+2	6.054365E-1	5.609346E-1	5.404015E-1	4.888300E-1	5.165335E-1	5.216288E-1	5.476324E-1	5.803927E-1	4.911035E-1	5.277055E-1	5.849643E-1	5.541756E-1	5.423398E-1	5.628354E-1	5.686916E-1	5.580983E-1	6.147474E-1	5.696672E-1	5.649020E-1	5.768315E-1	5.320014E-1	5.190340E-1	5.374034E-1	5.973216E-1	5.539318E-1	5.366371E-1	5.390446E-1	5.767769E-1	5.606702E-1	5.291687E-1	5.694863E-1	5.497905E-1	5.789552E-1	5.658192E-1	4.586958E-1	4.954150E-1	5.886642E-1	5.522949E-1	5.222965E-1	5.555078E-1	5.494739E-1	5.653527E-1	5.905597E-1	5.788769E-1	5.049783E-1	5.392758E-1	5.197198E-1	5.506587E-1	4.928210E-1	5.689205E-1	5.955872E-1	5.655446E-1	5.871766E-1	6.039462E-1	5.479782E-1	6.208436E-1	6.253248E-1	5.960370E-1	5.470525E-1	5.649321E-1	5.178204E-1	6.102356E-1	5.449959E-1	5.385725E-1	6.059922E-1	5.581029E-1	5.892643E-1	5.097653E-1	5.594535E-1	5.277895E-1	5.720709E-1	5.525836E-1	5.867937E-1	5.518392E-1	5.287993E-1	5.436443E-1	4.825527E-1	5.225128E-1	5.339688E-1	5.156023E-1	5.287381E-1	5.756452E-1	5.069537E-1	5.277388E-1	5.846270E-1	5.500566E-1	5.448568E-1	5.722347E-1	6.004666E-1	5.305374E-1	5.124166E-1	5.453002E-1	5.340159E-1	5.736835E-1	5.803962E-1	5.217050E-1	5.576381E-1	5.611199E-1	6.014016E-1	5.937170E-1	5.768435E-1	5.819952E-1	6.092689E-1	6.108931E-1	5.678166E-1	5.510640E-1	5.972393E-1	5.607156E-1	5.928221E-1	4.727332E-1	5.682305E-1	5.723311E-1	5.894541E-1	5.426037E-1	5.421404E-1	5.742239E-1	5.868316E-1	5.455698E-1	5.353201E-1	6.083031E-1	5.343969E-1	5.818614E-1	5.687900E-1	5.751052E-1	5.473214E-1	5.588839E-1	5.039031E-1	5.675067E-1	5.398546E-1	5.118504E-1	5.689523E-1	5.108898E-1	5.483883E-1	5.526775E-1	5.914843E-1	5.607595E-1	5.415724E-1	5.287597E-1	5.674662E-1	5.468742E-1	5.696363E-1	5.139141E-1	5.463363E-1	5.110613E-1	5.718632E-1	5.390065E-1	5.531241E-1	5.073029E-1	5.517297E-1	5.111632E-1	5.564676E-1	5.312961E-1	5.656427E-1	5.702483E-1	5.297279E-1	5.508535E-1	5.352403E-1	5.576859E-1	5.501691E-1	4.937912E-1	5.500475E-1	5.263405E-1	6.038404E-1	5.417219E-1	5.333778E-1	5.932991E-1
5.350150E+2	9.286401E-1	9.328999E-1	9.671825E-1	9.093335E-1	9.633157E-1	8.984054E-1	9.150660E-1	9.528345E-1	9.095566E-1	8.517628E-1	9.703967E-1	8.897037E-1	9.477023E-1	9.054262E-1	9.048249E-1	9.289070E-1	8.698266E-1	9.172727E-1	9.397971E-1	8.795203E-1	8.909206E-1	9.031470E-1	8.967338E-1	8.257995E-1	9.258031E-1	9.005622E-1	9.200112E-1	8.683366E-1	9.236201E-1	8.363467E-1	9.020015E-1	8.447387E-1	8.993111E-1	9.303166E-1	8.782227E-1	8.633885E-1	9.647398E-1	9.020105E-1	1.006372E+0	9.268495E-1	9.232497E-1	8.750835E-1	8.722479E-1	9.410209E-1	8.576750E-1	9.728145E-1	9.355026E-1	9.444533E-1	9.226238E-1	9.311100E-1	9.147795E-1	8.994570E-1	9.281011E-1	8.669301E-1	8.748332E-1	9.614761E-1	9.679404E-1	8.256009E-1	8.965108E-1	9.602998E-1	8.891855E-1	9.142928E-1	9.219395E-1	9.282753E-1	9.370718E-1	9.346999E-1	8.832271E-1	8.164682E-1	9.019877E-1	9.001949E-1	8.785854E-1	9.076221E-1	9.585245E-1	9.147652E-1	9.127158E-1	8.846590E-1	9.268533E-1	9.154720E-1	9.220509E-1	8.972136E-1	9.380300E-1	9.373523E-1	8.718681E-1	8.601553E-1	8.724411E-1	8.797121E-1	8.993841E-1	9.391216E-1	9.176842E-1	9.130475E-1	8.607626E-1	8.965371E-1	8.576868E-1	8.774111E-1	8.858529E-1	8.599620E-1	8.942280E-1	8.504478E-1	9.334272E-1	8.680229E-1	9.095302E-1	8.940019E-1	8.980033E-1	8.105132E-1	9.335608E-1	8.496372E-1	9.537584E-1	9.164292E-1	9.099651E-1	8.746385E-1	8.828150E-1	9.281486E-1	8.744782E-1	9.201425E-1	9.074150E-1	9.977735E-1	9.371302E-1	9.539247E-1	8.667562E-1	8.645129E-1	9.199380E-1	9.233617E-1	9.042001E-1	9.504278E-1	9.099203E-1	8.823713E-1	8.806871E-1	8.859407E-1	9.947960E-1	8.974300E-1	8.949324E-1	9.405743E-1	8.546801E-1	8.957035E-1	9.311812E-1	9.198820E-1	9.534390E-1	9.763003E-1	9.033814E-1	9.955977E-1	8.828321E-1	9.889106E-1	9.116098E-1	8.896268E-1	8.711720E-1	8.414702E-1	9.315633E-1	8.744259E-1	8.824661E-1	9.138176E-1	9.695359E-1	8.964932E-1	8.917385E-1	8.807535E-1	8.508418E-1	9.300411E-1	8.874735E-1	9.139500E-1	9.126501E-1	9.708734E-1	8.653185E-1	8.746660E-1	8.973858E-1	9.719751E-1	9.114650E-1	8.829796E-1
5.352130E+2	1.680459E+0	1.650722E+0	1.689217E+0	1.563509E+0	1.617978E+0	1.517258E+0	1.648846E+0	1.582102E+0	1.593598E+0	1.673516E+0	1.679734E+0	1.678833E+0	1.713503E+0	1.656306E+0	1.643549E+0	1.635796E+0	1.645659E+0	1.672348E+0	1.553047E+0	1.679729E+0	1.649232E+0	1.683570E+0	1.622445E+0	1.663024E+0	1.589620E+0	1.515998E+0	1.600733E+0	1.564089E+0	1.637259E+0	1.558360E+0	1.636617E+0	1.536667E+0	1.558619E+0	1.590822E+0	1.532604E+0	1.659916E+0	1.624464E+0	1.550720E+0	1.636328E+0	1.619837E+0	1.625693E+0	1.543616E+0	1.630416E+0	1.662700E+0	1.637797E+0	1.639728E+0	1.592467E+0	1.636299E+0	1.579605E+0	1.633621E+0	1.570334E+0	1.650319E+0	1.665934E+0	1.639718E+0	1.606586E+0	1.614013E+0	1.617281E+0	1.606253E+0	1.595214E+0	1.707060E+0	1.610930E+0	1.690027E+0	1.599796E+0	1.703302E+0	1.689600E+0	1.640402E+0	1.603415E+0	1.657322E+0	1.596304E+0	1.614467E+0	1.568947E+0	1.590443E+0	1.602836E+0	1.627709E+0	1.569882E+0	1.549724E+0	1.648235E+0	1.656535E+0	1.677931E+0	1.559159E+0	1.626642E+0	1.634812E+0	1.512789E+0	1.570508E+0	1.577363E+0	1.617445E+0	1.558172E+0	1.601532E+0	1.643414E+0	1.563235E+0	1.546614E+0	1.685206E+0	1.558208E+0	1.558499E+0	1.555873E+0	1.578067E+0	1.590588E+0	1.546180E+0	1.490933E+0	1.583000E+0	1.548232E+0	1.614740E+0	1.506699E+0	1.622190E+0	1.597252E+0	1.537755E+0	1.622126E+0	1.617291E+0	1.626179E+0	1.543634E+0	1.548848E+0	1.645168E+0	1.634243E+0	1.625296E+0	1.582520E+0	1.544488E+0	1.556255E+0	1.566763E+0	1.655412E+0	1.638246E+0	1.527763E+0	1.600938E+0	1.579994E+0	1.638711E+0	1.537641E+0	1.513410E+0	1.605914E+0	1.664418E+0	1.696666E+0	1.605474E+0	1.713439E+0	1.566763E+0	1.602141E+0	1.524751E+0	1.677401E+0	1.600858E+0	1.581303E+0	1.588983E+0	1.611941E+0	1.610893E+0	1.612707E+0	1.658340E+0	1.634263E+0	1.566693E+0	1.604357E+0	1.583428E+0	1.670640E+0	1.471838E+0	1.641507E+0	1.659650E+0	1.744300E+0	1.551510E+0	1.456028E+0	1.558153E+0	1.543660E+0	1.512872E+0	1.617522E+0	1.628741E+0	1.539457E+0	1.645138E+0	1.573864E+0	1.620664E+0	1.656705E+0	1.643489E+0	1.549208E+0	1.748817E+0
5.354010E+2	2.620336E+0	2.559389E+0	2.608794E+0	2.581837E+0	2.544412E+0	2.428916E+0	2.620723E+0	2.596855E+0	2.408236E+0	2.495422E+0	2.521955E+0	2.641641E+0	2.581525E+0	2.547812E+0	2.483391E+0	2.448747E+0	2.590039E+0	2.574258E+0	2.507851E+0	2.547224E+0	2.553579E+0	2.626453E+0	2.701757E+0	2.600313E+0	2.507392E+0	2.434036E+0	2.547504E+0	2.436936E+0	2.524199E+0	2.473964E+0	2.574677E+0	2.481244E+0	2.578934E+0	2.481186E+0	2.477711E+0	2.511480E+0	2.537335E+0	2.555716E+0	2.506572E+0	2.482360E+0	2.542177E+0	2.426768E+0	2.507769E+0	2.546493E+0	2.530769E+0	2.426258E+0	2.594738E+0	2.582445E+0	2.547147E+0	2.460556E+0	2.535714E+0	2.509701E+0	2.545790E+0	2.625792E+0	2.510615E+0	2.502471E+0	2.566046E+0	2.595414E+0	2.475120E+0	2.618180E+0	2.547845E+0	2.567729E+0	2.491569E+0	2.583022E+0	2.609668E+0	2.583192E+0	2.553708E+0	2.579866E+0	2.511479E+0	2.496298E+0	2.397974E+0	2.476762E+0	2.543145E+0	2.460662E+0	2.546481E+0	2.448107E+0	2.500780E+0	2.475185E+0	2.618268E+0	2.435348E+0	2.555542E+0	2.495229E+0	2.406267E+0	2.474244E+0	2.442689E+0	2.511843E+0	2.420144E+0	2.517091E+0	2.612948E+0	2.525529E+0	2.329878E+0	2.386244E+0	2.557628E+0	2.534946E+0	2.518739E+0	2.586426E+0	2.543893E+0	2.492522E+0	2.470060E+0	2.472633E+0	2.600065E+0	2.392085E+0	2.419598E+0	2.479621E+0	2.648476E+0	2.486526E+0	2.608576E+0	2.391407E+0	2.485657E+0	2.396372E+0	2.546483E+0	2.430264E+0	2.525538E+0	2.523429E+0	2.509384E+0	2.487225E+0	2.438120E+0	2.361041E+0	2.524761E+0	2.575755E+0	2.345284E+0	2.535666E+0	2.515486E+0	2.443602E+0	2.409560E+0	2.408088E+0	2.452065E+0	2.438187E+0	2.452783E+0	2.405285E+0	2.499355E+0	2.552681E+0	2.483666E+0	2.459852E+0	2.491065E+0	2.458034E+0	2.535631E+0	2.418859E+0	2.457875E+0	2.565768E+0	2.490977E+0	2.480638E+0	2.508426E+0	2.469306E+0	2.431369E+0	2.563182E+0	2.546313E+0	2.371537E+0	2.575752E+0	2.429008E+0	2.558169E+0	2.418638E+0	2.386065E+0	2.467451E+0	2.377131E+0	2.543705E+0	2.507561E+0	2.535127E+0	2.463859E+0	2.528810E+0	2.513018E+0	2.475375E+0	2.527109E+0	2.450439E+0	2.539584E+0	2.744675E+0
5.356150E+2	2.475296E+0	2.399324E+0	2.490733E+0	2.513146E+0	2.434750E+0	2.287440E+0	2.455237E+0	2.507483E+0	2.408530E+0	2.397023E+0	2.430064E+0	2.494902E+0	2.439101E+0	2.495963E+0	2.390853E+0	2.506873E+0	2.466035E+0	2.354825E+0	2.525957E+0	2.543539E+0	2.437823E+0	2.508679E+0	2.428459E+0	2.498963E+0	2.378951E+0	2.494328E+0	2.451299E+0	2.320999E+0	2.434892E+0	2.389978E+0	2.466487E+0	2.397421E+0	2.446292E+0	2.332174E+0	2.358996E+0	2.507780E+0	2.529640E+0	2.384031E+0	2.331621E+0	2.355776E+0	2.530351E+0	2.288462E+0	2.496379E+0	2.454513E+0	2.384178E+0	2.504615E+0	2.460170E+0	2.458711E+0	2.519349E+0	2.480591E+0	2.468240E+0	2.403167E+0	2.422899E+0	2.561213E+0	2.321149E+0	2.409096E+0	2.367906E+0	2.475039E+0	2.356133E+0	2.469704E+0	2.390068E+0	2.411313E+0	2.405143E+0	2.430349E+0	2.397037E+0	2.430567E+0	2.530543E+0	2.329626E+0	2.338097E+0	2.378022E+0	2.391657E+0	2.387505E+0	2.569434E+0	2.313834E+0	2.436750E+0	2.410071E+0	2.455650E+0	2.393262E+0	2.508378E+0	2.387814E+0	2.437865E+0	2.385623E+0	2.275640E+0	2.347626E+0	2.281902E+0	2.337516E+0	2.316379E+0	2.421652E+0	2.583879E+0	2.469387E+0	2.301663E+0	2.295669E+0	2.389942E+0	2.376809E+0	2.372786E+0	2.407644E+0	2.525549E+0	2.487064E+0	2.328700E+0	2.361273E+0	2.337036E+0	2.405655E+0	2.303782E+0	2.469903E+0	2.376752E+0	2.485756E+0	2.414625E+0	2.451099E+0	2.356677E+0	2.336711E+0	2.375296E+0	2.367319E+0	2.475383E+0	2.368550E+0	2.283993E+0	2.528547E+0	2.377890E+0	2.353230E+0	2.415208E+0	2.426758E+0	2.261680E+0	2.371445E+0	2.442300E+0	2.302475E+0	2.340874E+0	2.359444E+0	2.353782E+0	2.280816E+0	2.403137E+0	2.385115E+0	2.378793E+0	2.399038E+0	2.342916E+0	2.391845E+0	2.490656E+0	2.417862E+0	2.299774E+0	2.374745E+0	2.326158E+0	2.396722E+0	2.347018E+0	2.384364E+0	2.319746E+0	2.454883E+0	2.344186E+0	2.357889E+0	2.417269E+0	2.287994E+0	2.495778E+0	2.378786E+0	2.465279E+0	2.404882E+0	2.360056E+0	2.272866E+0	2.334585E+0	2.329491E+0	2.382351E+0	2.405977E+0	2.291095E+0	2.429139E+0	2.365358E+0	2.217748E+0	2.494058E+0	2.462969E+0	2.178873E+0	2.310913E+0
5.358080E+2	2.359524E+0	2.278174E+0	2.294810E+0	2.265138E+0	2.320052E+0	2.283600E+0	2.316218E+0	2.224364E+0	2.216750E+0	2.220161E+0	2.296104E+0	2.338933E+0	2.294679E+0	2.415873E+0	2.295999E+0	2.360544E+0	2.224699E+0	2.402362E+0	2.238413E+0	2.316957E+0	2.307420E+0	2.351363E+0	2.253217E+0	2.327444E+0	2.374210E+0	2.289140E+0	2.309686E+0	2.190034E+0	2.257196E+0	2.284468E+0	2.220887E+0	2.351558E+0	2.297805E+0	2.214526E+0	2.276697E+0	2.244033E+0	2.331252E+0	2.315230E+0	2.217621E+0	2.268876E+0	2.333550E+0	2.213752E+0	2.316359E+0	2.337591E+0	2.267402E+0	2.311884E+0	2.255393E+0	2.230000E+0	2.384468E+0	2.300947E+0	2.230415E+0	2.257445E+0	2.360968E+0	2.438126E+0	2.246914E+0	2.224457E+0	2.265035E+0	2.322469E+0	2.262510E+0	2.353495E+0	2.329106E+0	2.311979E+0	2.302104E+0	2.303003E+0	2.284700E+0	2.373815E+0	2.400336E+0	2.424403E+0	2.257870E+0	2.233829E+0	2.317711E+0	2.222416E+0	2.459521E+0	2.177974E+0	2.373477E+0	2.369208E+0	2.320335E+0	2.232067E+0	2.339145E+0	2.124930E+0	2.389582E+0	2.208898E+0	2.231134E+0	2.193519E+0	2.239222E+0	2.312848E+0	2.206724E+0	2.289383E+0	2.349430E+0	2.180364E+0	2.191353E+0	2.208287E+0	2.200483E+0	2.309894E+0	2.341157E+0	2.201926E+0	2.227848E+0	2.391539E+0	2.241985E+0	2.207361E+0	2.278822E+0	2.320161E+0	2.246819E+0	2.257633E+0	2.268519E+0	2.289248E+0	2.368521E+0	2.283497E+0	2.271301E+0	2.307421E+0	2.305570E+0	2.305116E+0	2.268652E+0	2.234697E+0	2.243945E+0	2.264818E+0	2.178644E+0	2.258294E+0	2.290374E+0	2.303649E+0	2.163711E+0	2.306495E+0	2.257134E+0	2.273467E+0	2.201305E+0	2.231103E+0	2.259684E+0	2.299223E+0	2.160387E+0	2.263989E+0	2.295318E+0	2.310090E+0	2.436455E+0	2.207002E+0	2.356023E+0	2.256813E+0	2.201483E+0	2.319075E+0	2.209619E+0	2.241027E+0	2.306576E+0	2.272969E+0	2.266740E+0	2.184101E+0	2.335192E+0	2.124420E+0	2.289168E+0	2.133849E+0	2.280090E+0	2.260756E+0	2.274525E+0	2.302496E+0	2.113109E+0	2.220238E+0	2.249175E+0	2.317596E+0	2.329439E+0	2.208211E+0	2.107955E+0	2.174075E+0	2.325698E+0	2.276815E+0	2.329671E+0	2.398572E+0	2.341848E+0	2.180139E+0
5.360170E+2	1.749681E+0	1.744811E+0	1.751182E+0	1.691723E+0	1.690001E+0	1.694954E+0	1.750005E+0	1.719573E+0	1.665374E+0	1.714590E+0	1.693730E+0	1.732937E+0	1.731380E+0	1.731079E+0	1.688338E+0	1.696268E+0	1.672984E+0	1.620198E+0	1.736825E+0	1.758927E+0	1.743235E+0	1.780067E+0	1.684721E+0	1.785591E+0	1.727110E+0	1.741115E+0	1.687591E+0	1.743180E+0	1.760988E+0	1.688010E+0	1.728664E+0	1.715025E+0	1.769010E+0	1.701301E+0	1.676500E+0	1.631070E+0	1.761959E+0	1.765713E+0	1.688168E+0	1.705238E+0	1.822472E+0	1.567441E+0	1.741714E+0	1.673599E+0	1.762677E+0	1.653225E+0	1.724202E+0	1.652191E+0	1.732083E+0	1.752243E+0	1.724131E+0	1.679000E+0	1.696289E+0	1.726256E+0	1.611843E+0	1.683778E+0	1.667100E+0	1.716165E+0	1.794676E+0	1.730878E+0	1.784890E+0	1.740307E+0	1.730404E+0	1.753198E+0	1.806940E+0	1.782314E+0	1.737356E+0	1.777083E+0	1.679139E+0	1.656953E+0	1.650377E+0	1.719972E+0	1.828110E+0	1.655928E+0	1.677358E+0	1.707997E+0	1.733261E+0	1.741556E+0	1.715671E+0	1.640446E+0	1.757098E+0	1.737637E+0	1.676215E+0	1.586496E+0	1.665623E+0	1.595864E+0	1.637754E+0	1.720932E+0	1.763642E+0	1.689240E+0	1.648059E+0	1.576974E+0	1.584274E+0	1.688231E+0	1.689726E+0	1.764465E+0	1.783624E+0	1.718986E+0	1.692756E+0	1.657963E+0	1.809160E+0	1.739697E+0	1.649591E+0	1.745251E+0	1.764368E+0	1.616643E+0	1.702643E+0	1.600005E+0	1.608550E+0	1.738416E+0	1.636978E+0	1.725449E+0	1.737240E+0	1.699354E+0	1.713170E+0	1.755782E+0	1.625092E+0	1.678489E+0	1.736753E+0	1.626801E+0	1.612757E+0	1.672901E+0	1.746963E+0	1.683300E+0	1.712712E+0	1.742755E+0	1.607636E+0	1.725295E+0	1.688314E+0	1.656211E+0	1.758476E+0	1.669275E+0	1.727805E+0	1.691970E+0	1.774146E+0	1.607550E+0	1.697375E+0	1.599599E+0	1.711148E+0	1.685326E+0	1.715903E+0	1.743191E+0	1.714562E+0	1.626135E+0	1.726860E+0	1.643567E+0	1.697085E+0	1.638957E+0	1.887585E+0	1.661641E+0	1.633367E+0	1.645213E+0	1.783612E+0	1.732677E+0	1.658500E+0	1.685404E+0	1.761803E+0	1.711872E+0	1.606498E+0	1.743475E+0	1.671157E+0	1.680305E+0	1.687819E+0	1.636066E+0	1.616384E+0	1.786732E+0
5.362050E+2	1.866670E+0	1.846656E+0	1.869944E+0	1.621687E+0	1.753140E+0	1.723942E+0	1.836520E+0	1.760912E+0	1.788618E+0	1.721924E+0	1.780359E+0	1.750967E+0	1.788512E+0	1.834785E+0	1.886424E+0	1.752615E+0	1.898963E+0	1.751223E+0	1.774783E+0	1.802640E+0	1.854383E+0	1.843588E+0	1.743924E+0	1.726632E+0	1.782709E+0	1.815930E+0	1.812435E+0	1.843087E+0	1.864057E+0	1.796030E+0	1.832771E+0	1.801568E+0	1.883665E+0	1.740872E+0	1.778610E+0	1.757413E+0	1.899785E+0	1.843627E+0	1.762337E+0	1.806705E+0	1.829751E+0	1.700056E+0	1.793945E+0	1.817533E+0	1.848907E+0	1.804111E+0	1.760029E+0	1.803790E+0	1.772159E+0	1.870905E+0	1.798742E+0	1.801692E+0	1.810943E+0	1.808783E+0	1.715707E+0	1.740306E+0	1.793159E+0	1.818656E+0	1.758856E+0	1.845163E+0	1.807853E+0	1.820217E+0	1.826435E+0	1.823375E+0	1.777714E+0	1.727413E+0	1.834668E+0	1.845844E+0	1.897198E+0	1.847991E+0	1.715125E+0	1.707210E+0	1.803953E+0	1.731844E+0	1.862733E+0	1.696764E+0	1.907912E+0	1.874058E+0	1.801747E+0	1.752517E+0	1.784511E+0	1.773542E+0	1.735954E+0	1.744483E+0	1.733092E+0	1.766207E+0	1.758075E+0	1.766255E+0	1.826601E+0	1.717161E+0	1.682289E+0	1.742576E+0	1.819251E+0	1.765870E+0	1.743312E+0	1.787996E+0	1.741126E+0	1.828134E+0	1.725640E+0	1.742900E+0	1.857203E+0	1.820585E+0	1.757541E+0	1.704975E+0	1.779991E+0	1.689240E+0	1.818467E+0	1.813242E+0	1.803609E+0	1.707266E+0	1.826610E+0	1.852222E+0	1.865728E+0	1.880491E+0	1.710813E+0	1.754574E+0	1.781370E+0	1.763027E+0	1.855728E+0	1.807325E+0	1.714987E+0	1.749896E+0	1.821320E+0	1.783300E+0	1.830526E+0	1.724548E+0	1.695097E+0	1.810748E+0	1.842743E+0	1.785672E+0	1.779784E+0	1.683381E+0	1.807387E+0	1.715993E+0	1.751604E+0	1.784483E+0	1.819262E+0	1.772307E+0	1.711554E+0	1.859325E+0	1.863608E+0	1.720775E+0	1.728584E+0	1.790498E+0	1.798439E+0	1.789823E+0	1.834711E+0	1.719258E+0	1.862660E+0	1.813115E+0	1.854155E+0	1.759701E+0	1.708407E+0	1.740989E+0	1.676212E+0	1.808828E+0	1.742888E+0	1.866629E+0	1.770184E+0	1.798052E+0	1.767331E+0	1.714945E+0	1.765098E+0	1.782053E+0	1.651006E+0	1.689506E+0
5.364090E+2	2.019274E+0	2.003587E+0	1.926061E+0	1.984252E+0	2.076072E+0	1.912854E+0	2.032488E+0	1.955601E+0	1.793835E+0	2.017089E+0	1.974007E+0	1.987115E+0	1.907635E+0	1.948359E+0	1.945820E+0	1.896088E+0	1.839489E+0	1.989973E+0	1.974916E+0	1.923072E+0	1.947960E+0	2.065297E+0	2.025899E+0	2.013254E+0	1.871740E+0	1.957640E+0	1.950395E+0	1.972210E+0	1.879099E+0	1.873424E+0	1.947844E+0	1.897629E+0	1.954666E+0	1.904645E+0	2.002811E+0	1.926615E+0	1.935926E+0	1.976949E+0	1.917822E+0	2.005635E+0	2.009511E+0	1.889868E+0	1.953358E+0	2.045960E+0	1.966326E+0	1.949935E+0	1.965596E+0	1.916800E+0	1.963918E+0	1.981865E+0	1.985061E+0	1.933406E+0	1.937548E+0	2.005992E+0	1.915122E+0	1.908253E+0	1.927116E+0	1.909919E+0	1.942464E+0	1.983331E+0	2.034810E+0	1.988395E+0	1.922370E+0	1.950439E+0	1.966406E+0	1.912200E+0	1.918676E+0	1.980361E+0	2.024329E+0	1.834786E+0	1.929241E+0	1.951205E+0	1.914591E+0	1.948119E+0	1.947537E+0	1.882393E+0	2.035319E+0	1.879824E+0	1.971048E+0	1.844649E+0	2.138436E+0	1.889292E+0	1.997409E+0	1.928395E+0	1.862114E+0	1.902061E+0	1.908861E+0	1.878347E+0	2.073129E+0	1.932858E+0	1.855784E+0	1.941749E+0	2.039661E+0	1.873588E+0	1.855601E+0	1.961295E+0	2.007414E+0	1.976132E+0	1.883555E+0	1.906993E+0	1.905997E+0	1.913914E+0	1.940725E+0	1.939324E+0	1.914953E+0	1.995125E+0	2.030555E+0	1.918616E+0	1.961032E+0	1.893388E+0	1.986097E+0	1.950300E+0	1.810602E+0	1.896714E+0	1.911789E+0	1.897818E+0	1.818981E+0	1.883117E+0	1.908782E+0	1.950818E+0	1.878711E+0	1.964959E+0	1.987061E+0	1.896288E+0	1.934749E+0	1.889910E+0	1.905507E+0	1.924282E+0	1.953743E+0	1.899671E+0	1.998342E+0	1.964626E+0	1.863492E+0	1.895495E+0	1.993105E+0	1.907302E+0	1.996468E+0	1.879970E+0	1.916923E+0	1.932993E+0	1.981627E+0	1.942291E+0	2.067524E+0	1.910878E+0	2.042304E+0	1.945759E+0	1.933849E+0	1.831430E+0	2.076638E+0	1.917398E+0	1.888252E+0	1.871870E+0	1.854063E+0	1.854620E+0	1.909168E+0	1.997018E+0	2.001460E+0	1.861820E+0	1.811862E+0	1.901289E+0	1.897067E+0	2.014091E+0	2.012529E+0	1.952566E+0	1.726473E+0	1.784631E+0
5.366140E+2	2.017613E+0	2.083921E+0	1.980296E+0	1.969057E+0	2.012305E+0	1.998646E+0	2.013171E+0	1.989801E+0	1.949511E+0	1.950223E+0	1.907049E+0	2.050878E+0	2.027570E+0	2.027086E+0	1.893516E+0	2.053219E+0	1.987162E+0	2.004623E+0	2.064042E+0	2.057740E+0	1.968780E+0	2.035826E+0	1.907382E+0	1.972810E+0	1.925586E+0	1.969652E+0	1.994627E+0	1.898165E+0	2.018759E+0	2.039841E+0	2.015370E+0	1.971996E+0	1.985704E+0	1.957311E+0	1.887270E+0	1.973671E+0	2.045391E+0	1.972403E+0	1.910515E+0	1.967476E+0	1.981356E+0	1.904939E+0	1.917415E+0	1.912140E+0	1.968163E+0	2.024982E+0	1.966615E+0	1.965336E+0	1.959163E+0	2.053744E+0	1.997353E+0	2.014823E+0	1.933240E+0	1.998956E+0	1.903621E+0	1.979381E+0	1.992475E+0	2.028171E+0	1.963325E+0	2.102681E+0	1.959981E+0	1.986744E+0	2.000180E+0	2.009651E+0	2.094632E+0	2.084784E+0	2.045650E+0	2.015588E+0	1.921792E+0	1.961835E+0	1.884427E+0	1.961231E+0	2.048614E+0	1.939545E+0	2.022279E+0	1.888203E+0	1.978142E+0	1.945704E+0	1.984178E+0	1.950628E+0	2.068955E+0	1.994341E+0	2.020836E+0	1.998039E+0	1.875379E+0	1.898801E+0	1.912584E+0	1.957607E+0	1.917565E+0	2.036692E+0	1.858906E+0	1.862804E+0	1.994539E+0	1.989723E+0	1.949639E+0	2.067462E+0	2.020213E+0	1.957795E+0	2.005165E+0	2.021569E+0	2.025783E+0	1.925932E+0	1.920741E+0	1.930202E+0	1.947754E+0	1.877909E+0	1.953711E+0	1.921209E+0	1.951624E+0	1.921184E+0	1.969247E+0	1.916760E+0	2.017603E+0	1.956959E+0	1.911241E+0	1.867192E+0	1.955325E+0	1.960293E+0	1.947841E+0	1.999114E+0	1.846761E+0	1.932880E+0	2.012283E+0	1.884943E+0	1.888804E+0	1.966586E+0	1.967674E+0	1.881850E+0	1.878409E+0	1.938085E+0	1.963354E+0	1.970011E+0	1.937147E+0	2.049921E+0	1.948283E+0	1.999330E+0	1.958582E+0	1.924905E+0	2.007494E+0	2.058870E+0	1.963391E+0	1.881472E+0	1.946171E+0	1.917828E+0	1.921861E+0	1.850458E+0	1.963457E+0	1.908371E+0	1.973488E+0	1.970496E+0	1.986338E+0	1.937502E+0	1.875190E+0	1.856526E+0	1.892482E+0	1.934532E+0	2.004309E+0	2.002057E+0	1.950464E+0	1.910494E+0	1.973535E+0	1.848532E+0	1.906244E+0	1.916092E+0	2.004412E+0	1.797427E+0
5.368080E+2	1.608440E+0	1.582466E+0	1.520533E+0	1.449181E+0	1.526037E+0	1.441267E+0	1.500591E+0	1.583529E+0	1.487145E+0	1.516485E+0	1.509729E+0	1.526372E+0	1.464108E+0	1.547809E+0	1.565039E+0	1.457048E+0	1.488618E+0	1.527426E+0	1.572328E+0	1.537192E+0	1.501064E+0	1.516440E+0	1.589683E+0	1.578333E+0	1.515076E+0	1.487440E+0	1.544326E+0	1.538303E+0	1.467177E+0	1.488321E+0	1.501327E+0	1.480251E+0	1.555141E+0	1.533484E+0	1.503446E+0	1.531833E+0	1.591514E+0	1.505421E+0	1.523672E+0	1.594789E+0	1.574549E+0	1.434866E+0	1.477780E+0	1.520281E+0	1.521455E+0	1.579249E+0	1.582690E+0	1.588058E+0	1.530700E+0	1.541801E+0	1.510773E+0	1.469257E+0	1.556630E+0	1.559854E+0	1.419235E+0	1.512931E+0	1.569467E+0	1.570524E+0	1.487486E+0	1.571499E+0	1.536334E+0	1.584383E+0	1.611350E+0	1.597398E+0	1.494069E+0	1.581855E+0	1.545305E+0	1.446378E+0	1.502276E+0	1.560820E+0	1.479374E+0	1.540352E+0	1.569888E+0	1.520034E+0	1.599067E+0	1.463626E+0	1.572220E+0	1.552741E+0	1.547462E+0	1.452527E+0	1.632710E+0	1.529231E+0	1.513498E+0	1.518726E+0	1.602114E+0	1.486824E+0	1.558134E+0	1.534404E+0	1.536711E+0	1.500839E+0	1.531906E+0	1.499744E+0	1.528498E+0	1.630056E+0	1.495816E+0	1.556407E+0	1.462319E+0	1.558492E+0	1.499206E+0	1.509185E+0	1.538483E+0	1.560748E+0	1.536712E+0	1.609987E+0	1.451781E+0	1.583436E+0	1.589923E+0	1.524805E+0	1.476395E+0	1.473782E+0	1.475792E+0	1.547610E+0	1.427437E+0	1.608432E+0	1.636884E+0	1.532706E+0	1.447301E+0	1.540907E+0	1.575420E+0	1.538251E+0	1.483796E+0	1.559322E+0	1.525982E+0	1.538035E+0	1.600103E+0	1.516345E+0	1.538999E+0	1.457457E+0	1.555809E+0	1.629939E+0	1.531435E+0	1.488444E+0	1.499746E+0	1.584581E+0	1.561215E+0	1.576232E+0	1.502595E+0	1.600479E+0	1.530181E+0	1.613928E+0	1.500383E+0	1.495410E+0	1.534623E+0	1.556373E+0	1.593240E+0	1.506609E+0	1.551459E+0	1.457543E+0	1.507372E+0	1.481228E+0	1.515486E+0	1.472476E+0	1.504210E+0	1.482174E+0	1.658048E+0	1.537318E+0	1.503457E+0	1.516975E+0	1.446812E+0	1.520100E+0	1.519679E+0	1.537617E+0	1.565095E+0	1.397311E+0	1.473369E+0	1.464686E+0
5.370070E+2	1.189948E+0	1.209411E+0	1.155911E+0	1.135825E+0	1.148999E+0	1.104270E+0	1.128045E+0	1.168455E+0	1.117109E+0	1.142820E+0	1.096672E+0	1.157056E+0	1.149258E+0	1.189032E+0	1.181837E+0	1.157328E+0	1.146860E+0	1.193185E+0	1.147339E+0	1.156906E+0	1.260673E+0	1.166973E+0	1.173128E+0	1.213609E+0	1.197063E+0	1.150913E+0	1.192910E+0	1.099012E+0	1.218356E+0	1.169348E+0	1.114164E+0	1.117912E+0	1.144848E+0	1.167992E+0	1.096020E+0	1.177054E+0	1.206508E+0	1.177158E+0	1.092402E+0	1.220603E+0	1.169332E+0	1.096022E+0	1.100936E+0	1.193331E+0	1.170084E+0	1.194150E+0	1.204997E+0	1.129323E+0	1.127778E+0	1.201839E+0	1.180202E+0	1.118254E+0	1.171903E+0	1.221291E+0	1.173876E+0	1.121166E+0	1.117763E+0	1.144030E+0	1.184673E+0	1.150326E+0	1.113184E+0	1.216118E+0	1.163728E+0	1.240725E+0	1.127174E+0	1.207178E+0	1.162395E+0	1.215824E+0	1.208770E+0	1.175964E+0	1.158530E+0	1.176236E+0	1.140458E+0	1.155834E+0	1.201717E+0	1.100977E+0	1.146283E+0	1.162726E+0	1.100245E+0	1.112948E+0	1.137712E+0	1.137891E+0	1.097562E+0	1.131442E+0	1.109433E+0	1.158274E+0	1.135689E+0	1.084313E+0	1.247613E+0	1.178851E+0	1.075633E+0	1.107148E+0	1.193518E+0	1.188559E+0	1.131185E+0	1.150900E+0	1.193983E+0	1.180632E+0	1.153014E+0	1.105366E+0	1.149256E+0	1.145998E+0	1.184117E+0	1.158790E+0	1.148930E+0	1.057868E+0	1.219476E+0	1.139755E+0	1.100966E+0	1.117340E+0	1.167747E+0	1.174589E+0	1.178127E+0	1.263398E+0	1.169449E+0	1.157494E+0	1.151524E+0	1.161763E+0	1.189104E+0	1.141761E+0	1.052692E+0	1.130707E+0	1.152563E+0	1.133226E+0	1.132145E+0	1.182179E+0	1.145812E+0	1.205046E+0	1.169151E+0	1.192631E+0	1.177771E+0	1.098235E+0	1.149423E+0	1.141695E+0	1.134574E+0	1.194869E+0	1.087780E+0	1.143602E+0	1.143715E+0	1.222415E+0	1.152561E+0	1.160048E+0	1.150799E+0	1.121333E+0	1.192980E+0	1.163168E+0	1.201619E+0	1.129387E+0	1.109020E+0	1.169769E+0	1.263766E+0	1.132485E+0	1.117252E+0	1.150484E+0	1.163420E+0	1.035368E+0	1.151230E+0	1.243264E+0	1.144327E+0	1.197786E+0	1.174576E+0	1.168132E+0	1.147861E+0	1.088844E+0	1.174140E+0	1.133750E+0
5.372010E+2	1.010384E+0	9.391297E-1	9.420989E-1	8.879245E-1	1.014448E+0	9.785602E-1	1.021481E+0	9.340348E-1	9.488722E-1	9.920955E-1	9.350607E-1	9.760694E-1	9.331506E-1	9.958147E-1	9.705105E-1	1.009058E+0	8.762892E-1	9.142821E-1	1.009448E+0	9.998790E-1	1.022263E+0	9.764331E-1	9.564623E-1	9.568565E-1	9.446696E-1	9.402396E-1	9.961661E-1	9.807535E-1	1.018159E+0	1.027151E+0	9.639904E-1	1.012039E+0	9.494899E-1	9.558190E-1	8.991619E-1	1.000624E+0	9.889270E-1	1.061477E+0	9.814376E-1	1.057268E+0	9.839592E-1	9.501174E-1	9.339331E-1	9.112142E-1	9.721678E-1	9.286568E-1	9.600695E-1	9.843304E-1	9.461214E-1	1.047119E+0	9.247891E-1	9.278342E-1	9.523236E-1	1.045727E+0	1.028640E+0	9.784733E-1	9.626011E-1	1.000820E+0	9.338865E-1	9.907084E-1	9.705978E-1	1.041131E+0	9.463860E-1	1.024021E+0	1.035262E+0	9.511565E-1	9.514186E-1	9.553236E-1	9.968415E-1	9.541377E-1	9.711459E-1	9.490237E-1	9.986514E-1	9.557029E-1	9.738840E-1	9.618636E-1	9.541222E-1	9.073429E-1	1.029817E+0	9.392905E-1	9.460277E-1	9.696753E-1	9.537488E-1	9.501600E-1	9.366747E-1	9.592850E-1	9.425087E-1	1.019317E+0	1.055697E+0	1.019305E+0	9.916029E-1	9.110476E-1	1.025513E+0	9.973313E-1	9.756501E-1	1.006267E+0	9.759430E-1	1.022778E+0	9.836056E-1	9.488592E-1	9.266392E-1	9.823751E-1	8.989989E-1	9.666613E-1	1.014941E+0	9.665826E-1	9.813653E-1	9.860174E-1	9.832927E-1	9.757684E-1	9.359002E-1	9.338014E-1	9.796901E-1	9.919284E-1	1.010781E+0	1.008783E+0	8.841010E-1	9.473356E-1	9.397164E-1	9.178841E-1	9.289931E-1	1.028443E+0	9.395704E-1	9.030178E-1	8.896663E-1	9.557069E-1	9.322923E-1	8.922633E-1	1.009638E+0	9.871064E-1	9.657769E-1	9.557915E-1	9.749547E-1	9.744034E-1	9.944418E-1	9.219784E-1	9.473274E-1	9.261811E-1	9.118926E-1	9.926719E-1	9.703321E-1	1.005309E+0	1.047586E+0	9.596235E-1	9.562664E-1	9.220201E-1	9.925525E-1	9.590193E-1	9.972696E-1	9.716002E-1	9.629408E-1	9.519280E-1	9.619081E-1	1.013725E+0	9.061970E-1	9.392116E-1	9.943134E-1	9.599804E-1	9.615368E-1	9.857601E-1	9.519012E-1	9.930378E-1	9.450051E-1	9.649207E-1	9.656257E-1	1.041015E+0
5.374220E+2	1.236471E+0	1.226363E+0	1.217793E+0	1.147794E+0	1.217165E+0	1.088916E+0	1.204849E+0	1.231707E+0	1.165342E+0	1.167321E+0	1.192836E+0	1.239119E+0	1.105543E+0	1.247672E+0	1.223327E+0	1.186759E+0	1.152335E+0	1.259140E+0	1.170103E+0	1.219916E+0	1.186202E+0	1.259204E+0	1.208956E+0	1.208804E+0	1.185136E+0	1.163313E+0	1.177694E+0	1.232634E+0	1.256707E+0	1.064111E+0	1.224937E+0	1.174962E+0	1.144046E+0	1.207254E+0	1.091339E+0	1.197000E+0	1.222093E+0	1.236824E+0	1.196173E+0	1.185974E+0	1.263662E+0	1.149008E+0	1.230661E+0	1.147274E+0	1.164768E+0	1.242109E+0	1.144467E+0	1.105956E+0	1.113006E+0	1.199113E+0	1.168242E+0	1.164893E+0	1.154006E+0	1.222049E+0	1.155190E+0	1.195780E+0	1.169007E+0	1.132184E+0	1.238873E+0	1.124050E+0	1.226370E+0	1.198030E+0	1.179753E+0	1.241754E+0	1.234763E+0	1.250977E+0	1.213929E+0	1.201277E+0	1.198611E+0	1.288034E+0	1.141378E+0	1.152895E+0	1.243228E+0	1.190963E+0	1.127152E+0	1.163280E+0	1.152436E+0	1.184825E+0	1.169642E+0	1.177944E+0	1.192868E+0	1.244702E+0	1.208470E+0	1.164532E+0	1.115449E+0	1.233677E+0	1.155957E+0	1.207018E+0	1.193598E+0	1.223993E+0	1.136212E+0	1.093269E+0	1.190853E+0	1.212681E+0	1.169602E+0	1.145949E+0	1.147596E+0	1.236032E+0	1.231339E+0	1.137541E+0	1.217497E+0	1.175134E+0	1.197830E+0	1.247384E+0	1.178486E+0	1.217973E+0	1.198981E+0	1.152589E+0	1.179593E+0	1.170096E+0	1.205629E+0	1.261560E+0	1.138310E+0	1.096926E+0	1.108231E+0	1.261826E+0	1.177081E+0	1.202313E+0	1.157092E+0	1.226147E+0	1.052157E+0	1.168969E+0	1.175722E+0	1.209533E+0	1.162289E+0	1.167785E+0	1.146825E+0	1.151442E+0	1.124707E+0	1.163687E+0	1.177845E+0	1.242313E+0	1.312055E+0	1.203465E+0	1.173676E+0	1.142614E+0	1.201194E+0	1.195075E+0	1.144853E+0	1.225108E+0	1.160933E+0	1.186673E+0	1.178423E+0	1.184948E+0	1.184428E+0	1.157728E+0	1.197520E+0	1.140512E+0	1.214767E+0	1.164986E+0	1.142754E+0	1.142712E+0	1.138593E+0	1.164439E+0	1.274339E+0	1.196414E+0	1.055409E+0	1.221392E+0	1.089191E+0	1.225272E+0	1.177239E+0	1.151825E+0	1.270916E+0	1.130650E+0	1.097080E+0	1.111086E+0
5.376110E+2	1.734000E+0	1.638464E+0	1.719596E+0	1.662289E+0	1.676088E+0	1.615210E+0	1.684286E+0	1.679934E+0	1.549516E+0	1.598429E+0	1.701646E+0	1.626692E+0	1.733780E+0	1.639532E+0	1.619172E+0	1.607291E+0	1.596881E+0	1.601780E+0	1.677278E+0	1.681124E+0	1.653463E+0	1.768332E+0	1.668206E+0	1.658555E+0	1.662913E+0	1.654033E+0	1.709675E+0	1.611256E+0	1.689006E+0	1.768252E+0	1.631462E+0	1.684841E+0	1.662443E+0	1.758994E+0	1.566339E+0	1.660809E+0	1.720219E+0	1.649341E+0	1.682522E+0	1.757088E+0	1.667244E+0	1.536282E+0	1.673183E+0	1.651562E+0	1.618142E+0	1.707159E+0	1.622912E+0	1.593999E+0	1.626934E+0	1.735227E+0	1.670108E+0	1.699703E+0	1.694570E+0	1.717755E+0	1.724157E+0	1.639129E+0	1.593861E+0	1.601990E+0	1.657470E+0	1.777930E+0	1.701879E+0	1.646645E+0	1.734793E+0	1.724915E+0	1.640204E+0	1.660907E+0	1.620552E+0	1.657090E+0	1.738515E+0	1.649451E+0	1.635265E+0	1.616007E+0	1.749652E+0	1.664909E+0	1.721109E+0	1.595718E+0	1.718923E+0	1.703239E+0	1.652844E+0	1.705647E+0	1.705255E+0	1.745445E+0	1.594877E+0	1.511157E+0	1.605263E+0	1.644956E+0	1.512186E+0	1.579430E+0	1.676674E+0	1.665023E+0	1.610922E+0	1.584137E+0	1.679944E+0	1.716372E+0	1.626507E+0	1.552017E+0	1.650943E+0	1.652743E+0	1.616139E+0	1.642502E+0	1.706665E+0	1.648354E+0	1.572410E+0	1.631583E+0	1.679746E+0	1.753034E+0	1.654921E+0	1.610224E+0	1.571977E+0	1.581298E+0	1.539891E+0	1.628939E+0	1.652922E+0	1.670860E+0	1.622420E+0	1.755869E+0	1.641804E+0	1.654567E+0	1.643775E+0	1.643500E+0	1.580088E+0	1.718361E+0	1.649681E+0	1.596554E+0	1.600280E+0	1.563904E+0	1.637209E+0	1.646201E+0	1.603062E+0	1.635084E+0	1.648330E+0	1.723356E+0	1.550976E+0	1.690142E+0	1.716855E+0	1.710154E+0	1.657590E+0	1.699150E+0	1.655668E+0	1.680810E+0	1.708754E+0	1.624151E+0	1.740873E+0	1.591773E+0	1.759625E+0	1.581366E+0	1.675961E+0	1.602017E+0	1.766711E+0	1.625820E+0	1.648505E+0	1.600625E+0	1.555975E+0	1.645043E+0	1.644913E+0	1.677198E+0	1.592420E+0	1.670589E+0	1.603695E+0	1.815150E+0	1.650446E+0	1.633468E+0	1.607512E+0	1.654823E+0	1.657476E+0	1.510195E+0
5.378110E+2	1.930247E+0	1.823165E+0	1.898798E+0	1.871622E+0	1.850839E+0	1.771740E+0	1.900230E+0	1.874584E+0	1.799085E+0	1.834246E+0	1.827284E+0	1.931839E+0	1.908425E+0	1.833770E+0	1.944233E+0	1.852602E+0	1.913310E+0	1.897926E+0	1.914268E+0	1.871887E+0	1.877740E+0	1.919565E+0	1.826269E+0	1.870339E+0	1.855042E+0	1.837580E+0	1.913241E+0	1.857961E+0	1.840385E+0	1.863528E+0	1.990913E+0	1.914982E+0	1.874269E+0	1.840978E+0	1.786156E+0	1.869309E+0	1.977305E+0	1.843810E+0	1.932685E+0	1.767903E+0	1.900499E+0	1.797777E+0	1.874808E+0	1.892496E+0	1.970574E+0	1.883946E+0	1.804868E+0	1.801959E+0	1.817292E+0	1.937248E+0	1.905177E+0	1.744286E+0	1.801767E+0	1.876537E+0	1.844637E+0	1.939532E+0	1.814545E+0	1.859869E+0	1.882186E+0	1.876257E+0	1.806850E+0	1.991549E+0	1.903040E+0	1.874979E+0	1.805249E+0	1.923185E+0	1.977834E+0	1.841434E+0	1.932591E+0	1.888957E+0	1.827048E+0	1.860762E+0	1.926538E+0	1.873130E+0	1.884203E+0	1.801194E+0	1.942499E+0	1.837413E+0	1.849536E+0	1.868365E+0	1.910462E+0	1.938353E+0	1.823389E+0	1.837561E+0	1.793849E+0	1.795560E+0	1.879551E+0	1.819720E+0	1.949202E+0	1.913581E+0	1.836458E+0	1.921194E+0	1.892199E+0	1.868785E+0	1.917525E+0	1.891012E+0	1.860428E+0	1.902547E+0	1.909839E+0	1.820603E+0	1.806590E+0	1.832963E+0	1.824389E+0	1.827196E+0	1.770505E+0	1.880638E+0	1.827286E+0	1.786445E+0	1.869539E+0	1.882902E+0	1.744505E+0	1.829256E+0	1.868521E+0	2.006088E+0	1.933151E+0	1.816034E+0	1.830173E+0	1.836868E+0	1.802219E+0	1.870061E+0	1.798347E+0	1.893056E+0	1.847150E+0	1.911089E+0	1.900393E+0	1.846721E+0	1.817179E+0	1.809972E+0	1.818905E+0	1.928102E+0	1.871848E+0	1.961869E+0	1.738675E+0	1.833940E+0	1.928976E+0	1.869696E+0	1.834841E+0	1.833695E+0	1.813464E+0	1.865813E+0	1.851122E+0	1.887054E+0	1.882703E+0	1.872883E+0	1.785201E+0	1.884465E+0	1.901117E+0	1.773493E+0	1.846338E+0	1.877814E+0	1.828433E+0	1.956423E+0	1.807643E+0	1.790028E+0	1.879038E+0	1.893857E+0	1.871210E+0	1.942260E+0	1.835020E+0	1.890282E+0	1.829484E+0	1.849175E+0	1.783273E+0	1.889564E+0	1.717231E+0	1.536982E+0
5.380110E+2	1.747663E+0	1.782699E+0	1.787732E+0	1.678969E+0	1.734957E+0	1.764179E+0	1.863039E+0	1.802612E+0	1.705267E+0	1.794154E+0	1.840048E+0	1.712993E+0	1.765639E+0	1.808475E+0	1.755244E+0	1.781177E+0	1.731747E+0	1.727640E+0	1.800625E+0	1.710463E+0	1.689631E+0	1.850368E+0	1.814263E+0	1.794922E+0	1.829309E+0	1.783283E+0	1.772452E+0	1.752743E+0	1.805220E+0	1.742121E+0	1.815215E+0	1.716294E+0	1.727624E+0	1.687535E+0	1.651692E+0	1.764358E+0	1.780691E+0	1.786239E+0	1.695425E+0	1.808947E+0	1.890099E+0	1.717228E+0	1.821437E+0	1.896787E+0	1.685190E+0	1.833376E+0	1.787371E+0	1.758557E+0	1.658557E+0	1.770329E+0	1.637575E+0	1.814438E+0	1.785009E+0	1.797562E+0	1.797322E+0	1.828571E+0	1.876042E+0	1.819826E+0	1.862313E+0	1.766142E+0	1.736935E+0	1.847269E+0	1.769090E+0	1.836052E+0	1.875278E+0	1.814003E+0	1.744881E+0	1.726327E+0	1.685694E+0	1.830184E+0	1.801673E+0	1.716693E+0	1.859659E+0	1.686927E+0	1.748465E+0	1.646987E+0	1.737665E+0	1.753984E+0	1.798758E+0	1.741674E+0	1.870570E+0	1.715398E+0	1.779757E+0	1.683841E+0	1.618431E+0	1.754909E+0	1.735039E+0	1.721365E+0	1.798791E+0	1.775308E+0	1.647629E+0	1.705315E+0	1.743301E+0	1.740776E+0	1.716197E+0	1.778343E+0	1.828818E+0	1.841440E+0	1.748097E+0	1.748996E+0	1.690897E+0	1.722758E+0	1.746454E+0	1.871974E+0	1.733241E+0	1.773060E+0	1.837971E+0	1.774700E+0	1.730727E+0	1.805171E+0	1.794038E+0	1.724770E+0	1.764882E+0	1.835639E+0	1.797233E+0	1.730541E+0	1.711892E+0	1.719577E+0	1.736915E+0	1.780635E+0	1.607741E+0	1.731894E+0	1.804270E+0	1.794171E+0	1.717687E+0	1.657234E+0	1.732137E+0	1.737709E+0	1.733951E+0	1.706929E+0	1.774296E+0	1.747927E+0	1.726505E+0	1.739554E+0	1.791230E+0	1.793033E+0	1.801592E+0	1.750946E+0	1.819369E+0	1.761895E+0	1.791371E+0	1.758823E+0	1.778734E+0	1.680656E+0	1.780959E+0	1.708771E+0	1.748685E+0	1.678780E+0	1.771586E+0	1.690903E+0	1.811226E+0	1.682922E+0	1.666423E+0	1.775915E+0	1.754353E+0	1.795797E+0	1.666744E+0	1.730946E+0	1.654629E+0	1.829493E+0	1.708495E+0	1.735140E+0	1.706368E+0	1.777638E+0	1.698492E+0	1.708397E+0
5.382110E+2	1.564553E+0	1.651131E+0	1.621093E+0	1.629595E+0	1.695871E+0	1.573949E+0	1.676401E+0	1.555710E+0	1.586332E+0	1.639315E+0	1.541235E+0	1.610253E+0	1.542879E+0	1.594863E+0	1.539056E+0	1.680585E+0	1.585731E+0	1.652101E+0	1.603665E+0	1.572463E+0	1.626948E+0	1.608750E+0	1.696277E+0	1.620608E+0	1.527575E+0	1.537493E+0	1.625819E+0	1.456485E+0	1.646048E+0	1.629364E+0	1.808685E+0	1.672101E+0	1.570851E+0	1.663791E+0	1.573421E+0	1.646004E+0	1.653556E+0	1.654648E+0	1.680763E+0	1.584254E+0	1.580834E+0	1.521227E+0	1.576339E+0	1.639775E+0	1.573393E+0	1.632790E+0	1.573284E+0	1.584489E+0	1.527495E+0	1.696056E+0	1.596010E+0	1.522274E+0	1.652707E+0	1.701942E+0	1.588055E+0	1.675427E+0	1.615755E+0	1.596875E+0	1.556113E+0	1.678903E+0	1.617883E+0	1.598610E+0	1.630151E+0	1.637456E+0	1.620683E+0	1.559491E+0	1.626592E+0	1.606627E+0	1.606833E+0	1.631109E+0	1.603871E+0	1.586380E+0	1.644925E+0	1.536842E+0	1.617518E+0	1.609653E+0	1.673489E+0	1.645272E+0	1.738486E+0	1.566678E+0	1.545075E+0	1.635676E+0	1.613220E+0	1.557823E+0	1.539853E+0	1.609782E+0	1.574620E+0	1.554880E+0	1.664182E+0	1.548983E+0	1.531666E+0	1.593069E+0	1.644135E+0	1.551856E+0	1.618450E+0	1.543694E+0	1.573599E+0	1.621298E+0	1.693700E+0	1.602110E+0	1.674588E+0	1.605593E+0	1.531653E+0	1.621581E+0	1.673905E+0	1.511840E+0	1.648663E+0	1.589170E+0	1.648473E+0	1.586634E+0	1.540353E+0	1.596535E+0	1.659369E+0	1.650003E+0	1.628057E+0	1.528561E+0	1.641839E+0	1.582235E+0	1.533455E+0	1.646824E+0	1.464546E+0	1.591722E+0	1.620255E+0	1.584387E+0	1.564457E+0	1.553950E+0	1.663969E+0	1.578844E+0	1.599675E+0	1.590669E+0	1.640097E+0	1.678124E+0	1.592982E+0	1.600857E+0	1.623140E+0	1.683877E+0	1.542329E+0	1.585037E+0	1.536939E+0	1.634421E+0	1.645193E+0	1.659889E+0	1.462567E+0	1.568851E+0	1.471466E+0	1.571755E+0	1.661433E+0	1.561768E+0	1.635802E+0	1.576934E+0	1.664409E+0	1.553750E+0	1.535895E+0	1.539229E+0	1.612676E+0	1.719365E+0	1.552708E+0	1.678067E+0	1.583290E+0	1.642305E+0	1.541677E+0	1.630536E+0	1.543384E+0	1.610732E+0	1.589883E+0	1.359557E+0
5.384110E+2	1.734752E+0	1.648915E+0	1.848659E+0	1.684540E+0	1.823489E+0	1.679130E+0	1.729040E+0	1.656552E+0	1.629623E+0	1.748954E+0	1.730050E+0	1.736764E+0	1.704818E+0	1.684993E+0	1.749947E+0	1.747111E+0	1.719618E+0	1.735304E+0	1.763146E+0	1.692615E+0	1.695231E+0	1.740842E+0	1.693928E+0	1.760639E+0	1.685116E+0	1.685667E+0	1.730560E+0	1.645825E+0	1.771444E+0	1.646469E+0	1.754679E+0	1.711123E+0	1.767806E+0	1.683468E+0	1.683185E+0	1.754729E+0	1.683307E+0	1.724519E+0	1.669276E+0	1.678014E+0	1.691558E+0	1.645824E+0	1.714300E+0	1.779419E+0	1.719366E+0	1.782930E+0	1.721768E+0	1.683955E+0	1.655074E+0	1.722363E+0	1.639045E+0	1.697914E+0	1.620696E+0	1.681106E+0	1.701049E+0	1.621972E+0	1.703832E+0	1.773501E+0	1.730358E+0	1.810138E+0	1.700855E+0	1.719751E+0	1.798207E+0	1.752778E+0	1.663959E+0	1.744811E+0	1.720807E+0	1.797685E+0	1.655001E+0	1.698138E+0	1.661300E+0	1.632723E+0	1.699663E+0	1.644769E+0	1.703102E+0	1.656323E+0	1.764390E+0	1.658355E+0	1.749403E+0	1.661155E+0	1.745597E+0	1.663583E+0	1.684723E+0	1.713588E+0	1.643080E+0	1.674122E+0	1.683429E+0	1.663834E+0	1.710003E+0	1.665966E+0	1.638245E+0	1.657675E+0	1.792285E+0	1.723152E+0	1.694186E+0	1.734693E+0	1.830831E+0	1.742600E+0	1.648854E+0	1.679349E+0	1.658860E+0	1.664154E+0	1.687251E+0	1.731745E+0	1.670835E+0	1.641658E+0	1.617185E+0	1.725993E+0	1.744208E+0	1.642812E+0	1.654143E+0	1.693514E+0	1.704363E+0	1.698262E+0	1.633467E+0	1.659787E+0	1.663469E+0	1.677657E+0	1.734781E+0	1.766050E+0	1.626750E+0	1.620970E+0	1.666507E+0	1.651806E+0	1.591936E+0	1.569952E+0	1.731940E+0	1.702086E+0	1.653592E+0	1.635207E+0	1.766558E+0	1.657463E+0	1.660580E+0	1.736993E+0	1.754564E+0	1.694896E+0	1.661962E+0	1.608444E+0	1.689594E+0	1.756485E+0	1.820263E+0	1.697926E+0	1.709809E+0	1.669226E+0	1.675465E+0	1.621385E+0	1.633602E+0	1.653871E+0	1.660214E+0	1.722199E+0	1.674809E+0	1.563338E+0	1.591651E+0	1.652239E+0	1.775278E+0	1.647944E+0	1.632030E+0	1.682755E+0	1.616684E+0	1.739845E+0	1.653305E+0	1.617583E+0	1.736260E+0	1.714661E+0	1.605843E+0	1.293415E+0
5.386120E+2	2.033747E+0	2.057854E+0	2.047609E+0	2.008116E+0	1.948246E+0	2.047532E+0	2.062122E+0	2.032576E+0	1.931287E+0	2.069792E+0	1.983216E+0	2.032462E+0	1.973892E+0	2.062502E+0	2.025066E+0	2.071024E+0	2.015467E+0	1.968533E+0	2.039746E+0	1.969404E+0	1.915066E+0	1.965068E+0	2.034306E+0	2.014302E+0	1.933020E+0	1.930085E+0	2.056532E+0	2.022656E+0	2.023351E+0	2.076467E+0	2.035110E+0	2.079545E+0	1.967953E+0	1.867869E+0	2.068776E+0	1.989756E+0	2.136535E+0	1.973148E+0	2.009568E+0	2.055218E+0	2.092239E+0	1.929479E+0	2.062039E+0	2.027323E+0	2.033694E+0	2.070686E+0	1.960565E+0	2.060064E+0	1.925147E+0	1.983756E+0	1.961748E+0	1.962342E+0	2.034167E+0	2.028387E+0	2.035797E+0	2.017658E+0	2.013919E+0	2.026082E+0	2.075440E+0	1.962212E+0	2.069624E+0	2.051585E+0	2.164170E+0	1.945253E+0	1.981810E+0	2.027058E+0	1.989379E+0	1.959657E+0	2.044685E+0	2.041899E+0	1.972094E+0	1.949966E+0	2.056874E+0	1.932017E+0	2.029442E+0	1.932150E+0	2.070450E+0	1.960798E+0	2.100392E+0	1.967725E+0	2.008140E+0	1.997933E+0	1.967533E+0	1.910764E+0	1.976783E+0	2.023996E+0	1.994684E+0	2.013367E+0	2.082984E+0	1.997113E+0	2.007341E+0	1.975218E+0	1.995823E+0	2.017915E+0	2.047369E+0	2.092902E+0	2.013783E+0	1.976959E+0	2.052720E+0	1.935663E+0	1.984388E+0	2.087244E+0	1.910398E+0	2.030929E+0	2.066499E+0	1.988653E+0	1.917877E+0	1.993720E+0	2.012589E+0	2.085592E+0	1.921452E+0	1.903416E+0	1.978872E+0	1.981341E+0	1.942086E+0	2.029443E+0	2.090516E+0	1.955276E+0	2.081185E+0	1.915152E+0	1.930357E+0	1.972571E+0	2.119090E+0	2.029279E+0	2.002699E+0	1.907923E+0	2.030110E+0	1.954783E+0	2.000903E+0	1.950863E+0	2.166667E+0	1.974243E+0	2.006926E+0	1.983184E+0	2.061232E+0	1.944373E+0	1.990502E+0	1.973704E+0	2.064991E+0	2.008123E+0	2.027778E+0	2.018010E+0	2.047440E+0	1.879862E+0	1.994629E+0	1.983860E+0	2.026438E+0	1.987698E+0	1.987584E+0	1.935552E+0	1.961829E+0	1.875092E+0	1.929417E+0	1.958088E+0	1.922262E+0	2.080095E+0	1.844380E+0	1.954103E+0	1.900716E+0	1.947339E+0	2.069871E+0	1.964359E+0	2.007200E+0	2.015356E+0	1.872800E+0	1.838462E+0
5.388180E+2	2.347092E+0	2.398358E+0	2.382108E+0	2.322987E+0	2.435541E+0	2.326873E+0	2.523154E+0	2.463155E+0	2.367007E+0	2.352082E+0	2.452582E+0	2.398655E+0	2.426436E+0	2.417396E+0	2.381865E+0	2.344582E+0	2.481199E+0	2.357058E+0	2.459874E+0	2.341565E+0	2.415392E+0	2.425309E+0	2.347573E+0	2.443017E+0	2.385169E+0	2.369474E+0	2.383867E+0	2.387016E+0	2.393533E+0	2.338228E+0	2.419054E+0	2.326755E+0	2.380676E+0	2.359693E+0	2.245217E+0	2.510133E+0	2.439750E+0	2.467034E+0	2.448385E+0	2.383989E+0	2.536307E+0	2.267217E+0	2.399402E+0	2.458118E+0	2.271626E+0	2.492633E+0	2.392296E+0	2.462855E+0	2.316865E+0	2.380520E+0	2.393236E+0	2.281741E+0	2.401926E+0	2.480844E+0	2.362533E+0	2.406766E+0	2.357617E+0	2.362195E+0	2.322329E+0	2.351940E+0	2.328895E+0	2.347717E+0	2.469699E+0	2.412236E+0	2.396852E+0	2.408564E+0	2.437228E+0	2.380823E+0	2.374786E+0	2.364509E+0	2.388493E+0	2.348761E+0	2.490518E+0	2.334556E+0	2.461500E+0	2.371881E+0	2.326170E+0	2.351364E+0	2.354560E+0	2.271604E+0	2.464424E+0	2.344978E+0	2.400467E+0	2.342969E+0	2.277142E+0	2.390527E+0	2.291965E+0	2.339973E+0	2.480495E+0	2.349761E+0	2.332593E+0	2.315462E+0	2.311897E+0	2.442623E+0	2.477248E+0	2.285590E+0	2.414175E+0	2.450978E+0	2.426627E+0	2.318034E+0	2.397929E+0	2.295603E+0	2.269101E+0	2.356060E+0	2.407368E+0	2.308626E+0	2.398301E+0	2.378194E+0	2.221625E+0	2.302439E+0	2.400835E+0	2.426701E+0	2.373685E+0	2.391328E+0	2.347733E+0	2.431636E+0	2.380133E+0	2.354961E+0	2.369737E+0	2.345129E+0	2.136717E+0	2.352693E+0	2.324947E+0	2.396068E+0	2.348276E+0	2.327165E+0	2.375450E+0	2.310391E+0	2.369124E+0	2.277926E+0	2.421126E+0	2.451500E+0	2.354920E+0	2.280707E+0	2.516248E+0	2.290261E+0	2.342751E+0	2.406773E+0	2.451493E+0	2.344645E+0	2.406388E+0	2.278631E+0	2.463882E+0	2.372150E+0	2.274129E+0	2.347051E+0	2.453593E+0	2.275552E+0	2.423938E+0	2.318283E+0	2.361460E+0	2.379973E+0	2.326743E+0	2.384177E+0	2.303631E+0	2.344306E+0	2.230031E+0	2.364865E+0	2.387866E+0	2.398846E+0	2.358900E+0	2.344613E+0	2.376570E+0	2.357805E+0	2.520967E+0	2.310875E+0
5.390080E+2	1.973719E+0	2.007869E+0	2.049435E+0	1.882605E+0	2.027291E+0	1.865299E+0	2.067336E+0	1.981555E+0	1.909482E+0	2.000458E+0	2.074414E+0	2.013469E+0	1.966861E+0	2.031499E+0	2.015843E+0	1.979761E+0	2.057483E+0	2.007416E+0	2.065273E+0	2.058857E+0	1.992204E+0	2.080007E+0	2.040535E+0	2.067665E+0	2.041980E+0	1.985592E+0	2.066254E+0	1.988673E+0	1.892627E+0	1.974593E+0	2.010727E+0	1.956151E+0	1.946426E+0	2.019290E+0	1.969361E+0	1.919243E+0	2.018257E+0	2.026730E+0	2.028440E+0	1.939719E+0	2.060672E+0	1.860641E+0	2.087229E+0	1.967181E+0	1.994913E+0	1.938366E+0	1.991247E+0	1.979208E+0	2.019618E+0	1.975332E+0	1.961963E+0	1.974635E+0	1.916805E+0	2.005787E+0	1.886117E+0	2.012537E+0	1.945289E+0	1.976245E+0	2.053678E+0	1.861295E+0	1.863325E+0	1.972635E+0	2.035535E+0	1.931766E+0	2.037815E+0	1.991396E+0	1.941204E+0	1.997041E+0	2.013424E+0	1.972963E+0	1.943792E+0	1.997578E+0	1.984633E+0	2.008571E+0	1.971691E+0	1.994802E+0	1.908364E+0	1.977467E+0	2.036444E+0	1.988777E+0	2.020081E+0	1.988593E+0	1.998072E+0	2.006113E+0	1.833039E+0	1.914176E+0	1.937000E+0	1.993590E+0	2.010385E+0	2.024122E+0	1.986807E+0	2.000398E+0	1.940333E+0	1.923409E+0	1.914058E+0	1.872412E+0	1.920984E+0	2.080215E+0	1.937062E+0	1.923350E+0	1.955811E+0	1.931126E+0	1.953770E+0	1.955276E+0	2.002883E+0	1.878173E+0	1.992988E+0	1.979540E+0	1.946579E+0	1.879890E+0	1.996365E+0	2.004101E+0	2.009064E+0	1.931883E+0	2.036397E+0	2.012600E+0	1.888883E+0	1.956670E+0	1.921985E+0	1.974141E+0	1.838353E+0	1.965701E+0	2.042539E+0	1.901561E+0	1.974926E+0	1.813867E+0	2.032143E+0	2.018401E+0	1.971141E+0	1.919300E+0	2.012798E+0	2.018730E+0	1.890322E+0	1.973380E+0	2.073708E+0	1.937454E+0	1.953953E+0	1.993458E+0	1.995385E+0	2.066364E+0	1.966011E+0	1.955367E+0	1.965781E+0	1.861423E+0	1.893256E+0	1.924911E+0	1.919859E+0	1.959022E+0	1.999039E+0	1.882503E+0	1.932716E+0	1.935738E+0	1.994403E+0	2.035627E+0	1.921781E+0	1.964942E+0	1.807691E+0	1.925260E+0	1.923964E+0	1.986112E+0	1.914798E+0	1.905358E+0	1.988818E+0	2.026184E+0	1.861062E+0	1.800030E+0
5.392030E+2	1.509306E+0	1.659622E+0	1.563807E+0	1.612652E+0	1.563582E+0	1.493220E+0	1.561486E+0	1.525901E+0	1.567619E+0	1.586694E+0	1.552179E+0	1.593878E+0	1.511298E+0	1.543624E+0	1.540052E+0	1.531464E+0	1.500282E+0	1.497481E+0	1.588076E+0	1.592226E+0	1.497844E+0	1.554367E+0	1.586711E+0	1.574845E+0	1.541139E+0	1.430657E+0	1.577420E+0	1.533165E+0	1.562773E+0	1.610050E+0	1.614859E+0	1.591353E+0	1.471780E+0	1.518886E+0	1.466778E+0	1.643473E+0	1.614423E+0	1.513316E+0	1.561597E+0	1.604619E+0	1.555707E+0	1.548777E+0	1.623832E+0	1.530070E+0	1.560149E+0	1.526859E+0	1.610605E+0	1.510392E+0	1.628063E+0	1.640203E+0	1.503080E+0	1.532793E+0	1.552359E+0	1.586796E+0	1.611845E+0	1.543803E+0	1.607258E+0	1.537587E+0	1.574617E+0	1.613523E+0	1.512364E+0	1.584843E+0	1.567278E+0	1.527170E+0	1.543674E+0	1.576895E+0	1.713902E+0	1.635720E+0	1.572807E+0	1.534993E+0	1.498894E+0	1.490607E+0	1.608825E+0	1.494297E+0	1.545897E+0	1.488426E+0	1.525527E+0	1.567245E+0	1.553855E+0	1.586820E+0	1.551222E+0	1.547092E+0	1.550127E+0	1.478947E+0	1.584618E+0	1.503764E+0	1.508837E+0	1.573641E+0	1.595970E+0	1.534805E+0	1.685420E+0	1.430513E+0	1.556775E+0	1.585708E+0	1.616432E+0	1.533617E+0	1.646112E+0	1.537113E+0	1.570037E+0	1.587405E+0	1.598448E+0	1.565674E+0	1.449523E+0	1.609106E+0	1.633402E+0	1.506424E+0	1.617357E+0	1.515142E+0	1.528688E+0	1.503059E+0	1.540777E+0	1.525943E+0	1.460774E+0	1.611642E+0	1.616067E+0	1.639074E+0	1.550155E+0	1.515498E+0	1.562879E+0	1.562651E+0	1.391586E+0	1.584305E+0	1.535400E+0	1.537294E+0	1.579525E+0	1.501212E+0	1.580989E+0	1.562572E+0	1.550724E+0	1.555411E+0	1.612148E+0	1.614076E+0	1.538274E+0	1.511197E+0	1.641219E+0	1.556366E+0	1.652919E+0	1.553605E+0	1.566028E+0	1.651185E+0	1.572108E+0	1.436856E+0	1.632320E+0	1.464233E+0	1.556678E+0	1.487204E+0	1.600475E+0	1.529753E+0	1.651967E+0	1.438979E+0	1.569385E+0	1.546231E+0	1.552519E+0	1.578412E+0	1.511351E+0	1.573987E+0	1.492194E+0	1.680066E+0	1.473846E+0	1.564066E+0	1.488690E+0	1.552797E+0	1.617223E+0	1.457107E+0	1.424620E+0	1.449755E+0
5.394100E+2	1.112967E+0	1.118436E+0	1.146227E+0	1.060776E+0	1.143118E+0	1.085837E+0	1.148580E+0	1.065310E+0	1.042076E+0	1.105107E+0	1.186593E+0	1.152476E+0	1.127654E+0	1.124835E+0	1.087598E+0	1.135190E+0	1.074736E+0	1.076862E+0	1.093332E+0	1.102895E+0	1.055120E+0	1.116535E+0	1.150823E+0	1.125065E+0	1.177070E+0	1.111998E+0	1.111598E+0	1.044553E+0	1.089521E+0	1.090163E+0	1.172836E+0	1.124301E+0	1.115177E+0	1.105427E+0	1.080997E+0	1.101470E+0	1.170687E+0	1.092987E+0	1.082120E+0	1.155902E+0	1.133314E+0	1.057141E+0	1.120125E+0	1.140174E+0	1.139219E+0	1.020839E+0	1.177837E+0	1.106540E+0	1.105208E+0	1.131130E+0	1.081608E+0	1.111597E+0	1.133886E+0	1.119020E+0	1.089429E+0	1.057880E+0	1.087055E+0	1.109704E+0	1.139324E+0	1.119663E+0	1.031046E+0	1.154508E+0	1.086203E+0	1.138014E+0	1.064687E+0	1.096477E+0	1.124980E+0	1.132666E+0	1.068648E+0	1.050791E+0	1.085148E+0	1.119870E+0	1.135775E+0	1.046265E+0	1.126957E+0	1.036127E+0	1.103189E+0	1.068378E+0	1.098675E+0	1.057676E+0	1.075837E+0	1.054127E+0	1.083313E+0	1.109404E+0	1.062221E+0	1.065511E+0	1.030724E+0	1.092385E+0	1.115040E+0	1.139319E+0	1.102323E+0	1.079541E+0	1.065450E+0	1.115525E+0	1.081792E+0	1.001283E+0	1.120027E+0	1.133698E+0	1.243933E+0	1.084504E+0	1.094082E+0	1.029179E+0	1.057807E+0	1.139024E+0	1.127678E+0	1.081281E+0	1.167923E+0	1.064499E+0	1.072590E+0	1.048626E+0	1.126503E+0	1.125631E+0	1.092398E+0	1.066000E+0	1.076789E+0	1.103965E+0	1.099211E+0	1.050111E+0	1.176154E+0	1.175837E+0	1.048478E+0	1.009605E+0	1.108606E+0	1.097252E+0	1.068891E+0	1.076810E+0	1.070409E+0	1.040395E+0	1.068879E+0	1.117092E+0	1.118725E+0	1.058165E+0	1.166963E+0	1.082652E+0	1.119198E+0	1.099184E+0	1.099662E+0	1.064880E+0	1.102742E+0	1.141971E+0	1.053844E+0	1.143751E+0	1.077008E+0	1.101163E+0	1.083659E+0	1.061522E+0	1.188869E+0	1.016661E+0	1.169553E+0	1.075132E+0	1.107475E+0	1.113523E+0	1.056046E+0	1.118770E+0	1.065326E+0	1.096952E+0	1.116421E+0	1.073042E+0	1.052998E+0	1.079998E+0	1.129507E+0	1.070250E+0	1.101559E+0	1.165622E+0	1.029098E+0	9.763888E-1
5.396110E+2	9.677905E-1	1.008001E+0	9.957023E-1	9.737090E-1	9.388196E-1	9.743559E-1	1.022029E+0	9.528146E-1	9.794781E-1	9.704827E-1	1.012777E+0	9.650931E-1	9.898537E-1	9.917757E-1	9.768651E-1	1.046297E+0	9.685583E-1	9.799813E-1	1.041467E+0	1.046354E+0	1.007255E+0	1.007696E+0	9.376504E-1	9.158319E-1	9.997486E-1	9.588006E-1	9.893586E-1	9.892991E-1	9.797000E-1	9.835696E-1	1.025324E+0	9.534338E-1	9.888716E-1	1.080744E+0	1.006021E+0	1.000734E+0	1.038320E+0	9.963281E-1	9.463993E-1	1.021165E+0	1.019389E+0	9.907213E-1	9.240106E-1	9.749851E-1	9.378178E-1	1.026376E+0	9.377764E-1	9.965562E-1	9.559615E-1	1.031777E+0	9.958725E-1	9.741976E-1	9.605454E-1	1.084864E+0	9.255274E-1	1.023870E+0	9.674186E-1	9.880293E-1	1.024154E+0	9.866215E-1	9.725612E-1	9.642732E-1	9.886088E-1	1.030042E+0	9.970421E-1	9.901048E-1	9.885044E-1	9.956905E-1	1.042778E+0	1.032469E+0	9.436535E-1	1.087894E+0	9.823782E-1	9.643903E-1	9.577634E-1	9.509446E-1	9.869898E-1	9.636600E-1	9.772336E-1	9.620089E-1	9.876482E-1	9.106054E-1	9.769954E-1	9.250483E-1	9.159107E-1	9.849576E-1	9.824942E-1	1.055668E+0	9.719109E-1	9.491403E-1	9.665911E-1	9.962857E-1	1.019947E+0	1.015144E+0	9.616314E-1	9.737109E-1	1.019714E+0	1.017855E+0	9.161306E-1	1.014311E+0	9.638655E-1	1.006157E+0	1.004550E+0	9.882018E-1	1.014002E+0	9.815362E-1	1.040621E+0	9.905644E-1	9.501129E-1	9.631120E-1	9.958106E-1	9.741124E-1	9.534900E-1	9.143031E-1	9.152894E-1	1.011860E+0	9.377673E-1	1.015596E+0	9.579821E-1	1.047627E+0	9.410346E-1	1.000178E+0	1.017530E+0	1.023229E+0	9.446539E-1	9.639552E-1	9.766007E-1	9.980431E-1	9.758179E-1	9.648265E-1	1.005867E+0	9.761029E-1	9.758703E-1	9.915065E-1	9.553486E-1	9.637727E-1	9.321649E-1	1.016191E+0	9.888338E-1	1.060993E+0	1.025049E+0	9.961679E-1	1.009985E+0	1.017473E+0	9.975595E-1	8.733385E-1	9.226861E-1	9.318700E-1	1.045499E+0	1.008057E+0	1.075000E+0	1.028057E+0	9.714206E-1	9.852353E-1	1.038428E+0	9.950093E-1	9.859878E-1	9.662447E-1	9.616477E-1	9.810185E-1	9.947754E-1	9.951462E-1	1.064711E+0	9.646701E-1	9.762058E-1	7.438769E-1
5.398120E+2	1.047795E+0	1.063090E+0	1.048909E+0	1.034429E+0	1.101561E+0	1.056893E+0	1.018157E+0	1.073350E+0	1.026257E+0	1.112536E+0	9.620677E-1	1.083244E+0	1.007300E+0	1.038666E+0	9.962447E-1	1.072747E+0	1.096341E+0	9.902631E-1	1.085895E+0	1.050268E+0	1.020549E+0	1.084082E+0	1.023573E+0	1.053515E+0	1.066167E+0	1.047884E+0	1.038358E+0	1.011132E+0	1.036241E+0	9.353985E-1	1.014021E+0	1.011764E+0	1.011441E+0	9.746770E-1	1.020195E+0	1.016106E+0	1.002255E+0	1.054628E+0	1.079276E+0	1.115916E+0	1.079659E+0	1.011696E+0	1.101110E+0	1.065016E+0	9.927815E-1	1.051189E+0	1.014738E+0	1.136106E+0	1.022677E+0	1.062739E+0	1.008458E+0	1.056149E+0	1.046546E+0	1.015676E+0	9.758379E-1	1.052635E+0	1.107405E+0	1.039119E+0	1.107517E+0	1.020937E+0	1.045766E+0	1.095831E+0	1.133465E+0	1.124823E+0	1.029915E+0	1.026914E+0	1.062568E+0	1.045005E+0	1.045944E+0	9.649561E-1	9.987308E-1	1.067120E+0	1.096935E+0	1.004484E+0	9.780029E-1	1.020744E+0	1.008427E+0	1.080941E+0	9.984273E-1	9.938560E-1	1.072474E+0	1.054122E+0	9.861878E-1	9.838009E-1	9.729778E-1	1.059993E+0	1.045030E+0	1.001211E+0	9.900402E-1	1.069065E+0	9.932133E-1	9.759495E-1	1.001943E+0	1.074381E+0	1.032545E+0	1.067562E+0	1.057176E+0	1.080808E+0	1.023635E+0	9.792035E-1	1.002601E+0	1.022221E+0	9.729991E-1	1.012055E+0	9.767949E-1	9.738089E-1	1.073564E+0	1.046376E+0	9.906917E-1	1.018794E+0	1.002375E+0	9.755415E-1	1.037087E+0	1.154153E+0	1.162596E+0	1.057609E+0	1.046170E+0	1.046736E+0	1.110800E+0	1.042259E+0	9.849344E-1	1.071642E+0	1.104377E+0	9.794620E-1	9.948851E-1	1.035584E+0	1.077141E+0	1.064950E+0	9.519761E-1	1.012265E+0	1.100946E+0	1.071698E+0	1.089314E+0	1.039165E+0	1.095450E+0	1.038264E+0	1.023091E+0	1.025201E+0	1.092870E+0	1.086473E+0	1.043267E+0	1.063392E+0	1.064876E+0	1.086409E+0	1.011275E+0	9.388084E-1	1.066826E+0	9.688603E-1	1.119475E+0	1.041358E+0	1.097252E+0	1.011040E+0	1.051379E+0	1.028377E+0	1.121704E+0	1.063825E+0	9.902097E-1	1.074824E+0	1.011416E+0	1.117276E+0	1.007288E+0	1.033747E+0	1.080694E+0	9.286116E-1	1.019307E+0	1.112168E+0
5.400460E+2	1.154183E+0	1.071886E+0	1.129239E+0	1.142414E+0	1.086669E+0	1.043024E+0	1.153094E+0	1.113235E+0	1.136601E+0	1.175977E+0	1.089062E+0	1.121484E+0	1.129628E+0	1.118777E+0	1.161060E+0	1.177009E+0	1.107982E+0	1.132203E+0	1.152689E+0	1.226489E+0	1.122714E+0	1.104205E+0	1.103827E+0	1.153650E+0	1.170005E+0	1.177751E+0	1.149660E+0	1.120542E+0	1.160096E+0	1.069982E+0	1.161309E+0	1.140164E+0	1.189335E+0	1.176382E+0	1.044417E+0	1.090258E+0	1.096019E+0	1.113989E+0	1.154690E+0	1.069642E+0	1.139799E+0	1.052907E+0	1.070222E+0	1.104671E+0	1.065713E+0	1.103264E+0	1.124388E+0	1.128561E+0	1.133170E+0	1.151632E+0	1.052896E+0	1.076898E+0	1.072693E+0	1.114471E+0	1.101663E+0	1.173125E+0	1.125280E+0	1.135728E+0	1.131952E+0	1.165968E+0	1.109080E+0	1.132975E+0	1.042595E+0	1.160335E+0	1.186078E+0	1.140620E+0	1.106398E+0	1.127552E+0	1.155309E+0	1.166280E+0	1.063650E+0	1.076339E+0	1.154255E+0	1.112559E+0	1.149299E+0	1.168256E+0	1.121086E+0	1.103754E+0	1.181540E+0	1.073852E+0	1.125159E+0	1.125592E+0	1.127037E+0	1.079953E+0	1.112057E+0	1.111445E+0	1.083232E+0	1.086175E+0	1.179553E+0	1.129830E+0	1.111760E+0	1.046306E+0	1.104080E+0	1.125145E+0	1.104834E+0	1.106355E+0	1.128126E+0	1.127863E+0	1.088657E+0	1.077686E+0	1.162150E+0	1.088307E+0	1.137573E+0	1.149048E+0	1.160359E+0	1.118545E+0	1.125388E+0	1.113870E+0	1.182897E+0	1.165700E+0	1.075187E+0	1.208797E+0	1.072962E+0	1.083000E+0	1.065303E+0	1.152616E+0	1.083076E+0	1.108923E+0	1.165141E+0	1.092977E+0	1.095079E+0	1.187164E+0	1.142663E+0	1.119019E+0	1.132002E+0	1.094364E+0	1.131733E+0	1.109458E+0	1.064785E+0	1.109763E+0	1.147295E+0	1.050256E+0	1.042237E+0	1.136003E+0	1.202586E+0	1.178490E+0	1.090449E+0	1.154405E+0	1.097887E+0	1.185159E+0	1.138033E+0	1.114542E+0	1.146445E+0	1.104853E+0	1.088693E+0	1.062862E+0	1.155106E+0	1.059670E+0	1.126895E+0	1.118730E+0	1.158713E+0	1.080449E+0	1.003259E+0	1.106743E+0	1.156907E+0	1.145576E+0	1.084541E+0	1.092882E+0	1.095091E+0	1.103761E+0	1.174523E+0	1.185377E+0	1.136268E+0	1.118742E+0	1.147385E+0	1.074394E+0
5.402160E+2	8.037217E-1	8.683625E-1	8.082638E-1	7.305631E-1	8.069120E-1	8.318229E-1	8.937778E-1	8.259103E-1	8.081730E-1	7.365419E-1	8.534708E-1	8.511986E-1	7.707723E-1	8.078557E-1	8.395202E-1	8.176500E-1	8.229569E-1	8.363648E-1	8.095593E-1	8.918745E-1	8.330436E-1	8.877531E-1	7.793528E-1	8.204299E-1	8.113226E-1	8.594704E-1	8.583607E-1	7.433235E-1	8.421165E-1	8.145544E-1	8.327408E-1	8.376149E-1	8.752826E-1	8.345251E-1	8.002518E-1	7.723129E-1	8.273339E-1	7.666235E-1	8.005974E-1	8.637914E-1	8.359558E-1	7.571525E-1	8.295660E-1	8.144495E-1	8.387202E-1	8.333961E-1	7.853088E-1	7.987692E-1	7.890011E-1	7.791784E-1	7.985407E-1	8.705442E-1	8.504617E-1	8.429543E-1	8.385898E-1	9.007673E-1	8.650591E-1	8.319391E-1	8.272705E-1	8.743778E-1	8.332049E-1	8.461419E-1	8.049094E-1	8.794823E-1	7.792858E-1	8.227430E-1	7.695630E-1	8.385383E-1	7.851062E-1	7.567763E-1	8.289817E-1	9.076703E-1	8.310762E-1	8.533685E-1	7.819890E-1	7.834595E-1	8.318229E-1	8.179617E-1	8.316251E-1	7.840985E-1	8.565365E-1	8.209327E-1	8.171844E-1	7.623366E-1	7.680718E-1	8.075165E-1	8.145076E-1	8.278697E-1	8.569520E-1	8.266795E-1	7.772384E-1	8.166684E-1	8.356540E-1	7.879428E-1	8.166710E-1	8.662290E-1	8.580380E-1	7.723067E-1	8.052017E-1	7.872097E-1	7.843178E-1	7.645284E-1	7.646237E-1	8.312908E-1	8.100539E-1	8.294271E-1	8.656850E-1	8.565078E-1	7.752058E-1	8.570571E-1	7.744752E-1	8.705667E-1	7.905610E-1	8.672341E-1	8.367839E-1	8.142201E-1	7.551589E-1	8.066814E-1	7.930439E-1	8.343292E-1	7.447340E-1	7.936440E-1	8.934836E-1	7.868650E-1	7.523805E-1	8.070483E-1	7.911159E-1	8.632816E-1	8.210245E-1	8.432429E-1	7.658742E-1	8.578743E-1	8.619210E-1	7.988523E-1	8.049739E-1	8.607559E-1	8.031690E-1	7.393338E-1	8.522524E-1	8.139064E-1	7.639062E-1	8.180551E-1	8.260322E-1	8.410046E-1	7.988682E-1	8.266165E-1	7.865607E-1	7.384051E-1	9.059410E-1	8.263131E-1	8.422462E-1	7.514930E-1	7.838966E-1	7.842708E-1	8.776192E-1	8.715696E-1	7.813696E-1	7.784720E-1	8.244528E-1	8.742171E-1	8.278642E-1	8.060666E-1	8.529935E-1	8.067809E-1	8.701459E-1	7.312961E-1
5.404070E+2	5.415808E-1	6.532341E-1	6.034729E-1	5.909886E-1	5.749335E-1	5.973458E-1	6.464597E-1	6.028003E-1	5.467382E-1	5.855453E-1	5.912302E-1	6.291456E-1	6.329004E-1	5.719549E-1	5.101524E-1	5.445845E-1	6.079915E-1	5.716319E-1	5.623548E-1	6.244726E-1	5.619354E-1	5.874715E-1	5.528822E-1	5.633685E-1	5.593095E-1	5.751102E-1	6.039810E-1	5.792938E-1	5.684210E-1	6.259248E-1	5.759497E-1	5.841382E-1	5.918671E-1	5.651403E-1	5.631039E-1	5.846717E-1	5.305635E-1	5.734858E-1	6.436001E-1	6.142499E-1	6.396582E-1	5.596270E-1	5.714313E-1	5.149763E-1	5.558795E-1	5.699823E-1	6.310135E-1	6.181347E-1	5.508483E-1	5.918581E-1	5.824035E-1	5.886114E-1	5.410631E-1	6.005454E-1	5.685821E-1	6.101071E-1	5.980018E-1	6.334316E-1	6.150646E-1	6.001099E-1	5.771194E-1	6.131150E-1	5.691925E-1	6.024316E-1	5.601378E-1	5.918997E-1	5.553080E-1	6.172096E-1	5.877423E-1	6.136872E-1	5.347691E-1	6.016778E-1	6.354918E-1	5.480637E-1	5.721731E-1	6.037864E-1	5.546663E-1	5.905178E-1	5.780565E-1	5.846293E-1	5.766514E-1	6.028289E-1	6.025025E-1	5.240419E-1	6.072708E-1	5.775685E-1	5.367690E-1	5.862763E-1	6.057801E-1	6.026380E-1	5.862727E-1	5.827384E-1	6.680629E-1	5.414020E-1	6.085886E-1	5.481487E-1	6.215346E-1	5.893621E-1	5.655095E-1	5.866941E-1	5.786739E-1	5.705340E-1	5.230993E-1	5.663571E-1	5.786409E-1	5.766477E-1	6.242355E-1	6.230595E-1	5.200551E-1	6.104206E-1	5.540044E-1	6.058265E-1	5.804202E-1	6.012350E-1	5.523426E-1	5.958151E-1	5.741643E-1	5.551699E-1	5.847362E-1	6.550174E-1	5.539931E-1	6.495619E-1	6.066299E-1	6.004582E-1	5.944973E-1	5.514996E-1	5.674400E-1	6.020772E-1	6.058677E-1	6.329923E-1	6.717737E-1	6.174581E-1	4.918978E-1	5.767961E-1	6.036261E-1	5.683332E-1	6.194699E-1	5.829576E-1	5.976301E-1	6.329829E-1	5.997638E-1	5.823352E-1	6.351827E-1	6.150175E-1	5.875421E-1	4.762334E-1	5.831755E-1	5.671964E-1	5.290942E-1	5.030625E-1	6.057991E-1	5.839792E-1	5.339561E-1	6.011859E-1	6.540321E-1	5.874902E-1	6.004916E-1	5.752114E-1	6.101910E-1	5.652436E-1	5.972406E-1	5.952770E-1	5.998903E-1	7.227761E-1	5.612178E-1	4.660726E-1
5.406030E+2	3.667222E-1	3.865128E-1	4.141556E-1	3.507293E-1	4.173862E-1	4.002479E-1	4.056819E-1	3.671143E-1	4.007374E-1	4.215385E-1	4.156423E-1	4.007879E-1	3.623270E-1	3.285846E-1	3.496769E-1	3.890839E-1	3.744871E-1	3.808855E-1	4.260733E-1	3.883263E-1	3.956698E-1	4.048759E-1	3.352539E-1	3.669688E-1	4.001665E-1	3.851533E-1	4.170300E-1	3.745110E-1	3.816856E-1	4.009095E-1	3.963023E-1	4.173499E-1	3.725252E-1	3.521324E-1	4.010280E-1	4.389246E-1	3.786592E-1	4.158503E-1	3.743237E-1	4.178507E-1	4.197373E-1	3.717497E-1	3.676041E-1	3.957624E-1	3.995434E-1	3.781529E-1	3.785659E-1	4.264618E-1	3.747323E-1	3.788188E-1	3.671643E-1	4.101326E-1	4.098568E-1	3.992296E-1	3.790580E-1	3.660610E-1	3.678350E-1	4.462782E-1	4.635973E-1	3.907266E-1	3.835641E-1	4.146358E-1	4.000703E-1	3.838524E-1	3.830488E-1	4.172419E-1	3.971304E-1	4.024100E-1	4.109220E-1	3.837867E-1	3.699876E-1	3.609304E-1	3.765901E-1	3.704474E-1	4.080866E-1	3.836157E-1	4.011797E-1	4.219205E-1	4.004801E-1	4.257634E-1	4.306607E-1	4.070692E-1	3.602439E-1	4.113660E-1	3.925402E-1	4.076652E-1	3.779320E-1	4.192512E-1	3.849790E-1	3.996991E-1	3.538297E-1	3.862483E-1	4.007884E-1	3.687422E-1	3.801714E-1	4.136698E-1	4.008429E-1	3.751164E-1	3.267009E-1	3.994613E-1	4.051653E-1	4.053769E-1	4.042614E-1	4.132372E-1	3.905516E-1	3.441601E-1	4.507931E-1	3.923380E-1	3.701727E-1	3.905327E-1	4.325565E-1	4.092915E-1	3.890517E-1	3.899127E-1	3.646116E-1	4.405106E-1	4.102091E-1	4.171730E-1	3.962955E-1	3.810471E-1	3.555367E-1	3.835611E-1	3.512012E-1	4.248769E-1	3.586420E-1	4.250383E-1	3.658123E-1	4.288402E-1	4.239591E-1	4.170475E-1	4.280401E-1	4.063858E-1	3.753488E-1	3.791009E-1	4.201813E-1	3.765119E-1	4.034831E-1	4.244894E-1	3.779053E-1	4.104975E-1	4.219745E-1	3.617607E-1	3.914243E-1	3.933871E-1	3.715279E-1	3.898296E-1	4.463580E-1	3.840594E-1	4.532802E-1	3.811214E-1	3.691478E-1	4.177680E-1	3.878738E-1	3.564490E-1	4.030443E-1	4.038776E-1	4.203938E-1	4.091624E-1	4.493426E-1	3.800842E-1	4.057909E-1	3.794692E-1	3.858780E-1	4.227193E-1	4.122814E-1	3.226147E-1
5.408060E+2	4.150473E-1	4.109161E-1	4.695312E-1	4.173619E-1	3.694911E-1	4.463737E-1	4.070122E-1	4.275035E-1	4.089528E-1	4.317432E-1	4.118002E-1	4.192445E-1	4.332886E-1	4.403495E-1	4.314580E-1	3.987920E-1	3.998902E-1	4.622780E-1	4.340671E-1	4.709891E-1	4.296101E-1	4.625038E-1	4.211442E-1	3.971667E-1	4.304048E-1	4.634401E-1	4.664909E-1	4.401670E-1	4.014864E-1	4.459953E-1	4.374707E-1	4.032060E-1	4.509638E-1	4.151281E-1	3.895358E-1	4.082096E-1	4.493576E-1	4.470087E-1	3.720495E-1	4.165714E-1	4.307287E-1	4.548041E-1	4.241532E-1	4.346822E-1	4.260218E-1	4.554354E-1	4.313022E-1	4.370828E-1	3.832418E-1	4.254687E-1	4.405289E-1	4.037247E-1	4.107969E-1	4.641655E-1	3.867697E-1	3.990314E-1	4.289251E-1	4.548318E-1	4.152038E-1	4.039680E-1	3.449117E-1	4.368459E-1	3.995936E-1	4.306561E-1	4.009274E-1	4.000719E-1	4.493536E-1	3.974743E-1	4.620823E-1	4.175798E-1	4.143795E-1	4.368060E-1	4.618626E-1	4.479609E-1	4.486996E-1	4.059476E-1	4.084618E-1	4.389328E-1	4.300351E-1	4.007988E-1	4.536772E-1	4.376471E-1	4.838729E-1	4.345207E-1	3.791647E-1	4.020142E-1	4.185648E-1	4.043170E-1	4.218002E-1	4.317481E-1	4.007532E-1	4.695925E-1	4.525080E-1	4.207887E-1	4.306466E-1	3.966684E-1	4.544930E-1	4.147165E-1	4.598222E-1	4.312066E-1	4.414514E-1	4.523698E-1	3.607168E-1	3.730036E-1	4.014082E-1	4.434430E-1	4.059932E-1	4.156226E-1	4.179726E-1	4.350429E-1	4.606801E-1	4.363195E-1	3.893188E-1	4.327811E-1	4.141954E-1	3.973159E-1	4.299002E-1	4.209776E-1	4.223172E-1	4.404577E-1	3.900517E-1	4.067666E-1	4.268580E-1	3.928956E-1	4.191055E-1	3.585290E-1	3.885058E-1	4.280497E-1	4.139980E-1	4.275272E-1	4.376929E-1	4.244851E-1	4.385903E-1	4.354834E-1	4.230188E-1	3.897441E-1	4.552304E-1	4.339836E-1	4.424511E-1	4.292144E-1	4.853033E-1	4.105091E-1	4.158492E-1	4.332002E-1	4.108079E-1	3.823289E-1	4.561650E-1	4.665962E-1	4.265563E-1	4.316979E-1	4.025958E-1	4.367357E-1	4.044216E-1	4.130086E-1	4.524098E-1	4.127746E-1	4.364346E-1	4.548685E-1	4.017027E-1	3.957987E-1	4.503498E-1	4.118963E-1	3.907747E-1	4.018788E-1	3.805229E-1	3.967967E-1
5.410190E+2	5.191943E-1	5.353582E-1	4.862762E-1	4.817062E-1	4.932903E-1	5.201261E-1	4.887007E-1	5.046112E-1	5.345598E-1	5.001172E-1	5.009225E-1	5.726480E-1	5.382613E-1	5.414297E-1	5.366397E-1	4.917481E-1	4.532858E-1	5.580687E-1	5.135418E-1	5.203452E-1	5.068757E-1	5.344660E-1	5.383797E-1	5.380958E-1	5.258521E-1	5.061789E-1	5.078651E-1	5.799503E-1	5.676485E-1	5.493092E-1	4.924969E-1	5.144792E-1	5.399687E-1	4.802068E-1	5.082991E-1	4.656761E-1	4.951563E-1	5.017646E-1	5.003798E-1	5.665472E-1	5.062535E-1	5.174093E-1	5.610740E-1	4.466928E-1	4.930185E-1	4.915729E-1	5.509241E-1	4.943636E-1	5.248262E-1	5.846125E-1	5.074311E-1	5.178041E-1	5.235759E-1	5.348529E-1	4.806903E-1	4.891974E-1	5.204917E-1	5.050981E-1	5.702856E-1	5.243248E-1	5.418276E-1	4.611628E-1	5.107171E-1	5.456633E-1	5.260540E-1	5.206172E-1	5.233382E-1	5.310076E-1	5.307920E-1	5.077180E-1	4.890690E-1	5.400845E-1	5.133357E-1	5.474478E-1	5.269048E-1	4.921766E-1	5.043829E-1	4.837297E-1	5.157776E-1	5.274239E-1	4.971905E-1	5.410249E-1	4.848650E-1	5.047922E-1	4.878385E-1	5.115286E-1	4.858457E-1	5.070072E-1	5.491459E-1	5.350828E-1	5.139302E-1	5.089791E-1	5.578362E-1	5.177102E-1	4.838524E-1	5.617322E-1	5.515345E-1	5.823078E-1	4.762880E-1	4.798849E-1	4.357731E-1	4.977038E-1	4.678104E-1	5.045766E-1	5.010863E-1	4.891489E-1	5.238260E-1	5.079169E-1	5.238593E-1	5.252198E-1	4.915245E-1	5.551536E-1	5.218274E-1	5.061654E-1	5.263695E-1	5.636219E-1	5.110570E-1	5.053184E-1	5.110508E-1	5.512458E-1	5.206779E-1	5.060446E-1	5.913171E-1	5.246183E-1	4.972443E-1	5.008121E-1	4.931451E-1	5.428792E-1	5.242862E-1	5.410692E-1	5.154455E-1	4.799185E-1	5.967356E-1	5.157612E-1	5.203604E-1	5.601329E-1	4.985428E-1	5.463134E-1	5.418151E-1	5.171976E-1	5.035635E-1	5.236303E-1	5.099146E-1	5.218472E-1	4.350102E-1	4.862115E-1	5.560516E-1	4.806060E-1	5.359752E-1	5.350538E-1	5.414220E-1	5.014507E-1	4.731082E-1	5.161531E-1	4.963872E-1	5.514670E-1	5.099295E-1	5.041925E-1	5.341014E-1	5.211419E-1	5.887995E-1	4.693105E-1	4.907682E-1	4.980738E-1	5.276195E-1	3.109047E-1
5.415090E+2	6.499076E-1	7.330998E-1	6.549641E-1	6.456010E-1	7.177908E-1	6.280965E-1	6.605669E-1	6.693255E-1	6.250415E-1	6.754717E-1	6.794177E-1	6.845917E-1	7.175399E-1	7.143493E-1	6.738668E-1	6.473989E-1	6.497538E-1	6.950341E-1	6.839523E-1	6.285252E-1	6.872865E-1	6.773375E-1	6.532824E-1	6.738087E-1	6.767284E-1	6.785519E-1	6.362414E-1	6.209949E-1	7.126789E-1	6.448953E-1	6.628880E-1	6.274889E-1	6.790521E-1	6.513309E-1	6.142209E-1	6.170194E-1	6.365507E-1	6.927823E-1	6.990199E-1	7.140615E-1	6.744637E-1	6.076764E-1	7.086973E-1	6.150458E-1	6.199096E-1	6.831525E-1	6.360675E-1	6.801775E-1	6.597235E-1	6.283761E-1	6.568605E-1	5.945005E-1	6.962409E-1	6.893764E-1	6.222346E-1	6.265153E-1	6.872357E-1	6.679666E-1	6.700588E-1	6.898714E-1	6.082213E-1	7.162016E-1	5.865361E-1	6.576015E-1	5.907222E-1	6.418714E-1	7.284542E-1	6.489297E-1	6.293935E-1	6.895239E-1	6.589592E-1	6.660895E-1	6.566905E-1	6.684871E-1	6.756419E-1	6.233135E-1	6.739320E-1	6.650128E-1	6.553661E-1	6.322609E-1	6.558896E-1	6.233360E-1	6.470102E-1	6.084814E-1	6.467701E-1	6.376067E-1	6.492976E-1	6.690022E-1	6.490748E-1	6.066072E-1	5.763865E-1	6.290517E-1	6.446581E-1	6.555420E-1	6.432470E-1	7.064027E-1	6.229730E-1	6.250856E-1	6.152425E-1	6.699121E-1	6.331020E-1	7.016691E-1	6.551625E-1	6.834549E-1	6.460353E-1	6.702772E-1	6.793769E-1	6.865119E-1	6.694477E-1	6.541240E-1	6.725875E-1	6.277835E-1	6.698226E-1	6.276859E-1	6.788474E-1	6.295809E-1	5.895072E-1	6.664228E-1	6.745065E-1	6.465087E-1	6.562699E-1	6.254889E-1	6.856950E-1	6.054249E-1	6.294959E-1	6.839818E-1	6.703924E-1	6.398625E-1	6.416831E-1	6.365699E-1	7.023722E-1	6.217744E-1	6.418255E-1	7.024889E-1	6.751461E-1	6.545819E-1	6.990124E-1	6.264549E-1	6.708622E-1	6.980851E-1	6.559656E-1	6.727848E-1	7.167459E-1	6.679103E-1	6.200917E-1	6.376648E-1	7.122638E-1	6.363341E-1	6.698954E-1	6.598276E-1	6.524841E-1	5.692860E-1	6.150517E-1	6.550025E-1	6.780018E-1	6.607105E-1	6.315490E-1	7.310415E-1	6.639242E-1	6.447121E-1	7.186010E-1	6.735207E-1	6.727919E-1	6.594752E-1	7.298289E-1	6.708556E-1
5.420110E+2	6.974156E-1	6.856354E-1	7.210631E-1	6.061387E-1	7.144504E-1	6.951606E-1	7.128114E-1	7.321096E-1	7.183098E-1	7.095648E-1	7.353251E-1	6.878826E-1	6.940608E-1	7.544588E-1	7.276407E-1	6.465845E-1	7.415562E-1	7.434643E-1	6.954763E-1	7.542890E-1	7.173587E-1	7.524083E-1	6.828214E-1	7.295839E-1	7.631633E-1	6.872283E-1	7.130764E-1	7.518456E-1	7.224003E-1	7.096430E-1	7.000000E-1	7.008338E-1	7.680634E-1	7.306461E-1	6.507463E-1	7.455960E-1	7.775088E-1	7.866222E-1	7.163489E-1	7.381535E-1	7.462528E-1	6.775589E-1	6.877901E-1	7.039501E-1	7.070918E-1	8.063062E-1	7.077131E-1	7.319340E-1	7.047613E-1	6.949202E-1	7.176187E-1	6.645124E-1	6.554776E-1	7.486143E-1	7.162409E-1	6.887240E-1	7.225937E-1	7.123978E-1	7.122430E-1	7.061058E-1	6.658759E-1	7.512418E-1	7.188340E-1	7.578276E-1	7.140438E-1	7.394218E-1	7.273795E-1	7.601787E-1	6.824391E-1	6.732842E-1	6.412406E-1	7.306922E-1	7.684529E-1	6.924845E-1	7.200979E-1	6.722947E-1	7.014693E-1	6.903309E-1	7.209088E-1	7.605729E-1	7.578831E-1	7.347834E-1	7.146688E-1	6.824924E-1	6.973834E-1	7.190820E-1	6.825379E-1	6.253126E-1	7.704117E-1	7.010255E-1	6.951741E-1	7.867594E-1	6.975582E-1	6.955879E-1	7.357729E-1	6.878138E-1	8.005052E-1	7.167309E-1	7.090144E-1	7.212829E-1	7.349731E-1	7.050563E-1	7.233142E-1	7.011398E-1	7.323132E-1	7.177467E-1	7.411290E-1	6.727312E-1	7.743442E-1	7.612702E-1	7.366060E-1	6.741851E-1	7.625923E-1	7.679701E-1	7.250608E-1	7.377731E-1	6.903056E-1	6.975084E-1	6.476643E-1	7.472505E-1	6.790109E-1	7.465972E-1	7.606325E-1	7.610960E-1	7.732954E-1	6.769068E-1	7.043400E-1	7.138534E-1	6.752821E-1	7.052302E-1	7.175767E-1	7.279219E-1	7.441436E-1	7.320916E-1	7.580714E-1	6.535262E-1	6.751730E-1	6.819707E-1	6.799462E-1	6.601877E-1	7.336419E-1	6.819854E-1	7.316209E-1	7.232588E-1	7.116895E-1	6.917752E-1	7.199495E-1	6.829137E-1	7.380081E-1	7.690305E-1	7.576198E-1	6.673989E-1	6.811918E-1	7.334238E-1	7.012388E-1	7.524015E-1	7.359523E-1	6.683969E-1	7.319110E-1	7.724008E-1	6.746130E-1	7.513013E-1	6.298740E-1	6.891856E-1	7.537775E-1	6.002963E-1
5.425510E+2	8.536990E-1	8.598004E-1	7.820573E-1	8.210024E-1	8.161667E-1	8.335378E-1	8.130113E-1	8.716303E-1	7.710672E-1	7.824241E-1	8.376649E-1	8.038360E-1	8.362040E-1	8.284267E-1	8.258584E-1	8.032764E-1	8.339984E-1	8.397016E-1	8.103004E-1	8.848159E-1	7.610861E-1	8.388481E-1	7.954504E-1	8.531630E-1	8.888246E-1	8.431502E-1	7.758162E-1	8.696869E-1	8.559555E-1	8.415314E-1	8.128472E-1	8.283118E-1	7.861112E-1	8.576680E-1	8.107409E-1	8.193752E-1	8.657021E-1	8.073493E-1	7.893424E-1	8.844031E-1	8.697735E-1	7.409023E-1	8.361771E-1	8.333523E-1	8.272644E-1	8.691540E-1	8.587769E-1	7.943310E-1	8.936203E-1	7.910437E-1	7.976496E-1	8.394816E-1	8.431901E-1	8.522099E-1	8.410134E-1	7.601003E-1	8.121817E-1	9.115992E-1	8.434394E-1	9.134676E-1	7.589485E-1	8.340468E-1	8.088944E-1	8.425665E-1	8.377009E-1	8.125268E-1	8.710271E-1	8.885167E-1	8.479457E-1	8.428965E-1	8.442363E-1	7.763501E-1	8.743595E-1	8.074340E-1	8.117566E-1	7.865254E-1	8.482589E-1	8.669359E-1	8.197553E-1	7.951781E-1	8.808672E-1	8.395475E-1	8.213582E-1	7.806743E-1	8.199723E-1	8.825765E-1	7.775261E-1	8.974715E-1	8.463540E-1	7.915487E-1	8.114769E-1	8.156984E-1	9.021265E-1	8.099427E-1	8.627846E-1	7.887473E-1	7.690595E-1	8.116240E-1	8.351845E-1	8.588696E-1	8.501886E-1	8.303110E-1	7.803722E-1	8.414024E-1	8.670369E-1	8.135942E-1	8.376316E-1	7.802638E-1	8.353904E-1	9.064227E-1	8.502970E-1	8.095158E-1	8.465020E-1	7.929394E-1	8.866597E-1	8.307887E-1	8.897690E-1	8.677554E-1	8.379372E-1	8.069565E-1	8.202941E-1	8.013451E-1	8.546222E-1	8.725703E-1	8.370252E-1	8.065553E-1	8.198675E-1	8.606324E-1	8.392672E-1	7.630556E-1	8.610781E-1	8.493149E-1	8.672844E-1	8.376608E-1	8.550187E-1	8.598154E-1	8.771922E-1	8.186329E-1	8.424055E-1	9.118963E-1	8.942948E-1	7.701302E-1	8.361286E-1	8.526263E-1	7.739467E-1	8.238129E-1	9.087933E-1	8.222213E-1	8.922018E-1	8.333048E-1	8.755180E-1	8.103854E-1	8.012589E-1	8.246697E-1	7.243584E-1	8.369559E-1	8.310191E-1	7.354236E-1	8.020703E-1	8.680320E-1	7.859783E-1	7.876358E-1	8.288320E-1	8.528782E-1	8.834389E-1	7.202113E-1
5.430070E+2	7.986447E-1	8.139936E-1	8.515577E-1	8.197551E-1	7.694023E-1	7.900928E-1	7.684479E-1	8.287166E-1	8.128454E-1	7.285876E-1	7.930768E-1	8.064861E-1	8.002788E-1	8.025000E-1	7.875931E-1	8.257033E-1	8.519054E-1	7.894875E-1	8.245508E-1	7.571267E-1	8.223575E-1	7.916096E-1	8.013423E-1	7.871350E-1	8.061791E-1	7.867659E-1	7.939581E-1	8.432712E-1	7.700288E-1	8.298802E-1	8.537907E-1	7.908430E-1	7.620178E-1	7.796625E-1	7.905056E-1	7.879196E-1	7.921143E-1	8.079223E-1	7.941870E-1	8.293102E-1	7.927876E-1	7.401110E-1	7.623410E-1	8.416654E-1	7.932752E-1	8.146636E-1	8.133899E-1	7.866893E-1	7.967933E-1	9.683271E-1	7.961497E-1	7.380544E-1	7.816916E-1	8.522465E-1	8.156229E-1	8.599534E-1	7.590829E-1	8.403333E-1	7.813165E-1	8.358676E-1	7.819921E-1	8.225835E-1	8.127297E-1	7.484101E-1	7.796341E-1	8.403472E-1	8.080462E-1	8.359676E-1	8.608399E-1	8.357752E-1	7.571627E-1	8.141567E-1	8.227895E-1	8.125796E-1	8.415618E-1	7.902951E-1	8.234826E-1	8.170095E-1	7.735620E-1	7.674256E-1	8.475738E-1	8.672394E-1	7.799135E-1	7.956677E-1	7.990569E-1	7.610721E-1	7.445419E-1	7.564134E-1	7.708804E-1	7.774787E-1	7.871369E-1	8.228788E-1	8.230015E-1	8.253390E-1	8.592072E-1	8.013388E-1	8.016100E-1	7.698189E-1	8.604601E-1	7.520037E-1	8.359210E-1	7.812747E-1	7.264143E-1	8.478083E-1	8.495586E-1	8.303453E-1	7.910490E-1	8.441542E-1	8.246866E-1	8.019150E-1	8.378643E-1	8.475825E-1	7.868179E-1	8.283602E-1	7.721167E-1	7.546059E-1	8.049545E-1	7.882727E-1	7.922752E-1	8.625299E-1	7.703821E-1	8.052759E-1	8.203791E-1	8.755402E-1	7.233185E-1	8.242615E-1	7.876814E-1	8.425949E-1	8.115685E-1	8.346905E-1	8.731770E-1	8.041425E-1	7.811690E-1	8.450083E-1	8.670627E-1	7.655216E-1	7.600496E-1	7.928521E-1	7.969645E-1	8.123427E-1	8.299154E-1	7.783660E-1	7.929237E-1	8.202802E-1	7.811071E-1	7.977396E-1	7.587829E-1	7.526600E-1	8.233029E-1	8.117732E-1	7.754553E-1	8.009214E-1	7.458640E-1	8.320153E-1	8.064028E-1	8.397253E-1	7.585880E-1	7.770938E-1	7.847494E-1	9.203222E-1	7.981836E-1	7.991750E-1	7.440700E-1	8.957911E-1	6.595305E-1	7.154142E-1
5.435440E+2	1.102687E+0	1.145166E+0	1.171898E+0	1.124892E+0	1.072243E+0	1.070800E+0	1.149068E+0	1.048405E+0	1.044931E+0	1.096112E+0	9.849994E-1	1.036983E+0	1.035731E+0	1.118258E+0	1.039292E+0	1.096114E+0	1.087743E+0	1.079426E+0	1.076498E+0	1.151657E+0	1.028271E+0	1.156870E+0	1.066906E+0	1.109903E+0	1.069350E+0	1.099650E+0	1.080159E+0	1.029897E+0	1.109500E+0	1.062861E+0	1.118176E+0	1.111649E+0	1.154368E+0	1.118810E+0	9.812894E-1	1.120842E+0	1.075762E+0	1.071726E+0	1.115418E+0	1.056768E+0	1.118324E+0	1.026951E+0	1.090317E+0	1.151571E+0	1.045479E+0	1.093577E+0	1.057328E+0	1.105713E+0	1.094513E+0	1.122110E+0	1.073401E+0	1.061759E+0	1.031101E+0	1.103270E+0	1.059988E+0	1.165417E+0	1.115992E+0	1.109929E+0	1.103889E+0	1.080268E+0	1.138240E+0	1.112708E+0	1.067773E+0	1.143119E+0	1.000295E+0	1.041455E+0	1.060226E+0	1.093493E+0	1.111768E+0	1.059300E+0	1.037213E+0	1.126086E+0	1.154497E+0	1.059499E+0	1.087938E+0	1.075348E+0	1.115148E+0	1.045001E+0	1.084173E+0	1.030925E+0	1.048041E+0	1.042074E+0	1.049632E+0	1.028399E+0	1.087995E+0	9.984311E-1	1.031592E+0	1.109391E+0	1.111911E+0	1.117837E+0	1.040752E+0	9.659976E-1	1.059314E+0	1.104664E+0	1.065900E+0	1.082475E+0	1.040338E+0	1.128916E+0	1.132636E+0	1.066588E+0	1.102921E+0	1.062683E+0	1.035194E+0	1.087214E+0	1.065684E+0	1.081549E+0	1.060765E+0	1.101834E+0	1.070560E+0	1.037415E+0	1.077777E+0	1.054183E+0	1.056025E+0	1.120121E+0	1.108186E+0	1.029399E+0	1.059928E+0	1.085466E+0	1.073036E+0	1.123237E+0	1.099580E+0	1.062718E+0	1.112317E+0	1.026788E+0	1.060011E+0	1.007040E+0	1.091079E+0	1.104579E+0	1.117852E+0	1.169818E+0	1.071855E+0	1.084627E+0	1.131853E+0	1.076462E+0	1.063939E+0	1.017181E+0	1.061566E+0	1.087015E+0	1.079705E+0	1.117694E+0	1.080373E+0	1.086540E+0	1.150179E+0	1.060915E+0	1.051354E+0	1.025607E+0	1.071371E+0	1.144678E+0	1.158659E+0	1.082784E+0	1.105928E+0	1.121835E+0	1.088357E+0	1.082961E+0	1.092315E+0	1.138363E+0	1.059671E+0	1.117897E+0	1.065858E+0	1.096206E+0	1.068335E+0	1.052769E+0	1.081677E+0	1.058960E+0	1.006183E+0	1.102515E+0
5.440010E+2	1.383126E+0	1.433135E+0	1.390033E+0	1.393280E+0	1.396214E+0	1.405362E+0	1.428903E+0	1.446744E+0	1.357753E+0	1.401674E+0	1.391554E+0	1.414339E+0	1.430857E+0	1.372252E+0	1.375819E+0	1.339666E+0	1.460897E+0	1.418285E+0	1.452366E+0	1.447221E+0	1.401012E+0	1.465120E+0	1.367770E+0	1.369615E+0	1.389470E+0	1.427960E+0	1.429852E+0	1.324025E+0	1.370817E+0	1.391179E+0	1.379470E+0	1.459144E+0	1.426563E+0	1.456738E+0	1.312239E+0	1.329914E+0	1.425817E+0	1.396252E+0	1.394945E+0	1.415254E+0	1.459303E+0	1.333889E+0	1.365977E+0	1.363931E+0	1.397859E+0	1.345820E+0	1.343505E+0	1.328703E+0	1.373934E+0	1.405398E+0	1.381198E+0	1.324763E+0	1.447879E+0	1.408319E+0	1.397570E+0	1.396979E+0	1.413729E+0	1.368739E+0	1.462333E+0	1.429380E+0	1.408814E+0	1.436554E+0	1.397706E+0	1.453168E+0	1.475482E+0	1.436317E+0	1.413752E+0	1.470343E+0	1.448572E+0	1.372863E+0	1.311613E+0	1.398467E+0	1.425119E+0	1.462749E+0	1.404682E+0	1.374858E+0	1.352761E+0	1.377690E+0	1.374246E+0	1.320829E+0	1.426216E+0	1.468857E+0	1.438955E+0	1.281233E+0	1.368112E+0	1.470296E+0	1.458062E+0	1.461913E+0	1.413570E+0	1.428261E+0	1.440378E+0	1.322878E+0	1.417051E+0	1.384067E+0	1.389047E+0	1.359781E+0	1.483023E+0	1.287052E+0	1.480364E+0	1.326116E+0	1.378485E+0	1.381051E+0	1.373206E+0	1.406954E+0	1.396598E+0	1.438429E+0	1.409413E+0	1.404368E+0	1.428761E+0	1.397507E+0	1.372418E+0	1.304680E+0	1.356937E+0	1.396113E+0	1.360878E+0	1.426883E+0	1.443078E+0	1.358030E+0	1.318196E+0	1.398437E+0	1.273712E+0	1.352034E+0	1.329153E+0	1.455121E+0	1.392201E+0	1.386693E+0	1.342919E+0	1.394782E+0	1.434364E+0	1.424154E+0	1.405863E+0	1.322175E+0	1.369285E+0	1.445360E+0	1.454365E+0	1.412665E+0	1.357562E+0	1.406110E+0	1.405043E+0	1.435642E+0	1.422829E+0	1.389135E+0	1.390466E+0	1.336963E+0	1.402002E+0	1.360543E+0	1.425661E+0	1.364828E+0	1.416603E+0	1.448710E+0	1.454429E+0	1.409029E+0	1.319215E+0	1.354845E+0	1.370703E+0	1.302955E+0	1.412114E+0	1.460678E+0	1.404653E+0	1.495038E+0	1.402926E+0	1.327617E+0	1.266835E+0	1.291641E+0	1.360811E+0	1.284655E+0
5.445070E+2	1.573455E+0	1.636975E+0	1.533074E+0	1.534685E+0	1.624043E+0	1.549086E+0	1.657386E+0	1.601458E+0	1.521381E+0	1.633681E+0	1.580957E+0	1.620934E+0	1.545995E+0	1.643959E+0	1.552892E+0	1.561515E+0	1.547431E+0	1.514467E+0	1.580761E+0	1.580991E+0	1.609479E+0	1.596499E+0	1.632097E+0	1.583496E+0	1.550184E+0	1.568997E+0	1.660958E+0	1.525280E+0	1.509588E+0	1.600456E+0	1.586756E+0	1.587787E+0	1.572985E+0	1.555971E+0	1.549898E+0	1.571385E+0	1.534740E+0	1.645257E+0	1.610386E+0	1.551639E+0	1.644426E+0	1.549162E+0	1.559724E+0	1.588614E+0	1.532193E+0	1.534261E+0	1.526329E+0	1.614981E+0	1.521148E+0	1.619063E+0	1.567362E+0	1.539395E+0	1.598379E+0	1.615375E+0	1.613934E+0	1.562144E+0	1.577108E+0	1.636579E+0	1.595827E+0	1.498406E+0	1.614101E+0	1.589800E+0	1.466740E+0	1.642680E+0	1.622040E+0	1.532083E+0	1.544583E+0	1.533473E+0	1.563165E+0	1.600027E+0	1.541644E+0	1.585017E+0	1.582963E+0	1.600154E+0	1.531157E+0	1.537599E+0	1.545019E+0	1.571995E+0	1.619099E+0	1.531191E+0	1.676982E+0	1.615918E+0	1.709449E+0	1.505766E+0	1.566440E+0	1.580190E+0	1.658891E+0	1.594070E+0	1.628681E+0	1.553470E+0	1.516637E+0	1.494234E+0	1.608075E+0	1.562506E+0	1.594898E+0	1.517726E+0	1.582105E+0	1.553769E+0	1.623723E+0	1.553254E+0	1.505757E+0	1.562180E+0	1.488022E+0	1.599519E+0	1.597553E+0	1.554085E+0	1.533634E+0	1.541257E+0	1.554041E+0	1.548848E+0	1.524985E+0	1.568443E+0	1.547662E+0	1.581314E+0	1.570808E+0	1.495785E+0	1.583219E+0	1.558407E+0	1.579962E+0	1.574056E+0	1.548190E+0	1.573292E+0	1.523275E+0	1.541414E+0	1.527534E+0	1.559025E+0	1.580610E+0	1.524408E+0	1.592156E+0	1.510375E+0	1.584665E+0	1.508406E+0	1.554748E+0	1.534281E+0	1.639781E+0	1.605884E+0	1.491098E+0	1.578095E+0	1.528957E+0	1.619259E+0	1.594853E+0	1.499245E+0	1.515364E+0	1.475585E+0	1.605878E+0	1.598025E+0	1.543902E+0	1.490613E+0	1.573713E+0	1.512165E+0	1.540232E+0	1.586685E+0	1.478701E+0	1.601532E+0	1.474730E+0	1.568737E+0	1.470482E+0	1.726201E+0	1.536302E+0	1.575120E+0	1.669802E+0	1.552917E+0	1.489767E+0	1.378356E+0	1.440996E+0	1.326900E+0
5.450090E+2	1.277415E+0	1.400541E+0	1.313812E+0	1.240295E+0	1.239643E+0	1.274930E+0	1.275310E+0	1.313322E+0	1.275894E+0	1.271674E+0	1.270243E+0	1.307327E+0	1.242593E+0	1.355768E+0	1.318004E+0	1.339956E+0	1.324764E+0	1.218147E+0	1.363429E+0	1.326675E+0	1.288147E+0	1.377666E+0	1.304971E+0	1.297016E+0	1.235987E+0	1.240062E+0	1.360102E+0	1.308591E+0	1.324700E+0	1.359668E+0	1.342061E+0	1.285176E+0	1.262579E+0	1.277367E+0	1.230920E+0	1.317586E+0	1.354630E+0	1.337273E+0	1.352429E+0	1.289243E+0	1.263733E+0	1.230520E+0	1.277507E+0	1.305525E+0	1.247710E+0	1.325568E+0	1.352661E+0	1.361770E+0	1.283985E+0	1.373456E+0	1.231464E+0	1.340813E+0	1.262365E+0	1.333911E+0	1.311168E+0	1.282236E+0	1.316445E+0	1.355691E+0	1.314270E+0	1.340206E+0	1.259866E+0	1.299357E+0	1.289949E+0	1.302139E+0	1.392508E+0	1.327044E+0	1.337036E+0	1.293826E+0	1.357631E+0	1.326613E+0	1.351006E+0	1.326670E+0	1.341045E+0	1.340938E+0	1.306124E+0	1.386272E+0	1.388325E+0	1.248028E+0	1.332455E+0	1.342797E+0	1.303476E+0	1.284178E+0	1.199097E+0	1.273159E+0	1.165739E+0	1.257587E+0	1.273245E+0	1.350832E+0	1.324023E+0	1.300781E+0	1.238354E+0	1.333102E+0	1.296495E+0	1.236306E+0	1.285360E+0	1.252161E+0	1.298956E+0	1.334153E+0	1.267417E+0	1.298596E+0	1.290200E+0	1.324461E+0	1.270482E+0	1.278441E+0	1.236434E+0	1.391248E+0	1.343279E+0	1.221104E+0	1.353704E+0	1.290734E+0	1.350721E+0	1.238310E+0	1.353606E+0	1.355610E+0	1.244605E+0	1.364378E+0	1.279686E+0	1.278048E+0	1.284406E+0	1.205605E+0	1.206357E+0	1.352028E+0	1.298559E+0	1.291037E+0	1.190563E+0	1.305606E+0	1.355757E+0	1.239567E+0	1.277406E+0	1.267172E+0	1.260070E+0	1.327926E+0	1.280436E+0	1.214636E+0	1.293064E+0	1.277366E+0	1.318646E+0	1.275330E+0	1.320430E+0	1.272523E+0	1.280631E+0	1.281740E+0	1.339447E+0	1.289007E+0	1.315366E+0	1.300412E+0	1.282018E+0	1.168081E+0	1.377616E+0	1.250908E+0	1.304370E+0	1.324583E+0	1.256963E+0	1.318315E+0	1.338281E+0	1.294329E+0	1.303082E+0	1.249276E+0	1.287165E+0	1.239388E+0	1.234601E+0	1.267640E+0	1.241301E+0	1.205269E+0	1.188589E+0	1.376002E+0
5.455020E+2	9.615029E-1	1.045444E+0	1.079167E+0	1.083545E+0	1.045937E+0	1.052282E+0	1.068476E+0	1.045937E+0	9.915406E-1	1.045579E+0	1.117766E+0	1.053734E+0	1.024035E+0	1.053909E+0	1.068207E+0	1.021772E+0	1.078375E+0	1.062158E+0	1.117723E+0	1.049543E+0	1.050105E+0	1.102560E+0	1.058766E+0	1.086223E+0	1.080085E+0	1.044485E+0	1.097489E+0	1.091161E+0	1.084654E+0	1.002094E+0	1.024381E+0	1.056881E+0	1.128696E+0	1.044871E+0	1.064608E+0	1.066245E+0	1.110974E+0	1.132836E+0	1.081331E+0	1.069032E+0	1.115495E+0	9.508539E-1	1.145077E+0	1.079691E+0	1.054973E+0	1.078358E+0	1.047729E+0	1.046465E+0	1.065947E+0	1.058600E+0	1.032052E+0	1.031946E+0	1.038920E+0	1.049960E+0	1.037381E+0	1.088521E+0	1.058400E+0	1.055520E+0	1.059417E+0	1.025349E+0	1.019239E+0	1.014300E+0	1.025145E+0	1.117809E+0	1.091172E+0	1.035654E+0	1.066557E+0	1.098150E+0	1.036333E+0	1.086876E+0	1.019566E+0	1.076031E+0	1.120598E+0	1.011298E+0	9.979703E-1	1.022252E+0	1.170388E+0	1.033947E+0	1.066094E+0	1.049283E+0	1.113467E+0	1.100862E+0	1.035569E+0	1.038286E+0	1.027271E+0	1.090824E+0	1.042125E+0	9.817928E-1	1.112611E+0	1.115500E+0	9.980153E-1	1.017565E+0	1.067249E+0	1.071274E+0	1.053624E+0	1.012563E+0	1.126651E+0	1.071453E+0	1.045661E+0	1.126618E+0	1.086078E+0	1.041062E+0	1.039680E+0	1.043309E+0	9.928398E-1	1.084770E+0	1.065449E+0	1.037521E+0	1.087774E+0	9.968730E-1	1.016533E+0	1.088755E+0	9.853675E-1	1.102482E+0	1.083750E+0	9.824289E-1	1.089549E+0	1.035677E+0	1.071662E+0	1.068372E+0	1.021006E+0	1.101666E+0	1.068015E+0	1.034964E+0	1.064316E+0	1.075368E+0	1.083702E+0	1.013917E+0	1.093102E+0	1.098555E+0	1.095647E+0	1.030999E+0	1.083035E+0	1.072754E+0	1.036249E+0	1.131478E+0	1.073254E+0	1.094030E+0	1.062582E+0	1.117564E+0	1.145170E+0	1.085085E+0	1.060388E+0	9.915458E-1	1.085500E+0	1.021782E+0	1.121955E+0	1.010955E+0	1.124752E+0	1.081317E+0	1.024377E+0	1.061795E+0	1.066182E+0	1.073888E+0	1.079876E+0	1.055995E+0	1.059336E+0	1.051005E+0	1.072863E+0	1.098426E+0	1.061004E+0	1.048843E+0	9.865704E-1	1.101225E+0	1.052763E+0	8.946999E-1
5.460060E+2	7.965480E-1	8.145793E-1	9.105401E-1	8.218139E-1	8.292299E-1	8.145803E-1	8.077540E-1	8.081394E-1	8.342690E-1	7.562677E-1	8.329020E-1	8.396380E-1	8.239792E-1	7.890738E-1	8.234762E-1	8.425057E-1	8.459139E-1	8.501260E-1	8.538348E-1	8.894219E-1	8.243565E-1	8.440234E-1	8.451420E-1	8.494945E-1	8.290952E-1	8.175549E-1	8.636789E-1	8.507183E-1	7.446332E-1	8.162442E-1	8.165041E-1	8.431764E-1	9.048206E-1	8.629076E-1	8.344156E-1	8.230784E-1	8.297686E-1	8.175457E-1	8.031956E-1	8.485737E-1	8.149186E-1	7.975418E-1	7.893815E-1	7.972179E-1	8.187113E-1	8.834740E-1	8.609851E-1	8.367013E-1	8.216615E-1	8.602738E-1	8.180116E-1	8.444749E-1	8.276683E-1	8.726873E-1	8.734416E-1	8.568030E-1	7.927260E-1	8.527117E-1	7.912938E-1	8.297625E-1	8.074382E-1	9.106584E-1	8.742295E-1	8.030324E-1	8.628412E-1	7.822270E-1	8.660220E-1	8.086584E-1	8.173904E-1	8.271286E-1	8.392173E-1	8.793142E-1	8.124639E-1	7.887335E-1	8.388521E-1	8.084435E-1	8.509282E-1	8.025015E-1	8.348383E-1	8.428960E-1	8.597798E-1	8.036398E-1	8.045871E-1	8.458350E-1	7.738114E-1	7.835334E-1	8.245244E-1	8.717533E-1	8.496408E-1	8.663676E-1	8.423088E-1	8.268395E-1	7.878805E-1	8.011647E-1	8.254990E-1	8.597561E-1	8.361372E-1	8.836048E-1	8.530381E-1	8.162899E-1	8.079492E-1	7.962248E-1	8.210676E-1	8.266340E-1	8.079582E-1	8.489370E-1	8.518570E-1	8.272320E-1	8.198549E-1	8.160394E-1	7.843076E-1	8.012318E-1	8.243405E-1	8.245693E-1	8.498557E-1	8.938879E-1	8.320953E-1	8.540564E-1	9.068247E-1	8.532729E-1	7.721848E-1	8.048350E-1	8.043614E-1	8.190373E-1	8.159358E-1	7.966135E-1	8.102189E-1	8.286279E-1	8.605383E-1	8.877347E-1	9.079000E-1	8.597892E-1	8.353983E-1	8.041290E-1	8.453666E-1	8.744852E-1	7.501277E-1	8.495184E-1	8.813138E-1	8.515419E-1	8.592101E-1	8.587212E-1	8.607159E-1	8.447222E-1	7.846094E-1	8.082588E-1	8.294772E-1	7.724266E-1	8.436577E-1	8.400866E-1	7.837515E-1	8.062181E-1	7.275534E-1	8.865681E-1	8.937222E-1	8.208397E-1	8.000232E-1	8.802066E-1	7.275600E-1	8.726468E-1	8.599514E-1	7.855472E-1	7.811927E-1	8.412538E-1	8.343891E-1	7.818983E-1
5.465160E+2	1.018676E+0	9.336531E-1	1.033366E+0	1.000106E+0	1.095841E+0	1.008092E+0	9.829363E-1	1.021535E+0	1.015413E+0	9.678401E-1	9.584607E-1	1.013128E+0	9.465102E-1	9.891055E-1	9.390547E-1	9.560538E-1	1.014140E+0	9.999084E-1	9.958628E-1	9.806229E-1	1.002804E+0	1.099185E+0	1.038398E+0	9.647757E-1	9.507843E-1	9.685467E-1	9.691035E-1	9.712223E-1	8.955823E-1	9.821870E-1	9.525867E-1	9.810712E-1	9.391612E-1	1.009610E+0	9.427118E-1	9.525480E-1	1.005858E+0	9.803620E-1	9.166214E-1	9.559069E-1	9.846298E-1	9.420825E-1	9.627766E-1	9.796864E-1	9.243398E-1	9.760031E-1	9.609982E-1	1.020523E+0	9.725477E-1	1.014874E+0	9.664374E-1	9.115767E-1	9.229112E-1	1.072763E+0	1.034456E+0	1.017781E+0	9.734643E-1	9.432612E-1	9.714277E-1	9.791851E-1	9.465492E-1	9.635298E-1	9.747353E-1	1.019378E+0	1.007733E+0	1.015548E+0	9.578621E-1	9.764609E-1	1.012351E+0	9.561551E-1	9.545868E-1	9.661528E-1	9.524053E-1	9.851728E-1	9.263139E-1	9.455228E-1	1.019405E+0	9.560356E-1	9.977261E-1	9.659726E-1	9.717326E-1	1.031281E+0	9.280981E-1	8.954206E-1	1.005742E+0	9.780751E-1	1.015958E+0	9.707648E-1	1.042220E+0	9.690265E-1	9.186787E-1	9.180714E-1	9.990522E-1	9.571226E-1	1.029088E+0	9.472747E-1	1.037023E+0	1.003454E+0	9.503558E-1	9.707547E-1	9.626852E-1	9.949335E-1	9.269311E-1	1.006864E+0	9.704272E-1	9.961864E-1	9.875265E-1	1.004323E+0	1.055600E+0	9.927420E-1	9.109782E-1	9.965030E-1	1.009217E+0	9.656755E-1	9.936486E-1	9.693623E-1	1.040853E+0	1.006144E+0	9.845806E-1	9.976902E-1	9.453491E-1	9.771589E-1	9.463410E-1	9.013508E-1	9.899439E-1	9.458650E-1	9.628735E-1	9.573915E-1	1.017595E+0	1.014235E+0	1.012745E+0	9.350111E-1	9.400256E-1	9.624208E-1	1.004748E+0	9.568585E-1	9.503456E-1	9.854018E-1	1.011056E+0	9.492993E-1	1.064394E+0	1.005373E+0	1.067545E+0	9.731062E-1	9.184148E-1	9.509688E-1	9.785297E-1	9.819468E-1	1.019650E+0	9.775978E-1	9.700066E-1	9.831931E-1	9.461582E-1	1.026008E+0	1.017640E+0	9.673646E-1	9.842765E-1	1.029181E+0	9.200512E-1	1.034935E+0	9.358299E-1	9.649826E-1	1.031597E+0	9.186723E-1	1.042367E+0	1.056938E+0
5.470110E+2	1.251174E+0	1.328310E+0	1.289880E+0	1.244035E+0	1.275253E+0	1.189882E+0	1.359547E+0	1.269872E+0	1.210386E+0	1.315912E+0	1.300420E+0	1.257127E+0	1.314705E+0	1.302901E+0	1.239640E+0	1.281915E+0	1.286916E+0	1.248711E+0	1.296199E+0	1.237501E+0	1.226566E+0	1.301971E+0	1.243075E+0	1.281615E+0	1.159366E+0	1.233219E+0	1.294441E+0	1.226783E+0	1.296464E+0	1.200044E+0	1.260820E+0	1.248941E+0	1.268663E+0	1.291766E+0	1.216565E+0	1.270152E+0	1.305432E+0	1.276982E+0	1.288035E+0	1.303971E+0	1.316111E+0	1.223353E+0	1.243691E+0	1.291068E+0	1.274408E+0	1.307669E+0	1.241435E+0	1.163905E+0	1.282741E+0	1.224310E+0	1.214527E+0	1.200323E+0	1.187519E+0	1.281818E+0	1.283628E+0	1.302507E+0	1.339861E+0	1.213900E+0	1.271026E+0	1.353590E+0	1.224565E+0	1.281531E+0	1.284199E+0	1.359539E+0	1.262809E+0	1.210054E+0	1.261860E+0	1.227456E+0	1.308077E+0	1.283765E+0	1.180730E+0	1.247762E+0	1.300675E+0	1.273789E+0	1.279851E+0	1.288453E+0	1.282870E+0	1.335004E+0	1.257311E+0	1.310924E+0	1.336671E+0	1.259269E+0	1.220927E+0	1.220859E+0	1.196099E+0	1.238490E+0	1.216163E+0	1.331761E+0	1.236246E+0	1.351796E+0	1.279982E+0	1.234666E+0	1.217129E+0	1.280581E+0	1.221652E+0	1.258106E+0	1.323001E+0	1.279298E+0	1.288518E+0	1.239518E+0	1.269531E+0	1.212061E+0	1.191214E+0	1.273674E+0	1.289644E+0	1.287187E+0	1.251338E+0	1.288727E+0	1.222136E+0	1.288170E+0	1.160304E+0	1.256133E+0	1.251273E+0	1.309348E+0	1.249859E+0	1.327243E+0	1.285993E+0	1.264117E+0	1.285058E+0	1.302399E+0	1.206026E+0	1.353770E+0	1.341046E+0	1.297218E+0	1.223007E+0	1.223187E+0	1.242452E+0	1.274472E+0	1.237989E+0	1.245611E+0	1.366903E+0	1.300644E+0	1.261134E+0	1.241550E+0	1.380090E+0	1.291275E+0	1.288748E+0	1.327922E+0	1.240174E+0	1.300662E+0	1.288717E+0	1.244370E+0	1.271180E+0	1.162755E+0	1.179822E+0	1.299843E+0	1.245130E+0	1.218309E+0	1.250190E+0	1.229390E+0	1.252896E+0	1.308562E+0	1.178378E+0	1.286692E+0	1.204604E+0	1.256417E+0	1.208138E+0	1.269393E+0	1.234950E+0	1.286771E+0	1.306690E+0	1.246830E+0	1.298993E+0	1.218913E+0	1.301436E+0	1.166514E+0
5.475070E+2	1.528346E+0	1.525259E+0	1.499229E+0	1.441313E+0	1.532269E+0	1.464842E+0	1.534492E+0	1.483589E+0	1.360333E+0	1.477952E+0	1.532585E+0	1.604747E+0	1.440893E+0	1.547949E+0	1.560950E+0	1.515948E+0	1.349047E+0	1.464328E+0	1.488197E+0	1.485800E+0	1.488283E+0	1.526406E+0	1.481866E+0	1.479137E+0	1.516376E+0	1.483390E+0	1.505445E+0	1.392810E+0	1.466710E+0	1.446749E+0	1.480609E+0	1.475692E+0	1.443407E+0	1.518587E+0	1.485312E+0	1.376216E+0	1.518112E+0	1.527249E+0	1.555422E+0	1.484640E+0	1.486815E+0	1.461966E+0	1.531568E+0	1.555962E+0	1.404004E+0	1.455484E+0	1.427608E+0	1.530741E+0	1.411606E+0	1.481697E+0	1.343244E+0	1.548345E+0	1.438492E+0	1.482038E+0	1.422174E+0	1.502124E+0	1.528860E+0	1.499202E+0	1.488155E+0	1.404676E+0	1.513802E+0	1.468465E+0	1.571245E+0	1.497909E+0	1.456412E+0	1.468924E+0	1.518225E+0	1.459403E+0	1.528269E+0	1.464851E+0	1.495495E+0	1.478708E+0	1.448100E+0	1.494154E+0	1.452857E+0	1.479196E+0	1.491655E+0	1.549279E+0	1.496274E+0	1.517920E+0	1.511311E+0	1.575161E+0	1.524335E+0	1.441397E+0	1.409468E+0	1.453306E+0	1.473228E+0	1.482806E+0	1.500473E+0	1.461092E+0	1.423575E+0	1.399246E+0	1.520748E+0	1.575145E+0	1.431255E+0	1.456526E+0	1.583702E+0	1.513972E+0	1.424626E+0	1.556502E+0	1.434779E+0	1.490623E+0	1.427330E+0	1.516712E+0	1.403691E+0	1.488236E+0	1.453048E+0	1.531384E+0	1.448723E+0	1.459448E+0	1.436143E+0	1.426315E+0	1.428992E+0	1.469167E+0	1.549061E+0	1.554528E+0	1.489782E+0	1.424996E+0	1.380451E+0	1.501863E+0	1.333321E+0	1.539122E+0	1.551721E+0	1.542320E+0	1.418144E+0	1.413561E+0	1.467905E+0	1.435433E+0	1.460607E+0	1.439812E+0	1.466628E+0	1.454808E+0	1.450200E+0	1.498857E+0	1.473075E+0	1.450372E+0	1.461394E+0	1.438745E+0	1.487656E+0	1.419338E+0	1.463562E+0	1.476555E+0	1.582115E+0	1.429569E+0	1.411564E+0	1.440939E+0	1.510784E+0	1.361310E+0	1.447595E+0	1.476675E+0	1.417409E+0	1.455716E+0	1.375194E+0	1.465333E+0	1.464550E+0	1.520216E+0	1.377213E+0	1.466041E+0	1.406526E+0	1.507991E+0	1.495585E+0	1.456521E+0	1.402215E+0	1.372551E+0	1.464957E+0	1.420999E+0
5.480030E+2	1.358181E+0	1.390687E+0	1.442368E+0	1.390016E+0	1.426427E+0	1.388252E+0	1.449777E+0	1.487577E+0	1.285581E+0	1.441354E+0	1.383815E+0	1.470167E+0	1.373520E+0	1.416501E+0	1.433576E+0	1.327600E+0	1.440843E+0	1.421763E+0	1.404732E+0	1.432162E+0	1.464547E+0	1.465994E+0	1.454755E+0	1.408178E+0	1.384934E+0	1.395562E+0	1.384440E+0	1.456088E+0	1.430349E+0	1.439683E+0	1.373968E+0	1.403575E+0	1.463423E+0	1.401665E+0	1.335338E+0	1.497667E+0	1.424358E+0	1.396943E+0	1.380021E+0	1.470759E+0	1.454553E+0	1.396374E+0	1.450054E+0	1.397821E+0	1.398552E+0	1.407688E+0	1.441960E+0	1.456027E+0	1.369211E+0	1.372755E+0	1.394898E+0	1.446864E+0	1.425945E+0	1.517133E+0	1.368099E+0	1.321317E+0	1.382120E+0	1.521419E+0	1.352198E+0	1.492335E+0	1.352470E+0	1.582819E+0	1.345777E+0	1.471357E+0	1.429176E+0	1.445306E+0	1.360048E+0	1.429835E+0	1.418315E+0	1.494663E+0	1.379911E+0	1.423882E+0	1.404979E+0	1.391546E+0	1.479186E+0	1.327679E+0	1.414488E+0	1.465297E+0	1.441180E+0	1.384211E+0	1.431665E+0	1.416126E+0	1.439424E+0	1.391614E+0	1.407158E+0	1.391130E+0	1.477459E+0	1.398214E+0	1.429593E+0	1.495484E+0	1.347837E+0	1.433187E+0	1.398374E+0	1.392857E+0	1.473071E+0	1.387973E+0	1.508108E+0	1.449971E+0	1.423714E+0	1.378759E+0	1.262668E+0	1.487590E+0	1.402926E+0	1.444982E+0	1.338266E+0	1.420544E+0	1.402788E+0	1.412632E+0	1.377044E+0	1.375755E+0	1.417194E+0	1.498174E+0	1.384292E+0	1.479138E+0	1.372990E+0	1.456372E+0	1.393559E+0	1.380721E+0	1.383323E+0	1.362394E+0	1.357944E+0	1.389122E+0	1.441869E+0	1.403848E+0	1.342626E+0	1.330085E+0	1.524471E+0	1.363622E+0	1.471724E+0	1.457778E+0	1.397781E+0	1.431770E+0	1.412157E+0	1.467999E+0	1.455153E+0	1.411594E+0	1.425200E+0	1.449925E+0	1.374437E+0	1.440379E+0	1.529914E+0	1.415193E+0	1.425444E+0	1.355414E+0	1.373190E+0	1.511411E+0	1.417419E+0	1.327952E+0	1.465804E+0	1.334933E+0	1.413959E+0	1.463351E+0	1.334581E+0	1.388418E+0	1.491617E+0	1.436460E+0	1.305700E+0	1.392092E+0	1.433440E+0	1.466363E+0	1.442501E+0	1.429799E+0	1.309698E+0	1.385576E+0	1.416377E+0	1.295558E+0
5.485390E+2	1.318168E+0	1.408487E+0	1.410069E+0	1.318128E+0	1.322139E+0	1.356291E+0	1.438337E+0	1.343182E+0	1.270868E+0	1.417139E+0	1.341832E+0	1.384179E+0	1.300176E+0	1.434557E+0	1.382901E+0	1.388180E+0	1.303850E+0	1.271660E+0	1.265418E+0	1.251882E+0	1.331779E+0	1.363450E+0	1.337766E+0	1.307596E+0	1.409554E+0	1.324500E+0	1.338213E+0	1.289614E+0	1.421753E+0	1.374410E+0	1.410804E+0	1.404223E+0	1.417676E+0	1.322166E+0	1.332454E+0	1.323629E+0	1.324179E+0	1.321000E+0	1.370442E+0	1.331551E+0	1.349561E+0	1.285332E+0	1.414925E+0	1.315207E+0	1.260637E+0	1.364035E+0	1.349708E+0	1.292197E+0	1.304004E+0	1.377240E+0	1.328524E+0	1.299713E+0	1.358859E+0	1.324148E+0	1.342773E+0	1.375263E+0	1.294612E+0	1.375988E+0	1.462074E+0	1.360472E+0	1.399123E+0	1.452634E+0	1.263550E+0	1.343737E+0	1.430121E+0	1.376010E+0	1.457931E+0	1.418326E+0	1.401050E+0	1.299332E+0	1.415512E+0	1.386212E+0	1.396009E+0	1.296415E+0	1.420054E+0	1.291339E+0	1.307118E+0	1.382795E+0	1.392161E+0	1.303934E+0	1.268308E+0	1.357910E+0	1.309850E+0	1.326959E+0	1.346565E+0	1.293829E+0	1.346842E+0	1.300996E+0	1.310402E+0	1.317025E+0	1.282028E+0	1.335945E+0	1.361712E+0	1.314432E+0	1.372492E+0	1.311480E+0	1.320354E+0	1.381440E+0	1.334353E+0	1.321455E+0	1.350496E+0	1.357371E+0	1.312554E+0	1.347090E+0	1.304515E+0	1.316774E+0	1.316698E+0	1.367120E+0	1.380470E+0	1.359973E+0	1.234074E+0	1.338057E+0	1.322581E+0	1.262872E+0	1.439609E+0	1.314536E+0	1.293914E+0	1.388061E+0	1.333453E+0	1.284626E+0	1.273841E+0	1.282807E+0	1.403775E+0	1.266036E+0	1.418482E+0	1.316929E+0	1.370785E+0	1.313544E+0	1.353581E+0	1.445574E+0	1.340708E+0	1.322766E+0	1.366159E+0	1.350201E+0	1.368114E+0	1.408666E+0	1.292244E+0	1.342047E+0	1.354412E+0	1.396010E+0	1.326687E+0	1.351454E+0	1.322253E+0	1.232695E+0	1.326629E+0	1.239924E+0	1.331412E+0	1.326184E+0	1.344784E+0	1.352602E+0	1.368126E+0	1.324696E+0	1.305259E+0	1.406749E+0	1.393888E+0	1.440782E+0	1.338385E+0	1.486415E+0	1.364597E+0	1.423453E+0	1.375413E+0	1.296920E+0	1.287015E+0	1.341630E+0	1.376905E+0	1.406559E+0
5.490430E+2	1.273253E+0	1.232553E+0	1.281094E+0	1.314532E+0	1.242514E+0	1.247257E+0	1.281363E+0	1.267755E+0	1.177946E+0	1.280201E+0	1.220345E+0	1.278109E+0	1.221237E+0	1.279588E+0	1.279585E+0	1.238622E+0	1.195932E+0	1.266545E+0	1.268910E+0	1.276226E+0	1.214198E+0	1.193454E+0	1.315021E+0	1.274467E+0	1.191877E+0	1.247979E+0	1.237399E+0	1.205895E+0	1.257409E+0	1.227980E+0	1.172071E+0	1.261517E+0	1.240477E+0	1.174985E+0	1.170322E+0	1.286992E+0	1.292381E+0	1.186394E+0	1.236970E+0	1.250349E+0	1.277384E+0	1.170942E+0	1.282963E+0	1.174764E+0	1.210224E+0	1.214098E+0	1.281263E+0	1.271848E+0	1.151711E+0	1.283270E+0	1.240790E+0	1.207584E+0	1.226070E+0	1.235086E+0	1.248979E+0	1.217449E+0	1.252394E+0	1.269891E+0	1.243307E+0	1.306239E+0	1.208822E+0	1.242321E+0	1.278138E+0	1.281755E+0	1.284241E+0	1.292957E+0	1.224291E+0	1.173670E+0	1.206650E+0	1.239287E+0	1.208673E+0	1.282095E+0	1.243368E+0	1.203709E+0	1.193083E+0	1.103917E+0	1.232114E+0	1.297390E+0	1.306053E+0	1.164125E+0	1.235672E+0	1.226701E+0	1.301158E+0	1.147884E+0	1.172947E+0	1.206475E+0	1.234382E+0	1.187626E+0	1.225225E+0	1.216662E+0	1.212439E+0	1.264179E+0	1.243598E+0	1.258142E+0	1.278801E+0	1.322168E+0	1.319785E+0	1.207676E+0	1.197266E+0	1.193905E+0	1.191623E+0	1.285406E+0	1.209817E+0	1.284994E+0	1.242275E+0	1.199103E+0	1.274636E+0	1.171220E+0	1.203885E+0	1.194871E+0	1.244727E+0	1.211375E+0	1.212105E+0	1.254127E+0	1.238892E+0	1.306085E+0	1.258862E+0	1.203322E+0	1.268683E+0	1.236119E+0	1.138332E+0	1.271061E+0	1.367855E+0	1.238382E+0	1.204076E+0	1.204011E+0	1.255642E+0	1.257839E+0	1.249007E+0	1.239280E+0	1.330366E+0	1.257645E+0	1.297686E+0	1.254802E+0	1.296958E+0	1.154632E+0	1.205249E+0	1.229293E+0	1.300668E+0	1.280266E+0	1.286395E+0	1.182856E+0	1.272402E+0	1.312839E+0	1.239090E+0	1.239292E+0	1.276534E+0	1.212650E+0	1.263912E+0	1.284688E+0	1.257553E+0	1.206496E+0	1.160878E+0	1.276174E+0	1.176314E+0	1.249936E+0	1.268077E+0	1.211564E+0	1.206321E+0	1.223496E+0	1.243329E+0	1.263830E+0	1.243235E+0	1.251710E+0	1.220795E+0	1.257499E+0
5.495150E+2	1.568937E+0	1.597059E+0	1.639750E+0	1.574789E+0	1.606656E+0	1.578107E+0	1.631245E+0	1.663564E+0	1.553010E+0	1.594538E+0	1.632051E+0	1.534650E+0	1.617843E+0	1.544754E+0	1.589444E+0	1.597600E+0	1.506669E+0	1.537838E+0	1.559218E+0	1.564476E+0	1.533168E+0	1.643740E+0	1.626170E+0	1.631877E+0	1.612100E+0	1.506114E+0	1.592271E+0	1.577661E+0	1.537697E+0	1.532697E+0	1.622899E+0	1.664123E+0	1.591330E+0	1.538373E+0	1.529595E+0	1.638087E+0	1.667944E+0	1.641831E+0	1.557725E+0	1.587633E+0	1.551407E+0	1.541551E+0	1.496340E+0	1.506321E+0	1.523428E+0	1.642324E+0	1.659336E+0	1.649879E+0	1.578408E+0	1.574267E+0	1.518575E+0	1.462186E+0	1.574991E+0	1.597008E+0	1.597992E+0	1.575398E+0	1.472554E+0	1.625662E+0	1.586628E+0	1.676830E+0	1.513593E+0	1.534771E+0	1.622177E+0	1.646948E+0	1.554882E+0	1.567973E+0	1.509460E+0	1.616584E+0	1.621620E+0	1.550373E+0	1.575742E+0	1.502219E+0	1.678678E+0	1.600986E+0	1.641470E+0	1.545504E+0	1.498949E+0	1.542691E+0	1.649996E+0	1.518601E+0	1.611181E+0	1.541743E+0	1.547956E+0	1.508534E+0	1.584087E+0	1.402098E+0	1.550425E+0	1.612249E+0	1.701754E+0	1.585199E+0	1.635260E+0	1.565842E+0	1.607430E+0	1.510705E+0	1.634976E+0	1.594531E+0	1.529428E+0	1.608181E+0	1.583681E+0	1.503995E+0	1.548130E+0	1.582019E+0	1.555005E+0	1.640493E+0	1.534513E+0	1.508545E+0	1.567367E+0	1.521774E+0	1.577288E+0	1.546818E+0	1.530977E+0	1.514527E+0	1.640355E+0	1.638859E+0	1.588541E+0	1.650629E+0	1.596304E+0	1.578905E+0	1.558559E+0	1.586858E+0	1.457479E+0	1.491071E+0	1.704194E+0	1.629449E+0	1.565209E+0	1.560584E+0	1.622024E+0	1.558044E+0	1.566031E+0	1.584644E+0	1.641969E+0	1.501161E+0	1.496764E+0	1.564936E+0	1.596585E+0	1.598439E+0	1.659194E+0	1.542233E+0	1.589029E+0	1.643378E+0	1.575937E+0	1.601287E+0	1.620991E+0	1.544012E+0	1.601353E+0	1.581082E+0	1.634495E+0	1.518000E+0	1.620689E+0	1.553436E+0	1.533904E+0	1.549193E+0	1.376155E+0	1.570139E+0	1.593410E+0	1.592890E+0	1.561646E+0	1.562150E+0	1.515836E+0	1.667334E+0	1.590696E+0	1.575291E+0	1.587175E+0	1.653866E+0	1.532148E+0	1.575863E+0
5.500050E+2	1.922491E+0	1.982505E+0	2.001159E+0	1.865156E+0	1.979317E+0	1.859950E+0	2.040955E+0	1.911709E+0	1.866713E+0	1.881203E+0	1.990124E+0	1.827524E+0	1.994415E+0	1.945004E+0	1.897956E+0	1.918408E+0	1.962037E+0	1.880789E+0	1.919514E+0	2.008743E+0	1.870050E+0	2.023082E+0	1.997812E+0	1.893505E+0	1.912267E+0	1.831098E+0	1.952141E+0	1.876947E+0	1.918455E+0	1.952648E+0	1.877730E+0	1.966803E+0	1.945415E+0	1.922891E+0	1.861879E+0	1.897447E+0	1.943714E+0	1.907714E+0	1.962146E+0	1.929123E+0	1.989497E+0	1.854500E+0	1.910763E+0	1.976553E+0	1.933710E+0	1.952291E+0	1.966166E+0	1.911395E+0	1.932692E+0	1.976610E+0	1.940738E+0	1.921898E+0	1.952226E+0	2.036330E+0	1.855493E+0	1.899744E+0	1.861331E+0	1.927131E+0	2.032967E+0	2.016558E+0	1.948270E+0	1.957616E+0	1.954714E+0	1.917312E+0	1.844453E+0	1.964824E+0	1.913766E+0	1.901929E+0	1.945763E+0	1.880728E+0	1.878473E+0	1.832895E+0	1.859321E+0	1.880751E+0	2.004990E+0	1.838157E+0	1.926418E+0	1.803222E+0	2.053018E+0	1.911045E+0	1.953332E+0	1.959788E+0	1.904932E+0	1.864758E+0	1.853761E+0	1.915854E+0	1.873962E+0	1.918512E+0	1.961149E+0	1.927762E+0	1.859109E+0	1.914888E+0	1.946199E+0	1.870394E+0	1.982291E+0	1.895949E+0	1.980835E+0	1.914638E+0	1.892283E+0	1.839220E+0	1.894006E+0	1.845798E+0	1.843675E+0	1.889400E+0	1.887752E+0	1.845667E+0	2.050633E+0	1.844984E+0	1.899550E+0	1.802080E+0	1.925300E+0	1.839364E+0	1.960818E+0	1.976439E+0	1.894968E+0	1.939471E+0	1.867067E+0	1.874651E+0	1.929432E+0	1.942696E+0	1.883403E+0	1.888249E+0	1.934496E+0	1.834063E+0	1.972355E+0	1.961529E+0	1.936033E+0	1.892630E+0	1.916893E+0	1.916714E+0	1.995609E+0	2.012843E+0	1.891932E+0	1.843689E+0	1.956195E+0	1.823512E+0	1.901772E+0	1.919200E+0	1.874513E+0	1.927290E+0	1.879234E+0	1.928536E+0	2.042331E+0	1.856597E+0	1.939802E+0	1.838776E+0	1.948160E+0	1.812846E+0	1.980929E+0	1.831911E+0	1.886031E+0	1.901829E+0	1.809134E+0	1.818673E+0	2.021977E+0	1.863514E+0	1.916718E+0	1.806356E+0	1.902561E+0	1.961750E+0	1.930867E+0	1.801278E+0	1.925226E+0	1.732630E+0	1.768720E+0	1.792584E+0
5.504950E+2	2.004618E+0	2.006152E+0	2.014455E+0	2.044761E+0	2.032278E+0	1.980943E+0	2.005836E+0	2.075084E+0	1.977923E+0	2.048856E+0	1.997688E+0	2.091835E+0	2.006821E+0	2.021977E+0	2.074628E+0	1.959406E+0	1.983303E+0	1.989115E+0	2.030205E+0	2.074922E+0	1.942255E+0	2.037556E+0	2.011271E+0	1.995470E+0	2.136136E+0	1.992192E+0	2.008999E+0	2.120686E+0	2.053833E+0	2.016968E+0	2.021225E+0	2.068632E+0	2.063586E+0	1.979011E+0	2.014299E+0	2.089964E+0	2.030749E+0	2.064644E+0	2.064742E+0	1.983911E+0	2.051597E+0	1.989327E+0	2.046030E+0	2.076570E+0	1.948165E+0	2.020132E+0	1.897666E+0	2.075263E+0	2.001449E+0	2.000042E+0	2.031527E+0	1.950728E+0	2.009743E+0	2.021059E+0	1.982896E+0	1.890063E+0	2.003596E+0	1.977355E+0	2.079071E+0	2.142261E+0	2.076734E+0	1.983761E+0	2.124902E+0	1.963643E+0	2.029301E+0	1.967323E+0	2.133855E+0	1.972068E+0	2.053821E+0	1.964481E+0	1.994713E+0	2.043952E+0	1.993586E+0	1.912660E+0	1.994011E+0	1.952923E+0	2.133568E+0	1.978979E+0	2.065819E+0	1.931624E+0	2.035683E+0	2.022908E+0	2.006917E+0	1.922625E+0	1.981823E+0	1.995000E+0	2.020781E+0	2.031535E+0	2.138014E+0	2.066538E+0	1.945256E+0	1.963701E+0	2.032122E+0	1.933815E+0	2.026197E+0	2.054148E+0	2.057379E+0	2.063698E+0	2.090004E+0	1.984655E+0	2.012714E+0	1.910067E+0	1.942043E+0	2.110819E+0	1.999812E+0	2.003536E+0	1.992435E+0	1.946288E+0	1.994829E+0	1.850915E+0	1.985473E+0	2.002992E+0	1.980507E+0	2.035901E+0	2.065026E+0	2.060808E+0	2.021355E+0	1.991975E+0	2.111711E+0	1.993438E+0	1.897043E+0	2.052118E+0	2.033153E+0	1.998052E+0	2.025887E+0	1.888416E+0	2.011244E+0	1.957620E+0	1.884190E+0	2.005420E+0	2.023086E+0	1.884132E+0	1.982996E+0	1.984270E+0	2.056068E+0	2.039430E+0	1.996702E+0	1.998483E+0	2.020688E+0	2.056802E+0	2.038005E+0	2.016003E+0	2.073618E+0	2.037342E+0	1.901203E+0	1.929248E+0	2.026895E+0	1.912831E+0	2.128966E+0	1.984298E+0	2.016247E+0	1.998703E+0	1.970173E+0	2.098225E+0	1.926280E+0	2.010839E+0	1.997649E+0	2.011503E+0	1.892817E+0	2.071451E+0	2.053325E+0	2.009958E+0	2.072113E+0	1.978240E+0	2.006463E+0	1.969010E+0
5.510080E+2	1.769762E+0	1.760638E+0	1.796827E+0	1.665398E+0	1.861280E+0	1.714020E+0	1.741212E+0	1.752038E+0	1.707835E+0	1.713493E+0	1.752493E+0	1.757855E+0	1.693578E+0	1.750361E+0	1.747954E+0	1.759983E+0	1.771630E+0	1.763007E+0	1.733130E+0	1.742729E+0	1.716048E+0	1.718305E+0	1.774752E+0	1.727497E+0	1.768097E+0	1.668046E+0	1.739146E+0	1.723922E+0	1.681893E+0	1.645073E+0	1.737921E+0	1.686477E+0	1.774265E+0	1.683912E+0	1.718412E+0	1.780209E+0	1.707803E+0	1.677891E+0	1.792952E+0	1.733317E+0	1.768573E+0	1.651849E+0	1.860398E+0	1.735857E+0	1.714707E+0	1.725139E+0	1.750914E+0	1.777649E+0	1.692605E+0	1.657824E+0	1.735791E+0	1.746897E+0	1.758653E+0	1.736778E+0	1.635784E+0	1.705165E+0	1.661872E+0	1.725998E+0	1.740186E+0	1.768661E+0	1.748404E+0	1.785232E+0	1.737403E+0	1.682647E+0	1.704597E+0	1.785247E+0	1.652130E+0	1.740207E+0	1.796264E+0	1.717885E+0	1.716723E+0	1.713715E+0	1.782407E+0	1.721708E+0	1.751121E+0	1.705979E+0	1.676415E+0	1.749730E+0	1.688160E+0	1.734442E+0	1.718365E+0	1.714083E+0	1.693757E+0	1.720593E+0	1.749626E+0	1.732489E+0	1.735011E+0	1.707347E+0	1.738622E+0	1.767632E+0	1.712375E+0	1.644851E+0	1.749701E+0	1.687708E+0	1.772304E+0	1.784206E+0	1.749259E+0	1.744678E+0	1.661459E+0	1.750676E+0	1.652059E+0	1.685384E+0	1.678762E+0	1.692102E+0	1.722982E+0	1.747952E+0	1.663026E+0	1.739396E+0	1.723712E+0	1.732827E+0	1.656237E+0	1.717024E+0	1.730799E+0	1.743283E+0	1.651939E+0	1.772554E+0	1.688178E+0	1.788500E+0	1.691411E+0	1.726451E+0	1.642105E+0	1.683660E+0	1.730815E+0	1.777438E+0	1.805126E+0	1.639327E+0	1.735694E+0	1.601982E+0	1.728385E+0	1.721037E+0	1.837712E+0	1.762970E+0	1.742832E+0	1.649074E+0	1.749511E+0	1.708005E+0	1.778887E+0	1.730482E+0	1.778234E+0	1.747602E+0	1.781596E+0	1.652870E+0	1.733606E+0	1.693341E+0	1.773371E+0	1.697305E+0	1.779548E+0	1.741048E+0	1.696299E+0	1.730817E+0	1.706158E+0	1.718214E+0	1.589970E+0	1.675595E+0	1.730526E+0	1.860533E+0	1.698444E+0	1.739542E+0	1.624410E+0	1.689396E+0	1.735984E+0	1.644459E+0	1.733005E+0	1.726633E+0	1.502541E+0	1.462129E+0
5.515000E+2	1.351278E+0	1.418489E+0	1.339286E+0	1.373239E+0	1.389639E+0	1.362166E+0	1.426130E+0	1.387783E+0	1.345763E+0	1.400474E+0	1.370861E+0	1.416183E+0	1.384103E+0	1.432077E+0	1.361782E+0	1.333151E+0	1.322221E+0	1.402444E+0	1.439893E+0	1.315485E+0	1.360636E+0	1.414537E+0	1.371456E+0	1.431479E+0	1.386930E+0	1.322352E+0	1.340028E+0	1.419416E+0	1.377201E+0	1.360170E+0	1.345087E+0	1.413832E+0	1.349303E+0	1.388724E+0	1.297346E+0	1.341356E+0	1.398519E+0	1.394626E+0	1.278386E+0	1.436607E+0	1.349820E+0	1.216201E+0	1.374299E+0	1.388633E+0	1.324346E+0	1.410373E+0	1.351845E+0	1.458194E+0	1.422583E+0	1.290464E+0	1.345095E+0	1.361932E+0	1.389423E+0	1.306200E+0	1.260123E+0	1.321137E+0	1.339964E+0	1.462886E+0	1.394081E+0	1.511739E+0	1.419938E+0	1.389287E+0	1.299569E+0	1.415485E+0	1.379674E+0	1.412500E+0	1.402386E+0	1.409460E+0	1.390323E+0	1.274424E+0	1.378260E+0	1.344897E+0	1.425536E+0	1.375835E+0	1.368015E+0	1.360297E+0	1.426557E+0	1.367212E+0	1.344036E+0	1.379059E+0	1.388369E+0	1.365177E+0	1.437595E+0	1.358622E+0	1.334630E+0	1.336635E+0	1.363262E+0	1.406878E+0	1.403767E+0	1.339767E+0	1.357307E+0	1.380712E+0	1.400467E+0	1.326907E+0	1.242705E+0	1.289134E+0	1.364784E+0	1.368180E+0	1.458174E+0	1.411172E+0	1.428542E+0	1.370885E+0	1.451308E+0	1.432203E+0	1.381691E+0	1.343114E+0	1.405160E+0	1.312648E+0	1.296197E+0	1.320349E+0	1.334657E+0	1.381636E+0	1.377024E+0	1.329486E+0	1.325041E+0	1.337544E+0	1.327643E+0	1.357293E+0	1.332579E+0	1.377523E+0	1.273161E+0	1.405302E+0	1.324391E+0	1.383754E+0	1.322067E+0	1.330484E+0	1.358655E+0	1.404451E+0	1.372344E+0	1.403759E+0	1.406741E+0	1.463669E+0	1.382030E+0	1.360870E+0	1.432579E+0	1.390085E+0	1.318739E+0	1.310345E+0	1.444620E+0	1.418010E+0	1.369770E+0	1.429873E+0	1.396127E+0	1.374483E+0	1.316076E+0	1.321080E+0	1.326814E+0	1.323118E+0	1.326285E+0	1.289169E+0	1.346689E+0	1.328063E+0	1.321815E+0	1.369568E+0	1.329725E+0	1.393087E+0	1.299453E+0	1.320246E+0	1.335652E+0	1.315155E+0	1.331113E+0	1.373849E+0	1.357777E+0	1.331480E+0	1.334349E+0	1.226637E+0
5.520040E+2	1.105063E+0	1.144496E+0	1.154489E+0	1.119210E+0	1.133724E+0	1.030762E+0	1.148677E+0	1.194916E+0	1.133781E+0	1.186813E+0	1.137767E+0	1.166977E+0	1.050403E+0	1.132220E+0	1.200015E+0	1.108553E+0	1.076046E+0	1.145800E+0	1.094958E+0	1.110308E+0	1.183555E+0	1.100889E+0	1.104367E+0	1.156089E+0	1.144439E+0	1.080801E+0	1.109188E+0	1.082862E+0	1.165675E+0	1.088561E+0	1.094587E+0	1.107442E+0	1.118770E+0	1.145633E+0	1.085256E+0	1.159724E+0	1.074823E+0	1.153876E+0	1.098511E+0	1.107696E+0	1.133558E+0	1.070734E+0	1.064953E+0	1.118540E+0	1.136219E+0	1.140681E+0	1.131362E+0	1.132913E+0	1.191863E+0	1.156585E+0	1.015992E+0	1.052852E+0	1.052136E+0	1.151382E+0	1.114009E+0	1.147838E+0	1.186475E+0	1.138099E+0	1.174400E+0	1.182457E+0	1.116550E+0	1.178242E+0	1.164270E+0	1.103484E+0	1.106095E+0	1.146983E+0	1.135158E+0	1.165631E+0	1.158042E+0	1.182284E+0	1.164838E+0	1.167780E+0	1.205221E+0	1.210173E+0	1.182348E+0	1.093872E+0	1.134549E+0	1.110782E+0	1.135207E+0	1.108474E+0	1.175486E+0	1.205646E+0	1.108282E+0	1.101806E+0	1.112061E+0	1.091274E+0	1.023259E+0	1.159264E+0	1.090559E+0	1.130618E+0	1.131717E+0	1.104926E+0	1.076647E+0	1.150827E+0	1.182588E+0	1.080841E+0	1.122621E+0	1.134773E+0	1.122680E+0	1.146539E+0	1.070929E+0	1.083015E+0	1.050289E+0	1.156816E+0	1.157521E+0	1.120005E+0	1.154365E+0	1.176088E+0	1.115711E+0	1.088240E+0	1.071971E+0	1.093458E+0	1.125358E+0	1.071915E+0	1.114050E+0	1.162507E+0	1.055058E+0	1.071628E+0	1.148931E+0	1.127385E+0	1.111459E+0	1.138732E+0	1.105003E+0	1.133795E+0	1.139305E+0	1.055712E+0	1.166656E+0	1.161552E+0	1.110354E+0	1.150589E+0	1.149957E+0	1.138866E+0	1.130783E+0	1.123537E+0	1.121235E+0	1.090686E+0	1.089408E+0	1.022739E+0	1.072808E+0	1.218082E+0	1.073291E+0	1.150905E+0	1.175406E+0	1.109005E+0	1.151818E+0	1.084082E+0	1.152452E+0	1.019055E+0	1.058028E+0	1.115761E+0	1.189558E+0	1.127798E+0	1.064544E+0	1.075808E+0	1.084147E+0	1.150517E+0	1.060115E+0	1.050428E+0	1.118337E+0	1.181498E+0	1.126783E+0	1.240139E+0	1.105413E+0	1.182510E+0	9.186024E-1	9.830332E-1
5.525040E+2	1.063137E+0	1.217383E+0	1.185588E+0	1.220830E+0	1.244293E+0	1.137323E+0	1.284570E+0	1.200173E+0	1.144284E+0	1.197434E+0	1.236824E+0	1.198097E+0	1.132711E+0	1.180370E+0	1.179477E+0	1.207368E+0	1.212274E+0	1.209781E+0	1.157064E+0	1.234918E+0	1.173555E+0	1.177244E+0	1.225046E+0	1.133370E+0	1.149637E+0	1.205666E+0	1.199965E+0	1.187281E+0	1.196309E+0	1.187407E+0	1.112706E+0	1.146286E+0	1.171964E+0	1.200672E+0	1.171229E+0	1.143867E+0	1.229960E+0	1.217554E+0	1.113667E+0	1.310252E+0	1.138583E+0	1.180540E+0	1.207873E+0	1.202914E+0	1.164245E+0	1.181942E+0	1.110293E+0	1.260975E+0	1.150061E+0	1.196934E+0	1.172281E+0	1.218858E+0	1.267426E+0	1.267698E+0	1.189663E+0	1.153527E+0	1.188349E+0	1.146049E+0	1.173277E+0	1.242018E+0	1.159179E+0	1.153508E+0	1.185849E+0	1.162924E+0	1.182354E+0	1.212925E+0	1.223312E+0	1.188368E+0	1.158081E+0	1.167181E+0	1.144394E+0	1.251896E+0	1.230249E+0	1.131179E+0	1.155849E+0	1.149065E+0	1.259587E+0	1.143836E+0	1.172257E+0	1.165877E+0	1.254974E+0	1.139525E+0	1.098759E+0	1.064777E+0	1.149152E+0	1.115650E+0	1.164213E+0	1.157795E+0	1.191398E+0	1.116766E+0	1.175081E+0	1.224968E+0	1.244204E+0	1.105334E+0	1.217890E+0	1.115945E+0	1.194072E+0	1.159872E+0	1.114942E+0	1.137270E+0	1.152191E+0	1.227238E+0	1.206221E+0	1.087732E+0	1.189568E+0	1.243594E+0	1.257076E+0	1.102125E+0	1.169215E+0	1.168423E+0	1.177890E+0	1.131971E+0	1.217101E+0	1.113888E+0	1.190984E+0	1.201577E+0	1.161692E+0	1.186950E+0	1.141971E+0	1.095824E+0	1.114867E+0	1.203437E+0	1.165684E+0	1.133277E+0	1.183145E+0	1.106579E+0	1.188701E+0	1.232457E+0	1.187283E+0	1.243440E+0	1.260528E+0	1.195224E+0	1.120791E+0	1.179623E+0	1.257917E+0	1.153390E+0	1.116299E+0	1.226312E+0	1.240524E+0	1.165711E+0	1.160684E+0	1.147895E+0	1.168425E+0	1.209215E+0	1.179883E+0	1.165364E+0	1.228434E+0	1.085687E+0	1.236411E+0	1.080952E+0	1.191650E+0	1.179127E+0	1.152066E+0	1.143853E+0	1.170077E+0	1.163818E+0	1.200178E+0	1.164702E+0	1.177797E+0	1.168081E+0	1.197278E+0	1.126454E+0	1.135622E+0	1.160149E+0	1.117494E+0	1.034501E+0
5.530150E+2	1.324012E+0	1.282306E+0	1.326945E+0	1.309232E+0	1.382536E+0	1.311399E+0	1.344926E+0	1.390524E+0	1.288336E+0	1.335990E+0	1.406931E+0	1.377007E+0	1.379505E+0	1.385174E+0	1.272811E+0	1.384827E+0	1.305446E+0	1.348673E+0	1.368806E+0	1.369337E+0	1.338543E+0	1.282523E+0	1.291463E+0	1.340486E+0	1.298451E+0	1.331317E+0	1.301186E+0	1.357660E+0	1.235856E+0	1.317441E+0	1.362542E+0	1.283841E+0	1.378776E+0	1.313056E+0	1.346145E+0	1.300668E+0	1.339338E+0	1.406562E+0	1.308672E+0	1.330928E+0	1.312254E+0	1.336510E+0	1.301951E+0	1.377773E+0	1.328803E+0	1.362619E+0	1.344910E+0	1.343734E+0	1.258285E+0	1.321068E+0	1.333074E+0	1.322913E+0	1.304444E+0	1.407794E+0	1.329437E+0	1.350160E+0	1.293848E+0	1.306458E+0	1.401094E+0	1.408437E+0	1.311378E+0	1.300974E+0	1.298001E+0	1.396141E+0	1.378589E+0	1.291966E+0	1.326663E+0	1.296358E+0	1.354461E+0	1.323962E+0	1.288616E+0	1.325205E+0	1.420911E+0	1.330496E+0	1.322988E+0	1.312925E+0	1.377860E+0	1.328895E+0	1.316756E+0	1.353663E+0	1.427998E+0	1.334332E+0	1.261127E+0	1.297178E+0	1.286977E+0	1.330104E+0	1.327188E+0	1.368475E+0	1.309042E+0	1.340775E+0	1.323114E+0	1.332645E+0	1.326705E+0	1.368106E+0	1.324900E+0	1.286479E+0	1.316193E+0	1.280368E+0	1.389963E+0	1.383595E+0	1.326017E+0	1.234811E+0	1.273902E+0	1.318225E+0	1.330004E+0	1.332158E+0	1.237615E+0	1.345449E+0	1.334762E+0	1.263672E+0	1.340655E+0	1.369053E+0	1.263563E+0	1.393257E+0	1.345218E+0	1.330360E+0	1.268277E+0	1.255985E+0	1.398033E+0	1.397478E+0	1.221805E+0	1.374983E+0	1.339699E+0	1.345696E+0	1.251746E+0	1.344696E+0	1.394018E+0	1.282120E+0	1.311818E+0	1.339524E+0	1.358111E+0	1.296895E+0	1.357339E+0	1.374923E+0	1.407686E+0	1.377567E+0	1.275477E+0	1.290787E+0	1.329736E+0	1.273663E+0	1.389696E+0	1.394703E+0	1.370617E+0	1.368072E+0	1.153374E+0	1.269911E+0	1.370101E+0	1.280054E+0	1.403468E+0	1.299181E+0	1.364012E+0	1.268426E+0	1.359995E+0	1.308938E+0	1.393919E+0	1.379195E+0	1.315944E+0	1.362790E+0	1.335706E+0	1.358532E+0	1.318415E+0	1.297989E+0	1.264244E+0	1.401658E+0	1.321166E+0	1.155873E+0
5.534770E+2	1.313389E+0	1.316081E+0	1.337692E+0	1.329588E+0	1.327071E+0	1.277358E+0	1.346141E+0	1.272896E+0	1.220704E+0	1.335595E+0	1.331154E+0	1.241353E+0	1.316267E+0	1.323232E+0	1.286136E+0	1.339204E+0	1.304519E+0	1.429204E+0	1.374899E+0	1.386836E+0	1.364906E+0	1.334829E+0	1.341070E+0	1.384226E+0	1.361230E+0	1.281148E+0	1.283389E+0	1.261260E+0	1.233018E+0	1.301166E+0	1.323916E+0	1.320383E+0	1.364519E+0	1.308725E+0	1.294131E+0	1.355250E+0	1.356830E+0	1.387797E+0	1.308706E+0	1.361333E+0	1.353586E+0	1.251148E+0	1.322796E+0	1.325010E+0	1.296237E+0	1.334848E+0	1.330857E+0	1.340608E+0	1.246074E+0	1.370590E+0	1.300115E+0	1.232737E+0	1.370192E+0	1.402285E+0	1.306082E+0	1.282190E+0	1.375597E+0	1.305692E+0	1.239103E+0	1.405328E+0	1.261881E+0	1.426490E+0	1.298390E+0	1.381568E+0	1.295440E+0	1.325737E+0	1.307503E+0	1.327490E+0	1.348237E+0	1.357263E+0	1.305906E+0	1.253015E+0	1.360423E+0	1.344809E+0	1.322934E+0	1.299779E+0	1.331002E+0	1.324285E+0	1.301997E+0	1.315357E+0	1.421649E+0	1.329197E+0	1.363588E+0	1.323494E+0	1.279013E+0	1.284900E+0	1.337647E+0	1.324488E+0	1.349135E+0	1.349640E+0	1.327646E+0	1.279316E+0	1.316907E+0	1.322061E+0	1.343361E+0	1.270392E+0	1.296455E+0	1.330889E+0	1.269062E+0	1.383818E+0	1.235237E+0	1.384385E+0	1.276807E+0	1.409552E+0	1.332871E+0	1.380024E+0	1.325805E+0	1.398284E+0	1.334132E+0	1.293982E+0	1.364104E+0	1.366763E+0	1.327868E+0	1.340705E+0	1.399705E+0	1.357333E+0	1.284308E+0	1.238462E+0	1.249870E+0	1.371970E+0	1.185269E+0	1.279997E+0	1.336042E+0	1.275306E+0	1.294858E+0	1.297716E+0	1.394763E+0	1.335184E+0	1.360383E+0	1.304265E+0	1.299147E+0	1.350517E+0	1.335662E+0	1.343659E+0	1.348695E+0	1.316691E+0	1.304277E+0	1.319723E+0	1.259200E+0	1.283677E+0	1.333458E+0	1.284370E+0	1.296025E+0	1.277987E+0	1.323985E+0	1.334042E+0	1.399284E+0	1.249898E+0	1.352473E+0	1.281868E+0	1.368722E+0	1.368132E+0	1.385720E+0	1.362801E+0	1.335258E+0	1.351673E+0	1.223454E+0	1.266697E+0	1.303682E+0	1.316278E+0	1.385356E+0	1.267611E+0	1.344441E+0	1.304923E+0	1.326062E+0	1.216112E+0
5.540290E+2	1.190241E+0	1.168771E+0	1.138356E+0	1.175888E+0	1.182539E+0	1.070090E+0	1.112339E+0	1.184780E+0	1.064861E+0	1.113338E+0	1.150840E+0	1.110791E+0	1.110688E+0	1.105941E+0	1.134457E+0	1.098388E+0	1.142974E+0	1.098890E+0	1.093409E+0	1.159413E+0	1.155246E+0	1.124128E+0	1.104198E+0	1.115281E+0	1.064467E+0	1.076302E+0	1.141220E+0	1.093464E+0	1.093915E+0	1.074101E+0	1.086959E+0	1.103849E+0	1.146369E+0	1.122266E+0	1.090685E+0	1.084771E+0	1.083217E+0	1.116402E+0	1.079199E+0	1.141674E+0	1.098868E+0	1.061579E+0	1.145094E+0	1.142487E+0	1.126370E+0	1.187951E+0	1.160300E+0	1.158789E+0	1.044492E+0	1.170163E+0	1.075503E+0	1.107319E+0	1.136251E+0	1.174948E+0	1.076834E+0	1.128330E+0	1.069773E+0	1.151035E+0	1.061827E+0	1.195748E+0	1.074850E+0	1.090581E+0	1.100800E+0	1.153457E+0	1.105759E+0	1.145087E+0	1.075431E+0	1.154983E+0	1.064503E+0	1.126820E+0	1.120318E+0	1.137239E+0	1.183177E+0	1.095238E+0	1.159206E+0	1.184344E+0	1.099523E+0	1.185785E+0	1.182279E+0	1.082014E+0	1.129107E+0	1.113017E+0	1.149072E+0	1.048988E+0	1.119324E+0	1.104717E+0	1.073195E+0	1.141045E+0	1.157775E+0	1.069031E+0	1.103526E+0	1.113751E+0	1.131961E+0	1.103935E+0	1.147954E+0	1.068659E+0	1.138060E+0	1.113195E+0	1.131666E+0	1.234097E+0	1.079036E+0	1.140459E+0	1.069139E+0	1.214867E+0	1.039104E+0	1.141205E+0	1.111373E+0	1.182845E+0	1.119126E+0	1.117012E+0	1.118117E+0	1.054721E+0	1.151103E+0	1.109291E+0	1.155009E+0	1.071704E+0	1.173577E+0	1.110510E+0	1.065577E+0	1.150233E+0	1.088746E+0	1.130979E+0	1.135847E+0	1.209505E+0	1.152991E+0	1.115696E+0	1.111324E+0	1.110649E+0	1.158311E+0	1.122547E+0	1.170823E+0	1.141527E+0	1.155985E+0	1.114268E+0	1.198609E+0	1.129133E+0	1.134688E+0	1.159587E+0	1.086445E+0	1.222192E+0	1.159532E+0	1.062932E+0	1.128850E+0	1.091722E+0	1.130654E+0	1.006503E+0	1.127402E+0	1.172867E+0	1.170269E+0	1.082227E+0	1.154092E+0	1.131387E+0	1.001470E+0	1.094300E+0	1.124538E+0	1.086219E+0	1.053289E+0	1.141318E+0	1.070833E+0	1.168502E+0	1.126576E+0	1.135591E+0	1.111550E+0	1.116861E+0	1.112918E+0	1.073828E+0
5.550140E+2	9.966073E-1	1.031830E+0	9.549202E-1	1.051051E+0	9.632979E-1	1.053257E+0	9.923869E-1	1.069056E+0	9.855579E-1	1.003083E+0	9.668727E-1	1.033144E+0	9.282228E-1	1.114559E+0	9.511478E-1	1.058226E+0	1.001338E+0	9.733882E-1	9.827052E-1	1.085580E+0	9.940576E-1	1.018806E+0	1.028252E+0	9.848356E-1	1.006295E+0	9.262166E-1	1.065410E+0	1.021652E+0	9.834089E-1	1.035927E+0	1.010714E+0	1.052477E+0	1.054594E+0	1.000758E+0	9.275361E-1	9.707587E-1	9.843655E-1	1.093776E+0	1.045277E+0	1.003321E+0	1.010641E+0	9.589225E-1	1.028652E+0	9.318047E-1	9.705389E-1	1.032567E+0	1.037182E+0	1.086630E+0	9.506817E-1	9.749985E-1	9.942215E-1	9.979483E-1	1.032281E+0	1.007620E+0	1.025973E+0	1.027180E+0	9.785650E-1	9.992820E-1	1.008088E+0	1.046079E+0	9.934561E-1	1.027092E+0	1.024460E+0	1.036118E+0	1.026033E+0	9.875637E-1	1.038299E+0	1.001958E+0	1.044649E+0	9.939466E-1	1.015928E+0	9.888397E-1	1.073621E+0	1.003607E+0	1.077843E+0	9.900372E-1	9.834378E-1	1.051912E+0	1.000396E+0	9.535824E-1	1.036940E+0	9.839380E-1	9.830932E-1	8.686633E-1	9.571733E-1	1.051569E+0	9.559870E-1	1.035818E+0	9.784983E-1	1.019187E+0	9.583743E-1	9.644622E-1	1.032336E+0	1.026343E+0	1.047341E+0	1.010773E+0	1.075570E+0	9.889969E-1	9.765780E-1	9.948013E-1	1.002037E+0	1.011944E+0	9.330678E-1	1.016119E+0	9.229235E-1	9.595710E-1	1.015511E+0	1.007902E+0	1.004679E+0	9.567137E-1	9.555534E-1	1.062675E+0	9.208448E-1	1.032093E+0	1.005585E+0	9.724699E-1	9.734058E-1	9.579548E-1	1.017349E+0	9.986917E-1	9.703692E-1	1.006901E+0	9.995214E-1	9.816915E-1	9.695962E-1	1.047180E+0	1.036906E+0	9.376274E-1	1.036645E+0	1.016616E+0	1.041783E+0	9.754250E-1	9.889763E-1	9.498978E-1	1.030375E+0	9.189525E-1	9.750958E-1	9.714261E-1	9.837041E-1	1.049612E+0	9.378568E-1	1.008170E+0	1.054286E+0	9.503817E-1	1.010243E+0	9.754298E-1	1.009227E+0	9.782998E-1	9.348604E-1	1.024067E+0	1.041036E+0	1.059960E+0	9.630389E-1	1.007826E+0	1.021022E+0	1.036691E+0	9.380228E-1	9.280289E-1	9.808050E-1	9.880328E-1	1.006033E+0	9.604650E-1	9.912898E-1	9.992753E-1	9.832805E-1	9.866861E-1
5.560300E+2	9.257991E-1	9.222325E-1	9.086483E-1	9.005100E-1	9.093260E-1	9.191102E-1	9.857582E-1	9.384247E-1	9.448142E-1	9.173802E-1	9.435278E-1	9.054722E-1	9.211847E-1	9.243137E-1	9.907247E-1	8.654967E-1	9.443894E-1	9.854203E-1	9.399267E-1	9.996863E-1	9.167809E-1	9.774476E-1	9.800659E-1	9.689150E-1	9.445382E-1	1.009175E+0	9.505880E-1	9.080236E-1	9.515856E-1	8.397026E-1	9.816773E-1	9.829705E-1	9.260215E-1	9.338237E-1	8.373879E-1	9.005372E-1	9.205667E-1	9.084266E-1	9.458018E-1	9.508394E-1	9.429387E-1	8.974183E-1	9.094518E-1	9.989489E-1	9.640457E-1	8.917764E-1	9.294365E-1	8.918672E-1	9.053009E-1	9.135397E-1	8.732183E-1	9.270869E-1	9.752014E-1	1.003574E+0	9.202278E-1	9.501506E-1	9.223240E-1	9.625392E-1	9.892705E-1	1.013900E+0	9.384562E-1	9.569353E-1	9.339214E-1	1.005694E+0	1.001263E+0	9.394219E-1	8.998178E-1	9.440499E-1	9.173491E-1	9.454411E-1	8.712297E-1	9.605142E-1	9.840725E-1	8.771749E-1	8.691931E-1	9.007459E-1	9.209962E-1	8.924918E-1	9.680426E-1	9.702136E-1	9.835974E-1	9.529683E-1	9.438134E-1	8.915785E-1	8.839170E-1	8.926198E-1	9.177117E-1	8.795048E-1	9.133960E-1	9.235853E-1	9.929933E-1	9.443214E-1	1.024212E+0	9.368921E-1	9.130613E-1	9.085167E-1	9.819679E-1	9.159909E-1	9.303858E-1	9.596125E-1	1.013406E+0	8.704857E-1	9.491198E-1	9.247400E-1	8.622818E-1	9.321377E-1	9.724564E-1	9.456518E-1	9.240963E-1	9.353478E-1	8.698435E-1	8.766324E-1	9.632028E-1	9.173606E-1	8.863854E-1	9.032137E-1	8.664884E-1	9.611205E-1	9.134819E-1	8.957056E-1	8.651590E-1	9.696653E-1	9.432866E-1	9.122762E-1	9.331971E-1	8.907390E-1	9.328528E-1	9.260027E-1	9.581850E-1	9.269393E-1	9.927173E-1	9.368384E-1	9.015341E-1	9.062395E-1	9.436465E-1	9.350950E-1	9.216015E-1	9.083510E-1	9.202145E-1	8.849608E-1	9.280367E-1	8.782693E-1	9.628484E-1	9.370668E-1	9.041066E-1	9.097881E-1	8.937167E-1	8.895174E-1	1.010288E+0	9.453489E-1	9.633512E-1	1.051035E+0	8.681785E-1	1.013002E+0	9.721416E-1	9.754758E-1	9.125211E-1	8.970276E-1	9.916751E-1	9.062255E-1	8.970542E-1	8.821130E-1	9.423501E-1	1.014068E+0	8.861903E-1	9.408990E-1
5.570330E+2	1.197018E+0	1.050534E+0	1.115118E+0	1.071029E+0	1.170464E+0	1.122707E+0	1.207714E+0	1.131744E+0	1.109951E+0	1.129209E+0	1.150510E+0	1.145781E+0	1.203852E+0	1.158997E+0	1.145280E+0	1.121688E+0	1.095478E+0	1.047635E+0	1.163883E+0	1.174939E+0	1.116957E+0	1.188820E+0	1.227807E+0	1.096682E+0	1.143736E+0	1.122407E+0	1.132907E+0	1.120066E+0	1.076593E+0	1.091809E+0	1.125680E+0	1.168396E+0	1.181010E+0	1.158491E+0	1.090902E+0	1.052766E+0	1.124325E+0	1.111167E+0	1.117488E+0	1.185552E+0	1.188238E+0	1.098149E+0	1.155537E+0	1.121059E+0	1.117563E+0	1.106525E+0	1.105469E+0	1.124531E+0	1.129822E+0	1.159266E+0	1.145497E+0	1.125120E+0	1.104962E+0	1.129702E+0	1.142373E+0	1.144479E+0	1.156156E+0	1.181670E+0	1.132869E+0	1.187897E+0	1.075470E+0	1.144638E+0	1.162444E+0	1.198067E+0	1.121125E+0	1.113901E+0	1.106322E+0	1.191291E+0	1.133618E+0	1.125569E+0	1.077100E+0	1.188940E+0	1.186150E+0	1.141067E+0	1.147386E+0	1.043132E+0	1.183701E+0	1.177124E+0	1.167266E+0	1.176181E+0	1.215637E+0	1.104879E+0	1.125883E+0	1.074205E+0	1.108394E+0	1.208552E+0	1.177200E+0	1.149609E+0	1.105970E+0	1.169063E+0	1.061175E+0	1.083339E+0	1.156340E+0	1.063887E+0	1.090539E+0	1.055711E+0	1.128029E+0	1.087760E+0	1.158394E+0	1.146752E+0	1.150007E+0	1.130124E+0	1.059741E+0	1.182053E+0	1.111944E+0	1.072130E+0	1.132831E+0	1.058286E+0	1.122008E+0	1.179390E+0	1.159789E+0	1.190518E+0	1.124050E+0	1.104901E+0	1.157281E+0	1.157189E+0	1.115284E+0	1.122059E+0	1.035604E+0	1.197592E+0	1.110805E+0	1.145769E+0	1.119381E+0	1.180366E+0	1.134390E+0	1.090778E+0	1.151892E+0	1.096950E+0	1.122333E+0	1.056563E+0	1.155422E+0	1.104820E+0	1.163260E+0	1.165154E+0	1.221078E+0	1.102526E+0	1.158040E+0	1.111616E+0	1.140045E+0	1.215003E+0	1.113773E+0	1.140335E+0	1.108007E+0	1.157656E+0	1.123437E+0	1.216704E+0	1.097230E+0	1.125158E+0	1.151050E+0	1.088212E+0	1.138676E+0	1.185219E+0	1.097884E+0	1.112986E+0	1.139349E+0	1.144632E+0	1.060613E+0	1.132086E+0	1.128929E+0	1.131699E+0	1.180547E+0	1.140997E+0	1.148307E+0	1.126422E+0	1.040333E+0	1.062964E+0
5.580110E+2	1.420596E+0	1.372435E+0	1.433037E+0	1.423885E+0	1.420388E+0	1.404780E+0	1.289509E+0	1.341342E+0	1.321205E+0	1.374673E+0	1.349329E+0	1.433989E+0	1.381987E+0	1.459712E+0	1.343218E+0	1.411813E+0	1.379818E+0	1.451154E+0	1.400595E+0	1.425839E+0	1.369273E+0	1.358545E+0	1.398348E+0	1.411696E+0	1.435235E+0	1.394136E+0	1.379131E+0	1.375399E+0	1.345094E+0	1.322435E+0	1.338365E+0	1.300143E+0	1.420003E+0	1.349753E+0	1.321924E+0	1.424591E+0	1.420944E+0	1.369030E+0	1.382380E+0	1.428580E+0	1.331879E+0	1.226660E+0	1.402310E+0	1.433430E+0	1.397410E+0	1.439271E+0	1.366473E+0	1.344481E+0	1.405118E+0	1.477710E+0	1.401779E+0	1.310085E+0	1.439087E+0	1.332763E+0	1.326761E+0	1.389069E+0	1.328709E+0	1.434534E+0	1.340277E+0	1.450987E+0	1.323284E+0	1.360314E+0	1.361601E+0	1.332309E+0	1.385151E+0	1.405761E+0	1.391045E+0	1.455393E+0	1.367621E+0	1.461755E+0	1.312319E+0	1.310817E+0	1.433810E+0	1.350614E+0	1.398577E+0	1.346713E+0	1.388409E+0	1.353684E+0	1.357138E+0	1.381780E+0	1.445384E+0	1.361747E+0	1.327988E+0	1.327985E+0	1.362526E+0	1.331314E+0	1.361211E+0	1.406280E+0	1.390428E+0	1.414784E+0	1.350155E+0	1.252343E+0	1.431084E+0	1.388218E+0	1.392627E+0	1.395780E+0	1.394612E+0	1.408650E+0	1.370605E+0	1.346025E+0	1.392101E+0	1.390451E+0	1.286409E+0	1.419999E+0	1.396282E+0	1.300290E+0	1.365170E+0	1.354930E+0	1.363616E+0	1.326037E+0	1.350684E+0	1.389955E+0	1.355595E+0	1.320112E+0	1.431365E+0	1.414585E+0	1.327033E+0	1.438518E+0	1.342768E+0	1.399746E+0	1.242611E+0	1.361813E+0	1.425450E+0	1.361357E+0	1.292168E+0	1.329592E+0	1.386322E+0	1.394352E+0	1.383168E+0	1.430649E+0	1.445036E+0	1.335131E+0	1.440570E+0	1.429119E+0	1.466434E+0	1.359848E+0	1.363470E+0	1.366586E+0	1.354747E+0	1.401009E+0	1.378384E+0	1.293362E+0	1.358202E+0	1.407142E+0	1.298736E+0	1.323963E+0	1.349447E+0	1.318720E+0	1.380428E+0	1.422302E+0	1.414382E+0	1.357512E+0	1.289373E+0	1.306860E+0	1.321048E+0	1.389630E+0	1.372171E+0	1.401766E+0	1.379424E+0	1.435983E+0	1.391030E+0	1.317225E+0	1.404663E+0	1.335409E+0	1.368687E+0	1.425331E+0
5.590390E+2	1.332508E+0	1.313231E+0	1.336055E+0	1.320529E+0	1.317904E+0	1.300177E+0	1.461868E+0	1.299471E+0	1.294690E+0	1.351379E+0	1.260531E+0	1.320191E+0	1.369151E+0	1.337221E+0	1.421085E+0	1.362761E+0	1.224167E+0	1.330519E+0	1.354787E+0	1.342266E+0	1.336990E+0	1.317561E+0	1.264833E+0	1.311513E+0	1.272789E+0	1.305183E+0	1.388236E+0	1.323871E+0	1.359743E+0	1.302454E+0	1.324744E+0	1.419829E+0	1.365372E+0	1.302458E+0	1.284363E+0	1.356173E+0	1.251638E+0	1.418172E+0	1.343315E+0	1.373677E+0	1.337846E+0	1.275313E+0	1.337572E+0	1.388150E+0	1.308004E+0	1.324263E+0	1.391969E+0	1.326756E+0	1.348465E+0	1.325525E+0	1.291236E+0	1.201235E+0	1.319900E+0	1.338897E+0	1.296732E+0	1.322877E+0	1.340156E+0	1.374306E+0	1.381945E+0	1.277503E+0	1.337284E+0	1.428360E+0	1.350746E+0	1.374491E+0	1.344656E+0	1.456432E+0	1.406514E+0	1.266062E+0	1.222853E+0	1.308231E+0	1.352961E+0	1.293398E+0	1.350394E+0	1.314843E+0	1.365853E+0	1.332380E+0	1.318997E+0	1.320980E+0	1.404677E+0	1.255866E+0	1.426302E+0	1.318951E+0	1.267699E+0	1.363753E+0	1.378976E+0	1.295235E+0	1.385225E+0	1.319408E+0	1.327227E+0	1.335472E+0	1.221520E+0	1.305114E+0	1.365254E+0	1.328112E+0	1.367183E+0	1.280218E+0	1.382178E+0	1.311835E+0	1.345795E+0	1.321216E+0	1.349184E+0	1.295657E+0	1.270194E+0	1.354771E+0	1.360888E+0	1.288886E+0	1.308599E+0	1.325397E+0	1.356520E+0	1.400884E+0	1.319187E+0	1.309772E+0	1.288724E+0	1.350691E+0	1.267305E+0	1.378988E+0	1.300747E+0	1.283270E+0	1.298447E+0	1.310786E+0	1.319970E+0	1.317992E+0	1.379894E+0	1.351398E+0	1.275691E+0	1.195151E+0	1.356193E+0	1.335832E+0	1.323725E+0	1.349358E+0	1.318899E+0	1.348641E+0	1.369751E+0	1.299190E+0	1.356681E+0	1.384055E+0	1.264480E+0	1.380519E+0	1.349273E+0	1.314049E+0	1.386632E+0	1.447872E+0	1.363575E+0	1.324748E+0	1.320406E+0	1.254152E+0	1.316834E+0	1.275959E+0	1.354080E+0	1.333947E+0	1.408294E+0	1.285120E+0	1.282063E+0	1.348618E+0	1.298053E+0	1.353663E+0	1.196416E+0	1.331625E+0	1.327301E+0	1.339267E+0	1.295484E+0	1.365738E+0	1.204725E+0	1.293553E+0	1.205617E+0	1.218350E+0
5.600180E+2	1.100679E+0	1.161361E+0	1.174867E+0	1.113159E+0	1.147942E+0	1.048218E+0	1.073066E+0	1.122988E+0	1.063404E+0	1.129173E+0	1.112204E+0	1.134582E+0	1.123635E+0	1.074669E+0	1.110122E+0	1.078579E+0	1.148701E+0	1.163648E+0	1.087701E+0	1.143884E+0	1.149863E+0	1.170309E+0	1.110981E+0	1.123031E+0	1.136099E+0	1.136539E+0	1.145294E+0	1.137414E+0	1.099398E+0	1.123919E+0	1.084068E+0	1.128030E+0	1.208492E+0	1.097304E+0	1.068562E+0	1.137683E+0	1.041304E+0	1.085479E+0	1.133118E+0	1.085399E+0	1.123914E+0	1.118586E+0	1.158497E+0	1.077564E+0	1.100186E+0	1.144347E+0	1.085262E+0	1.120389E+0	1.027293E+0	1.118978E+0	1.070902E+0	1.087584E+0	1.072222E+0	1.131851E+0	1.139338E+0	1.139534E+0	1.134279E+0	1.108279E+0	1.126857E+0	1.164938E+0	1.069021E+0	1.074743E+0	1.090995E+0	1.082654E+0	1.165268E+0	1.204529E+0	1.105252E+0	1.139705E+0	1.145752E+0	1.047585E+0	1.097977E+0	1.068151E+0	1.045724E+0	1.111659E+0	1.054627E+0	1.105979E+0	1.101678E+0	1.092233E+0	1.106240E+0	1.182966E+0	1.182225E+0	1.090907E+0	1.168894E+0	1.104481E+0	1.109392E+0	1.124362E+0	1.119363E+0	1.120910E+0	1.155250E+0	1.071571E+0	1.112843E+0	1.114755E+0	1.122874E+0	1.098853E+0	1.157617E+0	1.124069E+0	1.184581E+0	1.080182E+0	1.095440E+0	1.111015E+0	1.084307E+0	1.141148E+0	1.095433E+0	1.091242E+0	1.117571E+0	1.126657E+0	1.103030E+0	1.169324E+0	1.114192E+0	1.068445E+0	1.057757E+0	1.077753E+0	1.133877E+0	1.163413E+0	1.065786E+0	1.122009E+0	1.156177E+0	1.157458E+0	1.140486E+0	1.073088E+0	1.097641E+0	1.055001E+0	1.060368E+0	1.093805E+0	1.090429E+0	1.059443E+0	1.158673E+0	1.131994E+0	1.035370E+0	1.093852E+0	1.196407E+0	1.035562E+0	1.073569E+0	1.125112E+0	1.136971E+0	1.185673E+0	1.117852E+0	1.159578E+0	1.131469E+0	1.141726E+0	1.164862E+0	1.100539E+0	1.123179E+0	1.069223E+0	1.119068E+0	1.112117E+0	1.077536E+0	1.118471E+0	1.105784E+0	1.049484E+0	1.181394E+0	1.090677E+0	1.120483E+0	1.122801E+0	1.066315E+0	1.107561E+0	1.103048E+0	1.096259E+0	1.041205E+0	1.164256E+0	1.214716E+0	1.147093E+0	1.073018E+0	1.138345E+0	1.171189E+0	1.102359E+0
5.610130E+2	9.158104E-1	9.458687E-1	9.697536E-1	9.414121E-1	9.905788E-1	8.862536E-1	9.711611E-1	9.134576E-1	9.636345E-1	9.179707E-1	9.399597E-1	9.567417E-1	9.490786E-1	1.009653E+0	9.831166E-1	9.319135E-1	9.762390E-1	9.491063E-1	9.448225E-1	8.867017E-1	9.359668E-1	8.912836E-1	9.267353E-1	9.186552E-1	9.893926E-1	9.375523E-1	9.761248E-1	9.565164E-1	9.843631E-1	9.241239E-1	9.888945E-1	9.757736E-1	9.327424E-1	9.377727E-1	9.712373E-1	9.860334E-1	9.834012E-1	9.333839E-1	9.259847E-1	9.897037E-1	9.759717E-1	9.258495E-1	9.503919E-1	9.666529E-1	9.284153E-1	9.543322E-1	9.468888E-1	9.639947E-1	9.499458E-1	9.860030E-1	8.699345E-1	9.245303E-1	9.936615E-1	9.507074E-1	9.366949E-1	9.184599E-1	9.141051E-1	9.265256E-1	9.118187E-1	1.002991E+0	9.463229E-1	9.620401E-1	9.014183E-1	9.675675E-1	9.888469E-1	9.402279E-1	9.345308E-1	9.329549E-1	9.210352E-1	9.331498E-1	9.559988E-1	9.179772E-1	9.835942E-1	9.386776E-1	9.146099E-1	9.533038E-1	9.257038E-1	9.347164E-1	8.941496E-1	9.413001E-1	9.777407E-1	9.181643E-1	9.219054E-1	9.448949E-1	9.895433E-1	9.404903E-1	9.737219E-1	9.542716E-1	9.682189E-1	9.286132E-1	9.265890E-1	9.239519E-1	9.709331E-1	1.005886E+0	8.908587E-1	9.616319E-1	9.985370E-1	9.974895E-1	9.439630E-1	9.617709E-1	9.511436E-1	9.525932E-1	9.320224E-1	9.000219E-1	9.820233E-1	9.981778E-1	9.747088E-1	8.987149E-1	9.210545E-1	9.244834E-1	9.810647E-1	9.724399E-1	8.775484E-1	9.548003E-1	9.323147E-1	9.506447E-1	9.455357E-1	9.494286E-1	9.202159E-1	8.800949E-1	9.323607E-1	9.434381E-1	9.830271E-1	8.820533E-1	9.671743E-1	9.241920E-1	9.778725E-1	9.339512E-1	9.269262E-1	9.230668E-1	9.418017E-1	9.834234E-1	8.825374E-1	1.028512E+0	1.019596E+0	9.641714E-1	9.867615E-1	9.185891E-1	9.188345E-1	9.554698E-1	9.457268E-1	9.500244E-1	9.565527E-1	1.028863E+0	1.008560E+0	9.868158E-1	9.548785E-1	9.920946E-1	9.503306E-1	9.315694E-1	9.430553E-1	9.725110E-1	9.478356E-1	9.857654E-1	9.620637E-1	9.785788E-1	9.696257E-1	9.280874E-1	9.393383E-1	1.028717E+0	9.379899E-1	1.005990E+0	9.167323E-1	1.031675E+0	9.630234E-1	7.866767E-1
5.620220E+2	8.300299E-1	8.245777E-1	8.576140E-1	7.860943E-1	8.421032E-1	8.336004E-1	8.064753E-1	7.725182E-1	8.086487E-1	8.269196E-1	8.187049E-1	8.409779E-1	7.948222E-1	8.381389E-1	8.267140E-1	8.369326E-1	8.222533E-1	8.161280E-1	7.948956E-1	8.482182E-1	8.140139E-1	8.209146E-1	8.216223E-1	7.972837E-1	8.027097E-1	8.798731E-1	8.585768E-1	8.896120E-1	8.222577E-1	8.545667E-1	8.461813E-1	7.674152E-1	8.252324E-1	8.406981E-1	7.773843E-1	8.126725E-1	8.072226E-1	8.038566E-1	8.316288E-1	8.036593E-1	7.762821E-1	7.918477E-1	7.681326E-1	8.911435E-1	8.996979E-1	8.397170E-1	8.174606E-1	8.366637E-1	8.032493E-1	7.750257E-1	7.744845E-1	8.027668E-1	8.019885E-1	8.757400E-1	8.237464E-1	8.737296E-1	8.585799E-1	8.062796E-1	8.755978E-1	7.838804E-1	8.091942E-1	7.946711E-1	8.885396E-1	8.023538E-1	8.372591E-1	7.917578E-1	7.958400E-1	7.816949E-1	7.714731E-1	8.437224E-1	8.369741E-1	8.108118E-1	7.903313E-1	8.154796E-1	8.648393E-1	8.005147E-1	8.064783E-1	8.286072E-1	8.312167E-1	7.285284E-1	8.333723E-1	7.803822E-1	7.928645E-1	7.747036E-1	8.114920E-1	8.020350E-1	7.896178E-1	8.071357E-1	8.169627E-1	7.630039E-1	7.923599E-1	8.085113E-1	8.260600E-1	8.241797E-1	8.299000E-1	8.841425E-1	8.385328E-1	8.250283E-1	7.954517E-1	7.816075E-1	7.705734E-1	7.796747E-1	8.015169E-1	8.756851E-1	8.167343E-1	8.323483E-1	8.414462E-1	8.167570E-1	8.089798E-1	8.473175E-1	8.138321E-1	8.049558E-1	8.669008E-1	7.570855E-1	8.495967E-1	7.914202E-1	7.766008E-1	7.755461E-1	8.098203E-1	7.973496E-1	8.038435E-1	8.025760E-1	8.034371E-1	8.185806E-1	8.430954E-1	8.014221E-1	8.493137E-1	8.436190E-1	8.238636E-1	8.005979E-1	7.713008E-1	8.513464E-1	7.757687E-1	8.217008E-1	7.863932E-1	8.653150E-1	7.822850E-1	8.209885E-1	8.473383E-1	8.092840E-1	8.447744E-1	8.377396E-1	8.188499E-1	7.968670E-1	8.219957E-1	7.885530E-1	7.868939E-1	8.433069E-1	8.449962E-1	8.245627E-1	8.224154E-1	8.180433E-1	8.519645E-1	7.834150E-1	8.692953E-1	8.417987E-1	8.413655E-1	8.402753E-1	8.710340E-1	7.802849E-1	8.263734E-1	8.231812E-1	8.121625E-1	7.502404E-1	8.996185E-1	8.605218E-1
5.629840E+2	9.488592E-1	9.497270E-1	8.951221E-1	9.439384E-1	8.860338E-1	8.959829E-1	9.243538E-1	9.704397E-1	9.343264E-1	9.490222E-1	8.881790E-1	9.593444E-1	8.993056E-1	9.391043E-1	9.746745E-1	9.576099E-1	8.869292E-1	9.709269E-1	9.237761E-1	9.228226E-1	9.346213E-1	9.535642E-1	9.863064E-1	9.668875E-1	8.915476E-1	9.243922E-1	9.021777E-1	9.711748E-1	9.412530E-1	9.546863E-1	8.879736E-1	9.133546E-1	9.228441E-1	9.058872E-1	9.389949E-1	9.122793E-1	9.627171E-1	9.363745E-1	9.227962E-1	9.581520E-1	9.579963E-1	9.218807E-1	9.339423E-1	9.106036E-1	9.290731E-1	9.441865E-1	9.384446E-1	9.460760E-1	9.011790E-1	9.382843E-1	9.343061E-1	9.578709E-1	9.713245E-1	9.007684E-1	9.725601E-1	8.908894E-1	9.458527E-1	9.633866E-1	9.168714E-1	9.422245E-1	1.024708E+0	9.509819E-1	9.096246E-1	9.157734E-1	9.085595E-1	9.518667E-1	9.230088E-1	8.904507E-1	9.140334E-1	9.363485E-1	8.798377E-1	9.025470E-1	8.985545E-1	9.058544E-1	9.400788E-1	9.572890E-1	9.540076E-1	8.711373E-1	9.389705E-1	9.502428E-1	9.435380E-1	9.506668E-1	8.684747E-1	9.264413E-1	9.237668E-1	9.026264E-1	9.588633E-1	9.073201E-1	9.399556E-1	9.338266E-1	9.080451E-1	9.218230E-1	9.824179E-1	9.048779E-1	8.862167E-1	8.856445E-1	9.792823E-1	8.569639E-1	9.442467E-1	9.191445E-1	9.720792E-1	8.951352E-1	9.468191E-1	8.554704E-1	9.742690E-1	8.580346E-1	9.356471E-1	9.372382E-1	9.303012E-1	9.709631E-1	9.303181E-1	9.267911E-1	9.903982E-1	9.038884E-1	9.299680E-1	8.957362E-1	9.640790E-1	9.389990E-1	9.483660E-1	9.527138E-1	9.975460E-1	9.494709E-1	8.574717E-1	1.021989E+0	9.481500E-1	9.122190E-1	9.685091E-1	9.084233E-1	9.181867E-1	9.611590E-1	9.478906E-1	8.743046E-1	9.171584E-1	9.631487E-1	8.555336E-1	9.137143E-1	9.532530E-1	9.602328E-1	9.270399E-1	9.478230E-1	9.360897E-1	9.416044E-1	8.996051E-1	9.106072E-1	9.245348E-1	8.927866E-1	9.655485E-1	9.119985E-1	8.415590E-1	9.828758E-1	8.608683E-1	9.208089E-1	8.692206E-1	8.677806E-1	9.591301E-1	8.446818E-1	9.107825E-1	9.501039E-1	9.574817E-1	8.961780E-1	9.559116E-1	9.142503E-1	9.770177E-1	1.016574E+0	9.824965E-1	9.782819E-1
5.640120E+2	1.098912E+0	1.094149E+0	1.159952E+0	1.149152E+0	1.202206E+0	1.168355E+0	1.113973E+0	1.199639E+0	1.212736E+0	1.129766E+0	1.191883E+0	1.120351E+0	1.196157E+0	1.128722E+0	1.082470E+0	1.141060E+0	1.148632E+0	1.145483E+0	1.184798E+0	1.110867E+0	1.145781E+0	1.154839E+0	1.193947E+0	1.171725E+0	1.122712E+0	1.123051E+0	1.163020E+0	1.115652E+0	1.139969E+0	1.163126E+0	1.166369E+0	1.143828E+0	1.138559E+0	1.151973E+0	1.147189E+0	1.149336E+0	1.171607E+0	1.089389E+0	1.130962E+0	1.150102E+0	1.157758E+0	1.171592E+0	1.178770E+0	1.134823E+0	1.146319E+0	1.133321E+0	1.171856E+0	1.133247E+0	1.178133E+0	1.187101E+0	1.166072E+0	1.114271E+0	1.136563E+0	1.141200E+0	1.097553E+0	1.174930E+0	1.147654E+0	1.186459E+0	1.113535E+0	1.187688E+0	1.121014E+0	1.170843E+0	1.119716E+0	1.154907E+0	1.117981E+0	1.099857E+0	1.189721E+0	1.165133E+0	1.180261E+0	1.192552E+0	1.215338E+0	1.151546E+0	1.168739E+0	1.215994E+0	1.185989E+0	1.181581E+0	1.166702E+0	1.135484E+0	1.196479E+0	1.187571E+0	1.132037E+0	1.180589E+0	1.181679E+0	1.119596E+0	1.181324E+0	1.184453E+0	1.150618E+0	1.199217E+0	1.123515E+0	1.172785E+0	1.186938E+0	1.098790E+0	1.132703E+0	1.139616E+0	1.168409E+0	1.143466E+0	1.151872E+0	1.201947E+0	1.149781E+0	1.193747E+0	1.216071E+0	1.132549E+0	1.145848E+0	1.200142E+0	1.130402E+0	1.101966E+0	1.116647E+0	1.181115E+0	1.224996E+0	1.070993E+0	1.159540E+0	1.133588E+0	1.167147E+0	1.189267E+0	1.175790E+0	1.197246E+0	1.215950E+0	1.139298E+0	1.135433E+0	1.129557E+0	1.169219E+0	1.118175E+0	1.133538E+0	1.153005E+0	1.156404E+0	1.175903E+0	1.053815E+0	1.139458E+0	1.137534E+0	1.099493E+0	1.165029E+0	1.143900E+0	1.236989E+0	1.155605E+0	1.156378E+0	1.142836E+0	1.153517E+0	1.140357E+0	1.146073E+0	1.120666E+0	1.074740E+0	1.175570E+0	1.199446E+0	1.140577E+0	1.166777E+0	1.066657E+0	1.160490E+0	1.129189E+0	1.179293E+0	1.116282E+0	1.166286E+0	1.154845E+0	1.141244E+0	1.193342E+0	1.049519E+0	1.203855E+0	1.146500E+0	1.197284E+0	1.101113E+0	1.130966E+0	1.082617E+0	1.164646E+0	1.089820E+0	1.107315E+0	1.162884E+0	1.125019E+0
5.650210E+2	1.137006E+0	1.119321E+0	1.088661E+0	1.162140E+0	1.154363E+0	1.167620E+0	1.164298E+0	1.201426E+0	1.147309E+0	1.179073E+0	1.154490E+0	1.151456E+0	1.116119E+0	1.080738E+0	1.144004E+0	1.168216E+0	1.155030E+0	1.164247E+0	1.165829E+0	1.152126E+0	1.159427E+0	1.181872E+0	1.126360E+0	1.186210E+0	1.182754E+0	1.201266E+0	1.175545E+0	1.185909E+0	1.133025E+0	1.066515E+0	1.147562E+0	1.210257E+0	1.196165E+0	1.157371E+0	1.193394E+0	1.198296E+0	1.087920E+0	1.145177E+0	1.185454E+0	1.118400E+0	1.107789E+0	1.189221E+0	1.144868E+0	1.128424E+0	1.082873E+0	1.194564E+0	1.096316E+0	1.131539E+0	1.145335E+0	1.176275E+0	1.182336E+0	1.213825E+0	1.098569E+0	1.163085E+0	1.114983E+0	1.162238E+0	1.201722E+0	1.130850E+0	1.156105E+0	1.174408E+0	1.109101E+0	1.134288E+0	1.115061E+0	1.212705E+0	1.116714E+0	1.180758E+0	1.132357E+0	1.252626E+0	1.184667E+0	1.118312E+0	1.156421E+0	1.157093E+0	1.163715E+0	1.106344E+0	1.159060E+0	1.115885E+0	1.189920E+0	1.176952E+0	1.150761E+0	1.166524E+0	1.111068E+0	1.117555E+0	1.216315E+0	1.169323E+0	1.180852E+0	1.145204E+0	1.141716E+0	1.176449E+0	1.179600E+0	1.192696E+0	1.092614E+0	1.189233E+0	1.164661E+0	1.171050E+0	1.189891E+0	1.188079E+0	1.095561E+0	1.105301E+0	1.107785E+0	1.096817E+0	1.062448E+0	1.171272E+0	1.175858E+0	1.200844E+0	1.091440E+0	1.170934E+0	1.146570E+0	1.195485E+0	1.132961E+0	1.167806E+0	1.151060E+0	1.167095E+0	1.109117E+0	1.162283E+0	1.169163E+0	1.191025E+0	1.089414E+0	1.091585E+0	1.154609E+0	1.122714E+0	1.117969E+0	1.162049E+0	1.219072E+0	1.205790E+0	1.062539E+0	1.166669E+0	1.189162E+0	1.143831E+0	1.170437E+0	1.210867E+0	1.164322E+0	1.162386E+0	1.212183E+0	1.053421E+0	1.166825E+0	1.147901E+0	1.137243E+0	1.209165E+0	1.169513E+0	1.121936E+0	1.175329E+0	1.091272E+0	1.141864E+0	1.165942E+0	1.158402E+0	1.213347E+0	1.136946E+0	1.136095E+0	1.139267E+0	1.152670E+0	1.142918E+0	1.123964E+0	1.207974E+0	1.165238E+0	1.143683E+0	1.138254E+0	1.133815E+0	1.126004E+0	1.135497E+0	1.163712E+0	1.236541E+0	1.149095E+0	1.209794E+0	1.058320E+0	1.022518E+0	1.301085E+0
5.660100E+2	1.012044E+0	1.013703E+0	1.063718E+0	1.017390E+0	9.935167E-1	1.043895E+0	1.046081E+0	1.011303E+0	1.033536E+0	1.042329E+0	1.014265E+0	1.005807E+0	1.057717E+0	1.042396E+0	1.017547E+0	9.790893E-1	1.051617E+0	9.792687E-1	1.010547E+0	1.055126E+0	1.016154E+0	1.052631E+0	1.066913E+0	9.832188E-1	1.048323E+0	1.012264E+0	9.619169E-1	9.658508E-1	1.006554E+0	1.012632E+0	9.921655E-1	1.005620E+0	9.891460E-1	1.034258E+0	9.981559E-1	1.011142E+0	1.042570E+0	1.104754E+0	1.033173E+0	1.023628E+0	1.057963E+0	1.053133E+0	1.059829E+0	1.023632E+0	1.063209E+0	1.017972E+0	1.057012E+0	9.738927E-1	1.060961E+0	1.014057E+0	1.025737E+0	1.028601E+0	1.020370E+0	1.008717E+0	1.057448E+0	9.938163E-1	9.658293E-1	1.029800E+0	1.070478E+0	9.712571E-1	1.046541E+0	1.018377E+0	1.055042E+0	1.037040E+0	1.088665E+0	1.045322E+0	1.044777E+0	1.004386E+0	1.078040E+0	1.026089E+0	1.013285E+0	1.107628E+0	1.004395E+0	1.096875E+0	9.982769E-1	1.053694E+0	9.627517E-1	1.046292E+0	1.003073E+0	1.063769E+0	1.066356E+0	1.084538E+0	1.061234E+0	1.108361E+0	9.954949E-1	1.068047E+0	1.039881E+0	1.032719E+0	9.774947E-1	1.090568E+0	1.029911E+0	1.054675E+0	9.582777E-1	1.025073E+0	1.016225E+0	9.715812E-1	1.008155E+0	1.041141E+0	1.052089E+0	1.037464E+0	1.038912E+0	1.078377E+0	1.042240E+0	1.022807E+0	1.080430E+0	1.092849E+0	1.067696E+0	1.056686E+0	1.030567E+0	1.028244E+0	9.685663E-1	1.057113E+0	1.052249E+0	1.072503E+0	9.984635E-1	9.763129E-1	1.045059E+0	1.064850E+0	1.035816E+0	1.111277E+0	1.039942E+0	1.054556E+0	1.062541E+0	1.034603E+0	9.973620E-1	1.006520E+0	1.034919E+0	1.020553E+0	1.025487E+0	9.891211E-1	1.040667E+0	9.877420E-1	1.036387E+0	1.034363E+0	1.008754E+0	1.035327E+0	1.045157E+0	1.005157E+0	9.818086E-1	1.049241E+0	1.034127E+0	1.041248E+0	1.059903E+0	9.944137E-1	9.588314E-1	1.077008E+0	1.028648E+0	9.927032E-1	1.095028E+0	1.051820E+0	1.045279E+0	1.021726E+0	1.059658E+0	1.026660E+0	1.052180E+0	1.011671E+0	1.025833E+0	1.052088E+0	9.811763E-1	9.741205E-1	1.028155E+0	1.032527E+0	9.577761E-1	9.866388E-1	1.039552E+0	1.077371E+0
5.670200E+2	1.057339E+0	1.052654E+0	9.651789E-1	9.998730E-1	9.311989E-1	1.004294E+0	9.736578E-1	9.312162E-1	8.998100E-1	9.549193E-1	9.925192E-1	9.653218E-1	9.868009E-1	9.612478E-1	9.714745E-1	9.851788E-1	9.592998E-1	9.748404E-1	9.753312E-1	1.024138E+0	9.940356E-1	9.448957E-1	8.781158E-1	9.760199E-1	9.625613E-1	9.216015E-1	9.626392E-1	9.152849E-1	9.725782E-1	1.024350E+0	9.708541E-1	9.837517E-1	9.953110E-1	9.720404E-1	9.736448E-1	9.302413E-1	9.445621E-1	9.870649E-1	9.700002E-1	9.563546E-1	9.662413E-1	9.464759E-1	9.640663E-1	9.447209E-1	9.504131E-1	9.159074E-1	9.720215E-1	1.014586E+0	9.611976E-1	9.232539E-1	1.047130E+0	9.581352E-1	9.775240E-1	9.597822E-1	9.970141E-1	9.859364E-1	9.662566E-1	9.566990E-1	9.555937E-1	9.375511E-1	9.431192E-1	9.687986E-1	1.010599E+0	9.096535E-1	9.419739E-1	9.902110E-1	9.797657E-1	9.727549E-1	9.504899E-1	9.498258E-1	9.421452E-1	9.523976E-1	9.906717E-1	9.207751E-1	9.371466E-1	9.377318E-1	9.944361E-1	1.006811E+0	9.853499E-1	9.620648E-1	9.358877E-1	9.681049E-1	9.575275E-1	9.566806E-1	9.175275E-1	9.571448E-1	9.455823E-1	9.228876E-1	9.942534E-1	9.185081E-1	1.063542E+0	1.003016E+0	9.649479E-1	9.293180E-1	1.018499E+0	9.654547E-1	9.280597E-1	9.721292E-1	1.006684E+0	1.009449E+0	9.887732E-1	9.903993E-1	9.556955E-1	9.450306E-1	9.247017E-1	9.456897E-1	9.172859E-1	9.140029E-1	9.511407E-1	9.901933E-1	9.956187E-1	9.380167E-1	9.366396E-1	9.601722E-1	9.447042E-1	9.976149E-1	9.633616E-1	1.040293E+0	9.957390E-1	1.006294E+0	9.391194E-1	9.697339E-1	9.409134E-1	8.839784E-1	1.025275E+0	1.013074E+0	9.264087E-1	1.010164E+0	9.975652E-1	1.015695E+0	9.689888E-1	9.968983E-1	9.389766E-1	9.432496E-1	1.006519E+0	9.307348E-1	9.417824E-1	9.455116E-1	1.009393E+0	9.955801E-1	9.892128E-1	9.625416E-1	9.237806E-1	9.627298E-1	9.608993E-1	9.748338E-1	9.665950E-1	9.946134E-1	9.495262E-1	9.402197E-1	1.019178E+0	9.881027E-1	9.221029E-1	9.777985E-1	9.641295E-1	9.811602E-1	9.720792E-1	9.061570E-1	1.014360E+0	1.026021E+0	9.324125E-1	9.103110E-1	1.036697E+0	1.049237E+0	9.299081E-1	8.710450E-1
