Photon Energy (eV)	#1	#2	#3	#4	#5	#6	#7	#8	#9	#10	#11	#12	#13	#14	#15	#16	#17	#18	#19	#20	#21	#22	#23	#24	#25	#26	#27	#28	#29	#30	#31	#32	#33	#34	#35	#36	#37	#38	#39	#40	#41	#42	#43	#44	#45	#46	#47	#48	#49	#50	#51	#52	#53	#54	#55	#56	#57	#58	#59	#60	#61	#62	#63	#64	#65	#66	#67	#68	#69	#70	#71	#72	#73	#74	#75	#76	#77	#78	#79	#80	#81	#82	#83	#84	#85	#86	#87	#88	#89	#90	#91	#92	#93	#94	#95	#96	#97	#98	#99	#100	#101	#102	#103	#104	#105	#106	#107	#108	#109	#110	#111	#112	#113	#114	#115	#116	#117	#118	#119	#120	#121	#122	#123	#124	#125	#126	#127	#128	#129	#130	#131	#132	#133	#134	#135	#136	#137	#138	#139	#140	#141	#142	#143	#144	#145	#146	#147	#148	#149	#150	#151	#152	#153	#154	#155	#156	#157	#158	#159	#160	#161	#162	#163	#164	#165	#166	
5.300220E+2	-1.385799E-2	-8.315072E-3	-6.488030E-3	3.186794E-3	-1.041438E-2	-6.604285E-3	-5.815962E-3	2.693569E-3	-4.839890E-3	5.520978E-4	-4.366875E-3	1.160072E-3	-4.612091E-3	-5.158445E-3	-1.347951E-2	-6.767550E-3	-6.973314E-3	-2.755889E-3	-2.099040E-3	1.705698E-3	-8.957459E-3	-1.127433E-3	-1.073644E-2	-2.737424E-3	-8.396194E-3	-3.053900E-3	-5.683870E-3	-1.846123E-4	-1.293211E-2	-1.186465E-2	-4.857931E-3	-8.358198E-3	1.221741E-3	-9.162071E-3	-1.170283E-2	-3.251969E-3	-6.144968E-3	-9.160073E-3	-1.869623E-3	-3.832604E-3	-6.043697E-3	-1.786487E-3	-1.384558E-3	-1.165927E-2	-6.944087E-3	-6.876237E-3	-8.269183E-3	-1.339465E-2	-4.003636E-3	-4.353381E-3	-7.833599E-3	-1.642433E-2	-6.960582E-3	-6.035045E-3	-1.363628E-2	-9.763926E-3	-2.903427E-3	-6.301525E-4	-1.120276E-2	-4.255350E-3	-3.892598E-3	-1.208061E-2	-1.410632E-2	2.708036E-3	-9.646197E-3	-4.754579E-3	-1.942432E-3	-1.251148E-2	-4.301341E-3	-1.266693E-2	-7.151989E-3	-1.794097E-2	-8.558366E-3	5.124460E-4	-6.405766E-3	-1.201431E-2	-7.352723E-3	-6.749139E-3	2.055712E-3	-1.980546E-3	-1.061266E-2	-8.707611E-3	-5.771334E-3	-3.660511E-3	-7.739435E-3	-2.273212E-3	-4.309102E-3	-2.803930E-3	-1.386842E-2	-2.735607E-3	-3.729180E-3	-8.210931E-3	-3.920018E-4	-1.874926E-2	-9.397725E-3	-1.253329E-2	-6.056620E-3	-3.182225E-3	-2.321468E-3	-1.288673E-2	-4.639292E-3	-7.824717E-3	-1.806397E-2	-3.164638E-3	-6.480001E-3	-1.189388E-2	-2.039811E-3	-1.174718E-2	-5.994118E-3	-9.276219E-3	-1.348858E-2	-3.590966E-3	-8.999132E-3	-3.601393E-3	2.871476E-3	-1.301303E-2	-1.218153E-3	-9.555200E-3	-1.477381E-2	1.249368E-3	-1.000005E-2	-3.233745E-3	-3.708937E-3	-1.221179E-2	-3.306980E-3	-1.067844E-2	-1.214901E-5	-9.096386E-3	-2.534742E-3	-3.371225E-3	-9.297361E-3	-3.526424E-3	-1.244766E-2	-3.040155E-3	-1.579249E-2	-1.338756E-3	-4.605366E-3	-1.364359E-3	-3.410060E-3	-3.888123E-3	-5.927059E-3	-4.313519E-3	-1.164860E-2	-1.196904E-2	-1.753421E-2	-1.254372E-2	-6.016245E-3	-1.195861E-2	3.159266E-4	-5.475480E-3	-1.058531E-2	-4.028294E-3	-3.321123E-3	-1.650609E-2	-5.347027E-3	-1.051740E-2	-9.199086E-3	-6.538756E-3	-3.056049E-4	-1.514393E-2	-1.706114E-3	1.112863E-3	-1.137339E-2	-1.878755E-2	9.229416E-3	9.371933E-3
5.305080E+2	-1.221214E-2	-5.158998E-3	-6.603481E-3	2.735678E-3	-9.336616E-3	-9.029376E-3	-6.204049E-3	-5.920190E-3	-1.065545E-2	1.226907E-4	-3.744216E-4	-3.938355E-3	-9.751217E-3	-2.046893E-3	2.425789E-3	-9.571302E-4	1.126663E-4	-8.847900E-3	-9.480045E-3	4.208638E-4	-8.607642E-4	-2.158820E-3	-8.192086E-3	-1.459944E-3	-4.066874E-3	-6.523005E-3	9.473042E-4	-6.833280E-3	-5.081897E-3	-6.327796E-3	-9.727543E-3	-9.373940E-3	-9.902333E-3	-1.153507E-3	-2.836009E-3	4.265187E-4	-2.238722E-2	-2.583608E-3	-1.227234E-2	-1.511481E-2	-7.003635E-3	-1.119777E-2	-1.120200E-2	-7.549248E-3	-3.554170E-3	-1.004149E-2	-1.281686E-2	-1.083345E-2	-9.898670E-3	-6.497993E-3	-9.963241E-3	-5.945461E-3	-4.944942E-3	-1.471204E-2	-6.298649E-3	-7.375638E-3	-8.925405E-3	-7.981892E-3	-5.104417E-3	-9.837888E-3	-8.694012E-3	-9.691554E-3	-6.314064E-3	-5.082052E-3	5.809005E-4	-6.375049E-3	2.044872E-3	-6.672772E-3	-9.048292E-3	-7.060077E-3	-6.935220E-3	-9.423519E-3	-2.323410E-3	-3.754075E-3	-7.423205E-3	1.699576E-3	-1.384713E-3	-6.534783E-3	-1.068330E-3	-3.829001E-3	-1.532913E-3	-1.020759E-2	-1.130291E-2	-7.528685E-4	6.420930E-3	-1.174587E-2	-6.413863E-3	-1.162784E-2	-4.729300E-3	-7.505657E-3	-9.177943E-3	-9.182598E-3	-8.297671E-3	-5.943730E-3	-1.265749E-3	-3.524375E-3	-7.095707E-3	-9.803615E-3	5.380004E-3	-5.830184E-3	-5.603762E-3	-3.161086E-3	-5.345842E-3	-9.412733E-3	-4.310142E-3	-9.015884E-3	-3.107390E-3	-3.868162E-3	-9.223617E-3	-3.690532E-3	-5.981513E-3	-1.119035E-2	-8.667048E-4	-7.629054E-3	-4.683664E-3	-9.556961E-3	-5.495636E-3	1.498560E-3	-5.598690E-3	-4.624135E-3	2.029000E-3	-9.231416E-3	-5.417141E-3	-7.652100E-3	-3.755080E-3	1.226861E-3	-1.656794E-2	-5.361093E-3	-7.830156E-3	1.314099E-3	-3.932198E-3	-8.069765E-3	-1.035908E-2	1.322053E-3	-4.476076E-3	-6.511239E-3	-1.122241E-2	-8.161577E-3	-4.527321E-3	-8.546797E-3	-2.962642E-3	-4.194416E-3	-3.144201E-3	-9.437558E-3	1.492054E-3	-9.078035E-3	-4.362866E-3	-9.561977E-3	3.219819E-3	-3.405545E-3	-7.718402E-3	-1.155040E-2	-4.937267E-3	-1.491826E-3	-8.696723E-3	-4.184316E-3	-4.940724E-3	-5.212598E-3	-5.742658E-3	1.685981E-3	1.415296E-3	-9.076564E-3	-1.148728E-2	-8.498887E-3	-1.198924E-2	-7.510473E-3
5.310350E+2	1.479818E-3	4.658253E-3	-5.304601E-3	-7.064751E-3	9.264927E-3	-7.648029E-3	-6.204026E-3	-5.920237E-3	-1.526367E-3	-6.962693E-3	-2.578833E-3	-8.668900E-3	-7.629571E-3	-5.520781E-4	-3.489343E-3	-7.212378E-3	-6.757030E-3	-7.155693E-3	-6.996743E-3	1.125951E-3	-4.250075E-3	-1.206723E-2	-6.430671E-3	-2.065077E-3	-1.653002E-2	-4.714791E-3	-1.379731E-2	-1.167848E-2	-8.015953E-3	4.388634E-3	-1.279658E-2	-2.060529E-3	1.339352E-3	-1.247141E-2	-4.669103E-3	-2.660161E-4	-2.570111E-3	-1.061299E-2	-7.045164E-3	-1.058683E-2	-4.569960E-3	-8.619338E-3	-8.055376E-3	-8.161676E-3	1.246243E-3	8.731790E-4	-2.170543E-3	2.822737E-4	-3.128247E-3	-2.452762E-3	-1.144136E-3	1.401581E-3	6.683697E-3	-2.027398E-3	-2.207783E-3	-1.131441E-2	-2.025199E-3	-8.612005E-3	-1.334350E-2	1.028802E-3	-4.340094E-3	-8.611088E-3	-5.373016E-4	-8.037842E-3	6.125689E-3	1.727330E-3	-9.572776E-3	-4.625434E-3	-4.776059E-3	-8.230879E-3	-4.066805E-3	-6.161553E-3	-9.602414E-3	-1.231437E-2	-4.843733E-3	-1.328517E-3	-5.445023E-3	-3.697882E-3	-4.178591E-3	-7.393971E-3	-6.485496E-3	3.905758E-3	-3.624061E-3	-9.612122E-3	-1.216691E-2	2.683580E-3	2.715173E-3	-7.497786E-3	-5.350529E-3	-9.366807E-3	8.300481E-4	-2.003485E-3	-9.989073E-3	-5.425543E-3	-6.120656E-3	-3.524360E-3	2.879860E-3	2.826797E-3	-5.513988E-3	-1.189792E-2	-5.032707E-3	-7.068095E-3	3.825943E-3	-7.708730E-3	-5.785003E-4	-3.818019E-4	-5.776281E-3	-1.011037E-2	-4.250448E-3	1.014523E-4	-5.620176E-4	-5.344638E-3	-2.157591E-3	-8.833375E-3	-4.683690E-3	-6.700856E-4	-1.056110E-2	-4.141111E-3	-3.829180E-3	-6.562795E-3	-3.043434E-3	-9.231410E-3	-4.781854E-3	-1.605560E-2	-1.131731E-2	-4.317896E-4	-7.645655E-3	-5.967932E-3	-6.592276E-3	-5.133620E-3	5.864997E-3	-6.737890E-3	-8.596793E-3	-3.570156E-3	3.162561E-3	-2.527520E-3	3.165557E-3	-2.999118E-3	-1.132156E-2	6.480158E-4	8.959509E-4	-4.730405E-3	3.848530E-3	2.198984E-3	-4.882939E-4	-8.468833E-3	-1.509399E-2	-1.166286E-2	-1.438395E-2	-6.489882E-3	-4.410794E-4	-7.443876E-3	3.550740E-5	-9.060091E-3	-1.414810E-3	-2.261920E-4	-2.351150E-3	-1.112111E-2	-8.416592E-3	-1.151259E-2	-1.977544E-3	-8.441478E-3	-2.090826E-3	-1.853073E-3	-9.138991E-3	7.785772E-3
5.315230E+2	-1.096745E-2	7.313892E-4	5.401494E-4	-7.064735E-3	-7.343629E-3	-1.248285E-2	6.574355E-4	-8.698068E-4	-5.786622E-3	-6.962701E-3	2.932250E-3	-3.347036E-3	-4.977475E-3	-1.101600E-2	-8.866870E-3	7.174624E-3	-2.177220E-3	-6.591629E-3	1.074166E-3	-2.399673E-3	-4.814983E-3	9.701610E-4	-3.494947E-3	-5.090634E-3	1.180716E-3	-2.906560E-3	4.457937E-3	5.885385E-3	-4.495148E-3	3.852823E-3	-4.203174E-3	-3.279414E-3	-5.273445E-3	6.335042E-4	-1.002900E-3	-5.806920E-3	-8.215610E-4	4.872252E-3	-6.563940E-4	6.393057E-3	-7.612054E-3	-8.840221E-4	-1.132791E-3	2.861867E-3	-2.487392E-3	-6.221357E-3	-8.085168E-3	-6.153143E-3	-6.821185E-3	-9.387346E-3	-4.671777E-3	1.275610E-2	-3.782052E-3	-2.578960E-3	1.298830E-4	-6.234258E-4	-8.925362E-3	-1.680394E-3	-3.203070E-3	-1.303396E-2	-4.340104E-3	3.814195E-3	5.239421E-3	-9.439696E-4	-5.580021E-3	-3.882008E-3	-3.763934E-3	-3.260580E-3	-5.996655E-3	-6.206907E-4	-1.198367E-3	9.061027E-4	-4.308620E-3	-2.531205E-3	2.894771E-3	1.699576E-3	-4.864979E-3	-3.130494E-3	-9.155034E-3	-9.770586E-3	2.800577E-3	2.064896E-3	-2.984174E-3	4.698961E-3	-1.100518E-2	-5.733629E-3	-3.561023E-3	-3.957726E-3	-4.108054E-3	-6.814569E-4	-4.799445E-3	1.912341E-3	7.230884E-4	-7.616999E-4	-1.461677E-2	5.831068E-3	-9.589595E-3	-7.507192E-3	-8.918370E-3	-7.852757E-3	-7.317004E-3	4.094868E-3	-6.568717E-3	4.219526E-3	-3.688257E-3	8.516794E-4	-5.109025E-3	-1.371300E-3	-9.349942E-4	-6.940810E-3	3.050966E-3	1.085657E-3	-2.802992E-3	-2.811929E-3	-5.945200E-3	-2.151214E-3	-8.028373E-3	-5.833018E-3	8.557165E-3	-2.685422E-3	-5.217380E-3	5.859445E-3	-9.700653E-4	-2.049758E-3	-3.755091E-3	-5.960539E-3	3.825830E-3	1.920607E-3	-1.340067E-2	3.248436E-3	-1.372937E-2	-9.401752E-3	2.564137E-3	4.379671E-3	-5.749165E-3	8.871002E-4	-6.843459E-3	-8.161571E-3	1.587479E-3	-2.416910E-3	-7.577261E-4	2.237592E-3	-8.229858E-3	-5.762861E-3	-7.749683E-3	3.105974E-3	-7.857996E-4	-6.060410E-3	2.542755E-3	-4.022405E-3	-2.425801E-3	-4.510633E-3	3.554457E-5	2.636345E-3	-1.088128E-2	-5.503711E-3	-1.056370E-3	-3.440030E-3	-8.416614E-3	2.943014E-3	-1.419182E-2	9.340701E-3	3.888772E-3	-1.853088E-3	2.262161E-3	-2.790549E-2
5.320120E+2	1.479853E-3	-5.813509E-3	5.401464E-4	6.355809E-4	-1.364538E-3	1.376334E-2	1.500415E-2	-2.132408E-3	2.125301E-3	7.668280E-4	-5.885507E-3	4.931404E-3	3.509157E-3	5.925615E-3	-1.101785E-2	-9.088898E-3	-2.177220E-3	3.561725E-3	-4.513364E-3	-1.086110E-2	3.658312E-3	3.577630E-3	-5.256371E-3	-3.275266E-3	1.298787E-2	-1.098348E-3	-5.371806E-3	-4.410652E-3	-2.734718E-3	-3.648711E-3	5.004060E-3	1.195688E-2	-5.273432E-3	6.590251E-3	5.107534E-3	-3.036493E-3	9.087018E-3	5.445779E-3	1.086015E-3	-6.624851E-3	-1.527819E-3	-4.751686E-3	6.419145E-3	2.249420E-3	3.913124E-3	-6.767061E-3	7.867169E-4	-1.472817E-3	-2.512779E-3	-9.965278E-3	1.649404E-2	1.401560E-3	8.693548E-4	7.300900E-4	5.973991E-3	-4.562220E-3	5.502153E-3	2.100513E-3	4.402247E-3	4.224953E-3	-3.251636E-3	1.029697E-2	1.043852E-2	-3.308584E-3	-1.358916E-2	5.466852E-3	-1.182232E-3	5.611189E-3	1.327224E-3	-3.529071E-5	2.243755E-3	5.255415E-3	1.554328E-2	-2.531202E-3	-5.488592E-3	-1.328486E-3	4.995737E-3	-2.936061E-4	-3.556540E-3	6.271680E-3	-8.342714E-3	8.376314E-4	5.974439E-3	-1.434341E-3	3.516594E-3	2.786647E-4	4.329033E-4	8.432410E-3	3.968037E-3	-2.542584E-3	-4.209827E-4	6.070678E-4	9.743882E-3	9.084245E-3	2.375464E-3	-2.276990E-3	7.244169E-3	3.400923E-3	-2.790481E-3	1.102469E-2	-3.890551E-3	5.769325E-3	-1.677110E-3	2.515481E-3	1.287333E-3	-3.817650E-4	-3.107375E-3	1.048887E-2	6.248497E-3	7.143734E-3	3.050974E-3	-8.352073E-5	1.069573E-3	-5.822656E-3	-8.468273E-3	2.292283E-3	-1.696512E-3	8.830098E-3	4.428415E-3	-7.467471E-4	-1.449333E-4	8.761549E-3	2.841682E-3	1.265641E-2	2.546762E-3	3.991244E-3	1.913954E-3	4.954619E-3	7.643505E-3	1.314102E-3	-6.731408E-3	1.253701E-3	2.144386E-4	-8.462300E-3	-1.293304E-3	-8.787633E-3	6.918940E-3	3.453889E-3	1.587448E-3	-7.320808E-3	-2.064970E-4	-2.586418E-3	-1.872796E-3	4.648803E-3	-5.769280E-3	-4.813675E-3	9.945309E-3	-1.158265E-3	-6.259098E-3	2.957184E-4	-1.764222E-3	-2.750695E-3	-7.423657E-3	2.636319E-3	4.158270E-5	1.093225E-3	-2.351130E-3	3.650129E-3	3.616213E-3	4.289855E-4	-4.013278E-3	-2.725766E-3	-2.090826E-3	9.223217E-3	-5.881203E-4	2.686934E-3
5.325120E+2	1.766132E-2	5.967240E-3	2.488417E-3	5.535815E-3	9.264948E-3	4.784415E-3	6.574671E-4	-5.288933E-3	1.516704E-3	2.699202E-3	1.767102E-4	6.705353E-3	9.874149E-3	-3.541734E-3	1.210527E-2	1.544950E-3	3.547525E-3	8.638410E-3	1.162836E-2	-2.842559E-4	7.612492E-3	9.314062E-3	4.725141E-3	4.591171E-3	9.052132E-3	5.531820E-3	8.670691E-3	8.913632E-3	1.252229E-2	-4.184503E-3	1.421129E-2	4.643422E-3	6.629575E-3	6.590273E-3	1.182892E-2	7.352642E-3	9.269947E-4	2.004636E-3	6.893964E-3	9.789025E-3	1.124912E-2	6.851267E-3	3.901828E-3	4.086661E-3	4.979909E-3	1.178781E-2	1.261597E-2	1.198313E-2	1.287450E-2	1.777310E-2	4.147291E-3	-1.938043E-3	2.613694E-3	5.693637E-3	4.220712E-3	1.569445E-2	1.177503E-2	3.990929E-3	6.937334E-3	9.338652E-3	1.035439E-2	9.756737E-3	-5.158775E-3	1.147027E-2	7.357856E-3	-4.505271E-3	5.917424E-3	7.658571E-3	6.820098E-3	8.160217E-3	9.128012E-3	1.177943E-2	3.235269E-4	1.458933E-2	4.184496E-3	-7.228860E-4	1.137618E-2	7.082337E-3	8.884461E-3	9.242454E-3	2.800539E-3	9.428378E-3	1.173359E-2	-1.434369E-3	8.163522E-3	3.886026E-3	-1.376654E-4	1.942356E-3	2.012024E-2	1.296702E-2	8.336000E-3	9.091439E-3	-4.914873E-3	1.322992E-2	9.657771E-3	-4.058833E-4	-2.731412E-3	7.419719E-3	1.294711E-3	9.002117E-3	1.209951E-2	3.536694E-3	9.328985E-3	5.923529E-3	8.128626E-3	8.869031E-3	-1.772885E-3	8.616185E-3	1.827875E-3	6.431719E-4	7.868344E-3	-6.680663E-4	8.169306E-3	9.833103E-3	1.045468E-2	1.414150E-2	4.635306E-3	2.062486E-3	5.608056E-3	1.838162E-3	2.028977E-3	5.859475E-3	1.110050E-2	1.055554E-2	4.437299E-3	-4.317311E-4	5.100497E-3	6.775091E-3	8.881385E-3	-3.844041E-3	7.264559E-3	7.913363E-3	9.613109E-3	6.214242E-3	1.462043E-2	5.439886E-3	8.795631E-3	1.506944E-2	2.266910E-3	8.616859E-3	4.754600E-3	4.917572E-3	3.428430E-5	6.486135E-3	1.403451E-2	1.163473E-2	2.075793E-3	1.424844E-2	1.865712E-3	3.380073E-3	8.159510E-3	8.982203E-3	3.143517E-3	4.700428E-3	1.498016E-3	2.412581E-3	-1.056355E-3	1.842136E-2	5.621701E-3	4.199998E-3	-6.203918E-4	-6.536285E-3	5.597246E-3	1.586904E-2	-3.438448E-3	2.053248E-2
5.330280E+2	1.641659E-2	7.930697E-3	1.482740E-2	2.035619E-3	9.929285E-3	1.721678E-2	1.904986E-3	1.743801E-2	1.916632E-2	9.784576E-3	1.009668E-2	3.157463E-3	1.358705E-2	1.638954E-2	2.232251E-2	1.530638E-2	1.442459E-2	1.315098E-2	1.038667E-2	1.029251E-2	7.612477E-3	1.491627E-3	2.938537E-2	1.003717E-2	5.772367E-3	1.276478E-2	1.077706E-2	8.308004E-3	2.073754E-2	1.778421E-2	1.236988E-2	6.471784E-3	1.125854E-2	8.972956E-3	3.274389E-3	4.582238E-3	2.190984E-2	1.003401E-2	1.386354E-2	1.997701E-2	1.550804E-2	2.038803E-2	1.145375E-2	1.817224E-2	2.846373E-3	1.724515E-2	1.793907E-2	1.958866E-2	1.349002E-2	1.488366E-2	2.971420E-3	8.748595E-3	5.520831E-3	1.892971E-2	1.181812E-2	1.794517E-2	5.502205E-3	1.281300E-2	2.151416E-2	1.253479E-2	1.416406E-2	6.515356E-3	1.043852E-2	3.194143E-3	1.475093E-2	1.232272E-2	8.499079E-3	1.380051E-2	1.597502E-2	2.045365E-2	7.980614E-3	1.558510E-2	8.926000E-3	6.029078E-3	1.708203E-2	1.199504E-2	2.675521E-3	1.332357E-2	7.018323E-3	7.459971E-3	2.137266E-2	2.678533E-3	5.974454E-3	1.219525E-2	1.281048E-2	1.290444E-2	1.127358E-2	1.551252E-2	3.968034E-3	9.865094E-3	8.961503E-3	7.786166E-3	1.312665E-2	8.566067E-3	1.936767E-2	1.643383E-2	1.534930E-2	6.845593E-3	1.286959E-2	1.844079E-2	1.438380E-2	4.653011E-3	1.850071E-2	7.627565E-3	5.640941E-3	1.195262E-2	2.091277E-2	7.991959E-3	1.232680E-2	1.201920E-2	6.061824E-3	1.979188E-2	5.587540E-3	1.886530E-2	1.045467E-2	8.957503E-3	2.236447E-2	7.138185E-3	5.608048E-3	1.153157E-2	1.434782E-2	1.216102E-3	9.358128E-4	1.475730E-2	1.515040E-2	1.228439E-2	1.338546E-2	6.775094E-3	1.383295E-2	6.472250E-3	2.056079E-2	1.856877E-2	1.901185E-2	3.156644E-3	9.528044E-3	1.283816E-2	3.791110E-3	2.163299E-3	1.381710E-2	1.290776E-2	4.203373E-3	8.669594E-3	2.101264E-2	1.383553E-2	1.601490E-2	2.016356E-2	1.423780E-2	2.615369E-2	1.269884E-2	1.571752E-2	1.477530E-2	2.130169E-2	1.246748E-2	1.708491E-2	2.480024E-2	1.692581E-2	2.095481E-2	4.241011E-3	1.364356E-2	1.739854E-2	2.109385E-2	1.632653E-2	1.755630E-2	5.900351E-3	1.366322E-2	-4.961154E-3
5.331730E+2	2.264019E-2	1.709349E-2	1.807454E-2	1.673626E-2	1.856575E-2	5.475107E-3	4.400081E-3	1.175628E-2	1.916631E-2	1.171695E-2	2.883439E-2	1.261849E-2	1.889118E-2	5.925634E-3	2.823765E-2	2.156157E-2	6.409964E-3	1.484324E-2	1.597423E-2	1.663859E-2	4.788054E-3	1.400754E-2	2.057817E-2	9.432047E-3	1.298785E-2	1.517576E-2	1.709612E-2	-2.593731E-3	1.839037E-2	1.510508E-2	3.139815E-2	1.683247E-2	2.316152E-2	2.267351E-2	2.710488E-2	2.605313E-2	1.316699E-2	2.494576E-2	2.025233E-2	1.318500E-2	1.368277E-2	2.618955E-2	2.089366E-2	1.327293E-2	2.791526E-2	1.669944E-2	2.503660E-2	1.081309E-2	2.518434E-2	-3.030708E-3	2.178549E-2	3.346141E-2	1.424227E-2	4.590633E-3	2.233752E-2	1.288104E-2	1.114777E-2	2.037472E-2	8.204877E-3	1.061711E-2	1.742949E-2	4.894663E-3	1.679301E-2	2.447571E-2	2.276007E-2	3.849960E-2	3.981169E-3	1.994256E-2	2.940213E-2	4.647863E-3	2.002805E-2	1.612874E-2	1.289644E-2	1.153216E-2	1.127813E-2	1.562877E-2	1.659657E-2	1.218880E-2	1.945938E-2	3.360292E-2	1.642011E-2	1.249646E-2	2.069226E-2	2.309891E-2	1.629574E-2	1.290443E-2	2.724931E-2	1.433251E-2	2.260520E-2	1.800111E-3	1.834399E-2	1.039669E-2	1.030769E-2	1.478451E-2	1.451273E-2	3.327361E-2	1.784320E-2	2.866179E-2	1.831658E-2	2.383435E-2	1.495490E-2	1.023451E-2	2.155799E-2	1.160364E-2	1.745779E-2	1.195262E-2	1.157157E-2	1.423419E-2	9.011333E-3	4.976918E-3	1.569653E-2	2.096102E-2	1.397815E-2	2.368247E-2	2.874688E-2	2.006618E-2	2.489715E-2	1.785350E-2	1.091651E-2	1.993253E-2	7.826067E-3	6.439873E-3	1.173583E-2	2.852340E-3	1.767111E-2	2.389481E-2	1.848389E-2	2.619296E-2	2.559295E-2	1.678857E-2	2.895837E-2	2.056666E-2	1.489992E-2	1.110639E-2	1.143771E-2	1.682191E-2	1.880459E-2	2.603968E-2	2.944383E-2	2.210256E-2	2.239393E-2	1.670954E-2	1.529127E-2	1.383550E-2	1.931552E-2	9.197910E-3	1.709941E-2	1.494874E-2	1.946946E-2	2.743810E-2	8.821056E-3	1.250205E-2	2.179146E-2	2.327713E-2	2.043110E-2	1.560644E-2	7.359689E-3	2.314818E-2	6.958679E-3	2.682609E-2	1.091531E-2	2.712293E-2	1.926481E-2	9.223263E-3	3.361517E-2	1.033503E-2
5.333080E+2	3.259802E-2	2.363834E-2	1.222974E-2	2.233658E-2	3.783172E-2	1.376334E-2	1.250905E-2	2.501369E-2	2.160074E-2	1.880238E-2	2.497666E-2	9.070632E-3	3.002988E-2	1.240327E-2	2.393571E-2	1.655744E-2	2.301175E-2	2.556063E-2	3.025343E-2	1.804884E-2	3.416210E-2	1.609358E-2	1.470666E-2	1.790361E-2	3.791405E-2	1.095653E-2	1.218125E-2	1.557578E-2	2.191118E-2	2.421406E-2	1.666660E-2	1.073795E-2	3.043558E-2	1.671678E-2	2.649387E-2	5.274830E-3	3.473274E-2	1.921042E-2	2.664110E-2	1.884498E-2	1.124909E-2	2.038803E-2	2.466959E-2	2.368402E-2	2.791534E-2	1.833662E-2	2.267078E-2	2.485402E-2	2.456886E-2	1.315003E-2	3.707194E-2	2.143898E-2	2.470803E-2	1.562070E-2	1.824663E-2	9.504906E-3	2.118433E-2	2.982691E-2	2.531681E-2	2.915450E-2	1.361985E-2	5.434873E-3	1.794836E-2	2.388453E-2	2.214399E-2	1.606225E-2	2.850727E-2	3.086157E-2	1.414404E-2	2.747840E-2	1.371747E-2	2.374007E-2	1.421985E-2	1.153213E-2	1.901667E-2	3.516415E-3	9.055973E-3	3.034499E-2	7.018314E-3	1.043078E-2	2.075361E-2	2.906431E-2	2.069223E-2	1.628412E-2	2.152355E-2	1.410693E-2	1.812030E-2	1.020246E-2	3.254501E-2	1.668935E-2	2.647541E-2	1.757578E-2	6.924876E-3	1.944838E-2	3.271870E-2	3.514472E-2	1.784319E-2	2.119838E-2	1.967831E-2	2.450856E-2	1.038632E-2	1.581600E-2	1.605491E-2	2.125982E-2	2.118941E-2	1.811981E-2	2.091279E-2	1.610685E-2	2.890408E-2	2.393694E-2	2.292255E-2	2.505300E-2	2.946843E-2	1.886525E-2	2.685459E-2	3.265598E-2	3.122899E-2	8.266151E-3	1.681479E-2	2.251742E-2	2.811588E-2	1.978953E-2	1.999463E-2	3.156437E-2	2.775404E-2	2.113046E-2	2.230774E-2	1.162953E-2	2.064140E-2	7.117029E-3	3.175756E-2	1.856880E-2	2.606085E-2	8.048808E-3	1.780317E-2	1.511462E-2	1.254902E-2	1.894129E-2	1.585535E-2	1.658569E-2	2.074025E-2	8.133578E-3	2.228400E-2	8.935900E-3	1.271425E-2	1.102556E-2	2.139184E-2	2.265211E-2	2.691721E-2	2.188627E-2	1.940635E-2	1.836846E-2	1.371064E-2	2.052509E-2	2.989761E-2	1.164829E-2	2.354436E-2	3.082921E-2	1.431206E-2	4.819519E-2	1.159386E-2	2.394752E-2	2.695278E-2	1.033086E-2	4.359112E-2	3.837819E-2
5.334580E+2	4.442293E-2	2.887422E-2	2.326992E-2	4.123740E-2	3.185262E-2	1.790753E-2	1.625168E-2	3.890238E-2	3.133851E-2	2.717600E-2	1.836333E-2	2.562751E-2	3.162114E-2	3.083975E-2	2.608668E-2	2.719129E-2	2.816404E-2	1.822768E-2	3.584100E-2	2.368981E-2	3.642155E-2	2.078699E-2	2.703679E-2	1.306274E-2	3.594622E-2	3.024440E-2	2.762802E-2	2.587188E-2	3.130012E-2	2.796480E-2	2.280474E-2	2.902147E-2	2.779044E-2	1.671673E-2	2.771592E-2	2.536046E-2	3.181838E-2	2.150459E-2	3.012589E-2	1.148701E-2	2.402604E-2	3.199100E-2	2.404027E-2	3.164547E-2	2.578174E-2	2.870557E-2	2.917684E-2	3.538473E-2	2.764635E-2	3.337592E-2	2.942877E-2	3.479725E-2	3.284806E-2	2.444477E-2	2.058429E-2	1.625715E-2	3.686643E-2	1.407326E-2	2.911948E-2	2.851525E-2	2.559309E-2	2.056138E-2	3.354567E-2	2.743150E-2	1.105442E-2	2.167157E-2	2.076217E-2	2.881428E-2	2.574023E-2	2.806381E-2	3.207547E-2	2.917675E-2	2.679271E-2	2.192673E-2	1.837179E-2	1.805126E-2	1.485645E-2	2.807545E-2	2.941220E-2	2.350223E-2	2.570618E-2	1.924639E-2	2.261196E-2	2.650627E-2	1.106786E-2	1.651179E-2	3.751941E-2	2.613272E-2	1.887775E-2	1.730974E-2	2.584992E-2	1.888107E-2	1.989225E-2	2.359403E-2	3.089806E-2	2.017604E-2	1.347888E-2	2.636534E-2	2.512529E-2	3.125050E-2	2.580531E-2	4.316528E-2	2.094649E-2	2.296386E-2	2.181137E-2	2.243687E-2	4.232127E-3	4.045129E-2	2.006288E-2	2.393696E-2	3.677243E-2	4.434386E-2	2.624125E-2	2.970391E-2	4.514681E-2	2.821250E-2	3.059585E-2	2.405719E-2	2.920122E-2	3.221079E-2	1.942029E-2	3.255872E-2	3.460642E-2	2.316083E-2	2.523333E-2	2.500060E-2	2.613159E-2	2.497937E-2	2.806872E-2	2.581540E-2	2.266017E-2	2.589439E-2	2.194894E-2	1.844469E-2	2.353215E-2	3.332583E-2	2.568584E-2	3.249266E-2	3.284093E-2	2.761938E-2	2.129148E-2	3.064557E-2	3.372675E-2	1.628529E-2	1.997564E-2	1.589913E-2	3.856166E-2	2.195184E-2	3.165671E-2	3.360685E-2	1.543690E-2	2.951475E-2	2.116981E-2	9.516606E-3	2.625663E-2	3.341814E-2	2.354437E-2	2.669327E-2	1.765447E-2	4.253877E-2	3.602242E-2	2.585277E-2	3.720354E-2	3.691404E-2	2.363917E-2	2.818066E-2
5.336080E+2	4.380053E-2	3.083770E-2	4.470083E-2	3.423701E-2	4.779688E-2	4.208167E-2	3.246974E-2	3.574583E-2	3.499014E-2	2.653187E-2	3.654998E-2	3.804523E-2	5.389865E-2	3.432771E-2	3.576615E-2	2.656575E-2	4.304843E-2	3.345768E-2	3.149512E-2	3.849735E-2	3.698647E-2	3.591046E-2	2.292675E-2	2.153434E-2	3.594621E-2	2.964166E-2	3.605353E-2	3.677358E-2	4.303629E-2	3.225140E-2	3.569491E-2	3.572548E-2	4.366110E-2	1.671676E-2	4.910231E-2	2.743833E-2	4.580702E-2	2.723981E-2	3.419146E-2	3.808900E-2	3.193554E-2	3.134637E-2	3.977343E-2	6.471614E-2	4.551671E-2	4.398608E-2	5.401818E-2	4.884078E-2	4.426457E-2	2.124040E-2	4.353930E-2	3.012187E-2	4.796531E-2	3.051134E-2	3.344137E-2	3.820183E-2	4.753026E-2	2.037470E-2	2.848570E-2	2.851524E-2	2.831430E-2	2.542347E-2	3.643405E-2	4.516614E-2	3.508185E-2	2.541113E-2	3.496148E-2	4.519298E-2	2.757118E-2	3.567407E-2	2.863337E-2	2.917676E-2	3.010136E-2	3.721297E-2	3.062443E-2	3.379731E-2	3.747820E-2	3.488407E-2	3.936507E-2	3.360291E-2	3.746856E-2	2.599621E-2	4.116913E-2	4.218031E-2	2.675141E-2	3.334621E-2	3.352556E-2	2.672264E-2	4.124239E-2	3.592126E-2	4.023640E-2	4.498683E-2	2.158368E-2	3.240357E-2	2.543632E-2	2.953150E-2	2.968918E-2	4.645915E-2	3.261493E-2	5.215052E-2	4.750615E-2	3.144420E-2	3.562131E-2	3.716423E-2	3.735988E-2	1.873656E-2	3.826065E-2	3.233648E-2	2.669376E-2	2.393693E-2	4.761143E-2	3.908270E-2	4.883128E-2	2.729532E-2	3.883917E-2	3.784006E-2	3.439497E-2	4.435996E-2	2.330295E-2	3.479576E-2	5.202894E-2	3.371953E-2	4.413585E-2	3.646633E-2	4.224822E-2	3.826968E-2	4.716287E-2	4.136317E-2	3.240133E-2	3.806604E-2	3.875556E-2	4.054558E-2	4.427083E-2	2.700601E-2	3.053418E-2	3.218759E-2	1.880460E-2	3.571923E-2	4.371173E-2	3.068435E-2	2.625251E-2	3.171758E-2	5.152654E-2	3.710868E-2	2.459650E-2	3.904884E-2	5.501615E-2	4.646255E-2	4.181273E-2	3.052247E-2	5.248536E-2	3.362122E-2	3.484500E-2	2.946937E-2	3.062577E-2	3.473753E-2	3.066565E-2	3.437437E-2	3.102429E-2	5.636579E-2	4.620102E-2	2.204231E-2	3.378661E-2	4.134451E-2	5.356699E-2	4.347679E-2
5.337630E+2	5.935981E-2	3.672806E-2	4.015487E-2	4.963778E-2	6.440548E-2	3.724684E-2	3.371728E-2	3.132670E-2	4.777104E-2	5.165279E-2	4.977670E-2	4.454967E-2	5.283762E-2	6.023825E-2	4.652093E-2	5.033549E-2	5.564293E-2	4.248290E-2	3.956604E-2	5.259975E-2	6.240636E-2	3.382440E-2	4.582540E-2	4.755420E-2	6.743210E-2	5.013499E-2	6.554279E-2	3.859042E-2	5.653284E-2	4.671863E-2	3.937777E-2	4.669568E-2	4.895134E-2	4.650070E-2	5.521265E-2	2.813091E-2	5.688115E-2	3.871045E-2	4.058023E-2	3.073091E-2	6.296509E-2	3.779247E-2	5.928262E-2	4.389385E-2	3.911623E-2	3.798300E-2	4.218895E-2	4.650068E-2	6.457581E-2	4.031051E-2	5.706212E-2	5.149511E-2	5.377962E-2	4.650503E-2	4.337632E-2	4.101536E-2	7.450356E-2	4.936148E-2	5.066783E-2	3.043288E-2	5.171672E-2	4.271091E-2	4.741005E-2	3.807225E-2	4.740371E-2	4.784849E-2	3.883403E-2	4.178071E-2	5.564608E-2	4.562574E-2	4.756506E-2	5.201087E-2	5.921753E-2	3.660152E-2	2.933459E-2	4.106474E-2	4.791887E-2	4.509698E-2	4.496349E-2	5.439845E-2	4.489739E-2	4.317769E-2	5.140787E-2	5.444698E-2	4.940532E-2	3.514987E-2	4.836006E-2	5.445299E-2	4.496977E-2	3.964360E-2	4.836798E-2	3.454453E-2	4.413570E-2	2.722152E-2	4.910405E-2	5.073706E-2	3.343005E-2	4.473690E-2	4.350889E-2	3.866663E-2	4.407978E-2	4.316533E-2	4.540450E-2	4.852446E-2	3.984777E-2	4.340535E-2	4.493289E-2	3.982710E-2	3.332469E-2	4.560561E-2	4.640716E-2	3.966728E-2	3.398641E-2	3.813392E-2	5.271612E-2	4.376468E-2	5.212414E-2	3.702838E-2	3.627921E-2	3.996553E-2	4.840578E-2	3.197826E-2	5.430055E-2	3.996783E-2	4.350878E-2	4.877441E-2	4.779986E-2	6.745574E-2	4.168561E-2	4.451377E-2	5.415112E-2	4.454145E-2	2.899797E-2	3.312126E-2	2.798797E-2	3.674055E-2	3.506926E-2	5.507844E-2	5.526198E-2	4.600904E-2	4.719919E-2	4.297362E-2	4.262661E-2	4.078324E-2	3.647879E-2	3.600275E-2	3.713084E-2	4.576227E-2	6.415607E-2	3.915871E-2	4.322312E-2	5.063399E-2	3.919616E-2	4.598202E-2	4.883075E-2	3.209876E-2	4.167126E-2	5.859923E-2	4.706806E-2	6.767883E-2	4.823664E-2	4.681038E-2	5.172532E-2	4.355981E-2	1.793861E-2	4.347680E-2
5.339090E+2	8.114248E-2	6.225301E-2	5.249391E-2	5.593810E-2	7.038462E-2	4.484442E-2	6.241068E-2	6.415464E-2	7.820133E-2	5.487358E-2	4.977658E-2	5.460219E-2	4.859433E-2	5.774705E-2	6.534223E-2	5.596523E-2	6.480252E-2	5.545668E-2	4.267014E-2	6.881768E-2	8.782611E-2	4.686184E-2	6.109147E-2	7.599434E-2	6.611996E-2	6.218997E-2	5.571295E-2	6.221101E-2	6.357439E-2	5.529189E-2	6.638577E-2	5.461859E-2	6.548321E-2	6.615812E-2	7.232188E-2	7.661362E-2	5.979546E-2	5.362216E-2	6.729685E-2	4.657880E-2	6.235675E-2	6.937844E-2	6.242932E-2	7.267738E-2	6.898564E-2	5.817515E-2	6.170729E-2	7.224224E-2	7.011530E-2	5.880262E-2	6.588110E-2	8.823020E-2	7.645540E-2	5.477746E-2	5.214244E-2	7.027506E-2	7.701266E-2	6.196440E-2	6.777986E-2	6.303320E-2	5.389354E-2	5.729708E-2	6.416251E-2	8.063529E-2	6.095760E-2	7.277871E-2	7.368677E-2	6.293650E-2	6.846274E-2	6.260233E-2	4.871249E-2	6.179668E-2	6.186453E-2	3.782440E-2	6.351297E-2	5.559956E-2	5.719951E-2	5.644457E-2	6.175899E-2	7.103503E-2	6.842207E-2	5.790476E-2	6.356581E-2	6.875822E-2	6.799321E-2	5.739536E-2	5.920094E-2	6.743340E-2	6.981945E-2	3.964356E-2	4.961890E-2	6.260824E-2	5.428407E-2	6.505062E-2	7.944742E-2	8.067456E-2	6.959147E-2	4.588510E-2	4.555162E-2	6.024084E-2	8.348370E-2	6.214231E-2	6.069089E-2	7.067673E-2	7.902969E-2	5.573977E-2	7.495830E-2	5.605684E-2	5.984827E-2	4.398055E-2	8.133282E-2	6.188095E-2	5.012218E-2	4.475754E-2	7.290043E-2	7.190669E-2	6.605415E-2	6.409871E-2	3.804864E-2	7.744673E-2	6.579707E-2	3.488036E-2	6.510066E-2	7.428218E-2	5.863284E-2	7.310093E-2	5.927156E-2	7.413087E-2	6.520552E-2	5.096144E-2	8.564215E-2	6.918217E-2	5.308213E-2	6.186296E-2	5.535967E-2	5.324443E-2	5.884068E-2	6.604860E-2	7.768306E-2	5.888172E-2	6.428746E-2	6.387754E-2	7.377602E-2	5.854426E-2	5.562247E-2	6.158896E-2	8.363235E-2	7.587542E-2	4.858344E-2	6.445074E-2	5.446999E-2	5.415382E-2	4.852018E-2	4.735810E-2	7.431765E-2	6.508345E-2	6.886180E-2	5.919000E-2	5.575847E-2	7.647774E-2	5.841532E-2	7.157858E-2	4.318310E-2	5.795902E-2	8.206978E-2	6.132243E-2
5.340640E+2	1.023026E-1	7.730610E-2	1.135397E-1	9.093951E-2	9.629370E-2	8.076055E-2	7.488595E-2	8.435627E-2	8.185305E-2	9.030028E-2	7.788335E-2	6.879385E-2	7.776720E-2	9.312509E-2	1.002956E-1	8.473907E-2	9.228129E-2	8.873721E-2	7.867875E-2	9.490682E-2	9.347466E-2	8.962445E-2	8.105439E-2	7.417906E-2	1.126929E-1	8.509417E-2	9.573404E-2	8.038049E-2	1.234286E-1	8.529791E-2	8.111713E-2	9.362348E-2	9.920836E-2	8.104990E-2	9.370782E-2	9.115834E-2	1.099209E-1	9.491616E-2	8.646316E-2	9.242446E-2	7.939255E-2	7.646896E-2	7.879162E-2	8.002623E-2	8.978746E-2	9.364750E-2	9.128010E-2	9.447388E-2	1.113532E-1	6.978255E-2	9.880561E-2	9.156988E-2	1.119225E-1	8.235277E-2	7.025932E-2	9.334480E-2	9.457664E-2	8.149881E-2	1.045389E-1	9.563300E-2	1.012424E-1	9.241223E-2	8.091518E-2	9.068486E-2	9.977104E-2	8.025796E-2	8.724084E-2	8.204501E-2	8.738268E-2	8.074971E-2	7.739680E-2	1.042026E-1	7.973123E-2	8.796325E-2	8.866300E-2	8.648627E-2	8.446176E-2	8.027457E-2	1.028145E-1	9.658375E-2	7.832731E-2	7.447232E-2	8.148327E-2	7.829879E-2	1.069117E-1	7.182468E-2	8.487586E-2	6.684314E-2	8.659284E-2	8.741338E-2	8.527203E-2	7.892431E-2	9.431378E-2	8.733348E-2	1.049355E-1	9.252464E-2	9.453031E-2	6.540483E-2	8.027607E-2	9.529897E-2	1.126084E-1	8.614259E-2	8.576014E-2	8.430892E-2	1.045296E-1	7.239117E-2	8.696812E-2	6.729283E-2	1.012913E-1	9.273473E-2	9.217215E-2	1.016316E-1	9.336603E-2	7.004757E-2	8.425423E-2	1.156007E-1	8.948178E-2	7.594203E-2	1.041096E-1	9.166373E-2	9.840593E-2	6.448162E-2	8.352406E-2	8.338602E-2	1.071574E-1	8.028842E-2	1.191782E-1	1.044714E-1	8.501169E-2	8.771335E-2	8.564219E-2	1.051442E-1	1.006631E-1	6.736648E-2	7.190997E-2	9.820339E-2	1.107625E-1	8.089056E-2	9.398925E-2	8.707915E-2	9.074654E-2	8.638971E-2	9.602592E-2	9.896572E-2	8.268760E-2	8.291106E-2	1.086715E-1	9.898548E-2	8.649918E-2	1.107158E-1	9.945741E-2	7.820616E-2	5.970888E-2	6.731105E-2	9.689171E-2	6.904150E-2	7.468814E-2	8.341495E-2	7.514460E-2	9.910376E-2	8.895094E-2	9.380599E-2	1.004161E-1	1.022643E-1	9.204565E-2	1.225073E-1
5.342090E+2	1.701404E-1	1.133028E-1	1.395162E-1	1.210410E-1	1.434624E-1	1.242739E-1	1.372631E-1	1.165527E-1	1.408879E-1	1.141329E-1	1.296877E-1	1.113685E-1	1.265654E-1	1.270084E-1	1.449286E-1	1.291510E-1	1.352170E-1	1.310425E-1	1.457289E-1	1.449710E-1	1.443145E-1	1.230002E-1	1.368334E-1	1.207729E-1	1.349951E-1	1.393412E-1	1.420743E-1	1.227758E-1	1.404457E-1	1.372726E-1	1.418850E-1	1.265339E-1	1.666585E-1	1.322780E-1	1.584781E-1	1.292518E-1	1.431437E-1	1.063868E-1	1.335077E-1	1.263842E-1	1.250245E-1	1.106333E-1	1.398361E-1	1.296322E-1	1.324576E-1	1.209344E-1	1.403711E-1	1.629235E-1	1.618233E-1	1.125458E-1	1.352579E-1	1.443351E-1	1.514600E-1	1.187518E-1	1.310383E-1	1.316076E-1	1.654597E-1	1.300200E-1	1.292564E-1	1.410174E-1	1.458703E-1	1.291478E-1	1.230856E-1	1.486184E-1	1.201021E-1	1.326115E-1	1.304843E-1	1.577959E-1	1.545184E-1	1.340209E-1	1.175547E-1	1.384535E-1	1.379635E-1	1.295417E-1	1.215518E-1	1.264567E-1	1.163638E-1	1.319062E-1	1.476019E-1	1.405515E-1	1.198047E-1	1.198806E-1	1.307556E-1	1.212319E-1	1.533811E-1	1.139107E-1	1.276681E-1	1.146340E-1	1.499592E-1	1.196732E-1	1.359374E-1	1.272201E-1	1.168657E-1	1.267173E-1	1.540918E-1	1.361833E-1	1.119874E-1	1.251121E-1	1.231712E-1	1.323795E-1	1.508702E-1	1.235389E-1	1.193901E-1	1.382703E-1	1.598823E-1	1.328300E-1	1.256670E-1	1.596772E-1	1.421818E-1	1.089862E-1	1.343236E-1	1.454746E-1	1.211193E-1	1.254448E-1	1.366081E-1	1.415213E-1	1.502675E-1	1.300827E-1	1.477569E-1	1.181590E-1	1.715942E-1	1.085935E-1	1.464183E-1	1.366084E-1	1.185004E-1	1.350232E-1	1.408469E-1	1.463411E-1	1.530958E-1	1.186625E-1	1.605207E-1	1.377767E-1	1.394325E-1	1.272955E-1	1.387476E-1	1.374713E-1	1.351591E-1	1.279979E-1	1.347546E-1	1.306011E-1	1.249227E-1	1.013972E-1	1.475178E-1	1.455120E-1	1.401186E-1	1.194632E-1	1.587503E-1	1.690159E-1	1.589457E-1	1.199691E-1	1.378292E-1	1.286576E-1	1.063289E-1	1.140969E-1	1.638860E-1	1.356706E-1	1.361902E-1	1.176839E-1	1.546949E-1	1.518985E-1	1.391652E-1	1.198444E-1	1.747335E-1	1.388164E-1	1.590272E-1	1.709454E-1
5.343600E+2	2.193072E-1	1.800602E-1	2.349815E-1	2.064447E-1	2.451070E-1	1.857455E-1	1.821747E-1	2.087227E-1	2.218329E-1	1.965812E-1	1.881048E-1	1.657696E-1	1.992323E-1	2.082285E-1	2.116091E-1	2.129708E-1	2.210884E-1	1.846299E-1	2.158833E-1	2.246495E-1	2.544664E-1	2.043535E-1	2.225571E-1	1.970167E-1	2.530669E-1	2.110678E-1	2.516056E-1	1.984823E-1	2.490056E-1	1.951415E-1	2.265915E-1	2.216081E-1	2.400605E-1	1.864845E-1	2.220263E-1	2.656959E-1	2.550517E-1	2.165038E-1	2.275972E-1	1.971339E-1	2.296733E-1	2.240840E-1	1.813718E-1	2.141459E-1	2.060642E-1	2.038857E-1	2.273162E-1	2.454143E-1	2.301431E-1	1.813137E-1	2.246248E-1	2.204777E-1	2.514659E-1	1.926537E-1	2.227907E-1	1.985671E-1	2.683342E-1	2.157203E-1	2.148156E-1	2.196415E-1	2.307715E-1	1.982974E-1	1.947176E-1	2.236948E-1	1.995777E-1	2.310866E-1	2.130986E-1	2.267232E-1	2.387432E-1	2.118789E-1	2.122133E-1	1.988005E-1	2.246503E-1	2.243159E-1	1.853941E-1	1.967083E-1	1.888688E-1	1.971553E-1	2.377996E-1	2.320519E-1	2.213323E-1	2.057878E-1	2.113833E-1	2.214094E-1	2.410923E-1	1.896655E-1	2.121116E-1	2.125750E-1	2.294776E-1	1.860546E-1	2.228818E-1	2.055372E-1	2.087652E-1	2.174034E-1	1.965726E-1	2.347270E-1	2.335647E-1	2.066363E-1	2.041955E-1	2.490152E-1	2.468108E-1	2.016796E-1	2.288397E-1	2.058635E-1	2.332711E-1	2.086862E-1	1.950587E-1	2.108631E-1	2.079381E-1	1.940354E-1	2.493375E-1	2.471901E-1	2.411692E-1	2.139603E-1	2.432073E-1	2.392777E-1	2.287822E-1	2.079101E-1	2.185361E-1	2.053996E-1	2.397104E-1	1.724397E-1	2.334536E-1	2.206436E-1	1.972730E-1	1.997099E-1	2.542876E-1	2.373625E-1	2.230367E-1	2.115097E-1	2.298009E-1	2.563180E-1	2.351816E-1	2.147435E-1	2.253186E-1	2.091777E-1	2.358750E-1	1.783321E-1	2.264767E-1	2.256143E-1	1.839041E-1	1.994856E-1	2.371529E-1	2.269679E-1	2.120731E-1	2.218083E-1	2.567612E-1	2.236402E-1	2.252983E-1	2.217531E-1	2.450049E-1	2.096146E-1	1.871362E-1	2.179884E-1	2.418024E-1	2.042785E-1	2.086976E-1	2.364447E-1	2.409302E-1	2.317179E-1	2.212723E-1	2.347938E-1	2.071943E-1	2.285345E-1	2.530863E-1	2.729202E-1
5.345110E+2	4.178411E-1	3.495719E-1	3.947393E-1	3.457508E-1	4.483958E-1	3.383878E-1	3.493453E-1	3.482415E-1	4.068499E-1	3.666307E-1	3.369047E-1	3.827830E-1	3.769211E-1	3.278162E-1	3.756218E-1	3.824869E-1	3.796641E-1	3.651338E-1	3.648838E-1	4.157368E-1	3.872143E-1	3.415068E-1	3.517300E-1	4.342206E-1	4.196783E-1	3.780280E-1	4.067755E-1	3.771495E-1	4.344361E-1	3.569596E-1	3.800460E-1	3.873789E-1	4.205890E-1	3.669744E-1	4.181689E-1	3.737430E-1	4.112571E-1	3.570183E-1	3.762812E-1	3.567446E-1	4.097676E-1	3.530063E-1	3.632472E-1	3.758240E-1	3.746119E-1	3.425017E-1	4.195405E-1	4.121510E-1	4.117128E-1	3.344527E-1	3.921879E-1	3.921312E-1	3.898467E-1	3.492809E-1	3.712314E-1	3.825655E-1	4.000641E-1	3.430092E-1	3.466411E-1	3.641053E-1	3.891452E-1	3.792750E-1	3.870843E-1	4.152296E-1	3.437424E-1	3.931332E-1	3.847814E-1	4.184898E-1	4.334365E-1	3.746193E-1	3.441610E-1	3.504831E-1	4.357424E-1	4.181455E-1	3.614452E-1	3.420568E-1	3.686821E-1	3.656673E-1	3.659422E-1	4.097047E-1	3.742434E-1	3.420124E-1	3.943958E-1	4.088164E-1	4.141918E-1	3.658251E-1	3.558929E-1	3.730572E-1	4.071517E-1	3.349469E-1	3.479812E-1	3.771824E-1	3.530973E-1	3.381459E-1	3.865209E-1	4.249537E-1	3.744697E-1	3.668133E-1	3.778179E-1	4.229570E-1	4.375495E-1	3.696825E-1	3.456263E-1	3.722909E-1	4.074144E-1	3.344977E-1	3.398466E-1	3.868926E-1	3.759208E-1	3.592587E-1	4.052992E-1	4.161306E-1	3.508917E-1	3.223459E-1	4.027911E-1	4.399743E-1	4.054405E-1	3.624365E-1	3.488883E-1	4.167158E-1	4.186957E-1	2.815583E-1	3.891009E-1	3.845119E-1	3.825466E-1	3.788422E-1	3.925827E-1	4.521726E-1	3.926279E-1	3.552928E-1	4.152476E-1	4.194791E-1	4.413657E-1	3.835236E-1	3.628133E-1	3.947049E-1	4.003978E-1	3.493378E-1	3.834234E-1	3.733443E-1	3.729760E-1	3.270531E-1	4.138791E-1	3.947788E-1	3.843658E-1	3.430393E-1	4.441986E-1	4.463376E-1	3.884716E-1	3.691855E-1	4.057692E-1	3.592083E-1	3.282393E-1	3.624744E-1	4.376871E-1	3.804167E-1	3.342909E-1	3.918385E-1	4.214225E-1	4.001569E-1	4.017718E-1	3.789568E-1	4.164791E-1	4.578143E-1	4.312283E-1	3.646974E-1
5.346620E+2	7.190647E-1	5.465722E-1	6.421688E-1	6.089627E-1	7.187837E-1	5.676968E-1	6.063384E-1	5.287944E-1	6.277750E-1	5.714627E-1	5.953757E-1	5.968402E-1	5.970438E-1	5.520438E-1	6.245985E-1	6.408267E-1	6.275472E-1	5.518425E-1	6.169441E-1	6.597088E-1	6.792593E-1	5.923465E-1	6.030295E-1	6.284616E-1	7.122335E-1	6.251531E-1	6.321573E-1	6.030570E-1	6.996728E-1	6.050455E-1	6.685394E-1	6.317694E-1	6.685680E-1	5.409125E-1	6.393649E-1	6.424752E-1	7.067652E-1	5.881500E-1	6.300894E-1	6.295552E-1	6.233238E-1	5.895773E-1	6.187538E-1	6.189537E-1	6.306347E-1	5.940845E-1	6.460701E-1	6.754193E-1	6.640648E-1	5.326666E-1	6.267757E-1	7.120624E-1	6.857951E-1	5.588519E-1	5.909702E-1	5.727530E-1	6.497242E-1	5.767940E-1	5.925462E-1	6.268238E-1	5.926911E-1	5.732180E-1	6.406845E-1	7.054863E-1	6.271430E-1	5.888369E-1	6.429513E-1	6.648519E-1	6.562046E-1	5.607763E-1	5.971571E-1	5.891524E-1	6.627160E-1	6.193121E-1	5.632910E-1	5.570508E-1	5.948989E-1	5.807052E-1	6.551964E-1	6.657864E-1	6.039182E-1	5.942114E-1	5.844468E-1	6.643713E-1	6.273714E-1	5.546105E-1	5.983817E-1	6.196808E-1	6.649661E-1	5.700727E-1	6.019330E-1	6.075658E-1	6.248480E-1	5.412827E-1	6.650715E-1	6.575919E-1	6.338341E-1	5.878459E-1	6.358690E-1	6.946573E-1	7.048122E-1	5.700577E-1	6.097727E-1	6.233517E-1	6.481058E-1	5.367812E-1	6.300900E-1	6.128598E-1	6.201594E-1	5.472338E-1	6.750707E-1	6.616502E-1	5.922826E-1	5.710321E-1	6.267130E-1	6.976957E-1	6.466838E-1	5.462895E-1	5.895383E-1	6.777915E-1	6.686958E-1	4.916696E-1	6.648187E-1	6.443208E-1	6.289484E-1	5.823013E-1	6.768216E-1	7.215960E-1	6.179243E-1	5.796737E-1	6.272868E-1	6.765415E-1	7.209763E-1	6.036720E-1	5.824231E-1	6.667346E-1	6.556276E-1	5.810028E-1	6.252978E-1	5.958581E-1	5.934681E-1	5.489572E-1	7.043969E-1	6.673182E-1	5.909852E-1	5.562588E-1	7.067537E-1	6.669343E-1	6.444034E-1	5.980456E-1	7.306047E-1	5.692268E-1	5.607168E-1	6.280526E-1	6.583313E-1	6.099896E-1	5.544027E-1	6.264060E-1	7.443028E-1	6.729272E-1	6.392720E-1	6.615664E-1	6.829973E-1	6.339279E-1	7.632842E-1	6.884682E-1
5.348070E+2	1.076924E+0	8.155662E-1	9.759716E-1	9.596785E-1	1.099452E+0	9.206403E-1	9.038772E-1	8.962133E-1	9.619005E-1	9.192909E-1	8.968332E-1	9.463083E-1	9.280223E-1	9.147941E-1	9.397181E-1	1.049916E+0	9.561473E-1	9.049533E-1	1.039112E+0	1.051756E+0	1.071852E+0	8.833405E-1	8.919061E-1	1.042358E+0	1.082191E+0	9.506355E-1	1.066070E+0	9.216292E-1	1.054691E+0	9.302888E-1	1.044194E+0	1.040103E+0	1.038221E+0	9.024881E-1	1.021263E+0	1.074663E+0	1.100775E+0	8.978548E-1	9.425586E-1	9.414217E-1	9.853375E-1	9.015679E-1	9.195718E-1	9.337364E-1	9.367943E-1	8.860524E-1	1.002721E+0	1.036391E+0	1.019202E+0	8.770845E-1	9.613141E-1	1.027319E+0	1.053842E+0	9.261540E-1	9.310967E-1	9.379356E-1	9.840683E-1	8.761133E-1	9.373203E-1	9.630533E-1	9.459025E-1	9.108608E-1	9.988439E-1	1.060180E+0	9.573669E-1	9.091915E-1	9.559825E-1	1.049750E+0	1.038877E+0	9.243083E-1	9.304684E-1	9.740680E-1	9.882872E-1	9.244248E-1	9.121680E-1	8.810564E-1	9.127619E-1	8.882256E-1	9.904833E-1	1.038323E+0	9.784553E-1	8.807736E-1	9.543108E-1	9.717184E-1	1.067669E+0	8.642426E-1	9.321596E-1	9.441849E-1	9.525995E-1	8.430423E-1	9.422040E-1	9.097398E-1	9.541068E-1	8.330334E-1	1.007342E+0	1.063617E+0	9.181383E-1	8.645675E-1	9.878805E-1	1.026361E+0	1.093714E+0	8.575047E-1	9.142750E-1	9.902888E-1	1.038061E+0	8.617927E-1	9.056542E-1	9.255935E-1	8.969997E-1	8.755131E-1	1.026134E+0	1.046882E+0	8.756260E-1	8.600615E-1	9.862495E-1	1.114641E+0	1.007598E+0	8.434991E-1	9.623113E-1	1.050018E+0	1.024493E+0	7.650468E-1	9.526070E-1	9.692574E-1	9.566438E-1	8.548695E-1	1.031801E+0	1.107524E+0	9.657726E-1	8.801367E-1	9.883839E-1	1.027504E+0	1.065790E+0	9.449017E-1	9.503494E-1	9.581133E-1	1.057239E+0	8.739720E-1	9.935453E-1	9.397438E-1	8.927859E-1	8.298205E-1	1.092176E+0	1.070922E+0	9.487741E-1	9.047213E-1	1.070181E+0	1.068910E+0	1.045227E+0	9.169686E-1	1.046840E+0	9.194536E-1	8.547325E-1	9.479852E-1	1.038449E+0	9.246632E-1	9.318299E-1	9.295116E-1	1.074536E+0	1.057572E+0	9.853428E-1	9.981574E-1	1.030667E+0	9.817241E-1	1.118144E+0	1.012237E+0
5.349580E+2	1.630830E+0	1.293341E+0	1.429921E+0	1.336297E+0	1.528618E+0	1.505653E+0	1.293733E+0	1.255424E+0	1.419573E+0	1.451341E+0	1.318432E+0	1.353135E+0	1.349703E+0	1.346805E+0	1.395190E+0	1.454628E+0	1.368903E+0	1.322934E+0	1.432104E+0	1.593289E+0	1.512463E+0	1.473676E+0	1.360450E+0	1.453835E+0	1.592522E+0	1.444887E+0	1.558258E+0	1.337106E+0	1.484821E+0	1.362164E+0	1.480004E+0	1.480124E+0	1.479957E+0	1.328395E+0	1.448380E+0	1.438977E+0	1.559483E+0	1.311368E+0	1.392676E+0	1.371009E+0	1.468426E+0	1.296712E+0	1.428069E+0	1.367941E+0	1.335765E+0	1.399583E+0	1.429753E+0	1.506181E+0	1.417426E+0	1.221503E+0	1.404029E+0	1.456117E+0	1.563755E+0	1.291801E+0	1.354795E+0	1.367267E+0	1.441358E+0	1.295160E+0	1.330893E+0	1.363841E+0	1.357891E+0	1.279300E+0	1.403217E+0	1.470439E+0	1.315315E+0	1.339238E+0	1.387126E+0	1.462629E+0	1.451459E+0	1.314769E+0	1.306236E+0	1.316034E+0	1.503777E+0	1.398297E+0	1.331337E+0	1.297723E+0	1.312991E+0	1.258158E+0	1.468840E+0	1.520184E+0	1.378993E+0	1.338538E+0	1.368967E+0	1.577556E+0	1.465569E+0	1.268270E+0	1.345818E+0	1.351880E+0	1.455181E+0	1.220856E+0	1.350030E+0	1.335918E+0	1.347074E+0	1.244490E+0	1.507402E+0	1.413508E+0	1.411305E+0	1.214202E+0	1.441340E+0	1.422785E+0	1.464912E+0	1.245975E+0	1.322112E+0	1.409482E+0	1.473423E+0	1.263278E+0	1.309991E+0	1.260175E+0	1.332982E+0	1.258506E+0	1.477760E+0	1.454910E+0	1.302255E+0	1.228575E+0	1.435354E+0	1.517515E+0	1.557835E+0	1.296928E+0	1.356904E+0	1.413843E+0	1.612899E+0	1.034362E+0	1.426536E+0	1.453158E+0	1.356181E+0	1.287218E+0	1.473454E+0	1.574770E+0	1.367467E+0	1.274093E+0	1.410362E+0	1.526978E+0	1.513405E+0	1.313648E+0	1.321458E+0	1.390060E+0	1.399421E+0	1.219857E+0	1.369267E+0	1.373125E+0	1.274789E+0	1.224318E+0	1.437366E+0	1.480651E+0	1.301280E+0	1.242826E+0	1.517312E+0	1.511501E+0	1.465010E+0	1.281541E+0	1.442465E+0	1.320717E+0	1.208422E+0	1.285118E+0	1.464442E+0	1.315201E+0	1.278182E+0	1.323609E+0	1.537131E+0	1.508208E+0	1.406058E+0	1.445255E+0	1.407380E+0	1.413701E+0	1.534284E+0	1.386996E+0
5.351090E+2	2.006735E+0	1.592442E+0	1.789699E+0	1.694713E+0	1.965757E+0	1.943549E+0	1.685461E+0	1.581808E+0	1.810908E+0	1.895785E+0	1.672245E+0	1.645835E+0	1.646205E+0	1.675174E+0	1.730206E+0	1.889989E+0	1.733574E+0	1.773629E+0	1.795912E+0	1.914824E+0	1.858738E+0	1.959709E+0	1.725657E+0	1.784225E+0	1.969038E+0	1.972288E+0	1.866492E+0	1.682326E+0	1.928446E+0	1.775819E+0	1.907834E+0	1.857374E+0	1.909787E+0	1.666142E+0	1.914601E+0	1.833762E+0	1.954073E+0	1.746676E+0	1.795171E+0	1.776829E+0	1.794544E+0	1.680255E+0	1.730774E+0	1.681498E+0	1.684058E+0	1.672998E+0	1.830174E+0	1.892890E+0	1.874740E+0	1.569386E+0	1.798542E+0	1.908962E+0	1.864358E+0	1.602298E+0	1.627718E+0	1.685183E+0	1.844076E+0	1.646153E+0	1.669966E+0	1.758880E+0	1.703484E+0	1.599115E+0	1.767733E+0	1.926814E+0	1.581463E+0	1.644637E+0	1.762116E+0	1.910992E+0	1.769436E+0	1.676542E+0	1.620043E+0	1.724870E+0	1.826699E+0	1.645320E+0	1.696335E+0	1.616276E+0	1.658115E+0	1.652489E+0	1.789818E+0	1.858855E+0	1.642718E+0	1.575396E+0	1.765708E+0	1.846054E+0	1.854168E+0	1.582707E+0	1.625392E+0	1.656915E+0	1.855879E+0	1.543459E+0	1.639634E+0	1.592404E+0	1.703962E+0	1.594279E+0	1.804761E+0	1.875045E+0	1.654461E+0	1.543743E+0	1.763395E+0	1.877194E+0	1.844675E+0	1.559097E+0	1.616219E+0	1.780389E+0	1.871464E+0	1.538333E+0	1.649610E+0	1.677778E+0	1.674472E+0	1.598160E+0	1.864350E+0	1.854760E+0	1.683702E+0	1.541088E+0	1.764613E+0	2.044806E+0	1.854798E+0	1.562556E+0	1.706674E+0	1.841000E+0	1.907103E+0	1.667597E+0	1.786750E+0	1.848125E+0	1.710341E+0	1.632767E+0	1.881967E+0	1.879993E+0	1.711603E+0	1.607441E+0	1.742768E+0	1.826663E+0	1.874078E+0	1.627361E+0	1.676651E+0	1.749163E+0	1.782892E+0	1.527666E+0	1.696747E+0	1.652034E+0	1.627026E+0	1.483203E+0	1.883632E+0	1.883643E+0	1.632665E+0	1.555348E+0	1.925097E+0	1.912077E+0	1.782556E+0	1.617120E+0	1.777887E+0	1.659213E+0	1.526060E+0	1.703440E+0	1.886800E+0	1.610083E+0	1.641368E+0	1.637349E+0	1.854666E+0	1.806119E+0	1.680876E+0	1.750725E+0	1.867805E+0	1.741560E+0	1.954700E+0	1.797442E+0
5.352500E+2	2.265642E+0	1.803839E+0	1.944905E+0	1.847319E+0	2.200933E+0	2.203254E+0	1.964911E+0	1.747844E+0	1.953329E+0	2.048442E+0	1.878360E+0	1.913112E+0	1.890725E+0	1.835619E+0	1.946376E+0	2.081399E+0	1.987751E+0	1.930441E+0	2.006373E+0	2.166552E+0	2.121407E+0	2.134412E+0	1.985179E+0	2.008117E+0	2.233388E+0	2.221825E+0	2.115746E+0	1.971830E+0	2.211286E+0	2.042119E+0	2.131880E+0	2.073731E+0	2.113460E+0	2.019975E+0	2.096082E+0	2.084485E+0	2.243754E+0	2.103983E+0	1.917721E+0	1.939837E+0	2.007490E+0	2.105053E+0	1.931529E+0	1.961985E+0	1.879276E+0	1.954594E+0	2.043099E+0	2.104092E+0	2.079697E+0	1.893003E+0	2.017842E+0	2.213535E+0	2.121930E+0	2.001588E+0	1.916417E+0	1.872558E+0	2.106906E+0	2.011004E+0	1.805590E+0	1.935942E+0	1.889071E+0	1.945946E+0	1.987251E+0	2.104158E+0	1.803873E+0	1.827250E+0	2.008670E+0	2.075463E+0	2.086195E+0	1.888459E+0	1.822551E+0	1.880899E+0	2.068229E+0	1.907633E+0	1.865295E+0	1.833693E+0	1.901154E+0	1.836319E+0	2.049215E+0	2.094733E+0	1.917585E+0	1.804888E+0	1.932723E+0	2.120011E+0	2.055732E+0	1.795545E+0	1.813107E+0	1.890557E+0	2.073317E+0	1.755628E+0	1.946754E+0	1.890662E+0	1.919891E+0	1.738863E+0	2.020807E+0	1.999782E+0	1.903223E+0	1.744106E+0	1.938379E+0	2.113163E+0	2.073103E+0	1.815848E+0	1.884647E+0	1.978058E+0	2.144496E+0	1.719035E+0	1.830430E+0	1.858175E+0	1.892186E+0	1.733589E+0	2.089564E+0	2.095603E+0	1.841832E+0	1.742805E+0	1.991060E+0	2.195146E+0	1.996000E+0	1.762763E+0	1.868876E+0	1.949569E+0	2.107829E+0	1.819669E+0	1.940489E+0	2.072919E+0	1.930905E+0	1.789783E+0	2.130519E+0	2.176724E+0	1.860770E+0	1.751224E+0	1.968104E+0	2.017794E+0	2.121379E+0	1.769237E+0	1.866981E+0	1.914772E+0	1.989955E+0	1.695444E+0	1.854375E+0	1.845739E+0	1.780265E+0	1.735123E+0	2.109943E+0	2.016540E+0	1.843907E+0	1.721049E+0	2.133993E+0	2.092762E+0	2.018853E+0	1.826238E+0	2.002822E+0	1.794139E+0	1.700727E+0	1.814899E+0	2.098704E+0	1.836359E+0	1.810984E+0	1.842374E+0	2.221667E+0	2.024837E+0	1.936022E+0	1.941251E+0	1.973731E+0	1.978594E+0	2.162768E+0	1.958054E+0
5.354110E+2	2.260035E+0	1.860124E+0	2.053361E+0	1.922923E+0	2.213556E+0	2.242620E+0	1.926860E+0	1.824229E+0	1.990449E+0	2.112856E+0	1.958822E+0	1.990572E+0	1.935280E+0	1.874489E+0	1.995313E+0	2.090783E+0	2.002062E+0	1.950750E+0	2.076530E+0	2.194051E+0	2.236078E+0	2.187082E+0	2.083818E+0	1.990564E+0	2.253065E+0	2.281495E+0	2.252663E+0	1.948811E+0	2.244152E+0	2.021760E+0	2.113463E+0	2.114565E+0	2.192812E+0	2.003894E+0	2.061858E+0	2.126045E+0	2.253080E+0	2.063262E+0	1.965925E+0	1.961909E+0	2.059206E+0	2.094094E+0	1.993834E+0	2.006693E+0	1.902746E+0	2.062105E+0	2.126496E+0	2.198865E+0	2.109851E+0	1.914383E+0	1.982563E+0	2.212865E+0	2.155072E+0	2.176415E+0	1.910573E+0	2.031795E+0	2.113806E+0	2.115614E+0	1.877844E+0	1.930830E+0	1.981591E+0	1.980520E+0	1.988982E+0	2.153814E+0	1.922161E+0	1.942555E+0	2.021578E+0	2.192843E+0	2.120372E+0	2.149547E+0	1.830587E+0	1.910803E+0	2.165506E+0	2.182783E+0	1.903985E+0	1.827030E+0	1.944077E+0	1.950931E+0	2.084669E+0	2.174348E+0	1.983827E+0	1.934363E+0	2.024228E+0	2.137730E+0	2.112655E+0	1.956673E+0	1.952894E+0	1.951919E+0	2.041633E+0	1.919412E+0	1.956760E+0	1.867821E+0	1.907492E+0	1.836285E+0	2.082708E+0	2.045311E+0	1.930658E+0	1.776257E+0	1.997616E+0	2.166422E+0	2.176472E+0	1.841522E+0	1.882812E+0	2.004188E+0	2.104688E+0	1.800443E+0	1.915834E+0	1.873779E+0	1.953521E+0	1.756340E+0	2.119069E+0	2.081573E+0	1.861843E+0	1.747622E+0	1.958891E+0	2.273646E+0	2.093509E+0	1.811262E+0	1.925501E+0	2.121463E+0	2.131740E+0	1.845206E+0	2.003384E+0	2.084125E+0	1.932798E+0	1.953993E+0	2.161109E+0	2.281701E+0	1.975894E+0	1.779593E+0	1.931013E+0	2.132338E+0	2.069103E+0	1.860961E+0	1.856797E+0	1.950624E+0	2.075658E+0	1.742551E+0	1.908727E+0	1.829801E+0	1.839796E+0	1.658476E+0	2.113122E+0	2.132908E+0	1.853808E+0	1.756384E+0	2.153310E+0	2.082953E+0	2.119737E+0	1.917535E+0	2.098752E+0	1.829340E+0	1.743617E+0	1.876133E+0	2.018601E+0	1.903647E+0	1.807099E+0	1.879598E+0	2.122060E+0	2.056258E+0	1.955699E+0	2.026350E+0	1.994233E+0	2.036192E+0	2.181295E+0	2.067678E+0
5.355630E+2	2.159837E+0	1.763916E+0	1.948803E+0	1.758415E+0	2.101279E+0	2.067187E+0	1.787760E+0	1.663250E+0	1.919240E+0	2.070346E+0	1.744440E+0	1.780065E+0	1.803739E+0	1.765860E+0	1.794198E+0	1.979440E+0	1.870966E+0	1.861625E+0	1.982164E+0	2.012835E+0	2.041196E+0	2.026461E+0	1.873032E+0	1.948212E+0	2.119908E+0	2.078371E+0	2.077132E+0	1.790738E+0	2.127960E+0	1.906555E+0	2.003589E+0	2.016444E+0	2.026834E+0	1.851400E+0	1.956150E+0	1.941115E+0	2.086382E+0	1.954864E+0	1.874159E+0	1.844184E+0	1.891280E+0	1.940033E+0	1.813845E+0	1.843789E+0	1.843009E+0	1.833444E+0	1.949057E+0	2.038565E+0	1.880893E+0	1.791874E+0	1.954342E+0	2.050559E+0	2.049834E+0	1.998275E+0	1.782002E+0	1.855676E+0	1.942558E+0	1.968161E+0	1.798623E+0	1.868827E+0	1.770428E+0	1.840600E+0	1.838787E+0	1.983564E+0	1.751504E+0	1.734386E+0	1.891846E+0	1.969001E+0	1.928731E+0	1.993833E+0	1.779525E+0	1.758033E+0	1.904786E+0	2.039094E+0	1.754373E+0	1.733764E+0	1.815887E+0	1.742135E+0	1.900545E+0	1.940255E+0	1.853205E+0	1.837415E+0	1.841216E+0	1.984402E+0	1.950014E+0	2.014391E+0	1.693860E+0	1.798514E+0	1.953415E+0	2.000681E+0	1.806016E+0	1.709227E+0	1.822922E+0	1.770470E+0	1.902468E+0	2.012259E+0	1.769178E+0	1.730901E+0	1.861443E+0	1.989112E+0	1.974880E+0	1.919104E+0	1.736064E+0	1.859911E+0	1.991497E+0	1.929952E+0	1.704991E+0	1.747065E+0	1.763992E+0	1.743343E+0	1.949257E+0	1.982195E+0	1.699838E+0	1.677173E+0	1.924830E+0	2.181075E+0	1.963072E+0	1.637562E+0	1.841744E+0	1.939225E+0	2.071596E+0	1.744214E+0	1.895385E+0	1.937764E+0	1.790374E+0	1.767115E+0	1.943150E+0	1.969800E+0	1.826724E+0	1.745422E+0	1.829543E+0	1.985827E+0	1.979225E+0	1.697689E+0	1.746036E+0	1.817458E+0	1.926768E+0	1.670280E+0	1.780322E+0	1.766663E+0	1.719080E+0	1.638106E+0	1.968179E+0	2.000003E+0	1.761391E+0	1.659519E+0	1.995208E+0	1.964603E+0	1.895629E+0	1.775658E+0	1.893000E+0	1.736650E+0	1.632353E+0	1.700689E+0	1.978549E+0	1.719594E+0	1.702221E+0	1.765565E+0	2.081282E+0	1.926787E+0	1.830841E+0	1.795819E+0	1.873788E+0	1.961977E+0	2.128566E+0	2.024337E+0
5.357040E+2	1.895334E+0	1.557098E+0	1.759820E+0	1.633806E+0	1.856801E+0	1.846855E+0	1.586907E+0	1.501634E+0	1.715966E+0	1.833306E+0	1.543284E+0	1.633419E+0	1.552851E+0	1.536649E+0	1.646317E+0	1.742995E+0	1.597321E+0	1.648405E+0	1.713342E+0	1.773799E+0	1.815804E+0	1.844458E+0	1.695710E+0	1.732789E+0	1.869332E+0	1.886096E+0	1.792769E+0	1.667792E+0	1.794653E+0	1.737239E+0	1.818217E+0	1.864081E+0	1.831753E+0	1.681634E+0	1.750235E+0	1.776972E+0	1.838670E+0	1.777071E+0	1.720825E+0	1.696459E+0	1.688071E+0	1.707331E+0	1.699310E+0	1.583511E+0	1.578454E+0	1.653351E+0	1.690588E+0	1.827364E+0	1.764565E+0	1.568811E+0	1.658611E+0	1.836829E+0	1.852725E+0	1.734106E+0	1.544147E+0	1.673365E+0	1.749983E+0	1.797386E+0	1.585671E+0	1.632315E+0	1.626745E+0	1.633691E+0	1.635444E+0	1.753607E+0	1.508150E+0	1.660842E+0	1.657560E+0	1.770413E+0	1.725493E+0	1.861532E+0	1.565539E+0	1.616137E+0	1.772435E+0	1.817140E+0	1.564781E+0	1.582362E+0	1.596632E+0	1.569083E+0	1.706464E+0	1.783990E+0	1.626003E+0	1.647806E+0	1.662684E+0	1.823568E+0	1.744965E+0	1.774503E+0	1.570049E+0	1.646884E+0	1.709268E+0	1.708478E+0	1.583338E+0	1.537581E+0	1.609241E+0	1.555414E+0	1.730725E+0	1.787727E+0	1.598348E+0	1.596560E+0	1.704161E+0	1.774718E+0	1.826974E+0	1.818078E+0	1.566690E+0	1.714502E+0	1.781906E+0	1.736301E+0	1.528177E+0	1.558551E+0	1.541855E+0	1.559700E+0	1.746928E+0	1.788702E+0	1.575268E+0	1.526033E+0	1.720462E+0	1.890768E+0	1.728163E+0	1.705801E+0	1.626457E+0	1.718865E+0	1.809275E+0	1.772654E+0	1.685101E+0	1.750085E+0	1.639761E+0	1.644378E+0	1.764066E+0	1.862397E+0	1.680036E+0	1.572624E+0	1.690282E+0	1.752738E+0	1.760706E+0	1.573551E+0	1.601539E+0	1.617133E+0	1.683427E+0	1.488303E+0	1.662099E+0	1.564377E+0	1.597256E+0	1.476771E+0	1.798448E+0	1.759927E+0	1.591080E+0	1.524277E+0	1.804191E+0	1.839247E+0	1.723652E+0	1.591828E+0	1.731578E+0	1.470899E+0	1.493735E+0	1.543818E+0	1.822715E+0	1.563905E+0	1.532606E+0	1.528632E+0	1.812553E+0	1.725670E+0	1.700557E+0	1.625615E+0	1.731984E+0	1.673994E+0	1.792233E+0	1.634284E+0
5.358600E+2	1.651988E+0	1.341119E+0	1.422772E+0	1.413298E+0	1.640227E+0	1.583012E+0	1.333031E+0	1.298357E+0	1.502346E+0	1.587251E+0	1.331656E+0	1.422320E+0	1.410701E+0	1.360259E+0	1.435519E+0	1.584112E+0	1.454775E+0	1.400775E+0	1.449487E+0	1.586235E+0	1.540708E+0	1.562332E+0	1.471421E+0	1.482272E+0	1.625322E+0	1.569654E+0	1.554049E+0	1.448544E+0	1.547022E+0	1.496119E+0	1.524811E+0	1.533150E+0	1.588403E+0	1.449319E+0	1.497872E+0	1.526244E+0	1.664394E+0	1.481133E+0	1.458886E+0	1.403273E+0	1.506758E+0	1.535862E+0	1.446320E+0	1.424895E+0	1.373632E+0	1.439423E+0	1.478848E+0	1.543619E+0	1.466665E+0	1.405271E+0	1.477525E+0	1.522245E+0	1.603876E+0	1.487035E+0	1.402134E+0	1.445476E+0	1.569325E+0	1.516341E+0	1.354977E+0	1.379184E+0	1.418303E+0	1.423541E+0	1.454633E+0	1.552020E+0	1.391712E+0	1.443947E+0	1.513630E+0	1.582055E+0	1.536293E+0	1.527853E+0	1.375077E+0	1.394864E+0	1.499144E+0	1.564611E+0	1.377124E+0	1.358283E+0	1.433059E+0	1.388657E+0	1.480037E+0	1.485723E+0	1.409949E+0	1.410330E+0	1.457914E+0	1.634117E+0	1.555601E+0	1.531004E+0	1.317289E+0	1.374892E+0	1.522895E+0	1.524846E+0	1.383178E+0	1.378988E+0	1.379776E+0	1.398917E+0	1.497690E+0	1.505815E+0	1.378260E+0	1.387008E+0	1.419553E+0	1.498971E+0	1.609394E+0	1.569145E+0	1.429727E+0	1.383351E+0	1.518199E+0	1.529700E+0	1.322672E+0	1.385643E+0	1.381609E+0	1.384725E+0	1.532560E+0	1.505772E+0	1.335172E+0	1.370077E+0	1.512941E+0	1.636011E+0	1.500214E+0	1.552969E+0	1.421785E+0	1.525641E+0	1.586088E+0	1.585759E+0	1.451949E+0	1.490975E+0	1.400922E+0	1.460272E+0	1.602192E+0	1.611178E+0	1.419459E+0	1.425612E+0	1.444653E+0	1.538965E+0	1.558047E+0	1.548473E+0	1.395932E+0	1.416240E+0	1.520155E+0	1.510888E+0	1.429735E+0	1.358414E+0	1.335423E+0	1.299891E+0	1.524456E+0	1.540669E+0	1.418126E+0	1.281207E+0	1.648948E+0	1.562627E+0	1.544228E+0	1.395044E+0	1.517886E+0	1.355918E+0	1.269960E+0	1.338786E+0	1.506679E+0	1.352142E+0	1.328032E+0	1.350790E+0	1.605317E+0	1.483069E+0	1.417593E+0	1.439537E+0	1.506470E+0	1.460221E+0	1.587013E+0	1.415037E+0
5.360070E+2	1.362588E+0	1.095686E+0	1.190282E+0	1.187889E+0	1.335960E+0	1.426918E+0	1.178334E+0	1.074874E+0	1.211430E+0	1.318005E+0	1.098540E+0	1.166279E+0	1.166178E+0	1.166429E+0	1.202675E+0	1.307004E+0	1.173688E+0	1.174583E+0	1.266340E+0	1.327457E+0	1.297807E+0	1.272900E+0	1.281773E+0	1.237204E+0	1.339980E+0	1.405707E+0	1.290751E+0	1.180243E+0	1.307018E+0	1.242138E+0	1.300155E+0	1.271084E+0	1.347701E+0	1.207475E+0	1.245515E+0	1.296298E+0	1.352568E+0	1.319970E+0	1.208564E+0	1.186495E+0	1.203760E+0	1.294779E+0	1.229829E+0	1.189115E+0	1.151213E+0	1.226586E+0	1.277749E+0	1.256951E+0	1.226625E+0	1.169493E+0	1.212363E+0	1.261755E+0	1.308507E+0	1.300073E+0	1.191161E+0	1.202961E+0	1.221181E+0	1.325406E+0	1.135691E+0	1.234721E+0	1.160875E+0	1.173414E+0	1.209698E+0	1.238117E+0	1.118165E+0	1.243883E+0	1.246422E+0	1.307713E+0	1.282398E+0	1.342282E+0	1.134125E+0	1.213823E+0	1.302611E+0	1.344491E+0	1.221708E+0	1.129964E+0	1.174360E+0	1.208795E+0	1.182695E+0	1.265884E+0	1.249611E+0	1.199244E+0	1.226271E+0	1.315865E+0	1.292468E+0	1.270673E+0	1.146690E+0	1.167800E+0	1.291794E+0	1.299025E+0	1.228681E+0	1.129680E+0	1.210637E+0	1.192151E+0	1.268901E+0	1.238874E+0	1.168775E+0	1.198125E+0	1.156737E+0	1.287274E+0	1.354123E+0	1.276675E+0	1.108716E+0	1.236234E+0	1.288703E+0	1.271910E+0	1.229927E+0	1.174656E+0	1.177707E+0	1.130120E+0	1.248935E+0	1.326306E+0	1.215768E+0	1.183413E+0	1.205755E+0	1.376068E+0	1.349516E+0	1.316666E+0	1.158132E+0	1.241947E+0	1.362173E+0	1.290324E+0	1.223878E+0	1.254277E+0	1.207456E+0	1.210923E+0	1.324962E+0	1.329013E+0	1.166312E+0	1.249591E+0	1.236113E+0	1.269252E+0	1.333065E+0	1.343614E+0	1.206879E+0	1.180064E+0	1.218633E+0	1.298585E+0	1.183783E+0	1.138350E+0	1.120994E+0	1.162140E+0	1.331840E+0	1.355711E+0	1.191042E+0	1.110631E+0	1.392115E+0	1.319620E+0	1.311317E+0	1.326572E+0	1.316103E+0	1.110114E+0	1.071048E+0	1.229388E+0	1.257636E+0	1.168748E+0	1.170070E+0	1.203075E+0	1.400762E+0	1.292001E+0	1.272378E+0	1.227422E+0	1.258745E+0	1.291861E+0	1.336189E+0	1.282470E+0
5.362630E+2	1.066965E+0	8.711973E-1	8.986906E-1	8.567732E-1	1.064242E+0	1.050490E+0	8.427480E-1	8.305580E-1	9.241666E-1	1.008181E+0	8.152686E-1	8.747591E-1	8.866501E-1	8.988493E-1	9.327288E-1	9.423271E-1	9.653081E-1	9.167997E-1	9.050117E-1	1.020730E+0	9.888159E-1	9.704312E-1	9.353549E-1	9.382791E-1	1.047424E+0	9.819767E-1	9.754957E-1	8.489515E-1	9.690164E-1	9.442203E-1	1.009207E+0	9.620920E-1	9.866425E-1	9.394199E-1	9.516055E-1	9.472235E-1	1.031415E+0	9.838854E-1	8.891257E-1	8.972718E-1	9.689092E-1	9.331538E-1	9.063558E-1	9.025028E-1	8.653214E-1	9.215238E-1	9.701901E-1	9.849067E-1	9.718100E-1	8.562808E-1	9.377953E-1	1.020640E+0	1.002094E+0	1.018809E+0	8.948635E-1	9.036119E-1	9.589756E-1	9.700055E-1	8.745756E-1	9.304532E-1	8.963769E-1	9.459776E-1	9.133482E-1	9.851020E-1	8.323005E-1	8.699263E-1	9.230652E-1	9.924250E-1	9.625876E-1	9.892882E-1	8.662167E-1	9.169826E-1	9.810082E-1	1.011861E+0	8.089884E-1	9.028588E-1	8.553374E-1	9.007082E-1	9.568911E-1	9.432576E-1	9.375975E-1	9.390678E-1	9.242356E-1	9.703555E-1	9.782165E-1	1.001925E+0	8.659748E-1	9.518553E-1	1.024663E+0	9.851103E-1	8.909130E-1	8.947291E-1	8.898337E-1	8.620534E-1	9.448363E-1	9.937636E-1	8.900818E-1	8.542333E-1	9.306875E-1	9.757962E-1	9.589399E-1	1.014903E+0	9.087720E-1	9.272379E-1	1.057343E+0	9.635521E-1	8.609502E-1	8.744075E-1	9.704932E-1	8.641370E-1	1.003855E+0	1.015900E+0	9.053159E-1	8.901687E-1	9.439874E-1	1.115382E+0	9.936682E-1	9.850553E-1	8.874020E-1	1.017061E+0	1.016522E+0	9.861845E-1	9.742069E-1	9.881651E-1	9.320665E-1	9.632334E-1	9.808171E-1	1.038351E+0	9.403952E-1	9.762079E-1	9.191035E-1	1.024840E+0	1.011160E+0	1.062313E+0	8.898766E-1	8.886842E-1	1.008446E+0	9.591520E-1	8.814404E-1	8.741538E-1	8.558534E-1	8.507245E-1	1.023522E+0	1.013351E+0	8.946440E-1	9.382274E-1	1.037988E+0	9.806714E-1	1.010698E+0	9.959282E-1	9.575265E-1	8.924682E-1	8.000318E-1	9.768822E-1	1.059566E+0	9.226838E-1	8.923394E-1	9.590542E-1	1.073200E+0	1.001006E+0	9.229143E-1	9.410015E-1	9.503696E-1	9.606790E-1	1.062564E+0	1.058125E+0
5.365090E+2	8.236222E-1	6.918682E-1	7.058121E-1	6.467645E-1	7.539938E-1	7.376067E-1	6.057148E-1	6.089702E-1	6.843750E-1	7.743626E-1	6.719797E-1	6.997287E-1	6.394771E-1	6.472158E-1	6.746088E-1	7.021273E-1	6.847944E-1	6.855284E-1	7.137942E-1	7.816945E-1	7.233203E-1	7.420158E-1	6.975600E-1	7.186230E-1	8.020988E-1	8.059764E-1	7.543266E-1	6.945103E-1	7.607006E-1	6.961352E-1	7.587703E-1	7.256251E-1	7.380021E-1	6.987665E-1	7.401863E-1	7.034248E-1	8.472334E-1	7.693850E-1	7.183712E-1	6.759666E-1	7.237144E-1	7.346141E-1	6.842037E-1	6.759084E-1	6.802389E-1	7.054140E-1	7.176366E-1	7.456245E-1	7.360775E-1	6.395748E-1	7.243740E-1	7.554766E-1	7.782426E-1	7.016919E-1	7.037615E-1	6.470275E-1	7.877265E-1	7.154263E-1	6.755706E-1	6.562281E-1	7.097025E-1	7.077351E-1	6.932530E-1	7.634196E-1	6.302238E-1	6.673677E-1	7.165296E-1	7.706305E-1	7.245611E-1	7.732758E-1	6.757524E-1	6.592847E-1	7.666074E-1	7.917407E-1	6.677605E-1	6.388092E-1	6.685640E-1	6.981531E-1	7.410395E-1	7.572865E-1	7.172085E-1	6.782780E-1	7.124274E-1	7.843117E-1	7.720076E-1	7.668441E-1	6.508731E-1	6.952016E-1	7.600154E-1	7.679754E-1	6.876265E-1	6.956726E-1	7.094180E-1	6.630616E-1	7.293992E-1	7.667383E-1	7.074043E-1	6.785553E-1	6.780834E-1	7.843252E-1	7.413609E-1	7.782476E-1	6.819238E-1	6.812890E-1	7.756037E-1	7.205639E-1	7.081553E-1	6.777780E-1	6.737594E-1	6.588273E-1	7.515457E-1	7.545975E-1	6.639250E-1	7.077188E-1	7.238511E-1	8.154479E-1	7.739538E-1	7.916143E-1	6.933483E-1	7.346598E-1	8.121743E-1	7.934875E-1	7.258067E-1	7.507654E-1	6.415523E-1	7.387654E-1	7.386404E-1	7.834910E-1	6.872466E-1	6.918641E-1	6.636764E-1	7.324823E-1	7.732566E-1	8.293237E-1	6.931830E-1	7.151081E-1	7.163073E-1	7.216792E-1	6.769339E-1	7.466522E-1	6.678838E-1	6.668768E-1	7.399963E-1	7.677597E-1	6.952851E-1	7.341450E-1	8.019032E-1	7.880872E-1	7.554427E-1	8.151846E-1	7.795617E-1	7.135418E-1	6.365513E-1	7.642816E-1	7.857650E-1	7.340120E-1	7.143078E-1	7.256690E-1	8.078095E-1	7.653174E-1	7.417364E-1	7.485722E-1	7.624403E-1	7.435835E-1	7.846613E-1	7.955407E-1
5.367760E+2	6.375355E-1	5.328283E-1	5.973585E-1	6.397637E-1	6.204603E-1	6.526522E-1	5.614266E-1	5.161685E-1	5.717830E-1	6.384520E-1	5.358556E-1	5.400733E-1	5.360460E-1	5.400847E-1	5.455496E-1	6.289416E-1	5.348059E-1	5.270231E-1	5.834184E-1	6.364394E-1	6.109085E-1	6.032982E-1	5.895250E-1	5.758166E-1	6.505740E-1	6.486605E-1	6.377742E-1	5.394638E-1	6.468597E-1	5.573575E-1	6.427592E-1	5.921551E-1	5.997952E-1	6.266898E-1	6.008694E-1	5.960705E-1	5.942740E-1	6.357526E-1	5.476166E-1	5.548435E-1	5.801264E-1	6.011801E-1	5.879166E-1	5.460763E-1	5.522276E-1	6.137306E-1	6.176794E-1	6.017046E-1	5.908210E-1	5.407567E-1	5.685697E-1	6.686476E-1	6.247446E-1	6.206206E-1	5.781132E-1	5.631871E-1	5.876226E-1	5.862462E-1	5.386750E-1	5.980588E-1	5.747313E-1	5.629532E-1	5.765628E-1	6.162219E-1	5.384265E-1	5.489482E-1	5.829264E-1	6.020667E-1	5.689288E-1	6.181450E-1	5.707675E-1	5.478337E-1	6.071303E-1	6.254266E-1	5.355614E-1	5.473612E-1	5.450146E-1	5.614142E-1	5.656207E-1	5.944876E-1	5.444875E-1	6.034158E-1	5.818873E-1	6.248457E-1	5.942616E-1	6.165372E-1	5.447488E-1	5.624499E-1	6.258283E-1	5.874438E-1	5.719095E-1	5.285959E-1	5.825636E-1	5.428377E-1	6.329080E-1	5.796297E-1	5.515358E-1	5.419172E-1	5.793569E-1	5.894832E-1	6.334280E-1	6.526638E-1	5.657482E-1	5.512146E-1	6.306914E-1	6.120214E-1	5.553608E-1	5.111121E-1	5.903201E-1	5.499425E-1	6.774794E-1	6.312529E-1	5.813101E-1	5.782571E-1	6.002206E-1	6.428928E-1	6.150243E-1	5.993021E-1	5.671247E-1	6.105840E-1	6.302904E-1	6.431590E-1	5.790539E-1	6.667304E-1	5.709716E-1	6.093925E-1	6.251998E-1	6.220794E-1	5.640763E-1	5.764498E-1	6.104918E-1	5.726510E-1	6.416753E-1	6.354711E-1	5.786038E-1	5.751096E-1	6.130891E-1	6.364990E-1	5.770593E-1	5.719514E-1	5.570868E-1	5.666448E-1	6.331977E-1	6.091353E-1	5.652402E-1	5.507763E-1	6.759915E-1	6.375212E-1	6.186753E-1	6.480123E-1	5.989505E-1	5.293358E-1	5.495277E-1	6.184203E-1	6.131822E-1	5.519367E-1	5.369235E-1	5.838650E-1	6.513828E-1	5.836797E-1	6.290932E-1	6.228265E-1	5.915952E-1	5.453177E-1	6.435730E-1	6.655239E-1
5.370230E+2	5.460482E-1	4.863597E-1	5.187785E-1	5.536599E-1	5.952157E-1	5.538833E-1	4.834556E-1	4.625076E-1	5.005755E-1	5.386126E-1	4.934203E-1	4.673412E-1	4.941432E-1	4.797928E-1	5.079075E-1	5.326115E-1	4.821380E-1	4.689235E-1	4.884309E-1	5.631070E-1	5.442519E-1	5.636643E-1	4.897094E-1	5.128850E-1	5.462772E-1	5.739201E-1	5.422854E-1	4.764761E-1	5.611866E-1	5.225289E-1	5.236790E-1	5.238965E-1	5.111841E-1	5.063630E-1	4.756068E-1	5.531289E-1	5.703765E-1	5.101500E-1	5.104457E-1	4.835281E-1	5.247593E-1	5.541237E-1	4.702327E-1	4.811598E-1	5.271587E-1	5.247765E-1	5.265952E-1	5.408602E-1	5.225015E-1	4.991493E-1	5.379972E-1	5.337292E-1	5.317157E-1	5.527856E-1	4.834386E-1	5.221113E-1	4.960389E-1	5.408756E-1	4.854379E-1	4.996193E-1	4.876528E-1	5.218956E-1	4.974205E-1	5.293218E-1	4.971481E-1	4.959710E-1	5.132210E-1	5.317754E-1	5.201024E-1	5.625322E-1	4.835671E-1	4.820500E-1	5.475749E-1	5.373776E-1	5.097665E-1	4.637857E-1	4.904909E-1	5.041085E-1	5.407390E-1	5.499256E-1	5.005333E-1	5.144405E-1	4.967805E-1	5.757787E-1	5.419833E-1	5.642300E-1	4.973920E-1	5.046295E-1	5.400972E-1	5.278865E-1	4.930968E-1	4.933529E-1	4.917917E-1	5.101904E-1	5.133554E-1	5.141424E-1	4.966703E-1	4.954140E-1	5.344191E-1	5.355477E-1	5.945947E-1	5.750810E-1	4.673049E-1	5.159978E-1	5.597897E-1	5.151963E-1	4.772950E-1	4.599264E-1	4.643333E-1	4.719354E-1	5.347653E-1	5.254453E-1	5.064403E-1	4.993769E-1	5.081286E-1	5.658727E-1	5.536058E-1	5.570048E-1	4.969351E-1	5.278670E-1	5.194202E-1	5.746695E-1	5.320423E-1	5.483811E-1	4.821158E-1	5.209314E-1	5.257799E-1	5.759617E-1	4.885647E-1	5.061696E-1	5.363132E-1	5.460127E-1	5.594363E-1	5.596419E-1	4.716634E-1	4.999885E-1	5.461539E-1	5.267971E-1	4.968870E-1	4.659047E-1	5.047201E-1	4.830289E-1	5.321203E-1	5.393163E-1	5.467569E-1	5.288449E-1	5.786957E-1	5.275732E-1	5.333645E-1	5.875585E-1	5.235300E-1	4.906169E-1	4.581528E-1	5.131525E-1	5.156040E-1	5.149937E-1	4.527625E-1	4.958282E-1	5.658162E-1	5.308853E-1	5.178079E-1	5.142284E-1	5.557180E-1	4.799670E-1	5.993944E-1	5.100111E-1
5.372640E+2	5.261323E-1	4.667254E-1	4.843593E-1	5.053580E-1	5.679773E-1	5.455954E-1	4.871986E-1	4.265231E-1	4.506697E-1	5.205769E-1	4.388601E-1	4.655674E-1	4.665615E-1	4.807890E-1	4.578973E-1	5.175993E-1	4.958776E-1	4.672314E-1	4.890513E-1	5.849661E-1	5.261757E-1	5.308098E-1	4.644623E-1	4.820247E-1	5.515250E-1	5.660844E-1	5.015620E-1	4.492220E-1	5.253914E-1	4.598376E-1	5.009679E-1	5.275531E-1	5.217645E-1	4.819400E-1	4.902720E-1	5.365065E-1	5.389026E-1	5.273560E-1	4.883753E-1	4.563601E-1	4.779108E-1	5.122243E-1	4.815609E-1	4.958581E-1	4.407517E-1	4.718402E-1	4.875586E-1	5.180436E-1	4.991131E-1	4.656320E-1	4.686200E-1	5.176994E-1	5.165989E-1	5.351380E-1	4.384390E-1	4.675306E-1	5.242669E-1	5.093681E-1	4.829026E-1	4.925876E-1	4.675159E-1	5.019074E-1	4.743134E-1	5.127695E-1	4.651118E-1	4.859991E-1	4.480330E-1	5.024303E-1	5.121686E-1	5.010656E-1	4.451301E-1	4.423625E-1	5.144882E-1	5.025255E-1	4.523723E-1	4.698418E-1	4.794700E-1	4.626895E-1	5.139905E-1	4.988278E-1	4.962000E-1	4.813049E-1	4.622253E-1	5.096755E-1	5.373366E-1	5.131258E-1	4.631585E-1	4.420885E-1	5.351268E-1	5.241643E-1	4.749572E-1	4.626786E-1	4.602190E-1	4.516329E-1	4.641992E-1	4.948074E-1	4.798362E-1	4.661343E-1	4.806298E-1	5.240864E-1	4.992252E-1	5.410342E-1	4.520186E-1	5.250859E-1	5.187420E-1	5.491159E-1	4.572786E-1	4.749075E-1	4.770424E-1	4.394323E-1	4.896026E-1	5.102468E-1	4.786869E-1	4.403666E-1	4.791131E-1	5.584673E-1	5.175145E-1	5.169631E-1	4.774707E-1	5.175268E-1	5.730431E-1	5.560961E-1	5.059951E-1	4.944585E-1	5.230776E-1	4.960523E-1	5.512725E-1	5.425873E-1	4.947542E-1	4.797343E-1	5.020228E-1	5.406843E-1	5.541498E-1	5.461891E-1	4.843946E-1	4.732406E-1	4.923556E-1	5.319594E-1	4.697102E-1	4.585490E-1	4.622750E-1	4.819569E-1	5.181346E-1	5.166557E-1	4.695219E-1	4.886378E-1	5.658182E-1	5.114660E-1	5.618013E-1	5.227869E-1	5.241914E-1	4.348854E-1	4.301808E-1	5.186563E-1	5.585674E-1	4.760721E-1	4.249250E-1	4.922831E-1	5.551204E-1	5.214579E-1	4.974506E-1	5.078775E-1	5.138601E-1	5.098731E-1	5.466636E-1	5.380539E-1
5.375060E+2	5.939702E-1	4.686885E-1	6.038529E-1	5.606604E-1	5.912298E-1	5.373066E-1	5.776451E-1	4.618762E-1	5.109218E-1	5.431214E-1	5.446729E-1	5.282470E-1	4.967952E-1	4.718204E-1	5.105965E-1	5.357388E-1	5.193490E-1	5.061522E-1	5.225765E-1	5.391331E-1	5.679771E-1	5.709652E-1	4.850127E-1	4.832344E-1	5.712040E-1	6.118927E-1	5.500085E-1	4.782929E-1	5.611861E-1	5.305661E-1	5.513007E-1	5.446178E-1	5.548281E-1	5.421032E-1	4.982151E-1	5.399689E-1	5.680454E-1	5.290766E-1	4.924408E-1	5.135259E-1	5.125909E-1	5.496119E-1	5.394589E-1	4.823848E-1	5.404935E-1	5.111333E-1	5.153571E-1	5.537309E-1	5.581999E-1	4.679437E-1	4.991931E-1	5.624495E-1	5.799747E-1	5.417553E-1	4.881138E-1	5.024172E-1	5.468493E-1	5.396154E-1	4.860715E-1	4.689372E-1	4.914623E-1	4.943439E-1	4.910661E-1	5.677470E-1	4.798980E-1	5.196549E-1	5.383925E-1	5.918306E-1	5.310883E-1	5.560928E-1	4.652088E-1	4.820501E-1	5.581624E-1	5.386006E-1	4.801023E-1	4.498565E-1	5.142730E-1	4.973000E-1	5.401167E-1	5.154646E-1	5.172486E-1	5.254858E-1	5.146974E-1	5.621492E-1	5.030651E-1	5.455922E-1	5.065211E-1	4.822090E-1	5.332633E-1	5.527020E-1	5.024792E-1	5.018374E-1	5.109611E-1	4.816896E-1	5.436990E-1	5.178844E-1	5.322084E-1	4.896728E-1	4.860769E-1	5.652123E-1	5.323477E-1	5.622438E-1	4.758652E-1	5.057735E-1	5.392660E-1	5.410987E-1	4.966449E-1	4.855194E-1	4.842260E-1	4.800612E-1	5.413892E-1	5.798108E-1	4.606148E-1	4.722803E-1	5.402984E-1	5.947553E-1	5.536058E-1	5.406497E-1	4.745216E-1	5.401449E-1	5.244929E-1	5.845365E-1	5.504658E-1	5.224699E-1	5.293795E-1	5.281189E-1	5.844122E-1	5.917388E-1	5.182741E-1	5.616203E-1	5.391120E-1	5.633276E-1	5.559122E-1	6.293559E-1	5.041275E-1	5.153541E-1	5.205058E-1	5.351861E-1	4.819396E-1	5.088144E-1	5.212569E-1	5.071489E-1	5.747127E-1	5.368665E-1	5.190317E-1	5.160520E-1	5.758341E-1	5.709920E-1	5.326872E-1	5.647346E-1	4.911128E-1	5.017634E-1	4.475861E-1	5.475536E-1	5.505577E-1	4.826693E-1	4.715368E-1	5.389605E-1	5.437556E-1	5.421987E-1	5.809148E-1	5.720203E-1	5.488840E-1	5.275953E-1	6.079445E-1	6.425780E-1
5.377690E+2	6.599403E-1	5.616258E-1	6.382720E-1	6.229636E-1	6.603217E-1	6.360753E-1	6.524977E-1	5.060675E-1	5.614364E-1	6.307227E-1	6.267887E-1	5.637258E-1	5.593841E-1	5.615111E-1	5.950229E-1	6.026697E-1	6.109446E-1	5.749691E-1	5.827978E-1	6.731055E-1	6.278544E-1	6.147708E-1	6.323865E-1	5.842884E-1	6.322070E-1	6.323865E-1	6.188170E-1	5.346182E-1	6.022630E-1	5.444976E-1	6.310965E-1	6.317693E-1	6.315370E-1	6.177543E-1	6.167564E-1	6.611758E-1	6.461481E-1	6.334586E-1	6.678415E-1	5.491834E-1	5.856020E-1	5.928004E-1	6.584012E-1	5.662857E-1	5.415600E-1	5.406027E-1	6.360150E-1	6.122354E-1	5.852815E-1	5.575154E-1	6.014945E-1	6.078678E-1	6.282334E-1	6.382687E-1	5.734379E-1	5.671259E-1	6.083233E-1	6.259450E-1	5.475477E-1	5.488394E-1	5.682001E-1	5.710566E-1	5.800285E-1	6.339569E-1	5.162471E-1	5.464551E-1	5.751818E-1	6.204931E-1	6.079892E-1	6.392193E-1	5.438043E-1	5.679494E-1	6.084539E-1	6.205351E-1	5.516833E-1	5.649242E-1	5.525550E-1	5.546055E-1	5.687310E-1	6.010234E-1	5.742028E-1	5.929844E-1	5.914858E-1	6.343861E-1	6.302755E-1	6.165373E-1	5.470308E-1	5.423898E-1	6.214792E-1	5.731745E-1	5.894232E-1	5.644910E-1	6.056793E-1	5.646025E-1	6.414036E-1	5.983411E-1	5.515359E-1	5.700483E-1	5.861649E-1	6.191477E-1	6.471339E-1	5.962911E-1	5.590225E-1	5.841593E-1	6.083014E-1	6.453241E-1	5.179963E-1	5.579287E-1	5.853470E-1	5.434421E-1	6.046169E-1	5.844869E-1	5.845370E-1	5.318925E-1	5.844510E-1	6.554829E-1	6.162909E-1	6.788211E-1	5.907178E-1	6.293245E-1	6.143478E-1	6.512846E-1	5.777835E-1	5.946001E-1	5.835753E-1	6.254255E-1	6.366712E-1	6.530268E-1	6.055456E-1	5.912794E-1	5.852989E-1	6.279259E-1	5.799963E-1	6.495360E-1	5.219509E-1	5.705567E-1	6.074589E-1	6.048791E-1	5.723029E-1	5.351727E-1	5.328329E-1	4.969651E-1	6.128549E-1	5.864746E-1	5.639202E-1	5.641788E-1	6.108887E-1	6.326194E-1	5.841445E-1	6.597327E-1	6.531998E-1	5.211225E-1	5.283936E-1	6.390613E-1	6.175520E-1	5.565548E-1	5.628191E-1	5.885915E-1	6.928291E-1	6.371027E-1	6.752357E-1	6.069500E-1	5.864698E-1	6.549721E-1	6.692260E-1	6.910170E-1
5.380160E+2	7.588964E-1	5.838783E-1	7.162028E-1	6.726653E-1	7.400428E-1	7.210304E-1	7.529247E-1	6.190706E-1	6.715945E-1	7.015763E-1	6.956774E-1	6.441455E-1	6.368249E-1	6.218029E-1	7.004208E-1	7.040038E-1	6.544533E-1	6.415305E-1	6.920647E-1	7.358616E-1	7.080680E-1	7.091617E-1	7.398348E-1	6.926036E-1	7.325680E-1	7.649902E-1	7.613481E-1	6.539319E-1	6.949781E-1	7.148890E-1	7.102789E-1	6.555381E-1	7.042773E-1	6.773221E-1	7.536286E-1	7.242032E-1	7.306623E-1	7.533260E-1	7.340528E-1	6.329512E-1	6.604382E-1	7.159207E-1	7.408434E-1	6.403885E-1	6.466360E-1	6.595721E-1	7.099477E-1	7.374340E-1	6.634488E-1	6.314844E-1	7.443637E-1	7.474620E-1	7.387053E-1	7.397454E-1	7.686312E-1	6.678466E-1	7.024159E-1	7.450426E-1	7.173998E-1	6.344949E-1	6.318764E-1	6.483092E-1	7.204042E-1	7.184918E-1	6.339201E-1	6.779626E-1	7.010394E-1	7.078458E-1	6.977064E-1	7.129796E-1	6.252676E-1	6.380820E-1	6.918321E-1	7.091953E-1	6.516391E-1	6.133734E-1	6.297011E-1	6.414149E-1	7.174019E-1	7.329263E-1	7.054458E-1	6.359379E-1	6.465176E-1	7.216150E-1	7.145018E-1	7.175434E-1	6.354682E-1	6.279408E-1	6.643448E-1	6.991125E-1	6.569770E-1	6.088712E-1	6.406346E-1	6.330055E-1	6.723540E-1	6.756790E-1	6.406927E-1	6.320529E-1	7.066801E-1	7.135349E-1	7.173756E-1	7.028974E-1	6.348424E-1	6.699287E-1	7.289575E-1	6.983624E-1	6.400983E-1	6.215990E-1	6.085552E-1	6.008636E-1	6.696512E-1	7.136774E-1	6.510164E-1	6.059565E-1	6.727585E-1	7.436114E-1	7.030371E-1	7.182984E-1	6.461621E-1	6.771450E-1	6.701450E-1	7.627251E-1	6.826066E-1	7.073474E-1	6.844045E-1	6.458820E-1	7.258949E-1	7.100668E-1	6.841519E-1	6.912192E-1	6.972667E-1	7.065098E-1	7.609209E-1	7.571642E-1	6.339834E-1	6.616128E-1	7.331974E-1	7.249062E-1	7.047903E-1	6.491878E-1	6.304005E-1	6.438286E-1	7.063036E-1	6.967159E-1	6.312531E-1	6.762711E-1	7.396629E-1	7.019495E-1	7.012774E-1	7.800228E-1	6.909099E-1	6.255452E-1	5.874452E-1	6.941032E-1	7.049349E-1	6.363774E-1	6.171993E-1	6.937629E-1	7.590094E-1	7.156651E-1	6.718427E-1	6.647422E-1	7.017899E-1	6.461119E-1	7.276567E-1	6.859180E-1
5.382690E+2	9.001728E-1	7.350646E-1	8.343972E-1	8.693742E-1	8.921769E-1	8.564055E-1	9.363129E-1	7.257615E-1	7.829699E-1	8.381312E-1	8.499884E-1	7.499911E-1	7.635940E-1	7.967003E-1	8.133478E-1	8.159723E-1	7.700935E-1	7.673189E-1	8.069196E-1	8.515014E-1	8.453348E-1	8.390144E-1	8.519800E-1	7.748987E-1	8.926204E-1	8.771005E-1	8.694751E-1	7.472020E-1	8.727805E-1	7.781160E-1	8.348837E-1	8.322792E-1	9.105959E-1	8.053928E-1	8.886683E-1	8.315574E-1	8.454844E-1	8.169874E-1	9.233924E-1	7.642622E-1	7.839482E-1	8.300164E-1	9.032096E-1	7.518483E-1	7.650462E-1	7.681735E-1	8.637276E-1	8.298701E-1	8.302476E-1	7.707537E-1	8.684196E-1	8.603391E-1	8.648759E-1	8.301921E-1	9.071382E-1	7.618148E-1	7.870994E-1	7.923038E-1	8.346481E-1	8.109196E-1	7.575958E-1	7.914697E-1	8.723330E-1	8.574134E-1	7.337265E-1	7.702051E-1	9.043481E-1	8.886938E-1	8.734803E-1	8.347424E-1	9.086700E-1	7.370288E-1	8.519703E-1	8.400450E-1	8.992706E-1	7.478202E-1	7.323688E-1	7.798561E-1	8.754027E-1	8.232381E-1	7.970683E-1	7.672532E-1	8.212107E-1	8.497334E-1	8.469403E-1	8.419976E-1	7.501512E-1	6.987420E-1	8.476101E-1	8.238104E-1	7.933354E-1	7.615894E-1	7.550859E-1	7.905405E-1	8.228566E-1	8.353448E-1	7.491763E-1	8.220831E-1	8.047256E-1	8.315192E-1	8.590018E-1	8.424347E-1	7.369546E-1	7.716027E-1	8.676505E-1	8.648764E-1	7.528593E-1	7.720356E-1	7.643815E-1	7.633782E-1	8.207950E-1	8.533899E-1	7.381496E-1	7.908148E-1	8.064811E-1	8.561793E-1	8.353724E-1	8.841048E-1	7.558698E-1	8.283621E-1	8.476811E-1	8.451446E-1	7.887014E-1	8.649133E-1	8.072904E-1	8.139564E-1	8.546300E-1	8.611622E-1	7.509983E-1	7.653676E-1	8.596205E-1	8.263831E-1	8.554951E-1	9.406208E-1	7.339222E-1	7.475474E-1	8.545564E-1	8.371892E-1	7.808859E-1	7.527825E-1	7.064698E-1	7.258368E-1	8.728591E-1	8.302294E-1	8.160885E-1	7.682604E-1	8.684361E-1	9.169435E-1	8.549720E-1	8.633008E-1	8.245493E-1	7.469803E-1	6.800633E-1	8.537254E-1	8.462052E-1	7.392896E-1	7.427925E-1	8.142959E-1	9.120937E-1	8.275391E-1	8.150212E-1	8.584410E-1	7.923381E-1	8.111494E-1	8.416670E-1	9.179103E-1
5.385110E+2	1.003485E+0	8.679248E-1	1.053253E+0	1.054182E+0	1.036339E+0	1.035294E+0	1.100989E+0	9.321984E-1	9.448594E-1	1.033945E+0	1.019730E+0	9.285683E-1	9.237790E-1	8.903794E-1	9.972573E-1	1.036154E+0	9.779021E-1	9.286451E-1	9.720609E-1	1.055987E+0	1.052646E+0	1.037705E+0	9.952454E-1	1.000000E+0	1.099903E+0	1.054909E+0	1.108901E+0	9.034595E-1	1.026525E+0	1.039599E+0	1.005525E+0	1.026084E+0	1.015077E+0	9.459723E-1	1.016376E+0	1.039340E+0	1.073963E+0	1.018296E+0	1.088921E+0	9.419853E-1	1.036444E+0	1.024044E+0	1.149275E+0	9.239374E-1	9.394617E-1	9.346226E-1	1.062458E+0	1.043995E+0	1.001969E+0	9.302487E-1	1.090659E+0	1.042012E+0	1.005582E+0	9.779955E-1	1.058500E+0	9.750730E-1	9.840668E-1	9.876497E-1	1.048230E+0	9.362058E-1	9.170568E-1	9.178851E-1	9.959547E-1	1.034171E+0	8.748110E-1	9.702715E-1	1.052149E+0	1.001296E+0	1.008362E+0	1.071244E+0	1.043485E+0	8.930610E-1	1.015418E+0	1.022866E+0	1.076611E+0	9.010416E-1	9.591665E-1	9.319143E-1	1.095609E+0	9.729666E-1	9.431693E-1	9.654551E-1	1.030459E+0	1.008519E+0	1.036884E+0	1.078278E+0	1.071947E+0	9.205843E-1	9.929799E-1	1.015509E+0	1.072934E+0	9.462874E-1	9.986463E-1	9.164653E-1	1.055285E+0	1.001870E+0	9.243725E-1	9.604435E-1	1.058692E+0	1.054677E+0	9.989146E-1	1.046160E+0	1.031673E+0	9.403012E-1	1.064805E+0	1.027690E+0	1.077131E+0	8.750313E-1	9.445214E-1	8.700964E-1	1.030350E+0	1.024083E+0	9.511408E-1	8.907706E-1	9.938185E-1	1.122048E+0	1.009498E+0	1.020020E+0	9.463849E-1	1.051310E+0	1.077391E+0	1.059899E+0	9.977129E-1	9.916667E-1	9.730281E-1	9.770569E-1	1.013319E+0	1.065657E+0	9.453464E-1	9.652466E-1	9.981804E-1	1.080781E+0	1.064030E+0	1.059256E+0	9.229771E-1	9.791698E-1	9.640297E-1	1.004968E+0	9.507415E-1	9.513903E-1	9.032589E-1	9.027172E-1	1.013987E+0	1.054999E+0	9.593360E-1	9.443189E-1	1.065173E+0	9.701664E-1	1.044551E+0	1.089694E+0	9.965595E-1	9.188673E-1	8.478948E-1	1.038805E+0	1.035536E+0	9.596270E-1	8.405483E-1	9.897784E-1	1.051808E+0	1.021746E+0	9.677004E-1	1.006416E+0	1.012728E+0	9.097280E-1	1.115294E+0	1.155003E+0
5.387650E+2	1.297863E+0	1.148045E+0	1.288993E+0	1.241792E+0	1.310047E+0	1.315023E+0	1.316188E+0	1.036996E+0	1.177958E+0	1.218166E+0	1.237418E+0	1.100643E+0	1.078662E+0	1.128059E+0	1.244619E+0	1.170016E+0	1.133618E+0	1.154840E+0	1.160177E+0	1.213229E+0	1.247532E+0	1.252560E+0	1.297039E+0	1.177903E+0	1.307181E+0	1.286364E+0	1.356046E+0	1.124522E+0	1.223691E+0	1.166586E+0	1.244299E+0	1.150413E+0	1.284877E+0	1.143143E+0	1.253459E+0	1.211109E+0	1.275050E+0	1.272368E+0	1.300909E+0	1.133292E+0	1.176989E+0	1.204533E+0	1.290243E+0	1.137670E+0	1.139478E+0	1.114711E+0	1.271833E+0	1.228282E+0	1.233395E+0	1.100149E+0	1.231177E+0	1.249066E+0	1.279436E+0	1.250989E+0	1.218627E+0	1.106178E+0	1.137123E+0	1.191187E+0	1.259912E+0	1.153541E+0	1.099922E+0	1.146944E+0	1.236270E+0	1.239892E+0	1.121862E+0	1.114867E+0	1.332264E+0	1.262672E+0	1.218314E+0	1.254474E+0	1.260913E+0	1.113247E+0	1.221216E+0	1.229538E+0	1.262981E+0	1.083332E+0	1.127956E+0	1.100425E+0	1.277248E+0	1.242119E+0	1.181510E+0	1.105973E+0	1.334411E+0	1.203421E+0	1.190815E+0	1.218969E+0	1.252245E+0	1.080476E+0	1.192399E+0	1.222717E+0	1.269340E+0	1.066374E+0	1.087726E+0	1.066226E+0	1.255550E+0	1.246360E+0	1.123882E+0	1.068376E+0	1.286105E+0	1.180752E+0	1.247905E+0	1.229232E+0	1.300101E+0	1.135698E+0	1.144414E+0	1.194823E+0	1.261286E+0	1.101000E+0	1.149527E+0	1.063488E+0	1.298312E+0	1.236867E+0	1.147996E+0	1.093091E+0	1.226569E+0	1.302008E+0	1.255175E+0	1.215151E+0	1.287896E+0	1.221270E+0	1.260001E+0	1.210228E+0	1.274699E+0	1.231867E+0	1.117341E+0	1.171668E+0	1.330697E+0	1.315662E+0	1.148361E+0	1.234762E+0	1.181527E+0	1.227296E+0	1.280198E+0	1.307535E+0	1.066838E+0	1.145347E+0	1.137310E+0	1.196626E+0	1.178349E+0	1.173904E+0	1.074691E+0	1.123013E+0	1.224405E+0	1.195248E+0	1.179819E+0	1.164238E+0	1.294106E+0	1.264295E+0	1.293035E+0	1.294495E+0	1.240682E+0	1.068462E+0	1.044320E+0	1.173656E+0	1.206663E+0	1.048685E+0	1.084614E+0	1.194213E+0	1.238984E+0	1.280061E+0	1.138701E+0	1.193129E+0	1.095588E+0	1.240910E+0	1.314813E+0	1.318163E+0
5.390340E+2	1.502621E+0	1.273707E+0	1.488365E+0	1.459503E+0	1.602361E+0	1.507726E+0	1.556964E+0	1.231436E+0	1.361148E+0	1.412692E+0	1.475497E+0	1.294592E+0	1.271201E+0	1.257114E+0	1.456494E+0	1.410217E+0	1.335699E+0	1.326318E+0	1.349529E+0	1.417007E+0	1.495517E+0	1.442384E+0	1.432082E+0	1.378800E+0	1.513152E+0	1.552175E+0	1.572302E+0	1.320753E+0	1.515919E+0	1.416815E+0	1.469571E+0	1.416135E+0	1.482598E+0	1.362348E+0	1.524761E+0	1.375255E+0	1.466809E+0	1.429518E+0	1.524521E+0	1.348369E+0	1.411234E+0	1.419188E+0	1.518690E+0	1.404073E+0	1.270156E+0	1.287710E+0	1.491268E+0	1.450015E+0	1.412504E+0	1.310498E+0	1.493988E+0	1.461461E+0	1.473633E+0	1.436294E+0	1.528952E+0	1.359949E+0	1.445750E+0	1.426231E+0	1.426593E+0	1.302477E+0	1.318164E+0	1.341426E+0	1.502001E+0	1.458616E+0	1.250624E+0	1.386609E+0	1.483938E+0	1.463312E+0	1.405072E+0	1.436530E+0	1.536280E+0	1.277976E+0	1.407161E+0	1.479619E+0	1.508032E+0	1.315287E+0	1.312410E+0	1.336459E+0	1.538511E+0	1.470869E+0	1.346184E+0	1.367379E+0	1.523824E+0	1.454886E+0	1.495769E+0	1.481105E+0	1.554643E+0	1.314118E+0	1.457667E+0	1.392082E+0	1.518912E+0	1.301327E+0	1.319449E+0	1.248636E+0	1.458243E+0	1.437211E+0	1.292222E+0	1.267593E+0	1.495131E+0	1.409305E+0	1.456345E+0	1.459747E+0	1.456020E+0	1.318030E+0	1.484619E+0	1.406356E+0	1.529512E+0	1.311984E+0	1.325246E+0	1.305636E+0	1.552429E+0	1.460760E+0	1.296446E+0	1.260487E+0	1.514202E+0	1.562692E+0	1.386874E+0	1.479089E+0	1.538569E+0	1.482343E+0	1.442609E+0	1.448199E+0	1.515478E+0	1.404838E+0	1.329081E+0	1.359093E+0	1.536548E+0	1.503164E+0	1.364993E+0	1.354686E+0	1.554522E+0	1.429747E+0	1.463473E+0	1.511170E+0	1.569713E+0	1.332582E+0	1.426320E+0	1.417968E+0	1.513306E+0	1.279950E+0	1.249432E+0	1.256478E+0	1.563235E+0	1.418180E+0	1.247152E+0	1.296437E+0	1.528760E+0	1.466685E+0	1.452824E+0	1.432058E+0	1.429231E+0	1.279068E+0	1.191017E+0	1.380066E+0	1.462259E+0	1.234058E+0	1.254229E+0	1.345471E+0	1.521088E+0	1.418332E+0	1.361273E+0	1.408420E+0	1.365522E+0	1.364965E+0	1.511482E+0	1.537409E+0
5.392560E+2	1.750946E+0	1.518483E+0	1.663059E+0	1.697515E+0	1.820929E+0	1.694901E+0	1.785888E+0	1.474488E+0	1.588158E+0	1.630405E+0	1.708617E+0	1.495051E+0	1.430858E+0	1.508248E+0	1.642553E+0	1.587865E+0	1.537211E+0	1.487080E+0	1.586066E+0	1.732195E+0	1.664979E+0	1.669238E+0	1.661071E+0	1.557307E+0	1.765693E+0	1.771572E+0	1.814537E+0	1.460054E+0	1.686681E+0	1.570598E+0	1.713868E+0	1.639193E+0	1.682305E+0	1.620277E+0	1.707459E+0	1.644681E+0	1.752405E+0	1.642291E+0	1.764389E+0	1.535149E+0	1.607756E+0	1.653826E+0	1.712524E+0	1.443880E+0	1.446708E+0	1.569855E+0	1.760973E+0	1.654777E+0	1.542985E+0	1.476928E+0	1.667429E+0	1.660501E+0	1.631780E+0	1.640904E+0	1.722975E+0	1.619348E+0	1.564930E+0	1.591960E+0	1.581236E+0	1.515338E+0	1.498307E+0	1.569944E+0	1.611184E+0	1.695082E+0	1.456399E+0	1.514998E+0	1.697573E+0	1.612765E+0	1.573524E+0	1.696449E+0	1.739367E+0	1.484570E+0	1.579872E+0	1.653886E+0	1.693756E+0	1.424295E+0	1.458002E+0	1.550360E+0	1.697134E+0	1.655652E+0	1.532527E+0	1.529986E+0	1.685079E+0	1.586412E+0	1.712436E+0	1.703557E+0	1.695570E+0	1.513541E+0	1.639069E+0	1.561446E+0	1.650266E+0	1.484721E+0	1.520727E+0	1.420679E+0	1.695528E+0	1.676708E+0	1.537870E+0	1.510444E+0	1.699391E+0	1.678307E+0	1.623669E+0	1.626079E+0	1.745235E+0	1.499228E+0	1.648185E+0	1.612957E+0	1.765709E+0	1.431832E+0	1.477204E+0	1.426436E+0	1.715014E+0	1.620931E+0	1.442310E+0	1.456786E+0	1.739384E+0	1.712289E+0	1.616087E+0	1.632490E+0	1.723188E+0	1.628392E+0	1.698407E+0	1.625227E+0	1.808346E+0	1.658346E+0	1.527589E+0	1.587431E+0	1.729651E+0	1.692492E+0	1.514777E+0	1.585515E+0	1.756763E+0	1.623544E+0	1.701968E+0	1.702579E+0	1.717390E+0	1.521523E+0	1.587092E+0	1.638659E+0	1.734797E+0	1.464459E+0	1.434093E+0	1.410307E+0	1.721528E+0	1.650911E+0	1.430667E+0	1.534023E+0	1.736945E+0	1.653667E+0	1.577404E+0	1.717670E+0	1.801704E+0	1.429247E+0	1.330876E+0	1.615370E+0	1.730962E+0	1.438564E+0	1.445856E+0	1.523315E+0	1.763081E+0	1.590540E+0	1.482058E+0	1.549407E+0	1.675608E+0	1.523356E+0	1.605540E+0	1.626636E+0
5.395160E+2	1.979973E+0	1.654621E+0	1.976082E+0	1.874618E+0	1.946491E+0	1.989829E+0	2.078436E+0	1.605167E+0	1.827952E+0	1.927990E+0	1.888277E+0	1.720933E+0	1.639840E+0	1.685139E+0	1.812482E+0	1.886863E+0	1.775931E+0	1.677171E+0	1.864203E+0	1.947261E+0	1.906754E+0	1.941977E+0	1.958166E+0	1.741260E+0	1.978879E+0	1.986151E+0	2.035703E+0	1.747133E+0	1.946636E+0	1.760815E+0	1.905382E+0	1.902476E+0	1.913753E+0	1.782897E+0	1.984870E+0	1.849693E+0	1.988463E+0	1.917012E+0	1.917717E+0	1.716268E+0	1.797582E+0	1.862681E+0	1.973065E+0	1.766624E+0	1.681929E+0	1.763046E+0	1.972715E+0	1.909269E+0	1.855041E+0	1.730039E+0	1.927888E+0	1.860875E+0	1.922499E+0	1.873636E+0	1.962585E+0	1.729070E+0	1.876066E+0	1.893170E+0	1.878477E+0	1.714774E+0	1.767161E+0	1.749838E+0	1.889046E+0	1.939228E+0	1.636914E+0	1.739997E+0	1.900238E+0	1.886426E+0	1.823754E+0	1.849823E+0	1.964825E+0	1.613417E+0	1.783025E+0	1.868502E+0	1.943322E+0	1.626573E+0	1.735261E+0	1.684831E+0	1.861977E+0	1.866577E+0	1.731246E+0	1.749050E+0	1.910966E+0	1.912840E+0	1.873919E+0	1.842440E+0	1.960312E+0	1.760756E+0	1.871408E+0	1.784786E+0	1.909224E+0	1.689650E+0	1.724254E+0	1.613451E+0	1.964978E+0	1.903109E+0	1.735512E+0	1.670621E+0	1.883907E+0	1.873149E+0	1.891504E+0	1.859940E+0	1.934787E+0	1.718476E+0	1.865245E+0	1.796126E+0	1.929847E+0	1.672158E+0	1.673367E+0	1.567285E+0	1.982980E+0	1.846579E+0	1.714683E+0	1.679582E+0	1.963938E+0	1.952980E+0	1.850997E+0	1.885708E+0	1.971508E+0	1.841647E+0	1.917246E+0	1.880612E+0	1.990046E+0	1.867031E+0	1.723576E+0	1.762695E+0	1.922120E+0	1.890309E+0	1.726457E+0	1.809897E+0	2.056979E+0	1.823998E+0	1.772452E+0	1.897042E+0	1.979011E+0	1.670627E+0	1.778513E+0	1.838060E+0	1.967836E+0	1.667359E+0	1.653482E+0	1.647217E+0	1.957375E+0	1.838932E+0	1.692735E+0	1.705820E+0	1.983042E+0	1.848352E+0	1.800837E+0	1.884226E+0	1.914172E+0	1.608172E+0	1.508651E+0	1.796322E+0	1.966170E+0	1.645707E+0	1.600584E+0	1.754338E+0	1.956943E+0	1.825604E+0	1.733805E+0	1.759616E+0	1.911372E+0	1.745990E+0	1.923347E+0	1.952955E+0
5.397810E+2	2.201533E+0	1.808420E+0	2.181297E+0	2.105626E+0	2.156424E+0	2.185293E+0	2.241860E+0	1.797082E+0	1.928371E+0	2.000137E+0	2.054163E+0	1.842747E+0	1.830258E+0	1.828644E+0	2.073826E+0	2.067638E+0	1.858945E+0	1.827778E+0	2.089567E+0	2.074179E+0	2.011817E+0	2.107295E+0	2.043890E+0	1.950028E+0	2.157957E+0	2.148891E+0	2.146639E+0	1.883404E+0	2.027030E+0	1.953711E+0	2.053924E+0	2.076171E+0	2.023529E+0	1.963983E+0	2.145573E+0	2.083101E+0	2.148166E+0	2.005910E+0	2.175012E+0	1.814752E+0	1.951515E+0	1.985153E+0	2.077531E+0	1.891557E+0	1.880346E+0	1.888562E+0	2.105795E+0	2.088878E+0	1.952902E+0	1.825389E+0	2.129550E+0	2.094644E+0	2.048668E+0	2.095343E+0	2.070701E+0	1.834854E+0	2.005287E+0	2.078434E+0	1.994456E+0	1.916132E+0	1.860771E+0	1.851944E+0	1.990715E+0	1.985338E+0	1.766908E+0	1.834106E+0	2.069985E+0	2.054304E+0	1.981830E+0	2.051200E+0	2.065221E+0	1.816747E+0	2.068230E+0	1.979784E+0	2.038763E+0	1.758596E+0	1.823429E+0	1.802843E+0	2.057921E+0	2.038883E+0	1.830917E+0	1.854595E+0	2.114455E+0	2.066857E+0	2.019718E+0	2.054073E+0	2.121780E+0	1.833326E+0	1.953413E+0	1.976487E+0	2.078108E+0	1.831274E+0	1.895089E+0	1.746633E+0	2.071784E+0	2.020365E+0	1.871428E+0	1.780848E+0	2.126301E+0	1.981692E+0	2.032558E+0	2.017339E+0	2.087037E+0	1.904219E+0	1.957289E+0	2.034178E+0	2.095318E+0	1.791386E+0	1.813719E+0	1.750928E+0	2.141951E+0	1.987457E+0	1.772775E+0	1.778331E+0	2.129195E+0	2.049250E+0	1.994098E+0	2.025004E+0	2.147276E+0	1.972183E+0	2.028842E+0	2.012946E+0	2.115193E+0	2.037908E+0	1.877968E+0	1.841757E+0	2.137531E+0	2.051115E+0	1.816205E+0	1.807962E+0	2.096163E+0	1.931882E+0	1.996264E+0	2.092731E+0	2.146427E+0	1.811765E+0	1.924269E+0	1.890329E+0	2.145850E+0	1.793021E+0	1.750498E+0	1.798909E+0	2.097866E+0	1.928962E+0	1.794396E+0	1.914771E+0	2.167619E+0	2.009421E+0	1.990414E+0	2.045230E+0	2.182775E+0	1.772436E+0	1.646027E+0	1.980026E+0	2.119820E+0	1.745980E+0	1.790913E+0	1.940456E+0	2.086628E+0	1.935590E+0	1.857309E+0	1.965382E+0	2.030108E+0	1.932072E+0	2.098637E+0	2.210442E+0
5.400090E+2	2.271862E+0	1.783549E+0	2.183245E+0	2.153932E+0	2.173031E+0	2.089289E+0	2.206309E+0	1.875365E+0	2.025747E+0	2.042648E+0	2.078962E+0	1.891232E+0	1.902927E+0	1.815191E+0	2.113081E+0	2.048247E+0	2.004353E+0	1.923108E+0	2.047351E+0	2.204625E+0	2.167164E+0	2.173521E+0	2.112587E+0	1.988754E+0	2.193376E+0	2.202536E+0	2.143129E+0	1.879771E+0	2.118569E+0	1.938709E+0	2.082157E+0	2.057277E+0	2.128671E+0	1.953262E+0	2.203622E+0	2.097646E+0	2.171481E+0	2.029426E+0	2.154683E+0	1.914364E+0	2.060421E+0	2.048971E+0	2.063056E+0	1.880532E+0	1.937416E+0	1.926217E+0	2.101654E+0	2.044415E+0	2.005838E+0	1.818456E+0	2.147186E+0	2.134716E+0	2.112048E+0	2.103068E+0	2.194015E+0	1.893374E+0	2.017204E+0	2.083472E+0	2.067975E+0	1.955122E+0	1.916825E+0	1.824933E+0	2.086032E+0	2.137856E+0	1.749042E+0	1.898302E+0	2.135169E+0	2.093889E+0	2.049573E+0	2.139596E+0	2.156436E+0	1.827621E+0	2.009336E+0	1.992014E+0	2.167739E+0	1.847017E+0	1.846050E+0	1.857312E+0	2.217170E+0	2.051359E+0	1.882918E+0	1.860728E+0	2.160526E+0	2.092074E+0	2.059798E+0	2.009583E+0	2.114367E+0	1.839817E+0	2.093814E+0	2.016190E+0	2.116887E+0	1.889357E+0	1.858441E+0	1.846130E+0	2.091201E+0	2.009760E+0	1.850854E+0	1.834242E+0	2.116087E+0	2.011359E+0	2.022279E+0	2.080409E+0	2.179978E+0	1.900240E+0	2.051200E+0	1.967574E+0	2.160038E+0	1.809487E+0	1.849086E+0	1.828932E+0	2.133525E+0	2.037147E+0	1.876685E+0	1.892741E+0	2.160735E+0	2.221067E+0	1.964975E+0	1.996245E+0	2.182666E+0	1.961197E+0	2.026670E+0	2.012363E+0	2.179362E+0	2.037205E+0	1.912003E+0	1.898149E+0	2.048942E+0	2.142743E+0	1.973417E+0	1.974956E+0	2.201135E+0	2.069073E+0	2.025045E+0	2.178954E+0	2.089776E+0	1.849895E+0	1.943661E+0	2.041330E+0	2.157397E+0	1.816312E+0	1.786327E+0	1.720116E+0	2.207841E+0	2.109633E+0	1.807599E+0	1.789278E+0	2.106094E+0	2.071750E+0	1.994480E+0	2.090260E+0	2.158956E+0	1.832859E+0	1.669647E+0	1.980023E+0	2.113993E+0	1.749281E+0	1.854355E+0	1.877236E+0	2.134095E+0	2.061290E+0	1.885807E+0	1.891076E+0	2.190702E+0	1.914350E+0	2.050182E+0	1.975900E+0
5.402690E+2	2.167928E+0	1.792059E+0	2.185845E+0	2.109128E+0	2.213554E+0	2.103793E+0	2.218159E+0	1.793930E+0	1.941757E+0	2.072923E+0	2.070145E+0	1.885321E+0	1.816997E+0	1.781807E+0	2.036183E+0	2.044495E+0	1.901880E+0	1.927056E+0	2.052318E+0	2.139757E+0	2.115194E+0	2.063485E+0	2.116110E+0	1.978467E+0	2.213709E+0	2.206753E+0	2.134002E+0	1.886432E+0	2.117985E+0	1.990680E+0	2.099345E+0	2.009131E+0	2.095602E+0	1.943733E+0	2.082024E+0	2.127428E+0	2.194795E+0	2.058099E+0	2.140743E+0	1.858897E+0	1.973419E+0	2.001915E+0	2.103336E+0	1.845628E+0	1.895811E+0	1.904935E+0	2.107567E+0	2.083029E+0	1.979372E+0	1.858908E+0	2.105444E+0	2.051898E+0	2.070765E+0	1.997728E+0	2.146674E+0	1.864678E+0	1.964513E+0	2.020458E+0	2.055932E+0	1.831749E+0	1.843897E+0	1.874094E+0	2.055417E+0	2.078147E+0	1.781078E+0	1.875241E+0	2.065465E+0	2.100032E+0	2.018448E+0	2.074615E+0	2.162177E+0	1.953211E+0	1.985514E+0	2.097184E+0	2.062626E+0	1.813101E+0	1.901152E+0	1.881141E+0	2.088404E+0	2.024626E+0	1.892203E+0	1.904910E+0	2.128532E+0	2.087301E+0	2.019718E+0	2.022809E+0	2.139468E+0	1.845717E+0	2.055919E+0	1.919410E+0	2.113759E+0	1.856075E+0	1.890577E+0	1.812962E+0	2.102125E+0	2.040322E+0	1.924425E+0	1.868114E+0	2.059578E+0	2.066647E+0	2.075388E+0	1.994454E+0	2.077252E+0	1.857071E+0	1.980305E+0	2.043430E+0	2.144023E+0	1.792010E+0	1.809299E+0	1.813220E+0	2.159417E+0	2.014932E+0	1.801171E+0	1.852999E+0	2.125412E+0	2.096651E+0	1.978901E+0	2.019365E+0	2.174997E+0	2.001910E+0	2.063623E+0	2.036742E+0	2.083433E+0	2.021096E+0	1.961783E+0	1.863319E+0	2.120321E+0	2.077812E+0	1.918332E+0	1.947877E+0	2.101066E+0	1.970508E+0	2.047366E+0	2.087226E+0	2.164888E+0	1.898270E+0	1.908629E+0	2.013581E+0	2.073147E+0	1.758080E+0	1.807828E+0	1.754956E+0	2.130286E+0	1.983469E+0	1.889454E+0	1.760644E+0	2.128272E+0	2.073850E+0	1.991091E+0	2.074224E+0	2.129844E+0	1.730786E+0	1.650999E+0	1.942873E+0	2.138023E+0	1.769071E+0	1.754014E+0	1.913868E+0	2.170192E+0	1.973927E+0	1.870878E+0	2.007932E+0	2.119805E+0	1.991884E+0	2.111465E+0	2.121213E+0
5.405020E+2	2.134317E+0	1.733154E+0	2.022189E+0	1.953721E+0	2.127856E+0	2.109319E+0	2.206308E+0	1.659461E+0	1.806649E+0	1.940877E+0	1.928513E+0	1.810222E+0	1.788356E+0	1.821668E+0	1.924332E+0	2.051373E+0	1.833756E+0	1.852035E+0	1.930013E+0	2.036811E+0	2.028766E+0	2.013421E+0	1.991049E+0	1.895564E+0	2.073337E+0	2.091027E+0	2.118553E+0	1.821019E+0	2.014709E+0	1.842794E+0	2.037966E+0	2.001207E+0	2.022203E+0	1.941944E+0	2.034362E+0	1.994448E+0	2.107950E+0	1.878587E+0	2.075693E+0	1.801168E+0	1.915009E+0	1.917468E+0	2.064318E+0	1.778871E+0	1.813139E+0	1.813254E+0	2.051380E+0	2.023355E+0	1.891970E+0	1.751420E+0	1.979040E+0	2.063253E+0	1.920175E+0	1.898456E+0	2.008751E+0	1.799406E+0	1.960121E+0	1.965636E+0	1.971012E+0	1.790204E+0	1.742670E+0	1.844921E+0	1.999384E+0	1.967012E+0	1.798327E+0	1.840964E+0	2.017060E+0	1.990839E+0	1.986709E+0	1.963389E+0	2.058339E+0	1.764014E+0	1.927947E+0	1.994461E+0	2.002004E+0	1.693190E+0	1.836187E+0	1.694472E+0	2.008781E+0	1.953327E+0	1.831536E+0	1.802436E+0	1.981355E+0	1.957139E+0	1.956402E+0	2.019199E+0	2.033344E+0	1.729488E+0	1.927323E+0	1.907623E+0	2.093120E+0	1.734681E+0	1.784582E+0	1.770470E+0	1.980147E+0	1.914959E+0	1.817186E+0	1.748699E+0	2.038470E+0	1.896071E+0	1.964030E+0	1.939196E+0	2.050348E+0	1.755401E+0	2.005181E+0	1.939821E+0	2.085309E+0	1.708365E+0	1.767859E+0	1.684295E+0	2.057045E+0	1.887493E+0	1.736629E+0	1.742203E+0	2.055399E+0	2.097390E+0	1.961809E+0	1.925187E+0	2.019873E+0	1.959261E+0	1.986090E+0	1.934590E+0	2.020536E+0	1.930060E+0	1.791005E+0	1.821297E+0	2.089093E+0	1.970407E+0	1.805064E+0	1.794422E+0	2.028984E+0	1.935880E+0	1.987449E+0	2.096399E+0	2.065584E+0	1.806075E+0	1.863590E+0	1.857418E+0	1.986182E+0	1.710268E+0	1.676635E+0	1.648825E+0	2.052728E+0	1.911202E+0	1.730365E+0	1.792934E+0	2.071040E+0	1.972309E+0	1.928802E+0	2.013769E+0	2.102724E+0	1.730783E+0	1.665917E+0	1.918103E+0	2.085592E+0	1.689247E+0	1.653671E+0	1.829968E+0	2.061895E+0	1.891596E+0	1.748735E+0	1.859962E+0	1.960066E+0	1.851215E+0	1.916219E+0	2.039633E+0
5.407580E+2	2.073952E+0	1.656579E+0	1.926724E+0	1.940421E+0	2.027538E+0	1.978775E+0	2.094030E+0	1.842540E+0	1.773177E+0	1.844900E+0	1.880015E+0	1.807268E+0	1.725236E+0	1.711051E+0	1.894219E+0	1.976940E+0	1.827458E+0	1.727375E+0	1.828816E+0	1.976169E+0	1.890934E+0	1.929983E+0	1.856590E+0	1.849576E+0	2.014959E+0	1.951191E+0	2.005514E+0	1.702314E+0	1.961308E+0	1.795108E+0	1.920109E+0	1.956109E+0	1.886636E+0	1.896674E+0	1.927433E+0	1.891250E+0	2.017024E+0	1.837291E+0	1.954888E+0	1.695891E+0	1.759255E+0	1.829161E+0	1.975582E+0	1.717018E+0	1.730996E+0	1.736849E+0	1.895826E+0	1.938522E+0	1.867966E+0	1.699989E+0	1.907310E+0	1.844175E+0	1.881215E+0	1.884667E+0	1.979532E+0	1.669428E+0	1.837173E+0	1.835197E+0	1.952629E+0	1.739067E+0	1.700762E+0	1.666646E+0	1.912730E+0	1.868878E+0	1.683118E+0	1.715687E+0	1.988017E+0	1.854353E+0	1.835960E+0	1.912462E+0	1.999820E+0	1.711824E+0	1.847873E+0	1.870947E+0	1.956220E+0	1.698033E+0	1.652893E+0	1.688803E+0	1.944088E+0	1.826770E+0	1.713295E+0	1.779119E+0	1.923124E+0	1.871951E+0	1.882051E+0	1.926010E+0	1.969442E+0	1.687593E+0	1.872034E+0	1.833176E+0	1.987410E+0	1.630259E+0	1.690427E+0	1.635218E+0	1.940698E+0	1.835751E+0	1.752967E+0	1.670043E+0	1.930895E+0	1.967536E+0	1.897214E+0	1.861614E+0	1.978811E+0	1.694054E+0	1.879548E+0	1.832509E+0	1.904489E+0	1.612235E+0	1.686630E+0	1.648540E+0	1.936612E+0	1.853004E+0	1.692736E+0	1.647065E+0	1.964569E+0	2.024816E+0	1.832001E+0	1.873300E+0	1.956174E+0	1.784779E+0	1.914351E+0	1.859718E+0	1.984325E+0	1.885241E+0	1.742479E+0	1.756612E+0	1.975650E+0	1.930360E+0	1.713461E+0	1.721562E+0	1.965304E+0	1.838651E+0	1.874665E+0	1.926393E+0	1.929363E+0	1.748594E+0	1.824180E+0	1.753524E+0	1.954251E+0	1.642842E+0	1.646315E+0	1.650973E+0	1.966907E+0	1.925900E+0	1.694057E+0	1.712517E+0	1.968737E+0	1.830841E+0	1.773075E+0	1.907046E+0	1.937324E+0	1.603483E+0	1.539111E+0	1.752289E+0	1.956704E+0	1.642411E+0	1.615471E+0	1.709433E+0	1.989030E+0	1.831888E+0	1.738558E+0	1.752634E+0	2.034376E+0	1.734913E+0	1.931896E+0	1.889222E+0
5.410080E+2	1.970015E+0	1.583277E+0	1.815024E+0	1.983823E+0	1.876733E+0	1.942862E+0	1.936837E+0	1.870316E+0	1.637456E+0	1.803677E+0	1.839231E+0	1.935583E+0	1.629761E+0	1.566048E+0	1.776453E+0	1.900625E+0	1.671172E+0	1.682249E+0	1.739416E+0	1.967708E+0	1.801119E+0	1.824120E+0	1.824884E+0	1.939737E+0	1.902133E+0	1.887300E+0	1.949342E+0	1.910654E+0	1.830448E+0	1.716342E+0	1.844612E+0	1.950622E+0	1.921026E+0	1.662571E+0	1.860216E+0	1.745111E+0	1.809527E+0	1.837295E+0	1.929915E+0	1.718530E+0	1.675289E+0	1.782103E+0	1.815103E+0	1.698032E+0	1.631256E+0	1.683912E+0	1.801191E+0	1.785242E+0	1.704245E+0	1.624286E+0	1.850279E+0	1.812117E+0	1.858540E+0	1.735763E+0	1.867912E+0	1.654796E+0	1.752491E+0	1.775333E+0	1.848056E+0	1.636149E+0	1.639809E+0	1.652058E+0	1.785062E+0	1.803261E+0	1.601795E+0	1.660214E+0	1.907982E+0	1.801123E+0	1.759670E+0	1.818797E+0	1.801898E+0	1.644950E+0	1.738690E+0	1.826307E+0	1.869810E+0	1.593263E+0	1.651735E+0	1.611068E+0	1.857624E+0	1.846974E+0	1.619814E+0	1.695053E+0	1.838017E+0	1.794266E+0	1.738576E+0	1.782918E+0	1.907820E+0	1.573721E+0	1.724799E+0	1.747564E+0	1.877950E+0	1.559772E+0	1.590072E+0	1.587024E+0	1.827826E+0	1.772131E+0	1.670045E+0	1.566706E+0	1.823313E+0	1.731567E+0	1.805842E+0	1.856032E+0	1.892597E+0	1.651451E+0	1.757026E+0	1.717184E+0	1.876468E+0	1.536705E+0	1.606507E+0	1.566743E+0	1.866160E+0	1.728493E+0	1.622387E+0	1.585646E+0	1.880674E+0	1.812267E+0	1.750957E+0	1.748100E+0	1.867698E+0	1.782838E+0	1.853482E+0	1.773813E+0	1.871877E+0	1.747985E+0	1.681352E+0	1.667046E+0	1.939963E+0	1.797469E+0	1.649707E+0	1.698995E+0	1.841437E+0	1.756734E+0	1.822386E+0	1.831611E+0	1.823061E+0	1.599491E+0	1.714079E+0	1.757396E+0	1.863889E+0	1.532501E+0	1.518983E+0	1.580757E+0	1.846125E+0	1.766049E+0	1.571272E+0	1.667438E+0	1.847113E+0	1.818240E+0	1.787975E+0	1.796012E+0	1.848013E+0	1.578842E+0	1.429710E+0	1.743345E+0	1.929761E+0	1.585676E+0	1.527429E+0	1.626713E+0	1.877391E+0	1.723787E+0	1.669344E+0	1.684678E+0	1.884891E+0	1.796943E+0	1.729527E+0	1.871376E+0
5.412640E+2	1.843051E+0	1.457617E+0	1.787101E+0	1.838216E+0	1.765123E+0	1.806105E+0	1.896919E+0	1.828021E+0	1.613721E+0	1.713499E+0	1.670591E+0	1.891827E+0	1.514130E+0	1.542132E+0	1.716761E+0	1.824936E+0	1.600754E+0	1.534461E+0	1.772322E+0	1.785787E+0	1.809027E+0	1.736510E+0	1.750904E+0	1.854416E+0	1.771597E+0	1.775188E+0	1.797683E+0	1.862205E+0	1.733627E+0	1.641861E+0	1.750697E+0	1.861037E+0	1.712065E+0	1.667336E+0	1.841889E+0	1.801211E+0	1.781552E+0	1.711117E+0	1.764388E+0	1.854938E+0	1.657039E+0	1.698946E+0	1.708118E+0	1.860326E+0	1.512310E+0	1.611874E+0	1.793501E+0	1.873582E+0	1.697474E+0	1.497151E+0	1.758559E+0	1.741985E+0	1.766095E+0	1.715355E+0	1.762133E+0	1.680117E+0	1.672825E+0	1.700976E+0	1.769466E+0	1.615694E+0	1.522253E+0	1.591014E+0	1.705345E+0	1.700993E+0	1.510614E+0	1.578573E+0	1.743398E+0	1.706261E+0	1.704741E+0	1.725716E+0	1.834600E+0	1.526430E+0	1.660606E+0	1.652661E+0	1.810481E+0	1.485463E+0	1.503245E+0	1.543552E+0	1.764314E+0	1.701997E+0	1.553573E+0	1.570487E+0	1.715157E+0	1.690680E+0	1.661902E+0	1.715579E+0	1.760046E+0	1.549533E+0	1.659566E+0	1.622868E+0	1.792881E+0	1.503648E+0	1.519033E+0	1.493747E+0	1.813256E+0	1.676708E+0	1.545351E+0	1.544890E+0	1.744331E+0	1.734265E+0	1.685917E+0	1.714264E+0	1.816162E+0	1.566818E+0	1.770087E+0	1.669696E+0	1.781056E+0	1.479898E+0	1.472230E+0	1.494695E+0	1.766800E+0	1.661266E+0	1.539772E+0	1.507968E+0	1.832737E+0	1.747836E+0	1.654079E+0	1.726105E+0	1.844104E+0	1.629681E+0	1.756378E+0	1.729122E+0	1.784841E+0	1.690559E+0	1.587455E+0	1.513901E+0	1.769161E+0	1.714337E+0	1.556865E+0	1.599701E+0	1.844238E+0	1.635531E+0	1.711366E+0	1.715419E+0	1.810327E+0	1.548839E+0	1.639640E+0	1.648983E+0	1.780997E+0	1.504302E+0	1.483706E+0	1.451580E+0	1.733603E+0	1.652747E+0	1.508560E+0	1.574842E+0	1.852841E+0	1.745408E+0	1.701307E+0	1.699166E+0	1.760686E+0	1.538950E+0	1.389928E+0	1.633948E+0	1.712030E+0	1.513768E+0	1.470459E+0	1.579446E+0	1.805867E+0	1.669105E+0	1.566878E+0	1.583063E+0	1.685001E+0	1.669564E+0	1.725251E+0	1.698018E+0
5.415140E+2	1.711737E+0	1.396748E+0	1.693582E+0	1.768215E+0	1.741871E+0	1.750159E+0	1.764056E+0	1.776251E+0	1.572946E+0	1.605283E+0	1.642484E+0	1.809633E+0	1.479654E+0	1.461411E+0	1.643629E+0	1.764260E+0	1.551526E+0	1.484821E+0	1.577998E+0	1.747005E+0	1.603410E+0	1.666106E+0	1.601183E+0	1.746104E+0	1.719776E+0	1.696228E+0	1.822961E+0	1.735625E+0	1.688442E+0	1.545413E+0	1.650644E+0	1.770226E+0	1.611548E+0	1.548202E+0	1.734954E+0	1.767274E+0	1.737838E+0	1.613042E+0	1.705145E+0	1.785889E+0	1.542652E+0	1.598389E+0	1.674764E+0	1.740288E+0	1.450440E+0	1.500545E+0	1.670480E+0	1.798115E+0	1.578070E+0	1.464790E+0	1.706821E+0	1.748665E+0	1.652133E+0	1.640353E+0	1.756872E+0	1.779151E+0	1.619506E+0	1.627875E+0	1.633204E+0	1.687286E+0	1.477082E+0	1.496473E+0	1.638334E+0	1.778432E+0	1.462560E+0	1.492560E+0	1.700154E+0	1.727416E+0	1.601596E+0	1.657811E+0	1.675116E+0	1.529150E+0	1.599063E+0	1.695459E+0	1.642165E+0	1.529676E+0	1.492224E+0	1.432910E+0	1.627464E+0	1.638421E+0	1.443998E+0	1.513419E+0	1.658845E+0	1.624578E+0	1.567801E+0	1.674096E+0	1.731518E+0	1.505281E+0	1.624778E+0	1.562689E+0	1.689673E+0	1.410971E+0	1.539894E+0	1.456955E+0	1.652438E+0	1.575048E+0	1.504823E+0	1.526515E+0	1.609519E+0	1.664820E+0	1.606538E+0	1.627751E+0	1.655352E+0	1.556595E+0	1.678660E+0	1.608641E+0	1.770380E+0	1.396253E+0	1.462285E+0	1.443772E+0	1.722239E+0	1.666526E+0	1.419725E+0	1.455583E+0	1.668739E+0	1.686371E+0	1.631283E+0	1.596956E+0	1.653000E+0	1.568293E+0	1.657099E+0	1.604914E+0	1.694632E+0	1.573609E+0	1.513095E+0	1.550941E+0	1.673567E+0	1.737394E+0	1.529632E+0	1.556502E+0	1.728774E+0	1.616881E+0	1.613851E+0	1.685457E+0	1.827516E+0	1.447541E+0	1.569575E+0	1.588969E+0	1.716452E+0	1.428295E+0	1.405428E+0	1.425852E+0	1.717076E+0	1.627637E+0	1.482157E+0	1.478586E+0	1.668264E+0	1.610246E+0	1.570634E+0	1.623904E+0	1.689235E+0	1.459753E+0	1.364441E+0	1.628442E+0	1.728777E+0	1.456375E+0	1.445209E+0	1.482547E+0	1.778454E+0	1.598712E+0	1.520057E+0	1.482088E+0	1.715757E+0	1.603106E+0	1.626917E+0	1.654679E+0
5.417540E+2	1.632695E+0	1.277632E+0	1.583180E+0	1.590405E+0	1.628932E+0	1.503584E+0	1.641798E+0	1.572973E+0	1.409837E+0	1.459068E+0	1.487620E+0	1.615087E+0	1.340158E+0	1.361753E+0	1.478541E+0	1.562843E+0	1.448476E+0	1.314470E+0	1.408508E+0	1.622199E+0	1.509073E+0	1.470023E+0	1.540705E+0	1.683172E+0	1.589243E+0	1.561215E+0	1.617941E+0	1.587242E+0	1.511813E+0	1.444145E+0	1.554888E+0	1.597751E+0	1.549391E+0	1.403452E+0	1.549200E+0	1.617669E+0	1.546659E+0	1.527015E+0	1.547170E+0	1.591748E+0	1.484243E+0	1.431436E+0	1.575961E+0	1.617195E+0	1.354964E+0	1.364115E+0	1.476479E+0	1.591009E+0	1.468511E+0	1.382154E+0	1.514567E+0	1.610408E+0	1.490496E+0	1.505233E+0	1.578041E+0	1.641292E+0	1.454532E+0	1.476012E+0	1.505182E+0	1.641264E+0	1.375853E+0	1.424623E+0	1.514712E+0	1.562663E+0	1.370762E+0	1.390972E+0	1.545252E+0	1.620956E+0	1.462443E+0	1.560633E+0	1.578736E+0	1.604177E+0	1.481276E+0	1.447824E+0	1.534475E+0	1.598714E+0	1.367517E+0	1.347237E+0	1.514249E+0	1.599802E+0	1.408093E+0	1.327490E+0	1.601253E+0	1.518949E+0	1.514361E+0	1.549644E+0	1.560918E+0	1.465752E+0	1.467604E+0	1.446057E+0	1.518911E+0	1.471665E+0	1.314937E+0	1.351243E+0	1.535316E+0	1.538249E+0	1.402577E+0	1.373228E+0	1.537347E+0	1.518523E+0	1.460916E+0	1.473142E+0	1.552018E+0	1.375966E+0	1.519445E+0	1.457543E+0	1.598234E+0	1.380025E+0	1.368344E+0	1.297511E+0	1.628905E+0	1.511032E+0	1.350015E+0	1.315886E+0	1.620168E+0	1.560470E+0	1.403973E+0	1.450891E+0	1.581630E+0	1.484930E+0	1.524493E+0	1.508562E+0	1.516113E+0	1.507083E+0	1.390841E+0	1.407746E+0	1.521253E+0	1.490423E+0	1.441742E+0	1.429480E+0	1.590911E+0	1.506997E+0	1.535727E+0	1.497717E+0	1.628277E+0	1.376402E+0	1.426321E+0	1.403768E+0	1.575811E+0	1.351671E+0	1.331013E+0	1.313826E+0	1.567052E+0	1.450639E+0	1.360695E+0	1.352483E+0	1.560237E+0	1.505202E+0	1.499542E+0	1.469069E+0	1.581396E+0	1.316612E+0	1.302284E+0	1.464693E+0	1.529981E+0	1.340270E+0	1.300842E+0	1.377374E+0	1.563870E+0	1.500037E+0	1.397234E+0	1.390635E+0	1.607266E+0	1.443607E+0	1.477278E+0	1.560353E+0
5.420160E+2	1.471502E+0	1.186005E+0	1.416279E+0	1.382498E+0	1.361867E+0	1.429677E+0	1.475873E+0	1.478909E+0	1.246728E+0	1.339904E+0	1.352599E+0	1.451293E+0	1.200126E+0	1.158952E+0	1.315065E+0	1.421473E+0	1.234372E+0	1.211246E+0	1.299864E+0	1.424765E+0	1.317011E+0	1.353730E+0	1.368670E+0	1.433866E+0	1.426565E+0	1.417760E+0	1.409411E+0	1.443702E+0	1.400907E+0	1.281253E+0	1.356626E+0	1.446607E+0	1.421762E+0	1.270020E+0	1.387886E+0	1.455599E+0	1.450488E+0	1.318825E+0	1.431008E+0	1.434970E+0	1.254258E+0	1.374067E+0	1.397862E+0	1.411422E+0	1.186415E+0	1.267517E+0	1.378889E+0	1.433631E+0	1.321411E+0	1.190876E+0	1.409323E+0	1.412703E+0	1.360838E+0	1.333716E+0	1.390446E+0	1.440414E+0	1.288300E+0	1.384011E+0	1.367020E+0	1.415620E+0	1.266460E+0	1.233918E+0	1.320032E+0	1.458028E+0	1.147122E+0	1.221444E+0	1.343882E+0	1.435329E+0	1.325119E+0	1.320622E+0	1.427284E+0	1.429114E+0	1.320476E+0	1.318809E+0	1.371965E+0	1.464873E+0	1.144779E+0	1.212766E+0	1.380511E+0	1.428090E+0	1.224226E+0	1.215811E+0	1.363209E+0	1.377882E+0	1.352878E+0	1.303139E+0	1.445666E+0	1.462802E+0	1.298631E+0	1.297784E+0	1.412578E+0	1.420760E+0	1.201051E+0	1.155360E+0	1.408481E+0	1.379832E+0	1.195584E+0	1.215922E+0	1.360999E+0	1.428178E+0	1.410661E+0	1.372676E+0	1.430341E+0	1.377101E+0	1.303009E+0	1.331731E+0	1.386058E+0	1.391883E+0	1.172182E+0	1.110075E+0	1.357928E+0	1.411071E+0	1.180270E+0	1.191242E+0	1.404446E+0	1.408650E+0	1.365349E+0	1.345993E+0	1.401144E+0	1.360206E+0	1.285361E+0	1.350688E+0	1.417007E+0	1.323606E+0	1.244006E+0	1.241332E+0	1.412275E+0	1.378162E+0	1.244917E+0	1.258617E+0	1.460749E+0	1.379797E+0	1.395918E+0	1.362570E+0	1.420758E+0	1.252339E+0	1.283068E+0	1.341821E+0	1.428376E+0	1.138351E+0	1.183834E+0	1.125694E+0	1.418934E+0	1.356325E+0	1.176518E+0	1.230033E+0	1.413580E+0	1.377744E+0	1.253764E+0	1.396277E+0	1.376307E+0	1.141793E+0	1.126991E+0	1.320895E+0	1.385070E+0	1.193816E+0	1.161004E+0	1.285794E+0	1.352630E+0	1.345426E+0	1.275774E+0	1.283942E+0	1.429589E+0	1.257524E+0	1.323363E+0	1.412488E+0
5.422670E+2	1.235005E+0	1.019111E+0	1.181838E+0	1.187890E+0	1.250258E+0	1.176886E+0	1.299971E+0	1.213126E+0	1.078754E+0	1.156972E+0	1.120584E+0	1.200575E+0	1.012889E+0	1.055807E+0	1.105882E+0	1.258840E+0	1.102129E+0	1.083766E+0	1.119200E+0	1.194895E+0	1.195562E+0	1.180074E+0	1.190765E+0	1.269275E+0	1.231092E+0	1.231515E+0	1.273197E+0	1.276539E+0	1.198460E+0	1.033705E+0	1.179848E+0	1.259504E+0	1.164526E+0	1.085954E+0	1.211295E+0	1.222883E+0	1.203939E+0	1.149633E+0	1.217858E+0	1.295735E+0	1.117367E+0	1.107843E+0	1.210323E+0	1.237496E+0	1.044535E+0	1.079241E+0	1.186074E+0	1.240569E+0	1.144765E+0	1.048138E+0	1.212952E+0	1.277784E+0	1.159661E+0	1.169367E+0	1.221550E+0	1.285109E+0	1.104504E+0	1.134474E+0	1.203507E+0	1.188698E+0	1.042779E+0	1.080494E+0	1.187745E+0	1.182550E+0	1.032530E+0	1.101155E+0	1.198017E+0	1.242199E+0	1.163996E+0	1.146173E+0	1.201821E+0	1.273084E+0	1.133869E+0	1.178176E+0	1.153351E+0	1.266231E+0	1.043852E+0	1.060708E+0	1.256723E+0	1.215976E+0	1.093604E+0	1.113952E+0	1.153320E+0	1.223184E+0	1.190814E+0	1.155839E+0	1.232847E+0	1.222080E+0	1.153262E+0	1.174327E+0	1.229307E+0	1.285010E+0	1.079834E+0	1.033579E+0	1.235523E+0	1.241994E+0	1.112661E+0	1.020153E+0	1.212572E+0	1.270419E+0	1.140541E+0	1.177883E+0	1.267083E+0	1.227148E+0	1.211583E+0	1.145485E+0	1.240603E+0	1.256428E+0	1.031827E+0	1.017444E+0	1.198956E+0	1.219331E+0	1.004712E+0	1.046726E+0	1.246755E+0	1.245724E+0	1.131702E+0	1.201618E+0	1.234222E+0	1.244534E+0	1.248406E+0	1.181786E+0	1.257549E+0	1.206658E+0	1.093392E+0	1.147895E+0	1.205148E+0	1.216750E+0	1.112464E+0	1.112254E+0	1.238913E+0	1.225962E+0	1.205597E+0	1.198683E+0	1.231066E+0	1.153317E+0	1.147319E+0	1.163714E+0	1.215036E+0	1.110154E+0	1.052091E+0	1.067269E+0	1.248562E+0	1.156053E+0	1.053074E+0	1.012548E+0	1.225426E+0	1.173957E+0	1.169809E+0	1.186545E+0	1.216867E+0	1.037956E+0	9.784300E-1	1.104167E+0	1.185545E+0	1.020978E+0	1.001748E+0	1.102632E+0	1.208236E+0	1.160017E+0	1.069486E+0	1.142320E+0	1.239952E+0	1.126824E+0	1.162322E+0	1.223835E+0
5.425140E+2	1.108665E+0	9.222470E-1	1.031172E+0	1.125585E+0	1.046969E+0	1.117487E+0	1.155255E+0	1.081185E+0	1.002068E+0	1.008182E+0	1.031856E+0	1.131392E+0	9.550739E-1	8.948614E-1	1.084908E+0	1.155628E+0	9.458450E-1	9.224391E-1	9.906863E-1	1.105345E+0	9.989833E-1	1.095067E+0	1.062179E+0	1.163985E+0	1.093342E+0	1.088061E+0	1.132772E+0	1.122100E+0	1.026525E+0	9.538646E-1	1.077340E+0	1.105312E+0	1.067317E+0	1.016859E+0	1.070759E+0	1.105138E+0	1.033162E+0	1.037222E+0	1.106344E+0	1.111782E+0	9.822946E-1	1.036291E+0	1.009564E+0	1.107663E+0	9.751964E-1	9.482651E-1	1.054177E+0	1.111860E+0	9.835034E-1	9.464306E-1	1.042450E+0	1.119489E+0	1.029420E+0	9.995039E-1	1.078954E+0	1.104493E+0	1.064359E+0	1.057595E+0	1.039993E+0	1.093455E+0	8.980092E-1	9.438149E-1	1.023683E+0	1.113974E+0	9.062313E-1	9.465872E-1	1.048923E+0	1.094791E+0	1.051694E+0	1.047243E+0	1.091676E+0	1.113791E+0	1.015418E+0	9.990214E-1	1.028891E+0	1.065770E+0	9.609061E-1	9.455315E-1	1.076326E+0	1.109028E+0	1.009410E+0	9.666808E-1	1.066294E+0	1.108696E+0	1.072318E+0	1.050022E+0	1.046844E+0	1.134167E+0	1.026528E+0	9.925549E-1	1.077312E+0	1.071595E+0	9.343738E-1	9.014363E-1	1.106264E+0	1.099790E+0	9.954497E-1	9.478133E-1	1.098862E+0	1.082993E+0	1.008624E+0	1.074065E+0	1.086703E+0	1.110137E+0	1.026866E+0	1.080113E+0	1.101819E+0	1.102871E+0	9.323634E-1	9.296845E-1	1.093576E+0	1.138074E+0	9.053156E-1	9.082330E-1	1.073296E+0	1.119826E+0	1.056352E+0	9.991539E-1	1.125693E+0	1.125627E+0	1.127392E+0	1.047130E+0	1.110160E+0	1.136628E+0	9.988653E-1	1.009124E+0	1.091707E+0	1.093569E+0	9.682470E-1	9.639573E-1	1.112248E+0	1.137388E+0	1.072254E+0	1.098394E+0	1.129219E+0	1.108357E+0	1.023460E+0	1.012067E+0	1.130109E+0	1.148157E+0	9.330255E-1	9.509558E-1	1.079463E+0	1.133391E+0	9.474539E-1	9.826986E-1	1.161039E+0	1.080115E+0	1.008667E+0	1.027389E+0	1.065364E+0	9.622801E-1	9.044601E-1	1.047748E+0	1.141124E+0	9.662234E-1	8.903970E-1	9.750077E-1	1.154088E+0	1.070142E+0	9.914500E-1	9.778355E-1	1.093879E+0	1.016060E+0	1.079665E+0	1.142255E+0
5.427810E+2	1.020912E+0	8.482904E-1	9.694774E-1	9.778785E-1	1.038333E+0	1.044964E+0	1.039858E+0	1.045832E+0	9.235584E-1	9.759742E-1	9.772933E-1	1.028502E+0	8.839979E-1	8.360635E-1	9.601532E-1	1.038657E+0	9.206547E-1	8.739305E-1	9.913080E-1	1.067974E+0	9.667850E-1	9.725175E-1	9.570809E-1	1.090767E+0	1.002165E+0	1.002471E+0	1.035879E+0	1.010661E+0	9.760575E-1	9.270756E-1	9.785163E-1	1.016332E+0	9.945777E-1	9.078503E-1	9.693255E-1	9.846243E-1	9.941133E-1	9.632367E-1	1.011094E+0	1.056316E+0	9.670835E-1	9.840785E-1	9.617368E-1	1.046422E+0	8.535874E-1	8.784110E-1	9.725568E-1	1.056866E+0	9.311876E-1	8.574365E-1	9.954149E-1	1.054034E+0	1.025352E+0	9.928853E-1	1.019927E+0	1.000394E+0	9.633663E-1	1.043733E+0	9.297146E-1	1.041037E+0	8.816825E-1	8.941158E-1	9.537853E-1	1.032393E+0	8.704985E-1	9.116848E-1	1.032143E+0	1.051798E+0	9.039963E-1	9.781655E-1	1.022260E+0	1.049093E+0	9.260844E-1	9.507165E-1	1.034050E+0	1.003998E+0	8.443169E-1	8.689344E-1	1.020963E+0	1.037728E+0	8.688806E-1	8.881373E-1	1.027260E+0	9.798964E-1	9.904164E-1	1.009739E+0	1.066813E+0	1.056876E+0	9.165678E-1	9.181087E-1	1.038530E+0	1.025909E+0	8.543143E-1	8.858916E-1	1.019482E+0	1.055510E+0	9.168907E-1	8.639933E-1	1.037584E+0	1.033777E+0	9.960608E-1	9.886694E-1	9.962090E-1	1.064129E+0	9.541006E-1	9.703358E-1	9.890575E-1	1.031086E+0	8.743431E-1	8.939319E-1	1.001445E+0	1.012394E+0	8.801438E-1	9.190717E-1	1.014633E+0	1.082796E+0	9.398478E-1	9.929490E-1	1.036627E+0	1.085559E+0	1.021594E+0	9.658714E-1	1.038373E+0	1.010574E+0	9.471908E-1	9.361429E-1	1.004397E+0	1.075366E+0	9.088293E-1	9.446143E-1	1.027572E+0	1.060803E+0	9.688669E-1	1.025622E+0	1.061110E+0	1.059415E+0	9.483910E-1	9.707674E-1	1.086628E+0	1.013914E+0	8.299455E-1	8.914607E-1	1.031785E+0	1.122369E+0	8.788009E-1	9.022844E-1	1.080197E+0	9.960785E-1	1.016114E+0	1.007031E+0	9.925901E-1	1.037955E+0	8.012752E-1	1.012660E+0	1.027526E+0	1.036811E+0	8.955764E-1	8.911067E-1	1.079885E+0	1.001005E+0	9.507358E-1	9.429065E-1	1.018708E+0	1.013846E+0	9.628039E-1	8.822193E-1
5.430120E+2	1.096217E+0	8.234198E-1	1.012988E+0	1.021981E+0	1.063578E+0	1.100219E+0	1.096621E+0	1.020581E+0	9.357304E-1	9.553623E-1	1.027445E+0	1.072258E+0	8.765725E-1	8.644666E-1	9.854268E-1	1.056797E+0	8.989005E-1	8.914147E-1	9.596454E-1	1.014384E+0	1.031749E+0	9.709526E-1	9.799792E-1	1.077455E+0	1.038898E+0	1.047073E+0	9.986661E-1	1.028829E+0	9.619761E-1	9.227873E-1	9.889515E-1	1.041320E+0	1.006481E+0	9.692046E-1	1.024930E+0	1.055965E+0	1.064638E+0	9.540598E-1	1.009932E+0	1.119142E+0	9.427470E-1	9.698963E-1	1.053619E+0	1.023762E+0	8.909239E-1	9.378956E-1	1.035842E+0	1.069737E+0	9.502681E-1	8.967325E-1	9.818909E-1	1.049358E+0	1.013722E+0	9.972988E-1	1.037460E+0	1.090423E+0	9.746565E-1	9.876491E-1	1.002599E+0	1.058937E+0	8.582797E-1	9.276081E-1	9.728489E-1	1.102152E+0	8.587923E-1	9.359918E-1	1.014070E+0	1.064764E+0	9.784561E-1	9.840200E-1	9.941490E-1	1.047463E+0	9.518923E-1	9.849576E-1	1.024377E+0	1.092417E+0	8.785392E-1	8.927634E-1	1.081303E+0	1.082885E+0	9.468836E-1	8.801599E-1	1.052855E+0	1.045318E+0	9.991294E-1	1.022967E+0	1.038285E+0	1.117648E+0	9.488723E-1	9.652580E-1	1.025395E+0	1.097702E+0	9.197149E-1	8.418422E-1	9.861040E-1	1.021205E+0	9.480649E-1	9.041802E-1	1.015796E+0	1.022990E+0	9.646500E-1	9.920206E-1	1.047571E+0	1.066968E+0	9.702709E-1	1.002406E+0	1.039766E+0	1.047317E+0	9.097089E-1	8.928483E-1	9.978325E-1	1.083126E+0	8.401271E-1	8.534378E-1	1.056263E+0	1.072428E+0	9.968346E-1	9.878735E-1	1.033680E+0	1.087498E+0	1.053479E+0	1.009982E+0	1.065690E+0	1.056094E+0	9.106400E-1	9.588113E-1	1.040725E+0	1.046844E+0	9.298736E-1	1.029079E+0	1.095453E+0	1.053477E+0	9.859025E-1	1.017672E+0	1.095482E+0	1.095836E+0	9.596506E-1	9.901270E-1	1.018684E+0	1.047016E+0	9.071179E-1	8.442926E-1	1.036237E+0	1.082559E+0	9.560354E-1	9.175146E-1	1.068751E+0	1.043698E+0	9.822610E-1	1.029855E+0	1.076611E+0	1.037370E+0	7.925725E-1	1.012660E+0	1.077043E+0	1.024277E+0	8.638544E-1	9.809172E-1	1.013704E+0	1.094025E+0	9.643073E-1	9.670395E-1	1.051168E+0	9.750778E-1	1.063988E+0	1.022436E+0
5.432960E+2	1.181481E+0	9.890050E-1	1.195474E+0	1.180188E+0	1.163893E+0	1.151330E+0	1.184573E+0	1.167042E+0	1.053191E+0	1.131208E+0	1.117829E+0	1.192887E+0	9.720476E-1	9.352244E-1	1.128466E+0	1.190658E+0	1.001373E+0	1.024535E+0	1.079467E+0	1.208291E+0	1.143595E+0	1.104455E+0	1.108565E+0	1.191820E+0	1.170742E+0	1.179075E+0	1.185431E+0	1.175398E+0	1.108675E+0	1.015486E+0	1.159592E+0	1.151630E+0	1.114932E+0	1.068683E+0	1.129418E+0	1.174401E+0	1.182955E+0	1.145046E+0	1.157454E+0	1.235172E+0	1.038878E+0	1.085281E+0	1.183259E+0	1.159107E+0	9.725321E-1	1.032855E+0	1.129885E+0	1.148717E+0	1.059212E+0	9.816818E-1	1.170621E+0	1.170920E+0	1.072447E+0	1.089952E+0	1.114604E+0	1.186080E+0	1.098861E+0	1.101075E+0	1.059637E+0	1.209152E+0	1.029171E+0	9.837941E-1	1.097627E+0	1.189642E+0	9.776976E-1	9.902151E-1	1.198017E+0	1.210806E+0	1.104790E+0	1.170176E+0	1.189203E+0	1.171417E+0	1.047843E+0	1.102970E+0	1.201072E+0	1.168725E+0	1.012528E+0	1.005673E+0	1.160302E+0	1.213600E+0	1.024269E+0	1.025588E+0	1.170598E+0	1.138680E+0	1.114140E+0	1.120968E+0	1.176931E+0	1.194939E+0	1.070013E+0	1.087474E+0	1.149870E+0	1.221050E+0	9.749665E-1	9.724302E-1	1.109295E+0	1.164655E+0	1.012283E+0	1.039671E+0	1.139714E+0	1.157157E+0	1.073154E+0	1.149974E+0	1.157020E+0	1.186818E+0	1.108963E+0	1.077646E+0	1.196565E+0	1.192133E+0	1.028513E+0	9.968574E-1	1.160417E+0	1.208226E+0	1.020847E+0	9.937388E-1	1.155293E+0	1.207955E+0	1.106377E+0	1.145221E+0	1.181725E+0	1.154060E+0	1.192610E+0	1.120844E+0	1.150184E+0	1.220662E+0	1.063146E+0	1.050587E+0	1.143330E+0	1.191875E+0	1.039427E+0	1.044553E+0	1.173129E+0	1.174682E+0	1.111610E+0	1.168107E+0	1.228522E+0	1.200551E+0	1.095396E+0	1.099829E+0	1.136224E+0	1.176970E+0	9.997230E-1	9.611403E-1	1.176090E+0	1.239956E+0	9.956433E-1	1.021686E+0	1.139576E+0	1.166954E+0	1.121059E+0	1.168035E+0	1.162615E+0	1.191656E+0	9.517017E-1	1.124120E+0	1.204478E+0	1.186560E+0	9.933320E-1	1.080770E+0	1.213583E+0	1.212181E+0	1.021986E+0	1.044519E+0	1.184427E+0	1.041536E+0	1.203652E+0	1.160101E+0
5.435330E+2	1.364456E+0	1.108777E+0	1.333803E+0	1.363595E+0	1.338618E+0	1.264603E+0	1.383556E+0	1.340652E+0	1.181001E+0	1.258100E+0	1.306858E+0	1.321796E+0	1.124808E+0	1.141014E+0	1.290328E+0	1.368935E+0	1.246965E+0	1.192067E+0	1.231573E+0	1.342266E+0	1.237363E+0	1.255167E+0	1.269442E+0	1.380615E+0	1.298000E+0	1.312885E+0	1.376408E+0	1.375868E+0	1.286480E+0	1.221241E+0	1.343736E+0	1.343000E+0	1.326542E+0	1.192582E+0	1.290731E+0	1.368329E+0	1.309437E+0	1.274665E+0	1.359574E+0	1.346105E+0	1.228097E+0	1.244500E+0	1.337446E+0	1.303637E+0	1.118143E+0	1.152369E+0	1.264739E+0	1.334760E+0	1.181078E+0	1.126152E+0	1.332302E+0	1.389327E+0	1.268388E+0	1.234443E+0	1.306876E+0	1.403276E+0	1.216162E+0	1.220804E+0	1.287797E+0	1.344667E+0	1.151082E+0	1.175037E+0	1.291726E+0	1.353394E+0	1.150205E+0	1.228923E+0	1.344527E+0	1.347296E+0	1.242727E+0	1.265596E+0	1.283862E+0	1.304073E+0	1.200703E+0	1.242990E+0	1.284259E+0	1.312862E+0	1.166820E+0	1.134472E+0	1.291555E+0	1.327084E+0	1.161082E+0	1.175928E+0	1.312015E+0	1.339718E+0	1.235541E+0	1.303139E+0	1.311012E+0	1.347161E+0	1.234643E+0	1.241330E+0	1.309998E+0	1.352885E+0	1.138469E+0	1.082291E+0	1.311382E+0	1.402283E+0	1.179374E+0	1.116602E+0	1.326957E+0	1.358063E+0	1.306153E+0	1.311281E+0	1.304992E+0	1.369150E+0	1.265692E+0	1.166453E+0	1.296648E+0	1.333831E+0	1.105320E+0	1.095449E+0	1.359735E+0	1.274865E+0	1.108626E+0	1.112359E+0	1.237926E+0	1.361995E+0	1.233645E+0	1.241658E+0	1.293205E+0	1.327251E+0	1.252030E+0	1.261884E+0	1.357926E+0	1.306098E+0	1.148849E+0	1.194891E+0	1.284175E+0	1.321730E+0	1.176214E+0	1.186405E+0	1.332682E+0	1.276574E+0	1.272562E+0	1.308147E+0	1.325277E+0	1.392339E+0	1.254289E+0	1.219855E+0	1.336654E+0	1.344929E+0	1.087371E+0	1.144987E+0	1.359808E+0	1.357549E+0	1.202924E+0	1.200792E+0	1.295537E+0	1.330824E+0	1.238191E+0	1.256248E+0	1.372339E+0	1.350051E+0	1.060481E+0	1.201866E+0	1.278027E+0	1.317839E+0	1.055482E+0	1.094360E+0	1.317197E+0	1.385021E+0	1.176021E+0	1.198207E+0	1.270703E+0	1.245340E+0	1.364693E+0	1.290119E+0
5.437640E+2	1.435407E+0	1.235747E+0	1.528629E+0	1.416097E+0	1.430294E+0	1.440729E+0	1.535133E+0	1.415145E+0	1.387318E+0	1.397232E+0	1.413221E+0	1.468441E+0	1.254228E+0	1.244657E+0	1.368301E+0	1.450250E+0	1.289900E+0	1.295858E+0	1.437690E+0	1.492456E+0	1.390449E+0	1.431954E+0	1.399790E+0	1.535525E+0	1.481665E+0	1.441873E+0	1.521749E+0	1.493969E+0	1.427313E+0	1.272679E+0	1.452382E+0	1.467939E+0	1.446230E+0	1.334949E+0	1.477709E+0	1.504079E+0	1.519265E+0	1.399121E+0	1.515226E+0	1.459871E+0	1.324837E+0	1.338612E+0	1.527502E+0	1.491651E+0	1.241888E+0	1.325366E+0	1.413195E+0	1.505593E+0	1.349722E+0	1.268888E+0	1.434017E+0	1.486174E+0	1.408515E+0	1.423613E+0	1.452978E+0	1.483738E+0	1.336599E+0	1.394724E+0	1.459551E+0	1.466120E+0	1.285508E+0	1.288482E+0	1.395131E+0	1.485812E+0	1.192713E+0	1.299350E+0	1.471033E+0	1.519952E+0	1.362959E+0	1.423068E+0	1.424988E+0	1.487289E+0	1.377386E+0	1.430705E+0	1.444835E+0	1.443069E+0	1.241646E+0	1.266102E+0	1.453292E+0	1.486911E+0	1.251466E+0	1.248334E+0	1.425917E+0	1.453525E+0	1.402832E+0	1.386109E+0	1.519267E+0	1.462212E+0	1.439651E+0	1.328184E+0	1.497020E+0	1.488633E+0	1.242772E+0	1.268845E+0	1.441861E+0	1.480871E+0	1.316538E+0	1.241759E+0	1.392999E+0	1.439643E+0	1.366686E+0	1.466446E+0	1.439512E+0	1.513426E+0	1.423044E+0	1.365036E+0	1.499487E+0	1.458050E+0	1.241807E+0	1.221670E+0	1.462704E+0	1.482387E+0	1.262881E+0	1.268316E+0	1.410757E+0	1.511593E+0	1.421699E+0	1.409721E+0	1.521468E+0	1.477822E+0	1.448408E+0	1.464450E+0	1.488159E+0	1.491675E+0	1.295682E+0	1.315970E+0	1.433303E+0	1.433990E+0	1.321046E+0	1.320514E+0	1.464947E+0	1.487686E+0	1.383583E+0	1.459805E+0	1.510513E+0	1.473150E+0	1.355008E+0	1.356016E+0	1.469142E+0	1.475494E+0	1.223523E+0	1.244683E+0	1.568318E+0	1.508819E+0	1.243852E+0	1.274504E+0	1.477251E+0	1.451977E+0	1.346524E+0	1.357419E+0	1.451727E+0	1.437458E+0	1.199720E+0	1.369060E+0	1.436773E+0	1.532242E+0	1.200496E+0	1.293476E+0	1.474291E+0	1.462327E+0	1.347022E+0	1.307441E+0	1.500491E+0	1.411485E+0	1.398895E+0	1.432883E+0
5.440170E+2	1.647010E+0	1.339154E+0	1.585129E+0	1.612109E+0	1.676766E+0	1.610643E+0	1.621835E+0	1.641786E+0	1.465218E+0	1.556331E+0	1.578006E+0	1.700236E+0	1.420249E+0	1.331856E+0	1.523712E+0	1.629148E+0	1.438746E+0	1.422210E+0	1.479284E+0	1.636300E+0	1.508507E+0	1.547726E+0	1.570649E+0	1.658361E+0	1.580715E+0	1.640778E+0	1.615834E+0	1.626606E+0	1.558172E+0	1.460753E+0	1.568395E+0	1.622130E+0	1.638003E+0	1.420728E+0	1.565086E+0	1.656455E+0	1.596788E+0	1.468516E+0	1.598859E+0	1.623446E+0	1.409409E+0	1.484938E+0	1.533164E+0	1.609232E+0	1.370965E+0	1.367936E+0	1.569340E+0	1.620260E+0	1.503596E+0	1.379845E+0	1.556897E+0	1.668515E+0	1.577710E+0	1.564245E+0	1.611353E+0	1.647484E+0	1.539842E+0	1.543440E+0	1.566024E+0	1.563279E+0	1.398164E+0	1.388425E+0	1.514133E+0	1.615274E+0	1.309152E+0	1.423378E+0	1.626578E+0	1.623003E+0	1.510659E+0	1.554783E+0	1.585047E+0	1.590039E+0	1.477308E+0	1.549327E+0	1.596382E+0	1.580541E+0	1.398838E+0	1.374470E+0	1.530424E+0	1.617032E+0	1.391993E+0	1.458805E+0	1.583975E+0	1.627985E+0	1.486477E+0	1.480501E+0	1.593439E+0	1.625053E+0	1.468847E+0	1.499411E+0	1.611487E+0	1.677902E+0	1.387103E+0	1.343466E+0	1.628773E+0	1.556959E+0	1.431256E+0	1.310651E+0	1.599305E+0	1.673588E+0	1.529442E+0	1.613798E+0	1.586260E+0	1.686669E+0	1.490215E+0	1.508116E+0	1.579555E+0	1.548562E+0	1.407024E+0	1.308888E+0	1.649377E+0	1.718554E+0	1.346144E+0	1.412831E+0	1.554568E+0	1.579724E+0	1.490719E+0	1.554662E+0	1.622325E+0	1.587034E+0	1.581012E+0	1.514948E+0	1.552325E+0	1.598123E+0	1.379497E+0	1.439815E+0	1.542923E+0	1.651226E+0	1.461546E+0	1.418521E+0	1.622402E+0	1.580923E+0	1.552761E+0	1.505058E+0	1.622545E+0	1.625102E+0	1.477618E+0	1.472814E+0	1.561541E+0	1.667359E+0	1.349203E+0	1.362068E+0	1.635071E+0	1.599465E+0	1.355412E+0	1.389645E+0	1.590285E+0	1.554925E+0	1.512408E+0	1.489428E+0	1.558241E+0	1.513136E+0	1.273069E+0	1.499781E+0	1.559837E+0	1.590952E+0	1.287246E+0	1.469548E+0	1.597295E+0	1.566660E+0	1.397237E+0	1.431281E+0	1.661085E+0	1.480158E+0	1.577037E+0	1.529759E+0
5.442920E+2	1.744095E+0	1.376460E+0	1.635784E+0	1.665309E+0	1.733233E+0	1.690068E+0	1.717274E+0	1.732059E+0	1.631366E+0	1.554401E+0	1.560918E+0	1.712064E+0	1.532165E+0	1.440482E+0	1.568880E+0	1.646038E+0	1.566980E+0	1.436311E+0	1.578619E+0	1.735723E+0	1.688141E+0	1.596746E+0	1.642281E+0	1.704956E+0	1.614824E+0	1.664284E+0	1.709213E+0	1.694439E+0	1.629177E+0	1.544343E+0	1.611977E+0	1.744018E+0	1.653873E+0	1.564286E+0	1.628025E+0	1.727103E+0	1.657986E+0	1.566017E+0	1.677268E+0	1.715701E+0	1.518926E+0	1.565514E+0	1.696160E+0	1.650877E+0	1.454705E+0	1.424690E+0	1.597732E+0	1.727325E+0	1.491901E+0	1.382732E+0	1.597465E+0	1.690555E+0	1.560267E+0	1.525086E+0	1.661612E+0	1.693059E+0	1.519766E+0	1.556670E+0	1.597713E+0	1.699434E+0	1.428099E+0	1.434884E+0	1.579412E+0	1.681483E+0	1.407728E+0	1.405305E+0	1.683374E+0	1.755397E+0	1.573521E+0	1.596929E+0	1.599391E+0	1.614503E+0	1.563995E+0	1.610473E+0	1.649261E+0	1.655038E+0	1.408699E+0	1.410216E+0	1.660433E+0	1.684169E+0	1.441524E+0	1.491940E+0	1.584617E+0	1.682499E+0	1.548050E+0	1.570687E+0	1.652779E+0	1.684646E+0	1.539669E+0	1.549040E+0	1.635883E+0	1.672682E+0	1.400633E+0	1.390625E+0	1.645162E+0	1.762779E+0	1.436244E+0	1.405954E+0	1.624500E+0	1.673586E+0	1.579697E+0	1.602076E+0	1.649850E+0	1.680989E+0	1.534994E+0	1.525385E+0	1.612248E+0	1.687141E+0	1.390448E+0	1.328389E+0	1.636130E+0	1.672374E+0	1.439732E+0	1.445345E+0	1.579797E+0	1.647116E+0	1.522376E+0	1.600904E+0	1.691335E+0	1.727909E+0	1.643332E+0	1.589822E+0	1.678748E+0	1.672350E+0	1.491669E+0	1.491233E+0	1.669109E+0	1.673072E+0	1.467117E+0	1.454626E+0	1.707775E+0	1.671491E+0	1.630299E+0	1.648154E+0	1.667743E+0	1.722416E+0	1.558314E+0	1.565095E+0	1.642391E+0	1.616481E+0	1.393854E+0	1.415132E+0	1.647783E+0	1.660098E+0	1.450471E+0	1.494427E+0	1.677564E+0	1.636159E+0	1.546935E+0	1.629457E+0	1.678649E+0	1.613454E+0	1.293582E+0	1.454373E+0	1.637754E+0	1.637790E+0	1.339040E+0	1.479594E+0	1.675510E+0	1.689843E+0	1.456271E+0	1.508128E+0	1.667917E+0	1.532217E+0	1.646869E+0	1.606241E+0
5.445070E+2	1.731648E+0	1.436017E+0	1.668256E+0	1.686311E+0	1.636241E+0	1.731511E+0	1.749708E+0	1.635472E+0	1.653278E+0	1.584672E+0	1.582964E+0	1.764691E+0	1.721524E+0	1.420550E+0	1.610288E+0	1.701082E+0	1.720979E+0	1.440826E+0	1.530193E+0	1.640530E+0	1.762143E+0	1.638469E+0	1.574173E+0	1.752153E+0	1.711249E+0	1.636561E+0	1.743620E+0	1.731989E+0	1.685507E+0	1.550771E+0	1.681951E+0	1.784242E+0	1.677677E+0	1.514249E+0	1.645744E+0	1.701474E+0	1.725013E+0	1.635985E+0	1.704567E+0	1.729284E+0	1.567598E+0	1.557133E+0	1.652738E+0	1.673537E+0	1.418969E+0	1.451977E+0	1.647414E+0	1.703335E+0	1.580532E+0	1.428384E+0	1.654497E+0	1.725288E+0	1.602130E+0	1.568103E+0	1.718885E+0	1.677864E+0	1.559287E+0	1.564233E+0	1.579334E+0	1.682815E+0	1.435177E+0	1.475944E+0	1.583455E+0	1.700993E+0	1.394175E+0	1.471371E+0	1.747919E+0	1.695344E+0	1.623568E+0	1.637908E+0	1.605123E+0	1.649843E+0	1.583185E+0	1.581120E+0	1.584128E+0	1.667147E+0	1.420877E+0	1.417025E+0	1.678472E+0	1.714474E+0	1.477428E+0	1.510351E+0	1.658844E+0	1.709077E+0	1.584064E+0	1.585115E+0	1.686444E+0	1.713557E+0	1.517926E+0	1.552142E+0	1.670281E+0	1.705314E+0	1.458707E+0	1.436227E+0	1.659117E+0	1.619954E+0	1.458688E+0	1.455904E+0	1.621093E+0	1.722128E+0	1.593975E+0	1.600400E+0	1.667582E+0	1.731541E+0	1.581017E+0	1.488997E+0	1.664956E+0	1.724591E+0	1.497651E+0	1.380392E+0	1.717422E+0	1.668866E+0	1.443603E+0	1.440531E+0	1.689553E+0	1.661188E+0	1.648383E+0	1.596393E+0	1.662435E+0	1.669749E+0	1.605650E+0	1.587500E+0	1.639996E+0	1.663247E+0	1.492929E+0	1.428755E+0	1.670381E+0	1.688849E+0	1.486923E+0	1.535872E+0	1.723171E+0	1.667497E+0	1.629126E+0	1.683008E+0	1.726307E+0	1.676319E+0	1.528286E+0	1.568967E+0	1.647152E+0	1.666745E+0	1.408737E+0	1.342771E+0	1.670032E+0	1.710931E+0	1.414825E+0	1.469448E+0	1.647514E+0	1.664172E+0	1.561156E+0	1.638094E+0	1.599256E+0	1.614038E+0	1.419764E+0	1.474326E+0	1.630472E+0	1.699802E+0	1.362989E+0	1.389781E+0	1.668824E+0	1.660307E+0	1.440662E+0	1.497965E+0	1.604704E+0	1.505634E+0	1.532858E+0	1.641932E+0
5.447720E+2	1.679995E+0	1.379077E+0	1.679295E+0	1.697511E+0	1.619634E+0	1.620309E+0	1.686709E+0	1.651252E+0	1.582070E+0	1.574368E+0	1.600600E+0	1.723297E+0	1.696064E+0	1.384177E+0	1.543606E+0	1.717346E+0	1.664872E+0	1.465644E+0	1.511570E+0	1.675790E+0	1.677972E+0	1.557113E+0	1.636995E+0	1.731583E+0	1.698788E+0	1.659463E+0	1.712724E+0	1.642957E+0	1.675530E+0	1.435034E+0	1.591720E+0	1.728174E+0	1.664453E+0	1.510078E+0	1.654298E+0	1.634983E+0	1.669060E+0	1.525866E+0	1.647067E+0	1.667028E+0	1.626009E+0	1.557135E+0	1.616866E+0	1.652102E+0	1.681392E+0	1.402311E+0	1.597729E+0	1.658287E+0	1.754101E+0	1.424918E+0	1.565715E+0	1.711259E+0	1.668412E+0	1.518467E+0	1.628884E+0	1.677305E+0	1.536703E+0	1.533988E+0	1.586940E+0	1.673227E+0	1.500481E+0	1.464598E+0	1.580568E+0	1.684440E+0	1.450237E+0	1.460777E+0	1.647234E+0	1.686468E+0	1.582674E+0	1.554784E+0	1.660772E+0	1.650387E+0	1.566642E+0	1.559718E+0	1.652484E+0	1.569643E+0	1.447560E+0	1.430644E+0	1.642394E+0	1.652681E+0	1.419233E+0	1.407875E+0	1.575016E+0	1.620487E+0	1.569541E+0	1.514772E+0	1.558637E+0	1.639214E+0	1.478169E+0	1.495068E+0	1.618366E+0	1.653753E+0	1.357788E+0	1.345022E+0	1.609352E+0	1.675462E+0	1.425021E+0	1.368636E+0	1.621095E+0	1.631787E+0	1.627095E+0	1.550167E+0	1.659632E+0	1.652589E+0	1.576043E+0	1.512433E+0	1.589563E+0	1.675278E+0	1.408133E+0	1.339763E+0	1.613850E+0	1.641392E+0	1.406168E+0	1.401390E+0	1.610708E+0	1.669332E+0	1.560368E+0	1.518001E+0	1.668924E+0	1.678152E+0	1.522318E+0	1.554995E+0	1.630466E+0	1.649243E+0	1.398405E+0	1.453636E+0	1.637880E+0	1.649407E+0	1.394082E+0	1.522974E+0	1.646897E+0	1.627540E+0	1.477571E+0	1.569268E+0	1.646100E+0	1.688272E+0	1.518904E+0	1.542508E+0	1.622014E+0	1.570505E+0	1.372909E+0	1.360461E+0	1.601377E+0	1.674794E+0	1.432646E+0	1.398172E+0	1.675416E+0	1.650865E+0	1.523238E+0	1.620819E+0	1.644245E+0	1.635160E+0	1.552165E+0	1.550696E+0	1.658872E+0	1.645707E+0	1.403777E+0	1.464230E+0	1.638743E+0	1.647105E+0	1.475271E+0	1.472562E+0	1.664500E+0	1.479052E+0	1.577038E+0	1.588395E+0
5.450150E+2	1.574197E+0	1.260617E+0	1.531876E+0	1.596007E+0	1.590402E+0	1.606496E+0	1.552598E+0	1.613376E+0	1.516952E+0	1.522837E+0	1.432512E+0	1.611541E+0	1.537469E+0	1.346804E+0	1.445199E+0	1.552835E+0	1.617931E+0	1.392313E+0	1.463765E+0	1.586942E+0	1.607931E+0	1.541469E+0	1.527201E+0	1.595432E+0	1.587274E+0	1.558805E+0	1.636194E+0	1.612676E+0	1.578707E+0	1.395919E+0	1.469571E+0	1.654430E+0	1.608244E+0	1.417153E+0	1.557145E+0	1.586503E+0	1.638170E+0	1.503500E+0	1.579113E+0	1.646649E+0	1.596194E+0	1.523616E+0	1.513657E+0	1.564526E+0	1.565114E+0	1.352106E+0	1.533257E+0	1.611485E+0	1.595302E+0	1.323210E+0	1.464003E+0	1.636455E+0	1.595735E+0	1.427469E+0	1.559342E+0	1.618785E+0	1.585007E+0	1.506890E+0	1.529901E+0	1.537713E+0	1.644709E+0	1.360874E+0	1.494492E+0	1.591037E+0	1.563598E+0	1.333630E+0	1.574296E+0	1.554075E+0	1.585120E+0	1.464633E+0	1.546035E+0	1.555244E+0	1.551421E+0	1.501020E+0	1.535764E+0	1.543601E+0	1.432480E+0	1.333621E+0	1.481904E+0	1.590299E+0	1.451425E+0	1.409717E+0	1.536623E+0	1.505314E+0	1.530624E+0	1.458856E+0	1.562060E+0	1.585526E+0	1.480031E+0	1.415659E+0	1.582088E+0	1.591754E+0	1.343128E+0	1.286984E+0	1.477663E+0	1.603115E+0	1.367663E+0	1.339357E+0	1.523047E+0	1.567067E+0	1.498034E+0	1.431842E+0	1.598485E+0	1.603737E+0	1.486484E+0	1.472346E+0	1.536183E+0	1.542948E+0	1.284353E+0	1.318638E+0	1.566882E+0	1.596380E+0	1.348725E+0	1.271930E+0	1.523029E+0	1.576022E+0	1.472991E+0	1.493187E+0	1.553320E+0	1.607063E+0	1.524494E+0	1.506239E+0	1.484983E+0	1.631035E+0	1.387059E+0	1.363516E+0	1.621948E+0	1.571131E+0	1.356946E+0	1.458495E+0	1.553123E+0	1.588912E+0	1.492841E+0	1.522792E+0	1.620635E+0	1.601199E+0	1.450090E+0	1.473460E+0	1.559505E+0	1.530664E+0	1.287464E+0	1.326158E+0	1.536535E+0	1.557207E+0	1.333627E+0	1.404266E+0	1.627484E+0	1.543716E+0	1.464334E+0	1.509783E+0	1.586027E+0	1.587641E+0	1.478196E+0	1.437172E+0	1.553283E+0	1.567201E+0	1.371408E+0	1.318289E+0	1.580584E+0	1.611283E+0	1.387733E+0	1.428108E+0	1.538075E+0	1.421454E+0	1.507206E+0	1.466025E+0
5.452580E+2	1.503868E+0	1.244253E+0	1.527332E+0	1.516904E+0	1.453548E+0	1.446946E+0	1.596883E+0	1.512999E+0	1.508433E+0	1.451338E+0	1.422591E+0	1.532894E+0	1.554974E+0	1.276050E+0	1.446276E+0	1.485903E+0	1.543507E+0	1.283447E+0	1.431480E+0	1.497392E+0	1.529408E+0	1.432477E+0	1.469661E+0	1.573040E+0	1.524303E+0	1.490093E+0	1.532982E+0	1.546661E+0	1.512988E+0	1.358948E+0	1.461592E+0	1.516083E+0	1.570549E+0	1.379625E+0	1.458767E+0	1.591350E+0	1.515185E+0	1.377897E+0	1.505933E+0	1.552694E+0	1.546915E+0	1.408875E+0	1.440654E+0	1.552890E+0	1.523513E+0	1.319363E+0	1.467606E+0	1.466394E+0	1.603302E+0	1.299517E+0	1.532792E+0	1.500867E+0	1.492241E+0	1.429677E+0	1.528367E+0	1.574333E+0	1.534194E+0	1.458999E+0	1.481100E+0	1.540907E+0	1.518989E+0	1.254448E+0	1.428059E+0	1.475763E+0	1.510617E+0	1.339864E+0	1.423912E+0	1.537698E+0	1.480752E+0	1.404919E+0	1.477766E+0	1.508489E+0	1.499145E+0	1.427036E+0	1.477724E+0	1.430957E+0	1.483525E+0	1.305252E+0	1.465729E+0	1.555239E+0	1.551714E+0	1.291287E+0	1.509107E+0	1.465109E+0	1.502163E+0	1.446231E+0	1.458789E+0	1.438022E+0	1.469469E+0	1.390843E+0	1.478257E+0	1.482761E+0	1.383158E+0	1.226354E+0	1.521963E+0	1.549472E+0	1.459938E+0	1.223387E+0	1.484919E+0	1.542795E+0	1.438071E+0	1.419002E+0	1.476807E+0	1.542963E+0	1.431749E+0	1.408826E+0	1.512162E+0	1.495505E+0	1.304799E+0	1.235213E+0	1.476557E+0	1.506939E+0	1.267399E+0	1.294207E+0	1.454279E+0	1.493820E+0	1.395738E+0	1.405774E+0	1.498464E+0	1.543736E+0	1.411450E+0	1.412793E+0	1.544702E+0	1.537894E+0	1.325301E+0	1.303806E+0	1.528263E+0	1.509231E+0	1.296291E+0	1.325028E+0	1.483141E+0	1.506333E+0	1.443499E+0	1.443291E+0	1.513697E+0	1.539738E+0	1.327482E+0	1.428288E+0	1.491562E+0	1.530661E+0	1.231790E+0	1.218419E+0	1.527000E+0	1.507599E+0	1.299962E+0	1.326289E+0	1.449350E+0	1.550020E+0	1.438605E+0	1.432058E+0	1.488112E+0	1.473246E+0	1.465762E+0	1.407587E+0	1.490660E+0	1.517726E+0	1.276239E+0	1.336608E+0	1.543148E+0	1.477413E+0	1.345665E+0	1.351898E+0	1.491095E+0	1.434746E+0	1.411722E+0	1.371699E+0
5.455130E+2	1.461546E+0	1.206293E+0	1.440306E+0	1.434999E+0	1.454213E+0	1.403431E+0	1.520160E+0	1.467543E+0	1.384883E+0	1.295459E+0	1.395036E+0	1.480857E+0	1.424491E+0	1.167422E+0	1.368301E+0	1.392077E+0	1.458210E+0	1.252986E+0	1.356980E+0	1.479764E+0	1.432248E+0	1.331828E+0	1.324048E+0	1.513135E+0	1.443623E+0	1.445489E+0	1.441708E+0	1.365572E+0	1.515922E+0	1.276431E+0	1.405734E+0	1.438073E+0	1.467391E+0	1.281340E+0	1.441660E+0	1.422354E+0	1.424259E+0	1.341763E+0	1.404293E+0	1.431572E+0	1.438004E+0	1.304447E+0	1.414852E+0	1.465314E+0	1.428570E+0	1.242414E+0	1.419108E+0	1.471073E+0	1.487593E+0	1.228438E+0	1.406385E+0	1.432739E+0	1.416071E+0	1.357433E+0	1.436616E+0	1.500056E+0	1.492796E+0	1.339270E+0	1.361947E+0	1.464842E+0	1.485787E+0	1.248507E+0	1.358159E+0	1.401274E+0	1.421283E+0	1.274421E+0	1.422624E+0	1.422365E+0	1.498451E+0	1.380333E+0	1.401466E+0	1.433465E+0	1.450176E+0	1.333484E+0	1.392599E+0	1.360099E+0	1.452200E+0	1.195180E+0	1.351893E+0	1.437003E+0	1.428521E+0	1.245879E+0	1.381767E+0	1.430354E+0	1.428973E+0	1.356646E+0	1.395458E+0	1.394361E+0	1.470090E+0	1.291582E+0	1.411951E+0	1.415538E+0	1.444050E+0	1.198888E+0	1.384208E+0	1.424734E+0	1.403825E+0	1.171142E+0	1.331041E+0	1.458521E+0	1.429505E+0	1.359281E+0	1.436454E+0	1.466282E+0	1.356497E+0	1.340983E+0	1.382722E+0	1.424344E+0	1.408683E+0	1.163166E+0	1.399478E+0	1.457250E+0	1.412622E+0	1.162940E+0	1.398772E+0	1.465678E+0	1.414735E+0	1.331893E+0	1.448917E+0	1.457788E+0	1.359999E+0	1.372746E+0	1.451314E+0	1.453158E+0	1.255350E+0	1.225298E+0	1.437765E+0	1.409717E+0	1.297526E+0	1.322451E+0	1.418061E+0	1.448394E+0	1.355973E+0	1.386422E+0	1.480593E+0	1.436726E+0	1.309341E+0	1.388281E+0	1.451477E+0	1.376192E+0	1.161787E+0	1.139092E+0	1.474238E+0	1.469017E+0	1.234609E+0	1.245263E+0	1.404995E+0	1.444273E+0	1.408814E+0	1.350630E+0	1.488774E+0	1.387595E+0	1.352011E+0	1.268605E+0	1.422936E+0	1.424710E+0	1.245816E+0	1.262160E+0	1.442873E+0	1.384390E+0	1.290020E+0	1.280133E+0	1.398837E+0	1.279677E+0	1.360416E+0	1.379346E+0
5.457890E+2	1.386238E+0	1.292033E+0	1.379912E+0	1.339094E+0	1.302744E+0	1.362681E+0	1.372330E+0	1.344439E+0	1.333151E+0	1.246507E+0	1.271036E+0	1.434144E+0	1.309390E+0	1.128059E+0	1.308614E+0	1.331401E+0	1.344288E+0	1.191503E+0	1.242747E+0	1.364123E+0	1.413609E+0	1.315661E+0	1.314064E+0	1.361857E+0	1.330143E+0	1.330364E+0	1.448727E+0	1.310457E+0	1.351028E+0	1.184269E+0	1.319799E+0	1.405776E+0	1.339103E+0	1.186030E+0	1.311508E+0	1.369716E+0	1.391619E+0	1.333163E+0	1.364220E+0	1.398744E+0	1.388725E+0	1.249011E+0	1.352547E+0	1.347118E+0	1.364032E+0	1.211852E+0	1.326250E+0	1.375131E+0	1.385421E+0	1.159669E+0	1.329953E+0	1.379308E+0	1.364905E+0	1.281876E+0	1.327328E+0	1.318874E+0	1.386154E+0	1.245378E+0	1.288434E+0	1.354893E+0	1.329046E+0	1.176116E+0	1.290572E+0	1.371717E+0	1.375074E+0	1.223315E+0	1.341298E+0	1.346615E+0	1.346480E+0	1.271449E+0	1.327460E+0	1.386164E+0	1.374076E+0	1.304746E+0	1.339719E+0	1.314679E+0	1.365776E+0	1.132200E+0	1.310837E+0	1.355010E+0	1.419235E+0	1.166110E+0	1.338253E+0	1.354709E+0	1.328482E+0	1.243017E+0	1.324136E+0	1.380201E+0	1.372556E+0	1.224578E+0	1.370044E+0	1.371813E+0	1.405146E+0	1.090065E+0	1.316843E+0	1.362989E+0	1.434372E+0	1.161382E+0	1.336488E+0	1.330422E+0	1.382678E+0	1.331930E+0	1.294596E+0	1.429929E+0	1.416822E+0	1.228124E+0	1.276633E+0	1.331959E+0	1.358400E+0	1.120367E+0	1.345884E+0	1.335075E+0	1.408749E+0	1.114770E+0	1.245495E+0	1.319781E+0	1.420433E+0	1.273806E+0	1.359852E+0	1.375070E+0	1.331740E+0	1.246792E+0	1.354748E+0	1.291391E+0	1.340426E+0	1.223639E+0	1.349180E+0	1.358747E+0	1.348902E+0	1.191561E+0	1.339683E+0	1.327853E+0	1.361849E+0	1.274511E+0	1.374292E+0	1.347946E+0	1.211751E+0	1.225018E+0	1.295890E+0	1.349217E+0	1.109971E+0	1.132125E+0	1.365530E+0	1.367346E+0	1.157375E+0	1.184952E+0	1.276935E+0	1.341330E+0	1.237517E+0	1.275373E+0	1.291625E+0	1.360611E+0	1.284877E+0	1.332593E+0	1.351574E+0	1.352804E+0	1.145468E+0	1.216073E+0	1.376694E+0	1.346682E+0	1.170593E+0	1.220436E+0	1.408235E+0	1.229833E+0	1.309113E+0	1.183047E+0
5.460060E+2	1.320267E+0	1.352246E+0	1.276653E+0	1.238991E+0	1.300748E+0	1.279109E+0	1.367339E+0	1.262372E+0	1.291158E+0	1.247149E+0	1.231906E+0	1.378562E+0	1.272265E+0	1.084208E+0	1.184930E+0	1.356422E+0	1.273873E+0	1.111969E+0	1.147759E+0	1.300662E+0	1.294417E+0	1.271856E+0	1.196047E+0	1.302557E+0	1.290127E+0	1.286967E+0	1.325855E+0	1.350430E+0	1.325208E+0	1.222850E+0	1.256575E+0	1.335686E+0	1.372831E+0	1.135994E+0	1.241237E+0	1.305301E+0	1.250569E+0	1.214443E+0	1.287552E+0	1.284414E+0	1.313280E+0	1.200666E+0	1.290874E+0	1.274241E+0	1.312295E+0	1.128355E+0	1.230431E+0	1.349385E+0	1.318331E+0	1.122107E+0	1.258813E+0	1.315858E+0	1.319555E+0	1.214589E+0	1.278822E+0	1.297493E+0	1.272617E+0	1.175433E+0	1.199702E+0	1.310148E+0	1.281154E+0	1.149104E+0	1.246091E+0	1.294869E+0	1.302376E+0	1.134188E+0	1.259331E+0	1.231963E+0	1.273851E+0	1.231641E+0	1.313693E+0	1.254599E+0	1.311210E+0	1.256441E+0	1.298449E+0	1.234134E+0	1.259047E+0	1.103831E+0	1.288445E+0	1.258162E+0	1.312755E+0	1.167337E+0	1.260824E+0	1.311095E+0	1.261683E+0	1.277886E+0	1.280203E+0	1.257481E+0	1.319749E+0	1.184876E+0	1.296236E+0	1.330043E+0	1.316630E+0	1.067264E+0	1.279218E+0	1.319956E+0	1.331499E+0	1.060913E+0	1.285423E+0	1.302781E+0	1.302155E+0	1.185696E+0	1.229781E+0	1.293606E+0	1.354010E+0	1.176936E+0	1.326008E+0	1.293258E+0	1.317508E+0	1.072155E+0	1.304938E+0	1.337413E+0	1.345498E+0	1.101522E+0	1.287756E+0	1.305709E+0	1.268472E+0	1.258579E+0	1.286127E+0	1.309801E+0	1.310724E+0	1.303093E+0	1.320444E+0	1.280188E+0	1.380126E+0	1.106427E+0	1.272704E+0	1.280468E+0	1.257915E+0	1.157387E+0	1.282297E+0	1.344503E+0	1.289599E+0	1.298363E+0	1.322092E+0	1.312662E+0	1.245533E+0	1.262446E+0	1.304722E+0	1.300180E+0	1.249983E+0	1.030820E+0	1.318489E+0	1.358159E+0	1.208204E+0	1.138044E+0	1.306265E+0	1.273401E+0	1.293711E+0	1.245146E+0	1.277732E+0	1.318374E+0	1.215259E+0	1.170907E+0	1.279482E+0	1.345547E+0	1.121516E+0	1.105587E+0	1.279093E+0	1.295147E+0	1.176019E+0	1.201383E+0	1.247640E+0	1.181098E+0	1.249257E+0	1.274823E+0
5.467600E+2	1.306575E+0	1.309047E+0	1.257820E+0	1.268391E+0	1.322007E+0	1.363374E+0	1.274397E+0	1.264262E+0	1.238207E+0	1.222673E+0	1.162467E+0	1.309378E+0	1.204898E+0	1.029399E+0	1.176863E+0	1.328275E+0	1.289903E+0	1.088841E+0	1.179420E+0	1.237202E+0	1.275211E+0	1.184243E+0	1.210141E+0	1.272907E+0	1.235026E+0	1.217651E+0	1.287240E+0	1.242626E+0	1.277092E+0	1.107112E+0	1.190283E+0	1.272914E+0	1.300086E+0	1.081190E+0	1.242459E+0	1.265132E+0	1.278545E+0	1.139881E+0	1.327047E+0	1.270827E+0	1.262777E+0	1.207756E+0	1.197735E+0	1.274851E+0	1.244020E+0	1.079240E+0	1.212689E+0	1.242324E+0	1.294943E+0	1.051606E+0	1.274098E+0	1.279121E+0	1.246875E+0	1.171023E+0	1.265966E+0	1.235596E+0	1.240626E+0	1.175434E+0	1.208574E+0	1.273715E+0	1.256119E+0	1.051321E+0	1.181967E+0	1.250532E+0	1.248161E+0	1.096170E+0	1.254813E+0	1.253802E+0	1.311690E+0	1.222861E+0	1.223624E+0	1.268732E+0	1.263569E+0	1.114584E+0	1.248794E+0	1.235947E+0	1.290948E+0	1.081134E+0	1.229349E+0	1.366892E+0	1.286133E+0	1.139722E+0	1.242269E+0	1.266800E+0	1.200109E+0	1.166057E+0	1.225999E+0	1.320021E+0	1.271918E+0	1.132762E+0	1.251826E+0	1.204735E+0	1.293514E+0	1.038759E+0	1.210038E+0	1.227647E+0	1.280999E+0	1.071247E+0	1.213930E+0	1.242104E+0	1.250758E+0	1.226441E+0	1.244460E+0	1.272590E+0	1.265070E+0	1.133766E+0	1.240601E+0	1.238953E+0	1.276068E+0	1.049405E+0	1.270011E+0	1.245636E+0	1.262236E+0	1.059370E+0	1.231616E+0	1.296083E+0	1.322291E+0	1.172290E+0	1.307360E+0	1.289768E+0	1.217248E+0	1.161473E+0	1.201005E+0	1.315904E+0	1.225100E+0	1.087633E+0	1.307118E+0	1.221607E+0	1.206542E+0	1.119346E+0	1.301894E+0	1.251270E+0	1.252591E+0	1.239044E+0	1.255257E+0	1.255186E+0	1.202367E+0	1.152743E+0	1.252406E+0	1.243784E+0	1.252190E+0	1.047436E+0	1.204062E+0	1.239344E+0	1.158035E+0	1.109411E+0	1.244027E+0	1.274099E+0	1.234131E+0	1.177908E+0	1.236713E+0	1.272026E+0	1.285500E+0	1.172969E+0	1.270742E+0	1.246594E+0	1.257465E+0	1.145171E+0	1.242328E+0	1.256178E+0	1.208592E+0	1.135971E+0	1.263870E+0	1.236480E+0	1.313387E+0	1.167749E+0
5.475230E+2	1.380639E+0	1.336537E+0	1.336399E+0	1.360795E+0	1.347918E+0	1.321238E+0	1.383557E+0	1.304669E+0	1.294203E+0	1.263253E+0	1.239070E+0	1.398074E+0	1.351294E+0	1.143007E+0	1.227950E+0	1.363928E+0	1.310513E+0	1.159350E+0	1.298622E+0	1.378931E+0	1.348080E+0	1.313055E+0	1.291167E+0	1.396954E+0	1.303247E+0	1.322528E+0	1.326560E+0	1.345585E+0	1.352789E+0	1.194985E+0	1.311207E+0	1.350313E+0	1.367540E+0	1.120506E+0	1.265679E+0	1.296994E+0	1.371218E+0	1.277530E+0	1.311947E+0	1.364218E+0	1.322405E+0	1.226453E+0	1.288358E+0	1.326909E+0	1.322960E+0	1.140363E+0	1.274795E+0	1.358746E+0	1.341103E+0	1.146376E+0	1.299968E+0	1.404689E+0	1.371883E+0	1.219554E+0	1.400967E+0	1.378518E+0	1.317152E+0	1.288860E+0	1.222519E+0	1.356811E+0	1.391636E+0	1.144243E+0	1.320611E+0	1.328565E+0	1.309155E+0	1.207733E+0	1.294185E+0	1.317266E+0	1.371506E+0	1.290768E+0	1.268372E+0	1.347020E+0	1.337017E+0	1.236264E+0	1.316505E+0	1.311044E+0	1.372154E+0	1.146383E+0	1.307730E+0	1.338372E+0	1.310278E+0	1.169790E+0	1.291539E+0	1.301553E+0	1.381341E+0	1.220769E+0	1.284197E+0	1.348338E+0	1.344602E+0	1.201625E+0	1.286229E+0	1.360715E+0	1.362861E+0	1.106647E+0	1.313202E+0	1.356129E+0	1.360804E+0	1.127510E+0	1.373254E+0	1.327727E+0	1.311864E+0	1.230348E+0	1.346570E+0	1.328825E+0	1.337216E+0	1.264514E+0	1.325340E+0	1.275779E+0	1.366688E+0	1.101950E+0	1.375996E+0	1.316953E+0	1.306771E+0	1.082854E+0	1.326231E+0	1.361997E+0	1.344453E+0	1.198233E+0	1.339800E+0	1.340175E+0	1.294783E+0	1.330955E+0	1.352843E+0	1.344614E+0	1.392100E+0	1.191020E+0	1.338982E+0	1.379984E+0	1.358186E+0	1.261841E+0	1.354377E+0	1.313202E+0	1.363024E+0	1.281851E+0	1.314456E+0	1.412827E+0	1.420064E+0	1.288258E+0	1.335295E+0	1.311212E+0	1.360227E+0	1.086029E+0	1.306413E+0	1.358162E+0	1.345511E+0	1.153883E+0	1.341324E+0	1.297910E+0	1.324857E+0	1.269203E+0	1.316766E+0	1.234483E+0	1.317202E+0	1.229387E+0	1.376332E+0	1.325756E+0	1.328032E+0	1.167625E+0	1.359314E+0	1.304572E+0	1.290698E+0	1.196937E+0	1.332208E+0	1.164483E+0	1.235005E+0	1.356402E+0
5.482600E+2	1.471504E+0	1.390203E+0	1.396147E+0	1.448299E+0	1.376486E+0	1.465597E+0	1.483984E+0	1.415777E+0	1.421401E+0	1.379841E+0	1.303552E+0	1.481451E+0	1.476473E+0	1.243163E+0	1.332273E+0	1.442119E+0	1.433022E+0	1.236629E+0	1.301726E+0	1.385981E+0	1.470096E+0	1.375110E+0	1.422686E+0	1.529473E+0	1.473136E+0	1.426199E+0	1.491557E+0	1.426139E+0	1.488926E+0	1.283397E+0	1.418008E+0	1.439294E+0	1.413826E+0	1.263468E+0	1.390330E+0	1.463909E+0	1.388120E+0	1.353235E+0	1.377576E+0	1.448552E+0	1.452608E+0	1.354084E+0	1.450722E+0	1.461642E+0	1.412568E+0	1.224952E+0	1.346950E+0	1.450600E+0	1.501749E+0	1.211679E+0	1.362878E+0	1.421388E+0	1.467238E+0	1.335371E+0	1.398628E+0	1.497247E+0	1.468960E+0	1.331710E+0	1.367653E+0	1.376627E+0	1.437351E+0	1.286860E+0	1.341406E+0	1.398321E+0	1.438534E+0	1.248243E+0	1.383254E+0	1.459898E+0	1.402629E+0	1.361015E+0	1.375077E+0	1.399215E+0	1.401869E+0	1.357331E+0	1.439674E+0	1.413396E+0	1.410439E+0	1.208797E+0	1.360605E+0	1.465523E+0	1.434711E+0	1.280855E+0	1.400325E+0	1.400368E+0	1.492286E+0	1.350636E+0	1.459362E+0	1.449822E+0	1.366967E+0	1.297784E+0	1.385680E+0	1.422718E+0	1.446866E+0	1.241899E+0	1.353256E+0	1.406024E+0	1.423777E+0	1.227979E+0	1.416152E+0	1.465936E+0	1.476903E+0	1.321327E+0	1.404048E+0	1.394710E+0	1.405630E+0	1.329268E+0	1.384722E+0	1.418726E+0	1.493781E+0	1.188627E+0	1.404896E+0	1.436204E+0	1.433921E+0	1.202080E+0	1.423999E+0	1.459010E+0	1.440698E+0	1.360091E+0	1.421786E+0	1.429352E+0	1.452030E+0	1.344304E+0	1.423997E+0	1.453859E+0	1.521917E+0	1.255152E+0	1.393791E+0	1.444913E+0	1.454742E+0	1.271512E+0	1.471245E+0	1.431745E+0	1.471696E+0	1.423114E+0	1.423306E+0	1.432746E+0	1.472612E+0	1.268251E+0	1.365191E+0	1.425844E+0	1.436300E+0	1.133731E+0	1.390961E+0	1.384494E+0	1.469615E+0	1.220286E+0	1.440766E+0	1.364438E+0	1.402043E+0	1.348162E+0	1.455035E+0	1.442153E+0	1.460789E+0	1.324335E+0	1.477550E+0	1.486062E+0	1.382412E+0	1.265705E+0	1.440201E+0	1.429017E+0	1.416236E+0	1.311887E+0	1.403963E+0	1.330629E+0	1.437375E+0	1.409940E+0
5.490100E+2	1.465278E+0	1.473323E+0	1.424723E+0	1.420300E+0	1.407707E+0	1.436585E+0	1.500201E+0	1.442924E+0	1.382451E+0	1.369535E+0	1.370237E+0	1.472581E+0	1.446237E+0	1.214759E+0	1.332812E+0	1.448372E+0	1.469659E+0	1.242835E+0	1.326560E+0	1.413485E+0	1.453148E+0	1.362073E+0	1.329921E+0	1.426603E+0	1.405577E+0	1.426803E+0	1.495067E+0	1.449151E+0	1.449612E+0	1.263571E+0	1.432126E+0	1.422836E+0	1.462102E+0	1.307548E+0	1.402552E+0	1.414732E+0	1.393368E+0	1.333165E+0	1.417652E+0	1.433270E+0	1.441049E+0	1.345703E+0	1.455129E+0	1.441430E+0	1.428039E+0	1.224406E+0	1.371202E+0	1.437143E+0	1.430351E+0	1.271778E+0	1.435780E+0	1.396007E+0	1.406769E+0	1.353569E+0	1.392784E+0	1.498935E+0	1.478366E+0	1.328559E+0	1.396808E+0	1.409867E+0	1.485247E+0	1.251749E+0	1.392244E+0	1.502363E+0	1.442842E+0	1.238272E+0	1.419398E+0	1.476960E+0	1.417278E+0	1.339940E+0	1.381385E+0	1.457386E+0	1.448190E+0	1.309026E+0	1.404207E+0	1.452152E+0	1.438279E+0	1.250781E+0	1.386106E+0	1.454830E+0	1.499095E+0	1.212131E+0	1.378566E+0	1.441260E+0	1.453369E+0	1.367471E+0	1.388039E+0	1.438021E+0	1.458288E+0	1.349896E+0	1.449484E+0	1.474931E+0	1.474494E+0	1.208733E+0	1.424259E+0	1.432219E+0	1.465547E+0	1.210183E+0	1.392319E+0	1.400538E+0	1.492893E+0	1.340304E+0	1.416887E+0	1.449807E+0	1.418690E+0	1.310148E+0	1.389390E+0	1.459924E+0	1.400948E+0	1.190251E+0	1.425972E+0	1.394704E+0	1.435213E+0	1.177994E+0	1.333802E+0	1.422723E+0	1.451463E+0	1.290160E+0	1.441250E+0	1.417722E+0	1.406377E+0	1.388417E+0	1.425266E+0	1.521086E+0	1.397771E+0	1.299934E+0	1.358739E+0	1.415179E+0	1.425031E+0	1.339859E+0	1.473344E+0	1.456385E+0	1.417655E+0	1.390699E+0	1.434125E+0	1.525508E+0	1.446341E+0	1.322462E+0	1.403917E+0	1.414808E+0	1.394403E+0	1.193228E+0	1.435460E+0	1.439002E+0	1.478853E+0	1.203230E+0	1.432897E+0	1.442876E+0	1.462979E+0	1.400596E+0	1.429895E+0	1.457407E+0	1.432197E+0	1.316078E+0	1.457888E+0	1.402282E+0	1.347456E+0	1.209573E+0	1.399423E+0	1.442841E+0	1.406058E+0	1.282671E+0	1.400544E+0	1.337274E+0	1.438800E+0	1.318162E+0
5.497680E+2	1.421092E+0	1.405912E+0	1.393548E+0	1.410499E+0	1.448233E+0	1.357155E+0	1.414744E+0	1.398100E+0	1.371494E+0	1.305769E+0	1.349292E+0	1.432962E+0	1.389482E+0	1.127064E+0	1.301083E+0	1.374561E+0	1.485688E+0	1.208991E+0	1.268821E+0	1.369766E+0	1.378019E+0	1.326090E+0	1.311719E+0	1.422973E+0	1.372779E+0	1.353871E+0	1.405899E+0	1.402518E+0	1.406774E+0	1.244282E+0	1.362150E+0	1.383832E+0	1.401923E+0	1.274786E+0	1.334116E+0	1.457677E+0	1.377049E+0	1.270648E+0	1.314270E+0	1.453080E+0	1.453822E+0	1.288978E+0	1.354438E+0	1.367942E+0	1.331495E+0	1.209670E+0	1.404915E+0	1.417251E+0	1.437739E+0	1.183942E+0	1.301731E+0	1.358604E+0	1.375952E+0	1.302281E+0	1.336095E+0	1.458982E+0	1.428811E+0	1.304612E+0	1.339768E+0	1.347224E+0	1.409596E+0	1.177196E+0	1.290571E+0	1.414874E+0	1.402800E+0	1.220196E+0	1.400034E+0	1.428508E+0	1.361740E+0	1.348721E+0	1.330329E+0	1.422048E+0	1.373416E+0	1.300467E+0	1.373900E+0	1.371607E+0	1.351274E+0	1.200852E+0	1.344428E+0	1.347283E+0	1.417377E+0	1.197403E+0	1.377285E+0	1.376518E+0	1.397607E+0	1.282698E+0	1.409721E+0	1.400852E+0	1.441516E+0	1.232024E+0	1.324384E+0	1.335265E+0	1.424878E+0	1.165205E+0	1.309562E+0	1.339914E+0	1.372650E+0	1.189514E+0	1.288825E+0	1.363457E+0	1.417511E+0	1.324676E+0	1.408325E+0	1.357792E+0	1.429265E+0	1.263894E+0	1.386726E+0	1.361297E+0	1.444050E+0	1.110618E+0	1.391649E+0	1.360796E+0	1.431341E+0	1.177992E+0	1.372280E+0	1.393099E+0	1.356483E+0	1.268730E+0	1.361037E+0	1.338237E+0	1.373769E+0	1.311219E+0	1.359831E+0	1.423745E+0	1.416046E+0	1.186596E+0	1.393154E+0	1.396973E+0	1.402131E+0	1.248946E+0	1.410360E+0	1.405774E+0	1.324841E+0	1.327103E+0	1.394662E+0	1.357623E+0	1.336239E+0	1.301165E+0	1.350921E+0	1.376190E+0	1.367394E+0	1.183579E+0	1.372523E+0	1.410828E+0	1.347492E+0	1.239171E+0	1.378524E+0	1.393851E+0	1.360065E+0	1.308065E+0	1.370353E+0	1.401674E+0	1.381224E+0	1.275485E+0	1.353757E+0	1.400961E+0	1.273005E+0	1.168807E+0	1.391399E+0	1.361766E+0	1.339556E+0	1.259810E+0	1.416776E+0	1.346135E+0	1.430249E+0	1.277373E+0
5.505000E+2	1.408642E+0	1.361406E+0	1.320815E+0	1.378296E+0	1.344597E+0	1.431752E+0	1.422229E+0	1.371586E+0	1.308199E+0	1.264542E+0	1.300244E+0	1.388022E+0	1.338034E+0	1.143505E+0	1.313988E+0	1.348290E+0	1.341998E+0	1.200528E+0	1.283722E+0	1.378226E+0	1.403441E+0	1.255168E+0	1.308782E+0	1.388483E+0	1.334732E+0	1.363515E+0	1.350430E+0	1.395249E+0	1.392105E+0	1.239459E+0	1.347422E+0	1.404554E+0	1.379442E+0	1.205689E+0	1.260792E+0	1.356554E+0	1.362477E+0	1.259175E+0	1.334017E+0	1.335917E+0	1.383854E+0	1.287042E+0	1.390937E+0	1.380190E+0	1.382167E+0	1.168195E+0	1.271835E+0	1.361087E+0	1.426660E+0	1.124417E+0	1.371697E+0	1.396009E+0	1.316646E+0	1.265331E+0	1.323238E+0	1.312121E+0	1.332212E+0	1.263024E+0	1.271953E+0	1.355532E+0	1.382927E+0	1.135058E+0	1.284216E+0	1.369946E+0	1.342422E+0	1.176571E+0	1.332265E+0	1.340472E+0	1.348313E+0	1.303061E+0	1.333770E+0	1.290479E+0	1.343637E+0	1.268059E+0	1.364224E+0	1.285607E+0	1.391299E+0	1.154327E+0	1.358736E+0	1.328272E+0	1.375899E+0	1.201084E+0	1.320976E+0	1.346531E+0	1.273878E+0	1.301935E+0	1.324708E+0	1.368401E+0	1.393057E+0	1.190458E+0	1.337518E+0	1.395959E+0	1.371881E+0	1.122712E+0	1.294391E+0	1.349271E+0	1.360180E+0	1.160235E+0	1.356233E+0	1.382337E+0	1.331282E+0	1.308489E+0	1.383870E+0	1.311783E+0	1.411847E+0	1.266362E+0	1.326674E+0	1.341948E+0	1.384370E+0	1.118742E+0	1.348292E+0	1.384765E+0	1.330654E+0	1.175586E+0	1.352724E+0	1.348664E+0	1.359016E+0	1.299184E+0	1.331541E+0	1.345343E+0	1.338986E+0	1.289746E+0	1.299480E+0	1.350917E+0	1.421089E+0	1.193233E+0	1.318590E+0	1.407290E+0	1.398415E+0	1.223155E+0	1.357876E+0	1.364481E+0	1.385344E+0	1.284908E+0	1.337374E+0	1.367868E+0	1.363138E+0	1.188236E+0	1.344806E+0	1.368832E+0	1.379523E+0	1.097821E+0	1.286703E+0	1.382045E+0	1.381817E+0	1.212368E+0	1.374228E+0	1.307016E+0	1.376314E+0	1.336442E+0	1.385569E+0	1.368825E+0	1.355118E+0	1.186730E+0	1.373420E+0	1.342909E+0	1.335801E+0	1.187121E+0	1.352628E+0	1.340397E+0	1.375520E+0	1.212815E+0	1.385170E+0	1.218758E+0	1.329064E+0	1.338556E+0
5.512620E+2	1.348897E+0	1.363371E+0	1.359130E+0	1.381797E+0	1.401728E+0	1.428987E+0	1.441567E+0	1.354539E+0	1.299071E+0	1.258102E+0	1.296387E+0	1.397483E+0	1.358190E+0	1.136030E+0	1.290866E+0	1.360801E+0	1.414127E+0	1.202785E+0	1.307936E+0	1.330984E+0	1.374632E+0	1.294280E+0	1.302323E+0	1.403611E+0	1.359660E+0	1.320116E+0	1.378515E+0	1.384952E+0	1.385650E+0	1.241066E+0	1.340668E+0	1.349706E+0	1.386715E+0	1.202710E+0	1.301121E+0	1.353783E+0	1.394534E+0	1.305057E+0	1.290457E+0	1.406102E+0	1.308410E+0	1.303160E+0	1.312902E+0	1.360592E+0	1.291492E+0	1.192209E+0	1.348727E+0	1.335344E+0	1.407580E+0	1.128465E+0	1.337009E+0	1.484838E+0	1.357928E+0	1.290698E+0	1.315056E+0	1.314374E+0	1.416266E+0	1.289491E+0	1.349274E+0	1.368958E+0	1.375306E+0	1.171253E+0	1.288839E+0	1.350436E+0	1.363368E+0	1.152262E+0	1.358727E+0	1.383465E+0	1.350143E+0	1.301306E+0	1.380239E+0	1.347025E+0	1.371431E+0	1.298632E+0	1.302961E+0	1.381904E+0	1.363454E+0	1.136740E+0	1.342565E+0	1.401354E+0	1.355472E+0	1.188200E+0	1.347851E+0	1.345171E+0	1.362754E+0	1.285705E+0	1.366356E+0	1.347160E+0	1.357028E+0	1.265525E+0	1.334392E+0	1.343748E+0	1.354404E+0	1.117528E+0	1.341726E+0	1.357999E+0	1.421902E+0	1.199276E+0	1.283379E+0	1.388403E+0	1.319859E+0	1.304582E+0	1.371028E+0	1.385623E+0	1.396302E+0	1.263277E+0	1.349360E+0	1.345692E+0	1.392659E+0	1.108451E+0	1.304936E+0	1.342090E+0	1.360989E+0	1.081651E+0	1.355247E+0	1.323486E+0	1.352683E+0	1.276060E+0	1.358674E+0	1.378949E+0	1.328842E+0	1.260725E+0	1.317264E+0	1.343913E+0	1.362480E+0	1.247965E+0	1.268242E+0	1.403044E+0	1.330948E+0	1.215418E+0	1.375371E+0	1.357822E+0	1.284899E+0	1.322211E+0	1.365378E+0	1.386649E+0	1.353755E+0	1.273415E+0	1.342769E+0	1.376189E+0	1.339833E+0	1.118724E+0	1.348367E+0	1.361223E+0	1.288079E+0	1.207493E+0	1.305552E+0	1.320320E+0	1.305223E+0	1.334591E+0	1.373662E+0	1.299600E+0	1.358845E+0	1.245211E+0	1.355942E+0	1.402281E+0	1.341626E+0	1.143991E+0	1.341263E+0	1.393819E+0	1.357876E+0	1.211543E+0	1.292060E+0	1.206574E+0	1.329065E+0	1.379348E+0
5.520100E+2	1.332093E+0	1.345046E+0	1.313020E+0	1.344696E+0	1.324000E+0	1.378567E+0	1.417864E+0	1.351384E+0	1.324021E+0	1.291596E+0	1.241826E+0	1.304647E+0	1.368268E+0	1.305448E+0	1.216658E+0	1.427729E+0	1.383790E+0	1.370318E+0	1.281862E+0	1.286561E+0	1.329440E+0	1.326089E+0	1.287057E+0	1.362463E+0	1.371465E+0	1.306254E+0	1.306198E+0	1.352852E+0	1.315232E+0	1.197129E+0	1.294633E+0	1.422227E+0	1.372167E+0	1.193180E+0	1.311506E+0	1.371101E+0	1.340915E+0	1.313089E+0	1.318336E+0	1.360255E+0	1.337613E+0	1.273506E+0	1.253115E+0	1.348955E+0	1.302159E+0	1.212398E+0	1.280116E+0	1.383320E+0	1.421735E+0	1.157358E+0	1.335244E+0	1.373965E+0	1.318393E+0	1.269190E+0	1.348954E+0	1.327313E+0	1.328447E+0	1.222695E+0	1.244067E+0	1.365124E+0	1.386738E+0	1.140460E+0	1.256489E+0	1.407779E+0	1.328868E+0	1.214589E+0	1.276112E+0	1.355485E+0	1.323899E+0	1.270279E+0	1.324020E+0	1.310051E+0	1.308566E+0	1.268060E+0	1.333270E+0	1.292877E+0	1.395936E+0	1.107804E+0	1.284714E+0	1.371052E+0	1.402522E+0	1.200469E+0	1.297939E+0	1.302918E+0	1.358688E+0	1.256845E+0	1.265367E+0	1.310579E+0	1.366964E+0	1.197905E+0	1.341273E+0	1.337222E+0	1.342001E+0	1.126340E+0	1.287716E+0	1.333051E+0	1.333993E+0	1.133826E+0	1.311298E+0	1.322334E+0	1.335277E+0	1.278350E+0	1.333729E+0	1.389032E+0	1.370800E+0	1.271912E+0	1.319334E+0	1.316978E+0	1.407028E+0	1.083531E+0	1.293499E+0	1.350857E+0	1.333236E+0	1.139457E+0	1.292802E+0	1.344221E+0	1.339389E+0	1.248991E+0	1.326824E+0	1.327250E+0	1.336810E+0	1.253758E+0	1.393502E+0	1.412544E+0	1.301982E+0	1.189361E+0	1.299469E+0	1.304740E+0	1.358803E+0	1.178666E+0	1.380269E+0	1.317863E+0	1.375361E+0	1.303865E+0	1.313182E+0	1.279655E+0	1.292451E+0	1.234697E+0	1.304042E+0	1.327151E+0	1.317782E+0	1.101573E+0	1.323575E+0	1.387560E+0	1.314483E+0	1.128297E+0	1.346329E+0	1.342030E+0	1.322824E+0	1.319168E+0	1.335950E+0	1.320719E+0	1.304148E+0	1.219754E+0	1.326085E+0	1.354781E+0	1.290483E+0	1.153444E+0	1.330570E+0	1.350452E+0	1.313772E+0	1.232504E+0	1.298893E+0	1.185528E+0	1.403172E+0	1.338557E+0
5.527590E+2	1.369435E+0	1.318867E+0	1.288991E+0	1.273993E+0	1.249592E+0	1.326075E+0	1.304336E+0	1.285097E+0	1.316719E+0	1.314786E+0	1.274894E+0	1.366735E+0	1.318937E+0	1.246649E+0	1.202677E+0	1.288865E+0	1.359171E+0	1.329701E+0	1.208600E+0	1.335919E+0	1.316446E+0	1.292194E+0	1.231865E+0	1.304975E+0	1.275040E+0	1.376174E+0	1.375004E+0	1.349220E+0	1.311713E+0	1.336979E+0	1.244912E+0	1.345436E+0	1.379442E+0	1.303377E+0	1.315782E+0	1.330237E+0	1.316431E+0	1.321118E+0	1.310783E+0	1.372141E+0	1.271295E+0	1.256102E+0	1.291503E+0	1.324459E+0	1.279225E+0	1.258239E+0	1.224518E+0	1.282105E+0	1.402654E+0	1.155624E+0	1.257048E+0	1.343910E+0	1.309089E+0	1.284080E+0	1.275316E+0	1.285111E+0	1.334090E+0	1.211351E+0	1.246602E+0	1.298004E+0	1.295304E+0	1.144244E+0	1.225292E+0	1.381175E+0	1.309768E+0	1.136057E+0	1.286438E+0	1.262671E+0	1.342209E+0	1.242766E+0	1.282713E+0	1.289939E+0	1.310551E+0	1.247271E+0	1.331982E+0	1.257145E+0	1.295590E+0	1.069790E+0	1.267918E+0	1.304507E+0	1.333802E+0	1.154448E+0	1.356811E+0	1.336313E+0	1.275040E+0	1.231592E+0	1.309301E+0	1.286977E+0	1.340253E+0	1.173707E+0	1.294984E+0	1.327432E+0	1.343691E+0	1.111310E+0	1.342332E+0	1.296257E+0	1.326513E+0	1.121768E+0	1.252741E+0	1.335140E+0	1.356408E+0	1.252674E+0	1.287872E+0	1.338478E+0	1.370800E+0	1.241694E+0	1.294647E+0	1.277653E+0	1.332428E+0	1.063491E+0	1.259173E+0	1.285388E+0	1.291928E+0	1.115973E+0	1.283971E+0	1.324965E+0	1.322924E+0	1.214589E+0	1.280227E+0	1.351160E+0	1.362173E+0	1.261885E+0	1.241667E+0	1.306798E+0	1.340424E+0	1.186043E+0	1.323051E+0	1.267723E+0	1.295050E+0	1.181246E+0	1.383071E+0	1.299883E+0	1.355388E+0	1.280017E+0	1.310000E+0	1.285916E+0	1.279939E+0	1.237925E+0	1.316951E+0	1.319183E+0	1.340937E+0	1.103717E+0	1.354726E+0	1.340401E+0	1.285439E+0	1.197138E+0	1.300543E+0	1.345532E+0	1.289651E+0	1.216768E+0	1.317426E+0	1.263816E+0	1.297931E+0	1.225949E+0	1.293318E+0	1.285515E+0	1.273005E+0	1.161124E+0	1.333912E+0	1.275034E+0	1.259485E+0	1.210273E+0	1.346732E+0	1.146762E+0	1.334765E+0	1.300316E+0
5.535160E+2	1.218201E+0	1.288760E+0	1.258470E+0	1.252990E+0	1.275504E+0	1.239046E+0	1.296852E+0	1.242800E+0	1.268029E+0	1.211724E+0	1.141524E+0	1.254384E+0	1.270140E+0	1.235686E+0	1.140834E+0	1.287612E+0	1.274444E+0	1.266524E+0	1.173835E+0	1.226626E+0	1.287073E+0	1.257254E+0	1.181958E+0	1.276535E+0	1.243555E+0	1.272501E+0	1.298473E+0	1.223849E+0	1.262421E+0	1.280717E+0	1.233864E+0	1.300947E+0	1.191638E+0	1.296229E+0	1.214963E+0	1.223573E+0	1.268638E+0	1.240825E+0	1.222502E+0	1.299128E+0	1.268862E+0	1.278663E+0	1.219132E+0	1.282202E+0	1.253090E+0	1.294260E+0	1.238123E+0	1.255782E+0	1.313410E+0	1.258486E+0	1.184732E+0	1.279121E+0	1.277689E+0	1.230032E+0	1.228566E+0	1.274422E+0	1.245643E+0	1.177951E+0	1.214282E+0	1.234084E+0	1.296394E+0	1.149105E+0	1.202189E+0	1.299007E+0	1.198872E+0	1.145404E+0	1.181880E+0	1.298841E+0	1.191458E+0	1.244521E+0	1.176007E+0	1.257315E+0	1.309226E+0	1.178175E+0	1.232027E+0	1.147528E+0	1.263687E+0	1.018155E+0	1.180828E+0	1.271828E+0	1.296658E+0	1.098609E+0	1.178918E+0	1.232726E+0	1.291885E+0	1.175076E+0	1.251104E+0	1.272229E+0	1.232778E+0	1.147033E+0	1.236815E+0	1.305242E+0	1.240515E+0	1.063636E+0	1.191832E+0	1.268813E+0	1.295963E+0	1.088470E+0	1.238442E+0	1.320309E+0	1.255330E+0	1.185697E+0	1.238956E+0	1.277132E+0	1.220911E+0	1.113415E+0	1.231929E+0	1.270785E+0	1.273855E+0	1.004441E+0	1.251345E+0	1.243882E+0	1.306129E+0	1.072619E+0	1.183679E+0	1.228692E+0	1.302661E+0	1.176238E+0	1.259584E+0	1.283952E+0	1.288985E+0	1.175983E+0	1.224514E+0	1.306797E+0	1.264802E+0	1.164482E+0	1.227454E+0	1.254979E+0	1.252344E+0	1.110965E+0	1.180130E+0	1.267916E+0	1.266102E+0	1.244550E+0	1.270534E+0	1.227870E+0	1.235523E+0	1.192754E+0	1.281622E+0	1.256659E+0	1.226831E+0	1.019564E+0	1.249831E+0	1.336112E+0	1.262334E+0	1.084436E+0	1.269065E+0	1.245388E+0	1.248348E+0	1.169885E+0	1.246636E+0	1.250906E+0	1.222719E+0	1.148890E+0	1.239431E+0	1.247254E+0	1.242578E+0	1.088452E+0	1.243665E+0	1.227267E+0	1.265590E+0	1.132794E+0	1.251911E+0	1.137900E+0	1.286310E+0	1.162650E+0
5.542640E+2	1.140405E+0	1.191240E+0	1.216908E+0	1.143087E+0	1.187144E+0	1.157546E+0	1.188318E+0	1.136739E+0	1.118924E+0	1.180163E+0	1.122237E+0	1.220681E+0	1.165648E+0	1.180378E+0	1.054796E+0	1.172518E+0	1.186857E+0	1.184169E+0	1.045320E+0	1.147652E+0	1.173532E+0	1.143568E+0	1.116785E+0	1.190005E+0	1.105805E+0	1.201979E+0	1.162965E+0	1.180846E+0	1.119827E+0	1.144618E+0	1.114169E+0	1.194902E+0	1.193622E+0	1.177690E+0	1.078700E+0	1.165396E+0	1.175962E+0	1.196091E+0	1.180687E+0	1.202910E+0	1.200718E+0	1.157477E+0	1.221651E+0	1.179928E+0	1.197083E+0	1.144729E+0	1.100311E+0	1.165098E+0	1.213698E+0	1.148112E+0	1.130054E+0	1.168247E+0	1.169549E+0	1.170469E+0	1.160186E+0	1.190019E+0	1.162216E+0	1.213871E+0	1.086256E+0	1.188058E+0	1.184826E+0	1.177196E+0	1.073365E+0	1.164814E+0	1.151433E+0	1.181553E+0	1.135410E+0	1.210808E+0	1.168267E+0	1.193006E+0	1.147324E+0	1.177941E+0	1.209966E+0	1.142714E+0	1.177210E+0	1.173569E+0	1.172038E+0	1.123690E+0	1.155327E+0	1.195180E+0	1.159844E+0	1.137269E+0	1.201312E+0	1.123008E+0	1.190233E+0	1.150429E+0	1.114169E+0	1.124729E+0	1.158230E+0	1.036602E+0	1.195530E+0	1.183199E+0	1.145798E+0	9.698400E-1	1.134786E+0	1.162160E+0	1.179372E+0	9.948915E-1	1.126097E+0	1.149739E+0	1.206215E+0	1.088578E+0	1.195544E+0	1.228284E+0	1.136951E+0	1.101698E+0	1.191227E+0	1.190264E+0	1.140130E+0	9.286024E-1	1.141148E+0	1.152105E+0	1.162197E+0	1.026253E+0	1.138263E+0	1.164261E+0	1.088647E+0	1.124918E+0	1.165210E+0	1.198650E+0	1.200580E+0	1.099948E+0	1.192748E+0	1.187047E+0	1.198003E+0	1.025710E+0	1.173922E+0	1.157284E+0	1.103177E+0	1.016185E+0	1.197625E+0	1.150042E+0	1.170351E+0	1.158323E+0	1.153408E+0	1.227868E+0	1.178597E+0	1.068855E+0	1.166118E+0	1.156741E+0	1.190449E+0	9.477400E-1	1.162106E+0	1.237507E+0	1.169918E+0	1.015596E+0	1.200386E+0	1.150848E+0	1.110903E+0	1.145213E+0	1.157326E+0	1.180511E+0	1.141289E+0	1.067014E+0	1.167340E+0	1.162813E+0	1.165538E+0	1.035275E+0	1.168795E+0	1.163788E+0	1.157022E+0	1.081989E+0	1.182718E+0	1.088057E+0	1.200801E+0	1.132059E+0
5.550140E+2	1.074434E+0	1.066235E+0	1.071437E+0	1.035982E+0	1.021059E+0	1.137515E+0	1.132177E+0	1.074873E+0	1.089708E+0	1.022996E+0	1.005953E+0	1.074034E+0	1.061157E+0	1.088196E+0	1.003710E+0	1.081818E+0	1.080374E+0	1.088278E+0	9.888234E-1	1.058807E+0	1.092752E+0	1.071602E+0	1.079206E+0	1.066561E+0	1.050049E+0	1.108553E+0	1.078708E+0	1.125734E+0	1.086964E+0	1.073891E+0	9.938607E-1	1.106532E+0	1.124848E+0	1.079404E+0	1.024318E+0	1.159853E+0	1.052980E+0	1.089987E+0	1.073819E+0	1.090277E+0	1.108238E+0	1.126538E+0	1.054247E+0	1.083778E+0	1.082943E+0	1.086881E+0	1.000354E+0	1.020009E+0	1.085062E+0	1.081077E+0	1.026575E+0	1.081417E+0	1.039887E+0	1.095465E+0	1.063173E+0	1.075794E+0	1.056205E+0	1.097296E+0	1.019075E+0	1.081309E+0	1.090125E+0	1.085356E+0	9.976877E-1	1.054268E+0	1.079352E+0	1.038205E+0	1.095392E+0	1.100933E+0	1.107844E+0	1.109293E+0	1.061271E+0	1.036045E+0	1.104751E+0	1.084012E+0	1.035340E+0	1.093023E+0	1.076334E+0	1.118583E+0	1.058907E+0	1.081103E+0	1.076269E+0	1.076518E+0	1.077172E+0	1.040547E+0	1.067672E+0	1.084893E+0	1.003482E+0	1.068678E+0	1.060074E+0	1.038464E+0	1.051041E+0	1.112713E+0	1.125501E+0	1.026844E+0	1.094126E+0	1.082950E+0	1.107673E+0	1.020151E+0	1.049841E+0	1.066813E+0	1.098854E+0	1.064578E+0	1.075086E+0	1.084578E+0	1.123889E+0	1.019057E+0	1.065788E+0	1.057303E+0	1.060562E+0	8.403023E-1	1.084545E+0	1.041036E+0	1.056345E+0	9.076309E-1	1.064465E+0	1.065023E+0	1.076615E+0	9.715201E-1	1.131590E+0	1.084914E+0	1.078841E+0	1.032039E+0	1.024395E+0	1.074301E+0	1.094023E+0	9.378026E-1	1.124212E+0	1.070512E+0	1.108750E+0	9.607329E-1	1.070262E+0	1.078782E+0	1.061091E+0	1.050696E+0	1.108214E+0	1.067951E+0	1.079134E+0	1.016584E+0	1.128069E+0	1.058049E+0	1.052091E+0	8.909243E-1	1.071200E+0	1.083782E+0	1.108524E+0	9.053303E-1	1.000071E+0	1.007283E+0	1.058093E+0	1.044044E+0	1.096459E+0	1.109525E+0	1.117046E+0	1.000275E+0	1.048644E+0	1.044727E+0	1.000453E+0	9.614174E-1	1.057824E+0	1.055685E+0	1.030129E+0	9.644993E-1	1.064836E+0	9.241275E-1	1.108168E+0	9.357575E-1
5.558000E+2	9.729891E-1	9.962042E-1	9.902592E-1	9.890793E-1	1.000466E+0	1.020099E+0	1.022394E+0	1.014267E+0	1.008154E+0	1.017198E+0	9.359606E-1	1.023181E+0	9.858376E-1	9.965123E-1	9.348779E-1	9.585909E-1	1.005954E+0	9.946423E-1	9.273621E-1	9.685516E-1	1.005763E+0	9.792963E-1	9.382910E-1	1.019364E+0	9.700230E-1	1.048279E+0	1.012006E+0	9.307143E-1	9.989440E-1	9.838716E-1	9.613299E-1	9.809865E-1	9.866426E-1	1.007923E+0	9.296079E-1	1.000555E+0	9.801239E-1	9.615160E-1	9.832151E-1	9.691517E-1	1.007849E+0	9.866576E-1	9.585898E-1	9.753807E-1	9.602629E-1	9.881029E-1	9.660504E-1	9.860762E-1	1.025358E+0	1.002485E+0	9.619008E-1	1.038672E+0	9.794190E-1	9.923355E-1	1.006488E+0	1.017836E+0	1.028604E+0	9.933199E-1	9.354184E-1	1.028255E+0	9.959713E-1	9.616438E-1	9.295227E-1	9.986981E-1	9.850907E-1	9.983174E-1	9.546911E-1	9.589850E-1	1.008362E+0	1.002166E+0	9.855431E-1	9.805912E-1	9.922580E-1	1.014308E+0	9.921325E-1	9.912799E-1	9.858478E-1	1.043121E+0	9.413408E-1	9.961380E-1	9.914557E-1	1.013930E+0	9.703085E-1	9.969330E-1	9.817026E-1	9.826848E-1	9.806592E-1	9.937460E-1	9.743444E-1	1.041566E+0	9.615944E-1	9.580359E-1	1.033601E+0	9.853861E-1	9.867098E-1	9.900226E-1	1.040340E+0	9.765194E-1	9.694971E-1	9.899547E-1	1.034893E+0	9.724841E-1	1.015775E+0	9.863123E-1	1.000124E+0	9.499840E-1	1.002402E+0	9.717854E-1	9.920413E-1	9.919816E-1	9.364113E-1	1.010055E+0	1.017620E+0	1.057564E+0	9.919264E-1	9.998520E-1	9.873361E-1	1.044272E+0	9.564113E-1	9.989676E-1	9.759422E-1	9.583259E-1	1.023125E+0	9.818624E-1	1.017141E+0	8.758797E-1	9.852781E-1	9.697808E-1	1.004766E+0	8.878743E-1	9.911827E-1	9.449247E-1	1.017622E+0	1.012779E+0	9.840862E-1	1.033804E+0	1.039098E+0	9.152713E-1	1.040426E+0	9.801995E-1	1.001929E+0	8.083805E-1	1.075013E+0	9.974280E-1	9.514145E-1	8.870541E-1	1.005079E+0	1.016387E+0	9.809068E-1	9.484294E-1	1.028977E+0	9.634525E-1	9.523228E-1	9.280320E-1	1.033351E+0	9.899722E-1	1.004337E+0	8.981969E-1	9.742638E-1	1.033687E+0	1.007057E+0	8.660613E-1	1.017854E+0	8.997595E-1	1.018384E+0	9.816444E-1
5.560080E+2	1.047673E+0	1.030238E+0	9.467475E-1	1.010080E+0	9.400102E-1	1.022862E+0	1.042355E+0	9.953290E-1	9.844196E-1	1.019776E+0	8.979344E-1	1.032050E+0	1.003341E+0	9.850528E-1	8.784158E-1	9.667229E-1	1.003091E+0	1.014382E+0	9.105996E-1	1.029897E+0	1.016494E+0	1.016323E+0	9.406384E-1	9.776110E-1	9.444408E-1	1.017540E+0	1.021134E+0	9.821945E-1	1.020656E+0	9.994108E-1	1.012889E+0	1.016943E+0	9.998680E-1	1.049024E+0	1.026764E+0	9.804684E-1	1.013346E+0	9.827379E-1	9.791501E-1	9.980175E-1	9.859453E-1	1.005995E+0	9.736941E-1	9.870173E-1	1.010934E+0	9.782789E-1	1.004495E+0	1.052187E+0	1.005661E+0	1.000752E+0	9.607257E-1	9.972608E-1	1.016049E+0	9.482140E-1	1.029280E+0	1.004333E+0	1.016687E+0	1.024828E+0	1.000064E+0	9.828686E-1	1.069989E+0	1.012426E+0	9.688060E-1	1.014069E+0	1.006038E+0	9.740115E-1	1.003742E+0	9.890126E-1	1.058410E+0	9.846057E-1	9.752164E-1	1.013212E+0	9.823314E-1	1.007582E+0	9.689175E-1	9.840115E-1	9.713456E-1	1.039717E+0	9.724430E-1	9.890089E-1	9.970285E-1	1.009021E+0	9.479121E-1	9.560446E-1	9.834457E-1	9.664521E-1	9.698161E-1	9.589342E-1	1.015965E+0	9.869717E-1	1.009133E+0	1.002415E+0	1.009358E+0	9.957517E-1	9.958131E-1	9.607079E-1	1.024128E+0	9.696288E-1	1.005583E+0	1.020967E+0	1.003484E+0	1.045601E+0	9.735856E-1	1.003353E+0	1.062318E+0	1.025841E+0	9.903921E-1	1.014232E+0	9.931481E-1	1.017442E+0	1.008671E+0	9.767329E-1	9.963213E-1	9.985539E-1	9.547108E-1	1.025031E+0	1.003166E+0	9.833639E-1	9.841340E-1	9.912122E-1	1.021595E+0	9.803805E-1	1.015501E+0	9.685565E-1	9.736583E-1	1.019626E+0	9.903765E-1	9.782764E-1	1.039427E+0	1.024567E+0	1.022674E+0	1.022844E+0	1.021148E+0	1.036018E+0	1.028646E+0	1.007058E+0	9.871757E-1	9.404384E-1	9.487038E-1	9.728451E-1	1.017916E+0	9.311247E-1	1.026699E+0	1.023763E+0	1.009506E+0	9.540660E-1	9.771785E-1	9.862743E-1	9.883548E-1	9.953118E-1	9.760509E-1	1.023878E+0	9.610261E-1	9.638101E-1	1.012234E+0	1.009103E+0	1.047065E+0	8.781079E-1	1.023731E+0	9.645523E-1	1.015878E+0	9.194088E-1	9.580577E-1	9.396336E-1	1.016959E+0	1.009689E+0
5.565030E+2	1.023401E+0	1.007985E+0	9.824658E-1	9.848792E-1	9.805347E-1	9.752043E-1	9.874624E-1	1.008586E+0	1.019111E+0	9.514971E-1	9.321039E-1	9.746912E-1	1.037819E+0	1.024416E+0	9.182081E-1	1.006132E+0	9.962204E-1	9.777200E-1	9.043907E-1	1.018615E+0	1.001807E+0	1.005370E+0	9.682352E-1	1.011497E+0	9.831421E-1	9.765531E-1	9.712834E-1	9.967301E-1	1.016548E+0	9.935174E-1	9.330939E-1	1.004144E+0	9.780458E-1	9.829034E-1	9.528287E-1	9.846239E-1	1.027336E+0	1.017148E+0	9.739210E-1	9.844357E-1	9.865536E-1	9.660291E-1	9.699178E-1	9.784436E-1	1.001866E+0	9.553593E-1	9.412094E-1	1.012987E+0	9.699648E-1	9.730123E-1	9.824804E-1	9.852389E-1	9.270879E-1	9.824080E-1	9.907078E-1	9.525666E-1	9.846945E-1	9.939516E-1	9.810502E-1	9.905396E-1	1.000870E+0	1.005402E+0	9.387655E-1	1.003429E+0	1.023288E+0	1.005797E+0	9.708269E-1	1.016310E+0	1.029113E+0	1.000409E+0	9.723480E-1	9.936395E-1	9.704206E-1	9.922952E-1	1.013413E+0	9.949119E-1	9.319023E-1	9.852484E-1	9.481832E-1	1.023470E+0	1.024886E+0	9.494977E-1	9.389529E-1	1.006474E+0	1.002032E+0	1.007936E+0	1.014891E+0	1.010855E+0	9.631609E-1	1.032260E+0	1.039156E+0	1.014163E+0	9.715849E-1	9.605127E-1	9.260235E-1	9.750523E-1	9.748751E-1	1.006947E+0	9.545178E-1	1.015574E+0	9.989150E-1	9.775060E-1	9.607452E-1	9.823358E-1	1.053612E+0	9.617017E-1	9.923935E-1	9.892634E-1	1.029620E+0	9.854807E-1	1.014090E+0	9.860873E-1	1.015684E+0	1.002167E+0	9.629111E-1	9.709694E-1	9.284506E-1	9.997167E-1	9.805946E-1	9.937960E-1	9.810143E-1	9.722548E-1	9.939011E-1	9.895656E-1	9.913047E-1	9.427782E-1	9.515008E-1	9.983011E-1	9.824835E-1	9.729839E-1	9.764868E-1	1.018180E+0	9.900147E-1	9.797594E-1	9.484393E-1	9.877076E-1	9.715366E-1	9.765754E-1	1.019364E+0	9.826524E-1	1.018465E+0	9.638205E-1	9.688503E-1	9.882410E-1	9.996039E-1	9.607679E-1	9.550007E-1	1.004482E+0	9.741361E-1	9.798902E-1	9.700965E-1	9.863314E-1	1.007024E+0	9.892667E-1	9.619879E-1	9.609460E-1	9.719683E-1	9.620086E-1	9.749319E-1	1.026776E+0	9.744862E-1	9.797412E-1	9.990604E-1	8.964374E-1	9.685048E-1	8.847688E-1
5.570610E+2	9.804574E-1	9.876958E-1	9.980516E-1	9.582779E-1	9.825276E-1	9.524115E-1	9.762344E-1	1.019318E+0	1.040412E+0	1.011401E+0	9.420221E-1	1.011944E+0	9.752294E-1	9.875430E-1	8.972368E-1	9.811095E-1	1.021983E+0	9.726420E-1	8.969413E-1	9.890001E-1	9.487087E-1	9.996341E-1	9.500326E-1	9.945552E-1	9.365694E-1	1.013321E+0	9.754959E-1	1.017927E+0	1.006572E+0	9.581510E-1	9.300252E-1	9.541693E-1	1.012432E+0	1.018048E+0	9.039443E-1	9.797757E-1	1.005187E+0	9.672511E-1	9.402366E-1	1.033110E+0	9.780360E-1	9.724749E-1	9.774696E-1	1.000490E+0	9.607973E-1	9.941055E-1	9.264222E-1	9.673554E-1	1.006277E+0	9.995964E-1	9.289771E-1	1.027987E+0	9.834885E-1	9.934372E-1	9.568123E-1	9.655064E-1	9.614841E-1	1.012225E+0	9.284472E-1	1.007799E+0	9.720265E-1	9.805521E-1	8.798430E-1	9.845121E-1	9.967977E-1	1.031974E+0	9.534002E-1	9.726336E-1	9.625869E-1	9.951432E-1	9.545631E-1	9.887470E-1	1.000860E+0	9.843467E-1	9.863288E-1	1.017927E+0	9.730871E-1	1.014184E+0	9.631132E-1	9.682126E-1	9.413121E-1	1.015769E+0	9.223159E-1	1.013971E+0	9.880921E-1	9.520223E-1	9.943515E-1	9.943366E-1	9.656451E-1	9.708411E-1	9.934956E-1	9.756567E-1	9.744036E-1	9.827962E-1	9.387679E-1	9.738060E-1	9.979424E-1	1.007522E+0	9.463472E-1	9.656835E-1	1.001771E+0	9.953684E-1	1.012107E+0	9.959650E-1	9.733805E-1	1.006722E+0	9.983987E-1	9.873899E-1	9.887287E-1	9.800634E-1	9.749499E-1	1.009469E+0	9.479135E-1	9.461685E-1	9.654342E-1	9.909651E-1	9.753062E-1	9.912593E-1	9.729270E-1	9.821629E-1	1.027392E+0	1.029138E+0	9.576891E-1	9.839629E-1	1.007058E+0	9.930886E-1	9.578738E-1	9.564307E-1	9.589639E-1	9.981301E-1	1.022673E+0	9.629060E-1	1.037595E+0	1.018895E+0	9.847225E-1	9.455930E-1	1.016577E+0	1.013357E+0	9.514214E-1	9.930735E-1	1.003584E+0	1.010452E+0	9.891929E-1	9.955905E-1	9.883817E-1	9.912267E-1	1.012233E+0	9.841730E-1	1.015437E+0	9.990136E-1	9.786969E-1	9.951326E-1	9.989430E-1	9.603699E-1	1.038449E+0	1.038790E+0	9.758525E-1	1.003367E+0	9.789427E-1	1.051286E+0	1.032164E+0	1.014670E+0	9.683081E-1	8.576693E-1	1.001283E+0	9.587003E-1
5.575080E+2	1.029003E+0	1.013221E+0	9.941552E-1	1.007280E+0	9.831922E-1	1.004904E+0	1.012414E+0	9.732333E-1	1.019111E+0	9.650237E-1	9.205307E-1	9.995266E-1	1.028270E+0	9.995031E-1	9.047659E-1	1.003002E+0	9.979401E-1	1.012127E+0	9.093574E-1	1.001692E+0	9.888162E-1	9.787756E-1	9.353547E-1	9.927395E-1	1.013316E+0	1.028993E+0	1.035879E+0	1.012476E+0	9.766456E-1	1.002091E+0	9.343217E-1	9.340576E-1	1.007142E+0	1.004349E+0	9.736025E-1	9.839316E-1	1.020342E+0	1.030913E+0	9.936697E-1	9.583979E-1	1.014541E+0	1.034357E+0	9.699183E-1	9.943649E-1	1.030136E+0	1.014845E+0	9.530394E-1	9.831501E-1	9.342654E-1	1.027913E+0	9.554349E-1	9.792275E-1	1.025350E+0	1.021566E+0	9.679170E-1	1.012773E+0	9.351384E-1	9.523597E-1	9.347846E-1	1.003324E+0	1.007402E+0	1.013505E+0	9.705370E-1	1.032986E+0	9.721519E-1	1.000187E+0	9.340376E-1	9.931074E-1	1.012634E+0	9.594331E-1	9.970164E-1	9.795049E-1	1.029315E+0	1.000245E+0	1.026956E+0	1.037911E+0	1.018329E+0	9.948941E-1	9.438284E-1	1.021092E+0	1.038507E+0	1.013315E+0	1.020860E+0	9.737630E-1	1.002033E+0	1.038599E+0	9.338710E-1	1.005546E+0	1.027150E+0	1.001861E+0	9.722273E-1	1.021996E+0	1.014433E+0	1.035653E+0	9.800343E-1	1.039292E+0	9.730035E-1	1.022447E+0	1.023285E+0	9.973706E-1	1.012621E+0	9.830880E-1	9.729745E-1	1.007329E+0	9.746244E-1	1.011040E+0	1.004403E+0	1.042322E+0	9.997785E-1	9.735643E-1	9.677239E-1	1.001286E+0	9.595317E-1	1.022641E+0	9.957109E-1	1.003555E+0	1.031658E+0	9.754675E-1	9.935700E-1	9.679470E-1	1.028116E+0	1.024493E+0	9.754776E-1	9.916665E-1	1.015250E+0	9.975114E-1	1.029252E+0	1.017112E+0	9.781513E-1	1.025855E+0	9.750872E-1	1.000200E+0	9.841382E-1	1.029902E+0	1.008275E+0	1.004212E+0	1.010320E+0	1.004324E+0	1.003057E+0	1.001654E+0	1.035003E+0	1.059764E+0	9.847433E-1	1.003552E+0	1.002904E+0	1.036918E+0	9.850479E-1	9.708672E-1	1.046582E+0	9.860583E-1	9.958978E-1	1.000997E+0	9.840247E-1	1.016788E+0	9.787367E-1	9.860146E-1	1.012754E+0	1.032319E+0	9.903070E-1	9.991198E-1	9.962001E-1	9.943478E-1	9.913721E-1	1.023813E+0	9.927326E-1	1.019885E+0
5.580510E+2	1.006597E+0	9.883505E-1	9.954541E-1	9.540780E-1	1.019731E+0	1.050490E+0	1.060442E+0	1.006060E+0	1.014241E+0	1.045540E+0	9.618645E-1	1.007805E+0	1.022437E+0	1.021425E+0	8.757271E-1	9.529613E-1	1.030571E+0	9.856151E-1	9.137033E-1	9.932311E-1	9.837325E-1	9.860761E-1	9.564935E-1	9.927372E-1	9.641196E-1	9.572653E-1	9.937510E-1	1.011870E+0	1.038846E+0	1.032095E+0	9.521231E-1	9.876887E-1	1.021029E+0	1.013284E+0	1.034094E+0	9.901651E-1	1.023256E+0	1.026898E+0	9.762455E-1	1.049527E+0	1.044355E+0	1.027911E+0	9.774702E-1	1.018862E+0	1.017868E+0	1.011022E+0	9.802443E-1	1.015913E+0	1.061056E+0	1.063163E+0	9.795413E-1	1.010620E+0	1.021279E+0	1.050792E+0	1.001812E+0	1.037530E+0	1.048678E+0	1.037431E+0	9.607695E-1	9.918178E-1	9.791022E-1	1.018908E+0	9.676497E-1	1.004612E+0	9.900186E-1	1.004550E+0	9.443650E-1	1.016310E+0	1.013243E+0	1.028509E+0	9.499747E-1	1.032783E+0	1.022036E+0	1.003912E+0	9.747210E-1	1.002786E+0	1.027030E+0	1.034609E+0	9.736879E-1	1.023470E+0	1.018695E+0	1.037862E+0	9.671091E-1	1.026237E+0	9.822832E-1	9.929055E-1	9.715288E-1	9.583468E-1	9.625391E-1	1.015509E+0	1.021643E+0	9.965399E-1	1.045444E+0	1.012333E+0	1.013411E+0	1.053639E+0	1.072135E+0	1.002929E+0	1.032819E+0	9.973706E-1	1.019473E+0	1.007090E+0	1.016998E+0	1.033457E+0	1.001990E+0	1.012889E+0	9.950628E-1	1.025468E+0	9.732548E-1	1.053739E+0	9.725416E-1	9.779040E-1	1.036983E+0	1.054553E+0	1.007694E+0	1.013923E+0	9.924004E-1	9.658801E-1	1.000059E+0	1.008659E+0	9.976809E-1	1.008822E+0	1.007242E+0	1.050492E+0	9.950850E-1	1.037872E+0	9.597860E-1	1.025001E+0	1.056139E+0	1.020052E+0	9.862836E-1	9.948721E-1	1.030547E+0	1.009112E+0	9.802672E-1	1.019008E+0	1.039100E+0	1.024973E+0	1.058770E+0	1.028013E+0	9.875965E-1	1.008843E+0	1.058485E+0	1.027438E+0	1.014787E+0	1.011331E+0	9.922020E-1	1.021289E+0	1.052676E+0	1.002097E+0	9.727435E-1	1.031500E+0	1.017591E+0	9.789467E-1	1.012962E+0	1.030873E+0	1.030233E+0	9.880043E-1	1.015041E+0	9.915778E-1	1.026057E+0	9.613240E-1	1.063127E+0	1.009415E+0	1.006983E+0	1.068322E+0
5.585390E+2	1.035226E+0	1.042018E+0	1.012339E+0	1.016381E+0	1.013752E+0	1.047727E+0	9.930759E-1	1.047094E+0	1.008764E+0	1.030725E+0	9.679264E-1	1.029093E+0	1.012358E+0	1.002988E+0	8.961603E-1	1.056171E+0	9.990854E-1	1.016641E+0	9.447458E-1	1.036948E+0	1.058298E+0	9.959857E-1	1.002876E+0	1.024205E+0	1.053329E+0	1.019348E+0	1.006389E+0	1.003391E+0	1.023589E+0	1.010127E+0	9.729922E-1	1.031571E+0	1.023673E+0	1.024006E+0	1.005377E+0	1.009558E+0	9.865365E-1	1.032061E+0	9.994776E-1	1.012170E+0	1.046788E+0	9.924580E-1	9.724354E-1	9.980403E-1	9.533299E-1	1.002839E+0	1.028154E+0	1.000701E+0	1.019819E+0	1.026756E+0	9.648407E-1	1.040676E+0	1.042212E+0	1.050241E+0	1.036877E+0	1.025715E+0	1.027350E+0	1.062637E+0	9.962607E-1	1.010355E+0	1.045499E+0	9.789319E-1	9.878691E-1	1.002246E+0	9.844748E-1	9.796196E-1	9.824443E-1	1.040878E+0	1.008971E+0	1.040217E+0	1.025702E+0	1.042024E+0	9.796861E-1	1.019199E+0	9.605342E-1	1.003997E+0	1.001509E+0	1.022696E+0	1.016609E+0	1.041294E+0	1.031695E+0	1.012088E+0	1.033658E+0	1.046681E+0	1.022364E+0	1.025972E+0	1.045132E+0	1.065727E+0	1.040815E+0	1.061420E+0	9.884911E-1	1.046793E+0	1.047133E+0	1.010259E+0	9.854958E-1	1.037421E+0	9.873434E-1	1.012687E+0	9.579220E-1	1.005461E+0	1.020044E+0	1.040577E+0	1.065913E+0	1.006191E+0	1.013807E+0	9.802040E-1	1.021752E+0	9.955055E-1	1.019118E+0	1.049406E+0	1.000241E+0	1.029929E+0	1.060218E+0	1.006985E+0	9.742649E-1	1.016145E+0	1.029127E+0	1.004795E+0	1.022473E+0	9.769942E-1	1.021594E+0	1.036102E+0	9.748421E-1	1.052592E+0	9.894126E-1	1.016864E+0	1.028615E+0	1.033496E+0	1.030143E+0	1.031658E+0	1.025473E+0	1.022843E+0	1.001763E+0	1.014615E+0	1.047105E+0	1.030390E+0	1.047856E+0	1.042397E+0	9.908278E-1	9.789749E-1	1.007441E+0	9.857954E-1	1.003180E+0	1.009063E+0	1.020068E+0	1.016204E+0	1.040134E+0	9.988797E-1	9.870004E-1	1.011351E+0	9.952369E-1	1.011557E+0	1.022563E+0	9.961469E-1	1.018059E+0	1.037471E+0	9.887992E-1	1.054181E+0	1.075204E+0	9.878070E-1	1.034200E+0	1.041978E+0	1.064835E+0	1.064796E+0	1.021234E+0	9.994893E-1
5.590210E+2	9.449829E-1	1.010601E+0	9.668797E-1	1.045082E+0	1.015745E+0	1.013192E+0	1.002433E+0	9.732327E-1	9.789419E-1	9.804833E-1	1.051694E+0	1.004259E+0	9.434055E-1	9.895370E-1	1.116099E+0	1.003002E+0	1.026564E+0	1.012691E+0	1.047805E+0	9.819488E-1	9.927695E-1	9.657387E-1	1.075683E+0	1.021179E+0	1.004133E+0	9.542510E-1	9.277513E-1	9.785602E-1	1.004225E+0	1.021915E+0	9.232733E-1	1.023037E+0	9.892875E-1	9.775417E-1	9.216649E-1	9.624605E-1	9.649703E-1	9.741336E-1	9.599826E-1	9.759461E-1	9.950721E-1	9.795657E-1	9.579605E-1	9.759923E-1	9.863994E-1	9.935596E-1	9.583611E-1	9.907567E-1	9.508837E-1	9.429629E-1	9.619013E-1	9.792278E-1	9.712780E-1	9.824069E-1	9.807717E-1	9.829520E-1	1.041777E+0	1.010965E+0	9.506281E-1	9.988493E-1	9.965176E-1	1.024311E+0	9.387670E-1	9.904227E-1	9.622954E-1	9.465871E-1	9.366191E-1	9.985670E-1	9.607573E-1	9.623589E-1	9.614481E-1	9.784160E-1	1.008801E+0	9.880150E-1	9.734311E-1	1.017927E+0	1.021810E+0	9.920572E-1	9.600016E-1	9.735599E-1	1.006935E+0	9.740444E-1	9.581503E-1	9.492294E-1	9.915762E-1	9.959111E-1	9.618296E-1	9.996455E-1	9.762066E-1	9.900740E-1	9.509607E-1	9.423720E-1	1.021763E+0	1.013371E+0	9.017492E-1	9.887728E-1	9.973185E-1	9.650361E-1	9.456664E-1	9.993931E-1	9.703620E-1	1.005414E+0	9.619680E-1	9.755173E-1	9.833315E-1	9.863698E-1	9.917264E-1	9.967543E-1	9.870679E-1	9.979397E-1	9.936176E-1	9.907651E-1	1.002776E+0	9.955434E-1	9.938184E-1	9.413461E-1	1.026593E+0	9.952068E-1	1.001828E+0	9.750559E-1	9.998550E-1	9.960543E-1	9.748429E-1	9.503498E-1	1.059993E+0	9.836908E-1	9.604232E-1	9.631059E-1	1.030761E+0	9.291395E-1	9.498942E-1	1.006859E+0	9.671041E-1	1.029902E+0	9.458933E-1	9.780337E-1	9.915534E-1	9.772209E-1	9.955835E-1	9.415828E-1	9.616903E-1	1.041005E+0	9.624935E-1	9.612932E-1	9.573557E-1	9.930549E-1	9.600086E-1	9.638643E-1	9.829380E-1	1.025538E+0	1.056102E+0	9.634521E-1	9.902410E-1	9.927072E-1	9.743678E-1	9.998683E-1	1.001101E+0	9.797335E-1	9.862962E-1	9.878073E-1	9.894143E-1	9.359206E-1	9.640375E-1	9.695401E-1	1.014109E+0	9.918429E-1
5.595110E+2	9.779685E-1	1.003403E+0	1.034419E+0	9.855793E-1	9.831921E-1	9.890180E-1	9.787288E-1	1.011111E+0	9.655532E-1	9.862801E-1	1.095230E+0	9.806053E-1	9.614393E-1	1.018436E+0	1.088137E+0	1.018015E+0	9.750391E-1	1.001974E+0	1.041596E+0	1.034833E+0	1.019882E+0	1.001720E+0	1.031060E+0	9.618788E-1	1.044802E+0	9.994587E-1	1.041495E+0	9.997572E-1	9.584551E-1	9.892285E-1	1.114170E+0	1.025477E+0	1.043512E+0	1.024006E+0	1.042040E+0	1.067737E+0	1.030832E+0	9.907672E-1	1.021548E+0	9.731141E-1	9.883790E-1	9.814997E-1	9.988671E-1	1.005390E+0	9.912009E-1	1.006114E+0	9.826105E-1	1.008893E+0	1.001355E+0	9.880371E-1	9.883571E-1	9.979297E-1	1.005581E+0	9.631050E-1	9.585668E-1	9.942042E-1	1.029859E+0	9.863888E-1	9.861205E-1	9.598568E-1	9.627744E-1	1.005943E+0	9.399224E-1	9.661862E-1	1.025752E+0	1.033843E+0	9.579182E-1	9.821884E-1	9.778453E-1	9.529931E-1	9.889845E-1	1.006686E+0	9.876266E-1	1.024703E+0	9.592438E-1	1.022772E+0	9.928066E-1	9.971638E-1	9.836395E-1	9.985158E-1	9.858852E-1	1.016997E+0	9.658285E-1	1.027600E+0	1.021203E+0	9.917024E-1	9.869342E-1	9.913867E-1	9.855242E-1	9.807678E-1	9.991246E-1	9.776139E-1	9.535427E-1	9.770966E-1	9.952057E-1	9.806653E-1	9.923316E-1	9.799632E-1	9.906046E-1	1.022990E+0	9.926321E-1	9.775068E-1	9.381210E-1	9.669978E-1	1.000124E+0	1.043109E+0	9.857212E-1	1.020475E+0	1.037355E+0	9.968578E-1	9.833790E-1	1.015316E+0	9.776035E-1	9.889218E-1	1.010218E+0	1.019847E+0	9.797378E-1	1.013818E+0	9.605406E-1	1.048081E+0	9.918841E-1	9.954727E-1	1.025666E+0	1.018978E+0	9.553829E-1	1.031790E+0	1.005672E+0	1.009830E+0	1.024572E+0	9.923276E-1	9.876837E-1	1.038827E+0	1.013509E+0	9.516285E-1	1.032464E+0	1.015023E+0	9.802962E-1	1.014649E+0	9.670478E-1	1.031078E+0	9.826359E-1	1.000266E+0	9.834716E-1	1.006002E+0	1.033930E+0	1.013768E+0	1.027973E+0	1.033895E+0	9.497615E-1	1.005799E+0	1.019715E+0	9.904372E-1	1.028159E+0	1.024356E+0	9.911161E-1	1.045387E+0	9.952743E-1	1.002187E+0	9.889702E-1	1.015461E+0	9.853428E-1	1.085798E+0	9.785593E-1	1.080303E+0	1.042612E+0	1.086170E+0
5.600470E+2	1.024646E+0	9.791876E-1	9.824656E-1	1.073084E+0	1.011093E+0	9.986881E-1	1.003681E+0	9.795458E-1	1.018501E+0	1.013978E+0	1.060513E+0	1.039737E+0	1.048426E+0	1.003986E+0	1.077919E+0	9.892412E-1	1.002518E+0	1.035255E+0	1.148380E+0	1.001692E+0	1.045302E+0	1.000678E+0	1.075684E+0	1.046593E+0	1.010036E+0	1.050086E+0	1.049219E+0	9.858278E-1	1.015963E+0	1.029417E+0	1.068746E+0	1.033396E+0	9.760622E-1	1.003157E+0	1.051205E+0	1.057348E+0	1.033165E+0	9.987956E-1	1.069173E+0	9.951906E-1	9.829037E-1	1.013085E+0	1.051102E+0	1.024375E+0	1.053070E+0	1.003384E+0	1.080793E+0	1.051017E+0	1.043824E+0	1.024444E+0	1.074199E+0	1.007280E+0	1.006163E+0	1.004467E+0	1.047980E+0	1.006583E+0	1.008530E+0	1.044362E+0	1.096399E+0	1.034006E+0	1.017742E+0	9.773094E-1	1.093584E+0	1.023528E+0	1.020824E+0	1.048178E+0	1.127019E+0	1.013581E+0	1.008971E+0	1.005092E+0	1.040618E+0	9.909211E-1	1.005491E+0	1.033875E+0	1.021152E+0	1.007024E+0	1.036310E+0	9.744670E-1	9.817740E-1	1.010991E+0	9.821705E-1	1.002885E+0	9.978259E-1	1.007155E+0	9.689236E-1	1.008537E+0	1.019457E+0	9.949254E-1	1.050756E+0	9.851105E-1	9.515863E-1	1.036352E+0	1.036984E+0	1.036690E+0	9.818545E-1	9.825365E-1	1.014154E+0	1.036800E+0	9.871993E-1	1.049284E+0	1.000058E+0	1.038902E+0	1.000489E+0	1.024368E+0	1.003235E+0	1.023989E+0	9.797162E-1	9.674160E-1	9.898334E-1	1.023402E+0	9.839824E-1	9.919329E-1	1.021493E+0	1.032878E+0	9.963412E-1	1.022810E+0	1.062686E+0	1.029043E+0	1.017166E+0	1.006721E+0	1.004928E+0	9.890885E-1	1.082843E+0	9.643549E-1	9.768095E-1	1.017968E+0	1.005672E+0	9.813104E-1	1.000433E+0	9.994196E-1	9.876834E-1	9.955381E-1	9.964758E-1	1.031127E+0	9.980902E-1	9.820158E-1	9.890526E-1	1.028845E+0	1.009172E+0	1.046402E+0	1.039964E+0	1.003485E+0	1.037506E+0	1.004166E+0	1.025349E+0	9.954917E-1	1.025826E+0	1.034595E+0	1.000542E+0	1.014434E+0	1.037578E+0	1.037370E+0	1.002674E+0	1.011971E+0	1.032623E+0	9.879935E-1	1.012753E+0	1.021095E+0	1.001671E+0	1.024260E+0	1.023343E+0	1.006415E+0	9.947890E-1	1.020491E+0	9.856065E-1	9.765444E-1
5.605150E+2	9.704998E-1	9.844232E-1	1.006494E+0	9.715786E-1	1.039662E+0	9.676065E-1	9.818484E-1	9.511374E-1	9.570317E-1	9.611593E-1	1.039018E+0	9.545865E-1	9.683334E-1	9.631267E-1	1.064476E+0	1.022393E+0	9.601563E-1	9.726421E-1	1.091263E+0	9.523340E-1	9.583129E-1	1.025709E+0	9.817401E-1	9.491707E-1	9.910134E-1	9.608819E-1	1.016219E+0	9.737145E-1	9.860336E-1	9.790506E-1	1.061997E+0	9.950017E-1	9.760620E-1	9.775427E-1	1.068926E+0	9.638459E-1	9.399062E-1	9.810172E-1	1.020966E+0	9.793390E-1	9.579581E-1	1.032425E+0	1.045437E+0	1.007840E+0	1.000800E+0	9.591791E-1	1.059500E+0	9.661847E-1	9.896592E-1	9.660778E-1	1.053618E+0	9.778918E-1	9.927907E-1	9.515231E-1	1.005902E+0	9.970177E-1	1.001631E+0	9.958407E-1	1.062806E+0	1.036564E+0	9.823657E-1	9.810926E-1	1.128822E+0	1.005202E+0	1.018360E+0	9.958233E-1	1.088293E+0	9.992492E-1	9.857795E-1	1.030263E+0	1.054385E+0	9.963568E-1	9.763765E-1	9.770094E-1	1.045012E+0	9.349566E-1	9.684446E-1	9.960291E-1	1.136666E+0	9.670237E-1	9.580273E-1	9.814066E-1	1.118767E+0	9.437779E-1	1.006099E+0	9.832865E-1	1.036573E+0	9.925647E-1	1.045784E+0	9.664998E-1	1.042909E+0	9.815308E-1	9.355002E-1	9.802042E-1	1.072278E+0	9.494808E-1	9.730040E-1	9.914453E-1	1.037584E+0	9.872577E-1	9.937759E-1	9.948085E-1	1.028006E+0	1.008464E+0	9.652954E-1	9.808206E-1	9.603668E-1	9.948816E-1	1.015251E+0	9.865668E-1	9.544763E-1	1.010638E+0	9.969665E-1	9.696510E-1	9.963414E-1	1.036881E+0	1.006967E+0	9.980267E-1	9.758764E-1	1.060358E+0	9.730434E-1	9.397525E-1	9.900900E-1	1.018278E+0	1.007687E+0	1.006910E+0	9.910139E-1	1.002548E+0	9.595827E-1	1.016830E+0	9.792857E-1	9.808866E-1	1.000001E+0	9.864863E-1	1.018460E+0	1.029253E+0	9.827965E-1	9.727038E-1	1.000339E+0	9.832660E-1	9.495639E-1	9.504195E-1	1.013349E+0	9.913045E-1	9.751806E-1	9.662517E-1	9.721708E-1	1.005182E+0	1.014760E+0	1.003331E+0	9.476029E-1	1.001584E+0	9.784302E-1	1.016788E+0	9.707261E-1	9.563281E-1	9.849160E-1	9.501919E-1	9.876333E-1	9.419250E-1	9.595573E-1	1.005779E+0	9.947893E-1	1.035998E+0	1.036911E+0	9.587003E-1
5.610070E+2	1.007219E+0	9.831143E-1	1.027276E+0	1.003780E+0	9.705698E-1	1.000760E+0	1.003680E+0	1.030681E+0	9.783329E-1	1.053912E+0	1.029097E+0	9.977530E-1	1.002282E+0	9.890380E-1	1.161271E+0	9.679735E-1	9.899232E-1	1.012693E+0	1.101817E+0	9.897053E-1	1.002371E+0	1.040312E+0	1.022840E+0	1.005446E+0	9.995407E-1	1.039842E+0	9.825169E-1	1.019746E+0	9.731231E-1	9.844076E-1	1.109258E+0	1.011457E+0	9.727555E-1	9.751616E-1	1.046318E+0	1.000554E+0	9.684685E-1	9.810154E-1	1.044780E+0	1.038770E+0	1.005414E+0	1.000193E+0	1.079422E+0	9.962034E-1	1.004532E+0	1.059593E+0	1.089666E+0	1.003042E+0	1.022895E+0	9.880373E-1	1.110651E+0	9.939218E-1	1.024769E+0	1.000054E+0	1.052654E+0	1.025153E+0	9.608572E-1	9.038400E-1	1.102735E+0	9.668883E-1	1.035700E+0	1.014044E+0	1.154240E+0	9.868761E-1	1.006037E+0	9.534415E-1	1.105076E+0	9.671748E-1	1.040100E+0	1.025581E+0	1.054961E+0	9.909213E-1	1.019387E+0	9.763998E-1	1.039207E+0	9.597869E-1	1.028771E+0	9.886514E-1	1.092497E+0	9.723720E-1	1.011887E+0	9.961351E-1	1.076533E+0	1.005111E+0	1.015393E+0	1.003128E+0	1.035432E+0	9.866659E-1	9.824188E-1	9.956571E-1	1.040407E+0	1.006983E+0	9.992112E-1	9.910859E-1	1.205180E+0	1.019334E+0	1.017892E+0	9.742237E-1	1.124055E+0	9.596158E-1	9.903481E-1	9.797389E-1	1.042678E+0	9.993746E-1	1.030600E+0	9.931546E-1	1.070459E+0	9.805247E-1	9.599929E-1	9.529797E-1	1.154998E+0	9.866724E-1	9.808309E-1	9.804911E-1	1.097265E+0	9.835591E-1	9.670743E-1	1.026788E+0	1.074965E+0	9.802255E-1	9.744927E-1	1.008822E+0	1.017406E+0	9.797614E-1	1.002017E+0	9.715269E-1	1.110191E+0	1.012865E+0	9.787705E-1	1.013605E+0	1.109449E+0	9.788890E-1	9.788524E-1	9.485722E-1	1.036284E+0	1.008764E+0	9.709116E-1	9.449550E-1	1.004416E+0	1.013302E+0	1.014056E+0	9.761493E-1	9.987291E-1	1.013351E+0	9.824403E-1	1.014986E+0	1.029404E+0	9.827722E-1	9.761671E-1	9.724875E-1	1.026331E+0	9.816375E-1	9.703498E-1	1.012660E+0	1.020972E+0	9.563284E-1	1.026349E+0	1.006913E+0	1.001003E+0	9.739799E-1	9.792356E-1	9.740250E-1	9.811218E-1	1.041536E+0	9.300254E-1	1.055576E+0
