Photon Energy (eV)	#1	#2	#3	#4	#5	#6	#7	#8	#9	#10	#11	#12	#13	#14	#15	#16	#17	#18	#19	#20	#21	#22	#23	#24	#25	#26	#27	#28	#29	#30	#31	#32	#33	#34	#35	#36	#37	#38	#39	#40	#41	#42	#43	#44	#45	#46	#47	#48	#49	#50	#51	#52	#53	#54	#55	#56	#57	#58	#59	#60	#61	#62	#63	#64	#65	#66	#67	#68	#69	#70	#71	#72	#73	#74	#75	#76	#77	#78	#79	#80	#81	#82	#83	#84	#85	#86	#87	#88	#89	#90	#91	#92	#93	#94	#95	#96	#97	#98	#99	#100	#101	#102	#103	#104	#105	#106	#107	#108	#109	#110	#111	#112	#113	#114	#115	#116	#117	#118	#119	#120	#121	#122	#123	#124	#125	#126	#127	#128	#129	#130	#131	#132	#133	#134	#135	#136	#137	#138	#139	#140	#141	#142	#143	#144	#145	#146	#147	#148	#149	#150	#151	#152	#153	#154	#155	#156	#157	#158	#159	#160	#161	#162	#163	#164	#165	#166	
5.300220E+2	-1.173724E-2	-1.007252E-2	-8.006508E-3	2.441088E-3	-1.111998E-2	-7.626691E-3	-6.865677E-3	2.227602E-3	-5.982809E-3	-1.316554E-4	-5.176306E-3	7.002015E-4	-5.649747E-3	-6.096735E-3	-1.400731E-2	-7.073268E-3	-8.090743E-3	-3.590938E-3	-2.750419E-3	7.735000E-4	-1.000367E-2	-1.877757E-3	-1.103433E-2	-3.419214E-3	-8.538280E-3	-3.797827E-3	-5.841979E-3	-9.922299E-4	-1.258165E-2	-1.273026E-2	-5.166110E-3	-8.342423E-3	3.853456E-4	-1.050212E-2	-1.141429E-2	-3.655325E-3	-6.751977E-3	-1.031280E-2	-2.552933E-3	-4.578791E-3	-7.171801E-3	-2.529073E-3	-2.009797E-3	-1.217144E-2	-7.886650E-3	-7.743239E-3	-8.393134E-3	-1.252418E-2	-5.081837E-3	-5.584702E-3	-8.095984E-3	-1.535071E-2	-8.301826E-3	-7.110592E-3	-1.423402E-2	-1.045039E-2	-3.904812E-3	-1.396861E-3	-1.207437E-2	-4.981592E-3	-4.844755E-3	-1.316325E-2	-1.398209E-2	1.624856E-3	-1.062033E-2	-5.577923E-3	-2.709731E-3	-1.179210E-2	-4.907906E-3	-1.366406E-2	-8.101770E-3	-1.841017E-2	-8.910554E-3	-2.918601E-4	-7.185210E-3	-1.284958E-2	-8.262998E-3	-7.841696E-3	1.119283E-3	-2.587337E-3	-1.202003E-2	-9.969911E-3	-6.197938E-3	-3.941849E-3	-8.995832E-3	-3.139397E-3	-5.104470E-3	-3.588693E-3	-1.579091E-2	-3.747973E-3	-4.405583E-3	-9.073302E-3	-1.262609E-3	-2.112291E-2	-9.232608E-3	-1.200042E-2	-7.294895E-3	-4.146660E-3	-2.950474E-3	-1.224799E-2	-5.847966E-3	-8.887447E-3	-1.883109E-2	-3.874790E-3	-7.689142E-3	-1.335268E-2	-2.768050E-3	-1.252712E-2	-7.270090E-3	-1.091292E-2	-1.277388E-2	-3.978522E-3	-1.001342E-2	-4.727171E-3	1.875763E-3	-1.173076E-2	-1.976412E-3	-1.102830E-2	-1.511277E-2	3.051053E-4	-9.767950E-3	-4.830145E-3	-4.170269E-3	-1.180574E-2	-4.021536E-3	-1.188667E-2	-7.902606E-4	-8.442091E-3	-3.500139E-3	-4.399616E-3	-9.478604E-3	-3.929372E-3	-1.396006E-2	-4.034501E-3	-1.674958E-2	-2.183052E-3	-5.760519E-3	-2.187038E-3	-4.027803E-3	-2.796272E-3	-7.269285E-3	-5.549115E-3	-1.087202E-2	-7.464966E-3	-1.857852E-2	-1.439665E-2	-5.835769E-3	-7.455978E-3	-6.581570E-4	-6.365904E-3	-1.033848E-2	-3.208067E-3	-4.721357E-3	-1.767451E-2	-5.464731E-3	-8.115794E-3	-1.049027E-2	-7.354315E-3	-1.139465E-3	-8.713790E-3	-2.793330E-3	2.175328E-4	-1.118257E-2	-1.202977E-2	8.470635E-3	7.911896E-3
5.305080E+2	-9.297642E-3	-6.042416E-3	-7.640719E-3	2.652091E-3	-9.401612E-3	-9.527441E-3	-6.657556E-3	-6.515393E-3	-1.172206E-2	6.529826E-5	-4.705324E-4	-4.930180E-3	-1.061559E-2	-2.263110E-3	2.275304E-3	-9.496675E-4	-8.099552E-6	-9.435661E-3	-9.127817E-3	3.025455E-4	-1.118530E-3	-2.313189E-3	-8.027561E-3	-1.512593E-3	-3.959948E-3	-6.674040E-3	8.017750E-4	-7.044630E-3	-4.844860E-3	-6.564924E-3	-8.955028E-3	-8.716065E-3	-9.330847E-3	-1.345675E-3	-2.673731E-3	3.854383E-4	-2.187853E-2	-2.827783E-3	-1.203666E-2	-1.516715E-2	-7.595207E-3	-1.155995E-2	-1.105239E-2	-7.612164E-3	-3.821589E-3	-1.037904E-2	-1.208325E-2	-9.753090E-3	-1.088446E-2	-7.323235E-3	-9.586715E-3	-5.464079E-3	-5.525754E-3	-1.570272E-2	-6.413990E-3	-7.489872E-3	-9.832470E-3	-8.592377E-3	-5.298698E-3	-9.842869E-3	-9.290017E-3	-1.016678E-2	-6.107710E-3	-4.628634E-3	4.822781E-4	-6.644388E-3	1.934295E-3	-6.070971E-3	-8.879360E-3	-7.398776E-3	-7.312907E-3	-9.520832E-3	-2.338157E-3	-3.818727E-3	-7.613166E-3	1.623752E-3	-1.540445E-3	-7.041621E-3	-1.085909E-3	-3.579137E-3	-1.771933E-3	-1.101969E-2	-1.087856E-2	-7.640518E-4	6.720345E-3	-1.244136E-2	-6.681689E-3	-1.170183E-2	-5.298141E-3	-8.290185E-3	-9.167014E-3	-9.487072E-3	-9.095597E-3	-6.671909E-3	-1.293901E-3	-3.326742E-3	-7.759112E-3	-1.083323E-2	5.037775E-3	-5.373440E-3	-6.289980E-3	-3.429591E-3	-5.550861E-3	-9.316202E-3	-4.759305E-3	-9.762379E-3	-3.217291E-3	-4.036727E-3	-1.011580E-2	-4.172394E-3	-5.524980E-3	-1.014597E-2	-1.009830E-3	-8.496230E-3	-4.450251E-3	-8.286288E-3	-5.598294E-3	1.518685E-3	-5.625224E-3	-4.347605E-3	1.762915E-3	-1.198461E-2	-5.183031E-3	-7.099725E-3	-3.839254E-3	1.161837E-3	-1.479229E-2	-4.701938E-3	-8.697858E-3	1.316347E-3	-3.863134E-3	-7.358805E-3	-1.120809E-2	1.287944E-3	-4.718862E-3	-6.513687E-3	-1.231871E-2	-9.020961E-3	-4.484844E-3	-8.943536E-3	-3.341032E-3	-4.784738E-3	-2.885838E-3	-9.278758E-3	1.450315E-3	-1.007426E-2	-3.796916E-3	-9.121644E-3	3.205474E-3	-3.612767E-3	-7.126881E-3	-1.214371E-2	-5.820323E-3	-1.668695E-3	-7.819039E-3	-3.592846E-3	-5.340681E-3	-5.370645E-3	-4.986931E-3	3.222425E-3	1.377240E-3	-8.705954E-3	-1.071893E-2	-6.411696E-3	-1.277994E-2	-7.250237E-3
5.310350E+2	6.612810E-3	5.140430E-3	-6.017411E-3	-6.951155E-3	1.080276E-2	-7.918604E-3	-6.482815E-3	-6.367782E-3	-1.586911E-3	-7.102406E-3	-2.572106E-3	-1.064133E-2	-8.168352E-3	-5.056573E-4	-3.444729E-3	-6.740774E-3	-7.120333E-3	-7.474372E-3	-6.591224E-3	1.110288E-3	-4.421637E-3	-1.261179E-2	-6.153125E-3	-1.912957E-3	-1.557109E-2	-4.674535E-3	-1.253134E-2	-1.181320E-2	-7.364885E-3	4.548949E-3	-1.158231E-2	-1.805054E-3	1.337472E-3	-1.331780E-2	-4.205468E-3	-5.715750E-5	-2.474637E-3	-1.115236E-2	-6.784809E-3	-1.049550E-2	-4.836163E-3	-8.778238E-3	-7.816295E-3	-8.073845E-3	1.365658E-3	9.644323E-4	-1.967762E-3	2.984025E-4	-3.331593E-3	-2.647448E-3	-1.007582E-3	1.341736E-3	7.422720E-3	-2.080430E-3	-2.141972E-3	-1.124458E-2	-2.124654E-3	-9.094789E-3	-1.355329E-2	1.130043E-3	-4.517525E-3	-8.878427E-3	-4.364660E-4	-7.090652E-3	6.426480E-3	1.878155E-3	-9.432633E-3	-4.068199E-3	-4.568959E-3	-8.436898E-3	-4.154576E-3	-6.106915E-3	-9.159681E-3	-1.214248E-2	-4.824499E-3	-1.278652E-3	-5.521353E-3	-3.853072E-3	-3.784981E-3	-6.605269E-3	-6.912345E-3	4.273011E-3	-3.380091E-3	-8.415685E-3	-1.297696E-2	2.920986E-3	2.876679E-3	-7.401825E-3	-5.799581E-3	-1.015703E-2	9.139113E-4	-1.965085E-3	-1.074917E-2	-5.916952E-3	-5.549132E-3	-3.135821E-3	3.207975E-3	3.185244E-3	-5.177062E-3	-1.064839E-2	-5.477704E-3	-7.356118E-3	3.926689E-3	-7.468909E-3	-5.394859E-4	-3.378395E-4	-5.732199E-3	-1.020137E-2	-4.530615E-3	2.049703E-4	-4.498005E-4	-4.733460E-3	-2.165109E-3	-9.647497E-3	-4.270140E-3	-5.111672E-4	-1.049847E-2	-4.452364E-3	-3.700398E-3	-5.930937E-3	-2.695200E-3	-1.184403E-2	-4.409734E-3	-1.459728E-2	-1.118859E-2	-3.924014E-4	-6.715281E-3	-5.026851E-3	-7.177325E-3	-5.395967E-3	5.655388E-3	-5.983096E-3	-9.153962E-3	-3.645814E-3	3.302792E-3	-2.387166E-3	3.556588E-3	-3.176676E-3	-1.094380E-2	4.163042E-4	1.087979E-3	-5.188783E-3	3.450001E-3	1.375613E-3	-4.002326E-4	-9.227962E-3	-1.272600E-2	-1.078262E-2	-1.443528E-2	-6.588348E-3	-3.135684E-4	-7.791983E-3	1.636083E-4	-9.316114E-3	-1.175018E-3	-9.930077E-4	-2.361294E-3	-1.113955E-2	-7.047664E-3	-1.182674E-2	-1.994364E-3	-7.931242E-3	-1.861162E-3	-3.132608E-3	-9.463204E-3	7.576560E-3
5.315230E+2	-7.825953E-3	5.866063E-4	5.329841E-4	-7.080224E-3	-7.166893E-3	-1.309568E-2	6.654031E-4	-9.832078E-4	-6.352491E-3	-7.224795E-3	2.991129E-3	-4.174662E-3	-5.411714E-3	-1.169622E-2	-8.920377E-3	6.751933E-3	-2.361778E-3	-6.989612E-3	9.763580E-4	-2.147069E-3	-4.960750E-3	1.020110E-3	-3.454734E-3	-5.026504E-3	1.088886E-3	-2.984777E-3	4.028136E-3	5.952702E-3	-4.167807E-3	3.844778E-3	-3.878611E-3	-3.070084E-3	-4.975047E-3	6.168344E-4	-9.621061E-4	-5.364259E-3	-9.142291E-4	5.098455E-3	-6.831903E-4	6.308402E-3	-8.205899E-3	-9.364535E-4	-1.114352E-3	2.822457E-3	-2.655142E-3	-6.423549E-3	-7.617138E-3	-5.540725E-3	-7.496646E-3	-1.048554E-2	-4.494126E-3	1.142892E-2	-4.214030E-3	-2.800217E-3	5.973924E-5	-6.982292E-4	-9.796417E-3	-1.814328E-3	-3.301090E-3	-1.297354E-2	-4.641299E-3	3.889003E-3	4.914890E-3	-8.719771E-4	-5.853106E-3	-4.036792E-3	-3.782223E-3	-2.977748E-3	-5.876147E-3	-7.236559E-4	-1.300453E-3	8.102654E-4	-4.197432E-3	-2.549925E-3	2.869646E-3	1.676193E-3	-5.055468E-3	-3.380221E-3	-8.525965E-3	-8.866171E-3	2.923589E-3	2.146063E-3	-2.898714E-3	4.111844E-3	-1.184602E-2	-6.079051E-3	-3.701280E-3	-3.998531E-3	-4.578539E-3	-7.964841E-4	-4.793299E-3	1.895640E-3	7.406802E-4	-9.302874E-4	-1.341643E-2	5.218063E-3	-1.039691E-2	-8.277351E-3	-8.558683E-3	-7.130581E-3	-8.123555E-3	4.252630E-3	-6.735053E-3	4.082496E-3	-4.042203E-3	8.372050E-4	-5.186750E-3	-1.455348E-3	-1.074838E-3	-7.637436E-3	2.683636E-3	9.145634E-4	-2.975577E-3	-3.155414E-3	-5.560114E-3	-1.904813E-3	-8.080009E-3	-6.417533E-3	8.334300E-3	-2.501363E-3	-4.825717E-3	7.516293E-3	-9.511992E-4	-1.940015E-3	-3.784795E-3	-6.353037E-3	3.346683E-3	1.580537E-3	-1.477817E-2	3.445574E-3	-1.314699E-2	-8.492885E-3	2.654132E-3	4.569402E-3	-5.972394E-3	8.355548E-4	-7.533245E-3	-9.017784E-3	1.471534E-3	-2.774826E-3	-8.924402E-4	2.364888E-3	-7.274146E-3	-5.914791E-3	-7.962386E-3	3.302926E-3	-7.284480E-4	-6.022059E-3	2.560246E-3	-4.204391E-3	-2.267663E-3	-4.955880E-3	9.676382E-6	2.660332E-3	-9.694674E-3	-6.565595E-3	-1.136043E-3	-3.507603E-3	-7.167662E-3	1.124750E-3	-1.531345E-2	8.847331E-3	3.567431E-3	-3.262055E-3	2.506858E-3	-2.661895E-2
5.320120E+2	5.276675E-4	-6.563155E-3	5.587702E-4	6.085614E-4	-1.675833E-3	1.428378E-2	1.589050E-2	-2.362083E-3	2.266275E-3	7.550811E-4	-6.123389E-3	6.071186E-3	3.728286E-3	6.219948E-3	-1.106216E-2	-8.717848E-3	-2.350458E-3	3.654567E-3	-4.349667E-3	-9.610028E-3	3.827979E-3	3.731108E-3	-5.152802E-3	-3.253372E-3	1.223398E-2	-1.163386E-3	-4.991436E-3	-4.535677E-3	-2.575783E-3	-3.774320E-3	4.499128E-3	1.096019E-2	-4.949266E-3	7.017750E-3	4.624190E-3	-2.881572E-3	8.829181E-3	5.703499E-3	1.012128E-3	-6.662401E-3	-1.644202E-3	-4.941353E-3	6.205408E-3	2.157610E-3	4.061270E-3	-6.980613E-3	6.683008E-4	-1.376167E-3	-2.807684E-3	-1.113063E-2	1.568110E-2	1.208402E-3	8.847461E-4	7.118424E-4	5.906407E-3	-4.618812E-3	5.940688E-3	2.184843E-3	4.384816E-3	4.118195E-3	-3.487332E-3	1.062330E-2	9.858469E-3	-2.965717E-3	-1.414537E-2	5.574674E-3	-1.211815E-3	4.947966E-3	1.221055E-3	-1.104883E-4	2.280270E-3	5.152404E-3	1.488464E-2	-2.545681E-3	-5.608193E-3	-1.412664E-3	5.087841E-3	-3.645261E-4	-3.320785E-3	5.642845E-3	-9.027613E-3	8.415319E-4	5.654537E-3	-1.295053E-3	3.691440E-3	2.459641E-4	4.076105E-4	8.374308E-3	4.251409E-3	-2.824306E-3	-4.583354E-4	5.691352E-4	1.053859E-2	9.888952E-3	2.117989E-3	-2.110796E-3	7.756316E-3	3.685248E-3	-2.698748E-3	9.846568E-3	-4.345240E-3	6.028426E-3	-1.779958E-3	2.436171E-3	1.341561E-3	-4.739226E-4	-3.168190E-3	1.058573E-2	6.731798E-3	7.762093E-3	2.710563E-3	-1.005686E-4	1.066733E-3	-6.450232E-3	-7.887743E-3	1.909003E-3	-1.735195E-3	9.598828E-3	4.304360E-3	-6.997866E-4	-1.863818E-4	1.127476E-2	2.644718E-3	1.148588E-2	2.496756E-3	4.171032E-3	1.677853E-3	4.200136E-3	8.356636E-3	1.386493E-3	-6.468798E-3	1.090060E-3	1.612014E-4	-8.922523E-3	-1.394884E-3	-8.673947E-3	7.520862E-3	3.784900E-3	1.547122E-3	-7.632321E-3	-2.117148E-4	-2.868545E-3	-1.690516E-3	3.449011E-3	-5.902142E-3	-5.330426E-3	8.434516E-3	-1.680852E-3	-6.319483E-3	2.746103E-4	-1.638054E-3	-3.096937E-3	-8.669972E-3	2.653386E-3	-1.763981E-5	2.195174E-4	-2.498302E-3	3.634555E-3	3.023524E-3	-1.142564E-3	-4.326276E-3	-2.649345E-3	-2.031800E-3	6.963480E-3	-5.583565E-4	2.552211E-3
5.325120E+2	1.139876E-2	7.311452E-3	3.139139E-3	5.878475E-3	8.877701E-3	5.360770E-3	1.010319E-3	-5.527859E-3	1.944566E-3	3.085600E-3	4.671444E-4	8.653060E-3	1.098688E-2	-3.500773E-3	1.238777E-2	1.733685E-3	4.091895E-3	9.459951E-3	1.145882E-2	3.946314E-5	8.306997E-3	1.016609E-2	4.860084E-3	4.824976E-3	8.884086E-3	5.912632E-3	8.255459E-3	9.469376E-3	1.192305E-2	-3.987530E-3	1.332212E-2	4.593957E-3	6.536532E-3	7.420532E-3	1.126297E-2	7.015889E-3	1.256096E-3	2.420866E-3	7.045541E-3	1.011581E-2	1.238177E-2	7.330073E-3	4.121858E-3	4.348122E-3	5.535815E-3	1.240524E-2	1.212638E-2	1.097894E-2	1.440235E-2	2.013583E-2	4.265175E-3	-1.479514E-3	3.202879E-3	6.359912E-3	4.526396E-3	1.604875E-2	1.324610E-2	4.593193E-3	7.357282E-3	9.636854E-3	1.129634E-2	1.048043E-2	-4.637228E-3	1.062594E-2	7.931614E-3	-4.367130E-3	6.247038E-3	7.161264E-3	6.952897E-3	8.727537E-3	9.836083E-3	1.206271E-2	6.276364E-4	1.489064E-2	4.550029E-3	-4.722947E-4	1.208547E-2	7.843347E-3	8.611026E-3	8.743270E-3	3.285044E-3	1.044153E-2	1.156062E-2	-9.667463E-4	9.079260E-3	4.412261E-3	1.494520E-4	2.277958E-3	2.240405E-2	1.455826E-2	8.588938E-3	9.647355E-3	-5.017811E-3	1.488632E-2	9.155566E-3	-7.304054E-5	-2.639835E-3	8.456180E-3	1.549296E-3	8.438414E-3	1.369013E-2	4.049183E-3	9.750043E-3	6.168457E-3	9.127772E-3	9.827654E-3	-1.508414E-3	9.080262E-3	2.326144E-3	1.051626E-3	7.436248E-3	-2.828758E-4	8.846501E-3	1.117390E-2	1.008552E-2	1.243478E-2	4.955957E-3	2.548131E-3	5.840694E-3	2.043622E-3	2.140279E-3	7.902280E-3	1.078537E-2	9.984681E-3	4.743258E-3	-1.704605E-4	4.870880E-3	6.130810E-3	1.009976E-2	-3.804047E-3	7.215498E-3	7.455127E-3	1.062386E-2	6.933476E-3	1.533032E-2	5.730486E-3	9.963590E-3	1.689751E-2	2.528107E-3	8.644298E-3	5.576650E-3	5.865286E-3	3.117179E-4	5.517470E-3	1.462838E-2	1.308304E-2	2.062274E-3	1.221014E-2	2.250965E-3	3.790478E-3	7.750526E-3	9.230464E-3	4.005458E-3	5.171858E-3	1.630752E-3	1.943904E-3	-8.009934E-4	1.899848E-2	5.161639E-3	2.601762E-3	-3.421288E-4	-5.907223E-3	5.483636E-3	1.352423E-2	-3.264272E-3	2.008271E-2
5.330280E+2	1.032159E-2	9.639602E-3	1.743375E-2	2.451163E-3	9.683857E-3	1.852387E-2	2.439820E-3	1.952872E-2	2.143343E-2	1.055288E-2	1.088406E-2	4.321721E-3	1.513023E-2	1.784254E-2	2.277150E-2	1.499594E-2	1.583952E-2	1.437606E-2	1.038395E-2	9.531300E-3	8.369618E-3	1.885435E-3	2.896247E-2	1.029966E-2	5.862367E-3	1.338193E-2	1.027938E-2	8.963661E-3	1.961194E-2	1.866331E-2	1.176081E-2	6.379476E-3	1.099581E-2	1.011047E-2	3.368432E-3	4.556986E-3	2.193409E-2	1.107012E-2	1.399993E-2	2.047962E-2	1.707150E-2	2.141500E-2	1.166557E-2	1.852926E-2	3.400638E-3	1.815678E-2	1.726660E-2	1.791682E-2	1.519987E-2	1.703573E-2	3.238136E-3	8.315243E-3	6.531266E-3	2.062221E-2	1.229744E-2	1.845314E-2	6.471561E-3	1.412032E-2	2.248536E-2	1.291291E-2	1.548459E-2	7.215721E-3	1.039014E-2	3.306184E-3	1.577843E-2	1.317340E-2	8.955069E-3	1.279979E-2	1.605842E-2	2.160634E-2	8.753353E-3	1.601253E-2	9.093547E-3	6.458043E-3	1.781139E-2	1.271324E-2	3.206949E-3	1.463779E-2	6.987330E-3	7.251799E-3	2.352328E-2	3.287471E-3	6.140147E-3	1.127154E-2	1.432777E-2	1.408060E-2	1.205370E-2	1.603861E-2	4.811717E-3	1.125772E-2	9.321382E-3	8.413329E-3	1.484592E-2	9.866786E-3	1.821851E-2	1.542876E-2	1.712646E-2	7.930570E-3	1.279790E-2	1.711542E-2	1.639431E-2	5.342918E-3	1.922023E-2	7.972778E-3	6.560804E-3	1.326197E-2	2.158089E-2	8.554567E-3	1.393340E-2	1.370406E-2	5.918214E-3	1.832683E-2	6.250704E-3	2.130264E-2	1.020697E-2	8.089249E-3	2.293242E-2	8.232549E-3	5.959036E-3	1.113096E-2	1.357206E-2	1.965459E-3	1.284147E-3	1.397220E-2	1.559417E-2	1.346970E-2	1.240241E-2	6.259397E-3	1.569710E-2	7.451215E-3	2.008664E-2	1.721897E-2	2.088292E-2	3.812017E-3	1.020261E-2	1.319181E-2	4.571432E-3	2.720052E-3	1.390969E-2	1.308635E-2	5.049843E-3	1.016101E-2	1.896080E-2	1.231642E-2	1.676459E-2	2.264334E-2	1.259035E-2	2.285301E-2	1.339624E-2	1.670632E-2	1.393412E-2	2.196611E-2	1.503291E-2	1.817374E-2	2.254035E-2	1.710382E-2	2.262759E-2	4.739080E-3	1.215656E-2	1.473416E-2	2.339231E-2	1.612890E-2	1.674340E-2	4.348421E-3	1.508828E-2	-4.254194E-3
5.331730E+2	1.364464E-2	2.034610E-2	2.132093E-2	1.736482E-2	1.241342E-2	6.529166E-3	5.257719E-3	1.344507E-2	1.682169E-2	1.275433E-2	3.055781E-2	1.622259E-2	1.901747E-2	6.847165E-3	2.887263E-2	2.113894E-2	7.322817E-3	1.629671E-2	1.582970E-2	1.530327E-2	5.498287E-3	1.525993E-2	2.053389E-2	9.820302E-3	1.282677E-2	1.596210E-2	1.614667E-2	-2.134741E-3	1.753446E-2	1.605878E-2	2.939090E-2	1.611948E-2	2.233998E-2	2.504765E-2	2.576692E-2	2.454046E-2	1.349781E-2	2.711270E-2	2.041539E-2	1.378284E-2	1.523749E-2	2.754807E-2	2.111748E-2	1.376200E-2	2.993197E-2	1.774611E-2	2.411260E-2	1.019047E-2	2.821253E-2	-2.900289E-3	2.147081E-2	3.091976E-2	1.630789E-2	5.408141E-3	2.304854E-2	1.350175E-2	1.281383E-2	2.238178E-2	8.881867E-3	1.109980E-2	1.911535E-2	5.648739E-3	1.662128E-2	2.261930E-2	2.429144E-2	4.049056E-2	4.545395E-3	1.846914E-2	2.934866E-2	5.317900E-3	2.153480E-2	1.670779E-2	1.307876E-2	1.210609E-2	1.202569E-2	1.659222E-2	1.779563E-2	1.356470E-2	1.878111E-2	3.126323E-2	1.830952E-2	1.401297E-2	2.045011E-2	2.114076E-2	1.825292E-2	1.422406E-2	2.876575E-2	1.501006E-2	2.554724E-2	2.500031E-3	1.882497E-2	1.124292E-2	1.190616E-2	1.690614E-2	1.388725E-2	3.100811E-2	2.002533E-2	3.222370E-2	1.818710E-2	2.216049E-2	1.727043E-2	1.139267E-2	2.248591E-2	1.204398E-2	1.966656E-2	1.339362E-2	1.223125E-2	1.507382E-2	1.047222E-2	6.042401E-3	1.482662E-2	1.954915E-2	1.519603E-2	2.680971E-2	2.751597E-2	1.780886E-2	2.565065E-2	2.017295E-2	1.135434E-2	1.906617E-2	7.683745E-3	8.876134E-3	1.163471E-2	3.149282E-3	1.826676E-2	2.600055E-2	1.711781E-2	2.312856E-2	2.888956E-2	1.876781E-2	2.831108E-2	1.918513E-2	1.659804E-2	1.238944E-2	1.230418E-2	1.729016E-2	2.127423E-2	2.926647E-2	2.943558E-2	2.253233E-2	2.546826E-2	1.931057E-2	1.405148E-2	1.247865E-2	2.030973E-2	1.071136E-2	1.507511E-2	1.304964E-2	2.045381E-2	2.905047E-2	8.608815E-3	1.306758E-2	2.615143E-2	2.484420E-2	1.879004E-2	1.589379E-2	8.351324E-3	2.413368E-2	6.579204E-3	2.347883E-2	1.246953E-2	2.668727E-2	1.849777E-2	7.582716E-3	3.655852E-2	1.055163E-2
5.333080E+2	1.868416E-2	2.751585E-2	9.618557E-3	2.279810E-2	2.183461E-2	1.519041E-2	1.299265E-2	2.764051E-2	1.351397E-2	1.977877E-2	2.603899E-2	1.138507E-2	2.750472E-2	1.346162E-2	2.407537E-2	1.590737E-2	2.083906E-2	2.738839E-2	2.900119E-2	1.615110E-2	2.767024E-2	1.726922E-2	1.438210E-2	1.777376E-2	3.060532E-2	1.140150E-2	1.112417E-2	1.611293E-2	1.856577E-2	2.500138E-2	1.539969E-2	1.003567E-2	2.859801E-2	1.805268E-2	2.470947E-2	4.926985E-3	3.409525E-2	2.049824E-2	2.618575E-2	1.899847E-2	1.216782E-2	2.097713E-2	2.438084E-2	2.374135E-2	2.941934E-2	1.897847E-2	2.141798E-2	2.232945E-2	2.699441E-2	1.477684E-2	3.564557E-2	1.951194E-2	2.736241E-2	1.676584E-2	1.844849E-2	9.672872E-3	2.336627E-2	3.198993E-2	2.601961E-2	2.901595E-2	1.461849E-2	5.838338E-3	1.728548E-2	2.163000E-2	2.314795E-2	1.673227E-2	2.862560E-2	2.779275E-2	1.396751E-2	2.853787E-2	1.447274E-2	2.388986E-2	1.391920E-2	1.168009E-2	1.945497E-2	3.740326E-3	9.545905E-3	3.246905E-2	6.731793E-3	9.690748E-3	2.250963E-2	3.136666E-2	1.997475E-2	1.463096E-2	2.340426E-2	1.505734E-2	1.885323E-2	1.042819E-2	3.593877E-2	1.843854E-2	2.642780E-2	1.817251E-2	7.773557E-3	2.158561E-2	3.017667E-2	3.218179E-2	1.950903E-2	2.349103E-2	1.903538E-2	2.228987E-2	1.175910E-2	1.688457E-2	1.641968E-2	2.112158E-2	2.323577E-2	1.958028E-2	2.123576E-2	1.654351E-2	3.169672E-2	2.650200E-2	2.095172E-2	2.279010E-2	3.093547E-2	2.096048E-2	2.524471E-2	2.817504E-2	3.149885E-2	9.213240E-3	1.675525E-2	2.096350E-2	2.590918E-2	2.575586E-2	1.901822E-2	2.904557E-2	2.786284E-2	2.258526E-2	2.008719E-2	1.019281E-2	2.289751E-2	7.849855E-3	3.047354E-2	1.691572E-2	2.810340E-2	8.696929E-3	1.841940E-2	1.515608E-2	1.388453E-2	2.092456E-2	1.563127E-2	1.651327E-2	2.313582E-2	9.373049E-3	1.977946E-2	7.731897E-3	1.304214E-2	1.234752E-2	1.826803E-2	1.937482E-2	2.746045E-2	2.280852E-2	1.777299E-2	1.862330E-2	1.614391E-2	2.149982E-2	2.674140E-2	1.132178E-2	2.499363E-2	3.144938E-2	1.240087E-2	4.238320E-2	1.272452E-2	2.325622E-2	2.493953E-2	8.126722E-3	4.651327E-2	3.703370E-2
5.334580E+2	2.979718E-2	3.424647E-2	1.459398E-2	4.314353E-2	1.745059E-2	2.035450E-2	1.669898E-2	4.377140E-2	2.346321E-2	2.925907E-2	1.984031E-2	3.280414E-2	2.987151E-2	3.386540E-2	2.695339E-2	2.679877E-2	2.482242E-2	2.038470E-2	3.517334E-2	2.184401E-2	2.678115E-2	2.309225E-2	2.710634E-2	1.367698E-2	2.697153E-2	3.191601E-2	2.599752E-2	2.746028E-2	2.676829E-2	2.969181E-2	2.173362E-2	2.776395E-2	2.419782E-2	1.874722E-2	2.658064E-2	2.413820E-2	2.398813E-2	2.399722E-2	3.041035E-2	1.232313E-2	1.972294E-2	3.393638E-2	2.444804E-2	3.250302E-2	2.520425E-2	3.053904E-2	2.829053E-2	3.254648E-2	2.977297E-2	3.822686E-2	2.908082E-2	3.238647E-2	3.464997E-2	2.699628E-2	2.150618E-2	1.713793E-2	3.953370E-2	1.581189E-2	3.070475E-2	2.915911E-2	2.755028E-2	2.234125E-2	3.296091E-2	2.554957E-2	1.218835E-2	2.323554E-2	2.162116E-2	2.670165E-2	2.599328E-2	2.992941E-2	3.445284E-2	3.010681E-2	2.681533E-2	2.278183E-2	1.948923E-2	1.929185E-2	1.619983E-2	3.084096E-2	2.835844E-2	2.227877E-2	2.859875E-2	2.153337E-2	2.251763E-2	2.441940E-2	1.279614E-2	1.828236E-2	3.970337E-2	2.717545E-2	2.164752E-2	1.982973E-2	2.654707E-2	2.020897E-2	2.265204E-2	2.692830E-2	2.925502E-2	1.922804E-2	1.547799E-2	2.991699E-2	2.499289E-2	2.917188E-2	2.962926E-2	4.669360E-2	2.208809E-2	2.354876E-2	2.464472E-2	2.495238E-2	4.926682E-3	4.220941E-2	2.283007E-2	2.730262E-2	3.430535E-2	4.104985E-2	2.831581E-2	3.374248E-2	4.320200E-2	2.507184E-2	3.164861E-2	2.724263E-2	2.975650E-2	3.071543E-2	1.860310E-2	4.314304E-2	3.356938E-2	2.208498E-2	2.608077E-2	2.743193E-2	2.420900E-2	2.233640E-2	3.185743E-2	2.878585E-2	2.244771E-2	2.424366E-2	2.442861E-2	2.041365E-2	2.502720E-2	3.398051E-2	2.906652E-2	3.659752E-2	3.296420E-2	2.830723E-2	2.443467E-2	3.522258E-2	3.062959E-2	1.528162E-2	2.111435E-2	1.833018E-2	3.359659E-2	1.941360E-2	3.302495E-2	3.569061E-2	1.476860E-2	3.079203E-2	2.560655E-2	1.066673E-2	2.417101E-2	3.464411E-2	2.572949E-2	2.808372E-2	1.595477E-2	3.806796E-2	3.994696E-2	2.590650E-2	3.516147E-2	3.348841E-2	2.603549E-2	2.820876E-2
5.336080E+2	2.892779E-2	3.616256E-2	3.482644E-2	3.567895E-2	3.095601E-2	4.573559E-2	3.345655E-2	3.993277E-2	2.668258E-2	2.825502E-2	3.853554E-2	4.796348E-2	5.231962E-2	3.730234E-2	3.642665E-2	2.589860E-2	3.932494E-2	3.646651E-2	3.067958E-2	3.475939E-2	2.700232E-2	3.896062E-2	2.280374E-2	2.180609E-2	2.669868E-2	3.098601E-2	3.343950E-2	3.836257E-2	3.699967E-2	3.381033E-2	3.330978E-2	3.369151E-2	3.740300E-2	1.852020E-2	4.630732E-2	2.578278E-2	3.354290E-2	2.998712E-2	3.413092E-2	3.890679E-2	2.508059E-2	3.301474E-2	3.978746E-2	6.551568E-2	4.394896E-2	4.608677E-2	5.145928E-2	4.435285E-2	3.746904E-2	2.466033E-2	4.245014E-2	2.790417E-2	3.322899E-2	3.392523E-2	3.431268E-2	3.913567E-2	3.752066E-2	2.279925E-2	2.977693E-2	2.887617E-2	2.647547E-2	2.732569E-2	3.545003E-2	4.132592E-2	3.686374E-2	2.685126E-2	3.560578E-2	4.120092E-2	2.632214E-2	3.760853E-2	3.054778E-2	2.984447E-2	2.897146E-2	3.786782E-2	3.173744E-2	3.528117E-2	3.909777E-2	3.787445E-2	3.741497E-2	3.125688E-2	4.104250E-2	2.857854E-2	4.014249E-2	3.814808E-2	2.952692E-2	3.591375E-2	3.525330E-2	2.748084E-2	4.607752E-2	4.008905E-2	4.063538E-2	4.687023E-2	2.423380E-2	3.643424E-2	2.395769E-2	2.756426E-2	3.287242E-2	5.191395E-2	3.193759E-2	4.786119E-2	5.351257E-2	3.391568E-2	3.681909E-2	3.733491E-2	4.135273E-2	2.068758E-2	3.927294E-2	3.357175E-2	2.983304E-2	2.703274E-2	4.390728E-2	3.598657E-2	5.177184E-2	3.076727E-2	3.695780E-2	3.312957E-2	3.519350E-2	4.936469E-2	2.362955E-2	3.282921E-2	4.844677E-2	4.432766E-2	4.232791E-2	3.407711E-2	4.290333E-2	4.133398E-2	4.282311E-2	3.622875E-2	3.637011E-2	4.174778E-2	3.766809E-2	3.727707E-2	4.827083E-2	2.924472E-2	3.200377E-2	3.256354E-2	2.119645E-2	3.996627E-2	4.343999E-2	3.116056E-2	2.975352E-2	3.613135E-2	4.612710E-2	3.403223E-2	2.562407E-2	4.380994E-2	4.744945E-2	4.093701E-2	4.313833E-2	3.228396E-2	4.854369E-2	3.477424E-2	4.134406E-2	3.127986E-2	2.783326E-2	3.569146E-2	3.298554E-2	3.562794E-2	2.713947E-2	5.038550E-2	5.078887E-2	2.196268E-2	3.175420E-2	3.743647E-2	5.779670E-2	4.271859E-2
5.337630E+2	4.250243E-2	4.281539E-2	3.042679E-2	5.121360E-2	4.523798E-2	4.059519E-2	3.469806E-2	3.498374E-2	3.879173E-2	5.445630E-2	5.225283E-2	5.600877E-2	5.117525E-2	6.498209E-2	4.719973E-2	4.861060E-2	5.177058E-2	4.612810E-2	3.840542E-2	4.724711E-2	4.999784E-2	3.668005E-2	4.506184E-2	4.746709E-2	5.371738E-2	5.189113E-2	6.047638E-2	4.016017E-2	4.903371E-2	4.865190E-2	3.664339E-2	4.388715E-2	4.210386E-2	5.063754E-2	5.196169E-2	2.636772E-2	4.307923E-2	4.222759E-2	4.035875E-2	3.144163E-2	5.468931E-2	3.962661E-2	5.906522E-2	4.452092E-2	3.747433E-2	3.982623E-2	4.024515E-2	4.221219E-2	5.720002E-2	4.605923E-2	5.541993E-2	4.729472E-2	3.839701E-2	5.113934E-2	4.428809E-2	4.192178E-2	6.289242E-2	5.417024E-2	5.259239E-2	3.074974E-2	5.012376E-2	4.543048E-2	4.592709E-2	3.488506E-2	4.948047E-2	5.008038E-2	3.942809E-2	3.806850E-2	4.915263E-2	4.808008E-2	5.039312E-2	5.279723E-2	5.421411E-2	3.729176E-2	3.036444E-2	4.273108E-2	4.881599E-2	4.879633E-2	4.261605E-2	5.020540E-2	4.217202E-2	4.739127E-2	4.999184E-2	4.910047E-2	3.678124E-2	3.855405E-2	5.069005E-2	5.553803E-2	3.335410E-2	4.497969E-2	4.876928E-2	3.616350E-2	4.080221E-2	3.093089E-2	4.578927E-2	4.701410E-2	3.496205E-2	5.003339E-2	4.240430E-2	3.560450E-2	4.390296E-2	4.655757E-2	4.681070E-2	4.858817E-2	3.924130E-2	4.750587E-2	4.600669E-2	4.123653E-2	3.531530E-2	5.107021E-2	4.278540E-2	3.651217E-2	3.604311E-2	4.276365E-2	4.995371E-2	3.821537E-2	5.303352E-2	4.125732E-2	3.647263E-2	3.757957E-2	4.488959E-2	4.199759E-2	5.192130E-2	3.724482E-2	4.412061E-2	5.252571E-2	4.337091E-2	5.869515E-2	4.662452E-2	4.870033E-2	5.244174E-2	4.086422E-2	3.172361E-2	3.563714E-2	2.933253E-2	3.695270E-2	3.910469E-2	6.147776E-2	5.486601E-2	4.668844E-2	5.321345E-2	4.868624E-2	3.822455E-2	3.722736E-2	3.789448E-2	4.049321E-2	3.205310E-2	4.037122E-2	6.588982E-2	4.133319E-2	4.005297E-2	5.237397E-2	4.639756E-2	4.849274E-2	4.410030E-2	3.291414E-2	4.461637E-2	6.028355E-2	4.080481E-2	6.059520E-2	5.289707E-2	4.575337E-2	4.831534E-2	3.944646E-2	1.969571E-2	4.254941E-2
5.339090E+2	6.145958E-2	7.177741E-2	4.205090E-2	5.739202E-2	5.024256E-2	4.854941E-2	6.459130E-2	7.095420E-2	6.759051E-2	5.762571E-2	5.209630E-2	6.835037E-2	4.671410E-2	6.215813E-2	6.597624E-2	5.389199E-2	6.068553E-2	5.985592E-2	4.136436E-2	6.147789E-2	7.305478E-2	5.042862E-2	5.975785E-2	7.538071E-2	5.243539E-2	6.403863E-2	5.151188E-2	6.425061E-2	5.526890E-2	5.731828E-2	6.127936E-2	5.112142E-2	5.679765E-2	7.180606E-2	6.777638E-2	7.099427E-2	4.547065E-2	5.803825E-2	6.645145E-2	4.724625E-2	5.395549E-2	7.214326E-2	6.202238E-2	7.352088E-2	6.731525E-2	6.053324E-2	5.849417E-2	6.515524E-2	6.242079E-2	6.664477E-2	6.374187E-2	8.050012E-2	5.854244E-2	5.988723E-2	5.296944E-2	7.124787E-2	6.507572E-2	6.761994E-2	7.003996E-2	6.334229E-2	5.217593E-2	6.056346E-2	6.181547E-2	7.310078E-2	6.338485E-2	7.572737E-2	7.417855E-2	5.695213E-2	6.084449E-2	6.557745E-2	5.143354E-2	6.247417E-2	5.652205E-2	3.837072E-2	6.504479E-2	5.752315E-2	5.813922E-2	6.076387E-2	5.817832E-2	6.521511E-2	6.572223E-2	6.314249E-2	6.151308E-2	6.168666E-2	5.356092E-2	6.215984E-2	6.175419E-2	6.843307E-2	5.626728E-2	4.479046E-2	4.984609E-2	6.492068E-2	5.091159E-2	7.278124E-2	7.361162E-2	7.425028E-2	6.702096E-2	5.134680E-2	4.423556E-2	5.505791E-2	6.656328E-2	6.736901E-2	6.234776E-2	7.047052E-2	6.380762E-2	6.137090E-2	7.632489E-2	5.778548E-2	5.779151E-2	4.931112E-2	7.444735E-2	5.652258E-2	5.129924E-2	4.997642E-2	6.871229E-2	6.234642E-2	5.929907E-2	7.123183E-2	3.812329E-2	7.218098E-2	5.762247E-2	4.571351E-2	6.197529E-2	6.862460E-2	5.857082E-2	7.829964E-2	5.349860E-2	6.430436E-2	6.894472E-2	5.564669E-2	8.248666E-2	6.304449E-2	5.228080E-2	6.619422E-2	5.746226E-2	5.325065E-2	6.009349E-2	7.356007E-2	7.656927E-2	5.944465E-2	6.981928E-2	7.196768E-2	6.564276E-2	5.336115E-2	5.723815E-2	6.862401E-2	7.166309E-2	6.681707E-2	4.977233E-2	6.733489E-2	5.011880E-2	5.572671E-2	5.713952E-2	4.975223E-2	6.666121E-2	6.697535E-2	7.325946E-2	6.075389E-2	4.814144E-2	6.847455E-2	6.379173E-2	6.943927E-2	4.021289E-2	5.265593E-2	8.793949E-2	5.962970E-2
5.340640E+2	8.148391E-2	9.037436E-2	1.017496E-1	9.427853E-2	7.394080E-2	8.816362E-2	7.904997E-2	9.463624E-2	7.239191E-2	9.611476E-2	8.273670E-2	8.746009E-2	7.777463E-2	1.015443E-1	1.026882E-1	8.293407E-2	8.941046E-2	9.712956E-2	7.732003E-2	8.605899E-2	7.964799E-2	9.751773E-2	8.058822E-2	7.494100E-2	9.389523E-2	8.890085E-2	8.977421E-2	8.437356E-2	1.106305E-1	8.968174E-2	7.616997E-2	8.884003E-2	8.852078E-2	8.943916E-2	8.918386E-2	8.584943E-2	9.028225E-2	1.038681E-1	8.671959E-2	9.490339E-2	7.152791E-2	8.083457E-2	7.961968E-2	8.228318E-2	8.965291E-2	9.874576E-2	8.780474E-2	8.653066E-2	1.041748E-1	8.038120E-2	9.694143E-2	8.495392E-2	9.177425E-2	9.112002E-2	7.254918E-2	9.607411E-2	8.304583E-2	9.022701E-2	1.095671E-1	9.748417E-2	1.016521E-1	9.896548E-2	7.922806E-2	8.356566E-2	1.053086E-1	8.489227E-2	8.925820E-2	7.546557E-2	7.971905E-2	8.589067E-2	8.289682E-2	1.067305E-1	7.460195E-2	9.009924E-2	9.216969E-2	9.077667E-2	8.748579E-2	8.770943E-2	9.815437E-2	9.002192E-2	7.704750E-2	8.245491E-2	8.011284E-2	7.146225E-2	9.048619E-2	7.894213E-2	8.980074E-2	6.913954E-2	7.317683E-2	9.935320E-2	8.681309E-2	8.314510E-2	9.293654E-2	9.911784E-2	9.864736E-2	8.654221E-2	9.387633E-2	7.423571E-2	7.901219E-2	8.833267E-2	9.465022E-2	9.456128E-2	8.939793E-2	8.541364E-2	8.858232E-2	8.083853E-2	8.994041E-2	7.054526E-2	1.017974E-1	1.051073E-1	8.574139E-2	9.404663E-2	9.695502E-2	7.938197E-2	8.071985E-2	1.015738E-1	8.020474E-2	8.582456E-2	1.052328E-1	8.684545E-2	8.697721E-2	8.563004E-2	8.075494E-2	7.836634E-2	1.083748E-1	8.739491E-2	1.087992E-1	9.193553E-2	7.971416E-2	9.765697E-2	8.394097E-2	9.726512E-2	8.199501E-2	7.404856E-2	7.598578E-2	9.952149E-2	9.646097E-2	9.239227E-2	9.408725E-2	8.939479E-2	9.206179E-2	9.905065E-2	8.681139E-2	9.181654E-2	8.527122E-2	9.375909E-2	9.440214E-2	8.873082E-2	8.388759E-2	1.174831E-1	9.286348E-2	8.188557E-2	6.918986E-2	7.195170E-2	8.829757E-2	7.237878E-2	7.987493E-2	8.689522E-2	6.588441E-2	9.049298E-2	9.688594E-2	9.238751E-2	9.484904E-2	9.541824E-2	9.729725E-2	1.204010E-1
5.342090E+2	1.407383E-1	1.312441E-1	1.260648E-1	1.243247E-1	1.143833E-1	1.340258E-1	1.442786E-1	1.296702E-1	1.285660E-1	1.205356E-1	1.364776E-1	1.402503E-1	1.273460E-1	1.374539E-1	1.472920E-1	1.253024E-1	1.317102E-1	1.422708E-1	1.416624E-1	1.302770E-1	1.256242E-1	1.327354E-1	1.346874E-1	1.207272E-1	1.126354E-1	1.441328E-1	1.321694E-1	1.278074E-1	1.255093E-1	1.429570E-1	1.318051E-1	1.191112E-1	1.489372E-1	1.448588E-1	1.495465E-1	1.207316E-1	1.186664E-1	1.156102E-1	1.327041E-1	1.287318E-1	1.149063E-1	1.159224E-1	1.401724E-1	1.320586E-1	1.322622E-1	1.265405E-1	1.338513E-1	1.478190E-1	1.529977E-1	1.281737E-1	1.316930E-1	1.326797E-1	1.268517E-1	1.300777E-1	1.337661E-1	1.343188E-1	1.497005E-1	1.424849E-1	1.345431E-1	1.426523E-1	1.465053E-1	1.371621E-1	1.193941E-1	1.356381E-1	1.259441E-1	1.389360E-1	1.322946E-1	1.435620E-1	1.417150E-1	1.411458E-1	1.247525E-1	1.407963E-1	1.290208E-1	1.314784E-1	1.253220E-1	1.316149E-1	1.197828E-1	1.427588E-1	1.397734E-1	1.298652E-1	1.186358E-1	1.313491E-1	1.273100E-1	1.095041E-1	1.325371E-1	1.236868E-1	1.338927E-1	1.171268E-1	1.318782E-1	1.347280E-1	1.370995E-1	1.326960E-1	1.153358E-1	1.425479E-1	1.437073E-1	1.262530E-1	1.111044E-1	1.403616E-1	1.200453E-1	1.216439E-1	1.292123E-1	1.342628E-1	1.233888E-1	1.386382E-1	1.389548E-1	1.464122E-1	1.288329E-1	1.652162E-1	1.432738E-1	1.227321E-1	1.238645E-1	1.335012E-1	1.250963E-1	1.406081E-1	1.295894E-1	1.234721E-1	1.363113E-1	1.454734E-1	1.481705E-1	1.109948E-1	1.518402E-1	1.428176E-1	1.401393E-1	1.270562E-1	1.191133E-1	1.455711E-1	1.277260E-1	1.277138E-1	1.467092E-1	1.308487E-1	1.557434E-1	1.264426E-1	1.163275E-1	1.378807E-1	1.449387E-1	1.383808E-1	1.187381E-1	1.442425E-1	1.335317E-1	1.330462E-1	1.270765E-1	1.153768E-1	1.321456E-1	1.340186E-1	1.415378E-1	1.336335E-1	1.368697E-1	1.501266E-1	1.411085E-1	1.267561E-1	1.275342E-1	1.334800E-1	1.174362E-1	1.207413E-1	1.478632E-1	1.414108E-1	1.423329E-1	1.215342E-1	1.341067E-1	1.385434E-1	1.307639E-1	1.175729E-1	1.637441E-1	1.291556E-1	1.326167E-1	1.678806E-1
5.343600E+2	1.863736E-1	2.104353E-1	2.201715E-1	2.137072E-1	2.050886E-1	2.022735E-1	1.940523E-1	2.343515E-1	2.084264E-1	2.109011E-1	2.000140E-1	2.109134E-1	2.042877E-1	2.281688E-1	2.172937E-1	2.083603E-1	2.200092E-1	2.026838E-1	2.119552E-1	2.039180E-1	2.291138E-1	2.226366E-1	2.212891E-1	1.988858E-1	2.172072E-1	2.206576E-1	2.361484E-1	2.084235E-1	2.260874E-1	2.054896E-1	2.126031E-1	2.106031E-1	2.178260E-1	2.064295E-1	2.117813E-1	2.503266E-1	2.186883E-1	2.370573E-1	2.284164E-1	2.028278E-1	2.180837E-1	2.367150E-1	1.836350E-1	2.202691E-1	2.091447E-1	2.153517E-1	2.189234E-1	2.249862E-1	2.225915E-1	2.084477E-1	2.208551E-1	2.047924E-1	2.195691E-1	2.128717E-1	2.296238E-1	2.047472E-1	2.501503E-1	2.385550E-1	2.258617E-1	2.244843E-1	2.357367E-1	2.127299E-1	1.908243E-1	2.062934E-1	2.115579E-1	2.444513E-1	2.182525E-1	2.084956E-1	2.228091E-1	2.253642E-1	2.273385E-1	2.043534E-1	2.133390E-1	2.297981E-1	1.931458E-1	2.068326E-1	1.968600E-1	2.156389E-1	2.274816E-1	2.165571E-1	2.243345E-1	2.275666E-1	2.078890E-1	2.018390E-1	2.155749E-1	2.076890E-1	2.246251E-1	2.191390E-1	2.087625E-1	2.113828E-1	2.270385E-1	2.165347E-1	2.115078E-1	2.468780E-1	1.854664E-1	2.197262E-1	2.380352E-1	2.340232E-1	2.009927E-1	2.309173E-1	2.199482E-1	2.210760E-1	2.386729E-1	2.085739E-1	2.090795E-1	2.321686E-1	2.020533E-1	2.206123E-1	2.136281E-1	2.203619E-1	2.320991E-1	2.290700E-1	2.523868E-1	2.422054E-1	2.329366E-1	2.108635E-1	2.120760E-1	2.347982E-1	2.215184E-1	1.948260E-1	2.150987E-1	2.290906E-1	2.257693E-1	2.073558E-1	2.005297E-1	2.176302E-1	2.328119E-1	2.092738E-1	2.187482E-1	2.352473E-1	2.253853E-1	2.374305E-1	2.050207E-1	2.346655E-1	2.377914E-1	2.126622E-1	2.158125E-1	2.033839E-1	2.268188E-1	2.323222E-1	1.909531E-1	2.287242E-1	2.146504E-1	2.114767E-1	2.171144E-1	2.506938E-1	2.237870E-1	2.013914E-1	2.047144E-1	2.365505E-1	2.291094E-1	2.199523E-1	2.109445E-1	2.327943E-1	2.206268E-1	2.156514E-1	2.209435E-1	2.462632E-1	2.112598E-1	2.143910E-1	2.133051E-1	2.318336E-1	1.963678E-1	2.157604E-1	2.187936E-1	2.706890E-1
5.345110E+2	3.644873E-1	4.086358E-1	3.763070E-1	3.582189E-1	3.847619E-1	3.683387E-1	3.734566E-1	3.917389E-1	3.888181E-1	3.935433E-1	3.587736E-1	4.007454E-1	3.924931E-1	3.598663E-1	3.868605E-1	3.612924E-1	3.817592E-1	4.006906E-1	3.585304E-1	3.778521E-1	3.524459E-1	3.728218E-1	3.504576E-1	4.385860E-1	3.639925E-1	3.964312E-1	3.817217E-1	3.963329E-1	3.957972E-1	3.766794E-1	3.571248E-1	3.684859E-1	3.839736E-1	4.066181E-1	3.993540E-1	3.530078E-1	3.574575E-1	3.918100E-1	3.784755E-1	3.674832E-1	3.945114E-1	3.749043E-1	3.676848E-1	3.867877E-1	3.826540E-1	3.625534E-1	4.045809E-1	3.785678E-1	4.038047E-1	3.848338E-1	3.862833E-1	3.648105E-1	3.469828E-1	3.861815E-1	3.833277E-1	3.948711E-1	3.778153E-1	3.799621E-1	3.650139E-1	3.716721E-1	4.002234E-1	4.072851E-1	3.796962E-1	3.834644E-1	3.652142E-1	4.167778E-1	3.946405E-1	3.854729E-1	4.075796E-1	3.990644E-1	3.694431E-1	3.608103E-1	4.160149E-1	4.288604E-1	3.769153E-1	3.602485E-1	3.853785E-1	4.005681E-1	3.509265E-1	3.830174E-1	3.827117E-1	3.788518E-1	3.884675E-1	3.732009E-1	3.774483E-1	4.006447E-1	3.775708E-1	3.851058E-1	3.780009E-1	3.806516E-1	3.552966E-1	3.979178E-1	3.615041E-1	3.848637E-1	3.651287E-1	3.985346E-1	3.849003E-1	4.161724E-1	3.723696E-1	3.929633E-1	3.984613E-1	4.054395E-1	3.613505E-1	3.776991E-1	3.725057E-1	3.726692E-1	3.526348E-1	4.054353E-1	3.899581E-1	4.084764E-1	3.782245E-1	3.864672E-1	3.687239E-1	3.657853E-1	3.866463E-1	3.883710E-1	3.799270E-1	4.100362E-1	3.544450E-1	3.955580E-1	3.776266E-1	3.748394E-1	3.771294E-1	3.619736E-1	3.897241E-1	4.134944E-1	3.603092E-1	3.992549E-1	3.902795E-1	3.956484E-1	4.080400E-1	3.894296E-1	3.939965E-1	4.194107E-1	3.838123E-1	4.018194E-1	3.730176E-1	3.984917E-1	3.848965E-1	3.855278E-1	3.914730E-1	3.755731E-1	3.753372E-1	3.686657E-1	3.951013E-1	3.886790E-1	3.882416E-1	4.032431E-1	3.577469E-1	3.945991E-1	3.803171E-1	3.779079E-1	3.737885E-1	3.875801E-1	4.000867E-1	4.029547E-1	3.554852E-1	4.089352E-1	3.696598E-1	3.720733E-1	3.925000E-1	3.749854E-1	3.955383E-1	4.345402E-1	3.799487E-1	3.623825E-1
5.346620E+2	6.405213E-1	6.448962E-1	6.234714E-1	6.364435E-1	6.294988E-1	6.233168E-1	6.551032E-1	6.004431E-1	6.097650E-1	6.191396E-1	6.399631E-1	6.360700E-1	6.295905E-1	6.117323E-1	6.495011E-1	6.123410E-1	6.398608E-1	6.118174E-1	6.115737E-1	6.054494E-1	6.303142E-1	6.526975E-1	6.065127E-1	6.411819E-1	6.270020E-1	6.617211E-1	5.991175E-1	6.398951E-1	6.453096E-1	6.445035E-1	6.341935E-1	6.068925E-1	6.178181E-1	6.053330E-1	6.167561E-1	6.126904E-1	6.250215E-1	6.518357E-1	6.398954E-1	6.546198E-1	6.092471E-1	6.335590E-1	6.322682E-1	6.437939E-1	6.520327E-1	6.349999E-1	6.292350E-1	6.264593E-1	6.615510E-1	6.188209E-1	6.234151E-1	6.685681E-1	6.241040E-1	6.237924E-1	6.162439E-1	5.970360E-1	6.245113E-1	6.457276E-1	6.299492E-1	6.471554E-1	6.170440E-1	6.220011E-1	6.344878E-1	6.577210E-1	6.726576E-1	6.306029E-1	6.657575E-1	6.183576E-1	6.246732E-1	6.034992E-1	6.471104E-1	6.123027E-1	6.398512E-1	6.422094E-1	5.930437E-1	5.922649E-1	6.281834E-1	6.428347E-1	6.340062E-1	6.283422E-1	6.257492E-1	6.645105E-1	5.813122E-1	6.122472E-1	5.820147E-1	6.130620E-1	6.407973E-1	6.456895E-1	6.290785E-1	6.535475E-1	6.202576E-1	6.470129E-1	6.490510E-1	6.218460E-1	6.341163E-1	6.227309E-1	6.603403E-1	6.732646E-1	6.325381E-1	6.514696E-1	6.543197E-1	6.309531E-1	6.433290E-1	6.382587E-1	6.035767E-1	6.033814E-1	6.596423E-1	6.483173E-1	6.519675E-1	6.281041E-1	6.359082E-1	6.203524E-1	6.288257E-1	6.538260E-1	6.073598E-1	6.217219E-1	6.144177E-1	6.239242E-1	6.044003E-1	6.493615E-1	6.106806E-1	6.605679E-1	6.503244E-1	6.121420E-1	6.469554E-1	6.416561E-1	6.268479E-1	6.432070E-1	6.234706E-1	6.512308E-1	6.222558E-1	6.339408E-1	6.560604E-1	6.663135E-1	6.218337E-1	6.851773E-1	6.223083E-1	6.674229E-1	6.331270E-1	6.212479E-1	6.310704E-1	6.359199E-1	6.446570E-1	6.290934E-1	6.134978E-1	6.348369E-1	6.230168E-1	6.075707E-1	6.025048E-1	6.439446E-1	6.892797E-1	6.044001E-1	6.453834E-1	6.775478E-1	6.067106E-1	6.528055E-1	5.957096E-1	6.599669E-1	6.596159E-1	6.327113E-1	6.335634E-1	6.610213E-1	6.537387E-1	6.071395E-1	6.864597E-1	6.898493E-1
5.348070E+2	9.617642E-1	9.541233E-1	9.494810E-1	1.000084E+0	9.663387E-1	9.899654E-1	9.753345E-1	1.013861E+0	9.355343E-1	9.810594E-1	9.619265E-1	1.009267E+0	9.777546E-1	1.006609E+0	9.750393E-1	1.001592E+0	9.729344E-1	1.000016E+0	1.026470E+0	9.627904E-1	9.946924E-1	9.709870E-1	8.948037E-1	1.060486E+0	9.528356E-1	1.003566E+0	1.007480E+0	9.752960E-1	9.708497E-1	9.884667E-1	9.879951E-1	9.962004E-1	9.583261E-1	1.006105E+0	9.828451E-1	1.022145E+0	9.750079E-1	9.925540E-1	9.548849E-1	9.765205E-1	9.640977E-1	9.658882E-1	9.373961E-1	9.670161E-1	9.676002E-1	9.448596E-1	9.743215E-1	9.591942E-1	1.016466E+0	1.016190E+0	9.540024E-1	9.625690E-1	9.626567E-1	1.030930E+0	9.685231E-1	9.751479E-1	9.477784E-1	9.783813E-1	9.932818E-1	9.906070E-1	9.841733E-1	9.860002E-1	9.869562E-1	9.864027E-1	1.024618E+0	9.714496E-1	9.876318E-1	9.740843E-1	9.883418E-1	9.926282E-1	1.006077E+0	1.010004E+0	9.528534E-1	9.575142E-1	9.579929E-1	9.344467E-1	9.619168E-1	9.819119E-1	9.563350E-1	9.777872E-1	1.013643E+0	9.830392E-1	9.468661E-1	8.934971E-1	9.942651E-1	9.537377E-1	9.961235E-1	9.815112E-1	9.032764E-1	9.659633E-1	9.686206E-1	9.664154E-1	9.911787E-1	9.560415E-1	9.584251E-1	1.004793E+0	9.561559E-1	9.886394E-1	9.802208E-1	9.604049E-1	1.018901E+0	9.467737E-1	9.624757E-1	1.011599E+0	9.700233E-1	9.660473E-1	9.460468E-1	9.769453E-1	9.428083E-1	1.002472E+0	9.646581E-1	9.794857E-1	9.280727E-1	9.825278E-1	9.535965E-1	9.910307E-1	9.577745E-1	9.610950E-1	9.842263E-1	1.003723E+0	9.341365E-1	1.025415E+0	9.300078E-1	9.187102E-1	9.821164E-1	9.401207E-1	9.536979E-1	9.853123E-1	9.756722E-1	9.863084E-1	9.783032E-1	9.607434E-1	9.728761E-1	1.040314E+0	1.012192E+0	9.826494E-1	1.006609E+0	1.002057E+0	1.003572E+0	9.778142E-1	9.493388E-1	9.590183E-1	9.975508E-1	1.007501E+0	9.831899E-1	1.030579E+0	9.417330E-1	9.719853E-1	9.786697E-1	9.851349E-1	9.863168E-1	9.740173E-1	9.828809E-1	1.019229E+0	9.547713E-1	9.877007E-1	9.991946E-1	9.771558E-1	9.499929E-1	9.930393E-1	9.775762E-1	9.948952E-1	9.854986E-1	9.398331E-1	1.007800E+0	1.011698E+0
5.349580E+2	1.463820E+0	1.432721E+0	1.398518E+0	1.395138E+0	1.350813E+0	1.376137E+0	1.408834E+0	1.421415E+0	1.388082E+0	1.378673E+0	1.422833E+0	1.448446E+0	1.426742E+0	1.424182E+0	1.452606E+0	1.390931E+0	1.397074E+0	1.413786E+0	1.419308E+0	1.461278E+0	1.408977E+0	1.476926E+0	1.372903E+0	1.482627E+0	1.407985E+0	1.415065E+0	1.480201E+0	1.417475E+0	1.370750E+0	1.407082E+0	1.404567E+0	1.419364E+0	1.369965E+0	1.479367E+0	1.396513E+0	1.371108E+0	1.386788E+0	1.451771E+0	1.413250E+0	1.424495E+0	1.442098E+0	1.390077E+0	1.458196E+0	1.418077E+0	1.383211E+0	1.494707E+0	1.392034E+0	1.396628E+0	1.418725E+0	1.417448E+0	1.396028E+0	1.366685E+0	1.436069E+0	1.440172E+0	1.411688E+0	1.423937E+0	1.394208E+0	1.448487E+0	1.412585E+0	1.404360E+0	1.416576E+0	1.387437E+0	1.389330E+0	1.370905E+0	1.410230E+0	1.433336E+0	1.435564E+0	1.359557E+0	1.384532E+0	1.414231E+0	1.414999E+0	1.367175E+0	1.453240E+0	1.450705E+0	1.400678E+0	1.378906E+0	1.386571E+0	1.393443E+0	1.420785E+0	1.434134E+0	1.432670E+0	1.496209E+0	1.360738E+0	1.452778E+0	1.371021E+0	1.401849E+0	1.440824E+0	1.407842E+0	1.387204E+0	1.401204E+0	1.390498E+0	1.421569E+0	1.403995E+0	1.430766E+0	1.436843E+0	1.337990E+0	1.474341E+0	1.391038E+0	1.432712E+0	1.333833E+0	1.371351E+0	1.378079E+0	1.394427E+0	1.442679E+0	1.383499E+0	1.418461E+0	1.370853E+0	1.332574E+0	1.405541E+0	1.443652E+0	1.391906E+0	1.363958E+0	1.383158E+0	1.405963E+0	1.390479E+0	1.351915E+0	1.485951E+0	1.480462E+0	1.390562E+0	1.354130E+0	1.473532E+0	1.360407E+0	1.396404E+0	1.379844E+0	1.395167E+0	1.414232E+0	1.364834E+0	1.403812E+0	1.386724E+0	1.430100E+0	1.398730E+0	1.430374E+0	1.388606E+0	1.448354E+0	1.410155E+0	1.428403E+0	1.338066E+0	1.400531E+0	1.385698E+0	1.431648E+0	1.359838E+0	1.417378E+0	1.316512E+0	1.396041E+0	1.351318E+0	1.417615E+0	1.341105E+0	1.376999E+0	1.376056E+0	1.379125E+0	1.363368E+0	1.401552E+0	1.393700E+0	1.385197E+0	1.349711E+0	1.407193E+0	1.373093E+0	1.393684E+0	1.362126E+0	1.419563E+0	1.399487E+0	1.443231E+0	1.351855E+0	1.355282E+0	1.389521E+0	1.388656E+0
5.351090E+2	1.826604E+0	1.786954E+0	1.776392E+0	1.791509E+0	1.762573E+0	1.801888E+0	1.858843E+0	1.814070E+0	1.795521E+0	1.825659E+0	1.827631E+0	1.786998E+0	1.763257E+0	1.794846E+0	1.824641E+0	1.830863E+0	1.794285E+0	1.861204E+0	1.804947E+0	1.779113E+0	1.757056E+0	1.827772E+0	1.771384E+0	1.844052E+0	1.765977E+0	1.824109E+0	1.802087E+0	1.806739E+0	1.804861E+0	1.805848E+0	1.836150E+0	1.802424E+0	1.791476E+0	1.820429E+0	1.871855E+0	1.769926E+0	1.762557E+0	1.851586E+0	1.849047E+0	1.870399E+0	1.787313E+0	1.757361E+0	1.792525E+0	1.765297E+0	1.767424E+0	1.788609E+0	1.805784E+0	1.778073E+0	1.902845E+0	1.843326E+0	1.811515E+0	1.814699E+0	1.736695E+0	1.809334E+0	1.718046E+0	1.777807E+0	1.808881E+0	1.864257E+0	1.795133E+0	1.833972E+0	1.800856E+0	1.756553E+0	1.772961E+0	1.819630E+0	1.717363E+0	1.782755E+0	1.847118E+0	1.799136E+0	1.710403E+0	1.826512E+0	1.777619E+0	1.815040E+0	1.788376E+0	1.729041E+0	1.807665E+0	1.739471E+0	1.773837E+0	1.853779E+0	1.753811E+0	1.776528E+0	1.729446E+0	1.783622E+0	1.777646E+0	1.722011E+0	1.759528E+0	1.771684E+0	1.762704E+0	1.747880E+0	1.794628E+0	1.794015E+0	1.710697E+0	1.716349E+0	1.800324E+0	1.856576E+0	1.742700E+0	1.797717E+0	1.751559E+0	1.791190E+0	1.775276E+0	1.782303E+0	1.752328E+0	1.746486E+0	1.726754E+0	1.845911E+0	1.782621E+0	1.749456E+0	1.748424E+0	1.796796E+0	1.789712E+0	1.856336E+0	1.778859E+0	1.761347E+0	1.811384E+0	1.786167E+0	1.731464E+0	1.844846E+0	1.793175E+0	1.806662E+0	1.771581E+0	1.785829E+0	1.766075E+0	1.837304E+0	1.785388E+0	1.779675E+0	1.785005E+0	1.767271E+0	1.768114E+0	1.697710E+0	1.760050E+0	1.826954E+0	1.750383E+0	1.733298E+0	1.744412E+0	1.817700E+0	1.812167E+0	1.821114E+0	1.729255E+0	1.776695E+0	1.739889E+0	1.744909E+0	1.759176E+0	1.739142E+0	1.747583E+0	1.799183E+0	1.717317E+0	1.796926E+0	1.723747E+0	1.764703E+0	1.700220E+0	1.762747E+0	1.702293E+0	1.783903E+0	1.783829E+0	1.860093E+0	1.762638E+0	1.746056E+0	1.786231E+0	1.746896E+0	1.666517E+0	1.722707E+0	1.695487E+0	1.770975E+0	1.822672E+0	1.690157E+0	1.795948E+0	1.823250E+0
5.352500E+2	2.059859E+0	2.020443E+0	1.929439E+0	1.948994E+0	1.971236E+0	2.040440E+0	2.162841E+0	2.001959E+0	1.934276E+0	1.969984E+0	2.049273E+0	2.078174E+0	2.022266E+0	1.964130E+0	2.049271E+0	2.013318E+0	2.057471E+0	2.023756E+0	2.013503E+0	2.009111E+0	2.005245E+0	1.988709E+0	2.033891E+0	2.071707E+0	2.000156E+0	2.052610E+0	2.038992E+0	2.113751E+0	2.066848E+0	2.073787E+0	2.048409E+0	2.012393E+0	1.979527E+0	2.078372E+0	2.050829E+0	2.009061E+0	2.022432E+0	2.008532E+0	1.981177E+0	2.039657E+0	1.998562E+0	2.050122E+0	2.002817E+0	2.057031E+0	1.970203E+0	2.038719E+0	2.014476E+0	1.973292E+0	2.108464E+0	2.061401E+0	2.034912E+0	2.101423E+0	1.976019E+0	1.975307E+0	2.031480E+0	1.973598E+0	2.066586E+0	2.013973E+0	1.945286E+0	2.016681E+0	1.995510E+0	2.037291E+0	1.993693E+0	1.984197E+0	1.956069E+0	1.973885E+0	2.101809E+0	1.950659E+0	2.013658E+0	2.053586E+0	1.996396E+0	1.976093E+0	2.021378E+0	2.000663E+0	1.984182E+0	1.969814E+0	2.030054E+0	2.056089E+0	2.004657E+0	1.998585E+0	2.015689E+0	2.039394E+0	1.942679E+0	1.974010E+0	1.948656E+0	2.005980E+0	1.962951E+0	1.990727E+0	2.002324E+0	2.036397E+0	2.027439E+0	2.033675E+0	2.025319E+0	2.021388E+0	1.948126E+0	1.914125E+0	2.011548E+0	2.019869E+0	1.948007E+0	2.002569E+0	1.967293E+0	2.030025E+0	2.009749E+0	2.047302E+0	2.040325E+0	1.951033E+0	1.936489E+0	1.986101E+0	2.019261E+0	2.009996E+0	1.990199E+0	1.986507E+0	1.977424E+0	2.015636E+0	1.949832E+0	1.976654E+0	1.926395E+0	2.033925E+0	1.936261E+0	1.887496E+0	1.949389E+0	2.002071E+0	1.935393E+0	1.992115E+0	2.011267E+0	1.933831E+0	1.997762E+0	1.961893E+0	1.910196E+0	1.986149E+0	1.972465E+0	1.910711E+0	1.972939E+0	1.972876E+0	2.013717E+0	1.990087E+0	1.927815E+0	1.966696E+0	1.897157E+0	1.945412E+0	1.921674E+0	2.030399E+0	1.953850E+0	1.922653E+0	1.935474E+0	1.983823E+0	1.906634E+0	1.927293E+0	1.921654E+0	1.986274E+0	1.913210E+0	1.925134E+0	1.980270E+0	1.975261E+0	1.952657E+0	1.985007E+0	1.964620E+0	1.959901E+0	1.991168E+0	1.927686E+0	1.950511E+0	1.959643E+0	1.922577E+0	1.916942E+0	1.985098E+0	1.982004E+0
5.354110E+2	2.055221E+0	2.083629E+0	2.037800E+0	2.028897E+0	1.983299E+0	2.078097E+0	2.121490E+0	2.092535E+0	1.972107E+0	2.033033E+0	2.137713E+0	2.163983E+0	2.070736E+0	2.006656E+0	2.101567E+0	2.023161E+0	2.073084E+0	2.046458E+0	2.084405E+0	2.034951E+0	2.116447E+0	2.039206E+0	2.135426E+0	2.054254E+0	2.018479E+0	2.108789E+0	2.171231E+0	2.089691E+0	2.099442E+0	2.054200E+0	2.031590E+0	2.053735E+0	2.054506E+0	2.062904E+0	2.018146E+0	2.049562E+0	2.031868E+0	1.970567E+0	2.031576E+0	2.063602E+0	2.050928E+0	2.040144E+0	2.067970E+0	2.104786E+0	1.995829E+0	2.151823E+0	2.097372E+0	2.063231E+0	2.139973E+0	2.041180E+0	2.001965E+0	2.101656E+0	2.008326E+0	2.069929E+0	2.029752E+0	2.142492E+0	2.074917E+0	2.047840E+0	2.025865E+0	2.011168E+0	2.094779E+0	2.046136E+0	1.997320E+0	2.032053E+0	2.085060E+0	2.035698E+0	2.118696E+0	2.061946E+0	2.048138E+0	2.049170E+0	2.018072E+0	2.010037E+0	2.119649E+0	2.084499E+0	2.035705E+0	1.963990E+0	2.078190E+0	2.104209E+0	2.043191E+0	2.075675E+0	2.086684E+0	2.099288E+0	2.038798E+0	1.991992E+0	2.004871E+0	2.004651E+0	2.123049E+0	2.057245E+0	1.974050E+0	2.042998E+0	2.045773E+0	2.010565E+0	2.014228E+0	2.055694E+0	2.012183E+0	1.958918E+0	2.042241E+0	2.054912E+0	2.008766E+0	2.054111E+0	2.067507E+0	2.059709E+0	2.008809E+0	2.075601E+0	2.003425E+0	2.043811E+0	2.027582E+0	2.003623E+0	2.085829E+0	2.037096E+0	2.019628E+0	1.974653E+0	1.999718E+0	2.022142E+0	1.919662E+0	2.048194E+0	2.021540E+0	2.090695E+0	1.996005E+0	2.054597E+0	1.971672E+0	2.031193E+0	1.999180E+0	2.003735E+0	2.013874E+0	2.112430E+0	2.027763E+0	2.057664E+0	2.029477E+0	2.019083E+0	1.936240E+0	2.019930E+0	1.925072E+0	2.075656E+0	2.003618E+0	2.027850E+0	2.012494E+0	2.023111E+0	1.954023E+0	1.929703E+0	1.987271E+0	1.941988E+0	1.957937E+0	2.033120E+0	1.946404E+0	2.025994E+0	1.924627E+0	1.919281E+0	2.017696E+0	2.086638E+0	2.006823E+0	1.963883E+0	2.032660E+0	2.042992E+0	1.880819E+0	2.058850E+0	1.961941E+0	2.000727E+0	1.903705E+0	1.958954E+0	1.970566E+0	2.045847E+0	1.942701E+0	1.973261E+0	2.003353E+0	2.093238E+0
5.355630E+2	1.964895E+0	1.976784E+0	1.934867E+0	1.856403E+0	1.883628E+0	1.916459E+0	1.969672E+0	1.905528E+0	1.902881E+0	1.993467E+0	1.905216E+0	1.934360E+0	1.931387E+0	1.891794E+0	1.891369E+0	1.916658E+0	1.938010E+0	1.953842E+0	1.991232E+0	1.868420E+0	1.931722E+0	1.890952E+0	1.921162E+0	2.012037E+0	1.900435E+0	1.922357E+0	2.003472E+0	1.921640E+0	1.991180E+0	1.938835E+0	1.927606E+0	1.958546E+0	1.900396E+0	1.907446E+0	1.916294E+0	1.872738E+0	1.883084E+0	1.868500E+0	1.938509E+0	1.941479E+0	1.884991E+0	1.891308E+0	1.882794E+0	1.935386E+0	1.934906E+0	1.915069E+0	1.924354E+0	1.914850E+0	1.908940E+0	1.912012E+0	1.975234E+0	1.949381E+0	1.911809E+0	1.902134E+0	1.894956E+0	1.958870E+0	1.908192E+0	1.906474E+0	1.942000E+0	1.948211E+0	1.873327E+0	1.903536E+0	1.848604E+0	1.873558E+0	1.901641E+0	1.817607E+0	1.984595E+0	1.853353E+0	1.864665E+0	1.895468E+0	1.964119E+0	1.851467E+0	1.866237E+0	1.943778E+0	1.877681E+0	1.865472E+0	1.943243E+0	1.878855E+0	1.864876E+0	1.854544E+0	1.951170E+0	1.913391E+0	1.859772E+0	1.851543E+0	1.852631E+0	1.888465E+0	1.851359E+0	1.898732E+0	1.891904E+0	1.950285E+0	1.897810E+0	1.842649E+0	1.928289E+0	1.904409E+0	1.843812E+0	1.929829E+0	1.874077E+0	1.872049E+0	1.880001E+0	1.889153E+0	1.878689E+0	1.894728E+0	1.866005E+0	1.930243E+0	1.899816E+0	1.946512E+0	1.816981E+0	1.871335E+0	1.887335E+0	1.934712E+0	1.863946E+0	1.883403E+0	1.828858E+0	1.940176E+0	1.888914E+0	1.967483E+0	1.898317E+0	1.892711E+0	1.911977E+0	1.880929E+0	1.917549E+0	1.921623E+0	1.894117E+0	1.865524E+0	1.867945E+0	1.912964E+0	1.826305E+0	1.779620E+0	1.878710E+0	1.982690E+0	1.837427E+0	1.884093E+0	1.844046E+0	1.897036E+0	1.886978E+0	1.889629E+0	1.869936E+0	1.945256E+0	1.829285E+0	1.866936E+0	1.860795E+0	1.920873E+0	1.826742E+0	1.907130E+0	1.852906E+0	1.920803E+0	1.790190E+0	1.816591E+0	1.807140E+0	1.939037E+0	1.815913E+0	1.868677E+0	1.907982E+0	1.855590E+0	1.848883E+0	1.863017E+0	1.851052E+0	1.882706E+0	1.869587E+0	1.835406E+0	1.847820E+0	1.811976E+0	1.828216E+0	1.905115E+0	1.956063E+0	2.052583E+0
5.357040E+2	1.722794E+0	1.744139E+0	1.745944E+0	1.724083E+0	1.663057E+0	1.710802E+0	1.747961E+0	1.721608E+0	1.701430E+0	1.764231E+0	1.685345E+0	1.776162E+0	1.662422E+0	1.646351E+0	1.735424E+0	1.687947E+0	1.653947E+0	1.729978E+0	1.722814E+0	1.646228E+0	1.719480E+0	1.720692E+0	1.739087E+0	1.789295E+0	1.675158E+0	1.743985E+0	1.728954E+0	1.789331E+0	1.681273E+0	1.766493E+0	1.749084E+0	1.812028E+0	1.716996E+0	1.732784E+0	1.714528E+0	1.714690E+0	1.659074E+0	1.698035E+0	1.779717E+0	1.785862E+0	1.681694E+0	1.663961E+0	1.763474E+0	1.663643E+0	1.656946E+0	1.726859E+0	1.669305E+0	1.716584E+0	1.790363E+0	1.673382E+0	1.676428E+0	1.746050E+0	1.727116E+0	1.650004E+0	1.641971E+0	1.766411E+0	1.718029E+0	1.740314E+0	1.711841E+0	1.702690E+0	1.721145E+0	1.689411E+0	1.644124E+0	1.656549E+0	1.637116E+0	1.740056E+0	1.738691E+0	1.666174E+0	1.668027E+0	1.769345E+0	1.727865E+0	1.701984E+0	1.736091E+0	1.731748E+0	1.674493E+0	1.702272E+0	1.708493E+0	1.692031E+0	1.674459E+0	1.705171E+0	1.711292E+0	1.715387E+0	1.679177E+0	1.701202E+0	1.657037E+0	1.662785E+0	1.715854E+0	1.738520E+0	1.654395E+0	1.664339E+0	1.663679E+0	1.657305E+0	1.701831E+0	1.672828E+0	1.677241E+0	1.714375E+0	1.692551E+0	1.672025E+0	1.723495E+0	1.685775E+0	1.737866E+0	1.694041E+0	1.689144E+0	1.779975E+0	1.699910E+0	1.656783E+0	1.632877E+0	1.669760E+0	1.650048E+0	1.693703E+0	1.672065E+0	1.699840E+0	1.694675E+0	1.665687E+0	1.692414E+0	1.706285E+0	1.671505E+0	1.678737E+0	1.699067E+0	1.669040E+0	1.679502E+0	1.717723E+0	1.694416E+0	1.685772E+0	1.712586E+0	1.677341E+0	1.662560E+0	1.683140E+0	1.727817E+0	1.782429E+0	1.697771E+0	1.663128E+0	1.639880E+0	1.760173E+0	1.730673E+0	1.682159E+0	1.633017E+0	1.733351E+0	1.707991E+0	1.655433E+0	1.730322E+0	1.731616E+0	1.669620E+0	1.679768E+0	1.675112E+0	1.764527E+0	1.619647E+0	1.701189E+0	1.644022E+0	1.738709E+0	1.661615E+0	1.584207E+0	1.745383E+0	1.684141E+0	1.703128E+0	1.694114E+0	1.666284E+0	1.630438E+0	1.628791E+0	1.644947E+0	1.717443E+0	1.640861E+0	1.690704E+0	1.627224E+0	1.645662E+0	1.657875E+0
5.358600E+2	1.498717E+0	1.500050E+0	1.408418E+0	1.489638E+0	1.466405E+0	1.467980E+0	1.466647E+0	1.488849E+0	1.490719E+0	1.529628E+0	1.452860E+0	1.543977E+0	1.508573E+0	1.458010E+0	1.511837E+0	1.535556E+0	1.504979E+0	1.468488E+0	1.458965E+0	1.470571E+0	1.456879E+0	1.455453E+0	1.507754E+0	1.529370E+0	1.454580E+0	1.449169E+0	1.497296E+0	1.552561E+0	1.449631E+0	1.519760E+0	1.465695E+0	1.489390E+0	1.487079E+0	1.495116E+0	1.465983E+0	1.474488E+0	1.499949E+0	1.413003E+0	1.507666E+0	1.475913E+0	1.498947E+0	1.497939E+0	1.499402E+0	1.498032E+0	1.440911E+0	1.501993E+0	1.458998E+0	1.448896E+0	1.485870E+0	1.497010E+0	1.492060E+0	1.445845E+0	1.492568E+0	1.412835E+0	1.489457E+0	1.524461E+0	1.538403E+0	1.465736E+0	1.461314E+0	1.440547E+0	1.498969E+0	1.470565E+0	1.461120E+0	1.464911E+0	1.508914E+0	1.511066E+0	1.586022E+0	1.487332E+0	1.483418E+0	1.449876E+0	1.516150E+0	1.467632E+0	1.466691E+0	1.489118E+0	1.472026E+0	1.459786E+0	1.531846E+0	1.495765E+0	1.450937E+0	1.418995E+0	1.481952E+0	1.466191E+0	1.470850E+0	1.522863E+0	1.474959E+0	1.432227E+0	1.438244E+0	1.450083E+0	1.471620E+0	1.483071E+0	1.451905E+0	1.484704E+0	1.457293E+0	1.502870E+0	1.450048E+0	1.442757E+0	1.457464E+0	1.450543E+0	1.434268E+0	1.422346E+0	1.528595E+0	1.459827E+0	1.539631E+0	1.435089E+0	1.445641E+0	1.457292E+0	1.411675E+0	1.482771E+0	1.476732E+0	1.502091E+0	1.465489E+0	1.429734E+0	1.434465E+0	1.472050E+0	1.487516E+0	1.474853E+0	1.449082E+0	1.469327E+0	1.488259E+0	1.480069E+0	1.475114E+0	1.486786E+0	1.460714E+0	1.434773E+0	1.461777E+0	1.465585E+0	1.509338E+0	1.454894E+0	1.458055E+0	1.480527E+0	1.454792E+0	1.459520E+0	1.449888E+0	1.493907E+0	1.515227E+0	1.475090E+0	1.473769E+0	1.529263E+0	1.477139E+0	1.435849E+0	1.445506E+0	1.432310E+0	1.417675E+0	1.471715E+0	1.492193E+0	1.479397E+0	1.478767E+0	1.443801E+0	1.474066E+0	1.522437E+0	1.455908E+0	1.459710E+0	1.482747E+0	1.459018E+0	1.407467E+0	1.463473E+0	1.442528E+0	1.439557E+0	1.441548E+0	1.413090E+0	1.430144E+0	1.454392E+0	1.470046E+0	1.418246E+0	1.455843E+0	1.436747E+0
5.360070E+2	1.245484E+0	1.235834E+0	1.187395E+0	1.263097E+0	1.203244E+0	1.334384E+0	1.307807E+0	1.243474E+0	1.211610E+0	1.280750E+0	1.209474E+0	1.276270E+0	1.257973E+0	1.261992E+0	1.278176E+0	1.278225E+0	1.224552E+0	1.243001E+0	1.286044E+0	1.241629E+0	1.237753E+0	1.195468E+0	1.325259E+0	1.288102E+0	1.209199E+0	1.308879E+0	1.254711E+0	1.276977E+0	1.235986E+0	1.273012E+0	1.261194E+0	1.246632E+0	1.273495E+0	1.256181E+0	1.230206E+0	1.263859E+0	1.229154E+0	1.269893E+0	1.260364E+0	1.259409E+0	1.207345E+0	1.273718E+0	1.286396E+0	1.261361E+0	1.219577E+0	1.291437E+0	1.272122E+0	1.190847E+0	1.253034E+0	1.256437E+0	1.235554E+0	1.209325E+0	1.227130E+0	1.245660E+0	1.276782E+0	1.280424E+0	1.206475E+0	1.291899E+0	1.235878E+0	1.301241E+0	1.237809E+0	1.222969E+0	1.226318E+0	1.179640E+0	1.223217E+0	1.313199E+0	1.317919E+0	1.240613E+0	1.249122E+0	1.284696E+0	1.261894E+0	1.288784E+0	1.285652E+0	1.290677E+0	1.317535E+0	1.225392E+0	1.266750E+0	1.313603E+0	1.170246E+0	1.220226E+0	1.324749E+0	1.257492E+0	1.248375E+0	1.237455E+0	1.235490E+0	1.198269E+0	1.263315E+0	1.242878E+0	1.258296E+0	1.273709E+0	1.301222E+0	1.227312E+0	1.289824E+0	1.291979E+0	1.239784E+0	1.197991E+0	1.246603E+0	1.263706E+0	1.179431E+0	1.232631E+0	1.296566E+0	1.197418E+0	1.205110E+0	1.294120E+0	1.237046E+0	1.221435E+0	1.324131E+0	1.268256E+0	1.269786E+0	1.237200E+0	1.205332E+0	1.270870E+0	1.317575E+0	1.282426E+0	1.196363E+0	1.251735E+0	1.314781E+0	1.255948E+0	1.223512E+0	1.215983E+0	1.277856E+0	1.218225E+0	1.242466E+0	1.217944E+0	1.271177E+0	1.225737E+0	1.259533E+0	1.211257E+0	1.207861E+0	1.276246E+0	1.257426E+0	1.214945E+0	1.251914E+0	1.255575E+0	1.325645E+0	1.241065E+0	1.191447E+0	1.273734E+0	1.236422E+0	1.213277E+0	1.223095E+0	1.268537E+0	1.250828E+0	1.306980E+0	1.263607E+0	1.182065E+0	1.264658E+0	1.231267E+0	1.262883E+0	1.262354E+0	1.281971E+0	1.206898E+0	1.262878E+0	1.200656E+0	1.191394E+0	1.276861E+0	1.283336E+0	1.237103E+0	1.272066E+0	1.242526E+0	1.295410E+0	1.245069E+0	1.240537E+0	1.266732E+0	1.236351E+0	1.288019E+0
5.362630E+2	9.616812E-1	9.704075E-1	8.846913E-1	9.003553E-1	9.451555E-1	9.687916E-1	9.244172E-1	9.495954E-1	9.119726E-1	9.670857E-1	8.874900E-1	9.444739E-1	9.449560E-1	9.614912E-1	9.800838E-1	9.111619E-1	9.947427E-1	9.598264E-1	9.086914E-1	9.436379E-1	9.317427E-1	8.993338E-1	9.562883E-1	9.657171E-1	9.333359E-1	9.021859E-1	9.374188E-1	9.100952E-1	9.057967E-1	9.561847E-1	9.678894E-1	9.337587E-1	9.228334E-1	9.650299E-1	9.299431E-1	9.134876E-1	9.252758E-1	9.340792E-1	9.168751E-1	9.416034E-1	9.594422E-1	9.067805E-1	9.372265E-1	9.462607E-1	9.070183E-1	9.589008E-1	9.550310E-1	9.226164E-1	9.800379E-1	9.082681E-1	9.449144E-1	9.669670E-1	9.268091E-1	9.634551E-1	9.484321E-1	9.509984E-1	9.348229E-1	9.327712E-1	9.428161E-1	9.695175E-1	9.443845E-1	9.740519E-1	9.154569E-1	9.278941E-1	8.999704E-1	9.074767E-1	9.648920E-1	9.307047E-1	9.263331E-1	9.345304E-1	9.528986E-1	9.626106E-1	9.566883E-1	9.591376E-1	8.626749E-1	9.676650E-1	9.119547E-1	9.671416E-1	9.358295E-1	8.990125E-1	9.815656E-1	9.724019E-1	9.301586E-1	9.021011E-1	9.224166E-1	9.323821E-1	9.432109E-1	1.001351E+0	9.847135E-1	9.527721E-1	9.328156E-1	9.606413E-1	9.361360E-1	9.227331E-1	9.127120E-1	9.497988E-1	9.374017E-1	8.894529E-1	9.378152E-1	9.235932E-1	9.051315E-1	9.393876E-1	9.762096E-1	9.596676E-1	1.001543E+0	9.127260E-1	9.162727E-1	9.331918E-1	1.033566E+0	9.353290E-1	9.576545E-1	9.623634E-1	9.693403E-1	9.524678E-1	9.257459E-1	1.002518E+0	9.558147E-1	9.267580E-1	9.267034E-1	9.840468E-1	9.418829E-1	9.168661E-1	9.774556E-1	9.482019E-1	9.697016E-1	9.627613E-1	9.218089E-1	9.355578E-1	9.612325E-1	9.839833E-1	9.239507E-1	9.693940E-1	9.374508E-1	9.798136E-1	9.668317E-1	9.239040E-1	9.735138E-1	9.276627E-1	9.086712E-1	9.200899E-1	9.217291E-1	9.170341E-1	9.501566E-1	9.656725E-1	9.368735E-1	9.757907E-1	9.312716E-1	9.029419E-1	9.596472E-1	9.213443E-1	9.222342E-1	9.571429E-1	9.313625E-1	9.307811E-1	9.921180E-1	9.957590E-1	9.668619E-1	9.697026E-1	9.637885E-1	9.514252E-1	9.268248E-1	9.302147E-1	9.251531E-1	9.300061E-1	9.700347E-1	9.780940E-1
5.365090E+2	7.449726E-1	7.749763E-1	6.975649E-1	6.792655E-1	6.714089E-1	6.821945E-1	6.693981E-1	6.998965E-1	6.781788E-1	7.462251E-1	7.382575E-1	7.583433E-1	6.854279E-1	6.961514E-1	7.151831E-1	6.815176E-1	7.094506E-1	7.204703E-1	7.220999E-1	7.274997E-1	6.841115E-1	6.906558E-1	7.185537E-1	7.447771E-1	7.184132E-1	7.442058E-1	7.316655E-1	7.482600E-1	7.154778E-1	7.092252E-1	7.334672E-1	7.083744E-1	6.939075E-1	7.216327E-1	7.287091E-1	6.827848E-1	7.641379E-1	7.339932E-1	7.458229E-1	7.144265E-1	7.201070E-1	7.175683E-1	7.122356E-1	7.135267E-1	7.169721E-1	7.388186E-1	7.114521E-1	7.034964E-1	7.459541E-1	6.820385E-1	7.349731E-1	7.207903E-1	7.226090E-1	6.662090E-1	7.510984E-1	6.860349E-1	7.716337E-1	6.909295E-1	7.320083E-1	6.885949E-1	7.523715E-1	7.332986E-1	6.998998E-1	7.242549E-1	6.861498E-1	7.006396E-1	7.541726E-1	7.276911E-1	7.015911E-1	7.343066E-1	7.485471E-1	6.971939E-1	7.523437E-1	7.546669E-1	7.168500E-1	6.896033E-1	7.177045E-1	7.545220E-1	7.298827E-1	7.270071E-1	7.552315E-1	7.062978E-1	7.220317E-1	7.341734E-1	7.313996E-1	7.168859E-1	7.140481E-1	7.367338E-1	7.333622E-1	7.461679E-1	7.251007E-1	7.521045E-1	7.508217E-1	7.140533E-1	7.097714E-1	7.380803E-1	7.494187E-1	7.105472E-1	6.882776E-1	7.475988E-1	7.027140E-1	7.238100E-1	7.378715E-1	7.104568E-1	7.377397E-1	6.855494E-1	7.587722E-1	7.284583E-1	7.219231E-1	7.175137E-1	7.223163E-1	7.203020E-1	7.157130E-1	7.618383E-1	7.150622E-1	7.382753E-1	7.488837E-1	7.485120E-1	7.294330E-1	7.162324E-1	7.572122E-1	7.401104E-1	7.337325E-1	7.256236E-1	6.724088E-1	7.427538E-1	6.993999E-1	7.113443E-1	7.060789E-1	7.009516E-1	6.721069E-1	6.981429E-1	7.204630E-1	7.685942E-1	7.585811E-1	7.489236E-1	6.938960E-1	7.011338E-1	7.036057E-1	7.912207E-1	7.237418E-1	7.233317E-1	6.922212E-1	7.371512E-1	7.330680E-1	7.678918E-1	7.253825E-1	7.313915E-1	7.218274E-1	7.582202E-1	7.567796E-1	7.707979E-1	7.459590E-1	7.320276E-1	7.411550E-1	7.973207E-1	7.790310E-1	7.386274E-1	7.308777E-1	7.320879E-1	7.491795E-1	7.451182E-1	7.473465E-1	7.244998E-1	7.192417E-1	7.397271E-1
5.367760E+2	5.757966E-1	5.976183E-1	5.903309E-1	5.999675E-1	5.544085E-1	6.033387E-1	6.221376E-1	5.772425E-1	5.663247E-1	6.147698E-1	5.903406E-1	5.843861E-1	5.754218E-1	5.815336E-1	5.798120E-1	6.113681E-1	5.547101E-1	5.548156E-1	5.917202E-1	5.937523E-1	5.780840E-1	5.614858E-1	6.089531E-1	5.982504E-1	5.831376E-1	5.990797E-1	6.216296E-1	5.821450E-1	6.095616E-1	5.688047E-1	6.234287E-1	5.792878E-1	5.642911E-1	6.480485E-1	5.934777E-1	5.790762E-1	5.357902E-1	6.066969E-1	5.702024E-1	5.878554E-1	5.775182E-1	5.874372E-1	6.136870E-1	5.778521E-1	5.827878E-1	6.440985E-1	6.138578E-1	5.692991E-1	5.990183E-1	5.772940E-1	5.785012E-1	6.392115E-1	5.795947E-1	5.896882E-1	6.185711E-1	5.985640E-1	5.752155E-1	5.663075E-1	5.855080E-1	6.289222E-1	6.103820E-1	5.842612E-1	5.836689E-1	5.861327E-1	5.873887E-1	5.773331E-1	6.151112E-1	5.699912E-1	5.518291E-1	5.872884E-1	6.338085E-1	5.808111E-1	5.970466E-1	5.967389E-1	5.764023E-1	5.921821E-1	5.864220E-1	6.079326E-1	5.587058E-1	5.723783E-1	5.739721E-1	6.291951E-1	5.912646E-1	5.864015E-1	5.627108E-1	5.763464E-1	5.991106E-1	5.976864E-1	6.037872E-1	5.703595E-1	6.045394E-1	5.730164E-1	6.173731E-1	5.854558E-1	6.172784E-1	5.596187E-1	5.850295E-1	5.680217E-1	5.893992E-1	5.635597E-1	6.005157E-1	6.072813E-1	6.137213E-1	5.764363E-1	5.998122E-1	5.824058E-1	5.965759E-1	5.508180E-1	6.335048E-1	5.999707E-1	6.525525E-1	6.041580E-1	6.278225E-1	6.232771E-1	5.944090E-1	5.835375E-1	5.957551E-1	5.661904E-1	5.981890E-1	5.967538E-1	5.886667E-1	5.985130E-1	5.869888E-1	6.456963E-1	5.997179E-1	6.133712E-1	5.934723E-1	5.664703E-1	5.798273E-1	5.844385E-1	6.193521E-1	5.473246E-1	5.974777E-1	5.884645E-1	6.346493E-1	6.039534E-1	5.942449E-1	6.187135E-1	5.999278E-1	6.075636E-1	6.045111E-1	6.155871E-1	5.937280E-1	5.864134E-1	5.981923E-1	5.762288E-1	6.117937E-1	5.917987E-1	5.906160E-1	6.027191E-1	5.826176E-1	5.731589E-1	6.445959E-1	5.923255E-1	5.797157E-1	6.009500E-1	5.869488E-1	5.954604E-1	5.910432E-1	5.596219E-1	6.356214E-1	6.213910E-1	5.812630E-1	5.318572E-1	5.896901E-1	6.191597E-1
5.370230E+2	4.940609E-1	5.475334E-1	5.139260E-1	5.209450E-1	5.337215E-1	5.126879E-1	5.381547E-1	5.185857E-1	4.967027E-1	5.195885E-1	5.459297E-1	5.058032E-1	5.325201E-1	5.182752E-1	5.421453E-1	5.198311E-1	5.020659E-1	4.952054E-1	4.979650E-1	5.277295E-1	5.166356E-1	5.265152E-1	5.085343E-1	5.352840E-1	4.912457E-1	5.317713E-1	5.298883E-1	5.165018E-1	5.309306E-1	5.354884E-1	5.106465E-1	5.146912E-1	4.827537E-1	5.249790E-1	4.719054E-1	5.389435E-1	5.163591E-1	4.880009E-1	5.339394E-1	5.148260E-1	5.242841E-1	5.426624E-1	4.935766E-1	5.115853E-1	5.581420E-1	5.532186E-1	5.260495E-1	5.142110E-1	5.315473E-1	5.349495E-1	5.499094E-1	5.129391E-1	4.943435E-1	5.269981E-1	5.201165E-1	5.575382E-1	4.868396E-1	5.243062E-1	5.316489E-1	5.273665E-1	5.201702E-1	5.439883E-1	5.064827E-1	5.060755E-1	5.447927E-1	5.238610E-1	5.442957E-1	5.058868E-1	5.066490E-1	5.364386E-1	5.400750E-1	5.136764E-1	5.407949E-1	5.145990E-1	5.521368E-1	5.042273E-1	5.301846E-1	5.482372E-1	5.372338E-1	5.320203E-1	5.297400E-1	5.384640E-1	5.076796E-1	5.427618E-1	5.149692E-1	5.292937E-1	5.496212E-1	5.388668E-1	5.224748E-1	5.141614E-1	5.239179E-1	5.371546E-1	5.232430E-1	5.526366E-1	5.034861E-1	4.988770E-1	5.289462E-1	5.213603E-1	5.462146E-1	5.144624E-1	5.658062E-1	5.368819E-1	5.096587E-1	5.421911E-1	5.340269E-1	4.915637E-1	5.152429E-1	4.980459E-1	5.003955E-1	5.169466E-1	5.180437E-1	5.057382E-1	5.495157E-1	5.404710E-1	5.059120E-1	5.161665E-1	5.384948E-1	5.282589E-1	5.269099E-1	5.186742E-1	4.872219E-1	5.358379E-1	5.419434E-1	5.339118E-1	5.089916E-1	5.263967E-1	5.018171E-1	5.271030E-1	5.040408E-1	5.151251E-1	5.467638E-1	5.243355E-1	5.221152E-1	5.197569E-1	5.202245E-1	5.278985E-1	5.310582E-1	5.134205E-1	5.196751E-1	4.975249E-1	5.500278E-1	5.269958E-1	5.016701E-1	5.219561E-1	5.811301E-1	5.556109E-1	5.267729E-1	4.925990E-1	5.112443E-1	5.485521E-1	5.120359E-1	5.340069E-1	5.399059E-1	4.929102E-1	4.900214E-1	5.632489E-1	4.973887E-1	5.080476E-1	5.161044E-1	5.113075E-1	5.250734E-1	5.158783E-1	5.485139E-1	4.705473E-1	5.513025E-1	4.765242E-1
5.372640E+2	4.757801E-1	5.254215E-1	4.730948E-1	4.756310E-1	5.090567E-1	5.048841E-1	5.270682E-1	4.782376E-1	4.467849E-1	5.021207E-1	4.760577E-1	5.040903E-1	5.029337E-1	5.194116E-1	4.839134E-1	5.054355E-1	5.165491E-1	4.935068E-1	4.985458E-1	5.482527E-1	4.995639E-1	4.957437E-1	4.826206E-1	5.033327E-1	4.960828E-1	5.245913E-1	4.902631E-1	4.871905E-1	4.972625E-1	4.714670E-1	4.887720E-1	5.185601E-1	4.928029E-1	4.996646E-1	4.863607E-1	5.227337E-1	4.879222E-1	5.048249E-1	5.111585E-1	4.862138E-1	4.772844E-1	5.013573E-1	5.053831E-1	5.270079E-1	4.669418E-1	4.977554E-1	4.875243E-1	4.928807E-1	5.078270E-1	4.991063E-1	4.796163E-1	4.977825E-1	4.803461E-1	5.103033E-1	4.721836E-1	4.997597E-1	5.150056E-1	4.936503E-1	5.290598E-1	5.201637E-1	4.989307E-1	5.234072E-1	4.833053E-1	4.905517E-1	5.099976E-1	5.135203E-1	4.757983E-1	4.782971E-1	4.991468E-1	4.776670E-1	4.977018E-1	4.718367E-1	5.084095E-1	4.813363E-1	4.906423E-1	5.109634E-1	5.185437E-1	5.034697E-1	5.110808E-1	4.831403E-1	5.253365E-1	5.038851E-1	4.727390E-1	4.810650E-1	5.107777E-1	4.811138E-1	5.127737E-1	4.727732E-1	5.178223E-1	5.106593E-1	5.060818E-1	5.040724E-1	4.897440E-1	4.893103E-1	4.564725E-1	4.803202E-1	5.110804E-1	4.905405E-1	4.920053E-1	5.036335E-1	4.741994E-1	5.050885E-1	4.932456E-1	5.519209E-1	4.946753E-1	5.245122E-1	4.938585E-1	5.143241E-1	5.143074E-1	4.816320E-1	4.747699E-1	4.914377E-1	5.195865E-1	4.766667E-1	4.773623E-1	5.095986E-1	5.034596E-1	4.901249E-1	5.065659E-1	5.087383E-1	5.374237E-1	5.184605E-1	5.157552E-1	4.818834E-1	5.521327E-1	5.014170E-1	5.261463E-1	4.970227E-1	5.105990E-1	4.882427E-1	5.120768E-1	5.194086E-1	5.177236E-1	5.073982E-1	5.339914E-1	5.000230E-1	4.785669E-1	5.186671E-1	4.912871E-1	4.898332E-1	5.038994E-1	5.260107E-1	4.887352E-1	5.004253E-1	4.994106E-1	5.134670E-1	5.149986E-1	4.777482E-1	5.383726E-1	4.877251E-1	5.124417E-1	4.737138E-1	5.067286E-1	4.982764E-1	5.307068E-1	5.210111E-1	4.669543E-1	5.045617E-1	5.066940E-1	5.025227E-1	5.046023E-1	5.096321E-1	5.074679E-1	4.997671E-1	5.024460E-1	5.029017E-1
5.375060E+2	5.443684E-1	5.336992E-1	5.446848E-1	5.365663E-1	5.368413E-1	5.035168E-1	5.211896E-1	5.268581E-1	5.135172E-1	5.307105E-1	5.179439E-1	5.832867E-1	5.420317E-1	5.162592E-1	5.049196E-1	5.311905E-1	5.476224E-1	5.412615E-1	5.346746E-1	5.115541E-1	5.456153E-1	5.401062E-1	4.989270E-1	5.109153E-1	5.198952E-1	5.741522E-1	5.362516E-1	5.248511E-1	5.368179E-1	5.504792E-1	5.409583E-1	5.413542E-1	5.301361E-1	5.689807E-1	4.999073E-1	5.323507E-1	5.206815E-1	5.125304E-1	5.213985E-1	5.531668E-1	5.181946E-1	5.442351E-1	5.722204E-1	5.189497E-1	5.790739E-1	5.454468E-1	5.212431E-1	5.329465E-1	5.750354E-1	5.075620E-1	5.167325E-1	5.469724E-1	5.466487E-1	5.229087E-1	5.314910E-1	5.432202E-1	5.437459E-1	5.294027E-1	5.383405E-1	5.011019E-1	5.307444E-1	5.216903E-1	5.062480E-1	5.493417E-1	5.322725E-1	5.553969E-1	5.777605E-1	5.694808E-1	5.237408E-1	5.368662E-1	5.261402E-1	5.201038E-1	5.579671E-1	5.222782E-1	5.266875E-1	4.952402E-1	5.626345E-1	5.475078E-1	5.432839E-1	5.051856E-1	5.540841E-1	5.567484E-1	5.322560E-1	5.365345E-1	4.836793E-1	5.181029E-1	5.670888E-1	5.215906E-1	5.222425E-1	5.453257E-1	5.415959E-1	5.529347E-1	5.504389E-1	5.283117E-1	5.404284E-1	5.086206E-1	5.736593E-1	5.215368E-1	5.034671E-1	5.494064E-1	5.123313E-1	5.315264E-1	5.252617E-1	5.382117E-1	5.207326E-1	5.230491E-1	5.423941E-1	5.320171E-1	5.284229E-1	5.326521E-1	5.309027E-1	5.646926E-1	5.059841E-1	5.174399E-1	5.442708E-1	5.489286E-1	5.450755E-1	5.191327E-1	5.095213E-1	5.371550E-1	4.979074E-1	5.521999E-1	5.673678E-1	5.151166E-1	5.653435E-1	5.404540E-1	5.642424E-1	5.483914E-1	5.414004E-1	5.789144E-1	5.561792E-1	5.475322E-1	5.256518E-1	5.924802E-1	5.622813E-1	5.507507E-1	5.122210E-1	5.280953E-1	5.100944E-1	5.496169E-1	5.751291E-1	5.602260E-1	5.481661E-1	5.269673E-1	5.583798E-1	5.488608E-1	5.303400E-1	5.409181E-1	5.163914E-1	5.335616E-1	4.861437E-1	5.538578E-1	5.330757E-1	5.321866E-1	5.289530E-1	5.354275E-1	5.240754E-1	5.590994E-1	5.025716E-1	5.288964E-1	5.970965E-1	5.806122E-1	5.484558E-1	5.240571E-1	5.663535E-1	6.082879E-1
5.377690E+2	6.030930E-1	6.367470E-1	5.739724E-1	5.939850E-1	5.979795E-1	5.945523E-1	5.875211E-1	5.747361E-1	5.623676E-1	6.141927E-1	5.944740E-1	6.204418E-1	6.078730E-1	6.118065E-1	5.862532E-1	5.948465E-1	6.417255E-1	6.123087E-1	5.829674E-1	6.357754E-1	6.014118E-1	5.799175E-1	6.005539E-1	6.167994E-1	5.736446E-1	5.916561E-1	5.729214E-1	5.850152E-1	5.737397E-1	5.629216E-1	6.049618E-1	6.251519E-1	6.009269E-1	6.465841E-1	5.938257E-1	6.497250E-1	5.906767E-1	6.123904E-1	6.444534E-1	5.913144E-1	5.904430E-1	5.849300E-1	6.391620E-1	6.069479E-1	5.780118E-1	5.749274E-1	6.149550E-1	5.875899E-1	6.009112E-1	6.028721E-1	6.187817E-1	5.886463E-1	5.905610E-1	6.146909E-1	6.212084E-1	6.103281E-1	6.030305E-1	6.123525E-1	6.030795E-1	5.828682E-1	6.111520E-1	6.002736E-1	5.949976E-1	6.108190E-1	5.701417E-1	5.818270E-1	6.145846E-1	5.947365E-1	5.972549E-1	6.153098E-1	6.119416E-1	6.098407E-1	6.056288E-1	5.996405E-1	6.021806E-1	6.187036E-1	6.020061E-1	6.081245E-1	5.697932E-1	5.862860E-1	6.128401E-1	6.259572E-1	6.088072E-1	6.027493E-1	6.050650E-1	5.839675E-1	6.097558E-1	5.840220E-1	6.072462E-1	5.636123E-1	6.322348E-1	6.191499E-1	6.502067E-1	6.170345E-1	6.345519E-1	5.848888E-1	5.921780E-1	6.051398E-1	6.039630E-1	5.991839E-1	6.219915E-1	5.620527E-1	6.139531E-1	6.187314E-1	5.860515E-1	6.225126E-1	5.632563E-1	6.097313E-1	6.363005E-1	6.002246E-1	5.902526E-1	5.672637E-1	6.388929E-1	5.805059E-1	5.862097E-1	6.023179E-1	6.046199E-1	6.510325E-1	6.308792E-1	6.229007E-1	5.807667E-1	6.145596E-1	5.931053E-1	5.834330E-1	6.204661E-1	6.380036E-1	6.119976E-1	6.025918E-1	6.305169E-1	6.073071E-1	6.011586E-1	6.075941E-1	5.468490E-1	6.094551E-1	5.799325E-1	6.070880E-1	5.963402E-1	5.953062E-1	6.025862E-1	5.757262E-1	5.856803E-1	5.469731E-1	5.820935E-1	5.731868E-1	6.040489E-1	5.978452E-1	5.600822E-1	5.966802E-1	5.641794E-1	6.217919E-1	6.429008E-1	5.728841E-1	6.269671E-1	6.195482E-1	5.907061E-1	6.143212E-1	6.225104E-1	6.081807E-1	6.367808E-1	6.192156E-1	6.915586E-1	6.133962E-1	5.833672E-1	6.492261E-1	6.213371E-1	6.514888E-1
5.380160E+2	7.033877E-1	6.701731E-1	6.533974E-1	6.496418E-1	6.796862E-1	6.834823E-1	6.879481E-1	7.114537E-1	6.824224E-1	6.924976E-1	6.687877E-1	7.187253E-1	7.008250E-1	6.861149E-1	6.991599E-1	7.034977E-1	6.962295E-1	6.920328E-1	7.006442E-1	7.034674E-1	6.878389E-1	6.784417E-1	7.117188E-1	7.396609E-1	6.734135E-1	7.256911E-1	7.136643E-1	7.238345E-1	6.707214E-1	7.483543E-1	6.893571E-1	6.573250E-1	6.785609E-1	7.181187E-1	7.171266E-1	7.212523E-1	6.771358E-1	7.385262E-1	6.777870E-1	6.914757E-1	6.750620E-1	7.161621E-1	6.896548E-1	6.959271E-1	6.989616E-1	7.103361E-1	6.766994E-1	7.168643E-1	6.903557E-1	6.919554E-1	7.060948E-1	7.353899E-1	7.049884E-1	7.228951E-1	7.156998E-1	7.324572E-1	7.065948E-1	7.400102E-1	6.874857E-1	6.857300E-1	6.886341E-1	6.908594E-1	6.947636E-1	7.027865E-1	7.085058E-1	7.311069E-1	7.422198E-1	6.872220E-1	6.941550E-1	6.957516E-1	6.884178E-1	6.944020E-1	6.974313E-1	6.945943E-1	6.991416E-1	6.808193E-1	6.945079E-1	7.121802E-1	7.181316E-1	7.237124E-1	7.625971E-1	6.800586E-1	6.732761E-1	6.940281E-1	6.956022E-1	6.892775E-1	7.166656E-1	6.843301E-1	6.579640E-1	6.974290E-1	7.130829E-1	6.761197E-1	6.966917E-1	7.007421E-1	6.734982E-1	6.685663E-1	6.968242E-1	6.796876E-1	7.365397E-1	6.989411E-1	6.992216E-1	6.720665E-1	7.055330E-1	7.181650E-1	7.124334E-1	6.827339E-1	7.039002E-1	6.875923E-1	6.701288E-1	6.715818E-1	6.617183E-1	7.007484E-1	7.202162E-1	6.698049E-1	6.827538E-1	6.914978E-1	6.986266E-1	6.981317E-1	6.984334E-1	6.785378E-1	6.415622E-1	7.312357E-1	7.088015E-1	7.021898E-1	7.363647E-1	6.674874E-1	7.061131E-1	6.633891E-1	7.217011E-1	7.193656E-1	7.244305E-1	6.918910E-1	7.282660E-1	7.207953E-1	7.122734E-1	7.123288E-1	7.296313E-1	7.235732E-1	7.504658E-1	7.065970E-1	7.017780E-1	7.178473E-1	6.788469E-1	6.890529E-1	6.844080E-1	7.261073E-1	6.860659E-1	6.701985E-1	6.862103E-1	7.454367E-1	6.881610E-1	6.957908E-1	7.054445E-1	6.814519E-1	6.822973E-1	7.110939E-1	6.910359E-1	7.257970E-1	7.057290E-1	7.037277E-1	6.958785E-1	6.801180E-1	7.057105E-1	6.484040E-1	6.848204E-1	6.550302E-1
5.382690E+2	8.287024E-1	8.365295E-1	7.566096E-1	8.331619E-1	8.141770E-1	8.064950E-1	8.505014E-1	8.268217E-1	7.897936E-1	8.211001E-1	8.114239E-1	8.308520E-1	8.334143E-1	8.716319E-1	8.054584E-1	8.084030E-1	8.126341E-1	8.211490E-1	8.097788E-1	8.067730E-1	8.152644E-1	7.972169E-1	8.131455E-1	8.202881E-1	8.141635E-1	8.258825E-1	8.082561E-1	8.196978E-1	8.346814E-1	8.079829E-1	8.032314E-1	8.270306E-1	8.698891E-1	8.471457E-1	8.387394E-1	8.208233E-1	7.777501E-1	7.949218E-1	8.465829E-1	8.272145E-1	7.952124E-1	8.238278E-1	8.346944E-1	8.100361E-1	8.201396E-1	8.203433E-1	8.166573E-1	7.998416E-1	8.576071E-1	8.379184E-1	8.129336E-1	8.392167E-1	8.200188E-1	8.054303E-1	8.309298E-1	8.285349E-1	7.859345E-1	7.809942E-1	7.872354E-1	8.684611E-1	8.188802E-1	8.365796E-1	8.309688E-1	8.313926E-1	8.128669E-1	8.236484E-1	8.565274E-1	8.588685E-1	8.623822E-1	8.092380E-1	8.329667E-1	8.014521E-1	8.524267E-1	8.176152E-1	8.224339E-1	8.281565E-1	8.012003E-1	8.594956E-1	8.125432E-1	8.080846E-1	8.550225E-1	8.144853E-1	8.259703E-1	8.109860E-1	8.191018E-1	8.035909E-1	7.992538E-1	7.565052E-1	8.344988E-1	8.165095E-1	8.216889E-1	8.393952E-1	8.147848E-1	8.685493E-1	8.041546E-1	8.198137E-1	8.083403E-1	8.776799E-1	8.308054E-1	8.075645E-1	8.320939E-1	8.003062E-1	8.117972E-1	8.201054E-1	8.423012E-1	8.399324E-1	8.204478E-1	8.463462E-1	8.349884E-1	8.463662E-1	8.038195E-1	8.307708E-1	8.098444E-1	8.672246E-1	8.112452E-1	7.895058E-1	8.237425E-1	8.539794E-1	8.098579E-1	8.226300E-1	8.046642E-1	8.053018E-1	8.118386E-1	8.509537E-1	8.611174E-1	8.350107E-1	8.241455E-1	7.975158E-1	7.861948E-1	7.904746E-1	8.851092E-1	8.022672E-1	8.123767E-1	8.893361E-1	8.166481E-1	7.979551E-1	8.446049E-1	8.299225E-1	8.256046E-1	8.127152E-1	7.805402E-1	8.030658E-1	8.314479E-1	8.139143E-1	8.768966E-1	8.187964E-1	7.991737E-1	8.676165E-1	8.303991E-1	8.192969E-1	8.146970E-1	8.237777E-1	8.106279E-1	8.329559E-1	8.118853E-1	8.187156E-1	8.241194E-1	8.447436E-1	8.403873E-1	8.071730E-1	8.368022E-1	8.701727E-1	7.901083E-1	8.067883E-1	7.869834E-1	8.688134E-1
5.385110E+2	9.331268E-1	9.965541E-1	9.664519E-1	1.019922E+0	9.557831E-1	9.872763E-1	1.010986E+0	1.071773E+0	9.631405E-1	1.023269E+0	9.836358E-1	1.039473E+0	1.017643E+0	9.846862E-1	9.971902E-1	1.035612E+0	1.041628E+0	1.004137E+0	9.841014E-1	1.008804E+0	1.025889E+0	9.968113E-1	9.591131E-1	1.067299E+0	1.012939E+0	1.003489E+0	1.040165E+0	9.995080E-1	9.920527E-1	1.089560E+0	9.760737E-1	1.028280E+0	9.797787E-1	1.005059E+0	9.682707E-1	1.034496E+0	9.981614E-1	1.001247E+0	1.008532E+0	1.028188E+0	1.061984E+0	1.027858E+0	1.072914E+0	1.003816E+0	1.016909E+0	1.007139E+0	1.014024E+0	1.014699E+0	1.045250E+0	1.021005E+0	1.030954E+0	1.024918E+0	9.636501E-1	9.587634E-1	9.796407E-1	1.069127E+0	9.929989E-1	9.837112E-1	9.990776E-1	1.011325E+0	1.000401E+0	9.793309E-1	9.578158E-1	1.011365E+0	9.773929E-1	1.046707E+0	1.006311E+0	9.761640E-1	1.004779E+0	1.049240E+0	9.667731E-1	9.792750E-1	1.024965E+0	1.005222E+0	9.949501E-1	1.006193E+0	1.058050E+0	1.036316E+0	1.026483E+0	9.632365E-1	1.021107E+0	1.034530E+0	9.642700E-1	9.743581E-1	1.013931E+0	1.040829E+0	9.824550E-1	1.012577E+0	9.886782E-1	1.018578E+0	9.866353E-1	1.058315E+0	1.088365E+0	1.017300E+0	9.844508E-1	9.940401E-1	1.006866E+0	1.035669E+0	1.014161E+0	1.036212E+0	9.784430E-1	1.005225E+0	9.896749E-1	1.013917E+0	1.045519E+0	1.009474E+0	1.029360E+0	9.734562E-1	1.041954E+0	9.751006E-1	9.618057E-1	1.008053E+0	1.052609E+0	9.865473E-1	1.006280E+0	1.043210E+0	1.004918E+0	9.956658E-1	1.022134E+0	1.052542E+0	1.031795E+0	1.022787E+0	1.034979E+0	9.841303E-1	1.046684E+0	1.012114E+0	9.854133E-1	9.954911E-1	9.994777E-1	1.006788E+0	1.036475E+0	1.057973E+0	1.022366E+0	1.012402E+0	1.035598E+0	1.053930E+0	9.629749E-1	1.006235E+0	1.012279E+0	1.035564E+0	1.007071E+0	1.008126E+0	9.742519E-1	1.043025E+0	1.039685E+0	1.016416E+0	9.877421E-1	9.267746E-1	1.024665E+0	1.044788E+0	9.915078E-1	1.021716E+0	1.018709E+0	1.023219E+0	1.001402E+0	1.071729E+0	9.407936E-1	1.036171E+0	9.774093E-1	1.005657E+0	1.003678E+0	1.029062E+0	1.017856E+0	9.130884E-1	1.054342E+0	1.105309E+0
5.387650E+2	1.194161E+0	1.302056E+0	1.170695E+0	1.187284E+0	1.195689E+0	1.239387E+0	1.195784E+0	1.176957E+0	1.187011E+0	1.191389E+0	1.180291E+0	1.218300E+0	1.173948E+0	1.231290E+0	1.229929E+0	1.155050E+0	1.193162E+0	1.232935E+0	1.160031E+0	1.144688E+0	1.202004E+0	1.190183E+0	1.235318E+0	1.241502E+0	1.189812E+0	1.209963E+0	1.256780E+0	1.228068E+0	1.168124E+0	1.208094E+0	1.192770E+0	1.138933E+0	1.224393E+0	1.200342E+0	1.179944E+0	1.190507E+0	1.171728E+0	1.237422E+0	1.191448E+0	1.221485E+0	1.191996E+0	1.193295E+0	1.190659E+0	1.220662E+0	1.217973E+0	1.186661E+0	1.199614E+0	1.179260E+0	1.272144E+0	1.193444E+0	1.150394E+0	1.213393E+0	1.213579E+0	1.213346E+0	1.115284E+0	1.197960E+0	1.134473E+0	1.173221E+0	1.187566E+0	1.230327E+0	1.185594E+0	1.209273E+0	1.175040E+0	1.197753E+0	1.237728E+0	1.188228E+0	1.260002E+0	1.215372E+0	1.199557E+0	1.214921E+0	1.155987E+0	1.205365E+0	1.217612E+0	1.194457E+0	1.154422E+0	1.194746E+0	1.229166E+0	1.209143E+0	1.182866E+0	1.214248E+0	1.264246E+0	1.171334E+0	1.234588E+0	1.148215E+0	1.151687E+0	1.163646E+0	1.135555E+0	1.173689E+0	1.174568E+0	1.213172E+0	1.154563E+0	1.178059E+0	1.171725E+0	1.169936E+0	1.157726E+0	1.221299E+0	1.209801E+0	1.138937E+0	1.188566E+0	1.147251E+0	1.210043E+0	1.168778E+0	1.182553E+0	1.211885E+0	1.111277E+0	1.162163E+0	1.144324E+0	1.211856E+0	1.253599E+0	1.177531E+0	1.177449E+0	1.203536E+0	1.255289E+0	1.196870E+0	1.119279E+0	1.201599E+0	1.236160E+0	1.174727E+0	1.169599E+0	1.216630E+0	1.193388E+0	1.157857E+0	1.159271E+0	1.214690E+0	1.188221E+0	1.201348E+0	1.205466E+0	1.217143E+0	1.201248E+0	1.274481E+0	1.209947E+0	1.187388E+0	1.216136E+0	1.234830E+0	1.181748E+0	1.216432E+0	1.123199E+0	1.186611E+0	1.240509E+0	1.264581E+0	1.186445E+0	1.240062E+0	1.162130E+0	1.168080E+0	1.264813E+0	1.241038E+0	1.186911E+0	1.194821E+0	1.254376E+0	1.229929E+0	1.219605E+0	1.175527E+0	1.240942E+0	1.143740E+0	1.153268E+0	1.157779E+0	1.199680E+0	1.235911E+0	1.137632E+0	1.245083E+0	1.168330E+0	1.205439E+0	1.089806E+0	1.230231E+0	1.229658E+0	1.246193E+0
5.390340E+2	1.396267E+0	1.457577E+0	1.365662E+0	1.408474E+0	1.477593E+0	1.436468E+0	1.429309E+0	1.410501E+0	1.384885E+0	1.394835E+0	1.421422E+0	1.447182E+0	1.396346E+0	1.386609E+0	1.452865E+0	1.404592E+0	1.418900E+0	1.428487E+0	1.361432E+0	1.348587E+0	1.455252E+0	1.384401E+0	1.376751E+0	1.466021E+0	1.390189E+0	1.474451E+0	1.470428E+0	1.454967E+0	1.460369E+0	1.480861E+0	1.421355E+0	1.414166E+0	1.427251E+0	1.444006E+0	1.448620E+0	1.364052E+0	1.361184E+0	1.403872E+0	1.410029E+0	1.465884E+0	1.442973E+0	1.421269E+0	1.414985E+0	1.519418E+0	1.370821E+0	1.383326E+0	1.419769E+0	1.404482E+0	1.470871E+0	1.435052E+0	1.409360E+0	1.432043E+0	1.411958E+0	1.406912E+0	1.413703E+0	1.485406E+0	1.456976E+0	1.418555E+0	1.357822E+0	1.401389E+0	1.433920E+0	1.427422E+0	1.441042E+0	1.421543E+0	1.391946E+0	1.491006E+0	1.416946E+0	1.420794E+0	1.396100E+0	1.404672E+0	1.423133E+0	1.395964E+0	1.415581E+0	1.451069E+0	1.392275E+0	1.462969E+0	1.442832E+0	1.481702E+0	1.438152E+0	1.450397E+0	1.453639E+0	1.461577E+0	1.423049E+0	1.400032E+0	1.461365E+0	1.428149E+0	1.424531E+0	1.439606E+0	1.450324E+0	1.394679E+0	1.395337E+0	1.449713E+0	1.434711E+0	1.382946E+0	1.357084E+0	1.420710E+0	1.403738E+0	1.363881E+0	1.394787E+0	1.381033E+0	1.426547E+0	1.401944E+0	1.337542E+0	1.418688E+0	1.456509E+0	1.382141E+0	1.401449E+0	1.456334E+0	1.458554E+0	1.459182E+0	1.421068E+0	1.433664E+0	1.430048E+0	1.392869E+0	1.387218E+0	1.454812E+0	1.378523E+0	1.444564E+0	1.398219E+0	1.490881E+0	1.379127E+0	1.401109E+0	1.381589E+0	1.397496E+0	1.425606E+0	1.406821E+0	1.399669E+0	1.403128E+0	1.441284E+0	1.411319E+0	1.424205E+0	1.402252E+0	1.404812E+0	1.443582E+0	1.426411E+0	1.437930E+0	1.424241E+0	1.421002E+0	1.373632E+0	1.401233E+0	1.392144E+0	1.401838E+0	1.399370E+0	1.402188E+0	1.348844E+0	1.396328E+0	1.407956E+0	1.399473E+0	1.421933E+0	1.374201E+0	1.400834E+0	1.420714E+0	1.428200E+0	1.358019E+0	1.398920E+0	1.374921E+0	1.399123E+0	1.405240E+0	1.403481E+0	1.392111E+0	1.410378E+0	1.435525E+0	1.369856E+0	1.364258E+0	1.427940E+0	1.467542E+0
5.392560E+2	1.639833E+0	1.749742E+0	1.536507E+0	1.648205E+0	1.692346E+0	1.627117E+0	1.652706E+0	1.701968E+0	1.629238E+0	1.621942E+0	1.658826E+0	1.684201E+0	1.583074E+0	1.675001E+0	1.650709E+0	1.592933E+0	1.644874E+0	1.615780E+0	1.611196E+0	1.659537E+0	1.632858E+0	1.615015E+0	1.608880E+0	1.667243E+0	1.634138E+0	1.695822E+0	1.709444E+0	1.619680E+0	1.636795E+0	1.653735E+0	1.670025E+0	1.648431E+0	1.631776E+0	1.730076E+0	1.634132E+0	1.642600E+0	1.638895E+0	1.625345E+0	1.644469E+0	1.680491E+0	1.656210E+0	1.668890E+0	1.607620E+0	1.573785E+0	1.574024E+0	1.698430E+0	1.688893E+0	1.614101E+0	1.618792E+0	1.629287E+0	1.584782E+0	1.638411E+0	1.575842E+0	1.619972E+0	1.605545E+0	1.780745E+0	1.589004E+0	1.595481E+0	1.516557E+0	1.641534E+0	1.641719E+0	1.682781E+0	1.557308E+0	1.663378E+0	1.631978E+0	1.640700E+0	1.633225E+0	1.576867E+0	1.574850E+0	1.671698E+0	1.624239E+0	1.632762E+0	1.600539E+0	1.634026E+0	1.575892E+0	1.595213E+0	1.614171E+0	1.731012E+0	1.598066E+0	1.644037E+0	1.666720E+0	1.647328E+0	1.585391E+0	1.537314E+0	1.686230E+0	1.655564E+0	1.565929E+0	1.669419E+0	1.643404E+0	1.576445E+0	1.527526E+0	1.665159E+0	1.665679E+0	1.585073E+0	1.589418E+0	1.668763E+0	1.682685E+0	1.637277E+0	1.597077E+0	1.655660E+0	1.602962E+0	1.573928E+0	1.616084E+0	1.624798E+0	1.629259E+0	1.597423E+0	1.630416E+0	1.600178E+0	1.637559E+0	1.607076E+0	1.581423E+0	1.602025E+0	1.601871E+0	1.621222E+0	1.605245E+0	1.605051E+0	1.617937E+0	1.606730E+0	1.578753E+0	1.648901E+0	1.634701E+0	1.585720E+0	1.660910E+0	1.660571E+0	1.649525E+0	1.655331E+0	1.586896E+0	1.590791E+0	1.611015E+0	1.663868E+0	1.621297E+0	1.603009E+0	1.647302E+0	1.639948E+0	1.572245E+0	1.652808E+0	1.596903E+0	1.654548E+0	1.585701E+0	1.612011E+0	1.608280E+0	1.584844E+0	1.552254E+0	1.643287E+0	1.557053E+0	1.661967E+0	1.582551E+0	1.587186E+0	1.553557E+0	1.659910E+0	1.642447E+0	1.603080E+0	1.607666E+0	1.602298E+0	1.580039E+0	1.617762E+0	1.624360E+0	1.602861E+0	1.599238E+0	1.574121E+0	1.545314E+0	1.590845E+0	1.554481E+0	1.537827E+0	1.528959E+0	1.565075E+0
5.395160E+2	1.851746E+0	1.902965E+0	1.826180E+0	1.819917E+0	1.806488E+0	1.903589E+0	1.921652E+0	1.847147E+0	1.871068E+0	1.914469E+0	1.830510E+0	1.936944E+0	1.810918E+0	1.865339E+0	1.818425E+0	1.889368E+0	1.897095E+0	1.815826E+0	1.890033E+0	1.862096E+0	1.866833E+0	1.876703E+0	1.893657E+0	1.860305E+0	1.828566E+0	1.898536E+0	1.913968E+0	1.933576E+0	1.884298E+0	1.850845E+0	1.852349E+0	1.909292E+0	1.849098E+0	1.900783E+0	1.896396E+0	1.842825E+0	1.857305E+0	1.895076E+0	1.785176E+0	1.875333E+0	1.848995E+0	1.873185E+0	1.849753E+0	1.921340E+0	1.824420E+0	1.904220E+0	1.889097E+0	1.858953E+0	1.943501E+0	1.905658E+0	1.829899E+0	1.832787E+0	1.855162E+0	1.847937E+0	1.826943E+0	1.898250E+0	1.902855E+0	1.895095E+0	1.799663E+0	1.853952E+0	1.933234E+0	1.872888E+0	1.823355E+0	1.899808E+0	1.831076E+0	1.881135E+0	1.825922E+0	1.840825E+0	1.822508E+0	1.820793E+0	1.833302E+0	1.771655E+0	1.803335E+0	1.843616E+0	1.806331E+0	1.818442E+0	1.917712E+0	1.878515E+0	1.751130E+0	1.850589E+0	1.880148E+0	1.880624E+0	1.795732E+0	1.850067E+0	1.843381E+0	1.788715E+0	1.809192E+0	1.938503E+0	1.874711E+0	1.800103E+0	1.765727E+0	1.891640E+0	1.886328E+0	1.798094E+0	1.839857E+0	1.891124E+0	1.896347E+0	1.808671E+0	1.768306E+0	1.844798E+0	1.866275E+0	1.799215E+0	1.790185E+0	1.859613E+0	1.842328E+0	1.777196E+0	1.780408E+0	1.865588E+0	1.852768E+0	1.761924E+0	1.826762E+0	1.822589E+0	1.901459E+0	1.867229E+0	1.810904E+0	1.828031E+0	1.851296E+0	1.855235E+0	1.804432E+0	1.861012E+0	1.841458E+0	1.835168E+0	1.826312E+0	1.866828E+0	1.858507E+0	1.836627E+0	1.761829E+0	1.774637E+0	1.834691E+0	1.897754E+0	1.896820E+0	1.797300E+0	1.713363E+0	1.823663E+0	1.809926E+0	1.811764E+0	1.787762E+0	1.856251E+0	1.798016E+0	1.835223E+0	1.854822E+0	1.849242E+0	1.763211E+0	1.828227E+0	1.842074E+0	1.848414E+0	1.807406E+0	1.774341E+0	1.773673E+0	1.820660E+0	1.745363E+0	1.802863E+0	1.820539E+0	1.780558E+0	1.793104E+0	1.847792E+0	1.795563E+0	1.843621E+0	1.772577E+0	1.804356E+0	1.808062E+0	1.803420E+0	1.746072E+0	1.762957E+0	1.831204E+0	1.876900E+0
5.397810E+2	2.046699E+0	2.066676E+0	2.002976E+0	2.031694E+0	1.989681E+0	2.076812E+0	2.060682E+0	2.057012E+0	1.962645E+0	1.974710E+0	1.979476E+0	2.065402E+0	2.008609E+0	2.012235E+0	2.067958E+0	2.059874E+0	1.973401E+0	1.967172E+0	2.105020E+0	1.971372E+0	1.958707E+0	2.024886E+0	1.964493E+0	2.071988E+0	1.981967E+0	2.041746E+0	2.005362E+0	2.076052E+0	1.946828E+0	2.040863E+0	1.984001E+0	2.075150E+0	1.942607E+0	2.080193E+0	2.037346E+0	2.064584E+0	1.994594E+0	1.971073E+0	2.013032E+0	1.970567E+0	1.995121E+0	1.985046E+0	1.935855E+0	2.044470E+0	2.027930E+0	2.027098E+0	2.004331E+0	2.021156E+0	2.033696E+0	1.998478E+0	2.009372E+0	2.049888E+0	1.965592E+0	2.054939E+0	1.916566E+0	2.001929E+0	2.021699E+0	2.068116E+0	1.899331E+0	2.058052E+0	2.023359E+0	1.970235E+0	1.909975E+0	1.933271E+0	1.964001E+0	1.970538E+0	1.977395E+0	1.991993E+0	1.968483E+0	2.007345E+0	1.916079E+0	1.982388E+0	2.078461E+0	1.941711E+0	1.883865E+0	1.953571E+0	2.002720E+0	1.997858E+0	1.923929E+0	2.009034E+0	1.976274E+0	1.982028E+0	1.975160E+0	1.986429E+0	1.975432E+0	1.982925E+0	1.947368E+0	2.005936E+0	1.945344E+0	1.981962E+0	1.910832E+0	2.037083E+0	2.060908E+0	1.935081E+0	1.928442E+0	1.995352E+0	2.032390E+0	1.916544E+0	1.983978E+0	1.939604E+0	1.994179E+0	1.940561E+0	1.920382E+0	2.047873E+0	1.922049E+0	2.001506E+0	1.922026E+0	1.986155E+0	1.996368E+0	1.957180E+0	1.961774E+0	1.949899E+0	1.953763E+0	1.965134E+0	1.952037E+0	1.906422E+0	1.982682E+0	1.981392E+0	1.955050E+0	1.979306E+0	1.935591E+0	1.953960E+0	1.929545E+0	2.025019E+0	2.012613E+0	1.908097E+0	1.947693E+0	1.914064E+0	1.918713E+0	1.884383E+0	1.921714E+0	1.891389E+0	1.919860E+0	2.001385E+0	1.950995E+0	1.953113E+0	1.923297E+0	1.898826E+0	1.949010E+0	1.961547E+0	1.953300E+0	2.007692E+0	1.879384E+0	1.905882E+0	1.941646E+0	2.063014E+0	1.963035E+0	1.916878E+0	1.949765E+0	1.964517E+0	1.979140E+0	1.974140E+0	1.973891E+0	1.951022E+0	1.921312E+0	1.948100E+0	1.996227E+0	2.026919E+0	1.878274E+0	1.902772E+0	1.925825E+0	2.002138E+0	1.843726E+0	1.939684E+0	1.986741E+0	2.112190E+0
5.400090E+2	2.128842E+0	2.054040E+0	2.022005E+0	2.094571E+0	2.020993E+0	2.006619E+0	2.044330E+0	2.170019E+0	2.083633E+0	2.038485E+0	2.019896E+0	2.142519E+0	2.105314E+0	2.018187E+0	2.124234E+0	2.062033E+0	2.144931E+0	2.091656E+0	2.078751E+0	2.111469E+0	2.131409E+0	2.105991E+0	2.046944E+0	2.131166E+0	2.030824E+0	2.109918E+0	2.023824E+0	2.096221E+0	2.055718E+0	2.041652E+0	2.032915E+0	2.076902E+0	2.065348E+0	2.085945E+0	2.115061E+0	2.101642E+0	2.032816E+0	2.010423E+0	2.010265E+0	2.096018E+0	2.123593E+0	2.070431E+0	1.937786E+0	2.056725E+0	2.108997E+0	2.084127E+0	2.016717E+0	1.995789E+0	2.105834E+0	2.006581E+0	2.042224E+0	2.106423E+0	2.042611E+0	2.079048E+0	2.047089E+0	2.081771E+0	2.049672E+0	2.089503E+0	1.985300E+0	2.116273E+0	2.100798E+0	1.956942E+0	2.017363E+0	2.097912E+0	1.959050E+0	2.055443E+0	2.055813E+0	2.045868E+0	2.051557E+0	2.110352E+0	2.016897E+0	2.009608E+0	2.034711E+0	1.970024E+0	2.019100E+0	2.067107E+0	2.043296E+0	2.074019E+0	2.089132E+0	2.037007E+0	2.047920E+0	2.003852E+0	2.033892E+0	2.025837E+0	2.030377E+0	1.955041E+0	1.955989E+0	2.028166E+0	2.101496E+0	2.037348E+0	1.961646E+0	2.117193E+0	2.036587E+0	2.061106E+0	1.961544E+0	1.999931E+0	2.025196E+0	1.989038E+0	1.989476E+0	1.983250E+0	1.999610E+0	2.016888E+0	2.021470E+0	2.058915E+0	2.029539E+0	1.950381E+0	1.996459E+0	2.020734E+0	2.050413E+0	2.064720E+0	1.968868E+0	2.013457E+0	2.082925E+0	2.106879E+0	1.995608E+0	2.080796E+0	1.967924E+0	1.968154E+0	2.006837E+0	1.985113E+0	1.951094E+0	1.967941E+0	2.003229E+0	2.038578E+0	2.063492E+0	1.981068E+0	1.880566E+0	2.014103E+0	2.099756E+0	2.073494E+0	2.032565E+0	2.041991E+0	1.966602E+0	2.104585E+0	1.917159E+0	2.010736E+0	1.960212E+0	2.062594E+0	1.973477E+0	1.996670E+0	2.003452E+0	1.933696E+0	1.991680E+0	2.099267E+0	1.965833E+0	1.937199E+0	1.916995E+0	1.985980E+0	1.968564E+0	2.020225E+0	1.973267E+0	2.052751E+0	2.015857E+0	1.964275E+0	1.928722E+0	1.965616E+0	2.081837E+0	1.975479E+0	1.940564E+0	2.044703E+0	1.970655E+0	1.940909E+0	2.004276E+0	1.936342E+0	1.957937E+0	1.903560E+0
5.402690E+2	2.034694E+0	2.067388E+0	2.028169E+0	2.054218E+0	2.062530E+0	2.024295E+0	2.059311E+0	2.078940E+0	2.000556E+0	2.071991E+0	2.015318E+0	2.138853E+0	2.014039E+0	1.984641E+0	2.051105E+0	2.061810E+0	2.039069E+0	2.100015E+0	2.087683E+0	2.053235E+0	2.084997E+0	2.003435E+0	2.054350E+0	2.124190E+0	2.053347E+0	2.118224E+0	2.018806E+0	2.107097E+0	2.058760E+0	2.100658E+0	2.053347E+0	2.032222E+0	2.037048E+0	2.079785E+0	2.002058E+0	2.134880E+0	2.058976E+0	2.043061E+0	2.001427E+0	2.040312E+0	2.037747E+0	2.026553E+0	1.979371E+0	2.023647E+0	2.069259E+0	2.065911E+0	2.028953E+0	2.038669E+0	2.081524E+0	2.055109E+0	2.006638E+0	2.029237E+0	2.006787E+0	1.978850E+0	2.007035E+0	2.055752E+0	2.000035E+0	2.029956E+0	1.979842E+0	1.995707E+0	2.024810E+0	2.013448E+0	1.991565E+0	2.045343E+0	1.998073E+0	2.033905E+0	1.992385E+0	2.056628E+0	2.024215E+0	2.050263E+0	2.026491E+0	2.151553E+0	2.014386E+0	2.081903E+0	1.924707E+0	2.033108E+0	2.107980E+0	2.104575E+0	1.971552E+0	2.014467E+0	2.061548E+0	2.055146E+0	2.007525E+0	2.024937E+0	1.994642E+0	1.971712E+0	1.983438E+0	2.038406E+0	2.067102E+0	1.942940E+0	1.962654E+0	2.083544E+0	2.075674E+0	2.028026E+0	1.975612E+0	2.034002E+0	2.109416E+0	2.029411E+0	1.939840E+0	2.041291E+0	2.056288E+0	1.937347E+0	1.929820E+0	2.015997E+0	1.962796E+0	2.029484E+0	1.985353E+0	2.004760E+0	2.010145E+0	2.050723E+0	1.996796E+0	1.995365E+0	2.002405E+0	2.066277E+0	1.966643E+0	1.967713E+0	1.985310E+0	1.994918E+0	2.003721E+0	2.029609E+0	1.989429E+0	1.995903E+0	1.918485E+0	2.025744E+0	2.120656E+0	1.948411E+0	1.949706E+0	1.956848E+0	2.044553E+0	2.048484E+0	1.943468E+0	1.948176E+0	1.992030E+0	2.019297E+0	1.992322E+0	2.070884E+0	1.930402E+0	2.037859E+0	1.899614E+0	1.935746E+0	2.031015E+0	1.976249E+0	1.925257E+0	1.977522E+0	2.057740E+0	1.909363E+0	1.939934E+0	1.990764E+0	1.967220E+0	2.008367E+0	1.948744E+0	1.941813E+0	1.992550E+0	1.926194E+0	1.949797E+0	1.991138E+0	1.971523E+0	2.016413E+0	1.978464E+0	1.962834E+0	1.958766E+0	2.064746E+0	1.942893E+0	2.018835E+0	2.023584E+0	2.047830E+0
5.405020E+2	2.001294E+0	1.997583E+0	1.874107E+0	1.901750E+0	1.981140E+0	2.028066E+0	2.047111E+0	1.922159E+0	1.859159E+0	1.938182E+0	1.876123E+0	2.052844E+0	1.980882E+0	2.028021E+0	1.937291E+0	2.067642E+0	1.964688E+0	2.017035E+0	1.962187E+0	1.953405E+0	1.998115E+0	1.953807E+0	1.931812E+0	2.034017E+0	1.921722E+0	2.005747E+0	2.003623E+0	2.033198E+0	1.957550E+0	1.943772E+0	1.992924E+0	2.023073E+0	1.965051E+0	2.076790E+0	1.955949E+0	2.000867E+0	1.976510E+0	1.863775E+0	1.939689E+0	1.975966E+0	1.976076E+0	1.939882E+0	1.941625E+0	1.949395E+0	1.978040E+0	1.965009E+0	1.974666E+0	1.979371E+0	1.988373E+0	1.935195E+0	1.885421E+0	2.039362E+0	1.859524E+0	1.879647E+0	1.877097E+0	1.983487E+0	1.994394E+0	1.973836E+0	1.897529E+0	1.950848E+0	1.912918E+0	1.981270E+0	1.936501E+0	1.935946E+0	2.016055E+0	1.995723E+0	1.944653E+0	1.948947E+0	1.991480E+0	1.939420E+0	1.928246E+0	1.943833E+0	1.955122E+0	1.979272E+0	1.867062E+0	1.901186E+0	2.034836E+0	1.894902E+0	1.895412E+0	1.945282E+0	1.994058E+0	1.943352E+0	1.867618E+0	1.899262E+0	1.931143E+0	1.967293E+0	1.884240E+0	1.909828E+0	1.936716E+0	1.929853E+0	1.942489E+0	1.947508E+0	1.958250E+0	1.979425E+0	1.860156E+0	1.909123E+0	1.990437E+0	1.898529E+0	1.918808E+0	1.872647E+0	1.944824E+0	1.882983E+0	1.904036E+0	1.904939E+0	1.986453E+0	1.925247E+0	1.929839E+0	1.910030E+0	1.963036E+0	1.903960E+0	1.901445E+0	1.868643E+0	1.929424E+0	1.941565E+0	1.900989E+0	1.967105E+0	1.967038E+0	1.900978E+0	1.860013E+0	1.985361E+0	1.913063E+0	1.894594E+0	1.859695E+0	1.933377E+0	1.935162E+0	1.903629E+0	1.920042E+0	1.855081E+0	1.922553E+0	1.885895E+0	1.875584E+0	1.912837E+0	1.932733E+0	2.027633E+0	1.900741E+0	1.968817E+0	1.883233E+0	1.878324E+0	1.818640E+0	1.881960E+0	1.882577E+0	1.855772E+0	1.854299E+0	1.904581E+0	1.883272E+0	1.943084E+0	1.886570E+0	1.892168E+0	1.904313E+0	1.948597E+0	1.922779E+0	1.940413E+0	2.008867E+0	1.900551E+0	1.900989E+0	1.898808E+0	1.856014E+0	1.926361E+0	1.878231E+0	1.879591E+0	1.829118E+0	1.911438E+0	1.795061E+0	1.874762E+0	1.835057E+0	1.967917E+0
5.407580E+2	1.942706E+0	1.907784E+0	1.783873E+0	1.859530E+0	1.887190E+0	1.900910E+0	1.941523E+0	1.962573E+0	1.823920E+0	1.838338E+0	1.828432E+0	1.896588E+0	1.915104E+0	1.900625E+0	1.906460E+0	1.925089E+0	1.959327E+0	1.878841E+0	1.858467E+0	1.891605E+0	1.859357E+0	1.871680E+0	1.800263E+0	1.983282E+0	1.866255E+0	1.870274E+0	1.890315E+0	1.897946E+0	1.901596E+0	1.892285E+0	1.872706E+0	1.976286E+0	1.828014E+0	2.027172E+0	1.848354E+0	1.895378E+0	1.890243E+0	1.821677E+0	1.825735E+0	1.859496E+0	1.813948E+0	1.847511E+0	1.856793E+0	1.880456E+0	1.883549E+0	1.881164E+0	1.821348E+0	1.895631E+0	1.961827E+0	1.877325E+0	1.816293E+0	1.822307E+0	1.820947E+0	1.865254E+0	1.848918E+0	1.839543E+0	1.867801E+0	1.841503E+0	1.876290E+0	1.893309E+0	1.865924E+0	1.789202E+0	1.851732E+0	1.838782E+0	1.886002E+0	1.859084E+0	1.915695E+0	1.814701E+0	1.839611E+0	1.888315E+0	1.872645E+0	1.885727E+0	1.872847E+0	1.852087E+0	1.823410E+0	1.905680E+0	1.831320E+0	1.887740E+0	1.833828E+0	1.819008E+0	1.864522E+0	1.917317E+0	1.811949E+0	1.815640E+0	1.857158E+0	1.875661E+0	1.824425E+0	1.864039E+0	1.880391E+0	1.853540E+0	1.843513E+0	1.832585E+0	1.854263E+0	1.827667E+0	1.822337E+0	1.831628E+0	1.919059E+0	1.812055E+0	1.816505E+0	1.943306E+0	1.877816E+0	1.807037E+0	1.836914E+0	1.838066E+0	1.861033E+0	1.817963E+0	1.761660E+0	1.801954E+0	1.872352E+0	1.863022E+0	1.789749E+0	1.834068E+0	1.879799E+0	1.834725E+0	1.816381E+0	1.898403E+0	1.836301E+0	1.849238E+0	1.801061E+0	1.808487E+0	1.843079E+0	1.820593E+0	1.825986E+0	1.887775E+0	1.882034E+0	1.835578E+0	1.815439E+0	1.817113E+0	1.824300E+0	1.808463E+0	1.816160E+0	1.816403E+0	1.822571E+0	1.862462E+0	1.773866E+0	1.905189E+0	1.842751E+0	1.772521E+0	1.788973E+0	1.807265E+0	1.847919E+0	1.857723E+0	1.776427E+0	1.918557E+0	1.843347E+0	1.855329E+0	1.792729E+0	1.755913E+0	1.751660E+0	1.844553E+0	1.771005E+0	1.797181E+0	1.857411E+0	1.735676E+0	1.782504E+0	1.845061E+0	1.813573E+0	1.799501E+0	1.810770E+0	1.819672E+0	1.818297E+0	1.800598E+0	1.862668E+0	1.756946E+0	1.849489E+0	1.823498E+0
5.410080E+2	1.845647E+0	1.823715E+0	1.680760E+0	1.852242E+0	1.749142E+0	1.865353E+0	1.796912E+0	1.740675E+0	1.690230E+0	1.798176E+0	1.791474E+0	1.795174E+0	1.819619E+0	1.740154E+0	1.790655E+0	1.748592E+0	1.796419E+0	1.827262E+0	1.769514E+0	1.823999E+0	1.772239E+0	1.770566E+0	1.771222E+0	1.805986E+0	1.773631E+0	1.811538E+0	1.839592E+0	1.784381E+0	1.785974E+0	1.811707E+0	1.801021E+0	1.803090E+0	1.867988E+0	1.778785E+0	1.784788E+0	1.741639E+0	1.697094E+0	1.822932E+0	1.804113E+0	1.885468E+0	1.728283E+0	1.797425E+0	1.707011E+0	1.860816E+0	1.775480E+0	1.825112E+0	1.731006E+0	1.747113E+0	1.791141E+0	1.794869E+0	1.763367E+0	1.791453E+0	1.800793E+0	1.719367E+0	1.746195E+0	1.824719E+0	1.783064E+0	1.782668E+0	1.776075E+0	1.779832E+0	1.800795E+0	1.775079E+0	1.729542E+0	1.775973E+0	1.796387E+0	1.800070E+0	1.839914E+0	1.764001E+0	1.764955E+0	1.797299E+0	1.688580E+0	1.813657E+0	1.763798E+0	1.808405E+0	1.744283E+0	1.789592E+0	1.831700E+0	1.802517E+0	1.753964E+0	1.840917E+0	1.764317E+0	1.828122E+0	1.733193E+0	1.741859E+0	1.717004E+0	1.737703E+0	1.769305E+0	1.740004E+0	1.733709E+0	1.768168E+0	1.743934E+0	1.754900E+0	1.746165E+0	1.775882E+0	1.718529E+0	1.770074E+0	1.829927E+0	1.701480E+0	1.716712E+0	1.712376E+0	1.789217E+0	1.803647E+0	1.758973E+0	1.793972E+0	1.741397E+0	1.705147E+0	1.737772E+0	1.719558E+0	1.785658E+0	1.771745E+0	1.727076E+0	1.713247E+0	1.803463E+0	1.767896E+0	1.740876E+0	1.701163E+0	1.756891E+0	1.727553E+0	1.721567E+0	1.808427E+0	1.786720E+0	1.737989E+0	1.724733E+0	1.752421E+0	1.818135E+0	1.744180E+0	1.784968E+0	1.694521E+0	1.758578E+0	1.786686E+0	1.703599E+0	1.737606E+0	1.774201E+0	1.772707E+0	1.676144E+0	1.742587E+0	1.730186E+0	1.778537E+0	1.708207E+0	1.689018E+0	1.707074E+0	1.780885E+0	1.669588E+0	1.761993E+0	1.712727E+0	1.809355E+0	1.686387E+0	1.746608E+0	1.772446E+0	1.738980E+0	1.693748E+0	1.771388E+0	1.733840E+0	1.730949E+0	1.763267E+0	1.783802E+0	1.719172E+0	1.715349E+0	1.709789E+0	1.712612E+0	1.747838E+0	1.732587E+0	1.727349E+0	1.820238E+0	1.659938E+0	1.805947E+0
5.412640E+2	1.735854E+0	1.688129E+0	1.664098E+0	1.725480E+0	1.653985E+0	1.743782E+0	1.769866E+0	1.710897E+0	1.675029E+0	1.717547E+0	1.636333E+0	1.764488E+0	1.700082E+0	1.723446E+0	1.740388E+0	1.688399E+0	1.730805E+0	1.676119E+0	1.812984E+0	1.661659E+0	1.790001E+0	1.695275E+0	1.709204E+0	1.721737E+0	1.661818E+0	1.713591E+0	1.706170E+0	1.731081E+0	1.702186E+0	1.743215E+0	1.719476E+0	1.720559E+0	1.674768E+0	1.794145E+0	1.777550E+0	1.673727E+0	1.685023E+0	1.708060E+0	1.659701E+0	1.717652E+0	1.733850E+0	1.724942E+0	1.618004E+0	1.721670E+0	1.667140E+0	1.758474E+0	1.735644E+0	1.726013E+0	1.799707E+0	1.664186E+0	1.686617E+0	1.707584E+0	1.721747E+0	1.709287E+0	1.657221E+0	1.799735E+0	1.714328E+0	1.718155E+0	1.711016E+0	1.711879E+0	1.683424E+0	1.719674E+0	1.662452E+0	1.662814E+0	1.705318E+0	1.721613E+0	1.691149E+0	1.679722E+0	1.720277E+0	1.715480E+0	1.729886E+0	1.693235E+0	1.694585E+0	1.646142E+0	1.698578E+0	1.678215E+0	1.677184E+0	1.737087E+0	1.675654E+0	1.706871E+0	1.702267E+0	1.703792E+0	1.626861E+0	1.651155E+0	1.651312E+0	1.682002E+0	1.641898E+0	1.723376E+0	1.677974E+0	1.651417E+0	1.674613E+0	1.701761E+0	1.678154E+0	1.681717E+0	1.714957E+0	1.685013E+0	1.703393E+0	1.687656E+0	1.651981E+0	1.725178E+0	1.680307E+0	1.675676E+0	1.697927E+0	1.712272E+0	1.764926E+0	1.667679E+0	1.659205E+0	1.665869E+0	1.646582E+0	1.699372E+0	1.645159E+0	1.656768E+0	1.721994E+0	1.691220E+0	1.706746E+0	1.650473E+0	1.669493E+0	1.716124E+0	1.709572E+0	1.663446E+0	1.703525E+0	1.704095E+0	1.654666E+0	1.705144E+0	1.727018E+0	1.593646E+0	1.637889E+0	1.626259E+0	1.669331E+0	1.692118E+0	1.716218E+0	1.627747E+0	1.675779E+0	1.669676E+0	1.674515E+0	1.697343E+0	1.663859E+0	1.679629E+0	1.643566E+0	1.669272E+0	1.679007E+0	1.645433E+0	1.577619E+0	1.659324E+0	1.655196E+0	1.719769E+0	1.702372E+0	1.687917E+0	1.698398E+0	1.656094E+0	1.624271E+0	1.738644E+0	1.696410E+0	1.632549E+0	1.574801E+0	1.713121E+0	1.665452E+0	1.675516E+0	1.653311E+0	1.667724E+0	1.650971E+0	1.638381E+0	1.554002E+0	1.701688E+0	1.666582E+0	1.648360E+0
5.415140E+2	1.614396E+0	1.620133E+0	1.579281E+0	1.662614E+0	1.635008E+0	1.693467E+0	1.648544E+0	1.665379E+0	1.635473E+0	1.611700E+0	1.611899E+0	1.690555E+0	1.664345E+0	1.636751E+0	1.669494E+0	1.635372E+0	1.681147E+0	1.625489E+0	1.617505E+0	1.628282E+0	1.589566E+0	1.629701E+0	1.565970E+0	1.624115E+0	1.615960E+0	1.640339E+0	1.733072E+0	1.616298E+0	1.660917E+0	1.644115E+0	1.624473E+0	1.639784E+0	1.579406E+0	1.668925E+0	1.677840E+0	1.645141E+0	1.646783E+0	1.613039E+0	1.607071E+0	1.656871E+0	1.616928E+0	1.625664E+0	1.589281E+0	1.614321E+0	1.602069E+0	1.640345E+0	1.619865E+0	1.659840E+0	1.675962E+0	1.631043E+0	1.640171E+0	1.625668E+0	1.616733E+0	1.638099E+0	1.656183E+0	1.645588E+0	1.675098E+0	1.648954E+0	1.584132E+0	1.565309E+0	1.645476E+0	1.621368E+0	1.601651E+0	1.640523E+0	1.659061E+0	1.631149E+0	1.653037E+0	1.661943E+0	1.620877E+0	1.651301E+0	1.582793E+0	1.576588E+0	1.641158E+0	1.692884E+0	1.544496E+0	1.597704E+0	1.673479E+0	1.616243E+0	1.549527E+0	1.592194E+0	1.587784E+0	1.644980E+0	1.577054E+0	1.587534E+0	1.560897E+0	1.644608E+0	1.618703E+0	1.677459E+0	1.645879E+0	1.593136E+0	1.581192E+0	1.599805E+0	1.704572E+0	1.643450E+0	1.565894E+0	1.585975E+0	1.661989E+0	1.670865E+0	1.527170E+0	1.659354E+0	1.604587E+0	1.594372E+0	1.550375E+0	1.704333E+0	1.676915E+0	1.609686E+0	1.652111E+0	1.574796E+0	1.638724E+0	1.645207E+0	1.606828E+0	1.665344E+0	1.590861E+0	1.635459E+0	1.557011E+0	1.595360E+0	1.649706E+0	1.590547E+0	1.534700E+0	1.603711E+0	1.610605E+0	1.583907E+0	1.574029E+0	1.590334E+0	1.649454E+0	1.635944E+0	1.552522E+0	1.651378E+0	1.643172E+0	1.649372E+0	1.611668E+0	1.612061E+0	1.583346E+0	1.643750E+0	1.693825E+0	1.589662E+0	1.595823E+0	1.620701E+0	1.586794E+0	1.588469E+0	1.593377E+0	1.619473E+0	1.565762E+0	1.637309E+0	1.628494E+0	1.618163E+0	1.536512E+0	1.560965E+0	1.570085E+0	1.585737E+0	1.562237E+0	1.652203E+0	1.668695E+0	1.629942E+0	1.593298E+0	1.651033E+0	1.639776E+0	1.575939E+0	1.630867E+0	1.600685E+0	1.603651E+0	1.536674E+0	1.584816E+0	1.637184E+0	1.574418E+0	1.609650E+0
5.417540E+2	1.545959E+0	1.488092E+0	1.482036E+0	1.501349E+0	1.535084E+0	1.461027E+0	1.540501E+0	1.480526E+0	1.472803E+0	1.471228E+0	1.466237E+0	1.514262E+0	1.514208E+0	1.533503E+0	1.508663E+0	1.455271E+0	1.576165E+0	1.448657E+0	1.450311E+0	1.518508E+0	1.502804E+0	1.444013E+0	1.513400E+0	1.572506E+0	1.499593E+0	1.516216E+0	1.545871E+0	1.484400E+0	1.494089E+0	1.543394E+0	1.538820E+0	1.487508E+0	1.525053E+0	1.519237E+0	1.506811E+0	1.514733E+0	1.471934E+0	1.533565E+0	1.464468E+0	1.483077E+0	1.562315E+0	1.463327E+0	1.502022E+0	1.507486E+0	1.503379E+0	1.498069E+0	1.438245E+0	1.475525E+0	1.566166E+0	1.545604E+0	1.461878E+0	1.503732E+0	1.464373E+0	1.509508E+0	1.493909E+0	1.524706E+0	1.510534E+0	1.501262E+0	1.466113E+0	1.529302E+0	1.539493E+0	1.550333E+0	1.487368E+0	1.448100E+0	1.561592E+0	1.526755E+0	1.508815E+0	1.512529E+0	1.488701E+0	1.561389E+0	1.498477E+0	1.486712E+0	1.536595E+0	1.453037E+0	1.450836E+0	1.490757E+0	1.548884E+0	1.527014E+0	1.449395E+0	1.482538E+0	1.558746E+0	1.449401E+0	1.529524E+0	1.448046E+0	1.515720E+0	1.528960E+0	1.465778E+0	1.472913E+0	1.499844E+0	1.481452E+0	1.428673E+0	1.492635E+0	1.468293E+0	1.531566E+0	1.462372E+0	1.481778E+0	1.559203E+0	1.509656E+0	1.465525E+0	1.517879E+0	1.465419E+0	1.448996E+0	1.459872E+0	1.513795E+0	1.524132E+0	1.464604E+0	1.497453E+0	1.562809E+0	1.540281E+0	1.485726E+0	1.526240E+0	1.516732E+0	1.519382E+0	1.484793E+0	1.518183E+0	1.482633E+0	1.426141E+0	1.451053E+0	1.475642E+0	1.524975E+0	1.488568E+0	1.494498E+0	1.414015E+0	1.529359E+0	1.522877E+0	1.491285E+0	1.417221E+0	1.423521E+0	1.555190E+0	1.521004E+0	1.489042E+0	1.509060E+0	1.513103E+0	1.466686E+0	1.515224E+0	1.518307E+0	1.456412E+0	1.436915E+0	1.461529E+0	1.507680E+0	1.514376E+0	1.498741E+0	1.435260E+0	1.466274E+0	1.501141E+0	1.484955E+0	1.441348E+0	1.463492E+0	1.503930E+0	1.439248E+0	1.467017E+0	1.495641E+0	1.597700E+0	1.471470E+0	1.415851E+0	1.526238E+0	1.482348E+0	1.470697E+0	1.442470E+0	1.509127E+0	1.480508E+0	1.448269E+0	1.490565E+0	1.481072E+0	1.435354E+0	1.524219E+0
5.420160E+2	1.390141E+0	1.378685E+0	1.322572E+0	1.302387E+0	1.280080E+0	1.386399E+0	1.381940E+0	1.389281E+0	1.299261E+0	1.348258E+0	1.330813E+0	1.357256E+0	1.353818E+0	1.303628E+0	1.339774E+0	1.321065E+0	1.340978E+0	1.331900E+0	1.336266E+0	1.331556E+0	1.308949E+0	1.327442E+0	1.342299E+0	1.337166E+0	1.343747E+0	1.374532E+0	1.344466E+0	1.347560E+0	1.382482E+0	1.367365E+0	1.341149E+0	1.344479E+0	1.397177E+0	1.372448E+0	1.348338E+0	1.360609E+0	1.378137E+0	1.321964E+0	1.352301E+0	1.334716E+0	1.317798E+0	1.401914E+0	1.329896E+0	1.313035E+0	1.314535E+0	1.390021E+0	1.341224E+0	1.327767E+0	1.406724E+0	1.329358E+0	1.358238E+0	1.317091E+0	1.334380E+0	1.335100E+0	1.313931E+0	1.335747E+0	1.335292E+0	1.405146E+0	1.329060E+0	1.316492E+0	1.414953E+0	1.341035E+0	1.294428E+0	1.349278E+0	1.305258E+0	1.338724E+0	1.309938E+0	1.337290E+0	1.346947E+0	1.318959E+0	1.352390E+0	1.322174E+0	1.367757E+0	1.321399E+0	1.294710E+0	1.363549E+0	1.295287E+0	1.372687E+0	1.319461E+0	1.321672E+0	1.353057E+0	1.325252E+0	1.300052E+0	1.284488E+0	1.352676E+0	1.283383E+0	1.355479E+0	1.357365E+0	1.329733E+0	1.327742E+0	1.327293E+0	1.323805E+0	1.343829E+0	1.308213E+0	1.340527E+0	1.279220E+0	1.329503E+0	1.334821E+0	1.295692E+0	1.352855E+0	1.415569E+0	1.348503E+0	1.343856E+0	1.328829E+0	1.312750E+0	1.337023E+0	1.297857E+0	1.358960E+0	1.325750E+0	1.267866E+0	1.272073E+0	1.330782E+0	1.331228E+0	1.342517E+0	1.314927E+0	1.333795E+0	1.385046E+0	1.344141E+0	1.303666E+0	1.395385E+0	1.253701E+0	1.335136E+0	1.319769E+0	1.341599E+0	1.360529E+0	1.313170E+0	1.313902E+0	1.314757E+0	1.340913E+0	1.337167E+0	1.365217E+0	1.380102E+0	1.372661E+0	1.331818E+0	1.319404E+0	1.379615E+0	1.307353E+0	1.371639E+0	1.322786E+0	1.270401E+0	1.345979E+0	1.282624E+0	1.297921E+0	1.369506E+0	1.296947E+0	1.350301E+0	1.306056E+0	1.339767E+0	1.257325E+0	1.366615E+0	1.275156E+0	1.296568E+0	1.381608E+0	1.324399E+0	1.279530E+0	1.357952E+0	1.321881E+0	1.371276E+0	1.245373E+0	1.350203E+0	1.349709E+0	1.335887E+0	1.323869E+0	1.286724E+0	1.283606E+0	1.378027E+0
5.422670E+2	1.173957E+0	1.192989E+0	1.109466E+0	1.126105E+0	1.183045E+0	1.148751E+0	1.225164E+0	1.146652E+0	1.132070E+0	1.172461E+0	1.110088E+0	1.128704E+0	1.151091E+0	1.197777E+0	1.135035E+0	1.178907E+0	1.205917E+0	1.201252E+0	1.159251E+0	1.124998E+0	1.197695E+0	1.165221E+0	1.176315E+0	1.191966E+0	1.167698E+0	1.202242E+0	1.224738E+0	1.199796E+0	1.191740E+0	1.111806E+0	1.176923E+0	1.180805E+0	1.152937E+0	1.181906E+0	1.186649E+0	1.152516E+0	1.152006E+0	1.160302E+0	1.158932E+0	1.213695E+0	1.182186E+0	1.139558E+0	1.159614E+0	1.159449E+0	1.166120E+0	1.192614E+0	1.162294E+0	1.157637E+0	1.227072E+0	1.178362E+0	1.177417E+0	1.199873E+0	1.144457E+0	1.178651E+0	1.162373E+0	1.200114E+0	1.152560E+0	1.159520E+0	1.178226E+0	1.113045E+0	1.173906E+0	1.183058E+0	1.173244E+0	1.102598E+0	1.183395E+0	1.215465E+0	1.175899E+0	1.165827E+0	1.191829E+0	1.152766E+0	1.146339E+0	1.186211E+0	1.183310E+0	1.189035E+0	1.095683E+0	1.186572E+0	1.189832E+0	1.209455E+0	1.209770E+0	1.133737E+0	1.217150E+0	1.222896E+0	1.107786E+0	1.148610E+0	1.198790E+0	1.146071E+0	1.163762E+0	1.141677E+0	1.188809E+0	1.209543E+0	1.162954E+0	1.205409E+0	1.216859E+0	1.178787E+0	1.184469E+0	1.159752E+0	1.245963E+0	1.127746E+0	1.162646E+0	1.190615E+0	1.152620E+0	1.166248E+0	1.198536E+0	1.141962E+0	1.231631E+0	1.158224E+0	1.169870E+0	1.176653E+0	1.177988E+0	1.171030E+0	1.131749E+0	1.134065E+0	1.143013E+0	1.188106E+0	1.175806E+0	1.171655E+0	1.156761E+0	1.208105E+0	1.158192E+0	1.175639E+0	1.231848E+0	1.175697E+0	1.180292E+0	1.142514E+0	1.208856E+0	1.223253E+0	1.130119E+0	1.137761E+0	1.208039E+0	1.189920E+0	1.165974E+0	1.220613E+0	1.194238E+0	1.179923E+0	1.150989E+0	1.243350E+0	1.178338E+0	1.197342E+0	1.132888E+0	1.208856E+0	1.206008E+0	1.224896E+0	1.150560E+0	1.160144E+0	1.170194E+0	1.117932E+0	1.139629E+0	1.148529E+0	1.180344E+0	1.168827E+0	1.135518E+0	1.186928E+0	1.207804E+0	1.114691E+0	1.103300E+0	1.169863E+0	1.148975E+0	1.184578E+0	1.121239E+0	1.173716E+0	1.138470E+0	1.197160E+0	1.156264E+0	1.161814E+0	1.134981E+0	1.202303E+0
5.425140E+2	1.053741E+0	1.080088E+0	9.673604E-1	1.066788E+0	9.902852E-1	1.091189E+0	1.088827E+0	1.021854E+0	1.052110E+0	1.022250E+0	1.022740E+0	1.063693E+0	1.086181E+0	1.016290E+0	1.114379E+0	1.084009E+0	1.035727E+0	1.023386E+0	1.027191E+0	1.041503E+0	1.001782E+0	1.081915E+0	1.050086E+0	1.093688E+0	1.037566E+0	1.062655E+0	1.091635E+0	1.054942E+0	1.021968E+0	1.026927E+0	1.075846E+0	1.037828E+0	1.057566E+0	1.107356E+0	1.049908E+0	1.042569E+0	9.892102E-1	1.047319E+0	1.053457E+0	1.041870E+0	1.039862E+0	1.067502E+0	9.677355E-1	1.038392E+0	1.089662E+0	1.049068E+0	1.034082E+0	1.038662E+0	1.054680E+0	1.064663E+0	1.012752E+0	1.052079E+0	1.016114E+0	1.007847E+0	1.027200E+0	1.031945E+0	1.111219E+0	1.081489E+0	1.018489E+0	1.024374E+0	1.012093E+0	1.034532E+0	1.012176E+0	1.039628E+0	1.039676E+0	1.045887E+0	1.030092E+0	1.028402E+0	1.077798E+0	1.053991E+0	1.041772E+0	1.038493E+0	1.060686E+0	1.009015E+0	9.777254E-1	9.988120E-1	1.096315E+0	1.079182E+0	1.037046E+0	1.034999E+0	1.124103E+0	1.062037E+0	1.024896E+0	1.041998E+0	1.079980E+0	1.041586E+0	9.884691E-1	1.060223E+0	1.058452E+0	1.022551E+0	1.019658E+0	1.005215E+0	1.053812E+0	1.029049E+0	1.061587E+0	1.027871E+0	1.115490E+0	1.048435E+0	1.054333E+0	1.016001E+0	1.019559E+0	1.064644E+0	1.028133E+0	1.033784E+0	1.043951E+0	1.092693E+0	1.039259E+0	1.033084E+0	1.065349E+0	1.072283E+0	1.033307E+0	1.059552E+0	1.030821E+0	1.031685E+0	1.013008E+0	1.052857E+0	1.080526E+0	1.004691E+0	1.057182E+0	1.055051E+0	1.114167E+0	1.041315E+0	1.042706E+0	1.069100E+0	1.105732E+0	1.076271E+0	1.024799E+0	1.021121E+0	1.052048E+0	1.031793E+0	1.047324E+0	1.066477E+0	1.064783E+0	1.081875E+0	1.056784E+0	1.030524E+0	1.059062E+0	1.042754E+0	1.055775E+0	1.072156E+0	1.077849E+0	1.093354E+0	9.970048E-1	1.056257E+0	1.058092E+0	1.086546E+0	1.081543E+0	1.041285E+0	1.019145E+0	1.012641E+0	9.960384E-1	1.025527E+0	1.122413E+0	1.059352E+0	1.063851E+0	1.032695E+0	1.026071E+0	1.049267E+0	1.072497E+0	1.055391E+0	1.057075E+0	1.026624E+0	1.021118E+0	1.047712E+0	1.055283E+0	1.123587E+0
5.427810E+2	9.702373E-1	9.939130E-1	9.099208E-1	9.275691E-1	9.825433E-1	1.020606E+0	9.800196E-1	9.887206E-1	9.693333E-1	9.896591E-1	9.690145E-1	9.663158E-1	1.005832E+0	9.490068E-1	9.868439E-1	9.732666E-1	1.008639E+0	9.699525E-1	1.028366E+0	1.006877E+0	9.688833E-1	9.611791E-1	9.468817E-1	1.025337E+0	9.515001E-1	9.793610E-1	9.965973E-1	9.502631E-1	9.724167E-1	9.986909E-1	9.765287E-1	9.538100E-1	9.860738E-1	9.892988E-1	9.502865E-1	9.276994E-1	9.524221E-1	9.731122E-1	9.633009E-1	9.905575E-1	1.024218E+0	1.012692E+0	9.223846E-1	9.811845E-1	9.548007E-1	9.727128E-1	9.548370E-1	9.881189E-1	9.990874E-1	9.651531E-1	9.677265E-1	9.913456E-1	1.012752E+0	1.001908E+0	9.716224E-1	9.352250E-1	1.006218E+0	1.067912E+0	9.108845E-1	9.758650E-1	9.944223E-1	9.809303E-1	9.439527E-1	9.644382E-1	9.995205E-1	1.008031E+0	1.014393E+0	9.887555E-1	9.274059E-1	9.851048E-1	9.761505E-1	9.789910E-1	9.683717E-1	9.609514E-1	9.833974E-1	9.415105E-1	9.646994E-1	9.927299E-1	9.846059E-1	9.695026E-1	9.684874E-1	9.765829E-1	9.881135E-1	9.220219E-1	9.980808E-1	1.002372E+0	1.008368E+0	9.887598E-1	9.455094E-1	9.463163E-1	9.837606E-1	9.630351E-1	9.645351E-1	1.012234E+0	9.794226E-1	9.874436E-1	1.028442E+0	9.565435E-1	9.963559E-1	9.707315E-1	1.007789E+0	9.807602E-1	9.432074E-1	9.919626E-1	9.706209E-1	9.821613E-1	9.334381E-1	9.666521E-1	1.000153E+0	1.030767E+0	9.474568E-1	9.438877E-1	1.003113E+0	1.044919E+0	9.586693E-1	1.019157E+0	9.624570E-1	9.995983E-1	9.737806E-1	1.018692E+0	1.010120E+0	9.606646E-1	9.763043E-1	9.516577E-1	1.049773E+0	9.994897E-1	9.440601E-1	1.005338E+0	9.884701E-1	1.012066E+0	9.685848E-1	9.959257E-1	9.614469E-1	1.011091E+0	9.935996E-1	9.849029E-1	9.810854E-1	1.001661E+0	1.016895E+0	9.470912E-1	9.616317E-1	1.026113E+0	9.540969E-1	1.047257E+0	9.837165E-1	1.000099E+0	1.008789E+0	9.371050E-1	1.030684E+0	9.954663E-1	9.293372E-1	9.664304E-1	1.003988E+0	1.026237E+0	9.606439E-1	9.701544E-1	1.040163E+0	9.606596E-1	1.004759E+0	9.358555E-1	1.017487E+0	9.913262E-1	9.528792E-1	1.039732E+0	9.419430E-1	8.694786E-1
5.430120E+2	1.036789E+0	9.588631E-1	9.454657E-1	9.637565E-1	1.000848E+0	1.068243E+0	1.027769E+0	9.590253E-1	9.774840E-1	9.629400E-1	1.012938E+0	1.002097E+0	9.928325E-1	9.745581E-1	1.006858E+0	9.845410E-1	9.797226E-1	9.829939E-1	9.895561E-1	9.506223E-1	1.029325E+0	9.540770E-1	9.637440E-1	1.006926E+0	9.805103E-1	1.017032E+0	9.552398E-1	9.617503E-1	9.527280E-1	9.882785E-1	9.814117E-1	9.721882E-1	9.918861E-1	1.049728E+0	9.995396E-1	9.891537E-1	1.014188E+0	9.581949E-1	9.566597E-1	1.043732E+0	9.924726E-1	9.922693E-1	1.004638E+0	9.545436E-1	9.905186E-1	1.032124E+0	1.010934E+0	9.943839E-1	1.013516E+0	1.003380E+0	9.490823E-1	9.811955E-1	9.954198E-1	1.000604E+0	9.827079E-1	1.013894E+0	1.011924E+0	1.004406E+0	9.766237E-1	9.868368E-1	9.624135E-1	1.011634E+0	9.571669E-1	1.023592E+0	9.801778E-1	1.028550E+0	9.907294E-1	9.949566E-1	9.976122E-1	9.852341E-1	9.437902E-1	9.720126E-1	9.891089E-1	9.896161E-1	9.684210E-1	1.018875E+0	9.975351E-1	1.013771E+0	1.036576E+0	1.005821E+0	1.048951E+0	9.619985E-1	1.006721E+0	9.774794E-1	1.001014E+0	1.009599E+0	9.757536E-1	1.039888E+0	9.731676E-1	9.892138E-1	9.656175E-1	1.024697E+0	1.032046E+0	9.563815E-1	9.418913E-1	9.498442E-1	1.056769E+0	9.950731E-1	9.695660E-1	9.548768E-1	9.702039E-1	9.784249E-1	9.862498E-1	9.890794E-1	9.812711E-1	1.008782E+0	9.756576E-1	9.762327E-1	1.034326E+0	1.024100E+0	9.385757E-1	1.003920E+0	9.517722E-1	9.645786E-1	9.921077E-1	1.003310E+0	1.014612E+0	9.887212E-1	9.661724E-1	1.014523E+0	1.035656E+0	9.993085E-1	9.962043E-1	9.884875E-1	1.003337E+0	1.017760E+0	9.723552E-1	9.731209E-1	1.005191E+0	1.095874E+0	1.026441E+0	9.831966E-1	9.737502E-1	9.972442E-1	1.020165E+0	1.013536E+0	9.871996E-1	1.014963E+0	9.467540E-1	9.729366E-1	1.043393E+0	9.661443E-1	9.525611E-1	1.004309E+0	1.061984E+0	1.009817E+0	9.915283E-1	9.742367E-1	9.892025E-1	1.010546E+0	1.001644E+0	9.599600E-1	9.864249E-1	1.019915E+0	1.000292E+0	9.523694E-1	9.975049E-1	1.050729E+0	9.382829E-1	1.017037E+0	1.026238E+0	1.010481E+0	9.771825E-1	9.888639E-1	1.035423E+0	1.001235E+0
5.432960E+2	1.110961E+0	1.144210E+0	1.109852E+0	1.105440E+0	1.089219E+0	1.111219E+0	1.104236E+0	1.092291E+0	1.097949E+0	1.136031E+0	1.096022E+0	1.109881E+0	1.095972E+0	1.048852E+0	1.147206E+0	1.104675E+0	1.085577E+0	1.122680E+0	1.105791E+0	1.124895E+0	1.136181E+0	1.079839E+0	1.083787E+0	1.107682E+0	1.099533E+0	1.139083E+0	1.129463E+0	1.093561E+0	1.096816E+0	1.080863E+0	1.144898E+0	1.068967E+0	1.099316E+0	1.150372E+0	1.096216E+0	1.095674E+0	1.121481E+0	1.143712E+0	1.090272E+0	1.145783E+0	1.087203E+0	1.105699E+0	1.122364E+0	1.076672E+0	1.074585E+0	1.130719E+0	1.098482E+0	1.061499E+0	1.123783E+0	1.091738E+0	1.124812E+0	1.088161E+0	1.047228E+0	1.087502E+0	1.049784E+0	1.096939E+0	1.134211E+0	1.113841E+0	1.027557E+0	1.121409E+0	1.146483E+0	1.066392E+0	1.073318E+0	1.098334E+0	1.108254E+0	1.081735E+0	1.163692E+0	1.124266E+0	1.119375E+0	1.164975E+0	1.123246E+0	1.081308E+0	1.081546E+0	1.102956E+0	1.129158E+0	1.083913E+0	1.141764E+0	1.134623E+0	1.105588E+0	1.120428E+0	1.127478E+0	1.113893E+0	1.112562E+0	1.057959E+0	1.109890E+0	1.099890E+0	1.100077E+0	1.105460E+0	1.090919E+0	1.107916E+0	1.076569E+0	1.133450E+0	1.087235E+0	1.097792E+0	1.052853E+0	1.076547E+0	1.121155E+0	1.137138E+0	1.081121E+0	1.073131E+0	1.073319E+0	1.127936E+0	1.082969E+0	1.094043E+0	1.114927E+0	1.077906E+0	1.116255E+0	1.105019E+0	1.161669E+0	1.137287E+0	1.084528E+0	1.112995E+0	1.147948E+0	1.115637E+0	1.078312E+0	1.122183E+0	1.118750E+0	1.139909E+0	1.098142E+0	1.069761E+0	1.164834E+0	1.103375E+0	1.068406E+0	1.134899E+0	1.162999E+0	1.108117E+0	1.061181E+0	1.100416E+0	1.116289E+0	1.104992E+0	1.092181E+0	1.089011E+0	1.092381E+0	1.140063E+0	1.139641E+0	1.105783E+0	1.121292E+0	1.120321E+0	1.049351E+0	1.087263E+0	1.141331E+0	1.092452E+0	1.073877E+0	1.142903E+0	1.098227E+0	1.115760E+0	1.047915E+0	1.081340E+0	1.120193E+0	1.138665E+0	1.072938E+0	1.099053E+0	1.174551E+0	1.123620E+0	1.109857E+0	1.095928E+0	1.137699E+0	1.149499E+0	1.116977E+0	1.121325E+0	1.080049E+0	1.083501E+0	1.093481E+0	1.047617E+0	1.163840E+0	1.129154E+0
5.435330E+2	1.289952E+0	1.288425E+0	1.245968E+0	1.284821E+0	1.259717E+0	1.226646E+0	1.297133E+0	1.263637E+0	1.238155E+0	1.271030E+0	1.288003E+0	1.237287E+0	1.273916E+0	1.287008E+0	1.319698E+0	1.277409E+0	1.357937E+0	1.312860E+0	1.267097E+0	1.255210E+0	1.235579E+0	1.234404E+0	1.247026E+0	1.289909E+0	1.225108E+0	1.274766E+0	1.317557E+0	1.288883E+0	1.278712E+0	1.305717E+0	1.332406E+0	1.252837E+0	1.315135E+0	1.289879E+0	1.259696E+0	1.283021E+0	1.247703E+0	1.279782E+0	1.287274E+0	1.255242E+0	1.292337E+0	1.274387E+0	1.277240E+0	1.218326E+0	1.245404E+0	1.267414E+0	1.236216E+0	1.239034E+0	1.263746E+0	1.258367E+0	1.286376E+0	1.297140E+0	1.246012E+0	1.238132E+0	1.237466E+0	1.305064E+0	1.261833E+0	1.242377E+0	1.257489E+0	1.255828E+0	1.288763E+0	1.279566E+0	1.269102E+0	1.255582E+0	1.309592E+0	1.349222E+0	1.312548E+0	1.256800E+0	1.265099E+0	1.266159E+0	1.219067E+0	1.210417E+0	1.244607E+0	1.250961E+0	1.213466E+0	1.224210E+0	1.321345E+0	1.285719E+0	1.236667E+0	1.231298E+0	1.284089E+0	1.283238E+0	1.253009E+0	1.250316E+0	1.237288E+0	1.285405E+0	1.232053E+0	1.253057E+0	1.265481E+0	1.271244E+0	1.232814E+0	1.262585E+0	1.275441E+0	1.227692E+0	1.250432E+0	1.302459E+0	1.312225E+0	1.227135E+0	1.264849E+0	1.265301E+0	1.313987E+0	1.293067E+0	1.228080E+0	1.269126E+0	1.279151E+0	1.172735E+0	1.215838E+0	1.243035E+0	1.254344E+0	1.255855E+0	1.276833E+0	1.180248E+0	1.252239E+0	1.254706E+0	1.161126E+0	1.270814E+0	1.253393E+0	1.242536E+0	1.208006E+0	1.236231E+0	1.229113E+0	1.249680E+0	1.267612E+0	1.220051E+0	1.262457E+0	1.266555E+0	1.197448E+0	1.225912E+0	1.269330E+0	1.261164E+0	1.246818E+0	1.189076E+0	1.257597E+0	1.285246E+0	1.236861E+0	1.289960E+0	1.292935E+0	1.248905E+0	1.240807E+0	1.249143E+0	1.247228E+0	1.307432E+0	1.247305E+0	1.257466E+0	1.332114E+0	1.317570E+0	1.196398E+0	1.238731E+0	1.243083E+0	1.230797E+0	1.272416E+0	1.252231E+0	1.313853E+0	1.206608E+0	1.182835E+0	1.223621E+0	1.214746E+0	1.169966E+0	1.219098E+0	1.289704E+0	1.249275E+0	1.248606E+0	1.178718E+0	1.258397E+0	1.327024E+0	1.263805E+0
5.437640E+2	1.365764E+0	1.444755E+0	1.438389E+0	1.342816E+0	1.355178E+0	1.406984E+0	1.449273E+0	1.339307E+0	1.461563E+0	1.419104E+0	1.401804E+0	1.384749E+0	1.429130E+0	1.409829E+0	1.405519E+0	1.360355E+0	1.413898E+0	1.436308E+0	1.488207E+0	1.404429E+0	1.397994E+0	1.417162E+0	1.384007E+0	1.444239E+0	1.407366E+0	1.409207E+0	1.465269E+0	1.406333E+0	1.426579E+0	1.369328E+0	1.448698E+0	1.378578E+0	1.439470E+0	1.453383E+0	1.448603E+0	1.418434E+0	1.457304E+0	1.414415E+0	1.444506E+0	1.370890E+0	1.403592E+0	1.378892E+0	1.464949E+0	1.401989E+0	1.392728E+0	1.464902E+0	1.389777E+0	1.406952E+0	1.453172E+0	1.427210E+0	1.393882E+0	1.396682E+0	1.393656E+0	1.438227E+0	1.385516E+0	1.389653E+0	1.397394E+0	1.427063E+0	1.434002E+0	1.375595E+0	1.451230E+0	1.412321E+0	1.379751E+0	1.387633E+0	1.369090E+0	1.433852E+0	1.445741E+0	1.426904E+0	1.397355E+0	1.433647E+0	1.362924E+0	1.390696E+0	1.437088E+0	1.447563E+0	1.374820E+0	1.355253E+0	1.416150E+0	1.444123E+0	1.400707E+0	1.389018E+0	1.394061E+0	1.371312E+0	1.370980E+0	1.365438E+0	1.415307E+0	1.376864E+0	1.438429E+0	1.370060E+0	1.486275E+0	1.369730E+0	1.419003E+0	1.399386E+0	1.401822E+0	1.449080E+0	1.384289E+0	1.385079E+0	1.474630E+0	1.373972E+0	1.336895E+0	1.350428E+0	1.384814E+0	1.456799E+0	1.364630E+0	1.413395E+0	1.448661E+0	1.382509E+0	1.416420E+0	1.368897E+0	1.418861E+0	1.410287E+0	1.383309E+0	1.382112E+0	1.435725E+0	1.440434E+0	1.332632E+0	1.419907E+0	1.454618E+0	1.421547E+0	1.432190E+0	1.386406E+0	1.430956E+0	1.462551E+0	1.399216E+0	1.403208E+0	1.433102E+0	1.404953E+0	1.345855E+0	1.339422E+0	1.435939E+0	1.413877E+0	1.380542E+0	1.395533E+0	1.377694E+0	1.444289E+0	1.420684E+0	1.374593E+0	1.404373E+0	1.398576E+0	1.373983E+0	1.380854E+0	1.414019E+0	1.431259E+0	1.448597E+0	1.407819E+0	1.386876E+0	1.409696E+0	1.375716E+0	1.361495E+0	1.363188E+0	1.340086E+0	1.358025E+0	1.343617E+0	1.498611E+0	1.386368E+0	1.340800E+0	1.436126E+0	1.390941E+0	1.392563E+0	1.373919E+0	1.371521E+0	1.442492E+0	1.371621E+0	1.401682E+0	1.437341E+0	1.370351E+0	1.412028E+0
5.440170E+2	1.554797E+0	1.552363E+0	1.479467E+0	1.516257E+0	1.576604E+0	1.560478E+0	1.519004E+0	1.542073E+0	1.530995E+0	1.564479E+0	1.552696E+0	1.592187E+0	1.604577E+0	1.494259E+0	1.551928E+0	1.512755E+0	1.564020E+0	1.559974E+0	1.518584E+0	1.526849E+0	1.504681E+0	1.519687E+0	1.540248E+0	1.547258E+0	1.489184E+0	1.590817E+0	1.539694E+0	1.519043E+0	1.544300E+0	1.558411E+0	1.550385E+0	1.511023E+0	1.615664E+0	1.534196E+0	1.521795E+0	1.549240E+0	1.519437E+0	1.472748E+0	1.512097E+0	1.512760E+0	1.481030E+0	1.516167E+0	1.458493E+0	1.498321E+0	1.521372E+0	1.499470E+0	1.528433E+0	1.501948E+0	1.602435E+0	1.539358E+0	1.501296E+0	1.555284E+0	1.549396E+0	1.568029E+0	1.524764E+0	1.531319E+0	1.597384E+0	1.566692E+0	1.523664E+0	1.454730E+0	1.565545E+0	1.509623E+0	1.485570E+0	1.496591E+0	1.490210E+0	1.557723E+0	1.586071E+0	1.511292E+0	1.536129E+0	1.554285E+0	1.504670E+0	1.475578E+0	1.529856E+0	1.552711E+0	1.507216E+0	1.473072E+0	1.584462E+0	1.555125E+0	1.463290E+0	1.498676E+0	1.540068E+0	1.589414E+0	1.510707E+0	1.516685E+0	1.488899E+0	1.459254E+0	1.497224E+0	1.511260E+0	1.504938E+0	1.534614E+0	1.515683E+0	1.565536E+0	1.553266E+0	1.522260E+0	1.551350E+0	1.444786E+0	1.591204E+0	1.438629E+0	1.522671E+0	1.557107E+0	1.538590E+0	1.591206E+0	1.492560E+0	1.563621E+0	1.505384E+0	1.515760E+0	1.480604E+0	1.442954E+0	1.594529E+0	1.499152E+0	1.547713E+0	1.589992E+0	1.518034E+0	1.591874E+0	1.457155E+0	1.472195E+0	1.513494E+0	1.556361E+0	1.515804E+0	1.477538E+0	1.549014E+0	1.501867E+0	1.448442E+0	1.491631E+0	1.513576E+0	1.525469E+0	1.437496E+0	1.529953E+0	1.576518E+0	1.507043E+0	1.517258E+0	1.471533E+0	1.534974E+0	1.475346E+0	1.514407E+0	1.505414E+0	1.519615E+0	1.509632E+0	1.451956E+0	1.549195E+0	1.550084E+0	1.554031E+0	1.498687E+0	1.481036E+0	1.501937E+0	1.527585E+0	1.470862E+0	1.449460E+0	1.521408E+0	1.462136E+0	1.447663E+0	1.404734E+0	1.577701E+0	1.506958E+0	1.444303E+0	1.480180E+0	1.478939E+0	1.568897E+0	1.476377E+0	1.455355E+0	1.486336E+0	1.489081E+0	1.540245E+0	1.497094E+0	1.533194E+0	1.496206E+0
5.442920E+2	1.650696E+0	1.599063E+0	1.530801E+0	1.570135E+0	1.633667E+0	1.641579E+0	1.612943E+0	1.631456E+0	1.624157E+0	1.569764E+0	1.540496E+0	1.608198E+0	1.584348E+0	1.626398E+0	1.602905E+0	1.533910E+0	1.589256E+0	1.585102E+0	1.624947E+0	1.624309E+0	1.637026E+0	1.574063E+0	1.614787E+0	1.595503E+0	1.523418E+0	1.617874E+0	1.633666E+0	1.586952E+0	1.618582E+0	1.651718E+0	1.597046E+0	1.628873E+0	1.635397E+0	1.693327E+0	1.587232E+0	1.619208E+0	1.581913E+0	1.574969E+0	1.590603E+0	1.603392E+0	1.600195E+0	1.602690E+0	1.617921E+0	1.541426E+0	1.618940E+0	1.565729E+0	1.561591E+0	1.605275E+0	1.595947E+0	1.546501E+0	1.544589E+0	1.579809E+0	1.536393E+0	1.532892E+0	1.576663E+0	1.578209E+0	1.580471E+0	1.584266E+0	1.559798E+0	1.585836E+0	1.603249E+0	1.564115E+0	1.553680E+0	1.562011E+0	1.605959E+0	1.541789E+0	1.645765E+0	1.638458E+0	1.604122E+0	1.600678E+0	1.522445E+0	1.502468E+0	1.623499E+0	1.618192E+0	1.561328E+0	1.546841E+0	1.599678E+0	1.599622E+0	1.591574E+0	1.565033E+0	1.598675E+0	1.629586E+0	1.515294E+0	1.571334E+0	1.554758E+0	1.552421E+0	1.557194E+0	1.570974E+0	1.582404E+0	1.589584E+0	1.542514E+0	1.564598E+0	1.574457E+0	1.579561E+0	1.570657E+0	1.639731E+0	1.602381E+0	1.546912E+0	1.550288E+0	1.560874E+0	1.593940E+0	1.583580E+0	1.556360E+0	1.562470E+0	1.554395E+0	1.536842E+0	1.514925E+0	1.576445E+0	1.579702E+0	1.525038E+0	1.539039E+0	1.551249E+0	1.626690E+0	1.632239E+0	1.484274E+0	1.538194E+0	1.549036E+0	1.606683E+0	1.584294E+0	1.612371E+0	1.613312E+0	1.580554E+0	1.570010E+0	1.564265E+0	1.639769E+0	1.583766E+0	1.558411E+0	1.553947E+0	1.586001E+0	1.548924E+0	1.600693E+0	1.559213E+0	1.615639E+0	1.623465E+0	1.560833E+0	1.599942E+0	1.606522E+0	1.605872E+0	1.527828E+0	1.505425E+0	1.601192E+0	1.618181E+0	1.513828E+0	1.540870E+0	1.607131E+0	1.642451E+0	1.551569E+0	1.524615E+0	1.555530E+0	1.601342E+0	1.560236E+0	1.501012E+0	1.605697E+0	1.465495E+0	1.518644E+0	1.526421E+0	1.541057E+0	1.585154E+0	1.551619E+0	1.576395E+0	1.549098E+0	1.572954E+0	1.549349E+0	1.549704E+0	1.604826E+0	1.574343E+0
5.445070E+2	1.649036E+0	1.678390E+0	1.571143E+0	1.599931E+0	1.551751E+0	1.692396E+0	1.654016E+0	1.549884E+0	1.563145E+0	1.613673E+0	1.572667E+0	1.669325E+0	1.621889E+0	1.621603E+0	1.656518E+0	1.596784E+0	1.621692E+0	1.603477E+0	1.585792E+0	1.546187E+0	1.658969E+0	1.627946E+0	1.557777E+0	1.650643E+0	1.620547E+0	1.600977E+0	1.677947E+0	1.632715E+0	1.625416E+0	1.671560E+0	1.677956E+0	1.677704E+0	1.617197E+0	1.652018E+0	1.614641E+0	1.605866E+0	1.637328E+0	1.656783E+0	1.626952E+0	1.626840E+0	1.649379E+0	1.604879E+0	1.586619E+0	1.572783E+0	1.571241E+0	1.606776E+0	1.620987E+0	1.593366E+0	1.686016E+0	1.608264E+0	1.609957E+0	1.622447E+0	1.583031E+0	1.586678E+0	1.641738E+0	1.574525E+0	1.631602E+0	1.602349E+0	1.553425E+0	1.580511E+0	1.621535E+0	1.619209E+0	1.567689E+0	1.590231E+0	1.600290E+0	1.624232E+0	1.719670E+0	1.592408E+0	1.665575E+0	1.652524E+0	1.538013E+0	1.545621E+0	1.653748E+0	1.599452E+0	1.509214E+0	1.568422E+0	1.623606E+0	1.617599E+0	1.619082E+0	1.603537E+0	1.648763E+0	1.660211E+0	1.596385E+0	1.606248E+0	1.601421E+0	1.576917E+0	1.599502E+0	1.608563E+0	1.569943E+0	1.603028E+0	1.585160E+0	1.605597E+0	1.650296E+0	1.641897E+0	1.594414E+0	1.516881E+0	1.637855E+0	1.612116E+0	1.556876E+0	1.616522E+0	1.618942E+0	1.592330E+0	1.583329E+0	1.620173E+0	1.611319E+0	1.509629E+0	1.574469E+0	1.622110E+0	1.712223E+0	1.594836E+0	1.625930E+0	1.558292E+0	1.641258E+0	1.637142E+0	1.597629E+0	1.561065E+0	1.687663E+0	1.612538E+0	1.567240E+0	1.568110E+0	1.586254E+0	1.588395E+0	1.543566E+0	1.565587E+0	1.651348E+0	1.527257E+0	1.569685E+0	1.578755E+0	1.617560E+0	1.645956E+0	1.625193E+0	1.565443E+0	1.624843E+0	1.668920E+0	1.626171E+0	1.567217E+0	1.585221E+0	1.620024E+0	1.541957E+0	1.562454E+0	1.628491E+0	1.545345E+0	1.544062E+0	1.598412E+0	1.577473E+0	1.624758E+0	1.532235E+0	1.560357E+0	1.579591E+0	1.621478E+0	1.494517E+0	1.511380E+0	1.643425E+0	1.501692E+0	1.521198E+0	1.594738E+0	1.558558E+0	1.501155E+0	1.555099E+0	1.558900E+0	1.541294E+0	1.573565E+0	1.499737E+0	1.531726E+0	1.503460E+0	1.620178E+0
5.447720E+2	1.588504E+0	1.600489E+0	1.570820E+0	1.599486E+0	1.525408E+0	1.572534E+0	1.583663E+0	1.554498E+0	1.486808E+0	1.592665E+0	1.579694E+0	1.619136E+0	1.587553E+0	1.569707E+0	1.577633E+0	1.604663E+0	1.558288E+0	1.620453E+0	1.555930E+0	1.568406E+0	1.571628E+0	1.536797E+0	1.608928E+0	1.620439E+0	1.596561E+0	1.612615E+0	1.637743E+0	1.538425E+0	1.567056E+0	1.538540E+0	1.578300E+0	1.614520E+0	1.560168E+0	1.637841E+0	1.612442E+0	1.533029E+0	1.561078E+0	1.535200E+0	1.561590E+0	1.557912E+0	1.524875E+0	1.597670E+0	1.542998E+0	1.546053E+0	1.568453E+0	1.553771E+0	1.561057E+0	1.543242E+0	1.642768E+0	1.602326E+0	1.514048E+0	1.599795E+0	1.562465E+0	1.528937E+0	1.545561E+0	1.564342E+0	1.549456E+0	1.562856E+0	1.550636E+0	1.561728E+0	1.595290E+0	1.599656E+0	1.554944E+0	1.564937E+0	1.560135E+0	1.605378E+0	1.609844E+0	1.574116E+0	1.573744E+0	1.559909E+0	1.581164E+0	1.536583E+0	1.624090E+0	1.567349E+0	1.563983E+0	1.466787E+0	1.642585E+0	1.622130E+0	1.573599E+0	1.535360E+0	1.572772E+0	1.537249E+0	1.505629E+0	1.512844E+0	1.576229E+0	1.497110E+0	1.468539E+0	1.528582E+0	1.518248E+0	1.533743E+0	1.525450E+0	1.546382E+0	1.525736E+0	1.527507E+0	1.536231E+0	1.558115E+0	1.589157E+0	1.505393E+0	1.546325E+0	1.521507E+0	1.641860E+0	1.532304E+0	1.565301E+0	1.536143E+0	1.595241E+0	1.523133E+0	1.492714E+0	1.565044E+0	1.598993E+0	1.537454E+0	1.517746E+0	1.522615E+0	1.587600E+0	1.581848E+0	1.512756E+0	1.557739E+0	1.586658E+0	1.522918E+0	1.562740E+0	1.565145E+0	1.493960E+0	1.545052E+0	1.524109E+0	1.541819E+0	1.536029E+0	1.543534E+0	1.528767E+0	1.531810E+0	1.506045E+0	1.620824E+0	1.542466E+0	1.517412E+0	1.463253E+0	1.545169E+0	1.539682E+0	1.568730E+0	1.566492E+0	1.581581E+0	1.507833E+0	1.462294E+0	1.575968E+0	1.555269E+0	1.470755E+0	1.554378E+0	1.585950E+0	1.535249E+0	1.547196E+0	1.537108E+0	1.529878E+0	1.593372E+0	1.525926E+0	1.521090E+0	1.547876E+0	1.578113E+0	1.537033E+0	1.533762E+0	1.553145E+0	1.572256E+0	1.516198E+0	1.536040E+0	1.567250E+0	1.535749E+0	1.544578E+0	1.494071E+0	1.535881E+0	1.558123E+0
5.450150E+2	1.498454E+0	1.473080E+0	1.442098E+0	1.514075E+0	1.508133E+0	1.569855E+0	1.467613E+0	1.530512E+0	1.437473E+0	1.551939E+0	1.423644E+0	1.524246E+0	1.448988E+0	1.538291E+0	1.487694E+0	1.462621E+0	1.525022E+0	1.550725E+0	1.517299E+0	1.495721E+0	1.517113E+0	1.532345E+0	1.511777E+0	1.503570E+0	1.502143E+0	1.525478E+0	1.576360E+0	1.521195E+0	1.487995E+0	1.507442E+0	1.468524E+0	1.556669E+0	1.518485E+0	1.547886E+0	1.528998E+0	1.498408E+0	1.543190E+0	1.523370E+0	1.507847E+0	1.549934E+0	1.507574E+0	1.574875E+0	1.454626E+0	1.475956E+0	1.470471E+0	1.509064E+0	1.510894E+0	1.510577E+0	1.504168E+0	1.498407E+0	1.425912E+0	1.540695E+0	1.504780E+0	1.447398E+0	1.490010E+0	1.520631E+0	1.497223E+0	1.551180E+0	1.506357E+0	1.446214E+0	1.544134E+0	1.506548E+0	1.482062E+0	1.490546E+0	1.472938E+0	1.485913E+0	1.550341E+0	1.462519E+0	1.491537E+0	1.483646E+0	1.482525E+0	1.459043E+0	1.554381E+0	1.522366E+0	1.464111E+0	1.453286E+0	1.512393E+0	1.528247E+0	1.430789E+0	1.489076E+0	1.512757E+0	1.554675E+0	1.479737E+0	1.416232E+0	1.504867E+0	1.453967E+0	1.482587E+0	1.489556E+0	1.529432E+0	1.462701E+0	1.501957E+0	1.498962E+0	1.519969E+0	1.472278E+0	1.420805E+0	1.501540E+0	1.535781E+0	1.483745E+0	1.463181E+0	1.471602E+0	1.522109E+0	1.425580E+0	1.518444E+0	1.501627E+0	1.515068E+0	1.493500E+0	1.452727E+0	1.451417E+0	1.469042E+0	1.524020E+0	1.484122E+0	1.491355E+0	1.533388E+0	1.446025E+0	1.440561E+0	1.481024E+0	1.508444E+0	1.508845E+0	1.464873E+0	1.509445E+0	1.506717E+0	1.506974E+0	1.397820E+0	1.535380E+0	1.534128E+0	1.458269E+0	1.524517E+0	1.469830E+0	1.476098E+0	1.563080E+0	1.464788E+0	1.491934E+0	1.488979E+0	1.510056E+0	1.526491E+0	1.498772E+0	1.506154E+0	1.521189E+0	1.459798E+0	1.435403E+0	1.488390E+0	1.526853E+0	1.421301E+0	1.455893E+0	1.486882E+0	1.552733E+0	1.513188E+0	1.447683E+0	1.481002E+0	1.494599E+0	1.482004E+0	1.487448E+0	1.484263E+0	1.472919E+0	1.449919E+0	1.471349E+0	1.527893E+0	1.425349E+0	1.472880E+0	1.513508E+0	1.483897E+0	1.500208E+0	1.437105E+0	1.445594E+0	1.478237E+0	1.448661E+0
5.452580E+2	1.434483E+0	1.457041E+0	1.441083E+0	1.442157E+0	1.381052E+0	1.416872E+0	1.513265E+0	1.440659E+0	1.433582E+0	1.482150E+0	1.417410E+0	1.452914E+0	1.469565E+0	1.461266E+0	1.492526E+0	1.402801E+0	1.458357E+0	1.433049E+0	1.487352E+0	1.414591E+0	1.446438E+0	1.427435E+0	1.458378E+0	1.486121E+0	1.445897E+0	1.461750E+0	1.480175E+0	1.464191E+0	1.429478E+0	1.471240E+0	1.463794E+0	1.430163E+0	1.486448E+0	1.510415E+0	1.436063E+0	1.506539E+0	1.430826E+0	1.399373E+0	1.441546E+0	1.465180E+0	1.464549E+0	1.461620E+0	1.389353E+0	1.469024E+0	1.435141E+0	1.476200E+0	1.450536E+0	1.378346E+0	1.515627E+0	1.475041E+0	1.496568E+0	1.416688E+0	1.410347E+0	1.453355E+0	1.464037E+0	1.482773E+0	1.452607E+0	1.505379E+0	1.462525E+0	1.454914E+0	1.429626E+0	1.392334E+0	1.419780E+0	1.386227E+0	1.426438E+0	1.496241E+0	1.405550E+0	1.450596E+0	1.396794E+0	1.426613E+0	1.420541E+0	1.418948E+0	1.417094E+0	1.453781E+0	1.412633E+0	1.351015E+0	1.397357E+0	1.507874E+0	1.419674E+0	1.461270E+0	1.464902E+0	1.434422E+0	1.457422E+0	1.382884E+0	1.416712E+0	1.447828E+0	1.388172E+0	1.354765E+0	1.447789E+0	1.443667E+0	1.407225E+0	1.400242E+0	1.415312E+0	1.412866E+0	1.468003E+0	1.456316E+0	1.490598E+0	1.364233E+0	1.430560E+0	1.453486E+0	1.404079E+0	1.419068E+0	1.406483E+0	1.449086E+0	1.460997E+0	1.432708E+0	1.433629E+0	1.410545E+0	1.496146E+0	1.431394E+0	1.402364E+0	1.411724E+0	1.444311E+0	1.474993E+0	1.379047E+0	1.407279E+0	1.432679E+0	1.424143E+0	1.416817E+0	1.453640E+0	1.398678E+0	1.416599E+0	1.457801E+0	1.451308E+0	1.469441E+0	1.398101E+0	1.440304E+0	1.415609E+0	1.413486E+0	1.423683E+0	1.402144E+0	1.417873E+0	1.443419E+0	1.434865E+0	1.429178E+0	1.444424E+0	1.381648E+0	1.478165E+0	1.399480E+0	1.439099E+0	1.427519E+0	1.406694E+0	1.416137E+0	1.413370E+0	1.452822E+0	1.470292E+0	1.351412E+0	1.457083E+0	1.458437E+0	1.421290E+0	1.394155E+0	1.383647E+0	1.475498E+0	1.445095E+0	1.394212E+0	1.428101E+0	1.425656E+0	1.449633E+0	1.441942E+0	1.391521E+0	1.443133E+0	1.424170E+0	1.396903E+0	1.463155E+0	1.387858E+0	1.358929E+0
5.455130E+2	1.398193E+0	1.416714E+0	1.362189E+0	1.367122E+0	1.385977E+0	1.378420E+0	1.444859E+0	1.402218E+0	1.319950E+0	1.327062E+0	1.394501E+0	1.407855E+0	1.350383E+0	1.341520E+0	1.417308E+0	1.318360E+0	1.381980E+0	1.403545E+0	1.414504E+0	1.402245E+0	1.358702E+0	1.331438E+0	1.318264E+0	1.434161E+0	1.373653E+0	1.422577E+0	1.396574E+0	1.297150E+0	1.437071E+0	1.386674E+0	1.412724E+0	1.361007E+0	1.393376E+0	1.407239E+0	1.423611E+0	1.350930E+0	1.349340E+0	1.367065E+0	1.348650E+0	1.355252E+0	1.365516E+0	1.358220E+0	1.369128E+0	1.390542E+0	1.350106E+0	1.394878E+0	1.407636E+0	1.387364E+0	1.410381E+0	1.398792E+0	1.377729E+0	1.356719E+0	1.342454E+0	1.384324E+0	1.380630E+0	1.417522E+0	1.417882E+0	1.386107E+0	1.349080E+0	1.387847E+0	1.403185E+0	1.390225E+0	1.354823E+0	1.320747E+0	1.346197E+0	1.427739E+0	1.408769E+0	1.346272E+0	1.418179E+0	1.406229E+0	1.351556E+0	1.352883E+0	1.375120E+0	1.362922E+0	1.335419E+0	1.288197E+0	1.372485E+0	1.385416E+0	1.313767E+0	1.354808E+0	1.352540E+0	1.388344E+0	1.338738E+0	1.354432E+0	1.351948E+0	1.362434E+0	1.332213E+0	1.317973E+0	1.394144E+0	1.347321E+0	1.348732E+0	1.341353E+0	1.363305E+0	1.391334E+0	1.340408E+0	1.344597E+0	1.327571E+0	1.315046E+0	1.286944E+0	1.379525E+0	1.350583E+0	1.365895E+0	1.372730E+0	1.382116E+0	1.317827E+0	1.371244E+0	1.315288E+0	1.348377E+0	1.413667E+0	1.359643E+0	1.334925E+0	1.371370E+0	1.418019E+0	1.337346E+0	1.331369E+0	1.386648E+0	1.375475E+0	1.356734E+0	1.374853E+0	1.377988E+0	1.349596E+0	1.380894E+0	1.374298E+0	1.376112E+0	1.396732E+0	1.318485E+0	1.359783E+0	1.327112E+0	1.419052E+0	1.425581E+0	1.344955E+0	1.367822E+0	1.360146E+0	1.382752E+0	1.402595E+0	1.352433E+0	1.365668E+0	1.441713E+0	1.366362E+0	1.298055E+0	1.350894E+0	1.319862E+0	1.371876E+0	1.381876E+0	1.384292E+0	1.385108E+0	1.314414E+0	1.362229E+0	1.432856E+0	1.345055E+0	1.399766E+0	1.307510E+0	1.365032E+0	1.307358E+0	1.335571E+0	1.344716E+0	1.395941E+0	1.373584E+0	1.352842E+0	1.308122E+0	1.387339E+0	1.353174E+0	1.314851E+0	1.309309E+0	1.341638E+0	1.370702E+0
5.457890E+2	1.330903E+0	1.356257E+0	1.316639E+0	1.282753E+0	1.247079E+0	1.321950E+0	1.310035E+0	1.286144E+0	1.274905E+0	1.281520E+0	1.275508E+0	1.368552E+0	1.246002E+0	1.301779E+0	1.360581E+0	1.266192E+0	1.279159E+0	1.340139E+0	1.301085E+0	1.298148E+0	1.346644E+0	1.320602E+0	1.313619E+0	1.295884E+0	1.270586E+0	1.314460E+0	1.408961E+0	1.248539E+0	1.286531E+0	1.292144E+0	1.332184E+0	1.336087E+0	1.276724E+0	1.308054E+0	1.300531E+0	1.306143E+0	1.323791E+0	1.363846E+0	1.315653E+0	1.329774E+0	1.324128E+0	1.303667E+0	1.313573E+0	1.283726E+0	1.294602E+0	1.366432E+0	1.319762E+0	1.302632E+0	1.318629E+0	1.325875E+0	1.308410E+0	1.311597E+0	1.299203E+0	1.312763E+0	1.280903E+0	1.251538E+0	1.321745E+0	1.294233E+0	1.280990E+0	1.287205E+0	1.260216E+0	1.315347E+0	1.292967E+0	1.298484E+0	1.307905E+0	1.376208E+0	1.333811E+0	1.280116E+0	1.279818E+0	1.300905E+0	1.285761E+0	1.314022E+0	1.308468E+0	1.339218E+0	1.290035E+0	1.250467E+0	1.296179E+0	1.318146E+0	1.279290E+0	1.283238E+0	1.349683E+0	1.305010E+0	1.302269E+0	1.288413E+0	1.262102E+0	1.253648E+0	1.269585E+0	1.310438E+0	1.306898E+0	1.282698E+0	1.314343E+0	1.305292E+0	1.332486E+0	1.270885E+0	1.280843E+0	1.292070E+0	1.362735E+0	1.309786E+0	1.297750E+0	1.264151E+0	1.312140E+0	1.344439E+0	1.242392E+0	1.353928E+0	1.349029E+0	1.262566E+0	1.219640E+0	1.266584E+0	1.286712E+0	1.317964E+0	1.290271E+0	1.263105E+0	1.338593E+0	1.291371E+0	1.191306E+0	1.255297E+0	1.349464E+0	1.304780E+0	1.296355E+0	1.306057E+0	1.280159E+0	1.260456E+0	1.289198E+0	1.229134E+0	1.313701E+0	1.329852E+0	1.283161E+0	1.286607E+0	1.318909E+0	1.297682E+0	1.277024E+0	1.261121E+0	1.308727E+0	1.277146E+0	1.307899E+0	1.275249E+0	1.267339E+0	1.278124E+0	1.225991E+0	1.278950E+0	1.298681E+0	1.317923E+0	1.278927E+0	1.292304E+0	1.303998E+0	1.326361E+0	1.203056E+0	1.272078E+0	1.265187E+0	1.276122E+0	1.222286E+0	1.288364E+0	1.304785E+0	1.382817E+0	1.276150E+0	1.284223E+0	1.289659E+0	1.329685E+0	1.295506E+0	1.277354E+0	1.265822E+0	1.296495E+0	1.329543E+0	1.265406E+0	1.297055E+0	1.180849E+0
5.460060E+2	1.257598E+0	1.283216E+0	1.213365E+0	1.178472E+0	1.236638E+0	1.213767E+0	1.296173E+0	1.197597E+0	1.225774E+0	1.272462E+0	1.226932E+0	1.305193E+0	1.201587E+0	1.242035E+0	1.222953E+0	1.280394E+0	1.202995E+0	1.241361E+0	1.192921E+0	1.228408E+0	1.223645E+0	1.267083E+0	1.186690E+0	1.230119E+0	1.222891E+0	1.261994E+0	1.279884E+0	1.278253E+0	1.252677E+0	1.324157E+0	1.259176E+0	1.260158E+0	1.298935E+0	1.243352E+0	1.221708E+0	1.235282E+0	1.180582E+0	1.232842E+0	1.232521E+0	1.211809E+0	1.242650E+0	1.245004E+0	1.245262E+0	1.205205E+0	1.236302E+0	1.263188E+0	1.215929E+0	1.268869E+0	1.245209E+0	1.273104E+0	1.229322E+0	1.241876E+0	1.246501E+0	1.234514E+0	1.224890E+0	1.222365E+0	1.203865E+0	1.212281E+0	1.184424E+0	1.235311E+0	1.205855E+0	1.275578E+0	1.239315E+0	1.216843E+0	1.229284E+0	1.266444E+0	1.242789E+0	1.162660E+0	1.201800E+0	1.250759E+0	1.263132E+0	1.180463E+0	1.239363E+0	1.280080E+0	1.240856E+0	1.164956E+0	1.185828E+0	1.275595E+0	1.248020E+0	1.182884E+0	1.238765E+0	1.296507E+0	1.217855E+0	1.237754E+0	1.189586E+0	1.279359E+0	1.218372E+0	1.184920E+0	1.247005E+0	1.231623E+0	1.234134E+0	1.255976E+0	1.239024E+0	1.235064E+0	1.235113E+0	1.242119E+0	1.255253E+0	1.187644E+0	1.238795E+0	1.228713E+0	1.226370E+0	1.187755E+0	1.171309E+0	1.215853E+0	1.279389E+0	1.200690E+0	1.257368E+0	1.220558E+0	1.238795E+0	1.253347E+0	1.241916E+0	1.256109E+0	1.268885E+0	1.266266E+0	1.222435E+0	1.232484E+0	1.195805E+0	1.279634E+0	1.216853E+0	1.234776E+0	1.239172E+0	1.308517E+0	1.247332E+0	1.209331E+0	1.300957E+0	1.195314E+0	1.201875E+0	1.204192E+0	1.186293E+0	1.252684E+0	1.213195E+0	1.267587E+0	1.215187E+0	1.291425E+0	1.248589E+0	1.232884E+0	1.194446E+0	1.312233E+0	1.225708E+0	1.224245E+0	1.214515E+0	1.201268E+0	1.228932E+0	1.275813E+0	1.170998E+0	1.273100E+0	1.223461E+0	1.200273E+0	1.235645E+0	1.239871E+0	1.201538E+0	1.239765E+0	1.223289E+0	1.206346E+0	1.199689E+0	1.268505E+0	1.253164E+0	1.200399E+0	1.193297E+0	1.219028E+0	1.261771E+0	1.266711E+0	1.168923E+0	1.205419E+0	1.228163E+0	1.261754E+0
5.467600E+2	1.252925E+0	1.250462E+0	1.203433E+0	1.214296E+0	1.265473E+0	1.302803E+0	1.216006E+0	1.208762E+0	1.183587E+0	1.256249E+0	1.165839E+0	1.247796E+0	1.145781E+0	1.187602E+0	1.223087E+0	1.262942E+0	1.226776E+0	1.224344E+0	1.233945E+0	1.176557E+0	1.213934E+0	1.187950E+0	1.208972E+0	1.210527E+0	1.178680E+0	1.202258E+0	1.251606E+0	1.184587E+0	1.215893E+0	1.207541E+0	1.201662E+0	1.209324E+0	1.238977E+0	1.191540E+0	1.231828E+0	1.206472E+0	1.215509E+0	1.165173E+0	1.279272E+0	1.207541E+0	1.203006E+0	1.261603E+0	1.163925E+0	1.214118E+0	1.180215E+0	1.216748E+0	1.207409E+0	1.176625E+0	1.231602E+0	1.201356E+0	1.252916E+0	1.215637E+0	1.185769E+0	1.198584E+0	1.221095E+0	1.172245E+0	1.181681E+0	1.220574E+0	1.201396E+0	1.210533E+0	1.190738E+0	1.175448E+0	1.183845E+0	1.183542E+0	1.186196E+0	1.232400E+0	1.246915E+0	1.191340E+0	1.246247E+0	1.250463E+0	1.184588E+0	1.202338E+0	1.202600E+0	1.143564E+0	1.201504E+0	1.174873E+0	1.224695E+0	1.258009E+0	1.199189E+0	1.293943E+0	1.222044E+0	1.274444E+0	1.208200E+0	1.204193E+0	1.139254E+0	1.175293E+0	1.174872E+0	1.252820E+0	1.209982E+0	1.185351E+0	1.200052E+0	1.145229E+0	1.225913E+0	1.210535E+0	1.176543E+0	1.163421E+0	1.215892E+0	1.207380E+0	1.177829E+0	1.179685E+0	1.186051E+0	1.237254E+0	1.193553E+0	1.204561E+0	1.203254E+0	1.164529E+0	1.184199E+0	1.177301E+0	1.208303E+0	1.236633E+0	1.217153E+0	1.178347E+0	1.198314E+0	1.226224E+0	1.177268E+0	1.231556E+0	1.255289E+0	1.199990E+0	1.245696E+0	1.224337E+0	1.158627E+0	1.173254E+0	1.142423E+0	1.251479E+0	1.162610E+0	1.183148E+0	1.242736E+0	1.157106E+0	1.145427E+0	1.219714E+0	1.240043E+0	1.187988E+0	1.188451E+0	1.241845E+0	1.193643E+0	1.187405E+0	1.142680E+0	1.207034E+0	1.184461E+0	1.179311E+0	1.184420E+0	1.231256E+0	1.130587E+0	1.172922E+0	1.098192E+0	1.249800E+0	1.172113E+0	1.208461E+0	1.171489E+0	1.181293E+0	1.170094E+0	1.204604E+0	1.224765E+0	1.220496E+0	1.200063E+0	1.183619E+0	1.206270E+0	1.259910E+0	1.168119E+0	1.191300E+0	1.156223E+0	1.212264E+0	1.193225E+0	1.271943E+0	1.247486E+0	1.166928E+0
5.475230E+2	1.345540E+0	1.298621E+0	1.299548E+0	1.323525E+0	1.311273E+0	1.283794E+0	1.342232E+0	1.268223E+0	1.257959E+0	1.319574E+0	1.263137E+0	1.355023E+0	1.306985E+0	1.339700E+0	1.297445E+0	1.317861E+0	1.267013E+0	1.324240E+0	1.380122E+0	1.332114E+0	1.304598E+0	1.339129E+0	1.310952E+0	1.350493E+0	1.264038E+0	1.327351E+0	1.310633E+0	1.304941E+0	1.308959E+0	1.324508E+0	1.344657E+0	1.303732E+0	1.324042E+0	1.254933E+0	1.275136E+0	1.256513E+0	1.325245E+0	1.327539E+0	1.285583E+0	1.317993E+0	1.280905E+0	1.303107E+0	1.273080E+0	1.284521E+0	1.276247E+0	1.306432E+0	1.289985E+0	1.307793E+0	1.296817E+0	1.330856E+0	1.299327E+0	1.356481E+0	1.326833E+0	1.268978E+0	1.373809E+0	1.329873E+0	1.275617E+0	1.360309E+0	1.235301E+0	1.310682E+0	1.341720E+0	1.300001E+0	1.344130E+0	1.277937E+0	1.264912E+0	1.379414E+0	1.307199E+0	1.271931E+0	1.324589E+0	1.341609E+0	1.248346E+0	1.297876E+0	1.293306E+0	1.288971E+0	1.287616E+0	1.266951E+0	1.323612E+0	1.355397E+0	1.296459E+0	1.288000E+0	1.265663E+0	1.329361E+0	1.276697E+0	1.257360E+0	1.333903E+0	1.250804E+0	1.251113E+0	1.300938E+0	1.300590E+0	1.278282E+0	1.253336E+0	1.315155E+0	1.313589E+0	1.310596E+0	1.297541E+0	1.306091E+0	1.313487E+0	1.291441E+0	1.354077E+0	1.281504E+0	1.265026E+0	1.261699E+0	1.312921E+0	1.278836E+0	1.293229E+0	1.320312E+0	1.285963E+0	1.232403E+0	1.316295E+0	1.319165E+0	1.340167E+0	1.266273E+0	1.261173E+0	1.273802E+0	1.288396E+0	1.315027E+0	1.297459E+0	1.246870E+0	1.297808E+0	1.293008E+0	1.252258E+0	1.368207E+0	1.307819E+0	1.299742E+0	1.343112E+0	1.316712E+0	1.293762E+0	1.327857E+0	1.311536E+0	1.397279E+0	1.311022E+0	1.267078E+0	1.315186E+0	1.306739E+0	1.270738E+0	1.358953E+0	1.372930E+0	1.370910E+0	1.283405E+0	1.263879E+0	1.309029E+0	1.297441E+0	1.246448E+0	1.306436E+0	1.297434E+0	1.320574E+0	1.282707E+0	1.250873E+0	1.278208E+0	1.293574E+0	1.265090E+0	1.188383E+0	1.270888E+0	1.299890E+0	1.320832E+0	1.280023E+0	1.283566E+0	1.306264E+0	1.298465E+0	1.257861E+0	1.246022E+0	1.298140E+0	1.278179E+0	1.216727E+0	1.189001E+0	1.376022E+0
5.482600E+2	1.433495E+0	1.351993E+0	1.354655E+0	1.408701E+0	1.338551E+0	1.425153E+0	1.439672E+0	1.374382E+0	1.378360E+0	1.441108E+0	1.328525E+0	1.436077E+0	1.428213E+0	1.456836E+0	1.406667E+0	1.392273E+0	1.385552E+0	1.416029E+0	1.383090E+0	1.338320E+0	1.422524E+0	1.403635E+0	1.443777E+0	1.478205E+0	1.428037E+0	1.431937E+0	1.471449E+0	1.379665E+0	1.439812E+0	1.421849E+0	1.452885E+0	1.389269E+0	1.368263E+0	1.414444E+0	1.399632E+0	1.416754E+0	1.341341E+0	1.406043E+0	1.349687E+0	1.399490E+0	1.407196E+0	1.434016E+0	1.429941E+0	1.414503E+0	1.362933E+0	1.402546E+0	1.359567E+0	1.395834E+0	1.452701E+0	1.406189E+0	1.361938E+0	1.372380E+0	1.419501E+0	1.389509E+0	1.371432E+0	1.444667E+0	1.423322E+0	1.405228E+0	1.380657E+0	1.327955E+0	1.386132E+0	1.461328E+0	1.365173E+0	1.344925E+0	1.390277E+0	1.425112E+0	1.396989E+0	1.409041E+0	1.354738E+0	1.414590E+0	1.353716E+0	1.348514E+0	1.356032E+0	1.414814E+0	1.408072E+0	1.366151E+0	1.360943E+0	1.428836E+0	1.348751E+0	1.410272E+0	1.386519E+0	1.455127E+0	1.384022E+0	1.352350E+0	1.441670E+0	1.384087E+0	1.422364E+0	1.399255E+0	1.322514E+0	1.380681E+0	1.350409E+0	1.375374E+0	1.395400E+0	1.470535E+0	1.337219E+0	1.354174E+0	1.374831E+0	1.406318E+0	1.396239E+0	1.414510E+0	1.425475E+0	1.355504E+0	1.369342E+0	1.342834E+0	1.359981E+0	1.388144E+0	1.343854E+0	1.371134E+0	1.439984E+0	1.420135E+0	1.368614E+0	1.381198E+0	1.384676E+0	1.413872E+0	1.383576E+0	1.408510E+0	1.390893E+0	1.416127E+0	1.377845E+0	1.379423E+0	1.403951E+0	1.382500E+0	1.376957E+0	1.405404E+0	1.469065E+0	1.388017E+0	1.346959E+0	1.390631E+0	1.405803E+0	1.408255E+0	1.424454E+0	1.381570E+0	1.420916E+0	1.449516E+0	1.376267E+0	1.378721E+0	1.424078E+0	1.349956E+0	1.312994E+0	1.375187E+0	1.381450E+0	1.354628E+0	1.327259E+0	1.332301E+0	1.417926E+0	1.399239E+0	1.380410E+0	1.317103E+0	1.353975E+0	1.375305E+0	1.400318E+0	1.389566E+0	1.413016E+0	1.400855E+0	1.417777E+0	1.435675E+0	1.336637E+0	1.415985E+0	1.375613E+0	1.376690E+0	1.367730E+0	1.422523E+0	1.347048E+0	1.391225E+0	1.385166E+0	1.433190E+0
5.490100E+2	1.430477E+0	1.436583E+0	1.384761E+0	1.384515E+0	1.372122E+0	1.400004E+0	1.458967E+0	1.404149E+0	1.343752E+0	1.433431E+0	1.399937E+0	1.430908E+0	1.402375E+0	1.427390E+0	1.410594E+0	1.401005E+0	1.424596E+0	1.428598E+0	1.412792E+0	1.367953E+0	1.409172E+0	1.394458E+0	1.352973E+0	1.382172E+0	1.365754E+0	1.436404E+0	1.477433E+0	1.405109E+0	1.404996E+0	1.403810E+0	1.470571E+0	1.376807E+0	1.417866E+0	1.468877E+0	1.413000E+0	1.372384E+0	1.349689E+0	1.389855E+0	1.394055E+0	1.387946E+0	1.399250E+0	1.430553E+0	1.437583E+0	1.397829E+0	1.381459E+0	1.405344E+0	1.387376E+0	1.386438E+0	1.386903E+0	1.479240E+0	1.438247E+0	1.351079E+0	1.364169E+0	1.412097E+0	1.369097E+0	1.450038E+0	1.435993E+0	1.405145E+0	1.414011E+0	1.363313E+0	1.436294E+0	1.425190E+0	1.420285E+0	1.448448E+0	1.397933E+0	1.417147E+0	1.436909E+0	1.428834E+0	1.372423E+0	1.396149E+0	1.363406E+0	1.408398E+0	1.404214E+0	1.367907E+0	1.376661E+0	1.407235E+0	1.391537E+0	1.481843E+0	1.377463E+0	1.403617E+0	1.452661E+0	1.380477E+0	1.365898E+0	1.395039E+0	1.407584E+0	1.404841E+0	1.356241E+0	1.391569E+0	1.414923E+0	1.439688E+0	1.416140E+0	1.429581E+0	1.426080E+0	1.434986E+0	1.410660E+0	1.382875E+0	1.418945E+0	1.389352E+0	1.376003E+0	1.354850E+0	1.444857E+0	1.378587E+0	1.385433E+0	1.399755E+0	1.376145E+0	1.371571E+0	1.351744E+0	1.414546E+0	1.353929E+0	1.426157E+0	1.392743E+0	1.344926E+0	1.389487E+0	1.389011E+0	1.299377E+0	1.376986E+0	1.405001E+0	1.346774E+0	1.400441E+0	1.371762E+0	1.363019E+0	1.431948E+0	1.381734E+0	1.473851E+0	1.352730E+0	1.441152E+0	1.316569E+0	1.365749E+0	1.380549E+0	1.487484E+0	1.429992E+0	1.408819E+0	1.372458E+0	1.419984E+0	1.390563E+0	1.472115E+0	1.402187E+0	1.411406E+0	1.353410E+0	1.368065E+0	1.344732E+0	1.429036E+0	1.373101E+0	1.388302E+0	1.430556E+0	1.382330E+0	1.375702E+0	1.395397E+0	1.415858E+0	1.432313E+0	1.379635E+0	1.408002E+0	1.388165E+0	1.395426E+0	1.402618E+0	1.357972E+0	1.306105E+0	1.356732E+0	1.339955E+0	1.393307E+0	1.361214E+0	1.394385E+0	1.347313E+0	1.401331E+0	1.390030E+0	1.342735E+0
5.497680E+2	1.389622E+0	1.373140E+0	1.356834E+0	1.377281E+0	1.414293E+0	1.324867E+0	1.378287E+0	1.363072E+0	1.334968E+0	1.368808E+0	1.381213E+0	1.394826E+0	1.349978E+0	1.327231E+0	1.379642E+0	1.330971E+0	1.443118E+0	1.391810E+0	1.354103E+0	1.328300E+0	1.338669E+0	1.360481E+0	1.337171E+0	1.381479E+0	1.336477E+0	1.365750E+0	1.391234E+0	1.362489E+0	1.365624E+0	1.385378E+0	1.400667E+0	1.341782E+0	1.361859E+0	1.435206E+0	1.347236E+0	1.416858E+0	1.336743E+0	1.327481E+0	1.296206E+0	1.410121E+0	1.414507E+0	1.373091E+0	1.340995E+0	1.327743E+0	1.290588E+0	1.392276E+0	1.423749E+0	1.370058E+0	1.396820E+0	1.383026E+0	1.306779E+0	1.317509E+0	1.336746E+0	1.363232E+0	1.315936E+0	1.414316E+0	1.390277E+0	1.383366E+0	1.356949E+0	1.305210E+0	1.365934E+0	1.343441E+0	1.319604E+0	1.367185E+0	1.361930E+0	1.399311E+0	1.420085E+0	1.384672E+0	1.321337E+0	1.408265E+0	1.315643E+0	1.377178E+0	1.334289E+0	1.361637E+0	1.349631E+0	1.331829E+0	1.310160E+0	1.425749E+0	1.338916E+0	1.302923E+0	1.376084E+0	1.366353E+0	1.367229E+0	1.335050E+0	1.356216E+0	1.320313E+0	1.380370E+0	1.358487E+0	1.401484E+0	1.316444E+0	1.296591E+0	1.296560E+0	1.381090E+0	1.386430E+0	1.300060E+0	1.296605E+0	1.331430E+0	1.368210E+0	1.276332E+0	1.321654E+0	1.374698E+0	1.365438E+0	1.379888E+0	1.313793E+0	1.389407E+0	1.325705E+0	1.351848E+0	1.321685E+0	1.399120E+0	1.334347E+0	1.362241E+0	1.315325E+0	1.388707E+0	1.391750E+0	1.339602E+0	1.351112E+0	1.315800E+0	1.327272E+0	1.325439E+0	1.297849E+0	1.333797E+0	1.354801E+0	1.321165E+0	1.382548E+0	1.373377E+0	1.318485E+0	1.352577E+0	1.351251E+0	1.361314E+0	1.389494E+0	1.371700E+0	1.362926E+0	1.285260E+0	1.358362E+0	1.354651E+0	1.313072E+0	1.297598E+0	1.391401E+0	1.305097E+0	1.333578E+0	1.322499E+0	1.420405E+0	1.315829E+0	1.364186E+0	1.306019E+0	1.425856E+0	1.325807E+0	1.350852E+0	1.319512E+0	1.340527E+0	1.324354E+0	1.357084E+0	1.341320E+0	1.355006E+0	1.305334E+0	1.359602E+0	1.236650E+0	1.314172E+0	1.335624E+0	1.319313E+0	1.300246E+0	1.373098E+0	1.366396E+0	1.413226E+0	1.385254E+0	1.302942E+0
5.505000E+2	1.374579E+0	1.327063E+0	1.282518E+0	1.343190E+0	1.310134E+0	1.395275E+0	1.383061E+0	1.334718E+0	1.270494E+0	1.323214E+0	1.328664E+0	1.348495E+0	1.297672E+0	1.344039E+0	1.390740E+0	1.300952E+0	1.300860E+0	1.378515E+0	1.367171E+0	1.333909E+0	1.360372E+0	1.285482E+0	1.331746E+0	1.345765E+0	1.297191E+0	1.373182E+0	1.331431E+0	1.353121E+0	1.348885E+0	1.377596E+0	1.382226E+0	1.359590E+0	1.337706E+0	1.355085E+0	1.269334E+0	1.316187E+0	1.320344E+0	1.313228E+0	1.313499E+0	1.294227E+0	1.343976E+0	1.366667E+0	1.374693E+0	1.336110E+0	1.337785E+0	1.342615E+0	1.287016E+0	1.313887E+0	1.383708E+0	1.311635E+0	1.374695E+0	1.351387E+0	1.276914E+0	1.322508E+0	1.301159E+0	1.269919E+0	1.293746E+0	1.336834E+0	1.284181E+0	1.311051E+0	1.338040E+0	1.293937E+0	1.311225E+0	1.321787E+0	1.301003E+0	1.350239E+0	1.349115E+0	1.297258E+0	1.306079E+0	1.360461E+0	1.316829E+0	1.247777E+0	1.303060E+0	1.326352E+0	1.337695E+0	1.246100E+0	1.347013E+0	1.368577E+0	1.351009E+0	1.282633E+0	1.333537E+0	1.368703E+0	1.309196E+0	1.303762E+0	1.233801E+0	1.338292E+0	1.294971E+0	1.324905E+0	1.351938E+0	1.269930E+0	1.307324E+0	1.353452E+0	1.327723E+0	1.333915E+0	1.283000E+0	1.303562E+0	1.317285E+0	1.332275E+0	1.340560E+0	1.337552E+0	1.288810E+0	1.346675E+0	1.353863E+0	1.267564E+0	1.370304E+0	1.326184E+0	1.291175E+0	1.300859E+0	1.339250E+0	1.340885E+0	1.317942E+0	1.336502E+0	1.288744E+0	1.386572E+0	1.318437E+0	1.306043E+0	1.316287E+0	1.357279E+0	1.294908E+0	1.302803E+0	1.297776E+0	1.330554E+0	1.260689E+0	1.309914E+0	1.376292E+0	1.323880E+0	1.278413E+0	1.359178E+0	1.355706E+0	1.358557E+0	1.318570E+0	1.320893E+0	1.342337E+0	1.312917E+0	1.297006E+0	1.321270E+0	1.321867E+0	1.268951E+0	1.297650E+0	1.324539E+0	1.332205E+0	1.315738E+0	1.231912E+0	1.334506E+0	1.337272E+0	1.393805E+0	1.320208E+0	1.264905E+0	1.333006E+0	1.367718E+0	1.337785E+0	1.323524E+0	1.314073E+0	1.258506E+0	1.321637E+0	1.300998E+0	1.295567E+0	1.332448E+0	1.296231E+0	1.296204E+0	1.332907E+0	1.319468E+0	1.333499E+0	1.278866E+0	1.284680E+0	1.364141E+0
5.512620E+2	1.309533E+0	1.322718E+0	1.312728E+0	1.340070E+0	1.359239E+0	1.385779E+0	1.395179E+0	1.311572E+0	1.255394E+0	1.306345E+0	1.318247E+0	1.351166E+0	1.311104E+0	1.328766E+0	1.359782E+0	1.306494E+0	1.364145E+0	1.372200E+0	1.386113E+0	1.282157E+0	1.324467E+0	1.319385E+0	1.318879E+0	1.353968E+0	1.314888E+0	1.323168E+0	1.352501E+0	1.336699E+0	1.333647E+0	1.372896E+0	1.366330E+0	1.298377E+0	1.336577E+0	1.345304E+0	1.303279E+0	1.306707E+0	1.345137E+0	1.354801E+0	1.264603E+0	1.356232E+0	1.264561E+0	1.377179E+0	1.291416E+0	1.310981E+0	1.244192E+0	1.363607E+0	1.358154E+0	1.283078E+0	1.358831E+0	1.310084E+0	1.333673E+0	1.430352E+0	1.311123E+0	1.342940E+0	1.287227E+0	1.266443E+0	1.369530E+0	1.358471E+0	1.355821E+0	1.317960E+0	1.324800E+0	1.329083E+0	1.309900E+0	1.297248E+0	1.315350E+0	1.316279E+0	1.369609E+0	1.332535E+0	1.301984E+0	1.352456E+0	1.356681E+0	1.296903E+0	1.323928E+0	1.351993E+0	1.271747E+0	1.333672E+0	1.314139E+0	1.342224E+0	1.329086E+0	1.347060E+0	1.307753E+0	1.349474E+0	1.329669E+0	1.296417E+0	1.314339E+0	1.316626E+0	1.329939E+0	1.298566E+0	1.310979E+0	1.344329E+0	1.298455E+0	1.296870E+0	1.305114E+0	1.322398E+0	1.324038E+0	1.306087E+0	1.371072E+0	1.372369E+0	1.262790E+0	1.337227E+0	1.272023E+0	1.338010E+0	1.335167E+0	1.333165E+0	1.349127E+0	1.317581E+0	1.307264E+0	1.298723E+0	1.341667E+0	1.322590E+0	1.270175E+0	1.289901E+0	1.312419E+0	1.270299E+0	1.315096E+0	1.275983E+0	1.304446E+0	1.327243E+0	1.315661E+0	1.329455E+0	1.281878E+0	1.294774E+0	1.272343E+0	1.297312E+0	1.313786E+0	1.378478E+0	1.224389E+0	1.349297E+0	1.284466E+0	1.343847E+0	1.329584E+0	1.308736E+0	1.238989E+0	1.344848E+0	1.317562E+0	1.333698E+0	1.306934E+0	1.355336E+0	1.291396E+0	1.325905E+0	1.287853E+0	1.334712E+0	1.284994E+0	1.308768E+0	1.240864E+0	1.382114E+0	1.249054E+0	1.273887E+0	1.260250E+0	1.361656E+0	1.320163E+0	1.251247E+0	1.313835E+0	1.314282E+0	1.298876E+0	1.352668E+0	1.295489E+0	1.278495E+0	1.279596E+0	1.341463E+0	1.310981E+0	1.312073E+0	1.240035E+0	1.260769E+0	1.279002E+0	1.399627E+0
5.520100E+2	1.300968E+0	1.313001E+0	1.276204E+0	1.312056E+0	1.291566E+0	1.344949E+0	1.380659E+0	1.316667E+0	1.287754E+0	1.265381E+0	1.273830E+0	1.269155E+0	1.330012E+0	1.294048E+0	1.300010E+0	1.381091E+0	1.345812E+0	1.354013E+0	1.372939E+0	1.248026E+0	1.290141E+0	1.295234E+0	1.314521E+0	1.322656E+0	1.334953E+0	1.313289E+0	1.289790E+0	1.313925E+0	1.275638E+0	1.327177E+0	1.328695E+0	1.377306E+0	1.331348E+0	1.336303E+0	1.321986E+0	1.330881E+0	1.301644E+0	1.368391E+0	1.300355E+0	1.320373E+0	1.301262E+0	1.354018E+0	1.240640E+0	1.307981E+0	1.262729E+0	1.395323E+0	1.297446E+0	1.337468E+0	1.380946E+0	1.351607E+0	1.340367E+0	1.331881E+0	1.280701E+0	1.328914E+0	1.328958E+0	1.287316E+0	1.292228E+0	1.296236E+0	1.258066E+0	1.322644E+0	1.344520E+0	1.302281E+0	1.285130E+0	1.360542E+0	1.289861E+0	1.395573E+0	1.294277E+0	1.313783E+0	1.284691E+0	1.328561E+0	1.309636E+0	1.269463E+0	1.271065E+0	1.328574E+0	1.309484E+0	1.255355E+0	1.354007E+0	1.316206E+0	1.279814E+0	1.326229E+0	1.361754E+0	1.371650E+0	1.288591E+0	1.263552E+0	1.318781E+0	1.295070E+0	1.239227E+0	1.271203E+0	1.328663E+0	1.280149E+0	1.313255E+0	1.298367E+0	1.301444E+0	1.341247E+0	1.278715E+0	1.290005E+0	1.294091E+0	1.306242E+0	1.298080E+0	1.281522E+0	1.295103E+0	1.319665E+0	1.306612E+0	1.344607E+0	1.332342E+0	1.334766E+0	1.285635E+0	1.278637E+0	1.364145E+0	1.302193E+0	1.266675E+0	1.306199E+0	1.293377E+0	1.345686E+0	1.261989E+0	1.303277E+0	1.299180E+0	1.306652E+0	1.292384E+0	1.287076E+0	1.297096E+0	1.295212E+0	1.353775E+0	1.371166E+0	1.262959E+0	1.321556E+0	1.261775E+0	1.262600E+0	1.319168E+0	1.310611E+0	1.342005E+0	1.277509E+0	1.334843E+0	1.335140E+0	1.276183E+0	1.238025E+0	1.254929E+0	1.319371E+0	1.259306E+0	1.286117E+0	1.275892E+0	1.321921E+0	1.268743E+0	1.341941E+0	1.273657E+0	1.296531E+0	1.292885E+0	1.298906E+0	1.281831E+0	1.350844E+0	1.290348E+0	1.278780E+0	1.265073E+0	1.292820E+0	1.279777E+0	1.312459E+0	1.252133E+0	1.296107E+0	1.283258E+0	1.306613E+0	1.275494E+0	1.342361E+0	1.252591E+0	1.242827E+0	1.358564E+0	1.363986E+0
5.527590E+2	1.326778E+0	1.276906E+0	1.243482E+0	1.232857E+0	1.208921E+0	1.283279E+0	1.259803E+0	1.242145E+0	1.271352E+0	1.268720E+0	1.298135E+0	1.319799E+0	1.272259E+0	1.200913E+0	1.276456E+0	1.237222E+0	1.311656E+0	1.281658E+0	1.285926E+0	1.285392E+0	1.269376E+0	1.244447E+0	1.248766E+0	1.256983E+0	1.231454E+0	1.327754E+0	1.348996E+0	1.300630E+0	1.264148E+0	1.287775E+0	1.275874E+0	1.294571E+0	1.330788E+0	1.255260E+0	1.323833E+0	1.282026E+0	1.269117E+0	1.274365E+0	1.286403E+0	1.321850E+0	1.227496E+0	1.300869E+0	1.269449E+0	1.274907E+0	1.231316E+0	1.391173E+0	1.233218E+0	1.230665E+0	1.352228E+0	1.293043E+0	1.253768E+0	1.292707E+0	1.262006E+0	1.315758E+0	1.247325E+0	1.236666E+0	1.287626E+0	1.273420E+0	1.251361E+0	1.247696E+0	1.246103E+0	1.296246E+0	1.243643E+0	1.324560E+0	1.261247E+0	1.295127E+0	1.294509E+0	1.214388E+0	1.292055E+0	1.289545E+0	1.258975E+0	1.240331E+0	1.262821E+0	1.296509E+0	1.298067E+0	1.211024E+0	1.246664E+0	1.261061E+0	1.253150E+0	1.252102E+0	1.284571E+0	1.308571E+0	1.336333E+0	1.285485E+0	1.227584E+0	1.258982E+0	1.272515E+0	1.238551E+0	1.292296E+0	1.244177E+0	1.257931E+0	1.278620E+0	1.292933E+0	1.312751E+0	1.322188E+0	1.244504E+0	1.276612E+0	1.282033E+0	1.230357E+0	1.283712E+0	1.305545E+0	1.282981E+0	1.251701E+0	1.285759E+0	1.321735E+0	1.292454E+0	1.252519E+0	1.230297E+0	1.281421E+0	1.269248E+0	1.223399E+0	1.233167E+0	1.243140E+0	1.307240E+0	1.243385E+0	1.274160E+0	1.272968E+0	1.260455E+0	1.237035E+0	1.299483E+0	1.310919E+0	1.293171E+0	1.196626E+0	1.258332E+0	1.289837E+0	1.307292E+0	1.274223E+0	1.217118E+0	1.246936E+0	1.302615E+0	1.333727E+0	1.249799E+0	1.304828E+0	1.301685E+0	1.262743E+0	1.235653E+0	1.233309E+0	1.311899E+0	1.261085E+0	1.268049E+0	1.289508E+0	1.313719E+0	1.287983E+0	1.285978E+0	1.235264E+0	1.362778E+0	1.237372E+0	1.291213E+0	1.239189E+0	1.235661E+0	1.261222E+0	1.213764E+0	1.248605E+0	1.286846E+0	1.237026E+0	1.233592E+0	1.223451E+0	1.293842E+0	1.275448E+0	1.224363E+0	1.214277E+0	1.306869E+0	1.287796E+0	1.192718E+0	1.281243E+0	1.316492E+0
5.535160E+2	1.192521E+0	1.261221E+0	1.227029E+0	1.225688E+0	1.247577E+0	1.211902E+0	1.266357E+0	1.214260E+0	1.238242E+0	1.182710E+0	1.175178E+0	1.223702E+0	1.238659E+0	1.203698E+0	1.224285E+0	1.249815E+0	1.243247E+0	1.235401E+0	1.262759E+0	1.193495E+0	1.255065E+0	1.224276E+0	1.211498E+0	1.243193E+0	1.214209E+0	1.241186E+0	1.288235E+0	1.192562E+0	1.230805E+0	1.247343E+0	1.278507E+0	1.266287E+0	1.162890E+0	1.263113E+0	1.236174E+0	1.193368E+0	1.236679E+0	1.210101E+0	1.213181E+0	1.265408E+0	1.238737E+0	1.247305E+0	1.215000E+0	1.248160E+0	1.220277E+0	1.259931E+0	1.269022E+0	1.219841E+0	1.281436E+0	1.227165E+0	1.202303E+0	1.244937E+0	1.246595E+0	1.198612E+0	1.218172E+0	1.240387E+0	1.215924E+0	1.209574E+0	1.233666E+0	1.199653E+0	1.261688E+0	1.233017E+0	1.237254E+0	1.260412E+0	1.167792E+0	1.234277E+0	1.205746E+0	1.263067E+0	1.160240E+0	1.268409E+0	1.168376E+0	1.222727E+0	1.276066E+0	1.237389E+0	1.214143E+0	1.117696E+0	1.229728E+0	1.213812E+0	1.180492E+0	1.234597E+0	1.262529E+0	1.259061E+0	1.174374E+0	1.199310E+0	1.257843E+0	1.214560E+0	1.229742E+0	1.238252E+0	1.201591E+0	1.229480E+0	1.215115E+0	1.271363E+0	1.206930E+0	1.270749E+0	1.187611E+0	1.231848E+0	1.261128E+0	1.257825E+0	1.229994E+0	1.283676E+0	1.221485E+0	1.228111E+0	1.217793E+0	1.240806E+0	1.189805E+0	1.171808E+0	1.205431E+0	1.237427E+0	1.238849E+0	1.210901E+0	1.229586E+0	1.206984E+0	1.271028E+0	1.270598E+0	1.159461E+0	1.195225E+0	1.267573E+0	1.234424E+0	1.230934E+0	1.248837E+0	1.254640E+0	1.217948E+0	1.193369E+0	1.272249E+0	1.230720E+0	1.297987E+0	1.195858E+0	1.218563E+0	1.219449E+0	1.239043E+0	1.151019E+0	1.232842E+0	1.232525E+0	1.278436E+0	1.238459E+0	1.192184E+0	1.203453E+0	1.278015E+0	1.240983E+0	1.221468E+0	1.192613E+0	1.227599E+0	1.202106E+0	1.296547E+0	1.226836E+0	1.248565E+0	1.221358E+0	1.208928E+0	1.213027E+0	1.201535E+0	1.207077E+0	1.215043E+0	1.189154E+0	1.220940E+0	1.199673E+0	1.211531E+0	1.209360E+0	1.226741E+0	1.204002E+0	1.191051E+0	1.232573E+0	1.237551E+0	1.210629E+0	1.195942E+0	1.248786E+0	1.189186E+0
5.542640E+2	1.117531E+0	1.166862E+0	1.189683E+0	1.119502E+0	1.162416E+0	1.133521E+0	1.161706E+0	1.112039E+0	1.095609E+0	1.154915E+0	1.157127E+0	1.192457E+0	1.138288E+0	1.151778E+0	1.134005E+0	1.141957E+0	1.159319E+0	1.156844E+0	1.129131E+0	1.118433E+0	1.147195E+0	1.115152E+0	1.146588E+0	1.160665E+0	1.081370E+0	1.174148E+0	1.158165E+0	1.152659E+0	1.093837E+0	1.116505E+0	1.156919E+0	1.165449E+0	1.166613E+0	1.150743E+0	1.099618E+0	1.138353E+0	1.148171E+0	1.168271E+0	1.173581E+0	1.173514E+0	1.173831E+0	1.130518E+0	1.219374E+0	1.152056E+0	1.167638E+0	1.116027E+0	1.129935E+0	1.133831E+0	1.185540E+0	1.120805E+0	1.148681E+0	1.138930E+0	1.142372E+0	1.142246E+0	1.152100E+0	1.160077E+0	1.135840E+0	1.186427E+0	1.107761E+0	1.157056E+0	1.155119E+0	1.147222E+0	1.111874E+0	1.132966E+0	1.124144E+0	1.153417E+0	1.165087E+0	1.179957E+0	1.140165E+0	1.164021E+0	1.143743E+0	1.147501E+0	1.181621E+0	1.146418E+0	1.164123E+0	1.145165E+0	1.142677E+0	1.178483E+0	1.163200E+0	1.163032E+0	1.131672E+0	1.177536E+0	1.203592E+0	1.094950E+0	1.161097E+0	1.147899E+0	1.098247E+0	1.096260E+0	1.130619E+0	1.111078E+0	1.176420E+0	1.154024E+0	1.116331E+0	1.160717E+0	1.132712E+0	1.130369E+0	1.148907E+0	1.151309E+0	1.120140E+0	1.119954E+0	1.175264E+0	1.129035E+0	1.176953E+0	1.195294E+0	1.109341E+0	1.160965E+0	1.167410E+0	1.160562E+0	1.110044E+0	1.122088E+0	1.123388E+0	1.119912E+0	1.131996E+0	1.217351E+0	1.116622E+0	1.134185E+0	1.060458E+0	1.182117E+0	1.140452E+0	1.167704E+0	1.170385E+0	1.140150E+0	1.164123E+0	1.157325E+0	1.167257E+0	1.145146E+0	1.145492E+0	1.125799E+0	1.074985E+0	1.134847E+0	1.169531E+0	1.120179E+0	1.140600E+0	1.192606E+0	1.125586E+0	1.194506E+0	1.149276E+0	1.146439E+0	1.130493E+0	1.125694E+0	1.159100E+0	1.142905E+0	1.119586E+0	1.202896E+0	1.138417E+0	1.170932E+0	1.156941E+0	1.118909E+0	1.080633E+0	1.177811E+0	1.122363E+0	1.148182E+0	1.110845E+0	1.133511E+0	1.130734E+0	1.129085E+0	1.134133E+0	1.168638E+0	1.133027E+0	1.131855E+0	1.129165E+0	1.184017E+0	1.145443E+0	1.145214E+0	1.166917E+0	1.160861E+0
5.550140E+2	1.052689E+0	1.043897E+0	1.046497E+0	1.014545E+0	9.992393E-1	1.113895E+0	1.106746E+0	1.051167E+0	1.066637E+0	1.000704E+0	1.037416E+0	1.048137E+0	1.036216E+0	1.062028E+0	1.079428E+0	1.053530E+0	1.055291E+0	1.063401E+0	1.068354E+0	1.032214E+0	1.068190E+0	1.045118E+0	1.108275E+0	1.040503E+0	1.026957E+0	1.082990E+0	1.073927E+0	1.098770E+0	1.062285E+0	1.047872E+0	1.032981E+0	1.079688E+0	1.099555E+0	1.054363E+0	1.044628E+0	1.133343E+0	1.028402E+0	1.064604E+0	1.067745E+0	1.063864E+0	1.083377E+0	1.100434E+0	1.052545E+0	1.058180E+0	1.056511E+0	1.060076E+0	1.028030E+0	9.935555E-1	1.059688E+0	1.055394E+0	1.044088E+0	1.054858E+0	1.015526E+0	1.069316E+0	1.056076E+0	1.049089E+0	1.032039E+0	1.072458E+0	1.039414E+0	1.053279E+0	1.063022E+0	1.058077E+0	1.034078E+0	1.026208E+0	1.053928E+0	1.013524E+0	1.124391E+0	1.073502E+0	1.081617E+0	1.082662E+0	1.058266E+0	1.009646E+0	1.079294E+0	1.058289E+0	1.025355E+0	1.066988E+0	1.049868E+0	1.091195E+0	1.070490E+0	1.053335E+0	1.050913E+0	1.050861E+0	1.082769E+0	1.015454E+0	1.042052E+0	1.059175E+0	9.903011E-1	1.042268E+0	1.034976E+0	1.027531E+0	1.038104E+0	1.086249E+0	1.097879E+0	1.028524E+0	1.102255E+0	1.055316E+0	1.081076E+0	1.018935E+0	1.052592E+0	1.040546E+0	1.071859E+0	1.047370E+0	1.061330E+0	1.056316E+0	1.097731E+0	1.071956E+0	1.044990E+0	1.031469E+0	1.033186E+0	1.015301E+0	1.068554E+0	1.013075E+0	1.029245E+0	1.077369E+0	1.045056E+0	1.038499E+0	1.049263E+0	1.021207E+0	1.108479E+0	1.057919E+0	1.052719E+0	1.069636E+0	1.001003E+0	1.048419E+0	1.066593E+0	1.047854E+0	1.098038E+0	1.042621E+0	1.080982E+0	1.073506E+0	1.045936E+0	1.051613E+0	1.034367E+0	1.081281E+0	1.082330E+0	1.039594E+0	1.052253E+0	1.090934E+0	1.094414E+0	1.030234E+0	1.023291E+0	1.075334E+0	1.033114E+0	1.054695E+0	1.079189E+0	1.045310E+0	9.661478E-1	9.809616E-1	1.029806E+0	1.074429E+0	1.064640E+0	1.079844E+0	1.088240E+0	1.065357E+0	1.017725E+0	1.016345E+0	9.748488E-1	1.086675E+0	1.027430E+0	1.027594E+0	1.003970E+0	1.057022E+0	1.032318E+0	9.741843E-1	1.077766E+0	9.600358E-1
5.558000E+2	9.512955E-1	9.734591E-1	9.637348E-1	9.670215E-1	9.774782E-1	9.969929E-1	9.975968E-1	9.901272E-1	9.830112E-1	9.920530E-1	9.638225E-1	9.965416E-1	9.610573E-1	9.710587E-1	1.004205E+0	9.307121E-1	9.809961E-1	9.699240E-1	9.986674E-1	9.431746E-1	9.808944E-1	9.535706E-1	9.626063E-1	9.930211E-1	9.473980E-1	1.022611E+0	1.004660E+0	9.067235E-1	9.748932E-1	9.587352E-1	9.979073E-1	9.552732E-1	9.631600E-1	9.813203E-1	9.471219E-1	9.756667E-1	9.559954E-1	9.374755E-1	9.764330E-1	9.444210E-1	9.835427E-1	9.621687E-1	9.557568E-1	9.495670E-1	9.354230E-1	9.624684E-1	9.915988E-1	9.594738E-1	9.998467E-1	9.770345E-1	9.772601E-1	1.011936E+0	9.549630E-1	9.671484E-1	9.985180E-1	9.913736E-1	1.003654E+0	9.690595E-1	9.527698E-1	1.000251E+0	9.698932E-1	9.361747E-1	9.625569E-1	9.712095E-1	9.604666E-1	9.733350E-1	9.788983E-1	9.344340E-1	9.833670E-1	9.767485E-1	9.815240E-1	9.545699E-1	9.682144E-1	9.890129E-1	9.812794E-1	9.663178E-1	9.603200E-1	1.016354E+0	9.510490E-1	9.697958E-1	9.666472E-1	9.884701E-1	9.744244E-1	9.718815E-1	9.567627E-1	9.580065E-1	9.667153E-1	9.680799E-1	9.498037E-1	1.016043E+0	9.492330E-1	9.338928E-1	1.006911E+0	9.586582E-1	9.949197E-1	9.641786E-1	1.014253E+0	9.515019E-1	9.723208E-1	9.648939E-1	1.008332E+0	9.471113E-1	1.002124E+0	9.597706E-1	9.753868E-1	9.280732E-1	9.851064E-1	9.474007E-1	9.658902E-1	9.699419E-1	9.311116E-1	9.835325E-1	9.923970E-1	1.036112E+0	9.813078E-1	9.753548E-1	9.626653E-1	1.019311E+0	9.380568E-1	9.738736E-1	9.524784E-1	9.856951E-1	9.992678E-1	9.578465E-1	9.910702E-1	9.698149E-1	9.625946E-1	9.445958E-1	9.786040E-1	9.828900E-1	9.683722E-1	9.209213E-1	9.895968E-1	1.036667E+0	9.582844E-1	1.005142E+0	1.012239E+0	9.826671E-1	1.010750E+0	9.538304E-1	9.724579E-1	9.754569E-1	1.036222E+0	9.703744E-1	9.251700E-1	1.025753E+0	9.725579E-1	9.906777E-1	9.551323E-1	9.766208E-1	1.001235E+0	9.368698E-1	9.271438E-1	9.889390E-1	1.004377E+0	9.631795E-1	9.787381E-1	1.014750E+0	9.448632E-1	1.004550E+0	9.792059E-1	9.490838E-1	9.861452E-1	9.488736E-1	9.892454E-1	1.006239E+0
5.560080E+2	1.031388E+0	1.013665E+0	9.299582E-1	9.940172E-1	9.243780E-1	1.006375E+0	1.024195E+0	9.811370E-1	9.691394E-1	1.003507E+0	9.310820E-1	1.012548E+0	9.852214E-1	9.668081E-1	9.502821E-1	9.479523E-1	9.850859E-1	9.966605E-1	9.904162E-1	1.009319E+0	9.993282E-1	9.975489E-1	9.716740E-1	9.591420E-1	9.288081E-1	1.000202E+0	1.024309E+0	9.659936E-1	1.003963E+0	9.809051E-1	1.059232E+0	9.980742E-1	9.843719E-1	1.031058E+0	1.052815E+0	9.643972E-1	9.961502E-1	9.650517E-1	9.792315E-1	9.794340E-1	9.687755E-1	9.887430E-1	9.781458E-1	9.701179E-1	9.919949E-1	9.597928E-1	1.038139E+0	1.030702E+0	9.875363E-1	9.824101E-1	9.829690E-1	9.784711E-1	9.978382E-1	9.306412E-1	1.028192E+0	9.851929E-1	9.987870E-1	1.006906E+0	1.026816E+0	9.650428E-1	1.049827E+0	9.930291E-1	1.010103E+0	9.931181E-1	9.877901E-1	9.563058E-1	1.036244E+0	9.700750E-1	1.039365E+0	9.662931E-1	9.780406E-1	9.934138E-1	9.651646E-1	9.893765E-1	9.649149E-1	9.659636E-1	9.530389E-1	1.020281E+0	9.892341E-1	9.696539E-1	9.789504E-1	9.905538E-1	9.584563E-1	9.384907E-1	9.652279E-1	9.487272E-1	9.627297E-1	9.407082E-1	9.975890E-1	9.692419E-1	1.003028E+0	9.840798E-1	9.902517E-1	9.759777E-1	1.010857E+0	9.422817E-1	1.005345E+0	9.513882E-1	1.015129E+0	1.001734E+0	9.846087E-1	1.025891E+0	9.671255E-1	9.833447E-1	1.043512E+0	1.007404E+0	9.799529E-1	9.956986E-1	9.739267E-1	9.981246E-1	1.009752E+0	9.577627E-1	9.781756E-1	9.796652E-1	9.511750E-1	1.006307E+0	9.848844E-1	9.643721E-1	9.731766E-1	9.727854E-1	1.004712E+0	9.618680E-1	1.001057E+0	9.515909E-1	9.559361E-1	9.998343E-1	9.802954E-1	9.601721E-1	1.020692E+0	1.005612E+0	1.012370E+0	1.003883E+0	1.002497E+0	1.016450E+0	1.013031E+0	9.868823E-1	9.692814E-1	9.590638E-1	9.305368E-1	9.547632E-1	9.981143E-1	9.917842E-1	1.003113E+0	1.004071E+0	9.907731E-1	1.000792E+0	9.568037E-1	9.688908E-1	9.704529E-1	9.991168E-1	9.577603E-1	1.004330E+0	9.430885E-1	1.032158E+0	9.905821E-1	9.886898E-1	1.027669E+0	9.991488E-1	1.000757E+0	9.447408E-1	9.981868E-1	1.013824E+0	9.361294E-1	9.986244E-1	9.944895E-1	1.044302E+0
5.565030E+2	1.010211E+0	9.944535E-1	9.679433E-1	9.717978E-1	9.670994E-1	9.620474E-1	9.729045E-1	9.971717E-1	1.006296E+0	9.389998E-1	9.694413E-1	9.584254E-1	1.022472E+0	1.008795E+0	9.960921E-1	9.894894E-1	9.812496E-1	9.635437E-1	9.864793E-1	1.001049E+0	9.878285E-1	9.914650E-1	1.003080E+0	9.953461E-1	9.695505E-1	9.633051E-1	9.771637E-1	9.838836E-1	1.002733E+0	9.782254E-1	9.810532E-1	9.884082E-1	9.672075E-1	9.686924E-1	9.802841E-1	9.724205E-1	1.012935E+0	1.001983E+0	9.769416E-1	9.690633E-1	9.722717E-1	9.539113E-1	9.786129E-1	9.644994E-1	9.862529E-1	9.402909E-1	9.759654E-1	9.955377E-1	9.552221E-1	9.580136E-1	1.008034E+0	9.695423E-1	9.128041E-1	9.673652E-1	9.926227E-1	9.372594E-1	9.700662E-1	9.793782E-1	1.011888E+0	9.761056E-1	9.849515E-1	9.892523E-1	9.818800E-1	9.857159E-1	1.007747E+0	9.905883E-1	1.005176E+0	9.995684E-1	1.013637E+0	9.848380E-1	9.781077E-1	9.772557E-1	9.562211E-1	9.772056E-1	1.012183E+0	9.795764E-1	9.170462E-1	9.696826E-1	9.674503E-1	1.006272E+0	1.009463E+0	9.346779E-1	9.521602E-1	9.905514E-1	9.865289E-1	9.925602E-1	1.010553E+0	9.947315E-1	9.482350E-1	1.016925E+0	1.035842E+0	9.984715E-1	9.559670E-1	9.442384E-1	9.430769E-1	9.590634E-1	9.595679E-1	9.911469E-1	9.663672E-1	9.992852E-1	9.831465E-1	9.618028E-1	9.571775E-1	9.656961E-1	1.037943E+0	9.468661E-1	9.846618E-1	9.739678E-1	1.013057E+0	9.695970E-1	1.018002E+0	9.697854E-1	1.000136E+0	9.861346E-1	9.620667E-1	9.562088E-1	9.140481E-1	9.834611E-1	9.724733E-1	9.781207E-1	9.673719E-1	9.567532E-1	9.825879E-1	9.747846E-1	9.760398E-1	9.270567E-1	9.445916E-1	9.824222E-1	9.671871E-1	9.574196E-1	9.686891E-1	1.002057E+0	9.746250E-1	9.656612E-1	9.365337E-1	9.722085E-1	9.566864E-1	9.608680E-1	1.003523E+0	9.662545E-1	1.002071E+0	9.476166E-1	9.535970E-1	9.725437E-1	9.836558E-1	9.446221E-1	9.415205E-1	9.894700E-1	9.588500E-1	9.637678E-1	9.558180E-1	9.691035E-1	9.911543E-1	9.904961E-1	9.477112E-1	9.446639E-1	9.572807E-1	9.731111E-1	9.596514E-1	1.008742E+0	9.613357E-1	9.856901E-1	9.833238E-1	9.559090E-1	9.504967E-1	8.801039E-1
5.570610E+2	9.688552E-1	9.755950E-1	9.857068E-1	9.467647E-1	9.703150E-1	9.406447E-1	9.636982E-1	1.007341E+0	1.028527E+0	9.991198E-1	9.813039E-1	9.967391E-1	9.619863E-1	9.738959E-1	9.747712E-1	9.656588E-1	1.008217E+0	9.595031E-1	9.802234E-1	9.734434E-1	9.367790E-1	9.854384E-1	9.861484E-1	9.800263E-1	9.248792E-1	9.997521E-1	9.823770E-1	1.004895E+0	9.937873E-1	9.449006E-1	9.764018E-1	9.407981E-1	1.000104E+0	1.005117E+0	9.315485E-1	9.669665E-1	9.919578E-1	9.542176E-1	9.446716E-1	1.018707E+0	9.653165E-1	9.595810E-1	9.854559E-1	9.878289E-1	9.473051E-1	9.801730E-1	9.621585E-1	9.523774E-1	9.926423E-1	9.859573E-1	9.548204E-1	1.012891E+0	9.702456E-1	9.800136E-1	9.602436E-1	9.517189E-1	9.486445E-1	9.990826E-1	9.573414E-1	9.935251E-1	9.582140E-1	9.665945E-1	9.220531E-1	9.688572E-1	9.832262E-1	1.018069E+0	9.887181E-1	9.582716E-1	9.497430E-1	9.813712E-1	9.618906E-1	9.742388E-1	9.878276E-1	9.710583E-1	9.867543E-1	1.003989E+0	9.594958E-1	1.000209E+0	9.843467E-1	9.539543E-1	9.284900E-1	1.001954E+0	9.369431E-1	9.994930E-1	9.745116E-1	9.389908E-1	9.919020E-1	9.802785E-1	9.524148E-1	9.578423E-1	9.920855E-1	9.622082E-1	9.607289E-1	9.685139E-1	9.577637E-1	9.596081E-1	9.842879E-1	9.937111E-1	9.597515E-1	9.521135E-1	9.879311E-1	9.814626E-1	1.010256E+0	9.810803E-1	9.603941E-1	9.932580E-1	9.924498E-1	9.739931E-1	9.747757E-1	9.662075E-1	9.809449E-1	9.947883E-1	9.351193E-1	9.327760E-1	9.665076E-1	9.776237E-1	9.621860E-1	9.772667E-1	9.669453E-1	9.687226E-1	1.014716E+0	1.015487E+0	9.488053E-1	9.711999E-1	9.936460E-1	9.789223E-1	9.528721E-1	9.435802E-1	9.459652E-1	9.844619E-1	1.016509E+0	9.499392E-1	1.023954E+0	1.004574E+0	9.744939E-1	9.316419E-1	1.002561E+0	9.999079E-1	9.398427E-1	9.792967E-1	9.894846E-1	9.960968E-1	9.758562E-1	9.818609E-1	9.753892E-1	9.782812E-1	9.995504E-1	9.724853E-1	1.003048E+0	9.863952E-1	9.665633E-1	9.812739E-1	9.864917E-1	9.463862E-1	1.025708E+0	1.023947E+0	9.635331E-1	9.872412E-1	9.666039E-1	1.035306E+0	1.020460E+0	9.990677E-1	9.573520E-1	9.170759E-1	9.857579E-1	9.446627E-1
5.575080E+2	1.018893E+0	1.002892E+0	9.839382E-1	9.970450E-1	9.728466E-1	9.945230E-1	1.001684E+0	9.633173E-1	1.009499E+0	9.551164E-1	9.610216E-1	9.865092E-1	1.016801E+0	9.879832E-1	9.851533E-1	9.894088E-1	9.865356E-1	1.000723E+0	9.962975E-1	9.877906E-1	9.786032E-1	9.668928E-1	9.734248E-1	9.802372E-1	1.002443E+0	1.017347E+0	1.045288E+0	1.001672E+0	9.665440E-1	9.905226E-1	9.860284E-1	9.231100E-1	9.970326E-1	9.935537E-1	1.009394E+0	9.726826E-1	1.008945E+0	1.019348E+0	1.001402E+0	9.469545E-1	1.003550E+0	1.023575E+0	9.822383E-1	9.837984E-1	1.018148E+0	1.002918E+0	9.917948E-1	9.699475E-1	9.231942E-1	1.016218E+0	9.844805E-1	9.669586E-1	1.013841E+0	1.010017E+0	9.738463E-1	1.000457E+0	9.243810E-1	9.416921E-1	9.674876E-1	9.911857E-1	9.954259E-1	1.001430E+0	1.018681E+0	1.018450E+0	9.608307E-1	9.887373E-1	9.706002E-1	9.802305E-1	1.001130E+0	9.481022E-1	1.006870E+0	9.672500E-1	1.017835E+0	9.888319E-1	1.029433E+0	1.025849E+0	1.006402E+0	9.832514E-1	9.666545E-1	1.007858E+0	1.026926E+0	1.001684E+0	1.038719E+0	9.618836E-1	9.904314E-1	1.026788E+0	9.334152E-1	9.934107E-1	1.015528E+0	9.906664E-1	9.727841E-1	1.009959E+0	1.002557E+0	1.023180E+0	1.001592E+0	1.025899E+0	9.615389E-1	1.010584E+0	1.039444E+0	9.851122E-1	1.000774E+0	9.713792E-1	9.731086E-1	9.944075E-1	9.635820E-1	9.995909E-1	1.000290E+0	1.030279E+0	9.879130E-1	9.619877E-1	9.756427E-1	9.888226E-1	9.484925E-1	1.010698E+0	9.986124E-1	9.916637E-1	1.019860E+0	9.636790E-1	9.894648E-1	9.566146E-1	1.017026E+0	1.013048E+0	9.682536E-1	9.805712E-1	1.003762E+0	9.854842E-1	1.025418E+0	1.004936E+0	9.669115E-1	1.013928E+0	9.710386E-1	9.884223E-1	9.729599E-1	1.018043E+0	9.997759E-1	9.919628E-1	9.985121E-1	9.923047E-1	9.924380E-1	9.891934E-1	1.023024E+0	1.047282E+0	9.729767E-1	9.916331E-1	9.910190E-1	1.025040E+0	9.745382E-1	9.608343E-1	1.035635E+0	9.745292E-1	9.852125E-1	9.879005E-1	9.730798E-1	1.003831E+0	9.684276E-1	9.733691E-1	1.001733E+0	1.017832E+0	9.789663E-1	9.855303E-1	9.868426E-1	9.806558E-1	9.812780E-1	1.016475E+0	9.813997E-1	1.007745E+0
5.580510E+2	1.001990E+0	9.834919E-1	9.905516E-1	9.493552E-1	1.014583E+0	1.045433E+0	1.055274E+0	1.002008E+0	1.010478E+0	1.040964E+0	1.009902E+0	1.000398E+0	1.016868E+0	1.015568E+0	9.589895E-1	9.450532E-1	1.024697E+0	9.801086E-1	1.006527E+0	9.847777E-1	9.790568E-1	9.800989E-1	1.000996E+0	9.858055E-1	9.592003E-1	9.517801E-1	1.008817E+0	1.007063E+0	1.033692E+0	1.026163E+0	1.010345E+0	9.813321E-1	1.016710E+0	1.008048E+0	1.078013E+0	9.844517E-1	1.017696E+0	1.021235E+0	9.894505E-1	1.043004E+0	1.039029E+0	1.023080E+0	9.958842E-1	1.013730E+0	1.011816E+0	1.004963E+0	1.026241E+0	1.007945E+0	1.055067E+0	1.057207E+0	1.016803E+0	1.003231E+0	1.015459E+0	1.044894E+0	1.014901E+0	1.030712E+0	1.042942E+0	1.031828E+0	1.001056E+0	9.856111E-1	9.729508E-1	1.012598E+0	1.021392E+0	9.962407E-1	9.840346E-1	9.986407E-1	9.870637E-1	1.008532E+0	1.007349E+0	1.022230E+0	9.648352E-1	1.025768E+0	1.016157E+0	9.980384E-1	9.825544E-1	9.966487E-1	1.020785E+0	1.028529E+0	1.002665E+0	1.015933E+0	1.012901E+0	1.031786E+0	9.897208E-1	1.018983E+0	9.763096E-1	9.869845E-1	9.766435E-1	9.521287E-1	9.566340E-1	1.009824E+0	1.027927E+0	9.902025E-1	1.039302E+0	1.005840E+0	1.041169E+0	1.045707E+0	1.065889E+0	9.967541E-1	1.054690E+0	9.904993E-1	1.013344E+0	1.000823E+0	1.022807E+0	1.025976E+0	9.962282E-1	1.006967E+0	9.963471E-1	1.019236E+0	9.671353E-1	1.047864E+0	9.858423E-1	9.712109E-1	1.030862E+0	1.048216E+0	1.016018E+0	1.007144E+0	9.863937E-1	9.595395E-1	1.001432E+0	1.002103E+0	9.921374E-1	1.003049E+0	1.005102E+0	1.044002E+0	9.891694E-1	1.031270E+0	9.617405E-1	1.018192E+0	1.050061E+0	1.013705E+0	9.873552E-1	9.884578E-1	1.024686E+0	1.003954E+0	9.772399E-1	1.012994E+0	1.034025E+0	1.018237E+0	1.050829E+0	1.020533E+0	9.813740E-1	1.002372E+0	1.050873E+0	1.020624E+0	1.007919E+0	1.003567E+0	9.866762E-1	1.013715E+0	1.044994E+0	9.945790E-1	9.662431E-1	1.023570E+0	1.010285E+0	9.715595E-1	1.007521E+0	1.023422E+0	1.024769E+0	9.795067E-1	1.008944E+0	9.836164E-1	1.021305E+0	9.533334E-1	1.055858E+0	9.805208E-1	1.001702E+0	1.059222E+0
5.585390E+2	1.028148E+0	1.034849E+0	1.005223E+0	1.008960E+0	1.006330E+0	1.040184E+0	9.857898E-1	1.039666E+0	1.002793E+0	1.024116E+0	1.014107E+0	1.019550E+0	1.004774E+0	9.952304E-1	9.791769E-1	1.044275E+0	9.912033E-1	1.009080E+0	1.038076E+0	1.025469E+0	1.051291E+0	9.882774E-1	1.047064E+0	1.014819E+0	1.045478E+0	1.011408E+0	1.019567E+0	9.958198E-1	1.016635E+0	1.002310E+0	1.029248E+0	1.022629E+0	1.016025E+0	1.016681E+0	1.045848E+0	1.001633E+0	9.792186E-1	1.024319E+0	1.010935E+0	1.003884E+0	1.039398E+0	9.851765E-1	9.879545E-1	9.907489E-1	9.457457E-1	9.948306E-1	1.073889E+0	9.909076E-1	1.011782E+0	1.018780E+0	9.995482E-1	1.030797E+0	1.034371E+0	1.042382E+0	1.048325E+0	1.016972E+0	1.019633E+0	1.054903E+0	1.036259E+0	1.001209E+0	1.037230E+0	9.709360E-1	1.040670E+0	9.919921E-1	9.765614E-1	9.718351E-1	1.025247E+0	1.030605E+0	1.001146E+0	1.031919E+0	1.040070E+0	1.033020E+0	9.721581E-1	1.011240E+0	9.663115E-1	9.959643E-1	9.935071E-1	1.014699E+0	1.045220E+0	1.031691E+0	1.023811E+0	1.004010E+0	1.057119E+0	1.036968E+0	1.014248E+0	1.017830E+0	1.049699E+0	1.056713E+0	1.032628E+0	1.053486E+0	9.930228E-1	1.038085E+0	1.039044E+0	1.002065E+0	1.011015E+0	1.027637E+0	9.792154E-1	1.004515E+0	9.772298E-1	9.962908E-1	1.011880E+0	1.032142E+0	1.070419E+0	9.969408E-1	1.005910E+0	9.723451E-1	1.021174E+0	9.873761E-1	1.011006E+0	1.041837E+0	1.011692E+0	1.020607E+0	1.051791E+0	9.987095E-1	9.803544E-1	1.007060E+0	1.020760E+0	9.964294E-1	1.021765E+0	9.687442E-1	1.013252E+0	1.028522E+0	9.707945E-1	1.043823E+0	9.815203E-1	1.008420E+0	1.028039E+0	1.024451E+0	1.021970E+0	1.023164E+0	1.024218E+0	1.013878E+0	9.939445E-1	1.008054E+0	1.041765E+0	1.022978E+0	1.041312E+0	1.033409E+0	9.811139E-1	9.697901E-1	9.992872E-1	9.774928E-1	9.941090E-1	1.000325E+0	1.010931E+0	1.006329E+0	1.030996E+0	9.887777E-1	9.771673E-1	1.001663E+0	9.861625E-1	1.001537E+0	1.012547E+0	9.856508E-1	1.010038E+0	1.027602E+0	9.811921E-1	1.042939E+0	1.066336E+0	9.775146E-1	1.026853E+0	1.030811E+0	1.054419E+0	1.031673E+0	1.013664E+0	9.900379E-1
5.590210E+2	9.440727E-1	1.009953E+0	9.659805E-1	1.043905E+0	1.014853E+0	1.012235E+0	1.001602E+0	9.713881E-1	9.774544E-1	9.796970E-1	1.003350E+0	1.005660E+0	9.427928E-1	9.891197E-1	1.031288E+0	1.004921E+0	1.026494E+0	1.011579E+0	9.607490E-1	9.866097E-1	9.912079E-1	9.647029E-1	1.028173E+0	1.022351E+0	1.003370E+0	9.535241E-1	9.413229E-1	9.762020E-1	1.002839E+0	1.021013E+0	9.816123E-1	1.018980E+0	9.878006E-1	9.762253E-1	9.627916E-1	9.581884E-1	9.641834E-1	9.731487E-1	9.772520E-1	9.745796E-1	9.944226E-1	9.778429E-1	9.778337E-1	9.734900E-1	9.853911E-1	9.924298E-1	1.007953E+0	9.878951E-1	9.494052E-1	9.415511E-1	1.003046E+0	9.767329E-1	9.702799E-1	9.815158E-1	9.983914E-1	9.814862E-1	1.041125E+0	1.010155E+0	9.928325E-1	9.949061E-1	9.955115E-1	1.023248E+0	9.960156E-1	9.872125E-1	9.611100E-1	9.453467E-1	9.842458E-1	9.955772E-1	9.599597E-1	9.611694E-1	9.817001E-1	9.768869E-1	1.007843E+0	9.869937E-1	9.859908E-1	1.016884E+0	1.020939E+0	9.913214E-1	9.941868E-1	9.718901E-1	1.006206E+0	9.730461E-1	9.869002E-1	9.475728E-1	9.907054E-1	9.949338E-1	9.729028E-1	9.983935E-1	9.750894E-1	9.893412E-1	9.620391E-1	9.411002E-1	1.021208E+0	1.012751E+0	9.328454E-1	9.867388E-1	9.963597E-1	9.640556E-1	9.729294E-1	9.973096E-1	9.693463E-1	1.004540E+0	9.737951E-1	9.736751E-1	9.825573E-1	9.854722E-1	9.986246E-1	9.956983E-1	9.864594E-1	9.975951E-1	1.012373E+0	9.893500E-1	1.001921E+0	9.947945E-1	1.007237E+0	9.402006E-1	1.025742E+0	9.943763E-1	1.008572E+0	9.740209E-1	9.988450E-1	9.956252E-1	9.778761E-1	9.497446E-1	1.059288E+0	9.829397E-1	9.674445E-1	9.623344E-1	1.030199E+0	9.280450E-1	9.558115E-1	1.005595E+0	9.666799E-1	1.029010E+0	9.480430E-1	9.767244E-1	9.904470E-1	9.757127E-1	9.956366E-1	9.403869E-1	9.611532E-1	1.040565E+0	9.610726E-1	9.604087E-1	9.557131E-1	9.928173E-1	9.596564E-1	9.636908E-1	9.827341E-1	1.024734E+0	1.055381E+0	9.625503E-1	9.898843E-1	9.902061E-1	9.736528E-1	1.000803E+0	1.000548E+0	9.765972E-1	9.853340E-1	9.903958E-1	9.879693E-1	9.332359E-1	9.639081E-1	9.491654E-1	1.014125E+0	9.905516E-1
5.595110E+2	9.824852E-1	1.008416E+0	1.039754E+0	9.901103E-1	9.879330E-1	9.938155E-1	9.837192E-1	1.015268E+0	9.690866E-1	9.901534E-1	1.044826E+0	9.876890E-1	9.665972E-1	1.024234E+0	1.001152E+0	1.026379E+0	9.807179E-1	1.006896E+0	9.495493E-1	1.045393E+0	1.024037E+0	1.006925E+0	9.856074E-1	9.689573E-1	1.049831E+0	1.004655E+0	1.016966E+0	1.004823E+0	9.626583E-1	9.947135E-1	1.024301E+0	1.031791E+0	1.047440E+0	1.028788E+0	9.805632E-1	1.073804E+0	1.036396E+0	9.964681E-1	9.995582E-1	9.792635E-1	9.935650E-1	9.858736E-1	1.017453E+0	1.008572E+0	9.963680E-1	1.011387E+0	1.023786E+0	1.012539E+0	1.006216E+0	9.930361E-1	1.023803E+0	1.001611E+0	1.010660E+0	9.680088E-1	9.763935E-1	9.989514E-1	1.035350E+0	9.915195E-1	1.035042E+0	9.621189E-1	9.677478E-1	1.011289E+0	1.003204E+0	9.691547E-1	1.030787E+0	1.038680E+0	1.012444E+0	9.851527E-1	9.828228E-1	9.576094E-1	1.015969E+0	1.011508E+0	9.927289E-1	1.029875E+0	9.775634E-1	1.028031E+0	9.980942E-1	1.002608E+0	1.024598E+0	1.002840E+0	9.910249E-1	1.022279E+0	1.000674E+0	1.031567E+0	1.026787E+0	9.968160E-1	1.004550E+0	9.964009E-1	9.905768E-1	9.859875E-1	1.016826E+0	9.822900E-1	9.587074E-1	9.826003E-1	1.035028E+0	9.846315E-1	9.974943E-1	9.851797E-1	1.025142E+0	1.027036E+0	9.981411E-1	9.828249E-1	9.554946E-1	9.724321E-1	1.005432E+0	1.048686E+0	9.984987E-1	1.025738E+0	1.043439E+0	1.002803E+0	1.008169E+0	1.020071E+0	9.827504E-1	9.944398E-1	1.030087E+0	1.024144E+0	9.849331E-1	1.019440E+0	9.730870E-1	1.052986E+0	9.968823E-1	1.001144E+0	1.034922E+0	1.024092E+0	9.606760E-1	1.037771E+0	1.018990E+0	1.014960E+0	1.030361E+0	9.977027E-1	1.000712E+0	1.043716E+0	1.019579E+0	9.559349E-1	1.041206E+0	1.019945E+0	9.851617E-1	1.020856E+0	9.732095E-1	1.037078E+0	9.887749E-1	1.006208E+0	9.886872E-1	1.011592E+0	1.039563E+0	1.020358E+0	1.033176E+0	1.039454E+0	9.556979E-1	1.012275E+0	1.025249E+0	9.968045E-1	1.034731E+0	1.028113E+0	9.962946E-1	1.053223E+0	1.000908E+0	1.005171E+0	9.943895E-1	1.024618E+0	9.894677E-1	1.089117E+0	9.844572E-1	1.064031E+0	1.049430E+0	1.091057E+0
5.600470E+2	1.035957E+0	9.902357E-1	9.935341E-1	1.084838E+0	1.022590E+0	1.010108E+0	1.015576E+0	9.900059E-1	1.028816E+0	1.024263E+0	1.018513E+0	1.054779E+0	1.061462E+0	1.016680E+0	9.986414E-1	1.003977E+0	1.015215E+0	1.047559E+0	1.055213E+0	1.019262E+0	1.056677E+0	1.012790E+0	1.035218E+0	1.061219E+0	1.021536E+0	1.062545E+0	1.031177E+0	9.974613E-1	1.027524E+0	1.042314E+0	9.893476E-1	1.047436E+0	9.866421E-1	1.015176E+0	9.959812E-1	1.070298E+0	1.045784E+0	1.011343E+0	1.053216E+0	1.008203E+0	9.946044E-1	1.024374E+0	1.013763E+0	1.037140E+0	1.066399E+0	1.016185E+0	9.792640E-1	1.068545E+0	1.057128E+0	1.038098E+0	9.942877E-1	1.023594E+0	1.018493E+0	1.017448E+0	1.020004E+0	1.020436E+0	1.020760E+0	1.057511E+0	1.020605E+0	1.049053E+0	1.031041E+0	9.903482E-1	9.942573E-1	1.041109E+0	1.033818E+0	1.061865E+0	1.042255E+0	1.029958E+0	1.021451E+0	1.017965E+0	1.012287E+0	1.005192E+0	1.017784E+0	1.046934E+0	1.045313E+0	1.019322E+0	1.049185E+0	9.868116E-1	1.029458E+0	1.022277E+0	9.940090E-1	1.014926E+0	1.040386E+0	1.018086E+0	9.808105E-1	1.020817E+0	1.044737E+0	1.007276E+0	1.063730E+0	9.972362E-1	9.750984E-1	1.048708E+0	1.050419E+0	1.050289E+0	1.028114E+0	9.933867E-1	1.026544E+0	1.049666E+0	1.028404E+0	1.060568E+0	1.012879E+0	1.051948E+0	1.026056E+0	1.037941E+0	1.015472E+0	1.036400E+0	9.990371E-1	9.792233E-1	1.002542E+0	1.036344E+0	1.015633E+0	1.003682E+0	1.033954E+0	1.046065E+0	1.022939E+0	1.034048E+0	1.075646E+0	1.042049E+0	1.037499E+0	1.018562E+0	1.016837E+0	1.001381E+0	1.099694E+0	9.759847E-1	9.888506E-1	1.031134E+0	1.025866E+0	9.934215E-1	1.012878E+0	1.011938E+0	1.008045E+0	1.007346E+0	1.009385E+0	1.043152E+0	1.012740E+0	9.935600E-1	1.000495E+0	1.042355E+0	1.022213E+0	1.060386E+0	1.053431E+0	1.016873E+0	1.050406E+0	1.017008E+0	1.038771E+0	1.008977E+0	1.037603E+0	1.047102E+0	1.013459E+0	1.027837E+0	1.049804E+0	1.051655E+0	1.015819E+0	1.022233E+0	1.044241E+0	1.001902E+0	1.025290E+0	1.031425E+0	1.013657E+0	1.039060E+0	1.034824E+0	1.016500E+0	1.007344E+0	1.012569E+0	9.983274E-1	9.879842E-1
5.605150E+2	9.855562E-1	1.000252E+0	1.022492E+0	9.868240E-1	1.056450E+0	9.831437E-1	9.982078E-1	9.656762E-1	9.709312E-1	9.752273E-1	1.002857E+0	9.723015E-1	9.850678E-1	9.802332E-1	9.912747E-1	1.042455E+0	9.769718E-1	9.884376E-1	1.007515E+0	9.719842E-1	9.734441E-1	1.043477E+0	9.496004E-1	9.673168E-1	1.007017E+0	9.770173E-1	1.003510E+0	9.900362E-1	1.002286E+0	9.964489E-1	9.880972E-1	1.013446E+0	9.908848E-1	9.930468E-1	1.017858E+0	9.806819E-1	9.563300E-1	9.983175E-1	1.010824E+0	9.972735E-1	9.741007E-1	1.048981E+0	1.013259E+0	1.025424E+0	1.018642E+0	9.764943E-1	9.649819E-1	9.878226E-1	1.007072E+0	9.837062E-1	9.802925E-1	9.987354E-1	1.009993E+0	9.687647E-1	9.840988E-1	1.015996E+0	1.018824E+0	1.013332E+0	9.697485E-1	1.058065E+0	1.000512E+0	9.996194E-1	9.988699E-1	1.029439E+0	1.036721E+0	1.014193E+0	9.839044E-1	1.021919E+0	1.003195E+0	1.049142E+0	1.018186E+0	1.016581E+0	9.934096E-1	9.946493E-1	1.009196E+0	9.536811E-1	9.859524E-1	1.014595E+0	1.011782E+0	9.904388E-1	9.755843E-1	9.997260E-1	1.017358E+0	9.658975E-1	1.024512E+0	1.001496E+0	1.007716E+0	1.012815E+0	1.064480E+0	9.839442E-1	1.027369E+0	1.000336E+0	9.527835E-1	9.988877E-1	1.002763E+0	9.706692E-1	9.908755E-1	1.010133E+0	9.806034E-1	1.007950E+0	1.012342E+0	1.013430E+0	1.013104E+0	1.029388E+0	9.824039E-1	9.983559E-1	9.825868E-1	1.012747E+0	1.034292E+0	1.003384E+0	9.907308E-1	1.028275E+0	1.014633E+0	9.872025E-1	1.028306E+0	1.053731E+0	1.024784E+0	1.016132E+0	9.990000E-1	1.078620E+0	9.901260E-1	9.561636E-1	1.011291E+0	1.036056E+0	1.025766E+0	1.025756E+0	1.016495E+0	1.020527E+0	9.767220E-1	1.036139E+0	1.005995E+0	1.000546E+0	1.017122E+0	1.005402E+0	1.038986E+0	1.049139E+0	1.001837E+0	9.917283E-1	1.018595E+0	1.002365E+0	9.669395E-1	9.692673E-1	1.033117E+0	1.009871E+0	9.943483E-1	9.844245E-1	9.886910E-1	1.022967E+0	1.033321E+0	1.022233E+0	9.644488E-1	1.022388E+0	9.964804E-1	1.032211E+0	9.873134E-1	9.746595E-1	1.000118E+0	9.631383E-1	1.006650E+0	9.610152E-1	9.748470E-1	1.021215E+0	1.012390E+0	1.032131E+0	1.056622E+0	9.746049E-1
5.610070E+2	1.023831E+0	9.998616E-1	1.044876E+0	1.020399E+0	9.869993E-1	1.017865E+0	1.021545E+0	1.048159E+0	9.961174E-1	1.072344E+0	9.946785E-1	1.017950E+0	1.021179E+0	1.008261E+0	1.083461E+0	9.883820E-1	1.008698E+0	1.032569E+0	1.019371E+0	1.004222E+0	1.021076E+0	1.059933E+0	9.906877E-1	1.023922E+0	1.016694E+0	1.058666E+0	9.738114E-1	1.038143E+0	9.913014E-1	1.003388E+0	1.033565E+0	1.032070E+0	9.901537E-1	9.946723E-1	9.977185E-1	1.018873E+0	9.865550E-1	9.996194E-1	1.035748E+0	1.059067E+0	1.023743E+0	1.017606E+0	1.047546E+0	1.014768E+0	1.023932E+0	1.080328E+0	9.939660E-1	1.026483E+0	1.042271E+0	1.007433E+0	1.034885E+0	1.015907E+0	1.043853E+0	1.019591E+0	1.031175E+0	1.046011E+0	9.782729E-1	9.205996E-1	1.007739E+0	9.882200E-1	1.056416E+0	1.034684E+0	1.022976E+0	1.011830E+0	1.025164E+0	9.720450E-1	1.000345E+0	9.901861E-1	1.059567E+0	1.045654E+0	1.020086E+0	1.012300E+0	1.038036E+0	9.951736E-1	1.004700E+0	9.800547E-1	1.048594E+0	1.008293E+0	9.736388E-1	9.968467E-1	1.031584E+0	1.015912E+0	9.800191E-1	1.028998E+0	1.035155E+0	1.022785E+0	1.007881E+0	1.007852E+0	1.000684E+0	1.014747E+0	9.970065E-1	1.028640E+0	1.019283E+0	1.011634E+0	1.046633E+0	1.046659E+0	1.038227E+0	9.942543E-1	9.954385E-1	9.838358E-1	1.010216E+0	9.996488E-1	9.977811E-1	1.022462E+0	1.050078E+0	1.012059E+0	1.026329E+0	1.001741E+0	9.793807E-1	9.723797E-1	1.000970E+0	1.013408E+0	1.000341E+0	1.000964E+0	9.878714E-1	1.008176E+0	9.856467E-1	1.047628E+0	1.029761E+0	1.001506E+0	9.928058E-1	1.028826E+0	1.000674E+0	9.997426E-1	1.021282E+0	9.912465E-1	1.058543E+0	1.035176E+0	9.977461E-1	1.033498E+0	1.061628E+0	1.000044E+0	9.970639E-1	9.662151E-1	1.029217E+0	1.028847E+0	9.889639E-1	9.646208E-1	1.022599E+0	1.034717E+0	1.034460E+0	9.962271E-1	1.019305E+0	1.034133E+0	1.002691E+0	1.035584E+0	1.047592E+0	1.001504E+0	9.950933E-1	9.919862E-1	1.045118E+0	1.003216E+0	9.895272E-1	1.029314E+0	1.039093E+0	9.764091E-1	1.044627E+0	1.023039E+0	1.019467E+0	9.942029E-1	9.960954E-1	9.903743E-1	9.996709E-1	1.040451E+0	9.484746E-1	1.074030E+0
