Photon Energy (eV)	#1	#2	#3	#4	#5	#6	#7	#8	#9	#10	#11	#12	#13	#14	#15	#16	#17	#18	#19	#20	#21	#22	#23	#24	#25	#26	#27	#28	#29	#30	#31	#32	#33	#34	#35	#36	#37	#38	#39	#40	#41	#42	#43	#44	#45	#46	#47	#48	#49	#50	#51	#52	#53	#54	#55	#56	#57	#58	#59	#60	#61	#62	#63	#64	#65	#66	#67	#68	#69	#70	#71	#72	#73	#74	#75	#76	#77	#78	#79	#80	#81	#82	#83	#84	#85	#86	#87	#88	#89	#90	#91	#92	#93	#94	#95	#96	#97	#98	#99	#100	#101	#102	#103	#104	#105	#106	#107	#108	#109	#110	#111	#112	#113	#114	#115	#116	#117	#118	#119	#120	#121	#122	#123	#124	#125	#126	#127	#128	#129	#130	#131	#132	#133	#134	#135	#136	#137	#138	#139	#140	#141	#142	#143	#144	#145	#146	#147	#148	#149	#150	#151	#152	#153	#154	#155	#156	#157	#158	#159	#160	#161	#162	#163	#164	#165	#166	#167	#168	#169	#170	
2.790060E+2	-5.487876E-3	1.717454E-3	1.213230E-2	-8.414905E-4	3.473004E-3	1.567924E-3	-7.634301E-3	3.035238E-3	9.128177E-3	2.375493E-3	3.325465E-4	-3.813378E-3	-9.282617E-3	4.853909E-4	6.950536E-3	-8.430083E-4	2.776068E-3	-1.344894E-2	2.537276E-3	-8.804924E-3	5.591720E-3	2.014276E-3	-8.680984E-3	2.204702E-2	1.786856E-2	4.916172E-4	6.721633E-3	-1.968722E-2	-8.321136E-4	-1.363965E-3	1.892201E-3	-1.751100E-2	-1.141271E-2	-1.086574E-2	1.278142E-2	-1.054464E-2	3.514904E-3	-5.411617E-3	-1.686768E-3	-1.734988E-2	-6.434937E-3	-9.553212E-3	-1.180171E-3	-6.637670E-3	-7.514311E-4	-4.390293E-3	4.490969E-3	-8.384446E-3	-1.381485E-2	1.285094E-2	-4.330559E-3	-5.756376E-3	-3.351809E-3	1.009814E-3	-4.623936E-3	8.581661E-3	-4.064138E-3	-9.776318E-4	5.581500E-3	-1.687497E-2	-6.422891E-3	-4.616634E-3	-9.218583E-3	8.470873E-3	-1.098114E-2	-6.694062E-3	5.220830E-3	-1.362493E-2	4.622519E-3	2.573885E-3	-9.507016E-3	1.037760E-2	-6.343254E-3	-4.865093E-3	-1.374013E-2	-1.005501E-2	6.359443E-3	1.610440E-3	-1.145804E-2	-7.735403E-3	5.641442E-4	-1.489304E-2	-9.249028E-3	7.793851E-3	7.619426E-3	1.759286E-3	-4.969788E-3	-1.711917E-2	-1.973956E-2	-2.044941E-2	-5.507183E-3	-4.840472E-3	-1.226594E-2	-4.205984E-3	1.081744E-3	1.141262E-2	-1.007874E-2	-1.439447E-2	1.045016E-2	-2.662298E-2	-1.077210E-3	1.799447E-2	-1.849317E-3	2.485617E-3	-1.979589E-3	-1.616724E-2	-1.258482E-2	-1.682942E-3	9.030559E-3	-1.199171E-2	-1.236674E-2	6.866229E-3	5.576265E-4	-7.456835E-3	-1.231633E-2	-8.621595E-3	-2.019908E-3	-6.396882E-3	-4.315966E-3	-1.338869E-2	-1.163422E-2	6.539786E-3	-2.270510E-2	-4.675026E-3	2.560617E-3	-1.078783E-2	-6.115358E-3	-1.982193E-3	-1.080983E-2	-3.649170E-5	-2.504972E-3	-8.916801E-3	4.007537E-3	-2.066715E-2	3.308689E-3	-2.355382E-2	6.469669E-3	-5.350016E-4	-8.274249E-3	8.495341E-3	8.835668E-4	-1.075203E-2	-1.054496E-2	2.690270E-4	-7.598486E-3	-2.300960E-4	-3.284656E-3	-1.622791E-2	-1.894301E-3	-4.624118E-3	-1.124533E-2	-3.444246E-3	-4.401599E-3	-6.868569E-3	-2.198338E-3	2.206159E-2	-3.275411E-3	1.182317E-2	-1.582387E-3	-5.060626E-3	4.684185E-4	-8.156879E-3	4.805169E-3	-5.583744E-3	-4.137896E-3	-5.570640E-3	-8.795351E-3	1.399301E-3	-7.441440E-3	-2.184921E-2
2.795020E+2	1.420402E-2	-2.401180E-3	-1.937554E-2	2.545774E-3	3.595045E-3	-9.731065E-4	-3.058896E-3	7.120591E-3	1.085192E-2	5.359809E-3	-1.135858E-2	2.561360E-3	-3.876772E-3	-1.854672E-3	-1.402925E-2	-6.173020E-3	5.470096E-5	-1.777597E-3	1.576589E-2	-2.216434E-3	-7.352811E-4	-4.401832E-3	-1.876983E-2	-6.863999E-3	-5.237477E-3	3.795375E-3	-5.815342E-3	1.010928E-3	3.462804E-3	-2.482820E-3	1.787324E-2	-1.161493E-2	4.369552E-3	-1.974592E-3	-1.799145E-2	7.230690E-3	-1.353952E-2	-9.366560E-5	4.958828E-3	1.339987E-2	-7.457360E-3	-7.825267E-3	-1.295607E-2	1.584425E-2	-1.948376E-3	-1.134655E-2	4.620890E-3	2.475437E-3	-1.193922E-2	-3.183218E-3	-6.650163E-3	7.007188E-3	-4.399200E-3	2.551858E-3	-7.071405E-3	-1.739316E-2	1.264863E-2	-6.235021E-4	1.779896E-3	9.780714E-3	3.790981E-3	-3.148533E-3	2.368751E-3	-2.450974E-3	-5.017975E-3	-1.337883E-2	-3.750205E-3	5.869711E-3	-1.070328E-2	4.029556E-3	3.052943E-4	-1.212064E-2	5.283753E-3	9.684063E-4	-1.463844E-2	9.337894E-4	-1.296462E-2	-1.113015E-2	1.903433E-3	-2.492679E-3	9.219145E-3	8.725455E-3	8.959832E-5	1.937668E-4	1.032166E-2	-1.102599E-2	-1.864345E-3	6.022558E-4	3.067895E-5	-4.108210E-3	-1.169141E-2	-9.239352E-4	-1.306167E-2	-1.984762E-2	1.249545E-3	-3.852313E-3	4.316022E-3	-5.321803E-3	-1.972257E-2	-1.634992E-3	2.429695E-3	-1.976692E-2	1.753454E-2	5.121574E-3	-1.043004E-2	-1.701257E-2	5.901338E-3	-7.625426E-4	3.745251E-3	-4.576142E-3	4.973434E-3	-2.404031E-3	1.124393E-3	-3.721700E-3	5.541741E-3	2.478546E-3	-1.631715E-3	7.261552E-3	-1.045757E-2	-3.093312E-3	-1.100550E-4	-1.503775E-3	4.999694E-3	-1.042869E-2	-4.068546E-3	5.157247E-4	9.664827E-3	-1.080788E-2	1.205947E-2	1.661263E-3	-4.786322E-3	6.815770E-3	-1.531903E-2	-1.831772E-3	-1.959421E-2	5.234348E-4	-1.235409E-2	-1.631017E-3	6.999630E-3	1.810234E-2	5.360760E-3	-9.279320E-3	7.214406E-3	5.981128E-3	-1.270852E-2	-1.058073E-2	5.144465E-5	-5.620475E-3	5.284006E-3	6.762110E-3	-3.353925E-3	-1.840049E-2	1.432252E-3	-3.518166E-3	6.598742E-3	-7.282082E-3	-8.205745E-3	8.957740E-4	-1.884857E-2	-1.803526E-3	6.941577E-3	-2.202483E-3	-1.220987E-2	4.662605E-3	1.629154E-2	4.044920E-3	-9.769481E-3	-3.731630E-3	2.045900E-2	-2.390589E-3
2.800000E+2	-8.383500E-3	5.786149E-3	5.700924E-3	-3.748463E-3	-1.784851E-2	2.195960E-2	-1.337175E-2	-7.937842E-3	3.125018E-3	-5.912395E-3	-1.428477E-2	-1.567329E-2	-6.757998E-3	3.775101E-4	-5.650241E-3	-1.098550E-3	-9.309458E-3	8.740264E-3	-1.066299E-2	-2.534113E-3	-4.955922E-3	-8.692662E-3	3.213149E-3	-5.972434E-3	-1.633385E-2	1.941247E-3	-3.264698E-3	1.131882E-2	-1.015492E-2	-8.817607E-3	-3.151399E-3	2.518666E-3	-6.633981E-3	-9.333083E-4	-4.275799E-3	-1.043299E-2	4.467681E-4	-1.183387E-2	-6.005341E-4	-3.296650E-3	5.959769E-3	2.365545E-3	1.209544E-2	3.774174E-3	-3.708920E-3	8.067671E-3	-3.262881E-3	-4.282549E-3	-1.223248E-2	-2.106975E-2	2.216389E-3	1.207506E-2	-1.724596E-2	-1.862266E-2	-7.397052E-3	-9.045601E-3	-1.184438E-4	-1.339516E-2	-5.315660E-3	2.318924E-3	-9.132206E-3	-3.443304E-3	2.018681E-3	-7.245231E-3	-5.797334E-3	-3.654055E-3	-1.075024E-3	-4.503557E-3	-2.610009E-4	-1.478787E-2	-2.134105E-2	-1.362169E-2	-6.158588E-3	-7.517235E-4	8.682160E-4	-1.034512E-2	-5.464460E-3	-8.830048E-3	2.489123E-4	-1.696961E-3	-1.022370E-2	-1.343302E-2	-1.052603E-2	-4.118931E-3	-7.318477E-3	-3.727958E-3	-6.274167E-3	-4.654476E-3	-1.068054E-2	-7.280310E-3	-6.762258E-3	-2.411985E-3	4.461251E-3	1.016240E-2	-9.651518E-3	-9.145951E-3	7.042118E-3	-5.600296E-3	1.744002E-3	2.979750E-2	-4.991193E-3	1.901976E-3	-9.562872E-3	-2.005676E-3	-1.215724E-2	7.281598E-3	-1.506462E-2	-2.011713E-3	-7.108464E-3	-2.130133E-3	-7.087429E-3	-1.695757E-3	1.298003E-2	-7.222046E-3	8.341258E-3	1.950949E-3	-4.511847E-3	-5.108157E-3	6.020664E-3	-1.005460E-2	2.299624E-2	3.671339E-3	-1.024350E-2	-1.236248E-2	-1.647560E-2	-1.308469E-2	-5.965850E-3	-1.323372E-2	-4.736149E-3	-1.008745E-2	-7.662882E-3	1.562041E-3	1.392802E-2	5.619289E-3	-4.060838E-3	1.471917E-2	4.752907E-3	2.092023E-3	-8.166731E-3	-1.176353E-3	-4.637655E-3	-7.142149E-3	-5.569223E-3	-9.753995E-3	-8.675237E-3	9.968200E-4	1.158642E-2	2.575825E-3	-3.292098E-3	3.664435E-3	-1.094276E-2	1.191348E-2	-7.130540E-3	-9.766009E-4	-9.201959E-3	-4.422089E-3	-7.239605E-3	-4.233865E-3	3.738001E-3	-2.190636E-3	-2.193440E-2	-1.369185E-2	-1.407949E-2	-5.390049E-3	-1.075377E-2	-5.561265E-3	7.870814E-3	-2.215773E-2	5.543375E-3	-1.610728E-2
2.805030E+2	-4.037247E-3	-2.875638E-3	7.095596E-3	-8.241883E-3	-6.699241E-3	-9.640753E-3	-4.958030E-3	-9.330428E-3	-1.320403E-3	8.144803E-4	4.180428E-3	-5.350405E-3	-4.280541E-3	-9.936514E-3	2.922315E-3	-4.357487E-3	-1.087006E-2	9.046271E-4	-4.226841E-3	-1.201151E-4	-3.716215E-3	5.744262E-3	9.680404E-3	-1.195656E-2	-1.487635E-2	9.157673E-3	-4.746302E-3	-7.476001E-3	-1.020644E-2	-1.006303E-2	-1.288111E-2	2.475685E-3	-6.706752E-3	-9.331909E-3	-1.532819E-4	8.033691E-3	3.228778E-3	5.779491E-3	-1.095482E-2	7.104614E-3	-7.868526E-3	-4.260001E-3	-1.328579E-2	-1.226740E-2	-1.038946E-3	-2.429414E-3	-8.317804E-3	-5.381022E-3	9.350765E-3	7.560724E-4	-4.657987E-4	-4.439583E-3	-3.260469E-3	6.660145E-4	-1.319324E-2	-4.958580E-4	-1.383295E-2	-5.740549E-3	-6.717148E-3	-1.955473E-3	-1.613767E-2	4.674653E-3	-7.868468E-4	-2.064950E-2	-2.994666E-4	-1.941256E-3	8.071170E-3	-3.075869E-3	-1.360177E-2	4.930790E-3	1.204656E-3	7.104727E-3	-1.408837E-2	-6.247162E-3	-6.377723E-3	-8.621676E-4	1.135292E-2	-8.870507E-3	1.047658E-2	-3.879374E-3	-1.034061E-2	-1.350271E-2	-6.212828E-3	-4.227009E-3	-1.449996E-5	1.906683E-2	-1.713602E-2	-1.209927E-2	-5.090755E-4	-1.724706E-2	-1.203149E-2	9.397155E-3	-5.749780E-3	-8.049178E-3	-4.971855E-3	-8.066605E-3	-8.121854E-3	-1.398536E-2	-1.198504E-3	-7.798652E-3	-6.473474E-3	-9.732900E-3	-1.848505E-2	-7.101252E-3	3.802880E-3	-1.886431E-2	4.186989E-3	-3.433093E-3	-4.513615E-3	-7.999465E-4	7.155544E-3	-1.728627E-3	-1.072438E-2	3.856736E-3	-1.043056E-3	-1.318873E-2	-5.938761E-3	-3.829758E-3	-4.504064E-4	-1.507081E-2	-5.935780E-3	2.252179E-3	-7.322057E-3	6.553557E-3	-8.415638E-3	-2.243857E-3	9.246851E-4	-2.998336E-3	-3.316083E-3	4.126225E-3	-3.736894E-3	-8.132683E-3	-1.825309E-2	1.336794E-2	1.992310E-4	-1.107427E-2	-1.557069E-2	-1.424042E-2	-1.223814E-2	-1.217790E-2	-1.154062E-2	4.990709E-3	-6.836348E-3	-4.187606E-3	-5.738573E-3	-1.744089E-2	5.639752E-3	-9.664007E-3	-1.426218E-2	-3.194874E-3	1.372761E-2	-1.138045E-5	1.066409E-2	-5.349713E-3	7.555879E-3	-2.515695E-2	6.873184E-3	-4.248750E-3	1.043195E-2	-1.415833E-2	-2.063924E-3	3.004579E-3	2.059428E-2	-3.152584E-3	-1.324805E-2	-1.349820E-2	-1.660971E-2	-1.148085E-2	1.964840E-3	-9.467667E-3
2.810020E+2	-2.265691E-3	6.002761E-3	-2.104491E-2	-5.077578E-3	-1.620774E-2	-1.163924E-3	1.518748E-2	-3.747354E-3	3.354253E-3	-1.528446E-2	5.782662E-3	-6.204904E-4	4.901767E-3	1.216818E-2	-5.186690E-4	-9.485346E-3	7.373136E-3	-9.740897E-3	-7.532355E-5	-2.352534E-3	-6.025138E-3	-4.561211E-3	-4.451824E-3	-1.009402E-3	-8.035542E-4	-1.691270E-2	-1.023281E-2	-5.063039E-4	1.394668E-2	-5.013366E-3	-7.810228E-3	9.458348E-3	1.140926E-3	2.049827E-3	1.494193E-3	-5.305484E-3	-7.912635E-3	3.545248E-3	-1.976222E-2	-1.823756E-2	-4.548812E-3	3.885430E-3	-6.399587E-3	2.498003E-3	4.760114E-3	-7.952505E-3	-4.318326E-3	-5.104574E-3	5.574732E-3	2.480564E-3	-2.833761E-3	4.068888E-3	1.107301E-2	-7.367314E-3	-3.887054E-5	-1.459069E-3	-9.489559E-3	2.263012E-3	-9.221074E-3	-1.295645E-2	-1.987873E-3	1.431243E-3	-4.684385E-3	5.294476E-3	7.022474E-3	-5.991675E-3	3.784160E-3	-1.707787E-2	1.437369E-2	-6.660070E-3	1.320919E-4	-6.086895E-3	5.046307E-3	3.509716E-3	8.265266E-3	-3.340491E-3	7.752701E-3	1.857565E-2	-1.244234E-2	-4.696299E-3	-3.334578E-3	-8.226916E-3	-7.590632E-3	-1.178093E-2	-9.713974E-3	-6.184157E-3	1.965568E-3	4.018889E-4	1.451595E-2	1.135448E-2	-9.190908E-3	4.625626E-4	3.555498E-3	-1.709196E-3	5.796399E-3	-4.376386E-3	1.206536E-2	1.780162E-4	5.214066E-4	-7.678353E-3	-4.847692E-3	2.206398E-3	-2.841740E-4	-2.987858E-3	-2.070845E-2	1.369514E-3	-8.393360E-3	2.421375E-3	-8.183434E-3	2.250409E-3	9.946941E-4	-9.032618E-3	-3.089512E-3	2.579866E-3	-5.440903E-3	-7.886683E-3	-8.441035E-3	-4.870121E-3	1.131166E-3	6.457169E-3	-5.667512E-3	-8.493283E-3	-1.091011E-3	8.825731E-4	-1.361716E-3	-3.178350E-3	-9.931949E-3	-7.326809E-3	-8.663226E-3	8.736815E-3	-7.456491E-3	1.037832E-2	-1.245200E-2	-3.226093E-3	-6.696874E-3	-4.743940E-3	6.912844E-4	-8.559281E-3	1.903664E-2	-2.810983E-2	-2.954291E-3	1.682847E-3	-3.186117E-4	-1.456425E-2	-1.294235E-3	7.887123E-3	-1.641275E-2	1.542807E-2	8.203974E-3	-9.786731E-3	-6.365453E-3	3.143743E-4	-5.506599E-3	6.914404E-4	-1.181224E-2	1.256637E-2	-4.483720E-4	-5.162488E-3	-5.410931E-3	-5.178477E-3	-1.388094E-2	-1.203781E-2	-4.345426E-3	-1.097990E-2	8.473612E-3	-6.649293E-3	6.486023E-6	-7.531732E-3	-2.306336E-2	4.175977E-3
2.815070E+2	1.389768E-4	3.970555E-3	3.789675E-3	-7.006307E-3	3.080774E-2	-4.414892E-3	-8.047740E-3	6.291261E-3	-1.170659E-2	-7.544547E-3	1.711220E-2	-2.633338E-3	5.615487E-3	-6.285643E-3	2.535466E-4	-1.629020E-2	6.785977E-3	8.368055E-3	-3.161760E-3	-1.566541E-3	-1.288749E-2	-5.016385E-3	-4.892986E-3	-2.649163E-3	-4.425371E-3	-1.299703E-3	7.182626E-4	8.280400E-3	-7.745472E-3	-3.108727E-3	2.632324E-3	-5.468964E-3	1.718898E-2	9.836153E-3	6.548961E-3	-6.967194E-3	1.305230E-2	-4.542120E-3	9.347506E-3	3.393156E-3	2.611723E-3	-9.710479E-3	1.307405E-2	1.996066E-3	1.099268E-2	-9.532282E-3	-3.522726E-3	1.358596E-2	6.405958E-3	2.664801E-2	1.909191E-3	-1.149724E-2	4.343571E-3	-1.062725E-2	1.658591E-2	-5.623692E-3	1.183265E-2	9.363829E-3	-2.881461E-3	-8.177423E-4	-1.079152E-2	2.144772E-3	-3.753745E-3	8.092229E-3	-8.943989E-3	-2.195330E-3	1.339871E-4	6.572070E-3	1.224564E-2	-1.896779E-3	2.280095E-3	8.074465E-3	-1.274454E-2	-7.824964E-3	4.804128E-3	2.430704E-4	-1.349536E-2	-1.340882E-3	-2.605184E-3	2.840691E-4	6.909329E-3	1.670036E-2	3.538783E-2	-1.980966E-3	-2.115333E-2	-4.020971E-4	1.751271E-2	1.090216E-2	5.006069E-3	8.805719E-4	-3.134956E-3	-4.006460E-3	-2.019645E-3	1.106080E-2	-6.428644E-3	8.352137E-4	-1.118524E-2	-7.223078E-3	2.885420E-3	1.766365E-2	1.729483E-3	1.072841E-2	4.298618E-3	1.299366E-2	1.371313E-2	1.610879E-2	1.275218E-4	1.026257E-2	-4.645107E-3	-9.902342E-4	9.525353E-3	4.396469E-3	-5.012219E-3	-9.101537E-3	-1.265309E-3	-2.034359E-3	7.606322E-3	1.262707E-3	-1.917209E-3	1.091451E-2	2.048152E-3	-2.054358E-3	1.025111E-2	3.594474E-4	1.153441E-2	1.444448E-2	7.185870E-4	1.057323E-2	1.596326E-2	-7.489019E-3	-1.283734E-3	1.399420E-3	1.226899E-2	7.940380E-3	1.388162E-3	-2.821743E-3	-1.330947E-3	4.623535E-4	-3.558033E-4	2.849208E-2	-2.049721E-3	8.422747E-3	-8.285731E-4	3.557947E-4	1.349375E-2	1.126513E-2	-3.508126E-3	4.670114E-3	-6.738840E-4	7.475641E-3	9.114623E-3	1.305191E-2	-5.227297E-4	-1.260956E-3	-5.250024E-3	-1.218616E-2	-6.057857E-3	5.133238E-3	-5.871950E-3	1.395324E-2	9.817102E-3	2.077077E-2	1.400497E-2	5.500256E-3	3.925222E-3	7.873681E-4	1.413301E-2	-1.794445E-4	-5.490793E-3	-2.964409E-2
2.820010E+2	-3.686404E-3	-1.016523E-3	-1.488643E-3	9.837716E-3	1.345616E-2	-9.400659E-4	8.231746E-3	4.387328E-3	6.003531E-3	1.628921E-2	-6.084811E-3	8.432214E-3	-3.083599E-3	-3.170848E-3	-6.603960E-3	2.410916E-2	-3.790222E-5	-3.449230E-3	-3.887233E-3	2.340001E-4	-2.017864E-3	1.540740E-2	8.783473E-3	2.696778E-3	-6.933102E-4	7.545857E-4	1.841039E-2	1.170990E-2	8.753016E-3	1.315813E-2	6.911111E-3	7.405222E-3	5.832985E-3	1.054315E-2	4.393757E-3	1.839341E-2	-7.756164E-3	4.935839E-3	1.268151E-2	1.341538E-2	6.328416E-3	1.060038E-2	9.791024E-3	2.591730E-3	-3.360077E-3	9.811785E-3	1.720752E-2	4.717747E-3	1.525982E-2	-1.500910E-2	1.045151E-2	8.314486E-3	-4.436456E-3	1.218116E-2	1.446694E-2	4.831906E-3	-7.957563E-3	5.468107E-3	1.726458E-3	-1.663593E-4	1.491487E-2	1.567280E-3	9.354653E-4	4.346966E-3	8.591041E-3	8.457905E-3	-7.213802E-4	2.305626E-2	-2.461294E-3	1.197085E-2	1.225928E-2	-1.050796E-3	1.307720E-2	1.453238E-2	6.939343E-3	1.321401E-2	5.292494E-3	5.730249E-3	7.049359E-3	5.280950E-3	6.368116E-3	9.833647E-3	-7.432960E-3	1.297877E-2	3.524813E-4	2.896124E-3	7.190766E-4	1.665625E-2	2.874793E-3	1.570922E-2	2.363496E-2	5.759552E-4	1.391942E-2	9.410110E-3	-2.320621E-3	7.253663E-3	1.223293E-2	2.123415E-2	6.402367E-3	2.566056E-3	1.529705E-2	-2.874578E-4	7.469387E-3	-1.181653E-2	1.179157E-2	1.070875E-2	7.787131E-4	-1.611557E-3	6.620639E-3	2.363146E-3	2.440470E-3	1.287892E-3	8.879995E-3	1.708812E-2	2.448113E-3	1.505434E-2	5.526691E-3	1.932928E-2	-5.220183E-3	5.351609E-3	-6.974056E-3	8.178865E-3	1.394861E-2	-5.137011E-4	1.231523E-2	7.891383E-3	-7.052891E-3	1.704506E-2	6.873003E-3	-6.911297E-3	1.252500E-2	-6.337426E-3	8.737222E-3	2.120050E-3	6.395097E-3	9.975708E-3	2.271265E-3	1.747679E-2	2.963856E-3	-1.478495E-2	9.689732E-3	3.081456E-3	1.481103E-2	1.640878E-2	1.000373E-2	1.073303E-2	1.205484E-2	8.848389E-4	-2.308724E-5	2.674073E-3	-3.360660E-3	-7.618045E-3	-1.267437E-3	5.151352E-3	6.586613E-3	5.372184E-4	1.636605E-2	-2.063361E-4	2.171273E-2	2.406226E-3	-3.185033E-3	4.840025E-3	-1.105878E-3	-2.344040E-3	-6.202278E-3	-1.235011E-3	1.491010E-2	-5.451691E-3	-8.503169E-3	3.112967E-2
2.825040E+2	9.517722E-3	-1.118358E-2	1.319060E-2	1.253223E-2	-1.057646E-2	-6.394780E-3	1.365149E-2	1.812046E-4	-1.943591E-2	3.902405E-3	4.320328E-3	1.709733E-2	1.676427E-2	8.216591E-3	1.667573E-2	1.413846E-2	3.227537E-3	1.040372E-2	3.710982E-3	1.736066E-2	2.474619E-2	-4.938450E-4	1.511860E-2	3.707761E-3	2.450135E-2	2.071909E-3	-1.791140E-3	-4.650517E-3	2.776453E-3	1.769138E-2	-5.466139E-3	1.273697E-2	-3.779001E-3	6.764208E-4	-2.797807E-3	-4.074788E-4	8.965567E-3	7.620694E-3	6.016501E-3	1.571075E-3	1.140973E-2	1.449760E-2	-1.138889E-3	-7.799160E-3	-4.945045E-3	1.777159E-2	-6.897643E-3	2.373443E-3	1.395284E-3	-3.473513E-3	-2.968096E-4	-9.772426E-3	1.727731E-2	2.020838E-2	1.271653E-3	2.060381E-2	1.098137E-2	3.641894E-3	1.504749E-2	2.067136E-2	2.576630E-2	1.390524E-3	1.312066E-2	4.141159E-3	1.542639E-2	2.539730E-2	-1.166354E-2	2.784185E-3	-4.214505E-3	-1.603680E-4	1.466665E-2	7.323229E-3	1.592750E-2	6.784437E-4	1.387934E-2	1.021193E-2	1.166874E-3	4.255247E-3	6.827276E-3	1.493570E-2	8.381543E-4	1.479622E-2	5.534048E-3	1.141451E-3	1.990672E-2	-2.382033E-3	1.004696E-2	5.310378E-3	8.501685E-3	2.114073E-2	2.468324E-2	1.747178E-3	1.116086E-2	3.178665E-3	1.524495E-2	5.939755E-3	-6.270594E-3	2.511284E-2	-1.082280E-3	-6.292227E-3	-2.066664E-3	-3.043984E-3	8.788738E-4	3.310466E-3	1.596773E-2	1.657546E-2	2.504824E-2	-3.182095E-3	5.054173E-3	1.587461E-2	-5.635328E-3	2.310443E-3	-4.715936E-3	3.977393E-3	3.734484E-3	1.224752E-2	9.410253E-3	-7.648625E-3	1.520950E-2	1.888413E-2	5.277232E-3	-8.590752E-3	1.216226E-2	2.018432E-2	3.911248E-3	6.443140E-3	1.775795E-2	8.730646E-3	-7.370439E-3	9.999956E-3	1.490630E-2	3.231361E-3	7.082348E-3	-3.322642E-3	1.906075E-2	1.697546E-2	1.507060E-2	4.934548E-3	3.479527E-5	1.159272E-3	5.248224E-3	8.995741E-3	2.072282E-3	5.491124E-3	1.251756E-2	-2.630392E-3	-6.126934E-3	7.953542E-3	6.657572E-3	-2.970535E-3	1.242589E-2	4.194394E-3	6.732564E-3	1.213121E-2	7.721328E-3	1.388210E-2	1.987754E-3	-4.000738E-3	-4.168845E-3	1.203213E-2	2.383720E-2	7.473648E-3	-7.663745E-3	1.728746E-2	5.651617E-3	2.768212E-2	-1.745870E-3	4.913377E-2	1.653154E-2	4.415319E-2
2.830020E+2	1.510630E-2	7.320756E-5	-1.572264E-2	2.136864E-2	4.015489E-3	1.574564E-2	-3.576135E-3	4.151530E-3	3.163577E-3	2.596394E-2	2.976886E-2	1.958350E-3	1.827145E-2	1.731353E-2	2.968766E-3	2.364742E-3	8.581844E-3	2.179623E-3	1.418833E-2	6.159820E-3	2.548058E-2	2.495331E-2	2.717269E-2	4.886081E-3	4.391026E-4	1.071138E-2	2.096471E-3	1.698024E-2	1.193401E-2	-2.721825E-3	7.899530E-3	1.870327E-2	1.009122E-4	1.469404E-2	2.247773E-2	1.962744E-2	3.595687E-3	3.981046E-3	8.700699E-3	1.642990E-3	2.867158E-2	1.198912E-2	1.630262E-2	1.686683E-2	3.627082E-2	9.927540E-3	1.585372E-2	1.346936E-2	1.448828E-2	9.905496E-3	4.919501E-3	1.091278E-2	1.810314E-2	2.807636E-3	1.719432E-2	7.234379E-3	1.162948E-2	2.185776E-3	2.330195E-2	2.236655E-2	1.236733E-2	2.520964E-2	1.728568E-2	7.750710E-3	1.542044E-2	-5.149762E-4	-1.057585E-3	-7.418665E-3	1.887347E-2	-1.406436E-5	7.990918E-3	8.686888E-3	1.388751E-2	1.718199E-2	1.997419E-2	7.458803E-3	-5.751397E-3	6.933069E-3	1.361003E-2	1.316163E-2	2.306414E-2	-3.131185E-3	7.059690E-3	2.607201E-3	-2.368683E-3	3.156423E-2	1.157612E-2	-2.174724E-3	-8.459302E-3	4.151564E-3	9.165900E-3	3.549672E-2	-3.141870E-3	1.695748E-2	-1.841247E-4	5.034373E-3	1.648464E-2	2.380594E-2	1.618454E-2	3.619451E-3	6.290011E-3	3.292374E-3	2.788532E-2	1.477596E-2	-3.360889E-3	-6.999517E-3	1.357690E-2	6.294373E-3	-1.751050E-3	2.429453E-2	7.421375E-3	2.424527E-2	2.788004E-2	1.338892E-2	6.486976E-3	1.103400E-2	1.492887E-2	1.378503E-2	1.000600E-2	1.778449E-2	1.226927E-2	2.034328E-2	1.806399E-2	3.444486E-3	-9.894485E-3	7.662263E-3	1.069248E-2	2.520350E-2	1.636797E-2	1.719278E-2	-3.953965E-3	-2.582929E-3	2.539570E-2	-1.016388E-2	1.610008E-3	4.971061E-3	2.553079E-2	2.143614E-2	-4.298559E-3	-3.566263E-3	1.921224E-2	-7.009463E-3	1.219032E-2	1.516273E-2	1.668741E-2	9.251711E-3	5.604071E-3	1.214169E-2	3.783149E-3	-4.708054E-3	4.379216E-4	8.328264E-3	-3.126509E-3	3.263600E-2	2.473901E-2	3.088419E-3	1.236959E-2	9.362529E-3	1.199092E-2	7.275988E-3	1.766374E-2	4.598659E-3	4.313187E-2	2.027368E-2	1.370379E-2	7.825095E-3	1.777788E-2	7.367379E-3	1.811654E-2	-1.586039E-3
2.835040E+2	1.593465E-2	1.083966E-2	5.969292E-3	1.425447E-2	2.612317E-2	9.167976E-3	1.299423E-2	1.439906E-2	2.302766E-2	1.254750E-2	3.070137E-2	1.770584E-2	2.693325E-2	4.350514E-2	2.910027E-2	1.639167E-2	1.652610E-2	1.676378E-2	8.039297E-3	2.671082E-3	1.151844E-2	1.611453E-2	1.026449E-2	1.903581E-2	1.920804E-2	6.477632E-3	3.630622E-2	2.757834E-2	2.896239E-2	7.709262E-3	8.009180E-4	-4.717813E-5	3.992426E-2	1.523121E-2	7.084402E-3	1.652820E-2	1.416117E-2	1.243026E-2	2.954970E-2	2.043032E-2	1.806612E-2	3.323170E-2	1.272901E-2	1.426048E-2	2.511232E-2	5.920787E-3	8.671161E-3	3.008782E-2	2.406919E-2	1.487040E-2	8.032225E-3	2.723749E-2	2.384525E-2	1.491392E-2	3.276265E-2	2.195894E-2	4.466969E-3	1.375894E-2	1.830336E-2	1.438143E-2	7.250764E-3	8.967117E-3	2.212053E-2	1.549158E-2	1.811834E-2	1.174721E-2	2.460938E-2	7.643952E-3	1.845903E-2	7.345438E-3	2.373889E-2	5.449807E-3	4.032984E-3	3.926556E-2	3.100696E-2	1.500356E-2	1.011067E-2	2.756292E-2	2.215883E-2	1.283782E-2	1.912539E-2	-2.673682E-3	5.939172E-3	8.625744E-3	1.820650E-2	-1.403909E-3	1.630368E-2	1.369398E-2	1.981638E-2	1.501784E-2	9.515235E-3	2.295494E-2	1.679549E-2	1.162004E-2	1.878671E-2	-3.785256E-3	2.631066E-2	5.739736E-3	1.826612E-2	6.946601E-3	3.108026E-2	1.633681E-2	1.048895E-2	1.172808E-2	1.255276E-2	2.372047E-2	1.168674E-2	1.698961E-2	2.444335E-2	1.517503E-2	2.306532E-2	4.173554E-3	4.562830E-3	6.376417E-4	2.945919E-2	-2.795226E-3	1.989788E-2	1.049116E-2	1.056361E-2	2.252439E-2	1.121702E-2	3.692165E-2	1.244989E-2	1.151408E-2	3.693757E-3	1.204535E-2	3.440288E-2	2.747442E-2	8.161131E-3	7.497147E-3	2.093920E-2	3.579833E-3	2.468638E-2	1.034063E-2	6.468702E-3	1.956064E-2	3.113626E-2	3.651298E-2	1.134768E-2	1.346175E-2	2.137816E-2	9.962745E-3	1.559138E-2	2.712404E-2	1.251409E-3	1.257691E-2	2.893887E-3	1.554721E-2	1.437371E-2	9.648466E-3	2.642178E-2	6.258476E-3	1.146360E-2	2.766746E-2	1.682240E-2	1.453198E-2	1.315034E-2	1.887245E-2	3.790787E-2	8.057620E-3	8.651352E-3	2.111024E-2	3.271511E-2	1.811454E-2	1.427930E-2	1.110297E-2	1.143009E-2	1.043725E-3	1.288507E-2	2.843891E-5
2.840020E+2	5.961936E-2	2.232818E-2	5.621932E-2	4.811045E-2	5.218703E-2	5.129506E-2	7.018097E-2	3.390787E-2	5.852922E-2	3.224768E-2	5.887531E-2	6.160180E-2	6.286831E-2	5.473322E-2	6.478326E-2	5.678534E-2	4.049232E-2	4.228280E-2	5.475928E-2	4.161223E-2	3.394283E-2	3.824790E-2	5.304168E-2	5.844599E-2	3.756717E-2	5.085374E-2	4.655129E-2	2.307588E-2	3.150117E-2	4.073591E-2	4.557339E-2	3.888254E-2	3.988670E-2	5.342142E-2	4.655037E-2	5.064623E-2	4.848350E-2	2.704556E-2	4.752275E-2	5.167039E-2	2.336505E-2	6.857719E-2	4.638072E-2	3.039088E-2	4.782288E-2	2.941279E-2	5.922690E-2	5.700250E-2	5.039412E-2	6.281998E-2	4.252234E-2	4.608830E-2	5.500583E-2	3.682510E-2	3.078974E-2	5.088998E-2	4.943782E-2	4.946259E-2	4.223640E-2	7.594839E-3	4.413078E-2	4.355226E-2	4.953508E-2	3.582639E-2	5.114973E-2	5.090034E-2	4.369639E-2	2.976849E-2	6.901819E-2	4.361879E-2	3.043714E-2	4.298748E-2	2.837837E-2	2.747542E-2	5.842778E-2	4.511247E-2	5.509301E-2	4.377527E-2	4.948107E-2	6.075375E-2	2.822822E-2	3.498629E-2	3.471901E-2	6.933749E-2	3.647505E-2	4.906697E-2	6.229011E-2	5.178118E-2	3.711994E-2	4.159714E-2	4.943058E-2	2.680666E-2	5.253999E-2	4.804385E-2	4.029586E-2	3.005483E-2	4.996414E-2	5.438614E-2	3.299354E-2	6.966172E-2	4.217185E-2	7.917832E-2	3.333052E-2	3.308425E-2	5.414057E-2	4.794849E-2	4.031066E-2	6.550006E-2	5.261317E-2	5.890154E-2	2.290832E-2	3.902776E-2	5.140629E-2	5.263286E-2	3.380924E-2	2.752435E-2	2.870994E-2	4.774857E-2	5.152188E-2	6.004816E-2	3.891915E-2	3.850245E-2	6.106273E-2	6.843889E-2	4.521230E-2	5.339436E-2	4.912051E-2	5.478130E-2	5.059982E-2	6.538417E-2	2.750944E-2	4.790648E-2	5.668589E-2	3.407351E-2	6.435438E-2	1.174089E-2	5.512087E-2	3.387416E-2	4.392356E-2	3.635031E-2	2.182081E-2	2.543530E-2	4.742251E-2	5.645934E-2	7.048760E-2	3.469654E-2	3.693707E-2	8.045805E-2	3.908397E-2	4.697966E-2	5.240949E-2	1.425029E-2	4.762442E-2	4.892536E-2	6.287077E-2	4.949548E-2	3.883036E-2	3.422587E-2	4.370629E-2	4.355671E-2	5.454729E-2	6.121523E-2	4.052349E-2	4.036004E-2	6.971120E-2	3.032989E-2	4.707151E-2	4.495810E-2	3.594517E-3	3.777785E-2
2.841010E+2	5.576450E-2	3.794928E-2	5.995804E-2	9.347394E-2	3.711814E-2	5.476454E-2	3.694795E-2	5.889829E-2	3.999473E-2	5.327096E-2	5.363358E-2	6.212631E-2	4.336563E-2	7.497588E-2	5.067991E-2	5.763294E-2	4.071085E-2	5.927738E-2	5.675355E-2	3.654908E-2	6.670231E-2	6.600597E-2	6.925839E-2	6.177217E-2	5.706600E-2	4.478078E-2	5.915663E-2	3.778866E-2	5.322046E-2	3.995454E-2	7.922641E-2	4.796310E-2	6.620369E-2	4.927425E-2	4.989271E-2	5.389525E-2	5.828885E-2	5.382341E-2	4.240815E-2	5.238545E-2	5.359560E-2	5.927119E-2	3.800102E-2	7.324201E-2	4.982028E-2	4.644437E-2	6.678372E-2	5.090915E-2	6.177863E-2	4.730630E-2	2.274789E-2	5.849989E-2	6.121041E-2	6.156282E-2	4.179931E-2	4.746514E-2	3.243049E-2	3.959136E-2	6.611612E-2	7.187158E-2	3.270135E-2	6.193066E-2	5.589817E-2	5.104855E-2	6.732732E-2	6.069841E-2	4.061041E-2	4.707431E-2	3.552544E-2	4.840171E-2	5.970399E-2	3.676557E-2	6.088753E-2	7.071205E-2	7.783514E-2	5.294937E-2	5.291744E-2	4.991205E-2	5.846854E-2	5.090885E-2	5.559246E-2	4.372468E-2	4.768763E-2	2.926315E-2	6.512520E-2	4.678301E-2	5.997741E-2	4.428063E-2	2.568468E-2	4.034508E-2	4.562312E-2	5.453241E-2	5.597316E-2	2.867637E-2	6.901800E-2	1.927326E-2	5.648672E-2	6.995386E-2	8.044139E-2	5.288561E-2	5.181948E-2	7.001679E-2	8.094415E-2	5.695445E-2	6.042499E-2	4.139683E-2	5.905321E-2	8.281480E-2	5.457863E-2	5.945460E-2	4.867978E-2	2.418389E-2	4.870626E-2	5.117244E-2	4.392233E-2	5.671902E-2	6.428983E-2	7.316746E-2	4.777973E-2	6.349008E-2	4.480923E-2	4.922284E-2	6.152797E-2	8.377446E-2	4.291266E-2	7.128177E-2	7.683161E-2	5.548538E-2	5.317884E-2	4.578208E-2	6.653610E-2	7.595362E-2	7.182148E-2	6.890166E-2	4.303056E-2	6.352093E-2	4.483889E-2	5.952079E-2	6.196251E-2	6.381733E-2	4.196348E-2	5.381292E-2	5.890800E-2	3.778299E-2	7.012896E-2	5.811165E-2	3.872304E-2	6.687349E-2	3.934063E-2	6.106772E-2	6.393964E-2	6.116495E-2	5.751438E-2	6.832213E-2	6.655174E-2	5.650496E-2	6.237713E-2	6.095224E-2	6.760973E-2	4.687897E-2	5.529840E-2	6.382678E-2	6.130883E-2	3.914547E-2	6.112503E-2	6.292026E-2	6.698449E-2	5.332575E-2	4.981580E-2	1.038914E-2
2.842010E+2	7.132992E-2	4.310088E-2	4.083686E-2	6.816623E-2	6.535302E-2	9.315053E-2	7.775863E-2	3.021180E-2	6.097589E-2	4.782016E-2	7.297324E-2	6.261752E-2	4.246269E-2	7.700528E-2	5.927086E-2	5.934200E-2	6.162767E-2	7.168826E-2	6.152873E-2	5.457651E-2	7.634054E-2	7.534222E-2	4.967055E-2	6.488116E-2	2.052908E-2	4.694821E-2	4.712005E-2	5.144106E-2	7.246923E-2	2.993897E-2	4.917256E-2	8.146060E-2	6.827292E-2	7.424918E-2	5.033010E-2	8.562555E-2	5.619815E-2	9.223786E-2	5.702983E-2	5.671533E-2	4.798923E-2	4.827095E-2	6.623954E-2	7.535612E-2	2.985446E-2	5.854075E-2	5.628847E-2	6.085421E-2	8.397076E-2	4.613186E-2	6.494258E-2	6.501860E-2	4.916638E-2	6.821598E-2	3.590270E-2	4.793034E-2	4.929099E-2	4.683332E-2	6.809714E-2	5.082619E-2	3.606423E-2	6.757926E-2	5.938146E-2	4.417418E-2	5.500262E-2	6.276480E-2	5.615112E-2	4.755370E-2	5.386710E-2	6.489281E-2	5.874217E-2	6.952870E-2	6.303681E-2	7.124985E-2	6.103968E-2	5.792190E-2	7.036342E-2	5.035709E-2	5.475538E-2	8.141962E-2	6.966899E-2	6.820736E-2	6.420787E-2	5.817823E-2	5.171767E-2	3.039145E-2	5.751115E-2	4.610077E-2	5.441390E-2	7.982216E-2	3.318020E-2	4.778534E-2	5.372697E-2	5.581198E-2	3.582098E-2	8.271346E-2	3.880168E-2	6.428918E-2	6.511879E-2	7.558752E-2	6.424807E-2	8.199312E-2	6.191321E-2	8.674617E-2	4.777335E-2	6.719460E-2	5.814762E-2	5.145495E-2	3.248202E-2	7.055370E-2	4.344961E-2	3.573596E-2	8.739751E-2	5.524399E-2	6.891180E-2	5.731421E-2	5.312037E-2	6.355276E-2	4.828032E-2	5.574825E-2	5.076760E-2	6.027687E-2	8.487760E-2	3.181176E-2	4.622217E-2	7.452357E-2	7.128365E-2	3.955805E-2	5.507734E-2	4.939321E-2	5.690345E-2	7.193446E-2	6.200491E-2	3.919434E-2	4.030871E-2	6.807695E-2	5.546999E-2	5.252043E-2	7.284359E-2	5.951501E-2	8.539313E-2	1.939841E-2	5.808910E-2	9.156756E-2	5.092081E-2	5.280930E-2	8.650807E-2	5.134950E-2	5.849372E-2	6.305432E-2	5.325126E-2	4.846519E-2	9.791650E-2	7.679111E-2	5.630466E-2	6.367062E-2	5.453955E-2	6.150780E-2	3.712184E-2	4.467546E-2	6.718877E-2	5.522666E-2	7.046060E-2	5.050224E-2	6.377534E-2	4.605179E-2	3.337173E-2	4.954912E-2	6.739597E-2	4.016790E-2
2.843010E+2	8.079064E-2	1.082879E-1	8.207577E-2	9.936951E-2	1.114386E-1	7.065647E-2	5.294829E-2	6.552138E-2	8.640861E-2	9.179939E-2	7.469953E-2	1.072320E-1	7.560616E-2	7.166025E-2	6.906816E-2	6.694530E-2	6.330133E-2	7.168910E-2	6.894922E-2	6.708435E-2	8.606186E-2	9.926727E-2	8.021865E-2	7.847376E-2	7.555926E-2	7.604106E-2	8.955876E-2	6.939391E-2	6.543949E-2	7.659765E-2	1.073150E-1	6.855685E-2	7.315732E-2	6.518674E-2	9.375883E-2	6.001848E-2	6.182558E-2	8.867325E-2	8.450920E-2	7.390288E-2	8.790889E-2	7.919045E-2	9.018286E-2	6.902189E-2	8.594650E-2	4.599083E-2	7.739613E-2	9.718913E-2	7.219252E-2	7.204643E-2	1.002573E-1	7.284088E-2	6.761670E-2	4.986156E-2	1.043272E-1	6.860554E-2	7.998293E-2	6.745450E-2	7.274031E-2	1.180181E-1	8.094992E-2	6.275897E-2	9.000449E-2	7.556440E-2	9.420505E-2	6.922266E-2	6.969217E-2	7.288414E-2	9.778626E-2	8.138507E-2	9.737806E-2	8.218750E-2	9.281751E-2	8.974976E-2	8.027089E-2	7.621202E-2	7.069505E-2	5.458210E-2	7.060713E-2	7.361493E-2	5.907392E-2	8.708325E-2	1.130813E-1	4.971996E-2	8.051276E-2	5.897512E-2	7.869921E-2	8.613520E-2	8.632446E-2	9.429993E-2	6.637463E-2	6.685955E-2	7.327269E-2	6.699170E-2	1.109419E-1	6.549099E-2	1.016086E-1	9.248719E-2	6.839158E-2	1.112368E-1	8.605440E-2	9.576001E-2	8.500536E-2	7.749251E-2	9.239015E-2	7.408319E-2	5.264982E-2	8.229178E-2	6.258911E-2	9.532210E-2	7.686323E-2	1.036034E-1	7.386342E-2	4.886521E-2	6.292142E-2	6.612830E-2	7.885198E-2	5.756699E-2	1.015759E-1	6.985236E-2	5.793483E-2	7.875834E-2	8.351223E-2	9.132636E-2	1.054263E-1	8.446997E-2	8.387846E-2	8.965909E-2	8.490732E-2	9.880132E-2	1.055155E-1	7.381800E-2	9.000246E-2	9.604005E-2	8.654227E-2	5.911230E-2	5.717575E-2	9.660498E-2	8.515864E-2	8.569678E-2	8.138706E-2	1.118373E-1	8.474259E-2	1.002614E-1	6.010364E-2	9.415512E-2	7.035369E-2	1.047525E-1	7.913984E-2	9.519763E-2	7.420498E-2	6.645716E-2	5.668206E-2	6.580103E-2	6.101733E-2	7.893019E-2	8.592017E-2	6.857558E-2	1.163749E-1	8.612455E-2	1.024923E-1	9.427093E-2	8.974318E-2	1.057406E-1	8.636225E-2	9.047312E-2	9.847700E-2	9.687101E-2	6.544353E-2	1.310252E-1
2.844010E+2	1.287645E-1	1.472870E-1	1.214572E-1	1.180938E-1	1.485720E-1	1.417662E-1	1.065394E-1	1.091588E-1	1.380211E-1	1.286093E-1	1.570610E-1	1.509901E-1	1.551318E-1	1.491510E-1	1.496782E-1	1.264375E-1	1.327375E-1	1.658046E-1	1.204270E-1	1.407712E-1	1.477531E-1	1.210258E-1	1.206175E-1	1.629726E-1	1.285716E-1	1.460022E-1	1.585386E-1	1.640732E-1	1.835264E-1	1.465321E-1	1.405557E-1	1.860411E-1	1.801666E-1	1.542888E-1	1.335020E-1	1.559744E-1	1.515796E-1	1.477474E-1	1.430773E-1	1.566241E-1	1.796493E-1	1.421417E-1	1.281787E-1	1.246819E-1	1.593881E-1	1.251481E-1	1.565387E-1	1.542709E-1	1.568205E-1	1.315368E-1	1.626075E-1	1.286356E-1	1.349394E-1	1.642653E-1	1.274397E-1	1.587001E-1	1.738373E-1	1.217657E-1	1.759561E-1	1.359969E-1	1.342980E-1	1.627842E-1	1.443930E-1	1.262692E-1	1.414082E-1	1.178423E-1	1.112513E-1	1.483248E-1	1.486101E-1	1.412619E-1	1.471435E-1	1.362304E-1	1.432234E-1	1.483058E-1	1.225761E-1	1.377662E-1	1.675593E-1	1.495853E-1	1.705961E-1	1.621951E-1	1.465146E-1	1.481056E-1	1.349888E-1	1.573899E-1	1.441538E-1	1.525003E-1	1.367494E-1	1.351820E-1	8.693120E-2	1.523173E-1	1.383419E-1	1.414715E-1	1.535786E-1	1.507653E-1	1.126714E-1	1.097182E-1	1.329162E-1	1.287672E-1	1.318387E-1	1.925965E-1	1.352335E-1	1.208258E-1	1.182062E-1	1.362391E-1	1.047174E-1	1.554723E-1	1.237176E-1	1.739471E-1	1.233452E-1	1.266431E-1	1.545379E-1	1.609970E-1	1.427834E-1	1.339028E-1	1.757689E-1	1.019643E-1	1.583820E-1	1.193949E-1	1.425778E-1	1.529245E-1	1.299284E-1	1.486454E-1	1.571272E-1	1.252612E-1	1.668646E-1	1.175904E-1	1.635591E-1	1.430396E-1	1.336462E-1	1.474289E-1	1.282644E-1	1.306455E-1	1.514132E-1	1.596506E-1	1.481268E-1	1.463274E-1	1.299103E-1	1.505564E-1	1.233343E-1	1.518195E-1	1.482424E-1	1.357566E-1	1.467764E-1	1.630993E-1	1.377468E-1	1.316869E-1	1.310843E-1	1.932201E-1	1.514315E-1	1.294588E-1	1.317980E-1	1.387146E-1	1.427710E-1	1.388314E-1	1.398640E-1	1.706530E-1	1.419380E-1	1.377150E-1	1.667534E-1	1.392117E-1	1.383502E-1	1.402382E-1	1.538987E-1	1.570707E-1	1.420596E-1	1.252437E-1	1.467435E-1	1.478437E-1	8.104042E-2	1.691105E-1
2.845030E+2	1.782740E-1	2.304436E-1	1.938117E-1	1.974884E-1	2.495643E-1	2.166921E-1	2.188265E-1	2.603392E-1	2.302693E-1	2.436943E-1	2.068128E-1	1.961678E-1	2.338119E-1	2.312700E-1	2.725098E-1	2.372623E-1	2.038145E-1	2.379648E-1	1.997496E-1	2.523990E-1	2.258026E-1	2.012239E-1	2.378540E-1	1.971025E-1	2.722692E-1	2.745352E-1	2.838764E-1	2.322989E-1	2.077850E-1	2.601120E-1	2.762717E-1	2.646898E-1	2.705780E-1	2.559070E-1	2.458165E-1	2.233923E-1	2.300436E-1	2.736015E-1	2.158156E-1	2.099037E-1	2.239358E-1	2.513295E-1	2.311933E-1	2.751159E-1	2.408211E-1	2.444791E-1	2.674346E-1	2.021363E-1	2.170661E-1	2.216948E-1	2.170682E-1	2.247695E-1	2.643374E-1	2.473070E-1	2.550166E-1	2.343718E-1	2.406959E-1	2.578991E-1	2.820878E-1	2.706122E-1	2.363650E-1	2.146463E-1	2.934554E-1	2.176133E-1	2.458883E-1	2.178613E-1	2.615239E-1	2.643682E-1	1.857614E-1	1.918248E-1	2.326006E-1	2.611309E-1	2.254972E-1	2.468112E-1	2.608027E-1	2.271242E-1	2.159630E-1	2.242179E-1	2.438260E-1	2.714680E-1	2.332237E-1	2.226032E-1	2.636689E-1	2.382735E-1	2.299826E-1	2.237809E-1	2.393691E-1	2.374279E-1	2.334983E-1	2.297493E-1	2.446543E-1	2.013533E-1	2.357776E-1	2.121960E-1	2.284625E-1	2.407301E-1	2.338149E-1	2.619856E-1	2.279450E-1	2.126379E-1	2.595043E-1	2.245352E-1	2.402723E-1	2.466131E-1	2.287723E-1	2.197704E-1	2.459699E-1	2.661990E-1	2.327624E-1	2.661674E-1	2.386106E-1	3.031816E-1	2.213005E-1	2.429673E-1	2.290538E-1	2.188729E-1	2.331794E-1	2.387956E-1	2.228450E-1	2.253101E-1	2.037459E-1	2.265379E-1	2.008147E-1	2.682054E-1	2.345302E-1	2.286002E-1	2.233356E-1	2.356788E-1	2.067370E-1	2.379490E-1	2.533444E-1	1.858840E-1	2.465725E-1	2.294669E-1	2.195302E-1	2.164749E-1	2.193713E-1	2.568967E-1	2.250677E-1	2.098306E-1	2.092808E-1	2.133483E-1	2.329722E-1	2.651498E-1	1.985524E-1	2.227602E-1	2.520317E-1	2.100269E-1	2.167672E-1	2.546110E-1	2.532361E-1	2.354850E-1	2.127163E-1	2.315642E-1	2.522187E-1	2.356511E-1	2.024941E-1	2.127137E-1	2.325006E-1	2.203578E-1	2.528150E-1	2.871011E-1	2.536648E-1	2.020363E-1	2.020408E-1	2.107969E-1	2.280002E-1	2.203069E-1	2.766386E-1	2.464632E-1
2.846010E+2	4.006964E-1	3.717569E-1	4.124628E-1	3.797248E-1	4.265431E-1	4.111170E-1	3.516627E-1	4.026238E-1	3.721662E-1	4.015031E-1	3.891851E-1	3.830859E-1	4.072133E-1	4.439856E-1	3.602174E-1	3.857787E-1	3.295432E-1	3.865276E-1	3.977184E-1	3.428930E-1	3.651947E-1	3.556870E-1	3.665298E-1	3.732640E-1	4.473505E-1	4.752713E-1	4.473692E-1	4.329216E-1	4.540975E-1	4.510786E-1	5.011334E-1	4.157700E-1	4.792001E-1	4.150530E-1	4.525364E-1	5.002192E-1	4.980723E-1	4.209901E-1	4.705059E-1	3.891341E-1	4.469473E-1	4.291274E-1	4.227583E-1	4.797978E-1	4.163881E-1	5.026179E-1	3.893160E-1	4.448728E-1	4.538118E-1	4.533605E-1	4.895034E-1	3.873394E-1	4.454001E-1	3.880458E-1	4.244848E-1	4.391681E-1	4.378656E-1	4.280627E-1	4.457422E-1	4.559652E-1	4.114274E-1	4.100895E-1	4.518473E-1	4.913310E-1	4.252142E-1	4.041523E-1	4.384337E-1	4.317574E-1	4.624188E-1	3.878954E-1	4.396207E-1	4.041103E-1	4.285780E-1	4.667614E-1	4.697423E-1	4.134307E-1	3.728343E-1	4.286896E-1	4.231071E-1	4.450951E-1	4.590940E-1	4.086221E-1	4.070886E-1	4.215090E-1	4.074953E-1	3.950114E-1	4.141025E-1	3.776990E-1	4.008859E-1	4.246586E-1	3.935182E-1	4.047861E-1	4.282995E-1	4.325528E-1	4.287313E-1	4.225867E-1	3.939685E-1	4.081687E-1	3.933848E-1	4.589901E-1	3.429486E-1	4.131069E-1	4.331305E-1	3.766436E-1	3.984164E-1	4.091888E-1	4.103805E-1	4.075115E-1	4.220175E-1	4.355833E-1	4.243517E-1	3.893384E-1	4.616749E-1	3.824101E-1	4.173246E-1	4.376199E-1	3.753631E-1	4.102748E-1	4.059489E-1	4.417664E-1	4.178958E-1	4.110334E-1	3.855144E-1	3.791439E-1	3.499223E-1	4.080944E-1	3.737547E-1	4.115490E-1	3.512384E-1	4.105663E-1	4.039406E-1	4.304801E-1	4.498872E-1	3.594649E-1	4.025077E-1	3.862380E-1	3.994886E-1	3.706243E-1	3.784296E-1	4.346658E-1	3.978548E-1	4.192466E-1	4.006378E-1	4.205355E-1	3.760156E-1	4.138424E-1	4.115734E-1	3.740404E-1	4.030227E-1	3.719402E-1	4.091380E-1	3.546122E-1	3.992167E-1	4.365538E-1	4.389246E-1	3.888180E-1	3.689971E-1	3.867974E-1	3.859041E-1	3.920424E-1	4.136898E-1	3.991809E-1	3.939789E-1	4.082058E-1	3.717817E-1	4.766456E-1	3.792028E-1	4.076021E-1	3.926102E-1	4.292595E-1
2.847030E+2	7.702727E-1	8.504605E-1	7.917010E-1	7.883421E-1	8.054048E-1	7.654937E-1	7.997553E-1	8.647584E-1	8.004049E-1	7.915541E-1	8.085743E-1	8.012918E-1	7.781836E-1	7.596774E-1	8.094822E-1	8.061096E-1	7.357621E-1	8.501924E-1	8.326698E-1	7.980125E-1	7.693028E-1	8.078957E-1	8.529145E-1	7.949030E-1	9.933662E-1	9.273715E-1	9.161152E-1	1.007148E+0	9.296325E-1	8.465339E-1	9.317845E-1	8.717555E-1	8.856113E-1	9.500356E-1	8.664620E-1	9.494379E-1	9.199696E-1	8.735290E-1	9.291531E-1	9.065318E-1	9.247896E-1	8.684727E-1	9.031052E-1	8.911114E-1	8.371499E-1	8.516457E-1	9.315591E-1	9.163441E-1	9.152471E-1	8.337052E-1	9.019229E-1	8.884116E-1	8.723651E-1	8.680389E-1	9.427337E-1	8.908330E-1	8.986503E-1	8.762322E-1	8.494390E-1	9.110331E-1	8.670965E-1	9.021504E-1	9.147680E-1	8.691237E-1	9.210181E-1	9.010417E-1	9.508053E-1	8.744896E-1	9.268862E-1	8.920496E-1	8.956617E-1	8.661837E-1	8.530891E-1	8.702504E-1	8.438501E-1	8.479444E-1	8.439288E-1	8.875036E-1	8.891520E-1	8.050208E-1	8.858227E-1	8.676881E-1	9.155539E-1	8.640275E-1	8.608863E-1	8.353257E-1	8.717122E-1	8.667002E-1	8.244384E-1	8.453644E-1	8.386650E-1	8.274890E-1	7.787138E-1	8.654384E-1	8.392628E-1	8.405471E-1	7.821506E-1	8.333464E-1	8.757487E-1	8.756697E-1	8.744201E-1	7.873000E-1	8.400214E-1	8.472098E-1	8.690237E-1	8.254162E-1	8.300723E-1	7.960144E-1	8.316780E-1	8.254612E-1	8.422988E-1	8.825341E-1	7.717582E-1	8.024848E-1	8.754990E-1	8.981103E-1	8.439613E-1	8.140661E-1	8.691464E-1	9.018599E-1	8.281463E-1	8.325205E-1	8.966902E-1	8.637917E-1	7.809792E-1	8.377304E-1	7.859896E-1	8.475317E-1	8.393992E-1	8.889274E-1	8.343267E-1	8.452276E-1	8.374776E-1	8.436355E-1	8.353078E-1	8.257711E-1	8.882218E-1	8.324202E-1	8.592443E-1	9.087974E-1	8.649259E-1	8.356708E-1	8.930493E-1	8.672653E-1	7.775231E-1	8.555209E-1	8.887032E-1	8.053907E-1	7.838972E-1	8.431929E-1	7.949299E-1	8.237124E-1	7.745874E-1	8.376853E-1	8.214058E-1	8.806092E-1	8.641416E-1	8.762439E-1	9.451693E-1	8.255646E-1	7.996781E-1	7.517675E-1	8.307991E-1	8.023205E-1	8.182932E-1	8.225134E-1	7.993521E-1	8.990372E-1	7.722537E-1	9.528075E-1
2.848050E+2	1.122337E+0	1.046222E+0	1.078700E+0	1.057665E+0	1.107780E+0	1.057975E+0	1.053930E+0	1.140227E+0	1.100815E+0	1.085880E+0	1.234090E+0	1.097844E+0	1.062032E+0	1.140334E+0	1.151415E+0	1.104884E+0	1.164221E+0	1.102173E+0	1.061078E+0	1.010801E+0	1.033390E+0	1.055946E+0	1.080455E+0	1.077549E+0	1.090836E+0	1.153989E+0	1.057463E+0	1.096680E+0	1.112967E+0	1.069332E+0	1.121995E+0	1.099816E+0	1.155158E+0	1.099506E+0	1.137196E+0	1.132221E+0	1.082643E+0	1.164792E+0	1.099686E+0	1.096298E+0	1.095261E+0	1.042905E+0	1.078742E+0	1.007169E+0	1.123527E+0	1.103301E+0	1.109743E+0	1.112178E+0	1.070663E+0	1.090060E+0	1.109562E+0	1.065561E+0	1.146559E+0	1.077808E+0	1.171322E+0	1.068511E+0	1.082656E+0	1.036566E+0	1.079275E+0	1.143004E+0	1.135994E+0	1.105995E+0	1.051533E+0	1.108797E+0	1.204598E+0	1.117855E+0	1.075057E+0	1.095479E+0	1.138192E+0	1.087925E+0	1.100743E+0	1.044460E+0	1.044400E+0	1.106172E+0	1.040751E+0	1.023720E+0	1.080102E+0	1.012315E+0	1.093677E+0	1.073492E+0	1.105919E+0	1.032547E+0	1.056003E+0	1.119547E+0	1.062475E+0	1.101757E+0	1.139185E+0	1.046556E+0	1.044455E+0	1.087417E+0	1.105411E+0	1.005344E+0	1.100259E+0	1.129809E+0	1.105996E+0	1.124475E+0	1.102518E+0	9.738894E-1	1.066185E+0	1.088023E+0	1.067017E+0	1.086286E+0	1.144461E+0	1.145537E+0	1.134051E+0	1.018886E+0	1.125964E+0	1.040830E+0	1.110623E+0	1.068435E+0	1.158185E+0	1.178827E+0	1.068568E+0	1.066071E+0	1.096992E+0	1.074109E+0	1.134749E+0	1.094521E+0	1.184043E+0	1.078887E+0	1.098255E+0	1.100264E+0	1.099641E+0	1.073602E+0	1.088645E+0	9.759760E-1	1.066621E+0	1.115465E+0	1.107618E+0	1.083683E+0	1.094698E+0	1.178828E+0	1.105767E+0	1.052063E+0	1.094875E+0	1.099097E+0	1.133035E+0	1.061336E+0	1.086865E+0	1.136629E+0	1.068685E+0	1.177342E+0	1.058256E+0	1.157237E+0	1.109774E+0	1.073262E+0	1.128085E+0	1.069826E+0	1.072956E+0	1.145147E+0	1.154959E+0	1.067387E+0	1.100556E+0	1.117216E+0	1.068260E+0	1.105093E+0	1.019363E+0	1.077334E+0	1.044148E+0	1.091269E+0	1.131245E+0	1.116170E+0	1.132403E+0	1.111372E+0	1.043309E+0	1.027528E+0	1.044851E+0	1.134618E+0	1.260137E+0	1.140921E+0
2.849020E+2	1.226223E+0	1.248230E+0	1.286532E+0	1.202215E+0	1.240565E+0	1.268311E+0	1.249328E+0	1.233260E+0	1.218893E+0	1.219958E+0	1.254599E+0	1.181001E+0	1.242054E+0	1.226502E+0	1.253068E+0	1.244811E+0	1.287255E+0	1.282901E+0	1.124365E+0	1.219700E+0	1.288325E+0	1.224861E+0	1.282234E+0	1.271163E+0	1.179695E+0	1.203725E+0	1.270382E+0	1.216119E+0	1.248439E+0	1.137673E+0	1.193080E+0	1.245549E+0	1.227843E+0	1.239865E+0	1.278323E+0	1.189696E+0	1.207171E+0	1.313129E+0	1.274936E+0	1.252850E+0	1.245439E+0	1.207584E+0	1.250776E+0	1.281642E+0	1.195664E+0	1.201326E+0	1.288367E+0	1.253020E+0	1.203581E+0	1.198126E+0	1.211133E+0	1.255232E+0	1.254847E+0	1.243769E+0	1.254182E+0	1.198579E+0	1.127812E+0	1.268812E+0	1.249462E+0	1.241311E+0	1.178377E+0	1.212542E+0	1.233717E+0	1.251760E+0	1.188142E+0	1.220133E+0	1.335319E+0	1.206572E+0	1.211992E+0	1.230793E+0	1.274082E+0	1.253583E+0	1.170272E+0	1.199925E+0	1.238066E+0	1.202890E+0	1.204011E+0	1.214943E+0	1.223708E+0	1.226807E+0	1.164744E+0	1.198168E+0	1.283284E+0	1.186843E+0	1.176581E+0	1.264526E+0	1.254712E+0	1.273136E+0	1.233577E+0	1.174905E+0	1.221161E+0	1.233189E+0	1.243447E+0	1.203034E+0	1.193585E+0	1.150891E+0	1.294573E+0	1.211190E+0	1.380548E+0	1.232672E+0	1.233001E+0	1.282307E+0	1.233065E+0	1.229316E+0	1.238477E+0	1.277968E+0	1.308370E+0	1.310571E+0	1.323525E+0	1.190575E+0	1.233686E+0	1.200526E+0	1.169405E+0	1.234753E+0	1.220495E+0	1.234934E+0	1.259675E+0	1.303906E+0	1.215831E+0	1.186044E+0	1.184890E+0	1.264602E+0	1.271889E+0	1.179708E+0	1.159242E+0	1.268056E+0	1.187947E+0	1.242961E+0	1.266418E+0	1.200730E+0	1.312728E+0	1.186352E+0	1.229897E+0	1.278916E+0	1.289566E+0	1.323983E+0	1.308613E+0	1.255597E+0	1.204701E+0	1.224391E+0	1.264695E+0	1.299084E+0	1.220169E+0	1.242424E+0	1.249121E+0	1.293330E+0	1.239585E+0	1.246329E+0	1.165032E+0	1.221603E+0	1.294028E+0	1.266448E+0	1.234768E+0	1.214611E+0	1.286968E+0	1.317417E+0	1.213177E+0	1.317756E+0	1.229291E+0	1.291038E+0	1.199409E+0	1.191576E+0	1.270865E+0	1.251177E+0	1.195813E+0	1.232546E+0	1.212774E+0	1.238795E+0	1.319495E+0	1.190070E+0
2.850010E+2	1.175990E+0	1.216559E+0	1.275806E+0	1.223254E+0	1.242329E+0	1.260710E+0	1.188938E+0	1.154384E+0	1.201739E+0	1.152476E+0	1.230142E+0	1.233988E+0	1.228085E+0	1.212320E+0	1.108254E+0	1.138807E+0	1.166108E+0	1.167289E+0	1.241200E+0	1.188821E+0	1.202233E+0	1.196357E+0	1.188130E+0	1.191364E+0	1.140633E+0	1.160529E+0	1.101508E+0	1.144208E+0	1.228859E+0	1.128419E+0	1.237679E+0	1.172680E+0	1.184599E+0	1.140729E+0	1.104440E+0	1.167364E+0	1.210406E+0	1.144697E+0	1.174947E+0	1.161580E+0	1.204248E+0	1.203407E+0	1.147799E+0	1.107603E+0	1.178823E+0	1.222836E+0	1.207483E+0	1.223458E+0	1.182657E+0	1.177900E+0	1.235263E+0	1.176850E+0	1.197049E+0	1.172715E+0	1.208534E+0	1.235252E+0	1.235671E+0	1.171504E+0	1.210439E+0	1.180199E+0	1.201107E+0	1.154924E+0	1.227838E+0	1.182180E+0	1.156875E+0	1.160943E+0	1.211014E+0	1.219055E+0	1.225603E+0	1.089698E+0	1.153464E+0	1.120953E+0	1.172856E+0	1.130025E+0	1.254576E+0	1.138903E+0	1.184875E+0	1.173119E+0	1.175484E+0	1.246285E+0	1.264611E+0	1.176792E+0	1.178030E+0	1.148381E+0	1.131238E+0	1.208373E+0	1.181110E+0	1.122764E+0	1.204752E+0	1.119800E+0	1.155747E+0	1.201365E+0	1.135539E+0	1.204654E+0	1.188560E+0	1.192787E+0	1.186629E+0	1.053541E+0	1.118866E+0	1.253938E+0	1.098343E+0	1.144931E+0	1.151836E+0	1.166638E+0	1.203978E+0	1.150200E+0	1.085700E+0	1.254019E+0	1.225391E+0	1.186150E+0	1.146242E+0	1.163179E+0	1.116798E+0	1.101954E+0	1.255373E+0	1.118652E+0	1.149569E+0	1.171396E+0	1.132445E+0	1.188687E+0	1.155909E+0	1.025050E+0	1.215167E+0	1.202658E+0	1.184451E+0	1.140956E+0	1.124427E+0	1.201748E+0	1.155459E+0	1.143809E+0	1.211940E+0	1.192692E+0	1.175181E+0	1.227611E+0	1.096580E+0	1.202728E+0	1.159815E+0	1.158405E+0	1.130480E+0	1.294267E+0	1.149322E+0	1.181152E+0	1.221976E+0	1.235209E+0	1.178411E+0	1.175659E+0	1.244385E+0	1.136299E+0	1.159051E+0	1.144083E+0	1.123222E+0	1.197913E+0	1.139502E+0	1.109137E+0	1.240389E+0	1.175869E+0	1.245540E+0	1.188849E+0	1.172570E+0	1.177577E+0	1.214790E+0	1.133797E+0	1.201473E+0	1.191118E+0	1.190855E+0	1.206050E+0	1.142417E+0	1.132291E+0	1.264790E+0	1.131926E+0
2.851110E+2	9.634528E-1	9.600116E-1	9.472577E-1	9.134145E-1	9.766739E-1	9.410304E-1	1.008415E+0	9.480478E-1	9.877400E-1	9.327551E-1	9.913935E-1	9.057585E-1	9.931764E-1	9.543647E-1	9.466628E-1	9.887709E-1	9.644952E-1	9.027215E-1	8.939170E-1	9.815397E-1	9.053167E-1	9.892707E-1	9.439589E-1	8.952445E-1	1.031581E+0	9.937962E-1	9.245222E-1	9.290136E-1	8.612798E-1	9.555225E-1	9.365923E-1	8.751906E-1	9.734930E-1	9.449552E-1	9.524084E-1	9.145267E-1	9.316671E-1	9.312730E-1	9.011640E-1	9.204889E-1	9.439893E-1	8.413989E-1	9.093060E-1	8.426039E-1	9.146566E-1	9.072196E-1	9.350602E-1	1.008958E+0	9.407081E-1	8.829225E-1	8.641013E-1	8.826117E-1	9.722271E-1	9.631840E-1	9.601046E-1	9.257499E-1	8.873925E-1	9.474171E-1	9.431931E-1	9.382924E-1	9.317702E-1	9.818746E-1	9.126944E-1	9.035175E-1	9.135266E-1	9.155715E-1	9.890218E-1	9.656377E-1	9.183229E-1	9.115319E-1	9.641633E-1	9.096360E-1	9.879264E-1	8.984319E-1	9.251569E-1	9.443703E-1	8.885175E-1	9.206938E-1	9.980829E-1	9.402359E-1	9.659746E-1	9.375740E-1	9.739644E-1	9.155003E-1	8.922265E-1	9.460937E-1	9.201449E-1	9.253305E-1	9.587365E-1	9.387448E-1	9.340728E-1	9.445885E-1	9.208184E-1	9.388191E-1	9.134316E-1	9.566812E-1	9.895369E-1	9.389781E-1	9.910795E-1	1.039686E+0	9.051362E-1	9.994812E-1	9.762152E-1	9.792579E-1	1.006048E+0	9.250032E-1	1.040253E+0	9.032399E-1	9.144531E-1	1.013780E+0	9.530734E-1	9.722358E-1	9.821578E-1	9.607020E-1	9.228915E-1	9.743604E-1	9.320644E-1	9.347804E-1	9.516383E-1	9.515692E-1	8.996582E-1	9.475768E-1	9.232354E-1	9.802661E-1	9.336730E-1	8.755072E-1	1.001219E+0	9.812042E-1	9.519063E-1	9.445474E-1	9.301269E-1	9.092289E-1	9.312227E-1	9.313783E-1	9.655480E-1	9.707909E-1	9.451396E-1	9.454609E-1	1.010891E+0	9.655621E-1	9.683449E-1	9.569697E-1	1.002927E+0	9.119901E-1	9.062422E-1	9.255161E-1	1.016697E+0	1.000393E+0	9.083792E-1	9.230455E-1	9.768749E-1	9.105401E-1	9.697442E-1	9.154114E-1	8.544346E-1	9.578935E-1	9.294781E-1	9.124343E-1	9.732979E-1	9.145850E-1	9.699388E-1	9.221028E-1	1.016297E+0	9.722344E-1	9.890729E-1	9.164486E-1	1.039970E+0	9.192299E-1	9.011873E-1	9.070398E-1
2.852010E+2	7.208262E-1	6.908617E-1	7.071802E-1	7.323111E-1	7.518789E-1	7.276293E-1	7.365331E-1	7.534086E-1	7.071954E-1	7.437229E-1	7.674198E-1	8.022566E-1	7.151600E-1	6.816175E-1	7.515078E-1	7.105235E-1	7.439775E-1	7.205814E-1	7.086099E-1	6.758182E-1	6.539419E-1	6.367688E-1	7.435233E-1	7.074956E-1	6.654742E-1	7.337964E-1	7.616579E-1	7.046716E-1	7.175877E-1	6.732121E-1	6.550647E-1	7.124598E-1	7.407444E-1	6.944241E-1	6.952280E-1	7.092713E-1	7.721619E-1	7.150096E-1	7.509217E-1	7.223105E-1	7.226626E-1	7.246063E-1	7.274243E-1	7.476909E-1	6.966901E-1	7.116862E-1	7.213969E-1	7.505626E-1	7.344876E-1	7.359207E-1	7.390938E-1	7.484034E-1	7.101373E-1	7.058981E-1	7.397536E-1	7.377567E-1	7.570178E-1	7.104302E-1	6.991452E-1	7.178059E-1	6.474382E-1	6.972384E-1	7.261382E-1	6.752276E-1	7.699353E-1	6.750113E-1	7.201237E-1	7.612880E-1	7.432520E-1	7.391344E-1	7.103779E-1	7.490486E-1	7.694276E-1	7.344625E-1	7.409824E-1	7.813909E-1	7.010749E-1	7.098103E-1	7.073233E-1	7.186674E-1	6.944417E-1	7.204499E-1	7.605384E-1	6.742013E-1	7.059358E-1	6.687160E-1	6.983343E-1	7.187101E-1	7.069944E-1	7.292554E-1	7.149674E-1	7.455689E-1	7.611790E-1	7.336469E-1	7.384866E-1	7.012171E-1	7.154387E-1	6.720452E-1	7.267709E-1	6.745766E-1	7.443285E-1	7.458007E-1	6.478525E-1	7.434314E-1	7.675360E-1	7.348570E-1	7.896478E-1	7.324389E-1	7.035233E-1	7.914435E-1	7.063363E-1	7.856996E-1	7.393157E-1	6.881313E-1	7.276134E-1	7.043307E-1	7.007111E-1	7.046839E-1	7.185339E-1	7.200447E-1	7.110649E-1	7.105656E-1	7.054858E-1	7.404185E-1	7.063188E-1	7.510253E-1	6.730738E-1	7.145946E-1	6.726934E-1	7.014846E-1	6.614746E-1	7.273432E-1	7.181448E-1	7.473617E-1	7.055336E-1	7.318782E-1	7.617750E-1	7.222189E-1	6.860795E-1	7.801974E-1	6.701166E-1	7.355870E-1	7.225295E-1	6.789213E-1	7.612599E-1	7.550019E-1	7.254468E-1	7.422576E-1	7.037172E-1	7.223074E-1	7.750252E-1	6.896909E-1	7.505808E-1	6.986697E-1	7.067837E-1	7.341440E-1	7.119434E-1	7.348286E-1	7.627893E-1	8.146636E-1	7.324098E-1	7.217595E-1	7.298081E-1	7.290664E-1	7.109108E-1	7.255929E-1	7.402307E-1	7.251913E-1	6.555208E-1	7.728921E-1
2.853020E+2	7.796476E-1	7.130511E-1	7.369731E-1	7.619315E-1	7.602885E-1	7.726201E-1	7.633360E-1	7.729412E-1	7.159290E-1	7.725294E-1	7.603861E-1	7.863738E-1	7.788359E-1	7.713096E-1	7.903850E-1	8.035714E-1	7.826934E-1	7.448781E-1	7.662013E-1	7.989591E-1	7.585358E-1	7.865463E-1	8.015341E-1	7.211775E-1	7.550148E-1	7.507171E-1	7.585264E-1	7.455627E-1	7.442848E-1	6.961202E-1	7.322222E-1	8.035289E-1	7.947048E-1	8.238362E-1	7.209443E-1	7.230374E-1	8.410585E-1	7.726893E-1	7.898233E-1	7.838049E-1	7.825377E-1	7.630066E-1	7.223114E-1	7.168586E-1	7.298650E-1	7.647580E-1	7.472117E-1	7.897511E-1	7.345358E-1	6.893248E-1	7.804577E-1	7.357398E-1	7.597981E-1	7.877580E-1	7.939079E-1	7.881181E-1	7.447270E-1	7.523593E-1	7.677971E-1	7.148736E-1	8.384114E-1	7.759894E-1	7.447649E-1	7.984354E-1	7.565800E-1	7.645230E-1	7.342035E-1	7.482355E-1	8.353199E-1	7.033545E-1	7.904463E-1	7.721100E-1	7.728008E-1	7.178841E-1	6.973313E-1	7.599598E-1	7.614004E-1	7.098254E-1	7.542247E-1	8.103789E-1	7.599176E-1	7.268862E-1	7.988716E-1	7.656276E-1	7.462233E-1	7.617779E-1	7.151721E-1	7.614925E-1	7.811944E-1	7.891248E-1	7.507461E-1	7.439932E-1	7.841392E-1	7.649290E-1	7.181250E-1	7.776421E-1	7.456625E-1	7.140342E-1	7.877642E-1	7.834981E-1	6.969991E-1	7.219495E-1	7.959097E-1	8.085185E-1	7.490175E-1	7.656588E-1	8.196787E-1	7.326755E-1	7.499318E-1	8.175103E-1	7.437600E-1	8.241104E-1	6.833300E-1	7.495518E-1	7.226268E-1	7.572689E-1	7.216079E-1	7.869120E-1	8.060050E-1	7.705583E-1	6.407508E-1	8.506928E-1	7.339430E-1	7.639668E-1	7.583175E-1	8.015489E-1	7.714180E-1	8.262620E-1	7.714889E-1	7.400578E-1	7.657960E-1	7.639367E-1	7.483338E-1	8.380713E-1	7.925706E-1	8.142998E-1	8.012655E-1	7.873006E-1	7.508173E-1	8.067912E-1	7.470583E-1	7.620410E-1	7.556766E-1	7.350376E-1	7.436352E-1	7.739394E-1	8.189579E-1	6.899633E-1	7.891971E-1	7.598018E-1	7.981715E-1	8.691433E-1	7.875766E-1	8.000114E-1	8.015246E-1	7.336684E-1	7.717876E-1	7.986168E-1	8.044979E-1	7.982548E-1	7.729871E-1	7.381870E-1	7.179780E-1	7.896648E-1	7.496653E-1	7.988307E-1	8.051443E-1	7.308680E-1	8.205980E-1	7.828812E-1
2.854130E+2	5.662122E-1	6.112291E-1	6.272690E-1	6.009396E-1	6.500976E-1	5.867580E-1	6.567638E-1	5.646471E-1	6.384875E-1	6.287665E-1	5.976789E-1	5.332479E-1	6.218880E-1	6.133517E-1	6.521482E-1	6.245295E-1	6.312943E-1	5.870135E-1	5.942037E-1	6.179541E-1	6.161054E-1	5.999459E-1	6.367405E-1	6.186065E-1	6.004012E-1	6.527482E-1	6.324392E-1	5.228205E-1	6.441546E-1	6.139045E-1	6.159903E-1	6.757402E-1	6.497169E-1	6.824869E-1	6.053960E-1	6.353434E-1	6.350256E-1	6.014196E-1	6.329084E-1	6.104189E-1	5.920627E-1	5.748166E-1	6.632376E-1	6.361837E-1	6.255282E-1	6.530394E-1	6.583962E-1	6.675598E-1	6.318888E-1	6.345393E-1	5.990900E-1	5.560090E-1	6.741717E-1	6.065989E-1	6.140975E-1	6.554708E-1	5.940092E-1	6.678203E-1	6.709239E-1	6.595605E-1	6.200462E-1	5.710661E-1	5.858061E-1	5.622934E-1	6.839233E-1	6.510495E-1	5.899500E-1	6.425412E-1	6.615900E-1	6.475240E-1	6.153569E-1	5.855822E-1	6.161750E-1	6.013003E-1	6.835983E-1	6.120386E-1	6.456891E-1	6.626173E-1	6.338785E-1	5.790153E-1	6.208316E-1	6.006555E-1	6.060011E-1	6.265024E-1	6.226087E-1	6.306090E-1	6.639205E-1	6.620211E-1	5.974655E-1	5.951523E-1	6.574761E-1	6.033595E-1	6.360015E-1	5.949695E-1	6.016140E-1	5.547683E-1	6.504152E-1	6.324425E-1	6.424975E-1	6.385610E-1	5.922746E-1	5.721498E-1	6.145461E-1	6.317584E-1	6.147531E-1	6.340031E-1	6.389986E-1	7.026263E-1	5.993336E-1	6.813413E-1	5.600300E-1	6.315048E-1	6.239097E-1	6.296723E-1	6.721826E-1	5.821976E-1	5.945431E-1	6.308109E-1	5.829503E-1	6.147605E-1	6.190618E-1	5.878365E-1	6.257991E-1	5.386319E-1	6.048661E-1	6.052915E-1	6.133146E-1	6.552193E-1	6.225630E-1	6.199552E-1	5.961697E-1	6.237401E-1	6.201446E-1	6.652581E-1	6.490703E-1	6.753484E-1	6.631040E-1	6.543760E-1	5.885780E-1	6.214123E-1	6.182985E-1	6.104906E-1	6.394352E-1	6.012920E-1	5.804891E-1	6.886816E-1	6.539866E-1	6.095558E-1	5.906198E-1	5.914067E-1	6.251894E-1	6.656840E-1	6.681428E-1	6.192918E-1	5.243467E-1	5.658793E-1	6.077741E-1	6.335786E-1	6.432027E-1	6.244219E-1	5.999551E-1	6.568546E-1	6.219357E-1	6.280311E-1	6.099888E-1	5.904718E-1	5.771401E-1	6.214620E-1	7.233523E-1	7.512053E-1
2.855050E+2	5.254177E-1	5.343926E-1	5.127133E-1	4.781800E-1	5.015410E-1	4.836833E-1	5.403290E-1	5.673154E-1	4.617032E-1	5.481468E-1	5.479007E-1	5.550149E-1	5.144080E-1	5.476768E-1	5.429845E-1	5.148066E-1	5.495841E-1	5.534216E-1	5.407992E-1	4.795563E-1	5.116723E-1	4.821381E-1	5.600722E-1	5.131696E-1	5.253200E-1	5.875346E-1	5.298959E-1	4.647716E-1	5.167946E-1	5.260568E-1	4.768789E-1	5.660906E-1	5.459276E-1	4.873086E-1	5.083799E-1	5.417062E-1	4.881313E-1	5.390768E-1	5.151905E-1	5.283888E-1	5.697352E-1	5.380997E-1	5.422092E-1	5.497460E-1	5.601068E-1	5.375547E-1	5.016747E-1	5.028995E-1	5.067323E-1	5.163180E-1	5.307273E-1	5.465031E-1	5.839320E-1	5.324105E-1	5.136596E-1	5.802104E-1	4.958093E-1	5.226264E-1	4.932302E-1	5.423962E-1	5.430614E-1	5.260205E-1	5.688712E-1	4.854025E-1	5.162713E-1	5.087681E-1	5.819046E-1	5.104610E-1	5.203898E-1	5.210258E-1	5.731724E-1	5.627603E-1	5.381917E-1	5.182794E-1	5.472312E-1	5.370024E-1	5.136765E-1	5.944082E-1	4.712087E-1	5.311102E-1	5.010676E-1	5.356501E-1	5.253301E-1	5.069099E-1	4.841572E-1	5.177453E-1	5.258611E-1	5.626362E-1	5.001610E-1	5.381942E-1	5.402845E-1	5.189212E-1	5.573954E-1	5.444179E-1	4.564894E-1	4.877981E-1	5.073536E-1	5.227932E-1	5.207512E-1	5.232175E-1	5.326261E-1	5.163781E-1	5.241735E-1	5.699330E-1	5.105679E-1	5.833210E-1	4.967339E-1	5.274973E-1	5.011996E-1	5.282358E-1	5.152043E-1	5.298854E-1	5.065635E-1	4.877688E-1	5.122128E-1	5.270336E-1	4.944266E-1	5.469051E-1	5.077695E-1	5.913863E-1	5.258227E-1	5.168965E-1	4.886484E-1	5.939326E-1	5.795021E-1	5.286077E-1	5.490369E-1	4.695506E-1	5.615920E-1	5.841326E-1	5.169974E-1	5.146724E-1	5.039366E-1	5.287960E-1	4.926618E-1	4.774527E-1	5.698402E-1	5.585130E-1	5.303583E-1	5.205654E-1	5.336582E-1	5.495044E-1	5.511337E-1	5.255347E-1	5.536023E-1	5.319580E-1	4.826857E-1	5.665317E-1	5.355119E-1	5.382195E-1	5.282555E-1	5.394491E-1	5.458659E-1	5.144661E-1	5.238486E-1	6.025573E-1	4.859042E-1	5.372617E-1	5.200898E-1	4.893254E-1	4.564347E-1	5.276960E-1	5.449128E-1	5.598216E-1	4.986099E-1	5.462626E-1	5.343732E-1	5.044630E-1	4.677819E-1	6.003185E-1
2.856030E+2	4.478567E-1	4.507283E-1	3.972576E-1	4.058577E-1	4.635533E-1	4.367278E-1	4.287934E-1	4.540091E-1	4.007906E-1	4.208046E-1	4.296934E-1	4.424797E-1	4.358343E-1	4.075054E-1	4.429432E-1	4.480938E-1	3.933484E-1	5.002601E-1	4.418652E-1	3.839142E-1	3.902466E-1	3.811212E-1	4.003921E-1	4.207025E-1	4.471095E-1	4.455373E-1	4.486279E-1	4.238929E-1	4.108712E-1	4.269542E-1	4.543333E-1	3.991360E-1	4.442166E-1	4.289603E-1	4.493728E-1	4.317497E-1	4.178197E-1	4.401195E-1	4.633824E-1	4.324417E-1	4.441584E-1	4.403944E-1	4.549688E-1	4.089765E-1	4.484763E-1	3.679453E-1	4.369479E-1	4.348246E-1	4.213755E-1	3.983758E-1	4.145391E-1	3.962736E-1	4.539464E-1	4.417062E-1	4.587831E-1	4.593942E-1	3.724836E-1	4.594086E-1	4.276373E-1	4.175911E-1	4.281913E-1	4.235768E-1	4.340235E-1	4.218794E-1	4.304978E-1	4.317779E-1	5.051143E-1	4.013223E-1	4.026869E-1	4.578492E-1	4.338687E-1	4.026664E-1	4.942573E-1	4.471893E-1	3.951825E-1	4.373874E-1	3.658313E-1	4.563249E-1	4.414690E-1	4.544330E-1	4.524241E-1	4.617603E-1	4.390348E-1	4.404254E-1	4.226123E-1	4.405903E-1	4.662754E-1	4.449224E-1	4.056835E-1	4.025358E-1	3.880133E-1	4.544403E-1	3.713909E-1	4.443496E-1	4.000358E-1	4.205840E-1	4.309330E-1	4.152767E-1	3.851152E-1	4.289957E-1	4.023494E-1	4.253938E-1	4.568866E-1	4.021918E-1	4.329335E-1	4.449895E-1	4.212247E-1	4.931745E-1	4.704910E-1	4.029628E-1	4.731533E-1	4.768896E-1	4.053643E-1	4.382596E-1	3.617939E-1	4.425917E-1	4.126840E-1	4.080697E-1	4.110646E-1	4.407687E-1	3.512678E-1	3.949643E-1	4.335738E-1	4.081473E-1	4.545609E-1	3.745861E-1	4.533662E-1	3.896453E-1	4.015444E-1	4.516023E-1	3.717376E-1	4.060960E-1	3.773027E-1	4.156142E-1	4.386561E-1	4.221166E-1	4.196826E-1	4.442834E-1	5.012963E-1	4.637858E-1	4.202725E-1	4.473250E-1	4.257662E-1	4.365873E-1	4.391215E-1	3.942941E-1	3.873567E-1	4.622203E-1	4.329208E-1	4.224458E-1	4.502637E-1	4.348365E-1	4.114173E-1	3.989477E-1	4.394049E-1	4.221224E-1	4.427980E-1	4.684166E-1	4.191704E-1	4.149657E-1	4.190365E-1	4.078177E-1	4.595524E-1	4.417290E-1	4.025716E-1	4.158556E-1	4.248688E-1	3.872432E-1	3.619204E-1	4.469057E-1
2.858040E+2	4.402092E-1	4.475939E-1	4.897578E-1	4.370681E-1	4.247618E-1	3.961897E-1	4.560602E-1	4.210964E-1	4.255856E-1	4.548426E-1	4.727251E-1	4.169046E-1	4.702905E-1	3.783283E-1	4.031189E-1	4.495171E-1	4.411893E-1	3.968435E-1	4.265922E-1	4.012836E-1	4.479645E-1	3.963754E-1	4.190263E-1	4.518352E-1	4.903980E-1	4.411888E-1	4.499569E-1	4.956355E-1	4.438282E-1	4.225275E-1	4.536337E-1	4.317876E-1	4.572209E-1	4.677404E-1	4.534470E-1	4.360360E-1	4.163451E-1	4.342905E-1	4.164579E-1	4.626992E-1	4.414600E-1	4.593922E-1	4.313326E-1	4.716170E-1	4.394913E-1	4.444175E-1	4.885578E-1	4.610565E-1	4.476798E-1	4.339419E-1	4.231234E-1	4.222267E-1	4.822916E-1	4.708906E-1	4.828541E-1	4.115359E-1	4.124266E-1	4.352619E-1	4.432947E-1	4.564004E-1	4.710098E-1	4.558218E-1	4.448967E-1	4.062076E-1	4.498346E-1	4.291295E-1	4.781632E-1	4.378722E-1	4.036110E-1	4.350741E-1	4.320839E-1	4.141478E-1	4.861025E-1	4.624319E-1	4.469513E-1	4.918166E-1	4.420699E-1	4.731473E-1	4.440919E-1	4.225884E-1	4.170613E-1	4.263883E-1	4.077162E-1	4.261184E-1	4.171690E-1	4.088689E-1	4.280950E-1	4.868315E-1	4.641860E-1	3.780757E-1	4.262776E-1	3.949391E-1	4.241336E-1	4.343873E-1	4.430491E-1	4.486537E-1	4.546485E-1	4.599522E-1	4.737098E-1	4.708703E-1	4.476503E-1	4.388664E-1	4.452642E-1	4.554142E-1	4.390964E-1	4.203968E-1	4.240999E-1	4.213483E-1	4.115664E-1	4.963928E-1	4.595822E-1	4.333383E-1	4.345657E-1	4.222355E-1	4.512561E-1	4.772824E-1	4.763222E-1	4.202428E-1	4.341314E-1	4.165676E-1	4.187030E-1	4.081443E-1	3.733115E-1	3.995090E-1	4.003801E-1	4.214866E-1	4.444027E-1	4.379904E-1	5.077230E-1	4.273487E-1	4.300659E-1	5.018119E-1	4.739802E-1	4.234155E-1	4.193876E-1	4.206327E-1	4.646739E-1	4.681675E-1	4.053563E-1	4.857946E-1	4.435957E-1	4.239922E-1	4.119577E-1	4.696885E-1	4.240908E-1	4.046693E-1	4.221057E-1	4.792965E-1	4.183338E-1	4.169608E-1	4.484824E-1	4.107719E-1	4.589860E-1	4.547303E-1	4.350672E-1	4.353339E-1	4.354709E-1	4.265131E-1	4.488302E-1	4.052610E-1	4.475103E-1	4.903656E-1	4.483544E-1	5.056401E-1	4.410497E-1	4.284681E-1	4.524660E-1	4.298498E-1	3.290115E-1	4.529351E-1
2.860020E+2	6.199979E-1	6.824254E-1	6.512259E-1	6.059903E-1	6.539937E-1	5.820323E-1	6.848289E-1	6.580816E-1	6.201601E-1	6.799756E-1	5.795274E-1	6.713190E-1	5.786811E-1	6.431050E-1	6.194479E-1	6.525706E-1	6.609914E-1	6.178649E-1	6.161496E-1	6.454914E-1	6.321540E-1	6.165977E-1	6.460743E-1	6.290433E-1	6.489862E-1	6.490896E-1	6.635612E-1	6.291060E-1	6.827115E-1	6.308730E-1	6.595504E-1	6.514503E-1	7.412932E-1	6.499745E-1	6.391276E-1	6.775007E-1	6.724160E-1	6.523326E-1	6.579754E-1	6.464611E-1	6.531112E-1	6.474992E-1	6.893858E-1	6.540952E-1	6.161781E-1	7.314738E-1	6.850095E-1	6.545620E-1	6.528611E-1	6.236518E-1	6.531964E-1	6.302391E-1	6.301152E-1	6.382881E-1	6.636790E-1	6.525397E-1	5.993958E-1	6.057053E-1	5.851475E-1	6.248867E-1	6.951064E-1	6.315796E-1	6.759366E-1	5.772315E-1	6.609763E-1	6.372163E-1	5.695374E-1	6.254580E-1	6.551214E-1	7.031674E-1	6.649512E-1	6.482189E-1	6.457668E-1	6.178830E-1	6.776020E-1	6.714741E-1	6.175738E-1	7.123624E-1	6.806204E-1	6.254502E-1	6.345197E-1	6.227321E-1	5.934879E-1	6.114217E-1	6.635470E-1	6.373911E-1	5.987557E-1	6.773591E-1	6.057708E-1	6.949662E-1	6.148348E-1	5.924144E-1	6.094629E-1	6.734749E-1	5.909993E-1	6.455608E-1	6.078306E-1	6.562031E-1	5.891890E-1	6.769925E-1	6.240937E-1	6.092616E-1	6.313611E-1	5.958783E-1	6.647924E-1	5.987264E-1	6.079729E-1	6.920614E-1	5.862990E-1	6.844210E-1	6.420698E-1	6.406324E-1	6.799292E-1	6.519810E-1	5.878438E-1	6.190424E-1	6.464469E-1	6.191434E-1	5.894081E-1	6.510545E-1	6.404201E-1	6.203136E-1	6.391210E-1	6.776762E-1	6.148859E-1	6.742082E-1	6.119098E-1	6.327789E-1	6.673756E-1	6.321045E-1	6.068557E-1	6.723572E-1	6.260716E-1	6.333643E-1	6.429337E-1	6.487393E-1	6.594621E-1	6.943555E-1	6.395796E-1	6.565772E-1	6.784943E-1	6.865612E-1	5.978747E-1	6.354137E-1	6.126149E-1	5.821795E-1	6.682470E-1	6.706336E-1	6.642247E-1	6.210186E-1	6.406809E-1	6.357148E-1	6.463405E-1	6.406768E-1	5.894049E-1	6.811627E-1	6.532554E-1	6.495321E-1	6.391658E-1	5.994660E-1	6.496451E-1	6.093372E-1	6.013653E-1	6.407460E-1	6.107251E-1	6.503354E-1	6.457403E-1	6.270655E-1	6.274246E-1	6.348113E-1
2.862030E+2	1.015127E+0	1.044177E+0	1.027194E+0	9.663943E-1	1.043529E+0	1.073021E+0	1.023857E+0	9.869077E-1	9.498966E-1	1.031123E+0	1.058846E+0	1.046564E+0	9.991649E-1	9.630160E-1	9.527424E-1	1.006966E+0	1.017212E+0	9.168538E-1	9.534292E-1	1.017903E+0	9.648967E-1	9.518237E-1	9.425222E-1	1.011085E+0	1.028541E+0	9.958568E-1	9.757940E-1	9.347400E-1	9.530943E-1	1.029141E+0	9.489791E-1	9.644397E-1	9.833672E-1	1.076723E+0	9.961337E-1	9.122562E-1	1.063904E+0	9.712980E-1	9.929795E-1	9.199842E-1	9.853484E-1	9.778651E-1	9.884624E-1	9.867673E-1	1.046015E+0	1.006210E+0	1.026793E+0	1.017118E+0	9.652452E-1	9.832947E-1	1.002699E+0	9.919085E-1	1.036118E+0	9.360772E-1	9.409119E-1	9.529267E-1	1.008459E+0	1.022915E+0	1.056765E+0	9.226731E-1	1.048259E+0	9.467158E-1	9.697589E-1	9.853213E-1	1.025970E+0	1.012539E+0	1.021961E+0	1.003375E+0	1.007090E+0	9.718249E-1	9.812676E-1	1.002793E+0	1.059352E+0	9.527367E-1	1.039458E+0	9.948263E-1	1.013808E+0	1.054548E+0	9.950490E-1	1.027005E+0	1.039631E+0	9.037304E-1	9.773156E-1	9.539360E-1	9.540617E-1	9.687275E-1	1.063388E+0	9.730075E-1	9.759411E-1	1.025731E+0	9.028288E-1	1.025939E+0	9.685189E-1	9.957117E-1	9.581917E-1	1.015795E+0	1.097751E+0	1.002989E+0	1.005225E+0	1.031209E+0	1.054087E+0	1.031602E+0	9.944408E-1	9.386748E-1	1.014181E+0	1.038054E+0	9.425773E-1	9.622274E-1	9.670041E-1	1.028583E+0	1.040133E+0	1.016644E+0	1.018692E+0	8.758727E-1	9.973832E-1	9.580979E-1	1.034816E+0	9.740037E-1	1.004433E+0	1.025910E+0	9.478613E-1	1.025203E+0	9.775307E-1	1.002045E+0	1.038479E+0	1.019502E+0	8.887357E-1	1.015136E+0	9.989837E-1	1.013946E+0	9.698159E-1	1.034576E+0	9.689487E-1	9.636735E-1	1.022042E+0	1.035589E+0	1.072239E+0	1.025731E+0	9.514509E-1	9.945996E-1	1.005645E+0	1.014768E+0	1.095253E+0	1.039483E+0	9.835965E-1	1.048736E+0	1.065554E+0	1.073171E+0	1.050823E+0	1.021298E+0	9.483383E-1	9.800548E-1	1.077327E+0	1.047706E+0	1.035902E+0	1.029538E+0	1.000497E+0	9.562747E-1	9.951907E-1	9.774525E-1	1.006103E+0	1.056554E+0	9.796970E-1	1.000683E+0	9.661443E-1	1.055289E+0	1.027564E+0	1.070991E+0	9.781565E-1	1.020292E+0
2.864080E+2	9.592672E-1	1.039736E+0	9.766252E-1	1.005401E+0	9.757277E-1	9.825488E-1	9.738780E-1	1.037293E+0	1.021421E+0	9.454330E-1	9.538434E-1	9.715189E-1	9.828222E-1	9.959724E-1	9.648463E-1	9.497841E-1	1.020901E+0	9.612102E-1	9.430054E-1	9.426859E-1	9.479879E-1	1.048227E+0	9.855580E-1	9.824291E-1	1.000221E+0	9.553388E-1	9.277468E-1	9.392625E-1	9.031245E-1	9.161329E-1	8.984710E-1	9.906939E-1	1.020852E+0	9.872043E-1	9.950073E-1	9.936534E-1	9.894708E-1	9.327045E-1	1.015851E+0	9.678460E-1	9.897390E-1	8.621849E-1	9.334290E-1	8.987237E-1	1.072552E+0	9.418451E-1	9.750337E-1	1.007370E+0	9.714162E-1	8.851777E-1	9.455440E-1	9.716470E-1	9.822174E-1	9.696278E-1	9.725237E-1	9.762839E-1	9.113025E-1	1.039990E+0	9.688734E-1	1.048252E+0	9.292849E-1	1.001727E+0	9.735277E-1	9.417467E-1	1.057893E+0	9.999671E-1	9.772746E-1	1.059287E+0	9.972792E-1	9.436052E-1	9.318313E-1	9.635976E-1	1.059786E+0	9.723223E-1	1.015802E+0	1.007996E+0	1.003844E+0	9.134278E-1	9.531886E-1	9.324558E-1	1.038045E+0	1.011722E+0	9.666656E-1	9.626818E-1	9.748512E-1	1.003213E+0	1.016099E+0	9.604042E-1	9.799204E-1	9.140555E-1	9.567155E-1	8.822191E-1	9.517126E-1	1.000566E+0	9.824812E-1	9.289723E-1	9.593487E-1	9.874339E-1	1.048665E+0	1.015826E+0	9.792274E-1	1.057561E+0	9.632450E-1	9.436543E-1	9.650426E-1	1.002815E+0	9.502501E-1	9.238392E-1	9.260346E-1	1.040480E+0	9.949699E-1	9.594049E-1	9.815265E-1	9.360451E-1	9.777711E-1	9.824190E-1	1.004443E+0	9.336313E-1	9.560415E-1	9.829581E-1	9.864966E-1	9.949166E-1	9.675763E-1	9.389020E-1	1.014414E+0	9.689018E-1	9.381237E-1	9.515138E-1	1.000822E+0	8.581909E-1	9.700888E-1	9.811915E-1	9.783789E-1	9.638939E-1	9.444656E-1	9.415127E-1	9.810396E-1	9.360299E-1	9.763954E-1	1.053522E+0	9.589235E-1	1.019994E+0	1.034895E+0	9.022439E-1	1.005573E+0	9.705524E-1	9.643922E-1	9.501440E-1	9.788533E-1	9.275941E-1	1.091334E+0	1.008740E+0	9.916913E-1	9.493840E-1	9.263225E-1	1.047298E+0	9.464305E-1	9.346471E-1	9.500820E-1	9.792608E-1	9.376385E-1	9.408804E-1	9.990806E-1	1.030021E+0	9.196836E-1	9.145739E-1	9.675686E-1	1.004656E+0	8.727148E-1	9.561113E-1
2.866030E+2	8.677660E-1	8.934255E-1	8.206875E-1	7.727808E-1	8.622803E-1	8.166196E-1	7.838686E-1	7.921295E-1	9.041772E-1	8.673860E-1	8.647291E-1	8.762922E-1	8.931096E-1	8.451333E-1	8.132012E-1	8.485491E-1	8.005915E-1	8.022954E-1	8.516858E-1	8.026509E-1	8.544488E-1	8.471398E-1	8.142171E-1	8.165279E-1	8.589053E-1	8.505268E-1	8.532000E-1	8.191349E-1	8.623552E-1	8.695753E-1	8.238062E-1	9.000363E-1	9.298880E-1	8.899701E-1	8.898637E-1	8.459228E-1	8.676369E-1	7.961206E-1	9.054534E-1	8.412326E-1	8.826544E-1	8.586649E-1	8.296190E-1	8.242499E-1	8.845890E-1	8.686442E-1	8.541585E-1	8.389253E-1	8.287389E-1	7.795166E-1	8.545640E-1	8.255633E-1	9.002579E-1	8.414777E-1	8.586086E-1	8.054233E-1	7.987359E-1	8.894426E-1	8.580653E-1	8.554478E-1	8.494384E-1	8.280462E-1	9.389610E-1	8.760951E-1	8.377432E-1	8.324966E-1	8.410624E-1	9.430304E-1	8.152048E-1	7.748614E-1	8.925376E-1	8.302273E-1	9.390148E-1	8.574842E-1	8.232842E-1	8.265875E-1	8.246458E-1	8.518997E-1	8.227325E-1	8.907595E-1	8.635840E-1	8.615830E-1	9.249605E-1	7.990141E-1	8.140895E-1	7.905375E-1	8.489693E-1	8.233613E-1	8.253889E-1	8.524480E-1	8.641818E-1	9.382859E-1	8.710583E-1	8.220999E-1	8.184330E-1	8.516959E-1	8.130981E-1	8.308368E-1	8.155838E-1	8.260025E-1	8.243227E-1	8.102504E-1	8.570237E-1	8.493414E-1	8.908409E-1	8.511813E-1	9.051134E-1	8.729902E-1	8.670388E-1	9.019481E-1	9.367078E-1	8.598852E-1	8.958039E-1	7.953411E-1	7.563316E-1	8.336921E-1	8.515235E-1	8.486736E-1	8.220977E-1	8.124524E-1	8.960057E-1	8.964691E-1	9.182110E-1	9.000250E-1	8.018634E-1	8.339835E-1	8.086456E-1	8.687543E-1	8.139842E-1	8.054133E-1	7.874735E-1	8.277213E-1	8.759389E-1	8.295069E-1	8.195556E-1	8.025567E-1	9.338025E-1	8.518091E-1	8.404638E-1	8.309692E-1	8.070682E-1	8.265531E-1	8.294427E-1	8.959572E-1	7.952537E-1	8.470129E-1	8.664297E-1	7.957690E-1	8.608653E-1	8.494396E-1	8.539704E-1	8.490558E-1	8.704708E-1	7.934010E-1	8.867627E-1	8.456845E-1	8.470970E-1	9.306469E-1	8.896641E-1	8.495814E-1	8.450579E-1	8.494726E-1	8.870912E-1	8.304145E-1	8.466633E-1	8.598053E-1	8.795492E-1	8.462112E-1	9.116547E-1	7.718292E-1
2.868020E+2	1.549479E+0	1.422537E+0	1.395438E+0	1.393636E+0	1.416686E+0	1.389601E+0	1.372199E+0	1.442945E+0	1.433485E+0	1.456810E+0	1.470653E+0	1.378269E+0	1.507612E+0	1.406184E+0	1.429976E+0	1.336001E+0	1.412130E+0	1.513378E+0	1.352957E+0	1.403196E+0	1.420590E+0	1.431837E+0	1.428016E+0	1.439545E+0	1.467804E+0	1.392541E+0	1.333647E+0	1.336630E+0	1.357752E+0	1.369998E+0	1.342198E+0	1.389794E+0	1.392580E+0	1.350297E+0	1.337948E+0	1.434271E+0	1.401181E+0	1.381694E+0	1.391974E+0	1.351407E+0	1.375586E+0	1.274675E+0	1.346955E+0	1.429348E+0	1.439610E+0	1.347275E+0	1.537566E+0	1.406621E+0	1.484726E+0	1.321324E+0	1.380702E+0	1.376828E+0	1.400934E+0	1.393927E+0	1.392040E+0	1.359834E+0	1.329004E+0	1.385836E+0	1.331589E+0	1.432805E+0	1.402221E+0	1.326717E+0	1.438269E+0	1.339484E+0	1.526536E+0	1.426594E+0	1.352400E+0	1.478297E+0	1.425810E+0	1.385479E+0	1.383690E+0	1.422254E+0	1.536879E+0	1.453219E+0	1.443077E+0	1.432032E+0	1.366199E+0	1.419523E+0	1.432794E+0	1.426605E+0	1.405735E+0	1.373399E+0	1.408063E+0	1.462353E+0	1.299423E+0	1.367257E+0	1.390728E+0	1.402443E+0	1.374608E+0	1.420271E+0	1.365808E+0	1.416477E+0	1.388298E+0	1.423307E+0	1.359013E+0	1.346207E+0	1.451990E+0	1.382250E+0	1.431842E+0	1.417762E+0	1.352544E+0	1.378695E+0	1.345285E+0	1.372113E+0	1.412698E+0	1.390292E+0	1.388728E+0	1.407857E+0	1.465121E+0	1.449703E+0	1.476813E+0	1.397266E+0	1.399499E+0	1.386049E+0	1.472230E+0	1.423586E+0	1.314365E+0	1.463615E+0	1.353464E+0	1.424558E+0	1.510840E+0	1.314071E+0	1.484179E+0	1.450298E+0	1.407078E+0	1.350221E+0	1.412917E+0	1.374693E+0	1.454288E+0	1.395275E+0	1.429149E+0	1.396288E+0	1.447139E+0	1.472506E+0	1.384193E+0	1.371384E+0	1.470342E+0	1.331061E+0	1.397819E+0	1.475299E+0	1.459530E+0	1.442410E+0	1.438193E+0	1.379199E+0	1.320422E+0	1.452200E+0	1.434272E+0	1.444438E+0	1.406120E+0	1.396410E+0	1.505253E+0	1.445347E+0	1.502108E+0	1.304082E+0	1.427665E+0	1.418856E+0	1.403709E+0	1.407798E+0	1.288804E+0	1.498567E+0	1.402808E+0	1.410305E+0	1.406294E+0	1.423601E+0	1.295549E+0	1.403437E+0	1.374182E+0	1.320138E+0	1.426959E+0	1.404839E+0
2.870030E+2	1.409445E+0	1.437550E+0	1.349677E+0	1.317754E+0	1.426786E+0	1.399322E+0	1.341304E+0	1.438495E+0	1.312573E+0	1.363614E+0	1.453737E+0	1.346389E+0	1.430909E+0	1.292452E+0	1.371728E+0	1.377785E+0	1.369033E+0	1.355359E+0	1.275064E+0	1.389877E+0	1.358290E+0	1.398662E+0	1.389894E+0	1.385417E+0	1.386891E+0	1.366985E+0	1.357452E+0	1.379254E+0	1.419326E+0	1.345088E+0	1.288038E+0	1.346533E+0	1.433541E+0	1.286181E+0	1.383236E+0	1.403509E+0	1.338678E+0	1.414477E+0	1.336865E+0	1.373521E+0	1.380919E+0	1.353276E+0	1.373958E+0	1.445226E+0	1.377176E+0	1.348057E+0	1.379828E+0	1.361956E+0	1.399104E+0	1.305292E+0	1.377667E+0	1.395870E+0	1.336058E+0	1.385381E+0	1.375221E+0	1.308571E+0	1.411516E+0	1.395530E+0	1.366680E+0	1.338793E+0	1.368297E+0	1.388904E+0	1.431951E+0	1.334130E+0	1.344899E+0	1.434746E+0	1.365878E+0	1.377861E+0	1.356444E+0	1.420841E+0	1.381957E+0	1.418017E+0	1.421896E+0	1.361567E+0	1.344111E+0	1.403059E+0	1.321715E+0	1.342101E+0	1.346608E+0	1.319983E+0	1.411948E+0	1.346959E+0	1.315594E+0	1.358397E+0	1.262853E+0	1.365832E+0	1.427006E+0	1.346009E+0	1.383562E+0	1.368707E+0	1.354570E+0	1.377335E+0	1.388059E+0	1.379626E+0	1.300888E+0	1.376422E+0	1.341229E+0	1.344065E+0	1.402721E+0	1.364767E+0	1.368125E+0	1.412371E+0	1.423425E+0	1.316468E+0	1.394457E+0	1.311299E+0	1.272991E+0	1.434944E+0	1.280652E+0	1.434092E+0	1.429396E+0	1.384251E+0	1.216377E+0	1.360393E+0	1.265200E+0	1.341465E+0	1.335686E+0	1.330413E+0	1.440593E+0	1.436361E+0	1.389077E+0	1.307752E+0	1.395074E+0	1.427431E+0	1.398788E+0	1.406535E+0	1.336437E+0	1.280919E+0	1.334475E+0	1.430755E+0	1.293274E+0	1.321351E+0	1.412167E+0	1.309101E+0	1.383022E+0	1.330378E+0	1.442892E+0	1.422740E+0	1.456911E+0	1.368761E+0	1.321813E+0	1.497565E+0	1.460325E+0	1.346664E+0	1.395659E+0	1.353297E+0	1.463849E+0	1.401454E+0	1.358024E+0	1.327336E+0	1.416926E+0	1.417688E+0	1.400860E+0	1.336165E+0	1.427826E+0	1.452302E+0	1.401268E+0	1.374541E+0	1.341486E+0	1.494991E+0	1.435642E+0	1.399016E+0	1.376019E+0	1.413686E+0	1.348356E+0	1.358660E+0	1.426677E+0	1.379904E+0	1.434599E+0	1.399297E+0
2.872040E+2	1.105702E+0	1.140585E+0	1.123143E+0	1.120356E+0	1.116245E+0	1.055275E+0	1.135512E+0	1.085709E+0	1.111277E+0	1.122047E+0	1.132503E+0	1.127830E+0	1.073555E+0	1.087519E+0	1.075707E+0	1.130205E+0	1.155220E+0	1.110988E+0	1.063240E+0	1.112366E+0	1.067287E+0	1.065159E+0	1.132752E+0	1.065475E+0	1.101723E+0	1.226233E+0	1.031367E+0	1.135681E+0	1.123943E+0	1.098798E+0	1.077277E+0	1.123818E+0	1.201710E+0	1.158453E+0	1.096709E+0	1.072887E+0	1.174206E+0	1.085882E+0	1.107911E+0	1.130467E+0	1.120326E+0	1.112601E+0	1.152785E+0	1.068277E+0	1.134813E+0	1.194384E+0	1.098536E+0	1.200353E+0	1.105443E+0	1.059686E+0	1.131110E+0	1.138600E+0	1.149233E+0	1.100797E+0	1.138397E+0	1.131911E+0	1.093422E+0	1.117686E+0	1.112886E+0	1.154709E+0	1.061479E+0	1.088575E+0	1.143971E+0	1.048549E+0	1.038295E+0	1.155175E+0	1.073460E+0	1.116058E+0	1.169468E+0	1.048833E+0	1.138779E+0	1.166765E+0	1.095402E+0	1.052497E+0	1.112355E+0	1.051320E+0	1.173417E+0	1.049012E+0	1.125948E+0	1.124390E+0	1.067738E+0	1.158056E+0	1.109462E+0	1.139445E+0	1.085879E+0	1.017595E+0	1.152571E+0	1.146153E+0	1.082556E+0	1.119396E+0	1.151566E+0	1.117238E+0	1.171361E+0	1.112473E+0	1.114988E+0	1.154750E+0	1.178964E+0	1.147934E+0	1.161830E+0	1.070313E+0	1.097919E+0	1.106550E+0	1.093396E+0	1.113443E+0	1.134553E+0	1.075821E+0	1.129947E+0	1.142252E+0	1.147164E+0	1.147969E+0	1.146113E+0	1.141177E+0	1.115297E+0	1.159614E+0	1.121747E+0	1.115786E+0	1.155544E+0	1.113150E+0	1.210268E+0	1.192628E+0	1.173189E+0	1.117191E+0	1.068894E+0	1.123494E+0	1.150947E+0	1.148785E+0	1.176970E+0	1.085220E+0	1.173601E+0	1.091708E+0	1.140381E+0	1.136416E+0	1.141463E+0	1.131157E+0	1.102584E+0	1.087917E+0	1.177760E+0	1.130934E+0	1.106352E+0	1.077983E+0	1.166624E+0	1.160597E+0	1.107797E+0	1.126837E+0	1.067980E+0	1.146380E+0	1.088730E+0	1.144554E+0	1.184395E+0	1.142347E+0	1.196514E+0	1.067262E+0	1.198949E+0	1.144649E+0	1.194523E+0	1.205249E+0	1.143124E+0	1.120792E+0	1.141496E+0	1.141176E+0	1.122384E+0	1.129964E+0	1.140862E+0	1.109680E+0	1.076075E+0	1.205120E+0	1.120696E+0	1.135844E+0	1.138485E+0	1.208642E+0
2.874030E+2	9.032638E-1	8.802800E-1	9.192389E-1	7.744000E-1	8.811639E-1	9.036182E-1	9.282376E-1	8.358161E-1	9.025278E-1	8.837967E-1	8.492395E-1	8.371682E-1	9.160911E-1	8.576820E-1	8.506708E-1	8.591879E-1	8.227670E-1	9.058534E-1	7.996370E-1	8.225788E-1	8.901690E-1	9.299908E-1	9.132192E-1	9.237550E-1	9.174863E-1	8.718301E-1	8.594505E-1	9.225686E-1	8.674737E-1	8.548773E-1	8.675123E-1	8.640768E-1	9.347302E-1	8.052265E-1	8.440813E-1	9.448964E-1	8.564084E-1	8.919248E-1	9.605944E-1	8.712928E-1	9.259238E-1	8.356021E-1	9.159617E-1	8.199590E-1	9.094886E-1	8.591935E-1	9.682327E-1	8.517217E-1	9.257082E-1	7.931399E-1	8.693340E-1	9.020643E-1	9.587653E-1	8.771111E-1	8.913345E-1	8.349424E-1	8.523937E-1	8.601455E-1	8.264071E-1	8.502520E-1	8.999536E-1	8.743581E-1	9.183153E-1	8.360470E-1	9.818809E-1	8.804932E-1	9.105302E-1	9.669065E-1	8.593784E-1	9.443541E-1	8.699402E-1	8.988145E-1	8.162581E-1	8.531394E-1	8.933222E-1	8.870215E-1	8.797024E-1	8.709919E-1	8.914436E-1	9.108052E-1	9.150470E-1	8.793041E-1	8.824658E-1	9.356712E-1	8.889555E-1	8.339988E-1	9.101878E-1	8.863815E-1	9.255617E-1	8.452177E-1	8.729420E-1	8.951216E-1	9.473026E-1	9.305411E-1	8.464015E-1	8.986114E-1	9.576332E-1	8.976437E-1	9.365883E-1	8.868571E-1	8.492171E-1	9.082903E-1	9.936973E-1	9.268529E-1	9.422588E-1	8.780228E-1	8.941706E-1	9.110027E-1	8.403783E-1	9.163136E-1	8.890202E-1	8.590186E-1	8.651255E-1	8.369349E-1	8.449116E-1	9.005091E-1	8.760333E-1	8.763952E-1	8.973009E-1	9.180962E-1	8.957153E-1	8.110840E-1	8.711644E-1	8.782911E-1	9.268475E-1	8.842460E-1	8.870200E-1	8.380819E-1	8.915294E-1	9.568596E-1	9.135486E-1	9.432877E-1	8.523652E-1	9.518025E-1	8.855835E-1	8.813514E-1	8.442957E-1	8.987791E-1	8.170513E-1	8.907527E-1	8.867151E-1	8.736514E-1	8.854790E-1	9.120608E-1	8.181674E-1	9.274338E-1	8.429402E-1	9.128236E-1	9.622610E-1	8.925809E-1	8.544260E-1	9.395261E-1	8.048015E-1	9.044113E-1	8.332020E-1	8.850827E-1	8.752744E-1	9.659518E-1	9.138346E-1	9.283982E-1	9.606514E-1	9.158754E-1	8.234460E-1	9.366644E-1	8.957601E-1	8.178984E-1	8.381731E-1	9.114766E-1	8.347112E-1	9.859367E-1
2.876030E+2	6.575565E-1	5.483687E-1	5.920780E-1	5.873289E-1	6.176588E-1	5.415251E-1	5.949644E-1	5.667581E-1	6.282007E-1	6.178203E-1	5.705611E-1	6.223879E-1	6.309732E-1	6.158189E-1	5.514827E-1	5.832810E-1	6.171902E-1	5.635077E-1	5.964473E-1	5.765220E-1	5.551211E-1	5.874588E-1	5.607443E-1	6.017053E-1	5.741878E-1	6.571701E-1	5.910114E-1	5.964292E-1	6.193590E-1	5.889718E-1	6.355969E-1	5.737538E-1	6.027006E-1	5.701709E-1	6.192772E-1	6.258672E-1	6.019889E-1	6.024620E-1	6.293042E-1	5.466455E-1	6.589044E-1	6.206162E-1	6.092664E-1	5.728556E-1	6.536211E-1	6.151302E-1	5.596884E-1	5.883949E-1	5.292725E-1	5.730802E-1	5.967457E-1	6.240071E-1	6.128169E-1	6.227759E-1	6.595976E-1	5.564614E-1	5.373677E-1	6.100269E-1	5.905417E-1	5.901118E-1	5.781784E-1	5.746829E-1	5.832125E-1	6.163525E-1	6.140725E-1	6.079224E-1	5.556132E-1	6.311834E-1	6.625224E-1	5.925393E-1	5.949040E-1	5.796795E-1	5.462731E-1	6.056987E-1	6.071926E-1	5.937719E-1	5.801070E-1	5.950305E-1	6.362193E-1	5.766730E-1	6.181994E-1	5.377375E-1	6.283248E-1	5.668591E-1	5.415407E-1	6.193738E-1	6.244376E-1	6.157270E-1	6.142545E-1	5.932538E-1	5.801287E-1	5.670888E-1	5.899658E-1	5.801744E-1	5.720181E-1	5.650838E-1	5.863769E-1	5.995522E-1	5.849794E-1	5.992689E-1	5.844560E-1	6.406566E-1	6.332945E-1	5.806925E-1	5.808107E-1	5.953290E-1	6.098975E-1	5.546642E-1	6.217666E-1	6.530176E-1	6.327732E-1	5.640973E-1	5.435015E-1	5.965814E-1	5.885918E-1	5.416462E-1	5.884235E-1	6.193730E-1	6.521379E-1	6.302919E-1	5.989156E-1	6.345035E-1	5.953921E-1	5.833478E-1	5.860201E-1	6.326739E-1	6.309129E-1	5.785953E-1	6.178962E-1	5.652971E-1	5.996574E-1	6.192251E-1	5.751693E-1	5.911612E-1	6.154497E-1	5.982361E-1	5.881717E-1	6.507683E-1	5.566514E-1	6.030931E-1	6.235988E-1	6.201988E-1	6.460712E-1	5.942505E-1	5.676776E-1	6.339751E-1	5.934580E-1	4.958552E-1	5.866881E-1	6.151751E-1	5.944518E-1	5.712434E-1	6.138427E-1	6.280794E-1	6.181377E-1	6.119308E-1	6.036966E-1	6.039781E-1	5.557999E-1	5.678949E-1	6.331655E-1	5.990169E-1	5.957360E-1	6.164631E-1	5.273815E-1	5.789739E-1	6.110750E-1	5.907005E-1	6.193608E-1	5.052450E-1
2.878020E+2	5.436553E-1	5.707747E-1	5.718563E-1	5.303080E-1	5.603232E-1	5.518058E-1	5.229811E-1	5.255547E-1	5.171185E-1	5.877690E-1	6.001663E-1	5.482492E-1	5.770623E-1	5.725268E-1	5.448729E-1	5.257821E-1	5.523331E-1	5.275499E-1	5.467304E-1	5.008940E-1	4.999435E-1	5.915720E-1	5.465463E-1	5.464360E-1	5.989235E-1	5.527964E-1	5.837700E-1	5.210817E-1	5.327087E-1	5.505834E-1	5.472473E-1	5.756337E-1	5.775849E-1	5.626557E-1	5.572513E-1	5.364279E-1	5.336834E-1	5.573080E-1	5.248786E-1	5.324073E-1	5.633561E-1	5.819984E-1	5.782219E-1	5.825001E-1	5.659884E-1	5.339690E-1	5.531064E-1	5.701126E-1	5.552885E-1	5.329123E-1	5.222101E-1	5.335009E-1	5.213804E-1	5.013422E-1	5.475683E-1	4.949665E-1	5.365571E-1	5.648429E-1	5.782522E-1	5.426075E-1	4.980841E-1	5.571726E-1	5.408204E-1	5.239059E-1	5.636614E-1	5.411273E-1	5.309758E-1	5.321748E-1	5.587099E-1	5.645079E-1	5.754582E-1	5.517723E-1	5.622102E-1	5.318553E-1	6.100972E-1	5.545839E-1	5.226963E-1	6.075650E-1	5.286978E-1	5.294629E-1	5.752441E-1	4.779125E-1	5.604648E-1	5.151933E-1	5.560182E-1	5.420998E-1	5.298082E-1	5.399177E-1	5.790900E-1	5.405393E-1	5.507539E-1	5.471774E-1	5.152250E-1	5.262488E-1	5.284062E-1	5.635378E-1	6.294028E-1	5.468696E-1	6.265837E-1	5.554368E-1	5.600203E-1	5.950268E-1	5.513277E-1	6.030650E-1	5.730152E-1	5.735619E-1	5.802037E-1	5.848251E-1	5.470013E-1	6.021693E-1	5.477733E-1	6.362204E-1	5.173850E-1	5.243019E-1	5.309972E-1	5.906604E-1	5.389263E-1	5.354246E-1	5.094297E-1	5.526573E-1	5.567811E-1	5.719009E-1	6.088943E-1	5.402302E-1	5.364736E-1	5.286259E-1	5.221624E-1	5.577900E-1	5.863726E-1	5.728233E-1	6.040571E-1	5.638189E-1	6.230522E-1	5.922681E-1	5.192596E-1	5.549148E-1	5.755586E-1	5.904622E-1	5.286338E-1	5.631207E-1	5.254277E-1	5.554602E-1	5.491431E-1	5.992893E-1	5.746563E-1	5.585430E-1	5.000972E-1	5.562820E-1	5.554904E-1	5.178547E-1	5.711126E-1	5.452171E-1	5.607031E-1	5.656518E-1	5.883221E-1	5.844372E-1	5.420054E-1	6.048018E-1	5.699629E-1	5.373441E-1	5.439804E-1	5.289053E-1	5.202526E-1	5.743473E-1	5.476111E-1	5.637638E-1	5.276341E-1	4.836401E-1	5.055432E-1	4.895798E-1
2.880040E+2	5.609863E-1	5.737652E-1	5.471629E-1	5.572629E-1	5.913534E-1	5.491035E-1	5.519473E-1	5.803278E-1	5.730460E-1	5.517812E-1	5.083026E-1	5.603079E-1	5.499286E-1	5.330298E-1	5.734621E-1	5.591721E-1	5.358935E-1	5.476989E-1	5.751607E-1	5.776142E-1	5.547487E-1	5.593192E-1	5.499727E-1	5.566860E-1	5.440987E-1	5.541521E-1	5.847928E-1	5.370404E-1	5.935438E-1	6.083710E-1	6.228902E-1	5.657665E-1	5.313273E-1	5.394776E-1	5.404356E-1	5.602962E-1	5.500750E-1	5.509076E-1	5.570419E-1	5.627357E-1	5.645451E-1	5.562078E-1	5.950211E-1	5.628589E-1	5.820666E-1	5.652543E-1	5.939359E-1	6.006079E-1	5.061115E-1	5.825613E-1	5.940036E-1	5.835431E-1	6.033805E-1	5.736958E-1	5.681846E-1	5.589716E-1	5.242281E-1	5.934681E-1	5.657665E-1	6.228496E-1	5.408380E-1	5.316495E-1	5.450992E-1	5.348480E-1	5.883283E-1	5.439364E-1	5.668959E-1	5.627030E-1	5.398535E-1	5.208050E-1	5.816058E-1	5.979395E-1	6.146702E-1	6.234347E-1	5.548196E-1	5.626421E-1	5.747522E-1	6.365087E-1	5.340822E-1	5.341918E-1	5.547696E-1	5.970559E-1	5.573709E-1	5.901144E-1	5.627297E-1	5.483575E-1	5.677873E-1	5.773118E-1	5.773459E-1	5.705452E-1	5.953303E-1	5.510905E-1	5.558417E-1	5.992606E-1	5.354323E-1	5.274391E-1	5.379079E-1	5.202075E-1	5.606640E-1	5.939721E-1	5.478042E-1	5.526697E-1	5.748071E-1	5.537844E-1	5.948500E-1	6.201549E-1	5.948733E-1	6.325533E-1	5.646596E-1	6.091057E-1	5.699102E-1	5.819642E-1	5.995998E-1	5.563100E-1	5.381254E-1	5.850400E-1	5.843564E-1	5.814766E-1	5.703703E-1	6.031736E-1	5.234581E-1	5.593561E-1	5.468744E-1	5.400344E-1	6.143437E-1	5.452479E-1	6.093087E-1	5.550998E-1	5.964328E-1	5.917085E-1	5.466978E-1	6.027238E-1	6.023611E-1	5.393788E-1	4.969709E-1	5.364490E-1	5.625940E-1	5.696934E-1	5.704136E-1	5.947877E-1	5.622630E-1	6.114283E-1	5.449463E-1	6.115858E-1	5.503294E-1	5.434208E-1	5.886939E-1	5.372855E-1	5.346523E-1	6.003611E-1	5.695744E-1	5.519417E-1	5.721286E-1	5.657940E-1	5.828265E-1	5.750154E-1	5.570365E-1	5.511641E-1	6.014631E-1	5.391387E-1	5.851545E-1	5.462184E-1	5.481612E-1	5.976760E-1	5.416151E-1	5.491245E-1	5.704128E-1	5.676018E-1	5.993652E-1	4.706233E-1
2.882090E+2	5.404872E-1	5.672181E-1	6.017606E-1	5.558728E-1	5.421294E-1	5.355758E-1	5.658495E-1	5.935446E-1	5.763548E-1	6.059519E-1	5.910555E-1	6.160359E-1	5.715204E-1	6.304523E-1	5.872296E-1	5.770504E-1	5.771342E-1	5.877988E-1	5.126861E-1	6.013963E-1	5.193939E-1	5.987423E-1	5.959055E-1	5.529541E-1	5.635990E-1	5.893078E-1	5.428767E-1	5.551195E-1	6.218768E-1	5.617893E-1	5.553741E-1	5.845232E-1	6.071410E-1	6.098505E-1	5.974031E-1	6.015784E-1	6.234308E-1	5.869185E-1	6.107483E-1	6.042816E-1	6.109804E-1	5.972171E-1	5.366143E-1	5.368304E-1	5.390733E-1	6.243252E-1	6.145605E-1	6.119792E-1	5.140558E-1	5.497896E-1	5.252528E-1	5.527412E-1	6.134657E-1	5.528257E-1	5.658746E-1	5.791923E-1	5.741711E-1	5.794101E-1	5.634482E-1	5.943111E-1	5.440074E-1	5.614519E-1	5.975782E-1	5.662486E-1	5.930058E-1	6.269470E-1	6.122182E-1	6.097624E-1	5.907036E-1	5.739633E-1	5.710868E-1	5.932087E-1	5.789332E-1	5.774228E-1	5.876806E-1	5.250501E-1	5.319508E-1	5.745067E-1	5.658617E-1	5.912516E-1	6.248956E-1	5.901492E-1	5.851592E-1	5.419305E-1	5.298521E-1	5.495095E-1	5.646600E-1	5.845894E-1	6.114476E-1	5.509124E-1	6.392749E-1	5.771520E-1	5.986936E-1	5.827901E-1	5.964435E-1	5.578119E-1	5.566160E-1	5.600528E-1	5.891148E-1	5.457500E-1	5.971234E-1	5.775834E-1	5.995175E-1	5.763544E-1	6.005371E-1	5.900419E-1	5.708998E-1	5.812232E-1	5.910328E-1	5.983624E-1	5.748770E-1	5.856683E-1	5.626424E-1	6.281935E-1	6.368944E-1	5.964818E-1	5.675386E-1	5.678893E-1	5.582247E-1	5.454600E-1	6.435317E-1	5.258972E-1	5.636543E-1	6.117879E-1	5.399336E-1	6.056211E-1	5.326681E-1	5.475299E-1	5.520754E-1	6.530367E-1	6.112010E-1	5.726328E-1	5.817275E-1	5.426730E-1	5.422321E-1	5.651992E-1	6.036027E-1	5.952730E-1	5.671307E-1	5.679718E-1	5.695869E-1	6.007447E-1	5.310739E-1	5.343030E-1	5.689730E-1	5.932746E-1	4.914330E-1	5.878607E-1	5.379944E-1	5.171063E-1	6.114195E-1	5.609421E-1	5.957740E-1	5.895571E-1	5.102891E-1	6.250452E-1	5.640692E-1	5.881652E-1	5.507664E-1	5.505261E-1	5.615732E-1	5.994241E-1	5.667915E-1	6.275408E-1	5.824331E-1	5.662821E-1	5.117807E-1	5.758521E-1	6.319842E-1	7.463760E-1
2.884090E+2	9.730614E-1	1.032816E+0	1.021917E+0	9.683768E-1	1.011034E+0	1.028664E+0	1.032248E+0	1.036209E+0	1.075208E+0	1.045094E+0	1.107292E+0	1.043556E+0	1.093513E+0	1.016353E+0	1.028702E+0	9.972100E-1	1.046823E+0	1.003190E+0	1.042473E+0	9.524213E-1	9.763881E-1	9.976380E-1	9.651686E-1	9.826416E-1	1.035987E+0	1.118569E+0	1.062483E+0	9.862560E-1	1.049167E+0	9.987049E-1	1.017821E+0	9.915880E-1	1.081688E+0	1.045640E+0	1.032548E+0	1.071073E+0	1.176189E+0	1.064959E+0	1.080546E+0	1.065016E+0	1.045965E+0	9.944904E-1	1.061781E+0	1.022821E+0	1.033652E+0	1.040823E+0	1.102469E+0	1.047038E+0	1.084379E+0	1.080936E+0	1.050455E+0	1.088820E+0	1.016059E+0	1.067125E+0	1.031612E+0	9.980491E-1	1.016314E+0	1.023001E+0	9.936499E-1	1.016295E+0	9.687772E-1	9.686817E-1	1.076875E+0	1.038043E+0	1.133010E+0	1.043139E+0	1.097536E+0	1.013742E+0	1.049153E+0	1.091325E+0	9.974205E-1	1.094709E+0	1.046491E+0	1.088771E+0	1.015724E+0	9.724738E-1	1.039400E+0	1.045930E+0	9.609547E-1	1.043993E+0	1.031994E+0	9.896758E-1	1.013574E+0	9.259310E-1	1.089838E+0	1.053448E+0	1.047234E+0	9.810061E-1	1.041915E+0	9.233039E-1	9.881212E-1	1.060123E+0	9.450559E-1	9.866163E-1	1.009216E+0	9.983210E-1	1.054173E+0	1.008252E+0	1.040979E+0	1.047661E+0	1.015990E+0	1.038274E+0	1.022494E+0	1.025136E+0	1.018595E+0	1.050022E+0	1.042031E+0	1.039000E+0	1.024066E+0	1.154619E+0	1.002348E+0	1.004222E+0	1.014132E+0	1.038158E+0	1.065727E+0	9.799390E-1	9.585316E-1	1.009918E+0	1.058174E+0	1.020939E+0	9.456211E-1	1.028037E+0	1.053798E+0	9.918973E-1	1.039412E+0	9.646496E-1	1.008135E+0	1.066792E+0	1.035781E+0	1.005191E+0	9.715182E-1	9.156177E-1	1.020378E+0	1.006186E+0	9.962048E-1	1.064331E+0	9.764876E-1	1.003718E+0	9.942423E-1	1.041222E+0	1.073673E+0	9.627421E-1	9.906723E-1	1.046729E+0	9.504288E-1	9.322216E-1	1.009458E+0	1.082916E+0	1.002879E+0	1.018757E+0	1.033333E+0	1.027958E+0	9.839528E-1	1.018407E+0	9.682390E-1	1.107123E+0	9.533505E-1	1.004153E+0	9.792341E-1	1.026522E+0	1.080711E+0	9.769006E-1	1.095845E+0	1.102109E+0	1.019437E+0	1.024306E+0	9.684910E-1	1.006470E+0	9.834212E-1	1.012928E+0
2.886030E+2	1.371977E+0	1.378012E+0	1.345942E+0	1.387340E+0	1.356543E+0	1.350543E+0	1.387544E+0	1.289033E+0	1.342334E+0	1.373880E+0	1.418893E+0	1.334406E+0	1.410116E+0	1.366982E+0	1.394638E+0	1.273362E+0	1.299414E+0	1.379078E+0	1.313893E+0	1.347649E+0	1.400957E+0	1.352279E+0	1.353690E+0	1.345665E+0	1.345527E+0	1.335983E+0	1.350097E+0	1.282127E+0	1.345004E+0	1.347197E+0	1.330346E+0	1.399250E+0	1.396482E+0	1.409433E+0	1.393423E+0	1.363292E+0	1.330041E+0	1.263781E+0	1.374369E+0	1.392132E+0	1.379006E+0	1.407620E+0	1.256812E+0	1.357658E+0	1.367208E+0	1.375531E+0	1.322611E+0	1.311929E+0	1.348735E+0	1.373576E+0	1.284752E+0	1.375434E+0	1.333578E+0	1.389124E+0	1.329285E+0	1.335472E+0	1.345097E+0	1.430216E+0	1.317232E+0	1.301771E+0	1.387583E+0	1.364166E+0	1.368455E+0	1.353865E+0	1.421868E+0	1.331908E+0	1.337969E+0	1.400662E+0	1.335292E+0	1.307994E+0	1.399700E+0	1.336873E+0	1.377169E+0	1.281763E+0	1.281730E+0	1.407429E+0	1.391849E+0	1.405196E+0	1.350399E+0	1.358532E+0	1.340126E+0	1.310510E+0	1.347259E+0	1.322259E+0	1.230121E+0	1.345120E+0	1.393228E+0	1.335463E+0	1.342047E+0	1.279909E+0	1.266873E+0	1.261455E+0	1.365221E+0	1.349934E+0	1.236466E+0	1.379868E+0	1.373426E+0	1.336679E+0	1.355902E+0	1.338227E+0	1.321346E+0	1.429906E+0	1.304948E+0	1.381654E+0	1.336622E+0	1.353502E+0	1.363811E+0	1.334644E+0	1.404984E+0	1.410583E+0	1.309087E+0	1.403256E+0	1.297526E+0	1.351381E+0	1.376236E+0	1.394801E+0	1.451818E+0	1.348521E+0	1.261821E+0	1.354756E+0	1.258694E+0	1.414368E+0	1.371676E+0	1.360950E+0	1.323707E+0	1.338619E+0	1.314349E+0	1.373106E+0	1.338150E+0	1.332366E+0	1.367553E+0	1.332586E+0	1.351012E+0	1.399687E+0	1.333908E+0	1.389954E+0	1.370098E+0	1.362880E+0	1.270697E+0	1.360486E+0	1.399902E+0	1.397790E+0	1.383465E+0	1.304940E+0	1.292270E+0	1.387591E+0	1.415718E+0	1.301898E+0	1.326921E+0	1.283176E+0	1.383566E+0	1.297802E+0	1.322701E+0	1.319507E+0	1.368493E+0	1.366873E+0	1.319869E+0	1.380517E+0	1.333772E+0	1.411245E+0	1.369254E+0	1.311819E+0	1.394680E+0	1.522628E+0	1.216741E+0	1.306553E+0	1.314978E+0	1.260414E+0	1.371242E+0	1.520667E+0
2.887950E+2	1.398293E+0	1.328793E+0	1.420358E+0	1.312204E+0	1.381288E+0	1.347607E+0	1.334868E+0	1.398584E+0	1.405537E+0	1.414523E+0	1.437569E+0	1.399380E+0	1.390206E+0	1.350628E+0	1.403565E+0	1.352470E+0	1.300804E+0	1.410282E+0	1.390315E+0	1.397726E+0	1.394094E+0	1.363421E+0	1.378036E+0	1.416063E+0	1.379490E+0	1.265625E+0	1.330009E+0	1.335041E+0	1.422760E+0	1.366077E+0	1.358750E+0	1.448170E+0	1.473590E+0	1.399085E+0	1.325106E+0	1.394988E+0	1.349146E+0	1.392213E+0	1.358440E+0	1.311726E+0	1.422179E+0	1.285866E+0	1.363053E+0	1.372903E+0	1.403658E+0	1.363825E+0	1.376512E+0	1.348551E+0	1.395636E+0	1.277308E+0	1.316409E+0	1.347082E+0	1.381055E+0	1.434057E+0	1.348809E+0	1.372132E+0	1.294209E+0	1.342045E+0	1.349429E+0	1.340712E+0	1.391691E+0	1.311217E+0	1.495165E+0	1.273872E+0	1.393607E+0	1.354189E+0	1.293858E+0	1.472763E+0	1.321265E+0	1.328482E+0	1.398851E+0	1.383619E+0	1.418311E+0	1.365962E+0	1.285946E+0	1.345364E+0	1.359958E+0	1.422368E+0	1.444886E+0	1.354858E+0	1.296195E+0	1.324968E+0	1.326863E+0	1.322719E+0	1.333557E+0	1.341110E+0	1.418316E+0	1.355912E+0	1.378123E+0	1.253737E+0	1.338312E+0	1.387954E+0	1.309183E+0	1.271473E+0	1.360398E+0	1.310610E+0	1.453498E+0	1.391997E+0	1.425552E+0	1.398853E+0	1.325972E+0	1.433715E+0	1.293752E+0	1.492259E+0	1.448944E+0	1.375394E+0	1.414959E+0	1.366789E+0	1.363295E+0	1.444178E+0	1.391022E+0	1.342399E+0	1.438266E+0	1.320407E+0	1.312239E+0	1.341794E+0	1.339107E+0	1.392685E+0	1.320633E+0	1.351498E+0	1.291086E+0	1.366720E+0	1.283348E+0	1.364109E+0	1.372594E+0	1.326462E+0	1.396832E+0	1.327215E+0	1.358893E+0	1.341084E+0	1.335649E+0	1.400446E+0	1.372777E+0	1.411009E+0	1.344882E+0	1.409690E+0	1.415916E+0	1.382356E+0	1.399208E+0	1.370822E+0	1.321315E+0	1.375482E+0	1.391589E+0	1.372437E+0	1.360853E+0	1.398703E+0	1.484519E+0	1.408212E+0	1.342553E+0	1.345668E+0	1.387783E+0	1.423282E+0	1.384999E+0	1.345913E+0	1.326834E+0	1.431413E+0	1.309460E+0	1.450850E+0	1.361276E+0	1.401844E+0	1.337026E+0	1.399548E+0	1.455165E+0	1.397901E+0	1.269904E+0	1.315644E+0	1.404792E+0	1.321368E+0	1.276390E+0	1.465035E+0
2.890120E+2	1.167669E+0	1.169173E+0	1.226153E+0	1.149998E+0	1.171382E+0	1.213652E+0	1.234019E+0	1.198822E+0	1.201157E+0	1.180703E+0	1.157549E+0	1.183112E+0	1.231731E+0	1.235937E+0	1.265210E+0	1.178221E+0	1.170546E+0	1.139592E+0	1.165425E+0	1.099249E+0	1.120579E+0	1.188925E+0	1.187898E+0	1.164225E+0	1.152351E+0	1.184596E+0	1.100744E+0	1.154335E+0	1.180290E+0	1.184886E+0	1.135415E+0	1.085512E+0	1.235924E+0	1.138964E+0	1.098725E+0	1.169174E+0	1.217189E+0	1.206392E+0	1.164330E+0	1.179183E+0	1.223356E+0	1.165454E+0	1.161643E+0	1.162880E+0	1.250071E+0	1.232744E+0	1.163476E+0	1.188221E+0	1.194197E+0	1.133552E+0	1.168460E+0	1.107356E+0	1.234442E+0	1.180054E+0	1.204795E+0	1.175694E+0	1.096203E+0	1.255910E+0	1.158528E+0	1.248752E+0	1.171156E+0	1.177152E+0	1.305521E+0	1.118183E+0	1.206837E+0	1.148074E+0	1.040684E+0	1.208623E+0	1.191723E+0	1.262015E+0	1.161547E+0	1.161184E+0	1.188465E+0	1.120768E+0	1.161360E+0	1.099178E+0	1.159787E+0	1.232765E+0	1.162462E+0	1.150741E+0	1.171555E+0	1.178335E+0	1.251200E+0	1.136748E+0	1.155866E+0	1.156102E+0	1.213915E+0	1.169533E+0	1.254126E+0	1.269315E+0	1.221481E+0	1.124864E+0	1.151498E+0	1.161586E+0	1.175854E+0	1.210246E+0	1.250761E+0	1.230256E+0	1.317805E+0	1.250450E+0	1.129903E+0	1.171842E+0	1.190652E+0	1.253132E+0	1.154242E+0	1.163826E+0	1.287411E+0	1.215261E+0	1.123971E+0	1.222018E+0	1.266230E+0	1.113625E+0	1.148856E+0	1.086891E+0	1.231958E+0	1.156673E+0	1.172033E+0	1.239922E+0	1.148475E+0	1.228251E+0	1.130654E+0	1.166577E+0	1.291600E+0	1.152991E+0	1.196173E+0	1.146376E+0	1.188074E+0	1.138647E+0	1.203743E+0	1.157403E+0	1.181821E+0	1.113071E+0	1.171074E+0	1.238476E+0	1.182124E+0	1.183704E+0	1.190766E+0	1.189950E+0	1.169005E+0	1.219954E+0	1.240176E+0	1.216383E+0	1.234348E+0	1.204513E+0	1.064720E+0	1.203219E+0	1.196554E+0	1.150410E+0	1.294673E+0	1.177864E+0	1.147431E+0	1.102981E+0	1.221879E+0	1.237631E+0	1.171662E+0	1.244665E+0	1.163681E+0	1.206332E+0	1.242964E+0	1.182693E+0	1.220707E+0	1.163397E+0	1.292301E+0	1.145169E+0	1.147129E+0	1.208333E+0	1.210827E+0	1.170547E+0	1.133293E+0	1.242033E+0
2.892050E+2	7.550438E-1	7.709694E-1	7.535096E-1	7.515105E-1	8.119309E-1	7.210836E-1	7.281824E-1	7.517755E-1	7.326034E-1	7.701035E-1	7.867990E-1	7.278684E-1	7.306549E-1	7.114683E-1	6.866082E-1	7.111824E-1	6.963493E-1	7.426209E-1	7.489886E-1	7.413841E-1	7.349016E-1	7.588975E-1	7.291832E-1	7.614479E-1	7.310734E-1	8.084624E-1	6.878559E-1	7.274013E-1	7.444048E-1	7.593100E-1	6.777262E-1	7.840561E-1	7.417413E-1	7.824236E-1	6.710580E-1	7.469837E-1	8.842687E-1	7.074449E-1	7.083021E-1	7.057562E-1	7.680442E-1	7.191559E-1	7.441408E-1	7.507036E-1	7.681913E-1	7.617282E-1	7.818411E-1	7.465501E-1	7.708966E-1	7.259881E-1	7.463876E-1	8.497537E-1	7.648955E-1	7.161275E-1	7.149436E-1	7.646878E-1	7.162114E-1	7.629116E-1	7.851147E-1	8.140906E-1	6.752358E-1	7.641258E-1	7.716112E-1	7.829246E-1	7.887457E-1	7.517602E-1	7.789048E-1	8.094281E-1	7.457381E-1	7.625378E-1	6.875938E-1	7.826670E-1	7.197431E-1	7.072399E-1	8.192644E-1	7.652564E-1	7.945370E-1	7.886105E-1	7.914539E-1	7.533965E-1	7.601194E-1	7.384632E-1	7.416048E-1	7.463300E-1	7.783518E-1	7.130238E-1	7.956078E-1	7.330137E-1	7.673107E-1	7.154502E-1	7.305949E-1	7.973117E-1	7.652335E-1	7.248758E-1	7.833843E-1	7.333611E-1	7.726183E-1	8.074975E-1	7.390753E-1	7.855635E-1	7.619641E-1	7.171743E-1	7.811610E-1	7.154064E-1	7.185358E-1	7.493309E-1	7.626509E-1	7.502701E-1	7.645823E-1	8.074448E-1	7.410422E-1	7.811687E-1	7.503117E-1	7.162150E-1	7.148211E-1	8.022783E-1	6.824613E-1	7.249365E-1	7.291118E-1	7.544768E-1	7.799086E-1	7.543398E-1	7.453852E-1	7.310893E-1	7.969779E-1	7.014747E-1	7.536414E-1	7.980287E-1	7.596139E-1	6.585964E-1	7.624061E-1	7.345708E-1	7.110821E-1	7.849388E-1	7.335620E-1	7.316201E-1	7.325673E-1	7.860791E-1	7.550925E-1	7.031106E-1	7.522329E-1	7.700759E-1	7.862190E-1	7.743170E-1	7.287808E-1	8.074036E-1	8.250077E-1	7.528230E-1	7.468463E-1	7.222007E-1	7.973172E-1	7.660767E-1	7.068761E-1	7.134099E-1	7.209947E-1	8.091133E-1	7.820193E-1	7.747529E-1	7.902598E-1	8.153995E-1	7.279342E-1	7.484489E-1	7.716377E-1	6.764677E-1	7.545673E-1	7.823063E-1	8.105773E-1	7.878898E-1	7.197077E-1	8.685945E-1
2.894050E+2	6.914914E-1	6.938705E-1	7.046406E-1	7.169320E-1	6.774954E-1	6.966749E-1	6.730128E-1	6.513936E-1	7.021388E-1	6.742727E-1	7.201727E-1	7.468575E-1	6.844534E-1	6.849009E-1	7.472356E-1	7.095590E-1	7.003929E-1	6.675978E-1	6.849418E-1	6.895754E-1	7.331583E-1	7.081164E-1	7.438270E-1	6.466548E-1	6.629389E-1	6.990946E-1	6.690159E-1	6.545796E-1	6.982411E-1	6.590978E-1	7.381522E-1	6.426507E-1	7.781288E-1	7.463573E-1	7.324967E-1	7.313092E-1	7.152299E-1	7.059445E-1	7.173400E-1	6.594606E-1	7.502244E-1	6.333730E-1	7.302185E-1	7.097954E-1	7.312048E-1	6.938178E-1	7.119956E-1	6.279112E-1	6.791622E-1	6.875327E-1	7.430903E-1	7.566916E-1	7.271610E-1	6.529095E-1	6.510957E-1	6.904803E-1	7.238193E-1	6.637921E-1	6.462467E-1	6.850327E-1	6.433147E-1	6.717097E-1	5.995666E-1	7.406110E-1	6.732746E-1	6.866813E-1	7.096320E-1	7.414630E-1	6.658679E-1	7.289968E-1	7.064520E-1	7.087755E-1	6.947385E-1	6.714419E-1	7.062764E-1	7.061004E-1	7.653615E-1	7.285210E-1	7.514553E-1	6.794683E-1	7.075516E-1	7.703605E-1	5.972987E-1	6.863919E-1	7.209231E-1	7.012844E-1	7.252532E-1	6.488014E-1	7.408359E-1	6.633765E-1	7.163374E-1	7.433983E-1	6.473293E-1	6.936724E-1	6.735488E-1	6.306894E-1	7.289889E-1	6.964099E-1	6.500920E-1	6.538117E-1	6.934690E-1	7.467411E-1	7.042587E-1	7.321863E-1	6.990336E-1	6.833135E-1	6.800108E-1	7.133004E-1	6.862353E-1	6.781022E-1	7.401569E-1	7.381174E-1	6.801475E-1	7.433838E-1	6.708814E-1	7.443369E-1	7.080684E-1	7.080354E-1	7.060462E-1	7.018201E-1	7.058811E-1	6.897106E-1	7.244212E-1	7.343680E-1	7.020259E-1	7.273536E-1	6.952488E-1	6.786493E-1	6.504160E-1	6.973257E-1	6.635327E-1	7.177955E-1	7.473699E-1	6.860292E-1	7.305836E-1	7.136153E-1	7.458925E-1	6.991909E-1	7.322683E-1	7.270024E-1	7.010011E-1	7.074941E-1	6.997664E-1	6.551903E-1	7.078570E-1	7.397794E-1	6.976825E-1	6.906413E-1	7.503138E-1	7.139547E-1	6.690380E-1	7.838242E-1	7.032933E-1	6.982517E-1	6.627776E-1	7.071819E-1	6.576439E-1	7.130710E-1	7.645385E-1	6.979767E-1	7.494904E-1	6.523816E-1	7.207794E-1	7.089655E-1	7.059608E-1	7.339626E-1	7.250521E-1	6.791794E-1	7.097526E-1	6.806594E-1
2.896060E+2	8.137580E-1	7.046410E-1	7.553629E-1	6.699938E-1	6.593685E-1	7.335759E-1	6.709664E-1	7.094621E-1	7.454419E-1	7.823429E-1	7.197726E-1	7.308997E-1	7.288608E-1	6.479843E-1	7.252925E-1	6.622943E-1	7.310820E-1	6.861104E-1	7.360046E-1	6.745611E-1	7.171707E-1	6.962253E-1	7.429948E-1	6.781985E-1	7.624469E-1	7.425039E-1	7.411105E-1	6.831939E-1	6.684238E-1	7.714177E-1	6.982545E-1	6.979916E-1	6.954371E-1	7.176244E-1	7.124023E-1	7.141974E-1	7.574613E-1	7.086508E-1	7.502973E-1	7.121058E-1	7.456500E-1	6.615731E-1	7.384028E-1	6.975478E-1	6.951740E-1	7.624003E-1	7.285944E-1	7.082040E-1	7.171848E-1	6.663355E-1	7.448814E-1	7.008975E-1	7.240641E-1	7.345411E-1	7.266079E-1	7.090391E-1	7.101820E-1	7.129109E-1	6.892983E-1	6.836707E-1	6.632881E-1	7.011700E-1	7.111478E-1	7.410114E-1	7.228100E-1	7.401316E-1	6.515378E-1	7.588866E-1	7.467664E-1	7.331386E-1	6.924134E-1	7.765588E-1	7.492932E-1	7.596559E-1	7.643816E-1	6.970941E-1	7.534389E-1	6.662688E-1	6.758628E-1	7.285041E-1	7.070980E-1	7.158389E-1	6.874729E-1	7.337032E-1	7.088235E-1	6.406109E-1	7.147985E-1	7.179950E-1	7.419182E-1	7.761682E-1	7.070680E-1	7.390968E-1	6.797529E-1	6.980375E-1	7.083015E-1	7.243927E-1	7.216742E-1	6.854522E-1	7.324058E-1	7.298711E-1	6.960465E-1	7.117124E-1	7.066566E-1	7.270480E-1	6.948637E-1	6.536048E-1	6.864487E-1	7.134770E-1	7.235046E-1	7.938231E-1	7.558816E-1	7.464031E-1	7.538457E-1	6.587259E-1	7.482700E-1	6.870958E-1	7.198841E-1	6.998014E-1	7.262251E-1	6.838272E-1	7.659520E-1	7.478889E-1	7.508903E-1	7.397024E-1	7.062818E-1	7.512190E-1	7.229242E-1	6.990217E-1	7.611510E-1	6.849396E-1	6.835248E-1	7.085467E-1	7.357492E-1	6.872129E-1	7.020974E-1	7.298085E-1	7.611889E-1	7.394570E-1	7.615488E-1	7.577720E-1	7.513096E-1	7.188473E-1	7.725938E-1	7.424343E-1	7.344558E-1	7.387396E-1	7.534060E-1	7.316886E-1	6.814772E-1	7.258364E-1	7.083853E-1	6.881702E-1	7.529446E-1	6.914000E-1	7.554129E-1	7.155287E-1	7.465666E-1	7.197005E-1	7.817470E-1	7.254126E-1	6.892801E-1	6.870807E-1	7.379451E-1	7.924494E-1	7.085598E-1	7.026994E-1	7.479047E-1	7.010200E-1	7.254253E-1	6.304087E-1
2.898030E+2	6.145896E-1	6.124852E-1	6.381092E-1	6.138240E-1	6.403873E-1	6.146204E-1	6.029329E-1	5.992217E-1	6.044208E-1	6.452597E-1	6.024265E-1	6.494362E-1	6.461047E-1	6.282251E-1	6.137528E-1	6.323437E-1	5.648382E-1	6.535569E-1	5.944114E-1	6.131587E-1	5.936625E-1	6.257496E-1	6.190620E-1	6.293049E-1	6.521220E-1	6.387994E-1	6.564304E-1	6.422996E-1	5.766831E-1	5.615622E-1	5.934595E-1	6.221052E-1	6.434423E-1	6.273389E-1	5.806705E-1	6.072014E-1	6.390549E-1	5.997187E-1	6.127531E-1	6.353154E-1	6.476438E-1	6.476577E-1	6.379592E-1	6.166111E-1	6.165046E-1	6.400885E-1	7.132325E-1	6.205864E-1	6.157536E-1	5.293076E-1	6.188195E-1	6.175617E-1	6.514676E-1	6.746758E-1	6.338389E-1	6.551069E-1	6.187839E-1	6.373266E-1	6.135442E-1	6.484596E-1	6.078075E-1	6.159047E-1	6.366841E-1	6.372140E-1	5.967245E-1	6.207321E-1	6.228364E-1	6.483960E-1	6.251221E-1	6.114176E-1	6.553770E-1	6.454693E-1	6.978024E-1	6.771166E-1	6.642302E-1	5.925666E-1	6.117369E-1	6.558945E-1	6.489433E-1	6.894431E-1	6.506341E-1	6.469592E-1	5.933926E-1	6.238923E-1	6.460548E-1	5.643556E-1	5.863281E-1	6.119362E-1	6.360122E-1	6.026826E-1	6.968012E-1	6.680662E-1	6.626111E-1	6.343911E-1	6.486539E-1	6.478572E-1	6.308773E-1	6.375751E-1	6.089569E-1	6.309858E-1	6.207119E-1	5.940345E-1	6.272428E-1	5.845469E-1	6.190284E-1	6.495031E-1	5.989724E-1	5.929252E-1	6.062232E-1	6.551881E-1	6.444226E-1	6.473097E-1	6.075438E-1	6.227660E-1	6.256673E-1	6.505092E-1	5.787281E-1	6.456839E-1	6.835883E-1	6.404605E-1	6.054852E-1	5.813138E-1	6.234372E-1	6.294242E-1	5.930786E-1	6.601561E-1	6.588197E-1	6.356965E-1	7.041453E-1	6.322386E-1	6.532327E-1	6.152560E-1	6.968484E-1	6.161621E-1	6.547990E-1	6.330868E-1	6.646785E-1	6.961938E-1	6.091185E-1	6.099297E-1	6.294997E-1	6.898574E-1	6.175942E-1	6.249232E-1	6.132035E-1	6.756633E-1	6.265326E-1	5.554610E-1	6.403134E-1	6.289374E-1	6.325635E-1	6.708229E-1	5.771285E-1	6.661816E-1	6.384155E-1	6.658110E-1	6.157621E-1	6.039092E-1	6.134659E-1	6.843556E-1	6.346815E-1	6.573959E-1	6.576538E-1	6.682773E-1	5.737356E-1	6.550116E-1	6.317292E-1	5.971391E-1	6.114388E-1	5.986918E-1
2.900030E+2	7.251131E-1	7.482132E-1	7.444100E-1	6.714740E-1	7.151847E-1	7.315955E-1	6.968503E-1	7.532451E-1	7.135073E-1	7.118550E-1	7.245315E-1	7.385917E-1	6.947517E-1	6.716559E-1	7.083301E-1	7.762338E-1	7.009401E-1	7.080404E-1	6.522902E-1	7.342809E-1	6.975170E-1	7.248214E-1	6.586791E-1	7.266901E-1	7.277126E-1	7.895483E-1	7.792507E-1	7.594674E-1	7.297312E-1	7.219510E-1	7.061562E-1	7.896101E-1	7.127811E-1	7.445195E-1	7.011571E-1	7.344626E-1	7.579768E-1	7.492545E-1	6.833643E-1	7.215415E-1	7.910823E-1	7.042997E-1	6.722022E-1	7.448237E-1	7.112655E-1	7.128844E-1	7.710568E-1	7.175938E-1	6.919291E-1	6.992962E-1	7.791992E-1	6.949546E-1	7.384225E-1	7.195858E-1	6.917740E-1	7.139846E-1	7.234682E-1	7.033337E-1	7.584172E-1	6.818277E-1	7.409022E-1	6.937233E-1	7.417479E-1	6.563263E-1	8.427842E-1	6.878129E-1	7.338956E-1	7.273258E-1	7.448537E-1	7.069292E-1	7.066083E-1	7.149868E-1	7.452814E-1	7.152994E-1	6.955093E-1	6.881259E-1	6.653679E-1	7.265372E-1	7.645130E-1	7.295701E-1	7.110898E-1	6.941830E-1	7.045850E-1	7.749035E-1	8.010717E-1	7.045963E-1	7.504508E-1	7.568539E-1	7.851813E-1	7.308702E-1	7.252352E-1	6.631922E-1	7.219117E-1	7.066470E-1	6.576957E-1	6.776090E-1	7.630015E-1	6.853830E-1	7.146560E-1	7.349635E-1	7.428646E-1	6.968748E-1	7.165449E-1	7.591766E-1	7.556402E-1	7.321026E-1	6.916915E-1	6.942823E-1	6.819188E-1	7.356174E-1	7.532492E-1	7.374205E-1	6.604581E-1	6.915306E-1	7.610556E-1	7.471332E-1	7.788603E-1	6.661169E-1	7.030592E-1	7.130567E-1	7.026691E-1	6.990733E-1	7.562617E-1	7.668054E-1	7.077944E-1	7.681719E-1	6.708933E-1	7.265408E-1	7.166082E-1	7.357592E-1	6.988078E-1	7.066865E-1	7.452290E-1	7.267020E-1	7.729475E-1	6.785178E-1	7.230317E-1	7.532626E-1	6.793063E-1	7.057463E-1	6.721635E-1	7.378824E-1	7.264156E-1	6.591889E-1	6.993493E-1	7.169770E-1	7.120733E-1	7.371744E-1	6.907421E-1	7.592560E-1	6.890113E-1	7.440429E-1	7.227768E-1	7.685256E-1	7.528604E-1	7.011088E-1	7.000613E-1	6.905933E-1	7.595569E-1	7.780171E-1	6.961136E-1	7.053295E-1	6.869721E-1	7.803908E-1	6.858926E-1	7.287874E-1	7.517907E-1	6.950079E-1	7.041250E-1	7.431936E-1
2.905120E+2	9.368841E-1	8.806899E-1	8.985968E-1	8.632080E-1	8.434038E-1	9.233586E-1	8.497712E-1	9.302579E-1	9.025970E-1	8.991576E-1	9.028382E-1	9.353838E-1	8.951722E-1	9.024644E-1	8.960925E-1	8.986411E-1	8.470374E-1	8.887622E-1	8.745555E-1	8.455231E-1	8.887096E-1	8.494304E-1	9.086087E-1	8.771488E-1	9.335426E-1	9.467978E-1	9.058960E-1	8.923669E-1	9.080242E-1	9.093561E-1	8.479598E-1	9.163273E-1	9.744359E-1	9.643660E-1	8.797960E-1	9.702621E-1	9.717232E-1	9.108776E-1	9.570583E-1	8.538605E-1	8.844936E-1	8.903224E-1	9.003052E-1	9.885182E-1	8.873424E-1	9.327946E-1	8.940944E-1	9.045957E-1	8.750113E-1	9.037385E-1	9.109581E-1	9.154391E-1	8.602976E-1	9.153308E-1	8.833360E-1	9.167940E-1	8.904133E-1	9.273374E-1	8.520502E-1	9.503359E-1	8.825898E-1	8.857193E-1	8.981393E-1	9.020288E-1	9.286326E-1	9.423156E-1	9.006731E-1	8.729569E-1	8.914373E-1	9.167912E-1	8.748215E-1	8.970111E-1	9.535860E-1	9.242441E-1	9.012926E-1	8.669848E-1	9.759937E-1	8.899938E-1	9.429036E-1	8.834660E-1	9.235490E-1	9.035203E-1	9.005553E-1	9.645611E-1	9.276234E-1	8.543654E-1	9.460231E-1	8.785486E-1	8.988633E-1	9.355180E-1	8.658749E-1	9.150807E-1	9.130258E-1	8.450920E-1	9.250160E-1	8.916161E-1	9.630977E-1	8.374445E-1	9.059884E-1	8.869490E-1	8.854678E-1	8.842655E-1	8.867075E-1	8.794544E-1	8.727944E-1	8.741097E-1	9.124748E-1	9.582312E-1	9.044959E-1	9.708071E-1	1.006510E+0	9.052241E-1	8.983408E-1	8.928979E-1	9.074900E-1	9.156148E-1	9.477815E-1	9.349940E-1	8.068698E-1	9.575539E-1	8.482777E-1	8.707578E-1	9.955757E-1	8.854546E-1	9.670910E-1	8.997218E-1	9.095873E-1	9.388559E-1	9.231164E-1	9.358590E-1	8.946256E-1	8.837111E-1	8.930068E-1	9.123178E-1	8.982317E-1	8.634924E-1	8.899173E-1	9.086411E-1	8.376069E-1	8.494368E-1	8.841315E-1	9.008140E-1	8.774711E-1	8.764118E-1	9.191122E-1	8.706340E-1	9.145546E-1	8.642622E-1	8.951371E-1	9.234382E-1	9.157673E-1	9.644210E-1	8.486083E-1	1.003261E+0	8.755928E-1	1.021697E+0	9.468155E-1	8.981654E-1	9.347036E-1	9.546647E-1	8.650865E-1	9.104590E-1	9.384205E-1	9.192421E-1	8.369199E-1	8.913352E-1	8.656594E-1	9.410827E-1	8.820065E-1	9.937638E-1
2.910040E+2	1.116260E+0	1.154043E+0	1.118853E+0	1.166036E+0	1.202982E+0	1.154195E+0	1.208656E+0	1.114340E+0	1.179416E+0	1.129306E+0	1.096055E+0	1.205590E+0	1.126237E+0	1.207330E+0	1.221021E+0	1.144910E+0	1.145458E+0	1.070577E+0	1.158299E+0	1.232092E+0	1.134256E+0	1.154795E+0	1.174181E+0	1.117781E+0	1.181719E+0	1.207920E+0	1.148851E+0	1.116403E+0	1.224009E+0	1.170695E+0	1.182659E+0	1.159134E+0	1.246743E+0	1.157210E+0	1.194990E+0	1.165284E+0	1.233606E+0	1.184162E+0	1.241010E+0	1.169239E+0	1.181901E+0	1.135048E+0	1.206304E+0	1.117255E+0	1.189285E+0	1.204207E+0	1.153521E+0	1.208947E+0	1.167116E+0	1.078792E+0	1.145617E+0	1.138922E+0	1.218691E+0	1.165247E+0	1.102134E+0	1.139740E+0	1.097972E+0	1.118530E+0	1.193260E+0	1.106519E+0	1.159662E+0	1.135797E+0	1.150817E+0	1.113109E+0	1.208277E+0	1.138533E+0	1.163110E+0	1.183583E+0	1.231136E+0	1.151852E+0	1.100846E+0	1.066911E+0	1.245275E+0	1.166715E+0	1.079348E+0	1.153170E+0	1.225177E+0	1.103518E+0	1.160281E+0	1.107118E+0	1.206900E+0	1.130949E+0	1.112000E+0	1.137984E+0	1.212340E+0	1.167741E+0	1.125011E+0	1.184328E+0	1.168123E+0	1.179384E+0	1.114856E+0	1.102124E+0	1.160109E+0	1.150055E+0	1.153389E+0	1.165555E+0	1.159459E+0	1.126257E+0	1.078123E+0	1.169211E+0	1.119261E+0	1.089109E+0	1.141491E+0	1.192153E+0	1.142938E+0	1.071077E+0	1.205031E+0	1.207358E+0	1.145832E+0	1.170477E+0	1.214036E+0	1.265007E+0	1.126858E+0	1.097583E+0	1.102453E+0	1.121576E+0	1.174095E+0	1.170777E+0	1.211471E+0	1.183866E+0	1.195909E+0	1.166709E+0	1.106147E+0	1.140219E+0	1.066724E+0	1.116612E+0	1.132563E+0	1.245811E+0	1.094756E+0	1.129206E+0	1.074517E+0	1.223281E+0	1.124352E+0	1.068353E+0	1.130737E+0	1.098082E+0	1.260670E+0	1.144935E+0	1.145525E+0	1.245463E+0	1.071287E+0	1.140918E+0	1.145811E+0	1.155100E+0	1.111021E+0	1.094346E+0	1.111682E+0	1.174793E+0	1.224205E+0	1.090252E+0	1.142846E+0	1.081668E+0	1.099094E+0	1.140351E+0	1.187852E+0	1.174716E+0	1.142599E+0	1.178073E+0	1.144802E+0	1.152642E+0	1.140028E+0	1.074719E+0	1.088896E+0	1.230229E+0	1.202829E+0	1.168628E+0	1.170750E+0	1.145734E+0	1.204705E+0	1.028044E+0
2.915070E+2	1.189766E+0	1.272108E+0	1.211429E+0	1.216885E+0	1.246064E+0	1.168770E+0	1.241226E+0	1.268302E+0	1.378033E+0	1.368744E+0	1.362942E+0	1.314857E+0	1.231705E+0	1.285980E+0	1.306457E+0	1.333031E+0	1.298002E+0	1.247265E+0	1.298039E+0	1.251487E+0	1.256378E+0	1.274526E+0	1.279482E+0	1.272292E+0	1.278430E+0	1.340868E+0	1.235956E+0	1.263647E+0	1.203469E+0	1.265877E+0	1.346846E+0	1.281495E+0	1.273265E+0	1.351104E+0	1.273957E+0	1.249705E+0	1.337523E+0	1.274731E+0	1.295409E+0	1.245473E+0	1.285704E+0	1.285173E+0	1.267009E+0	1.258984E+0	1.360358E+0	1.249495E+0	1.273208E+0	1.229639E+0	1.285802E+0	1.198503E+0	1.260263E+0	1.272094E+0	1.322568E+0	1.244263E+0	1.291037E+0	1.243359E+0	1.204188E+0	1.325662E+0	1.277937E+0	1.337404E+0	1.257320E+0	1.307706E+0	1.235561E+0	1.270428E+0	1.274989E+0	1.256845E+0	1.273735E+0	1.288352E+0	1.268551E+0	1.342303E+0	1.223225E+0	1.384338E+0	1.282637E+0	1.232587E+0	1.315679E+0	1.296436E+0	1.307517E+0	1.226696E+0	1.245348E+0	1.284417E+0	1.219579E+0	1.257266E+0	1.298859E+0	1.321944E+0	1.237658E+0	1.293850E+0	1.259416E+0	1.240965E+0	1.300420E+0	1.225869E+0	1.306222E+0	1.244110E+0	1.287654E+0	1.321559E+0	1.178500E+0	1.274026E+0	1.267385E+0	1.259459E+0	1.307228E+0	1.278629E+0	1.244589E+0	1.277601E+0	1.305635E+0	1.311756E+0	1.296812E+0	1.315932E+0	1.241983E+0	1.272400E+0	1.240024E+0	1.275828E+0	1.300420E+0	1.352160E+0	1.237911E+0	1.255860E+0	1.295440E+0	1.261222E+0	1.314501E+0	1.248243E+0	1.262193E+0	1.249272E+0	1.209042E+0	1.284095E+0	1.191388E+0	1.350251E+0	1.289646E+0	1.270168E+0	1.286891E+0	1.246667E+0	1.226985E+0	1.206022E+0	1.258459E+0	1.287078E+0	1.347403E+0	1.342271E+0	1.342038E+0	1.203964E+0	1.280905E+0	1.346752E+0	1.262949E+0	1.307163E+0	1.245415E+0	1.305185E+0	1.311395E+0	1.282460E+0	1.207564E+0	1.327765E+0	1.297788E+0	1.236453E+0	1.267353E+0	1.271252E+0	1.374446E+0	1.289030E+0	1.196584E+0	1.310622E+0	1.312077E+0	1.297149E+0	1.266436E+0	1.353231E+0	1.354864E+0	1.261336E+0	1.312759E+0	1.221837E+0	1.292926E+0	1.328551E+0	1.225290E+0	1.254764E+0	1.285051E+0	1.287291E+0	1.289763E+0	1.346758E+0
2.920030E+2	1.196391E+0	1.172095E+0	1.217260E+0	1.126414E+0	1.187387E+0	1.062276E+0	1.069048E+0	1.144679E+0	1.169776E+0	1.132048E+0	1.228801E+0	1.085145E+0	1.070818E+0	1.127736E+0	1.104878E+0	1.132381E+0	1.124407E+0	1.142527E+0	1.104711E+0	1.117062E+0	1.064018E+0	1.128886E+0	1.188611E+0	1.188495E+0	1.172161E+0	1.125068E+0	1.155113E+0	1.049460E+0	1.198349E+0	1.039098E+0	1.169705E+0	1.095524E+0	1.180345E+0	1.167752E+0	1.192711E+0	1.188276E+0	1.145620E+0	1.172115E+0	1.131252E+0	1.149199E+0	1.133498E+0	1.116703E+0	1.164386E+0	1.071467E+0	1.129394E+0	1.071261E+0	1.108319E+0	1.129225E+0	1.095574E+0	1.113123E+0	1.110803E+0	1.136520E+0	1.115385E+0	1.096799E+0	1.051802E+0	1.129813E+0	1.174530E+0	1.111313E+0	1.080250E+0	1.181029E+0	1.089596E+0	1.014520E+0	1.117699E+0	1.169238E+0	1.142906E+0	1.211133E+0	1.163500E+0	1.100537E+0	1.163002E+0	1.116624E+0	1.141331E+0	1.152827E+0	1.075447E+0	1.126646E+0	1.152622E+0	1.169609E+0	1.100052E+0	1.113709E+0	1.174164E+0	1.158122E+0	1.123964E+0	1.093769E+0	1.107144E+0	1.072116E+0	1.210583E+0	1.195665E+0	1.030472E+0	1.039227E+0	1.188419E+0	1.069962E+0	1.152505E+0	1.209234E+0	1.139837E+0	1.086130E+0	1.050886E+0	1.127012E+0	1.171735E+0	1.138998E+0	1.030870E+0	1.071557E+0	1.079802E+0	1.092026E+0	1.146409E+0	1.184950E+0	1.165547E+0	1.166102E+0	1.142091E+0	1.160824E+0	1.156590E+0	1.152997E+0	1.088615E+0	1.166459E+0	1.197053E+0	1.128569E+0	1.101842E+0	1.137383E+0	1.147193E+0	1.134899E+0	1.118039E+0	1.105659E+0	1.113058E+0	1.180474E+0	1.139311E+0	1.181799E+0	1.158669E+0	1.041260E+0	1.128448E+0	1.171794E+0	1.202697E+0	1.096664E+0	1.163937E+0	1.213073E+0	1.134016E+0	1.144620E+0	1.163812E+0	1.114893E+0	1.217221E+0	1.198424E+0	1.027236E+0	1.118257E+0	1.189628E+0	1.126649E+0	1.124249E+0	1.204054E+0	1.106810E+0	1.144705E+0	1.217734E+0	1.118557E+0	1.093812E+0	1.101209E+0	1.102086E+0	1.152318E+0	1.182092E+0	1.115085E+0	1.153249E+0	1.095728E+0	1.152528E+0	1.141089E+0	1.141807E+0	1.109147E+0	1.125325E+0	1.146147E+0	1.103461E+0	1.242543E+0	1.173312E+0	1.170730E+0	1.088147E+0	1.130170E+0	1.220634E+0	1.100753E+0
2.925160E+2	8.832399E-1	8.994444E-1	9.591775E-1	8.830259E-1	9.433113E-1	9.475855E-1	8.975917E-1	9.940303E-1	8.864325E-1	9.541219E-1	8.922178E-1	9.314668E-1	9.494852E-1	9.594703E-1	9.843674E-1	8.581568E-1	9.489257E-1	9.408625E-1	9.484011E-1	9.207489E-1	8.438988E-1	9.328159E-1	9.198380E-1	9.360140E-1	9.310892E-1	9.391271E-1	9.622996E-1	9.616350E-1	8.778998E-1	9.037629E-1	9.364880E-1	9.463182E-1	1.035046E+0	9.132214E-1	9.435526E-1	9.594319E-1	9.043001E-1	8.758139E-1	9.793125E-1	9.844571E-1	9.134108E-1	9.642614E-1	9.192241E-1	8.974777E-1	9.379056E-1	9.536160E-1	9.427802E-1	9.669856E-1	9.489629E-1	9.080717E-1	9.747936E-1	1.013325E+0	9.276146E-1	9.293747E-1	9.580241E-1	8.955341E-1	9.586232E-1	9.070710E-1	8.650099E-1	9.162520E-1	8.694279E-1	9.486597E-1	9.596295E-1	9.209334E-1	9.089353E-1	9.485246E-1	9.813522E-1	9.210850E-1	1.010024E+0	9.034452E-1	9.050270E-1	9.084585E-1	9.859671E-1	9.244510E-1	9.609264E-1	8.575020E-1	8.786998E-1	9.583611E-1	9.391126E-1	9.459425E-1	9.593212E-1	9.026400E-1	9.477207E-1	8.747925E-1	9.342400E-1	9.321777E-1	9.543137E-1	8.882987E-1	9.220197E-1	9.801686E-1	1.047419E+0	9.523928E-1	9.526585E-1	9.307060E-1	8.959377E-1	8.784345E-1	1.056859E+0	9.132155E-1	9.855264E-1	8.894685E-1	9.135231E-1	9.165601E-1	9.200119E-1	9.596098E-1	9.561127E-1	9.863415E-1	9.296270E-1	1.009636E+0	9.208830E-1	9.415224E-1	9.241963E-1	9.215383E-1	9.625904E-1	8.931242E-1	9.677075E-1	9.551178E-1	9.643363E-1	9.814218E-1	8.797669E-1	9.415158E-1	9.129586E-1	9.082927E-1	9.272989E-1	1.024737E+0	9.412999E-1	9.501417E-1	8.820910E-1	1.017091E+0	9.429491E-1	8.935962E-1	9.667979E-1	8.573282E-1	8.829502E-1	1.008947E+0	9.289742E-1	9.977262E-1	1.001505E+0	9.593693E-1	9.739005E-1	9.826454E-1	9.296532E-1	9.731995E-1	8.855905E-1	9.695188E-1	1.009250E+0	9.629003E-1	9.339912E-1	8.866573E-1	9.630437E-1	9.604939E-1	9.627808E-1	9.245408E-1	9.210934E-1	9.302881E-1	8.864906E-1	9.076446E-1	8.439168E-1	9.814862E-1	9.111682E-1	9.538549E-1	8.808099E-1	9.249790E-1	8.657640E-1	1.033365E+0	9.158632E-1	9.436922E-1	9.426123E-1	9.593891E-1	8.551571E-1	1.042570E+0
2.930070E+2	9.062289E-1	8.912062E-1	9.153805E-1	8.820420E-1	9.540583E-1	9.428535E-1	8.813499E-1	9.215677E-1	9.319527E-1	9.451082E-1	9.356862E-1	9.585751E-1	9.262602E-1	9.646084E-1	9.597419E-1	9.232044E-1	9.174735E-1	9.095349E-1	9.233497E-1	9.697980E-1	8.723039E-1	1.001352E+0	9.175829E-1	8.899577E-1	9.405014E-1	9.211266E-1	8.517603E-1	9.587351E-1	9.085761E-1	9.481725E-1	8.844381E-1	9.970423E-1	9.385552E-1	8.786622E-1	9.180269E-1	9.419717E-1	1.018453E+0	9.032973E-1	9.867511E-1	8.786109E-1	9.034336E-1	8.738456E-1	9.173787E-1	9.185090E-1	9.797176E-1	8.765583E-1	8.730019E-1	9.542163E-1	9.369592E-1	9.087920E-1	8.826173E-1	8.630296E-1	9.654463E-1	9.420664E-1	9.170536E-1	8.683000E-1	9.196034E-1	9.178331E-1	8.737690E-1	8.808642E-1	9.129937E-1	8.711425E-1	9.530564E-1	9.168943E-1	9.314753E-1	9.476494E-1	9.214283E-1	9.743990E-1	9.386237E-1	9.515016E-1	9.075296E-1	9.369258E-1	1.031009E+0	9.242157E-1	9.437196E-1	8.935947E-1	8.818025E-1	9.241296E-1	8.760943E-1	9.557175E-1	9.953594E-1	9.368895E-1	8.684852E-1	9.344156E-1	8.810676E-1	9.147095E-1	9.647468E-1	9.212381E-1	9.488907E-1	9.262866E-1	8.704074E-1	8.986546E-1	9.037302E-1	9.302837E-1	9.277621E-1	9.323280E-1	9.827359E-1	9.250306E-1	9.207462E-1	9.499459E-1	8.819754E-1	8.491799E-1	9.089578E-1	9.083317E-1	8.569506E-1	9.087713E-1	9.728315E-1	8.719946E-1	8.909650E-1	9.443491E-1	9.769241E-1	8.945019E-1	9.111260E-1	9.153434E-1	9.484185E-1	9.002473E-1	9.506877E-1	9.300564E-1	9.528167E-1	9.318983E-1	8.474218E-1	8.877338E-1	9.018654E-1	8.916195E-1	8.966332E-1	9.105694E-1	9.175768E-1	9.237955E-1	9.499671E-1	8.962076E-1	9.116152E-1	9.281142E-1	9.311787E-1	8.525853E-1	9.579573E-1	9.045025E-1	9.014144E-1	9.882818E-1	9.393179E-1	9.252986E-1	8.610370E-1	9.599528E-1	9.421420E-1	9.280974E-1	8.578682E-1	9.287218E-1	8.880008E-1	8.878038E-1	9.225641E-1	8.700944E-1	9.185376E-1	1.006149E+0	9.034645E-1	9.176565E-1	8.940816E-1	9.360831E-1	8.992810E-1	9.081819E-1	8.960326E-1	9.147253E-1	9.542542E-1	8.707696E-1	9.224587E-1	9.351955E-1	8.897589E-1	9.331158E-1	9.658883E-1	9.340042E-1	9.890046E-1	8.686127E-1
2.935040E+2	9.768558E-1	9.890324E-1	9.960838E-1	9.438348E-1	9.411681E-1	9.830946E-1	9.828193E-1	1.002289E+0	1.000352E+0	9.143183E-1	8.918040E-1	8.849714E-1	9.945351E-1	9.440792E-1	1.001456E+0	9.338920E-1	9.761421E-1	9.684236E-1	9.532731E-1	9.051270E-1	8.742257E-1	9.317376E-1	9.452084E-1	9.164120E-1	1.047915E+0	9.256771E-1	9.570910E-1	8.926553E-1	1.014346E+0	9.163312E-1	9.459721E-1	9.688768E-1	1.040519E+0	9.143643E-1	9.165906E-1	9.147814E-1	9.572851E-1	9.692083E-1	9.511796E-1	9.541947E-1	1.055353E+0	8.528487E-1	8.754872E-1	9.941403E-1	9.199700E-1	1.006863E+0	9.678020E-1	1.002182E+0	9.053715E-1	9.287307E-1	9.556679E-1	9.680423E-1	9.546706E-1	1.027791E+0	9.322014E-1	9.322917E-1	9.030170E-1	9.305498E-1	9.191029E-1	1.032385E+0	9.728269E-1	9.451531E-1	9.685424E-1	8.946588E-1	9.517710E-1	1.026947E+0	1.069373E+0	9.752965E-1	9.373006E-1	9.202357E-1	9.533824E-1	9.775176E-1	9.347426E-1	8.988299E-1	9.223327E-1	9.945194E-1	8.861087E-1	9.691403E-1	8.963810E-1	1.002736E+0	9.697611E-1	9.634352E-1	9.789804E-1	9.784436E-1	9.197888E-1	9.236832E-1	9.118782E-1	9.850383E-1	9.988233E-1	9.098147E-1	9.431846E-1	9.500017E-1	9.283048E-1	9.758647E-1	9.201121E-1	9.709757E-1	1.000084E+0	9.203894E-1	9.093096E-1	9.921645E-1	9.541110E-1	8.993428E-1	9.519780E-1	9.556105E-1	8.891237E-1	9.290511E-1	9.582155E-1	1.018864E+0	9.642052E-1	9.550453E-1	9.556410E-1	9.062709E-1	9.475002E-1	9.004572E-1	9.465328E-1	9.633325E-1	9.831007E-1	9.711402E-1	9.106383E-1	9.632966E-1	8.986371E-1	9.644725E-1	9.324529E-1	9.385415E-1	9.580832E-1	9.723448E-1	9.481833E-1	9.505310E-1	9.775179E-1	9.837520E-1	9.560526E-1	9.489479E-1	9.127506E-1	9.861918E-1	9.875029E-1	9.774392E-1	9.970615E-1	9.269137E-1	9.970443E-1	1.028382E+0	9.230458E-1	9.740664E-1	9.184982E-1	9.658917E-1	9.381038E-1	9.666624E-1	9.595065E-1	1.009402E+0	9.250898E-1	8.778172E-1	9.364655E-1	9.374987E-1	1.025849E+0	9.296781E-1	9.492139E-1	9.966449E-1	9.811766E-1	9.726247E-1	1.003295E+0	9.739782E-1	9.375299E-1	8.954268E-1	9.542738E-1	9.750480E-1	9.836963E-1	9.318480E-1	9.349375E-1	8.938992E-1	9.320865E-1	8.031021E-1
2.940070E+2	9.506279E-1	9.553920E-1	8.511824E-1	9.021424E-1	9.079621E-1	9.245318E-1	8.725321E-1	8.817064E-1	8.862971E-1	9.083361E-1	8.859378E-1	8.755476E-1	9.395884E-1	8.857870E-1	9.088333E-1	8.750825E-1	9.678168E-1	8.812030E-1	8.657977E-1	8.341568E-1	8.433780E-1	9.018485E-1	9.464686E-1	9.034303E-1	9.020320E-1	8.819491E-1	9.110756E-1	8.914379E-1	9.522101E-1	8.992864E-1	8.326489E-1	8.203679E-1	8.813334E-1	9.016288E-1	9.231609E-1	8.129774E-1	9.125674E-1	9.171688E-1	8.772655E-1	9.493182E-1	9.187358E-1	8.666590E-1	8.729401E-1	9.344251E-1	9.621577E-1	9.088850E-1	9.275617E-1	9.073279E-1	8.961592E-1	8.888443E-1	8.686691E-1	8.970679E-1	9.400892E-1	9.786790E-1	9.158069E-1	8.733221E-1	8.642902E-1	9.298792E-1	8.325144E-1	9.538325E-1	8.293574E-1	9.144488E-1	8.896769E-1	8.603036E-1	8.978884E-1	9.021708E-1	8.786587E-1	9.426813E-1	9.057592E-1	9.423141E-1	8.668410E-1	9.231659E-1	9.312809E-1	8.414284E-1	8.925064E-1	8.457331E-1	9.013816E-1	8.400097E-1	8.671856E-1	8.898184E-1	9.133543E-1	8.381226E-1	8.205240E-1	9.403112E-1	9.121482E-1	8.787091E-1	9.078279E-1	8.771998E-1	9.403741E-1	8.391467E-1	9.029246E-1	9.642279E-1	9.082797E-1	9.000412E-1	8.711480E-1	8.986006E-1	9.309375E-1	8.587259E-1	9.682217E-1	9.076604E-1	8.386213E-1	8.635918E-1	9.265066E-1	9.131163E-1	8.957552E-1	8.892162E-1	8.656941E-1	8.845809E-1	9.023639E-1	9.211978E-1	9.368644E-1	8.979872E-1	8.933705E-1	9.064283E-1	9.104748E-1	9.292705E-1	9.085740E-1	8.524935E-1	8.389573E-1	9.712052E-1	8.298469E-1	8.620618E-1	8.564994E-1	9.183398E-1	9.554197E-1	8.910190E-1	9.282596E-1	8.685042E-1	9.337215E-1	8.932106E-1	8.019670E-1	8.873154E-1	9.259205E-1	8.926854E-1	9.088824E-1	8.914975E-1	9.468074E-1	8.899804E-1	9.389971E-1	8.892361E-1	8.783819E-1	9.266449E-1	8.704577E-1	9.060222E-1	8.927721E-1	9.123023E-1	9.462169E-1	8.120846E-1	8.868470E-1	8.742277E-1	8.837434E-1	9.059286E-1	9.598905E-1	8.922673E-1	8.542466E-1	9.182851E-1	8.719512E-1	9.273740E-1	9.011755E-1	9.004771E-1	9.333382E-1	9.521110E-1	8.858843E-1	9.232902E-1	9.215685E-1	9.282473E-1	9.003054E-1	9.189143E-1	9.351664E-1	1.093731E+0
2.945040E+2	9.295856E-1	8.843367E-1	8.977666E-1	8.291885E-1	9.263550E-1	9.078969E-1	9.326160E-1	9.156381E-1	9.083238E-1	9.793230E-1	9.412087E-1	9.256300E-1	8.698785E-1	9.120986E-1	8.784994E-1	9.253347E-1	8.860079E-1	9.538344E-1	8.443835E-1	8.732765E-1	9.115256E-1	9.340037E-1	9.434472E-1	9.229567E-1	9.783348E-1	8.871866E-1	8.988594E-1	8.809996E-1	8.947708E-1	8.782303E-1	8.637280E-1	8.994279E-1	9.494321E-1	8.763501E-1	9.156823E-1	8.820796E-1	8.513950E-1	8.666479E-1	9.100860E-1	8.750567E-1	9.284413E-1	8.353387E-1	8.742306E-1	8.813110E-1	9.225478E-1	9.411502E-1	8.943479E-1	8.876091E-1	9.528060E-1	8.761115E-1	9.102323E-1	8.649041E-1	9.194107E-1	9.056382E-1	9.412776E-1	9.171807E-1	9.213301E-1	8.829459E-1	9.183607E-1	9.444009E-1	8.687918E-1	8.802877E-1	8.508750E-1	8.993962E-1	9.386550E-1	9.229812E-1	9.239785E-1	9.110587E-1	9.127932E-1	9.240290E-1	8.551127E-1	9.559809E-1	9.342749E-1	9.043349E-1	9.272881E-1	8.834500E-1	9.425890E-1	9.114290E-1	8.825140E-1	9.003533E-1	8.796972E-1	8.817181E-1	8.463712E-1	8.883910E-1	9.059859E-1	8.673665E-1	9.569945E-1	9.063157E-1	9.240665E-1	9.328734E-1	9.030814E-1	9.502176E-1	9.140359E-1	9.475579E-1	8.406754E-1	8.896922E-1	8.635770E-1	8.802222E-1	8.976776E-1	9.868934E-1	9.029641E-1	9.166622E-1	9.009920E-1	9.686290E-1	9.384271E-1	9.317331E-1	9.420674E-1	9.218838E-1	8.841278E-1	9.314104E-1	9.338566E-1	9.459778E-1	8.883265E-1	8.711644E-1	8.807006E-1	8.601118E-1	9.180468E-1	9.205446E-1	9.060948E-1	9.200844E-1	8.302276E-1	8.813678E-1	9.175575E-1	9.536789E-1	9.352664E-1	8.829245E-1	8.714943E-1	8.725711E-1	8.991693E-1	8.966848E-1	8.869212E-1	9.094164E-1	9.505862E-1	8.822573E-1	9.109829E-1	8.797949E-1	9.626994E-1	8.905077E-1	9.401937E-1	9.267016E-1	8.948979E-1	9.606448E-1	8.820960E-1	8.717802E-1	9.422687E-1	9.054452E-1	9.040953E-1	8.842398E-1	8.640184E-1	8.882457E-1	9.729428E-1	8.930570E-1	9.107786E-1	9.265803E-1	8.882216E-1	8.780719E-1	9.196212E-1	9.142706E-1	8.707271E-1	8.627630E-1	8.644361E-1	9.147594E-1	8.549837E-1	9.866684E-1	8.529273E-1	9.324891E-1	8.578066E-1	8.463746E-1	8.940039E-1	1.080366E+0
2.950120E+2	1.077177E+0	1.135695E+0	1.191705E+0	1.115761E+0	1.173779E+0	1.104448E+0	1.177742E+0	1.152997E+0	1.115766E+0	1.210445E+0	1.182842E+0	1.173632E+0	1.216117E+0	1.219062E+0	1.129378E+0	1.163718E+0	1.129735E+0	1.054739E+0	1.077283E+0	1.161967E+0	1.173761E+0	1.135740E+0	1.173822E+0	1.103237E+0	1.265876E+0	1.187542E+0	1.188600E+0	1.195274E+0	1.169161E+0	1.196831E+0	1.135597E+0	1.179653E+0	1.202224E+0	1.145618E+0	1.161332E+0	1.205766E+0	1.176422E+0	1.103604E+0	1.159811E+0	1.181163E+0	1.178865E+0	1.151967E+0	1.101247E+0	1.113861E+0	1.269866E+0	1.180161E+0	1.155309E+0	1.172557E+0	1.124908E+0	1.129193E+0	1.215651E+0	1.190499E+0	1.141515E+0	1.213222E+0	1.200454E+0	1.095994E+0	1.137173E+0	1.129268E+0	1.144768E+0	1.158793E+0	1.132008E+0	1.128823E+0	1.148954E+0	1.180256E+0	1.183635E+0	1.198998E+0	1.213423E+0	1.202776E+0	1.213517E+0	1.142402E+0	1.125994E+0	1.203715E+0	1.209226E+0	1.139675E+0	1.089937E+0	1.177244E+0	1.221114E+0	1.109510E+0	1.255490E+0	1.152434E+0	1.175301E+0	1.067143E+0	1.170871E+0	1.149779E+0	1.201079E+0	1.157742E+0	1.285124E+0	1.128407E+0	1.165698E+0	1.190152E+0	1.199066E+0	1.206104E+0	1.192479E+0	1.170549E+0	1.090930E+0	1.200633E+0	1.191056E+0	1.095617E+0	1.134693E+0	1.169498E+0	1.159946E+0	1.138293E+0	1.134198E+0	1.166450E+0	1.136167E+0	1.106649E+0	1.174010E+0	1.133617E+0	1.167940E+0	1.148516E+0	1.197685E+0	1.183739E+0	1.225567E+0	1.140179E+0	1.120245E+0	1.122584E+0	1.123124E+0	1.159016E+0	1.149178E+0	1.190557E+0	1.106842E+0	1.092457E+0	1.182964E+0	1.141414E+0	1.148606E+0	1.116309E+0	1.131172E+0	1.157423E+0	1.149141E+0	1.124414E+0	1.181833E+0	1.177566E+0	1.131197E+0	1.186049E+0	1.104128E+0	1.185225E+0	1.208013E+0	1.154583E+0	1.108319E+0	1.204943E+0	1.155712E+0	1.090480E+0	1.162434E+0	1.162789E+0	1.182128E+0	1.217974E+0	1.180006E+0	1.091673E+0	1.209859E+0	1.177769E+0	1.137601E+0	1.155027E+0	1.220239E+0	1.166488E+0	1.204873E+0	1.170881E+0	1.110900E+0	1.116973E+0	1.231384E+0	1.115348E+0	1.197181E+0	1.119685E+0	1.173110E+0	1.151419E+0	1.145950E+0	1.216708E+0	1.139357E+0	1.109960E+0	1.197752E+0	1.139071E+0
2.955070E+2	1.382565E+0	1.315369E+0	1.351186E+0	1.344711E+0	1.369239E+0	1.335437E+0	1.225622E+0	1.342457E+0	1.387418E+0	1.311904E+0	1.350139E+0	1.312785E+0	1.283210E+0	1.296245E+0	1.306395E+0	1.324558E+0	1.277077E+0	1.252511E+0	1.322320E+0	1.272288E+0	1.319567E+0	1.311930E+0	1.314981E+0	1.294328E+0	1.340810E+0	1.324702E+0	1.366382E+0	1.367900E+0	1.293598E+0	1.307030E+0	1.315032E+0	1.304980E+0	1.391059E+0	1.296477E+0	1.301785E+0	1.315610E+0	1.346239E+0	1.333203E+0	1.306110E+0	1.348216E+0	1.298429E+0	1.329977E+0	1.229448E+0	1.336395E+0	1.379896E+0	1.344595E+0	1.364559E+0	1.409726E+0	1.245981E+0	1.222859E+0	1.310770E+0	1.340092E+0	1.440383E+0	1.397640E+0	1.369508E+0	1.213913E+0	1.349373E+0	1.357610E+0	1.381050E+0	1.373462E+0	1.244032E+0	1.354328E+0	1.300753E+0	1.348063E+0	1.353505E+0	1.267945E+0	1.357577E+0	1.428768E+0	1.315740E+0	1.301192E+0	1.339061E+0	1.302331E+0	1.389608E+0	1.305737E+0	1.333559E+0	1.365369E+0	1.339946E+0	1.227339E+0	1.346436E+0	1.312751E+0	1.359259E+0	1.231300E+0	1.355917E+0	1.298827E+0	1.326411E+0	1.239953E+0	1.286719E+0	1.285404E+0	1.328934E+0	1.274863E+0	1.269163E+0	1.269335E+0	1.287640E+0	1.308982E+0	1.344862E+0	1.332090E+0	1.373785E+0	1.255674E+0	1.245584E+0	1.244573E+0	1.296822E+0	1.250146E+0	1.325434E+0	1.393394E+0	1.365127E+0	1.313139E+0	1.333900E+0	1.289841E+0	1.259672E+0	1.323893E+0	1.327949E+0	1.317049E+0	1.271093E+0	1.262564E+0	1.321816E+0	1.321571E+0	1.276454E+0	1.317912E+0	1.356188E+0	1.335106E+0	1.316068E+0	1.374144E+0	1.365739E+0	1.280239E+0	1.340015E+0	1.278893E+0	1.316175E+0	1.259756E+0	1.287213E+0	1.280179E+0	1.250396E+0	1.333618E+0	1.392795E+0	1.323819E+0	1.398705E+0	1.345418E+0	1.360581E+0	1.335777E+0	1.275481E+0	1.345913E+0	1.299098E+0	1.312472E+0	1.324387E+0	1.340318E+0	1.287889E+0	1.234305E+0	1.362841E+0	1.252436E+0	1.254638E+0	1.302310E+0	1.262258E+0	1.227184E+0	1.240718E+0	1.297627E+0	1.337440E+0	1.321797E+0	1.332778E+0	1.352725E+0	1.346131E+0	1.288885E+0	1.278881E+0	1.271941E+0	1.301515E+0	1.341687E+0	1.305845E+0	1.254835E+0	1.279050E+0	1.308140E+0	1.265303E+0	1.270304E+0
2.960060E+2	1.331096E+0	1.414892E+0	1.411947E+0	1.255069E+0	1.370113E+0	1.287684E+0	1.342549E+0	1.346744E+0	1.398511E+0	1.326763E+0	1.319105E+0	1.388486E+0	1.440302E+0	1.284518E+0	1.345872E+0	1.342373E+0	1.379721E+0	1.341287E+0	1.306463E+0	1.304369E+0	1.460414E+0	1.300259E+0	1.367852E+0	1.242972E+0	1.360010E+0	1.311647E+0	1.293473E+0	1.379641E+0	1.332017E+0	1.327173E+0	1.299966E+0	1.325956E+0	1.390900E+0	1.310814E+0	1.305248E+0	1.338086E+0	1.361351E+0	1.298771E+0	1.409528E+0	1.333372E+0	1.371514E+0	1.305008E+0	1.340326E+0	1.385828E+0	1.343196E+0	1.351294E+0	1.320368E+0	1.379350E+0	1.283048E+0	1.252413E+0	1.374446E+0	1.389446E+0	1.427350E+0	1.334118E+0	1.328205E+0	1.275210E+0	1.359747E+0	1.339655E+0	1.319405E+0	1.362868E+0	1.289319E+0	1.378526E+0	1.359866E+0	1.270928E+0	1.446066E+0	1.288583E+0	1.381019E+0	1.375177E+0	1.354331E+0	1.324242E+0	1.441090E+0	1.383472E+0	1.403717E+0	1.350870E+0	1.289502E+0	1.354654E+0	1.377170E+0	1.344209E+0	1.275899E+0	1.296909E+0	1.347329E+0	1.324702E+0	1.307181E+0	1.354891E+0	1.307737E+0	1.308389E+0	1.324961E+0	1.405079E+0	1.306985E+0	1.340867E+0	1.316545E+0	1.363372E+0	1.330334E+0	1.345659E+0	1.276421E+0	1.317490E+0	1.349241E+0	1.283305E+0	1.297969E+0	1.399614E+0	1.296249E+0	1.309656E+0	1.374077E+0	1.367674E+0	1.413170E+0	1.287368E+0	1.287270E+0	1.263774E+0	1.301882E+0	1.418561E+0	1.397049E+0	1.358586E+0	1.260745E+0	1.321377E+0	1.377032E+0	1.355816E+0	1.337442E+0	1.402597E+0	1.261228E+0	1.336407E+0	1.337978E+0	1.358141E+0	1.361831E+0	1.290066E+0	1.329074E+0	1.245474E+0	1.328656E+0	1.300454E+0	1.327118E+0	1.350332E+0	1.301688E+0	1.263153E+0	1.356163E+0	1.404207E+0	1.274253E+0	1.337862E+0	1.334547E+0	1.349263E+0	1.364163E+0	1.372228E+0	1.320897E+0	1.324273E+0	1.371017E+0	1.406428E+0	1.301936E+0	1.373045E+0	1.322051E+0	1.327312E+0	1.374164E+0	1.343972E+0	1.351216E+0	1.369458E+0	1.338745E+0	1.364317E+0	1.414950E+0	1.364932E+0	1.338248E+0	1.391900E+0	1.397962E+0	1.366376E+0	1.359629E+0	1.285714E+0	1.378484E+0	1.330237E+0	1.287637E+0	1.280756E+0	1.382310E+0	1.282762E+0	1.403011E+0	1.440952E+0
2.965040E+2	1.173092E+0	1.127672E+0	1.226849E+0	1.158635E+0	1.262902E+0	1.181888E+0	1.223243E+0	1.248352E+0	1.202408E+0	1.303274E+0	1.232973E+0	1.280989E+0	1.207471E+0	1.214021E+0	1.211226E+0	1.155937E+0	1.261787E+0	1.191122E+0	1.197024E+0	1.196025E+0	1.165973E+0	1.217938E+0	1.232004E+0	1.274217E+0	1.187532E+0	1.173125E+0	1.291914E+0	1.138513E+0	1.197090E+0	1.166082E+0	1.189405E+0	1.164937E+0	1.274039E+0	1.229320E+0	1.195903E+0	1.216165E+0	1.243802E+0	1.248437E+0	1.261330E+0	1.229649E+0	1.311630E+0	1.162190E+0	1.235588E+0	1.186729E+0	1.203973E+0	1.211887E+0	1.251732E+0	1.211901E+0	1.198178E+0	1.239690E+0	1.290464E+0	1.226065E+0	1.245515E+0	1.292532E+0	1.127069E+0	1.232403E+0	1.184036E+0	1.231825E+0	1.184970E+0	1.266336E+0	1.128537E+0	1.183988E+0	1.219451E+0	1.237800E+0	1.200289E+0	1.277609E+0	1.233489E+0	1.259490E+0	1.212372E+0	1.195271E+0	1.133454E+0	1.183142E+0	1.322184E+0	1.270239E+0	1.265694E+0	1.234896E+0	1.202708E+0	1.201543E+0	1.207323E+0	1.255295E+0	1.279345E+0	1.191110E+0	1.245901E+0	1.201860E+0	1.223783E+0	1.196312E+0	1.233757E+0	1.235463E+0	1.266655E+0	1.181581E+0	1.204036E+0	1.174055E+0	1.197104E+0	1.258523E+0	1.207804E+0	1.214266E+0	1.273969E+0	1.202720E+0	1.259961E+0	1.231800E+0	1.140700E+0	1.257617E+0	1.194215E+0	1.232088E+0	1.221202E+0	1.178331E+0	1.212524E+0	1.132246E+0	1.198653E+0	1.253297E+0	1.165680E+0	1.228413E+0	1.196129E+0	1.167942E+0	1.272913E+0	1.188953E+0	1.218293E+0	1.261010E+0	1.204619E+0	1.226898E+0	1.226947E+0	1.263203E+0	1.267627E+0	1.081765E+0	1.287960E+0	1.183724E+0	1.270082E+0	1.185496E+0	1.210169E+0	1.215399E+0	1.183521E+0	1.180614E+0	1.245657E+0	1.214912E+0	1.232431E+0	1.272459E+0	1.197327E+0	1.284010E+0	1.221982E+0	1.243776E+0	1.230586E+0	1.223137E+0	1.205974E+0	1.259109E+0	1.276583E+0	1.298999E+0	1.283439E+0	1.169471E+0	1.229038E+0	1.223052E+0	1.242862E+0	1.253277E+0	1.127269E+0	1.240726E+0	1.199466E+0	1.215901E+0	1.248840E+0	1.231244E+0	1.240803E+0	1.199716E+0	1.213930E+0	1.197465E+0	1.124237E+0	1.226849E+0	1.203496E+0	1.223501E+0	1.215749E+0	1.132147E+0	1.130574E+0	1.347435E+0
2.970040E+2	9.499285E-1	9.947392E-1	1.013413E+0	9.260681E-1	8.966890E-1	9.786930E-1	1.023338E+0	9.327113E-1	9.602953E-1	1.011190E+0	9.970689E-1	9.872300E-1	9.554265E-1	9.743074E-1	9.789590E-1	9.184248E-1	9.713068E-1	9.099519E-1	9.358011E-1	9.425789E-1	9.195211E-1	9.532915E-1	1.005962E+0	9.545371E-1	1.029175E+0	1.013216E+0	9.699751E-1	9.393480E-1	9.650638E-1	9.662987E-1	9.974612E-1	9.281232E-1	9.735458E-1	1.043098E+0	9.588469E-1	9.691274E-1	9.988849E-1	9.128993E-1	9.810939E-1	9.566660E-1	9.875008E-1	9.368464E-1	9.588089E-1	9.342145E-1	9.551569E-1	9.916775E-1	9.625061E-1	9.735845E-1	9.760581E-1	9.290614E-1	9.552351E-1	9.754272E-1	9.456812E-1	9.386679E-1	9.767473E-1	9.736351E-1	9.656138E-1	9.747930E-1	9.448188E-1	9.498610E-1	9.930236E-1	9.838421E-1	9.582223E-1	9.513412E-1	1.025048E+0	9.671816E-1	9.906466E-1	9.280543E-1	9.563381E-1	9.285708E-1	9.769396E-1	9.554168E-1	1.032916E+0	9.909371E-1	9.653167E-1	9.980697E-1	9.619586E-1	9.278285E-1	9.844409E-1	1.016253E+0	9.425775E-1	9.443045E-1	9.360556E-1	9.637729E-1	9.873448E-1	9.674770E-1	1.017382E+0	9.552669E-1	1.009469E+0	9.438658E-1	9.559811E-1	9.812165E-1	9.388578E-1	9.702664E-1	9.238240E-1	9.470430E-1	9.974219E-1	9.483039E-1	9.581356E-1	9.601927E-1	9.210454E-1	9.743311E-1	9.116979E-1	9.787597E-1	9.978766E-1	9.801055E-1	9.827627E-1	9.131095E-1	9.944226E-1	1.077161E+0	9.666394E-1	9.769345E-1	9.117253E-1	9.265407E-1	1.005455E+0	9.419557E-1	9.986121E-1	9.713869E-1	9.167933E-1	9.455671E-1	9.907171E-1	9.856195E-1	1.046632E+0	9.707487E-1	9.644517E-1	9.324272E-1	9.866496E-1	9.088089E-1	9.270722E-1	9.282079E-1	9.017834E-1	9.019988E-1	9.976537E-1	9.928075E-1	9.367861E-1	9.490236E-1	9.930969E-1	1.006958E+0	9.945251E-1	9.365069E-1	9.512158E-1	9.145398E-1	9.569399E-1	9.714283E-1	9.628017E-1	1.014191E+0	9.830937E-1	9.552942E-1	8.911832E-1	9.865704E-1	9.818350E-1	9.404854E-1	9.942470E-1	9.622609E-1	9.650972E-1	1.028296E+0	8.757883E-1	9.186117E-1	1.023176E+0	9.830027E-1	9.261724E-1	9.791737E-1	9.492435E-1	9.709337E-1	9.611605E-1	1.000947E+0	1.076700E+0	9.786408E-1	9.374090E-1	8.620054E-1
2.975040E+2	9.015291E-1	9.027828E-1	8.426371E-1	8.464287E-1	8.824821E-1	8.084500E-1	8.553181E-1	8.414240E-1	8.980432E-1	7.934338E-1	8.798552E-1	8.970415E-1	8.379176E-1	8.340960E-1	8.801891E-1	8.914147E-1	8.187776E-1	8.457479E-1	8.716719E-1	8.478838E-1	8.299873E-1	8.892868E-1	8.831147E-1	8.446248E-1	8.327762E-1	8.801777E-1	8.523091E-1	9.003528E-1	8.663085E-1	8.804103E-1	8.599263E-1	8.631630E-1	8.791866E-1	8.626125E-1	8.803421E-1	8.508730E-1	8.521756E-1	8.354272E-1	9.009564E-1	8.360859E-1	8.268006E-1	8.726246E-1	8.624541E-1	8.580303E-1	8.643830E-1	8.707733E-1	8.873367E-1	9.092988E-1	9.139690E-1	8.527663E-1	8.537379E-1	8.596543E-1	8.848561E-1	8.612341E-1	8.405323E-1	8.774207E-1	9.034911E-1	8.768771E-1	8.441452E-1	8.973466E-1	8.754149E-1	8.316383E-1	8.018782E-1	9.105214E-1	8.519512E-1	8.240543E-1	8.699465E-1	8.600757E-1	8.920141E-1	8.451862E-1	8.511399E-1	8.774021E-1	8.728989E-1	8.542797E-1	8.899561E-1	9.146247E-1	8.306927E-1	8.592718E-1	8.637666E-1	8.736130E-1	8.682903E-1	8.763899E-1	8.342006E-1	8.363207E-1	9.105984E-1	8.453807E-1	8.894922E-1	8.506821E-1	9.213697E-1	8.613207E-1	8.599755E-1	8.758736E-1	8.416481E-1	8.704035E-1	8.797485E-1	8.319931E-1	8.668085E-1	9.272840E-1	8.419404E-1	8.661896E-1	8.947398E-1	8.637920E-1	8.686785E-1	8.496927E-1	8.679883E-1	8.759716E-1	8.966711E-1	8.117163E-1	9.177716E-1	9.136299E-1	8.667831E-1	8.786811E-1	8.394129E-1	8.908905E-1	8.830795E-1	9.141347E-1	8.777772E-1	8.552309E-1	8.612046E-1	8.397409E-1	8.287936E-1	9.338959E-1	8.888045E-1	8.861594E-1	9.189150E-1	9.079036E-1	9.220015E-1	8.701539E-1	9.251381E-1	8.527048E-1	8.237738E-1	8.250740E-1	8.286016E-1	8.853877E-1	7.726332E-1	9.017448E-1	8.557269E-1	8.642885E-1	8.795631E-1	8.516531E-1	8.657762E-1	9.000208E-1	8.930148E-1	8.880053E-1	8.653002E-1	8.848979E-1	7.961074E-1	8.575561E-1	8.438867E-1	8.778908E-1	8.419816E-1	8.545253E-1	7.806197E-1	9.526032E-1	8.147925E-1	8.564587E-1	8.727744E-1	7.946102E-1	8.941991E-1	9.058836E-1	8.738940E-1	8.563829E-1	8.500628E-1	8.507959E-1	8.478032E-1	8.778828E-1	8.517164E-1	9.258207E-1	8.111535E-1	7.827845E-1
2.980040E+2	9.150446E-1	8.814726E-1	9.286663E-1	9.189141E-1	9.459736E-1	9.315357E-1	8.918994E-1	9.215438E-1	8.772788E-1	8.662794E-1	9.272917E-1	8.825624E-1	9.363363E-1	9.166275E-1	8.835582E-1	9.108466E-1	8.597586E-1	8.817316E-1	8.871746E-1	9.294658E-1	9.493830E-1	8.948292E-1	9.015088E-1	9.337854E-1	9.704032E-1	8.631210E-1	8.539329E-1	9.200097E-1	8.942339E-1	9.308472E-1	9.305432E-1	9.699579E-1	8.827345E-1	8.294859E-1	8.885266E-1	9.473831E-1	9.039223E-1	8.714058E-1	8.890668E-1	9.639366E-1	8.923223E-1	8.763986E-1	9.041018E-1	8.787701E-1	8.797159E-1	8.765687E-1	8.869627E-1	8.790307E-1	9.302872E-1	9.633276E-1	8.863474E-1	8.866775E-1	9.438816E-1	9.366221E-1	8.755413E-1	9.254532E-1	8.548473E-1	8.592477E-1	8.944024E-1	8.452491E-1	9.487145E-1	9.425840E-1	9.017463E-1	8.798661E-1	9.401262E-1	8.943934E-1	9.389471E-1	9.080235E-1	8.517731E-1	9.004652E-1	9.071049E-1	9.686411E-1	9.420185E-1	9.114512E-1	8.858449E-1	9.017316E-1	9.288724E-1	8.899268E-1	8.463541E-1	8.800600E-1	9.107977E-1	8.823661E-1	8.536506E-1	9.202901E-1	9.215214E-1	8.467761E-1	9.494983E-1	9.347477E-1	8.229410E-1	9.373544E-1	9.150089E-1	8.487609E-1	9.042520E-1	9.025779E-1	9.258704E-1	9.029052E-1	8.701765E-1	8.731803E-1	9.603868E-1	9.042466E-1	9.571446E-1	9.021196E-1	9.192865E-1	8.818219E-1	9.735984E-1	8.817273E-1	8.906319E-1	9.320054E-1	9.214728E-1	9.080866E-1	8.707810E-1	9.206463E-1	9.184927E-1	9.164604E-1	8.854161E-1	8.814513E-1	9.163519E-1	9.507800E-1	8.935286E-1	8.921441E-1	9.323797E-1	8.967700E-1	8.846912E-1	9.282388E-1	8.546232E-1	9.030866E-1	8.938914E-1	8.994283E-1	9.157327E-1	8.869804E-1	9.150287E-1	9.117472E-1	8.673796E-1	9.080637E-1	8.987018E-1	8.730718E-1	8.853381E-1	9.189310E-1	8.583753E-1	9.329964E-1	8.734113E-1	9.493493E-1	9.297216E-1	8.997522E-1	9.061018E-1	8.822809E-1	9.770855E-1	9.121888E-1	9.100349E-1	8.948777E-1	8.764417E-1	9.002502E-1	9.229467E-1	9.535333E-1	9.414371E-1	8.767306E-1	8.941120E-1	9.509926E-1	8.737723E-1	9.124326E-1	9.040535E-1	9.113749E-1	9.081068E-1	8.849781E-1	9.470332E-1	8.610814E-1	8.580946E-1	8.740215E-1	8.573070E-1	9.509441E-1
2.985020E+2	8.730112E-1	9.088999E-1	9.165073E-1	9.116627E-1	9.307823E-1	9.555892E-1	9.117418E-1	8.934425E-1	9.168886E-1	9.289970E-1	8.963032E-1	9.093690E-1	9.435826E-1	8.941152E-1	8.843534E-1	9.209925E-1	9.472074E-1	9.204373E-1	9.473715E-1	9.134032E-1	8.773575E-1	9.194215E-1	9.143915E-1	9.001536E-1	8.825725E-1	9.426983E-1	9.488445E-1	9.237736E-1	9.526341E-1	9.089377E-1	8.906629E-1	8.953804E-1	9.336010E-1	9.606643E-1	9.217000E-1	8.955804E-1	8.952883E-1	9.173979E-1	9.215815E-1	8.963672E-1	9.503197E-1	9.280867E-1	9.019125E-1	9.361545E-1	9.028338E-1	9.299518E-1	9.779849E-1	8.898433E-1	8.743441E-1	9.248984E-1	9.378627E-1	9.061300E-1	9.020805E-1	8.893951E-1	9.430866E-1	8.811594E-1	9.474918E-1	8.795762E-1	9.367426E-1	9.319958E-1	9.023771E-1	9.238857E-1	9.631931E-1	8.746008E-1	9.419876E-1	9.103974E-1	9.127503E-1	8.563402E-1	9.860594E-1	9.193147E-1	9.344988E-1	8.904343E-1	9.237514E-1	9.084436E-1	9.365440E-1	9.001419E-1	8.844413E-1	9.286217E-1	9.326397E-1	9.222987E-1	9.202877E-1	8.940328E-1	9.481006E-1	9.014803E-1	9.031990E-1	9.405026E-1	9.814863E-1	9.263161E-1	8.783176E-1	9.639892E-1	9.367387E-1	9.406716E-1	9.423677E-1	9.168767E-1	9.634919E-1	9.350169E-1	9.241823E-1	9.410494E-1	9.150922E-1	9.051999E-1	9.048417E-1	9.712083E-1	8.913285E-1	9.822727E-1	8.570366E-1	9.019560E-1	9.428171E-1	9.676742E-1	9.061281E-1	8.942777E-1	9.803471E-1	8.718043E-1	8.845006E-1	9.215253E-1	9.552952E-1	8.841093E-1	9.367738E-1	9.183847E-1	9.789329E-1	9.338212E-1	8.959289E-1	9.146350E-1	8.706374E-1	9.391231E-1	8.666682E-1	8.921647E-1	9.102700E-1	9.251854E-1	9.570415E-1	8.763823E-1	9.460216E-1	9.150050E-1	9.065615E-1	9.187651E-1	9.443614E-1	8.872102E-1	9.122732E-1	9.141798E-1	8.956401E-1	9.260315E-1	9.670402E-1	9.038324E-1	8.990085E-1	9.321131E-1	9.264270E-1	9.250633E-1	8.862483E-1	9.633511E-1	9.354905E-1	9.669815E-1	9.790908E-1	9.277571E-1	9.411550E-1	8.659908E-1	8.612492E-1	9.612040E-1	9.211549E-1	9.610466E-1	9.507998E-1	9.192624E-1	8.882157E-1	8.791188E-1	9.545078E-1	9.452459E-1	9.197546E-1	9.180818E-1	9.088513E-1	9.379312E-1	9.473810E-1	9.458072E-1
2.990020E+2	8.951695E-1	8.527878E-1	7.893566E-1	8.919033E-1	8.607292E-1	8.651428E-1	8.509940E-1	8.423278E-1	9.138173E-1	8.786095E-1	8.693709E-1	8.292431E-1	7.933856E-1	8.939704E-1	8.566018E-1	8.592957E-1	8.905070E-1	8.565714E-1	8.409098E-1	8.858157E-1	8.989760E-1	8.389984E-1	8.575399E-1	8.656038E-1	8.897205E-1	8.714091E-1	8.688518E-1	8.488102E-1	8.669859E-1	8.757469E-1	9.126180E-1	8.638974E-1	9.024406E-1	9.905547E-1	8.318701E-1	8.618921E-1	8.391827E-1	8.886350E-1	8.704999E-1	8.351836E-1	9.256000E-1	8.730161E-1	8.929609E-1	8.499611E-1	9.268687E-1	9.070753E-1	8.916834E-1	8.567883E-1	8.589299E-1	8.119461E-1	8.935544E-1	8.527131E-1	8.489973E-1	8.647637E-1	8.394485E-1	8.816746E-1	8.296964E-1	8.673080E-1	8.240604E-1	9.019139E-1	8.320788E-1	8.291199E-1	8.741956E-1	8.938570E-1	8.542215E-1	8.471204E-1	8.639947E-1	8.638123E-1	8.845958E-1	8.308153E-1	8.478258E-1	8.796090E-1	8.597957E-1	8.696282E-1	8.527991E-1	8.784258E-1	8.969793E-1	8.401615E-1	8.665985E-1	8.771578E-1	8.351077E-1	8.852886E-1	9.022602E-1	8.335058E-1	8.412185E-1	8.529515E-1	8.329220E-1	8.351934E-1	8.844346E-1	8.493794E-1	8.278951E-1	8.623777E-1	8.471767E-1	8.663824E-1	8.470958E-1	8.686573E-1	8.266024E-1	7.954665E-1	8.721277E-1	8.508396E-1	8.804485E-1	8.604211E-1	8.719405E-1	8.761747E-1	8.809474E-1	8.405812E-1	8.753620E-1	8.427878E-1	8.151303E-1	8.499906E-1	8.074551E-1	8.679130E-1	8.876535E-1	8.375464E-1	8.890304E-1	8.713673E-1	8.951825E-1	8.184841E-1	8.373813E-1	8.893920E-1	8.944404E-1	8.118528E-1	8.511637E-1	8.672439E-1	8.922913E-1	8.540368E-1	8.492721E-1	8.797647E-1	8.490982E-1	8.717386E-1	8.447996E-1	8.955289E-1	9.278724E-1	8.417789E-1	8.406715E-1	8.724782E-1	8.855506E-1	8.920796E-1	8.867930E-1	8.118042E-1	8.635715E-1	8.523498E-1	8.257360E-1	8.678117E-1	8.269299E-1	8.603226E-1	8.709766E-1	8.771852E-1	9.436875E-1	8.627379E-1	8.736493E-1	8.685619E-1	8.781086E-1	8.909237E-1	8.715246E-1	8.996413E-1	8.917963E-1	8.838540E-1	8.696549E-1	8.357415E-1	9.092780E-1	8.457983E-1	8.756803E-1	8.740412E-1	8.086271E-1	8.502399E-1	8.401114E-1	8.279523E-1	9.948816E-1	7.605946E-1
2.995060E+2	1.243558E+0	1.219171E+0	1.214111E+0	1.228355E+0	1.161144E+0	1.182328E+0	1.227948E+0	1.233907E+0	1.159599E+0	1.248872E+0	1.180555E+0	1.240662E+0	1.241053E+0	1.214305E+0	1.256924E+0	1.155014E+0	1.196991E+0	1.248101E+0	1.230548E+0	1.203022E+0	1.165095E+0	1.296640E+0	1.177204E+0	1.249290E+0	1.185652E+0	1.192855E+0	1.225144E+0	1.260647E+0	1.212362E+0	1.222385E+0	1.201749E+0	1.165207E+0	1.165430E+0	1.136849E+0	1.217081E+0	1.237884E+0	1.204839E+0	1.243329E+0	1.214954E+0	1.195600E+0	1.181733E+0	1.184204E+0	1.208475E+0	1.219324E+0	1.219644E+0	1.181599E+0	1.187694E+0	1.211704E+0	1.192927E+0	1.225511E+0	1.181110E+0	1.236868E+0	1.182633E+0	1.195492E+0	1.269356E+0	1.226821E+0	1.233836E+0	1.236353E+0	1.240138E+0	1.159751E+0	1.256352E+0	1.191863E+0	1.183190E+0	1.219123E+0	1.216742E+0	1.259212E+0	1.171220E+0	1.256244E+0	1.183667E+0	1.211878E+0	1.210039E+0	1.226379E+0	1.153449E+0	1.235637E+0	1.211593E+0	1.190903E+0	1.245362E+0	1.248149E+0	1.181661E+0	1.239579E+0	1.222677E+0	1.244309E+0	1.252871E+0	1.247691E+0	1.181993E+0	1.201486E+0	1.204145E+0	1.248159E+0	1.251543E+0	1.194917E+0	1.151549E+0	1.214174E+0	1.241491E+0	1.194632E+0	1.177991E+0	1.251033E+0	1.271244E+0	1.216382E+0	1.244237E+0	1.244132E+0	1.187275E+0	1.147837E+0	1.217618E+0	1.161010E+0	1.220788E+0	1.197167E+0	1.183122E+0	1.189792E+0	1.250128E+0	1.254227E+0	1.244351E+0	1.218298E+0	1.228329E+0	1.241146E+0	1.168122E+0	1.206716E+0	1.164628E+0	1.205175E+0	1.230124E+0	1.211933E+0	1.205878E+0	1.263077E+0	1.269253E+0	1.180112E+0	1.228709E+0	1.237881E+0	1.185447E+0	1.196471E+0	1.157032E+0	1.275944E+0	1.211978E+0	1.228851E+0	1.225638E+0	1.209065E+0	1.285476E+0	1.253489E+0	1.217846E+0	1.198912E+0	1.237731E+0	1.220550E+0	1.187566E+0	1.148030E+0	1.198794E+0	1.173830E+0	1.190057E+0	1.177159E+0	1.231381E+0	1.172308E+0	1.196049E+0	1.226680E+0	1.240175E+0	1.199959E+0	1.233301E+0	1.177952E+0	1.215194E+0	1.221959E+0	1.174492E+0	1.215607E+0	1.230934E+0	1.194570E+0	1.215831E+0	1.237216E+0	1.198797E+0	1.210059E+0	1.199921E+0	1.244157E+0	1.288967E+0	1.238505E+0	1.135010E+0	1.392276E+0
3.000060E+2	1.171688E+0	1.234886E+0	1.308722E+0	1.202736E+0	1.218888E+0	1.256954E+0	1.262098E+0	1.267354E+0	1.234373E+0	1.283808E+0	1.246624E+0	1.241122E+0	1.247725E+0	1.246886E+0	1.238373E+0	1.262437E+0	1.286758E+0	1.247411E+0	1.222324E+0	1.220410E+0	1.279201E+0	1.160824E+0	1.266241E+0	1.206542E+0	1.238876E+0	1.249739E+0	1.250917E+0	1.146406E+0	1.207475E+0	1.181673E+0	1.204501E+0	1.242395E+0	1.236607E+0	1.219833E+0	1.260481E+0	1.206387E+0	1.304592E+0	1.243805E+0	1.202941E+0	1.272826E+0	1.223225E+0	1.265670E+0	1.230096E+0	1.257760E+0	1.206554E+0	1.234032E+0	1.168338E+0	1.253335E+0	1.229542E+0	1.221550E+0	1.247388E+0	1.257957E+0	1.237551E+0	1.252493E+0	1.232036E+0	1.207471E+0	1.230637E+0	1.280638E+0	1.260511E+0	1.263743E+0	1.185062E+0	1.280909E+0	1.275797E+0	1.222032E+0	1.194972E+0	1.264823E+0	1.243142E+0	1.255505E+0	1.201891E+0	1.292341E+0	1.249392E+0	1.157534E+0	1.248087E+0	1.220560E+0	1.223263E+0	1.214172E+0	1.213653E+0	1.233869E+0	1.308980E+0	1.207291E+0	1.242840E+0	1.217614E+0	1.208917E+0	1.260712E+0	1.241470E+0	1.312903E+0	1.142457E+0	1.204901E+0	1.241394E+0	1.193039E+0	1.308833E+0	1.258142E+0	1.223064E+0	1.249128E+0	1.205802E+0	1.210395E+0	1.240986E+0	1.246638E+0	1.166216E+0	1.229393E+0	1.175551E+0	1.254622E+0	1.231148E+0	1.249028E+0	1.199641E+0	1.302597E+0	1.211395E+0	1.256024E+0	1.189369E+0	1.179789E+0	1.230283E+0	1.242657E+0	1.241611E+0	1.192432E+0	1.219057E+0	1.242222E+0	1.209287E+0	1.251945E+0	1.198828E+0	1.232969E+0	1.242579E+0	1.179769E+0	1.235450E+0	1.199123E+0	1.238794E+0	1.204927E+0	1.239118E+0	1.228997E+0	1.195958E+0	1.236250E+0	1.258399E+0	1.223794E+0	1.243947E+0	1.236939E+0	1.258156E+0	1.212006E+0	1.243265E+0	1.211609E+0	1.241897E+0	1.256965E+0	1.242635E+0	1.246418E+0	1.253725E+0	1.238488E+0	1.285184E+0	1.270276E+0	1.238201E+0	1.217410E+0	1.170852E+0	1.170832E+0	1.188661E+0	1.248947E+0	1.243869E+0	1.158997E+0	1.295803E+0	1.184006E+0	1.245670E+0	1.193890E+0	1.180640E+0	1.232109E+0	1.208728E+0	1.270109E+0	1.212846E+0	1.234880E+0	1.276861E+0	1.248557E+0	1.252259E+0	1.195770E+0	1.254267E+0	1.167594E+0
