Photon Energy (eV)	#1	#2	#3	#4	#5	#6	#7	#8	#9	#10	#11	#12	#13	#14	#15	#16	#17	#18	#19	#20	#21	#22	#23	#24	#25	#26	#27	#28	#29	#30	#31	#32	#33	#34	#35	#36	#37	#38	#39	#40	#41	#42	#43	#44	#45	#46	#47	#48	#49	#50	#51	#52	#53	#54	#55	#56	#57	#58	#59	#60	#61	#62	#63	#64	#65	#66	#67	#68	#69	#70	#71	#72	#73	#74	#75	#76	#77	#78	#79	#80	#81	#82	#83	#84	#85	#86	#87	#88	#89	#90	#91	#92	#93	#94	#95	#96	#97	#98	#99	#100	#101	#102	#103	#104	#105	#106	#107	#108	#109	#110	#111	#112	#113	#114	#115	#116	#117	#118	#119	#120	#121	#122	#123	#124	#125	#126	#127	#128	#129	#130	#131	#132	#133	#134	#135	#136	#137	#138	#139	#140	#141	#142	#143	#144	#145	#146	#147	#148	#149	#150	#151	#152	#153	#154	#155	#156	#157	#158	#159	#160	#161	#162	#163	#164	#165	#166	#167	#168	#169	#170	
2.790060E+2	-4.868032E-3	1.065261E-3	8.699020E-3	-8.681643E-4	9.271949E-4	9.529549E-4	-5.868544E-3	1.931813E-3	5.654561E-3	1.600018E-3	1.676257E-5	-2.808353E-3	-7.372852E-3	1.656809E-4	5.097765E-3	-7.584537E-4	1.506198E-3	-8.342980E-3	1.680352E-3	-6.769962E-3	2.968193E-3	1.318494E-3	-6.492651E-3	1.655585E-2	1.148680E-2	1.112396E-4	4.631250E-3	-1.575383E-2	-8.219608E-4	-1.341680E-3	1.225637E-3	-1.473899E-2	-7.942517E-3	-9.034215E-3	9.005153E-3	-8.610875E-3	1.120318E-3	-4.401623E-3	-1.432317E-3	-1.304178E-2	-4.775517E-3	-7.430581E-3	-1.072776E-3	-4.996858E-3	-8.793504E-4	-3.634788E-3	3.222592E-3	-6.432539E-3	-9.375003E-3	9.394179E-3	-3.570078E-3	-4.441141E-3	-2.130717E-3	5.142130E-4	-3.707155E-3	6.591414E-3	-2.866573E-3	-9.821655E-4	3.766957E-3	-1.482059E-2	-4.522873E-3	-3.693289E-3	-6.716469E-3	5.340535E-3	-1.077265E-2	-4.974710E-3	3.472335E-3	-1.125441E-2	2.195752E-3	1.701676E-3	-7.092394E-3	7.277065E-3	-4.576554E-3	-3.710728E-3	-9.921414E-3	-9.698919E-3	4.508879E-3	9.737462E-4	-8.354749E-3	-1.006528E-2	3.335167E-4	-1.149761E-2	-5.784293E-3	1.359279E-3	5.208835E-3	1.023424E-3	-4.161122E-3	-1.372417E-2	-1.432608E-2	-1.485560E-2	-4.424031E-3	-6.343856E-3	-9.308852E-3	-3.281707E-3	6.846573E-4	-1.575546E-4	-6.883116E-3	-1.093244E-2	6.552315E-3	-2.177934E-2	-7.329475E-4	1.337977E-2	-1.584077E-3	5.506068E-4	-1.467566E-3	-1.148473E-2	-9.870002E-3	-3.156933E-3	6.344917E-3	-9.164183E-3	-9.201962E-3	-2.249322E-3	4.642455E-4	-4.482174E-3	-7.131688E-3	-1.008058E-2	-1.372036E-3	-4.749667E-3	-3.235475E-3	-1.099204E-2	-8.140070E-3	4.653707E-3	-1.604576E-2	-4.681002E-3	1.714290E-3	-8.542323E-3	-4.459789E-3	-5.330033E-3	-7.633900E-3	-2.270483E-4	-1.972267E-3	-8.966315E-3	2.533888E-3	-1.623637E-2	2.104777E-3	-1.789335E-2	4.225490E-3	-5.762289E-4	-6.327217E-3	3.761387E-3	5.268269E-4	-8.106127E-3	-7.712462E-3	-3.882642E-3	-5.936035E-3	-3.147423E-4	-2.493199E-3	-1.193845E-2	-1.517301E-3	-3.616590E-3	-7.979798E-3	-3.775422E-3	-3.460142E-3	-5.077206E-3	-1.752549E-3	1.115886E-2	-2.494452E-3	8.770230E-3	-1.341453E-3	-8.221799E-3	3.524153E-4	-6.269809E-3	2.710720E-3	-6.568900E-3	-3.010536E-3	-4.265918E-3	-6.563517E-3	-7.410921E-5	-5.530776E-3	-1.536605E-2
2.795020E+2	9.451569E-3	-2.074451E-3	-1.464727E-2	1.690695E-3	1.067059E-3	-8.637558E-4	-2.450264E-3	4.908233E-3	6.912054E-3	3.911705E-3	-8.749204E-3	1.556898E-3	-3.296904E-3	-1.547468E-3	-1.087419E-2	-4.619871E-3	-3.681912E-4	-1.238521E-3	1.166010E-2	-1.812635E-3	-1.161451E-3	-3.494347E-3	-1.375868E-2	-5.349540E-3	-4.007225E-3	2.385292E-3	-4.335444E-3	5.851240E-4	2.306352E-3	-2.218246E-3	1.314273E-2	-9.811209E-3	2.412813E-3	-1.784160E-3	-1.318095E-2	5.622794E-3	-8.856918E-3	-2.182261E-4	3.402945E-3	9.782711E-3	-5.384494E-3	-6.080729E-3	-9.525833E-3	1.125674E-2	-1.668193E-3	-9.082263E-3	3.366084E-3	1.722379E-3	-8.093622E-3	-2.606017E-3	-5.322177E-3	4.972566E-3	-2.693389E-3	1.765919E-3	-5.489720E-3	-1.399982E-2	8.112853E-3	-6.634051E-4	1.114972E-3	7.984820E-3	2.404456E-3	-2.543640E-3	1.518624E-3	-1.925967E-3	-7.464653E-3	-9.916299E-3	-2.821306E-3	4.411855E-3	-7.369231E-3	2.823976E-3	4.438949E-5	-9.125763E-3	3.448781E-3	5.300689E-4	-1.051559E-2	8.082387E-4	-9.551146E-3	-8.232100E-3	1.193508E-3	-1.434910E-3	6.140996E-3	6.361040E-3	-1.819623E-4	4.931396E-4	6.946223E-3	-8.394761E-3	-1.699166E-3	3.925445E-4	-2.131756E-4	-3.124148E-3	-9.163108E-3	-1.185754E-3	-9.933872E-3	-1.489475E-2	8.226156E-4	-3.536974E-3	2.928719E-3	-4.132197E-3	-1.271092E-2	-2.035315E-3	1.403393E-3	-1.502803E-2	1.395016E-2	3.523583E-3	-7.213127E-3	-1.204073E-2	4.400232E-3	-1.848945E-3	2.600104E-3	-3.572511E-3	3.497001E-3	-5.774005E-3	8.018460E-4	-2.281820E-3	3.047990E-3	-1.148364E-3	-1.125393E-3	5.048454E-3	-7.598206E-3	-3.281560E-3	-1.961970E-4	-1.247927E-3	3.337136E-3	-8.506557E-3	-3.030432E-3	2.755598E-4	6.649946E-3	-1.106008E-2	8.558666E-3	1.144576E-3	-3.610108E-3	1.424314E-3	-1.004398E-2	-1.590117E-3	-1.382696E-2	-6.207963E-4	-8.514843E-3	-1.339194E-3	5.070205E-3	1.028476E-2	3.750232E-3	-6.989634E-3	5.069460E-3	-1.900771E-4	-9.896429E-3	-8.102761E-3	-9.414523E-5	-5.906054E-3	3.981049E-3	4.892999E-3	-2.477084E-3	-1.493219E-2	9.358802E-4	-2.657648E-3	4.547412E-3	-6.331272E-3	-6.073035E-3	5.639419E-4	-1.406932E-2	-6.203449E-3	4.933033E-3	-1.785821E-3	-7.421926E-3	-6.509327E-4	1.167046E-2	2.839216E-3	-7.239300E-3	-3.965207E-3	1.453394E-2	-1.811211E-3
2.800000E+2	-6.678217E-3	4.653491E-3	4.342582E-3	-2.695920E-3	-1.292789E-2	1.645398E-2	-9.775120E-3	-5.596610E-3	1.814016E-3	-4.368899E-3	-1.075665E-2	-1.057814E-2	-5.200075E-3	3.919264E-4	-4.245544E-3	-6.797095E-4	-6.794490E-3	5.377522E-3	-7.940141E-3	-1.812731E-3	-3.742564E-3	-6.512922E-3	2.423347E-3	-4.441280E-3	-1.125390E-2	1.396621E-3	-2.278144E-3	9.063669E-3	-7.270038E-3	-7.179631E-3	-2.243894E-3	2.237997E-3	-4.545959E-3	-6.514120E-4	-3.027088E-3	-8.263778E-3	-4.016393E-4	-9.111992E-3	-3.284768E-4	-2.344193E-3	3.503902E-3	1.918579E-3	8.864366E-3	2.822376E-3	-2.634143E-3	6.569502E-3	-2.373605E-3	-3.098300E-3	-8.093605E-3	-1.587824E-2	1.822259E-3	9.021596E-3	-9.992343E-3	-1.432882E-2	-5.489766E-3	-7.119690E-3	2.432928E-5	-9.664819E-3	-3.706640E-3	2.117251E-3	-6.116620E-3	-2.543656E-3	1.518552E-3	-5.544069E-3	-6.523973E-3	-2.477411E-3	-6.510139E-4	-3.221385E-3	-4.548249E-4	-1.083825E-2	-1.545631E-2	-1.003880E-2	-4.159821E-3	-4.522916E-4	6.897226E-4	-7.274233E-3	-3.882994E-3	-6.343746E-3	2.710182E-4	-5.970084E-4	-7.043509E-3	-1.015379E-2	-6.357697E-3	-2.393765E-3	-5.016533E-3	-2.715392E-3	-4.910344E-3	-3.266187E-3	-7.594751E-3	-5.164390E-3	-5.129857E-3	-1.185784E-3	3.527604E-3	7.698708E-3	-7.461603E-3	-5.255387E-3	5.023748E-3	-4.132191E-3	1.180796E-3	2.233560E-2	-3.141914E-3	1.577096E-3	-7.511613E-3	-1.145929E-3	-8.212325E-3	5.176284E-3	-1.154790E-2	-8.427265E-4	-4.952402E-3	-1.501464E-3	-5.096310E-3	7.188565E-4	8.904845E-3	-4.141325E-3	4.823534E-3	2.666170E-3	-2.975350E-3	-3.554822E-3	4.426299E-3	-6.953195E-3	1.597689E-2	2.833936E-3	-7.111919E-3	-8.506595E-3	-1.180465E-2	-1.011695E-2	-4.117240E-3	-9.353830E-3	-3.277541E-3	-7.752252E-3	-5.556020E-3	1.424327E-3	9.189130E-3	4.491446E-3	-2.746980E-3	1.094361E-2	3.351971E-3	1.646002E-3	-5.992052E-3	-1.288902E-3	-3.192289E-3	-5.179060E-3	-3.889840E-3	-8.009730E-3	-6.626368E-3	9.026672E-4	8.311533E-3	5.243676E-4	-2.342917E-3	2.850724E-3	-7.540955E-3	8.790795E-3	-5.246032E-3	-5.984740E-4	-6.481628E-3	-4.380601E-3	-5.135451E-3	-3.069805E-3	2.901250E-3	-6.203481E-3	-1.515154E-2	-1.012820E-2	-8.368874E-3	-6.213582E-3	-7.520448E-3	-3.989511E-3	5.877882E-3	-1.788055E-2	4.133195E-3	-1.115935E-2
2.805030E+2	-3.452247E-3	-2.074431E-3	5.459588E-3	-5.985836E-3	-5.463869E-3	-6.975898E-3	-3.496718E-3	-6.551566E-3	-1.244813E-3	8.064856E-4	3.295614E-3	-3.499352E-3	-3.296881E-3	-7.365746E-3	2.383227E-3	-3.043833E-3	-7.865598E-3	6.517978E-4	-3.040122E-3	4.057278E-5	-2.882158E-3	4.555097E-3	7.182794E-3	-8.982821E-3	-1.021866E-2	6.340141E-3	-3.306804E-3	-5.773848E-3	-7.270033E-3	-8.171942E-3	-9.484662E-3	2.237935E-3	-4.545990E-3	-7.448216E-3	1.910253E-5	6.614780E-3	1.289430E-3	4.722732E-3	-7.791234E-3	5.451716E-3	-5.384482E-3	-3.080951E-3	-9.525768E-3	-8.774701E-3	-7.023851E-4	-1.716746E-3	-6.199999E-3	-3.901731E-3	6.378812E-3	7.120026E-4	-2.189804E-4	-3.125283E-3	-1.781018E-3	6.929626E-4	-9.811391E-3	-2.396102E-4	-8.962896E-3	-4.038996E-3	-4.670991E-3	-1.403285E-3	-1.085053E-2	3.726836E-3	-4.382003E-4	-1.639850E-2	1.942147E-3	-1.414724E-3	5.859630E-3	-2.130990E-3	-8.356989E-3	3.799778E-3	1.013203E-3	5.481572E-3	-9.594571E-3	-4.382039E-3	-4.403583E-3	-2.020764E-4	8.397850E-3	-6.343729E-3	7.651327E-3	-2.272833E-3	-7.043469E-3	-1.015375E-2	-3.710985E-3	-2.393724E-3	1.103208E-4	1.432256E-2	-1.347341E-2	-8.754401E-3	-2.130727E-4	-1.230521E-2	-9.163163E-3	7.600843E-3	-4.164645E-3	-5.857320E-3	-3.779728E-3	-4.396191E-3	-5.451456E-3	-1.042547E-2	-6.714314E-4	-5.214115E-3	-4.050972E-3	-7.213846E-3	-1.466557E-2	-4.881595E-3	2.779071E-3	-1.311683E-2	3.403515E-3	-1.848859E-3	-3.064234E-3	-4.659603E-4	5.406598E-3	7.188451E-4	-7.301085E-3	2.367004E-3	-5.030877E-4	-8.777316E-3	-3.900255E-3	-2.598889E-3	-1.984546E-4	-1.062485E-2	-4.001666E-3	1.813484E-3	-5.022011E-3	5.181164E-3	-5.955084E-3	-1.613942E-3	7.769777E-4	-8.228845E-4	-2.291186E-3	3.368719E-3	-2.637107E-3	-4.599256E-3	-1.187566E-2	1.057297E-2	2.748753E-4	-7.737412E-3	-1.049267E-2	-1.029449E-2	-9.009070E-3	-7.601716E-3	-8.151279E-3	3.873897E-3	-4.785801E-3	-1.058919E-3	-4.446343E-3	-1.310578E-2	4.108668E-3	-4.987398E-3	-1.077484E-2	-2.255069E-3	9.676213E-3	5.393558E-4	8.148063E-3	-3.687226E-3	5.550036E-3	-1.510880E-2	5.178398E-3	-3.069788E-3	7.892524E-3	-7.984357E-3	-1.409402E-3	2.385347E-3	1.246456E-2	-6.508988E-4	-9.439506E-3	-9.842834E-3	-1.200916E-2	-8.603658E-3	1.533011E-3	-6.485279E-3
2.810020E+2	-2.376845E-3	4.653450E-3	-1.576426E-2	-3.792599E-3	-1.199490E-2	-8.637931E-4	1.115282E-2	-2.731623E-3	1.814041E-3	-1.161438E-2	4.299305E-3	-4.656205E-4	3.364280E-3	9.119228E-3	-4.576885E-4	-6.984024E-3	4.987085E-3	-5.964355E-3	-1.000458E-4	-1.812663E-3	-4.602902E-3	-3.494390E-3	-3.287960E-3	-8.080045E-4	-9.015041E-4	-1.145678E-2	-7.421491E-3	-4.747046E-4	9.967348E-3	-4.202789E-3	-5.864234E-3	7.799139E-3	4.245606E-4	1.614263E-3	1.034382E-3	-4.296216E-3	-5.474774E-3	2.746413E-3	-1.432119E-2	-1.360484E-2	-3.409308E-3	2.918503E-3	-4.686310E-3	1.768126E-3	3.161408E-3	-6.320172E-3	-3.330207E-3	-3.901716E-3	3.665198E-3	1.817985E-3	-2.260295E-3	2.948101E-3	6.430291E-3	-5.744932E-3	-8.775974E-5	-1.222447E-3	-6.266666E-3	1.586950E-3	-6.599633E-3	-1.079149E-2	-1.382725E-3	1.039470E-3	-3.373547E-3	4.405879E-3	6.645443E-3	-4.602786E-3	2.604272E-3	-1.303554E-2	9.422981E-3	-4.983038E-3	4.440722E-5	-4.561067E-3	3.448781E-3	2.494952E-3	5.783053E-3	-2.222657E-3	5.563803E-3	1.348414E-2	-8.954378E-3	-3.110719E-3	-2.334783E-3	-6.267922E-3	-4.593215E-3	-8.167493E-3	-6.725514E-3	-4.608488E-3	1.511920E-3	3.925556E-4	1.033206E-2	8.097182E-3	-7.146504E-3	7.667861E-4	2.566146E-3	-1.338653E-3	4.504541E-3	-1.818677E-3	8.166340E-3	6.331816E-5	2.546624E-4	-5.214089E-3	-3.141936E-3	1.577049E-3	-3.576720E-4	-2.079951E-3	-1.420767E-2	8.720809E-4	-6.564072E-3	2.175936E-3	-5.896397E-3	1.605016E-3	6.325443E-4	-4.846428E-3	-2.236781E-3	1.437274E-3	-3.166371E-3	-4.962805E-3	-5.750251E-3	-3.554799E-3	7.264825E-4	4.979656E-3	-4.001660E-3	-6.350229E-3	-8.424248E-4	9.695343E-4	-1.080556E-3	-2.558693E-3	-7.053689E-3	-4.235257E-3	-6.236557E-3	6.705024E-3	-5.555967E-3	8.451836E-3	-8.212223E-3	-2.603643E-3	-4.761497E-3	-3.289583E-3	3.852732E-4	-6.314356E-3	1.412114E-2	-1.917530E-2	-2.200517E-3	1.157998E-3	-3.061071E-4	-8.878551E-3	-1.176236E-3	5.905566E-3	-1.165188E-2	1.062938E-2	6.088950E-3	-7.360751E-3	-4.502681E-3	5.393055E-4	-4.215711E-3	4.311601E-4	-8.486918E-3	9.273303E-3	-4.473615E-4	-3.978188E-3	-4.086686E-3	-8.607557E-4	-9.866144E-3	-9.085395E-3	-2.687038E-3	-5.286410E-3	5.913214E-3	-4.965039E-3	-8.446461E-5	-5.511408E-3	-1.666822E-2	2.862886E-3
2.815070E+2	-2.262633E-4	3.532179E-3	3.225461E-3	-4.889191E-3	1.972715E-2	-2.901188E-3	-5.589491E-3	4.908210E-3	-8.381947E-3	-5.403985E-3	1.333286E-2	-1.476846E-3	4.315888E-3	-4.456693E-3	4.892581E-4	-1.171224E-2	4.987098E-3	5.377545E-3	-2.060061E-3	-8.860847E-4	-8.904612E-3	-3.494378E-3	-3.288001E-3	-1.716358E-3	-2.972010E-3	-5.808913E-4	8.079653E-4	6.944096E-3	-5.354766E-3	-2.218167E-3	2.281606E-3	-4.249937E-3	1.135971E-2	8.411081E-3	5.095945E-3	-5.288050E-3	7.208159E-3	-3.182811E-3	7.134372E-3	2.853095E-3	1.528740E-3	-7.080696E-3	9.832352E-3	1.768101E-3	7.991021E-3	-7.240871E-3	-2.373600E-3	1.056028E-2	4.569715E-3	2.062041E-2	1.822247E-3	-8.186441E-3	2.780792E-3	-7.890903E-3	1.287700E-2	-4.171047E-3	8.112886E-3	7.212876E-3	-1.777986E-3	-2.297896E-4	-7.063385E-3	1.935301E-3	-2.395072E-3	7.119474E-3	-3.701973E-3	-1.414730E-3	4.339996E-4	5.502264E-3	8.435223E-3	-1.079563E-3	1.982011E-3	6.394575E-3	-8.507645E-3	-5.364550E-3	3.745698E-3	8.083003E-4	-9.551111E-3	-6.786913E-4	-1.574086E-3	1.078744E-3	5.199238E-3	1.316121E-2	2.187434E-2	-4.691621E-4	-1.441586E-2	1.242603E-4	1.435648E-2	8.624788E-3	4.005045E-3	9.564150E-4	-2.104889E-3	-2.162119E-3	-1.280037E-3	8.602441E-3	-4.700152E-3	2.477302E-3	-7.546536E-3	-5.181054E-3	2.106940E-3	1.385873E-2	1.403337E-3	8.414430E-3	3.730264E-3	1.006086E-2	9.773601E-3	1.163275E-2	4.132352E-4	8.213169E-3	-3.064326E-3	-4.660045E-4	7.316183E-3	5.356655E-3	-3.249644E-3	-5.071055E-3	-5.030606E-4	-1.947004E-4	5.349438E-3	1.224745E-3	-1.123465E-3	8.651324E-3	1.706517E-3	-1.247971E-3	7.516723E-3	9.695407E-4	8.668649E-3	1.161275E-2	7.769061E-4	9.414258E-3	1.151760E-2	-5.528096E-3	-6.912298E-4	2.428266E-3	8.273270E-3	6.518603E-3	1.282183E-3	-1.510448E-3	-6.036501E-4	6.509306E-4	4.192782E-5	2.185828E-2	-1.208799E-3	6.589819E-3	-3.061071E-4	2.416469E-3	1.081381E-2	8.907383E-3	-2.195526E-3	4.198929E-3	-2.349454E-4	5.914174E-3	6.637914E-3	1.085375E-2	-9.441543E-5	-5.984489E-4	-3.473746E-3	-6.331195E-3	-4.197862E-3	4.197777E-3	-4.086625E-3	1.338640E-2	7.047186E-3	1.594187E-2	8.676640E-3	5.838889E-3	3.034522E-3	8.881239E-4	1.064777E-2	6.732619E-4	-3.667339E-3	-2.050751E-2
2.820010E+2	-2.376858E-3	-9.531948E-4	-1.242726E-3	7.173902E-3	1.039715E-2	-8.637744E-4	5.920874E-3	2.998204E-3	4.872845E-3	1.219237E-2	-4.734281E-3	5.601928E-3	-2.345261E-3	-2.517162E-3	-5.192508E-3	1.744527E-2	-3.681389E-4	-2.183735E-3	-3.040080E-3	4.050495E-5	-2.021805E-3	1.159829E-2	6.230875E-3	1.916901E-3	-9.014789E-4	4.078344E-4	1.315213E-2	9.063734E-3	6.136827E-3	1.068162E-2	4.996929E-3	5.945384E-3	3.406925E-3	8.411150E-3	3.065151E-3	1.454991E-2	-5.474795E-3	3.734539E-3	9.000054E-3	9.782679E-3	3.503926E-3	7.918100E-3	6.928577E-3	1.768081E-3	-2.634149E-3	7.490252E-3	1.293221E-2	3.329236E-3	9.996888E-3	-1.145422E-2	7.946035E-3	5.984830E-3	-2.693378E-3	9.276822E-3	1.071622E-2	3.691941E-3	-5.368025E-3	3.837381E-3	1.114984E-3	-2.298397E-4	9.978732E-3	1.039497E-3	5.401611E-4	3.501289E-3	7.586112E-3	6.024171E-3	-6.510934E-4	1.749731E-2	-1.442601E-3	8.679131E-3	8.763525E-3	-9.091287E-4	8.883571E-3	1.035452E-2	4.764397E-3	9.900977E-3	3.674374E-3	4.042296E-3	4.883705E-3	4.430439E-3	4.257503E-3	7.332507E-3	-4.593263E-3	1.011623E-2	1.104355E-4	2.017298E-3	4.415142E-4	1.228359E-2	1.896002E-3	1.115765E-2	1.806162E-2	7.668099E-4	1.025837E-2	6.794980E-3	-1.938757E-3	6.773344E-3	8.166321E-3	1.579668E-2	3.959094E-3	2.203089E-3	9.584864E-3	-3.764770E-4	5.774245E-3	-8.617193E-3	7.775240E-3	7.328465E-3	4.132412E-4	-8.426896E-4	4.488186E-3	1.605042E-3	1.587398E-3	2.573885E-3	5.866144E-3	9.805086E-3	1.272489E-3	1.220243E-2	3.499470E-3	1.365166E-2	-3.898322E-3	4.061794E-3	-4.953006E-3	5.895266E-3	9.606612E-3	-8.337967E-5	8.668649E-3	5.944208E-3	-5.096045E-3	1.367971E-2	4.613164E-3	-5.528109E-3	9.038416E-3	-3.595334E-3	5.525728E-3	1.450695E-3	4.304044E-3	7.385265E-3	1.374160E-3	1.259131E-2	2.053181E-3	-9.706021E-3	6.725592E-3	2.063301E-3	1.044512E-2	1.371154E-2	7.543818E-3	7.906837E-3	8.311501E-3	1.443068E-3	-2.349197E-4	1.829543E-3	-2.477090E-3	-5.649276E-3	-1.124755E-3	3.519962E-3	4.547382E-3	1.471072E-3	1.174184E-2	-3.444297E-4	1.587863E-2	4.481954E-3	-2.466495E-3	3.428248E-3	-7.931192E-4	2.762057E-4	-4.641791E-3	-1.062920E-3	1.064776E-2	-3.965273E-3	-6.267523E-3	2.155916E-2
2.825040E+2	1.052689E-2	-8.802304E-3	9.927611E-3	9.367113E-3	-1.731892E-3	-4.938521E-3	1.010644E-2	1.333396E-4	-1.144076E-2	2.876689E-3	3.295596E-3	1.166948E-2	1.383181E-2	6.210234E-3	1.279968E-2	1.035287E-2	3.916036E-3	6.322725E-3	2.839994E-3	1.301300E-2	2.034730E-2	-4.758401E-4	1.099028E-2	2.825249E-3	1.876798E-2	1.396548E-3	-1.249460E-3	-3.654242E-3	2.306271E-3	1.465083E-2	-4.054111E-3	1.057968E-2	-5.695385E-4	4.815085E-4	-2.011698E-3	-3.285636E-4	1.059022E-2	5.710967E-3	4.335845E-3	1.120615E-3	1.041723E-2	1.091777E-2	-8.146083E-4	-5.611868E-3	-2.634208E-3	1.393509E-2	-5.243479E-3	1.722394E-3	9.516167E-4	-2.606098E-3	-2.190116E-4	-7.174227E-3	1.007976E-2	1.571474E-2	9.925756E-4	1.646926E-2	7.214092E-3	2.712179E-3	1.075834E-2	1.737292E-2	1.755294E-2	1.039481E-3	9.345951E-3	3.501355E-3	1.228955E-2	1.877649E-2	-8.246824E-3	2.230892E-3	-2.430310E-3	-1.037083E-4	1.070117E-2	5.481544E-3	1.105746E-2	5.300629E-4	9.857716E-3	7.880371E-3	8.403441E-4	3.098085E-3	4.883654E-3	1.197157E-2	4.905069E-4	1.121832E-2	3.347076E-3	1.455494E-3	1.378209E-2	-1.768899E-3	7.934131E-3	4.051287E-3	6.113972E-3	1.523810E-2	1.906993E-2	1.743074E-3	8.335285E-3	2.276297E-3	1.186843E-2	5.914138E-3	-4.404021E-3	1.894336E-2	-6.714596E-4	-4.154563E-3	-1.323825E-3	-2.329991E-3	6.642591E-4	2.589612E-3	1.077278E-2	1.163272E-2	1.935175E-2	-1.848951E-3	3.544151E-3	1.196006E-2	-4.141451E-3	3.501513E-3	-3.249570E-3	2.367010E-3	2.160196E-3	1.029516E-2	6.274376E-3	-5.466683E-3	1.090114E-2	1.415887E-2	3.609191E-3	-6.350266E-3	8.561648E-3	1.465729E-2	2.819138E-3	4.999394E-3	1.252293E-2	7.708113E-3	-5.250250E-3	7.817187E-3	1.098428E-2	3.432163E-3	4.609845E-3	-2.603587E-3	1.336955E-2	1.272271E-2	1.027427E-2	3.636029E-3	4.188487E-5	1.867511E-3	3.750232E-3	6.589807E-3	1.485738E-3	5.891909E-3	9.723789E-3	-2.099169E-3	-4.296952E-3	6.036156E-3	5.034919E-3	-2.255032E-3	8.663480E-3	3.633678E-3	5.057113E-3	8.667881E-3	5.550011E-3	1.024864E-2	1.427920E-3	-3.069739E-3	-3.088321E-3	1.160548E-2	1.656094E-2	5.513759E-3	-4.580968E-3	1.325563E-2	3.994080E-3	2.039888E-2	-1.276967E-3	3.932694E-2	1.193371E-2	3.090735E-2
2.830020E+2	1.375286E-2	-9.531606E-4	-1.241316E-2	1.485037E-2	8.531139E-3	1.034185E-2	-3.496718E-3	2.043294E-3	4.872808E-3	1.840279E-2	2.136274E-2	5.456232E-4	1.383182E-2	1.202847E-2	1.436170E-3	8.964195E-4	7.129202E-3	6.517863E-4	9.700034E-3	3.746909E-3	2.034728E-2	1.763540E-2	1.860538E-2	2.825260E-3	1.168920E-3	6.340123E-3	8.079464E-4	1.224315E-2	8.052122E-3	-3.210508E-3	4.996868E-3	1.428716E-2	2.412735E-3	1.067667E-2	1.524973E-2	1.454991E-2	8.899207E-3	1.758226E-3	5.268672E-3	2.543905E-4	2.325607E-2	7.918081E-3	1.080018E-2	1.125668E-2	2.634366E-2	6.569542E-3	1.101903E-2	8.953341E-3	1.361497E-2	6.242067E-3	2.842920E-3	6.997081E-3	2.011585E-2	6.929103E-4	1.179658E-2	4.674796E-3	1.170768E-2	4.617416E-4	1.557994E-2	1.737305E-2	9.031927E-3	1.805960E-2	1.130283E-2	5.310348E-3	1.323024E-2	-1.414756E-3	-1.736186E-3	-6.492758E-3	1.436195E-2	-1.079540E-3	4.888388E-3	5.481600E-3	9.970497E-3	1.133699E-2	1.291372E-2	4.849469E-3	-4.827755E-3	4.042273E-3	8.573919E-3	9.457896E-3	1.555840E-2	-3.353545E-3	3.347082E-3	1.455482E-3	-1.598629E-3	2.189500E-2	7.934190E-3	-2.351507E-3	-6.540175E-3	1.976501E-3	5.961718E-3	2.517404E-2	-3.203076E-3	1.131365E-2	-1.018322E-3	4.195720E-3	1.026141E-2	1.684553E-2	9.515854E-3	2.203102E-3	3.221442E-3	1.577084E-3	2.110411E-2	1.006090E-2	-3.216199E-3	-5.584395E-3	9.384117E-3	4.188294E-3	-2.120193E-3	1.713750E-2	4.451878E-3	1.834232E-2	1.802072E-2	7.015834E-3	3.047935E-3	8.387974E-3	9.049305E-3	8.872064E-3	6.276297E-3	1.232308E-2	7.414619E-3	1.405904E-2	1.169635E-2	2.022410E-3	-7.904972E-3	4.999371E-3	6.649899E-3	1.879834E-2	1.053126E-2	1.226564E-2	-3.610090E-3	-1.587461E-3	1.560016E-2	-8.685113E-3	2.749122E-4	2.937496E-3	1.620765E-2	1.458146E-2	-3.980744E-3	-2.340997E-3	1.267626E-2	-6.084314E-3	7.757293E-3	1.197385E-2	1.190382E-2	5.905688E-3	3.058039E-3	7.873484E-3	1.873033E-3	-4.297344E-3	-4.515115E-4	5.696561E-3	-3.185403E-3	2.205275E-2	1.657905E-2	2.446318E-3	7.991320E-3	6.014615E-3	7.892542E-3	7.153257E-3	1.127559E-2	2.385359E-3	2.477518E-2	1.418270E-2	8.791801E-3	4.790272E-3	1.184019E-2	5.311788E-3	1.193371E-2	-1.811211E-3
2.835040E+2	1.267762E-2	5.774644E-3	2.108360E-3	8.270488E-3	2.345915E-2	4.229735E-3	6.967334E-3	7.773126E-3	1.812762E-2	7.016975E-3	2.035906E-2	9.646964E-3	1.858977E-2	2.948317E-2	1.942832E-2	9.564834E-3	1.141350E-2	8.213043E-3	3.820043E-3	4.055582E-5	9.162686E-3	9.586016E-3	5.278951E-3	1.190837E-2	1.255653E-2	2.385220E-3	2.343894E-2	1.860214E-2	1.858608E-2	3.735602E-3	-1.338789E-3	-2.396283E-3	2.825960E-2	9.543919E-3	3.065157E-3	1.058234E-2	1.481794E-2	6.699118E-3	1.832861E-2	1.238132E-2	1.436766E-2	2.191684E-2	6.928524E-3	8.093787E-3	1.668439E-2	1.966127E-3	4.322720E-3	1.939806E-2	1.904214E-2	8.454112E-3	3.863493E-3	1.711936E-2	2.285295E-2	8.203899E-3	2.152017E-2	1.450358E-2	5.416667E-3	7.212814E-3	1.075833E-2	9.158344E-3	4.298004E-3	4.622694E-3	1.325966E-2	9.833068E-3	1.605222E-2	6.024074E-3	1.454046E-2	3.321400E-3	1.633751E-2	2.823893E-3	1.457626E-2	1.829718E-3	3.448755E-3	2.509111E-2	1.902568E-2	8.890655E-3	5.563815E-3	1.726086E-2	1.318661E-2	7.782041E-3	1.650023E-2	-4.325030E-3	1.582525E-3	4.342364E-3	1.890899E-2	-3.661978E-3	1.007496E-2	7.710080E-3	1.665920E-2	8.097263E-3	4.953373E-3	1.443483E-2	1.121998E-2	5.891225E-3	1.186843E-2	-3.536990E-3	1.968908E-2	2.161178E-3	9.515854E-3	3.262745E-3	2.412975E-2	9.391181E-3	5.774263E-3	6.325210E-3	9.773607E-3	1.378485E-2	6.393788E-3	1.022560E-2	1.581694E-2	8.853552E-3	1.399989E-2	2.573947E-3	1.814753E-3	-1.352045E-3	1.458884E-2	-3.055547E-3	1.274915E-2	5.048419E-3	5.351326E-3	1.415887E-2	6.463279E-3	2.426370E-2	6.471887E-3	6.234111E-3	8.693446E-4	6.888925E-3	2.133243E-2	1.879834E-2	3.626935E-3	3.368739E-3	1.293032E-2	1.424314E-3	1.376844E-2	5.505064E-3	2.289521E-3	1.183319E-2	1.818551E-2	2.353678E-2	6.075877E-3	8.180401E-3	1.267624E-2	4.779201E-3	8.653177E-3	1.892464E-2	-1.176263E-3	6.906223E-3	-9.413241E-5	8.792050E-3	8.197024E-3	4.892975E-3	1.575281E-2	2.602189E-3	6.087427E-3	1.690471E-2	9.560572E-3	8.298027E-3	7.053719E-3	1.146532E-2	2.486306E-2	6.262781E-3	3.875953E-3	1.281344E-2	1.719946E-2	1.140141E-2	7.832360E-3	5.765800E-3	5.877838E-3	-8.729669E-4	6.733314E-3	-1.811211E-3
2.840020E+2	4.278647E-2	1.250253E-2	3.561968E-2	3.020336E-2	4.025318E-2	3.173432E-2	4.463764E-2	1.923294E-2	4.157842E-2	1.943790E-2	3.842610E-2	3.593946E-2	4.237963E-2	3.530135E-2	4.310222E-2	3.557016E-2	2.640821E-2	2.144520E-2	3.518036E-2	2.598544E-2	2.292835E-2	2.367242E-2	3.288371E-2	3.824945E-2	2.290891E-2	2.908059E-2	2.858230E-2	1.330309E-2	1.858603E-2	2.755063E-2	2.852942E-2	2.633627E-2	2.627142E-2	3.673146E-2	2.844970E-2	3.438782E-2	3.595616E-2	1.559288E-2	2.858999E-2	3.230403E-2	1.634277E-2	4.491487E-2	2.822256E-2	1.758242E-2	3.020739E-2	1.761786E-2	3.876081E-2	3.627037E-2	3.532365E-2	4.052867E-2	2.733799E-2	2.825403E-2	4.201265E-2	2.215260E-2	1.827902E-2	3.416100E-2	3.417569E-2	2.971658E-2	2.522319E-2	2.117330E-3	2.702082E-2	2.791329E-2	2.989290E-2	2.340109E-2	3.674716E-2	3.152886E-2	2.539152E-2	1.749733E-2	4.893410E-2	2.624476E-2	1.748269E-2	2.647959E-2	1.866612E-2	1.526669E-2	3.532428E-2	2.808640E-2	3.484892E-2	2.670273E-2	2.979241E-2	4.046030E-2	2.120896E-2	2.093284E-2	1.658091E-2	4.475890E-2	3.087180E-2	2.946732E-2	4.218640E-2	3.240678E-2	2.720446E-2	2.441932E-2	3.217806E-2	1.541119E-2	3.525834E-2	2.938836E-2	2.567557E-2	1.880204E-2	3.644956E-2	3.467658E-2	1.692480E-2	4.458733E-2	3.322029E-2	5.139246E-2	2.110410E-2	1.939994E-2	3.875098E-2	2.777376E-2	2.533232E-2	4.141807E-2	3.375408E-2	3.784756E-2	1.209032E-2	2.483518E-2	3.422669E-2	2.561098E-2	1.547653E-2	1.697052E-2	2.384883E-2	2.799045E-2	3.125039E-2	3.802465E-2	2.834453E-2	2.324328E-2	3.677408E-2	4.203284E-2	3.011689E-2	3.523208E-2	2.916301E-2	3.586019E-2	3.617630E-2	4.340450E-2	1.584915E-2	2.953437E-2	4.216027E-2	2.070880E-2	3.855149E-2	4.716555E-3	3.796354E-2	1.955661E-2	2.719461E-2	2.185821E-2	1.267627E-2	1.383214E-2	2.836361E-2	3.717043E-2	4.787426E-2	2.091459E-2	2.091992E-2	4.553753E-2	2.400684E-2	2.940051E-2	3.094443E-2	6.727962E-3	2.978475E-2	2.925993E-2	3.863711E-2	2.780369E-2	2.299336E-2	2.054966E-2	2.685955E-2	2.852391E-2	3.241720E-2	3.888349E-2	2.004030E-2	2.345379E-2	4.333541E-2	1.747225E-2	2.853485E-2	3.004999E-2	-1.067156E-3	2.155919E-2
2.841010E+2	3.848523E-2	2.259438E-2	3.673677E-2	5.981272E-2	2.812415E-2	3.275306E-2	2.057042E-2	3.451264E-2	2.730396E-2	3.289387E-2	3.340753E-2	3.492820E-2	2.715415E-2	4.790754E-2	3.173876E-2	3.478212E-2	2.533723E-2	2.995172E-2	3.518031E-2	2.135245E-2	4.357673E-2	4.178363E-2	4.240257E-2	3.915765E-2	3.429649E-2	2.413698E-2	3.578309E-2	2.284140E-2	3.199293E-2	2.556611E-2	5.025173E-2	3.189738E-2	4.217706E-2	3.220027E-2	2.946513E-2	3.537966E-2	4.102927E-2	3.338047E-2	2.392574E-2	3.143785E-2	3.510737E-2	3.691561E-2	2.144720E-2	4.499381E-2	3.020741E-2	2.866626E-2	4.258730E-2	3.064629E-2	4.165528E-2	2.836250E-2	1.202856E-2	3.533960E-2	4.474976E-2	3.824743E-2	2.476145E-2	3.022953E-2	2.159359E-2	2.184027E-2	3.968821E-2	5.023157E-2	1.849980E-2	3.955869E-2	3.282816E-2	3.335103E-2	4.615391E-2	3.684238E-2	2.213628E-2	2.840189E-2	2.522746E-2	2.819648E-2	3.588979E-2	2.100190E-2	3.931812E-2	4.277510E-2	4.652964E-2	3.212772E-2	3.201489E-2	2.953526E-2	3.440509E-2	3.208128E-2	3.910215E-2	2.579022E-2	2.275665E-2	1.588995E-2	5.052496E-2	2.662772E-2	3.897524E-2	2.600406E-2	1.771375E-2	2.237906E-2	2.814482E-2	3.298436E-2	3.621988E-2	1.492859E-2	4.500556E-2	1.021006E-2	3.959219E-2	4.411655E-2	4.378226E-2	3.187218E-2	3.867462E-2	4.357816E-2	5.482982E-2	3.434238E-2	4.174865E-2	2.239339E-2	3.729350E-2	5.148008E-2	3.375403E-2	3.681206E-2	2.832199E-2	1.370458E-2	3.118805E-2	2.375150E-2	1.991536E-2	3.604311E-2	4.789798E-2	4.328516E-2	2.755053E-2	3.894255E-2	3.119862E-2	2.936602E-2	3.572913E-2	5.045603E-2	2.719216E-2	4.656934E-2	4.580323E-2	3.500716E-2	3.814894E-2	2.783505E-2	4.114615E-2	4.660116E-2	5.406643E-2	4.402125E-2	2.344230E-2	3.852039E-2	3.104126E-2	3.547716E-2	3.825684E-2	3.869255E-2	2.556949E-2	3.193800E-2	3.463513E-2	2.326879E-2	4.678427E-2	3.592352E-2	2.091995E-2	3.635117E-2	2.716869E-2	3.756971E-2	3.702108E-2	3.870246E-2	3.699696E-2	4.058553E-2	3.963977E-2	3.072958E-2	3.799533E-2	3.781005E-2	4.183347E-2	2.941443E-2	3.770267E-2	3.888355E-2	3.045701E-2	2.159957E-2	4.525448E-2	3.795851E-2	4.045949E-2	3.468851E-2	3.273502E-2	2.862829E-3
2.842010E+2	4.923840E-2	2.595818E-2	2.333218E-2	4.226644E-2	4.771717E-2	5.822024E-2	4.777683E-2	1.541308E-2	4.157831E-2	2.875354E-2	4.645601E-2	3.492834E-2	2.620257E-2	4.887737E-2	3.742046E-2	3.557018E-2	3.926100E-2	3.656776E-2	3.812035E-2	3.339823E-2	4.959919E-2	4.782073E-2	2.907614E-2	4.097433E-2	1.048611E-2	2.512573E-2	2.755366E-2	3.237981E-2	4.444220E-2	1.762776E-2	2.943446E-2	5.692264E-2	4.317119E-2	5.032520E-2	2.946508E-2	5.819338E-2	3.933822E-2	6.006170E-2	3.325424E-2	3.403642E-2	3.115701E-2	2.891625E-2	3.983733E-2	4.604809E-2	1.668443E-2	3.695255E-2	3.493433E-2	3.707381E-2	5.612774E-2	2.725645E-2	4.162695E-2	3.938860E-2	3.653840E-2	4.253936E-2	2.043980E-2	3.022959E-2	3.237830E-2	2.634103E-2	4.065252E-2	3.380226E-2	2.039335E-2	4.314183E-2	3.478497E-2	2.792381E-2	3.768783E-2	3.790511E-2	3.190221E-2	2.840193E-2	3.708075E-2	3.893109E-2	3.492086E-2	4.291301E-2	4.040503E-2	4.277506E-2	3.532430E-2	3.515860E-2	4.335114E-2	2.953528E-2	3.163748E-2	5.302881E-2	4.851963E-2	4.230495E-2	3.157922E-2	3.513586E-2	4.027122E-2	1.526911E-2	3.683453E-2	2.691869E-2	3.774966E-2	4.788213E-2	1.906994E-2	2.810290E-2	3.429674E-2	3.300329E-2	2.107322E-2	5.316966E-2	2.702185E-2	3.992096E-2	3.452105E-2	4.670663E-2	4.685605E-2	5.139240E-2	4.052190E-2	5.395439E-2	3.275561E-2	3.853439E-2	3.629666E-2	3.034976E-2	1.864909E-2	4.406048E-2	2.450276E-2	2.112499E-2	5.650984E-2	3.397887E-2	3.234398E-2	3.604310E-2	3.957325E-2	3.754970E-2	2.755057E-2	3.343503E-2	3.500406E-2	3.650924E-2	5.035777E-2	1.676312E-2	2.914196E-2	4.845885E-2	4.188777E-2	2.391686E-2	3.913535E-2	3.005934E-2	3.433538E-2	4.358937E-2	4.673958E-2	2.273599E-2	2.142777E-2	4.118904E-2	3.796354E-2	3.050198E-2	4.529642E-2	3.553612E-2	5.433132E-2	8.400414E-3	3.373920E-2	5.889165E-2	3.261400E-2	3.192116E-2	5.139028E-2	2.716489E-2	4.087064E-2	3.859084E-2	2.993163E-2	2.941957E-2	6.481552E-2	4.573346E-2	3.262124E-2	3.463068E-2	3.236958E-2	3.781010E-2	2.086988E-2	2.763356E-2	4.721638E-2	3.262675E-2	3.519193E-2	2.808927E-2	4.909265E-2	2.625213E-2	1.780265E-2	3.159620E-2	4.573600E-2	2.155919E-2
2.843010E+2	5.461502E-2	7.081045E-2	5.014121E-2	6.200603E-2	7.850619E-2	4.192128E-2	2.998806E-2	3.737758E-2	5.789195E-2	5.773569E-2	4.645594E-2	6.122085E-2	4.808913E-2	4.402878E-2	4.310220E-2	3.951040E-2	3.926098E-2	3.562268E-2	4.204040E-2	4.081108E-2	5.476128E-2	6.291335E-2	4.811385E-2	4.914918E-2	4.464883E-2	4.193393E-2	5.429933E-2	4.403790E-2	3.869638E-2	5.136575E-2	6.744862E-2	4.580024E-2	4.515940E-2	4.239548E-2	5.688038E-2	3.835539E-2	4.187485E-2	5.610892E-2	5.004559E-2	4.443087E-2	5.584711E-2	4.891449E-2	5.435600E-2	4.077667E-2	5.242373E-2	2.682479E-2	4.832705E-2	6.037366E-2	4.708248E-2	4.384665E-2	6.510148E-2	4.343752E-2	4.748688E-2	2.859055E-2	6.581657E-2	4.398980E-2	5.125136E-2	3.871806E-2	4.258123E-2	8.309012E-2	4.785013E-2	3.866296E-2	5.337504E-2	4.963269E-2	6.214541E-2	4.109318E-2	3.949796E-2	4.475878E-2	6.473859E-2	4.868982E-2	5.914081E-2	5.021662E-2	5.888319E-2	5.358192E-2	4.652961E-2	4.627203E-2	4.240639E-2	3.142369E-2	4.086285E-2	4.632556E-2	4.004389E-2	5.396241E-2	5.716456E-2	2.839984E-2	5.992429E-2	3.325353E-2	5.074948E-2	5.253010E-2	5.884010E-2	5.604320E-2	4.125302E-2	3.981842E-2	4.679678E-2	3.932947E-2	7.261981E-2	4.028185E-2	6.892286E-2	5.775201E-2	3.544716E-2	6.895840E-2	6.049188E-2	5.920653E-2	5.585180E-2	4.648319E-2	6.173305E-2	4.176260E-2	3.131283E-2	4.946778E-2	3.753025E-2	5.959301E-2	4.550868E-2	6.471988E-2	4.638110E-2	4.048717E-2	2.790519E-2	4.081123E-2	5.622272E-2	3.372598E-2	6.084940E-2	4.169630E-2	3.880947E-2	4.773447E-2	4.826798E-2	5.361474E-2	6.813877E-2	5.412745E-2	4.873964E-2	5.633444E-2	5.886225E-2	6.342244E-2	6.547025E-2	4.358938E-2	6.505682E-2	6.125218E-2	4.963162E-2	3.407245E-2	3.796351E-2	5.836314E-2	5.233599E-2	5.131827E-2	5.036418E-2	6.905513E-2	4.986594E-2	6.323596E-2	3.806418E-2	5.893729E-2	3.983255E-2	5.656118E-2	5.457242E-2	5.901381E-2	4.208494E-2	4.076539E-2	3.493632E-2	3.749667E-2	3.462654E-2	4.243293E-2	5.205978E-2	4.144377E-2	7.277964E-2	5.345646E-2	7.047216E-2	5.765406E-2	4.466155E-2	5.961063E-2	6.444531E-2	5.454264E-2	5.953901E-2	6.406523E-2	4.313577E-2	7.764832E-2
2.844010E+2	8.794993E-2	1.078136E-1	7.583325E-2	7.406909E-2	1.036972E-1	1.060988E-1	6.451921E-2	6.507218E-2	9.255825E-2	9.085809E-2	1.016611E-1	8.751337E-2	1.023300E-1	9.930217E-2	9.802561E-2	7.812427E-2	8.531648E-2	9.044187E-2	7.634071E-2	8.992105E-2	9.433746E-2	8.404303E-2	7.381482E-2	1.063727E-1	7.777639E-2	8.741484E-2	9.853261E-2	1.108069E-1	1.153070E-1	1.039575E-1	8.917099E-2	1.329249E-1	1.127588E-1	1.092315E-1	8.226493E-2	1.067964E-1	9.852528E-2	1.015659E-1	8.735969E-2	9.900185E-2	1.141160E-1	9.391073E-2	7.855361E-2	7.662239E-2	9.975424E-2	8.298733E-2	1.018975E-1	9.813548E-2	1.022585E-1	8.366331E-2	1.079679E-1	7.987803E-2	9.036816E-2	1.069184E-1	8.094205E-2	1.078767E-1	1.114656E-1	7.359881E-2	1.081556E-1	9.599878E-2	8.098754E-2	1.067433E-1	8.761986E-2	8.581418E-2	9.224705E-2	7.297401E-2	6.554056E-2	9.601025E-2	9.733529E-2	8.772448E-2	9.111089E-2	8.582211E-2	9.149171E-2	9.091465E-2	7.301493E-2	8.668417E-2	1.057001E-1	9.279565E-2	1.045185E-1	1.066547E-1	9.937403E-2	9.476361E-2	6.863391E-2	9.960986E-2	1.052119E-1	9.477954E-2	9.142394E-2	8.454445E-2	5.884007E-2	9.276776E-2	9.066084E-2	8.863283E-2	1.016043E-1	9.445733E-2	7.354031E-2	6.949442E-2	8.987340E-2	8.187636E-2	7.156581E-2	1.219388E-1	9.321786E-2	7.581170E-2	7.935751E-2	8.477326E-2	6.972678E-2	9.233770E-2	8.015426E-2	1.088341E-1	7.718085E-2	8.030305E-2	9.611356E-2	1.018219E-1	9.094752E-2	9.813235E-2	8.472174E-2	6.465190E-2	1.107960E-1	7.387459E-2	8.674852E-2	9.585332E-2	8.732880E-2	9.365547E-2	9.424366E-2	7.467284E-2	1.090854E-1	7.680203E-2	9.866000E-2	9.131146E-2	9.239801E-2	9.678559E-2	8.006464E-2	7.973095E-2	1.071865E-1	1.048364E-1	8.790827E-2	9.100511E-2	8.641973E-2	9.318938E-2	7.747744E-2	9.340399E-2	9.400276E-2	8.444512E-2	8.928689E-2	1.040718E-1	9.256479E-2	8.395225E-2	7.765790E-2	1.061675E-1	1.062178E-1	8.147892E-2	7.753193E-2	9.027426E-2	9.366430E-2	8.382859E-2	8.475852E-2	9.509835E-2	8.862711E-2	8.777427E-2	1.057223E-1	8.729335E-2	9.478504E-2	8.789518E-2	7.875260E-2	8.927787E-2	1.047461E-1	7.698001E-2	9.054325E-2	9.962663E-2	5.353655E-2	1.010185E-1
2.845030E+2	1.212849E-1	1.717282E-1	1.227490E-1	1.256112E-1	1.718061E-1	1.662015E-1	1.367208E-1	1.605703E-1	1.537341E-1	1.757343E-1	1.337805E-1	1.138059E-1	1.546675E-1	1.555453E-1	1.804103E-1	1.490479E-1	1.313720E-1	1.339192E-1	1.282812E-1	1.631226E-1	1.433775E-1	1.484385E-1	1.480620E-1	1.281722E-1	1.668067E-1	1.704670E-1	1.777412E-1	1.574392E-1	1.296714E-1	1.883027E-1	1.778704E-1	1.894632E-1	1.684288E-1	1.919268E-1	1.533416E-1	1.534155E-1	1.467204E-1	2.112555E-1	1.321365E-1	1.327839E-1	1.407814E-1	1.789036E-1	1.434032E-1	1.725623E-1	1.509486E-1	1.686119E-1	1.755568E-1	1.286662E-1	1.402484E-1	1.566606E-1	1.436901E-1	1.416242E-1	1.715692E-1	1.831004E-1	1.641326E-1	1.599692E-1	1.528066E-1	1.703646E-1	1.737301E-1	1.945744E-1	1.434754E-1	1.425751E-1	1.805702E-1	1.500364E-1	1.580944E-1	1.452374E-1	1.588601E-1	1.734328E-1	1.200542E-1	1.335904E-1	1.443945E-1	1.670753E-1	1.436652E-1	1.616506E-1	1.585828E-1	1.442716E-1	1.359300E-1	1.418933E-1	1.497230E-1	1.795521E-1	1.568207E-1	1.452794E-1	1.365675E-1	1.515742E-1	1.650257E-1	1.440003E-1	1.620692E-1	1.504023E-1	1.590195E-1	1.427540E-1	1.622518E-1	1.267082E-1	1.564120E-1	1.342217E-1	1.527013E-1	1.554137E-1	1.569151E-1	1.699827E-1	1.252808E-1	1.335944E-1	1.750326E-1	1.441858E-1	1.652044E-1	1.557503E-1	1.516627E-1	1.310761E-1	1.628856E-1	1.671942E-1	1.470415E-1	1.724626E-1	1.495829E-1	1.927218E-1	1.405783E-1	1.706536E-1	1.104667E-1	1.418958E-1	1.607442E-1	1.503478E-1	1.366967E-1	1.417491E-1	1.358482E-1	1.436584E-1	1.203663E-1	1.631167E-1	1.529568E-1	1.523836E-1	1.348768E-1	1.510280E-1	1.417151E-1	1.579512E-1	1.608205E-1	1.138645E-1	1.712969E-1	1.514611E-1	1.312213E-1	1.354837E-1	1.447649E-1	1.608520E-1	1.438507E-1	1.291768E-1	1.326826E-1	1.342364E-1	1.430429E-1	1.692354E-1	1.339851E-1	1.439881E-1	1.522575E-1	1.144352E-1	1.515394E-1	1.631706E-1	1.514645E-1	1.552544E-1	1.400287E-1	1.414863E-1	1.549431E-1	1.311838E-1	1.270699E-1	1.368301E-1	1.476494E-1	1.380488E-1	1.719521E-1	1.838327E-1	1.308361E-1	1.143097E-1	1.469660E-1	1.316100E-1	1.418193E-1	1.491033E-1	1.861452E-1	1.477596E-1
2.846010E+2	2.750556E-1	2.771311E-1	2.668474E-1	2.451448E-1	2.921631E-1	3.128928E-1	2.225252E-1	2.503387E-1	2.485566E-1	2.895927E-1	2.552318E-1	2.260546E-1	2.717131E-1	3.010013E-1	2.391217E-1	2.444010E-1	2.138436E-1	2.180385E-1	2.596028E-1	2.224255E-1	2.319933E-1	2.621364E-1	2.299238E-1	2.462531E-1	2.755062E-1	2.960344E-1	2.816372E-1	2.973361E-1	2.876809E-1	3.292083E-1	3.254011E-1	2.997588E-1	2.986563E-1	3.120047E-1	2.853409E-1	3.488199E-1	3.141352E-1	3.239099E-1	2.935198E-1	2.497212E-1	2.810217E-1	3.058927E-1	2.653591E-1	3.032932E-1	2.629961E-1	3.509100E-1	2.568688E-1	2.885516E-1	2.931135E-1	3.269880E-1	3.294448E-1	2.468971E-1	2.856150E-1	2.936182E-1	2.754137E-1	3.034694E-1	2.777285E-1	2.873833E-1	2.759486E-1	3.307028E-1	2.514090E-1	2.760487E-1	2.793903E-1	3.445125E-1	2.719165E-1	2.833878E-1	2.684555E-1	2.857501E-1	2.968667E-1	2.946085E-1	2.751807E-1	2.601974E-1	2.740990E-1	3.217883E-1	2.879530E-1	2.655078E-1	2.370107E-1	2.778560E-1	2.622729E-1	2.960208E-1	3.084421E-1	2.929412E-1	2.115588E-1	2.708993E-1	2.897808E-1	3.020744E-1	2.819523E-1	2.409569E-1	2.729081E-1	2.896523E-1	2.620757E-1	2.585076E-1	2.862198E-1	2.851453E-1	2.898523E-1	2.748411E-1	2.637627E-1	2.801157E-1	2.178928E-1	2.925355E-1	2.295757E-1	3.014463E-1	3.001070E-1	2.398015E-1	2.635758E-1	2.709649E-1	2.735264E-1	2.577529E-1	2.688254E-1	2.925803E-1	2.689341E-1	2.474475E-1	2.945348E-1	2.710680E-1	2.036813E-1	2.868467E-1	2.569414E-1	2.765296E-1	2.513924E-1	2.812719E-1	2.785521E-1	2.732575E-1	2.342601E-1	2.315558E-1	2.290003E-1	2.780379E-1	2.278661E-1	2.653426E-1	2.403496E-1	2.758340E-1	2.581163E-1	2.684698E-1	3.095924E-1	2.396428E-1	2.440365E-1	2.449012E-1	2.634333E-1	2.334897E-1	2.444166E-1	2.712160E-1	2.546725E-1	2.682199E-1	2.487628E-1	2.691533E-1	2.571559E-1	2.710641E-1	2.510236E-1	2.053801E-1	2.832879E-1	2.397566E-1	2.466650E-1	2.357068E-1	2.657274E-1	2.701859E-1	2.722516E-1	2.179837E-1	2.348968E-1	2.522020E-1	2.474759E-1	2.466829E-1	2.808317E-1	2.568294E-1	2.047002E-1	2.329784E-1	2.688276E-1	3.033043E-1	2.384096E-1	2.789800E-1	2.641505E-1	2.599371E-1
2.847030E+2	5.309812E-1	6.359488E-1	5.170648E-1	5.138220E-1	5.506053E-1	5.808088E-1	5.134240E-1	5.435182E-1	5.360833E-1	5.721682E-1	5.352724E-1	4.778571E-1	5.229351E-1	5.172460E-1	5.430945E-1	5.154865E-1	4.816081E-1	4.817375E-1	5.487055E-1	5.235710E-1	4.900983E-1	5.961878E-1	5.411900E-1	5.296461E-1	6.160995E-1	5.797953E-1	5.809840E-1	6.990107E-1	5.931656E-1	6.219361E-1	6.086964E-1	6.343543E-1	5.531487E-1	7.175513E-1	5.503554E-1	6.662268E-1	5.779405E-1	6.717550E-1	5.845699E-1	5.884080E-1	5.822419E-1	6.208663E-1	5.721858E-1	5.668648E-1	5.324904E-1	5.976556E-1	6.213391E-1	5.994840E-1	5.916071E-1	6.023859E-1	6.111404E-1	5.728360E-1	5.556770E-1	6.573599E-1	6.178998E-1	6.209375E-1	5.707112E-1	5.911835E-1	5.295674E-1	6.663292E-1	5.335509E-1	6.119718E-1	5.699830E-1	6.131599E-1	5.879839E-1	6.340777E-1	5.885629E-1	5.845352E-1	5.941877E-1	6.751982E-1	5.658192E-1	5.633000E-1	5.480096E-1	6.008013E-1	5.212270E-1	5.494046E-1	5.421434E-1	5.799950E-1	5.565644E-1	5.390136E-1	5.956756E-1	6.251791E-1	4.815288E-1	5.615130E-1	6.110669E-1	6.371546E-1	5.977147E-1	5.592701E-1	5.629007E-1	5.783475E-1	5.645729E-1	5.347978E-1	5.246800E-1	5.743411E-1	5.705978E-1	5.506426E-1	5.235497E-1	5.842916E-1	4.892451E-1	5.616757E-1	5.822893E-1	6.003382E-1	5.852427E-1	5.433202E-1	5.743333E-1	5.658077E-1	5.576040E-1	5.062871E-1	5.322174E-1	5.638819E-1	5.381900E-1	5.646690E-1	4.930575E-1	5.936943E-1	4.300593E-1	5.920071E-1	5.751309E-1	6.225708E-1	5.399825E-1	5.777589E-1	5.515927E-1	6.008272E-1	5.487759E-1	5.326860E-1	5.146519E-1	5.888670E-1	4.833407E-1	5.494238E-1	5.747207E-1	6.328203E-1	5.363833E-1	5.304950E-1	5.733609E-1	6.298729E-1	5.089510E-1	5.286749E-1	5.858150E-1	5.708077E-1	5.591866E-1	5.710764E-1	5.571676E-1	5.551988E-1	5.596506E-1	5.576111E-1	5.361997E-1	5.712442E-1	5.473221E-1	4.451442E-1	5.531088E-1	5.624393E-1	4.826413E-1	5.544199E-1	5.191857E-1	5.306742E-1	5.128847E-1	4.978912E-1	5.565023E-1	5.801495E-1	6.128397E-1	5.218307E-1	5.429879E-1	4.883319E-1	4.357613E-1	4.601188E-1	5.902750E-1	5.267025E-1	5.079083E-1	6.206779E-1	5.215681E-1	5.824485E-1
2.848050E+2	7.729288E-1	7.805977E-1	7.047285E-1	6.892847E-1	7.549320E-1	7.998274E-1	6.766629E-1	7.163703E-1	7.359247E-1	7.833234E-1	8.173211E-1	6.548268E-1	7.132537E-1	7.761586E-1	7.722572E-1	7.061926E-1	7.622252E-1	6.235121E-1	6.986472E-1	6.625617E-1	6.570070E-1	7.772996E-1	6.849256E-1	7.176659E-1	6.751080E-1	7.201935E-1	6.694503E-1	7.594201E-1	7.090389E-1	7.846721E-1	7.317894E-1	7.993355E-1	7.201589E-1	8.285666E-1	7.219553E-1	7.931890E-1	6.777126E-1	8.931098E-1	6.909152E-1	7.105428E-1	6.879157E-1	7.438552E-1	6.825276E-1	6.396101E-1	7.140847E-1	7.735087E-1	7.390033E-1	7.264280E-1	6.902004E-1	7.859848E-1	7.509659E-1	6.862070E-1	7.272024E-1	8.140155E-1	7.669941E-1	7.437970E-1	6.857473E-1	6.980754E-1	6.722882E-1	8.353166E-1	6.982920E-1	7.490279E-1	6.541272E-1	7.814040E-1	7.667117E-1	7.849810E-1	6.645211E-1	7.317471E-1	7.275378E-1	8.206032E-1	6.946683E-1	6.783336E-1	6.697490E-1	7.619226E-1	6.424490E-1	6.625586E-1	6.932926E-1	6.602511E-1	6.838758E-1	7.183247E-1	7.416463E-1	7.427258E-1	5.556379E-1	7.279905E-1	7.520568E-1	8.378236E-1	7.807499E-1	6.754365E-1	7.126433E-1	7.425882E-1	7.440539E-1	6.490232E-1	7.410264E-1	7.487624E-1	7.519317E-1	7.353687E-1	7.361982E-1	6.807899E-1	5.948231E-1	6.983653E-1	7.086475E-1	8.249949E-1	7.967949E-1	7.338370E-1	7.461986E-1	6.960110E-1	7.559595E-1	6.612433E-1	7.087577E-1	7.285269E-1	7.396556E-1	7.529621E-1	6.814519E-1	7.824366E-1	5.383662E-1	7.064415E-1	7.702988E-1	8.328734E-1	7.351512E-1	6.897445E-1	7.294965E-1	7.916550E-1	6.720746E-1	6.611398E-1	7.164610E-1	6.842890E-1	6.556151E-1	7.217490E-1	7.562083E-1	7.773930E-1	7.027604E-1	7.393127E-1	7.537858E-1	7.991418E-1	6.660870E-1	7.030316E-1	7.450283E-1	7.369787E-1	7.060130E-1	7.131160E-1	6.870917E-1	7.860486E-1	6.617861E-1	7.426757E-1	7.651030E-1	7.533525E-1	6.923190E-1	5.902887E-1	7.554744E-1	8.575497E-1	6.973494E-1	7.173872E-1	7.365822E-1	7.643939E-1	6.642831E-1	6.237023E-1	6.549530E-1	7.291337E-1	6.747317E-1	6.883446E-1	7.660333E-1	7.719737E-1	5.920122E-1	6.362685E-1	7.495591E-1	7.530271E-1	6.593514E-1	7.814772E-1	8.491904E-1	7.694117E-1
2.849020E+2	8.438995E-1	9.308537E-1	8.410074E-1	7.835965E-1	8.445000E-1	9.577240E-1	8.022307E-1	7.746237E-1	8.144328E-1	8.795860E-1	8.293653E-1	7.043774E-1	8.341056E-1	8.343413E-1	8.394916E-1	7.952409E-1	8.425539E-1	7.255888E-1	7.398077E-1	7.996992E-1	8.187524E-1	9.010590E-1	8.124786E-1	8.466470E-1	7.299760E-1	7.508435E-1	8.031788E-1	8.420865E-1	7.952262E-1	8.342864E-1	7.770447E-1	9.049968E-1	7.648934E-1	9.339191E-1	8.113092E-1	8.328657E-1	7.546559E-1	1.005765E+0	8.009920E-1	8.118890E-1	7.817387E-1	8.608450E-1	7.909325E-1	8.146215E-1	7.594835E-1	8.416406E-1	8.576237E-1	8.180204E-1	7.752260E-1	8.634066E-1	8.193487E-1	8.086872E-1	7.947168E-1	9.384821E-1	8.210144E-1	8.342211E-1	7.136080E-1	8.544760E-1	7.783642E-1	9.069010E-1	7.238541E-1	8.206921E-1	7.676250E-1	8.818072E-1	7.554240E-1	8.561810E-1	8.262024E-1	8.058983E-1	7.739638E-1	9.269725E-1	8.041414E-1	8.143646E-1	7.501831E-1	8.257812E-1	7.646888E-1	7.787439E-1	7.726466E-1	7.924368E-1	7.650591E-1	8.205493E-1	7.802585E-1	8.612434E-1	6.756243E-1	7.712946E-1	8.315241E-1	9.599293E-1	8.599579E-1	8.217868E-1	8.412945E-1	8.017559E-1	8.216945E-1	7.964431E-1	8.371799E-1	7.966596E-1	8.108424E-1	7.516932E-1	8.629480E-1	8.465126E-1	7.707853E-1	7.905509E-1	8.177343E-1	9.724882E-1	8.581131E-1	7.870700E-1	8.141452E-1	8.724865E-1	8.785604E-1	8.333044E-1	8.447022E-1	8.113667E-1	7.873958E-1	7.659486E-1	7.452624E-1	9.033055E-1	6.537743E-1	8.094336E-1	8.535456E-1	9.896445E-1	7.592002E-1	7.576701E-1	7.865785E-1	9.090085E-1	7.776098E-1	7.264201E-1	7.622822E-1	8.893042E-1	7.300059E-1	8.036455E-1	8.637204E-1	8.608012E-1	8.428672E-1	7.433282E-1	8.371295E-1	9.704372E-1	7.849456E-1	8.471419E-1	8.597406E-1	8.713093E-1	7.824431E-1	7.678273E-1	8.130487E-1	8.666193E-1	7.630259E-1	7.965444E-1	8.610224E-1	9.074440E-1	7.606154E-1	6.876636E-1	8.197684E-1	9.137130E-1	7.814094E-1	8.514730E-1	8.262197E-1	8.302880E-1	8.006419E-1	7.436620E-1	7.796572E-1	8.917441E-1	7.945239E-1	8.138975E-1	8.114871E-1	8.355853E-1	6.639825E-1	7.159988E-1	8.579876E-1	9.305746E-1	7.642881E-1	8.526011E-1	8.881912E-1	8.208265E-1
2.850010E+2	8.073385E-1	9.050625E-1	8.320714E-1	7.956588E-1	8.435674E-1	9.495753E-1	7.614214E-1	7.230552E-1	8.011788E-1	8.288675E-1	8.112988E-1	7.347152E-1	8.226869E-1	8.227043E-1	7.400608E-1	7.251052E-1	7.611544E-1	6.584822E-1	8.152682E-1	7.774611E-1	7.619703E-1	8.779173E-1	7.506062E-1	7.912408E-1	7.040950E-1	7.221707E-1	6.941391E-1	7.901549E-1	7.808623E-1	8.253562E-1	8.041971E-1	8.493845E-1	7.360648E-1	8.568882E-1	6.986017E-1	8.150112E-1	7.546557E-1	8.743347E-1	7.356916E-1	7.503877E-1	7.540854E-1	8.558457E-1	7.231782E-1	7.018131E-1	7.469271E-1	8.545300E-1	8.011839E-1	7.963276E-1	7.598485E-1	8.468167E-1	8.336374E-1	7.560517E-1	7.563969E-1	8.826870E-1	7.886028E-1	8.578110E-1	7.801136E-1	7.869648E-1	7.513632E-1	8.599598E-1	7.361630E-1	7.794848E-1	7.617533E-1	8.302484E-1	7.337890E-1	8.126106E-1	7.469893E-1	8.124419E-1	7.808781E-1	8.186507E-1	7.256700E-1	7.258078E-1	7.501830E-1	7.756758E-1	7.728381E-1	7.352997E-1	7.584761E-1	7.631669E-1	7.327709E-1	8.314415E-1	8.452384E-1	8.437567E-1	6.191602E-1	7.443506E-1	7.973445E-1	9.144950E-1	8.075097E-1	7.230008E-1	8.202042E-1	7.619707E-1	7.753129E-1	7.739891E-1	7.621800E-1	7.957561E-1	8.053189E-1	7.766096E-1	7.885743E-1	7.342823E-1	6.226063E-1	8.032660E-1	7.268280E-1	8.660198E-1	7.988384E-1	7.450443E-1	7.891650E-1	7.831734E-1	7.260564E-1	7.950678E-1	7.795615E-1	8.061889E-1	7.291525E-1	7.399760E-1	7.098118E-1	8.047510E-1	8.251118E-1	7.245602E-1	7.758487E-1	8.854487E-1	7.175762E-1	7.567527E-1	7.656482E-1	7.345079E-1	7.410387E-1	7.390555E-1	7.769053E-1	7.976615E-1	6.888956E-1	7.746407E-1	7.857987E-1	8.174295E-1	7.757324E-1	7.453355E-1	7.977467E-1	9.288803E-1	6.650788E-1	7.670804E-1	7.598618E-1	8.016561E-1	7.321599E-1	8.099131E-1	7.366810E-1	7.851434E-1	7.621302E-1	7.895938E-1	8.097928E-1	8.223935E-1	7.616656E-1	6.251969E-1	8.134443E-1	8.534654E-1	6.760812E-1	8.029958E-1	7.602795E-1	7.561566E-1	7.695601E-1	6.617385E-1	7.984102E-1	8.018085E-1	7.555924E-1	7.399902E-1	8.199441E-1	7.928301E-1	6.261037E-1	6.798420E-1	8.522302E-1	9.081370E-1	7.177826E-1	7.768395E-1	8.491907E-1	7.787601E-1
2.851110E+2	6.621701E-1	7.144406E-1	6.589303E-1	5.916843E-1	6.634982E-1	7.091635E-1	6.986371E-1	5.912675E-1	6.584353E-1	6.705004E-1	6.767980E-1	5.375209E-1	6.647213E-1	6.471872E-1	6.387365E-1	6.289648E-1	6.294139E-1	5.091471E-1	5.898656E-1	6.412501E-1	5.735521E-1	7.259847E-1	6.030632E-1	5.932278E-1	6.368043E-1	6.183550E-1	5.861274E-1	6.407192E-1	5.462418E-1	6.983423E-1	6.086964E-1	6.325006E-1	6.048413E-1	7.096218E-1	6.021398E-1	6.374613E-1	5.813225E-1	7.112822E-1	5.631143E-1	5.936052E-1	5.911300E-1	5.978681E-1	5.721853E-1	5.331280E-1	5.788554E-1	6.326422E-1	6.194264E-1	6.557243E-1	6.042702E-1	6.344609E-1	5.815408E-1	5.657510E-1	6.149801E-1	7.249575E-1	6.254623E-1	6.415770E-1	5.599262E-1	6.361911E-1	5.845346E-1	6.827589E-1	5.704752E-1	6.621358E-1	5.650907E-1	6.330593E-1	5.795177E-1	6.404537E-1	6.091798E-1	6.423296E-1	5.852971E-1	6.849570E-1	6.055400E-1	5.879501E-1	6.317061E-1	6.165206E-1	5.680859E-1	6.090118E-1	5.676496E-1	5.979353E-1	6.211424E-1	6.261554E-1	6.455873E-1	6.708381E-1	5.097608E-1	5.913440E-1	6.281571E-1	7.157186E-1	6.276855E-1	5.940284E-1	6.514811E-1	6.385357E-1	6.250715E-1	6.070436E-1	6.169882E-1	6.195282E-1	6.166212E-1	6.228142E-1	6.586806E-1	6.556163E-1	5.512956E-1	6.644578E-1	5.986520E-1	7.566215E-1	6.772211E-1	6.255043E-1	6.612644E-1	6.314468E-1	6.961534E-1	5.726964E-1	5.822525E-1	6.891773E-1	6.059826E-1	6.184673E-1	6.247306E-1	7.034062E-1	6.084991E-1	6.311058E-1	6.297038E-1	7.076486E-1	6.028810E-1	6.052958E-1	5.963057E-1	6.794030E-1	5.623604E-1	6.021774E-1	6.121440E-1	6.115421E-1	6.135243E-1	6.321738E-1	6.477100E-1	6.750794E-1	5.947611E-1	5.676406E-1	6.328920E-1	7.048787E-1	5.855046E-1	6.185218E-1	6.194378E-1	6.543909E-1	6.547236E-1	6.036928E-1	6.206413E-1	6.357703E-1	6.250534E-1	5.819389E-1	6.223106E-1	6.472888E-1	6.219219E-1	5.498684E-1	6.374280E-1	6.890617E-1	5.879700E-1	6.090864E-1	6.469446E-1	6.243686E-1	5.289264E-1	5.388529E-1	5.949452E-1	6.146699E-1	6.268160E-1	5.743672E-1	6.550388E-1	6.447519E-1	5.295121E-1	5.546823E-1	7.082990E-1	6.905928E-1	6.533884E-1	6.299556E-1	6.047742E-1	6.245154E-1
2.852010E+2	4.933461E-1	5.126053E-1	5.237677E-1	4.710535E-1	5.095520E-1	5.471919E-1	5.500484E-1	4.661649E-1	4.698098E-1	5.328355E-1	5.412956E-1	4.738125E-1	4.763062E-1	4.600335E-1	5.108975E-1	4.492913E-1	4.837505E-1	4.051801E-1	5.065647E-1	4.373981E-1	4.126673E-1	4.653845E-1	5.564209E-1	4.633389E-1	4.080169E-1	4.542288E-1	5.254351E-1	4.817458E-1	4.533520E-1	4.889677E-1	4.340130E-1	5.120095E-1	4.587082E-1	5.193092E-1	4.681099E-1	4.906607E-1	4.807046E-1	5.442778E-1	5.267330E-1	4.610752E-1	4.508906E-1	5.128754E-1	4.908815E-1	4.698697E-1	4.387954E-1	4.936173E-1	4.864570E-1	4.845908E-1	4.704001E-1	5.271777E-1	4.958078E-1	4.776866E-1	4.489294E-1	5.296746E-1	4.796088E-1	5.088900E-1	4.763459E-1	4.752895E-1	4.312065E-1	5.196385E-1	3.943738E-1	4.677479E-1	4.476800E-1	4.702421E-1	4.873307E-1	4.704223E-1	4.409890E-1	5.038423E-1	4.726908E-1	5.541903E-1	4.437515E-1	4.820464E-1	4.904019E-1	5.025580E-1	4.529775E-1	5.019197E-1	4.457867E-1	4.591400E-1	4.375564E-1	4.761700E-1	4.628892E-1	5.134625E-1	3.959494E-1	4.325651E-1	4.957116E-1	5.046376E-1	4.735501E-1	4.586538E-1	4.785391E-1	4.946968E-1	4.758407E-1	4.771961E-1	5.083345E-1	4.821596E-1	4.960394E-1	4.544126E-1	4.753634E-1	4.678659E-1	4.021903E-1	4.281648E-1	4.913840E-1	5.632203E-1	4.462513E-1	4.723436E-1	5.033880E-1	5.001673E-1	5.257070E-1	4.620131E-1	4.463089E-1	5.359239E-1	4.465286E-1	4.978860E-1	4.687488E-1	5.053669E-1	4.797737E-1	4.537314E-1	4.724592E-1	5.327154E-1	4.530358E-1	4.556761E-1	4.697757E-1	5.079645E-1	4.275677E-1	4.526647E-1	4.610314E-1	5.227337E-1	4.099282E-1	4.581422E-1	4.563595E-1	4.993672E-1	4.206018E-1	4.521889E-1	4.872695E-1	5.639900E-1	4.253475E-1	4.637366E-1	4.978032E-1	4.981696E-1	4.415256E-1	4.858538E-1	4.272434E-1	4.863962E-1	4.476594E-1	4.307589E-1	5.209397E-1	5.262162E-1	4.412008E-1	4.056431E-1	4.919776E-1	5.379312E-1	4.644114E-1	4.584962E-1	4.985789E-1	4.750760E-1	4.356812E-1	4.110905E-1	4.533636E-1	4.929382E-1	4.890552E-1	5.093650E-1	4.933054E-1	5.029309E-1	4.243978E-1	4.109826E-1	5.077541E-1	5.452376E-1	4.661710E-1	4.938938E-1	4.383626E-1	5.310340E-1
2.853020E+2	5.320579E-1	5.271827E-1	5.438747E-1	4.885995E-1	5.132847E-1	5.787711E-1	5.678367E-1	4.766696E-1	4.738876E-1	5.514668E-1	5.342691E-1	4.626890E-1	5.172244E-1	5.191863E-1	5.355187E-1	5.068180E-1	5.073137E-1	4.174668E-1	5.457653E-1	5.161586E-1	4.771930E-1	5.730449E-1	5.973519E-1	4.706056E-1	4.618498E-1	4.631266E-1	5.213205E-1	5.082414E-1	4.686731E-1	5.038523E-1	4.837937E-1	5.759632E-1	4.905196E-1	6.144660E-1	5.016171E-1	4.976036E-1	5.212898E-1	5.857820E-1	5.873683E-1	4.974561E-1	4.864439E-1	5.378729E-1	5.053996E-1	4.477305E-1	4.581136E-1	5.286041E-1	5.084585E-1	5.078915E-1	4.685918E-1	4.917842E-1	5.499016E-1	4.665517E-1	4.781255E-1	5.886892E-1	5.779248E-1	5.393588E-1	4.664597E-1	5.011689E-1	5.073880E-1	5.137716E-1	5.098808E-1	5.188095E-1	4.711620E-1	5.543648E-1	4.769840E-1	5.309962E-1	4.778823E-1	4.918468E-1	5.289944E-1	5.249141E-1	5.425686E-1	4.930029E-1	4.904028E-1	4.888031E-1	4.529766E-1	4.847449E-1	4.826283E-1	4.572513E-1	4.735359E-1	5.348234E-1	5.043255E-1	5.163762E-1	4.153597E-1	4.903027E-1	5.222005E-1	5.727888E-1	4.853245E-1	4.842655E-1	5.270470E-1	5.334624E-1	4.990317E-1	4.742676E-1	5.217964E-1	5.002345E-1	4.803911E-1	5.025278E-1	4.931714E-1	4.940879E-1	4.346046E-1	4.959803E-1	4.586581E-1	5.427085E-1	5.474289E-1	5.115681E-1	4.883990E-1	5.184608E-1	5.436487E-1	4.600011E-1	4.736864E-1	5.514560E-1	4.684893E-1	5.201476E-1	4.312721E-1	5.472067E-1	4.744473E-1	4.861546E-1	4.844838E-1	5.919818E-1	5.066837E-1	4.859670E-1	4.212565E-1	6.059299E-1	4.432413E-1	4.653003E-1	4.932037E-1	5.558008E-1	4.686583E-1	5.280962E-1	5.214586E-1	5.249461E-1	4.857895E-1	4.732711E-1	5.055869E-1	6.298732E-1	4.767186E-1	5.144417E-1	5.215362E-1	5.409564E-1	4.817513E-1	5.005827E-1	4.748489E-1	5.017861E-1	4.664732E-1	4.646438E-1	5.067689E-1	5.372235E-1	4.968882E-1	3.753278E-1	5.499477E-1	5.634601E-1	4.765648E-1	5.771115E-1	5.212464E-1	5.419999E-1	4.928323E-1	4.091402E-1	4.899308E-1	5.338189E-1	5.140119E-1	4.968985E-1	5.186751E-1	5.123163E-1	4.812162E-1	4.406490E-1	5.327024E-1	5.969403E-1	5.114852E-1	4.954402E-1	5.475691E-1	5.357083E-1
2.854130E+2	3.879647E-1	4.542974E-1	4.656812E-1	3.866120E-1	4.414431E-1	4.422664E-1	4.914500E-1	3.487026E-1	4.249476E-1	4.510642E-1	4.218512E-1	3.140342E-1	4.144528E-1	4.144579E-1	4.436637E-1	3.949168E-1	4.109182E-1	3.305120E-1	4.252245E-1	4.003334E-1	3.894377E-1	4.392244E-1	4.774138E-1	4.052073E-1	3.686779E-1	4.047925E-1	4.369684E-1	3.566870E-1	4.073850E-1	4.462994E-1	4.086705E-1	4.860571E-1	4.030383E-1	5.113805E-1	4.234328E-1	4.390818E-1	3.961518E-1	4.583048E-1	4.735602E-1	3.883147E-1	3.699067E-1	4.068836E-1	4.666830E-1	3.992330E-1	3.943623E-1	4.531065E-1	4.501057E-1	4.307608E-1	4.052744E-1	4.552854E-1	4.264049E-1	3.531815E-1	4.270325E-1	4.556389E-1	4.558394E-1	4.499182E-1	3.738923E-1	4.471598E-1	4.495279E-1	4.762186E-1	3.782775E-1	3.826478E-1	3.733198E-1	3.906433E-1	4.337129E-1	4.544816E-1	4.051798E-1	4.231479E-1	4.213269E-1	4.858790E-1	4.563455E-1	3.734047E-1	3.925760E-1	4.111909E-1	4.692759E-1	3.907857E-1	4.108327E-1	4.289258E-1	4.052676E-1	3.823255E-1	4.139178E-1	4.289449E-1	3.200767E-1	4.027341E-1	4.384612E-1	4.771875E-1	4.746207E-1	4.220667E-1	4.047223E-1	4.039068E-1	4.476073E-1	3.854253E-1	4.246807E-1	3.899788E-1	4.058321E-1	3.590422E-1	4.324149E-1	4.395460E-1	3.586625E-1	4.059135E-1	3.922969E-1	4.323330E-1	4.472741E-1	4.004327E-1	4.024666E-1	4.312987E-1	4.379917E-1	4.428954E-1	3.792803E-1	4.613673E-1	3.577316E-1	3.995659E-1	3.958225E-1	4.635280E-1	4.673457E-1	3.736268E-1	4.012365E-1	4.772718E-1	4.123372E-1	3.868320E-1	4.088881E-1	4.202045E-1	4.098040E-1	3.273704E-1	3.947369E-1	4.206980E-1	3.844790E-1	4.197532E-1	4.228238E-1	4.415380E-1	3.962770E-1	3.869330E-1	4.213275E-1	5.021607E-1	4.334048E-1	4.263737E-1	4.335247E-1	4.514026E-1	3.962708E-1	3.858996E-1	3.945140E-1	4.031097E-1	4.019667E-1	3.812345E-1	3.966780E-1	4.801892E-1	3.981222E-1	3.330703E-1	4.129284E-1	4.409221E-1	3.742749E-1	4.430246E-1	4.439723E-1	4.215374E-1	3.223838E-1	3.164882E-1	3.867918E-1	4.248060E-1	4.121883E-1	3.900450E-1	4.045104E-1	4.580898E-1	4.196629E-1	3.516478E-1	4.357888E-1	4.437816E-1	3.671963E-1	4.227715E-1	4.851648E-1	5.170115E-1
2.855050E+2	3.610811E-1	3.982324E-1	3.819025E-1	3.076538E-1	3.416123E-1	3.658646E-1	4.056450E-1	3.515669E-1	3.076931E-1	3.941352E-1	3.877244E-1	3.281919E-1	3.430830E-1	3.708205E-1	3.698015E-1	3.255693E-1	3.584363E-1	3.125545E-1	3.879842E-1	3.104522E-1	3.240509E-1	3.536985E-1	4.212532E-1	3.361755E-1	3.231271E-1	3.652442E-1	3.670185E-1	3.174727E-1	3.269437E-1	3.827924E-1	3.163503E-1	4.072746E-1	3.394150E-1	3.652473E-1	3.564179E-1	3.746092E-1	3.056797E-1	4.118592E-1	3.868051E-1	3.363425E-1	3.570674E-1	3.818866E-1	3.824756E-1	3.454644E-1	3.537931E-1	3.730062E-1	3.429645E-1	3.239030E-1	3.256761E-1	3.712280E-1	3.784357E-1	3.481202E-1	3.713774E-1	4.009163E-1	3.823732E-1	3.988075E-1	3.127785E-1	3.503940E-1	3.309157E-1	3.917252E-1	3.318852E-1	3.530865E-1	3.635351E-1	3.372760E-1	3.283566E-1	3.556510E-1	4.008391E-1	3.359113E-1	3.324262E-1	3.921961E-1	4.263135E-1	3.597104E-1	3.436638E-1	3.551914E-1	3.765772E-1	3.433016E-1	3.267562E-1	3.854926E-1	3.010203E-1	3.513229E-1	3.348116E-1	3.832868E-1	2.777278E-1	3.257506E-1	3.419040E-1	3.929431E-1	3.761453E-1	3.589528E-1	3.393425E-1	3.661615E-1	3.679500E-1	3.317293E-1	3.727577E-1	3.574446E-1	3.073417E-1	3.160829E-1	3.381374E-1	3.640260E-1	2.910553E-1	3.328001E-1	3.541169E-1	3.913088E-1	3.828887E-1	3.621428E-1	3.355196E-1	3.979406E-1	3.413057E-1	3.322122E-1	3.179171E-1	3.578177E-1	3.300415E-1	3.355648E-1	3.218825E-1	3.621842E-1	3.670286E-1	3.383425E-1	3.346378E-1	4.151370E-1	3.781134E-1	3.721458E-1	3.480012E-1	3.702020E-1	3.314367E-1	3.621159E-1	3.791378E-1	3.677912E-1	3.492409E-1	3.003194E-1	3.823836E-1	4.170719E-1	3.612505E-1	3.186658E-1	3.434794E-1	3.997892E-1	3.669241E-1	2.991651E-1	3.732014E-1	3.857304E-1	3.761580E-1	3.227708E-1	3.409584E-1	3.632753E-1	3.526900E-1	3.334479E-1	3.792378E-1	3.711234E-1	3.182688E-1	3.091858E-1	3.749855E-1	4.021187E-1	3.722490E-1	3.563850E-1	3.625771E-1	3.504945E-1	3.534655E-1	3.369688E-1	3.089696E-1	3.603060E-1	3.433088E-1	3.054529E-1	3.083156E-1	3.684083E-1	3.770492E-1	3.136361E-1	3.571060E-1	4.115894E-1	3.576568E-1	3.423715E-1	3.135538E-1	4.141820E-1
2.856030E+2	3.062393E-1	3.343177E-1	2.947731E-1	2.594014E-1	3.145554E-1	3.291920E-1	3.208874E-1	2.789881E-1	2.658896E-1	3.009781E-1	3.024076E-1	2.594263E-1	2.888425E-1	2.738497E-1	2.997274E-1	2.814385E-1	2.545441E-1	2.813632E-1	3.154627E-1	2.465168E-1	2.457592E-1	2.782353E-1	3.003630E-1	2.735021E-1	2.734355E-1	2.752707E-1	3.094120E-1	2.877979E-1	2.579947E-1	3.083703E-1	3.000586E-1	2.840025E-1	2.747986E-1	3.199343E-1	3.137720E-1	2.962489E-1	2.608670E-1	3.347794E-1	3.466925E-1	2.731096E-1	2.770714E-1	3.108923E-1	3.195616E-1	2.547966E-1	2.813489E-1	2.523949E-1	2.970473E-1	2.781065E-1	2.695958E-1	2.849583E-1	2.937228E-1	2.499334E-1	2.883526E-1	3.311729E-1	3.402376E-1	3.132977E-1	2.336916E-1	3.065115E-1	2.855925E-1	2.990180E-1	2.599300E-1	2.823192E-1	2.754767E-1	2.911441E-1	2.728569E-1	3.003911E-1	3.465838E-1	2.617595E-1	2.563670E-1	3.434024E-1	3.216837E-1	2.547202E-1	3.143164E-1	3.050866E-1	2.706358E-1	2.776320E-1	2.303979E-1	2.939072E-1	2.807240E-1	2.985348E-1	3.009085E-1	3.288847E-1	2.309688E-1	2.814839E-1	2.974714E-1	3.333110E-1	3.322601E-1	2.821177E-1	2.739624E-1	2.723101E-1	2.620755E-1	2.887724E-1	2.458349E-1	2.896643E-1	2.677608E-1	2.705456E-1	2.857609E-1	2.874575E-1	2.132618E-1	2.713436E-1	2.668472E-1	3.209817E-1	3.317889E-1	2.528764E-1	2.825604E-1	3.021713E-1	2.874813E-1	3.090699E-1	2.962025E-1	2.708354E-1	3.013975E-1	3.003180E-1	2.560456E-1	3.249940E-1	2.604977E-1	2.820784E-1	2.782155E-1	3.090305E-1	3.050412E-1	2.748472E-1	2.309841E-1	2.814214E-1	2.927752E-1	2.462964E-1	2.952946E-1	2.581980E-1	2.865955E-1	2.474282E-1	2.719124E-1	3.203180E-1	2.581165E-1	2.493950E-1	2.564723E-1	3.126209E-1	3.256265E-1	2.626922E-1	2.733221E-1	3.051323E-1	3.540335E-1	2.859464E-1	2.665735E-1	2.935681E-1	2.702648E-1	2.752349E-1	2.985766E-1	2.730653E-1	2.604805E-1	2.503932E-1	3.012055E-1	3.143002E-1	3.317379E-1	2.841842E-1	2.708787E-1	2.701862E-1	3.033334E-1	2.335884E-1	2.799027E-1	3.121587E-1	2.774235E-1	2.573687E-1	2.818891E-1	2.828993E-1	3.353825E-1	2.450310E-1	2.870594E-1	3.120844E-1	3.206898E-1	2.588795E-1	2.407489E-1	3.066781E-1
2.858040E+2	3.062399E-1	3.376818E-1	3.696156E-1	2.846242E-1	2.930960E-1	3.037248E-1	3.470475E-1	2.627535E-1	2.873009E-1	3.309955E-1	3.385418E-1	2.483024E-1	3.173902E-1	2.583347E-1	2.769999E-1	2.869554E-1	2.909600E-1	2.265444E-1	3.095824E-1	2.622694E-1	2.870562E-1	2.943345E-1	3.194011E-1	2.989344E-1	3.055277E-1	2.772487E-1	3.155845E-1	3.429081E-1	2.838502E-1	3.103554E-1	3.045844E-1	3.127352E-1	2.877217E-1	3.550514E-1	3.218948E-1	3.041839E-1	2.642492E-1	3.357682E-1	3.168416E-1	2.973631E-1	2.800340E-1	3.298905E-1	3.079474E-1	2.990765E-1	2.803829E-1	3.113197E-1	3.381814E-1	2.997997E-1	2.913047E-1	3.159271E-1	3.049502E-1	2.711906E-1	3.111612E-1	3.590705E-1	3.640065E-1	2.847944E-1	2.633489E-1	2.952598E-1	3.010215E-1	3.330497E-1	2.911735E-1	3.091934E-1	2.872185E-1	2.848125E-1	2.897894E-1	3.035796E-1	3.335625E-1	2.912022E-1	2.613062E-1	3.316917E-1	3.255590E-1	2.665878E-1	3.143160E-1	3.208061E-1	3.113826E-1	3.180447E-1	2.842450E-1	3.099583E-1	2.871819E-1	2.817766E-1	2.820736E-1	3.084844E-1	2.177348E-1	2.766729E-1	2.983255E-1	3.143801E-1	3.097822E-1	3.141328E-1	3.193071E-1	2.600688E-1	2.933336E-1	2.546019E-1	2.862192E-1	2.878568E-1	3.018191E-1	2.937438E-1	3.067112E-1	3.241691E-1	2.679029E-1	3.031313E-1	3.013913E-1	3.366095E-1	3.287228E-1	2.921001E-1	2.915535E-1	2.903340E-1	2.944578E-1	2.678145E-1	2.631609E-1	3.402134E-1	2.975786E-1	2.771289E-1	2.793412E-1	3.184854E-1	3.279674E-1	3.097337E-1	3.263141E-1	3.233693E-1	3.272400E-1	2.638319E-1	2.804551E-1	2.957082E-1	2.562032E-1	2.452435E-1	2.640980E-1	2.959887E-1	2.856167E-1	2.832578E-1	3.498337E-1	3.080848E-1	3.038459E-1	3.146508E-1	3.269936E-1	3.237699E-1	3.165608E-1	2.662511E-1	3.079335E-1	3.270231E-1	2.906767E-1	3.048844E-1	2.864098E-1	2.827050E-1	2.657853E-1	3.013006E-1	2.931269E-1	2.850726E-1	2.888486E-1	2.641727E-1	2.959352E-1	3.153215E-1	3.357898E-1	2.728385E-1	3.079704E-1	3.134289E-1	3.053390E-1	2.452921E-1	2.799033E-1	2.885395E-1	3.023802E-1	2.555873E-1	3.062021E-1	3.465101E-1	3.325414E-1	2.858231E-1	3.196832E-1	3.267172E-1	3.469237E-1	2.928952E-1	2.225477E-1	3.160262E-1
2.860020E+2	4.374290E-1	5.204554E-1	4.958416E-1	4.129312E-1	4.545054E-1	4.493970E-1	5.249354E-1	4.671196E-1	4.208686E-1	4.997131E-1	4.188405E-1	4.505529E-1	3.935184E-1	4.454884E-1	4.313535E-1	4.351063E-1	4.409084E-1	3.569766E-1	4.516848E-1	4.299837E-1	4.092256E-1	4.623660E-1	4.955001E-1	4.242821E-1	4.090521E-1	4.127020E-1	4.698864E-1	4.425317E-1	4.428175E-1	4.701144E-1	4.484943E-1	4.795693E-1	4.716315E-1	4.989190E-1	4.579557E-1	4.797497E-1	4.291269E-1	5.087021E-1	5.034114E-1	4.212302E-1	4.182988E-1	4.698786E-1	4.966891E-1	4.203190E-1	3.982264E-1	5.203173E-1	4.797604E-1	4.315645E-1	4.287927E-1	4.586036E-1	4.764161E-1	4.108794E-1	4.087848E-1	4.910468E-1	5.044583E-1	4.587627E-1	3.864739E-1	4.156549E-1	4.013121E-1	4.621374E-1	4.350849E-1	4.337088E-1	4.418094E-1	4.105434E-1	4.290096E-1	4.555454E-1	4.008391E-1	4.220572E-1	4.272535E-1	5.395525E-1	5.047854E-1	4.236168E-1	4.219243E-1	4.328045E-1	4.764063E-1	4.392808E-1	4.023308E-1	4.723581E-1	4.458593E-1	4.225445E-1	4.336948E-1	4.542028E-1	3.209586E-1	4.017711E-1	4.769131E-1	4.923317E-1	4.392984E-1	4.421899E-1	4.205410E-1	4.834764E-1	4.284495E-1	3.873776E-1	4.169881E-1	4.532400E-1	4.076732E-1	4.277781E-1	4.146066E-1	4.689151E-1	3.373619E-1	4.408803E-1	4.222958E-1	4.714038E-1	4.728237E-1	3.873580E-1	4.474321E-1	4.183857E-1	4.280239E-1	4.479268E-1	3.811680E-1	4.748286E-1	4.217037E-1	4.153340E-1	4.424145E-1	4.904912E-1	4.282841E-1	4.070038E-1	4.465594E-1	4.791837E-1	4.474855E-1	4.189599E-1	4.336232E-1	4.538801E-1	4.432413E-1	4.231842E-1	4.113105E-1	4.802189E-1	3.981817E-1	4.146345E-1	4.642495E-1	4.615556E-1	4.332497E-1	4.270908E-1	4.350658E-1	4.889844E-1	4.877982E-1	4.174787E-1	4.414350E-1	4.902094E-1	4.636497E-1	4.174638E-1	4.441034E-1	4.646686E-1	3.912152E-1	4.125139E-1	4.293788E-1	4.151503E-1	4.622152E-1	3.744091E-1	4.751138E-1	4.735984E-1	4.826415E-1	4.296160E-1	4.388202E-1	4.462483E-1	4.176340E-1	3.896348E-1	4.261732E-1	4.457004E-1	4.361477E-1	3.829208E-1	4.489079E-1	4.351488E-1	4.471249E-1	3.664810E-1	4.463434E-1	4.993871E-1	4.983680E-1	4.335940E-1	4.305615E-1	4.469005E-1
2.862030E+2	7.256142E-1	8.075104E-1	7.918581E-1	6.838023E-1	7.334722E-1	8.375180E-1	7.938589E-1	7.631639E-1	6.512978E-1	7.677977E-1	7.761674E-1	7.610071E-1	6.894628E-1	6.772490E-1	6.737740E-1	6.959474E-1	6.883220E-1	5.375018E-1	7.084469E-1	7.237172E-1	6.320568E-1	7.229660E-1	7.306157E-1	7.767068E-1	6.544035E-1	6.420845E-1	6.992821E-1	7.233858E-1	6.257248E-1	7.797101E-1	6.548566E-1	7.372356E-1	6.336715E-1	8.387621E-1	7.229706E-1	6.930076E-1	6.844768E-1	7.666215E-1	7.674089E-1	7.010144E-1	6.345850E-1	7.188575E-1	7.202753E-1	7.186825E-1	6.841415E-1	7.265537E-1	7.294372E-1	7.023246E-1	6.413555E-1	7.328956E-1	7.417799E-1	6.588767E-1	6.779334E-1	7.292495E-1	7.237793E-1	6.828585E-1	6.587866E-1	7.127030E-1	7.349700E-1	6.944929E-1	6.661009E-1	6.603445E-1	6.433647E-1	7.135631E-1	6.735856E-1	7.339715E-1	7.285418E-1	6.892193E-1	6.643198E-1	7.542432E-1	7.527962E-1	6.664655E-1	7.023566E-1	6.764492E-1	7.402410E-1	6.615477E-1	6.715654E-1	7.093487E-1	6.617342E-1	7.049182E-1	7.181026E-1	6.679235E-1	5.379929E-1	6.375346E-1	6.930978E-1	7.564206E-1	7.914544E-1	6.452519E-1	6.873351E-1	7.232052E-1	6.391886E-1	6.822170E-1	6.727568E-1	6.791744E-1	6.718497E-1	6.820986E-1	7.581954E-1	7.258921E-1	5.855622E-1	6.824708E-1	7.204657E-1	8.074124E-1	7.548925E-1	6.199005E-1	6.902417E-1	7.336739E-1	6.742247E-1	6.320627E-1	6.379533E-1	7.243835E-1	6.947788E-1	6.694832E-1	6.723357E-1	6.634266E-1	7.292344E-1	6.406424E-1	7.231248E-1	7.611790E-1	7.702989E-1	6.713867E-1	6.495827E-1	7.600207E-1	6.867033E-1	6.358710E-1	7.057363E-1	7.371966E-1	5.870965E-1	6.756815E-1	7.039320E-1	7.518151E-1	7.017880E-1	6.680334E-1	6.805167E-1	7.535304E-1	7.829314E-1	6.781229E-1	7.272284E-1	7.339939E-1	6.989733E-1	6.426225E-1	6.682476E-1	6.973303E-1	7.289812E-1	6.853315E-1	7.007912E-1	7.593561E-1	7.469559E-1	6.086616E-1	7.617989E-1	7.881118E-1	7.216565E-1	6.740668E-1	7.427643E-1	7.396835E-1	7.434914E-1	5.983443E-1	6.633918E-1	6.664501E-1	6.897063E-1	6.340270E-1	7.036644E-1	7.657174E-1	7.321642E-1	5.815687E-1	7.130961E-1	8.193633E-1	8.012561E-1	7.536466E-1	6.801776E-1	7.273451E-1
2.864080E+2	6.890539E-1	8.086307E-1	7.572304E-1	7.156050E-1	6.896220E-1	7.713040E-1	7.593279E-1	8.061382E-1	7.043168E-1	7.077636E-1	7.028951E-1	7.104448E-1	6.818512E-1	7.044001E-1	6.860844E-1	6.596981E-1	6.947477E-1	5.668019E-1	7.045270E-1	6.736806E-1	6.243132E-1	8.004416E-1	7.677406E-1	7.585399E-1	6.399110E-1	6.193440E-1	6.684216E-1	7.308046E-1	5.960381E-1	6.973505E-1	6.231788E-1	7.613344E-1	6.615062E-1	7.730590E-1	7.260165E-1	7.703761E-1	6.396641E-1	7.399405E-1	7.888640E-1	7.685789E-1	6.395229E-1	6.368640E-1	6.834951E-1	6.775656E-1	7.044253E-1	6.832808E-1	6.959554E-1	7.047354E-1	6.485919E-1	6.632175E-1	7.029970E-1	6.548272E-1	6.460010E-1	7.592926E-1	7.518692E-1	7.231563E-1	5.976729E-1	7.284564E-1	6.771096E-1	7.989373E-1	5.931983E-1	7.024470E-1	6.492349E-1	6.855228E-1	6.980436E-1	7.286578E-1	7.003290E-1	7.797274E-1	6.593809E-1	7.357014E-1	7.179200E-1	7.486313E-1	7.001833E-1	6.931511E-1	7.259791E-1	7.383316E-1	6.649520E-1	6.158741E-1	6.359036E-1	6.571578E-1	7.199865E-1	7.514691E-1	5.344636E-1	6.866124E-1	7.101875E-1	7.867101E-1	7.582721E-1	7.147678E-1	6.883899E-1	6.456762E-1	6.795220E-1	6.177822E-1	6.621805E-1	6.855006E-1	6.930213E-1	6.348427E-1	6.660136E-1	7.175000E-1	6.142717E-1	6.888292E-1	6.722863E-1	8.318326E-1	7.344529E-1	6.525869E-1	6.602655E-1	7.121521E-1	6.831961E-1	6.240131E-1	6.143510E-1	7.368099E-1	6.680449E-1	6.398013E-1	6.510656E-1	7.117742E-1	7.185812E-1	6.606683E-1	7.055515E-1	7.334583E-1	7.370013E-1	6.466024E-1	6.790743E-1	7.416510E-1	6.835691E-1	5.990190E-1	6.930624E-1	7.041291E-1	6.233135E-1	6.364395E-1	7.088641E-1	6.394925E-1	7.056787E-1	6.369119E-1	6.905912E-1	7.575845E-1	7.275311E-1	6.194117E-1	6.688837E-1	6.732970E-1	7.210976E-1	6.847079E-1	6.404778E-1	7.045724E-1	6.922482E-1	5.975782E-1	7.204108E-1	7.063243E-1	6.797103E-1	5.416003E-1	7.133152E-1	7.196953E-1	8.340740E-1	6.977896E-1	6.871266E-1	6.737888E-1	6.682937E-1	6.119991E-1	6.305741E-1	6.546409E-1	6.617554E-1	6.384792E-1	6.592670E-1	6.854214E-1	7.501563E-1	6.019646E-1	6.823910E-1	7.140050E-1	7.583263E-1	7.103558E-1	6.099733E-1	6.852782E-1
2.866030E+2	6.299115E-1	7.021063E-1	6.432920E-1	5.554948E-1	6.159154E-1	6.480427E-1	6.180640E-1	6.227820E-1	6.298863E-1	6.560094E-1	6.436762E-1	6.477468E-1	6.257067E-1	6.035508E-1	5.838134E-1	5.950790E-1	5.501559E-1	4.779567E-1	6.427872E-1	5.791675E-1	5.683897E-1	6.535399E-1	6.411394E-1	6.368261E-1	5.550208E-1	5.570552E-1	6.211019E-1	6.438988E-1	5.749705E-1	6.685729E-1	5.770186E-1	6.983079E-1	6.088188E-1	7.039580E-1	6.559545E-1	6.622585E-1	5.669483E-1	6.381565E-1	7.105057E-1	6.750286E-1	5.763158E-1	6.408640E-1	6.138053E-1	6.280130E-1	5.865824E-1	6.363249E-1	6.155991E-1	5.922526E-1	5.590433E-1	5.902202E-1	6.417583E-1	5.617021E-1	5.985576E-1	6.659437E-1	6.708396E-1	6.022635E-1	5.293708E-1	6.294394E-1	6.057494E-1	6.581135E-1	5.477529E-1	5.859933E-1	6.326019E-1	6.439141E-1	5.588229E-1	6.128237E-1	6.091801E-1	7.055766E-1	5.447993E-1	6.107903E-1	6.946689E-1	6.609868E-1	6.262706E-1	6.175031E-1	5.945714E-1	6.170939E-1	5.515903E-1	5.809392E-1	5.547188E-1	6.362099E-1	6.041516E-1	6.465514E-1	5.168184E-1	5.932692E-1	5.982495E-1	6.267426E-1	6.394600E-1	6.525690E-1	5.850457E-1	6.089514E-1	6.200305E-1	6.812406E-1	6.112186E-1	5.680148E-1	5.816439E-1	5.910239E-1	5.696408E-1	6.094652E-1	4.818368E-1	6.008809E-1	5.704721E-1	6.433164E-1	6.588257E-1	6.712659E-1	6.123027E-1	6.099259E-1	6.562826E-1	6.421246E-1	5.794210E-1	6.446510E-1	6.346262E-1	5.934232E-1	5.994087E-1	6.122897E-1	5.632228E-1	5.986820E-1	6.028796E-1	6.732348E-1	6.398788E-1	6.209004E-1	6.181877E-1	6.743014E-1	6.543116E-1	6.432408E-1	5.507246E-1	6.115421E-1	5.420705E-1	6.014623E-1	5.816248E-1	6.061293E-1	5.782217E-1	5.616168E-1	6.237332E-1	6.582539E-1	6.378831E-1	5.669262E-1	6.411929E-1	6.185692E-1	6.265658E-1	5.668679E-1	5.432815E-1	5.760202E-1	5.596502E-1	6.062663E-1	5.743499E-1	6.222745E-1	6.166683E-1	4.580055E-1	6.332120E-1	6.655747E-1	6.598765E-1	5.925837E-1	6.088233E-1	5.687692E-1	6.462360E-1	4.988664E-1	5.696290E-1	6.582744E-1	6.258180E-1	5.592300E-1	6.000708E-1	6.249392E-1	6.734518E-1	4.897852E-1	6.344134E-1	6.779104E-1	6.963183E-1	6.036707E-1	6.437757E-1	5.590787E-1
2.868020E+2	1.126709E+0	1.119233E+0	1.093459E+0	1.004021E+0	1.011508E+0	1.101360E+0	1.080573E+0	1.131787E+0	9.999996E-1	1.103162E+0	1.096358E+0	1.017865E+0	1.059633E+0	1.006949E+0	1.029830E+0	9.386642E-1	9.732237E-1	9.032782E-1	1.022050E+0	1.014672E+0	9.460842E-1	1.105314E+0	1.122793E+0	1.122774E+0	9.515162E-1	9.139816E-1	9.718816E-1	1.051931E+0	9.082273E-1	1.056561E+0	9.426770E-1	1.081100E+0	9.130155E-1	1.069856E+0	9.869697E-1	1.124484E+0	9.144609E-1	1.107549E+0	1.091108E+0	1.083011E+0	8.992637E-1	9.528370E-1	9.970968E-1	1.088736E+0	9.574989E-1	9.898722E-1	1.111127E+0	9.955809E-1	1.002262E+0	1.001659E+0	1.038785E+0	9.402778E-1	9.297471E-1	1.103722E+0	1.087873E+0	1.019985E+0	8.816687E-1	9.827472E-1	9.413363E-1	1.106399E+0	9.065832E-1	9.416236E-1	9.711367E-1	9.876375E-1	1.017873E+0	1.051717E+0	9.802876E-1	1.107956E+0	9.527514E-1	1.090918E+0	1.076373E+0	1.131162E+0	1.027355E+0	1.047812E+0	1.042784E+0	1.069711E+0	9.171828E-1	9.718318E-1	9.689419E-1	1.022484E+0	9.865017E-1	1.032220E+0	7.894353E-1	1.086928E+0	9.545699E-1	1.082035E+0	1.050487E+0	1.109001E+0	9.762723E-1	1.017002E+0	9.830268E-1	1.030753E+0	9.785247E-1	9.882515E-1	9.673233E-1	9.372789E-1	1.015888E+0	1.015384E+0	8.485795E-1	1.032141E+0	9.350025E-1	1.088724E+0	1.035940E+0	1.081250E+0	9.710229E-1	9.962341E-1	1.009137E+0	1.033540E+0	9.815909E-1	1.038142E+0	1.003182E+0	9.653719E-1	9.377081E-1	1.058576E+0	1.087000E+0	1.035443E+0	9.293938E-1	1.157885E+0	1.051490E+0	1.117493E+0	1.041543E+0	9.886052E-1	1.057644E+0	1.058085E+0	9.679902E-1	9.922841E-1	9.492649E-1	9.580558E-1	1.039289E+0	1.052084E+0	1.050107E+0	1.005354E+0	1.026713E+0	1.168086E+0	1.074035E+0	1.073093E+0	1.005109E+0	9.668321E-1	1.041903E+0	1.076105E+0	9.826441E-1	1.007846E+0	9.726737E-1	9.538068E-1	9.558546E-1	1.068541E+0	1.021190E+0	8.401570E-1	1.035835E+0	1.093435E+0	1.160187E+0	1.055697E+0	1.051859E+0	9.353078E-1	1.040273E+0	8.558196E-1	9.465551E-1	9.980319E-1	9.083259E-1	9.919856E-1	9.964768E-1	1.038931E+0	1.062658E+0	8.457929E-1	9.702537E-1	1.105195E+0	1.086255E+0	9.716545E-1	1.007800E+0	1.017139E+0
2.870030E+2	1.028855E+0	1.136052E+0	1.062183E+0	9.535760E-1	1.022703E+0	1.113584E+0	1.060691E+0	1.132743E+0	9.194525E-1	1.036918E+0	1.088328E+0	9.986515E-1	1.009199E+0	9.293726E-1	9.919510E-1	9.717614E-1	9.475185E-1	8.125432E-1	9.671694E-1	1.009111E+0	9.082289E-1	1.084184E+0	1.097092E+0	1.084624E+0	9.028604E-1	9.011284E-1	9.934847E-1	1.090085E+0	9.532355E-1	1.041676E+0	9.082833E-1	1.051440E+0	9.438323E-1	1.023411E+0	1.024539E+0	1.104645E+0	8.772571E-1	1.138183E+0	1.051929E+0	1.104667E+0	9.061770E-1	1.015832E+0	1.021293E+0	1.105604E+0	9.188624E-1	9.944759E-1	1.001116E+0	9.674607E-1	9.479902E-1	9.939167E-1	1.040826E+0	9.574859E-1	8.905155E-1	1.101576E+0	1.079230E+0	9.855855E-1	9.400850E-1	9.939991E-1	9.702660E-1	1.038335E+0	8.876477E-1	9.899965E-1	9.711369E-1	9.876386E-1	9.002886E-1	1.062345E+0	9.943936E-1	1.037076E+0	9.102765E-1	1.123122E+0	1.079279E+0	1.132075E+0	9.545289E-1	9.859187E-1	9.755514E-1	1.052537E+0	8.907316E-1	9.227347E-1	9.145118E-1	9.495855E-1	9.949772E-1	1.018620E+0	7.409109E-1	1.015719E+0	9.332080E-1	1.085820E+0	1.082598E+0	1.068755E+0	9.868190E-1	9.843579E-1	9.789936E-1	1.006346E+0	9.823716E-1	9.620435E-1	9.305043E-1	9.621960E-1	9.415134E-1	9.912597E-1	8.346883E-1	9.992930E-1	9.513664E-1	1.118026E+0	1.100325E+0	1.041092E+0	9.620299E-1	9.435068E-1	9.283989E-1	1.056684E+0	8.598070E-1	1.030892E+0	9.745388E-1	9.598062E-1	8.181892E-1	1.042770E+0	9.387448E-1	9.791791E-1	9.478929E-1	1.056558E+0	1.122713E+0	1.130344E+0	9.616283E-1	9.875844E-1	9.980843E-1	1.045450E+0	9.660400E-1	1.037634E+0	9.013008E-1	8.957804E-1	9.574219E-1	1.083222E+0	9.537839E-1	9.551576E-1	1.005647E+0	1.042401E+0	1.077057E+0	1.044627E+0	9.902756E-1	1.037481E+0	1.090173E+0	1.002455E+0	8.933830E-1	1.050395E+0	9.914882E-1	9.346926E-1	1.014716E+0	9.994992E-1	1.046406E+0	8.217845E-1	1.004216E+0	1.043399E+0	1.096382E+0	1.062918E+0	9.838587E-1	9.620766E-1	1.044283E+0	8.889798E-1	9.484301E-1	9.780456E-1	9.492548E-1	9.955478E-1	1.023961E+0	1.034761E+0	1.043719E+0	8.485740E-1	1.013434E+0	1.073978E+0	1.131569E+0	1.058239E+0	1.015602E+0	1.017137E+0
2.872040E+2	8.062635E-1	9.005775E-1	8.834548E-1	8.099155E-1	7.997158E-1	8.395564E-1	8.974530E-1	8.548426E-1	8.134137E-1	8.506040E-1	8.464292E-1	8.358401E-1	8.141219E-1	7.780977E-1	7.760453E-1	7.952407E-1	8.307734E-1	6.641529E-1	8.054671E-1	8.061858E-1	7.180919E-1	8.245897E-1	8.933888E-1	8.330220E-1	7.392925E-1	8.062114E-1	7.538028E-1	8.961365E-1	7.971416E-1	8.471868E-1	7.580375E-1	8.753384E-1	8.175812E-1	9.191933E-1	8.113086E-1	8.427849E-1	7.757943E-1	8.723586E-1	8.709554E-1	9.080377E-1	7.343333E-1	8.338478E-1	8.557822E-1	8.167306E-1	7.556198E-1	8.793890E-1	7.954430E-1	8.509617E-1	7.480903E-1	8.058939E-1	8.530298E-1	7.793327E-1	7.655210E-1	8.741032E-1	8.923206E-1	8.509297E-1	7.270888E-1	7.948412E-1	7.889728E-1	8.939918E-1	6.869298E-1	7.741101E-1	7.744724E-1	7.741673E-1	6.942800E-1	8.540560E-1	7.806275E-1	8.386121E-1	7.838412E-1	8.284092E-1	8.884276E-1	9.303103E-1	7.338785E-1	7.609390E-1	8.064539E-1	7.878359E-1	7.887056E-1	7.197348E-1	7.632143E-1	8.071425E-1	7.510643E-1	8.738726E-1	6.235716E-1	8.502032E-1	8.007622E-1	8.084806E-1	8.728034E-1	9.086830E-1	7.706421E-1	8.037962E-1	8.307699E-1	8.149933E-1	8.266028E-1	7.740667E-1	7.951939E-1	8.058223E-1	8.262847E-1	8.454642E-1	6.902130E-1	7.820736E-1	7.622819E-1	8.757871E-1	8.438063E-1	8.795261E-1	7.821706E-1	7.734876E-1	8.227420E-1	8.403486E-1	7.691771E-1	8.237926E-1	7.797568E-1	7.900645E-1	7.493149E-1	8.893579E-1	8.322135E-1	8.132488E-1	8.193226E-1	8.835373E-1	9.423434E-1	9.375816E-1	8.113134E-1	8.426779E-1	7.640258E-1	8.222351E-1	7.934796E-1	8.458450E-1	7.926509E-1	7.575791E-1	8.410334E-1	8.252135E-1	8.399480E-1	8.206307E-1	8.124009E-1	8.994862E-1	8.584765E-1	8.533690E-1	8.073298E-1	8.235458E-1	8.266911E-1	7.888705E-1	7.872622E-1	8.123024E-1	7.504834E-1	7.809053E-1	7.749127E-1	8.454072E-1	7.774259E-1	6.702100E-1	8.745754E-1	8.963541E-1	9.252228E-1	7.988701E-1	8.406450E-1	8.220516E-1	8.728327E-1	7.368355E-1	7.721563E-1	7.954493E-1	8.065029E-1	7.586894E-1	7.998587E-1	8.345425E-1	8.656874E-1	6.650082E-1	8.080908E-1	9.510611E-1	8.883054E-1	8.696086E-1	8.049865E-1	8.769159E-1
2.874030E+2	6.578692E-1	6.942572E-1	7.226007E-1	5.587844E-1	6.308433E-1	7.183321E-1	7.331686E-1	6.581159E-1	6.747478E-1	6.684303E-1	6.336381E-1	6.204433E-1	7.189625E-1	6.113082E-1	6.122217E-1	6.029596E-1	6.026373E-1	6.679329E-1	5.996664E-1	5.939935E-1	5.993629E-1	7.310157E-1	7.191934E-1	7.212993E-1	6.471568E-1	5.708970E-1	6.272749E-1	7.265651E-1	6.707345E-1	6.546815E-1	6.086964E-1	6.705020E-1	6.704535E-1	6.359892E-1	6.234629E-1	7.406192E-1	5.745581E-1	7.152355E-1	7.543490E-1	6.992826E-1	6.632254E-1	6.228658E-1	6.786557E-1	6.259050E-1	7.102214E-1	6.261979E-1	6.988254E-1	6.010912E-1	6.892955E-1	5.990687E-1	6.540064E-1	6.153508E-1	6.569491E-1	6.949138E-1	6.978489E-1	6.258521E-1	5.877871E-1	6.091867E-1	5.845349E-1	6.557680E-1	6.225488E-1	6.182422E-1	6.198830E-1	6.149683E-1	6.754662E-1	6.489550E-1	6.612649E-1	7.252041E-1	5.813463E-1	7.444846E-1	6.781997E-1	7.157649E-1	5.458369E-1	6.155374E-1	6.465235E-1	6.635678E-1	5.893772E-1	5.960456E-1	6.026909E-1	6.521302E-1	6.427629E-1	6.620941E-1	4.947626E-1	6.971973E-1	6.546456E-1	6.617651E-1	6.876270E-1	7.019630E-1	6.578077E-1	6.058910E-1	6.280974E-1	6.519523E-1	6.669877E-1	6.457357E-1	6.018942E-1	6.253925E-1	6.702036E-1	6.598116E-1	5.550000E-1	6.475037E-1	5.895618E-1	7.175510E-1	7.651122E-1	7.310354E-1	6.482750E-1	6.303714E-1	6.493055E-1	6.692923E-1	5.624278E-1	6.560412E-1	6.031176E-1	5.934238E-1	5.801649E-1	6.439020E-1	6.280295E-1	6.549461E-1	6.204546E-1	6.952207E-1	6.981516E-1	7.209538E-1	6.181877E-1	6.110321E-1	6.219197E-1	6.421875E-1	6.374926E-1	6.493332E-1	5.959059E-1	5.835473E-1	6.378472E-1	7.217884E-1	6.716250E-1	6.800818E-1	6.063317E-1	7.555576E-1	6.892547E-1	6.905773E-1	5.779042E-1	6.533952E-1	6.094700E-1	6.510396E-1	5.968394E-1	6.095163E-1	5.981748E-1	6.305939E-1	5.917898E-1	6.823102E-1	6.009075E-1	5.333331E-1	7.090998E-1	6.992724E-1	6.608895E-1	7.019154E-1	5.624587E-1	6.480487E-1	6.081357E-1	5.398284E-1	5.893194E-1	6.837119E-1	6.417902E-1	6.162181E-1	6.835809E-1	6.749932E-1	6.261035E-1	5.602456E-1	6.718361E-1	6.447426E-1	6.641211E-1	6.964398E-1	5.891726E-1	7.133232E-1
2.876030E+2	4.804419E-1	4.341136E-1	4.679162E-1	4.249946E-1	4.442428E-1	4.330987E-1	4.726142E-1	4.489751E-1	4.718491E-1	4.686609E-1	4.268696E-1	4.636997E-1	4.972415E-1	4.396695E-1	3.972634E-1	4.098892E-1	4.537604E-1	4.373147E-1	4.477641E-1	4.170121E-1	3.748113E-1	4.653843E-1	4.440987E-1	4.715140E-1	4.069818E-1	4.314882E-1	4.328537E-1	4.711471E-1	4.811230E-1	4.512600E-1	4.466841E-1	4.452763E-1	4.348501E-1	4.513410E-1	4.589717E-1	4.916527E-1	4.062980E-1	4.849861E-1	4.968821E-1	4.411529E-1	4.745927E-1	4.638792E-1	4.531341E-1	4.392962E-1	5.131714E-1	4.485034E-1	4.041881E-1	4.154951E-1	3.971338E-1	4.342717E-1	4.498794E-1	4.260623E-1	4.233825E-1	4.953391E-1	5.185032E-1	4.174825E-1	4.008534E-1	4.314075E-1	4.186697E-1	4.550955E-1	4.568614E-1	4.041475E-1	3.938660E-1	4.530562E-1	4.506446E-1	4.481059E-1	4.051795E-1	4.743996E-1	4.588618E-1	4.692896E-1	4.660338E-1	4.637877E-1	4.001855E-1	4.367338E-1	4.407529E-1	4.453428E-1	4.590116E-1	4.043769E-1	4.301757E-1	4.124898E-1	4.723066E-1	4.046583E-1	3.527196E-1	4.239045E-1	4.076991E-1	4.932787E-1	4.724806E-1	4.897539E-1	4.616668E-1	4.253292E-1	4.173573E-1	4.137382E-1	4.592955E-1	4.017271E-1	4.067527E-1	3.934098E-1	4.366053E-1	4.405943E-1	3.466233E-1	4.387614E-1	4.150240E-1	5.075441E-1	4.881541E-1	4.602032E-1	4.174553E-1	4.280701E-1	4.429759E-1	4.086842E-1	4.548052E-1	4.665450E-1	4.293423E-1	3.902898E-1	3.877191E-1	4.625984E-1	4.416005E-1	3.946069E-1	4.262106E-1	4.935230E-1	5.094591E-1	4.969826E-1	4.145963E-1	4.793920E-1	4.265229E-1	4.284483E-1	4.035110E-1	4.651025E-1	4.246114E-1	4.035443E-1	4.435369E-1	4.270806E-1	4.420065E-1	4.481731E-1	4.112525E-1	4.707402E-1	4.817549E-1	4.708523E-1	4.038570E-1	4.742893E-1	4.163836E-1	4.427148E-1	4.203010E-1	4.329837E-1	4.369072E-1	4.116445E-1	4.108485E-1	4.671815E-1	4.243891E-1	2.898947E-1	4.329545E-1	4.838108E-1	4.623861E-1	4.275536E-1	4.295481E-1	4.513953E-1	4.527264E-1	3.740295E-1	4.064820E-1	4.275313E-1	3.902276E-1	3.775785E-1	4.520787E-1	4.424478E-1	4.565947E-1	3.692626E-1	3.974070E-1	4.584149E-1	4.864439E-1	4.521482E-1	4.383622E-1	3.674412E-1
2.878020E+2	3.944161E-1	4.486906E-1	4.489251E-1	3.811291E-1	4.003911E-1	4.381917E-1	4.129699E-1	4.136409E-1	3.862018E-1	4.427839E-1	4.459403E-1	4.060572E-1	4.515644E-1	4.057299E-1	3.896875E-1	3.665473E-1	4.034207E-1	4.070700E-1	4.075843E-1	3.595630E-1	3.352361E-1	4.653848E-1	4.298201E-1	4.251898E-1	4.214749E-1	3.603010E-1	4.246243E-1	4.086178E-1	4.112155E-1	4.185151E-1	3.815176E-1	4.434221E-1	4.139730E-1	4.422787E-1	4.102327E-1	4.182522E-1	3.581025E-1	4.454576E-1	4.119918E-1	4.264277E-1	4.034850E-1	4.318817E-1	4.269998E-1	4.435136E-1	4.416926E-1	3.858964E-1	3.965349E-1	3.994262E-1	4.134151E-1	4.010906E-1	3.906833E-1	3.612796E-1	3.586046E-1	3.955517E-1	4.277497E-1	3.683392E-1	3.972581E-1	3.965266E-1	4.070975E-1	4.151954E-1	3.915331E-1	3.889187E-1	3.625573E-1	3.815977E-1	4.111369E-1	3.960345E-1	3.845630E-1	3.969767E-1	3.847790E-1	4.439170E-1	4.476266E-1	4.382249E-1	4.088809E-1	3.807346E-1	4.397349E-1	4.130128E-1	4.108332E-1	4.100417E-1	3.545275E-1	3.756218E-1	4.365200E-1	3.570571E-1	3.121359E-1	3.825250E-1	4.153895E-1	4.289134E-1	3.975533E-1	4.266397E-1	4.384679E-1	3.845241E-1	3.931578E-1	3.961647E-1	4.092959E-1	3.610593E-1	3.726945E-1	3.891142E-1	4.722204E-1	3.986400E-1	3.688499E-1	4.037948E-1	3.968422E-1	4.674971E-1	4.217236E-1	4.742114E-1	4.274469E-1	4.087014E-1	4.180559E-1	4.278028E-1	4.359240E-1	4.251242E-1	3.682341E-1	4.366675E-1	3.907578E-1	4.040240E-1	3.963244E-1	4.270303E-1	3.956868E-1	4.237408E-1	3.956874E-1	4.327280E-1	4.212560E-1	4.273474E-1	4.327916E-1	3.937032E-1	4.259341E-1	3.829075E-1	3.482622E-1	3.856293E-1	4.504415E-1	4.281931E-1	4.420063E-1	4.050039E-1	4.524660E-1	4.676990E-1	4.041935E-1	4.334900E-1	4.285797E-1	4.255318E-1	3.922480E-1	4.100995E-1	4.074072E-1	3.822868E-1	3.679207E-1	4.116445E-1	4.489985E-1	4.071455E-1	3.550434E-1	3.229651E-1	4.181980E-1	4.041616E-1	4.411174E-1	4.048617E-1	4.017292E-1	4.030042E-1	4.276609E-1	3.545242E-1	3.839795E-1	4.238975E-1	3.972154E-1	3.544269E-1	3.992241E-1	3.871804E-1	3.969361E-1	3.414490E-1	4.137189E-1	4.428056E-1	4.172798E-1	3.671096E-1	3.551566E-1	3.534190E-1
2.880040E+2	4.083948E-1	4.520552E-1	4.310530E-1	4.019650E-1	4.237171E-1	4.371735E-1	4.370371E-1	4.575697E-1	4.290257E-1	4.169072E-1	3.786906E-1	4.161704E-1	4.315814E-1	3.785787E-1	4.114677E-1	3.909762E-1	3.927101E-1	4.231374E-1	4.301238E-1	4.160855E-1	3.730911E-1	4.412362E-1	4.336275E-1	4.342732E-1	3.842067E-1	3.622780E-1	4.266814E-1	4.223954E-1	4.590969E-1	4.641604E-1	4.358230E-1	4.369341E-1	3.821618E-1	4.252862E-1	3.990634E-1	4.380896E-1	3.699400E-1	4.415057E-1	4.381118E-1	4.515474E-1	4.054600E-1	4.138833E-1	4.405499E-1	4.298078E-1	4.552156E-1	4.098348E-1	4.271472E-1	4.219231E-1	3.781385E-1	4.398015E-1	4.457972E-1	3.967077E-1	4.151713E-1	4.534927E-1	4.450360E-1	4.174825E-1	3.891701E-1	4.179046E-1	3.993832E-1	4.785666E-1	4.256176E-1	3.718985E-1	3.664708E-1	3.906428E-1	4.299506E-1	3.992215E-1	4.116906E-1	4.209668E-1	3.729258E-1	4.107373E-1	4.534396E-1	4.756566E-1	4.480114E-1	4.475403E-1	4.010253E-1	4.200849E-1	4.523986E-1	4.308143E-1	3.591406E-1	3.798114E-1	4.223939E-1	4.464311E-1	3.112538E-1	4.383389E-1	4.205165E-1	4.345926E-1	4.275237E-1	4.568250E-1	4.384681E-1	4.069667E-1	4.264319E-1	4.000692E-1	4.429495E-1	4.125718E-1	3.791389E-1	3.650565E-1	4.062267E-1	3.808085E-1	3.308788E-1	4.324037E-1	3.886611E-1	4.362400E-1	4.411417E-1	4.368549E-1	4.454334E-1	4.442115E-1	4.300180E-1	4.650324E-1	4.510292E-1	4.313375E-1	3.844661E-1	4.004932E-1	4.535563E-1	4.291271E-1	4.025388E-1	4.241681E-1	4.299102E-1	4.610215E-1	4.437861E-1	4.731169E-1	3.974722E-1	4.191841E-1	3.899514E-1	3.947558E-1	4.883293E-1	3.961339E-1	4.079707E-1	3.847759E-1	4.593183E-1	4.437627E-1	4.011419E-1	4.341182E-1	4.387289E-1	4.271564E-1	3.880769E-1	4.201473E-1	4.226461E-1	4.116012E-1	4.244298E-1	4.342982E-1	4.411282E-1	4.221196E-1	3.661288E-1	4.212016E-1	4.337379E-1	3.971393E-1	4.191366E-1	3.128600E-1	4.044966E-1	4.695148E-1	4.411174E-1	4.110506E-1	4.419118E-1	4.030041E-1	4.246530E-1	3.496476E-1	4.514881E-1	3.848345E-1	4.201749E-1	3.562086E-1	4.658211E-1	3.996927E-1	4.187162E-1	3.562833E-1	4.204357E-1	4.320758E-1	4.518619E-1	4.320483E-1	4.643641E-1	3.393967E-1
2.882090E+2	3.922653E-1	4.453271E-1	4.723830E-1	3.997716E-1	3.873297E-1	4.249496E-1	4.464548E-1	4.661644E-1	4.300449E-1	4.562399E-1	4.389144E-1	4.556085E-1	4.468071E-1	4.464583E-1	4.199902E-1	4.020092E-1	4.216286E-1	4.514929E-1	3.821036E-1	4.318381E-1	3.481408E-1	4.704155E-1	4.678958E-1	4.297325E-1	3.966299E-1	3.840297E-1	3.947926E-1	4.351132E-1	4.792077E-1	4.264531E-1	3.869475E-1	4.499099E-1	4.348498E-1	4.785291E-1	4.396789E-1	4.688387E-1	4.172895E-1	4.681862E-1	4.782246E-1	4.827304E-1	4.370630E-1	4.428804E-1	3.960267E-1	4.087216E-1	4.204424E-1	4.512655E-1	4.405395E-1	4.283502E-1	3.826613E-1	4.132574E-1	3.927238E-1	3.744382E-1	4.206455E-1	4.352519E-1	4.417950E-1	4.312431E-1	4.242203E-1	4.066533E-1	3.964899E-1	4.550957E-1	4.265635E-1	3.916060E-1	4.007154E-1	4.123523E-1	4.318312E-1	4.587334E-1	4.431585E-1	4.547717E-1	4.065098E-1	4.507485E-1	4.437511E-1	4.701788E-1	4.208374E-1	4.131552E-1	4.234356E-1	3.907866E-1	4.174449E-1	3.873816E-1	3.794367E-1	4.191931E-1	4.732485E-1	4.406021E-1	3.906567E-1	3.988845E-1	3.948822E-1	4.336460E-1	4.296649E-1	4.604836E-1	4.627223E-1	3.916645E-1	4.566823E-1	4.176422E-1	4.746808E-1	3.999205E-1	4.205599E-1	3.848182E-1	4.177495E-1	4.080790E-1	3.466232E-1	3.963766E-1	4.222951E-1	4.538220E-1	4.585158E-1	4.527314E-1	4.474317E-1	4.205382E-1	4.110792E-1	4.247843E-1	4.699099E-1	4.220182E-1	3.863757E-1	4.014206E-1	4.241825E-1	4.811940E-1	4.726718E-1	4.308439E-1	4.160359E-1	4.485944E-1	4.326860E-1	4.263022E-1	4.859489E-1	3.926526E-1	4.004001E-1	4.452949E-1	4.278846E-1	4.386487E-1	3.551135E-1	3.779515E-1	4.238102E-1	4.882465E-1	4.468714E-1	4.110277E-1	4.222433E-1	4.281692E-1	4.213177E-1	4.406072E-1	4.513243E-1	4.285173E-1	4.204065E-1	4.132555E-1	4.450956E-1	4.130678E-1	3.553780E-1	3.664637E-1	4.468183E-1	4.321607E-1	3.487386E-1	3.413387E-1	4.055507E-1	4.031405E-1	4.715015E-1	4.162073E-1	4.583968E-1	4.184487E-1	3.705110E-1	3.789061E-1	4.552391E-1	4.093622E-1	3.832397E-1	3.624409E-1	4.457362E-1	4.372340E-1	4.310267E-1	3.729710E-1	4.501817E-1	4.437820E-1	4.041623E-1	4.366868E-1	4.877653E-1	5.357079E-1
2.884090E+2	7.030336E-1	8.063880E-1	7.963255E-1	6.936715E-1	7.166785E-1	8.089954E-1	8.074619E-1	8.061385E-1	7.960804E-1	7.853948E-1	8.183248E-1	7.650525E-1	8.483794E-1	7.228252E-1	7.334321E-1	6.920076E-1	7.600827E-1	7.624501E-1	7.731281E-1	6.810941E-1	6.509838E-1	7.793120E-1	7.515579E-1	7.585402E-1	7.237635E-1	7.261254E-1	7.682038E-1	7.689590E-1	8.019297E-1	7.568880E-1	7.073522E-1	7.613340E-1	7.678756E-1	8.172400E-1	7.554629E-1	8.308813E-1	7.791763E-1	8.437007E-1	8.383061E-1	8.430718E-1	7.412469E-1	7.338565E-1	7.783493E-1	7.724500E-1	7.971546E-1	7.504924E-1	7.877901E-1	7.304446E-1	7.978382E-1	8.081052E-1	7.826054E-1	7.368188E-1	6.888827E-1	8.344027E-1	7.994070E-1	7.408482E-1	7.423669E-1	7.149531E-1	6.954320E-1	7.766407E-1	7.503642E-1	6.737817E-1	7.196811E-1	7.551722E-1	8.156275E-1	7.584136E-1	7.893084E-1	7.524663E-1	7.156851E-1	8.489027E-1	7.682966E-1	8.600131E-1	7.545302E-1	7.746940E-1	7.269982E-1	7.191365E-1	8.075994E-1	7.027396E-1	6.423607E-1	7.375963E-1	7.746081E-1	7.330114E-1	7.417937E-1	6.731398E-1	8.024720E-1	8.207862E-1	8.010869E-1	7.669064E-1	7.822416E-1	6.528169E-1	7.037214E-1	7.632496E-1	7.439107E-1	6.746560E-1	7.105098E-1	6.863950E-1	7.843841E-1	7.311351E-1	6.114929E-1	7.555839E-1	7.104661E-1	8.093668E-1	7.804428E-1	7.992108E-1	7.531927E-1	7.444349E-1	7.489818E-1	7.558263E-1	8.059964E-1	8.124020E-1	6.728179E-1	6.852514E-1	7.574177E-1	7.833653E-1	7.798365E-1	7.045354E-1	6.963014E-1	7.898571E-1	8.128481E-1	7.907149E-1	7.085665E-1	7.630819E-1	7.441728E-1	7.169445E-1	8.149269E-1	6.965719E-1	6.702970E-1	7.336922E-1	7.877712E-1	7.484788E-1	7.066522E-1	6.529753E-1	7.336366E-1	7.890056E-1	7.658077E-1	8.222342E-1	7.232726E-1	7.190677E-1	7.331652E-1	7.520452E-1	8.309002E-1	6.602128E-1	6.617866E-1	7.148729E-1	7.422120E-1	6.763065E-1	7.122817E-1	6.270336E-1	7.523129E-1	7.881122E-1	7.895119E-1	7.596761E-1	7.520375E-1	7.190910E-1	6.983735E-1	6.685650E-1	7.618427E-1	6.973374E-1	6.797232E-1	6.732068E-1	8.484854E-1	7.094056E-1	8.202330E-1	6.529558E-1	7.812239E-1	7.959501E-1	7.571339E-1	7.598308E-1	7.529831E-1	7.226716E-1
2.886030E+2	9.901422E-1	1.074379E+0	1.046543E+0	9.930547E-1	9.592591E-1	1.059594E+0	1.082665E+0	9.999997E-1	9.918434E-1	1.076250E+0	1.045167E+0	9.753929E-1	1.091036E+0	1.073859E+0	9.891101E-1	8.819249E-1	9.410928E-1	1.086639E+0	9.710897E-1	9.627813E-1	9.323187E-1	1.068085E+0	1.050451E+0	1.036483E+0	9.380584E-1	8.803653E-1	9.739392E-1	9.978798E-1	1.025058E+0	1.042669E+0	9.227648E-1	1.073684E+0	9.885677E-1	1.108372E+0	1.017431E+0	1.056041E+0	8.789488E-1	9.998359E-1	1.063123E+0	1.098603E+0	9.743221E-1	1.104824E+0	9.167604E-1	1.022315E+0	1.050228E+0	1.080101E+0	9.398928E-1	9.136307E-1	9.886939E-1	1.075762E+0	9.540717E-1	9.301562E-1	9.005514E-1	1.095138E+0	1.027370E+0	9.904990E-1	9.787301E-1	1.059260E+0	9.181917E-1	9.937406E-1	1.069432E+0	1.013287E+0	9.104737E-1	9.840203E-1	1.019754E+0	1.008147E+0	9.585850E-1	1.038166E+0	9.083013E-1	1.024559E+0	1.074435E+0	1.047169E+0	9.903979E-1	9.309020E-1	9.144328E-1	1.038391E+0	1.077779E+0	9.774973E-1	9.006736E-1	9.588032E-1	1.002511E+0	9.836473E-1	9.808840E-1	9.599046E-1	9.033016E-1	1.048905E+0	1.063331E+0	1.040399E+0	1.004745E+0	9.037686E-1	9.013521E-1	9.067642E-1	1.071794E+0	9.231831E-1	8.706730E-1	9.475890E-1	1.019029E+0	9.671351E-1	7.957907E-1	9.632664E-1	9.213673E-1	1.109235E+0	9.950602E-1	1.072845E+0	9.850112E-1	9.574948E-1	9.792340E-1	9.691432E-1	1.097710E+0	9.915439E-1	8.781024E-1	9.560960E-1	9.660692E-1	1.013946E+0	1.001776E+0	1.001113E+0	1.050565E+0	1.050823E+0	9.663930E-1	1.045895E+0	9.397471E-1	1.047792E+0	9.667371E-1	9.812233E-1	1.034285E+0	9.658311E-1	8.729158E-1	9.427009E-1	1.014631E+0	9.909173E-1	9.927030E-1	9.481299E-1	9.680978E-1	1.095108E+0	1.021656E+0	1.070424E+0	1.011042E+0	9.747926E-1	9.353025E-1	9.803603E-1	1.079840E+0	9.580537E-1	9.233980E-1	8.895116E-1	1.007084E+0	1.005503E+0	9.970228E-1	7.528868E-1	9.936759E-1	9.902995E-1	1.052833E+0	9.577105E-1	1.008586E+0	9.301586E-1	9.831219E-1	8.246109E-1	1.050631E+0	9.580602E-1	9.242979E-1	9.243126E-1	1.071529E+0	9.513363E-1	1.038983E+0	9.014186E-1	9.299526E-1	1.012520E+0	1.024247E+0	9.500081E-1	1.046804E+0	1.082575E+0
2.887950E+2	1.011650E+0	1.038498E+0	1.106863E+0	9.415128E-1	9.788518E-1	1.059593E+0	1.043948E+0	1.086903E+0	1.040784E+0	1.110409E+0	1.061227E+0	1.024944E+0	1.077714E+0	1.063193E+0	9.976325E-1	9.386636E-1	9.443049E-1	1.113104E+0	1.029891E+0	1.000772E+0	9.297377E-1	1.079153E+0	1.071391E+0	1.092799E+0	9.639386E-1	8.358730E-1	9.615960E-1	1.041333E+0	1.086346E+0	1.059538E+0	9.444873E-1	1.113540E+0	1.045232E+0	1.102709E+0	9.697072E-1	1.082823E+0	8.933224E-1	1.103596E+0	1.052862E+0	1.037102E+0	1.006913E+0	1.015832E+0	9.961280E-1	1.036022E+0	1.080172E+0	1.079180E+0	9.800704E-1	9.409469E-1	1.024875E+0	1.006083E+0	9.795877E-1	9.129477E-1	9.343091E-1	1.133766E+0	1.044656E+0	1.019985E+0	9.436799E-1	1.055885E+0	9.403717E-1	1.025426E+0	1.074164E+0	1.041057E+0	9.936400E-1	9.270345E-1	1.000941E+0	1.070846E+0	9.271173E-1	1.093780E+0	9.003993E-1	1.052859E+0	1.075405E+0	1.085513E+0	1.021920E+0	1.081216E+0	9.154514E-1	9.939386E-1	1.054162E+0	1.127623E+0	9.597166E-1	9.571277E-1	9.704919E-1	1.051649E+0	9.658854E-1	9.618292E-1	9.802043E-1	1.063103E+0	1.083668E+0	1.057778E+0	1.033218E+0	9.721164E-1	9.497513E-1	9.985350E-1	1.028526E+0	9.891553E-1	9.571982E-1	9.020522E-1	1.079787E+0	1.085660E+0	8.356137E-1	1.008830E+0	9.259119E-1	1.136585E+0	9.879062E-1	1.160631E+0	1.068946E+0	1.017755E+0	1.016114E+0	9.942980E-1	1.065612E+0	1.065064E+0	9.334815E-1	9.162115E-1	1.072421E+0	1.013946E+0	9.565007E-1	9.648746E-1	9.710184E-1	1.093839E+0	1.012641E+0	1.044977E+0	9.654338E-1	1.016158E+0	9.061325E-1	9.854350E-1	1.074256E+0	9.611067E-1	9.296867E-1	9.128422E-1	1.032385E+0	1.000927E+0	9.712975E-1	9.983270E-1	9.854993E-1	1.106258E+0	1.031729E+0	1.087327E+0	1.046642E+0	9.907129E-1	1.031847E+0	9.898291E-1	1.021324E+0	9.444749E-1	9.305661E-1	9.372981E-1	1.062675E+0	1.015509E+0	1.047457E+0	8.162729E-1	1.007378E+0	1.040336E+0	1.057897E+0	1.052603E+0	1.058041E+0	9.507505E-1	9.550486E-1	8.655729E-1	1.044068E+0	1.008933E+0	9.452622E-1	9.198594E-1	1.048272E+0	1.017032E+0	1.085385E+0	8.291044E-1	9.721731E-1	1.021299E+0	1.095795E+0	9.979393E-1	9.765976E-1	1.045183E+0
2.890120E+2	8.449752E-1	9.140340E-1	9.560630E-1	8.252686E-1	8.305056E-1	9.546688E-1	9.654685E-1	9.321962E-1	8.898837E-1	9.271995E-1	8.544582E-1	8.671889E-1	9.549573E-1	9.730094E-1	8.991491E-1	8.173059E-1	8.500514E-1	9.013887E-1	8.632882E-1	7.867268E-1	7.473432E-1	9.413059E-1	9.238490E-1	8.984206E-1	8.055483E-1	7.824818E-1	7.959786E-1	9.003767E-1	9.015229E-1	9.186315E-1	7.888107E-1	8.336286E-1	8.772280E-1	8.976693E-1	8.042004E-1	9.072570E-1	8.062329E-1	9.563550E-1	9.026724E-1	9.322914E-1	8.666734E-1	9.208399E-1	8.490064E-1	8.778787E-1	9.623283E-1	9.751411E-1	8.279690E-1	8.284650E-1	8.774367E-1	8.932690E-1	8.693588E-1	7.499777E-1	8.357733E-1	9.331169E-1	9.333761E-1	8.735366E-1	7.998851E-1	9.883728E-1	8.072940E-1	9.550152E-1	9.046907E-1	9.344580E-1	8.674234E-1	8.130624E-1	8.673650E-1	9.082534E-1	7.459035E-1	8.974970E-1	8.124869E-1	1.000163E+0	8.932717E-1	9.111382E-1	8.567030E-1	8.876744E-1	8.268264E-1	8.120834E-1	8.992336E-1	9.774972E-1	7.715167E-1	8.121699E-1	8.772588E-1	9.350741E-1	9.111860E-1	8.271074E-1	8.503225E-1	9.173344E-1	9.273920E-1	9.114274E-1	9.404192E-1	1.002720E+0	8.660614E-1	8.091347E-1	9.044873E-1	9.267985E-1	8.255698E-1	8.324580E-1	9.289430E-1	9.744770E-1	7.717110E-1	9.018092E-1	7.895536E-1	9.324403E-1	9.081909E-1	9.747842E-1	8.521151E-1	9.219845E-1	9.214217E-1	8.836153E-1	8.786884E-1	9.677274E-1	8.465932E-1	7.594556E-1	8.566784E-1	8.651848E-1	8.970206E-1	8.313665E-1	8.498461E-1	9.839085E-1	8.803712E-1	9.495150E-1	8.455619E-1	9.232945E-1	9.092678E-1	8.327637E-1	9.358177E-1	9.100896E-1	7.867773E-1	7.823190E-1	9.140239E-1	9.119579E-1	8.574611E-1	7.935244E-1	8.407928E-1	9.815873E-1	9.068260E-1	9.129693E-1	8.805078E-1	9.230514E-1	8.588736E-1	8.804066E-1	9.578494E-1	9.390432E-1	8.203656E-1	8.217414E-1	8.305036E-1	9.364628E-1	8.415182E-1	7.528868E-1	9.662719E-1	9.290305E-1	8.735719E-1	8.298130E-1	9.323422E-1	8.817670E-1	8.427523E-1	7.524396E-1	9.278023E-1	8.463213E-1	8.624062E-1	7.756079E-1	9.573643E-1	8.501843E-1	9.641731E-1	6.789141E-1	8.781378E-1	9.393544E-1	9.443512E-1	8.835240E-1	8.673892E-1	8.862645E-1
2.892050E+2	5.395838E-1	5.955823E-1	5.807366E-1	5.324650E-1	5.692646E-1	5.614536E-1	5.636516E-1	5.788526E-1	5.371029E-1	5.980454E-1	5.734145E-1	5.284188E-1	5.600465E-1	5.540951E-1	4.805956E-1	4.863290E-1	4.998162E-1	5.838147E-1	5.477260E-1	5.235718E-1	4.840762E-1	5.941756E-1	5.611806E-1	5.805112E-1	5.053291E-1	5.273930E-1	4.914879E-1	5.601724E-1	5.625213E-1	5.802588E-1	4.638810E-1	5.935734E-1	5.213373E-1	6.088016E-1	4.853712E-1	5.719962E-1	5.796312E-1	5.541590E-1	5.435246E-1	5.520277E-1	5.387867E-1	5.618706E-1	5.373407E-1	5.605394E-1	5.856162E-1	5.948935E-1	5.486366E-1	5.127127E-1	5.608529E-1	5.658875E-1	5.478606E-1	5.677748E-1	5.137072E-1	5.597180E-1	5.476736E-1	5.599996E-1	5.176865E-1	5.945587E-1	5.401752E-1	6.135215E-1	5.174555E-1	5.994308E-1	5.054066E-1	5.606966E-1	5.616443E-1	5.883818E-1	5.516696E-1	5.932594E-1	5.033122E-1	5.981041E-1	5.231923E-1	6.071226E-1	5.132278E-1	5.546273E-1	5.762353E-1	5.584974E-1	6.092164E-1	6.187065E-1	5.178176E-1	5.239311E-1	5.636565E-1	5.795212E-1	5.362284E-1	5.355310E-1	5.657788E-1	5.595375E-1	5.998558E-1	5.656726E-1	5.692277E-1	5.599857E-1	5.101235E-1	5.660389E-1	5.948730E-1	5.725335E-1	5.420630E-1	4.973720E-1	5.685937E-1	6.325408E-1	4.262695E-1	5.595560E-1	5.268363E-1	5.651746E-1	5.883079E-1	5.507922E-1	5.253706E-1	5.884038E-1	5.376683E-1	5.394916E-1	5.916938E-1	6.322251E-1	4.875859E-1	5.257122E-1	5.538298E-1	5.676620E-1	5.179483E-1	5.691202E-1	4.900336E-1	5.699960E-1	5.529327E-1	5.768414E-1	5.772789E-1	5.906228E-1	5.184742E-1	5.221571E-1	6.170182E-1	5.501319E-1	4.921500E-1	5.408923E-1	5.707750E-1	5.127130E-1	5.461135E-1	5.174445E-1	5.055866E-1	6.146699E-1	5.572998E-1	5.580305E-1	5.363701E-1	6.165792E-1	5.471196E-1	5.016354E-1	5.750197E-1	6.068004E-1	5.139575E-1	5.211191E-1	5.612694E-1	6.332806E-1	5.725384E-1	5.333324E-1	5.478392E-1	5.665229E-1	6.001230E-1	5.771118E-1	5.325792E-1	5.595032E-1	5.098777E-1	4.822862E-1	6.165108E-1	6.101273E-1	5.369720E-1	5.271737E-1	5.651873E-1	5.853124E-1	5.702317E-1	3.952211E-1	5.710838E-1	6.145004E-1	6.247691E-1	5.866632E-1	5.449693E-1	6.759302E-1
2.894050E+2	4.890437E-1	5.305471E-1	5.371716E-1	5.028561E-1	4.703666E-1	5.370047E-1	5.155173E-1	4.967238E-1	5.095739E-1	5.183444E-1	5.192130E-1	5.365097E-1	5.191279E-1	5.279131E-1	5.175267E-1	4.800248E-1	4.976747E-1	5.204896E-1	4.948049E-1	4.818743E-1	4.780535E-1	5.488973E-1	5.659400E-1	4.878635E-1	4.535671E-1	4.512621E-1	4.729722E-1	4.987028E-1	5.223012E-1	4.978994E-1	5.000849E-1	4.804962E-1	5.412195E-1	5.748171E-1	5.239557E-1	5.541425E-1	4.646391E-1	5.472427E-1	5.444574E-1	5.104500E-1	5.210102E-1	4.898769E-1	5.218546E-1	5.246933E-1	5.518082E-1	5.359691E-1	4.941098E-1	4.259398E-1	4.893958E-1	5.304944E-1	5.396949E-1	4.999557E-1	4.835993E-1	5.049963E-1	4.936536E-1	5.000447E-1	5.176871E-1	5.124203E-1	4.398843E-1	5.102515E-1	4.881057E-1	5.214964E-1	3.879954E-1	5.245153E-1	4.751023E-1	5.320586E-1	4.974137E-1	5.376456E-1	4.450330E-1	5.659006E-1	5.319121E-1	5.441284E-1	4.904014E-1	5.212243E-1	4.916861E-1	5.100017E-1	5.808757E-1	5.658330E-1	4.864506E-1	4.669536E-1	5.193938E-1	5.979786E-1	4.285936E-1	4.874162E-1	5.187828E-1	5.443926E-1	5.409843E-1	4.952418E-1	5.439199E-1	5.140800E-1	4.949980E-1	5.221059E-1	4.977574E-1	5.418059E-1	4.601402E-1	4.226224E-1	5.308826E-1	5.402392E-1	3.707026E-1	4.610127E-1	4.750210E-1	5.817789E-1	5.239230E-1	5.573291E-1	5.053870E-1	5.313732E-1	4.738752E-1	5.072929E-1	5.256102E-1	5.255680E-1	4.818564E-1	4.913933E-1	4.971089E-1	5.825375E-1	4.815492E-1	5.223918E-1	5.029830E-1	5.508769E-1	5.298083E-1	5.309449E-1	5.173432E-1	5.344972E-1	4.986209E-1	5.189980E-1	5.380498E-1	5.643032E-1	4.490813E-1	4.547298E-1	4.839774E-1	5.371793E-1	4.702226E-1	5.003772E-1	5.257361E-1	5.315555E-1	5.492424E-1	5.384601E-1	5.403259E-1	5.429464E-1	5.249948E-1	5.132093E-1	5.303890E-1	5.515773E-1	4.521387E-1	4.359726E-1	5.394698E-1	5.742459E-1	4.790259E-1	4.846455E-1	5.446775E-1	5.542699E-1	4.988455E-1	5.843314E-1	5.243368E-1	5.420001E-1	4.637555E-1	4.169425E-1	5.133718E-1	5.556214E-1	5.140124E-1	4.461435E-1	5.757576E-1	5.050159E-1	5.276181E-1	4.100548E-1	5.288645E-1	5.706023E-1	5.532217E-1	5.000783E-1	5.319686E-1	5.263601E-1
2.896060E+2	5.718439E-1	5.350309E-1	5.718003E-1	4.666673E-1	4.545057E-1	5.614537E-1	5.102846E-1	5.368332E-1	5.371028E-1	5.970101E-1	5.151973E-1	5.213409E-1	5.486269E-1	4.959124E-1	4.985877E-1	4.445628E-1	5.158820E-1	5.308857E-1	5.281254E-1	4.679748E-1	4.642881E-1	5.358171E-1	5.611804E-1	5.078466E-1	5.177517E-1	4.759808E-1	5.202913E-1	5.167197E-1	4.964448E-1	5.792676E-1	4.693122E-1	5.184977E-1	4.805789E-1	5.487627E-1	5.056788E-1	5.372798E-1	4.883138E-1	5.452658E-1	5.649795E-1	5.468308E-1	5.140972E-1	5.078750E-1	5.237900E-1	5.120424E-1	5.208994E-1	5.847665E-1	5.017632E-1	4.773605E-1	5.129132E-1	5.105869E-1	5.366336E-1	4.594667E-1	4.781252E-1	5.640102E-1	5.465934E-1	5.098726E-1	5.042063E-1	5.461770E-1	4.659216E-1	5.055575E-1	4.994663E-1	5.403084E-1	4.574640E-1	5.208968E-1	5.061444E-1	5.692534E-1	4.529248E-1	5.463701E-1	4.954102E-1	5.649247E-1	5.173791E-1	5.916025E-1	5.251839E-1	5.850819E-1	5.283581E-1	4.998987E-1	5.676500E-1	5.139022E-1	4.338661E-1	4.971181E-1	5.146854E-1	5.513482E-1	4.877044E-1	5.172468E-1	5.059647E-1	4.932781E-1	5.292108E-1	5.428064E-1	5.407559E-1	5.967095E-1	4.849153E-1	5.152719E-1	5.179492E-1	5.399993E-1	4.794709E-1	4.810475E-1	5.204072E-1	5.276524E-1	4.151560E-1	5.108149E-1	4.732024E-1	5.495458E-1	5.208571E-1	5.489237E-1	4.983917E-1	5.033951E-1	4.748725E-1	5.022621E-1	5.492108E-1	6.104793E-1	4.885397E-1	4.932476E-1	5.467398E-1	5.137350E-1	5.321517E-1	4.785256E-1	5.076080E-1	5.403622E-1	5.409070E-1	5.135047E-1	5.563494E-1	5.753158E-1	5.132495E-1	5.189987E-1	5.370759E-1	5.784746E-1	4.637644E-1	4.649675E-1	5.618981E-1	5.238342E-1	4.809247E-1	4.903379E-1	5.138298E-1	5.285144E-1	5.240605E-1	5.464668E-1	5.472485E-1	5.698118E-1	5.420915E-1	5.310954E-1	5.641095E-1	5.561033E-1	4.960397E-1	4.907098E-1	5.558196E-1	5.692431E-1	5.136992E-1	5.094486E-1	4.909238E-1	5.593756E-1	5.241653E-1	5.090369E-1	5.573070E-1	5.327342E-1	5.249171E-1	4.188922E-1	5.780680E-1	5.565296E-1	5.219980E-1	4.603902E-1	5.260754E-1	5.279586E-1	5.361403E-1	4.554823E-1	5.269453E-1	5.423111E-1	5.663390E-1	5.124481E-1	5.397691E-1	4.842927E-1
2.898030E+2	4.277509E-1	4.610264E-1	4.790851E-1	4.238977E-1	4.377121E-1	4.667150E-1	4.548262E-1	4.499300E-1	4.320840E-1	4.883275E-1	4.469443E-1	4.586426E-1	4.820162E-1	4.765186E-1	4.502925E-1	4.193459E-1	3.948528E-1	5.015852E-1	4.418839E-1	4.207188E-1	3.808337E-1	4.774588E-1	4.688468E-1	4.669724E-1	4.390739E-1	4.057814E-1	4.750295E-1	4.806860E-1	4.246222E-1	4.165298E-1	4.177218E-1	4.563986E-1	4.408145E-1	4.751298E-1	4.214022E-1	4.519769E-1	4.088343E-1	4.573158E-1	4.614332E-1	4.835971E-1	4.429894E-1	4.928765E-1	4.502290E-1	4.487845E-1	4.581139E-1	4.862523E-1	4.893262E-1	4.138885E-1	4.369329E-1	4.021969E-1	4.427349E-1	4.007568E-1	4.270322E-1	5.135796E-1	4.731267E-1	4.666265E-1	4.359033E-1	4.842915E-1	4.109548E-1	4.750459E-1	4.540210E-1	4.704360E-1	4.056075E-1	4.431066E-1	4.148994E-1	4.736108E-1	4.290518E-1	4.624045E-1	4.114484E-1	4.673381E-1	4.854093E-1	4.875243E-1	4.849671E-1	5.172940E-1	4.550139E-1	4.210950E-1	4.571221E-1	5.016279E-1	4.126475E-1	4.661154E-1	4.694815E-1	4.940332E-1	4.171244E-1	4.354520E-1	4.572596E-1	4.308058E-1	4.296646E-1	4.586537E-1	4.595573E-1	4.600132E-1	4.738235E-1	4.615755E-1	5.006416E-1	4.866785E-1	4.343674E-1	4.260595E-1	4.512696E-1	4.867460E-1	3.410663E-1	4.377020E-1	4.186599E-1	4.547986E-1	4.574933E-1	4.377891E-1	4.404367E-1	4.958624E-1	4.100827E-1	4.137157E-1	4.566928E-1	4.996811E-1	4.121557E-1	4.236822E-1	4.373493E-1	4.821231E-1	4.424881E-1	4.489633E-1	4.049361E-1	4.944784E-1	5.048339E-1	4.767886E-1	4.364779E-1	4.436752E-1	4.223431E-1	4.379246E-1	4.473826E-1	5.038387E-1	4.187374E-1	4.188996E-1	5.155398E-1	4.793495E-1	4.556276E-1	4.220707E-1	4.826905E-1	4.697270E-1	4.847770E-1	4.699631E-1	4.740691E-1	5.320010E-1	4.294580E-1	4.237771E-1	4.688987E-1	5.289446E-1	3.921112E-1	4.090378E-1	4.598988E-1	5.162106E-1	4.233389E-1	3.845139E-1	4.571957E-1	4.807474E-1	4.644115E-1	4.915028E-1	4.233657E-1	5.090528E-1	4.396924E-1	3.857329E-1	4.730542E-1	4.629604E-1	4.052017E-1	4.301148E-1	4.806203E-1	5.008448E-1	4.745873E-1	3.803877E-1	4.233149E-1	5.013385E-1	4.745184E-1	4.320491E-1	4.513630E-1	4.562483E-1
2.900030E+2	4.997976E-1	5.574588E-1	5.528106E-1	4.589902E-1	4.834287E-1	5.492297E-1	5.197022E-1	5.587982E-1	5.044752E-1	5.328350E-1	5.422988E-1	5.152730E-1	5.124663E-1	5.036706E-1	5.307840E-1	5.091822E-1	4.848212E-1	5.365569E-1	4.889246E-1	4.985531E-1	4.427796E-1	5.468852E-1	4.955005E-1	5.332787E-1	4.846248E-1	4.967434E-1	5.892139E-1	5.612327E-1	5.309192E-1	5.306439E-1	5.317627E-1	5.722556E-1	4.825672E-1	5.578254E-1	5.259860E-1	5.402562E-1	4.790130E-1	5.650298E-1	5.146059E-1	5.424991E-1	5.348360E-1	5.298739E-1	5.053998E-1	5.341816E-1	5.218651E-1	5.350485E-1	5.802046E-1	4.717364E-1	4.848735E-1	5.249651E-1	5.846024E-1	4.452950E-1	4.781246E-1	5.414778E-1	5.185034E-1	5.029933E-1	5.033074E-1	5.281725E-1	5.575331E-1	4.914749E-1	5.458589E-1	5.232882E-1	5.406301E-1	4.485338E-1	5.776369E-1	5.182435E-1	5.408184E-1	5.114745E-1	4.845451E-1	5.336969E-1	5.290054E-1	5.331722E-1	5.121416E-1	5.398901E-1	4.886305E-1	4.827244E-1	4.911306E-1	5.488367E-1	5.132052E-1	4.870633E-1	5.071513E-1	5.241476E-1	5.053497E-1	5.345689E-1	5.606523E-1	5.311402E-1	5.506174E-1	5.601851E-1	5.607923E-1	5.508047E-1	4.879407E-1	4.527891E-1	5.391033E-1	5.354806E-1	4.352872E-1	4.406659E-1	5.392623E-1	5.171634E-1	5.105461E-1	4.980994E-1	4.941108E-1	5.261025E-1	5.269892E-1	5.610651E-1	5.313660E-1	5.518179E-1	4.688916E-1	4.791189E-1	5.067282E-1	5.545630E-1	4.770824E-1	4.774801E-1	4.697611E-1	5.276818E-1	5.303760E-1	5.099949E-1	5.381320E-1	5.040376E-1	5.131588E-1	5.245196E-1	5.002188E-1	5.273534E-1	5.069802E-1	5.274210E-1	5.273261E-1	5.794200E-1	4.216744E-1	4.734976E-1	5.184990E-1	5.516369E-1	4.818979E-1	4.792951E-1	5.101660E-1	5.477729E-1	5.653582E-1	4.975397E-1	5.096692E-1	5.688176E-1	4.737060E-1	4.848013E-1	4.946850E-1	5.588193E-1	4.566181E-1	4.264147E-1	5.187594E-1	5.412259E-1	4.758745E-1	5.030180E-1	4.877622E-1	5.736713E-1	4.998583E-1	5.389483E-1	5.243370E-1	5.800948E-1	5.128847E-1	4.013378E-1	5.311869E-1	5.229178E-1	4.970418E-1	4.835417E-1	5.207893E-1	5.310859E-1	4.897379E-1	4.397224E-1	5.000779E-1	5.510902E-1	5.579916E-1	4.969864E-1	5.137667E-1	5.590784E-1
2.905120E+2	6.342122E-1	6.437977E-1	6.544613E-1	5.796216E-1	5.590021E-1	6.796226E-1	6.212030E-1	6.762605E-1	6.258083E-1	6.601501E-1	6.627459E-1	6.396570E-1	6.475929E-1	6.636728E-1	6.586230E-1	5.785304E-1	5.747903E-1	6.584825E-1	6.427860E-1	5.634156E-1	5.537642E-1	6.283851E-1	6.696954E-1	6.313778E-1	6.098885E-1	5.847395E-1	6.715080E-1	6.470777E-1	6.477512E-1	6.566661E-1	6.258932E-1	6.519648E-1	6.465946E-1	7.096218E-1	6.468168E-1	7.009431E-1	6.016156E-1	6.737313E-1	7.058409E-1	6.291196E-1	5.861917E-1	6.568625E-1	6.631689E-1	6.954877E-1	6.377758E-1	6.869632E-1	6.596037E-1	5.842182E-1	6.006517E-1	6.654282E-1	6.703362E-1	5.768857E-1	5.456402E-1	6.756011E-1	6.492316E-1	6.346970E-1	6.066597E-1	6.823232E-1	6.288939E-1	6.733705E-1	6.367506E-1	6.549696E-1	6.629330E-1	6.059237E-1	6.237298E-1	6.957149E-1	6.623501E-1	6.019827E-1	5.685053E-1	6.781258E-1	6.452605E-1	6.555091E-1	6.425755E-1	6.833268E-1	6.638408E-1	5.948676E-1	7.055738E-1	6.583626E-1	6.967913E-1	5.767190E-1	6.446465E-1	6.679237E-1	6.712132E-1	6.510070E-1	6.358467E-1	6.305280E-1	6.961906E-1	6.370193E-1	6.293360E-1	6.905630E-1	6.311221E-1	6.109480E-1	6.679491E-1	6.267580E-1	6.782943E-1	5.678266E-1	6.670610E-1	6.189053E-1	6.707651E-1	5.881652E-1	5.768348E-1	6.540599E-1	6.526939E-1	6.367107E-1	6.013114E-1	6.454360E-1	6.423286E-1	6.481617E-1	6.587226E-1	7.171359E-1	6.890505E-1	5.730171E-1	6.257434E-1	6.643565E-1	6.493357E-1	6.120328E-1	6.417284E-1	6.923540E-1	5.880811E-1	6.897442E-1	5.915497E-1	6.436868E-1	6.605807E-1	5.969137E-1	7.057368E-1	6.653938E-1	5.694778E-1	6.006090E-1	6.546150E-1	6.884252E-1	6.093554E-1	5.877191E-1	5.990054E-1	6.744702E-1	6.449338E-1	6.203012E-1	6.144934E-1	6.723018E-1	5.732669E-1	5.721282E-1	6.375023E-1	6.683610E-1	5.417326E-1	5.567425E-1	6.691811E-1	6.442876E-1	5.998576E-1	5.774276E-1	6.205643E-1	6.839559E-1	6.507618E-1	6.854121E-1	6.036710E-1	7.417426E-1	5.850752E-1	5.749381E-1	7.037099E-1	6.664506E-1	6.008606E-1	5.823812E-1	6.338976E-1	6.718653E-1	6.535654E-1	5.083278E-1	5.979514E-1	6.603518E-1	6.295400E-1	6.608785E-1	6.307755E-1	7.320194E-1
2.910040E+2	7.503474E-1	8.377846E-1	8.086131E-1	7.781135E-1	7.913186E-1	8.426126E-1	8.765253E-1	8.032732E-1	8.113750E-1	8.226562E-1	7.982495E-1	8.176382E-1	8.084130E-1	8.808875E-1	8.906267E-1	7.321972E-1	7.718645E-1	7.851342E-1	8.446684E-1	8.163779E-1	7.017449E-1	8.477322E-1	8.581690E-1	7.985064E-1	7.662086E-1	7.409567E-1	8.443261E-1	8.039329E-1	8.660913E-1	8.402407E-1	8.657447E-1	8.197263E-1	8.205633E-1	8.455601E-1	8.712159E-1	8.358414E-1	7.571923E-1	8.693935E-1	9.073363E-1	8.543326E-1	7.768006E-1	8.308474E-1	8.809473E-1	7.798299E-1	8.473824E-1	8.803092E-1	8.442308E-1	7.762413E-1	7.942208E-1	7.881967E-1	8.366993E-1	7.135374E-1	7.655207E-1	8.537162E-1	8.037285E-1	7.840957E-1	7.414679E-1	8.162197E-1	8.728698E-1	7.789877E-1	8.289475E-1	8.332328E-1	8.419845E-1	7.434129E-1	8.043395E-1	8.338645E-1	8.479044E-1	8.113510E-1	7.789022E-1	8.449990E-1	8.051113E-1	7.732818E-1	8.327904E-1	8.552534E-1	7.881180E-1	7.858158E-1	8.784515E-1	8.094319E-1	8.499332E-1	7.174866E-1	8.358214E-1	8.301571E-1	8.194319E-1	7.635956E-1	8.255427E-1	8.548620E-1	8.224954E-1	8.528867E-1	8.117681E-1	8.629624E-1	8.136282E-1	7.300553E-1	8.419876E-1	8.454620E-1	8.485811E-1	7.379460E-1	7.959070E-1	8.255353E-1	7.948646E-1	7.704184E-1	7.241015E-1	7.986220E-1	8.356297E-1	8.552442E-1	7.801714E-1	7.831726E-1	8.805546E-1	8.081497E-1	8.258206E-1	8.569286E-1	8.886052E-1	7.928478E-1	7.776745E-1	8.066105E-1	8.117951E-1	7.426797E-1	7.878734E-1	8.586834E-1	8.886953E-1	8.448723E-1	8.265348E-1	8.549232E-1	8.079124E-1	7.590608E-1	7.710558E-1	8.184466E-1	8.298464E-1	7.865837E-1	7.690314E-1	8.229902E-1	7.874077E-1	8.045693E-1	7.473752E-1	7.829238E-1	8.252368E-1	7.813133E-1	8.627080E-1	8.394671E-1	8.136185E-1	8.309557E-1	7.654432E-1	8.385552E-1	7.854245E-1	7.252985E-1	8.021620E-1	8.023818E-1	7.763757E-1	7.749344E-1	8.429555E-1	8.003659E-1	8.239462E-1	7.617388E-1	7.757346E-1	8.354364E-1	7.886107E-1	7.027005E-1	8.396655E-1	8.663080E-1	7.306360E-1	7.052625E-1	8.273439E-1	7.865736E-1	7.511036E-1	6.761331E-1	8.522298E-1	8.583849E-1	8.441845E-1	7.984857E-1	8.543891E-1	7.507156E-1
2.915070E+2	7.632505E-1	8.815159E-1	8.354224E-1	7.748229E-1	7.819886E-1	8.140893E-1	8.587359E-1	8.720329E-1	9.051769E-1	9.520415E-1	9.478059E-1	8.510092E-1	8.436212E-1	8.954328E-1	9.095653E-1	8.141542E-1	8.350567E-1	8.720883E-1	9.034688E-1	7.913599E-1	7.421810E-1	8.930102E-1	8.924370E-1	8.675380E-1	7.910544E-1	7.854486E-1	8.669566E-1	8.685815E-1	8.124639E-1	8.670326E-1	9.408663E-1	8.651425E-1	7.996868E-1	9.429824E-1	8.864471E-1	8.556789E-1	7.834045E-1	8.931105E-1	9.036054E-1	8.681923E-1	8.064292E-1	8.978429E-1	8.828839E-1	8.388700E-1	9.246575E-1	8.711025E-1	8.891919E-1	7.529416E-1	8.349246E-1	8.357559E-1	8.785451E-1	7.611127E-1	7.928916E-1	8.698106E-1	8.988036E-1	8.165298E-1	7.756188E-1	9.231134E-1	8.921556E-1	8.998597E-1	8.573509E-1	9.156466E-1	8.625304E-1	8.103488E-1	8.099835E-1	8.784978E-1	8.858828E-1	8.429738E-1	7.660620E-1	9.396593E-1	8.535506E-1	9.576993E-1	8.186605E-1	8.621305E-1	9.164696E-1	8.434023E-1	8.945102E-1	8.585296E-1	8.702289E-1	7.945734E-1	8.056856E-1	8.806726E-1	9.111860E-1	8.473157E-1	8.041804E-1	9.031359E-1	8.792250E-1	8.528869E-1	8.623848E-1	8.558216E-1	9.104271E-1	7.866803E-1	8.919863E-1	9.267976E-1	8.274108E-1	7.688772E-1	8.304748E-1	8.821750E-1	9.189646E-1	8.053849E-1	7.686450E-1	8.943464E-1	9.122792E-1	8.982050E-1	8.441219E-1	9.176816E-1	8.656030E-1	8.121744E-1	8.513106E-1	8.911001E-1	9.077017E-1	8.086161E-1	8.151510E-1	8.791309E-1	9.085616E-1	7.970361E-1	8.415214E-1	8.730220E-1	8.831459E-1	8.503789E-1	7.970428E-1	8.977834E-1	8.298559E-1	8.580330E-1	8.890221E-1	8.883600E-1	8.993435E-1	7.507539E-1	8.222930E-1	8.385591E-1	8.798390E-1	8.075797E-1	8.545300E-1	9.390164E-1	9.340230E-1	8.168963E-1	8.360067E-1	9.419569E-1	8.799918E-1	8.309556E-1	8.487530E-1	9.146003E-1	9.171261E-1	7.661349E-1	8.315933E-1	9.284568E-1	9.035091E-1	7.767717E-1	8.324160E-1	8.902276E-1	9.596581E-1	8.659133E-1	8.056139E-1	9.157449E-1	9.119346E-1	8.177842E-1	8.837336E-1	9.480685E-1	9.432649E-1	7.444420E-1	9.076811E-1	8.522694E-1	9.035662E-1	6.946753E-1	8.282423E-1	8.788711E-1	8.990374E-1	8.556928E-1	8.725912E-1	9.376788E-1
2.920030E+2	7.094851E-1	7.503230E-1	7.762195E-1	6.618687E-1	6.886893E-1	6.836959E-1	6.829407E-1	7.268753E-1	7.104345E-1	7.274294E-1	7.902204E-1	6.487580E-1	6.770925E-1	7.257338E-1	7.107055E-1	6.376325E-1	6.679720E-1	7.397659E-1	7.104075E-1	6.514420E-1	5.804355E-1	7.310156E-1	7.667873E-1	7.485492E-1	6.699316E-1	6.084679E-1	7.496882E-1	6.650955E-1	7.483018E-1	6.556736E-1	7.553221E-1	6.816244E-1	6.853651E-1	7.526685E-1	7.676468E-1	7.515289E-1	6.202166E-1	7.587156E-1	7.291621E-1	7.399936E-1	6.573009E-1	7.208569E-1	7.502808E-1	6.596425E-1	7.092552E-1	6.888053E-1	7.150878E-1	6.380490E-1	6.576371E-1	7.174128E-1	7.152440E-1	6.274980E-1	6.186297E-1	7.077898E-1	6.762408E-1	6.848250E-1	6.992282E-1	7.149539E-1	6.973606E-1	7.332207E-1	6.869301E-1	6.558654E-1	7.216386E-1	6.882365E-1	6.717035E-1	7.828552E-1	7.480740E-1	6.641392E-1	6.495032E-1	7.220392E-1	7.363272E-1	7.367624E-1	6.338791E-1	7.285187E-1	7.422775E-1	7.029704E-1	6.951826E-1	7.206791E-1	7.586018E-1	6.613469E-1	6.860834E-1	7.077531E-1	7.188549E-1	6.336852E-1	7.272770E-1	7.706188E-1	6.640788E-1	6.598876E-1	7.284599E-1	6.905620E-1	7.420374E-1	7.066248E-1	7.294881E-1	7.026715E-1	6.810551E-1	6.271105E-1	7.100101E-1	7.374297E-1	6.707648E-1	6.231326E-1	6.168332E-1	7.058293E-1	7.395628E-1	7.497136E-1	7.002339E-1	7.519659E-1	7.350271E-1	6.843852E-1	7.333030E-1	7.440599E-1	7.014626E-1	6.435116E-1	7.290566E-1	7.312997E-1	7.159178E-1	6.635292E-1	6.787268E-1	7.334573E-1	7.231267E-1	6.952515E-1	6.781236E-1	7.630811E-1	7.337238E-1	6.937804E-1	7.379087E-1	6.720070E-1	7.290265E-1	6.517947E-1	7.453575E-1	7.039944E-1	7.523819E-1	7.031719E-1	6.649469E-1	7.393401E-1	7.486839E-1	6.985835E-1	7.341506E-1	7.747898E-1	6.607582E-1	6.563004E-1	7.495741E-1	7.290148E-1	7.262934E-1	6.644796E-1	7.040611E-1	7.393447E-1	7.837305E-1	6.499997E-1	6.627233E-1	7.125474E-1	7.115280E-1	7.142923E-1	7.355523E-1	7.201212E-1	7.424892E-1	6.383319E-1	7.430907E-1	7.382177E-1	7.366249E-1	6.037516E-1	7.195212E-1	7.386049E-1	7.151185E-1	6.001109E-1	7.332464E-1	7.579045E-1	7.034729E-1	6.933476E-1	7.633845E-1	7.086493E-1
2.925160E+2	5.739944E-1	6.314642E-1	6.712167E-1	6.026499E-1	5.991210E-1	6.694351E-1	6.295750E-1	6.972710E-1	5.901217E-1	6.725707E-1	6.286195E-1	6.113424E-1	6.590121E-1	6.772486E-1	6.946072E-1	5.288830E-1	6.187034E-1	6.688790E-1	6.692465E-1	5.884339E-1	5.047247E-1	6.625952E-1	6.506578E-1	6.459091E-1	5.840069E-1	5.570549E-1	6.848808E-1	6.693350E-1	6.008265E-1	6.259049E-1	6.630023E-1	6.454775E-1	6.595181E-1	6.450516E-1	6.661095E-1	6.642428E-1	5.373550E-1	6.213567E-1	6.927806E-1	6.949510E-1	5.812543E-1	6.828602E-1	6.496185E-1	6.058735E-1	6.464701E-1	6.731530E-1	6.672577E-1	5.986804E-1	6.250745E-1	6.422018E-1	6.887079E-1	6.133256E-1	5.647997E-1	6.584333E-1	6.762412E-1	5.944001E-1	6.264321E-1	6.406916E-1	6.125002E-1	6.229094E-1	6.017195E-1	6.728866E-1	6.795657E-1	5.932607E-1	5.861020E-1	6.723344E-1	6.927336E-1	6.096164E-1	6.188821E-1	6.410424E-1	6.404164E-1	6.363369E-1	6.382266E-1	6.558189E-1	6.791205E-1	5.645588E-1	6.092153E-1	6.800786E-1	6.654248E-1	5.918009E-1	6.427631E-1	6.407226E-1	6.765069E-1	5.672861E-1	6.153393E-1	6.598719E-1	6.747831E-1	6.187256E-1	6.198457E-1	6.946418E-1	7.400207E-1	6.099715E-1	6.689108E-1	6.611002E-1	6.368719E-1	5.360361E-1	7.026771E-1	6.482745E-1	7.031788E-1	5.669738E-1	5.722897E-1	6.501535E-1	6.506497E-1	6.656629E-1	6.312879E-1	6.981627E-1	6.562838E-1	6.531930E-1	6.417293E-1	6.663960E-1	6.537227E-1	5.572493E-1	6.429626E-1	6.364636E-1	6.901727E-1	6.110797E-1	6.260039E-1	6.961771E-1	6.241546E-1	6.493563E-1	6.105771E-1	6.436864E-1	6.553565E-1	6.600880E-1	6.579650E-1	6.729523E-1	6.252708E-1	6.202303E-1	6.408053E-1	6.294834E-1	6.852471E-1	5.445500E-1	5.678654E-1	7.150139E-1	6.560132E-1	6.861296E-1	6.629499E-1	6.802614E-1	6.879110E-1	6.331525E-1	6.424609E-1	6.909925E-1	6.277404E-1	5.862830E-1	7.040619E-1	6.823102E-1	6.597472E-1	5.654859E-1	6.405904E-1	6.819129E-1	6.821578E-1	6.286831E-1	6.283990E-1	6.593750E-1	6.261835E-1	5.807894E-1	5.968206E-1	6.964291E-1	6.447834E-1	5.699145E-1	6.180415E-1	6.541372E-1	6.166334E-1	5.472655E-1	6.276971E-1	6.701059E-1	6.688907E-1	6.454174E-1	5.865722E-1	7.366933E-1
2.930070E+2	6.041035E-1	6.415560E-1	6.566952E-1	6.355501E-1	6.205805E-1	6.826779E-1	6.337603E-1	6.648004E-1	6.360039E-1	6.829217E-1	6.757951E-1	6.629152E-1	6.580610E-1	6.976124E-1	6.936607E-1	6.163554E-1	6.112054E-1	6.622632E-1	6.672861E-1	6.607086E-1	5.339765E-1	7.290028E-1	6.649356E-1	6.350104E-1	6.047120E-1	5.600221E-1	6.211022E-1	6.841718E-1	6.372170E-1	6.735346E-1	6.412801E-1	6.973813E-1	6.127952E-1	6.359892E-1	6.640782E-1	6.682099E-1	6.202158E-1	6.569325E-1	7.151686E-1	6.351829E-1	5.891551E-1	6.338645E-1	6.641362E-1	6.353934E-1	6.918674E-1	6.335630E-1	6.328188E-1	6.051078E-1	6.323110E-1	6.587933E-1	6.386969E-1	5.343712E-1	6.022067E-1	6.841852E-1	6.632765E-1	5.904683E-1	6.156476E-1	6.643201E-1	6.337159E-1	6.135217E-1	6.471651E-1	6.325745E-1	6.913067E-1	6.050192E-1	6.152638E-1	6.882755E-1	6.666910E-1	6.608675E-1	5.892494E-1	6.917871E-1	6.578539E-1	6.719424E-1	6.838784E-1	6.715374E-1	6.831948E-1	6.029506E-1	6.262200E-1	6.715809E-1	6.359032E-1	6.119108E-1	6.832574E-1	6.815243E-1	6.359233E-1	6.202134E-1	5.939773E-1	6.636577E-1	6.983310E-1	6.562280E-1	6.535900E-1	6.721997E-1	6.291048E-1	5.894692E-1	6.496796E-1	6.773664E-1	6.755321E-1	5.824325E-1	6.691550E-1	6.723986E-1	6.726162E-1	6.199538E-1	5.659263E-1	6.169431E-1	6.588253E-1	6.451159E-1	5.803281E-1	6.594249E-1	7.041281E-1	5.777275E-1	6.370093E-1	6.850353E-1	7.081465E-1	5.544669E-1	6.237183E-1	6.680758E-1	6.928361E-1	5.900997E-1	6.324788E-1	6.761034E-1	6.926022E-1	6.585355E-1	5.810843E-1	6.447076E-1	6.532665E-1	5.884896E-1	6.423667E-1	6.606697E-1	6.663818E-1	5.767225E-1	6.615194E-1	6.472768E-1	6.618960E-1	6.047865E-1	6.136591E-1	6.187229E-1	6.932838E-1	6.372028E-1	6.115265E-1	7.180724E-1	6.798657E-1	6.110582E-1	6.097324E-1	6.982343E-1	6.841842E-1	5.749881E-1	6.125006E-1	6.743050E-1	6.429355E-1	5.801838E-1	6.289965E-1	6.328979E-1	6.669659E-1	7.019155E-1	6.314898E-1	6.665820E-1	6.472374E-1	6.139500E-1	6.512028E-1	6.600914E-1	6.497762E-1	5.601200E-1	6.856942E-1	6.311958E-1	6.725048E-1	5.074005E-1	6.248191E-1	6.788859E-1	7.022799E-1	6.438700E-1	6.957784E-1	6.291895E-1
2.935040E+2	6.944297E-1	7.592938E-1	7.616975E-1	7.243773E-1	6.523017E-1	7.580611E-1	7.530498E-1	7.698486E-1	7.267482E-1	7.036235E-1	6.858323E-1	6.811188E-1	7.513169E-1	7.267037E-1	7.703639E-1	7.219525E-1	6.893938E-1	7.492171E-1	7.329473E-1	6.977721E-1	5.683902E-1	7.219595E-1	7.287117E-1	7.067659E-1	7.175522E-1	5.995694E-1	7.424866E-1	6.862925E-1	7.569211E-1	6.933808E-1	7.299792E-1	7.446510E-1	7.221468E-1	7.050912E-1	7.057090E-1	7.039185E-1	6.202165E-1	7.508104E-1	7.338265E-1	7.365287E-1	7.323581E-1	6.588621E-1	6.747835E-1	7.576903E-1	6.909033E-1	7.753497E-1	7.466566E-1	7.529415E-1	6.467833E-1	7.163051E-1	7.356562E-1	7.216351E-1	6.304911E-1	7.947023E-1	7.172958E-1	7.084135E-1	6.426088E-1	7.172048E-1	7.089333E-1	7.742935E-1	7.333222E-1	7.302165E-1	7.470780E-1	6.448190E-1	6.679413E-1	7.934820E-1	8.229473E-1	7.164808E-1	6.257964E-1	7.122809E-1	7.353581E-1	7.486316E-1	6.599659E-1	6.951159E-1	7.106995E-1	7.171151E-1	6.696757E-1	7.490039E-1	6.921782E-1	6.873221E-1	7.086855E-1	7.446683E-1	7.603209E-1	6.933481E-1	6.589181E-1	7.128786E-1	7.026124E-1	7.467827E-1	7.326785E-1	7.028038E-1	7.259050E-1	6.636680E-1	7.102565E-1	7.559921E-1	7.132712E-1	6.460129E-1	7.267696E-1	7.122559E-1	7.068828E-1	6.888285E-1	6.504685E-1	6.960617E-1	7.354758E-1	7.226302E-1	6.402820E-1	7.196841E-1	7.390141E-1	7.206096E-1	7.342480E-1	7.378460E-1	7.377456E-1	5.989888E-1	6.905675E-1	6.996880E-1	7.354481E-1	6.730650E-1	6.963016E-1	7.516210E-1	7.046273E-1	7.246255E-1	6.562417E-1	7.457333E-1	7.190952E-1	6.600869E-1	7.310848E-1	7.513683E-1	7.329422E-1	6.321732E-1	7.246446E-1	7.573762E-1	7.387599E-1	6.589987E-1	6.402190E-1	7.626526E-1	7.607713E-1	7.332767E-1	7.203061E-1	7.170780E-1	7.683636E-1	7.236383E-1	6.960174E-1	7.543632E-1	7.101662E-1	6.375452E-1	7.138715E-1	7.473487E-1	7.396004E-1	7.014433E-1	6.722093E-1	6.798704E-1	7.236817E-1	6.967584E-1	7.633701E-1	7.190917E-1	7.314597E-1	6.958732E-1	7.552793E-1	7.527532E-1	7.745581E-1	6.358073E-1	7.163494E-1	6.916780E-1	7.397402E-1	5.639531E-1	7.351659E-1	7.218097E-1	7.237447E-1	6.562412E-1	6.983800E-1	6.198413E-1
2.940070E+2	6.965804E-1	7.559294E-1	6.712172E-1	7.134113E-1	6.485700E-1	7.346313E-1	6.892197E-1	6.982256E-1	6.635331E-1	7.201843E-1	7.018923E-1	6.942647E-1	7.313334E-1	7.024614E-1	7.201747E-1	6.967360E-1	7.043880E-1	7.029055E-1	6.859062E-1	6.625619E-1	5.649491E-1	7.199478E-1	7.515581E-1	7.176659E-1	6.368042E-1	5.886936E-1	7.280853E-1	7.064286E-1	7.320217E-1	7.013192E-1	6.620968E-1	6.491848E-1	6.306890E-1	7.164191E-1	7.321081E-1	6.444051E-1	6.092250E-1	7.320341E-1	6.974447E-1	7.547189E-1	6.573005E-1	6.898595E-1	6.931741E-1	7.408223E-1	7.440290E-1	7.210290E-1	7.370904E-1	7.224102E-1	6.585418E-1	7.063522E-1	6.887074E-1	7.115129E-1	6.387016E-1	7.796808E-1	7.259397E-1	6.926873E-1	6.336223E-1	7.385828E-1	6.616810E-1	7.531696E-1	6.443250E-1	7.275288E-1	7.069621E-1	6.828098E-1	6.472461E-1	7.180313E-1	6.970742E-1	7.459232E-1	6.218449E-1	7.513163E-1	6.888559E-1	7.349370E-1	6.773575E-1	6.705549E-1	7.086617E-1	6.716509E-1	6.999049E-1	6.687487E-1	6.894106E-1	7.107835E-1	6.851415E-1	6.679242E-1	6.579793E-1	7.462740E-1	6.717349E-1	6.996267E-1	7.208083E-1	6.983041E-1	7.105340E-1	6.681186E-1	7.158206E-1	7.447002E-1	7.141028E-1	7.180346E-1	6.948614E-1	6.881130E-1	6.942965E-1	6.839363E-1	7.735637E-1	7.004846E-1	5.877432E-1	6.882474E-1	7.364971E-1	7.235639E-1	6.622641E-1	7.089235E-1	6.871829E-1	6.602371E-1	7.068698E-1	7.326687E-1	7.444292E-1	6.388739E-1	6.692978E-1	7.247916E-1	7.283466E-1	6.873702E-1	6.620779E-1	6.799263E-1	6.685524E-1	7.576701E-1	6.238952E-1	6.865467E-1	6.804344E-1	6.653520E-1	7.505829E-1	7.088537E-1	7.388153E-1	5.946377E-1	7.128086E-1	7.084431E-1	6.385449E-1	6.349040E-1	6.686102E-1	7.109594E-1	7.214872E-1	6.887977E-1	7.044830E-1	7.091176E-1	7.452333E-1	6.447269E-1	6.821326E-1	7.389732E-1	6.931437E-1	6.158232E-1	6.997016E-1	7.263364E-1	7.511578E-1	5.820203E-1	6.637772E-1	6.972303E-1	7.034259E-1	6.936643E-1	7.355518E-1	7.108550E-1	6.783201E-1	6.607628E-1	6.915199E-1	7.391270E-1	7.166598E-1	6.055331E-1	7.343203E-1	7.573744E-1	7.075424E-1	5.500468E-1	7.092584E-1	7.403450E-1	7.177824E-1	6.948939E-1	7.217815E-1	8.675677E-1
2.945040E+2	6.976562E-1	7.166840E-1	7.248347E-1	6.717378E-1	6.774926E-1	7.387062E-1	7.540968E-1	7.421550E-1	6.961598E-1	7.947097E-1	7.631195E-1	7.508952E-1	6.932697E-1	7.402800E-1	7.125985E-1	7.534744E-1	6.604745E-1	7.775724E-1	6.849262E-1	7.098191E-1	6.251737E-1	7.632134E-1	7.667877E-1	7.503659E-1	7.072006E-1	6.064907E-1	7.352865E-1	7.149061E-1	7.042512E-1	7.013194E-1	7.028268E-1	7.288944E-1	6.953066E-1	7.130199E-1	7.432776E-1	7.158215E-1	5.821680E-1	7.083182E-1	7.403560E-1	7.122752E-1	6.800155E-1	6.808606E-1	7.105963E-1	7.155191E-1	7.305057E-1	7.643022E-1	7.275239E-1	7.232137E-1	7.164314E-1	7.129886E-1	7.387193E-1	7.024027E-1	6.396146E-1	7.389065E-1	7.637531E-1	7.447793E-1	6.911398E-1	7.183290E-1	7.465427E-1	7.637315E-1	6.907168E-1	7.167797E-1	6.922862E-1	7.307497E-1	6.923991E-1	7.520368E-1	7.502447E-1	7.382904E-1	6.416008E-1	7.542433E-1	6.956374E-1	7.787586E-1	6.958351E-1	7.373612E-1	7.534827E-1	7.181254E-1	7.490295E-1	7.423943E-1	7.180085E-1	7.350829E-1	6.757249E-1	7.194107E-1	6.941512E-1	7.222174E-1	6.836981E-1	7.071997E-1	7.786097E-1	7.394656E-1	7.158068E-1	7.599309E-1	7.329620E-1	7.720366E-1	7.342953E-1	7.731630E-1	6.865777E-1	7.267770E-1	6.576326E-1	7.175008E-1	7.346670E-1	8.032659E-1	6.477410E-1	7.478304E-1	7.324097E-1	7.908054E-1	7.092274E-1	7.584230E-1	7.649293E-1	7.507957E-1	7.068697E-1	7.575202E-1	7.587509E-1	7.696584E-1	6.774003E-1	7.127043E-1	7.203560E-1	6.997668E-1	6.824265E-1	7.506651E-1	7.379252E-1	7.494087E-1	6.381656E-1	7.181806E-1	7.452182E-1	7.664310E-1	7.496074E-1	7.183009E-1	7.094498E-1	6.987157E-1	6.980138E-1	7.273489E-1	7.212461E-1	7.292735E-1	6.997490E-1	7.190685E-1	7.396184E-1	7.137060E-1	7.321726E-1	7.260329E-1	7.633360E-1	7.152208E-1	7.099024E-1	7.833326E-1	7.182298E-1	6.505780E-1	7.531121E-1	7.373430E-1	7.343471E-1	6.793963E-1	6.606161E-1	7.248015E-1	7.915370E-1	7.101676E-1	7.139149E-1	7.551267E-1	7.214341E-1	6.471093E-1	7.459036E-1	7.454848E-1	7.086723E-1	5.939572E-1	6.962653E-1	7.448615E-1	6.990201E-1	6.288504E-1	6.708764E-1	7.608310E-1	6.998944E-1	6.577868E-1	7.061786E-1	8.769160E-1
2.950120E+2	8.288451E-1	9.431877E-1	9.851057E-1	9.250630E-1	8.790212E-1	9.200336E-1	9.748858E-1	9.560708E-1	8.756090E-1	1.005865E+0	9.819326E-1	9.733706E-1	9.920703E-1	1.012767E+0	9.379748E-1	9.693979E-1	8.629043E-1	8.796495E-1	8.946492E-1	9.664875E-1	8.247748E-1	9.503628E-1	9.762030E-1	9.184031E-1	9.370235E-1	8.319182E-1	9.945131E-1	9.936411E-1	9.417445E-1	9.801537E-1	9.453930E-1	9.800720E-1	9.010857E-1	9.554423E-1	9.646309E-1	1.002480E+0	8.222982E-1	9.237444E-1	9.651742E-1	9.833983E-1	8.834618E-1	9.608362E-1	9.157926E-1	9.253217E-1	1.028012E+0	9.815857E-1	9.618954E-1	9.771021E-1	8.656778E-1	9.408273E-1	1.010207E+0	9.888653E-1	8.120516E-1	1.013591E+0	9.971188E-1	9.118681E-1	8.726811E-1	9.399908E-1	9.519434E-1	9.608827E-1	9.198396E-1	9.407277E-1	9.554813E-1	9.822108E-1	8.927628E-1	9.996457E-1	1.007414E+0	9.978191E-1	8.727406E-1	9.542969E-1	9.368666E-1	1.003347E+0	9.219204E-1	9.505505E-1	9.062832E-1	9.787836E-1	9.927576E-1	9.246229E-1	1.043667E+0	9.629924E-1	9.234044E-1	8.913580E-1	9.782370E-1	9.560557E-1	9.272259E-1	9.656079E-1	1.069754E+0	9.416125E-1	9.235462E-1	9.914988E-1	9.961352E-1	1.002441E+0	9.804484E-1	9.774070E-1	9.120938E-1	1.002578E+0	9.278944E-1	9.136415E-1	9.476737E-1	9.738628E-1	8.504598E-1	9.500222E-1	9.449832E-1	9.738503E-1	8.790942E-1	9.219848E-1	9.762440E-1	9.449933E-1	9.551569E-1	9.563366E-1	9.955441E-1	9.848504E-1	9.559400E-1	9.507226E-1	9.343060E-1	9.343585E-1	8.544708E-1	9.667025E-1	9.571439E-1	9.917389E-1	8.702976E-1	9.110490E-1	9.824108E-1	9.496359E-1	9.416669E-1	9.299300E-1	9.414335E-1	9.657338E-1	9.120501E-1	9.342001E-1	9.829729E-1	9.782478E-1	8.517831E-1	9.896955E-1	9.168991E-1	9.868048E-1	9.398417E-1	9.628521E-1	9.212235E-1	1.000350E+0	9.360294E-1	9.100741E-1	9.672985E-1	9.694457E-1	9.634847E-1	1.014509E+0	9.791608E-1	9.108925E-1	9.451926E-1	9.831512E-1	9.464909E-1	9.587429E-1	9.787074E-1	9.723722E-1	1.000167E+0	9.513982E-1	9.193637E-1	9.317156E-1	1.024125E+0	8.940371E-1	9.795632E-1	9.325657E-1	9.764830E-1	9.394294E-1	9.136411E-1	1.014470E+0	9.491214E-1	9.175389E-1	9.661991E-1	9.470270E-1
2.955070E+2	1.071867E+0	1.101291E+0	1.125853E+0	1.123555E+0	1.032033E+0	1.120714E+0	1.023021E+0	1.121283E+0	1.095843E+0	1.099022E+0	1.129480E+0	1.096743E+0	1.054875E+0	1.085495E+0	1.093275E+0	1.111245E+0	9.828633E-1	1.050723E+0	1.106331E+0	1.066561E+0	9.340394E-1	1.106320E+0	1.101851E+0	1.085533E+0	1.000173E+0	9.357333E-1	1.151902E+0	1.146255E+0	1.049957E+0	1.079384E+0	1.102879E+0	1.093149E+0	1.050203E+0	1.090247E+0	1.089523E+0	1.102662E+0	9.474359E-1	1.124347E+0	1.094840E+0	1.130653E+0	9.802480E-1	1.117824E+0	1.030005E+0	1.118255E+0	1.125570E+0	1.127056E+0	1.144609E+0	1.182784E+0	9.660810E-1	1.027097E+0	1.097981E+0	1.121469E+0	1.031021E+0	1.176684E+0	1.146214E+0	1.018019E+0	1.042539E+0	1.138024E+0	1.156382E+0	1.148645E+0	1.018304E+0	1.136907E+0	1.089526E+0	1.130555E+0	1.028220E+0	1.065533E+0	1.135458E+0	1.194103E+0	9.537393E-1	1.094822E+0	1.121906E+0	1.093731E+0	1.067572E+0	1.096934E+0	1.116128E+0	1.143464E+0	1.097617E+0	1.030371E+0	1.127619E+0	1.105437E+0	1.075967E+0	1.036106E+0	1.139690E+0	1.087890E+0	1.030619E+0	1.042280E+0	1.079386E+0	1.078816E+0	1.060635E+0	1.070049E+0	1.062684E+0	1.062970E+0	1.066988E+0	1.101219E+0	1.132089E+0	1.120287E+0	1.078738E+0	1.055241E+0	1.046769E+0	1.043798E+0	9.568201E-1	1.051605E+0	1.113611E+0	1.171838E+0	1.063950E+0	1.102765E+0	1.117784E+0	1.083851E+0	1.038235E+0	1.110627E+0	1.112031E+0	1.103577E+0	9.994932E-1	1.059504E+0	1.108307E+0	1.107918E+0	9.784175E-1	1.107222E+0	1.137512E+0	1.120246E+0	1.042493E+0	1.153921E+0	1.142281E+0	1.072825E+0	1.106428E+0	1.073534E+0	1.102941E+0	1.058721E+0	1.029426E+0	1.072101E+0	1.048162E+0	1.115786E+0	1.056020E+0	1.113352E+0	1.168719E+0	1.128247E+0	1.066421E+0	1.122059E+0	1.068049E+0	1.125556E+0	1.060004E+0	1.102903E+0	1.109752E+0	1.124970E+0	1.058315E+0	1.036522E+0	1.138867E+0	1.051444E+0	9.884058E-1	1.095477E+0	1.057897E+0	1.026817E+0	1.003435E+0	1.089747E+0	1.118479E+0	1.106468E+0	1.109701E+0	1.136115E+0	1.127944E+0	1.080141E+0	1.052502E+0	1.067086E+0	1.090119E+0	1.123923E+0	1.047978E+0	1.054467E+0	1.073138E+0	1.096892E+0	1.028602E+0	1.063880E+0
2.960060E+2	1.063266E+0	1.220151E+0	1.211865E+0	1.080785E+0	1.063756E+0	1.113583E+0	1.153821E+0	1.158526E+0	1.137645E+0	1.144566E+0	1.136506E+0	1.193823E+0	1.218549E+0	1.107798E+0	1.159562E+0	1.159316E+0	1.093182E+0	1.157527E+0	1.125931E+0	1.125864E+0	1.063953E+0	1.129461E+0	1.179906E+0	1.073725E+0	1.044687E+0	9.545193E-1	1.123099E+0	1.190769E+0	1.113160E+0	1.128999E+0	1.122792E+0	1.144127E+0	1.081021E+0	1.135561E+0	1.125061E+0	1.155232E+0	9.854853E-1	1.128301E+0	1.216111E+0	1.151442E+0	1.065182E+0	1.129822E+0	1.155833E+0	1.194165E+0	1.128468E+0	1.166646E+0	1.140782E+0	1.191621E+0	1.023970E+0	1.083504E+0	1.185755E+0	1.197385E+0	1.051093E+0	1.157371E+0	1.145133E+0	1.101563E+0	1.081184E+0	1.157151E+0	1.138059E+0	1.174463E+0	1.086473E+0	1.191550E+0	1.172692E+0	1.097991E+0	1.130754E+0	1.115479E+0	1.189714E+0	1.184288E+0	1.011030E+0	1.147519E+0	1.243005E+0	1.195982E+0	1.111050E+0	1.168652E+0	1.112053E+0	1.168722E+0	1.161856E+0	1.161613E+0	1.100865E+0	1.123032E+0	1.096686E+0	1.147824E+0	1.129986E+0	1.168723E+0	1.047708E+0	1.131255E+0	1.145750E+0	1.216020E+0	1.075398E+0	1.158800E+0	1.135284E+0	1.175244E+0	1.135255E+0	1.163576E+0	1.105394E+0	1.139190E+0	1.088166E+0	1.110832E+0	1.123637E+0	1.209096E+0	9.868188E-1	1.134632E+0	1.187194E+0	1.183046E+0	1.133895E+0	1.112448E+0	1.110807E+0	1.089887E+0	1.102430E+0	1.224532E+0	1.203693E+0	1.171288E+0	1.020764E+0	1.140394E+0	1.187317E+0	1.169904E+0	1.055190E+0	1.212373E+0	1.089414E+0	1.154210E+0	1.090062E+0	1.174330E+0	1.172584E+0	1.112836E+0	1.129827E+0	1.076369E+0	1.146008E+0	1.124409E+0	1.092552E+0	1.164406E+0	1.123079E+0	1.088681E+0	1.058768E+0	1.215725E+0	1.097202E+0	1.154934E+0	1.077299E+0	1.166835E+0	1.175655E+0	1.181318E+0	1.109593E+0	1.145450E+0	1.182322E+0	1.214461E+0	1.101916E+0	1.186611E+0	1.137817E+0	1.146063E+0	1.114884E+0	1.163894E+0	1.165250E+0	1.179469E+0	1.114709E+0	1.179322E+0	1.217740E+0	1.175714E+0	1.147207E+0	1.203339E+0	1.205809E+0	1.178089E+0	1.151868E+0	1.110885E+0	1.187657E+0	1.147100E+0	1.064290E+0	1.108123E+0	1.193578E+0	1.107716E+0	1.174213E+0	1.241494E+0
2.965040E+2	9.686368E-1	1.005980E+0	1.088990E+0	1.031437E+0	1.013373E+0	1.056538E+0	1.086851E+0	1.109822E+0	1.011216E+0	1.161127E+0	1.097361E+0	1.138204E+0	1.055826E+0	1.081617E+0	1.078124E+0	1.031653E+0	1.033203E+0	1.063009E+0	1.066151E+0	1.066561E+0	8.781171E-1	1.093239E+0	1.098044E+0	1.136397E+0	9.432348E-1	8.823427E-1	1.158073E+0	1.015897E+0	1.033676E+0	1.024807E+0	1.061245E+0	1.038464E+0	1.023361E+0	1.100444E+0	1.065154E+0	1.084807E+0	9.305260E-1	1.120396E+0	1.124691E+0	1.096871E+0	1.052343E+0	1.039830E+0	1.100662E+0	1.057107E+0	1.045399E+0	1.081021E+0	1.116866E+0	1.081550E+0	9.877895E-1	1.107837E+0	1.150033E+0	1.092113E+0	9.479950E-1	1.158444E+0	1.004681E+0	1.099598E+0	9.733378E-1	1.099766E+0	1.056092E+0	1.127523E+0	9.832734E-1	1.057181E+0	1.086591E+0	1.104323E+0	9.698980E-1	1.142047E+0	1.098565E+0	1.121041E+0	9.339836E-1	1.070425E+0	1.011464E+0	1.057211E+0	1.080615E+0	1.135249E+0	1.127333E+0	1.101030E+0	1.048494E+0	1.072860E+0	1.075956E+0	1.121356E+0	1.074084E+0	1.066220E+0	1.111457E+0	1.071530E+0	1.011820E+0	1.067837E+0	1.101864E+0	1.104428E+0	1.076453E+0	1.055767E+0	1.072767E+0	1.046373E+0	1.055449E+0	1.122908E+0	1.078701E+0	1.083343E+0	1.059883E+0	1.075171E+0	1.125488E+0	1.099957E+0	8.968221E-1	1.124864E+0	1.064555E+0	1.099928E+0	1.012990E+0	1.052189E+0	1.080904E+0	1.007379E+0	1.047675E+0	1.117875E+0	1.038511E+0	1.094301E+0	1.000507E+0	1.042769E+0	1.134052E+0	1.060237E+0	9.932164E-1	1.126341E+0	1.074614E+0	1.094546E+0	1.032030E+0	1.128408E+0	1.127652E+0	9.654294E-1	1.130801E+0	1.056529E+0	1.131327E+0	1.058722E+0	1.029426E+0	1.083222E+0	1.054972E+0	1.051535E+0	1.004732E+0	1.087000E+0	1.096195E+0	1.134474E+0	9.991755E-1	1.146934E+0	1.088163E+0	1.106617E+0	1.067937E+0	1.092943E+0	1.074810E+0	1.123232E+0	1.116086E+0	1.159595E+0	1.140969E+0	1.044094E+0	1.030566E+0	1.094456E+0	1.107523E+0	1.115521E+0	9.704649E-1	1.108279E+0	1.067344E+0	1.083061E+0	1.105951E+0	1.099776E+0	1.105982E+0	1.069455E+0	1.063073E+0	1.069173E+0	1.002998E+0	1.093329E+0	1.027827E+0	1.093489E+0	1.085063E+0	1.010307E+0	9.791981E-1	1.199427E+0
2.970040E+2	8.611050E-1	9.162764E-1	9.314879E-1	8.537809E-1	8.099791E-1	9.027154E-1	9.414016E-1	8.596178E-1	8.745894E-1	9.313393E-1	9.186978E-1	9.096613E-1	8.769266E-1	8.983413E-1	9.019907E-1	8.488275E-1	8.575487E-1	8.418432E-1	8.632888E-1	8.701219E-1	7.800366E-1	8.829485E-1	9.276564E-1	8.811630E-1	8.945782E-1	7.864371E-1	9.009036E-1	8.675221E-1	8.766249E-1	8.779480E-1	9.209548E-1	8.558738E-1	8.126103E-1	9.656376E-1	8.844160E-1	8.943626E-1	7.774848E-1	8.486412E-1	9.064046E-1	8.837837E-1	8.232183E-1	8.678446E-1	8.848195E-1	8.620644E-1	8.599405E-1	9.152963E-1	8.891927E-1	8.991679E-1	8.331153E-1	8.600886E-1	8.816059E-1	8.997887E-1	7.463616E-1	8.719574E-1	9.009638E-1	8.990916E-1	8.223524E-1	9.017340E-1	8.719046E-1	8.752154E-1	8.952221E-1	9.084794E-1	8.840565E-1	8.781894E-1	8.570170E-1	8.955007E-1	9.140962E-1	8.560597E-1	7.630978E-1	8.615895E-1	9.019902E-1	8.837494E-1	8.740944E-1	9.171477E-1	8.910021E-1	9.211967E-1	8.680591E-1	8.575853E-1	9.080541E-1	9.386931E-1	8.188693E-1	8.729009E-1	8.653094E-1	8.877324E-1	8.426323E-1	8.927249E-1	9.391667E-1	8.821575E-1	8.876933E-1	8.731651E-1	8.811861E-1	9.048118E-1	8.564110E-1	8.960704E-1	8.541045E-1	8.754172E-1	8.598060E-1	8.779806E-1	8.865506E-1	8.859153E-1	7.477382E-1	9.031372E-1	8.417620E-1	9.047420E-1	8.571114E-1	9.069202E-1	9.074673E-1	8.443731E-1	9.004016E-1	9.946495E-1	8.924244E-1	9.022982E-1	7.908427E-1	8.596061E-1	9.298677E-1	8.704656E-1	8.433707E-1	8.997868E-1	8.479967E-1	8.742458E-1	8.636383E-1	9.120696E-1	9.646474E-1	8.969905E-1	8.782974E-1	8.619069E-1	9.110888E-1	8.411817E-1	8.173618E-1	8.574648E-1	8.331377E-1	8.336823E-1	8.334661E-1	9.197578E-1	8.645206E-1	8.773875E-1	8.587523E-1	9.320065E-1	9.172009E-1	8.646235E-1	8.556950E-1	8.467035E-1	8.839775E-1	8.982005E-1	8.719225E-1	9.364611E-1	9.066621E-1	8.842516E-1	7.744460E-1	9.137128E-1	9.069929E-1	8.679764E-1	8.859784E-1	8.910345E-1	8.898765E-1	9.494470E-1	8.049742E-1	8.499559E-1	9.442641E-1	9.082844E-1	8.410848E-1	9.044096E-1	8.779982E-1	8.977102E-1	8.503110E-1	9.256967E-1	9.944359E-1	9.036231E-1	8.413886E-1	7.974570E-1
2.975040E+2	8.611052E-1	8.613317E-1	8.041455E-1	8.088193E-1	8.444998E-1	7.733418E-1	8.168804E-1	8.042283E-1	8.582757E-1	7.584826E-1	8.404067E-1	8.570765E-1	8.008000E-1	7.974930E-1	8.404385E-1	8.527681E-1	7.825752E-1	8.097076E-1	8.329076E-1	8.108188E-1	7.946627E-1	8.497439E-1	8.438904E-1	8.075888E-1	7.972667E-1	7.063518E-1	8.206674E-1	8.611628E-1	8.297014E-1	8.283330E-1	8.232042E-1	8.243607E-1	8.414404E-1	8.240366E-1	8.407549E-1	8.130277E-1	8.163787E-1	7.982436E-1	8.616271E-1	7.997621E-1	7.926024E-1	8.338471E-1	8.248089E-1	8.198925E-1	8.270986E-1	8.324328E-1	8.490142E-1	8.694406E-1	8.313068E-1	8.169542E-1	8.162866E-1	8.218464E-1	7.664335E-1	8.268918E-1	8.037284E-1	8.391363E-1	8.205556E-1	8.398490E-1	8.072948E-1	8.564397E-1	8.251606E-1	7.956097E-1	7.676243E-1	8.700482E-1	7.394327E-1	7.913572E-1	8.327116E-1	8.222548E-1	7.374155E-1	8.127965E-1	8.147993E-1	8.408406E-1	7.664870E-1	8.198857E-1	8.512751E-1	8.747223E-1	7.773698E-1	8.226503E-1	8.259469E-1	8.364695E-1	7.821426E-1	8.398714E-1	8.009051E-1	8.001624E-1	8.058898E-1	8.094270E-1	8.513954E-1	8.144696E-1	8.402404E-1	8.262385E-1	8.216947E-1	8.374482E-1	7.958339E-1	8.328094E-1	8.421383E-1	7.972307E-1	7.749557E-1	8.884685E-1	8.078308E-1	8.286974E-1	7.522823E-1	8.298793E-1	8.305205E-1	8.141535E-1	7.731772E-1	8.402037E-1	8.576287E-1	7.779627E-1	8.607513E-1	8.745314E-1	8.294076E-1	8.410795E-1	7.543788E-1	8.558871E-1	8.473057E-1	8.742799E-1	7.684497E-1	8.214027E-1	8.248719E-1	8.044845E-1	7.494752E-1	8.947226E-1	8.497077E-1	8.485565E-1	8.665984E-1	8.685190E-1	8.817246E-1	8.335042E-1	8.439936E-1	8.163167E-1	7.883808E-1	7.905132E-1	7.180667E-1	8.498202E-1	7.406256E-1	8.631543E-1	7.677730E-1	8.295173E-1	8.407719E-1	8.151739E-1	8.070974E-1	8.620933E-1	8.544118E-1	8.504136E-1	8.119731E-1	8.464080E-1	7.627162E-1	8.227035E-1	7.596905E-1	8.422325E-1	8.067287E-1	8.174366E-1	7.221572E-1	9.126553E-1	7.795868E-1	8.216857E-1	8.302898E-1	7.618367E-1	8.554185E-1	8.673238E-1	8.220586E-1	8.189002E-1	8.154984E-1	8.161250E-1	7.773856E-1	8.408247E-1	8.167581E-1	8.850692E-1	7.555831E-1	7.507155E-1
2.980040E+2	8.933643E-1	8.602105E-1	9.046794E-1	8.965497E-1	9.238049E-1	9.088274E-1	8.702466E-1	8.987722E-1	8.572568E-1	8.454290E-1	9.046449E-1	8.621328E-1	9.130875E-1	8.944634E-1	8.622182E-1	8.898055E-1	8.393419E-1	8.616917E-1	8.662293E-1	9.071846E-1	9.262970E-1	8.738928E-1	8.800621E-1	9.111366E-1	9.463403E-1	7.083286E-1	8.402115E-1	8.993172E-1	8.747094E-1	8.948164E-1	9.091888E-1	9.457793E-1	8.633104E-1	8.104426E-1	8.671543E-1	9.241193E-1	8.831762E-1	8.506177E-1	8.690899E-1	9.400872E-1	8.725984E-1	8.558455E-1	8.828833E-1	8.578477E-1	8.599398E-1	8.563714E-1	8.671903E-1	8.589956E-1	9.163315E-1	9.386156E-1	8.652770E-1	8.653732E-1	9.370467E-1	9.127304E-1	8.545067E-1	9.030226E-1	8.439224E-1	8.387237E-1	8.728694E-1	8.247546E-1	9.283597E-1	9.192291E-1	8.801433E-1	8.591940E-1	9.247463E-1	8.721224E-1	9.162660E-1	8.855017E-1	8.431086E-1	8.781787E-1	8.855211E-1	9.458314E-1	9.251818E-1	8.896385E-1	8.655358E-1	8.807841E-1	9.077361E-1	8.689162E-1	8.268694E-1	8.599303E-1	8.678412E-1	8.612434E-1	8.353125E-1	8.963927E-1	8.716852E-1	8.274113E-1	9.273920E-1	9.123418E-1	7.896231E-1	9.160096E-1	8.922775E-1	8.296373E-1	8.785264E-1	8.816106E-1	9.056510E-1	8.822904E-1	8.074304E-1	8.549047E-1	9.384131E-1	8.827372E-1	8.459154E-1	8.845778E-1	8.979718E-1	8.627160E-1	8.990792E-1	8.638768E-1	8.705871E-1	9.107823E-1	8.871848E-1	8.879933E-1	8.513679E-1	8.995156E-1	8.424989E-1	8.986559E-1	8.677246E-1	8.618835E-1	8.193223E-1	9.313336E-1	8.738964E-1	8.724104E-1	8.598334E-1	8.783945E-1	8.643370E-1	9.075201E-1	8.246771E-1	8.826912E-1	8.738934E-1	8.795717E-1	8.538563E-1	8.674743E-1	8.934612E-1	8.909057E-1	7.675233E-1	8.903645E-1	8.776159E-1	8.542587E-1	8.112843E-1	9.001647E-1	8.387592E-1	9.109190E-1	8.318920E-1	9.281795E-1	9.081674E-1	8.799542E-1	8.686534E-1	8.624180E-1	9.528938E-1	8.925198E-1	8.366321E-1	8.769514E-1	8.573680E-1	8.793218E-1	8.705233E-1	9.332474E-1	9.179508E-1	8.587462E-1	8.687317E-1	9.289904E-1	8.544197E-1	8.922561E-1	8.685692E-1	8.898103E-1	8.884147E-1	8.661883E-1	8.858143E-1	8.427756E-1	8.406067E-1	8.541464E-1	8.153879E-1	9.283309E-1
2.985020E+2	8.449745E-1	8.781512E-1	8.845721E-1	8.811972E-1	9.004798E-1	9.230889E-1	8.807108E-1	8.634375E-1	8.868245E-1	8.971825E-1	8.665040E-1	8.793235E-1	9.111845E-1	8.644021E-1	8.546420E-1	8.905938E-1	9.143150E-1	8.900470E-1	9.152298E-1	8.830938E-1	8.488649E-1	8.889852E-1	8.838704E-1	8.702634E-1	8.542041E-1	8.042337E-1	9.214774E-1	8.940168E-1	9.216339E-1	8.690173E-1	8.621232E-1	8.651418E-1	9.030744E-1	9.282546E-1	8.905083E-1	8.655977E-1	8.662655E-1	8.861929E-1	8.914779E-1	8.664600E-1	9.190161E-1	8.968425E-1	8.722372E-1	9.042360E-1	8.734632E-1	8.987231E-1	9.456319E-1	8.606025E-1	8.539190E-1	8.932689E-1	9.061018E-1	8.754953E-1	8.877787E-1	8.590819E-1	9.106868E-1	8.519138E-1	9.239081E-1	8.499757E-1	9.046924E-1	8.998599E-1	8.753401E-1	8.923556E-1	9.300429E-1	8.456255E-1	9.266270E-1	8.784980E-1	8.826278E-1	8.277077E-1	9.774459E-1	8.869615E-1	9.029591E-1	8.618386E-1	9.067039E-1	8.778497E-1	9.052641E-1	8.706805E-1	8.586119E-1	8.972412E-1	9.006732E-1	8.917705E-1	9.045689E-1	8.631869E-1	9.164799E-1	8.704107E-1	8.930470E-1	9.069222E-1	9.488010E-1	8.949626E-1	8.602754E-1	9.313113E-1	9.043774E-1	9.087162E-1	9.131411E-1	8.861293E-1	9.314247E-1	9.037700E-1	9.142777E-1	9.083976E-1	8.856244E-1	8.742595E-1	9.168215E-1	9.373231E-1	8.611793E-1	9.486349E-1	8.521152E-1	8.714108E-1	9.114544E-1	9.349323E-1	8.834085E-1	8.652125E-1	9.468489E-1	8.438622E-1	8.617426E-1	8.921472E-1	9.245409E-1	8.552077E-1	9.164444E-1	8.873606E-1	9.460435E-1	9.027011E-1	8.722007E-1	8.845167E-1	8.423941E-1	9.085729E-1	8.402749E-1	8.628510E-1	8.807456E-1	8.949271E-1	9.100780E-1	8.474558E-1	9.138928E-1	8.848826E-1	8.435401E-1	8.893499E-1	9.118632E-1	8.587058E-1	8.607296E-1	8.852388E-1	8.659123E-1	8.951364E-1	9.251207E-1	8.747684E-1	8.696414E-1	9.016749E-1	8.795538E-1	8.944370E-1	8.572786E-1	9.320210E-1	8.513880E-1	9.371998E-1	9.464922E-1	8.968567E-1	8.787661E-1	8.405839E-1	8.327266E-1	9.299426E-1	8.856094E-1	9.289906E-1	9.193070E-1	8.895852E-1	8.453135E-1	8.501838E-1	9.234527E-1	9.143972E-1	8.522305E-1	8.886268E-1	8.799581E-1	9.067163E-1	8.907914E-1	9.143093E-1
2.990020E+2	8.761592E-1	8.344211E-1	7.728679E-1	8.724241E-1	8.435663E-1	8.466866E-1	8.325760E-1	8.242836E-1	8.939623E-1	8.588838E-1	8.504442E-1	8.125807E-1	7.770099E-1	8.740992E-1	8.375972E-1	8.409474E-1	8.704014E-1	8.390077E-1	8.231083E-1	8.664150E-1	8.789773E-1	8.215712E-1	8.391313E-1	8.466463E-1	8.707674E-1	9.495759E-1	8.453549E-1	8.304282E-1	8.478956E-1	8.660403E-1	8.919915E-1	8.447514E-1	8.831918E-1	9.679040E-1	8.143541E-1	8.427847E-1	8.222977E-1	8.684052E-1	8.522982E-1	8.170859E-1	9.051900E-1	8.538457E-1	8.732039E-1	8.314897E-1	9.063052E-1	8.867550E-1	8.729305E-1	8.381063E-1	8.484921E-1	7.948342E-1	8.734418E-1	8.339931E-1	8.458093E-1	8.451327E-1	8.210136E-1	8.617423E-1	8.205558E-1	8.477254E-1	8.063305E-1	8.810830E-1	8.175865E-1	8.108377E-1	8.547045E-1	8.736662E-1	8.513726E-1	8.274886E-1	8.457345E-1	8.440642E-1	8.885455E-1	8.118197E-1	8.293314E-1	8.609258E-1	8.545294E-1	8.503416E-1	8.349762E-1	8.595678E-1	8.803401E-1	8.217062E-1	8.471652E-1	8.574166E-1	8.311127E-1	8.641581E-1	8.820718E-1	8.145973E-1	8.417780E-1	8.330911E-1	8.160724E-1	8.172138E-1	8.760945E-1	8.313389E-1	8.095945E-1	8.433053E-1	8.314106E-1	8.472685E-1	8.292518E-1	8.496413E-1	8.294282E-1	7.783348E-1	8.541359E-1	8.318755E-1	9.022766E-1	8.416001E-1	8.530033E-1	8.571120E-1	8.850894E-1	8.229873E-1	8.566322E-1	8.252554E-1	8.059953E-1	8.320762E-1	7.912152E-1	8.494272E-1	8.931418E-1	8.214867E-1	8.712748E-1	8.523473E-1	9.136696E-1	8.003726E-1	8.202485E-1	8.696559E-1	8.978878E-1	7.947162E-1	8.329897E-1	8.496100E-1	8.782976E-1	8.354522E-1	8.318050E-1	8.608030E-1	8.578019E-1	8.507926E-1	8.263262E-1	8.758477E-1	9.571071E-1	8.214404E-1	8.222152E-1	8.533686E-1	8.992970E-1	8.713086E-1	8.669181E-1	7.951828E-1	8.586701E-1	8.340300E-1	8.087192E-1	8.495441E-1	8.119730E-1	8.414050E-1	8.520261E-1	8.594484E-1	9.357069E-1	8.442752E-1	8.553422E-1	8.494102E-1	8.643421E-1	8.725008E-1	8.517766E-1	8.811778E-1	8.734206E-1	8.644905E-1	8.514253E-1	8.192389E-1	8.865399E-1	8.272427E-1	8.581115E-1	8.559903E-1	7.850626E-1	8.320453E-1	8.203343E-1	8.108551E-1	9.661980E-1	7.460419E-1
2.995060E+2	1.274026E+0	1.249303E+0	1.242026E+0	1.258441E+0	1.189711E+0	1.210359E+0	1.256368E+0	1.261665E+0	1.188626E+0	1.276020E+0	1.209780E+0	1.268656E+0	1.269935E+0	1.242588E+0	1.286454E+0	1.182957E+0	1.224922E+0	1.274726E+0	1.260193E+0	1.232423E+0	1.192145E+0	1.327679E+0	1.205607E+0	1.279003E+0	1.213431E+0	1.355937E+0	1.247569E+0	1.291453E+0	1.240525E+0	1.266927E+0	1.230498E+0	1.195103E+0	1.193354E+0	1.167278E+0	1.245891E+0	1.268308E+0	1.229844E+0	1.272577E+0	1.244096E+0	1.223337E+0	1.209373E+0	1.212816E+0	1.237137E+0	1.247933E+0	1.248244E+0	1.210840E+0	1.218267E+0	1.239828E+0	1.231106E+0	1.254937E+0	1.210250E+0	1.265206E+0	1.228092E+0	1.223896E+0	1.298551E+0	1.256858E+0	1.271713E+0	1.264043E+0	1.268244E+0	1.189719E+0	1.288138E+0	1.220216E+0	1.210850E+0	1.249049E+0	1.265271E+0	1.286574E+0	1.199479E+0	1.284610E+0	1.242170E+0	1.238274E+0	1.238161E+0	1.256237E+0	1.199093E+0	1.263949E+0	1.240405E+0	1.220246E+0	1.278996E+0	1.276803E+0	1.208802E+0	1.268828E+0	1.270910E+0	1.274113E+0	1.279969E+0	1.276501E+0	1.237404E+0	1.228751E+0	1.235663E+0	1.277304E+0	1.295793E+0	1.224088E+0	1.179650E+0	1.242608E+0	1.274678E+0	1.223223E+0	1.206647E+0	1.279238E+0	1.327002E+0	1.244040E+0	1.271816E+0	1.272673E+0	1.272262E+0	1.174680E+0	1.246470E+0	1.188649E+0	1.280781E+0	1.222208E+0	1.212477E+0	1.217677E+0	1.287467E+0	1.283555E+0	1.272439E+0	1.245492E+0	1.291201E+0	1.265911E+0	1.194419E+0	1.234751E+0	1.242034E+0	1.230536E+0	1.258683E+0	1.239575E+0	1.265112E+0	1.291683E+0	1.296927E+0	1.208650E+0	1.264366E+0	1.267213E+0	1.213548E+0	1.224222E+0	1.221763E+0	1.303420E+0	1.239835E+0	1.256337E+0	1.320704E+0	1.234983E+0	1.311753E+0	1.281253E+0	1.290902E+0	1.225541E+0	1.266163E+0	1.247604E+0	1.234558E+0	1.175324E+0	1.226222E+0	1.201428E+0	1.238168E+0	1.204622E+0	1.258649E+0	1.199344E+0	1.296170E+0	1.253755E+0	1.268553E+0	1.227947E+0	1.300166E+0	1.206092E+0	1.241803E+0	1.248859E+0	1.209091E+0	1.244219E+0	1.260713E+0	1.221721E+0	1.267089E+0	1.264177E+0	1.225538E+0	1.236102E+0	1.282106E+0	1.270061E+0	1.314017E+0	1.268514E+0	1.197613E+0	1.419108E+0
3.000060E+2	1.250370E+0	1.316583E+0	1.391709E+0	1.282568E+0	1.297939E+0	1.337696E+0	1.343219E+0	1.347613E+0	1.315055E+0	1.364002E+0	1.328221E+0	1.320230E+0	1.327983E+0	1.326954E+0	1.318650E+0	1.342928E+0	1.368444E+0	1.324820E+0	1.302332E+0	1.300065E+0	1.359053E+0	1.238128E+0	1.347439E+0	1.285361E+0	1.317990E+0	1.475573E+0	1.324720E+0	1.223622E+0	1.285534E+0	1.274866E+0	1.282994E+0	1.324864E+0	1.315629E+0	1.302084E+0	1.341337E+0	1.286162E+0	1.382038E+0	1.323964E+0	1.281411E+0	1.353268E+0	1.301220E+0	1.346803E+0	1.309730E+0	1.338601E+0	1.284949E+0	1.314878E+0	1.246966E+0	1.333027E+0	1.318845E+0	1.301390E+0	1.328643E+0	1.338086E+0	1.334840E+0	1.332267E+0	1.311514E+0	1.287327E+0	1.319345E+0	1.359683E+0	1.340569E+0	1.348144E+0	1.265415E+0	1.361752E+0	1.356635E+0	1.302417E+0	1.292550E+0	1.343960E+0	1.323181E+0	1.335861E+0	1.311315E+0	1.371969E+0	1.329228E+0	1.234326E+0	1.348005E+0	1.298335E+0	1.302544E+0	1.293999E+0	1.296946E+0	1.312683E+0	1.390544E+0	1.285585E+0	1.343425E+0	1.297427E+0	1.285262E+0	1.341936E+0	1.350196E+0	1.394397E+0	1.220677E+0	1.283708E+0	1.337974E+0	1.271014E+0	1.392406E+0	1.338285E+0	1.306410E+0	1.328960E+0	1.284887E+0	1.287830E+0	1.346906E+0	1.325854E+0	1.242180E+0	1.309758E+0	1.310442E+0	1.331940E+0	1.310855E+0	1.328735E+0	1.309759E+0	1.379314E+0	1.291221E+0	1.333390E+0	1.275193E+0	1.256632E+0	1.308722E+0	1.320624E+0	1.357037E+0	1.265912E+0	1.294736E+0	1.321530E+0	1.340080E+0	1.328995E+0	1.276257E+0	1.311173E+0	1.355491E+0	1.255967E+0	1.313645E+0	1.277090E+0	1.325786E+0	1.283274E+0	1.318283E+0	1.306972E+0	1.312508E+0	1.314541E+0	1.338104E+0	1.301514E+0	1.393058E+0	1.314042E+0	1.335927E+0	1.289259E+0	1.370014E+0	1.288229E+0	1.321475E+0	1.335984E+0	1.342662E+0	1.325604E+0	1.332838E+0	1.316985E+0	1.389679E+0	1.350710E+0	1.316436E+0	1.293963E+0	1.320412E+0	1.245586E+0	1.265516E+0	1.329028E+0	1.364045E+0	1.234921E+0	1.376156E+0	1.259588E+0	1.332858E+0	1.271473E+0	1.258716E+0	1.309875E+0	1.310429E+0	1.349686E+0	1.288985E+0	1.311198E+0	1.417401E+0	1.325666E+0	1.328326E+0	1.274699E+0	1.374427E+0	1.241494E+0
