Photon Energy (eV)	#1	#2	#3	#4	#5	#6	#7	#8	#9	#10	#11	#12	#13	#14	#15	#16	#17	#18	#19	#20	#21	#22	#23	#24	#25	#26	#27	#28	#29	#30	#31	#32	#33	#34	#35	#36	#37	#38	#39	#40	#41	#42	#43	#44	#45	#46	#47	#48	#49	#50	#51	#52	#53	#54	#55	#56	#57	#58	#59	#60	#61	#62	#63	#64	#65	#66	#67	#68	#69	#70	#71	#72	#73	#74	#75	#76	#77	#78	#79	#80	#81	#82	#83	#84	#85	#86	#87	#88	#89	#90	#91	#92	#93	#94	#95	#96	#97	#98	#99	#100	#101	#102	#103	#104	#105	#106	#107	#108	#109	#110	#111	#112	#113	#114	#115	#116	#117	#118	#119	#120	#121	#122	#123	#124	#125	#126	#127	#128	#129	#130	#131	#132	#133	#134	#135	#136	#137	#138	#139	#140	#141	#142	#143	#144	#145	#146	#147	#148	#149	#150	#151	#152	#153	#154	#155	#156	#157	#158	#159	#160	#161	#162	#163	#164	#165	#166	#167	#168	#169	#170	#171	
2.790060E+2	1.026541E-2	-9.627965E-3	-6.679344E-3	-5.068660E-3	-3.249554E-3	-6.319302E-4	1.342990E-2	5.413569E-3	-9.219359E-3	2.006191E-2	-1.489194E-2	1.208494E-2	-2.100089E-3	-1.559510E-2	-1.037307E-2	-5.481748E-3	-2.574983E-3	-2.275636E-3	-3.092133E-3	1.028749E-2	-1.853522E-2	-4.590165E-3	-2.012435E-2	-5.499215E-3	-9.958978E-3	-8.255318E-3	-8.611451E-3	-1.372468E-2	-2.877018E-4	-1.197336E-2	-7.145981E-3	-4.060888E-3	-3.102932E-3	-5.425379E-3	-7.640946E-3	-3.955535E-3	-2.247464E-3	-2.574279E-3	2.520521E-3	-5.824718E-3	1.114479E-2	-1.676252E-2	1.189161E-3	1.444378E-2	-9.200526E-3	2.836409E-3	2.666686E-3	5.971226E-3	-1.229746E-2	2.637534E-3	-9.079006E-3	-4.847313E-3	1.325956E-2	-4.821687E-3	1.359059E-2	9.304267E-3	1.060975E-3	4.128991E-3	4.197928E-3	-3.494616E-3	-1.993211E-3	4.114975E-3	-1.479329E-2	-8.997705E-3	1.146990E-2	-6.802285E-3	-9.067842E-3	1.589924E-2	3.953045E-4	2.048575E-3	-2.217167E-2	2.024778E-3	2.218190E-3	-1.004065E-2	6.432772E-3	-8.691178E-3	1.006623E-3	-6.553777E-3	5.635137E-3	-1.140724E-3	-1.068820E-2	8.321943E-3	-1.849926E-3	-5.859458E-4	-1.166101E-3	1.004315E-2	1.712926E-3	6.396990E-3	6.843596E-3	3.229044E-4	-4.812885E-3	-1.199706E-2	-5.297291E-3	-5.819857E-3	9.757228E-3	-8.121584E-3	7.917244E-3	-1.909483E-3	-6.431705E-3	-9.419536E-3	-3.610984E-3	-1.797486E-4	-1.803228E-2	-9.597519E-3	1.981190E-2	-3.929208E-3	1.133998E-4	1.336910E-3	-7.747422E-3	-7.215693E-3	2.377397E-3	-8.244692E-3	-6.487476E-3	-1.421670E-3	3.492281E-3	-1.298471E-2	-1.160204E-2	-1.370655E-2	1.169540E-3	8.585213E-3	4.044087E-3	1.226720E-2	4.098902E-3	3.128381E-4	-4.503526E-3	4.973264E-3	4.649714E-3	-4.635834E-3	4.293801E-4	-8.334846E-3	-9.795197E-3	7.265367E-4	-5.896588E-3	-2.068006E-3	1.585398E-2	5.116739E-3	-1.101097E-2	-5.226592E-3	5.826027E-3	-1.089405E-2	-1.702834E-2	7.233835E-3	-1.132008E-2	-1.474345E-2	-1.515076E-2	-5.518311E-3	8.824323E-3	3.025171E-3	1.709676E-3	-1.305033E-3	-1.139937E-3	-7.817528E-3	3.375396E-3	1.960959E-3	-1.814185E-2	1.989704E-2	-1.224855E-2	-1.335692E-2	-1.361795E-2	-1.791079E-2	-1.200539E-2	-2.785337E-3	-9.099018E-3	-7.261731E-3	-9.862006E-3	8.744488E-3	-8.168259E-3	-1.129097E-2	-1.271080E-3	-1.034146E-2	-2.247867E-2
2.795020E+2	3.016797E-3	-1.891265E-3	-2.270913E-2	2.808049E-3	-8.531599E-3	9.389392E-4	1.064009E-2	-3.546258E-3	-1.473235E-3	-8.655873E-3	-3.925453E-3	-9.893007E-4	-4.321920E-3	7.177726E-3	-3.929657E-3	2.245660E-3	8.706633E-4	-2.461591E-4	-1.490751E-2	-1.734386E-2	-1.802705E-2	1.286155E-2	-6.724275E-3	-2.918941E-3	5.860213E-3	-2.232223E-2	1.445407E-2	6.844702E-3	1.319492E-3	-9.311220E-4	-1.922638E-3	1.588181E-3	-1.435217E-2	-2.311567E-3	-2.114030E-4	-1.108468E-2	-3.383579E-3	1.313907E-3	-3.500737E-3	-1.018930E-2	-5.432150E-3	5.806345E-3	5.367769E-3	1.157778E-2	2.185184E-3	-1.426608E-2	-5.932970E-3	-5.800992E-3	-6.348035E-3	1.441927E-3	-1.522999E-2	-4.541600E-3	-2.545240E-3	2.538867E-3	-1.520578E-2	-8.764825E-3	-2.834776E-3	-4.599420E-3	2.625756E-4	-1.350644E-3	3.855022E-3	-1.588451E-2	3.601284E-3	-7.057867E-3	1.579708E-4	-3.573546E-3	-1.004199E-2	-1.442589E-2	-5.581718E-3	-7.152005E-3	9.688149E-3	-1.808637E-3	4.249266E-3	-2.788140E-3	-9.316030E-3	-1.166338E-2	9.108609E-3	1.076588E-2	1.353538E-2	-8.744675E-3	-4.541853E-3	-6.323441E-4	3.213614E-3	-8.066500E-3	-1.314765E-2	5.101290E-3	-1.142458E-2	-1.059950E-2	5.627202E-3	-1.519261E-2	-5.409145E-4	1.924734E-2	-4.972758E-3	5.106106E-3	-7.244821E-3	-4.704628E-3	-4.384262E-4	9.708102E-3	-1.154103E-2	-1.161061E-2	-6.015509E-3	-2.494745E-3	-1.116748E-2	-6.629997E-3	3.463740E-3	-7.948125E-3	-4.677625E-3	-9.548570E-4	1.483449E-2	-2.029112E-2	-3.783070E-3	-4.762094E-3	-7.325109E-3	2.317516E-3	3.866745E-3	1.199271E-2	-6.439114E-5	-3.912102E-3	-2.603097E-3	8.951421E-3	-1.230924E-2	-2.076129E-2	-7.176158E-3	6.585699E-4	-8.246738E-3	-1.325594E-2	-2.238052E-3	2.241159E-3	7.567743E-3	5.175976E-3	2.727613E-3	1.092785E-3	1.148675E-2	1.150301E-2	4.735495E-3	-9.515051E-4	-9.203011E-3	-1.154676E-2	-6.527227E-3	1.130567E-2	-1.370448E-2	-1.457599E-4	-1.484709E-2	-6.020481E-3	2.518576E-3	-5.309097E-3	-1.645950E-2	-1.162441E-2	-1.315054E-2	4.065515E-4	-8.398071E-4	1.005820E-2	3.506971E-3	-6.318825E-3	-1.061998E-2	-1.300925E-2	5.041960E-3	9.845028E-3	7.326294E-3	7.768652E-3	1.137014E-2	-8.090779E-3	-2.141342E-3	-6.683817E-3	4.145049E-3	-3.346578E-3	-9.165187E-3	-1.067147E-2	1.936860E-2	-2.829454E-2	-1.863185E-3
2.800000E+2	-1.206878E-2	-1.244123E-2	9.842945E-3	-1.118020E-2	8.701448E-3	-1.061972E-2	-2.057943E-2	-1.822681E-2	-1.817273E-3	1.846310E-3	-6.876715E-3	-2.830553E-3	-1.201450E-2	-7.550676E-3	1.185516E-2	-6.829478E-3	-4.075988E-3	-6.306284E-4	-8.560558E-3	-1.884903E-2	5.902600E-3	9.751208E-3	3.144359E-3	2.723850E-3	1.302410E-2	1.931556E-3	2.739747E-3	-1.495543E-2	-8.321397E-3	-1.078756E-2	7.666473E-3	-9.873511E-3	-1.318780E-2	-1.297825E-3	-5.619110E-4	-7.721787E-3	4.497600E-3	-1.520227E-2	-7.524405E-3	2.017471E-3	-1.278478E-3	-4.941205E-3	2.226127E-3	6.698218E-3	-9.334886E-4	1.048952E-2	-3.818283E-3	-1.137178E-2	4.179471E-3	4.050081E-3	-7.699203E-3	-2.144168E-3	-1.325524E-3	-7.441091E-3	-1.409064E-2	-1.432656E-4	9.094256E-4	-4.301409E-4	-1.478894E-3	-1.729008E-3	-1.274163E-2	-8.726017E-4	-6.458807E-3	2.136824E-2	-1.398426E-2	-1.380159E-2	-1.185621E-2	3.371703E-4	1.130383E-2	1.855017E-3	3.865726E-3	3.916414E-3	2.289558E-3	9.468305E-4	4.575001E-4	3.739531E-4	-5.366767E-3	-7.921927E-3	-1.492755E-2	8.113663E-3	1.408557E-2	-2.335632E-3	-6.216640E-3	-8.414455E-3	5.024947E-3	-6.459179E-3	1.098149E-2	-8.452768E-3	-4.547559E-4	-6.875993E-3	4.009737E-4	-1.066773E-3	-1.459536E-3	-1.416340E-2	-3.908515E-3	-1.439308E-2	-8.091261E-3	9.606519E-4	-8.923795E-3	1.931619E-2	-1.074827E-2	-1.550961E-3	-8.913210E-3	1.339466E-3	1.765614E-4	-3.656529E-3	-3.719917E-3	2.583947E-4	-7.595879E-3	-1.113729E-2	-2.425547E-2	4.133943E-3	1.761240E-3	-7.735934E-3	-7.712395E-3	-8.338341E-3	-1.116029E-2	-8.239150E-3	-5.535449E-3	-1.110437E-2	-8.200652E-5	2.004140E-2	-1.692036E-3	2.718263E-3	-9.840003E-3	5.896196E-3	-8.159430E-3	3.909831E-3	-4.946792E-3	-1.548700E-2	-6.944300E-3	-1.943713E-3	-1.431350E-2	-1.170614E-2	-1.644740E-2	-1.317669E-2	4.393041E-4	1.617584E-3	4.040751E-5	-1.790408E-2	9.912206E-3	6.813084E-3	9.146497E-3	4.725592E-4	3.757542E-3	-5.637898E-3	-1.825049E-3	6.179159E-3	3.092417E-3	1.440655E-3	1.042915E-2	-3.006078E-3	-9.254739E-3	4.389314E-4	-1.256575E-3	3.957403E-3	5.963051E-3	-1.393146E-4	-2.696463E-3	-1.450798E-3	-8.709785E-3	-2.104007E-2	-1.373506E-2	2.516933E-3	-9.637250E-3	-1.040587E-2	9.874875E-3	-4.762313E-4	-2.435510E-2	2.554695E-2	8.366293E-3
2.805030E+2	-1.799708E-2	-6.711206E-3	-6.765032E-4	-9.751281E-3	8.630309E-3	-6.520286E-3	-3.868839E-3	-2.607232E-3	-1.044271E-2	-1.310601E-2	-3.027512E-3	-5.811887E-3	1.253329E-2	-7.607755E-3	-1.890488E-3	5.095015E-3	4.924355E-3	-8.492599E-3	-1.980637E-3	-1.847267E-4	-1.164179E-2	-6.129107E-3	-1.992687E-3	9.858694E-3	-3.785553E-3	-1.975255E-2	-8.577189E-3	-9.671718E-3	-1.102424E-2	-1.341756E-3	-3.586669E-3	-1.101851E-2	-3.120222E-3	-4.137599E-3	1.042690E-2	-4.122377E-3	1.669174E-3	-7.813015E-3	-1.747250E-2	8.773085E-3	-1.944999E-2	-1.129049E-3	-8.641231E-3	-1.256183E-2	-1.327502E-2	-1.683046E-2	-7.550429E-3	-2.994497E-3	4.418903E-5	-3.552600E-3	-3.855628E-3	1.295305E-2	-9.360718E-3	-7.498492E-3	-2.130155E-2	-1.483161E-3	-1.889377E-3	9.990668E-4	-1.540868E-3	1.054723E-2	-1.980382E-3	1.081378E-2	-1.889173E-2	-1.626715E-2	1.188720E-3	-6.945409E-4	-7.384407E-3	-5.128365E-3	5.251161E-3	-1.415409E-2	-2.954150E-3	-1.186370E-2	2.212242E-3	-1.875997E-3	-1.546301E-2	4.417995E-3	-1.180712E-2	3.736816E-3	-8.592117E-3	-6.876185E-3	3.970608E-4	-4.978518E-3	-1.079834E-2	6.945080E-3	7.401998E-3	-1.647307E-2	-2.424081E-3	-1.458559E-2	-6.171908E-3	2.099800E-4	-8.914815E-3	5.451608E-3	-7.941815E-3	-7.125976E-3	-1.118326E-2	8.223617E-3	-3.685014E-3	-6.059235E-3	8.133895E-3	5.123396E-3	4.001183E-3	-7.850553E-3	-1.420031E-3	-2.403139E-3	-1.616570E-2	-6.602003E-4	-1.000728E-2	2.051496E-4	-1.134728E-3	2.212137E-3	-3.326917E-4	-8.863418E-4	-1.318986E-3	2.913212E-4	-2.954533E-3	-7.115561E-3	-7.091373E-3	9.008089E-3	-6.887279E-3	-1.733288E-2	-1.669824E-2	-2.652381E-2	-1.039967E-2	3.551721E-3	2.206984E-3	-1.111502E-2	-1.377783E-2	-9.507746E-3	-9.072496E-3	4.129975E-4	1.176132E-2	-3.415148E-4	-5.805052E-3	2.929411E-4	-3.981823E-3	-6.262773E-3	-1.947624E-2	-1.050641E-2	-2.765191E-3	-1.655227E-2	1.520230E-3	-6.589744E-3	-4.924308E-3	2.670867E-3	3.947753E-3	4.913195E-3	-1.672137E-2	-1.139555E-3	-9.159113E-3	-5.523915E-3	7.480379E-3	3.932289E-3	5.868442E-3	-5.279456E-3	9.727080E-3	3.163958E-3	2.177282E-3	2.241067E-3	-1.348837E-3	-1.181781E-2	-5.302506E-3	-4.183780E-3	-2.514264E-3	-3.223049E-3	2.666162E-3	-1.445508E-2	-6.903918E-3	-1.089874E-2	-3.024007E-4	-8.287063E-3	-1.798145E-2
2.810020E+2	-4.517707E-3	9.553629E-3	5.557256E-3	-3.480892E-3	-2.222406E-2	1.049672E-2	-6.420959E-3	4.172943E-3	-4.476928E-3	-1.016987E-2	-4.076924E-3	-7.008564E-3	-3.199894E-3	8.323046E-3	-1.281509E-2	3.237807E-3	-1.146443E-2	-2.232637E-2	1.962153E-2	7.781412E-5	1.162389E-2	-1.512840E-2	1.353844E-2	-9.070651E-3	-8.058014E-3	7.911043E-3	1.537395E-3	-4.065061E-3	1.171363E-3	-2.253165E-3	-1.079718E-2	1.374277E-2	-2.858977E-3	1.688812E-3	-7.320299E-3	7.115182E-3	-7.663765E-3	-1.343409E-3	2.580732E-3	-1.370522E-2	-7.120293E-3	4.316970E-4	-2.057400E-2	-6.428143E-3	-1.031050E-2	-4.076287E-3	-2.367741E-3	6.798446E-3	1.255072E-2	1.481910E-2	-3.604925E-3	-6.089311E-3	2.037070E-3	5.123855E-3	9.040353E-3	-3.764062E-3	-7.112996E-3	-1.382346E-2	4.223583E-3	-7.038631E-3	5.031416E-3	-7.723061E-3	-1.315520E-2	-6.037379E-3	8.467647E-5	-1.188973E-2	-1.149410E-3	-7.624000E-3	-1.017095E-2	-5.605616E-4	-2.699871E-3	6.581390E-3	-3.805253E-3	5.278165E-3	-1.092825E-2	-3.550094E-3	-1.289204E-2	-1.556774E-2	-1.606199E-2	-8.767227E-3	-1.023045E-2	1.622756E-3	-1.720187E-4	-1.872286E-3	1.410646E-3	-1.510739E-2	-6.264854E-3	8.750064E-3	-4.490366E-3	-2.390904E-3	6.314160E-4	-1.268894E-2	-1.095771E-3	2.347466E-4	-4.973988E-3	6.263900E-3	-1.373977E-2	-5.801690E-3	-4.451593E-3	-6.041448E-3	-1.672450E-3	-1.287711E-3	-8.598314E-3	1.280135E-2	-1.050306E-3	5.724144E-3	-5.999861E-3	-1.889229E-2	4.388619E-3	2.524820E-3	-1.143343E-2	-6.846643E-3	-1.165903E-2	-1.078767E-2	-1.072389E-2	-8.098306E-3	4.183030E-3	-2.670150E-3	-1.189082E-2	4.095182E-3	1.404868E-4	1.076393E-2	-5.821236E-3	-2.423546E-2	-8.246111E-3	-1.118964E-3	-1.352098E-2	-5.741993E-3	-4.636544E-3	3.631574E-3	-6.712520E-3	-1.432556E-3	1.587219E-2	4.664221E-3	-6.516057E-3	-2.043260E-2	-4.978326E-3	-1.837203E-2	-6.622662E-3	2.540568E-3	-1.508467E-2	-1.117863E-2	-4.626549E-3	-4.180328E-3	-1.472826E-3	-4.028345E-3	-1.540109E-3	-1.137314E-2	7.244591E-4	-9.435423E-3	-1.263145E-2	3.057233E-4	-1.314938E-2	2.089017E-3	4.519894E-3	-1.522990E-3	-1.050857E-2	-2.245460E-3	-1.062323E-2	-2.797671E-4	8.797689E-3	3.142559E-3	1.008172E-3	-1.120014E-3	-3.790239E-3	7.340780E-3	3.737535E-3	-2.114209E-3	-9.677918E-3	-1.143473E-2	-1.253771E-2
2.815070E+2	5.188637E-3	-5.514218E-3	-9.850955E-3	-1.002818E-2	3.153158E-4	2.904024E-3	8.397899E-3	-2.818848E-3	1.214275E-2	-3.875029E-3	2.788892E-2	1.128564E-2	3.717516E-3	7.756108E-3	9.010917E-3	-1.139062E-2	-4.365609E-3	8.319900E-3	3.056175E-3	4.550060E-3	1.905039E-2	-2.436353E-3	-8.529332E-3	-7.122973E-3	-7.024270E-3	1.448759E-2	-3.192932E-3	-1.908102E-3	1.994938E-3	9.090942E-3	2.389209E-3	3.182816E-3	8.216400E-3	1.769024E-2	-2.244490E-3	-7.968312E-3	1.475068E-4	1.048529E-2	1.443881E-2	6.258895E-4	-6.073808E-3	-6.517841E-3	-1.021555E-2	-2.012494E-2	2.050840E-2	4.601370E-3	5.674073E-3	-3.991433E-5	-5.575124E-3	-1.428434E-2	1.273699E-2	4.400180E-3	-1.745464E-2	5.976473E-3	2.710889E-3	-1.729787E-3	6.369326E-4	-3.755095E-3	-7.249610E-3	3.411117E-3	5.871306E-3	-8.137088E-3	-9.519716E-3	4.502678E-3	1.478132E-2	1.608849E-2	-1.958340E-4	-1.282271E-3	6.519093E-3	-9.041080E-3	6.202138E-3	-9.628170E-3	-1.204766E-2	-1.170695E-2	5.852015E-3	4.285793E-5	7.419610E-4	3.468050E-3	1.152314E-2	7.902427E-3	2.033228E-2	6.144401E-3	-1.265672E-2	9.162438E-3	-2.108658E-2	-8.059257E-3	7.839472E-3	-3.748830E-4	-2.237620E-3	-8.595534E-3	4.021380E-3	-7.888965E-3	1.384734E-2	9.259458E-4	-7.847916E-3	6.857513E-3	-5.204959E-3	-1.320771E-2	5.039575E-3	-5.142830E-3	-2.325956E-3	2.049785E-3	1.106486E-2	3.654858E-3	-8.955712E-3	-8.782030E-4	-3.925568E-3	2.912136E-3	-2.559133E-3	4.678771E-3	2.000723E-3	3.915736E-3	5.981520E-3	1.655972E-3	-1.590096E-3	5.266952E-3	9.111928E-3	2.131215E-3	1.127393E-2	4.760147E-3	-3.120744E-3	3.331868E-3	1.241774E-2	-4.029117E-3	1.995252E-3	-1.610069E-2	-8.408963E-3	6.521637E-3	-1.064613E-2	1.171540E-2	-4.483228E-3	2.128402E-2	-1.310609E-2	-3.943114E-3	6.887692E-3	3.121967E-3	1.287958E-2	9.388436E-3	1.139647E-3	2.504973E-2	1.947116E-2	1.142373E-2	1.270148E-2	1.026023E-4	3.707603E-3	-5.862573E-3	-8.000421E-3	-2.883436E-3	1.585671E-3	1.171112E-3	-1.742153E-2	-2.786416E-3	8.354821E-3	4.378011E-3	-1.527852E-3	8.205427E-3	3.269193E-3	2.045198E-3	1.884450E-2	-1.189928E-2	5.982634E-4	2.601157E-3	-5.958369E-3	9.544429E-3	1.189619E-2	-1.262983E-3	3.190441E-3	1.044011E-2	-7.733324E-3	1.569256E-3	-1.811797E-2
2.820010E+2	1.426052E-2	3.015203E-2	1.912622E-2	2.077804E-2	1.014071E-4	3.778287E-3	-2.100824E-3	2.004579E-2	-4.493696E-3	8.682875E-4	6.499608E-3	6.210368E-3	9.996790E-3	-7.260070E-3	2.105653E-2	6.683728E-3	3.819300E-3	7.450789E-3	-6.944060E-3	2.705779E-3	1.853857E-2	1.409257E-2	-5.487364E-3	4.312583E-3	-3.218045E-4	1.526121E-2	5.884500E-3	3.497376E-2	3.948533E-3	1.466768E-3	5.583163E-3	7.233537E-3	-4.198800E-3	7.377188E-3	2.487941E-3	1.581338E-2	-6.121067E-3	1.373239E-2	5.182929E-3	1.379642E-2	1.120814E-2	1.483251E-2	3.956961E-3	7.013141E-3	1.450426E-2	-2.726044E-3	3.932495E-3	1.227400E-2	1.812771E-3	-9.247900E-3	2.001030E-2	-4.602883E-3	7.021890E-3	1.488607E-2	2.496962E-2	-2.361985E-3	1.228874E-2	1.339658E-3	8.481751E-3	-9.689486E-3	5.158559E-3	1.720667E-2	1.597984E-2	7.988260E-4	1.638311E-3	1.404651E-2	3.199181E-2	1.172631E-2	-1.317691E-2	1.965341E-2	-8.026319E-3	6.354365E-4	-5.270287E-3	9.540458E-3	9.444961E-3	1.585929E-2	5.220654E-3	1.463084E-2	1.094354E-2	-2.164228E-3	-7.363489E-3	-8.489400E-3	1.360083E-2	-3.031835E-3	2.855370E-3	1.120256E-2	3.206702E-3	1.503921E-2	-1.004828E-2	1.494548E-2	3.389874E-3	-7.219207E-4	-3.578433E-3	2.413938E-2	1.945219E-2	4.154306E-3	4.283767E-3	6.890640E-3	1.344838E-3	1.158098E-3	-3.085367E-3	8.891764E-3	1.170371E-2	-7.569140E-4	-5.261777E-3	-3.291320E-4	9.211131E-3	3.511864E-3	5.894690E-3	1.207020E-2	2.039405E-2	9.603271E-3	1.269843E-2	2.309209E-3	2.328416E-2	1.230124E-2	1.395368E-2	9.500314E-3	-5.174602E-3	5.509285E-3	2.381561E-2	-8.362391E-3	2.962991E-3	1.287572E-2	1.885353E-2	1.366916E-2	1.460699E-2	-5.592495E-3	1.219064E-2	8.125419E-3	-1.213697E-3	-1.234613E-2	7.450877E-3	-9.990669E-3	-7.823063E-3	1.822965E-2	9.418761E-3	8.702861E-3	3.197782E-3	-4.626290E-3	1.961984E-3	-4.914790E-3	7.067736E-3	1.517958E-2	-2.814176E-3	1.345334E-2	1.803195E-2	5.297391E-3	9.105496E-3	1.437229E-2	1.231697E-2	4.352484E-3	-8.897581E-3	-7.763405E-3	4.634858E-3	-1.025103E-2	-6.489654E-3	-6.930517E-3	4.627704E-3	1.732123E-2	-2.968210E-4	2.161484E-2	2.522423E-2	1.168812E-2	1.726750E-3	6.129375E-3	-9.120605E-3	1.409706E-2	4.898279E-3	1.238942E-2	1.398629E-2
2.825040E+2	1.852197E-3	-3.519776E-3	5.389519E-3	1.592313E-2	1.625674E-2	-3.460421E-4	5.021624E-4	-2.433147E-3	1.978045E-2	1.303028E-2	-1.589986E-3	-1.294065E-2	-4.611201E-3	1.475672E-2	-1.291429E-2	6.439638E-3	1.286669E-2	1.820070E-2	1.280719E-2	1.875648E-2	-6.911398E-3	-8.421302E-3	2.617521E-2	7.716655E-3	1.026431E-2	1.073870E-2	-4.234139E-3	2.506526E-3	1.119901E-2	1.672925E-2	7.813622E-3	-7.943879E-4	3.260451E-2	-1.358387E-2	5.064209E-3	1.192413E-2	1.310160E-2	1.401382E-3	3.774652E-3	4.506371E-3	1.700179E-2	8.280061E-3	2.669076E-2	-6.180027E-4	-3.478314E-3	1.997158E-2	7.396169E-3	-4.836493E-3	5.633470E-3	4.136202E-3	6.721464E-3	4.872045E-3	8.367607E-3	-8.763996E-3	2.865202E-4	8.942819E-3	-3.058925E-3	1.614040E-2	-6.896467E-3	9.344034E-3	-3.201080E-3	4.818445E-4	4.323763E-2	1.169036E-2	-1.533664E-2	6.626687E-3	7.703889E-3	4.978096E-4	5.460188E-3	7.350732E-3	1.609599E-2	1.014249E-2	1.015394E-2	1.064629E-2	1.352004E-2	3.210552E-3	1.398808E-2	-2.558140E-3	-2.055538E-3	1.167695E-2	-1.990922E-3	3.467936E-4	1.487920E-2	5.863504E-3	1.870737E-2	1.975189E-2	-3.627082E-3	3.826478E-3	1.093213E-2	1.757667E-2	5.824971E-3	9.664716E-3	1.049826E-2	-3.296952E-3	5.949078E-3	1.719953E-3	1.895842E-2	9.418727E-3	1.682981E-2	6.616741E-3	2.345736E-2	2.422169E-3	2.536274E-2	1.591897E-3	7.981299E-3	1.167725E-2	1.900572E-2	1.162269E-2	-6.080642E-3	1.715818E-2	1.503250E-2	3.086821E-3	6.349408E-3	1.337126E-2	-7.662276E-3	6.976007E-3	2.669450E-3	7.888338E-3	1.964778E-2	-3.463997E-3	4.210053E-3	9.243094E-3	5.609466E-3	8.147462E-3	7.780617E-3	1.705199E-2	2.684855E-2	1.280544E-2	9.114197E-3	-5.239520E-3	1.466001E-2	-7.039433E-3	4.311410E-3	1.124775E-2	7.291178E-3	1.435522E-2	2.193090E-2	2.594292E-2	5.711216E-3	1.108072E-2	1.295192E-2	-2.641726E-3	6.802319E-3	6.518652E-3	5.506292E-3	7.989691E-3	1.769017E-2	1.251882E-2	6.091935E-3	-1.126240E-3	1.806225E-3	-5.038677E-3	1.019607E-2	1.049477E-2	1.266443E-2	-1.044056E-2	1.279529E-2	8.540914E-3	-2.512019E-3	1.826855E-2	5.548409E-3	8.741414E-3	7.215657E-3	-5.460876E-3	2.855340E-3	7.255869E-3	1.655512E-2	1.091446E-2	1.907294E-2	1.885216E-2	5.062641E-2
2.830020E+2	5.899597E-3	3.172865E-2	-8.541746E-3	6.788106E-3	-3.513975E-3	1.805039E-2	1.452127E-2	2.120679E-2	4.260327E-2	1.306421E-2	1.548004E-2	2.356620E-2	8.646598E-3	2.280907E-2	1.988200E-2	-7.788042E-3	-1.867985E-2	1.016997E-2	1.426016E-2	1.771072E-2	1.625389E-2	3.317714E-2	8.283692E-3	2.011030E-2	2.177943E-2	1.509491E-2	6.907534E-3	1.332659E-2	1.515515E-2	8.533780E-3	2.442917E-2	1.061904E-2	-2.231798E-3	-4.052724E-3	1.050615E-2	2.077529E-2	7.651223E-3	-3.530595E-3	2.264142E-2	5.759590E-3	1.720453E-2	3.112303E-3	-7.317149E-3	-3.951816E-3	6.481680E-3	7.545603E-3	1.253604E-2	1.674508E-2	3.322636E-3	-6.579295E-3	1.336922E-2	2.883847E-2	1.851354E-2	3.932876E-2	2.505198E-2	1.359361E-3	2.313690E-2	1.048325E-3	1.798480E-2	-3.929110E-4	2.832719E-2	-6.925111E-4	6.099376E-3	1.930517E-3	1.383939E-2	8.647315E-4	2.302141E-2	1.787520E-3	1.477629E-2	2.811147E-2	2.177199E-2	4.024201E-4	1.963438E-3	-3.722784E-4	-3.989627E-3	1.433587E-2	6.027138E-3	1.347167E-2	1.614348E-2	9.881715E-3	-3.027283E-4	1.795029E-3	-5.026405E-3	2.028472E-3	5.056569E-3	-5.312448E-3	-5.154211E-3	2.142663E-2	3.349540E-4	2.227386E-2	8.712399E-3	-2.220430E-3	2.503712E-2	-9.029252E-4	1.461656E-2	-3.934149E-3	2.187426E-2	6.482984E-3	2.543447E-2	1.375880E-2	8.576586E-3	1.372455E-2	1.652277E-2	1.529988E-2	1.843634E-2	3.003895E-2	2.554663E-2	-2.494177E-3	-6.413546E-3	-5.153309E-4	2.800104E-2	1.575053E-2	1.370823E-2	9.854482E-3	9.778142E-3	9.549452E-3	1.362779E-2	1.602182E-2	5.057521E-3	-6.047806E-3	2.661159E-3	1.620552E-2	1.562101E-2	6.494044E-3	1.596323E-2	-8.734655E-3	1.436784E-2	1.304904E-2	2.178800E-2	-4.099232E-3	2.152171E-2	1.354722E-2	1.001299E-2	-2.272220E-2	2.410442E-2	2.290267E-3	1.905357E-3	1.653199E-2	-4.209574E-3	-1.410150E-2	1.016024E-2	1.968577E-2	1.336699E-2	2.004936E-2	-1.068051E-2	1.211810E-2	4.032805E-3	-1.276396E-3	5.940659E-3	1.133969E-2	2.088299E-2	4.004456E-3	7.444462E-3	1.186823E-2	1.547893E-2	8.655000E-4	-2.967976E-3	1.182022E-4	9.983878E-3	1.732667E-2	1.460822E-2	1.439978E-2	-2.781908E-3	1.856171E-2	3.998868E-3	1.686552E-2	-3.585479E-4	1.526832E-2	1.080632E-2	1.351525E-2	4.240301E-3
2.835040E+2	9.353092E-3	3.882715E-3	1.938984E-2	1.670393E-2	1.045397E-2	8.627911E-3	2.391464E-2	4.373585E-2	1.233606E-2	6.556120E-3	1.342887E-2	6.163668E-3	1.544503E-2	1.684687E-2	5.340745E-3	1.998991E-2	1.756221E-2	1.373078E-2	2.194294E-2	1.981055E-2	-3.508082E-3	8.117928E-3	3.128328E-2	1.481492E-2	2.103370E-2	3.227432E-2	1.758922E-2	1.821022E-2	1.852714E-2	1.417210E-2	2.030684E-2	1.961255E-2	2.319651E-2	4.840298E-3	1.088611E-2	1.275297E-2	3.288406E-5	1.641978E-2	7.842338E-3	8.685930E-3	2.939835E-2	1.165782E-2	1.693882E-2	1.460433E-2	2.803989E-3	1.890861E-2	1.459757E-2	1.228176E-2	2.557422E-2	2.184736E-2	1.533298E-2	-3.381482E-3	1.491089E-2	7.015850E-3	4.395529E-2	1.121330E-2	-1.517024E-2	3.740499E-2	1.865472E-2	1.999839E-2	1.679193E-2	1.936710E-2	-1.986832E-3	1.190210E-2	2.848957E-2	1.479376E-2	4.809849E-3	1.215343E-2	1.719129E-2	8.204826E-3	2.400836E-2	2.110455E-2	2.162434E-2	2.740418E-2	8.005892E-3	-1.950813E-2	4.039133E-2	1.680746E-2	4.196656E-2	2.189716E-2	3.842258E-3	2.003226E-2	1.386156E-2	1.598083E-2	8.484292E-3	2.653488E-2	2.424808E-2	-8.121016E-3	1.635330E-2	2.773932E-2	2.024324E-2	2.841014E-2	1.626845E-2	2.067921E-2	2.315044E-2	1.682326E-2	2.430226E-2	1.140838E-2	3.067277E-2	4.552870E-2	1.669435E-3	5.508500E-3	5.514758E-3	3.321609E-3	1.205993E-2	3.107660E-2	5.552411E-3	9.680585E-3	1.398993E-2	3.772348E-2	1.588105E-2	1.789186E-2	2.086531E-2	2.382743E-2	1.019045E-2	7.602119E-3	2.690406E-2	1.415968E-2	3.999335E-2	-6.912670E-3	3.697673E-2	-1.581130E-3	2.217368E-2	2.695773E-2	1.178862E-2	2.583820E-2	4.925889E-3	1.778678E-3	-6.319643E-3	2.342799E-2	3.779990E-2	2.132359E-2	2.107121E-2	2.629383E-2	1.471335E-2	1.151467E-2	1.575016E-2	3.821984E-2	1.479926E-2	2.354304E-3	2.110777E-2	1.053908E-2	-1.873382E-3	3.592853E-3	5.596171E-3	5.989162E-3	1.058915E-2	1.780095E-2	1.780896E-2	1.042235E-2	1.409556E-2	1.532571E-2	-1.791798E-2	2.577218E-2	2.916618E-2	3.302751E-2	1.911817E-2	9.437746E-3	-2.093683E-3	9.190437E-3	2.628335E-2	1.648826E-2	1.239740E-2	1.638399E-2	1.427289E-3	3.878804E-2	2.844968E-2	2.193797E-2	2.789861E-2	-2.067237E-3	1.681532E-2
2.840020E+2	3.944749E-2	5.906976E-2	5.858102E-2	5.313618E-2	3.784652E-2	5.603959E-2	3.546033E-2	5.920768E-2	4.819712E-2	5.239650E-2	3.943327E-2	2.383312E-2	3.825964E-2	4.855447E-2	3.831757E-2	3.183947E-2	3.715304E-2	4.107647E-2	4.591195E-2	2.080638E-2	5.933998E-2	4.301028E-2	4.064166E-2	4.555507E-2	4.709162E-2	5.831903E-2	3.805972E-2	3.356081E-2	5.336624E-2	2.792405E-2	3.083026E-2	4.121307E-2	5.303890E-2	5.919318E-2	2.629282E-2	4.242646E-2	2.166207E-2	3.770716E-2	5.640269E-2	4.373273E-2	4.534965E-2	5.431999E-2	5.283408E-2	2.318207E-2	4.890133E-2	4.208712E-2	4.334213E-2	3.834580E-2	4.933650E-2	3.079156E-2	6.094438E-2	2.518306E-2	4.922964E-2	4.915711E-2	4.711745E-2	4.657508E-2	5.998209E-2	4.019297E-2	4.756431E-2	4.755330E-2	4.997666E-2	5.840708E-2	2.809099E-2	4.166267E-2	5.060582E-2	2.483294E-2	4.219822E-2	3.203749E-2	3.152619E-2	4.489798E-2	4.973124E-2	4.305116E-2	5.730802E-2	4.344772E-2	5.503789E-2	6.300332E-2	5.278113E-2	4.143943E-2	5.989122E-2	4.628436E-2	7.468746E-2	4.186811E-2	3.062316E-2	6.828770E-2	3.440167E-2	4.261545E-2	3.962708E-2	3.824186E-2	1.740494E-2	3.329377E-2	4.690424E-2	4.372253E-2	4.167859E-2	4.490605E-2	4.672665E-2	5.958099E-2	3.441872E-2	3.635279E-2	5.472969E-2	7.615840E-2	3.790383E-2	3.079063E-2	6.316573E-2	5.601386E-2	4.562786E-2	4.696270E-2	4.523672E-2	3.153942E-2	4.008643E-2	6.234883E-2	6.029972E-2	4.313396E-2	6.995090E-2	5.808755E-2	8.510579E-2	4.233066E-2	5.556388E-2	1.256750E-2	3.031445E-2	2.577690E-2	3.811643E-2	4.490959E-2	5.097189E-2	4.716539E-2	4.478729E-2	4.687786E-2	4.159602E-2	4.629148E-2	5.681786E-2	5.461400E-2	4.942412E-2	4.597942E-2	5.410099E-2	5.732316E-2	6.034642E-2	3.697026E-2	1.581482E-2	6.309256E-2	6.323234E-2	5.102920E-2	2.454526E-2	4.968638E-2	3.582931E-2	3.655453E-2	6.418805E-2	4.534367E-2	6.895257E-2	4.777147E-2	3.932307E-2	5.139857E-2	4.149999E-2	4.423396E-2	1.767427E-2	5.278089E-2	2.144251E-2	6.394715E-2	3.834781E-2	3.364708E-2	5.160098E-2	3.145263E-2	4.202669E-2	4.763111E-2	5.953638E-2	2.629504E-2	4.094329E-2	5.340717E-2	6.177766E-2	6.983300E-2	8.228511E-2	4.697715E-2	5.284928E-2
2.841010E+2	5.620732E-2	3.893156E-2	7.202855E-2	5.194707E-2	5.754399E-2	4.286692E-2	6.161717E-2	5.685588E-2	6.003842E-2	4.103580E-2	5.542526E-2	3.170659E-2	5.834090E-2	5.046543E-2	5.379745E-2	6.697265E-2	3.888706E-2	5.308389E-2	5.510154E-2	6.050225E-2	6.418966E-2	4.344382E-2	4.231059E-2	4.220148E-2	5.221666E-2	5.568968E-2	3.671590E-2	2.357150E-2	7.116287E-2	2.690554E-2	2.978358E-2	6.010926E-2	4.472104E-2	2.482157E-2	6.409510E-2	6.556369E-2	3.196780E-2	6.836810E-2	5.969737E-2	3.929768E-2	3.234602E-2	7.340554E-2	5.494090E-2	6.020912E-2	3.634918E-2	4.637208E-2	6.406144E-2	6.095102E-2	4.990839E-2	6.716885E-2	4.026001E-2	5.700590E-2	5.262281E-2	4.340445E-2	2.086995E-2	4.715064E-2	5.259872E-2	5.843436E-2	4.044109E-2	5.851195E-2	5.040029E-2	7.465873E-2	4.635669E-2	3.993667E-2	7.096253E-2	4.054445E-2	8.660568E-2	5.770789E-2	4.840563E-2	4.824904E-2	3.542124E-2	4.353263E-2	6.903469E-2	5.742096E-2	5.234584E-2	3.967305E-2	7.414655E-2	6.055695E-2	4.795441E-2	5.639602E-2	3.802371E-2	5.784723E-2	7.682827E-2	4.797391E-2	4.435464E-2	4.835356E-2	7.646582E-2	4.008739E-2	2.459233E-2	5.075671E-2	5.320599E-2	4.571326E-2	5.886516E-2	5.716026E-2	4.712974E-2	5.312028E-2	5.520698E-2	6.093003E-2	7.221992E-2	6.149510E-2	4.384496E-2	6.256665E-2	4.859490E-2	4.579218E-2	5.773242E-2	6.214079E-2	4.564920E-2	3.784890E-2	5.838621E-2	6.741995E-2	4.025216E-2	5.317017E-2	6.750271E-2	4.420124E-2	4.020261E-2	5.521266E-2	5.110343E-2	4.180035E-2	4.201731E-2	4.784935E-2	6.462783E-2	4.079397E-2	2.757629E-2	3.779183E-2	4.950404E-2	4.743483E-2	5.416414E-2	4.184592E-2	4.421916E-2	6.318990E-2	6.456534E-2	5.085195E-2	6.278104E-2	5.679109E-2	5.023732E-2	6.104894E-2	4.397906E-2	5.640269E-2	7.906445E-2	6.250382E-2	5.553268E-2	2.495056E-2	5.300805E-2	5.668107E-2	5.912006E-2	3.281254E-2	5.984305E-2	3.992272E-2	6.676872E-2	9.324118E-2	4.658633E-2	5.324739E-2	3.509691E-2	2.536137E-2	6.219409E-2	6.283299E-2	4.102322E-2	5.514350E-2	5.825618E-2	3.995419E-2	7.255257E-2	6.536682E-2	5.482145E-2	3.869633E-2	6.956458E-2	6.638733E-2	6.121891E-2	7.223913E-2	5.227723E-2	4.173285E-2	6.619808E-2
2.842010E+2	5.820347E-2	7.608164E-2	4.642197E-2	5.077864E-2	5.038991E-2	6.180910E-2	6.517351E-2	5.873574E-2	4.753661E-2	6.543482E-2	6.591408E-2	4.164578E-2	5.487099E-2	6.961717E-2	4.885212E-2	4.356909E-2	8.723497E-2	5.355958E-2	6.728772E-2	4.041197E-2	4.710060E-2	3.961005E-2	4.830719E-2	6.508708E-2	2.219879E-2	4.521996E-2	7.261250E-2	5.768892E-2	9.628263E-2	4.959492E-2	8.904561E-2	6.432772E-2	4.220409E-2	6.643195E-2	7.370824E-2	5.671228E-2	6.762676E-2	3.453190E-2	4.927308E-2	5.598631E-2	8.520743E-2	4.125713E-2	3.021943E-2	6.718539E-2	4.986482E-2	7.451865E-2	4.974788E-2	5.919703E-2	6.802627E-2	5.772268E-2	5.354477E-2	5.142102E-2	7.874542E-2	5.752349E-2	5.270515E-2	6.877994E-2	5.858175E-2	8.044851E-2	6.349368E-2	3.185256E-2	4.507796E-2	8.559702E-2	4.834337E-2	2.820799E-2	5.318030E-2	7.249914E-2	4.610272E-2	4.164186E-2	4.584219E-2	3.250674E-2	4.918974E-2	7.602310E-2	7.443212E-2	6.398074E-2	6.390084E-2	6.875495E-2	5.381419E-2	7.112028E-2	5.544284E-2	6.757924E-2	6.285768E-2	4.707061E-2	6.909962E-2	7.405522E-2	4.719583E-2	7.774452E-2	6.234141E-2	4.861353E-2	6.793671E-2	6.702499E-2	6.682318E-2	6.066363E-2	4.130946E-2	4.065419E-2	4.092308E-2	4.612666E-2	5.415041E-2	6.600067E-2	7.587635E-2	3.557395E-2	8.013766E-2	5.059623E-2	5.872889E-2	5.438863E-2	3.889594E-2	4.071079E-2	5.985925E-2	8.866984E-2	6.861211E-2	7.682600E-2	6.707344E-2	4.954369E-2	4.615649E-2	5.741130E-2	5.007272E-2	6.274878E-2	6.475552E-2	5.280079E-2	4.106013E-2	6.611307E-2	6.928911E-2	7.145033E-2	9.133088E-2	5.927157E-2	7.831676E-2	9.613374E-2	5.619406E-2	5.640132E-2	7.787994E-2	6.853279E-2	8.427217E-2	5.735373E-2	5.150702E-2	6.028926E-2	3.691564E-2	8.403580E-2	7.286715E-2	6.724498E-2	7.512383E-2	9.006263E-2	7.259654E-2	4.819495E-2	5.212914E-2	6.907910E-2	6.737184E-2	5.806150E-2	4.070161E-2	5.519128E-2	6.443876E-2	6.327146E-2	7.583460E-2	8.384725E-2	5.185832E-2	3.976425E-2	4.602413E-2	9.384735E-2	5.569222E-2	5.700518E-2	6.183518E-2	5.407321E-2	3.865825E-2	4.889762E-2	5.356316E-2	5.304122E-2	6.171772E-2	9.387245E-2	3.900219E-2	2.797902E-2	9.839020E-2	5.709071E-2	7.826614E-2
2.843010E+2	7.810188E-2	1.022072E-1	8.594897E-2	5.739383E-2	4.942919E-2	8.691794E-2	6.998827E-2	8.060400E-2	8.100945E-2	8.529797E-2	5.889327E-2	7.049949E-2	8.985064E-2	6.118951E-2	7.537417E-2	8.030300E-2	7.953219E-2	7.071852E-2	9.420793E-2	6.821599E-2	6.234788E-2	7.787332E-2	6.668348E-2	8.422144E-2	1.062148E-1	8.202420E-2	6.189029E-2	8.758543E-2	7.785190E-2	7.762993E-2	7.169686E-2	5.739884E-2	1.257170E-1	9.758709E-2	7.547658E-2	6.373349E-2	7.963912E-2	4.008035E-2	8.797979E-2	8.163839E-2	7.657268E-2	8.756589E-2	8.867967E-2	1.099830E-1	7.497322E-2	1.018359E-1	7.729133E-2	6.558953E-2	7.388778E-2	7.111354E-2	8.260996E-2	4.682836E-2	7.919620E-2	9.460143E-2	7.342715E-2	5.486870E-2	7.131564E-2	7.907406E-2	1.003129E-1	7.135450E-2	8.440791E-2	7.054422E-2	6.063151E-2	8.641506E-2	6.051697E-2	8.872877E-2	7.086214E-2	1.010223E-1	7.046301E-2	8.010481E-2	9.727801E-2	7.107047E-2	5.319602E-2	7.959530E-2	7.038807E-2	9.189074E-2	9.059209E-2	8.006901E-2	6.117153E-2	8.613209E-2	8.916324E-2	7.147347E-2	1.043838E-1	8.445835E-2	5.339702E-2	5.732281E-2	9.671611E-2	8.689228E-2	7.120845E-2	8.789604E-2	7.297339E-2	9.008854E-2	6.099516E-2	6.456818E-2	7.762386E-2	8.185501E-2	1.038011E-1	1.005863E-1	1.141886E-1	7.787686E-2	7.375106E-2	6.350107E-2	9.131617E-2	9.194235E-2	8.559944E-2	7.954167E-2	9.499360E-2	5.679663E-2	9.732397E-2	7.272112E-2	7.585723E-2	1.235729E-1	7.927579E-2	1.063893E-1	9.059903E-2	7.870281E-2	6.797333E-2	7.159431E-2	8.515985E-2	6.931679E-2	4.440043E-2	7.022380E-2	9.653407E-2	1.003529E-1	8.885752E-2	5.486168E-2	7.495512E-2	9.177783E-2	5.886270E-2	8.981549E-2	9.971660E-2	8.342092E-2	9.729072E-2	6.807702E-2	9.395195E-2	8.465917E-2	4.314062E-2	6.440348E-2	9.086963E-2	9.371250E-2	8.213694E-2	6.610137E-2	8.227744E-2	9.094829E-2	6.123929E-2	9.233551E-2	1.068209E-1	7.354787E-2	6.901993E-2	8.663075E-2	5.666870E-2	6.107185E-2	6.400441E-2	7.275277E-2	7.977864E-2	6.495619E-2	6.308933E-2	8.147947E-2	7.740664E-2	7.646049E-2	7.852618E-2	1.054979E-1	7.300546E-2	8.278203E-2	9.895311E-2	7.792235E-2	9.949438E-2	7.144472E-2	8.547890E-2	7.376750E-2	6.830887E-2
2.844010E+2	1.288961E-1	1.301913E-1	1.602619E-1	1.215729E-1	1.371991E-1	1.527163E-1	1.544627E-1	1.133216E-1	1.505210E-1	1.064620E-1	1.414229E-1	1.277367E-1	1.698014E-1	1.671541E-1	1.623208E-1	1.346137E-1	1.515766E-1	1.600632E-1	7.862989E-2	1.427579E-1	1.415039E-1	1.396067E-1	1.343621E-1	1.345694E-1	1.526057E-1	1.257231E-1	1.221887E-1	1.329277E-1	1.519306E-1	1.352172E-1	1.433087E-1	1.238907E-1	1.414518E-1	1.462088E-1	1.580928E-1	1.242197E-1	1.161412E-1	1.211017E-1	1.276569E-1	1.459231E-1	1.594973E-1	1.108478E-1	1.709975E-1	1.271226E-1	1.628568E-1	1.526051E-1	1.356326E-1	1.429519E-1	1.518030E-1	1.189359E-1	1.355966E-1	1.430469E-1	1.420750E-1	1.495044E-1	1.604144E-1	1.471370E-1	1.429177E-1	1.622821E-1	1.377752E-1	1.378811E-1	1.084195E-1	1.515113E-1	1.580723E-1	1.342987E-1	1.530917E-1	1.679179E-1	1.299287E-1	1.507113E-1	1.097200E-1	1.467213E-1	1.281232E-1	1.395112E-1	1.344215E-1	1.249099E-1	1.676171E-1	1.262588E-1	1.322871E-1	1.481419E-1	1.645530E-1	1.506816E-1	1.257580E-1	1.368144E-1	1.302927E-1	1.544807E-1	1.157048E-1	1.584729E-1	1.451244E-1	1.285027E-1	1.576497E-1	1.159923E-1	1.193575E-1	1.498257E-1	1.395016E-1	1.595197E-1	1.417270E-1	1.412005E-1	1.962658E-1	1.526155E-1	1.849409E-1	1.463311E-1	1.359422E-1	9.344394E-2	1.565581E-1	1.451702E-1	1.615351E-1	1.262244E-1	1.670722E-1	1.411793E-1	1.148137E-1	1.197345E-1	1.470029E-1	1.872178E-1	1.512823E-1	1.514242E-1	1.456564E-1	1.060911E-1	1.443409E-1	1.525310E-1	1.358500E-1	1.254762E-1	1.377776E-1	1.306424E-1	1.519081E-1	1.322421E-1	1.211449E-1	1.479724E-1	1.347187E-1	1.756873E-1	1.268371E-1	1.538594E-1	1.438206E-1	1.131025E-1	1.341836E-1	1.033225E-1	1.209365E-1	1.618564E-1	1.504966E-1	1.628734E-1	1.238690E-1	1.363427E-1	1.850677E-1	1.609365E-1	1.546445E-1	1.437875E-1	1.484309E-1	1.344889E-1	1.145171E-1	1.561155E-1	1.217945E-1	1.416073E-1	1.452038E-1	1.315435E-1	1.460021E-1	1.636309E-1	1.343801E-1	1.600992E-1	1.300568E-1	1.170582E-1	1.362551E-1	1.228498E-1	1.300319E-1	1.219101E-1	1.524170E-1	1.021589E-1	1.194466E-1	1.525847E-1	1.161024E-1	1.485947E-1	1.515408E-1	1.385276E-1	2.040881E-1
2.845030E+2	2.658257E-1	2.494779E-1	2.361675E-1	1.974182E-1	2.387561E-1	2.502569E-1	2.547408E-1	2.340009E-1	2.334925E-1	2.353510E-1	2.360094E-1	2.158601E-1	2.341136E-1	2.305958E-1	2.120223E-1	2.200351E-1	2.089928E-1	2.541229E-1	2.404033E-1	1.895104E-1	2.086142E-1	2.554038E-1	2.441913E-1	2.650076E-1	2.120263E-1	2.435658E-1	1.730235E-1	2.323827E-1	2.115408E-1	1.990736E-1	2.322064E-1	2.485489E-1	2.655597E-1	2.268601E-1	2.336946E-1	2.068979E-1	2.198373E-1	2.024446E-1	2.382044E-1	2.184536E-1	2.000194E-1	2.371245E-1	2.041116E-1	1.952185E-1	2.066285E-1	2.364433E-1	1.942781E-1	2.198239E-1	2.093500E-1	2.335766E-1	2.172404E-1	2.259256E-1	2.067991E-1	2.397343E-1	2.265691E-1	2.329795E-1	2.067013E-1	1.974695E-1	2.266352E-1	2.045796E-1	2.148147E-1	2.011037E-1	1.787119E-1	2.388146E-1	2.202882E-1	2.445115E-1	2.248425E-1	2.422756E-1	2.440543E-1	2.201707E-1	2.099643E-1	2.153382E-1	2.243477E-1	2.295805E-1	2.335758E-1	2.516171E-1	2.468471E-1	2.028716E-1	2.068383E-1	2.499047E-1	2.359609E-1	2.041938E-1	2.221452E-1	1.928588E-1	2.372133E-1	2.018179E-1	2.103230E-1	2.432210E-1	2.227358E-1	2.393679E-1	2.090907E-1	2.080814E-1	2.269805E-1	2.221376E-1	2.158520E-1	2.202412E-1	2.515555E-1	2.296423E-1	2.545201E-1	2.245949E-1	2.182575E-1	2.552451E-1	2.108036E-1	2.292261E-1	2.409627E-1	2.329990E-1	2.425175E-1	1.977454E-1	2.167783E-1	2.861524E-1	2.143007E-1	2.090894E-1	2.427542E-1	1.994485E-1	2.554845E-1	2.301185E-1	2.239620E-1	2.501775E-1	2.297133E-1	2.309233E-1	2.190551E-1	1.895915E-1	1.991681E-1	2.169309E-1	2.767634E-1	2.418459E-1	1.914350E-1	2.236839E-1	2.263088E-1	2.196583E-1	2.347710E-1	2.181679E-1	2.455622E-1	2.554353E-1	2.493620E-1	2.315446E-1	2.485801E-1	2.437934E-1	2.562165E-1	2.065072E-1	2.103010E-1	2.759666E-1	2.259697E-1	1.874576E-1	2.280964E-1	2.289992E-1	2.053161E-1	2.102979E-1	2.170799E-1	2.515343E-1	2.472132E-1	2.244070E-1	2.269778E-1	2.214765E-1	2.637265E-1	2.343482E-1	1.973106E-1	2.666348E-1	2.292953E-1	2.589017E-1	2.577936E-1	2.620386E-1	2.645872E-1	2.444697E-1	2.705805E-1	2.551066E-1	2.272115E-1	2.655127E-1	2.651617E-1	2.164397E-1	2.181215E-1
2.846010E+2	3.949436E-1	4.126400E-1	4.158524E-1	3.439788E-1	3.676880E-1	4.109480E-1	3.924747E-1	3.960093E-1	3.841634E-1	4.180424E-1	3.936245E-1	3.953812E-1	3.970358E-1	3.620420E-1	3.608580E-1	3.693877E-1	4.267801E-1	4.050240E-1	3.828989E-1	4.108116E-1	4.105396E-1	3.869115E-1	3.794282E-1	3.790508E-1	4.093258E-1	3.578864E-1	3.551068E-1	3.662499E-1	3.508640E-1	4.084872E-1	3.897513E-1	3.379428E-1	3.758742E-1	3.883863E-1	3.883081E-1	3.774859E-1	3.636004E-1	3.860337E-1	3.873646E-1	4.026146E-1	3.414045E-1	3.449868E-1	3.689563E-1	3.996115E-1	3.933292E-1	3.735568E-1	3.775026E-1	3.907908E-1	3.892708E-1	3.450965E-1	3.690391E-1	3.692410E-1	4.278077E-1	3.826724E-1	3.515523E-1	4.271984E-1	3.460556E-1	4.052207E-1	4.627156E-1	3.871905E-1	3.968067E-1	4.070611E-1	3.773775E-1	3.871629E-1	3.436234E-1	4.117881E-1	3.536817E-1	3.597694E-1	4.208558E-1	3.897552E-1	3.612492E-1	4.008554E-1	4.343790E-1	3.821955E-1	4.153625E-1	4.328812E-1	3.857861E-1	4.218662E-1	3.815662E-1	3.795924E-1	3.642230E-1	4.087802E-1	4.125609E-1	4.092812E-1	4.122852E-1	3.846755E-1	4.130028E-1	3.762062E-1	4.027492E-1	3.985946E-1	2.966686E-1	3.735122E-1	3.833153E-1	3.947137E-1	3.639809E-1	3.686551E-1	3.368344E-1	4.029695E-1	4.325232E-1	3.825283E-1	3.727423E-1	4.163562E-1	4.098675E-1	3.953138E-1	4.074543E-1	3.629829E-1	3.839317E-1	3.570530E-1	3.615249E-1	3.293740E-1	3.744528E-1	3.913996E-1	3.854298E-1	4.257950E-1	4.025109E-1	4.087397E-1	3.315973E-1	3.594235E-1	4.153682E-1	3.630105E-1	3.785722E-1	4.058341E-1	3.914962E-1	3.846072E-1	3.874422E-1	4.260873E-1	4.292201E-1	3.961221E-1	3.655151E-1	3.769487E-1	4.150553E-1	4.054285E-1	4.138644E-1	3.787374E-1	4.014113E-1	3.891283E-1	3.784245E-1	4.142038E-1	3.636102E-1	4.071034E-1	3.875386E-1	3.685974E-1	3.678718E-1	4.162515E-1	4.222156E-1	3.983618E-1	3.566427E-1	3.994058E-1	4.415117E-1	4.194310E-1	3.999644E-1	3.612829E-1	3.869053E-1	3.765048E-1	4.336483E-1	3.774701E-1	3.475092E-1	3.728870E-1	4.088241E-1	4.091911E-1	3.417815E-1	3.686981E-1	4.542292E-1	3.742610E-1	3.844834E-1	4.139635E-1	4.027011E-1	4.037686E-1	4.091693E-1	4.010376E-1	3.977600E-1
2.847030E+2	7.674192E-1	8.469603E-1	8.857317E-1	7.514204E-1	7.999000E-1	8.444676E-1	8.655559E-1	7.943672E-1	7.852246E-1	8.050930E-1	8.467206E-1	7.746797E-1	8.512019E-1	7.973615E-1	7.998711E-1	8.130527E-1	7.974066E-1	8.506106E-1	7.932485E-1	7.495263E-1	8.065439E-1	8.022081E-1	8.436169E-1	7.921417E-1	7.863689E-1	8.445902E-1	7.773319E-1	8.367081E-1	8.191061E-1	8.398501E-1	8.165190E-1	8.093451E-1	8.970502E-1	7.772869E-1	8.297331E-1	8.087977E-1	8.044860E-1	8.154137E-1	7.875615E-1	7.737864E-1	7.574522E-1	8.197599E-1	8.094195E-1	8.041376E-1	8.498251E-1	7.864941E-1	7.597569E-1	7.891786E-1	8.236654E-1	8.237715E-1	7.716765E-1	8.360256E-1	8.644638E-1	7.697170E-1	8.113788E-1	7.911002E-1	8.524334E-1	7.216774E-1	8.292454E-1	8.492533E-1	7.655271E-1	7.981785E-1	8.017155E-1	7.832242E-1	7.651456E-1	8.335386E-1	8.228496E-1	8.336503E-1	7.743473E-1	8.152883E-1	8.236932E-1	8.421528E-1	8.242321E-1	8.172045E-1	7.909522E-1	8.543799E-1	7.796949E-1	8.534629E-1	8.306608E-1	7.627993E-1	8.485188E-1	7.754648E-1	8.447380E-1	8.130489E-1	7.883939E-1	7.930190E-1	7.930831E-1	8.214620E-1	8.408143E-1	7.806433E-1	7.554603E-1	7.544965E-1	7.585561E-1	8.259086E-1	8.036816E-1	8.436123E-1	7.966398E-1	7.664345E-1	7.985159E-1	8.398269E-1	8.232258E-1	8.360930E-1	8.020482E-1	7.406466E-1	8.401963E-1	8.482680E-1	8.120856E-1	8.596937E-1	8.024102E-1	8.649342E-1	8.087276E-1	7.939113E-1	8.405835E-1	7.951036E-1	8.616223E-1	8.244716E-1	8.122440E-1	7.942237E-1	8.480885E-1	8.228497E-1	8.162890E-1	8.170707E-1	7.826313E-1	7.560764E-1	7.860505E-1	8.249373E-1	7.928122E-1	8.235198E-1	8.356330E-1	9.121673E-1	8.371833E-1	8.091091E-1	7.934832E-1	8.496280E-1	8.155997E-1	8.129368E-1	8.075192E-1	8.239264E-1	9.005404E-1	8.143274E-1	8.500951E-1	8.564731E-1	8.072017E-1	8.315622E-1	8.403797E-1	8.001714E-1	8.856533E-1	8.347830E-1	7.339766E-1	8.492277E-1	8.042849E-1	7.746902E-1	8.389663E-1	8.127971E-1	8.605291E-1	8.364039E-1	7.745959E-1	8.327722E-1	7.578216E-1	8.395504E-1	8.198414E-1	7.806846E-1	8.034991E-1	7.791246E-1	7.424643E-1	8.439298E-1	7.953175E-1	7.797924E-1	8.591841E-1	8.687426E-1	8.992854E-1
2.848050E+2	1.037350E+0	1.158130E+0	1.135333E+0	1.035678E+0	1.104219E+0	1.089577E+0	1.105747E+0	9.924691E-1	1.132606E+0	1.102540E+0	1.122175E+0	1.061259E+0	1.102460E+0	1.127900E+0	1.106527E+0	1.085082E+0	1.129480E+0	1.071875E+0	1.109888E+0	1.046867E+0	1.100485E+0	1.092395E+0	1.056165E+0	1.049945E+0	1.103180E+0	1.057278E+0	1.116348E+0	1.069597E+0	1.088889E+0	1.066512E+0	1.059669E+0	1.050067E+0	1.080710E+0	1.101894E+0	1.041254E+0	1.097885E+0	1.113204E+0	1.101412E+0	1.114183E+0	1.076693E+0	1.022963E+0	1.039446E+0	1.086981E+0	1.030645E+0	1.064369E+0	1.041734E+0	1.052695E+0	9.973275E-1	1.068990E+0	1.089627E+0	9.874757E-1	1.073818E+0	1.120331E+0	1.123107E+0	1.127276E+0	1.102445E+0	1.130019E+0	1.034069E+0	1.061108E+0	1.012106E+0	9.880163E-1	1.025578E+0	1.152432E+0	1.043494E+0	1.113750E+0	1.071343E+0	1.094060E+0	1.036820E+0	1.168367E+0	1.067149E+0	1.199817E+0	1.120964E+0	1.097964E+0	1.125986E+0	1.174137E+0	1.035852E+0	1.054054E+0	1.144139E+0	1.062362E+0	1.055816E+0	1.142998E+0	1.089823E+0	1.104503E+0	1.113534E+0	9.957869E-1	1.076402E+0	1.113540E+0	1.075283E+0	1.043425E+0	1.111256E+0	1.144764E+0	1.048086E+0	1.081479E+0	1.104715E+0	1.070857E+0	1.062314E+0	1.052348E+0	1.044812E+0	9.505268E-1	1.153453E+0	1.102535E+0	1.070864E+0	1.023767E+0	1.072412E+0	1.180505E+0	1.098535E+0	1.118515E+0	1.074606E+0	1.117670E+0	1.089000E+0	1.043329E+0	1.104267E+0	1.067977E+0	1.117698E+0	1.164865E+0	1.044770E+0	1.028053E+0	1.089968E+0	1.237775E+0	1.021207E+0	1.087549E+0	1.120530E+0	1.112644E+0	1.133694E+0	1.099761E+0	1.110214E+0	1.163592E+0	1.123362E+0	1.148996E+0	1.070875E+0	1.106322E+0	1.087907E+0	1.151646E+0	1.138619E+0	1.085893E+0	1.092288E+0	1.084002E+0	1.091355E+0	1.110433E+0	1.060284E+0	1.129600E+0	1.176526E+0	1.119836E+0	1.132998E+0	1.046782E+0	1.042471E+0	1.152840E+0	1.112026E+0	1.076689E+0	1.077359E+0	1.164776E+0	1.068758E+0	1.073001E+0	1.077982E+0	1.070948E+0	1.078268E+0	1.145244E+0	1.049462E+0	1.179284E+0	1.147751E+0	1.061356E+0	1.153742E+0	1.180745E+0	1.192340E+0	1.075737E+0	1.125884E+0	1.173178E+0	1.042009E+0	1.139887E+0	1.143736E+0	1.205999E+0
2.849020E+2	1.292509E+0	1.291700E+0	1.212491E+0	1.341028E+0	1.192882E+0	1.245564E+0	1.294122E+0	1.244177E+0	1.289822E+0	1.278868E+0	1.167476E+0	1.303777E+0	1.254063E+0	1.277321E+0	1.258555E+0	1.287881E+0	1.277227E+0	1.169701E+0	1.229119E+0	1.187165E+0	1.317611E+0	1.161629E+0	1.263937E+0	1.230186E+0	1.206615E+0	1.185832E+0	1.258362E+0	1.217641E+0	1.172090E+0	1.195806E+0	1.301271E+0	1.240229E+0	1.279790E+0	1.144736E+0	1.242409E+0	1.110130E+0	1.210937E+0	1.225557E+0	1.271493E+0	1.154435E+0	1.116916E+0	1.175384E+0	1.195016E+0	1.249250E+0	1.276151E+0	1.220755E+0	1.181516E+0	1.203298E+0	1.183934E+0	1.161572E+0	1.223074E+0	1.314992E+0	1.298470E+0	1.271152E+0	1.213166E+0	1.246555E+0	1.266064E+0	1.209763E+0	1.229292E+0	1.178338E+0	1.164728E+0	1.179106E+0	1.270759E+0	1.229520E+0	1.252461E+0	1.202294E+0	1.265321E+0	1.168574E+0	1.273425E+0	1.247240E+0	1.207183E+0	1.227309E+0	1.355529E+0	1.301381E+0	1.304951E+0	1.251919E+0	1.279919E+0	1.314927E+0	1.259574E+0	1.295509E+0	1.263684E+0	1.224629E+0	1.397429E+0	1.180713E+0	1.233171E+0	1.187852E+0	1.262784E+0	1.153086E+0	1.167425E+0	1.202798E+0	1.317971E+0	1.191390E+0	1.184829E+0	1.121913E+0	1.232734E+0	1.237944E+0	1.208204E+0	1.261724E+0	1.239559E+0	1.274256E+0	1.259042E+0	1.186375E+0	1.072358E+0	1.180973E+0	1.291398E+0	1.284167E+0	1.268725E+0	1.262168E+0	1.279634E+0	1.237758E+0	1.218826E+0	1.174052E+0	1.314926E+0	1.261765E+0	1.332747E+0	1.227082E+0	1.205050E+0	1.216087E+0	1.358791E+0	1.195696E+0	1.155883E+0	1.219336E+0	1.255133E+0	1.261933E+0	1.318364E+0	1.297322E+0	1.266495E+0	1.282731E+0	1.181985E+0	1.225925E+0	1.246762E+0	1.295079E+0	1.218837E+0	1.267926E+0	1.304548E+0	1.249652E+0	1.264876E+0	1.197242E+0	1.343188E+0	1.252151E+0	1.284770E+0	1.340094E+0	1.274689E+0	1.242350E+0	1.346334E+0	1.274810E+0	1.252717E+0	1.194781E+0	1.179865E+0	1.220051E+0	1.192281E+0	1.172380E+0	1.210882E+0	1.207727E+0	1.246995E+0	1.261958E+0	1.286437E+0	1.239241E+0	1.355491E+0	1.222797E+0	1.276149E+0	1.252034E+0	1.281185E+0	1.235081E+0	1.133845E+0	1.263727E+0	1.222249E+0	1.202939E+0	1.333889E+0	1.340682E+0	1.340642E+0
2.850010E+2	1.244222E+0	1.215367E+0	1.181247E+0	1.149596E+0	1.148094E+0	1.218518E+0	1.264974E+0	1.119031E+0	1.186721E+0	1.207524E+0	1.171542E+0	1.187724E+0	1.176179E+0	1.260106E+0	1.140914E+0	1.236503E+0	1.202361E+0	1.157283E+0	1.132070E+0	1.135912E+0	1.212692E+0	1.156265E+0	1.073603E+0	1.159170E+0	1.242477E+0	1.202542E+0	1.195562E+0	1.173212E+0	1.188289E+0	1.091770E+0	1.183832E+0	1.223204E+0	1.117981E+0	1.225339E+0	1.232655E+0	1.129673E+0	1.156658E+0	1.119609E+0	1.104324E+0	1.085895E+0	1.212758E+0	1.099540E+0	1.183192E+0	1.216672E+0	1.214300E+0	1.181695E+0	1.189032E+0	1.125846E+0	1.198119E+0	1.184856E+0	1.156283E+0	1.151220E+0	1.202665E+0	1.149667E+0	1.185580E+0	1.256934E+0	1.183791E+0	1.209121E+0	1.227169E+0	1.209156E+0	1.082313E+0	1.184749E+0	1.232077E+0	1.184570E+0	1.152846E+0	1.212687E+0	1.228954E+0	1.149366E+0	1.240031E+0	1.143851E+0	1.207075E+0	1.170708E+0	1.250919E+0	1.135718E+0	1.224442E+0	1.245474E+0	1.223711E+0	1.143725E+0	1.120091E+0	1.210290E+0	1.209037E+0	1.119486E+0	1.245913E+0	1.054032E+0	1.202538E+0	1.202545E+0	1.203968E+0	1.125585E+0	1.139692E+0	1.237813E+0	1.214046E+0	1.116124E+0	1.167619E+0	1.161791E+0	1.269178E+0	1.196455E+0	1.170058E+0	1.166922E+0	1.272855E+0	1.161662E+0	1.292099E+0	1.198303E+0	1.193948E+0	1.258574E+0	1.213052E+0	1.204232E+0	1.151258E+0	1.222599E+0	1.168345E+0	1.162649E+0	1.145550E+0	1.142918E+0	1.149599E+0	1.196216E+0	1.226426E+0	1.156074E+0	1.193545E+0	1.218904E+0	1.311896E+0	1.248205E+0	1.190028E+0	1.215673E+0	1.172067E+0	1.227686E+0	1.142221E+0	1.207545E+0	1.112121E+0	1.190617E+0	1.192371E+0	1.197990E+0	1.154881E+0	1.160737E+0	1.174242E+0	1.217723E+0	1.187960E+0	1.195091E+0	1.254792E+0	1.144952E+0	1.150417E+0	1.199154E+0	1.096130E+0	1.173564E+0	1.238486E+0	1.245968E+0	1.185784E+0	1.155188E+0	1.274623E+0	1.139482E+0	1.209566E+0	1.184380E+0	1.203216E+0	1.148529E+0	1.196786E+0	1.170706E+0	1.123633E+0	1.151692E+0	1.152677E+0	1.152911E+0	1.258858E+0	1.202104E+0	1.145305E+0	1.216305E+0	1.188743E+0	1.127494E+0	1.098887E+0	1.243398E+0	1.140484E+0	1.159333E+0	1.120945E+0	1.151927E+0	1.253325E+0
2.851110E+2	9.659009E-1	9.595839E-1	9.994646E-1	9.194394E-1	9.324397E-1	9.173336E-1	9.556649E-1	9.368780E-1	1.002763E+0	9.644048E-1	9.245837E-1	1.003771E+0	8.988012E-1	9.562744E-1	9.241971E-1	9.310602E-1	1.042653E+0	9.988103E-1	9.553253E-1	9.462163E-1	9.422698E-1	8.658965E-1	9.234234E-1	9.262179E-1	9.545707E-1	9.036140E-1	9.814753E-1	9.705034E-1	9.642688E-1	9.895631E-1	9.612014E-1	9.749833E-1	9.066800E-1	9.269203E-1	8.721527E-1	8.806299E-1	8.479266E-1	9.531069E-1	9.176766E-1	9.244453E-1	9.123080E-1	8.935628E-1	9.632219E-1	9.724773E-1	9.798499E-1	9.571304E-1	9.361120E-1	9.145982E-1	9.091674E-1	9.455158E-1	9.744434E-1	9.982463E-1	9.853197E-1	1.041838E+0	9.164915E-1	9.129265E-1	9.119325E-1	9.117758E-1	9.290148E-1	9.631847E-1	9.429251E-1	9.720401E-1	9.918860E-1	9.017985E-1	9.856023E-1	9.702853E-1	9.536110E-1	9.571634E-1	9.382937E-1	1.000291E+0	9.639507E-1	9.904338E-1	9.748133E-1	9.045054E-1	9.629266E-1	8.576615E-1	9.764012E-1	1.002934E+0	9.208455E-1	8.775557E-1	9.875593E-1	9.003021E-1	1.019875E+0	1.021707E+0	9.138914E-1	8.948721E-1	9.678056E-1	9.558214E-1	9.493030E-1	9.442369E-1	1.027158E+0	9.817188E-1	9.153839E-1	9.410186E-1	9.933412E-1	9.226598E-1	1.003075E+0	8.795064E-1	1.034204E+0	7.974122E-1	9.617884E-1	8.835138E-1	9.033568E-1	9.341284E-1	9.947666E-1	9.708261E-1	8.744238E-1	9.757547E-1	9.475871E-1	9.855544E-1	9.479183E-1	9.375465E-1	9.764238E-1	9.073227E-1	1.014580E+0	9.738736E-1	8.791926E-1	9.325986E-1	1.030741E+0	9.272335E-1	8.664638E-1	9.231965E-1	9.481166E-1	9.158908E-1	9.190146E-1	9.544423E-1	9.851966E-1	9.477976E-1	9.760177E-1	1.015848E+0	9.360261E-1	8.858251E-1	9.760306E-1	9.952358E-1	9.528033E-1	1.003396E+0	9.646810E-1	9.853497E-1	9.914828E-1	9.489919E-1	9.703874E-1	1.008887E+0	1.049836E+0	9.914709E-1	9.495979E-1	9.612021E-1	9.320590E-1	9.962222E-1	9.978840E-1	9.710428E-1	9.715298E-1	9.306477E-1	8.814847E-1	1.033410E+0	9.629716E-1	1.035748E+0	9.376717E-1	9.392524E-1	1.004200E+0	9.730547E-1	9.773429E-1	9.110835E-1	1.013544E+0	9.426218E-1	1.006187E+0	9.395293E-1	9.923683E-1	9.455683E-1	9.707112E-1	9.829409E-1	9.087316E-1
2.852010E+2	7.710285E-1	7.794938E-1	7.103476E-1	6.664732E-1	6.725199E-1	6.978510E-1	6.984103E-1	7.393934E-1	6.447739E-1	6.931664E-1	7.681836E-1	7.308845E-1	6.781573E-1	7.356275E-1	7.470234E-1	6.623995E-1	6.968140E-1	7.741528E-1	7.094905E-1	6.425173E-1	7.445926E-1	6.682024E-1	6.980436E-1	7.246333E-1	7.011440E-1	6.811074E-1	7.189364E-1	7.055159E-1	6.976823E-1	6.756890E-1	7.066040E-1	7.104906E-1	7.418544E-1	7.551316E-1	6.868429E-1	7.160449E-1	7.048091E-1	7.165907E-1	6.997372E-1	7.453947E-1	6.999823E-1	7.456470E-1	7.093047E-1	7.080435E-1	7.598945E-1	7.105677E-1	7.207543E-1	6.877030E-1	7.264031E-1	6.861954E-1	7.151949E-1	7.277853E-1	7.240758E-1	7.508706E-1	6.900800E-1	7.274388E-1	6.746190E-1	7.446018E-1	7.642628E-1	7.179230E-1	7.921829E-1	7.120814E-1	7.346371E-1	6.957000E-1	7.145936E-1	7.085760E-1	7.810410E-1	6.918544E-1	7.395531E-1	7.031644E-1	7.158623E-1	6.759624E-1	6.988903E-1	6.766277E-1	7.747573E-1	7.029542E-1	7.629375E-1	6.859497E-1	7.185075E-1	6.872052E-1	7.524561E-1	7.358302E-1	7.375002E-1	6.968804E-1	7.350153E-1	7.194883E-1	7.120821E-1	7.198778E-1	7.044730E-1	6.959338E-1	6.823383E-1	7.399142E-1	6.567565E-1	7.410265E-1	6.855904E-1	7.077583E-1	7.575905E-1	7.529529E-1	7.260812E-1	7.268839E-1	7.320374E-1	6.629481E-1	7.693820E-1	7.110498E-1	7.597977E-1	7.379952E-1	7.353688E-1	7.612684E-1	7.934640E-1	7.582007E-1	7.214726E-1	6.963752E-1	7.899623E-1	7.284957E-1	7.211510E-1	7.200559E-1	6.804680E-1	6.870515E-1	7.689071E-1	7.427350E-1	6.898940E-1	7.437403E-1	7.748784E-1	7.732038E-1	7.264877E-1	7.296619E-1	7.065640E-1	6.942460E-1	7.220706E-1	7.357969E-1	6.522810E-1	7.073909E-1	7.887469E-1	7.133312E-1	7.091375E-1	7.334304E-1	7.303890E-1	7.177996E-1	7.784700E-1	7.247781E-1	7.133570E-1	7.212295E-1	8.011173E-1	7.805896E-1	7.226704E-1	7.313769E-1	7.321689E-1	7.339720E-1	6.837457E-1	7.311138E-1	7.243496E-1	7.226840E-1	7.351681E-1	7.656758E-1	7.022948E-1	7.346120E-1	7.593686E-1	7.521991E-1	7.553558E-1	7.831284E-1	7.427337E-1	7.507954E-1	7.929991E-1	7.450568E-1	7.485087E-1	7.149642E-1	7.158559E-1	7.569472E-1	7.816802E-1	7.307962E-1	8.620543E-1
2.853020E+2	7.237824E-1	7.471400E-1	7.098948E-1	7.962130E-1	7.979610E-1	7.751823E-1	7.998915E-1	7.149730E-1	8.015828E-1	7.949991E-1	7.319264E-1	7.815985E-1	7.164999E-1	7.659520E-1	7.918248E-1	7.377839E-1	6.877016E-1	8.020927E-1	7.767808E-1	7.210085E-1	7.276749E-1	8.097796E-1	7.406629E-1	7.731533E-1	7.954538E-1	7.353937E-1	7.600146E-1	7.601321E-1	7.559371E-1	7.146062E-1	7.358349E-1	7.466434E-1	7.782931E-1	7.564869E-1	8.132394E-1	6.694187E-1	7.499178E-1	7.298787E-1	7.931225E-1	7.675323E-1	8.293908E-1	7.114128E-1	7.145214E-1	7.086698E-1	7.931535E-1	7.548363E-1	7.431556E-1	7.503937E-1	7.575671E-1	7.460621E-1	7.597450E-1	7.910306E-1	8.133450E-1	7.939625E-1	8.205870E-1	7.824985E-1	7.105844E-1	7.432017E-1	7.905610E-1	7.246198E-1	7.352717E-1	7.553535E-1	7.528092E-1	8.231730E-1	7.970850E-1	7.921573E-1	7.633707E-1	7.797673E-1	7.554529E-1	7.356365E-1	7.816402E-1	7.332900E-1	8.101009E-1	7.713741E-1	8.168237E-1	7.769513E-1	7.456718E-1	8.027814E-1	7.893557E-1	7.156147E-1	7.729354E-1	7.178321E-1	8.599707E-1	7.452443E-1	7.509431E-1	7.724186E-1	7.686478E-1	7.425299E-1	7.220834E-1	7.867480E-1	7.854050E-1	7.639614E-1	7.347366E-1	7.703101E-1	7.481975E-1	7.091827E-1	8.152542E-1	8.242060E-1	7.994153E-1	7.786582E-1	7.431863E-1	8.024523E-1	7.914559E-1	7.403246E-1	6.802791E-1	7.166263E-1	7.398902E-1	7.982913E-1	7.580484E-1	7.167296E-1	7.376028E-1	8.071637E-1	7.622167E-1	8.147381E-1	7.540490E-1	7.466212E-1	7.107705E-1	7.999053E-1	7.661265E-1	7.744838E-1	7.247565E-1	7.212235E-1	8.011654E-1	7.274460E-1	7.753858E-1	7.192762E-1	6.663256E-1	7.575222E-1	7.322935E-1	8.272626E-1	7.782645E-1	7.526805E-1	7.258938E-1	7.885523E-1	7.326532E-1	7.448115E-1	7.720012E-1	7.009162E-1	7.594427E-1	7.806711E-1	7.773976E-1	7.530628E-1	7.765145E-1	7.729748E-1	8.288727E-1	7.517476E-1	7.847800E-1	7.747232E-1	7.476113E-1	8.041192E-1	8.262180E-1	7.136532E-1	7.134502E-1	7.420856E-1	7.416773E-1	7.442457E-1	7.713912E-1	7.258650E-1	7.364503E-1	7.907466E-1	7.899868E-1	7.795079E-1	7.563336E-1	7.514982E-1	7.237480E-1	7.867087E-1	8.043473E-1	7.655454E-1	8.025860E-1	7.786127E-1	7.442334E-1
2.854130E+2	5.534729E-1	6.086515E-1	6.515719E-1	6.287337E-1	6.060828E-1	5.906317E-1	6.030359E-1	6.389506E-1	6.089826E-1	5.730502E-1	5.438745E-1	6.166096E-1	6.300973E-1	6.229314E-1	6.495920E-1	6.475689E-1	6.372478E-1	5.679546E-1	6.105801E-1	6.668548E-1	5.814352E-1	6.422801E-1	6.078817E-1	6.390711E-1	6.561634E-1	6.527247E-1	6.278476E-1	6.503828E-1	6.407164E-1	5.900018E-1	6.372779E-1	6.025023E-1	6.256270E-1	6.278844E-1	5.950262E-1	6.027730E-1	5.990739E-1	5.897339E-1	5.951029E-1	6.256454E-1	6.472154E-1	5.788607E-1	6.380588E-1	6.486861E-1	6.029487E-1	5.941349E-1	5.786285E-1	6.156728E-1	6.264116E-1	5.881235E-1	6.435679E-1	6.177358E-1	6.075860E-1	6.167517E-1	6.971516E-1	6.563815E-1	6.979356E-1	6.739292E-1	5.726128E-1	6.296397E-1	6.115158E-1	6.408596E-1	6.741347E-1	5.976398E-1	6.384396E-1	5.891793E-1	6.571376E-1	5.979387E-1	7.385486E-1	6.196523E-1	6.478184E-1	6.602282E-1	6.089603E-1	6.012738E-1	6.264822E-1	6.281295E-1	5.753285E-1	6.064794E-1	6.339510E-1	5.926024E-1	6.280718E-1	6.009993E-1	6.519256E-1	6.300564E-1	6.285662E-1	5.780358E-1	6.243651E-1	6.164083E-1	5.947261E-1	6.555701E-1	6.590009E-1	6.027195E-1	6.224055E-1	5.872632E-1	5.923562E-1	5.829847E-1	6.307570E-1	5.856920E-1	6.622471E-1	6.077523E-1	6.315416E-1	6.223241E-1	5.625514E-1	6.545304E-1	6.414413E-1	6.000949E-1	5.968789E-1	6.550984E-1	5.834980E-1	6.182333E-1	5.790718E-1	6.487713E-1	6.704013E-1	6.664410E-1	5.993826E-1	6.023923E-1	6.376552E-1	6.715877E-1	5.598988E-1	6.096571E-1	6.090092E-1	5.902410E-1	6.360462E-1	6.919342E-1	5.989520E-1	6.224990E-1	6.470684E-1	6.422319E-1	6.105129E-1	6.025526E-1	6.705217E-1	6.010625E-1	6.233671E-1	6.494783E-1	5.988843E-1	6.249807E-1	6.337040E-1	6.095509E-1	6.540521E-1	5.911833E-1	5.968804E-1	6.652073E-1	6.193994E-1	6.210343E-1	5.943716E-1	6.061625E-1	6.554036E-1	6.505255E-1	6.323435E-1	6.468712E-1	7.063052E-1	5.948511E-1	6.477517E-1	6.134669E-1	6.267644E-1	6.051784E-1	6.578546E-1	6.414813E-1	6.288763E-1	6.444254E-1	6.549069E-1	5.772665E-1	6.082495E-1	6.531499E-1	6.276732E-1	6.555463E-1	6.318553E-1	6.862117E-1	6.848825E-1	7.192420E-1	6.917513E-1
2.855050E+2	5.113550E-1	5.124858E-1	5.820279E-1	5.105057E-1	4.572137E-1	5.408087E-1	4.605055E-1	4.923300E-1	5.104576E-1	5.228372E-1	5.032801E-1	5.075894E-1	5.024665E-1	5.490375E-1	5.561086E-1	5.076205E-1	4.919001E-1	5.342757E-1	4.836148E-1	5.509555E-1	4.871334E-1	4.438743E-1	5.123949E-1	5.436575E-1	5.249425E-1	5.166503E-1	4.912605E-1	4.902969E-1	5.177700E-1	5.147973E-1	5.081593E-1	5.348177E-1	5.034141E-1	5.170300E-1	5.546705E-1	5.231063E-1	5.047454E-1	4.929934E-1	5.503254E-1	4.919015E-1	4.808654E-1	5.179023E-1	5.363345E-1	5.658716E-1	5.168151E-1	5.604670E-1	5.457603E-1	5.042530E-1	5.613971E-1	5.563103E-1	5.714784E-1	4.884226E-1	5.099210E-1	6.079473E-1	5.706928E-1	5.048765E-1	4.702412E-1	5.439951E-1	5.592447E-1	5.338574E-1	4.905197E-1	5.250862E-1	5.234352E-1	4.933679E-1	5.020530E-1	5.330796E-1	4.661498E-1	5.350782E-1	5.332136E-1	5.008549E-1	5.400996E-1	5.288105E-1	5.281764E-1	4.683695E-1	5.149195E-1	5.651374E-1	5.174485E-1	5.495548E-1	5.347652E-1	5.637406E-1	5.419019E-1	4.738322E-1	5.923449E-1	5.180020E-1	5.168190E-1	5.179656E-1	5.334416E-1	5.434793E-1	5.071070E-1	5.631146E-1	6.068321E-1	5.215742E-1	5.240918E-1	5.049037E-1	5.025445E-1	5.280130E-1	5.519535E-1	5.103746E-1	5.033111E-1	5.125919E-1	5.767112E-1	5.164866E-1	4.898453E-1	5.036508E-1	5.631055E-1	5.717066E-1	5.406905E-1	5.027554E-1	5.388680E-1	5.102173E-1	5.496742E-1	4.700985E-1	5.326727E-1	5.012288E-1	5.225233E-1	5.326072E-1	5.298449E-1	5.152446E-1	5.648610E-1	5.292907E-1	5.326372E-1	5.110396E-1	5.884344E-1	4.925003E-1	4.915241E-1	4.660070E-1	4.687986E-1	5.263920E-1	5.314026E-1	5.175800E-1	5.954109E-1	5.410627E-1	5.232346E-1	5.392592E-1	5.469930E-1	5.569062E-1	5.231858E-1	5.148179E-1	5.615334E-1	5.032286E-1	5.453442E-1	5.473591E-1	5.463189E-1	5.922864E-1	5.252367E-1	4.918027E-1	5.455522E-1	5.326407E-1	5.435780E-1	4.900746E-1	5.008819E-1	5.118360E-1	5.172617E-1	4.941154E-1	5.287256E-1	5.857262E-1	5.265138E-1	5.303724E-1	4.780860E-1	5.298239E-1	5.164262E-1	5.413190E-1	5.148770E-1	5.887414E-1	5.044282E-1	5.470827E-1	5.044515E-1	4.754707E-1	5.753847E-1	6.215800E-1	5.458908E-1
2.856030E+2	3.938458E-1	4.823113E-1	4.278859E-1	4.438314E-1	3.964940E-1	4.108114E-1	4.441840E-1	5.062334E-1	4.063238E-1	4.431464E-1	4.493814E-1	4.271937E-1	4.782323E-1	4.355212E-1	3.969063E-1	4.261831E-1	4.060260E-1	4.055675E-1	4.170480E-1	3.701953E-1	4.579585E-1	4.236064E-1	4.437514E-1	3.939048E-1	4.669433E-1	4.684285E-1	4.254760E-1	3.779465E-1	4.117894E-1	4.002522E-1	4.254293E-1	4.070906E-1	4.212122E-1	3.871321E-1	4.275350E-1	4.301265E-1	4.254257E-1	4.045724E-1	3.874205E-1	4.111845E-1	4.576801E-1	4.175802E-1	4.062457E-1	4.835337E-1	4.251109E-1	4.226785E-1	4.091613E-1	4.045689E-1	4.196518E-1	4.094339E-1	4.649538E-1	5.122088E-1	4.836365E-1	4.486304E-1	4.334744E-1	4.420334E-1	4.320968E-1	4.129086E-1	4.083813E-1	4.525726E-1	3.399016E-1	4.179677E-1	3.868352E-1	4.189630E-1	4.627533E-1	4.334483E-1	3.952929E-1	4.443568E-1	4.118524E-1	4.301814E-1	3.707884E-1	4.161835E-1	4.206387E-1	4.715142E-1	4.111939E-1	4.430551E-1	3.891206E-1	4.874859E-1	4.417338E-1	4.017488E-1	4.116231E-1	3.766765E-1	4.083125E-1	3.824130E-1	3.690528E-1	3.874256E-1	4.526871E-1	4.091327E-1	3.717997E-1	4.319660E-1	4.392417E-1	4.288094E-1	4.624684E-1	3.979651E-1	4.612061E-1	4.196357E-1	4.033563E-1	3.950807E-1	4.130381E-1	4.429299E-1	4.631284E-1	4.040928E-1	3.641231E-1	4.120859E-1	4.533831E-1	4.294334E-1	4.213774E-1	4.443311E-1	4.056947E-1	4.293811E-1	4.490513E-1	3.403667E-1	4.277333E-1	3.865860E-1	4.879805E-1	4.130416E-1	4.377887E-1	4.334533E-1	4.022528E-1	4.869571E-1	4.495665E-1	3.810395E-1	4.292758E-1	4.150707E-1	4.242443E-1	4.327757E-1	4.215504E-1	4.431750E-1	4.113485E-1	3.873356E-1	4.099436E-1	3.796763E-1	4.140598E-1	4.088692E-1	4.287841E-1	4.108788E-1	4.128710E-1	4.230118E-1	4.171595E-1	4.090853E-1	4.398107E-1	3.814430E-1	4.215896E-1	4.791499E-1	4.467637E-1	3.692054E-1	4.006815E-1	4.406144E-1	4.077136E-1	4.726175E-1	4.375001E-1	4.261712E-1	4.268225E-1	4.264858E-1	4.252977E-1	4.530558E-1	4.576984E-1	4.896491E-1	4.254089E-1	4.879239E-1	4.096238E-1	4.368037E-1	4.093824E-1	5.028662E-1	4.346373E-1	4.382429E-1	4.069229E-1	4.800258E-1	4.055810E-1	3.773518E-1	4.173477E-1
2.858040E+2	4.053062E-1	4.427717E-1	4.740084E-1	4.244296E-1	4.212281E-1	4.391762E-1	4.381615E-1	4.893967E-1	4.097841E-1	4.653766E-1	4.309614E-1	4.331804E-1	4.690985E-1	4.567438E-1	4.189253E-1	4.328790E-1	4.918263E-1	4.481346E-1	4.486366E-1	4.189369E-1	4.213835E-1	4.340954E-1	4.684235E-1	4.038802E-1	4.394844E-1	4.544170E-1	4.269202E-1	4.396600E-1	4.049067E-1	4.674645E-1	4.156549E-1	4.295993E-1	4.577884E-1	3.923761E-1	4.049652E-1	4.232232E-1	4.184717E-1	4.155062E-1	4.512707E-1	4.215413E-1	4.179139E-1	4.364565E-1	4.542329E-1	4.580837E-1	4.091018E-1	4.322691E-1	4.799975E-1	4.175501E-1	4.168873E-1	4.211908E-1	4.407106E-1	4.697997E-1	4.407860E-1	4.246165E-1	4.076844E-1	4.593513E-1	4.221977E-1	4.203471E-1	4.690603E-1	4.497047E-1	4.665646E-1	4.399976E-1	4.057197E-1	4.397150E-1	4.204738E-1	4.396670E-1	4.053325E-1	4.137801E-1	4.142346E-1	4.128241E-1	4.537558E-1	4.466000E-1	4.881570E-1	4.466575E-1	4.688416E-1	4.698804E-1	4.311122E-1	4.265102E-1	5.099544E-1	4.635619E-1	4.435546E-1	4.332073E-1	4.687526E-1	4.706815E-1	4.027537E-1	4.127813E-1	4.223345E-1	4.384289E-1	4.063571E-1	4.292257E-1	4.231715E-1	4.571825E-1	4.207511E-1	4.280170E-1	4.364880E-1	3.999701E-1	4.300095E-1	4.386175E-1	4.522482E-1	3.629390E-1	4.459392E-1	4.682895E-1	4.717410E-1	4.385671E-1	4.854377E-1	4.671127E-1	4.832120E-1	4.791313E-1	4.473130E-1	4.339620E-1	4.459345E-1	4.446359E-1	4.302018E-1	4.371832E-1	4.439204E-1	4.553405E-1	3.943410E-1	4.465542E-1	4.424397E-1	4.338133E-1	4.548683E-1	4.054285E-1	4.325472E-1	4.644660E-1	4.084781E-1	4.230628E-1	4.098993E-1	3.991977E-1	3.818325E-1	4.397179E-1	4.631243E-1	4.646156E-1	4.573624E-1	4.361490E-1	4.062388E-1	4.314433E-1	4.190349E-1	4.273257E-1	4.645885E-1	4.315530E-1	4.278095E-1	4.740119E-1	4.385538E-1	4.280505E-1	4.837226E-1	4.236655E-1	3.786553E-1	4.297567E-1	4.067905E-1	4.691443E-1	4.330819E-1	4.131474E-1	4.105185E-1	4.735137E-1	4.534021E-1	4.241139E-1	4.414319E-1	5.016538E-1	4.212031E-1	4.912489E-1	4.073787E-1	4.384779E-1	4.252590E-1	4.753185E-1	4.075540E-1	4.822061E-1	4.857279E-1	4.656624E-1	4.595587E-1	4.792558E-1	4.319445E-1
2.860020E+2	6.495286E-1	6.633528E-1	6.398291E-1	5.934956E-1	6.453467E-1	6.261811E-1	6.467689E-1	6.538206E-1	6.411193E-1	6.642897E-1	6.821368E-1	5.879846E-1	6.643546E-1	6.912126E-1	6.029265E-1	6.525543E-1	6.157066E-1	6.516349E-1	6.383722E-1	6.699185E-1	6.693897E-1	6.632244E-1	6.365760E-1	5.953262E-1	6.530636E-1	6.457784E-1	6.311118E-1	6.389511E-1	6.017763E-1	5.981563E-1	6.438394E-1	6.394952E-1	5.954079E-1	6.931186E-1	5.654305E-1	6.474409E-1	6.557476E-1	5.774837E-1	6.384955E-1	6.256674E-1	6.056991E-1	6.311234E-1	6.297150E-1	6.172462E-1	6.251391E-1	6.130464E-1	6.139601E-1	6.344682E-1	6.572274E-1	6.619025E-1	6.395666E-1	7.035296E-1	6.424742E-1	5.969307E-1	6.538302E-1	6.739655E-1	6.176865E-1	6.257712E-1	6.984012E-1	6.021704E-1	6.055512E-1	6.274473E-1	6.178402E-1	6.140476E-1	6.192450E-1	6.713775E-1	6.098593E-1	6.188006E-1	7.118943E-1	6.871129E-1	6.365269E-1	6.427213E-1	6.861692E-1	6.802420E-1	6.435822E-1	6.445833E-1	5.829162E-1	6.306646E-1	6.705730E-1	6.149914E-1	6.444926E-1	5.964600E-1	6.668690E-1	5.716949E-1	6.634637E-1	5.446909E-1	6.708878E-1	6.308246E-1	5.645162E-1	6.222689E-1	6.274533E-1	5.903135E-1	6.156762E-1	5.988506E-1	6.618994E-1	6.113725E-1	6.705085E-1	7.160430E-1	6.232332E-1	6.282846E-1	6.248204E-1	5.832673E-1	6.206050E-1	6.698483E-1	6.528369E-1	6.133435E-1	6.137834E-1	6.377799E-1	6.006748E-1	6.366679E-1	6.579879E-1	6.404916E-1	6.730278E-1	5.897600E-1	6.433386E-1	6.158323E-1	6.642545E-1	6.541316E-1	6.461717E-1	6.777899E-1	6.238011E-1	6.251111E-1	6.315069E-1	6.098955E-1	6.666465E-1	5.671048E-1	6.203829E-1	6.315966E-1	6.549747E-1	6.385673E-1	6.673752E-1	6.260355E-1	6.467439E-1	6.888289E-1	6.705442E-1	6.874839E-1	6.434551E-1	5.999373E-1	6.348534E-1	6.199202E-1	6.416435E-1	6.407009E-1	6.547367E-1	6.269938E-1	6.570155E-1	6.885120E-1	6.394830E-1	5.934922E-1	6.406126E-1	6.500643E-1	6.106340E-1	5.738352E-1	6.534168E-1	6.227708E-1	6.316873E-1	6.144645E-1	5.805156E-1	6.401887E-1	6.093595E-1	6.524934E-1	6.406369E-1	6.544808E-1	6.677493E-1	6.365050E-1	6.322051E-1	6.245432E-1	6.497616E-1	6.441367E-1	6.765958E-1	6.124791E-1	6.614889E-1
2.862030E+2	9.468205E-1	9.794178E-1	1.080725E+0	1.078776E+0	9.921832E-1	9.407924E-1	9.273612E-1	9.666907E-1	1.022857E+0	1.055589E+0	9.739024E-1	9.568551E-1	1.019754E+0	9.584724E-1	9.257369E-1	1.087109E+0	9.804933E-1	9.675638E-1	8.700751E-1	1.013850E+0	9.807337E-1	1.020152E+0	1.060063E+0	1.011917E+0	1.027918E+0	9.956302E-1	1.001175E+0	9.773737E-1	1.026821E+0	1.010979E+0	1.021975E+0	1.025498E+0	9.804309E-1	1.047046E+0	9.670458E-1	1.021963E+0	9.320525E-1	9.444265E-1	1.023754E+0	9.973313E-1	1.067011E+0	9.642876E-1	1.026114E+0	1.037924E+0	1.083885E+0	9.839102E-1	9.454786E-1	1.019223E+0	9.825543E-1	1.018818E+0	9.846088E-1	1.002639E+0	9.976658E-1	9.619082E-1	1.021548E+0	9.766913E-1	9.609500E-1	9.105064E-1	1.125595E+0	9.949015E-1	9.641775E-1	1.066885E+0	9.918857E-1	9.888006E-1	9.590320E-1	1.037533E+0	9.835491E-1	9.911707E-1	1.031404E+0	1.045053E+0	1.024530E+0	9.926840E-1	9.729869E-1	1.024975E+0	9.829287E-1	9.215598E-1	9.234215E-1	9.943571E-1	9.687782E-1	1.014797E+0	1.108549E+0	9.646121E-1	1.103480E+0	9.484539E-1	9.987282E-1	1.008489E+0	9.377609E-1	9.771016E-1	9.391505E-1	1.047068E+0	9.753393E-1	1.084801E+0	9.781556E-1	1.015039E+0	9.891882E-1	9.873302E-1	1.057698E+0	1.000608E+0	1.020930E+0	9.736811E-1	9.934674E-1	9.918409E-1	1.061917E+0	9.965529E-1	1.059324E+0	9.651473E-1	9.552267E-1	9.622665E-1	1.079355E+0	1.028637E+0	9.722905E-1	9.613498E-1	1.064684E+0	1.052998E+0	9.991416E-1	9.320825E-1	1.019786E+0	9.916597E-1	1.074726E+0	1.063644E+0	1.012322E+0	9.844795E-1	1.016109E+0	1.121137E+0	1.028072E+0	1.063944E+0	1.090941E+0	1.006455E+0	9.784268E-1	9.872237E-1	1.036912E+0	1.010624E+0	1.076781E+0	1.076631E+0	9.614829E-1	1.082900E+0	9.479949E-1	1.041380E+0	1.046065E+0	1.003417E+0	9.872603E-1	1.000885E+0	1.052807E+0	9.483108E-1	9.982863E-1	1.000677E+0	1.035178E+0	1.051875E+0	9.121902E-1	1.073729E+0	1.055459E+0	9.831152E-1	1.026569E+0	9.098648E-1	1.022725E+0	9.858432E-1	1.027280E+0	9.913399E-1	9.957296E-1	9.839124E-1	1.065412E+0	1.014268E+0	1.066789E+0	1.041985E+0	9.828949E-1	1.013864E+0	9.693787E-1	1.019551E+0	1.036936E+0	1.065323E+0	9.781285E-1
2.864080E+2	1.029839E+0	1.013378E+0	1.047271E+0	9.551833E-1	9.330925E-1	9.739489E-1	9.316680E-1	8.948753E-1	9.594215E-1	9.632105E-1	9.565325E-1	9.598631E-1	9.811342E-1	1.017006E+0	1.011601E+0	9.725558E-1	1.032188E+0	9.331038E-1	9.270070E-1	9.299895E-1	1.003907E+0	9.791398E-1	8.567574E-1	9.426428E-1	1.052679E+0	8.969555E-1	9.279983E-1	9.205395E-1	9.547895E-1	9.090751E-1	1.012522E+0	9.349890E-1	1.001453E+0	9.953326E-1	9.122425E-1	9.702076E-1	9.631998E-1	9.616698E-1	9.456638E-1	9.387637E-1	1.016746E+0	9.381791E-1	9.662019E-1	9.642808E-1	9.541465E-1	9.789720E-1	9.486407E-1	1.043171E+0	9.058432E-1	9.891134E-1	9.754918E-1	9.896781E-1	9.700351E-1	9.828870E-1	9.926157E-1	9.986361E-1	9.791100E-1	1.003910E+0	9.128006E-1	9.459898E-1	9.292063E-1	1.023168E+0	9.384326E-1	9.148869E-1	9.625662E-1	9.388638E-1	9.354549E-1	9.979487E-1	9.497593E-1	9.551837E-1	9.985901E-1	9.330224E-1	9.959609E-1	9.721341E-1	1.043869E+0	1.001151E+0	9.541319E-1	1.015214E+0	9.560022E-1	9.296207E-1	1.023830E+0	1.013581E+0	9.873639E-1	9.739002E-1	9.758816E-1	1.039606E+0	9.957981E-1	9.428855E-1	1.000580E+0	9.836816E-1	9.882760E-1	1.010628E+0	9.583353E-1	9.940192E-1	9.821315E-1	9.623867E-1	9.991081E-1	9.792447E-1	9.689569E-1	9.578090E-1	9.437604E-1	9.360358E-1	9.937650E-1	9.165584E-1	9.884150E-1	1.010348E+0	1.047072E+0	9.564331E-1	9.671986E-1	9.348795E-1	1.013739E+0	9.054454E-1	9.970179E-1	9.681374E-1	9.777194E-1	9.452459E-1	9.279265E-1	9.634299E-1	9.856295E-1	9.669504E-1	9.801153E-1	9.476290E-1	9.615801E-1	9.900943E-1	1.050874E+0	1.046722E+0	9.743530E-1	1.032048E+0	9.678404E-1	1.045361E+0	9.201150E-1	9.341595E-1	1.023705E+0	9.408547E-1	9.374963E-1	1.018610E+0	9.316148E-1	9.607518E-1	1.018256E+0	9.406275E-1	9.969833E-1	9.787886E-1	9.362511E-1	9.474072E-1	9.218252E-1	1.010529E+0	1.044525E+0	9.469810E-1	9.101476E-1	9.583032E-1	9.648074E-1	9.300984E-1	9.556624E-1	9.521055E-1	9.777768E-1	9.629481E-1	1.003543E+0	1.056039E+0	9.672652E-1	1.037786E+0	9.688658E-1	8.977552E-1	9.720479E-1	9.815579E-1	9.189763E-1	1.029182E+0	9.610394E-1	1.035345E+0	1.021547E+0	9.507893E-1	9.471472E-1
2.866030E+2	8.791101E-1	8.768985E-1	7.994925E-1	7.778316E-1	8.285427E-1	8.213778E-1	8.721378E-1	8.415000E-1	7.664480E-1	7.966778E-1	8.459831E-1	7.550310E-1	8.098429E-1	8.568812E-1	8.793617E-1	8.220056E-1	8.184069E-1	9.090205E-1	8.432015E-1	8.209309E-1	8.165700E-1	8.218029E-1	8.281713E-1	8.651090E-1	9.416043E-1	8.578295E-1	7.701539E-1	7.725218E-1	8.877641E-1	8.373440E-1	7.763079E-1	8.162171E-1	8.530839E-1	8.740352E-1	8.155949E-1	8.309688E-1	8.721344E-1	7.967141E-1	7.547207E-1	8.056129E-1	8.404003E-1	8.205669E-1	8.806843E-1	8.753730E-1	8.388595E-1	7.856712E-1	7.939209E-1	8.265756E-1	7.998071E-1	8.447544E-1	8.500298E-1	8.350602E-1	8.585770E-1	8.392525E-1	8.953054E-1	8.441102E-1	8.549641E-1	8.792437E-1	8.091782E-1	8.338265E-1	7.859609E-1	8.063129E-1	9.330391E-1	7.807659E-1	7.918358E-1	8.151952E-1	8.846123E-1	8.123033E-1	7.966873E-1	8.359784E-1	8.542654E-1	8.036538E-1	8.749463E-1	8.740163E-1	8.319125E-1	8.624975E-1	8.968805E-1	8.314090E-1	8.589902E-1	7.799906E-1	8.911779E-1	7.765326E-1	9.039753E-1	8.128346E-1	7.719891E-1	8.372291E-1	9.077770E-1	7.903783E-1	8.801747E-1	8.528633E-1	8.630407E-1	7.715736E-1	8.282538E-1	8.858003E-1	8.652746E-1	8.298347E-1	8.670961E-1	8.180652E-1	8.795243E-1	7.855161E-1	8.437823E-1	8.475837E-1	8.202872E-1	8.190416E-1	8.714879E-1	8.326278E-1	8.251775E-1	8.103058E-1	8.242367E-1	7.947533E-1	8.629433E-1	8.378213E-1	8.925100E-1	8.650666E-1	8.368029E-1	8.649299E-1	8.246204E-1	8.453699E-1	8.364429E-1	8.514085E-1	7.964550E-1	8.768910E-1	8.380013E-1	7.935922E-1	8.347843E-1	8.590450E-1	8.147233E-1	8.987806E-1	8.360710E-1	8.357903E-1	8.212438E-1	8.414286E-1	8.748202E-1	8.528911E-1	8.252802E-1	8.295927E-1	8.431425E-1	8.541619E-1	8.855974E-1	8.136410E-1	8.413291E-1	8.335600E-1	8.389020E-1	8.133047E-1	8.672955E-1	8.738209E-1	8.567651E-1	8.096028E-1	8.589177E-1	8.376317E-1	8.234153E-1	8.163610E-1	8.356964E-1	7.872323E-1	8.594651E-1	9.006416E-1	8.134955E-1	7.822267E-1	8.408201E-1	8.757116E-1	7.912278E-1	9.046103E-1	8.804819E-1	8.508026E-1	8.402028E-1	8.751993E-1	8.212758E-1	8.840913E-1	8.225079E-1	8.366279E-1	8.757589E-1
2.868020E+2	1.429636E+0	1.374881E+0	1.413436E+0	1.395903E+0	1.387328E+0	1.494707E+0	1.460019E+0	1.374629E+0	1.381444E+0	1.438193E+0	1.385884E+0	1.321063E+0	1.417016E+0	1.364921E+0	1.330682E+0	1.473201E+0	1.428683E+0	1.386146E+0	1.320266E+0	1.395940E+0	1.452913E+0	1.419230E+0	1.372901E+0	1.417122E+0	1.459167E+0	1.370715E+0	1.361431E+0	1.384657E+0	1.429094E+0	1.421136E+0	1.496455E+0	1.463369E+0	1.368777E+0	1.422572E+0	1.371508E+0	1.490187E+0	1.389249E+0	1.382846E+0	1.371082E+0	1.369693E+0	1.444941E+0	1.381268E+0	1.404604E+0	1.519799E+0	1.410399E+0	1.406107E+0	1.413118E+0	1.361155E+0	1.476090E+0	1.481709E+0	1.367354E+0	1.416698E+0	1.426744E+0	1.354597E+0	1.436973E+0	1.388431E+0	1.399294E+0	1.480595E+0	1.366508E+0	1.425091E+0	1.297837E+0	1.369130E+0	1.379256E+0	1.404109E+0	1.443361E+0	1.428146E+0	1.379156E+0	1.325802E+0	1.392635E+0	1.393871E+0	1.422089E+0	1.356043E+0	1.368813E+0	1.359116E+0	1.469801E+0	1.475487E+0	1.427717E+0	1.390461E+0	1.403184E+0	1.430838E+0	1.469976E+0	1.447915E+0	1.507791E+0	1.361309E+0	1.321352E+0	1.340914E+0	1.402023E+0	1.365391E+0	1.424933E+0	1.391363E+0	1.419789E+0	1.450175E+0	1.469751E+0	1.336415E+0	1.470031E+0	1.423094E+0	1.477074E+0	1.366404E+0	1.503131E+0	1.421535E+0	1.479291E+0	1.354949E+0	1.449765E+0	1.362795E+0	1.534059E+0	1.383523E+0	1.387417E+0	1.382884E+0	1.428739E+0	1.425140E+0	1.468798E+0	1.407290E+0	1.380817E+0	1.451675E+0	1.366499E+0	1.388685E+0	1.436024E+0	1.358806E+0	1.456385E+0	1.482727E+0	1.422286E+0	1.374150E+0	1.427151E+0	1.401310E+0	1.382524E+0	1.403114E+0	1.357409E+0	1.369206E+0	1.417903E+0	1.529676E+0	1.357558E+0	1.349884E+0	1.542475E+0	1.533636E+0	1.290990E+0	1.390303E+0	1.421132E+0	1.417553E+0	1.439204E+0	1.489998E+0	1.447600E+0	1.380917E+0	1.344052E+0	1.419600E+0	1.415967E+0	1.405077E+0	1.414223E+0	1.496496E+0	1.469219E+0	1.427502E+0	1.497762E+0	1.471913E+0	1.464333E+0	1.393892E+0	1.396373E+0	1.456537E+0	1.421553E+0	1.483545E+0	1.359658E+0	1.351288E+0	1.387798E+0	1.412292E+0	1.387148E+0	1.364467E+0	1.390414E+0	1.367609E+0	1.448228E+0	1.412119E+0	1.612710E+0	1.423930E+0	1.391669E+0
2.870030E+2	1.353694E+0	1.407709E+0	1.325046E+0	1.280184E+0	1.335208E+0	1.385605E+0	1.355627E+0	1.328540E+0	1.392781E+0	1.396934E+0	1.376060E+0	1.342180E+0	1.370150E+0	1.401365E+0	1.439654E+0	1.370303E+0	1.358410E+0	1.447939E+0	1.365113E+0	1.341295E+0	1.484467E+0	1.382200E+0	1.319430E+0	1.336849E+0	1.440238E+0	1.344001E+0	1.331903E+0	1.400237E+0	1.407943E+0	1.353015E+0	1.414024E+0	1.404402E+0	1.426658E+0	1.392352E+0	1.344151E+0	1.342979E+0	1.370074E+0	1.283275E+0	1.350034E+0	1.310900E+0	1.356237E+0	1.337566E+0	1.406677E+0	1.343374E+0	1.459021E+0	1.332269E+0	1.372357E+0	1.407244E+0	1.359530E+0	1.365778E+0	1.356323E+0	1.358743E+0	1.468658E+0	1.332842E+0	1.421353E+0	1.412380E+0	1.324855E+0	1.417358E+0	1.422776E+0	1.381703E+0	1.320302E+0	1.328141E+0	1.355836E+0	1.363485E+0	1.323892E+0	1.377433E+0	1.421342E+0	1.413404E+0	1.403327E+0	1.382082E+0	1.456847E+0	1.357720E+0	1.444811E+0	1.332730E+0	1.363299E+0	1.404169E+0	1.368441E+0	1.347126E+0	1.468318E+0	1.310646E+0	1.394324E+0	1.332305E+0	1.486254E+0	1.345552E+0	1.408746E+0	1.284688E+0	1.369595E+0	1.324563E+0	1.369216E+0	1.372393E+0	1.433623E+0	1.363098E+0	1.393731E+0	1.336875E+0	1.382248E+0	1.366234E+0	1.403511E+0	1.363795E+0	1.349995E+0	1.383634E+0	1.352086E+0	1.367238E+0	1.239486E+0	1.296852E+0	1.401672E+0	1.394332E+0	1.291954E+0	1.465256E+0	1.354757E+0	1.370574E+0	1.390146E+0	1.435224E+0	1.336873E+0	1.381806E+0	1.330535E+0	1.519450E+0	1.367125E+0	1.365037E+0	1.444184E+0	1.374472E+0	1.350075E+0	1.379717E+0	1.356336E+0	1.364626E+0	1.427650E+0	1.324781E+0	1.357909E+0	1.407453E+0	1.320936E+0	1.444516E+0	1.333763E+0	1.325585E+0	1.336471E+0	1.461054E+0	1.301367E+0	1.363077E+0	1.450806E+0	1.382372E+0	1.378473E+0	1.472817E+0	1.309595E+0	1.378356E+0	1.453938E+0	1.328359E+0	1.379587E+0	1.413278E+0	1.404162E+0	1.418325E+0	1.425491E+0	1.431349E+0	1.385678E+0	1.381910E+0	1.383311E+0	1.346240E+0	1.308691E+0	1.404734E+0	1.412082E+0	1.414321E+0	1.360050E+0	1.427864E+0	1.380612E+0	1.349731E+0	1.391065E+0	1.379538E+0	1.402115E+0	1.390262E+0	1.345292E+0	1.357013E+0	1.542844E+0	1.301151E+0	1.437966E+0
2.872040E+2	1.177473E+0	1.152407E+0	1.137202E+0	1.096168E+0	1.103123E+0	1.158956E+0	1.098437E+0	1.109728E+0	1.191419E+0	1.136089E+0	1.089942E+0	1.132600E+0	1.108868E+0	1.085201E+0	1.129339E+0	1.150870E+0	1.105070E+0	1.087015E+0	1.066371E+0	1.114759E+0	1.131281E+0	1.173689E+0	1.112988E+0	1.090295E+0	1.133141E+0	1.130870E+0	1.124966E+0	1.065920E+0	1.164264E+0	1.001445E+0	1.129145E+0	1.141263E+0	1.151165E+0	1.181472E+0	1.067042E+0	1.047073E+0	1.104781E+0	1.087366E+0	1.114958E+0	1.026862E+0	1.145086E+0	1.145335E+0	1.080894E+0	1.206082E+0	1.119864E+0	1.100049E+0	1.085149E+0	1.080148E+0	1.077224E+0	1.118514E+0	1.169573E+0	1.102688E+0	1.123805E+0	1.121208E+0	1.102564E+0	1.148590E+0	1.126774E+0	1.113444E+0	1.129069E+0	1.091058E+0	1.044693E+0	1.112877E+0	1.142549E+0	1.105644E+0	1.158903E+0	1.168162E+0	1.051867E+0	1.101784E+0	1.089722E+0	1.118292E+0	1.234325E+0	1.176991E+0	1.162419E+0	1.211200E+0	1.106601E+0	1.110122E+0	1.149318E+0	1.180486E+0	1.179703E+0	1.105045E+0	1.225458E+0	1.143219E+0	1.273685E+0	1.114022E+0	1.114785E+0	1.174657E+0	1.148735E+0	1.069018E+0	1.080030E+0	1.144560E+0	1.126209E+0	1.114587E+0	1.201618E+0	1.112977E+0	1.086921E+0	1.111661E+0	1.164015E+0	1.141595E+0	1.158176E+0	1.077169E+0	1.154871E+0	1.123898E+0	1.131177E+0	1.150878E+0	1.135767E+0	1.136482E+0	1.034769E+0	1.163907E+0	1.168028E+0	1.198061E+0	1.149085E+0	1.125732E+0	1.204487E+0	1.125266E+0	1.165860E+0	1.083715E+0	1.132138E+0	1.151280E+0	1.172208E+0	1.145021E+0	1.140074E+0	1.157563E+0	1.096595E+0	1.118703E+0	1.075572E+0	1.159642E+0	1.126385E+0	1.169149E+0	1.127166E+0	1.093897E+0	1.159639E+0	1.101864E+0	1.175726E+0	1.091295E+0	1.075227E+0	1.147434E+0	1.073629E+0	1.219386E+0	1.148557E+0	1.158980E+0	1.222077E+0	1.092806E+0	1.150959E+0	1.118572E+0	1.101385E+0	1.123978E+0	1.075246E+0	1.189414E+0	1.192563E+0	1.103291E+0	1.143946E+0	1.140648E+0	1.170145E+0	1.070561E+0	1.073353E+0	1.119649E+0	1.162293E+0	1.140059E+0	1.084589E+0	1.101541E+0	1.112770E+0	1.109324E+0	1.151007E+0	1.134827E+0	1.128660E+0	1.232813E+0	1.168208E+0	1.109691E+0	1.132807E+0	1.264808E+0	1.171583E+0
2.874030E+2	9.466941E-1	8.376733E-1	9.278930E-1	8.906428E-1	8.695622E-1	9.018682E-1	8.738371E-1	9.264261E-1	8.580438E-1	8.579870E-1	8.956028E-1	8.579132E-1	8.454278E-1	8.531067E-1	8.998214E-1	8.930164E-1	8.954248E-1	9.022313E-1	9.020823E-1	8.591995E-1	9.127967E-1	7.895597E-1	8.511959E-1	9.250341E-1	9.306319E-1	9.086250E-1	8.127655E-1	8.919822E-1	9.480562E-1	8.354404E-1	8.899377E-1	8.670757E-1	8.367995E-1	8.908437E-1	8.739847E-1	9.334359E-1	8.909048E-1	8.386675E-1	9.066799E-1	8.212093E-1	9.127418E-1	8.756317E-1	8.912146E-1	8.850222E-1	8.627304E-1	8.633657E-1	8.591308E-1	8.927578E-1	9.156692E-1	8.543666E-1	8.445355E-1	8.778814E-1	9.664403E-1	9.272573E-1	8.505779E-1	8.992673E-1	8.138954E-1	8.892947E-1	8.768006E-1	7.991603E-1	8.351904E-1	8.630609E-1	9.224850E-1	8.671313E-1	7.939019E-1	8.387139E-1	8.909274E-1	9.067073E-1	8.613647E-1	8.968120E-1	8.871209E-1	9.104049E-1	8.385577E-1	9.150202E-1	8.654273E-1	8.728979E-1	9.013013E-1	8.894314E-1	8.744712E-1	9.069534E-1	9.399153E-1	8.487239E-1	9.184556E-1	9.311776E-1	8.690618E-1	8.972096E-1	8.759988E-1	8.777671E-1	9.092740E-1	9.060390E-1	9.087103E-1	9.707084E-1	8.794850E-1	8.724811E-1	8.807964E-1	8.496070E-1	1.033740E+0	8.921772E-1	9.220463E-1	8.266569E-1	9.051201E-1	8.249651E-1	8.127652E-1	8.552054E-1	9.267879E-1	8.712881E-1	8.478482E-1	9.216119E-1	9.114205E-1	8.440752E-1	8.873637E-1	8.647378E-1	8.812468E-1	8.998152E-1	9.397483E-1	8.841981E-1	8.424811E-1	9.204755E-1	9.291700E-1	8.884983E-1	9.305005E-1	8.458727E-1	8.976733E-1	8.553406E-1	8.973199E-1	8.927569E-1	8.846752E-1	8.552867E-1	8.363007E-1	9.313752E-1	8.726821E-1	9.000721E-1	8.981764E-1	9.196010E-1	8.891735E-1	8.792248E-1	8.713639E-1	8.694875E-1	8.795450E-1	8.846042E-1	9.280197E-1	9.168151E-1	9.399930E-1	8.567752E-1	8.737962E-1	9.272755E-1	9.323154E-1	8.606797E-1	9.000352E-1	9.424950E-1	8.991100E-1	8.412966E-1	9.405698E-1	8.398589E-1	8.690647E-1	9.504160E-1	9.026723E-1	9.212108E-1	8.841047E-1	8.524793E-1	8.778529E-1	9.230655E-1	8.774864E-1	8.485298E-1	8.703481E-1	9.211082E-1	9.273474E-1	9.385653E-1	9.478826E-1	9.352480E-1	1.013323E+0
2.876030E+2	6.405140E-1	6.003040E-1	5.344367E-1	5.782649E-1	6.084431E-1	5.825060E-1	6.075953E-1	6.195984E-1	5.978112E-1	5.646241E-1	5.456428E-1	6.398139E-1	5.746211E-1	6.075245E-1	6.005583E-1	6.221508E-1	6.129420E-1	5.610848E-1	5.886043E-1	5.663618E-1	6.191087E-1	5.945489E-1	5.816485E-1	5.943016E-1	5.915457E-1	5.630195E-1	5.751283E-1	5.959230E-1	5.754527E-1	5.853645E-1	5.450522E-1	5.895515E-1	5.629174E-1	6.235652E-1	5.736435E-1	5.955794E-1	5.606016E-1	5.435250E-1	5.926111E-1	5.918835E-1	5.467103E-1	5.416380E-1	5.634863E-1	5.860188E-1	5.857606E-1	5.752490E-1	5.648983E-1	6.232620E-1	6.039566E-1	5.716115E-1	5.637707E-1	5.580883E-1	6.834952E-1	5.211061E-1	6.553070E-1	5.754995E-1	6.005348E-1	6.553619E-1	5.763033E-1	5.846855E-1	5.344312E-1	5.880668E-1	6.029122E-1	5.475156E-1	6.000077E-1	5.704297E-1	5.640023E-1	5.880703E-1	6.128954E-1	5.582510E-1	5.942805E-1	6.112354E-1	6.233759E-1	5.478844E-1	6.022141E-1	5.440481E-1	5.813875E-1	5.838873E-1	5.944794E-1	5.692238E-1	6.290086E-1	5.778520E-1	5.821195E-1	5.938619E-1	5.415912E-1	5.563935E-1	5.675408E-1	5.614682E-1	5.754147E-1	6.295103E-1	6.004833E-1	5.890689E-1	5.367475E-1	5.902620E-1	6.092333E-1	5.449792E-1	5.415623E-1	6.248352E-1	6.500359E-1	5.680183E-1	5.869861E-1	6.008443E-1	5.613020E-1	5.846964E-1	6.144458E-1	5.291056E-1	5.713927E-1	5.795814E-1	5.649393E-1	6.138280E-1	5.925130E-1	6.148483E-1	5.979363E-1	5.604151E-1	5.591065E-1	6.182916E-1	5.788106E-1	5.807237E-1	6.590968E-1	5.932215E-1	5.729187E-1	5.983681E-1	5.419658E-1	6.097815E-1	5.201454E-1	5.631311E-1	6.463406E-1	5.720493E-1	5.854031E-1	6.125160E-1	6.276245E-1	5.399611E-1	5.565170E-1	6.599343E-1	6.049975E-1	5.441150E-1	5.990504E-1	5.878049E-1	6.247972E-1	5.751370E-1	5.959575E-1	5.872474E-1	6.083824E-1	6.215154E-1	5.857834E-1	5.687131E-1	5.757759E-1	5.750167E-1	5.191634E-1	6.077683E-1	6.177091E-1	5.787140E-1	6.058729E-1	6.091370E-1	5.908425E-1	5.537441E-1	6.251737E-1	6.241700E-1	5.670163E-1	5.976314E-1	5.988974E-1	5.775231E-1	6.038886E-1	6.169570E-1	6.458965E-1	6.197758E-1	5.775158E-1	6.315262E-1	6.612105E-1	5.932273E-1	6.193616E-1
2.878020E+2	5.476817E-1	5.103284E-1	5.224299E-1	5.371968E-1	5.442268E-1	5.800659E-1	5.695480E-1	5.263380E-1	4.944408E-1	5.289279E-1	5.255766E-1	5.042628E-1	5.350323E-1	5.952216E-1	5.624294E-1	5.275612E-1	5.903045E-1	5.174380E-1	5.268685E-1	5.313775E-1	5.447852E-1	5.230958E-1	5.254111E-1	5.503008E-1	5.442135E-1	5.430248E-1	5.203704E-1	5.597898E-1	5.746856E-1	5.677712E-1	5.556245E-1	5.807944E-1	5.481467E-1	5.935438E-1	5.516264E-1	5.373601E-1	5.511993E-1	5.232156E-1	4.966341E-1	5.581394E-1	5.809032E-1	5.085026E-1	5.636666E-1	5.690176E-1	5.079825E-1	5.263918E-1	5.079232E-1	5.181065E-1	4.988456E-1	5.240107E-1	5.503257E-1	5.843091E-1	5.123203E-1	5.675666E-1	5.352852E-1	5.619392E-1	5.607159E-1	5.465755E-1	5.748238E-1	5.308603E-1	5.479465E-1	5.551657E-1	5.621296E-1	5.345686E-1	5.501863E-1	5.759014E-1	6.061488E-1	5.403865E-1	5.804243E-1	5.219802E-1	5.503568E-1	5.276740E-1	6.053694E-1	4.936574E-1	5.809082E-1	5.329911E-1	5.606899E-1	5.181188E-1	5.756426E-1	5.388457E-1	5.271430E-1	5.740973E-1	5.586202E-1	5.735133E-1	5.134221E-1	5.676204E-1	5.409938E-1	5.346822E-1	5.902014E-1	5.039148E-1	5.963815E-1	5.519476E-1	5.187591E-1	5.200480E-1	5.459686E-1	5.691335E-1	6.019494E-1	5.434881E-1	5.513134E-1	5.321690E-1	5.871463E-1	5.198233E-1	5.416032E-1	5.541782E-1	5.288644E-1	5.460009E-1	5.530134E-1	5.657636E-1	5.718911E-1	5.554480E-1	5.166501E-1	5.454859E-1	5.939698E-1	5.382708E-1	5.989045E-1	5.454814E-1	5.246150E-1	5.391684E-1	5.156758E-1	6.015440E-1	5.548099E-1	5.779457E-1	5.133821E-1	5.302522E-1	5.540330E-1	5.578581E-1	5.724296E-1	5.497228E-1	5.579194E-1	6.039709E-1	5.282724E-1	5.717005E-1	5.046479E-1	5.635445E-1	5.017859E-1	5.325901E-1	5.258804E-1	6.148163E-1	5.603570E-1	5.154783E-1	5.548888E-1	5.142816E-1	5.546691E-1	6.102006E-1	5.754081E-1	6.269160E-1	5.844932E-1	5.486128E-1	5.698762E-1	5.555516E-1	5.640626E-1	5.399006E-1	5.454564E-1	5.775327E-1	5.327751E-1	5.129012E-1	5.928451E-1	5.942932E-1	5.626741E-1	5.481256E-1	5.944412E-1	5.437897E-1	4.872940E-1	5.199052E-1	5.371966E-1	5.447894E-1	5.387612E-1	6.258224E-1	6.337136E-1	5.746865E-1	5.823504E-1
2.880040E+2	5.722497E-1	5.857807E-1	5.178687E-1	5.306572E-1	5.615538E-1	5.798827E-1	5.796123E-1	5.405253E-1	6.308812E-1	5.477778E-1	5.955648E-1	5.335894E-1	5.347714E-1	5.895206E-1	5.753244E-1	5.728139E-1	5.334848E-1	5.301561E-1	5.908798E-1	5.764908E-1	5.763759E-1	5.703169E-1	5.512268E-1	5.559216E-1	5.528238E-1	5.116170E-1	5.326844E-1	5.272187E-1	5.644005E-1	5.469690E-1	5.778436E-1	5.434993E-1	5.546183E-1	5.589182E-1	5.840959E-1	5.932527E-1	5.215964E-1	5.546329E-1	5.103467E-1	5.260700E-1	5.641861E-1	4.925157E-1	4.958056E-1	6.026807E-1	5.924957E-1	5.213282E-1	5.752177E-1	5.885098E-1	5.810625E-1	5.783024E-1	5.596000E-1	5.498238E-1	5.602938E-1	5.568850E-1	5.586216E-1	5.944278E-1	5.188492E-1	5.388137E-1	5.787981E-1	4.996957E-1	5.229117E-1	5.946295E-1	5.764699E-1	5.052829E-1	5.333344E-1	5.829517E-1	5.457833E-1	5.459044E-1	5.553157E-1	5.485005E-1	5.262156E-1	5.299814E-1	6.097211E-1	6.222664E-1	5.453384E-1	5.466022E-1	5.141599E-1	5.656024E-1	5.295184E-1	5.446331E-1	5.630484E-1	5.206330E-1	6.266010E-1	5.447009E-1	4.890505E-1	5.431254E-1	6.301080E-1	5.244936E-1	5.803867E-1	5.546184E-1	5.635395E-1	5.946558E-1	5.795967E-1	5.645647E-1	5.558214E-1	5.688058E-1	5.796459E-1	5.482713E-1	5.801793E-1	5.969503E-1	5.301597E-1	5.453845E-1	6.002271E-1	5.980905E-1	5.348550E-1	6.059374E-1	5.793126E-1	5.228078E-1	5.797944E-1	5.892551E-1	5.368277E-1	5.545204E-1	5.798263E-1	5.846499E-1	5.935629E-1	5.491630E-1	6.000806E-1	5.316236E-1	6.257006E-1	5.017764E-1	5.531478E-1	5.789850E-1	5.730726E-1	5.986374E-1	5.551054E-1	5.472546E-1	5.370412E-1	5.718070E-1	5.461705E-1	5.615399E-1	5.442727E-1	5.536143E-1	6.127091E-1	5.580272E-1	5.472381E-1	5.290773E-1	5.695272E-1	5.806111E-1	5.574232E-1	5.868177E-1	5.634587E-1	6.093795E-1	5.871243E-1	5.984222E-1	5.407538E-1	6.238834E-1	6.449606E-1	5.953274E-1	5.546681E-1	5.926507E-1	5.638479E-1	5.828394E-1	5.619007E-1	5.350403E-1	5.749936E-1	6.090398E-1	5.322764E-1	5.664118E-1	5.962188E-1	5.701860E-1	5.632359E-1	5.871114E-1	6.392828E-1	6.029654E-1	5.730711E-1	5.629428E-1	5.867106E-1	5.972608E-1	6.112843E-1	5.293191E-1	5.294036E-1
2.882090E+2	6.019333E-1	5.936417E-1	6.251461E-1	6.080967E-1	5.494848E-1	5.675496E-1	6.040001E-1	5.268333E-1	4.851933E-1	5.812093E-1	5.205577E-1	5.300966E-1	5.130153E-1	5.780081E-1	5.600490E-1	5.795633E-1	6.109656E-1	5.930324E-1	5.766977E-1	5.056213E-1	5.356782E-1	5.815398E-1	5.757618E-1	5.427060E-1	6.340453E-1	5.910211E-1	5.863208E-1	5.371477E-1	5.401370E-1	5.724989E-1	5.586717E-1	5.885006E-1	5.443023E-1	5.818510E-1	5.873014E-1	5.777843E-1	5.749806E-1	5.693399E-1	5.803816E-1	5.505716E-1	6.128136E-1	5.274123E-1	5.641023E-1	5.423985E-1	5.871200E-1	5.543225E-1	5.993280E-1	5.435665E-1	5.818678E-1	5.717137E-1	5.668319E-1	5.649257E-1	6.006741E-1	5.808353E-1	5.022837E-1	6.046013E-1	5.786685E-1	5.902479E-1	6.404434E-1	6.111310E-1	5.926564E-1	5.735676E-1	5.593874E-1	5.887795E-1	5.908265E-1	5.616766E-1	5.901128E-1	5.729343E-1	6.321275E-1	6.137867E-1	5.242600E-1	5.836235E-1	5.757097E-1	6.714336E-1	5.740321E-1	5.743647E-1	5.435566E-1	5.645666E-1	5.461134E-1	5.627693E-1	5.541844E-1	5.838255E-1	5.852331E-1	5.836446E-1	5.899432E-1	5.442383E-1	5.987108E-1	5.753351E-1	5.526250E-1	6.289394E-1	5.781492E-1	6.073301E-1	6.181695E-1	5.739033E-1	5.614346E-1	5.437552E-1	5.623438E-1	6.012867E-1	5.621029E-1	5.826432E-1	5.691463E-1	6.291308E-1	5.747819E-1	5.829600E-1	5.912207E-1	6.225378E-1	5.386092E-1	5.510306E-1	5.266094E-1	5.445884E-1	5.716269E-1	5.940124E-1	5.945731E-1	5.869959E-1	5.720317E-1	5.459977E-1	5.479897E-1	5.741092E-1	6.281945E-1	5.439711E-1	5.462663E-1	5.266657E-1	5.866368E-1	5.793738E-1	5.859674E-1	5.870724E-1	5.947402E-1	5.841147E-1	6.035417E-1	5.710388E-1	6.408745E-1	5.294636E-1	6.099071E-1	6.171055E-1	5.443136E-1	5.780834E-1	5.639845E-1	5.609043E-1	5.803899E-1	5.302615E-1	5.851547E-1	5.242434E-1	5.825020E-1	6.198661E-1	5.937668E-1	5.437014E-1	6.114915E-1	5.794826E-1	6.106947E-1	5.802037E-1	5.088958E-1	5.620058E-1	5.478605E-1	5.569169E-1	5.607853E-1	6.265329E-1	5.893782E-1	6.281003E-1	5.590783E-1	5.559678E-1	5.950723E-1	5.732605E-1	5.629257E-1	5.418185E-1	5.739778E-1	6.428460E-1	5.698002E-1	5.586535E-1	5.636357E-1	6.069832E-1	5.778655E-1
2.884090E+2	1.001738E+0	1.054610E+0	1.056301E+0	1.032932E+0	9.238718E-1	1.048513E+0	1.000081E+0	9.958639E-1	1.003770E+0	9.760056E-1	1.028801E+0	1.016703E+0	9.682693E-1	1.047330E+0	1.021189E+0	1.016082E+0	1.012275E+0	9.987785E-1	1.000165E+0	9.712116E-1	1.085353E+0	9.775920E-1	9.335238E-1	1.041440E+0	1.036950E+0	1.067175E+0	1.002100E+0	9.973188E-1	9.936264E-1	1.053173E+0	1.016412E+0	1.084877E+0	1.034885E+0	1.003158E+0	9.303662E-1	8.955943E-1	1.045032E+0	1.026647E+0	1.005553E+0	9.778901E-1	9.953393E-1	9.353687E-1	9.917924E-1	9.864900E-1	1.037281E+0	1.005365E+0	1.055210E+0	1.018017E+0	9.618691E-1	1.003619E+0	1.015732E+0	9.532627E-1	9.929394E-1	1.019748E+0	9.874062E-1	1.015829E+0	1.001433E+0	9.545706E-1	9.995938E-1	9.911089E-1	1.001151E+0	1.005517E+0	9.922553E-1	9.466585E-1	9.791061E-1	9.906800E-1	1.031074E+0	1.031890E+0	1.063478E+0	1.002848E+0	1.066388E+0	1.025064E+0	1.037057E+0	1.028473E+0	1.065207E+0	1.045254E+0	9.475178E-1	9.123705E-1	8.737585E-1	1.032660E+0	9.801235E-1	9.613857E-1	9.854793E-1	1.050655E+0	9.802719E-1	1.017541E+0	1.019836E+0	9.805453E-1	9.728512E-1	9.813241E-1	1.082916E+0	1.044196E+0	1.027612E+0	9.919763E-1	1.087044E+0	9.680066E-1	9.945335E-1	9.726119E-1	1.034339E+0	9.519589E-1	1.031785E+0	9.103417E-1	1.015358E+0	9.846191E-1	1.099321E+0	1.052758E+0	9.860304E-1	9.975994E-1	9.660152E-1	1.034319E+0	1.063466E+0	1.034810E+0	9.612361E-1	1.027536E+0	1.058459E+0	1.011078E+0	1.032050E+0	1.047264E+0	1.022113E+0	9.893309E-1	1.040213E+0	1.033918E+0	9.619455E-1	9.832208E-1	1.033806E+0	1.010223E+0	9.768667E-1	1.010322E+0	9.804430E-1	1.039050E+0	9.867564E-1	1.015021E+0	1.062983E+0	1.046922E+0	9.544377E-1	1.036684E+0	9.490073E-1	1.005865E+0	9.862717E-1	1.025927E+0	1.042683E+0	1.039431E+0	1.075939E+0	1.104091E+0	1.043328E+0	1.019114E+0	1.065740E+0	1.018792E+0	1.005359E+0	1.032113E+0	9.613624E-1	1.004187E+0	1.063686E+0	9.813842E-1	9.848247E-1	1.005441E+0	9.959706E-1	1.023753E+0	1.018875E+0	1.016939E+0	1.024198E+0	1.041042E+0	1.039064E+0	1.072043E+0	1.049181E+0	1.086145E+0	1.032533E+0	1.056613E+0	1.010314E+0	1.057855E+0	1.008543E+0
2.886030E+2	1.312912E+0	1.402048E+0	1.356928E+0	1.334913E+0	1.316605E+0	1.317165E+0	1.406954E+0	1.429251E+0	1.352868E+0	1.421790E+0	1.352995E+0	1.313222E+0	1.427273E+0	1.449648E+0	1.446599E+0	1.402130E+0	1.379070E+0	1.333791E+0	1.382033E+0	1.292409E+0	1.321108E+0	1.356407E+0	1.268163E+0	1.367289E+0	1.379361E+0	1.345947E+0	1.362691E+0	1.332129E+0	1.401663E+0	1.327189E+0	1.277290E+0	1.350957E+0	1.308003E+0	1.384604E+0	1.324946E+0	1.378383E+0	1.311626E+0	1.334898E+0	1.348651E+0	1.316657E+0	1.380862E+0	1.413261E+0	1.472639E+0	1.385055E+0	1.304092E+0	1.381856E+0	1.415447E+0	1.400013E+0	1.381690E+0	1.374419E+0	1.387794E+0	1.409598E+0	1.484185E+0	1.263005E+0	1.271670E+0	1.424665E+0	1.275848E+0	1.419496E+0	1.411163E+0	1.369059E+0	1.251155E+0	1.309419E+0	1.345402E+0	1.296627E+0	1.313813E+0	1.389513E+0	1.295909E+0	1.408347E+0	1.350300E+0	1.392513E+0	1.311587E+0	1.336619E+0	1.389527E+0	1.384837E+0	1.296570E+0	1.342357E+0	1.409199E+0	1.360150E+0	1.329397E+0	1.371032E+0	1.392054E+0	1.329400E+0	1.364976E+0	1.364546E+0	1.371068E+0	1.366758E+0	1.395924E+0	1.409448E+0	1.345300E+0	1.388931E+0	1.365709E+0	1.379989E+0	1.388902E+0	1.400113E+0	1.339431E+0	1.327427E+0	1.350334E+0	1.335030E+0	1.390188E+0	1.391644E+0	1.374294E+0	1.300695E+0	1.273483E+0	1.328939E+0	1.373161E+0	1.340844E+0	1.281468E+0	1.406570E+0	1.272917E+0	1.369987E+0	1.340740E+0	1.337164E+0	1.449985E+0	1.363655E+0	1.363054E+0	1.384695E+0	1.346721E+0	1.351712E+0	1.379880E+0	1.395617E+0	1.308636E+0	1.347530E+0	1.422874E+0	1.367671E+0	1.299424E+0	1.346497E+0	1.383309E+0	1.358612E+0	1.346377E+0	1.317053E+0	1.300715E+0	1.292656E+0	1.385558E+0	1.370857E+0	1.314496E+0	1.285026E+0	1.336053E+0	1.444951E+0	1.398553E+0	1.361192E+0	1.379797E+0	1.395680E+0	1.331460E+0	1.350002E+0	1.336923E+0	1.316006E+0	1.337031E+0	1.467320E+0	1.356096E+0	1.283100E+0	1.338488E+0	1.404997E+0	1.363399E+0	1.342035E+0	1.280213E+0	1.387537E+0	1.367405E+0	1.395188E+0	1.340581E+0	1.323279E+0	1.379096E+0	1.401043E+0	1.320221E+0	1.264237E+0	1.325865E+0	1.402905E+0	1.240427E+0	1.345433E+0	1.467782E+0	1.385045E+0	1.376553E+0
2.887950E+2	1.445639E+0	1.357914E+0	1.362381E+0	1.371996E+0	1.400447E+0	1.368357E+0	1.353511E+0	1.403271E+0	1.364668E+0	1.409551E+0	1.419648E+0	1.402441E+0	1.331470E+0	1.442943E+0	1.405934E+0	1.409771E+0	1.248707E+0	1.344573E+0	1.445257E+0	1.309225E+0	1.433452E+0	1.324251E+0	1.334886E+0	1.374127E+0	1.334798E+0	1.320703E+0	1.327259E+0	1.369939E+0	1.403894E+0	1.338367E+0	1.342646E+0	1.337497E+0	1.349594E+0	1.327109E+0	1.397648E+0	1.378103E+0	1.283048E+0	1.399607E+0	1.357683E+0	1.370190E+0	1.343285E+0	1.340668E+0	1.430911E+0	1.399103E+0	1.477299E+0	1.435147E+0	1.406353E+0	1.380513E+0	1.390222E+0	1.333399E+0	1.376892E+0	1.427423E+0	1.399565E+0	1.395770E+0	1.426378E+0	1.388674E+0	1.393706E+0	1.364539E+0	1.522554E+0	1.305374E+0	1.310445E+0	1.346240E+0	1.435469E+0	1.301977E+0	1.374455E+0	1.445648E+0	1.435147E+0	1.319624E+0	1.410015E+0	1.447552E+0	1.392860E+0	1.386383E+0	1.326774E+0	1.341461E+0	1.404295E+0	1.469879E+0	1.383762E+0	1.421570E+0	1.396952E+0	1.282227E+0	1.367005E+0	1.340273E+0	1.390583E+0	1.440214E+0	1.363621E+0	1.376244E+0	1.409624E+0	1.347138E+0	1.302680E+0	1.371846E+0	1.457023E+0	1.374892E+0	1.340804E+0	1.386790E+0	1.408020E+0	1.398515E+0	1.383059E+0	1.445806E+0	1.395303E+0	1.275466E+0	1.360099E+0	1.402431E+0	1.386538E+0	1.306541E+0	1.404471E+0	1.312331E+0	1.347366E+0	1.366394E+0	1.352577E+0	1.471425E+0	1.396883E+0	1.356181E+0	1.402813E+0	1.389753E+0	1.403807E+0	1.285394E+0	1.397729E+0	1.282162E+0	1.462119E+0	1.432502E+0	1.392420E+0	1.301602E+0	1.348493E+0	1.411079E+0	1.375531E+0	1.437355E+0	1.393817E+0	1.324786E+0	1.351403E+0	1.335106E+0	1.413835E+0	1.352344E+0	1.388104E+0	1.529169E+0	1.448883E+0	1.293290E+0	1.383599E+0	1.304894E+0	1.482648E+0	1.387201E+0	1.382420E+0	1.437733E+0	1.523972E+0	1.407954E+0	1.268651E+0	1.372868E+0	1.392721E+0	1.374682E+0	1.393815E+0	1.366726E+0	1.412187E+0	1.308440E+0	1.451684E+0	1.334960E+0	1.349111E+0	1.434249E+0	1.408391E+0	1.395211E+0	1.421161E+0	1.395745E+0	1.378010E+0	1.466340E+0	1.409067E+0	1.448652E+0	1.411076E+0	1.414593E+0	1.351126E+0	1.332211E+0	1.326116E+0	1.325818E+0	1.441608E+0
2.890120E+2	1.154023E+0	1.283248E+0	1.241586E+0	1.209967E+0	1.141398E+0	1.109724E+0	1.208769E+0	1.205564E+0	1.180963E+0	1.217453E+0	1.158514E+0	1.097614E+0	1.178800E+0	1.178572E+0	1.165958E+0	1.195102E+0	1.088314E+0	1.173514E+0	1.190812E+0	1.174571E+0	1.152056E+0	1.252932E+0	1.154819E+0	1.158093E+0	1.219355E+0	1.197866E+0	1.184904E+0	1.199011E+0	1.122290E+0	1.177373E+0	1.181213E+0	1.156059E+0	1.152970E+0	1.228042E+0	1.191223E+0	1.111676E+0	1.201738E+0	1.066328E+0	1.182571E+0	1.195646E+0	1.142847E+0	1.173504E+0	1.210814E+0	1.263891E+0	1.210136E+0	1.203062E+0	1.138538E+0	1.166097E+0	1.168504E+0	1.179340E+0	1.181456E+0	1.165150E+0	1.179591E+0	1.217592E+0	1.185215E+0	1.191104E+0	1.107441E+0	1.160736E+0	1.262588E+0	1.293124E+0	1.132014E+0	1.106614E+0	1.276514E+0	1.194158E+0	1.183338E+0	1.178854E+0	1.168049E+0	1.169955E+0	1.216001E+0	1.155059E+0	1.182937E+0	1.134790E+0	1.217087E+0	1.215796E+0	1.126871E+0	1.193383E+0	1.181683E+0	1.237899E+0	1.202008E+0	1.186996E+0	1.223325E+0	1.164056E+0	1.265835E+0	1.162086E+0	1.230231E+0	1.228212E+0	1.253401E+0	1.107437E+0	1.152369E+0	1.228323E+0	1.180686E+0	1.208669E+0	1.190949E+0	1.116641E+0	1.196868E+0	1.265346E+0	1.135801E+0	1.172510E+0	1.256294E+0	1.225114E+0	1.178407E+0	1.200359E+0	1.085169E+0	1.153040E+0	1.237381E+0	1.150646E+0	1.175977E+0	1.257114E+0	1.139508E+0	1.156999E+0	1.171054E+0	1.192219E+0	1.186546E+0	1.179959E+0	1.268560E+0	1.211581E+0	1.196002E+0	1.138799E+0	1.184815E+0	1.138524E+0	1.093993E+0	1.148999E+0	1.202632E+0	1.220048E+0	1.179927E+0	1.219988E+0	1.197446E+0	1.183023E+0	1.110838E+0	1.227290E+0	1.199103E+0	1.183832E+0	1.248432E+0	1.229318E+0	1.166293E+0	1.205584E+0	1.234042E+0	1.181821E+0	1.201854E+0	1.140352E+0	1.193107E+0	1.238063E+0	1.295115E+0	1.202043E+0	1.141591E+0	1.244104E+0	1.260963E+0	1.158564E+0	1.210862E+0	1.245062E+0	1.223829E+0	1.184430E+0	1.169762E+0	1.167274E+0	1.047930E+0	1.256807E+0	1.255436E+0	1.188455E+0	1.159003E+0	1.183525E+0	1.157052E+0	1.193089E+0	1.140899E+0	1.124001E+0	1.161566E+0	1.234929E+0	1.159064E+0	1.252011E+0	1.317112E+0	1.193260E+0	1.222868E+0
2.892050E+2	7.298061E-1	7.344475E-1	7.871430E-1	7.467792E-1	7.540548E-1	7.456753E-1	7.100550E-1	7.549519E-1	7.623297E-1	8.050551E-1	7.191238E-1	7.683362E-1	7.330991E-1	7.515579E-1	7.776865E-1	7.853522E-1	8.032434E-1	7.286528E-1	7.168586E-1	7.565814E-1	7.920599E-1	7.390038E-1	7.257903E-1	7.684886E-1	7.795268E-1	7.984623E-1	7.591546E-1	8.199022E-1	7.720072E-1	7.891760E-1	7.543893E-1	7.420735E-1	7.624227E-1	7.059558E-1	7.213901E-1	7.119192E-1	7.681645E-1	7.037730E-1	7.174721E-1	7.944815E-1	7.709033E-1	7.649339E-1	7.585859E-1	7.741316E-1	7.831200E-1	7.612326E-1	7.420809E-1	7.871212E-1	7.878150E-1	7.444752E-1	8.115076E-1	8.322611E-1	8.595392E-1	7.268719E-1	8.120455E-1	7.033763E-1	7.911082E-1	7.398854E-1	7.819892E-1	7.253694E-1	6.776751E-1	7.762954E-1	8.177004E-1	7.372760E-1	7.450556E-1	7.515197E-1	7.395333E-1	7.561478E-1	8.189871E-1	7.908209E-1	7.204844E-1	7.876287E-1	7.929329E-1	7.899249E-1	7.407733E-1	7.875896E-1	7.904665E-1	7.846852E-1	8.346197E-1	7.318165E-1	7.775626E-1	6.826971E-1	7.293426E-1	7.498326E-1	7.051407E-1	7.170196E-1	8.256940E-1	7.007920E-1	7.318879E-1	7.641865E-1	8.493819E-1	7.985758E-1	7.784145E-1	7.601746E-1	8.027614E-1	7.243287E-1	7.180914E-1	7.212656E-1	7.631354E-1	8.008160E-1	7.982994E-1	7.054138E-1	7.420426E-1	7.190346E-1	7.402522E-1	7.357007E-1	7.615172E-1	7.516953E-1	7.083131E-1	7.960136E-1	8.056656E-1	8.059388E-1	8.458295E-1	7.503400E-1	8.431348E-1	7.173593E-1	6.941592E-1	8.073060E-1	7.376286E-1	7.207576E-1	6.918230E-1	7.212255E-1	7.885129E-1	7.419418E-1	7.986556E-1	7.487173E-1	6.953602E-1	8.392138E-1	7.569549E-1	7.978148E-1	8.349376E-1	7.562150E-1	7.746025E-1	8.057166E-1	7.116659E-1	7.538639E-1	7.565033E-1	7.634618E-1	8.228857E-1	7.621627E-1	7.361832E-1	7.256059E-1	7.870221E-1	7.887465E-1	7.889932E-1	7.295609E-1	7.512525E-1	7.398126E-1	7.998111E-1	7.747860E-1	7.701365E-1	7.434164E-1	7.740289E-1	7.560268E-1	7.656013E-1	8.094284E-1	7.747390E-1	8.023150E-1	8.151125E-1	8.057620E-1	7.094093E-1	7.624274E-1	7.510166E-1	7.312743E-1	7.178592E-1	8.090575E-1	7.752394E-1	7.792261E-1	8.962694E-1	8.511108E-1	7.025026E-1
2.894050E+2	6.799258E-1	7.537608E-1	7.049193E-1	7.225990E-1	6.355433E-1	6.779931E-1	6.865490E-1	6.698755E-1	6.283004E-1	6.442407E-1	7.144711E-1	7.197376E-1	7.176859E-1	7.069514E-1	6.934303E-1	7.104201E-1	6.922598E-1	6.866735E-1	6.217697E-1	6.842788E-1	6.866647E-1	6.777365E-1	7.194606E-1	7.146346E-1	7.332045E-1	7.070844E-1	6.609134E-1	7.024162E-1	7.235176E-1	7.119286E-1	6.931399E-1	6.836438E-1	6.328644E-1	7.292140E-1	6.704637E-1	7.014186E-1	7.270040E-1	6.873871E-1	7.145911E-1	7.513726E-1	6.194302E-1	6.823653E-1	6.582887E-1	6.644886E-1	7.361645E-1	6.819890E-1	6.841981E-1	7.135482E-1	6.694363E-1	6.381412E-1	6.787493E-1	7.536683E-1	6.735719E-1	6.723535E-1	6.640347E-1	6.827107E-1	6.840945E-1	7.146952E-1	6.766642E-1	6.213901E-1	6.382309E-1	6.752365E-1	7.105551E-1	6.686467E-1	7.170458E-1	7.236307E-1	7.486864E-1	6.919918E-1	7.579508E-1	6.764968E-1	7.241455E-1	6.991766E-1	7.274247E-1	6.863293E-1	7.336493E-1	6.580359E-1	7.285306E-1	6.737524E-1	7.505334E-1	7.470155E-1	7.676390E-1	6.927694E-1	6.547926E-1	7.007649E-1	7.184438E-1	6.697560E-1	6.776607E-1	6.269865E-1	7.160475E-1	6.998229E-1	6.835369E-1	7.034876E-1	6.983461E-1	6.815877E-1	7.226875E-1	6.853965E-1	7.470855E-1	6.811333E-1	7.327168E-1	6.604915E-1	6.927944E-1	6.657447E-1	6.777924E-1	6.527970E-1	7.430753E-1	6.893500E-1	6.550983E-1	7.173856E-1	7.198323E-1	6.437443E-1	7.351729E-1	6.899938E-1	7.479027E-1	6.671809E-1	7.283921E-1	6.965154E-1	7.054600E-1	6.797614E-1	7.443454E-1	7.274965E-1	7.397130E-1	7.013748E-1	7.452530E-1	6.644469E-1	6.481092E-1	7.250642E-1	7.525482E-1	6.895179E-1	7.094763E-1	7.182033E-1	6.711179E-1	7.301709E-1	7.004965E-1	6.298003E-1	6.435178E-1	6.963453E-1	7.228773E-1	7.193689E-1	6.823967E-1	7.481139E-1	6.600334E-1	6.788922E-1	6.964816E-1	7.051082E-1	7.418103E-1	7.205749E-1	7.529505E-1	7.082383E-1	7.248701E-1	6.730688E-1	7.071597E-1	6.488011E-1	6.212106E-1	6.471013E-1	7.299424E-1	6.951339E-1	7.340388E-1	6.660354E-1	7.440973E-1	6.735707E-1	6.485815E-1	7.377749E-1	6.924618E-1	7.530121E-1	6.683516E-1	7.497693E-1	7.413179E-1	7.423156E-1	7.219120E-1	7.256916E-1	7.204080E-1
2.896060E+2	6.983961E-1	7.769576E-1	7.319393E-1	7.433861E-1	6.716301E-1	7.261387E-1	6.846334E-1	7.333458E-1	7.215679E-1	7.544058E-1	7.045141E-1	7.138232E-1	7.194093E-1	7.301000E-1	7.742902E-1	7.428155E-1	7.355297E-1	7.078982E-1	6.930156E-1	7.415203E-1	7.604471E-1	7.206268E-1	6.682543E-1	6.479513E-1	7.325784E-1	6.954884E-1	7.207140E-1	7.577859E-1	6.873903E-1	7.118911E-1	7.738097E-1	7.356008E-1	7.202921E-1	7.078542E-1	6.303615E-1	6.973860E-1	6.765578E-1	6.988410E-1	7.093599E-1	6.720781E-1	7.590098E-1	6.771844E-1	6.757351E-1	7.656624E-1	6.912717E-1	7.127744E-1	7.247142E-1	7.188582E-1	7.367800E-1	7.395150E-1	7.121947E-1	7.251557E-1	7.154653E-1	6.855610E-1	7.165838E-1	7.144913E-1	6.701273E-1	6.796714E-1	7.277914E-1	7.563320E-1	6.725048E-1	7.060880E-1	7.596325E-1	6.875512E-1	7.142321E-1	7.565813E-1	7.089804E-1	6.839582E-1	7.435545E-1	7.420211E-1	7.020674E-1	7.282529E-1	6.846606E-1	7.548660E-1	7.581779E-1	7.532872E-1	6.818884E-1	7.679350E-1	7.136850E-1	6.734449E-1	7.403030E-1	5.909045E-1	7.130094E-1	7.806533E-1	6.883206E-1	6.633116E-1	7.011373E-1	6.820606E-1	7.198814E-1	6.670692E-1	6.812585E-1	6.405890E-1	6.970236E-1	7.407226E-1	6.979203E-1	7.025350E-1	7.530090E-1	7.453021E-1	7.203240E-1	7.114602E-1	6.507351E-1	6.755113E-1	7.180878E-1	6.812041E-1	7.774675E-1	7.200770E-1	6.585118E-1	7.291112E-1	6.952711E-1	6.973462E-1	7.505235E-1	7.446789E-1	7.590908E-1	6.947263E-1	7.129696E-1	7.234127E-1	7.237642E-1	7.211852E-1	7.905967E-1	7.318118E-1	6.232697E-1	7.104531E-1	6.734907E-1	7.182263E-1	7.301877E-1	6.911666E-1	7.716256E-1	7.204713E-1	7.679630E-1	6.318893E-1	7.180422E-1	7.525098E-1	6.723414E-1	7.444507E-1	7.192337E-1	6.839403E-1	6.755264E-1	7.349870E-1	7.206408E-1	7.401488E-1	6.959404E-1	7.381843E-1	7.740618E-1	7.156132E-1	7.324186E-1	7.703384E-1	7.244330E-1	7.025714E-1	7.011915E-1	7.657140E-1	7.606076E-1	7.241596E-1	7.487743E-1	7.035765E-1	7.621461E-1	6.696005E-1	6.542580E-1	7.441899E-1	7.403273E-1	6.967433E-1	7.741199E-1	7.925346E-1	7.056529E-1	7.407925E-1	6.967771E-1	7.360699E-1	7.231784E-1	7.618569E-1	7.458167E-1	7.340820E-1	7.201260E-1
2.898030E+2	6.262081E-1	6.191138E-1	6.622012E-1	6.514057E-1	6.271668E-1	6.448558E-1	5.941691E-1	6.125243E-1	5.905739E-1	6.749121E-1	6.062080E-1	5.681853E-1	5.896235E-1	6.755636E-1	6.494906E-1	6.427656E-1	6.537064E-1	6.301104E-1	6.469802E-1	6.393631E-1	6.684056E-1	5.528889E-1	6.361661E-1	6.242489E-1	6.943439E-1	5.454571E-1	5.906177E-1	6.276554E-1	6.205276E-1	6.145541E-1	5.860308E-1	6.200832E-1	6.095965E-1	6.696727E-1	5.817601E-1	6.558472E-1	5.737406E-1	5.448780E-1	5.949720E-1	6.324987E-1	6.080599E-1	6.313944E-1	6.430135E-1	5.999658E-1	5.751463E-1	6.257498E-1	6.338679E-1	6.245505E-1	6.159960E-1	5.910993E-1	6.278268E-1	5.794324E-1	6.140803E-1	6.172399E-1	6.211585E-1	6.411432E-1	6.001281E-1	6.363909E-1	6.088996E-1	6.251556E-1	5.814651E-1	6.462589E-1	6.444729E-1	5.804253E-1	6.247267E-1	6.484920E-1	6.322536E-1	5.890083E-1	6.150513E-1	6.135499E-1	6.831171E-1	6.699735E-1	6.423495E-1	6.073945E-1	5.890595E-1	5.972723E-1	6.091891E-1	6.048414E-1	6.488982E-1	5.873339E-1	6.381364E-1	6.216270E-1	6.250924E-1	6.385078E-1	6.411061E-1	6.485726E-1	6.486765E-1	6.459675E-1	6.083229E-1	6.646569E-1	6.512804E-1	5.914743E-1	6.578092E-1	6.169379E-1	6.001173E-1	6.108664E-1	6.441762E-1	6.412860E-1	6.000408E-1	6.087600E-1	6.732527E-1	6.217640E-1	6.932465E-1	6.370455E-1	6.893624E-1	6.191030E-1	6.208496E-1	6.108535E-1	5.807883E-1	6.383916E-1	6.538654E-1	6.012487E-1	6.037937E-1	6.045303E-1	6.583810E-1	6.885206E-1	6.732429E-1	6.571288E-1	6.255481E-1	6.904495E-1	6.219754E-1	5.856775E-1	5.523495E-1	6.093217E-1	6.215396E-1	6.352240E-1	6.586014E-1	6.397503E-1	6.110318E-1	5.659301E-1	6.268074E-1	5.883575E-1	6.525876E-1	6.661384E-1	5.757711E-1	6.149891E-1	6.390926E-1	6.559951E-1	6.773421E-1	6.329839E-1	6.370271E-1	6.465978E-1	7.133440E-1	6.885027E-1	7.149049E-1	6.572851E-1	6.109574E-1	6.617671E-1	6.124972E-1	6.893187E-1	6.685137E-1	6.597369E-1	6.636180E-1	5.710189E-1	6.070274E-1	6.745414E-1	6.313537E-1	6.320950E-1	6.233622E-1	6.791842E-1	6.532053E-1	7.120894E-1	6.495348E-1	5.885848E-1	6.368750E-1	6.422067E-1	6.186097E-1	6.534985E-1	7.002041E-1	6.590708E-1	6.880498E-1
2.900030E+2	7.734064E-1	7.051064E-1	7.024886E-1	7.185652E-1	7.489436E-1	7.583632E-1	7.340988E-1	7.031967E-1	6.958566E-1	7.457228E-1	6.484838E-1	6.659921E-1	7.514492E-1	7.450212E-1	6.740947E-1	7.356169E-1	7.048727E-1	6.884021E-1	7.179250E-1	7.319796E-1	7.208159E-1	6.938436E-1	6.600835E-1	6.975366E-1	7.236817E-1	7.027682E-1	7.127408E-1	7.174090E-1	7.780941E-1	6.722972E-1	6.757185E-1	7.003788E-1	7.069200E-1	7.016675E-1	6.955469E-1	6.737522E-1	6.761354E-1	7.606449E-1	7.262891E-1	7.438804E-1	7.103524E-1	7.367729E-1	7.283889E-1	7.284564E-1	7.716653E-1	7.770652E-1	7.251249E-1	7.024670E-1	6.845329E-1	6.955332E-1	7.175386E-1	7.274715E-1	6.993130E-1	7.219699E-1	7.307061E-1	7.551497E-1	7.345538E-1	7.284640E-1	7.047091E-1	8.131282E-1	6.742395E-1	7.010734E-1	7.419582E-1	6.735830E-1	7.129759E-1	6.735864E-1	6.703599E-1	7.325166E-1	7.584417E-1	6.747814E-1	7.256682E-1	7.137277E-1	7.313435E-1	7.283899E-1	7.561038E-1	7.020730E-1	7.277638E-1	7.448139E-1	6.834319E-1	7.164831E-1	7.567327E-1	7.471738E-1	7.590139E-1	7.422973E-1	7.520351E-1	7.545966E-1	6.604130E-1	6.663318E-1	6.665171E-1	6.918525E-1	7.246615E-1	7.528403E-1	7.569155E-1	6.885090E-1	7.425093E-1	7.102407E-1	7.432892E-1	7.199286E-1	7.256551E-1	7.499566E-1	7.094043E-1	7.575509E-1	7.169867E-1	6.602040E-1	7.622655E-1	7.336903E-1	6.859606E-1	7.525245E-1	7.405487E-1	7.477356E-1	7.482023E-1	7.008737E-1	7.525161E-1	7.221716E-1	7.331235E-1	7.328087E-1	7.385210E-1	7.310475E-1	7.302757E-1	6.950345E-1	7.345046E-1	6.991187E-1	7.259217E-1	7.282110E-1	7.112490E-1	6.907122E-1	6.971012E-1	7.460301E-1	6.889151E-1	6.989110E-1	7.597680E-1	7.227035E-1	7.352715E-1	7.472556E-1	6.841084E-1	7.272730E-1	7.113358E-1	7.198734E-1	7.778418E-1	7.052102E-1	7.652346E-1	7.324443E-1	7.247226E-1	7.049569E-1	7.844066E-1	6.879623E-1	6.918149E-1	7.213960E-1	7.769160E-1	7.027041E-1	7.899570E-1	7.187145E-1	7.383075E-1	6.815509E-1	6.921111E-1	7.121704E-1	7.170878E-1	7.203699E-1	7.676440E-1	7.374902E-1	7.181683E-1	7.567636E-1	6.860246E-1	7.490502E-1	7.493257E-1	8.222291E-1	7.353349E-1	7.226369E-1	7.795131E-1	8.530323E-1	8.547674E-1
2.905120E+2	8.845586E-1	9.345661E-1	9.549861E-1	9.541907E-1	8.753907E-1	9.070819E-1	9.509789E-1	8.712213E-1	8.477211E-1	9.512017E-1	8.270429E-1	8.617041E-1	9.346500E-1	9.204530E-1	8.720099E-1	8.773674E-1	8.862542E-1	8.876716E-1	9.231784E-1	8.624974E-1	8.909000E-1	8.789907E-1	8.292797E-1	8.563634E-1	8.451931E-1	9.085748E-1	8.673651E-1	8.899308E-1	9.479940E-1	8.522033E-1	8.973637E-1	9.170919E-1	8.761217E-1	8.454278E-1	9.150134E-1	8.930649E-1	9.006189E-1	9.016097E-1	9.091243E-1	8.130150E-1	9.015042E-1	8.994171E-1	8.871939E-1	9.315604E-1	9.092553E-1	8.670974E-1	8.972277E-1	8.344715E-1	8.400691E-1	8.904346E-1	9.183153E-1	9.307654E-1	9.316868E-1	9.481038E-1	9.299701E-1	9.269729E-1	9.322219E-1	9.351111E-1	9.104838E-1	8.544456E-1	8.353723E-1	9.188270E-1	8.770736E-1	8.453554E-1	8.235163E-1	9.336996E-1	8.624893E-1	9.501258E-1	9.219589E-1	9.425979E-1	9.217437E-1	9.473318E-1	9.603865E-1	9.115697E-1	9.129449E-1	8.483157E-1	8.279447E-1	8.686121E-1	9.178922E-1	8.782959E-1	9.026083E-1	9.158145E-1	8.661836E-1	9.039664E-1	9.012051E-1	8.594240E-1	8.750541E-1	8.770443E-1	8.694095E-1	9.624236E-1	8.592927E-1	8.683967E-1	8.355000E-1	8.614430E-1	9.600012E-1	8.852602E-1	9.080253E-1	8.275975E-1	9.338065E-1	8.636838E-1	8.853046E-1	8.643295E-1	8.279262E-1	8.552812E-1	9.270241E-1	9.024866E-1	8.867659E-1	9.686384E-1	8.650662E-1	9.109301E-1	8.651270E-1	8.642159E-1	8.721101E-1	9.129675E-1	8.521626E-1	9.066154E-1	9.153036E-1	9.340279E-1	9.350614E-1	8.797034E-1	8.263734E-1	9.570372E-1	9.367508E-1	9.786157E-1	8.923068E-1	9.056899E-1	8.793947E-1	9.047519E-1	8.355478E-1	7.957921E-1	8.814395E-1	8.363439E-1	8.670069E-1	9.089970E-1	9.456500E-1	9.448484E-1	8.524816E-1	8.756432E-1	8.983104E-1	9.132149E-1	9.259738E-1	8.720726E-1	9.342208E-1	8.691932E-1	8.183879E-1	9.434197E-1	8.432555E-1	9.327062E-1	8.689506E-1	9.213390E-1	9.175080E-1	8.630435E-1	8.998012E-1	8.327863E-1	8.577324E-1	9.294272E-1	8.601778E-1	8.797336E-1	9.617893E-1	9.142272E-1	8.888352E-1	9.061989E-1	8.855567E-1	1.014691E+0	9.461404E-1	8.645461E-1	8.866694E-1	9.768068E-1	9.842035E-1	9.409309E-1	8.214133E-1
2.910040E+2	1.179911E+0	1.254439E+0	1.198444E+0	1.139996E+0	1.149618E+0	1.138409E+0	1.132663E+0	1.126155E+0	1.096483E+0	1.207694E+0	1.148358E+0	1.138556E+0	1.181298E+0	1.087263E+0	1.170819E+0	1.114525E+0	1.187268E+0	1.152495E+0	1.084701E+0	1.160749E+0	1.184562E+0	1.122943E+0	1.171878E+0	1.127048E+0	1.171018E+0	1.185248E+0	1.120016E+0	1.150121E+0	1.108899E+0	1.104601E+0	1.145020E+0	1.187403E+0	1.152349E+0	1.159720E+0	1.195893E+0	1.159196E+0	1.083368E+0	1.108200E+0	1.163728E+0	1.105882E+0	1.131555E+0	1.153883E+0	1.123132E+0	1.139984E+0	1.172300E+0	1.141077E+0	1.110753E+0	1.110564E+0	1.183204E+0	1.176596E+0	1.192378E+0	1.128412E+0	1.123601E+0	1.158966E+0	1.129453E+0	9.966039E-1	1.165633E+0	1.170739E+0	1.130146E+0	1.101805E+0	1.127759E+0	1.152430E+0	1.188895E+0	1.132783E+0	1.132861E+0	1.127020E+0	1.117729E+0	1.108308E+0	1.266310E+0	1.160533E+0	1.100188E+0	1.199624E+0	1.193746E+0	1.153824E+0	1.129664E+0	1.216180E+0	1.187923E+0	1.122315E+0	1.119531E+0	1.091448E+0	1.171019E+0	1.159410E+0	1.251093E+0	1.085248E+0	1.163090E+0	1.113965E+0	1.094514E+0	1.182731E+0	1.154369E+0	1.099165E+0	1.131291E+0	1.118631E+0	1.122744E+0	1.136306E+0	1.149876E+0	1.120114E+0	1.140444E+0	1.051104E+0	1.137528E+0	1.160222E+0	1.142247E+0	1.137329E+0	1.152297E+0	1.079193E+0	1.228966E+0	1.135199E+0	1.183422E+0	1.150121E+0	1.160660E+0	1.171661E+0	1.109032E+0	1.199702E+0	1.171142E+0	1.071558E+0	1.135861E+0	1.143880E+0	1.212722E+0	1.100759E+0	1.266546E+0	1.102750E+0	1.222332E+0	1.109904E+0	1.092608E+0	1.114614E+0	1.143979E+0	1.159626E+0	1.167496E+0	1.114017E+0	1.126354E+0	1.176302E+0	1.195246E+0	1.145148E+0	1.214878E+0	1.215724E+0	1.031670E+0	1.048326E+0	1.061263E+0	1.149383E+0	1.169268E+0	1.183692E+0	1.108946E+0	1.100828E+0	1.251599E+0	1.152392E+0	1.206814E+0	1.079828E+0	1.238073E+0	1.134884E+0	1.167992E+0	1.103295E+0	1.144699E+0	1.133054E+0	1.131406E+0	1.095013E+0	1.137155E+0	1.162878E+0	1.167055E+0	1.181893E+0	1.180693E+0	1.228285E+0	1.117544E+0	1.132263E+0	1.067353E+0	1.240700E+0	1.145480E+0	1.221977E+0	1.195055E+0	1.146428E+0	1.112350E+0	1.211750E+0	1.244871E+0
2.915070E+2	1.289328E+0	1.359995E+0	1.292702E+0	1.290982E+0	1.276686E+0	1.265873E+0	1.252649E+0	1.286612E+0	1.265477E+0	1.343779E+0	1.274355E+0	1.280211E+0	1.267368E+0	1.369418E+0	1.318978E+0	1.250213E+0	1.334626E+0	1.190294E+0	1.237596E+0	1.278087E+0	1.330029E+0	1.373011E+0	1.225311E+0	1.236361E+0	1.228727E+0	1.294861E+0	1.216008E+0	1.254419E+0	1.325002E+0	1.279041E+0	1.270916E+0	1.362807E+0	1.271092E+0	1.265136E+0	1.254494E+0	1.265685E+0	1.232873E+0	1.216814E+0	1.243918E+0	1.239106E+0	1.271412E+0	1.257162E+0	1.280205E+0	1.302040E+0	1.295307E+0	1.271966E+0	1.222099E+0	1.238543E+0	1.273481E+0	1.175906E+0	1.211934E+0	1.276886E+0	1.391907E+0	1.261301E+0	1.347301E+0	1.351816E+0	1.290110E+0	1.200095E+0	1.267367E+0	1.237472E+0	1.299477E+0	1.220906E+0	1.236740E+0	1.290357E+0	1.246148E+0	1.288986E+0	1.205113E+0	1.326809E+0	1.346780E+0	1.295300E+0	1.195522E+0	1.332977E+0	1.321396E+0	1.213871E+0	1.261898E+0	1.302354E+0	1.268060E+0	1.295966E+0	1.284663E+0	1.286225E+0	1.305572E+0	1.169776E+0	1.260300E+0	1.194936E+0	1.284334E+0	1.197143E+0	1.265528E+0	1.240854E+0	1.186985E+0	1.237837E+0	1.258419E+0	1.256457E+0	1.279172E+0	1.245245E+0	1.267952E+0	1.234476E+0	1.225762E+0	1.307004E+0	1.241579E+0	1.273088E+0	1.332780E+0	1.253720E+0	1.217870E+0	1.334097E+0	1.260661E+0	1.209790E+0	1.252871E+0	1.378427E+0	1.188487E+0	1.346575E+0	1.204063E+0	1.289366E+0	1.277697E+0	1.301095E+0	1.306404E+0	1.247171E+0	1.332889E+0	1.300666E+0	1.365689E+0	1.244939E+0	1.233392E+0	1.233536E+0	1.206723E+0	1.315034E+0	1.269852E+0	1.214508E+0	1.282048E+0	1.304306E+0	1.288850E+0	1.299347E+0	1.285539E+0	1.242448E+0	1.212433E+0	1.308971E+0	1.269459E+0	1.191369E+0	1.267251E+0	1.301801E+0	1.292588E+0	1.227695E+0	1.317706E+0	1.306999E+0	1.286350E+0	1.247072E+0	1.289478E+0	1.270685E+0	1.350940E+0	1.270565E+0	1.298449E+0	1.307672E+0	1.360759E+0	1.319295E+0	1.362188E+0	1.201949E+0	1.248072E+0	1.301362E+0	1.220930E+0	1.365157E+0	1.261616E+0	1.290215E+0	1.318067E+0	1.282820E+0	1.290179E+0	1.342676E+0	1.150611E+0	1.356460E+0	1.291028E+0	1.213007E+0	1.370525E+0	1.304447E+0	1.304201E+0
2.920030E+2	1.198904E+0	1.109055E+0	1.150177E+0	1.098773E+0	1.171845E+0	1.143500E+0	1.092114E+0	1.064325E+0	1.035983E+0	1.121115E+0	1.225787E+0	1.181757E+0	1.130774E+0	1.152989E+0	1.141722E+0	1.146804E+0	1.131225E+0	1.149826E+0	1.099524E+0	1.021376E+0	1.158555E+0	1.124740E+0	1.098481E+0	1.152936E+0	1.069100E+0	1.033553E+0	1.067627E+0	1.072894E+0	1.137299E+0	1.092085E+0	1.134981E+0	1.162468E+0	1.124194E+0	1.040170E+0	1.105092E+0	1.115085E+0	1.048761E+0	1.048190E+0	1.110193E+0	1.028025E+0	1.104913E+0	1.069901E+0	1.144946E+0	1.167033E+0	1.107572E+0	1.191840E+0	1.046139E+0	1.100621E+0	1.153713E+0	1.127078E+0	1.140305E+0	1.151167E+0	1.239358E+0	1.115792E+0	1.127054E+0	1.123738E+0	1.108768E+0	1.082358E+0	1.078181E+0	1.215420E+0	1.066423E+0	1.072112E+0	1.157466E+0	1.093925E+0	1.126176E+0	1.221573E+0	1.151313E+0	1.132215E+0	1.108158E+0	1.085940E+0	1.140898E+0	1.151113E+0	1.128045E+0	1.081928E+0	1.139377E+0	1.104592E+0	1.136355E+0	1.075007E+0	1.152816E+0	1.148894E+0	1.107221E+0	1.033911E+0	1.119137E+0	1.100466E+0	1.112553E+0	1.076691E+0	1.071863E+0	1.049063E+0	1.103859E+0	1.132302E+0	1.115143E+0	1.227920E+0	1.124624E+0	1.106710E+0	1.155654E+0	1.123448E+0	1.165550E+0	1.103088E+0	1.028151E+0	1.169193E+0	1.177180E+0	1.072258E+0	1.144292E+0	1.198939E+0	1.105475E+0	1.158531E+0	1.127505E+0	1.113027E+0	1.149968E+0	1.211401E+0	1.162021E+0	1.117371E+0	1.154295E+0	1.114715E+0	1.115145E+0	1.051576E+0	1.162358E+0	1.135214E+0	1.145914E+0	1.149298E+0	1.152094E+0	1.130511E+0	1.091033E+0	1.098575E+0	1.106361E+0	1.093553E+0	1.199943E+0	1.189666E+0	1.146884E+0	1.226945E+0	1.091597E+0	1.030195E+0	1.194489E+0	1.255333E+0	1.089742E+0	1.107879E+0	1.150028E+0	1.143327E+0	1.133464E+0	1.171009E+0	1.188256E+0	1.135506E+0	1.216559E+0	1.179866E+0	1.135541E+0	1.097999E+0	1.223922E+0	1.159571E+0	1.171593E+0	1.103114E+0	1.090605E+0	1.159568E+0	1.177518E+0	1.088844E+0	1.076226E+0	1.096606E+0	1.116035E+0	1.188689E+0	1.188335E+0	1.247157E+0	1.144117E+0	1.125654E+0	1.127926E+0	1.141339E+0	1.195951E+0	1.179861E+0	1.040156E+0	1.139079E+0	1.210883E+0	1.132047E+0	1.201161E+0
2.925160E+2	9.223585E-1	9.406034E-1	9.650925E-1	9.779706E-1	9.576127E-1	9.000416E-1	8.834089E-1	9.347374E-1	9.380394E-1	9.965879E-1	8.841694E-1	8.604050E-1	9.461077E-1	9.452070E-1	8.781122E-1	9.773151E-1	9.409326E-1	9.413316E-1	1.057974E+0	9.085469E-1	1.016792E+0	8.777743E-1	9.621400E-1	9.742057E-1	9.438939E-1	8.854746E-1	8.938337E-1	9.620428E-1	9.110723E-1	8.825055E-1	9.345838E-1	9.659340E-1	9.408790E-1	9.421775E-1	8.788748E-1	1.005853E+0	8.769176E-1	8.539354E-1	9.475435E-1	9.073941E-1	9.603724E-1	8.639308E-1	9.195731E-1	9.437988E-1	9.284120E-1	9.322190E-1	8.827603E-1	9.176697E-1	9.264775E-1	9.350488E-1	9.338282E-1	8.486071E-1	1.013198E+0	9.691013E-1	9.366692E-1	9.114702E-1	8.863075E-1	9.551453E-1	9.076772E-1	9.429852E-1	8.268383E-1	9.189060E-1	9.271915E-1	9.706027E-1	9.176092E-1	9.606716E-1	1.051921E+0	9.018857E-1	9.370284E-1	9.559433E-1	9.579587E-1	8.954239E-1	9.613576E-1	9.237245E-1	9.412583E-1	9.052885E-1	9.434900E-1	9.272602E-1	9.094139E-1	9.311160E-1	9.289383E-1	9.509883E-1	8.901093E-1	9.469134E-1	9.015631E-1	8.800119E-1	9.239812E-1	9.066544E-1	9.517587E-1	9.630956E-1	9.421610E-1	1.016713E+0	9.537919E-1	9.290634E-1	9.608375E-1	9.452296E-1	9.535562E-1	8.929315E-1	9.517589E-1	9.145009E-1	9.149865E-1	8.797409E-1	9.268735E-1	9.255880E-1	9.732863E-1	8.956924E-1	9.293919E-1	9.493739E-1	1.001194E+0	9.677109E-1	9.860848E-1	9.851127E-1	1.002454E+0	9.549631E-1	9.377393E-1	9.458030E-1	9.589457E-1	8.483068E-1	1.008440E+0	8.994119E-1	9.286422E-1	9.669021E-1	9.425820E-1	9.297652E-1	9.938863E-1	9.352248E-1	9.629107E-1	9.008252E-1	9.039627E-1	9.393113E-1	9.584002E-1	8.443224E-1	9.495200E-1	9.899796E-1	8.908606E-1	9.050590E-1	9.727966E-1	9.316054E-1	8.812055E-1	9.163604E-1	8.879405E-1	1.004248E+0	9.648312E-1	9.469109E-1	9.783981E-1	9.813357E-1	1.033276E+0	8.674599E-1	9.260205E-1	9.263662E-1	9.345047E-1	8.983274E-1	9.821804E-1	9.504843E-1	9.831919E-1	9.626381E-1	9.348110E-1	8.756080E-1	9.461039E-1	9.540256E-1	9.632810E-1	9.616964E-1	9.658304E-1	9.261793E-1	9.818378E-1	1.016574E+0	8.517274E-1	9.482034E-1	1.022856E+0	7.938322E-1	9.660700E-1
2.930070E+2	9.219139E-1	9.819296E-1	8.996125E-1	9.076080E-1	8.701586E-1	9.136470E-1	8.819125E-1	8.857207E-1	9.284212E-1	9.338565E-1	9.199405E-1	8.405421E-1	8.855627E-1	9.252425E-1	9.767105E-1	8.699355E-1	8.900394E-1	8.979943E-1	9.127146E-1	9.250461E-1	9.808000E-1	9.087801E-1	8.945901E-1	9.291966E-1	9.258600E-1	9.546597E-1	9.489556E-1	9.296679E-1	9.587407E-1	8.665982E-1	9.289692E-1	1.000517E+0	9.122805E-1	9.007140E-1	8.645749E-1	9.530343E-1	9.170173E-1	9.301712E-1	8.556545E-1	9.244011E-1	8.803220E-1	9.241966E-1	9.028715E-1	9.906066E-1	9.580101E-1	8.990738E-1	8.847515E-1	8.811487E-1	9.257564E-1	9.593635E-1	8.807506E-1	9.090442E-1	9.349368E-1	9.750882E-1	8.945929E-1	9.281400E-1	8.933999E-1	8.507423E-1	9.252717E-1	9.251715E-1	9.048509E-1	8.824173E-1	9.805530E-1	9.531796E-1	9.929020E-1	9.448144E-1	8.942336E-1	8.777162E-1	9.190847E-1	9.100583E-1	9.839654E-1	9.375822E-1	9.984591E-1	9.194791E-1	9.400938E-1	8.971868E-1	8.676631E-1	8.934785E-1	8.815585E-1	8.909867E-1	9.150554E-1	8.268312E-1	9.590825E-1	9.676923E-1	9.010073E-1	8.778825E-1	8.751817E-1	9.485379E-1	8.999279E-1	9.106414E-1	9.201038E-1	8.689750E-1	9.557364E-1	9.245769E-1	9.305461E-1	9.351519E-1	9.310972E-1	9.325810E-1	9.034515E-1	9.269034E-1	9.063249E-1	8.901830E-1	8.353277E-1	9.436170E-1	9.564730E-1	9.004529E-1	8.349124E-1	9.747489E-1	8.082646E-1	8.998123E-1	9.178168E-1	9.523999E-1	8.783900E-1	8.767197E-1	9.803081E-1	9.127576E-1	8.887253E-1	9.949058E-1	1.003788E+0	8.930245E-1	9.671162E-1	9.951615E-1	8.917014E-1	9.429231E-1	9.468293E-1	9.453042E-1	9.993620E-1	8.927477E-1	9.465817E-1	8.805236E-1	9.762320E-1	8.491502E-1	9.137446E-1	9.129001E-1	9.138254E-1	9.320653E-1	9.477094E-1	9.403933E-1	9.208724E-1	8.954929E-1	9.017633E-1	8.821910E-1	9.253190E-1	9.099060E-1	9.117204E-1	9.437821E-1	9.718861E-1	9.754544E-1	9.551103E-1	9.409331E-1	8.837412E-1	8.492116E-1	9.115506E-1	8.520972E-1	9.512686E-1	9.119735E-1	9.394939E-1	9.580287E-1	8.656356E-1	9.467982E-1	9.909655E-1	9.049701E-1	8.932194E-1	1.101107E+0	9.542540E-1	1.084910E+0	9.348574E-1	9.716472E-1	9.536911E-1	1.048791E+0	1.089895E+0
2.935040E+2	9.339434E-1	1.010242E+0	8.644869E-1	8.848153E-1	9.269274E-1	9.405767E-1	8.898550E-1	1.029621E+0	9.613166E-1	9.570628E-1	9.846629E-1	9.523902E-1	9.198316E-1	8.997264E-1	1.021306E+0	9.198486E-1	9.332088E-1	9.726274E-1	8.875131E-1	9.883328E-1	1.003039E+0	9.389132E-1	9.803143E-1	9.853821E-1	1.020206E+0	9.503109E-1	8.898539E-1	9.658380E-1	9.858108E-1	9.571583E-1	9.074192E-1	9.792009E-1	9.775494E-1	1.016345E+0	9.692728E-1	8.861497E-1	9.258954E-1	9.735555E-1	9.416020E-1	9.054177E-1	9.658725E-1	9.175283E-1	9.993508E-1	9.408434E-1	1.030937E+0	9.336235E-1	9.002144E-1	9.377346E-1	9.942036E-1	9.816519E-1	9.724467E-1	9.752558E-1	9.576703E-1	9.097790E-1	1.007229E+0	9.907855E-1	9.078204E-1	9.997468E-1	9.688816E-1	9.232216E-1	9.106815E-1	9.878911E-1	9.683301E-1	9.680940E-1	8.792110E-1	9.041070E-1	9.467038E-1	9.641198E-1	9.556951E-1	9.558319E-1	9.436863E-1	9.559785E-1	9.963920E-1	9.652123E-1	9.738178E-1	9.677263E-1	9.499413E-1	9.318572E-1	9.368898E-1	9.980455E-1	9.241126E-1	9.638035E-1	8.903690E-1	9.234089E-1	9.674199E-1	9.265915E-1	8.986374E-1	9.158896E-1	9.515101E-1	9.532277E-1	9.410221E-1	9.813192E-1	9.233772E-1	9.373457E-1	9.239360E-1	9.170507E-1	9.858388E-1	9.572860E-1	9.520442E-1	9.413163E-1	1.001977E+0	9.097391E-1	9.795450E-1	9.211926E-1	8.501198E-1	9.350391E-1	9.317036E-1	9.605288E-1	9.447788E-1	8.825447E-1	9.171995E-1	9.780455E-1	1.025344E+0	9.960878E-1	9.637869E-1	9.709083E-1	9.398223E-1	1.007571E+0	1.007919E+0	9.753552E-1	9.977607E-1	8.974043E-1	9.866329E-1	8.760524E-1	9.552772E-1	9.992586E-1	9.996413E-1	9.579261E-1	9.401808E-1	9.800141E-1	9.669669E-1	9.782445E-1	1.007932E+0	9.617794E-1	9.129481E-1	9.686202E-1	9.447742E-1	9.650764E-1	9.823489E-1	9.334495E-1	9.666000E-1	9.300660E-1	1.018470E+0	1.019897E+0	9.580340E-1	9.509274E-1	9.001886E-1	9.212443E-1	1.002941E+0	9.386566E-1	9.442819E-1	9.686564E-1	9.993268E-1	9.943288E-1	9.473649E-1	8.659818E-1	9.754740E-1	9.913671E-1	9.862064E-1	1.022843E+0	9.848050E-1	1.007856E+0	9.690924E-1	1.023124E+0	9.459946E-1	9.601014E-1	8.888046E-1	9.656462E-1	1.053396E+0	9.541978E-1	9.864184E-1
2.940070E+2	8.855278E-1	9.745367E-1	9.195733E-1	8.838704E-1	9.170529E-1	8.786476E-1	9.095577E-1	8.587722E-1	8.542317E-1	8.819477E-1	8.606929E-1	8.626434E-1	9.273444E-1	8.383743E-1	9.018841E-1	9.102636E-1	9.099326E-1	9.283971E-1	9.057501E-1	9.428673E-1	9.682005E-1	8.328376E-1	8.814661E-1	9.369279E-1	9.562404E-1	8.723926E-1	8.597250E-1	8.584018E-1	8.931460E-1	9.553340E-1	9.300141E-1	9.271920E-1	8.630974E-1	9.481252E-1	9.307314E-1	8.859518E-1	8.912463E-1	8.377344E-1	9.108486E-1	8.629619E-1	8.713737E-1	8.457841E-1	9.387904E-1	9.246297E-1	9.447985E-1	8.961434E-1	8.820211E-1	8.298617E-1	8.163969E-1	9.369831E-1	8.842457E-1	9.217325E-1	9.390378E-1	8.965340E-1	8.494409E-1	9.066051E-1	9.037184E-1	8.483354E-1	8.748310E-1	9.431056E-1	8.726963E-1	9.274690E-1	9.386995E-1	8.837950E-1	9.429558E-1	9.045713E-1	9.044902E-1	9.085469E-1	8.630683E-1	9.140766E-1	9.161940E-1	8.946037E-1	9.450197E-1	9.405720E-1	9.088407E-1	9.172200E-1	8.776401E-1	9.445228E-1	8.801117E-1	8.386355E-1	9.206856E-1	8.725498E-1	8.992015E-1	8.365503E-1	9.260195E-1	8.472471E-1	9.439702E-1	8.743589E-1	8.794886E-1	8.690930E-1	9.030792E-1	8.900180E-1	9.071627E-1	8.871523E-1	8.990931E-1	8.791920E-1	9.042795E-1	8.997379E-1	8.999929E-1	8.933876E-1	9.520467E-1	9.208128E-1	9.013446E-1	9.194307E-1	9.108062E-1	8.086967E-1	8.369454E-1	9.261144E-1	9.139794E-1	9.106997E-1	8.958411E-1	9.837981E-1	8.685966E-1	9.542663E-1	9.420106E-1	9.466766E-1	8.667120E-1	8.818458E-1	1.007761E+0	9.376660E-1	9.352184E-1	9.328079E-1	9.223252E-1	8.617218E-1	8.458056E-1	9.169094E-1	9.196612E-1	9.552783E-1	8.870367E-1	8.628124E-1	9.826119E-1	8.752763E-1	9.449893E-1	8.864410E-1	8.963729E-1	8.640503E-1	1.007743E+0	8.404284E-1	9.290576E-1	9.319318E-1	9.294260E-1	9.214824E-1	9.333121E-1	8.935399E-1	8.790543E-1	8.941676E-1	9.032908E-1	9.129765E-1	9.530582E-1	9.493313E-1	8.962899E-1	8.274825E-1	9.365211E-1	8.388561E-1	9.235753E-1	8.460611E-1	8.687082E-1	8.963354E-1	9.252549E-1	9.797764E-1	9.643657E-1	8.803117E-1	8.835316E-1	9.210764E-1	9.086399E-1	8.960348E-1	8.676852E-1	8.738814E-1	8.806208E-1	9.082573E-1	9.719898E-1
2.945040E+2	8.373518E-1	1.022018E+0	9.549685E-1	8.683562E-1	8.570574E-1	9.141086E-1	8.264567E-1	9.650287E-1	9.558096E-1	9.772976E-1	8.993883E-1	8.867691E-1	8.605959E-1	9.322019E-1	9.126964E-1	9.606589E-1	9.059683E-1	8.797377E-1	8.907956E-1	8.620262E-1	9.350683E-1	9.343004E-1	8.942644E-1	9.050391E-1	9.523017E-1	8.602843E-1	8.232876E-1	8.761141E-1	9.201681E-1	8.678409E-1	8.728970E-1	9.023166E-1	8.036140E-1	8.051670E-1	9.815935E-1	9.111235E-1	8.728509E-1	8.823693E-1	8.822114E-1	8.587679E-1	9.098053E-1	8.769065E-1	9.132130E-1	9.614473E-1	8.971620E-1	9.244304E-1	8.580103E-1	8.508127E-1	9.745070E-1	9.051008E-1	8.961614E-1	9.141656E-1	9.278080E-1	9.163619E-1	9.334643E-1	9.282887E-1	9.806606E-1	9.138165E-1	9.115190E-1	8.868903E-1	8.605547E-1	1.020646E+0	9.131011E-1	8.588378E-1	9.564283E-1	9.436053E-1	9.122990E-1	9.158203E-1	9.361499E-1	8.367817E-1	8.681876E-1	9.208631E-1	9.738521E-1	8.413323E-1	8.940004E-1	8.794345E-1	8.784834E-1	8.485274E-1	9.221668E-1	8.935408E-1	9.462810E-1	8.997872E-1	9.622401E-1	8.334977E-1	8.786222E-1	9.234513E-1	9.055820E-1	8.493172E-1	8.815315E-1	9.239182E-1	9.779557E-1	8.733173E-1	9.046696E-1	9.159363E-1	9.094952E-1	8.670384E-1	9.987181E-1	9.008973E-1	9.029690E-1	9.191692E-1	9.373608E-1	8.665767E-1	9.362062E-1	8.424674E-1	9.339965E-1	8.538928E-1	8.263930E-1	9.289092E-1	9.179101E-1	9.103881E-1	9.047678E-1	9.846943E-1	9.269707E-1	8.965588E-1	9.294743E-1	8.818010E-1	8.930025E-1	8.440785E-1	9.504039E-1	8.819300E-1	9.160751E-1	9.214196E-1	9.003169E-1	9.187363E-1	9.435924E-1	9.784064E-1	9.285518E-1	9.177308E-1	9.103063E-1	8.672621E-1	9.077263E-1	8.176525E-1	8.667764E-1	8.916775E-1	9.151475E-1	9.325034E-1	9.176847E-1	9.038968E-1	9.500986E-1	8.319425E-1	9.069926E-1	9.209794E-1	8.817592E-1	9.515576E-1	8.953350E-1	9.074296E-1	8.934568E-1	8.769567E-1	9.153944E-1	8.970425E-1	9.009761E-1	9.237660E-1	8.956374E-1	8.508476E-1	9.417710E-1	8.924162E-1	8.903687E-1	9.107389E-1	8.712369E-1	9.168966E-1	9.383452E-1	9.146435E-1	9.349968E-1	9.272153E-1	9.129151E-1	9.074510E-1	8.759035E-1	9.864003E-1	9.335127E-1	8.696403E-1	9.909337E-1
2.950120E+2	1.220535E+0	1.172525E+0	1.178076E+0	1.124065E+0	1.176969E+0	1.181168E+0	1.136384E+0	1.143647E+0	1.112417E+0	1.136347E+0	1.147528E+0	1.163263E+0	1.194216E+0	1.092579E+0	1.171746E+0	1.130424E+0	1.124271E+0	1.169791E+0	1.186657E+0	1.134022E+0	1.197357E+0	1.105571E+0	1.166884E+0	1.173593E+0	1.215577E+0	1.115245E+0	1.185844E+0	1.198901E+0	1.130752E+0	1.141183E+0	1.215292E+0	1.164838E+0	1.091591E+0	1.140121E+0	1.133064E+0	1.159453E+0	1.140915E+0	1.075960E+0	1.155039E+0	1.116877E+0	1.187235E+0	1.145689E+0	1.186223E+0	1.135129E+0	1.137167E+0	1.144483E+0	1.115109E+0	1.165339E+0	1.124009E+0	1.122044E+0	1.165955E+0	1.190269E+0	1.200584E+0	1.216800E+0	1.195851E+0	1.123550E+0	1.193145E+0	1.100545E+0	1.086146E+0	1.137489E+0	1.072746E+0	1.119970E+0	1.132691E+0	1.120818E+0	1.164192E+0	1.157574E+0	1.119400E+0	1.149803E+0	1.253208E+0	1.192376E+0	1.086988E+0	1.162565E+0	1.210375E+0	1.194628E+0	1.199595E+0	1.125917E+0	1.143811E+0	1.153816E+0	1.123769E+0	1.212680E+0	1.135698E+0	1.172623E+0	1.154719E+0	1.184224E+0	1.164287E+0	1.165503E+0	1.199866E+0	1.106410E+0	1.110073E+0	1.148510E+0	1.198734E+0	1.146443E+0	1.211082E+0	1.104902E+0	1.208873E+0	1.125098E+0	1.239365E+0	1.173250E+0	1.166498E+0	1.163965E+0	1.058761E+0	1.111443E+0	1.147574E+0	1.115721E+0	1.246830E+0	1.170807E+0	1.125566E+0	1.127062E+0	1.166780E+0	1.122185E+0	1.122831E+0	1.155923E+0	1.206952E+0	1.137506E+0	1.204818E+0	1.140153E+0	1.135066E+0	1.103022E+0	1.165067E+0	1.126964E+0	1.047738E+0	1.205384E+0	1.135530E+0	1.122320E+0	1.145077E+0	1.137465E+0	1.153457E+0	1.099950E+0	1.249508E+0	1.185768E+0	1.146200E+0	1.102587E+0	1.133981E+0	1.209847E+0	1.056428E+0	1.157303E+0	1.107214E+0	1.146842E+0	1.141496E+0	1.140115E+0	1.128759E+0	1.135776E+0	1.230883E+0	1.180132E+0	1.227814E+0	1.155690E+0	1.230551E+0	1.147374E+0	1.176958E+0	1.093686E+0	1.171728E+0	1.214165E+0	1.155090E+0	1.108913E+0	1.187441E+0	1.119532E+0	1.205130E+0	1.151962E+0	1.174778E+0	1.198618E+0	1.217336E+0	1.212130E+0	1.196642E+0	1.145576E+0	1.193291E+0	1.262109E+0	1.148745E+0	1.105636E+0	1.275561E+0	1.183231E+0	1.123014E+0
2.955070E+2	1.317188E+0	1.384738E+0	1.384582E+0	1.331625E+0	1.319935E+0	1.333381E+0	1.294929E+0	1.273403E+0	1.299320E+0	1.209498E+0	1.314812E+0	1.331379E+0	1.304430E+0	1.358727E+0	1.281204E+0	1.309241E+0	1.341659E+0	1.323936E+0	1.307852E+0	1.285201E+0	1.323602E+0	1.278253E+0	1.270586E+0	1.310998E+0	1.371149E+0	1.327271E+0	1.241373E+0	1.315500E+0	1.261488E+0	1.276110E+0	1.380280E+0	1.293704E+0	1.255130E+0	1.408818E+0	1.262679E+0	1.301714E+0	1.271639E+0	1.234556E+0	1.319245E+0	1.283408E+0	1.315468E+0	1.310168E+0	1.348428E+0	1.316132E+0	1.262006E+0	1.317533E+0	1.337052E+0	1.283242E+0	1.277157E+0	1.299499E+0	1.298059E+0	1.376395E+0	1.400175E+0	1.325064E+0	1.324336E+0	1.281836E+0	1.304298E+0	1.306842E+0	1.371467E+0	1.226599E+0	1.248808E+0	1.367553E+0	1.396475E+0	1.321922E+0	1.260576E+0	1.374346E+0	1.301992E+0	1.279021E+0	1.340334E+0	1.316299E+0	1.369538E+0	1.298399E+0	1.289246E+0	1.305003E+0	1.340005E+0	1.321664E+0	1.305951E+0	1.366658E+0	1.294061E+0	1.308141E+0	1.274657E+0	1.286163E+0	1.349441E+0	1.384747E+0	1.335140E+0	1.356384E+0	1.334576E+0	1.346834E+0	1.275966E+0	1.389412E+0	1.274801E+0	1.351312E+0	1.345268E+0	1.269651E+0	1.276472E+0	1.269595E+0	1.323222E+0	1.360667E+0	1.307540E+0	1.267115E+0	1.340496E+0	1.254320E+0	1.267769E+0	1.294845E+0	1.446263E+0	1.303604E+0	1.284739E+0	1.300067E+0	1.328667E+0	1.260637E+0	1.324209E+0	1.312757E+0	1.379532E+0	1.313583E+0	1.358519E+0	1.320603E+0	1.335645E+0	1.281996E+0	1.439050E+0	1.281885E+0	1.332507E+0	1.334207E+0	1.311793E+0	1.393114E+0	1.342780E+0	1.320966E+0	1.314276E+0	1.271998E+0	1.356060E+0	1.299051E+0	1.271989E+0	1.318993E+0	1.282354E+0	1.339336E+0	1.320518E+0	1.268770E+0	1.350671E+0	1.294227E+0	1.250968E+0	1.254611E+0	1.345005E+0	1.342250E+0	1.337399E+0	1.310122E+0	1.247414E+0	1.369700E+0	1.347452E+0	1.289738E+0	1.342582E+0	1.289048E+0	1.282783E+0	1.314179E+0	1.434401E+0	1.236941E+0	1.300177E+0	1.280940E+0	1.267836E+0	1.276701E+0	1.393413E+0	1.312806E+0	1.337358E+0	1.386733E+0	1.344380E+0	1.248534E+0	1.388378E+0	1.404059E+0	1.285523E+0	1.305529E+0	1.334000E+0	1.255878E+0	1.471148E+0
2.960060E+2	1.293139E+0	1.412835E+0	1.359421E+0	1.429027E+0	1.320778E+0	1.276960E+0	1.344047E+0	1.345316E+0	1.379569E+0	1.325416E+0	1.331838E+0	1.241476E+0	1.272207E+0	1.411058E+0	1.278251E+0	1.377509E+0	1.397609E+0	1.324230E+0	1.340786E+0	1.340513E+0	1.349214E+0	1.288282E+0	1.306001E+0	1.349536E+0	1.384031E+0	1.363518E+0	1.280626E+0	1.331096E+0	1.381560E+0	1.236451E+0	1.281521E+0	1.296702E+0	1.201609E+0	1.347823E+0	1.298587E+0	1.323593E+0	1.333189E+0	1.397015E+0	1.253722E+0	1.296515E+0	1.314516E+0	1.282036E+0	1.362585E+0	1.341134E+0	1.347558E+0	1.366225E+0	1.365545E+0	1.313296E+0	1.322685E+0	1.385945E+0	1.242241E+0	1.389553E+0	1.369579E+0	1.301110E+0	1.333141E+0	1.372379E+0	1.344618E+0	1.370331E+0	1.325583E+0	1.367534E+0	1.237834E+0	1.335086E+0	1.398880E+0	1.305098E+0	1.394743E+0	1.339965E+0	1.304622E+0	1.284086E+0	1.277754E+0	1.404053E+0	1.263993E+0	1.343847E+0	1.353947E+0	1.373983E+0	1.357980E+0	1.356165E+0	1.315357E+0	1.299987E+0	1.371799E+0	1.288307E+0	1.374736E+0	1.243734E+0	1.296338E+0	1.412625E+0	1.300185E+0	1.250461E+0	1.355793E+0	1.271420E+0	1.292188E+0	1.339087E+0	1.392131E+0	1.280085E+0	1.313846E+0	1.273832E+0	1.310981E+0	1.293384E+0	1.330691E+0	1.347493E+0	1.328225E+0	1.367737E+0	1.388437E+0	1.326708E+0	1.292438E+0	1.294763E+0	1.322709E+0	1.393133E+0	1.388935E+0	1.425061E+0	1.322722E+0	1.299679E+0	1.314611E+0	1.344848E+0	1.376984E+0	1.300259E+0	1.436343E+0	1.316997E+0	1.354544E+0	1.372248E+0	1.456293E+0	1.384095E+0	1.323635E+0	1.236188E+0	1.366594E+0	1.249619E+0	1.319067E+0	1.313888E+0	1.293485E+0	1.323061E+0	1.360976E+0	1.398056E+0	1.415037E+0	1.288939E+0	1.301228E+0	1.381438E+0	1.342888E+0	1.336376E+0	1.347636E+0	1.362309E+0	1.378329E+0	1.288773E+0	1.417952E+0	1.389084E+0	1.404358E+0	1.322761E+0	1.371894E+0	1.295990E+0	1.367630E+0	1.383124E+0	1.353865E+0	1.400860E+0	1.411426E+0	1.296049E+0	1.363960E+0	1.323634E+0	1.357303E+0	1.333933E+0	1.364287E+0	1.303166E+0	1.378878E+0	1.411373E+0	1.337425E+0	1.347597E+0	1.321035E+0	1.295558E+0	1.319785E+0	1.414134E+0	1.294304E+0	1.428290E+0	1.363603E+0	1.365476E+0	1.390131E+0
2.965040E+2	1.221564E+0	1.240300E+0	1.224472E+0	1.252530E+0	1.185402E+0	1.238025E+0	1.215204E+0	1.236524E+0	1.298524E+0	1.240070E+0	1.192173E+0	1.190500E+0	1.202267E+0	1.240423E+0	1.206035E+0	1.227545E+0	1.302144E+0	1.236621E+0	1.214983E+0	1.187826E+0	1.259419E+0	1.185835E+0	1.193508E+0	1.248720E+0	1.242896E+0	1.281921E+0	1.207809E+0	1.262438E+0	1.252886E+0	1.213968E+0	1.200920E+0	1.265903E+0	1.127171E+0	1.214507E+0	1.158166E+0	1.194416E+0	1.166561E+0	1.242563E+0	1.128675E+0	1.196382E+0	1.203752E+0	1.171374E+0	1.168378E+0	1.268125E+0	1.227763E+0	1.242859E+0	1.168997E+0	1.213132E+0	1.248734E+0	1.207914E+0	1.242547E+0	1.217238E+0	1.351114E+0	1.224930E+0	1.212512E+0	1.256095E+0	1.181551E+0	1.236341E+0	1.241424E+0	1.168593E+0	1.166596E+0	1.210830E+0	1.232404E+0	1.251555E+0	1.200262E+0	1.189473E+0	1.178613E+0	1.166937E+0	1.247885E+0	1.217035E+0	1.221405E+0	1.240104E+0	1.210410E+0	1.186635E+0	1.198784E+0	1.199075E+0	1.210456E+0	1.201782E+0	1.214665E+0	1.178014E+0	1.221147E+0	1.183514E+0	1.210948E+0	1.147221E+0	1.238414E+0	1.234151E+0	1.219139E+0	1.143918E+0	1.201906E+0	1.221650E+0	1.211502E+0	1.197420E+0	1.138563E+0	1.226892E+0	1.229779E+0	1.205782E+0	1.249424E+0	1.264744E+0	1.192963E+0	1.169480E+0	1.223121E+0	1.247867E+0	1.195221E+0	1.170778E+0	1.317800E+0	1.251205E+0	1.183001E+0	1.252501E+0	1.204933E+0	1.233342E+0	1.175448E+0	1.185315E+0	1.229637E+0	1.205056E+0	1.271532E+0	1.288262E+0	1.267205E+0	1.159029E+0	1.244630E+0	1.247510E+0	1.192196E+0	1.191933E+0	1.204745E+0	1.216802E+0	1.215853E+0	1.217811E+0	1.242343E+0	1.220097E+0	1.220186E+0	1.224342E+0	1.177979E+0	1.178641E+0	1.250290E+0	1.157680E+0	1.191731E+0	1.163496E+0	1.189615E+0	1.269293E+0	1.186364E+0	1.267901E+0	1.188286E+0	1.257399E+0	1.224375E+0	1.200482E+0	1.265370E+0	1.238683E+0	1.242664E+0	1.233890E+0	1.210342E+0	1.212685E+0	1.191784E+0	1.214903E+0	1.310669E+0	1.214050E+0	1.161779E+0	1.195089E+0	1.179956E+0	1.200423E+0	1.151989E+0	1.202040E+0	1.306905E+0	1.169080E+0	1.252583E+0	1.172835E+0	1.225184E+0	1.291968E+0	1.223257E+0	1.216897E+0	1.297685E+0	1.343322E+0	1.308798E+0
2.970040E+2	9.422981E-1	9.841444E-1	9.722082E-1	9.825786E-1	8.996740E-1	9.669767E-1	1.015346E+0	9.778937E-1	1.005223E+0	1.075163E+0	9.928549E-1	8.953683E-1	9.747856E-1	9.621609E-1	1.014790E+0	9.532630E-1	9.925746E-1	9.990632E-1	9.622109E-1	9.433369E-1	9.475239E-1	9.736025E-1	9.068684E-1	9.472306E-1	9.567386E-1	9.239246E-1	9.056385E-1	8.723424E-1	9.690726E-1	9.352992E-1	9.736602E-1	9.944138E-1	9.765939E-1	9.811809E-1	9.671827E-1	9.148058E-1	9.169988E-1	9.356075E-1	9.554478E-1	9.707098E-1	9.020369E-1	9.303937E-1	9.312268E-1	9.718400E-1	9.889639E-1	9.497642E-1	9.548207E-1	9.682354E-1	9.493291E-1	9.670264E-1	1.014360E+0	1.009035E+0	9.986253E-1	9.752971E-1	9.663270E-1	9.562680E-1	9.020126E-1	9.085871E-1	9.928990E-1	9.351554E-1	8.794445E-1	9.061330E-1	9.691127E-1	9.214576E-1	9.711283E-1	9.512688E-1	9.465575E-1	9.646803E-1	9.917596E-1	1.026713E+0	1.000085E+0	9.579823E-1	1.066988E+0	9.918642E-1	9.747674E-1	9.409648E-1	9.850481E-1	9.616511E-1	9.922318E-1	9.728681E-1	9.222720E-1	9.610890E-1	9.671019E-1	9.873040E-1	9.996743E-1	1.013065E+0	9.605095E-1	9.415488E-1	9.377915E-1	9.713084E-1	1.040789E+0	9.018199E-1	9.675357E-1	9.207984E-1	9.092270E-1	1.015188E+0	9.713794E-1	9.561333E-1	9.499348E-1	9.831718E-1	9.680300E-1	9.695811E-1	9.685204E-1	9.494467E-1	9.804705E-1	9.004126E-1	9.383284E-1	9.701874E-1	9.781162E-1	1.032303E+0	9.616653E-1	1.002647E+0	9.557631E-1	9.508559E-1	9.930741E-1	9.337571E-1	9.610499E-1	9.625593E-1	1.009063E+0	9.427885E-1	1.031834E+0	1.004961E+0	9.286320E-1	9.985493E-1	1.003973E+0	9.012969E-1	9.789691E-1	9.632257E-1	9.137577E-1	9.797371E-1	9.930706E-1	9.438892E-1	9.435210E-1	9.816854E-1	9.509043E-1	9.232940E-1	1.005976E+0	9.523774E-1	9.449126E-1	9.154764E-1	9.078920E-1	9.894347E-1	9.606839E-1	9.472423E-1	9.311995E-1	9.456806E-1	9.963359E-1	9.445745E-1	9.144841E-1	9.858465E-1	9.297197E-1	9.234141E-1	9.789602E-1	9.337072E-1	9.694866E-1	9.685553E-1	9.771616E-1	1.023716E+0	9.824978E-1	9.577123E-1	9.868202E-1	9.765287E-1	9.383677E-1	9.712771E-1	9.349623E-1	9.532579E-1	9.672711E-1	1.046482E+0	1.080792E+0	9.156298E-1	1.028747E+0
2.975040E+2	8.714683E-1	8.469831E-1	9.077541E-1	8.951424E-1	8.647494E-1	8.640802E-1	9.209760E-1	8.735124E-1	8.406248E-1	8.045849E-1	9.293427E-1	9.001722E-1	8.778143E-1	8.738813E-1	8.774354E-1	8.393637E-1	8.999622E-1	8.749496E-1	8.505772E-1	8.606799E-1	9.165176E-1	8.747292E-1	8.673770E-1	8.424996E-1	8.698121E-1	8.684839E-1	8.454100E-1	8.623993E-1	8.720904E-1	9.025800E-1	8.505879E-1	8.900303E-1	8.738295E-1	8.803875E-1	8.257300E-1	8.376976E-1	8.617022E-1	8.399592E-1	8.524334E-1	8.923069E-1	8.579528E-1	8.699913E-1	8.950575E-1	8.855983E-1	8.505906E-1	8.828866E-1	8.776003E-1	8.651124E-1	8.563361E-1	8.627027E-1	8.323229E-1	8.569223E-1	8.578922E-1	8.883989E-1	8.568075E-1	8.503012E-1	8.792459E-1	8.542772E-1	8.591911E-1	8.641499E-1	8.801893E-1	8.356095E-1	8.858289E-1	8.701392E-1	8.676742E-1	9.007267E-1	9.412502E-1	8.859087E-1	8.538993E-1	8.768727E-1	9.086703E-1	8.496773E-1	8.831358E-1	8.422572E-1	9.174608E-1	8.471419E-1	8.636846E-1	8.633027E-1	8.410376E-1	8.488053E-1	9.179512E-1	8.996572E-1	8.514237E-1	9.187262E-1	8.648363E-1	8.870180E-1	8.636408E-1	8.726392E-1	8.734672E-1	8.971318E-1	7.979166E-1	8.603391E-1	8.840721E-1	8.607838E-1	8.691714E-1	8.458890E-1	8.473139E-1	8.980682E-1	8.137410E-1	8.510800E-1	8.933828E-1	8.584765E-1	8.865349E-1	8.816297E-1	9.343063E-1	8.835319E-1	8.871400E-1	8.534052E-1	9.118714E-1	8.518268E-1	8.424475E-1	8.861351E-1	8.378089E-1	8.951847E-1	8.698195E-1	8.596161E-1	8.643469E-1	8.862232E-1	8.505343E-1	8.536740E-1	8.724661E-1	8.502156E-1	8.959946E-1	8.296425E-1	9.039479E-1	8.817071E-1	8.190453E-1	9.024613E-1	8.922216E-1	8.874327E-1	8.808008E-1	9.202440E-1	9.035419E-1	8.864498E-1	8.698265E-1	8.452747E-1	8.482479E-1	8.659860E-1	8.829841E-1	8.276747E-1	8.579494E-1	8.506285E-1	8.545596E-1	9.124110E-1	8.860712E-1	8.413665E-1	8.456338E-1	8.247528E-1	9.020023E-1	8.836030E-1	8.623881E-1	8.673905E-1	8.398233E-1	8.579659E-1	8.565225E-1	8.964350E-1	8.674876E-1	9.069146E-1	7.944337E-1	8.860296E-1	9.126910E-1	8.866097E-1	9.092276E-1	8.745269E-1	8.903588E-1	9.079037E-1	9.072608E-1	8.466394E-1	9.092839E-1	9.245710E-1	9.044169E-1
2.980040E+2	8.687169E-1	9.037342E-1	9.213929E-1	8.402385E-1	8.673359E-1	9.342048E-1	8.455831E-1	9.055055E-1	9.135524E-1	9.132211E-1	8.822303E-1	8.627528E-1	8.961711E-1	8.680802E-1	8.907121E-1	9.226181E-1	8.924659E-1	8.139543E-1	9.422980E-1	8.972959E-1	9.320443E-1	9.430941E-1	9.091566E-1	9.401332E-1	9.154440E-1	9.262107E-1	9.340392E-1	9.551723E-1	8.979157E-1	8.827988E-1	9.111438E-1	9.339584E-1	9.472838E-1	8.491907E-1	9.458525E-1	9.711699E-1	8.780967E-1	9.020899E-1	9.648368E-1	8.642464E-1	8.860082E-1	9.194277E-1	9.121300E-1	9.107617E-1	9.043269E-1	9.040122E-1	8.895735E-1	8.909923E-1	9.268768E-1	9.366593E-1	9.803967E-1	8.874366E-1	9.175913E-1	8.819612E-1	9.506499E-1	9.438874E-1	8.889189E-1	8.966127E-1	9.407122E-1	9.216230E-1	9.476631E-1	9.004447E-1	9.246827E-1	8.840017E-1	9.277734E-1	8.767985E-1	8.806245E-1	9.090791E-1	9.339367E-1	9.037378E-1	8.949543E-1	9.160220E-1	9.034275E-1	9.240914E-1	8.840713E-1	9.254645E-1	9.111959E-1	9.009919E-1	9.205089E-1	9.326440E-1	8.966958E-1	9.476412E-1	9.579433E-1	8.987567E-1	9.687874E-1	9.318111E-1	9.341359E-1	9.013211E-1	8.755554E-1	8.876431E-1	8.997090E-1	9.207617E-1	8.926640E-1	8.736041E-1	9.319882E-1	9.231665E-1	9.343588E-1	8.585305E-1	9.253132E-1	8.978869E-1	9.181537E-1	8.856367E-1	8.701229E-1	8.777930E-1	8.978260E-1	8.278657E-1	8.891086E-1	8.765871E-1	8.869103E-1	9.164003E-1	8.869371E-1	8.880540E-1	9.407389E-1	9.472338E-1	9.511362E-1	8.656736E-1	8.850989E-1	8.519834E-1	9.480250E-1	8.937798E-1	9.368071E-1	8.990126E-1	8.924003E-1	9.348547E-1	9.355603E-1	8.823295E-1	9.321067E-1	8.866698E-1	8.843343E-1	8.655411E-1	8.718514E-1	9.187812E-1	8.783705E-1	8.907546E-1	8.967684E-1	9.024610E-1	9.708701E-1	9.556617E-1	8.841202E-1	9.310328E-1	8.455589E-1	9.649460E-1	8.974519E-1	9.047186E-1	9.077196E-1	9.000839E-1	9.073252E-1	9.452075E-1	8.961811E-1	8.934423E-1	9.058627E-1	8.968323E-1	9.593592E-1	8.372825E-1	9.461482E-1	8.930927E-1	9.175553E-1	9.280114E-1	8.645658E-1	8.763357E-1	9.276644E-1	8.990186E-1	9.207149E-1	9.405219E-1	9.226413E-1	8.842845E-1	9.151679E-1	9.574128E-1	9.749243E-1	8.848909E-1	8.315187E-1
2.985020E+2	9.142554E-1	9.650631E-1	9.067968E-1	8.602204E-1	8.960381E-1	9.248817E-1	8.931341E-1	8.727955E-1	9.171556E-1	9.729213E-1	9.157370E-1	8.994096E-1	8.681070E-1	9.531084E-1	9.426825E-1	9.681844E-1	8.806447E-1	9.124465E-1	9.021598E-1	8.993554E-1	8.850295E-1	9.080960E-1	8.607434E-1	9.446547E-1	8.764956E-1	9.497166E-1	9.110272E-1	8.496653E-1	9.322511E-1	8.795306E-1	9.360805E-1	9.093714E-1	8.783417E-1	8.999536E-1	9.338534E-1	8.908971E-1	9.450239E-1	9.131118E-1	8.989338E-1	9.050537E-1	9.042295E-1	9.089241E-1	9.243803E-1	9.017310E-1	9.154066E-1	9.415393E-1	8.916541E-1	9.085485E-1	9.409257E-1	9.025058E-1	9.645709E-1	8.898436E-1	9.279549E-1	9.521015E-1	9.101763E-1	9.243949E-1	9.592755E-1	8.938299E-1	8.924240E-1	9.533469E-1	8.863508E-1	9.832423E-1	9.504682E-1	9.540250E-1	8.861384E-1	9.351658E-1	8.691609E-1	8.497640E-1	9.366501E-1	9.664279E-1	8.936040E-1	9.254114E-1	9.536985E-1	8.950286E-1	9.058391E-1	9.197839E-1	9.054091E-1	9.260861E-1	9.008737E-1	9.264196E-1	9.058053E-1	8.711569E-1	9.295142E-1	9.708727E-1	8.789778E-1	8.830005E-1	8.849880E-1	9.241478E-1	9.535200E-1	9.248040E-1	8.957923E-1	9.055934E-1	8.986183E-1	9.143239E-1	9.585831E-1	9.193843E-1	9.012205E-1	9.462557E-1	9.295558E-1	9.317282E-1	9.167159E-1	9.399185E-1	9.266678E-1	9.252725E-1	8.923116E-1	9.296175E-1	9.390301E-1	8.342032E-1	9.032083E-1	8.661639E-1	9.059175E-1	9.196557E-1	8.863470E-1	9.003236E-1	8.991765E-1	9.172502E-1	9.353811E-1	9.230197E-1	8.956511E-1	9.277054E-1	8.913851E-1	9.116461E-1	9.388895E-1	9.709697E-1	9.155331E-1	9.158264E-1	8.827878E-1	9.369715E-1	9.225108E-1	9.172170E-1	9.412100E-1	8.712827E-1	9.268281E-1	9.013207E-1	8.650399E-1	9.316425E-1	8.958007E-1	8.584602E-1	9.429756E-1	9.110961E-1	9.481216E-1	9.100778E-1	9.544810E-1	8.865998E-1	8.820792E-1	9.232232E-1	9.088438E-1	9.161509E-1	9.120313E-1	8.862829E-1	9.182936E-1	9.480861E-1	9.341855E-1	9.351401E-1	8.299030E-1	9.371484E-1	9.007774E-1	9.273693E-1	9.941037E-1	9.413812E-1	8.811648E-1	9.027309E-1	8.793396E-1	8.365235E-1	8.587313E-1	8.798870E-1	9.103248E-1	9.369571E-1	8.964254E-1	8.839691E-1	9.595584E-1
2.990020E+2	8.612581E-1	8.132095E-1	8.078590E-1	8.766748E-1	8.867087E-1	7.732986E-1	8.612586E-1	8.628751E-1	8.299123E-1	8.633375E-1	8.672665E-1	8.674001E-1	9.120024E-1	8.574290E-1	8.357755E-1	8.728162E-1	7.991655E-1	9.159443E-1	8.522194E-1	8.736164E-1	8.229151E-1	8.423615E-1	8.904071E-1	8.314357E-1	8.502621E-1	8.588956E-1	8.680292E-1	9.071355E-1	9.175038E-1	8.432966E-1	8.927318E-1	8.479930E-1	8.347458E-1	8.404521E-1	8.739088E-1	8.929694E-1	8.448513E-1	8.736285E-1	8.403940E-1	8.784383E-1	8.709536E-1	8.373784E-1	8.406927E-1	8.547215E-1	8.539337E-1	8.468802E-1	8.698817E-1	8.542700E-1	8.947773E-1	8.481832E-1	8.405919E-1	8.818793E-1	8.391569E-1	8.527593E-1	8.742297E-1	8.326530E-1	8.964061E-1	8.826910E-1	8.549372E-1	8.154792E-1	8.879006E-1	8.161880E-1	8.236876E-1	8.411998E-1	8.600014E-1	8.483379E-1	8.870825E-1	8.905264E-1	8.319489E-1	8.311510E-1	8.644960E-1	8.682272E-1	8.643037E-1	8.776728E-1	8.178656E-1	8.713690E-1	8.614487E-1	8.894207E-1	8.528276E-1	8.508253E-1	8.672817E-1	8.413742E-1	8.664674E-1	8.231724E-1	9.124262E-1	8.876892E-1	8.671642E-1	8.865933E-1	9.059775E-1	8.824319E-1	8.729497E-1	8.603205E-1	8.804081E-1	8.429040E-1	8.274831E-1	8.793262E-1	9.063384E-1	8.373873E-1	8.687569E-1	8.758474E-1	8.255946E-1	8.529877E-1	8.494916E-1	8.694443E-1	8.387779E-1	8.783380E-1	8.581505E-1	8.900732E-1	8.933062E-1	8.775314E-1	8.765705E-1	8.789928E-1	8.911103E-1	8.392113E-1	8.295636E-1	9.190165E-1	8.818922E-1	8.669517E-1	8.326420E-1	8.597507E-1	9.262631E-1	9.031545E-1	8.513771E-1	8.270125E-1	8.116089E-1	8.497915E-1	8.974851E-1	8.892004E-1	8.570179E-1	8.746516E-1	8.837012E-1	8.792206E-1	8.564550E-1	8.646043E-1	9.057937E-1	8.439808E-1	8.694024E-1	8.933671E-1	8.414404E-1	8.851236E-1	9.121524E-1	8.679628E-1	8.845866E-1	8.458649E-1	8.479306E-1	8.571675E-1	8.713536E-1	8.716358E-1	8.532329E-1	8.564806E-1	8.639843E-1	8.910243E-1	8.134744E-1	8.567492E-1	9.153510E-1	8.539158E-1	8.527406E-1	8.466740E-1	8.698908E-1	8.413447E-1	8.436509E-1	8.437741E-1	9.381563E-1	9.017439E-1	8.796352E-1	9.021499E-1	8.270360E-1	8.201423E-1	7.794704E-1	8.279790E-1	9.034968E-1
2.995060E+2	1.218927E+0	1.242751E+0	1.249080E+0	1.251077E+0	1.189643E+0	1.240379E+0	1.219707E+0	1.214315E+0	1.276834E+0	1.257999E+0	1.157455E+0	1.212699E+0	1.199267E+0	1.170416E+0	1.218558E+0	1.204172E+0	1.292464E+0	1.251321E+0	1.219391E+0	1.255508E+0	1.219627E+0	1.143256E+0	1.188409E+0	1.197548E+0	1.201451E+0	1.156012E+0	1.214560E+0	1.190091E+0	1.186598E+0	1.230308E+0	1.210037E+0	1.216951E+0	1.205501E+0	1.257629E+0	1.193402E+0	1.220626E+0	1.222516E+0	1.227676E+0	1.205764E+0	1.226002E+0	1.232468E+0	1.240845E+0	1.227932E+0	1.217532E+0	1.236907E+0	1.163479E+0	1.247712E+0	1.204812E+0	1.156396E+0	1.201961E+0	1.179568E+0	1.211798E+0	1.205139E+0	1.179120E+0	1.164437E+0	1.211905E+0	1.239367E+0	1.242102E+0	1.186244E+0	1.180359E+0	1.205549E+0	1.206960E+0	1.191122E+0	1.179947E+0	1.237252E+0	1.242322E+0	1.165900E+0	1.188283E+0	1.195992E+0	1.194076E+0	1.160467E+0	1.197669E+0	1.171498E+0	1.236563E+0	1.207393E+0	1.198225E+0	1.220679E+0	1.208362E+0	1.270178E+0	1.215603E+0	1.201303E+0	1.225751E+0	1.193505E+0	1.165939E+0	1.163372E+0	1.212363E+0	1.211779E+0	1.195306E+0	1.153633E+0	1.177760E+0	1.181097E+0	1.227209E+0	1.169232E+0	1.238196E+0	1.201378E+0	1.226583E+0	1.200940E+0	1.200944E+0	1.213027E+0	1.184402E+0	1.251709E+0	1.260177E+0	1.219937E+0	1.201735E+0	1.177503E+0	1.202407E+0	1.215889E+0	1.241925E+0	1.186728E+0	1.217693E+0	1.189812E+0	1.169848E+0	1.224785E+0	1.191346E+0	1.225285E+0	1.229219E+0	1.201166E+0	1.255573E+0	1.239656E+0	1.251450E+0	1.174018E+0	1.196949E+0	1.159260E+0	1.184472E+0	1.222196E+0	1.257912E+0	1.205402E+0	1.158616E+0	1.222769E+0	1.189703E+0	1.186886E+0	1.198536E+0	1.227908E+0	1.233404E+0	1.220598E+0	1.206636E+0	1.198650E+0	1.207295E+0	1.220754E+0	1.224781E+0	1.173681E+0	1.162033E+0	1.245595E+0	1.218765E+0	1.254381E+0	1.241948E+0	1.240167E+0	1.196091E+0	1.151202E+0	1.243227E+0	1.205893E+0	1.174837E+0	1.241526E+0	1.263392E+0	1.225630E+0	1.217655E+0	1.212512E+0	1.196516E+0	1.198867E+0	1.212148E+0	1.225588E+0	1.242784E+0	1.184865E+0	1.174342E+0	1.229235E+0	1.217376E+0	1.192505E+0	1.204259E+0	1.215703E+0	1.289610E+0	1.051311E+0
3.000060E+2	1.265375E+0	1.228259E+0	1.207117E+0	1.276647E+0	1.295525E+0	1.263156E+0	1.259342E+0	1.270997E+0	1.221921E+0	1.187936E+0	1.247968E+0	1.257566E+0	1.246638E+0	1.277086E+0	1.234836E+0	1.192846E+0	1.235298E+0	1.231384E+0	1.233354E+0	1.213544E+0	1.223866E+0	1.288463E+0	1.283907E+0	1.243728E+0	1.286535E+0	1.240682E+0	1.226935E+0	1.235536E+0	1.193640E+0	1.261486E+0	1.199419E+0	1.201696E+0	1.260298E+0	1.272387E+0	1.227254E+0	1.186640E+0	1.247810E+0	1.243534E+0	1.237638E+0	1.233953E+0	1.248387E+0	1.223434E+0	1.199808E+0	1.229655E+0	1.238836E+0	1.261203E+0	1.223578E+0	1.276265E+0	1.224688E+0	1.247988E+0	1.202550E+0	1.272120E+0	1.252265E+0	1.245659E+0	1.243699E+0	1.236859E+0	1.136787E+0	1.230487E+0	1.266492E+0	1.265042E+0	1.192347E+0	1.257555E+0	1.224210E+0	1.270687E+0	1.221160E+0	1.196649E+0	1.255982E+0	1.276439E+0	1.247573E+0	1.227735E+0	1.277809E+0	1.242993E+0	1.223937E+0	1.224387E+0	1.267370E+0	1.238016E+0	1.237583E+0	1.211836E+0	1.214575E+0	1.225703E+0	1.210963E+0	1.214420E+0	1.201146E+0	1.222533E+0	1.211601E+0	1.198118E+0	1.238292E+0	1.219993E+0	1.237847E+0	1.230229E+0	1.352536E+0	1.225777E+0	1.275005E+0	1.270188E+0	1.211396E+0	1.205651E+0	1.209828E+0	1.258814E+0	1.249606E+0	1.259056E+0	1.194444E+0	1.202804E+0	1.247245E+0	1.244126E+0	1.259276E+0	1.278240E+0	1.210682E+0	1.303806E+0	1.217976E+0	1.270384E+0	1.298315E+0	1.257314E+0	1.219210E+0	1.226701E+0	1.225019E+0	1.209225E+0	1.232115E+0	1.216249E+0	1.233491E+0	1.213640E+0	1.199060E+0	1.239023E+0	1.262079E+0	1.253049E+0	1.211153E+0	1.212434E+0	1.263173E+0	1.226081E+0	1.221146E+0	1.265454E+0	1.235550E+0	1.211936E+0	1.206897E+0	1.223467E+0	1.241973E+0	1.270005E+0	1.217029E+0	1.219230E+0	1.227726E+0	1.220292E+0	1.262536E+0	1.244352E+0	1.163326E+0	1.231640E+0	1.221819E+0	1.236211E+0	1.226677E+0	1.246162E+0	1.285350E+0	1.236964E+0	1.243578E+0	1.221830E+0	1.211632E+0	1.249471E+0	1.226445E+0	1.201753E+0	1.248927E+0	1.194515E+0	1.278139E+0	1.242761E+0	1.209241E+0	1.225082E+0	1.167697E+0	1.272341E+0	1.219399E+0	1.208399E+0	1.247705E+0	1.234590E+0	1.224193E+0	1.188980E+0	1.349698E+0
