Photon Energy (eV)	#1	#2	#3	#4	#5	#6	#7	#8	#9	#10	#11	#12	#13	#14	#15	#16	#17	#18	#19	#20	#21	#22	#23	#24	#25	#26	#27	#28	#29	#30	#31	#32	#33	#34	#35	#36	#37	#38	#39	#40	#41	#42	#43	#44	#45	#46	#47	#48	#49	#50	#51	#52	#53	#54	#55	#56	#57	#58	#59	#60	#61	#62	#63	#64	#65	#66	#67	#68	#69	#70	#71	#72	#73	#74	#75	#76	#77	#78	#79	#80	#81	#82	#83	#84	#85	#86	#87	#88	#89	#90	#91	#92	#93	#94	#95	#96	#97	#98	#99	#100	#101	#102	#103	#104	#105	#106	#107	#108	#109	#110	#111	#112	#113	#114	#115	#116	#117	#118	#119	#120	#121	#122	#123	#124	#125	#126	#127	#128	#129	#130	#131	#132	#133	#134	#135	#136	#137	#138	#139	#140	#141	#142	#143	#144	#145	#146	#147	#148	#149	#150	#151	#152	#153	#154	#155	#156	#157	#158	#159	#160	#161	#162	#163	#164	#165	#166	#167	#168	#169	#170	#171	
5.300220E+2	-1.798601E-3	-2.272200E-3	-5.067130E-3	-5.034302E-3	-1.432864E-2	3.973782E-3	-9.648962E-3	-7.670253E-3	-7.798244E-3	-1.043820E-2	-6.440389E-3	-2.535107E-4	-5.218362E-3	9.233852E-4	-6.169446E-3	-4.136926E-3	-1.238671E-2	6.255473E-3	6.176638E-4	3.220867E-4	-1.216373E-3	-1.060671E-2	-4.704756E-4	-9.906896E-3	-5.993761E-3	-5.524775E-3	-5.662206E-3	-8.179786E-3	-4.579816E-3	-7.073831E-3	-5.739378E-4	-9.153977E-3	-1.002029E-2	-1.081422E-2	-7.567642E-3	-4.691123E-3	-8.055445E-3	-1.146376E-2	-1.057049E-3	-3.560474E-3	-6.076674E-3	-4.283109E-3	-5.706658E-3	-8.727562E-3	-4.596726E-3	-6.973080E-3	-3.851033E-3	-6.018903E-3	-7.536379E-3	-1.640133E-2	-4.468968E-3	-1.541209E-3	-5.947315E-3	-6.813392E-3	3.444788E-3	-1.645573E-3	-1.405216E-2	-1.328933E-2	-6.024331E-3	-3.787322E-3	-1.713127E-2	-1.106182E-2	-1.002562E-2	-4.649653E-3	-5.105249E-3	-3.037634E-3	-6.185377E-3	-5.155482E-3	3.433692E-5	-4.010663E-3	1.102703E-4	3.321108E-3	-4.107176E-3	-1.298231E-2	-1.112671E-2	-2.668114E-3	-9.293712E-3	4.140191E-3	-1.034203E-3	-5.197078E-3	-9.406503E-3	-1.067099E-2	-5.202598E-3	-4.263092E-3	-3.145471E-3	2.869627E-3	-5.117440E-3	1.635915E-4	-1.080704E-3	-4.167960E-3	-8.987435E-3	1.505614E-3	-5.054698E-3	-1.470543E-2	-2.560276E-3	-1.365430E-2	-2.247927E-3	-1.065969E-2	-2.111697E-3	-3.074399E-3	-5.560261E-3	-9.542297E-3	-8.348021E-3	-4.622059E-3	3.294744E-3	-6.088438E-3	6.873797E-3	-1.706528E-2	-6.362592E-4	-8.694962E-3	-1.343511E-2	-1.824493E-3	-4.021248E-3	-2.089753E-3	-3.776411E-3	-9.808853E-3	-1.179515E-2	-7.364919E-3	-8.123112E-3	-1.037593E-2	-7.989266E-3	-4.435558E-3	-8.020749E-3	1.100941E-4	-1.669606E-2	-5.829775E-3	-7.219446E-3	-3.413424E-3	-5.669855E-3	-9.630286E-3	-9.550385E-3	-7.443298E-3	-1.144901E-2	-1.273169E-3	9.255183E-3	-3.592308E-3	-7.212548E-3	-2.387633E-3	9.888142E-3	-7.455014E-3	-7.585598E-3	-1.756946E-2	-7.609514E-3	-2.432580E-3	-2.524122E-3	-7.948786E-3	-9.473226E-3	-1.123354E-2	-1.917317E-3	-3.061903E-3	-8.644246E-4	-1.397271E-2	-1.185799E-2	-3.376442E-3	1.017832E-3	-1.069641E-2	-2.046219E-3	-1.934284E-2	-7.907615E-3	-6.237029E-3	3.633333E-4	-1.268448E-2	-1.716831E-3	-1.277723E-2	-3.814288E-3	-8.477401E-3	1.397972E-4	-3.242973E-3	-7.855678E-3	-4.596283E-3	-6.662085E-3
5.305130E+2	-2.970224E-3	-2.923103E-3	4.950055E-4	5.436431E-4	-4.398012E-3	-1.132525E-2	-6.172316E-3	-1.039084E-2	-2.362842E-3	-4.825603E-3	-3.117141E-3	-3.704017E-3	-5.029629E-3	-5.897477E-3	-1.052290E-2	-6.597571E-3	-6.490887E-3	-1.050729E-2	-2.647589E-3	-2.213491E-3	2.201576E-3	-9.595175E-4	-6.568194E-3	-4.208203E-3	1.513140E-4	-6.207219E-3	-1.118284E-2	-6.739222E-3	-9.540744E-3	-2.398295E-3	-5.213595E-3	2.508949E-3	-1.382419E-2	-2.644753E-3	-7.824082E-3	-8.019594E-3	-5.799397E-3	-4.455137E-4	-6.855805E-3	-3.082438E-3	-3.759799E-3	-9.404825E-3	-5.898860E-3	-5.474712E-3	-3.760957E-3	-3.843297E-3	-7.580944E-4	-1.399080E-2	-7.141687E-3	-3.261796E-3	-4.691560E-3	-6.763258E-3	-1.158275E-3	-8.833781E-4	-2.429487E-3	-9.187496E-3	3.232627E-3	3.728162E-3	-2.736325E-5	-5.055244E-4	-9.330089E-5	-3.280403E-3	-3.722089E-3	-6.680635E-3	-7.126078E-3	2.026175E-3	-2.710567E-3	-9.378417E-3	-3.269498E-3	-4.786909E-3	-1.045371E-2	-1.125944E-2	-1.260617E-2	-7.935685E-3	-1.001166E-2	-1.659497E-2	-5.184949E-3	-7.013902E-3	-1.176985E-2	-1.438663E-3	-6.599272E-3	-4.263805E-3	-8.267434E-3	-2.417209E-3	6.291065E-4	-7.908682E-3	4.240383E-5	-7.197862E-4	-2.817968E-3	-3.993065E-3	-2.311026E-3	-2.251281E-3	-7.313145E-3	-4.134616E-3	5.093926E-3	-4.893593E-4	-4.905788E-3	3.443911E-3	6.636844E-4	-5.875393E-4	-7.864653E-3	-3.538552E-3	-1.764993E-3	-7.053767E-3	-2.748996E-3	-8.651347E-3	-1.741678E-2	1.326336E-3	-3.068904E-3	-4.208081E-3	-6.705512E-4	-4.726724E-3	-3.650082E-3	-8.684740E-3	-1.128958E-2	-8.178471E-3	3.521726E-3	-1.488228E-3	-4.828248E-3	-7.455110E-3	-2.576344E-3	-4.769797E-3	-8.172313E-3	-8.682324E-3	-8.557834E-3	-9.747354E-3	-9.014927E-3	-9.269880E-3	2.750750E-3	-8.038639E-3	-2.887269E-3	-4.183055E-3	-5.975375E-4	-4.717148E-3	-2.194826E-3	-3.348960E-3	-3.492323E-3	-3.820201E-3	-1.695153E-4	-1.053990E-2	-8.355178E-3	-1.106319E-2	2.065415E-3	-5.175650E-3	-6.879996E-3	2.869320E-3	-4.788838E-3	-9.623683E-3	-3.200958E-3	-3.907005E-3	-4.177852E-3	-5.717681E-3	4.871499E-3	-1.436320E-2	-6.346385E-3	-5.961129E-3	-5.610460E-3	-9.571992E-3	-9.700032E-3	-3.960588E-3	-1.190249E-2	-1.107727E-2	-7.061890E-3	-5.886668E-3	2.580975E-3	-2.919019E-3	-5.185969E-3	-9.202911E-3	-5.152327E-3	-3.634231E-4	1.315371E-2
5.310150E+2	7.297088E-4	-8.121390E-4	-1.116935E-2	-1.193440E-3	8.655571E-4	1.003375E-2	-2.544496E-3	-1.105100E-3	-6.285320E-3	5.649022E-3	-2.537532E-3	-3.703944E-3	-4.514943E-3	-1.032983E-2	-8.989427E-3	-6.165845E-3	8.456152E-3	-4.863249E-3	-4.450490E-3	-5.041254E-3	-5.182942E-4	-1.893138E-3	-4.309798E-3	1.781727E-3	4.341096E-3	-3.282402E-3	-5.343696E-3	8.830028E-3	-7.987815E-3	-4.032449E-3	-3.201419E-4	5.475925E-3	2.004073E-3	2.580864E-3	-1.988059E-3	4.099843E-3	-1.847123E-3	3.466300E-3	-3.593945E-3	-3.523674E-3	-3.272068E-3	-1.303706E-3	-5.291959E-3	-2.090252E-3	-1.532223E-3	-3.843314E-3	-7.307893E-3	-4.999923E-3	-3.023147E-3	2.282307E-3	-4.418081E-4	-4.043449E-3	-4.730927E-3	-2.925297E-3	-1.004424E-2	-4.429192E-3	1.121515E-3	-8.580129E-3	-6.435024E-4	6.857448E-5	-8.092364E-3	2.149629E-4	-2.641468E-3	3.738585E-3	-8.959294E-4	-7.431570E-3	-8.878868E-3	9.167023E-4	-1.786524E-3	-4.786915E-3	-5.351268E-3	-8.100241E-5	3.281447E-3	-1.066870E-3	2.811258E-4	2.436776E-3	1.316929E-3	-8.613671E-3	5.414098E-3	-1.934286E-3	-3.065744E-3	7.001981E-4	3.651266E-3	-4.526791E-3	8.195104E-3	-1.193772E-3	-4.863123E-3	-2.290281E-4	6.076696E-4	-3.468416E-3	-2.311068E-3	-5.119053E-3	-8.281081E-3	-5.160109E-3	2.989473E-4	-2.857158E-3	3.424802E-3	-6.694014E-3	-4.766507E-3	-6.053166E-3	-2.705604E-3	1.086261E-3	-4.627200E-3	-4.321548E-3	-4.839040E-3	5.291546E-4	7.869662E-4	-5.148123E-4	-6.797807E-3	-1.553138E-3	-8.775008E-3	-1.442361E-4	-9.986464E-4	2.024304E-3	4.213703E-3	-2.213625E-3	-3.745137E-3	-5.875157E-3	3.971088E-3	-4.807785E-3	-9.703045E-3	-9.398213E-3	-1.919935E-3	-5.023044E-3	5.408269E-3	-3.975949E-3	-3.262569E-3	3.780503E-4	-1.110718E-2	3.824094E-3	-5.742951E-3	-1.460048E-2	-5.890873E-3	-7.306670E-3	-7.924568E-3	-4.391898E-3	-8.656690E-3	-3.820254E-3	-5.254849E-3	1.606667E-3	1.371130E-4	1.212766E-2	-9.892358E-3	-1.093374E-2	-1.091864E-2	-8.763083E-3	8.339400E-3	-9.623666E-3	-8.044774E-3	1.604464E-3	6.094702E-3	-3.057628E-3	1.067296E-3	-3.056060E-3	-4.729878E-3	-2.938595E-3	-9.306784E-3	1.355312E-3	-1.265230E-3	-4.451905E-3	1.178584E-3	5.373181E-3	1.482609E-3	1.630307E-3	-5.552652E-3	4.422214E-3	-4.556985E-3	-9.202922E-3	-9.501546E-4	-3.634231E-4	-9.579513E-3
5.315130E+2	1.654720E-3	3.409795E-3	1.143027E-3	-2.930492E-3	-6.503452E-3	-3.874440E-3	4.106463E-3	-1.593786E-3	-4.043910E-3	-4.301847E-3	2.099557E-3	-5.750749E-4	2.690682E-3	-2.942600E-3	2.115486E-4	7.410478E-4	-4.013665E-4	2.163481E-4	-1.046011E-2	-4.475714E-3	-2.694116E-3	-7.494727E-3	4.723846E-3	-1.712377E-3	-4.562255E-3	-1.819910E-3	9.519573E-3	-8.349862E-3	-1.775881E-3	-4.577147E-3	-1.951305E-3	-3.848819E-3	7.109924E-3	-9.438074E-3	5.970079E-3	-3.277257E-3	6.057359E-3	-6.313230E-3	1.298640E-3	4.418389E-3	-8.332272E-4	4.637190E-3	-1.043548E-3	-2.654280E-3	-4.179020E-4	1.171701E-3	3.062652E-3	1.293678E-3	2.125089E-3	-3.261773E-3	2.593674E-3	3.028064E-3	2.414335E-3	1.158484E-3	8.448753E-3	1.756639E-3	-2.572934E-3	2.122701E-3	-4.956371E-3	-5.672180E-3	2.039731E-3	7.705124E-3	2.761584E-3	3.285562E-3	-8.959177E-4	4.390622E-3	-3.327420E-3	-2.271715E-4	4.145600E-3	1.940630E-3	3.719746E-3	-4.455142E-3	-3.893611E-3	-1.066905E-3	-6.008905E-3	1.842059E-3	1.316936E-3	-2.214485E-3	1.062138E-2	-8.872894E-3	-3.065694E-3	7.001308E-4	2.459491E-4	-7.163785E-3	-4.919309E-3	-3.776412E-3	3.312704E-3	-3.173627E-3	-1.839233E-3	-3.468403E-3	-1.740422E-3	2.337252E-3	-1.989620E-3	1.432374E-2	-4.496041E-3	-2.857112E-3	1.044603E-3	-5.501323E-3	-2.956412E-3	-3.866921E-3	3.898049E-4	5.851851E-5	-1.092402E-2	3.328814E-3	-5.884016E-3	-1.765946E-3	7.869419E-4	-6.038518E-3	1.192627E-3	2.694763E-3	-6.705265E-4	-2.180920E-3	-3.119773E-3	9.533962E-4	1.733185E-2	1.090906E-2	2.552825E-3	7.834099E-3	-3.068356E-3	-3.219389E-3	4.041300E-3	5.001241E-3	-2.488344E-3	-2.583489E-3	-2.350675E-3	1.270887E-3	-1.249303E-4	8.857671E-4	-5.333047E-3	3.230936E-3	2.823843E-3	1.375808E-2	8.461167E-4	3.051279E-3	-3.340816E-3	8.227662E-4	1.098235E-3	-3.820208E-3	-1.203524E-2	6.812364E-3	-5.170552E-3	-1.676436E-3	5.870199E-3	5.860770E-3	-1.110610E-3	-3.876894E-5	-1.208335E-3	1.132408E-2	7.455433E-3	-5.560443E-3	-5.522342E-4	6.665228E-4	-1.360611E-2	-1.360001E-3	-2.574482E-3	5.524547E-3	-4.554407E-3	-8.301694E-4	1.191419E-2	-3.960558E-3	-5.276597E-4	-4.270155E-3	-3.644067E-3	6.256107E-3	-2.681960E-3	-1.870266E-3	-7.702100E-3	-8.866936E-4	-1.103529E-2	-1.646140E-3	-7.306203E-3
5.320220E+2	3.967166E-3	-2.395351E-3	1.143019E-3	3.438733E-3	6.655509E-3	-9.338343E-3	-1.939863E-3	-2.571258E-3	1.500818E-2	3.554065E-3	-3.696786E-3	2.553804E-3	1.146577E-3	-1.957654E-3	1.094606E-2	-4.439148E-3	4.581028E-3	2.163584E-4	5.765946E-3	4.869195E-5	2.201550E-3	1.071044E-2	-4.874396E-3	-1.213244E-3	-1.943598E-3	8.904630E-3	1.026259E-3	9.366893E-3	4.436044E-3	6.861997E-3	-2.495065E-3	1.661265E-3	-1.059462E-3	1.535760E-3	1.341301E-4	6.734473E-3	-8.590556E-4	6.400141E-3	6.734955E-3	8.389440E-3	7.946407E-3	4.097065E-3	1.170164E-2	1.294218E-3	4.596725E-3	1.120181E-2	4.154289E-3	1.073410E-2	9.847345E-3	7.826459E-3	7.450521E-3	-2.357372E-4	2.924784E-3	8.305092E-3	-1.885573E-3	-7.760022E-3	5.937703E-4	7.474155E-3	-6.188570E-3	-2.801861E-3	7.905713E-3	3.710417E-3	7.083953E-3	-3.962581E-3	4.375762E-3	3.799534E-3	1.579413E-2	8.924011E-3	-2.280829E-3	-3.234390E-3	1.451965E-3	-1.053058E-3	3.281451E-3	1.152591E-2	1.343309E-2	1.842059E-3	1.316926E-3	5.784423E-3	-2.396817E-3	1.535046E-3	1.401325E-2	5.664130E-3	5.353967E-3	8.658038E-3	-6.936925E-3	-4.809492E-3	-2.137833E-3	-5.136690E-3	-4.775427E-3	2.302594E-3	7.389691E-3	-2.824808E-3	1.688480E-2	-1.058219E-3	-1.299393E-3	7.561179E-3	-4.905784E-3	1.298544E-2	2.473747E-3	8.157399E-3	2.969279E-3	3.141758E-3	2.814464E-3	3.328778E-3	-2.226481E-3	1.676709E-3	4.768994E-3	-5.148909E-4	-3.601642E-3	1.632770E-3	8.591701E-3	4.438202E-3	5.921300E-4	9.534190E-4	-1.009700E-2	4.944183E-3	1.305383E-4	8.930786E-3	1.624638E-3	1.425275E-2	1.269513E-2	1.401383E-3	7.742870E-3	2.295521E-3	9.546391E-3	6.517693E-3	7.719161E-3	-4.192006E-3	3.328137E-3	-3.293584E-3	3.394979E-3	-2.446827E-3	8.545652E-3	4.604974E-3	1.243051E-3	-5.434805E-3	2.245878E-3	-5.562593E-3	-5.254829E-3	6.812389E-3	4.383252E-3	7.158128E-3	9.783662E-4	5.380925E-3	1.100516E-2	2.869324E-3	1.775308E-3	5.505230E-3	-6.591614E-3	-6.001322E-4	-4.177852E-3	1.396685E-2	4.328067E-3	4.293589E-3	-9.579260E-4	9.151572E-3	1.445524E-2	1.355296E-3	2.425011E-3	9.305020E-3	-1.665127E-3	1.161304E-2	9.129973E-4	-1.044308E-4	-2.203514E-3	1.800366E-3	-7.827798E-4	2.311840E-3	3.251982E-3	6.050022E-3	1.088036E-2
5.325170E+2	-1.582769E-3	4.992998E-3	1.345543E-2	5.175858E-3	1.770903E-2	1.053050E-2	1.619917E-2	2.333123E-2	5.482137E-3	1.036257E-2	1.369229E-2	5.682743E-3	1.092568E-2	2.020418E-2	1.452417E-2	2.059844E-2	6.241781E-3	8.682354E-3	1.117458E-2	1.135968E-2	2.565797E-5	1.024366E-2	1.149902E-2	1.525899E-2	8.007203E-3	7.929676E-3	1.164291E-2	5.071949E-3	1.944821E-2	1.121973E-2	1.055404E-2	3.356657E-3	1.578995E-2	1.878042E-2	1.127557E-2	5.153658E-3	1.050366E-2	8.356064E-3	3.473204E-3	-2.641243E-3	5.995361E-3	6.257386E-3	6.239386E-3	1.765259E-2	5.711083E-3	2.286185E-3	4.700080E-3	1.298185E-2	5.728780E-3	1.281614E-2	-4.418599E-4	9.555588E-3	6.497398E-3	1.158491E-3	2.465760E-3	2.126564E-2	1.167718E-2	8.544437E-3	1.784014E-2	1.269831E-2	1.537149E-2	2.711718E-3	6.543637E-3	8.268722E-3	9.647413E-3	2.528729E-4	5.308103E-3	4.920357E-3	3.156914E-3	1.487825E-2	1.052300E-2	1.352754E-2	1.404406E-2	1.152586E-2	1.343306E-2	1.314219E-2	1.052787E-2	7.917444E-3	-8.346123E-4	1.590787E-2	8.123964E-3	7.870338E-3	4.218850E-3	9.712839E-3	6.177494E-3	1.481873E-2	8.763288E-3	9.095540E-3	9.905663E-3	1.279525E-2	7.960260E-3	6.352275E-3	5.753740E-3	1.073463E-2	2.962837E-3	1.229674E-2	7.590094E-3	6.425677E-3	6.697185E-3	5.424626E-3	1.277143E-2	8.794313E-3	2.284977E-2	9.339782E-3	1.240379E-2	1.429987E-2	4.200081E-3	2.280716E-2	1.291198E-2	1.012865E-2	1.495949E-2	4.438171E-3	1.119762E-2	6.843374E-3	3.617437E-3	4.347704E-3	9.335197E-3	-2.036580E-3	1.042399E-2	1.160546E-2	3.532220E-3	1.220094E-2	1.285847E-2	1.388324E-2	1.264991E-2	1.176450E-2	1.190271E-2	1.561149E-2	1.603120E-2	1.390748E-2	1.196178E-2	1.491558E-2	8.545649E-3	5.640734E-3	2.961975E-3	1.594521E-2	1.601745E-2	1.941089E-2	1.282629E-2	2.763491E-3	1.659096E-2	1.102329E-2	8.587892E-3	7.300270E-3	1.042820E-2	1.101199E-2	5.355692E-3	1.365159E-2	1.229923E-2	1.152502E-2	3.677660E-3	8.114653E-3	1.519723E-2	1.786211E-2	1.359084E-2	4.920015E-3	7.062633E-3	2.703440E-2	4.533674E-3	9.305059E-3	1.255336E-2	1.104569E-2	1.002718E-2	1.088192E-2	1.167144E-2	7.044106E-3	1.808804E-2	2.022366E-2	2.174146E-2	9.192471E-4	-4.862611E-4
5.330280E+2	1.506713E-2	1.396468E-2	2.835984E-2	1.559827E-2	2.455171E-2	1.649119E-2	2.405946E-2	2.919592E-2	2.789635E-2	2.240833E-2	3.282022E-2	1.350502E-2	2.482224E-2	2.759135E-2	4.468297E-2	1.800838E-2	2.284964E-2	1.827724E-2	3.821793E-2	2.097408E-2	2.178433E-2	2.518128E-2	1.262819E-2	1.975146E-2	3.052752E-2	1.231701E-2	2.969124E-2	1.795683E-2	2.566015E-2	2.483785E-2	3.773964E-2	2.878775E-2	3.366054E-2	2.400606E-2	3.939446E-2	3.466182E-2	1.494995E-2	2.938201E-2	1.923849E-2	2.294983E-2	2.209142E-2	1.543871E-2	2.869519E-2	3.513909E-2	1.184008E-2	2.011743E-2	2.162045E-2	2.107363E-2	5.728789E-3	2.002348E-2	2.444935E-2	2.152272E-2	4.966254E-3	2.106691E-2	2.150266E-2	2.174155E-2	2.962173E-2	1.229039E-2	2.338520E-2	2.475397E-2	2.870320E-2	2.168672E-2	2.545429E-2	2.503013E-2	1.731525E-2	2.921731E-2	2.196239E-2	2.036302E-2	1.403248E-2	1.125572E-2	2.356259E-2	3.588439E-2	2.480662E-2	2.698058E-2	2.143861E-2	1.611596E-2	2.244792E-2	2.124903E-2	8.538500E-3	1.888154E-2	2.638076E-2	1.614360E-2	1.102953E-2	2.975383E-2	2.282275E-2	2.824857E-2	2.620501E-2	4.393982E-2	2.213995E-2	3.273133E-2	1.937286E-2	2.413285E-2	3.285547E-2	2.560385E-2	2.160996E-2	1.892658E-2	1.711073E-2	2.014162E-2	2.479793E-2	1.908864E-2	2.308945E-2	3.089079E-2	2.227732E-2	3.065132E-2	3.278169E-2	1.946396E-2	2.183494E-2	1.789728E-2	3.155637E-2	1.862445E-2	2.943175E-2	2.276798E-2	1.490952E-2	2.022972E-2	2.269842E-2	3.118954E-2	1.660205E-2	2.373679E-2	1.922336E-2	2.695979E-2	2.134904E-2	1.631506E-2	2.479489E-2	2.608088E-2	2.040887E-2	1.701130E-2	2.079272E-2	1.916597E-2	1.429900E-2	2.161822E-2	3.137991E-2	2.359676E-2	2.105729E-2	2.480287E-2	2.530807E-2	3.941110E-2	3.552729E-2	8.956892E-3	2.412699E-2	1.838061E-2	2.667559E-2	2.814031E-2	2.978586E-2	1.401809E-2	2.658263E-2	1.566499E-2	2.445134E-2	2.412554E-2	3.312760E-2	2.805927E-2	2.784848E-2	3.790753E-2	1.791453E-2	4.217245E-2	1.574621E-2	2.547329E-2	2.501615E-2	2.430264E-2	1.665880E-2	3.239700E-2	2.222197E-2	2.352537E-2	3.395199E-2	2.244655E-2	1.502059E-2	1.648288E-2	2.815240E-2	3.685607E-2	2.762440E-2	1.631141E-2	5.180002E-2
5.331630E+2	3.495445E-2	3.560213E-2	4.650434E-2	2.254659E-2	1.507725E-2	2.791577E-2	3.554749E-2	2.724101E-2	3.293950E-2	2.083714E-2	3.919623E-2	3.227854E-2	2.482223E-2	2.611394E-2	4.008249E-2	3.225385E-2	4.443985E-2	3.408049E-2	4.062180E-2	3.850618E-2	3.538355E-2	3.685125E-2	3.295379E-2	2.524222E-2	3.471738E-2	3.425360E-2	4.508543E-2	3.513670E-2	4.740188E-2	2.974036E-2	2.632168E-2	3.175470E-2	4.285114E-2	2.818653E-2	2.506976E-2	3.202712E-2	2.779478E-2	2.595921E-2	3.609098E-2	2.250871E-2	3.135883E-2	1.975934E-2	3.840586E-2	4.303626E-2	2.131213E-2	3.293362E-2	3.744919E-2	2.152316E-2	3.816241E-2	2.113232E-2	2.809191E-2	1.989087E-2	2.487097E-2	3.178682E-2	2.802961E-2	3.411305E-2	3.595508E-2	2.673920E-2	3.385930E-2	2.992068E-2	3.403593E-2	3.466969E-2	3.626036E-2	3.544936E-2	1.635681E-2	2.980846E-2	3.368206E-2	3.408987E-2	2.639105E-2	3.350843E-2	4.227158E-2	3.345427E-2	3.146915E-2	4.129050E-2	3.859334E-2	2.563178E-2	3.653522E-2	3.831345E-2	3.040893E-2	3.226310E-2	2.932539E-2	2.496841E-2	3.146166E-2	3.291817E-2	4.451203E-2	3.031468E-2	3.656111E-2	4.197682E-2	3.388487E-2	3.010818E-2	3.763300E-2	2.814778E-2	3.043563E-2	4.303671E-2	5.037990E-2	2.981846E-2	2.425124E-2	3.624300E-2	4.350184E-2	3.056636E-2	3.340748E-2	2.575208E-2	2.399468E-2	3.994096E-2	3.643925E-2	2.692314E-2	1.899065E-2	2.526211E-2	1.717356E-2	3.933308E-2	2.885292E-2	3.600615E-2	2.074256E-2	2.504874E-2	4.356820E-2	4.013683E-2	1.950880E-2	3.305907E-2	2.684943E-2	3.278384E-2	3.865680E-2	2.505753E-2	2.991055E-2	3.888837E-2	2.868503E-2	3.642446E-2	3.282036E-2	4.201626E-2	2.815689E-2	4.178496E-2	3.080881E-2	1.954556E-2	2.442584E-2	3.205343E-2	3.332976E-2	3.784669E-2	2.978912E-2	2.347642E-2	2.469206E-2	4.151699E-2	3.039100E-2	4.580951E-2	2.924233E-2	3.033277E-2	3.062122E-2	2.613414E-2	3.340247E-2	3.168993E-2	2.247125E-2	2.640582E-2	3.086980E-2	3.311934E-2	3.313142E-2	3.312677E-2	3.999422E-2	4.300401E-2	2.026375E-2	3.632259E-2	3.036529E-2	2.846649E-2	3.132179E-2	3.884132E-2	2.939489E-2	3.111990E-2	3.798609E-2	3.116534E-2	3.507177E-2	4.453253E-2	2.930526E-2	2.015944E-2	5.179999E-2
5.333130E+2	2.847950E-2	2.874150E-2	4.067214E-2	3.007392E-2	4.086884E-2	3.238623E-2	2.950115E-2	3.310572E-2	4.694826E-2	4.073883E-2	4.731113E-2	3.697188E-2	4.386568E-2	3.941100E-2	5.592861E-2	4.779445E-2	4.056467E-2	3.295172E-2	5.744877E-2	4.868607E-2	3.266375E-2	3.031604E-2	4.311660E-2	2.873631E-2	2.738515E-2	4.936543E-2	5.464036E-2	3.352606E-2	5.413146E-2	2.974035E-2	4.807011E-2	4.192712E-2	4.540407E-2	5.065692E-2	3.302798E-2	4.309276E-2	3.372314E-2	2.400325E-2	5.294346E-2	4.412878E-2	4.013853E-2	2.894064E-2	4.872336E-2	3.513911E-2	2.019776E-2	3.962035E-2	5.000306E-2	4.040393E-2	3.713278E-2	5.051591E-2	4.569785E-2	3.784156E-2	3.814095E-2	3.842295E-2	3.455655E-2	3.268558E-2	5.020517E-2	3.637168E-2	5.727195E-2	3.566155E-2	4.150169E-2	5.514273E-2	4.490520E-2	3.726137E-2	4.463208E-2	3.808405E-2	4.355127E-2	2.379474E-2	3.825528E-2	4.799856E-2	5.361028E-2	3.977253E-2	5.555699E-2	4.186299E-2	6.089442E-2	3.931092E-2	5.008075E-2	3.564714E-2	4.759286E-2	3.176752E-2	4.581551E-2	4.482424E-2	4.451548E-2	5.401387E-2	3.442400E-2	3.444696E-2	6.163362E-2	4.639369E-2	4.611913E-2	2.905891E-2	4.219806E-2	3.617773E-2	4.301871E-2	4.560038E-2	5.251098E-2	2.697709E-2	4.686279E-2	4.757361E-2	3.686502E-2	4.368387E-2	4.114599E-2	4.065431E-2	2.571196E-2	4.267328E-2	4.636691E-2	3.782496E-2	4.402072E-2	4.244673E-2	4.221031E-2	4.835989E-2	5.085073E-2	4.262527E-2	3.505995E-2	4.111229E-2	3.104631E-2	3.775084E-2	3.452692E-2	3.689769E-2	4.327491E-2	3.807843E-2	3.560248E-2	3.585712E-2	4.412054E-2	3.583897E-2	4.058199E-2	4.219598E-2	3.804980E-2	3.947732E-2	3.104396E-2	3.466725E-2	4.680018E-2	3.459300E-2	2.586947E-2	4.603659E-2	2.931897E-2	4.514719E-2	4.528223E-2	5.483850E-2	3.260255E-2	3.457608E-2	4.896788E-2	5.133109E-2	4.609195E-2	4.856683E-2	5.427585E-2	4.125629E-2	5.488505E-2	4.681891E-2	3.990892E-2	3.853098E-2	5.081076E-2	3.577937E-2	2.987063E-2	3.708427E-2	5.292656E-2	6.174377E-2	3.188080E-2	4.834263E-2	4.038167E-2	3.731024E-2	4.554029E-2	4.224483E-2	4.876256E-2	4.094983E-2	3.798606E-2	3.326283E-2	4.953938E-2	6.244437E-2	3.602875E-2	4.068242E-2	5.634670E-2
5.334520E+2	3.726697E-2	5.987829E-2	4.715242E-2	5.091888E-2	4.402699E-2	5.424203E-2	5.368650E-2	5.167727E-2	5.311229E-2	5.068965E-2	5.484633E-2	4.688010E-2	5.055665E-2	6.354255E-2	6.410735E-2	4.693110E-2	5.661887E-2	4.593301E-2	5.564588E-2	5.151374E-2	5.224650E-2	5.132208E-2	4.819801E-2	4.221357E-2	5.147666E-2	5.326532E-2	7.321937E-2	3.459981E-2	6.241401E-2	3.464285E-2	6.220660E-2	4.743717E-2	5.204172E-2	5.013427E-2	6.857447E-2	4.572743E-2	4.508590E-2	5.431968E-2	5.022529E-2	5.295327E-2	3.184662E-2	4.784338E-2	4.872334E-2	4.416444E-2	4.081347E-2	5.243659E-2	8.002290E-2	5.838572E-2	5.154776E-2	6.160429E-2	5.662564E-2	4.056142E-2	5.192102E-2	4.301720E-2	5.250562E-2	5.695297E-2	5.495520E-2	5.670709E-2	6.220085E-2	5.690243E-2	6.443234E-2	4.515587E-2	6.489645E-2	5.130463E-2	5.229990E-2	5.581739E-2	5.650461E-2	5.925554E-2	4.863649E-2	4.799844E-2	5.984663E-2	4.997876E-2	5.760697E-2	5.445572E-2	7.004362E-2	5.239524E-2	5.441529E-2	5.804427E-2	6.633896E-2	4.762716E-2	5.700519E-2	5.861308E-2	4.962353E-2	6.350698E-2	3.694601E-2	6.130667E-2	7.689507E-2	6.406120E-2	4.758723E-2	6.316025E-2	5.418132E-2	6.141471E-2	5.124578E-2	5.585500E-2	6.955983E-2	6.107341E-2	4.745782E-2	5.592248E-2	6.280922E-2	4.532350E-2	5.713893E-2	5.350111E-2	5.433393E-2	4.103390E-2	5.420459E-2	4.012009E-2	5.198487E-2	5.165280E-2	6.671447E-2	5.313889E-2	7.053300E-2	4.975361E-2	4.354433E-2	3.736415E-2	6.384167E-2	5.087354E-2	4.663834E-2	3.634931E-2	6.732651E-2	5.925672E-2	5.850972E-2	6.105604E-2	4.582576E-2	4.925634E-2	6.075514E-2	5.478817E-2	6.210512E-2	5.014080E-2	5.645011E-2	5.720669E-2	5.251142E-2	6.121528E-2	5.859239E-2	5.535867E-2	6.656247E-2	5.818365E-2	4.585598E-2	5.774244E-2	6.763472E-2	3.862497E-2	5.958329E-2	5.077893E-2	6.022398E-2	4.328856E-2	5.312194E-2	5.463356E-2	5.667529E-2	5.962032E-2	5.589351E-2	6.223017E-2	6.410477E-2	5.972005E-2	4.508744E-2	5.404499E-2	6.208693E-2	5.509413E-2	5.564284E-2	4.724992E-2	7.359376E-2	4.074940E-2	5.009019E-2	5.926255E-2	5.445898E-2	6.003139E-2	4.851190E-2	5.528656E-2	4.702328E-2	5.284875E-2	5.703940E-2	4.966125E-2	8.135296E-2
5.336080E+2	7.102931E-2	7.623829E-2	7.242512E-2	5.960428E-2	6.192325E-2	6.914359E-2	7.363946E-2	7.855723E-2	5.927622E-2	6.378290E-2	9.252266E-2	5.939568E-2	8.658462E-2	6.600505E-2	8.608729E-2	6.635691E-2	6.492271E-2	7.528189E-2	7.067001E-2	5.773482E-2	8.434036E-2	6.579274E-2	7.473418E-2	9.063191E-2	7.504448E-2	7.617679E-2	8.595948E-2	7.432815E-2	8.312013E-2	6.569208E-2	7.579925E-2	7.541125E-2	5.459466E-2	7.364978E-2	7.334935E-2	7.628940E-2	6.781149E-2	6.312119E-2	7.686300E-2	8.030935E-2	5.233250E-2	8.618871E-2	7.846213E-2	7.518885E-2	6.755815E-2	7.305396E-2	8.438968E-2	7.097276E-2	6.647736E-2	7.324675E-2	7.301743E-2	6.721553E-2	6.927389E-2	7.058261E-2	8.078904E-2	7.598624E-2	9.506642E-2	6.633950E-2	7.945234E-2	8.216176E-2	7.936369E-2	7.461707E-2	8.218624E-2	7.123708E-2	7.099029E-2	7.355072E-2	7.069143E-2	6.955092E-2	6.692722E-2	7.853128E-2	7.968927E-2	7.525181E-2	7.349463E-2	7.162768E-2	7.919279E-2	7.796919E-2	8.367359E-2	6.817635E-2	1.043521E-1	6.299112E-2	8.115114E-2	6.909237E-2	6.948797E-2	7.932888E-2	6.166170E-2	8.093489E-2	7.744015E-2	7.191344E-2	7.792811E-2	7.837438E-2	8.442473E-2	6.772395E-2	6.963628E-2	6.610972E-2	1.025918E-1	5.112857E-2	7.780490E-2	7.262002E-2	7.849640E-2	5.898761E-2	6.590904E-2	7.970857E-2	6.692745E-2	6.944924E-2	8.085265E-2	7.856346E-2	7.872156E-2	6.638254E-2	7.097592E-2	7.437828E-2	9.889874E-2	6.859256E-2	5.627098E-2	6.092402E-2	8.650024E-2	5.683835E-2	5.778080E-2	8.405753E-2	9.196470E-2	8.096457E-2	6.919981E-2	7.134123E-2	6.856181E-2	4.803657E-2	7.472128E-2	6.790529E-2	7.308696E-2	7.908425E-2	5.991463E-2	7.025561E-2	7.021599E-2	6.005781E-2	7.880342E-2	7.452070E-2	7.343828E-2	7.956389E-2	7.167788E-2	6.587343E-2	7.384999E-2	6.581023E-2	9.673690E-2	7.231325E-2	7.544293E-2	6.776060E-2	8.312303E-2	8.138825E-2	7.875461E-2	8.347733E-2	7.720621E-2	6.939508E-2	9.190122E-2	9.004471E-2	7.063019E-2	8.513945E-2	8.849019E-2	6.416177E-2	7.465245E-2	8.057810E-2	8.255572E-2	6.629791E-2	5.464012E-2	1.023740E-1	9.034609E-2	7.680010E-2	6.621442E-2	7.573728E-2	7.470039E-2	7.459882E-2	7.552881E-2	6.120534E-2	7.225974E-2
5.337580E+2	8.906635E-2	9.259826E-2	1.249146E-1	8.276535E-2	1.050848E-1	8.801914E-2	1.062897E-1	1.117905E-1	1.237167E-1	1.077760E-1	1.174468E-1	9.068498E-2	1.076867E-1	9.358403E-2	1.213577E-1	9.441615E-2	1.036745E-1	1.068886E-1	1.289633E-1	1.046757E-1	1.235061E-1	8.259763E-2	1.097394E-1	1.200823E-1	9.180384E-2	1.034754E-1	1.156863E-1	8.882353E-2	1.121095E-1	9.674111E-2	1.160339E-1	1.004183E-1	1.148440E-1	8.932674E-2	1.019987E-1	9.631279E-2	9.251308E-2	9.734975E-2	1.073064E-1	1.045767E-1	8.354893E-2	1.034712E-1	1.069871E-1	8.308597E-2	1.015460E-1	1.220896E-1	1.029473E-1	1.051385E-1	8.295172E-2	1.054028E-1	1.155142E-1	1.031169E-1	1.157181E-1	8.998057E-2	1.068965E-1	1.069149E-1	1.072057E-1	1.091509E-1	1.176519E-1	9.938404E-2	9.962802E-2	9.808611E-2	1.005564E-1	9.751171E-2	8.009593E-2	1.113819E-1	1.144861E-1	9.014102E-2	9.807078E-2	9.043393E-2	1.233436E-1	1.000387E-1	1.150074E-1	9.395116E-2	1.094992E-1	9.700116E-2	1.020956E-1	9.003989E-2	1.074763E-1	8.529374E-2	8.821831E-2	1.148711E-1	1.001360E-1	9.567800E-2	9.343891E-2	9.229834E-2	1.123236E-1	9.988707E-2	9.065185E-2	1.014586E-1	1.386343E-1	9.697593E-2	1.131925E-1	1.143065E-1	1.201734E-1	9.564339E-2	8.732563E-2	1.250986E-1	1.183177E-1	1.065384E-1	1.020225E-1	1.223599E-1	1.012734E-1	1.033292E-1	8.712282E-2	1.061050E-1	1.367456E-1	9.031828E-2	9.761080E-2	9.774210E-2	1.180019E-1	9.354144E-2	8.119383E-2	8.020024E-2	1.133326E-1	1.081362E-1	9.508384E-2	1.010569E-1	1.212959E-1	1.164383E-1	9.668838E-2	1.109398E-1	9.982387E-2	1.120741E-1	1.109297E-1	1.292930E-1	1.347935E-1	9.787209E-2	1.020658E-1	1.171135E-1	1.176191E-1	9.015249E-2	9.179647E-2	9.368303E-2	1.204223E-1	1.296244E-1	1.003688E-1	1.007200E-1	1.218779E-1	9.588742E-2	1.232755E-1	1.070995E-1	1.297965E-1	1.027889E-1	1.090854E-1	1.011630E-1	1.145589E-1	1.061708E-1	8.447189E-2	1.162425E-1	1.064037E-1	1.118572E-1	1.043244E-1	1.083190E-1	1.235152E-1	1.058730E-1	1.079195E-1	1.051644E-1	1.331646E-1	8.349420E-2	1.018456E-1	9.670136E-2	1.005996E-1	7.853476E-2	8.583063E-2	1.061507E-1	1.332000E-1	1.200182E-1	9.990125E-2	1.035338E-1	1.040862E-1
5.339190E+2	1.385537E-1	1.406231E-1	1.819403E-1	1.644078E-1	1.671951E-1	1.665013E-1	1.842879E-1	1.831442E-1	1.808731E-1	1.512458E-1	1.980165E-1	1.543062E-1	2.142272E-1	1.792764E-1	1.826978E-1	1.673705E-1	1.761955E-1	1.605067E-1	1.980743E-1	1.883775E-1	1.735516E-1	1.479494E-1	1.876540E-1	1.854724E-1	1.593646E-1	1.434492E-1	1.884099E-1	1.661331E-1	2.058062E-1	1.544821E-1	1.894353E-1	1.449228E-1	1.689667E-1	1.765948E-1	1.683170E-1	1.806219E-1	1.547611E-1	1.628724E-1	1.758035E-1	1.857624E-1	1.440314E-1	1.704408E-1	1.949895E-1	1.953383E-1	1.628359E-1	1.599812E-1	1.695376E-1	1.478447E-1	1.411263E-1	1.475380E-1	1.829027E-1	1.760076E-1	1.402165E-1	1.639991E-1	1.830443E-1	1.782897E-1	1.710672E-1	1.594543E-1	1.903543E-1	1.619593E-1	1.812184E-1	1.754844E-1	1.805214E-1	1.586683E-1	1.184351E-1	1.811330E-1	1.786358E-1	1.753616E-1	1.618411E-1	1.587445E-1	1.692658E-1	1.982148E-1	1.821454E-1	1.786658E-1	1.958444E-1	1.612330E-1	1.795758E-1	1.700295E-1	1.637146E-1	1.551755E-1	1.665463E-1	1.777482E-1	1.977559E-1	1.858625E-1	1.509408E-1	1.723609E-1	1.804557E-1	1.695756E-1	1.860789E-1	1.722844E-1	1.705896E-1	1.801429E-1	1.872383E-1	1.768598E-1	1.787788E-1	1.415785E-1	1.593255E-1	1.692284E-1	1.895136E-1	1.890689E-1	1.654781E-1	1.845382E-1	1.671040E-1	1.617996E-1	1.754269E-1	1.554501E-1	1.822554E-1	1.486236E-1	2.009541E-1	1.789836E-1	1.845743E-1	1.668605E-1	1.692192E-1	1.412418E-1	2.015819E-1	1.612235E-1	1.449832E-1	1.668615E-1	1.993172E-1	1.985048E-1	1.878091E-1	1.690515E-1	1.930414E-1	1.687930E-1	1.973124E-1	1.885818E-1	2.043453E-1	1.694699E-1	1.788614E-1	1.776138E-1	2.124252E-1	1.694412E-1	1.654227E-1	1.687777E-1	1.696983E-1	1.629981E-1	1.801297E-1	1.564750E-1	1.942029E-1	1.838058E-1	1.981141E-1	1.722547E-1	1.798019E-1	1.541324E-1	1.783184E-1	1.959674E-1	2.046665E-1	1.864703E-1	1.605198E-1	1.834818E-1	1.783117E-1	1.969794E-1	1.793218E-1	1.716393E-1	2.005699E-1	1.711598E-1	1.702284E-1	1.756455E-1	1.879911E-1	1.763535E-1	1.695256E-1	1.897318E-1	1.598421E-1	1.600649E-1	1.437230E-1	1.559664E-1	1.759737E-1	2.127753E-1	1.570502E-1	1.843427E-1	2.404852E-1
5.340690E+2	2.398408E-1	2.176735E-1	3.556097E-1	2.448925E-1	2.661507E-1	2.658455E-1	2.840523E-1	2.916417E-1	2.761335E-1	2.811300E-1	3.249565E-1	3.008437E-1	3.068712E-1	2.822051E-1	3.202012E-1	3.016237E-1	2.874683E-1	2.846757E-1	2.786031E-1	2.822589E-1	2.948556E-1	2.576476E-1	3.146891E-1	3.237396E-1	2.515408E-1	2.643440E-1	3.211181E-1	3.035716E-1	3.005378E-1	2.661499E-1	3.112267E-1	3.144633E-1	2.664887E-1	3.046233E-1	3.036062E-1	3.002353E-1	2.441808E-1	2.797377E-1	2.573481E-1	2.788607E-1	2.386568E-1	2.730556E-1	3.048408E-1	2.901038E-1	2.586708E-1	2.926012E-1	2.983506E-1	2.728182E-1	2.368825E-1	2.833686E-1	3.043225E-1	2.760966E-1	2.688317E-1	2.691567E-1	3.163027E-1	2.996264E-1	3.140955E-1	2.712984E-1	3.160428E-1	2.871082E-1	2.958707E-1	2.813452E-1	2.826388E-1	2.619548E-1	2.224305E-1	2.833952E-1	2.631409E-1	2.834603E-1	2.488455E-1	2.731132E-1	2.990945E-1	3.187474E-1	2.790090E-1	2.874218E-1	2.867648E-1	2.819661E-1	2.868561E-1	2.846811E-1	2.923337E-1	2.096932E-1	2.613638E-1	2.737177E-1	2.760796E-1	2.760468E-1	2.427418E-1	2.643036E-1	2.834709E-1	2.809795E-1	2.658464E-1	2.908514E-1	2.875688E-1	2.529860E-1	2.869343E-1	2.947882E-1	2.933256E-1	2.419732E-1	2.872599E-1	3.004246E-1	3.089778E-1	2.628545E-1	2.676267E-1	2.718963E-1	2.787293E-1	2.929476E-1	2.647758E-1	2.684853E-1	3.113879E-1	2.664611E-1	2.941761E-1	2.899602E-1	3.003528E-1	2.544357E-1	3.049695E-1	2.488678E-1	3.148753E-1	2.608360E-1	2.496253E-1	2.617295E-1	3.236813E-1	3.118088E-1	2.753655E-1	2.796185E-1	3.283204E-1	2.986979E-1	3.007648E-1	2.830245E-1	2.958597E-1	2.502073E-1	2.533478E-1	2.825989E-1	3.117997E-1	2.707216E-1	2.472299E-1	2.713212E-1	3.490402E-1	2.912780E-1	2.885809E-1	3.068968E-1	3.264210E-1	2.653621E-1	3.212523E-1	2.826866E-1	2.787261E-1	2.851295E-1	3.248619E-1	2.768127E-1	2.905968E-1	2.842266E-1	2.443179E-1	2.986702E-1	3.033960E-1	3.470069E-1	2.679060E-1	2.943215E-1	2.981005E-1	2.781573E-1	2.800620E-1	2.996702E-1	3.018608E-1	2.795302E-1	2.798612E-1	2.663109E-1	2.692122E-1	2.728197E-1	2.456324E-1	2.760484E-1	2.929733E-1	2.799452E-1	2.688274E-1	2.959359E-1	3.177779E-1
5.342040E+2	4.257637E-1	3.849681E-1	5.616799E-1	4.417611E-1	4.351114E-1	4.277769E-1	5.513007E-1	5.091245E-1	4.890683E-1	4.565792E-1	5.069624E-1	5.089163E-1	5.194369E-1	4.555595E-1	5.405135E-1	4.881106E-1	5.149952E-1	4.274700E-1	5.298061E-1	5.056520E-1	5.026511E-1	4.420336E-1	5.235907E-1	5.159149E-1	4.500332E-1	4.598235E-1	4.925769E-1	5.328155E-1	5.298611E-1	4.655181E-1	4.873891E-1	5.153690E-1	4.763403E-1	4.995398E-1	5.078661E-1	5.015228E-1	4.373470E-1	4.601704E-1	5.335122E-1	5.007969E-1	3.888863E-1	4.566819E-1	5.160464E-1	4.965576E-1	4.442125E-1	4.932032E-1	5.385105E-1	4.625255E-1	4.005954E-1	5.239831E-1	4.961666E-1	4.588676E-1	4.576716E-1	4.524162E-1	5.180941E-1	4.828206E-1	5.067359E-1	4.500359E-1	5.095056E-1	5.379815E-1	4.782496E-1	4.765884E-1	5.052439E-1	4.553901E-1	3.570976E-1	4.820089E-1	5.135720E-1	4.882187E-1	4.624017E-1	4.790798E-1	5.009246E-1	5.491201E-1	5.101485E-1	4.946299E-1	4.783253E-1	5.180795E-1	5.198389E-1	4.867878E-1	5.198908E-1	5.164782E-1	4.657230E-1	4.700699E-1	5.167237E-1	4.817304E-1	4.359279E-1	4.481892E-1	5.091235E-1	5.047686E-1	4.107000E-1	4.875892E-1	4.815827E-1	4.870016E-1	4.882611E-1	4.875759E-1	5.437305E-1	4.583898E-1	4.943336E-1	5.192843E-1	4.960178E-1	4.869439E-1	4.342623E-1	4.651119E-1	5.059864E-1	4.699976E-1	4.136916E-1	4.647189E-1	4.678261E-1	4.959988E-1	4.683681E-1	4.800546E-1	5.099114E-1	4.468991E-1	5.197305E-1	4.169996E-1	5.164177E-1	4.630444E-1	4.419545E-1	4.596911E-1	5.266534E-1	5.182979E-1	4.769493E-1	4.863530E-1	4.886098E-1	4.816618E-1	5.231877E-1	4.913225E-1	5.379819E-1	4.766784E-1	4.479355E-1	5.109575E-1	5.271127E-1	4.709677E-1	4.233556E-1	4.598349E-1	5.054630E-1	5.055998E-1	4.922865E-1	4.677736E-1	5.083624E-1	4.996178E-1	5.017134E-1	5.272943E-1	4.901617E-1	4.401194E-1	4.673664E-1	5.530824E-1	5.018423E-1	5.134881E-1	4.545389E-1	4.882638E-1	5.136824E-1	5.066110E-1	4.706162E-1	5.408171E-1	5.179494E-1	4.746225E-1	4.659345E-1	5.111131E-1	5.301279E-1	4.451049E-1	4.999634E-1	4.949153E-1	4.418123E-1	4.300975E-1	4.618905E-1	4.973348E-1	4.974066E-1	4.948869E-1	4.738916E-1	5.011653E-1	4.519029E-1
5.343650E+2	6.755126E-1	7.074191E-1	9.472518E-1	7.463285E-1	8.025100E-1	7.238231E-1	8.602694E-1	8.688261E-1	8.504973E-1	8.268557E-1	8.901010E-1	8.849080E-1	8.997903E-1	8.564410E-1	9.453558E-1	8.230966E-1	8.870110E-1	8.112633E-1	8.795670E-1	8.975792E-1	8.469819E-1	7.230469E-1	8.967905E-1	8.872900E-1	7.590328E-1	7.649859E-1	9.257368E-1	9.161407E-1	8.689287E-1	7.934410E-1	8.848417E-1	8.913247E-1	8.184347E-1	8.141239E-1	8.941030E-1	8.577285E-1	8.029307E-1	7.315515E-1	8.819783E-1	8.652494E-1	6.795910E-1	7.872098E-1	8.729118E-1	8.276729E-1	7.562337E-1	8.576289E-1	8.730974E-1	8.136190E-1	6.719058E-1	8.727072E-1	8.737840E-1	8.505199E-1	7.608364E-1	7.571684E-1	9.287473E-1	8.477821E-1	8.281544E-1	7.705853E-1	8.533011E-1	8.571693E-1	8.366063E-1	7.921733E-1	8.548204E-1	8.581173E-1	6.460801E-1	8.626852E-1	8.090311E-1	8.113705E-1	7.362678E-1	8.061422E-1	8.779379E-1	8.873889E-1	8.673636E-1	8.581030E-1	8.969000E-1	8.880099E-1	8.882765E-1	8.691376E-1	9.291812E-1	8.311938E-1	8.067129E-1	8.329904E-1	8.464753E-1	8.582891E-1	7.143573E-1	8.211252E-1	8.797609E-1	8.792226E-1	7.625572E-1	8.265038E-1	8.507798E-1	8.368773E-1	8.420360E-1	8.721246E-1	9.193376E-1	8.566534E-1	7.876894E-1	8.741112E-1	8.526005E-1	8.946775E-1	7.690828E-1	8.022110E-1	8.843679E-1	8.301086E-1	7.559359E-1	8.485788E-1	8.973197E-1	8.495116E-1	8.087618E-1	8.411281E-1	8.676657E-1	8.980156E-1	8.421375E-1	8.201950E-1	8.884961E-1	8.650750E-1	7.650872E-1	7.399081E-1	9.425698E-1	8.703880E-1	8.541568E-1	8.010827E-1	8.876272E-1	8.286845E-1	8.650978E-1	8.475803E-1	8.533150E-1	8.163861E-1	7.320226E-1	8.318453E-1	8.897740E-1	8.853508E-1	7.270051E-1	8.223617E-1	8.532609E-1	8.852252E-1	8.492010E-1	8.528300E-1	8.999323E-1	8.269972E-1	8.737831E-1	8.718432E-1	8.728121E-1	8.163164E-1	8.579566E-1	8.607598E-1	8.491441E-1	8.346874E-1	7.689021E-1	8.448532E-1	9.034372E-1	9.354140E-1	7.673448E-1	8.789005E-1	9.215440E-1	8.155652E-1	8.128602E-1	8.422105E-1	8.675204E-1	7.890277E-1	8.326771E-1	7.972621E-1	7.516951E-1	7.487018E-1	7.551786E-1	7.962282E-1	8.685334E-1	8.531230E-1	7.352652E-1	8.795568E-1	8.906536E-1
5.345160E+2	1.049672E+0	1.033564E+0	1.426137E+0	1.152805E+0	1.153066E+0	1.133120E+0	1.330069E+0	1.355108E+0	1.325680E+0	1.228032E+0	1.383951E+0	1.344338E+0	1.315658E+0	1.222851E+0	1.379334E+0	1.288450E+0	1.320478E+0	1.251498E+0	1.328486E+0	1.293465E+0	1.384423E+0	1.131964E+0	1.332096E+0	1.354502E+0	1.149209E+0	1.195918E+0	1.318022E+0	1.349933E+0	1.397458E+0	1.251554E+0	1.360046E+0	1.259651E+0	1.253457E+0	1.239492E+0	1.362574E+0	1.290864E+0	1.150728E+0	1.205860E+0	1.331558E+0	1.309563E+0	1.050289E+0	1.248435E+0	1.323848E+0	1.265398E+0	1.185820E+0	1.264406E+0	1.326126E+0	1.272602E+0	9.905786E-1	1.307920E+0	1.286006E+0	1.287319E+0	1.210480E+0	1.156358E+0	1.307307E+0	1.228924E+0	1.263046E+0	1.200840E+0	1.319706E+0	1.343415E+0	1.287752E+0	1.261057E+0	1.285441E+0	1.240460E+0	1.045290E+0	1.327300E+0	1.311743E+0	1.274651E+0	1.155964E+0	1.218075E+0	1.352468E+0	1.359313E+0	1.311707E+0	1.221577E+0	1.333199E+0	1.324550E+0	1.315232E+0	1.303748E+0	1.343157E+0	1.259899E+0	1.167139E+0	1.257686E+0	1.301656E+0	1.236955E+0	1.090639E+0	1.180631E+0	1.370310E+0	1.282631E+0	1.148183E+0	1.244111E+0	1.335244E+0	1.286553E+0	1.264532E+0	1.333069E+0	1.392442E+0	1.281438E+0	1.210168E+0	1.313024E+0	1.287619E+0	1.295306E+0	1.154459E+0	1.245682E+0	1.309115E+0	1.261259E+0	1.114900E+0	1.242768E+0	1.325678E+0	1.331294E+0	1.189641E+0	1.282383E+0	1.299519E+0	1.346586E+0	1.263707E+0	1.263017E+0	1.391757E+0	1.316018E+0	1.156527E+0	1.129251E+0	1.386058E+0	1.302426E+0	1.275652E+0	1.226893E+0	1.311084E+0	1.258650E+0	1.269081E+0	1.270472E+0	1.365273E+0	1.337877E+0	1.191067E+0	1.288563E+0	1.402068E+0	1.260378E+0	1.111018E+0	1.214926E+0	1.323675E+0	1.315955E+0	1.217018E+0	1.247762E+0	1.270030E+0	1.318068E+0	1.342451E+0	1.283755E+0	1.272857E+0	1.386848E+0	1.253161E+0	1.313844E+0	1.273426E+0	1.264698E+0	1.186924E+0	1.259315E+0	1.236995E+0	1.341871E+0	1.198309E+0	1.301222E+0	1.376331E+0	1.372921E+0	1.254835E+0	1.313177E+0	1.321948E+0	1.238094E+0	1.223969E+0	1.239155E+0	1.116263E+0	1.266795E+0	1.139371E+0	1.220972E+0	1.267966E+0	1.300919E+0	1.145394E+0	1.337472E+0	1.261204E+0
5.346620E+2	1.336882E+0	1.262077E+0	1.813006E+0	1.534385E+0	1.504145E+0	1.472382E+0	1.712802E+0	1.772480E+0	1.677020E+0	1.598305E+0	1.777526E+0	1.655664E+0	1.787112E+0	1.643923E+0	1.789292E+0	1.655811E+0	1.727923E+0	1.576593E+0	1.728728E+0	1.702923E+0	1.685778E+0	1.456390E+0	1.726191E+0	1.741350E+0	1.495918E+0	1.523993E+0	1.724638E+0	1.778891E+0	1.795538E+0	1.592551E+0	1.687361E+0	1.712322E+0	1.564404E+0	1.611036E+0	1.689921E+0	1.674474E+0	1.526193E+0	1.479196E+0	1.687637E+0	1.666957E+0	1.346845E+0	1.592463E+0	1.800882E+0	1.580722E+0	1.550772E+0	1.660035E+0	1.711476E+0	1.674044E+0	1.620719E+0	1.681595E+0	1.699441E+0	1.651231E+0	1.561107E+0	1.494288E+0	1.772354E+0	1.546300E+0	1.684743E+0	1.569017E+0	1.665965E+0	1.676954E+0	1.651977E+0	1.601111E+0	1.725792E+0	1.649073E+0	1.259988E+0	1.648272E+0	1.705896E+0	1.636125E+0	1.509422E+0	1.540484E+0	1.705100E+0	1.731603E+0	1.695571E+0	1.607945E+0	1.653995E+0	1.717679E+0	1.621356E+0	1.635438E+0	1.709752E+0	1.633097E+0	1.535219E+0	1.623917E+0	1.725058E+0	1.632503E+0	1.402360E+0	1.541685E+0	1.676086E+0	1.679663E+0	1.518145E+0	1.653330E+0	1.718137E+0	1.659946E+0	1.619756E+0	1.666859E+0	1.718500E+0	1.689170E+0	1.501739E+0	1.708401E+0	1.698504E+0	1.655490E+0	1.489282E+0	1.564282E+0	1.710967E+0	1.661806E+0	1.452964E+0	1.620316E+0	1.664719E+0	1.637548E+0	1.523640E+0	1.692305E+0	1.615596E+0	1.719292E+0	1.621639E+0	1.627122E+0	1.688106E+0	1.722225E+0	1.533918E+0	1.482951E+0	1.793761E+0	1.700054E+0	1.584136E+0	1.584309E+0	1.667476E+0	1.686786E+0	1.664784E+0	1.648766E+0	1.666488E+0	1.691804E+0	1.496515E+0	1.562001E+0	1.747598E+0	1.631354E+0	1.460864E+0	1.567613E+0	1.747108E+0	1.668985E+0	1.629593E+0	1.605521E+0	1.694373E+0	1.648338E+0	1.661445E+0	1.655914E+0	1.617456E+0	1.627252E+0	1.673175E+0	1.609886E+0	1.647578E+0	1.665032E+0	1.511458E+0	1.625271E+0	1.704098E+0	1.773867E+0	1.476560E+0	1.659092E+0	1.689397E+0	1.646761E+0	1.555822E+0	1.633346E+0	1.670936E+0	1.597742E+0	1.494690E+0	1.642472E+0	1.542923E+0	1.598695E+0	1.388163E+0	1.494169E+0	1.693190E+0	1.678986E+0	1.429459E+0	1.640187E+0	1.565828E+0
5.348280E+2	1.751277E+0	1.602471E+0	2.312627E+0	1.880639E+0	1.838912E+0	1.814130E+0	2.091910E+0	2.153687E+0	2.072633E+0	1.997910E+0	2.147329E+0	2.099449E+0	2.147904E+0	2.040371E+0	2.274387E+0	2.059436E+0	2.078347E+0	2.018520E+0	2.189068E+0	2.080145E+0	2.131289E+0	1.814426E+0	2.134958E+0	2.182111E+0	1.869335E+0	1.890089E+0	2.151429E+0	2.160066E+0	2.159975E+0	1.916661E+0	2.191381E+0	2.089551E+0	2.029039E+0	2.008705E+0	2.110116E+0	2.072306E+0	1.851761E+0	1.845928E+0	2.132870E+0	2.053915E+0	1.623407E+0	1.978081E+0	2.163817E+0	1.991935E+0	1.997630E+0	2.047864E+0	2.167235E+0	2.043571E+0	2.087658E+0	2.122348E+0	2.057629E+0	2.029286E+0	1.892857E+0	1.866935E+0	2.150917E+0	2.084943E+0	2.085330E+0	1.874580E+0	2.059053E+0	2.081682E+0	1.988469E+0	1.897218E+0	2.022416E+0	2.042287E+0	1.588270E+0	2.012990E+0	2.048236E+0	1.951843E+0	1.851999E+0	1.938960E+0	2.151848E+0	2.140343E+0	2.061500E+0	1.943368E+0	2.065134E+0	2.127456E+0	2.080280E+0	2.049249E+0	2.076338E+0	2.005303E+0	1.902712E+0	1.996214E+0	2.057079E+0	2.040184E+0	1.756956E+0	1.945097E+0	2.101775E+0	2.023687E+0	1.885665E+0	2.078809E+0	2.086192E+0	2.091841E+0	1.994342E+0	2.100117E+0	2.158577E+0	1.974255E+0	1.856384E+0	2.048320E+0	2.166707E+0	2.065410E+0	1.836996E+0	1.953797E+0	2.064735E+0	2.051424E+0	1.790506E+0	1.980074E+0	2.024242E+0	2.132838E+0	1.895997E+0	2.023641E+0	1.977979E+0	2.132729E+0	1.975865E+0	2.002471E+0	2.125778E+0	2.055658E+0	1.842033E+0	1.849809E+0	2.179171E+0	2.077030E+0	1.910437E+0	1.956120E+0	2.051713E+0	2.049057E+0	2.019106E+0	1.970925E+0	2.121444E+0	2.063501E+0	1.805432E+0	2.029986E+0	2.093693E+0	2.062522E+0	1.820813E+0	1.880943E+0	1.998067E+0	2.061649E+0	1.949208E+0	1.974897E+0	2.021529E+0	1.982659E+0	2.047843E+0	2.090464E+0	2.048485E+0	2.018323E+0	2.014726E+0	2.041450E+0	2.064104E+0	1.955974E+0	1.827275E+0	1.989027E+0	2.060014E+0	2.136698E+0	1.855893E+0	2.048055E+0	2.067130E+0	2.029417E+0	1.918060E+0	2.060055E+0	2.033109E+0	1.974087E+0	1.819443E+0	1.971483E+0	1.755397E+0	1.927710E+0	1.746523E+0	1.861758E+0	2.068715E+0	2.030825E+0	1.753865E+0	1.953161E+0	1.888640E+0
5.349740E+2	1.813715E+0	1.832565E+0	2.478519E+0	2.032923E+0	2.025767E+0	1.943276E+0	2.338602E+0	2.298349E+0	2.213842E+0	2.136178E+0	2.308471E+0	2.304392E+0	2.326506E+0	2.156102E+0	2.374576E+0	2.255854E+0	2.295359E+0	2.125194E+0	2.312263E+0	2.194389E+0	2.290669E+0	1.891916E+0	2.344989E+0	2.355815E+0	1.932709E+0	2.005621E+0	2.233179E+0	2.335092E+0	2.280070E+0	2.149801E+0	2.228897E+0	2.264601E+0	2.145453E+0	2.135166E+0	2.303232E+0	2.160830E+0	2.005901E+0	1.981376E+0	2.224200E+0	2.216285E+0	1.791682E+0	2.064491E+0	2.305227E+0	2.210235E+0	2.090678E+0	2.217263E+0	2.221813E+0	2.195963E+0	2.197830E+0	2.258182E+0	2.250687E+0	2.176156E+0	2.145492E+0	1.977707E+0	2.331493E+0	2.192002E+0	2.205134E+0	1.993379E+0	2.249435E+0	2.221756E+0	2.217776E+0	2.076485E+0	2.226650E+0	2.185889E+0	1.687473E+0	2.127666E+0	2.265352E+0	2.147450E+0	1.991901E+0	2.134060E+0	2.273176E+0	2.219083E+0	2.171175E+0	2.186639E+0	2.309875E+0	2.239864E+0	2.184311E+0	2.239090E+0	2.325244E+0	2.181248E+0	1.956893E+0	2.096594E+0	2.242100E+0	2.153039E+0	1.855819E+0	2.122267E+0	2.275101E+0	2.230789E+0	2.026602E+0	2.135467E+0	2.228851E+0	2.118800E+0	2.094523E+0	2.233427E+0	2.272586E+0	2.140001E+0	1.967061E+0	2.205753E+0	2.176963E+0	2.193303E+0	1.967005E+0	2.108469E+0	2.281113E+0	2.184761E+0	1.927403E+0	2.129262E+0	2.121520E+0	2.277682E+0	2.014259E+0	2.220640E+0	2.181747E+0	2.331303E+0	2.152975E+0	2.097787E+0	2.326125E+0	2.187483E+0	1.899196E+0	1.984707E+0	2.283003E+0	2.221039E+0	2.045337E+0	2.086233E+0	2.139245E+0	2.231411E+0	2.146359E+0	2.157182E+0	2.214007E+0	2.258490E+0	1.986742E+0	2.198435E+0	2.146239E+0	2.222254E+0	1.955556E+0	2.034753E+0	2.204342E+0	2.146127E+0	2.089796E+0	2.137515E+0	2.181997E+0	2.167752E+0	2.221405E+0	2.187644E+0	2.086530E+0	2.180033E+0	2.139923E+0	2.154866E+0	2.179873E+0	2.178833E+0	1.939166E+0	2.095396E+0	2.162738E+0	2.226609E+0	1.932521E+0	2.179222E+0	2.256801E+0	2.222857E+0	2.041623E+0	2.199927E+0	2.167010E+0	2.146542E+0	1.980395E+0	2.118967E+0	1.935975E+0	2.076894E+0	1.824508E+0	1.903185E+0	2.186348E+0	2.140214E+0	1.869003E+0	2.071167E+0	2.054592E+0
5.351090E+2	1.837301E+0	1.761323E+0	2.395575E+0	1.996445E+0	2.055771E+0	1.866284E+0	2.215253E+0	2.237743E+0	2.174055E+0	2.041384E+0	2.274849E+0	2.151598E+0	2.252904E+0	2.133451E+0	2.320392E+0	2.118142E+0	2.187961E+0	2.078346E+0	2.226926E+0	2.180813E+0	2.200370E+0	1.863906E+0	2.282319E+0	2.292924E+0	1.953135E+0	1.935422E+0	2.287323E+0	2.223954E+0	2.198279E+0	2.101319E+0	2.201715E+0	2.166692E+0	2.116858E+0	2.167565E+0	2.236915E+0	2.081264E+0	1.971812E+0	1.915363E+0	2.217130E+0	2.115242E+0	1.768759E+0	2.056931E+0	2.226937E+0	2.177520E+0	2.044992E+0	2.038391E+0	2.236554E+0	2.123589E+0	2.149438E+0	2.197750E+0	2.199083E+0	2.077697E+0	2.050562E+0	1.963925E+0	2.163428E+0	2.076852E+0	2.254748E+0	1.956995E+0	2.168105E+0	2.148851E+0	2.184711E+0	2.104944E+0	2.198558E+0	2.100273E+0	1.691306E+0	2.056138E+0	2.125335E+0	2.071950E+0	1.883145E+0	1.970009E+0	2.163754E+0	2.210332E+0	2.086099E+0	2.117381E+0	2.177214E+0	2.226779E+0	2.095453E+0	2.099374E+0	2.252868E+0	2.056847E+0	1.985159E+0	2.132997E+0	2.169454E+0	2.089225E+0	1.844216E+0	2.002951E+0	2.119761E+0	2.115949E+0	1.911109E+0	2.089301E+0	2.113013E+0	2.134861E+0	2.100331E+0	2.159081E+0	2.247546E+0	2.063284E+0	1.962298E+0	2.135385E+0	2.126285E+0	2.038632E+0	1.942242E+0	2.055029E+0	2.126554E+0	2.046508E+0	1.853730E+0	2.090244E+0	2.114125E+0	2.197279E+0	1.978565E+0	2.118159E+0	2.100122E+0	2.180083E+0	2.086163E+0	2.097247E+0	2.234295E+0	2.195236E+0	1.969928E+0	1.952901E+0	2.283592E+0	2.185565E+0	2.002575E+0	2.043031E+0	2.089228E+0	2.103944E+0	2.036697E+0	2.047524E+0	2.203026E+0	2.183847E+0	1.889156E+0	2.152169E+0	2.193070E+0	2.082197E+0	1.885778E+0	1.945678E+0	2.108656E+0	2.080423E+0	2.080036E+0	2.041105E+0	2.062775E+0	2.116852E+0	2.190090E+0	2.077212E+0	2.001198E+0	2.092221E+0	2.077615E+0	2.074602E+0	2.085586E+0	2.099119E+0	1.897997E+0	2.053510E+0	2.096871E+0	2.202134E+0	1.878176E+0	2.130033E+0	2.225007E+0	2.091682E+0	2.017332E+0	2.155668E+0	2.090041E+0	2.077266E+0	1.961055E+0	2.092877E+0	1.859072E+0	2.002302E+0	1.848429E+0	1.899513E+0	2.081299E+0	2.113985E+0	1.799247E+0	2.016012E+0	2.106877E+0
5.352600E+2	1.636578E+0	1.516448E+0	2.100080E+0	1.689564E+0	1.852599E+0	1.651698E+0	1.943170E+0	1.949400E+0	1.900603E+0	1.770614E+0	1.961845E+0	1.904415E+0	1.985268E+0	1.883268E+0	2.000915E+0	1.885899E+0	1.956557E+0	1.800096E+0	1.927047E+0	1.882207E+0	1.969188E+0	1.610434E+0	1.964447E+0	2.007401E+0	1.676082E+0	1.728246E+0	1.951305E+0	1.881971E+0	2.008303E+0	1.796822E+0	1.909738E+0	1.876781E+0	1.968789E+0	1.824240E+0	1.981191E+0	1.895255E+0	1.909562E+0	1.676252E+0	1.982283E+0	1.846536E+0	1.575117E+0	1.771231E+0	1.999345E+0	1.860507E+0	1.805965E+0	1.767579E+0	1.962005E+0	1.847118E+0	2.052653E+0	1.912784E+0	1.892495E+0	1.834545E+0	2.048011E+0	1.692353E+0	1.945862E+0	1.868912E+0	2.033079E+0	1.687816E+0	1.921039E+0	1.843439E+0	1.860481E+0	1.779875E+0	1.917061E+0	1.827558E+0	1.494338E+0	1.837427E+0	1.858249E+0	1.870622E+0	1.773400E+0	1.720054E+0	1.936413E+0	2.003777E+0	1.929789E+0	1.828319E+0	1.875861E+0	1.887775E+0	1.869515E+0	1.847143E+0	1.961781E+0	1.802103E+0	1.820851E+0	1.795444E+0	1.885108E+0	1.769097E+0	1.732240E+0	1.806151E+0	1.929535E+0	1.874985E+0	1.735426E+0	1.857409E+0	1.889895E+0	1.790720E+0	1.875286E+0	1.900153E+0	1.980096E+0	1.825557E+0	1.782003E+0	1.855103E+0	1.901229E+0	1.874116E+0	1.692543E+0	1.798092E+0	1.879834E+0	1.823008E+0	1.649950E+0	1.815975E+0	1.843915E+0	1.920482E+0	1.766551E+0	1.864876E+0	1.851198E+0	1.898008E+0	1.818373E+0	1.857364E+0	1.971934E+0	1.859413E+0	1.715106E+0	1.646910E+0	2.039556E+0	1.919249E+0	1.746523E+0	1.688192E+0	1.857888E+0	1.877677E+0	1.856687E+0	1.831882E+0	1.876187E+0	1.913198E+0	1.647800E+0	1.839587E+0	1.976046E+0	1.857645E+0	1.664419E+0	1.821384E+0	1.835342E+0	1.855669E+0	1.821248E+0	1.833188E+0	1.933380E+0	1.841527E+0	1.937973E+0	1.869048E+0	1.901728E+0	1.834061E+0	1.814527E+0	1.819853E+0	1.813474E+0	1.847745E+0	1.653384E+0	1.882105E+0	1.880545E+0	1.926025E+0	1.694486E+0	1.875625E+0	1.893083E+0	1.868620E+0	1.794499E+0	1.809821E+0	1.893406E+0	1.803110E+0	1.689196E+0	1.816052E+0	1.656849E+0	1.746724E+0	1.612557E+0	1.698678E+0	1.881895E+0	1.846588E+0	1.610992E+0	1.800522E+0	1.938651E+0
5.354110E+2	1.390995E+0	1.281604E+0	1.790972E+0	1.501957E+0	1.544150E+0	1.424696E+0	1.629364E+0	1.676689E+0	1.684866E+0	1.571599E+0	1.717240E+0	1.670265E+0	1.710936E+0	1.620283E+0	1.710061E+0	1.645452E+0	1.766673E+0	1.545552E+0	1.681854E+0	1.685958E+0	1.697204E+0	1.381234E+0	1.699654E+0	1.670471E+0	1.502203E+0	1.451354E+0	1.662002E+0	1.691920E+0	1.685279E+0	1.516832E+0	1.593300E+0	1.619925E+0	1.721664E+0	1.599538E+0	1.656498E+0	1.600175E+0	1.634389E+0	1.416118E+0	1.653388E+0	1.620630E+0	1.326848E+0	1.544399E+0	1.675859E+0	1.588619E+0	1.579189E+0	1.600411E+0	1.665623E+0	1.555817E+0	1.737069E+0	1.615618E+0	1.693371E+0	1.628386E+0	1.790782E+0	1.452939E+0	1.732107E+0	1.615772E+0	1.675241E+0	1.433090E+0	1.661653E+0	1.632750E+0	1.623715E+0	1.568153E+0	1.642582E+0	1.582030E+0	1.322289E+0	1.615763E+0	1.615839E+0	1.532601E+0	1.634983E+0	1.499600E+0	1.709069E+0	1.704387E+0	1.655085E+0	1.536966E+0	1.611679E+0	1.632034E+0	1.650075E+0	1.609305E+0	1.677465E+0	1.591961E+0	1.624152E+0	1.545043E+0	1.547977E+0	1.577654E+0	1.555697E+0	1.530325E+0	1.627573E+0	1.625679E+0	1.475079E+0	1.621849E+0	1.666209E+0	1.622091E+0	1.620725E+0	1.651990E+0	1.691332E+0	1.510638E+0	1.685015E+0	1.633855E+0	1.614635E+0	1.617232E+0	1.643538E+0	1.537045E+0	1.676623E+0	1.537762E+0	1.432063E+0	1.529658E+0	1.562893E+0	1.689105E+0	1.534296E+0	1.643985E+0	1.651484E+0	1.685176E+0	1.627474E+0	1.594994E+0	1.721500E+0	1.636925E+0	1.538279E+0	1.408372E+0	1.723951E+0	1.638635E+0	1.527121E+0	1.523626E+0	1.643601E+0	1.644707E+0	1.591336E+0	1.578986E+0	1.686359E+0	1.664892E+0	1.505181E+0	1.610637E+0	1.695053E+0	1.623253E+0	1.470005E+0	1.519449E+0	1.658293E+0	1.630919E+0	1.605493E+0	1.575323E+0	1.599444E+0	1.621153E+0	1.687982E+0	1.635482E+0	1.561475E+0	1.636370E+0	1.629906E+0	1.601160E+0	1.633257E+0	1.602192E+0	1.459146E+0	1.618658E+0	1.595327E+0	1.633946E+0	1.384714E+0	1.634784E+0	1.653292E+0	1.683034E+0	1.550013E+0	1.621872E+0	1.643523E+0	1.606584E+0	1.438954E+0	1.522785E+0	1.402789E+0	1.570942E+0	1.361851E+0	1.472672E+0	1.618960E+0	1.590708E+0	1.393321E+0	1.654296E+0	1.497629E+0
5.355630E+2	1.143097E+0	1.124864E+0	1.439746E+0	1.206075E+0	1.328341E+0	1.189748E+0	1.430441E+0	1.383454E+0	1.353697E+0	1.299258E+0	1.377574E+0	1.369367E+0	1.444330E+0	1.336613E+0	1.461634E+0	1.309171E+0	1.412928E+0	1.310196E+0	1.395193E+0	1.324002E+0	1.432289E+0	1.174908E+0	1.425820E+0	1.395435E+0	1.223580E+0	1.191043E+0	1.393399E+0	1.349932E+0	1.371058E+0	1.270617E+0	1.404084E+0	1.372821E+0	1.405099E+0	1.354978E+0	1.394938E+0	1.347774E+0	1.330556E+0	1.168694E+0	1.381027E+0	1.344861E+0	1.073702E+0	1.275441E+0	1.467688E+0	1.304323E+0	1.329015E+0	1.320683E+0	1.386167E+0	1.294181E+0	1.460094E+0	1.379437E+0	1.393463E+0	1.309080E+0	1.430451E+0	1.175243E+0	1.405758E+0	1.286499E+0	1.424550E+0	1.296094E+0	1.399802E+0	1.342840E+0	1.359743E+0	1.301501E+0	1.392963E+0	1.344197E+0	1.138742E+0	1.329074E+0	1.369107E+0	1.310112E+0	1.323547E+0	1.247575E+0	1.418797E+0	1.421037E+0	1.354757E+0	1.320029E+0	1.315475E+0	1.384027E+0	1.314691E+0	1.357604E+0	1.379091E+0	1.312932E+0	1.330272E+0	1.248858E+0	1.361817E+0	1.327669E+0	1.349906E+0	1.286522E+0	1.402467E+0	1.320420E+0	1.220118E+0	1.350087E+0	1.374619E+0	1.334162E+0	1.286793E+0	1.386909E+0	1.383915E+0	1.326425E+0	1.444019E+0	1.339263E+0	1.341923E+0	1.323184E+0	1.364951E+0	1.270346E+0	1.386968E+0	1.318088E+0	1.228284E+0	1.281210E+0	1.323969E+0	1.375483E+0	1.269012E+0	1.359374E+0	1.354514E+0	1.380190E+0	1.391500E+0	1.311739E+0	1.384599E+0	1.336298E+0	1.328026E+0	1.215892E+0	1.495756E+0	1.345315E+0	1.312810E+0	1.243864E+0	1.387253E+0	1.326347E+0	1.360638E+0	1.290412E+0	1.376779E+0	1.435375E+0	1.415103E+0	1.331267E+0	1.368942E+0	1.333302E+0	1.355478E+0	1.277077E+0	1.387272E+0	1.361321E+0	1.337519E+0	1.306419E+0	1.314102E+0	1.389214E+0	1.403489E+0	1.343941E+0	1.364168E+0	1.276005E+0	1.384131E+0	1.317332E+0	1.337276E+0	1.340343E+0	1.323034E+0	1.278050E+0	1.349994E+0	1.379112E+0	1.218417E+0	1.382630E+0	1.391956E+0	1.384407E+0	1.296023E+0	1.351968E+0	1.346721E+0	1.363380E+0	1.293924E+0	1.363386E+0	1.231330E+0	1.245401E+0	1.251808E+0	1.250337E+0	1.376157E+0	1.352096E+0	1.127745E+0	1.319515E+0	1.388510E+0
5.357190E+2	9.802983E-1	9.280160E-1	1.240804E+0	1.061319E+0	1.093587E+0	1.034274E+0	1.192213E+0	1.161084E+0	1.172143E+0	1.130094E+0	1.234984E+0	1.134701E+0	1.199338E+0	1.180003E+0	1.259724E+0	1.191754E+0	1.256814E+0	1.122250E+0	1.250963E+0	1.187141E+0	1.221233E+0	1.004526E+0	1.249100E+0	1.224721E+0	1.035561E+0	1.058935E+0	1.228842E+0	1.161491E+0	1.229737E+0	1.124631E+0	1.166485E+0	1.164286E+0	1.261626E+0	1.133410E+0	1.184312E+0	1.130151E+0	1.168513E+0	9.980435E-1	1.215224E+0	1.137046E+0	9.893181E-1	1.144742E+0	1.154520E+0	1.203915E+0	1.093885E+0	1.153516E+0	1.227333E+0	1.152574E+0	1.243357E+0	1.214225E+0	1.203439E+0	1.202462E+0	1.292139E+0	1.029250E+0	1.224637E+0	1.177056E+0	1.224520E+0	1.062772E+0	1.222359E+0	1.127560E+0	1.177898E+0	1.142714E+0	1.196291E+0	1.161182E+0	9.753198E-1	1.144054E+0	1.139649E+0	1.098490E+0	1.160412E+0	1.129066E+0	1.227738E+0	1.256278E+0	1.171792E+0	1.129419E+0	1.169087E+0	1.149103E+0	1.177610E+0	1.171497E+0	1.239012E+0	1.167220E+0	1.174205E+0	1.120900E+0	1.212551E+0	1.157320E+0	1.117374E+0	1.126395E+0	1.181723E+0	1.192823E+0	1.096798E+0	1.180632E+0	1.220548E+0	1.171841E+0	1.173549E+0	1.160279E+0	1.201709E+0	1.158311E+0	1.290500E+0	1.162147E+0	1.142210E+0	1.141723E+0	1.245259E+0	1.068911E+0	1.215235E+0	1.173825E+0	1.068396E+0	1.114240E+0	1.099836E+0	1.178475E+0	1.102810E+0	1.148041E+0	1.190686E+0	1.211658E+0	1.266356E+0	1.128616E+0	1.274289E+0	1.221176E+0	1.134243E+0	1.051382E+0	1.272252E+0	1.200772E+0	1.184022E+0	1.088042E+0	1.167849E+0	1.211689E+0	1.225113E+0	1.163439E+0	1.205255E+0	1.194177E+0	1.204347E+0	1.159258E+0	1.196467E+0	1.244173E+0	1.195711E+0	1.128955E+0	1.237729E+0	1.164208E+0	1.171112E+0	1.191425E+0	1.177365E+0	1.149750E+0	1.215600E+0	1.189336E+0	1.161974E+0	1.153165E+0	1.250855E+0	1.174835E+0	1.167206E+0	1.187308E+0	1.213565E+0	1.224040E+0	1.223701E+0	1.221104E+0	1.139073E+0	1.187586E+0	1.243235E+0	1.239929E+0	1.133386E+0	1.231221E+0	1.153251E+0	1.096592E+0	1.165957E+0	1.154634E+0	1.061008E+0	1.162135E+0	1.152770E+0	1.037965E+0	1.201289E+0	1.155705E+0	1.034458E+0	1.056566E+0	1.033871E+0
5.358650E+2	8.595862E-1	8.029403E-1	1.146841E+0	9.211943E-1	9.735768E-1	9.081066E-1	1.044078E+0	1.020331E+0	9.620082E-1	9.085568E-1	1.014143E+0	9.735607E-1	1.037727E+0	9.746367E-1	1.054233E+0	1.019945E+0	1.020427E+0	9.551865E-1	1.034015E+0	1.038967E+0	1.058586E+0	9.004310E-1	1.080286E+0	1.035041E+0	9.072476E-1	9.092800E-1	1.018632E+0	1.027809E+0	1.033545E+0	9.721104E-1	1.005002E+0	9.849955E-1	1.019096E+0	1.014266E+0	1.002865E+0	1.025820E+0	1.018823E+0	8.699319E-1	1.033651E+0	9.689372E-1	8.132371E-1	8.979255E-1	1.046489E+0	9.952052E-1	9.740914E-1	9.930345E-1	1.069592E+0	9.691603E-1	1.089940E+0	1.032377E+0	9.460288E-1	9.522404E-1	1.085437E+0	9.501269E-1	1.046776E+0	9.905324E-1	1.033462E+0	9.129324E-1	1.004868E+0	1.059245E+0	9.779227E-1	9.499655E-1	1.060136E+0	1.009424E+0	8.574261E-1	9.720407E-1	1.005181E+0	9.818121E-1	9.493299E-1	9.313788E-1	1.011169E+0	1.062355E+0	1.029829E+0	9.960507E-1	1.006119E+0	1.015285E+0	1.004768E+0	1.018984E+0	1.053114E+0	9.729393E-1	9.934041E-1	9.504711E-1	1.013905E+0	9.737889E-1	9.887513E-1	9.559398E-1	1.037282E+0	9.783574E-1	9.465607E-1	9.760242E-1	1.038517E+0	9.974762E-1	9.610895E-1	1.005948E+0	9.992537E-1	1.008193E+0	1.100086E+0	1.013656E+0	1.011886E+0	1.006176E+0	1.041994E+0	9.728150E-1	1.016028E+0	1.006066E+0	9.393365E-1	9.839909E-1	9.923202E-1	1.067388E+0	9.888133E-1	1.029629E+0	1.006599E+0	1.060948E+0	1.020840E+0	9.674442E-1	1.033391E+0	1.028512E+0	9.641996E-1	8.770006E-1	1.110930E+0	1.039815E+0	9.824376E-1	9.527906E-1	1.005854E+0	1.024456E+0	1.006311E+0	1.034891E+0	1.072951E+0	1.022546E+0	1.055952E+0	9.848750E-1	1.026271E+0	1.031773E+0	1.046533E+0	9.238693E-1	1.017705E+0	1.020285E+0	1.039708E+0	1.009060E+0	1.034976E+0	9.918444E-1	1.022929E+0	1.024792E+0	1.015220E+0	9.943383E-1	1.071425E+0	1.000349E+0	1.010861E+0	9.720115E-1	1.066797E+0	9.804343E-1	1.017645E+0	1.054053E+0	9.396213E-1	9.919719E-1	1.106907E+0	9.975217E-1	9.665216E-1	1.021417E+0	1.023038E+0	1.006191E+0	1.007280E+0	9.668727E-1	9.334094E-1	9.990746E-1	1.001579E+0	8.990053E-1	1.048435E+0	1.000895E+0	9.546172E-1	1.045022E+0	9.634001E-1
5.360120E+2	7.226874E-1	6.936976E-1	9.349392E-1	7.347485E-1	7.967200E-1	7.397179E-1	8.759891E-1	8.297281E-1	8.409712E-1	7.818148E-1	8.663360E-1	8.577912E-1	8.704529E-1	8.195046E-1	9.070194E-1	8.213700E-1	8.997440E-1	7.881227E-1	8.795675E-1	8.461135E-1	8.633012E-1	7.473204E-1	8.380728E-1	9.047600E-1	7.082312E-1	7.386621E-1	8.540741E-1	8.608433E-1	8.663399E-1	7.553106E-1	8.456946E-1	8.629271E-1	8.541761E-1	7.906089E-1	8.150516E-1	8.656321E-1	8.350432E-1	7.359528E-1	8.341385E-1	8.325992E-1	6.937357E-1	8.233944E-1	8.886925E-1	8.135710E-1	8.186378E-1	8.364542E-1	8.856510E-1	8.307015E-1	8.829815E-1	8.715984E-1	8.671056E-1	8.374648E-1	8.838379E-1	7.484899E-1	9.042716E-1	7.488094E-1	8.645717E-1	7.695148E-1	8.033957E-1	8.152611E-1	8.142090E-1	7.876794E-1	8.402319E-1	8.177986E-1	7.040688E-1	8.402232E-1	8.528255E-1	8.279572E-1	8.316762E-1	8.082125E-1	8.887100E-1	8.261507E-1	8.970890E-1	7.997181E-1	8.374304E-1	8.933629E-1	8.611857E-1	8.035459E-1	8.646118E-1	8.331763E-1	8.514715E-1	8.379544E-1	8.226383E-1	8.087145E-1	8.399533E-1	8.051126E-1	8.661343E-1	8.070802E-1	7.713660E-1	8.506370E-1	8.673288E-1	8.145084E-1	8.221929E-1	8.100835E-1	8.863057E-1	8.126129E-1	8.745649E-1	8.699365E-1	8.803544E-1	8.323697E-1	8.727789E-1	7.626429E-1	8.465875E-1	8.131688E-1	7.757911E-1	8.021026E-1	7.943552E-1	8.409197E-1	8.114248E-1	8.485618E-1	8.653501E-1	8.929239E-1	8.829685E-1	8.030609E-1	9.385828E-1	8.477774E-1	8.266130E-1	7.728108E-1	9.161714E-1	8.592693E-1	8.470299E-1	7.604555E-1	8.290821E-1	8.646670E-1	8.185445E-1	8.066551E-1	8.878295E-1	8.443135E-1	8.763759E-1	7.938846E-1	8.989121E-1	8.564131E-1	8.834007E-1	7.716080E-1	8.566983E-1	8.450728E-1	9.243706E-1	8.580571E-1	8.626396E-1	8.553400E-1	8.334445E-1	8.342968E-1	8.200891E-1	8.153568E-1	8.844963E-1	8.020161E-1	8.336296E-1	8.655270E-1	8.594816E-1	8.200518E-1	8.828917E-1	8.811484E-1	8.086477E-1	8.930345E-1	9.236997E-1	8.240282E-1	8.265893E-1	8.662498E-1	8.459066E-1	8.985917E-1	8.554265E-1	8.035025E-1	7.625187E-1	8.071030E-1	8.240754E-1	7.946553E-1	8.628724E-1	8.403292E-1	7.898931E-1	7.705281E-1	8.724669E-1
5.362730E+2	5.228884E-1	6.905312E-1	6.912831E-1	5.963605E-1	6.172317E-1	6.190149E-1	6.323217E-1	6.474332E-1	6.257949E-1	6.194589E-1	6.565078E-1	6.345946E-1	6.203155E-1	6.298983E-1	7.040866E-1	6.456746E-1	6.810743E-1	6.125933E-1	6.878593E-1	6.379905E-1	6.555060E-1	5.372607E-1	6.540135E-1	6.711543E-1	5.699670E-1	5.534197E-1	6.019291E-1	6.600536E-1	6.416758E-1	5.935281E-1	6.336475E-1	6.556634E-1	6.581100E-1	5.883759E-1	6.261777E-1	6.337827E-1	6.161865E-1	5.912156E-1	6.291904E-1	6.419895E-1	5.098505E-1	6.111445E-1	6.689888E-1	6.499878E-1	6.030091E-1	6.091054E-1	6.645942E-1	6.324533E-1	6.868354E-1	6.648032E-1	6.339792E-1	6.541498E-1	6.419182E-1	5.504270E-1	6.703890E-1	5.846483E-1	6.608479E-1	5.581341E-1	6.530616E-1	6.160560E-1	6.606269E-1	5.954322E-1	6.316749E-1	6.143968E-1	5.238737E-1	6.203288E-1	6.159650E-1	6.163354E-1	6.275120E-1	5.468727E-1	6.761087E-1	6.434076E-1	6.874746E-1	6.411639E-1	6.670274E-1	6.423806E-1	6.244101E-1	6.158371E-1	6.537177E-1	6.195662E-1	6.948165E-1	6.156797E-1	6.745054E-1	6.446946E-1	6.457587E-1	5.762887E-1	6.568336E-1	6.220616E-1	6.020438E-1	6.350116E-1	6.624720E-1	6.734112E-1	6.334492E-1	6.644685E-1	6.161878E-1	6.283980E-1	6.496400E-1	6.624073E-1	6.583199E-1	6.673089E-1	6.401070E-1	6.028287E-1	6.439443E-1	6.279222E-1	5.693995E-1	5.932457E-1	6.214194E-1	6.598671E-1	5.935519E-1	6.303253E-1	6.366884E-1	6.332516E-1	6.719191E-1	6.311806E-1	6.565432E-1	6.121655E-1	6.221725E-1	5.600427E-1	7.108529E-1	6.533099E-1	6.026855E-1	5.681214E-1	6.409415E-1	6.396210E-1	6.328471E-1	6.245914E-1	6.420466E-1	6.594805E-1	6.482982E-1	6.189086E-1	6.704635E-1	6.480648E-1	6.697395E-1	5.996669E-1	6.687617E-1	6.119782E-1	6.724645E-1	6.391031E-1	6.473611E-1	6.378571E-1	6.816448E-1	6.355182E-1	6.331119E-1	6.459720E-1	6.860283E-1	6.717337E-1	6.892183E-1	6.537218E-1	6.458694E-1	6.266005E-1	6.496432E-1	6.518506E-1	6.173504E-1	6.538883E-1	6.909189E-1	6.384440E-1	6.607836E-1	6.384161E-1	6.466341E-1	6.426148E-1	6.489736E-1	6.543139E-1	5.716897E-1	6.197566E-1	6.475285E-1	5.812343E-1	7.012119E-1	6.727259E-1	5.730623E-1	6.268674E-1	6.587748E-1
5.365140E+2	4.664639E-1	5.907881E-1	5.973213E-1	5.164553E-1	5.430154E-1	5.604014E-1	5.331619E-1	5.667941E-1	5.445435E-1	5.241402E-1	5.939072E-1	5.803600E-1	5.142895E-1	5.594733E-1	5.854959E-1	5.304153E-1	5.382462E-1	5.713922E-1	5.664647E-1	5.124382E-1	6.016530E-1	5.073851E-1	5.427874E-1	5.568467E-1	4.987398E-1	4.993095E-1	5.743250E-1	5.489218E-1	5.868037E-1	5.483163E-1	5.401291E-1	5.501247E-1	5.947973E-1	5.894213E-1	5.290879E-1	5.642279E-1	5.410936E-1	5.608996E-1	5.623239E-1	5.365368E-1	4.596116E-1	5.349926E-1	5.567097E-1	5.422479E-1	5.116308E-1	5.405666E-1	5.636182E-1	5.407461E-1	5.668824E-1	5.943933E-1	5.599129E-1	5.170712E-1	5.801626E-1	5.034630E-1	5.675902E-1	5.394443E-1	5.901252E-1	5.163932E-1	5.514017E-1	5.615181E-1	5.534400E-1	5.649721E-1	5.598145E-1	5.310434E-1	4.563006E-1	5.375736E-1	5.444130E-1	5.642881E-1	5.518779E-1	5.354881E-1	5.797288E-1	5.729349E-1	5.455113E-1	5.661792E-1	5.469443E-1	5.353271E-1	5.388030E-1	5.443802E-1	5.516548E-1	5.125131E-1	5.387502E-1	5.682466E-1	5.246699E-1	5.592571E-1	5.620283E-1	5.313508E-1	5.892467E-1	5.204731E-1	5.305958E-1	5.405774E-1	5.860082E-1	5.357546E-1	5.226226E-1	5.711508E-1	5.890166E-1	5.431573E-1	5.996564E-1	5.532763E-1	5.756608E-1	5.508919E-1	5.916127E-1	5.154709E-1	5.494921E-1	5.355716E-1	5.145357E-1	5.582455E-1	5.082154E-1	5.469387E-1	4.981992E-1	5.506762E-1	5.324881E-1	5.813172E-1	6.194220E-1	5.128454E-1	5.808154E-1	5.358155E-1	5.562862E-1	5.068507E-1	5.841419E-1	5.617139E-1	5.136012E-1	5.058952E-1	5.687543E-1	5.658256E-1	5.588790E-1	5.500867E-1	5.541929E-1	5.985466E-1	6.171178E-1	5.240070E-1	5.728018E-1	5.595161E-1	5.417355E-1	5.261253E-1	5.541662E-1	5.321947E-1	5.651610E-1	5.426939E-1	5.936828E-1	5.846442E-1	5.616905E-1	5.863759E-1	5.472329E-1	5.572006E-1	6.023711E-1	5.577360E-1	5.645000E-1	5.652759E-1	5.766025E-1	5.549515E-1	5.801528E-1	5.779009E-1	5.287668E-1	5.521244E-1	5.637507E-1	5.459544E-1	5.493656E-1	5.624713E-1	5.549053E-1	5.841483E-1	5.801561E-1	5.641205E-1	5.050423E-1	5.070022E-1	5.403562E-1	5.272240E-1	5.502455E-1	5.569383E-1	5.007857E-1	5.152748E-1	5.041899E-1
5.367710E+2	4.562889E-1	5.907881E-1	5.623276E-1	4.423403E-1	4.988012E-1	5.668589E-1	5.881834E-1	5.408912E-1	5.495869E-1	5.314726E-1	5.718815E-1	5.589798E-1	5.446563E-1	5.486388E-1	5.645382E-1	5.157384E-1	5.936061E-1	5.386570E-1	5.917054E-1	5.531578E-1	5.570480E-1	5.199894E-1	5.269782E-1	5.563474E-1	4.929789E-1	5.256332E-1	4.994779E-1	5.542903E-1	5.267551E-1	5.314301E-1	5.156619E-1	5.467343E-1	5.784580E-1	5.564998E-1	5.280267E-1	5.194392E-1	5.351655E-1	5.457407E-1	5.748270E-1	5.475670E-1	4.391253E-1	5.501151E-1	5.706689E-1	5.439404E-1	5.105170E-1	4.948740E-1	5.647101E-1	5.533334E-1	5.637930E-1	5.894028E-1	5.155945E-1	5.181594E-1	5.510708E-1	5.381753E-1	5.936975E-1	5.194593E-1	5.621529E-1	5.110417E-1	5.458567E-1	5.282218E-1	5.161111E-1	4.970617E-1	5.522503E-1	5.102047E-1	4.313797E-1	5.458489E-1	5.135722E-1	5.151005E-1	5.355645E-1	5.318655E-1	5.689571E-1	5.627287E-1	5.603738E-1	5.106570E-1	5.526626E-1	5.258110E-1	5.523486E-1	5.177167E-1	5.651941E-1	4.872372E-1	5.528842E-1	5.710037E-1	5.502097E-1	5.566200E-1	5.403388E-1	5.633760E-1	5.668997E-1	5.494282E-1	5.124891E-1	5.468732E-1	5.329396E-1	5.644331E-1	5.564994E-1	5.649981E-1	5.863525E-1	5.218467E-1	5.710946E-1	5.526798E-1	5.086881E-1	5.273898E-1	5.890327E-1	5.283179E-1	5.494921E-1	5.219105E-1	4.763923E-1	4.836537E-1	5.087846E-1	5.328227E-1	5.290958E-1	5.289056E-1	5.666427E-1	6.006654E-1	5.557889E-1	5.331931E-1	5.432500E-1	5.525171E-1	5.378772E-1	5.381078E-1	5.870752E-1	5.347110E-1	5.248006E-1	5.362366E-1	5.431760E-1	5.505786E-1	4.880140E-1	5.259512E-1	5.714500E-1	5.665562E-1	5.281959E-1	5.334963E-1	5.865094E-1	5.583583E-1	5.537664E-1	5.421803E-1	5.747938E-1	5.353233E-1	5.439299E-1	5.142353E-1	5.659959E-1	5.429986E-1	5.643445E-1	5.499331E-1	5.434288E-1	5.236115E-1	5.856400E-1	5.205121E-1	5.430175E-1	5.158155E-1	5.761183E-1	5.047977E-1	5.493343E-1	5.390640E-1	4.901802E-1	5.368597E-1	5.572852E-1	5.737621E-1	5.483094E-1	5.094741E-1	5.401445E-1	5.531951E-1	5.363631E-1	5.397289E-1	4.816871E-1	5.567294E-1	5.623644E-1	5.078218E-1	5.810678E-1	5.211148E-1	5.091895E-1	5.434934E-1	5.951219E-1
5.370010E+2	4.673889E-1	6.076756E-1	6.102808E-1	4.712916E-1	5.082755E-1	5.872242E-1	5.766955E-1	5.799893E-1	5.327762E-1	5.026679E-1	5.626071E-1	5.412484E-1	5.683315E-1	5.496236E-1	6.447914E-1	5.494095E-1	5.465503E-1	5.934041E-1	5.923063E-1	5.723868E-1	5.837019E-1	5.265247E-1	5.760990E-1	5.493590E-1	5.144520E-1	5.222204E-1	5.589312E-1	5.800599E-1	5.774860E-1	5.216243E-1	5.439346E-1	6.115833E-1	5.978607E-1	5.753121E-1	5.497794E-1	5.552701E-1	5.806166E-1	5.589430E-1	5.503644E-1	5.555091E-1	4.625382E-1	5.695586E-1	6.052632E-1	5.608626E-1	5.294605E-1	5.935033E-1	5.668931E-1	5.402966E-1	6.054941E-1	5.821963E-1	5.593053E-1	5.622202E-1	5.990469E-1	5.315396E-1	5.670460E-1	5.465819E-1	5.727085E-1	5.254906E-1	5.643401E-1	5.764442E-1	5.401088E-1	5.120415E-1	5.684593E-1	5.378380E-1	4.543836E-1	5.813161E-1	5.678523E-1	5.322588E-1	5.518783E-1	5.670558E-1	5.859651E-1	5.792533E-1	5.839488E-1	5.644627E-1	5.578093E-1	5.948017E-1	5.956936E-1	5.566449E-1	6.094556E-1	5.501802E-1	5.581847E-1	5.847925E-1	6.001552E-1	5.339426E-1	5.342857E-1	6.072812E-1	5.767103E-1	5.680773E-1	5.164040E-1	6.003856E-1	5.523407E-1	5.736101E-1	5.284301E-1	5.491036E-1	5.778283E-1	5.606790E-1	5.871607E-1	5.985988E-1	5.841076E-1	5.497986E-1	5.554997E-1	5.940931E-1	5.798313E-1	5.454079E-1	5.145356E-1	5.553763E-1	5.707904E-1	5.886731E-1	5.402824E-1	5.490835E-1	5.591169E-1	5.981192E-1	5.854844E-1	6.140458E-1	6.177851E-1	5.680257E-1	5.562861E-1	5.819777E-1	6.210991E-1	5.341816E-1	5.502532E-1	5.943483E-1	5.846693E-1	5.902205E-1	5.407747E-1	5.574321E-1	5.573303E-1	5.756965E-1	5.079870E-1	5.939966E-1	5.927912E-1	5.728271E-1	5.821578E-1	6.260791E-1	5.816697E-1	5.660898E-1	5.347490E-1	5.659256E-1	5.693859E-1	6.135645E-1	5.696523E-1	5.493810E-1	5.461464E-1	5.619992E-1	6.352575E-1	6.048466E-1	5.746448E-1	6.118263E-1	5.940404E-1	6.778564E-1	5.390621E-1	6.390827E-1	5.532219E-1	6.024409E-1	5.766831E-1	5.810158E-1	5.652073E-1	5.515440E-1	5.670305E-1	5.689170E-1	5.574063E-1	5.658223E-1	5.130171E-1	5.607776E-1	5.690627E-1	5.403333E-1	6.232125E-1	5.876442E-1	5.344025E-1	5.319489E-1	5.314694E-1
5.372640E+2	5.372265E-1	7.216686E-1	7.340526E-1	6.664229E-1	6.430235E-1	6.845822E-1	7.060868E-1	6.469447E-1	6.403643E-1	6.713083E-1	6.628840E-1	7.206400E-1	6.532553E-1	6.269439E-1	6.780169E-1	6.659639E-1	6.871632E-1	6.791930E-1	6.926675E-1	6.651374E-1	6.778084E-1	6.688984E-1	6.924060E-1	6.906214E-1	5.746809E-1	6.021675E-1	6.719986E-1	6.568327E-1	6.649707E-1	6.038773E-1	6.700760E-1	6.539681E-1	6.274746E-1	6.813927E-1	6.553580E-1	6.200827E-1	6.502744E-1	6.425584E-1	6.373450E-1	6.411071E-1	5.171674E-1	6.219460E-1	6.841619E-1	6.612688E-1	6.241817E-1	6.564700E-1	6.635030E-1	6.090768E-1	6.822020E-1	7.002853E-1	6.801188E-1	6.541494E-1	6.898937E-1	6.300599E-1	6.790919E-1	6.426994E-1	6.914594E-1	6.357293E-1	6.395074E-1	6.505003E-1	6.872906E-1	6.513579E-1	6.268119E-1	6.578864E-1	5.727562E-1	6.847603E-1	6.276844E-1	6.449331E-1	6.393767E-1	6.451987E-1	6.653369E-1	6.973558E-1	6.562123E-1	6.428806E-1	6.721737E-1	6.584390E-1	6.569197E-1	6.787620E-1	6.932927E-1	6.497986E-1	6.471130E-1	7.116492E-1	6.268306E-1	6.410031E-1	5.998579E-1	7.167857E-1	6.933524E-1	6.034124E-1	6.093844E-1	6.963941E-1	6.995627E-1	6.493212E-1	6.658744E-1	6.660060E-1	7.072925E-1	6.719653E-1	7.139039E-1	7.214461E-1	6.939187E-1	6.520049E-1	6.390758E-1	6.429112E-1	6.639794E-1	6.454081E-1	6.101550E-1	6.603784E-1	6.561207E-1	6.930085E-1	6.132616E-1	6.797066E-1	6.691060E-1	6.958787E-1	7.122201E-1	7.045375E-1	6.678728E-1	6.694284E-1	6.929029E-1	6.987806E-1	7.085064E-1	6.347791E-1	6.591901E-1	6.714882E-1	6.704983E-1	6.573077E-1	6.788836E-1	6.487266E-1	6.870198E-1	6.584651E-1	6.823653E-1	7.250805E-1	7.030175E-1	6.625330E-1	6.793640E-1	7.187826E-1	6.859509E-1	6.333586E-1	6.919748E-1	6.995043E-1	6.863487E-1	6.690918E-1	6.848292E-1	6.725131E-1	6.282200E-1	6.488512E-1	7.091051E-1	7.287324E-1	6.498339E-1	7.025998E-1	6.763851E-1	7.627330E-1	6.581032E-1	7.348451E-1	6.363712E-1	7.319076E-1	6.822973E-1	6.354218E-1	6.512784E-1	6.427867E-1	6.693026E-1	6.377017E-1	6.603485E-1	7.161448E-1	5.842220E-1	6.186004E-1	6.437005E-1	7.060361E-1	6.716476E-1	6.919165E-1	6.512222E-1	6.730452E-1	6.906005E-1
5.375160E+2	6.371253E-1	8.667974E-1	7.845979E-1	8.030728E-1	6.940799E-1	7.561099E-1	7.701784E-1	8.052919E-1	7.266591E-1	7.592948E-1	8.344563E-1	7.785248E-1	7.865596E-1	7.889705E-1	8.421008E-1	7.946056E-1	7.901321E-1	7.999751E-1	7.593742E-1	7.488389E-1	8.284870E-1	7.533889E-1	8.143599E-1	8.089220E-1	6.438128E-1	7.371995E-1	7.919670E-1	7.690381E-1	7.747142E-1	7.406031E-1	7.614199E-1	7.662889E-1	7.826935E-1	7.932215E-1	7.630584E-1	7.439113E-1	7.955202E-1	7.579567E-1	7.960845E-1	7.439127E-1	6.230105E-1	7.283413E-1	7.624539E-1	7.329072E-1	7.244739E-1	7.199940E-1	7.786706E-1	7.336005E-1	7.944328E-1	8.083956E-1	7.936461E-1	7.705575E-1	8.399453E-1	7.694197E-1	8.205094E-1	7.150261E-1	7.943768E-1	7.176057E-1	7.658120E-1	7.429272E-1	7.512829E-1	7.452352E-1	7.321713E-1	7.407868E-1	5.847378E-1	7.681070E-1	7.553676E-1	7.541758E-1	7.337962E-1	7.875126E-1	7.804248E-1	7.658843E-1	7.710131E-1	8.048691E-1	7.825354E-1	8.118826E-1	8.086290E-1	7.811487E-1	7.922303E-1	7.652767E-1	7.925786E-1	8.114797E-1	7.312612E-1	7.670499E-1	7.052782E-1	8.014973E-1	7.772903E-1	7.697818E-1	7.576637E-1	7.861066E-1	7.657562E-1	7.846831E-1	7.476634E-1	7.931636E-1	8.005287E-1	7.231101E-1	8.293417E-1	8.120911E-1	7.458066E-1	7.481998E-1	7.530895E-1	7.837117E-1	7.887711E-1	7.683602E-1	6.796492E-1	7.498882E-1	7.272289E-1	7.758635E-1	7.411090E-1	7.593557E-1	7.623072E-1	8.364073E-1	8.092605E-1	8.164471E-1	7.907059E-1	7.457778E-1	7.709007E-1	8.303888E-1	8.164451E-1	8.110891E-1	7.396206E-1	7.877116E-1	7.551900E-1	7.262244E-1	7.507834E-1	7.688783E-1	7.670300E-1	7.955665E-1	8.151703E-1	8.567571E-1	7.755502E-1	7.342980E-1	7.746457E-1	8.073431E-1	7.730440E-1	7.934484E-1	7.837856E-1	8.156605E-1	7.654537E-1	8.061748E-1	7.872680E-1	7.884670E-1	7.467121E-1	7.534569E-1	8.487253E-1	8.107406E-1	7.691815E-1	7.735894E-1	7.844023E-1	8.520181E-1	7.819789E-1	7.891101E-1	7.265857E-1	7.946625E-1	8.024595E-1	7.605549E-1	7.595282E-1	7.815635E-1	7.715746E-1	8.155593E-1	7.809218E-1	8.018008E-1	6.804902E-1	7.041785E-1	7.503944E-1	7.993743E-1	7.949373E-1	7.897919E-1	7.117330E-1	8.269666E-1	7.974465E-1
5.377580E+2	6.977122E-1	9.232666E-1	9.576197E-1	9.599893E-1	8.061945E-1	8.862508E-1	8.923144E-1	9.152552E-1	8.583427E-1	8.891791E-1	9.422686E-1	8.614412E-1	9.033939E-1	8.328013E-1	9.146862E-1	8.274131E-1	9.025120E-1	8.705258E-1	8.627403E-1	8.896610E-1	9.160658E-1	9.046321E-1	8.651733E-1	9.037617E-1	7.742210E-1	8.034964E-1	8.577901E-1	8.705068E-1	9.067179E-1	8.375636E-1	8.799485E-1	8.595359E-1	8.643876E-1	9.175918E-1	9.132027E-1	8.593090E-1	8.716009E-1	8.234791E-1	8.580582E-1	8.308344E-1	6.717867E-1	8.298755E-1	8.783743E-1	8.355700E-1	8.281099E-1	8.827035E-1	8.758263E-1	8.797019E-1	9.406411E-1	9.408997E-1	8.768190E-1	8.418162E-1	9.328339E-1	8.342495E-1	9.227647E-1	8.425483E-1	8.840999E-1	7.919910E-1	8.717849E-1	8.852989E-1	8.424719E-1	8.331193E-1	8.699489E-1	8.744252E-1	7.098198E-1	9.182492E-1	8.947696E-1	8.268129E-1	8.099248E-1	8.563408E-1	8.966477E-1	8.903055E-1	8.832517E-1	8.243304E-1	8.465798E-1	9.088257E-1	8.666038E-1	8.846022E-1	8.823158E-1	8.465577E-1	8.844521E-1	9.278574E-1	9.020956E-1	8.340294E-1	8.157418E-1	9.512907E-1	9.184598E-1	8.404519E-1	8.168777E-1	8.506365E-1	8.639045E-1	8.466283E-1	8.275165E-1	8.926341E-1	9.150758E-1	7.917761E-1	8.864663E-1	8.741112E-1	8.713043E-1	8.487671E-1	8.949620E-1	9.075547E-1	8.488769E-1	8.563382E-1	7.825836E-1	8.566116E-1	8.051637E-1	8.777434E-1	8.348640E-1	8.565269E-1	8.595612E-1	8.740850E-1	9.179664E-1	9.010483E-1	9.016139E-1	8.418118E-1	8.527737E-1	8.890645E-1	9.144114E-1	8.635054E-1	8.388851E-1	8.000541E-1	8.467025E-1	8.725954E-1	8.749258E-1	8.669932E-1	9.009026E-1	8.712260E-1	8.117057E-1	8.870072E-1	9.143320E-1	8.396294E-1	8.603024E-1	9.399244E-1	8.481038E-1	8.674962E-1	8.641196E-1	8.998733E-1	8.406030E-1	8.304680E-1	8.897059E-1	9.259549E-1	8.217195E-1	8.124771E-1	9.456522E-1	9.433501E-1	9.010609E-1	8.509798E-1	8.769188E-1	9.523261E-1	8.436144E-1	8.939167E-1	8.369077E-1	9.179099E-1	8.832864E-1	9.062408E-1	8.276456E-1	8.968464E-1	8.796452E-1	8.342294E-1	9.049068E-1	9.498543E-1	7.847340E-1	8.470003E-1	8.594803E-1	9.105417E-1	9.301785E-1	8.793512E-1	8.327553E-1	8.821223E-1	9.133874E-1
5.380160E+2	8.424735E-1	1.119059E+0	1.181835E+0	1.074057E+0	9.719976E-1	1.013412E+0	1.155331E+0	1.043301E+0	1.019164E+0	1.036347E+0	1.079642E+0	9.938989E-1	1.022286E+0	9.918739E-1	1.063435E+0	1.009150E+0	1.051982E+0	1.049442E+0	1.071274E+0	1.008427E+0	9.987494E-1	9.919248E-1	1.163847E+0	1.015074E+0	8.669207E-1	9.477908E-1	1.038804E+0	1.041232E+0	1.005073E+0	9.459635E-1	1.044693E+0	9.854191E-1	9.843761E-1	1.034646E+0	1.129134E+0	1.015808E+0	1.032655E+0	1.041074E+0	1.129329E+0	9.962932E-1	8.337228E-1	9.864980E-1	1.127209E+0	9.788468E-1	9.590475E-1	9.701886E-1	1.015556E+0	9.129685E-1	1.062653E+0	1.058435E+0	1.054092E+0	9.990205E-1	1.084927E+0	9.863699E-1	1.095729E+0	9.643606E-1	1.041378E+0	9.536034E-1	9.833032E-1	9.811703E-1	1.005119E+0	9.459707E-1	1.007186E+0	9.672926E-1	8.099813E-1	1.038836E+0	9.823592E-1	9.943946E-1	9.616884E-1	9.857168E-1	1.066162E+0	1.034653E+0	1.054941E+0	9.983396E-1	1.043859E+0	1.034912E+0	1.035110E+0	9.784559E-1	1.058321E+0	9.793829E-1	1.043463E+0	1.084497E+0	1.001986E+0	9.943572E-1	9.655496E-1	1.089205E+0	1.001308E+0	9.734501E-1	9.592847E-1	1.047375E+0	1.035664E+0	1.012963E+0	9.727041E-1	9.962057E-1	1.092490E+0	9.684150E-1	1.073309E+0	1.072098E+0	9.992159E-1	9.799409E-1	1.041478E+0	1.052980E+0	1.020035E+0	9.765572E-1	9.409039E-1	1.009238E+0	9.593260E-1	1.040998E+0	9.248897E-1	1.026974E+0	1.015862E+0	1.050256E+0	9.768266E-1	1.055794E+0	1.062013E+0	1.049985E+0	9.864838E-1	1.055221E+0	1.089225E+0	1.041933E+0	1.015017E+0	1.021188E+0	9.842550E-1	9.976212E-1	1.006311E+0	9.771767E-1	1.049418E+0	1.020514E+0	1.006871E+0	1.041816E+0	1.048545E+0	9.704262E-1	1.023435E+0	1.042986E+0	1.060105E+0	1.016635E+0	1.005279E+0	1.019514E+0	9.745172E-1	9.854819E-1	1.030891E+0	1.013749E+0	9.972821E-1	9.765837E-1	1.078926E+0	1.138193E+0	1.015635E+0	1.026709E+0	1.056139E+0	1.138612E+0	1.017645E+0	1.045009E+0	9.494042E-1	1.077906E+0	1.056254E+0	9.727365E-1	9.691617E-1	1.012676E+0	1.006168E+0	1.012578E+0	9.930612E-1	1.114926E+0	8.918260E-1	9.747893E-1	9.623468E-1	1.075721E+0	1.075483E+0	9.861818E-1	9.016691E-1	1.088634E+0	1.015686E+0
5.382690E+2	9.687351E-1	1.287408E+0	1.338006E+0	1.259346E+0	1.083060E+0	1.133618E+0	1.272630E+0	1.160105E+0	1.131796E+0	1.112288E+0	1.233244E+0	1.166510E+0	1.177721E+0	1.125829E+0	1.223940E+0	1.162829E+0	1.187613E+0	1.215377E+0	1.281011E+0	1.175830E+0	1.177171E+0	1.164173E+0	1.302738E+0	1.197267E+0	1.032419E+0	1.099884E+0	1.202831E+0	1.166322E+0	1.168136E+0	1.111559E+0	1.191495E+0	1.138006E+0	1.192694E+0	1.202391E+0	1.276626E+0	1.160715E+0	1.142823E+0	1.148648E+0	1.311444E+0	1.101746E+0	9.142029E-1	1.096134E+0	1.268013E+0	1.120431E+0	1.111157E+0	1.157974E+0	1.218055E+0	1.122456E+0	1.193419E+0	1.231967E+0	1.209509E+0	1.083879E+0	1.291627E+0	1.101227E+0	1.284467E+0	1.132329E+0	1.201295E+0	1.110935E+0	1.240226E+0	1.108616E+0	1.094708E+0	1.060820E+0	1.146583E+0	1.142609E+0	9.029541E-1	1.121001E+0	1.203182E+0	1.091626E+0	1.109003E+0	1.122857E+0	1.304844E+0	1.152271E+0	1.105167E+0	1.129992E+0	1.213119E+0	1.158024E+0	1.187362E+0	1.151766E+0	1.212458E+0	1.100808E+0	1.191285E+0	1.170541E+0	1.275550E+0	1.096144E+0	1.130992E+0	1.166170E+0	1.267296E+0	1.114299E+0	1.053733E+0	1.140758E+0	1.230249E+0	1.119073E+0	1.097567E+0	1.162331E+0	1.229414E+0	1.097224E+0	1.243492E+0	1.185404E+0	1.179618E+0	1.088160E+0	1.143110E+0	1.165519E+0	1.205506E+0	1.079837E+0	1.095044E+0	1.126863E+0	1.180047E+0	1.150243E+0	1.066587E+0	1.148040E+0	1.157111E+0	1.196385E+0	1.253629E+0	1.262479E+0	1.212275E+0	1.166896E+0	1.139573E+0	1.167637E+0	1.210658E+0	1.171650E+0	1.148388E+0	1.166725E+0	1.145113E+0	1.143993E+0	1.137177E+0	1.158715E+0	1.181199E+0	1.172849E+0	1.196840E+0	1.223909E+0	1.190755E+0	1.167200E+0	1.097544E+0	1.269306E+0	1.182150E+0	1.102156E+0	1.160784E+0	1.177486E+0	1.145722E+0	1.050842E+0	1.155092E+0	1.155102E+0	1.109795E+0	1.145009E+0	1.216238E+0	1.259751E+0	1.138563E+0	1.100026E+0	1.188860E+0	1.210261E+0	1.166296E+0	1.164711E+0	1.066791E+0	1.190977E+0	1.162946E+0	1.163761E+0	1.160844E+0	1.146535E+0	1.169593E+0	1.122634E+0	1.155721E+0	1.257306E+0	1.127656E+0	1.102577E+0	1.167600E+0	1.187412E+0	1.156628E+0	1.185771E+0	1.053787E+0	1.228445E+0	1.170270E+0
5.385170E+2	1.169458E+0	1.521201E+0	1.531117E+0	1.462582E+0	1.312025E+0	1.382477E+0	1.574947E+0	1.408378E+0	1.396282E+0	1.388816E+0	1.521904E+0	1.401700E+0	1.412417E+0	1.340553E+0	1.497414E+0	1.349318E+0	1.454445E+0	1.415738E+0	1.538826E+0	1.370943E+0	1.456225E+0	1.400372E+0	1.533095E+0	1.419395E+0	1.262336E+0	1.303164E+0	1.483109E+0	1.472875E+0	1.387625E+0	1.327813E+0	1.408981E+0	1.401217E+0	1.420929E+0	1.457925E+0	1.539777E+0	1.372541E+0	1.346861E+0	1.403403E+0	1.653935E+0	1.388986E+0	1.118085E+0	1.355373E+0	1.515633E+0	1.360731E+0	1.297812E+0	1.400367E+0	1.461488E+0	1.356667E+0	1.487895E+0	1.481451E+0	1.494240E+0	1.336276E+0	1.496804E+0	1.379433E+0	1.600477E+0	1.346452E+0	1.467824E+0	1.293418E+0	1.515633E+0	1.384747E+0	1.410936E+0	1.357429E+0	1.434567E+0	1.379534E+0	1.158390E+0	1.387594E+0	1.467184E+0	1.307822E+0	1.376937E+0	1.360392E+0	1.601918E+0	1.425411E+0	1.411645E+0	1.369827E+0	1.434987E+0	1.425657E+0	1.384584E+0	1.399200E+0	1.438972E+0	1.359023E+0	1.418612E+0	1.473892E+0	1.442979E+0	1.375665E+0	1.323675E+0	1.460074E+0	1.571434E+0	1.390601E+0	1.273949E+0	1.447147E+0	1.444234E+0	1.345056E+0	1.370035E+0	1.406903E+0	1.527769E+0	1.286649E+0	1.498762E+0	1.453164E+0	1.585676E+0	1.382755E+0	1.359276E+0	1.400871E+0	1.619951E+0	1.322461E+0	1.249705E+0	1.387362E+0	1.461636E+0	1.418445E+0	1.307898E+0	1.410878E+0	1.418192E+0	1.434668E+0	1.434455E+0	1.400090E+0	1.524725E+0	1.370297E+0	1.375017E+0	1.392466E+0	1.556179E+0	1.443263E+0	1.372372E+0	1.378088E+0	1.465122E+0	1.377578E+0	1.364773E+0	1.354422E+0	1.445807E+0	1.423695E+0	1.390273E+0	1.521072E+0	1.510011E+0	1.380179E+0	1.418516E+0	1.529809E+0	1.482390E+0	1.381657E+0	1.396621E+0	1.449872E+0	1.446321E+0	1.341203E+0	1.450728E+0	1.399159E+0	1.359277E+0	1.398367E+0	1.465477E+0	1.446451E+0	1.404113E+0	1.375256E+0	1.411676E+0	1.542049E+0	1.428549E+0	1.438167E+0	1.264066E+0	1.434083E+0	1.469010E+0	1.436393E+0	1.304999E+0	1.391850E+0	1.403657E+0	1.364361E+0	1.361605E+0	1.484207E+0	1.471719E+0	1.321146E+0	1.363287E+0	1.426003E+0	1.505740E+0	1.357213E+0	1.266415E+0	1.428543E+0	1.404422E+0
5.387650E+2	1.333185E+0	1.705910E+0	1.836332E+0	1.729514E+0	1.545204E+0	1.555830E+0	1.816800E+0	1.724585E+0	1.634435E+0	1.617160E+0	1.741006E+0	1.658271E+0	1.588441E+0	1.556262E+0	1.688592E+0	1.561707E+0	1.697475E+0	1.616667E+0	1.820676E+0	1.561537E+0	1.677077E+0	1.542749E+0	1.831769E+0	1.616061E+0	1.405836E+0	1.487431E+0	1.658817E+0	1.617830E+0	1.599867E+0	1.577295E+0	1.624831E+0	1.622467E+0	1.625674E+0	1.733315E+0	1.775869E+0	1.557492E+0	1.603754E+0	1.566235E+0	1.873014E+0	1.544736E+0	1.305385E+0	1.533596E+0	1.717127E+0	1.639947E+0	1.580861E+0	1.647219E+0	1.630151E+0	1.547726E+0	1.722137E+0	1.710424E+0	1.794757E+0	1.554403E+0	1.725451E+0	1.571883E+0	1.837081E+0	1.585318E+0	1.668913E+0	1.483392E+0	1.748528E+0	1.523675E+0	1.592249E+0	1.534694E+0	1.659331E+0	1.590633E+0	1.278200E+0	1.629359E+0	1.772512E+0	1.558913E+0	1.525240E+0	1.588609E+0	1.806018E+0	1.645580E+0	1.634067E+0	1.599931E+0	1.664289E+0	1.610621E+0	1.637072E+0	1.603438E+0	1.674859E+0	1.544876E+0	1.649474E+0	1.674107E+0	1.710865E+0	1.644106E+0	1.549644E+0	1.666169E+0	1.767655E+0	1.516728E+0	1.516187E+0	1.636540E+0	1.618849E+0	1.557277E+0	1.548130E+0	1.562773E+0	1.687067E+0	1.563207E+0	1.721310E+0	1.688127E+0	1.759442E+0	1.552189E+0	1.599168E+0	1.633140E+0	1.814005E+0	1.523552E+0	1.397578E+0	1.601380E+0	1.706249E+0	1.674375E+0	1.477828E+0	1.519202E+0	1.624278E+0	1.612367E+0	1.673606E+0	1.662995E+0	1.697052E+0	1.587419E+0	1.503398E+0	1.618399E+0	1.794347E+0	1.580921E+0	1.538322E+0	1.594591E+0	1.659515E+0	1.549565E+0	1.586680E+0	1.559572E+0	1.641914E+0	1.618174E+0	1.647798E+0	1.718587E+0	1.716756E+0	1.583900E+0	1.570101E+0	1.744216E+0	1.783205E+0	1.536013E+0	1.534913E+0	1.614235E+0	1.640127E+0	1.635615E+0	1.657731E+0	1.508487E+0	1.566911E+0	1.560553E+0	1.695100E+0	1.654674E+0	1.656529E+0	1.577171E+0	1.635943E+0	1.778488E+0	1.791110E+0	1.690339E+0	1.497755E+0	1.635349E+0	1.657068E+0	1.608075E+0	1.552652E+0	1.631707E+0	1.599241E+0	1.585948E+0	1.577729E+0	1.640207E+0	1.726346E+0	1.524685E+0	1.559929E+0	1.596427E+0	1.748542E+0	1.580472E+0	1.410129E+0	1.606837E+0	1.668127E+0
5.390240E+2	1.511243E+0	1.981391E+0	2.068324E+0	1.892797E+0	1.752061E+0	1.829028E+0	1.983077E+0	1.847252E+0	1.739216E+0	1.719813E+0	1.872583E+0	1.809507E+0	1.803583E+0	1.803484E+0	1.918104E+0	1.739128E+0	1.807084E+0	1.815333E+0	1.964308E+0	1.806421E+0	1.845704E+0	1.852233E+0	2.020908E+0	1.886107E+0	1.582331E+0	1.733121E+0	1.833990E+0	1.865329E+0	1.883541E+0	1.759779E+0	1.804255E+0	1.842446E+0	1.834505E+0	1.906283E+0	1.924953E+0	1.798830E+0	1.824588E+0	1.754980E+0	2.091010E+0	1.759614E+0	1.401962E+0	1.672936E+0	1.974458E+0	1.793378E+0	1.693967E+0	1.804357E+0	1.892141E+0	1.714055E+0	1.905416E+0	1.918879E+0	1.948959E+0	1.749145E+0	1.869891E+0	1.682653E+0	2.036698E+0	1.723785E+0	1.841496E+0	1.703870E+0	1.972795E+0	1.778567E+0	1.794892E+0	1.672015E+0	1.803057E+0	1.724727E+0	1.439225E+0	1.861665E+0	1.913765E+0	1.676732E+0	1.725450E+0	1.784226E+0	2.043561E+0	1.802077E+0	1.794999E+0	1.804275E+0	1.812387E+0	1.772985E+0	1.771442E+0	1.818879E+0	1.866490E+0	1.712893E+0	1.834984E+0	1.873766E+0	1.894186E+0	1.759078E+0	1.672718E+0	1.907907E+0	2.003664E+0	1.769469E+0	1.652723E+0	1.840097E+0	1.872208E+0	1.740244E+0	1.752361E+0	1.779664E+0	1.846899E+0	1.667389E+0	1.845674E+0	1.799642E+0	1.964582E+0	1.745123E+0	1.801400E+0	1.819161E+0	2.004054E+0	1.776017E+0	1.633754E+0	1.797615E+0	1.787596E+0	1.787301E+0	1.683983E+0	1.774609E+0	1.731950E+0	1.819086E+0	1.853901E+0	1.833270E+0	2.010100E+0	1.826013E+0	1.685553E+0	1.830067E+0	2.020785E+0	1.707461E+0	1.727690E+0	1.693330E+0	1.834580E+0	1.763022E+0	1.750652E+0	1.742162E+0	1.810297E+0	1.801485E+0	1.789843E+0	1.878734E+0	1.900658E+0	1.732634E+0	1.788571E+0	1.903212E+0	1.997495E+0	1.729479E+0	1.813216E+0	1.837833E+0	1.833937E+0	1.741464E+0	1.755921E+0	1.708368E+0	1.710946E+0	1.683393E+0	1.886645E+0	1.937340E+0	1.840925E+0	1.733115E+0	1.797242E+0	1.962572E+0	1.930700E+0	1.825473E+0	1.658616E+0	1.864317E+0	1.826264E+0	1.778546E+0	1.704729E+0	1.713116E+0	1.806950E+0	1.679298E+0	1.784746E+0	1.864839E+0	1.910340E+0	1.707982E+0	1.731693E+0	1.766322E+0	1.971218E+0	1.800531E+0	1.622758E+0	1.746649E+0	1.713594E+0
5.392720E+2	1.669881E+0	2.177709E+0	2.219958E+0	2.173627E+0	1.812592E+0	1.925389E+0	2.172929E+0	2.237746E+0	1.916850E+0	1.883214E+0	2.063284E+0	2.041563E+0	1.976001E+0	1.929563E+0	2.070940E+0	1.972668E+0	1.952128E+0	2.008924E+0	2.109738E+0	1.963640E+0	1.974079E+0	1.898447E+0	2.245054E+0	2.123706E+0	1.754116E+0	1.829154E+0	2.044204E+0	2.030687E+0	1.964299E+0	1.921021E+0	1.953779E+0	1.960701E+0	2.017805E+0	2.096496E+0	2.138764E+0	1.895784E+0	1.985148E+0	1.944698E+0	2.254100E+0	1.984195E+0	1.596577E+0	1.874926E+0	2.114049E+0	1.968806E+0	1.911270E+0	1.896856E+0	2.002945E+0	1.892073E+0	2.019192E+0	2.086312E+0	2.112878E+0	1.902541E+0	2.081184E+0	1.868465E+0	2.155268E+0	1.849403E+0	1.966578E+0	1.822674E+0	2.077535E+0	1.910607E+0	1.912209E+0	1.833805E+0	1.915976E+0	1.876936E+0	1.548971E+0	1.985204E+0	2.046996E+0	1.809424E+0	1.880672E+0	1.976738E+0	2.203442E+0	1.932329E+0	1.936960E+0	1.891851E+0	2.023964E+0	1.910969E+0	1.908525E+0	1.877005E+0	2.013332E+0	1.887347E+0	1.971619E+0	2.021583E+0	2.082619E+0	1.899366E+0	1.855817E+0	2.024643E+0	2.179173E+0	1.863207E+0	1.822045E+0	1.944499E+0	2.063939E+0	1.914610E+0	1.901907E+0	2.011931E+0	1.994479E+0	1.829820E+0	1.993244E+0	1.977947E+0	2.127490E+0	1.848973E+0	1.952561E+0	1.946084E+0	2.153463E+0	1.860166E+0	1.723621E+0	1.880241E+0	1.932657E+0	1.965898E+0	1.850718E+0	1.904169E+0	1.862199E+0	2.009513E+0	2.005557E+0	1.943574E+0	2.111467E+0	1.872536E+0	1.895809E+0	1.900261E+0	2.151015E+0	1.915541E+0	1.880406E+0	1.900580E+0	1.942010E+0	1.923422E+0	1.897554E+0	1.884347E+0	1.963517E+0	1.930969E+0	1.929574E+0	2.003296E+0	2.050865E+0	1.810765E+0	1.956998E+0	2.060133E+0	2.108654E+0	1.840024E+0	1.968722E+0	2.021942E+0	1.988192E+0	1.887224E+0	1.977253E+0	1.920399E+0	2.005543E+0	1.892604E+0	2.026841E+0	2.128694E+0	2.036655E+0	1.948993E+0	1.926088E+0	2.116340E+0	2.034029E+0	1.960068E+0	1.765683E+0	2.015267E+0	2.003005E+0	1.933300E+0	1.850471E+0	1.874292E+0	1.856504E+0	1.872386E+0	1.866646E+0	2.018000E+0	2.121105E+0	1.821894E+0	1.862782E+0	1.945134E+0	2.070610E+0	1.845952E+0	1.707641E+0	1.837719E+0	1.870452E+0
5.395160E+2	1.754057E+0	2.223100E+0	2.383912E+0	2.329387E+0	1.986291E+0	2.030202E+0	2.301718E+0	2.378988E+0	2.026125E+0	2.021482E+0	2.182108E+0	2.178195E+0	2.063497E+0	2.045294E+0	2.151196E+0	2.058573E+0	2.090527E+0	2.047304E+0	2.267791E+0	2.059788E+0	2.060574E+0	1.998812E+0	2.307160E+0	2.291421E+0	1.829533E+0	1.914460E+0	2.177443E+0	2.198188E+0	2.130984E+0	2.028870E+0	2.057626E+0	2.057338E+0	2.158730E+0	2.117403E+0	2.278295E+0	2.098125E+0	1.987620E+0	2.050808E+0	2.290523E+0	2.355709E+0	1.671692E+0	1.946217E+0	2.240893E+0	2.226591E+0	1.886197E+0	2.012758E+0	2.083176E+0	2.011207E+0	2.170545E+0	2.153949E+0	2.248261E+0	2.125563E+0	2.228173E+0	2.044071E+0	2.324971E+0	2.201994E+0	2.072135E+0	1.909364E+0	2.216783E+0	2.112681E+0	2.033262E+0	1.896723E+0	2.065642E+0	1.955761E+0	1.612231E+0	2.079194E+0	2.159877E+0	1.940975E+0	1.956306E+0	2.038839E+0	2.295851E+0	2.076679E+0	2.038950E+0	1.949667E+0	2.088578E+0	2.031109E+0	2.062399E+0	2.008719E+0	2.085713E+0	1.936413E+0	2.042287E+0	2.104868E+0	2.164915E+0	1.935225E+0	1.925930E+0	2.218861E+0	2.302899E+0	1.967248E+0	1.878811E+0	2.108707E+0	2.206598E+0	2.013837E+0	1.944495E+0	2.046798E+0	2.102100E+0	1.965730E+0	2.114034E+0	2.095431E+0	2.252385E+0	1.956644E+0	2.014985E+0	2.012375E+0	2.349809E+0	1.914266E+0	1.825514E+0	2.004749E+0	2.085682E+0	2.052438E+0	1.894399E+0	2.070902E+0	2.029499E+0	2.061955E+0	2.082977E+0	2.064048E+0	2.208657E+0	1.985867E+0	1.933598E+0	2.020900E+0	2.251326E+0	1.993902E+0	1.874806E+0	1.987491E+0	2.067628E+0	2.006973E+0	2.024283E+0	1.954656E+0	1.984960E+0	2.015261E+0	2.077393E+0	2.180639E+0	2.131961E+0	2.034740E+0	2.015707E+0	2.183909E+0	2.249604E+0	1.989685E+0	2.042168E+0	2.063756E+0	2.079725E+0	2.002903E+0	2.045188E+0	2.062304E+0	1.978368E+0	1.933392E+0	2.119732E+0	2.207795E+0	2.082008E+0	1.985069E+0	2.020543E+0	2.237041E+0	2.268490E+0	2.126060E+0	1.871654E+0	2.095550E+0	2.143103E+0	2.005840E+0	1.959247E+0	2.042025E+0	1.968792E+0	1.954930E+0	1.943998E+0	2.127480E+0	2.176930E+0	1.892439E+0	2.010147E+0	2.083570E+0	2.167476E+0	1.959177E+0	1.781599E+0	1.978813E+0	1.936378E+0
5.397810E+2	1.736015E+0	2.238925E+0	2.315867E+0	2.392495E+0	1.997868E+0	2.099246E+0	2.325900E+0	2.462069E+0	2.106815E+0	2.054476E+0	2.210511E+0	2.218869E+0	2.166436E+0	2.046772E+0	2.233493E+0	2.073246E+0	2.122081E+0	2.060288E+0	2.297240E+0	2.080151E+0	2.115514E+0	1.978737E+0	2.344426E+0	2.312390E+0	1.846813E+0	2.010496E+0	2.161514E+0	2.189597E+0	2.086465E+0	2.034864E+0	2.031527E+0	2.079380E+0	2.167409E+0	2.211986E+0	2.260789E+0	2.135536E+0	2.050853E+0	1.970126E+0	2.333467E+0	2.383067E+0	1.706324E+0	2.026689E+0	2.249390E+0	2.252540E+0	1.954730E+0	2.057895E+0	2.165594E+0	2.039976E+0	2.148922E+0	2.211055E+0	2.229438E+0	2.194647E+0	2.228686E+0	2.034371E+0	2.262962E+0	2.313338E+0	2.118051E+0	1.934514E+0	2.129905E+0	2.147126E+0	2.065259E+0	1.953145E+0	2.073745E+0	1.966632E+0	1.675492E+0	2.126479E+0	2.222173E+0	2.105125E+0	1.982511E+0	2.019173E+0	2.248796E+0	2.326975E+0	2.077899E+0	2.033808E+0	2.208089E+0	2.139944E+0	1.959997E+0	2.135636E+0	2.112268E+0	1.983001E+0	2.102948E+0	2.199731E+0	2.154128E+0	2.035963E+0	1.941567E+0	2.178573E+0	2.313253E+0	2.193001E+0	1.903279E+0	2.084580E+0	2.124425E+0	2.114788E+0	1.963369E+0	2.021157E+0	2.140457E+0	2.000776E+0	2.159261E+0	2.151484E+0	2.289791E+0	2.020042E+0	1.994349E+0	2.039612E+0	2.250775E+0	2.032299E+0	1.843279E+0	1.968029E+0	2.053826E+0	2.008248E+0	1.913044E+0	2.092140E+0	2.024288E+0	2.055848E+0	2.124339E+0	2.105814E+0	2.205677E+0	2.038360E+0	1.953942E+0	2.036256E+0	2.288287E+0	1.992841E+0	1.983231E+0	2.026576E+0	2.075585E+0	2.041735E+0	2.021699E+0	1.949936E+0	1.991232E+0	2.062997E+0	2.019653E+0	2.191912E+0	2.243896E+0	1.959503E+0	1.976728E+0	2.176656E+0	2.252472E+0	1.991774E+0	2.006591E+0	2.136355E+0	2.081986E+0	2.011584E+0	2.057399E+0	1.997703E+0	2.059898E+0	1.905082E+0	2.143961E+0	2.224081E+0	2.126759E+0	2.021728E+0	2.036044E+0	2.195155E+0	2.231628E+0	2.036682E+0	1.827632E+0	2.136817E+0	2.089761E+0	2.002816E+0	1.929153E+0	2.003781E+0	2.023616E+0	2.016342E+0	1.983804E+0	2.125777E+0	2.198576E+0	1.834040E+0	2.006795E+0	2.113984E+0	2.292023E+0	1.959178E+0	1.791684E+0	2.100669E+0	2.063684E+0
5.400240E+2	1.726767E+0	2.184574E+0	2.263380E+0	2.420874E+0	1.948394E+0	2.006356E+0	2.275117E+0	2.434704E+0	1.999786E+0	1.950778E+0	2.154287E+0	2.150036E+0	2.009454E+0	1.993092E+0	2.130750E+0	2.026194E+0	2.141457E+0	2.104876E+0	2.240149E+0	2.130483E+0	2.152503E+0	2.006281E+0	2.264813E+0	2.292421E+0	1.766161E+0	1.898375E+0	2.156736E+0	2.150405E+0	2.139267E+0	1.919929E+0	1.992929E+0	2.064118E+0	2.037723E+0	2.152936E+0	2.231077E+0	2.067034E+0	1.991573E+0	1.966215E+0	2.342165E+0	2.273642E+0	1.622428E+0	1.969441E+0	2.166243E+0	2.188238E+0	1.910156E+0	1.908555E+0	2.100095E+0	2.024688E+0	2.128846E+0	2.172804E+0	2.172373E+0	2.194647E+0	2.207761E+0	1.985875E+0	2.297229E+0	2.280506E+0	2.060524E+0	1.914182E+0	2.180427E+0	2.131625E+0	2.073260E+0	1.942659E+0	2.012151E+0	1.989284E+0	1.640984E+0	2.047270E+0	2.146924E+0	2.113131E+0	1.929612E+0	2.013481E+0	2.295281E+0	2.329406E+0	1.996925E+0	1.954817E+0	2.090296E+0	2.131024E+0	1.947537E+0	2.023115E+0	2.084672E+0	1.979038E+0	2.041700E+0	2.109281E+0	2.102482E+0	2.068657E+0	1.903232E+0	2.107805E+0	2.246761E+0	2.261706E+0	1.895447E+0	2.059919E+0	2.187765E+0	2.111344E+0	1.916426E+0	2.006800E+0	2.060009E+0	1.972835E+0	2.078336E+0	2.051299E+0	2.192651E+0	2.080165E+0	2.030460E+0	2.064792E+0	2.358393E+0	2.291315E+0	1.806179E+0	1.976060E+0	2.049841E+0	2.209554E+0	1.853380E+0	1.980635E+0	2.045707E+0	2.085376E+0	2.076088E+0	2.119200E+0	2.180037E+0	2.070570E+0	1.905500E+0	2.040642E+0	2.261299E+0	2.246982E+0	1.877350E+0	1.963323E+0	2.084112E+0	2.084430E+0	1.962212E+0	1.952556E+0	2.031501E+0	2.008154E+0	2.032358E+0	2.092857E+0	2.155374E+0	2.015640E+0	1.973842E+0	2.182353E+0	2.197465E+0	2.009501E+0	1.990526E+0	2.018455E+0	2.030567E+0	2.010424E+0	1.989991E+0	1.980031E+0	1.965863E+0	1.905561E+0	2.117425E+0	2.097285E+0	2.041428E+0	1.940265E+0	2.023934E+0	2.183579E+0	2.204432E+0	2.048915E+0	1.809700E+0	2.037315E+0	2.094072E+0	2.007051E+0	1.947105E+0	1.998318E+0	2.024671E+0	1.883687E+0	1.937171E+0	2.063376E+0	2.110282E+0	1.852539E+0	1.936467E+0	2.008057E+0	2.235412E+0	1.994361E+0	1.830344E+0	2.019859E+0	2.036406E+0
5.402850E+2	1.694855E+0	2.045775E+0	2.209591E+0	2.149888E+0	1.802590E+0	1.903040E+0	2.119121E+0	2.248011E+0	1.911249E+0	1.901549E+0	1.986771E+0	2.045737E+0	2.017693E+0	1.848793E+0	2.039252E+0	1.902736E+0	1.954343E+0	1.909025E+0	2.085703E+0	2.013412E+0	2.045343E+0	1.919454E+0	2.174480E+0	2.227033E+0	1.714313E+0	1.793568E+0	1.995891E+0	2.034441E+0	1.927030E+0	1.831681E+0	1.918434E+0	1.910687E+0	1.993810E+0	2.018637E+0	2.034777E+0	1.966916E+0	1.851269E+0	1.875755E+0	2.130697E+0	2.233930E+0	1.536095E+0	1.809035E+0	2.168671E+0	2.052292E+0	1.822120E+0	1.783738E+0	1.989840E+0	1.844424E+0	1.971826E+0	2.106271E+0	2.035168E+0	1.984678E+0	1.984722E+0	1.890420E+0	2.199324E+0	2.119673E+0	1.946523E+0	1.802871E+0	2.018386E+0	2.001308E+0	1.891945E+0	1.807338E+0	1.891662E+0	1.798116E+0	1.527884E+0	1.902453E+0	2.020475E+0	1.920954E+0	1.836183E+0	1.911013E+0	2.161487E+0	2.147152E+0	1.950285E+0	1.874110E+0	1.971928E+0	2.038245E+0	1.858138E+0	1.912733E+0	1.941994E+0	1.833326E+0	1.885044E+0	1.975804E+0	2.007133E+0	1.849788E+0	1.869438E+0	1.980222E+0	2.141019E+0	2.129203E+0	1.750105E+0	1.921415E+0	2.009160E+0	2.004662E+0	1.872386E+0	1.880159E+0	1.964112E+0	1.819403E+0	1.965275E+0	1.903410E+0	2.113007E+0	1.933145E+0	1.842675E+0	1.899840E+0	2.131135E+0	2.141045E+0	1.656743E+0	1.834911E+0	1.953134E+0	1.985538E+0	1.760690E+0	1.836732E+0	1.898672E+0	1.925503E+0	1.950937E+0	1.909841E+0	2.031563E+0	1.991238E+0	1.858990E+0	1.900806E+0	2.131658E+0	2.104029E+0	1.768923E+0	1.913438E+0	1.932917E+0	2.024049E+0	1.819446E+0	1.835552E+0	1.903908E+0	1.882221E+0	1.889735E+0	2.012189E+0	2.010882E+0	1.994227E+0	1.805896E+0	2.035271E+0	2.136727E+0	2.081463E+0	1.879779E+0	1.879070E+0	1.909084E+0	2.016211E+0	1.863668E+0	1.913771E+0	1.791933E+0	1.863334E+0	1.999149E+0	1.989102E+0	1.936999E+0	1.922805E+0	1.920760E+0	2.108621E+0	2.157903E+0	2.045725E+0	1.725463E+0	1.901631E+0	1.961511E+0	1.999191E+0	1.778126E+0	1.903798E+0	1.892876E+0	1.808514E+0	1.871765E+0	2.026506E+0	1.963314E+0	1.872777E+0	1.783360E+0	1.960864E+0	2.034750E+0	1.923994E+0	1.669822E+0	1.912115E+0	1.765878E+0
5.405130E+2	1.521882E+0	1.934950E+0	2.057305E+0	2.039870E+0	1.723114E+0	1.777866E+0	2.062284E+0	2.053498E+0	1.798060E+0	1.803083E+0	1.889971E+0	1.850178E+0	1.807699E+0	1.748820E+0	1.879767E+0	1.760278E+0	1.866875E+0	1.835656E+0	1.958899E+0	1.840354E+0	1.861483E+0	1.778951E+0	2.010745E+0	2.011894E+0	1.585474E+0	1.740921E+0	1.858942E+0	1.895391E+0	1.808999E+0	1.680794E+0	1.807519E+0	1.783532E+0	1.854417E+0	1.859778E+0	1.971641E+0	1.813056E+0	1.756411E+0	1.766223E+0	2.056217E+0	2.033614E+0	1.477076E+0	1.642151E+0	1.919232E+0	2.008295E+0	1.703439E+0	1.787084E+0	1.873583E+0	1.814756E+0	1.893574E+0	1.925533E+0	1.904640E+0	1.833455E+0	1.940830E+0	1.767393E+0	1.938246E+0	2.009758E+0	1.839384E+0	1.678185E+0	1.890851E+0	1.920938E+0	1.714367E+0	1.666024E+0	1.781981E+0	1.745564E+0	1.437310E+0	1.808461E+0	1.937204E+0	1.731637E+0	1.674533E+0	1.706602E+0	2.048100E+0	2.015440E+0	1.769883E+0	1.744747E+0	1.822684E+0	1.820568E+0	1.804493E+0	1.711158E+0	1.845662E+0	1.754027E+0	1.779624E+0	1.838472E+0	1.908947E+0	1.799685E+0	1.717609E+0	1.884146E+0	2.076700E+0	2.019760E+0	1.626299E+0	1.803374E+0	1.810581E+0	1.842913E+0	1.687029E+0	1.834007E+0	1.768050E+0	1.764941E+0	1.793309E+0	1.859871E+0	1.929588E+0	1.797597E+0	1.748778E+0	1.841775E+0	1.972573E+0	2.027380E+0	1.589860E+0	1.822860E+0	1.826281E+0	1.980015E+0	1.654684E+0	1.835674E+0	1.763788E+0	1.864911E+0	1.786022E+0	1.841303E+0	1.934966E+0	1.820050E+0	1.747080E+0	1.783458E+0	2.000839E+0	1.991253E+0	1.646750E+0	1.728816E+0	1.776037E+0	1.795957E+0	1.743408E+0	1.721697E+0	1.834354E+0	1.773557E+0	1.774253E+0	1.929743E+0	1.885808E+0	1.850698E+0	1.767882E+0	1.863333E+0	1.941916E+0	1.936495E+0	1.734600E+0	1.811116E+0	1.845800E+0	1.860037E+0	1.776092E+0	1.791742E+0	1.684860E+0	1.728500E+0	1.862992E+0	1.912916E+0	1.784236E+0	1.823890E+0	1.782711E+0	1.992883E+0	1.957894E+0	1.957942E+0	1.679812E+0	1.792519E+0	1.894158E+0	1.814816E+0	1.646115E+0	1.683064E+0	1.745795E+0	1.752994E+0	1.703989E+0	1.846121E+0	1.883564E+0	1.813800E+0	1.753699E+0	1.768943E+0	1.997011E+0	1.939984E+0	1.613513E+0	1.819761E+0	1.690860E+0
5.407680E+2	1.451581E+0	1.843652E+0	2.031386E+0	2.027715E+0	1.614680E+0	1.695909E+0	1.856705E+0	1.974324E+0	1.671978E+0	1.686820E+0	1.776942E+0	1.798552E+0	1.771160E+0	1.674949E+0	1.750950E+0	1.685598E+0	1.750622E+0	1.747043E+0	1.847119E+0	1.706882E+0	1.734194E+0	1.651982E+0	1.937345E+0	1.877125E+0	1.469730E+0	1.590774E+0	1.747465E+0	1.764934E+0	1.733419E+0	1.699317E+0	1.679746E+0	1.714865E+0	1.782938E+0	1.804907E+0	1.865000E+0	1.766684E+0	1.710961E+0	1.687502E+0	1.920310E+0	1.941840E+0	1.431229E+0	1.650253E+0	1.841544E+0	1.796764E+0	1.619306E+0	1.645546E+0	1.758414E+0	1.626841E+0	1.763324E+0	1.789702E+0	1.853035E+0	1.751322E+0	1.802008E+0	1.643858E+0	1.969249E+0	1.848452E+0	1.703744E+0	1.557241E+0	1.757151E+0	1.821622E+0	1.634377E+0	1.651545E+0	1.755507E+0	1.665384E+0	1.389864E+0	1.729848E+0	1.810139E+0	1.745940E+0	1.596920E+0	1.686417E+0	1.940382E+0	1.919692E+0	1.694033E+0	1.661179E+0	1.787802E+0	1.761093E+0	1.631653E+0	1.663700E+0	1.773278E+0	1.683649E+0	1.708365E+0	1.725400E+0	1.789191E+0	1.712139E+0	1.622785E+0	1.732803E+0	1.928990E+0	1.892651E+0	1.601337E+0	1.713137E+0	1.767213E+0	1.806778E+0	1.661862E+0	1.665834E+0	1.703583E+0	1.656497E+0	1.725477E+0	1.738813E+0	1.881321E+0	1.730370E+0	1.660046E+0	1.706112E+0	1.872965E+0	1.886945E+0	1.551196E+0	1.691464E+0	1.752896E+0	1.855430E+0	1.601413E+0	1.737440E+0	1.704743E+0	1.720821E+0	1.736181E+0	1.696194E+0	1.828826E+0	1.864782E+0	1.668597E+0	1.710523E+0	1.892314E+0	1.913420E+0	1.593811E+0	1.608478E+0	1.740800E+0	1.767903E+0	1.686511E+0	1.655588E+0	1.754866E+0	1.699929E+0	1.739607E+0	1.754176E+0	1.838975E+0	1.736686E+0	1.640840E+0	1.778913E+0	1.822165E+0	1.858800E+0	1.719682E+0	1.714129E+0	1.777435E+0	1.753607E+0	1.713991E+0	1.674134E+0	1.679422E+0	1.624854E+0	1.790297E+0	1.790190E+0	1.729928E+0	1.690637E+0	1.713445E+0	1.879348E+0	1.880545E+0	1.887718E+0	1.518949E+0	1.704322E+0	1.780462E+0	1.810586E+0	1.611796E+0	1.653561E+0	1.621908E+0	1.623287E+0	1.640286E+0	1.759895E+0	1.786156E+0	1.718971E+0	1.603469E+0	1.688716E+0	1.880638E+0	1.879214E+0	1.526949E+0	1.771020E+0	1.706775E+0
5.410290E+2	1.416894E+0	1.775570E+0	1.819483E+0	1.857479E+0	1.515727E+0	1.625374E+0	1.868195E+0	1.902969E+0	1.711760E+0	1.662201E+0	1.689419E+0	1.780819E+0	1.687259E+0	1.545916E+0	1.711593E+0	1.610917E+0	1.724602E+0	1.601430E+0	1.803847E+0	1.678606E+0	1.685236E+0	1.620237E+0	1.872983E+0	1.798756E+0	1.419979E+0	1.512292E+0	1.693847E+0	1.690310E+0	1.657843E+0	1.551698E+0	1.677573E+0	1.641115E+0	1.660907E+0	1.661726E+0	1.723346E+0	1.691335E+0	1.628458E+0	1.597527E+0	1.864860E+0	1.825357E+0	1.569262E+0	1.592466E+0	1.760219E+0	1.761793E+0	1.602589E+0	1.565306E+0	1.668355E+0	1.579640E+0	1.706178E+0	1.717076E+0	1.738296E+0	1.751861E+0	1.724431E+0	1.563715E+0	1.837626E+0	1.809431E+0	1.685271E+0	1.504799E+0	1.723267E+0	1.709679E+0	1.628510E+0	1.516719E+0	1.615027E+0	1.620989E+0	1.260946E+0	1.661867E+0	1.745991E+0	1.594942E+0	1.558360E+0	1.594818E+0	1.805448E+0	1.844848E+0	1.646371E+0	1.515216E+0	1.675154E+0	1.784288E+0	1.648992E+0	1.586910E+0	1.686836E+0	1.561729E+0	1.602950E+0	1.694513E+0	1.739810E+0	1.652017E+0	1.549648E+0	1.715761E+0	1.782917E+0	1.817076E+0	1.489274E+0	1.619753E+0	1.702160E+0	1.724759E+0	1.580557E+0	1.660706E+0	1.674812E+0	1.585935E+0	1.670136E+0	1.655920E+0	1.785389E+0	1.634719E+0	1.573891E+0	1.645988E+0	1.819728E+0	1.784211E+0	1.493196E+0	1.586463E+0	1.637984E+0	1.756614E+0	1.498602E+0	1.604689E+0	1.627168E+0	1.686196E+0	1.658760E+0	1.641044E+0	1.764430E+0	1.794992E+0	1.548937E+0	1.660072E+0	1.769709E+0	1.782118E+0	1.604496E+0	1.549852E+0	1.635075E+0	1.691054E+0	1.630130E+0	1.532814E+0	1.654463E+0	1.618684E+0	1.615462E+0	1.691897E+0	1.729319E+0	1.675338E+0	1.560955E+0	1.740589E+0	1.776899E+0	1.796222E+0	1.561309E+0	1.617135E+0	1.628828E+0	1.731052E+0	1.614204E+0	1.556525E+0	1.589195E+0	1.614774E+0	1.673756E+0	1.705858E+0	1.660115E+0	1.643503E+0	1.621897E+0	1.745420E+0	1.768148E+0	1.826005E+0	1.464606E+0	1.662484E+0	1.727657E+0	1.733813E+0	1.576415E+0	1.595645E+0	1.629817E+0	1.546640E+0	1.566353E+0	1.697499E+0	1.748561E+0	1.651315E+0	1.600599E+0	1.644144E+0	1.769932E+0	1.743598E+0	1.422736E+0	1.611967E+0	1.556734E+0
5.412790E+2	1.292482E+0	1.675827E+0	1.783194E+0	1.786257E+0	1.432035E+0	1.489272E+0	1.694060E+0	1.751953E+0	1.620428E+0	1.461090E+0	1.609427E+0	1.580049E+0	1.697556E+0	1.525727E+0	1.634406E+0	1.532781E+0	1.674774E+0	1.561357E+0	1.630169E+0	1.560971E+0	1.598199E+0	1.515673E+0	1.795070E+0	1.692932E+0	1.364461E+0	1.409921E+0	1.579192E+0	1.654339E+0	1.676480E+0	1.477067E+0	1.557953E+0	1.485564E+0	1.628229E+0	1.623053E+0	1.600789E+0	1.549589E+0	1.526686E+0	1.502666E+0	1.708293E+0	1.715934E+0	1.605354E+0	1.425581E+0	1.669184E+0	1.664205E+0	1.617633E+0	1.508472E+0	1.526442E+0	1.502768E+0	1.656238E+0	1.625042E+0	1.644196E+0	1.599552E+0	1.612657E+0	1.430482E+0	1.762022E+0	1.715698E+0	1.596606E+0	1.462522E+0	1.625302E+0	1.596007E+0	1.579981E+0	1.426339E+0	1.528040E+0	1.469680E+0	1.256634E+0	1.550146E+0	1.541818E+0	1.524021E+0	1.441694E+0	1.496494E+0	1.767463E+0	1.711188E+0	1.491080E+0	1.540399E+0	1.633980E+0	1.617166E+0	1.505951E+0	1.481325E+0	1.523331E+0	1.451701E+0	1.512839E+0	1.622260E+0	1.644464E+0	1.598750E+0	1.431618E+0	1.599538E+0	1.716964E+0	1.637456E+0	1.390909E+0	1.500657E+0	1.567494E+0	1.643316E+0	1.447469E+0	1.508426E+0	1.552278E+0	1.483173E+0	1.606468E+0	1.594501E+0	1.647215E+0	1.629255E+0	1.521269E+0	1.559655E+0	1.673187E+0	1.721371E+0	1.341670E+0	1.484329E+0	1.566308E+0	1.660873E+0	1.425622E+0	1.490530E+0	1.492867E+0	1.561454E+0	1.570204E+0	1.591248E+0	1.637421E+0	1.658995E+0	1.482084E+0	1.544918E+0	1.734511E+0	1.687340E+0	1.456365E+0	1.464997E+0	1.552656E+0	1.648363E+0	1.511158E+0	1.459356E+0	1.540460E+0	1.518141E+0	1.546751E+0	1.604109E+0	1.677349E+0	1.597788E+0	1.496953E+0	1.586258E+0	1.720751E+0	1.669506E+0	1.542947E+0	1.505627E+0	1.527687E+0	1.594547E+0	1.557414E+0	1.510143E+0	1.500598E+0	1.447788E+0	1.568174E+0	1.594184E+0	1.555084E+0	1.589389E+0	1.550692E+0	1.679280E+0	1.677510E+0	1.702575E+0	1.405909E+0	1.582770E+0	1.567617E+0	1.566967E+0	1.443346E+0	1.470529E+0	1.455851E+0	1.510285E+0	1.490709E+0	1.603902E+0	1.695583E+0	1.570364E+0	1.482420E+0	1.562339E+0	1.659850E+0	1.735282E+0	1.344576E+0	1.588879E+0	1.502174E+0
5.415140E+2	1.139397E+0	1.492174E+0	1.557687E+0	1.507167E+0	1.317288E+0	1.329823E+0	1.498765E+0	1.572590E+0	1.468569E+0	1.361585E+0	1.467417E+0	1.495046E+0	1.538001E+0	1.347941E+0	1.495882E+0	1.327300E+0	1.496518E+0	1.395420E+0	1.527407E+0	1.368684E+0	1.421952E+0	1.358828E+0	1.522367E+0	1.533202E+0	1.261288E+0	1.280253E+0	1.464533E+0	1.391270E+0	1.450779E+0	1.290229E+0	1.408980E+0	1.409694E+0	1.414290E+0	1.456879E+0	1.531818E+0	1.407319E+0	1.358222E+0	1.330547E+0	1.493017E+0	1.582243E+0	1.464881E+0	1.297581E+0	1.454943E+0	1.457187E+0	1.497841E+0	1.300068E+0	1.446207E+0	1.382293E+0	1.528566E+0	1.435434E+0	1.457206E+0	1.399921E+0	1.455971E+0	1.293672E+0	1.505837E+0	1.491582E+0	1.492101E+0	1.320711E+0	1.454637E+0	1.453065E+0	1.533055E+0	1.313490E+0	1.405388E+0	1.326984E+0	1.155993E+0	1.380499E+0	1.477051E+0	1.381607E+0	1.324042E+0	1.319508E+0	1.534453E+0	1.584337E+0	1.419845E+0	1.373260E+0	1.443564E+0	1.439338E+0	1.479403E+0	1.359737E+0	1.391584E+0	1.317888E+0	1.397409E+0	1.419841E+0	1.469087E+0	1.435258E+0	1.291897E+0	1.427532E+0	1.463517E+0	1.565800E+0	1.283250E+0	1.383663E+0	1.419126E+0	1.411594E+0	1.362293E+0	1.387933E+0	1.406828E+0	1.284752E+0	1.425573E+0	1.362521E+0	1.506034E+0	1.452717E+0	1.365464E+0	1.447636E+0	1.513475E+0	1.525739E+0	1.200068E+0	1.259981E+0	1.396783E+0	1.481661E+0	1.323878E+0	1.348752E+0	1.397930E+0	1.430594E+0	1.387257E+0	1.427935E+0	1.465696E+0	1.505703E+0	1.328509E+0	1.357921E+0	1.589616E+0	1.496208E+0	1.294486E+0	1.330262E+0	1.362240E+0	1.459912E+0	1.363740E+0	1.338157E+0	1.385145E+0	1.401351E+0	1.392583E+0	1.413121E+0	1.470602E+0	1.498823E+0	1.358364E+0	1.439695E+0	1.510467E+0	1.534449E+0	1.373670E+0	1.374372E+0	1.423718E+0	1.457464E+0	1.399774E+0	1.351119E+0	1.290793E+0	1.358539E+0	1.444707E+0	1.404577E+0	1.382628E+0	1.419480E+0	1.367597E+0	1.596612E+0	1.560887E+0	1.520628E+0	1.277109E+0	1.378109E+0	1.418895E+0	1.443045E+0	1.322953E+0	1.334485E+0	1.342507E+0	1.257745E+0	1.382081E+0	1.432590E+0	1.537224E+0	1.352371E+0	1.315921E+0	1.388247E+0	1.507626E+0	1.531855E+0	1.295831E+0	1.375954E+0	1.281663E+0
5.417760E+2	9.900098E-1	1.314852E+0	1.334767E+0	1.341566E+0	1.134117E+0	1.229485E+0	1.298024E+0	1.349730E+0	1.274124E+0	1.176181E+0	1.283672E+0	1.255685E+0	1.335219E+0	1.195269E+0	1.223430E+0	1.194342E+0	1.267884E+0	1.279717E+0	1.256373E+0	1.199583E+0	1.238639E+0	1.173041E+0	1.327580E+0	1.337031E+0	1.068556E+0	1.147658E+0	1.287764E+0	1.229672E+0	1.307387E+0	1.122454E+0	1.221399E+0	1.190564E+0	1.245798E+0	1.221202E+0	1.276094E+0	1.237118E+0	1.168516E+0	1.150113E+0	1.371786E+0	1.290592E+0	1.271730E+0	1.138260E+0	1.266799E+0	1.265400E+0	1.325672E+0	1.147944E+0	1.175482E+0	1.174154E+0	1.321608E+0	1.300156E+0	1.296933E+0	1.221500E+0	1.294691E+0	1.107863E+0	1.321450E+0	1.317903E+0	1.346436E+0	1.107724E+0	1.219894E+0	1.213673E+0	1.344813E+0	1.090282E+0	1.136318E+0	1.139435E+0	9.992824E-1	1.179521E+0	1.234024E+0	1.220316E+0	1.163381E+0	1.163221E+0	1.304843E+0	1.388959E+0	1.246106E+0	1.199252E+0	1.224555E+0	1.230581E+0	1.310897E+0	1.134168E+0	1.240573E+0	1.180106E+0	1.204241E+0	1.252719E+0	1.240927E+0	1.181581E+0	1.154699E+0	1.237965E+0	1.335426E+0	1.331708E+0	1.179500E+0	1.203716E+0	1.299867E+0	1.324984E+0	1.300345E+0	1.191556E+0	1.278428E+0	1.150263E+0	1.322036E+0	1.188387E+0	1.266501E+0	1.288749E+0	1.196250E+0	1.205600E+0	1.331441E+0	1.351970E+0	1.166628E+0	1.142929E+0	1.191424E+0	1.304906E+0	1.315359E+0	1.205388E+0	1.193581E+0	1.233552E+0	1.243554E+0	1.254982E+0	1.332129E+0	1.278438E+0	1.156528E+0	1.231796E+0	1.322704E+0	1.375491E+0	1.158060E+0	1.152327E+0	1.214456E+0	1.298293E+0	1.261321E+0	1.174458E+0	1.211007E+0	1.206364E+0	1.250539E+0	1.243483E+0	1.285560E+0	1.264429E+0	1.203410E+0	1.228392E+0	1.354615E+0	1.294055E+0	1.228494E+0	1.217561E+0	1.258164E+0	1.243453E+0	1.252751E+0	1.176085E+0	1.122840E+0	1.160844E+0	1.257200E+0	1.278362E+0	1.216735E+0	1.240261E+0	1.258611E+0	1.316631E+0	1.332470E+0	1.382304E+0	1.114616E+0	1.221507E+0	1.292808E+0	1.215144E+0	1.148170E+0	1.197893E+0	1.129527E+0	1.169308E+0	1.157427E+0	1.258444E+0	1.338425E+0	1.192203E+0	1.183869E+0	1.272361E+0	1.318917E+0	1.364888E+0	1.132787E+0	1.279752E+0	1.211191E+0
5.420160E+2	8.628237E-1	1.102699E+0	1.139713E+0	1.169597E+0	9.856832E-1	1.035765E+0	1.143842E+0	1.184543E+0	1.117226E+0	1.025349E+0	1.104566E+0	1.091417E+0	1.134489E+0	9.943365E-1	1.080814E+0	1.041096E+0	1.113985E+0	9.681676E-1	1.132573E+0	1.064982E+0	1.064025E+0	9.928583E-1	1.201111E+0	1.175805E+0	9.198171E-1	9.419413E-1	1.067999E+0	1.082571E+0	1.126723E+0	1.002070E+0	1.020226E+0	1.046878E+0	1.090578E+0	1.107283E+0	1.108443E+0	1.091687E+0	1.032162E+0	1.064544E+0	1.144006E+0	1.130867E+0	1.086870E+0	1.007021E+0	1.062269E+0	1.128892E+0	1.209220E+0	1.014766E+0	1.094154E+0	1.048731E+0	1.120828E+0	1.158228E+0	1.145158E+0	1.081158E+0	1.106875E+0	1.038439E+0	1.186018E+0	1.160402E+0	1.173851E+0	9.584193E-1	1.102831E+0	1.035134E+0	1.180032E+0	9.839208E-1	1.088231E+0	1.005799E+0	8.871388E-1	1.043565E+0	1.127313E+0	1.077328E+0	1.017055E+0	1.035915E+0	1.203930E+0	1.229059E+0	1.106704E+0	9.891812E-1	1.089605E+0	1.122934E+0	1.166771E+0	1.039781E+0	1.085920E+0	1.029440E+0	1.103534E+0	1.110422E+0	1.121174E+0	1.063973E+0	9.630274E-1	1.096955E+0	1.162644E+0	1.173189E+0	1.021924E+0	1.048424E+0	1.057348E+0	1.088674E+0	1.146447E+0	1.067475E+0	1.064253E+0	1.039449E+0	1.082235E+0	1.045859E+0	1.115663E+0	1.086520E+0	1.045090E+0	1.076619E+0	1.188332E+0	1.198963E+0	1.060036E+0	1.000057E+0	1.090166E+0	1.103599E+0	1.127849E+0	1.064675E+0	1.070856E+0	1.083860E+0	1.129014E+0	1.067038E+0	1.128200E+0	1.088757E+0	1.043165E+0	1.025060E+0	1.151407E+0	1.138825E+0	1.050142E+0	1.001646E+0	1.033706E+0	1.107400E+0	1.170284E+0	9.981634E-1	1.052557E+0	1.051490E+0	1.109073E+0	1.107061E+0	1.099946E+0	1.121479E+0	1.037390E+0	1.142939E+0	1.112819E+0	1.134486E+0	1.059218E+0	1.033453E+0	1.085829E+0	1.098272E+0	1.167830E+0	1.023136E+0	1.026633E+0	1.032725E+0	1.138350E+0	1.071888E+0	1.104549E+0	1.056966E+0	1.077453E+0	1.141368E+0	1.137895E+0	1.172160E+0	1.084725E+0	1.078471E+0	1.037396E+0	1.074899E+0	1.172988E+0	1.045458E+0	1.037799E+0	1.038125E+0	1.097710E+0	1.093937E+0	1.180632E+0	1.064993E+0	9.838770E-1	1.066281E+0	1.193111E+0	1.217756E+0	1.021011E+0	1.082219E+0	1.072519E+0
5.422670E+2	7.707866E-1	1.001372E+0	1.085279E+0	1.098956E+0	9.151510E-1	9.518180E-1	1.071891E+0	1.059918E+0	1.021966E+0	8.514710E-1	9.515426E-1	9.829472E-1	1.001699E+0	8.790952E-1	9.622250E-1	9.340382E-1	9.883187E-1	9.371250E-1	9.973563E-1	1.005599E+0	9.769901E-1	9.013643E-1	1.030602E+0	1.038535E+0	8.166426E-1	8.634567E-1	9.575865E-1	9.633854E-1	1.021120E+0	8.789631E-1	9.500874E-1	9.451543E-1	9.425080E-1	9.745513E-1	9.954374E-1	9.957845E-1	8.943267E-1	9.467012E-1	1.084752E+0	1.037769E+0	1.025412E+0	9.022460E-1	1.005219E+0	9.737697E-1	1.053768E+0	9.283965E-1	9.904480E-1	9.125187E-1	9.833711E-1	9.841439E-1	1.012203E+0	9.642077E-1	9.802992E-1	9.001002E-1	1.053303E+0	1.036209E+0	1.020267E+0	8.535320E-1	1.009797E+0	9.760034E-1	1.080310E+0	8.795583E-1	8.980449E-1	8.862034E-1	7.821852E-1	9.554897E-1	9.953121E-1	9.692290E-1	8.855593E-1	9.401768E-1	1.010034E+0	1.032222E+0	9.949779E-1	9.187767E-1	1.002116E+0	9.641375E-1	1.061117E+0	9.181974E-1	9.822952E-1	9.541062E-1	9.610131E-1	8.997283E-1	1.030364E+0	9.674601E-1	8.974553E-1	9.833163E-1	1.007849E+0	1.008294E+0	9.338369E-1	9.786477E-1	9.500699E-1	9.584741E-1	9.978707E-1	9.039141E-1	9.859348E-1	9.011684E-1	1.019755E+0	9.289752E-1	9.768909E-1	9.471482E-1	9.042488E-1	9.645939E-1	1.084721E+0	1.075465E+0	9.675514E-1	9.489905E-1	9.917514E-1	1.014607E+0	9.707016E-1	9.101566E-1	9.452371E-1	9.708253E-1	1.027203E+0	9.326402E-1	9.839005E-1	9.867583E-1	9.094549E-1	9.587077E-1	1.072800E+0	1.052522E+0	9.238964E-1	8.843938E-1	9.745924E-1	9.988411E-1	1.048726E+0	9.241837E-1	9.223431E-1	9.463781E-1	1.005717E+0	1.013346E+0	9.885775E-1	1.017304E+0	9.652080E-1	9.787661E-1	1.089327E+0	1.054702E+0	9.829006E-1	9.544668E-1	9.705611E-1	9.565613E-1	1.036729E+0	9.132551E-1	9.336885E-1	9.305188E-1	1.017193E+0	9.637066E-1	9.995228E-1	9.807396E-1	9.486073E-1	1.058146E+0	1.017645E+0	1.035964E+0	1.026576E+0	9.586161E-1	1.031469E+0	1.000544E+0	1.062626E+0	9.356385E-1	9.102220E-1	8.897482E-1	9.680372E-1	9.770829E-1	1.026261E+0	9.788362E-1	8.948854E-1	9.399064E-1	1.047177E+0	1.072543E+0	8.941062E-1	8.936654E-1	9.497592E-1
5.425300E+2	7.772614E-1	9.908168E-1	9.997410E-1	1.030051E+0	8.667258E-1	9.006556E-1	1.018079E+0	1.069204E+0	9.872240E-1	9.069859E-1	9.579186E-1	9.573944E-1	1.017140E+0	8.662903E-1	9.939169E-1	9.236786E-1	9.938555E-1	9.546215E-1	9.715147E-1	9.541336E-1	9.323850E-1	8.943628E-1	1.044717E+0	1.058999E+0	8.444002E-1	8.766186E-1	9.145891E-1	9.564057E-1	1.025262E+0	8.893128E-1	9.245327E-1	9.226888E-1	9.190207E-1	9.484232E-1	9.726239E-1	9.193795E-1	8.987732E-1	8.846019E-1	1.066812E+0	1.077037E+0	9.971233E-1	9.027857E-1	1.075622E+0	9.743339E-1	1.044296E+0	9.228244E-1	9.451453E-1	8.958857E-1	9.771933E-1	9.924599E-1	9.873118E-1	9.821584E-1	9.501866E-1	8.710038E-1	1.059287E+0	1.011467E+0	9.585167E-1	8.385479E-1	9.937775E-1	9.731330E-1	1.003519E+0	8.660761E-1	9.045284E-1	8.979818E-1	7.721210E-1	9.217954E-1	9.854430E-1	9.377719E-1	8.657859E-1	9.148185E-1	1.054256E+0	1.006463E+0	9.831895E-1	8.913015E-1	9.941101E-1	1.013501E+0	1.002601E+0	8.920677E-1	1.005207E+0	8.842244E-1	9.769137E-1	9.774967E-1	9.719059E-1	9.859185E-1	9.105696E-1	9.574895E-1	1.045457E+0	1.048535E+0	9.284541E-1	9.078215E-1	9.660474E-1	9.269276E-1	1.008518E+0	9.233977E-1	9.443779E-1	9.149014E-1	1.047722E+0	9.456730E-1	1.016109E+0	9.487873E-1	9.243688E-1	9.548305E-1	1.012594E+0	1.042678E+0	9.163461E-1	8.749727E-1	9.433977E-1	1.048976E+0	1.033027E+0	9.324582E-1	9.336592E-1	9.570777E-1	9.646309E-1	9.701220E-1	9.958264E-1	1.039845E+0	9.109081E-1	9.115473E-1	1.051681E+0	1.027638E+0	9.198241E-1	9.378771E-1	9.268469E-1	9.896928E-1	1.025449E+0	8.816848E-1	9.343711E-1	9.103255E-1	9.843519E-1	9.842818E-1	9.982863E-1	9.438033E-1	9.382603E-1	1.012947E+0	1.107089E+0	1.053137E+0	9.840484E-1	9.074239E-1	9.880776E-1	9.617671E-1	1.003821E+0	9.480420E-1	9.075987E-1	9.343575E-1	1.051809E+0	9.712677E-1	9.499937E-1	9.109138E-1	9.500605E-1	9.925598E-1	1.059944E+0	1.044477E+0	9.249482E-1	9.523967E-1	9.824335E-1	9.902678E-1	1.030944E+0	8.820944E-1	9.318363E-1	9.216839E-1	9.941989E-1	1.006013E+0	9.806897E-1	9.707415E-1	9.240710E-1	9.488215E-1	1.065419E+0	9.951387E-1	9.092342E-1	8.911011E-1	8.429137E-1
5.427650E+2	8.383111E-1	1.057841E+0	1.133881E+0	1.101851E+0	8.804114E-1	9.538053E-1	1.142633E+0	1.095106E+0	1.099295E+0	1.089244E+0	1.028634E+0	1.002242E+0	1.100003E+0	1.068702E+0	1.065992E+0	9.305845E-1	1.055858E+0	1.104753E+0	1.043029E+0	9.790180E-1	9.998366E-1	9.559800E-1	1.070688E+0	1.088451E+0	8.957258E-1	9.546153E-1	1.007484E+0	1.039084E+0	1.062016E+0	9.236295E-1	1.004459E+0	9.311665E-1	1.046668E+0	1.044575E+0	1.063347E+0	1.008431E+0	9.595386E-1	9.222526E-1	1.107584E+0	1.088510E+0	1.063945E+0	9.470720E-1	1.106574E+0	1.048228E+0	1.135117E+0	9.802191E-1	9.582446E-1	9.417392E-1	1.122373E+0	9.952321E-1	1.052271E+0	1.031659E+0	1.046648E+0	9.419591E-1	1.091377E+0	1.072851E+0	1.109990E+0	9.434357E-1	1.023351E+0	1.050060E+0	1.112838E+0	9.299921E-1	9.547766E-1	9.242563E-1	8.042298E-1	9.649473E-1	9.971629E-1	9.858156E-1	9.443868E-1	9.784718E-1	1.111517E+0	1.109015E+0	1.064679E+0	9.639960E-1	1.019842E+0	1.033722E+0	1.112048E+0	9.832557E-1	1.011456E+0	9.199084E-1	1.065842E+0	9.681205E-1	1.045121E+0	1.014398E+0	9.766459E-1	1.042717E+0	1.075435E+0	1.140309E+0	1.033670E+0	9.849431E-1	9.991438E-1	1.020419E+0	1.060301E+0	1.009536E+0	1.029089E+0	9.518392E-1	1.103061E+0	1.010078E+0	1.072825E+0	9.908724E-1	1.020326E+0	1.020092E+0	1.099032E+0	1.100602E+0	9.847947E-1	9.220233E-1	1.021332E+0	1.059410E+0	1.061260E+0	9.563522E-1	9.984949E-1	1.020214E+0	1.068035E+0	9.936812E-1	1.044125E+0	1.049986E+0	9.545091E-1	1.009706E+0	1.122663E+0	1.105999E+0	9.890555E-1	1.009360E+0	9.973283E-1	1.076906E+0	1.105627E+0	9.693059E-1	9.767288E-1	9.697363E-1	1.062303E+0	1.022243E+0	1.041121E+0	1.101801E+0	1.006111E+0	1.034181E+0	1.128862E+0	1.131879E+0	1.063235E+0	9.840866E-1	9.942936E-1	1.022500E+0	1.099891E+0	1.001602E+0	9.663006E-1	9.948180E-1	1.065656E+0	1.092245E+0	1.010861E+0	9.691018E-1	1.002373E+0	1.128692E+0	1.100430E+0	1.155666E+0	9.917937E-1	1.034939E+0	1.001294E+0	1.069458E+0	1.073187E+0	1.020325E+0	9.624125E-1	9.747464E-1	1.045954E+0	1.050259E+0	1.067844E+0	1.025674E+0	1.020239E+0	1.029575E+0	1.060386E+0	1.141631E+0	9.806705E-1	1.007824E+0	9.474873E-1
5.430170E+2	9.770602E-1	1.193470E+0	1.275149E+0	1.229815E+0	1.072006E+0	1.099344E+0	1.204306E+0	1.238305E+0	1.185028E+0	1.150519E+0	1.183976E+0	1.171204E+0	1.273968E+0	1.247471E+0	1.175380E+0	1.110165E+0	1.193148E+0	1.219327E+0	1.209496E+0	1.163388E+0	1.191312E+0	1.096485E+0	1.281849E+0	1.246684E+0	1.025610E+0	1.195429E+0	1.159302E+0	1.189408E+0	1.182113E+0	1.214511E+0	1.124619E+0	1.088416E+0	1.194228E+0	1.223815E+0	1.236836E+0	1.116979E+0	1.127510E+0	1.098284E+0	1.285353E+0	1.296328E+0	1.187835E+0	1.061029E+0	1.203073E+0	1.144687E+0	1.253795E+0	1.254374E+0	1.176026E+0	1.131448E+0	1.211953E+0	1.164329E+0	1.237437E+0	1.199743E+0	1.193638E+0	1.080297E+0	1.271956E+0	1.235582E+0	1.178601E+0	1.100232E+0	1.148424E+0	1.216543E+0	1.252558E+0	1.117747E+0	1.143342E+0	1.121768E+0	9.796325E-1	1.227400E+0	1.164322E+0	1.163693E+0	1.062534E+0	1.111989E+0	1.236245E+0	1.289326E+0	1.231243E+0	1.089924E+0	1.087889E+0	1.189545E+0	1.194947E+0	1.077110E+0	1.136429E+0	1.103781E+0	1.200119E+0	1.168333E+0	1.169982E+0	1.159433E+0	1.051297E+0	1.194059E+0	1.266749E+0	1.243371E+0	1.125670E+0	1.137611E+0	1.176039E+0	1.200519E+0	1.180808E+0	1.083371E+0	1.159087E+0	1.041815E+0	1.278003E+0	1.221782E+0	1.188065E+0	1.184901E+0	1.178706E+0	1.106935E+0	1.176885E+0	1.259618E+0	1.141548E+0	1.058583E+0	1.130555E+0	1.238007E+0	1.215744E+0	1.122552E+0	1.150743E+0	1.197910E+0	1.209087E+0	1.133435E+0	1.251034E+0	1.203878E+0	1.088219E+0	1.139670E+0	1.267560E+0	1.281250E+0	1.144826E+0	1.101928E+0	1.141702E+0	1.191563E+0	1.232874E+0	1.077915E+0	1.120538E+0	1.130195E+0	1.168547E+0	1.180611E+0	1.233017E+0	1.174145E+0	1.105241E+0	1.234091E+0	1.215382E+0	1.184545E+0	1.195213E+0	1.100243E+0	1.184711E+0	1.171151E+0	1.304766E+0	1.087186E+0	1.085879E+0	1.108061E+0	1.201238E+0	1.235324E+0	1.168400E+0	1.144831E+0	1.131701E+0	1.204750E+0	1.247268E+0	1.275369E+0	1.185809E+0	1.218114E+0	1.206595E+0	1.157716E+0	1.214178E+0	1.121949E+0	1.146397E+0	1.097086E+0	1.163684E+0	1.146693E+0	1.181771E+0	1.206081E+0	1.087222E+0	1.139693E+0	1.260417E+0	1.216476E+0	1.080681E+0	1.200226E+0	1.224830E+0
5.432800E+2	1.027010E+0	1.405623E+0	1.442986E+0	1.484008E+0	1.242020E+0	1.296546E+0	1.425603E+0	1.476311E+0	1.372746E+0	1.347441E+0	1.376416E+0	1.339121E+0	1.426832E+0	1.444959E+0	1.353779E+0	1.259958E+0	1.374175E+0	1.393163E+0	1.383774E+0	1.329657E+0	1.258222E+0	1.276672E+0	1.451229E+0	1.433869E+0	1.139783E+0	1.249541E+0	1.292542E+0	1.295709E+0	1.401083E+0	1.371936E+0	1.261089E+0	1.270249E+0	1.350468E+0	1.383197E+0	1.369471E+0	1.326697E+0	1.289550E+0	1.250843E+0	1.463119E+0	1.425164E+0	1.354650E+0	1.298122E+0	1.355410E+0	1.337603E+0	1.327901E+0	1.350776E+0	1.279185E+0	1.237990E+0	1.390080E+0	1.409379E+0	1.310898E+0	1.334644E+0	1.335521E+0	1.273256E+0	1.401406E+0	1.385946E+0	1.407132E+0	1.332482E+0	1.342502E+0	1.317006E+0	1.416803E+0	1.397376E+0	1.215743E+0	1.215995E+0	1.106151E+0	1.355672E+0	1.406118E+0	1.316976E+0	1.173763E+0	1.303467E+0	1.349630E+0	1.439993E+0	1.350143E+0	1.281104E+0	1.276020E+0	1.346557E+0	1.393794E+0	1.476523E+0	1.321289E+0	1.240074E+0	1.339696E+0	1.395573E+0	1.318117E+0	1.275458E+0	1.203626E+0	1.331976E+0	1.399746E+0	1.397960E+0	1.223055E+0	1.355862E+0	1.325542E+0	1.350220E+0	1.380681E+0	1.397676E+0	1.302935E+0	1.235027E+0	1.382136E+0	1.370867E+0	1.398033E+0	1.293118E+0	1.262800E+0	1.318138E+0	1.377236E+0	1.410987E+0	1.272176E+0	1.257111E+0	1.308608E+0	1.353392E+0	1.381411E+0	1.343977E+0	1.244523E+0	1.349132E+0	1.374001E+0	1.302637E+0	1.346437E+0	1.387596E+0	1.256809E+0	1.310212E+0	1.440025E+0	1.413613E+0	1.257835E+0	1.219181E+0	1.273570E+0	1.342815E+0	1.395294E+0	1.231644E+0	1.277420E+0	1.283547E+0	1.389695E+0	1.337197E+0	1.360949E+0	1.365709E+0	1.260678E+0	1.327827E+0	1.428528E+0	1.361323E+0	1.305385E+0	1.306420E+0	1.295459E+0	1.363187E+0	1.372175E+0	1.256699E+0	1.210348E+0	1.228500E+0	1.447015E+0	1.379565E+0	1.312214E+0	1.321723E+0	1.297847E+0	1.430718E+0	1.420694E+0	1.398267E+0	1.305368E+0	1.272955E+0	1.383335E+0	1.316098E+0	1.434897E+0	1.258540E+0	1.274500E+0	1.237111E+0	1.312125E+0	1.343529E+0	1.430132E+0	1.307271E+0	1.280993E+0	1.288617E+0	1.389369E+0	1.428220E+0	1.142032E+0	1.325929E+0	1.274843E+0
5.435540E+2	1.192122E+0	1.494813E+0	1.663961E+0	1.585336E+0	1.380452E+0	1.404332E+0	1.572529E+0	1.601425E+0	1.507233E+0	1.475230E+0	1.481329E+0	1.531550E+0	1.617781E+0	1.546902E+0	1.423296E+0	1.389032E+0	1.548005E+0	1.502658E+0	1.541227E+0	1.463130E+0	1.409445E+0	1.376566E+0	1.608185E+0	1.574132E+0	1.268619E+0	1.456232E+0	1.416758E+0	1.493278E+0	1.558971E+0	1.490144E+0	1.430183E+0	1.422836E+0	1.474030E+0	1.556165E+0	1.516964E+0	1.407316E+0	1.422939E+0	1.386781E+0	1.606638E+0	1.591507E+0	1.492199E+0	1.485532E+0	1.533236E+0	1.532212E+0	1.611505E+0	1.588152E+0	1.438018E+0	1.360714E+0	1.523417E+0	1.586788E+0	1.499096E+0	1.487500E+0	1.452399E+0	1.400364E+0	1.612445E+0	1.581513E+0	1.558078E+0	1.499982E+0	1.462030E+0	1.481194E+0	1.555987E+0	1.522214E+0	1.403770E+0	1.338760E+0	1.201042E+0	1.509955E+0	1.433259E+0	1.365019E+0	1.328985E+0	1.435944E+0	1.533885E+0	1.572190E+0	1.483395E+0	1.451107E+0	1.460144E+0	1.516059E+0	1.576929E+0	1.560776E+0	1.459804E+0	1.356546E+0	1.479269E+0	1.516915E+0	1.501437E+0	1.398868E+0	1.312070E+0	1.494166E+0	1.563804E+0	1.534885E+0	1.394824E+0	1.549450E+0	1.437387E+0	1.541792E+0	1.563136E+0	1.600203E+0	1.443591E+0	1.375203E+0	1.553506E+0	1.496698E+0	1.533788E+0	1.462006E+0	1.386618E+0	1.459454E+0	1.568432E+0	1.543773E+0	1.383468E+0	1.476295E+0	1.436606E+0	1.502527E+0	1.489018E+0	1.561681E+0	1.362039E+0	1.453510E+0	1.468923E+0	1.513605E+0	1.539038E+0	1.552822E+0	1.344010E+0	1.435789E+0	1.539167E+0	1.583041E+0	1.416149E+0	1.473227E+0	1.404302E+0	1.483698E+0	1.533919E+0	1.529140E+0	1.432735E+0	1.418614E+0	1.471689E+0	1.577419E+0	1.519719E+0	1.509240E+0	1.420920E+0	1.508573E+0	1.566619E+0	1.525585E+0	1.491304E+0	1.499820E+0	1.490396E+0	1.482915E+0	1.568561E+0	1.462105E+0	1.322318E+0	1.374374E+0	1.482783E+0	1.539512E+0	1.465576E+0	1.414823E+0	1.432502E+0	1.495204E+0	1.623125E+0	1.631822E+0	1.453734E+0	1.495139E+0	1.465775E+0	1.467224E+0	1.539980E+0	1.434469E+0	1.389952E+0	1.331935E+0	1.450329E+0	1.456414E+0	1.502475E+0	1.465127E+0	1.291520E+0	1.408173E+0	1.534044E+0	1.547208E+0	1.357183E+0	1.415717E+0	1.472622E+0
5.437640E+2	1.239295E+0	1.579254E+0	1.675623E+0	1.693037E+0	1.394137E+0	1.471391E+0	1.646900E+0	1.701125E+0	1.558227E+0	1.544362E+0	1.625658E+0	1.534680E+0	1.648145E+0	1.659189E+0	1.528593E+0	1.460262E+0	1.590629E+0	1.600863E+0	1.645795E+0	1.535522E+0	1.502463E+0	1.461524E+0	1.707558E+0	1.699922E+0	1.414218E+0	1.523503E+0	1.525578E+0	1.544818E+0	1.625748E+0	1.604533E+0	1.480749E+0	1.479205E+0	1.525087E+0	1.638731E+0	1.558344E+0	1.529566E+0	1.459499E+0	1.485556E+0	1.760483E+0	1.648425E+0	1.529269E+0	1.581124E+0	1.595143E+0	1.609488E+0	1.664437E+0	1.712412E+0	1.521532E+0	1.422752E+0	1.587256E+0	1.583459E+0	1.560413E+0	1.538086E+0	1.533040E+0	1.409552E+0	1.620058E+0	1.597212E+0	1.582352E+0	1.511219E+0	1.543357E+0	1.503581E+0	1.622644E+0	1.572149E+0	1.506965E+0	1.427099E+0	1.220692E+0	1.636448E+0	1.570193E+0	1.516011E+0	1.409562E+0	1.531167E+0	1.615527E+0	1.637318E+0	1.578207E+0	1.536395E+0	1.551638E+0	1.519627E+0	1.641406E+0	1.597573E+0	1.493649E+0	1.444765E+0	1.612961E+0	1.624466E+0	1.595653E+0	1.517005E+0	1.450783E+0	1.587143E+0	1.652648E+0	1.656103E+0	1.448655E+0	1.635488E+0	1.529258E+0	1.515979E+0	1.597011E+0	1.641222E+0	1.518712E+0	1.437714E+0	1.608846E+0	1.627892E+0	1.594727E+0	1.537432E+0	1.450588E+0	1.492852E+0	1.730429E+0	1.673280E+0	1.427884E+0	1.539412E+0	1.456516E+0	1.595199E+0	1.597153E+0	1.644515E+0	1.426873E+0	1.432123E+0	1.551644E+0	1.540914E+0	1.586143E+0	1.629769E+0	1.430730E+0	1.501595E+0	1.648864E+0	1.607926E+0	1.510324E+0	1.563226E+0	1.510596E+0	1.592253E+0	1.603230E+0	1.624632E+0	1.506991E+0	1.457211E+0	1.562342E+0	1.614788E+0	1.580261E+0	1.530654E+0	1.483962E+0	1.554149E+0	1.634228E+0	1.551655E+0	1.555570E+0	1.629912E+0	1.494914E+0	1.519933E+0	1.622169E+0	1.599041E+0	1.401674E+0	1.427635E+0	1.653560E+0	1.622681E+0	1.588504E+0	1.511998E+0	1.482880E+0	1.622519E+0	1.632189E+0	1.649903E+0	1.489060E+0	1.630827E+0	1.521816E+0	1.523443E+0	1.610738E+0	1.608210E+0	1.459538E+0	1.426759E+0	1.495829E+0	1.603900E+0	1.553746E+0	1.502133E+0	1.421178E+0	1.484209E+0	1.660481E+0	1.672590E+0	1.405927E+0	1.460610E+0	1.470347E+0
5.440120E+2	1.302660E+0	1.635718E+0	1.774125E+0	1.735884E+0	1.494672E+0	1.523047E+0	1.718244E+0	1.700150E+0	1.665253E+0	1.592023E+0	1.687099E+0	1.609771E+0	1.732557E+0	1.675441E+0	1.674277E+0	1.509903E+0	1.649865E+0	1.661255E+0	1.684261E+0	1.593771E+0	1.578072E+0	1.504006E+0	1.712076E+0	1.747340E+0	1.669272E+0	1.635627E+0	1.637053E+0	1.596893E+0	1.702878E+0	1.647569E+0	1.548713E+0	1.533885E+0	1.588915E+0	1.628282E+0	1.659681E+0	1.569087E+0	1.531626E+0	1.538363E+0	1.711558E+0	1.746820E+0	1.586823E+0	1.597866E+0	1.644908E+0	1.708205E+0	1.689511E+0	1.687897E+0	1.504608E+0	1.507713E+0	1.714414E+0	1.654981E+0	1.628408E+0	1.587045E+0	1.628989E+0	1.513690E+0	1.749511E+0	1.729971E+0	1.721688E+0	1.532091E+0	1.628386E+0	1.604618E+0	1.730900E+0	1.673013E+0	1.496161E+0	1.431174E+0	1.306476E+0	1.666598E+0	1.637427E+0	1.565771E+0	1.429830E+0	1.572568E+0	1.700565E+0	1.735493E+0	1.641759E+0	1.549561E+0	1.572226E+0	1.626682E+0	1.742183E+0	1.736225E+0	1.536347E+0	1.452199E+0	1.599415E+0	1.738089E+0	1.675112E+0	1.573434E+0	1.447756E+0	1.563380E+0	1.650468E+0	1.676224E+0	1.523038E+0	1.672736E+0	1.605725E+0	1.616928E+0	1.672028E+0	1.709420E+0	1.557603E+0	1.469437E+0	1.715362E+0	1.701841E+0	1.671351E+0	1.600833E+0	1.573889E+0	1.489768E+0	1.694365E+0	1.718090E+0	1.537089E+0	1.628921E+0	1.511696E+0	1.683579E+0	1.658416E+0	1.686464E+0	1.531654E+0	1.538030E+0	1.611036E+0	1.631939E+0	1.587334E+0	1.627382E+0	1.559110E+0	1.573431E+0	1.682887E+0	1.689462E+0	1.555630E+0	1.715958E+0	1.545837E+0	1.617872E+0	1.659095E+0	1.690743E+0	1.532616E+0	1.509509E+0	1.576780E+0	1.778496E+0	1.617953E+0	1.601839E+0	1.559030E+0	1.659798E+0	1.719028E+0	1.663248E+0	1.583117E+0	1.655469E+0	1.544073E+0	1.576614E+0	1.690634E+0	1.675793E+0	1.477768E+0	1.478021E+0	1.651829E+0	1.716906E+0	1.614165E+0	1.574261E+0	1.528414E+0	1.706839E+0	1.635210E+0	1.698318E+0	1.532537E+0	1.740506E+0	1.633897E+0	1.655227E+0	1.696808E+0	1.738795E+0	1.512782E+0	1.456241E+0	1.618677E+0	1.740609E+0	1.636910E+0	1.551285E+0	1.489117E+0	1.592754E+0	1.670543E+0	1.722487E+0	1.427778E+0	1.588879E+0	1.527182E+0
5.442860E+2	1.332719E+0	1.611441E+0	1.820781E+0	1.750361E+0	1.453089E+0	1.521062E+0	1.785359E+0	1.776387E+0	1.702794E+0	1.658014E+0	1.604215E+0	1.599864E+0	1.715054E+0	1.602062E+0	1.616517E+0	1.532350E+0	1.643778E+0	1.624570E+0	1.665626E+0	1.583027E+0	1.623224E+0	1.525010E+0	1.731270E+0	1.733364E+0	1.689173E+0	1.625387E+0	1.617942E+0	1.662390E+0	1.706501E+0	1.681883E+0	1.555780E+0	1.510147E+0	1.618527E+0	1.732269E+0	1.663925E+0	1.532728E+0	1.545458E+0	1.490931E+0	1.731670E+0	1.726081E+0	1.609260E+0	1.570322E+0	1.606063E+0	1.640514E+0	1.642151E+0	1.657807E+0	1.519891E+0	1.456468E+0	1.661904E+0	1.697670E+0	1.636301E+0	1.565828E+0	1.636135E+0	1.469278E+0	1.738088E+0	1.692857E+0	1.749661E+0	1.562058E+0	1.613594E+0	1.548933E+0	1.706367E+0	1.686997E+0	1.572344E+0	1.484178E+0	1.337626E+0	1.667186E+0	1.645445E+0	1.578926E+0	1.483715E+0	1.553420E+0	1.708503E+0	1.739866E+0	1.627408E+0	1.598786E+0	1.587090E+0	1.670099E+0	1.756272E+0	1.718623E+0	1.623830E+0	1.532984E+0	1.594115E+0	1.638806E+0	1.623462E+0	1.569741E+0	1.470454E+0	1.622783E+0	1.761113E+0	1.687022E+0	1.564147E+0	1.679560E+0	1.588034E+0	1.646755E+0	1.618307E+0	1.671474E+0	1.636986E+0	1.472756E+0	1.732613E+0	1.655326E+0	1.664111E+0	1.591540E+0	1.549127E+0	1.581753E+0	1.752184E+0	1.720822E+0	1.527160E+0	1.629497E+0	1.538431E+0	1.708743E+0	1.669069E+0	1.724165E+0	1.562334E+0	1.537012E+0	1.642318E+0	1.685487E+0	1.658293E+0	1.637523E+0	1.485473E+0	1.544915E+0	1.753283E+0	1.731820E+0	1.596861E+0	1.692306E+0	1.549814E+0	1.599572E+0	1.663235E+0	1.707533E+0	1.579158E+0	1.548101E+0	1.683024E+0	1.670544E+0	1.669353E+0	1.551487E+0	1.547482E+0	1.643228E+0	1.679497E+0	1.697146E+0	1.546389E+0	1.712963E+0	1.514126E+0	1.592814E+0	1.664099E+0	1.692358E+0	1.497338E+0	1.487137E+0	1.643174E+0	1.725633E+0	1.595068E+0	1.564366E+0	1.569100E+0	1.718966E+0	1.693218E+0	1.745139E+0	1.580902E+0	1.668138E+0	1.631744E+0	1.588729E+0	1.686250E+0	1.712567E+0	1.535452E+0	1.481786E+0	1.604457E+0	1.713383E+0	1.622098E+0	1.572101E+0	1.484331E+0	1.564434E+0	1.690673E+0	1.732081E+0	1.440385E+0	1.636337E+0	1.486262E+0
5.445290E+2	1.266583E+0	1.614082E+0	1.724874E+0	1.626449E+0	1.386242E+0	1.469403E+0	1.690433E+0	1.713834E+0	1.620425E+0	1.601974E+0	1.680143E+0	1.619681E+0	1.700642E+0	1.627177E+0	1.720792E+0	1.473644E+0	1.626614E+0	1.625696E+0	1.632574E+0	1.516860E+0	1.544347E+0	1.490932E+0	1.745948E+0	1.619556E+0	1.686030E+0	1.610761E+0	1.634927E+0	1.560386E+0	1.713752E+0	1.638304E+0	1.596016E+0	1.497009E+0	1.595038E+0	1.624621E+0	1.657030E+0	1.527459E+0	1.497045E+0	1.509511E+0	1.691986E+0	1.672251E+0	1.603894E+0	1.540616E+0	1.658259E+0	1.615697E+0	1.664997E+0	1.677307E+0	1.508977E+0	1.515807E+0	1.612998E+0	1.666623E+0	1.588340E+0	1.574531E+0	1.620315E+0	1.468766E+0	1.692944E+0	1.670015E+0	1.657829E+0	1.532627E+0	1.636396E+0	1.557545E+0	1.689834E+0	1.679506E+0	1.503182E+0	1.473759E+0	1.251842E+0	1.631131E+0	1.574510E+0	1.523449E+0	1.477286E+0	1.533753E+0	1.676190E+0	1.678631E+0	1.605369E+0	1.565589E+0	1.508179E+0	1.519033E+0	1.681499E+0	1.624774E+0	1.471256E+0	1.397680E+0	1.564077E+0	1.641561E+0	1.646166E+0	1.527552E+0	1.432121E+0	1.572677E+0	1.637384E+0	1.629603E+0	1.512762E+0	1.651752E+0	1.538959E+0	1.636428E+0	1.621209E+0	1.637637E+0	1.571455E+0	1.402195E+0	1.653475E+0	1.604041E+0	1.658682E+0	1.572411E+0	1.532618E+0	1.531390E+0	1.710395E+0	1.668362E+0	1.475953E+0	1.552608E+0	1.529331E+0	1.650441E+0	1.608873E+0	1.693896E+0	1.532812E+0	1.581819E+0	1.543158E+0	1.636224E+0	1.625498E+0	1.599947E+0	1.472878E+0	1.533400E+0	1.657666E+0	1.696346E+0	1.467562E+0	1.624422E+0	1.507753E+0	1.583106E+0	1.629095E+0	1.619384E+0	1.526339E+0	1.527283E+0	1.566382E+0	1.704355E+0	1.664785E+0	1.552067E+0	1.488772E+0	1.630280E+0	1.623345E+0	1.692976E+0	1.568193E+0	1.603196E+0	1.587018E+0	1.574303E+0	1.611019E+0	1.714438E+0	1.491901E+0	1.413721E+0	1.574519E+0	1.611631E+0	1.524651E+0	1.580079E+0	1.558927E+0	1.679836E+0	1.670863E+0	1.651506E+0	1.529818E+0	1.702061E+0	1.604258E+0	1.585709E+0	1.617602E+0	1.673228E+0	1.501185E+0	1.432163E+0	1.525402E+0	1.647581E+0	1.587921E+0	1.498087E+0	1.444143E+0	1.575975E+0	1.644754E+0	1.677704E+0	1.459715E+0	1.532441E+0	1.493080E+0
5.447660E+2	1.191197E+0	1.503783E+0	1.649705E+0	1.600972E+0	1.364134E+0	1.419732E+0	1.617270E+0	1.593605E+0	1.490421E+0	1.494610E+0	1.616383E+0	1.419950E+0	1.597707E+0	1.516371E+0	1.671213E+0	1.410615E+0	1.526412E+0	1.524106E+0	1.607933E+0	1.493668E+0	1.495938E+0	1.377968E+0	1.624559E+0	1.584115E+0	1.567146E+0	1.484505E+0	1.633867E+0	1.452474E+0	1.626783E+0	1.535353E+0	1.633534E+0	1.394435E+0	1.541431E+0	1.512792E+0	1.658088E+0	1.440515E+0	1.457029E+0	1.427366E+0	1.644147E+0	1.558417E+0	1.500488E+0	1.477431E+0	1.607883E+0	1.530516E+0	1.590890E+0	1.540231E+0	1.664534E+0	1.411063E+0	1.517238E+0	1.543543E+0	1.613232E+0	1.526120E+0	1.479958E+0	1.415677E+0	1.634744E+0	1.572471E+0	1.580769E+0	1.415965E+0	1.564922E+0	1.482915E+0	1.554388E+0	1.524709E+0	1.584230E+0	1.366395E+0	1.209189E+0	1.489262E+0	1.520848E+0	1.406770E+0	1.366062E+0	1.432323E+0	1.580375E+0	1.576562E+0	1.528496E+0	1.481442E+0	1.532197E+0	1.503568E+0	1.580182E+0	1.535715E+0	1.514477E+0	1.402638E+0	1.464551E+0	1.559384E+0	1.589407E+0	1.483249E+0	1.332756E+0	1.486418E+0	1.588877E+0	1.549117E+0	1.408037E+0	1.553648E+0	1.415133E+0	1.493039E+0	1.544261E+0	1.542781E+0	1.454242E+0	1.314586E+0	1.546369E+0	1.528303E+0	1.553701E+0	1.465286E+0	1.409315E+0	1.419370E+0	1.591899E+0	1.519182E+0	1.389216E+0	1.521053E+0	1.428072E+0	1.530759E+0	1.506062E+0	1.586636E+0	1.403141E+0	1.418887E+0	1.500205E+0	1.554298E+0	1.534861E+0	1.451419E+0	1.396335E+0	1.476371E+0	1.556765E+0	1.521623E+0	1.433456E+0	1.476312E+0	1.394072E+0	1.487357E+0	1.516331E+0	1.533865E+0	1.424366E+0	1.394751E+0	1.491901E+0	1.540647E+0	1.535138E+0	1.487247E+0	1.417073E+0	1.588329E+0	1.568338E+0	1.576685E+0	1.421872E+0	1.557897E+0	1.467228E+0	1.493904E+0	1.549980E+0	1.561490E+0	1.378301E+0	1.358060E+0	1.511056E+0	1.570916E+0	1.439917E+0	1.369437E+0	1.318189E+0	1.624719E+0	1.621310E+0	1.527013E+0	1.509165E+0	1.544890E+0	1.464698E+0	1.481129E+0	1.537341E+0	1.648644E+0	1.391005E+0	1.347655E+0	1.467390E+0	1.562492E+0	1.506463E+0	1.449515E+0	1.349890E+0	1.478963E+0	1.518320E+0	1.570877E+0	1.368949E+0	1.416999E+0	1.415790E+0
5.450200E+2	1.129222E+0	1.413538E+0	1.529173E+0	1.433631E+0	1.206229E+0	1.298532E+0	1.472161E+0	1.578456E+0	1.421497E+0	1.395100E+0	1.517847E+0	1.381881E+0	1.440211E+0	1.435109E+0	1.545466E+0	1.330324E+0	1.397424E+0	1.448473E+0	1.475727E+0	1.338143E+0	1.337096E+0	1.270605E+0	1.436548E+0	1.476798E+0	1.480206E+0	1.374824E+0	1.461345E+0	1.386976E+0	1.458541E+0	1.486326E+0	1.495971E+0	1.291866E+0	1.393355E+0	1.397304E+0	1.470273E+0	1.330387E+0	1.273250E+0	1.303166E+0	1.482687E+0	1.471937E+0	1.388305E+0	1.386698E+0	1.485287E+0	1.381037E+0	1.478343E+0	1.447174E+0	1.491511E+0	1.289237E+0	1.445163E+0	1.460383E+0	1.472992E+0	1.340629E+0	1.346242E+0	1.254877E+0	1.519435E+0	1.473497E+0	1.419799E+0	1.331950E+0	1.494065E+0	1.365804E+0	1.487194E+0	1.431829E+0	1.437808E+0	1.243632E+0	1.108069E+0	1.376951E+0	1.486306E+0	1.353009E+0	1.279057E+0	1.297256E+0	1.508939E+0	1.462832E+0	1.376282E+0	1.337202E+0	1.472724E+0	1.403057E+0	1.436598E+0	1.436530E+0	1.495731E+0	1.241563E+0	1.383864E+0	1.414875E+0	1.461144E+0	1.319760E+0	1.230866E+0	1.351088E+0	1.473326E+0	1.455381E+0	1.290587E+0	1.445050E+0	1.535537E+0	1.400122E+0	1.470215E+0	1.448946E+0	1.514980E+0	1.264864E+0	1.436284E+0	1.438256E+0	1.468021E+0	1.340671E+0	1.370623E+0	1.320706E+0	1.506608E+0	1.420273E+0	1.328084E+0	1.350639E+0	1.407592E+0	1.393282E+0	1.421895E+0	1.449640E+0	1.407770E+0	1.376118E+0	1.379836E+0	1.417223E+0	1.453767E+0	1.381632E+0	1.296049E+0	1.309666E+0	1.465836E+0	1.440084E+0	1.352519E+0	1.355975E+0	1.353146E+0	1.394654E+0	1.442878E+0	1.462507E+0	1.353246E+0	1.300304E+0	1.355051E+0	1.462942E+0	1.439764E+0	1.426478E+0	1.324198E+0	1.445391E+0	1.450876E+0	1.481782E+0	1.330059E+0	1.463811E+0	1.324272E+0	1.379957E+0	1.455506E+0	1.512903E+0	1.274486E+0	1.255373E+0	1.419899E+0	1.455177E+0	1.361742E+0	1.283900E+0	1.289126E+0	1.436229E+0	1.405586E+0	1.432844E+0	1.375474E+0	1.423905E+0	1.401115E+0	1.354785E+0	1.398463E+0	1.450858E+0	1.307186E+0	1.257744E+0	1.379804E+0	1.412737E+0	1.436968E+0	1.335605E+0	1.297260E+0	1.370418E+0	1.437175E+0	1.474279E+0	1.274820E+0	1.341321E+0	1.252110E+0
5.452740E+2	1.080659E+0	1.342294E+0	1.494180E+0	1.397155E+0	1.188330E+0	1.251837E+0	1.451602E+0	1.417665E+0	1.347531E+0	1.360010E+0	1.359604E+0	1.319828E+0	1.370729E+0	1.341538E+0	1.425852E+0	1.187436E+0	1.317156E+0	1.333902E+0	1.357333E+0	1.262925E+0	1.250607E+0	1.199649E+0	1.389687E+0	1.387448E+0	1.399553E+0	1.324125E+0	1.389685E+0	1.323626E+0	1.362777E+0	1.362134E+0	1.449757E+0	1.201158E+0	1.298898E+0	1.388423E+0	1.410853E+0	1.250820E+0	1.228786E+0	1.247421E+0	1.478341E+0	1.397807E+0	1.316118E+0	1.255456E+0	1.349946E+0	1.357910E+0	1.384177E+0	1.379193E+0	1.401449E+0	1.221357E+0	1.318518E+0	1.368903E+0	1.422604E+0	1.272633E+0	1.312556E+0	1.230884E+0	1.390529E+0	1.393558E+0	1.373350E+0	1.288602E+0	1.455253E+0	1.326193E+0	1.348544E+0	1.363420E+0	1.414033E+0	1.163446E+0	1.053435E+0	1.314295E+0	1.438194E+0	1.252916E+0	1.215287E+0	1.266723E+0	1.403492E+0	1.362229E+0	1.298380E+0	1.293125E+0	1.387525E+0	1.298385E+0	1.394880E+0	1.357606E+0	1.427514E+0	1.211329E+0	1.353830E+0	1.405501E+0	1.355577E+0	1.255943E+0	1.147135E+0	1.265860E+0	1.394837E+0	1.416611E+0	1.220610E+0	1.398880E+0	1.425406E+0	1.280246E+0	1.355517E+0	1.377166E+0	1.359408E+0	1.220349E+0	1.355360E+0	1.329123E+0	1.411909E+0	1.272351E+0	1.234941E+0	1.226668E+0	1.413298E+0	1.367817E+0	1.237167E+0	1.348918E+0	1.404180E+0	1.335592E+0	1.313757E+0	1.444331E+0	1.401403E+0	1.296180E+0	1.340064E+0	1.340121E+0	1.413819E+0	1.338685E+0	1.175906E+0	1.236733E+0	1.441202E+0	1.394552E+0	1.236453E+0	1.318947E+0	1.366221E+0	1.317199E+0	1.396326E+0	1.340782E+0	1.461500E+0	1.236831E+0	1.312898E+0	1.376347E+0	1.435191E+0	1.286421E+0	1.247202E+0	1.351652E+0	1.393007E+0	1.421812E+0	1.278990E+0	1.361595E+0	1.422590E+0	1.333105E+0	1.356253E+0	1.396949E+0	1.329927E+0	1.236179E+0	1.366819E+0	1.448778E+0	1.376660E+0	1.248405E+0	1.286703E+0	1.391038E+0	1.411630E+0	1.409438E+0	1.293415E+0	1.346451E+0	1.286343E+0	1.315494E+0	1.338268E+0	1.364537E+0	1.236543E+0	1.190436E+0	1.308144E+0	1.371892E+0	1.325891E+0	1.254074E+0	1.226930E+0	1.273408E+0	1.401318E+0	1.367446E+0	1.205905E+0	1.316950E+0	1.268023E+0
5.455290E+2	9.886228E-1	1.236746E+0	1.371704E+0	1.309141E+0	1.103061E+0	1.167396E+0	1.307699E+0	1.317964E+0	1.280290E+0	1.221223E+0	1.287153E+0	1.268199E+0	1.278086E+0	1.285888E+0	1.341508E+0	1.115344E+0	1.289475E+0	1.267868E+0	1.332695E+0	1.170174E+0	1.172275E+0	1.155771E+0	1.309514E+0	1.295601E+0	1.273334E+0	1.221756E+0	1.301567E+0	1.244168E+0	1.313600E+0	1.224317E+0	1.316006E+0	1.170217E+0	1.243245E+0	1.304291E+0	1.370530E+0	1.189168E+0	1.106268E+0	1.186298E+0	1.331016E+0	1.310006E+0	1.240512E+0	1.253298E+0	1.343270E+0	1.245091E+0	1.311743E+0	1.310656E+0	1.336499E+0	1.125602E+0	1.258798E+0	1.244718E+0	1.290253E+0	1.236187E+0	1.256924E+0	1.119095E+0	1.382915E+0	1.288399E+0	1.289435E+0	1.196021E+0	1.297525E+0	1.228026E+0	1.312283E+0	1.252070E+0	1.279498E+0	1.122676E+0	1.017492E+0	1.281784E+0	1.300024E+0	1.198010E+0	1.059075E+0	1.194271E+0	1.316182E+0	1.310224E+0	1.274804E+0	1.196390E+0	1.319478E+0	1.252588E+0	1.349906E+0	1.272285E+0	1.338992E+0	1.167220E+0	1.241343E+0	1.275885E+0	1.325494E+0	1.241703E+0	1.128471E+0	1.211622E+0	1.329430E+0	1.294901E+0	1.141819E+0	1.230471E+0	1.275330E+0	1.249272E+0	1.278566E+0	1.345889E+0	1.389245E+0	1.130847E+0	1.295260E+0	1.265911E+0	1.278569E+0	1.187088E+0	1.209662E+0	1.176823E+0	1.335447E+0	1.322461E+0	1.161926E+0	1.258259E+0	1.339896E+0	1.289562E+0	1.307367E+0	1.240964E+0	1.342935E+0	1.245772E+0	1.245147E+0	1.240524E+0	1.344649E+0	1.231317E+0	1.140056E+0	1.155024E+0	1.318009E+0	1.293956E+0	1.168751E+0	1.258264E+0	1.313358E+0	1.251332E+0	1.277876E+0	1.248962E+0	1.432736E+0	1.219058E+0	1.245920E+0	1.335419E+0	1.284989E+0	1.226232E+0	1.129302E+0	1.272414E+0	1.320238E+0	1.277367E+0	1.281858E+0	1.259376E+0	1.309583E+0	1.244031E+0	1.307951E+0	1.316335E+0	1.301662E+0	1.115737E+0	1.279125E+0	1.298138E+0	1.331310E+0	1.136103E+0	1.185954E+0	1.298441E+0	1.311925E+0	1.308886E+0	1.223851E+0	1.332881E+0	1.277721E+0	1.206077E+0	1.273315E+0	1.282581E+0	1.359376E+0	1.149163E+0	1.188708E+0	1.295882E+0	1.387412E+0	1.167918E+0	1.145594E+0	1.199472E+0	1.339677E+0	1.242705E+0	1.136990E+0	1.182268E+0	1.243017E+0
5.457990E+2	9.488477E-1	1.211941E+0	1.349023E+0	1.310879E+0	1.077270E+0	1.131631E+0	1.317977E+0	1.291572E+0	1.229859E+0	1.219128E+0	1.287731E+0	1.205623E+0	1.299702E+0	1.272589E+0	1.329241E+0	1.077791E+0	1.208097E+0	1.284232E+0	1.328487E+0	1.179223E+0	1.169553E+0	1.151570E+0	1.265473E+0	1.279628E+0	1.249241E+0	1.203718E+0	1.313775E+0	1.227527E+0	1.263384E+0	1.237392E+0	1.288819E+0	1.130375E+0	1.242731E+0	1.229040E+0	1.319600E+0	1.231322E+0	1.136401E+0	1.146691E+0	1.303290E+0	1.294563E+0	1.255147E+0	1.202530E+0	1.307462E+0	1.260887E+0	1.225936E+0	1.265519E+0	1.314663E+0	1.129651E+0	1.263946E+0	1.286298E+0	1.313931E+0	1.155138E+0	1.210479E+0	1.128792E+0	1.276307E+0	1.246050E+0	1.278352E+0	1.159633E+0	1.282122E+0	1.211950E+0	1.306950E+0	1.268049E+0	1.255187E+0	1.090061E+0	9.839459E-1	1.234495E+0	1.303108E+0	1.157973E+0	1.084284E+0	1.183922E+0	1.307677E+0	1.232462E+0	1.237904E+0	1.195245E+0	1.308042E+0	1.197277E+0	1.294643E+0	1.288815E+0	1.246304E+0	1.087425E+0	1.208364E+0	1.272575E+0	1.273279E+0	1.145721E+0	1.070466E+0	1.211623E+0	1.296728E+0	1.285577E+0	1.188308E+0	1.242538E+0	1.354647E+0	1.203961E+0	1.231139E+0	1.316664E+0	1.281093E+0	1.141263E+0	1.254201E+0	1.196139E+0	1.273138E+0	1.221523E+0	1.161167E+0	1.194294E+0	1.318274E+0	1.306614E+0	1.112287E+0	1.191127E+0	1.304058E+0	1.242304E+0	1.214145E+0	1.257954E+0	1.286204E+0	1.210131E+0	1.189469E+0	1.244273E+0	1.242089E+0	1.156159E+0	1.115347E+0	1.213151E+0	1.281053E+0	1.286542E+0	1.142281E+0	1.224836E+0	1.299148E+0	1.214737E+0	1.274770E+0	1.205414E+0	1.287357E+0	1.150506E+0	1.217050E+0	1.250601E+0	1.268425E+0	1.210027E+0	1.140371E+0	1.239785E+0	1.309925E+0	1.237737E+0	1.191770E+0	1.272735E+0	1.306191E+0	1.251551E+0	1.249566E+0	1.296455E+0	1.321775E+0	1.153646E+0	1.200661E+0	1.316752E+0	1.368306E+0	1.142503E+0	1.194672E+0	1.257109E+0	1.283523E+0	1.267922E+0	1.201569E+0	1.263344E+0	1.349926E+0	1.208495E+0	1.282292E+0	1.310445E+0	1.306656E+0	1.128529E+0	1.172215E+0	1.300418E+0	1.238735E+0	1.212441E+0	1.162817E+0	1.163814E+0	1.253498E+0	1.282367E+0	1.104213E+0	1.188683E+0	1.361228E+0
5.460060E+2	9.460728E-1	1.249411E+0	1.304310E+0	1.287718E+0	1.079375E+0	1.172860E+0	1.269002E+0	1.274467E+0	1.199598E+0	1.203415E+0	1.248315E+0	1.196236E+0	1.277058E+0	1.194778E+0	1.256655E+0	1.138654E+0	1.198130E+0	1.208604E+0	1.274401E+0	1.160558E+0	1.133109E+0	1.119826E+0	1.269993E+0	1.254171E+0	1.191108E+0	1.118408E+0	1.319616E+0	1.157195E+0	1.227147E+0	1.202527E+0	1.301869E+0	1.093925E+0	1.173296E+0	1.260394E+0	1.294133E+0	1.159132E+0	1.139859E+0	1.146203E+0	1.274479E+0	1.227937E+0	1.211247E+0	1.207930E+0	1.255875E+0	1.224786E+0	1.213122E+0	1.259946E+0	1.228425E+0	1.116611E+0	1.223789E+0	1.217550E+0	1.281755E+0	1.208990E+0	1.166076E+0	1.095611E+0	1.277395E+0	1.255569E+0	1.284686E+0	1.202445E+0	1.272265E+0	1.147079E+0	1.296816E+0	1.238585E+0	1.249243E+0	1.066954E+0	9.954473E-1	1.190752E+0	1.303108E+0	1.112789E+0	1.065007E+0	1.149766E+0	1.305411E+0	1.286410E+0	1.238929E+0	1.138577E+0	1.274876E+0	1.162186E+0	1.236124E+0	1.236555E+0	1.269735E+0	1.115179E+0	1.132392E+0	1.211353E+0	1.256252E+0	1.110384E+0	1.047263E+0	1.193544E+0	1.248217E+0	1.250731E+0	1.139373E+0	1.197944E+0	1.323832E+0	1.223462E+0	1.192424E+0	1.288462E+0	1.328510E+0	1.062652E+0	1.234565E+0	1.220589E+0	1.315375E+0	1.138990E+0	1.179226E+0	1.129549E+0	1.314269E+0	1.293499E+0	1.085639E+0	1.150962E+0	1.261963E+0	1.229415E+0	1.202427E+0	1.252116E+0	1.271151E+0	1.171434E+0	1.182574E+0	1.182696E+0	1.298736E+0	1.245633E+0	1.080467E+0	1.170928E+0	1.267560E+0	1.260601E+0	1.102574E+0	1.207864E+0	1.313360E+0	1.154361E+0	1.300116E+0	1.232172E+0	1.255979E+0	1.129690E+0	1.174321E+0	1.235179E+0	1.285561E+0	1.183405E+0	1.135558E+0	1.259984E+0	1.260647E+0	1.238780E+0	1.128650E+0	1.240791E+0	1.277375E+0	1.185033E+0	1.233644E+0	1.251730E+0	1.354387E+0	1.087907E+0	1.236431E+0	1.246375E+0	1.295506E+0	1.161123E+0	1.156892E+0	1.209710E+0	1.292588E+0	1.230151E+0	1.203200E+0	1.266171E+0	1.276102E+0	1.123863E+0	1.225264E+0	1.282035E+0	1.316146E+0	1.072519E+0	1.198946E+0	1.240856E+0	1.275194E+0	1.162135E+0	1.077173E+0	1.133924E+0	1.279917E+0	1.232470E+0	1.094968E+0	1.243838E+0	1.222559E+0
5.467710E+2	9.932472E-1	1.296908E+0	1.357447E+0	1.314932E+0	1.084639E+0	1.116731E+0	1.279281E+0	1.345822E+0	1.229858E+0	1.179848E+0	1.310918E+0	1.259856E+0	1.303305E+0	1.278499E+0	1.317996E+0	1.266868E+0	1.280064E+0	1.305117E+0	1.341106E+0	1.262923E+0	1.210351E+0	1.138966E+0	1.327019E+0	1.279630E+0	1.250813E+0	1.191042E+0	1.325984E+0	1.295707E+0	1.314635E+0	1.310385E+0	1.323617E+0	1.186747E+0	1.243755E+0	1.271891E+0	1.315357E+0	1.203394E+0	1.170490E+0	1.110999E+0	1.338083E+0	1.310006E+0	1.231246E+0	1.209551E+0	1.329917E+0	1.249606E+0	1.315087E+0	1.312324E+0	1.355600E+0	1.175953E+0	1.312342E+0	1.292951E+0	1.321219E+0	1.227485E+0	1.209457E+0	1.166568E+0	1.327436E+0	1.258425E+0	1.268324E+0	1.269336E+0	1.354209E+0	1.238930E+0	1.342679E+0	1.213618E+0	1.330289E+0	1.099571E+0	1.004554E+0	1.233903E+0	1.300640E+0	1.191146E+0	1.104058E+0	1.151317E+0	1.351330E+0	1.339872E+0	1.275830E+0	1.240464E+0	1.300036E+0	1.219282E+0	1.281096E+0	1.321344E+0	1.312434E+0	1.131537E+0	1.241933E+0	1.339315E+0	1.284062E+0	1.180528E+0	1.117373E+0	1.204908E+0	1.344149E+0	1.296863E+0	1.144756E+0	1.281360E+0	1.319269E+0	1.258451E+0	1.235012E+0	1.249496E+0	1.306667E+0	1.124690E+0	1.289902E+0	1.248021E+0	1.273742E+0	1.231358E+0	1.166843E+0	1.234891E+0	1.356055E+0	1.313717E+0	1.145728E+0	1.230145E+0	1.328519E+0	1.248441E+0	1.272209E+0	1.273355E+0	1.350461E+0	1.244754E+0	1.248327E+0	1.259801E+0	1.343456E+0	1.230124E+0	1.124067E+0	1.173120E+0	1.333262E+0	1.278600E+0	1.176387E+0	1.262891E+0	1.317905E+0	1.197053E+0	1.283564E+0	1.320319E+0	1.393512E+0	1.135782E+0	1.249384E+0	1.232214E+0	1.304406E+0	1.233179E+0	1.179830E+0	1.235642E+0	1.295026E+0	1.245034E+0	1.214722E+0	1.322681E+0	1.302239E+0	1.250972E+0	1.316444E+0	1.327927E+0	1.299490E+0	1.128214E+0	1.262970E+0	1.360953E+0	1.358760E+0	1.189055E+0	1.157858E+0	1.254353E+0	1.353620E+0	1.315802E+0	1.187982E+0	1.291045E+0	1.271253E+0	1.291918E+0	1.289158E+0	1.333938E+0	1.293478E+0	1.103963E+0	1.176766E+0	1.290208E+0	1.325322E+0	1.156931E+0	1.154685E+0	1.236704E+0	1.306966E+0	1.308595E+0	1.142873E+0	1.204075E+0	1.313492E+0
5.475120E+2	1.066785E+0	1.348627E+0	1.370408E+0	1.402945E+0	1.195700E+0	1.235448E+0	1.443742E+0	1.410334E+0	1.339127E+0	1.314971E+0	1.366561E+0	1.362066E+0	1.385655E+0	1.373550E+0	1.449365E+0	1.371763E+0	1.350368E+0	1.360426E+0	1.392188E+0	1.437116E+0	1.288685E+0	1.256597E+0	1.421305E+0	1.392440E+0	1.330944E+0	1.284638E+0	1.413571E+0	1.407379E+0	1.438872E+0	1.411699E+0	1.438342E+0	1.451653E+0	1.323915E+0	1.415072E+0	1.490437E+0	1.373594E+0	1.286093E+0	1.256713E+0	1.404406E+0	1.455171E+0	1.323434E+0	1.346188E+0	1.343876E+0	1.396266E+0	1.428750E+0	1.308983E+0	1.387804E+0	1.316658E+0	1.358676E+0	1.328434E+0	1.468744E+0	1.389587E+0	1.322761E+0	1.251305E+0	1.455798E+0	1.387850E+0	1.418742E+0	1.298234E+0	1.357905E+0	1.370971E+0	1.361341E+0	1.333460E+0	1.392961E+0	1.208748E+0	1.044809E+0	1.397641E+0	1.423387E+0	1.289522E+0	1.197491E+0	1.250679E+0	1.447144E+0	1.398196E+0	1.320418E+0	1.305146E+0	1.432699E+0	1.294814E+0	1.371039E+0	1.385334E+0	1.423871E+0	1.252466E+0	1.297882E+0	1.337107E+0	1.411764E+0	1.275987E+0	1.185469E+0	1.295301E+0	1.407373E+0	1.413176E+0	1.240184E+0	1.411470E+0	1.404860E+0	1.308924E+0	1.358420E+0	1.316148E+0	1.445719E+0	1.210877E+0	1.408912E+0	1.343435E+0	1.382345E+0	1.300773E+0	1.231331E+0	1.259557E+0	1.396700E+0	1.410985E+0	1.292033E+0	1.298999E+0	1.378011E+0	1.370576E+0	1.347319E+0	1.394950E+0	1.383459E+0	1.254428E+0	1.292869E+0	1.313348E+0	1.472254E+0	1.293948E+0	1.204488E+0	1.336536E+0	1.391921E+0	1.381847E+0	1.272597E+0	1.304547E+0	1.363945E+0	1.379408E+0	1.352358E+0	1.401118E+0	1.398220E+0	1.270851E+0	1.305970E+0	1.375753E+0	1.443189E+0	1.330406E+0	1.277520E+0	1.348544E+0	1.419935E+0	1.348806E+0	1.296779E+0	1.347657E+0	1.414114E+0	1.307655E+0	1.376422E+0	1.394742E+0	1.407107E+0	1.177639E+0	1.288356E+0	1.397597E+0	1.399338E+0	1.335686E+0	1.277989E+0	1.363476E+0	1.397730E+0	1.423802E+0	1.303738E+0	1.376982E+0	1.444223E+0	1.319726E+0	1.364141E+0	1.444852E+0	1.393641E+0	1.187980E+0	1.243308E+0	1.338991E+0	1.419310E+0	1.288768E+0	1.188175E+0	1.292287E+0	1.357289E+0	1.441012E+0	1.266416E+0	1.351582E+0	1.338497E+0
5.482600E+2	1.122748E+0	1.392431E+0	1.543431E+0	1.430737E+0	1.274656E+0	1.360122E+0	1.464905E+0	1.482666E+0	1.371626E+0	1.394052E+0	1.539874E+0	1.415781E+0	1.530799E+0	1.481892E+0	1.500994E+0	1.500838E+0	1.483232E+0	1.440575E+0	1.449881E+0	1.514031E+0	1.364839E+0	1.321018E+0	1.515590E+0	1.509243E+0	1.463969E+0	1.375795E+0	1.484173E+0	1.524953E+0	1.473557E+0	1.456369E+0	1.501410E+0	1.519895E+0	1.390802E+0	1.458967E+0	1.476113E+0	1.474765E+0	1.320676E+0	1.322723E+0	1.493562E+0	1.480759E+0	1.419032E+0	1.375892E+0	1.473150E+0	1.520363E+0	1.476668E+0	1.446617E+0	1.518256E+0	1.472200E+0	1.461640E+0	1.474799E+0	1.448709E+0	1.448333E+0	1.342670E+0	1.281934E+0	1.444920E+0	1.531073E+0	1.472049E+0	1.330341E+0	1.485442E+0	1.480618E+0	1.474396E+0	1.416852E+0	1.491296E+0	1.519513E+0	1.140659E+0	1.414193E+0	1.544287E+0	1.494853E+0	1.242474E+0	1.332443E+0	1.452816E+0	1.556636E+0	1.382944E+0	1.338348E+0	1.493883E+0	1.387000E+0	1.508118E+0	1.416800E+0	1.482192E+0	1.412551E+0	1.357953E+0	1.441352E+0	1.441278E+0	1.380407E+0	1.259111E+0	1.392924E+0	1.467330E+0	1.439186E+0	1.338057E+0	1.438229E+0	1.472197E+0	1.391517E+0	1.434401E+0	1.479712E+0	1.496866E+0	1.275755E+0	1.427953E+0	1.391143E+0	1.448111E+0	1.407351E+0	1.291691E+0	1.333039E+0	1.490005E+0	1.426287E+0	1.312933E+0	1.345475E+0	1.468462E+0	1.382849E+0	1.337198E+0	1.455483E+0	1.506759E+0	1.380189E+0	1.388322E+0	1.439713E+0	1.472847E+0	1.382226E+0	1.263593E+0	1.347500E+0	1.481089E+0	1.490388E+0	1.366263E+0	1.404315E+0	1.457732E+0	1.394044E+0	1.416497E+0	1.468276E+0	1.475616E+0	1.301826E+0	1.426072E+0	1.413716E+0	1.492877E+0	1.415483E+0	1.321790E+0	1.437619E+0	1.483537E+0	1.420769E+0	1.385721E+0	1.469621E+0	1.529382E+0	1.397308E+0	1.442236E+0	1.476463E+0	1.469073E+0	1.243379E+0	1.372014E+0	1.446452E+0	1.472737E+0	1.389802E+0	1.294455E+0	1.452213E+0	1.430362E+0	1.419547E+0	1.376563E+0	1.437472E+0	1.500264E+0	1.365062E+0	1.457075E+0	1.501127E+0	1.465866E+0	1.268555E+0	1.386061E+0	1.483641E+0	1.458045E+0	1.374346E+0	1.285780E+0	1.336859E+0	1.494414E+0	1.418625E+0	1.258853E+0	1.370823E+0	1.447615E+0
5.490490E+2	1.088983E+0	1.423567E+0	1.481219E+0	1.473587E+0	1.238860E+0	1.323862E+0	1.465507E+0	1.528608E+0	1.439430E+0	1.352157E+0	1.454668E+0	1.381882E+0	1.521534E+0	1.422796E+0	1.470324E+0	1.480549E+0	1.388014E+0	1.396547E+0	1.437862E+0	1.476138E+0	1.393125E+0	1.294410E+0	1.483411E+0	1.482289E+0	1.456114E+0	1.317788E+0	1.490012E+0	1.458917E+0	1.500991E+0	1.394272E+0	1.509022E+0	1.508452E+0	1.343317E+0	1.435454E+0	1.473459E+0	1.412060E+0	1.328087E+0	1.312458E+0	1.555535E+0	1.516498E+0	1.410257E+0	1.423421E+0	1.480434E+0	1.472419E+0	1.479451E+0	1.414857E+0	1.426014E+0	1.484786E+0	1.416334E+0	1.442088E+0	1.444460E+0	1.460843E+0	1.366654E+0	1.262535E+0	1.495503E+0	1.488722E+0	1.450938E+0	1.303051E+0	1.476818E+0	1.449618E+0	1.453066E+0	1.371411E+0	1.451316E+0	1.471947E+0	1.135865E+0	1.415375E+0	1.484455E+0	1.402768E+0	1.251373E+0	1.327267E+0	1.487395E+0	1.508520E+0	1.393192E+0	1.333765E+0	1.499032E+0	1.439932E+0	1.372121E+0	1.451996E+0	1.491565E+0	1.439313E+0	1.354420E+0	1.450179E+0	1.453762E+0	1.438424E+0	1.240954E+0	1.367097E+0	1.455338E+0	1.480899E+0	1.280802E+0	1.400977E+0	1.459643E+0	1.409298E+0	1.385038E+0	1.401264E+0	1.454776E+0	1.495959E+0	1.433309E+0	1.448990E+0	1.462589E+0	1.492613E+0	1.339155E+0	1.300667E+0	1.466537E+0	1.452515E+0	1.336966E+0	1.396543E+0	1.457082E+0	1.495776E+0	1.440006E+0	1.440617E+0	1.458136E+0	1.410740E+0	1.378242E+0	1.397947E+0	1.478216E+0	1.423387E+0	1.268436E+0	1.369986E+0	1.499859E+0	1.453323E+0	1.318922E+0	1.385286E+0	1.478195E+0	1.448324E+0	1.423742E+0	1.432598E+0	1.475090E+0	1.368854E+0	1.359093E+0	1.416677E+0	1.468318E+0	1.405646E+0	1.289067E+0	1.395672E+0	1.488691E+0	1.437457E+0	1.354159E+0	1.471943E+0	1.507347E+0	1.348145E+0	1.473022E+0	1.389769E+0	1.506033E+0	1.275046E+0	1.351821E+0	1.434237E+0	1.478706E+0	1.360126E+0	1.355486E+0	1.419144E+0	1.445469E+0	1.460512E+0	1.342324E+0	1.479311E+0	1.481400E+0	1.350553E+0	1.421698E+0	1.471073E+0	1.461119E+0	1.286733E+0	1.298476E+0	1.388343E+0	1.417032E+0	1.342544E+0	1.269508E+0	1.349967E+0	1.437804E+0	1.413507E+0	1.337012E+0	1.456762E+0	1.477168E+0
5.497850E+2	1.089909E+0	1.408791E+0	1.507140E+0	1.400049E+0	1.217281E+0	1.297535E+0	1.460673E+0	1.468492E+0	1.415897E+0	1.380961E+0	1.447710E+0	1.373538E+0	1.460799E+0	1.377487E+0	1.454479E+0	1.438243E+0	1.424551E+0	1.377360E+0	1.440266E+0	1.463128E+0	1.347433E+0	1.238862E+0	1.439937E+0	1.471806E+0	1.380174E+0	1.343626E+0	1.477801E+0	1.520119E+0	1.438872E+0	1.378474E+0	1.497607E+0	1.448690E+0	1.363232E+0	1.436498E+0	1.471335E+0	1.424708E+0	1.290540E+0	1.303164E+0	1.446810E+0	1.480317E+0	1.380012E+0	1.311624E+0	1.468901E+0	1.506829E+0	1.380835E+0	1.407055E+0	1.437474E+0	1.505470E+0	1.400889E+0	1.373341E+0	1.423817E+0	1.460844E+0	1.347259E+0	1.272745E+0	1.482994E+0	1.393082E+0	1.331657E+0	1.371014E+0	1.453403E+0	1.479468E+0	1.447731E+0	1.372907E+0	1.532363E+0	1.442500E+0	1.104716E+0	1.405916E+0	1.446210E+0	1.437657E+0	1.214791E+0	1.321060E+0	1.446012E+0	1.460407E+0	1.417795E+0	1.340063E+0	1.465864E+0	1.467886E+0	1.417093E+0	1.419465E+0	1.462406E+0	1.464589E+0	1.334395E+0	1.429218E+0	1.420845E+0	1.471647E+0	1.192529E+0	1.374849E+0	1.444440E+0	1.438201E+0	1.321419E+0	1.435603E+0	1.450514E+0	1.451167E+0	1.381649E+0	1.436645E+0	1.469162E+0	1.438660E+0	1.448186E+0	1.386372E+0	1.505429E+0	1.440146E+0	1.351536E+0	1.379286E+0	1.502599E+0	1.407708E+0	1.293075E+0	1.315638E+0	1.426366E+0	1.430108E+0	1.370225E+0	1.455483E+0	1.481870E+0	1.480497E+0	1.395213E+0	1.408119E+0	1.423955E+0	1.445455E+0	1.264563E+0	1.326665E+0	1.447652E+0	1.430024E+0	1.301103E+0	1.373972E+0	1.449208E+0	1.445885E+0	1.442364E+0	1.390098E+0	1.441625E+0	1.435373E+0	1.293267E+0	1.452858E+0	1.491734E+0	1.439790E+0	1.303986E+0	1.374957E+0	1.456606E+0	1.416077E+0	1.343258E+0	1.399345E+0	1.442931E+0	1.428545E+0	1.437460E+0	1.468731E+0	1.545712E+0	1.444429E+0	1.340861E+0	1.449361E+0	1.450657E+0	1.457300E+0	1.292518E+0	1.434025E+0	1.473265E+0	1.478596E+0	1.316240E+0	1.414293E+0	1.459852E+0	1.450901E+0	1.341964E+0	1.395131E+0	1.472717E+0	1.351098E+0	1.321224E+0	1.464356E+0	1.457476E+0	1.406148E+0	1.257071E+0	1.316408E+0	1.459191E+0	1.503067E+0	1.276501E+0	1.383650E+0	1.472623E+0
5.505170E+2	1.251319E+0	1.390322E+0	1.435210E+0	1.444635E+0	1.222544E+0	1.257303E+0	1.431649E+0	1.445522E+0	1.351454E+0	1.333825E+0	1.432639E+0	1.340684E+0	1.422713E+0	1.373547E+0	1.480547E+0	1.429611E+0	1.302208E+0	1.306809E+0	1.419233E+0	1.386781E+0	1.278892E+0	1.235128E+0	1.445020E+0	1.455334E+0	1.389598E+0	1.303162E+0	1.398710E+0	1.378921E+0	1.386070E+0	1.361043E+0	1.473137E+0	1.445299E+0	1.290730E+0	1.406191E+0	1.453295E+0	1.458957E+0	1.241633E+0	1.212215E+0	1.456050E+0	1.374867E+0	1.311727E+0	1.306766E+0	1.374222E+0	1.435189E+0	1.456608E+0	1.382538E+0	1.406361E+0	1.436239E+0	1.336536E+0	1.407159E+0	1.448710E+0	1.403186E+0	1.336031E+0	1.190049E+0	1.454708E+0	1.411639E+0	1.427712E+0	1.330342E+0	1.386247E+0	1.423211E+0	1.426403E+0	1.396878E+0	1.376756E+0	1.403091E+0	1.069252E+0	1.368678E+0	1.426474E+0	1.437656E+0	1.208368E+0	1.261546E+0	1.436372E+0	1.423470E+0	1.354244E+0	1.299992E+0	1.394958E+0	1.448853E+0	1.425761E+0	1.365604E+0	1.373881E+0	1.444764E+0	1.289637E+0	1.411568E+0	1.370331E+0	1.437371E+0	1.148646E+0	1.332491E+0	1.449888E+0	1.424463E+0	1.210820E+0	1.362680E+0	1.448229E+0	1.395531E+0	1.316800E+0	1.406904E+0	1.386048E+0	1.409773E+0	1.379755E+0	1.370867E+0	1.405273E+0	1.426481E+0	1.251451E+0	1.249278E+0	1.423033E+0	1.457982E+0	1.226717E+0	1.333425E+0	1.394509E+0	1.460179E+0	1.351048E+0	1.363621E+0	1.434400E+0	1.397502E+0	1.350669E+0	1.362070E+0	1.433494E+0	1.425770E+0	1.230164E+0	1.257570E+0	1.437095E+0	1.410967E+0	1.272088E+0	1.329745E+0	1.349168E+0	1.400144E+0	1.363221E+0	1.393248E+0	1.420707E+0	1.445020E+0	1.264395E+0	1.414307E+0	1.389505E+0	1.399856E+0	1.264043E+0	1.333004E+0	1.407331E+0	1.333685E+0	1.336373E+0	1.385405E+0	1.368347E+0	1.410035E+0	1.350947E+0	1.369339E+0	1.437546E+0	1.418999E+0	1.343167E+0	1.437145E+0	1.430367E+0	1.405514E+0	1.206782E+0	1.394342E+0	1.410419E+0	1.422207E+0	1.264067E+0	1.427296E+0	1.425362E+0	1.433371E+0	1.335099E+0	1.371090E+0	1.393115E+0	1.413004E+0	1.264349E+0	1.388343E+0	1.426715E+0	1.425230E+0	1.189131E+0	1.267118E+0	1.364208E+0	1.456366E+0	1.271458E+0	1.274623E+0	1.508995E+0
5.512620E+2	1.271207E+0	1.303769E+0	1.332175E+0	1.382100E+0	1.217281E+0	1.193224E+0	1.383882E+0	1.361462E+0	1.339687E+0	1.263121E+0	1.331785E+0	1.349032E+0	1.354773E+0	1.321346E+0	1.406939E+0	1.373492E+0	1.314939E+0	1.327690E+0	1.399400E+0	1.402051E+0	1.250062E+0	1.208986E+0	1.437115E+0	1.413902E+0	1.327276E+0	1.280740E+0	1.319083E+0	1.443345E+0	1.356050E+0	1.356685E+0	1.440515E+0	1.401219E+0	1.254476E+0	1.370133E+0	1.420405E+0	1.392565E+0	1.210014E+0	1.196569E+0	1.399511E+0	1.387219E+0	1.264412E+0	1.264099E+0	1.388788E+0	1.388932E+0	1.331801E+0	1.276664E+0	1.377979E+0	1.408814E+0	1.279392E+0	1.321781E+0	1.357644E+0	1.345525E+0	1.282442E+0	1.187496E+0	1.418270E+0	1.374528E+0	1.393934E+0	1.249535E+0	1.336958E+0	1.377858E+0	1.339480E+0	1.355433E+0	1.367029E+0	1.365941E+0	1.043850E+0	1.295378E+0	1.385146E+0	1.366736E+0	1.172773E+0	1.200480E+0	1.409159E+0	1.406944E+0	1.321445E+0	1.300567E+0	1.376089E+0	1.408410E+0	1.320108E+0	1.376271E+0	1.346805E+0	1.364476E+0	1.260779E+0	1.323319E+0	1.313007E+0	1.332945E+0	1.179417E+0	1.287555E+0	1.388843E+0	1.362136E+0	1.234310E+0	1.280311E+0	1.368911E+0	1.376605E+0	1.268403E+0	1.335122E+0	1.374329E+0	1.392250E+0	1.362500E+0	1.281418E+0	1.399241E+0	1.378931E+0	1.190059E+0	1.254415E+0	1.358920E+0	1.368911E+0	1.171331E+0	1.331131E+0	1.357532E+0	1.366891E+0	1.300975E+0	1.325921E+0	1.360881E+0	1.372554E+0	1.234539E+0	1.385100E+0	1.406660E+0	1.354791E+0	1.195769E+0	1.256474E+0	1.375499E+0	1.349018E+0	1.203365E+0	1.300434E+0	1.346325E+0	1.390995E+0	1.301667E+0	1.386428E+0	1.343312E+0	1.403382E+0	1.305394E+0	1.340165E+0	1.376940E+0	1.387121E+0	1.234209E+0	1.298307E+0	1.380973E+0	1.390525E+0	1.277842E+0	1.336040E+0	1.388123E+0	1.405407E+0	1.331309E+0	1.359953E+0	1.388087E+0	1.366215E+0	1.271625E+0	1.331292E+0	1.419029E+0	1.336853E+0	1.247956E+0	1.362925E+0	1.371749E+0	1.324848E+0	1.247219E+0	1.326095E+0	1.370942E+0	1.354179E+0	1.378924E+0	1.393492E+0	1.386788E+0	1.349129E+0	1.297905E+0	1.313466E+0	1.434689E+0	1.347746E+0	1.177646E+0	1.254007E+0	1.370497E+0	1.339941E+0	1.217671E+0	1.257947E+0	1.331678E+0
5.520260E+2	1.234672E+0	1.281076E+0	1.364576E+0	1.374571E+0	1.161487E+0	1.179812E+0	1.354254E+0	1.312099E+0	1.265158E+0	1.280930E+0	1.305698E+0	1.378753E+0	1.338305E+0	1.305586E+0	1.345087E+0	1.343706E+0	1.254046E+0	1.239645E+0	1.294831E+0	1.363029E+0	1.245164E+0	1.222522E+0	1.317983E+0	1.301591E+0	1.293758E+0	1.233454E+0	1.333414E+0	1.311813E+0	1.269596E+0	1.298400E+0	1.337755E+0	1.372395E+0	1.240181E+0	1.326763E+0	1.417750E+0	1.311418E+0	1.146778E+0	1.161849E+0	1.401687E+0	1.336923E+0	1.244903E+0	1.253836E+0	1.311711E+0	1.348883E+0	1.311185E+0	1.339631E+0	1.352871E+0	1.323402E+0	1.300500E+0	1.316235E+0	1.342464E+0	1.352054E+0	1.272237E+0	1.143595E+0	1.360613E+0	1.295540E+0	1.300520E+0	1.204585E+0	1.286435E+0	1.357767E+0	1.323480E+0	1.226602E+0	1.345417E+0	1.319282E+0	1.019889E+0	1.234494E+0	1.395632E+0	1.344999E+0	1.112957E+0	1.237224E+0	1.321284E+0	1.394792E+0	1.251743E+0	1.237601E+0	1.313759E+0	1.338231E+0	1.286515E+0	1.272285E+0	1.345761E+0	1.338702E+0	1.250178E+0	1.296845E+0	1.314710E+0	1.333997E+0	1.118887E+0	1.242100E+0	1.328343E+0	1.295883E+0	1.215714E+0	1.277690E+0	1.347798E+0	1.357678E+0	1.319704E+0	1.290000E+0	1.383383E+0	1.328791E+0	1.286335E+0	1.307657E+0	1.297877E+0	1.348872E+0	1.219979E+0	1.228725E+0	1.355483E+0	1.315902E+0	1.187007E+0	1.281783E+0	1.406456E+0	1.376712E+0	1.283928E+0	1.353533E+0	1.335986E+0	1.343532E+0	1.271129E+0	1.302103E+0	1.289793E+0	1.346439E+0	1.149747E+0	1.230150E+0	1.360244E+0	1.280719E+0	1.211512E+0	1.240265E+0	1.342347E+0	1.374527E+0	1.295978E+0	1.317695E+0	1.345403E+0	1.348540E+0	1.266130E+0	1.274920E+0	1.327822E+0	1.317096E+0	1.175020E+0	1.261021E+0	1.291589E+0	1.311783E+0	1.195213E+0	1.337781E+0	1.379083E+0	1.271795E+0	1.262307E+0	1.319095E+0	1.347864E+0	1.329750E+0	1.299319E+0	1.323729E+0	1.367115E+0	1.346162E+0	1.214534E+0	1.282459E+0	1.333680E+0	1.314739E+0	1.188526E+0	1.318747E+0	1.336992E+0	1.333025E+0	1.264869E+0	1.299518E+0	1.339871E+0	1.351096E+0	1.262644E+0	1.314035E+0	1.285447E+0	1.292816E+0	1.131239E+0	1.167486E+0	1.282434E+0	1.369366E+0	1.149596E+0	1.192530E+0	1.304396E+0
5.527650E+2	1.235596E+0	1.280021E+0	1.280334E+0	1.307405E+0	1.246230E+0	1.117723E+0	1.299234E+0	1.314057E+0	1.327920E+0	1.273072E+0	1.306281E+0	1.268200E+0	1.292496E+0	1.285394E+0	1.304706E+0	1.277659E+0	1.231348E+0	1.220456E+0	1.238343E+0	1.295726E+0	1.185873E+0	1.135697E+0	1.308951E+0	1.268150E+0	1.250289E+0	1.207616E+0	1.342972E+0	1.338123E+0	1.246822E+0	1.228675E+0	1.335579E+0	1.321111E+0	1.190654E+0	1.253602E+0	1.290950E+0	1.271369E+0	1.136402E+0	1.151093E+0	1.294050E+0	1.281767E+0	1.199543E+0	1.231154E+0	1.333558E+0	1.303758E+0	1.296697E+0	1.268305E+0	1.307024E+0	1.286090E+0	1.252622E+0	1.271330E+0	1.309076E+0	1.223677E+0	1.203336E+0	1.099185E+0	1.263799E+0	1.287449E+0	1.244576E+0	1.201910E+0	1.278426E+0	1.264767E+0	1.317614E+0	1.256564E+0	1.240596E+0	1.296630E+0	1.065416E+0	1.263458E+0	1.317910E+0	1.349576E+0	1.097139E+0	1.140450E+0	1.324687E+0	1.331611E+0	1.219453E+0	1.255921E+0	1.307472E+0	1.306710E+0	1.240461E+0	1.270152E+0	1.303584E+0	1.244041E+0	1.175383E+0	1.243345E+0	1.280091E+0	1.298663E+0	1.113843E+0	1.131560E+0	1.238408E+0	1.252695E+0	1.122244E+0	1.262476E+0	1.322691E+0	1.327850E+0	1.195811E+0	1.297179E+0	1.289083E+0	1.298485E+0	1.217905E+0	1.268892E+0	1.300891E+0	1.249396E+0	1.138469E+0	1.160894E+0	1.286789E+0	1.293497E+0	1.172900E+0	1.217521E+0	1.289839E+0	1.274218E+0	1.194968E+0	1.279726E+0	1.307624E+0	1.310438E+0	1.155530E+0	1.237847E+0	1.322587E+0	1.259352E+0	1.114380E+0	1.201636E+0	1.334435E+0	1.301368E+0	1.136682E+0	1.223808E+0	1.278687E+0	1.303171E+0	1.214250E+0	1.332385E+0	1.339129E+0	1.256125E+0	1.202614E+0	1.244670E+0	1.286704E+0	1.273688E+0	1.175499E+0	1.218034E+0	1.270389E+0	1.280495E+0	1.196362E+0	1.281446E+0	1.340095E+0	1.319225E+0	1.261774E+0	1.295904E+0	1.300031E+0	1.238577E+0	1.237585E+0	1.256843E+0	1.278201E+0	1.265281E+0	1.108936E+0	1.220733E+0	1.269627E+0	1.325379E+0	1.230374E+0	1.354932E+0	1.327835E+0	1.317306E+0	1.244803E+0	1.286952E+0	1.295059E+0	1.322107E+0	1.167664E+0	1.234050E+0	1.324752E+0	1.244822E+0	1.134108E+0	1.178497E+0	1.340934E+0	1.227992E+0	1.115979E+0	1.187400E+0	1.165724E+0
5.535440E+2	1.253171E+0	1.213525E+0	1.246637E+0	1.214182E+0	1.246757E+0	1.104808E+0	1.207329E+0	1.264695E+0	1.261239E+0	1.157853E+0	1.221653E+0	1.220224E+0	1.278084E+0	1.183941E+0	1.241833E+0	1.272910E+0	1.216399E+0	1.178126E+0	1.155410E+0	1.252180E+0	1.254413E+0	1.099756E+0	1.229341E+0	1.270146E+0	1.211011E+0	1.098910E+0	1.278209E+0	1.224842E+0	1.236986E+0	1.224861E+0	1.240973E+0	1.266433E+0	1.192186E+0	1.178875E+0	1.256999E+0	1.233431E+0	1.208037E+0	1.089480E+0	1.275022E+0	1.259706E+0	1.180519E+0	1.159324E+0	1.239488E+0	1.262581E+0	1.256025E+0	1.189178E+0	1.272637E+0	1.235290E+0	1.181063E+0	1.227529E+0	1.219830E+0	1.232924E+0	1.152295E+0	1.048138E+0	1.236601E+0	1.221784E+0	1.213436E+0	1.121104E+0	1.241458E+0	1.225728E+0	1.184299E+0	1.210622E+0	1.244378E+0	1.190174E+0	1.139697E+0	1.173019E+0	1.245126E+0	1.219170E+0	1.036829E+0	1.117162E+0	1.261755E+0	1.241210E+0	1.147703E+0	1.129992E+0	1.261724E+0	1.237720E+0	1.220411E+0	1.213092E+0	1.244740E+0	1.240074E+0	1.160071E+0	1.204735E+0	1.216523E+0	1.202676E+0	1.026078E+0	1.129494E+0	1.247674E+0	1.237971E+0	1.060583E+0	1.151777E+0	1.196012E+0	1.216006E+0	1.157093E+0	1.189504E+0	1.209700E+0	1.258233E+0	1.206003E+0	1.214029E+0	1.275553E+0	1.269071E+0	1.116800E+0	1.134684E+0	1.220962E+0	1.183117E+0	1.100792E+0	1.203751E+0	1.263100E+0	1.282810E+0	1.183781E+0	1.273355E+0	1.270573E+0	1.237118E+0	1.137501E+0	1.243739E+0	1.236127E+0	1.164510E+0	1.055277E+0	1.111703E+0	1.255242E+0	1.251599E+0	1.088321E+0	1.137411E+0	1.210479E+0	1.235475E+0	1.181663E+0	1.225352E+0	1.259118E+0	1.204333E+0	1.150069E+0	1.215606E+0	1.241014E+0	1.260378E+0	1.130747E+0	1.199907E+0	1.221685E+0	1.223656E+0	1.129797E+0	1.204202E+0	1.247993E+0	1.227836E+0	1.229399E+0	1.200931E+0	1.225568E+0	1.203069E+0	1.154505E+0	1.259752E+0	1.236428E+0	1.236768E+0	1.085687E+0	1.220183E+0	1.235182E+0	1.273242E+0	1.114615E+0	1.202850E+0	1.261017E+0	1.232675E+0	1.208366E+0	1.215922E+0	1.200695E+0	1.195841E+0	1.162546E+0	1.242559E+0	1.246143E+0	1.215911E+0	1.081003E+0	1.116096E+0	1.232741E+0	1.222874E+0	1.032777E+0	1.178421E+0	1.106619E+0
5.542580E+2	1.130146E+0	1.111670E+0	1.234972E+0	1.169596E+0	1.150959E+0	1.029804E+0	1.190400E+0	1.159129E+0	1.174383E+0	1.062534E+0	1.154415E+0	1.125835E+0	1.216322E+0	1.131248E+0	1.129375E+0	1.164124E+0	1.150522E+0	1.097415E+0	1.157212E+0	1.206370E+0	1.213072E+0	1.012464E+0	1.199982E+0	1.150346E+0	1.166492E+0	1.053574E+0	1.150810E+0	1.173838E+0	1.163995E+0	1.123543E+0	1.167573E+0	1.173187E+0	1.225885E+0	1.133412E+0	1.155131E+0	1.163875E+0	1.172959E+0	9.946208E-1	1.144551E+0	1.119836E+0	1.170277E+0	1.062109E+0	1.155734E+0	1.142431E+0	1.124530E+0	1.152401E+0	1.185304E+0	1.146281E+0	1.163046E+0	1.125518E+0	1.097196E+0	1.194305E+0	1.174243E+0	9.577835E-1	1.159908E+0	1.170871E+0	1.143768E+0	1.056350E+0	1.150272E+0	1.135597E+0	1.172034E+0	1.127231E+0	1.122270E+0	1.124034E+0	1.202001E+0	1.108587E+0	1.181593E+0	1.138526E+0	1.171291E+0	1.010557E+0	1.158006E+0	1.163933E+0	1.146678E+0	1.062449E+0	1.157080E+0	1.199656E+0	1.113674E+0	1.228023E+0	1.142158E+0	1.172176E+0	1.097645E+0	1.125313E+0	1.138768E+0	1.108273E+0	1.045749E+0	1.063378E+0	1.150653E+0	1.156996E+0	1.109520E+0	1.125022E+0	1.173186E+0	1.145456E+0	1.112084E+0	1.131055E+0	1.154824E+0	1.162101E+0	1.150069E+0	1.104898E+0	1.168156E+0	1.131339E+0	1.014136E+0	1.028314E+0	1.103039E+0	1.159074E+0	1.036524E+0	1.090715E+0	1.132261E+0	1.177861E+0	1.065521E+0	1.143262E+0	1.162321E+0	1.122046E+0	1.099320E+0	1.078283E+0	1.217642E+0	1.146616E+0	1.028631E+0	1.062898E+0	1.177219E+0	1.167943E+0	1.035379E+0	1.088041E+0	1.157618E+0	1.128745E+0	1.146490E+0	1.106248E+0	1.170739E+0	1.162695E+0	1.101567E+0	1.190694E+0	1.115367E+0	1.130160E+0	1.045572E+0	1.104614E+0	1.150636E+0	1.148564E+0	1.091352E+0	1.110696E+0	1.175669E+0	1.169995E+0	1.129083E+0	1.187127E+0	1.177194E+0	1.140209E+0	1.076618E+0	1.162040E+0	1.105146E+0	1.105844E+0	1.043063E+0	1.145227E+0	1.208594E+0	1.106190E+0	1.018967E+0	1.111262E+0	1.144627E+0	1.138976E+0	1.121767E+0	1.113206E+0	1.167484E+0	1.154076E+0	1.096004E+0	1.134780E+0	1.167531E+0	1.106047E+0	9.920097E-1	1.097221E+0	1.144048E+0	1.201124E+0	9.932767E-1	1.098894E+0	1.158903E+0
5.550190E+2	1.083435E+0	1.029870E+0	1.101480E+0	1.066530E+0	1.082007E+0	9.334391E-1	1.055566E+0	1.053076E+0	1.126753E+0	1.054154E+0	1.052399E+0	1.056477E+0	1.081989E+0	1.013051E+0	1.042989E+0	1.071312E+0	1.080769E+0	1.069196E+0	1.105529E+0	1.067244E+0	1.062937E+0	9.382417E-1	1.088755E+0	1.051015E+0	1.021944E+0	9.950760E-1	1.035619E+0	1.069686E+0	1.067193E+0	9.840941E-1	1.086015E+0	1.061290E+0	1.042073E+0	1.029943E+0	1.051675E+0	1.057436E+0	1.039572E+0	9.163849E-1	1.103236E+0	1.082775E+0	9.937076E-1	9.832572E-1	1.028282E+0	1.066844E+0	1.061012E+0	1.081077E+0	1.082692E+0	1.075253E+0	1.068317E+0	1.039585E+0	1.022523E+0	1.086598E+0	1.031847E+0	9.327708E-1	1.014142E+0	1.044775E+0	1.075684E+0	1.020496E+0	1.057238E+0	1.051782E+0	1.100041E+0	1.074303E+0	1.059055E+0	1.085526E+0	1.048644E+0	9.791338E-1	1.093387E+0	1.056738E+0	1.041277E+0	9.494916E-1	1.038949E+0	1.091517E+0	1.047253E+0	9.760165E-1	1.070163E+0	1.053943E+0	1.084956E+0	1.070177E+0	1.082795E+0	1.084950E+0	1.062308E+0	1.047544E+0	1.052499E+0	1.073994E+0	1.049784E+0	1.036519E+0	1.037282E+0	1.049518E+0	1.076733E+0	1.029012E+0	1.065337E+0	1.049671E+0	1.060302E+0	1.046966E+0	1.076507E+0	1.044183E+0	1.084020E+0	1.017234E+0	1.122903E+0	1.063019E+0	1.090490E+0	9.445535E-1	1.044650E+0	1.053607E+0	1.082504E+0	9.604658E-1	1.060584E+0	1.066160E+0	1.112399E+0	1.055117E+0	1.092854E+0	1.017668E+0	1.034627E+0	1.056865E+0	1.015503E+0	1.070266E+0	1.010707E+0	9.746103E-1	1.061067E+0	1.140412E+0	1.035379E+0	1.015531E+0	1.096799E+0	1.065318E+0	1.072521E+0	1.015478E+0	1.065107E+0	1.063168E+0	1.020729E+0	1.027581E+0	1.011422E+0	1.078073E+0	9.801253E-1	1.019680E+0	1.028019E+0	1.048444E+0	9.725718E-1	1.063073E+0	1.045711E+0	1.087861E+0	1.052121E+0	1.064547E+0	1.007066E+0	1.065355E+0	1.048925E+0	1.039318E+0	1.037117E+0	1.049401E+0	9.563572E-1	1.062003E+0	1.024896E+0	1.096082E+0	9.955978E-1	1.013455E+0	1.051945E+0	1.108147E+0	1.027775E+0	1.075507E+0	1.078391E+0	1.059253E+0	9.993174E-1	1.066142E+0	1.041071E+0	1.003701E+0	9.293334E-1	9.850027E-1	1.069193E+0	1.097491E+0	9.294045E-1	9.565172E-1	1.040693E+0
5.557660E+2	9.816850E-1	9.707634E-1	1.023718E+0	9.889404E-1	1.040424E+0	8.494935E-1	1.035009E+0	1.015444E+0	1.013561E+0	9.651201E-1	1.005449E+0	9.615668E-1	1.044418E+0	9.731593E-1	9.842052E-1	9.793648E-1	1.006588E+0	9.326103E-1	1.008774E+0	9.886328E-1	1.005277E+0	8.672879E-1	9.865621E-1	1.024060E+0	9.842355E-1	8.819807E-1	9.798826E-1	1.006872E+0	9.890257E-1	9.361587E-1	9.685735E-1	1.012969E+0	1.010926E+0	9.097531E-1	9.423830E-1	9.973655E-1	9.654670E-1	8.718878E-1	9.939657E-1	9.751153E-1	9.771240E-1	8.806426E-1	9.839776E-1	1.012691E+0	1.019780E+0	9.490137E-1	1.009552E+0	9.619678E-1	9.900635E-1	9.120704E-1	9.411716E-1	9.973892E-1	1.019088E+0	8.572203E-1	9.956487E-1	9.829182E-1	9.886002E-1	9.391540E-1	9.771421E-1	9.811699E-1	9.661906E-1	9.230014E-1	9.493733E-1	9.686519E-1	9.815494E-1	9.466227E-1	1.011967E+0	9.732325E-1	9.730582E-1	8.899790E-1	1.031012E+0	9.734141E-1	9.698648E-1	9.491137E-1	1.015268E+0	9.712739E-1	9.500443E-1	9.704570E-1	9.666734E-1	1.009615E+0	9.969376E-1	9.333732E-1	9.616898E-1	1.003850E+0	9.882473E-1	8.763942E-1	9.631539E-1	1.015165E+0	1.011158E+0	9.282822E-1	1.008274E+0	9.986231E-1	9.973881E-1	9.515979E-1	9.976556E-1	9.916182E-1	9.662018E-1	9.635633E-1	9.968018E-1	9.602647E-1	1.001238E+0	8.633619E-1	1.013166E+0	9.803824E-1	1.014578E+0	9.283345E-1	9.832188E-1	1.028109E+0	1.027168E+0	1.000425E+0	1.050595E+0	9.820270E-1	1.016067E+0	9.171125E-1	9.976149E-1	9.766175E-1	9.549951E-1	9.066124E-1	1.019417E+0	1.010166E+0	9.895645E-1	9.661615E-1	1.006991E+0	9.939623E-1	9.964829E-1	9.247089E-1	1.019087E+0	9.910632E-1	1.010913E+0	9.386104E-1	1.022274E+0	1.009202E+0	9.767574E-1	9.347454E-1	1.007964E+0	9.686597E-1	9.708504E-1	1.020095E+0	1.026500E+0	9.825898E-1	9.815294E-1	9.684712E-1	1.018480E+0	9.617088E-1	1.000461E+0	1.000349E+0	1.038907E+0	9.114958E-1	9.655603E-1	1.039407E+0	9.632602E-1	9.949988E-1	9.716857E-1	9.620076E-1	9.754286E-1	1.034397E+0	9.897558E-1	9.935529E-1	9.950972E-1	9.786766E-1	9.367563E-1	9.141178E-1	1.031957E+0	9.742110E-1	9.240709E-1	8.900910E-1	1.033968E+0	9.637921E-1	9.478937E-1	9.154716E-1	9.156592E-1
5.560240E+2	9.617983E-1	9.301264E-1	9.815958E-1	9.947306E-1	9.930524E-1	8.465127E-1	9.818010E-1	9.895413E-1	9.732146E-1	9.096045E-1	9.776257E-1	9.506151E-1	9.867728E-1	9.839944E-1	9.683589E-1	9.979280E-1	9.899797E-1	9.105983E-1	9.709132E-1	9.767561E-1	9.671988E-1	8.798915E-1	9.718826E-1	9.981034E-1	1.002042E+0	9.175671E-1	9.618328E-1	9.730492E-1	9.538254E-1	9.481424E-1	9.609618E-1	1.003222E+0	1.006332E+0	9.688030E-1	9.726241E-1	9.625882E-1	9.896747E-1	8.601526E-1	1.005925E+0	9.927631E-1	9.644425E-1	9.000853E-1	9.845839E-1	1.012127E+0	9.824483E-1	9.590437E-1	9.828068E-1	9.723090E-1	9.926386E-1	9.076347E-1	1.022523E+0	9.963012E-1	9.695816E-1	8.419059E-1	1.011422E+0	9.995718E-1	9.817388E-1	9.305923E-1	9.648195E-1	9.587807E-1	9.907209E-1	8.655769E-1	9.547765E-1	1.004438E+0	9.623801E-1	9.619915E-1	1.034789E+0	9.583624E-1	9.893718E-1	9.018811E-1	1.003231E+0	1.010838E+0	1.007278E+0	8.437929E-1	1.000972E+0	9.796007E-1	9.841791E-1	9.523262E-1	1.004166E+0	1.033900E+0	1.001649E+0	9.063468E-1	9.480680E-1	1.033912E+0	1.001866E+0	9.182330E-1	9.718752E-1	9.930802E-1	1.007732E+0	9.854677E-1	9.546346E-1	1.016977E+0	9.760923E-1	9.531363E-1	9.822052E-1	9.745709E-1	9.715570E-1	9.534253E-1	9.654274E-1	9.750221E-1	1.017231E+0	8.546259E-1	1.005725E+0	1.014809E+0	9.335886E-1	9.128428E-1	9.997158E-1	9.863752E-1	9.398051E-1	9.175904E-1	9.689715E-1	9.876289E-1	9.466016E-1	9.374589E-1	1.039951E+0	9.796001E-1	1.008769E+0	9.488372E-1	9.783532E-1	1.024461E+0	9.895652E-1	9.306775E-1	1.002444E+0	1.028116E+0	1.002172E+0	9.997378E-1	1.002876E+0	9.778608E-1	9.375818E-1	9.848749E-1	1.031983E+0	9.484335E-1	9.757949E-1	9.528713E-1	9.844724E-1	9.551016E-1	9.788840E-1	1.042746E+0	9.909028E-1	9.930017E-1	1.010721E+0	9.182251E-1	9.663008E-1	9.938582E-1	9.594985E-1	9.433501E-1	9.905716E-1	1.024963E+0	9.897796E-1	9.517749E-1	9.487573E-1	1.000320E+0	9.939678E-1	9.806648E-1	9.673461E-1	9.969175E-1	9.665220E-1	9.897279E-1	9.460698E-1	9.943993E-1	9.634868E-1	9.878608E-1	1.030818E+0	1.026252E+0	9.786142E-1	8.848470E-1	1.047177E+0	9.337263E-1	9.571381E-1	8.577497E-1	9.520319E-1
5.565200E+2	1.005272E+0	9.058503E-1	9.971484E-1	9.489876E-1	9.372580E-1	8.450226E-1	9.969166E-1	1.052587E+0	1.001233E+0	9.352671E-1	9.741481E-1	9.725177E-1	9.569207E-1	9.377007E-1	9.836937E-1	9.836818E-1	1.012677E+0	9.015684E-1	1.002164E+0	9.841083E-1	9.791662E-1	8.140732E-1	9.690600E-1	9.506829E-1	9.606680E-1	9.146417E-1	1.023410E+0	9.966717E-1	9.916137E-1	9.089225E-1	9.734668E-1	9.680428E-1	9.940774E-1	9.468553E-1	9.726241E-1	9.762879E-1	9.298969E-1	8.919360E-1	9.776569E-1	9.918817E-1	9.854158E-1	9.098068E-1	9.627360E-1	9.794112E-1	9.969356E-1	9.757604E-1	9.757110E-1	1.041987E+0	1.003964E+0	9.348014E-1	9.958109E-1	9.304820E-1	9.501871E-1	8.531371E-1	9.989123E-1	9.548442E-1	9.870167E-1	8.428288E-1	9.728294E-1	9.553365E-1	9.443267E-1	9.679426E-1	9.553168E-1	1.024825E+0	9.547121E-1	9.348007E-1	9.533682E-1	9.909638E-1	9.770129E-1	8.801459E-1	9.811211E-1	9.729291E-1	9.729397E-1	9.119083E-1	9.780995E-1	9.843583E-1	9.608807E-1	9.869891E-1	9.614662E-1	9.511327E-1	9.987041E-1	9.063471E-1	9.628250E-1	9.600764E-1	1.025069E+0	8.975718E-1	9.326313E-1	9.734509E-1	9.994127E-1	9.356275E-1	9.500702E-1	9.624885E-1	9.959363E-1	9.331394E-1	1.007778E+0	9.636785E-1	9.507305E-1	8.937909E-1	1.013093E+0	9.870468E-1	9.749272E-1	8.685002E-1	1.016028E+0	9.891253E-1	9.513545E-1	9.088260E-1	9.621707E-1	9.918986E-1	9.664402E-1	9.759992E-1	1.020492E+0	9.881370E-1	9.476617E-1	8.946229E-1	9.558756E-1	9.831792E-1	9.797009E-1	8.907100E-1	9.501957E-1	9.693975E-1	9.987270E-1	8.689653E-1	9.609508E-1	9.598088E-1	9.990688E-1	9.693061E-1	9.782979E-1	9.829380E-1	9.485523E-1	9.688601E-1	9.794395E-1	9.877881E-1	9.810877E-1	9.217981E-1	9.672830E-1	9.451941E-1	9.846219E-1	9.486593E-1	1.005028E+0	1.005726E+0	9.571142E-1	9.745449E-1	9.663006E-1	9.516322E-1	9.721917E-1	9.427682E-1	9.231399E-1	9.312800E-1	9.515138E-1	9.594909E-1	1.015228E+0	9.348815E-1	9.575560E-1	9.535274E-1	9.996766E-1	1.006589E+0	9.860594E-1	9.760693E-1	1.011440E+0	9.600067E-1	1.012967E+0	9.504219E-1	9.789806E-1	9.904017E-1	9.805273E-1	8.942862E-1	1.042774E+0	9.561162E-1	9.714259E-1	9.539514E-1	1.027051E+0
5.570560E+2	9.955605E-1	9.945119E-1	9.725242E-1	1.019629E+0	1.044109E+0	9.254916E-1	9.781724E-1	9.993161E-1	1.016923E+0	9.588347E-1	9.451663E-1	9.944204E-1	1.004787E+0	9.810393E-1	1.041456E+0	9.927488E-1	1.024856E+0	9.958233E-1	9.769234E-1	1.022566E+0	1.006909E+0	8.761578E-1	1.009711E+0	9.821296E-1	1.003090E+0	8.897804E-1	9.374147E-1	1.013851E+0	9.983437E-1	9.873626E-1	1.018595E+0	1.065951E+0	1.015011E+0	9.479003E-1	1.029923E+0	1.007904E+0	1.008942E+0	8.625974E-1	9.852676E-1	1.033797E+0	9.810258E-1	9.254694E-1	9.851917E-1	9.952053E-1	1.018109E+0	1.000836E+0	1.039026E+0	9.777027E-1	1.011686E+0	9.730558E-1	1.043165E+0	1.063752E+0	9.956110E-1	8.602834E-1	9.972803E-1	9.986197E-1	9.970444E-1	9.054402E-1	1.019655E+0	1.010448E+0	1.018451E+0	9.404783E-1	1.048249E+0	1.025732E+0	1.019408E+0	9.336180E-1	1.042191E+0	1.021849E+0	1.003213E+0	9.106786E-1	9.924597E-1	1.037570E+0	9.903645E-1	9.285077E-1	1.026705E+0	1.009932E+0	1.008019E+0	9.288625E-1	9.989587E-1	1.011598E+0	1.044052E+0	9.637080E-1	1.004257E+0	1.006487E+0	1.037679E+0	9.042867E-1	1.024745E+0	9.911170E-1	1.027796E+0	1.003830E+0	9.848784E-1	1.034758E+0	1.006580E+0	1.007486E+0	1.021630E+0	9.722018E-1	1.009045E+0	9.641594E-1	1.035417E+0	9.635442E-1	1.041479E+0	9.060129E-1	9.822547E-1	1.019181E+0	1.018235E+0	1.002926E+0	1.027590E+0	9.802374E-1	9.888135E-1	9.632557E-1	1.010652E+0	9.927191E-1	1.063261E+0	9.979652E-1	1.033988E+0	9.903370E-1	1.017004E+0	9.049678E-1	1.035842E+0	9.932229E-1	9.972002E-1	9.666757E-1	1.028590E+0	1.006770E+0	1.016656E+0	9.614361E-1	1.031115E+0	9.773532E-1	9.970549E-1	1.003855E+0	1.012565E+0	9.837371E-1	9.897502E-1	9.751410E-1	1.051511E+0	9.983836E-1	1.010444E+0	9.625978E-1	9.999433E-1	9.924223E-1	1.045752E+0	9.519064E-1	9.744535E-1	1.001056E+0	9.912305E-1	9.887167E-1	1.026376E+0	9.883044E-1	9.699199E-1	9.743720E-1	9.898482E-1	1.011492E+0	1.024945E+0	1.004410E+0	1.027697E+0	9.908719E-1	1.018271E+0	1.068951E+0	1.038853E+0	1.005208E+0	9.947671E-1	1.003744E+0	9.738538E-1	1.003700E+0	1.014975E+0	9.257486E-1	9.924514E-1	1.032241E+0	9.680637E-1	8.667282E-1	9.906810E-1
5.575360E+2	1.020535E+0	1.067340E+0	9.906686E-1	1.035263E+0	1.019896E+0	1.055633E+0	1.062822E+0	1.003225E+0	1.021406E+0	1.038965E+0	1.060514E+0	1.092459E+0	1.036183E+0	9.943364E-1	1.023054E+0	1.045846E+0	1.009356E+0	1.029687E+0	1.003966E+0	1.032746E+0	1.047706E+0	1.032535E+0	1.068995E+0	1.003094E+0	1.033990E+0	9.916646E-1	1.056321E+0	1.040158E+0	1.031474E+0	9.993461E-1	1.015333E+0	9.977115E-1	1.032372E+0	9.776865E-1	1.000743E+0	1.028454E+0	1.041548E+0	9.388775E-1	1.089101E+0	9.887924E-1	1.033703E+0	9.929790E-1	1.031316E+0	9.929491E-1	1.035381E+0	1.008080E+0	1.010643E+0	1.024906E+0	1.013231E+0	9.736099E-1	1.031630E+0	1.037642E+0	1.029806E+0	8.914225E-1	1.049496E+0	9.967164E-1	1.057739E+0	9.643060E-1	1.005484E+0	1.012745E+0	1.047249E+0	9.979027E-1	1.064999E+0	9.958325E-1	9.973643E-1	9.684937E-1	1.040340E+0	1.021276E+0	1.071927E+0	9.023989E-1	1.036681E+0	9.870230E-1	1.046741E+0	9.582721E-1	9.855326E-1	1.027180E+0	1.042695E+0	1.001387E+0	1.038534E+0	1.037865E+0	1.020495E+0	9.416460E-1	1.030932E+0	1.043404E+0	1.014981E+0	9.182330E-1	1.035101E+0	1.055898E+0	9.695614E-1	9.943867E-1	1.064766E+0	1.059422E+0	1.069980E+0	1.006973E+0	1.007246E+0	1.020506E+0	1.045342E+0	9.981511E-1	9.690476E-1	1.056459E+0	9.800862E-1	9.024156E-1	1.021180E+0	9.962296E-1	1.004128E+0	9.002193E-1	1.017919E+0	1.015221E+0	1.016514E+0	9.685654E-1	1.015861E+0	1.048726E+0	1.072807E+0	1.000643E+0	1.072150E+0	1.045213E+0	1.034931E+0	9.680303E-1	1.012964E+0	1.036639E+0	1.041995E+0	9.769609E-1	1.018928E+0	1.028725E+0	1.027518E+0	9.986885E-1	1.046804E+0	9.996953E-1	1.025349E+0	9.943655E-1	1.061110E+0	1.043927E+0	1.050383E+0	9.777301E-1	1.016559E+0	1.023936E+0	1.011017E+0	1.013126E+0	1.008984E+0	1.069930E+0	1.033014E+0	1.011540E+0	9.978261E-1	1.044242E+0	1.005077E+0	1.049787E+0	1.018618E+0	1.000524E+0	1.000436E+0	9.826394E-1	1.017040E+0	1.047136E+0	1.107551E+0	1.016282E+0	9.775844E-1	1.028352E+0	1.034112E+0	1.039994E+0	1.007749E+0	1.039600E+0	1.049935E+0	9.736790E-1	9.841074E-1	9.753676E-1	1.033157E+0	9.792353E-1	9.893068E-1	1.037359E+0	1.045382E+0	1.000129E+0	1.020233E+0
5.580170E+2	1.014985E+0	1.060479E+0	1.028901E+0	9.900990E-1	9.835774E-1	1.047188E+0	9.497550E-1	1.016421E+0	1.021406E+0	9.666906E-1	9.938563E-1	9.980708E-1	1.024859E+0	9.889192E-1	1.008230E+0	1.001382E+0	1.002159E+0	1.015013E+0	1.006370E+0	9.988127E-1	9.922215E-1	1.048407E+0	1.032860E+0	1.026555E+0	1.038180E+0	1.046262E+0	1.034558E+0	9.950610E-1	1.016462E+0	1.015688E+0	9.979338E-1	9.773663E-1	9.879503E-1	9.917956E-1	1.007109E+0	1.005270E+0	1.006472E+0	1.071879E+0	1.049416E+0	9.971780E-1	1.050289E+0	1.062109E+0	1.015537E+0	1.021153E+0	1.038167E+0	1.066589E+0	1.006277E+0	9.830969E-1	1.036913E+0	1.075067E+0	9.557422E-1	1.025675E+0	1.040013E+0	1.078256E+0	9.902095E-1	1.028121E+0	1.008128E+0	1.041366E+0	9.820707E-1	9.978185E-1	1.007252E+0	1.044842E+0	9.925982E-1	1.024372E+0	1.048642E+0	9.956847E-1	1.029855E+0	9.686570E-1	1.016561E+0	9.593242E-1	9.833890E-1	1.038054E+0	1.035978E+0	9.851748E-1	1.055295E+0	1.028369E+0	1.037819E+0	1.016851E+0	1.056759E+0	9.982157E-1	9.822142E-1	9.570894E-1	1.023554E+0	9.801175E-1	1.016998E+0	9.146176E-1	1.014390E+0	1.013201E+0	9.915830E-1	9.713025E-1	1.037376E+0	9.923140E-1	1.019649E+0	1.000821E+0	9.768775E-1	1.020506E+0	1.035226E+0	1.005308E+0	1.007663E+0	1.051541E+0	1.035287E+0	9.635665E-1	1.032629E+0	1.023552E+0	1.020326E+0	9.547284E-1	1.063429E+0	1.021972E+0	1.001066E+0	1.004141E+0	9.799703E-1	1.022250E+0	9.768273E-1	9.851140E-1	1.012522E+0	1.015390E+0	1.026210E+0	9.230632E-1	9.988855E-1	9.942819E-1	1.020108E+0	9.486768E-1	1.014381E+0	9.951818E-1	9.851025E-1	9.908180E-1	9.939860E-1	1.024069E+0	1.021307E+0	1.007414E+0	1.026271E+0	1.000521E+0	1.004188E+0	9.761768E-1	9.942126E-1	1.030714E+0	1.009870E+0	9.806017E-1	1.003334E+0	1.054312E+0	1.003822E+0	1.013197E+0	9.842378E-1	9.952977E-1	9.941153E-1	1.018379E+0	1.036520E+0	1.029036E+0	1.043061E+0	9.958666E-1	1.007976E+0	1.034368E+0	9.896200E-1	9.976258E-1	9.888996E-1	9.987299E-1	1.012462E+0	9.891820E-1	9.961516E-1	9.983294E-1	1.003299E+0	9.260295E-1	9.983482E-1	1.024517E+0	9.738291E-1	9.294191E-1	1.056613E+0	1.068705E+0	9.907552E-1	8.923834E-1	9.588535E-1
5.585160E+2	1.025160E+0	1.000316E+0	1.047047E+0	9.698327E-1	1.022528E+0	1.064077E+0	9.787774E-1	9.714583E-1	1.006276E+0	1.038966E+0	1.064571E+0	1.009022E+0	9.610381E-1	1.040630E+0	1.014364E+0	1.022534E+0	1.010463E+0	1.030817E+0	1.053246E+0	1.010123E+0	9.791655E-1	1.057744E+0	1.039070E+0	1.020565E+0	9.858068E-1	1.009213E+0	1.021286E+0	1.000966E+0	9.615896E-1	1.032574E+0	1.003371E+0	9.981348E-1	9.956088E-1	1.077496E+0	1.032576E+0	1.022131E+0	9.970856E-1	1.036675E+0	1.034194E+0	1.021885E+0	9.985857E-1	1.020523E+0	1.009467E+0	1.008743E+0	9.618327E-1	1.022011E+0	1.013373E+0	1.039290E+0	1.041546E+0	1.050119E+0	1.020702E+0	1.007180E+0	9.966324E-1	1.071619E+0	1.035899E+0	1.047630E+0	1.007072E+0	1.034945E+0	1.015341E+0	1.059245E+0	1.022184E+0	1.043843E+0	1.010968E+0	1.003079E+0	1.017972E+0	1.061298E+0	1.000864E+0	1.052734E+0	9.987642E-1	1.069553E+0	1.012869E+0	9.957715E-1	9.647398E-1	1.062448E+0	1.002116E+0	9.516471E-1	9.923061E-1	1.063778E+0	1.006769E+0	1.008128E+0	1.019317E+0	1.067951E+0	1.050796E+0	1.039185E+0	1.008424E+0	1.041685E+0	1.029651E+0	9.670697E-1	9.778806E-1	1.037931E+0	1.000285E+0	1.039920E+0	9.833528E-1	1.007486E+0	1.034417E+0	1.014350E+0	1.026301E+0	9.898023E-1	1.035417E+0	9.908721E-1	1.009492E+0	1.003134E+0	1.004580E+0	9.962296E-1	1.006218E+0	1.004074E+0	9.604635E-1	9.974226E-1	9.936080E-1	1.019541E+0	1.011810E+0	1.018686E+0	1.019249E+0	9.663734E-1	9.600488E-1	1.027915E+0	1.024272E+0	9.247091E-1	1.000059E+0	1.051463E+0	1.011964E+0	9.887890E-1	1.006991E+0	1.015918E+0	9.964826E-1	9.918671E-1	1.019610E+0	1.027116E+0	9.733815E-1	1.019277E+0	1.043976E+0	9.918401E-1	9.782004E-1	9.896421E-1	9.913480E-1	1.009334E+0	9.811784E-1	1.033453E+0	1.004464E+0	9.947365E-1	1.020275E+0	9.778585E-1	9.896729E-1	1.028885E+0	1.008538E+0	1.030593E+0	1.055020E+0	1.031364E+0	1.019327E+0	9.771278E-1	1.033356E+0	1.015747E+0	1.020597E+0	1.006106E+0	1.049789E+0	9.654826E-1	9.987326E-1	9.930068E-1	1.013021E+0	1.003243E+0	1.041404E+0	1.033808E+0	9.949303E-1	1.043599E+0	1.016410E+0	8.921885E-1	1.030822E+0	9.855424E-1	9.823511E-1	9.693431E-1	1.077065E+0
5.590160E+2	1.019147E+0	1.034620E+0	9.803002E-1	1.052634E+0	1.004632E+0	1.030797E+0	1.007800E+0	9.983382E-1	1.030371E+0	1.032157E+0	9.747281E-1	9.954628E-1	1.004787E+0	1.047525E+0	1.027143E+0	1.006992E+0	1.003267E+0	9.986453E-1	9.799279E-1	1.017476E+0	9.884133E-1	1.057743E+0	1.000113E+0	9.906159E-1	1.004137E+0	9.980016E-1	1.005892E+0	9.988189E-1	1.056839E+0	9.993459E-1	1.017507E+0	1.018479E+0	1.076282E+0	1.023672E+0	9.874791E-1	1.007904E+0	1.050935E+0	1.015157E+0	9.716769E-1	1.006000E+0	1.018584E+0	1.038886E+0	9.985433E-1	1.007615E+0	1.001950E+0	9.523575E-1	1.023744E+0	1.000180E+0	9.926382E-1	1.020735E+0	1.013417E+0	9.903175E-1	1.011943E+0	1.035376E+0	1.003263E+0	9.515136E-1	9.870166E-1	1.069194E+0	9.968576E-1	9.490221E-1	1.018451E+0	9.794267E-1	9.958395E-1	9.799769E-1	1.001198E+0	1.001596E+0	9.447328E-1	9.909629E-1	9.799791E-1	1.084560E+0	1.027610E+0	1.039028E+0	9.970275E-1	1.039553E+0	9.746681E-1	9.914954E-1	1.009644E+0	1.016851E+0	1.023953E+0	1.025475E+0	9.939930E-1	1.066296E+0	9.633924E-1	9.526926E-1	9.741244E-1	1.055630E+0	1.004034E+0	1.015164E+0	1.026817E+0	1.006453E+0	1.031100E+0	1.003212E+0	9.823836E-1	1.030559E+0	9.848694E-1	9.797799E-1	1.035226E+0	1.030354E+0	1.010679E+0	9.788485E-1	9.971114E-1	1.091007E+0	9.805373E-1	1.013169E+0	1.026073E+0	1.022435E+0	1.025315E+0	1.037315E+0	1.051139E+0	1.027505E+0	1.039017E+0	9.998469E-1	9.895539E-1	1.063826E+0	9.719747E-1	9.742318E-1	9.608072E-1	1.105671E+0	1.012377E+0	1.012283E+0	1.008399E+0	1.076214E+0	1.018359E+0	1.011039E+0	9.814820E-1	1.024398E+0	9.861423E-1	1.020514E+0	1.050755E+0	1.007414E+0	9.725860E-1	1.019620E+0	9.960059E-1	1.011912E+0	1.035467E+0	9.957759E-1	1.029380E+0	1.006156E+0	9.835574E-1	1.025393E+0	1.045753E+0	1.039148E+0	1.028808E+0	1.023128E+0	1.015462E+0	9.980225E-1	1.009667E+0	1.024962E+0	1.024170E+0	9.771274E-1	1.017041E+0	1.009896E+0	9.912508E-1	9.699229E-1	9.797392E-1	1.031374E+0	1.018798E+0	9.788009E-1	9.929888E-1	9.934164E-1	9.754310E-1	9.623343E-1	1.037653E+0	1.017578E+0	1.018324E+0	9.231268E-1	1.000629E+0	1.022006E+0	1.021011E+0	1.003976E+0	9.679456E-1
5.595110E+2	9.974098E-1	9.834287E-1	1.048991E+0	9.825711E-1	1.003053E+0	9.940394E-1	9.781728E-1	1.013000E+0	9.849821E-1	1.056772E+0	9.828428E-1	9.933770E-1	1.010963E+0	9.938438E-1	9.295099E-1	1.026851E+0	1.002713E+0	1.035896E+0	1.023798E+0	9.965500E-1	9.856935E-1	1.037204E+0	9.684955E-1	1.011081E+0	1.030324E+0	1.017500E+0	9.602406E-1	1.005261E+0	9.895431E-1	9.835495E-1	1.010439E+0	9.820278E-1	9.915243E-1	1.023672E+0	1.000212E+0	1.005796E+0	1.015858E+0	1.081171E+0	9.858113E-1	9.711435E-1	9.888311E-1	1.023223E+0	1.032531E+0	1.023973E+0	9.607187E-1	1.004736E+0	9.893564E-1	9.839960E-1	9.931529E-1	9.858068E-1	1.022523E+0	1.003916E+0	1.008880E+0	1.034355E+0	9.885778E-1	9.776836E-1	9.922948E-1	1.035480E+0	1.009180E+0	1.010448E+0	1.012052E+0	1.027363E+0	9.634215E-1	1.003536E+0	1.011741E+0	9.856357E-1	1.006415E+0	1.015557E+0	9.710806E-1	1.060755E+0	1.005499E+0	1.011323E+0	9.990775E-1	1.035546E+0	9.706654E-1	9.962529E-1	1.000433E+0	9.891212E-1	1.009894E+0	1.003172E+0	9.798583E-1	1.002868E+0	1.001419E+0	9.922472E-1	1.005902E+0	1.039618E+0	1.028561E+0	9.930794E-1	9.778807E-1	1.009076E+0	1.018545E+0	9.837109E-1	9.760922E-1	1.071578E+0	9.779433E-1	1.021451E+0	9.459704E-1	1.029758E+0	1.008870E+0	1.006176E+0	9.769910E-1	1.074049E+0	9.725230E-1	1.010984E+0	9.900200E-1	1.095879E+0	9.735479E-1	9.931259E-1	9.946729E-1	1.005204E+0	1.006599E+0	9.733709E-1	9.699334E-1	1.042408E+0	1.011926E+0	1.002267E+0	9.908439E-1	1.079349E+0	9.719006E-1	9.979882E-1	9.778562E-1	1.062843E+0	1.013244E+0	9.890830E-1	1.021829E+0	1.034891E+0	9.579030E-1	1.022038E+0	1.023616E+0	9.955519E-1	9.777262E-1	1.019619E+0	1.019586E+0	1.020716E+0	9.810344E-1	1.016635E+0	1.033396E+0	1.012544E+0	9.909030E-1	9.565613E-1	9.794056E-1	1.016510E+0	9.913033E-1	9.904989E-1	9.877686E-1	9.811555E-1	9.690886E-1	9.813216E-1	9.980144E-1	1.014605E+0	9.481528E-1	9.742505E-1	1.017879E+0	1.035504E+0	1.016920E+0	1.004171E+0	9.401198E-1	1.002295E+0	9.755919E-1	9.978383E-1	1.031736E+0	1.028136E+0	1.014298E+0	1.003123E+0	1.003014E+0	1.090401E+0	9.842739E-1	9.823442E-1	1.010926E+0	1.052718E+0	1.015685E+0
5.600520E+2	9.784474E-1	1.044119E+0	9.744677E-1	1.012101E+0	1.055162E+0	1.023843E+0	9.999398E-1	1.005180E+0	1.017483E+0	1.021159E+0	1.026895E+0	9.985919E-1	1.013022E+0	1.000739E+0	9.898279E-1	9.918845E-1	1.006034E+0	1.033638E+0	9.847356E-1	1.011819E+0	1.009084E+0	1.056810E+0	9.634135E-1	1.026057E+0	1.018802E+0	1.041388E+0	1.022879E+0	1.015462E+0	9.998963E-1	1.027127E+0	9.702046E-1	1.026533E+0	9.874394E-1	1.004860E+0	1.034698E+0	1.001580E+0	9.881925E-1	1.055255E+0	1.020059E+0	9.998229E-1	9.698078E-1	1.034025E+0	1.017965E+0	1.001410E+0	1.005293E+0	1.010309E+0	9.948149E-1	1.029850E+0	1.004479E+0	9.991129E-1	1.005525E+0	1.012076E+0	1.004287E+0	1.057837E+0	1.033179E+0	1.026693E+0	1.039267E+0	1.057421E+0	1.041218E+0	1.035708E+0	1.000853E+0	9.759314E-1	9.904367E-1	9.854121E-1	9.973645E-1	1.074894E+0	1.010733E+0	9.789523E-1	1.004696E+0	1.101121E+0	1.006633E+0	1.026392E+0	9.965146E-1	1.019519E+0	1.003831E+0	1.023611E+0	1.011270E+0	1.000320E+0	9.562592E-1	1.008128E+0	9.521792E-1	1.043683E+0	1.006527E+0	1.030747E+0	1.011954E+0	1.095920E+0	9.909522E-1	1.015656E+0	1.041987E+0	1.027437E+0	9.848779E-1	9.653565E-1	9.998060E-1	1.031584E+0	1.008845E+0	1.000615E+0	9.905984E-1	1.066135E+0	9.980085E-1	1.003443E+0	9.842135E-1	1.108993E+0	1.068692E+0	1.014262E+0	9.701644E-1	1.049403E+0	1.015075E+0	1.012766E+0	1.061260E+0	1.010513E+0	9.498684E-1	9.993385E-1	9.884932E-1	1.051511E+0	9.767452E-1	9.730389E-1	9.661362E-1	1.074962E+0	1.041709E+0	1.017049E+0	9.860012E-1	1.074156E+0	9.956231E-1	1.011649E+0	1.017690E+0	1.056928E+0	1.026409E+0	1.015437E+0	9.814649E-1	1.021650E+0	1.006854E+0	1.002257E+0	1.024878E+0	1.020716E+0	9.936399E-1	9.916044E-1	9.926549E-1	1.036357E+0	1.016330E+0	1.003413E+0	1.017622E+0	1.020375E+0	1.074464E+0	1.038004E+0	1.024693E+0	1.010818E+0	1.006087E+0	1.005760E+0	1.010608E+0	1.074128E+0	9.771587E-1	9.902107E-1	9.483166E-1	1.004975E+0	1.043323E+0	9.805955E-1	1.044144E+0	1.004480E+0	1.024092E+0	9.840810E-1	9.720184E-1	1.045721E+0	1.050755E+0	1.000809E+0	1.005406E+0	1.113476E+0	9.805002E-1	9.983365E-1	1.017649E+0	1.129679E+0	1.045239E+0
5.605150E+2	9.886225E-1	9.649579E-1	9.906684E-1	1.019050E+0	9.519968E-1	1.015895E+0	1.038031E+0	9.655941E-1	9.978705E-1	1.012255E+0	9.944356E-1	9.933768E-1	9.831697E-1	1.024871E+0	1.002095E+0	9.927472E-1	9.578711E-1	9.625233E-1	9.835337E-1	9.439534E-1	1.013980E+0	9.942577E-1	9.939021E-1	1.009085E+0	9.549067E-1	1.028225E+0	9.729808E-1	9.955974E-1	9.745313E-1	1.036388E+0	1.001196E+0	1.001949E+0	9.823339E-1	9.813444E-1	9.630739E-1	9.768153E-1	9.842400E-1	1.013691E+0	9.667845E-1	1.007324E+0	9.878548E-1	1.021063E+0	9.876190E-1	9.686933E-1	9.908065E-1	9.952633E-1	9.626113E-1	9.839965E-1	9.540268E-1	9.985585E-1	9.484569E-1	9.723665E-1	9.782582E-1	1.071108E+0	9.537676E-1	1.004806E+0	9.838495E-1	1.030129E+0	9.937771E-1	9.599291E-1	9.805885E-1	9.949067E-1	1.012589E+0	9.817892E-1	9.968845E-1	1.021103E+0	1.040340E+0	9.743768E-1	1.003213E+0	1.029187E+0	9.924598E-1	9.870231E-1	1.034953E+0	1.024670E+0	1.008977E+0	1.001011E+0	9.706330E-1	1.008319E+0	1.017184E+0	9.957382E-1	9.621908E-1	1.033203E+0	9.588519E-1	1.019672E+0	9.625228E-1	1.055630E+0	9.964025E-1	9.891539E-1	9.783698E-1	1.041604E+0	9.780306E-1	9.796960E-1	9.746408E-1	9.782600E-1	9.955247E-1	1.024293E+0	1.009640E+0	9.945732E-1	9.714616E-1	1.002897E+0	1.010524E+0	1.042702E+0	9.685161E-1	9.869398E-1	1.003083E+0	1.034484E+0	9.866314E-1	9.912850E-1	9.744303E-1	1.051400E+0	1.022229E+0	9.952650E-1	1.021370E+0	1.011887E+0	1.018485E+0	1.029109E+0	1.032990E+0	1.068930E+0	1.010618E+0	9.858107E-1	1.007381E+0	1.001646E+0	9.842552E-1	1.009819E+0	9.788958E-1	9.850469E-1	9.782984E-1	9.367303E-1	1.023616E+0	1.016904E+0	9.565953E-1	1.014411E+0	9.984117E-1	1.079238E+0	9.672831E-1	9.806536E-1	1.015034E+0	1.029387E+0	1.023110E+0	9.785411E-1	9.257985E-1	1.001049E+0	9.913034E-1	9.833018E-1	1.021809E+0	1.010819E+0	9.702821E-1	1.044165E+0	1.001405E+0	1.052634E+0	1.016436E+0	1.011492E+0	9.836416E-1	1.025893E+0	9.894388E-1	9.963130E-1	9.929240E-1	1.021417E+0	9.950971E-1	1.025844E+0	9.612117E-1	1.039481E+0	9.641695E-1	9.811492E-1	1.004451E+0	1.164338E+0	9.370977E-1	9.612333E-1	1.005883E+0	1.062980E+0	9.702204E-1
5.610180E+2	9.548605E-1	9.443760E-1	9.692838E-1	9.698326E-1	9.777880E-1	9.980132E-1	1.009614E+0	9.748798E-1	9.020496E-1	9.389330E-1	9.828426E-1	9.527011E-1	1.004272E+0	9.903961E-1	9.806269E-1	9.353327E-1	9.706042E-1	9.963880E-1	9.853362E-1	9.818458E-1	9.976611E-1	1.025067E+0	9.543800E-1	9.801338E-1	9.700953E-1	1.063325E+0	9.650182E-1	9.381525E-1	9.797075E-1	1.009696E+0	9.919531E-1	9.638039E-1	9.374013E-1	1.024718E+0	9.715626E-1	9.678571E-1	9.768300E-1	1.032762E+0	9.200321E-1	9.821757E-1	9.859034E-1	9.719160E-1	9.590940E-1	1.000846E+0	9.908068E-1	9.640589E-1	9.844442E-1	9.349960E-1	9.483640E-1	9.891334E-1	9.630277E-1	9.565920E-1	9.843820E-1	1.046606E+0	9.494161E-1	1.013372E+0	9.405716E-1	1.018891E+0	9.635874E-1	1.009300E+0	9.485929E-1	1.027363E+0	9.655823E-1	9.754464E-1	9.547120E-1	1.022877E+0	9.311628E-1	9.846717E-1	9.735529E-1	1.002277E+0	9.612777E-1	9.048860E-1	9.616649E-1	1.034401E+0	9.941103E-1	9.861427E-1	9.662986E-1	9.875216E-1	9.302228E-1	9.605488E-1	1.046997E+0	1.017208E+0	9.974459E-1	9.753706E-1	9.423468E-1	1.076808E+0	9.435322E-1	9.862093E-1	1.008712E+0	9.723520E-1	9.500700E-1	9.791220E-1	9.915790E-1	9.321139E-1	9.848690E-1	9.826196E-1	9.519209E-1	1.027969E+0	9.503435E-1	9.591717E-1	9.898883E-1	1.039619E+0	9.530600E-1	9.503276E-1	1.010398E+0	1.027026E+0	9.678591E-1	9.587569E-1	9.520572E-1	9.738754E-1	9.435003E-1	9.616603E-1	9.508437E-1	9.856502E-1	9.862856E-1	9.593198E-1	9.671050E-1	1.059608E+0	9.654483E-1	9.418652E-1	9.503675E-1	1.035073E+0	9.586777E-1	9.720065E-1	9.752750E-1	9.866206E-1	9.814355E-1	9.941096E-1	9.549042E-1	9.647082E-1	9.628772E-1	9.362803E-1	9.575081E-1	1.026931E+0	1.001662E+0	1.007770E+0	9.324036E-1	9.771173E-1	9.643462E-1	9.189650E-1	9.714443E-1	9.938707E-1	1.001630E+0	9.439544E-1	9.791151E-1	9.689413E-1	9.852012E-1	9.632833E-1	9.815448E-1	9.920084E-1	9.777632E-1	9.705266E-1	9.586430E-1	9.857531E-1	9.269325E-1	9.975214E-1	9.543766E-1	9.258032E-1	9.450150E-1	9.924334E-1	9.572312E-1	1.036645E+0	1.002905E+0	9.597551E-1	9.499075E-1	1.087780E+0	9.855327E-1	9.561161E-1	9.865532E-1	1.068111E+0	9.270261E-1
